,Timestamp,OriginalTimestamp,EEG.Counter,EEG.Interpolated,EEG.AF3,EEG.T7,EEG.Pz,EEG.T8,EEG.AF4,EEG.RawCq,EEG.Battery,EEG.BatteryPercent,MarkerIndex,MarkerType,MarkerValueInt,EEG.MarkerHardware,CQ.AF3,CQ.T7,CQ.Pz,CQ.T8,CQ.AF4,CQ.Overall,EQ.SampleRateQuality,EQ.OVERALL,EQ.AF3,EQ.T7,EQ.Pz,EQ.T8,EQ.AF4,MOT.CounterMems,MOT.InterpolatedMems,MOT.Q0,MOT.Q1,MOT.Q2,MOT.Q3,MOT.AccX,MOT.AccY,MOT.AccZ,MOT.MagX,MOT.MagY,MOT.MagZ,MC.Action,MC.ActionPower,MC.IsActive,PM.Engagement.IsActive,PM.Engagement.Scaled,PM.Engagement.Raw,PM.Engagement.Min,PM.Engagement.Max,PM.Excitement.IsActive,PM.Excitement.Scaled,PM.Excitement.Raw,PM.Excitement.Min,PM.Excitement.Max,PM.LongTermExcitement,PM.Stress.IsActive,PM.Stress.Scaled,PM.Stress.Raw,PM.Stress.Min,PM.Stress.Max,PM.Relaxation.IsActive,PM.Relaxation.Scaled,PM.Relaxation.Raw,PM.Relaxation.Min,PM.Relaxation.Max,PM.Interest.IsActive,PM.Interest.Scaled,PM.Interest.Raw,PM.Interest.Min,PM.Interest.Max,PM.Focus.IsActive,PM.Focus.Scaled,PM.Focus.Raw,PM.Focus.Min,PM.Focus.Max,FE.BlinkWink,FE.HorizontalEyesDirection,FE.UpperFaceAction,FE.UpperFaceActionPower,FE.LowerFaceAction,FE.LowerFaceActionPower,POW.AF3.Theta,POW.AF3.Alpha,POW.AF3.BetaL,POW.AF3.BetaH,POW.AF3.Gamma,POW.T7.Theta,POW.T7.Alpha,POW.T7.BetaL,POW.T7.BetaH,POW.T7.Gamma,POW.Pz.Theta,POW.Pz.Alpha,POW.Pz.BetaL,POW.Pz.BetaH,POW.Pz.Gamma,POW.T8.Theta,POW.T8.Alpha,POW.T8.BetaL,POW.T8.BetaH,POW.T8.Gamma,POW.AF4.Theta,POW.AF4.Alpha,POW.AF4.BetaL,POW.AF4.BetaH,POW.AF4.Gamma
15740,1648953216.175037,1648953216.211535,25.0,0.0,4091.281982,4602.563965,4186.153809,4057.9487299999996,4124.615234000001,0.0,3.0,73.0,,,,0.0,0.0,0.0,0.0,0.0,0.0,0.0,,,,,,,,,,,,,,,,,,,,,,,,,,,,,,,,,,,,,,,,,,,,,,,,,,,,,,0.0,0.0,32.0,0.0476,1.0,0.0,,,,,,,,,,,,,,,,,,,,,,,,,
15741,1648953216.182852,1648953216.21925,26.0,0.0,4073.8461909999996,4569.743652,3982.0512700000004,4276.410156,4153.333496,0.0,3.0,73.0,,,,0.0,0.0,0.0,0.0,0.0,0.0,0.0,,,,,,,,13.0,0.0,0.5041680000000001,-0.118896,0.078125,0.851807,0.29395,-0.027832,-0.9716950000000001,-0.00472,-0.011164,-0.034572000000000006,,,,,,,,,,,,,,,,,,,,,,,,,,,,,,,,,,,,,,,,,,,,,,,,,,,,,,,,,,,,,,,,,
15742,1648953216.190666,1648953216.227065,27.0,0.0,4065.1281740000004,4520.0,4182.05127,4562.05127,4378.461426,0.0,3.0,73.0,,,,0.0,0.0,0.0,0.0,0.0,0.0,0.0,,,,,,,,,,,,,,,,,,,,,,,,,,,,,,,,,,,,,,,,,,,,,,,,,,,,,,,,,,,,,,,,,,,,,,,,,,,,,,,,,,,,
15743,1648953216.198481,1648953216.23478,28.0,0.0,4289.743652,4533.846191,4157.94873,4538.461426,4453.846191,0.0,3.0,73.0,,,,0.0,0.0,0.0,0.0,0.0,0.0,0.0,,,,,,,,14.0,0.0,0.5041680000000001,-0.118896,0.078125,0.851807,0.28809,-0.02002,-0.98439,-0.004346,-0.01122,-0.037121,,,,,,,,,,,,,,,,,,,,,,,,,,,,,,,,,,,,,,,,,,,,,,,,,,,,,,,,,,,,,,,,,
15744,1648953216.206295,1648953216.242595,29.0,0.0,4494.358886999999,4615.384765999999,3844.102539,4464.615234000001,4481.025879,0.0,3.0,73.0,,,,0.0,0.0,0.0,0.0,0.0,0.0,0.0,,,,,,,,,,,,,,,,,,,,,,,,,,,,,,,,,,,,,,,,,,,,,,,,,,,,,,0.0,0.0,32.0,0.0476,1.0,0.0,,,,,,,,,,,,,,,,,,,,,,,,,
15745,1648953216.21411,1648953216.25031,30.0,0.0,4560.512695,4726.666504,3904.615479,4616.410156,4570.256348,0.0,3.0,73.0,,,,0.0,0.0,0.0,0.0,0.0,0.0,0.0,,,,,,,,15.0,0.0,0.5041680000000001,-0.118896,0.078125,0.851807,0.298833,-0.010742,-0.976577,-0.00396,-0.011269,-0.033164,,,,,,,,,,,,,,,,,,,,,,,,,,,,,,,,,,,,,,,,,,,,,,,,,,,,,,,,,,,,,,,,,
15746,1648953216.221924,1648953216.258125,31.0,0.0,4552.820313,4694.358886999999,4135.897461,4590.256348,4438.461426,0.0,3.0,73.0,,,,0.0,0.0,0.0,0.0,0.0,0.0,0.0,,,,,,,,,,,,,,,,,,,,,,,,,,,,,,,,,,,,,,,,,,,,,,,,,,,,,,,,,,,,,,,,,,,,,,,,,,,,,,,,,,,,
15747,1648953216.229739,1648953216.26584,32.0,0.0,4234.358886999999,4409.230957,4293.333496,4265.641113000001,4128.205078,0.0,3.0,73.0,,,,0.0,0.0,0.0,0.0,0.0,0.0,0.0,,,,,,,,16.0,0.0,0.5042260000000001,-0.118652,0.078125,0.851807,0.295903,-0.022461000000000002,-0.975601,-0.000488,-0.011266,-0.035707,,,,,,,,,,,,,,,,,,,,,,,,,,,,,,,,,,,,,,,,,,,,,,,,,,,,,,,,,,,,,,,,,
15748,1648953216.237553,1648953216.2736552,33.0,0.0,3980.0,4421.025879,4294.871582,4116.410156,4065.641113,0.0,3.0,73.0,,,,0.0,0.0,0.0,0.0,0.0,0.0,0.0,,,,,,,,,,,,,,,,,,,,1.0,0.0,0.0,,,,,,,,,,,,,,,,,,,,,,,,,,,,,,,,0.0,0.0,32.0,0.041549,1.0,0.0,174.754593,342.650421,210.124313,66.69606800000001,83.42705500000001,124.17400400000001,697.320557,359.476501,192.57218899999998,142.706451,512.6611330000001,614.8931269999999,225.96713300000002,335.65588399999996,449.04007,476.00653099999994,831.360901,1032.745483,646.448669,591.478882,683.362976,928.765686,660.958801,519.529053,698.640991
15749,1648953216.245368,1648953216.28137,34.0,0.0,4113.333496,4687.179688,4127.692383,4208.205078,4094.8718259999996,0.0,3.0,73.0,,,,0.0,0.0,0.0,0.0,0.0,0.0,0.0,,,,,,,,17.0,0.0,0.50413,-0.118896,0.07836900000000001,0.851807,0.300786,-0.007324,-0.981949,-0.000537,-0.011212999999999999,-0.031892000000000004,,,,,,,,,,,,,,,,,,,,,,,,,,,,,,,,,,,,,,,,,,,,,,,,,,,,,,,,,,,,,,,,,
15750,1648953216.2531831,1648953216.289185,35.0,0.0,4229.230957,4628.717772999999,4107.179688,4157.94873,4076.4101560000004,0.0,3.0,73.0,,,,0.0,0.0,0.0,0.0,0.0,0.0,0.0,,,,,,,,,,,,,,,,,,,,,,,,,,,,,,,,,,,,,,,,,,,,,,,,,,,,,,,,,,,,,,,,,,,,,,,,,,,,,,,,,,,,
15751,1648953216.260997,1648953216.2969,36.0,0.0,4163.077147999999,4542.563965,4099.487305,4002.5642090000006,4041.025635,0.0,3.0,73.0,,,,0.0,0.0,0.0,0.0,0.0,0.0,0.0,,,,,,,,18.0,0.0,0.504188,-0.118652,0.07836900000000001,0.851807,0.29639099999999996,-0.026368,-0.968765,0.002593,-0.011117,-0.034758,,,,,,,,,,,,,,,,,,,,,,,,,,,,,,,,,,,,,,,,,,,,,,,,,,,,,,,,,,,,,,,,,
15752,1648953216.268812,1648953216.304814,37.0,0.0,4317.94873,4681.025879,3915.897461,4161.538574,4090.7692869999996,0.0,3.0,73.0,,,,0.0,0.0,0.0,0.0,0.0,0.0,0.0,,,,,,,,,,,,,,,,,,,,,,,,,,,,,,,,,,,,,,,,,,,,,,,,,,,,,,0.0,0.0,32.0,0.041549,1.0,0.0,,,,,,,,,,,,,,,,,,,,,,,,,
15753,1648953216.2766259,1648953216.312629,38.0,0.0,4381.538574,4623.589844,4194.871582,4314.871582,4305.641113000001,0.0,3.0,73.0,,,,0.0,0.0,0.0,0.0,0.0,0.0,0.0,,,,,,,,19.0,0.0,0.50413,-0.118896,0.07836900000000001,0.851807,0.307134,-0.012695999999999999,-0.980484,0.002285,-0.011129,-0.037386,,,,,,,,,,,,,,,,,,,,,,,,,,,,,,,,,,,,,,,,,,,,,,,,,,,,,,,,,,,,,,,,,
15754,1648953216.284441,1648953216.320544,39.0,0.0,4330.256348,4372.307617,4501.025879,4339.487305,4537.94873,0.0,3.0,73.0,,,,0.0,0.0,0.0,0.0,0.0,0.0,0.0,,,,,,,,,,,,,,,,,,,,,,,,,,,,,,,,,,,,,,,,,,,,,,,,,,,,,,,,,,,,,,,,,,,,,,,,,,,,,,,,,,,,
15755,1648953216.292256,1648953216.328359,40.0,0.0,4532.820313,4355.897461,4016.923096,4526.666504,4494.871582,0.0,3.0,73.0,,,,0.0,0.0,0.0,0.0,0.0,0.0,0.0,,,,,,,,20.0,0.0,0.504188,-0.118652,0.07836900000000001,0.851807,0.298344,-0.019043,-0.968765,0.002252,-0.011041,-0.039652999999999994,,,,,,,,,,,,,,,,,,,,,,,,,,,,,,,,,,,,,,,,,,,,,,,,,,,,,,,,,,,,,,,,,
15756,1648953216.3000698,1648953216.336274,41.0,0.0,4744.102539,4527.179688,3593.8461909999996,4686.666504,4472.820313,0.0,3.0,73.0,,,,0.0,0.0,0.0,0.0,0.0,0.0,0.0,,,,,,,,,,,,,,,,,,,,,,,,,,,,,,,,,,,,,,,,,,,,,,,,,,,,,,0.0,0.0,32.0,0.041549,1.0,0.0,,,,,,,,,,,,,,,,,,,,,,,,,
15757,1648953216.307885,1648953216.344089,42.0,0.0,4529.230957,4693.846191,3892.820557,4420.512695,4414.871582,0.0,3.0,73.0,,,,0.0,0.0,0.0,0.0,0.0,0.0,0.0,,,,,,,,21.0,0.0,0.504188,-0.118652,0.07836900000000001,0.851807,0.298344,-0.010742,-0.98439,0.001978,-0.011059999999999999,-0.041645,,,,,,,,,,,,,,,,,,,,,,,,,,,,,,,,,,,,,,,,,,,,,,,,,,,,,,,,,,,,,,,,,
15758,1648953216.315699,1648953216.3520029,43.0,0.0,4152.307617,4695.384765999999,4123.589844,4147.179688,4146.153809,0.0,3.0,73.0,,,,0.0,0.0,0.0,0.0,0.0,0.0,0.0,,,,,,,,,,,,,,,,,,,,,,,,,,,,,,,,,,,,,,,,,,,,,,,,,,,,,,,,,,,,,,,,,,,,,,,,,,,,,,,,,,,,
15759,1648953216.323514,1648953216.359818,44.0,0.0,4079.487061,4652.307617,3951.281982,4174.358886999999,4048.718018,0.0,3.0,73.0,,,,0.0,0.0,0.0,0.0,0.0,0.0,0.0,,,,,,,,22.0,0.0,0.50413,-0.118896,0.07836900000000001,0.851807,0.298833,-0.014159999999999999,-0.977066,-0.001199,-0.011077,-0.043535000000000004,,,,,,,,,,,,,,,,,,,,,,,,,,,,,,,,,,,,,,,,,,,,,,,,,,,,,,,,,,,,,,,,,
15760,1648953216.331328,1648953216.367533,45.0,0.0,4157.436035,4752.307617,3889.743652,4165.641113000001,4075.384521,0.0,3.0,73.0,,,,0.0,0.0,0.0,0.0,0.0,0.0,0.0,,,,,,,,,,,,,,,,,,,,,,,,,,,,,,,,,,,,,,,,,,,,,,,,,,,,,,0.0,0.0,32.0,0.041549,1.0,0.0,,,,,,,,,,,,,,,,,,,,,,,,,
15761,1648953216.339143,1648953216.375348,46.0,0.0,4111.794922,4652.307617,4156.922852000001,4093.3332520000004,4044.615479,0.0,3.0,73.0,,,,0.0,0.0,0.0,0.0,0.0,0.0,0.0,,,,,,,,23.0,0.0,0.5045430000000001,-0.118896,0.07836900000000001,0.851563,0.294926,-0.018555000000000002,-0.972183,-0.000932,-0.01119,-0.045041000000000005,,,,,,,,,,,,,,,,,,,,,,,,,,,,,,,,,,,,,,,,,,,,,,,,,,,,,,,,,,,,,,,,,
15762,1648953216.346957,1648953216.383063,47.0,0.0,4074.358887,4392.307617,4216.410156,4060.512939,4191.794922,0.0,3.0,73.0,,,,0.0,0.0,0.0,0.0,0.0,0.0,0.0,,,,,,,,,,,,,,,,,,,,,,,,,,,,,,,,,,,,,,,,,,,,,,,,,,,,,,,,,,,,,,,,,,,,,,,,,,,,,,,,,,,,
15763,1648953216.354772,1648953216.390878,48.0,0.0,4128.717772999999,4442.563965,4063.076904,4112.307617,4360.0,0.0,3.0,73.0,,,,0.0,0.0,0.0,0.0,0.0,0.0,0.0,,,,,,,,24.0,0.0,0.5045430000000001,-0.118896,0.07836900000000001,0.851563,0.303227,-0.005371,-0.969741,-0.003915,-0.011145,-0.040293,,,,,,,,,,,,,,,,,,,,,,,,,,,,,,,,,,,,,,,,,,,,,,,,,,,,,,,,,,,,,,,,,
15764,1648953216.362586,1648953216.398593,49.0,0.0,4113.846191,4556.922852000001,4321.025879,4174.871582,4256.410156,0.0,3.0,73.0,,,,0.0,0.0,0.0,0.0,0.0,0.0,0.0,,,,,,,,,,,,,,,,,,,,1.0,0.0,0.0,,,,,,,,,,,,,,,,,,,,,,,,,,,,,,,,10.0,0.0,32.0,0.035894,1.0,0.0,229.350906,407.397186,265.732574,83.039955,78.81498,98.615273,509.404633,233.12982200000002,147.469696,116.053528,585.673279,677.289612,238.412277,318.423981,441.725586,537.1085820000001,906.627808,1098.729736,641.987976,580.144226,827.850403,944.955078,651.051819,492.031158,674.876587
15765,1648953216.370401,1648953216.406408,50.0,0.0,4154.358886999999,4392.820313,4470.769043,4277.94873,4376.410156,0.0,3.0,73.0,,,,0.0,0.0,0.0,0.0,0.0,0.0,0.0,,,,,,,,25.0,0.0,0.50413,-0.118896,0.07836900000000001,0.851807,0.29395,-0.012206999999999999,-0.983902,-0.003426,-0.011105,-0.035922,,,,,,,,,,,,,,,,,,,,,,,,,,,,,,,,,,,,,,,,,,,,,,,,,,,,,,,,,,,,,,,,,
15766,1648953216.378215,1648953216.414123,51.0,0.0,4330.256348,4378.461426,3935.384521,4464.615234000001,4582.563965,0.0,3.0,73.0,,,,0.0,0.0,0.0,0.0,0.0,0.0,0.0,,,,,,,,,,,,,,,,,,,,,,,,,,,,,,,,,,,,,,,,,,,,,,,,,,,,,,,,,,,,,,,,,,,,,,,,,,,,,,,,,,,,
15767,1648953216.3860302,1648953216.4219382,52.0,0.0,4492.820313,4621.025879,3730.256348,4633.333496,4524.102539,0.0,3.0,73.0,,,,0.0,0.0,0.0,0.0,0.0,0.0,0.0,,,,,,,,26.0,0.0,0.50413,-0.118896,0.07836900000000001,0.851807,0.300298,-0.015137000000000001,-0.972671,-0.0031320000000000002,-0.011068999999999999,-0.032037,,,,,,,,,,,,,,,,,,,,,,,,,,,,,,,,,,,,,,,,,,,,,,,,,,,,,,,,,,,,,,,,,
15768,1648953216.393844,1648953216.429653,53.0,0.0,4455.384765999999,4671.282227000001,4117.436035,4434.871582,4470.769043,0.0,3.0,73.0,,,,0.0,0.0,0.0,0.0,0.0,0.0,0.0,,,,,,,,,,,,,,,,,,,,,,,,,,,,,,,,,,,,,,,,,,,,,,,,,,,,,,0.0,0.0,32.0,0.035894,1.0,0.0,,,,,,,,,,,,,,,,,,,,,,,,,
15769,1648953216.401659,1648953216.437468,54.0,0.0,4386.666504,4478.461426,4277.94873,4219.487305,4465.128418,0.0,3.0,73.0,,,,0.0,0.0,0.0,0.0,0.0,0.0,0.0,,,,,,,,27.0,0.0,0.50413,-0.118896,0.07836900000000001,0.851807,0.289555,-0.019043,-0.981949,-0.002868,-0.011134,-0.034937,,,,,,,,,,,,,,,,,,,,,,,,,,,,,,,,,,,,,,,,,,,,,,,,,,,,,,,,,,,,,,,,,
15770,1648953216.4094741,1648953216.445183,55.0,0.0,4269.230957,4350.256348,4262.563965,4185.641113000001,4267.179688,0.0,3.0,73.0,,,,0.0,0.0,0.0,0.0,0.0,0.0,0.0,,,,,,,,,,,,,,,,,,,,,,,,,,,,,,,,,,,,,,,,,,,,,,,,,,,,,,,,,,,,,,,,,,,,,,,,,,,,,,,,,,,,
15771,1648953216.417288,1648953216.453097,56.0,0.0,4141.025879,4481.025879,4287.692383,4160.512695,4157.436035,0.0,3.0,73.0,,,,0.0,0.0,0.0,0.0,0.0,0.0,0.0,,,,,,,,28.0,0.0,0.50413,-0.118896,0.07836900000000001,0.851807,0.285161,-0.015625,-0.981949,-0.005706,-0.011045999999999999,-0.031248,,,,,,,,,,,,,,,,,,,,,,,,,,,,,,,,,,,,,,,,,,,,,,,,,,,,,,,,,,,,,,,,,
15772,1648953216.425103,1648953216.460912,57.0,0.0,4091.794922,4624.615234000001,4266.666504,4087.6923829999996,4198.974121,0.0,3.0,73.0,,,,0.0,0.0,0.0,0.0,0.0,0.0,0.0,,,,,,,,,,,,,,,,,,,,,,,,,,,,,,,,,,,,,,,,,,,,,,,,,,,,,,0.0,0.0,32.0,0.035894,1.0,0.0,,,,,,,,,,,,,,,,,,,,,,,,,
15773,1648953216.4329169,1648953216.468827,58.0,0.0,4129.230957,4558.461426,4237.436035,4094.358887,4228.717772999999,0.0,3.0,73.0,,,,0.0,0.0,0.0,0.0,0.0,0.0,0.0,,,,,,,,29.0,0.0,0.50413,-0.118896,0.07836900000000001,0.851807,0.299321,-0.007812999999999999,-0.978042,-0.005184,-0.011064000000000001,-0.034129,,,,,,,,,,,,,,,,,,,,,,,,,,,,,,,,,,,,,,,,,,,,,,,,,,,,,,,,,,,,,,,,,
15774,1648953216.440732,1648953216.476642,59.0,0.0,4107.692383,4503.077147999999,4261.025879,4103.589844,4247.179688,0.0,3.0,73.0,,,,0.0,0.0,0.0,0.0,0.0,0.0,0.0,,,,,,,,,,,,,,,,,,,,,,,,,,,,,,,,,,,,,,,,,,,,,,,,,,,,,,,,,,,,,,,,,,,,,,,,,,,,,,,,,,,,
15775,1648953216.4485462,1648953216.484557,60.0,0.0,4056.923096,4598.461426,4163.589844,4048.718018,4289.743652,0.0,3.0,73.0,,,,0.0,0.0,0.0,0.0,0.0,0.0,0.0,,,,,,,,30.0,0.0,0.50413,-0.118896,0.07836900000000001,0.851807,0.290532,-0.014159999999999999,-0.98146,-0.0046170000000000004,-0.011179000000000001,-0.030569,,,,,,,,,,,,,,,,,,,,,,,,,,,,,,,,,,,,,,,,,,,,,,,,,,,,,,,,,,,,,,,,,
15776,1648953216.456361,1648953216.492372,61.0,0.0,4064.615479,4602.563965,4155.897461,4084.615479,4268.717772999999,0.0,3.0,73.0,,,,0.0,0.0,0.0,0.0,0.0,0.0,0.0,,,,,,,,,,,,,,,,,,,,,,,,,,,,,,,,,,,,,,,,,,,,,,,,,,,,,,0.0,0.0,32.0,0.035894,1.0,0.0,,,,,,,,,,,,,,,,,,,,,,,,,
15777,1648953216.464176,1648953216.500186,62.0,0.0,4081.538574,4540.0,4363.077147999999,4087.179443,4246.666504,0.0,3.0,73.0,,,,0.0,0.0,0.0,0.0,0.0,0.0,0.0,,,,,,,,31.0,0.0,0.50413,-0.118896,0.07836900000000001,0.851807,0.299809,-0.023438,-0.98146,-0.0010789999999999999,-0.011134999999999999,-0.033518,,,,,,,,,,,,,,,,,,,,,,,,,,,,,,,,,,,,,,,,,,,,,,,,,,,,,,,,,,,,,,,,,
15778,1648953216.47199,1648953216.507901,63.0,0.0,4095.897461,4610.256348,4307.692383,4052.820557,4412.820313,0.0,3.0,73.0,,,,0.0,0.0,0.0,0.0,0.0,0.0,0.0,,,,,,,,,,,,,,,,,,,,,,,,,,,,,,,,,,,,,,,,,,,,,,,,,,,,,,,,,,,,,,,,,,,,,,,,,,,,,,,,,,,,
15779,1648953216.479805,1648953216.515816,64.0,0.0,4063.5898439999996,4649.230957,3910.7692869999996,4209.743652,4450.769043,450.0,3.0,73.0,,,,0.0,0.0,0.0,0.0,0.0,0.0,0.0,,,,,,,,32.0,0.0,0.50413,-0.118896,0.07836900000000001,0.851807,0.29395,-0.012206999999999999,-0.976089,-0.000874,-0.011096,-0.036319,,,,,,,,,,,,,,,,,,,,,,,,,,,,,,,,,,,,,,,,,,,,,,,,,,,,,,,,,,,,,,,,,
15780,1648953216.487619,1648953216.523631,65.0,0.0,4175.897461,4509.230957,3938.974365,4482.05127,4411.282227000001,450.0,3.0,73.0,,,,0.0,0.0,0.0,0.0,0.0,0.0,0.0,1.0,0.0,0.0,0.0,0.0,0.0,0.0,,,,,,,,,,,,,1.0,0.0,0.0,,,,,,,,,,,,,,,,,,,,,,,,,,,,,,,,0.0,0.0,32.0,0.03199,1.0,0.0,301.481598,463.04715,320.056549,105.090096,74.45495600000001,75.41014100000001,338.7789,138.510208,115.619881,91.588104,604.034546,683.362183,227.74035600000002,278.315033,407.731079,556.581482,947.070068,1071.138184,570.098999,502.05249000000003,936.8273929999999,893.620544,599.0859379999999,413.026825,570.1738280000001
15781,1648953216.495434,1648953216.531546,66.0,0.0,4470.769043,4370.769043,4417.436035,4526.153809,4655.384765999999,0.0,3.0,73.0,,,,0.0,0.0,0.0,0.0,0.0,0.0,0.0,,,,,,,,33.0,0.0,0.50413,-0.118896,0.07836900000000001,0.851807,0.29639099999999996,-0.015137000000000001,-0.977554,-0.000786,-0.011109,-0.038595,,,,,,,,,,,,,,,,,,,,,,,,,,,,,,,,,,,,,,,,,,,,,,,,,,,,,,,,,,,,,,,,,
15782,1648953216.503248,1648953216.539361,67.0,0.0,4638.461426,4314.358886999999,4524.615234000001,4471.794922,4776.410156,450.0,3.0,73.0,,,,0.0,0.0,0.0,0.0,0.0,0.0,0.0,,,,,,,,,,,,,,,,,,,,,,,,,,,,,,,,,,,,,,,,,,,,,,,,,,,,,,,,,,,,,,,,,,,,,,,,,,,,,,,,,,,,
15783,1648953216.511063,1648953216.547276,68.0,0.0,4377.94873,4295.897461,4355.384765999999,4336.410156,4316.410156,0.0,3.0,73.0,,,,0.0,0.0,0.0,0.0,0.0,0.0,0.0,,,,,,,,34.0,0.0,0.50413,-0.118896,0.07836900000000001,0.851807,0.299809,-0.023438,-0.98146,-0.003686,-0.011120999999999999,-0.034492,,,,,,,,,,,,,,,,,,,,,,,,,,,,,,,,,,,,,,,,,,,,,,,,,,,,,,,,,,,,,,,,,
15784,1648953216.518877,1648953216.55509,69.0,0.0,4151.282227000001,4404.615234000001,4360.0,4183.077147999999,4000.0,450.0,3.0,73.0,,,,0.0,0.0,0.0,0.0,0.0,0.0,0.0,,,,,,,,,,,,,,,,,,,,,,,,,,,,,,,,,,,,,,,,,,,,,,,,,,,,,,0.0,0.0,32.0,0.03199,1.0,0.0,,,,,,,,,,,,,,,,,,,,,,,,,
15785,1648953216.526692,1648953216.562905,70.0,0.0,4168.205078,4529.230957,4386.666504,4107.692383,4128.717772999999,0.0,3.0,73.0,,,,0.0,0.0,0.0,0.0,0.0,0.0,0.0,,,,,,,,35.0,0.0,0.50413,-0.118896,0.07836900000000001,0.851807,0.29639099999999996,-0.015137000000000001,-0.977554,-0.0033179999999999998,-0.011132,-0.036951,,,,,,,,,,,,,,,,,,,,,,,,,,,,,,,,,,,,,,,,,,,,,,,,,,,,,,,,,,,,,,,,,
15786,1648953216.534506,1648953216.57072,71.0,0.0,4204.615234000001,4555.897461,4350.256348,4143.077147999999,4193.846191,450.0,3.0,73.0,,,,0.0,0.0,0.0,0.0,0.0,0.0,0.0,,,,,,,,,,,,,,,,,,,,,,,,,,,,,,,,,,,,,,,,,,,,,,,,,,,,,,,,,,,,,,,,,,,,,,,,,,,,,,,,,,,,
15787,1648953216.5423212,1648953216.578435,72.0,0.0,4120.512695,4555.384765999999,4318.974121,4095.897461,4110.769043,450.0,3.0,73.0,,,,0.0,0.0,0.0,0.0,0.0,0.0,0.0,,,,,,,,36.0,0.0,0.50413,-0.118896,0.07836900000000001,0.851807,0.301274,-0.015625,-0.9702299999999999,-0.003035,-0.011044,-0.039262,,,,,,,,,,,,,,,,,,,,,,,,,,,,,,,,,,,,,,,,,,,,,,,,,,,,,,,,,,,,,,,,,
15788,1648953216.550135,1648953216.58625,73.0,0.0,4122.05127,4542.05127,4267.179688,4086.1538090000004,4166.153809,0.0,3.0,73.0,,,,0.0,0.0,0.0,0.0,0.0,0.0,0.0,,,,,,,,,,,,,,,,,,,,,,,,,,,,,,,,,,,,,,,,,,,,,,,,,,,,,,0.0,0.0,32.0,0.03199,1.0,0.0,,,,,,,,,,,,,,,,,,,,,,,,,
15789,1648953216.55795,1648953216.593965,74.0,0.0,4132.307617,4514.358886999999,4265.641113000001,4110.256348,4210.769043,450.0,3.0,73.0,,,,0.0,0.0,0.0,0.0,0.0,0.0,0.0,,,,,,,,37.0,0.0,0.504073,-0.11914100000000001,0.07836900000000001,0.851807,0.297856,-0.010254000000000001,-0.98146,-0.002487,-0.011014,-0.041342000000000004,,,,,,,,,,,,,,,,,,,,,,,,,,,,,,,,,,,,,,,,,,,,,,,,,,,,,,,,,,,,,,,,,
15790,1648953216.5657651,1648953216.60188,75.0,0.0,4074.8718259999996,4516.922852000001,4234.871582,4068.205078,4213.333496,0.0,3.0,73.0,,,,0.0,0.0,0.0,0.0,0.0,0.0,0.0,,,,,,,,,,,,,,,,,,,,,,,,,,,,,,,,,,,,,,,,,,,,,,,,,,,,,,,,,,,,,,,,,,,,,,,,,,,,,,,,,,,,
15791,1648953216.5735788,1648953216.609695,76.0,0.0,4079.487061,4527.692383,4258.974121,4085.1281740000004,4245.128418,450.0,3.0,73.0,,,,0.0,0.0,0.0,0.0,0.0,0.0,0.0,,,,,,,,38.0,0.0,0.504073,-0.11914100000000001,0.07836900000000001,0.851807,0.299321,-0.023438,-0.9834129999999999,-0.005363000000000001,-0.010987,-0.036913999999999995,,,,,,,,,,,,,,,,,,,,,,,,,,,,,,,,,,,,,,,,,,,,,,,,,,,,,,,,,,,,,,,,,
15792,1648953216.581394,1648953216.6175098,77.0,0.0,4081.025635,4578.461426,4198.461426,4067.179443,4281.025879,450.0,3.0,73.0,,,,0.0,0.0,0.0,0.0,0.0,0.0,0.0,,,,,,,,,,,,,,,,,,,,,,,,,,,,,,,,,,,,,,,,,,,,,,,,,,,,,,0.0,0.0,32.0,0.03199,1.0,0.0,,,,,,,,,,,,,,,,,,,,,,,,,
15793,1648953216.5892081,1648953216.625225,78.0,0.0,4062.5642090000006,4653.846191,4118.974121,4069.2307130000004,4269.743652,450.0,3.0,73.0,,,,0.0,0.0,0.0,0.0,0.0,0.0,0.0,,,,,,,,39.0,0.0,0.50413,-0.118896,0.07836900000000001,0.851807,0.295415,-0.014159999999999999,-0.9897610000000001,-0.0078060000000000004,-0.011059999999999999,-0.03293,,,,,,,,,,,,,,,,,,,,,,,,,,,,,,,,,,,,,,,,,,,,,,,,,,,,,,,,,,,,,,,,,
15794,1648953216.597023,1648953216.63304,79.0,0.0,4074.8718259999996,4547.692383,4370.256348,4121.025879,4237.94873,0.0,3.0,73.0,,,,0.0,0.0,0.0,0.0,0.0,0.0,0.0,,,,,,,,,,,,,,,,,,,,,,,,,,,,,,,,,,,,,,,,,,,,,,,,,,,,,,,,,,,,,,,,,,,,,,,,,,,,,,,,,,,,
15795,1648953216.604837,1648953216.6407552,80.0,0.0,4100.0,4422.05127,4415.384765999999,4146.153809,4407.692383,450.0,3.0,73.0,,,,0.0,0.0,0.0,0.0,0.0,0.0,0.0,,,,,,,,40.0,0.0,0.50413,-0.118896,0.07836900000000001,0.851807,0.297856,-0.015137000000000001,-0.9741360000000001,-0.006976,-0.011126,-0.029442000000000003,,,,,,,,,,,,,,,,,,,,,,,,,,,,,,,,,,,,,,,,,,,,,,,,,,,,,,,,,,,,,,,,,
15796,1648953216.612652,1648953216.6485689,81.0,0.0,4066.6667479999996,4506.153809,3964.615479,4262.05127,4478.461426,450.0,3.0,73.0,,,,0.0,0.0,0.0,0.0,0.0,0.0,0.0,,,,,,,,,,,,,,,,,,,,1.0,0.0,0.0,,,,,,,,,,,,,,,,,,,,,,,,,,,,,,,,0.0,0.0,32.0,0.035769999999999996,1.0,0.0,377.805481,526.822876,369.776947,133.019348,71.442871,60.488548,216.99287400000003,87.897408,96.741371,71.32292199999999,569.0167240000001,645.2624509999999,201.78100600000002,231.629837,367.604736,540.295654,995.3095699999999,969.042542,451.86148099999997,381.336182,990.769775,823.686951,527.7801509999999,306.354919,417.970215
15797,1648953216.620466,1648953216.656284,82.0,0.0,4153.846191,4549.230957,3903.5898439999996,4473.333496,4421.538574,450.0,3.0,73.0,,,,0.0,0.0,0.0,0.0,0.0,0.0,0.0,,,,,,,,41.0,0.0,0.50413,-0.118896,0.07836900000000001,0.851807,0.299321,-0.017578,-0.977066,-0.006327,-0.011137000000000001,-0.032455,,,,,,,,,,,,,,,,,,,,,,,,,,,,,,,,,,,,,,,,,,,,,,,,,,,,,,,,,,,,,,,,,
15798,1648953216.628281,1648953216.664199,83.0,0.0,4448.205078,4396.922852000001,4522.05127,4517.436035,4613.846191,0.0,3.0,73.0,,,,0.0,0.0,0.0,0.0,0.0,0.0,0.0,,,,,,,,,,,,,,,,,,,,,,,,,,,,,,,,,,,,,,,,,,,,,,,,,,,,,,,,,,,,,,,,,,,,,,,,,,,,,,,,,,,,
15799,1648953216.636096,1648953216.672014,84.0,0.0,4647.179688,4231.794922,4611.794922,4452.820313,4811.794922,450.0,3.0,73.0,,,,0.0,0.0,0.0,0.0,0.0,0.0,0.0,,,,,,,,42.0,0.0,0.50413,-0.118896,0.07836900000000001,0.851807,0.308598,-0.017578,-0.98439,-0.005792,-0.011097,-0.035264,,,,,,,,,,,,,,,,,,,,,,,,,,,,,,,,,,,,,,,,,,,,,,,,,,,,,,,,,,,,,,,,,
15800,1648953216.64391,1648953216.679829,85.0,0.0,4396.922852000001,4357.94873,4000.512939,4348.205078,4424.102539,450.0,3.0,73.0,,,,0.0,0.0,0.0,0.0,0.0,0.0,0.0,,,,,,,,,,,,,,,,,,,,,,,,,,,,,,,,,,,,,,,,,,,,,,,,,,,,,,0.0,0.0,32.0,0.035769999999999996,1.0,0.0,,,,,,,,,,,,,,,,,,,,,,,,,
15801,1648953216.651725,1648953216.6875439,86.0,0.0,4146.666504,4560.0,3877.9487299999996,4264.102539,4022.5642090000006,450.0,3.0,73.0,,,,0.0,0.0,0.0,0.0,0.0,0.0,0.0,,,,,,,,43.0,0.0,0.504035,-0.11914100000000001,0.078613,0.851807,0.309575,-0.014159999999999999,-0.9751129999999999,-0.008338,-0.011111,-0.031347,,,,,,,,,,,,,,,,,,,,,,,,,,,,,,,,,,,,,,,,,,,,,,,,,,,,,,,,,,,,,,,,,
15802,1648953216.659539,1648953216.695459,87.0,0.0,4157.94873,4460.512695,4358.974121,4149.743652,4116.410156,0.0,3.0,73.0,,,,0.0,0.0,0.0,0.0,0.0,0.0,0.0,,,,,,,,,,,,,,,,,,,,,,,,,,,,,,,,,,,,,,,,,,,,,,,,,,,,,,,,,,,,,,,,,,,,,,,,,,,,,,,,,,,,
15803,1648953216.6673539,1648953216.703274,88.0,0.0,4213.846191,4416.410156,4528.205078,4113.846191,4217.94873,450.0,3.0,73.0,,,,0.0,0.0,0.0,0.0,0.0,0.0,0.0,,,,,,,,44.0,0.0,0.504035,-0.11914100000000001,0.078613,0.851807,0.29443800000000003,-0.018067,-0.9790190000000001,-0.007504,-0.011073999999999999,-0.034218,,,,,,,,,,,,,,,,,,,,,,,,,,,,,,,,,,,,,,,,,,,,,,,,,,,,,,,,,,,,,,,,,
15804,1648953216.675168,1648953216.711188,89.0,0.0,4123.589844,4624.102539,4295.384765999999,4083.5898439999996,4103.077147999999,450.0,3.0,73.0,,,,0.0,0.0,0.0,0.0,0.0,0.0,0.0,,,,,,,,,,,,,,,,,,,,,,,,,,,,,,,,,,,,,,,,,,,,,,,,,,,,,,0.0,0.0,32.0,0.035769999999999996,1.0,0.0,,,,,,,,,,,,,,,,,,,,,,,,,
15805,1648953216.682983,1648953216.719003,90.0,0.0,4086.6667479999996,4705.641113000001,4229.230957,4072.3076170000004,4126.153809,450.0,3.0,73.0,,,,0.0,0.0,0.0,0.0,0.0,0.0,0.0,,,,,,,,45.0,0.0,0.504035,-0.11914100000000001,0.078613,0.851807,0.294926,-0.018555000000000002,-0.9702299999999999,-0.00983,-0.010943000000000001,-0.030503,,,,,,,,,,,,,,,,,,,,,,,,,,,,,,,,,,,,,,,,,,,,,,,,,,,,,,,,,,,,,,,,,
15806,1648953216.690797,1648953216.726918,91.0,0.0,4109.743652,4618.974121,4271.794922,4089.743652,4201.538574,0.0,3.0,73.0,,,,0.0,0.0,0.0,0.0,0.0,0.0,0.0,,,,,,,,,,,,,,,,,,,,,,,,,,,,,,,,,,,,,,,,,,,,,,,,,,,,,,,,,,,,,,,,,,,,,,,,,,,,,,,,,,,,
15807,1648953216.698612,1648953216.734733,92.0,0.0,4081.538574,4580.0,4158.461426,4069.743652,4206.153809,450.0,3.0,73.0,,,,0.0,0.0,0.0,0.0,0.0,0.0,0.0,,,,,,,,46.0,0.0,0.504035,-0.11914100000000001,0.078613,0.851807,0.304204,-0.014649,-0.982925,-0.008652,-0.011118000000000001,-0.033458999999999996,,,,,,,,,,,,,,,,,,,,,,,,,,,,,,,,,,,,,,,,,,,,,,,,,,,,,,,,,,,,,,,,,
15808,1648953216.7064269,1648953216.7426481,93.0,0.0,4084.615479,4558.974121,4194.358886999999,4089.743652,4239.487305,450.0,3.0,73.0,,,,0.0,0.0,0.0,0.0,0.0,0.0,0.0,,,,,,,,,,,,,,,,,,,,,,,,,,,,,,,,,,,,,,,,,,,,,,,,,,,,,,0.0,0.0,32.0,0.035769999999999996,1.0,0.0,,,,,,,,,,,,,,,,,,,,,,,,,
15809,1648953216.714241,1648953216.750463,94.0,0.0,4077.9487299999996,4573.333496,4218.974121,4061.538574,4282.563965,450.0,3.0,73.0,,,,0.0,0.0,0.0,0.0,0.0,0.0,0.0,,,,,,,,47.0,0.0,0.504035,-0.11914100000000001,0.078613,0.851807,0.29395,-0.011719,-0.978042,-0.0077870000000000005,-0.011081,-0.036119,,,,,,,,,,,,,,,,,,,,,,,,,,,,,,,,,,,,,,,,,,,,,,,,,,,,,,,,,,,,,,,,,
15810,1648953216.7220562,1648953216.758178,95.0,0.0,4072.3076170000004,4585.128418,4122.05127,4076.4101560000004,4281.025879,0.0,3.0,73.0,,,,0.0,0.0,0.0,0.0,0.0,0.0,0.0,,,,,,,,,,,,,,,,,,,,,,,,,,,,,,,,,,,,,,,,,,,,,,,,,,,,,,,,,,,,,,,,,,,,,,,,,,,,,,,,,,,,
15811,1648953216.7298698,1648953216.766092,96.0,0.0,4070.7692869999996,4531.282227000001,4300.0,4107.179688,4256.410156,450.0,3.0,73.0,,,,0.0,0.0,0.0,0.0,0.0,0.0,0.0,,,,,,,,48.0,0.0,0.504035,-0.11914100000000001,0.078613,0.851807,0.309087,-0.021485,-0.98439,-0.0070079999999999995,-0.011096,-0.038464,,,,,,,,,,,,,,,,,,,,,,,,,,,,,,,,,,,,,,,,,,,,,,,,,,,,,,,,,,,,,,,,,
15812,1648953216.737685,1648953216.773907,97.0,0.0,4090.7692869999996,4567.692383,4436.410156,4077.4357909999994,4376.922852000001,450.0,3.0,73.0,,,,0.0,0.0,0.0,0.0,0.0,0.0,0.0,,,,,,,,,,,,,,,,,,,,1.0,0.0,0.0,,,,,,,,,,,,,,,,,,,,,,,,,,,,,,,,0.0,0.0,32.0,0.039577999999999995,1.0,0.0,438.98104900000004,616.480286,408.511841,165.364044,70.012375,56.84849499999999,150.242569,75.586235,89.748215,57.692135,497.656281,589.060303,174.214462,196.84668,341.39325,504.05703700000004,1084.853882,826.086853,324.437469,253.84791600000003,980.9364619999999,793.6151120000001,462.343689,204.487076,264.64566
15813,1648953216.7454991,1648953216.781722,98.0,0.0,4085.641113,4598.461426,4184.102539,4193.333496,4423.077147999999,450.0,3.0,73.0,,,,0.0,0.0,0.0,0.0,0.0,0.0,0.0,,,,,,,,49.0,0.0,0.503996,-0.11914100000000001,0.07885700000000001,0.851807,0.305669,-0.014159999999999999,-0.973648,-0.006111999999999999,-0.011207,-0.040673,,,,,,,,,,,,,,,,,,,,,,,,,,,,,,,,,,,,,,,,,,,,,,,,,,,,,,,,,,,,,,,,,
15814,1648953216.753314,1648953216.7894368,99.0,0.0,4105.128418,4504.102539,4098.974121,4462.563965,4403.589844,0.0,3.0,73.0,,,,0.0,0.0,0.0,0.0,0.0,0.0,0.0,,,,,,,,,,,,,,,,,,,,,,,,,,,,,,,,,,,,,,,,,,,,,,,,,,,,,,,,,,,,,,,,,,,,,,,,,,,,,,,,,,,,
15815,1648953216.761128,1648953216.797252,100.0,0.0,4309.230957,4465.641113000001,4478.974121,4524.615234000001,4554.358886999999,450.0,3.0,73.0,,,,0.0,0.0,0.0,0.0,0.0,0.0,0.0,,,,,,,,50.0,0.0,0.503996,-0.11914100000000001,0.07885700000000001,0.851807,0.28320700000000004,-0.013672,-0.973159,-0.005501,-0.01116,-0.042562,,,,,,,,,,,,,,,,,,,,,,,,,,,,,,,,,,,,,,,,,,,,,,,,,,,,,,,,,,,,,,,,,
15816,1648953216.768943,1648953216.804967,101.0,0.0,4585.128418,4504.102539,4419.487305,4448.717772999999,4731.794922,450.0,3.0,73.0,,,,0.0,0.0,0.0,0.0,0.0,0.0,0.0,,,,,,,,,,,,,,,,,,,,,,,,,,,,,,,,,,,,,,,,,,,,,,,,,,,,,,0.0,0.0,32.0,0.039577999999999995,1.0,0.0,,,,,,,,,,,,,,,,,,,,,,,,,
15817,1648953216.776757,1648953216.812782,102.0,0.0,4448.717772999999,4607.179688,3765.641113,4363.589844,4469.230957,450.0,3.0,73.0,,,,0.0,0.0,0.0,0.0,0.0,0.0,0.0,,,,,,,,51.0,0.0,0.503939,-0.11938499999999999,0.07885700000000001,0.851807,0.305669,-0.005371,-0.972183,-0.004951,-0.011265,-0.038062,,,,,,,,,,,,,,,,,,,,,,,,,,,,,,,,,,,,,,,,,,,,,,,,,,,,,,,,,,,,,,,,,
15818,1648953216.7845721,1648953216.820497,103.0,0.0,4174.358886999999,4604.615234000001,3696.4101560000004,4271.282227000001,4148.717772999999,0.0,3.0,73.0,,,,0.0,0.0,0.0,0.0,0.0,0.0,0.0,,,,,,,,,,,,,,,,,,,,,,,,,,,,,,,,,,,,,,,,,,,,,,,,,,,,,,,,,,,,,,,,,,,,,,,,,,,,,,,,,,,,
15819,1648953216.792386,1648953216.828312,104.0,0.0,4155.384765999999,4462.563965,4224.615234000001,4174.871582,4127.692383,450.0,3.0,73.0,,,,0.0,0.0,0.0,0.0,0.0,0.0,0.0,,,,,,,,52.0,0.0,0.503996,-0.11914100000000001,0.07885700000000001,0.851807,0.292485,-0.015137000000000001,-0.9873200000000001,-0.004456,-0.011262000000000001,-0.040213,,,,,,,,,,,,,,,,,,,,,,,,,,,,,,,,,,,,,,,,,,,,,,,,,,,,,,,,,,,,,,,,,
15820,1648953216.800201,1648953216.836027,105.0,0.0,4224.615234000001,4390.769043,4378.974121,4192.307617,4169.230957,450.0,3.0,73.0,,,,0.0,0.0,0.0,0.0,0.0,0.0,0.0,,,,,,,,,,,,,,,,,,,,,,,,,,,,,,,,,,,,,,,,,,,,,,,,,,,,,,0.0,0.0,32.0,0.039577999999999995,1.0,0.0,,,,,,,,,,,,,,,,,,,,,,,,,
15821,1648953216.808016,1648953216.843941,106.0,0.0,4146.666504,4449.230957,4239.487305,4169.230957,4147.179688,450.0,3.0,73.0,,,,0.0,0.0,0.0,0.0,0.0,0.0,0.0,,,,,,,,53.0,0.0,0.503939,-0.11938499999999999,0.07885700000000001,0.851807,0.295903,-0.012695999999999999,-0.9716950000000001,-0.004059,-0.011307,-0.035948,,,,,,,,,,,,,,,,,,,,,,,,,,,,,,,,,,,,,,,,,,,,,,,,,,,,,,,,,,,,,,,,,
15822,1648953216.81583,1648953216.851756,107.0,0.0,4122.05127,4382.563965,4294.358886999999,4114.358886999999,4202.563965,0.0,3.0,73.0,,,,0.0,0.0,0.0,0.0,0.0,0.0,0.0,,,,,,,,,,,,,,,,,,,,,,,,,,,,,,,,,,,,,,,,,,,,,,,,,,,,,,,,,,,,,,,,,,,,,,,,,,,,,,,,,,,,
15823,1648953216.8236449,1648953216.859671,108.0,0.0,4150.769043,4271.794922,4368.717772999999,4126.153809,4252.307617,450.0,3.0,73.0,,,,0.0,0.0,0.0,0.0,0.0,0.0,0.0,,,,,,,,54.0,0.0,0.503939,-0.11938499999999999,0.07885700000000001,0.851807,0.305669,-0.012206999999999999,-0.989273,-0.0037020000000000004,-0.011348,-0.038456,,,,,,,,,,,,,,,,,,,,,,,,,,,,,,,,,,,,,,,,,,,,,,,,,,,,,,,,,,,,,,,,,
15824,1648953216.831459,1648953216.867486,109.0,0.0,4116.922852000001,4387.179688,4241.538574,4114.871582,4243.077147999999,450.0,3.0,73.0,,,,0.0,0.0,0.0,0.0,0.0,0.0,0.0,,,,,,,,,,,,,,,,,,,,,,,,,,,,,,,,,,,,,,,,,,,,,,,,,,,,,,0.0,0.0,32.0,0.039577999999999995,1.0,0.0,,,,,,,,,,,,,,,,,,,,,,,,,
15825,1648953216.839274,1648953216.875401,110.0,0.0,4120.512695,4549.230957,4233.333496,4115.384765999999,4266.153809,450.0,3.0,73.0,,,,0.0,0.0,0.0,0.0,0.0,0.0,0.0,,,,,,,,55.0,0.0,0.503939,-0.11938499999999999,0.07885700000000001,0.851807,0.303227,-0.001465,-0.984878,-0.00025499999999999996,-0.011288,-0.040666,,,,,,,,,,,,,,,,,,,,,,,,,,,,,,,,,,,,,,,,,,,,,,,,,,,,,,,,,,,,,,,,,
15826,1648953216.847088,1648953216.883216,111.0,0.0,4085.1281740000004,4560.512695,4217.436035,4065.641113,4286.153809,0.0,3.0,73.0,,,,0.0,0.0,0.0,0.0,0.0,0.0,0.0,,,,,,,,,,,,,,,,,,,,,,,,,,,,,,,,,,,,,,,,,,,,,,,,,,,,,,,,,,,,,,,,,,,,,,,,,,,,,,,,,,,,
15827,1648953216.854903,1648953216.89113,112.0,0.0,4053.8461909999996,4526.153809,4122.563965,4071.281982,4283.077147999999,450.0,3.0,73.0,,,,0.0,0.0,0.0,0.0,0.0,0.0,0.0,,,,,,,,56.0,0.0,0.503939,-0.11938499999999999,0.07885700000000001,0.851807,0.299321,-0.017578,-0.979507,-0.00022999999999999998,-0.011281999999999999,-0.042506999999999996,,,,,,,,,,,,,,,,,,,,,,,,,,,,,,,,,,,,,,,,,,,,,,,,,,,,,,,,,,,,,,,,,
15828,1648953216.8627179,1648953216.8989449,113.0,0.0,4075.384521,4616.922852000001,4240.0,4097.436035,4243.077147999999,450.0,3.0,73.0,,,,0.0,0.0,0.0,0.0,0.0,0.0,0.0,,,,,,,,,,,,,,,,,,,,1.0,0.0,0.0,,,,,,,,,,,,,,,,,,,,,,,,,,,,,,,,0.0,0.0,32.0,0.038168,1.0,0.0,470.77658099999996,736.128296,429.62854000000004,198.73963899999998,69.687225,64.781914,123.849106,86.559837,90.46485899999999,51.631386,412.71283,537.176697,158.89840700000002,185.332611,338.601807,466.78768899999994,1219.634888,678.1446530000001,222.418564,151.091217,914.2233890000001,839.3407589999999,420.806732,132.535507,148.671249
15829,1648953216.870532,1648953216.9068599,114.0,0.0,4102.05127,4718.461426,4304.102539,4053.8461909999996,4388.205078,450.0,3.0,73.0,,,,0.0,0.0,0.0,0.0,0.0,0.0,0.0,,,,,,,,57.0,0.0,0.503939,-0.11938499999999999,0.07885700000000001,0.851807,0.295903,-0.021485,-0.9677879999999999,-0.000304,-0.011375,-0.044067,,,,,,,,,,,,,,,,,,,,,,,,,,,,,,,,,,,,,,,,,,,,,,,,,,,,,,,,,,,,,,,,,
15830,1648953216.8783472,1648953216.914675,115.0,0.0,4062.0512700000004,4636.410156,4081.538574,4156.922852000001,4481.025879,0.0,3.0,73.0,,,,0.0,0.0,0.0,0.0,0.0,0.0,0.0,,,,,,,,,,,,,,,,,,,,,,,,,,,,,,,,,,,,,,,,,,,,,,,,,,,,,,,,,,,,,,,,,,,,,,,,,,,,,,,,,,,,
15831,1648953216.8861609,1648953216.92239,116.0,0.0,4130.769043,4493.333496,4016.4101560000004,4444.615234000001,4412.820313,450.0,3.0,73.0,,,,0.0,0.0,0.0,0.0,0.0,0.0,0.0,,,,,,,,58.0,0.0,0.503939,-0.11938499999999999,0.07885700000000001,0.851807,0.291997,-0.013672,-0.980484,-0.00335,-0.011359999999999999,-0.039368,,,,,,,,,,,,,,,,,,,,,,,,,,,,,,,,,,,,,,,,,,,,,,,,,,,,,,,,,,,,,,,,,
15832,1648953216.893976,1648953216.930205,117.0,0.0,4402.563965,4431.282227000001,4364.102539,4530.769043,4589.743652,450.0,3.0,73.0,,,,0.0,0.0,0.0,0.0,0.0,0.0,0.0,,,,,,,,,,,,,,,,,,,,,,,,,,,,,,,,,,,,,,,,,,,,,,,,,,,,,,0.0,0.0,32.0,0.038168,1.0,0.0,,,,,,,,,,,,,,,,,,,,,,,,,
15833,1648953216.9017901,1648953216.9379199,118.0,0.0,4647.692383,4390.256348,4522.563965,4493.333496,4801.025879,450.0,3.0,73.0,,,,0.0,0.0,0.0,0.0,0.0,0.0,0.0,,,,,,,,59.0,0.0,0.503996,-0.11914100000000001,0.07885700000000001,0.851807,0.29688000000000003,-0.02002,-0.9785309999999999,1.2e-05,-0.011347,-0.041486,,,,,,,,,,,,,,,,,,,,,,,,,,,,,,,,,,,,,,,,,,,,,,,,,,,,,,,,,,,,,,,,,
15834,1648953216.909605,1648953216.945735,119.0,0.0,4445.128418,4306.666504,4361.025879,4371.794922,4426.666504,0.0,3.0,73.0,,,,0.0,0.0,0.0,0.0,0.0,0.0,0.0,,,,,,,,,,,,,,,,,,,,,,,,,,,,,,,,,,,,,,,,,,,,,,,,,,,,,,,,,,,,,,,,,,,,,,,,,,,,,,,,,,,,
15835,1648953216.917419,1648953216.95345,120.0,0.0,4154.358886999999,4390.769043,4316.410156,4193.846191,4015.384521,450.0,3.0,73.0,,,,0.0,0.0,0.0,0.0,0.0,0.0,0.0,,,,,,,,60.0,0.0,0.503939,-0.11938499999999999,0.07885700000000001,0.851807,0.299809,-0.016602000000000002,-0.9785309999999999,-3.8e-05,-0.011287,-0.043245,,,,,,,,,,,,,,,,,,,,,,,,,,,,,,,,,,,,,,,,,,,,,,,,,,,,,,,,,,,,,,,,,
15836,1648953216.925234,1648953216.961265,121.0,0.0,4135.384765999999,4533.846191,4392.307617,4092.820557,4090.7692869999996,450.0,3.0,73.0,,,,0.0,0.0,0.0,0.0,0.0,0.0,0.0,,,,,,,,,,,,,,,,,,,,,,,,,,,,,,,,,,,,,,,,,,,,,,,,,,,,,,0.0,0.0,32.0,0.038168,1.0,0.0,,,,,,,,,,,,,,,,,,,,,,,,,
15837,1648953216.933048,1648953216.96898,122.0,0.0,4214.871582,4503.077147999999,4332.820313,4137.436035,4186.666504,450.0,3.0,73.0,,,,0.0,0.0,0.0,0.0,0.0,0.0,0.0,,,,,,,,61.0,0.0,0.504447,-0.11914100000000001,0.078613,0.851563,0.290044,-0.00293,-0.9834129999999999,-3.4e-05,-0.011281,-0.038676999999999996,,,,,,,,,,,,,,,,,,,,,,,,,,,,,,,,,,,,,,,,,,,,,,,,,,,,,,,,,,,,,,,,,
15838,1648953216.9408631,1648953216.976795,123.0,0.0,4135.897461,4487.692383,4344.102539,4125.128418,4124.102539,0.0,3.0,73.0,,,,0.0,0.0,0.0,0.0,0.0,0.0,0.0,,,,,,,,,,,,,,,,,,,,,,,,,,,,,,,,,,,,,,,,,,,,,,,,,,,,,,,,,,,,,,,,,,,,,,,,,,,,,,,,,,,,
15839,1648953216.948677,1648953216.98451,124.0,0.0,4050.256348,4666.153809,4380.0,4027.6923829999996,4141.025879,450.0,3.0,73.0,,,,0.0,0.0,0.0,0.0,0.0,0.0,0.0,,,,,,,,62.0,0.0,0.503996,-0.11914100000000001,0.07885700000000001,0.851807,0.29688000000000003,-0.02002,-0.9785309999999999,-0.003156,-0.011276000000000001,-0.034418000000000004,,,,,,,,,,,,,,,,,,,,,,,,,,,,,,,,,,,,,,,,,,,,,,,,,,,,,,,,,,,,,,,,,
15840,1648953216.956492,1648953216.992324,125.0,0.0,4078.461426,4707.179688,4357.94873,4065.641113,4129.230957,450.0,3.0,73.0,,,,0.0,0.0,0.0,0.0,0.0,0.0,0.0,,,,,,,,,,,,,,,,,,,,,,,,,,,,,,,,,,,,,,,,,,,,,,,,,,,,,,0.0,0.0,32.0,0.038168,1.0,0.0,,,,,,,,,,,,,,,,,,,,,,,,,
15841,1648953216.964306,1648953217.000039,126.0,0.0,4064.102539,4509.230957,4455.384765999999,4164.102539,4107.179688,450.0,3.0,73.0,,,,0.0,0.0,0.0,0.0,0.0,0.0,0.0,,,,,,,,63.0,0.0,0.504447,-0.11914100000000001,0.078613,0.851563,0.290044,-0.00293,-0.9834129999999999,-0.0028399999999999996,-0.011271999999999999,-0.030732,,,,,,,,,,,,,,,,,,,,,,,,,,,,,,,,,,,,,,,,,,,,,,,,,,,,,,,,,,,,,,,,,
15842,1648953216.972121,1648953217.007954,127.0,0.0,4080.0,4474.358886999999,4361.025879,4196.922852000001,4165.641113000001,238.0,3.0,73.0,,,,0.0,0.0,0.0,0.0,0.0,0.0,0.0,,,,,,,,,,,,,,,,,,,,,,,,,,,,,,,,,,,,,,,,,,,,,,,,,,,,,,,,,,,,,,,,,,,,,,,,,,,,,,,,,,,,
15843,1648953216.979936,1648953217.015769,0.0,0.0,4088.205078,4580.512695,4005.641113,4207.179688,4158.974121,450.0,3.0,73.0,,,,0.0,0.0,0.0,0.0,0.0,0.0,0.0,,,,,,,,0.0,0.0,0.504409,-0.11914100000000001,0.07885700000000001,0.851563,0.299809,-0.030762,-0.9873200000000001,-0.005632,-0.011219,-0.027415,,,,,,,,,,,,,,,,,,,,,,,,,,,,,,,,,,,,,,,,,,,,,,,,,,,,,,,,,,,,,,,,,
15844,1648953216.98775,1648953217.023684,1.0,0.0,4085.1281740000004,4540.0,4010.256348,4429.743652,4278.974121,450.0,3.0,73.0,,,,0.0,2.0,0.0,0.0,0.0,0.0,0.0,1.0,0.0,0.0,0.0,0.0,0.0,0.0,,,,,,,,,,,,,1.0,0.0,0.0,,,,,,,,,,,,,,,,,,,,,,,,,,,,,,,,0.0,0.0,32.0,0.055629,1.0,0.0,472.73287999999997,865.550964,429.358307,227.88935899999998,69.863029,82.059921,117.948952,107.160164,93.69560200000001,51.861382,333.647125,496.24374400000005,163.148788,197.756729,355.536163,444.53182999999996,1358.538818,551.730774,160.491226,87.733582,814.783569,947.5908810000001,408.694458,99.002914,85.820488
15845,1648953216.995565,1648953217.031499,2.0,0.0,4227.692383,4468.205078,4317.436035,4566.666504,4535.897461,177.0,3.0,73.0,,,,0.0,2.0,0.0,0.0,0.0,0.0,0.0,,,,,,,,1.0,0.0,0.504351,-0.11938499999999999,0.07885700000000001,0.851563,0.297856,-0.016602000000000002,-0.991714,-0.005069,-0.011170999999999999,-0.030581999999999998,,,,,,,,,,,,,,,,,,,,,,,,,,,,,,,,,,,,,,,,,,,,,,,,,,,,,,,,,,,,,,,,,
15846,1648953217.0033789,1648953217.0394142,3.0,0.0,4449.743652,4546.153809,4090.256348,4466.666504,4665.641113000001,450.0,3.0,73.0,,,,0.0,2.0,1.0,0.0,0.0,0.0,0.0,,,,,,,,,,,,,,,,,,,,,,,,,,,,,,,,,,,,,,,,,,,,,,,,,,,,,,,,,,,,,,,,,,,,,,,,,,,,,,,,,,,,
15847,1648953217.011194,1648953217.0472279,4.0,0.0,4537.436035,4691.794922,3759.487061,4538.974121,4527.692383,69.0,3.0,73.0,,,,0.0,2.0,1.0,0.0,0.0,0.0,0.0,,,,,,,,2.0,0.0,0.504351,-0.11938499999999999,0.07885700000000001,0.851563,0.300786,-0.011231,-0.973159,-0.007687,-0.011128,-0.033530000000000004,,,,,,,,,,,,,,,,,,,,,,,,,,,,,,,,,,,,,,,,,,,,,,,,,,,,,,,,,,,,,,,,,
15848,1648953217.019008,1648953217.0551429,5.0,0.0,4587.692383,4786.666504,3950.256348,4606.666504,4387.179688,450.0,3.0,73.0,,,,0.0,2.0,1.0,0.0,0.0,0.0,0.0,,,,,,,,,,,,,,,,,,,,,,,,,,,,,,,,,,,,,,,,,,,,,,,,,,,,,,0.0,0.0,32.0,0.055629,1.0,0.0,,,,,,,,,,,,,,,,,,,,,,,,,
15849,1648953217.026823,1648953217.062958,6.0,0.0,4380.0,4590.769043,4330.769043,4330.769043,4234.358886999999,0.0,3.0,73.0,,,,0.0,2.0,1.0,0.0,0.0,0.0,0.0,,,,,,,,3.0,0.0,0.504351,-0.11938499999999999,0.07885700000000001,0.851563,0.290532,-0.014159999999999999,-0.9868309999999999,-0.006919,-0.011090000000000001,-0.036183,,,,,,,,,,,,,,,,,,,,,,,,,,,,,,,,,,,,,,,,,,,,,,,,,,,,,,,,,,,,,,,,,
15850,1648953217.0346382,1648953217.0707731,7.0,0.0,4077.4357909999994,4345.128418,4425.128418,4135.384765999999,4130.256348,450.0,3.0,73.0,,,,0.0,2.0,1.0,0.0,0.0,0.0,0.0,,,,,,,,,,,,,,,,,,,,,,,,,,,,,,,,,,,,,,,,,,,,,,,,,,,,,,,,,,,,,,,,,,,,,,,,,,,,,,,,,,,,
15851,1648953217.0424519,1648953217.078488,8.0,0.0,4040.0,4463.077147999999,4336.922852000001,4224.615234000001,4093.8461909999996,450.0,3.0,73.0,,,,0.0,2.0,1.0,0.0,0.0,0.0,0.0,,,,,,,,4.0,0.0,0.5043890000000001,-0.11938499999999999,0.078613,0.851563,0.298344,-0.012206999999999999,-0.9741360000000001,-0.0062759999999999995,-0.011054999999999999,-0.03232,,,,,,,,,,,,,,,,,,,,,,,,,,,,,,,,,,,,,,,,,,,,,,,,,,,,,,,,,,,,,,,,,
15852,1648953217.050267,1648953217.086403,9.0,0.0,4115.384765999999,4623.077147999999,4341.538574,4271.282227000001,4071.281982,186.0,3.0,73.0,,,,0.0,2.0,1.0,0.0,2.0,0.0,8.333333,,,,,,,,,,,,,,,,,,,,,,,,,,,,,,,,,,,,,,,,,,,,,,,,,,,,,,0.0,0.0,32.0,0.055629,1.0,0.0,,,,,,,,,,,,,,,,,,,,,,,,,
15853,1648953217.0580812,1648953217.094218,10.0,0.0,4084.102539,4596.922852000001,4212.307617,4163.589844,4041.025635,450.0,3.0,73.0,,,,0.0,2.0,1.0,0.0,2.0,0.0,8.333333,,,,,,,,5.0,0.0,0.5043890000000001,-0.11938499999999999,0.078613,0.851563,0.304692,-0.0058590000000000005,-0.973159,-0.005697,-0.011072,-0.035045,,,,,,,,,,,,,,,,,,,,,,,,,,,,,,,,,,,,,,,,,,,,,,,,,,,,,,,,,,,,,,,,,
15854,1648953217.065896,1648953217.102132,11.0,0.0,4172.307617,4597.436035,4011.794922,4149.230957,4074.8718259999996,0.0,3.0,73.0,,,,0.0,2.0,1.0,0.0,2.0,0.0,8.333333,,,,,,,,,,,,,,,,,,,,,,,,,,,,,,,,,,,,,,,,,,,,,,,,,,,,,,,,,,,,,,,,,,,,,,,,,,,,,,,,,,,,
15855,1648953217.07371,1648953217.109947,12.0,0.0,4230.769043,4608.717772999999,4033.3332520000004,4187.692383,4127.692383,450.0,3.0,73.0,,,,0.0,2.0,1.0,0.0,2.0,0.0,8.333333,,,,,,,,6.0,0.0,0.503977,-0.11938499999999999,0.078613,0.851807,0.290044,-0.009766,-0.976089,-0.0020510000000000003,-0.010990999999999999,-0.037449,,,,,,,,,,,,,,,,,,,,,,,,,,,,,,,,,,,,,,,,,,,,,,,,,,,,,,,,,,,,,,,,,
15856,1648953217.081525,1648953217.117862,13.0,0.0,4233.846191,4581.538574,4058.461426,4197.436035,4166.666504,450.0,3.0,73.0,,,,0.0,2.0,1.0,0.0,2.0,0.0,8.333333,,,,,,,,,,,,,,,,,,,,,,,,,,,,,,,,,,,,,,,,,,,,,,,,,,,,,,0.0,0.0,32.0,0.055629,1.0,0.0,,,,,,,,,,,,,,,,,,,,,,,,,
15857,1648953217.089339,1648953217.1256769,14.0,0.0,4492.820313,4603.077147999999,4046.1538090000004,4311.282227000001,4343.589844,450.0,3.0,73.0,,,,0.0,2.0,1.0,0.0,2.0,0.0,8.333333,,,,,,,,7.0,0.0,0.504351,-0.11938499999999999,0.07885700000000001,0.851563,0.29443800000000003,-0.01709,-0.9716950000000001,0.00123,-0.011015,-0.039758999999999996,,,,,,,,,,,,,,,,,,,,,,,,,,,,,,,,,,,,,,,,,,,,,,,,,,,,,,,,,,,,,,,,,
15858,1648953217.097154,1648953217.133392,15.0,0.0,4563.589844,4573.333496,4207.692383,4513.846191,4585.128418,0.0,3.0,73.0,,,,0.0,2.0,1.0,0.0,2.0,0.0,8.333333,,,,,,,,,,,,,,,,,,,,,,,,,,,,,,,,,,,,,,,,,,,,,,,,,,,,,,,,,,,,,,,,,,,,,,,,,,,,,,,,,,,,
15859,1648953217.104968,1648953217.141307,16.0,0.0,4437.436035,4465.641113000001,4427.179688,4657.94873,4589.230957,0.0,3.0,73.0,,,,0.0,2.0,1.0,0.0,2.0,0.0,8.333333,,,,,,,,8.0,0.0,0.504351,-0.11938499999999999,0.07885700000000001,0.851563,0.295903,-0.012206999999999999,-0.984878,0.001254,-0.011036,-0.035539,,,,,,,,,,,,,,,,,,,,,,,,,,,,,,,,,,,,,,,,,,,,,,,,,,,,,,,,,,,,,,,,,
15860,1648953217.112783,1648953217.149122,17.0,0.0,4626.666504,4370.769043,4484.615234000001,4558.974121,4375.897461,0.0,3.0,73.0,,,,0.0,2.0,1.0,0.0,2.0,0.0,8.333333,,,,,,,,,,,,,,,,,,,,1.0,0.0,0.0,,,,,,,,,,,,,,,,,,,,,,,,,,,,,,,,0.0,0.0,32.0,0.048139,1.0,0.0,460.386627,966.943237,407.980103,246.78633100000002,69.97448,105.150154,121.05275,129.362381,94.832977,55.718212,271.851227,459.499237,184.282379,225.418503,379.417297,450.208008,1442.150269,457.632233,132.065811,59.115543,718.416199,1063.889526,417.694977,95.300629,67.75808
15861,1648953217.1205971,1648953217.156936,18.0,0.0,4733.333496,4434.871582,4244.102539,4353.846191,4320.512695,0.0,3.0,73.0,,,,0.0,2.0,1.0,0.0,2.0,0.0,8.333333,,,,,,,,9.0,0.0,0.504351,-0.11938499999999999,0.07885700000000001,0.851563,0.306645,-0.031738999999999996,-0.98146,0.0042049999999999995,-0.011056,-0.037991000000000004,,,,,,,,,,,,,,,,,,,,,,,,,,,,,,,,,,,,,,,,,,,,,,,,,,,,,,,,,,,,,,,,,
15862,1648953217.128412,1648953217.164651,19.0,0.0,4328.205078,4679.487305,3945.1281740000004,4177.436035,4191.282227000001,0.0,3.0,73.0,,,,0.0,2.0,1.0,0.0,2.0,0.0,8.333333,,,,,,,,,,,,,,,,,,,,,,,,,,,,,,,,,,,,,,,,,,,,,,,,,,,,,,,,,,,,,,,,,,,,,,,,,,,,,,,,,,,,
15863,1648953217.136227,1648953217.172466,20.0,0.0,4078.461426,4691.282227000001,3995.384521,4144.102539,4046.6667479999996,0.0,3.0,73.0,,,,0.0,2.0,1.0,0.0,2.0,0.0,8.333333,,,,,,,,10.0,0.0,0.504351,-0.11938499999999999,0.07885700000000001,0.851563,0.303716,-0.023438,-0.9834129999999999,0.0037840000000000005,-0.011073000000000001,-0.040198000000000005,,,,,,,,,,,,,,,,,,,,,,,,,,,,,,,,,,,,,,,,,,,,,,,,,,,,,,,,,,,,,,,,,
15864,1648953217.144041,1648953217.180181,21.0,0.0,4203.077147999999,4625.641113000001,4068.718018,4122.563965,4051.794922,0.0,3.0,73.0,,,,0.0,2.0,1.0,0.0,2.0,0.0,8.333333,,,,,,,,,,,,,,,,,,,,,,,,,,,,,,,,,,,,,,,,,,,,,,,,,,,,,,0.0,0.0,32.0,0.048139,1.0,0.0,,,,,,,,,,,,,,,,,,,,,,,,,
15865,1648953217.151856,1648953217.1879961,22.0,0.0,4231.794922,4703.589844,4012.820557,4091.281982,4052.820557,0.0,3.0,73.0,,,,0.0,2.0,1.0,0.0,2.0,0.0,8.333333,,,,,,,,11.0,0.0,0.504351,-0.11938499999999999,0.07885700000000001,0.851563,0.303227,-0.014159999999999999,-0.9741360000000001,0.003406,-0.011040000000000001,-0.035787,,,,,,,,,,,,,,,,,,,,,,,,,,,,,,,,,,,,,,,,,,,,,,,,,,,,,,,,,,,,,,,,,
15866,1648953217.1596699,1648953217.195711,23.0,0.0,4138.974121,4609.230957,4156.922852000001,4035.897461,4097.94873,0.0,3.0,73.0,,,,0.0,2.0,1.0,0.0,2.0,0.0,8.333333,,,,,,,,,,,,,,,,,,,,,,,,,,,,,,,,,,,,,,,,,,,,,,,,,,,,,,,,,,,,,,,,,,,,,,,,,,,,,,,,,,,,
15867,1648953217.167485,1648953217.203626,24.0,0.0,4208.717772999999,4372.307617,4182.05127,4102.563965,4311.794922,0.0,3.0,73.0,,,,0.0,2.0,1.0,0.0,2.0,0.0,8.333333,,,,,,,,12.0,0.0,0.504293,-0.119629,0.07885700000000001,0.851563,0.304692,-0.009276999999999999,-0.979507,-5.9999999999999995e-05,-0.011059000000000001,-0.031964,,,,,,,,,,,,,,,,,,,,,,,,,,,,,,,,,,,,,,,,,,,,,,,,,,,,,,,,,,,,,,,,,
15868,1648953217.175299,1648953217.211441,25.0,0.0,4203.077147999999,4413.333496,4233.333496,4195.897461,4314.871582,0.0,3.0,73.0,,,,0.0,2.0,1.0,0.0,2.0,0.0,8.333333,,,,,,,,,,,,,,,,,,,,,,,,,,,,,,,,,,,,,,,,,,,,,,,,,,,,,,10.0,0.0,32.0,0.048139,1.0,0.0,,,,,,,,,,,,,,,,,,,,,,,,,
15869,1648953217.183114,1648953217.2192562,26.0,0.0,4192.820313,4497.436035,4450.256348,4205.641113000001,4272.307617,0.0,3.0,73.0,,,,0.0,2.0,1.0,0.0,2.0,0.0,8.333333,,,,,,,,13.0,0.0,0.504293,-0.119629,0.07885700000000001,0.851563,0.29443800000000003,-0.02002,-0.9941559999999999,0.0029739999999999996,-0.010979000000000001,-0.034676,,,,,,,,,,,,,,,,,,,,,,,,,,,,,,,,,,,,,,,,,,,,,,,,,,,,,,,,,,,,,,,,,
15870,1648953217.190928,1648953217.2269711,27.0,0.0,4397.436035,4421.025879,4192.820313,4360.0,4496.410156,0.0,3.0,73.0,,,,0.0,2.0,1.0,0.0,2.0,0.0,8.333333,,,,,,,,,,,,,,,,,,,,,,,,,,,,,,,,,,,,,,,,,,,,,,,,,,,,,,,,,,,,,,,,,,,,,,,,,,,,,,,,,,,,
15871,1648953217.1987429,1648953217.234786,28.0,0.0,4583.077147999999,4484.615234000001,3822.0512700000004,4672.820313,4588.205078,0.0,3.0,73.0,,,,0.0,2.0,1.0,0.0,2.0,0.0,8.333333,,,,,,,,14.0,0.0,0.504293,-0.119629,0.07885700000000001,0.851563,0.28809,-0.013184,-0.977066,0.005704,-0.011053,-0.037263,,,,,,,,,,,,,,,,,,,,,,,,,,,,,,,,,,,,,,,,,,,,,,,,,,,,,,,,,,,,,,,,,
15872,1648953217.206558,1648953217.242501,29.0,0.0,4530.769043,4662.563965,4007.6923829999996,4613.333496,4469.230957,0.0,3.0,73.0,,,,0.0,2.0,1.0,0.0,2.0,0.0,8.333333,,,,,,,,,,,,,,,,,,,,,,,,,,,,,,,,,,,,,,,,,,,,,,,,,,,,,,10.0,0.0,32.0,0.048139,1.0,0.0,,,,,,,,,,,,,,,,,,,,,,,,,
15873,1648953217.2143722,1648953217.250415,30.0,0.0,4387.692383,4625.128418,4231.282227000001,4225.641113000001,4466.666504,0.0,3.0,73.0,,,,0.0,2.0,1.0,0.0,2.0,0.0,8.333333,,,,,,,,15.0,0.0,0.504293,-0.119629,0.07885700000000001,0.851563,0.293462,-0.008789,-0.9673,0.005182,-0.011022,-0.033195,,,,,,,,,,,,,,,,,,,,,,,,,,,,,,,,,,,,,,,,,,,,,,,,,,,,,,,,,,,,,,,,,
15874,1648953217.2221868,1648953217.25823,31.0,0.0,4289.743652,4410.256348,4226.666504,4136.922852000001,4450.769043,0.0,3.0,73.0,,,,0.0,2.0,1.0,0.0,2.0,0.0,8.333333,,,,,,,,,,,,,,,,,,,,,,,,,,,,,,,,,,,,,,,,,,,,,,,,,,,,,,,,,,,,,,,,,,,,,,,,,,,,,,,,,,,,
15875,1648953217.230001,1648953217.266145,32.0,0.0,4161.538574,4403.077147999999,4245.128418,4182.05127,4288.205078,0.0,3.0,73.0,,,,0.0,2.0,1.0,0.0,2.0,0.0,8.333333,,,,,,,,16.0,0.0,0.504293,-0.119629,0.07885700000000001,0.851563,0.299809,-0.011231,-0.968765,0.00774,-0.010994,-0.035783999999999996,,,,,,,,,,,,,,,,,,,,,,,,,,,,,,,,,,,,,,,,,,,,,,,,,,,,,,,,,,,,,,,,,
15876,1648953217.237816,1648953217.2739599,33.0,0.0,4105.641113000001,4492.307617,4284.615234000001,4128.205078,4241.025879,0.0,3.0,73.0,,,,0.0,2.0,1.0,0.0,2.0,0.0,8.333333,,,,,,,,,,,,,,,,,,,,1.0,0.0,0.0,,,,,,,,,,,,,,,,,,,,,,,,,,,,,,,,10.0,0.0,32.0,0.051612,1.0,0.0,454.71350099999995,1012.676025,369.946533,252.119171,69.782768,131.170181,129.503799,149.16751100000002,91.26297,60.532776,228.386169,414.53109700000005,213.699295,254.65032999999997,396.610504,490.198303,1434.5782470000001,390.48596200000003,120.34704599999999,49.138565,662.51239,1135.184082,428.21127300000006,106.385506,72.905571
15877,1648953217.24563,1648953217.281875,34.0,0.0,4085.1281740000004,4473.846191,4279.487305,4042.0512700000004,4287.692383,0.0,3.0,73.0,,,,0.0,2.0,1.0,0.0,2.0,0.0,8.333333,,,,,,,,17.0,0.0,0.504293,-0.119629,0.07885700000000001,0.851563,0.299321,-0.009766,-0.9907379999999999,0.009993,-0.011066,-0.03826,,,,,,,,,,,,,,,,,,,,,,,,,,,,,,,,,,,,,,,,,,,,,,,,,,,,,,,,,,,,,,,,,
15878,1648953217.253445,1648953217.28969,35.0,0.0,4061.538574,4539.487305,4266.666504,4070.7692869999996,4308.205078,0.0,3.0,73.0,,,,0.0,2.0,1.0,0.0,2.0,0.0,8.333333,,,,,,,,,,,,,,,,,,,,,,,,,,,,,,,,,,,,,,,,,,,,,,,,,,,,,,,,,,,,,,,,,,,,,,,,,,,,,,,,,,,,
15879,1648953217.261259,1648953217.2976038,36.0,0.0,4050.7692869999996,4637.436035,4414.358886999999,4084.102539,4220.0,0.0,3.0,73.0,,,,0.0,2.0,1.0,0.0,2.0,0.0,8.333333,,,,,,,,18.0,0.0,0.504293,-0.119629,0.07885700000000001,0.851563,0.295415,-0.027344,-0.976089,0.01207,-0.011034,-0.040489,,,,,,,,,,,,,,,,,,,,,,,,,,,,,,,,,,,,,,,,,,,,,,,,,,,,,,,,,,,,,,,,,
15880,1648953217.269074,1648953217.305419,37.0,0.0,4097.436035,4621.538574,4474.358886999999,4066.1538090000004,4342.563965,0.0,3.0,73.0,,,,0.0,2.0,1.0,0.0,2.0,0.0,8.333333,,,,,,,,,,,,,,,,,,,,,,,,,,,,,,,,,,,,,,,,,,,,,,,,,,,,,,0.0,0.0,32.0,0.051612,1.0,0.0,,,,,,,,,,,,,,,,,,,,,,,,,
15881,1648953217.2768881,1648953217.313134,38.0,0.0,4073.3332520000004,4561.538574,4075.897461,4149.743652,4504.102539,0.0,3.0,73.0,,,,0.0,2.0,1.0,0.0,2.0,0.0,8.333333,,,,,,,,19.0,0.0,0.504293,-0.119629,0.07885700000000001,0.851563,0.303227,-0.018067,-0.9868309999999999,0.010766,-0.011101999999999999,-0.042446,,,,,,,,,,,,,,,,,,,,,,,,,,,,,,,,,,,,,,,,,,,,,,,,,,,,,,,,,,,,,,,,,
15882,1648953217.284703,1648953217.320949,39.0,0.0,4091.794922,4480.0,3916.923096,4424.615234000001,4467.692383,0.0,3.0,73.0,,,,0.0,2.0,1.0,0.0,2.0,0.0,8.333333,,,,,,,,,,,,,,,,,,,,,,,,,,,,,,,,,,,,,,,,,,,,,,,,,,,,,,,,,,,,,,,,,,,,,,,,,,,,,,,,,,,,
15883,1648953217.292518,1648953217.328664,40.0,0.0,4295.384765999999,4437.94873,4462.05127,4536.922852000001,4504.615234000001,0.0,3.0,73.0,,,,0.0,2.0,1.0,0.0,2.0,0.0,8.333333,,,,,,,,20.0,0.0,0.504293,-0.119629,0.07885700000000001,0.851563,0.303716,-0.01709,-0.9824370000000001,0.009640000000000001,-0.011066,-0.044256000000000004,,,,,,,,,,,,,,,,,,,,,,,,,,,,,,,,,,,,,,,,,,,,,,,,,,,,,,,,,,,,,,,,,
15884,1648953217.300332,1648953217.336479,41.0,0.0,4582.563965,4548.205078,4626.153809,4462.563965,4691.282227000001,0.0,3.0,73.0,,,,0.0,2.0,1.0,0.0,2.0,0.0,8.333333,,,,,,,,,,,,,,,,,,,,,,,,,,,,,,,,,,,,,,,,,,,,,,,,,,,,,,0.0,0.0,32.0,0.051612,1.0,0.0,,,,,,,,,,,,,,,,,,,,,,,,,
15885,1648953217.308147,1648953217.344194,42.0,0.0,4515.897461,4591.794922,4000.0,4387.692383,4588.205078,0.0,3.0,73.0,,,,0.0,2.0,1.0,0.0,2.0,0.0,8.333333,,,,,,,,21.0,0.0,0.504293,-0.119629,0.07885700000000001,0.851563,0.301762,-0.024413999999999998,-0.9863430000000001,0.011752,-0.011034,-0.045886,,,,,,,,,,,,,,,,,,,,,,,,,,,,,,,,,,,,,,,,,,,,,,,,,,,,,,,,,,,,,,,,,
15886,1648953217.315961,1648953217.352009,43.0,0.0,4236.922852000001,4608.717772999999,3746.1538090000004,4314.871582,4256.410156,0.0,3.0,73.0,,,,0.0,2.0,1.0,0.0,2.0,0.0,8.333333,,,,,,,,,,,,,,,,,,,,,,,,,,,,,,,,,,,,,,,,,,,,,,,,,,,,,,,,,,,,,,,,,,,,,,,,,,,,,,,,,,,,
15887,1648953217.323776,1648953217.359724,44.0,0.0,4183.077147999999,4617.94873,4240.512695,4207.692383,4142.563965,0.0,3.0,73.0,,,,0.0,2.0,1.0,0.0,2.0,0.0,8.333333,,,,,,,,22.0,0.0,0.504293,-0.119629,0.07885700000000001,0.851563,0.288579,-0.029786,-0.977554,0.010577,-0.011101999999999999,-0.047205000000000004,,,,,,,,,,,,,,,,,,,,,,,,,,,,,,,,,,,,,,,,,,,,,,,,,,,,,,,,,,,,,,,,,
15888,1648953217.33159,1648953217.3675392,45.0,0.0,4232.820313,4512.820313,4578.974121,4124.615234000001,4178.974121,0.0,3.0,73.0,,,,0.0,2.0,1.0,0.0,2.0,0.0,8.333333,,,,,,,,,,,,,,,,,,,,,,,,,,,,,,,,,,,,,,,,,,,,,,,,,,,,,,0.0,0.0,32.0,0.051612,1.0,0.0,,,,,,,,,,,,,,,,,,,,,,,,,
15889,1648953217.339405,1648953217.375254,46.0,0.0,4169.743652,4526.666504,4487.179688,4097.436035,4166.153809,0.0,3.0,73.0,,,,0.0,2.0,1.0,0.0,2.0,0.0,8.333333,,,,,,,,23.0,0.0,0.504293,-0.119629,0.07885700000000001,0.851563,0.291508,-0.012206999999999999,-0.9873200000000001,0.009470999999999999,-0.011262000000000001,-0.042241,,,,,,,,,,,,,,,,,,,,,,,,,,,,,,,,,,,,,,,,,,,,,,,,,,,,,,,,,,,,,,,,,
15890,1648953217.347219,1648953217.383169,47.0,0.0,4126.153809,4569.230957,4398.974121,4055.384521,4144.102539,0.0,3.0,73.0,,,,0.0,2.0,1.0,0.0,2.0,0.0,8.333333,,,,,,,,,,,,,,,,,,,,,,,,,,,,,,,,,,,,,,,,,,,,,,,,,,,,,,,,,,,,,,,,,,,,,,,,,,,,,,,,,,,,
15891,1648953217.3550339,1648953217.390983,48.0,0.0,4166.666504,4434.358886999999,4490.256348,4095.384521,4195.384765999999,0.0,3.0,73.0,,,,0.0,2.0,1.0,0.0,2.0,0.0,8.333333,,,,,,,,24.0,0.0,0.504293,-0.119629,0.07885700000000001,0.851563,0.292485,-0.014649,-0.9677879999999999,0.008524,-0.011161,-0.037772,,,,,,,,,,,,,,,,,,,,,,,,,,,,,,,,,,,,,,,,,,,,,,,,,,,,,,,,,,,,,,,,,
15892,1648953217.362848,1648953217.398798,49.0,0.0,4073.8461909999996,4496.922852000001,4522.563965,4080.512939,4242.563965,0.0,3.0,73.0,,,,0.0,2.0,1.0,0.0,2.0,0.0,8.333333,,,,,,,,,,,,,,,,,,,,1.0,0.0,0.0,,,,,,,,,,,,,,,,,,,,,,,,,,,,,,,,0.0,0.0,32.0,0.046468,1.0,0.0,463.627838,1006.206909,328.83453399999996,244.91691600000001,69.497688,155.14827,142.06454499999998,164.694901,83.260651,64.354752,198.499435,356.979523,248.00849900000003,273.173798,399.908051,555.403687,1348.689453,344.667084,113.42923,43.716099,662.267029,1146.372559,430.16845700000005,120.83860800000001,82.660561
15893,1648953217.3706632,1648953217.406513,50.0,0.0,4054.358887,4811.282227000001,4360.0,4040.0,4191.282227000001,0.0,3.0,73.0,,,,0.0,2.0,1.0,0.0,2.0,0.0,8.333333,,,,,,,,25.0,0.0,0.504293,-0.119629,0.07885700000000001,0.851563,0.299321,-0.007812999999999999,-0.9712059999999999,0.007622,-0.01107,-0.039902999999999994,,,,,,,,,,,,,,,,,,,,,,,,,,,,,,,,,,,,,,,,,,,,,,,,,,,,,,,,,,,,,,,,,
15894,1648953217.3784778,1648953217.414428,51.0,0.0,4094.358887,4708.205078,4263.589844,4118.461426,4099.487305,0.0,3.0,73.0,,,,0.0,2.0,1.0,0.0,2.0,0.0,8.333333,,,,,,,,,,,,,,,,,,,,,,,,,,,,,,,,,,,,,,,,,,,,,,,,,,,,,,,,,,,,,,,,,,,,,,,,,,,,,,,,,,,,
15895,1648953217.386292,1648953217.4222429,52.0,0.0,4052.3076170000004,4392.820313,4338.974121,4409.230957,4274.871582,0.0,3.0,73.0,,,,0.0,2.0,1.0,0.0,2.0,0.0,8.333333,,,,,,,,26.0,0.0,0.504293,-0.119629,0.07885700000000001,0.851563,0.291508,-0.012206999999999999,-0.9873200000000001,0.0037840000000000005,-0.011037,-0.035767,,,,,,,,,,,,,,,,,,,,,,,,,,,,,,,,,,,,,,,,,,,,,,,,,,,,,,,,,,,,,,,,,
15896,1648953217.394107,1648953217.430158,53.0,0.0,4124.102539,4466.666504,4355.384765999999,4585.641113000001,4406.153809,0.0,3.0,73.0,,,,0.0,2.0,1.0,0.0,2.0,0.0,8.333333,,,,,,,,,,,,,,,,,,,,,,,,,,,,,,,,,,,,,,,,,,,,,,,,,,,,,,0.0,0.0,32.0,0.046468,1.0,0.0,,,,,,,,,,,,,,,,,,,,,,,,,
15897,1648953217.401921,1648953217.437973,54.0,0.0,4406.153809,4628.205078,4152.820313,4474.358886999999,4383.589844,0.0,3.0,73.0,,,,0.0,2.0,1.0,0.0,2.0,0.0,8.333333,,,,,,,,27.0,0.0,0.504293,-0.119629,0.07885700000000001,0.851563,0.299321,-0.007812999999999999,-0.9712059999999999,0.003357,-0.010959,-0.038098,,,,,,,,,,,,,,,,,,,,,,,,,,,,,,,,,,,,,,,,,,,,,,,,,,,,,,,,,,,,,,,,,
15898,1648953217.409736,1648953217.4458869,55.0,0.0,4542.05127,4531.282227000001,4026.1538090000004,4498.974121,4557.94873,0.0,3.0,73.0,,,,0.0,2.0,1.0,0.0,2.0,0.0,8.333333,,,,,,,,,,,,,,,,,,,,,,,,,,,,,,,,,,,,,,,,,,,,,,,,,,,,,,,,,,,,,,,,,,,,,,,,,,,,,,,,,,,,
15899,1648953217.41755,1648953217.453702,56.0,0.0,4565.128418,4520.512695,4145.128418,4726.153809,4742.05127,0.0,3.0,73.0,,,,0.0,2.0,1.0,0.0,2.0,0.0,8.333333,,,,,,,,28.0,0.0,0.504293,-0.119629,0.07885700000000001,0.851563,0.292485,-0.011231,-0.9785309999999999,0.0029230000000000003,-0.011035,-0.040246,,,,,,,,,,,,,,,,,,,,,,,,,,,,,,,,,,,,,,,,,,,,,,,,,,,,,,,,,,,,,,,,,
15900,1648953217.425365,1648953217.461617,57.0,0.0,4455.384765999999,4569.230957,4399.487305,4627.179688,4417.436035,0.0,3.0,73.0,,,,0.0,2.0,1.0,0.0,2.0,0.0,8.333333,,,,,,,,,,,,,,,,,,,,,,,,,,,,,,,,,,,,,,,,,,,,,,,,,,,,,,0.0,0.0,32.0,0.046468,1.0,0.0,,,,,,,,,,,,,,,,,,,,,,,,,
15901,1648953217.43318,1648953217.469432,58.0,0.0,4211.282227000001,4487.692383,4514.358886999999,4220.512695,4070.256348,0.0,3.0,73.0,,,,0.0,2.0,1.0,0.0,2.0,0.0,8.333333,,,,,,,,29.0,0.0,0.504293,-0.119629,0.07885700000000001,0.851563,0.292973,-0.032715,-0.976577,-0.0004940000000000001,-0.011201000000000001,-0.035976999999999995,,,,,,,,,,,,,,,,,,,,,,,,,,,,,,,,,,,,,,,,,,,,,,,,,,,,,,,,,,,,,,,,,
15902,1648953217.440994,1648953217.4773471,59.0,0.0,4102.563965,4586.153809,4291.282227000001,4061.025635,4128.717772999999,0.0,3.0,73.0,,,,0.0,2.0,1.0,0.0,2.0,0.0,8.333333,,,,,,,,,,,,,,,,,,,,,,,,,,,,,,,,,,,,,,,,,,,,,,,,,,,,,,,,,,,,,,,,,,,,,,,,,,,,,,,,,,,,
15903,1648953217.448809,1648953217.485162,60.0,0.0,4182.563965,4640.0,4112.307617,4217.436035,4114.871582,0.0,3.0,73.0,,,,0.0,2.0,1.0,0.0,2.0,0.0,8.333333,,,,,,,,30.0,0.0,0.504293,-0.119629,0.07885700000000001,0.851563,0.303716,-0.014159999999999999,-0.9799950000000001,-0.003472,-0.011204,-0.038433999999999996,,,,,,,,,,,,,,,,,,,,,,,,,,,,,,,,,,,,,,,,,,,,,,,,,,,,,,,,,,,,,,,,,
15904,1648953217.456623,1648953217.492877,61.0,0.0,4190.769043,4445.128418,4212.307617,4183.077147999999,4023.076904,0.0,3.0,73.0,,,,0.0,2.0,1.0,0.0,2.0,0.0,8.333333,,,,,,,,,,,,,,,,,,,,,,,,,,,,,,,,,,,,,,,,,,,,,,,,,,,,,,0.0,0.0,32.0,0.046468,1.0,0.0,,,,,,,,,,,,,,,,,,,,,,,,,
15905,1648953217.4644382,1648953217.500691,62.0,0.0,4200.512695,4505.641113000001,4265.128418,4085.641113,4221.538574,0.0,3.0,73.0,,,,0.0,2.0,1.0,0.0,2.0,0.0,8.333333,,,,,,,,31.0,0.0,0.504293,-0.119629,0.07885700000000001,0.851563,0.301762,-0.012206999999999999,-0.976089,-0.003125,-0.011158,-0.040596,,,,,,,,,,,,,,,,,,,,,,,,,,,,,,,,,,,,,,,,,,,,,,,,,,,,,,,,,,,,,,,,,
15906,1648953217.472252,1648953217.5084062,63.0,0.0,4451.794922,4661.538574,4288.205078,4346.153809,4493.846191,0.0,3.0,73.0,,,,0.0,2.0,1.0,0.0,2.0,0.0,8.333333,,,,,,,,,,,,,,,,,,,,,,,,,,,,,,,,,,,,,,,,,,,,,,,,,,,,,,,,,,,,,,,,,,,,,,,,,,,,,,,,,,,,
15907,1648953217.480067,1648953217.516221,64.0,0.0,4694.871582,4518.461426,4469.743652,4502.563965,4559.487305,450.0,3.0,73.0,,,,0.0,2.0,1.0,0.0,2.0,0.0,8.333333,,,,,,,,32.0,0.0,0.504293,-0.119629,0.07885700000000001,0.851563,0.307134,-0.019532,-0.980484,-0.002861,-0.011116,-0.042592000000000005,,,,,,,,,,,,,,,,,,,,,,,,,,,,,,,,,,,,,,,,,,,,,,,,,,,,,,,,,,,,,,,,,
15908,1648953217.487881,1648953217.523936,65.0,0.0,4612.307617,4509.230957,4518.974121,4288.205078,4469.743652,450.0,3.0,73.0,,,,0.0,0.0,1.0,0.0,2.0,0.0,0.0,1.0,0.0,0.0,0.0,0.0,0.0,0.0,,,,,,,,,,,,,1.0,0.0,0.0,,,,,,,,,,,,,,,,,,,,,,,,,,,,,,,,0.0,0.0,32.0,0.047142,1.0,0.0,477.301941,981.220337,296.53598,229.90011600000003,69.916115,170.2603,156.88116499999998,177.35647600000001,73.454697,66.379517,177.93688999999998,294.521576,292.116302,276.16095,390.906708,621.711121,1245.210327,314.546692,109.13423200000001,38.892395,702.469177,1130.23645,421.553833,134.358322,90.27714499999999
15909,1648953217.495696,1648953217.531751,66.0,0.0,4189.230957,4670.769043,4272.307617,4168.717772999999,4229.743652,0.0,3.0,73.0,,,,0.0,0.0,1.0,0.0,2.0,0.0,0.0,,,,,,,,33.0,0.0,0.504293,-0.119629,0.07885700000000001,0.851563,0.304204,-0.018555000000000002,-0.98146,-0.002624,-0.011225,-0.044338,,,,,,,,,,,,,,,,,,,,,,,,,,,,,,,,,,,,,,,,,,,,,,,,,,,,,,,,,,,,,,,,,
15910,1648953217.50351,1648953217.539466,67.0,0.0,3954.358887,4508.717772999999,4187.179688,4399.487305,4157.94873,450.0,3.0,73.0,,,,0.0,0.0,2.0,0.0,2.0,0.0,0.0,,,,,,,,,,,,,,,,,,,,,,,,,,,,,,,,,,,,,,,,,,,,,,,,,,,,,,,,,,,,,,,,,,,,,,,,,,,,,,,,,,,,
15911,1648953217.511325,1648953217.547281,68.0,0.0,4143.077147999999,4384.102539,4403.589844,4488.205078,4440.512695,209.0,3.0,73.0,,,,0.0,0.0,2.0,0.0,2.0,0.0,0.0,,,,,,,,34.0,0.0,0.504235,-0.11987300000000001,0.07885700000000001,0.851563,0.298833,-0.012206999999999999,-0.977554,-0.002361,-0.011177,-0.039465,,,,,,,,,,,,,,,,,,,,,,,,,,,,,,,,,,,,,,,,,,,,,,,,,,,,,,,,,,,,,,,,,
15912,1648953217.519139,1648953217.554996,69.0,0.0,4462.05127,4561.538574,4474.358886999999,4447.692383,4678.974121,450.0,3.0,73.0,,,,0.0,0.0,2.0,0.0,2.0,0.0,0.0,,,,,,,,,,,,,,,,,,,,,,,,,,,,,,,,,,,,,,,,,,,,,,,,,,,,,,0.0,0.0,32.0,0.047142,1.0,0.0,,,,,,,,,,,,,,,,,,,,,,,,,
15913,1648953217.526954,1648953217.562911,70.0,0.0,4493.333496,4531.282227000001,4362.563965,4370.256348,4390.769043,0.0,3.0,73.0,,,,0.0,0.0,2.0,0.0,2.0,0.0,0.0,,,,,,,,35.0,0.0,0.5038229999999999,-0.11987300000000001,0.07885700000000001,0.851807,0.29736799999999997,-0.008301000000000001,-0.987808,0.0008039999999999999,-0.010987,-0.041476,,,,,,,,,,,,,,,,,,,,,,,,,,,,,,,,,,,,,,,,,,,,,,,,,,,,,,,,,,,,,,,,,
15914,1648953217.5347679,1648953217.570726,71.0,0.0,4315.384765999999,4276.410156,4338.974121,4211.794922,4073.8461909999996,450.0,3.0,73.0,,,,0.0,0.0,2.0,0.0,2.0,0.0,0.0,,,,,,,,,,,,,,,,,,,,,,,,,,,,,,,,,,,,,,,,,,,,,,,,,,,,,,,,,,,,,,,,,,,,,,,,,,,,,,,,,,,,
15915,1648953217.542583,1648953217.578641,72.0,0.0,4244.102539,4321.538574,4396.410156,4068.718018,4111.794922,450.0,3.0,73.0,,,,0.0,0.0,2.0,0.0,1.0,0.0,0.0,,,,,,,,36.0,0.0,0.5038229999999999,-0.11987300000000001,0.07885700000000001,0.851807,0.300786,-0.014649,-0.991226,-0.0024010000000000004,-0.011012000000000001,-0.037084,,,,,,,,,,,,,,,,,,,,,,,,,,,,,,,,,,,,,,,,,,,,,,,,,,,,,,,,,,,,,,,,,
15916,1648953217.550398,1648953217.586455,73.0,0.0,4192.307617,4607.179688,4358.461426,4069.2307130000004,4374.358886999999,81.0,3.0,73.0,,,,0.0,0.0,2.0,0.0,1.0,0.0,0.0,,,,,,,,,,,,,,,,,,,,,,,,,,,,,,,,,,,,,,,,,,,,,,,,,,,,,,0.0,0.0,32.0,0.047142,1.0,0.0,,,,,,,,,,,,,,,,,,,,,,,,,
15917,1648953217.5582118,1648953217.59437,74.0,0.0,4090.7692869999996,4737.436035,4177.436035,4191.794922,4510.256348,450.0,3.0,73.0,,,,0.0,0.0,2.0,0.0,1.0,0.0,0.0,,,,,,,,37.0,0.0,0.5038229999999999,-0.11987300000000001,0.07885700000000001,0.851807,0.290044,-0.013184,-0.978042,-0.002112,-0.011033,-0.039382,,,,,,,,,,,,,,,,,,,,,,,,,,,,,,,,,,,,,,,,,,,,,,,,,,,,,,,,,,,,,,,,,
15918,1648953217.566027,1648953217.602185,75.0,0.0,4360.0,4731.282227000001,4052.820557,4476.410156,4516.922852000001,0.0,3.0,73.0,,,,0.0,0.0,2.0,0.0,1.0,0.0,0.0,,,,,,,,,,,,,,,,,,,,,,,,,,,,,,,,,,,,,,,,,,,,,,,,,,,,,,,,,,,,,,,,,,,,,,,,,,,,,,,,,,,,
15919,1648953217.573841,1648953217.6101,76.0,0.0,4549.230957,4757.94873,4141.538574,4573.846191,4476.410156,450.0,3.0,73.0,,,,0.0,0.0,2.0,0.0,1.0,0.0,0.0,,,,,,,,38.0,0.0,0.503881,-0.119629,0.07885700000000001,0.851807,0.292973,-0.029297000000000004,-0.981949,-0.0049770000000000005,-0.011101999999999999,-0.03515,,,,,,,,,,,,,,,,,,,,,,,,,,,,,,,,,,,,,,,,,,,,,,,,,,,,,,,,,,,,,,,,,
15920,1648953217.581656,1648953217.6179152,77.0,0.0,4246.666504,4777.436035,4221.538574,4235.897461,4280.512695,450.0,3.0,73.0,,,,0.0,0.0,2.0,0.0,1.0,0.0,0.0,,,,,,,,,,,,,,,,,,,,,,,,,,,,,,,,,,,,,,,,,,,,,,,,,,,,,,0.0,0.0,32.0,0.047142,1.0,0.0,,,,,,,,,,,,,,,,,,,,,,,,,
15921,1648953217.589471,1648953217.6258302,78.0,0.0,4088.718018,4762.05127,4095.897461,4077.4357909999994,4088.718018,450.0,3.0,73.0,,,,0.0,0.0,2.0,0.0,1.0,0.0,0.0,,,,,,,,39.0,0.0,0.503881,-0.119629,0.07885700000000001,0.851807,0.29736799999999997,-0.005371,-0.985367,-0.004333,-0.010968,-0.037739,,,,,,,,,,,,,,,,,,,,,,,,,,,,,,,,,,,,,,,,,,,,,,,,,,,,,,,,,,,,,,,,,
15922,1648953217.597285,1648953217.6336439,79.0,0.0,4144.102539,4638.974121,4018.461426,4281.538574,4035.384521,0.0,3.0,73.0,,,,0.0,0.0,2.0,0.0,1.0,0.0,0.0,,,,,,,,,,,,,,,,,,,,,,,,,,,,,,,,,,,,,,,,,,,,,,,,,,,,,,,,,,,,,,,,,,,,,,,,,,,,,,,,,,,,
15923,1648953217.6051,1648953217.641559,80.0,0.0,4079.487061,4467.692383,4180.0,4340.512695,4107.692383,450.0,3.0,73.0,,,,0.0,0.0,2.0,0.0,1.0,0.0,0.0,,,,,,,,40.0,0.0,0.503785,-0.11987300000000001,0.07910199999999999,0.851807,0.301762,-0.009276999999999999,-0.977066,-0.003948,-0.010897,-0.039922000000000006,,,,,,,,,,,,,,,,,,,,,,,,,,,,,,,,,,,,,,,,,,,,,,,,,,,,,,,,,,,,,,,,,
15924,1648953217.612914,1648953217.649374,81.0,0.0,4130.256348,4468.205078,4382.563965,4238.974121,4286.153809,450.0,3.0,73.0,,,,0.0,0.0,2.0,0.0,1.0,0.0,0.0,,,,,,,,,,,,,,,,,,,,1.0,0.0,0.0,,,,,,,,,,,,,,,,,,,,,,,,,,,,,,,,0.0,0.0,32.0,0.052881,1.0,0.0,474.558594,983.759949,274.485077,212.440994,71.501991,171.24002099999998,168.780334,188.65164199999998,65.782402,66.828644,169.602997,243.322159,351.509949,267.619446,375.38894700000003,658.576233,1189.737793,289.293152,108.15908799999998,35.38765,743.061646,1134.975586,399.25793500000003,145.161087,93.986
15925,1648953217.620729,1648953217.6571891,82.0,0.0,4465.641113000001,4524.102539,4441.538574,4339.487305,4512.820313,450.0,3.0,73.0,,,,0.0,0.0,2.0,0.0,1.0,0.0,0.0,,,,,,,,41.0,0.0,0.503785,-0.11987300000000001,0.07910199999999999,0.851807,0.29639099999999996,-0.013184,-0.9741360000000001,-0.000526,-0.010881,-0.041936,,,,,,,,,,,,,,,,,,,,,,,,,,,,,,,,,,,,,,,,,,,,,,,,,,,,,,,,,,,,,,,,,
15926,1648953217.628543,1648953217.6649039,83.0,0.0,4588.717772999999,4527.179688,4454.358886999999,4324.615234000001,4455.897461,0.0,3.0,73.0,,,,0.0,0.0,2.0,0.0,1.0,0.0,0.0,,,,,,,,,,,,,,,,,,,,,,,,,,,,,,,,,,,,,,,,,,,,,,,,,,,,,,,,,,,,,,,,,,,,,,,,,,,,,,,,,,,,
15927,1648953217.636358,1648953217.672819,84.0,0.0,4427.692383,4577.94873,4433.333496,4158.974121,4298.461426,450.0,3.0,73.0,,,,0.0,0.0,2.0,0.0,1.0,0.0,0.0,,,,,,,,42.0,0.0,0.503785,-0.11987300000000001,0.07910199999999999,0.851807,0.298344,-0.029297000000000004,-0.985367,-0.00355,-0.010868000000000001,-0.037449,,,,,,,,,,,,,,,,,,,,,,,,,,,,,,,,,,,,,,,,,,,,,,,,,,,,,,,,,,,,,,,,,
15928,1648953217.644172,1648953217.680733,85.0,0.0,4175.384765999999,4595.897461,4328.205078,4083.076904,4269.230957,450.0,3.0,73.0,,,,0.0,0.0,2.0,0.0,1.0,0.0,0.0,,,,,,,,,,,,,,,,,,,,,,,,,,,,,,,,,,,,,,,,,,,,,,,,,,,,,,0.0,0.0,32.0,0.052881,1.0,0.0,,,,,,,,,,,,,,,,,,,,,,,,,
15929,1648953217.6519868,1648953217.688548,86.0,0.0,4016.923096,4483.589844,4343.077147999999,4224.102539,4275.384765999999,450.0,3.0,73.0,,,,0.0,0.0,2.0,0.0,1.0,0.0,0.0,,,,,,,,43.0,0.0,0.503785,-0.11987300000000001,0.07910199999999999,0.851807,0.306645,-0.019532,-0.9707180000000001,-0.003146,-0.010904,-0.03971,,,,,,,,,,,,,,,,,,,,,,,,,,,,,,,,,,,,,,,,,,,,,,,,,,,,,,,,,,,,,,,,,
15930,1648953217.659801,1648953217.696463,87.0,0.0,4075.384521,4391.282227000001,4473.333496,4420.512695,4434.358886999999,0.0,3.0,73.0,,,,0.0,0.0,2.0,0.0,1.0,0.0,0.0,,,,,,,,,,,,,,,,,,,,,,,,,,,,,,,,,,,,,,,,,,,,,,,,,,,,,,,,,,,,,,,,,,,,,,,,,,,,,,,,,,,,
15931,1648953217.6676161,1648953217.704278,88.0,0.0,4402.05127,4518.461426,4525.641113000001,4533.333496,4693.333496,450.0,3.0,73.0,,,,0.0,0.0,2.0,0.0,1.0,0.0,0.0,,,,,,,,44.0,0.0,0.503843,-0.119629,0.07910199999999999,0.851807,0.298833,-0.017578,-0.9785309999999999,-0.0028309999999999997,-0.010937,-0.041696,,,,,,,,,,,,,,,,,,,,,,,,,,,,,,,,,,,,,,,,,,,,,,,,,,,,,,,,,,,,,,,,,
15932,1648953217.67543,1648953217.7120929,89.0,0.0,4515.897461,4617.436035,4529.230957,4462.05127,4490.256348,450.0,3.0,73.0,,,,0.0,0.0,2.0,0.0,1.0,0.0,0.0,,,,,,,,,,,,,,,,,,,,,,,,,,,,,,,,,,,,,,,,,,,,,,,,,,,,,,0.0,0.0,32.0,0.052881,1.0,0.0,,,,,,,,,,,,,,,,,,,,,,,,,
15933,1648953217.683245,1648953217.719808,90.0,0.0,4244.615234000001,4428.717772999999,4470.256348,4263.077147999999,4095.384521,450.0,3.0,73.0,,,,0.0,0.0,2.0,0.0,1.0,0.0,0.0,,,,,,,,45.0,0.0,0.503785,-0.11987300000000001,0.07910199999999999,0.851807,0.298344,-0.023438,-0.983902,-0.002597,-0.011112,-0.043532999999999995,,,,,,,,,,,,,,,,,,,,,,,,,,,,,,,,,,,,,,,,,,,,,,,,,,,,,,,,,,,,,,,,,
15934,1648953217.6910589,1648953217.727623,91.0,0.0,4156.922852000001,4315.897461,4395.384765999999,4052.820557,4090.256348,0.0,3.0,73.0,,,,0.0,0.0,2.0,0.0,1.0,0.0,0.0,,,,,,,,,,,,,,,,,,,,,,,,,,,,,,,,,,,,,,,,,,,,,,,,,,,,,,,,,,,,,,,,,,,,,,,,,,,,,,,,,,,,
15935,1648953217.698874,1648953217.735338,92.0,0.0,4270.769043,4495.384765999999,4296.922852000001,4043.5898439999996,4307.692383,450.0,3.0,73.0,,,,0.0,0.0,2.0,0.0,1.0,0.0,0.0,,,,,,,,46.0,0.0,0.503785,-0.11987300000000001,0.07910199999999999,0.851807,0.298833,-0.019043,-0.9863430000000001,-0.00224,-0.011075,-0.045185,,,,,,,,,,,,,,,,,,,,,,,,,,,,,,,,,,,,,,,,,,,,,,,,,,,,,,,,,,,,,,,,,
15936,1648953217.7066891,1648953217.7431529,93.0,0.0,4249.230957,4638.974121,4162.05127,4288.205078,4482.05127,450.0,3.0,73.0,,,,0.0,0.0,2.0,0.0,1.0,0.0,0.0,,,,,,,,,,,,,,,,,,,,,,,,,,,,,,,,,,,,,,,,,,,,,,,,,,,,,,0.0,0.0,32.0,0.052881,1.0,0.0,,,,,,,,,,,,,,,,,,,,,,,,,
15937,1648953217.7145028,1648953217.750868,94.0,0.0,4415.384765999999,4646.153809,4031.794922,4453.846191,4577.436035,450.0,3.0,73.0,,,,0.0,0.0,2.0,0.0,1.0,0.0,0.0,,,,,,,,47.0,0.0,0.503785,-0.11987300000000001,0.07910199999999999,0.851807,0.299809,-0.023438,-0.9907379999999999,-0.0018690000000000002,-0.011042,-0.046722,,,,,,,,,,,,,,,,,,,,,,,,,,,,,,,,,,,,,,,,,,,,,,,,,,,,,,,,,,,,,,,,,
15938,1648953217.722318,1648953217.758683,95.0,0.0,4595.384765999999,4586.666504,4201.538574,4410.769043,4503.077147999999,0.0,3.0,73.0,,,,0.0,0.0,2.0,0.0,1.0,0.0,0.0,,,,,,,,,,,,,,,,,,,,,,,,,,,,,,,,,,,,,,,,,,,,,,,,,,,,,,,,,,,,,,,,,,,,,,,,,,,,,,,,,,,,
15939,1648953217.730132,1648953217.766398,96.0,0.0,4282.05127,4447.179688,4431.794922,4259.487305,4252.307617,450.0,3.0,73.0,,,,0.0,0.0,2.0,0.0,1.0,0.0,0.0,,,,,,,,48.0,0.0,0.503746,-0.11987300000000001,0.079346,0.851807,0.29639099999999996,-0.01709,-0.9751129999999999,-0.001731,-0.010962999999999999,-0.048055,,,,,,,,,,,,,,,,,,,,,,,,,,,,,,,,,,,,,,,,,,,,,,,,,,,,,,,,,,,,,,,,,
15940,1648953217.737947,1648953217.774312,97.0,0.0,4077.4357909999994,4471.794922,4401.025879,4102.05127,4111.794922,450.0,3.0,73.0,,,,0.0,0.0,2.0,0.0,1.0,0.0,0.0,,,,,,,,,,,,,,,,,,,,1.0,0.0,0.0,,,,,,,,,,,,,,,,,,,,,,,,,,,,,,,,0.0,0.0,32.0,0.057101,1.0,0.0,437.006012,1036.5584720000002,255.890625,199.343292,74.257202,157.350647,172.568695,197.654877,63.63483000000001,67.001129,173.660126,215.54806499999998,422.425171,255.11317400000001,358.059937,643.8604740000001,1222.94751,258.769226,111.658363,34.980801,741.160767,1184.641846,363.12493900000004,153.794937,93.54115300000001
15941,1648953217.745761,1648953217.782127,98.0,0.0,4228.205078,4661.538574,4287.179688,4050.7692869999996,4209.230957,450.0,3.0,73.0,,,,0.0,0.0,2.0,0.0,1.0,0.0,0.0,,,,,,,,49.0,0.0,0.503746,-0.11987300000000001,0.079346,0.851807,0.29395,-0.014159999999999999,-0.98439,-0.0045850000000000005,-0.01099,-0.043102999999999995,,,,,,,,,,,,,,,,,,,,,,,,,,,,,,,,,,,,,,,,,,,,,,,,,,,,,,,,,,,,,,,,,
15942,1648953217.753576,1648953217.790042,99.0,0.0,4398.974121,4620.512695,4145.128418,4344.102539,4410.769043,0.0,3.0,73.0,,,,0.0,0.0,2.0,0.0,1.0,0.0,0.0,,,,,,,,,,,,,,,,,,,,,,,,,,,,,,,,,,,,,,,,,,,,,,,,,,,,,,,,,,,,,,,,,,,,,,,,,,,,,,,,,,,,
15943,1648953217.761391,1648953217.797857,100.0,0.0,4644.615234000001,4544.102539,4003.076904,4607.692383,4491.282227000001,450.0,3.0,73.0,,,,0.0,0.0,2.0,0.0,1.0,0.0,0.0,,,,,,,,50.0,0.0,0.503746,-0.11987300000000001,0.079346,0.851807,0.30518,-0.022461000000000002,-0.9799950000000001,-0.004078,-0.011063,-0.044799,,,,,,,,,,,,,,,,,,,,,,,,,,,,,,,,,,,,,,,,,,,,,,,,,,,,,,,,,,,,,,,,,
15944,1648953217.769205,1648953217.805772,101.0,0.0,4750.256348,4561.025879,4024.102539,4477.436035,4506.153809,450.0,3.0,73.0,,,,0.0,0.0,2.0,0.0,1.0,0.0,0.0,,,,,,,,,,,,,,,,,,,,,,,,,,,,,,,,,,,,,,,,,,,,,,,,,,,,,,0.0,0.0,32.0,0.057101,1.0,0.0,,,,,,,,,,,,,,,,,,,,,,,,,
15945,1648953217.77702,1648953217.813587,102.0,0.0,4343.077147999999,4451.794922,4274.358886999999,4166.666504,4399.487305,450.0,3.0,73.0,,,,0.0,0.0,2.0,0.0,1.0,0.0,0.0,,,,,,,,51.0,0.0,0.503746,-0.11987300000000001,0.079346,0.851807,0.29688000000000003,-0.017578,-0.968765,-0.003621,-0.011031000000000001,-0.046325,,,,,,,,,,,,,,,,,,,,,,,,,,,,,,,,,,,,,,,,,,,,,,,,,,,,,,,,,,,,,,,,,
15946,1648953217.784834,1648953217.821501,103.0,0.0,4029.743652,4506.153809,4285.641113000001,4049.2307130000004,4301.538574,0.0,3.0,73.0,,,,0.0,0.0,2.0,0.0,1.0,0.0,0.0,,,,,,,,,,,,,,,,,,,,,,,,,,,,,,,,,,,,,,,,,,,,,,,,,,,,,,,,,,,,,,,,,,,,,,,,,,,,,,,,,,,,
15947,1648953217.792649,1648953217.829316,104.0,0.0,4115.897461,4740.0,4032.3076170000004,4122.05127,4247.179688,450.0,3.0,73.0,,,,0.0,0.0,2.0,0.0,1.0,0.0,0.0,,,,,,,,52.0,0.0,0.503746,-0.11987300000000001,0.079346,0.851807,0.289555,-0.017578,-0.98146,-0.006336,-0.011002,-0.041546,,,,,,,,,,,,,,,,,,,,,,,,,,,,,,,,,,,,,,,,,,,,,,,,,,,,,,,,,,,,,,,,,
15948,1648953217.8004632,1648953217.8372312,105.0,0.0,4264.102539,4716.410156,4055.897461,4294.871582,4311.282227000001,450.0,3.0,73.0,,,,0.0,0.0,2.0,0.0,1.0,0.0,0.0,,,,,,,,,,,,,,,,,,,,,,,,,,,,,,,,,,,,,,,,,,,,,,,,,,,,,,0.0,0.0,32.0,0.057101,1.0,0.0,,,,,,,,,,,,,,,,,,,,,,,,,
15949,1648953217.8082778,1648953217.845046,106.0,0.0,4385.128418,4614.871582,4221.025879,4518.974121,4471.282227000001,450.0,3.0,73.0,,,,0.0,0.0,2.0,0.0,1.0,0.0,0.0,,,,,,,,53.0,0.0,0.503746,-0.11987300000000001,0.079346,0.851807,0.295415,-0.016602000000000002,-0.979507,-0.0058,-0.011025,-0.043349,,,,,,,,,,,,,,,,,,,,,,,,,,,,,,,,,,,,,,,,,,,,,,,,,,,,,,,,,,,,,,,,,
15950,1648953217.816092,1648953217.852761,107.0,0.0,4580.512695,4740.512695,4102.05127,4583.589844,4508.717772999999,0.0,3.0,73.0,,,,0.0,0.0,2.0,0.0,1.0,0.0,0.0,,,,,,,,,,,,,,,,,,,,,,,,,,,,,,,,,,,,,,,,,,,,,,,,,,,,,,,,,,,,,,,,,,,,,,,,,,,,,,,,,,,,
15951,1648953217.8239071,1648953217.860576,108.0,0.0,4570.256348,4797.436035,3978.974365,4344.102539,4269.230957,450.0,3.0,73.0,,,,0.0,0.0,2.0,0.0,1.0,0.0,0.0,,,,,,,,54.0,0.0,0.503746,-0.11987300000000001,0.079346,0.851807,0.29688000000000003,-0.017578,-0.968765,-0.005171,-0.010948000000000001,-0.03877,,,,,,,,,,,,,,,,,,,,,,,,,,,,,,,,,,,,,,,,,,,,,,,,,,,,,,,,,,,,,,,,,
15952,1648953217.831721,1648953217.868291,109.0,0.0,4323.589844,4714.871582,4109.743652,4064.102539,4180.512695,450.0,3.0,73.0,,,,0.0,0.0,2.0,0.0,1.0,0.0,0.0,,,,,,,,,,,,,,,,,,,,,,,,,,,,,,,,,,,,,,,,,,,,,,,,,,,,,,0.0,0.0,32.0,0.057101,1.0,0.0,,,,,,,,,,,,,,,,,,,,,,,,,
15953,1648953217.839536,1648953217.876106,110.0,0.0,4130.256348,4736.410156,4098.974121,4097.436035,4453.846191,450.0,3.0,73.0,,,,0.0,0.0,2.0,0.0,1.0,0.0,0.0,,,,,,,,55.0,0.0,0.503746,-0.11987300000000001,0.079346,0.851807,0.295415,-0.016602000000000002,-0.979507,-0.004751,-0.010976,-0.04085,,,,,,,,,,,,,,,,,,,,,,,,,,,,,,,,,,,,,,,,,,,,,,,,,,,,,,,,,,,,,,,,,
15954,1648953217.84735,1648953217.883821,111.0,0.0,4178.461426,4727.179688,4015.384521,4401.025879,4551.282227000001,0.0,3.0,73.0,,,,0.0,0.0,2.0,0.0,1.0,0.0,0.0,,,,,,,,,,,,,,,,,,,,,,,,,,,,,,,,,,,,,,,,,,,,,,,,,,,,,,,,,,,,,,,,,,,,,,,,,,,,,,,,,,,,
15955,1648953217.855165,1648953217.891635,112.0,0.0,4317.94873,4635.897461,4166.153809,4573.333496,4497.94873,450.0,3.0,73.0,,,,0.0,0.0,2.0,0.0,1.0,0.0,0.0,,,,,,,,56.0,0.0,0.503746,-0.11987300000000001,0.079346,0.851807,0.304692,-0.014159999999999999,-0.98439,-0.004374,-0.011002,-0.042722,,,,,,,,,,,,,,,,,,,,,,,,,,,,,,,,,,,,,,,,,,,,,,,,,,,,,,,,,,,,,,,,,
15956,1648953217.8629801,1648953217.89935,113.0,0.0,4241.538574,4696.410156,4164.615234000001,4364.102539,4444.615234000001,450.0,3.0,73.0,,,,0.0,0.0,2.0,0.0,1.0,0.0,0.0,,,,,,,,,,,,,,,,,,,,1.0,0.0,0.0,,,,,,,,,,,,,,,,,,,,,,,,,,,,,,,,0.0,0.0,32.0,0.063783,1.0,0.0,364.921417,1124.701904,235.76062000000002,199.986862,78.094948,133.36914099999998,166.968124,202.931046,67.904533,68.49928299999999,188.177307,209.72235099999997,490.15884400000004,245.733887,340.299225,572.920227,1334.93811,218.45620699999998,121.941971,39.360283,679.537781,1265.7307130000002,318.47402999999997,165.00798,90.54405200000001
15957,1648953217.870794,1648953217.907165,114.0,0.0,4177.94873,4799.487305,4049.743652,4163.589844,4273.333496,450.0,3.0,73.0,,,,0.0,0.0,2.0,0.0,1.0,0.0,0.0,,,,,,,,57.0,0.0,0.503746,-0.11987300000000001,0.079346,0.851807,0.304692,-0.026368,-0.9834129999999999,-0.003985,-0.010976,-0.038206,,,,,,,,,,,,,,,,,,,,,,,,,,,,,,,,,,,,,,,,,,,,,,,,,,,,,,,,,,,,,,,,,
15958,1648953217.878609,1648953217.91488,115.0,0.0,4116.410156,4604.615234000001,4245.128418,4250.256348,4059.487061,0.0,3.0,73.0,,,,0.0,0.0,2.0,0.0,1.0,0.0,0.0,,,,,,,,,,,,,,,,,,,,,,,,,,,,,,,,,,,,,,,,,,,,,,,,,,,,,,,,,,,,,,,,,,,,,,,,,,,,,,,,,,,,
15959,1648953217.886423,1648953217.922695,116.0,0.0,4061.025635,4349.230957,4425.641113000001,4398.974121,4052.820557,450.0,3.0,73.0,,,,0.0,0.0,2.0,0.0,1.0,0.0,0.0,,,,,,,,58.0,0.0,0.503708,-0.11987300000000001,0.07959,0.851807,0.293462,-0.028321,-0.981949,-0.000559,-0.010952,-0.04044,,,,,,,,,,,,,,,,,,,,,,,,,,,,,,,,,,,,,,,,,,,,,,,,,,,,,,,,,,,,,,,,,
15960,1648953217.894238,1648953217.93041,117.0,0.0,4129.230957,4431.282227000001,4252.820313,4270.256348,4218.974121,450.0,3.0,73.0,,,,0.0,0.0,2.0,0.0,1.0,0.0,0.0,,,,,,,,,,,,,,,,,,,,,,,,,,,,,,,,,,,,,,,,,,,,,,,,,,,,,,0.0,0.0,32.0,0.063783,1.0,0.0,,,,,,,,,,,,,,,,,,,,,,,,,
15961,1648953217.902052,1648953217.938225,118.0,0.0,4360.0,4588.205078,4042.0512700000004,4316.922852000001,4418.974121,450.0,3.0,73.0,,,,0.0,0.0,2.0,0.0,1.0,0.0,0.0,,,,,,,,59.0,0.0,0.503708,-0.11987300000000001,0.07959,0.851807,0.302739,-0.021485,-0.9799950000000001,-0.003629,-0.01098,-0.036152,,,,,,,,,,,,,,,,,,,,,,,,,,,,,,,,,,,,,,,,,,,,,,,,,,,,,,,,,,,,,,,,,
15962,1648953217.909867,1648953217.9460402,119.0,0.0,4620.0,4551.282227000001,4011.281982,4566.666504,4462.563965,0.0,3.0,73.0,,,,0.0,0.0,2.0,0.0,1.0,0.0,0.0,,,,,,,,,,,,,,,,,,,,,,,,,,,,,,,,,,,,,,,,,,,,,,,,,,,,,,,,,,,,,,,,,,,,,,,,,,,,,,,,,,,,
15963,1648953217.917681,1648953217.9537551,120.0,0.0,4725.641113000001,4494.358886999999,4008.718018,4542.05127,4401.025879,450.0,3.0,73.0,,,,0.0,0.0,2.0,0.0,1.0,0.0,0.0,,,,,,,,60.0,0.0,0.503746,-0.11987300000000001,0.079346,0.851807,0.303716,-0.015137000000000001,-0.976577,-0.00018899999999999999,-0.010956,-0.038542,,,,,,,,,,,,,,,,,,,,,,,,,,,,,,,,,,,,,,,,,,,,,,,,,,,,,,,,,,,,,,,,,
15964,1648953217.925496,1648953217.96157,121.0,0.0,4434.871582,4543.589844,4042.5642090000006,4232.820313,4323.589844,450.0,3.0,73.0,,,,0.0,0.0,2.0,0.0,1.0,0.0,0.0,,,,,,,,,,,,,,,,,,,,,,,,,,,,,,,,,,,,,,,,,,,,,,,,,,,,,,0.0,0.0,32.0,0.063783,1.0,0.0,,,,,,,,,,,,,,,,,,,,,,,,,
15965,1648953217.93331,1648953217.969485,122.0,0.0,4077.4357909999994,4662.563965,4033.8461909999996,4051.794922,4323.589844,450.0,3.0,73.0,,,,0.0,0.0,2.0,0.0,1.0,0.0,0.0,,,,,,,,61.0,0.0,0.503708,-0.11987300000000001,0.07959,0.851807,0.299321,-0.012206999999999999,-0.99025,-0.000171,-0.010984,-0.040597,,,,,,,,,,,,,,,,,,,,,,,,,,,,,,,,,,,,,,,,,,,,,,,,,,,,,,,,,,,,,,,,,
15966,1648953217.941125,1648953217.9773,123.0,0.0,4035.384521,4739.487305,4127.692383,4132.307617,4324.102539,0.0,3.0,73.0,,,,0.0,0.0,2.0,0.0,1.0,0.0,0.0,,,,,,,,,,,,,,,,,,,,,,,,,,,,,,,,,,,,,,,,,,,,,,,,,,,,,,,,,,,,,,,,,,,,,,,,,,,,,,,,,,,,
15967,1648953217.94894,1648953217.985214,124.0,0.0,4107.692383,4663.589844,4333.846191,4280.512695,4337.94873,450.0,3.0,73.0,,,,0.0,0.0,2.0,0.0,1.0,0.0,0.0,,,,,,,,62.0,0.0,0.503708,-0.11987300000000001,0.07959,0.851807,0.290044,-0.017578,-0.9663229999999999,-0.000153,-0.011056999999999999,-0.042543,,,,,,,,,,,,,,,,,,,,,,,,,,,,,,,,,,,,,,,,,,,,,,,,,,,,,,,,,,,,,,,,,
15968,1648953217.956754,1648953217.9930289,125.0,0.0,4221.025879,4540.0,4315.897461,4443.589844,4476.922852000001,450.0,3.0,73.0,,,,0.0,0.0,2.0,0.0,1.0,0.0,0.0,,,,,,,,,,,,,,,,,,,,,,,,,,,,,,,,,,,,,,,,,,,,,,,,,,,,,,0.0,0.0,32.0,0.063783,1.0,0.0,,,,,,,,,,,,,,,,,,,,,,,,,
15969,1648953217.9645689,1648953218.000944,126.0,0.0,4477.94873,4573.333496,4203.589844,4569.743652,4588.205078,450.0,3.0,73.0,,,,0.0,0.0,2.0,0.0,1.0,0.0,0.0,,,,,,,,63.0,0.0,0.503708,-0.11987300000000001,0.07959,0.851807,0.304692,-0.022461000000000002,-0.9785309999999999,-0.0032630000000000003,-0.010976999999999999,-0.044294,,,,,,,,,,,,,,,,,,,,,,,,,,,,,,,,,,,,,,,,,,,,,,,,,,,,,,,,,,,,,,,,,
15970,1648953217.972383,1648953218.008759,127.0,0.0,4513.846191,4704.615234000001,4273.333496,4468.205078,4421.025879,238.0,3.0,73.0,,,,0.0,0.0,2.0,0.0,1.0,0.0,0.0,,,,,,,,,,,,,,,,,,,,,,,,,,,,,,,,,,,,,,,,,,,,,,,,,,,,,,,,,,,,,,,,,,,,,,,,,,,,,,,,,,,,
15971,1648953217.9801981,1648953218.016674,0.0,0.0,4300.512695,4709.743652,4269.743652,4241.538574,4072.820557,450.0,3.0,73.0,,,,0.0,0.0,2.0,0.0,1.0,0.0,0.0,,,,,,,,0.0,0.0,0.503649,-0.120117,0.07959,0.851807,0.300298,-0.018555000000000002,-0.9873200000000001,-0.002888,-0.011002,-0.039572,,,,,,,,,,,,,,,,,,,,,,,,,,,,,,,,,,,,,,,,,,,,,,,,,,,,,,,,,,,,,,,,,
15972,1648953217.9880118,1648953218.024488,1.0,0.0,4269.230957,4542.563965,4257.436035,4190.769043,4012.820557,450.0,3.0,73.0,,,,0.0,0.0,2.0,0.0,1.0,0.0,0.0,1.0,0.0,0.0,0.0,0.0,0.0,0.0,,,,,,,,,,,,,1.0,0.0,0.0,,,,,,,,,,,,,,,,,,,,,,,,,,,,,,,,0.0,0.0,32.0,0.071085,1.0,0.0,273.358459,1199.965942,218.438019,225.86109900000002,82.936867,109.019722,155.614716,203.007401,76.484062,72.310097,213.790817,214.77829,535.471436,243.215454,320.840515,461.340149,1468.407349,173.559174,145.07135,48.558987,566.6710820000001,1328.153564,276.691956,188.186157,87.537224
15973,1648953217.995827,1648953218.032403,2.0,0.0,4276.410156,4411.794922,4351.282227000001,4238.461426,4188.717772999999,0.0,3.0,73.0,,,,0.0,0.0,2.0,0.0,1.0,0.0,0.0,,,,,,,,1.0,0.0,0.503649,-0.120117,0.07959,0.851807,0.301762,-0.014159999999999999,-0.978042,-0.0025989999999999997,-0.010976,-0.041621,,,,,,,,,,,,,,,,,,,,,,,,,,,,,,,,,,,,,,,,,,,,,,,,,,,,,,,,,,,,,,,,,
15974,1648953218.0036411,1648953218.0402179,3.0,0.0,4354.871582,4423.589844,4468.205078,4316.410156,4398.974121,450.0,3.0,73.0,,,,0.0,0.0,2.0,0.0,1.0,0.0,0.0,,,,,,,,,,,,,,,,,,,,,,,,,,,,,,,,,,,,,,,,,,,,,,,,,,,,,,,,,,,,,,,,,,,,,,,,,,,,,,,,,,,,
15975,1648953218.011456,1648953218.047933,4.0,0.0,4610.256348,4424.102539,4528.205078,4325.128418,4575.384765999999,19.0,3.0,73.0,,,,0.0,0.0,0.0,0.0,1.0,0.0,0.0,,,,,,,,2.0,0.0,0.503649,-0.120117,0.07959,0.851807,0.291508,-0.015137000000000001,-0.969741,-0.002339,-0.011099,-0.037166000000000005,,,,,,,,,,,,,,,,,,,,,,,,,,,,,,,,,,,,,,,,,,,,,,,,,,,,,,,,,,,,,,,,,
15976,1648953218.0192711,1648953218.055748,5.0,0.0,4701.025879,4444.615234000001,4446.153809,4294.358886999999,4552.307617,450.0,3.0,73.0,,,,0.0,0.0,0.0,0.0,1.0,0.0,0.0,,,,,,,,,,,,,,,,,,,,,,,,,,,,,,,,,,,,,,,,,,,,,,,,,,,,,,0.0,0.0,32.0,0.071085,1.0,0.0,,,,,,,,,,,,,,,,,,,,,,,,,
15977,1648953218.027085,1648953218.063463,6.0,0.0,4246.666504,4559.487305,4380.0,4254.871582,4213.846191,0.0,3.0,73.0,,,,0.0,0.0,0.0,0.0,1.0,0.0,0.0,,,,,,,,3.0,0.0,0.503649,-0.120117,0.07959,0.851807,0.30225100000000005,-0.020508000000000002,-0.979507,-0.002154,-0.011161,-0.033303,,,,,,,,,,,,,,,,,,,,,,,,,,,,,,,,,,,,,,,,,,,,,,,,,,,,,,,,,,,,,,,,,
15978,1648953218.0349,1648953218.0712779,7.0,0.0,3991.281982,4668.205078,4375.897461,4282.563965,4075.897461,450.0,3.0,73.0,,,,0.0,0.0,0.0,0.0,1.0,0.0,0.0,,,,,,,,,,,,,,,,,,,,,,,,,,,,,,,,,,,,,,,,,,,,,,,,,,,,,,,,,,,,,,,,,,,,,,,,,,,,,,,,,,,,
15979,1648953218.042714,1648953218.078993,8.0,0.0,4308.717772999999,4651.794922,4357.94873,4407.692383,4406.666504,450.0,3.0,73.0,,,,0.0,0.0,0.0,0.0,0.0,0.0,0.0,,,,,,,,4.0,0.0,0.503649,-0.120117,0.07959,0.851807,0.29688000000000003,-0.016602000000000002,-0.980484,0.0010890000000000001,-0.011119,-0.035930000000000004,,,,,,,,,,,,,,,,,,,,,,,,,,,,,,,,,,,,,,,,,,,,,,,,,,,,,,,,,,,,,,,,,
15980,1648953218.050529,1648953218.086808,9.0,0.0,4554.871582,4549.230957,4366.153809,4613.846191,4709.230957,0.0,3.0,73.0,,,,0.0,0.0,0.0,0.0,0.0,0.0,0.0,,,,,,,,,,,,,,,,,,,,,,,,,,,,,,,,,,,,,,,,,,,,,,,,,,,,,,0.0,0.0,32.0,0.071085,1.0,0.0,,,,,,,,,,,,,,,,,,,,,,,,,
15981,1648953218.058343,1648953218.094523,10.0,0.0,4387.179688,4620.512695,4246.153809,4522.05127,4457.436035,450.0,3.0,73.0,,,,0.0,0.0,0.0,0.0,0.0,0.0,0.0,,,,,,,,5.0,0.0,0.503649,-0.120117,0.07959,0.851807,0.306157,-0.018555000000000002,-0.9746239999999999,0.004056000000000001,-0.011082,-0.038439999999999995,,,,,,,,,,,,,,,,,,,,,,,,,,,,,,,,,,,,,,,,,,,,,,,,,,,,,,,,,,,,,,,,,
15982,1648953218.066158,1648953218.102438,11.0,0.0,4176.922852000001,4815.384765999999,3865.641113,4170.256348,4124.615234000001,0.0,3.0,73.0,,,,0.0,0.0,0.0,0.0,0.0,0.0,0.0,,,,,,,,,,,,,,,,,,,,,,,,,,,,,,,,,,,,,,,,,,,,,,,,,,,,,,,,,,,,,,,,,,,,,,,,,,,,,,,,,,,,
15983,1648953218.073972,1648953218.110252,12.0,0.0,4082.5642090000006,4774.358886999999,4017.9487299999996,4133.333496,4129.230957,450.0,3.0,73.0,,,,0.0,0.0,0.0,0.0,0.0,0.0,0.0,,,,,,,,6.0,0.0,0.503649,-0.120117,0.07959,0.851807,0.29395,-0.009766,-0.98439,0.003602,-0.011145,-0.034401,,,,,,,,,,,,,,,,,,,,,,,,,,,,,,,,,,,,,,,,,,,,,,,,,,,,,,,,,,,,,,,,,
15984,1648953218.0817869,1648953218.118167,13.0,0.0,4060.512939,4570.256348,4568.717772999999,4310.769043,4282.05127,450.0,3.0,73.0,,,,0.0,0.0,0.0,0.0,0.0,0.0,0.0,,,,,,,,,,,,,,,,,,,,,,,,,,,,,,,,,,,,,,,,,,,,,,,,,,,,,,0.0,0.0,32.0,0.071085,1.0,0.0,,,,,,,,,,,,,,,,,,,,,,,,,
15985,1648953218.089601,1648953218.125982,14.0,0.0,4233.846191,4494.871582,4448.717772999999,4412.820313,4466.153809,450.0,3.0,73.0,,,,0.0,0.0,0.0,0.0,0.0,0.0,0.0,,,,,,,,7.0,0.0,0.503649,-0.120117,0.07959,0.851807,0.298833,-0.0063479999999999995,-0.9643700000000001,0.006318,-0.011203,-0.036967,,,,,,,,,,,,,,,,,,,,,,,,,,,,,,,,,,,,,,,,,,,,,,,,,,,,,,,,,,,,,,,,,
15986,1648953218.097416,1648953218.133897,15.0,0.0,4493.333496,4566.666504,4185.641113000001,4550.256348,4597.436035,0.0,3.0,73.0,,,,0.0,0.0,0.0,0.0,0.0,0.0,0.0,,,,,,,,,,,,,,,,,,,,,,,,,,,,,,,,,,,,,,,,,,,,,,,,,,,,,,,,,,,,,,,,,,,,,,,,,,,,,,,,,,,,
15987,1648953218.10523,1648953218.141712,16.0,0.0,4540.0,4750.256348,4340.0,4500.0,4460.512695,0.0,3.0,73.0,,,,0.0,0.0,0.0,0.0,0.0,0.0,0.0,,,,,,,,8.0,0.0,0.503649,-0.120117,0.07959,0.851807,0.298344,-0.009766,-0.968277,0.008762,-0.011156999999999999,-0.039374,,,,,,,,,,,,,,,,,,,,,,,,,,,,,,,,,,,,,,,,,,,,,,,,,,,,,,,,,,,,,,,,,
15988,1648953218.113045,1648953218.149627,17.0,0.0,4348.717772999999,4898.974121,4171.794922,4151.794922,4083.5898439999996,0.0,3.0,73.0,,,,0.0,0.0,0.0,0.0,0.0,0.0,0.0,,,,,,,,,,,,,,,,,,,,1.0,0.0,0.0,,,,,,,,,,,,,,,,,,,,,,,,,,,,,,,,0.0,0.0,32.0,0.071662,1.0,0.0,184.083099,1209.978394,212.52600099999998,285.246521,88.267235,95.86460100000001,144.969193,197.111572,85.258385,78.311844,250.844406,220.90036,541.38324,246.10759,297.965118,337.324677,1547.526489,133.51011699999998,189.13331599999998,60.694515,430.27896100000004,1317.2094730000001,249.71948199999997,232.65402200000003,86.479675
15989,1648953218.1208599,1648953218.157441,18.0,0.0,4223.589844,4825.128418,3881.538574,4075.897461,4091.281982,0.0,3.0,73.0,,,,0.0,0.0,0.0,0.0,0.0,0.0,0.0,,,,,,,,9.0,0.0,0.503649,-0.120117,0.07959,0.851807,0.287602,-0.013672,-0.9824370000000001,0.008081,-0.011115,-0.041491,,,,,,,,,,,,,,,,,,,,,,,,,,,,,,,,,,,,,,,,,,,,,,,,,,,,,,,,,,,,,,,,,
15990,1648953218.128674,1648953218.1653562,19.0,0.0,4246.153809,4632.307617,4146.666504,4369.743652,4390.769043,0.0,3.0,73.0,,,,0.0,0.0,0.0,0.0,0.0,0.0,0.0,,,,,,,,,,,,,,,,,,,,,,,,,,,,,,,,,,,,,,,,,,,,,,,,,,,,,,,,,,,,,,,,,,,,,,,,,,,,,,,,,,,,
15991,1648953218.1364892,1648953218.173171,20.0,0.0,4318.461426,4537.94873,4470.256348,4603.589844,4529.230957,0.0,3.0,73.0,,,,0.0,0.0,0.0,0.0,0.0,0.0,0.0,,,,,,,,10.0,0.0,0.503649,-0.120117,0.07959,0.851807,0.304692,-0.019532,-0.972671,0.007273000000000001,-0.011029,-0.043348000000000005,,,,,,,,,,,,,,,,,,,,,,,,,,,,,,,,,,,,,,,,,,,,,,,,,,,,,,,,,,,,,,,,,
15992,1648953218.1443028,1648953218.180986,21.0,0.0,4227.179688,4642.05127,4222.05127,4401.025879,4457.94873,0.0,3.0,73.0,,,,0.0,0.0,0.0,0.0,0.0,0.0,0.0,,,,,,,,,,,,,,,,,,,,,,,,,,,,,,,,,,,,,,,,,,,,,,,,,,,,,,0.0,0.0,32.0,0.071662,1.0,0.0,,,,,,,,,,,,,,,,,,,,,,,,,
15993,1648953218.152118,1648953218.188701,22.0,0.0,4127.692383,4787.692383,3913.3332520000004,4196.410156,4304.615234000001,0.0,3.0,73.0,,,,0.0,0.0,0.0,0.0,0.0,0.0,0.0,,,,,,,,11.0,0.0,0.503649,-0.120117,0.07959,0.851807,0.29395,-0.030762,-0.99025,0.006595,-0.011001,-0.044969999999999996,,,,,,,,,,,,,,,,,,,,,,,,,,,,,,,,,,,,,,,,,,,,,,,,,,,,,,,,,,,,,,,,,
15994,1648953218.1599321,1648953218.196616,23.0,0.0,4089.2307130000004,4703.077147999999,4204.102539,4248.717772999999,4074.358887,0.0,3.0,73.0,,,,0.0,0.0,0.0,0.0,0.0,0.0,0.0,,,,,,,,,,,,,,,,,,,,,,,,,,,,,,,,,,,,,,,,,,,,,,,,,,,,,,,,,,,,,,,,,,,,,,,,,,,,,,,,,,,,
15995,1648953218.167747,1648953218.204431,24.0,0.0,4195.384765999999,4544.102539,4540.512695,4318.461426,4079.487061,0.0,3.0,73.0,,,,0.0,0.0,0.0,0.0,0.0,0.0,0.0,,,,,,,,12.0,0.0,0.503591,-0.120361,0.07959,0.851807,0.307134,-0.008789,-0.98439,0.00281,-0.010926,-0.04018,,,,,,,,,,,,,,,,,,,,,,,,,,,,,,,,,,,,,,,,,,,,,,,,,,,,,,,,,,,,,,,,,
15996,1648953218.175562,1648953218.2122462,25.0,0.0,4389.230957,4600.0,4352.307617,4385.641113000001,4385.641113000001,0.0,3.0,73.0,,,,0.0,0.0,0.0,0.0,0.0,0.0,0.0,,,,,,,,,,,,,,,,,,,,,,,,,,,,,,,,,,,,,,,,,,,,,,,,,,,,,,0.0,0.0,32.0,0.071662,1.0,0.0,,,,,,,,,,,,,,,,,,,,,,,,,
15997,1648953218.183376,1648953218.21996,26.0,0.0,4537.436035,4656.922852000001,4167.179688,4605.128418,4636.922852000001,0.0,3.0,73.0,,,,0.0,0.0,0.0,0.0,0.0,0.0,0.0,,,,,,,,13.0,0.0,0.503591,-0.120361,0.07959,0.851807,0.302739,-0.016602000000000002,-0.9746239999999999,0.002578,-0.011005,-0.042168000000000004,,,,,,,,,,,,,,,,,,,,,,,,,,,,,,,,,,,,,,,,,,,,,,,,,,,,,,,,,,,,,,,,,
15998,1648953218.191191,1648953218.227875,27.0,0.0,4457.436035,4652.820313,4212.820313,4554.358886999999,4459.487305,0.0,3.0,73.0,,,,0.0,0.0,0.0,0.0,0.0,0.0,0.0,,,,,,,,,,,,,,,,,,,,,,,,,,,,,,,,,,,,,,,,,,,,,,,,,,,,,,,,,,,,,,,,,,,,,,,,,,,,,,,,,,,,
15999,1648953218.1990051,1648953218.23579,28.0,0.0,4226.153809,4755.384765999999,4009.2307130000004,4190.256348,4107.179688,0.0,3.0,73.0,,,,0.0,0.0,0.0,0.0,0.0,0.0,0.0,,,,,,,,14.0,0.0,0.503591,-0.120361,0.07959,0.851807,0.29688000000000003,-0.027344,-0.987808,0.002271,-0.011077,-0.037756,,,,,,,,,,,,,,,,,,,,,,,,,,,,,,,,,,,,,,,,,,,,,,,,,,,,,,,,,,,,,,,,,
16000,1648953218.20682,1648953218.2436051,29.0,0.0,4065.641113,4753.333496,4072.3076170000004,4107.692383,4042.0512700000004,0.0,3.0,73.0,,,,0.0,0.0,0.0,0.0,0.0,0.0,0.0,,,,,,,,,,,,,,,,,,,,,,,,,,,,,,,,,,,,,,,,,,,,,,,,,,,,,,0.0,0.0,32.0,0.071662,1.0,0.0,,,,,,,,,,,,,,,,,,,,,,,,,
16001,1648953218.214634,1648953218.25142,30.0,0.0,4045.1281740000004,4595.897461,4545.641113000001,4286.153809,4247.179688,0.0,3.0,73.0,,,,0.0,0.0,0.0,0.0,0.0,0.0,0.0,,,,,,,,15.0,0.0,0.503591,-0.120361,0.07959,0.851807,0.295415,-0.002441,-0.973648,0.002093,-0.010994,-0.033638999999999995,,,,,,,,,,,,,,,,,,,,,,,,,,,,,,,,,,,,,,,,,,,,,,,,,,,,,,,,,,,,,,,,,
16002,1648953218.222449,1648953218.259135,31.0,0.0,4231.794922,4598.974121,4500.512695,4438.974121,4489.743652,0.0,3.0,73.0,,,,0.0,0.0,0.0,0.0,0.0,0.0,0.0,,,,,,,,,,,,,,,,,,,,,,,,,,,,,,,,,,,,,,,,,,,,,,,,,,,,,,,,,,,,,,,,,,,,,,,,,,,,,,,,,,,,
16003,1648953218.230263,1648953218.26695,32.0,0.0,4447.692383,4738.974121,4126.666504,4533.333496,4541.025879,0.0,3.0,73.0,,,,0.0,0.0,0.0,0.0,0.0,0.0,0.0,,,,,,,,16.0,0.0,0.503591,-0.120361,0.07959,0.851807,0.298833,-0.012206999999999999,-0.980484,0.001835,-0.010969,-0.036281,,,,,,,,,,,,,,,,,,,,,,,,,,,,,,,,,,,,,,,,,,,,,,,,,,,,,,,,,,,,,,,,,
16004,1648953218.2380779,1648953218.274665,33.0,0.0,4482.05127,4779.487305,4137.436035,4430.256348,4351.282227000001,0.0,3.0,73.0,,,,0.0,0.0,0.0,0.0,0.0,0.0,0.0,,,,,,,,,,,,,,,,,,,,1.0,0.0,0.0,,,,,,,,,,,,,,,,,,,,,,,,,,,,,,,,0.0,0.0,32.0,0.07904,1.0,0.0,116.89238,1124.168823,226.49154700000003,379.447784,92.958153,102.05793800000001,142.122971,185.421295,90.229866,85.308022,295.935516,223.78135699999999,504.26901200000003,248.76182599999999,270.53799399999997,230.249969,1510.766357,107.79511299999999,259.700897,72.83052099999999,306.749573,1206.913208,242.894135,302.819183,87.603691
16005,1648953218.245892,1648953218.28248,34.0,0.0,4344.615234000001,4775.897461,4096.922852000001,4118.974121,4108.205078,0.0,3.0,73.0,,,,0.0,0.0,0.0,0.0,0.0,0.0,0.0,,,,,,,,17.0,0.0,0.503591,-0.120361,0.07959,0.851807,0.306645,-0.018555000000000002,-0.980972,0.004679,-0.010946,-0.038561,,,,,,,,,,,,,,,,,,,,,,,,,,,,,,,,,,,,,,,,,,,,,,,,,,,,,,,,,,,,,,,,,
16006,1648953218.253707,1648953218.290195,35.0,0.0,4241.025879,4800.512695,3854.8718259999996,4065.641113,4226.153809,0.0,3.0,73.0,,,,0.0,0.0,0.0,0.0,0.0,0.0,0.0,,,,,,,,,,,,,,,,,,,,,,,,,,,,,,,,,,,,,,,,,,,,,,,,,,,,,,,,,,,,,,,,,,,,,,,,,,,,,,,,,,,,
16007,1648953218.261521,1648953218.298009,36.0,0.0,4250.256348,4734.358886999999,3981.538574,4328.205078,4471.282227000001,0.0,3.0,73.0,,,,0.0,0.0,0.0,0.0,0.0,0.0,0.0,,,,,,,,18.0,0.0,0.503591,-0.120361,0.07959,0.851807,0.295415,-0.002441,-0.973648,0.001135,-0.010975,-0.034558,,,,,,,,,,,,,,,,,,,,,,,,,,,,,,,,,,,,,,,,,,,,,,,,,,,,,,,,,,,,,,,,,
16008,1648953218.269336,1648953218.305724,37.0,0.0,4330.769043,4640.512695,4199.487305,4595.897461,4551.794922,0.0,3.0,73.0,,,,0.0,0.0,0.0,0.0,0.0,0.0,0.0,,,,,,,,,,,,,,,,,,,,,,,,,,,,,,,,,,,,,,,,,,,,,,,,,,,,,,0.0,0.0,32.0,0.07904,1.0,0.0,,,,,,,,,,,,,,,,,,,,,,,,,
16009,1648953218.2771509,1648953218.313539,38.0,0.0,4240.512695,4663.589844,3876.923096,4436.410156,4431.794922,0.0,3.0,73.0,,,,0.0,0.0,0.0,0.0,0.0,0.0,0.0,,,,,,,,19.0,0.0,0.503591,-0.120361,0.07959,0.851807,0.306645,-0.018555000000000002,-0.980972,0.0040490000000000005,-0.010952,-0.037011,,,,,,,,,,,,,,,,,,,,,,,,,,,,,,,,,,,,,,,,,,,,,,,,,,,,,,,,,,,,,,,,,
16010,1648953218.284965,1648953218.321254,39.0,0.0,4130.769043,4687.692383,3645.1281740000004,4172.820313,4225.641113000001,0.0,3.0,73.0,,,,0.0,0.0,0.0,0.0,0.0,0.0,0.0,,,,,,,,,,,,,,,,,,,,,,,,,,,,,,,,,,,,,,,,,,,,,,,,,,,,,,,,,,,,,,,,,,,,,,,,,,,,,,,,,,,,
16011,1648953218.2927802,1648953218.329069,40.0,0.0,4114.358886999999,4613.846191,4165.641113000001,4192.820313,4083.076904,0.0,3.0,73.0,,,,0.0,0.0,0.0,0.0,0.0,0.0,0.0,,,,,,,,20.0,0.0,0.503591,-0.120361,0.07959,0.851807,0.295415,-0.017578,-0.9785309999999999,0.00672,-0.01098,-0.039316000000000004,,,,,,,,,,,,,,,,,,,,,,,,,,,,,,,,,,,,,,,,,,,,,,,,,,,,,,,,,,,,,,,,,
16012,1648953218.3005939,1648953218.336784,41.0,0.0,4093.8461909999996,4509.230957,4572.307617,4344.615234000001,4111.282227000001,0.0,3.0,73.0,,,,0.0,0.0,0.0,0.0,0.0,0.0,0.0,,,,,,,,,,,,,,,,,,,,,,,,,,,,,,,,,,,,,,,,,,,,,,,,,,,,,,0.0,0.0,32.0,0.07904,1.0,0.0,,,,,,,,,,,,,,,,,,,,,,,,,
16013,1648953218.308409,1648953218.344599,42.0,0.0,4090.256348,4406.153809,4510.769043,4362.05127,4289.230957,0.0,3.0,73.0,,,,0.0,0.0,0.0,0.0,0.0,0.0,0.0,,,,,,,,21.0,0.0,0.503591,-0.120361,0.07959,0.851807,0.290044,-0.015625,-0.978042,0.0029230000000000003,-0.011053,-0.03514,,,,,,,,,,,,,,,,,,,,,,,,,,,,,,,,,,,,,,,,,,,,,,,,,,,,,,,,,,,,,,,,,
16014,1648953218.3162231,1648953218.352314,43.0,0.0,4336.922852000001,4353.333496,4384.615234000001,4393.846191,4560.0,0.0,3.0,73.0,,,,0.0,0.0,0.0,0.0,0.0,0.0,0.0,,,,,,,,,,,,,,,,,,,,,,,,,,,,,,,,,,,,,,,,,,,,,,,,,,,,,,,,,,,,,,,,,,,,,,,,,,,,,,,,,,,,
16015,1648953218.324038,1648953218.3601289,44.0,0.0,4559.487305,4430.769043,4381.538574,4412.820313,4540.512695,0.0,3.0,73.0,,,,0.0,0.0,0.0,0.0,0.0,0.0,0.0,,,,,,,,22.0,0.0,0.503591,-0.120361,0.07959,0.851807,0.31104,-0.023438,-0.9834129999999999,0.0026309999999999997,-0.011071,-0.037534,,,,,,,,,,,,,,,,,,,,,,,,,,,,,,,,,,,,,,,,,,,,,,,,,,,,,,,,,,,,,,,,,
16016,1648953218.331853,1648953218.3678439,45.0,0.0,4389.743652,4493.333496,4462.563965,4303.077147999999,4180.512695,0.0,3.0,73.0,,,,0.0,0.0,0.0,0.0,0.0,0.0,0.0,,,,,,,,,,,,,,,,,,,,,,,,,,,,,,,,,,,,,,,,,,,,,,,,,,,,,,0.0,0.0,32.0,0.07904,1.0,0.0,,,,,,,,,,,,,,,,,,,,,,,,,
16017,1648953218.339667,1648953218.375759,46.0,0.0,4150.256348,4411.282227000001,4566.666504,4168.717772999999,4092.820557,0.0,3.0,73.0,,,,0.0,0.0,0.0,0.0,0.0,0.0,0.0,,,,,,,,23.0,0.0,0.503591,-0.120361,0.07959,0.851807,0.291997,-0.029297000000000004,-0.984878,0.0023190000000000003,-0.011087,-0.039883999999999996,,,,,,,,,,,,,,,,,,,,,,,,,,,,,,,,,,,,,,,,,,,,,,,,,,,,,,,,,,,,,,,,,
16018,1648953218.347482,1648953218.383574,47.0,0.0,4098.974121,4420.512695,4391.794922,4088.205078,4268.717772999999,0.0,3.0,73.0,,,,0.0,0.0,0.0,0.0,0.0,0.0,0.0,,,,,,,,,,,,,,,,,,,,,,,,,,,,,,,,,,,,,,,,,,,,,,,,,,,,,,,,,,,,,,,,,,,,,,,,,,,,,,,,,,,,
16019,1648953218.3552961,1648953218.391488,48.0,0.0,4116.922852000001,4477.436035,4347.179688,4245.641113000001,4400.512695,0.0,3.0,73.0,,,,0.0,0.0,0.0,0.0,0.0,0.0,0.0,,,,,,,,24.0,0.0,0.503591,-0.120361,0.07959,0.851807,0.29639099999999996,-0.01709,-0.968765,0.0020870000000000003,-0.010955,-0.041852999999999994,,,,,,,,,,,,,,,,,,,,,,,,,,,,,,,,,,,,,,,,,,,,,,,,,,,,,,,,,,,,,,,,,
16020,1648953218.363111,1648953218.399303,49.0,0.0,4311.282227000001,4389.743652,4562.05127,4448.717772999999,4627.179688,0.0,3.0,73.0,,,,0.0,0.0,0.0,0.0,0.0,0.0,0.0,,,,,,,,,,,,,,,,,,,,1.0,0.0,0.0,,,,,,,,,,,,,,,,,,,,,,,,,,,,,,,,0.0,0.0,32.0,0.064675,1.0,0.0,79.925606,951.245728,260.257568,498.43713399999996,95.864738,127.48890700000001,150.541641,169.201767,90.905327,91.557838,340.73425299999997,222.19503799999998,437.894287,247.082123,239.238693,156.71785,1339.357666,101.766426,354.499542,82.084747,219.218948,1009.799011,250.13591,396.12203999999997,89.56094399999999
16021,1648953218.370925,1648953218.407218,50.0,0.0,4574.871582,4415.384765999999,4463.589844,4476.410156,4706.666504,0.0,3.0,73.0,,,,0.0,0.0,0.0,0.0,0.0,0.0,0.0,,,,,,,,25.0,0.0,0.503139,-0.120361,0.079834,0.852051,0.29443800000000003,-0.023926,-0.9858549999999999,0.0018780000000000001,-0.010983,-0.043625,,,,,,,,,,,,,,,,,,,,,,,,,,,,,,,,,,,,,,,,,,,,,,,,,,,,,,,,,,,,,,,,,
16022,1648953218.37874,1648953218.415033,51.0,0.0,4294.871582,4538.461426,4417.94873,4404.615234000001,4246.153809,0.0,3.0,73.0,,,,0.0,0.0,0.0,0.0,0.0,0.0,0.0,,,,,,,,,,,,,,,,,,,,,,,,,,,,,,,,,,,,,,,,,,,,,,,,,,,,,,,,,,,,,,,,,,,,,,,,,,,,,,,,,,,,
16023,1648953218.386554,1648953218.422748,52.0,0.0,3956.923096,4469.743652,4496.410156,4291.282227000001,3929.743652,0.0,3.0,73.0,,,,0.0,0.0,0.0,0.0,0.0,0.0,0.0,,,,,,,,26.0,0.0,0.503552,-0.120361,0.079834,0.851807,0.29736799999999997,-0.012695999999999999,-0.980972,0.0016420000000000002,-0.011007,-0.045268,,,,,,,,,,,,,,,,,,,,,,,,,,,,,,,,,,,,,,,,,,,,,,,,,,,,,,,,,,,,,,,,,
16024,1648953218.394369,1648953218.430563,53.0,0.0,4126.153809,4432.307617,4191.794922,4038.461426,4148.717772999999,0.0,3.0,73.0,,,,0.0,0.0,0.0,0.0,0.0,0.0,0.0,,,,,,,,,,,,,,,,,,,,,,,,,,,,,,,,,,,,,,,,,,,,,,,,,,,,,,0.0,0.0,32.0,0.064675,1.0,0.0,,,,,,,,,,,,,,,,,,,,,,,,,
16025,1648953218.402183,1648953218.438278,54.0,0.0,4408.205078,4562.05127,4040.0,4144.102539,4411.794922,0.0,3.0,73.0,,,,0.0,0.0,0.0,0.0,0.0,0.0,0.0,,,,,,,,27.0,0.0,0.503552,-0.120361,0.079834,0.851807,0.306157,-0.022461000000000002,-0.9897610000000001,-0.001648,-0.010931999999999999,-0.040497000000000005,,,,,,,,,,,,,,,,,,,,,,,,,,,,,,,,,,,,,,,,,,,,,,,,,,,,,,,,,,,,,,,,,
16026,1648953218.409998,1648953218.446093,55.0,0.0,4581.025879,4519.487305,4324.102539,4482.563965,4523.589844,0.0,3.0,73.0,,,,0.0,0.0,0.0,0.0,0.0,0.0,0.0,,,,,,,,,,,,,,,,,,,,,,,,,,,,,,,,,,,,,,,,,,,,,,,,,,,,,,,,,,,,,,,,,,,,,,,,,,,,,,,,,,,,
16027,1648953218.4178119,1648953218.453808,56.0,0.0,4755.384765999999,4435.384765999999,4295.384765999999,4448.205078,4625.641113000001,0.0,3.0,73.0,,,,0.0,0.0,0.0,0.0,0.0,0.0,0.0,,,,,,,,28.0,0.0,0.503552,-0.120361,0.079834,0.851807,0.29688000000000003,-0.023438,-0.984878,0.001544,-0.010912999999999999,-0.042454,,,,,,,,,,,,,,,,,,,,,,,,,,,,,,,,,,,,,,,,,,,,,,,,,,,,,,,,,,,,,,,,,
16028,1648953218.425627,1648953218.461623,57.0,0.0,4460.0,4514.358886999999,4241.025879,4192.820313,4465.641113000001,0.0,3.0,73.0,,,,0.0,0.0,0.0,0.0,0.0,0.0,0.0,,,,,,,,,,,,,,,,,,,,,,,,,,,,,,,,,,,,,,,,,,,,,,,,,,,,,,0.0,0.0,32.0,0.064675,1.0,0.0,,,,,,,,,,,,,,,,,,,,,,,,,
16029,1648953218.4334419,1648953218.4693382,58.0,0.0,3980.0,4496.922852000001,4522.563965,4243.589844,4154.358886999999,0.0,3.0,73.0,,,,0.0,0.0,0.0,0.0,0.0,0.0,0.0,,,,,,,,29.0,0.0,0.503552,-0.120361,0.079834,0.851807,0.31104,-0.031738999999999996,-0.9799950000000001,0.001341,-0.010945,-0.037964,,,,,,,,,,,,,,,,,,,,,,,,,,,,,,,,,,,,,,,,,,,,,,,,,,,,,,,,,,,,,,,,,
16030,1648953218.441256,1648953218.4771519,59.0,0.0,4036.4101560000004,4455.897461,4396.922852000001,4379.487305,4111.794922,0.0,3.0,73.0,,,,0.0,0.0,0.0,0.0,0.0,0.0,0.0,,,,,,,,,,,,,,,,,,,,,,,,,,,,,,,,,,,,,,,,,,,,,,,,,,,,,,,,,,,,,,,,,,,,,,,,,,,,,,,,,,,,
16031,1648953218.4490712,1648953218.484867,60.0,0.0,4331.794922,4583.589844,3943.076904,4381.538574,4395.384765999999,0.0,3.0,73.0,,,,0.0,0.0,0.0,0.0,0.0,0.0,0.0,,,,,,,,30.0,0.0,0.503552,-0.120361,0.079834,0.851807,0.303716,-0.009766,-0.977066,-0.001918,-0.011022,-0.034020999999999996,,,,,,,,,,,,,,,,,,,,,,,,,,,,,,,,,,,,,,,,,,,,,,,,,,,,,,,,,,,,,,,,,
16032,1648953218.4568849,1648953218.492682,61.0,0.0,4498.461426,4617.94873,3842.5642090000006,4474.358886999999,4492.307617,0.0,3.0,73.0,,,,0.0,0.0,0.0,0.0,0.0,0.0,0.0,,,,,,,,,,,,,,,,,,,,,,,,,,,,,,,,,,,,,,,,,,,,,,,,,,,,,,0.0,0.0,32.0,0.064675,1.0,0.0,,,,,,,,,,,,,,,,,,,,,,,,,
16033,1648953218.4647,1648953218.500397,62.0,0.0,4583.077147999999,4409.743652,3965.1281740000004,4541.025879,4250.256348,0.0,3.0,73.0,,,,0.0,0.0,0.0,0.0,0.0,0.0,0.0,,,,,,,,31.0,0.0,0.503494,-0.12060499999999999,0.079834,0.851807,0.299809,-0.012695999999999999,-0.972183,-0.004850999999999999,-0.011043,-0.036625,,,,,,,,,,,,,,,,,,,,,,,,,,,,,,,,,,,,,,,,,,,,,,,,,,,,,,,,,,,,,,,,,
16034,1648953218.4725142,1648953218.508312,63.0,0.0,4480.0,4315.384765999999,4053.3332520000004,4337.436035,4112.820313,0.0,3.0,73.0,,,,0.0,0.0,0.0,0.0,0.0,0.0,0.0,,,,,,,,,,,,,,,,,,,,,,,,,,,,,,,,,,,,,,,,,,,,,,,,,,,,,,,,,,,,,,,,,,,,,,,,,,,,,,,,,,,,
16035,1648953218.4803288,1648953218.5161269,64.0,0.0,4205.641113000001,4456.922852000001,4198.461426,4046.6667479999996,4250.769043,450.0,3.0,73.0,,,,0.0,0.0,0.0,0.0,0.0,0.0,0.0,,,,,,,,32.0,0.0,0.503494,-0.12060499999999999,0.079834,0.851807,0.286137,-0.018067,-0.9746239999999999,-0.004366,-0.011013,-0.038968,,,,,,,,,,,,,,,,,,,,,,,,,,,,,,,,,,,,,,,,,,,,,,,,,,,,,,,,,,,,,,,,,
16036,1648953218.488143,1648953218.524042,65.0,0.0,4017.4357909999994,4573.846191,4146.666504,4089.743652,4467.692383,450.0,3.0,73.0,,,,0.0,1.0,0.0,0.0,0.0,0.0,0.0,1.0,0.0,0.0,0.0,0.0,0.0,0.0,,,,,,,,,,,,,1.0,0.0,0.0,,,,,,,,,,,,,,,,,,,,,,,,,,,,,,,,0.0,0.0,32.0,0.069398,1.0,0.0,67.834023,737.061157,306.44448900000003,622.9686889999999,96.157036,163.03951999999998,166.534988,149.86647,90.482414,95.314026,372.774445,214.94551099999998,365.99234,243.51748700000002,208.039963,113.10791,1062.3828130000002,112.9655,463.247772,86.905029,167.476227,767.2247309999999,256.166107,506.389801,90.06047099999999
16037,1648953218.495958,1648953218.531857,66.0,0.0,4118.974121,4605.641113000001,3970.256348,4353.333496,4468.717772999999,100.0,3.0,73.0,,,,0.0,1.0,0.0,0.0,0.0,0.0,0.0,,,,,,,,33.0,0.0,0.503494,-0.12060499999999999,0.079834,0.851807,0.300298,-0.02002,-0.978042,-0.007055,-0.011035,-0.034779000000000004,,,,,,,,,,,,,,,,,,,,,,,,,,,,,,,,,,,,,,,,,,,,,,,,,,,,,,,,,,,,,,,,,
16038,1648953218.503773,1648953218.539771,67.0,0.0,4413.333496,4630.256348,3985.641113,4536.922852000001,4482.563965,450.0,3.0,73.0,,,,0.0,1.0,0.0,0.0,0.0,0.0,0.0,,,,,,,,,,,,,,,,,,,,,,,,,,,,,,,,,,,,,,,,,,,,,,,,,,,,,,,,,,,,,,,,,,,,,,,,,,,,,,,,,,,,
16039,1648953218.511587,1648953218.547586,68.0,0.0,4383.077147999999,4723.077147999999,4056.923096,4454.871582,4495.384765999999,2.0,3.0,73.0,,,,0.0,1.0,0.0,0.0,0.0,0.0,0.0,,,,,,,,34.0,0.0,0.503455,-0.12060499999999999,0.080078,0.851807,0.29443800000000003,-0.013672,-0.9741360000000001,-0.006251,-0.011054000000000001,-0.037160000000000006,,,,,,,,,,,,,,,,,,,,,,,,,,,,,,,,,,,,,,,,,,,,,,,,,,,,,,,,,,,,,,,,,
16040,1648953218.519402,1648953218.555501,69.0,0.0,4167.179688,4781.538574,4096.410156,4306.153809,4367.179688,450.0,3.0,73.0,,,,0.0,1.0,0.0,0.0,0.0,0.0,0.0,,,,,,,,,,,,,,,,,,,,,,,,,,,,,,,,,,,,,,,,,,,,,,,,,,,,,,0.0,0.0,32.0,0.069398,1.0,0.0,,,,,,,,,,,,,,,,,,,,,,,,,
16041,1648953218.527216,1648953218.563316,70.0,0.0,4191.794922,4727.179688,4113.333496,4263.077147999999,4101.025879,0.0,3.0,73.0,,,,0.0,1.0,0.0,0.0,0.0,0.0,0.0,,,,,,,,35.0,0.0,0.503455,-0.12060499999999999,0.080078,0.851807,0.307622,-0.014649,-0.9824370000000001,-0.005675,-0.011023,-0.03945,,,,,,,,,,,,,,,,,,,,,,,,,,,,,,,,,,,,,,,,,,,,,,,,,,,,,,,,,,,,,,,,,
16042,1648953218.535031,1648953218.5712311,71.0,0.0,4394.871582,4614.871582,4218.461426,4264.615234000001,4036.4101560000004,450.0,3.0,73.0,,,,0.0,1.0,0.0,0.0,0.0,0.0,0.0,,,,,,,,,,,,,,,,,,,,,,,,,,,,,,,,,,,,,,,,,,,,,,,,,,,,,,,,,,,,,,,,,,,,,,,,,,,,,,,,,,,,
16043,1648953218.542845,1648953218.579046,72.0,0.0,4327.692383,4546.666504,4516.410156,4320.0,4236.410156,450.0,3.0,73.0,,,,0.0,1.0,0.0,0.0,0.0,0.0,0.0,,,,,,,,36.0,0.0,0.503455,-0.12060499999999999,0.080078,0.851807,0.298833,-0.029786,-0.9716950000000001,-0.002031,-0.011044,-0.041609,,,,,,,,,,,,,,,,,,,,,,,,,,,,,,,,,,,,,,,,,,,,,,,,,,,,,,,,,,,,,,,,,
16044,1648953218.55066,1648953218.58686,73.0,0.0,4349.230957,4476.922852000001,4589.743652,4510.256348,4490.256348,0.0,3.0,73.0,,,,0.0,1.0,0.0,0.0,0.0,0.0,0.0,,,,,,,,,,,,,,,,,,,,,,,,,,,,,,,,,,,,,,,,,,,,,,,,,,,,,,0.0,0.0,32.0,0.069398,1.0,0.0,,,,,,,,,,,,,,,,,,,,,,,,,
16045,1648953218.558474,1648953218.594575,74.0,0.0,4528.205078,4428.205078,4441.538574,4464.615234000001,4501.025879,450.0,3.0,73.0,,,,0.0,1.0,0.0,0.0,0.0,0.0,0.0,,,,,,,,37.0,0.0,0.503455,-0.12060499999999999,0.080078,0.851807,0.292485,-0.011231,-0.9863430000000001,-0.001731,-0.011014,-0.037204,,,,,,,,,,,,,,,,,,,,,,,,,,,,,,,,,,,,,,,,,,,,,,,,,,,,,,,,,,,,,,,,,
16046,1648953218.566289,1648953218.60249,75.0,0.0,4434.358886999999,4579.487305,4421.025879,4215.384765999999,4314.358886999999,0.0,3.0,73.0,,,,0.0,1.0,0.0,0.0,0.0,0.0,0.0,,,,,,,,,,,,,,,,,,,,,,,,,,,,,,,,,,,,,,,,,,,,,,,,,,,,,,,,,,,,,,,,,,,,,,,,,,,,,,,,,,,,
16047,1648953218.5741029,1648953218.610305,76.0,0.0,4164.102539,4632.820313,4486.153809,4123.077147999999,4259.487305,450.0,3.0,73.0,,,,0.0,1.0,0.0,0.0,0.0,0.0,0.0,,,,,,,,38.0,0.0,0.503455,-0.12060499999999999,0.080078,0.851807,0.29639099999999996,-0.02002,-0.9751129999999999,-0.001655,-0.011133,-0.03319,,,,,,,,,,,,,,,,,,,,,,,,,,,,,,,,,,,,,,,,,,,,,,,,,,,,,,,,,,,,,,,,,
16048,1648953218.581918,1648953218.6180198,77.0,0.0,4026.1538090000004,4446.153809,4437.94873,4182.05127,4271.794922,450.0,3.0,73.0,,,,0.0,1.0,0.0,0.0,0.0,0.0,0.0,,,,,,,,,,,,,,,,,,,,,,,,,,,,,,,,,,,,,,,,,,,,,,,,,,,,,,0.0,0.0,32.0,0.069398,1.0,0.0,,,,,,,,,,,,,,,,,,,,,,,,,
16049,1648953218.5897331,1648953218.625835,78.0,0.0,4064.615479,4484.102539,4307.692383,4310.256348,4272.820313,450.0,3.0,73.0,,,,0.0,1.0,0.0,0.0,0.0,0.0,0.0,,,,,,,,39.0,0.0,0.503455,-0.12060499999999999,0.080078,0.851807,0.30518,-0.011719,-0.980972,-0.001343,-0.011094,-0.035731,,,,,,,,,,,,,,,,,,,,,,,,,,,,,,,,,,,,,,,,,,,,,,,,,,,,,,,,,,,,,,,,,
16050,1648953218.597547,1648953218.63355,79.0,0.0,4235.897461,4700.512695,4084.102539,4431.282227000001,4456.922852000001,0.0,3.0,73.0,,,,0.0,1.0,0.0,0.0,0.0,0.0,0.0,,,,,,,,,,,,,,,,,,,,,,,,,,,,,,,,,,,,,,,,,,,,,,,,,,,,,,,,,,,,,,,,,,,,,,,,,,,,,,,,,,,,
16051,1648953218.605362,1648953218.641365,80.0,0.0,4477.436035,4606.153809,3841.025635,4506.666504,4553.846191,450.0,3.0,73.0,,,,0.0,1.0,0.0,0.0,0.0,0.0,0.0,,,,,,,,40.0,0.0,0.503455,-0.12060499999999999,0.080078,0.851807,0.292485,-0.011231,-0.9863430000000001,-0.001111,-0.011059000000000001,-0.031914,,,,,,,,,,,,,,,,,,,,,,,,,,,,,,,,,,,,,,,,,,,,,,,,,,,,,,,,,,,,,,,,,
16052,1648953218.6131759,1648953218.64908,81.0,0.0,4579.487305,4430.769043,3806.6667479999996,4531.794922,4268.205078,450.0,3.0,73.0,,,,0.0,1.0,0.0,0.0,0.0,0.0,0.0,,,,,,,,,,,,,,,,,,,,1.0,0.0,0.0,,,,,,,,,,,,,,,,,,,,,,,,,,,,,,,,0.0,0.0,32.0,0.058155,1.0,0.0,69.25559200000001,539.3439940000001,355.173615,730.257874,93.54126,196.522873,180.73509199999998,130.127625,93.314308,95.003738,389.429352,205.019012,315.19390899999996,243.74777200000003,182.920837,84.753395,743.424255,132.048279,569.571228,87.41436800000001,134.25238000000002,531.856018,247.139221,626.700195,87.660545
16053,1648953218.620991,1648953218.6569948,82.0,0.0,4551.794922,4557.94873,3934.8718259999996,4437.94873,4095.897461,450.0,3.0,73.0,,,,0.0,1.0,0.0,0.0,0.0,0.0,0.0,,,,,,,,41.0,0.0,0.503455,-0.12060499999999999,0.080078,0.851807,0.30225100000000005,-0.0058590000000000005,-0.9834129999999999,-0.001049,-0.011125,-0.028477999999999996,,,,,,,,,,,,,,,,,,,,,,,,,,,,,,,,,,,,,,,,,,,,,,,,,,,,,,,,,,,,,,,,,
16054,1648953218.6288052,1648953218.66481,83.0,0.0,4413.846191,4706.666504,3947.179443,4126.153809,4190.256348,0.0,3.0,73.0,,,,0.0,1.0,0.0,0.0,0.0,0.0,0.0,,,,,,,,,,,,,,,,,,,,,,,,,,,,,,,,,,,,,,,,,,,,,,,,,,,,,,,,,,,,,,,,,,,,,,,,,,,,,,,,,,,,
16055,1648953218.6366198,1648953218.672724,84.0,0.0,4206.666504,4706.153809,3925.1281740000004,4024.102539,4310.769043,450.0,3.0,73.0,,,,0.0,1.0,0.0,0.0,0.0,0.0,0.0,,,,,,,,42.0,0.0,0.503455,-0.12060499999999999,0.080078,0.851807,0.299321,-0.027344,-0.976089,-0.000895,-0.011233,-0.031734,,,,,,,,,,,,,,,,,,,,,,,,,,,,,,,,,,,,,,,,,,,,,,,,,,,,,,,,,,,,,,,,,
16056,1648953218.644434,1648953218.6805391,85.0,0.0,4099.487305,4681.538574,4223.077147999999,4278.461426,4348.205078,450.0,3.0,73.0,,,,0.0,1.0,0.0,0.0,0.0,0.0,0.0,,,,,,,,,,,,,,,,,,,,,,,,,,,,,,,,,,,,,,,,,,,,,,,,,,,,,,0.0,0.0,32.0,0.058155,1.0,0.0,,,,,,,,,,,,,,,,,,,,,,,,,
16057,1648953218.652249,1648953218.688354,86.0,0.0,4241.538574,4605.641113000001,4575.384765999999,4549.743652,4446.153809,450.0,3.0,73.0,,,,0.0,1.0,0.0,0.0,0.0,0.0,0.0,,,,,,,,43.0,0.0,0.503455,-0.12060499999999999,0.080078,0.851807,0.30518,-0.027832,-0.9834129999999999,-0.0008060000000000001,-0.011184,-0.028268,,,,,,,,,,,,,,,,,,,,,,,,,,,,,,,,,,,,,,,,,,,,,,,,,,,,,,,,,,,,,,,,,
16058,1648953218.660063,1648953218.696069,87.0,0.0,4372.820313,4482.05127,4495.897461,4464.102539,4529.743652,0.0,3.0,73.0,,,,0.0,1.0,0.0,0.0,0.0,0.0,0.0,,,,,,,,,,,,,,,,,,,,,,,,,,,,,,,,,,,,,,,,,,,,,,,,,,,,,,,,,,,,,,,,,,,,,,,,,,,,,,,,,,,,
16059,1648953218.667878,1648953218.703884,88.0,0.0,4409.230957,4503.589844,4283.589844,4229.743652,4455.897461,450.0,3.0,73.0,,,,0.0,1.0,0.0,0.0,0.0,0.0,0.0,,,,,,,,44.0,0.0,0.503455,-0.12060499999999999,0.080078,0.851807,0.301762,-0.023926,-0.982925,-0.0007740000000000001,-0.011335,-0.025197,,,,,,,,,,,,,,,,,,,,,,,,,,,,,,,,,,,,,,,,,,,,,,,,,,,,,,,,,,,,,,,,,
16060,1648953218.675693,1648953218.711599,89.0,0.0,4242.563965,4536.922852000001,4429.230957,4181.538574,4184.102539,450.0,3.0,73.0,,,,0.0,1.0,0.0,0.0,0.0,0.0,0.0,,,,,,,,,,,,,,,,,,,,,,,,,,,,,,,,,,,,,,,,,,,,,,,,,,,,,,0.0,0.0,32.0,0.058155,1.0,0.0,,,,,,,,,,,,,,,,,,,,,,,,,
16061,1648953218.683507,1648953218.7195141,90.0,0.0,4037.9487299999996,4384.615234000001,4577.94873,4354.871582,4024.102539,450.0,3.0,73.0,,,,0.0,1.0,0.0,0.0,0.0,0.0,0.0,,,,,,,,45.0,0.0,0.503514,-0.120361,0.080078,0.851807,0.30811,-0.013672,-0.982925,0.0023309999999999997,-0.011422,-0.028732,,,,,,,,,,,,,,,,,,,,,,,,,,,,,,,,,,,,,,,,,,,,,,,,,,,,,,,,,,,,,,,,,
16062,1648953218.691322,1648953218.727329,91.0,0.0,4066.1538090000004,4320.0,4369.743652,4400.512695,4156.922852000001,0.0,3.0,73.0,,,,0.0,1.0,0.0,0.0,0.0,0.0,0.0,,,,,,,,,,,,,,,,,,,,,,,,,,,,,,,,,,,,,,,,,,,,,,,,,,,,,,,,,,,,,,,,,,,,,,,,,,,,,,,,,,,,
16063,1648953218.699136,1648953218.735243,92.0,0.0,4293.846191,4480.512695,4149.743652,4354.358886999999,4405.128418,450.0,3.0,73.0,,,,0.0,1.0,0.0,0.0,0.0,0.0,0.0,,,,,,,,46.0,0.0,0.503514,-0.120361,0.080078,0.851807,0.295903,-0.017578,-0.981949,0.002195,-0.011306,-0.031962,,,,,,,,,,,,,,,,,,,,,,,,,,,,,,,,,,,,,,,,,,,,,,,,,,,,,,,,,,,,,,,,,
16064,1648953218.706951,1648953218.743058,93.0,0.0,4517.436035,4561.025879,4044.102539,4478.974121,4475.897461,450.0,3.0,73.0,,,,0.0,1.0,0.0,0.0,0.0,0.0,0.0,,,,,,,,,,,,,,,,,,,,,,,,,,,,,,,,,,,,,,,,,,,,,,,,,,,,,,0.0,0.0,32.0,0.058155,1.0,0.0,,,,,,,,,,,,,,,,,,,,,,,,,
16065,1648953218.714765,1648953218.750873,94.0,0.0,4636.922852000001,4531.794922,3996.923096,4570.769043,4366.153809,450.0,3.0,73.0,,,,0.0,1.0,0.0,0.0,0.0,0.0,0.0,,,,,,,,47.0,0.0,0.503455,-0.12060499999999999,0.080078,0.851807,0.294926,-0.020508000000000002,-0.9790190000000001,0.001927,-0.011152,-0.034821,,,,,,,,,,,,,,,,,,,,,,,,,,,,,,,,,,,,,,,,,,,,,,,,,,,,,,,,,,,,,,,,,
16066,1648953218.7225802,1648953218.758588,95.0,0.0,4558.461426,4557.436035,4042.0512700000004,4382.05127,4270.256348,0.0,3.0,73.0,,,,0.0,1.0,0.0,0.0,0.0,0.0,0.0,,,,,,,,,,,,,,,,,,,,,,,,,,,,,,,,,,,,,,,,,,,,,,,,,,,,,,,,,,,,,,,,,,,,,,,,,,,,,,,,,,,,
16067,1648953218.730394,1648953218.7665029,96.0,0.0,4260.0,4581.025879,4327.179688,4071.794922,4289.743652,450.0,3.0,73.0,,,,0.0,1.0,0.0,0.0,0.0,0.0,0.0,,,,,,,,48.0,0.0,0.503455,-0.12060499999999999,0.080078,0.851807,0.290532,-0.016602000000000002,-0.9799950000000001,0.001686,-0.011208,-0.037344999999999996,,,,,,,,,,,,,,,,,,,,,,,,,,,,,,,,,,,,,,,,,,,,,,,,,,,,,,,,,,,,,,,,,
16068,1648953218.738209,1648953218.7744179,97.0,0.0,4033.8461909999996,4637.436035,4363.077147999999,4032.3076170000004,4414.871582,450.0,3.0,73.0,,,,0.0,1.0,0.0,0.0,0.0,0.0,0.0,,,,,,,,,,,,,,,,,,,,1.0,0.0,0.0,,,,,,,,,,,,,,,,,,,,,,,,,,,,,,,,0.0,0.0,32.0,0.062266999999999996,1.0,0.0,74.85000600000001,394.372192,397.36441,804.7181400000001,88.664505,218.53837599999997,182.274933,112.995499,101.529625,89.878059,401.07568399999997,197.987442,299.011383,253.88214100000002,169.536194,62.05426,451.259003,149.574158,655.658142,85.125252,106.380196,344.02642799999995,221.13938900000002,749.1705929999999,82.866371
16069,1648953218.7460241,1648953218.782233,98.0,0.0,4054.358887,4655.384765999999,4115.897461,4266.153809,4444.615234000001,450.0,3.0,73.0,,,,0.0,1.0,0.0,0.0,0.0,0.0,0.0,,,,,,,,49.0,0.0,0.503455,-0.12060499999999999,0.080078,0.851807,0.298344,-0.0063479999999999995,-0.98146,-0.0016079999999999998,-0.011308,-0.033464,,,,,,,,,,,,,,,,,,,,,,,,,,,,,,,,,,,,,,,,,,,,,,,,,,,,,,,,,,,,,,,,,
16070,1648953218.753838,1648953218.7900472,99.0,0.0,4245.641113000001,4512.820313,4112.307617,4554.358886999999,4498.461426,0.0,3.0,73.0,,,,0.0,1.0,0.0,0.0,0.0,0.0,0.0,,,,,,,,,,,,,,,,,,,,,,,,,,,,,,,,,,,,,,,,,,,,,,,,,,,,,,,,,,,,,,,,,,,,,,,,,,,,,,,,,,,,
16071,1648953218.761653,1648953218.797762,100.0,0.0,4284.615234000001,4572.820313,4231.794922,4419.487305,4488.205078,450.0,3.0,73.0,,,,0.0,1.0,0.0,0.0,0.0,0.0,0.0,,,,,,,,50.0,0.0,0.503455,-0.12060499999999999,0.080078,0.851807,0.301762,-0.028321,-0.9785309999999999,-0.001398,-0.0113,-0.036123,,,,,,,,,,,,,,,,,,,,,,,,,,,,,,,,,,,,,,,,,,,,,,,,,,,,,,,,,,,,,,,,,
16072,1648953218.7694669,1648953218.805577,101.0,0.0,4254.358886999999,4795.384765999999,4171.282227000001,4133.846191,4315.897461,450.0,3.0,73.0,,,,0.0,1.0,0.0,0.0,0.0,0.0,0.0,,,,,,,,,,,,,,,,,,,,,,,,,,,,,,,,,,,,,,,,,,,,,,,,,,,,,,0.0,0.0,32.0,0.062266999999999996,1.0,0.0,,,,,,,,,,,,,,,,,,,,,,,,,
16073,1648953218.777282,1648953218.813292,102.0,0.0,4157.94873,4573.846191,4096.922852000001,4176.410156,4063.5898439999996,450.0,3.0,73.0,,,,0.0,1.0,0.0,0.0,0.0,0.0,0.0,,,,,,,,51.0,0.0,0.503455,-0.12060499999999999,0.080078,0.851807,0.306157,-0.023926,-0.9790190000000001,-0.00121,-0.011342,-0.032218000000000004,,,,,,,,,,,,,,,,,,,,,,,,,,,,,,,,,,,,,,,,,,,,,,,,,,,,,,,,,,,,,,,,,
16074,1648953218.7850962,1648953218.8211071,103.0,0.0,4066.1538090000004,4305.128418,4281.025879,4308.205078,4057.4357909999994,0.0,3.0,73.0,,,,0.0,1.0,0.0,0.0,0.0,0.0,0.0,,,,,,,,,,,,,,,,,,,,,,,,,,,,,,,,,,,,,,,,,,,,,,,,,,,,,,,,,,,,,,,,,,,,,,,,,,,,,,,,,,,,
16075,1648953218.792911,1648953218.8288221,104.0,0.0,4074.8718259999996,4631.282227000001,4426.666504,4175.384765999999,4096.922852000001,450.0,3.0,73.0,,,,0.0,1.0,0.0,0.0,0.0,0.0,0.0,,,,,,,,52.0,0.0,0.503455,-0.12060499999999999,0.080078,0.851807,0.292485,-0.015137000000000001,-0.978042,-0.0011380000000000001,-0.011429,-0.028752,,,,,,,,,,,,,,,,,,,,,,,,,,,,,,,,,,,,,,,,,,,,,,,,,,,,,,,,,,,,,,,,,
16076,1648953218.800725,1648953218.836637,105.0,0.0,4350.256348,4924.615234000001,4383.589844,4148.205078,4081.025635,450.0,3.0,73.0,,,,0.0,1.0,0.0,0.0,0.0,0.0,0.0,,,,,,,,,,,,,,,,,,,,,,,,,,,,,,,,,,,,,,,,,,,,,,,,,,,,,,0.0,0.0,32.0,0.062266999999999996,1.0,0.0,,,,,,,,,,,,,,,,,,,,,,,,,
16077,1648953218.80854,1648953218.844352,106.0,0.0,4564.102539,4698.974121,4258.461426,4455.384765999999,4253.333496,450.0,3.0,73.0,,,,0.0,1.0,0.0,0.0,0.0,0.0,0.0,,,,,,,,53.0,0.0,0.503455,-0.12060499999999999,0.080078,0.851807,0.297856,-0.010742,-0.976577,-0.000877,-0.011458,-0.03198,,,,,,,,,,,,,,,,,,,,,,,,,,,,,,,,,,,,,,,,,,,,,,,,,,,,,,,,,,,,,,,,,
16078,1648953218.8163538,1648953218.852167,107.0,0.0,4526.153809,4476.922852000001,4173.333496,4745.128418,4591.282227000001,0.0,3.0,73.0,,,,0.0,1.0,0.0,0.0,0.0,0.0,0.0,,,,,,,,,,,,,,,,,,,,,,,,,,,,,,,,,,,,,,,,,,,,,,,,,,,,,,,,,,,,,,,,,,,,,,,,,,,,,,,,,,,,
16079,1648953218.824169,1648953218.859882,108.0,0.0,4387.179688,4623.589844,4240.0,4542.563965,4553.333496,450.0,3.0,73.0,,,,0.0,1.0,0.0,0.0,0.0,0.0,0.0,,,,,,,,54.0,0.0,0.503455,-0.12060499999999999,0.080078,0.851807,0.307134,-0.0043950000000000005,-0.972671,-0.000692,-0.011434999999999999,-0.03474,,,,,,,,,,,,,,,,,,,,,,,,,,,,,,,,,,,,,,,,,,,,,,,,,,,,,,,,,,,,,,,,,
16080,1648953218.831983,1648953218.867697,109.0,0.0,4171.282227000001,4695.897461,4343.589844,4100.0,4100.512695,450.0,3.0,73.0,,,,0.0,1.0,0.0,0.0,0.0,0.0,0.0,,,,,,,,,,,,,,,,,,,,,,,,,,,,,,,,,,,,,,,,,,,,,,,,,,,,,,0.0,0.0,32.0,0.062266999999999996,1.0,0.0,,,,,,,,,,,,,,,,,,,,,,,,,
16081,1648953218.839798,1648953218.875412,110.0,0.0,4047.179443,4463.589844,4360.512695,4043.5898439999996,3946.6667479999996,450.0,3.0,73.0,,,,0.0,1.0,0.0,0.0,0.0,0.0,0.0,,,,,,,,55.0,0.0,0.503416,-0.12060499999999999,0.080322,0.851807,0.297856,-0.018555000000000002,-0.976089,-0.0006230000000000001,-0.011415,-0.037369,,,,,,,,,,,,,,,,,,,,,,,,,,,,,,,,,,,,,,,,,,,,,,,,,,,,,,,,,,,,,,,,,
16082,1648953218.847613,1648953218.8832269,111.0,0.0,4079.487061,4438.461426,4363.589844,4140.512695,4258.974121,0.0,3.0,73.0,,,,0.0,1.0,0.0,0.0,0.0,0.0,0.0,,,,,,,,,,,,,,,,,,,,,,,,,,,,,,,,,,,,,,,,,,,,,,,,,,,,,,,,,,,,,,,,,,,,,,,,,,,,,,,,,,,,
16083,1648953218.855427,1648953218.890942,112.0,0.0,4083.076904,4674.871582,4315.897461,4075.897461,4493.333496,450.0,3.0,73.0,,,,0.0,1.0,0.0,0.0,0.0,0.0,0.0,,,,,,,,56.0,0.0,0.503455,-0.12060499999999999,0.080078,0.851807,0.295415,-0.006836,-0.9751129999999999,-0.003588,-0.011396,-0.03329,,,,,,,,,,,,,,,,,,,,,,,,,,,,,,,,,,,,,,,,,,,,,,,,,,,,,,,,,,,,,,,,,
16084,1648953218.863242,1648953218.8988562,113.0,0.0,4055.897461,4656.922852000001,4214.358886999999,4215.897461,4415.384765999999,450.0,3.0,73.0,,,,0.0,1.0,0.0,0.0,0.0,0.0,0.0,,,,,,,,,,,,,,,,,,,,1.0,0.0,0.0,,,,,,,,,,,,,,,,,,,,,,,,,,,,,,,,0.0,0.0,32.0,0.073439,1.0,0.0,79.47649399999999,307.01455699999997,427.138947,844.1492310000001,82.79426600000001,226.81797799999998,169.01400800000002,99.866364,112.75483700000001,80.90140500000001,431.834167,215.21426400000001,314.09405499999997,276.23675499999996,170.402039,42.667347,232.49757400000001,160.19937099999999,708.748352,82.251579,79.479881,216.907227,190.55365,862.765259,77.686996
16085,1648953218.871056,1648953218.906671,114.0,0.0,4193.333496,4497.94873,4222.05127,4554.358886999999,4466.153809,450.0,3.0,73.0,,,,0.0,1.0,0.0,0.0,0.0,0.0,0.0,,,,,,,,57.0,0.0,0.503416,-0.12060499999999999,0.080322,0.851807,0.300298,-0.010254000000000001,-0.9873200000000001,-0.003327,-0.011331,-0.035919,,,,,,,,,,,,,,,,,,,,,,,,,,,,,,,,,,,,,,,,,,,,,,,,,,,,,,,,,,,,,,,,,
16086,1648953218.8788712,1648953218.9145858,115.0,0.0,4390.769043,4672.820313,4290.256348,4469.230957,4545.128418,0.0,3.0,73.0,,,,0.0,1.0,0.0,0.0,0.0,0.0,0.0,,,,,,,,,,,,,,,,,,,,,,,,,,,,,,,,,,,,,,,,,,,,,,,,,,,,,,,,,,,,,,,,,,,,,,,,,,,,,,,,,,,,
16087,1648953218.886685,1648953218.922401,116.0,0.0,4483.077147999999,4791.794922,4208.717772999999,4237.94873,4393.846191,450.0,3.0,73.0,,,,0.0,1.0,0.0,0.0,0.0,0.0,0.0,,,,,,,,58.0,0.0,0.503416,-0.12060499999999999,0.080322,0.851807,0.29395,-0.026856,-0.973648,-0.002945,-0.011271999999999999,-0.038333,,,,,,,,,,,,,,,,,,,,,,,,,,,,,,,,,,,,,,,,,,,,,,,,,,,,,,,,,,,,,,,,,
16088,1648953218.8945,1648953218.930316,117.0,0.0,4257.94873,4518.974121,4060.512939,4235.897461,4114.871582,450.0,3.0,73.0,,,,0.0,1.0,0.0,0.0,0.0,0.0,0.0,,,,,,,,,,,,,,,,,,,,,,,,,,,,,,,,,,,,,,,,,,,,,,,,,,,,,,0.0,0.0,32.0,0.073439,1.0,0.0,,,,,,,,,,,,,,,,,,,,,,,,,
16089,1648953218.9023151,1648953218.938131,118.0,0.0,4018.461426,4404.102539,4191.794922,4260.512695,4017.9487299999996,450.0,3.0,73.0,,,,0.0,1.0,0.0,0.0,0.0,0.0,0.0,,,,,,,,59.0,0.0,0.503416,-0.12060499999999999,0.080322,0.851807,0.295903,-0.014159999999999999,-0.9751129999999999,-0.002651,-0.011268,-0.034255,,,,,,,,,,,,,,,,,,,,,,,,,,,,,,,,,,,,,,,,,,,,,,,,,,,,,,,,,,,,,,,,,
16090,1648953218.9101288,1648953218.945946,119.0,0.0,4081.538574,4557.94873,4522.563965,4083.076904,4100.0,0.0,3.0,73.0,,,,0.0,1.0,0.0,0.0,0.0,0.0,0.0,,,,,,,,,,,,,,,,,,,,,,,,,,,,,,,,,,,,,,,,,,,,,,,,,,,,,,,,,,,,,,,,,,,,,,,,,,,,,,,,,,,,
16091,1648953218.917944,1648953218.953661,120.0,0.0,4384.615234000001,4618.974121,4585.128418,4120.512695,4242.05127,450.0,3.0,73.0,,,,0.0,1.0,0.0,0.0,0.0,0.0,0.0,,,,,,,,60.0,0.0,0.503416,-0.12060499999999999,0.080322,0.851807,0.300298,-0.010254000000000001,-0.9873200000000001,0.000642,-0.011362,-0.036738,,,,,,,,,,,,,,,,,,,,,,,,,,,,,,,,,,,,,,,,,,,,,,,,,,,,,,,,,,,,,,,,,
16092,1648953218.9257581,1648953218.961575,121.0,0.0,4562.563965,4609.230957,4350.769043,4531.282227000001,4397.94873,450.0,3.0,73.0,,,,0.0,1.0,0.0,0.0,0.0,0.0,0.0,,,,,,,,,,,,,,,,,,,,,,,,,,,,,,,,,,,,,,,,,,,,,,,,,,,,,,0.0,0.0,32.0,0.073439,1.0,0.0,,,,,,,,,,,,,,,,,,,,,,,,,
