,Timestamp,OriginalTimestamp,EEG.Counter,EEG.Interpolated,EEG.AF3,EEG.T7,EEG.Pz,EEG.T8,EEG.AF4,EEG.RawCq,EEG.Battery,EEG.BatteryPercent,MarkerIndex,MarkerType,MarkerValueInt,EEG.MarkerHardware,CQ.AF3,CQ.T7,CQ.Pz,CQ.T8,CQ.AF4,CQ.Overall,EQ.SampleRateQuality,EQ.OVERALL,EQ.AF3,EQ.T7,EQ.Pz,EQ.T8,EQ.AF4,MOT.CounterMems,MOT.InterpolatedMems,MOT.Q0,MOT.Q1,MOT.Q2,MOT.Q3,MOT.AccX,MOT.AccY,MOT.AccZ,MOT.MagX,MOT.MagY,MOT.MagZ,MC.Action,MC.ActionPower,MC.IsActive,PM.Engagement.IsActive,PM.Engagement.Scaled,PM.Engagement.Raw,PM.Engagement.Min,PM.Engagement.Max,PM.Excitement.IsActive,PM.Excitement.Scaled,PM.Excitement.Raw,PM.Excitement.Min,PM.Excitement.Max,PM.LongTermExcitement,PM.Stress.IsActive,PM.Stress.Scaled,PM.Stress.Raw,PM.Stress.Min,PM.Stress.Max,PM.Relaxation.IsActive,PM.Relaxation.Scaled,PM.Relaxation.Raw,PM.Relaxation.Min,PM.Relaxation.Max,PM.Interest.IsActive,PM.Interest.Scaled,PM.Interest.Raw,PM.Interest.Min,PM.Interest.Max,PM.Focus.IsActive,PM.Focus.Scaled,PM.Focus.Raw,PM.Focus.Min,PM.Focus.Max,FE.BlinkWink,FE.HorizontalEyesDirection,FE.UpperFaceAction,FE.UpperFaceActionPower,FE.LowerFaceAction,FE.LowerFaceActionPower,POW.AF3.Theta,POW.AF3.Alpha,POW.AF3.BetaL,POW.AF3.BetaH,POW.AF3.Gamma,POW.T7.Theta,POW.T7.Alpha,POW.T7.BetaL,POW.T7.BetaH,POW.T7.Gamma,POW.Pz.Theta,POW.Pz.Alpha,POW.Pz.BetaL,POW.Pz.BetaH,POW.Pz.Gamma,POW.T8.Theta,POW.T8.Alpha,POW.T8.BetaL,POW.T8.BetaH,POW.T8.Gamma,POW.AF4.Theta,POW.AF4.Alpha,POW.AF4.BetaL,POW.AF4.BetaH,POW.AF4.Gamma
23034,1648952784.5623631,1648952784.5868301,89.0,0.0,4418.461426,4421.538574,4004.102539,4217.94873,4558.461426,450.0,3.0,73.0,,,,0.0,0.0,0.0,1.0,0.0,0.0,0.0,,,,,,,,,,,,,,,,,,,,,,,,,,,,,,,,,,,,,,,,,,,,,,,,,,,,,,0.0,0.0,32.0,0.092402,1.0,0.0,,,,,,,,,,,,,,,,,,,,,,,,,
23035,1648952784.5701768,1648952784.594545,90.0,0.0,4646.666504,4565.128418,4262.563965,4353.333496,4402.563965,450.0,3.0,73.0,,,,0.0,0.0,0.0,1.0,0.0,0.0,0.0,,,,,,,,45.0,0.0,0.849657,-0.069092,0.127197,0.50708,0.289067,-0.003906,-0.977554,0.005716,-0.025591,-0.018275,,,,,,,,,,,,,,,,,,,,,,,,,,,,,,,,,,,,,,,,,,,,,,,,,,,,,,,,,,,,,,,,,
23036,1648952784.577992,1648952784.602359,91.0,0.0,4329.230957,4634.358886999999,4294.871582,4210.256348,4249.230957,0.0,3.0,73.0,,,,0.0,0.0,0.0,1.0,0.0,0.0,0.0,,,,,,,,,,,,,,,,,,,,,,,,,,,,,,,,,,,,,,,,,,,,,,,,,,,,,,,,,,,,,,,,,,,,,,,,,,,,,,,,,,,,
23037,1648952784.5858061,1648952784.610074,92.0,0.0,4227.179688,4634.871582,4164.102539,4268.205078,4507.179688,450.0,3.0,73.0,,,,0.0,0.0,0.0,1.0,0.0,0.0,0.0,,,,,,,,46.0,0.0,0.849657,-0.069092,0.127197,0.50708,0.295415,-0.007812999999999999,-0.977066,0.00656,-0.025474,-0.022746000000000002,,,,,,,,,,,,,,,,,,,,,,,,,,,,,,,,,,,,,,,,,,,,,,,,,,,,,,,,,,,,,,,,,
23038,1648952784.593621,1648952784.6178892,93.0,0.0,4542.05127,4592.307617,4357.94873,4460.512695,4491.794922,450.0,3.0,73.0,,,,0.0,0.0,0.0,1.0,0.0,0.0,0.0,,,,,,,,,,,,,,,,,,,,,,,,,,,,,,,,,,,,,,,,,,,,,,,,,,,,,,0.0,0.0,32.0,0.092402,1.0,0.0,,,,,,,,,,,,,,,,,,,,,,,,,
23039,1648952784.601436,1648952784.625603,94.0,0.0,4460.0,4644.102539,4573.846191,4267.179688,4184.615234000001,450.0,3.0,73.0,,,,0.0,0.0,0.0,1.0,0.0,0.0,0.0,,,,,,,,47.0,0.0,0.849657,-0.069092,0.127197,0.50708,0.282231,-0.0058590000000000005,-0.980972,0.007271,-0.025612,-0.026917,,,,,,,,,,,,,,,,,,,,,,,,,,,,,,,,,,,,,,,,,,,,,,,,,,,,,,,,,,,,,,,,,
23040,1648952784.60925,1648952784.633418,95.0,0.0,4115.897461,4656.922852000001,4486.666504,4198.461426,4327.179688,0.0,3.0,73.0,,,,0.0,0.0,0.0,1.0,0.0,0.0,0.0,,,,,,,,,,,,,,,,,,,,,,,,,,,,,,,,,,,,,,,,,,,,,,,,,,,,,,,,,,,,,,,,,,,,,,,,,,,,,,,,,,,,
23041,1648952784.617065,1648952784.641133,96.0,0.0,4216.410156,4598.974121,4249.230957,4591.794922,4551.282227000001,450.0,3.0,73.0,,,,0.0,0.0,0.0,1.0,0.0,0.0,0.0,,,,,,,,48.0,0.0,0.849657,-0.069092,0.127197,0.50708,0.299321,-0.00293,-0.9834129999999999,0.004835,-0.025639,-0.020954,,,,,,,,,,,,,,,,,,,,,,,,,,,,,,,,,,,,,,,,,,,,,,,,,,,,,,,,,,,,,,,,,
23042,1648952784.624879,1648952784.648848,97.0,0.0,4437.94873,4689.743652,4098.974121,4610.256348,4327.179688,450.0,3.0,73.0,,,,0.0,0.0,0.0,1.0,0.0,0.0,0.0,,,,,,,,,,,,,,,,,,,,1.0,0.0,0.0,,,,,,,,,,,,,,,,,,,,,,,,,,,,,,,,0.0,0.0,32.0,0.096323,1.0,0.0,29.248070000000002,53.355576,33.716824,79.843544,302.447906,116.344269,47.202763,29.947401,73.003807,161.261765,319.857727,57.274502000000005,168.739441,278.374146,92.295105,56.857075,46.879028000000005,53.509747,89.440437,431.91650400000003,17.092722,30.421765999999998,68.24945100000001,73.44830300000001,317.10882599999997
23043,1648952784.632694,1648952784.656662,98.0,0.0,4362.05127,4692.820313,4080.512939,4088.718018,4242.05127,450.0,3.0,73.0,,,,0.0,0.0,0.0,1.0,0.0,0.0,0.0,,,,,,,,49.0,0.0,0.849657,-0.069092,0.127197,0.50708,0.292485,-0.015137000000000001,-0.975601,0.00733,-0.025613999999999998,-0.025304,,,,,,,,,,,,,,,,,,,,,,,,,,,,,,,,,,,,,,,,,,,,,,,,,,,,,,,,,,,,,,,,,
23044,1648952784.640508,1648952784.664377,99.0,0.0,4415.384765999999,4541.025879,4101.025879,4157.436035,4516.922852000001,0.0,3.0,73.0,,,,0.0,0.0,0.0,1.0,0.0,0.0,0.0,,,,,,,,,,,,,,,,,,,,,,,,,,,,,,,,,,,,,,,,,,,,,,,,,,,,,,,,,,,,,,,,,,,,,,,,,,,,,,,,,,,,
23045,1648952784.648323,1648952784.672192,100.0,0.0,4508.717772999999,4493.333496,4138.461426,4567.692383,4442.563965,450.0,3.0,73.0,,,,0.0,0.0,0.0,1.0,0.0,0.0,0.0,,,,,,,,50.0,0.0,0.849657,-0.069092,0.127197,0.50708,0.290532,-0.010742,-0.973648,0.008013,-0.025543,-0.029219,,,,,,,,,,,,,,,,,,,,,,,,,,,,,,,,,,,,,,,,,,,,,,,,,,,,,,,,,,,,,,,,,
23046,1648952784.656137,1648952784.6799061,101.0,0.0,4356.922852000001,4413.333496,4287.692383,4320.512695,4171.794922,450.0,3.0,73.0,,,,0.0,0.0,0.0,1.0,0.0,0.0,0.0,,,,,,,,,,,,,,,,,,,,,,,,,,,,,,,,,,,,,,,,,,,,,,,,,,,,,,0.0,0.0,32.0,0.096323,1.0,0.0,,,,,,,,,,,,,,,,,,,,,,,,,
23047,1648952784.6639519,1648952784.687721,102.0,0.0,4186.666504,4354.871582,4280.0,4056.923096,4307.692383,450.0,3.0,73.0,,,,0.0,0.0,0.0,1.0,0.0,0.0,0.0,,,,,,,,51.0,0.0,0.849657,-0.069092,0.127197,0.50708,0.290044,-0.019043,-0.9990389999999999,0.0055520000000000005,-0.025478999999999998,-0.023074,,,,,,,,,,,,,,,,,,,,,,,,,,,,,,,,,,,,,,,,,,,,,,,,,,,,,,,,,,,,,,,,,
23048,1648952784.671766,1648952784.695436,103.0,0.0,4335.384765999999,4595.384765999999,4066.1538090000004,4442.05127,4558.974121,0.0,3.0,73.0,,,,0.0,0.0,0.0,1.0,0.0,0.0,0.0,,,,,,,,,,,,,,,,,,,,,,,,,,,,,,,,,,,,,,,,,,,,,,,,,,,,,,,,,,,,,,,,,,,,,,,,,,,,,,,,,,,,
23049,1648952784.6795812,1648952784.70325,104.0,0.0,4337.436035,4697.436035,4110.769043,4526.666504,4310.256348,450.0,3.0,73.0,,,,0.0,0.0,0.0,1.0,0.0,0.0,0.0,,,,,,,,52.0,0.0,0.849657,-0.069092,0.127197,0.50708,0.29102,-0.011719,-0.987808,0.0032869999999999996,-0.02547,-0.017544,,,,,,,,,,,,,,,,,,,,,,,,,,,,,,,,,,,,,,,,,,,,,,,,,,,,,,,,,,,,,,,,,
23050,1648952784.6873949,1648952784.711065,105.0,0.0,4205.641113000001,4469.230957,4022.5642090000006,4237.436035,4308.205078,450.0,3.0,73.0,,,,0.0,0.0,0.0,1.0,0.0,0.0,0.0,,,,,,,,,,,,,,,,,,,,,,,,,,,,,,,,,,,,,,,,,,,,,,,,,,,,,,0.0,0.0,32.0,0.096323,1.0,0.0,,,,,,,,,,,,,,,,,,,,,,,,,
23051,1648952784.69521,1648952784.71878,106.0,0.0,4468.205078,4405.128418,3984.102539,4276.410156,4576.922852000001,450.0,3.0,73.0,,,,0.0,0.0,0.0,1.0,0.0,0.0,0.0,,,,,,,,53.0,0.0,0.84962,-0.069092,0.127441,0.50708,0.303227,-0.001953,-0.9741360000000001,0.004472,-0.025462000000000002,-0.022088999999999998,,,,,,,,,,,,,,,,,,,,,,,,,,,,,,,,,,,,,,,,,,,,,,,,,,,,,,,,,,,,,,,,,
23052,1648952784.703025,1648952784.7264938,107.0,0.0,4703.077147999999,4549.743652,4278.974121,4409.230957,4346.153809,0.0,3.0,73.0,,,,0.0,0.0,0.0,1.0,0.0,0.0,0.0,,,,,,,,,,,,,,,,,,,,,,,,,,,,,,,,,,,,,,,,,,,,,,,,,,,,,,,,,,,,,,,,,,,,,,,,,,,,,,,,,,,,
23053,1648952784.710839,1648952784.734309,108.0,0.0,4366.666504,4650.256348,4349.230957,4216.922852000001,4164.102539,450.0,3.0,73.0,,,,0.0,0.0,0.0,1.0,0.0,0.0,0.0,,,,,,,,54.0,0.0,0.84962,-0.069092,0.127441,0.50708,0.290532,-0.007812999999999999,-0.9746239999999999,0.005392,-0.025455000000000002,-0.013775999999999998,,,,,,,,,,,,,,,,,,,,,,,,,,,,,,,,,,,,,,,,,,,,,,,,,,,,,,,,,,,,,,,,,
23054,1648952784.718654,1648952784.742024,109.0,0.0,4210.769043,4592.820313,4080.512939,4255.384765999999,4510.256348,450.0,3.0,73.0,,,,0.0,0.0,0.0,1.0,0.0,0.0,0.0,,,,,,,,,,,,,,,,,,,,,,,,,,,,,,,,,,,,,,,,,,,,,,,,,,,,,,0.0,0.0,32.0,0.096323,1.0,0.0,,,,,,,,,,,,,,,,,,,,,,,,,
23055,1648952784.726468,1648952784.749838,110.0,0.0,4524.615234000001,4554.358886999999,4108.717772999999,4437.436035,4515.897461,450.0,3.0,73.0,,,,0.0,0.0,0.0,1.0,0.0,0.0,0.0,,,,,,,,55.0,0.0,0.84964,-0.068848,0.127441,0.50708,0.299321,-0.021973,-0.980972,0.006367,-0.025449,-0.018697,,,,,,,,,,,,,,,,,,,,,,,,,,,,,,,,,,,,,,,,,,,,,,,,,,,,,,,,,,,,,,,,,
23056,1648952784.734283,1648952784.7575529,111.0,0.0,4522.563965,4648.205078,4414.871582,4238.461426,4205.128418,0.0,3.0,73.0,,,,0.0,0.0,0.0,1.0,0.0,0.0,0.0,,,,,,,,,,,,,,,,,,,,,,,,,,,,,,,,,,,,,,,,,,,,,,,,,,,,,,,,,,,,,,,,,,,,,,,,,,,,,,,,,,,,
23057,1648952784.742098,1648952784.765368,112.0,0.0,4174.871582,4710.769043,4486.666504,4260.512695,4378.974121,450.0,3.0,73.0,,,,0.0,0.0,0.0,1.0,0.0,0.0,0.0,,,,,,,,56.0,0.0,0.84964,-0.068848,0.127441,0.50708,0.288579,-0.020996,-0.983902,0.003924,-0.025443,-0.013654,,,,,,,,,,,,,,,,,,,,,,,,,,,,,,,,,,,,,,,,,,,,,,,,,,,,,,,,,,,,,,,,,
23058,1648952784.749912,1648952784.773083,113.0,0.0,4137.94873,4714.358886999999,4283.589844,4611.282227000001,4529.230957,450.0,3.0,73.0,,,,0.0,0.0,0.0,1.0,0.0,0.0,0.0,,,,,,,,,,,,,,,,,,,,1.0,0.0,0.0,,,,,,,,,,,,,,,,,,,,,,,,,,,,,,,,0.0,0.0,32.0,0.10661500000000002,1.0,0.0,26.809862,48.790184,37.282589,86.311424,300.059906,149.052078,48.308479,24.574966,75.840485,164.786499,326.933044,51.877697,156.055939,287.479248,98.33854699999999,66.98606099999999,51.556007,55.883312,84.195259,443.06399500000003,17.434143,31.356848,57.15628100000001,70.529724,331.12088
23059,1648952784.757727,1648952784.7808971,114.0,0.0,4283.589844,4575.384765999999,4214.358886999999,4485.128418,4307.692383,450.0,3.0,73.0,,,,0.0,0.0,0.0,1.0,0.0,0.0,0.0,,,,,,,,57.0,0.0,0.84964,-0.068848,0.127441,0.50708,0.282719,-0.010254000000000001,-0.9785309999999999,0.006559000000000001,-0.025438,-0.018636,,,,,,,,,,,,,,,,,,,,,,,,,,,,,,,,,,,,,,,,,,,,,,,,,,,,,,,,,,,,,,,,,
23060,1648952784.765541,1648952784.788612,115.0,0.0,4219.487305,4451.794922,4221.025879,4156.922852000001,4368.205078,0.0,3.0,73.0,,,,0.0,0.0,0.0,1.0,0.0,0.0,0.0,,,,,,,,,,,,,,,,,,,,,,,,,,,,,,,,,,,,,,,,,,,,,,,,,,,,,,,,,,,,,,,,,,,,,,,,,,,,,,,,,,,,
23061,1648952784.773356,1648952784.796427,116.0,0.0,4296.410156,4591.794922,4038.974365,4416.922852000001,4594.871582,450.0,3.0,73.0,,,,0.0,0.0,0.0,1.0,0.0,0.0,0.0,,,,,,,,58.0,0.0,0.84964,-0.068848,0.127441,0.50708,0.295903,-0.011231,-0.9824370000000001,0.007368,-0.025433,-0.023218,,,,,,,,,,,,,,,,,,,,,,,,,,,,,,,,,,,,,,,,,,,,,,,,,,,,,,,,,,,,,,,,,
23062,1648952784.78117,1648952784.804141,117.0,0.0,4402.05127,4601.538574,3997.4357909999994,4543.077147999999,4389.230957,450.0,3.0,73.0,,,,0.0,0.0,0.0,1.0,0.0,0.0,0.0,,,,,,,,,,,,,,,,,,,,,,,,,,,,,,,,,,,,,,,,,,,,,,,,,,,,,,0.0,0.0,32.0,0.10661500000000002,1.0,0.0,,,,,,,,,,,,,,,,,,,,,,,,,
23063,1648952784.788985,1648952784.8119562,118.0,0.0,4276.410156,4371.794922,4104.615234000001,4197.436035,4349.743652,450.0,3.0,73.0,,,,0.0,0.0,0.0,1.0,0.0,0.0,0.0,,,,,,,,59.0,0.0,0.849786,-0.068848,0.127441,0.506836,0.290532,-0.004883,-0.9785309999999999,0.007998,-0.025429,-0.027342,,,,,,,,,,,,,,,,,,,,,,,,,,,,,,,,,,,,,,,,,,,,,,,,,,,,,,,,,,,,,,,,,
23064,1648952784.796799,1648952784.8196712,119.0,0.0,4319.487305,4448.717772999999,4062.0512700000004,4158.974121,4578.974121,0.0,3.0,73.0,,,,0.0,0.0,0.0,1.0,0.0,0.0,0.0,,,,,,,,,,,,,,,,,,,,,,,,,,,,,,,,,,,,,,,,,,,,,,,,,,,,,,,,,,,,,,,,,,,,,,,,,,,,,,,,,,,,
23065,1648952784.804614,1648952784.827385,120.0,0.0,4610.256348,4651.282227000001,4059.487061,4443.077147999999,4469.230957,450.0,3.0,73.0,,,,0.0,0.0,0.0,1.0,0.0,0.0,0.0,,,,,,,,60.0,0.0,0.849822,-0.068848,0.127197,0.506836,0.285649,-0.016602000000000002,-0.973159,0.005294,-0.025376,-0.021384999999999998,,,,,,,,,,,,,,,,,,,,,,,,,,,,,,,,,,,,,,,,,,,,,,,,,,,,,,,,,,,,,,,,,
23066,1648952784.812428,1648952784.8352,121.0,0.0,4476.922852000001,4650.256348,4313.846191,4322.563965,4131.282227000001,450.0,3.0,73.0,,,,0.0,0.0,0.0,1.0,0.0,0.0,0.0,,,,,,,,,,,,,,,,,,,,,,,,,,,,,,,,,,,,,,,,,,,,,,,,,,,,,,0.0,0.0,32.0,0.10661500000000002,1.0,0.0,,,,,,,,,,,,,,,,,,,,,,,,,
23067,1648952784.820243,1648952784.842915,122.0,0.0,4240.0,4646.153809,4352.307617,4262.563965,4262.563965,450.0,3.0,73.0,,,,0.0,0.0,0.0,1.0,0.0,0.0,0.0,,,,,,,,61.0,0.0,0.84964,-0.068848,0.127441,0.50708,0.29395,-0.018555000000000002,-0.9824370000000001,0.006229,-0.02528,-0.025544999999999998,,,,,,,,,,,,,,,,,,,,,,,,,,,,,,,,,,,,,,,,,,,,,,,,,,,,,,,,,,,,,,,,,
23068,1648952784.828057,1648952784.8507302,123.0,0.0,4430.256348,4603.077147999999,4269.743652,4496.410156,4422.563965,0.0,3.0,73.0,,,,0.0,0.0,0.0,1.0,0.0,0.0,0.0,,,,,,,,,,,,,,,,,,,,,,,,,,,,,,,,,,,,,,,,,,,,,,,,,,,,,,,,,,,,,,,,,,,,,,,,,,,,,,,,,,,,
23069,1648952784.8358722,1648952784.858444,124.0,0.0,4481.025879,4570.256348,4305.128418,4424.102539,4188.205078,450.0,3.0,73.0,,,,0.0,0.0,0.0,1.0,0.0,0.0,0.0,,,,,,,,62.0,0.0,0.84964,-0.068848,0.127441,0.50708,0.287602,-0.014649,-0.991226,0.007022,-0.025389,-0.029192000000000003,,,,,,,,,,,,,,,,,,,,,,,,,,,,,,,,,,,,,,,,,,,,,,,,,,,,,,,,,,,,,,,,,
23070,1648952784.8436859,1648952784.866259,125.0,0.0,4164.102539,4730.769043,4261.538574,4098.974121,4236.922852000001,450.0,3.0,73.0,,,,0.0,0.0,0.0,1.0,0.0,0.0,0.0,,,,,,,,,,,,,,,,,,,,,,,,,,,,,,,,,,,,,,,,,,,,,,,,,,,,,,0.0,0.0,32.0,0.10661500000000002,1.0,0.0,,,,,,,,,,,,,,,,,,,,,,,,,
23071,1648952784.851501,1648952784.873974,126.0,0.0,4231.794922,4685.641113000001,4192.820313,4204.102539,4621.025879,450.0,3.0,73.0,,,,0.0,0.0,0.0,1.0,0.0,0.0,0.0,,,,,,,,63.0,0.0,0.849677,-0.068848,0.127197,0.50708,0.292973,-0.016602000000000002,-0.98146,0.007883,-0.025487,-0.020169,,,,,,,,,,,,,,,,,,,,,,,,,,,,,,,,,,,,,,,,,,,,,,,,,,,,,,,,,,,,,,,,,
23072,1648952784.859316,1648952784.881788,127.0,0.0,4555.897461,4494.871582,4288.205078,4529.230957,4544.102539,238.0,3.0,73.0,,,,0.0,0.0,0.0,1.0,0.0,0.0,0.0,,,,,,,,,,,,,,,,,,,,,,,,,,,,,,,,,,,,,,,,,,,,,,,,,,,,,,,,,,,,,,,,,,,,,,,,,,,,,,,,,,,,
23073,1648952784.86713,1648952784.889503,0.0,0.0,4430.256348,4654.871582,4441.538574,4398.974121,4101.538574,450.0,3.0,73.0,,,,0.0,0.0,0.0,1.0,0.0,0.0,0.0,,,,,,,,0.0,0.0,0.84964,-0.068848,0.127441,0.50708,0.294926,-0.014159999999999999,-0.9741360000000001,0.007045999999999999,-0.025379,-0.014832,,,,,,,,,,,,,,,,,,,,,,,,,,,,,,,,,,,,,,,,,,,,,,,,,,,,,,,,,,,,,,,,,
23074,1648952784.874945,1648952784.897318,1.0,0.0,4155.384765999999,4734.871582,4505.128418,4145.128418,4244.102539,450.0,3.0,73.0,,,,0.0,0.0,0.0,1.0,0.0,0.0,0.0,1.0,0.0,0.0,0.0,0.0,0.0,0.0,,,,,,,,,,,,,1.0,0.0,0.0,,,,,,,,,,,,,,,,,,,,,,,,,,,,,,,,0.0,0.0,32.0,0.11113800000000001,1.0,0.0,28.569412,45.063590999999995,43.290863,92.363945,297.01001,184.734802,48.081196000000006,21.418160999999998,78.696373,163.077179,333.770844,49.72472,135.665848,298.86621099999996,104.938515,78.153061,54.639221,58.119719999999994,81.120377,450.639801,18.919476,31.4937,46.560879,69.67276,342.746277
23075,1648952784.882759,1648952784.905132,2.0,0.0,4350.256348,4486.153809,4388.717772999999,4239.487305,4694.871582,0.0,3.0,73.0,,,,0.0,0.0,0.0,1.0,0.0,0.0,0.0,,,,,,,,1.0,0.0,0.84964,-0.068848,0.127441,0.50708,0.287602,-0.014649,-0.991226,0.004582999999999999,-0.025332,-0.010175,,,,,,,,,,,,,,,,,,,,,,,,,,,,,,,,,,,,,,,,,,,,,,,,,,,,,,,,,,,,,,,,,
23076,1648952784.890574,1648952784.912847,3.0,0.0,4608.717772999999,4454.871582,4136.410156,4405.641113000001,4477.94873,450.0,3.0,73.0,,,,0.0,0.0,0.0,1.0,0.0,0.0,0.0,,,,,,,,,,,,,,,,,,,,,,,,,,,,,,,,,,,,,,,,,,,,,,,,,,,,,,,,,,,,,,,,,,,,,,,,,,,,,,,,,,,,
23077,1648952784.898389,1648952784.920562,4.0,0.0,4403.077147999999,4591.794922,4013.3332520000004,4212.307617,4130.769043,1.0,3.0,73.0,,,,0.0,0.0,0.0,1.0,0.0,0.0,0.0,,,,,,,,2.0,0.0,0.84964,-0.068848,0.127441,0.50708,0.294926,-0.014159999999999999,-0.9741360000000001,0.004076,-0.025240000000000002,-0.005837,,,,,,,,,,,,,,,,,,,,,,,,,,,,,,,,,,,,,,,,,,,,,,,,,,,,,,,,,,,,,,,,,
23078,1648952784.906203,1648952784.928376,5.0,0.0,4372.307617,4533.846191,4202.563965,4151.282227000001,4425.641113000001,450.0,3.0,73.0,,,,0.0,0.0,0.0,1.0,0.0,0.0,0.0,,,,,,,,,,,,,,,,,,,,,,,,,,,,,,,,,,,,,,,,,,,,,,,,,,,,,,0.0,0.0,32.0,0.11113800000000001,1.0,0.0,,,,,,,,,,,,,,,,,,,,,,,,,
23079,1648952784.914018,1648952784.936091,6.0,0.0,4546.153809,4552.820313,4302.563965,4397.436035,4546.153809,0.0,3.0,73.0,,,,0.0,0.0,0.0,0.0,0.0,0.0,0.0,,,,,,,,3.0,0.0,0.84964,-0.068848,0.127441,0.50708,0.290532,-0.007324,-0.9702299999999999,0.0065980000000000006,-0.025255,-0.011503,,,,,,,,,,,,,,,,,,,,,,,,,,,,,,,,,,,,,,,,,,,,,,,,,,,,,,,,,,,,,,,,,
23080,1648952784.921832,1648952784.943906,7.0,0.0,4432.307617,4728.717772999999,4188.205078,4295.897461,4208.205078,450.0,3.0,73.0,,,,0.0,0.0,0.0,0.0,0.0,0.0,0.0,,,,,,,,,,,,,,,,,,,,,,,,,,,,,,,,,,,,,,,,,,,,,,,,,,,,,,,,,,,,,,,,,,,,,,,,,,,,,,,,,,,,
23081,1648952784.929647,1648952784.9516199,8.0,0.0,4142.05127,4566.153809,4321.025879,3989.743652,4265.641113000001,450.0,3.0,73.0,,,,0.0,0.0,0.0,0.0,0.0,0.0,0.0,,,,,,,,4.0,0.0,0.84964,-0.068848,0.127441,0.50708,0.300786,-0.008789,-0.98439,0.007354,-0.025171000000000002,-0.016603,,,,,,,,,,,,,,,,,,,,,,,,,,,,,,,,,,,,,,,,,,,,,,,,,,,,,,,,,,,,,,,,,
23082,1648952784.937461,1648952784.959435,9.0,0.0,4314.871582,4356.922852000001,4260.512695,4261.025879,4660.0,0.0,3.0,73.0,,,,0.0,0.0,0.0,0.0,0.0,0.0,0.0,,,,,,,,,,,,,,,,,,,,,,,,,,,,,,,,,,,,,,,,,,,,,,,,,,,,,,0.0,0.0,32.0,0.11113800000000001,1.0,0.0,,,,,,,,,,,,,,,,,,,,,,,,,
23083,1648952784.945276,1648952784.96725,10.0,0.0,4626.666504,4573.333496,3973.8461909999996,4463.077147999999,4480.512695,450.0,3.0,73.0,,,,0.0,0.0,0.0,0.0,0.0,0.0,0.0,,,,,,,,5.0,0.0,0.849822,-0.068848,0.127197,0.506836,0.289555,0.0,-0.98439,0.004959000000000001,-0.025047,-0.01172,,,,,,,,,,,,,,,,,,,,,,,,,,,,,,,,,,,,,,,,,,,,,,,,,,,,,,,,,,,,,,,,,
23084,1648952784.95309,1648952784.9749641,11.0,0.0,4430.256348,4609.743652,4092.820557,4110.769043,4201.025879,11.0,3.0,73.0,,,,0.0,0.0,0.0,0.0,0.0,0.0,0.0,,,,,,,,,,,,,,,,,,,,,,,,,,,,,,,,,,,,,,,,,,,,,,,,,,,,,,,,,,,,,,,,,,,,,,,,,,,,,,,,,,,,
23085,1648952784.960905,1648952784.9827788,12.0,0.0,4112.820313,4412.307617,4408.717772999999,4146.666504,4358.461426,450.0,3.0,73.0,,,,0.0,0.0,0.0,0.0,0.0,0.0,0.0,,,,,,,,6.0,0.0,0.849677,-0.068848,0.127197,0.50708,0.289067,-0.01709,-0.981949,0.00583,-0.025081,-0.017041999999999998,,,,,,,,,,,,,,,,,,,,,,,,,,,,,,,,,,,,,,,,,,,,,,,,,,,,,,,,,,,,,,,,,
23086,1648952784.968719,1648952784.990493,13.0,0.0,4308.205078,4511.282227000001,4245.128418,4633.333496,4485.128418,450.0,3.0,73.0,,,,0.0,0.0,0.0,0.0,0.0,0.0,0.0,,,,,,,,,,,,,,,,,,,,,,,,,,,,,,,,,,,,,,,,,,,,,,,,,,,,,,0.0,0.0,32.0,0.11113800000000001,1.0,0.0,,,,,,,,,,,,,,,,,,,,,,,,,
23087,1648952784.976534,1648952784.998308,14.0,0.0,4390.256348,4611.282227000001,4121.025879,4498.461426,4296.922852000001,450.0,3.0,73.0,,,,0.0,0.0,0.0,0.0,0.0,0.0,0.0,,,,,,,,7.0,0.0,0.849677,-0.068848,0.127197,0.50708,0.29443800000000003,-0.002441,-0.9897610000000001,0.005101,-0.025063,-0.021735,,,,,,,,,,,,,,,,,,,,,,,,,,,,,,,,,,,,,,,,,,,,,,,,,,,,,,,,,,,,,,,,,
23088,1648952784.984348,1648952785.006123,15.0,0.0,4045.1281740000004,4520.0,4177.94873,4189.230957,4311.794922,11.0,3.0,73.0,,,,0.0,0.0,0.0,0.0,0.0,0.0,0.0,,,,,,,,,,,,,,,,,,,,,,,,,,,,,,,,,,,,,,,,,,,,,,,,,,,,,,,,,,,,,,,,,,,,,,,,,,,,,,,,,,,,
23089,1648952784.9921632,1648952785.0138369,16.0,0.0,4189.230957,4538.974121,4045.1281740000004,4467.179688,4548.205078,0.0,3.0,73.0,,,,0.0,0.0,0.0,0.0,0.0,0.0,0.0,,,,,,,,8.0,0.0,0.849677,-0.068848,0.127197,0.50708,0.29639099999999996,-0.007324,-0.976089,0.006007,-0.025096,-0.025908999999999998,,,,,,,,,,,,,,,,,,,,,,,,,,,,,,,,,,,,,,,,,,,,,,,,,,,,,,,,,,,,,,,,,
23090,1648952784.9999769,1648952785.021652,17.0,0.0,4528.205078,4525.641113000001,3982.0512700000004,4492.820313,4412.820313,0.0,3.0,73.0,,,,0.0,0.0,0.0,0.0,0.0,0.0,0.0,,,,,,,,,,,,,,,,,,,,1.0,0.0,0.0,,,,,,,,,,,,,,,,,,,,,,,,,,,,,,,,0.0,0.0,32.0,0.11193,1.0,0.0,33.729411999999996,44.213146,53.642573999999996,96.492836,294.439301,217.86785899999998,47.258259,20.69347,80.785675,155.04273999999998,337.08139,53.943695,119.33568600000001,311.287964,110.284821,86.79570799999999,54.923683,62.064620999999995,79.14924599999999,453.559937,20.430305,30.839342,39.156566999999995,69.93293,349.126404
23091,1648952785.007792,1648952785.029367,18.0,0.0,4237.94873,4405.128418,4039.487061,4053.3332520000004,4325.641113000001,0.0,3.0,73.0,,,,0.0,0.0,0.0,0.0,0.0,0.0,0.0,,,,,,,,9.0,0.0,0.849677,-0.068848,0.127197,0.50708,0.29395,-0.015625,-0.980972,0.006773,-0.025125,-0.017166,,,,,,,,,,,,,,,,,,,,,,,,,,,,,,,,,,,,,,,,,,,,,,,,,,,,,,,,,,,,,,,,,
23092,1648952785.015607,1648952785.037081,19.0,0.0,4109.230957,4482.563965,4080.0,4096.410156,4538.461426,0.0,3.0,73.0,,,,0.0,0.0,0.0,0.0,0.0,0.0,0.0,,,,,,,,,,,,,,,,,,,,,,,,,,,,,,,,,,,,,,,,,,,,,,,,,,,,,,,,,,,,,,,,,,,,,,,,,,,,,,,,,,,,
23093,1648952785.023421,1648952785.0448961,20.0,0.0,4516.410156,4660.0,4200.0,4511.282227000001,4479.487305,0.0,3.0,73.0,,,,0.0,0.0,0.0,0.0,0.0,0.0,0.0,,,,,,,,10.0,0.0,0.849677,-0.068848,0.127197,0.50708,0.297856,-0.006836,-0.982925,0.009123000000000001,-0.02525,-0.021748,,,,,,,,,,,,,,,,,,,,,,,,,,,,,,,,,,,,,,,,,,,,,,,,,,,,,,,,,,,,,,,,,
23094,1648952785.031236,1648952785.0526109,21.0,0.0,4506.153809,4737.94873,4370.769043,4390.256348,4110.769043,0.0,3.0,73.0,,,,0.0,0.0,0.0,0.0,0.0,0.0,0.0,,,,,,,,,,,,,,,,,,,,,,,,,,,,,,,,,,,,,,,,,,,,,,,,,,,,,,0.0,0.0,32.0,0.11193,1.0,0.0,,,,,,,,,,,,,,,,,,,,,,,,,
23095,1648952785.03905,1648952785.060425,22.0,0.0,4268.205078,4641.025879,4432.820313,4242.563965,4200.0,0.0,3.0,73.0,,,,0.0,0.0,0.0,0.0,0.0,0.0,0.0,,,,,,,,11.0,0.0,0.849677,-0.068848,0.127197,0.50708,0.295903,-0.015625,-0.9785309999999999,0.009627,-0.025263999999999998,-0.025921,,,,,,,,,,,,,,,,,,,,,,,,,,,,,,,,,,,,,,,,,,,,,,,,,,,,,,,,,,,,,,,,,
23096,1648952785.046865,1648952785.06814,23.0,0.0,4363.077147999999,4472.820313,4453.846191,4325.641113000001,4461.538574,0.0,3.0,73.0,,,,0.0,0.0,0.0,0.0,0.0,0.0,0.0,,,,,,,,,,,,,,,,,,,,,,,,,,,,,,,,,,,,,,,,,,,,,,,,,,,,,,,,,,,,,,,,,,,,,,,,,,,,,,,,,,,,
23097,1648952785.05468,1648952785.0759552,24.0,0.0,4421.025879,4633.333496,4354.871582,4248.717772999999,4347.179688,0.0,3.0,73.0,,,,0.0,0.0,0.0,0.0,0.0,0.0,0.0,,,,,,,,12.0,0.0,0.849677,-0.068848,0.127197,0.50708,0.314458,-0.007812999999999999,-0.981949,0.011643,-0.025228,-0.029774000000000002,,,,,,,,,,,,,,,,,,,,,,,,,,,,,,,,,,,,,,,,,,,,,,,,,,,,,,,,,,,,,,,,,
23098,1648952785.062494,1648952785.083669,25.0,0.0,4187.692383,4861.025879,4193.333496,4102.05127,4321.025879,0.0,3.0,73.0,,,,0.0,0.0,0.0,0.0,0.0,0.0,0.0,,,,,,,,,,,,,,,,,,,,,,,,,,,,,,,,,,,,,,,,,,,,,,,,,,,,,,0.0,0.0,32.0,0.11193,1.0,0.0,,,,,,,,,,,,,,,,,,,,,,,,,
23099,1648952785.070309,1648952785.091484,26.0,0.0,4294.358886999999,4623.589844,4111.282227000001,4280.0,4582.563965,0.0,3.0,73.0,,,,0.0,0.0,0.0,0.0,0.0,0.0,0.0,,,,,,,,13.0,0.0,0.849822,-0.068848,0.127197,0.506836,0.29736799999999997,-0.007324,-0.9746239999999999,0.008818000000000001,-0.025146,-0.023574,,,,,,,,,,,,,,,,,,,,,,,,,,,,,,,,,,,,,,,,,,,,,,,,,,,,,,,,,,,,,,,,,
23100,1648952785.078123,1648952785.099199,27.0,0.0,4575.897461,4424.102539,4131.282227000001,4370.256348,4515.897461,0.0,3.0,73.0,,,,0.0,0.0,0.0,0.0,0.0,0.0,0.0,,,,,,,,,,,,,,,,,,,,,,,,,,,,,,,,,,,,,,,,,,,,,,,,,,,,,,,,,,,,,,,,,,,,,,,,,,,,,,,,,,,,
23101,1648952785.085938,1648952785.1070142,28.0,0.0,4444.102539,4635.384765999999,4312.820313,4107.179688,4231.282227000001,0.0,3.0,73.0,,,,0.0,0.0,0.0,0.0,0.0,0.0,0.0,,,,,,,,14.0,0.0,0.849822,-0.068848,0.127197,0.506836,0.282719,-0.018067,-0.976577,0.009353,-0.025122,-0.017945,,,,,,,,,,,,,,,,,,,,,,,,,,,,,,,,,,,,,,,,,,,,,,,,,,,,,,,,,,,,,,,,,
23102,1648952785.093752,1648952785.114728,29.0,0.0,4103.077147999999,4675.897461,4477.94873,4172.307617,4309.743652,0.0,3.0,73.0,,,,0.0,0.0,0.0,0.0,0.0,0.0,0.0,,,,,,,,,,,,,,,,,,,,,,,,,,,,,,,,,,,,,,,,,,,,,,,,,,,,,,0.0,0.0,32.0,0.11193,1.0,0.0,,,,,,,,,,,,,,,,,,,,,,,,,
23103,1648952785.101567,1648952785.1225429,30.0,0.0,4236.410156,4574.358886999999,4195.384765999999,4621.538574,4509.743652,0.0,3.0,73.0,,,,0.0,0.0,0.0,0.0,0.0,0.0,0.0,,,,,,,,15.0,0.0,0.849822,-0.068848,0.127197,0.506836,0.291508,-0.004883,-0.980972,0.008320000000000001,-0.025197999999999998,-0.025379,,,,,,,,,,,,,,,,,,,,,,,,,,,,,,,,,,,,,,,,,,,,,,,,,,,,,,,,,,,,,,,,,
23104,1648952785.109381,1648952785.130258,31.0,0.0,4538.974121,4691.282227000001,4004.102539,4573.846191,4318.461426,0.0,3.0,73.0,,,,0.0,0.0,0.0,0.0,0.0,0.0,0.0,,,,,,,,,,,,,,,,,,,,,,,,,,,,,,,,,,,,,,,,,,,,,,,,,,,,,,,,,,,,,,,,,,,,,,,,,,,,,,,,,,,,
23105,1648952785.117196,1648952785.138072,32.0,0.0,4404.102539,4672.820313,4082.0512700000004,4118.461426,4250.769043,0.0,3.0,73.0,,,,0.0,0.0,0.0,0.0,0.0,0.0,0.0,,,,,,,,16.0,0.0,0.849842,-0.068604,0.127197,0.506836,0.300786,-0.016602000000000002,-0.976577,0.010369,-0.025119,-0.029238,,,,,,,,,,,,,,,,,,,,,,,,,,,,,,,,,,,,,,,,,,,,,,,,,,,,,,,,,,,,,,,,,
23106,1648952785.12501,1648952785.145787,33.0,0.0,4307.692383,4485.128418,4107.692383,4231.794922,4518.461426,0.0,3.0,73.0,,,,0.0,0.0,0.0,0.0,0.0,0.0,0.0,,,,,,,,,,,,,,,,,,,,1.0,0.0,0.0,,,,,,,,,,,,,,,,,,,,,,,,,,,,,,,,0.0,0.0,32.0,0.114516,1.0,0.0,40.026096,47.730606,69.730942,97.893776,292.773438,242.566437,47.139454,21.765631,81.646439,142.062347,336.596802,67.502136,119.156052,321.421204,113.31444499999999,90.46350100000001,52.786739000000004,68.945633,76.73015600000001,451.49292,21.339813,29.826859999999996,35.810928000000004,69.77963299999999,349.464142
23107,1648952785.132825,1648952785.153602,34.0,0.0,4413.846191,4431.282227000001,4152.307617,4556.922852000001,4415.384765999999,0.0,3.0,73.0,,,,0.0,0.0,0.0,0.0,0.0,0.0,0.0,,,,,,,,17.0,0.0,0.8496969999999999,-0.068604,0.127197,0.50708,0.290044,-0.014649,-0.988785,0.010699,-0.025098,-0.020064,,,,,,,,,,,,,,,,,,,,,,,,,,,,,,,,,,,,,,,,,,,,,,,,,,,,,,,,,,,,,,,,,
23108,1648952785.140639,1648952785.161316,35.0,0.0,4287.179688,4419.487305,4224.102539,4291.794922,4153.846191,0.0,3.0,73.0,,,,0.0,0.0,0.0,0.0,0.0,0.0,0.0,,,,,,,,,,,,,,,,,,,,,,,,,,,,,,,,,,,,,,,,,,,,,,,,,,,,,,,,,,,,,,,,,,,,,,,,,,,,,,,,,,,,
23109,1648952785.148454,1648952785.169131,36.0,0.0,4136.922852000001,4473.333496,4133.333496,4103.589844,4278.974121,0.0,3.0,73.0,,,,0.0,0.0,0.0,0.0,0.0,0.0,0.0,,,,,,,,18.0,0.0,0.849716,-0.068359,0.127197,0.50708,0.282231,-0.02002,-0.980972,0.007871,-0.025127,-0.014884,,,,,,,,,,,,,,,,,,,,,,,,,,,,,,,,,,,,,,,,,,,,,,,,,,,,,,,,,,,,,,,,,
23110,1648952785.156268,1648952785.176846,37.0,0.0,4360.0,4639.487305,4059.487061,4468.717772999999,4507.179688,0.0,3.0,73.0,,,,0.0,0.0,0.0,0.0,0.0,0.0,0.0,,,,,,,,,,,,,,,,,,,,,,,,,,,,,,,,,,,,,,,,,,,,,,,,,,,,,,0.0,0.0,32.0,0.114516,1.0,0.0,,,,,,,,,,,,,,,,,,,,,,,,,
23111,1648952785.164083,1648952785.18466,38.0,0.0,4354.358886999999,4587.179688,4152.820313,4517.94873,4276.410156,0.0,3.0,73.0,,,,0.0,0.0,0.0,0.0,0.0,0.0,0.0,,,,,,,,19.0,0.0,0.849716,-0.068359,0.127197,0.50708,0.29443800000000003,-0.007324,-0.985367,0.008451,-0.025251,-0.019791999999999997,,,,,,,,,,,,,,,,,,,,,,,,,,,,,,,,,,,,,,,,,,,,,,,,,,,,,,,,,,,,,,,,,
23112,1648952785.1718981,1648952785.192375,39.0,0.0,4145.641113000001,4468.717772999999,4000.0,4236.410156,4292.820313,0.0,3.0,73.0,,,,0.0,0.0,0.0,0.0,0.0,0.0,0.0,,,,,,,,,,,,,,,,,,,,,,,,,,,,,,,,,,,,,,,,,,,,,,,,,,,,,,,,,,,,,,,,,,,,,,,,,,,,,,,,,,,,
23113,1648952785.1797118,1648952785.20019,40.0,0.0,4358.974121,4549.230957,4022.5642090000006,4189.230957,4588.717772999999,0.0,3.0,73.0,,,,0.0,0.0,0.0,0.0,0.0,0.0,0.0,,,,,,,,20.0,0.0,0.8496969999999999,-0.068604,0.127197,0.50708,0.29102,-0.012206999999999999,-0.976577,0.007508,-0.025314,-0.024161000000000002,,,,,,,,,,,,,,,,,,,,,,,,,,,,,,,,,,,,,,,,,,,,,,,,,,,,,,,,,,,,,,,,,
23114,1648952785.187527,1648952785.2079039,41.0,0.0,4598.461426,4573.333496,4289.743652,4325.128418,4428.205078,0.0,3.0,73.0,,,,0.0,0.0,0.0,0.0,0.0,0.0,0.0,,,,,,,,,,,,,,,,,,,,,,,,,,,,,,,,,,,,,,,,,,,,,,,,,,,,,,0.0,0.0,32.0,0.114516,1.0,0.0,,,,,,,,,,,,,,,,,,,,,,,,,
23115,1648952785.195341,1648952785.2156188,42.0,0.0,4326.666504,4610.769043,4266.153809,4230.256348,4133.333496,0.0,3.0,73.0,,,,0.0,0.0,0.0,0.0,0.0,0.0,0.0,,,,,,,,21.0,0.0,0.8496969999999999,-0.068604,0.127197,0.50708,0.29102,-0.008301000000000001,-0.9746239999999999,0.008173999999999999,-0.02537,-0.028141000000000003,,,,,,,,,,,,,,,,,,,,,,,,,,,,,,,,,,,,,,,,,,,,,,,,,,,,,,,,,,,,,,,,,
23116,1648952785.203156,1648952785.223434,43.0,0.0,4238.974121,4621.538574,4195.897461,4270.769043,4360.512695,0.0,3.0,73.0,,,,0.0,0.0,0.0,0.0,0.0,0.0,0.0,,,,,,,,,,,,,,,,,,,,,,,,,,,,,,,,,,,,,,,,,,,,,,,,,,,,,,,,,,,,,,,,,,,,,,,,,,,,,,,,,,,,
23117,1648952785.21097,1648952785.231149,44.0,0.0,4491.282227000001,4506.666504,4398.974121,4495.897461,4475.384765999999,0.0,3.0,73.0,,,,0.0,0.0,0.0,0.0,0.0,0.0,0.0,,,,,,,,22.0,0.0,0.8496969999999999,-0.068604,0.127197,0.50708,0.295903,-0.014159999999999999,-0.9824370000000001,0.008723999999999999,-0.025373,-0.019272,,,,,,,,,,,,,,,,,,,,,,,,,,,,,,,,,,,,,,,,,,,,,,,,,,,,,,,,,,,,,,,,,
23118,1648952785.218785,1648952785.2389631,45.0,0.0,4417.436035,4623.077147999999,4437.94873,4382.563965,4094.8718259999996,0.0,3.0,73.0,,,,0.0,0.0,0.0,0.0,0.0,0.0,0.0,,,,,,,,,,,,,,,,,,,,,,,,,,,,,,,,,,,,,,,,,,,,,,,,,,,,,,0.0,0.0,32.0,0.114516,1.0,0.0,,,,,,,,,,,,,,,,,,,,,,,,,
23119,1648952785.2266,1648952785.2466779,46.0,0.0,4139.487305,4808.205078,4339.487305,4092.820557,4209.230957,0.0,3.0,73.0,,,,0.0,0.0,0.0,0.0,0.0,0.0,0.0,,,,,,,,23.0,0.0,0.849716,-0.068359,0.127197,0.50708,0.292485,-0.021485,-0.9834129999999999,0.009218,-0.025374,-0.023937,,,,,,,,,,,,,,,,,,,,,,,,,,,,,,,,,,,,,,,,,,,,,,,,,,,,,,,,,,,,,,,,,
23120,1648952785.234414,1648952785.254493,47.0,0.0,4275.384765999999,4613.846191,4297.436035,4237.436035,4736.410156,0.0,3.0,73.0,,,,0.0,0.0,0.0,0.0,0.0,0.0,0.0,,,,,,,,,,,,,,,,,,,,,,,,,,,,,,,,,,,,,,,,,,,,,,,,,,,,,,,,,,,,,,,,,,,,,,,,,,,,,,,,,,,,
23121,1648952785.242229,1648952785.262207,48.0,0.0,4554.358886999999,4441.538574,4065.641113,4464.615234000001,4576.410156,0.0,3.0,73.0,,,,0.0,0.0,0.0,0.0,0.0,0.0,0.0,,,,,,,,24.0,0.0,0.849716,-0.068359,0.127197,0.50708,0.28809,-0.008789,-0.9858549999999999,0.006587999999999999,-0.025327000000000002,-0.018369,,,,,,,,,,,,,,,,,,,,,,,,,,,,,,,,,,,,,,,,,,,,,,,,,,,,,,,,,,,,,,,,,
23122,1648952785.250043,1648952785.2700222,49.0,0.0,4478.461426,4558.974121,4041.538574,4173.333496,4187.692383,0.0,3.0,73.0,,,,0.0,0.0,0.0,0.0,0.0,0.0,0.0,,,,,,,,,,,,,,,,,,,,1.0,0.0,0.0,,,,,,,,,,,,,,,,,,,,,,,,,,,,,,,,0.0,0.0,32.0,0.11931800000000001,1.0,0.0,45.469482,56.362835,90.92347,96.628288,291.954773,253.75459300000003,49.762569,23.663912,81.317696,127.568329,331.63989300000003,91.420868,139.986618,325.857758,113.56429299999999,88.895386,49.959927,78.45433,73.097527,445.075012,21.490145000000002,29.174921,36.121555,68.437698,345.691376
23123,1648952785.257858,1648952785.277737,50.0,0.0,4270.769043,4566.666504,4438.974121,4143.589844,4404.615234000001,0.0,3.0,73.0,,,,0.0,0.0,0.0,0.0,0.0,0.0,0.0,,,,,,,,25.0,0.0,0.8496969999999999,-0.068604,0.127197,0.50708,0.30225100000000005,-0.019043,-0.9785309999999999,0.0073939999999999995,-0.025382,-0.022928999999999998,,,,,,,,,,,,,,,,,,,,,,,,,,,,,,,,,,,,,,,,,,,,,,,,,,,,,,,,,,,,,,,,,
23124,1648952785.265672,1648952785.285551,51.0,0.0,4246.666504,4587.692383,4392.307617,4550.769043,4558.974121,0.0,3.0,73.0,,,,0.0,0.0,0.0,0.0,0.0,0.0,0.0,,,,,,,,,,,,,,,,,,,,,,,,,,,,,,,,,,,,,,,,,,,,,,,,,,,,,,,,,,,,,,,,,,,,,,,,,,,,,,,,,,,,
23125,1648952785.2734869,1648952785.293266,52.0,0.0,4333.846191,4643.589844,4135.897461,4442.05127,4306.666504,0.0,3.0,73.0,,,,0.0,0.0,0.0,0.0,0.0,0.0,0.0,,,,,,,,26.0,0.0,0.8496600000000001,-0.068604,0.127441,0.50708,0.29395,-0.010742,-0.980484,0.008020999999999999,-0.025383000000000003,-0.027228,,,,,,,,,,,,,,,,,,,,,,,,,,,,,,,,,,,,,,,,,,,,,,,,,,,,,,,,,,,,,,,,,
23126,1648952785.281301,1648952785.301081,53.0,0.0,4246.666504,4464.102539,4224.615234000001,4097.94873,4350.256348,0.0,3.0,73.0,,,,0.0,0.0,0.0,0.0,0.0,0.0,0.0,,,,,,,,,,,,,,,,,,,,,,,,,,,,,,,,,,,,,,,,,,,,,,,,,,,,,,0.0,0.0,32.0,0.11931800000000001,1.0,0.0,,,,,,,,,,,,,,,,,,,,,,,,,
23127,1648952785.289116,1648952785.3087962,54.0,0.0,4327.692383,4487.692383,4131.794922,4376.410156,4631.794922,0.0,3.0,73.0,,,,0.0,0.0,0.0,0.0,0.0,0.0,0.0,,,,,,,,27.0,0.0,0.8496600000000001,-0.068604,0.127441,0.50708,0.290044,-0.01709,-0.963882,0.008684,-0.025481999999999998,-0.021282,,,,,,,,,,,,,,,,,,,,,,,,,,,,,,,,,,,,,,,,,,,,,,,,,,,,,,,,,,,,,,,,,
23128,1648952785.29693,1648952785.3166099,55.0,0.0,4497.94873,4579.487305,3986.1538090000004,4543.077147999999,4417.94873,0.0,3.0,73.0,,,,0.0,0.0,0.0,0.0,0.0,0.0,0.0,,,,,,,,,,,,,,,,,,,,,,,,,,,,,,,,,,,,,,,,,,,,,,,,,,,,,,,,,,,,,,,,,,,,,,,,,,,,,,,,,,,,
23129,1648952785.304745,1648952785.324325,56.0,0.0,4341.538574,4357.436035,4065.641113,4199.487305,4282.05127,0.0,3.0,73.0,,,,0.0,0.0,0.0,0.0,0.0,0.0,0.0,,,,,,,,28.0,0.0,0.8496600000000001,-0.068604,0.127441,0.50708,0.29736799999999997,-0.012695999999999999,-0.977066,0.00762,-0.025473,-0.0256,,,,,,,,,,,,,,,,,,,,,,,,,,,,,,,,,,,,,,,,,,,,,,,,,,,,,,,,,,,,,,,,,
23130,1648952785.312559,1648952785.33214,57.0,0.0,4252.307617,4407.692383,4076.923096,4180.0,4505.128418,0.0,3.0,73.0,,,,0.0,0.0,0.0,0.0,0.0,0.0,0.0,,,,,,,,,,,,,,,,,,,,,,,,,,,,,,,,,,,,,,,,,,,,,,,,,,,,,,0.0,0.0,32.0,0.11931800000000001,1.0,0.0,,,,,,,,,,,,,,,,,,,,,,,,,
23131,1648952785.320374,1648952785.339854,58.0,0.0,4603.589844,4689.743652,4040.0,4516.410156,4522.05127,0.0,3.0,73.0,,,,0.0,0.0,0.0,0.0,0.0,0.0,0.0,,,,,,,,29.0,0.0,0.8496600000000001,-0.068604,0.127441,0.50708,0.29395,-0.010742,-0.980484,0.005052,-0.025416,-0.019719,,,,,,,,,,,,,,,,,,,,,,,,,,,,,,,,,,,,,,,,,,,,,,,,,,,,,,,,,,,,,,,,,
23132,1648952785.3281891,1648952785.347669,59.0,0.0,4467.179688,4534.358886999999,4315.897461,4395.897461,4191.794922,0.0,3.0,73.0,,,,0.0,0.0,0.0,0.0,0.0,0.0,0.0,,,,,,,,,,,,,,,,,,,,,,,,,,,,,,,,,,,,,,,,,,,,,,,,,,,,,,,,,,,,,,,,,,,,,,,,,,,,,,,,,,,,
23133,1648952785.3360028,1648952785.3553839,60.0,0.0,3970.256348,4431.282227000001,4242.563965,4232.820313,4265.128418,0.0,3.0,73.0,,,,0.0,0.0,0.0,0.0,0.0,0.0,0.0,,,,,,,,30.0,0.0,0.8496600000000001,-0.068604,0.127441,0.50708,0.29736799999999997,-0.012695999999999999,-0.977066,0.004351,-0.025412999999999998,-0.024193,,,,,,,,,,,,,,,,,,,,,,,,,,,,,,,,,,,,,,,,,,,,,,,,,,,,,,,,,,,,,,,,,
23134,1648952785.343818,1648952785.363099,61.0,0.0,4253.333496,4607.692383,3958.461426,4408.205078,4576.410156,0.0,3.0,73.0,,,,0.0,0.0,0.0,0.0,0.0,0.0,0.0,,,,,,,,,,,,,,,,,,,,,,,,,,,,,,,,,,,,,,,,,,,,,,,,,,,,,,0.0,0.0,32.0,0.11931800000000001,1.0,0.0,,,,,,,,,,,,,,,,,,,,,,,,,
23135,1648952785.351632,1648952785.370914,62.0,0.0,4649.743652,4500.0,4105.128418,4366.153809,4416.922852000001,0.0,3.0,73.0,,,,0.0,0.0,0.0,0.0,0.0,0.0,0.0,,,,,,,,31.0,0.0,0.8496969999999999,-0.068604,0.127197,0.50708,0.292973,-0.019532,-0.9863430000000001,0.0052829999999999995,-0.025411000000000003,-0.028219,,,,,,,,,,,,,,,,,,,,,,,,,,,,,,,,,,,,,,,,,,,,,,,,,,,,,,,,,,,,,,,,,
23136,1648952785.359447,1648952785.378728,63.0,0.0,4276.922852000001,4478.974121,4193.846191,4065.1281740000004,4266.153809,0.0,3.0,73.0,,,,0.0,0.0,0.0,0.0,0.0,0.0,0.0,,,,,,,,,,,,,,,,,,,,,,,,,,,,,,,,,,,,,,,,,,,,,,,,,,,,,,,,,,,,,,,,,,,,,,,,,,,,,,,,,,,,
23137,1648952785.367261,1648952785.386443,64.0,0.0,4149.230957,4641.538574,4094.8718259999996,4173.333496,4490.256348,450.0,3.0,73.0,,,,0.0,0.0,0.0,0.0,0.0,0.0,0.0,,,,,,,,32.0,0.0,0.8496969999999999,-0.068604,0.127197,0.50708,0.289067,-0.003418,-0.973159,0.002997,-0.025409,-0.022174,,,,,,,,,,,,,,,,,,,,,,,,,,,,,,,,,,,,,,,,,,,,,,,,,,,,,,,,,,,,,,,,,
23138,1648952785.375076,1648952785.3941581,65.0,0.0,4534.358886999999,4524.102539,4267.179688,4568.717772999999,4490.256348,450.0,3.0,73.0,,,,0.0,0.0,0.0,0.0,0.0,0.0,0.0,1.0,0.0,0.0,0.0,0.0,0.0,0.0,,,,,,,,,,,,,1.0,0.0,0.0,,,,,,,,,,,,,,,,,,,,,,,,,,,,,,,,0.0,0.0,32.0,0.111881,1.0,0.0,49.904427,69.210098,113.348152,93.717789,291.85110499999996,250.35130299999997,56.92541899999999,25.467567000000003,80.049339,115.40676100000002,325.30249,125.040039,174.22496,322.923492,111.027199,83.75985,47.588116,88.586761,68.594933,435.9664,21.158627,29.383371,38.963417,65.943962,341.110352
23139,1648952785.382891,1648952785.401973,66.0,0.0,4467.692383,4546.666504,4542.563965,4452.307617,4144.102539,0.0,3.0,73.0,,,,0.0,0.0,0.0,0.0,0.0,0.0,0.0,,,,,,,,33.0,0.0,0.849806,-0.068604,0.127441,0.506836,0.289067,0.0043950000000000005,-0.972183,0.004113,-0.025407,-0.026256,,,,,,,,,,,,,,,,,,,,,,,,,,,,,,,,,,,,,,,,,,,,,,,,,,,,,,,,,,,,,,,,,
23140,1648952785.390705,1648952785.4096868,67.0,0.0,4200.0,4653.333496,4548.717772999999,4197.436035,4231.794922,450.0,3.0,73.0,,,,0.0,0.0,0.0,0.0,0.0,0.0,0.0,,,,,,,,,,,,,,,,,,,,,,,,,,,,,,,,,,,,,,,,,,,,,,,,,,,,,,,,,,,,,,,,,,,,,,,,,,,,,,,,,,,,
23141,1648952785.39852,1648952785.417502,68.0,0.0,4302.563965,4436.922852000001,4356.410156,4346.666504,4551.794922,0.0,3.0,73.0,,,,0.0,0.0,0.0,0.0,0.0,0.0,0.0,,,,,,,,34.0,0.0,0.8496969999999999,-0.068604,0.127197,0.50708,0.303227,-0.004883,-0.99025,0.005069,-0.025503,-0.030076,,,,,,,,,,,,,,,,,,,,,,,,,,,,,,,,,,,,,,,,,,,,,,,,,,,,,,,,,,,,,,,,,
23142,1648952785.406334,1648952785.425217,69.0,0.0,4421.538574,4469.743652,4130.769043,4469.230957,4427.692383,450.0,3.0,73.0,,,,0.0,0.0,0.0,0.0,0.0,0.0,0.0,,,,,,,,,,,,,,,,,,,,,,,,,,,,,,,,,,,,,,,,,,,,,,,,,,,,,,0.0,0.0,32.0,0.111881,1.0,0.0,,,,,,,,,,,,,,,,,,,,,,,,,
23143,1648952785.414149,1648952785.433031,70.0,0.0,4251.282227000001,4776.922852000001,4043.076904,4171.282227000001,4277.94873,0.0,3.0,73.0,,,,0.0,0.0,0.0,0.0,0.0,0.0,0.0,,,,,,,,35.0,0.0,0.8496969999999999,-0.068604,0.127197,0.50708,0.286137,-0.015137000000000001,-0.973648,0.005881,-0.025541,-0.033513,,,,,,,,,,,,,,,,,,,,,,,,,,,,,,,,,,,,,,,,,,,,,,,,,,,,,,,,,,,,,,,,,
23144,1648952785.421963,1648952785.440746,71.0,0.0,4374.358886999999,4650.256348,4156.922852000001,4150.256348,4511.282227000001,450.0,3.0,73.0,,,,0.0,0.0,0.0,0.0,0.0,0.0,0.0,,,,,,,,,,,,,,,,,,,,,,,,,,,,,,,,,,,,,,,,,,,,,,,,,,,,,,,,,,,,,,,,,,,,,,,,,,,,,,,,,,,,
23145,1648952785.4297779,1648952785.448561,72.0,0.0,4598.461426,4469.743652,4243.077147999999,4364.615234000001,4498.461426,450.0,3.0,73.0,,,,0.0,0.0,0.0,0.0,0.0,0.0,0.0,,,,,,,,36.0,0.0,0.84964,-0.068848,0.127441,0.50708,0.29736799999999997,-0.018555000000000002,-0.9824370000000001,0.006659999999999999,-0.025575,-0.024107,,,,,,,,,,,,,,,,,,,,,,,,,,,,,,,,,,,,,,,,,,,,,,,,,,,,,,,,,,,,,,,,,
23146,1648952785.437592,1648952785.456375,73.0,0.0,4416.922852000001,4572.820313,4305.641113000001,4202.05127,4210.769043,0.0,3.0,73.0,,,,0.0,0.0,0.0,0.0,0.0,0.0,0.0,,,,,,,,,,,,,,,,,,,,,,,,,,,,,,,,,,,,,,,,,,,,,,,,,,,,,,0.0,0.0,32.0,0.111881,1.0,0.0,,,,,,,,,,,,,,,,,,,,,,,,,
23147,1648952785.445407,1648952785.46409,74.0,0.0,4103.589844,4487.179688,4364.615234000001,4158.461426,4292.820313,450.0,3.0,73.0,,,,0.0,0.0,0.0,0.0,0.0,0.0,0.0,,,,,,,,37.0,0.0,0.8496600000000001,-0.068604,0.127441,0.50708,0.29443800000000003,-0.012206999999999999,-0.983902,0.008924,-0.025556,-0.028093,,,,,,,,,,,,,,,,,,,,,,,,,,,,,,,,,,,,,,,,,,,,,,,,,,,,,,,,,,,,,,,,,
23148,1648952785.453221,1648952785.471805,75.0,0.0,4282.05127,4474.871582,4113.333496,4594.358886999999,4550.769043,0.0,3.0,73.0,,,,0.0,0.0,0.0,0.0,0.0,0.0,0.0,,,,,,,,,,,,,,,,,,,,,,,,,,,,,,,,,,,,,,,,,,,,,,,,,,,,,,,,,,,,,,,,,,,,,,,,,,,,,,,,,,,,
23149,1648952785.461036,1648952785.479619,76.0,0.0,4580.0,4677.436035,4011.794922,4561.538574,4332.307617,450.0,3.0,73.0,,,,0.0,0.0,0.0,0.0,0.0,0.0,0.0,,,,,,,,38.0,0.0,0.84964,-0.068848,0.127441,0.50708,0.294926,-0.008301000000000001,-0.978042,0.011108,-0.025637,-0.031632,,,,,,,,,,,,,,,,,,,,,,,,,,,,,,,,,,,,,,,,,,,,,,,,,,,,,,,,,,,,,,,,,
23150,1648952785.46885,1648952785.487334,77.0,0.0,4370.769043,4579.487305,4116.410156,4107.179688,4232.307617,450.0,3.0,73.0,,,,0.0,0.0,0.0,0.0,0.0,0.0,0.0,,,,,,,,,,,,,,,,,,,,,,,,,,,,,,,,,,,,,,,,,,,,,,,,,,,,,,0.0,0.0,32.0,0.111881,1.0,0.0,,,,,,,,,,,,,,,,,,,,,,,,,
23151,1648952785.476665,1648952785.4951491,78.0,0.0,4209.230957,4413.333496,4184.102539,4220.0,4493.846191,450.0,3.0,73.0,,,,0.0,0.0,0.0,0.0,0.0,0.0,0.0,,,,,,,,39.0,0.0,0.84964,-0.068848,0.127441,0.50708,0.289555,-0.015625,-0.9741360000000001,0.008239,-0.025564,-0.025246,,,,,,,,,,,,,,,,,,,,,,,,,,,,,,,,,,,,,,,,,,,,,,,,,,,,,,,,,,,,,,,,,
23152,1648952785.4844801,1648952785.5028632,79.0,0.0,4473.846191,4478.974121,4195.384765999999,4518.974121,4416.410156,0.0,3.0,73.0,,,,0.0,0.0,0.0,0.0,0.0,0.0,0.0,,,,,,,,,,,,,,,,,,,,,,,,,,,,,,,,,,,,,,,,,,,,,,,,,,,,,,,,,,,,,,,,,,,,,,,,,,,,,,,,,,,,
23153,1648952785.4922938,1648952785.510578,80.0,0.0,4440.512695,4508.205078,4225.641113000001,4279.487305,4138.974121,450.0,3.0,73.0,,,,0.0,0.0,0.0,0.0,0.0,0.0,0.0,,,,,,,,40.0,0.0,0.849677,-0.068848,0.127197,0.50708,0.29688000000000003,-0.0058590000000000005,-0.9790190000000001,0.008782,-0.025595,-0.029019999999999997,,,,,,,,,,,,,,,,,,,,,,,,,,,,,,,,,,,,,,,,,,,,,,,,,,,,,,,,,,,,,,,,,
23154,1648952785.500109,1648952785.518393,81.0,0.0,4118.461426,4563.077147999999,4156.410156,4144.615234000001,4285.641113000001,450.0,3.0,73.0,,,,0.0,0.0,0.0,0.0,0.0,0.0,0.0,,,,,,,,,,,,,,,,,,,,1.0,0.0,0.0,,,,,,,,,,,,,,,,,,,,,,,,,,,,,,,,0.0,0.0,32.0,0.108403,1.0,0.0,53.916419999999995,83.894188,130.97718799999998,90.89544699999999,292.326904,235.11790499999998,67.248032,26.730048999999998,78.42875699999999,108.14720200000001,321.75735499999996,162.604141,205.647781,314.09231600000004,106.460922,77.860878,46.033203,95.880775,64.545837,426.556641,20.775675,30.931082,43.033676,63.531677,339.080994
23155,1648952785.5079231,1648952785.526108,82.0,0.0,4303.589844,4661.025879,4045.641113,4497.436035,4547.179688,450.0,3.0,73.0,,,,0.0,0.0,0.0,0.0,0.0,0.0,0.0,,,,,,,,41.0,0.0,0.849677,-0.068848,0.127197,0.50708,0.292973,-0.01709,-0.979507,0.00932,-0.025575,-0.020013999999999997,,,,,,,,,,,,,,,,,,,,,,,,,,,,,,,,,,,,,,,,,,,,,,,,,,,,,,,,,,,,,,,,,
23156,1648952785.515738,1648952785.5339231,83.0,0.0,4528.205078,4494.358886999999,4096.922852000001,4506.666504,4357.436035,0.0,3.0,73.0,,,,0.0,0.0,0.0,0.0,0.0,0.0,0.0,,,,,,,,,,,,,,,,,,,,,,,,,,,,,,,,,,,,,,,,,,,,,,,,,,,,,,,,,,,,,,,,,,,,,,,,,,,,,,,,,,,,
23157,1648952785.523552,1648952785.541738,84.0,0.0,4220.512695,4374.358886999999,4054.358887,4163.077147999999,4357.94873,450.0,3.0,73.0,,,,0.0,0.0,0.0,0.0,0.0,0.0,0.0,,,,,,,,42.0,0.0,0.849677,-0.068848,0.127197,0.50708,0.303227,-0.010254000000000001,-0.98439,0.008046,-0.025557,-0.027242000000000002,,,,,,,,,,,,,,,,,,,,,,,,,,,,,,,,,,,,,,,,,,,,,,,,,,,,,,,,,,,,,,,,,
23158,1648952785.531367,1648952785.549453,85.0,0.0,4194.358886999999,4570.769043,4001.538574,4175.384765999999,4597.94873,450.0,3.0,73.0,,,,0.0,0.0,0.0,0.0,0.0,0.0,0.0,,,,,,,,,,,,,,,,,,,,,,,,,,,,,,,,,,,,,,,,,,,,,,,,,,,,,,0.0,0.0,32.0,0.108403,1.0,0.0,,,,,,,,,,,,,,,,,,,,,,,,,
23159,1648952785.539182,1648952785.557267,86.0,0.0,4581.025879,4596.410156,4169.743652,4469.743652,4517.436035,450.0,3.0,73.0,,,,0.0,0.0,0.0,0.0,0.0,0.0,0.0,,,,,,,,43.0,0.0,0.849677,-0.068848,0.127197,0.50708,0.292973,-0.013672,-0.9863430000000001,0.007045999999999999,-0.025588999999999997,-0.030963,,,,,,,,,,,,,,,,,,,,,,,,,,,,,,,,,,,,,,,,,,,,,,,,,,,,,,,,,,,,,,,,,
23160,1648952785.546996,1648952785.564982,87.0,0.0,4448.205078,4533.333496,4458.974121,4373.846191,4194.358886999999,0.0,3.0,73.0,,,,0.0,0.0,0.0,0.0,0.0,0.0,0.0,,,,,,,,,,,,,,,,,,,,,,,,,,,,,,,,,,,,,,,,,,,,,,,,,,,,,,,,,,,,,,,,,,,,,,,,,,,,,,,,,,,,
23161,1648952785.554811,1648952785.572797,88.0,0.0,4199.487305,4661.538574,4396.922852000001,4278.974121,4249.743652,450.0,3.0,73.0,,,,0.0,0.0,0.0,0.0,0.0,0.0,0.0,,,,,,,,44.0,0.0,0.849677,-0.068848,0.127197,0.50708,0.295415,-0.013184,-0.98439,0.009223,-0.025519999999999998,-0.034214,,,,,,,,,,,,,,,,,,,,,,,,,,,,,,,,,,,,,,,,,,,,,,,,,,,,,,,,,,,,,,,,,
23162,1648952785.562625,1648952785.5805118,89.0,0.0,4351.282227000001,4646.666504,4133.333496,4381.538574,4434.871582,450.0,3.0,73.0,,,,0.0,0.0,0.0,0.0,0.0,0.0,0.0,,,,,,,,,,,,,,,,,,,,,,,,,,,,,,,,,,,,,,,,,,,,,,,,,,,,,,0.0,0.0,32.0,0.108403,1.0,0.0,,,,,,,,,,,,,,,,,,,,,,,,,
23163,1648952785.57044,1648952785.588326,90.0,0.0,4445.128418,4483.077147999999,4103.589844,4322.05127,4291.282227000001,450.0,3.0,73.0,,,,0.0,0.0,0.0,0.0,0.0,0.0,0.0,,,,,,,,45.0,0.0,0.849677,-0.068848,0.127197,0.50708,0.291508,-0.022461000000000002,-0.9868309999999999,0.007959,-0.025507,-0.040022,,,,,,,,,,,,,,,,,,,,,,,,,,,,,,,,,,,,,,,,,,,,,,,,,,,,,,,,,,,,,,,,,
23164,1648952785.578254,1648952785.596041,91.0,0.0,4209.230957,4590.256348,4170.769043,4116.410156,4179.487305,0.0,3.0,73.0,,,,0.0,0.0,0.0,0.0,0.0,0.0,0.0,,,,,,,,,,,,,,,,,,,,,,,,,,,,,,,,,,,,,,,,,,,,,,,,,,,,,,,,,,,,,,,,,,,,,,,,,,,,,,,,,,,,
23165,1648952785.5860689,1648952785.603756,92.0,0.0,4249.230957,4621.538574,4216.410156,4251.794922,4410.769043,450.0,3.0,73.0,,,,0.0,0.0,0.0,0.0,0.0,0.0,0.0,,,,,,,,46.0,0.0,0.849677,-0.068848,0.127197,0.50708,0.299809,-0.015137000000000001,-0.980484,0.00853,-0.025544999999999998,-0.042367,,,,,,,,,,,,,,,,,,,,,,,,,,,,,,,,,,,,,,,,,,,,,,,,,,,,,,,,,,,,,,,,,
23166,1648952785.593883,1648952785.61157,93.0,0.0,4487.692383,4409.743652,4369.743652,4551.794922,4456.410156,450.0,3.0,73.0,,,,0.0,0.0,0.0,0.0,0.0,0.0,0.0,,,,,,,,,,,,,,,,,,,,,,,,,,,,,,,,,,,,,,,,,,,,,,,,,,,,,,0.0,0.0,32.0,0.108403,1.0,0.0,,,,,,,,,,,,,,,,,,,,,,,,,
23167,1648952785.6016982,1648952785.619385,94.0,0.0,4391.794922,4549.743652,4426.666504,4421.025879,4108.205078,450.0,3.0,73.0,,,,0.0,0.0,0.0,0.0,0.0,0.0,0.0,,,,,,,,47.0,0.0,0.849677,-0.068848,0.127197,0.50708,0.29639099999999996,-0.007812999999999999,-0.979507,0.009044,-0.025578,-0.031929,,,,,,,,,,,,,,,,,,,,,,,,,,,,,,,,,,,,,,,,,,,,,,,,,,,,,,,,,,,,,,,,,
23168,1648952785.6095119,1648952785.627099,95.0,0.0,4163.077147999999,4827.179688,4327.692383,4089.2307130000004,4192.307617,0.0,3.0,73.0,,,,0.0,0.0,0.0,0.0,0.0,0.0,0.0,,,,,,,,,,,,,,,,,,,,,,,,,,,,,,,,,,,,,,,,,,,,,,,,,,,,,,,,,,,,,,,,,,,,,,,,,,,,,,,,,,,,
23169,1648952785.617327,1648952785.634814,96.0,0.0,4293.846191,4668.205078,4273.333496,4206.666504,4713.333496,450.0,3.0,73.0,,,,0.0,0.0,0.0,0.0,0.0,0.0,0.0,,,,,,,,48.0,0.0,0.8495309999999999,-0.068848,0.127197,0.507324,0.291997,-0.006836,-0.976577,0.011068999999999999,-0.025511000000000002,-0.035182,,,,,,,,,,,,,,,,,,,,,,,,,,,,,,,,,,,,,,,,,,,,,,,,,,,,,,,,,,,,,,,,,
23170,1648952785.625142,1648952785.642629,97.0,0.0,4553.846191,4479.487305,4263.077147999999,4526.666504,4601.025879,450.0,3.0,73.0,,,,0.0,0.0,0.0,0.0,0.0,0.0,0.0,,,,,,,,,,,,,,,,,,,,1.0,0.0,0.0,,,,,,,,,,,,,,,,,,,,,,,,,,,,,,,,0.0,0.0,32.0,0.112946,1.0,0.0,57.688976000000004,96.361847,137.763977,89.53014399999999,294.193634,212.210938,76.23898299999999,27.305016,77.082024,106.24953500000001,323.86953700000004,193.65181,220.298721,304.340607,101.321732,73.797066,45.333836,97.299812,62.891098,418.936371,20.687437,33.441936,47.176285,63.050903000000005,341.356842
23171,1648952785.632956,1648952785.650343,98.0,0.0,4453.333496,4617.436035,4294.871582,4332.307617,4120.512695,450.0,3.0,73.0,,,,0.0,0.0,0.0,0.0,0.0,0.0,0.0,,,,,,,,49.0,0.0,0.8495309999999999,-0.068848,0.127197,0.507324,0.29639099999999996,-0.011231,-0.981949,0.011476,-0.025547,-0.02556,,,,,,,,,,,,,,,,,,,,,,,,,,,,,,,,,,,,,,,,,,,,,,,,,,,,,,,,,,,,,,,,,
23172,1648952785.6407712,1648952785.658158,99.0,0.0,4267.692383,4621.538574,4478.461426,4161.025879,4286.666504,0.0,3.0,73.0,,,,0.0,0.0,0.0,0.0,0.0,0.0,0.0,,,,,,,,,,,,,,,,,,,,,,,,,,,,,,,,,,,,,,,,,,,,,,,,,,,,,,,,,,,,,,,,,,,,,,,,,,,,,,,,,,,,
23173,1648952785.6485848,1648952785.665873,100.0,0.0,4267.692383,4531.282227000001,4434.871582,4458.461426,4562.563965,450.0,3.0,73.0,,,,0.0,0.0,0.0,0.0,0.0,0.0,0.0,,,,,,,,50.0,0.0,0.8495309999999999,-0.068848,0.127197,0.507324,0.289555,-0.007812999999999999,-0.984878,0.011745,-0.025483000000000002,-0.029449,,,,,,,,,,,,,,,,,,,,,,,,,,,,,,,,,,,,,,,,,,,,,,,,,,,,,,,,,,,,,,,,,
23174,1648952785.6564,1648952785.6736882,101.0,0.0,4323.077147999999,4697.436035,4185.641113000001,4467.179688,4376.410156,450.0,3.0,73.0,,,,0.0,0.0,0.0,0.0,0.0,0.0,0.0,,,,,,,,,,,,,,,,,,,,,,,,,,,,,,,,,,,,,,,,,,,,,,,,,,,,,,0.0,0.0,32.0,0.112946,1.0,0.0,,,,,,,,,,,,,,,,,,,,,,,,,
23175,1648952785.6642141,1648952785.681402,102.0,0.0,4212.820313,4733.846191,4165.641113000001,4041.025635,4338.461426,450.0,3.0,73.0,,,,0.0,0.0,0.0,0.0,0.0,0.0,0.0,,,,,,,,51.0,0.0,0.8495309999999999,-0.068848,0.127197,0.507324,0.304692,-0.02002,-0.9741360000000001,0.008812,-0.025425,-0.023331,,,,,,,,,,,,,,,,,,,,,,,,,,,,,,,,,,,,,,,,,,,,,,,,,,,,,,,,,,,,,,,,,
23176,1648952785.672029,1648952785.689217,103.0,0.0,4352.820313,4519.487305,4134.358886999999,4114.358886999999,4607.692383,0.0,3.0,73.0,,,,0.0,0.0,0.0,0.0,0.0,0.0,0.0,,,,,,,,,,,,,,,,,,,,,,,,,,,,,,,,,,,,,,,,,,,,,,,,,,,,,,,,,,,,,,,,,,,,,,,,,,,,,,,,,,,,
23177,1648952785.679843,1648952785.696932,104.0,0.0,4597.94873,4483.589844,4029.2307130000004,4404.615234000001,4475.384765999999,450.0,3.0,73.0,,,,0.0,0.0,0.0,0.0,0.0,0.0,0.0,,,,,,,,52.0,0.0,0.8495309999999999,-0.068848,0.127197,0.507324,0.297856,0.000488,-0.9858549999999999,0.010860999999999999,-0.025422,-0.027443000000000002,,,,,,,,,,,,,,,,,,,,,,,,,,,,,,,,,,,,,,,,,,,,,,,,,,,,,,,,,,,,,,,,,
23178,1648952785.687658,1648952785.704746,105.0,0.0,4437.436035,4549.230957,4193.846191,4197.94873,4186.153809,450.0,3.0,73.0,,,,0.0,0.0,0.0,0.0,0.0,0.0,0.0,,,,,,,,,,,,,,,,,,,,,,,,,,,,,,,,,,,,,,,,,,,,,,,,,,,,,,0.0,0.0,32.0,0.112946,1.0,0.0,,,,,,,,,,,,,,,,,,,,,,,,,
23179,1648952785.695473,1648952785.712461,106.0,0.0,4113.846191,4441.538574,4392.820313,4112.820313,4284.102539,450.0,3.0,73.0,,,,0.0,0.0,0.0,0.0,0.0,0.0,0.0,,,,,,,,53.0,0.0,0.8495309999999999,-0.068848,0.127197,0.507324,0.297856,-0.009276999999999999,-0.98439,0.01124,-0.025516,-0.030998,,,,,,,,,,,,,,,,,,,,,,,,,,,,,,,,,,,,,,,,,,,,,,,,,,,,,,,,,,,,,,,,,
23180,1648952785.703287,1648952785.7202759,107.0,0.0,4311.282227000001,4545.128418,4109.743652,4522.563965,4518.461426,0.0,3.0,73.0,,,,0.0,0.0,0.0,0.0,0.0,0.0,0.0,,,,,,,,,,,,,,,,,,,,,,,,,,,,,,,,,,,,,,,,,,,,,,,,,,,,,,,,,,,,,,,,,,,,,,,,,,,,,,,,,,,,
23181,1648952785.711102,1648952785.7279902,108.0,0.0,4520.0,4672.307617,3973.8461909999996,4533.333496,4342.05127,450.0,3.0,73.0,,,,0.0,0.0,0.0,0.0,0.0,0.0,0.0,,,,,,,,54.0,0.0,0.8495309999999999,-0.068848,0.127197,0.507324,0.28320700000000004,-0.011231,-0.9863430000000001,0.008357999999999999,-0.025504,-0.024675,,,,,,,,,,,,,,,,,,,,,,,,,,,,,,,,,,,,,,,,,,,,,,,,,,,,,,,,,,,,,,,,,
23182,1648952785.718916,1648952785.735805,109.0,0.0,4308.717772999999,4563.589844,4027.6923829999996,4228.205078,4247.179688,450.0,3.0,73.0,,,,0.0,0.0,0.0,0.0,0.0,0.0,0.0,,,,,,,,,,,,,,,,,,,,,,,,,,,,,,,,,,,,,,,,,,,,,,,,,,,,,,0.0,0.0,32.0,0.112946,1.0,0.0,,,,,,,,,,,,,,,,,,,,,,,,,
23183,1648952785.726731,1648952785.74352,110.0,0.0,4360.0,4545.641113000001,4036.923096,4329.743652,4509.743652,450.0,3.0,73.0,,,,0.0,0.0,0.0,0.0,0.0,0.0,0.0,,,,,,,,55.0,0.0,0.849677,-0.068848,0.127197,0.50708,0.28174299999999997,-0.00293,-0.977554,0.007376000000000001,-0.02559,-0.031436,,,,,,,,,,,,,,,,,,,,,,,,,,,,,,,,,,,,,,,,,,,,,,,,,,,,,,,,,,,,,,,,,
23184,1648952785.734545,1648952785.751334,111.0,0.0,4514.871582,4435.897461,4154.358886999999,4429.230957,4467.692383,0.0,3.0,73.0,,,,0.0,0.0,0.0,0.0,0.0,0.0,0.0,,,,,,,,,,,,,,,,,,,,,,,,,,,,,,,,,,,,,,,,,,,,,,,,,,,,,,,,,,,,,,,,,,,,,,,,,,,,,,,,,,,,
23185,1648952785.7423599,1648952785.759049,112.0,0.0,4231.794922,4335.897461,4269.230957,4163.589844,4163.589844,450.0,3.0,73.0,,,,0.0,0.0,0.0,0.0,0.0,0.0,0.0,,,,,,,,56.0,0.0,0.8495309999999999,-0.068848,0.127197,0.507324,0.290044,-0.001953,-0.98146,0.009568,-0.02557,-0.034738,,,,,,,,,,,,,,,,,,,,,,,,,,,,,,,,,,,,,,,,,,,,,,,,,,,,,,,,,,,,,,,,,
23186,1648952785.750174,1648952785.7667642,113.0,0.0,4138.974121,4552.820313,4193.333496,4155.384765999999,4237.436035,450.0,3.0,73.0,,,,0.0,0.0,0.0,0.0,0.0,0.0,0.0,,,,,,,,,,,,,,,,,,,,1.0,0.0,0.0,,,,,,,,,,,,,,,,,,,,,,,,,,,,,,,,0.0,0.0,32.0,0.093476,1.0,0.0,60.465934999999995,102.20594,130.78276100000002,90.077522,299.061554,186.32933,79.47821,27.401577000000003,76.31263,108.51763899999999,334.53045699999996,210.35859700000003,213.039352,299.48431400000004,96.99479699999999,72.040123,44.522957,92.68248,65.38507800000001,413.567596,21.275295,36.290501,50.250607,65.657761,346.901489
23187,1648952785.7579892,1648952785.7745788,114.0,0.0,4510.769043,4613.846191,4184.102539,4516.922852000001,4497.94873,450.0,3.0,73.0,,,,0.0,0.0,0.0,0.0,0.0,0.0,0.0,,,,,,,,57.0,0.0,0.8495309999999999,-0.068848,0.127197,0.507324,0.28320700000000004,-0.011231,-0.9863430000000001,0.006853,-0.025552000000000002,-0.028042,,,,,,,,,,,,,,,,,,,,,,,,,,,,,,,,,,,,,,,,,,,,,,,,,,,,,,,,,,,,,,,,,
23188,1648952785.7658029,1648952785.782293,115.0,0.0,4510.769043,4493.333496,4270.256348,4508.205078,4275.384765999999,0.0,3.0,73.0,,,,0.0,0.0,0.0,0.0,0.0,0.0,0.0,,,,,,,,,,,,,,,,,,,,,,,,,,,,,,,,,,,,,,,,,,,,,,,,,,,,,,,,,,,,,,,,,,,,,,,,,,,,,,,,,,,,
23189,1648952785.773618,1648952785.790108,116.0,0.0,4209.743652,4670.256348,4145.128418,4185.128418,4158.974121,450.0,3.0,73.0,,,,0.0,0.0,0.0,0.0,0.0,0.0,0.0,,,,,,,,58.0,0.0,0.8495309999999999,-0.068848,0.127197,0.507324,0.290044,-0.001953,-0.98146,0.009098,-0.025536,-0.031682999999999996,,,,,,,,,,,,,,,,,,,,,,,,,,,,,,,,,,,,,,,,,,,,,,,,,,,,,,,,,,,,,,,,,
23190,1648952785.781433,1648952785.797823,117.0,0.0,4361.025879,4731.794922,4190.769043,4111.794922,4514.358886999999,450.0,3.0,73.0,,,,0.0,0.0,0.0,0.0,0.0,0.0,0.0,,,,,,,,,,,,,,,,,,,,,,,,,,,,,,,,,,,,,,,,,,,,,,,,,,,,,,0.0,0.0,32.0,0.093476,1.0,0.0,,,,,,,,,,,,,,,,,,,,,,,,,
23191,1648952785.789247,1648952785.805637,118.0,0.0,4619.487305,4469.743652,4271.282227000001,4353.333496,4575.897461,450.0,3.0,73.0,,,,0.0,0.0,0.0,0.0,0.0,0.0,0.0,,,,,,,,59.0,0.0,0.8495309999999999,-0.068848,0.127197,0.507324,0.29736799999999997,-0.010742,-0.9834129999999999,0.009653,-0.025522,-0.034862,,,,,,,,,,,,,,,,,,,,,,,,,,,,,,,,,,,,,,,,,,,,,,,,,,,,,,,,,,,,,,,,,
23192,1648952785.797062,1648952785.8133519,119.0,0.0,4407.692383,4533.846191,4142.05127,4322.05127,4217.94873,0.0,3.0,73.0,,,,0.0,0.0,0.0,0.0,0.0,0.0,0.0,,,,,,,,,,,,,,,,,,,,,,,,,,,,,,,,,,,,,,,,,,,,,,,,,,,,,,,,,,,,,,,,,,,,,,,,,,,,,,,,,,,,
23193,1648952785.804876,1648952785.821167,120.0,0.0,4300.512695,4601.538574,4237.436035,4255.384765999999,4270.256348,450.0,3.0,73.0,,,,0.0,0.0,0.0,0.0,0.0,0.0,0.0,,,,,,,,60.0,0.0,0.8495510000000001,-0.068604,0.127197,0.507324,0.286137,-0.008301000000000001,-0.9746239999999999,0.0068319999999999995,-0.025557,-0.025224,,,,,,,,,,,,,,,,,,,,,,,,,,,,,,,,,,,,,,,,,,,,,,,,,,,,,,,,,,,,,,,,,
23194,1648952785.812691,1648952785.828882,121.0,0.0,4443.589844,4464.102539,4463.077147999999,4368.205078,4505.128418,450.0,3.0,73.0,,,,0.0,0.0,0.0,0.0,0.0,0.0,0.0,,,,,,,,,,,,,,,,,,,,,,,,,,,,,,,,,,,,,,,,,,,,,,,,,,,,,,0.0,0.0,32.0,0.093476,1.0,0.0,,,,,,,,,,,,,,,,,,,,,,,,,
23195,1648952785.8205051,1648952785.8366961,122.0,0.0,4381.025879,4650.769043,4370.256348,4289.230957,4296.410156,450.0,3.0,73.0,,,,0.0,0.0,0.0,0.0,0.0,0.0,0.0,,,,,,,,61.0,0.0,0.8495510000000001,-0.068604,0.127197,0.507324,0.289067,-0.014159999999999999,-0.980972,0.009225,-0.025638,-0.029098000000000002,,,,,,,,,,,,,,,,,,,,,,,,,,,,,,,,,,,,,,,,,,,,,,,,,,,,,,,,,,,,,,,,,
23196,1648952785.82832,1648952785.844411,123.0,0.0,4123.077147999999,4861.538574,4275.384765999999,4068.718018,4257.436035,0.0,3.0,73.0,,,,0.0,0.0,0.0,0.0,0.0,0.0,0.0,,,,,,,,,,,,,,,,,,,,,,,,,,,,,,,,,,,,,,,,,,,,,,,,,,,,,,,,,,,,,,,,,,,,,,,,,,,,,,,,,,,,
23197,1648952785.836134,1648952785.852226,124.0,0.0,4276.410156,4627.179688,4275.384765999999,4249.743652,4623.589844,450.0,3.0,73.0,,,,0.0,0.0,0.0,0.0,0.0,0.0,0.0,,,,,,,,62.0,0.0,0.8495510000000001,-0.068604,0.127197,0.507324,0.29102,-0.013184,-0.9863430000000001,0.006593000000000001,-0.025516,-0.032632999999999995,,,,,,,,,,,,,,,,,,,,,,,,,,,,,,,,,,,,,,,,,,,,,,,,,,,,,,,,,,,,,,,,,
23198,1648952785.843949,1648952785.85994,125.0,0.0,4582.563965,4438.974121,4121.025879,4398.461426,4529.230957,450.0,3.0,73.0,,,,0.0,0.0,0.0,0.0,0.0,0.0,0.0,,,,,,,,,,,,,,,,,,,,,,,,,,,,,,,,,,,,,,,,,,,,,,,,,,,,,,0.0,0.0,32.0,0.093476,1.0,0.0,,,,,,,,,,,,,,,,,,,,,,,,,
23199,1648952785.851764,1648952785.8677552,126.0,0.0,4462.563965,4551.282227000001,4162.563965,4111.282227000001,4232.307617,450.0,3.0,73.0,,,,0.0,0.0,0.0,0.0,0.0,0.0,0.0,,,,,,,,63.0,0.0,0.8495510000000001,-0.068604,0.127197,0.507324,0.292973,-0.007324,-0.98146,0.007301,-0.025503,-0.035718,,,,,,,,,,,,,,,,,,,,,,,,,,,,,,,,,,,,,,,,,,,,,,,,,,,,,,,,,,,,,,,,,
23200,1648952785.859578,1648952785.87547,127.0,0.0,4167.692383,4602.563965,4460.512695,4211.282227000001,4365.128418,238.0,3.0,73.0,,,,0.0,0.0,0.0,0.0,0.0,0.0,0.0,,,,,,,,,,,,,,,,,,,,,,,,,,,,,,,,,,,,,,,,,,,,,,,,,,,,,,,,,,,,,,,,,,,,,,,,,,,,,,,,,,,,
23201,1648952785.867393,1648952785.883185,0.0,0.0,4202.563965,4644.102539,4322.563965,4649.230957,4490.256348,450.0,3.0,73.0,,,,0.0,1.0,0.0,0.0,0.0,0.0,0.0,,,,,,,,0.0,0.0,0.8495510000000001,-0.068604,0.127197,0.507324,0.29395,-0.019043,-0.9702299999999999,0.007937999999999999,-0.025443,-0.028825999999999997,,,,,,,,,,,,,,,,,,,,,,,,,,,,,,,,,,,,,,,,,,,,,,,,,,,,,,,,,,,,,,,,,
23202,1648952785.875207,1648952785.891,1.0,0.0,4319.487305,4588.205078,4165.128418,4489.743652,4324.102539,450.0,3.0,73.0,,,,0.0,1.0,0.0,0.0,0.0,0.0,0.0,1.0,0.0,0.0,0.0,0.0,0.0,0.0,,,,,,,,,,,,,1.0,0.0,0.0,,,,,,,,,,,,,,,,,,,,,,,,,,,,,,,,0.0,0.0,32.0,0.102915,1.0,0.0,61.015324,98.849129,112.01168799999999,92.19980600000001,307.57608,160.820404,73.919136,26.788284,76.306702,112.93151100000001,353.42715499999997,208.113678,185.756699,302.86706499999997,94.082413,71.514557,43.218987,83.765007,72.43731700000001,409.492462,22.813698000000002,39.168999,50.832195,71.161438,353.16299399999997
23203,1648952785.883022,1648952785.898814,2.0,0.0,4155.384765999999,4389.230957,4210.256348,4148.717772999999,4347.692383,85.0,3.0,73.0,,,,0.0,1.0,0.0,0.0,0.0,0.0,0.0,,,,,,,,1.0,0.0,0.8495510000000001,-0.068604,0.127197,0.507324,0.286137,-0.009276999999999999,-0.9785309999999999,0.008609,-0.025389,-0.03234,,,,,,,,,,,,,,,,,,,,,,,,,,,,,,,,,,,,,,,,,,,,,,,,,,,,,,,,,,,,,,,,,
23204,1648952785.890836,1648952785.906529,3.0,0.0,4243.077147999999,4512.820313,4034.358887,4411.794922,4574.871582,450.0,3.0,73.0,,,,0.0,1.0,4.0,0.0,0.0,0.0,0.0,,,,,,,,,,,,,,,,,,,,,,,,,,,,,,,,,,,,,,,,,,,,,,,,,,,,,,,,,,,,,,,,,,,,,,,,,,,,,,,,,,,,
23205,1648952785.898651,1648952785.9143438,4.0,0.0,4440.512695,4576.922852000001,3994.8718259999996,4540.512695,4407.692383,16142.0,3.0,73.0,,,,0.0,1.0,4.0,0.0,0.0,0.0,0.0,,,,,,,,2.0,0.0,0.8495510000000001,-0.068604,0.127197,0.507324,0.290532,-0.015137000000000001,-0.99025,0.009164,-0.025438,-0.023002,,,,,,,,,,,,,,,,,,,,,,,,,,,,,,,,,,,,,,,,,,,,,,,,,,,,,,,,,,,,,,,,,
23206,1648952785.906465,1648952785.922059,5.0,0.0,4251.794922,4284.615234000001,4191.282227000001,4168.717772999999,4263.589844,450.0,3.0,73.0,,,,0.0,1.0,4.0,0.0,0.0,0.0,0.0,,,,,,,,,,,,,,,,,,,,,,,,,,,,,,,,,,,,,,,,,,,,,,,,,,,,,,0.0,0.0,32.0,0.102915,1.0,0.0,,,,,,,,,,,,,,,,,,,,,,,,,
23207,1648952785.9142802,1648952785.929773,6.0,0.0,4164.102539,4425.641113000001,4163.077147999999,4164.102539,4388.205078,32.0,3.0,73.0,,,,0.0,1.0,4.0,0.0,0.0,0.0,0.0,,,,,,,,3.0,0.0,0.8495870000000001,-0.068604,0.126953,0.507324,0.272465,-0.016602000000000002,-0.982925,0.011129,-0.025336,-0.027001,,,,,,,,,,,,,,,,,,,,,,,,,,,,,,,,,,,,,,,,,,,,,,,,,,,,,,,,,,,,,,,,,
23208,1648952785.9220939,1648952785.937588,7.0,0.0,4468.717772999999,4724.615234000001,4048.205078,4560.512695,4447.692383,450.0,3.0,73.0,,,,0.0,1.0,4.0,0.0,0.0,0.0,0.0,,,,,,,,,,,,,,,,,,,,,,,,,,,,,,,,,,,,,,,,,,,,,,,,,,,,,,,,,,,,,,,,,,,,,,,,,,,,,,,,,,,,
23209,1648952785.929909,1648952785.945303,8.0,0.0,4424.615234000001,4567.692383,4327.179688,4453.333496,4239.487305,450.0,3.0,73.0,,,,0.0,1.0,4.0,0.0,0.0,0.0,0.0,,,,,,,,4.0,0.0,0.8495510000000001,-0.068604,0.127197,0.507324,0.295415,-0.008789,-0.99025,0.008161,-0.02539,-0.021029,,,,,,,,,,,,,,,,,,,,,,,,,,,,,,,,,,,,,,,,,,,,,,,,,,,,,,,,,,,,,,,,,
23210,1648952785.937724,1648952785.953117,9.0,0.0,4215.897461,4557.436035,4347.179688,4253.846191,4278.974121,18.0,3.0,73.0,,,,0.0,1.0,4.0,0.0,0.0,0.0,0.0,,,,,,,,,,,,,,,,,,,,,,,,,,,,,,,,,,,,,,,,,,,,,,,,,,,,,,0.0,0.0,32.0,0.102915,1.0,0.0,,,,,,,,,,,,,,,,,,,,,,,,,
23211,1648952785.945538,1648952785.960832,10.0,0.0,4383.589844,4704.615234000001,4054.8718259999996,4381.025879,4440.0,450.0,3.0,73.0,,,,0.0,1.0,4.0,0.0,0.0,0.0,0.0,,,,,,,,5.0,0.0,0.8495510000000001,-0.068604,0.127197,0.507324,0.297856,-0.007324,-0.9941559999999999,0.010274,-0.025439,-0.015704,,,,,,,,,,,,,,,,,,,,,,,,,,,,,,,,,,,,,,,,,,,,,,,,,,,,,,,,,,,,,,,,,
23212,1648952785.953353,1648952785.968647,11.0,0.0,4476.410156,4587.179688,4062.0512700000004,4363.589844,4290.256348,13.0,3.0,73.0,,,,0.0,1.0,4.0,0.0,0.0,0.0,0.0,,,,,,,,,,,,,,,,,,,,,,,,,,,,,,,,,,,,,,,,,,,,,,,,,,,,,,,,,,,,,,,,,,,,,,,,,,,,,,,,,,,,
23213,1648952785.961167,1648952785.976362,12.0,0.0,4201.538574,4617.94873,4198.974121,4109.743652,4252.307617,450.0,3.0,73.0,,,,0.0,1.0,4.0,0.0,0.0,0.0,0.0,,,,,,,,6.0,0.0,0.8495510000000001,-0.068604,0.127197,0.507324,0.287602,-0.010254000000000001,-0.9741360000000001,0.009051,-0.025483000000000002,-0.02053,,,,,,,,,,,,,,,,,,,,,,,,,,,,,,,,,,,,,,,,,,,,,,,,,,,,,,,,,,,,,,,,,
23214,1648952785.968982,1648952785.984176,13.0,0.0,4245.128418,4673.333496,4208.717772999999,4227.692383,4544.102539,450.0,3.0,73.0,,,,0.0,1.0,4.0,0.0,0.0,0.0,0.0,,,,,,,,,,,,,,,,,,,,,,,,,,,,,,,,,,,,,,,,,,,,,,,,,,,,,,0.0,0.0,32.0,0.102915,1.0,0.0,,,,,,,,,,,,,,,,,,,,,,,,,
23215,1648952785.9767962,1648952785.991891,14.0,0.0,4551.794922,4483.077147999999,4297.436035,4524.102539,4509.230957,450.0,3.0,73.0,,,,0.0,1.0,4.0,0.0,0.0,0.0,0.0,,,,,,,,7.0,0.0,0.8495510000000001,-0.068604,0.127197,0.507324,0.286625,-0.013672,-0.988785,0.011027,-0.025425,-0.024825,,,,,,,,,,,,,,,,,,,,,,,,,,,,,,,,,,,,,,,,,,,,,,,,,,,,,,,,,,,,,,,,,
23216,1648952785.984611,1648952785.999706,15.0,0.0,4432.307617,4624.102539,4429.230957,4383.589844,4092.820557,13.0,3.0,73.0,,,,0.0,1.0,4.0,0.0,0.0,0.0,0.0,,,,,,,,,,,,,,,,,,,,,,,,,,,,,,,,,,,,,,,,,,,,,,,,,,,,,,,,,,,,,,,,,,,,,,,,,,,,,,,,,,,,
23217,1648952785.992425,1648952786.00752,16.0,0.0,4144.615234000001,4835.897461,4451.282227000001,4107.179688,4212.820313,0.0,3.0,73.0,,,,0.0,1.0,4.0,0.0,0.0,0.0,0.0,,,,,,,,8.0,0.0,0.849405,-0.068604,0.127197,0.507568,0.278325,-0.015137000000000001,-0.9677879999999999,0.008167,-0.025373,-0.01619,,,,,,,,,,,,,,,,,,,,,,,,,,,,,,,,,,,,,,,,,,,,,,,,,,,,,,,,,,,,,,,,,
23218,1648952786.00024,1648952786.015235,17.0,0.0,4312.820313,4555.384765999999,4389.230957,4201.538574,4688.717772999999,0.0,3.0,73.0,,,,0.0,1.0,4.0,0.0,0.0,0.0,0.0,,,,,,,,,,,,,,,,,,,,1.0,0.0,0.0,,,,,,,,,,,,,,,,,,,,,,,,,,,,,,,,0.0,0.0,32.0,0.099816,1.0,0.0,57.89994,86.82688900000001,87.28997,95.744576,318.177979,138.399002,60.484653,25.242231,77.828583,117.49056999999999,377.476776,188.022827,147.49624599999999,314.355927,92.30306999999999,70.091026,41.815605,74.028015,82.725258,405.230499,25.414719,42.288277,47.930939,78.225342,357.910553
23219,1648952786.008055,1648952786.02295,18.0,0.0,4587.692383,4355.384765999999,4154.871582,4431.282227000001,4525.641113000001,0.0,3.0,73.0,,,,0.0,1.0,4.0,0.0,0.0,0.0,0.0,,,,,,,,9.0,0.0,0.849405,-0.068604,0.127197,0.507568,0.292485,-0.018555000000000002,-0.982925,0.008717,-0.025375,-0.011299,,,,,,,,,,,,,,,,,,,,,,,,,,,,,,,,,,,,,,,,,,,,,,,,,,,,,,,,,,,,,,,,,
23220,1648952786.015869,1648952786.030764,19.0,0.0,4450.769043,4513.333496,4009.2307130000004,4225.128418,4167.692383,0.0,3.0,73.0,,,,0.0,1.0,4.0,0.0,0.0,0.0,0.0,,,,,,,,,,,,,,,,,,,,,,,,,,,,,,,,,,,,,,,,,,,,,,,,,,,,,,,,,,,,,,,,,,,,,,,,,,,,,,,,,,,,
23221,1648952786.023684,1648952786.0384789,20.0,0.0,4332.820313,4567.179688,4283.589844,4124.102539,4412.820313,0.0,3.0,73.0,,,,0.0,1.0,4.0,0.0,0.0,0.0,0.0,,,,,,,,10.0,0.0,0.849405,-0.068604,0.127197,0.507568,0.287602,-0.011231,-0.978042,0.009309999999999999,-0.025376,-0.016663999999999998,,,,,,,,,,,,,,,,,,,,,,,,,,,,,,,,,,,,,,,,,,,,,,,,,,,,,,,,,,,,,,,,,
23222,1648952786.031498,1648952786.046294,21.0,0.0,4402.563965,4594.871582,4357.436035,4443.589844,4558.974121,0.0,3.0,73.0,,,,0.0,1.0,4.0,0.0,0.0,0.0,0.0,,,,,,,,,,,,,,,,,,,,,,,,,,,,,,,,,,,,,,,,,,,,,,,,,,,,,,0.0,0.0,32.0,0.099816,1.0,0.0,,,,,,,,,,,,,,,,,,,,,,,,,
23223,1648952786.039313,1648952786.054008,22.0,0.0,4400.0,4698.974121,4146.153809,4390.256348,4274.358886999999,0.0,3.0,73.0,,,,0.0,1.0,4.0,0.0,0.0,0.0,0.0,,,,,,,,11.0,0.0,0.849405,-0.068604,0.127197,0.507568,0.307622,-0.015625,-0.977554,0.009747,-0.025378,-0.021345,,,,,,,,,,,,,,,,,,,,,,,,,,,,,,,,,,,,,,,,,,,,,,,,,,,,,,,,,,,,,,,,,
23224,1648952786.047127,1648952786.061723,23.0,0.0,4207.692383,4510.769043,4254.871582,4025.1281740000004,4308.205078,0.0,3.0,73.0,,,,0.0,1.0,4.0,0.0,0.0,0.0,0.0,,,,,,,,,,,,,,,,,,,,,,,,,,,,,,,,,,,,,,,,,,,,,,,,,,,,,,,,,,,,,,,,,,,,,,,,,,,,,,,,,,,,
23225,1648952786.054942,1648952786.069538,24.0,0.0,4314.871582,4386.666504,4230.769043,4244.102539,4647.692383,0.0,3.0,73.0,,,,0.0,1.0,4.0,0.0,0.0,0.0,0.0,,,,,,,,12.0,0.0,0.849405,-0.068604,0.127197,0.507568,0.288579,-0.020508000000000002,-0.982925,0.010188,-0.025379,-0.025509,,,,,,,,,,,,,,,,,,,,,,,,,,,,,,,,,,,,,,,,,,,,,,,,,,,,,,,,,,,,,,,,,
23226,1648952786.062756,1648952786.077353,25.0,0.0,4598.461426,4603.077147999999,3972.3076170000004,4516.922852000001,4470.769043,0.0,3.0,73.0,,,,0.0,1.0,4.0,0.0,0.0,0.0,0.0,,,,,,,,,,,,,,,,,,,,,,,,,,,,,,,,,,,,,,,,,,,,,,,,,,,,,,0.0,0.0,32.0,0.099816,1.0,0.0,,,,,,,,,,,,,,,,,,,,,,,,,
23227,1648952786.0705712,1648952786.085068,26.0,0.0,4473.846191,4546.153809,4106.666504,4217.94873,4192.307617,0.0,3.0,73.0,,,,0.0,1.0,4.0,0.0,0.0,0.0,0.0,,,,,,,,13.0,0.0,0.849441,-0.068604,0.126953,0.507568,0.290044,-0.001465,-0.982925,0.010683,-0.02538,-0.019785,,,,,,,,,,,,,,,,,,,,,,,,,,,,,,,,,,,,,,,,,,,,,,,,,,,,,,,,,,,,,,,,,
23228,1648952786.0783849,1648952786.092882,27.0,0.0,4126.153809,4281.538574,4391.794922,4156.922852000001,4323.589844,0.0,3.0,73.0,,,,0.0,1.0,4.0,0.0,0.0,0.0,0.0,,,,,,,,,,,,,,,,,,,,,,,,,,,,,,,,,,,,,,,,,,,,,,,,,,,,,,,,,,,,,,,,,,,,,,,,,,,,,,,,,,,,
23229,1648952786.0862,1648952786.1005971,28.0,0.0,4277.436035,4460.0,4167.179688,4587.692383,4495.897461,0.0,3.0,73.0,,,,0.0,1.0,4.0,0.0,0.0,0.0,0.0,,,,,,,,14.0,0.0,0.849441,-0.068604,0.126953,0.507568,0.306157,-0.015625,-0.9668120000000001,0.011079,-0.025333,-0.0243,,,,,,,,,,,,,,,,,,,,,,,,,,,,,,,,,,,,,,,,,,,,,,,,,,,,,,,,,,,,,,,,,
23230,1648952786.0940151,1648952786.108412,29.0,0.0,4517.436035,4655.384765999999,4056.923096,4566.153809,4303.077147999999,0.0,3.0,73.0,,,,0.0,1.0,4.0,0.0,0.0,0.0,0.0,,,,,,,,,,,,,,,,,,,,,,,,,,,,,,,,,,,,,,,,,,,,,,,,,,,,,,0.0,0.0,32.0,0.099816,1.0,0.0,,,,,,,,,,,,,,,,,,,,,,,,,
23231,1648952786.1018288,1648952786.116127,30.0,0.0,4314.358886999999,4497.436035,4070.256348,4224.615234000001,4258.974121,0.0,3.0,73.0,,,,0.0,1.0,4.0,0.0,0.0,0.0,0.0,,,,,,,,15.0,0.0,0.849441,-0.068604,0.126953,0.507568,0.29102,-0.012695999999999999,-0.985367,0.012999,-0.025436,-0.028218,,,,,,,,,,,,,,,,,,,,,,,,,,,,,,,,,,,,,,,,,,,,,,,,,,,,,,,,,,,,,,,,,
23232,1648952786.109644,1648952786.123941,31.0,0.0,4329.743652,4521.025879,3966.1538090000004,4310.769043,4522.05127,0.0,3.0,73.0,,,,0.0,1.0,4.0,0.0,0.0,0.0,0.0,,,,,,,,,,,,,,,,,,,,,,,,,,,,,,,,,,,,,,,,,,,,,,,,,,,,,,,,,,,,,,,,,,,,,,,,,,,,,,,,,,,,
23233,1648952786.117458,1648952786.1316562,32.0,0.0,4594.358886999999,4594.871582,4116.922852000001,4473.846191,4404.102539,0.0,3.0,73.0,,,,0.0,1.0,4.0,0.0,0.0,0.0,0.0,,,,,,,,16.0,0.0,0.849441,-0.068604,0.126953,0.507568,0.290044,-0.016602000000000002,-0.9858549999999999,0.014678,-0.025383000000000003,-0.031842,,,,,,,,,,,,,,,,,,,,,,,,,,,,,,,,,,,,,,,,,,,,,,,,,,,,,,,,,,,,,,,,,
23234,1648952786.125273,1648952786.13937,33.0,0.0,4376.922852000001,4434.871582,4341.538574,4241.025879,4093.8461909999996,0.0,3.0,73.0,,,,0.0,1.0,4.0,0.0,0.0,0.0,0.0,,,,,,,,,,,,,,,,,,,,1.0,0.0,0.0,,,,,,,,,,,,,,,,,,,,,,,,,,,,,,,,0.0,0.0,32.0,0.087398,1.0,0.0,50.771999,69.146675,64.197525,100.78394300000001,327.33727999999996,121.167061,43.548805,23.115139000000003,81.578804,120.71949,400.826965,157.584824,109.600601,329.82885699999997,90.924339,66.10550699999999,40.533501,66.318321,94.15283199999999,399.804535,29.129580999999998,45.579315,41.733643,85.144104,359.822723
23235,1648952786.133087,1648952786.1471848,34.0,0.0,4088.205078,4501.538574,4210.256348,4146.666504,4227.692383,0.0,3.0,73.0,,,,0.0,1.0,4.0,0.0,0.0,0.0,0.0,,,,,,,,17.0,0.0,0.849441,-0.068604,0.126953,0.507568,0.292973,-0.015625,-0.988785,0.014675,-0.025335,-0.035151999999999996,,,,,,,,,,,,,,,,,,,,,,,,,,,,,,,,,,,,,,,,,,,,,,,,,,,,,,,,,,,,,,,,,
23236,1648952786.140902,1648952786.1549,35.0,0.0,4380.512695,4684.102539,4040.0,4489.743652,4525.128418,0.0,3.0,73.0,,,,0.0,1.0,4.0,0.0,0.0,0.0,0.0,,,,,,,,,,,,,,,,,,,,,,,,,,,,,,,,,,,,,,,,,,,,,,,,,,,,,,,,,,,,,,,,,,,,,,,,,,,,,,,,,,,,
23237,1648952786.148716,1648952786.162715,36.0,0.0,4526.153809,4495.384765999999,4127.692383,4501.025879,4357.436035,0.0,3.0,73.0,,,,0.0,1.0,4.0,0.0,0.0,0.0,0.0,,,,,,,,18.0,0.0,0.849441,-0.068604,0.126953,0.507568,0.291997,-0.017578,-0.99025,0.012962999999999999,-0.025243,-0.040914,,,,,,,,,,,,,,,,,,,,,,,,,,,,,,,,,,,,,,,,,,,,,,,,,,,,,,,,,,,,,,,,,
23238,1648952786.156531,1648952786.170529,37.0,0.0,4194.871582,4414.358886999999,4049.743652,4165.128418,4306.666504,0.0,3.0,73.0,,,,0.0,1.0,4.0,0.0,0.0,0.0,0.0,,,,,,,,,,,,,,,,,,,,,,,,,,,,,,,,,,,,,,,,,,,,,,,,,,,,,,0.0,0.0,32.0,0.087398,1.0,0.0,,,,,,,,,,,,,,,,,,,,,,,,,
23239,1648952786.164346,1648952786.1782439,38.0,0.0,4223.077147999999,4661.025879,4004.615479,4146.153809,4559.487305,0.0,3.0,73.0,,,,0.0,1.0,4.0,0.0,0.0,0.0,0.0,,,,,,,,19.0,0.0,0.849441,-0.068604,0.126953,0.507568,0.283696,-0.007324,-0.9907379999999999,0.014644999999999998,-0.025209,-0.043268,,,,,,,,,,,,,,,,,,,,,,,,,,,,,,,,,,,,,,,,,,,,,,,,,,,,,,,,,,,,,,,,,
23240,1648952786.17216,1648952786.185958,39.0,0.0,4591.282227000001,4611.282227000001,4232.307617,4461.025879,4543.077147999999,0.0,3.0,73.0,,,,0.0,1.0,4.0,0.0,0.0,0.0,0.0,,,,,,,,,,,,,,,,,,,,,,,,,,,,,,,,,,,,,,,,,,,,,,,,,,,,,,,,,,,,,,,,,,,,,,,,,,,,,,,,,,,,
23241,1648952786.179975,1648952786.193773,40.0,0.0,4456.410156,4545.128418,4462.05127,4370.769043,4214.358886999999,0.0,3.0,73.0,,,,0.0,1.0,4.0,0.0,0.0,0.0,0.0,,,,,,,,20.0,0.0,0.849441,-0.068604,0.126953,0.507568,0.287602,-0.016602000000000002,-0.987808,0.01445,-0.025227,-0.045288999999999996,,,,,,,,,,,,,,,,,,,,,,,,,,,,,,,,,,,,,,,,,,,,,,,,,,,,,,,,,,,,,,,,,
23242,1648952786.187789,1648952786.201488,41.0,0.0,4214.358886999999,4687.692383,4422.05127,4267.179688,4208.717772999999,0.0,3.0,73.0,,,,0.0,1.0,4.0,0.0,0.0,0.0,0.0,,,,,,,,,,,,,,,,,,,,,,,,,,,,,,,,,,,,,,,,,,,,,,,,,,,,,,0.0,0.0,32.0,0.087398,1.0,0.0,,,,,,,,,,,,,,,,,,,,,,,,,
23243,1648952786.1956038,1648952786.209302,42.0,0.0,4361.538574,4590.769043,4248.717772999999,4431.282227000001,4403.077147999999,0.0,3.0,73.0,,,,0.0,1.0,4.0,0.0,0.0,0.0,0.0,,,,,,,,21.0,0.0,0.849441,-0.068604,0.126953,0.507568,0.291997,-0.017578,-0.99025,0.016033000000000002,-0.025195,-0.047157,,,,,,,,,,,,,,,,,,,,,,,,,,,,,,,,,,,,,,,,,,,,,,,,,,,,,,,,,,,,,,,,,
23244,1648952786.203418,1648952786.217017,43.0,0.0,4462.563965,4455.897461,4180.0,4367.692383,4310.769043,0.0,3.0,73.0,,,,0.0,1.0,4.0,0.0,0.0,0.0,0.0,,,,,,,,,,,,,,,,,,,,,,,,,,,,,,,,,,,,,,,,,,,,,,,,,,,,,,,,,,,,,,,,,,,,,,,,,,,,,,,,,,,,
23245,1648952786.211233,1648952786.224832,44.0,0.0,4205.128418,4677.94873,4150.256348,4102.563965,4294.871582,0.0,3.0,73.0,,,,0.0,1.0,4.0,0.0,0.0,0.0,0.0,,,,,,,,22.0,0.0,0.849441,-0.068604,0.126953,0.507568,0.287602,-0.016602000000000002,-0.987808,0.015699,-0.025214,-0.048789,,,,,,,,,,,,,,,,,,,,,,,,,,,,,,,,,,,,,,,,,,,,,,,,,,,,,,,,,,,,,,,,,
23246,1648952786.219047,1648952786.232547,45.0,0.0,4243.589844,4724.102539,4171.282227000001,4225.128418,4570.769043,0.0,3.0,73.0,,,,0.0,1.0,4.0,0.0,0.0,0.0,0.0,,,,,,,,,,,,,,,,,,,,,,,,,,,,,,,,,,,,,,,,,,,,,,,,,,,,,,0.0,0.0,32.0,0.087398,1.0,0.0,,,,,,,,,,,,,,,,,,,,,,,,,
23247,1648952786.226862,1648952786.240361,46.0,0.0,4530.256348,4438.974121,4357.94873,4529.230957,4526.666504,0.0,3.0,73.0,,,,0.0,1.0,4.0,0.0,0.0,0.0,0.0,,,,,,,,23.0,0.0,0.849405,-0.068604,0.127197,0.507568,0.291508,-0.01709,-0.976577,0.015544999999999998,-0.025183,-0.037806,,,,,,,,,,,,,,,,,,,,,,,,,,,,,,,,,,,,,,,,,,,,,,,,,,,,,,,,,,,,,,,,,
23248,1648952786.234676,1648952786.248076,47.0,0.0,4410.769043,4533.333496,4467.179688,4386.153809,4134.358886999999,0.0,3.0,73.0,,,,0.0,1.0,4.0,0.0,0.0,0.0,0.0,,,,,,,,,,,,,,,,,,,,,,,,,,,,,,,,,,,,,,,,,,,,,,,,,,,,,,,,,,,,,,,,,,,,,,,,,,,,,,,,,,,,
23249,1648952786.242491,1648952786.255891,48.0,0.0,4154.871582,4802.05127,4442.563965,4090.256348,4220.0,0.0,3.0,73.0,,,,0.0,1.0,4.0,0.0,0.0,0.0,0.0,,,,,,,,24.0,0.0,0.849441,-0.068604,0.126953,0.507568,0.291997,-0.007812999999999999,-0.9785309999999999,0.015358000000000002,-0.025204,-0.04052,,,,,,,,,,,,,,,,,,,,,,,,,,,,,,,,,,,,,,,,,,,,,,,,,,,,,,,,,,,,,,,,,
23250,1648952786.2503061,1648952786.263605,49.0,0.0,4320.0,4613.333496,4372.820313,4220.512695,4687.692383,0.0,3.0,73.0,,,,0.0,1.0,4.0,0.0,0.0,0.0,0.0,,,,,,,,,,,,,,,,,,,,1.0,0.0,0.0,,,,,,,,,,,,,,,,,,,,,,,,,,,,,,,,0.0,0.0,32.0,0.096719,1.0,0.0,41.154495000000004,50.279736,48.135742,107.00506599999999,331.192413,109.520752,27.974874,21.21978,88.008774,122.419983,416.734711,124.135429,81.07646899999999,342.359467,89.371941,60.298122,39.549416,62.557137,104.557983,393.27359,34.164536,48.104538,33.660351,90.62258100000001,358.81350699999996
23251,1648952786.2581198,1648952786.27142,50.0,0.0,4586.666504,4384.615234000001,4233.333496,4495.897461,4571.282227000001,0.0,3.0,73.0,,,,0.0,1.0,4.0,0.0,0.0,0.0,0.0,,,,,,,,25.0,0.0,0.8492959999999999,-0.068604,0.126953,0.507813,0.277836,-0.006836,-0.982925,0.013578,-0.025027,-0.030413,,,,,,,,,,,,,,,,,,,,,,,,,,,,,,,,,,,,,,,,,,,,,,,,,,,,,,,,,,,,,,,,,
23252,1648952786.265935,1648952786.279135,51.0,0.0,4436.410156,4542.563965,4204.102539,4276.922852000001,4133.333496,0.0,3.0,73.0,,,,0.0,1.0,4.0,0.0,0.0,0.0,0.0,,,,,,,,,,,,,,,,,,,,,,,,,,,,,,,,,,,,,,,,,,,,,,,,,,,,,,,,,,,,,,,,,,,,,,,,,,,,,,,,,,,,
23253,1648952786.273749,1648952786.286949,52.0,0.0,4260.0,4655.384765999999,4451.282227000001,4148.717772999999,4284.615234000001,0.0,3.0,73.0,,,,0.0,1.0,4.0,0.0,0.0,0.0,0.0,,,,,,,,26.0,0.0,0.8492959999999999,-0.068604,0.126953,0.507813,0.28809,-0.002441,-0.973159,0.01349,-0.025015,-0.033817,,,,,,,,,,,,,,,,,,,,,,,,,,,,,,,,,,,,,,,,,,,,,,,,,,,,,,,,,,,,,,,,,
23254,1648952786.281564,1648952786.2946641,53.0,0.0,4292.307617,4638.974121,4425.641113000001,4442.563965,4515.384765999999,0.0,3.0,73.0,,,,0.0,1.0,4.0,0.0,0.0,0.0,0.0,,,,,,,,,,,,,,,,,,,,,,,,,,,,,,,,,,,,,,,,,,,,,,,,,,,,,,0.0,0.0,32.0,0.096719,1.0,0.0,,,,,,,,,,,,,,,,,,,,,,,,,
23255,1648952786.289378,1648952786.3024788,54.0,0.0,4349.230957,4691.282227000001,4155.384765999999,4336.922852000001,4336.410156,0.0,3.0,73.0,,,,0.0,1.0,4.0,0.0,0.0,0.0,0.0,,,,,,,,27.0,0.0,0.849441,-0.068604,0.126953,0.507568,0.300298,-0.008301000000000001,-0.988785,0.013606,-0.025101,-0.036881,,,,,,,,,,,,,,,,,,,,,,,,,,,,,,,,,,,,,,,,,,,,,,,,,,,,,,,,,,,,,,,,,
23256,1648952786.297193,1648952786.310194,55.0,0.0,4226.153809,4586.153809,4235.384765999999,4030.7692869999996,4324.615234000001,0.0,3.0,73.0,,,,0.0,1.0,4.0,0.0,0.0,0.0,0.0,,,,,,,,,,,,,,,,,,,,,,,,,,,,,,,,,,,,,,,,,,,,,,,,,,,,,,,,,,,,,,,,,,,,,,,,,,,,,,,,,,,,
23257,1648952786.305007,1648952786.317908,56.0,0.0,4314.358886999999,4543.077147999999,4158.974121,4365.641113000001,4619.487305,0.0,3.0,73.0,,,,0.0,1.0,4.0,0.0,0.0,0.0,0.0,,,,,,,,28.0,0.0,0.8492959999999999,-0.068604,0.126953,0.507813,0.283696,-0.01709,-0.98439,0.010584999999999999,-0.02513,-0.029872000000000003,,,,,,,,,,,,,,,,,,,,,,,,,,,,,,,,,,,,,,,,,,,,,,,,,,,,,,,,,,,,,,,,,
23258,1648952786.312822,1648952786.325723,57.0,0.0,4564.102539,4596.922852000001,3927.6923829999996,4566.153809,4456.410156,0.0,3.0,73.0,,,,0.0,1.0,4.0,0.0,0.0,0.0,0.0,,,,,,,,,,,,,,,,,,,,,,,,,,,,,,,,,,,,,,,,,,,,,,,,,,,,,,0.0,0.0,32.0,0.096719,1.0,0.0,,,,,,,,,,,,,,,,,,,,,,,,,
23259,1648952786.320636,1648952786.3334382,58.0,0.0,4422.05127,4409.230957,4054.8718259999996,4191.282227000001,4238.974121,0.0,3.0,73.0,,,,0.0,1.0,4.0,0.0,0.0,0.0,0.0,,,,,,,,29.0,0.0,0.8492959999999999,-0.068604,0.126953,0.507813,0.285161,-0.005371,-0.993667,0.007670999999999999,-0.025156,-0.020733,,,,,,,,,,,,,,,,,,,,,,,,,,,,,,,,,,,,,,,,,,,,,,,,,,,,,,,,,,,,,,,,,
23260,1648952786.328451,1648952786.3412519,59.0,0.0,4163.589844,4405.128418,4243.589844,4189.230957,4430.769043,0.0,3.0,73.0,,,,0.0,1.0,4.0,0.0,0.0,0.0,0.0,,,,,,,,,,,,,,,,,,,,,,,,,,,,,,,,,,,,,,,,,,,,,,,,,,,,,,,,,,,,,,,,,,,,,,,,,,,,,,,,,,,,
23261,1648952786.336266,1648952786.348967,60.0,0.0,4417.94873,4682.05127,4084.615479,4588.717772999999,4524.102539,0.0,3.0,73.0,,,,0.0,1.0,4.0,0.0,0.0,0.0,0.0,,,,,,,,30.0,0.0,0.849441,-0.068604,0.126953,0.507568,0.29639099999999996,-0.011231,-0.9868309999999999,0.005097,-0.025228999999999998,-0.015486000000000002,,,,,,,,,,,,,,,,,,,,,,,,,,,,,,,,,,,,,,,,,,,,,,,,,,,,,,,,,,,,,,,,,
23262,1648952786.34408,1648952786.356782,61.0,0.0,4430.769043,4568.205078,4144.615234000001,4455.897461,4255.384765999999,0.0,3.0,73.0,,,,0.0,1.0,4.0,0.0,0.0,0.0,0.0,,,,,,,,,,,,,,,,,,,,,,,,,,,,,,,,,,,,,,,,,,,,,,,,,,,,,,0.0,0.0,32.0,0.096719,1.0,0.0,,,,,,,,,,,,,,,,,,,,,,,,,
23263,1648952786.3518949,1648952786.3644972,62.0,0.0,4000.0,4392.820313,4206.153809,4210.769043,4248.205078,0.0,3.0,73.0,,,,0.0,1.0,4.0,0.0,0.0,0.0,0.0,,,,,,,,31.0,0.0,0.849441,-0.068604,0.126953,0.507568,0.290044,-0.0063479999999999995,-0.98146,0.007566,-0.025294,-0.020382,,,,,,,,,,,,,,,,,,,,,,,,,,,,,,,,,,,,,,,,,,,,,,,,,,,,,,,,,,,,,,,,,
23264,1648952786.359709,1648952786.3723109,63.0,0.0,4194.871582,4593.333496,4014.358887,4410.769043,4546.153809,0.0,3.0,73.0,,,,0.0,1.0,4.0,0.0,0.0,0.0,0.0,,,,,,,,,,,,,,,,,,,,,,,,,,,,,,,,,,,,,,,,,,,,,,,,,,,,,,,,,,,,,,,,,,,,,,,,,,,,,,,,,,,,
23265,1648952786.367524,1648952786.3800259,64.0,0.0,4565.128418,4484.102539,4025.1281740000004,4411.794922,4467.692383,450.0,3.0,73.0,,,,0.0,1.0,4.0,0.0,0.0,0.0,0.0,,,,,,,,32.0,0.0,0.8494780000000001,-0.068604,0.126709,0.507568,0.280278,-0.022461000000000002,-0.989273,0.006663,-0.025255,-0.01517,,,,,,,,,,,,,,,,,,,,,,,,,,,,,,,,,,,,,,,,,,,,,,,,,,,,,,,,,,,,,,,,,
23266,1648952786.375338,1648952786.387841,65.0,0.0,4236.410156,4280.0,4175.897461,4074.358887,4195.384765999999,450.0,3.0,73.0,,,,0.0,1.0,4.0,0.0,0.0,0.0,0.0,1.0,0.0,0.0,0.0,0.0,0.0,0.0,,,,,,,,,,,,,1.0,0.0,0.0,,,,,,,,,,,,,,,,,,,,,,,,,,,,,,,,0.0,0.0,32.0,0.081559,1.0,0.0,32.479568,34.402042,40.566829999999996,113.889923,327.646881,103.07164,18.102007,20.321587,96.112755,123.763062,420.359283,93.765373,64.58129100000001,346.565002,87.81504100000001,55.198268999999996,38.471764,61.87516,112.430916,386.308563,40.405762,48.569107,25.80817,94.24807,356.130188
23267,1648952786.383153,1648952786.395555,66.0,0.0,4081.025635,4549.230957,4178.461426,4116.922852000001,4270.256348,6.0,3.0,73.0,,,,0.0,0.0,4.0,0.0,0.0,0.0,0.0,,,,,,,,33.0,0.0,0.8494780000000001,-0.068604,0.126709,0.507568,0.286625,-0.0043950000000000005,-0.9863430000000001,0.008975,-0.025219,-0.02298,,,,,,,,,,,,,,,,,,,,,,,,,,,,,,,,,,,,,,,,,,,,,,,,,,,,,,,,,,,,,,,,,
23268,1648952786.390967,1648952786.40337,67.0,0.0,4517.436035,4633.846191,4190.256348,4531.794922,4502.563965,450.0,3.0,73.0,,,,0.0,0.0,4.0,0.0,0.0,0.0,0.0,,,,,,,,,,,,,,,,,,,,,,,,,,,,,,,,,,,,,,,,,,,,,,,,,,,,,,,,,,,,,,,,,,,,,,,,,,,,,,,,,,,,
23269,1648952786.398782,1648952786.411085,68.0,0.0,4556.922852000001,4485.641113000001,4233.333496,4508.717772999999,4302.05127,269.0,3.0,73.0,,,,0.0,0.0,2.0,0.0,0.0,0.0,0.0,,,,,,,,34.0,0.0,0.8494780000000001,-0.068604,0.126709,0.507568,0.290044,-0.009766,-0.9746239999999999,0.009445,-0.025334,-0.027127,,,,,,,,,,,,,,,,,,,,,,,,,,,,,,,,,,,,,,,,,,,,,,,,,,,,,,,,,,,,,,,,,
23270,1648952786.4065971,1648952786.418899,69.0,0.0,4232.307617,4652.820313,4065.1281740000004,4208.205078,4201.025879,450.0,3.0,73.0,,,,0.0,0.0,2.0,0.0,0.0,0.0,0.0,,,,,,,,,,,,,,,,,,,,,,,,,,,,,,,,,,,,,,,,,,,,,,,,,,,,,,0.0,0.0,32.0,0.081559,1.0,0.0,,,,,,,,,,,,,,,,,,,,,,,,,
23271,1648952786.4144108,1648952786.426614,70.0,0.0,4311.282227000001,4715.897461,4113.333496,4150.256348,4565.128418,166.0,3.0,73.0,,,,0.0,0.0,2.0,1.0,0.0,0.0,0.0,,,,,,,,35.0,0.0,0.849441,-0.068604,0.126953,0.507568,0.302739,-0.0058590000000000005,-0.976089,0.009868,-0.025389,-0.018359999999999998,,,,,,,,,,,,,,,,,,,,,,,,,,,,,,,,,,,,,,,,,,,,,,,,,,,,,,,,,,,,,,,,,
23272,1648952786.422226,1648952786.434429,71.0,0.0,4591.282227000001,4506.666504,4328.205078,4350.256348,4615.384765999999,450.0,3.0,73.0,,,,0.0,0.0,2.0,1.0,0.0,0.0,0.0,,,,,,,,,,,,,,,,,,,,,,,,,,,,,,,,,,,,,,,,,,,,,,,,,,,,,,,,,,,,,,,,,,,,,,,,,,,,,,,,,,,,
23273,1648952786.4300401,1648952786.442143,72.0,0.0,4446.666504,4595.384765999999,4287.692383,4311.794922,4154.871582,450.0,3.0,73.0,,,,0.0,0.0,2.0,1.0,2.0,0.0,8.333333,,,,,,,,36.0,0.0,0.849441,-0.068604,0.126953,0.507568,0.293462,-0.003906,-0.9834129999999999,0.007025,-0.025389,-0.01335,,,,,,,,,,,,,,,,,,,,,,,,,,,,,,,,,,,,,,,,,,,,,,,,,,,,,,,,,,,,,,,,,
23274,1648952786.437855,1648952786.449958,73.0,0.0,4270.769043,4649.230957,4221.538574,4279.487305,4122.05127,146.0,3.0,73.0,,,,0.0,0.0,2.0,1.0,2.0,0.0,8.333333,,,,,,,,,,,,,,,,,,,,,,,,,,,,,,,,,,,,,,,,,,,,,,,,,,,,,,0.0,0.0,32.0,0.081559,1.0,0.0,,,,,,,,,,,,,,,,,,,,,,,,,
23275,1648952786.445669,1648952786.457673,74.0,0.0,4398.461426,4405.128418,4368.717772999999,4423.589844,4409.743652,450.0,3.0,73.0,,,,0.0,0.0,2.0,1.0,2.0,0.0,8.333333,,,,,,,,37.0,0.0,0.849441,-0.068604,0.126953,0.507568,0.289067,-0.008301000000000001,-0.9834129999999999,0.007739,-0.025438,-0.018363,,,,,,,,,,,,,,,,,,,,,,,,,,,,,,,,,,,,,,,,,,,,,,,,,,,,,,,,,,,,,,,,,
23276,1648952786.453484,1648952786.4654882,75.0,0.0,4454.871582,4508.205078,4376.922852000001,4358.974121,4336.410156,0.0,3.0,73.0,,,,0.0,0.0,2.0,1.0,2.0,0.0,8.333333,,,,,,,,,,,,,,,,,,,,,,,,,,,,,,,,,,,,,,,,,,,,,,,,,,,,,,,,,,,,,,,,,,,,,,,,,,,,,,,,,,,,
23277,1648952786.461298,1648952786.473202,76.0,0.0,4201.538574,4810.769043,4177.436035,4107.692383,4316.922852000001,450.0,3.0,73.0,,,,0.0,0.0,2.0,1.0,2.0,0.0,8.333333,,,,,,,,38.0,0.0,0.849441,-0.068604,0.126953,0.507568,0.301762,-0.014159999999999999,-0.9863430000000001,0.005207,-0.025384,-0.013304,,,,,,,,,,,,,,,,,,,,,,,,,,,,,,,,,,,,,,,,,,,,,,,,,,,,,,,,,,,,,,,,,
23278,1648952786.469113,1648952786.480917,77.0,0.0,4248.717772999999,4646.666504,4168.717772999999,4240.0,4598.461426,450.0,3.0,73.0,,,,0.0,0.0,2.0,1.0,2.0,0.0,8.333333,,,,,,,,,,,,,,,,,,,,,,,,,,,,,,,,,,,,,,,,,,,,,,,,,,,,,,0.0,0.0,32.0,0.081559,1.0,0.0,,,,,,,,,,,,,,,,,,,,,,,,,
23279,1648952786.476927,1648952786.488732,78.0,0.0,4522.563965,4389.743652,4356.922852000001,4535.897461,4492.307617,450.0,3.0,73.0,,,,0.0,0.0,2.0,1.0,2.0,0.0,8.333333,,,,,,,,39.0,0.0,0.849441,-0.068604,0.126953,0.507568,0.287602,-0.00293,-0.988296,0.0060539999999999995,-0.025483000000000002,-0.018419,,,,,,,,,,,,,,,,,,,,,,,,,,,,,,,,,,,,,,,,,,,,,,,,,,,,,,,,,,,,,,,,,
23280,1648952786.484742,1648952786.4964461,79.0,0.0,4418.974121,4625.641113000001,4483.589844,4344.102539,4136.410156,0.0,3.0,73.0,,,,0.0,0.0,2.0,1.0,2.0,0.0,8.333333,,,,,,,,,,,,,,,,,,,,,,,,,,,,,,,,,,,,,,,,,,,,,,,,,,,,,,,,,,,,,,,,,,,,,,,,,,,,,,,,,,,,
23281,1648952786.492557,1648952786.504261,80.0,0.0,4158.974121,4755.897461,4512.307617,4170.769043,4265.128418,450.0,3.0,73.0,,,,0.0,0.0,2.0,1.0,2.0,0.0,8.333333,,,,,,,,40.0,0.0,0.849441,-0.068604,0.126953,0.507568,0.291508,-0.014159999999999999,-0.981949,0.006815000000000001,-0.025474,-0.010522,,,,,,,,,,,,,,,,,,,,,,,,,,,,,,,,,,,,,,,,,,,,,,,,,,,,,,,,,,,,,,,,,
23282,1648952786.500371,1648952786.511976,81.0,0.0,4252.307617,4502.05127,4285.128418,4500.512695,4550.769043,450.0,3.0,73.0,,,,0.0,0.0,2.0,1.0,2.0,0.0,8.333333,,,,,,,,,,,,,,,,,,,,1.0,0.0,0.0,,,,,,,,,,,,,,,,,,,,,,,,,,,,,,,,0.0,0.0,32.0,0.09425700000000001,1.0,0.0,27.799685999999998,23.463367,39.496941,120.528419,317.763336,100.47551,15.451770999999999,20.844148999999998,103.672028,126.60740700000001,410.724243,70.42662800000001,58.385318999999996,341.51239,86.995712,53.741535,36.815426,61.75877,117.084732,379.677277,46.936337,46.148838,20.947454,96.57755300000001,353.318207
23283,1648952786.5081859,1648952786.51979,82.0,0.0,4466.153809,4549.230957,4060.0,4591.794922,4382.563965,450.0,3.0,73.0,,,,0.0,0.0,2.0,1.0,2.0,0.0,8.333333,,,,,,,,41.0,0.0,0.849441,-0.068604,0.126953,0.507568,0.29443800000000003,-0.016114,-0.973159,0.005987,-0.025514,-0.018796,,,,,,,,,,,,,,,,,,,,,,,,,,,,,,,,,,,,,,,,,,,,,,,,,,,,,,,,,,,,,,,,,
23284,1648952786.516,1648952786.5275052,83.0,0.0,4369.230957,4733.333496,4093.8461909999996,4095.897461,4216.922852000001,0.0,3.0,73.0,,,,0.0,0.0,2.0,1.0,2.0,0.0,8.333333,,,,,,,,,,,,,,,,,,,,,,,,,,,,,,,,,,,,,,,,,,,,,,,,,,,,,,,,,,,,,,,,,,,,,,,,,,,,,,,,,,,,
23285,1648952786.5238152,1648952786.5353198,84.0,0.0,4387.692383,4577.94873,4162.563965,4061.538574,4501.025879,450.0,3.0,73.0,,,,0.0,0.0,2.0,1.0,2.0,0.0,8.333333,,,,,,,,42.0,0.0,0.849441,-0.068604,0.126953,0.507568,0.292485,-0.018067,-0.9907379999999999,0.0036799999999999997,-0.0256,-0.013743,,,,,,,,,,,,,,,,,,,,,,,,,,,,,,,,,,,,,,,,,,,,,,,,,,,,,,,,,,,,,,,,,
23286,1648952786.5316288,1648952786.543035,85.0,0.0,4502.563965,4496.922852000001,4090.256348,4527.692383,4481.025879,450.0,3.0,73.0,,,,0.0,0.0,2.0,1.0,2.0,0.0,8.333333,,,,,,,,,,,,,,,,,,,,,,,,,,,,,,,,,,,,,,,,,,,,,,,,,,,,,,0.0,0.0,32.0,0.09425700000000001,1.0,0.0,,,,,,,,,,,,,,,,,,,,,,,,,
23287,1648952786.539444,1648952786.550849,86.0,0.0,4391.282227000001,4553.846191,4176.922852000001,4404.615234000001,4161.538574,450.0,3.0,73.0,,,,0.0,0.0,2.0,1.0,2.0,0.0,8.333333,,,,,,,,43.0,0.0,0.849441,-0.068604,0.126953,0.507568,0.287114,-0.011231,-0.984878,0.004728,-0.025675999999999997,-0.018765,,,,,,,,,,,,,,,,,,,,,,,,,,,,,,,,,,,,,,,,,,,,,,,,,,,,,,,,,,,,,,,,,
23288,1648952786.547259,1648952786.558564,87.0,0.0,4173.846191,4386.666504,4318.461426,4086.6667479999996,4300.0,0.0,3.0,73.0,,,,0.0,0.0,2.0,1.0,2.0,0.0,8.333333,,,,,,,,,,,,,,,,,,,,,,,,,,,,,,,,,,,,,,,,,,,,,,,,,,,,,,,,,,,,,,,,,,,,,,,,,,,,,,,,,,,,
23289,1648952786.555073,1648952786.5663788,88.0,0.0,4313.333496,4480.512695,4061.538574,4407.179688,4656.922852000001,450.0,3.0,73.0,,,,0.0,0.0,2.0,1.0,2.0,0.0,8.333333,,,,,,,,44.0,0.0,0.849441,-0.068604,0.126953,0.507568,0.29688000000000003,-0.025391,-0.993667,0.007234,-0.025697,-0.023285,,,,,,,,,,,,,,,,,,,,,,,,,,,,,,,,,,,,,,,,,,,,,,,,,,,,,,,,,,,,,,,,,
23290,1648952786.5628881,1648952786.5740929,89.0,0.0,4466.153809,4658.461426,3997.9487299999996,4543.589844,4408.205078,450.0,3.0,73.0,,,,0.0,0.0,2.0,1.0,2.0,0.0,8.333333,,,,,,,,,,,,,,,,,,,,,,,,,,,,,,,,,,,,,,,,,,,,,,,,,,,,,,0.0,0.0,32.0,0.09425700000000001,1.0,0.0,,,,,,,,,,,,,,,,,,,,,,,,,
23291,1648952786.5707018,1648952786.581908,90.0,0.0,4281.025879,4434.871582,4084.102539,4239.487305,4265.128418,450.0,3.0,73.0,,,,0.0,0.0,2.0,1.0,2.0,0.0,8.333333,,,,,,,,45.0,0.0,0.849441,-0.068604,0.126953,0.507568,0.293462,-0.019043,-0.9790190000000001,0.006461,-0.025519999999999998,-0.017783,,,,,,,,,,,,,,,,,,,,,,,,,,,,,,,,,,,,,,,,,,,,,,,,,,,,,,,,,,,,,,,,,
23292,1648952786.578517,1648952786.589623,91.0,0.0,4339.487305,4410.769043,4064.615479,4222.05127,4561.025879,0.0,3.0,73.0,,,,0.0,0.0,2.0,1.0,2.0,0.0,8.333333,,,,,,,,,,,,,,,,,,,,,,,,,,,,,,,,,,,,,,,,,,,,,,,,,,,,,,,,,,,,,,,,,,,,,,,,,,,,,,,,,,,,
23293,1648952786.5863311,1648952786.597437,92.0,0.0,4676.922852000001,4636.922852000001,4127.692383,4425.128418,4470.256348,450.0,3.0,73.0,,,,0.0,0.0,2.0,1.0,2.0,0.0,8.333333,,,,,,,,46.0,0.0,0.849441,-0.068604,0.126953,0.507568,0.27881300000000003,-0.005371,-0.976089,0.0056689999999999996,-0.025507,-0.022303,,,,,,,,,,,,,,,,,,,,,,,,,,,,,,,,,,,,,,,,,,,,,,,,,,,,,,,,,,,,,,,,,
23294,1648952786.594146,1648952786.605152,93.0,0.0,4520.0,4706.153809,4280.0,4266.666504,4078.461426,450.0,3.0,73.0,,,,0.0,0.0,2.0,1.0,2.0,0.0,8.333333,,,,,,,,,,,,,,,,,,,,,,,,,,,,,,,,,,,,,,,,,,,,,,,,,,,,,,0.0,0.0,32.0,0.09425700000000001,1.0,0.0,,,,,,,,,,,,,,,,,,,,,,,,,
23295,1648952786.60196,1648952786.613067,94.0,0.0,4211.794922,4665.128418,4287.179688,4210.256348,4237.94873,450.0,3.0,73.0,,,,0.0,0.0,2.0,1.0,2.0,0.0,8.333333,,,,,,,,47.0,0.0,0.8492959999999999,-0.068604,0.126953,0.507813,0.299321,-0.011719,-0.961929,0.006518,-0.025544,-0.026372000000000003,,,,,,,,,,,,,,,,,,,,,,,,,,,,,,,,,,,,,,,,,,,,,,,,,,,,,,,,,,,,,,,,,
23296,1648952786.609775,1648952786.620882,95.0,0.0,4395.897461,4548.205078,4263.077147999999,4528.205078,4529.230957,0.0,3.0,73.0,,,,0.0,0.0,2.0,1.0,2.0,0.0,8.333333,,,,,,,,,,,,,,,,,,,,,,,,,,,,,,,,,,,,,,,,,,,,,,,,,,,,,,,,,,,,,,,,,,,,,,,,,,,,,,,,,,,,
23297,1648952786.617589,1648952786.6286972,96.0,0.0,4487.179688,4551.794922,4248.205078,4503.077147999999,4220.512695,450.0,3.0,73.0,,,,0.0,0.0,2.0,1.0,2.0,0.0,8.333333,,,,,,,,48.0,0.0,0.8492959999999999,-0.068604,0.126953,0.507813,0.292973,-0.009766,-0.9858549999999999,0.007331,-0.025529,-0.017582,,,,,,,,,,,,,,,,,,,,,,,,,,,,,,,,,,,,,,,,,,,,,,,,,,,,,,,,,,,,,,,,,
23298,1648952786.625404,1648952786.636411,97.0,0.0,4225.641113000001,4754.358886999999,4235.384765999999,4124.615234000001,4150.256348,450.0,3.0,73.0,,,,0.0,0.0,2.0,1.0,2.0,0.0,8.333333,,,,,,,,,,,,,,,,,,,,1.0,0.0,0.0,,,,,,,,,,,,,,,,,,,,,,,,,,,,,,,,0.0,0.0,32.0,0.102265,1.0,0.0,28.082909,17.445311,41.614445,125.278648,305.622192,100.649284,18.057854000000003,22.244562,108.08641100000001,132.33273300000002,393.231232,54.751381,60.000519,330.298065,87.664261,56.95468100000001,34.596973,59.90158100000001,118.770706,374.424622,52.192828999999996,41.071037,20.973132999999997,98.816704,351.425415
23299,1648952786.633218,1648952786.644226,98.0,0.0,4300.0,4656.922852000001,4341.025879,4116.922852000001,4601.025879,450.0,3.0,73.0,,,,0.0,0.0,2.0,1.0,2.0,0.0,8.333333,,,,,,,,49.0,0.0,0.849441,-0.068604,0.126953,0.507568,0.27881300000000003,-0.005371,-0.976089,0.009625,-0.025466,-0.022123,,,,,,,,,,,,,,,,,,,,,,,,,,,,,,,,,,,,,,,,,,,,,,,,,,,,,,,,,,,,,,,,,
23300,1648952786.641033,1648952786.651941,99.0,0.0,4561.538574,4428.205078,4189.230957,4393.333496,4567.692383,0.0,3.0,73.0,,,,0.0,0.0,2.0,1.0,2.0,0.0,8.333333,,,,,,,,,,,,,,,,,,,,,,,,,,,,,,,,,,,,,,,,,,,,,,,,,,,,,,,,,,,,,,,,,,,,,,,,,,,,,,,,,,,,
23301,1648952786.648848,1648952786.659756,100.0,0.0,4445.641113000001,4636.922852000001,4011.281982,4247.692383,4131.282227000001,450.0,3.0,73.0,,,,0.0,0.0,2.0,1.0,2.0,0.0,8.333333,,,,,,,,50.0,0.0,0.8492959999999999,-0.068604,0.126953,0.507813,0.292973,-0.009766,-0.9858549999999999,0.010128,-0.025459,-0.013758000000000001,,,,,,,,,,,,,,,,,,,,,,,,,,,,,,,,,,,,,,,,,,,,,,,,,,,,,,,,,,,,,,,,,
23302,1648952786.656662,1648952786.66747,101.0,0.0,4308.205078,4664.615234000001,4349.230957,4167.179688,4283.589844,450.0,3.0,73.0,,,,0.0,0.0,2.0,1.0,2.0,0.0,8.333333,,,,,,,,,,,,,,,,,,,,,,,,,,,,,,,,,,,,,,,,,,,,,,,,,,,,,,0.0,0.0,32.0,0.102265,1.0,0.0,,,,,,,,,,,,,,,,,,,,,,,,,
23303,1648952786.6644769,1648952786.6752849,102.0,0.0,4336.922852000001,4394.871582,4570.769043,4335.384765999999,4576.922852000001,450.0,3.0,73.0,,,,0.0,0.0,2.0,1.0,2.0,0.0,8.333333,,,,,,,,51.0,0.0,0.849441,-0.068604,0.126953,0.507568,0.285649,-0.0058590000000000005,-0.9785309999999999,0.007356999999999999,-0.025549000000000002,-0.00916,,,,,,,,,,,,,,,,,,,,,,,,,,,,,,,,,,,,,,,,,,,,,,,,,,,,,,,,,,,,,,,,,
23304,1648952786.672291,1648952786.683,103.0,0.0,4356.922852000001,4586.153809,4263.589844,4251.282227000001,4351.282227000001,0.0,3.0,73.0,,,,0.0,0.0,2.0,1.0,2.0,0.0,8.333333,,,,,,,,,,,,,,,,,,,,,,,,,,,,,,,,,,,,,,,,,,,,,,,,,,,,,,,,,,,,,,,,,,,,,,,,,,,,,,,,,,,,
23305,1648952786.6801062,1648952786.6907141,104.0,0.0,4205.641113000001,4880.0,4081.538574,4034.8718259999996,4262.563965,450.0,3.0,73.0,,,,0.0,0.0,2.0,1.0,2.0,0.0,8.333333,,,,,,,,52.0,0.0,0.849276,-0.068848,0.126953,0.507813,0.281254,-0.007812999999999999,-0.980972,0.007940000000000001,-0.025631,-0.01464,,,,,,,,,,,,,,,,,,,,,,,,,,,,,,,,,,,,,,,,,,,,,,,,,,,,,,,,,,,,,,,,,
23306,1648952786.6879199,1648952786.698529,105.0,0.0,4334.358886999999,4654.871582,4154.358886999999,4228.717772999999,4575.384765999999,450.0,3.0,73.0,,,,0.0,0.0,2.0,1.0,2.0,0.0,8.333333,,,,,,,,,,,,,,,,,,,,,,,,,,,,,,,,,,,,,,,,,,,,,,,,,,,,,,0.0,0.0,32.0,0.102265,1.0,0.0,,,,,,,,,,,,,,,,,,,,,,,,,
23307,1648952786.695735,1648952786.706344,106.0,0.0,4590.769043,4449.230957,4193.333496,4384.615234000001,4516.410156,450.0,3.0,73.0,,,,0.0,0.0,2.0,1.0,2.0,0.0,8.333333,,,,,,,,53.0,0.0,0.8494219999999999,-0.068848,0.126953,0.507568,0.299321,-0.018555000000000002,-0.989273,0.008513,-0.025606999999999998,-0.007073,,,,,,,,,,,,,,,,,,,,,,,,,,,,,,,,,,,,,,,,,,,,,,,,,,,,,,,,,,,,,,,,,
23308,1648952786.70355,1648952786.714058,107.0,0.0,4446.153809,4631.282227000001,4278.461426,4156.410156,4209.230957,0.0,3.0,73.0,,,,0.0,0.0,2.0,1.0,2.0,0.0,8.333333,,,,,,,,,,,,,,,,,,,,,,,,,,,,,,,,,,,,,,,,,,,,,,,,,,,,,,,,,,,,,,,,,,,,,,,,,,,,,,,,,,,,
23309,1648952786.711364,1648952786.7217731,108.0,0.0,4106.153809,4643.589844,4431.794922,4154.871582,4291.794922,450.0,3.0,73.0,,,,0.0,0.0,2.0,1.0,2.0,0.0,8.333333,,,,,,,,54.0,0.0,0.8494219999999999,-0.068848,0.126953,0.507568,0.291997,-0.007812999999999999,-0.988296,0.009078,-0.025731999999999998,-0.012762,,,,,,,,,,,,,,,,,,,,,,,,,,,,,,,,,,,,,,,,,,,,,,,,,,,,,,,,,,,,,,,,,
23310,1648952786.719179,1648952786.729588,109.0,0.0,4242.563965,4527.692383,4201.538574,4577.436035,4550.256348,450.0,3.0,73.0,,,,0.0,0.0,2.0,1.0,2.0,0.0,8.333333,,,,,,,,,,,,,,,,,,,,,,,,,,,,,,,,,,,,,,,,,,,,,,,,,,,,,,0.0,0.0,32.0,0.102265,1.0,0.0,,,,,,,,,,,,,,,,,,,,,,,,,
23311,1648952786.726993,1648952786.737302,110.0,0.0,4603.589844,4656.922852000001,3929.2307130000004,4544.102539,4373.846191,450.0,3.0,73.0,,,,0.0,0.0,2.0,1.0,2.0,0.0,8.333333,,,,,,,,55.0,0.0,0.8494219999999999,-0.068848,0.126953,0.507568,0.293462,-0.02002,-0.9824370000000001,0.008023,-0.025796,-0.008263,,,,,,,,,,,,,,,,,,,,,,,,,,,,,,,,,,,,,,,,,,,,,,,,,,,,,,,,,,,,,,,,,
23312,1648952786.734808,1648952786.745117,111.0,0.0,4479.487305,4638.461426,4072.3076170000004,4008.205078,4213.846191,0.0,3.0,73.0,,,,0.0,0.0,2.0,1.0,2.0,0.0,8.333333,,,,,,,,,,,,,,,,,,,,,,,,,,,,,,,,,,,,,,,,,,,,,,,,,,,,,,,,,,,,,,,,,,,,,,,,,,,,,,,,,,,,
23313,1648952786.7426221,1648952786.752832,112.0,0.0,4214.358886999999,4422.05127,4338.461426,4108.717772999999,4452.307617,450.0,3.0,73.0,,,,0.0,0.0,2.0,1.0,2.0,0.0,8.333333,,,,,,,,56.0,0.0,0.849458,-0.068848,0.126709,0.507568,0.291508,-0.007812999999999999,-0.9785309999999999,0.007075,-0.025852999999999998,-0.013833000000000002,,,,,,,,,,,,,,,,,,,,,,,,,,,,,,,,,,,,,,,,,,,,,,,,,,,,,,,,,,,,,,,,,
23314,1648952786.750437,1648952786.760646,113.0,0.0,4305.128418,4466.666504,4251.794922,4579.487305,4454.871582,450.0,3.0,73.0,,,,0.0,0.0,2.0,1.0,2.0,0.0,8.333333,,,,,,,,,,,,,,,,,,,,1.0,0.0,0.0,,,,,,,,,,,,,,,,,,,,,,,,,,,,,,,,0.0,0.0,32.0,0.09503500000000001,1.0,0.0,31.828732000000002,15.427307,44.996189,125.89540900000001,296.07885699999997,102.428894,22.763214,23.945154000000002,107.337135,141.005737,377.512482,45.849827000000005,67.40052800000001,317.368896,89.974121,62.934399,31.800709,55.310711,118.432823,371.633453,54.578251,34.464607,25.070141,102.21431,351.046051
23315,1648952786.758251,1648952786.7683609,114.0,0.0,4332.820313,4566.153809,4079.487061,4366.153809,4220.512695,450.0,3.0,73.0,,,,0.0,0.0,2.0,1.0,2.0,0.0,8.333333,,,,,,,,57.0,0.0,0.849458,-0.068848,0.126709,0.507568,0.287602,-0.02002,-0.982925,0.004609,-0.025758,-0.009276000000000001,,,,,,,,,,,,,,,,,,,,,,,,,,,,,,,,,,,,,,,,,,,,,,,,,,,,,,,,,,,,,,,,,
23316,1648952786.766066,1648952786.776176,115.0,0.0,4121.025879,4543.077147999999,4092.820557,4096.922852000001,4293.846191,0.0,3.0,73.0,,,,0.0,0.0,2.0,1.0,2.0,0.0,8.333333,,,,,,,,,,,,,,,,,,,,,,,,,,,,,,,,,,,,,,,,,,,,,,,,,,,,,,,,,,,,,,,,,,,,,,,,,,,,,,,,,,,,
23317,1648952786.77388,1648952786.783891,116.0,0.0,4251.282227000001,4624.615234000001,4081.025635,4466.153809,4528.205078,450.0,3.0,73.0,,,,0.0,0.0,2.0,1.0,2.0,0.0,8.333333,,,,,,,,58.0,0.0,0.8494780000000001,-0.068604,0.126709,0.507568,0.28809,-0.010254000000000001,-0.988296,0.005516,-0.025818999999999998,-0.014794,,,,,,,,,,,,,,,,,,,,,,,,,,,,,,,,,,,,,,,,,,,,,,,,,,,,,,,,,,,,,,,,,
23318,1648952786.781695,1648952786.7917051,117.0,0.0,4406.153809,4560.512695,4089.743652,4527.692383,4352.307617,450.0,3.0,73.0,,,,0.0,0.0,2.0,1.0,2.0,0.0,8.333333,,,,,,,,,,,,,,,,,,,,,,,,,,,,,,,,,,,,,,,,,,,,,,,,,,,,,,0.0,0.0,32.0,0.09503500000000001,1.0,0.0,,,,,,,,,,,,,,,,,,,,,,,,,
23319,1648952786.789509,1648952786.7994199,118.0,0.0,4197.436035,4411.282227000001,4032.820557,4156.410156,4346.153809,450.0,3.0,73.0,,,,0.0,0.0,2.0,1.0,2.0,0.0,8.333333,,,,,,,,59.0,0.0,0.849332,-0.068604,0.126709,0.507813,0.307622,-0.020508000000000002,-0.9785309999999999,0.003206,-0.025727,-0.010092,,,,,,,,,,,,,,,,,,,,,,,,,,,,,,,,,,,,,,,,,,,,,,,,,,,,,,,,,,,,,,,,,
23320,1648952786.797324,1648952786.807235,119.0,0.0,4275.384765999999,4577.94873,4007.179443,4157.94873,4589.743652,0.0,3.0,73.0,,,,0.0,0.0,2.0,1.0,2.0,0.0,8.333333,,,,,,,,,,,,,,,,,,,,,,,,,,,,,,,,,,,,,,,,,,,,,,,,,,,,,,,,,,,,,,,,,,,,,,,,,,,,,,,,,,,,
23321,1648952786.805139,1648952786.814949,120.0,0.0,4643.589844,4745.128418,4168.205078,4436.410156,4470.769043,450.0,3.0,73.0,,,,0.0,0.0,2.0,1.0,2.0,0.0,8.333333,,,,,,,,60.0,0.0,0.849332,-0.068604,0.126709,0.507813,0.292973,-0.018067,-0.991714,0.004204,-0.025644999999999998,-0.015479,,,,,,,,,,,,,,,,,,,,,,,,,,,,,,,,,,,,,,,,,,,,,,,,,,,,,,,,,,,,,,,,,
23322,1648952786.812953,1648952786.8227642,121.0,0.0,4466.666504,4680.512695,4398.461426,4301.538574,4104.615234000001,450.0,3.0,73.0,,,,0.0,0.0,2.0,1.0,2.0,0.0,8.333333,,,,,,,,,,,,,,,,,,,,,,,,,,,,,,,,,,,,,,,,,,,,,,,,,,,,,,0.0,0.0,32.0,0.09503500000000001,1.0,0.0,,,,,,,,,,,,,,,,,,,,,,,,,
23323,1648952786.8207679,1648952786.830479,122.0,0.0,4231.282227000001,4596.922852000001,4305.641113000001,4257.94873,4231.794922,450.0,3.0,73.0,,,,0.0,0.0,2.0,1.0,2.0,0.0,8.333333,,,,,,,,61.0,0.0,0.849332,-0.068604,0.126709,0.507813,0.30225100000000005,0.008301000000000001,-0.985367,0.006712999999999999,-0.025619,-0.020377000000000003,,,,,,,,,,,,,,,,,,,,,,,,,,,,,,,,,,,,,,,,,,,,,,,,,,,,,,,,,,,,,,,,,
23324,1648952786.828582,1648952786.838293,123.0,0.0,4417.436035,4573.333496,4131.794922,4516.410156,4461.025879,0.0,3.0,73.0,,,,0.0,0.0,2.0,1.0,2.0,0.0,8.333333,,,,,,,,,,,,,,,,,,,,,,,,,,,,,,,,,,,,,,,,,,,,,,,,,,,,,,,,,,,,,,,,,,,,,,,,,,,,,,,,,,,,
23325,1648952786.8363972,1648952786.846008,124.0,0.0,4452.307617,4605.128418,4202.563965,4450.769043,4270.769043,450.0,3.0,73.0,,,,0.0,0.0,2.0,1.0,2.0,0.0,8.333333,,,,,,,,62.0,0.0,0.849332,-0.068604,0.126709,0.507813,0.295903,-0.000977,-0.98146,0.007311,-0.025547999999999998,-0.024736,,,,,,,,,,,,,,,,,,,,,,,,,,,,,,,,,,,,,,,,,,,,,,,,,,,,,,,,,,,,,,,,,
23326,1648952786.8442109,1648952786.853723,125.0,0.0,4174.358886999999,4723.589844,4258.974121,4097.436035,4245.641113000001,450.0,3.0,73.0,,,,0.0,0.0,2.0,1.0,2.0,0.0,8.333333,,,,,,,,,,,,,,,,,,,,,,,,,,,,,,,,,,,,,,,,,,,,,,,,,,,,,,0.0,0.0,32.0,0.09503500000000001,1.0,0.0,,,,,,,,,,,,,,,,,,,,,,,,,
23327,1648952786.852026,1648952786.8615382,126.0,0.0,4229.230957,4614.871582,4199.487305,4186.666504,4593.333496,450.0,3.0,73.0,,,,0.0,0.0,2.0,1.0,2.0,0.0,8.333333,,,,,,,,63.0,0.0,0.849458,-0.068848,0.126709,0.507568,0.295415,-0.015137000000000001,-0.9873200000000001,0.007996,-0.025434000000000002,-0.019088,,,,,,,,,,,,,,,,,,,,,,,,,,,,,,,,,,,,,,,,,,,,,,,,,,,,,,,,,,,,,,,,,
23328,1648952786.859841,1648952786.869252,127.0,0.0,4521.538574,4381.025879,4292.307617,4581.025879,4593.846191,238.0,3.0,73.0,,,,0.0,0.0,2.0,1.0,2.0,0.0,8.333333,,,,,,,,,,,,,,,,,,,,,,,,,,,,,,,,,,,,,,,,,,,,,,,,,,,,,,,,,,,,,,,,,,,,,,,,,,,,,,,,,,,,
23329,1648952786.867655,1648952786.877067,0.0,0.0,4454.871582,4531.794922,4390.769043,4494.871582,4127.692383,450.0,3.0,73.0,,,,0.0,0.0,2.0,1.0,2.0,0.0,8.333333,,,,,,,,0.0,0.0,0.8494780000000001,-0.068604,0.126709,0.507568,0.29102,-0.010254000000000001,-0.9868309999999999,0.008662000000000001,-0.02543,-0.023576,,,,,,,,,,,,,,,,,,,,,,,,,,,,,,,,,,,,,,,,,,,,,,,,,,,,,,,,,,,,,,,,,
23330,1648952786.87547,1648952786.884782,1.0,0.0,4204.615234000001,4806.666504,4304.615234000001,4121.538574,4113.333496,450.0,3.0,73.0,,,,0.0,0.0,2.0,1.0,2.0,0.0,8.333333,1.0,0.0,0.0,0.0,0.0,0.0,0.0,,,,,,,,,,,,,1.0,0.0,0.0,,,,,,,,,,,,,,,,,,,,,,,,,,,,,,,,0.0,0.0,32.0,0.115375,1.0,0.0,36.403442,16.234648,49.497279999999996,121.22878999999999,292.267181,104.331688,27.927066999999997,25.597051999999998,101.057045,151.548798,372.881866,42.156528,77.556023,305.68994100000003,93.413033,68.26106999999999,28.980743,49.024937,117.21112099999999,371.84549,53.31594499999999,28.053495,31.374878000000002,107.25669099999999,352.815948
23331,1648952786.883284,1648952786.8926961,2.0,0.0,4305.128418,4684.102539,4238.461426,4110.769043,4636.922852000001,0.0,3.0,73.0,,,,0.0,0.0,2.0,1.0,2.0,0.0,8.333333,,,,,,,,1.0,0.0,0.849332,-0.068604,0.126709,0.507813,0.295415,-0.005371,-0.989273,0.009163,-0.025475,-0.027712999999999998,,,,,,,,,,,,,,,,,,,,,,,,,,,,,,,,,,,,,,,,,,,,,,,,,,,,,,,,,,,,,,,,,
23332,1648952786.891099,1648952786.900511,3.0,0.0,4573.333496,4440.512695,4308.205078,4403.589844,4678.461426,450.0,3.0,73.0,,,,0.0,0.0,2.0,1.0,2.0,0.0,8.333333,,,,,,,,,,,,,,,,,,,,,,,,,,,,,,,,,,,,,,,,,,,,,,,,,,,,,,,,,,,,,,,,,,,,,,,,,,,,,,,,,,,,
23333,1648952786.8989131,1648952786.908426,4.0,0.0,4434.871582,4572.820313,4363.589844,4393.333496,4125.128418,28.0,3.0,73.0,,,,0.0,0.0,0.0,1.0,2.0,0.0,0.0,,,,,,,,2.0,0.0,0.8494780000000001,-0.068604,0.126709,0.507568,0.29736799999999997,-0.0058590000000000005,-0.977554,0.006634999999999999,-0.025564,-0.021621,,,,,,,,,,,,,,,,,,,,,,,,,,,,,,,,,,,,,,,,,,,,,,,,,,,,,,,,,,,,,,,,,
23334,1648952786.906728,1648952786.916241,5.0,0.0,4249.743652,4698.461426,4371.794922,4212.307617,4063.5898439999996,450.0,3.0,73.0,,,,0.0,0.0,0.0,1.0,2.0,0.0,0.0,,,,,,,,,,,,,,,,,,,,,,,,,,,,,,,,,,,,,,,,,,,,,,,,,,,,,,0.0,0.0,32.0,0.115375,1.0,0.0,,,,,,,,,,,,,,,,,,,,,,,,,
23335,1648952786.914542,1648952786.924156,6.0,0.0,4355.384765999999,4459.487305,4360.0,4217.94873,4489.230957,0.0,3.0,73.0,,,,0.0,0.0,0.0,0.0,2.0,0.0,0.0,,,,,,,,3.0,0.0,0.8494780000000001,-0.068604,0.126709,0.507568,0.284672,-0.020508000000000002,-0.983902,0.007339,-0.025498,-0.013306,,,,,,,,,,,,,,,,,,,,,,,,,,,,,,,,,,,,,,,,,,,,,,,,,,,,,,,,,,,,,,,,,
23336,1648952786.922357,1648952786.931971,7.0,0.0,4457.436035,4370.769043,4202.05127,4313.846191,4474.871582,450.0,3.0,73.0,,,,0.0,0.0,0.0,0.0,2.0,0.0,0.0,,,,,,,,,,,,,,,,,,,,,,,,,,,,,,,,,,,,,,,,,,,,,,,,,,,,,,,,,,,,,,,,,,,,,,,,,,,,,,,,,,,,
23337,1648952786.930171,1648952786.939786,8.0,0.0,4301.025879,4597.94873,4089.743652,4248.205078,4187.179688,450.0,3.0,73.0,,,,0.0,0.0,0.0,0.0,2.0,0.0,0.0,,,,,,,,4.0,0.0,0.8494780000000001,-0.068604,0.126709,0.507568,0.291508,-0.011231,-0.9790190000000001,0.006409999999999999,-0.025487,-0.021156,,,,,,,,,,,,,,,,,,,,,,,,,,,,,,,,,,,,,,,,,,,,,,,,,,,,,,,,,,,,,,,,,
23338,1648952786.937986,1648952786.9477,9.0,0.0,4331.794922,4607.692383,4228.205078,4298.461426,4340.0,0.0,3.0,73.0,,,,0.0,0.0,0.0,0.0,0.0,0.0,0.0,,,,,,,,,,,,,,,,,,,,,,,,,,,,,,,,,,,,,,,,,,,,,,,,,,,,,,0.0,0.0,32.0,0.115375,1.0,0.0,,,,,,,,,,,,,,,,,,,,,,,,,
23339,1648952786.9458,1648952786.955615,10.0,0.0,4483.589844,4442.05127,4437.436035,4405.641113000001,4475.384765999999,450.0,3.0,73.0,,,,0.0,0.0,0.0,0.0,0.0,0.0,0.0,,,,,,,,5.0,0.0,0.8494780000000001,-0.068604,0.126709,0.507568,0.29102,-0.009276999999999999,-0.9863430000000001,0.005573,-0.025527,-0.025338999999999997,,,,,,,,,,,,,,,,,,,,,,,,,,,,,,,,,,,,,,,,,,,,,,,,,,,,,,,,,,,,,,,,,
23340,1648952786.953615,1648952786.9634302,11.0,0.0,4364.615234000001,4646.666504,4378.974121,4282.563965,4258.461426,0.0,3.0,73.0,,,,0.0,0.0,0.0,0.0,0.0,0.0,0.0,,,,,,,,,,,,,,,,,,,,,,,,,,,,,,,,,,,,,,,,,,,,,,,,,,,,,,,,,,,,,,,,,,,,,,,,,,,,,,,,,,,,
23341,1648952786.96143,1648952786.971345,12.0,0.0,4122.05127,4889.743652,4279.487305,4109.743652,4314.358886999999,450.0,3.0,73.0,,,,0.0,0.0,0.0,0.0,0.0,0.0,0.0,,,,,,,,6.0,0.0,0.849332,-0.068604,0.126709,0.507813,0.288579,-0.002441,-0.9868309999999999,0.006334,-0.025513,-0.028957999999999998,,,,,,,,,,,,,,,,,,,,,,,,,,,,,,,,,,,,,,,,,,,,,,,,,,,,,,,,,,,,,,,,,
23342,1648952786.969244,1648952786.97916,13.0,0.0,4274.358886999999,4654.871582,4220.512695,4282.563965,4677.436035,450.0,3.0,73.0,,,,0.0,0.0,0.0,0.0,0.0,0.0,0.0,,,,,,,,,,,,,,,,,,,,,,,,,,,,,,,,,,,,,,,,,,,,,,,,,,,,,,0.0,0.0,32.0,0.115375,1.0,0.0,,,,,,,,,,,,,,,,,,,,,,,,,
23343,1648952786.977059,1648952786.9870741,14.0,0.0,4560.512695,4452.820313,4118.974121,4435.384765999999,4544.102539,450.0,3.0,73.0,,,,0.0,0.0,0.0,0.0,0.0,0.0,0.0,,,,,,,,7.0,0.0,0.849368,-0.068604,0.12646500000000002,0.507813,0.287602,-0.01709,-0.9790190000000001,0.0070680000000000005,-0.025501,-0.032507,,,,,,,,,,,,,,,,,,,,,,,,,,,,,,,,,,,,,,,,,,,,,,,,,,,,,,,,,,,,,,,,,
23344,1648952786.984873,1648952786.994889,15.0,0.0,4466.153809,4620.0,4209.743652,4163.077147999999,4213.333496,0.0,3.0,73.0,,,,0.0,0.0,0.0,0.0,0.0,0.0,0.0,,,,,,,,,,,,,,,,,,,,,,,,,,,,,,,,,,,,,,,,,,,,,,,,,,,,,,,,,,,,,,,,,,,,,,,,,,,,,,,,,,,,
23345,1648952786.9926882,1648952787.002604,16.0,0.0,4198.461426,4674.871582,4465.641113000001,4208.205078,4373.846191,0.0,3.0,73.0,,,,0.0,0.0,0.0,0.0,0.0,0.0,0.0,,,,,,,,8.0,0.0,0.849368,-0.068604,0.12646500000000002,0.507813,0.292485,-0.014159999999999999,-0.9824370000000001,0.0045060000000000005,-0.025490000000000002,-0.038583,,,,,,,,,,,,,,,,,,,,,,,,,,,,,,,,,,,,,,,,,,,,,,,,,,,,,,,,,,,,,,,,,
23346,1648952787.0005019,1648952787.010519,17.0,0.0,4188.717772999999,4595.384765999999,4314.358886999999,4663.589844,4539.487305,0.0,3.0,73.0,,,,0.0,0.0,0.0,0.0,0.0,0.0,0.0,,,,,,,,,,,,,,,,,,,,1.0,0.0,0.0,,,,,,,,,,,,,,,,,,,,,,,,,,,,,,,,0.0,0.0,32.0,0.123207,1.0,0.0,39.696354,19.461092,54.892345,112.35279799999999,294.197906,104.170479,33.511269,26.700067999999998,90.76786,162.258957,382.095367,42.062756,85.56600999999999,295.927368,97.290604,70.466286,26.611231,42.197987,115.92728400000001,375.114441,48.755531,23.472496,37.877617,113.299889,357.48407000000003
23347,1648952787.008317,1648952787.018334,18.0,0.0,4314.871582,4569.743652,4150.256348,4567.179688,4366.153809,0.0,3.0,73.0,,,,0.0,0.0,0.0,0.0,0.0,0.0,0.0,,,,,,,,9.0,0.0,0.849368,-0.068604,0.12646500000000002,0.507813,0.288579,-0.011719,-0.984878,0.005471,-0.025480000000000003,-0.041023000000000004,,,,,,,,,,,,,,,,,,,,,,,,,,,,,,,,,,,,,,,,,,,,,,,,,,,,,,,,,,,,,,,,,
23348,1648952787.016132,1648952787.026249,19.0,0.0,4232.307617,4475.897461,4231.282227000001,4166.153809,4345.128418,0.0,3.0,73.0,,,,0.0,0.0,0.0,0.0,0.0,0.0,0.0,,,,,,,,,,,,,,,,,,,,,,,,,,,,,,,,,,,,,,,,,,,,,,,,,,,,,,,,,,,,,,,,,,,,,,,,,,,,,,,,,,,,
23349,1648952787.023946,1648952787.034063,20.0,0.0,4307.692383,4510.256348,4070.256348,4353.333496,4573.333496,0.0,3.0,73.0,,,,0.0,0.0,0.0,0.0,0.0,0.0,0.0,,,,,,,,10.0,0.0,0.849368,-0.068604,0.12646500000000002,0.507813,0.27686,-0.024413999999999998,-0.973159,0.006437999999999999,-0.025569,-0.043318,,,,,,,,,,,,,,,,,,,,,,,,,,,,,,,,,,,,,,,,,,,,,,,,,,,,,,,,,,,,,,,,,
23350,1648952787.031761,1648952787.041878,21.0,0.0,4469.230957,4577.94873,3986.1538090000004,4550.256348,4410.769043,0.0,3.0,73.0,,,,0.0,0.0,0.0,0.0,0.0,0.0,0.0,,,,,,,,,,,,,,,,,,,,,,,,,,,,,,,,,,,,,,,,,,,,,,,,,,,,,,0.0,0.0,32.0,0.123207,1.0,0.0,,,,,,,,,,,,,,,,,,,,,,,,,
23351,1648952787.039575,1648952787.049593,22.0,0.0,4324.615234000001,4426.666504,4210.769043,4243.589844,4226.666504,0.0,3.0,73.0,,,,0.0,0.0,0.0,0.0,0.0,0.0,0.0,,,,,,,,11.0,0.0,0.8493879999999999,-0.068359,0.12646500000000002,0.507813,0.279301,-0.020996,-0.988785,0.007161,-0.025551,-0.032833,,,,,,,,,,,,,,,,,,,,,,,,,,,,,,,,,,,,,,,,,,,,,,,,,,,,,,,,,,,,,,,,,
23352,1648952787.04739,1648952787.057508,23.0,0.0,4159.487305,4446.153809,4231.282227000001,4194.871582,4374.358886999999,0.0,3.0,73.0,,,,0.0,0.0,0.0,0.0,0.0,0.0,0.0,,,,,,,,,,,,,,,,,,,,,,,,,,,,,,,,,,,,,,,,,,,,,,,,,,,,,,,,,,,,,,,,,,,,,,,,,,,,,,,,,,,,
23353,1648952787.055204,1648952787.065323,24.0,0.0,4369.230957,4648.205078,4047.179443,4552.820313,4487.179688,0.0,3.0,73.0,,,,0.0,0.0,0.0,0.0,0.0,0.0,0.0,,,,,,,,12.0,0.0,0.849368,-0.068604,0.12646500000000002,0.507813,0.288579,-0.011719,-0.984878,0.007812,-0.025584,-0.023544,,,,,,,,,,,,,,,,,,,,,,,,,,,,,,,,,,,,,,,,,,,,,,,,,,,,,,,,,,,,,,,,,
23354,1648952787.063019,1648952787.073138,25.0,0.0,4328.717772999999,4513.333496,4206.153809,4473.333496,4232.307617,0.0,3.0,73.0,,,,0.0,0.0,0.0,0.0,0.0,0.0,0.0,,,,,,,,,,,,,,,,,,,,,,,,,,,,,,,,,,,,,,,,,,,,,,,,,,,,,,0.0,0.0,32.0,0.123207,1.0,0.0,,,,,,,,,,,,,,,,,,,,,,,,,
23355,1648952787.070833,1648952787.080852,26.0,0.0,4110.256348,4373.333496,4162.563965,4269.743652,4266.153809,0.0,3.0,73.0,,,,0.0,0.0,0.0,0.0,0.0,0.0,0.0,,,,,,,,13.0,0.0,0.8493879999999999,-0.068359,0.12646500000000002,0.507813,0.279301,-0.020996,-0.988785,0.008398000000000001,-0.025565,-0.015037,,,,,,,,,,,,,,,,,,,,,,,,,,,,,,,,,,,,,,,,,,,,,,,,,,,,,,,,,,,,,,,,,
23356,1648952787.078648,1648952787.088767,27.0,0.0,4363.589844,4527.179688,3969.743652,4334.358886999999,4548.205078,0.0,3.0,73.0,,,,0.0,0.0,0.0,0.0,0.0,0.0,0.0,,,,,,,,,,,,,,,,,,,,,,,,,,,,,,,,,,,,,,,,,,,,,,,,,,,,,,,,,,,,,,,,,,,,,,,,,,,,,,,,,,,,
23357,1648952787.086462,1648952787.096582,28.0,0.0,4556.922852000001,4570.256348,4114.871582,4314.358886999999,4418.461426,0.0,3.0,73.0,,,,0.0,0.0,0.0,0.0,0.0,0.0,0.0,,,,,,,,14.0,0.0,0.8493879999999999,-0.068359,0.12646500000000002,0.507813,0.300786,-0.014649,-0.9824370000000001,0.008926,-0.025596,-0.007528,,,,,,,,,,,,,,,,,,,,,,,,,,,,,,,,,,,,,,,,,,,,,,,,,,,,,,,,,,,,,,,,,
23358,1648952787.094277,1648952787.104497,29.0,0.0,4240.0,4648.205078,4276.410156,4096.410156,4159.487305,0.0,3.0,73.0,,,,0.0,0.0,0.0,0.0,0.0,0.0,0.0,,,,,,,,,,,,,,,,,,,,,,,,,,,,,,,,,,,,,,,,,,,,,,,,,,,,,,0.0,0.0,32.0,0.123207,1.0,0.0,,,,,,,,,,,,,,,,,,,,,,,,,
23359,1648952787.102091,1648952787.1123118,30.0,0.0,4201.025879,4662.05127,4232.307617,4211.282227000001,4335.897461,0.0,3.0,73.0,,,,0.0,0.0,0.0,0.0,0.0,0.0,0.0,,,,,,,,15.0,0.0,0.849368,-0.068604,0.12646500000000002,0.507813,0.299321,-0.01709,-0.984878,0.011012000000000001,-0.025575,-0.013123,,,,,,,,,,,,,,,,,,,,,,,,,,,,,,,,,,,,,,,,,,,,,,,,,,,,,,,,,,,,,,,,,
23360,1648952787.109906,1648952787.120226,31.0,0.0,4507.179688,4430.769043,4232.307617,4573.333496,4512.820313,0.0,3.0,73.0,,,,0.0,0.0,0.0,0.0,0.0,0.0,0.0,,,,,,,,,,,,,,,,,,,,,,,,,,,,,,,,,,,,,,,,,,,,,,,,,,,,,,,,,,,,,,,,,,,,,,,,,,,,,,,,,,,,
23361,1648952787.117721,1648952787.128041,32.0,0.0,4402.05127,4564.615234000001,4312.820313,4482.05127,4193.333496,0.0,3.0,73.0,,,,0.0,0.0,0.0,0.0,0.0,0.0,0.0,,,,,,,,16.0,0.0,0.849368,-0.068604,0.12646500000000002,0.507813,0.289067,-0.006836,-0.972183,0.011424,-0.025508000000000003,-0.005707,,,,,,,,,,,,,,,,,,,,,,,,,,,,,,,,,,,,,,,,,,,,,,,,,,,,,,,,,,,,,,,,,
23362,1648952787.125535,1648952787.135956,33.0,0.0,4151.282227000001,4829.230957,4403.589844,4137.436035,4173.846191,0.0,3.0,73.0,,,,0.0,0.0,0.0,0.0,0.0,0.0,0.0,,,,,,,,,,,,,,,,,,,,1.0,0.0,0.0,,,,,,,,,,,,,,,,,,,,,,,,,,,,,,,,0.0,0.0,32.0,0.111603,1.0,0.0,41.072319,24.501686,60.883514,102.17040300000001,298.987885,101.17083000000001,39.851729999999996,26.717878000000002,79.369431,171.48289499999998,401.216248,43.852084999999995,88.039642,286.862946,101.202621,69.17311099999999,24.859282999999998,36.285789,114.838669,381.43631,42.217377,21.610367,43.475643,119.02523799999999,365.572021
23363,1648952787.13335,1648952787.143871,34.0,0.0,4363.077147999999,4578.974121,4417.94873,4186.153809,4623.077147999999,0.0,3.0,73.0,,,,0.0,0.0,0.0,0.0,0.0,0.0,0.0,,,,,,,,17.0,0.0,0.849368,-0.068604,0.12646500000000002,0.507813,0.291997,-0.003906,-0.9824370000000001,0.008573,-0.025448,-0.001962,,,,,,,,,,,,,,,,,,,,,,,,,,,,,,,,,,,,,,,,,,,,,,,,,,,,,,,,,,,,,,,,,
23364,1648952787.141164,1648952787.151686,35.0,0.0,4589.230957,4394.871582,4192.820313,4458.461426,4537.94873,0.0,3.0,73.0,,,,0.0,0.0,0.0,0.0,0.0,0.0,0.0,,,,,,,,,,,,,,,,,,,,,,,,,,,,,,,,,,,,,,,,,,,,,,,,,,,,,,,,,,,,,,,,,,,,,,,,,,,,,,,,,,,,
23365,1648952787.148979,1648952787.159501,36.0,0.0,4399.487305,4613.333496,4029.743652,4262.05127,4163.589844,0.0,3.0,73.0,,,,0.0,0.0,0.0,0.0,0.0,0.0,0.0,,,,,,,,18.0,0.0,0.849368,-0.068604,0.12646500000000002,0.507813,0.29688000000000003,-0.007812999999999999,-0.987808,0.009034,-0.025296000000000003,0.004289,,,,,,,,,,,,,,,,,,,,,,,,,,,,,,,,,,,,,,,,,,,,,,,,,,,,,,,,,,,,,,,,,
23366,1648952787.1567929,1648952787.1674151,37.0,0.0,4382.05127,4616.410156,4189.230957,4132.307617,4397.436035,0.0,3.0,73.0,,,,0.0,0.0,0.0,0.0,0.0,0.0,0.0,,,,,,,,,,,,,,,,,,,,,,,,,,,,,,,,,,,,,,,,,,,,,,,,,,,,,,0.0,0.0,32.0,0.111603,1.0,0.0,,,,,,,,,,,,,,,,,,,,,,,,,
23367,1648952787.164608,1648952787.17523,38.0,0.0,4524.615234000001,4519.487305,4264.615234000001,4398.974121,4536.410156,0.0,3.0,73.0,,,,0.0,0.0,0.0,0.0,0.0,0.0,0.0,,,,,,,,19.0,0.0,0.849368,-0.068604,0.12646500000000002,0.507813,0.284672,-0.010254000000000001,-0.9785309999999999,0.007984,-0.025305,-0.005369,,,,,,,,,,,,,,,,,,,,,,,,,,,,,,,,,,,,,,,,,,,,,,,,,,,,,,,,,,,,,,,,,
23368,1648952787.1724231,1648952787.182945,39.0,0.0,4392.307617,4548.717772999999,4213.846191,4345.128418,4189.743652,0.0,3.0,73.0,,,,0.0,0.0,0.0,0.0,0.0,0.0,0.0,,,,,,,,,,,,,,,,,,,,,,,,,,,,,,,,,,,,,,,,,,,,,,,,,,,,,,,,,,,,,,,,,,,,,,,,,,,,,,,,,,,,
23369,1648952787.1802368,1648952787.19076,40.0,0.0,4133.333496,4434.871582,4237.436035,4155.384765999999,4251.282227000001,0.0,3.0,73.0,,,,0.0,0.0,0.0,0.0,0.0,0.0,0.0,,,,,,,,20.0,0.0,0.849368,-0.068604,0.12646500000000002,0.507813,0.285649,-0.012206999999999999,-0.9790190000000001,0.010018,-0.025362,-0.011179999999999999,,,,,,,,,,,,,,,,,,,,,,,,,,,,,,,,,,,,,,,,,,,,,,,,,,,,,,,,,,,,,,,,,
23370,1648952787.188052,1648952787.198475,41.0,0.0,4310.769043,4529.230957,4075.897461,4469.230957,4612.307617,0.0,3.0,73.0,,,,0.0,0.0,0.0,0.0,0.0,0.0,0.0,,,,,,,,,,,,,,,,,,,,,,,,,,,,,,,,,,,,,,,,,,,,,,,,,,,,,,0.0,0.0,32.0,0.111603,1.0,0.0,,,,,,,,,,,,,,,,,,,,,,,,,
23371,1648952787.195866,1648952787.2063901,42.0,0.0,4534.358886999999,4668.205078,3987.6923829999996,4543.589844,4385.128418,0.0,3.0,73.0,,,,0.0,0.0,0.0,0.0,0.0,0.0,0.0,,,,,,,,21.0,0.0,0.849368,-0.068604,0.12646500000000002,0.507813,0.297856,-0.016114,-0.980972,0.008869,-0.025414,-0.0068390000000000005,,,,,,,,,,,,,,,,,,,,,,,,,,,,,,,,,,,,,,,,,,,,,,,,,,,,,,,,,,,,,,,,,
23372,1648952787.203681,1648952787.214205,43.0,0.0,4312.307617,4442.05127,4084.102539,4200.0,4253.846191,0.0,3.0,73.0,,,,0.0,0.0,0.0,0.0,0.0,0.0,0.0,,,,,,,,,,,,,,,,,,,,,,,,,,,,,,,,,,,,,,,,,,,,,,,,,,,,,,,,,,,,,,,,,,,,,,,,,,,,,,,,,,,,
23373,1648952787.211495,1648952787.2221198,44.0,0.0,4246.666504,4383.589844,4157.436035,4248.205078,4511.282227000001,0.0,3.0,73.0,,,,0.0,0.0,0.0,0.0,0.0,0.0,0.0,,,,,,,,22.0,0.0,0.849368,-0.068604,0.12646500000000002,0.507813,0.289067,-0.020996,-0.988296,0.010961,-0.025461,-0.012454,,,,,,,,,,,,,,,,,,,,,,,,,,,,,,,,,,,,,,,,,,,,,,,,,,,,,,,,,,,,,,,,,
23374,1648952787.21931,1648952787.229935,45.0,0.0,4614.358886999999,4547.692383,4141.025879,4482.05127,4416.922852000001,0.0,3.0,73.0,,,,0.0,0.0,0.0,0.0,0.0,0.0,0.0,,,,,,,,,,,,,,,,,,,,,,,,,,,,,,,,,,,,,,,,,,,,,,,,,,,,,,0.0,0.0,32.0,0.111603,1.0,0.0,,,,,,,,,,,,,,,,,,,,,,,,,
23375,1648952787.227124,1648952787.237849,46.0,0.0,4553.333496,4506.666504,4251.282227000001,4269.743652,4088.205078,0.0,3.0,73.0,,,,0.0,0.0,0.0,0.0,0.0,0.0,0.0,,,,,,,,23.0,0.0,0.8493879999999999,-0.068359,0.12646500000000002,0.507813,0.29102,0.001953,-0.979507,0.008156,-0.025405,-0.008034999999999999,,,,,,,,,,,,,,,,,,,,,,,,,,,,,,,,,,,,,,,,,,,,,,,,,,,,,,,,,,,,,,,,,
23376,1648952787.234939,1648952787.245764,47.0,0.0,4125.641113000001,4556.410156,4233.846191,4189.230957,4254.358886999999,0.0,3.0,73.0,,,,0.0,0.0,0.0,0.0,0.0,0.0,0.0,,,,,,,,,,,,,,,,,,,,,,,,,,,,,,,,,,,,,,,,,,,,,,,,,,,,,,,,,,,,,,,,,,,,,,,,,,,,,,,,,,,,
23377,1648952787.242753,1648952787.253579,48.0,0.0,4282.563965,4681.538574,4053.8461909999996,4515.384765999999,4582.05127,0.0,3.0,73.0,,,,0.0,0.0,0.0,0.0,0.0,0.0,0.0,,,,,,,,24.0,0.0,0.8493879999999999,-0.068359,0.12646500000000002,0.507813,0.290532,-0.01709,-0.9834129999999999,0.010221,-0.025452000000000002,-0.013628,,,,,,,,,,,,,,,,,,,,,,,,,,,,,,,,,,,,,,,,,,,,,,,,,,,,,,,,,,,,,,,,,
23378,1648952787.250568,1648952787.261395,49.0,0.0,4566.153809,4543.077147999999,4032.820557,4486.153809,4352.820313,0.0,3.0,73.0,,,,0.0,0.0,0.0,0.0,0.0,0.0,0.0,,,,,,,,,,,,,,,,,,,,1.0,0.0,0.0,,,,,,,,,,,,,,,,,,,,,,,,,,,,,,,,0.0,0.0,32.0,0.12221800000000001,1.0,0.0,40.799049,30.427028999999997,66.668098,94.26516,302.119263,96.835052,46.733074,26.104969,69.797722,178.164505,421.15676900000005,46.579071,85.64280699999999,276.875671,104.821327,66.156036,23.339754,32.169125,113.818634,390.09826699999996,35.591534,22.731573,47.296127,123.18428,376.883331
23379,1648952787.258382,1648952787.269309,50.0,0.0,4284.615234000001,4579.487305,4068.718018,4123.077147999999,4255.384765999999,0.0,3.0,73.0,,,,0.0,0.0,0.0,0.0,0.0,0.0,0.0,,,,,,,,25.0,0.0,0.849368,-0.068604,0.12646500000000002,0.507813,0.297856,-0.010254000000000001,-0.991714,0.012178,-0.025495,-0.018563999999999997,,,,,,,,,,,,,,,,,,,,,,,,,,,,,,,,,,,,,,,,,,,,,,,,,,,,,,,,,,,,,,,,,
23380,1648952787.266197,1648952787.277224,51.0,0.0,4200.0,4738.461426,4154.358886999999,4111.282227000001,4631.282227000001,0.0,3.0,73.0,,,,0.0,0.0,0.0,0.0,0.0,0.0,0.0,,,,,,,,,,,,,,,,,,,,,,,,,,,,,,,,,,,,,,,,,,,,,,,,,,,,,,,,,,,,,,,,,,,,,,,,,,,,,,,,,,,,
23381,1648952787.2740119,1648952787.285039,52.0,0.0,4524.615234000001,4575.384765999999,4235.384765999999,4427.692383,4640.0,0.0,3.0,73.0,,,,0.0,0.0,0.0,0.0,0.0,0.0,0.0,,,,,,,,26.0,0.0,0.849368,-0.068604,0.12646500000000002,0.507813,0.292485,-0.014159999999999999,-0.973159,0.012376,-0.025533,-0.013387,,,,,,,,,,,,,,,,,,,,,,,,,,,,,,,,,,,,,,,,,,,,,,,,,,,,,,,,,,,,,,,,,
23382,1648952787.281826,1648952787.292954,53.0,0.0,4482.05127,4537.94873,4288.717772999999,4367.179688,4165.128418,0.0,3.0,73.0,,,,0.0,0.0,0.0,0.0,0.0,0.0,0.0,,,,,,,,,,,,,,,,,,,,,,,,,,,,,,,,,,,,,,,,,,,,,,,,,,,,,,0.0,0.0,32.0,0.12221800000000001,1.0,0.0,,,,,,,,,,,,,,,,,,,,,,,,,
23383,1648952787.289641,1648952787.3007698,54.0,0.0,4299.487305,4595.897461,4424.102539,4270.769043,4172.307617,0.0,3.0,73.0,,,,0.0,0.0,0.0,0.0,0.0,0.0,0.0,,,,,,,,27.0,0.0,0.849352,-0.068359,0.126709,0.507813,0.28076599999999996,-0.020996,-0.977554,0.012359,-0.025568,-0.018494,,,,,,,,,,,,,,,,,,,,,,,,,,,,,,,,,,,,,,,,,,,,,,,,,,,,,,,,,,,,,,,,,
23384,1648952787.297455,1648952787.3086839,55.0,0.0,4338.974121,4496.922852000001,4466.666504,4354.871582,4474.358886999999,0.0,3.0,73.0,,,,0.0,0.0,0.0,0.0,0.0,0.0,0.0,,,,,,,,,,,,,,,,,,,,,,,,,,,,,,,,,,,,,,,,,,,,,,,,,,,,,,,,,,,,,,,,,,,,,,,,,,,,,,,,,,,,
23385,1648952787.30527,1648952787.316499,56.0,0.0,4386.666504,4657.94873,4299.487305,4236.922852000001,4356.410156,0.0,3.0,73.0,,,,0.0,0.0,0.0,0.0,0.0,0.0,0.0,,,,,,,,28.0,0.0,0.849352,-0.068359,0.126709,0.507813,0.286137,-0.022461000000000002,-0.991226,0.014102000000000002,-0.025599,-0.023041,,,,,,,,,,,,,,,,,,,,,,,,,,,,,,,,,,,,,,,,,,,,,,,,,,,,,,,,,,,,,,,,,
23386,1648952787.313084,1648952787.324414,57.0,0.0,4198.461426,4850.769043,4250.256348,4017.4357909999994,4301.538574,0.0,3.0,73.0,,,,0.0,0.0,0.0,0.0,0.0,0.0,0.0,,,,,,,,,,,,,,,,,,,,,,,,,,,,,,,,,,,,,,,,,,,,,,,,,,,,,,0.0,0.0,32.0,0.12221800000000001,1.0,0.0,,,,,,,,,,,,,,,,,,,,,,,,,
23387,1648952787.320899,1648952787.332229,58.0,0.0,4296.922852000001,4634.871582,4205.641113000001,4228.205078,4596.410156,0.0,3.0,73.0,,,,0.0,0.0,0.0,0.0,0.0,0.0,0.0,,,,,,,,29.0,0.0,0.849332,-0.068604,0.126709,0.507813,0.292973,-0.008789,-0.98146,0.014108,-0.025626999999999997,-0.017417,,,,,,,,,,,,,,,,,,,,,,,,,,,,,,,,,,,,,,,,,,,,,,,,,,,,,,,,,,,,,,,,,
23388,1648952787.3287141,1648952787.340144,59.0,0.0,4591.794922,4538.461426,4026.1538090000004,4369.743652,4510.256348,0.0,3.0,73.0,,,,0.0,0.0,0.0,0.0,0.0,0.0,0.0,,,,,,,,,,,,,,,,,,,,,,,,,,,,,,,,,,,,,,,,,,,,,,,,,,,,,,,,,,,,,,,,,,,,,,,,,,,,,,,,,,,,
23389,1648952787.3365278,1648952787.347959,60.0,0.0,4472.307617,4589.743652,4121.538574,4049.743652,4230.769043,0.0,3.0,73.0,,,,0.0,0.0,0.0,0.0,0.0,0.0,0.0,,,,,,,,30.0,0.0,0.849332,-0.068604,0.126709,0.507813,0.277836,-0.014159999999999999,-0.993179,0.014112999999999999,-0.025700999999999998,-0.022119999999999997,,,,,,,,,,,,,,,,,,,,,,,,,,,,,,,,,,,,,,,,,,,,,,,,,,,,,,,,,,,,,,,,,
23390,1648952787.344343,1648952787.355874,61.0,0.0,4134.871582,4494.358886999999,4423.589844,4137.436035,4337.436035,0.0,3.0,73.0,,,,0.0,0.0,0.0,0.0,0.0,0.0,0.0,,,,,,,,,,,,,,,,,,,,,,,,,,,,,,,,,,,,,,,,,,,,,,,,,,,,,,0.0,0.0,32.0,0.12221800000000001,1.0,0.0,,,,,,,,,,,,,,,,,,,,,,,,,
23391,1648952787.352157,1648952787.363689,62.0,0.0,4225.128418,4548.205078,4250.769043,4649.230957,4494.871582,0.0,3.0,73.0,,,,0.0,0.0,0.0,0.0,0.0,0.0,0.0,,,,,,,,31.0,0.0,0.849352,-0.068359,0.126709,0.507813,0.293462,-0.008789,-0.977066,0.012457,-0.025719,-0.029235,,,,,,,,,,,,,,,,,,,,,,,,,,,,,,,,,,,,,,,,,,,,,,,,,,,,,,,,,,,,,,,,,
23392,1648952787.359972,1648952787.371604,63.0,0.0,4322.563965,4601.025879,4081.025635,4527.692383,4321.538574,0.0,3.0,73.0,,,,0.0,0.0,0.0,0.0,0.0,0.0,0.0,,,,,,,,,,,,,,,,,,,,,,,,,,,,,,,,,,,,,,,,,,,,,,,,,,,,,,,,,,,,,,,,,,,,,,,,,,,,,,,,,,,,
23393,1648952787.367786,1648952787.379418,64.0,0.0,4048.205078,4524.615234000001,4153.846191,4182.563965,4315.384765999999,450.0,3.0,73.0,,,,0.0,0.0,0.0,0.0,0.0,0.0,0.0,,,,,,,,32.0,0.0,0.849352,-0.068359,0.126709,0.507813,0.289067,-0.006836,-0.981949,0.011065,-0.025637,-0.03261,,,,,,,,,,,,,,,,,,,,,,,,,,,,,,,,,,,,,,,,,,,,,,,,,,,,,,,,,,,,,,,,,
