,Timestamp,OriginalTimestamp,EEG.Counter,EEG.Interpolated,EEG.AF3,EEG.T7,EEG.Pz,EEG.T8,EEG.AF4,EEG.RawCq,EEG.Battery,EEG.BatteryPercent,MarkerIndex,MarkerType,MarkerValueInt,EEG.MarkerHardware,CQ.AF3,CQ.T7,CQ.Pz,CQ.T8,CQ.AF4,CQ.Overall,EQ.SampleRateQuality,EQ.OVERALL,EQ.AF3,EQ.T7,EQ.Pz,EQ.T8,EQ.AF4,MOT.CounterMems,MOT.InterpolatedMems,MOT.Q0,MOT.Q1,MOT.Q2,MOT.Q3,MOT.AccX,MOT.AccY,MOT.AccZ,MOT.MagX,MOT.MagY,MOT.MagZ,MC.Action,MC.ActionPower,MC.IsActive,PM.Engagement.IsActive,PM.Engagement.Scaled,PM.Engagement.Raw,PM.Engagement.Min,PM.Engagement.Max,PM.Excitement.IsActive,PM.Excitement.Scaled,PM.Excitement.Raw,PM.Excitement.Min,PM.Excitement.Max,PM.LongTermExcitement,PM.Stress.IsActive,PM.Stress.Scaled,PM.Stress.Raw,PM.Stress.Min,PM.Stress.Max,PM.Relaxation.IsActive,PM.Relaxation.Scaled,PM.Relaxation.Raw,PM.Relaxation.Min,PM.Relaxation.Max,PM.Interest.IsActive,PM.Interest.Scaled,PM.Interest.Raw,PM.Interest.Min,PM.Interest.Max,PM.Focus.IsActive,PM.Focus.Scaled,PM.Focus.Raw,PM.Focus.Min,PM.Focus.Max,FE.BlinkWink,FE.HorizontalEyesDirection,FE.UpperFaceAction,FE.UpperFaceActionPower,FE.LowerFaceAction,FE.LowerFaceActionPower,POW.AF3.Theta,POW.AF3.Alpha,POW.AF3.BetaL,POW.AF3.BetaH,POW.AF3.Gamma,POW.T7.Theta,POW.T7.Alpha,POW.T7.BetaL,POW.T7.BetaH,POW.T7.Gamma,POW.Pz.Theta,POW.Pz.Alpha,POW.Pz.BetaL,POW.Pz.BetaH,POW.Pz.Gamma,POW.T8.Theta,POW.T8.Alpha,POW.T8.BetaL,POW.T8.BetaH,POW.T8.Gamma,POW.AF4.Theta,POW.AF4.Alpha,POW.AF4.BetaL,POW.AF4.BetaH,POW.AF4.Gamma
18812,1648953240.181329,1648953240.22255,25.0,0.0,4247.692383,4481.538574,4202.563965,4156.410156,4294.358886999999,0.0,3.0,73.0,,,,0.0,0.0,0.0,2.0,0.0,0.0,0.0,,,,,,,,,,,,,,,,,,,,,,,,,,,,,,,,,,,,,,,,,,,,,,,,,,,,,,0.0,0.0,32.0,0.075693,1.0,0.0,,,,,,,,,,,,,,,,,,,,,,,,,
18813,1648953240.189143,1648953240.230365,26.0,0.0,4149.743652,4718.461426,4335.897461,4060.512939,4133.846191,0.0,3.0,73.0,,,,0.0,0.0,0.0,2.0,0.0,0.0,0.0,,,,,,,,13.0,0.0,0.515035,-0.121582,0.084961,0.8442379999999999,0.308598,-0.025879000000000003,-0.9824370000000001,-0.006431,-0.011444,-0.029089999999999998,,,,,,,,,,,,,,,,,,,,,,,,,,,,,,,,,,,,,,,,,,,,,,,,,,,,,,,,,,,,,,,,,
18814,1648953240.196958,1648953240.2381802,27.0,0.0,4245.641113000001,4865.641113000001,4526.666504,4207.179688,4112.307617,0.0,3.0,73.0,,,,0.0,0.0,0.0,2.0,0.0,0.0,0.0,,,,,,,,,,,,,,,,,,,,,,,,,,,,,,,,,,,,,,,,,,,,,,,,,,,,,,,,,,,,,,,,,,,,,,,,,,,,,,,,,,,,
18815,1648953240.204772,1648953240.246095,28.0,0.0,4432.820313,4712.820313,4392.307617,4429.743652,4244.615234000001,0.0,3.0,73.0,,,,0.0,0.0,0.0,2.0,0.0,0.0,0.0,,,,,,,,14.0,0.0,0.5154350000000001,-0.121582,0.084961,0.843994,0.307134,-0.014159999999999999,-0.9863430000000001,-0.005934,-0.011276000000000001,-0.032139,,,,,,,,,,,,,,,,,,,,,,,,,,,,,,,,,,,,,,,,,,,,,,,,,,,,,,,,,,,,,,,,,
18816,1648953240.2125869,1648953240.25391,29.0,0.0,4582.05127,4648.205078,4278.974121,4609.230957,4423.077147999999,0.0,3.0,73.0,,,,0.0,0.0,0.0,2.0,0.0,0.0,0.0,,,,,,,,,,,,,,,,,,,,,,,,,,,,,,,,,,,,,,,,,,,,,,,,,,,,,,0.0,0.0,32.0,0.075693,1.0,0.0,,,,,,,,,,,,,,,,,,,,,,,,,
18817,1648953240.220401,1648953240.261725,30.0,0.0,4483.077147999999,4587.179688,4374.358886999999,4565.641113000001,4442.05127,0.0,3.0,73.0,,,,0.0,0.0,0.0,2.0,0.0,0.0,0.0,,,,,,,,15.0,0.0,0.515035,-0.121582,0.084961,0.8442379999999999,0.298344,-0.013184,-0.973648,-0.002314,-0.01132,-0.034832999999999996,,,,,,,,,,,,,,,,,,,,,,,,,,,,,,,,,,,,,,,,,,,,,,,,,,,,,,,,,,,,,,,,,
18818,1648953240.228216,1648953240.26954,31.0,0.0,4208.717772999999,4494.871582,4263.077147999999,4217.436035,4280.512695,0.0,3.0,73.0,,,,0.0,0.0,0.0,2.0,0.0,0.0,0.0,,,,,,,,,,,,,,,,,,,,,,,,,,,,,,,,,,,,,,,,,,,,,,,,,,,,,,,,,,,,,,,,,,,,,,,,,,,,,,,,,,,,
18819,1648953240.23603,1648953240.277255,32.0,0.0,4124.102539,4707.179688,4287.179688,4060.512939,4335.897461,0.0,3.0,73.0,,,,0.0,0.0,0.0,2.0,0.0,0.0,0.0,,,,,,,,16.0,0.0,0.515035,-0.121582,0.084961,0.8442379999999999,0.288579,-0.0058590000000000005,-0.9673,-0.0020329999999999997,-0.011409,-0.031007999999999997,,,,,,,,,,,,,,,,,,,,,,,,,,,,,,,,,,,,,,,,,,,,,,,,,,,,,,,,,,,,,,,,,
18820,1648953240.243845,1648953240.28507,33.0,0.0,4133.333496,4833.333496,4619.487305,4224.615234000001,4480.512695,0.0,3.0,73.0,,,,0.0,0.0,0.0,2.0,0.0,0.0,0.0,,,,,,,,,,,,,,,,,,,,1.0,0.0,0.0,,,,,,,,,,,,,,,,,,,,,,,,,,,,,,,,0.0,0.0,32.0,0.073423,1.0,0.0,45.906384,74.711662,205.6707,858.3958130000001,37.655357,325.822357,94.933975,82.372421,92.80900600000001,94.871307,370.808624,172.665695,108.463577,198.222183,108.028084,30.903409999999997,24.854662,66.77310200000001,931.545959,64.427429,54.84089300000001,39.624432,214.379425,971.204834,77.657394
18821,1648953240.2516599,1648953240.292785,34.0,0.0,4216.410156,4618.974121,4601.025879,4410.256348,4473.333496,0.0,3.0,73.0,,,,0.0,0.0,0.0,2.0,0.0,0.0,0.0,,,,,,,,17.0,0.0,0.5154350000000001,-0.121582,0.084961,0.843994,0.307134,-0.014159999999999999,-0.9863430000000001,-0.004857,-0.01144,-0.027712,,,,,,,,,,,,,,,,,,,,,,,,,,,,,,,,,,,,,,,,,,,,,,,,,,,,,,,,,,,,,,,,,
18822,1648953240.259474,1648953240.300599,35.0,0.0,4410.256348,4577.436035,4341.538574,4515.384765999999,4400.512695,0.0,3.0,73.0,,,,0.0,0.0,0.0,2.0,0.0,0.0,0.0,,,,,,,,,,,,,,,,,,,,,,,,,,,,,,,,,,,,,,,,,,,,,,,,,,,,,,,,,,,,,,,,,,,,,,,,,,,,,,,,,,,,
18823,1648953240.2672892,1648953240.308314,36.0,0.0,4547.179688,4644.102539,4387.692383,4492.820313,4360.0,0.0,3.0,73.0,,,,0.0,0.0,0.0,2.0,0.0,0.0,0.0,,,,,,,,18.0,0.0,0.515035,-0.121582,0.084961,0.8442379999999999,0.288579,-0.0058590000000000005,-0.9673,-0.004323,-0.011517,-0.024599,,,,,,,,,,,,,,,,,,,,,,,,,,,,,,,,,,,,,,,,,,,,,,,,,,,,,,,,,,,,,,,,,
18824,1648953240.2751029,1648953240.316129,37.0,0.0,4429.743652,4526.153809,4372.820313,4200.0,4165.641113000001,0.0,3.0,73.0,,,,0.0,0.0,0.0,2.0,0.0,0.0,0.0,,,,,,,,,,,,,,,,,,,,,,,,,,,,,,,,,,,,,,,,,,,,,,,,,,,,,,0.0,0.0,32.0,0.073423,1.0,0.0,,,,,,,,,,,,,,,,,,,,,,,,,
18825,1648953240.282918,1648953240.323844,38.0,0.0,4252.307617,4527.692383,4153.846191,4028.718018,4076.4101560000004,0.0,3.0,73.0,,,,0.0,0.0,0.0,2.0,0.0,0.0,0.0,,,,,,,,19.0,0.0,0.515075,-0.121582,0.084717,0.8442379999999999,0.308598,-0.010254000000000001,-0.973159,-0.003744,-0.011488,-0.028145,,,,,,,,,,,,,,,,,,,,,,,,,,,,,,,,,,,,,,,,,,,,,,,,,,,,,,,,,,,,,,,,,
18826,1648953240.2907321,1648953240.331759,39.0,0.0,4218.461426,4671.282227000001,4227.692383,4295.384765999999,4310.769043,0.0,3.0,73.0,,,,0.0,0.0,0.0,2.0,0.0,0.0,0.0,,,,,,,,,,,,,,,,,,,,,,,,,,,,,,,,,,,,,,,,,,,,,,,,,,,,,,,,,,,,,,,,,,,,,,,,,,,,,,,,,,,,
18827,1648953240.298547,1648953240.339574,40.0,0.0,4372.307617,4663.589844,4384.615234000001,4638.461426,4532.820313,0.0,3.0,73.0,,,,0.0,0.0,0.0,2.0,0.0,0.0,0.0,,,,,,,,20.0,0.0,0.515075,-0.121582,0.084717,0.8442379999999999,0.292973,-0.011719,-0.9741360000000001,-0.0031260000000000003,-0.011559999999999999,-0.031385,,,,,,,,,,,,,,,,,,,,,,,,,,,,,,,,,,,,,,,,,,,,,,,,,,,,,,,,,,,,,,,,,
18828,1648953240.306361,1648953240.34739,41.0,0.0,4411.794922,4566.153809,4235.897461,4562.563965,4527.692383,0.0,3.0,73.0,,,,0.0,0.0,0.0,2.0,0.0,0.0,0.0,,,,,,,,,,,,,,,,,,,,,,,,,,,,,,,,,,,,,,,,,,,,,,,,,,,,,,0.0,0.0,32.0,0.073423,1.0,0.0,,,,,,,,,,,,,,,,,,,,,,,,,
18829,1648953240.314176,1648953240.355104,42.0,0.0,4263.589844,4605.128418,4197.436035,4204.615234000001,4336.922852000001,0.0,3.0,73.0,,,,0.0,0.0,0.0,2.0,0.0,0.0,0.0,,,,,,,,21.0,0.0,0.515075,-0.121582,0.084717,0.8442379999999999,0.304692,-0.019043,-0.9785309999999999,-0.00584,-0.011381,-0.027954000000000003,,,,,,,,,,,,,,,,,,,,,,,,,,,,,,,,,,,,,,,,,,,,,,,,,,,,,,,,,,,,,,,,,
18830,1648953240.32199,1648953240.363019,43.0,0.0,4186.666504,4657.94873,4509.230957,4134.358886999999,4109.230957,0.0,3.0,73.0,,,,0.0,0.0,0.0,2.0,0.0,0.0,0.0,,,,,,,,,,,,,,,,,,,,,,,,,,,,,,,,,,,,,,,,,,,,,,,,,,,,,,,,,,,,,,,,,,,,,,,,,,,,,,,,,,,,
18831,1648953240.3298051,1648953240.3708339,44.0,0.0,4120.512695,4585.128418,4627.692383,4258.461426,4009.743652,0.0,3.0,73.0,,,,0.0,0.0,0.0,2.0,0.0,0.0,0.0,,,,,,,,22.0,0.0,0.515475,-0.121582,0.084717,0.843994,0.291997,-0.016114,-0.973159,-0.005012,-0.011366,-0.031114999999999997,,,,,,,,,,,,,,,,,,,,,,,,,,,,,,,,,,,,,,,,,,,,,,,,,,,,,,,,,,,,,,,,,
18832,1648953240.33762,1648953240.3787491,45.0,0.0,4213.333496,4542.563965,4603.077147999999,4333.333496,4199.487305,0.0,3.0,73.0,,,,0.0,0.0,0.0,2.0,0.0,0.0,0.0,,,,,,,,,,,,,,,,,,,,,,,,,,,,,,,,,,,,,,,,,,,,,,,,,,,,,,0.0,0.0,32.0,0.073423,1.0,0.0,,,,,,,,,,,,,,,,,,,,,,,,,
18833,1648953240.345434,1648953240.386564,46.0,0.0,4458.461426,4549.230957,4606.666504,4477.436035,4534.358886999999,0.0,3.0,73.0,,,,0.0,0.0,0.0,2.0,0.0,0.0,0.0,,,,,,,,23.0,0.0,0.515475,-0.121582,0.084717,0.843994,0.30225100000000005,-0.016602000000000002,-0.978042,-0.004364,-0.011352,-0.027711000000000003,,,,,,,,,,,,,,,,,,,,,,,,,,,,,,,,,,,,,,,,,,,,,,,,,,,,,,,,,,,,,,,,,
18834,1648953240.353249,1648953240.3944788,47.0,0.0,4520.0,4524.615234000001,4503.589844,4613.846191,4641.025879,0.0,3.0,73.0,,,,0.0,0.0,0.0,2.0,0.0,0.0,0.0,,,,,,,,,,,,,,,,,,,,,,,,,,,,,,,,,,,,,,,,,,,,,,,,,,,,,,,,,,,,,,,,,,,,,,,,,,,,,,,,,,,,
18835,1648953240.361063,1648953240.402293,48.0,0.0,4273.333496,4617.436035,4338.974121,4363.589844,4338.974121,0.0,3.0,73.0,,,,0.0,0.0,0.0,2.0,0.0,0.0,0.0,,,,,,,,24.0,0.0,0.5154350000000001,-0.121582,0.084961,0.843994,0.30518,-0.025391,-0.9834129999999999,-0.0039770000000000005,-0.011145,-0.024745,,,,,,,,,,,,,,,,,,,,,,,,,,,,,,,,,,,,,,,,,,,,,,,,,,,,,,,,,,,,,,,,,
18836,1648953240.368878,1648953240.410208,49.0,0.0,4150.256348,4860.512695,4423.589844,4089.743652,4154.871582,0.0,3.0,73.0,,,,0.0,0.0,0.0,2.0,0.0,0.0,0.0,,,,,,,,,,,,,,,,,,,,1.0,0.0,0.0,,,,,,,,,,,,,,,,,,,,,,,,,,,,,,,,0.0,0.0,32.0,0.066731,1.0,0.0,36.953655,66.41986800000001,275.471069,759.756042,35.345603999999994,286.022003,87.904533,80.373398,104.160103,89.94455,320.824524,175.755203,131.782028,225.083435,103.756371,33.469807,20.09199,57.575919999999996,1025.947632,58.70369300000001,56.197075,36.843353,238.22551,962.7510380000001,70.978149
18837,1648953240.376692,1648953240.418023,50.0,0.0,4085.1281740000004,4770.256348,4585.641113000001,4151.794922,4260.512695,0.0,3.0,73.0,,,,0.0,0.0,0.0,2.0,0.0,0.0,0.0,,,,,,,,25.0,0.0,0.515475,-0.121582,0.084717,0.843994,0.31104,-0.023438,-0.976577,-0.003482,-0.011153,-0.028227,,,,,,,,,,,,,,,,,,,,,,,,,,,,,,,,,,,,,,,,,,,,,,,,,,,,,,,,,,,,,,,,,
18838,1648953240.384507,1648953240.4259381,51.0,0.0,4084.102539,4460.512695,4528.205078,4354.358886999999,4410.769043,0.0,3.0,73.0,,,,0.0,0.0,0.0,2.0,0.0,0.0,0.0,,,,,,,,,,,,,,,,,,,,,,,,,,,,,,,,,,,,,,,,,,,,,,,,,,,,,,,,,,,,,,,,,,,,,,,,,,,,,,,,,,,,
18839,1648953240.392321,1648953240.433753,52.0,0.0,4342.563965,4583.589844,4473.846191,4519.487305,4489.743652,0.0,3.0,73.0,,,,0.0,0.0,0.0,2.0,0.0,0.0,0.0,,,,,,,,26.0,0.0,0.5154350000000001,-0.121582,0.084961,0.843994,0.291997,-0.013184,-0.9922030000000001,-0.003085,-0.011063,-0.031459,,,,,,,,,,,,,,,,,,,,,,,,,,,,,,,,,,,,,,,,,,,,,,,,,,,,,,,,,,,,,,,,,
18840,1648953240.400136,1648953240.441668,53.0,0.0,4554.358886999999,4762.05127,4442.05127,4548.717772999999,4433.333496,0.0,3.0,73.0,,,,0.0,0.0,0.0,2.0,0.0,0.0,0.0,,,,,,,,,,,,,,,,,,,,,,,,,,,,,,,,,,,,,,,,,,,,,,,,,,,,,,0.0,0.0,32.0,0.066731,1.0,0.0,,,,,,,,,,,,,,,,,,,,,,,,,
18841,1648953240.4079509,1648953240.449482,54.0,0.0,4449.230957,4556.922852000001,4300.0,4242.05127,4214.871582,0.0,3.0,73.0,,,,0.0,0.0,0.0,2.0,0.0,0.0,0.0,,,,,,,,27.0,0.0,0.5154350000000001,-0.121582,0.084961,0.843994,0.300786,-0.018067,-0.969741,-0.002483,-0.01108,-0.034417,,,,,,,,,,,,,,,,,,,,,,,,,,,,,,,,,,,,,,,,,,,,,,,,,,,,,,,,,,,,,,,,,
18842,1648953240.415765,1648953240.4571972,55.0,0.0,4220.0,4410.256348,4248.717772999999,4031.281982,4248.717772999999,0.0,3.0,73.0,,,,0.0,0.0,0.0,2.0,0.0,0.0,0.0,,,,,,,,,,,,,,,,,,,,,,,,,,,,,,,,,,,,,,,,,,,,,,,,,,,,,,,,,,,,,,,,,,,,,,,,,,,,,,,,,,,,
18843,1648953240.4235802,1648953240.4650118,56.0,0.0,4180.0,4543.077147999999,4269.230957,4267.179688,4526.666504,0.0,3.0,73.0,,,,0.0,0.0,0.0,2.0,0.0,0.0,0.0,,,,,,,,28.0,0.0,0.5154350000000001,-0.121582,0.084961,0.843994,0.301762,-0.0043950000000000005,-0.975601,-0.002088,-0.011095,-0.036981,,,,,,,,,,,,,,,,,,,,,,,,,,,,,,,,,,,,,,,,,,,,,,,,,,,,,,,,,,,,,,,,,
18844,1648953240.4313939,1648953240.4729269,57.0,0.0,4426.666504,4598.461426,4287.179688,4592.307617,4562.05127,0.0,3.0,73.0,,,,0.0,0.0,0.0,2.0,0.0,0.0,0.0,,,,,,,,,,,,,,,,,,,,,,,,,,,,,,,,,,,,,,,,,,,,,,,,,,,,,,0.0,0.0,32.0,0.066731,1.0,0.0,,,,,,,,,,,,,,,,,,,,,,,,,
18845,1648953240.439209,1648953240.480742,58.0,0.0,4557.436035,4454.358886999999,4278.974121,4572.307617,4409.743652,0.0,3.0,73.0,,,,0.0,0.0,0.0,2.0,0.0,0.0,0.0,,,,,,,,29.0,0.0,0.5154350000000001,-0.121582,0.084961,0.843994,0.29639099999999996,-0.015137000000000001,-0.980484,-0.001928,-0.011059999999999999,-0.03924,,,,,,,,,,,,,,,,,,,,,,,,,,,,,,,,,,,,,,,,,,,,,,,,,,,,,,,,,,,,,,,,,
18846,1648953240.4470232,1648953240.488457,59.0,0.0,4322.563965,4414.871582,4203.589844,4225.128418,4254.871582,0.0,3.0,73.0,,,,0.0,0.0,0.0,2.0,0.0,0.0,0.0,,,,,,,,,,,,,,,,,,,,,,,,,,,,,,,,,,,,,,,,,,,,,,,,,,,,,,,,,,,,,,,,,,,,,,,,,,,,,,,,,,,,
18847,1648953240.454838,1648953240.496272,60.0,0.0,4146.666504,4623.077147999999,4221.538574,4032.820557,4104.615234000001,0.0,3.0,73.0,,,,0.0,0.0,0.0,2.0,0.0,0.0,0.0,,,,,,,,30.0,0.0,0.5154350000000001,-0.121582,0.084961,0.843994,0.284672,-0.023438,-0.972671,-0.0016870000000000001,-0.011126,-0.041322000000000005,,,,,,,,,,,,,,,,,,,,,,,,,,,,,,,,,,,,,,,,,,,,,,,,,,,,,,,,,,,,,,,,,
18848,1648953240.462652,1648953240.5039868,61.0,0.0,4240.0,4793.846191,4443.077147999999,4094.358887,4032.3076170000004,0.0,3.0,73.0,,,,0.0,0.0,0.0,2.0,0.0,0.0,0.0,,,,,,,,,,,,,,,,,,,,,,,,,,,,,,,,,,,,,,,,,,,,,,,,,,,,,,0.0,0.0,32.0,0.066731,1.0,0.0,,,,,,,,,,,,,,,,,,,,,,,,,
18849,1648953240.470467,1648953240.5119019,62.0,0.0,4411.794922,4717.94873,4557.94873,4314.358886999999,4168.205078,0.0,3.0,73.0,,,,0.0,0.0,0.0,2.0,0.0,0.0,0.0,,,,,,,,31.0,0.0,0.5153770000000001,-0.121826,0.084961,0.843994,0.299809,-0.017578,-0.975601,-0.001323,-0.011136,-0.036995,,,,,,,,,,,,,,,,,,,,,,,,,,,,,,,,,,,,,,,,,,,,,,,,,,,,,,,,,,,,,,,,,
18850,1648953240.478281,1648953240.519717,63.0,0.0,4496.922852000001,4649.743652,4392.820313,4574.871582,4407.179688,0.0,3.0,73.0,,,,0.0,0.0,0.0,2.0,0.0,0.0,0.0,,,,,,,,,,,,,,,,,,,,,,,,,,,,,,,,,,,,,,,,,,,,,,,,,,,,,,,,,,,,,,,,,,,,,,,,,,,,,,,,,,,,
18851,1648953240.4860961,1648953240.527632,64.0,0.0,4452.307617,4690.256348,4271.282227000001,4675.384765999999,4539.487305,450.0,3.0,73.0,,,,0.0,0.0,0.0,2.0,0.0,0.0,0.0,,,,,,,,32.0,0.0,0.5153770000000001,-0.121826,0.084961,0.843994,0.29639099999999996,-0.025879000000000003,-0.9643700000000001,0.001837,-0.010999,-0.039399,,,,,,,,,,,,,,,,,,,,,,,,,,,,,,,,,,,,,,,,,,,,,,,,,,,,,,,,,,,,,,,,,
18852,1648953240.49391,1648953240.5354471,65.0,0.0,4234.871582,4665.641113000001,4206.666504,4368.205078,4391.282227000001,450.0,3.0,73.0,,,,0.0,0.0,0.0,2.0,0.0,0.0,0.0,1.0,0.0,0.0,0.0,0.0,0.0,0.0,,,,,,,,,,,,,1.0,0.0,0.0,,,,,,,,,,,,,,,,,,,,,,,,,,,,,,,,0.0,0.0,32.0,0.067313,1.0,0.0,31.44521,53.760563,369.77417,665.001587,34.375759,241.432785,84.336784,75.39788100000001,116.416779,83.886909,272.507385,168.6492,164.254868,245.921402,100.54091600000001,35.78978,16.277334,59.921654000000004,1120.284302,53.580493999999995,57.644268000000004,32.421345,260.062073,945.8487550000001,64.820976
18853,1648953240.501725,1648953240.543362,66.0,0.0,4157.436035,4737.94873,4316.410156,4072.3076170000004,4275.384765999999,62.0,3.0,73.0,,,,0.0,1.0,0.0,2.0,0.0,0.0,0.0,,,,,,,,33.0,0.0,0.5153770000000001,-0.121826,0.084961,0.843994,0.29639099999999996,-0.008789,-0.98146,0.001702,-0.010973,-0.035264,,,,,,,,,,,,,,,,,,,,,,,,,,,,,,,,,,,,,,,,,,,,,,,,,,,,,,,,,,,,,,,,,
18854,1648953240.50954,1648953240.551177,67.0,0.0,4145.641113000001,4765.641113000001,4604.102539,4131.282227000001,4264.102539,450.0,3.0,73.0,,,,0.0,1.0,0.0,2.0,0.0,0.0,0.0,,,,,,,,,,,,,,,,,,,,,,,,,,,,,,,,,,,,,,,,,,,,,,,,,,,,,,,,,,,,,,,,,,,,,,,,,,,,,,,,,,,,
18855,1648953240.517354,1648953240.559092,68.0,0.0,4170.256348,4562.563965,4599.487305,4346.153809,4330.769043,90.0,3.0,73.0,,,,0.0,1.0,1.0,2.0,0.0,0.0,8.333333,,,,,,,,34.0,0.0,0.5154350000000001,-0.121582,0.084961,0.843994,0.295415,-0.024413999999999998,-0.972671,-0.001495,-0.01095,-0.031493,,,,,,,,,,,,,,,,,,,,,,,,,,,,,,,,,,,,,,,,,,,,,,,,,,,,,,,,,,,,,,,,,
18856,1648953240.525169,1648953240.566907,69.0,0.0,4404.615234000001,4610.256348,4440.0,4511.282227000001,4455.384765999999,450.0,3.0,73.0,,,,0.0,1.0,1.0,2.0,0.0,0.0,8.333333,,,,,,,,,,,,,,,,,,,,,,,,,,,,,,,,,,,,,,,,,,,,,,,,,,,,,,0.0,0.0,32.0,0.067313,1.0,0.0,,,,,,,,,,,,,,,,,,,,,,,,,
18857,1648953240.532983,1648953240.574821,70.0,0.0,4607.692383,4780.512695,4448.717772999999,4530.256348,4439.487305,55.0,3.0,73.0,,,,0.0,1.0,1.0,1.0,0.0,0.0,8.333333,,,,,,,,35.0,0.0,0.5154350000000001,-0.121582,0.084961,0.843994,0.29395,-0.018555000000000002,-0.997574,-0.001248,-0.010978,-0.0281,,,,,,,,,,,,,,,,,,,,,,,,,,,,,,,,,,,,,,,,,,,,,,,,,,,,,,,,,,,,,,,,,
18858,1648953240.540798,1648953240.5826359,71.0,0.0,4438.461426,4542.563965,4343.589844,4259.487305,4203.077147999999,450.0,3.0,73.0,,,,0.0,1.0,1.0,1.0,0.0,0.0,8.333333,,,,,,,,,,,,,,,,,,,,,,,,,,,,,,,,,,,,,,,,,,,,,,,,,,,,,,,,,,,,,,,,,,,,,,,,,,,,,,,,,,,,
18859,1648953240.5486119,1648953240.590551,72.0,0.0,4180.0,4365.641113000001,4178.974121,4034.358887,4190.256348,450.0,3.0,73.0,,,,0.0,1.0,1.0,1.0,0.0,0.0,8.333333,,,,,,,,36.0,0.0,0.5154350000000001,-0.121582,0.084961,0.843994,0.299809,-0.013672,-0.9751129999999999,-0.001075,-0.011052,-0.025093999999999998,,,,,,,,,,,,,,,,,,,,,,,,,,,,,,,,,,,,,,,,,,,,,,,,,,,,,,,,,,,,,,,,,
18860,1648953240.556427,1648953240.598366,73.0,0.0,4107.179688,4604.615234000001,4384.102539,4191.282227000001,4450.256348,0.0,3.0,73.0,,,,0.0,1.0,1.0,1.0,0.0,0.0,8.333333,,,,,,,,,,,,,,,,,,,,,,,,,,,,,,,,,,,,,,,,,,,,,,,,,,,,,,0.0,0.0,32.0,0.067313,1.0,0.0,,,,,,,,,,,,,,,,,,,,,,,,,
18861,1648953240.564242,1648953240.606281,74.0,0.0,4190.769043,4722.05127,4561.025879,4491.282227000001,4538.461426,450.0,3.0,73.0,,,,0.0,1.0,1.0,1.0,0.0,0.0,8.333333,,,,,,,,37.0,0.0,0.515475,-0.121582,0.084717,0.843994,0.300298,-0.025879000000000003,-0.976577,-0.001065,-0.01107,-0.028542,,,,,,,,,,,,,,,,,,,,,,,,,,,,,,,,,,,,,,,,,,,,,,,,,,,,,,,,,,,,,,,,,
18862,1648953240.572056,1648953240.614095,75.0,0.0,4329.743652,4586.666504,4348.205078,4568.205078,4505.128418,13.0,3.0,73.0,,,,0.0,1.0,1.0,1.0,0.0,0.0,8.333333,,,,,,,,,,,,,,,,,,,,,,,,,,,,,,,,,,,,,,,,,,,,,,,,,,,,,,,,,,,,,,,,,,,,,,,,,,,,,,,,,,,,
18863,1648953240.5798712,1648953240.62181,76.0,0.0,4322.563965,4589.230957,4259.487305,4321.025879,4388.717772999999,450.0,3.0,73.0,,,,0.0,1.0,1.0,1.0,0.0,0.0,8.333333,,,,,,,,38.0,0.0,0.5154350000000001,-0.121582,0.084961,0.843994,0.29395,-0.018555000000000002,-0.997574,-0.0008609999999999999,-0.011086,-0.025444,,,,,,,,,,,,,,,,,,,,,,,,,,,,,,,,,,,,,,,,,,,,,,,,,,,,,,,,,,,,,,,,,
18864,1648953240.5876849,1648953240.629726,77.0,0.0,4249.743652,4753.333496,4489.743652,4092.820557,4156.410156,450.0,3.0,73.0,,,,0.0,1.0,1.0,1.0,0.0,0.0,8.333333,,,,,,,,,,,,,,,,,,,,,,,,,,,,,,,,,,,,,,,,,,,,,,,,,,,,,,0.0,0.0,32.0,0.067313,1.0,0.0,,,,,,,,,,,,,,,,,,,,,,,,,
18865,1648953240.5955,1648953240.637541,78.0,0.0,4236.922852000001,4822.05127,4539.487305,4067.179443,3999.487061,450.0,3.0,73.0,,,,0.0,1.0,1.0,1.0,0.0,0.0,8.333333,,,,,,,,39.0,0.0,0.5153770000000001,-0.121826,0.084961,0.843994,0.298344,-0.006836,-0.982925,-0.000726,-0.011052,-0.022704,,,,,,,,,,,,,,,,,,,,,,,,,,,,,,,,,,,,,,,,,,,,,,,,,,,,,,,,,,,,,,,,,
18866,1648953240.6033142,1648953240.645456,79.0,0.0,4349.743652,4705.641113000001,4363.589844,4316.410156,4151.794922,13.0,3.0,73.0,,,,0.0,1.0,1.0,1.0,0.0,0.0,8.333333,,,,,,,,,,,,,,,,,,,,,,,,,,,,,,,,,,,,,,,,,,,,,,,,,,,,,,,,,,,,,,,,,,,,,,,,,,,,,,,,,,,,
18867,1648953240.6111288,1648953240.6532712,80.0,0.0,4521.538574,4595.897461,4297.94873,4610.769043,4407.692383,450.0,3.0,73.0,,,,0.0,1.0,1.0,1.0,0.0,0.0,8.333333,,,,,,,,40.0,0.0,0.515018,-0.121826,0.084717,0.8442379999999999,0.298344,-0.005371,-0.9790190000000001,-0.000458,-0.01107,-0.026488,,,,,,,,,,,,,,,,,,,,,,,,,,,,,,,,,,,,,,,,,,,,,,,,,,,,,,,,,,,,,,,,,
18868,1648953240.618943,1648953240.661186,81.0,0.0,4573.333496,4548.205078,4322.563965,4649.743652,4522.05127,450.0,3.0,73.0,,,,0.0,1.0,1.0,1.0,0.0,0.0,8.333333,,,,,,,,,,,,,,,,,,,,1.0,0.0,0.0,,,,,,,,,,,,,,,,,,,,,,,,,,,,,,,,0.0,0.0,32.0,0.073428,1.0,0.0,31.09733,40.527744,467.50237999999996,583.5450440000001,34.160839,196.418152,82.81478100000001,67.206535,127.41988400000001,77.186485,236.55221600000002,153.60646100000002,201.005463,257.319061,98.005394,37.440426,13.696639000000001,71.433464,1204.388306,49.932784999999996,59.273499,27.512857,278.040436,919.4542849999999,59.396209999999996
18869,1648953240.626758,1648953240.6690009,82.0,0.0,4314.871582,4485.641113000001,4215.384765999999,4317.436035,4401.538574,450.0,3.0,73.0,,,,0.0,1.0,1.0,1.0,0.0,0.0,8.333333,,,,,,,,41.0,0.0,0.515018,-0.121826,0.084717,0.8442379999999999,0.298833,-0.016602000000000002,-0.9716950000000001,-0.0033420000000000004,-0.011134999999999999,-0.023594999999999998,,,,,,,,,,,,,,,,,,,,,,,,,,,,,,,,,,,,,,,,,,,,,,,,,,,,,,,,,,,,,,,,,
18870,1648953240.634572,1648953240.676816,83.0,0.0,4148.717772999999,4615.897461,4256.410156,4068.718018,4270.256348,13.0,3.0,73.0,,,,0.0,1.0,1.0,1.0,0.0,0.0,8.333333,,,,,,,,,,,,,,,,,,,,,,,,,,,,,,,,,,,,,,,,,,,,,,,,,,,,,,,,,,,,,,,,,,,,,,,,,,,,,,,,,,,,
18871,1648953240.642387,1648953240.684531,84.0,0.0,4136.922852000001,4754.871582,4541.025879,4146.153809,4211.794922,450.0,3.0,73.0,,,,0.0,1.0,1.0,1.0,0.0,0.0,8.333333,,,,,,,,42.0,0.0,0.515418,-0.121826,0.084717,0.843994,0.306645,-0.013184,-0.9785309999999999,6.9e-05,-0.011144,-0.027193000000000002,,,,,,,,,,,,,,,,,,,,,,,,,,,,,,,,,,,,,,,,,,,,,,,,,,,,,,,,,,,,,,,,,
18872,1648953240.650201,1648953240.692346,85.0,0.0,4151.282227000001,4559.487305,4627.179688,4308.717772999999,4262.563965,450.0,3.0,73.0,,,,0.0,1.0,1.0,1.0,0.0,0.0,8.333333,,,,,,,,,,,,,,,,,,,,,,,,,,,,,,,,,,,,,,,,,,,,,,,,,,,,,,0.0,0.0,32.0,0.073428,1.0,0.0,,,,,,,,,,,,,,,,,,,,,,,,,
18873,1648953240.658016,1648953240.7000608,86.0,0.0,4347.179688,4517.436035,4497.436035,4460.512695,4460.512695,450.0,3.0,73.0,,,,0.0,1.0,1.0,1.0,0.0,0.0,8.333333,,,,,,,,43.0,0.0,0.5154350000000001,-0.121582,0.084961,0.843994,0.298833,-0.019043,-0.975601,0.00025699999999999996,-0.011153,-0.030527999999999996,,,,,,,,,,,,,,,,,,,,,,,,,,,,,,,,,,,,,,,,,,,,,,,,,,,,,,,,,,,,,,,,,
18874,1648953240.6658301,1648953240.7079759,87.0,0.0,4543.589844,4758.461426,4449.743652,4584.102539,4549.230957,13.0,3.0,73.0,,,,0.0,1.0,1.0,1.0,0.0,0.0,8.333333,,,,,,,,,,,,,,,,,,,,,,,,,,,,,,,,,,,,,,,,,,,,,,,,,,,,,,,,,,,,,,,,,,,,,,,,,,,,,,,,,,,,
18875,1648953240.673645,1648953240.715791,88.0,0.0,4431.282227000001,4698.974121,4289.230957,4386.153809,4304.615234000001,450.0,3.0,73.0,,,,0.0,1.0,1.0,1.0,0.0,0.0,8.333333,,,,,,,,44.0,0.0,0.5153770000000001,-0.121826,0.084961,0.843994,0.31006300000000003,-0.015625,-0.981949,0.00032900000000000003,-0.01121,-0.033579000000000005,,,,,,,,,,,,,,,,,,,,,,,,,,,,,,,,,,,,,,,,,,,,,,,,,,,,,,,,,,,,,,,,,
18876,1648953240.68146,1648953240.723706,89.0,0.0,4255.897461,4544.615234000001,4100.0,4056.4101560000004,4212.307617,450.0,3.0,73.0,,,,0.0,1.0,1.0,1.0,0.0,0.0,8.333333,,,,,,,,,,,,,,,,,,,,,,,,,,,,,,,,,,,,,,,,,,,,,,,,,,,,,,0.0,0.0,32.0,0.073428,1.0,0.0,,,,,,,,,,,,,,,,,,,,,,,,,
18877,1648953240.689274,1648953240.7315211,90.0,0.0,4164.102539,4657.436035,4349.743652,4141.025879,4469.230957,450.0,3.0,73.0,,,,0.0,1.0,1.0,1.0,0.0,0.0,8.333333,,,,,,,,45.0,0.0,0.5154350000000001,-0.121582,0.084961,0.843994,0.306157,-0.009766,-0.9799950000000001,0.000394,-0.011212,-0.029927999999999996,,,,,,,,,,,,,,,,,,,,,,,,,,,,,,,,,,,,,,,,,,,,,,,,,,,,,,,,,,,,,,,,,
18878,1648953240.697089,1648953240.739435,91.0,0.0,4157.94873,4712.820313,4571.282227000001,4468.205078,4560.0,13.0,3.0,73.0,,,,0.0,1.0,1.0,1.0,0.0,0.0,8.333333,,,,,,,,,,,,,,,,,,,,,,,,,,,,,,,,,,,,,,,,,,,,,,,,,,,,,,,,,,,,,,,,,,,,,,,,,,,,,,,,,,,,
18879,1648953240.704903,1648953240.74725,92.0,0.0,4334.358886999999,4610.256348,4385.128418,4564.102539,4482.563965,450.0,3.0,73.0,,,,0.0,1.0,1.0,1.0,0.0,0.0,8.333333,,,,,,,,46.0,0.0,0.5153949999999999,-0.121582,0.08520499999999999,0.843994,0.303716,-0.019043,-0.976089,0.0005009999999999999,-0.011311,-0.033039,,,,,,,,,,,,,,,,,,,,,,,,,,,,,,,,,,,,,,,,,,,,,,,,,,,,,,,,,,,,,,,,,
18880,1648953240.712718,1648953240.755165,93.0,0.0,4400.0,4648.205078,4211.794922,4370.769043,4382.05127,450.0,3.0,73.0,,,,0.0,1.0,1.0,1.0,0.0,0.0,8.333333,,,,,,,,,,,,,,,,,,,,,,,,,,,,,,,,,,,,,,,,,,,,,,,,,,,,,,0.0,0.0,32.0,0.073428,1.0,0.0,,,,,,,,,,,,,,,,,,,,,,,,,
18881,1648953240.720533,1648953240.76298,94.0,0.0,4295.897461,4780.512695,4346.666504,4170.769043,4197.94873,450.0,3.0,73.0,,,,0.0,1.0,1.0,1.0,0.0,0.0,8.333333,,,,,,,,47.0,0.0,0.5153949999999999,-0.121582,0.08520499999999999,0.843994,0.290532,-0.014649,-0.973159,0.000597,-0.011303,-0.029588999999999997,,,,,,,,,,,,,,,,,,,,,,,,,,,,,,,,,,,,,,,,,,,,,,,,,,,,,,,,,,,,,,,,,
18882,1648953240.728347,1648953240.770895,95.0,0.0,4246.666504,4750.769043,4471.282227000001,4066.6667479999996,4010.7692869999996,13.0,3.0,73.0,,,,0.0,1.0,1.0,1.0,0.0,0.0,8.333333,,,,,,,,,,,,,,,,,,,,,,,,,,,,,,,,,,,,,,,,,,,,,,,,,,,,,,,,,,,,,,,,,,,,,,,,,,,,,,,,,,,,
18883,1648953240.736162,1648953240.77871,96.0,0.0,4341.025879,4636.410156,4507.179688,4199.487305,4124.102539,450.0,3.0,73.0,,,,0.0,1.0,1.0,1.0,0.0,0.0,8.333333,,,,,,,,48.0,0.0,0.5153949999999999,-0.121582,0.08520499999999999,0.843994,0.301274,-0.018555000000000002,-0.9956209999999999,0.003614,-0.011345000000000001,-0.032685000000000006,,,,,,,,,,,,,,,,,,,,,,,,,,,,,,,,,,,,,,,,,,,,,,,,,,,,,,,,,,,,,,,,,
18884,1648953240.7439759,1648953240.786624,97.0,0.0,4394.871582,4642.05127,4559.487305,4494.358886999999,4403.589844,450.0,3.0,73.0,,,,0.0,1.0,1.0,1.0,0.0,0.0,8.333333,,,,,,,,,,,,,,,,,,,,1.0,0.0,0.0,,,,,,,,,,,,,,,,,,,,,,,,,,,,,,,,0.0,0.0,32.0,0.077448,1.0,0.0,35.212253999999994,30.569042,547.157837,518.834473,34.253166,155.55110200000001,83.133804,57.126984,136.256577,71.650635,222.162933,135.35159299999998,236.40211499999998,258.707428,95.0821,37.616531,11.987038,85.578911,1272.9376220000001,48.354488,61.902308999999995,23.026447,290.790894,887.2416380000001,54.624309999999994
18885,1648953240.751791,1648953240.794439,98.0,0.0,4383.077147999999,4646.153809,4420.512695,4674.358886999999,4564.615234000001,450.0,3.0,73.0,,,,0.0,1.0,1.0,1.0,0.0,0.0,8.333333,,,,,,,,49.0,0.0,0.5153949999999999,-0.121582,0.08520499999999999,0.843994,0.299321,-0.011231,-0.9799950000000001,0.000323,-0.011479999999999999,-0.029123000000000003,,,,,,,,,,,,,,,,,,,,,,,,,,,,,,,,,,,,,,,,,,,,,,,,,,,,,,,,,,,,,,,,,
18886,1648953240.7596052,1648953240.8023539,99.0,0.0,4249.743652,4569.743652,4161.025879,4428.717772999999,4455.384765999999,13.0,3.0,73.0,,,,0.0,1.0,1.0,1.0,0.0,0.0,8.333333,,,,,,,,,,,,,,,,,,,,,,,,,,,,,,,,,,,,,,,,,,,,,,,,,,,,,,,,,,,,,,,,,,,,,,,,,,,,,,,,,,,,
18887,1648953240.7674198,1648953240.810169,100.0,0.0,4174.871582,4664.615234000001,4249.230957,4118.974121,4258.974121,450.0,3.0,73.0,,,,0.0,1.0,1.0,1.0,0.0,0.0,8.333333,,,,,,,,50.0,0.0,0.5154350000000001,-0.121582,0.084961,0.843994,0.29639099999999996,-0.021485,-0.973159,0.000242,-0.011406,-0.025967,,,,,,,,,,,,,,,,,,,,,,,,,,,,,,,,,,,,,,,,,,,,,,,,,,,,,,,,,,,,,,,,,
18888,1648953240.775234,1648953240.817884,101.0,0.0,4137.436035,4770.256348,4543.077147999999,4149.230957,4131.794922,450.0,3.0,73.0,,,,0.0,1.0,1.0,1.0,0.0,0.0,8.333333,,,,,,,,,,,,,,,,,,,,,,,,,,,,,,,,,,,,,,,,,,,,,,,,,,,,,,0.0,0.0,32.0,0.077448,1.0,0.0,,,,,,,,,,,,,,,,,,,,,,,,,
18889,1648953240.783049,1648953240.825699,102.0,0.0,4168.205078,4613.846191,4589.230957,4313.846191,4184.615234000001,450.0,3.0,73.0,,,,0.0,1.0,1.0,1.0,0.0,0.0,8.333333,,,,,,,,51.0,0.0,0.5153369999999999,-0.121826,0.08520499999999999,0.843994,0.302739,-0.012695999999999999,-0.9824370000000001,0.000169,-0.011290999999999999,-0.029376,,,,,,,,,,,,,,,,,,,,,,,,,,,,,,,,,,,,,,,,,,,,,,,,,,,,,,,,,,,,,,,,,
18890,1648953240.790863,1648953240.833414,103.0,0.0,4386.153809,4553.846191,4531.282227000001,4462.563965,4432.307617,13.0,3.0,73.0,,,,0.0,1.0,1.0,1.0,0.0,0.0,8.333333,,,,,,,,,,,,,,,,,,,,,,,,,,,,,,,,,,,,,,,,,,,,,,,,,,,,,,,,,,,,,,,,,,,,,,,,,,,,,,,,,,,,
18891,1648953240.798678,1648953240.841229,104.0,0.0,4541.025879,4681.538574,4498.461426,4613.846191,4548.717772999999,450.0,3.0,73.0,,,,0.0,1.0,1.0,1.0,0.0,0.0,8.333333,,,,,,,,52.0,0.0,0.5153369999999999,-0.121826,0.08520499999999999,0.843994,0.29639099999999996,-0.03125,-0.983902,0.003228,-0.011334,-0.032444,,,,,,,,,,,,,,,,,,,,,,,,,,,,,,,,,,,,,,,,,,,,,,,,,,,,,,,,,,,,,,,,,
18892,1648953240.806492,1648953240.848944,105.0,0.0,4423.589844,4667.179688,4283.589844,4434.358886999999,4352.820313,450.0,3.0,73.0,,,,0.0,1.0,1.0,1.0,0.0,0.0,8.333333,,,,,,,,,,,,,,,,,,,,,,,,,,,,,,,,,,,,,,,,,,,,,,,,,,,,,,0.0,0.0,32.0,0.077448,1.0,0.0,,,,,,,,,,,,,,,,,,,,,,,,,
18893,1648953240.814307,1648953240.856759,106.0,0.0,4264.615234000001,4651.794922,4159.487305,4105.641113000001,4207.179688,450.0,3.0,73.0,,,,0.0,1.0,1.0,1.0,0.0,0.0,8.333333,,,,,,,,53.0,0.0,0.5153369999999999,-0.121826,0.08520499999999999,0.843994,0.304204,-0.019532,-0.977554,0.002954,-0.011323,-0.035206,,,,,,,,,,,,,,,,,,,,,,,,,,,,,,,,,,,,,,,,,,,,,,,,,,,,,,,,,,,,,,,,,
18894,1648953240.822122,1648953240.864474,107.0,0.0,4165.128418,4671.794922,4383.077147999999,4109.230957,4259.487305,13.0,3.0,73.0,,,,0.0,1.0,1.0,1.0,0.0,0.0,8.333333,,,,,,,,,,,,,,,,,,,,,,,,,,,,,,,,,,,,,,,,,,,,,,,,,,,,,,,,,,,,,,,,,,,,,,,,,,,,,,,,,,,,
18895,1648953240.829936,1648953240.872389,108.0,0.0,4050.256348,4523.589844,4514.358886999999,4182.05127,4259.487305,450.0,3.0,73.0,,,,0.0,1.0,1.0,1.0,0.0,0.0,8.333333,,,,,,,,54.0,0.0,0.5153369999999999,-0.121826,0.08520499999999999,0.843994,0.29395,-0.013184,-0.980972,0.0027559999999999998,-0.011265,-0.031441000000000004,,,,,,,,,,,,,,,,,,,,,,,,,,,,,,,,,,,,,,,,,,,,,,,,,,,,,,,,,,,,,,,,,
18896,1648953240.837751,1648953240.880204,109.0,0.0,4173.333496,4414.871582,4479.487305,4227.692383,4369.230957,450.0,3.0,73.0,,,,0.0,1.0,1.0,1.0,0.0,0.0,8.333333,,,,,,,,,,,,,,,,,,,,,,,,,,,,,,,,,,,,,,,,,,,,,,,,,,,,,,0.0,0.0,32.0,0.077448,1.0,0.0,,,,,,,,,,,,,,,,,,,,,,,,,
18897,1648953240.845565,1648953240.8880188,110.0,0.0,4508.205078,4470.256348,4426.153809,4333.333496,4634.358886999999,450.0,3.0,73.0,,,,0.0,1.0,1.0,1.0,0.0,0.0,8.333333,,,,,,,,55.0,0.0,0.5153369999999999,-0.121826,0.08520499999999999,0.843994,0.299809,-0.013672,-0.988785,0.002627,-0.011359000000000001,-0.034303,,,,,,,,,,,,,,,,,,,,,,,,,,,,,,,,,,,,,,,,,,,,,,,,,,,,,,,,,,,,,,,,,
18898,1648953240.85338,1648953240.895734,111.0,0.0,4617.436035,4530.769043,4443.077147999999,4377.436035,4593.333496,13.0,3.0,73.0,,,,0.0,1.0,1.0,1.0,0.0,0.0,8.333333,,,,,,,,,,,,,,,,,,,,,,,,,,,,,,,,,,,,,,,,,,,,,,,,,,,,,,,,,,,,,,,,,,,,,,,,,,,,,,,,,,,,
18899,1648953240.861194,1648953240.903649,112.0,0.0,4354.358886999999,4589.230957,4563.589844,4242.05127,4142.05127,450.0,3.0,73.0,,,,0.0,1.0,1.0,1.0,0.0,0.0,8.333333,,,,,,,,56.0,0.0,0.515354,-0.121582,0.085449,0.843994,0.300786,-0.029297000000000004,-0.976577,0.005441,-0.011347,-0.036879,,,,,,,,,,,,,,,,,,,,,,,,,,,,,,,,,,,,,,,,,,,,,,,,,,,,,,,,,,,,,,,,,
18900,1648953240.869009,1648953240.911464,113.0,0.0,4184.615234000001,4691.794922,4752.820313,4219.487305,4045.1281740000004,450.0,3.0,73.0,,,,0.0,1.0,1.0,1.0,0.0,0.0,8.333333,,,,,,,,,,,,,,,,,,,,1.0,0.0,0.0,,,,,,,,,,,,,,,,,,,,,,,,,,,,,,,,0.0,0.0,32.0,0.078234,1.0,0.0,41.511852000000005,25.473557,591.748962,473.18515,34.382095,120.403824,87.66501600000001,47.222809000000005,141.766602,69.58483100000001,230.256363,119.240082,266.83245800000003,252.44635,91.351242,35.690311,10.756708999999999,96.335495,1323.664429,48.981590000000004,66.879623,19.609499,300.462463,854.015686,50.489227
18901,1648953240.876823,1648953240.919378,114.0,0.0,4228.205078,4677.94873,4669.743652,4348.717772999999,4398.974121,450.0,3.0,73.0,,,,0.0,1.0,1.0,1.0,0.0,0.0,8.333333,,,,,,,,57.0,0.0,0.515354,-0.121582,0.085449,0.843994,0.297856,-0.02295,-0.984878,0.005092,-0.011384,-0.039294,,,,,,,,,,,,,,,,,,,,,,,,,,,,,,,,,,,,,,,,,,,,,,,,,,,,,,,,,,,,,,,,,
18902,1648953240.884638,1648953240.927193,115.0,0.0,4349.230957,4556.410156,4515.897461,4508.717772999999,4590.256348,13.0,3.0,73.0,,,,0.0,1.0,1.0,1.0,0.0,0.0,8.333333,,,,,,,,,,,,,,,,,,,,,,,,,,,,,,,,,,,,,,,,,,,,,,,,,,,,,,,,,,,,,,,,,,,,,,,,,,,,,,,,,,,,
18903,1648953240.892453,1648953240.935108,116.0,0.0,4392.307617,4566.666504,4557.436035,4408.717772999999,4440.0,450.0,3.0,73.0,,,,0.0,1.0,1.0,1.0,0.0,0.0,8.333333,,,,,,,,58.0,0.0,0.5153369999999999,-0.121826,0.08520499999999999,0.843994,0.299809,-0.013672,-0.988785,0.0015550000000000002,-0.01132,-0.035121,,,,,,,,,,,,,,,,,,,,,,,,,,,,,,,,,,,,,,,,,,,,,,,,,,,,,,,,,,,,,,,,,
18904,1648953240.900267,1648953240.942923,117.0,0.0,4392.820313,4768.205078,4548.717772999999,4146.666504,4329.743652,450.0,3.0,73.0,,,,0.0,1.0,1.0,1.0,0.0,0.0,8.333333,,,,,,,,,,,,,,,,,,,,,,,,,,,,,,,,,,,,,,,,,,,,,,,,,,,,,,0.0,0.0,32.0,0.078234,1.0,0.0,,,,,,,,,,,,,,,,,,,,,,,,,
18905,1648953240.908082,1648953240.950838,118.0,0.0,4200.512695,4751.794922,4498.974121,4150.256348,4211.282227000001,450.0,3.0,73.0,,,,0.0,1.0,1.0,1.0,0.0,0.0,8.333333,,,,,,,,59.0,0.0,0.515354,-0.121582,0.085449,0.843994,0.297856,-0.02295,-0.984878,0.0015949999999999998,-0.011359999999999999,-0.037712,,,,,,,,,,,,,,,,,,,,,,,,,,,,,,,,,,,,,,,,,,,,,,,,,,,,,,,,,,,,,,,,,
18906,1648953240.9158962,1648953240.958653,119.0,0.0,4047.6923829999996,4491.282227000001,4547.179688,4296.922852000001,4127.692383,13.0,3.0,73.0,,,,0.0,1.0,1.0,1.0,0.0,0.0,8.333333,,,,,,,,,,,,,,,,,,,,,,,,,,,,,,,,,,,,,,,,,,,,,,,,,,,,,,,,,,,,,,,,,,,,,,,,,,,,,,,,,,,,
18907,1648953240.9237108,1648953240.966567,120.0,0.0,4251.282227000001,4450.769043,4650.769043,4390.256348,4372.307617,450.0,3.0,73.0,,,,0.0,1.0,1.0,1.0,0.0,0.0,8.333333,,,,,,,,60.0,0.0,0.514897,-0.121826,0.085449,0.8442379999999999,0.298833,-0.003906,-0.973648,0.001533,-0.011444,-0.033697000000000005,,,,,,,,,,,,,,,,,,,,,,,,,,,,,,,,,,,,,,,,,,,,,,,,,,,,,,,,,,,,,,,,,
18908,1648953240.931525,1648953240.974382,121.0,0.0,4522.05127,4521.538574,4642.563965,4534.871582,4746.666504,450.0,3.0,73.0,,,,0.0,1.0,1.0,1.0,0.0,0.0,8.333333,,,,,,,,,,,,,,,,,,,,,,,,,,,,,,,,,,,,,,,,,,,,,,,,,,,,,,0.0,0.0,32.0,0.078234,1.0,0.0,,,,,,,,,,,,,,,,,,,,,,,,,
18909,1648953240.93934,1648953240.9822972,122.0,0.0,4525.641113000001,4562.563965,4532.307617,4499.487305,4599.487305,450.0,3.0,73.0,,,,0.0,1.0,1.0,1.0,0.0,0.0,8.333333,,,,,,,,61.0,0.0,0.514897,-0.121826,0.085449,0.8442379999999999,0.311528,-0.01709,-0.9858549999999999,0.004456,-0.011423,-0.036333,,,,,,,,,,,,,,,,,,,,,,,,,,,,,,,,,,,,,,,,,,,,,,,,,,,,,,,,,,,,,,,,,
18910,1648953240.9471538,1648953240.9901118,123.0,0.0,4318.974121,4762.05127,4411.282227000001,4194.871582,4113.846191,13.0,3.0,73.0,,,,0.0,1.0,1.0,1.0,0.0,0.0,8.333333,,,,,,,,,,,,,,,,,,,,,,,,,,,,,,,,,,,,,,,,,,,,,,,,,,,,,,,,,,,,,,,,,,,,,,,,,,,,,,,,,,,,
18911,1648953240.954969,1648953240.997827,124.0,0.0,4120.0,4877.436035,4483.077147999999,4082.0512700000004,4183.077147999999,450.0,3.0,73.0,,,,0.0,1.0,1.0,1.0,0.0,0.0,8.333333,,,,,,,,62.0,0.0,0.515297,-0.121826,0.085449,0.843994,0.303716,-0.014649,-0.98146,0.000983,-0.011306,-0.032358,,,,,,,,,,,,,,,,,,,,,,,,,,,,,,,,,,,,,,,,,,,,,,,,,,,,,,,,,,,,,,,,,
18912,1648953240.962783,1648953241.005642,125.0,0.0,4023.076904,4629.743652,4609.230957,4251.794922,4520.512695,450.0,3.0,73.0,,,,0.0,1.0,1.0,1.0,0.0,0.0,8.333333,,,,,,,,,,,,,,,,,,,,,,,,,,,,,,,,,,,,,,,,,,,,,,,,,,,,,,0.0,0.0,32.0,0.078234,1.0,0.0,,,,,,,,,,,,,,,,,,,,,,,,,
18913,1648953240.970598,1648953241.013357,126.0,0.0,4186.666504,4465.641113000001,4450.769043,4444.615234000001,4537.436035,450.0,3.0,73.0,,,,0.0,1.0,1.0,1.0,0.0,0.0,8.333333,,,,,,,,63.0,0.0,0.515297,-0.121826,0.085449,0.843994,0.305669,-0.008301000000000001,-0.9863430000000001,0.003961,-0.01125,-0.035128,,,,,,,,,,,,,,,,,,,,,,,,,,,,,,,,,,,,,,,,,,,,,,,,,,,,,,,,,,,,,,,,,
18914,1648953240.978413,1648953241.021172,127.0,0.0,4401.538574,4636.410156,4326.153809,4535.897461,4375.897461,238.0,3.0,73.0,,,,0.0,1.0,1.0,1.0,0.0,0.0,8.333333,,,,,,,,,,,,,,,,,,,,,,,,,,,,,,,,,,,,,,,,,,,,,,,,,,,,,,,,,,,,,,,,,,,,,,,,,,,,,,,,,,,,
18915,1648953240.986227,1648953241.0288868,0.0,0.0,4455.897461,4660.0,4342.563965,4421.538574,4278.974121,450.0,3.0,73.0,,,,0.0,1.0,1.0,1.0,0.0,0.0,8.333333,,,,,,,,0.0,0.0,0.515297,-0.121826,0.085449,0.843994,0.311528,-0.030762,-0.972671,0.000538,-0.011297,-0.03142,,,,,,,,,,,,,,,,,,,,,,,,,,,,,,,,,,,,,,,,,,,,,,,,,,,,,,,,,,,,,,,,,
18916,1648953240.994042,1648953241.036701,1.0,0.0,4354.358886999999,4531.282227000001,4257.94873,4075.384521,4122.563965,450.0,3.0,73.0,,,,0.0,1.0,1.0,1.0,0.0,0.0,8.333333,1.0,0.0,0.0,0.0,0.0,0.0,0.0,,,,,,,,,,,,,1.0,0.0,0.0,,,,,,,,,,,,,,,,,,,,,,,,,,,,,,,,0.0,0.0,32.0,0.08841,1.0,0.0,47.173241,24.271748000000002,596.473083,448.181488,34.971905,92.775963,98.183014,40.802601,141.861145,72.379463,254.101654,106.730499,291.463013,243.126938,87.068253,31.738489,9.955594999999999,100.893074,1355.803467,50.842354,75.096062,18.113541,310.94787599999995,821.7781980000001,47.383666999999996
18917,1648953241.001856,1648953241.044416,2.0,0.0,4243.077147999999,4506.153809,4158.461426,4095.897461,4184.102539,119.0,3.0,73.0,,,,0.0,1.0,1.0,1.0,0.0,0.0,8.333333,,,,,,,,1.0,0.0,0.515297,-0.121826,0.085449,0.843994,0.290532,-0.028808999999999998,-0.984878,0.000337,-0.011339,-0.027985000000000003,,,,,,,,,,,,,,,,,,,,,,,,,,,,,,,,,,,,,,,,,,,,,,,,,,,,,,,,,,,,,,,,,
18918,1648953241.0096712,1648953241.052231,3.0,0.0,4361.538574,4579.487305,4217.94873,4498.974121,4433.846191,450.0,3.0,73.0,,,,0.0,1.0,1.0,1.0,0.0,0.0,8.333333,,,,,,,,,,,,,,,,,,,,,,,,,,,,,,,,,,,,,,,,,,,,,,,,,,,,,,,,,,,,,,,,,,,,,,,,,,,,,,,,,,,,
18919,1648953241.017485,1648953241.059946,4.0,0.0,4596.410156,4529.743652,4239.487305,4707.179688,4543.077147999999,12.0,3.0,73.0,,,,0.0,1.0,0.0,1.0,0.0,0.0,0.0,,,,,,,,2.0,0.0,0.515297,-0.121826,0.085449,0.843994,0.293462,-0.010254000000000001,-0.982925,0.00025499999999999996,-0.011377,-0.031094999999999998,,,,,,,,,,,,,,,,,,,,,,,,,,,,,,,,,,,,,,,,,,,,,,,,,,,,,,,,,,,,,,,,,
18920,1648953241.0253,1648953241.0678608,5.0,0.0,4434.871582,4456.922852000001,4130.769043,4420.512695,4475.384765999999,450.0,3.0,73.0,,,,0.0,1.0,0.0,0.0,0.0,0.0,0.0,,,,,,,,,,,,,,,,,,,,,,,,,,,,,,,,,,,,,,,,,,,,,,,,,,,,,,0.0,0.0,32.0,0.08841,1.0,0.0,,,,,,,,,,,,,,,,,,,,,,,,,
18921,1648953241.033114,1648953241.075676,6.0,0.0,4183.077147999999,4626.666504,4278.974121,4132.307617,4280.512695,0.0,3.0,73.0,,,,0.0,1.0,0.0,0.0,0.0,0.0,0.0,,,,,,,,3.0,0.0,0.515297,-0.121826,0.085449,0.843994,0.29443800000000003,-0.02295,-0.9873200000000001,0.0033049999999999998,-0.011411,-0.033943,,,,,,,,,,,,,,,,,,,,,,,,,,,,,,,,,,,,,,,,,,,,,,,,,,,,,,,,,,,,,,,,,
18922,1648953241.0409288,1648953241.083592,7.0,0.0,4129.230957,4775.897461,4561.538574,4181.025879,4039.487061,450.0,3.0,73.0,,,,0.0,1.0,0.0,0.0,0.0,0.0,0.0,,,,,,,,,,,,,,,,,,,,,,,,,,,,,,,,,,,,,,,,,,,,,,,,,,,,,,,,,,,,,,,,,,,,,,,,,,,,,,,,,,,,
18923,1648953241.048743,1648953241.091407,8.0,0.0,4096.410156,4646.153809,4613.846191,4276.410156,4031.794922,450.0,3.0,73.0,,,,0.0,1.0,0.0,0.0,0.0,0.0,0.0,,,,,,,,4.0,0.0,0.514954,-0.121582,0.085449,0.8442379999999999,0.291997,-0.029297000000000004,-0.978042,9.4e-05,-0.011295,-0.030304,,,,,,,,,,,,,,,,,,,,,,,,,,,,,,,,,,,,,,,,,,,,,,,,,,,,,,,,,,,,,,,,,
18924,1648953241.056558,1648953241.0993211,9.0,0.0,4231.282227000001,4524.102539,4600.512695,4380.0,4324.615234000001,182.0,3.0,73.0,,,,0.0,1.0,0.0,0.0,2.0,0.0,0.0,,,,,,,,,,,,,,,,,,,,,,,,,,,,,,,,,,,,,,,,,,,,,,,,,,,,,,0.0,0.0,32.0,0.08841,1.0,0.0,,,,,,,,,,,,,,,,,,,,,,,,,
18925,1648953241.064372,1648953241.107136,10.0,0.0,4517.94873,4587.179688,4575.384765999999,4615.384765999999,4622.563965,450.0,3.0,73.0,,,,0.0,1.0,0.0,0.0,2.0,0.0,0.0,,,,,,,,5.0,0.0,0.514954,-0.121582,0.085449,0.8442379999999999,0.298833,-0.014159999999999999,-0.9873200000000001,0.000231,-0.011289,-0.033327999999999997,,,,,,,,,,,,,,,,,,,,,,,,,,,,,,,,,,,,,,,,,,,,,,,,,,,,,,,,,,,,,,,,,
18926,1648953241.072187,1648953241.114951,11.0,0.0,4486.666504,4615.897461,4369.743652,4620.512695,4531.794922,39.0,3.0,73.0,,,,0.0,1.0,0.0,0.0,2.0,0.0,0.0,,,,,,,,,,,,,,,,,,,,,,,,,,,,,,,,,,,,,,,,,,,,,,,,,,,,,,,,,,,,,,,,,,,,,,,,,,,,,,,,,,,,
18927,1648953241.080002,1648953241.1226661,12.0,0.0,4230.256348,4702.05127,4187.692383,4224.102539,4220.0,450.0,3.0,73.0,,,,0.0,1.0,0.0,0.0,2.0,0.0,0.0,,,,,,,,6.0,0.0,0.515354,-0.121582,0.085449,0.843994,0.30225100000000005,-0.019043,-0.959976,0.003235,-0.011332,-0.036002,,,,,,,,,,,,,,,,,,,,,,,,,,,,,,,,,,,,,,,,,,,,,,,,,,,,,,,,,,,,,,,,,
18928,1648953241.087816,1648953241.1305811,13.0,0.0,4141.538574,4817.94873,4418.974121,4062.5642090000006,4261.025879,450.0,3.0,73.0,,,,0.0,1.0,0.0,0.0,2.0,0.0,0.0,,,,,,,,,,,,,,,,,,,,,,,,,,,,,,,,,,,,,,,,,,,,,,,,,,,,,,0.0,0.0,32.0,0.08841,1.0,0.0,,,,,,,,,,,,,,,,,,,,,,,,,
18929,1648953241.0956311,1648953241.138396,14.0,0.0,4064.615479,4632.820313,4576.922852000001,4251.282227000001,4438.974121,450.0,3.0,73.0,,,,0.0,1.0,0.0,0.0,2.0,0.0,0.0,,,,,,,,7.0,0.0,0.515354,-0.121582,0.085449,0.843994,0.298833,-0.02002,-0.976577,0.005988,-0.011322,-0.038505000000000005,,,,,,,,,,,,,,,,,,,,,,,,,,,,,,,,,,,,,,,,,,,,,,,,,,,,,,,,,,,,,,,,,
18930,1648953241.1034448,1648953241.146311,15.0,0.0,4145.641113000001,4500.512695,4550.256348,4421.538574,4476.922852000001,39.0,3.0,73.0,,,,0.0,1.0,0.0,0.0,2.0,0.0,0.0,,,,,,,,,,,,,,,,,,,,,,,,,,,,,,,,,,,,,,,,,,,,,,,,,,,,,,,,,,,,,,,,,,,,,,,,,,,,,,,,,,,,
18931,1648953241.11126,1648953241.154126,16.0,0.0,4416.922852000001,4602.05127,4586.153809,4546.153809,4500.512695,0.0,3.0,73.0,,,,0.0,1.0,0.0,0.0,2.0,0.0,0.0,,,,,,,,8.0,0.0,0.515354,-0.121582,0.085449,0.843994,0.300786,-0.012206999999999999,-0.9746239999999999,0.005487,-0.011361,-0.040806999999999996,,,,,,,,,,,,,,,,,,,,,,,,,,,,,,,,,,,,,,,,,,,,,,,,,,,,,,,,,,,,,,,,,
18932,1648953241.119074,1648953241.16204,17.0,0.0,4553.846191,4624.615234000001,4483.589844,4524.102539,4477.94873,0.0,3.0,73.0,,,,0.0,1.0,0.0,0.0,2.0,0.0,0.0,,,,,,,,,,,,,,,,,,,,1.0,0.0,0.0,,,,,,,,,,,,,,,,,,,,,,,,,,,,,,,,0.0,0.0,32.0,0.080789,1.0,0.0,50.347637,25.246702,570.501404,442.924988,36.22625,74.045158,112.43928500000001,40.210696999999996,135.131195,79.36657,280.855774,96.598083,310.283142,236.717682,83.025757,26.916576,9.806721000000001,101.445587,1369.610474,52.751307999999995,85.826317,19.099325,323.131592,791.1348879999999,45.584583
18933,1648953241.126889,1648953241.169855,18.0,0.0,4418.974121,4648.717772999999,4267.179688,4169.230957,4146.666504,0.0,3.0,73.0,,,,0.0,1.0,0.0,0.0,2.0,0.0,0.0,,,,,,,,9.0,0.0,0.515297,-0.121826,0.085449,0.843994,0.307622,-0.015137000000000001,-0.979507,0.005036,-0.011251,-0.042781,,,,,,,,,,,,,,,,,,,,,,,,,,,,,,,,,,,,,,,,,,,,,,,,,,,,,,,,,,,,,,,,,
18934,1648953241.1347039,1648953241.1775699,19.0,0.0,4250.769043,4749.230957,4268.717772999999,4043.5898439999996,4040.512939,0.0,3.0,73.0,,,,0.0,1.0,0.0,0.0,2.0,0.0,0.0,,,,,,,,,,,,,,,,,,,,,,,,,,,,,,,,,,,,,,,,,,,,,,,,,,,,,,,,,,,,,,,,,,,,,,,,,,,,,,,,,,,,
18935,1648953241.142518,1648953241.185485,20.0,0.0,4196.410156,4725.641113000001,4465.128418,4350.256348,4352.820313,0.0,3.0,73.0,,,,0.0,1.0,0.0,0.0,2.0,0.0,0.0,,,,,,,,10.0,0.0,0.515297,-0.121826,0.085449,0.843994,0.291997,-0.029786,-0.978042,0.007559999999999999,-0.0112,-0.044411,,,,,,,,,,,,,,,,,,,,,,,,,,,,,,,,,,,,,,,,,,,,,,,,,,,,,,,,,,,,,,,,,
18936,1648953241.150333,1648953241.1933,21.0,0.0,4281.538574,4599.487305,4454.358886999999,4645.641113000001,4572.820313,0.0,3.0,73.0,,,,0.0,1.0,0.0,0.0,2.0,0.0,0.0,,,,,,,,,,,,,,,,,,,,,,,,,,,,,,,,,,,,,,,,,,,,,,,,,,,,,,0.0,0.0,32.0,0.080789,1.0,0.0,,,,,,,,,,,,,,,,,,,,,,,,,
18937,1648953241.158147,1648953241.201215,22.0,0.0,4299.487305,4566.666504,4223.077147999999,4476.410156,4486.666504,0.0,3.0,73.0,,,,0.0,1.0,0.0,0.0,2.0,0.0,0.0,,,,,,,,11.0,0.0,0.515354,-0.121582,0.085449,0.843994,0.31299299999999997,-0.024903,-0.985367,0.0037270000000000003,-0.011056,-0.039726,,,,,,,,,,,,,,,,,,,,,,,,,,,,,,,,,,,,,,,,,,,,,,,,,,,,,,,,,,,,,,,,,
18938,1648953241.165962,1648953241.2090302,23.0,0.0,4248.205078,4661.025879,4249.743652,4166.153809,4266.153809,0.0,3.0,73.0,,,,0.0,1.0,0.0,0.0,2.0,0.0,0.0,,,,,,,,,,,,,,,,,,,,,,,,,,,,,,,,,,,,,,,,,,,,,,,,,,,,,,,,,,,,,,,,,,,,,,,,,,,,,,,,,,,,
18939,1648953241.173776,1648953241.216846,24.0,0.0,4170.256348,4706.153809,4564.102539,4164.615234000001,4063.5898439999996,0.0,3.0,73.0,,,,0.0,1.0,0.0,0.0,2.0,0.0,0.0,,,,,,,,12.0,0.0,0.514954,-0.121582,0.085449,0.8442379999999999,0.292973,-0.025391,-0.9712059999999999,0.003404,-0.011025,-0.041808,,,,,,,,,,,,,,,,,,,,,,,,,,,,,,,,,,,,,,,,,,,,,,,,,,,,,,,,,,,,,,,,,
18940,1648953241.181591,1648953241.224561,25.0,0.0,4156.410156,4605.128418,4658.974121,4278.461426,4028.718018,0.0,3.0,73.0,,,,0.0,1.0,0.0,0.0,2.0,0.0,0.0,,,,,,,,,,,,,,,,,,,,,,,,,,,,,,,,,,,,,,,,,,,,,,,,,,,,,,0.0,0.0,32.0,0.080789,1.0,0.0,,,,,,,,,,,,,,,,,,,,,,,,,
18941,1648953241.189405,1648953241.232375,26.0,0.0,4364.102539,4524.615234000001,4595.384765999999,4387.692383,4263.589844,0.0,3.0,73.0,,,,0.0,1.0,0.0,0.0,2.0,0.0,0.0,,,,,,,,13.0,0.0,0.514954,-0.121582,0.085449,0.8442379999999999,0.306645,-0.012695999999999999,-0.969253,-1.3000000000000001e-05,-0.011094,-0.037481,,,,,,,,,,,,,,,,,,,,,,,,,,,,,,,,,,,,,,,,,,,,,,,,,,,,,,,,,,,,,,,,,
18942,1648953241.1972198,1648953241.2400901,27.0,0.0,4544.615234000001,4516.922852000001,4588.717772999999,4604.102539,4580.512695,0.0,3.0,73.0,,,,0.0,1.0,0.0,0.0,2.0,0.0,0.0,,,,,,,,,,,,,,,,,,,,,,,,,,,,,,,,,,,,,,,,,,,,,,,,,,,,,,,,,,,,,,,,,,,,,,,,,,,,,,,,,,,,
18943,1648953241.205034,1648953241.247905,28.0,0.0,4421.538574,4505.128418,4345.128418,4635.384765999999,4567.692383,0.0,3.0,73.0,,,,0.0,1.0,0.0,0.0,2.0,0.0,0.0,,,,,,,,14.0,0.0,0.514954,-0.121582,0.085449,0.8442379999999999,0.294926,-0.018555000000000002,-0.975601,-0.000207,-0.011156999999999999,-0.039739,,,,,,,,,,,,,,,,,,,,,,,,,,,,,,,,,,,,,,,,,,,,,,,,,,,,,,,,,,,,,,,,,
18944,1648953241.2128491,1648953241.25562,29.0,0.0,4216.922852000001,4650.769043,4117.94873,4243.077147999999,4305.128418,0.0,3.0,73.0,,,,0.0,1.0,0.0,0.0,2.0,0.0,0.0,,,,,,,,,,,,,,,,,,,,,,,,,,,,,,,,,,,,,,,,,,,,,,,,,,,,,,0.0,0.0,32.0,0.080789,1.0,0.0,,,,,,,,,,,,,,,,,,,,,,,,,
18945,1648953241.220663,1648953241.263535,30.0,0.0,4176.922852000001,4798.461426,4424.102539,4034.8718259999996,4333.333496,0.0,3.0,73.0,,,,0.0,1.0,0.0,0.0,2.0,0.0,0.0,,,,,,,,15.0,0.0,0.514995,-0.121582,0.08520499999999999,0.8442379999999999,0.289555,-0.019532,-0.980484,0.002841,-0.011164,-0.041722,,,,,,,,,,,,,,,,,,,,,,,,,,,,,,,,,,,,,,,,,,,,,,,,,,,,,,,,,,,,,,,,,
18946,1648953241.228478,1648953241.27135,31.0,0.0,4083.076904,4609.230957,4694.358886999999,4195.384765999999,4463.589844,0.0,3.0,73.0,,,,0.0,1.0,0.0,0.0,2.0,0.0,0.0,,,,,,,,,,,,,,,,,,,,,,,,,,,,,,,,,,,,,,,,,,,,,,,,,,,,,,,,,,,,,,,,,,,,,,,,,,,,,,,,,,,,
18947,1648953241.236292,1648953241.279265,32.0,0.0,4135.897461,4489.230957,4542.563965,4407.692383,4456.922852000001,0.0,3.0,73.0,,,,0.0,1.0,0.0,0.0,2.0,0.0,0.0,,,,,,,,16.0,0.0,0.514995,-0.121582,0.08520499999999999,0.8442379999999999,0.295903,-0.024903,-0.981949,0.002703,-0.011122,-0.043556,,,,,,,,,,,,,,,,,,,,,,,,,,,,,,,,,,,,,,,,,,,,,,,,,,,,,,,,,,,,,,,,,
18948,1648953241.244107,1648953241.28708,33.0,0.0,4414.358886999999,4689.743652,4392.820313,4545.128418,4462.563965,0.0,3.0,73.0,,,,0.0,1.0,0.0,0.0,2.0,0.0,0.0,,,,,,,,,,,,,,,,,,,,1.0,0.0,0.0,,,,,,,,,,,,,,,,,,,,,,,,,,,,,,,,0.0,0.0,32.0,0.077114,1.0,0.0,50.615906,27.105528000000003,530.97406,452.79934699999995,37.979603000000004,64.72620400000001,125.95195,45.835879999999996,123.268623,88.07627099999999,298.38046299999996,88.456497,322.182343,236.25044300000002,80.004692,22.917063,10.860682,101.709839,1364.169922,53.666214000000004,96.697784,22.275297,333.26620499999996,765.4216309999999,46.024189
18949,1648953241.2519221,1648953241.2949939,34.0,0.0,4552.820313,4718.974121,4423.589844,4497.94873,4434.358886999999,0.0,3.0,73.0,,,,0.0,1.0,0.0,0.0,2.0,0.0,0.0,,,,,,,,17.0,0.0,0.514954,-0.121582,0.085449,0.8442379999999999,0.29102,-0.01709,-0.9834129999999999,0.002628,-0.011084,-0.038858,,,,,,,,,,,,,,,,,,,,,,,,,,,,,,,,,,,,,,,,,,,,,,,,,,,,,,,,,,,,,,,,,
18950,1648953241.2597358,1648953241.302809,35.0,0.0,4430.769043,4598.974121,4290.769043,4170.769043,4162.05127,0.0,3.0,73.0,,,,0.0,1.0,0.0,0.0,2.0,0.0,0.0,,,,,,,,,,,,,,,,,,,,,,,,,,,,,,,,,,,,,,,,,,,,,,,,,,,,,,,,,,,,,,,,,,,,,,,,,,,,,,,,,,,,
18951,1648953241.267551,1648953241.310724,36.0,0.0,4283.589844,4659.487305,4166.153809,4060.0,4149.230957,0.0,3.0,73.0,,,,0.0,1.0,0.0,0.0,2.0,0.0,0.0,,,,,,,,18.0,0.0,0.514995,-0.121582,0.08520499999999999,0.8442379999999999,0.288579,-0.012695999999999999,-0.972671,0.002561,-0.011148,-0.041076,,,,,,,,,,,,,,,,,,,,,,,,,,,,,,,,,,,,,,,,,,,,,,,,,,,,,,,,,,,,,,,,,
18952,1648953241.275365,1648953241.3185391,37.0,0.0,4162.563965,4666.666504,4382.563965,4325.128418,4427.692383,0.0,3.0,73.0,,,,0.0,1.0,0.0,0.0,2.0,0.0,0.0,,,,,,,,,,,,,,,,,,,,,,,,,,,,,,,,,,,,,,,,,,,,,,,,,,,,,,0.0,0.0,32.0,0.077114,1.0,0.0,,,,,,,,,,,,,,,,,,,,,,,,,
18953,1648953241.28318,1648953241.326454,38.0,0.0,4189.230957,4511.794922,4561.025879,4610.256348,4547.179688,0.0,3.0,73.0,,,,0.0,1.0,0.0,0.0,2.0,0.0,0.0,,,,,,,,19.0,0.0,0.514995,-0.121582,0.08520499999999999,0.8442379999999999,0.298833,-0.013184,-0.9716950000000001,-0.000674,-0.011156000000000001,-0.036676,,,,,,,,,,,,,,,,,,,,,,,,,,,,,,,,,,,,,,,,,,,,,,,,,,,,,,,,,,,,,,,,,
18954,1648953241.290995,1648953241.334269,39.0,0.0,4269.743652,4529.743652,4429.230957,4501.538574,4487.692383,0.0,3.0,73.0,,,,0.0,1.0,0.0,0.0,2.0,0.0,0.0,,,,,,,,,,,,,,,,,,,,,,,,,,,,,,,,,,,,,,,,,,,,,,,,,,,,,,,,,,,,,,,,,,,,,,,,,,,,,,,,,,,,
18955,1648953241.298809,1648953241.342183,40.0,0.0,4302.05127,4690.769043,4415.897461,4197.94873,4332.820313,0.0,3.0,73.0,,,,0.0,1.0,0.0,0.0,2.0,0.0,0.0,,,,,,,,20.0,0.0,0.514995,-0.121582,0.08520499999999999,0.8442379999999999,0.301762,-0.019532,-0.978042,-0.00045999999999999996,-0.011115,-0.039014,,,,,,,,,,,,,,,,,,,,,,,,,,,,,,,,,,,,,,,,,,,,,,,,,,,,,,,,,,,,,,,,,
18956,1648953241.306624,1648953241.349998,41.0,0.0,4213.846191,4698.461426,4616.922852000001,4171.794922,4106.153809,0.0,3.0,73.0,,,,0.0,1.0,0.0,0.0,2.0,0.0,0.0,,,,,,,,,,,,,,,,,,,,,,,,,,,,,,,,,,,,,,,,,,,,,,,,,,,,,,0.0,0.0,32.0,0.077114,1.0,0.0,,,,,,,,,,,,,,,,,,,,,,,,,
18957,1648953241.314438,1648953241.357713,42.0,0.0,4089.2307130000004,4604.102539,4623.077147999999,4275.897461,4021.538574,0.0,3.0,73.0,,,,0.0,1.0,0.0,0.0,2.0,0.0,0.0,,,,,,,,21.0,0.0,0.514954,-0.121582,0.085449,0.8442379999999999,0.29736799999999997,-0.022461000000000002,-0.9799950000000001,-0.00031600000000000004,-0.011175,-0.034966000000000004,,,,,,,,,,,,,,,,,,,,,,,,,,,,,,,,,,,,,,,,,,,,,,,,,,,,,,,,,,,,,,,,,
18958,1648953241.322253,1648953241.3655279,43.0,0.0,4260.512695,4580.0,4592.820313,4364.615234000001,4224.102539,0.0,3.0,73.0,,,,0.0,1.0,0.0,0.0,2.0,0.0,0.0,,,,,,,,,,,,,,,,,,,,,,,,,,,,,,,,,,,,,,,,,,,,,,,,,,,,,,,,,,,,,,,,,,,,,,,,,,,,,,,,,,,,
18959,1648953241.330067,1648953241.3732429,44.0,0.0,4536.922852000001,4621.538574,4594.871582,4575.384765999999,4492.820313,0.0,3.0,73.0,,,,0.0,1.0,0.0,0.0,2.0,0.0,0.0,,,,,,,,22.0,0.0,0.514995,-0.121582,0.08520499999999999,0.8442379999999999,0.298833,-0.013184,-0.9716950000000001,-0.000333,-0.011327,-0.031225,,,,,,,,,,,,,,,,,,,,,,,,,,,,,,,,,,,,,,,,,,,,,,,,,,,,,,,,,,,,,,,,,
18960,1648953241.337882,1648953241.381058,45.0,0.0,4449.743652,4637.436035,4364.102539,4655.384765999999,4518.461426,0.0,3.0,73.0,,,,0.0,1.0,0.0,0.0,2.0,0.0,0.0,,,,,,,,,,,,,,,,,,,,,,,,,,,,,,,,,,,,,,,,,,,,,,,,,,,,,,0.0,0.0,32.0,0.077114,1.0,0.0,,,,,,,,,,,,,,,,,,,,,,,,,
18961,1648953241.3456962,1648953241.388773,46.0,0.0,4174.358886999999,4689.230957,4210.769043,4290.769043,4326.666504,0.0,3.0,73.0,,,,0.0,1.0,0.0,0.0,2.0,0.0,0.0,,,,,,,,23.0,0.0,0.514954,-0.121582,0.085449,0.8442379999999999,0.29736799999999997,-0.022461000000000002,-0.9799950000000001,-0.000202,-0.011366,-0.027956,,,,,,,,,,,,,,,,,,,,,,,,,,,,,,,,,,,,,,,,,,,,,,,,,,,,,,,,,,,,,,,,,
18962,1648953241.3535109,1648953241.396588,47.0,0.0,4154.358886999999,4723.077147999999,4480.512695,4067.179443,4292.307617,0.0,3.0,73.0,,,,0.0,1.0,0.0,0.0,2.0,0.0,0.0,,,,,,,,,,,,,,,,,,,,,,,,,,,,,,,,,,,,,,,,,,,,,,,,,,,,,,,,,,,,,,,,,,,,,,,,,,,,,,,,,,,,
18963,1648953241.361325,1648953241.4043028,48.0,0.0,4103.077147999999,4589.743652,4616.410156,4208.205078,4329.743652,0.0,3.0,73.0,,,,0.0,1.0,0.0,0.0,2.0,0.0,0.0,,,,,,,,24.0,0.0,0.514954,-0.121582,0.085449,0.8442379999999999,0.290044,-0.02002,-0.9741360000000001,-3.6e-05,-0.011353,-0.031118,,,,,,,,,,,,,,,,,,,,,,,,,,,,,,,,,,,,,,,,,,,,,,,,,,,,,,,,,,,,,,,,,
18964,1648953241.3691401,1648953241.412118,49.0,0.0,4110.769043,4508.205078,4575.897461,4366.153809,4374.871582,0.0,3.0,73.0,,,,0.0,1.0,0.0,0.0,2.0,0.0,0.0,,,,,,,,,,,,,,,,,,,,1.0,0.0,0.0,,,,,,,,,,,,,,,,,,,,,,,,,,,,,,,,0.0,0.0,32.0,0.079184,1.0,0.0,48.317474,29.384199,494.12530499999997,470.97030599999994,39.71843,62.402908,134.570541,56.345676,110.63463600000001,94.974678,302.558197,82.665863,326.723175,241.339844,78.30301700000001,21.049267,13.423407000000001,104.259079,1339.440552,53.338474,104.97984299999999,25.907688,334.52435299999996,749.9030759999999,49.627121
18965,1648953241.3769538,1648953241.419833,50.0,0.0,4385.128418,4573.846191,4667.692383,4528.205078,4547.179688,0.0,3.0,73.0,,,,0.0,1.0,0.0,0.0,2.0,0.0,0.0,,,,,,,,25.0,0.0,0.514954,-0.121582,0.085449,0.8442379999999999,0.289067,-0.016602000000000002,-0.9707180000000001,-0.0031079999999999997,-0.011389,-0.027811000000000002,,,,,,,,,,,,,,,,,,,,,,,,,,,,,,,,,,,,,,,,,,,,,,,,,,,,,,,,,,,,,,,,,
18966,1648953241.384769,1648953241.427648,51.0,0.0,4587.692383,4619.487305,4577.436035,4599.487305,4646.153809,0.0,3.0,73.0,,,,0.0,1.0,0.0,0.0,2.0,0.0,0.0,,,,,,,,,,,,,,,,,,,,,,,,,,,,,,,,,,,,,,,,,,,,,,,,,,,,,,,,,,,,,,,,,,,,,,,,,,,,,,,,,,,,
18967,1648953241.392583,1648953241.435363,52.0,0.0,4482.563965,4724.102539,4314.358886999999,4308.205078,4252.307617,0.0,3.0,73.0,,,,0.0,1.0,0.0,0.0,2.0,0.0,0.0,,,,,,,,26.0,0.0,0.514954,-0.121582,0.085449,0.8442379999999999,0.298833,-0.022461000000000002,-0.985367,-0.005727,-0.011276000000000001,-0.024834000000000002,,,,,,,,,,,,,,,,,,,,,,,,,,,,,,,,,,,,,,,,,,,,,,,,,,,,,,,,,,,,,,,,,
18968,1648953241.400398,1648953241.4432778,53.0,0.0,4263.077147999999,4866.153809,4371.794922,4098.974121,4005.1281740000004,0.0,3.0,73.0,,,,0.0,1.0,0.0,0.0,2.0,0.0,0.0,,,,,,,,,,,,,,,,,,,,,,,,,,,,,,,,,,,,,,,,,,,,,,,,,,,,,,0.0,0.0,32.0,0.079184,1.0,0.0,,,,,,,,,,,,,,,,,,,,,,,,,
18969,1648953241.4082131,1648953241.451093,54.0,0.0,4071.794922,4752.307617,4597.94873,4254.871582,4312.307617,0.0,3.0,73.0,,,,0.0,1.0,0.0,0.0,2.0,0.0,0.0,,,,,,,,27.0,0.0,0.514954,-0.121582,0.085449,0.8442379999999999,0.301762,-0.017578,-0.983902,-0.002176,-0.011418000000000001,-0.028308,,,,,,,,,,,,,,,,,,,,,,,,,,,,,,,,,,,,,,,,,,,,,,,,,,,,,,,,,,,,,,,,,
18970,1648953241.416027,1648953241.459008,55.0,0.0,4115.384765999999,4532.820313,4548.717772999999,4521.538574,4572.820313,0.0,3.0,73.0,,,,0.0,1.0,0.0,0.0,2.0,0.0,0.0,,,,,,,,,,,,,,,,,,,,,,,,,,,,,,,,,,,,,,,,,,,,,,,,,,,,,,,,,,,,,,,,,,,,,,,,,,,,,,,,,,,,
18971,1648953241.423842,1648953241.4668221,56.0,0.0,4296.922852000001,4565.641113000001,4447.179688,4512.307617,4504.102539,0.0,3.0,73.0,,,,0.0,1.0,0.0,0.0,2.0,0.0,0.0,,,,,,,,28.0,0.0,0.514954,-0.121582,0.085449,0.8442379999999999,0.291997,-0.04004,-0.98439,-0.002007,-0.011253,-0.025233000000000002,,,,,,,,,,,,,,,,,,,,,,,,,,,,,,,,,,,,,,,,,,,,,,,,,,,,,,,,,,,,,,,,,
18972,1648953241.4316561,1648953241.474737,57.0,0.0,4318.974121,4750.256348,4463.077147999999,4257.94873,4348.717772999999,0.0,3.0,73.0,,,,0.0,1.0,0.0,0.0,2.0,0.0,0.0,,,,,,,,,,,,,,,,,,,,,,,,,,,,,,,,,,,,,,,,,,,,,,,,,,,,,,0.0,0.0,32.0,0.079184,1.0,0.0,,,,,,,,,,,,,,,,,,,,,,,,,
18973,1648953241.439471,1648953241.482552,58.0,0.0,4235.384765999999,4865.641113000001,4512.307617,4104.102539,4169.743652,0.0,3.0,73.0,,,,0.0,1.0,0.0,0.0,2.0,0.0,0.0,,,,,,,,29.0,0.0,0.514897,-0.121826,0.085449,0.8442379999999999,0.300298,-0.027832,-0.98439,-0.0019039999999999999,-0.01125,-0.028716000000000002,,,,,,,,,,,,,,,,,,,,,,,,,,,,,,,,,,,,,,,,,,,,,,,,,,,,,,,,,,,,,,,,,
18974,1648953241.447285,1648953241.490467,59.0,0.0,4249.230957,4787.692383,4550.256348,4155.384765999999,4031.281982,0.0,3.0,73.0,,,,0.0,1.0,0.0,0.0,2.0,0.0,0.0,,,,,,,,,,,,,,,,,,,,,,,,,,,,,,,,,,,,,,,,,,,,,,,,,,,,,,,,,,,,,,,,,,,,,,,,,,,,,,,,,,,,
18975,1648953241.4551,1648953241.498282,60.0,0.0,4410.256348,4665.128418,4484.102539,4386.153809,4191.794922,0.0,3.0,73.0,,,,0.0,1.0,0.0,0.0,2.0,0.0,0.0,,,,,,,,30.0,0.0,0.514954,-0.121582,0.085449,0.8442379999999999,0.303227,-0.017578,-0.98146,-0.001616,-0.011297,-0.031800999999999996,,,,,,,,,,,,,,,,,,,,,,,,,,,,,,,,,,,,,,,,,,,,,,,,,,,,,,,,,,,,,,,,,
18976,1648953241.462915,1648953241.506197,61.0,0.0,4560.512695,4695.897461,4356.410156,4628.717772999999,4481.025879,0.0,3.0,73.0,,,,0.0,1.0,0.0,0.0,2.0,0.0,0.0,,,,,,,,,,,,,,,,,,,,,,,,,,,,,,,,,,,,,,,,,,,,,,,,,,,,,,0.0,0.0,32.0,0.079184,1.0,0.0,,,,,,,,,,,,,,,,,,,,,,,,,
18977,1648953241.4707289,1648953241.514011,62.0,0.0,4471.794922,4630.256348,4233.846191,4631.794922,4536.922852000001,0.0,3.0,73.0,,,,0.0,1.0,0.0,0.0,2.0,0.0,0.0,,,,,,,,31.0,0.0,0.514995,-0.121582,0.08520499999999999,0.8442379999999999,0.285649,-0.013672,-0.973648,0.001622,-0.011387999999999999,-0.034676,,,,,,,,,,,,,,,,,,,,,,,,,,,,,,,,,,,,,,,,,,,,,,,,,,,,,,,,,,,,,,,,,
18978,1648953241.478544,1648953241.521926,63.0,0.0,4197.94873,4540.0,4218.974121,4280.512695,4354.358886999999,0.0,3.0,73.0,,,,0.0,1.0,0.0,0.0,2.0,0.0,0.0,,,,,,,,,,,,,,,,,,,,,,,,,,,,,,,,,,,,,,,,,,,,,,,,,,,,,,,,,,,,,,,,,,,,,,,,,,,,,,,,,,,,
18979,1648953241.486358,1648953241.529741,64.0,0.0,4128.205078,4722.05127,4410.256348,4100.0,4251.282227000001,450.0,3.0,73.0,,,,0.0,1.0,0.0,0.0,2.0,0.0,0.0,,,,,,,,32.0,0.0,0.514995,-0.121582,0.08520499999999999,0.8442379999999999,0.29736799999999997,-0.020996,-0.9799950000000001,-0.0016170000000000002,-0.011372,-0.030964,,,,,,,,,,,,,,,,,,,,,,,,,,,,,,,,,,,,,,,,,,,,,,,,,,,,,,,,,,,,,,,,,
18980,1648953241.494173,1648953241.537456,65.0,0.0,4108.717772999999,4783.077147999999,4578.461426,4204.615234000001,4228.205078,450.0,3.0,73.0,,,,0.0,0.0,0.0,0.0,2.0,0.0,0.0,1.0,0.0,0.0,0.0,0.0,0.0,0.0,,,,,,,,,,,,,1.0,0.0,0.0,,,,,,,,,,,,,,,,,,,,,,,,,,,,,,,,0.0,0.0,32.0,0.07432899999999999,1.0,0.0,44.589667999999996,31.692673,469.59616100000005,490.48999000000003,40.99752,63.03326800000001,135.30928,68.847,102.417229,97.148628,299.39444,80.805687,325.950928,250.588364,77.595039,21.513693,16.833239000000003,109.168419,1298.039795,52.943782999999996,109.305862,29.167403999999998,321.587769,750.316162,56.42572
18981,1648953241.501987,1648953241.5452712,66.0,0.0,4145.128418,4560.512695,4559.487305,4343.077147999999,4311.794922,2.0,3.0,73.0,,,,0.0,0.0,0.0,0.0,2.0,0.0,0.0,,,,,,,,33.0,0.0,0.514995,-0.121582,0.08520499999999999,0.8442379999999999,0.307622,-0.011719,-0.987808,-0.0014550000000000001,-0.011456000000000001,-0.033825,,,,,,,,,,,,,,,,,,,,,,,,,,,,,,,,,,,,,,,,,,,,,,,,,,,,,,,,,,,,,,,,,
18982,1648953241.5098019,1648953241.552986,67.0,0.0,4388.717772999999,4600.512695,4516.922852000001,4521.538574,4503.589844,450.0,3.0,73.0,,,,0.0,0.0,0.0,0.0,2.0,0.0,0.0,,,,,,,,,,,,,,,,,,,,,,,,,,,,,,,,,,,,,,,,,,,,,,,,,,,,,,,,,,,,,,,,,,,,,,,,,,,,,,,,,,,,
18983,1648953241.517616,1648953241.560801,68.0,0.0,4549.230957,4731.794922,4461.025879,4616.410156,4529.743652,0.0,3.0,73.0,,,,0.0,0.0,0.0,0.0,2.0,0.0,0.0,,,,,,,,34.0,0.0,0.514995,-0.121582,0.08520499999999999,0.8442379999999999,0.307622,-0.024413999999999998,-0.9785309999999999,-0.001212,-0.011385,-0.030149000000000002,,,,,,,,,,,,,,,,,,,,,,,,,,,,,,,,,,,,,,,,,,,,,,,,,,,,,,,,,,,,,,,,,
18984,1648953241.5254312,1648953241.568516,69.0,0.0,4404.102539,4590.256348,4213.333496,4292.820313,4262.563965,450.0,3.0,73.0,,,,0.0,0.0,0.0,4.0,2.0,0.0,0.0,,,,,,,,,,,,,,,,,,,,,,,,,,,,,,,,,,,,,,,,,,,,,,,,,,,,,,0.0,0.0,32.0,0.07432899999999999,1.0,0.0,,,,,,,,,,,,,,,,,,,,,,,,,
18985,1648953241.5332448,1648953241.5763311,70.0,0.0,4218.974121,4515.384765999999,4168.205078,4025.641113,4270.256348,16175.0,3.0,73.0,,,,0.0,0.0,0.0,4.0,2.0,0.0,0.0,,,,,,,,35.0,0.0,0.5153949999999999,-0.121582,0.08520499999999999,0.843994,0.304204,-0.018555000000000002,-0.9790190000000001,-0.000993,-0.011369,-0.033139999999999996,,,,,,,,,,,,,,,,,,,,,,,,,,,,,,,,,,,,,,,,,,,,,,,,,,,,,,,,,,,,,,,,,
18986,1648953241.54106,1648953241.5840461,71.0,0.0,4142.05127,4666.666504,4429.743652,4243.589844,4533.846191,450.0,3.0,73.0,,,,0.0,0.0,0.0,4.0,2.0,0.0,0.0,,,,,,,,,,,,,,,,,,,,,,,,,,,,,,,,,,,,,,,,,,,,,,,,,,,,,,,,,,,,,,,,,,,,,,,,,,,,,,,,,,,,
18987,1648953241.548875,1648953241.591861,72.0,0.0,4281.538574,4704.615234000001,4426.666504,4567.692383,4557.94873,450.0,3.0,73.0,,,,0.0,0.0,0.0,4.0,2.0,0.0,0.0,,,,,,,,36.0,0.0,0.5153949999999999,-0.121582,0.08520499999999999,0.843994,0.297856,-0.02002,-0.9868309999999999,-0.003921,-0.011355,-0.02968,,,,,,,,,,,,,,,,,,,,,,,,,,,,,,,,,,,,,,,,,,,,,,,,,,,,,,,,,,,,,,,,,
18988,1648953241.556689,1648953241.599576,73.0,0.0,4460.512695,4571.794922,4166.666504,4538.461426,4398.974121,193.0,3.0,73.0,,,,0.0,0.0,0.0,4.0,2.0,0.0,0.0,,,,,,,,,,,,,,,,,,,,,,,,,,,,,,,,,,,,,,,,,,,,,,,,,,,,,,0.0,0.0,32.0,0.07432899999999999,1.0,0.0,,,,,,,,,,,,,,,,,,,,,,,,,
18989,1648953241.564504,1648953241.607491,74.0,0.0,4370.769043,4600.512695,4137.436035,4266.153809,4258.461426,450.0,3.0,73.0,,,,0.0,0.0,0.0,4.0,2.0,1.0,8.333333,,,,,,,,37.0,0.0,0.5153949999999999,-0.121582,0.08520499999999999,0.843994,0.300786,-0.005371,-0.973159,-0.003431,-0.011294,-0.032767000000000004,,,,,,,,,,,,,,,,,,,,,,,,,,,,,,,,,,,,,,,,,,,,,,,,,,,,,,,,,,,,,,,,,
18990,1648953241.572318,1648953241.6153061,75.0,0.0,4220.512695,4774.358886999999,4346.666504,4118.461426,4111.282227000001,102.0,3.0,73.0,,,,0.0,0.0,0.0,4.0,2.0,1.0,8.333333,,,,,,,,,,,,,,,,,,,,,,,,,,,,,,,,,,,,,,,,,,,,,,,,,,,,,,,,,,,,,,,,,,,,,,,,,,,,,,,,,,,,
18991,1648953241.580133,1648953241.6232212,76.0,0.0,4278.974121,4812.820313,4522.05127,4147.179688,4017.9487299999996,450.0,3.0,73.0,,,,0.0,0.0,0.0,4.0,2.0,1.0,8.333333,,,,,,,,38.0,0.0,0.5153949999999999,-0.121582,0.08520499999999999,0.843994,0.30225100000000005,-0.019043,-0.991714,-0.002991,-0.011239,-0.029197000000000004,,,,,,,,,,,,,,,,,,,,,,,,,,,,,,,,,,,,,,,,,,,,,,,,,,,,,,,,,,,,,,,,,
18992,1648953241.5879471,1648953241.631036,77.0,0.0,4383.589844,4691.794922,4630.769043,4296.410156,4186.666504,450.0,3.0,73.0,,,,0.0,0.0,0.0,4.0,2.0,1.0,8.333333,,,,,,,,,,,,,,,,,,,,,,,,,,,,,,,,,,,,,,,,,,,,,,,,,,,,,,0.0,0.0,32.0,0.07432899999999999,1.0,0.0,,,,,,,,,,,,,,,,,,,,,,,,,
18993,1648953241.595762,1648953241.638951,78.0,0.0,4353.846191,4544.615234000001,4608.205078,4504.102539,4465.641113000001,450.0,3.0,73.0,,,,0.0,0.0,0.0,4.0,2.0,1.0,8.333333,,,,,,,,39.0,0.0,0.5153949999999999,-0.121582,0.08520499999999999,0.843994,0.29736799999999997,-0.014649,-0.9673,-0.002594,-0.011287,-0.032283,,,,,,,,,,,,,,,,,,,,,,,,,,,,,,,,,,,,,,,,,,,,,,,,,,,,,,,,,,,,,,,,,
18994,1648953241.603576,1648953241.646766,79.0,0.0,4406.666504,4451.794922,4637.94873,4591.794922,4566.666504,102.0,3.0,73.0,,,,0.0,0.0,0.0,4.0,2.0,1.0,8.333333,,,,,,,,,,,,,,,,,,,,,,,,,,,,,,,,,,,,,,,,,,,,,,,,,,,,,,,,,,,,,,,,,,,,,,,,,,,,,,,,,,,,
18995,1648953241.611391,1648953241.654681,80.0,0.0,4473.846191,4463.589844,4678.461426,4304.615234000001,4428.205078,450.0,3.0,73.0,,,,0.0,0.0,0.0,4.0,2.0,1.0,8.333333,,,,,,,,40.0,0.0,0.5153949999999999,-0.121582,0.08520499999999999,0.843994,0.294926,-0.014649,-0.9868309999999999,-0.0022370000000000003,-0.011379,-0.03511,,,,,,,,,,,,,,,,,,,,,,,,,,,,,,,,,,,,,,,,,,,,,,,,,,,,,,,,,,,,,,,,,
18996,1648953241.619205,1648953241.662496,81.0,0.0,4403.589844,4563.077147999999,4605.641113000001,4089.2307130000004,4331.794922,450.0,3.0,73.0,,,,0.0,0.0,0.0,4.0,2.0,1.0,8.333333,,,,,,,,,,,,,,,,,,,,1.0,0.0,0.0,,,,,,,,,,,,,,,,,,,,,,,,,,,,,,,,0.0,0.0,32.0,0.07922,1.0,0.0,40.641846,34.412819,460.300812,507.138672,41.4459,63.026241000000006,127.857849,79.334412,102.1408,93.748161,297.784058,84.66494,326.36261,262.643829,77.459106,23.347849,19.829048,114.581024,1246.595703,53.795669999999994,110.83964499999999,31.365309000000003,295.659058,770.334656,65.112083
18997,1648953241.62702,1648953241.67041,82.0,0.0,4201.025879,4514.871582,4436.410156,4086.1538090000004,4275.384765999999,450.0,3.0,73.0,,,,0.0,0.0,0.0,4.0,2.0,1.0,8.333333,,,,,,,,41.0,0.0,0.5153949999999999,-0.121582,0.08520499999999999,0.843994,0.297856,-0.02002,-0.9707180000000001,0.0010630000000000001,-0.011462,-0.037654,,,,,,,,,,,,,,,,,,,,,,,,,,,,,,,,,,,,,,,,,,,,,,,,,,,,,,,,,,,,,,,,,
18998,1648953241.634835,1648953241.678225,83.0,0.0,4097.94873,4433.333496,4330.769043,4167.692383,4291.282227000001,102.0,3.0,73.0,,,,0.0,0.0,0.0,4.0,2.0,1.0,8.333333,,,,,,,,,,,,,,,,,,,,,,,,,,,,,,,,,,,,,,,,,,,,,,,,,,,,,,,,,,,,,,,,,,,,,,,,,,,,,,,,,,,,
18999,1648953241.642649,1648953241.68614,84.0,0.0,4155.384765999999,4548.717772999999,4251.282227000001,4340.0,4367.692383,450.0,3.0,73.0,,,,0.0,0.0,0.0,4.0,2.0,1.0,8.333333,,,,,,,,42.0,0.0,0.5153949999999999,-0.121582,0.08520499999999999,0.843994,0.294926,-0.018067,-0.9702299999999999,0.0039840000000000006,-0.011439,-0.039943,,,,,,,,,,,,,,,,,,,,,,,,,,,,,,,,,,,,,,,,,,,,,,,,,,,,,,,,,,,,,,,,,
19000,1648953241.650464,1648953241.6939552,85.0,0.0,4361.538574,4682.05127,4196.922852000001,4500.512695,4396.922852000001,450.0,3.0,73.0,,,,0.0,0.0,0.0,4.0,2.0,1.0,8.333333,,,,,,,,,,,,,,,,,,,,,,,,,,,,,,,,,,,,,,,,,,,,,,,,,,,,,,0.0,0.0,32.0,0.07922,1.0,0.0,,,,,,,,,,,,,,,,,,,,,,,,,
19001,1648953241.658278,1648953241.70187,86.0,0.0,4522.563965,4684.102539,4270.256348,4549.743652,4367.692383,450.0,3.0,73.0,,,,0.0,0.0,0.0,4.0,2.0,1.0,8.333333,,,,,,,,43.0,0.0,0.514995,-0.121582,0.08520499999999999,0.8442379999999999,0.298344,-0.014649,-0.985367,0.003781,-0.011515000000000001,-0.042003,,,,,,,,,,,,,,,,,,,,,,,,,,,,,,,,,,,,,,,,,,,,,,,,,,,,,,,,,,,,,,,,,
19002,1648953241.6660929,1648953241.7096848,87.0,0.0,4526.666504,4631.282227000001,4273.846191,4554.358886999999,4402.563965,102.0,3.0,73.0,,,,0.0,0.0,0.0,4.0,2.0,1.0,8.333333,,,,,,,,,,,,,,,,,,,,,,,,,,,,,,,,,,,,,,,,,,,,,,,,,,,,,,,,,,,,,,,,,,,,,,,,,,,,,,,,,,,,
19003,1648953241.673907,1648953241.717599,88.0,0.0,4451.282227000001,4664.615234000001,4218.974121,4333.333496,4277.94873,450.0,3.0,73.0,,,,0.0,0.0,0.0,4.0,2.0,1.0,8.333333,,,,,,,,44.0,0.0,0.514995,-0.121582,0.08520499999999999,0.8442379999999999,0.29688000000000003,-0.019532,-0.964858,0.003549,-0.011487,-0.043809,,,,,,,,,,,,,,,,,,,,,,,,,,,,,,,,,,,,,,,,,,,,,,,,,,,,,,,,,,,,,,,,,
19004,1648953241.6817222,1648953241.7255142,89.0,0.0,4308.205078,4728.205078,4410.256348,4103.589844,4033.8461909999996,450.0,3.0,73.0,,,,0.0,0.0,0.0,4.0,2.0,1.0,8.333333,,,,,,,,,,,,,,,,,,,,,,,,,,,,,,,,,,,,,,,,,,,,,,,,,,,,,,0.0,0.0,32.0,0.07922,1.0,0.0,,,,,,,,,,,,,,,,,,,,,,,,,
19005,1648953241.6895359,1648953241.73333,90.0,0.0,4084.102539,4710.256348,4668.717772999999,4196.922852000001,4124.615234000001,450.0,3.0,73.0,,,,0.0,0.0,0.0,4.0,2.0,1.0,8.333333,,,,,,,,45.0,0.0,0.5153949999999999,-0.121582,0.08520499999999999,0.843994,0.29639099999999996,-0.02002,-0.976577,0.000118,-0.011461,-0.039233,,,,,,,,,,,,,,,,,,,,,,,,,,,,,,,,,,,,,,,,,,,,,,,,,,,,,,,,,,,,,,,,,
19006,1648953241.697351,1648953241.741245,91.0,0.0,4023.5898439999996,4536.410156,4544.102539,4257.436035,4403.589844,102.0,3.0,73.0,,,,0.0,0.0,0.0,4.0,2.0,1.0,8.333333,,,,,,,,,,,,,,,,,,,,,,,,,,,,,,,,,,,,,,,,,,,,,,,,,,,,,,,,,,,,,,,,,,,,,,,,,,,,,,,,,,,,
19007,1648953241.705166,1648953241.74906,92.0,0.0,4286.666504,4354.871582,4292.820313,4220.0,4518.461426,450.0,3.0,73.0,,,,0.0,0.0,0.0,4.0,2.0,1.0,8.333333,,,,,,,,46.0,0.0,0.5153949999999999,-0.121582,0.08520499999999999,0.843994,0.298833,-0.018067,-0.983902,0.000204,-0.011487,-0.041316000000000005,,,,,,,,,,,,,,,,,,,,,,,,,,,,,,,,,,,,,,,,,,,,,,,,,,,,,,,,,,,,,,,,,
19008,1648953241.71298,1648953241.756875,93.0,0.0,4613.333496,4452.307617,4445.641113000001,4339.487305,4534.358886999999,450.0,3.0,73.0,,,,0.0,0.0,0.0,4.0,2.0,1.0,8.333333,,,,,,,,,,,,,,,,,,,,,,,,,,,,,,,,,,,,,,,,,,,,,,,,,,,,,,0.0,0.0,32.0,0.07922,1.0,0.0,,,,,,,,,,,,,,,,,,,,,,,,,
19009,1648953241.720795,1648953241.76459,94.0,0.0,4620.0,4538.461426,4585.128418,4434.358886999999,4527.179688,450.0,3.0,73.0,,,,0.0,0.0,0.0,4.0,2.0,1.0,8.333333,,,,,,,,47.0,0.0,0.5153369999999999,-0.121826,0.08520499999999999,0.843994,0.307622,-0.012206999999999999,-0.987808,0.00033,-0.011461,-0.043239,,,,,,,,,,,,,,,,,,,,,,,,,,,,,,,,,,,,,,,,,,,,,,,,,,,,,,,,,,,,,,,,,
19010,1648953241.728609,1648953241.7724051,95.0,0.0,4296.410156,4442.563965,4338.461426,4243.077147999999,4328.717772999999,102.0,3.0,73.0,,,,0.0,0.0,0.0,4.0,2.0,1.0,8.333333,,,,,,,,,,,,,,,,,,,,,,,,,,,,,,,,,,,,,,,,,,,,,,,,,,,,,,,,,,,,,,,,,,,,,,,,,,,,,,,,,,,,
19011,1648953241.736424,1648953241.78012,96.0,0.0,4183.589844,4539.487305,4277.94873,4102.563965,4103.589844,450.0,3.0,73.0,,,,0.0,0.0,0.0,4.0,2.0,1.0,8.333333,,,,,,,,48.0,0.0,0.514937,-0.121826,0.08520499999999999,0.8442379999999999,0.298344,-0.020996,-0.9707180000000001,0.000493,-0.011438,-0.045018,,,,,,,,,,,,,,,,,,,,,,,,,,,,,,,,,,,,,,,,,,,,,,,,,,,,,,,,,,,,,,,,,
19012,1648953241.7442381,1648953241.787935,97.0,0.0,4159.487305,4723.589844,4516.922852000001,4183.589844,4022.5642090000006,450.0,3.0,73.0,,,,0.0,0.0,0.0,4.0,2.0,1.0,8.333333,,,,,,,,,,,,,,,,,,,,1.0,0.0,0.0,,,,,,,,,,,,,,,,,,,,,,,,,,,,,,,,0.0,0.0,32.0,0.086312,1.0,0.0,36.989162,37.992569,466.338074,519.373657,41.36866,60.893204000000004,114.42047099999999,84.094902,110.399483,85.961502,303.846161,95.187485,335.147675,275.66687,77.65351899999999,25.017805,21.197701000000002,118.44625900000001,1195.572998,56.70256800000001,112.73629,32.04213,263.73465,804.3271480000001,73.59423100000001
19013,1648953241.752053,1648953241.79565,98.0,0.0,4051.794922,4525.128418,4621.538574,4361.025879,4134.358886999999,450.0,3.0,73.0,,,,0.0,0.0,0.0,4.0,2.0,1.0,8.333333,,,,,,,,49.0,0.0,0.514995,-0.121582,0.08520499999999999,0.8442379999999999,0.298344,-0.013672,-0.988296,0.000394,-0.011515000000000001,-0.040320999999999996,,,,,,,,,,,,,,,,,,,,,,,,,,,,,,,,,,,,,,,,,,,,,,,,,,,,,,,,,,,,,,,,,
19014,1648953241.759867,1648953241.803565,99.0,0.0,4085.641113,4277.94873,4460.512695,4361.538574,4419.487305,102.0,3.0,73.0,,,,0.0,0.0,0.0,4.0,2.0,1.0,8.333333,,,,,,,,,,,,,,,,,,,,,,,,,,,,,,,,,,,,,,,,,,,,,,,,,,,,,,,,,,,,,,,,,,,,,,,,,,,,,,,,,,,,
19015,1648953241.767682,1648953241.8113801,100.0,0.0,4342.563965,4422.05127,4303.077147999999,4360.512695,4660.512695,450.0,3.0,73.0,,,,0.0,0.0,0.0,4.0,2.0,1.0,8.333333,,,,,,,,50.0,0.0,0.5153369999999999,-0.121826,0.08520499999999999,0.843994,0.307622,-0.012206999999999999,-0.987808,0.0005009999999999999,-0.011487,-0.042344,,,,,,,,,,,,,,,,,,,,,,,,,,,,,,,,,,,,,,,,,,,,,,,,,,,,,,,,,,,,,,,,,
19016,1648953241.775496,1648953241.819295,101.0,0.0,4617.94873,4501.538574,4370.769043,4447.692383,4452.307617,450.0,3.0,73.0,,,,0.0,0.0,0.0,4.0,2.0,1.0,8.333333,,,,,,,,,,,,,,,,,,,,,,,,,,,,,,,,,,,,,,,,,,,,,,,,,,,,,,0.0,0.0,32.0,0.086312,1.0,0.0,,,,,,,,,,,,,,,,,,,,,,,,,
19017,1648953241.783311,1648953241.82711,102.0,0.0,4688.205078,4310.256348,4539.487305,4408.205078,4128.205078,450.0,3.0,73.0,,,,0.0,0.0,0.0,4.0,2.0,1.0,8.333333,,,,,,,,51.0,0.0,0.514995,-0.121582,0.08520499999999999,0.8442379999999999,0.298344,-0.013672,-0.988296,0.00040199999999999996,-0.011559,-0.037913999999999996,,,,,,,,,,,,,,,,,,,,,,,,,,,,,,,,,,,,,,,,,,,,,,,,,,,,,,,,,,,,,,,,,
19018,1648953241.791125,1648953241.835025,103.0,0.0,4392.820313,4281.538574,4396.922852000001,4210.769043,4102.563965,102.0,3.0,73.0,,,,0.0,0.0,0.0,4.0,2.0,1.0,8.333333,,,,,,,,,,,,,,,,,,,,,,,,,,,,,,,,,,,,,,,,,,,,,,,,,,,,,,,,,,,,,,,,,,,,,,,,,,,,,,,,,,,,
19019,1648953241.79894,1648953241.84284,104.0,0.0,4125.641113000001,4535.384765999999,4213.846191,4044.102539,4327.179688,450.0,3.0,73.0,,,,0.0,0.0,0.0,4.0,2.0,1.0,8.333333,,,,,,,,52.0,0.0,0.514995,-0.121582,0.08520499999999999,0.8442379999999999,0.289555,-0.011719,-0.968277,0.000558,-0.011526,-0.040178,,,,,,,,,,,,,,,,,,,,,,,,,,,,,,,,,,,,,,,,,,,,,,,,,,,,,,,,,,,,,,,,,
19020,1648953241.806755,1648953241.850754,105.0,0.0,4112.820313,4661.538574,4466.153809,4078.974365,4500.0,450.0,3.0,73.0,,,,0.0,0.0,0.0,4.0,2.0,1.0,8.333333,,,,,,,,,,,,,,,,,,,,,,,,,,,,,,,,,,,,,,,,,,,,,,,,,,,,,,0.0,0.0,32.0,0.086312,1.0,0.0,,,,,,,,,,,,,,,,,,,,,,,,,
19021,1648953241.814569,1648953241.858669,106.0,0.0,4106.153809,4586.666504,4632.307617,4313.846191,4472.820313,450.0,3.0,73.0,,,,0.0,0.0,0.0,4.0,2.0,1.0,8.333333,,,,,,,,53.0,0.0,0.515035,-0.121582,0.084961,0.8442379999999999,0.304692,-0.019043,-0.9834129999999999,0.000697,-0.011448,-0.036012999999999996,,,,,,,,,,,,,,,,,,,,,,,,,,,,,,,,,,,,,,,,,,,,,,,,,,,,,,,,,,,,,,,,,
19022,1648953241.8223839,1648953241.866484,107.0,0.0,4189.743652,4548.717772999999,4581.025879,4512.820313,4485.128418,102.0,3.0,73.0,,,,0.0,0.0,0.0,4.0,2.0,1.0,8.333333,,,,,,,,,,,,,,,,,,,,,,,,,,,,,,,,,,,,,,,,,,,,,,,,,,,,,,,,,,,,,,,,,,,,,,,,,,,,,,,,,,,,
19023,1648953241.830198,1648953241.8743,108.0,0.0,4457.94873,4539.487305,4592.820313,4490.769043,4556.922852000001,450.0,3.0,73.0,,,,0.0,0.0,0.0,4.0,2.0,1.0,8.333333,,,,,,,,54.0,0.0,0.515035,-0.121582,0.084961,0.8442379999999999,0.29102,-0.017578,-0.9868309999999999,0.0007740000000000001,-0.011377,-0.038369,,,,,,,,,,,,,,,,,,,,,,,,,,,,,,,,,,,,,,,,,,,,,,,,,,,,,,,,,,,,,,,,,
19024,1648953241.8380132,1648953241.882015,109.0,0.0,4520.512695,4543.077147999999,4621.025879,4355.897461,4431.282227000001,450.0,3.0,73.0,,,,0.0,0.0,0.0,4.0,2.0,1.0,8.333333,,,,,,,,,,,,,,,,,,,,,,,,,,,,,,,,,,,,,,,,,,,,,,,,,,,,,,0.0,0.0,32.0,0.086312,1.0,0.0,,,,,,,,,,,,,,,,,,,,,,,,,
19025,1648953241.8458269,1648953241.889829,110.0,0.0,4286.666504,4511.282227000001,4655.897461,4269.230957,4089.743652,450.0,3.0,73.0,,,,0.0,0.0,0.0,4.0,2.0,1.0,8.333333,,,,,,,,55.0,0.0,0.515035,-0.121582,0.084961,0.8442379999999999,0.294926,-0.02002,-0.9707180000000001,-0.00238,-0.011314,-0.034288,,,,,,,,,,,,,,,,,,,,,,,,,,,,,,,,,,,,,,,,,,,,,,,,,,,,,,,,,,,,,,,,,
19026,1648953241.853642,1648953241.897544,111.0,0.0,4184.102539,4453.333496,4684.615234000001,4280.512695,3994.8718259999996,102.0,3.0,73.0,,,,0.0,0.0,0.0,4.0,2.0,1.0,8.333333,,,,,,,,,,,,,,,,,,,,,,,,,,,,,,,,,,,,,,,,,,,,,,,,,,,,,,,,,,,,,,,,,,,,,,,,,,,,,,,,,,,,
19027,1648953241.861457,1648953241.905359,112.0,0.0,4179.487305,4492.307617,4472.820313,4242.05127,4217.94873,450.0,3.0,73.0,,,,0.0,0.0,0.0,4.0,2.0,1.0,8.333333,,,,,,,,56.0,0.0,0.515035,-0.121582,0.084961,0.8442379999999999,0.307622,-0.023438,-0.972183,-0.002239,-0.011257,-0.036768,,,,,,,,,,,,,,,,,,,,,,,,,,,,,,,,,,,,,,,,,,,,,,,,,,,,,,,,,,,,,,,,,
19028,1648953241.869271,1648953241.913274,113.0,0.0,4303.589844,4548.717772999999,4267.692383,4306.666504,4438.974121,450.0,3.0,73.0,,,,0.0,0.0,0.0,4.0,2.0,1.0,8.333333,,,,,,,,,,,,,,,,,,,,1.0,0.0,0.0,,,,,,,,,,,,,,,,,,,,,,,,,,,,,,,,0.0,0.0,32.0,0.108774,1.0,0.0,33.336441,41.191299,486.378937,525.769714,41.364422,56.350014,99.318207,80.887466,124.19265,76.452034,315.55120800000003,113.98148300000001,354.353607,286.922211,78.21719399999999,25.327901999999998,20.599426,120.539276,1154.54248,61.332077000000005,117.820633,32.835976,234.262085,840.130859,79.504372
19029,1648953241.877086,1648953241.9210892,114.0,0.0,4592.307617,4559.487305,4364.615234000001,4422.563965,4528.717772999999,450.0,3.0,73.0,,,,0.0,0.0,0.0,4.0,2.0,1.0,8.333333,,,,,,,,57.0,0.0,0.514995,-0.121582,0.08520499999999999,0.8442379999999999,0.304204,-0.023926,-0.98146,0.0010609999999999999,-0.011106999999999999,-0.039048,,,,,,,,,,,,,,,,,,,,,,,,,,,,,,,,,,,,,,,,,,,,,,,,,,,,,,,,,,,,,,,,,
19030,1648953241.8849,1648953241.928804,115.0,0.0,4712.820313,4549.743652,4466.666504,4426.666504,4548.205078,102.0,3.0,73.0,,,,0.0,0.0,0.0,4.0,2.0,1.0,8.333333,,,,,,,,,,,,,,,,,,,,,,,,,,,,,,,,,,,,,,,,,,,,,,,,,,,,,,,,,,,,,,,,,,,,,,,,,,,,,,,,,,,,
19031,1648953241.892715,1648953241.936619,116.0,0.0,4389.743652,4479.487305,4367.179688,4223.589844,4418.974121,450.0,3.0,73.0,,,,0.0,0.0,0.0,4.0,2.0,1.0,8.333333,,,,,,,,58.0,0.0,0.514995,-0.121582,0.08520499999999999,0.8442379999999999,0.297856,-0.014159999999999999,-0.976577,0.001052,-0.01112,-0.034948,,,,,,,,,,,,,,,,,,,,,,,,,,,,,,,,,,,,,,,,,,,,,,,,,,,,,,,,,,,,,,,,,
19032,1648953241.900529,1648953241.944534,117.0,0.0,4174.358886999999,4446.153809,4335.384765999999,4073.3332520000004,4253.846191,450.0,3.0,73.0,,,,0.0,0.0,0.0,4.0,2.0,1.0,8.333333,,,,,,,,,,,,,,,,,,,,,,,,,,,,,,,,,,,,,,,,,,,,,,,,,,,,,,0.0,0.0,32.0,0.108774,1.0,0.0,,,,,,,,,,,,,,,,,,,,,,,,,
19033,1648953241.908344,1648953241.952349,118.0,0.0,4160.0,4556.922852000001,4459.487305,4138.974121,4136.922852000001,450.0,3.0,73.0,,,,0.0,0.0,0.0,4.0,2.0,1.0,8.333333,,,,,,,,59.0,0.0,0.515035,-0.121582,0.084961,0.8442379999999999,0.29102,-0.016602000000000002,-0.9712059999999999,-0.0020800000000000003,-0.011229000000000001,-0.031258,,,,,,,,,,,,,,,,,,,,,,,,,,,,,,,,,,,,,,,,,,,,,,,,,,,,,,,,,,,,,,,,,
19034,1648953241.916158,1648953241.9600642,119.0,0.0,4093.3332520000004,4606.666504,4590.769043,4298.461426,4184.615234000001,102.0,3.0,73.0,,,,0.0,0.0,0.0,4.0,2.0,1.0,8.333333,,,,,,,,,,,,,,,,,,,,,,,,,,,,,,,,,,,,,,,,,,,,,,,,,,,,,,,,,,,,,,,,,,,,,,,,,,,,,,,,,,,,
19035,1648953241.923973,1648953241.9678788,120.0,0.0,4211.282227000001,4511.794922,4625.641113000001,4422.563965,4477.436035,450.0,3.0,73.0,,,,0.0,0.0,0.0,4.0,2.0,1.0,8.333333,,,,,,,,60.0,0.0,0.515035,-0.121582,0.084961,0.8442379999999999,0.29395,-0.019043,-0.984878,-0.001775,-0.011179999999999999,-0.034138,,,,,,,,,,,,,,,,,,,,,,,,,,,,,,,,,,,,,,,,,,,,,,,,,,,,,,,,,,,,,,,,,
19036,1648953241.931787,1648953241.975594,121.0,0.0,4490.769043,4487.692383,4559.487305,4524.102539,4778.461426,450.0,3.0,73.0,,,,0.0,0.0,0.0,4.0,2.0,1.0,8.333333,,,,,,,,,,,,,,,,,,,,,,,,,,,,,,,,,,,,,,,,,,,,,,,,,,,,,,0.0,0.0,32.0,0.108774,1.0,0.0,,,,,,,,,,,,,,,,,,,,,,,,,
19037,1648953241.939602,1648953241.983509,122.0,0.0,4564.615234000001,4481.025879,4581.538574,4486.153809,4579.487305,450.0,3.0,73.0,,,,0.0,0.0,0.0,4.0,2.0,1.0,8.333333,,,,,,,,61.0,0.0,0.515035,-0.121582,0.084961,0.8442379999999999,0.288579,-0.007324,-0.977554,0.0014789999999999998,-0.011283,-0.036681,,,,,,,,,,,,,,,,,,,,,,,,,,,,,,,,,,,,,,,,,,,,,,,,,,,,,,,,,,,,,,,,,
19038,1648953241.947416,1648953241.991324,123.0,0.0,4458.974121,4323.077147999999,4720.512695,4228.205078,4126.153809,102.0,3.0,73.0,,,,0.0,0.0,0.0,4.0,2.0,1.0,8.333333,,,,,,,,,,,,,,,,,,,,,,,,,,,,,,,,,,,,,,,,,,,,,,,,,,,,,,,,,,,,,,,,,,,,,,,,,,,,,,,,,,,,
19039,1648953241.955231,1648953241.999239,124.0,0.0,4310.769043,4190.769043,4590.256348,4057.4357909999994,4051.794922,450.0,3.0,73.0,,,,0.0,0.0,0.0,4.0,2.0,1.0,8.333333,,,,,,,,62.0,0.0,0.515035,-0.121582,0.084961,0.8442379999999999,0.31104,-0.01709,-0.9707180000000001,0.0013310000000000002,-0.011179999999999999,-0.039019,,,,,,,,,,,,,,,,,,,,,,,,,,,,,,,,,,,,,,,,,,,,,,,,,,,,,,,,,,,,,,,,,
19040,1648953241.963045,1648953242.0070539,125.0,0.0,4193.846191,4360.0,4163.077147999999,4070.7692869999996,4201.538574,450.0,3.0,73.0,,,,0.0,0.0,0.0,4.0,2.0,1.0,8.333333,,,,,,,,,,,,,,,,,,,,,,,,,,,,,,,,,,,,,,,,,,,,,,,,,,,,,,0.0,0.0,32.0,0.108774,1.0,0.0,,,,,,,,,,,,,,,,,,,,,,,,,
19041,1648953241.97086,1648953242.0149689,126.0,0.0,4178.974121,4637.94873,4216.410156,4146.666504,4383.077147999999,450.0,3.0,73.0,,,,0.0,0.0,0.0,4.0,2.0,1.0,8.333333,,,,,,,,63.0,0.0,0.515035,-0.121582,0.084961,0.8442379999999999,0.295415,-0.018555000000000002,-0.983902,0.0013449999999999998,-0.011184999999999999,-0.041025,,,,,,,,,,,,,,,,,,,,,,,,,,,,,,,,,,,,,,,,,,,,,,,,,,,,,,,,,,,,,,,,,
19042,1648953241.978675,1648953242.022784,127.0,0.0,4137.436035,4609.230957,4560.0,4363.077147999999,4483.589844,238.0,3.0,73.0,,,,0.0,0.0,0.0,4.0,2.0,1.0,8.333333,,,,,,,,,,,,,,,,,,,,,,,,,,,,,,,,,,,,,,,,,,,,,,,,,,,,,,,,,,,,,,,,,,,,,,,,,,,,,,,,,,,,
19043,1648953241.986489,1648953242.030699,0.0,0.0,4208.205078,4511.794922,4613.333496,4616.410156,4515.384765999999,450.0,3.0,73.0,,,,0.0,0.0,0.0,4.0,2.0,1.0,8.333333,,,,,,,,0.0,0.0,0.514995,-0.121582,0.08520499999999999,0.8442379999999999,0.29639099999999996,-0.02002,-0.979507,0.001161,-0.011336,-0.042929,,,,,,,,,,,,,,,,,,,,,,,,,,,,,,,,,,,,,,,,,,,,,,,,,,,,,,,,,,,,,,,,,
19044,1648953241.994304,1648953242.0385141,1.0,0.0,4346.153809,4583.077147999999,4573.333496,4408.717772999999,4491.794922,450.0,3.0,73.0,,,,0.0,0.0,0.0,4.0,2.0,1.0,8.333333,1.0,0.0,0.0,0.0,0.0,0.0,0.0,,,,,,,,,,,,,1.0,0.0,0.0,,,,,,,,,,,,,,,,,,,,,,,,,,,,,,,,0.0,0.0,32.0,0.11983599999999998,1.0,0.0,29.313568,44.249413,518.2155759999999,524.836121,42.006077000000005,52.409225,88.597504,72.436623,137.86647,68.33087900000001,325.938324,145.07225,379.27774,293.154694,79.97404499999999,23.950073,19.503508,122.95545200000001,1127.276245,66.1744,125.73793,37.724441999999996,212.602646,866.578125,81.227615
19045,1648953242.0021179,1648953242.046429,2.0,0.0,4366.666504,4650.256348,4603.077147999999,4106.666504,4368.717772999999,0.0,3.0,73.0,,,,0.0,0.0,0.0,4.0,2.0,1.0,8.333333,,,,,,,,1.0,0.0,0.514995,-0.121582,0.08520499999999999,0.8442379999999999,0.301762,-0.023926,-0.988296,0.001045,-0.011373999999999999,-0.044642,,,,,,,,,,,,,,,,,,,,,,,,,,,,,,,,,,,,,,,,,,,,,,,,,,,,,,,,,,,,,,,,,
19046,1648953242.009933,1648953242.054244,3.0,0.0,4180.512695,4642.05127,4631.794922,4176.410156,4094.8718259999996,450.0,3.0,73.0,,,,0.0,0.0,0.0,4.0,2.0,1.0,8.333333,,,,,,,,,,,,,,,,,,,,,,,,,,,,,,,,,,,,,,,,,,,,,,,,,,,,,,,,,,,,,,,,,,,,,,,,,,,,,,,,,,,,
19047,1648953242.0177472,1648953242.062158,4.0,0.0,4052.820557,4501.025879,4587.692383,4391.794922,4037.9487299999996,0.0,3.0,73.0,,,,0.0,0.0,0.0,4.0,2.0,1.0,8.333333,,,,,,,,2.0,0.0,0.514995,-0.121582,0.08520499999999999,0.8442379999999999,0.29443800000000003,-0.01709,-0.977066,-0.002136,-0.011409,-0.040080000000000005,,,,,,,,,,,,,,,,,,,,,,,,,,,,,,,,,,,,,,,,,,,,,,,,,,,,,,,,,,,,,,,,,
19048,1648953242.0255618,1648953242.069973,5.0,0.0,4113.846191,4422.563965,4415.384765999999,4318.974121,4283.589844,450.0,3.0,73.0,,,,0.0,0.0,0.0,4.0,2.0,1.0,8.333333,,,,,,,,,,,,,,,,,,,,,,,,,,,,,,,,,,,,,,,,,,,,,,,,,,,,,,0.0,0.0,32.0,0.11983599999999998,1.0,0.0,,,,,,,,,,,,,,,,,,,,,,,,,
19049,1648953242.033377,1648953242.077688,6.0,0.0,4314.358886999999,4541.025879,4293.846191,4271.794922,4459.487305,103.0,3.0,73.0,,,,0.0,0.0,0.0,1.0,2.0,1.0,8.333333,,,,,,,,3.0,0.0,0.514995,-0.121582,0.08520499999999999,0.8442379999999999,0.300298,-0.033692,-0.972183,-0.0019219999999999999,-0.01144,-0.042176,,,,,,,,,,,,,,,,,,,,,,,,,,,,,,,,,,,,,,,,,,,,,,,,,,,,,,,,,,,,,,,,,
19050,1648953242.041191,1648953242.0855029,7.0,0.0,4514.871582,4618.461426,4309.743652,4537.436035,4431.282227000001,450.0,3.0,73.0,,,,0.0,0.0,0.0,1.0,2.0,1.0,8.333333,,,,,,,,,,,,,,,,,,,,,,,,,,,,,,,,,,,,,,,,,,,,,,,,,,,,,,,,,,,,,,,,,,,,,,,,,,,,,,,,,,,,
19051,1648953242.049006,1648953242.0932178,8.0,0.0,4618.974121,4544.615234000001,4286.153809,4667.692383,4422.563965,450.0,3.0,73.0,,,,0.0,0.0,0.0,1.0,0.0,1.0,0.0,,,,,,,,4.0,0.0,0.514995,-0.121582,0.08520499999999999,0.8442379999999999,0.29102,-0.014649,-0.98439,-0.00173,-0.011468,-0.043963999999999996,,,,,,,,,,,,,,,,,,,,,,,,,,,,,,,,,,,,,,,,,,,,,,,,,,,,,,,,,,,,,,,,,
19052,1648953242.05682,1648953242.101033,9.0,0.0,4428.717772999999,4530.256348,4222.563965,4401.025879,4382.05127,0.0,3.0,73.0,,,,0.0,0.0,0.0,1.0,0.0,1.0,0.0,,,,,,,,,,,,,,,,,,,,,,,,,,,,,,,,,,,,,,,,,,,,,,,,,,,,,,0.0,0.0,32.0,0.11983599999999998,1.0,0.0,,,,,,,,,,,,,,,,,,,,,,,,,
19053,1648953242.064635,1648953242.108748,10.0,0.0,4113.846191,4665.128418,4269.230957,4137.436035,4294.358886999999,450.0,3.0,73.0,,,,0.0,0.0,0.0,1.0,0.0,1.0,0.0,,,,,,,,5.0,0.0,0.514995,-0.121582,0.08520499999999999,0.8442379999999999,0.30518,-0.026368,-0.9873200000000001,-0.0016059999999999998,-0.011542,-0.045574,,,,,,,,,,,,,,,,,,,,,,,,,,,,,,,,,,,,,,,,,,,,,,,,,,,,,,,,,,,,,,,,,
19054,1648953242.072449,1648953242.116663,11.0,0.0,4082.0512700000004,4795.384765999999,4426.153809,4112.307617,4308.205078,0.0,3.0,73.0,,,,0.0,0.0,0.0,1.0,0.0,0.0,0.0,,,,,,,,,,,,,,,,,,,,,,,,,,,,,,,,,,,,,,,,,,,,,,,,,,,,,,,,,,,,,,,,,,,,,,,,,,,,,,,,,,,,
19055,1648953242.080264,1648953242.1244779,12.0,0.0,4122.563965,4694.358886999999,4555.384765999999,4216.922852000001,4323.077147999999,450.0,3.0,73.0,,,,0.0,0.0,0.0,1.0,0.0,0.0,0.0,,,,,,,,6.0,0.0,0.514995,-0.121582,0.08520499999999999,0.8442379999999999,0.286137,-0.014649,-0.983902,0.0016309999999999999,-0.011462,-0.047070999999999995,,,,,,,,,,,,,,,,,,,,,,,,,,,,,,,,,,,,,,,,,,,,,,,,,,,,,,,,,,,,,,,,,
19056,1648953242.088078,1648953242.132293,13.0,0.0,4079.487061,4360.512695,4553.333496,4416.410156,4415.897461,450.0,3.0,73.0,,,,0.0,0.0,0.0,1.0,0.0,0.0,0.0,,,,,,,,,,,,,,,,,,,,,,,,,,,,,,,,,,,,,,,,,,,,,,,,,,,,,,0.0,0.0,32.0,0.11983599999999998,1.0,0.0,,,,,,,,,,,,,,,,,,,,,,,,,
19057,1648953242.095893,1648953242.140008,14.0,0.0,4284.102539,4300.512695,4447.692383,4480.512695,4684.102539,450.0,3.0,73.0,,,,0.0,0.0,0.0,1.0,0.0,0.0,0.0,,,,,,,,7.0,0.0,0.515093,-0.12133800000000002,0.084961,0.8442379999999999,0.291508,-0.019043,-0.9741360000000001,0.001663,-0.011487,-0.042266000000000005,,,,,,,,,,,,,,,,,,,,,,,,,,,,,,,,,,,,,,,,,,,,,,,,,,,,,,,,,,,,,,,,,
19058,1648953242.103707,1648953242.147923,15.0,0.0,4575.897461,4502.05127,4390.769043,4417.436035,4673.846191,0.0,3.0,73.0,,,,0.0,0.0,0.0,1.0,0.0,0.0,0.0,,,,,,,,,,,,,,,,,,,,,,,,,,,,,,,,,,,,,,,,,,,,,,,,,,,,,,,,,,,,,,,,,,,,,,,,,,,,,,,,,,,,
19059,1648953242.111522,1648953242.155738,16.0,0.0,4435.384765999999,4437.436035,4322.05127,4414.871582,4198.974121,0.0,3.0,73.0,,,,0.0,0.0,0.0,1.0,0.0,0.0,0.0,,,,,,,,8.0,0.0,0.5150520000000001,-0.12133800000000002,0.08520499999999999,0.8442379999999999,0.29736799999999997,-0.026368,-0.969253,0.004573,-0.011413,-0.043997,,,,,,,,,,,,,,,,,,,,,,,,,,,,,,,,,,,,,,,,,,,,,,,,,,,,,,,,,,,,,,,,,
19060,1648953242.119336,1648953242.163653,17.0,0.0,4211.282227000001,4289.743652,4311.794922,4332.820313,4012.820557,0.0,3.0,73.0,,,,0.0,0.0,0.0,1.0,0.0,0.0,0.0,,,,,,,,,,,,,,,,,,,,1.0,0.0,0.0,,,,,,,,,,,,,,,,,,,,,,,,,,,,,,,,0.0,0.0,32.0,0.13002,1.0,0.0,24.529421,47.787933,553.086243,524.663269,43.68808,52.289894,87.08296999999999,65.421707,145.682739,63.898106000000006,326.015869,193.73001100000002,402.63421600000004,290.69723500000003,83.912346,21.775434,21.157911,128.591248,1107.950806,69.417023,133.081085,50.502464,199.192444,877.6450199999999,78.895027
19061,1648953242.127151,1648953242.171469,18.0,0.0,4260.512695,4482.05127,4276.922852000001,4058.974365,4078.974365,0.0,3.0,73.0,,,,0.0,0.0,0.0,1.0,0.0,0.0,0.0,,,,,,,,9.0,0.0,0.514995,-0.121582,0.08520499999999999,0.8442379999999999,0.297856,-0.018555000000000002,-0.980972,0.004262,-0.011443,-0.045603,,,,,,,,,,,,,,,,,,,,,,,,,,,,,,,,,,,,,,,,,,,,,,,,,,,,,,,,,,,,,,,,,
19062,1648953242.134966,1648953242.179384,19.0,0.0,4374.358886999999,4802.05127,4268.205078,4053.8461909999996,4129.230957,0.0,3.0,73.0,,,,0.0,0.0,0.0,1.0,0.0,0.0,0.0,,,,,,,,,,,,,,,,,,,,,,,,,,,,,,,,,,,,,,,,,,,,,,,,,,,,,,,,,,,,,,,,,,,,,,,,,,,,,,,,,,,,
19063,1648953242.14278,1648953242.187199,20.0,0.0,4237.436035,4730.256348,4447.692383,4379.487305,4336.922852000001,0.0,3.0,73.0,,,,0.0,0.0,0.0,1.0,0.0,0.0,0.0,,,,,,,,10.0,0.0,0.5150520000000001,-0.12133800000000002,0.08520499999999999,0.8442379999999999,0.28809,-0.029786,-0.9707180000000001,0.000711,-0.011422,-0.040799,,,,,,,,,,,,,,,,,,,,,,,,,,,,,,,,,,,,,,,,,,,,,,,,,,,,,,,,,,,,,,,,,
19064,1648953242.150595,1648953242.195014,21.0,0.0,4227.692383,4404.102539,4671.794922,4622.563965,4548.717772999999,0.0,3.0,73.0,,,,0.0,0.0,0.0,1.0,0.0,0.0,0.0,,,,,,,,,,,,,,,,,,,,,,,,,,,,,,,,,,,,,,,,,,,,,,,,,,,,,,0.0,0.0,32.0,0.13002,1.0,0.0,,,,,,,,,,,,,,,,,,,,,,,,,
19065,1648953242.1584089,1648953242.202729,22.0,0.0,4527.692383,4299.487305,4629.743652,4466.153809,4522.05127,0.0,3.0,73.0,,,,0.0,0.0,0.0,1.0,0.0,0.0,0.0,,,,,,,,11.0,0.0,0.5150520000000001,-0.12133800000000002,0.08520499999999999,0.8442379999999999,0.305669,-0.012206999999999999,-0.977066,0.0008349999999999999,-0.011354000000000001,-0.036475,,,,,,,,,,,,,,,,,,,,,,,,,,,,,,,,,,,,,,,,,,,,,,,,,,,,,,,,,,,,,,,,,
19066,1648953242.166224,1648953242.2105439,23.0,0.0,4694.871582,4480.0,4421.025879,4212.820313,4476.410156,0.0,3.0,73.0,,,,0.0,0.0,0.0,1.0,0.0,0.0,0.0,,,,,,,,,,,,,,,,,,,,,,,,,,,,,,,,,,,,,,,,,,,,,,,,,,,,,,,,,,,,,,,,,,,,,,,,,,,,,,,,,,,,
19067,1648953242.1740382,1648953242.218259,24.0,0.0,4421.538574,4563.077147999999,4478.974121,4157.94873,4309.230957,0.0,3.0,73.0,,,,0.0,0.0,0.0,1.0,0.0,0.0,0.0,,,,,,,,12.0,0.0,0.5150520000000001,-0.12133800000000002,0.08520499999999999,0.8442379999999999,0.30225100000000005,-0.001953,-0.9741360000000001,-0.002227,-0.01144,-0.032583,,,,,,,,,,,,,,,,,,,,,,,,,,,,,,,,,,,,,,,,,,,,,,,,,,,,,,,,,,,,,,,,,
19068,1648953242.1818528,1648953242.226074,25.0,0.0,4085.1281740000004,4341.025879,4608.205078,4274.358886999999,4126.666504,0.0,3.0,73.0,,,,0.0,0.0,0.0,1.0,0.0,0.0,0.0,,,,,,,,,,,,,,,,,,,,,,,,,,,,,,,,,,,,,,,,,,,,,,,,,,,,,,0.0,0.0,32.0,0.13002,1.0,0.0,,,,,,,,,,,,,,,,,,,,,,,,,
19069,1648953242.189667,1648953242.233789,26.0,0.0,4072.820557,4266.666504,4405.128418,4425.128418,4267.179688,0.0,3.0,73.0,,,,0.0,0.0,0.0,1.0,0.0,0.0,0.0,,,,,,,,13.0,0.0,0.5150520000000001,-0.12133800000000002,0.08520499999999999,0.8442379999999999,0.292973,-0.020996,-0.9897610000000001,-0.002053,-0.011467,-0.035331,,,,,,,,,,,,,,,,,,,,,,,,,,,,,,,,,,,,,,,,,,,,,,,,,,,,,,,,,,,,,,,,,
19070,1648953242.197482,1648953242.241504,27.0,0.0,4290.769043,4499.487305,4113.846191,4449.743652,4383.589844,0.0,3.0,73.0,,,,0.0,0.0,0.0,1.0,0.0,0.0,0.0,,,,,,,,,,,,,,,,,,,,,,,,,,,,,,,,,,,,,,,,,,,,,,,,,,,,,,,,,,,,,,,,,,,,,,,,,,,,,,,,,,,,
19071,1648953242.205297,1648953242.249318,28.0,0.0,4488.205078,4679.487305,4164.615234000001,4488.717772999999,4286.153809,0.0,3.0,73.0,,,,0.0,0.0,0.0,1.0,0.0,0.0,0.0,,,,,,,,14.0,0.0,0.5150520000000001,-0.12133800000000002,0.08520499999999999,0.8442379999999999,0.305669,-0.012206999999999999,-0.977066,-0.0048259999999999996,-0.011346,-0.031505,,,,,,,,,,,,,,,,,,,,,,,,,,,,,,,,,,,,,,,,,,,,,,,,,,,,,,,,,,,,,,,,,
19072,1648953242.213111,1648953242.257233,29.0,0.0,4545.128418,4629.743652,4307.692383,4613.846191,4331.282227000001,0.0,3.0,73.0,,,,0.0,0.0,0.0,1.0,0.0,0.0,0.0,,,,,,,,,,,,,,,,,,,,,,,,,,,,,,,,,,,,,,,,,,,,,,,,,,,,,,0.0,0.0,32.0,0.13002,1.0,0.0,,,,,,,,,,,,,,,,,,,,,,,,,
19073,1648953242.220926,1648953242.265048,30.0,0.0,4508.205078,4590.256348,4311.282227000001,4511.282227000001,4425.128418,0.0,3.0,73.0,,,,0.0,0.0,0.0,1.0,0.0,0.0,0.0,,,,,,,,15.0,0.0,0.5150520000000001,-0.12133800000000002,0.08520499999999999,0.8442379999999999,0.292973,-0.020996,-0.9897610000000001,-0.004392,-0.011382999999999999,-0.03436,,,,,,,,,,,,,,,,,,,,,,,,,,,,,,,,,,,,,,,,,,,,,,,,,,,,,,,,,,,,,,,,,
19074,1648953242.22874,1648953242.272763,31.0,0.0,4354.871582,4715.384765999999,4412.307617,4175.384765999999,4175.384765999999,0.0,3.0,73.0,,,,0.0,0.0,0.0,1.0,0.0,0.0,0.0,,,,,,,,,,,,,,,,,,,,,,,,,,,,,,,,,,,,,,,,,,,,,,,,,,,,,,,,,,,,,,,,,,,,,,,,,,,,,,,,,,,,
19075,1648953242.236555,1648953242.280578,32.0,0.0,4164.615234000001,4700.512695,4616.410156,4136.410156,3981.025635,0.0,3.0,73.0,,,,0.0,0.0,0.0,1.0,0.0,0.0,0.0,,,,,,,,16.0,0.0,0.5150520000000001,-0.12133800000000002,0.08520499999999999,0.8442379999999999,0.299321,-0.0058590000000000005,-0.976089,-0.003953,-0.011515000000000001,-0.037028,,,,,,,,,,,,,,,,,,,,,,,,,,,,,,,,,,,,,,,,,,,,,,,,,,,,,,,,,,,,,,,,,
19076,1648953242.244369,1648953242.288293,33.0,0.0,4047.179443,4502.563965,4603.077147999999,4180.0,4137.94873,0.0,3.0,73.0,,,,0.0,0.0,0.0,1.0,0.0,0.0,0.0,,,,,,,,,,,,,,,,,,,,1.0,0.0,0.0,,,,,,,,,,,,,,,,,,,,,,,,,,,,,,,,0.0,0.0,32.0,0.12472799999999999,1.0,0.0,19.674988,54.10207,578.194153,537.200928,46.372192,58.25909,95.706047,69.825958,144.640106,63.85651,310.329041,260.52398700000003,419.398346,275.85693399999997,90.4888,20.248533,28.770849,138.470764,1082.140991,70.315155,134.52973899999998,72.088821,186.74662800000002,877.7745970000001,74.497917
19077,1648953242.252184,1648953242.296208,34.0,0.0,4092.3076170000004,4407.692383,4367.692383,4153.846191,4435.384765999999,0.0,3.0,73.0,,,,0.0,0.0,0.0,1.0,0.0,0.0,0.0,,,,,,,,17.0,0.0,0.5150520000000001,-0.12133800000000002,0.08520499999999999,0.8442379999999999,0.28809,-0.00293,-0.9946440000000001,-0.006439,-0.011486,-0.033227,,,,,,,,,,,,,,,,,,,,,,,,,,,,,,,,,,,,,,,,,,,,,,,,,,,,,,,,,,,,,,,,,
19078,1648953242.259998,1648953242.304023,35.0,0.0,4284.102539,4517.436035,4284.615234000001,4304.102539,4554.871582,0.0,3.0,73.0,,,,0.0,0.0,0.0,1.0,0.0,0.0,0.0,,,,,,,,,,,,,,,,,,,,,,,,,,,,,,,,,,,,,,,,,,,,,,,,,,,,,,,,,,,,,,,,,,,,,,,,,,,,,,,,,,,,
19079,1648953242.267813,1648953242.3118382,36.0,0.0,4537.94873,4530.256348,4412.307617,4526.153809,4528.205078,0.0,3.0,73.0,,,,0.0,0.0,0.0,1.0,0.0,0.0,0.0,,,,,,,,18.0,0.0,0.5150520000000001,-0.12133800000000002,0.08520499999999999,0.8442379999999999,0.287602,-0.018067,-0.977066,-0.005647999999999999,-0.011363,-0.035910000000000004,,,,,,,,,,,,,,,,,,,,,,,,,,,,,,,,,,,,,,,,,,,,,,,,,,,,,,,,,,,,,,,,,
19080,1648953242.275627,1648953242.319553,37.0,0.0,4464.102539,4470.256348,4360.0,4413.333496,4354.871582,0.0,3.0,73.0,,,,0.0,0.0,0.0,1.0,0.0,0.0,0.0,,,,,,,,,,,,,,,,,,,,,,,,,,,,,,,,,,,,,,,,,,,,,,,,,,,,,,0.0,0.0,32.0,0.12472799999999999,1.0,0.0,,,,,,,,,,,,,,,,,,,,,,,,,
19081,1648953242.283442,1648953242.327368,38.0,0.0,4260.512695,4634.358886999999,4236.410156,4165.128418,4152.820313,0.0,3.0,73.0,,,,0.0,0.0,0.0,1.0,0.0,0.0,0.0,,,,,,,,19.0,0.0,0.515093,-0.12133800000000002,0.084961,0.8442379999999999,0.300298,-0.027832,-0.98146,-0.005132,-0.011301,-0.038277,,,,,,,,,,,,,,,,,,,,,,,,,,,,,,,,,,,,,,,,,,,,,,,,,,,,,,,,,,,,,,,,,
19082,1648953242.2912571,1648953242.335083,39.0,0.0,4185.641113000001,4769.743652,4392.820313,4118.461426,4045.641113,0.0,3.0,73.0,,,,0.0,0.0,0.0,1.0,0.0,0.0,0.0,,,,,,,,,,,,,,,,,,,,,,,,,,,,,,,,,,,,,,,,,,,,,,,,,,,,,,,,,,,,,,,,,,,,,,,,,,,,,,,,,,,,
19083,1648953242.299071,1648953242.3428981,40.0,0.0,4139.487305,4630.256348,4678.974121,4287.692383,4063.076904,0.0,3.0,73.0,,,,0.0,0.0,0.0,1.0,0.0,0.0,0.0,,,,,,,,20.0,0.0,0.515093,-0.12133800000000002,0.084961,0.8442379999999999,0.29102,-0.015625,-0.984878,-0.0015429999999999999,-0.011392,-0.040455,,,,,,,,,,,,,,,,,,,,,,,,,,,,,,,,,,,,,,,,,,,,,,,,,,,,,,,,,,,,,,,,,
19084,1648953242.306886,1648953242.350613,41.0,0.0,4147.692383,4466.666504,4666.153809,4362.563965,4262.05127,0.0,3.0,73.0,,,,0.0,0.0,0.0,1.0,0.0,0.0,0.0,,,,,,,,,,,,,,,,,,,,,,,,,,,,,,,,,,,,,,,,,,,,,,,,,,,,,,0.0,0.0,32.0,0.12472799999999999,1.0,0.0,,,,,,,,,,,,,,,,,,,,,,,,,
19085,1648953242.3147,1648953242.358428,42.0,0.0,4283.077147999999,4498.461426,4392.820313,4307.692383,4538.461426,0.0,3.0,73.0,,,,0.0,0.0,0.0,1.0,0.0,0.0,0.0,,,,,,,,21.0,0.0,0.515093,-0.12133800000000002,0.084961,0.8442379999999999,0.287602,-0.018555000000000002,-0.9897610000000001,-0.001193,-0.011327,-0.042464,,,,,,,,,,,,,,,,,,,,,,,,,,,,,,,,,,,,,,,,,,,,,,,,,,,,,,,,,,,,,,,,,
19086,1648953242.322515,1648953242.366143,43.0,0.0,4517.94873,4471.794922,4307.179688,4383.589844,4549.743652,0.0,3.0,73.0,,,,0.0,0.0,0.0,1.0,0.0,0.0,0.0,,,,,,,,,,,,,,,,,,,,,,,,,,,,,,,,,,,,,,,,,,,,,,,,,,,,,,,,,,,,,,,,,,,,,,,,,,,,,,,,,,,,
19087,1648953242.330329,1648953242.374058,44.0,0.0,4710.769043,4380.0,4454.871582,4445.641113000001,4350.769043,0.0,3.0,73.0,,,,0.0,0.0,0.0,1.0,0.0,0.0,0.0,,,,,,,,22.0,0.0,0.515093,-0.12133800000000002,0.084961,0.8442379999999999,0.286625,-0.017578,-0.9746239999999999,-0.001025,-0.011268,-0.037925,,,,,,,,,,,,,,,,,,,,,,,,,,,,,,,,,,,,,,,,,,,,,,,,,,,,,,,,,,,,,,,,,
19088,1648953242.338144,1648953242.3818731,45.0,0.0,4588.205078,4444.102539,4472.820313,4312.307617,4281.025879,0.0,3.0,73.0,,,,0.0,0.0,0.0,1.0,0.0,0.0,0.0,,,,,,,,,,,,,,,,,,,,,,,,,,,,,,,,,,,,,,,,,,,,,,,,,,,,,,0.0,0.0,32.0,0.12472799999999999,1.0,0.0,,,,,,,,,,,,,,,,,,,,,,,,,
19089,1648953242.345958,1648953242.3897882,46.0,0.0,4228.717772999999,4528.205078,4286.153809,4073.8461909999996,4295.384765999999,0.0,3.0,73.0,,,,0.0,0.0,0.0,1.0,0.0,0.0,0.0,,,,,,,,23.0,0.0,0.515093,-0.12133800000000002,0.084961,0.8442379999999999,0.302739,-0.02002,-0.993667,0.002105,-0.011216,-0.040138,,,,,,,,,,,,,,,,,,,,,,,,,,,,,,,,,,,,,,,,,,,,,,,,,,,,,,,,,,,,,,,,,
19090,1648953242.353773,1648953242.397603,47.0,0.0,4124.615234000001,4593.333496,4352.820313,4076.923096,4369.230957,0.0,3.0,73.0,,,,0.0,0.0,0.0,1.0,0.0,0.0,0.0,,,,,,,,,,,,,,,,,,,,,,,,,,,,,,,,,,,,,,,,,,,,,,,,,,,,,,,,,,,,,,,,,,,,,,,,,,,,,,,,,,,,
19091,1648953242.3615868,1648953242.405518,48.0,0.0,4171.794922,4669.230957,4538.461426,4292.820313,4390.256348,0.0,3.0,73.0,,,,0.0,0.0,0.0,1.0,0.0,0.0,0.0,,,,,,,,24.0,0.0,0.515093,-0.12133800000000002,0.084961,0.8442379999999999,0.30518,-0.021485,-0.9751129999999999,0.002041,-0.011168,-0.04213,,,,,,,,,,,,,,,,,,,,,,,,,,,,,,,,,,,,,,,,,,,,,,,,,,,,,,,,,,,,,,,,,
19092,1648953242.369402,1648953242.413333,49.0,0.0,4234.358886999999,4644.102539,4580.512695,4470.256348,4426.666504,0.0,3.0,73.0,,,,0.0,0.0,0.0,1.0,0.0,0.0,0.0,,,,,,,,,,,,,,,,,,,,1.0,0.0,0.0,,,,,,,,,,,,,,,,,,,,,,,,,,,,,,,,0.0,0.0,32.0,0.119218,1.0,0.0,16.350626000000002,67.058083,581.010986,571.255615,49.701538,70.166611,109.90401499999999,94.838631,135.371353,67.886299,282.206177,336.417694,433.97464,247.58197,99.336517,20.635223,43.239529,149.058685,1038.02417,69.903038,126.4468,99.654533,167.19558700000002,879.316345,70.718826
19093,1648953242.377217,1648953242.421148,50.0,0.0,4424.102539,4568.717772999999,4560.0,4561.025879,4545.128418,0.0,3.0,73.0,,,,0.0,0.0,0.0,1.0,0.0,0.0,0.0,,,,,,,,25.0,0.0,0.515093,-0.12133800000000002,0.084961,0.8442379999999999,0.317388,-0.019043,-0.976089,-0.001142,-0.011175,-0.037673000000000005,,,,,,,,,,,,,,,,,,,,,,,,,,,,,,,,,,,,,,,,,,,,,,,,,,,,,,,,,,,,,,,,,
19094,1648953242.385031,1648953242.428863,51.0,0.0,4562.563965,4675.897461,4430.769043,4535.897461,4562.05127,0.0,3.0,73.0,,,,0.0,0.0,0.0,1.0,0.0,0.0,0.0,,,,,,,,,,,,,,,,,,,,,,,,,,,,,,,,,,,,,,,,,,,,,,,,,,,,,,,,,,,,,,,,,,,,,,,,,,,,,,,,,,,,
19095,1648953242.392846,1648953242.4367769,52.0,0.0,4418.974121,4808.717772999999,4390.256348,4280.0,4220.0,0.0,3.0,73.0,,,,0.0,0.0,0.0,1.0,0.0,0.0,0.0,,,,,,,,26.0,0.0,0.5150520000000001,-0.12133800000000002,0.08520499999999999,0.8442379999999999,0.306157,-0.032227,-0.9824370000000001,-0.00093,-0.011131,-0.040008999999999996,,,,,,,,,,,,,,,,,,,,,,,,,,,,,,,,,,,,,,,,,,,,,,,,,,,,,,,,,,,,,,,,,
19096,1648953242.40066,1648953242.444592,53.0,0.0,4256.410156,4727.692383,4654.871582,4142.05127,3992.820557,0.0,3.0,73.0,,,,0.0,0.0,0.0,1.0,0.0,0.0,0.0,,,,,,,,,,,,,,,,,,,,,,,,,,,,,,,,,,,,,,,,,,,,,,,,,,,,,,0.0,0.0,32.0,0.119218,1.0,0.0,,,,,,,,,,,,,,,,,,,,,,,,,
19097,1648953242.408475,1648953242.452507,54.0,0.0,4113.846191,4555.384765999999,4716.410156,4237.436035,4185.641113000001,0.0,3.0,73.0,,,,0.0,0.0,0.0,1.0,0.0,0.0,0.0,,,,,,,,27.0,0.0,0.515093,-0.12133800000000002,0.084961,0.8442379999999999,0.31006300000000003,-0.016114,-0.984878,0.002239,-0.011092,-0.035764,,,,,,,,,,,,,,,,,,,,,,,,,,,,,,,,,,,,,,,,,,,,,,,,,,,,,,,,,,,,,,,,,
19098,1648953242.416289,1648953242.4603221,55.0,0.0,4150.769043,4444.615234000001,4490.256348,4324.102539,4402.563965,0.0,3.0,73.0,,,,0.0,0.0,0.0,1.0,0.0,0.0,0.0,,,,,,,,,,,,,,,,,,,,,,,,,,,,,,,,,,,,,,,,,,,,,,,,,,,,,,,,,,,,,,,,,,,,,,,,,,,,,,,,,,,,
19099,1648953242.424104,1648953242.468037,56.0,0.0,4475.897461,4385.641113000001,4431.282227000001,4318.461426,4518.461426,0.0,3.0,73.0,,,,0.0,0.0,0.0,1.0,0.0,0.0,0.0,,,,,,,,28.0,0.0,0.515093,-0.12133800000000002,0.084961,0.8442379999999999,0.302739,0.003906,-0.9741360000000001,0.001966,-0.011056999999999999,-0.038194,,,,,,,,,,,,,,,,,,,,,,,,,,,,,,,,,,,,,,,,,,,,,,,,,,,,,,,,,,,,,,,,,
19100,1648953242.4319189,1648953242.475852,57.0,0.0,4748.205078,4466.153809,4440.512695,4290.769043,4574.871582,0.0,3.0,73.0,,,,0.0,0.0,0.0,1.0,0.0,0.0,0.0,,,,,,,,,,,,,,,,,,,,,,,,,,,,,,,,,,,,,,,,,,,,,,,,,,,,,,0.0,0.0,32.0,0.119218,1.0,0.0,,,,,,,,,,,,,,,,,,,,,,,,,
19101,1648953242.439733,1648953242.483567,58.0,0.0,4548.205078,4555.384765999999,4503.077147999999,4229.743652,4336.922852000001,0.0,3.0,73.0,,,,0.0,0.0,0.0,1.0,0.0,0.0,0.0,,,,,,,,29.0,0.0,0.515093,-0.12133800000000002,0.084961,0.8442379999999999,0.29639099999999996,-0.021973,-0.988296,0.001819,-0.011124,-0.040478,,,,,,,,,,,,,,,,,,,,,,,,,,,,,,,,,,,,,,,,,,,,,,,,,,,,,,,,,,,,,,,,,
19102,1648953242.4475482,1648953242.4913821,59.0,0.0,4146.666504,4336.922852000001,4611.794922,4264.102539,4053.8461909999996,0.0,3.0,73.0,,,,0.0,0.0,0.0,1.0,0.0,0.0,0.0,,,,,,,,,,,,,,,,,,,,,,,,,,,,,,,,,,,,,,,,,,,,,,,,,,,,,,,,,,,,,,,,,,,,,,,,,,,,,,,,,,,,
19103,1648953242.4553618,1648953242.499097,60.0,0.0,4091.281982,4206.666504,4409.230957,4373.846191,4132.820313,0.0,3.0,73.0,,,,0.0,0.0,0.0,1.0,0.0,0.0,0.0,,,,,,,,30.0,0.0,0.515093,-0.12133800000000002,0.084961,0.8442379999999999,0.298344,-0.01709,-0.9707180000000001,0.001686,-0.011085,-0.042533999999999995,,,,,,,,,,,,,,,,,,,,,,,,,,,,,,,,,,,,,,,,,,,,,,,,,,,,,,,,,,,,,,,,,
19104,1648953242.463177,1648953242.506912,61.0,0.0,4277.436035,4489.743652,4098.461426,4322.563965,4256.922852000001,0.0,3.0,73.0,,,,0.0,0.0,0.0,1.0,0.0,0.0,0.0,,,,,,,,,,,,,,,,,,,,,,,,,,,,,,,,,,,,,,,,,,,,,,,,,,,,,,0.0,0.0,32.0,0.119218,1.0,0.0,,,,,,,,,,,,,,,,,,,,,,,,,
19105,1648953242.4709911,1648953242.514627,62.0,0.0,4431.794922,4681.025879,4161.538574,4406.153809,4224.615234000001,0.0,3.0,73.0,,,,0.0,0.0,0.0,1.0,0.0,0.0,0.0,,,,,,,,31.0,0.0,0.515093,-0.12133800000000002,0.084961,0.8442379999999999,0.292973,-0.024903,-0.9741360000000001,0.0017120000000000002,-0.0111,-0.044384,,,,,,,,,,,,,,,,,,,,,,,,,,,,,,,,,,,,,,,,,,,,,,,,,,,,,,,,,,,,,,,,,
19106,1648953242.478806,1648953242.522542,63.0,0.0,4491.282227000001,4611.794922,4285.641113000001,4684.615234000001,4344.615234000001,0.0,3.0,73.0,,,,0.0,0.0,0.0,1.0,0.0,0.0,0.0,,,,,,,,,,,,,,,,,,,,,,,,,,,,,,,,,,,,,,,,,,,,,,,,,,,,,,,,,,,,,,,,,,,,,,,,,,,,,,,,,,,,
19107,1648953242.48662,1648953242.5303571,64.0,0.0,4484.102539,4624.615234000001,4262.563965,4650.769043,4511.282227000001,450.0,3.0,73.0,,,,0.0,0.0,0.0,1.0,0.0,0.0,0.0,,,,,,,,32.0,0.0,0.51515,-0.12109400000000001,0.084961,0.8442379999999999,0.291508,-0.020508000000000002,-0.98439,0.001395,-0.011064000000000001,-0.046049,,,,,,,,,,,,,,,,,,,,,,,,,,,,,,,,,,,,,,,,,,,,,,,,,,,,,,,,,,,,,,,,,
19108,1648953242.494435,1648953242.5382721,65.0,0.0,4284.102539,4762.05127,4319.487305,4242.05127,4279.487305,450.0,3.0,73.0,,,,0.0,0.0,0.0,1.0,0.0,0.0,0.0,1.0,0.0,0.0,0.0,0.0,0.0,0.0,,,,,,,,,,,,,1.0,0.0,0.0,,,,,,,,,,,,,,,,,,,,,,,,,,,,,,,,0.0,0.0,32.0,0.09929400000000001,1.0,0.0,16.694805,87.677605,552.9695429999999,631.725342,53.542835,85.983238,121.846672,144.31549099999998,120.64781200000002,75.497375,248.18983500000002,404.266968,458.13330099999996,208.58566299999998,109.104408,23.918869,62.385098,154.25028999999998,972.589661,70.027649,109.162727,129.54435700000002,137.096039,892.139099,69.523865
19109,1648953242.502249,1648953242.546087,66.0,0.0,4092.820557,4781.025879,4498.461426,4106.153809,4073.8461909999996,0.0,3.0,73.0,,,,0.0,0.0,0.0,1.0,0.0,0.0,0.0,,,,,,,,33.0,0.0,0.5151899999999999,-0.12109400000000001,0.084717,0.8442379999999999,0.289555,-0.014649,-0.965835,0.004185,-0.011032,-0.047499,,,,,,,,,,,,,,,,,,,,,,,,,,,,,,,,,,,,,,,,,,,,,,,,,,,,,,,,,,,,,,,,,
19110,1648953242.5100641,1648953242.553902,67.0,0.0,4073.8461909999996,4656.922852000001,4565.128418,4132.307617,4165.641113000001,450.0,3.0,73.0,,,,0.0,0.0,0.0,1.0,0.0,0.0,0.0,,,,,,,,,,,,,,,,,,,,,,,,,,,,,,,,,,,,,,,,,,,,,,,,,,,,,,,,,,,,,,,,,,,,,,,,,,,,,,,,,,,,
19111,1648953242.5178778,1648953242.561617,68.0,0.0,4069.2307130000004,4504.615234000001,4407.692383,4138.974121,4374.871582,0.0,3.0,73.0,,,,0.0,0.0,0.0,1.0,0.0,0.0,0.0,,,,,,,,34.0,0.0,0.51479,-0.12109400000000001,0.084717,0.844482,0.300298,-0.016114,-0.9922030000000001,0.003815,-0.011101,-0.048658,,,,,,,,,,,,,,,,,,,,,,,,,,,,,,,,,,,,,,,,,,,,,,,,,,,,,,,,,,,,,,,,,
19112,1648953242.525693,1648953242.569532,69.0,0.0,4087.179443,4524.102539,4303.589844,4291.282227000001,4537.94873,450.0,3.0,73.0,,,,0.0,0.0,0.0,0.0,0.0,0.0,0.0,,,,,,,,,,,,,,,,,,,,,,,,,,,,,,,,,,,,,,,,,,,,,,,,,,,,,,0.0,0.0,32.0,0.09929400000000001,1.0,0.0,,,,,,,,,,,,,,,,,,,,,,,,,
19113,1648953242.533507,1648953242.577347,70.0,0.0,4396.922852000001,4567.179688,4413.333496,4464.615234000001,4619.487305,0.0,3.0,73.0,,,,0.0,0.0,0.0,0.0,0.0,0.0,0.0,,,,,,,,35.0,0.0,0.51475,-0.12109400000000001,0.084961,0.844482,0.30811,-0.018555000000000002,-0.983902,0.003629,-0.010967,-0.049749,,,,,,,,,,,,,,,,,,,,,,,,,,,,,,,,,,,,,,,,,,,,,,,,,,,,,,,,,,,,,,,,,
19114,1648953242.541322,1648953242.5852618,71.0,0.0,4541.025879,4462.05127,4391.794922,4428.205078,4386.153809,450.0,3.0,73.0,,,,0.0,0.0,0.0,0.0,0.0,0.0,0.0,,,,,,,,,,,,,,,,,,,,,,,,,,,,,,,,,,,,,,,,,,,,,,,,,,,,,,,,,,,,,,,,,,,,,,,,,,,,,,,,,,,,
19115,1648953242.5491369,1648953242.593077,72.0,0.0,4323.077147999999,4515.384765999999,4158.974121,4316.410156,4070.7692869999996,450.0,3.0,73.0,,,,0.0,0.0,0.0,0.0,0.0,0.0,0.0,,,,,,,,36.0,0.0,0.51475,-0.12109400000000001,0.084961,0.844482,0.30518,-0.02295,-0.987808,0.000239,-0.010945,-0.044481,,,,,,,,,,,,,,,,,,,,,,,,,,,,,,,,,,,,,,,,,,,,,,,,,,,,,,,,,,,,,,,,,
19116,1648953242.556951,1648953242.600992,73.0,0.0,4202.563965,4719.487305,4209.230957,4168.717772999999,4046.6667479999996,0.0,3.0,73.0,,,,0.0,0.0,0.0,0.0,0.0,0.0,0.0,,,,,,,,,,,,,,,,,,,,,,,,,,,,,,,,,,,,,,,,,,,,,,,,,,,,,,0.0,0.0,32.0,0.09929400000000001,1.0,0.0,,,,,,,,,,,,,,,,,,,,,,,,,
19117,1648953242.564766,1648953242.6088061,74.0,0.0,4240.0,4695.897461,4588.205078,4149.743652,4088.205078,450.0,3.0,73.0,,,,0.0,0.0,0.0,0.0,0.0,0.0,0.0,,,,,,,,37.0,0.0,0.51479,-0.12109400000000001,0.084717,0.844482,0.286625,-0.016114,-0.983902,0.00031299999999999996,-0.011022,-0.045989999999999996,,,,,,,,,,,,,,,,,,,,,,,,,,,,,,,,,,,,,,,,,,,,,,,,,,,,,,,,,,,,,,,,,
19118,1648953242.57258,1648953242.6167212,75.0,0.0,4208.205078,4515.897461,4702.05127,4301.025879,4132.820313,0.0,3.0,73.0,,,,0.0,0.0,0.0,0.0,0.0,0.0,0.0,,,,,,,,,,,,,,,,,,,,,,,,,,,,,,,,,,,,,,,,,,,,,,,,,,,,,,,,,,,,,,,,,,,,,,,,,,,,,,,,,,,,
19119,1648953242.580395,1648953242.624536,76.0,0.0,4192.307617,4474.358886999999,4448.205078,4307.692383,4362.563965,450.0,3.0,73.0,,,,0.0,0.0,0.0,0.0,0.0,0.0,0.0,,,,,,,,38.0,0.0,0.51479,-0.12109400000000001,0.084717,0.844482,0.301762,-0.020508000000000002,-0.983902,0.00042800000000000005,-0.011141,-0.041049,,,,,,,,,,,,,,,,,,,,,,,,,,,,,,,,,,,,,,,,,,,,,,,,,,,,,,,,,,,,,,,,,
19120,1648953242.5882099,1648953242.632351,77.0,0.0,4399.487305,4540.0,4281.538574,4365.128418,4537.94873,450.0,3.0,73.0,,,,0.0,0.0,0.0,0.0,0.0,0.0,0.0,,,,,,,,,,,,,,,,,,,,,,,,,,,,,,,,,,,,,,,,,,,,,,,,,,,,,,0.0,0.0,32.0,0.09929400000000001,1.0,0.0,,,,,,,,,,,,,,,,,,,,,,,,,
19121,1648953242.596024,1648953242.640066,78.0,0.0,4695.897461,4506.666504,4309.743652,4531.794922,4476.922852000001,450.0,3.0,73.0,,,,0.0,0.0,0.0,0.0,0.0,0.0,0.0,,,,,,,,39.0,0.0,0.51479,-0.12109400000000001,0.084717,0.844482,0.298833,-0.018067,-0.984878,-0.002691,-0.011052,-0.0367,,,,,,,,,,,,,,,,,,,,,,,,,,,,,,,,,,,,,,,,,,,,,,,,,,,,,,,,,,,,,,,,,
19122,1648953242.6038392,1648953242.6477811,79.0,0.0,4656.410156,4402.05127,4276.922852000001,4469.743652,4431.282227000001,0.0,3.0,73.0,,,,0.0,0.0,0.0,0.0,0.0,0.0,0.0,,,,,,,,,,,,,,,,,,,,,,,,,,,,,,,,,,,,,,,,,,,,,,,,,,,,,,,,,,,,,,,,,,,,,,,,,,,,,,,,,,,,
19123,1648953242.6116529,1648953242.655596,80.0,0.0,4254.358886999999,4504.615234000001,4193.846191,4187.692383,4366.666504,450.0,3.0,73.0,,,,0.0,0.0,0.0,0.0,0.0,0.0,0.0,,,,,,,,40.0,0.0,0.51479,-0.12109400000000001,0.084717,0.844482,0.293462,-0.012695999999999999,-0.9834129999999999,-0.002471,-0.011119,-0.039036,,,,,,,,,,,,,,,,,,,,,,,,,,,,,,,,,,,,,,,,,,,,,,,,,,,,,,,,,,,,,,,,,
19124,1648953242.619468,1648953242.663311,81.0,0.0,4111.794922,4727.179688,4375.897461,4095.897461,4274.358886999999,450.0,3.0,73.0,,,,0.0,0.0,0.0,0.0,0.0,0.0,0.0,,,,,,,,,,,,,,,,,,,,1.0,0.0,0.0,,,,,,,,,,,,,,,,,,,,,,,,,,,,,,,,0.0,0.0,32.0,0.10001399999999999,1.0,0.0,22.601604000000002,113.63002,494.243408,712.9415280000001,58.060055000000006,102.927757,128.432526,215.23075899999998,103.65229000000001,85.993835,216.28701800000002,445.423828,501.75814800000006,164.986435,118.137192,30.255278000000004,82.143951,148.657578,892.668152,72.583977,87.426163,158.345428,100.713898,917.425293,71.291267
19125,1648953242.6272821,1648953242.671126,82.0,0.0,4121.025879,4688.717772999999,4559.487305,4196.922852000001,4194.358886999999,450.0,3.0,73.0,,,,0.0,0.0,0.0,0.0,0.0,0.0,0.0,,,,,,,,41.0,0.0,0.51479,-0.12109400000000001,0.084717,0.844482,0.29688000000000003,-0.016602000000000002,-0.963882,-0.002322,-0.011276000000000001,-0.041138,,,,,,,,,,,,,,,,,,,,,,,,,,,,,,,,,,,,,,,,,,,,,,,,,,,,,,,,,,,,,,,,,
19126,1648953242.635097,1648953242.678841,83.0,0.0,4125.641113000001,4549.743652,4569.230957,4332.307617,4284.102539,0.0,3.0,73.0,,,,0.0,0.0,0.0,0.0,0.0,0.0,0.0,,,,,,,,,,,,,,,,,,,,,,,,,,,,,,,,,,,,,,,,,,,,,,,,,,,,,,,,,,,,,,,,,,,,,,,,,,,,,,,,,,,,
19127,1648953242.642911,1648953242.686656,84.0,0.0,4339.487305,4511.282227000001,4598.974121,4492.307617,4592.820313,450.0,3.0,73.0,,,,0.0,0.0,0.0,0.0,0.0,0.0,0.0,,,,,,,,42.0,0.0,0.51479,-0.12109400000000001,0.084717,0.844482,0.298833,-0.018067,-0.984878,-0.002187,-0.011369,-0.042982,,,,,,,,,,,,,,,,,,,,,,,,,,,,,,,,,,,,,,,,,,,,,,,,,,,,,,,,,,,,,,,,,
19128,1648953242.650726,1648953242.694371,85.0,0.0,4582.05127,4527.692383,4611.794922,4564.102539,4801.025879,450.0,3.0,73.0,,,,0.0,0.0,0.0,0.0,0.0,0.0,0.0,,,,,,,,,,,,,,,,,,,,,,,,,,,,,,,,,,,,,,,,,,,,,,,,,,,,,,0.0,0.0,32.0,0.10001399999999999,1.0,0.0,,,,,,,,,,,,,,,,,,,,,,,,,
19129,1648953242.65854,1648953242.702286,86.0,0.0,4497.436035,4636.410156,4579.487305,4344.615234000001,4429.743652,450.0,3.0,73.0,,,,0.0,0.0,0.0,0.0,0.0,0.0,0.0,,,,,,,,43.0,0.0,0.51479,-0.12109400000000001,0.084717,0.844482,0.29688000000000003,-0.016602000000000002,-0.963882,-0.002066,-0.011502,-0.04469,,,,,,,,,,,,,,,,,,,,,,,,,,,,,,,,,,,,,,,,,,,,,,,,,,,,,,,,,,,,,,,,,
19130,1648953242.6663551,1648953242.710101,87.0,0.0,4315.897461,4708.717772999999,4653.846191,4162.05127,3972.3076170000004,0.0,3.0,73.0,,,,0.0,0.0,0.0,0.0,0.0,0.0,0.0,,,,,,,,,,,,,,,,,,,,,,,,,,,,,,,,,,,,,,,,,,,,,,,,,,,,,,,,,,,,,,,,,,,,,,,,,,,,,,,,,,,,
19131,1648953242.674169,1648953242.718016,88.0,0.0,4172.307617,4578.461426,4645.641113000001,4184.102539,4028.205078,450.0,3.0,73.0,,,,0.0,0.0,0.0,0.0,0.0,0.0,0.0,,,,,,,,44.0,0.0,0.51479,-0.12109400000000001,0.084717,0.844482,0.290532,-0.025391,-0.9873200000000001,-0.0017620000000000001,-0.011621,-0.040025,,,,,,,,,,,,,,,,,,,,,,,,,,,,,,,,,,,,,,,,,,,,,,,,,,,,,,,,,,,,,,,,,
19132,1648953242.681984,1648953242.725831,89.0,0.0,4072.3076170000004,4468.717772999999,4417.94873,4185.128418,4350.769043,450.0,3.0,73.0,,,,0.0,0.0,0.0,0.0,0.0,0.0,0.0,,,,,,,,,,,,,,,,,,,,,,,,,,,,,,,,,,,,,,,,,,,,,,,,,,,,,,0.0,0.0,32.0,0.10001399999999999,1.0,0.0,,,,,,,,,,,,,,,,,,,,,,,,,
19133,1648953242.689798,1648953242.733746,90.0,0.0,4186.153809,4515.897461,4317.436035,4235.384765999999,4505.128418,450.0,3.0,73.0,,,,0.0,0.0,0.0,0.0,0.0,0.0,0.0,,,,,,,,45.0,0.0,0.51479,-0.12109400000000001,0.084717,0.844482,0.29639099999999996,-0.015137000000000001,-0.98439,-0.001537,-0.011533,-0.042029000000000004,,,,,,,,,,,,,,,,,,,,,,,,,,,,,,,,,,,,,,,,,,,,,,,,,,,,,,,,,,,,,,,,,
19134,1648953242.697613,1648953242.741561,91.0,0.0,4480.512695,4551.794922,4290.769043,4515.384765999999,4500.512695,0.0,3.0,73.0,,,,0.0,0.0,0.0,0.0,0.0,0.0,0.0,,,,,,,,,,,,,,,,,,,,,,,,,,,,,,,,,,,,,,,,,,,,,,,,,,,,,,,,,,,,,,,,,,,,,,,,,,,,,,,,,,,,
19135,1648953242.705428,1648953242.749476,92.0,0.0,4542.563965,4510.256348,4154.358886999999,4597.436035,4480.512695,450.0,3.0,73.0,,,,0.0,0.0,0.0,0.0,0.0,0.0,0.0,,,,,,,,46.0,0.0,0.51479,-0.12109400000000001,0.084717,0.844482,0.301274,-0.011231,-0.985367,-0.001334,-0.011552,-0.037582,,,,,,,,,,,,,,,,,,,,,,,,,,,,,,,,,,,,,,,,,,,,,,,,,,,,,,,,,,,,,,,,,
19136,1648953242.713242,1648953242.757291,93.0,0.0,4312.820313,4526.666504,4192.307617,4274.871582,4345.128418,450.0,3.0,73.0,,,,0.0,0.0,0.0,0.0,0.0,0.0,0.0,,,,,,,,,,,,,,,,,,,,,,,,,,,,,,,,,,,,,,,,,,,,,,,,,,,,,,0.0,0.0,32.0,0.10001399999999999,1.0,0.0,,,,,,,,,,,,,,,,,,,,,,,,,
19137,1648953242.721057,1648953242.765206,94.0,0.0,4211.794922,4696.410156,4510.256348,4123.589844,4130.769043,450.0,3.0,73.0,,,,0.0,0.0,0.0,0.0,0.0,0.0,0.0,,,,,,,,47.0,0.0,0.51479,-0.12109400000000001,0.084717,0.844482,0.29102,-0.018555000000000002,-0.9751129999999999,0.001827,-0.011569,-0.039731999999999996,,,,,,,,,,,,,,,,,,,,,,,,,,,,,,,,,,,,,,,,,,,,,,,,,,,,,,,,,,,,,,,,,
19138,1648953242.728871,1648953242.773021,95.0,0.0,4148.717772999999,4671.794922,4708.205078,4249.743652,4001.538574,0.0,3.0,73.0,,,,0.0,0.0,0.0,0.0,0.0,0.0,0.0,,,,,,,,,,,,,,,,,,,,,,,,,,,,,,,,,,,,,,,,,,,,,,,,,,,,,,,,,,,,,,,,,,,,,,,,,,,,,,,,,,,,
19139,1648953242.736686,1648953242.780936,96.0,0.0,4048.205078,4361.538574,4565.128418,4367.179688,4154.358886999999,450.0,3.0,73.0,,,,0.0,0.0,0.0,0.0,0.0,0.0,0.0,,,,,,,,48.0,0.0,0.514389,-0.12109400000000001,0.084717,0.844727,0.289555,-0.010254000000000001,-0.9707180000000001,0.001693,-0.011584,-0.041765,,,,,,,,,,,,,,,,,,,,,,,,,,,,,,,,,,,,,,,,,,,,,,,,,,,,,,,,,,,,,,,,,
19140,1648953242.7445,1648953242.78875,97.0,0.0,4126.666504,4346.153809,4410.256348,4291.282227000001,4447.692383,450.0,3.0,73.0,,,,0.0,0.0,0.0,0.0,0.0,0.0,0.0,,,,,,,,,,,,,,,,,,,,1.0,0.0,0.0,,,,,,,,,,,,,,,,,,,,,,,,,,,,,,,,0.0,0.0,32.0,0.10486600000000001,1.0,0.0,35.109261,138.029892,413.986725,801.853882,63.080031999999996,119.971672,134.417465,295.456207,87.50618,98.078453,190.720428,446.78372199999995,564.509277,125.041847,125.552681,39.103348,100.1856,132.699814,812.6856690000001,78.272797,67.885689,183.770294,67.85623199999999,947.826172,74.865349
19141,1648953242.752315,1648953242.796665,98.0,0.0,4393.846191,4544.615234000001,4340.0,4369.743652,4574.871582,450.0,3.0,73.0,,,,0.0,0.0,0.0,0.0,0.0,0.0,0.0,,,,,,,,49.0,0.0,0.514389,-0.12109400000000001,0.084717,0.844727,0.29688000000000003,-0.012695999999999999,-0.9716950000000001,0.001621,-0.011548000000000001,-0.043594,,,,,,,,,,,,,,,,,,,,,,,,,,,,,,,,,,,,,,,,,,,,,,,,,,,,,,,,,,,,,,,,,
19142,1648953242.760129,1648953242.80448,99.0,0.0,4600.0,4573.333496,4195.897461,4587.692383,4437.94873,0.0,3.0,73.0,,,,0.0,0.0,0.0,0.0,0.0,0.0,0.0,,,,,,,,,,,,,,,,,,,,,,,,,,,,,,,,,,,,,,,,,,,,,,,,,,,,,,,,,,,,,,,,,,,,,,,,,,,,,,,,,,,,
19143,1648953242.7679439,1648953242.812295,100.0,0.0,4617.94873,4516.410156,4208.717772999999,4554.871582,4344.102539,450.0,3.0,73.0,,,,0.0,0.0,0.0,0.0,0.0,0.0,0.0,,,,,,,,50.0,0.0,0.51479,-0.12109400000000001,0.084717,0.844482,0.29395,-0.007812999999999999,-0.9873200000000001,-0.001666,-0.011565,-0.038942000000000004,,,,,,,,,,,,,,,,,,,,,,,,,,,,,,,,,,,,,,,,,,,,,,,,,,,,,,,,,,,,,,,,,
19144,1648953242.775759,1648953242.82001,101.0,0.0,4327.179688,4527.179688,4256.922852000001,4242.05127,4289.230957,450.0,3.0,73.0,,,,0.0,0.0,0.0,0.0,0.0,0.0,0.0,,,,,,,,,,,,,,,,,,,,,,,,,,,,,,,,,,,,,,,,,,,,,,,,,,,,,,0.0,0.0,32.0,0.10486600000000001,1.0,0.0,,,,,,,,,,,,,,,,,,,,,,,,,
19145,1648953242.7835732,1648953242.827725,102.0,0.0,4116.922852000001,4675.897461,4265.128418,4049.2307130000004,4310.256348,450.0,3.0,73.0,,,,0.0,0.0,0.0,0.0,0.0,0.0,0.0,,,,,,,,51.0,0.0,0.51479,-0.12109400000000001,0.084717,0.844482,0.309087,-0.03125,-0.980972,-0.001402,-0.01163,-0.041053,,,,,,,,,,,,,,,,,,,,,,,,,,,,,,,,,,,,,,,,,,,,,,,,,,,,,,,,,,,,,,,,,
19146,1648953242.791388,1648953242.83564,103.0,0.0,4118.974121,4780.512695,4435.897461,4127.692383,4421.025879,0.0,3.0,73.0,,,,0.0,0.0,0.0,0.0,0.0,0.0,0.0,,,,,,,,,,,,,,,,,,,,,,,,,,,,,,,,,,,,,,,,,,,,,,,,,,,,,,,,,,,,,,,,,,,,,,,,,,,,,,,,,,,,
19147,1648953242.799202,1648953242.843455,104.0,0.0,4104.102539,4645.128418,4614.358886999999,4339.487305,4433.333496,450.0,3.0,73.0,,,,0.0,0.0,0.0,0.0,0.0,0.0,0.0,,,,,,,,52.0,0.0,0.51479,-0.12109400000000001,0.084717,0.844482,0.307134,-0.022461000000000002,-0.988296,-0.001115,-0.011736,-0.042954,,,,,,,,,,,,,,,,,,,,,,,,,,,,,,,,,,,,,,,,,,,,,,,,,,,,,,,,,,,,,,,,,
19148,1648953242.807017,1648953242.85127,105.0,0.0,4223.077147999999,4476.410156,4611.282227000001,4489.743652,4487.692383,450.0,3.0,73.0,,,,0.0,0.0,0.0,0.0,0.0,0.0,0.0,,,,,,,,,,,,,,,,,,,,,,,,,,,,,,,,,,,,,,,,,,,,,,,,,,,,,,0.0,0.0,32.0,0.10486600000000001,1.0,0.0,,,,,,,,,,,,,,,,,,,,,,,,,
19149,1648953242.814831,1648953242.858985,106.0,0.0,4556.922852000001,4512.307617,4565.128418,4500.0,4694.871582,450.0,3.0,73.0,,,,0.0,0.0,0.0,0.0,0.0,0.0,0.0,,,,,,,,53.0,0.0,0.51479,-0.12109400000000001,0.084717,0.844482,0.29736799999999997,-0.026856,-0.965347,-0.001052,-0.011783,-0.038366000000000004,,,,,,,,,,,,,,,,,,,,,,,,,,,,,,,,,,,,,,,,,,,,,,,,,,,,,,,,,,,,,,,,,
19150,1648953242.8226461,1648953242.8668,107.0,0.0,4568.717772999999,4507.179688,4646.153809,4404.102539,4528.205078,0.0,3.0,73.0,,,,0.0,0.0,0.0,0.0,0.0,0.0,0.0,,,,,,,,,,,,,,,,,,,,,,,,,,,,,,,,,,,,,,,,,,,,,,,,,,,,,,,,,,,,,,,,,,,,,,,,,,,,,,,,,,,,
19151,1648953242.83046,1648953242.874515,108.0,0.0,4240.0,4296.410156,4635.897461,4273.846191,4080.512939,450.0,3.0,73.0,,,,0.0,0.0,0.0,0.0,0.0,0.0,0.0,,,,,,,,54.0,0.0,0.514447,-0.12085,0.084717,0.844727,0.30225100000000005,-0.01709,-0.980484,-0.0009960000000000001,-0.011679,-0.034383,,,,,,,,,,,,,,,,,,,,,,,,,,,,,,,,,,,,,,,,,,,,,,,,,,,,,,,,,,,,,,,,,
19152,1648953242.838275,1648953242.8823302,109.0,0.0,4157.94873,4206.666504,4412.820313,4155.384765999999,4020.0,450.0,3.0,73.0,,,,0.0,0.0,0.0,0.0,0.0,0.0,0.0,,,,,,,,,,,,,,,,,,,,,,,,,,,,,,,,,,,,,,,,,,,,,,,,,,,,,,0.0,0.0,32.0,0.10486600000000001,1.0,0.0,,,,,,,,,,,,,,,,,,,,,,,,,
19153,1648953242.8460891,1648953242.890045,110.0,0.0,4266.666504,4423.589844,4134.358886999999,4085.641113,4139.487305,450.0,3.0,73.0,,,,0.0,0.0,0.0,0.0,0.0,0.0,0.0,,,,,,,,55.0,0.0,0.514447,-0.12085,0.084717,0.844727,0.28320700000000004,-0.022461000000000002,-0.9712059999999999,-0.003973,-0.011634,-0.036999000000000004,,,,,,,,,,,,,,,,,,,,,,,,,,,,,,,,,,,,,,,,,,,,,,,,,,,,,,,,,,,,,,,,,
19154,1648953242.853904,1648953242.89786,111.0,0.0,4332.307617,4620.0,4127.692383,4269.743652,4233.333496,0.0,3.0,73.0,,,,0.0,0.0,0.0,0.0,0.0,0.0,0.0,,,,,,,,,,,,,,,,,,,,,,,,,,,,,,,,,,,,,,,,,,,,,,,,,,,,,,,,,,,,,,,,,,,,,,,,,,,,,,,,,,,,
19155,1648953242.861719,1648953242.905575,112.0,0.0,4418.461426,4585.128418,4254.871582,4606.153809,4431.794922,450.0,3.0,73.0,,,,0.0,0.0,0.0,0.0,0.0,0.0,0.0,,,,,,,,56.0,0.0,0.514447,-0.12085,0.084717,0.844727,0.303227,-0.014159999999999999,-0.9897610000000001,-0.000499,-0.011594,-0.039403,,,,,,,,,,,,,,,,,,,,,,,,,,,,,,,,,,,,,,,,,,,,,,,,,,,,,,,,,,,,,,,,,
19156,1648953242.869533,1648953242.91339,113.0,0.0,4493.333496,4577.94873,4251.282227000001,4695.897461,4567.692383,450.0,3.0,73.0,,,,0.0,0.0,0.0,0.0,0.0,0.0,0.0,,,,,,,,,,,,,,,,,,,,1.0,0.0,0.0,,,,,,,,,,,,,,,,,,,,,,,,,,,,,,,,0.0,0.0,32.0,0.080084,1.0,0.0,53.828773,153.68692,329.528595,885.0361330000001,68.05947900000001,137.694901,147.03009,366.835052,74.376541,109.65490700000001,173.20871,409.069153,635.07251,96.080635,130.883682,49.27599,116.17781799999999,111.84558100000001,744.647949,85.622742,55.894245,204.137466,46.732971,971.173523,78.677048
19157,1648953242.877348,1648953242.9211051,114.0,0.0,4296.410156,4689.230957,4277.94873,4351.794922,4416.922852000001,450.0,3.0,73.0,,,,0.0,0.0,0.0,0.0,0.0,0.0,0.0,,,,,,,,57.0,0.0,0.514447,-0.12085,0.084717,0.844727,0.286625,-0.015625,-0.978042,-0.003379,-0.011558,-0.03517,,,,,,,,,,,,,,,,,,,,,,,,,,,,,,,,,,,,,,,,,,,,,,,,,,,,,,,,,,,,,,,,,
19158,1648953242.8851619,1648953242.92892,115.0,0.0,4161.538574,4767.692383,4474.358886999999,4120.0,4225.641113000001,0.0,3.0,73.0,,,,0.0,0.0,0.0,0.0,0.0,0.0,0.0,,,,,,,,,,,,,,,,,,,,,,,,,,,,,,,,,,,,,,,,,,,,,,,,,,,,,,,,,,,,,,,,,,,,,,,,,,,,,,,,,,,,
19159,1648953242.892977,1648953242.936635,116.0,0.0,4133.333496,4730.256348,4641.538574,4206.153809,4072.3076170000004,450.0,3.0,73.0,,,,0.0,0.0,0.0,0.0,0.0,0.0,0.0,,,,,,,,58.0,0.0,0.514447,-0.12085,0.084717,0.844727,0.298833,-0.010254000000000001,-0.9873200000000001,3.5e-05,-0.011525,-0.037707,,,,,,,,,,,,,,,,,,,,,,,,,,,,,,,,,,,,,,,,,,,,,,,,,,,,,,,,,,,,,,,,,
19160,1648953242.900791,1648953242.944449,117.0,0.0,4091.281982,4569.743652,4635.384765999999,4361.538574,4167.179688,450.0,3.0,73.0,,,,0.0,0.0,0.0,0.0,0.0,0.0,0.0,,,,,,,,,,,,,,,,,,,,,,,,,,,,,,,,,,,,,,,,,,,,,,,,,,,,,,0.0,0.0,32.0,0.080084,1.0,0.0,,,,,,,,,,,,,,,,,,,,,,,,,
19161,1648953242.908606,1648953242.952364,118.0,0.0,4214.871582,4457.94873,4514.358886999999,4397.436035,4552.820313,450.0,3.0,73.0,,,,0.0,0.0,0.0,0.0,0.0,0.0,0.0,,,,,,,,59.0,0.0,0.514447,-0.12085,0.084717,0.844727,0.299321,-0.02002,-0.9741360000000001,0.000129,-0.011447,-0.033644,,,,,,,,,,,,,,,,,,,,,,,,,,,,,,,,,,,,,,,,,,,,,,,,,,,,,,,,,,,,,,,,,
19162,1648953242.91642,1648953242.960279,119.0,0.0,4459.487305,4523.589844,4435.384765999999,4432.307617,4778.974121,0.0,3.0,73.0,,,,0.0,0.0,0.0,0.0,0.0,0.0,0.0,,,,,,,,,,,,,,,,,,,,,,,,,,,,,,,,,,,,,,,,,,,,,,,,,,,,,,,,,,,,,,,,,,,,,,,,,,,,,,,,,,,,
19163,1648953242.9242349,1648953242.9680939,120.0,0.0,4570.256348,4525.641113000001,4532.820313,4381.538574,4482.563965,450.0,3.0,73.0,,,,0.0,0.0,0.0,0.0,0.0,0.0,0.0,,,,,,,,60.0,0.0,0.514447,-0.12085,0.084717,0.844727,0.302739,-0.016602000000000002,-0.9785309999999999,0.000165,-0.011425,-0.036285000000000005,,,,,,,,,,,,,,,,,,,,,,,,,,,,,,,,,,,,,,,,,,,,,,,,,,,,,,,,,,,,,,,,,
