,Timestamp,OriginalTimestamp,EEG.Counter,EEG.Interpolated,EEG.AF3,EEG.T7,EEG.Pz,EEG.T8,EEG.AF4,EEG.RawCq,EEG.Battery,EEG.BatteryPercent,MarkerIndex,MarkerType,MarkerValueInt,EEG.MarkerHardware,CQ.AF3,CQ.T7,CQ.Pz,CQ.T8,CQ.AF4,CQ.Overall,EQ.SampleRateQuality,EQ.OVERALL,EQ.AF3,EQ.T7,EQ.Pz,EQ.T8,EQ.AF4,MOT.CounterMems,MOT.InterpolatedMems,MOT.Q0,MOT.Q1,MOT.Q2,MOT.Q3,MOT.AccX,MOT.AccY,MOT.AccZ,MOT.MagX,MOT.MagY,MOT.MagZ,MC.Action,MC.ActionPower,MC.IsActive,PM.Engagement.IsActive,PM.Engagement.Scaled,PM.Engagement.Raw,PM.Engagement.Min,PM.Engagement.Max,PM.Excitement.IsActive,PM.Excitement.Scaled,PM.Excitement.Raw,PM.Excitement.Min,PM.Excitement.Max,PM.LongTermExcitement,PM.Stress.IsActive,PM.Stress.Scaled,PM.Stress.Raw,PM.Stress.Min,PM.Stress.Max,PM.Relaxation.IsActive,PM.Relaxation.Scaled,PM.Relaxation.Raw,PM.Relaxation.Min,PM.Relaxation.Max,PM.Interest.IsActive,PM.Interest.Scaled,PM.Interest.Raw,PM.Interest.Min,PM.Interest.Max,PM.Focus.IsActive,PM.Focus.Scaled,PM.Focus.Raw,PM.Focus.Min,PM.Focus.Max,FE.BlinkWink,FE.HorizontalEyesDirection,FE.UpperFaceAction,FE.UpperFaceActionPower,FE.LowerFaceAction,FE.LowerFaceActionPower,POW.AF3.Theta,POW.AF3.Alpha,POW.AF3.BetaL,POW.AF3.BetaH,POW.AF3.Gamma,POW.T7.Theta,POW.T7.Alpha,POW.T7.BetaL,POW.T7.BetaH,POW.T7.Gamma,POW.Pz.Theta,POW.Pz.Alpha,POW.Pz.BetaL,POW.Pz.BetaH,POW.Pz.Gamma,POW.T8.Theta,POW.T8.Alpha,POW.T8.BetaL,POW.T8.BetaH,POW.T8.Gamma,POW.AF4.Theta,POW.AF4.Alpha,POW.AF4.BetaL,POW.AF4.BetaH,POW.AF4.Gamma
28409,1648952826.565569,1648952826.5789518,88.0,0.0,5117.94873,4682.563965,4277.436035,5109.230957,5238.974121,450.0,3.0,73.0,,,,0.0,1.0,1.0,0.0,0.0,2.0,8.333333,,,,,,,,44.0,0.0,0.857124,-0.066162,0.127686,0.494629,0.28320700000000004,-0.012695999999999999,-0.965347,0.005185,-0.026233,-0.028845999999999997,,,,,,,,,,,,,,,,,,,,,,,,,,,,,,,,,,,,,,,,,,,,,,,,,,,,,,,,,,,,,,,,,
28410,1648952826.573384,1648952826.586767,89.0,0.0,3093.333252,4514.871582,4078.461426,3485.1281740000004,3723.5898439999996,450.0,3.0,73.0,,,,0.0,1.0,1.0,0.0,0.0,2.0,8.333333,,,,,,,,,,,,,,,,,,,,,,,,,,,,,,,,,,,,,,,,,,,,,,,,,,,,,,0.0,0.0,32.0,0.051891999999999994,1.0,0.0,,,,,,,,,,,,,,,,,,,,,,,,,
28411,1648952826.581198,1648952826.594481,90.0,0.0,2946.666748,4288.717772999999,3681.538574,2705.6411129999997,2830.769287,450.0,3.0,73.0,,,,0.0,1.0,1.0,0.0,0.0,2.0,8.333333,,,,,,,,45.0,0.0,0.85716,-0.066162,0.127441,0.494629,0.293462,-0.013184,-0.984878,0.006034,-0.0261,-0.032309,,,,,,,,,,,,,,,,,,,,,,,,,,,,,,,,,,,,,,,,,,,,,,,,,,,,,,,,,,,,,,,,,
28412,1648952826.589013,1648952826.602296,91.0,0.0,4469.743652,4285.128418,3961.538574,4210.256348,3966.6667479999996,159.0,3.0,73.0,,,,0.0,1.0,1.0,0.0,0.0,2.0,8.333333,,,,,,,,,,,,,,,,,,,,,,,,,,,,,,,,,,,,,,,,,,,,,,,,,,,,,,,,,,,,,,,,,,,,,,,,,,,,,,,,,,,,
28413,1648952826.596827,1648952826.6100109,92.0,0.0,4644.615234000001,4312.820313,4359.487305,4936.922852000001,4713.846191,450.0,3.0,73.0,,,,0.0,1.0,1.0,0.0,0.0,2.0,8.333333,,,,,,,,46.0,0.0,0.857087,-0.066162,0.12793,0.494629,0.286137,-0.006836,-0.997574,0.006846,-0.026029000000000004,-0.035523,,,,,,,,,,,,,,,,,,,,,,,,,,,,,,,,,,,,,,,,,,,,,,,,,,,,,,,,,,,,,,,,,
28414,1648952826.604642,1648952826.617825,93.0,0.0,3624.615479,4281.025879,4311.794922,3751.794922,3760.0,450.0,3.0,73.0,,,,0.0,1.0,1.0,0.0,0.0,2.0,8.333333,,,,,,,,,,,,,,,,,,,,,,,,,,,,,,,,,,,,,,,,,,,,,,,,,,,,,,0.0,0.0,32.0,0.051891999999999994,1.0,0.0,,,,,,,,,,,,,,,,,,,,,,,,,
28415,1648952826.612457,1648952826.62554,94.0,0.0,4220.0,4217.436035,4151.794922,3897.9487299999996,3905.1281740000004,450.0,3.0,73.0,,,,0.0,1.0,1.0,0.0,0.0,2.0,8.333333,,,,,,,,47.0,0.0,0.856959,-0.06640599999999999,0.128662,0.494629,0.295903,-0.055177,-0.9673,0.004404,-0.026161,-0.025916,,,,,,,,,,,,,,,,,,,,,,,,,,,,,,,,,,,,,,,,,,,,,,,,,,,,,,,,,,,,,,,,,
28416,1648952826.6202712,1648952826.6333551,95.0,0.0,4651.282227000001,4276.922852000001,4193.846191,4453.846191,4385.641113000001,159.0,3.0,73.0,,,,0.0,1.0,1.0,0.0,0.0,2.0,8.333333,,,,,,,,,,,,,,,,,,,,,,,,,,,,,,,,,,,,,,,,,,,,,,,,,,,,,,,,,,,,,,,,,,,,,,,,,,,,,,,,,,,,
28417,1648952826.6280859,1648952826.641069,96.0,0.0,4067.6923829999996,4380.512695,4031.281982,3999.487061,3976.923096,450.0,3.0,73.0,,,,0.0,1.0,1.0,0.0,0.0,2.0,8.333333,,,,,,,,48.0,0.0,0.8569959999999999,-0.06640599999999999,0.128418,0.494629,0.30811,-0.002441,-0.969741,0.0038659999999999996,-0.026133,-0.020151,,,,,,,,,,,,,,,,,,,,,,,,,,,,,,,,,,,,,,,,,,,,,,,,,,,,,,,,,,,,,,,,,
28418,1648952826.6359,1648952826.648884,97.0,0.0,4727.692383,4207.179688,4412.307617,4828.205078,4871.282227000001,450.0,3.0,73.0,,,,0.0,1.0,1.0,0.0,0.0,2.0,8.333333,,,,,,,,,,,,,,,,,,,,1.0,0.0,0.0,,,,,,,,,,,,,,,,,,,,,,,,,,,,,,,,0.0,0.0,32.0,0.058551,1.0,0.0,812.898987,711.009521,4988.977539,2019.229248,3791.881592,2216.270752,1950.661377,281.763153,391.77194199999997,145.273743,332.885132,268.674988,311.49377400000003,249.80436699999998,291.100342,791.492371,1308.0209960000002,3694.6762700000004,1521.785889,3843.140625,918.1747439999999,748.8876339999999,4199.779785,1707.440918,3706.366455
28419,1648952826.6437151,1648952826.656599,98.0,0.0,4099.487305,4333.846191,4553.846191,4131.794922,4299.487305,450.0,3.0,73.0,,,,0.0,1.0,1.0,0.0,0.0,2.0,8.333333,,,,,,,,49.0,0.0,0.857087,-0.066162,0.12793,0.494629,0.30225100000000005,-0.006836,-0.964858,0.003382,-0.026156,-0.024435,,,,,,,,,,,,,,,,,,,,,,,,,,,,,,,,,,,,,,,,,,,,,,,,,,,,,,,,,,,,,,,,,
28420,1648952826.6515288,1648952826.6644142,99.0,0.0,3942.0512700000004,4315.897461,3788.718018,3654.358887,3835.384521,159.0,3.0,73.0,,,,0.0,1.0,1.0,0.0,0.0,2.0,8.333333,,,,,,,,,,,,,,,,,,,,,,,,,,,,,,,,,,,,,,,,,,,,,,,,,,,,,,,,,,,,,,,,,,,,,,,,,,,,,,,,,,,,
28421,1648952826.659344,1648952826.6722279,100.0,0.0,5723.589844,3953.3332520000004,3914.358887,5418.974121,5574.358886999999,450.0,3.0,73.0,,,,0.0,1.0,1.0,0.0,0.0,2.0,8.333333,,,,,,,,50.0,0.0,0.857124,-0.066162,0.127686,0.494629,0.297856,-0.011231,-0.987808,0.006071,-0.026226,-0.028485000000000003,,,,,,,,,,,,,,,,,,,,,,,,,,,,,,,,,,,,,,,,,,,,,,,,,,,,,,,,,,,,,,,,,
28422,1648952826.6671581,1648952826.679943,101.0,0.0,5554.871582,3760.0,4512.307617,5257.436035,5530.769043,450.0,3.0,73.0,,,,0.0,1.0,1.0,0.0,0.0,2.0,8.333333,,,,,,,,,,,,,,,,,,,,,,,,,,,,,,,,,,,,,,,,,,,,,,,,,,,,,,0.0,0.0,32.0,0.058551,1.0,0.0,,,,,,,,,,,,,,,,,,,,,,,,,
28423,1648952826.674973,1648952826.687657,102.0,0.0,4183.589844,3951.794922,4167.179688,4025.641113,4321.538574,450.0,3.0,73.0,,,,0.0,1.0,1.0,0.0,0.0,2.0,8.333333,,,,,,,,51.0,0.0,0.8569959999999999,-0.06640599999999999,0.128418,0.494629,0.30811,-0.002441,-0.969741,0.003901,-0.026289,-0.034963,,,,,,,,,,,,,,,,,,,,,,,,,,,,,,,,,,,,,,,,,,,,,,,,,,,,,,,,,,,,,,,,,
28424,1648952826.6827881,1648952826.695472,103.0,0.0,3927.179443,4269.230957,3781.538574,4042.0512700000004,4195.897461,159.0,3.0,73.0,,,,0.0,1.0,1.0,0.0,0.0,2.0,8.333333,,,,,,,,,,,,,,,,,,,,,,,,,,,,,,,,,,,,,,,,,,,,,,,,,,,,,,,,,,,,,,,,,,,,,,,,,,,,,,,,,,,,
28425,1648952826.690602,1648952826.703187,104.0,0.0,4632.820313,4194.871582,4153.333496,4939.487305,5041.025879,450.0,3.0,73.0,,,,0.0,1.0,1.0,0.0,0.0,2.0,8.333333,,,,,,,,52.0,0.0,0.857124,-0.066162,0.127686,0.494629,0.297856,-0.011231,-0.987808,0.006539,-0.026345999999999998,-0.037961,,,,,,,,,,,,,,,,,,,,,,,,,,,,,,,,,,,,,,,,,,,,,,,,,,,,,,,,,,,,,,,,,
28426,1648952826.698417,1648952826.711001,105.0,0.0,3838.461426,4408.717772999999,4112.307617,4102.05127,4287.179688,450.0,3.0,73.0,,,,0.0,1.0,1.0,0.0,0.0,2.0,8.333333,,,,,,,,,,,,,,,,,,,,,,,,,,,,,,,,,,,,,,,,,,,,,,,,,,,,,,0.0,0.0,32.0,0.058551,1.0,0.0,,,,,,,,,,,,,,,,,,,,,,,,,
28427,1648952826.706231,1648952826.718716,106.0,0.0,4261.538574,4725.641113000001,3811.794922,4184.102539,4211.794922,450.0,3.0,73.0,,,,0.0,1.0,1.0,0.0,0.0,2.0,8.333333,,,,,,,,53.0,0.0,0.857051,-0.066162,0.128174,0.494629,0.292485,-0.009766,-1.002945,0.0041270000000000005,-0.026299,-0.030991,,,,,,,,,,,,,,,,,,,,,,,,,,,,,,,,,,,,,,,,,,,,,,,,,,,,,,,,,,,,,,,,,
28428,1648952826.714046,1648952826.7264311,107.0,0.0,4722.563965,4895.897461,4054.358887,4425.128418,4410.256348,159.0,3.0,73.0,,,,0.0,1.0,1.0,0.0,0.0,2.0,8.333333,,,,,,,,,,,,,,,,,,,,,,,,,,,,,,,,,,,,,,,,,,,,,,,,,,,,,,,,,,,,,,,,,,,,,,,,,,,,,,,,,,,,
28429,1648952826.72186,1648952826.734246,108.0,0.0,4482.05127,4842.563965,4096.922852000001,4182.563965,4462.563965,450.0,3.0,73.0,,,,0.0,1.0,1.0,0.0,0.0,2.0,8.333333,,,,,,,,54.0,0.0,0.856959,-0.06640599999999999,0.128662,0.494629,0.292973,-0.003906,-0.9907379999999999,0.0050810000000000004,-0.026306,-0.034386,,,,,,,,,,,,,,,,,,,,,,,,,,,,,,,,,,,,,,,,,,,,,,,,,,,,,,,,,,,,,,,,,
28430,1648952826.729675,1648952826.74206,109.0,0.0,4648.205078,4794.358886999999,3971.281982,4528.717772999999,4790.256348,450.0,3.0,73.0,,,,0.0,1.0,1.0,0.0,0.0,2.0,8.333333,,,,,,,,,,,,,,,,,,,,,,,,,,,,,,,,,,,,,,,,,,,,,,,,,,,,,,0.0,0.0,32.0,0.058551,1.0,0.0,,,,,,,,,,,,,,,,,,,,,,,,,
28431,1648952826.737489,1648952826.749775,110.0,0.0,4094.8718259999996,4890.256348,4111.794922,3883.5898439999996,3933.8461909999996,450.0,3.0,73.0,,,,0.0,1.0,1.0,0.0,0.0,2.0,8.333333,,,,,,,,55.0,0.0,0.857051,-0.066162,0.128174,0.494629,0.293462,-0.009766,-0.959976,0.0028640000000000002,-0.026361000000000002,-0.027725,,,,,,,,,,,,,,,,,,,,,,,,,,,,,,,,,,,,,,,,,,,,,,,,,,,,,,,,,,,,,,,,,
28432,1648952826.7453039,1648952826.7574902,111.0,0.0,4942.563965,4913.846191,4236.922852000001,4567.692383,4762.05127,159.0,3.0,73.0,,,,0.0,1.0,1.0,0.0,0.0,2.0,8.333333,,,,,,,,,,,,,,,,,,,,,,,,,,,,,,,,,,,,,,,,,,,,,,,,,,,,,,,,,,,,,,,,,,,,,,,,,,,,,,,,,,,,
28433,1648952826.753118,1648952826.7653039,112.0,0.0,5087.179688,4876.410156,4095.384521,4833.333496,5277.94873,450.0,3.0,73.0,,,,0.0,1.0,1.0,0.0,0.0,2.0,8.333333,,,,,,,,56.0,0.0,0.8571790000000001,-0.06591799999999999,0.127441,0.494629,0.31104,-0.021485,-0.969741,0.004091,-0.026362,-0.031202999999999998,,,,,,,,,,,,,,,,,,,,,,,,,,,,,,,,,,,,,,,,,,,,,,,,,,,,,,,,,,,,,,,,,
28434,1648952826.760933,1648952826.773119,113.0,0.0,3336.410156,4597.436035,3827.179443,3334.3588870000003,3525.1281740000004,450.0,3.0,73.0,,,,0.0,1.0,1.0,0.0,0.0,2.0,8.333333,,,,,,,,,,,,,,,,,,,,1.0,0.0,0.0,,,,,,,,,,,,,,,,,,,,,,,,,,,,,,,,0.0,0.0,32.0,0.061220000000000004,1.0,0.0,1161.855957,824.0957639999999,5666.290039,2100.1564940000003,4325.580566,2475.746338,2774.100098,366.64950600000003,520.211731,197.02533,317.019928,352.30011,394.105072,255.24955699999998,321.926331,981.1886599999999,1353.023193,4265.308105,1687.5874019999999,4412.01416,1220.9608150000001,851.261841,4745.037109000001,1792.22937,4208.035156
28435,1648952826.768748,1648952826.780834,114.0,0.0,3452.820557,4305.128418,4162.563965,3569.2307130000004,3591.794922,450.0,3.0,73.0,,,,0.0,1.0,1.0,0.0,0.0,2.0,8.333333,,,,,,,,57.0,0.0,0.857251,-0.06591799999999999,0.126953,0.494629,0.29688000000000003,-0.009766,-0.9785309999999999,0.002071,-0.026411,-0.024908,,,,,,,,,,,,,,,,,,,,,,,,,,,,,,,,,,,,,,,,,,,,,,,,,,,,,,,,,,,,,,,,,
28436,1648952826.776562,1648952826.788548,115.0,0.0,4732.820313,4243.589844,4309.230957,4592.307617,4754.871582,159.0,3.0,73.0,,,,0.0,1.0,1.0,0.0,0.0,2.0,8.333333,,,,,,,,,,,,,,,,,,,,,,,,,,,,,,,,,,,,,,,,,,,,,,,,,,,,,,,,,,,,,,,,,,,,,,,,,,,,,,,,,,,,
28437,1648952826.7843769,1648952826.796363,116.0,0.0,4415.897461,4247.692383,4118.461426,4387.692383,4364.102539,450.0,3.0,73.0,,,,0.0,1.0,1.0,0.0,0.0,2.0,8.333333,,,,,,,,58.0,0.0,0.857124,-0.066162,0.127686,0.494629,0.284672,-0.006836,-1.0053860000000001,0.00328,-0.026309,-0.016314,,,,,,,,,,,,,,,,,,,,,,,,,,,,,,,,,,,,,,,,,,,,,,,,,,,,,,,,,,,,,,,,,
28438,1648952826.792191,1648952826.8040779,117.0,0.0,3409.2307130000004,4393.333496,3994.358887,3495.384521,3414.358887,450.0,3.0,73.0,,,,0.0,1.0,1.0,0.0,0.0,2.0,8.333333,,,,,,,,,,,,,,,,,,,,,,,,,,,,,,,,,,,,,,,,,,,,,,,,,,,,,,0.0,0.0,32.0,0.061220000000000004,1.0,0.0,,,,,,,,,,,,,,,,,,,,,,,,,
28439,1648952826.8000062,1648952826.811892,118.0,0.0,4636.922852000001,4199.487305,4081.025635,4457.436035,4651.282227000001,450.0,3.0,73.0,,,,0.0,1.0,1.0,0.0,0.0,2.0,8.333333,,,,,,,,59.0,0.0,0.857044,-0.06665,0.128906,0.494385,0.275883,-0.011719,-1.002945,0.004514,-0.026266,-0.021128,,,,,,,,,,,,,,,,,,,,,,,,,,,,,,,,,,,,,,,,,,,,,,,,,,,,,,,,,,,,,,,,,
28440,1648952826.8078198,1648952826.819707,119.0,0.0,4414.871582,4082.5642090000006,4173.846191,4238.974121,4445.641113000001,159.0,3.0,73.0,,,,0.0,1.0,1.0,0.0,0.0,2.0,8.333333,,,,,,,,,,,,,,,,,,,,,,,,,,,,,,,,,,,,,,,,,,,,,,,,,,,,,,,,,,,,,,,,,,,,,,,,,,,,,,,,,,,,
28441,1648952826.815635,1648952826.8274212,120.0,0.0,3561.538574,4166.666504,4175.384765999999,3640.0,3490.7692869999996,450.0,3.0,73.0,,,,0.0,1.0,1.0,0.0,0.0,2.0,8.333333,,,,,,,,60.0,0.0,0.857007,-0.06665,0.12915,0.494385,0.298344,-0.039063,-0.9350729999999999,0.00543,-0.026325,-0.025461,,,,,,,,,,,,,,,,,,,,,,,,,,,,,,,,,,,,,,,,,,,,,,,,,,,,,,,,,,,,,,,,,
28442,1648952826.8234491,1648952826.835136,121.0,0.0,5337.436035,4014.8718259999996,4240.512695,5497.436035,5298.461426,450.0,3.0,73.0,,,,0.0,1.0,1.0,0.0,0.0,2.0,8.333333,,,,,,,,,,,,,,,,,,,,,,,,,,,,,,,,,,,,,,,,,,,,,,,,,,,,,,0.0,0.0,32.0,0.061220000000000004,1.0,0.0,,,,,,,,,,,,,,,,,,,,,,,,,
28443,1648952826.831264,1648952826.842951,122.0,0.0,6004.102539,3807.179443,4247.179688,5934.358886999999,6137.436035,450.0,3.0,73.0,,,,0.0,1.0,1.0,0.0,0.0,2.0,8.333333,,,,,,,,61.0,0.0,0.8572280000000001,-0.066162,0.12793,0.494385,0.310552,-0.008789,-0.9712059999999999,0.003129,-0.026329,-0.019740999999999998,,,,,,,,,,,,,,,,,,,,,,,,,,,,,,,,,,,,,,,,,,,,,,,,,,,,,,,,,,,,,,,,,
28444,1648952826.839079,1648952826.850666,123.0,0.0,4690.256348,3801.538574,4241.025879,4506.153809,4862.05127,159.0,3.0,73.0,,,,0.0,1.0,1.0,0.0,0.0,2.0,8.333333,,,,,,,,,,,,,,,,,,,,,,,,,,,,,,,,,,,,,,,,,,,,,,,,,,,,,,,,,,,,,,,,,,,,,,,,,,,,,,,,,,,,
28445,1648952826.846893,1648952826.85848,124.0,0.0,3813.8461909999996,4120.512695,4140.0,3704.102539,3795.384521,450.0,3.0,73.0,,,,0.0,1.0,1.0,0.0,0.0,2.0,8.333333,,,,,,,,62.0,0.0,0.8573559999999999,-0.06591799999999999,0.127197,0.494385,0.29395,-0.021973,-0.965347,0.004232,-0.026333,-0.024212,,,,,,,,,,,,,,,,,,,,,,,,,,,,,,,,,,,,,,,,,,,,,,,,,,,,,,,,,,,,,,,,,
28446,1648952826.854708,1648952826.866195,125.0,0.0,4730.256348,4412.820313,4097.94873,4685.128418,4563.589844,450.0,3.0,73.0,,,,0.0,1.0,1.0,0.0,0.0,2.0,8.333333,,,,,,,,,,,,,,,,,,,,,,,,,,,,,,,,,,,,,,,,,,,,,,,,,,,,,,0.0,0.0,32.0,0.061220000000000004,1.0,0.0,,,,,,,,,,,,,,,,,,,,,,,,,
28447,1648952826.8625221,1648952826.87391,126.0,0.0,4338.974121,4610.256348,4255.897461,4476.410156,4625.128418,450.0,3.0,73.0,,,,0.0,1.0,1.0,0.0,0.0,2.0,8.333333,,,,,,,,63.0,0.0,0.8572649999999999,-0.066162,0.127686,0.494385,0.286625,-0.011231,-0.999527,0.003614,-0.026288,-0.01847,,,,,,,,,,,,,,,,,,,,,,,,,,,,,,,,,,,,,,,,,,,,,,,,,,,,,,,,,,,,,,,,,
28448,1648952826.870337,1648952826.881724,127.0,0.0,3847.6923829999996,4809.230957,4169.743652,3867.6923829999996,4106.666504,238.0,3.0,73.0,,,,0.0,1.0,1.0,0.0,0.0,2.0,8.333333,,,,,,,,,,,,,,,,,,,,,,,,,,,,,,,,,,,,,,,,,,,,,,,,,,,,,,,,,,,,,,,,,,,,,,,,,,,,,,,,,,,,
28449,1648952826.878151,1648952826.889539,0.0,0.0,4895.897461,4943.077147999999,4113.333496,4827.179688,4969.743652,450.0,3.0,73.0,,,,0.0,1.0,1.0,0.0,0.0,2.0,8.333333,,,,,,,,0.0,0.0,0.8571190000000001,-0.066162,0.128662,0.494385,0.286625,0.001953,-0.991714,0.006231,-0.026295999999999996,-0.022922,,,,,,,,,,,,,,,,,,,,,,,,,,,,,,,,,,,,,,,,,,,,,,,,,,,,,,,,,,,,,,,,,
28450,1648952826.885966,1648952826.897254,1.0,0.0,4122.563965,4758.974121,4274.358886999999,4197.436035,4447.179688,450.0,3.0,73.0,,,,0.0,0.0,1.0,0.0,0.0,2.0,0.0,1.0,0.0,0.0,0.0,0.0,0.0,0.0,,,,,,,,,,,,,1.0,0.0,0.0,,,,,,,,,,,,,,,,,,,,,,,,,,,,,,,,0.0,0.0,32.0,0.060338,1.0,0.0,1770.015259,919.61499,5851.130371,2234.830811,4755.069824,2648.616211,3461.578125,436.11404400000004,624.9813839999999,250.00418100000002,290.086731,440.37957800000004,485.406708,272.710419,345.07223500000003,1328.970337,1344.6838380000002,4446.554688,1891.1619870000002,4905.84375,1695.840454,971.548889,4842.37793,1936.706787,4583.513184
28451,1648952826.89378,1648952826.905068,2.0,0.0,4134.871582,4701.025879,3947.6923829999996,4181.025879,4280.0,0.0,3.0,73.0,,,,0.0,0.0,1.0,0.0,0.0,2.0,0.0,,,,,,,,1.0,0.0,0.856978,-0.066162,0.128662,0.494629,0.298344,-0.0058590000000000005,-0.975601,0.006926000000000001,-0.026400999999999997,-0.027027,,,,,,,,,,,,,,,,,,,,,,,,,,,,,,,,,,,,,,,,,,,,,,,,,,,,,,,,,,,,,,,,,
28452,1648952826.9015949,1648952826.912783,3.0,0.0,5847.179688,5064.615234000001,3555.384521,5625.641113000001,5600.0,450.0,3.0,73.0,,,,0.0,0.0,0.0,0.0,0.0,2.0,0.0,,,,,,,,,,,,,,,,,,,,,,,,,,,,,,,,,,,,,,,,,,,,,,,,,,,,,,,,,,,,,,,,,,,,,,,,,,,,,,,,,,,,
28453,1648952826.909409,1648952826.920598,4.0,0.0,5210.769043,4909.743652,3689.2307130000004,4937.94873,5056.410156,0.0,3.0,73.0,,,,0.0,0.0,0.0,0.0,0.0,2.0,0.0,,,,,,,,2.0,0.0,0.857124,-0.066162,0.127686,0.494629,0.307622,-0.012206999999999999,-0.969741,0.007698999999999999,-0.026445999999999997,-0.030623,,,,,,,,,,,,,,,,,,,,,,,,,,,,,,,,,,,,,,,,,,,,,,,,,,,,,,,,,,,,,,,,,
28454,1648952826.917224,1648952826.928313,5.0,0.0,3519.487061,4136.410156,4138.974121,3644.615479,3658.461426,450.0,3.0,73.0,,,,0.0,0.0,0.0,4.0,0.0,2.0,0.0,,,,,,,,,,,,,,,,,,,,,,,,,,,,,,,,,,,,,,,,,,,,,,,,,,,,,,0.0,0.0,32.0,0.060338,1.0,0.0,,,,,,,,,,,,,,,,,,,,,,,,,
28455,1648952826.925039,1648952826.936127,6.0,0.0,3595.897461,4003.076904,4123.077147999999,3796.923096,3693.3332520000004,16255.0,3.0,73.0,,,,0.0,0.0,0.0,4.0,0.0,2.0,0.0,,,,,,,,3.0,0.0,0.857215,-0.06591799999999999,0.127197,0.494629,0.291997,-0.010742,-0.98439,0.010005,-0.026341000000000003,-0.034055,,,,,,,,,,,,,,,,,,,,,,,,,,,,,,,,,,,,,,,,,,,,,,,,,,,,,,,,,,,,,,,,,
28456,1648952826.932853,1648952826.943842,7.0,0.0,4646.153809,4120.0,4035.897461,4674.358886999999,4789.230957,450.0,3.0,73.0,,,,0.0,0.0,0.0,4.0,0.0,2.0,0.0,,,,,,,,,,,,,,,,,,,,,,,,,,,,,,,,,,,,,,,,,,,,,,,,,,,,,,,,,,,,,,,,,,,,,,,,,,,,,,,,,,,,
28457,1648952826.9406679,1648952826.951657,8.0,0.0,3996.923096,4032.820557,4048.718018,3775.384521,4045.1281740000004,450.0,3.0,73.0,,,,0.0,0.0,0.0,4.0,0.0,2.0,0.0,,,,,,,,4.0,0.0,0.857051,-0.066162,0.128174,0.494629,0.274907,-0.0058590000000000005,-1.009781,0.008956,-0.026343000000000002,-0.027475,,,,,,,,,,,,,,,,,,,,,,,,,,,,,,,,,,,,,,,,,,,,,,,,,,,,,,,,,,,,,,,,,
28458,1648952826.948482,1648952826.959371,9.0,0.0,4547.179688,4150.256348,4228.717772999999,4151.794922,4355.897461,0.0,3.0,73.0,,,,0.0,0.0,0.0,4.0,0.0,2.0,0.0,,,,,,,,,,,,,,,,,,,,,,,,,,,,,,,,,,,,,,,,,,,,,,,,,,,,,,0.0,0.0,32.0,0.060338,1.0,0.0,,,,,,,,,,,,,,,,,,,,,,,,,
28459,1648952826.9562972,1648952826.9670858,10.0,0.0,4575.897461,4576.922852000001,4640.0,4495.384765999999,4651.794922,450.0,3.0,73.0,,,,0.0,0.0,0.0,4.0,0.0,0.0,0.0,,,,,,,,5.0,0.0,0.856885,-0.06640599999999999,0.12915,0.494629,0.27393,-0.008789,-0.98146,0.009476,-0.026297000000000004,-0.031173000000000003,,,,,,,,,,,,,,,,,,,,,,,,,,,,,,,,,,,,,,,,,,,,,,,,,,,,,,,,,,,,,,,,,
28460,1648952826.9641109,1648952826.974901,11.0,0.0,3764.615479,4494.871582,4331.794922,3824.615479,3799.487061,0.0,3.0,73.0,,,,0.0,0.0,0.0,4.0,0.0,0.0,0.0,,,,,,,,,,,,,,,,,,,,,,,,,,,,,,,,,,,,,,,,,,,,,,,,,,,,,,,,,,,,,,,,,,,,,,,,,,,,,,,,,,,,
28461,1648952826.971926,1648952826.982615,12.0,0.0,4683.077147999999,3921.538574,4104.615234000001,4594.358886999999,4537.94873,450.0,3.0,73.0,,,,0.0,0.0,0.0,4.0,0.0,0.0,0.0,,,,,,,,6.0,0.0,0.856922,-0.06640599999999999,0.128906,0.494629,0.291508,-0.019043,-0.964858,0.009895999999999999,-0.026206,-0.022001,,,,,,,,,,,,,,,,,,,,,,,,,,,,,,,,,,,,,,,,,,,,,,,,,,,,,,,,,,,,,,,,,
28462,1648952826.979741,1648952826.99043,13.0,0.0,3891.281982,4303.589844,4702.05127,3797.9487299999996,3895.897461,450.0,3.0,73.0,,,,0.0,0.0,0.0,4.0,0.0,0.0,0.0,,,,,,,,,,,,,,,,,,,,,,,,,,,,,,,,,,,,,,,,,,,,,,,,,,,,,,0.0,0.0,32.0,0.060338,1.0,0.0,,,,,,,,,,,,,,,,,,,,,,,,,
28463,1648952826.987555,1648952826.9981449,14.0,0.0,2734.871826,4849.230957,4797.94873,2648.205078,2972.820557,450.0,3.0,73.0,,,,0.0,0.0,0.0,4.0,0.0,0.0,0.0,,,,,,,,7.0,0.0,0.857087,-0.066162,0.12793,0.494629,0.31250500000000003,-0.011231,-0.952651,0.008808,-0.026174,-0.016481,,,,,,,,,,,,,,,,,,,,,,,,,,,,,,,,,,,,,,,,,,,,,,,,,,,,,,,,,,,,,,,,,
28464,1648952826.99537,1648952827.006059,15.0,0.0,3970.7692869999996,4399.487305,4266.666504,3722.5642090000006,4092.3076170000004,0.0,3.0,73.0,,,,0.0,0.0,0.0,4.0,0.0,0.0,0.0,,,,,,,,,,,,,,,,,,,,,,,,,,,,,,,,,,,,,,,,,,,,,,,,,,,,,,,,,,,,,,,,,,,,,,,,,,,,,,,,,,,,
28465,1648952827.003184,1648952827.013874,16.0,0.0,5207.692383,3823.076904,4175.897461,5059.487305,5091.794922,0.0,3.0,73.0,,,,0.0,0.0,0.0,4.0,0.0,0.0,0.0,,,,,,,,8.0,0.0,0.856885,-0.06640599999999999,0.12915,0.494629,0.27393,-0.008789,-0.98146,0.006219,-0.026095,-0.008827,,,,,,,,,,,,,,,,,,,,,,,,,,,,,,,,,,,,,,,,,,,,,,,,,,,,,,,,,,,,,,,,,
28466,1648952827.010999,1648952827.021789,17.0,0.0,4178.974121,3916.923096,4433.333496,4526.153809,4492.307617,0.0,3.0,73.0,,,,0.0,0.0,0.0,4.0,0.0,0.0,0.0,,,,,,,,,,,,,,,,,,,,1.0,0.0,0.0,,,,,,,,,,,,,,,,,,,,,,,,,,,,,,,,0.0,0.0,32.0,0.057687,1.0,0.0,2580.220459,965.160522,5464.318359000001,2397.197998,5002.57959,2794.3857420000004,3842.604004,478.403595,675.3163450000001,290.22937,264.171204,512.848999,577.7384030000001,290.44928,361.359283,1800.999512,1256.14563,4174.078613000001,2088.027832,5229.333984000001,2295.749023,1065.0522460000002,4420.446777,2095.658203,4762.67334
28467,1648952827.0188131,1648952827.029604,18.0,0.0,3797.9487299999996,4035.897461,4245.641113000001,3851.794922,4148.205078,0.0,3.0,73.0,,,,0.0,0.0,0.0,4.0,0.0,0.0,0.0,,,,,,,,9.0,0.0,0.8571790000000001,-0.06591799999999999,0.127441,0.494629,0.286625,-0.003906,-0.983902,0.007109999999999999,-0.026074,-0.001743,,,,,,,,,,,,,,,,,,,,,,,,,,,,,,,,,,,,,,,,,,,,,,,,,,,,,,,,,,,,,,,,,
28468,1648952827.026628,1648952827.037519,19.0,0.0,5061.025879,3818.974365,4166.666504,4829.743652,5096.922852000001,0.0,3.0,73.0,,,,0.0,0.0,0.0,4.0,0.0,0.0,0.0,,,,,,,,,,,,,,,,,,,,,,,,,,,,,,,,,,,,,,,,,,,,,,,,,,,,,,,,,,,,,,,,,,,,,,,,,,,,,,,,,,,,
28469,1648952827.034442,1648952827.045334,20.0,0.0,4121.538574,3781.025635,4289.743652,4243.077147999999,4378.461426,0.0,3.0,73.0,,,,0.0,0.0,0.0,4.0,0.0,0.0,0.0,,,,,,,,10.0,0.0,0.857143,-0.06591799999999999,0.127686,0.494629,0.277348,-0.000488,-1.014176,0.007815,-0.026102999999999998,-0.007965,,,,,,,,,,,,,,,,,,,,,,,,,,,,,,,,,,,,,,,,,,,,,,,,,,,,,,,,,,,,,,,,,
28470,1648952827.042257,1648952827.0530481,21.0,0.0,4276.922852000001,3979.487061,3985.641113,4307.692383,4568.205078,0.0,3.0,73.0,,,,0.0,0.0,0.0,4.0,0.0,0.0,0.0,,,,,,,,,,,,,,,,,,,,,,,,,,,,,,,,,,,,,,,,,,,,,,,,,,,,,,0.0,0.0,32.0,0.057687,1.0,0.0,,,,,,,,,,,,,,,,,,,,,,,,,
28471,1648952827.050071,1648952827.060863,22.0,0.0,4972.820313,4031.794922,4148.205078,4747.692383,5117.94873,0.0,3.0,73.0,,,,0.0,0.0,0.0,4.0,0.0,0.0,0.0,,,,,,,,11.0,0.0,0.857051,-0.066162,0.128174,0.494629,0.285161,-0.0043950000000000005,-0.985367,0.006936,-0.026081,-0.003848,,,,,,,,,,,,,,,,,,,,,,,,,,,,,,,,,,,,,,,,,,,,,,,,,,,,,,,,,,,,,,,,,
28472,1648952827.057886,1648952827.068578,23.0,0.0,3166.666748,3864.102539,4816.922852000001,3102.564209,3447.179443,0.0,3.0,73.0,,,,0.0,0.0,0.0,4.0,0.0,0.0,0.0,,,,,,,,,,,,,,,,,,,,,,,,,,,,,,,,,,,,,,,,,,,,,,,,,,,,,,,,,,,,,,,,,,,,,,,,,,,,,,,,,,,,
28473,1648952827.0657,1648952827.076392,24.0,0.0,2887.179443,3829.743652,4782.05127,2930.769287,3081.5385739999997,0.0,3.0,73.0,,,,0.0,0.0,0.0,4.0,0.0,0.0,0.0,,,,,,,,12.0,0.0,0.8570139999999999,-0.066162,0.128418,0.494629,0.295903,-0.015625,-0.977554,0.009124,-0.026012,-0.009859999999999999,,,,,,,,,,,,,,,,,,,,,,,,,,,,,,,,,,,,,,,,,,,,,,,,,,,,,,,,,,,,,,,,,
28474,1648952827.073515,1648952827.084107,25.0,0.0,4408.717772999999,4071.794922,4032.820557,4254.358886999999,4254.358886999999,0.0,3.0,73.0,,,,0.0,0.0,0.0,4.0,0.0,0.0,0.0,,,,,,,,,,,,,,,,,,,,,,,,,,,,,,,,,,,,,,,,,,,,,,,,,,,,,,0.0,0.0,32.0,0.057687,1.0,0.0,,,,,,,,,,,,,,,,,,,,,,,,,
28475,1648952827.08133,1648952827.091922,26.0,0.0,4953.846191,4256.410156,4118.974121,4795.897461,5084.102539,0.0,3.0,73.0,,,,0.0,0.0,0.0,4.0,0.0,0.0,0.0,,,,,,,,13.0,0.0,0.856959,-0.06640599999999999,0.128662,0.494629,0.29639099999999996,-0.009766,-0.978042,0.009676,-0.025901,-0.005602,,,,,,,,,,,,,,,,,,,,,,,,,,,,,,,,,,,,,,,,,,,,,,,,,,,,,,,,,,,,,,,,,
28476,1648952827.089144,1648952827.099637,27.0,0.0,3816.4101560000004,4541.538574,4674.871582,3866.6667479999996,4195.897461,0.0,3.0,73.0,,,,0.0,0.0,0.0,4.0,0.0,0.0,0.0,,,,,,,,,,,,,,,,,,,,,,,,,,,,,,,,,,,,,,,,,,,,,,,,,,,,,,,,,,,,,,,,,,,,,,,,,,,,,,,,,,,,
28477,1648952827.0969589,1648952827.107451,28.0,0.0,4169.230957,4447.179688,4367.692383,4247.179688,4143.077147999999,0.0,3.0,73.0,,,,0.0,0.0,0.0,4.0,0.0,0.0,0.0,,,,,,,,14.0,0.0,0.8569959999999999,-0.06640599999999999,0.128418,0.494629,0.29102,-0.016114,-0.9716950000000001,0.011687000000000001,-0.025899000000000002,-0.011439,,,,,,,,,,,,,,,,,,,,,,,,,,,,,,,,,,,,,,,,,,,,,,,,,,,,,,,,,,,,,,,,,
28478,1648952827.104773,1648952827.115166,29.0,0.0,4311.794922,4057.9487299999996,4115.384765999999,4337.94873,4230.256348,0.0,3.0,73.0,,,,0.0,0.0,0.0,4.0,0.0,0.0,0.0,,,,,,,,,,,,,,,,,,,,,,,,,,,,,,,,,,,,,,,,,,,,,,,,,,,,,,0.0,0.0,32.0,0.057687,1.0,0.0,,,,,,,,,,,,,,,,,,,,,,,,,
28479,1648952827.1125882,1648952827.123081,30.0,0.0,4121.025879,4123.589844,4248.205078,3894.8718259999996,3992.3076170000004,0.0,3.0,73.0,,,,0.0,0.0,0.0,4.0,0.0,0.0,0.0,,,,,,,,15.0,0.0,0.857124,-0.066162,0.127686,0.494629,0.292485,-0.00293,-0.973159,0.011788,-0.025848000000000003,-0.016789,,,,,,,,,,,,,,,,,,,,,,,,,,,,,,,,,,,,,,,,,,,,,,,,,,,,,,,,,,,,,,,,,
28480,1648952827.1204019,1648952827.130896,31.0,0.0,4573.846191,4333.333496,4175.384765999999,4331.282227000001,4286.153809,0.0,3.0,73.0,,,,0.0,0.0,0.0,4.0,0.0,0.0,0.0,,,,,,,,,,,,,,,,,,,,,,,,,,,,,,,,,,,,,,,,,,,,,,,,,,,,,,,,,,,,,,,,,,,,,,,,,,,,,,,,,,,,
28481,1648952827.128217,1648952827.13881,32.0,0.0,3954.358887,4363.077147999999,3994.358887,4005.641113,3786.1538090000004,0.0,3.0,73.0,,,,0.0,0.0,0.0,4.0,0.0,0.0,0.0,,,,,,,,16.0,0.0,0.857233,-0.066162,0.126953,0.494629,0.29736799999999997,-0.010254000000000001,-0.992691,0.013685,-0.025949,-0.021603999999999998,,,,,,,,,,,,,,,,,,,,,,,,,,,,,,,,,,,,,,,,,,,,,,,,,,,,,,,,,,,,,,,,,
28482,1648952827.136032,1648952827.146625,33.0,0.0,4577.94873,4186.666504,4403.077147999999,4750.769043,4766.666504,0.0,3.0,73.0,,,,0.0,0.0,0.0,4.0,0.0,0.0,0.0,,,,,,,,,,,,,,,,,,,,1.0,0.0,0.0,,,,,,,,,,,,,,,,,,,,,,,,,,,,,,,,0.0,0.0,32.0,0.049867,1.0,0.0,3449.959229,963.9910279999999,4632.706543,2576.220459,5081.869140999999,2995.954346,3846.0830079999996,489.853485,656.630554,307.654694,249.815094,552.3262940000001,658.5949099999999,297.099304,374.02533,2338.231445,1097.283936,3540.420898,2249.256836,5367.120605,2950.33252,1110.40271,3611.39917,2238.460693,4776.168945
28483,1648952827.143846,1648952827.15454,34.0,0.0,4434.871582,4260.512695,4536.922852000001,4545.128418,4708.717772999999,0.0,3.0,73.0,,,,0.0,0.0,0.0,4.0,0.0,0.0,0.0,,,,,,,,17.0,0.0,0.857196,-0.066162,0.127197,0.494629,0.291508,-0.0063479999999999995,-0.99025,0.010559,-0.025991000000000004,-0.013388999999999998,,,,,,,,,,,,,,,,,,,,,,,,,,,,,,,,,,,,,,,,,,,,,,,,,,,,,,,,,,,,,,,,,
28484,1648952827.151661,1648952827.1623552,35.0,0.0,2621.025635,4790.769043,3831.794922,2368.205078,2667.6923829999996,0.0,3.0,73.0,,,,0.0,0.0,0.0,4.0,0.0,0.0,0.0,,,,,,,,,,,,,,,,,,,,,,,,,,,,,,,,,,,,,,,,,,,,,,,,,,,,,,,,,,,,,,,,,,,,,,,,,,,,,,,,,,,,
28485,1648952827.159475,1648952827.17027,36.0,0.0,3150.256348,4960.512695,3852.3076170000004,2994.3588870000003,3444.615479,0.0,3.0,73.0,,,,0.0,0.0,0.0,4.0,0.0,0.0,0.0,,,,,,,,18.0,0.0,0.8570690000000001,-0.06640599999999999,0.12793,0.494629,0.290044,0.0043950000000000005,-0.9907379999999999,0.007794,-0.025979000000000002,-0.00873,,,,,,,,,,,,,,,,,,,,,,,,,,,,,,,,,,,,,,,,,,,,,,,,,,,,,,,,,,,,,,,,,
28486,1648952827.16729,1648952827.1780849,37.0,0.0,4648.717772999999,4564.102539,4411.794922,4636.922852000001,5035.384765999999,0.0,3.0,73.0,,,,0.0,0.0,0.0,4.0,0.0,0.0,0.0,,,,,,,,,,,,,,,,,,,,,,,,,,,,,,,,,,,,,,,,,,,,,,,,,,,,,,0.0,0.0,32.0,0.049867,1.0,0.0,,,,,,,,,,,,,,,,,,,,,,,,,
28487,1648952827.175104,1648952827.185999,38.0,0.0,5121.025879,4535.897461,4365.641113000001,4880.512695,5056.410156,0.0,3.0,73.0,,,,0.0,0.0,0.0,4.0,0.0,0.0,0.0,,,,,,,,19.0,0.0,0.8570690000000001,-0.06640599999999999,0.12793,0.494629,0.30225100000000005,-0.011231,-0.969741,0.008431000000000001,-0.026018,-0.014156,,,,,,,,,,,,,,,,,,,,,,,,,,,,,,,,,,,,,,,,,,,,,,,,,,,,,,,,,,,,,,,,,
28488,1648952827.182919,1648952827.193814,39.0,0.0,4013.3332520000004,4674.871582,4133.846191,3952.3076170000004,4094.8718259999996,0.0,3.0,73.0,,,,0.0,0.0,0.0,4.0,0.0,0.0,0.0,,,,,,,,,,,,,,,,,,,,,,,,,,,,,,,,,,,,,,,,,,,,,,,,,,,,,,,,,,,,,,,,,,,,,,,,,,,,,,,,,,,,
28489,1648952827.190733,1648952827.2017288,40.0,0.0,3972.3076170000004,4370.769043,4123.589844,4108.205078,4345.128418,0.0,3.0,73.0,,,,0.0,0.0,0.0,4.0,0.0,0.0,0.0,,,,,,,,20.0,0.0,0.857324,-0.06591799999999999,0.12646500000000002,0.494629,0.297856,-0.016602000000000002,-0.941909,0.009052,-0.026052999999999996,-0.006686,,,,,,,,,,,,,,,,,,,,,,,,,,,,,,,,,,,,,,,,,,,,,,,,,,,,,,,,,,,,,,,,,
28490,1648952827.198548,1648952827.209544,41.0,0.0,5488.717772999999,4266.666504,4358.974121,5406.153809,5615.897461,0.0,3.0,73.0,,,,0.0,0.0,0.0,4.0,0.0,0.0,0.0,,,,,,,,,,,,,,,,,,,,,,,,,,,,,,,,,,,,,,,,,,,,,,,,,,,,,,0.0,0.0,32.0,0.049867,1.0,0.0,,,,,,,,,,,,,,,,,,,,,,,,,
28491,1648952827.206362,1648952827.217459,42.0,0.0,5545.641113000001,4355.897461,4655.897461,5394.871582,5621.538574,0.0,3.0,73.0,,,,0.0,0.0,0.0,4.0,0.0,0.0,0.0,,,,,,,,21.0,0.0,0.8574860000000001,-0.065674,0.12548800000000002,0.494629,0.290044,-0.035644999999999996,-0.9555809999999999,0.008098000000000001,-0.025938,-0.015343,,,,,,,,,,,,,,,,,,,,,,,,,,,,,,,,,,,,,,,,,,,,,,,,,,,,,,,,,,,,,,,,,
28492,1648952827.214177,1648952827.225274,43.0,0.0,3876.4101560000004,4098.461426,4455.897461,4044.102539,4090.256348,0.0,3.0,73.0,,,,0.0,0.0,0.0,4.0,0.0,0.0,0.0,,,,,,,,,,,,,,,,,,,,,,,,,,,,,,,,,,,,,,,,,,,,,,,,,,,,,,,,,,,,,,,,,,,,,,,,,,,,,,,,,,,,
28493,1648952827.221991,1648952827.232988,44.0,0.0,3353.333252,3997.4357909999994,3977.9487299999996,3503.5898439999996,3320.512939,0.0,3.0,73.0,,,,0.0,0.0,0.0,4.0,0.0,0.0,0.0,,,,,,,,22.0,0.0,0.8575209999999999,-0.065674,0.125244,0.494629,0.294926,-0.011719,-0.980972,0.008656,-0.025981,-0.020303,,,,,,,,,,,,,,,,,,,,,,,,,,,,,,,,,,,,,,,,,,,,,,,,,,,,,,,,,,,,,,,,,
28494,1648952827.229806,1648952827.240803,45.0,0.0,4707.692383,4152.307617,4030.7692869999996,4577.94873,4581.538574,0.0,3.0,73.0,,,,0.0,0.0,0.0,4.0,0.0,0.0,0.0,,,,,,,,,,,,,,,,,,,,,,,,,,,,,,,,,,,,,,,,,,,,,,,,,,,,,,0.0,0.0,32.0,0.049867,1.0,0.0,,,,,,,,,,,,,,,,,,,,,,,,,
28495,1648952827.237621,1648952827.248518,46.0,0.0,4344.615234000001,4155.384765999999,4219.487305,4272.307617,4504.102539,0.0,3.0,73.0,,,,0.0,0.0,0.0,4.0,0.0,0.0,0.0,,,,,,,,23.0,0.0,0.85716,-0.066162,0.127441,0.494629,0.280278,-0.008789,-1.014664,0.009156999999999998,-0.026019999999999998,-0.024474,,,,,,,,,,,,,,,,,,,,,,,,,,,,,,,,,,,,,,,,,,,,,,,,,,,,,,,,,,,,,,,,,
28496,1648952827.245435,1648952827.256433,47.0,0.0,4014.358887,4213.846191,4186.666504,3938.974365,4117.94873,0.0,3.0,73.0,,,,0.0,0.0,0.0,4.0,0.0,0.0,0.0,,,,,,,,,,,,,,,,,,,,,,,,,,,,,,,,,,,,,,,,,,,,,,,,,,,,,,,,,,,,,,,,,,,,,,,,,,,,,,,,,,,,
28497,1648952827.25325,1648952827.2642481,48.0,0.0,4523.077147999999,4292.820313,4524.615234000001,4574.358886999999,4665.641113000001,0.0,3.0,73.0,,,,0.0,0.0,0.0,4.0,0.0,0.0,0.0,,,,,,,,24.0,0.0,0.856793,-0.06665,0.129639,0.494629,0.276371,-0.004883,-1.045914,0.006484,-0.026055000000000002,-0.018755,,,,,,,,,,,,,,,,,,,,,,,,,,,,,,,,,,,,,,,,,,,,,,,,,,,,,,,,,,,,,,,,,
28498,1648952827.261064,1648952827.272162,49.0,0.0,3981.025635,4346.666504,4335.384765999999,3944.102539,4185.641113000001,0.0,3.0,73.0,,,,0.0,0.0,0.0,4.0,0.0,0.0,0.0,,,,,,,,,,,,,,,,,,,,1.0,0.0,0.0,,,,,,,,,,,,,,,,,,,,,,,,,,,,,,,,0.0,0.0,32.0,0.050523,1.0,0.0,4158.637695,963.010315,3623.3964840000003,2756.721191,5071.505859000001,3305.6401370000003,3544.601563,479.26699800000006,580.680542,302.430267,255.936523,556.744812,706.319275,286.909607,387.304077,2831.342285,926.424316,2766.306396,2356.73999,5361.836914,3542.147705,1128.410645,2697.797607,2348.537842,4713.664551
28499,1648952827.268879,1648952827.2799768,50.0,0.0,4404.615234000001,4235.897461,3944.102539,4304.102539,4443.077147999999,0.0,3.0,73.0,,,,0.0,0.0,0.0,4.0,0.0,0.0,0.0,,,,,,,,25.0,0.0,0.856793,-0.06665,0.129639,0.494629,0.303227,-0.035644999999999996,-0.984878,0.0072510000000000005,-0.026086,-0.023325,,,,,,,,,,,,,,,,,,,,,,,,,,,,,,,,,,,,,,,,,,,,,,,,,,,,,,,,,,,,,,,,,
28500,1648952827.2766929,1648952827.287892,51.0,0.0,4090.7692869999996,4170.256348,4191.282227000001,4099.487305,3986.1538090000004,0.0,3.0,73.0,,,,0.0,0.0,0.0,4.0,0.0,0.0,0.0,,,,,,,,,,,,,,,,,,,,,,,,,,,,,,,,,,,,,,,,,,,,,,,,,,,,,,,,,,,,,,,,,,,,,,,,,,,,,,,,,,,,
28501,1648952827.284508,1648952827.295707,52.0,0.0,3794.358887,4162.563965,4190.769043,3515.897461,3491.281982,0.0,3.0,73.0,,,,0.0,0.0,0.0,4.0,0.0,0.0,0.0,,,,,,,,26.0,0.0,0.857124,-0.066162,0.127686,0.494629,0.304692,-0.007324,-0.9521629999999999,0.007894,-0.026114,-0.027194,,,,,,,,,,,,,,,,,,,,,,,,,,,,,,,,,,,,,,,,,,,,,,,,,,,,,,,,,,,,,,,,,
28502,1648952827.292323,1648952827.303622,53.0,0.0,5456.922852000001,4283.077147999999,3961.025635,5061.025879,5307.692383,0.0,3.0,73.0,,,,0.0,0.0,0.0,4.0,0.0,0.0,0.0,,,,,,,,,,,,,,,,,,,,,,,,,,,,,,,,,,,,,,,,,,,,,,,,,,,,,,0.0,0.0,32.0,0.050523,1.0,0.0,,,,,,,,,,,,,,,,,,,,,,,,,
28503,1648952827.3001368,1648952827.311437,54.0,0.0,5504.102539,4348.205078,4078.974365,5368.717772999999,5766.666504,0.0,3.0,73.0,,,,0.0,0.0,0.0,4.0,0.0,0.0,0.0,,,,,,,,27.0,0.0,0.85745,-0.065674,0.12573199999999998,0.494629,0.306157,-0.010742,-0.973159,0.008569,-0.026139,-0.030773000000000002,,,,,,,,,,,,,,,,,,,,,,,,,,,,,,,,,,,,,,,,,,,,,,,,,,,,,,,,,,,,,,,,,
28504,1648952827.307952,1648952827.319351,55.0,0.0,4319.487305,4302.05127,4372.820313,4268.717772999999,4587.692383,0.0,3.0,73.0,,,,0.0,0.0,0.0,4.0,0.0,0.0,0.0,,,,,,,,,,,,,,,,,,,,,,,,,,,,,,,,,,,,,,,,,,,,,,,,,,,,,,,,,,,,,,,,,,,,,,,,,,,,,,,,,,,,
28505,1648952827.315766,1648952827.327166,56.0,0.0,4086.1538090000004,4595.897461,4320.0,3694.358887,4018.461426,0.0,3.0,73.0,,,,0.0,0.0,0.0,4.0,0.0,0.0,0.0,,,,,,,,28.0,0.0,0.85736,-0.06591799999999999,0.126221,0.494629,0.27686,-0.000488,-1.016617,0.009323,-0.026113,-0.03419,,,,,,,,,,,,,,,,,,,,,,,,,,,,,,,,,,,,,,,,,,,,,,,,,,,,,,,,,,,,,,,,,
28506,1648952827.323581,1648952827.335081,57.0,0.0,5010.769043,4577.436035,4160.512695,4654.358886999999,5018.461426,0.0,3.0,73.0,,,,0.0,0.0,0.0,4.0,0.0,0.0,0.0,,,,,,,,,,,,,,,,,,,,,,,,,,,,,,,,,,,,,,,,,,,,,,,,,,,,,,0.0,0.0,32.0,0.050523,1.0,0.0,,,,,,,,,,,,,,,,,,,,,,,,,
28507,1648952827.331395,1648952827.342896,58.0,0.0,4336.922852000001,4502.563965,4126.153809,4242.563965,4375.384765999999,0.0,3.0,73.0,,,,0.0,0.0,0.0,4.0,0.0,0.0,0.0,,,,,,,,29.0,0.0,0.857124,-0.066162,0.127686,0.494629,0.304692,-0.007324,-0.9521629999999999,0.006633,-0.026041,-0.027451,,,,,,,,,,,,,,,,,,,,,,,,,,,,,,,,,,,,,,,,,,,,,,,,,,,,,,,,,,,,,,,,,
28508,1648952827.33921,1648952827.350811,59.0,0.0,4433.333496,4629.230957,4034.8718259999996,4261.025879,4068.205078,0.0,3.0,73.0,,,,0.0,0.0,0.0,4.0,0.0,0.0,0.0,,,,,,,,,,,,,,,,,,,,,,,,,,,,,,,,,,,,,,,,,,,,,,,,,,,,,,,,,,,,,,,,,,,,,,,,,,,,,,,,,,,,
28509,1648952827.347024,1648952827.358626,60.0,0.0,4874.871582,4561.538574,4100.512695,4885.128418,4703.589844,0.0,3.0,73.0,,,,0.0,0.0,0.0,4.0,0.0,0.0,0.0,,,,,,,,30.0,0.0,0.85736,-0.06591799999999999,0.126221,0.494629,0.27686,-0.000488,-1.016617,0.007581,-0.026025,-0.0312,,,,,,,,,,,,,,,,,,,,,,,,,,,,,,,,,,,,,,,,,,,,,,,,,,,,,,,,,,,,,,,,,
28510,1648952827.354839,1648952827.36654,61.0,0.0,3854.8718259999996,4566.666504,4076.4101560000004,3742.5642090000006,3771.281982,0.0,3.0,73.0,,,,0.0,0.0,0.0,4.0,0.0,0.0,0.0,,,,,,,,,,,,,,,,,,,,,,,,,,,,,,,,,,,,,,,,,,,,,,,,,,,,,,0.0,0.0,32.0,0.050523,1.0,0.0,,,,,,,,,,,,,,,,,,,,,,,,,
28511,1648952827.362653,1648952827.374355,62.0,0.0,4951.282227000001,5035.384765999999,3639.487061,4589.743652,4400.512695,0.0,3.0,73.0,,,,0.0,0.0,0.0,4.0,0.0,0.0,0.0,,,,,,,,31.0,0.0,0.857124,-0.066162,0.127686,0.494629,0.26514099999999996,-0.012695999999999999,-1.0112459999999999,0.008093000000000001,-0.026059,-0.034477,,,,,,,,,,,,,,,,,,,,,,,,,,,,,,,,,,,,,,,,,,,,,,,,,,,,,,,,,,,,,,,,,
28512,1648952827.370468,1648952827.3822699,63.0,0.0,5834.358886999999,5069.743652,3293.846191,5777.436035,5678.461426,0.0,3.0,73.0,,,,0.0,0.0,0.0,4.0,0.0,0.0,0.0,,,,,,,,,,,,,,,,,,,,,,,,,,,,,,,,,,,,,,,,,,,,,,,,,,,,,,,,,,,,,,,,,,,,,,,,,,,,,,,,,,,,
28513,1648952827.378282,1648952827.390085,64.0,0.0,4415.384765999999,4391.794922,3744.102539,4615.384765999999,4965.128418,450.0,3.0,73.0,,,,0.0,0.0,0.0,4.0,0.0,0.0,0.0,,,,,,,,32.0,0.0,0.8571790000000001,-0.06591799999999999,0.127441,0.494629,0.295903,-0.008789,-0.99855,0.005574,-0.02609,-0.027806,,,,,,,,,,,,,,,,,,,,,,,,,,,,,,,,,,,,,,,,,,,,,,,,,,,,,,,,,,,,,,,,,
28514,1648952827.386097,1648952827.3978,65.0,0.0,3633.8461909999996,4176.922852000001,4670.769043,3687.6923829999996,3982.0512700000004,450.0,3.0,73.0,,,,0.0,0.0,0.0,4.0,0.0,0.0,0.0,1.0,0.0,0.0,0.0,0.0,0.0,0.0,,,,,,,,,,,,,1.0,0.0,0.0,,,,,,,,,,,,,,,,,,,,,,,,,,,,,,,,0.0,0.0,32.0,0.043126,1.0,0.0,4493.991699,1030.277466,2711.416016,2895.987305,5051.62793,3679.932129,3091.364746,455.620117,479.26620499999996,285.023499,284.418854,538.055298,701.476074,260.414856,406.33648700000003,3151.515625,831.445862,2083.330566,2397.614746,5269.42041,3940.7460939999996,1158.7619630000002,1956.072998,2407.081055,4654.78418
28515,1648952827.3939118,1648952827.405715,66.0,0.0,4443.077147999999,4348.205078,4435.897461,4255.384765999999,4379.487305,0.0,3.0,73.0,,,,0.0,0.0,0.0,4.0,0.0,0.0,0.0,,,,,,,,33.0,0.0,0.8571469999999999,-0.06591799999999999,0.126709,0.49487299999999995,0.31299299999999997,-0.016114,-0.9673,0.008043999999999999,-0.026167000000000003,-0.03152,,,,,,,,,,,,,,,,,,,,,,,,,,,,,,,,,,,,,,,,,,,,,,,,,,,,,,,,,,,,,,,,,
28516,1648952827.401726,1648952827.41353,67.0,0.0,4554.871582,4264.615234000001,3937.9487299999996,4466.153809,4635.384765999999,450.0,3.0,73.0,,,,0.0,0.0,0.0,4.0,0.0,0.0,0.0,,,,,,,,,,,,,,,,,,,,,,,,,,,,,,,,,,,,,,,,,,,,,,,,,,,,,,,,,,,,,,,,,,,,,,,,,,,,,,,,,,,,
28517,1648952827.4095411,1648952827.421345,68.0,0.0,3640.0,4179.487305,4080.0,3719.487061,3806.1538090000004,0.0,3.0,73.0,,,,0.0,0.0,0.0,4.0,0.0,0.0,0.0,,,,,,,,34.0,0.0,0.8571110000000001,-0.06591799999999999,0.126953,0.49487299999999995,0.288579,-0.007812999999999999,-1.0112459999999999,0.005482,-0.026236000000000002,-0.025194,,,,,,,,,,,,,,,,,,,,,,,,,,,,,,,,,,,,,,,,,,,,,,,,,,,,,,,,,,,,,,,,,
28518,1648952827.417355,1648952827.429059,69.0,0.0,4204.102539,4192.820313,4324.615234000001,4365.641113000001,4251.282227000001,450.0,3.0,73.0,,,,0.0,0.0,0.0,2.0,0.0,0.0,0.0,,,,,,,,,,,,,,,,,,,,,,,,,,,,,,,,,,,,,,,,,,,,,,,,,,,,,,0.0,0.0,32.0,0.043126,1.0,0.0,,,,,,,,,,,,,,,,,,,,,,,,,
28519,1648952827.42517,1648952827.436874,70.0,0.0,4113.846191,4384.615234000001,4180.0,4113.333496,4044.615479,259.0,3.0,73.0,,,,0.0,0.0,0.0,2.0,0.0,0.0,0.0,,,,,,,,35.0,0.0,0.8569829999999999,-0.066162,0.127686,0.49487299999999995,0.277348,-0.008789,-1.000992,0.00635,-0.026249,-0.019403,,,,,,,,,,,,,,,,,,,,,,,,,,,,,,,,,,,,,,,,,,,,,,,,,,,,,,,,,,,,,,,,,
28520,1648952827.4329839,1648952827.4445891,71.0,0.0,4429.230957,4303.589844,4228.205078,4357.436035,4486.153809,450.0,3.0,73.0,,,,0.0,0.0,0.0,2.0,0.0,0.0,0.0,,,,,,,,,,,,,,,,,,,,,,,,,,,,,,,,,,,,,,,,,,,,,,,,,,,,,,,,,,,,,,,,,,,,,,,,,,,,,,,,,,,,
28521,1648952827.440799,1648952827.4524028,72.0,0.0,4524.615234000001,4311.794922,4506.153809,4669.230957,4796.922852000001,450.0,3.0,73.0,,,,0.0,0.0,0.0,2.0,0.0,0.0,0.0,,,,,,,,36.0,0.0,0.8569459999999999,-0.066162,0.12793,0.49487299999999995,0.26514099999999996,0.0,-0.9433739999999999,0.005471,-0.026212,-0.023908000000000002,,,,,,,,,,,,,,,,,,,,,,,,,,,,,,,,,,,,,,,,,,,,,,,,,,,,,,,,,,,,,,,,,
28522,1648952827.4486141,1648952827.460118,73.0,0.0,3523.5898439999996,4433.846191,4119.487305,3623.5898439999996,3551.794922,0.0,3.0,73.0,,,,0.0,0.0,0.0,2.0,0.0,0.0,0.0,,,,,,,,,,,,,,,,,,,,,,,,,,,,,,,,,,,,,,,,,,,,,,,,,,,,,,0.0,0.0,32.0,0.043126,1.0,0.0,,,,,,,,,,,,,,,,,,,,,,,,,
28523,1648952827.4564278,1648952827.467933,74.0,0.0,5016.410156,3808.718018,4034.8718259999996,5104.102539,4867.179688,450.0,3.0,73.0,,,,0.0,0.0,0.0,2.0,0.0,0.0,0.0,,,,,,,,37.0,0.0,0.857092,-0.066162,0.126953,0.49487299999999995,0.314458,-0.011231,-0.954116,0.006389,-0.026081,-0.028012000000000002,,,,,,,,,,,,,,,,,,,,,,,,,,,,,,,,,,,,,,,,,,,,,,,,,,,,,,,,,,,,,,,,,
28524,1648952827.464243,1648952827.475647,75.0,0.0,6034.871582,3191.281982,4500.0,6153.333496,6023.077147999999,0.0,3.0,73.0,,,,0.0,0.0,0.0,2.0,0.0,0.0,0.0,,,,,,,,,,,,,,,,,,,,,,,,,,,,,,,,,,,,,,,,,,,,,,,,,,,,,,,,,,,,,,,,,,,,,,,,,,,,,,,,,,,,
28525,1648952827.472057,1648952827.4834619,76.0,0.0,4738.974121,3153.333252,4517.436035,4828.205078,4794.358886999999,450.0,3.0,73.0,,,,0.0,0.0,0.0,2.0,0.0,0.0,0.0,,,,,,,,38.0,0.0,0.8572190000000001,-0.06591799999999999,0.126221,0.49487299999999995,0.308598,-0.015137000000000001,-0.972671,0.003943,-0.026157999999999997,-0.02189,,,,,,,,,,,,,,,,,,,,,,,,,,,,,,,,,,,,,,,,,,,,,,,,,,,,,,,,,,,,,,,,,
28526,1648952827.479872,1648952827.4911768,77.0,0.0,3489.2307130000004,3701.025635,4089.2307130000004,3812.820557,3917.4357909999994,450.0,3.0,73.0,,,,0.0,0.0,0.0,2.0,0.0,0.0,0.0,,,,,,,,,,,,,,,,,,,,,,,,,,,,,,,,,,,,,,,,,,,,,,,,,,,,,,0.0,0.0,32.0,0.043126,1.0,0.0,,,,,,,,,,,,,,,,,,,,,,,,,
28527,1648952827.487686,1648952827.499092,78.0,0.0,4406.666504,3919.487061,4133.846191,4532.307617,4769.743652,450.0,3.0,73.0,,,,0.0,0.0,0.0,2.0,0.0,0.0,0.0,,,,,,,,39.0,0.0,0.8571469999999999,-0.06591799999999999,0.126709,0.49487299999999995,0.286625,-0.014159999999999999,-1.0053860000000001,0.004965,-0.02613,-0.013646,,,,,,,,,,,,,,,,,,,,,,,,,,,,,,,,,,,,,,,,,,,,,,,,,,,,,,,,,,,,,,,,,
28528,1648952827.495501,1648952827.506907,79.0,0.0,4738.461426,4022.5642090000006,4408.717772999999,4628.205078,4724.102539,0.0,3.0,73.0,,,,0.0,0.0,0.0,2.0,0.0,0.0,0.0,,,,,,,,,,,,,,,,,,,,,,,,,,,,,,,,,,,,,,,,,,,,,,,,,,,,,,,,,,,,,,,,,,,,,,,,,,,,,,,,,,,,
28529,1648952827.503315,1648952827.5147212,80.0,0.0,4128.717772999999,4111.282227000001,4363.077147999999,4197.436035,4218.461426,450.0,3.0,73.0,,,,0.0,0.0,0.0,2.0,0.0,0.0,0.0,,,,,,,,40.0,0.0,0.85716,-0.066162,0.127441,0.494629,0.273442,0.009276999999999999,-0.988296,0.007398,-0.026202999999999997,-0.018727,,,,,,,,,,,,,,,,,,,,,,,,,,,,,,,,,,,,,,,,,,,,,,,,,,,,,,,,,,,,,,,,,
28530,1648952827.51113,1648952827.522436,81.0,0.0,4385.128418,4163.077147999999,4356.410156,4409.743652,4616.410156,450.0,3.0,73.0,,,,0.0,0.0,0.0,2.0,0.0,0.0,0.0,,,,,,,,,,,,,,,,,,,,1.0,0.0,0.0,,,,,,,,,,,,,,,,,,,,,,,,,,,,,,,,0.0,0.0,32.0,0.049191000000000006,1.0,0.0,4346.824707,1223.6173099999999,2081.027344,2948.073486,5068.024902,4024.982422,2657.737549,425.782867,388.688782,269.946014,331.75036600000004,517.708313,641.799316,224.781021,435.06967199999997,3207.169678,899.7279050000001,1638.8654789999998,2377.657959,5136.150390999999,4053.644775,1247.9846189999998,1537.53418,2410.8984379999997,4636.030272999999
28531,1648952827.518944,1648952827.530351,82.0,0.0,4398.461426,4172.307617,4322.563965,3970.7692869999996,4368.205078,450.0,3.0,73.0,,,,0.0,0.0,0.0,2.0,0.0,0.0,0.0,,,,,,,,41.0,0.0,0.857087,-0.066162,0.12793,0.494629,0.299809,-0.003906,-0.9790190000000001,0.009686,-0.026317,-0.023349,,,,,,,,,,,,,,,,,,,,,,,,,,,,,,,,,,,,,,,,,,,,,,,,,,,,,,,,,,,,,,,,,
28532,1648952827.526759,1648952827.538166,83.0,0.0,4721.538574,4075.897461,4385.641113000001,4318.461426,4652.820313,0.0,3.0,73.0,,,,0.0,0.0,0.0,2.0,0.0,0.0,0.0,,,,,,,,,,,,,,,,,,,,,,,,,,,,,,,,,,,,,,,,,,,,,,,,,,,,,,,,,,,,,,,,,,,,,,,,,,,,,,,,,,,,
28533,1648952827.534573,1648952827.546081,84.0,0.0,4630.256348,4302.05127,4183.077147999999,4341.538574,4650.256348,450.0,3.0,73.0,,,,0.0,0.0,0.0,2.0,0.0,0.0,0.0,,,,,,,,42.0,0.0,0.8571790000000001,-0.06591799999999999,0.127441,0.494629,0.29688000000000003,-0.016114,-0.9550930000000001,0.010084000000000001,-0.026371,-0.027507999999999998,,,,,,,,,,,,,,,,,,,,,,,,,,,,,,,,,,,,,,,,,,,,,,,,,,,,,,,,,,,,,,,,,
28534,1648952827.5423882,1648952827.5538962,85.0,0.0,4540.512695,4167.692383,4373.333496,4025.641113,4398.461426,450.0,3.0,73.0,,,,0.0,0.0,0.0,2.0,0.0,0.0,0.0,,,,,,,,,,,,,,,,,,,,,,,,,,,,,,,,,,,,,,,,,,,,,,,,,,,,,,0.0,0.0,32.0,0.049191000000000006,1.0,0.0,,,,,,,,,,,,,,,,,,,,,,,,,
28535,1648952827.550202,1648952827.56181,86.0,0.0,4425.641113000001,4131.282227000001,4478.974121,4331.282227000001,4431.794922,450.0,3.0,73.0,,,,0.0,0.0,0.0,2.0,0.0,0.0,0.0,,,,,,,,43.0,0.0,0.8572879999999999,-0.06591799999999999,0.126709,0.494629,0.293462,-0.007812999999999999,-0.9834129999999999,0.01059,-0.026371,-0.021486,,,,,,,,,,,,,,,,,,,,,,,,,,,,,,,,,,,,,,,,,,,,,,,,,,,,,,,,,,,,,,,,,
28536,1648952827.558017,1648952827.569625,87.0,0.0,4195.384765999999,4358.461426,4485.641113000001,4612.307617,4475.897461,0.0,3.0,73.0,,,,0.0,0.0,0.0,2.0,0.0,0.0,0.0,,,,,,,,,,,,,,,,,,,,,,,,,,,,,,,,,,,,,,,,,,,,,,,,,,,,,,,,,,,,,,,,,,,,,,,,,,,,,,,,,,,,
28537,1648952827.5658321,1648952827.5773401,88.0,0.0,4262.563965,4365.641113000001,4234.358886999999,4290.769043,4445.641113000001,450.0,3.0,73.0,,,,0.0,0.0,0.0,2.0,0.0,0.0,0.0,,,,,,,,44.0,0.0,0.8571469999999999,-0.06591799999999999,0.126709,0.49487299999999995,0.292485,-0.016602000000000002,-1.0000149999999999,0.012411,-0.026224,-0.025733999999999996,,,,,,,,,,,,,,,,,,,,,,,,,,,,,,,,,,,,,,,,,,,,,,,,,,,,,,,,,,,,,,,,,
28538,1648952827.573646,1648952827.585155,89.0,0.0,4490.769043,3970.7692869999996,4312.820313,4058.974365,4520.0,450.0,3.0,73.0,,,,0.0,0.0,0.0,2.0,0.0,0.0,0.0,,,,,,,,,,,,,,,,,,,,,,,,,,,,,,,,,,,,,,,,,,,,,,,,,,,,,,0.0,0.0,32.0,0.049191000000000006,1.0,0.0,,,,,,,,,,,,,,,,,,,,,,,,,
28539,1648952827.581461,1648952827.59307,90.0,0.0,4627.179688,4065.1281740000004,4315.384765999999,4408.205078,4595.384765999999,450.0,3.0,73.0,,,,0.0,0.0,0.0,2.0,0.0,0.0,0.0,,,,,,,,45.0,0.0,0.857038,-0.06591799999999999,0.127441,0.49487299999999995,0.299321,0.003906,-1.0215,0.00951,-0.026238,-0.016959000000000002,,,,,,,,,,,,,,,,,,,,,,,,,,,,,,,,,,,,,,,,,,,,,,,,,,,,,,,,,,,,,,,,,
28540,1648952827.589275,1648952827.600885,91.0,0.0,4569.230957,4532.307617,4497.436035,4484.102539,4532.820313,0.0,3.0,73.0,,,,0.0,0.0,0.0,2.0,0.0,0.0,0.0,,,,,,,,,,,,,,,,,,,,,,,,,,,,,,,,,,,,,,,,,,,,,,,,,,,,,,,,,,,,,,,,,,,,,,,,,,,,,,,,,,,,
28541,1648952827.59709,1648952827.6086,92.0,0.0,4428.205078,4377.94873,4607.692383,4148.717772999999,4420.512695,450.0,3.0,73.0,,,,0.0,0.0,0.0,2.0,0.0,0.0,0.0,,,,,,,,46.0,0.0,0.857087,-0.066162,0.12793,0.494629,0.295415,-0.009276999999999999,-0.965347,0.010024,-0.026251,-0.021757,,,,,,,,,,,,,,,,,,,,,,,,,,,,,,,,,,,,,,,,,,,,,,,,,,,,,,,,,,,,,,,,,
28542,1648952827.6049051,1648952827.616415,93.0,0.0,4222.563965,4029.743652,4420.512695,4247.179688,4329.230957,450.0,3.0,73.0,,,,0.0,0.0,0.0,2.0,0.0,0.0,0.0,,,,,,,,,,,,,,,,,,,,,,,,,,,,,,,,,,,,,,,,,,,,,,,,,,,,,,0.0,0.0,32.0,0.049191000000000006,1.0,0.0,,,,,,,,,,,,,,,,,,,,,,,,,
28543,1648952827.612719,1648952827.6241288,94.0,0.0,4239.487305,4188.717772999999,4262.563965,4649.230957,4418.974121,450.0,3.0,73.0,,,,0.0,0.0,0.0,2.0,0.0,0.0,0.0,,,,,,,,47.0,0.0,0.857124,-0.066162,0.127686,0.494629,0.31787600000000005,-0.008789,-0.973159,0.010438,-0.026213999999999998,-0.013527,,,,,,,,,,,,,,,,,,,,,,,,,,,,,,,,,,,,,,,,,,,,,,,,,,,,,,,,,,,,,,,,,
28544,1648952827.620534,1648952827.631944,95.0,0.0,4423.589844,4433.333496,4254.871582,4403.589844,4479.487305,0.0,3.0,73.0,,,,0.0,0.0,0.0,2.0,0.0,0.0,0.0,,,,,,,,,,,,,,,,,,,,,,,,,,,,,,,,,,,,,,,,,,,,,,,,,,,,,,,,,,,,,,,,,,,,,,,,,,,,,,,,,,,,
28545,1648952827.628348,1648952827.639659,96.0,0.0,4468.717772999999,4335.384765999999,4453.333496,4009.743652,4435.384765999999,450.0,3.0,73.0,,,,0.0,0.0,0.0,2.0,0.0,0.0,0.0,,,,,,,,48.0,0.0,0.857215,-0.06591799999999999,0.127197,0.494629,0.30811,-0.003906,-0.9677879999999999,0.00915,-0.026229000000000002,-0.008854,,,,,,,,,,,,,,,,,,,,,,,,,,,,,,,,,,,,,,,,,,,,,,,,,,,,,,,,,,,,,,,,,
28546,1648952827.636163,1648952827.647574,97.0,0.0,4251.282227000001,4250.769043,4480.512695,4312.820313,4325.128418,450.0,3.0,73.0,,,,0.0,0.0,0.0,2.0,0.0,0.0,0.0,,,,,,,,,,,,,,,,,,,,1.0,0.0,0.0,,,,,,,,,,,,,,,,,,,,,,,,,,,,,,,,0.0,0.0,32.0,0.052877999999999994,1.0,0.0,3771.627197,1548.627563,1779.1157230000001,2909.529541,5125.713867,4229.606445,2339.398193,390.771454,333.58734100000004,267.238678,390.232086,514.792297,544.8184809999999,193.74449199999998,474.389771,2987.929443,1175.891846,1463.19397,2336.924316,4993.527832,3863.716064,1417.688965,1437.307007,2392.372314,4652.031738000001
28547,1648952827.643977,1648952827.655388,98.0,0.0,4124.102539,4415.897461,4458.461426,4750.256348,4382.563965,450.0,3.0,73.0,,,,0.0,0.0,0.0,2.0,0.0,0.0,0.0,,,,,,,,49.0,0.0,0.857074,-0.06591799999999999,0.127197,0.49487299999999995,0.29688000000000003,-0.010254000000000001,-0.984878,0.008186,-0.026341000000000003,-0.014365000000000001,,,,,,,,,,,,,,,,,,,,,,,,,,,,,,,,,,,,,,,,,,,,,,,,,,,,,,,,,,,,,,,,,
28548,1648952827.651792,1648952827.663203,99.0,0.0,4257.436035,4443.077147999999,4318.974121,4382.563965,4509.743652,0.0,3.0,73.0,,,,0.0,0.0,0.0,2.0,0.0,0.0,0.0,,,,,,,,,,,,,,,,,,,,,,,,,,,,,,,,,,,,,,,,,,,,,,,,,,,,,,,,,,,,,,,,,,,,,,,,,,,,,,,,,,,,
28549,1648952827.659606,1648952827.670918,100.0,0.0,4498.461426,4233.333496,4309.743652,3948.205078,4508.717772999999,450.0,3.0,73.0,,,,0.0,0.0,0.0,2.0,0.0,0.0,0.0,,,,,,,,50.0,0.0,0.857002,-0.06591799999999999,0.127686,0.49487299999999995,0.293462,-0.017578,-0.984878,0.008735,-0.026197,-0.019374000000000002,,,,,,,,,,,,,,,,,,,,,,,,,,,,,,,,,,,,,,,,,,,,,,,,,,,,,,,,,,,,,,,,,
28550,1648952827.667421,1648952827.678833,101.0,0.0,4446.666504,4312.307617,4462.05127,4291.794922,4415.384765999999,450.0,3.0,73.0,,,,0.0,0.0,0.0,2.0,0.0,0.0,0.0,,,,,,,,,,,,,,,,,,,,,,,,,,,,,,,,,,,,,,,,,,,,,,,,,,,,,,0.0,0.0,32.0,0.052877999999999994,1.0,0.0,,,,,,,,,,,,,,,,,,,,,,,,,
28551,1648952827.675235,1648952827.6866481,102.0,0.0,4163.589844,4569.230957,4495.897461,4610.769043,4437.436035,450.0,3.0,73.0,,,,0.0,0.0,0.0,2.0,0.0,0.0,0.0,,,,,,,,51.0,0.0,0.857051,-0.066162,0.128174,0.494629,0.282231,-0.0058590000000000005,-0.9790190000000001,0.006152,-0.026164999999999997,-0.014116,,,,,,,,,,,,,,,,,,,,,,,,,,,,,,,,,,,,,,,,,,,,,,,,,,,,,,,,,,,,,,,,,
28552,1648952827.68305,1648952827.694562,103.0,0.0,4165.128418,4313.846191,4318.974121,4275.897461,4492.820313,0.0,3.0,73.0,,,,0.0,0.0,0.0,2.0,0.0,0.0,0.0,,,,,,,,,,,,,,,,,,,,,,,,,,,,,,,,,,,,,,,,,,,,,,,,,,,,,,,,,,,,,,,,,,,,,,,,,,,,,,,,,,,,
28553,1648952827.690864,1648952827.7023768,104.0,0.0,4354.358886999999,4052.3076170000004,3922.0512700000004,4147.692383,4473.333496,450.0,3.0,73.0,,,,0.0,0.0,0.0,2.0,0.0,0.0,0.0,,,,,,,,52.0,0.0,0.8569459999999999,-0.066162,0.12793,0.49487299999999995,0.29639099999999996,-0.010742,-0.9834129999999999,0.006806,-0.026088,-0.019052,,,,,,,,,,,,,,,,,,,,,,,,,,,,,,,,,,,,,,,,,,,,,,,,,,,,,,,,,,,,,,,,,
28554,1648952827.698679,1648952827.710292,105.0,0.0,4369.230957,4199.487305,4027.6923829999996,4530.769043,4531.282227000001,450.0,3.0,73.0,,,,0.0,0.0,0.0,2.0,0.0,0.0,0.0,,,,,,,,,,,,,,,,,,,,,,,,,,,,,,,,,,,,,,,,,,,,,,,,,,,,,,0.0,0.0,32.0,0.052877999999999994,1.0,0.0,,,,,,,,,,,,,,,,,,,,,,,,,
28555,1648952827.7064939,1648952827.718107,106.0,0.0,4272.820313,4278.974121,4365.128418,4523.589844,4556.410156,450.0,3.0,73.0,,,,0.0,0.0,0.0,2.0,0.0,0.0,0.0,,,,,,,,53.0,0.0,0.857038,-0.06591799999999999,0.127441,0.49487299999999995,0.297856,-0.02002,-0.9863430000000001,0.009007,-0.026116000000000004,-0.023495,,,,,,,,,,,,,,,,,,,,,,,,,,,,,,,,,,,,,,,,,,,,,,,,,,,,,,,,,,,,,,,,,
28556,1648952827.714308,1648952827.726022,107.0,0.0,4227.692383,4329.743652,4449.743652,4212.307617,4447.692383,0.0,3.0,73.0,,,,0.0,0.0,0.0,2.0,0.0,0.0,0.0,,,,,,,,,,,,,,,,,,,,,,,,,,,,,,,,,,,,,,,,,,,,,,,,,,,,,,,,,,,,,,,,,,,,,,,,,,,,,,,,,,,,
28557,1648952827.7221231,1648952827.733837,108.0,0.0,4164.102539,4678.461426,4267.179688,4361.025879,4335.384765999999,450.0,3.0,73.0,,,,0.0,0.0,0.0,2.0,0.0,0.0,0.0,,,,,,,,54.0,0.0,0.857038,-0.06591799999999999,0.127441,0.49487299999999995,0.303716,-0.014159999999999999,-0.982925,0.010987,-0.026092,-0.027737,,,,,,,,,,,,,,,,,,,,,,,,,,,,,,,,,,,,,,,,,,,,,,,,,,,,,,,,,,,,,,,,,
28558,1648952827.7299368,1648952827.741751,109.0,0.0,4150.769043,4663.589844,4307.179688,4631.282227000001,4455.384765999999,450.0,3.0,73.0,,,,0.0,0.0,0.0,2.0,0.0,0.0,0.0,,,,,,,,,,,,,,,,,,,,,,,,,,,,,,,,,,,,,,,,,,,,,,,,,,,,,,0.0,0.0,32.0,0.052877999999999994,1.0,0.0,,,,,,,,,,,,,,,,,,,,,,,,,
28559,1648952827.737752,1648952827.749566,110.0,0.0,4155.384765999999,4177.436035,4279.487305,4370.769043,4550.769043,450.0,3.0,73.0,,,,0.0,0.0,0.0,2.0,0.0,0.0,0.0,,,,,,,,55.0,0.0,0.857002,-0.06591799999999999,0.127686,0.49487299999999995,0.29688000000000003,-0.0063479999999999995,-1.000992,0.011401999999999999,-0.026169,-0.03136,,,,,,,,,,,,,,,,,,,,,,,,,,,,,,,,,,,,,,,,,,,,,,,,,,,,,,,,,,,,,,,,,
28560,1648952827.7455661,1648952827.757481,111.0,0.0,4171.794922,4101.025879,4038.974365,4234.358886999999,4610.769043,0.0,3.0,73.0,,,,0.0,0.0,0.0,2.0,0.0,0.0,0.0,,,,,,,,,,,,,,,,,,,,,,,,,,,,,,,,,,,,,,,,,,,,,,,,,,,,,,,,,,,,,,,,,,,,,,,,,,,,,,,,,,,,
28561,1648952827.753381,1648952827.765296,112.0,0.0,4408.717772999999,4153.846191,4185.641113000001,4472.820313,4501.538574,450.0,3.0,73.0,,,,0.0,0.0,0.0,2.0,0.0,0.0,0.0,,,,,,,,56.0,0.0,0.857038,-0.06591799999999999,0.127441,0.49487299999999995,0.297856,-0.02002,-0.9863430000000001,0.00865,-0.026139999999999997,-0.024904,,,,,,,,,,,,,,,,,,,,,,,,,,,,,,,,,,,,,,,,,,,,,,,,,,,,,,,,,,,,,,,,,
28562,1648952827.7611961,1648952827.773011,113.0,0.0,4608.205078,4208.205078,4375.384765999999,4467.179688,4453.846191,450.0,3.0,73.0,,,,0.0,0.0,0.0,2.0,0.0,0.0,0.0,,,,,,,,,,,,,,,,,,,,1.0,0.0,0.0,,,,,,,,,,,,,,,,,,,,,,,,,,,,,,,,0.0,0.0,32.0,0.053474,1.0,0.0,2972.717773,1954.304199,1716.7324219999998,2816.3283690000003,5194.541504,4259.170897999999,2134.762695,363.62420699999996,319.72857700000003,278.190948,450.30120800000003,534.0175780000001,443.49179100000003,182.535355,520.911438,2578.575684,1642.9428710000002,1467.227783,2325.809814,4855.366699,3444.234131,1657.192261,1524.562866,2395.6604,4670.768555
28563,1648952827.76901,1648952827.780826,114.0,0.0,4470.256348,4476.922852000001,4368.717772999999,4152.820313,4537.436035,450.0,3.0,73.0,,,,0.0,0.0,0.0,2.0,0.0,0.0,0.0,,,,,,,,57.0,0.0,0.857002,-0.06591799999999999,0.127686,0.49487299999999995,0.29688000000000003,-0.0063479999999999995,-1.000992,0.009299,-0.026211,-0.028810000000000002,,,,,,,,,,,,,,,,,,,,,,,,,,,,,,,,,,,,,,,,,,,,,,,,,,,,,,,,,,,,,,,,,
28564,1648952827.776825,1648952827.788541,115.0,0.0,4449.230957,4613.333496,4437.436035,4288.717772999999,4435.897461,0.0,3.0,73.0,,,,0.0,0.0,0.0,2.0,0.0,0.0,0.0,,,,,,,,,,,,,,,,,,,,,,,,,,,,,,,,,,,,,,,,,,,,,,,,,,,,,,,,,,,,,,,,,,,,,,,,,,,,,,,,,,,,
28565,1648952827.7846391,1648952827.796355,116.0,0.0,4485.128418,4502.563965,4531.282227000001,4514.871582,4216.922852000001,450.0,3.0,73.0,,,,0.0,0.0,0.0,2.0,0.0,0.0,0.0,,,,,,,,58.0,0.0,0.857087,-0.066162,0.12793,0.494629,0.280278,-0.0058590000000000005,-0.978042,0.011299,-0.026226999999999997,-0.032326,,,,,,,,,,,,,,,,,,,,,,,,,,,,,,,,,,,,,,,,,,,,,,,,,,,,,,,,,,,,,,,,,
28566,1648952827.792454,1648952827.80407,117.0,0.0,4387.179688,4504.102539,4518.974121,4267.692383,4229.230957,450.0,3.0,73.0,,,,0.0,0.0,0.0,2.0,0.0,0.0,0.0,,,,,,,,,,,,,,,,,,,,,,,,,,,,,,,,,,,,,,,,,,,,,,,,,,,,,,0.0,0.0,32.0,0.053474,1.0,0.0,,,,,,,,,,,,,,,,,,,,,,,,,
28567,1648952827.800268,1648952827.811985,118.0,0.0,4431.794922,4476.922852000001,4368.205078,4072.3076170000004,4414.358886999999,450.0,3.0,73.0,,,,0.0,0.0,0.0,2.0,0.0,0.0,0.0,,,,,,,,59.0,0.0,0.857087,-0.066162,0.12793,0.494629,0.29736799999999997,-0.007324,-0.977554,0.011487,-0.026143,-0.03549,,,,,,,,,,,,,,,,,,,,,,,,,,,,,,,,,,,,,,,,,,,,,,,,,,,,,,,,,,,,,,,,,
28568,1648952827.808083,1648952827.8198,119.0,0.0,4688.205078,4303.589844,4238.461426,4333.846191,4417.94873,0.0,3.0,73.0,,,,0.0,0.0,0.0,2.0,0.0,0.0,0.0,,,,,,,,,,,,,,,,,,,,,,,,,,,,,,,,,,,,,,,,,,,,,,,,,,,,,,,,,,,,,,,,,,,,,,,,,,,,,,,,,,,,
28569,1648952827.815897,1648952827.827715,120.0,0.0,4667.179688,4568.205078,4289.743652,4458.461426,4358.974121,450.0,3.0,73.0,,,,0.0,0.0,0.0,2.0,0.0,0.0,0.0,,,,,,,,60.0,0.0,0.8569829999999999,-0.066162,0.127686,0.49487299999999995,0.31299299999999997,-0.01709,-0.978042,0.00863,-0.026262999999999998,-0.028767,,,,,,,,,,,,,,,,,,,,,,,,,,,,,,,,,,,,,,,,,,,,,,,,,,,,,,,,,,,,,,,,,
28570,1648952827.8237119,1648952827.83553,121.0,0.0,4488.717772999999,4851.794922,4546.666504,4221.025879,4357.94873,450.0,3.0,73.0,,,,0.0,0.0,0.0,2.0,0.0,0.0,0.0,,,,,,,,,,,,,,,,,,,,,,,,,,,,,,,,,,,,,,,,,,,,,,,,,,,,,,0.0,0.0,32.0,0.053474,1.0,0.0,,,,,,,,,,,,,,,,,,,,,,,,,
28571,1648952827.831526,1648952827.8434439,122.0,0.0,4455.384765999999,4570.769043,4501.025879,4226.666504,4346.153809,450.0,3.0,73.0,,,,0.0,0.0,0.0,2.0,0.0,0.0,0.0,,,,,,,,61.0,0.0,0.8570190000000001,-0.066162,0.127441,0.49487299999999995,0.288579,-0.023438,-0.9741360000000001,0.009085,-0.026225,-0.032287,,,,,,,,,,,,,,,,,,,,,,,,,,,,,,,,,,,,,,,,,,,,,,,,,,,,,,,,,,,,,,,,,
28572,1648952827.839341,1648952827.851259,123.0,0.0,4342.563965,4237.436035,4136.410156,4337.94873,4340.0,0.0,3.0,73.0,,,,0.0,0.0,0.0,2.0,0.0,0.0,0.0,,,,,,,,,,,,,,,,,,,,,,,,,,,,,,,,,,,,,,,,,,,,,,,,,,,,,,,,,,,,,,,,,,,,,,,,,,,,,,,,,,,,
28573,1648952827.847155,1648952827.859174,124.0,0.0,4314.871582,4364.615234000001,4237.94873,4206.153809,4328.205078,450.0,3.0,73.0,,,,0.0,0.0,0.0,2.0,0.0,0.0,0.0,,,,,,,,62.0,0.0,0.8569829999999999,-0.066162,0.127686,0.49487299999999995,0.280278,-0.014159999999999999,-0.98439,0.009593,-0.026239,-0.023003,,,,,,,,,,,,,,,,,,,,,,,,,,,,,,,,,,,,,,,,,,,,,,,,,,,,,,,,,,,,,,,,,
28574,1648952827.85497,1648952827.8669891,125.0,0.0,4501.538574,4462.563965,4327.692383,4117.94873,4479.487305,450.0,3.0,73.0,,,,0.0,0.0,0.0,2.0,0.0,0.0,0.0,,,,,,,,,,,,,,,,,,,,,,,,,,,,,,,,,,,,,,,,,,,,,,,,,,,,,,0.0,0.0,32.0,0.053474,1.0,0.0,,,,,,,,,,,,,,,,,,,,,,,,,
28575,1648952827.8627849,1648952827.874904,126.0,0.0,4713.846191,4407.692383,4250.769043,4343.077147999999,4583.589844,450.0,3.0,73.0,,,,0.0,0.0,0.0,2.0,0.0,0.0,0.0,,,,,,,,63.0,0.0,0.8569829999999999,-0.066162,0.127686,0.49487299999999995,0.29102,-0.010254000000000001,-0.983902,0.006973,-0.026251999999999998,-0.027148000000000002,,,,,,,,,,,,,,,,,,,,,,,,,,,,,,,,,,,,,,,,,,,,,,,,,,,,,,,,,,,,,,,,,
28576,1648952827.870599,1648952827.882719,127.0,0.0,4650.256348,4585.128418,4320.0,4278.974121,4423.589844,238.0,3.0,73.0,,,,0.0,0.0,0.0,2.0,0.0,0.0,0.0,,,,,,,,,,,,,,,,,,,,,,,,,,,,,,,,,,,,,,,,,,,,,,,,,,,,,,,,,,,,,,,,,,,,,,,,,,,,,,,,,,,,
28577,1648952827.8784142,1648952827.890633,0.0,0.0,4515.384765999999,4648.205078,4540.512695,4041.025635,4361.025879,450.0,3.0,73.0,,,,0.0,0.0,0.0,2.0,0.0,0.0,0.0,,,,,,,,0.0,0.0,0.8569459999999999,-0.066162,0.12793,0.49487299999999995,0.29102,-0.015137000000000001,-0.976089,0.009352,-0.026264,-0.030879000000000004,,,,,,,,,,,,,,,,,,,,,,,,,,,,,,,,,,,,,,,,,,,,,,,,,,,,,,,,,,,,,,,,,
28578,1648952827.8862278,1648952827.898448,1.0,0.0,4302.05127,4468.205078,4105.641113000001,4369.743652,4391.794922,450.0,3.0,73.0,,,,0.0,0.0,0.0,2.0,0.0,0.0,0.0,1.0,0.0,0.0,0.0,0.0,0.0,0.0,,,,,,,,,,,,,1.0,0.0,0.0,,,,,,,,,,,,,,,,,,,,,,,,,,,,,,,,0.0,0.0,32.0,0.101344,1.0,0.0,2197.578125,2349.72876,1752.4124760000002,2716.110596,5206.206055,4133.095703,1987.3500980000001,366.90768399999996,336.40045200000003,296.39614900000004,495.65188600000005,560.7025150000001,373.215088,199.757126,564.147095,2114.895752,2209.328125,1519.130493,2369.32373,4704.807617,2913.962891,1922.833252,1642.730225,2441.926514,4638.114258
28579,1648952827.894043,1648952827.906363,2.0,0.0,4106.666504,4359.487305,3770.256348,4772.307617,4442.563965,20.0,3.0,73.0,,,,0.0,0.0,0.0,2.0,0.0,0.0,0.0,,,,,,,,1.0,0.0,0.8569829999999999,-0.066162,0.127686,0.49487299999999995,0.304204,-0.016602000000000002,-0.975601,0.009882,-0.026323000000000003,-0.034138999999999996,,,,,,,,,,,,,,,,,,,,,,,,,,,,,,,,,,,,,,,,,,,,,,,,,,,,,,,,,,,,,,,,,
28580,1648952827.9018571,1648952827.914178,3.0,0.0,4124.102539,4237.436035,4124.615234000001,4428.717772999999,4455.897461,450.0,3.0,73.0,,,,0.0,0.0,0.0,2.0,0.0,0.0,0.0,,,,,,,,,,,,,,,,,,,,,,,,,,,,,,,,,,,,,,,,,,,,,,,,,,,,,,,,,,,,,,,,,,,,,,,,,,,,,,,,,,,,
28581,1648952827.909672,1648952827.921893,4.0,0.0,4301.538574,4193.333496,4064.615479,4191.794922,4523.077147999999,85.0,3.0,73.0,,,,0.0,0.0,1.0,2.0,0.0,0.0,0.0,,,,,,,,2.0,0.0,0.8569829999999999,-0.066162,0.127686,0.49487299999999995,0.29736799999999997,0.00293,-0.9799950000000001,0.01031,-0.026327,-0.027551,,,,,,,,,,,,,,,,,,,,,,,,,,,,,,,,,,,,,,,,,,,,,,,,,,,,,,,,,,,,,,,,,
28582,1648952827.917487,1648952827.929708,5.0,0.0,4384.102539,4378.461426,4003.5898439999996,4543.589844,4486.666504,450.0,3.0,73.0,,,,0.0,0.0,1.0,2.0,0.0,0.0,0.0,,,,,,,,,,,,,,,,,,,,,,,,,,,,,,,,,,,,,,,,,,,,,,,,,,,,,,0.0,0.0,32.0,0.101344,1.0,0.0,,,,,,,,,,,,,,,,,,,,,,,,,
28583,1648952827.925301,1648952827.937623,6.0,0.0,4224.102539,4200.0,3951.281982,4466.153809,4449.230957,5.0,3.0,73.0,,,,0.0,0.0,1.0,0.0,0.0,0.0,0.0,,,,,,,,3.0,0.0,0.8569829999999999,-0.066162,0.127686,0.49487299999999995,0.295903,-0.014159999999999999,-0.9858549999999999,0.010695,-0.026282999999999997,-0.031192,,,,,,,,,,,,,,,,,,,,,,,,,,,,,,,,,,,,,,,,,,,,,,,,,,,,,,,,,,,,,,,,,
28584,1648952827.933116,1648952827.945437,7.0,0.0,4107.692383,4073.8461909999996,4206.666504,3998.461426,4405.128418,450.0,3.0,73.0,,,,0.0,0.0,1.0,0.0,0.0,0.0,0.0,,,,,,,,,,,,,,,,,,,,,,,,,,,,,,,,,,,,,,,,,,,,,,,,,,,,,,,,,,,,,,,,,,,,,,,,,,,,,,,,,,,,
28585,1648952827.9409301,1648952827.953152,8.0,0.0,4279.487305,4451.794922,4128.717772999999,4200.512695,4267.179688,450.0,3.0,73.0,,,,0.0,0.0,1.0,0.0,1.0,0.0,0.0,,,,,,,,4.0,0.0,0.8569459999999999,-0.066162,0.12793,0.49487299999999995,0.291508,-0.0043950000000000005,-0.989273,0.007867,-0.026242,-0.024899,,,,,,,,,,,,,,,,,,,,,,,,,,,,,,,,,,,,,,,,,,,,,,,,,,,,,,,,,,,,,,,,,
28586,1648952827.948745,1648952827.960967,9.0,0.0,4416.410156,4564.102539,4090.7692869999996,4589.743652,4349.230957,52.0,3.0,73.0,,,,0.0,0.0,1.0,0.0,1.0,0.0,0.0,,,,,,,,,,,,,,,,,,,,,,,,,,,,,,,,,,,,,,,,,,,,,,,,,,,,,,0.0,0.0,32.0,0.101344,1.0,0.0,,,,,,,,,,,,,,,,,,,,,,,,,
28587,1648952827.956559,1648952827.968682,10.0,0.0,4395.897461,4381.025879,3873.8461909999996,4371.282227000001,4461.025879,450.0,3.0,73.0,,,,0.0,0.0,1.0,0.0,1.0,1.0,8.333333,,,,,,,,5.0,0.0,0.8569459999999999,-0.066162,0.12793,0.49487299999999995,0.29102,-0.008301000000000001,-0.980484,0.008448,-0.026206,-0.028904000000000003,,,,,,,,,,,,,,,,,,,,,,,,,,,,,,,,,,,,,,,,,,,,,,,,,,,,,,,,,,,,,,,,,
28588,1648952827.964374,1648952827.9764972,11.0,0.0,4447.179688,4444.615234000001,4036.923096,4191.282227000001,4494.871582,98.0,3.0,73.0,,,,0.0,0.0,1.0,0.0,1.0,1.0,8.333333,,,,,,,,,,,,,,,,,,,,,,,,,,,,,,,,,,,,,,,,,,,,,,,,,,,,,,,,,,,,,,,,,,,,,,,,,,,,,,,,,,,,
28589,1648952827.972188,1648952827.984212,12.0,0.0,4468.717772999999,4351.794922,4330.256348,4340.512695,4456.922852000001,450.0,3.0,73.0,,,,0.0,0.0,1.0,0.0,1.0,1.0,8.333333,,,,,,,,6.0,0.0,0.8569459999999999,-0.066162,0.12793,0.49487299999999995,0.29639099999999996,-0.006836,-0.973648,0.008921,-0.026173000000000002,-0.019861,,,,,,,,,,,,,,,,,,,,,,,,,,,,,,,,,,,,,,,,,,,,,,,,,,,,,,,,,,,,,,,,,
28590,1648952827.9800029,1648952827.992027,13.0,0.0,4391.282227000001,4256.922852000001,4207.179688,4366.666504,4391.282227000001,450.0,3.0,73.0,,,,0.0,0.0,1.0,0.0,1.0,1.0,8.333333,,,,,,,,,,,,,,,,,,,,,,,,,,,,,,,,,,,,,,,,,,,,,,,,,,,,,,0.0,0.0,32.0,0.101344,1.0,0.0,,,,,,,,,,,,,,,,,,,,,,,,,
28591,1648952827.987817,1648952827.999741,14.0,0.0,4407.179688,4463.077147999999,4186.666504,4207.692383,4421.538574,450.0,3.0,73.0,,,,0.0,0.0,1.0,0.0,1.0,1.0,8.333333,,,,,,,,7.0,0.0,0.8569829999999999,-0.066162,0.127686,0.49487299999999995,0.290532,-0.014649,-0.969253,0.009592,-0.026193,-0.024271,,,,,,,,,,,,,,,,,,,,,,,,,,,,,,,,,,,,,,,,,,,,,,,,,,,,,,,,,,,,,,,,,
28592,1648952827.995632,1648952828.007556,15.0,0.0,4503.589844,4444.615234000001,4300.0,4328.717772999999,4500.512695,98.0,3.0,73.0,,,,0.0,0.0,1.0,0.0,1.0,1.0,8.333333,,,,,,,,,,,,,,,,,,,,,,,,,,,,,,,,,,,,,,,,,,,,,,,,,,,,,,,,,,,,,,,,,,,,,,,,,,,,,,,,,,,,
28593,1648952828.003446,1648952828.0152712,16.0,0.0,4405.128418,4366.153809,4378.461426,4375.897461,4442.05127,0.0,3.0,73.0,,,,0.0,0.0,1.0,0.0,1.0,1.0,8.333333,,,,,,,,8.0,0.0,0.8569829999999999,-0.066162,0.127686,0.49487299999999995,0.284672,-0.001953,-0.995132,0.008437,-0.026161,-0.018622,,,,,,,,,,,,,,,,,,,,,,,,,,,,,,,,,,,,,,,,,,,,,,,,,,,,,,,,,,,,,,,,,
28594,1648952828.011261,1648952828.0230849,17.0,0.0,4345.128418,4642.563965,4225.641113000001,4137.94873,4308.717772999999,0.0,3.0,73.0,,,,0.0,0.0,1.0,0.0,1.0,1.0,8.333333,,,,,,,,,,,,,,,,,,,,1.0,0.0,0.0,,,,,,,,,,,,,,,,,,,,,,,,,,,,,,,,0.0,0.0,32.0,0.09588200000000001,1.0,0.0,1615.602051,2630.159424,1771.7210690000002,2610.091064,5077.654297,3878.546387,1815.9470210000002,415.465851,367.34552,312.077087,508.992035,570.653625,348.995697,242.680023,589.267212,1711.035645,2721.563477,1514.883911,2425.6872559999997,4498.020996,2379.67749,2139.079102,1687.932861,2484.394531,4492.919434
28595,1648952828.0190759,1648952828.0308,18.0,0.0,4409.743652,4621.025879,4180.512695,4074.358887,4458.974121,0.0,3.0,73.0,,,,0.0,0.0,1.0,0.0,1.0,1.0,8.333333,,,,,,,,9.0,0.0,0.8569829999999999,-0.066162,0.127686,0.49487299999999995,0.282719,-0.019532,-0.99025,0.009009999999999999,-0.026231,-0.023058000000000002,,,,,,,,,,,,,,,,,,,,,,,,,,,,,,,,,,,,,,,,,,,,,,,,,,,,,,,,,,,,,,,,,
28596,1648952828.02689,1648952828.0387151,19.0,0.0,4569.230957,4309.743652,4065.1281740000004,4377.436035,4636.922852000001,0.0,3.0,73.0,,,,0.0,0.0,1.0,0.0,1.0,1.0,8.333333,,,,,,,,,,,,,,,,,,,,,,,,,,,,,,,,,,,,,,,,,,,,,,,,,,,,,,,,,,,,,,,,,,,,,,,,,,,,,,,,,,,,
28597,1648952828.0347052,1648952828.04653,20.0,0.0,4574.871582,4370.256348,4052.3076170000004,4384.102539,4421.025879,0.0,3.0,73.0,,,,0.0,0.0,1.0,0.0,1.0,1.0,8.333333,,,,,,,,10.0,0.0,0.8569829999999999,-0.066162,0.127686,0.49487299999999995,0.287114,0.001953,-0.9922030000000001,0.009574,-0.026293,-0.027198000000000003,,,,,,,,,,,,,,,,,,,,,,,,,,,,,,,,,,,,,,,,,,,,,,,,,,,,,,,,,,,,,,,,,
28598,1648952828.0425189,1648952828.054345,21.0,0.0,4444.615234000001,4428.717772999999,4201.538574,4093.3332520000004,4256.922852000001,0.0,3.0,73.0,,,,0.0,0.0,1.0,0.0,1.0,1.0,8.333333,,,,,,,,,,,,,,,,,,,,,,,,,,,,,,,,,,,,,,,,,,,,,,,,,,,,,,0.0,0.0,32.0,0.09588200000000001,1.0,0.0,,,,,,,,,,,,,,,,,,,,,,,,,
28599,1648952828.050334,1648952828.062059,22.0,0.0,4329.230957,4301.025879,4300.512695,4294.358886999999,4329.230957,0.0,3.0,73.0,,,,0.0,0.0,1.0,0.0,1.0,1.0,8.333333,,,,,,,,11.0,0.0,0.8569829999999999,-0.066162,0.127686,0.49487299999999995,0.297856,-0.012206999999999999,-0.978042,0.008372,-0.026202999999999997,-0.021304,,,,,,,,,,,,,,,,,,,,,,,,,,,,,,,,,,,,,,,,,,,,,,,,,,,,,,,,,,,,,,,,,
28600,1648952828.0581481,1648952828.069974,23.0,0.0,4293.846191,4451.794922,4183.077147999999,4573.333496,4409.743652,0.0,3.0,73.0,,,,0.0,0.0,1.0,0.0,1.0,1.0,8.333333,,,,,,,,,,,,,,,,,,,,,,,,,,,,,,,,,,,,,,,,,,,,,,,,,,,,,,,,,,,,,,,,,,,,,,,,,,,,,,,,,,,,
28601,1648952828.065963,1648952828.077789,24.0,0.0,4314.358886999999,4554.358886999999,4256.410156,4259.487305,4425.641113000001,0.0,3.0,73.0,,,,0.0,0.0,1.0,0.0,1.0,1.0,8.333333,,,,,,,,12.0,0.0,0.8569829999999999,-0.066162,0.127686,0.49487299999999995,0.286137,-0.0063479999999999995,-0.9868309999999999,0.007437,-0.026073000000000002,-0.025619,,,,,,,,,,,,,,,,,,,,,,,,,,,,,,,,,,,,,,,,,,,,,,,,,,,,,,,,,,,,,,,,,
28602,1648952828.073778,1648952828.0857038,25.0,0.0,4385.128418,4310.256348,4201.025879,4129.230957,4475.897461,0.0,3.0,73.0,,,,0.0,0.0,1.0,0.0,1.0,1.0,8.333333,,,,,,,,,,,,,,,,,,,,,,,,,,,,,,,,,,,,,,,,,,,,,,,,,,,,,,0.0,0.0,32.0,0.09588200000000001,1.0,0.0,,,,,,,,,,,,,,,,,,,,,,,,,
28603,1648952828.081592,1648952828.093519,26.0,0.0,4545.641113000001,4342.05127,4013.8461909999996,4535.384765999999,4477.94873,0.0,3.0,73.0,,,,0.0,0.0,1.0,0.0,1.0,1.0,8.333333,,,,,,,,13.0,0.0,0.8569829999999999,-0.066162,0.127686,0.49487299999999995,0.304692,0.000488,-0.973159,0.009623,-0.026054,-0.029502999999999998,,,,,,,,,,,,,,,,,,,,,,,,,,,,,,,,,,,,,,,,,,,,,,,,,,,,,,,,,,,,,,,,,
28604,1648952828.089407,1648952828.101434,27.0,0.0,4411.794922,4390.769043,4046.6667479999996,4481.538574,4414.358886999999,0.0,3.0,73.0,,,,0.0,0.0,1.0,0.0,1.0,1.0,8.333333,,,,,,,,,,,,,,,,,,,,,,,,,,,,,,,,,,,,,,,,,,,,,,,,,,,,,,,,,,,,,,,,,,,,,,,,,,,,,,,,,,,,
28605,1648952828.0972211,1648952828.109348,28.0,0.0,4105.641113000001,4206.153809,4005.641113,4067.179443,4473.333496,0.0,3.0,73.0,,,,0.0,0.0,1.0,0.0,1.0,1.0,8.333333,,,,,,,,14.0,0.0,0.8569829999999999,-0.066162,0.127686,0.49487299999999995,0.308598,-0.018555000000000002,-0.980484,0.010126000000000001,-0.026036,-0.032949,,,,,,,,,,,,,,,,,,,,,,,,,,,,,,,,,,,,,,,,,,,,,,,,,,,,,,,,,,,,,,,,,
28606,1648952828.105036,1648952828.1171632,29.0,0.0,4224.102539,4368.717772999999,3865.641113,4249.743652,4385.128418,0.0,3.0,73.0,,,,0.0,0.0,1.0,0.0,1.0,1.0,8.333333,,,,,,,,,,,,,,,,,,,,,,,,,,,,,,,,,,,,,,,,,,,,,,,,,,,,,,0.0,0.0,32.0,0.09588200000000001,1.0,0.0,,,,,,,,,,,,,,,,,,,,,,,,,
28607,1648952828.11285,1648952828.125078,30.0,0.0,4493.846191,4562.563965,3986.6667479999996,4623.077147999999,4354.358886999999,0.0,3.0,73.0,,,,0.0,0.0,1.0,0.0,1.0,1.0,8.333333,,,,,,,,15.0,0.0,0.8569829999999999,-0.066162,0.127686,0.49487299999999995,0.307134,-0.009276999999999999,-0.9824370000000001,0.007502,-0.025972000000000002,-0.02648,,,,,,,,,,,,,,,,,,,,,,,,,,,,,,,,,,,,,,,,,,,,,,,,,,,,,,,,,,,,,,,,,
28608,1648952828.120665,1648952828.132893,31.0,0.0,4407.692383,4372.820313,4278.974121,4386.153809,4392.307617,0.0,3.0,73.0,,,,0.0,0.0,1.0,0.0,1.0,1.0,8.333333,,,,,,,,,,,,,,,,,,,,,,,,,,,,,,,,,,,,,,,,,,,,,,,,,,,,,,,,,,,,,,,,,,,,,,,,,,,,,,,,,,,,
28609,1648952828.128479,1648952828.140808,32.0,0.0,4370.256348,4361.538574,4145.641113000001,4234.871582,4481.025879,0.0,3.0,73.0,,,,0.0,0.0,1.0,0.0,1.0,1.0,8.333333,,,,,,,,16.0,0.0,0.8569829999999999,-0.066162,0.127686,0.49487299999999995,0.298833,-0.001465,-0.9751129999999999,0.008168,-0.025865,-0.030180000000000002,,,,,,,,,,,,,,,,,,,,,,,,,,,,,,,,,,,,,,,,,,,,,,,,,,,,,,,,,,,,,,,,,
28610,1648952828.136294,1648952828.148623,33.0,0.0,4449.230957,4439.487305,4128.205078,4431.794922,4477.94873,0.0,3.0,73.0,,,,0.0,0.0,1.0,0.0,1.0,1.0,8.333333,,,,,,,,,,,,,,,,,,,,1.0,0.0,0.0,,,,,,,,,,,,,,,,,,,,,,,,,,,,,,,,0.0,0.0,32.0,0.088871,1.0,0.0,1265.9907230000001,2709.538086,1706.910522,2455.95459,4739.944336,3518.9045409999994,1585.63623,499.711975,399.90731800000003,318.15869100000003,484.112274,544.0917969999999,359.10025,299.815796,584.380066,1416.615845,3019.473145,1390.0688480000001,2402.544922,4180.767578,1902.957275,2224.1298829999996,1612.685303,2431.2341309999997,4181.640136999999
28611,1648952828.144108,1648952828.1565368,34.0,0.0,4312.820313,4328.205078,4196.410156,4372.820313,4383.077147999999,0.0,3.0,73.0,,,,0.0,0.0,1.0,0.0,1.0,1.0,8.333333,,,,,,,,17.0,0.0,0.8569829999999999,-0.066162,0.127686,0.49487299999999995,0.290044,-0.011719,-0.969253,0.010281,-0.025914999999999997,-0.033607,,,,,,,,,,,,,,,,,,,,,,,,,,,,,,,,,,,,,,,,,,,,,,,,,,,,,,,,,,,,,,,,,
28612,1648952828.151923,1648952828.164352,35.0,0.0,4270.256348,4449.743652,4022.0512700000004,4080.0,4396.410156,0.0,3.0,73.0,,,,0.0,0.0,1.0,0.0,1.0,1.0,8.333333,,,,,,,,,,,,,,,,,,,,,,,,,,,,,,,,,,,,,,,,,,,,,,,,,,,,,,,,,,,,,,,,,,,,,,,,,,,,,,,,,,,,
28613,1648952828.1597369,1648952828.172267,36.0,0.0,4467.692383,4447.692383,3992.820557,4267.179688,4480.512695,0.0,3.0,73.0,,,,0.0,0.0,1.0,0.0,1.0,1.0,8.333333,,,,,,,,18.0,0.0,0.8569829999999999,-0.066162,0.127686,0.49487299999999995,0.300298,-0.016114,-0.996597,0.010766,-0.025814,-0.036594,,,,,,,,,,,,,,,,,,,,,,,,,,,,,,,,,,,,,,,,,,,,,,,,,,,,,,,,,,,,,,,,,
28614,1648952828.167552,1648952828.180082,37.0,0.0,4406.153809,4205.128418,4302.05127,4601.025879,4448.205078,0.0,3.0,73.0,,,,0.0,0.0,1.0,0.0,1.0,1.0,8.333333,,,,,,,,,,,,,,,,,,,,,,,,,,,,,,,,,,,,,,,,,,,,,,,,,,,,,,0.0,0.0,32.0,0.088871,1.0,0.0,,,,,,,,,,,,,,,,,,,,,,,,,
28615,1648952828.1753669,1648952828.187997,38.0,0.0,4274.358886999999,4408.717772999999,4421.025879,4402.563965,4342.563965,0.0,3.0,73.0,,,,0.0,0.0,1.0,0.0,1.0,1.0,8.333333,,,,,,,,19.0,0.0,0.8569829999999999,-0.066162,0.127686,0.49487299999999995,0.286625,-0.02295,-0.981949,0.011008,-0.02582,-0.029615,,,,,,,,,,,,,,,,,,,,,,,,,,,,,,,,,,,,,,,,,,,,,,,,,,,,,,,,,,,,,,,,,
28616,1648952828.183181,1648952828.195812,39.0,0.0,4348.205078,4648.717772999999,4376.922852000001,4034.8718259999996,4476.410156,0.0,3.0,73.0,,,,0.0,0.0,1.0,0.0,1.0,1.0,8.333333,,,,,,,,,,,,,,,,,,,,,,,,,,,,,,,,,,,,,,,,,,,,,,,,,,,,,,,,,,,,,,,,,,,,,,,,,,,,,,,,,,,,
28617,1648952828.1909962,1648952828.203726,40.0,0.0,4495.384765999999,4348.205078,4433.846191,4190.256348,4668.717772999999,0.0,3.0,73.0,,,,0.0,0.0,1.0,0.0,1.0,1.0,8.333333,,,,,,,,20.0,0.0,0.8569829999999999,-0.066162,0.127686,0.49487299999999995,0.290044,-0.011719,-0.969253,0.008149,-0.025776999999999998,-0.02343,,,,,,,,,,,,,,,,,,,,,,,,,,,,,,,,,,,,,,,,,,,,,,,,,,,,,,,,,,,,,,,,,
28618,1648952828.1988099,1648952828.211641,41.0,0.0,4489.743652,4251.794922,4255.384765999999,4544.102539,4517.436035,0.0,3.0,73.0,,,,0.0,0.0,1.0,0.0,1.0,1.0,8.333333,,,,,,,,,,,,,,,,,,,,,,,,,,,,,,,,,,,,,,,,,,,,,,,,,,,,,,0.0,0.0,32.0,0.088871,1.0,0.0,,,,,,,,,,,,,,,,,,,,,,,,,
28619,1648952828.206625,1648952828.219456,42.0,0.0,4382.563965,4523.077147999999,4047.6923829999996,4334.871582,4310.256348,0.0,3.0,73.0,,,,0.0,0.0,1.0,0.0,1.0,1.0,8.333333,,,,,,,,21.0,0.0,0.8569829999999999,-0.066162,0.127686,0.49487299999999995,0.286625,-0.02295,-0.981949,0.008653000000000001,-0.025788,-0.017766999999999998,,,,,,,,,,,,,,,,,,,,,,,,,,,,,,,,,,,,,,,,,,,,,,,,,,,,,,,,,,,,,,,,,
28620,1648952828.2144392,1648952828.2273722,43.0,0.0,4381.025879,4482.05127,4296.410156,4179.487305,4342.563965,0.0,3.0,73.0,,,,0.0,0.0,1.0,0.0,1.0,1.0,8.333333,,,,,,,,,,,,,,,,,,,,,,,,,,,,,,,,,,,,,,,,,,,,,,,,,,,,,,,,,,,,,,,,,,,,,,,,,,,,,,,,,,,,
28621,1648952828.2222538,1648952828.2351868,44.0,0.0,4385.641113000001,4463.589844,4507.179688,4435.897461,4410.256348,0.0,3.0,73.0,,,,0.0,0.0,1.0,0.0,1.0,1.0,8.333333,,,,,,,,22.0,0.0,0.8569829999999999,-0.066162,0.127686,0.49487299999999995,0.290044,-0.013672,-0.9799950000000001,0.009204,-0.025797000000000004,-0.022387,,,,,,,,,,,,,,,,,,,,,,,,,,,,,,,,,,,,,,,,,,,,,,,,,,,,,,,,,,,,,,,,,
28622,1648952828.230069,1648952828.2431018,45.0,0.0,4373.333496,4625.128418,4400.512695,4328.205078,4382.05127,0.0,3.0,73.0,,,,0.0,0.0,1.0,0.0,1.0,1.0,8.333333,,,,,,,,,,,,,,,,,,,,,,,,,,,,,,,,,,,,,,,,,,,,,,,,,,,,,,0.0,0.0,32.0,0.088871,1.0,0.0,,,,,,,,,,,,,,,,,,,,,,,,,
28623,1648952828.237883,1648952828.250917,46.0,0.0,4324.615234000001,4414.358886999999,4270.769043,4102.563965,4435.384765999999,0.0,3.0,73.0,,,,0.0,0.0,1.0,0.0,1.0,1.0,8.333333,,,,,,,,23.0,0.0,0.8569829999999999,-0.066162,0.127686,0.49487299999999995,0.293462,-0.008301000000000001,-0.969253,0.009797,-0.025707,-0.026496,,,,,,,,,,,,,,,,,,,,,,,,,,,,,,,,,,,,,,,,,,,,,,,,,,,,,,,,,,,,,,,,,
28624,1648952828.245698,1648952828.258832,47.0,0.0,4538.974121,4234.871582,4197.436035,4426.153809,4508.205078,0.0,3.0,73.0,,,,0.0,0.0,1.0,0.0,1.0,1.0,8.333333,,,,,,,,,,,,,,,,,,,,,,,,,,,,,,,,,,,,,,,,,,,,,,,,,,,,,,,,,,,,,,,,,,,,,,,,,,,,,,,,,,,,
28625,1648952828.253512,1648952828.266647,48.0,0.0,4667.179688,4333.333496,4115.384765999999,4529.230957,4371.282227000001,0.0,3.0,73.0,,,,0.0,0.0,1.0,0.0,1.0,1.0,8.333333,,,,,,,,24.0,0.0,0.8569829999999999,-0.066162,0.127686,0.49487299999999995,0.303227,-0.012695999999999999,-0.9834129999999999,0.011747,-0.025773,-0.030243,,,,,,,,,,,,,,,,,,,,,,,,,,,,,,,,,,,,,,,,,,,,,,,,,,,,,,,,,,,,,,,,,
28626,1648952828.261327,1648952828.274562,49.0,0.0,4369.743652,4267.179688,3936.4101560000004,4218.461426,4375.384765999999,0.0,3.0,73.0,,,,0.0,0.0,1.0,0.0,1.0,1.0,8.333333,,,,,,,,,,,,,,,,,,,,1.0,0.0,0.0,,,,,,,,,,,,,,,,,,,,,,,,,,,,,,,,0.0,0.0,32.0,0.057232000000000005,1.0,0.0,1085.0311279999999,2558.9372559999997,1552.1557619999999,2210.108643,4166.966797,3077.8823239999997,1309.45874,596.152161,428.061646,312.490753,433.607391,477.694519,377.138275,352.397278,545.488342,1217.005615,3010.784912,1156.623535,2222.607666,3718.1049799999996,1495.170166,2124.0078129999997,1429.840942,2212.7919920000004,3679.755371
28627,1648952828.269141,1648952828.282377,50.0,0.0,4229.230957,4298.974121,4001.025635,4284.102539,4375.897461,0.0,3.0,73.0,,,,0.0,0.0,1.0,0.0,1.0,1.0,8.333333,,,,,,,,25.0,0.0,0.8569829999999999,-0.066162,0.127686,0.49487299999999995,0.30811,-0.003418,-0.972183,0.008912,-0.025735,-0.023898,,,,,,,,,,,,,,,,,,,,,,,,,,,,,,,,,,,,,,,,,,,,,,,,,,,,,,,,,,,,,,,,,
28628,1648952828.276956,1648952828.290191,51.0,0.0,4463.589844,4481.025879,4147.179688,4505.641113000001,4382.05127,0.0,3.0,73.0,,,,0.0,0.0,1.0,0.0,1.0,1.0,8.333333,,,,,,,,,,,,,,,,,,,,,,,,,,,,,,,,,,,,,,,,,,,,,,,,,,,,,,,,,,,,,,,,,,,,,,,,,,,,,,,,,,,,
28629,1648952828.28477,1648952828.298106,52.0,0.0,4443.077147999999,4485.128418,4128.205078,4271.794922,4421.025879,0.0,3.0,73.0,,,,0.0,0.0,1.0,0.0,1.0,1.0,8.333333,,,,,,,,26.0,0.0,0.8569829999999999,-0.066162,0.127686,0.49487299999999995,0.289067,0.001465,-0.976089,0.007826000000000001,-0.025847000000000002,-0.030835,,,,,,,,,,,,,,,,,,,,,,,,,,,,,,,,,,,,,,,,,,,,,,,,,,,,,,,,,,,,,,,,,
28630,1648952828.292585,1648952828.306021,53.0,0.0,4280.512695,4509.230957,4058.461426,4241.538574,4415.384765999999,0.0,3.0,73.0,,,,0.0,0.0,1.0,0.0,1.0,1.0,8.333333,,,,,,,,,,,,,,,,,,,,,,,,,,,,,,,,,,,,,,,,,,,,,,,,,,,,,,0.0,0.0,32.0,0.057232000000000005,1.0,0.0,,,,,,,,,,,,,,,,,,,,,,,,,
28631,1648952828.300399,1648952828.3138359,54.0,0.0,4372.307617,4498.974121,4250.769043,4535.384765999999,4343.589844,0.0,3.0,73.0,,,,0.0,0.0,1.0,0.0,1.0,1.0,8.333333,,,,,,,,27.0,0.0,0.8569829999999999,-0.066162,0.127686,0.49487299999999995,0.298344,-0.02002,-0.979507,0.008556999999999999,-0.025899000000000002,-0.034099000000000004,,,,,,,,,,,,,,,,,,,,,,,,,,,,,,,,,,,,,,,,,,,,,,,,,,,,,,,,,,,,,,,,,
28632,1648952828.308214,1648952828.3217509,55.0,0.0,4378.461426,4404.102539,4270.256348,4428.205078,4317.94873,0.0,3.0,73.0,,,,0.0,0.0,1.0,0.0,1.0,1.0,8.333333,,,,,,,,,,,,,,,,,,,,,,,,,,,,,,,,,,,,,,,,,,,,,,,,,,,,,,,,,,,,,,,,,,,,,,,,,,,,,,,,,,,,
28633,1648952828.3160279,1648952828.329566,56.0,0.0,4288.205078,4555.384765999999,4109.230957,4055.384521,4544.615234000001,0.0,3.0,73.0,,,,0.0,0.0,1.0,0.0,1.0,1.0,8.333333,,,,,,,,28.0,0.0,0.8569829999999999,-0.066162,0.127686,0.49487299999999995,0.290532,-0.016114,-0.9858549999999999,0.009117,-0.025945999999999997,-0.037135,,,,,,,,,,,,,,,,,,,,,,,,,,,,,,,,,,,,,,,,,,,,,,,,,,,,,,,,,,,,,,,,,
28634,1648952828.323843,1648952828.33748,57.0,0.0,4455.897461,4565.128418,4234.871582,4152.820313,4682.563965,0.0,3.0,73.0,,,,0.0,0.0,1.0,0.0,1.0,1.0,8.333333,,,,,,,,,,,,,,,,,,,,,,,,,,,,,,,,,,,,,,,,,,,,,,,,,,,,,,0.0,0.0,32.0,0.057232000000000005,1.0,0.0,,,,,,,,,,,,,,,,,,,,,,,,,
28635,1648952828.3316581,1648952828.345295,58.0,0.0,4509.230957,4373.846191,4198.974121,4485.128418,4488.717772999999,0.0,3.0,73.0,,,,0.0,0.0,1.0,0.0,1.0,1.0,8.333333,,,,,,,,29.0,0.0,0.8569829999999999,-0.066162,0.127686,0.49487299999999995,0.29688000000000003,-0.018555000000000002,-0.984878,0.009524,-0.025988,-0.030198000000000003,,,,,,,,,,,,,,,,,,,,,,,,,,,,,,,,,,,,,,,,,,,,,,,,,,,,,,,,,,,,,,,,,
28636,1648952828.339472,1648952828.35321,59.0,0.0,4371.282227000001,4571.794922,4005.641113,4360.0,4293.333496,0.0,3.0,73.0,,,,0.0,0.0,1.0,0.0,1.0,1.0,8.333333,,,,,,,,,,,,,,,,,,,,,,,,,,,,,,,,,,,,,,,,,,,,,,,,,,,,,,,,,,,,,,,,,,,,,,,,,,,,,,,,,,,,
28637,1648952828.347287,1648952828.361125,60.0,0.0,4398.974121,4611.282227000001,4182.563965,4250.769043,4388.205078,0.0,3.0,73.0,,,,0.0,0.0,1.0,0.0,1.0,1.0,8.333333,,,,,,,,30.0,0.0,0.8569829999999999,-0.066162,0.127686,0.49487299999999995,0.287602,-0.014649,-0.9673,0.006959999999999999,-0.026026,-0.024005000000000002,,,,,,,,,,,,,,,,,,,,,,,,,,,,,,,,,,,,,,,,,,,,,,,,,,,,,,,,,,,,,,,,,
28638,1648952828.3551009,1648952828.36894,61.0,0.0,4363.589844,4373.333496,4423.077147999999,4322.05127,4464.615234000001,0.0,3.0,73.0,,,,0.0,0.0,1.0,0.0,1.0,1.0,8.333333,,,,,,,,,,,,,,,,,,,,,,,,,,,,,,,,,,,,,,,,,,,,,,,,,,,,,,0.0,0.0,32.0,0.057232000000000005,1.0,0.0,,,,,,,,,,,,,,,,,,,,,,,,,
28639,1648952828.362916,1648952828.3768551,62.0,0.0,4283.589844,4537.436035,4340.0,4258.461426,4378.974121,0.0,3.0,73.0,,,,0.0,0.0,1.0,0.0,1.0,1.0,8.333333,,,,,,,,31.0,0.0,0.8569829999999999,-0.066162,0.127686,0.49487299999999995,0.29395,-0.016602000000000002,-0.980484,0.007631000000000001,-0.025914,-0.02805,,,,,,,,,,,,,,,,,,,,,,,,,,,,,,,,,,,,,,,,,,,,,,,,,,,,,,,,,,,,,,,,,
28640,1648952828.3707302,1648952828.38467,63.0,0.0,4353.333496,4566.153809,4217.94873,4152.820313,4477.94873,0.0,3.0,73.0,,,,0.0,0.0,1.0,0.0,1.0,1.0,8.333333,,,,,,,,,,,,,,,,,,,,,,,,,,,,,,,,,,,,,,,,,,,,,,,,,,,,,,,,,,,,,,,,,,,,,,,,,,,,,,,,,,,,
28641,1648952828.3785448,1648952828.392485,64.0,0.0,4607.692383,4290.769043,4193.846191,4285.641113000001,4615.897461,450.0,3.0,73.0,,,,0.0,0.0,1.0,0.0,1.0,1.0,8.333333,,,,,,,,32.0,0.0,0.8569829999999999,-0.066162,0.127686,0.49487299999999995,0.293462,-0.018067,-0.9799950000000001,0.008333,-0.025862,-0.031592,,,,,,,,,,,,,,,,,,,,,,,,,,,,,,,,,,,,,,,,,,,,,,,,,,,,,,,,,,,,,,,,,
28642,1648952828.38636,1648952828.4004,65.0,0.0,4586.666504,4301.025879,4149.230957,4376.410156,4413.846191,450.0,3.0,73.0,,,,0.0,0.0,1.0,0.0,1.0,1.0,8.333333,1.0,0.0,0.0,0.0,0.0,0.0,0.0,,,,,,,,,,,,,1.0,0.0,0.0,,,,,,,,,,,,,,,,,,,,,,,,,,,,,,,,0.0,0.0,32.0,0.064299,1.0,0.0,980.5786130000001,2202.337158,1335.510132,1866.4315190000002,3397.663086,2587.406982,1024.961426,662.057312,446.16552699999994,296.570129,389.020233,384.56897000000004,378.324432,382.169891,478.125061,1063.467529,2692.253906,878.742249,1873.529541,3120.337646,1144.835083,1838.002075,1185.361084,1827.8959960000002,3011.403809
28643,1648952828.394174,1648952828.408215,66.0,0.0,4357.436035,4378.974121,4038.461426,4311.794922,4246.666504,0.0,3.0,73.0,,,,0.0,0.0,1.0,0.0,1.0,1.0,8.333333,,,,,,,,33.0,0.0,0.8569829999999999,-0.066162,0.127686,0.49487299999999995,0.300298,-0.014159999999999999,-0.98439,0.008867,-0.025814999999999998,-0.034781,,,,,,,,,,,,,,,,,,,,,,,,,,,,,,,,,,,,,,,,,,,,,,,,,,,,,,,,,,,,,,,,,
28644,1648952828.401989,1648952828.41613,67.0,0.0,4281.025879,4370.256348,4059.487061,4391.282227000001,4256.410156,450.0,3.0,73.0,,,,0.0,0.0,0.0,0.0,1.0,1.0,0.0,,,,,,,,,,,,,,,,,,,,,,,,,,,,,,,,,,,,,,,,,,,,,,,,,,,,,,,,,,,,,,,,,,,,,,,,,,,,,,,,,,,,
28645,1648952828.409803,1648952828.423945,68.0,0.0,4324.102539,4542.563965,4161.025879,4511.282227000001,4392.307617,0.0,3.0,73.0,,,,0.0,0.0,0.0,0.0,1.0,1.0,0.0,,,,,,,,34.0,0.0,0.8569459999999999,-0.066162,0.12793,0.49487299999999995,0.30811,-0.012206999999999999,-0.9716950000000001,0.007931,-0.025869999999999997,-0.028129,,,,,,,,,,,,,,,,,,,,,,,,,,,,,,,,,,,,,,,,,,,,,,,,,,,,,,,,,,,,,,,,,
28646,1648952828.417618,1648952828.43186,69.0,0.0,4304.102539,4575.384765999999,4278.974121,4330.769043,4412.820313,450.0,3.0,73.0,,,,0.0,0.0,0.0,0.0,1.0,1.0,0.0,,,,,,,,,,,,,,,,,,,,,,,,,,,,,,,,,,,,,,,,,,,,,,,,,,,,,,0.0,0.0,32.0,0.064299,1.0,0.0,,,,,,,,,,,,,,,,,,,,,,,,,
28647,1648952828.425432,1648952828.4396741,70.0,0.0,4542.05127,4383.589844,4208.717772999999,4403.077147999999,4604.615234000001,0.0,3.0,73.0,,,,0.0,0.0,0.0,0.0,1.0,1.0,0.0,,,,,,,,35.0,0.0,0.8569829999999999,-0.066162,0.127686,0.49487299999999995,0.290044,-0.004883,-0.972671,0.008603,-0.025968,-0.031761000000000005,,,,,,,,,,,,,,,,,,,,,,,,,,,,,,,,,,,,,,,,,,,,,,,,,,,,,,,,,,,,,,,,,
28648,1648952828.433247,1648952828.4475892,71.0,0.0,4460.0,4434.358886999999,4237.436035,4395.384765999999,4485.641113000001,450.0,3.0,73.0,,,,0.0,0.0,0.0,0.0,1.0,1.0,0.0,,,,,,,,,,,,,,,,,,,,,,,,,,,,,,,,,,,,,,,,,,,,,,,,,,,,,,,,,,,,,,,,,,,,,,,,,,,,,,,,,,,,
28649,1648952828.441061,1648952828.4554038,72.0,0.0,4147.179688,4456.410156,4133.846191,4039.487061,4071.794922,450.0,3.0,73.0,,,,0.0,0.0,0.0,0.0,1.0,1.0,0.0,,,,,,,,36.0,0.0,0.8569829999999999,-0.066162,0.127686,0.49487299999999995,0.306157,-0.000977,-0.993179,0.005936,-0.025862,-0.025411000000000003,,,,,,,,,,,,,,,,,,,,,,,,,,,,,,,,,,,,,,,,,,,,,,,,,,,,,,,,,,,,,,,,,
28650,1648952828.448876,1648952828.463119,73.0,0.0,4913.846191,4170.769043,3811.794922,4872.820313,5176.410156,0.0,3.0,73.0,,,,0.0,0.0,0.0,0.0,0.0,1.0,0.0,,,,,,,,,,,,,,,,,,,,,,,,,,,,,,,,,,,,,,,,,,,,,,,,,,,,,,0.0,0.0,32.0,0.064299,1.0,0.0,,,,,,,,,,,,,,,,,,,,,,,,,
28651,1648952828.45669,1648952828.470934,74.0,0.0,3642.0512700000004,4000.0,3654.358887,3854.8718259999996,4387.692383,450.0,3.0,73.0,,,,0.0,0.0,0.0,0.0,0.0,1.0,0.0,,,,,,,,37.0,0.0,0.856928,-0.06640599999999999,0.12793,0.49487299999999995,0.300786,-0.001953,-0.9907379999999999,0.00837,-0.025912,-0.029267,,,,,,,,,,,,,,,,,,,,,,,,,,,,,,,,,,,,,,,,,,,,,,,,,,,,,,,,,,,,,,,,,
28652,1648952828.4645052,1648952828.4786491,75.0,0.0,2774.3588870000003,4381.538574,3816.923096,2852.3076170000004,3102.564209,0.0,3.0,73.0,,,,0.0,0.0,0.0,0.0,0.0,0.0,0.0,,,,,,,,,,,,,,,,,,,,,,,,,,,,,,,,,,,,,,,,,,,,,,,,,,,,,,,,,,,,,,,,,,,,,,,,,,,,,,,,,,,,
28653,1648952828.472319,1648952828.4865642,76.0,0.0,3986.1538090000004,4786.666504,4164.615234000001,3962.5642090000006,3646.6667479999996,450.0,3.0,73.0,,,,0.0,0.0,0.0,0.0,0.0,0.0,0.0,,,,,,,,38.0,0.0,0.856891,-0.06640599999999999,0.128174,0.49487299999999995,0.291508,-0.021973,-0.976089,0.008998,-0.026007,-0.032786,,,,,,,,,,,,,,,,,,,,,,,,,,,,,,,,,,,,,,,,,,,,,,,,,,,,,,,,,,,,,,,,,
28654,1648952828.480134,1648952828.494479,77.0,0.0,4150.256348,4684.102539,4057.9487299999996,4197.94873,4052.3076170000004,450.0,3.0,73.0,,,,0.0,0.0,0.0,0.0,0.0,0.0,0.0,,,,,,,,,,,,,,,,,,,,,,,,,,,,,,,,,,,,,,,,,,,,,,,,,,,,,,0.0,0.0,32.0,0.064299,1.0,0.0,,,,,,,,,,,,,,,,,,,,,,,,,
28655,1648952828.4879491,1648952828.502294,78.0,0.0,4352.307617,4486.666504,4049.743652,4201.025879,4401.025879,450.0,3.0,73.0,,,,0.0,0.0,0.0,0.0,0.0,0.0,0.0,,,,,,,,39.0,0.0,0.856928,-0.06640599999999999,0.12793,0.49487299999999995,0.28174299999999997,-0.019043,-1.000992,0.007903,-0.026092,-0.038833,,,,,,,,,,,,,,,,,,,,,,,,,,,,,,,,,,,,,,,,,,,,,,,,,,,,,,,,,,,,,,,,,
28656,1648952828.495763,1648952828.510109,79.0,0.0,5441.025879,4590.256348,4495.384765999999,5113.846191,5125.128418,0.0,3.0,73.0,,,,0.0,0.0,0.0,0.0,0.0,0.0,0.0,,,,,,,,,,,,,,,,,,,,,,,,,,,,,,,,,,,,,,,,,,,,,,,,,,,,,,,,,,,,,,,,,,,,,,,,,,,,,,,,,,,,
28657,1648952828.503578,1648952828.518024,80.0,0.0,4836.922852000001,4492.820313,4569.230957,4580.0,4870.769043,450.0,3.0,73.0,,,,0.0,0.0,0.0,0.0,0.0,0.0,0.0,,,,,,,,40.0,0.0,0.856964,-0.06640599999999999,0.127686,0.49487299999999995,0.295415,-0.00293,-0.9589989999999999,0.010042,-0.02607,-0.041444,,,,,,,,,,,,,,,,,,,,,,,,,,,,,,,,,,,,,,,,,,,,,,,,,,,,,,,,,,,,,,,,,
28658,1648952828.5113919,1648952828.525839,81.0,0.0,3773.8461909999996,4133.333496,4195.897461,3589.2307130000004,4068.718018,450.0,3.0,73.0,,,,0.0,0.0,0.0,0.0,0.0,0.0,0.0,,,,,,,,,,,,,,,,,,,,1.0,0.0,0.0,,,,,,,,,,,,,,,,,,,,,,,,,,,,,,,,0.0,0.0,32.0,0.093399,1.0,0.0,880.476074,1708.1508789999998,1080.740845,1467.250977,2533.496338,2070.03125,759.310059,665.370422,448.181824,273.833801,373.914276,283.567108,352.014709,381.611298,395.23996,905.9737550000001,2142.058838,615.327271,1415.4884029999998,2446.935547,840.47229,1418.932861,918.332581,1346.470459,2253.290283
28659,1648952828.519207,1648952828.533753,82.0,0.0,4677.436035,4266.666504,4131.282227000001,4655.384765999999,4601.025879,450.0,3.0,73.0,,,,0.0,0.0,0.0,0.0,0.0,0.0,0.0,,,,,,,,41.0,0.0,0.856964,-0.06640599999999999,0.127686,0.49487299999999995,0.292973,-0.011231,-0.975601,0.010551999999999999,-0.026149000000000002,-0.031245,,,,,,,,,,,,,,,,,,,,,,,,,,,,,,,,,,,,,,,,,,,,,,,,,,,,,,,,,,,,,,,,,
28660,1648952828.5270212,1648952828.541568,83.0,0.0,4722.05127,4742.05127,4359.487305,4675.384765999999,4589.743652,0.0,3.0,73.0,,,,0.0,0.0,0.0,0.0,0.0,0.0,0.0,,,,,,,,,,,,,,,,,,,,,,,,,,,,,,,,,,,,,,,,,,,,,,,,,,,,,,,,,,,,,,,,,,,,,,,,,,,,,,,,,,,,
28661,1648952828.534836,1648952828.549483,84.0,0.0,4021.025635,4714.358886999999,4394.871582,3795.384521,4063.5898439999996,450.0,3.0,73.0,,,,0.0,0.0,0.0,0.0,0.0,0.0,0.0,,,,,,,,42.0,0.0,0.856964,-0.06640599999999999,0.127686,0.49487299999999995,0.291508,-0.010254000000000001,-0.973648,0.007836,-0.026170999999999996,-0.024898,,,,,,,,,,,,,,,,,,,,,,,,,,,,,,,,,,,,,,,,,,,,,,,,,,,,,,,,,,,,,,,,,
28662,1648952828.54265,1648952828.557298,85.0,0.0,4586.153809,4353.333496,4349.743652,4692.307617,4575.384765999999,450.0,3.0,73.0,,,,0.0,0.0,0.0,0.0,0.0,0.0,0.0,,,,,,,,,,,,,,,,,,,,,,,,,,,,,,,,,,,,,,,,,,,,,,,,,,,,,,0.0,0.0,32.0,0.093399,1.0,0.0,,,,,,,,,,,,,,,,,,,,,,,,,
28663,1648952828.550465,1648952828.5652132,86.0,0.0,4403.077147999999,4337.94873,4171.794922,4544.102539,4221.538574,450.0,3.0,73.0,,,,0.0,0.0,0.0,0.0,0.0,0.0,0.0,,,,,,,,43.0,0.0,0.856928,-0.06640599999999999,0.12793,0.49487299999999995,0.29639099999999996,-0.005371,-0.977066,0.00842,-0.026093,-0.028950999999999998,,,,,,,,,,,,,,,,,,,,,,,,,,,,,,,,,,,,,,,,,,,,,,,,,,,,,,,,,,,,,,,,,
28664,1648952828.55828,1648952828.5730278,87.0,0.0,4556.922852000001,4551.282227000001,4108.717772999999,4146.153809,4299.487305,0.0,3.0,73.0,,,,0.0,0.0,0.0,0.0,0.0,0.0,0.0,,,,,,,,,,,,,,,,,,,,,,,,,,,,,,,,,,,,,,,,,,,,,,,,,,,,,,,,,,,,,,,,,,,,,,,,,,,,,,,,,,,,
28665,1648952828.566094,1648952828.580942,88.0,0.0,4514.871582,4514.871582,4331.794922,4115.897461,4400.512695,450.0,3.0,73.0,,,,0.0,0.0,0.0,0.0,0.0,0.0,0.0,,,,,,,,44.0,0.0,0.856928,-0.06640599999999999,0.12793,0.49487299999999995,0.295415,-0.010254000000000001,-0.980972,0.008994,-0.026072,-0.032501,,,,,,,,,,,,,,,,,,,,,,,,,,,,,,,,,,,,,,,,,,,,,,,,,,,,,,,,,,,,,,,,,
28666,1648952828.573909,1648952828.588757,89.0,0.0,4242.05127,4346.153809,4333.846191,4350.769043,4337.94873,450.0,3.0,73.0,,,,0.0,0.0,0.0,0.0,0.0,0.0,0.0,,,,,,,,,,,,,,,,,,,,,,,,,,,,,,,,,,,,,,,,,,,,,,,,,,,,,,0.0,0.0,32.0,0.093399,1.0,0.0,,,,,,,,,,,,,,,,,,,,,,,,,
28667,1648952828.581723,1648952828.596672,90.0,0.0,4283.589844,4325.128418,4133.333496,4519.487305,4302.563965,450.0,3.0,73.0,,,,0.0,0.0,0.0,0.0,0.0,0.0,0.0,,,,,,,,45.0,0.0,0.856964,-0.06640599999999999,0.127686,0.49487299999999995,0.275395,-0.017578,-0.965835,0.009608,-0.026003,-0.03555,,,,,,,,,,,,,,,,,,,,,,,,,,,,,,,,,,,,,,,,,,,,,,,,,,,,,,,,,,,,,,,,,
28668,1648952828.589538,1648952828.604487,91.0,0.0,4505.641113000001,4461.538574,4011.794922,4324.615234000001,4332.820313,0.0,3.0,73.0,,,,0.0,0.0,0.0,0.0,0.0,0.0,0.0,,,,,,,,,,,,,,,,,,,,,,,,,,,,,,,,,,,,,,,,,,,,,,,,,,,,,,,,,,,,,,,,,,,,,,,,,,,,,,,,,,,,
28669,1648952828.597352,1648952828.612402,92.0,0.0,4675.384765999999,4457.94873,4174.871582,4371.794922,4540.512695,450.0,3.0,73.0,,,,0.0,0.0,0.0,0.0,0.0,0.0,0.0,,,,,,,,46.0,0.0,0.8569450000000001,-0.06665,0.127686,0.49487299999999995,0.292485,-0.000977,-0.9907379999999999,0.009966,-0.026039999999999997,-0.025843,,,,,,,,,,,,,,,,,,,,,,,,,,,,,,,,,,,,,,,,,,,,,,,,,,,,,,,,,,,,,,,,,
28670,1648952828.605167,1648952828.620317,93.0,0.0,3874.358887,4324.102539,4266.666504,4007.6923829999996,3914.358887,450.0,3.0,73.0,,,,0.0,0.0,0.0,0.0,0.0,0.0,0.0,,,,,,,,,,,,,,,,,,,,,,,,,,,,,,,,,,,,,,,,,,,,,,,,,,,,,,0.0,0.0,32.0,0.093399,1.0,0.0,,,,,,,,,,,,,,,,,,,,,,,,,
28671,1648952828.612981,1648952828.628132,94.0,0.0,4692.820313,4569.743652,4227.179688,4821.025879,4834.358886999999,450.0,3.0,73.0,,,,0.0,0.0,0.0,0.0,0.0,0.0,0.0,,,,,,,,47.0,0.0,0.856964,-0.06640599999999999,0.127686,0.49487299999999995,0.285161,-0.009276999999999999,-0.987808,0.01185,-0.025975,-0.032585,,,,,,,,,,,,,,,,,,,,,,,,,,,,,,,,,,,,,,,,,,,,,,,,,,,,,,,,,,,,,,,,,
28672,1648952828.6207962,1648952828.6360471,95.0,0.0,4886.153809,4848.717772999999,4447.692383,4540.0,5075.384765999999,0.0,3.0,73.0,,,,0.0,0.0,0.0,0.0,0.0,0.0,0.0,,,,,,,,,,,,,,,,,,,,,,,,,,,,,,,,,,,,,,,,,,,,,,,,,,,,,,,,,,,,,,,,,,,,,,,,,,,,,,,,,,,,
28673,1648952828.62861,1648952828.643862,96.0,0.0,3297.94873,4635.897461,4342.05127,2957.435791,3383.076904,450.0,3.0,73.0,,,,0.0,0.0,0.0,0.0,0.0,0.0,0.0,,,,,,,,48.0,0.0,0.856964,-0.06640599999999999,0.127686,0.49487299999999995,0.275395,-0.017578,-0.965835,0.009054000000000001,-0.026063,-0.026006,,,,,,,,,,,,,,,,,,,,,,,,,,,,,,,,,,,,,,,,,,,,,,,,,,,,,,,,,,,,,,,,,
28674,1648952828.636425,1648952828.651777,97.0,0.0,3186.153809,4510.769043,4047.6923829999996,3391.281982,3197.94873,450.0,3.0,73.0,,,,0.0,0.0,0.0,0.0,0.0,0.0,0.0,,,,,,,,,,,,,,,,,,,,1.0,0.0,0.0,,,,,,,,,,,,,,,,,,,,,,,,,,,,,,,,0.0,0.0,32.0,0.081149,1.0,0.0,756.150635,1168.247803,804.9851070000001,1079.4140630000002,1705.217896,1549.776611,534.723083,598.883423,429.352325,248.0755,394.891754,193.181259,307.300385,356.455597,312.512115,720.376038,1493.959595,397.547699,951.3246460000001,1789.9305420000003,578.260254,955.490356,654.398315,879.3912960000001,1517.047241
28675,1648952828.6442401,1648952828.659592,98.0,0.0,4238.461426,4689.743652,3918.974365,4463.077147999999,4298.974121,450.0,3.0,73.0,,,,0.0,0.0,0.0,0.0,0.0,0.0,0.0,,,,,,,,49.0,0.0,0.856964,-0.06640599999999999,0.127686,0.49487299999999995,0.285161,-0.009276999999999999,-0.987808,0.011029,-0.025996,-0.032732,,,,,,,,,,,,,,,,,,,,,,,,,,,,,,,,,,,,,,,,,,,,,,,,,,,,,,,,,,,,,,,,,
28676,1648952828.6520538,1648952828.667507,99.0,0.0,4700.0,4727.179688,4256.410156,4484.102539,4775.384765999999,0.0,3.0,73.0,,,,0.0,0.0,0.0,0.0,0.0,0.0,0.0,,,,,,,,,,,,,,,,,,,,,,,,,,,,,,,,,,,,,,,,,,,,,,,,,,,,,,,,,,,,,,,,,,,,,,,,,,,,,,,,,,,,
28677,1648952828.659869,1648952828.675321,100.0,0.0,3966.6667479999996,4606.666504,4322.563965,3488.205078,3937.9487299999996,450.0,3.0,73.0,,,,0.0,0.0,0.0,0.0,0.0,0.0,0.0,,,,,,,,50.0,0.0,0.856981,-0.06665,0.127441,0.49487299999999995,0.289555,-0.011719,-0.9751129999999999,0.011294,-0.025935000000000003,-0.035953,,,,,,,,,,,,,,,,,,,,,,,,,,,,,,,,,,,,,,,,,,,,,,,,,,,,,,,,,,,,,,,,,
28678,1648952828.6676831,1648952828.683236,101.0,0.0,4491.794922,4704.102539,4095.384521,4133.333496,4380.512695,450.0,3.0,73.0,,,,0.0,0.0,0.0,0.0,0.0,0.0,0.0,,,,,,,,,,,,,,,,,,,,,,,,,,,,,,,,,,,,,,,,,,,,,,,,,,,,,,0.0,0.0,32.0,0.081149,1.0,0.0,,,,,,,,,,,,,,,,,,,,,,,,,
28679,1648952828.675498,1648952828.691051,102.0,0.0,5217.94873,4767.179688,4221.538574,5332.307617,5351.794922,450.0,3.0,73.0,,,,0.0,0.0,0.0,0.0,0.0,0.0,0.0,,,,,,,,51.0,0.0,0.857,-0.06640599999999999,0.127441,0.49487299999999995,0.29736799999999997,-0.032227,-1.016617,0.008553,-0.02593,-0.041684,,,,,,,,,,,,,,,,,,,,,,,,,,,,,,,,,,,,,,,,,,,,,,,,,,,,,,,,,,,,,,,,,
28680,1648952828.683312,1648952828.698966,103.0,0.0,4575.897461,4560.512695,4497.436035,4829.230957,4696.410156,0.0,3.0,73.0,,,,0.0,0.0,0.0,0.0,0.0,0.0,0.0,,,,,,,,,,,,,,,,,,,,,,,,,,,,,,,,,,,,,,,,,,,,,,,,,,,,,,,,,,,,,,,,,,,,,,,,,,,,,,,,,,,,
28681,1648952828.691127,1648952828.7067811,104.0,0.0,3880.512939,4294.871582,4311.282227000001,3867.179443,3770.256348,450.0,3.0,73.0,,,,0.0,0.0,0.0,0.0,0.0,0.0,0.0,,,,,,,,52.0,0.0,0.856981,-0.06665,0.127441,0.49487299999999995,0.290044,-0.0063479999999999995,-0.951675,0.009114,-0.026070999999999997,-0.043863,,,,,,,,,,,,,,,,,,,,,,,,,,,,,,,,,,,,,,,,,,,,,,,,,,,,,,,,,,,,,,,,,
28682,1648952828.698941,1648952828.7146962,105.0,0.0,4023.076904,4253.333496,3876.923096,3912.3076170000004,4087.179443,450.0,3.0,73.0,,,,0.0,0.0,0.0,0.0,0.0,0.0,0.0,,,,,,,,,,,,,,,,,,,,,,,,,,,,,,,,,,,,,,,,,,,,,,,,,,,,,,0.0,0.0,32.0,0.081149,1.0,0.0,,,,,,,,,,,,,,,,,,,,,,,,,
28683,1648952828.706756,1648952828.7225099,106.0,0.0,4755.384765999999,4501.538574,3997.9487299999996,4817.436035,4858.461426,450.0,3.0,73.0,,,,0.0,0.0,0.0,0.0,0.0,0.0,0.0,,,,,,,,53.0,0.0,0.856981,-0.06665,0.127441,0.49487299999999995,0.29688000000000003,-0.016114,-0.9834129999999999,0.009569,-0.026003,-0.045971,,,,,,,,,,,,,,,,,,,,,,,,,,,,,,,,,,,,,,,,,,,,,,,,,,,,,,,,,,,,,,,,,
28684,1648952828.714571,1648952828.730425,107.0,0.0,4031.794922,4570.769043,4152.820313,4244.615234000001,3982.0512700000004,0.0,3.0,73.0,,,,0.0,0.0,0.0,0.0,0.0,0.0,0.0,,,,,,,,,,,,,,,,,,,,,,,,,,,,,,,,,,,,,,,,,,,,,,,,,,,,,,,,,,,,,,,,,,,,,,,,,,,,,,,,,,,,
28685,1648952828.722385,1648952828.73824,108.0,0.0,4335.384765999999,4556.922852000001,4083.076904,4380.512695,4421.025879,450.0,3.0,73.0,,,,0.0,0.0,0.0,0.0,0.0,0.0,0.0,,,,,,,,54.0,0.0,0.8568399999999999,-0.06665,0.127441,0.49511700000000003,0.286625,-0.001953,-0.99025,0.008320000000000001,-0.026039999999999997,-0.047673,,,,,,,,,,,,,,,,,,,,,,,,,,,,,,,,,,,,,,,,,,,,,,,,,,,,,,,,,,,,,,,,,
28686,1648952828.7302,1648952828.746155,109.0,0.0,4773.846191,4572.820313,4201.025879,4692.307617,5045.128418,450.0,3.0,73.0,,,,0.0,0.0,0.0,0.0,0.0,0.0,0.0,,,,,,,,,,,,,,,,,,,,,,,,,,,,,,,,,,,,,,,,,,,,,,,,,,,,,,0.0,0.0,32.0,0.081149,1.0,0.0,,,,,,,,,,,,,,,,,,,,,,,,,
28687,1648952828.738014,1648952828.75397,110.0,0.0,3832.820557,4466.153809,4156.410156,3792.820557,3902.5642090000006,450.0,3.0,73.0,,,,0.0,0.0,0.0,0.0,0.0,0.0,0.0,,,,,,,,55.0,0.0,0.8568040000000001,-0.06665,0.127686,0.49511700000000003,0.283696,0.000977,-0.996109,0.008952,-0.026072,-0.0494,,,,,,,,,,,,,,,,,,,,,,,,,,,,,,,,,,,,,,,,,,,,,,,,,,,,,,,,,,,,,,,,,
28688,1648952828.7458289,1648952828.761884,111.0,0.0,4736.922852000001,4574.358886999999,4129.743652,4695.897461,4803.589844,0.0,3.0,73.0,,,,0.0,0.0,0.0,0.0,0.0,0.0,0.0,,,,,,,,,,,,,,,,,,,,,,,,,,,,,,,,,,,,,,,,,,,,,,,,,,,,,,,,,,,,,,,,,,,,,,,,,,,,,,,,,,,,
28689,1648952828.753643,1648952828.769699,112.0,0.0,5046.666504,4723.077147999999,4404.615234000001,4860.0,5376.922852000001,450.0,3.0,73.0,,,,0.0,0.0,0.0,0.0,0.0,0.0,0.0,,,,,,,,56.0,0.0,0.8568040000000001,-0.06665,0.127686,0.49511700000000003,0.29736799999999997,-0.009276999999999999,-0.9858549999999999,0.009424,-0.026151,-0.038405,,,,,,,,,,,,,,,,,,,,,,,,,,,,,,,,,,,,,,,,,,,,,,,,,,,,,,,,,,,,,,,,,
28690,1648952828.761458,1648952828.777514,113.0,0.0,3673.3332520000004,4625.128418,4382.563965,3388.205078,3756.4101560000004,450.0,3.0,73.0,,,,0.0,0.0,0.0,0.0,0.0,0.0,0.0,,,,,,,,,,,,,,,,,,,,1.0,0.0,0.0,,,,,,,,,,,,,,,,,,,,,,,,,,,,,,,,0.0,0.0,32.0,0.067134,1.0,0.0,633.785461,702.386414,546.884827,774.1201169999999,1034.087524,1065.0629880000001,358.477997,483.67334000000005,389.335052,222.421448,443.250946,129.529434,266.222015,320.039001,242.870087,528.063843,910.1767580000001,242.14035,580.943726,1245.766235,369.454773,559.630432,427.31683300000003,531.0830080000001,913.6177369999999
28691,1648952828.769272,1648952828.785429,114.0,0.0,3452.3076170000004,4588.717772999999,4014.8718259999996,3273.846191,3233.846191,450.0,3.0,73.0,,,,0.0,0.0,0.0,0.0,0.0,0.0,0.0,,,,,,,,57.0,0.0,0.8568040000000001,-0.06665,0.127686,0.49511700000000003,0.309087,0.003906,-0.9673,0.006675,-0.026075,-0.031293,,,,,,,,,,,,,,,,,,,,,,,,,,,,,,,,,,,,,,,,,,,,,,,,,,,,,,,,,,,,,,,,,
28692,1648952828.777087,1648952828.793244,115.0,0.0,4566.666504,4767.179688,3948.205078,4333.846191,4302.563965,0.0,3.0,73.0,,,,0.0,0.0,0.0,0.0,0.0,0.0,0.0,,,,,,,,,,,,,,,,,,,,,,,,,,,,,,,,,,,,,,,,,,,,,,,,,,,,,,,,,,,,,,,,,,,,,,,,,,,,,,,,,,,,
28693,1648952828.7849019,1648952828.801159,116.0,0.0,4638.974121,4658.461426,4515.897461,4640.512695,4693.333496,450.0,3.0,73.0,,,,0.0,0.0,0.0,0.0,0.0,0.0,0.0,,,,,,,,58.0,0.0,0.8569129999999999,-0.06665,0.126953,0.49511700000000003,0.287114,-0.005371,-0.9790190000000001,0.007375,-0.026006,-0.03456,,,,,,,,,,,,,,,,,,,,,,,,,,,,,,,,,,,,,,,,,,,,,,,,,,,,,,,,,,,,,,,,,
28694,1648952828.792716,1648952828.808975,117.0,0.0,3530.256348,4442.05127,4501.538574,3842.0512700000004,3804.102539,450.0,3.0,73.0,,,,0.0,0.0,0.0,0.0,0.0,0.0,0.0,,,,,,,,,,,,,,,,,,,,,,,,,,,,,,,,,,,,,,,,,,,,,,,,,,,,,,0.0,0.0,32.0,0.067134,1.0,0.0,,,,,,,,,,,,,,,,,,,,,,,,,
28695,1648952828.8005311,1648952828.81689,118.0,0.0,4398.461426,4720.0,4003.5898439999996,4522.563965,4478.974121,450.0,3.0,73.0,,,,0.0,0.0,0.0,0.0,0.0,0.0,0.0,,,,,,,,59.0,0.0,0.856949,-0.06665,0.126709,0.49511700000000003,0.292485,0.041016000000000004,-0.9560690000000001,0.008151,-0.025896,-0.040284,,,,,,,,,,,,,,,,,,,,,,,,,,,,,,,,,,,,,,,,,,,,,,,,,,,,,,,,,,,,,,,,,
28696,1648952828.8083448,1648952828.8247051,119.0,0.0,4246.666504,4920.0,4059.487061,4132.307617,4217.94873,0.0,3.0,73.0,,,,0.0,0.0,0.0,0.0,0.0,0.0,0.0,,,,,,,,,,,,,,,,,,,,,,,,,,,,,,,,,,,,,,,,,,,,,,,,,,,,,,,,,,,,,,,,,,,,,,,,,,,,,,,,,,,,
28697,1648952828.81616,1648952828.83252,120.0,0.0,3535.384521,4688.717772999999,4283.077147999999,3429.2307130000004,3457.9487299999996,450.0,3.0,73.0,,,,0.0,0.0,0.0,0.0,0.0,0.0,0.0,,,,,,,,60.0,0.0,0.856877,-0.06665,0.127197,0.49511700000000003,0.274418,-0.016114,-0.993179,0.008556999999999999,-0.025943,-0.030151999999999998,,,,,,,,,,,,,,,,,,,,,,,,,,,,,,,,,,,,,,,,,,,,,,,,,,,,,,,,,,,,,,,,,
28698,1648952828.8239741,1648952828.840235,121.0,0.0,5098.461426,4603.589844,4190.769043,5423.077147999999,5236.922852000001,450.0,3.0,73.0,,,,0.0,0.0,0.0,0.0,0.0,0.0,0.0,,,,,,,,,,,,,,,,,,,,,,,,,,,,,,,,,,,,,,,,,,,,,,,,,,,,,,0.0,0.0,32.0,0.067134,1.0,0.0,,,,,,,,,,,,,,,,,,,,,,,,,
28699,1648952828.831789,1648952828.84815,122.0,0.0,5746.666504,4731.794922,4161.025879,6176.410156,6038.461426,450.0,3.0,73.0,,,,0.0,0.0,0.0,0.0,0.0,0.0,0.0,,,,,,,,61.0,0.0,0.8568209999999999,-0.06689500000000001,0.127441,0.49511700000000003,0.290532,-0.007812999999999999,-0.969741,0.005992,-0.025937,-0.023865,,,,,,,,,,,,,,,,,,,,,,,,,,,,,,,,,,,,,,,,,,,,,,,,,,,,,,,,,,,,,,,,,
28700,1648952828.839603,1648952828.855964,123.0,0.0,4577.436035,4543.589844,4219.487305,4581.025879,4734.358886999999,0.0,3.0,73.0,,,,0.0,0.0,0.0,0.0,0.0,0.0,0.0,,,,,,,,,,,,,,,,,,,,,,,,,,,,,,,,,,,,,,,,,,,,,,,,,,,,,,,,,,,,,,,,,,,,,,,,,,,,,,,,,,,,
28701,1648952828.847418,1648952828.8637788,124.0,0.0,3520.0,4288.205078,3904.102539,3463.5898439999996,3751.794922,450.0,3.0,73.0,,,,0.0,0.0,0.0,0.0,0.0,0.0,0.0,,,,,,,,62.0,0.0,0.856877,-0.06665,0.127197,0.49511700000000003,0.295903,-0.01709,-0.9824370000000001,0.005344,-0.025833,-0.030659,,,,,,,,,,,,,,,,,,,,,,,,,,,,,,,,,,,,,,,,,,,,,,,,,,,,,,,,,,,,,,,,,
28702,1648952828.855232,1648952828.871494,125.0,0.0,4512.820313,4570.769043,3898.974365,4613.846191,4600.512695,450.0,3.0,73.0,,,,0.0,0.0,0.0,0.0,0.0,0.0,0.0,,,,,,,,,,,,,,,,,,,,,,,,,,,,,,,,,,,,,,,,,,,,,,,,,,,,,,0.0,0.0,32.0,0.067134,1.0,0.0,,,,,,,,,,,,,,,,,,,,,,,,,
28703,1648952828.8630471,1648952828.879309,126.0,0.0,4566.666504,4664.102539,4200.512695,4650.256348,4477.94873,450.0,3.0,73.0,,,,0.0,0.0,0.0,0.0,0.0,0.0,0.0,,,,,,,,63.0,0.0,0.8569129999999999,-0.06665,0.126953,0.49511700000000003,0.292973,-0.014649,-0.968277,0.006128,-0.025887,-0.033989,,,,,,,,,,,,,,,,,,,,,,,,,,,,,,,,,,,,,,,,,,,,,,,,,,,,,,,,,,,,,,,,,
28704,1648952828.870862,1648952828.887024,127.0,0.0,4116.922852000001,4527.179688,4111.794922,4008.205078,4162.05127,238.0,3.0,73.0,,,,0.0,0.0,0.0,0.0,0.0,0.0,0.0,,,,,,,,,,,,,,,,,,,,,,,,,,,,,,,,,,,,,,,,,,,,,,,,,,,,,,,,,,,,,,,,,,,,,,,,,,,,,,,,,,,,
28705,1648952828.878676,1648952828.894939,0.0,0.0,4467.179688,4549.230957,4147.692383,4506.666504,4658.974121,450.0,3.0,73.0,,,,0.0,0.0,0.0,0.0,0.0,0.0,0.0,,,,,,,,0.0,0.0,0.8569129999999999,-0.06665,0.126953,0.49511700000000003,0.29639099999999996,-0.011231,-0.9907379999999999,0.006834000000000001,-0.025935000000000003,-0.037036,,,,,,,,,,,,,,,,,,,,,,,,,,,,,,,,,,,,,,,,,,,,,,,,,,,,,,,,,,,,,,,,,
28706,1648952828.886491,1648952828.902854,1.0,0.0,4326.666504,4502.05127,4323.589844,4457.94873,4372.307617,450.0,3.0,73.0,,,,0.0,0.0,0.0,0.0,0.0,0.0,0.0,1.0,0.0,0.0,0.0,0.0,0.0,0.0,,,,,,,,,,,,,1.0,0.0,0.0,,,,,,,,,,,,,,,,,,,,,,,,,,,,,,,,0.0,0.0,32.0,0.052703,1.0,0.0,555.135254,405.533447,371.58252000000005,605.7715450000001,602.520874,672.640442,230.42416400000002,362.787231,335.676483,200.095627,498.37652599999996,99.519615,248.233063,286.58596800000004,193.48945600000002,380.083008,509.10375999999997,165.865799,363.292084,889.458984,231.15357999999998,312.55835,293.220825,361.715332,523.584778
28707,1648952828.894305,1648952828.9106688,2.0,0.0,4363.077147999999,4515.897461,4352.307617,4308.717772999999,4430.769043,0.0,3.0,73.0,,,,0.0,0.0,0.0,0.0,0.0,0.0,0.0,,,,,,,,1.0,0.0,0.8569129999999999,-0.06665,0.126953,0.49511700000000003,0.295415,-0.011231,-0.9834129999999999,0.007615,-0.026026999999999998,-0.03968,,,,,,,,,,,,,,,,,,,,,,,,,,,,,,,,,,,,,,,,,,,,,,,,,,,,,,,,,,,,,,,,,
28708,1648952828.9021199,1648952828.9185839,3.0,0.0,4312.820313,4517.436035,4329.230957,4094.358887,4562.05127,450.0,3.0,73.0,,,,0.0,0.0,0.0,4.0,0.0,0.0,0.0,,,,,,,,,,,,,,,,,,,,,,,,,,,,,,,,,,,,,,,,,,,,,,,,,,,,,,,,,,,,,,,,,,,,,,,,,,,,,,,,,,,,
28709,1648952828.909934,1648952828.926399,4.0,0.0,4611.794922,4348.717772999999,4312.307617,4308.717772999999,4623.077147999999,0.0,3.0,73.0,,,,0.0,0.0,0.0,4.0,0.0,0.0,0.0,,,,,,,,2.0,0.0,0.856877,-0.06665,0.127197,0.49511700000000003,0.29443800000000003,-0.016602000000000002,-0.9868309999999999,0.006658,-0.02611,-0.044892,,,,,,,,,,,,,,,,,,,,,,,,,,,,,,,,,,,,,,,,,,,,,,,,,,,,,,,,,,,,,,,,,
28710,1648952828.917749,1648952828.934214,5.0,0.0,4646.666504,4327.692383,4200.512695,4416.410156,4427.179688,450.0,3.0,73.0,,,,0.0,0.0,0.0,4.0,0.0,0.0,0.0,,,,,,,,,,,,,,,,,,,,,,,,,,,,,,,,,,,,,,,,,,,,,,,,,,,,,,0.0,0.0,32.0,0.052703,1.0,0.0,,,,,,,,,,,,,,,,,,,,,,,,,
28711,1648952828.925563,1648952828.9420302,6.0,0.0,4408.717772999999,4466.666504,4004.102539,4265.641113000001,4250.256348,16101.0,3.0,73.0,,,,0.0,0.0,0.0,4.0,0.0,0.0,0.0,,,,,,,,3.0,0.0,0.856817,-0.06689500000000001,0.128418,0.49487299999999995,0.299809,-0.0058590000000000005,-0.9799950000000001,0.0058460000000000005,-0.026184,-0.046848,,,,,,,,,,,,,,,,,,,,,,,,,,,,,,,,,,,,,,,,,,,,,,,,,,,,,,,,,,,,,,,,,
28712,1648952828.933378,1648952828.949944,7.0,0.0,4307.179688,4433.846191,4125.641113000001,4275.897461,4144.615234000001,450.0,3.0,73.0,,,,0.0,0.0,0.0,4.0,0.0,0.0,0.0,,,,,,,,,,,,,,,,,,,,,,,,,,,,,,,,,,,,,,,,,,,,,,,,,,,,,,,,,,,,,,,,,,,,,,,,,,,,,,,,,,,,
28713,1648952828.9411929,1648952828.957659,8.0,0.0,4488.205078,4373.333496,4212.820313,4509.743652,4335.384765999999,450.0,3.0,73.0,,,,0.0,0.0,0.0,4.0,0.0,0.0,0.0,,,,,,,,4.0,0.0,0.856865,-0.067139,0.128906,0.494629,0.4336,-0.07422000000000001,-0.861341,0.006677,-0.026202999999999997,-0.048511,,,,,,,,,,,,,,,,,,,,,,,,,,,,,,,,,,,,,,,,,,,,,,,,,,,,,,,,,,,,,,,,,
28714,1648952828.949007,1648952828.965574,9.0,0.0,4511.282227000001,4429.230957,4198.461426,4673.846191,4684.615234000001,26.0,3.0,73.0,,,,0.0,0.0,0.0,4.0,0.0,0.0,0.0,,,,,,,,,,,,,,,,,,,,,,,,,,,,,,,,,,,,,,,,,,,,,,,,,,,,,,0.0,0.0,32.0,0.052703,1.0,0.0,,,,,,,,,,,,,,,,,,,,,,,,,
28715,1648952828.9568222,1648952828.9733891,10.0,0.0,3572.820557,4445.128418,4057.4357909999994,3506.1538090000004,3877.9487299999996,450.0,3.0,73.0,,,,0.0,0.0,0.0,4.0,0.0,0.0,0.0,,,,,,,,5.0,0.0,0.8571709999999999,-0.06689500000000001,0.12793,0.494385,0.206546,-0.025879000000000003,-1.022965,0.007426,-0.026122000000000003,-0.037556,,,,,,,,,,,,,,,,,,,,,,,,,,,,,,,,,,,,,,,,,,,,,,,,,,,,,,,,,,,,,,,,,
28716,1648952828.9646358,1648952828.981205,11.0,0.0,4886.666504,4488.717772999999,3938.974365,4401.538574,4861.025879,0.0,3.0,73.0,,,,0.0,0.0,0.0,4.0,0.0,0.0,0.0,,,,,,,,,,,,,,,,,,,,,,,,,,,,,,,,,,,,,,,,,,,,,,,,,,,,,,,,,,,,,,,,,,,,,,,,,,,,,,,,,,,,
28717,1648952828.972451,1648952828.98892,12.0,0.0,5686.153809,4555.897461,4079.487061,5829.743652,5718.461426,450.0,3.0,73.0,,,,0.0,0.0,0.0,4.0,0.0,0.0,0.0,,,,,,,,6.0,0.0,0.857427,-0.06640599999999999,0.12646500000000002,0.494385,0.291508,-0.009276999999999999,-0.960952,0.005072,-0.026097000000000002,-0.042980000000000004,,,,,,,,,,,,,,,,,,,,,,,,,,,,,,,,,,,,,,,,,,,,,,,,,,,,,,,,,,,,,,,,,
28718,1648952828.9802651,1648952828.996734,13.0,0.0,4418.461426,4662.563965,4150.769043,4985.128418,4632.820313,450.0,3.0,73.0,,,,0.0,0.0,0.0,4.0,0.0,0.0,0.0,,,,,,,,,,,,,,,,,,,,,,,,,,,,,,,,,,,,,,,,,,,,,,,,,,,,,,0.0,0.0,32.0,0.052703,1.0,0.0,,,,,,,,,,,,,,,,,,,,,,,,,
28719,1648952828.98808,1648952829.0044491,14.0,0.0,3785.1281740000004,4722.563965,4144.102539,3604.615479,3656.4101560000004,450.0,3.0,73.0,,,,0.0,0.0,0.0,4.0,0.0,0.0,0.0,,,,,,,,7.0,0.0,0.857463,-0.06640599999999999,0.126221,0.494385,0.286625,0.040527999999999995,-0.975601,0.006029,-0.026076,-0.045127999999999995,,,,,,,,,,,,,,,,,,,,,,,,,,,,,,,,,,,,,,,,,,,,,,,,,,,,,,,,,,,,,,,,,
28720,1648952828.995894,1648952829.012264,15.0,0.0,4543.077147999999,4759.487305,4081.025635,4046.1538090000004,4216.922852000001,0.0,3.0,73.0,,,,0.0,0.0,0.0,4.0,0.0,0.0,0.0,,,,,,,,,,,,,,,,,,,,,,,,,,,,,,,,,,,,,,,,,,,,,,,,,,,,,,,,,,,,,,,,,,,,,,,,,,,,,,,,,,,,
28721,1648952829.003709,1648952829.019979,16.0,0.0,4688.205078,4875.897461,4317.94873,4968.717772999999,4674.871582,0.0,3.0,73.0,,,,0.0,0.0,0.0,4.0,0.0,0.0,0.0,,,,,,,,8.0,0.0,0.8573719999999999,-0.06665,0.126709,0.494385,0.288579,-0.015625,-1.006363,0.003571,-0.026154000000000004,-0.037295,,,,,,,,,,,,,,,,,,,,,,,,,,,,,,,,,,,,,,,,,,,,,,,,,,,,,,,,,,,,,,,,,
28722,1648952829.011523,1648952829.027894,17.0,0.0,3492.820557,4697.94873,4078.461426,4132.820313,3597.9487299999996,0.0,3.0,73.0,,,,0.0,0.0,0.0,4.0,0.0,0.0,0.0,,,,,,,,,,,,,,,,,,,,1.0,0.0,0.0,,,,,,,,,,,,,,,,,,,,,,,,,,,,,,,,0.0,0.0,32.0,0.049946,1.0,0.0,545.981689,308.288879,340.546967,594.966125,447.71932999999996,408.46090699999996,149.26364099999998,275.24163799999997,282.344208,184.303955,540.688416,100.634819,261.63678,265.75732400000004,165.725311,329.202087,331.952087,183.152054,309.025574,770.331787,171.958374,236.29563900000002,310.183502,379.833557,391.417786
28723,1648952829.0193381,1648952829.035809,18.0,0.0,4092.820557,4531.794922,3786.1538090000004,4492.820313,4046.6667479999996,0.0,3.0,73.0,,,,0.0,0.0,0.0,4.0,0.0,0.0,0.0,,,,,,,,9.0,0.0,0.857349,-0.06689500000000001,0.127686,0.494141,0.271977,-0.004883,-1.005875,0.004679,-0.026077,-0.027558999999999997,,,,,,,,,,,,,,,,,,,,,,,,,,,,,,,,,,,,,,,,,,,,,,,,,,,,,,,,,,,,,,,,,
28724,1648952829.027153,1648952829.043624,19.0,0.0,5446.153809,4650.769043,4324.102539,5826.666504,5251.282227000001,0.0,3.0,73.0,,,,0.0,0.0,0.0,4.0,0.0,0.0,0.0,,,,,,,,,,,,,,,,,,,,,,,,,,,,,,,,,,,,,,,,,,,,,,,,,,,,,,,,,,,,,,,,,,,,,,,,,,,,,,,,,,,,
28725,1648952829.034967,1648952829.051439,20.0,0.0,5141.538574,4563.077147999999,4528.717772999999,5181.538574,4922.05127,0.0,3.0,73.0,,,,0.0,0.0,0.0,4.0,0.0,0.0,0.0,,,,,,,,10.0,0.0,0.857208,-0.06689500000000001,0.127686,0.494385,0.307622,-0.010742,-0.976089,0.004064,-0.026204,-0.021629,,,,,,,,,,,,,,,,,,,,,,,,,,,,,,,,,,,,,,,,,,,,,,,,,,,,,,,,,,,,,,,,,
28726,1648952829.042782,1648952829.0593538,21.0,0.0,4155.384765999999,4419.487305,4067.6923829999996,3832.820557,3926.1538090000004,0.0,3.0,73.0,,,,0.0,0.0,0.0,4.0,0.0,0.0,0.0,,,,,,,,,,,,,,,,,,,,,,,,,,,,,,,,,,,,,,,,,,,,,,,,,,,,,,0.0,0.0,32.0,0.049946,1.0,0.0,,,,,,,,,,,,,,,,,,,,,,,,,
28727,1648952829.050596,1648952829.067169,22.0,0.0,4094.8718259999996,4610.256348,3891.281982,4043.076904,4062.0512700000004,0.0,3.0,73.0,,,,0.0,0.0,0.0,4.0,0.0,0.0,0.0,,,,,,,,11.0,0.0,0.857408,-0.06665,0.12646500000000002,0.494385,0.303716,-0.021485,-0.9707180000000001,0.0034630000000000004,-0.026172000000000004,-0.025814,,,,,,,,,,,,,,,,,,,,,,,,,,,,,,,,,,,,,,,,,,,,,,,,,,,,,,,,,,,,,,,,,
28728,1648952829.058411,1648952829.075084,23.0,0.0,4817.436035,4763.589844,4255.897461,4919.487305,5030.769043,0.0,3.0,73.0,,,,0.0,0.0,0.0,4.0,0.0,0.0,0.0,,,,,,,,,,,,,,,,,,,,,,,,,,,,,,,,,,,,,,,,,,,,,,,,,,,,,,,,,,,,,,,,,,,,,,,,,,,,,,,,,,,,
28729,1648952829.066225,1648952829.082899,24.0,0.0,4218.461426,4621.025879,4385.641113000001,4083.5898439999996,4194.358886999999,0.0,3.0,73.0,,,,0.0,0.0,0.0,4.0,0.0,0.0,0.0,,,,,,,,12.0,0.0,0.857349,-0.06689500000000001,0.127686,0.494141,0.271977,-0.004883,-1.005875,0.003068,-0.026142000000000002,-0.032413,,,,,,,,,,,,,,,,,,,,,,,,,,,,,,,,,,,,,,,,,,,,,,,,,,,,,,,,,,,,,,,,,
28730,1648952829.07404,1648952829.0908132,25.0,0.0,4387.179688,4631.794922,4354.871582,4440.512695,4273.846191,0.0,3.0,73.0,,,,0.0,0.0,0.0,4.0,0.0,0.0,0.0,,,,,,,,,,,,,,,,,,,,,,,,,,,,,,,,,,,,,,,,,,,,,,,,,,,,,,0.0,0.0,32.0,0.049946,1.0,0.0,,,,,,,,,,,,,,,,,,,,,,,,,
28731,1648952829.0818539,1648952829.098628,26.0,0.0,4296.410156,4670.769043,4391.794922,4502.05127,4520.0,0.0,3.0,73.0,,,,0.0,0.0,0.0,4.0,0.0,0.0,0.0,,,,,,,,13.0,0.0,0.857408,-0.06665,0.12646500000000002,0.494385,0.303716,-0.021485,-0.9707180000000001,0.002565,-0.026116000000000004,-0.035519,,,,,,,,,,,,,,,,,,,,,,,,,,,,,,,,,,,,,,,,,,,,,,,,,,,,,,,,,,,,,,,,,
28732,1648952829.089669,1648952829.106543,27.0,0.0,4295.897461,4564.102539,4328.205078,4101.025879,4428.205078,0.0,3.0,73.0,,,,0.0,0.0,0.0,4.0,0.0,0.0,0.0,,,,,,,,,,,,,,,,,,,,,,,,,,,,,,,,,,,,,,,,,,,,,,,,,,,,,,,,,,,,,,,,,,,,,,,,,,,,,,,,,,,,
28733,1648952829.0974839,1648952829.114358,28.0,0.0,4584.615234000001,4486.666504,4397.94873,4415.897461,4474.358886999999,0.0,3.0,73.0,,,,0.0,0.0,0.0,4.0,0.0,0.0,0.0,,,,,,,,14.0,0.0,0.8574440000000001,-0.06665,0.126221,0.494385,0.293462,-0.018555000000000002,-0.997574,0.0022600000000000003,-0.026092,-0.041147,,,,,,,,,,,,,,,,,,,,,,,,,,,,,,,,,,,,,,,,,,,,,,,,,,,,,,,,,,,,,,,,,
28734,1648952829.105298,1648952829.122273,29.0,0.0,4356.922852000001,4456.410156,4123.077147999999,4393.333496,4360.512695,0.0,3.0,73.0,,,,0.0,0.0,0.0,4.0,0.0,0.0,0.0,,,,,,,,,,,,,,,,,,,,,,,,,,,,,,,,,,,,,,,,,,,,,,,,,,,,,,0.0,0.0,32.0,0.049946,1.0,0.0,,,,,,,,,,,,,,,,,,,,,,,,,
28735,1648952829.1131132,1648952829.130088,30.0,0.0,4506.666504,4538.974121,3880.0,4494.358886999999,4880.512695,0.0,3.0,73.0,,,,0.0,0.0,0.0,4.0,0.0,0.0,0.0,,,,,,,,15.0,0.0,0.857404,-0.06665,0.127441,0.494141,0.275883,-0.023926,-0.995132,0.0035479999999999995,-0.026119999999999997,-0.043429,,,,,,,,,,,,,,,,,,,,,,,,,,,,,,,,,,,,,,,,,,,,,,,,,,,,,,,,,,,,,,,,,
28736,1648952829.1209269,1648952829.1378028,31.0,0.0,3814.358887,4558.461426,4206.666504,3844.102539,4142.563965,0.0,3.0,73.0,,,,0.0,0.0,0.0,4.0,0.0,0.0,0.0,,,,,,,,,,,,,,,,,,,,,,,,,,,,,,,,,,,,,,,,,,,,,,,,,,,,,,,,,,,,,,,,,,,,,,,,,,,,,,,,,,,,
28737,1648952829.128742,1648952829.145618,32.0,0.0,4602.05127,4501.538574,3855.384521,4314.358886999999,4431.794922,0.0,3.0,73.0,,,,0.0,0.0,0.0,4.0,0.0,0.0,0.0,,,,,,,,16.0,0.0,0.85711,-0.067139,0.12915,0.494141,0.300786,-0.013184,-1.021012,0.001533,-0.026144999999999998,-0.035766,,,,,,,,,,,,,,,,,,,,,,,,,,,,,,,,,,,,,,,,,,,,,,,,,,,,,,,,,,,,,,,,,
28738,1648952829.1365561,1648952829.153333,33.0,0.0,6135.897461,4456.922852000001,3353.846191,5887.692383,5792.307617,0.0,3.0,73.0,,,,0.0,0.0,0.0,4.0,0.0,0.0,0.0,,,,,,,,,,,,,,,,,,,,1.0,0.0,0.0,,,,,,,,,,,,,,,,,,,,,,,,,,,,,,,,0.0,0.0,32.0,0.046125,1.0,0.0,606.4776,372.169952,471.674011,727.185425,561.875854,269.209045,112.853302,238.025421,241.920303,177.056656,557.042297,123.402084,298.935303,256.016449,158.226089,409.21225,347.375763,293.371338,399.08453399999996,907.3018800000001,191.863968,296.08502200000004,499.62744100000003,554.88385,520.8046879999999
28739,1648952829.144371,1648952829.161248,34.0,0.0,5011.282227000001,4702.563965,3625.1281740000004,5228.717772999999,4818.974121,0.0,3.0,73.0,,,,0.0,0.0,0.0,4.0,0.0,0.0,0.0,,,,,,,,17.0,0.0,0.857251,-0.067139,0.12915,0.493896,0.304204,-0.025879000000000003,-0.9248190000000001,0.002893,-0.026118000000000002,-0.038586,,,,,,,,,,,,,,,,,,,,,,,,,,,,,,,,,,,,,,,,,,,,,,,,,,,,,,,,,,,,,,,,,
28740,1648952829.152185,1648952829.169063,35.0,0.0,3722.0512700000004,4912.820313,4194.358886999999,3882.0512700000004,3546.6667479999996,0.0,3.0,73.0,,,,0.0,0.0,0.0,4.0,0.0,0.0,0.0,,,,,,,,,,,,,,,,,,,,,,,,,,,,,,,,,,,,,,,,,,,,,,,,,,,,,,,,,,,,,,,,,,,,,,,,,,,,,,,,,,,,
28741,1648952829.16,1648952829.1769779,36.0,0.0,4252.307617,4755.897461,4171.282227000001,4039.487061,3876.4101560000004,0.0,3.0,73.0,,,,0.0,0.0,0.0,4.0,0.0,0.0,0.0,,,,,,,,18.0,0.0,0.857567,-0.06640599999999999,0.12646500000000002,0.494141,0.23779699999999998,-0.00293,-0.9091940000000001,0.005582,-0.026094,-0.041124,,,,,,,,,,,,,,,,,,,,,,,,,,,,,,,,,,,,,,,,,,,,,,,,,,,,,,,,,,,,,,,,,
28742,1648952829.167814,1648952829.184793,37.0,0.0,4886.666504,4672.820313,4215.384765999999,4810.769043,4597.94873,0.0,3.0,73.0,,,,0.0,0.0,0.0,4.0,0.0,0.0,0.0,,,,,,,,,,,,,,,,,,,,,,,,,,,,,,,,,,,,,,,,,,,,,,,,,,,,,,0.0,0.0,32.0,0.046125,1.0,0.0,,,,,,,,,,,,,,,,,,,,,,,,,
28743,1648952829.175629,1648952829.192708,38.0,0.0,3908.718018,4688.205078,4343.589844,3925.641113,3846.6667479999996,0.0,3.0,73.0,,,,0.0,0.0,0.0,4.0,0.0,0.0,0.0,,,,,,,,19.0,0.0,0.857427,-0.06640599999999999,0.12646500000000002,0.494385,0.29639099999999996,-0.032227,-1.015152,0.0065379999999999995,-0.026024000000000002,-0.03081,,,,,,,,,,,,,,,,,,,,,,,,,,,,,,,,,,,,,,,,,,,,,,,,,,,,,,,,,,,,,,,,,
28744,1648952829.183444,1648952829.2005231,39.0,0.0,4436.922852000001,4749.743652,4420.0,4507.692383,4581.025879,0.0,3.0,73.0,,,,0.0,0.0,0.0,4.0,0.0,0.0,0.0,,,,,,,,,,,,,,,,,,,,,,,,,,,,,,,,,,,,,,,,,,,,,,,,,,,,,,,,,,,,,,,,,,,,,,,,,,,,,,,,,,,,
28745,1648952829.191258,1648952829.208338,40.0,0.0,4294.358886999999,4720.0,4502.563965,4668.717772999999,4649.743652,0.0,3.0,73.0,,,,0.0,0.0,0.0,4.0,0.0,0.0,0.0,,,,,,,,20.0,0.0,0.8571540000000001,-0.06665,0.128174,0.494385,0.305669,-0.06347799999999999,-0.9433739999999999,0.004224,-0.026106999999999998,-0.024506,,,,,,,,,,,,,,,,,,,,,,,,,,,,,,,,,,,,,,,,,,,,,,,,,,,,,,,,,,,,,,,,,
28746,1648952829.199073,1648952829.216053,41.0,0.0,3549.743652,4738.974121,4071.794922,3604.102539,3613.3332520000004,0.0,3.0,73.0,,,,0.0,0.0,0.0,4.0,0.0,0.0,0.0,,,,,,,,,,,,,,,,,,,,,,,,,,,,,,,,,,,,,,,,,,,,,,,,,,,,,,0.0,0.0,32.0,0.046125,1.0,0.0,,,,,,,,,,,,,,,,,,,,,,,,,
28747,1648952829.206887,1648952829.223968,42.0,0.0,5167.692383,4906.153809,3980.0,4735.897461,4810.256348,0.0,3.0,73.0,,,,0.0,0.0,0.0,4.0,0.0,0.0,0.0,,,,,,,,21.0,0.0,0.8569319999999999,-0.067139,0.129395,0.494385,0.29639099999999996,-0.008301000000000001,-0.956558,0.0020440000000000002,-0.026083999999999996,-0.018882,,,,,,,,,,,,,,,,,,,,,,,,,,,,,,,,,,,,,,,,,,,,,,,,,,,,,,,,,,,,,,,,,
28748,1648952829.214702,1648952829.231783,43.0,0.0,5252.307617,4779.487305,4424.615234000001,5191.282227000001,5240.512695,0.0,3.0,73.0,,,,0.0,0.0,0.0,4.0,0.0,0.0,0.0,,,,,,,,,,,,,,,,,,,,,,,,,,,,,,,,,,,,,,,,,,,,,,,,,,,,,,,,,,,,,,,,,,,,,,,,,,,,,,,,,,,,
28749,1648952829.222516,1648952829.239698,44.0,0.0,3851.281982,4496.922852000001,4404.102539,4075.384521,4291.282227000001,0.0,3.0,73.0,,,,0.0,0.0,0.0,4.0,0.0,0.0,0.0,,,,,,,,22.0,0.0,0.857025,-0.06689500000000001,0.128906,0.494385,0.30811,-0.017578,-0.957046,0.003304,-0.026113,-0.023341,,,,,,,,,,,,,,,,,,,,,,,,,,,,,,,,,,,,,,,,,,,,,,,,,,,,,,,,,,,,,,,,,
28750,1648952829.230331,1648952829.2475119,45.0,0.0,3834.8718259999996,4405.641113000001,4125.641113000001,3769.2307130000004,3942.5642090000006,0.0,3.0,73.0,,,,0.0,0.0,0.0,4.0,0.0,0.0,0.0,,,,,,,,,,,,,,,,,,,,,,,,,,,,,,,,,,,,,,,,,,,,,,,,,,,,,,0.0,0.0,32.0,0.046125,1.0,0.0,,,,,,,,,,,,,,,,,,,,,,,,,
28751,1648952829.2381449,1648952829.255427,46.0,0.0,4903.077147999999,4512.820313,4133.333496,4742.563965,4836.410156,0.0,3.0,73.0,,,,0.0,0.0,0.0,4.0,0.0,0.0,0.0,,,,,,,,23.0,0.0,0.8572270000000001,-0.06665,0.127686,0.494385,0.313481,-0.035157,-0.937026,0.004340999999999999,-0.026236000000000002,-0.014855000000000002,,,,,,,,,,,,,,,,,,,,,,,,,,,,,,,,,,,,,,,,,,,,,,,,,,,,,,,,,,,,,,,,,
28752,1648952829.24596,1648952829.263242,47.0,0.0,4273.333496,4576.410156,4292.820313,4366.666504,4615.384765999999,0.0,3.0,73.0,,,,0.0,0.0,0.0,4.0,0.0,0.0,0.0,,,,,,,,,,,,,,,,,,,,,,,,,,,,,,,,,,,,,,,,,,,,,,,,,,,,,,,,,,,,,,,,,,,,,,,,,,,,,,,,,,,,
28753,1648952829.253775,1648952829.271157,48.0,0.0,3864.102539,4432.820313,4170.769043,3738.974365,4039.487061,0.0,3.0,73.0,,,,0.0,0.0,0.0,4.0,0.0,0.0,0.0,,,,,,,,24.0,0.0,0.8578450000000001,-0.06640599999999999,0.127441,0.493408,0.285161,0.0,-1.0000149999999999,0.005372,-0.026101999999999997,-0.007266,,,,,,,,,,,,,,,,,,,,,,,,,,,,,,,,,,,,,,,,,,,,,,,,,,,,,,,,,,,,,,,,,
28754,1648952829.261589,1648952829.2789721,49.0,0.0,5249.230957,4325.128418,4142.563965,4945.128418,5028.717772999999,0.0,3.0,73.0,,,,0.0,0.0,0.0,4.0,0.0,0.0,0.0,,,,,,,,,,,,,,,,,,,,1.0,0.0,0.0,,,,,,,,,,,,,,,,,,,,,,,,,,,,,,,,0.0,0.0,32.0,0.05075,1.0,0.0,711.832825,513.417419,729.353943,956.3292849999999,897.780334,227.48756400000002,110.243645,240.580383,218.05749500000002,176.737991,542.914795,154.701736,340.17132599999997,248.867996,168.674332,611.865662,476.911163,472.50057999999996,602.7091059999999,1282.057373,276.850922,419.325623,833.583069,834.030396,876.338684
28755,1648952829.269404,1648952829.286887,50.0,0.0,4367.179688,4338.461426,4232.307617,4290.769043,4203.077147999999,0.0,3.0,73.0,,,,0.0,0.0,0.0,4.0,0.0,0.0,0.0,,,,,,,,25.0,0.0,0.8584,-0.06640599999999999,0.128418,0.492188,0.284672,-0.001465,-1.020035,0.006299,-0.026080000000000002,-0.003365,,,,,,,,,,,,,,,,,,,,,,,,,,,,,,,,,,,,,,,,,,,,,,,,,,,,,,,,,,,,,,,,,
28756,1648952829.2772179,1648952829.2947009,51.0,0.0,3751.794922,4297.94873,3987.179443,3651.794922,3587.179443,0.0,3.0,73.0,,,,0.0,0.0,0.0,4.0,0.0,0.0,0.0,,,,,,,,,,,,,,,,,,,,,,,,,,,,,,,,,,,,,,,,,,,,,,,,,,,,,,,,,,,,,,,,,,,,,,,,,,,,,,,,,,,,
28757,1648952829.285033,1648952829.302416,52.0,0.0,5333.846191,4326.153809,3972.820557,4994.871582,5185.128418,0.0,3.0,73.0,,,,0.0,0.0,0.0,4.0,0.0,0.0,0.0,,,,,,,,26.0,0.0,0.858886,-0.06640599999999999,0.128906,0.49121099999999995,0.303227,-0.00293,-1.029313,0.005572,-0.026157999999999997,-0.009523,,,,,,,,,,,,,,,,,,,,,,,,,,,,,,,,,,,,,,,,,,,,,,,,,,,,,,,,,,,,,,,,,
28758,1648952829.2928472,1648952829.310231,53.0,0.0,5577.436035,4616.922852000001,4237.436035,5042.05127,5516.410156,0.0,3.0,73.0,,,,0.0,0.0,0.0,4.0,0.0,0.0,0.0,,,,,,,,,,,,,,,,,,,,,,,,,,,,,,,,,,,,,,,,,,,,,,,,,,,,,,0.0,0.0,32.0,0.05075,1.0,0.0,,,,,,,,,,,,,,,,,,,,,,,,,
