,Timestamp,OriginalTimestamp,EEG.Counter,EEG.Interpolated,EEG.AF3,EEG.T7,EEG.Pz,EEG.T8,EEG.AF4,EEG.RawCq,EEG.Battery,EEG.BatteryPercent,MarkerIndex,MarkerType,MarkerValueInt,EEG.MarkerHardware,CQ.AF3,CQ.T7,CQ.Pz,CQ.T8,CQ.AF4,CQ.Overall,EQ.SampleRateQuality,EQ.OVERALL,EQ.AF3,EQ.T7,EQ.Pz,EQ.T8,EQ.AF4,MOT.CounterMems,MOT.InterpolatedMems,MOT.Q0,MOT.Q1,MOT.Q2,MOT.Q3,MOT.AccX,MOT.AccY,MOT.AccZ,MOT.MagX,MOT.MagY,MOT.MagZ,MC.Action,MC.ActionPower,MC.IsActive,PM.Engagement.IsActive,PM.Engagement.Scaled,PM.Engagement.Raw,PM.Engagement.Min,PM.Engagement.Max,PM.Excitement.IsActive,PM.Excitement.Scaled,PM.Excitement.Raw,PM.Excitement.Min,PM.Excitement.Max,PM.LongTermExcitement,PM.Stress.IsActive,PM.Stress.Scaled,PM.Stress.Raw,PM.Stress.Min,PM.Stress.Max,PM.Relaxation.IsActive,PM.Relaxation.Scaled,PM.Relaxation.Raw,PM.Relaxation.Min,PM.Relaxation.Max,PM.Interest.IsActive,PM.Interest.Scaled,PM.Interest.Raw,PM.Interest.Min,PM.Interest.Max,PM.Focus.IsActive,PM.Focus.Scaled,PM.Focus.Raw,PM.Focus.Min,PM.Focus.Max,FE.BlinkWink,FE.HorizontalEyesDirection,FE.UpperFaceAction,FE.UpperFaceActionPower,FE.LowerFaceAction,FE.LowerFaceActionPower,POW.AF3.Theta,POW.AF3.Alpha,POW.AF3.BetaL,POW.AF3.BetaH,POW.AF3.Gamma,POW.T7.Theta,POW.T7.Alpha,POW.T7.BetaL,POW.T7.BetaH,POW.T7.Gamma,POW.Pz.Theta,POW.Pz.Alpha,POW.Pz.BetaL,POW.Pz.BetaH,POW.Pz.Gamma,POW.T8.Theta,POW.T8.Alpha,POW.T8.BetaL,POW.T8.BetaH,POW.T8.Gamma,POW.AF4.Theta,POW.AF4.Alpha,POW.AF4.BetaL,POW.AF4.BetaH,POW.AF4.Gamma
16124,1648952730.563822,1648952730.59702,91.0,0.0,4417.436035,4357.436035,4567.179688,4590.256348,4571.794922,1.0,3.0,73.0,,,,0.0,1.0,4.0,0.0,0.0,0.0,0.0,,,,,,,,,,,,,,,,,,,,,,,,,,,,,,,,,,,,,,,,,,,,,,,,,,,,,,,,,,,,,,,,,,,,,,,,,,,,,,,,,,,,
16125,1648952730.571636,1648952730.604735,92.0,0.0,4304.102539,4483.077147999999,4257.94873,4326.153809,4388.205078,450.0,3.0,73.0,,,,0.0,1.0,4.0,0.0,0.0,0.0,0.0,,,,,,,,46.0,0.0,0.627897,0.480225,0.317627,0.523682,-0.07910299999999999,-0.9350729999999999,-0.333989,0.009977,-0.047488,-0.032785,,,,,,,,,,,,,,,,,,,,,,,,,,,,,,,,,,,,,,,,,,,,,,,,,,,,,,,,,,,,,,,,,
16126,1648952730.579451,1648952730.612551,93.0,0.0,4133.333496,4757.94873,4028.718018,4110.769043,4145.641113000001,450.0,3.0,73.0,,,,0.0,1.0,4.0,0.0,0.0,0.0,0.0,,,,,,,,,,,,,,,,,,,,,,,,,,,,,,,,,,,,,,,,,,,,,,,,,,,,,,0.0,0.0,32.0,0.380537,1.0,0.0,,,,,,,,,,,,,,,,,,,,,,,,,
16127,1648952730.587266,1648952730.620266,94.0,0.0,4151.282227000001,4605.128418,4232.307617,4251.794922,4010.256348,450.0,3.0,73.0,,,,0.0,1.0,4.0,0.0,0.0,0.0,0.0,,,,,,,,47.0,0.0,0.628074,0.480469,0.31811500000000004,0.522949,-0.09765800000000001,-0.9506979999999999,-0.321782,0.008149,-0.047574,-0.034976,,,,,,,,,,,,,,,,,,,,,,,,,,,,,,,,,,,,,,,,,,,,,,,,,,,,,,,,,,,,,,,,,
16128,1648952730.5950801,1648952730.628082,95.0,0.0,4175.384765999999,4423.589844,4278.974121,4288.205078,4149.230957,1.0,3.0,73.0,,,,0.0,1.0,4.0,0.0,0.0,0.0,0.0,,,,,,,,,,,,,,,,,,,,,,,,,,,,,,,,,,,,,,,,,,,,,,,,,,,,,,,,,,,,,,,,,,,,,,,,,,,,,,,,,,,,
16129,1648952730.602895,1648952730.635797,96.0,0.0,4148.205078,4508.205078,4215.384765999999,4302.05127,4502.05127,450.0,3.0,73.0,,,,0.0,1.0,4.0,0.0,0.0,0.0,0.0,,,,,,,,48.0,0.0,0.6272340000000001,0.480225,0.319336,0.523438,-0.123049,-0.965835,-0.346197,0.006504,-0.04765,-0.030599,,,,,,,,,,,,,,,,,,,,,,,,,,,,,,,,,,,,,,,,,,,,,,,,,,,,,,,,,,,,,,,,,
16130,1648952730.610709,1648952730.643613,97.0,0.0,4302.05127,4430.769043,4328.205078,4483.589844,4687.179688,450.0,3.0,73.0,,,,0.0,1.0,4.0,0.0,0.0,0.0,0.0,,,,,,,,,,,,,,,,,,,,1.0,0.0,0.0,,,,,,,,,,,,,,,,,,,,,,,,,,,,,,,,0.0,0.0,32.0,0.33703299999999997,1.0,0.0,295.247406,125.40976699999999,412.518097,672.038086,771.956543,322.219696,152.097076,109.23146100000001,139.45022600000001,122.001724,112.297501,237.735748,683.962402,356.650848,217.003052,127.21021999999999,260.504303,701.587097,375.846924,161.093063,129.39480600000002,147.25267,226.99240099999997,617.169556,209.5327
16131,1648952730.618524,1648952730.6513278,98.0,0.0,4470.769043,4512.820313,4250.256348,4339.487305,4401.025879,450.0,3.0,73.0,,,,0.0,1.0,4.0,0.0,0.0,0.0,0.0,,,,,,,,49.0,0.0,0.625704,0.477051,0.322266,0.526367,-0.01709,-0.9677879999999999,-0.354009,0.007953,-0.047719,-0.03291,,,,,,,,,,,,,,,,,,,,,,,,,,,,,,,,,,,,,,,,,,,,,,,,,,,,,,,,,,,,,,,,,
16132,1648952730.626338,1648952730.659143,99.0,0.0,4453.333496,4840.512695,4073.8461909999996,4096.922852000001,4150.769043,1.0,3.0,73.0,,,,0.0,1.0,4.0,0.0,0.0,0.0,0.0,,,,,,,,,,,,,,,,,,,,,,,,,,,,,,,,,,,,,,,,,,,,,,,,,,,,,,,,,,,,,,,,,,,,,,,,,,,,,,,,,,,,
16133,1648952730.634153,1648952730.666859,100.0,0.0,4140.512695,4791.282227000001,4017.4357909999994,4074.358887,4239.487305,450.0,3.0,73.0,,,,0.0,1.0,4.0,0.0,0.0,0.0,0.0,,,,,,,,50.0,0.0,0.6241899999999999,0.474609,0.32519499999999996,0.528564,-0.15332300000000001,-0.921889,-0.37598200000000004,0.006328,-0.047684,-0.028838,,,,,,,,,,,,,,,,,,,,,,,,,,,,,,,,,,,,,,,,,,,,,,,,,,,,,,,,,,,,,,,,,
16134,1648952730.641967,1648952730.674674,101.0,0.0,4200.0,4495.897461,4431.282227000001,4428.717772999999,4471.794922,450.0,3.0,73.0,,,,0.0,1.0,4.0,0.0,0.0,0.0,0.0,,,,,,,,,,,,,,,,,,,,,,,,,,,,,,,,,,,,,,,,,,,,,,,,,,,,,,0.0,0.0,32.0,0.33703299999999997,1.0,0.0,,,,,,,,,,,,,,,,,,,,,,,,,
16135,1648952730.649782,1648952730.68249,102.0,0.0,4601.538574,4518.974121,4804.615234000001,4785.128418,4527.179688,450.0,3.0,73.0,,,,0.0,1.0,4.0,0.0,0.0,0.0,0.0,,,,,,,,51.0,0.0,0.624259,0.474854,0.324707,0.528564,-0.20264000000000001,-0.901381,-0.354498,0.004767,-0.047701,-0.025172999999999997,,,,,,,,,,,,,,,,,,,,,,,,,,,,,,,,,,,,,,,,,,,,,,,,,,,,,,,,,,,,,,,,,
16136,1648952730.657596,1648952730.6904051,103.0,0.0,4429.743652,4764.102539,4406.153809,4430.769043,4303.077147999999,1.0,3.0,73.0,,,,0.0,1.0,4.0,0.0,0.0,0.0,0.0,,,,,,,,,,,,,,,,,,,,,,,,,,,,,,,,,,,,,,,,,,,,,,,,,,,,,,,,,,,,,,,,,,,,,,,,,,,,,,,,,,,,
16137,1648952730.665411,1648952730.6982212,104.0,0.0,4032.3076170000004,4845.128418,3985.641113,3907.6923829999996,4046.1538090000004,450.0,3.0,73.0,,,,0.0,1.0,4.0,0.0,0.0,0.0,0.0,,,,,,,,52.0,0.0,0.625424,0.47729499999999997,0.32324200000000003,0.525879,-0.11767799999999999,-0.918959,-0.346197,0.006439,-0.047813,-0.021777,,,,,,,,,,,,,,,,,,,,,,,,,,,,,,,,,,,,,,,,,,,,,,,,,,,,,,,,,,,,,,,,,
16138,1648952730.6732259,1648952730.706136,105.0,0.0,4023.076904,4709.743652,4134.358886999999,4088.205078,4034.358887,450.0,3.0,73.0,,,,0.0,1.0,4.0,0.0,0.0,0.0,0.0,,,,,,,,,,,,,,,,,,,,,,,,,,,,,,,,,,,,,,,,,,,,,,,,,,,,,,0.0,0.0,32.0,0.33703299999999997,1.0,0.0,,,,,,,,,,,,,,,,,,,,,,,,,
16139,1648952730.68104,1648952730.713952,106.0,0.0,4059.487061,4505.641113000001,4144.615234000001,4325.128418,4127.692383,450.0,3.0,73.0,,,,0.0,1.0,4.0,0.0,0.0,0.0,0.0,,,,,,,,53.0,0.0,0.626688,0.47973599999999994,0.321533,0.523193,-0.053223,-0.892592,-0.334966,0.008139,-0.047769,-0.025019,,,,,,,,,,,,,,,,,,,,,,,,,,,,,,,,,,,,,,,,,,,,,,,,,,,,,,,,,,,,,,,,,
16140,1648952730.6888552,1648952730.721867,107.0,0.0,4077.4357909999994,4592.820313,3942.5642090000006,4071.794922,4043.5898439999996,1.0,3.0,73.0,,,,0.0,1.0,4.0,0.0,0.0,0.0,0.0,,,,,,,,,,,,,,,,,,,,,,,,,,,,,,,,,,,,,,,,,,,,,,,,,,,,,,,,,,,,,,,,,,,,,,,,,,,,,,,,,,,,
16141,1648952730.6966689,1648952730.729683,108.0,0.0,4368.205078,4674.358886999999,4237.94873,4166.153809,4144.615234000001,450.0,3.0,73.0,,,,0.0,1.0,4.0,0.0,0.0,0.0,0.0,,,,,,,,54.0,0.0,0.624259,0.474854,0.324707,0.528564,-0.20264000000000001,-0.901381,-0.354498,0.0064459999999999995,-0.047826,-0.027986,,,,,,,,,,,,,,,,,,,,,,,,,,,,,,,,,,,,,,,,,,,,,,,,,,,,,,,,,,,,,,,,,
16142,1648952730.704484,1648952730.737598,109.0,0.0,4525.641113000001,4624.615234000001,4622.563965,4579.487305,4462.563965,450.0,3.0,73.0,,,,0.0,1.0,4.0,0.0,0.0,0.0,0.0,,,,,,,,,,,,,,,,,,,,,,,,,,,,,,,,,,,,,,,,,,,,,,,,,,,,,,0.0,0.0,32.0,0.33703299999999997,1.0,0.0,,,,,,,,,,,,,,,,,,,,,,,,,
16143,1648952730.7122982,1648952730.745414,110.0,0.0,4399.487305,4592.307617,4593.333496,4674.358886999999,4580.512695,450.0,3.0,73.0,,,,0.0,1.0,4.0,0.0,0.0,0.0,0.0,,,,,,,,55.0,0.0,0.626688,0.47973599999999994,0.321533,0.523193,-0.053223,-0.892592,-0.334966,0.008145,-0.04778,-0.030607,,,,,,,,,,,,,,,,,,,,,,,,,,,,,,,,,,,,,,,,,,,,,,,,,,,,,,,,,,,,,,,,,
16144,1648952730.720113,1648952730.75333,111.0,0.0,4253.333496,4538.974121,4228.717772999999,4284.615234000001,4395.897461,1.0,3.0,73.0,,,,0.0,1.0,4.0,0.0,0.0,0.0,0.0,,,,,,,,,,,,,,,,,,,,,,,,,,,,,,,,,,,,,,,,,,,,,,,,,,,,,,,,,,,,,,,,,,,,,,,,,,,,,,,,,,,,
16145,1648952730.727927,1648952730.7611449,112.0,0.0,4122.563965,4726.153809,4008.205078,3954.358887,4209.230957,450.0,3.0,73.0,,,,0.0,1.0,4.0,0.0,0.0,0.0,0.0,,,,,,,,56.0,0.0,0.626598,0.48095699999999997,0.322266,0.521729,-0.039550999999999996,-0.9072399999999999,-0.358404,0.006501000000000001,-0.047738,-0.033063999999999996,,,,,,,,,,,,,,,,,,,,,,,,,,,,,,,,,,,,,,,,,,,,,,,,,,,,,,,,,,,,,,,,,
16146,1648952730.735742,1648952730.768861,113.0,0.0,4008.718018,4833.846191,4112.307617,4142.563965,4136.410156,450.0,3.0,73.0,,,,0.0,1.0,4.0,0.0,0.0,0.0,0.0,,,,,,,,,,,,,,,,,,,,1.0,0.0,0.0,,,,,,,,,,,,,,,,,,,,,,,,,,,,,,,,0.0,0.0,32.0,0.23808200000000002,1.0,0.0,306.965973,129.741196,400.311218,520.6556400000001,595.386902,334.60495,173.32974199999998,110.827972,121.99603300000001,123.361801,110.82853700000001,201.672089,740.769897,396.279541,218.150406,111.54818,246.18437200000002,768.72583,413.587585,160.173203,138.241272,167.284119,268.59576400000003,619.851624,211.205597
16147,1648952730.743557,1648952730.776676,114.0,0.0,4135.897461,4560.0,4078.974365,4266.153809,4195.897461,450.0,3.0,73.0,,,,0.0,1.0,4.0,0.0,0.0,0.0,0.0,,,,,,,,57.0,0.0,0.625885,0.48120100000000005,0.324463,0.520996,-0.051759000000000006,-0.9589989999999999,-0.327153,0.008048,-0.047847,-0.03508,,,,,,,,,,,,,,,,,,,,,,,,,,,,,,,,,,,,,,,,,,,,,,,,,,,,,,,,,,,,,,,,,
16148,1648952730.7513711,1648952730.7843919,115.0,0.0,4403.589844,4447.179688,4098.974121,4228.205078,4421.538574,1.0,3.0,73.0,,,,0.0,1.0,4.0,0.0,0.0,0.0,0.0,,,,,,,,,,,,,,,,,,,,,,,,,,,,,,,,,,,,,,,,,,,,,,,,,,,,,,,,,,,,,,,,,,,,,,,,,,,,,,,,,,,,
16149,1648952730.759186,1648952730.792208,116.0,0.0,4487.179688,4583.589844,4459.487305,4515.384765999999,4665.641113000001,450.0,3.0,73.0,,,,0.0,1.0,4.0,0.0,0.0,0.0,0.0,,,,,,,,58.0,0.0,0.625378,0.48120100000000005,0.325439,0.520996,-0.116701,-0.9677879999999999,-0.333013,0.009587,-0.047799,-0.036992000000000004,,,,,,,,,,,,,,,,,,,,,,,,,,,,,,,,,,,,,,,,,,,,,,,,,,,,,,,,,,,,,,,,,
16150,1648952730.767,1648952730.799923,117.0,0.0,4276.410156,4574.871582,4412.307617,4531.282227000001,4442.05127,450.0,3.0,73.0,,,,0.0,1.0,4.0,0.0,0.0,0.0,0.0,,,,,,,,,,,,,,,,,,,,,,,,,,,,,,,,,,,,,,,,,,,,,,,,,,,,,,0.0,0.0,32.0,0.23808200000000002,1.0,0.0,,,,,,,,,,,,,,,,,,,,,,,,,
16151,1648952730.774815,1648952730.8078392,118.0,0.0,4156.410156,4591.794922,4011.794922,4098.974121,4048.205078,450.0,3.0,73.0,,,,0.0,1.0,4.0,0.0,0.0,0.0,0.0,,,,,,,,59.0,0.0,0.624875,0.48168900000000003,0.32568400000000003,0.520996,-0.093263,-0.9306780000000001,-0.337407,0.010874,-0.047902,-0.038713,,,,,,,,,,,,,,,,,,,,,,,,,,,,,,,,,,,,,,,,,,,,,,,,,,,,,,,,,,,,,,,,,
16152,1648952730.782629,1648952730.8156538,119.0,0.0,4214.871582,4749.230957,4046.6667479999996,4096.410156,4100.512695,1.0,3.0,73.0,,,,0.0,1.0,4.0,0.0,0.0,0.0,0.0,,,,,,,,,,,,,,,,,,,,,,,,,,,,,,,,,,,,,,,,,,,,,,,,,,,,,,,,,,,,,,,,,,,,,,,,,,,,,,,,,,,,
16153,1648952730.790444,1648952730.82357,120.0,0.0,4262.05127,4568.205078,4348.717772999999,4434.358886999999,4432.307617,450.0,3.0,73.0,,,,0.0,1.0,4.0,0.0,0.0,0.0,0.0,,,,,,,,60.0,0.0,0.624925,0.48168900000000003,0.32519499999999996,0.5212399999999999,-0.09033300000000001,-0.941909,-0.319829,0.012033,-0.047945999999999996,-0.040164,,,,,,,,,,,,,,,,,,,,,,,,,,,,,,,,,,,,,,,,,,,,,,,,,,,,,,,,,,,,,,,,,
16154,1648952730.798258,1648952730.831385,121.0,0.0,4308.205078,4383.589844,4324.615234000001,4395.897461,4550.256348,450.0,3.0,73.0,,,,0.0,1.0,4.0,0.0,0.0,0.0,0.0,,,,,,,,,,,,,,,,,,,,,,,,,,,,,,,,,,,,,,,,,,,,,,,,,,,,,,0.0,0.0,32.0,0.23808200000000002,1.0,0.0,,,,,,,,,,,,,,,,,,,,,,,,,
16155,1648952730.806073,1648952730.8393009,122.0,0.0,4358.974121,4509.230957,4068.205078,4124.615234000001,4335.384765999999,450.0,3.0,73.0,,,,0.0,1.0,4.0,0.0,0.0,0.0,0.0,,,,,,,,61.0,0.0,0.624441,0.48168900000000003,0.32495100000000005,0.5219729999999999,-0.103029,-0.9585110000000001,-0.333989,0.013172999999999999,-0.048034,-0.035269,,,,,,,,,,,,,,,,,,,,,,,,,,,,,,,,,,,,,,,,,,,,,,,,,,,,,,,,,,,,,,,,,
16156,1648952730.813887,1648952730.847117,123.0,0.0,4376.922852000001,4695.384765999999,4057.4357909999994,4048.205078,4107.692383,1.0,3.0,73.0,,,,0.0,1.0,4.0,0.0,0.0,0.0,0.0,,,,,,,,,,,,,,,,,,,,,,,,,,,,,,,,,,,,,,,,,,,,,,,,,,,,,,,,,,,,,,,,,,,,,,,,,,,,,,,,,,,,
16157,1648952730.821702,1648952730.855032,124.0,0.0,4195.384765999999,4682.563965,4223.077147999999,4104.615234000001,4025.1281740000004,450.0,3.0,73.0,,,,0.0,1.0,4.0,0.0,0.0,0.0,0.0,,,,,,,,62.0,0.0,0.6222449999999999,0.480225,0.327393,0.524414,-0.087404,-0.9546040000000001,-0.34668499999999997,0.014053,-0.048113,-0.037064,,,,,,,,,,,,,,,,,,,,,,,,,,,,,,,,,,,,,,,,,,,,,,,,,,,,,,,,,,,,,,,,,
16158,1648952730.829517,1648952730.862848,125.0,0.0,4033.8461909999996,4526.153809,4224.615234000001,4179.487305,4157.436035,450.0,3.0,73.0,,,,0.0,1.0,4.0,0.0,0.0,0.0,0.0,,,,,,,,,,,,,,,,,,,,,,,,,,,,,,,,,,,,,,,,,,,,,,,,,,,,,,0.0,0.0,32.0,0.23808200000000002,1.0,0.0,,,,,,,,,,,,,,,,,,,,,,,,,
16159,1648952730.837331,1648952730.870763,126.0,0.0,4224.615234000001,4498.461426,4212.307617,4334.871582,4376.922852000001,450.0,3.0,73.0,,,,0.0,1.0,4.0,0.0,0.0,0.0,0.0,,,,,,,,63.0,0.0,0.619579,0.476563,0.330322,0.529053,0.190921,-1.00148,-0.252934,0.014943000000000001,-0.048039,-0.038778,,,,,,,,,,,,,,,,,,,,,,,,,,,,,,,,,,,,,,,,,,,,,,,,,,,,,,,,,,,,,,,,,
16160,1648952730.8451462,1648952730.878579,127.0,0.0,4557.436035,4413.333496,4381.025879,4583.077147999999,4548.205078,238.0,3.0,73.0,,,,0.0,1.0,4.0,0.0,0.0,0.0,0.0,,,,,,,,,,,,,,,,,,,,,,,,,,,,,,,,,,,,,,,,,,,,,,,,,,,,,,,,,,,,,,,,,,,,,,,,,,,,,,,,,,,,
16161,1648952730.8529599,1648952730.886494,0.0,0.0,4383.077147999999,4444.102539,4204.615234000001,4359.487305,4431.282227000001,450.0,3.0,73.0,,,,0.0,1.0,4.0,0.0,0.0,0.0,0.0,,,,,,,,0.0,0.0,0.6181399999999999,0.47363299999999997,0.33252,0.531982,-0.12255999999999999,-0.932143,-0.43994799999999995,0.012423,-0.048069,-0.034168000000000004,,,,,,,,,,,,,,,,,,,,,,,,,,,,,,,,,,,,,,,,,,,,,,,,,,,,,,,,,,,,,,,,,
16162,1648952730.860775,1648952730.89431,1.0,0.0,4173.333496,4725.128418,3932.3076170000004,3975.897461,4200.512695,450.0,3.0,73.0,,,,0.0,1.0,4.0,0.0,0.0,0.0,0.0,1.0,0.0,0.0,0.0,0.0,0.0,0.0,,,,,,,,,,,,,1.0,0.0,0.0,,,,,,,,,,,,,,,,,,,,,,,,,,,,,,,,0.0,0.0,32.0,0.224978,1.0,0.0,304.920258,135.560928,371.737823,431.915955,481.098846,343.10143999999997,194.673584,108.67613999999999,106.384056,127.29167199999999,111.21516399999999,165.14494299999998,774.0622559999999,468.845795,212.427444,106.056816,219.45924399999998,797.205017,478.909149,153.279083,141.571594,171.32045,353.202515,619.601746,199.993896
16163,1648952730.8685892,1648952730.902225,2.0,0.0,4389.743652,4733.846191,4109.743652,4082.0512700000004,4171.794922,0.0,3.0,73.0,,,,0.0,0.0,4.0,0.0,0.0,0.0,0.0,,,,,,,,1.0,0.0,0.618762,0.474121,0.33105500000000004,0.531738,-0.24170300000000003,-0.9121229999999999,-0.34815,0.010302,-0.048047,-0.029872000000000003,,,,,,,,,,,,,,,,,,,,,,,,,,,,,,,,,,,,,,,,,,,,,,,,,,,,,,,,,,,,,,,,,
16164,1648952730.8764038,1648952730.910041,3.0,0.0,4319.487305,4593.333496,4414.871582,4389.230957,4225.128418,450.0,3.0,73.0,,,,0.0,0.0,4.0,0.0,0.0,0.0,0.0,,,,,,,,,,,,,,,,,,,,,,,,,,,,,,,,,,,,,,,,,,,,,,,,,,,,,,,,,,,,,,,,,,,,,,,,,,,,,,,,,,,,
16165,1648952730.884218,1648952730.917956,4.0,0.0,3957.4357909999994,4710.769043,4377.436035,4367.179688,4329.230957,18.0,3.0,73.0,,,,0.0,0.0,0.0,0.0,0.0,0.0,0.0,,,,,,,,2.0,0.0,0.621397,0.476563,0.328857,0.527832,-0.12695499999999998,-1.031266,-0.333989,0.011518,-0.048076,-0.032402,,,,,,,,,,,,,,,,,,,,,,,,,,,,,,,,,,,,,,,,,,,,,,,,,,,,,,,,,,,,,,,,,
16166,1648952730.892033,1648952730.925772,5.0,0.0,4312.820313,4735.384765999999,4439.487305,4370.256348,4604.102539,450.0,3.0,73.0,,,,0.0,0.0,0.0,0.0,0.0,0.0,0.0,,,,,,,,,,,,,,,,,,,,,,,,,,,,,,,,,,,,,,,,,,,,,,,,,,,,,,0.0,0.0,32.0,0.224978,1.0,0.0,,,,,,,,,,,,,,,,,,,,,,,,,
16167,1648952730.899848,1648952730.933687,6.0,0.0,4622.05127,4503.589844,4489.743652,4385.641113000001,4505.128418,0.0,3.0,73.0,,,,0.0,0.0,0.0,0.0,0.0,0.0,0.0,,,,,,,,3.0,0.0,0.6235689999999999,0.479004,0.32666,0.524414,-0.041505,-0.936049,-0.32861799999999997,0.012612,-0.048249,-0.034533,,,,,,,,,,,,,,,,,,,,,,,,,,,,,,,,,,,,,,,,,,,,,,,,,,,,,,,,,,,,,,,,,
16168,1648952730.907662,1648952730.941503,7.0,0.0,4073.8461909999996,4651.282227000001,4115.384765999999,4147.692383,4064.102539,450.0,3.0,73.0,,,,0.0,0.0,0.0,0.0,0.0,0.0,0.0,,,,,,,,,,,,,,,,,,,,,,,,,,,,,,,,,,,,,,,,,,,,,,,,,,,,,,,,,,,,,,,,,,,,,,,,,,,,,,,,,,,,
16169,1648952730.915477,1648952730.949419,8.0,0.0,3943.5898439999996,4847.179688,3882.0512700000004,3994.8718259999996,3993.3332520000004,450.0,3.0,73.0,,,,0.0,0.0,0.0,0.0,0.0,0.0,0.0,,,,,,,,4.0,0.0,0.624517,0.47973599999999994,0.326904,0.522461,-0.020508000000000002,-0.9194479999999999,-0.35938000000000003,0.0135,-0.048307,-0.036598,,,,,,,,,,,,,,,,,,,,,,,,,,,,,,,,,,,,,,,,,,,,,,,,,,,,,,,,,,,,,,,,,
16170,1648952730.923291,1648952730.957334,9.0,0.0,4324.615234000001,4670.769043,4086.1538090000004,4080.0,4115.897461,0.0,3.0,73.0,,,,0.0,0.0,0.0,0.0,0.0,0.0,0.0,,,,,,,,,,,,,,,,,,,,,,,,,,,,,,,,,,,,,,,,,,,,,,,,,,,,,,0.0,0.0,32.0,0.224978,1.0,0.0,,,,,,,,,,,,,,,,,,,,,,,,,
16171,1648952730.931106,1648952730.96515,10.0,0.0,4103.589844,4545.128418,4161.025879,4124.615234000001,4121.025879,450.0,3.0,73.0,,,,0.0,0.0,0.0,0.0,0.0,0.0,0.0,,,,,,,,5.0,0.0,0.624182,0.479004,0.328613,0.522461,-0.032715,-0.9077290000000001,-0.314946,0.01132,-0.048311,-0.03826,,,,,,,,,,,,,,,,,,,,,,,,,,,,,,,,,,,,,,,,,,,,,,,,,,,,,,,,,,,,,,,,,
16172,1648952730.93892,1648952730.973066,11.0,0.0,3851.794922,4606.153809,4042.0512700000004,4088.718018,4229.230957,0.0,3.0,73.0,,,,0.0,0.0,0.0,0.0,0.0,0.0,0.0,,,,,,,,,,,,,,,,,,,,,,,,,,,,,,,,,,,,,,,,,,,,,,,,,,,,,,,,,,,,,,,,,,,,,,,,,,,,,,,,,,,,
16173,1648952730.946735,1648952730.980881,12.0,0.0,4320.0,4667.179688,4130.256348,4209.743652,4461.538574,450.0,3.0,73.0,,,,0.0,0.0,0.0,0.0,0.0,0.0,0.0,,,,,,,,6.0,0.0,0.622789,0.47924799999999995,0.329346,0.523438,-0.06543099999999999,-0.892592,-0.314946,0.012336,-0.048313999999999996,-0.039757,,,,,,,,,,,,,,,,,,,,,,,,,,,,,,,,,,,,,,,,,,,,,,,,,,,,,,,,,,,,,,,,,
16174,1648952730.954549,1648952730.9887972,13.0,0.0,4764.615234000001,4586.153809,4254.871582,4303.589844,4567.692383,450.0,3.0,73.0,,,,0.0,0.0,0.0,0.0,0.0,0.0,0.0,,,,,,,,,,,,,,,,,,,,,,,,,,,,,,,,,,,,,,,,,,,,,,,,,,,,,,0.0,0.0,32.0,0.224978,1.0,0.0,,,,,,,,,,,,,,,,,,,,,,,,,
16175,1648952730.962364,1648952730.9966118,14.0,0.0,4674.871582,4517.94873,4361.025879,4348.717772999999,4504.102539,450.0,3.0,73.0,,,,0.0,0.0,0.0,0.0,0.0,0.0,0.0,,,,,,,,7.0,0.0,0.621901,0.47973599999999994,0.328369,0.524658,-0.092775,-0.887709,-0.32227100000000003,0.010175,-0.048316000000000005,-0.034901999999999996,,,,,,,,,,,,,,,,,,,,,,,,,,,,,,,,,,,,,,,,,,,,,,,,,,,,,,,,,,,,,,,,,
16176,1648952730.970178,1648952731.004428,15.0,0.0,4291.282227000001,4513.333496,4279.487305,4255.384765999999,4231.794922,0.0,3.0,73.0,,,,0.0,0.0,0.0,0.0,0.0,0.0,0.0,,,,,,,,,,,,,,,,,,,,,,,,,,,,,,,,,,,,,,,,,,,,,,,,,,,,,,,,,,,,,,,,,,,,,,,,,,,,,,,,,,,,
16177,1648952730.977993,1648952731.012143,16.0,0.0,4084.102539,4412.820313,3947.179443,4066.1538090000004,4004.615479,0.0,3.0,73.0,,,,0.0,0.0,0.0,0.0,0.0,0.0,0.0,,,,,,,,8.0,0.0,0.6213420000000001,0.480225,0.327148,0.5256350000000001,-0.082521,-0.878431,-0.285161,0.011403,-0.048319,-0.036832,,,,,,,,,,,,,,,,,,,,,,,,,,,,,,,,,,,,,,,,,,,,,,,,,,,,,,,,,,,,,,,,,
16178,1648952730.985808,1648952731.0200589,17.0,0.0,4235.897461,4417.94873,3874.358887,4024.102539,4061.538574,0.0,3.0,73.0,,,,0.0,0.0,0.0,0.0,0.0,0.0,0.0,,,,,,,,,,,,,,,,,,,,1.0,0.0,0.0,,,,,,,,,,,,,,,,,,,,,,,,,,,,,,,,0.0,0.0,32.0,0.219169,1.0,0.0,295.99548300000004,139.659836,347.449982,422.17703200000005,431.606171,354.71698,208.66674799999998,100.128242,95.519821,131.679489,115.358322,135.60398899999998,809.794189,554.774536,202.184616,113.69078799999998,189.229095,820.205933,557.098328,145.592865,145.33746299999999,158.388504,475.08654800000005,618.8445429999999,180.06274399999998
16179,1648952730.993622,1648952731.027875,18.0,0.0,4301.538574,4572.307617,4259.487305,4291.794922,4324.102539,0.0,3.0,73.0,,,,0.0,0.0,0.0,0.0,0.0,0.0,0.0,,,,,,,,9.0,0.0,0.620436,0.480225,0.326904,0.5268550000000001,-0.090822,-0.951675,-0.334966,0.012411,-0.048320999999999996,-0.03227,,,,,,,,,,,,,,,,,,,,,,,,,,,,,,,,,,,,,,,,,,,,,,,,,,,,,,,,,,,,,,,,,
16180,1648952731.001437,1648952731.03579,19.0,0.0,4290.256348,4484.102539,4473.846191,4483.077147999999,4398.974121,0.0,3.0,73.0,,,,0.0,0.0,0.0,0.0,0.0,0.0,0.0,,,,,,,,,,,,,,,,,,,,,,,,,,,,,,,,,,,,,,,,,,,,,,,,,,,,,,,,,,,,,,,,,,,,,,,,,,,,,,,,,,,,
16181,1648952731.0092509,1648952731.043606,20.0,0.0,4516.410156,4293.333496,4388.717772999999,4437.436035,4206.666504,0.0,3.0,73.0,,,,0.0,0.0,0.0,0.0,0.0,0.0,0.0,,,,,,,,10.0,0.0,0.617984,0.477783,0.32959,0.530273,-0.029297000000000004,-0.973648,-0.370611,0.010243,-0.048225,-0.028213,,,,,,,,,,,,,,,,,,,,,,,,,,,,,,,,,,,,,,,,,,,,,,,,,,,,,,,,,,,,,,,,,
16182,1648952731.017066,1648952731.051521,21.0,0.0,4435.897461,4563.077147999999,4240.512695,4287.692383,4085.1281740000004,0.0,3.0,73.0,,,,0.0,0.0,0.0,0.0,0.0,0.0,0.0,,,,,,,,,,,,,,,,,,,,,,,,,,,,,,,,,,,,,,,,,,,,,,,,,,,,,,0.0,0.0,32.0,0.219169,1.0,0.0,,,,,,,,,,,,,,,,,,,,,,,,,
16183,1648952731.0248802,1648952731.059337,22.0,0.0,4056.923096,4674.871582,4093.3332520000004,4098.461426,4236.922852000001,0.0,3.0,73.0,,,,0.0,0.0,0.0,0.0,0.0,0.0,0.0,,,,,,,,11.0,0.0,0.615274,0.47509799999999996,0.33300799999999997,0.533691,-0.145022,-0.934585,-0.35108,0.008242,-0.048139,-0.02461,,,,,,,,,,,,,,,,,,,,,,,,,,,,,,,,,,,,,,,,,,,,,,,,,,,,,,,,,,,,,,,,,
16184,1648952731.0326948,1648952731.067252,23.0,0.0,4095.897461,4360.512695,4019.487061,4067.179443,4315.897461,0.0,3.0,73.0,,,,0.0,0.0,0.0,0.0,0.0,0.0,0.0,,,,,,,,,,,,,,,,,,,,,,,,,,,,,,,,,,,,,,,,,,,,,,,,,,,,,,,,,,,,,,,,,,,,,,,,,,,,,,,,,,,,
16185,1648952731.040509,1648952731.075068,24.0,0.0,4536.922852000001,4501.538574,4309.230957,4328.717772999999,4334.358886999999,0.0,3.0,73.0,,,,0.0,0.0,0.0,0.0,0.0,0.0,0.0,,,,,,,,12.0,0.0,0.61434,0.475342,0.332031,0.5351560000000001,-0.22803099999999998,-0.952651,-0.354009,0.009566,-0.048159,-0.027667,,,,,,,,,,,,,,,,,,,,,,,,,,,,,,,,,,,,,,,,,,,,,,,,,,,,,,,,,,,,,,,,,
16186,1648952731.048324,1648952731.082983,25.0,0.0,4568.717772999999,4752.820313,4583.589844,4537.94873,4346.153809,0.0,3.0,73.0,,,,0.0,0.0,0.0,0.0,0.0,0.0,0.0,,,,,,,,,,,,,,,,,,,,,,,,,,,,,,,,,,,,,,,,,,,,,,,,,,,,,,0.0,0.0,32.0,0.219169,1.0,0.0,,,,,,,,,,,,,,,,,,,,,,,,,
16187,1648952731.056138,1648952731.090799,26.0,0.0,4230.256348,4621.538574,4237.436035,4310.256348,4124.102539,0.0,3.0,73.0,,,,0.0,0.0,0.0,0.0,0.0,0.0,0.0,,,,,,,,13.0,0.0,0.614965,0.478271,0.328613,0.533936,-0.143069,-0.977554,-0.354986,0.007633,-0.04808,-0.024069999999999998,,,,,,,,,,,,,,,,,,,,,,,,,,,,,,,,,,,,,,,,,,,,,,,,,,,,,,,,,,,,,,,,,
16188,1648952731.063953,1648952731.098714,27.0,0.0,4150.769043,4656.922852000001,3913.3332520000004,4009.2307130000004,4014.358887,0.0,3.0,73.0,,,,0.0,0.0,0.0,0.0,0.0,0.0,0.0,,,,,,,,,,,,,,,,,,,,,,,,,,,,,,,,,,,,,,,,,,,,,,,,,,,,,,,,,,,,,,,,,,,,,,,,,,,,,,,,,,,,
16189,1648952731.071768,1648952731.10663,28.0,0.0,4116.410156,4804.102539,4066.1538090000004,4031.794922,4088.205078,0.0,3.0,73.0,,,,0.0,0.0,0.0,0.0,0.0,0.0,0.0,,,,,,,,14.0,0.0,0.616467,0.480469,0.32495100000000005,0.532471,-0.06347799999999999,-0.96144,-0.338384,0.009115999999999999,-0.048155,-0.026937,,,,,,,,,,,,,,,,,,,,,,,,,,,,,,,,,,,,,,,,,,,,,,,,,,,,,,,,,,,,,,,,,
16190,1648952731.079582,1648952731.1144462,29.0,0.0,4066.6667479999996,4560.0,4136.922852000001,4136.410156,4095.897461,0.0,3.0,73.0,,,,0.0,0.0,0.0,0.0,0.0,0.0,0.0,,,,,,,,,,,,,,,,,,,,,,,,,,,,,,,,,,,,,,,,,,,,,,,,,,,,,,0.0,0.0,32.0,0.219169,1.0,0.0,,,,,,,,,,,,,,,,,,,,,,,,,
16191,1648952731.087397,1648952731.122262,30.0,0.0,4144.615234000001,4491.282227000001,3987.6923829999996,4066.6667479999996,4081.538574,0.0,3.0,73.0,,,,0.0,0.0,0.0,0.0,0.0,0.0,0.0,,,,,,,,15.0,0.0,0.61679,0.480713,0.323975,0.532471,-0.12451400000000001,-0.9267719999999999,-0.39942,0.007325,-0.048173,-0.029613999999999998,,,,,,,,,,,,,,,,,,,,,,,,,,,,,,,,,,,,,,,,,,,,,,,,,,,,,,,,,,,,,,,,,
16192,1648952731.095211,1648952731.129978,31.0,0.0,4350.256348,4686.666504,4108.205078,4100.0,4298.974121,0.0,3.0,73.0,,,,0.0,0.0,0.0,0.0,0.0,0.0,0.0,,,,,,,,,,,,,,,,,,,,,,,,,,,,,,,,,,,,,,,,,,,,,,,,,,,,,,,,,,,,,,,,,,,,,,,,,,,,,,,,,,,,
16193,1648952731.103026,1648952731.137793,32.0,0.0,4533.333496,4643.077147999999,4422.05127,4361.538574,4519.487305,0.0,3.0,73.0,,,,0.0,0.0,0.0,0.0,0.0,0.0,0.0,,,,,,,,16.0,0.0,0.616104,0.47924799999999995,0.325439,0.533691,-0.11767799999999999,-0.9521629999999999,-0.37109899999999996,0.008888,-0.048141,-0.032121,,,,,,,,,,,,,,,,,,,,,,,,,,,,,,,,,,,,,,,,,,,,,,,,,,,,,,,,,,,,,,,,,
16194,1648952731.11084,1648952731.145509,33.0,0.0,4652.820313,4621.538574,4631.794922,4629.743652,4531.282227000001,0.0,3.0,73.0,,,,0.0,0.0,0.0,0.0,0.0,0.0,0.0,,,,,,,,,,,,,,,,,,,,1.0,0.0,0.0,,,,,,,,,,,,,,,,,,,,,,,,,,,,,,,,0.0,0.0,32.0,0.227005,1.0,0.0,285.53006,139.71173100000001,342.931427,474.15893600000004,419.01592999999997,370.493073,208.00698899999998,86.356544,90.942833,135.07110600000001,123.732231,114.25790400000001,864.2485960000001,631.4862059999999,192.398972,132.307663,161.753525,864.342834,630.436462,144.04536399999998,155.965393,133.558243,606.469238,625.9315799999999,158.64158600000002
16195,1648952731.118655,1648952731.1533241,34.0,0.0,4352.820313,4662.05127,4373.846191,4402.05127,4329.743652,0.0,3.0,73.0,,,,0.0,0.0,0.0,0.0,0.0,0.0,0.0,,,,,,,,17.0,0.0,0.6149819999999999,0.477783,0.326904,0.5354,-0.138186,-0.952651,-0.346197,0.010196,-0.048258999999999996,-0.028275,,,,,,,,,,,,,,,,,,,,,,,,,,,,,,,,,,,,,,,,,,,,,,,,,,,,,,,,,,,,,,,,,
16196,1648952731.126469,1648952731.16104,35.0,0.0,3975.384521,4614.871582,3994.8718259999996,3995.897461,4127.179688,0.0,3.0,73.0,,,,0.0,0.0,0.0,0.0,0.0,0.0,0.0,,,,,,,,,,,,,,,,,,,,,,,,,,,,,,,,,,,,,,,,,,,,,,,,,,,,,,,,,,,,,,,,,,,,,,,,,,,,,,,,,,,,
16197,1648952731.134284,1648952731.1688561,36.0,0.0,4089.743652,4601.025879,4052.820557,4050.7692869999996,4119.487305,0.0,3.0,73.0,,,,0.0,0.0,0.0,0.0,0.0,0.0,0.0,,,,,,,,18.0,0.0,0.61679,0.480713,0.323975,0.532471,-0.12451400000000001,-0.9267719999999999,-0.39942,0.008249,-0.048316000000000005,-0.024617,,,,,,,,,,,,,,,,,,,,,,,,,,,,,,,,,,,,,,,,,,,,,,,,,,,,,,,,,,,,,,,,,
16198,1648952731.1420991,1648952731.1765711,37.0,0.0,4217.436035,4444.102539,4141.025879,4250.769043,4123.589844,0.0,3.0,73.0,,,,0.0,0.0,0.0,0.0,0.0,0.0,0.0,,,,,,,,,,,,,,,,,,,,,,,,,,,,,,,,,,,,,,,,,,,,,,,,,,,,,,0.0,0.0,32.0,0.227005,1.0,0.0,,,,,,,,,,,,,,,,,,,,,,,,,
16199,1648952731.149913,1648952731.184387,38.0,0.0,4105.128418,4224.615234000001,3975.384521,4161.025879,4102.563965,0.0,3.0,73.0,,,,0.0,0.0,0.0,0.0,0.0,0.0,0.0,,,,,,,,19.0,0.0,0.6149819999999999,0.477783,0.326904,0.5354,-0.138186,-0.952651,-0.346197,0.009621,-0.048416,-0.021521000000000002,,,,,,,,,,,,,,,,,,,,,,,,,,,,,,,,,,,,,,,,,,,,,,,,,,,,,,,,,,,,,,,,,
16200,1648952731.157728,1648952731.192102,39.0,0.0,4306.666504,4323.077147999999,4189.230957,4197.94873,4412.307617,0.0,3.0,73.0,,,,0.0,0.0,0.0,0.0,0.0,0.0,0.0,,,,,,,,,,,,,,,,,,,,,,,,,,,,,,,,,,,,,,,,,,,,,,,,,,,,,,,,,,,,,,,,,,,,,,,,,,,,,,,,,,,,
16201,1648952731.165542,1648952731.200018,40.0,0.0,4604.102539,4566.666504,4554.871582,4389.743652,4584.102539,0.0,3.0,73.0,,,,0.0,0.0,0.0,0.0,0.0,0.0,0.0,,,,,,,,20.0,0.0,0.614333,0.47729499999999997,0.327637,0.536133,-0.092775,-0.9199360000000001,-0.319829,0.010856000000000001,-0.04836,-0.024837,,,,,,,,,,,,,,,,,,,,,,,,,,,,,,,,,,,,,,,,,,,,,,,,,,,,,,,,,,,,,,,,,
16202,1648952731.173357,1648952731.207833,41.0,0.0,4326.666504,4363.077147999999,4392.307617,4311.794922,4165.641113000001,0.0,3.0,73.0,,,,0.0,0.0,0.0,0.0,0.0,0.0,0.0,,,,,,,,,,,,,,,,,,,,,,,,,,,,,,,,,,,,,,,,,,,,,,,,,,,,,,0.0,0.0,32.0,0.227005,1.0,0.0,,,,,,,,,,,,,,,,,,,,,,,,,
16203,1648952731.1811712,1648952731.215749,42.0,0.0,3940.0,4216.922852000001,4131.282227000001,4208.717772999999,3939.487061,0.0,3.0,73.0,,,,0.0,0.0,0.0,0.0,0.0,0.0,0.0,,,,,,,,21.0,0.0,0.614592,0.477783,0.327637,0.5354,-0.078614,-0.929213,-0.282231,0.012017,-0.048309,-0.027870999999999996,,,,,,,,,,,,,,,,,,,,,,,,,,,,,,,,,,,,,,,,,,,,,,,,,,,,,,,,,,,,,,,,,
16204,1648952731.1889858,1648952731.2235641,43.0,0.0,4056.923096,4497.436035,4106.153809,4211.282227000001,4243.077147999999,0.0,3.0,73.0,,,,0.0,0.0,0.0,0.0,0.0,0.0,0.0,,,,,,,,,,,,,,,,,,,,,,,,,,,,,,,,,,,,,,,,,,,,,,,,,,,,,,,,,,,,,,,,,,,,,,,,,,,,,,,,,,,,
16205,1648952731.1968,1648952731.23138,44.0,0.0,4353.333496,4631.794922,4035.384521,4104.615234000001,4457.94873,0.0,3.0,73.0,,,,0.0,0.0,0.0,0.0,0.0,0.0,0.0,,,,,,,,22.0,0.0,0.61445,0.47729499999999997,0.328613,0.5354,-0.076173,-0.9511860000000001,-0.285161,0.009936,-0.048166,-0.024303,,,,,,,,,,,,,,,,,,,,,,,,,,,,,,,,,,,,,,,,,,,,,,,,,,,,,,,,,,,,,,,,,
16206,1648952731.204615,1648952731.239095,45.0,0.0,4515.897461,4538.974121,4144.615234000001,4160.0,4418.974121,0.0,3.0,73.0,,,,0.0,0.0,0.0,0.0,0.0,0.0,0.0,,,,,,,,,,,,,,,,,,,,,,,,,,,,,,,,,,,,,,,,,,,,,,,,,,,,,,0.0,0.0,32.0,0.227005,1.0,0.0,,,,,,,,,,,,,,,,,,,,,,,,,
16207,1648952731.2124288,1648952731.247011,46.0,0.0,4502.05127,4617.436035,4551.794922,4528.205078,4384.102539,0.0,3.0,73.0,,,,0.0,0.0,0.0,0.0,0.0,0.0,0.0,,,,,,,,23.0,0.0,0.6127,0.475342,0.330322,0.538086,0.002441,-0.973648,-0.279789,0.011189,-0.048133999999999996,-0.027244,,,,,,,,,,,,,,,,,,,,,,,,,,,,,,,,,,,,,,,,,,,,,,,,,,,,,,,,,,,,,,,,,
16208,1648952731.220244,1648952731.254826,47.0,0.0,4153.846191,4864.615234000001,4374.358886999999,4369.230957,4169.743652,0.0,3.0,73.0,,,,0.0,0.0,0.0,0.0,0.0,0.0,0.0,,,,,,,,,,,,,,,,,,,,,,,,,,,,,,,,,,,,,,,,,,,,,,,,,,,,,,,,,,,,,,,,,,,,,,,,,,,,,,,,,,,,
16209,1648952731.228059,1648952731.262742,48.0,0.0,3988.205078,4907.179688,3923.5898439999996,3944.615479,4042.0512700000004,0.0,3.0,73.0,,,,0.0,0.0,0.0,0.0,0.0,0.0,0.0,,,,,,,,24.0,0.0,0.61234,0.47363299999999997,0.33105500000000004,0.539551,-0.116701,-0.932631,-0.308598,0.012315999999999999,-0.048106,-0.023738,,,,,,,,,,,,,,,,,,,,,,,,,,,,,,,,,,,,,,,,,,,,,,,,,,,,,,,,,,,,,,,,,
16210,1648952731.235873,1648952731.270557,49.0,0.0,4097.94873,4784.102539,4127.179688,4112.820313,4073.8461909999996,0.0,3.0,73.0,,,,0.0,0.0,0.0,0.0,0.0,0.0,0.0,,,,,,,,,,,,,,,,,,,,1.0,0.0,0.0,,,,,,,,,,,,,,,,,,,,,,,,,,,,,,,,0.0,0.0,32.0,0.25819000000000003,1.0,0.0,275.814911,137.56445300000001,363.050507,551.4903559999999,410.461304,385.868652,190.051971,71.124687,92.236588,136.87463400000001,133.883423,98.915497,930.817566,683.014099,187.876358,154.603668,140.304489,927.7113039999999,685.886658,152.954666,174.910919,107.169937,713.820618,647.473572,142.827606
16211,1648952731.243688,1648952731.2784731,50.0,0.0,4144.102539,4668.717772999999,4397.436035,4368.717772999999,4107.179688,0.0,3.0,73.0,,,,0.0,0.0,0.0,0.0,0.0,0.0,0.0,,,,,,,,25.0,0.0,0.6139899999999999,0.474121,0.33007800000000004,0.537842,-0.224125,-0.918959,-0.305669,0.010206,-0.048032,-0.026735000000000002,,,,,,,,,,,,,,,,,,,,,,,,,,,,,,,,,,,,,,,,,,,,,,,,,,,,,,,,,,,,,,,,,
16212,1648952731.251502,1648952731.286289,51.0,0.0,4238.974121,4569.230957,4144.102539,4166.666504,4251.282227000001,0.0,3.0,73.0,,,,0.0,0.0,0.0,0.0,0.0,0.0,0.0,,,,,,,,,,,,,,,,,,,,,,,,,,,,,,,,,,,,,,,,,,,,,,,,,,,,,,,,,,,,,,,,,,,,,,,,,,,,,,,,,,,,
16213,1648952731.259317,1648952731.294204,52.0,0.0,4603.077147999999,4647.692383,4189.743652,4280.0,4562.563965,0.0,3.0,73.0,,,,0.0,0.0,0.0,0.0,0.0,0.0,0.0,,,,,,,,26.0,0.0,0.616745,0.476563,0.329346,0.532959,-0.143557,-0.959976,-0.323735,0.011431,-0.04816,-0.023281,,,,,,,,,,,,,,,,,,,,,,,,,,,,,,,,,,,,,,,,,,,,,,,,,,,,,,,,,,,,,,,,,
16214,1648952731.267131,1648952731.3020198,53.0,0.0,4413.333496,4730.256348,4334.358886999999,4434.358886999999,4508.717772999999,0.0,3.0,73.0,,,,0.0,0.0,0.0,0.0,0.0,0.0,0.0,,,,,,,,,,,,,,,,,,,,,,,,,,,,,,,,,,,,,,,,,,,,,,,,,,,,,,0.0,0.0,32.0,0.25819000000000003,1.0,0.0,,,,,,,,,,,,,,,,,,,,,,,,,
16215,1648952731.2749462,1648952731.309735,54.0,0.0,3863.5898439999996,4671.794922,4100.0,4110.256348,4201.025879,0.0,3.0,73.0,,,,0.0,0.0,0.0,0.0,0.0,0.0,0.0,,,,,,,,27.0,0.0,0.61834,0.47924799999999995,0.330322,0.528076,-0.099123,-0.9824370000000001,-0.352544,0.012388,-0.048227,-0.026373,,,,,,,,,,,,,,,,,,,,,,,,,,,,,,,,,,,,,,,,,,,,,,,,,,,,,,,,,,,,,,,,,
16216,1648952731.2827609,1648952731.317551,55.0,0.0,3961.538574,4519.487305,3993.3332520000004,3969.2307130000004,4171.282227000001,0.0,3.0,73.0,,,,0.0,0.0,0.0,0.0,0.0,0.0,0.0,,,,,,,,,,,,,,,,,,,,,,,,,,,,,,,,,,,,,,,,,,,,,,,,,,,,,,,,,,,,,,,,,,,,,,,,,,,,,,,,,,,,
16217,1648952731.290575,1648952731.325267,56.0,0.0,4273.846191,4549.230957,4103.589844,4113.846191,4231.794922,0.0,3.0,73.0,,,,0.0,0.0,0.0,0.0,0.0,0.0,0.0,,,,,,,,28.0,0.0,0.618067,0.48095699999999997,0.33300799999999997,0.525146,-0.043458,-1.005875,-0.37158800000000003,0.01027,-0.048239,-0.022856,,,,,,,,,,,,,,,,,,,,,,,,,,,,,,,,,,,,,,,,,,,,,,,,,,,,,,,,,,,,,,,,,
16218,1648952731.2983902,1648952731.333082,57.0,0.0,4168.205078,4693.846191,4103.589844,4103.589844,4186.153809,0.0,3.0,73.0,,,,0.0,0.0,0.0,0.0,0.0,0.0,0.0,,,,,,,,,,,,,,,,,,,,,,,,,,,,,,,,,,,,,,,,,,,,,,,,,,,,,,0.0,0.0,32.0,0.25819000000000003,1.0,0.0,,,,,,,,,,,,,,,,,,,,,,,,,
16219,1648952731.3062038,1648952731.3407981,58.0,0.0,3980.512939,4644.615234000001,4060.512939,4030.256348,4202.563965,0.0,3.0,73.0,,,,0.0,0.0,0.0,0.0,0.0,0.0,0.0,,,,,,,,29.0,0.0,0.617742,0.48120100000000005,0.335938,0.523438,-0.029786,-1.036149,-0.277836,0.01144,-0.0482,-0.025942000000000003,,,,,,,,,,,,,,,,,,,,,,,,,,,,,,,,,,,,,,,,,,,,,,,,,,,,,,,,,,,,,,,,,
16220,1648952731.314019,1648952731.348614,59.0,0.0,4110.769043,4594.871582,4129.743652,4145.641113000001,4337.94873,0.0,3.0,73.0,,,,0.0,0.0,0.0,0.0,0.0,0.0,0.0,,,,,,,,,,,,,,,,,,,,,,,,,,,,,,,,,,,,,,,,,,,,,,,,,,,,,,,,,,,,,,,,,,,,,,,,,,,,,,,,,,,,
16221,1648952731.321833,1648952731.356329,60.0,0.0,4353.333496,4641.538574,4308.205078,4348.717772999999,4465.641113000001,0.0,3.0,73.0,,,,0.0,0.0,0.0,0.0,0.0,0.0,0.0,,,,,,,,30.0,0.0,0.619046,0.480225,0.33569299999999996,0.522949,-0.10009900000000001,-1.025895,-0.25390999999999997,0.012445,-0.048214,-0.022371000000000002,,,,,,,,,,,,,,,,,,,,,,,,,,,,,,,,,,,,,,,,,,,,,,,,,,,,,,,,,,,,,,,,,
16222,1648952731.329648,1648952731.364145,61.0,0.0,4496.410156,4720.0,4562.05127,4538.461426,4504.102539,0.0,3.0,73.0,,,,0.0,0.0,0.0,0.0,0.0,0.0,0.0,,,,,,,,,,,,,,,,,,,,,,,,,,,,,,,,,,,,,,,,,,,,,,,,,,,,,,0.0,0.0,32.0,0.25819000000000003,1.0,0.0,,,,,,,,,,,,,,,,,,,,,,,,,
16223,1648952731.337462,1648952731.37186,62.0,0.0,4362.563965,4596.922852000001,4437.94873,4503.589844,4225.641113000001,0.0,3.0,73.0,,,,0.0,0.0,0.0,0.0,0.0,0.0,0.0,,,,,,,,31.0,0.0,0.6205970000000001,0.47876,0.33300799999999997,0.52417,-0.08838,-0.9643700000000001,-0.290044,0.013446000000000001,-0.048324,-0.025505,,,,,,,,,,,,,,,,,,,,,,,,,,,,,,,,,,,,,,,,,,,,,,,,,,,,,,,,,,,,,,,,,
16224,1648952731.345277,1648952731.379776,63.0,0.0,4093.3332520000004,4296.922852000001,4066.6667479999996,4311.282227000001,3976.923096,0.0,3.0,73.0,,,,0.0,0.0,0.0,0.0,0.0,0.0,0.0,,,,,,,,,,,,,,,,,,,,,,,,,,,,,,,,,,,,,,,,,,,,,,,,,,,,,,,,,,,,,,,,,,,,,,,,,,,,,,,,,,,,
16225,1648952731.353091,1648952731.3875911,64.0,0.0,4097.94873,4324.615234000001,4024.102539,4166.153809,4122.05127,450.0,3.0,73.0,,,,0.0,0.0,0.0,0.0,0.0,0.0,0.0,,,,,,,,32.0,0.0,0.6227159999999999,0.476563,0.329102,0.526123,-0.067872,-0.9209129999999999,-0.337407,0.014200999999999998,-0.048375,-0.022125,,,,,,,,,,,,,,,,,,,,,,,,,,,,,,,,,,,,,,,,,,,,,,,,,,,,,,,,,,,,,,,,,
16226,1648952731.3609061,1648952731.395507,65.0,0.0,4206.666504,4578.461426,4098.974121,4142.05127,4361.025879,450.0,3.0,73.0,,,,0.0,2.0,0.0,0.0,0.0,0.0,0.0,1.0,0.0,0.0,0.0,0.0,0.0,0.0,,,,,,,,,,,,,1.0,0.0,0.0,,,,,,,,,,,,,,,,,,,,,,,,,,,,,,,,0.0,0.0,32.0,0.295108,1.0,0.0,264.105682,135.775589,401.30725099999995,621.005493,386.853943,395.223389,158.982819,58.757603,97.950096,137.631317,141.508896,88.465385,982.9755859999999,706.1582030000001,190.984634,172.138031,126.22640200000001,982.01239,717.352844,171.10257,196.475616,89.556877,770.803101,681.003784,136.238251
16227,1648952731.3687198,1648952731.403323,66.0,0.0,4353.846191,4641.538574,4109.230957,4202.05127,4452.820313,169.0,3.0,73.0,,,,0.0,2.0,0.0,0.0,0.0,0.0,0.0,,,,,,,,33.0,0.0,0.623808,0.474609,0.325928,0.528564,-0.033204000000000004,-0.887709,-0.392096,0.014979,-0.048274,-0.025381,,,,,,,,,,,,,,,,,,,,,,,,,,,,,,,,,,,,,,,,,,,,,,,,,,,,,,,,,,,,,,,,,
16228,1648952731.376535,1648952731.4112382,67.0,0.0,4603.589844,4616.410156,4428.205078,4373.333496,4463.077147999999,450.0,3.0,73.0,,,,0.0,2.0,0.0,0.0,0.0,0.0,0.0,,,,,,,,,,,,,,,,,,,,,,,,,,,,,,,,,,,,,,,,,,,,,,,,,,,,,,,,,,,,,,,,,,,,,,,,,,,,,,,,,,,,
16229,1648952731.38435,1648952731.4190538,68.0,0.0,4465.641113000001,4621.025879,4521.025879,4417.436035,4295.897461,4.0,3.0,73.0,,,,0.0,2.0,0.0,0.0,0.0,0.0,0.0,,,,,,,,34.0,0.0,0.623805,0.47387700000000005,0.324219,0.530273,-0.019532,-0.897963,-0.397467,0.015580000000000002,-0.048183,-0.022062000000000002,,,,,,,,,,,,,,,,,,,,,,,,,,,,,,,,,,,,,,,,,,,,,,,,,,,,,,,,,,,,,,,,,
16230,1648952731.392164,1648952731.426969,69.0,0.0,4202.05127,4492.307617,4035.384521,4088.718018,4109.743652,450.0,3.0,73.0,,,,0.0,2.0,0.0,0.0,0.0,0.0,0.0,,,,,,,,,,,,,,,,,,,,,,,,,,,,,,,,,,,,,,,,,,,,,,,,,,,,,,0.0,0.0,32.0,0.295108,1.0,0.0,,,,,,,,,,,,,,,,,,,,,,,,,
16231,1648952731.3999789,1648952731.434785,70.0,0.0,4179.487305,4484.615234000001,3903.076904,3846.1538090000004,4055.384521,0.0,3.0,73.0,,,,0.0,2.0,0.0,0.0,0.0,0.0,0.0,,,,,,,,35.0,0.0,0.623951,0.469971,0.326416,0.532227,0.000977,-0.8813610000000001,-0.455085,0.016171,-0.04815,-0.025275,,,,,,,,,,,,,,,,,,,,,,,,,,,,,,,,,,,,,,,,,,,,,,,,,,,,,,,,,,,,,,,,,
16232,1648952731.407793,1648952731.4427,71.0,0.0,4130.256348,4532.820313,4220.0,4046.6667479999996,4084.615479,450.0,3.0,73.0,,,,0.0,2.0,0.0,0.0,0.0,0.0,0.0,,,,,,,,,,,,,,,,,,,,,,,,,,,,,,,,,,,,,,,,,,,,,,,,,,,,,,,,,,,,,,,,,,,,,,,,,,,,,,,,,,,,
16233,1648952731.415608,1648952731.450516,72.0,0.0,4112.820313,4527.179688,4295.384765999999,4290.256348,4228.717772999999,450.0,3.0,73.0,,,,0.0,2.0,0.0,0.0,0.0,0.0,0.0,,,,,,,,36.0,0.0,0.624203,0.466797,0.332031,0.53125,-0.187503,-0.849622,-0.356451,0.016653,-0.048119999999999996,-0.021918,,,,,,,,,,,,,,,,,,,,,,,,,,,,,,,,,,,,,,,,,,,,,,,,,,,,,,,,,,,,,,,,,
16234,1648952731.423422,1648952731.458431,73.0,0.0,4332.820313,4609.230957,4455.897461,4462.563965,4505.128418,0.0,3.0,73.0,,,,0.0,2.0,0.0,0.0,0.0,0.0,0.0,,,,,,,,,,,,,,,,,,,,,,,,,,,,,,,,,,,,,,,,,,,,,,,,,,,,,,0.0,0.0,32.0,0.295108,1.0,0.0,,,,,,,,,,,,,,,,,,,,,,,,,
16235,1648952731.431237,1648952731.466247,74.0,0.0,4343.589844,4492.820313,4566.666504,4493.846191,4561.538574,450.0,3.0,73.0,,,,0.0,2.0,0.0,0.0,0.0,0.0,0.0,,,,,,,,37.0,0.0,0.626677,0.467041,0.333252,0.5273439999999999,-0.247074,-0.9248190000000001,-0.295415,0.013865,-0.048191000000000005,-0.018896,,,,,,,,,,,,,,,,,,,,,,,,,,,,,,,,,,,,,,,,,,,,,,,,,,,,,,,,,,,,,,,,,
16236,1648952731.4390519,1648952731.473963,75.0,0.0,4110.769043,4374.358886999999,4162.563965,4181.538574,4254.871582,31.0,3.0,73.0,,,,0.0,2.0,0.0,0.0,0.0,0.0,0.0,,,,,,,,,,,,,,,,,,,,,,,,,,,,,,,,,,,,,,,,,,,,,,,,,,,,,,,,,,,,,,,,,,,,,,,,,,,,,,,,,,,,
16237,1648952731.446866,1648952731.481778,76.0,0.0,4083.076904,4567.692383,3964.615479,3994.8718259999996,4109.230957,450.0,3.0,73.0,,,,0.0,2.0,0.0,0.0,0.0,0.0,0.0,,,,,,,,38.0,0.0,0.6306350000000001,0.469971,0.332031,0.520752,-0.098634,-0.923842,-0.31787600000000005,0.011502,-0.048255,-0.022622,,,,,,,,,,,,,,,,,,,,,,,,,,,,,,,,,,,,,,,,,,,,,,,,,,,,,,,,,,,,,,,,,
16238,1648952731.4546812,1648952731.4896939,77.0,0.0,4043.5898439999996,4735.897461,4143.589844,4092.3076170000004,4238.974121,450.0,3.0,73.0,,,,0.0,2.0,0.0,0.0,0.0,0.0,0.0,,,,,,,,,,,,,,,,,,,,,,,,,,,,,,,,,,,,,,,,,,,,,,,,,,,,,,0.0,0.0,32.0,0.295108,1.0,0.0,,,,,,,,,,,,,,,,,,,,,,,,,
16239,1648952731.4624949,1648952731.497609,78.0,0.0,4187.179688,4589.230957,4100.512695,4161.025879,4363.589844,450.0,3.0,73.0,,,,0.0,2.0,0.0,0.0,0.0,0.0,0.0,,,,,,,,39.0,0.0,0.633637,0.47338900000000006,0.329834,0.5153810000000001,0.00293,-0.897963,-0.37158800000000003,0.012451,-0.04841,-0.025731,,,,,,,,,,,,,,,,,,,,,,,,,,,,,,,,,,,,,,,,,,,,,,,,,,,,,,,,,,,,,,,,,
16240,1648952731.47031,1648952731.505425,79.0,0.0,4618.974121,4581.025879,4112.820313,4252.820313,4371.282227000001,31.0,3.0,73.0,,,,0.0,2.0,0.0,0.0,0.0,0.0,0.0,,,,,,,,,,,,,,,,,,,,,,,,,,,,,,,,,,,,,,,,,,,,,,,,,,,,,,,,,,,,,,,,,,,,,,,,,,,,,,,,,,,,
16241,1648952731.4781241,1648952731.513341,80.0,0.0,4663.077147999999,4634.871582,4558.461426,4553.333496,4389.230957,450.0,3.0,73.0,,,,0.0,2.0,0.0,0.0,0.0,0.0,0.0,,,,,,,,40.0,0.0,0.633506,0.47558599999999995,0.32959,0.513672,0.042969,-0.9580219999999999,-0.413092,0.013306,-0.048402999999999995,-0.028529000000000002,,,,,,,,,,,,,,,,,,,,,,,,,,,,,,,,,,,,,,,,,,,,,,,,,,,,,,,,,,,,,,,,,
16242,1648952731.485939,1648952731.521157,81.0,0.0,4213.846191,4562.05127,4458.461426,4511.794922,4208.717772999999,450.0,3.0,73.0,,,,0.0,2.0,0.0,0.0,0.0,0.0,0.0,,,,,,,,,,,,,,,,,,,,1.0,0.0,0.0,,,,,,,,,,,,,,,,,,,,,,,,,,,,,,,,0.0,0.0,32.0,0.23567800000000003,1.0,0.0,245.369171,135.768631,444.35903899999994,667.667114,350.000214,398.519257,124.560562,51.225693,105.46964299999999,138.38002,142.18682900000002,81.791534,987.997375,707.869934,200.751099,178.083572,118.95913700000001,987.8601679999999,724.461365,192.66636699999998,210.275513,85.696129,767.579163,715.840637,137.432678
16243,1648952731.493753,1648952731.529073,82.0,0.0,4167.179688,4742.05127,3951.794922,4156.410156,4025.641113,450.0,3.0,73.0,,,,0.0,2.0,0.0,0.0,0.0,0.0,0.0,,,,,,,,41.0,0.0,0.6325850000000001,0.47583000000000003,0.329102,0.514893,0.032227,-0.960952,-0.31299299999999997,0.011047,-0.048397,-0.024846,,,,,,,,,,,,,,,,,,,,,,,,,,,,,,,,,,,,,,,,,,,,,,,,,,,,,,,,,,,,,,,,,
16244,1648952731.501568,1648952731.5368881,83.0,0.0,4308.717772999999,4860.512695,4006.1538090000004,4031.281982,4055.384521,31.0,3.0,73.0,,,,0.0,2.0,0.0,0.0,0.0,0.0,0.0,,,,,,,,,,,,,,,,,,,,,,,,,,,,,,,,,,,,,,,,,,,,,,,,,,,,,,,,,,,,,,,,,,,,,,,,,,,,,,,,,,,,
16245,1648952731.509382,1648952731.5448039,84.0,0.0,4050.7692869999996,4656.922852000001,4277.94873,4136.922852000001,4107.692383,450.0,3.0,73.0,,,,0.0,2.0,0.0,0.0,0.0,0.0,0.0,,,,,,,,42.0,0.0,0.6316579999999999,0.47583000000000003,0.32666,0.517578,-0.058106,-0.9673,-0.340826,0.01214,-0.048489,-0.027635000000000003,,,,,,,,,,,,,,,,,,,,,,,,,,,,,,,,,,,,,,,,,,,,,,,,,,,,,,,,,,,,,,,,,
16246,1648952731.5171971,1648952731.55262,85.0,0.0,3880.512939,4512.307617,4117.94873,4077.4357909999994,4066.1538090000004,450.0,3.0,73.0,,,,0.0,2.0,0.0,0.0,0.0,0.0,0.0,,,,,,,,,,,,,,,,,,,,,,,,,,,,,,,,,,,,,,,,,,,,,,,,,,,,,,0.0,0.0,32.0,0.23567800000000003,1.0,0.0,,,,,,,,,,,,,,,,,,,,,,,,,
16247,1648952731.5250108,1648952731.560435,86.0,0.0,4160.512695,4550.256348,4026.6667479999996,4055.384521,4146.666504,450.0,3.0,73.0,,,,0.0,2.0,0.0,0.0,0.0,0.0,0.0,,,,,,,,43.0,0.0,0.6315189999999999,0.47558599999999995,0.322998,0.5202640000000001,-0.097169,-0.968765,-0.340826,0.013172,-0.048474,-0.030242,,,,,,,,,,,,,,,,,,,,,,,,,,,,,,,,,,,,,,,,,,,,,,,,,,,,,,,,,,,,,,,,,
16248,1648952731.532826,1648952731.568151,87.0,0.0,4459.487305,4466.153809,4248.717772999999,4276.922852000001,4402.05127,31.0,3.0,73.0,,,,0.0,2.0,0.0,0.0,0.0,0.0,0.0,,,,,,,,,,,,,,,,,,,,,,,,,,,,,,,,,,,,,,,,,,,,,,,,,,,,,,,,,,,,,,,,,,,,,,,,,,,,,,,,,,,,
16249,1648952731.540641,1648952731.576066,88.0,0.0,4490.769043,4352.820313,4418.461426,4399.487305,4551.794922,450.0,3.0,73.0,,,,0.0,2.0,0.0,0.0,0.0,0.0,0.0,,,,,,,,44.0,0.0,0.631838,0.474854,0.319092,0.522949,-0.104494,-0.972183,-0.33105999999999997,0.014100999999999999,-0.048362999999999996,-0.032589,,,,,,,,,,,,,,,,,,,,,,,,,,,,,,,,,,,,,,,,,,,,,,,,,,,,,,,,,,,,,,,,,
16250,1648952731.548455,1648952731.583882,89.0,0.0,4255.897461,4455.897461,4397.436035,4343.589844,4428.205078,450.0,3.0,73.0,,,,0.0,2.0,0.0,0.0,0.0,0.0,0.0,,,,,,,,,,,,,,,,,,,,,,,,,,,,,,,,,,,,,,,,,,,,,,,,,,,,,,0.0,0.0,32.0,0.23567800000000003,1.0,0.0,,,,,,,,,,,,,,,,,,,,,,,,,
16251,1648952731.55627,1648952731.591797,90.0,0.0,4109.230957,4568.205078,4136.410156,4185.128418,4208.205078,450.0,3.0,73.0,,,,0.0,2.0,0.0,0.0,0.0,0.0,0.0,,,,,,,,45.0,0.0,0.6319779999999999,0.47387700000000005,0.31543000000000004,0.525879,-0.128908,-0.8764780000000001,-0.383795,0.014888,-0.048361,-0.028598000000000002,,,,,,,,,,,,,,,,,,,,,,,,,,,,,,,,,,,,,,,,,,,,,,,,,,,,,,,,,,,,,,,,,
16252,1648952731.564084,1648952731.5996132,91.0,0.0,4205.641113000001,4710.769043,4041.538574,4089.743652,4092.820557,31.0,3.0,73.0,,,,0.0,2.0,0.0,0.0,0.0,0.0,0.0,,,,,,,,,,,,,,,,,,,,,,,,,,,,,,,,,,,,,,,,,,,,,,,,,,,,,,,,,,,,,,,,,,,,,,,,,,,,,,,,,,,,
16253,1648952731.571899,1648952731.607528,92.0,0.0,4144.615234000001,4625.128418,4252.307617,4161.538574,4060.512939,450.0,3.0,73.0,,,,0.0,2.0,0.0,0.0,0.0,0.0,0.0,,,,,,,,46.0,0.0,0.6315189999999999,0.47558599999999995,0.322998,0.5202640000000001,-0.097169,-0.968765,-0.340826,0.012472,-0.048261,-0.024859,,,,,,,,,,,,,,,,,,,,,,,,,,,,,,,,,,,,,,,,,,,,,,,,,,,,,,,,,,,,,,,,,
16254,1648952731.579713,1648952731.615344,93.0,0.0,4213.333496,4484.615234000001,4271.282227000001,4237.436035,4197.436035,450.0,3.0,73.0,,,,0.0,2.0,0.0,0.0,0.0,0.0,0.0,,,,,,,,,,,,,,,,,,,,,,,,,,,,,,,,,,,,,,,,,,,,,,,,,,,,,,0.0,0.0,32.0,0.23567800000000003,1.0,0.0,,,,,,,,,,,,,,,,,,,,,,,,,
16255,1648952731.587528,1648952731.623259,94.0,0.0,4509.743652,4580.512695,4318.461426,4394.358886999999,4523.077147999999,450.0,3.0,73.0,,,,0.0,2.0,0.0,0.0,0.0,0.0,0.0,,,,,,,,47.0,0.0,0.6319779999999999,0.47387700000000005,0.31543000000000004,0.525879,-0.128908,-0.8764780000000001,-0.383795,0.013422,-0.048269,-0.021641,,,,,,,,,,,,,,,,,,,,,,,,,,,,,,,,,,,,,,,,,,,,,,,,,,,,,,,,,,,,,,,,,
16256,1648952731.5953429,1648952731.631075,95.0,0.0,4330.769043,4544.615234000001,4544.615234000001,4613.846191,4668.205078,31.0,3.0,73.0,,,,0.0,2.0,0.0,0.0,0.0,0.0,0.0,,,,,,,,,,,,,,,,,,,,,,,,,,,,,,,,,,,,,,,,,,,,,,,,,,,,,,,,,,,,,,,,,,,,,,,,,,,,,,,,,,,,
16257,1648952731.603157,1648952731.638791,96.0,0.0,3872.3076170000004,4524.102539,4290.769043,4371.794922,4262.563965,450.0,3.0,73.0,,,,0.0,2.0,0.0,0.0,0.0,0.0,0.0,,,,,,,,48.0,0.0,0.629772,0.47021499999999994,0.317139,0.530762,-0.160159,-0.843275,-0.43408900000000006,0.014375,-0.048276,-0.024995,,,,,,,,,,,,,,,,,,,,,,,,,,,,,,,,,,,,,,,,,,,,,,,,,,,,,,,,,,,,,,,,,
16258,1648952731.6109722,1648952731.646606,97.0,0.0,4206.666504,4691.794922,4045.641113,4105.641113000001,4061.538574,450.0,3.0,73.0,,,,0.0,2.0,0.0,0.0,0.0,0.0,0.0,,,,,,,,,,,,,,,,,,,,1.0,0.0,0.0,,,,,,,,,,,,,,,,,,,,,,,,,,,,,,,,0.0,0.0,32.0,0.227517,1.0,0.0,218.02816800000002,136.623306,473.06774900000005,694.555054,313.565002,403.723206,97.729446,48.953201,111.972351,139.750488,133.820068,79.25145699999999,924.8739009999999,701.958618,213.610336,170.305161,117.27448999999999,917.308044,712.07782,209.956116,206.740799,92.780807,715.022949,743.321045,141.912903
16259,1648952731.6187859,1648952731.6545222,98.0,0.0,4698.974121,4770.769043,4401.025879,4376.410156,4420.512695,450.0,3.0,73.0,,,,0.0,2.0,0.0,0.0,0.0,0.0,0.0,,,,,,,,49.0,0.0,0.625189,0.46606400000000003,0.322021,0.5368649999999999,-0.138674,-0.8999159999999999,-0.318853,0.015183000000000002,-0.048185000000000006,-0.027866000000000002,,,,,,,,,,,,,,,,,,,,,,,,,,,,,,,,,,,,,,,,,,,,,,,,,,,,,,,,,,,,,,,,,
16260,1648952731.626601,1648952731.6623368,99.0,0.0,4598.974121,4623.589844,4755.384765999999,4702.05127,4604.615234000001,31.0,3.0,73.0,,,,0.0,2.0,0.0,0.0,0.0,0.0,0.0,,,,,,,,,,,,,,,,,,,,,,,,,,,,,,,,,,,,,,,,,,,,,,,,,,,,,,,,,,,,,,,,,,,,,,,,,,,,,,,,,,,,
16261,1648952731.6344151,1648952731.670053,100.0,0.0,4218.974121,4559.487305,4392.307617,4422.05127,4219.487305,450.0,3.0,73.0,,,,0.0,2.0,0.0,0.0,0.0,0.0,0.0,,,,,,,,50.0,0.0,0.623306,0.464355,0.32324200000000003,0.539795,-0.233402,-0.9116350000000001,-0.366705,0.015765,-0.048005,-0.030548000000000002,,,,,,,,,,,,,,,,,,,,,,,,,,,,,,,,,,,,,,,,,,,,,,,,,,,,,,,,,,,,,,,,,
16262,1648952731.64223,1648952731.6778688,101.0,0.0,4046.6667479999996,4666.666504,4037.4357909999994,4133.333496,3989.2307130000004,450.0,3.0,73.0,,,,0.0,2.0,0.0,0.0,0.0,0.0,0.0,,,,,,,,,,,,,,,,,,,,,,,,,,,,,,,,,,,,,,,,,,,,,,,,,,,,,,0.0,0.0,32.0,0.227517,1.0,0.0,,,,,,,,,,,,,,,,,,,,,,,,,
16263,1648952731.650044,1648952731.685584,102.0,0.0,4051.794922,4704.102539,4059.487061,4157.436035,4091.281982,450.0,3.0,73.0,,,,0.0,2.0,0.0,0.0,0.0,0.0,0.0,,,,,,,,51.0,0.0,0.624993,0.46581999999999996,0.321533,0.5375979999999999,-0.23193699999999998,-0.890639,-0.304692,0.013309,-0.04799,-0.026664,,,,,,,,,,,,,,,,,,,,,,,,,,,,,,,,,,,,,,,,,,,,,,,,,,,,,,,,,,,,,,,,,
16264,1648952731.657859,1648952731.6934,103.0,0.0,4110.256348,4751.282227000001,4100.0,4086.1538090000004,4082.0512700000004,31.0,3.0,73.0,,,,0.0,2.0,0.0,0.0,0.0,0.0,0.0,,,,,,,,,,,,,,,,,,,,,,,,,,,,,,,,,,,,,,,,,,,,,,,,,,,,,,,,,,,,,,,,,,,,,,,,,,,,,,,,,,,,
16265,1648952731.665673,1648952731.701116,104.0,0.0,4072.3076170000004,4753.333496,4098.974121,3991.794922,4068.718018,450.0,3.0,73.0,,,,0.0,2.0,0.0,0.0,0.0,0.0,0.0,,,,,,,,52.0,0.0,0.628175,0.46948199999999995,0.31811500000000004,0.5327149999999999,-0.13086099999999998,-0.892592,-0.303716,0.011148,-0.047976,-0.029466000000000003,,,,,,,,,,,,,,,,,,,,,,,,,,,,,,,,,,,,,,,,,,,,,,,,,,,,,,,,,,,,,,,,,
16266,1648952731.6734881,1648952731.709031,105.0,0.0,4031.794922,4721.538574,4068.718018,4114.358886999999,4085.641113,450.0,3.0,73.0,,,,0.0,2.0,0.0,0.0,0.0,0.0,0.0,,,,,,,,,,,,,,,,,,,,,,,,,,,,,,,,,,,,,,,,,,,,,,,,,,,,,,0.0,0.0,32.0,0.227517,1.0,0.0,,,,,,,,,,,,,,,,,,,,,,,,,
16267,1648952731.681302,1648952731.7168472,106.0,0.0,4274.871582,4550.256348,4024.615479,4203.077147999999,4033.3332520000004,450.0,3.0,73.0,,,,0.0,2.0,0.0,0.0,0.0,0.0,0.0,,,,,,,,53.0,0.0,0.6290979999999999,0.473145,0.31738299999999997,0.528809,-0.0542,-0.9433739999999999,-0.366217,0.009203,-0.047964,-0.031891,,,,,,,,,,,,,,,,,,,,,,,,,,,,,,,,,,,,,,,,,,,,,,,,,,,,,,,,,,,,,,,,,
16268,1648952731.689117,1648952731.7246618,107.0,0.0,4629.743652,4478.974121,4127.179688,4136.410156,4226.153809,31.0,3.0,73.0,,,,0.0,2.0,0.0,0.0,0.0,0.0,0.0,,,,,,,,,,,,,,,,,,,,,,,,,,,,,,,,,,,,,,,,,,,,,,,,,,,,,,,,,,,,,,,,,,,,,,,,,,,,,,,,,,,,
16269,1648952731.696932,1648952731.732378,108.0,0.0,4687.179688,4617.436035,4356.922852000001,4272.820313,4531.794922,450.0,3.0,73.0,,,,0.0,2.0,0.0,0.0,0.0,0.0,0.0,,,,,,,,54.0,0.0,0.6285609999999999,0.47509799999999996,0.31958000000000003,0.526367,-0.12109600000000001,-0.9365379999999999,-0.36230999999999997,0.010431000000000001,-0.04805,-0.034122,,,,,,,,,,,,,,,,,,,,,,,,,,,,,,,,,,,,,,,,,,,,,,,,,,,,,,,,,,,,,,,,,
16270,1648952731.704746,1648952731.740193,109.0,0.0,4228.717772999999,4646.666504,4256.410156,4304.102539,4407.692383,450.0,3.0,73.0,,,,0.0,2.0,0.0,0.0,0.0,0.0,0.0,,,,,,,,,,,,,,,,,,,,,,,,,,,,,,,,,,,,,,,,,,,,,,,,,,,,,,0.0,0.0,32.0,0.227517,1.0,0.0,,,,,,,,,,,,,,,,,,,,,,,,,
16271,1648952731.712561,1648952731.747909,110.0,0.0,3980.512939,4693.333496,4072.820557,4153.846191,4220.512695,450.0,3.0,73.0,,,,0.0,2.0,0.0,0.0,0.0,0.0,0.0,,,,,,,,55.0,0.0,0.627398,0.475342,0.323486,0.525146,-0.087404,-1.013199,-0.352544,0.008509000000000001,-0.048128,-0.029830000000000002,,,,,,,,,,,,,,,,,,,,,,,,,,,,,,,,,,,,,,,,,,,,,,,,,,,,,,,,,,,,,,,,,
16272,1648952731.720375,1648952731.755724,111.0,0.0,4234.871582,4725.641113000001,4131.282227000001,4170.769043,4228.717772999999,31.0,3.0,73.0,,,,0.0,2.0,0.0,0.0,0.0,0.0,0.0,,,,,,,,,,,,,,,,,,,,,,,,,,,,,,,,,,,,,,,,,,,,,,,,,,,,,,,,,,,,,,,,,,,,,,,,,,,,,,,,,,,,
16273,1648952731.72819,1648952731.7634392,112.0,0.0,4308.717772999999,4724.102539,4157.94873,4236.410156,4150.256348,450.0,3.0,73.0,,,,0.0,2.0,0.0,0.0,0.0,0.0,0.0,,,,,,,,56.0,0.0,0.626704,0.47509799999999996,0.327148,0.523926,-0.14257999999999998,-1.048844,-0.337407,0.009807,-0.048052,-0.026115,,,,,,,,,,,,,,,,,,,,,,,,,,,,,,,,,,,,,,,,,,,,,,,,,,,,,,,,,,,,,,,,,
16274,1648952731.7360039,1648952731.7713552,113.0,0.0,4069.2307130000004,4651.794922,4073.3332520000004,4219.487305,4038.974365,450.0,3.0,73.0,,,,0.0,2.0,0.0,0.0,0.0,0.0,0.0,,,,,,,,,,,,,,,,,,,,1.0,0.0,0.0,,,,,,,,,,,,,,,,,,,,,,,,,,,,,,,,0.0,0.0,32.0,0.267779,1.0,0.0,185.389984,136.84788500000002,475.83737199999996,713.507324,287.431793,419.201508,87.568558,51.192295,116.183769,140.96366899999998,117.72363999999999,79.452927,798.347961,699.911438,225.20245400000002,152.530548,118.824234,774.523682,687.652466,216.56423999999998,183.56980900000002,105.7724,636.0644530000001,756.957214,144.439224
16275,1648952731.743819,1648952731.779171,114.0,0.0,4134.871582,4504.615234000001,4071.794922,4181.025879,4251.282227000001,450.0,3.0,73.0,,,,0.0,2.0,0.0,0.0,0.0,0.0,0.0,,,,,,,,57.0,0.0,0.6270140000000001,0.474854,0.328857,0.522705,-0.10254100000000001,-1.017105,-0.303716,0.010926,-0.048178,-0.028875,,,,,,,,,,,,,,,,,,,,,,,,,,,,,,,,,,,,,,,,,,,,,,,,,,,,,,,,,,,,,,,,,
16276,1648952731.751634,1648952731.787086,115.0,0.0,4364.615234000001,4405.128418,4204.615234000001,4212.820313,4602.563965,31.0,3.0,73.0,,,,0.0,2.0,0.0,0.0,0.0,0.0,0.0,,,,,,,,,,,,,,,,,,,,,,,,,,,,,,,,,,,,,,,,,,,,,,,,,,,,,,,,,,,,,,,,,,,,,,,,,,,,,,,,,,,,
16277,1648952731.759448,1648952731.7949018,116.0,0.0,4365.128418,4444.102539,4377.436035,4313.846191,4783.589844,450.0,3.0,73.0,,,,0.0,2.0,0.0,0.0,0.0,0.0,0.0,,,,,,,,58.0,0.0,0.627737,0.474365,0.329346,0.5219729999999999,-0.09668099999999999,-1.013199,-0.28320700000000004,0.011933,-0.048243,-0.031505,,,,,,,,,,,,,,,,,,,,,,,,,,,,,,,,,,,,,,,,,,,,,,,,,,,,,,,,,,,,,,,,,
16278,1648952731.7672632,1648952731.802817,117.0,0.0,4337.94873,4588.717772999999,4335.384765999999,4229.230957,4468.717772999999,450.0,3.0,73.0,,,,0.0,2.0,0.0,0.0,0.0,0.0,0.0,,,,,,,,,,,,,,,,,,,,,,,,,,,,,,,,,,,,,,,,,,,,,,,,,,,,,,0.0,0.0,32.0,0.267779,1.0,0.0,,,,,,,,,,,,,,,,,,,,,,,,,
16279,1648952731.7750769,1648952731.810633,118.0,0.0,4276.410156,4627.692383,4185.128418,4110.256348,4015.384521,450.0,3.0,73.0,,,,0.0,2.0,0.0,0.0,0.0,0.0,0.0,,,,,,,,59.0,0.0,0.6292439999999999,0.47192399999999995,0.32959,0.522217,-0.013184,-0.991714,-0.334478,0.012937,-0.0484,-0.027622000000000004,,,,,,,,,,,,,,,,,,,,,,,,,,,,,,,,,,,,,,,,,,,,,,,,,,,,,,,,,,,,,,,,,
16280,1648952731.782892,1648952731.818548,119.0,0.0,4091.794922,4574.358886999999,4099.487305,4189.230957,4066.1538090000004,31.0,3.0,73.0,,,,0.0,2.0,0.0,0.0,0.0,0.0,0.0,,,,,,,,,,,,,,,,,,,,,,,,,,,,,,,,,,,,,,,,,,,,,,,,,,,,,,,,,,,,,,,,,,,,,,,,,,,,,,,,,,,,
16281,1648952731.7907062,1648952731.826364,120.0,0.0,4195.384765999999,4530.256348,4186.666504,4394.871582,4430.256348,450.0,3.0,73.0,,,,0.0,2.0,0.0,0.0,0.0,0.0,0.0,,,,,,,,60.0,0.0,0.630354,0.46972700000000006,0.329834,0.522705,-0.095216,-0.9111469999999999,-0.354498,0.013743,-0.048442,-0.030376999999999998,,,,,,,,,,,,,,,,,,,,,,,,,,,,,,,,,,,,,,,,,,,,,,,,,,,,,,,,,,,,,,,,,
16282,1648952731.798521,1648952731.83408,121.0,0.0,4530.256348,4606.153809,4290.769043,4417.94873,4536.922852000001,450.0,3.0,73.0,,,,0.0,2.0,0.0,0.0,0.0,0.0,0.0,,,,,,,,,,,,,,,,,,,,,,,,,,,,,,,,,,,,,,,,,,,,,,,,,,,,,,0.0,0.0,32.0,0.267779,1.0,0.0,,,,,,,,,,,,,,,,,,,,,,,,,
16283,1648952731.806335,1648952731.8418949,122.0,0.0,4537.94873,4521.538574,4234.358886999999,4256.410156,4340.512695,450.0,3.0,73.0,,,,0.0,2.0,0.0,0.0,0.0,0.0,0.0,,,,,,,,61.0,0.0,0.631717,0.46875,0.328613,0.522705,-0.063966,-0.8750129999999999,-0.320806,0.014565999999999999,-0.048382999999999995,-0.032857,,,,,,,,,,,,,,,,,,,,,,,,,,,,,,,,,,,,,,,,,,,,,,,,,,,,,,,,,,,,,,,,,
16284,1648952731.81415,1648952731.849611,123.0,0.0,4235.897461,4253.333496,4146.153809,4161.025879,4220.0,31.0,3.0,73.0,,,,0.0,2.0,0.0,0.0,0.0,0.0,0.0,,,,,,,,,,,,,,,,,,,,,,,,,,,,,,,,,,,,,,,,,,,,,,,,,,,,,,,,,,,,,,,,,,,,,,,,,,,,,,,,,,,,
16285,1648952731.821964,1648952731.857426,124.0,0.0,4051.281982,4422.563965,4079.487061,4087.179443,4210.256348,450.0,3.0,73.0,,,,0.0,2.0,0.0,0.0,0.0,0.0,0.0,,,,,,,,62.0,0.0,0.63288,0.46875,0.327148,0.522217,-0.037110000000000004,-0.8955209999999999,-0.401373,0.012133,-0.04833,-0.028839,,,,,,,,,,,,,,,,,,,,,,,,,,,,,,,,,,,,,,,,,,,,,,,,,,,,,,,,,,,,,,,,,
16286,1648952731.829779,1648952731.865142,125.0,0.0,4071.281982,4717.94873,4088.718018,4088.205078,4178.461426,450.0,3.0,73.0,,,,0.0,2.0,0.0,0.0,0.0,0.0,0.0,,,,,,,,,,,,,,,,,,,,,,,,,,,,,,,,,,,,,,,,,,,,,,,,,,,,,,0.0,0.0,32.0,0.267779,1.0,0.0,,,,,,,,,,,,,,,,,,,,,,,,,
16287,1648952731.837593,1648952731.872958,126.0,0.0,4087.6923829999996,4718.461426,4065.641113,4053.8461909999996,4125.128418,450.0,3.0,73.0,,,,0.0,2.0,0.0,0.0,0.0,0.0,0.0,,,,,,,,63.0,0.0,0.632584,0.46972700000000006,0.325928,0.522461,-0.019043,-0.878431,-0.398932,0.013116999999999998,-0.048331,-0.031522,,,,,,,,,,,,,,,,,,,,,,,,,,,,,,,,,,,,,,,,,,,,,,,,,,,,,,,,,,,,,,,,,
16288,1648952731.845408,1648952731.880673,127.0,0.0,4085.1281740000004,4710.256348,4065.1281740000004,4056.4101560000004,4122.563965,238.0,3.0,73.0,,,,0.0,2.0,0.0,0.0,0.0,0.0,0.0,,,,,,,,,,,,,,,,,,,,,,,,,,,,,,,,,,,,,,,,,,,,,,,,,,,,,,,,,,,,,,,,,,,,,,,,,,,,,,,,,,,,
16289,1648952731.853223,1648952731.888489,0.0,0.0,4045.1281740000004,4782.563965,4157.94873,4121.538574,4072.820557,450.0,3.0,73.0,,,,0.0,2.0,0.0,0.0,0.0,0.0,0.0,,,,,,,,0.0,0.0,0.6316649999999999,0.47021499999999994,0.325439,0.523438,-0.005371,-0.9087049999999999,-0.389166,0.014002,-0.048283,-0.033887,,,,,,,,,,,,,,,,,,,,,,,,,,,,,,,,,,,,,,,,,,,,,,,,,,,,,,,,,,,,,,,,,
16290,1648952731.861037,1648952731.8962052,1.0,0.0,4148.205078,4665.128418,4358.461426,4307.179688,4119.487305,450.0,3.0,73.0,,,,0.0,2.0,0.0,0.0,0.0,0.0,0.0,1.0,0.0,0.0,0.0,0.0,0.0,0.0,,,,,,,,,,,,,1.0,0.0,0.0,,,,,,,,,,,,,,,,,,,,,,,,,,,,,,,,0.0,0.0,32.0,0.299603,1.0,0.0,153.29118300000002,136.81016499999998,456.75305199999997,734.931213,274.054779,444.634033,97.709885,56.599361,117.965538,140.244431,99.712334,81.572952,637.58551,704.448975,232.97688300000002,134.363647,123.859024,595.763428,660.024597,210.57634,149.157928,122.716072,551.507019,755.399963,142.617203
16291,1648952731.868852,1648952731.9040198,2.0,0.0,4339.487305,4600.0,4494.358886999999,4498.461426,4341.025879,230.0,3.0,73.0,,,,0.0,2.0,0.0,0.0,0.0,0.0,0.0,,,,,,,,1.0,0.0,0.630826,0.47021499999999994,0.324707,0.5249020000000001,-0.051759000000000006,-0.8921030000000001,-0.384283,0.011626000000000001,-0.048387,-0.035919,,,,,,,,,,,,,,,,,,,,,,,,,,,,,,,,,,,,,,,,,,,,,,,,,,,,,,,,,,,,,,,,,
16292,1648952731.876666,1648952731.911736,3.0,0.0,4471.282227000001,4806.153809,4458.974121,4536.922852000001,4552.307617,450.0,3.0,73.0,,,,0.0,2.0,0.0,0.0,0.0,0.0,0.0,,,,,,,,,,,,,,,,,,,,,,,,,,,,,,,,,,,,,,,,,,,,,,,,,,,,,,,,,,,,,,,,,,,,,,,,,,,,,,,,,,,,
16293,1648952731.884481,1648952731.919652,4.0,0.0,4306.153809,4780.0,4251.282227000001,4309.743652,4388.205078,16093.0,3.0,73.0,,,,0.0,2.0,4.0,0.0,0.0,0.0,0.0,,,,,,,,2.0,0.0,0.630163,0.469971,0.323975,0.526367,-0.084962,-0.9365379999999999,-0.401862,0.01266,-0.048382,-0.037795,,,,,,,,,,,,,,,,,,,,,,,,,,,,,,,,,,,,,,,,,,,,,,,,,,,,,,,,,,,,,,,,,
16294,1648952731.892295,1648952731.927467,5.0,0.0,3967.6923829999996,4411.282227000001,4044.102539,4048.718018,4032.3076170000004,450.0,3.0,73.0,,,,0.0,2.0,4.0,0.0,0.0,0.0,0.0,,,,,,,,,,,,,,,,,,,,,,,,,,,,,,,,,,,,,,,,,,,,,,,,,,,,,,0.0,0.0,32.0,0.299603,1.0,0.0,,,,,,,,,,,,,,,,,,,,,,,,,
16295,1648952731.90011,1648952731.935283,6.0,0.0,3970.256348,4361.025879,4062.0512700000004,4077.4357909999994,4038.461426,5.0,3.0,73.0,,,,0.0,2.0,4.0,0.0,0.0,0.0,0.0,,,,,,,,3.0,0.0,0.629346,0.469971,0.323975,0.5273439999999999,-0.062501,-0.934585,-0.376471,0.013493999999999999,-0.04828,-0.039387,,,,,,,,,,,,,,,,,,,,,,,,,,,,,,,,,,,,,,,,,,,,,,,,,,,,,,,,,,,,,,,,,
16296,1648952731.907925,1648952731.943098,7.0,0.0,4187.179688,4601.538574,4134.358886999999,4187.179688,4321.538574,450.0,3.0,73.0,,,,0.0,2.0,4.0,0.0,0.0,0.0,0.0,,,,,,,,,,,,,,,,,,,,,,,,,,,,,,,,,,,,,,,,,,,,,,,,,,,,,,,,,,,,,,,,,,,,,,,,,,,,,,,,,,,,
16297,1648952731.915739,1648952731.951014,8.0,0.0,4240.0,4601.538574,4112.307617,4181.538574,4429.230957,450.0,3.0,73.0,,,,0.0,2.0,4.0,0.0,1.0,0.0,8.333333,,,,,,,,4.0,0.0,0.628366,0.470459,0.323975,0.528076,-0.08691499999999999,-0.916518,-0.367681,0.011217,-0.048237999999999996,-0.034667,,,,,,,,,,,,,,,,,,,,,,,,,,,,,,,,,,,,,,,,,,,,,,,,,,,,,,,,,,,,,,,,,
16298,1648952731.923554,1648952731.958829,9.0,0.0,4403.589844,4507.692383,4338.974121,4300.512695,4463.077147999999,94.0,3.0,73.0,,,,0.0,2.0,4.0,0.0,1.0,0.0,8.333333,,,,,,,,,,,,,,,,,,,,,,,,,,,,,,,,,,,,,,,,,,,,,,,,,,,,,,0.0,0.0,32.0,0.299603,1.0,0.0,,,,,,,,,,,,,,,,,,,,,,,,,
16299,1648952731.9313679,1648952731.966745,10.0,0.0,4594.358886999999,4653.333496,4560.0,4424.102539,4434.871582,450.0,3.0,73.0,,,,0.0,2.0,4.0,0.0,1.0,2.0,25.0,,,,,,,,5.0,0.0,0.626695,0.47119099999999997,0.32495100000000005,0.528809,-0.075685,-0.937514,-0.34521999999999997,0.012292,-0.048346,-0.036669,,,,,,,,,,,,,,,,,,,,,,,,,,,,,,,,,,,,,,,,,,,,,,,,,,,,,,,,,,,,,,,,,
16300,1648952731.939183,1648952731.974561,11.0,0.0,4286.666504,4491.282227000001,4218.974121,4304.102539,4135.384765999999,215.0,3.0,73.0,,,,0.0,2.0,4.0,0.0,1.0,2.0,25.0,,,,,,,,,,,,,,,,,,,,,,,,,,,,,,,,,,,,,,,,,,,,,,,,,,,,,,,,,,,,,,,,,,,,,,,,,,,,,,,,,,,,
16301,1648952731.9469972,1648952731.9823759,12.0,0.0,4042.0512700000004,4223.589844,3816.923096,4151.282227000001,3976.923096,450.0,3.0,73.0,,,,0.0,2.0,4.0,0.0,1.0,2.0,25.0,,,,,,,,6.0,0.0,0.624545,0.47216800000000003,0.32568400000000003,0.530029,-0.101076,-0.921401,-0.33105999999999997,0.010135,-0.048247000000000005,-0.032172000000000006,,,,,,,,,,,,,,,,,,,,,,,,,,,,,,,,,,,,,,,,,,,,,,,,,,,,,,,,,,,,,,,,,
16302,1648952731.9548118,1648952731.990092,13.0,0.0,4242.05127,4480.512695,3963.5898439999996,4139.487305,4197.94873,450.0,3.0,73.0,,,,0.0,2.0,4.0,0.0,1.0,2.0,25.0,,,,,,,,,,,,,,,,,,,,,,,,,,,,,,,,,,,,,,,,,,,,,,,,,,,,,,0.0,0.0,32.0,0.299603,1.0,0.0,,,,,,,,,,,,,,,,,,,,,,,,,
16303,1648952731.962626,1648952731.998007,14.0,0.0,4290.256348,4673.333496,4305.128418,4317.94873,4465.641113000001,450.0,3.0,73.0,,,,0.0,2.0,4.0,0.0,1.0,2.0,25.0,,,,,,,,7.0,0.0,0.621908,0.47338900000000006,0.32617199999999996,0.531738,-0.095705,-0.988785,-0.290044,0.011417,-0.048257,-0.034473000000000004,,,,,,,,,,,,,,,,,,,,,,,,,,,,,,,,,,,,,,,,,,,,,,,,,,,,,,,,,,,,,,,,,
16304,1648952731.970441,1648952732.0058231,15.0,0.0,4321.025879,4450.769043,4366.666504,4398.974121,4510.256348,215.0,3.0,73.0,,,,0.0,2.0,4.0,0.0,1.0,2.0,25.0,,,,,,,,,,,,,,,,,,,,,,,,,,,,,,,,,,,,,,,,,,,,,,,,,,,,,,,,,,,,,,,,,,,,,,,,,,,,,,,,,,,,
16305,1648952731.978255,1648952732.0137382,16.0,0.0,4519.487305,4442.05127,4389.230957,4368.717772999999,4449.743652,0.0,3.0,73.0,,,,0.0,2.0,4.0,0.0,1.0,2.0,25.0,,,,,,,,8.0,0.0,0.619158,0.474121,0.327148,0.533691,-0.07910299999999999,-0.9956209999999999,-0.269047,0.012472,-0.048167,-0.030342,,,,,,,,,,,,,,,,,,,,,,,,,,,,,,,,,,,,,,,,,,,,,,,,,,,,,,,,,,,,,,,,,
16306,1648952731.98607,1648952732.021554,17.0,0.0,4349.230957,4631.282227000001,4265.641113000001,4255.384765999999,4314.871582,0.0,3.0,73.0,,,,0.0,2.0,4.0,0.0,1.0,2.0,25.0,,,,,,,,,,,,,,,,,,,,1.0,0.0,0.0,,,,,,,,,,,,,,,,,,,,,,,,,,,,,,,,0.0,0.0,32.0,0.30301500000000003,1.0,0.0,128.234772,140.839584,434.499817,758.065979,270.098206,470.961945,121.413979,63.794426,118.24733700000002,135.72995,89.495201,85.591095,484.07309000000004,708.883179,236.74964900000003,126.851219,132.809769,431.626221,634.5002440000001,194.94487,119.62723500000001,142.315323,476.97799699999996,743.661804,137.74856599999998
16307,1648952731.993884,1648952732.02927,18.0,0.0,4060.0,4457.94873,4018.461426,4076.923096,4150.256348,0.0,3.0,73.0,,,,0.0,2.0,4.0,0.0,1.0,2.0,25.0,,,,,,,,9.0,0.0,0.624545,0.47216800000000003,0.32568400000000003,0.530029,-0.101076,-0.921401,-0.33105999999999997,0.010297,-0.048087,-0.026477999999999998,,,,,,,,,,,,,,,,,,,,,,,,,,,,,,,,,,,,,,,,,,,,,,,,,,,,,,,,,,,,,,,,,
16308,1648952732.001699,1648952732.037085,19.0,0.0,4150.769043,4257.94873,4029.2307130000004,4056.923096,4178.461426,0.0,3.0,73.0,,,,0.0,2.0,4.0,0.0,1.0,2.0,25.0,,,,,,,,,,,,,,,,,,,,,,,,,,,,,,,,,,,,,,,,,,,,,,,,,,,,,,,,,,,,,,,,,,,,,,,,,,,,,,,,,,,,
16309,1648952732.009514,1648952732.044801,20.0,0.0,4470.256348,4494.358886999999,4389.743652,4335.897461,4529.743652,0.0,3.0,73.0,,,,0.0,2.0,4.0,0.0,1.0,2.0,25.0,,,,,,,,10.0,0.0,0.619158,0.474121,0.327148,0.533691,-0.07910299999999999,-0.9956209999999999,-0.269047,0.011465000000000001,-0.048014999999999995,-0.023146,,,,,,,,,,,,,,,,,,,,,,,,,,,,,,,,,,,,,,,,,,,,,,,,,,,,,,,,,,,,,,,,,
16310,1648952732.017328,1648952732.0526161,21.0,0.0,4476.410156,4619.487305,4556.922852000001,4449.743652,4482.05127,0.0,3.0,73.0,,,,0.0,2.0,4.0,0.0,1.0,2.0,25.0,,,,,,,,,,,,,,,,,,,,,,,,,,,,,,,,,,,,,,,,,,,,,,,,,,,,,,0.0,0.0,32.0,0.30301500000000003,1.0,0.0,,,,,,,,,,,,,,,,,,,,,,,,,
16311,1648952732.025143,1648952732.060332,22.0,0.0,4207.179688,4282.05127,4327.179688,4271.794922,4020.512939,0.0,3.0,73.0,,,,0.0,2.0,4.0,0.0,1.0,2.0,25.0,,,,,,,,11.0,0.0,0.616819,0.47363299999999997,0.327881,0.536377,-0.10351700000000001,-1.010758,-0.29736799999999997,0.012467,-0.047852,-0.026202999999999997,,,,,,,,,,,,,,,,,,,,,,,,,,,,,,,,,,,,,,,,,,,,,,,,,,,,,,,,,,,,,,,,,
16312,1648952732.032957,1648952732.068248,23.0,0.0,4051.281982,4184.615234000001,4101.025879,4160.0,4006.1538090000004,0.0,3.0,73.0,,,,0.0,2.0,4.0,0.0,1.0,2.0,25.0,,,,,,,,,,,,,,,,,,,,,,,,,,,,,,,,,,,,,,,,,,,,,,,,,,,,,,,,,,,,,,,,,,,,,,,,,,,,,,,,,,,,
16313,1648952732.040772,1648952732.076064,24.0,0.0,4144.102539,4546.153809,4085.1281740000004,4152.820313,4323.077147999999,0.0,3.0,73.0,,,,0.0,2.0,4.0,0.0,1.0,2.0,25.0,,,,,,,,12.0,0.0,0.6132850000000001,0.472656,0.329102,0.5405270000000001,-0.118654,-1.0268709999999999,-0.3252,0.013418000000000001,-0.047803,-0.029149,,,,,,,,,,,,,,,,,,,,,,,,,,,,,,,,,,,,,,,,,,,,,,,,,,,,,,,,,,,,,,,,,
16314,1648952732.048586,1648952732.083979,25.0,0.0,4304.615234000001,4645.128418,4099.487305,4160.0,4398.461426,0.0,3.0,73.0,,,,0.0,2.0,4.0,0.0,1.0,2.0,25.0,,,,,,,,,,,,,,,,,,,,,,,,,,,,,,,,,,,,,,,,,,,,,,,,,,,,,,10.0,0.0,32.0,0.30301500000000003,1.0,0.0,,,,,,,,,,,,,,,,,,,,,,,,,
16315,1648952732.056401,1648952732.091795,26.0,0.0,4495.897461,4472.820313,4251.794922,4264.102539,4446.153809,0.0,3.0,73.0,,,,0.0,2.0,4.0,0.0,1.0,2.0,25.0,,,,,,,,13.0,0.0,0.608432,0.47168000000000004,0.329834,0.546387,-0.10693499999999999,-1.0112459999999999,-0.36035700000000004,0.011148,-0.047758999999999996,-0.025599,,,,,,,,,,,,,,,,,,,,,,,,,,,,,,,,,,,,,,,,,,,,,,,,,,,,,,,,,,,,,,,,,
16316,1648952732.064216,1648952732.0996099,27.0,0.0,4589.743652,4507.692383,4514.358886999999,4396.922852000001,4492.820313,0.0,3.0,73.0,,,,0.0,2.0,4.0,0.0,1.0,2.0,25.0,,,,,,,,,,,,,,,,,,,,,,,,,,,,,,,,,,,,,,,,,,,,,,,,,,,,,,,,,,,,,,,,,,,,,,,,,,,,,,,,,,,,
16317,1648952732.07203,1648952732.107326,28.0,0.0,4312.820313,4433.333496,4360.512695,4349.743652,4170.256348,0.0,3.0,73.0,,,,0.0,2.0,4.0,0.0,1.0,2.0,25.0,,,,,,,,14.0,0.0,0.601845,0.47119099999999997,0.330811,0.553467,-0.062013,-1.000992,-0.36817,0.012279,-0.04772,-0.028557,,,,,,,,,,,,,,,,,,,,,,,,,,,,,,,,,,,,,,,,,,,,,,,,,,,,,,,,,,,,,,,,,
16318,1648952732.079845,1648952732.115241,29.0,0.0,4142.05127,4201.025879,3950.7692869999996,4234.871582,3971.794922,0.0,3.0,73.0,,,,0.0,2.0,4.0,0.0,1.0,2.0,25.0,,,,,,,,,,,,,,,,,,,,,,,,,,,,,,,,,,,,,,,,,,,,,,,,,,,,,,10.0,0.0,32.0,0.30301500000000003,1.0,0.0,,,,,,,,,,,,,,,,,,,,,,,,,
16319,1648952732.087659,1648952732.1230571,30.0,0.0,4275.384765999999,4348.717772999999,3928.718018,4179.487305,4182.563965,0.0,3.0,73.0,,,,0.0,2.0,4.0,0.0,1.0,2.0,25.0,,,,,,,,15.0,0.0,0.5943970000000001,0.470703,0.33056599999999997,0.562012,-0.114748,-0.983902,-0.326177,0.010124,-0.047733,-0.024968999999999998,,,,,,,,,,,,,,,,,,,,,,,,,,,,,,,,,,,,,,,,,,,,,,,,,,,,,,,,,,,,,,,,,
16320,1648952732.095474,1648952732.1309721,31.0,0.0,4296.410156,4605.128418,4293.846191,4240.0,4429.743652,0.0,3.0,73.0,,,,0.0,2.0,4.0,0.0,1.0,2.0,25.0,,,,,,,,,,,,,,,,,,,,,,,,,,,,,,,,,,,,,,,,,,,,,,,,,,,,,,,,,,,,,,,,,,,,,,,,,,,,,,,,,,,,
16321,1648952732.1032882,1648952732.138788,32.0,0.0,4280.512695,4515.897461,4424.615234000001,4230.769043,4533.846191,0.0,3.0,73.0,,,,0.0,2.0,4.0,0.0,1.0,2.0,25.0,,,,,,,,16.0,0.0,0.585912,0.470947,0.328613,0.5717770000000001,-0.129397,-0.9824370000000001,-0.298833,0.008232,-0.047598,-0.027989999999999998,,,,,,,,,,,,,,,,,,,,,,,,,,,,,,,,,,,,,,,,,,,,,,,,,,,,,,,,,,,,,,,,,
16322,1648952732.1111028,1648952732.146704,33.0,0.0,4500.512695,4493.333496,4318.461426,4244.615234000001,4465.641113000001,0.0,3.0,73.0,,,,0.0,2.0,4.0,0.0,1.0,2.0,25.0,,,,,,,,,,,,,,,,,,,,1.0,0.0,0.0,,,,,,,,,,,,,,,,,,,,,,,,,,,,,,,,10.0,0.0,32.0,0.26876500000000003,1.0,0.0,112.86270900000001,152.369766,428.15432699999997,772.294678,270.620148,484.12362699999994,147.259705,72.735046,119.216301,126.894829,94.136772,92.29070300000001,369.391968,702.413513,237.45483399999998,137.13450600000002,146.81767299999998,320.744934,611.237183,175.013657,112.041054,162.487732,418.70327799999995,730.697327,133.405472
16323,1648952732.118917,1648952732.1545188,34.0,0.0,4362.563965,4663.589844,4278.974121,4447.179688,4153.333496,0.0,3.0,73.0,,,,0.0,2.0,4.0,0.0,1.0,2.0,25.0,,,,,,,,17.0,0.0,0.576522,0.470703,0.32495100000000005,0.583496,-0.160159,-0.973648,-0.29639099999999996,0.009704,-0.047282,-0.030708,,,,,,,,,,,,,,,,,,,,,,,,,,,,,,,,,,,,,,,,,,,,,,,,,,,,,,,,,,,,,,,,,
16324,1648952732.126732,1648952732.162335,35.0,0.0,4006.6667479999996,4553.846191,4257.94873,4519.487305,4066.1538090000004,0.0,3.0,73.0,,,,0.0,2.0,4.0,0.0,1.0,2.0,25.0,,,,,,,,,,,,,,,,,,,,,,,,,,,,,,,,,,,,,,,,,,,,,,,,,,,,,,,,,,,,,,,,,,,,,,,,,,,,,,,,,,,,
16325,1648952732.134546,1648952732.17005,36.0,0.0,4171.794922,4441.025879,4306.666504,4354.871582,4316.922852000001,0.0,3.0,73.0,,,,0.0,2.0,4.0,0.0,1.0,2.0,25.0,,,,,,,,18.0,0.0,0.566037,0.46948199999999995,0.319824,0.5974119999999999,-0.196292,-0.898451,-0.341802,0.01098,-0.047193,-0.033253,,,,,,,,,,,,,,,,,,,,,,,,,,,,,,,,,,,,,,,,,,,,,,,,,,,,,,,,,,,,,,,,,
16326,1648952732.142361,1648952732.177966,37.0,0.0,4321.538574,4592.307617,4584.102539,4435.897461,4507.179688,0.0,3.0,73.0,,,,0.0,2.0,4.0,0.0,1.0,2.0,25.0,,,,,,,,,,,,,,,,,,,,,,,,,,,,,,,,,,,,,,,,,,,,,,,,,,,,,,10.0,0.0,32.0,0.26876500000000003,1.0,0.0,,,,,,,,,,,,,,,,,,,,,,,,,
16327,1648952732.150175,1648952732.185781,38.0,0.0,3963.5898439999996,4533.333496,4493.846191,4611.794922,4412.820313,0.0,3.0,73.0,,,,0.0,2.0,4.0,0.0,1.0,2.0,25.0,,,,,,,,19.0,0.0,0.553843,0.466553,0.313965,0.6140140000000001,-0.23047199999999998,-0.866712,-0.41260399999999997,0.008856000000000001,-0.046917,-0.029244,,,,,,,,,,,,,,,,,,,,,,,,,,,,,,,,,,,,,,,,,,,,,,,,,,,,,,,,,,,,,,,,,
16328,1648952732.15799,1648952732.193697,39.0,0.0,4038.974365,4289.230957,4010.256348,4300.0,4230.769043,0.0,3.0,73.0,,,,0.0,2.0,4.0,0.0,1.0,2.0,25.0,,,,,,,,,,,,,,,,,,,,,,,,,,,,,,,,,,,,,,,,,,,,,,,,,,,,,,,,,,,,,,,,,,,,,,,,,,,,,,,,,,,,
16329,1648952732.165805,1648952732.2015119,40.0,0.0,4485.128418,4350.769043,4040.0,4112.307617,4290.769043,0.0,3.0,73.0,,,,0.0,2.0,4.0,0.0,1.0,2.0,25.0,,,,,,,,20.0,0.0,0.537896,0.462646,0.30761700000000003,0.634033,-0.287114,-0.783215,-0.532723,0.010265999999999999,-0.046473,-0.032081,,,,,,,,,,,,,,,,,,,,,,,,,,,,,,,,,,,,,,,,,,,,,,,,,,,,,,,,,,,,,,,,,
16330,1648952732.173619,1648952732.209228,41.0,0.0,4401.538574,4453.846191,4416.410156,4338.461426,4577.94873,0.0,3.0,73.0,,,,0.0,2.0,4.0,0.0,1.0,2.0,25.0,,,,,,,,,,,,,,,,,,,,,,,,,,,,,,,,,,,,,,,,,,,,,,,,,,,,,,10.0,0.0,32.0,0.26876500000000003,1.0,0.0,,,,,,,,,,,,,,,,,,,,,,,,,
16331,1648952732.181434,1648952732.2170439,42.0,0.0,4274.871582,4373.333496,4252.820313,4287.692383,4610.256348,0.0,3.0,73.0,,,,0.0,2.0,4.0,0.0,1.0,2.0,25.0,,,,,,,,21.0,0.0,0.517572,0.459229,0.302002,0.655762,-0.316411,-0.776867,-0.544442,0.008311,-0.046123000000000004,-0.028482999999999998,,,,,,,,,,,,,,,,,,,,,,,,,,,,,,,,,,,,,,,,,,,,,,,,,,,,,,,,,,,,,,,,,
16332,1648952732.189248,1648952732.224759,43.0,0.0,4539.487305,4530.769043,3963.5898439999996,3981.538574,4270.256348,0.0,3.0,73.0,,,,0.0,2.0,4.0,0.0,1.0,2.0,25.0,,,,,,,,,,,,,,,,,,,,,,,,,,,,,,,,,,,,,,,,,,,,,,,,,,,,,,,,,,,,,,,,,,,,,,,,,,,,,,,,,,,,
16333,1648952732.197063,1648952732.232575,44.0,0.0,4589.230957,4621.025879,4140.512695,4027.179443,4202.05127,0.0,3.0,73.0,,,,0.0,2.0,4.0,0.0,1.0,2.0,25.0,,,,,,,,22.0,0.0,0.494442,0.457275,0.297363,0.676758,-0.320317,-0.861341,-0.4795,0.009824,-0.045563,-0.031543,,,,,,,,,,,,,,,,,,,,,,,,,,,,,,,,,,,,,,,,,,,,,,,,,,,,,,,,,,,,,,,,,
16334,1648952732.204877,1648952732.240291,45.0,0.0,4254.358886999999,4401.025879,4289.230957,4254.358886999999,4491.794922,0.0,3.0,73.0,,,,0.0,2.0,4.0,0.0,1.0,2.0,25.0,,,,,,,,,,,,,,,,,,,,,,,,,,,,,,,,,,,,,,,,,,,,,,,,,,,,,,0.0,0.0,32.0,0.26876500000000003,1.0,0.0,,,,,,,,,,,,,,,,,,,,,,,,,
16335,1648952732.212692,1648952732.248106,46.0,0.0,4361.025879,4310.769043,4245.128418,4229.230957,4528.205078,0.0,3.0,73.0,,,,0.0,2.0,4.0,0.0,1.0,2.0,25.0,,,,,,,,23.0,0.0,0.471908,0.45629899999999995,0.293213,0.695068,-0.324712,-0.8486459999999999,-0.38721300000000003,0.010941,-0.044962,-0.028047000000000002,,,,,,,,,,,,,,,,,,,,,,,,,,,,,,,,,,,,,,,,,,,,,,,,,,,,,,,,,,,,,,,,,
16336,1648952732.2205071,1648952732.2558222,47.0,0.0,4671.794922,4378.974121,4199.487305,4042.0512700000004,4308.717772999999,0.0,3.0,73.0,,,,0.0,2.0,4.0,0.0,1.0,2.0,25.0,,,,,,,,,,,,,,,,,,,,,,,,,,,,,,,,,,,,,,,,,,,,,,,,,,,,,,,,,,,,,,,,,,,,,,,,,,,,,,,,,,,,
16337,1648952732.228321,1648952732.263638,48.0,0.0,4592.820313,4451.794922,4211.794922,4170.256348,4364.102539,0.0,3.0,73.0,,,,0.0,2.0,4.0,0.0,1.0,2.0,25.0,,,,,,,,24.0,0.0,0.45223199999999997,0.456787,0.28833000000000003,0.709717,-0.375494,-0.816419,-0.35547399999999996,0.012093000000000001,-0.044323,-0.03115,,,,,,,,,,,,,,,,,,,,,,,,,,,,,,,,,,,,,,,,,,,,,,,,,,,,,,,,,,,,,,,,,
16338,1648952732.236136,1648952732.271353,49.0,0.0,4257.94873,4414.871582,4223.589844,4430.256348,4402.05127,0.0,3.0,73.0,,,,0.0,2.0,4.0,0.0,1.0,2.0,25.0,,,,,,,,,,,,,,,,,,,,1.0,0.0,0.0,,,,,,,,,,,,,,,,,,,,,,,,,,,,,,,,0.0,0.0,32.0,0.333602,1.0,0.0,104.730164,170.29615800000002,443.77655,765.2324219999999,272.280426,472.213654,166.408951,86.273155,123.35063899999999,115.803551,114.04460900000001,101.638062,301.12564100000003,679.984558,235.21228,162.97843899999998,164.77883899999998,271.31143199999997,586.3306269999999,155.229324,133.44610600000001,178.300232,371.966461,724.838501,132.192261
16339,1648952732.24395,1648952732.2791688,50.0,0.0,4343.077147999999,4349.230957,4336.922852000001,4732.820313,4351.794922,0.0,3.0,73.0,,,,0.0,2.0,4.0,0.0,1.0,2.0,25.0,,,,,,,,25.0,0.0,0.43679799999999996,0.458496,0.282715,0.720459,-0.425788,-0.792004,-0.34668499999999997,0.010005,-0.043601999999999995,-0.027791000000000003,,,,,,,,,,,,,,,,,,,,,,,,,,,,,,,,,,,,,,,,,,,,,,,,,,,,,,,,,,,,,,,,,
16340,1648952732.251765,1648952732.286884,51.0,0.0,4598.974121,4578.974121,4380.512695,4888.717772999999,4391.794922,0.0,3.0,73.0,,,,0.0,2.0,4.0,0.0,1.0,2.0,25.0,,,,,,,,,,,,,,,,,,,,,,,,,,,,,,,,,,,,,,,,,,,,,,,,,,,,,,,,,,,,,,,,,,,,,,,,,,,,,,,,,,,,
16341,1648952732.259579,1648952732.2947,52.0,0.0,4629.743652,4905.128418,4315.897461,4843.077147999999,4492.307617,0.0,3.0,73.0,,,,0.0,2.0,4.0,0.0,1.0,2.0,25.0,,,,,,,,26.0,0.0,0.425486,0.460693,0.277588,0.727783,-0.416022,-0.833997,-0.380865,0.0113,-0.043051,-0.031018,,,,,,,,,,,,,,,,,,,,,,,,,,,,,,,,,,,,,,,,,,,,,,,,,,,,,,,,,,,,,,,,,
16342,1648952732.2673938,1648952732.3024151,53.0,0.0,4613.333496,4748.205078,4260.0,4836.410156,4536.922852000001,0.0,3.0,73.0,,,,0.0,2.0,4.0,0.0,1.0,2.0,25.0,,,,,,,,,,,,,,,,,,,,,,,,,,,,,,,,,,,,,,,,,,,,,,,,,,,,,,0.0,0.0,32.0,0.333602,1.0,0.0,,,,,,,,,,,,,,,,,,,,,,,,,
16343,1648952732.275208,1648952732.310231,54.0,0.0,4471.794922,4509.230957,4308.717772999999,4682.05127,4500.0,0.0,3.0,73.0,,,,0.0,2.0,4.0,0.0,1.0,2.0,25.0,,,,,,,,27.0,0.0,0.41782299999999994,0.46191400000000005,0.27368200000000004,0.7329100000000001,-0.425788,-0.799329,-0.408698,0.012416,-0.042505,-0.033971,,,,,,,,,,,,,,,,,,,,,,,,,,,,,,,,,,,,,,,,,,,,,,,,,,,,,,,,,,,,,,,,,
16344,1648952732.283023,1648952732.3179462,55.0,0.0,4606.666504,4593.846191,4409.230957,4558.461426,4305.128418,0.0,3.0,73.0,,,,0.0,2.0,4.0,0.0,1.0,2.0,25.0,,,,,,,,,,,,,,,,,,,,,,,,,,,,,,,,,,,,,,,,,,,,,,,,,,,,,,,,,,,,,,,,,,,,,,,,,,,,,,,,,,,,
16345,1648952732.2908368,1648952732.325862,56.0,0.0,4552.307617,4438.974121,4397.436035,4322.05127,4236.410156,0.0,3.0,73.0,,,,0.0,2.0,4.0,0.0,1.0,2.0,25.0,,,,,,,,28.0,0.0,0.41299600000000003,0.46240200000000004,0.270996,0.736328,-0.430671,-0.78761,-0.44483100000000003,0.010442,-0.041868,-0.030378,,,,,,,,,,,,,,,,,,,,,,,,,,,,,,,,,,,,,,,,,,,,,,,,,,,,,,,,,,,,,,,,,
16346,1648952732.298652,1648952732.333677,57.0,0.0,4532.820313,4137.94873,4309.230957,4669.743652,4365.641113000001,0.0,3.0,73.0,,,,0.0,2.0,4.0,0.0,1.0,2.0,25.0,,,,,,,,,,,,,,,,,,,,,,,,,,,,,,,,,,,,,,,,,,,,,,,,,,,,,,0.0,0.0,32.0,0.333602,1.0,0.0,,,,,,,,,,,,,,,,,,,,,,,,,
16347,1648952732.306466,1648952732.341593,58.0,0.0,4371.282227000001,4251.282227000001,4390.256348,4611.282227000001,4272.307617,0.0,3.0,73.0,,,,0.0,2.0,4.0,0.0,1.0,2.0,25.0,,,,,,,,29.0,0.0,0.408987,0.462891,0.270264,0.738525,-0.457038,-0.793957,-0.42822899999999997,0.01179,-0.041343,-0.033493,,,,,,,,,,,,,,,,,,,,,,,,,,,,,,,,,,,,,,,,,,,,,,,,,,,,,,,,,,,,,,,,,
16348,1648952732.314281,1648952732.349408,59.0,0.0,4324.102539,4360.512695,4372.820313,4506.666504,4530.256348,0.0,3.0,73.0,,,,0.0,2.0,4.0,0.0,1.0,2.0,25.0,,,,,,,,,,,,,,,,,,,,,,,,,,,,,,,,,,,,,,,,,,,,,,,,,,,,,,,,,,,,,,,,,,,,,,,,,,,,,,,,,,,,
16349,1648952732.322096,1648952732.3573241,60.0,0.0,4315.384765999999,4393.333496,4132.307617,4358.974121,4661.538574,0.0,3.0,73.0,,,,0.0,2.0,4.0,0.0,1.0,2.0,25.0,,,,,,,,30.0,0.0,0.406663,0.463379,0.270264,0.739502,-0.45606199999999997,-0.813001,-0.41944,0.012955000000000001,-0.040822000000000004,-0.03615,,,,,,,,,,,,,,,,,,,,,,,,,,,,,,,,,,,,,,,,,,,,,,,,,,,,,,,,,,,,,,,,,
16350,1648952732.32991,1648952732.365139,61.0,0.0,4491.794922,4455.897461,4158.974121,4623.589844,4834.871582,0.0,3.0,73.0,,,,0.0,2.0,4.0,0.0,1.0,2.0,25.0,,,,,,,,,,,,,,,,,,,,,,,,,,,,,,,,,,,,,,,,,,,,,,,,,,,,,,0.0,0.0,32.0,0.333602,1.0,0.0,,,,,,,,,,,,,,,,,,,,,,,,,
16351,1648952732.337725,1648952732.373055,62.0,0.0,4488.205078,4404.615234000001,4258.974121,4629.230957,4870.256348,0.0,3.0,73.0,,,,0.0,2.0,4.0,0.0,1.0,2.0,25.0,,,,,,,,31.0,0.0,0.404495,0.4646,0.270752,0.739746,-0.45557299999999995,-0.794446,-0.41651000000000005,0.014003,-0.040354,-0.03859,,,,,,,,,,,,,,,,,,,,,,,,,,,,,,,,,,,,,,,,,,,,,,,,,,,,,,,,,,,,,,,,,
16352,1648952732.345539,1648952732.3808699,63.0,0.0,4553.333496,4378.461426,4226.153809,4498.974121,4844.102539,0.0,3.0,73.0,,,,0.0,2.0,4.0,0.0,1.0,2.0,25.0,,,,,,,,,,,,,,,,,,,,,,,,,,,,,,,,,,,,,,,,,,,,,,,,,,,,,,,,,,,,,,,,,,,,,,,,,,,,,,,,,,,,
16353,1648952732.353354,1648952732.3887858,64.0,0.0,4626.666504,4390.769043,4265.128418,4618.461426,4596.922852000001,450.0,3.0,73.0,,,,0.0,2.0,4.0,0.0,1.0,2.0,25.0,,,,,,,,32.0,0.0,0.402926,0.46606400000000003,0.27124000000000004,0.739502,-0.472175,-0.800305,-0.398932,0.011724,-0.040029,-0.034535,,,,,,,,,,,,,,,,,,,,,,,,,,,,,,,,,,,,,,,,,,,,,,,,,,,,,,,,,,,,,,,,,
16354,1648952732.361168,1648952732.396601,65.0,0.0,4186.153809,4418.974121,4435.897461,4654.358886999999,4714.358886999999,450.0,3.0,73.0,,,,0.0,2.0,4.0,0.0,1.0,2.0,25.0,1.0,0.0,0.0,0.0,0.0,0.0,0.0,,,,,,,,,,,,,1.0,0.0,0.0,,,,,,,,,,,,,,,,,,,,,,,,,,,,,,,,0.0,0.0,32.0,0.21325,1.0,0.0,99.79186999999999,190.42726100000002,473.79776,732.462463,273.700378,433.302734,172.08078,106.11261699999999,131.415192,106.19844099999999,142.97113000000002,112.063797,266.712189,647.100037,229.90457200000003,195.859375,181.775925,265.387726,553.6757200000001,137.947708,176.642868,186.170151,330.688446,731.924194,134.757523
16355,1648952732.368983,1648952732.404317,66.0,0.0,3899.487061,4562.05127,4423.589844,4472.820313,4646.666504,0.0,3.0,73.0,,,,0.0,0.0,4.0,0.0,1.0,2.0,8.333333,,,,,,,,33.0,0.0,0.401179,0.46777299999999994,0.272217,0.7390140000000001,-0.45606199999999997,-0.8413209999999999,-0.41406899999999996,0.012749,-0.039737,-0.037038999999999996,,,,,,,,,,,,,,,,,,,,,,,,,,,,,,,,,,,,,,,,,,,,,,,,,,,,,,,,,,,,,,,,,
16356,1648952732.3767982,1648952732.412133,67.0,0.0,4247.692383,4452.307617,4376.410156,4286.153809,4247.692383,450.0,3.0,73.0,,,,0.0,0.0,4.0,0.0,1.0,2.0,8.333333,,,,,,,,,,,,,,,,,,,,,,,,,,,,,,,,,,,,,,,,,,,,,,,,,,,,,,,,,,,,,,,,,,,,,,,,,,,,,,,,,,,,
16357,1648952732.3846118,1648952732.419848,68.0,0.0,4474.871582,4025.641113,4432.820313,4561.025879,4451.794922,16217.0,3.0,73.0,,,,0.0,0.0,4.0,0.0,1.0,2.0,8.333333,,,,,,,,34.0,0.0,0.399419,0.46899399999999997,0.27270500000000003,0.7390140000000001,-0.42822899999999997,-0.832044,-0.23193699999999998,0.013866999999999999,-0.039475,-0.039389999999999994,,,,,,,,,,,,,,,,,,,,,,,,,,,,,,,,,,,,,,,,,,,,,,,,,,,,,,,,,,,,,,,,,
16358,1648952732.392427,1648952732.427664,69.0,0.0,4316.922852000001,4188.717772999999,4464.615234000001,4283.589844,4373.846191,450.0,3.0,73.0,,,,0.0,0.0,4.0,0.0,1.0,2.0,8.333333,,,,,,,,,,,,,,,,,,,,,,,,,,,,,,,,,,,,,,,,,,,,,,,,,,,,,,0.0,0.0,32.0,0.21325,1.0,0.0,,,,,,,,,,,,,,,,,,,,,,,,,
16359,1648952732.400241,1648952732.43538,70.0,0.0,4371.794922,4766.666504,4366.153809,4063.076904,4424.102539,0.0,3.0,73.0,,,,0.0,0.0,4.0,0.0,1.0,2.0,8.333333,,,,,,,,35.0,0.0,0.39757600000000004,0.469971,0.271729,0.739746,-0.43653000000000003,-0.80177,-0.40381500000000004,0.014726,-0.039189,-0.041506,,,,,,,,,,,,,,,,,,,,,,,,,,,,,,,,,,,,,,,,,,,,,,,,,,,,,,,,,,,,,,,,,
16360,1648952732.408056,1648952732.4431949,71.0,0.0,4496.922852000001,4699.487305,4321.025879,4277.436035,4069.743652,450.0,3.0,73.0,,,,0.0,0.0,4.0,0.0,1.0,2.0,8.333333,,,,,,,,,,,,,,,,,,,,,,,,,,,,,,,,,,,,,,,,,,,,,,,,,,,,,,,,,,,,,,,,,,,,,,,,,,,,,,,,,,,,
16361,1648952732.41587,1648952732.450911,72.0,0.0,4361.025879,4352.307617,4371.282227000001,4581.538574,4343.589844,450.0,3.0,73.0,,,,0.0,0.0,4.0,0.0,1.0,2.0,8.333333,,,,,,,,36.0,0.0,0.394425,0.47021499999999994,0.27124000000000004,0.741455,-0.451667,-0.754894,-0.409186,0.012375,-0.038786,-0.037062,,,,,,,,,,,,,,,,,,,,,,,,,,,,,,,,,,,,,,,,,,,,,,,,,,,,,,,,,,,,,,,,,
16362,1648952732.423685,1648952732.458727,73.0,0.0,4562.05127,4480.0,4348.205078,4224.102539,4628.205078,90.0,3.0,73.0,,,,0.0,0.0,4.0,0.0,1.0,2.0,8.333333,,,,,,,,,,,,,,,,,,,,,,,,,,,,,,,,,,,,,,,,,,,,,,,,,,,,,,0.0,0.0,32.0,0.21325,1.0,0.0,,,,,,,,,,,,,,,,,,,,,,,,,
16363,1648952732.431499,1648952732.466442,74.0,0.0,4994.358886999999,4677.436035,4357.436035,4138.461426,4705.128418,450.0,3.0,73.0,,,,0.0,0.0,4.0,0.0,1.0,0.0,0.0,,,,,,,,37.0,0.0,0.399419,0.46899399999999997,0.27270500000000003,0.7390140000000001,-0.42822899999999997,-0.832044,-0.23193699999999998,0.010356,-0.038521,-0.033161,,,,,,,,,,,,,,,,,,,,,,,,,,,,,,,,,,,,,,,,,,,,,,,,,,,,,,,,,,,,,,,,,
16364,1648952732.4393141,1648952732.474258,75.0,0.0,4431.794922,4427.179688,4511.282227000001,4413.846191,5476.410156,0.0,3.0,73.0,,,,0.0,0.0,4.0,0.0,1.0,0.0,0.0,,,,,,,,,,,,,,,,,,,,,,,,,,,,,,,,,,,,,,,,,,,,,,,,,,,,,,,,,,,,,,,,,,,,,,,,,,,,,,,,,,,,
16365,1648952732.4471278,1648952732.481973,76.0,0.0,4052.3076170000004,4169.230957,4468.205078,4244.102539,6165.641113000001,450.0,3.0,73.0,,,,0.0,0.0,4.0,0.0,1.0,0.0,0.0,,,,,,,,38.0,0.0,0.394425,0.47021499999999994,0.27124000000000004,0.741455,-0.451667,-0.754894,-0.409186,0.008440999999999999,-0.038183999999999996,-0.029550999999999997,,,,,,,,,,,,,,,,,,,,,,,,,,,,,,,,,,,,,,,,,,,,,,,,,,,,,,,,,,,,,,,,,
16366,1648952732.454943,1648952732.4898882,77.0,0.0,5125.641113000001,4358.461426,4194.871582,3961.025635,6216.922852000001,450.0,3.0,73.0,,,,0.0,0.0,4.0,0.0,1.0,0.0,0.0,,,,,,,,,,,,,,,,,,,,,,,,,,,,,,,,,,,,,,,,,,,,,,,,,,,,,,0.0,0.0,32.0,0.21325,1.0,0.0,,,,,,,,,,,,,,,,,,,,,,,,,
16367,1648952732.462757,1648952732.4977038,78.0,0.0,5003.077147999999,4574.871582,4027.179443,4032.820557,7220.0,450.0,3.0,73.0,,,,0.0,0.0,4.0,0.0,1.0,0.0,0.0,,,,,,,,39.0,0.0,0.388104,0.470459,0.27124000000000004,0.744629,-0.43994799999999995,-0.735363,-0.458991,0.00999,-0.037979,-0.032651,,,,,,,,,,,,,,,,,,,,,,,,,,,,,,,,,,,,,,,,,,,,,,,,,,,,,,,,,,,,,,,,,
16368,1648952732.470572,1648952732.50562,79.0,0.0,2993.846191,4413.333496,3923.076904,4194.871582,7914.358887,0.0,3.0,73.0,,,,0.0,0.0,4.0,0.0,1.0,0.0,0.0,,,,,,,,,,,,,,,,,,,,,,,,,,,,,,,,,,,,,,,,,,,,,,,,,,,,,,,,,,,,,,,,,,,,,,,,,,,,,,,,,,,,
16369,1648952732.4783869,1648952732.513435,80.0,0.0,2566.153809,4172.820313,4107.692383,4097.436035,6282.05127,450.0,3.0,73.0,,,,0.0,0.0,4.0,0.0,1.0,0.0,0.0,,,,,,,,40.0,0.0,0.381742,0.47119099999999997,0.270264,0.747803,-0.47608100000000003,-0.772961,-0.41358100000000003,0.008112000000000001,-0.037795,-0.029142,,,,,,,,,,,,,,,,,,,,,,,,,,,,,,,,,,,,,,,,,,,,,,,,,,,,,,,,,,,,,,,,,
16370,1648952732.486201,1648952732.5213509,81.0,0.0,3878.974365,4221.025879,4367.179688,4111.282227000001,4745.641113000001,450.0,3.0,73.0,,,,0.0,0.0,4.0,0.0,1.0,0.0,0.0,,,,,,,,,,,,,,,,,,,,1.0,0.0,0.0,,,,,,,,,,,,,,,,,,,,,,,,,,,,,,,,0.0,0.0,32.0,1.0,1.0,0.0,96.84142299999999,204.436188,501.00540199999995,681.188965,273.431763,377.548065,161.516724,132.411591,141.432663,101.714699,172.251541,121.36896499999999,247.858276,613.968933,221.490891,232.69300800000002,196.647873,275.94638100000003,509.67239400000005,123.66289499999999,224.990631,183.868027,291.364105,751.470154,139.745087
16371,1648952732.494016,1648952732.529166,82.0,0.0,4651.282227000001,4561.025879,4396.410156,4030.256348,4583.077147999999,450.0,3.0,73.0,,,,0.0,0.0,4.0,0.0,1.0,0.0,0.0,,,,,,,,41.0,0.0,0.37696,0.47119099999999997,0.269531,0.750488,-0.5078199999999999,-0.771008,-0.352544,0.009693,-0.037725999999999996,-0.032331,,,,,,,,,,,,,,,,,,,,,,,,,,,,,,,,,,,,,,,,,,,,,,,,,,,,,,,,,,,,,,,,,
16372,1648952732.50183,1648952732.537082,83.0,0.0,5246.153809,4704.615234000001,4129.743652,3931.281982,4432.307617,0.0,3.0,73.0,,,,0.0,0.0,4.0,0.0,1.0,0.0,0.0,,,,,,,,,,,,,,,,,,,,,,,,,,,,,,,,,,,,,,,,,,,,,,,,,,,,,,,,,,,,,,,,,,,,,,,,,,,,,,,,,,,,
16373,1648952732.509645,1648952732.544897,84.0,0.0,5336.410156,4415.897461,4058.974365,4138.461426,4165.641113000001,450.0,3.0,73.0,,,,0.0,0.0,4.0,0.0,1.0,0.0,0.0,,,,,,,,42.0,0.0,0.37353800000000004,0.47119099999999997,0.269531,0.752197,-0.48584700000000003,-0.785168,-0.398444,0.007992,-0.037567,-0.028902999999999998,,,,,,,,,,,,,,,,,,,,,,,,,,,,,,,,,,,,,,,,,,,,,,,,,,,,,,,,,,,,,,,,,
16374,1648952732.517459,1648952732.552813,85.0,0.0,3796.4101560000004,4256.922852000001,4299.487305,4568.205078,4355.897461,450.0,3.0,73.0,,,,0.0,0.0,4.0,0.0,1.0,0.0,0.0,,,,,,,,,,,,,,,,,,,,,,,,,,,,,,,,,,,,,,,,,,,,,,,,,,,,,,0.0,0.0,32.0,1.0,1.0,0.0,,,,,,,,,,,,,,,,,,,,,,,,,
16375,1648952732.525274,1648952732.560628,86.0,0.0,2839.487061,4346.666504,4380.512695,4585.641113000001,4866.153809,450.0,3.0,73.0,,,,0.0,0.0,4.0,0.0,1.0,0.0,0.0,,,,,,,,43.0,0.0,0.371527,0.47216800000000003,0.26855500000000004,0.75293,-0.516609,-0.70753,-0.382818,0.009439,-0.037326,-0.032214,,,,,,,,,,,,,,,,,,,,,,,,,,,,,,,,,,,,,,,,,,,,,,,,,,,,,,,,,,,,,,,,,
16376,1648952732.5330892,1648952732.568544,87.0,0.0,3996.923096,4310.256348,4166.153809,4235.384765999999,5517.94873,0.0,3.0,73.0,,,,0.0,0.0,4.0,0.0,1.0,0.0,0.0,,,,,,,,,,,,,,,,,,,,,,,,,,,,,,,,,,,,,,,,,,,,,,,,,,,,,,,,,,,,,,,,,,,,,,,,,,,,,,,,,,,,
16377,1648952732.5409029,1648952732.57636,88.0,0.0,4984.615234000001,4272.307617,4174.358886999999,4410.769043,5120.0,450.0,3.0,73.0,,,,0.0,0.0,4.0,0.0,1.0,0.0,0.0,,,,,,,,44.0,0.0,0.370718,0.47363299999999997,0.26709,0.75293,-0.5195390000000001,-0.711437,-0.41260399999999997,0.010643000000000001,-0.037108999999999996,-0.035095999999999995,,,,,,,,,,,,,,,,,,,,,,,,,,,,,,,,,,,,,,,,,,,,,,,,,,,,,,,,,,,,,,,,,
16378,1648952732.548718,1648952732.584175,89.0,0.0,4562.05127,4360.512695,4363.589844,5058.461426,4256.410156,450.0,3.0,73.0,,,,0.0,0.0,4.0,0.0,1.0,0.0,0.0,,,,,,,,,,,,,,,,,,,,,,,,,,,,,,,,,,,,,,,,,,,,,,,,,,,,,,0.0,0.0,32.0,1.0,1.0,0.0,,,,,,,,,,,,,,,,,,,,,,,,,
16379,1648952732.5565321,1648952732.591891,90.0,0.0,4069.2307130000004,4430.769043,4224.615234000001,4935.384765999999,3850.7692869999996,450.0,3.0,73.0,,,,0.0,0.0,4.0,0.0,1.0,0.0,0.0,,,,,,,,45.0,0.0,0.369106,0.476074,0.266357,0.752441,-0.5351640000000001,-0.761242,-0.39502600000000004,0.011825,-0.036963,-0.031342,,,,,,,,,,,,,,,,,,,,,,,,,,,,,,,,,,,,,,,,,,,,,,,,,,,,,,,,,,,,,,,,,
16380,1648952732.564347,1648952732.599606,91.0,0.0,4381.025879,4474.871582,4172.820313,4084.615479,4080.0,0.0,3.0,73.0,,,,0.0,0.0,4.0,0.0,1.0,0.0,0.0,,,,,,,,,,,,,,,,,,,,,,,,,,,,,,,,,,,,,,,,,,,,,,,,,,,,,,,,,,,,,,,,,,,,,,,,,,,,,,,,,,,,
16381,1648952732.572161,1648952732.607522,92.0,0.0,4632.820313,4455.384765999999,4492.820313,3768.205078,4764.102539,450.0,3.0,73.0,,,,0.0,0.0,4.0,0.0,1.0,0.0,0.0,,,,,,,,46.0,0.0,0.367296,0.47876,0.266113,0.751709,-0.552743,-0.763684,-0.42822899999999997,0.009764,-0.036927999999999996,-0.034214,,,,,,,,,,,,,,,,,,,,,,,,,,,,,,,,,,,,,,,,,,,,,,,,,,,,,,,,,,,,,,,,,
16382,1648952732.579976,1648952732.615338,93.0,0.0,4145.641113000001,4288.717772999999,4585.128418,4019.487061,4985.641113000001,450.0,3.0,73.0,,,,0.0,0.0,4.0,0.0,1.0,0.0,0.0,,,,,,,,,,,,,,,,,,,,,,,,,,,,,,,,,,,,,,,,,,,,,,,,,,,,,,0.0,0.0,32.0,1.0,1.0,0.0,,,,,,,,,,,,,,,,,,,,,,,,,
16383,1648952732.58779,1648952732.6232529,94.0,0.0,3833.3332520000004,4169.230957,4266.666504,4149.230957,5343.077147999999,450.0,3.0,73.0,,,,0.0,0.0,4.0,0.0,1.0,0.0,0.0,,,,,,,,47.0,0.0,0.366622,0.480469,0.264648,0.7514649999999999,-0.580575,-0.756359,-0.367193,0.010984,-0.036751,-0.036799,,,,,,,,,,,,,,,,,,,,,,,,,,,,,,,,,,,,,,,,,,,,,,,,,,,,,,,,,,,,,,,,,
16384,1648952732.5956051,1648952732.631069,95.0,0.0,4117.436035,4210.769043,4102.05127,3918.461426,6106.666504,0.0,3.0,73.0,,,,0.0,0.0,4.0,0.0,1.0,0.0,0.0,,,,,,,,,,,,,,,,,,,,,,,,,,,,,,,,,,,,,,,,,,,,,,,,,,,,,,,,,,,,,,,,,,,,,,,,,,,,,,,,,,,,
16385,1648952732.6034188,1648952732.638885,96.0,0.0,4244.102539,4385.128418,4188.205078,3789.743652,6114.358886999999,450.0,3.0,73.0,,,,0.0,0.0,4.0,0.0,1.0,0.0,0.0,,,,,,,,48.0,0.0,0.36586399999999997,0.48120100000000005,0.26367199999999996,0.751709,-0.590829,-0.761242,-0.378424,0.012279,-0.036592,-0.039125,,,,,,,,,,,,,,,,,,,,,,,,,,,,,,,,,,,,,,,,,,,,,,,,,,,,,,,,,,,,,,,,,
16386,1648952732.611234,1648952732.6466,97.0,0.0,4225.128418,4387.179688,4297.94873,3810.256348,5113.846191,450.0,3.0,73.0,,,,0.0,0.0,4.0,0.0,1.0,0.0,0.0,,,,,,,,,,,,,,,,,,,,1.0,0.0,0.0,,,,,,,,,,,,,,,,,,,,,,,,,,,,,,,,0.0,0.0,32.0,1.0,1.0,0.0,100.444115,208.356827,513.891296,629.956787,272.487457,320.66152999999997,139.053787,168.410446,149.939331,104.900177,196.348557,128.526749,232.92454500000002,585.31604,210.54599,280.057648,219.669708,284.173218,454.527771,112.62710600000001,287.368958,207.061386,264.086456,773.185913,145.383972
16387,1648952732.619048,1648952732.654416,98.0,0.0,4622.05127,4164.102539,4287.179688,3894.8718259999996,5017.436035,450.0,3.0,73.0,,,,0.0,0.0,4.0,0.0,1.0,0.0,0.0,,,,,,,,49.0,0.0,0.36406700000000003,0.48193400000000003,0.263428,0.752197,-0.606943,-0.76466,-0.430671,0.013346,-0.036497,-0.041267,,,,,,,,,,,,,,,,,,,,,,,,,,,,,,,,,,,,,,,,,,,,,,,,,,,,,,,,,,,,,,,,,
16388,1648952732.626863,1648952732.662132,99.0,0.0,4789.743652,4405.641113000001,4259.487305,3534.358887,5873.846191,0.0,3.0,73.0,,,,0.0,0.0,4.0,0.0,1.0,0.0,0.0,,,,,,,,,,,,,,,,,,,,,,,,,,,,,,,,,,,,,,,,,,,,,,,,,,,,,,,,,,,,,,,,,,,,,,,,,,,,,,,,,,,,
16389,1648952732.634678,1648952732.6699471,100.0,0.0,4595.384765999999,4842.563965,4227.692383,3494.358887,5965.641113000001,450.0,3.0,73.0,,,,0.0,0.0,4.0,0.0,1.0,0.0,0.0,,,,,,,,50.0,0.0,0.360941,0.48291000000000006,0.26245100000000005,0.753418,-0.637705,-0.7856569999999999,-0.41846300000000003,0.014355000000000001,-0.03651,-0.036945,,,,,,,,,,,,,,,,,,,,,,,,,,,,,,,,,,,,,,,,,,,,,,,,,,,,,,,,,,,,,,,,,
16390,1648952732.642492,1648952732.677663,101.0,0.0,5256.922852000001,4627.179688,4393.333496,3572.820557,6242.563965,450.0,3.0,73.0,,,,0.0,0.0,4.0,0.0,1.0,0.0,0.0,,,,,,,,,,,,,,,,,,,,,,,,,,,,,,,,,,,,,,,,,,,,,,,,,,,,,,0.0,0.0,32.0,1.0,1.0,0.0,,,,,,,,,,,,,,,,,,,,,,,,,
16391,1648952732.650307,1648952732.685478,102.0,0.0,5445.641113000001,4425.641113000001,4474.871582,3558.974365,5651.794922,450.0,3.0,73.0,,,,0.0,0.0,4.0,0.0,1.0,0.0,0.0,,,,,,,,51.0,0.0,0.357063,0.483154,0.260986,0.7556149999999999,-0.6499119999999999,-0.790539,-0.392096,0.012187,-0.036423000000000004,-0.039403,,,,,,,,,,,,,,,,,,,,,,,,,,,,,,,,,,,,,,,,,,,,,,,,,,,,,,,,,,,,,,,,,
16392,1648952732.658121,1648952732.693193,103.0,0.0,4390.769043,4711.282227000001,4287.692383,3944.615479,4201.025879,0.0,3.0,73.0,,,,0.0,0.0,4.0,0.0,1.0,0.0,0.0,,,,,,,,,,,,,,,,,,,,,,,,,,,,,,,,,,,,,,,,,,,,,,,,,,,,,,,,,,,,,,,,,,,,,,,,,,,,,,,,,,,,
16393,1648952732.665936,1648952732.701109,104.0,0.0,3808.718018,4669.743652,4170.769043,4385.641113000001,3894.8718259999996,450.0,3.0,73.0,,,,0.0,0.0,4.0,0.0,1.0,0.0,0.0,,,,,,,,52.0,0.0,0.35152,0.483154,0.26000999999999996,0.758545,-0.662608,-0.775402,-0.361822,0.013312000000000001,-0.036345,-0.041517,,,,,,,,,,,,,,,,,,,,,,,,,,,,,,,,,,,,,,,,,,,,,,,,,,,,,,,,,,,,,,,,,
16394,1648952732.67375,1648952732.708925,105.0,0.0,4463.077147999999,4277.436035,4315.384765999999,4378.461426,5083.077147999999,450.0,3.0,73.0,,,,0.0,0.0,4.0,0.0,1.0,0.0,0.0,,,,,,,,,,,,,,,,,,,,,,,,,,,,,,,,,,,,,,,,,,,,,,,,,,,,,,0.0,0.0,32.0,1.0,1.0,0.0,,,,,,,,,,,,,,,,,,,,,,,,,
16395,1648952732.681565,1648952732.7167401,106.0,0.0,4604.102539,4248.717772999999,4340.0,4200.512695,4696.410156,450.0,3.0,73.0,,,,0.0,0.0,4.0,0.0,1.0,0.0,0.0,,,,,,,,53.0,0.0,0.342778,0.48291000000000006,0.259277,0.762939,-0.6655369999999999,-0.849622,-0.45410900000000004,0.014227000000000002,-0.036129,-0.03717,,,,,,,,,,,,,,,,,,,,,,,,,,,,,,,,,,,,,,,,,,,,,,,,,,,,,,,,,,,,,,,,,
16396,1648952732.6893802,1648952732.724456,107.0,0.0,4206.666504,4634.358886999999,4074.8718259999996,4386.666504,4147.179688,0.0,3.0,73.0,,,,0.0,0.0,4.0,0.0,1.0,0.0,0.0,,,,,,,,,,,,,,,,,,,,,,,,,,,,,,,,,,,,,,,,,,,,,,,,,,,,,,,,,,,,,,,,,,,,,,,,,,,,,,,,,,,,
16397,1648952732.6971939,1648952732.7322712,108.0,0.0,4413.846191,4723.589844,4015.384521,4276.410156,4854.871582,450.0,3.0,73.0,,,,0.0,0.0,4.0,0.0,1.0,0.0,0.0,,,,,,,,54.0,0.0,0.331917,0.483154,0.257813,0.768066,-0.7260850000000001,-0.822766,-0.425299,0.015147999999999998,-0.035836,-0.039508,,,,,,,,,,,,,,,,,,,,,,,,,,,,,,,,,,,,,,,,,,,,,,,,,,,,,,,,,,,,,,,,,
16398,1648952732.705009,1648952732.7400858,109.0,0.0,4848.717772999999,4392.820313,4217.94873,4196.922852000001,4988.205078,450.0,3.0,73.0,,,,0.0,0.0,4.0,0.0,1.0,0.0,0.0,,,,,,,,,,,,,,,,,,,,,,,,,,,,,,,,,,,,,,,,,,,,,,,,,,,,,,0.0,0.0,32.0,1.0,1.0,0.0,,,,,,,,,,,,,,,,,,,,,,,,,
16399,1648952732.7128232,1648952732.748002,110.0,0.0,4730.769043,4108.205078,4389.743652,4256.922852000001,4682.563965,450.0,3.0,73.0,,,,0.0,0.0,4.0,0.0,1.0,0.0,0.0,,,,,,,,55.0,0.0,0.32001199999999996,0.48339799999999994,0.25708000000000003,0.773193,-0.7226670000000001,-0.78468,-0.44483100000000003,0.015977,-0.035817,-0.041612,,,,,,,,,,,,,,,,,,,,,,,,,,,,,,,,,,,,,,,,,,,,,,,,,,,,,,,,,,,,,,,,,
16400,1648952732.720638,1648952732.755817,111.0,0.0,4495.897461,4081.538574,4340.512695,4313.333496,4728.205078,0.0,3.0,73.0,,,,0.0,0.0,4.0,0.0,1.0,0.0,0.0,,,,,,,,,,,,,,,,,,,,,,,,,,,,,,,,,,,,,,,,,,,,,,,,,,,,,,,,,,,,,,,,,,,,,,,,,,,,,,,,,,,,
16401,1648952732.728452,1648952732.763633,112.0,0.0,4619.487305,4033.8461909999996,4367.692383,4305.641113000001,4593.846191,450.0,3.0,73.0,,,,0.0,0.0,4.0,0.0,1.0,0.0,0.0,,,,,,,,56.0,0.0,0.30859899999999996,0.48364300000000005,0.25805700000000004,0.7773439999999999,-0.732433,-0.7954220000000001,-0.49951899999999994,0.013647,-0.035556,-0.043602999999999996,,,,,,,,,,,,,,,,,,,,,,,,,,,,,,,,,,,,,,,,,,,,,,,,,,,,,,,,,,,,,,,,,
16402,1648952732.736267,1648952732.771349,113.0,0.0,4821.025879,3992.820557,4454.871582,4259.487305,4460.512695,450.0,3.0,73.0,,,,0.0,0.0,4.0,0.0,1.0,0.0,0.0,,,,,,,,,,,,,,,,,,,,1.0,0.0,0.0,,,,,,,,,,,,,,,,,,,,,,,,,,,,,,,,0.0,0.0,32.0,1.0,1.0,0.0,117.50131999999999,215.271973,524.8593139999999,629.618652,285.330811,277.613129,114.20298799999999,217.09362799999997,154.401321,117.05990600000001,213.52185099999997,132.483475,217.387787,558.382202,198.302444,352.76037599999995,260.41864,282.11419700000005,393.060699,107.50702700000001,535.112183,394.90002400000003,317.268311,792.470093,156.019775
16403,1648952732.744081,1648952732.7790642,114.0,0.0,4824.102539,4106.666504,4419.487305,4343.077147999999,4614.358886999999,450.0,3.0,73.0,,,,0.0,0.0,4.0,0.0,1.0,0.0,0.0,,,,,,,,57.0,0.0,0.299005,0.48364300000000005,0.259766,0.780518,-0.755871,-0.8217899999999999,-0.504891,0.014480000000000002,-0.035418,-0.045347000000000005,,,,,,,,,,,,,,,,,,,,,,,,,,,,,,,,,,,,,,,,,,,,,,,,,,,,,,,,,,,,,,,,,
16404,1648952732.7518961,1648952732.78688,115.0,0.0,4664.102539,4065.641113,4360.0,4320.512695,4746.666504,0.0,3.0,73.0,,,,0.0,0.0,4.0,0.0,1.0,0.0,0.0,,,,,,,,,,,,,,,,,,,,,,,,,,,,,,,,,,,,,,,,,,,,,,,,,,,,,,,,,,,,,,,,,,,,,,,,,,,,,,,,,,,,
16405,1648952732.75971,1648952732.794695,116.0,0.0,4655.384765999999,4116.922852000001,4369.743652,4118.461426,4848.717772999999,450.0,3.0,73.0,,,,0.0,0.0,4.0,0.0,1.0,0.0,0.0,,,,,,,,58.0,0.0,0.292456,0.48291000000000006,0.261963,0.7827149999999999,-0.80177,-0.8222780000000001,-0.506844,0.015327,-0.035246,-0.040763,,,,,,,,,,,,,,,,,,,,,,,,,,,,,,,,,,,,,,,,,,,,,,,,,,,,,,,,,,,,,,,,,
16406,1648952732.767525,1648952732.8026109,117.0,0.0,4653.846191,4200.512695,4416.922852000001,4187.179688,4668.205078,450.0,3.0,73.0,,,,0.0,0.0,4.0,0.0,1.0,0.0,0.0,,,,,,,,,,,,,,,,,,,,,,,,,,,,,,,,,,,,,,,,,,,,,,,,,,,,,,0.0,0.0,32.0,1.0,1.0,0.0,,,,,,,,,,,,,,,,,,,,,,,,,
16407,1648952732.7753391,1648952732.810427,118.0,0.0,4716.410156,4143.077147999999,4407.692383,4256.922852000001,4707.692383,450.0,3.0,73.0,,,,0.0,0.0,4.0,0.0,1.0,0.0,0.0,,,,,,,,59.0,0.0,0.30859899999999996,0.48364300000000005,0.25805700000000004,0.7773439999999999,-0.732433,-0.7954220000000001,-0.49951899999999994,0.016089,-0.035089999999999996,-0.042839,,,,,,,,,,,,,,,,,,,,,,,,,,,,,,,,,,,,,,,,,,,,,,,,,,,,,,,,,,,,,,,,,
16408,1648952732.783154,1648952732.818343,119.0,0.0,4460.512695,4384.615234000001,4320.512695,3952.820557,4826.153809,0.0,3.0,73.0,,,,0.0,0.0,4.0,0.0,1.0,0.0,0.0,,,,,,,,,,,,,,,,,,,,,,,,,,,,,,,,,,,,,,,,,,,,,,,,,,,,,,,,,,,,,,,,,,,,,,,,,,,,,,,,,,,,
16409,1648952732.790969,1648952732.826159,120.0,0.0,3933.3332520000004,4863.589844,4392.820313,3738.974365,4323.589844,450.0,3.0,73.0,,,,0.0,0.0,4.0,0.0,1.0,0.0,0.0,,,,,,,,60.0,0.0,0.289133,0.48120100000000005,0.264404,0.78418,-0.8139770000000001,-0.833997,-0.55079,0.016775,-0.03495,-0.044708,,,,,,,,,,,,,,,,,,,,,,,,,,,,,,,,,,,,,,,,,,,,,,,,,,,,,,,,,,,,,,,,,
16410,1648952732.798783,1648952732.834074,121.0,0.0,4133.333496,4899.487305,4438.974121,3472.3076170000004,4018.974365,450.0,3.0,73.0,,,,0.0,0.0,4.0,0.0,1.0,0.0,0.0,,,,,,,,,,,,,,,,,,,,,,,,,,,,,,,,,,,,,,,,,,,,,,,,,,,,,,0.0,0.0,32.0,1.0,1.0,0.0,,,,,,,,,,,,,,,,,,,,,,,,,
16411,1648952732.806598,1648952732.84189,122.0,0.0,4735.897461,4424.102539,4209.743652,3446.1538090000004,4630.769043,450.0,3.0,73.0,,,,0.0,0.0,4.0,0.0,1.0,0.0,0.0,,,,,,,,61.0,0.0,0.28627600000000003,0.47876,0.26757800000000004,0.7856449999999999,-0.8261850000000001,-0.802747,-0.641123,0.017344,-0.034727,-0.046389,,,,,,,,,,,,,,,,,,,,,,,,,,,,,,,,,,,,,,,,,,,,,,,,,,,,,,,,,,,,,,,,,
16412,1648952732.8144119,1648952732.849805,123.0,0.0,4777.94873,4325.641113000001,4085.641113,4183.077147999999,4652.307617,0.0,3.0,73.0,,,,0.0,0.0,4.0,0.0,1.0,0.0,0.0,,,,,,,,,,,,,,,,,,,,,,,,,,,,,,,,,,,,,,,,,,,,,,,,,,,,,,,,,,,,,,,,,,,,,,,,,,,,,,,,,,,,
16413,1648952732.822227,1648952732.8576212,124.0,0.0,4493.846191,4431.282227000001,4230.769043,4538.974121,4174.358886999999,450.0,3.0,73.0,,,,0.0,0.0,4.0,0.0,1.0,0.0,0.0,,,,,,,,62.0,0.0,0.284364,0.476074,0.272217,0.786377,-0.8569469999999999,-0.788586,-0.7104600000000001,0.014681,-0.034623,-0.047952,,,,,,,,,,,,,,,,,,,,,,,,,,,,,,,,,,,,,,,,,,,,,,,,,,,,,,,,,,,,,,,,,
16414,1648952732.830041,1648952732.865536,125.0,0.0,4514.358886999999,4522.563965,4330.769043,4090.256348,4211.282227000001,450.0,3.0,73.0,,,,0.0,0.0,4.0,0.0,1.0,0.0,0.0,,,,,,,,,,,,,,,,,,,,,,,,,,,,,,,,,,,,,,,,,,,,,,,,,,,,,,0.0,0.0,32.0,1.0,1.0,0.0,,,,,,,,,,,,,,,,,,,,,,,,,
16415,1648952732.837856,1648952732.873452,126.0,0.0,4445.641113000001,4670.769043,4261.538574,4312.307617,4255.384765999999,450.0,3.0,73.0,,,,0.0,0.0,4.0,0.0,1.0,0.0,0.0,,,,,,,,63.0,0.0,0.285804,0.474121,0.277588,0.7851560000000001,-0.894057,-0.8115359999999999,-0.672862,0.015362,-0.034433,-0.049309,,,,,,,,,,,,,,,,,,,,,,,,,,,,,,,,,,,,,,,,,,,,,,,,,,,,,,,,,,,,,,,,,
16416,1648952732.8456712,1648952732.881268,127.0,0.0,4324.615234000001,4788.205078,4270.769043,4094.8718259999996,4119.487305,238.0,3.0,73.0,,,,0.0,0.0,4.0,0.0,1.0,0.0,0.0,,,,,,,,,,,,,,,,,,,,,,,,,,,,,,,,,,,,,,,,,,,,,,,,,,,,,,,,,,,,,,,,,,,,,,,,,,,,,,,,,,,,
16417,1648952732.8534849,1648952732.889184,0.0,0.0,4542.05127,4738.974121,4262.563965,2583.589844,4197.94873,450.0,3.0,73.0,,,,0.0,0.0,4.0,0.0,1.0,0.0,0.0,,,,,,,,0.0,0.0,0.29159,0.473145,0.28418000000000004,0.78125,-0.8608530000000001,-0.886244,-0.5927819999999999,0.015875999999999998,-0.034505,-0.038127999999999995,,,,,,,,,,,,,,,,,,,,,,,,,,,,,,,,,,,,,,,,,,,,,,,,,,,,,,,,,,,,,,,,,
16418,1648952732.8613,1648952732.8969991,1.0,0.0,4507.692383,4629.230957,4231.282227000001,2778.4614260000003,4203.589844,450.0,3.0,73.0,,,,0.0,0.0,4.0,0.0,1.0,0.0,0.0,1.0,0.0,0.0,0.0,0.0,0.0,0.0,,,,,,,,,,,,,1.0,0.0,0.0,,,,,,,,,,,,,,,,,,,,,,,,,,,,,,,,0.0,0.0,32.0,0.9195700000000001,1.0,0.0,151.25235,253.705582,574.593323,757.458313,344.49823,255.857864,93.162689,275.841431,154.592346,137.742279,226.38163799999998,132.574356,202.479752,526.695801,186.3069,493.89444000000003,322.899628,269.057098,335.83313,114.568848,1360.543701,907.7979130000001,598.271423,847.632813,186.6521
16419,1648952732.8691142,1648952732.904915,2.0,0.0,4185.128418,4766.666504,4285.128418,4400.512695,4197.436035,70.0,3.0,73.0,,,,0.0,1.0,4.0,0.0,1.0,0.0,8.333333,,,,,,,,1.0,0.0,0.301604,0.4729,0.290771,0.775146,-0.8281379999999999,-0.8530399999999999,-0.507332,0.013312000000000001,-0.034520999999999996,-0.040468000000000004,,,,,,,,,,,,,,,,,,,,,,,,,,,,,,,,,,,,,,,,,,,,,,,,,,,,,,,,,,,,,,,,,
16420,1648952732.8769288,1648952732.9127312,3.0,0.0,4143.077147999999,4899.487305,4358.461426,4572.307617,4318.461426,450.0,3.0,73.0,,,,0.0,1.0,4.0,0.0,1.0,0.0,8.333333,,,,,,,,,,,,,,,,,,,,,,,,,,,,,,,,,,,,,,,,,,,,,,,,,,,,,,,,,,,,,,,,,,,,,,,,,,,,,,,,,,,,
16421,1648952732.884743,1648952732.9206471,4.0,0.0,4332.820313,4905.128418,4317.436035,4093.3332520000004,4275.384765999999,16133.0,3.0,73.0,,,,0.0,1.0,4.0,0.0,1.0,0.0,8.333333,,,,,,,,2.0,0.0,0.31311100000000003,0.472656,0.29834,0.767822,-0.771008,-0.812512,-0.42188100000000006,0.010956,-0.034536000000000004,-0.036226,,,,,,,,,,,,,,,,,,,,,,,,,,,,,,,,,,,,,,,,,,,,,,,,,,,,,,,,,,,,,,,,,
16422,1648952732.892558,1648952732.928463,5.0,0.0,4425.128418,4757.94873,4266.666504,4364.102539,4230.256348,450.0,3.0,73.0,,,,0.0,1.0,4.0,0.0,1.0,0.0,8.333333,,,,,,,,,,,,,,,,,,,,,,,,,,,,,,,,,,,,,,,,,,,,,,,,,,,,,,0.0,0.0,32.0,0.9195700000000001,1.0,0.0,,,,,,,,,,,,,,,,,,,,,,,,,
16423,1648952732.900372,1648952732.9362779,6.0,0.0,4514.871582,4558.974121,4275.897461,4571.794922,4239.487305,44.0,3.0,73.0,,,,0.0,1.0,4.0,0.0,1.0,0.0,8.333333,,,,,,,,3.0,0.0,0.324445,0.47216800000000003,0.30688499999999996,0.7600100000000001,-0.656748,-0.728038,-0.41113900000000003,0.008883,-0.034598000000000004,-0.032457,,,,,,,,,,,,,,,,,,,,,,,,,,,,,,,,,,,,,,,,,,,,,,,,,,,,,,,,,,,,,,,,,
16424,1648952732.908187,1648952732.944094,7.0,0.0,4584.102539,4494.871582,4341.025879,4425.128418,4290.256348,450.0,3.0,73.0,,,,0.0,1.0,4.0,0.0,1.0,0.0,8.333333,,,,,,,,,,,,,,,,,,,,,,,,,,,,,,,,,,,,,,,,,,,,,,,,,,,,,,,,,,,,,,,,,,,,,,,,,,,,,,,,,,,,
16425,1648952732.916001,1648952732.95201,8.0,0.0,4618.974121,4354.871582,4291.794922,4551.282227000001,4457.94873,450.0,3.0,73.0,,,,0.0,1.0,4.0,0.0,0.0,0.0,0.0,,,,,,,,4.0,0.0,0.333311,0.470947,0.317139,0.752686,-0.6718850000000001,-0.766125,-0.412116,0.010144,-0.034801,-0.035314,,,,,,,,,,,,,,,,,,,,,,,,,,,,,,,,,,,,,,,,,,,,,,,,,,,,,,,,,,,,,,,,,
16426,1648952732.923816,1648952732.959825,9.0,0.0,4871.282227000001,4238.974121,4169.743652,4538.974121,4603.589844,0.0,3.0,73.0,,,,0.0,1.0,4.0,0.0,0.0,0.0,0.0,,,,,,,,,,,,,,,,,,,,,,,,,,,,,,,,,,,,,,,,,,,,,,,,,,,,,,0.0,0.0,32.0,0.9195700000000001,1.0,0.0,,,,,,,,,,,,,,,,,,,,,,,,,
16427,1648952732.9316301,1648952732.967741,10.0,0.0,4764.102539,4311.282227000001,4173.846191,4330.256348,4657.436035,450.0,3.0,73.0,,,,0.0,1.0,4.0,0.0,0.0,0.0,0.0,,,,,,,,5.0,0.0,0.339907,0.469238,0.328613,0.74585,-0.629892,-0.797375,-0.415045,0.008201,-0.035031,-0.037838,,,,,,,,,,,,,,,,,,,,,,,,,,,,,,,,,,,,,,,,,,,,,,,,,,,,,,,,,,,,,,,,,
16428,1648952732.939445,1648952732.975557,11.0,0.0,4279.487305,4440.512695,4283.589844,4254.358886999999,4555.384765999999,0.0,3.0,73.0,,,,0.0,1.0,4.0,0.0,0.0,0.0,0.0,,,,,,,,,,,,,,,,,,,,,,,,,,,,,,,,,,,,,,,,,,,,,,,,,,,,,,,,,,,,,,,,,,,,,,,,,,,,,,,,,,,,
16429,1648952732.94726,1648952732.983473,12.0,0.0,4187.179688,4607.692383,4279.487305,4277.436035,4439.487305,450.0,3.0,73.0,,,,0.0,1.0,4.0,0.0,0.0,0.0,0.0,,,,,,,,6.0,0.0,0.346996,0.46801800000000005,0.339844,0.7382810000000001,-0.571786,-0.763684,-0.340337,0.009481,-0.035288,-0.040060000000000005,,,,,,,,,,,,,,,,,,,,,,,,,,,,,,,,,,,,,,,,,,,,,,,,,,,,,,,,,,,,,,,,,
16430,1648952732.955074,1648952732.9912882,13.0,0.0,4285.641113000001,4887.692383,4228.205078,4336.922852000001,4353.846191,450.0,3.0,73.0,,,,0.0,1.0,4.0,0.0,0.0,0.0,0.0,,,,,,,,,,,,,,,,,,,,,,,,,,,,,,,,,,,,,,,,,,,,,,,,,,,,,,0.0,0.0,32.0,0.9195700000000001,1.0,0.0,,,,,,,,,,,,,,,,,,,,,,,,,
16431,1648952732.962889,1648952732.999204,14.0,0.0,4300.0,5015.897461,4382.563965,4238.974121,4213.333496,450.0,3.0,73.0,,,,0.0,1.0,4.0,0.0,0.0,0.0,0.0,,,,,,,,7.0,0.0,0.352852,0.46801800000000005,0.352051,0.7297359999999999,-0.615244,-0.777356,-0.253422,0.010681,-0.035617,-0.042158,,,,,,,,,,,,,,,,,,,,,,,,,,,,,,,,,,,,,,,,,,,,,,,,,,,,,,,,,,,,,,,,,
16432,1648952732.970703,1648952733.00702,15.0,0.0,4629.230957,4895.897461,4326.666504,4204.615234000001,4103.589844,0.0,3.0,73.0,,,,0.0,1.0,4.0,0.0,0.0,0.0,0.0,,,,,,,,,,,,,,,,,,,,,,,,,,,,,,,,,,,,,,,,,,,,,,,,,,,,,,,,,,,,,,,,,,,,,,,,,,,,,,,,,,,,
16433,1648952732.978518,1648952733.014936,16.0,0.0,4569.230957,4933.333496,4213.846191,4197.436035,4056.4101560000004,0.0,3.0,73.0,,,,0.0,1.0,4.0,0.0,0.0,0.0,0.0,,,,,,,,8.0,0.0,0.358207,0.46801800000000005,0.36645500000000003,0.719971,-0.551766,-0.870619,-0.23389000000000001,0.011713,-0.036108,-0.037747,,,,,,,,,,,,,,,,,,,,,,,,,,,,,,,,,,,,,,,,,,,,,,,,,,,,,,,,,,,,,,,,,
16434,1648952732.986332,1648952733.022851,17.0,0.0,4036.4101560000004,4950.256348,4332.820313,4226.666504,4105.641113000001,0.0,3.0,73.0,,,,0.0,1.0,4.0,0.0,0.0,0.0,0.0,,,,,,,,,,,,,,,,,,,,1.0,0.0,0.0,,,,,,,,,,,,,,,,,,,,,,,,,,,,,,,,0.0,0.0,32.0,0.6434949999999999,1.0,0.0,199.240448,356.416321,715.927307,1063.529907,483.44796799999995,267.564789,80.90819499999999,337.32128900000004,153.511169,164.389923,238.293961,130.261765,191.190552,482.128937,175.793945,761.598022,400.160187,257.282532,293.91891499999997,139.46636999999998,3122.05127,1812.0479739999998,1223.086548,1010.1829220000001,258.49221800000004
16435,1648952732.994147,1648952733.030667,18.0,0.0,4097.94873,4662.05127,4442.05127,4171.794922,4295.384765999999,0.0,3.0,73.0,,,,0.0,1.0,4.0,0.0,0.0,0.0,0.0,,,,,,,,9.0,0.0,0.362929,0.46777299999999994,0.381348,0.709961,-0.45264399999999994,-0.828626,-0.17383099999999999,0.009516,-0.036696,-0.033727999999999994,,,,,,,,,,,,,,,,,,,,,,,,,,,,,,,,,,,,,,,,,,,,,,,,,,,,,,,,,,,,,,,,,
16436,1648952733.001962,1648952733.038583,19.0,0.0,4404.615234000001,4581.025879,4207.692383,4060.0,4482.563965,0.0,3.0,73.0,,,,0.0,1.0,4.0,0.0,0.0,0.0,0.0,,,,,,,,,,,,,,,,,,,,,,,,,,,,,,,,,,,,,,,,,,,,,,,,,,,,,,,,,,,,,,,,,,,,,,,,,,,,,,,,,,,,
16437,1648952733.0097759,1648952733.046399,20.0,0.0,4562.563965,4856.922852000001,4156.922852000001,4051.281982,4303.077147999999,0.0,3.0,73.0,,,,0.0,1.0,4.0,0.0,0.0,0.0,0.0,,,,,,,,10.0,0.0,0.36844299999999996,0.46777299999999994,0.394775,0.699707,-0.391608,-0.80177,-0.185061,0.010615000000000001,-0.037127999999999994,-0.036213999999999996,,,,,,,,,,,,,,,,,,,,,,,,,,,,,,,,,,,,,,,,,,,,,,,,,,,,,,,,,,,,,,,,,
16438,1648952733.017591,1648952733.0543141,21.0,0.0,4843.589844,4944.102539,4308.717772999999,4126.153809,3984.615479,0.0,3.0,73.0,,,,0.0,1.0,4.0,0.0,0.0,0.0,0.0,,,,,,,,,,,,,,,,,,,,,,,,,,,,,,,,,,,,,,,,,,,,,,,,,,,,,,0.0,0.0,32.0,0.6434949999999999,1.0,0.0,,,,,,,,,,,,,,,,,,,,,,,,,
16439,1648952733.0254052,1648952733.06213,22.0,0.0,4857.436035,4668.717772999999,4245.128418,4075.384521,3911.281982,0.0,3.0,73.0,,,,0.0,1.0,4.0,0.0,0.0,0.0,0.0,,,,,,,,11.0,0.0,0.37459899999999996,0.466797,0.407959,0.689453,-0.39014299999999996,-0.7309680000000001,-0.226566,0.008333,-0.037712,-0.032251,,,,,,,,,,,,,,,,,,,,,,,,,,,,,,,,,,,,,,,,,,,,,,,,,,,,,,,,,,,,,,,,,
16440,1648952733.0332198,1648952733.0700462,23.0,0.0,4384.102539,4668.717772999999,4266.666504,4037.9487299999996,3990.7692869999996,0.0,3.0,73.0,,,,0.0,1.0,4.0,0.0,0.0,0.0,0.0,,,,,,,,,,,,,,,,,,,,,,,,,,,,,,,,,,,,,,,,,,,,,,,,,,,,,,,,,,,,,,,,,,,,,,,,,,,,,,,,,,,,
16441,1648952733.041034,1648952733.077862,24.0,0.0,4087.179443,4896.922852000001,4563.077147999999,4288.717772999999,4141.025879,0.0,3.0,73.0,,,,0.0,1.0,4.0,0.0,0.0,0.0,0.0,,,,,,,,12.0,0.0,0.38268,0.464355,0.420654,0.678955,-0.391119,-0.6997180000000001,-0.20361600000000002,0.009502,-0.038287,-0.028683999999999998,,,,,,,,,,,,,,,,,,,,,,,,,,,,,,,,,,,,,,,,,,,,,,,,,,,,,,,,,,,,,,,,,
16442,1648952733.048849,1648952733.085778,25.0,0.0,4406.666504,4789.743652,4530.256348,4379.487305,4282.563965,0.0,3.0,73.0,,,,0.0,1.0,4.0,0.0,0.0,0.0,0.0,,,,,,,,,,,,,,,,,,,,,,,,,,,,,,,,,,,,,,,,,,,,,,,,,,,,,,0.0,0.0,32.0,0.6434949999999999,1.0,0.0,,,,,,,,,,,,,,,,,,,,,,,,,
16443,1648952733.056663,1648952733.093593,26.0,0.0,4788.205078,4702.563965,4132.820313,4132.820313,4260.512695,0.0,3.0,73.0,,,,0.0,1.0,4.0,0.0,0.0,0.0,0.0,,,,,,,,13.0,0.0,0.39143,0.460938,0.43261700000000003,0.668701,-0.36328699999999997,-0.692882,-0.265629,0.007379999999999999,-0.038902,-0.025572,,,,,,,,,,,,,,,,,,,,,,,,,,,,,,,,,,,,,,,,,,,,,,,,,,,,,,,,,,,,,,,,,
16444,1648952733.064478,1648952733.101509,27.0,0.0,4862.05127,4493.846191,4292.820313,4011.281982,4157.436035,0.0,3.0,73.0,,,,0.0,1.0,4.0,0.0,0.0,0.0,0.0,,,,,,,,,,,,,,,,,,,,,,,,,,,,,,,,,,,,,,,,,,,,,,,,,,,,,,,,,,,,,,,,,,,,,,,,,,,,,,,,,,,,
16445,1648952733.072292,1648952733.109325,28.0,0.0,4880.512695,4042.5642090000006,4622.05127,4112.307617,4353.333496,0.0,3.0,73.0,,,,0.0,1.0,4.0,0.0,0.0,0.0,0.0,,,,,,,,14.0,0.0,0.401512,0.457275,0.442871,0.658447,-0.281254,-0.703624,-0.297856,0.005323,-0.039601,-0.028874,,,,,,,,,,,,,,,,,,,,,,,,,,,,,,,,,,,,,,,,,,,,,,,,,,,,,,,,,,,,,,,,,
16446,1648952733.080107,1648952733.117241,29.0,0.0,4885.641113000001,4190.256348,4318.974121,4122.563965,4604.615234000001,0.0,3.0,73.0,,,,0.0,1.0,4.0,0.0,0.0,0.0,0.0,,,,,,,,,,,,,,,,,,,,,,,,,,,,,,,,,,,,,,,,,,,,,,,,,,,,,,0.0,0.0,32.0,0.6434949999999999,1.0,0.0,,,,,,,,,,,,,,,,,,,,,,,,,
16447,1648952733.087922,1648952733.125057,30.0,0.0,4643.077147999999,4657.436035,4060.0,4056.4101560000004,4584.102539,0.0,3.0,73.0,,,,0.0,1.0,4.0,0.0,0.0,0.0,0.0,,,,,,,,15.0,0.0,0.38268,0.464355,0.420654,0.678955,-0.391119,-0.6997180000000001,-0.20361600000000002,0.0034729999999999995,-0.040231,-0.025596,,,,,,,,,,,,,,,,,,,,,,,,,,,,,,,,,,,,,,,,,,,,,,,,,,,,,,,,,,,,,,,,,
16448,1648952733.095736,1648952733.132972,31.0,0.0,4361.025879,4705.641113000001,4374.871582,4073.3332520000004,4435.897461,0.0,3.0,73.0,,,,0.0,1.0,4.0,0.0,0.0,0.0,0.0,,,,,,,,,,,,,,,,,,,,,,,,,,,,,,,,,,,,,,,,,,,,,,,,,,,,,,,,,,,,,,,,,,,,,,,,,,,,,,,,,,,,
16449,1648952733.103551,1648952733.140888,32.0,0.0,4241.025879,4838.461426,4547.692383,4115.384765999999,4442.563965,0.0,3.0,73.0,,,,0.0,1.0,4.0,0.0,0.0,0.0,0.0,,,,,,,,16.0,0.0,0.401512,0.457275,0.442871,0.658447,-0.281254,-0.703624,-0.297856,0.001807,-0.040798,-0.028895999999999998,,,,,,,,,,,,,,,,,,,,,,,,,,,,,,,,,,,,,,,,,,,,,,,,,,,,,,,,,,,,,,,,,
16450,1648952733.111365,1648952733.1487038,33.0,0.0,4249.743652,4921.538574,4278.461426,4018.974365,4576.922852000001,0.0,3.0,73.0,,,,0.0,1.0,4.0,0.0,0.0,0.0,0.0,,,,,,,,,,,,,,,,,,,,1.0,0.0,0.0,,,,,,,,,,,,,,,,,,,,,,,,,,,,,,,,0.0,0.0,32.0,0.48048199999999996,1.0,0.0,251.36471600000002,545.210205,970.025391,1522.883057,708.459412,329.16848799999997,85.92775,391.200562,156.875824,192.740097,250.594177,126.73013300000001,185.606125,420.00558499999994,166.654404,1194.477051,478.348755,286.79245,286.278625,186.965103,5814.773926,2984.119141,2168.258057,1322.4223630000001,383.35769700000003
16451,1648952733.11918,1648952733.15662,34.0,0.0,4628.205078,4769.230957,4227.179688,3873.3332520000004,4413.846191,0.0,3.0,73.0,,,,0.0,1.0,4.0,0.0,0.0,0.0,0.0,,,,,,,,17.0,0.0,0.41306499999999996,0.45288100000000003,0.45214799999999994,0.647949,-0.21826500000000001,-0.723644,-0.335943,0.000308,-0.041308,-0.025616000000000003,,,,,,,,,,,,,,,,,,,,,,,,,,,,,,,,,,,,,,,,,,,,,,,,,,,,,,,,,,,,,,,,,
16452,1648952733.126994,1648952733.1644359,35.0,0.0,4957.436035,4740.512695,4438.974121,3821.538574,4330.769043,0.0,3.0,73.0,,,,0.0,1.0,4.0,0.0,0.0,0.0,0.0,,,,,,,,,,,,,,,,,,,,,,,,,,,,,,,,,,,,,,,,,,,,,,,,,,,,,,,,,,,,,,,,,,,,,,,,,,,,,,,,,,,,
16453,1648952733.134809,1648952733.172252,36.0,0.0,4766.666504,4331.282227000001,4452.820313,3900.512939,4740.0,0.0,3.0,73.0,,,,0.0,1.0,4.0,0.0,0.0,0.0,0.0,,,,,,,,18.0,0.0,0.424896,0.447754,0.460449,0.637939,-0.177249,-0.8139770000000001,-0.254887,0.002084,-0.041816000000000006,-0.028865,,,,,,,,,,,,,,,,,,,,,,,,,,,,,,,,,,,,,,,,,,,,,,,,,,,,,,,,,,,,,,,,,
16454,1648952733.142623,1648952733.180168,37.0,0.0,4726.153809,4004.102539,4338.461426,3997.9487299999996,5064.102539,0.0,3.0,73.0,,,,0.0,1.0,4.0,0.0,0.0,0.0,0.0,,,,,,,,,,,,,,,,,,,,,,,,,,,,,,,,,,,,,,,,,,,,,,,,,,,,,,0.0,0.0,32.0,0.48048199999999996,1.0,0.0,,,,,,,,,,,,,,,,,,,,,,,,,
16455,1648952733.150438,1648952733.187984,38.0,0.0,4917.94873,4588.717772999999,4462.563965,3973.3332520000004,4831.282227000001,0.0,3.0,73.0,,,,0.0,1.0,4.0,0.0,0.0,0.0,0.0,,,,,,,,19.0,0.0,0.437134,0.441895,0.46801800000000005,0.628174,-0.15820599999999999,-0.7856569999999999,-0.24560900000000002,0.000411,-0.042371,-0.025539,,,,,,,,,,,,,,,,,,,,,,,,,,,,,,,,,,,,,,,,,,,,,,,,,,,,,,,,,,,,,,,,,
16456,1648952733.158252,1648952733.1959,39.0,0.0,4846.666504,4928.205078,4626.666504,3809.743652,4604.102539,0.0,3.0,73.0,,,,0.0,1.0,4.0,0.0,0.0,0.0,0.0,,,,,,,,,,,,,,,,,,,,,,,,,,,,,,,,,,,,,,,,,,,,,,,,,,,,,,,,,,,,,,,,,,,,,,,,,,,,,,,,,,,,
16457,1648952733.166067,1648952733.203716,40.0,0.0,4791.282227000001,4469.743652,4345.641113000001,3847.179443,4696.410156,0.0,3.0,73.0,,,,0.0,1.0,4.0,0.0,0.0,0.0,0.0,,,,,,,,20.0,0.0,0.450675,0.435303,0.47558599999999995,0.617432,-0.111818,-0.797375,-0.280278,-0.000998,-0.042821,-0.028747,,,,,,,,,,,,,,,,,,,,,,,,,,,,,,,,,,,,,,,,,,,,,,,,,,,,,,,,,,,,,,,,,
16458,1648952733.173882,1648952733.211631,41.0,0.0,5001.025879,4408.717772999999,4225.641113000001,3958.974365,4807.179688,0.0,3.0,73.0,,,,0.0,1.0,4.0,0.0,0.0,0.0,0.0,,,,,,,,,,,,,,,,,,,,,,,,,,,,,,,,,,,,,,,,,,,,,,,,,,,,,,0.0,0.0,32.0,0.48048199999999996,1.0,0.0,,,,,,,,,,,,,,,,,,,,,,,,,
16459,1648952733.1816962,1648952733.2194471,42.0,0.0,5158.461426,4675.897461,4528.205078,3715.384521,4892.820313,0.0,3.0,73.0,,,,0.0,1.0,4.0,0.0,0.0,0.0,0.0,,,,,,,,21.0,0.0,0.46434,0.42895500000000003,0.48291000000000006,0.605957,-0.009766,-0.8056760000000001,-0.24853899999999998,0.000811,-0.043276,-0.031633999999999995,,,,,,,,,,,,,,,,,,,,,,,,,,,,,,,,,,,,,,,,,,,,,,,,,,,,,,,,,,,,,,,,,
16460,1648952733.1895108,1648952733.227362,43.0,0.0,4987.692383,4682.563965,4666.666504,3712.3076170000004,4655.897461,0.0,3.0,73.0,,,,0.0,1.0,4.0,0.0,0.0,0.0,0.0,,,,,,,,,,,,,,,,,,,,,,,,,,,,,,,,,,,,,,,,,,,,,,,,,,,,,,,,,,,,,,,,,,,,,,,,,,,,,,,,,,,,
16461,1648952733.197325,1648952733.235278,44.0,0.0,4922.563965,4628.717772999999,4742.563965,4088.718018,4697.436035,0.0,3.0,73.0,,,,0.0,1.0,4.0,0.0,0.0,0.0,0.0,,,,,,,,22.0,0.0,0.477408,0.42480500000000004,0.48925799999999997,0.5935060000000001,0.040527999999999995,-0.889174,-0.16894800000000001,0.002292,-0.043831,-0.034379,,,,,,,,,,,,,,,,,,,,,,,,,,,,,,,,,,,,,,,,,,,,,,,,,,,,,,,,,,,,,,,,,
16462,1648952733.20514,1648952733.243094,45.0,0.0,5115.897461,4549.230957,4757.94873,4073.8461909999996,5535.384765999999,0.0,3.0,73.0,,,,0.0,1.0,4.0,0.0,0.0,0.0,0.0,,,,,,,,,,,,,,,,,,,,,,,,,,,,,,,,,,,,,,,,,,,,,,,,,,,,,,0.0,0.0,32.0,0.48048199999999996,1.0,0.0,,,,,,,,,,,,,,,,,,,,,,,,,
16463,1648952733.2129538,1648952733.25101,46.0,0.0,5741.538574,4518.974121,4925.641113000001,3703.5898439999996,5721.538574,0.0,3.0,73.0,,,,0.0,1.0,4.0,0.0,0.0,0.0,0.0,,,,,,,,23.0,0.0,0.488505,0.42260699999999995,0.49511700000000003,0.581055,0.144045,-0.863783,-0.11572400000000001,0.005139,-0.044525999999999996,-0.0368,,,,,,,,,,,,,,,,,,,,,,,,,,,,,,,,,,,,,,,,,,,,,,,,,,,,,,,,,,,,,,,,,
16464,1648952733.220769,1648952733.258825,47.0,0.0,5941.538574,4582.563965,5291.282227000001,3609.743652,4565.128418,0.0,3.0,73.0,,,,0.0,1.0,4.0,0.0,0.0,0.0,0.0,,,,,,,,,,,,,,,,,,,,,,,,,,,,,,,,,,,,,,,,,,,,,,,,,,,,,,,,,,,,,,,,,,,,,,,,,,,,,,,,,,,,
16465,1648952733.228583,1648952733.266741,48.0,0.0,6011.282227000001,4589.743652,5825.128418,3653.8461909999996,4680.0,0.0,3.0,73.0,,,,0.0,1.0,4.0,0.0,0.0,0.0,0.0,,,,,,,,24.0,0.0,0.49713199999999996,0.42163100000000003,0.501221,0.569092,0.156252,-0.847669,-0.138186,0.0030629999999999998,-0.045005,-0.032583,,,,,,,,,,,,,,,,,,,,,,,,,,,,,,,,,,,,,,,,,,,,,,,,,,,,,,,,,,,,,,,,,
16466,1648952733.236398,1648952733.274657,49.0,0.0,7286.153809,4591.282227000001,5803.077147999999,3754.8718259999996,5551.282227000001,0.0,3.0,73.0,,,,0.0,1.0,4.0,0.0,0.0,0.0,0.0,,,,,,,,,,,,,,,,,,,,1.0,0.0,0.0,,,,,,,,,,,,,,,,,,,,,,,,,,,,,,,,0.0,0.0,32.0,0.250733,1.0,0.0,299.237518,807.329041,1303.947876,2032.0833739999998,980.7269289999999,451.48272699999995,119.847771,433.696136,169.487778,217.45179700000003,259.36319,122.49890900000001,184.748154,342.772766,157.881805,1774.1342769999999,548.2802730000001,404.280334,334.19458,259.629303,8930.211914,4123.887695,3221.578857,1752.868164,548.4382320000001
16467,1648952733.244213,1648952733.282473,50.0,0.0,7954.358887,4535.897461,5530.256348,3845.1281740000004,5326.153809,0.0,3.0,73.0,,,,0.0,1.0,4.0,0.0,0.0,0.0,0.0,,,,,,,,25.0,0.0,0.504575,0.42114300000000005,0.507324,0.557373,0.169924,-0.768566,-0.151858,0.00427,-0.045583,-0.035038,,,,,,,,,,,,,,,,,,,,,,,,,,,,,,,,,,,,,,,,,,,,,,,,,,,,,,,,,,,,,,,,,
16468,1648952733.252027,1648952733.2902892,51.0,0.0,6215.384765999999,4374.871582,6400.512695,3944.615479,6046.666504,0.0,3.0,73.0,,,,0.0,1.0,4.0,0.0,0.0,0.0,0.0,,,,,,,,,,,,,,,,,,,,,,,,,,,,,,,,,,,,,,,,,,,,,,,,,,,,,,,,,,,,,,,,,,,,,,,,,,,,,,,,,,,,
16469,1648952733.259842,1648952733.2982051,52.0,0.0,5130.256348,4332.820313,6916.410156,4042.0512700000004,7770.256348000001,0.0,3.0,73.0,,,,0.0,1.0,4.0,0.0,0.0,0.0,0.0,,,,,,,,26.0,0.0,0.512096,0.41943400000000003,0.5141600000000001,0.5454100000000001,0.147463,-0.744152,-0.14941600000000002,0.005259000000000001,-0.046103,-0.030899,,,,,,,,,,,,,,,,,,,,,,,,,,,,,,,,,,,,,,,,,,,,,,,,,,,,,,,,,,,,,,,,,
16470,1648952733.267656,1648952733.306021,53.0,0.0,6911.794922,4495.384765999999,5170.256348,4197.94873,8215.897461,0.0,3.0,73.0,,,,0.0,1.0,4.0,0.0,0.0,0.0,0.0,,,,,,,,,,,,,,,,,,,,,,,,,,,,,,,,,,,,,,,,,,,,,,,,,,,,,,0.0,0.0,32.0,0.250733,1.0,0.0,,,,,,,,,,,,,,,,,,,,,,,,,
16471,1648952733.2754712,1648952733.313937,54.0,0.0,8111.282227,4626.153809,3671.281982,4028.205078,7584.615234000001,0.0,3.0,73.0,,,,0.0,1.0,4.0,0.0,0.0,0.0,0.0,,,,,,,,27.0,0.0,0.519517,0.416016,0.5214840000000001,0.533936,0.12109600000000001,-0.737316,-0.136721,0.0061979999999999995,-0.04662,-0.027076999999999997,,,,,,,,,,,,,,,,,,,,,,,,,,,,,,,,,,,,,,,,,,,,,,,,,,,,,,,,,,,,,,,,,
16472,1648952733.283285,1648952733.321752,55.0,0.0,7765.128418000001,4594.871582,4661.025879,4057.9487299999996,7884.102539,0.0,3.0,73.0,,,,0.0,1.0,4.0,0.0,0.0,0.0,0.0,,,,,,,,,,,,,,,,,,,,,,,,,,,,,,,,,,,,,,,,,,,,,,,,,,,,,,,,,,,,,,,,,,,,,,,,,,,,,,,,,,,,
16473,1648952733.2911,1648952733.329668,56.0,0.0,7680.0,4524.615234000001,5623.077147999999,4563.589844,7892.307617,0.0,3.0,73.0,,,,0.0,1.0,4.0,0.0,0.0,0.0,0.0,,,,,,,,28.0,0.0,0.526817,0.41088900000000006,0.529541,0.522705,0.10254100000000001,-0.699229,-0.122072,0.005286,-0.047182,-0.023734,,,,,,,,,,,,,,,,,,,,,,,,,,,,,,,,,,,,,,,,,,,,,,,,,,,,,,,,,,,,,,,,,
16474,1648952733.298914,1648952733.337484,57.0,0.0,7924.102539,4563.077147999999,5048.205078,4330.256348,7769.743651999999,0.0,3.0,73.0,,,,0.0,1.0,4.0,0.0,0.0,0.0,0.0,,,,,,,,,,,,,,,,,,,,,,,,,,,,,,,,,,,,,,,,,,,,,,,,,,,,,,0.0,0.0,32.0,0.250733,1.0,0.0,,,,,,,,,,,,,,,,,,,,,,,,,
16475,1648952733.3067288,1648952733.3454,58.0,0.0,7986.666504000001,4564.615234000001,4782.05127,3640.0,7775.897461,0.0,3.0,73.0,,,,0.0,1.0,4.0,0.0,0.0,0.0,0.0,,,,,,,,29.0,0.0,0.5337,0.404053,0.53833,0.5119630000000001,0.093751,-0.654795,-0.180179,0.007638,-0.047738,-0.026927,,,,,,,,,,,,,,,,,,,,,,,,,,,,,,,,,,,,,,,,,,,,,,,,,,,,,,,,,,,,,,,,,
16476,1648952733.314543,1648952733.353216,59.0,0.0,7995.384765999999,4485.641113000001,4837.94873,3527.179443,7831.282227,0.0,3.0,73.0,,,,0.0,1.0,4.0,0.0,0.0,0.0,0.0,,,,,,,,,,,,,,,,,,,,,,,,,,,,,,,,,,,,,,,,,,,,,,,,,,,,,,,,,,,,,,,,,,,,,,,,,,,,,,,,,,,,
