,Timestamp,OriginalTimestamp,EEG.Counter,EEG.Interpolated,EEG.AF3,EEG.T7,EEG.Pz,EEG.T8,EEG.AF4,EEG.RawCq,EEG.Battery,EEG.BatteryPercent,MarkerIndex,MarkerType,MarkerValueInt,EEG.MarkerHardware,CQ.AF3,CQ.T7,CQ.Pz,CQ.T8,CQ.AF4,CQ.Overall,EQ.SampleRateQuality,EQ.OVERALL,EQ.AF3,EQ.T7,EQ.Pz,EQ.T8,EQ.AF4,MOT.CounterMems,MOT.InterpolatedMems,MOT.Q0,MOT.Q1,MOT.Q2,MOT.Q3,MOT.AccX,MOT.AccY,MOT.AccZ,MOT.MagX,MOT.MagY,MOT.MagZ,MC.Action,MC.ActionPower,MC.IsActive,PM.Engagement.IsActive,PM.Engagement.Scaled,PM.Engagement.Raw,PM.Engagement.Min,PM.Engagement.Max,PM.Excitement.IsActive,PM.Excitement.Scaled,PM.Excitement.Raw,PM.Excitement.Min,PM.Excitement.Max,PM.LongTermExcitement,PM.Stress.IsActive,PM.Stress.Scaled,PM.Stress.Raw,PM.Stress.Min,PM.Stress.Max,PM.Relaxation.IsActive,PM.Relaxation.Scaled,PM.Relaxation.Raw,PM.Relaxation.Min,PM.Relaxation.Max,PM.Interest.IsActive,PM.Interest.Scaled,PM.Interest.Raw,PM.Interest.Min,PM.Interest.Max,PM.Focus.IsActive,PM.Focus.Scaled,PM.Focus.Raw,PM.Focus.Min,PM.Focus.Max,FE.BlinkWink,FE.HorizontalEyesDirection,FE.UpperFaceAction,FE.UpperFaceActionPower,FE.LowerFaceAction,FE.LowerFaceActionPower,POW.AF3.Theta,POW.AF3.Alpha,POW.AF3.BetaL,POW.AF3.BetaH,POW.AF3.Gamma,POW.T7.Theta,POW.T7.Alpha,POW.T7.BetaL,POW.T7.BetaH,POW.T7.Gamma,POW.Pz.Theta,POW.Pz.Alpha,POW.Pz.BetaL,POW.Pz.BetaH,POW.Pz.Gamma,POW.T8.Theta,POW.T8.Alpha,POW.T8.BetaL,POW.T8.BetaH,POW.T8.Gamma,POW.AF4.Theta,POW.AF4.Alpha,POW.AF4.BetaL,POW.AF4.BetaH,POW.AF4.Gamma
50675,1648953000.564341,1648953000.599457,82.0,0.0,4401.025879,4660.0,4480.512695,4253.333496,4196.922852000001,450.0,3.0,73.0,,,,0.0,0.0,0.0,0.0,0.0,0.0,0.0,,,,,,,,41.0,0.0,0.584317,-0.114258,0.092529,0.798096,0.310552,-0.015625,-0.991226,0.001322,-0.012803,-0.031089,,,,,,,,,,,,,,,,,,,,,,,,,,,,,,,,,,,,,,,,,,,,,,,,,,,,,,,,,,,,,,,,,
50676,1648953000.572155,1648953000.6072721,83.0,0.0,4211.794922,4694.871582,4801.025879,3989.743652,4220.0,0.0,3.0,73.0,,,,0.0,0.0,0.0,0.0,0.0,0.0,0.0,,,,,,,,,,,,,,,,,,,,,,,,,,,,,,,,,,,,,,,,,,,,,,,,,,,,,,,,,,,,,,,,,,,,,,,,,,,,,,,,,,,,
50677,1648953000.57997,1648953000.615187,84.0,0.0,4302.563965,4560.512695,4297.94873,4248.205078,4537.436035,450.0,3.0,73.0,,,,0.0,0.0,0.0,0.0,0.0,0.0,0.0,,,,,,,,42.0,0.0,0.584356,-0.114258,0.092285,0.798096,0.299809,-0.018555000000000002,-0.977554,0.004266,-0.012841,-0.027882999999999998,,,,,,,,,,,,,,,,,,,,,,,,,,,,,,,,,,,,,,,,,,,,,,,,,,,,,,,,,,,,,,,,,
50678,1648953000.587784,1648953000.623003,85.0,0.0,4438.461426,4396.410156,3988.205078,4464.102539,4552.820313,450.0,3.0,73.0,,,,0.0,0.0,0.0,0.0,0.0,0.0,0.0,,,,,,,,,,,,,,,,,,,,,,,,,,,,,,,,,,,,,,,,,,,,,,,,,,,,,,0.0,0.0,32.0,0.054692,1.0,0.0,,,,,,,,,,,,,,,,,,,,,,,,,
50679,1648953000.595599,1648953000.630918,86.0,0.0,4414.358886999999,4698.974121,4213.846191,4241.025879,4228.717772999999,450.0,3.0,73.0,,,,0.0,0.0,0.0,0.0,0.0,0.0,0.0,,,,,,,,43.0,0.0,0.584317,-0.114258,0.092529,0.798096,0.310552,-0.015625,-0.991226,0.006623,-0.012875,-0.031149,,,,,,,,,,,,,,,,,,,,,,,,,,,,,,,,,,,,,,,,,,,,,,,,,,,,,,,,,,,,,,,,,
50680,1648953000.603414,1648953000.638733,87.0,0.0,4268.205078,4920.0,4384.102539,4079.487061,4080.512939,0.0,3.0,73.0,,,,0.0,0.0,0.0,0.0,0.0,0.0,0.0,,,,,,,,,,,,,,,,,,,,,,,,,,,,,,,,,,,,,,,,,,,,,,,,,,,,,,,,,,,,,,,,,,,,,,,,,,,,,,,,,,,,
50681,1648953000.611228,1648953000.646648,88.0,0.0,4284.102539,4612.820313,4416.922852000001,4397.94873,4286.153809,450.0,3.0,73.0,,,,0.0,0.0,0.0,0.0,0.0,0.0,0.0,,,,,,,,44.0,0.0,0.584317,-0.114258,0.092529,0.798096,0.299321,-0.019532,-0.965835,0.008695,-0.012759999999999999,-0.034236,,,,,,,,,,,,,,,,,,,,,,,,,,,,,,,,,,,,,,,,,,,,,,,,,,,,,,,,,,,,,,,,,
50682,1648953000.6190429,1648953000.654463,89.0,0.0,4561.538574,4464.615234000001,4456.410156,4590.769043,4532.820313,450.0,3.0,73.0,,,,0.0,0.0,0.0,0.0,0.0,0.0,0.0,,,,,,,,,,,,,,,,,,,,,,,,,,,,,,,,,,,,,,,,,,,,,,,,,,,,,,0.0,0.0,32.0,0.054692,1.0,0.0,,,,,,,,,,,,,,,,,,,,,,,,,
50683,1648953000.626857,1648953000.6623778,90.0,0.0,4715.897461,4689.743652,4337.94873,4367.179688,4452.307617,450.0,3.0,73.0,,,,0.0,0.0,0.0,0.0,0.0,0.0,0.0,,,,,,,,45.0,0.0,0.584317,-0.114258,0.092529,0.798096,0.292973,-0.02002,-0.9863430000000001,0.0052369999999999995,-0.012802000000000001,-0.030713999999999998,,,,,,,,,,,,,,,,,,,,,,,,,,,,,,,,,,,,,,,,,,,,,,,,,,,,,,,,,,,,,,,,,
50684,1648953000.6346722,1648953000.670193,91.0,0.0,4235.384765999999,4711.282227000001,4152.820313,4152.820313,4131.794922,0.0,3.0,73.0,,,,0.0,0.0,0.0,0.0,0.0,0.0,0.0,,,,,,,,,,,,,,,,,,,,,,,,,,,,,,,,,,,,,,,,,,,,,,,,,,,,,,,,,,,,,,,,,,,,,,,,,,,,,,,,,,,,
50685,1648953000.6424859,1648953000.678108,92.0,0.0,3933.3332520000004,4577.94873,4103.589844,4325.641113000001,4212.820313,450.0,3.0,73.0,,,,0.0,0.0,0.0,0.0,0.0,0.0,0.0,,,,,,,,46.0,0.0,0.584317,-0.114258,0.092529,0.798096,0.297856,-0.028321,-0.988296,0.005251,-0.01284,-0.033795,,,,,,,,,,,,,,,,,,,,,,,,,,,,,,,,,,,,,,,,,,,,,,,,,,,,,,,,,,,,,,,,,
50686,1648953000.650301,1648953000.685923,93.0,0.0,4496.410156,4654.871582,4099.487305,4518.974121,4512.307617,450.0,3.0,73.0,,,,0.0,0.0,0.0,0.0,0.0,0.0,0.0,,,,,,,,,,,,,,,,,,,,,,,,,,,,,,,,,,,,,,,,,,,,,,,,,,,,,,0.0,0.0,32.0,0.054692,1.0,0.0,,,,,,,,,,,,,,,,,,,,,,,,,
50687,1648953000.658116,1648953000.6938381,94.0,0.0,4840.512695,4696.410156,4139.487305,4460.0,4469.743652,450.0,3.0,73.0,,,,0.0,0.0,0.0,0.0,0.0,0.0,0.0,,,,,,,,47.0,0.0,0.584317,-0.114258,0.092529,0.798096,0.290044,-0.027344,-0.984878,0.00746,-0.012728,-0.036617000000000004,,,,,,,,,,,,,,,,,,,,,,,,,,,,,,,,,,,,,,,,,,,,,,,,,,,,,,,,,,,,,,,,,
50688,1648953000.66593,1648953000.701753,95.0,0.0,4303.077147999999,4473.846191,4430.769043,4225.128418,4165.128418,0.0,3.0,73.0,,,,0.0,0.0,0.0,0.0,0.0,0.0,0.0,,,,,,,,,,,,,,,,,,,,,,,,,,,,,,,,,,,,,,,,,,,,,,,,,,,,,,,,,,,,,,,,,,,,,,,,,,,,,,,,,,,,
50689,1648953000.673745,1648953000.709568,96.0,0.0,4000.0,4340.0,4541.538574,4117.94873,4260.0,450.0,3.0,73.0,,,,0.0,0.0,0.0,0.0,0.0,0.0,0.0,,,,,,,,48.0,0.0,0.584317,-0.114258,0.092529,0.798096,0.293462,-0.0043950000000000005,-0.9702299999999999,0.009545999999999999,-0.012773999999999999,-0.03901,,,,,,,,,,,,,,,,,,,,,,,,,,,,,,,,,,,,,,,,,,,,,,,,,,,,,,,,,,,,,,,,,
50690,1648953000.681559,1648953000.717383,97.0,0.0,4295.897461,4563.077147999999,3993.8461909999996,4380.512695,4584.615234000001,450.0,3.0,73.0,,,,0.0,0.0,0.0,0.0,0.0,0.0,0.0,,,,,,,,,,,,,,,,,,,,1.0,0.0,0.0,,,,,,,,,,,,,,,,,,,,,,,,,,,,,,,,0.0,0.0,32.0,0.05400800000000001,1.0,0.0,66.220093,55.726288000000004,39.967438,894.67395,174.321411,382.033234,170.189255,80.339043,158.64048799999998,63.766716,2018.1228030000002,354.576904,290.391083,282.61499,143.041626,35.314098,51.038162,14.595011999999999,889.302185,136.23641999999998,25.761269,87.904526,64.590012,1042.34375,175.95665
50691,1648953000.689374,1648953000.725298,98.0,0.0,4536.410156,4736.922852000001,3754.358887,4617.94873,4534.358886999999,450.0,3.0,73.0,,,,0.0,0.0,0.0,0.0,0.0,0.0,0.0,,,,,,,,49.0,0.0,0.584317,-0.114258,0.092529,0.798096,0.298833,-0.011719,-0.9873200000000001,0.008884999999999999,-0.012815,-0.03506,,,,,,,,,,,,,,,,,,,,,,,,,,,,,,,,,,,,,,,,,,,,,,,,,,,,,,,,,,,,,,,,,
50692,1648953000.6971881,1648953000.7332132,99.0,0.0,4467.692383,4647.179688,4466.666504,4317.436035,4235.897461,0.0,3.0,73.0,,,,0.0,0.0,0.0,0.0,0.0,0.0,0.0,,,,,,,,,,,,,,,,,,,,,,,,,,,,,,,,,,,,,,,,,,,,,,,,,,,,,,,,,,,,,,,,,,,,,,,,,,,,,,,,,,,,
50693,1648953000.705003,1648953000.741029,100.0,0.0,4261.538574,4596.410156,4800.512695,4000.0,4194.358886999999,450.0,3.0,73.0,,,,0.0,0.0,0.0,0.0,0.0,0.0,0.0,,,,,,,,50.0,0.0,0.584404,-0.114014,0.092285,0.798096,0.292485,-0.0063479999999999995,-0.9712059999999999,0.008484,-0.012852,-0.037658,,,,,,,,,,,,,,,,,,,,,,,,,,,,,,,,,,,,,,,,,,,,,,,,,,,,,,,,,,,,,,,,,
50694,1648953000.712817,1648953000.748944,101.0,0.0,4187.179688,4563.589844,4420.512695,4210.256348,4486.666504,450.0,3.0,73.0,,,,0.0,0.0,0.0,0.0,0.0,0.0,0.0,,,,,,,,,,,,,,,,,,,,,,,,,,,,,,,,,,,,,,,,,,,,,,,,,,,,,,0.0,0.0,32.0,0.05400800000000001,1.0,0.0,,,,,,,,,,,,,,,,,,,,,,,,,
50695,1648953000.720632,1648953000.756759,102.0,0.0,4427.179688,4464.615234000001,4223.589844,4472.820313,4689.743652,450.0,3.0,73.0,,,,0.0,0.0,0.0,0.0,0.0,0.0,0.0,,,,,,,,51.0,0.0,0.584404,-0.114014,0.092285,0.798096,0.28809,-0.021973,-0.980484,0.0048530000000000005,-0.012836000000000002,-0.033794,,,,,,,,,,,,,,,,,,,,,,,,,,,,,,,,,,,,,,,,,,,,,,,,,,,,,,,,,,,,,,,,,
50696,1648953000.728446,1648953000.764674,103.0,0.0,4588.717772999999,4550.769043,4155.897461,4407.179688,4472.820313,0.0,3.0,73.0,,,,0.0,0.0,0.0,0.0,0.0,0.0,0.0,,,,,,,,,,,,,,,,,,,,,,,,,,,,,,,,,,,,,,,,,,,,,,,,,,,,,,,,,,,,,,,,,,,,,,,,,,,,,,,,,,,,
50697,1648953000.736261,1648953000.772489,104.0,0.0,4340.512695,4741.025879,4034.358887,4224.615234000001,4072.3076170000004,450.0,3.0,73.0,,,,0.0,0.0,0.0,0.0,0.0,0.0,0.0,,,,,,,,52.0,0.0,0.584404,-0.114014,0.092285,0.798096,0.298344,-0.019532,-0.980972,0.007151,-0.012871,-0.036469999999999995,,,,,,,,,,,,,,,,,,,,,,,,,,,,,,,,,,,,,,,,,,,,,,,,,,,,,,,,,,,,,,,,,
50698,1648953000.744075,1648953000.780304,105.0,0.0,4183.589844,4771.282227000001,4053.8461909999996,4194.358886999999,4091.281982,450.0,3.0,73.0,,,,0.0,0.0,0.0,0.0,0.0,0.0,0.0,,,,,,,,,,,,,,,,,,,,,,,,,,,,,,,,,,,,,,,,,,,,,,,,,,,,,,0.0,0.0,32.0,0.05400800000000001,1.0,0.0,,,,,,,,,,,,,,,,,,,,,,,,,
50699,1648953000.75189,1648953000.788219,106.0,0.0,4342.563965,4754.871582,3957.4357909999994,4420.0,4462.05127,450.0,3.0,73.0,,,,0.0,0.0,0.0,0.0,0.0,0.0,0.0,,,,,,,,53.0,0.0,0.584404,-0.114014,0.092285,0.798096,0.299809,-0.019532,-0.9824370000000001,0.0068260000000000005,-0.012804,-0.032725,,,,,,,,,,,,,,,,,,,,,,,,,,,,,,,,,,,,,,,,,,,,,,,,,,,,,,,,,,,,,,,,,
50700,1648953000.759705,1648953000.796134,107.0,0.0,4455.897461,4716.410156,4078.974365,4663.077147999999,4623.589844,0.0,3.0,73.0,,,,0.0,0.0,0.0,0.0,0.0,0.0,0.0,,,,,,,,,,,,,,,,,,,,,,,,,,,,,,,,,,,,,,,,,,,,,,,,,,,,,,,,,,,,,,,,,,,,,,,,,,,,,,,,,,,,
50701,1648953000.767519,1648953000.803949,108.0,0.0,4317.436035,4533.846191,4652.307617,4356.922852000001,4387.692383,450.0,3.0,73.0,,,,0.0,0.0,0.0,0.0,0.0,0.0,0.0,,,,,,,,54.0,0.0,0.584404,-0.114014,0.092285,0.798096,0.290044,-0.020508000000000002,-0.977066,0.006681,-0.012794,-0.029355000000000003,,,,,,,,,,,,,,,,,,,,,,,,,,,,,,,,,,,,,,,,,,,,,,,,,,,,,,,,,,,,,,,,,
50702,1648953000.775334,1648953000.8118641,109.0,0.0,4188.717772999999,4405.641113000001,4751.282227000001,4066.6667479999996,4190.769043,450.0,3.0,73.0,,,,0.0,0.0,0.0,0.0,0.0,0.0,0.0,,,,,,,,,,,,,,,,,,,,,,,,,,,,,,,,,,,,,,,,,,,,,,,,,,,,,,0.0,0.0,32.0,0.05400800000000001,1.0,0.0,,,,,,,,,,,,,,,,,,,,,,,,,
50703,1648953000.783148,1648953000.819679,110.0,0.0,4156.922852000001,4442.563965,4431.282227000001,4301.025879,4346.153809,450.0,3.0,73.0,,,,0.0,0.0,0.0,0.0,0.0,0.0,0.0,,,,,,,,55.0,0.0,0.584404,-0.114014,0.092285,0.798096,0.304692,-0.02295,-0.988785,0.005915,-0.012735,-0.032474,,,,,,,,,,,,,,,,,,,,,,,,,,,,,,,,,,,,,,,,,,,,,,,,,,,,,,,,,,,,,,,,,
50704,1648953000.7909632,1648953000.827594,111.0,0.0,4364.102539,4498.974121,4232.820313,4481.538574,4657.436035,0.0,3.0,73.0,,,,0.0,0.0,0.0,0.0,0.0,0.0,0.0,,,,,,,,,,,,,,,,,,,,,,,,,,,,,,,,,,,,,,,,,,,,,,,,,,,,,,,,,,,,,,,,,,,,,,,,,,,,,,,,,,,,
50705,1648953000.7987769,1648953000.835409,112.0,0.0,4542.05127,4654.358886999999,4070.7692869999996,4281.025879,4469.743652,450.0,3.0,73.0,,,,0.0,0.0,0.0,0.0,0.0,0.0,0.0,,,,,,,,56.0,0.0,0.584442,-0.114014,0.092041,0.798096,0.29395,-0.006836,-0.973648,0.008058,-0.01278,-0.035379,,,,,,,,,,,,,,,,,,,,,,,,,,,,,,,,,,,,,,,,,,,,,,,,,,,,,,,,,,,,,,,,,
50706,1648953000.806592,1648953000.843324,113.0,0.0,4376.922852000001,4851.794922,4110.769043,4136.410156,4107.179688,450.0,3.0,73.0,,,,0.0,0.0,0.0,0.0,0.0,0.0,0.0,,,,,,,,,,,,,,,,,,,,1.0,0.0,0.0,,,,,,,,,,,,,,,,,,,,,,,,,,,,,,,,0.0,0.0,32.0,0.04256,1.0,0.0,59.560303000000005,56.403316000000004,28.767628000000002,896.420959,197.721893,393.89975,134.895065,74.337021,165.892181,61.398410999999996,2081.439697,400.82842999999997,255.64228799999998,265.611481,143.553818,38.150616,56.127602,14.604113,845.4694210000001,150.458893,25.898325,88.844597,67.248672,1023.871155,206.350845
50707,1648953000.814407,1648953000.851239,114.0,0.0,4097.436035,4820.0,4190.256348,4141.538574,4131.282227000001,450.0,3.0,73.0,,,,0.0,0.0,0.0,0.0,0.0,0.0,0.0,,,,,,,,57.0,0.0,0.584442,-0.114014,0.092041,0.798096,0.305669,-0.022461000000000002,-0.9922030000000001,0.007594,-0.012723,-0.037994,,,,,,,,,,,,,,,,,,,,,,,,,,,,,,,,,,,,,,,,,,,,,,,,,,,,,,,,,,,,,,,,,
50708,1648953000.822221,1648953000.859055,115.0,0.0,4132.307617,4673.333496,3973.8461909999996,4273.846191,4382.05127,0.0,3.0,73.0,,,,0.0,0.0,0.0,0.0,0.0,0.0,0.0,,,,,,,,,,,,,,,,,,,,,,,,,,,,,,,,,,,,,,,,,,,,,,,,,,,,,,,,,,,,,,,,,,,,,,,,,,,,,,,,,,,,
50709,1648953000.830036,1648953000.8669698,116.0,0.0,4417.94873,4645.641113000001,4004.615479,4512.820313,4494.358886999999,450.0,3.0,73.0,,,,0.0,0.0,0.0,0.0,0.0,0.0,0.0,,,,,,,,58.0,0.0,0.584442,-0.114014,0.092041,0.798096,0.28809,-0.025879000000000003,-0.98146,0.004051,-0.012768999999999999,-0.034145999999999996,,,,,,,,,,,,,,,,,,,,,,,,,,,,,,,,,,,,,,,,,,,,,,,,,,,,,,,,,,,,,,,,,
50710,1648953000.83785,1648953000.874785,117.0,0.0,4604.615234000001,4598.461426,4268.717772999999,4532.307617,4300.0,450.0,3.0,73.0,,,,0.0,0.0,0.0,0.0,0.0,0.0,0.0,,,,,,,,,,,,,,,,,,,,,,,,,,,,,,,,,,,,,,,,,,,,,,,,,,,,,,0.0,0.0,32.0,0.04256,1.0,0.0,,,,,,,,,,,,,,,,,,,,,,,,,
50711,1648953000.845665,1648953000.882601,118.0,0.0,4419.487305,4437.436035,4335.384765999999,4236.410156,4053.8461909999996,450.0,3.0,73.0,,,,0.0,0.0,0.0,0.0,0.0,0.0,0.0,,,,,,,,59.0,0.0,0.584442,-0.114014,0.092041,0.798096,0.28174299999999997,-0.02002,-0.976089,0.0041340000000000005,-0.012664,-0.036737,,,,,,,,,,,,,,,,,,,,,,,,,,,,,,,,,,,,,,,,,,,,,,,,,,,,,,,,,,,,,,,,,
50712,1648953000.853479,1648953000.890516,119.0,0.0,4112.307617,4429.230957,4344.615234000001,4017.4357909999994,4157.94873,0.0,3.0,73.0,,,,0.0,0.0,0.0,0.0,0.0,0.0,0.0,,,,,,,,,,,,,,,,,,,,,,,,,,,,,,,,,,,,,,,,,,,,,,,,,,,,,,,,,,,,,,,,,,,,,,,,,,,,,,,,,,,,
50713,1648953000.861294,1648953000.8983312,120.0,0.0,4241.538574,4520.0,4210.769043,4203.077147999999,4516.922852000001,450.0,3.0,73.0,,,,0.0,0.0,0.0,0.0,0.0,0.0,0.0,,,,,,,,60.0,0.0,0.584442,-0.114014,0.092041,0.798096,0.297856,-0.015137000000000001,-0.9668120000000001,0.0033299999999999996,-0.012569,-0.039118,,,,,,,,,,,,,,,,,,,,,,,,,,,,,,,,,,,,,,,,,,,,,,,,,,,,,,,,,,,,,,,,,
50714,1648953000.869108,1648953000.9062462,121.0,0.0,4484.102539,4523.077147999999,3951.281982,4437.436035,4548.717772999999,450.0,3.0,73.0,,,,0.0,0.0,0.0,0.0,0.0,0.0,0.0,,,,,,,,,,,,,,,,,,,,,,,,,,,,,,,,,,,,,,,,,,,,,,,,,,,,,,0.0,0.0,32.0,0.04256,1.0,0.0,,,,,,,,,,,,,,,,,,,,,,,,,
50715,1648953000.876923,1648953000.914161,122.0,1.0,4443.205078,4514.936035,3962.884521,4433.461426,4542.692383,450.0,3.0,73.0,,,,0.0,0.0,0.0,0.0,0.0,0.0,0.0,,,,,,,,61.0,1.0,0.584375,-0.114014,0.092041,0.798145,0.299321,-0.015235,-0.9696440000000001,0.003811,-0.012591,-0.039556,,,,,,,,,,,,,,,,,,,,,,,,,,,,,,,,,,,,,,,,,,,,,,,,,,,,,,,,,,,,,,,,,
50716,1648953000.884737,1648953000.921976,123.0,1.0,4402.307617,4506.794922,3974.487061,4429.487305,4536.666504,450.0,3.0,73.0,,,,0.0,0.0,0.0,0.0,0.0,0.0,0.0,,,,,,,,,,,,,,,,,,,,,,,,,,,,,,,,,,,,,,,,,,,,,,,,,,,,,,,,,,,,,,,,,,,,,,,,,,,,,,,,,,,,
50717,1648953000.892552,1648953000.929791,124.0,1.0,4361.410156,4498.653809,3986.0898439999996,4425.512695,4530.641113000001,450.0,3.0,73.0,,,,0.0,0.0,0.0,0.0,0.0,0.0,0.0,,,,,,,,62.0,1.0,0.584309,-0.114014,0.092041,0.798193,0.300786,-0.015332,-0.972476,0.004291,-0.012613,-0.039994999999999996,,,,,,,,,,,,,,,,,,,,,,,,,,,,,,,,,,,,,,,,,,,,,,,,,,,,,,,,,,,,,,,,,
50718,1648953000.900366,1648953000.937606,125.0,1.0,4320.512695,4490.512695,3997.6923829999996,4421.538574,4524.615234000001,450.0,3.0,73.0,,,,0.0,0.0,0.0,0.0,0.0,0.0,0.0,,,,,,,,,,,,,,,,,,,,,,,,,,,,,,,,,,,,,,,,,,,,,,,,,,,,,,0.0,0.0,32.0,0.04256,1.0,0.0,,,,,,,,,,,,,,,,,,,,,,,,,
50719,1648953000.908181,1648953000.945421,126.0,1.0,4279.615234000001,4482.371582,4009.294922,4417.563965,4518.589844,450.0,3.0,73.0,,,,0.0,0.0,0.0,0.0,0.0,0.0,0.0,,,,,,,,63.0,1.0,0.584242,-0.114014,0.092041,0.798242,0.30225100000000005,-0.015430000000000001,-0.975308,0.004771,-0.012634999999999999,-0.040433,,,,,,,,,,,,,,,,,,,,,,,,,,,,,,,,,,,,,,,,,,,,,,,,,,,,,,,,,,,,,,,,,
50720,1648953000.915995,1648953000.9532359,127.0,1.0,4238.717772999999,4474.230957,4020.897461,4413.589844,4512.563965,450.0,3.0,73.0,,,,0.0,0.0,0.0,0.0,0.0,0.0,0.0,,,,,,,,,,,,,,,,,,,,,,,,,,,,,,,,,,,,,,,,,,,,,,,,,,,,,,,,,,,,,,,,,,,,,,,,,,,,,,,,,,,,
50721,1648953000.92381,1648953000.961052,0.0,1.0,4197.820313,4466.089844,4032.5,4409.615234000001,4506.538574,450.0,3.0,73.0,,,,0.0,0.0,0.0,0.0,0.0,0.0,0.0,,,,,,,,0.0,1.0,0.584175,-0.114014,0.092041,0.798291,0.303716,-0.015528,-0.97814,0.005251,-0.012657,-0.040871,,,,,,,,,,,,,,,,,,,,,,,,,,,,,,,,,,,,,,,,,,,,,,,,,,,,,,,,,,,,,,,,,
50722,1648953000.931625,1648953000.968867,1.0,0.0,4156.922852000001,4457.94873,4044.102539,4405.641113000001,4500.512695,450.0,3.0,73.0,,,,0.0,0.0,0.0,0.0,0.0,0.0,0.0,0.972656,0.0,0.0,0.0,0.0,0.0,0.0,,,,,,,,,,,,,1.0,0.0,0.0,,,,,,,,,,,,,,,,,,,,,,,,,,,,,,,,0.0,0.0,32.0,0.043571,1.0,0.0,54.183975,59.481815000000005,17.871929,868.13855,245.068359,393.47796600000004,109.966179,110.262657,172.402145,59.739433,2062.10376,473.76031500000005,251.773895,260.37088,152.58196999999998,43.024147,60.400414000000005,17.632908,772.557861,178.671951,32.476337,91.485764,69.820801,966.3193970000001,256.372223
50723,1648953000.939439,1648953000.976682,2.0,0.0,4466.153809,4589.230957,3954.8718259999996,4636.410156,4786.153809,0.0,3.0,73.0,,,,0.0,0.0,0.0,0.0,0.0,0.0,0.0,,,,,,,,1.0,0.0,0.584109,-0.114014,0.092041,0.7983399999999999,0.30518,-0.015625,-0.980972,0.005732,-0.012679000000000001,-0.04131,,,,,,,,,,,,,,,,,,,,,,,,,,,,,,,,,,,,,,,,,,,,,,,,,,,,,,,,,,,,,,,,,
50724,1648953000.947254,1648953000.984497,3.0,0.0,4420.0,4678.461426,4234.358886999999,4518.974121,4457.94873,450.0,3.0,73.0,,,,0.0,0.0,0.0,0.0,0.0,0.0,0.0,,,,,,,,,,,,,,,,,,,,,,,,,,,,,,,,,,,,,,,,,,,,,,,,,,,,,,,,,,,,,,,,,,,,,,,,,,,,,,,,,,,,
50725,1648953000.9550679,1648953000.992312,4.0,0.0,4277.94873,4671.282227000001,4595.897461,4076.923096,4204.615234000001,0.0,3.0,73.0,,,,0.0,0.0,0.0,0.0,0.0,0.0,0.0,,,,,,,,2.0,0.0,0.584109,-0.114014,0.092041,0.7983399999999999,0.299809,-0.011231,-0.963882,0.002424,-0.01273,-0.037032,,,,,,,,,,,,,,,,,,,,,,,,,,,,,,,,,,,,,,,,,,,,,,,,,,,,,,,,,,,,,,,,,
50726,1648953000.962883,1648953001.0001268,5.0,0.0,4153.846191,4688.717772999999,4426.153809,3998.461426,4406.666504,450.0,3.0,73.0,,,,0.0,0.0,0.0,0.0,0.0,0.0,0.0,,,,,,,,,,,,,,,,,,,,,,,,,,,,,,,,,,,,,,,,,,,,,,,,,,,,,,0.0,0.0,32.0,0.043571,1.0,0.0,,,,,,,,,,,,,,,,,,,,,,,,,
50727,1648953000.970698,1648953001.007942,6.0,0.0,4233.333496,4727.692383,4146.153809,4344.102539,4506.153809,0.0,3.0,73.0,,,,0.0,0.0,0.0,0.0,0.0,0.0,0.0,,,,,,,,3.0,0.0,0.584109,-0.114014,0.092041,0.7983399999999999,0.291508,-0.015137000000000001,-0.987808,0.001889,-0.012824,-0.033231000000000004,,,,,,,,,,,,,,,,,,,,,,,,,,,,,,,,,,,,,,,,,,,,,,,,,,,,,,,,,,,,,,,,,
50728,1648953000.9785118,1648953001.015657,7.0,0.0,4512.307617,4633.333496,4373.333496,4550.769043,4334.871582,450.0,3.0,73.0,,,,0.0,0.0,0.0,0.0,0.0,0.0,0.0,,,,,,,,,,,,,,,,,,,,,,,,,,,,,,,,,,,,,,,,,,,,,,,,,,,,,,,,,,,,,,,,,,,,,,,,,,,,,,,,,,,,
50729,1648953000.986327,1648953001.023371,8.0,0.0,4486.666504,4368.205078,4540.0,4393.846191,4143.589844,450.0,3.0,73.0,,,,0.0,0.0,0.0,0.0,0.0,0.0,0.0,,,,,,,,4.0,0.0,0.584156,-0.11377000000000001,0.092041,0.7983399999999999,0.29102,-0.013672,-0.9922030000000001,0.0044340000000000004,-0.012616,-0.035914,,,,,,,,,,,,,,,,,,,,,,,,,,,,,,,,,,,,,,,,,,,,,,,,,,,,,,,,,,,,,,,,,
50730,1648953000.994141,1648953001.031086,9.0,0.0,4204.102539,4251.282227000001,4357.94873,4106.153809,4084.102539,0.0,3.0,73.0,,,,0.0,0.0,0.0,0.0,0.0,0.0,0.0,,,,,,,,,,,,,,,,,,,,,,,,,,,,,,,,,,,,,,,,,,,,,,,,,,,,,,0.0,0.0,32.0,0.043571,1.0,0.0,,,,,,,,,,,,,,,,,,,,,,,,,
50731,1648953001.001956,1648953001.0388,10.0,0.0,4096.410156,4419.487305,4265.641113000001,4034.8718259999996,4152.307617,450.0,3.0,73.0,,,,0.0,0.0,0.0,0.0,0.0,0.0,0.0,,,,,,,,5.0,0.0,0.584156,-0.11377000000000001,0.092041,0.7983399999999999,0.286625,-0.015137000000000001,-0.973159,0.00443,-0.012673,-0.038426,,,,,,,,,,,,,,,,,,,,,,,,,,,,,,,,,,,,,,,,,,,,,,,,,,,,,,,,,,,,,,,,,
50732,1648953001.00977,1648953001.0466142,11.0,0.0,4292.820313,4538.974121,4188.717772999999,4326.666504,4433.333496,29.0,3.0,73.0,,,,0.0,0.0,0.0,0.0,0.0,0.0,0.0,,,,,,,,,,,,,,,,,,,,,,,,,,,,,,,,,,,,,,,,,,,,,,,,,,,,,,,,,,,,,,,,,,,,,,,,,,,,,,,,,,,,
50733,1648953001.017585,1648953001.0544288,12.0,0.0,4444.102539,4509.743652,3908.718018,4437.436035,4572.307617,450.0,3.0,73.0,,,,0.0,0.0,0.0,0.0,0.0,0.0,0.0,,,,,,,,6.0,0.0,0.584109,-0.114014,0.092041,0.7983399999999999,0.291508,-0.015137000000000001,-0.987808,0.0039380000000000005,-0.012773,-0.040833999999999995,,,,,,,,,,,,,,,,,,,,,,,,,,,,,,,,,,,,,,,,,,,,,,,,,,,,,,,,,,,,,,,,,
50734,1648953001.025399,1648953001.062143,13.0,0.0,4398.461426,4600.512695,4028.718018,4219.487305,4325.128418,450.0,3.0,73.0,,,,0.0,0.0,0.0,0.0,0.0,0.0,0.0,,,,,,,,,,,,,,,,,,,,,,,,,,,,,,,,,,,,,,,,,,,,,,,,,,,,,,0.0,0.0,32.0,0.043571,1.0,0.0,,,,,,,,,,,,,,,,,,,,,,,,,
50735,1648953001.033214,1648953001.069958,14.0,0.0,4220.0,4787.692383,4568.717772999999,4021.538574,4144.615234000001,450.0,3.0,73.0,,,,0.0,0.0,0.0,0.0,0.0,0.0,0.0,,,,,,,,7.0,0.0,0.584156,-0.11377000000000001,0.092041,0.7983399999999999,0.286625,-0.015137000000000001,-0.973159,0.0039840000000000006,-0.012813999999999999,-0.042854,,,,,,,,,,,,,,,,,,,,,,,,,,,,,,,,,,,,,,,,,,,,,,,,,,,,,,,,,,,,,,,,,
50736,1648953001.041028,1648953001.077672,15.0,0.0,4277.94873,4700.0,4593.846191,4237.436035,4373.846191,29.0,3.0,73.0,,,,0.0,0.0,0.0,0.0,0.0,0.0,0.0,,,,,,,,,,,,,,,,,,,,,,,,,,,,,,,,,,,,,,,,,,,,,,,,,,,,,,,,,,,,,,,,,,,,,,,,,,,,,,,,,,,,
50737,1648953001.048843,1648953001.085487,16.0,0.0,4514.358886999999,4500.0,4417.436035,4466.153809,4580.0,0.0,3.0,73.0,,,,0.0,0.0,0.0,0.0,0.0,0.0,0.0,,,,,,,,8.0,0.0,0.584195,-0.11377000000000001,0.091797,0.7983399999999999,0.29443800000000003,-0.019532,-0.978042,0.004074,-0.012851,-0.038325,,,,,,,,,,,,,,,,,,,,,,,,,,,,,,,,,,,,,,,,,,,,,,,,,,,,,,,,,,,,,,,,,
50738,1648953001.056657,1648953001.093201,17.0,0.0,4545.641113000001,4568.717772999999,4385.128418,4293.846191,4442.563965,0.0,3.0,73.0,,,,0.0,0.0,0.0,0.0,0.0,0.0,0.0,,,,,,,,,,,,,,,,,,,,1.0,0.0,0.0,,,,,,,,,,,,,,,,,,,,,,,,,,,,,,,,0.0,0.0,32.0,0.040691000000000005,1.0,0.0,48.352638,62.308079000000006,9.251515,794.6034549999999,309.63388100000003,374.636017,99.555656,177.884247,175.902512,60.112598,1931.90564,548.7021480000001,297.56280499999997,278.878357,173.18682900000002,49.517047999999996,63.907306999999996,25.423107,669.5469969999999,215.851578,41.690792,92.92894,70.14856,859.824036,315.231812
50739,1648953001.064472,1648953001.101016,18.0,0.0,4332.820313,4738.974121,4044.102539,4080.0,4109.743652,0.0,3.0,73.0,,,,0.0,0.0,0.0,0.0,0.0,0.0,0.0,,,,,,,,9.0,0.0,0.584195,-0.11377000000000001,0.091797,0.7983399999999999,0.287602,-0.01709,-0.9834129999999999,0.004057,-0.012738,-0.040547,,,,,,,,,,,,,,,,,,,,,,,,,,,,,,,,,,,,,,,,,,,,,,,,,,,,,,,,,,,,,,,,,
50740,1648953001.072286,1648953001.10873,19.0,0.0,4211.794922,4750.769043,3871.281982,4252.820313,4096.922852000001,0.0,3.0,73.0,,,,0.0,0.0,0.0,0.0,0.0,0.0,0.0,,,,,,,,,,,,,,,,,,,,,,,,,,,,,,,,,,,,,,,,,,,,,,,,,,,,,,,,,,,,,,,,,,,,,,,,,,,,,,,,,,,,
50741,1648953001.080101,1648953001.116545,20.0,0.0,4458.974121,4687.179688,4250.256348,4546.666504,4344.102539,0.0,3.0,73.0,,,,0.0,0.0,0.0,0.0,0.0,0.0,0.0,,,,,,,,10.0,0.0,0.584195,-0.11377000000000001,0.091797,0.7983399999999999,0.295415,-0.023926,-0.9897610000000001,0.004091,-0.012782,-0.042595999999999995,,,,,,,,,,,,,,,,,,,,,,,,,,,,,,,,,,,,,,,,,,,,,,,,,,,,,,,,,,,,,,,,,
50742,1648953001.087916,1648953001.124259,21.0,0.0,4772.307617,4629.230957,4356.410156,4540.512695,4326.666504,0.0,3.0,73.0,,,,0.0,0.0,0.0,0.0,0.0,0.0,0.0,,,,,,,,,,,,,,,,,,,,,,,,,,,,,,,,,,,,,,,,,,,,,,,,,,,,,,0.0,0.0,32.0,0.040691000000000005,1.0,0.0,,,,,,,,,,,,,,,,,,,,,,,,,
50743,1648953001.09573,1648953001.1320732,22.0,0.0,4581.025879,4495.897461,4190.769043,4292.307617,4147.179688,0.0,3.0,73.0,,,,0.0,0.0,0.0,0.0,0.0,0.0,0.0,,,,,,,,11.0,0.0,0.584195,-0.11377000000000001,0.091797,0.7983399999999999,0.310552,-0.007812999999999999,-0.968765,0.006465,-0.012773999999999999,-0.044489,,,,,,,,,,,,,,,,,,,,,,,,,,,,,,,,,,,,,,,,,,,,,,,,,,,,,,,,,,,,,,,,,
50744,1648953001.103545,1648953001.1397882,23.0,0.0,4095.897461,4384.615234000001,4249.743652,4100.512695,4188.205078,0.0,3.0,73.0,,,,0.0,0.0,0.0,0.0,0.0,0.0,0.0,,,,,,,,,,,,,,,,,,,,,,,,,,,,,,,,,,,,,,,,,,,,,,,,,,,,,,,,,,,,,,,,,,,,,,,,,,,,,,,,,,,,
50745,1648953001.111359,1648953001.1476018,24.0,0.0,4006.1538090000004,4369.230957,4315.384765999999,4270.769043,4440.512695,0.0,3.0,73.0,,,,0.0,0.0,0.0,0.0,0.0,0.0,0.0,,,,,,,,12.0,0.0,0.584195,-0.11377000000000001,0.091797,0.7983399999999999,0.300786,-0.014649,-0.984878,0.0063560000000000005,-0.012668,-0.046192000000000004,,,,,,,,,,,,,,,,,,,,,,,,,,,,,,,,,,,,,,,,,,,,,,,,,,,,,,,,,,,,,,,,,
50746,1648953001.119174,1648953001.155317,25.0,0.0,4314.871582,4432.820313,4222.05127,4562.563965,4709.743652,0.0,3.0,73.0,,,,0.0,0.0,0.0,0.0,0.0,0.0,0.0,,,,,,,,,,,,,,,,,,,,,,,,,,,,,,,,,,,,,,,,,,,,,,,,,,,,,,0.0,0.0,32.0,0.040691000000000005,1.0,0.0,,,,,,,,,,,,,,,,,,,,,,,,,
50747,1648953001.1269891,1648953001.163031,26.0,0.0,4549.230957,4607.692383,4006.1538090000004,4549.230957,4713.333496,0.0,3.0,73.0,,,,0.0,0.0,0.0,0.0,0.0,0.0,0.0,,,,,,,,13.0,0.0,0.584109,-0.114014,0.092041,0.7983399999999999,0.314458,-0.015137000000000001,-0.965347,0.0061600000000000005,-0.01272,-0.041378,,,,,,,,,,,,,,,,,,,,,,,,,,,,,,,,,,,,,,,,,,,,,,,,,,,,,,,,,,,,,,,,,
50748,1648953001.1348028,1648953001.170746,27.0,0.0,4431.282227000001,4795.897461,3949.2307130000004,4267.692383,4189.743652,0.0,3.0,73.0,,,,0.0,0.0,0.0,0.0,0.0,0.0,0.0,,,,,,,,,,,,,,,,,,,,,,,,,,,,,,,,,,,,,,,,,,,,,,,,,,,,,,,,,,,,,,,,,,,,,,,,,,,,,,,,,,,,
50749,1648953001.142618,1648953001.178561,28.0,0.0,4135.897461,4840.0,4280.512695,4137.436035,4005.1281740000004,0.0,3.0,73.0,,,,0.0,0.0,0.0,0.0,0.0,0.0,0.0,,,,,,,,14.0,0.0,0.584109,-0.114014,0.092041,0.7983399999999999,0.31250500000000003,-0.011719,-0.9824370000000001,0.006032,-0.012717000000000001,-0.043441,,,,,,,,,,,,,,,,,,,,,,,,,,,,,,,,,,,,,,,,,,,,,,,,,,,,,,,,,,,,,,,,,
50750,1648953001.150432,1648953001.186275,29.0,0.0,4136.410156,4783.077147999999,4378.461426,4314.871582,4421.025879,0.0,3.0,73.0,,,,0.0,0.0,0.0,0.0,0.0,0.0,0.0,,,,,,,,,,,,,,,,,,,,,,,,,,,,,,,,,,,,,,,,,,,,,,,,,,,,,,0.0,0.0,32.0,0.040691000000000005,1.0,0.0,,,,,,,,,,,,,,,,,,,,,,,,,
50751,1648953001.158247,1648953001.1940901,30.0,0.0,4523.589844,4694.871582,4231.794922,4549.743652,4597.94873,0.0,3.0,73.0,,,,0.0,0.0,0.0,0.0,0.0,0.0,0.0,,,,,,,,15.0,0.0,0.584109,-0.114014,0.092041,0.7983399999999999,0.304692,-0.016114,-0.9741360000000001,0.002792,-0.01291,-0.038999,,,,,,,,,,,,,,,,,,,,,,,,,,,,,,,,,,,,,,,,,,,,,,,,,,,,,,,,,,,,,,,,,
50752,1648953001.166061,1648953001.201804,31.0,0.0,4499.487305,4470.256348,4434.358886999999,4467.692383,4327.179688,0.0,3.0,73.0,,,,0.0,0.0,0.0,0.0,0.0,0.0,0.0,,,,,,,,,,,,,,,,,,,,,,,,,,,,,,,,,,,,,,,,,,,,,,,,,,,,,,,,,,,,,,,,,,,,,,,,,,,,,,,,,,,,
50753,1648953001.173876,1648953001.209619,32.0,0.0,4189.743652,4278.974121,4520.512695,4237.436035,4128.205078,0.0,3.0,73.0,,,,0.0,0.0,0.0,0.0,0.0,0.0,0.0,,,,,,,,16.0,0.0,0.584109,-0.114014,0.092041,0.7983399999999999,0.291997,-0.016114,-0.972183,0.0029519999999999998,-0.012889,-0.041203,,,,,,,,,,,,,,,,,,,,,,,,,,,,,,,,,,,,,,,,,,,,,,,,,,,,,,,,,,,,,,,,,
50754,1648953001.18169,1648953001.217333,33.0,0.0,4132.307617,4356.410156,4309.743652,4160.0,4190.769043,0.0,3.0,73.0,,,,0.0,0.0,0.0,0.0,0.0,0.0,0.0,,,,,,,,,,,,,,,,,,,,1.0,0.0,0.0,,,,,,,,,,,,,,,,,,,,,,,,,,,,,,,,0.0,0.0,32.0,0.04609,1.0,0.0,41.461926,62.948085999999996,4.2820730000000005,675.280396,381.584106,335.94696,100.366096,262.992126,176.011627,62.822384,1687.68811,598.835754,400.39935299999996,323.355896,204.874802,57.851978,66.923058,37.823741999999996,542.5676269999999,258.166901,54.61176700000001,92.03954300000001,68.45630600000001,708.9423830000001,373.503815
50755,1648953001.189505,1648953001.225148,34.0,0.0,4331.282227000001,4463.077147999999,4178.974121,4290.769043,4427.179688,0.0,3.0,73.0,,,,0.0,0.0,0.0,0.0,0.0,0.0,0.0,,,,,,,,17.0,0.0,0.584109,-0.114014,0.092041,0.7983399999999999,0.286137,-0.010254000000000001,-0.9707180000000001,0.003145,-0.01287,-0.043283999999999996,,,,,,,,,,,,,,,,,,,,,,,,,,,,,,,,,,,,,,,,,,,,,,,,,,,,,,,,,,,,,,,,,
50756,1648953001.197319,1648953001.232862,35.0,0.0,4513.846191,4487.692383,4058.461426,4329.230957,4534.871582,0.0,3.0,73.0,,,,0.0,0.0,0.0,0.0,0.0,0.0,0.0,,,,,,,,,,,,,,,,,,,,,,,,,,,,,,,,,,,,,,,,,,,,,,,,,,,,,,,,,,,,,,,,,,,,,,,,,,,,,,,,,,,,
50757,1648953001.205134,1648953001.240676,36.0,0.0,4502.05127,4612.307617,3995.897461,4193.846191,4392.820313,0.0,3.0,73.0,,,,0.0,0.0,0.0,0.0,0.0,0.0,0.0,,,,,,,,18.0,0.0,0.584147,-0.114014,0.091797,0.7983399999999999,0.289555,-0.010254000000000001,-0.9824370000000001,0.002489,-0.012901,-0.045107999999999995,,,,,,,,,,,,,,,,,,,,,,,,,,,,,,,,,,,,,,,,,,,,,,,,,,,,,,,,,,,,,,,,,
50758,1648953001.212948,1648953001.248391,37.0,0.0,4285.128418,4721.538574,4037.9487299999996,4115.897461,4165.641113000001,0.0,3.0,73.0,,,,0.0,0.0,0.0,0.0,0.0,0.0,0.0,,,,,,,,,,,,,,,,,,,,,,,,,,,,,,,,,,,,,,,,,,,,,,,,,,,,,,0.0,0.0,32.0,0.04609,1.0,0.0,,,,,,,,,,,,,,,,,,,,,,,,,
50759,1648953001.220763,1648953001.256205,38.0,0.0,4111.282227000001,4656.922852000001,3963.076904,4227.179688,4128.205078,0.0,3.0,73.0,,,,0.0,0.0,0.0,0.0,0.0,0.0,0.0,,,,,,,,19.0,0.0,0.584147,-0.114014,0.091797,0.7983399999999999,0.300298,-0.022461000000000002,-0.9785309999999999,0.005072,-0.012978,-0.046652,,,,,,,,,,,,,,,,,,,,,,,,,,,,,,,,,,,,,,,,,,,,,,,,,,,,,,,,,,,,,,,,,
50760,1648953001.2285779,1648953001.2639198,39.0,0.0,4342.563965,4623.589844,4021.025635,4466.666504,4353.333496,0.0,3.0,73.0,,,,0.0,0.0,0.0,0.0,0.0,0.0,0.0,,,,,,,,,,,,,,,,,,,,,,,,,,,,,,,,,,,,,,,,,,,,,,,,,,,,,,,,,,,,,,,,,,,,,,,,,,,,,,,,,,,,
50761,1648953001.236392,1648953001.271734,40.0,0.0,4750.769043,4673.846191,4216.410156,4558.461426,4428.205078,0.0,3.0,73.0,,,,0.0,0.0,0.0,0.0,0.0,0.0,0.0,,,,,,,,20.0,0.0,0.584109,-0.114014,0.092041,0.7983399999999999,0.295415,-0.015137000000000001,-0.965347,0.005004,-0.01295,-0.048188,,,,,,,,,,,,,,,,,,,,,,,,,,,,,,,,,,,,,,,,,,,,,,,,,,,,,,,,,,,,,,,,,
50762,1648953001.2442071,1648953001.279449,41.0,0.0,4689.743652,4574.871582,4267.692383,4395.897461,4239.487305,0.0,3.0,73.0,,,,0.0,0.0,0.0,0.0,0.0,0.0,0.0,,,,,,,,,,,,,,,,,,,,,,,,,,,,,,,,,,,,,,,,,,,,,,,,,,,,,,0.0,0.0,32.0,0.04609,1.0,0.0,,,,,,,,,,,,,,,,,,,,,,,,,
50763,1648953001.252021,1648953001.2872632,42.0,0.0,4151.282227000001,4442.563965,4307.179688,4106.666504,4153.333496,0.0,3.0,73.0,,,,0.0,0.0,0.0,0.0,0.0,0.0,0.0,,,,,,,,21.0,0.0,0.584109,-0.114014,0.092041,0.7983399999999999,0.306645,-0.021973,-0.9824370000000001,0.0017699999999999999,-0.012924000000000001,-0.043272000000000005,,,,,,,,,,,,,,,,,,,,,,,,,,,,,,,,,,,,,,,,,,,,,,,,,,,,,,,,,,,,,,,,,
50764,1648953001.259836,1648953001.294978,43.0,0.0,3967.179443,4464.615234000001,4348.717772999999,4150.256348,4396.922852000001,0.0,3.0,73.0,,,,0.0,0.0,0.0,0.0,0.0,0.0,0.0,,,,,,,,,,,,,,,,,,,,,,,,,,,,,,,,,,,,,,,,,,,,,,,,,,,,,,,,,,,,,,,,,,,,,,,,,,,,,,,,,,,,
50765,1648953001.26765,1648953001.302792,44.0,0.0,4282.563965,4468.205078,4245.641113000001,4523.589844,4638.974121,0.0,3.0,73.0,,,,0.0,0.0,0.0,0.0,0.0,0.0,0.0,,,,,,,,22.0,0.0,0.584147,-0.114014,0.091797,0.7983399999999999,0.294926,-0.011231,-0.976577,0.001983,-0.012999,-0.044999000000000004,,,,,,,,,,,,,,,,,,,,,,,,,,,,,,,,,,,,,,,,,,,,,,,,,,,,,,,,,,,,,,,,,
50766,1648953001.275465,1648953001.310507,45.0,0.0,4536.410156,4504.102539,4036.923096,4637.94873,4607.692383,0.0,3.0,73.0,,,,0.0,0.0,0.0,0.0,0.0,0.0,0.0,,,,,,,,,,,,,,,,,,,,,,,,,,,,,,,,,,,,,,,,,,,,,,,,,,,,,,0.0,0.0,32.0,0.04609,1.0,0.0,,,,,,,,,,,,,,,,,,,,,,,,,
50767,1648953001.2832801,1648953001.318221,46.0,0.0,4470.769043,4751.794922,3934.358887,4257.436035,4214.358886999999,0.0,3.0,73.0,,,,0.0,0.0,0.0,0.0,0.0,0.0,0.0,,,,,,,,23.0,0.0,0.584147,-0.114014,0.091797,0.7983399999999999,0.301274,-0.015625,-0.980972,-0.000901,-0.012871,-0.040451,,,,,,,,,,,,,,,,,,,,,,,,,,,,,,,,,,,,,,,,,,,,,,,,,,,,,,,,,,,,,,,,,
50768,1648953001.2910938,1648953001.326036,47.0,0.0,4230.256348,4848.717772999999,4199.487305,4063.076904,4053.8461909999996,0.0,3.0,73.0,,,,0.0,0.0,0.0,0.0,0.0,0.0,0.0,,,,,,,,,,,,,,,,,,,,,,,,,,,,,,,,,,,,,,,,,,,,,,,,,,,,,,,,,,,,,,,,,,,,,,,,,,,,,,,,,,,,
50769,1648953001.298909,1648953001.333751,48.0,0.0,4171.794922,4645.641113000001,4433.846191,4329.230957,4372.307617,0.0,3.0,73.0,,,,0.0,0.0,0.0,0.0,0.0,0.0,0.0,,,,,,,,24.0,0.0,0.584147,-0.114014,0.091797,0.7983399999999999,0.29395,-0.013184,-0.972183,-0.00027400000000000005,-0.012950999999999999,-0.042460000000000005,,,,,,,,,,,,,,,,,,,,,,,,,,,,,,,,,,,,,,,,,,,,,,,,,,,,,,,,,,,,,,,,,
50770,1648953001.306723,1648953001.3415651,49.0,0.0,4503.077147999999,4550.256348,4326.666504,4556.410156,4587.179688,0.0,3.0,73.0,,,,0.0,0.0,0.0,0.0,0.0,0.0,0.0,,,,,,,,,,,,,,,,,,,,1.0,0.0,0.0,,,,,,,,,,,,,,,,,,,,,,,,,,,,,,,,0.0,0.0,32.0,0.066397,1.0,0.0,34.708447,61.46150600000001,2.969907,532.324768,447.88226299999997,281.907715,107.947281,349.596466,173.013916,66.954651,1371.338989,610.0880129999999,545.769958,382.623688,242.431,69.73653399999999,69.497948,52.281158000000005,411.756012,301.862122,76.394363,91.542824,66.943474,539.565979,422.715912
50771,1648953001.314538,1648953001.349279,50.0,0.0,4538.974121,4493.333496,4396.922852000001,4430.256348,4413.333496,0.0,3.0,73.0,,,,0.0,0.0,0.0,0.0,0.0,0.0,0.0,,,,,,,,25.0,0.0,0.584147,-0.114014,0.091797,0.7983399999999999,0.29688000000000003,-0.030274000000000002,-0.983902,0.000193,-0.012925999999999998,-0.044367000000000004,,,,,,,,,,,,,,,,,,,,,,,,,,,,,,,,,,,,,,,,,,,,,,,,,,,,,,,,,,,,,,,,,
50772,1648953001.322352,1648953001.357094,51.0,0.0,4216.410156,4322.563965,4527.179688,4262.05127,4157.436035,0.0,3.0,73.0,,,,0.0,0.0,0.0,0.0,0.0,0.0,0.0,,,,,,,,,,,,,,,,,,,,,,,,,,,,,,,,,,,,,,,,,,,,,,,,,,,,,,,,,,,,,,,,,,,,,,,,,,,,,,,,,,,,
50773,1648953001.330167,1648953001.364808,52.0,0.0,4098.974121,4345.128418,4458.461426,4220.0,4123.077147999999,0.0,3.0,73.0,,,,0.0,0.0,0.0,0.0,0.0,0.0,0.0,,,,,,,,26.0,0.0,0.584147,-0.114014,0.091797,0.7983399999999999,0.303716,-0.002441,-0.980484,-0.000168,-0.012903,-0.039881,,,,,,,,,,,,,,,,,,,,,,,,,,,,,,,,,,,,,,,,,,,,,,,,,,,,,,,,,,,,,,,,,
50774,1648953001.337981,1648953001.372623,53.0,0.0,4285.641113000001,4516.410156,4265.641113000001,4264.102539,4398.461426,0.0,3.0,73.0,,,,0.0,0.0,0.0,0.0,0.0,0.0,0.0,,,,,,,,,,,,,,,,,,,,,,,,,,,,,,,,,,,,,,,,,,,,,,,,,,,,,,0.0,0.0,32.0,0.066397,1.0,0.0,,,,,,,,,,,,,,,,,,,,,,,,,
50775,1648953001.345796,1648953001.380337,54.0,0.0,4497.436035,4595.897461,4067.6923829999996,4311.794922,4567.179688,0.0,3.0,73.0,,,,0.0,0.0,0.0,0.0,0.0,0.0,0.0,,,,,,,,27.0,0.0,0.584147,-0.114014,0.091797,0.7983399999999999,0.302739,-0.010254000000000001,-0.980484,-0.002885,-0.012882,-0.035795,,,,,,,,,,,,,,,,,,,,,,,,,,,,,,,,,,,,,,,,,,,,,,,,,,,,,,,,,,,,,,,,,
50776,1648953001.35361,1648953001.388152,55.0,0.0,4432.307617,4691.282227000001,4066.1538090000004,4231.794922,4350.769043,0.0,3.0,73.0,,,,0.0,0.0,0.0,0.0,0.0,0.0,0.0,,,,,,,,,,,,,,,,,,,,,,,,,,,,,,,,,,,,,,,,,,,,,,,,,,,,,,,,,,,,,,,,,,,,,,,,,,,,,,,,,,,,
50777,1648953001.361425,1648953001.395866,56.0,0.0,4197.94873,4827.692383,4184.615234000001,4124.615234000001,4165.128418,0.0,3.0,73.0,,,,0.0,0.0,0.0,0.0,0.0,0.0,0.0,,,,,,,,28.0,0.0,0.584147,-0.114014,0.091797,0.7983399999999999,0.292485,-0.009276999999999999,-0.992691,-0.002109,-0.012766,-0.038368,,,,,,,,,,,,,,,,,,,,,,,,,,,,,,,,,,,,,,,,,,,,,,,,,,,,,,,,,,,,,,,,,
50778,1648953001.369239,1648953001.403681,57.0,0.0,4162.563965,4823.077147999999,4132.307617,4171.282227000001,4230.256348,0.0,3.0,73.0,,,,0.0,0.0,0.0,0.0,0.0,0.0,0.0,,,,,,,,,,,,,,,,,,,,,,,,,,,,,,,,,,,,,,,,,,,,,,,,,,,,,,0.0,0.0,32.0,0.066397,1.0,0.0,,,,,,,,,,,,,,,,,,,,,,,,,
50779,1648953001.377054,1648953001.4113948,58.0,0.0,4429.230957,4648.717772999999,4253.333496,4462.563965,4343.077147999999,0.0,3.0,73.0,,,,0.0,0.0,0.0,0.0,0.0,0.0,0.0,,,,,,,,29.0,0.0,0.584147,-0.114014,0.091797,0.7983399999999999,0.31006300000000003,-0.015625,-0.9863430000000001,-0.001507,-0.012856,-0.040635000000000004,,,,,,,,,,,,,,,,,,,,,,,,,,,,,,,,,,,,,,,,,,,,,,,,,,,,,,,,,,,,,,,,,
50780,1648953001.3848689,1648953001.41921,59.0,0.0,4606.666504,4457.94873,4550.769043,4545.128418,4250.769043,0.0,3.0,73.0,,,,0.0,0.0,0.0,0.0,0.0,0.0,0.0,,,,,,,,,,,,,,,,,,,,,,,,,,,,,,,,,,,,,,,,,,,,,,,,,,,,,,,,,,,,,,,,,,,,,,,,,,,,,,,,,,,,
50781,1648953001.392683,1648953001.426924,60.0,0.0,4481.025879,4441.538574,4333.846191,4276.410156,4109.230957,0.0,3.0,73.0,,,,0.0,0.0,0.0,0.0,0.0,0.0,0.0,,,,,,,,30.0,0.0,0.584147,-0.114014,0.091797,0.7983399999999999,0.31201599999999996,-0.025391,-0.976577,-0.0040420000000000005,-0.01284,-0.036474,,,,,,,,,,,,,,,,,,,,,,,,,,,,,,,,,,,,,,,,,,,,,,,,,,,,,,,,,,,,,,,,,
50782,1648953001.4004982,1648953001.4347382,61.0,0.0,4125.128418,4501.025879,4062.0512700000004,4082.5642090000006,4104.102539,0.0,3.0,73.0,,,,0.0,0.0,0.0,0.0,0.0,0.0,0.0,,,,,,,,,,,,,,,,,,,,,,,,,,,,,,,,,,,,,,,,,,,,,,,,,,,,,,0.0,0.0,32.0,0.066397,1.0,0.0,,,,,,,,,,,,,,,,,,,,,,,,,
50783,1648953001.4083118,1648953001.442453,62.0,0.0,4061.538574,4486.153809,4172.307617,4270.769043,4382.05127,0.0,3.0,73.0,,,,0.0,0.0,0.0,0.0,0.0,0.0,0.0,,,,,,,,31.0,0.0,0.584147,-0.114014,0.091797,0.7983399999999999,0.298833,-0.015137000000000001,-0.9785309999999999,-0.00398,-0.012728,-0.03893,,,,,,,,,,,,,,,,,,,,,,,,,,,,,,,,,,,,,,,,,,,,,,,,,,,,,,,,,,,,,,,,,
50784,1648953001.416127,1648953001.450168,63.0,0.0,4363.589844,4562.05127,3988.718018,4543.589844,4598.461426,0.0,3.0,73.0,,,,0.0,0.0,0.0,0.0,0.0,0.0,0.0,,,,,,,,,,,,,,,,,,,,,,,,,,,,,,,,,,,,,,,,,,,,,,,,,,,,,,,,,,,,,,,,,,,,,,,,,,,,,,,,,,,,
50785,1648953001.423941,1648953001.457982,64.0,0.0,4538.974121,4676.410156,3918.974365,4517.436035,4441.025879,450.0,3.0,73.0,,,,0.0,0.0,0.0,0.0,0.0,0.0,0.0,,,,,,,,32.0,0.0,0.584109,-0.114014,0.092041,0.7983399999999999,0.314946,-0.013672,-0.9716950000000001,-0.0008470000000000001,-0.012676,-0.041092000000000004,,,,,,,,,,,,,,,,,,,,,,,,,,,,,,,,,,,,,,,,,,,,,,,,,,,,,,,,,,,,,,,,,
50786,1648953001.431756,1648953001.465697,65.0,0.0,4373.846191,4660.0,4521.538574,4151.794922,4171.794922,450.0,3.0,73.0,,,,0.0,0.0,0.0,0.0,0.0,0.0,0.0,0.972656,0.0,0.0,0.0,0.0,0.0,0.0,,,,,,,,,,,,,1.0,0.0,0.0,,,,,,,,,,,,,,,,,,,,,,,,,,,,,,,,0.0,0.0,32.0,0.063726,1.0,0.0,30.538837,59.277962,4.6633,392.534393,493.490051,222.840652,122.4356,424.827118,168.339355,70.528915,1046.923828,582.620789,700.8275150000001,438.04907199999997,276.985535,86.838837,70.98054499999999,65.064903,297.996429,340.423157,109.98577900000001,96.606392,70.4832,381.250671,454.44485499999996
50787,1648953001.4395711,1648953001.473512,66.0,0.0,4252.307617,4611.794922,4791.794922,4038.974365,4265.641113000001,0.0,3.0,73.0,,,,0.0,0.0,0.0,0.0,0.0,0.0,0.0,,,,,,,,33.0,0.0,0.584147,-0.114014,0.091797,0.7983399999999999,0.290044,-0.0063479999999999995,-0.9824370000000001,-0.000225,-0.012824,-0.043037,,,,,,,,,,,,,,,,,,,,,,,,,,,,,,,,,,,,,,,,,,,,,,,,,,,,,,,,,,,,,,,,,
50788,1648953001.447385,1648953001.4813259,67.0,0.0,4364.102539,4536.922852000001,4409.743652,4284.615234000001,4559.487305,450.0,3.0,73.0,,,,0.0,0.0,0.0,0.0,0.0,0.0,0.0,,,,,,,,,,,,,,,,,,,,,,,,,,,,,,,,,,,,,,,,,,,,,,,,,,,,,,,,,,,,,,,,,,,,,,,,,,,,,,,,,,,,
50789,1648953001.4552,1648953001.489041,68.0,0.0,4541.538574,4460.0,4157.436035,4356.410156,4538.974121,0.0,3.0,73.0,,,,0.0,0.0,0.0,0.0,0.0,0.0,0.0,,,,,,,,34.0,0.0,0.584147,-0.114014,0.091797,0.7983399999999999,0.298833,-0.015137000000000001,-0.9785309999999999,0.002629,-0.012763,-0.044837,,,,,,,,,,,,,,,,,,,,,,,,,,,,,,,,,,,,,,,,,,,,,,,,,,,,,,,,,,,,,,,,,
50790,1648953001.4630141,1648953001.496756,69.0,0.0,4478.974121,4629.230957,4053.8461909999996,4179.487305,4193.846191,450.0,3.0,73.0,,,,0.0,0.0,0.0,2.0,0.0,0.0,0.0,,,,,,,,,,,,,,,,,,,,,,,,,,,,,,,,,,,,,,,,,,,,,,,,,,,,,,0.0,0.0,32.0,0.063726,1.0,0.0,,,,,,,,,,,,,,,,,,,,,,,,,
50791,1648953001.470829,1648953001.50457,70.0,0.0,4234.358886999999,4837.94873,3988.205078,4195.384765999999,4024.615479,279.0,3.0,73.0,,,,0.0,0.0,0.0,2.0,0.0,0.0,0.0,,,,,,,,35.0,0.0,0.584147,-0.114014,0.091797,0.7983399999999999,0.290044,-0.0063479999999999995,-0.9824370000000001,0.002903,-0.012902,-0.046408,,,,,,,,,,,,,,,,,,,,,,,,,,,,,,,,,,,,,,,,,,,,,,,,,,,,,,,,,,,,,,,,,
50792,1648953001.478643,1648953001.512385,71.0,0.0,4301.025879,4729.743652,4304.102539,4490.769043,4214.358886999999,450.0,3.0,73.0,,,,0.0,0.0,0.0,2.0,0.0,0.0,0.0,,,,,,,,,,,,,,,,,,,,,,,,,,,,,,,,,,,,,,,,,,,,,,,,,,,,,,,,,,,,,,,,,,,,,,,,,,,,,,,,,,,,
50793,1648953001.486458,1648953001.520099,72.0,0.0,4643.589844,4633.846191,4510.256348,4594.358886999999,4406.666504,450.0,3.0,73.0,,,,0.0,0.0,0.0,2.0,0.0,0.0,0.0,,,,,,,,36.0,0.0,0.584147,-0.114014,0.091797,0.7983399999999999,0.291508,-0.014649,-0.9824370000000001,-0.000121,-0.012882,-0.041523000000000004,,,,,,,,,,,,,,,,,,,,,,,,,,,,,,,,,,,,,,,,,,,,,,,,,,,,,,,,,,,,,,,,,
50794,1648953001.494272,1648953001.5278141,73.0,0.0,4649.743652,4640.512695,4270.256348,4377.436035,4396.922852000001,31.0,3.0,73.0,,,,0.0,0.0,0.0,2.0,0.0,0.0,0.0,,,,,,,,,,,,,,,,,,,,,,,,,,,,,,,,,,,,,,,,,,,,,,,,,,,,,,0.0,0.0,32.0,0.063726,1.0,0.0,,,,,,,,,,,,,,,,,,,,,,,,,
50795,1648953001.5020869,1648953001.5356278,74.0,0.0,4219.487305,4444.102539,4088.718018,4186.153809,4256.410156,450.0,3.0,73.0,,,,0.0,0.0,0.0,2.0,0.0,0.0,0.0,,,,,,,,37.0,0.0,0.584147,-0.114014,0.091797,0.7983399999999999,0.298833,-0.029297000000000004,-0.988785,0.000281,-0.012863,-0.043475,,,,,,,,,,,,,,,,,,,,,,,,,,,,,,,,,,,,,,,,,,,,,,,,,,,,,,,,,,,,,,,,,
50796,1648953001.509901,1648953001.543343,75.0,0.0,3986.1538090000004,4266.666504,4217.94873,4357.94873,4292.820313,65.0,3.0,73.0,,,,0.0,0.0,0.0,2.0,0.0,1.0,0.0,,,,,,,,,,,,,,,,,,,,,,,,,,,,,,,,,,,,,,,,,,,,,,,,,,,,,,,,,,,,,,,,,,,,,,,,,,,,,,,,,,,,
50797,1648953001.517716,1648953001.551157,76.0,0.0,4151.282227000001,4337.94873,4330.769043,4523.589844,4597.436035,450.0,3.0,73.0,,,,0.0,0.0,0.0,2.0,0.0,1.0,0.0,,,,,,,,38.0,0.0,0.584147,-0.114014,0.091797,0.7983399999999999,0.303716,-0.0063479999999999995,-0.9702299999999999,0.00079,-0.012798,-0.038932,,,,,,,,,,,,,,,,,,,,,,,,,,,,,,,,,,,,,,,,,,,,,,,,,,,,,,,,,,,,,,,,,
50798,1648953001.52553,1648953001.558872,77.0,0.0,4463.589844,4518.974121,4063.076904,4451.794922,4762.563965,450.0,3.0,73.0,,,,0.0,0.0,0.0,2.0,0.0,1.0,0.0,,,,,,,,,,,,,,,,,,,,,,,,,,,,,,,,,,,,,,,,,,,,,,,,,,,,,,0.0,0.0,32.0,0.063726,1.0,0.0,,,,,,,,,,,,,,,,,,,,,,,,,
50799,1648953001.533345,1648953001.566587,78.0,0.0,4524.102539,4707.179688,3917.9487299999996,4291.282227000001,4328.205078,450.0,3.0,73.0,,,,0.0,0.0,0.0,2.0,0.0,1.0,0.0,,,,,,,,39.0,0.0,0.584147,-0.114014,0.091797,0.7983399999999999,0.298344,-0.0063479999999999995,-0.98146,0.001151,-0.012836000000000002,-0.041093,,,,,,,,,,,,,,,,,,,,,,,,,,,,,,,,,,,,,,,,,,,,,,,,,,,,,,,,,,,,,,,,,
50800,1648953001.5411599,1648953001.574401,79.0,0.0,4227.179688,4793.333496,4281.025879,4127.692383,4105.128418,65.0,3.0,73.0,,,,0.0,0.0,0.0,2.0,0.0,1.0,0.0,,,,,,,,,,,,,,,,,,,,,,,,,,,,,,,,,,,,,,,,,,,,,,,,,,,,,,,,,,,,,,,,,,,,,,,,,,,,,,,,,,,,
50801,1648953001.548974,1648953001.582216,80.0,0.0,4027.6923829999996,4725.128418,4327.179688,4106.153809,4435.384765999999,450.0,3.0,73.0,,,,0.0,0.0,0.0,2.0,0.0,1.0,0.0,,,,,,,,40.0,0.0,0.584147,-0.114014,0.091797,0.7983399999999999,0.299321,-0.01709,-0.9716950000000001,0.001426,-0.012871,-0.036838,,,,,,,,,,,,,,,,,,,,,,,,,,,,,,,,,,,,,,,,,,,,,,,,,,,,,,,,,,,,,,,,,
50802,1648953001.5567892,1648953001.5900302,81.0,0.0,4377.94873,4689.743652,4140.512695,4375.384765999999,4580.512695,450.0,3.0,73.0,,,,0.0,0.0,0.0,2.0,0.0,1.0,0.0,,,,,,,,,,,,,,,,,,,,1.0,0.0,0.0,,,,,,,,,,,,,,,,,,,,,,,,,,,,,,,,0.0,0.0,32.0,0.08456699999999999,1.0,0.0,31.444069,57.841736,9.06557,278.830261,512.598389,168.16189599999998,145.487106,489.75125099999997,162.964035,71.417831,767.338928,528.972961,834.854919,472.251221,298.81213399999996,109.30221599999999,70.15052,73.69635,215.934494,369.08609,152.75953700000002,109.295197,83.820847,256.994446,467.09124800000006
50803,1648953001.5646029,1648953001.597745,82.0,0.0,4568.205078,4591.282227000001,4450.256348,4537.436035,4364.102539,450.0,3.0,73.0,,,,0.0,0.0,0.0,2.0,0.0,1.0,0.0,,,,,,,,41.0,0.0,0.584147,-0.114014,0.091797,0.7983399999999999,0.293462,-0.02002,-0.984878,-0.001451,-0.012805,-0.039355,,,,,,,,,,,,,,,,,,,,,,,,,,,,,,,,,,,,,,,,,,,,,,,,,,,,,,,,,,,,,,,,,
50804,1648953001.572418,1648953001.60546,83.0,0.0,4325.641113000001,4282.05127,4651.794922,4323.589844,4188.717772999999,65.0,3.0,73.0,,,,0.0,0.0,0.0,2.0,0.0,1.0,0.0,,,,,,,,,,,,,,,,,,,,,,,,,,,,,,,,,,,,,,,,,,,,,,,,,,,,,,,,,,,,,,,,,,,,,,,,,,,,,,,,,,,,
50805,1648953001.5802321,1648953001.613274,84.0,0.0,4145.641113000001,4212.307617,4510.769043,4020.512939,4148.205078,450.0,3.0,73.0,,,,0.0,0.0,0.0,2.0,0.0,1.0,0.0,,,,,,,,42.0,0.0,0.584147,-0.114014,0.091797,0.7983399999999999,0.295415,-0.010254000000000001,-0.979507,-0.000915,-0.012794,-0.041523000000000004,,,,,,,,,,,,,,,,,,,,,,,,,,,,,,,,,,,,,,,,,,,,,,,,,,,,,,,,,,,,,,,,,
50806,1648953001.588047,1648953001.6209881,85.0,0.0,4240.0,4480.0,4430.256348,4089.2307130000004,4291.282227000001,450.0,3.0,73.0,,,,0.0,0.0,0.0,2.0,0.0,1.0,0.0,,,,,,,,,,,,,,,,,,,,,,,,,,,,,,,,,,,,,,,,,,,,,,,,,,,,,,0.0,0.0,32.0,0.08456699999999999,1.0,0.0,,,,,,,,,,,,,,,,,,,,,,,,,
50807,1648953001.595862,1648953001.628803,86.0,0.0,4489.743652,4591.794922,4232.820313,4318.461426,4529.230957,450.0,3.0,73.0,,,,0.0,0.0,0.0,2.0,0.0,1.0,0.0,,,,,,,,43.0,0.0,0.584147,-0.114014,0.091797,0.7983399999999999,0.28809,-0.019043,-0.988785,0.00196,-0.012784,-0.043523,,,,,,,,,,,,,,,,,,,,,,,,,,,,,,,,,,,,,,,,,,,,,,,,,,,,,,,,,,,,,,,,,
50808,1648953001.603676,1648953001.636517,87.0,0.0,4545.128418,4505.128418,3984.615479,4266.153809,4502.563965,65.0,3.0,73.0,,,,0.0,0.0,0.0,2.0,0.0,1.0,0.0,,,,,,,,,,,,,,,,,,,,,,,,,,,,,,,,,,,,,,,,,,,,,,,,,,,,,,,,,,,,,,,,,,,,,,,,,,,,,,,,,,,,
50809,1648953001.611491,1648953001.644332,88.0,0.0,4341.538574,4614.358886999999,4011.794922,4114.871582,4204.615234000001,450.0,3.0,73.0,,,,0.0,0.0,0.0,2.0,0.0,1.0,0.0,,,,,,,,44.0,0.0,0.584147,-0.114014,0.091797,0.7983399999999999,0.298833,-0.023438,-0.9668120000000001,-0.0009220000000000001,-0.012775,-0.039073000000000004,,,,,,,,,,,,,,,,,,,,,,,,,,,,,,,,,,,,,,,,,,,,,,,,,,,,,,,,,,,,,,,,,
50810,1648953001.6193051,1648953001.6520462,89.0,0.0,4213.333496,4822.563965,4067.179443,4157.436035,4042.5642090000006,450.0,3.0,73.0,,,,0.0,0.0,0.0,2.0,0.0,1.0,0.0,,,,,,,,,,,,,,,,,,,,,,,,,,,,,,,,,,,,,,,,,,,,,,,,,,,,,,0.0,0.0,32.0,0.08456699999999999,1.0,0.0,,,,,,,,,,,,,,,,,,,,,,,,,
50811,1648953001.62712,1648953001.6598608,90.0,0.0,4352.820313,4696.922852000001,4313.333496,4478.461426,4225.641113000001,450.0,3.0,73.0,,,,0.0,0.0,0.0,2.0,0.0,1.0,0.0,,,,,,,,45.0,0.0,0.584147,-0.114014,0.091797,0.7983399999999999,0.301762,-0.018067,-0.98439,-0.000878,-0.012767,-0.035117,,,,,,,,,,,,,,,,,,,,,,,,,,,,,,,,,,,,,,,,,,,,,,,,,,,,,,,,,,,,,,,,,
50812,1648953001.634934,1648953001.667575,91.0,0.0,4524.615234000001,4475.897461,4640.512695,4561.025879,4323.589844,65.0,3.0,73.0,,,,0.0,0.0,0.0,2.0,0.0,1.0,0.0,,,,,,,,,,,,,,,,,,,,,,,,,,,,,,,,,,,,,,,,,,,,,,,,,,,,,,,,,,,,,,,,,,,,,,,,,,,,,,,,,,,,
50813,1648953001.642749,1648953001.67539,92.0,0.0,4548.717772999999,4576.410156,4449.743652,4298.461426,4193.846191,450.0,3.0,73.0,,,,0.0,0.0,0.0,2.0,0.0,1.0,0.0,,,,,,,,46.0,0.0,0.584147,-0.114014,0.091797,0.7983399999999999,0.293462,-0.012695999999999999,-0.9716950000000001,-0.001132,-0.012906,-0.037611,,,,,,,,,,,,,,,,,,,,,,,,,,,,,,,,,,,,,,,,,,,,,,,,,,,,,,,,,,,,,,,,,
50814,1648953001.650563,1648953001.6831038,93.0,0.0,4198.974121,4667.692383,4088.205078,4129.230957,4113.333496,450.0,3.0,73.0,,,,0.0,0.0,0.0,2.0,0.0,1.0,0.0,,,,,,,,,,,,,,,,,,,,,,,,,,,,,,,,,,,,,,,,,,,,,,,,,,,,,,0.0,0.0,32.0,0.08456699999999999,1.0,0.0,,,,,,,,,,,,,,,,,,,,,,,,,
50815,1648953001.658378,1648953001.690918,94.0,0.0,3976.923096,4536.410156,4113.333496,4317.94873,4365.641113000001,450.0,3.0,73.0,,,,0.0,0.0,0.0,2.0,0.0,1.0,0.0,,,,,,,,47.0,0.0,0.58407,-0.114014,0.092285,0.7983399999999999,0.278325,-0.021485,-0.917983,-0.000629,-0.012884999999999999,-0.039954,,,,,,,,,,,,,,,,,,,,,,,,,,,,,,,,,,,,,,,,,,,,,,,,,,,,,,,,,,,,,,,,,
50816,1648953001.666192,1648953001.698633,95.0,0.0,4441.538574,4591.794922,4110.256348,4553.333496,4609.230957,65.0,3.0,73.0,,,,0.0,0.0,0.0,2.0,0.0,1.0,0.0,,,,,,,,,,,,,,,,,,,,,,,,,,,,,,,,,,,,,,,,,,,,,,,,,,,,,,,,,,,,,,,,,,,,,,,,,,,,,,,,,,,,
50817,1648953001.674007,1648953001.706348,96.0,0.0,4777.94873,4761.025879,4061.538574,4477.436035,4504.102539,450.0,3.0,73.0,,,,0.0,0.0,0.0,2.0,0.0,1.0,0.0,,,,,,,,48.0,0.0,0.584022,-0.114258,0.092285,0.7983399999999999,0.336431,-0.014159999999999999,-1.111833,-0.000175,-0.012963999999999998,-0.035910000000000004,,,,,,,,,,,,,,,,,,,,,,,,,,,,,,,,,,,,,,,,,,,,,,,,,,,,,,,,,,,,,,,,,
50818,1648953001.681821,1648953001.7141619,97.0,0.0,4360.512695,4505.641113000001,4415.384765999999,4243.589844,4182.05127,450.0,3.0,73.0,,,,0.0,0.0,0.0,2.0,0.0,1.0,0.0,,,,,,,,,,,,,,,,,,,,1.0,0.0,0.0,,,,,,,,,,,,,,,,,,,,,,,,,,,,,,,,0.0,0.0,32.0,0.073601,1.0,0.0,38.431885,57.876208999999996,16.783552,204.907043,510.237671,124.400154,179.087967,555.454529,155.756912,68.46734599999999,563.288513,466.204926,927.42218,475.211914,301.262054,134.05616799999999,67.25572199999999,77.474014,170.827057,386.091888,196.318069,127.867874,108.18843100000001,178.102127,465.215576
50819,1648953001.689636,1648953001.7218769,98.0,0.0,4115.897461,4204.102539,4494.358886999999,4256.410156,4252.307617,450.0,3.0,73.0,,,,0.0,0.0,0.0,2.0,0.0,1.0,0.0,,,,,,,,49.0,0.0,0.584109,-0.114014,0.092041,0.7983399999999999,0.26758200000000004,-0.010254000000000001,-0.8501110000000001,-0.002794,-0.012986000000000001,-0.038471,,,,,,,,,,,,,,,,,,,,,,,,,,,,,,,,,,,,,,,,,,,,,,,,,,,,,,,,,,,,,,,,,
50820,1648953001.6974509,1648953001.729692,99.0,0.0,4406.666504,4450.769043,4082.0512700000004,4543.077147999999,4582.563965,65.0,3.0,73.0,,,,0.0,0.0,0.0,2.0,0.0,1.0,0.0,,,,,,,,,,,,,,,,,,,,,,,,,,,,,,,,,,,,,,,,,,,,,,,,,,,,,,,,,,,,,,,,,,,,,,,,,,,,,,,,,,,,
50821,1648953001.705265,1648953001.7375062,100.0,0.0,4578.461426,4784.615234000001,3872.3076170000004,4583.077147999999,4460.512695,450.0,3.0,73.0,,,,0.0,0.0,0.0,2.0,0.0,1.0,0.0,,,,,,,,50.0,0.0,0.584109,-0.114014,0.092041,0.7983399999999999,0.303716,0.0043950000000000005,-1.0278479999999999,-0.002075,-0.012908000000000001,-0.040776,,,,,,,,,,,,,,,,,,,,,,,,,,,,,,,,,,,,,,,,,,,,,,,,,,,,,,,,,,,,,,,,,
50822,1648953001.7130802,1648953001.7452211,101.0,0.0,4341.538574,4642.05127,4318.461426,4200.512695,4158.974121,450.0,3.0,73.0,,,,0.0,0.0,0.0,2.0,0.0,1.0,0.0,,,,,,,,,,,,,,,,,,,,,,,,,,,,,,,,,,,,,,,,,,,,,,,,,,,,,,0.0,0.0,32.0,0.073601,1.0,0.0,,,,,,,,,,,,,,,,,,,,,,,,,
50823,1648953001.7208939,1648953001.752935,102.0,0.0,4207.692383,4317.94873,4494.871582,4067.6923829999996,4275.897461,450.0,3.0,73.0,,,,0.0,0.0,0.0,2.0,0.0,1.0,0.0,,,,,,,,51.0,0.0,0.584147,-0.114014,0.091797,0.7983399999999999,0.28809,-0.013672,-0.9824370000000001,-0.001477,-0.012837999999999999,-0.036552,,,,,,,,,,,,,,,,,,,,,,,,,,,,,,,,,,,,,,,,,,,,,,,,,,,,,,,,,,,,,,,,,
50824,1648953001.728709,1648953001.76075,103.0,0.0,4456.410156,4360.0,4134.871582,4359.487305,4564.102539,65.0,3.0,73.0,,,,0.0,0.0,0.0,2.0,0.0,1.0,0.0,,,,,,,,,,,,,,,,,,,,,,,,,,,,,,,,,,,,,,,,,,,,,,,,,,,,,,,,,,,,,,,,,,,,,,,,,,,,,,,,,,,,
50825,1648953001.7365232,1648953001.768464,104.0,0.0,4567.179688,4702.05127,3977.9487299999996,4440.512695,4496.922852000001,450.0,3.0,73.0,,,,0.0,0.0,0.0,2.0,0.0,1.0,0.0,,,,,,,,52.0,0.0,0.584147,-0.114014,0.091797,0.7983399999999999,0.271489,-0.024903,-0.9316549999999999,-0.000792,-0.012775,-0.032751,,,,,,,,,,,,,,,,,,,,,,,,,,,,,,,,,,,,,,,,,,,,,,,,,,,,,,,,,,,,,,,,,
50826,1648953001.744338,1648953001.776279,105.0,0.0,4341.538574,4838.461426,4351.282227000001,4120.0,4276.410156,450.0,3.0,73.0,,,,0.0,0.0,0.0,2.0,0.0,1.0,0.0,,,,,,,,,,,,,,,,,,,,,,,,,,,,,,,,,,,,,,,,,,,,,,,,,,,,,,0.0,0.0,32.0,0.073601,1.0,0.0,,,,,,,,,,,,,,,,,,,,,,,,,
50827,1648953001.752153,1648953001.783993,106.0,0.0,4232.307617,4669.230957,4591.282227000001,3977.9487299999996,4330.256348,450.0,3.0,73.0,,,,0.0,0.0,0.0,2.0,0.0,1.0,0.0,,,,,,,,53.0,0.0,0.584147,-0.114014,0.091797,0.7983399999999999,0.31201599999999996,-0.014649,-1.035172,-0.00027400000000000005,-0.012718,-0.035628,,,,,,,,,,,,,,,,,,,,,,,,,,,,,,,,,,,,,,,,,,,,,,,,,,,,,,,,,,,,,,,,,
50828,1648953001.759967,1648953001.791808,107.0,0.0,4465.128418,4555.384765999999,4374.871582,4337.94873,4511.282227000001,65.0,3.0,73.0,,,,0.0,0.0,0.0,2.0,0.0,1.0,0.0,,,,,,,,,,,,,,,,,,,,,,,,,,,,,,,,,,,,,,,,,,,,,,,,,,,,,,,,,,,,,,,,,,,,,,,,,,,,,,,,,,,,
50829,1648953001.767782,1648953001.7995222,108.0,0.0,4531.794922,4542.563965,4350.769043,4444.615234000001,4530.256348,450.0,3.0,73.0,,,,0.0,0.0,0.0,2.0,0.0,1.0,0.0,,,,,,,,54.0,0.0,0.584147,-0.114014,0.091797,0.7983399999999999,0.300298,-0.020508000000000002,-0.947768,-0.000637,-0.012521,-0.03812,,,,,,,,,,,,,,,,,,,,,,,,,,,,,,,,,,,,,,,,,,,,,,,,,,,,,,,,,,,,,,,,,
50830,1648953001.7755961,1648953001.8073368,109.0,0.0,4354.871582,4494.358886999999,4449.743652,4177.94873,4416.922852000001,450.0,3.0,73.0,,,,0.0,0.0,0.0,2.0,0.0,1.0,0.0,,,,,,,,,,,,,,,,,,,,,,,,,,,,,,,,,,,,,,,,,,,,,,,,,,,,,,0.0,0.0,32.0,0.073601,1.0,0.0,,,,,,,,,,,,,,,,,,,,,,,,,
50831,1648953001.783411,1648953001.815051,110.0,0.0,4228.205078,4634.871582,4246.153809,4064.615479,4211.282227000001,450.0,3.0,73.0,,,,0.0,0.0,0.0,2.0,0.0,1.0,0.0,,,,,,,,55.0,0.0,0.584147,-0.114014,0.091797,0.7983399999999999,0.292485,-0.02295,-0.9863430000000001,-0.003112,-0.012537999999999999,-0.034161000000000004,,,,,,,,,,,,,,,,,,,,,,,,,,,,,,,,,,,,,,,,,,,,,,,,,,,,,,,,,,,,,,,,,
50832,1648953001.791225,1648953001.822866,111.0,0.0,4274.358886999999,4826.153809,4096.922852000001,4372.820313,4236.410156,65.0,3.0,73.0,,,,0.0,0.0,0.0,2.0,0.0,1.0,0.0,,,,,,,,,,,,,,,,,,,,,,,,,,,,,,,,,,,,,,,,,,,,,,,,,,,,,,,,,,,,,,,,,,,,,,,,,,,,,,,,,,,,
50833,1648953001.79904,1648953001.83058,112.0,0.0,4472.307617,4680.512695,4313.846191,4609.743652,4390.769043,450.0,3.0,73.0,,,,0.0,0.0,0.0,2.0,0.0,1.0,0.0,,,,,,,,56.0,0.0,0.584147,-0.114014,0.091797,0.7983399999999999,0.307134,-0.02295,-0.99855,-0.002508,-0.012554000000000001,-0.036995,,,,,,,,,,,,,,,,,,,,,,,,,,,,,,,,,,,,,,,,,,,,,,,,,,,,,,,,,,,,,,,,,
50834,1648953001.806854,1648953001.838394,113.0,0.0,4586.666504,4489.743652,4452.307617,4427.179688,4303.589844,450.0,3.0,73.0,,,,0.0,0.0,0.0,2.0,0.0,1.0,0.0,,,,,,,,,,,,,,,,,,,,1.0,0.0,0.0,,,,,,,,,,,,,,,,,,,,,,,,,,,,,,,,0.0,0.0,32.0,0.054893,1.0,0.0,50.344242,59.468975,28.220428000000002,167.187057,498.550934,92.450417,222.80885299999997,634.875,146.879456,62.389472999999995,435.555786,409.36001600000003,975.5008539999999,450.30609100000004,284.656281,156.097626,64.19252,77.932098,153.998474,392.778473,228.873871,146.946777,140.228882,138.171249,456.58358799999996
50835,1648953001.814669,1648953001.846109,114.0,0.0,4331.794922,4594.358886999999,4263.077147999999,4137.94873,4088.718018,450.0,3.0,73.0,,,,0.0,0.0,0.0,2.0,0.0,1.0,0.0,,,,,,,,57.0,0.0,0.583775,-0.114014,0.092041,0.798584,0.291508,-0.013672,-0.9594870000000001,-0.0016710000000000002,-0.012568000000000001,-0.033101,,,,,,,,,,,,,,,,,,,,,,,,,,,,,,,,,,,,,,,,,,,,,,,,,,,,,,,,,,,,,,,,,
50836,1648953001.822483,1648953001.853923,115.0,0.0,4101.025879,4770.769043,4050.7692869999996,4247.179688,4257.94873,65.0,3.0,73.0,,,,0.0,0.0,0.0,2.0,0.0,1.0,0.0,,,,,,,,,,,,,,,,,,,,,,,,,,,,,,,,,,,,,,,,,,,,,,,,,,,,,,,,,,,,,,,,,,,,,,,,,,,,,,,,,,,,
50837,1648953001.830298,1648953001.861638,116.0,0.0,4345.641113000001,4703.589844,4124.102539,4577.94873,4529.230957,450.0,3.0,73.0,,,,0.0,0.0,0.0,2.0,0.0,1.0,0.0,,,,,,,,58.0,0.0,0.584156,-0.11377000000000001,0.092041,0.7983399999999999,0.29736799999999997,-0.021973,-0.964858,0.001328,-0.012776000000000001,-0.035943,,,,,,,,,,,,,,,,,,,,,,,,,,,,,,,,,,,,,,,,,,,,,,,,,,,,,,,,,,,,,,,,,
50838,1648953001.8381119,1648953001.8693528,117.0,0.0,4606.666504,4445.641113000001,4217.436035,4471.794922,4392.820313,450.0,3.0,73.0,,,,0.0,0.0,0.0,2.0,0.0,1.0,0.0,,,,,,,,,,,,,,,,,,,,,,,,,,,,,,,,,,,,,,,,,,,,,,,,,,,,,,0.0,0.0,32.0,0.054893,1.0,0.0,,,,,,,,,,,,,,,,,,,,,,,,,
50839,1648953001.845927,1648953001.877167,118.0,0.0,4292.820313,4351.282227000001,4246.153809,4148.205078,4097.94873,450.0,3.0,73.0,,,,0.0,0.0,0.0,2.0,0.0,1.0,0.0,,,,,,,,59.0,0.0,0.584156,-0.11377000000000001,0.092041,0.7983399999999999,0.301762,-0.013672,-0.989273,0.0009019999999999999,-0.012816999999999999,-0.038501,,,,,,,,,,,,,,,,,,,,,,,,,,,,,,,,,,,,,,,,,,,,,,,,,,,,,,,,,,,,,,,,,
50840,1648953001.853742,1648953001.884882,119.0,0.0,3970.7692869999996,4543.077147999999,4315.897461,4230.256348,4178.461426,65.0,3.0,73.0,,,,0.0,0.0,0.0,2.0,0.0,1.0,0.0,,,,,,,,,,,,,,,,,,,,,,,,,,,,,,,,,,,,,,,,,,,,,,,,,,,,,,,,,,,,,,,,,,,,,,,,,,,,,,,,,,,,
50841,1648953001.861556,1648953001.892697,120.0,0.0,4207.179688,4673.846191,4209.230957,4535.897461,4551.282227000001,450.0,3.0,73.0,,,,0.0,0.0,0.0,2.0,0.0,1.0,0.0,,,,,,,,60.0,0.0,0.584109,-0.114014,0.092041,0.7983399999999999,0.289555,-0.018555000000000002,-0.9673,0.001251,-0.012805,-0.040803,,,,,,,,,,,,,,,,,,,,,,,,,,,,,,,,,,,,,,,,,,,,,,,,,,,,,,,,,,,,,,,,,
50842,1648953001.8693712,1648953001.900411,121.0,0.0,4508.205078,4574.871582,3817.4357909999994,4550.769043,4466.666504,450.0,3.0,73.0,,,,0.0,0.0,0.0,2.0,0.0,1.0,0.0,,,,,,,,,,,,,,,,,,,,,,,,,,,,,,,,,,,,,,,,,,,,,,,,,,,,,,0.0,0.0,32.0,0.054893,1.0,0.0,,,,,,,,,,,,,,,,,,,,,,,,,
50843,1648953001.8771849,1648953001.908226,122.0,0.0,4394.358886999999,4472.820313,3849.2307130000004,4311.282227000001,4100.0,450.0,3.0,73.0,,,,0.0,0.0,0.0,2.0,0.0,1.0,0.0,,,,,,,,61.0,0.0,0.584156,-0.11377000000000001,0.092041,0.7983399999999999,0.285649,-0.03125,-0.9868309999999999,0.001517,-0.012891,-0.036528,,,,,,,,,,,,,,,,,,,,,,,,,,,,,,,,,,,,,,,,,,,,,,,,,,,,,,,,,,,,,,,,,
50844,1648953001.885,1648953001.91594,123.0,0.0,4128.205078,4400.0,4376.410156,4226.666504,4189.743652,65.0,3.0,73.0,,,,0.0,0.0,0.0,2.0,0.0,1.0,0.0,,,,,,,,,,,,,,,,,,,,,,,,,,,,,,,,,,,,,,,,,,,,,,,,,,,,,,,,,,,,,,,,,,,,,,,,,,,,,,,,,,,,
50845,1648953001.8928142,1648953001.9237552,124.0,0.0,4311.794922,4369.230957,4357.436035,4409.743652,4559.487305,450.0,3.0,73.0,,,,0.0,0.0,0.0,2.0,0.0,1.0,0.0,,,,,,,,62.0,0.0,0.584156,-0.11377000000000001,0.092041,0.7983399999999999,0.301762,-0.013672,-0.989273,-0.0012720000000000001,-0.012823,-0.032729,,,,,,,,,,,,,,,,,,,,,,,,,,,,,,,,,,,,,,,,,,,,,,,,,,,,,,,,,,,,,,,,,
50846,1648953001.9006288,1648953001.931469,125.0,0.0,4601.025879,4543.589844,3991.794922,4417.436035,4513.846191,450.0,3.0,73.0,,,,0.0,0.0,0.0,2.0,0.0,1.0,0.0,,,,,,,,,,,,,,,,,,,,,,,,,,,,,,,,,,,,,,,,,,,,,,,,,,,,,,0.0,0.0,32.0,0.054893,1.0,0.0,,,,,,,,,,,,,,,,,,,,,,,,,
50847,1648953001.908444,1648953001.939284,126.0,0.0,4485.128418,4722.05127,4155.384765999999,4226.153809,4233.333496,450.0,3.0,73.0,,,,0.0,0.0,0.0,2.0,0.0,1.0,0.0,,,,,,,,63.0,0.0,0.584156,-0.11377000000000001,0.092041,0.7983399999999999,0.285649,-0.03125,-0.9868309999999999,-0.000754,-0.012908000000000001,-0.02926,,,,,,,,,,,,,,,,,,,,,,,,,,,,,,,,,,,,,,,,,,,,,,,,,,,,,,,,,,,,,,,,,
50848,1648953001.916258,1648953001.9469981,127.0,0.0,4165.641113000001,4653.846191,4530.769043,4150.769043,4293.333496,238.0,3.0,73.0,,,,0.0,0.0,0.0,2.0,0.0,1.0,0.0,,,,,,,,,,,,,,,,,,,,,,,,,,,,,,,,,,,,,,,,,,,,,,,,,,,,,,,,,,,,,,,,,,,,,,,,,,,,,,,,,,,,
50849,1648953001.924073,1648953001.954813,0.0,0.0,4307.179688,4461.025879,4408.717772999999,4313.846191,4557.436035,450.0,3.0,73.0,,,,0.0,0.0,0.0,2.0,0.0,1.0,0.0,,,,,,,,0.0,0.0,0.584109,-0.114014,0.092041,0.7983399999999999,0.294926,-0.015137000000000001,-0.983902,-0.000239,-0.012984,-0.032438,,,,,,,,,,,,,,,,,,,,,,,,,,,,,,,,,,,,,,,,,,,,,,,,,,,,,,,,,,,,,,,,,
50850,1648953001.931887,1648953001.962527,1.0,0.0,4624.102539,4509.743652,4218.461426,4387.179688,4515.384765999999,450.0,3.0,73.0,,,,0.0,0.0,0.0,2.0,0.0,1.0,0.0,0.972656,0.0,0.0,0.0,0.0,0.0,0.0,,,,,,,,,,,,,1.0,0.0,0.0,,,,,,,,,,,,,,,,,,,,,,,,,,,,,,,,0.0,0.0,32.0,0.056889999999999996,1.0,0.0,64.279922,61.597407999999994,42.489822,153.228271,490.2052,70.40033000000001,271.783234,730.2195429999999,138.535934,56.280788,364.895386,361.186401,989.7493289999999,415.560699,256.615051,171.86853,62.241364000000004,77.72663100000001,151.675354,392.313202,241.955963,160.632339,174.48727399999999,121.94283300000001,448.07977300000005
50851,1648953001.939702,1648953001.970342,2.0,0.0,4476.410156,4760.512695,4277.436035,4287.179688,4351.282227000001,0.0,3.0,73.0,,,,0.0,0.0,0.0,2.0,0.0,1.0,0.0,,,,,,,,1.0,0.0,0.584109,-0.114014,0.092041,0.7983399999999999,0.300298,-0.011231,-0.9677879999999999,0.00022400000000000002,-0.012955000000000001,-0.035298,,,,,,,,,,,,,,,,,,,,,,,,,,,,,,,,,,,,,,,,,,,,,,,,,,,,,,,,,,,,,,,,,
50852,1648953001.947516,1648953001.978156,3.0,0.0,4178.974121,4861.025879,4173.846191,4125.641113000001,4356.922852000001,450.0,3.0,73.0,,,,0.0,0.0,0.0,2.0,0.0,1.0,0.0,,,,,,,,,,,,,,,,,,,,,,,,,,,,,,,,,,,,,,,,,,,,,,,,,,,,,,,,,,,,,,,,,,,,,,,,,,,,,,,,,,,,
50853,1648953001.955331,1648953001.985871,4.0,0.0,4272.820313,4705.641113000001,3983.076904,4256.922852000001,4417.94873,0.0,3.0,73.0,,,,0.0,0.0,0.0,2.0,0.0,1.0,0.0,,,,,,,,2.0,0.0,0.583775,-0.114014,0.092041,0.798584,0.308598,-0.016114,-1.0048979999999998,-0.002386,-0.013027,-0.03167,,,,,,,,,,,,,,,,,,,,,,,,,,,,,,,,,,,,,,,,,,,,,,,,,,,,,,,,,,,,,,,,,
50854,1648953001.963145,1648953001.9935849,5.0,0.0,4534.871582,4501.025879,4192.820313,4562.563965,4345.641113000001,450.0,3.0,73.0,,,,0.0,0.0,0.0,2.0,0.0,1.0,0.0,,,,,,,,,,,,,,,,,,,,,,,,,,,,,,,,,,,,,,,,,,,,,,,,,,,,,,0.0,0.0,32.0,0.056889999999999996,1.0,0.0,,,,,,,,,,,,,,,,,,,,,,,,,
50855,1648953001.97096,1648953002.0013,6.0,0.0,4534.871582,4487.692383,4496.922852000001,4397.94873,4237.436035,148.0,3.0,73.0,,,,0.0,0.0,0.0,1.0,0.0,1.0,0.0,,,,,,,,3.0,0.0,0.584109,-0.114014,0.092041,0.7983399999999999,0.303716,-0.014649,-0.9555809999999999,-0.0017079999999999999,-0.013092,-0.028308,,,,,,,,,,,,,,,,,,,,,,,,,,,,,,,,,,,,,,,,,,,,,,,,,,,,,,,,,,,,,,,,,
50856,1648953001.978774,1648953002.009115,7.0,0.0,4269.743652,4603.077147999999,4322.563965,4042.0512700000004,4199.487305,450.0,3.0,73.0,,,,0.0,0.0,0.0,1.0,0.0,1.0,0.0,,,,,,,,,,,,,,,,,,,,,,,,,,,,,,,,,,,,,,,,,,,,,,,,,,,,,,,,,,,,,,,,,,,,,,,,,,,,,,,,,,,,
50857,1648953001.986589,1648953002.016929,8.0,0.0,4120.0,4741.538574,3895.384521,4193.846191,4290.256348,450.0,3.0,73.0,,,,0.0,0.0,0.0,1.0,0.0,1.0,0.0,,,,,,,,4.0,0.0,0.58407,-0.114014,0.092285,0.7983399999999999,0.304204,-0.014159999999999999,-0.988785,-0.00183,-0.013052000000000001,-0.03163,,,,,,,,,,,,,,,,,,,,,,,,,,,,,,,,,,,,,,,,,,,,,,,,,,,,,,,,,,,,,,,,,
50858,1648953001.994403,1648953002.024644,9.0,0.0,4334.358886999999,4747.692383,3898.974365,4580.0,4498.974121,0.0,3.0,73.0,,,,0.0,0.0,0.0,1.0,0.0,1.0,0.0,,,,,,,,,,,,,,,,,,,,,,,,,,,,,,,,,,,,,,,,,,,,,,,,,,,,,,0.0,0.0,32.0,0.056889999999999996,1.0,0.0,,,,,,,,,,,,,,,,,,,,,,,,,
50859,1648953002.002218,1648953002.032458,10.0,0.0,4524.615234000001,4501.025879,4197.94873,4483.589844,4463.589844,450.0,3.0,73.0,,,,0.0,0.0,0.0,1.0,0.0,1.0,0.0,,,,,,,,5.0,0.0,0.58407,-0.114014,0.092285,0.7983399999999999,0.313481,-0.028321,-0.9712059999999999,-0.001891,-0.013113999999999999,-0.03457,,,,,,,,,,,,,,,,,,,,,,,,,,,,,,,,,,,,,,,,,,,,,,,,,,,,,,,,,,,,,,,,,
50860,1648953002.010033,1648953002.040173,11.0,0.0,4303.589844,4338.461426,4248.717772999999,4212.307617,4245.641113000001,201.0,3.0,73.0,,,,0.0,0.0,0.0,1.0,0.0,2.0,0.0,,,,,,,,,,,,,,,,,,,,,,,,,,,,,,,,,,,,,,,,,,,,,,,,,,,,,,,,,,,,,,,,,,,,,,,,,,,,,,,,,,,,
50861,1648953002.017847,1648953002.047987,12.0,0.0,4036.923096,4469.230957,4164.102539,4306.153809,4241.025879,450.0,3.0,73.0,,,,0.0,0.0,0.0,1.0,0.0,2.0,0.0,,,,,,,,6.0,0.0,0.5837359999999999,-0.114014,0.092285,0.798584,0.298344,-0.019532,-0.978042,-0.001067,-0.01317,-0.030869,,,,,,,,,,,,,,,,,,,,,,,,,,,,,,,,,,,,,,,,,,,,,,,,,,,,,,,,,,,,,,,,,
50862,1648953002.025662,1648953002.055702,13.0,0.0,4191.282227000001,4622.05127,4149.230957,4541.538574,4535.897461,450.0,3.0,73.0,,,,0.0,0.0,0.0,1.0,0.0,2.0,0.0,,,,,,,,,,,,,,,,,,,,,,,,,,,,,,,,,,,,,,,,,,,,,,,,,,,,,,0.0,0.0,32.0,0.056889999999999996,1.0,0.0,,,,,,,,,,,,,,,,,,,,,,,,,
50863,1648953002.0334759,1648953002.063416,14.0,0.0,4382.563965,4551.282227000001,3978.461426,4509.230957,4496.922852000001,450.0,3.0,73.0,,,,0.0,0.0,0.0,1.0,0.0,2.0,0.0,,,,,,,,7.0,0.0,0.58407,-0.114014,0.092285,0.7983399999999999,0.29443800000000003,-0.019043,-0.9873200000000001,-0.000521,-0.012976,-0.033935,,,,,,,,,,,,,,,,,,,,,,,,,,,,,,,,,,,,,,,,,,,,,,,,,,,,,,,,,,,,,,,,,
50864,1648953002.041291,1648953002.0712311,15.0,0.0,4357.436035,4426.153809,3887.6923829999996,4378.974121,4162.05127,201.0,3.0,73.0,,,,0.0,0.0,0.0,1.0,0.0,2.0,0.0,,,,,,,,,,,,,,,,,,,,,,,,,,,,,,,,,,,,,,,,,,,,,,,,,,,,,,,,,,,,,,,,,,,,,,,,,,,,,,,,,,,,
50865,1648953002.0491052,1648953002.079046,16.0,0.0,4187.692383,4390.769043,4267.179688,4289.743652,4209.743652,0.0,3.0,73.0,,,,0.0,0.0,0.0,1.0,0.0,2.0,0.0,,,,,,,,8.0,0.0,0.58407,-0.114014,0.092285,0.7983399999999999,0.301762,-0.022461000000000002,-0.968277,-0.003203,-0.012997,-0.030443,,,,,,,,,,,,,,,,,,,,,,,,,,,,,,,,,,,,,,,,,,,,,,,,,,,,,,,,,,,,,,,,,
50866,1648953002.0569198,1648953002.08676,17.0,0.0,4295.384765999999,4388.205078,4482.563965,4274.871582,4531.282227000001,0.0,3.0,73.0,,,,0.0,0.0,0.0,1.0,0.0,2.0,0.0,,,,,,,,,,,,,,,,,,,,1.0,0.0,0.0,,,,,,,,,,,,,,,,,,,,,,,,,,,,,,,,0.0,0.0,32.0,0.045293,1.0,0.0,75.867531,62.481297,57.022114,149.428055,491.91168200000004,56.161522,315.857056,825.786804,134.645538,54.83551800000001,327.310638,320.083221,985.060486,394.924988,229.192917,181.154236,61.875378000000005,79.368912,151.269012,388.730957,234.830002,166.36355600000002,205.123795,114.410812,442.227661
50867,1648953002.064734,1648953002.094475,18.0,0.0,4587.179688,4511.794922,4346.666504,4296.410156,4542.05127,0.0,3.0,73.0,,,,0.0,0.0,0.0,1.0,0.0,2.0,0.0,,,,,,,,9.0,0.0,0.58407,-0.114014,0.092285,0.7983399999999999,0.309087,-0.024413999999999998,-0.973648,-0.000149,-0.012967,-0.033552,,,,,,,,,,,,,,,,,,,,,,,,,,,,,,,,,,,,,,,,,,,,,,,,,,,,,,,,,,,,,,,,,
50868,1648953002.072549,1648953002.102289,19.0,0.0,4537.436035,4717.94873,4282.563965,4275.384765999999,4388.717772999999,0.0,3.0,73.0,,,,0.0,0.0,0.0,1.0,0.0,2.0,0.0,,,,,,,,,,,,,,,,,,,,,,,,,,,,,,,,,,,,,,,,,,,,,,,,,,,,,,,,,,,,,,,,,,,,,,,,,,,,,,,,,,,,
50869,1648953002.080364,1648953002.110004,20.0,0.0,4252.307617,4797.94873,4188.205078,4147.179688,4283.589844,0.0,3.0,73.0,,,,0.0,0.0,0.0,1.0,0.0,2.0,0.0,,,,,,,,10.0,0.0,0.58407,-0.114014,0.092285,0.7983399999999999,0.304692,-0.016602000000000002,-0.9668120000000001,0.000354,-0.012842,-0.030001,,,,,,,,,,,,,,,,,,,,,,,,,,,,,,,,,,,,,,,,,,,,,,,,,,,,,,,,,,,,,,,,,
50870,1648953002.088178,1648953002.1178179,21.0,0.0,4254.871582,4717.94873,3992.820557,4223.077147999999,4246.666504,0.0,3.0,73.0,,,,0.0,0.0,0.0,1.0,0.0,2.0,0.0,,,,,,,,,,,,,,,,,,,,,,,,,,,,,,,,,,,,,,,,,,,,,,,,,,,,,,0.0,0.0,32.0,0.045293,1.0,0.0,,,,,,,,,,,,,,,,,,,,,,,,,
50871,1648953002.095993,1648953002.1255322,22.0,0.0,4465.641113000001,4581.538574,4131.794922,4532.307617,4322.05127,0.0,3.0,73.0,,,,0.0,0.0,0.0,1.0,0.0,2.0,0.0,,,,,,,,11.0,0.0,0.584022,-0.114258,0.092285,0.7983399999999999,0.30225100000000005,-0.032715,-0.9790190000000001,0.000807,-0.012925,-0.033105,,,,,,,,,,,,,,,,,,,,,,,,,,,,,,,,,,,,,,,,,,,,,,,,,,,,,,,,,,,,,,,,,
50872,1648953002.103807,1648953002.133347,23.0,0.0,4544.102539,4479.487305,4351.794922,4523.589844,4318.461426,0.0,3.0,73.0,,,,0.0,0.0,0.0,1.0,0.0,2.0,0.0,,,,,,,,,,,,,,,,,,,,,,,,,,,,,,,,,,,,,,,,,,,,,,,,,,,,,,,,,,,,,,,,,,,,,,,,,,,,,,,,,,,,
50873,1648953002.111622,1648953002.1410608,24.0,0.0,4385.641113000001,4512.307617,4298.461426,4208.205078,4135.897461,0.0,3.0,73.0,,,,0.0,0.0,0.0,1.0,0.0,2.0,0.0,,,,,,,,12.0,0.0,0.584022,-0.114258,0.092285,0.7983399999999999,0.298344,-0.025879000000000003,-0.9946440000000001,-0.002008,-0.012853,-0.029744999999999997,,,,,,,,,,,,,,,,,,,,,,,,,,,,,,,,,,,,,,,,,,,,,,,,,,,,,,,,,,,,,,,,,
50874,1648953002.119436,1648953002.148876,25.0,0.0,4061.025635,4627.692383,4254.358886999999,4140.0,4148.717772999999,0.0,3.0,73.0,,,,0.0,0.0,0.0,1.0,0.0,2.0,0.0,,,,,,,,,,,,,,,,,,,,,,,,,,,,,,,,,,,,,,,,,,,,,,,,,,,,,,0.0,0.0,32.0,0.045293,1.0,0.0,,,,,,,,,,,,,,,,,,,,,,,,,
50875,1648953002.127251,1648953002.15659,26.0,0.0,4100.0,4601.538574,4170.769043,4468.717772999999,4498.974121,0.0,3.0,73.0,,,,0.0,0.0,0.0,1.0,0.0,2.0,0.0,,,,,,,,13.0,0.0,0.584022,-0.114258,0.092285,0.7983399999999999,0.300786,-0.018555000000000002,-0.9643700000000001,-0.0015140000000000002,-0.012837000000000001,-0.032923,,,,,,,,,,,,,,,,,,,,,,,,,,,,,,,,,,,,,,,,,,,,,,,,,,,,,,,,,,,,,,,,,
50876,1648953002.135065,1648953002.164405,27.0,0.0,4567.179688,4537.94873,3788.718018,4611.794922,4539.487305,0.0,3.0,73.0,,,,0.0,0.0,0.0,1.0,0.0,2.0,0.0,,,,,,,,,,,,,,,,,,,,,,,,,,,,,,,,,,,,,,,,,,,,,,,,,,,,,,,,,,,,,,,,,,,,,,,,,,,,,,,,,,,,
50877,1648953002.14288,1648953002.172119,28.0,0.0,4628.717772999999,4549.743652,3771.281982,4364.615234000001,4207.692383,0.0,3.0,73.0,,,,0.0,0.0,0.0,1.0,0.0,2.0,0.0,,,,,,,,14.0,0.0,0.584022,-0.114258,0.092285,0.7983399999999999,0.307134,-0.017578,-0.9863430000000001,-0.003951,-0.012969999999999999,-0.029532999999999997,,,,,,,,,,,,,,,,,,,,,,,,,,,,,,,,,,,,,,,,,,,,,,,,,,,,,,,,,,,,,,,,,
50878,1648953002.150694,1648953002.179934,29.0,0.0,4163.589844,4408.717772999999,4341.025879,4163.589844,4095.897461,0.0,3.0,73.0,,,,0.0,0.0,0.0,1.0,0.0,2.0,0.0,,,,,,,,,,,,,,,,,,,,,,,,,,,,,,,,,,,,,,,,,,,,,,,,,,,,,,0.0,0.0,32.0,0.045293,1.0,0.0,,,,,,,,,,,,,,,,,,,,,,,,,
50879,1648953002.158509,1648953002.187648,30.0,0.0,4134.871582,4360.512695,4438.974121,4330.769043,4442.05127,0.0,3.0,73.0,,,,0.0,0.0,0.0,1.0,0.0,2.0,0.0,,,,,,,,15.0,0.0,0.5839840000000001,-0.114258,0.092529,0.7983399999999999,0.29736799999999997,-0.020508000000000002,-0.987808,-0.0032630000000000003,-0.012893,-0.032781,,,,,,,,,,,,,,,,,,,,,,,,,,,,,,,,,,,,,,,,,,,,,,,,,,,,,,,,,,,,,,,,,
50880,1648953002.1663241,1648953002.1954632,31.0,0.0,4475.897461,4654.358886999999,3978.461426,4542.05127,4590.256348,0.0,3.0,73.0,,,,0.0,0.0,0.0,1.0,0.0,2.0,0.0,,,,,,,,,,,,,,,,,,,,,,,,,,,,,,,,,,,,,,,,,,,,,,,,,,,,,,,,,,,,,,,,,,,,,,,,,,,,,,,,,,,,
50881,1648953002.174138,1648953002.203177,32.0,0.0,4527.179688,4817.94873,3994.8718259999996,4397.94873,4300.512695,0.0,3.0,73.0,,,,0.0,0.0,0.0,1.0,0.0,2.0,0.0,,,,,,,,16.0,0.0,0.584022,-0.114258,0.092285,0.7983399999999999,0.29395,-0.027344,-0.9785309999999999,-0.002595,-0.012971000000000002,-0.035656,,,,,,,,,,,,,,,,,,,,,,,,,,,,,,,,,,,,,,,,,,,,,,,,,,,,,,,,,,,,,,,,,
50882,1648953002.181953,1648953002.210991,33.0,0.0,4240.512695,4643.589844,4463.077147999999,4061.538574,4171.794922,0.0,3.0,73.0,,,,0.0,0.0,0.0,1.0,0.0,2.0,0.0,,,,,,,,,,,,,,,,,,,,1.0,0.0,0.0,,,,,,,,,,,,,,,,,,,,,,,,,,,,,,,,0.0,0.0,32.0,0.042817,1.0,0.0,82.85038,61.213188,68.49026500000001,146.40631100000002,502.751221,50.500847,341.85778799999997,889.638428,141.586151,62.020351,304.128845,282.802002,968.494568,402.747864,213.17605600000002,187.00950600000002,62.468586,82.941757,145.748978,385.835144,214.62219199999998,164.802353,226.411652,106.57649199999999,438.04895
50883,1648953002.189767,1648953002.2187061,34.0,0.0,4275.897461,4473.333496,4472.307617,4110.769043,4453.333496,0.0,3.0,73.0,,,,0.0,0.0,0.0,1.0,0.0,2.0,0.0,,,,,,,,17.0,0.0,0.583975,-0.11450199999999999,0.092285,0.7983399999999999,0.287114,-0.03125,-0.9716950000000001,0.000741,-0.012943999999999999,-0.038145,,,,,,,,,,,,,,,,,,,,,,,,,,,,,,,,,,,,,,,,,,,,,,,,,,,,,,,,,,,,,,,,,
50884,1648953002.197582,1648953002.2265198,35.0,0.0,4597.94873,4540.0,4181.538574,4330.256348,4573.333496,0.0,3.0,73.0,,,,0.0,0.0,0.0,1.0,0.0,2.0,0.0,,,,,,,,,,,,,,,,,,,,,,,,,,,,,,,,,,,,,,,,,,,,,,,,,,,,,,,,,,,,,,,,,,,,,,,,,,,,,,,,,,,,
50885,1648953002.2053962,1648953002.234235,36.0,0.0,4582.05127,4676.410156,4188.205078,4295.384765999999,4287.692383,0.0,3.0,73.0,,,,0.0,0.0,0.0,1.0,0.0,2.0,0.0,,,,,,,,18.0,0.0,0.583975,-0.11450199999999999,0.092285,0.7983399999999999,0.30811,-0.015137000000000001,-0.993179,0.000276,-0.012968,-0.040483,,,,,,,,,,,,,,,,,,,,,,,,,,,,,,,,,,,,,,,,,,,,,,,,,,,,,,,,,,,,,,,,,
50886,1648953002.2132108,1648953002.24195,37.0,0.0,4223.589844,4710.256348,4431.282227000001,4190.256348,4199.487305,0.0,3.0,73.0,,,,0.0,0.0,0.0,1.0,0.0,2.0,0.0,,,,,,,,,,,,,,,,,,,,,,,,,,,,,,,,,,,,,,,,,,,,,,,,,,,,,,0.0,0.0,32.0,0.042817,1.0,0.0,,,,,,,,,,,,,,,,,,,,,,,,,
50887,1648953002.221025,1648953002.249764,38.0,0.0,4173.846191,4601.538574,4443.589844,4293.846191,4516.922852000001,0.0,3.0,73.0,,,,0.0,0.0,0.0,1.0,0.0,2.0,0.0,,,,,,,,19.0,0.0,0.583936,-0.11450199999999999,0.092529,0.7983399999999999,0.300786,-0.018555000000000002,-0.9677879999999999,0.003081,-0.01294,-0.042538,,,,,,,,,,,,,,,,,,,,,,,,,,,,,,,,,,,,,,,,,,,,,,,,,,,,,,,,,,,,,,,,,
50888,1648953002.22884,1648953002.257479,39.0,0.0,4536.922852000001,4491.282227000001,4266.666504,4430.256348,4571.794922,0.0,3.0,73.0,,,,0.0,0.0,0.0,1.0,0.0,2.0,0.0,,,,,,,,,,,,,,,,,,,,,,,,,,,,,,,,,,,,,,,,,,,,,,,,,,,,,,,,,,,,,,,,,,,,,,,,,,,,,,,,,,,,
50889,1648953002.236655,1648953002.2652938,40.0,0.0,4585.641113000001,4604.615234000001,4281.538574,4350.769043,4369.743652,0.0,3.0,73.0,,,,0.0,0.0,0.0,1.0,0.0,2.0,0.0,,,,,,,,20.0,0.0,0.583936,-0.11450199999999999,0.092529,0.7983399999999999,0.299809,-0.022461000000000002,-0.9834129999999999,0.003163,-0.012916,-0.044241,,,,,,,,,,,,,,,,,,,,,,,,,,,,,,,,,,,,,,,,,,,,,,,,,,,,,,,,,,,,,,,,,
50890,1648953002.244469,1648953002.273008,41.0,0.0,4267.692383,4784.102539,4254.358886999999,4177.94873,4436.922852000001,0.0,3.0,73.0,,,,0.0,0.0,0.0,1.0,0.0,2.0,0.0,,,,,,,,,,,,,,,,,,,,,,,,,,,,,,,,,,,,,,,,,,,,,,,,,,,,,,0.0,0.0,32.0,0.042817,1.0,0.0,,,,,,,,,,,,,,,,,,,,,,,,,
50891,1648953002.252284,1648953002.280823,42.0,0.0,4186.666504,4784.102539,3974.8718259999996,4154.358886999999,4497.94873,0.0,3.0,73.0,,,,0.0,0.0,0.0,1.0,0.0,2.0,0.0,,,,,,,,21.0,0.0,0.583936,-0.11450199999999999,0.092529,0.7983399999999999,0.293462,-0.02295,-0.980972,6.4e-05,-0.012844999999999999,-0.039671,,,,,,,,,,,,,,,,,,,,,,,,,,,,,,,,,,,,,,,,,,,,,,,,,,,,,,,,,,,,,,,,,
50892,1648953002.260098,1648953002.288537,43.0,0.0,4415.384765999999,4622.563965,4031.281982,4465.128418,4403.077147999999,0.0,3.0,73.0,,,,0.0,0.0,0.0,1.0,0.0,2.0,0.0,,,,,,,,,,,,,,,,,,,,,,,,,,,,,,,,,,,,,,,,,,,,,,,,,,,,,,,,,,,,,,,,,,,,,,,,,,,,,,,,,,,,
50893,1648953002.267913,1648953002.296351,44.0,0.0,4555.897461,4472.307617,4401.538574,4541.025879,4347.179688,0.0,3.0,73.0,,,,0.0,0.0,0.0,1.0,0.0,2.0,0.0,,,,,,,,22.0,0.0,0.5839840000000001,-0.114258,0.092529,0.7983399999999999,0.290532,-0.021485,-0.9873200000000001,0.0028899999999999998,-0.012928,-0.041757999999999997,,,,,,,,,,,,,,,,,,,,,,,,,,,,,,,,,,,,,,,,,,,,,,,,,,,,,,,,,,,,,,,,,
50894,1648953002.275727,1648953002.304066,45.0,0.0,4413.846191,4413.333496,4374.871582,4209.230957,4255.897461,0.0,3.0,73.0,,,,0.0,0.0,0.0,1.0,0.0,2.0,0.0,,,,,,,,,,,,,,,,,,,,,,,,,,,,,,,,,,,,,,,,,,,,,,,,,,,,,,0.0,0.0,32.0,0.042817,1.0,0.0,,,,,,,,,,,,,,,,,,,,,,,,,
50895,1648953002.283542,1648953002.31188,46.0,0.0,4104.102539,4438.974121,4276.922852000001,4121.025879,4109.743652,0.0,3.0,73.0,,,,0.0,0.0,0.0,1.0,0.0,2.0,0.0,,,,,,,,23.0,0.0,0.5839840000000001,-0.114258,0.092529,0.7983399999999999,0.29639099999999996,-0.012206999999999999,-0.972671,0.002942,-0.012856,-0.043637,,,,,,,,,,,,,,,,,,,,,,,,,,,,,,,,,,,,,,,,,,,,,,,,,,,,,,,,,,,,,,,,,
50896,1648953002.291356,1648953002.3195949,47.0,0.0,4083.5898439999996,4575.384765999999,4370.256348,4433.846191,4371.282227000001,0.0,3.0,73.0,,,,0.0,0.0,0.0,1.0,0.0,2.0,0.0,,,,,,,,,,,,,,,,,,,,,,,,,,,,,,,,,,,,,,,,,,,,,,,,,,,,,,,,,,,,,,,,,,,,,,,,,,,,,,,,,,,,
50897,1648953002.2991712,1648953002.327409,48.0,0.0,4369.743652,4644.615234000001,4069.2307130000004,4589.230957,4572.820313,0.0,3.0,73.0,,,,0.0,0.0,0.0,1.0,0.0,2.0,0.0,,,,,,,,24.0,0.0,0.583936,-0.11450199999999999,0.092529,0.7983399999999999,0.300298,0.001953,-0.9785309999999999,0.003088,-0.01284,-0.039077999999999995,,,,,,,,,,,,,,,,,,,,,,,,,,,,,,,,,,,,,,,,,,,,,,,,,,,,,,,,,,,,,,,,,
50898,1648953002.3069859,1648953002.335224,49.0,0.0,4502.563965,4559.487305,3695.384521,4427.692383,4275.897461,0.0,3.0,73.0,,,,0.0,0.0,0.0,1.0,0.0,2.0,0.0,,,,,,,,,,,,,,,,,,,,1.0,0.0,0.0,,,,,,,,,,,,,,,,,,,,,,,,,,,,,,,,0.0,0.0,32.0,0.0555,1.0,0.0,85.944176,58.557156000000006,73.9618,139.088074,515.838196,56.365733999999996,339.361938,888.4620970000001,163.125549,78.482338,288.92150899999996,251.50824,931.103027,438.87365700000004,213.485413,193.16949499999998,62.831782999999994,86.348557,133.486099,385.431122,192.887222,157.132217,232.87114,95.513855,432.300812
50899,1648953002.3148,1648953002.3429382,50.0,0.0,4245.641113000001,4458.974121,4089.2307130000004,4212.307617,4095.384521,0.0,3.0,73.0,,,,0.0,0.0,0.0,1.0,0.0,2.0,0.0,,,,,,,,25.0,0.0,0.5839840000000001,-0.114258,0.092529,0.7983399999999999,0.290532,-0.021485,-0.9873200000000001,9.300000000000001e-05,-0.012825,-0.035122,,,,,,,,,,,,,,,,,,,,,,,,,,,,,,,,,,,,,,,,,,,,,,,,,,,,,,,,,,,,,,,,,
50900,1648953002.3226151,1648953002.350653,51.0,0.0,4202.563965,4436.410156,4460.512695,4267.692383,4411.282227000001,0.0,3.0,73.0,,,,0.0,0.0,0.0,1.0,0.0,2.0,0.0,,,,,,,,,,,,,,,,,,,,,,,,,,,,,,,,,,,,,,,,,,,,,,,,,,,,,,,,,,,,,,,,,,,,,,,,,,,,,,,,,,,,
50901,1648953002.3304288,1648953002.358467,52.0,0.0,4507.692383,4545.641113000001,4180.0,4412.307617,4596.410156,0.0,3.0,73.0,,,,0.0,0.0,0.0,1.0,0.0,2.0,0.0,,,,,,,,26.0,0.0,0.583936,-0.11450199999999999,0.092529,0.7983399999999999,0.300298,0.001953,-0.9785309999999999,0.000523,-0.012812,-0.031414,,,,,,,,,,,,,,,,,,,,,,,,,,,,,,,,,,,,,,,,,,,,,,,,,,,,,,,,,,,,,,,,,
50902,1648953002.338244,1648953002.366182,53.0,0.0,4609.230957,4714.358886999999,3937.4357909999994,4331.794922,4345.641113000001,0.0,3.0,73.0,,,,0.0,0.0,0.0,1.0,0.0,2.0,0.0,,,,,,,,,,,,,,,,,,,,,,,,,,,,,,,,,,,,,,,,,,,,,,,,,,,,,,0.0,0.0,32.0,0.0555,1.0,0.0,,,,,,,,,,,,,,,,,,,,,,,,,
50903,1648953002.346058,1648953002.373996,54.0,0.0,4298.974121,4676.410156,4199.487305,4216.410156,4235.897461,0.0,3.0,73.0,,,,0.0,0.0,0.0,1.0,0.0,2.0,0.0,,,,,,,,27.0,0.0,0.583936,-0.11450199999999999,0.092529,0.7983399999999999,0.298833,-0.008301000000000001,-0.992691,0.00091,-0.012849000000000001,-0.034425,,,,,,,,,,,,,,,,,,,,,,,,,,,,,,,,,,,,,,,,,,,,,,,,,,,,,,,,,,,,,,,,,
50904,1648953002.353873,1648953002.381711,55.0,0.0,4161.538574,4442.563965,4424.615234000001,4309.230957,4499.487305,0.0,3.0,73.0,,,,0.0,0.0,0.0,1.0,0.0,2.0,0.0,,,,,,,,,,,,,,,,,,,,,,,,,,,,,,,,,,,,,,,,,,,,,,,,,,,,,,,,,,,,,,,,,,,,,,,,,,,,,,,,,,,,
50905,1648953002.361687,1648953002.389525,56.0,0.0,4504.615234000001,4397.94873,4292.820313,4372.820313,4608.717772999999,0.0,3.0,73.0,,,,0.0,0.0,0.0,1.0,0.0,2.0,0.0,,,,,,,,28.0,0.0,0.5839840000000001,-0.114258,0.092529,0.7983399999999999,0.300298,-0.029297000000000004,-0.9863430000000001,0.0037,-0.012834,-0.037037,,,,,,,,,,,,,,,,,,,,,,,,,,,,,,,,,,,,,,,,,,,,,,,,,,,,,,,,,,,,,,,,,
50906,1648953002.369502,1648953002.397239,57.0,0.0,4593.333496,4634.358886999999,4199.487305,4256.410156,4336.922852000001,0.0,3.0,73.0,,,,0.0,0.0,0.0,1.0,0.0,2.0,0.0,,,,,,,,,,,,,,,,,,,,,,,,,,,,,,,,,,,,,,,,,,,,,,,,,,,,,,0.0,0.0,32.0,0.0555,1.0,0.0,,,,,,,,,,,,,,,,,,,,,,,,,
50907,1648953002.377316,1648953002.4050539,58.0,0.0,4257.94873,4816.410156,4260.512695,4190.256348,4220.512695,0.0,3.0,73.0,,,,0.0,0.0,0.0,1.0,0.0,2.0,0.0,,,,,,,,29.0,0.0,0.5839840000000001,-0.114258,0.092529,0.7983399999999999,0.29443800000000003,-0.016114,-0.977066,0.0037700000000000003,-0.012819999999999998,-0.033138,,,,,,,,,,,,,,,,,,,,,,,,,,,,,,,,,,,,,,,,,,,,,,,,,,,,,,,,,,,,,,,,,
50908,1648953002.3851311,1648953002.412768,59.0,0.0,4132.307617,4777.94873,4146.153809,4233.846191,4441.538574,0.0,3.0,73.0,,,,0.0,0.0,0.0,1.0,0.0,2.0,0.0,,,,,,,,,,,,,,,,,,,,,,,,,,,,,,,,,,,,,,,,,,,,,,,,,,,,,,,,,,,,,,,,,,,,,,,,,,,,,,,,,,,,
50909,1648953002.392946,1648953002.420483,60.0,0.0,4407.179688,4582.563965,4033.8461909999996,4482.563965,4536.410156,0.0,3.0,73.0,,,,0.0,0.0,0.0,1.0,0.0,2.0,0.0,,,,,,,,30.0,0.0,0.5839840000000001,-0.114258,0.092529,0.7983399999999999,0.309575,-0.005371,-0.991714,0.003832,-0.012759,-0.035976999999999995,,,,,,,,,,,,,,,,,,,,,,,,,,,,,,,,,,,,,,,,,,,,,,,,,,,,,,,,,,,,,,,,,
50910,1648953002.40076,1648953002.428298,61.0,0.0,4602.05127,4482.05127,4302.563965,4518.974121,4280.0,0.0,3.0,73.0,,,,0.0,0.0,0.0,1.0,0.0,2.0,0.0,,,,,,,,,,,,,,,,,,,,,,,,,,,,,,,,,,,,,,,,,,,,,,,,,,,,,,0.0,0.0,32.0,0.0555,1.0,0.0,,,,,,,,,,,,,,,,,,,,,,,,,
50911,1648953002.408575,1648953002.436012,62.0,0.0,4416.922852000001,4605.128418,4468.717772999999,4207.692383,4167.179688,0.0,3.0,73.0,,,,0.0,0.0,0.0,1.0,0.0,2.0,0.0,,,,,,,,31.0,0.0,0.584022,-0.114258,0.092285,0.7983399999999999,0.293462,-0.023926,-0.968277,0.0038399999999999997,-0.012704,-0.032233,,,,,,,,,,,,,,,,,,,,,,,,,,,,,,,,,,,,,,,,,,,,,,,,,,,,,,,,,,,,,,,,,
50912,1648953002.416389,1648953002.443827,63.0,0.0,4113.333496,4716.922852000001,4069.2307130000004,4103.589844,4278.461426,0.0,3.0,73.0,,,,0.0,0.0,0.0,1.0,0.0,2.0,0.0,,,,,,,,,,,,,,,,,,,,,,,,,,,,,,,,,,,,,,,,,,,,,,,,,,,,,,,,,,,,,,,,,,,,,,,,,,,,,,,,,,,,
50913,1648953002.4242039,1648953002.451541,64.0,0.0,4215.897461,4743.077147999999,3827.179443,4438.461426,4467.692383,450.0,3.0,73.0,,,,0.0,0.0,0.0,1.0,0.0,2.0,0.0,,,,,,,,32.0,0.0,0.584022,-0.114258,0.092285,0.7983399999999999,0.29395,-0.013184,-0.983902,0.003065,-0.012703,-0.035162,,,,,,,,,,,,,,,,,,,,,,,,,,,,,,,,,,,,,,,,,,,,,,,,,,,,,,,,,,,,,,,,,
50914,1648953002.432018,1648953002.459356,65.0,0.0,4447.179688,4589.230957,4056.4101560000004,4588.717772999999,4503.589844,450.0,3.0,73.0,,,,0.0,0.0,0.0,1.0,0.0,2.0,0.0,0.972656,0.0,0.0,0.0,0.0,0.0,0.0,,,,,,,,,,,,,1.0,0.0,0.0,,,,,,,,,,,,,,,,,,,,,,,,,,,,,,,,0.0,0.0,32.0,0.055795000000000004,1.0,0.0,87.93184699999999,56.102665,72.466415,127.23741899999999,523.785217,75.782364,308.471527,808.591003,196.564026,100.612617,280.939819,226.240692,856.359497,490.87335199999995,227.795944,200.516953,62.525195999999994,87.187042,116.94589199999999,386.830444,176.914673,142.864685,222.575119,82.86183199999999,421.67688
50915,1648953002.439833,1648953002.4670699,66.0,0.0,4357.436035,4294.871582,4181.025879,4335.897461,4304.102539,35.0,3.0,73.0,,,,0.0,0.0,0.0,1.0,0.0,2.0,0.0,,,,,,,,33.0,0.0,0.584022,-0.114258,0.092285,0.7983399999999999,0.293462,-0.013184,-0.9741360000000001,0.005493,-0.0128,-0.037798000000000005,,,,,,,,,,,,,,,,,,,,,,,,,,,,,,,,,,,,,,,,,,,,,,,,,,,,,,,,,,,,,,,,,
50916,1648953002.447647,1648953002.474885,67.0,0.0,4095.384521,4260.512695,4240.512695,4143.077147999999,4132.820313,450.0,3.0,73.0,,,,0.0,0.0,0.0,1.0,0.0,2.0,0.0,,,,,,,,,,,,,,,,,,,,,,,,,,,,,,,,,,,,,,,,,,,,,,,,,,,,,,,,,,,,,,,,,,,,,,,,,,,,,,,,,,,,
50917,1648953002.455462,1648953002.482599,68.0,0.0,4195.897461,4441.538574,4354.871582,4313.333496,4347.179688,106.0,3.0,73.0,,,,0.0,0.0,1.0,1.0,0.0,2.0,8.333333,,,,,,,,34.0,0.0,0.584022,-0.114258,0.092285,0.7983399999999999,0.30518,-0.013672,-0.9873200000000001,0.007776000000000001,-0.012692,-0.040024000000000004,,,,,,,,,,,,,,,,,,,,,,,,,,,,,,,,,,,,,,,,,,,,,,,,,,,,,,,,,,,,,,,,,
50918,1648953002.4632769,1648953002.4904132,69.0,0.0,4512.307617,4526.153809,4250.256348,4479.487305,4590.769043,450.0,3.0,73.0,,,,0.0,0.0,1.0,1.0,0.0,2.0,8.333333,,,,,,,,,,,,,,,,,,,,,,,,,,,,,,,,,,,,,,,,,,,,,,,,,,,,,,0.0,0.0,32.0,0.055795000000000004,1.0,0.0,,,,,,,,,,,,,,,,,,,,,,,,,
50919,1648953002.471091,1648953002.498128,70.0,0.0,4561.025879,4646.666504,4178.461426,4296.410156,4395.897461,0.0,3.0,73.0,,,,0.0,0.0,1.0,0.0,0.0,2.0,0.0,,,,,,,,35.0,0.0,0.5839840000000001,-0.114258,0.092529,0.7983399999999999,0.30811,-0.02002,-0.9863430000000001,0.004264,-0.012740999999999999,-0.035827,,,,,,,,,,,,,,,,,,,,,,,,,,,,,,,,,,,,,,,,,,,,,,,,,,,,,,,,,,,,,,,,,
50920,1648953002.4789062,1648953002.505942,71.0,0.0,4291.794922,4835.384765999999,4454.871582,4051.794922,4207.692383,450.0,3.0,73.0,,,,0.0,0.0,1.0,0.0,0.0,2.0,0.0,,,,,,,,,,,,,,,,,,,,,,,,,,,,,,,,,,,,,,,,,,,,,,,,,,,,,,,,,,,,,,,,,,,,,,,,,,,,,,,,,,,,
50921,1648953002.4867198,1648953002.513657,72.0,0.0,4165.128418,4755.384765999999,4506.153809,4144.615234000001,4407.692383,450.0,3.0,73.0,,,,0.0,0.0,1.0,0.0,1.0,2.0,8.333333,,,,,,,,36.0,0.0,0.584022,-0.114258,0.092285,0.7983399999999999,0.298344,-0.015137000000000001,-0.975601,0.001005,-0.012736,-0.032195,,,,,,,,,,,,,,,,,,,,,,,,,,,,,,,,,,,,,,,,,,,,,,,,,,,,,,,,,,,,,,,,,
50922,1648953002.494535,1648953002.521471,73.0,0.0,4478.461426,4542.563965,4288.205078,4418.461426,4572.820313,65.0,3.0,73.0,,,,0.0,0.0,1.0,0.0,1.0,2.0,8.333333,,,,,,,,,,,,,,,,,,,,,,,,,,,,,,,,,,,,,,,,,,,,,,,,,,,,,,0.0,0.0,32.0,0.055795000000000004,1.0,0.0,,,,,,,,,,,,,,,,,,,,,,,,,
50923,1648953002.5023491,1648953002.529186,74.0,0.0,4630.256348,4496.922852000001,4352.307617,4389.743652,4418.461426,450.0,3.0,73.0,,,,0.0,0.0,1.0,0.0,1.0,2.0,8.333333,,,,,,,,37.0,0.0,0.584022,-0.114258,0.092285,0.7983399999999999,0.290532,-0.01709,-0.983902,0.0036880000000000003,-0.012830000000000001,-0.03503,,,,,,,,,,,,,,,,,,,,,,,,,,,,,,,,,,,,,,,,,,,,,,,,,,,,,,,,,,,,,,,,,
50924,1648953002.510164,1648953002.536901,75.0,0.0,4363.589844,4514.871582,4334.358886999999,4154.871582,4255.384765999999,0.0,3.0,73.0,,,,0.0,0.0,1.0,0.0,1.0,0.0,0.0,,,,,,,,,,,,,,,,,,,,,,,,,,,,,,,,,,,,,,,,,,,,,,,,,,,,,,,,,,,,,,,,,,,,,,,,,,,,,,,,,,,,
50925,1648953002.517978,1648953002.544715,76.0,0.0,4159.487305,4623.077147999999,4017.9487299999996,4108.717772999999,4223.077147999999,450.0,3.0,73.0,,,,0.0,0.0,1.0,0.0,1.0,0.0,0.0,,,,,,,,38.0,0.0,0.584022,-0.114258,0.092285,0.7983399999999999,0.29688000000000003,-0.017578,-0.9673,0.003759,-0.01267,-0.03143,,,,,,,,,,,,,,,,,,,,,,,,,,,,,,,,,,,,,,,,,,,,,,,,,,,,,,,,,,,,,,,,,
50926,1648953002.525793,1648953002.55253,77.0,0.0,4347.179688,4748.717772999999,4062.5642090000006,4439.487305,4373.333496,450.0,3.0,73.0,,,,0.0,0.0,1.0,0.0,1.0,0.0,0.0,,,,,,,,,,,,,,,,,,,,,,,,,,,,,,,,,,,,,,,,,,,,,,,,,,,,,,0.0,0.0,32.0,0.055795000000000004,1.0,0.0,,,,,,,,,,,,,,,,,,,,,,,,,
50927,1648953002.533607,1648953002.5602438,78.0,0.0,4605.641113000001,4601.025879,4384.102539,4582.05127,4435.897461,450.0,3.0,73.0,,,,0.0,0.0,1.0,0.0,1.0,0.0,0.0,,,,,,,,39.0,0.0,0.584022,-0.114258,0.092285,0.7983399999999999,0.291997,-0.006836,-0.9858549999999999,0.003725,-0.012624,-0.028043000000000002,,,,,,,,,,,,,,,,,,,,,,,,,,,,,,,,,,,,,,,,,,,,,,,,,,,,,,,,,,,,,,,,,
50928,1648953002.5414221,1648953002.568059,79.0,0.0,4516.922852000001,4415.897461,4353.846191,4298.461426,4230.256348,0.0,3.0,73.0,,,,0.0,0.0,1.0,0.0,1.0,0.0,0.0,,,,,,,,,,,,,,,,,,,,,,,,,,,,,,,,,,,,,,,,,,,,,,,,,,,,,,,,,,,,,,,,,,,,,,,,,,,,,,,,,,,,
50929,1648953002.549237,1648953002.575773,80.0,0.0,4124.102539,4509.230957,4211.282227000001,4117.436035,4043.5898439999996,450.0,3.0,73.0,,,,0.0,0.0,1.0,0.0,1.0,0.0,0.0,,,,,,,,40.0,0.0,0.584022,-0.114258,0.092285,0.7983399999999999,0.284672,-0.010254000000000001,-0.978042,0.0039380000000000005,-0.012631,-0.031439999999999996,,,,,,,,,,,,,,,,,,,,,,,,,,,,,,,,,,,,,,,,,,,,,,,,,,,,,,,,,,,,,,,,,
50930,1648953002.557051,1648953002.5835881,81.0,0.0,4045.1281740000004,4624.102539,4192.307617,4356.922852000001,4353.333496,450.0,3.0,73.0,,,,0.0,0.0,1.0,0.0,1.0,0.0,0.0,,,,,,,,,,,,,,,,,,,,1.0,0.0,0.0,,,,,,,,,,,,,,,,,,,,,,,,,,,,,,,,0.0,0.0,32.0,0.060767999999999996,1.0,0.0,91.472427,54.695206000000006,65.29806500000001,112.13774099999999,522.840637,107.296097,258.387451,665.181824,235.443069,121.921356,282.611115,204.540024,733.28479,540.987976,249.539551,207.157669,61.363686,84.588852,99.96254,387.695648,167.893509,124.423721,198.695618,71.145615,405.327454
50931,1648953002.564866,1648953002.591302,82.0,0.0,4340.0,4614.358886999999,3980.0,4586.666504,4601.538574,450.0,3.0,73.0,,,,0.0,0.0,1.0,0.0,1.0,0.0,0.0,,,,,,,,41.0,0.0,0.584022,-0.114258,0.092285,0.7983399999999999,0.292973,-0.013184,-0.997086,0.004033,-0.012637,-0.03435,,,,,,,,,,,,,,,,,,,,,,,,,,,,,,,,,,,,,,,,,,,,,,,,,,,,,,,,,,,,,,,,,
50932,1648953002.57268,1648953002.599117,83.0,0.0,4498.974121,4624.615234000001,3913.3332520000004,4475.384765999999,4321.538574,0.0,3.0,73.0,,,,0.0,0.0,1.0,0.0,1.0,0.0,0.0,,,,,,,,,,,,,,,,,,,,,,,,,,,,,,,,,,,,,,,,,,,,,,,,,,,,,,,,,,,,,,,,,,,,,,,,,,,,,,,,,,,,
50933,1648953002.5804949,1648953002.606831,84.0,0.0,4267.692383,4549.743652,4362.563965,4147.179688,4090.7692869999996,450.0,3.0,73.0,,,,0.0,0.0,1.0,0.0,1.0,0.0,0.0,,,,,,,,42.0,0.0,0.584022,-0.114258,0.092285,0.7983399999999999,0.292973,-0.028808999999999998,-0.9633940000000001,0.000797,-0.012643000000000001,-0.030769,,,,,,,,,,,,,,,,,,,,,,,,,,,,,,,,,,,,,,,,,,,,,,,,,,,,,,,,,,,,,,,,,
50934,1648953002.588309,1648953002.6146462,85.0,0.0,4212.820313,4400.512695,4489.230957,4075.897461,4335.384765999999,450.0,3.0,73.0,,,,0.0,0.0,1.0,0.0,1.0,0.0,0.0,,,,,,,,,,,,,,,,,,,,,,,,,,,,,,,,,,,,,,,,,,,,,,,,,,,,,,0.0,0.0,32.0,0.060767999999999996,1.0,0.0,,,,,,,,,,,,,,,,,,,,,,,,,
50935,1648953002.596124,1648953002.62236,86.0,0.0,4481.538574,4493.846191,4127.692383,4281.538574,4579.487305,450.0,3.0,73.0,,,,0.0,0.0,1.0,0.0,1.0,0.0,0.0,,,,,,,,43.0,0.0,0.584022,-0.114258,0.092285,0.7983399999999999,0.305669,-0.019532,-0.99025,0.001255,-0.012844,-0.033698,,,,,,,,,,,,,,,,,,,,,,,,,,,,,,,,,,,,,,,,,,,,,,,,,,,,,,,,,,,,,,,,,
50936,1648953002.603938,1648953002.630075,87.0,0.0,4503.589844,4738.974121,4178.461426,4298.974121,4407.692383,0.0,3.0,73.0,,,,0.0,0.0,1.0,0.0,1.0,0.0,0.0,,,,,,,,,,,,,,,,,,,,,,,,,,,,,,,,,,,,,,,,,,,,,,,,,,,,,,,,,,,,,,,,,,,,,,,,,,,,,,,,,,,,
50937,1648953002.611753,1648953002.6378891,88.0,0.0,4280.0,4834.358886999999,4249.230957,4125.641113000001,4101.538574,450.0,3.0,73.0,,,,0.0,0.0,1.0,0.0,1.0,0.0,0.0,,,,,,,,44.0,0.0,0.584022,-0.114258,0.092285,0.7983399999999999,0.297856,-0.012206999999999999,-0.973159,0.0016170000000000002,-0.012828999999999998,-0.036383,,,,,,,,,,,,,,,,,,,,,,,,,,,,,,,,,,,,,,,,,,,,,,,,,,,,,,,,,,,,,,,,,
50938,1648953002.6195679,1648953002.645604,89.0,0.0,4186.666504,4817.94873,4006.1538090000004,4157.94873,4056.923096,450.0,3.0,73.0,,,,0.0,0.0,1.0,0.0,1.0,0.0,0.0,,,,,,,,,,,,,,,,,,,,,,,,,,,,,,,,,,,,,,,,,,,,,,,,,,,,,,0.0,0.0,32.0,0.060767999999999996,1.0,0.0,,,,,,,,,,,,,,,,,,,,,,,,,
50939,1648953002.627382,1648953002.653418,90.0,0.0,4349.230957,4725.641113000001,4100.512695,4480.0,4272.307617,450.0,3.0,73.0,,,,0.0,0.0,1.0,0.0,1.0,0.0,0.0,,,,,,,,45.0,0.0,0.584022,-0.114258,0.092285,0.7983399999999999,0.294926,-0.023438,-0.977066,0.00419,-0.012962000000000001,-0.038751,,,,,,,,,,,,,,,,,,,,,,,,,,,,,,,,,,,,,,,,,,,,,,,,,,,,,,,,,,,,,,,,,
50940,1648953002.6351972,1648953002.661133,91.0,0.0,4632.820313,4644.102539,4383.077147999999,4581.025879,4338.461426,0.0,3.0,73.0,,,,0.0,0.0,1.0,0.0,1.0,0.0,0.0,,,,,,,,,,,,,,,,,,,,,,,,,,,,,,,,,,,,,,,,,,,,,,,,,,,,,,,,,,,,,,,,,,,,,,,,,,,,,,,,,,,,
50941,1648953002.6430109,1648953002.668947,92.0,0.0,4693.333496,4674.871582,4163.077147999999,4373.333496,4218.974121,450.0,3.0,73.0,,,,0.0,0.0,1.0,0.0,1.0,0.0,0.0,,,,,,,,46.0,0.0,0.584022,-0.114258,0.092285,0.7983399999999999,0.29639099999999996,-0.015625,-0.9677879999999999,0.004211,-0.012984,-0.040881,,,,,,,,,,,,,,,,,,,,,,,,,,,,,,,,,,,,,,,,,,,,,,,,,,,,,,,,,,,,,,,,,
50942,1648953002.650826,1648953002.676662,93.0,0.0,4234.871582,4608.717772999999,3990.256348,4182.563965,4151.794922,450.0,3.0,73.0,,,,0.0,0.0,1.0,0.0,1.0,0.0,0.0,,,,,,,,,,,,,,,,,,,,,,,,,,,,,,,,,,,,,,,,,,,,,,,,,,,,,,0.0,0.0,32.0,0.060767999999999996,1.0,0.0,,,,,,,,,,,,,,,,,,,,,,,,,
50943,1648953002.6586401,1648953002.684476,94.0,0.0,3970.256348,4443.077147999999,4136.922852000001,4307.692383,4382.05127,450.0,3.0,73.0,,,,0.0,0.0,1.0,0.0,1.0,0.0,0.0,,,,,,,,47.0,0.0,0.584022,-0.114258,0.092285,0.7983399999999999,0.295415,-0.011231,-0.977554,0.006573000000000001,-0.013151,-0.042848000000000004,,,,,,,,,,,,,,,,,,,,,,,,,,,,,,,,,,,,,,,,,,,,,,,,,,,,,,,,,,,,,,,,,
50944,1648953002.666455,1648953002.6921911,95.0,0.0,4324.102539,4527.692383,3885.1281740000004,4548.205078,4605.128418,0.0,3.0,73.0,,,,0.0,0.0,1.0,0.0,1.0,0.0,0.0,,,,,,,,,,,,,,,,,,,,,,,,,,,,,,,,,,,,,,,,,,,,,,,,,,,,,,,,,,,,,,,,,,,,,,,,,,,,,,,,,,,,
50945,1648953002.674269,1648953002.700005,96.0,0.0,4568.205078,4678.461426,3913.3332520000004,4575.897461,4494.871582,450.0,3.0,73.0,,,,0.0,0.0,1.0,0.0,1.0,0.0,0.0,,,,,,,,48.0,0.0,0.584022,-0.114258,0.092285,0.7983399999999999,0.299809,-0.023438,-0.991226,0.003181,-0.013153999999999999,-0.038368,,,,,,,,,,,,,,,,,,,,,,,,,,,,,,,,,,,,,,,,,,,,,,,,,,,,,,,,,,,,,,,,,
50946,1648953002.682084,1648953002.7077198,97.0,0.0,4332.820313,4593.846191,4555.897461,4249.230957,4202.563965,450.0,3.0,73.0,,,,0.0,0.0,1.0,0.0,1.0,0.0,0.0,,,,,,,,,,,,,,,,,,,,1.0,0.0,0.0,,,,,,,,,,,,,,,,,,,,,,,,,,,,,,,,0.0,0.0,32.0,0.062856,1.0,0.0,98.096329,53.781344999999995,55.756073,95.040009,513.9987179999999,145.35514799999999,202.127274,495.06283600000006,273.46176099999997,135.517441,293.13183599999996,182.194748,572.548767,574.289001,271.370422,209.275452,60.152687,78.773697,85.25878900000001,384.992004,162.764084,104.871376,167.00096100000002,61.458149,385.497223
50947,1648953002.689898,1648953002.715534,98.0,0.0,4137.94873,4518.461426,4641.025879,4003.076904,4259.487305,450.0,3.0,73.0,,,,0.0,0.0,1.0,0.0,1.0,0.0,0.0,,,,,,,,49.0,0.0,0.5839840000000001,-0.114258,0.092529,0.7983399999999999,0.295415,-0.014649,-0.972183,0.003254,-0.013108000000000002,-0.040586000000000004,,,,,,,,,,,,,,,,,,,,,,,,,,,,,,,,,,,,,,,,,,,,,,,,,,,,,,,,,,,,,,,,,
50948,1648953002.6977131,1648953002.723249,99.0,0.0,4178.461426,4472.307617,4180.0,4282.563965,4563.077147999999,0.0,3.0,73.0,,,,0.0,0.0,1.0,0.0,1.0,0.0,0.0,,,,,,,,,,,,,,,,,,,,,,,,,,,,,,,,,,,,,,,,,,,,,,,,,,,,,,,,,,,,,,,,,,,,,,,,,,,,,,,,,,,,
50949,1648953002.705528,1648953002.7310631,100.0,0.0,4400.512695,4411.794922,4034.8718259999996,4600.512695,4567.692383,450.0,3.0,73.0,,,,0.0,0.0,1.0,0.0,1.0,0.0,0.0,,,,,,,,50.0,0.0,0.584022,-0.114258,0.092285,0.7983399999999999,0.289067,-0.02295,-0.9897610000000001,0.000291,-0.013018,-0.036479000000000004,,,,,,,,,,,,,,,,,,,,,,,,,,,,,,,,,,,,,,,,,,,,,,,,,,,,,,,,,,,,,,,,,
50950,1648953002.713342,1648953002.738777,101.0,0.0,4510.769043,4614.358886999999,4034.358887,4364.615234000001,4235.384765999999,450.0,3.0,73.0,,,,0.0,0.0,1.0,0.0,1.0,0.0,0.0,,,,,,,,,,,,,,,,,,,,,,,,,,,,,,,,,,,,,,,,,,,,,,,,,,,,,,0.0,0.0,32.0,0.062856,1.0,0.0,,,,,,,,,,,,,,,,,,,,,,,,,
50951,1648953002.721157,1648953002.746592,102.0,0.0,4291.282227000001,4873.846191,4051.281982,4087.6923829999996,4022.0512700000004,450.0,3.0,73.0,,,,0.0,0.0,1.0,0.0,1.0,0.0,0.0,,,,,,,,51.0,0.0,0.584022,-0.114258,0.092285,0.7983399999999999,0.303227,-0.010742,-0.977066,0.000799,-0.012937,-0.039081,,,,,,,,,,,,,,,,,,,,,,,,,,,,,,,,,,,,,,,,,,,,,,,,,,,,,,,,,,,,,,,,,
50952,1648953002.728971,1648953002.754306,103.0,0.0,4165.641113000001,4815.897461,4304.615234000001,4248.205078,4208.205078,0.0,3.0,73.0,,,,0.0,0.0,1.0,0.0,1.0,0.0,0.0,,,,,,,,,,,,,,,,,,,,,,,,,,,,,,,,,,,,,,,,,,,,,,,,,,,,,,,,,,,,,,,,,,,,,,,,,,,,,,,,,,,,
50953,1648953002.736786,1648953002.7621212,104.0,0.0,4453.333496,4620.0,4311.794922,4502.563965,4518.974121,450.0,3.0,73.0,,,,0.0,0.0,1.0,0.0,1.0,0.0,0.0,,,,,,,,52.0,0.0,0.5839840000000001,-0.114258,0.092529,0.7983399999999999,0.29639099999999996,-0.013184,-0.965835,0.000671,-0.012962000000000001,-0.034977,,,,,,,,,,,,,,,,,,,,,,,,,,,,,,,,,,,,,,,,,,,,,,,,,,,,,,,,,,,,,,,,,
50954,1648953002.7446,1648953002.769835,105.0,0.0,4611.794922,4457.94873,4354.871582,4487.692383,4562.05127,450.0,3.0,73.0,,,,0.0,0.0,1.0,0.0,1.0,0.0,0.0,,,,,,,,,,,,,,,,,,,,,,,,,,,,,,,,,,,,,,,,,,,,,,,,,,,,,,0.0,0.0,32.0,0.062856,1.0,0.0,,,,,,,,,,,,,,,,,,,,,,,,,
50955,1648953002.752415,1648953002.77765,106.0,0.0,4298.461426,4353.846191,4601.538574,4262.05127,4307.692383,450.0,3.0,73.0,,,,0.0,0.0,1.0,0.0,1.0,0.0,0.0,,,,,,,,53.0,0.0,0.584022,-0.114258,0.092285,0.7983399999999999,0.289067,-0.02295,-0.9897610000000001,-0.002082,-0.012934999999999999,-0.031431,,,,,,,,,,,,,,,,,,,,,,,,,,,,,,,,,,,,,,,,,,,,,,,,,,,,,,,,,,,,,,,,,
50956,1648953002.7602289,1648953002.7853642,107.0,0.0,4071.794922,4389.230957,4492.820313,4220.512695,4160.0,0.0,3.0,73.0,,,,0.0,0.0,1.0,0.0,1.0,0.0,0.0,,,,,,,,,,,,,,,,,,,,,,,,,,,,,,,,,,,,,,,,,,,,,,,,,,,,,,,,,,,,,,,,,,,,,,,,,,,,,,,,,,,,
50957,1648953002.768044,1648953002.793079,108.0,0.0,4181.025879,4446.153809,4281.538574,4323.589844,4386.666504,450.0,3.0,73.0,,,,0.0,0.0,1.0,0.0,1.0,0.0,0.0,,,,,,,,54.0,0.0,0.5839840000000001,-0.114258,0.092529,0.7983399999999999,0.29639099999999996,-0.013184,-0.965835,-0.001923,-0.01296,-0.028092000000000002,,,,,,,,,,,,,,,,,,,,,,,,,,,,,,,,,,,,,,,,,,,,,,,,,,,,,,,,,,,,,,,,,
50958,1648953002.7758589,1648953002.800894,109.0,0.0,4464.615234000001,4472.820313,4175.384765999999,4359.487305,4636.410156,450.0,3.0,73.0,,,,0.0,0.0,1.0,0.0,1.0,0.0,0.0,,,,,,,,,,,,,,,,,,,,,,,,,,,,,,,,,,,,,,,,,,,,,,,,,,,,,,0.0,0.0,32.0,0.062856,1.0,0.0,,,,,,,,,,,,,,,,,,,,,,,,,
50959,1648953002.783673,1648953002.808708,110.0,0.0,4523.589844,4638.974121,4064.615479,4245.641113000001,4392.307617,450.0,3.0,73.0,,,,0.0,0.0,1.0,0.0,1.0,0.0,0.0,,,,,,,,55.0,0.0,0.584022,-0.114258,0.092285,0.7983399999999999,0.301762,-0.020508000000000002,-0.995132,-0.001389,-0.012933000000000002,-0.031436,,,,,,,,,,,,,,,,,,,,,,,,,,,,,,,,,,,,,,,,,,,,,,,,,,,,,,,,,,,,,,,,,
50960,1648953002.7914882,1648953002.816423,111.0,0.0,4269.743652,4829.230957,4129.230957,4144.102539,4161.025879,0.0,3.0,73.0,,,,0.0,0.0,1.0,0.0,1.0,0.0,0.0,,,,,,,,,,,,,,,,,,,,,,,,,,,,,,,,,,,,,,,,,,,,,,,,,,,,,,,,,,,,,,,,,,,,,,,,,,,,,,,,,,,,
50961,1648953002.7993019,1648953002.824137,112.0,0.0,4094.8718259999996,4815.384765999999,4177.94873,4126.666504,4294.871582,450.0,3.0,73.0,,,,0.0,0.0,1.0,0.0,1.0,0.0,0.0,,,,,,,,56.0,0.0,0.584022,-0.114258,0.092285,0.7983399999999999,0.293462,-0.012695999999999999,-0.956558,0.001485,-0.012959,-0.034347,,,,,,,,,,,,,,,,,,,,,,,,,,,,,,,,,,,,,,,,,,,,,,,,,,,,,,,,,,,,,,,,,
50962,1648953002.807117,1648953002.8319519,113.0,0.0,4339.487305,4700.512695,4153.846191,4346.666504,4429.743652,450.0,3.0,73.0,,,,0.0,0.0,1.0,0.0,1.0,0.0,0.0,,,,,,,,,,,,,,,,,,,,1.0,0.0,0.0,,,,,,,,,,,,,,,,,,,,,,,,,,,,,,,,0.0,0.0,32.0,0.060132000000000005,1.0,0.0,107.34494,52.107903,47.661865,80.33075,502.64794900000004,181.657074,150.902451,339.053558,306.207764,137.40936299999998,307.363312,158.620117,402.58264199999996,586.591003,288.686523,203.173691,60.447669999999995,70.510338,75.291138,377.542816,155.69368,88.327423,133.800964,54.613921999999995,366.465942
50963,1648953002.8149312,1648953002.839667,114.0,0.0,4595.384765999999,4525.641113000001,4415.897461,4557.94873,4298.974121,450.0,3.0,73.0,,,,0.0,0.0,1.0,0.0,1.0,0.0,0.0,,,,,,,,57.0,0.0,0.5839840000000001,-0.114258,0.092529,0.7983399999999999,0.299321,-0.014649,-0.973159,0.001727,-0.012931999999999999,-0.030813999999999998,,,,,,,,,,,,,,,,,,,,,,,,,,,,,,,,,,,,,,,,,,,,,,,,,,,,,,,,,,,,,,,,,
50964,1648953002.822746,1648953002.847481,115.0,0.0,4558.461426,4272.820313,4491.282227000001,4384.615234000001,4127.692383,0.0,3.0,73.0,,,,0.0,0.0,1.0,0.0,1.0,0.0,0.0,,,,,,,,,,,,,,,,,,,,,,,,,,,,,,,,,,,,,,,,,,,,,,,,,,,,,,,,,,,,,,,,,,,,,,,,,,,,,,,,,,,,
50965,1648953002.83056,1648953002.855196,116.0,0.0,4264.615234000001,4230.769043,4294.358886999999,4086.1538090000004,4074.8718259999996,450.0,3.0,73.0,,,,0.0,0.0,1.0,0.0,1.0,0.0,0.0,,,,,,,,58.0,0.0,0.5839840000000001,-0.114258,0.092529,0.7983399999999999,0.299809,-0.010742,-0.99025,0.001994,-0.012909,-0.033885000000000005,,,,,,,,,,,,,,,,,,,,,,,,,,,,,,,,,,,,,,,,,,,,,,,,,,,,,,,,,,,,,,,,,
50966,1648953002.838375,1648953002.86301,117.0,0.0,4077.4357909999994,4436.410156,4297.436035,4155.384765999999,4253.333496,450.0,3.0,73.0,,,,0.0,0.0,1.0,0.0,1.0,0.0,0.0,,,,,,,,,,,,,,,,,,,,,,,,,,,,,,,,,,,,,,,,,,,,,,,,,,,,,,0.0,0.0,32.0,0.060132000000000005,1.0,0.0,,,,,,,,,,,,,,,,,,,,,,,,,
50967,1648953002.846189,1648953002.870724,118.0,0.0,4261.025879,4557.436035,4112.820313,4443.589844,4552.820313,450.0,3.0,73.0,,,,0.0,0.0,1.0,0.0,1.0,0.0,0.0,,,,,,,,59.0,0.0,0.5839840000000001,-0.114258,0.092529,0.7983399999999999,0.300786,-0.011231,-0.9673,0.0014039999999999999,-0.012790000000000001,-0.036649,,,,,,,,,,,,,,,,,,,,,,,,,,,,,,,,,,,,,,,,,,,,,,,,,,,,,,,,,,,,,,,,,
50968,1648953002.854004,1648953002.878539,119.0,0.0,4469.743652,4604.615234000001,3825.641113,4523.589844,4517.436035,0.0,3.0,73.0,,,,0.0,0.0,1.0,0.0,1.0,0.0,0.0,,,,,,,,,,,,,,,,,,,,,,,,,,,,,,,,,,,,,,,,,,,,,,,,,,,,,,,,,,,,,,,,,,,,,,,,,,,,,,,,,,,,
50969,1648953002.861819,1648953002.8862529,120.0,0.0,4413.846191,4707.179688,4237.436035,4270.256348,4221.538574,450.0,3.0,73.0,,,,0.0,0.0,1.0,0.0,1.0,0.0,0.0,,,,,,,,60.0,0.0,0.5839840000000001,-0.114258,0.092529,0.7983399999999999,0.29395,-0.014649,-0.980972,0.004291,-0.012828999999999998,-0.039088,,,,,,,,,,,,,,,,,,,,,,,,,,,,,,,,,,,,,,,,,,,,,,,,,,,,,,,,,,,,,,,,,
50970,1648953002.869633,1648953002.894068,121.0,0.0,4257.94873,4730.256348,4657.94873,4051.794922,4183.077147999999,450.0,3.0,73.0,,,,0.0,0.0,1.0,0.0,1.0,0.0,0.0,,,,,,,,,,,,,,,,,,,,,,,,,,,,,,,,,,,,,,,,,,,,,,,,,,,,,,0.0,0.0,32.0,0.060132000000000005,1.0,0.0,,,,,,,,,,,,,,,,,,,,,,,,,
50971,1648953002.877448,1648953002.901782,122.0,0.0,4263.589844,4589.230957,4560.512695,4280.512695,4450.769043,450.0,3.0,73.0,,,,0.0,0.0,1.0,0.0,1.0,0.0,0.0,,,,,,,,61.0,0.0,0.5839840000000001,-0.114258,0.092529,0.7983399999999999,0.295415,-0.008301000000000001,-0.980972,0.004252000000000001,-0.012816,-0.035082,,,,,,,,,,,,,,,,,,,,,,,,,,,,,,,,,,,,,,,,,,,,,,,,,,,,,,,,,,,,,,,,,
50972,1648953002.885262,1648953002.9095972,123.0,0.0,4541.025879,4438.461426,4549.230957,4466.153809,4603.077147999999,0.0,3.0,73.0,,,,0.0,0.0,1.0,0.0,1.0,0.0,0.0,,,,,,,,,,,,,,,,,,,,,,,,,,,,,,,,,,,,,,,,,,,,,,,,,,,,,,,,,,,,,,,,,,,,,,,,,,,,,,,,,,,,
50973,1648953002.893077,1648953002.917311,124.0,0.0,4705.128418,4457.436035,4508.717772999999,4329.743652,4443.589844,450.0,3.0,73.0,,,,0.0,0.0,1.0,0.0,1.0,0.0,0.0,,,,,,,,62.0,0.0,0.5839840000000001,-0.114258,0.092529,0.7983399999999999,0.304692,-0.010254000000000001,-0.972671,0.0066099999999999996,-0.012804,-0.037579,,,,,,,,,,,,,,,,,,,,,,,,,,,,,,,,,,,,,,,,,,,,,,,,,,,,,,,,,,,,,,,,,
50974,1648953002.900891,1648953002.925126,125.0,0.0,4238.974121,4575.897461,4210.256348,4220.512695,4125.128418,450.0,3.0,73.0,,,,0.0,0.0,1.0,0.0,1.0,0.0,0.0,,,,,,,,,,,,,,,,,,,,,,,,,,,,,,,,,,,,,,,,,,,,,,,,,,,,,,0.0,0.0,32.0,0.060132000000000005,1.0,0.0,,,,,,,,,,,,,,,,,,,,,,,,,
50975,1648953002.908706,1648953002.93284,126.0,0.0,3955.384521,4596.410156,4072.820557,4269.230957,4153.333496,450.0,3.0,73.0,,,,0.0,0.0,1.0,0.0,1.0,0.0,0.0,,,,,,,,63.0,0.0,0.5839840000000001,-0.114258,0.092529,0.7983399999999999,0.30225100000000005,-0.020996,-0.977554,0.003361,-0.012938999999999999,-0.033773000000000004,,,,,,,,,,,,,,,,,,,,,,,,,,,,,,,,,,,,,,,,,,,,,,,,,,,,,,,,,,,,,,,,,
50976,1648953002.9165199,1648953002.940655,127.0,0.0,4287.179688,4558.974121,3960.0,4430.769043,4544.615234000001,238.0,3.0,73.0,,,,0.0,0.0,1.0,0.0,1.0,0.0,0.0,,,,,,,,,,,,,,,,,,,,,,,,,,,,,,,,,,,,,,,,,,,,,,,,,,,,,,,,,,,,,,,,,,,,,,,,,,,,,,,,,,,,
50977,1648953002.924335,1648953002.948369,0.0,0.0,4486.666504,4608.205078,3888.718018,4678.461426,4702.05127,450.0,3.0,73.0,,,,0.0,0.0,1.0,0.0,1.0,0.0,0.0,,,,,,,,0.0,0.0,0.5839840000000001,-0.114258,0.092529,0.7983399999999999,0.30518,-0.015625,-0.98439,0.0035619999999999996,-0.012915000000000001,-0.036597000000000005,,,,,,,,,,,,,,,,,,,,,,,,,,,,,,,,,,,,,,,,,,,,,,,,,,,,,,,,,,,,,,,,,
50978,1648953002.93215,1648953002.956084,1.0,0.0,4312.820313,4653.846191,4362.05127,4422.05127,4378.974121,450.0,3.0,73.0,,,,0.0,0.0,1.0,0.0,1.0,0.0,0.0,1.0,0.0,0.0,0.0,0.0,0.0,0.0,,,,,,,,,,,,,1.0,0.0,0.0,,,,,,,,,,,,,,,,,,,,,,,,,,,,,,,,0.0,0.0,32.0,0.052862,1.0,0.0,116.67928300000001,49.163563,43.701103,70.626312,493.41058300000003,207.389282,113.460297,228.700623,331.51525899999996,127.70584099999999,317.633698,139.13887,264.247528,582.981689,299.332062,187.273666,63.850674,60.977242000000004,70.707527,366.581635,142.61523400000002,78.504501,103.856499,50.440453000000005,352.604614
50979,1648953002.939964,1648953002.963898,2.0,0.0,4202.05127,4643.589844,4737.436035,4000.0,4218.974121,0.0,3.0,73.0,,,,0.0,0.0,1.0,0.0,1.0,0.0,0.0,,,,,,,,1.0,0.0,0.5840310000000001,-0.114014,0.092529,0.7983399999999999,0.293462,-0.03418,-0.969741,0.003694,-0.012893,-0.03279,,,,,,,,,,,,,,,,,,,,,,,,,,,,,,,,,,,,,,,,,,,,,,,,,,,,,,,,,,,,,,,,,
50980,1648953002.947779,1648953002.9716132,3.0,0.0,4172.307617,4667.179688,4449.743652,4171.794922,4395.384765999999,450.0,3.0,73.0,,,,0.0,0.0,0.0,0.0,1.0,0.0,0.0,,,,,,,,,,,,,,,,,,,,,,,,,,,,,,,,,,,,,,,,,,,,,,,,,,,,,,,,,,,,,,,,,,,,,,,,,,,,,,,,,,,,
50981,1648953002.9555929,1648953002.9794278,4.0,0.0,4296.410156,4686.666504,4272.307617,4546.666504,4540.512695,0.0,3.0,73.0,,,,0.0,0.0,0.0,0.0,1.0,0.0,0.0,,,,,,,,2.0,0.0,0.5839840000000001,-0.114258,0.092529,0.7983399999999999,0.289067,-0.020508000000000002,-0.978042,0.0037159999999999997,-0.012922,-0.035664,,,,,,,,,,,,,,,,,,,,,,,,,,,,,,,,,,,,,,,,,,,,,,,,,,,,,,,,,,,,,,,,,
50982,1648953002.963408,1648953002.987143,5.0,0.0,4531.282227000001,4517.94873,4552.307617,4535.384765999999,4395.897461,450.0,3.0,73.0,,,,0.0,0.0,0.0,1.0,1.0,0.0,0.0,,,,,,,,,,,,,,,,,,,,,,,,,,,,,,,,,,,,,,,,,,,,,,,,,,,,,,0.0,0.0,32.0,0.052862,1.0,0.0,,,,,,,,,,,,,,,,,,,,,,,,,
50983,1648953002.9712222,1648953002.994957,6.0,0.0,4516.922852000001,4245.641113000001,4548.717772999999,4292.820313,4133.333496,55.0,3.0,73.0,,,,0.0,0.0,0.0,1.0,1.0,0.0,0.0,,,,,,,,3.0,0.0,0.5839840000000001,-0.114258,0.092529,0.7983399999999999,0.277348,-0.016114,-0.9746239999999999,0.0029530000000000003,-0.012802000000000001,-0.031853,,,,,,,,,,,,,,,,,,,,,,,,,,,,,,,,,,,,,,,,,,,,,,,,,,,,,,,,,,,,,,,,,
50984,1648953002.9790368,1648953003.002672,7.0,0.0,4227.179688,4240.512695,4315.384765999999,4072.820557,4066.6667479999996,450.0,3.0,73.0,,,,0.0,0.0,0.0,1.0,1.0,0.0,0.0,,,,,,,,,,,,,,,,,,,,,,,,,,,,,,,,,,,,,,,,,,,,,,,,,,,,,,,,,,,,,,,,,,,,,,,,,,,,,,,,,,,,
50985,1648953002.986851,1648953003.0104868,8.0,0.0,4093.3332520000004,4425.641113000001,4286.153809,4100.512695,4224.102539,450.0,3.0,73.0,,,,0.0,0.0,0.0,1.0,1.0,0.0,0.0,,,,,,,,4.0,0.0,0.5840310000000001,-0.114014,0.092529,0.7983399999999999,0.295903,-0.021973,-1.000992,0.0030489999999999996,-0.012791,-0.03482,,,,,,,,,,,,,,,,,,,,,,,,,,,,,,,,,,,,,,,,,,,,,,,,,,,,,,,,,,,,,,,,,
50986,1648953002.994666,1648953003.0182009,9.0,0.0,4279.487305,4510.256348,4168.717772999999,4400.0,4501.025879,0.0,3.0,73.0,,,,0.0,0.0,0.0,1.0,0.0,0.0,0.0,,,,,,,,,,,,,,,,,,,,,,,,,,,,,,,,,,,,,,,,,,,,,,,,,,,,,,0.0,0.0,32.0,0.052862,1.0,0.0,,,,,,,,,,,,,,,,,,,,,,,,,
50987,1648953003.00248,1648953003.026016,10.0,0.0,4450.256348,4575.897461,3906.1538090000004,4485.641113000001,4537.94873,450.0,3.0,73.0,,,,0.0,0.0,0.0,1.0,0.0,0.0,0.0,,,,,,,,5.0,0.0,0.5840310000000001,-0.114014,0.092529,0.7983399999999999,0.291508,-0.009276999999999999,-0.9663229999999999,9e-06,-0.012830000000000001,-0.03129,,,,,,,,,,,,,,,,,,,,,,,,,,,,,,,,,,,,,,,,,,,,,,,,,,,,,,,,,,,,,,,,,
50988,1648953003.010295,1648953003.03373,11.0,0.0,4386.666504,4678.974121,4239.487305,4216.410156,4256.410156,0.0,3.0,73.0,,,,0.0,0.0,0.0,1.0,0.0,0.0,0.0,,,,,,,,,,,,,,,,,,,,,,,,,,,,,,,,,,,,,,,,,,,,,,,,,,,,,,,,,,,,,,,,,,,,,,,,,,,,,,,,,,,,
50989,1648953003.018109,1648953003.041544,12.0,0.0,4215.897461,4703.589844,4740.0,4006.6667479999996,4141.538574,450.0,3.0,73.0,,,,0.0,0.0,0.0,1.0,0.0,0.0,0.0,,,,,,,,6.0,0.0,0.5840310000000001,-0.114014,0.092529,0.7983399999999999,0.289555,-0.020508000000000002,-0.9751129999999999,0.000301,-0.012719,-0.034312999999999996,,,,,,,,,,,,,,,,,,,,,,,,,,,,,,,,,,,,,,,,,,,,,,,,,,,,,,,,,,,,,,,,,
50990,1648953003.025924,1648953003.049359,13.0,0.0,4332.307617,4592.820313,4552.307617,4251.282227000001,4428.205078,450.0,3.0,73.0,,,,0.0,0.0,0.0,1.0,0.0,0.0,0.0,,,,,,,,,,,,,,,,,,,,,,,,,,,,,,,,,,,,,,,,,,,,,,,,,,,,,,0.0,0.0,32.0,0.052862,1.0,0.0,,,,,,,,,,,,,,,,,,,,,,,,,
50991,1648953003.033739,1648953003.057073,14.0,0.0,4543.077147999999,4491.794922,4374.358886999999,4436.922852000001,4592.820313,450.0,3.0,73.0,,,,0.0,0.0,0.0,1.0,0.0,0.0,0.0,,,,,,,,7.0,0.0,0.5840310000000001,-0.114014,0.092529,0.7983399999999999,0.29736799999999997,-0.019532,-0.98146,0.000711,-0.012668,-0.037034,,,,,,,,,,,,,,,,,,,,,,,,,,,,,,,,,,,,,,,,,,,,,,,,,,,,,,,,,,,,,,,,,
50992,1648953003.041553,1648953003.064788,15.0,0.0,4511.282227000001,4573.333496,4345.128418,4240.0,4358.461426,0.0,3.0,73.0,,,,0.0,0.0,0.0,1.0,0.0,0.0,0.0,,,,,,,,,,,,,,,,,,,,,,,,,,,,,,,,,,,,,,,,,,,,,,,,,,,,,,,,,,,,,,,,,,,,,,,,,,,,,,,,,,,,
50993,1648953003.049368,1648953003.072602,16.0,0.0,4275.384765999999,4774.871582,3996.4101560000004,4081.538574,4030.7692869999996,0.0,3.0,73.0,,,,0.0,0.0,0.0,1.0,0.0,0.0,0.0,,,,,,,,8.0,0.0,0.5840310000000001,-0.114014,0.092529,0.7983399999999999,0.292973,-0.023926,-0.98439,0.003423,-0.012622,-0.039386000000000004,,,,,,,,,,,,,,,,,,,,,,,,,,,,,,,,,,,,,,,,,,,,,,,,,,,,,,,,,,,,,,,,,
50994,1648953003.057182,1648953003.080317,17.0,0.0,4225.641113000001,4781.025879,3964.102539,4335.897461,4116.922852000001,0.0,3.0,73.0,,,,0.0,0.0,0.0,1.0,0.0,0.0,0.0,,,,,,,,,,,,,,,,,,,,1.0,0.0,0.0,,,,,,,,,,,,,,,,,,,,,,,,,,,,,,,,0.0,0.0,32.0,0.042914999999999995,1.0,0.0,122.606445,45.926094,44.33247,67.159492,488.333923,217.047974,92.409851,176.71791100000002,348.76767,110.60897800000001,318.843842,128.677353,183.63630700000002,569.4657589999999,302.295563,164.04716499999998,71.36200699999999,51.104733,70.71590400000001,355.829529,125.024498,79.009209,78.90078000000001,48.367981,346.674072
50995,1648953003.064997,1648953003.088032,18.0,0.0,4530.256348,4631.282227000001,4340.0,4600.512695,4353.846191,0.0,3.0,73.0,,,,0.0,0.0,0.0,1.0,0.0,0.0,0.0,,,,,,,,9.0,0.0,0.5840310000000001,-0.114014,0.092529,0.7983399999999999,0.290044,-0.015625,-0.9673,0.0035689999999999997,-0.012776000000000001,-0.041599000000000004,,,,,,,,,,,,,,,,,,,,,,,,,,,,,,,,,,,,,,,,,,,,,,,,,,,,,,,,,,,,,,,,,
50996,1648953003.072811,1648953003.0958462,19.0,0.0,4793.846191,4640.0,4274.871582,4502.05127,4337.94873,0.0,3.0,73.0,,,,0.0,0.0,0.0,1.0,0.0,0.0,0.0,,,,,,,,,,,,,,,,,,,,,,,,,,,,,,,,,,,,,,,,,,,,,,,,,,,,,,,,,,,,,,,,,,,,,,,,,,,,,,,,,,,,
50997,1648953003.080626,1648953003.1036608,20.0,0.0,4447.179688,4641.025879,4072.820557,4237.94873,4158.974121,0.0,3.0,73.0,,,,0.0,0.0,0.0,1.0,0.0,0.0,0.0,,,,,,,,10.0,0.0,0.5840310000000001,-0.114014,0.092529,0.7983399999999999,0.300298,-0.032227,-0.983902,0.0036030000000000003,-0.012768,-0.037342,,,,,,,,,,,,,,,,,,,,,,,,,,,,,,,,,,,,,,,,,,,,,,,,,,,,,,,,,,,,,,,,,
50998,1648953003.0884411,1648953003.111375,21.0,0.0,3986.6667479999996,4498.461426,4187.179688,4217.94873,4245.641113000001,0.0,3.0,73.0,,,,0.0,0.0,0.0,1.0,0.0,0.0,0.0,,,,,,,,,,,,,,,,,,,,,,,,,,,,,,,,,,,,,,,,,,,,,,,,,,,,,,0.0,0.0,32.0,0.042914999999999995,1.0,0.0,,,,,,,,,,,,,,,,,,,,,,,,,
50999,1648953003.096255,1648953003.11919,22.0,0.0,4203.589844,4534.871582,4031.281982,4476.922852000001,4538.974121,0.0,3.0,73.0,,,,0.0,0.0,0.0,1.0,0.0,0.0,0.0,,,,,,,,11.0,0.0,0.5840310000000001,-0.114014,0.092529,0.7983399999999999,0.299809,-0.018067,-0.9643700000000001,0.0035840000000000004,-0.012761,-0.039760000000000004,,,,,,,,,,,,,,,,,,,,,,,,,,,,,,,,,,,,,,,,,,,,,,,,,,,,,,,,,,,,,,,,,
51000,1648953003.10407,1648953003.126904,23.0,0.0,4604.102539,4688.205078,3780.0,4619.487305,4569.230957,0.0,3.0,73.0,,,,0.0,0.0,0.0,1.0,0.0,0.0,0.0,,,,,,,,,,,,,,,,,,,,,,,,,,,,,,,,,,,,,,,,,,,,,,,,,,,,,,,,,,,,,,,,,,,,,,,,,,,,,,,,,,,,
51001,1648953003.1118839,1648953003.134719,24.0,0.0,4494.358886999999,4642.563965,4252.820313,4375.897461,4314.358886999999,0.0,3.0,73.0,,,,0.0,0.0,0.0,1.0,0.0,0.0,0.0,,,,,,,,12.0,0.0,0.5840310000000001,-0.114014,0.092529,0.7983399999999999,0.290044,-0.015625,-0.9673,0.003714,-0.012901,-0.041937,,,,,,,,,,,,,,,,,,,,,,,,,,,,,,,,,,,,,,,,,,,,,,,,,,,,,,,,,,,,,,,,,
51002,1648953003.119699,1648953003.142433,25.0,0.0,4209.230957,4538.974121,4713.333496,4046.6667479999996,4172.307617,0.0,3.0,73.0,,,,0.0,0.0,0.0,1.0,0.0,0.0,0.0,,,,,,,,,,,,,,,,,,,,,,,,,,,,,,,,,,,,,,,,,,,,,,,,,,,,,,0.0,0.0,32.0,0.042914999999999995,1.0,0.0,,,,,,,,,,,,,,,,,,,,,,,,,
51003,1648953003.1275132,1648953003.150248,26.0,0.0,4147.179688,4498.974121,4562.05127,4143.077147999999,4417.94873,0.0,3.0,73.0,,,,0.0,0.0,0.0,1.0,0.0,0.0,0.0,,,,,,,,13.0,0.0,0.5840310000000001,-0.114014,0.092529,0.7983399999999999,0.282231,-0.021485,-0.972183,0.003782,-0.012929,-0.037645,,,,,,,,,,,,,,,,,,,,,,,,,,,,,,,,,,,,,,,,,,,,,,,,,,,,,,,,,,,,,,,,,
51004,1648953003.1353278,1648953003.1579618,27.0,0.0,4322.05127,4435.897461,4395.384765999999,4431.282227000001,4689.230957,0.0,3.0,73.0,,,,0.0,0.0,0.0,1.0,0.0,0.0,0.0,,,,,,,,,,,,,,,,,,,,,,,,,,,,,,,,,,,,,,,,,,,,,,,,,,,,,,,,,,,,,,,,,,,,,,,,,,,,,,,,,,,,
51005,1648953003.143142,1648953003.165777,28.0,0.0,4564.615234000001,4507.179688,4211.794922,4448.205078,4564.615234000001,0.0,3.0,73.0,,,,0.0,0.0,0.0,1.0,0.0,0.0,0.0,,,,,,,,14.0,0.0,0.5840310000000001,-0.114014,0.092529,0.7983399999999999,0.28809,-0.019532,-0.9712059999999999,0.003892,-0.012856999999999999,-0.040033,,,,,,,,,,,,,,,,,,,,,,,,,,,,,,,,,,,,,,,,,,,,,,,,,,,,,,,,,,,,,,,,,
51006,1648953003.150957,1648953003.173491,29.0,0.0,4419.487305,4688.717772999999,3934.358887,4254.871582,4133.333496,0.0,3.0,73.0,,,,0.0,0.0,0.0,1.0,0.0,0.0,0.0,,,,,,,,,,,,,,,,,,,,,,,,,,,,,,,,,,,,,,,,,,,,,,,,,,,,,,0.0,0.0,32.0,0.042914999999999995,1.0,0.0,,,,,,,,,,,,,,,,,,,,,,,,,
51007,1648953003.158771,1648953003.1813052,30.0,0.0,4168.717772999999,4752.307617,4066.1538090000004,4194.871582,4044.102539,0.0,3.0,73.0,,,,0.0,0.0,0.0,1.0,0.0,0.0,0.0,,,,,,,,15.0,0.0,0.5840310000000001,-0.114014,0.092529,0.7983399999999999,0.295415,-0.021485,-0.983902,0.0038450000000000003,-0.012841,-0.042085000000000004,,,,,,,,,,,,,,,,,,,,,,,,,,,,,,,,,,,,,,,,,,,,,,,,,,,,,,,,,,,,,,,,,
51008,1648953003.166586,1648953003.18902,31.0,0.0,4304.102539,4780.512695,4204.615234000001,4373.333496,4392.820313,0.0,3.0,73.0,,,,0.0,0.0,0.0,1.0,0.0,0.0,0.0,,,,,,,,,,,,,,,,,,,,,,,,,,,,,,,,,,,,,,,,,,,,,,,,,,,,,,,,,,,,,,,,,,,,,,,,,,,,,,,,,,,,
51009,1648953003.1744,1648953003.196734,32.0,0.0,4536.922852000001,4727.692383,4159.487305,4654.871582,4627.692383,0.0,3.0,73.0,,,,0.0,0.0,0.0,1.0,0.0,0.0,0.0,,,,,,,,16.0,0.0,0.5840310000000001,-0.114014,0.092529,0.7983399999999999,0.29443800000000003,-0.008789,-0.976089,0.003851,-0.012875,-0.037583,,,,,,,,,,,,,,,,,,,,,,,,,,,,,,,,,,,,,,,,,,,,,,,,,,,,,,,,,,,,,,,,,
51010,1648953003.182215,1648953003.204549,33.0,0.0,4400.0,4462.05127,4570.256348,4446.153809,4449.743652,0.0,3.0,73.0,,,,0.0,0.0,0.0,1.0,0.0,0.0,0.0,,,,,,,,,,,,,,,,,,,,1.0,0.0,0.0,,,,,,,,,,,,,,,,,,,,,,,,,,,,,,,,0.0,0.0,32.0,0.042672,1.0,0.0,122.438332,44.253853,48.664558,70.130981,487.049622,210.35977200000002,87.05130799999999,183.912491,357.448486,92.084114,308.518311,129.609116,177.255066,551.818787,297.822937,138.642075,83.110786,41.516113,73.911766,350.007172,107.172028,92.06306500000001,59.47659300000001,47.893665000000006,349.407806
51011,1648953003.19003,1648953003.212263,34.0,0.0,4202.563965,4291.282227000001,4792.820313,4083.5898439999996,4204.615234000001,0.0,3.0,73.0,,,,0.0,0.0,0.0,1.0,0.0,0.0,0.0,,,,,,,,17.0,0.0,0.5840310000000001,-0.114014,0.092529,0.7983399999999999,0.29395,-0.025879000000000003,-0.9907379999999999,0.003271,-0.012906,-0.03988,,,,,,,,,,,,,,,,,,,,,,,,,,,,,,,,,,,,,,,,,,,,,,,,,,,,,,,,,,,,,,,,,
51012,1648953003.197844,1648953003.220078,35.0,0.0,4158.974121,4395.384765999999,4470.769043,4202.563965,4252.820313,0.0,3.0,73.0,,,,0.0,0.0,0.0,1.0,0.0,0.0,0.0,,,,,,,,,,,,,,,,,,,,,,,,,,,,,,,,,,,,,,,,,,,,,,,,,,,,,,,,,,,,,,,,,,,,,,,,,,,,,,,,,,,,
51013,1648953003.205659,1648953003.227792,36.0,0.0,4309.230957,4458.461426,4336.922852000001,4448.717772999999,4593.333496,0.0,3.0,73.0,,,,0.0,0.0,0.0,1.0,0.0,0.0,0.0,,,,,,,,18.0,0.0,0.5840310000000001,-0.114014,0.092529,0.7983399999999999,0.292485,-0.018555000000000002,-0.973159,0.0033829999999999997,-0.012738,-0.041995,,,,,,,,,,,,,,,,,,,,,,,,,,,,,,,,,,,,,,,,,,,,,,,,,,,,,,,,,,,,,,,,,
51014,1648953003.213473,1648953003.2356071,37.0,0.0,4527.179688,4426.153809,4312.307617,4390.256348,4556.410156,0.0,3.0,73.0,,,,0.0,0.0,0.0,1.0,0.0,0.0,0.0,,,,,,,,,,,,,,,,,,,,,,,,,,,,,,,,,,,,,,,,,,,,,,,,,,,,,,0.0,0.0,32.0,0.042672,1.0,0.0,,,,,,,,,,,,,,,,,,,,,,,,,
51015,1648953003.2212882,1648953003.2433212,38.0,0.0,4495.897461,4595.897461,4164.615234000001,4221.538574,4135.384765999999,0.0,3.0,73.0,,,,0.0,0.0,0.0,1.0,0.0,0.0,0.0,,,,,,,,19.0,0.0,0.5840310000000001,-0.114014,0.092529,0.7983399999999999,0.29443800000000003,-0.013184,-0.9897610000000001,0.00045700000000000005,-0.012685,-0.037649,,,,,,,,,,,,,,,,,,,,,,,,,,,,,,,,,,,,,,,,,,,,,,,,,,,,,,,,,,,,,,,,,
51016,1648953003.229102,1648953003.2511358,39.0,0.0,4223.077147999999,4807.179688,4091.794922,4127.179688,4035.384521,0.0,3.0,73.0,,,,0.0,0.0,0.0,1.0,0.0,0.0,0.0,,,,,,,,,,,,,,,,,,,,,,,,,,,,,,,,,,,,,,,,,,,,,,,,,,,,,,,,,,,,,,,,,,,,,,,,,,,,,,,,,,,,
51017,1648953003.236917,1648953003.25885,40.0,0.0,4123.077147999999,4757.436035,4020.0,4210.769043,4298.461426,0.0,3.0,73.0,,,,0.0,0.0,0.0,1.0,0.0,0.0,0.0,,,,,,,,20.0,0.0,0.5840310000000001,-0.114014,0.092529,0.7983399999999999,0.301274,-0.025391,-0.973159,0.000753,-0.012735,-0.040037,,,,,,,,,,,,,,,,,,,,,,,,,,,,,,,,,,,,,,,,,,,,,,,,,,,,,,,,,,,,,,,,,
51018,1648953003.2447321,1648953003.266665,41.0,0.0,4371.794922,4651.282227000001,4047.6923829999996,4495.897461,4512.820313,0.0,3.0,73.0,,,,0.0,0.0,0.0,1.0,0.0,0.0,0.0,,,,,,,,,,,,,,,,,,,,,,,,,,,,,,,,,,,,,,,,,,,,,,,,,,,,,,0.0,0.0,32.0,0.042672,1.0,0.0,,,,,,,,,,,,,,,,,,,,,,,,,
51019,1648953003.252546,1648953003.274379,42.0,0.0,4651.282227000001,4597.436035,4190.769043,4560.0,4354.358886999999,0.0,3.0,73.0,,,,0.0,0.0,0.0,1.0,0.0,0.0,0.0,,,,,,,,21.0,0.0,0.584079,-0.11377000000000001,0.092529,0.7983399999999999,0.300298,-0.02295,-0.997574,-0.001959,-0.01278,-0.035983999999999995,,,,,,,,,,,,,,,,,,,,,,,,,,,,,,,,,,,,,,,,,,,,,,,,,,,,,,,,,,,,,,,,,
51020,1648953003.260361,1648953003.282193,43.0,0.0,4552.307617,4440.0,4293.333496,4271.282227000001,4068.718018,0.0,3.0,73.0,,,,0.0,0.0,0.0,1.0,0.0,0.0,0.0,,,,,,,,,,,,,,,,,,,,,,,,,,,,,,,,,,,,,,,,,,,,,,,,,,,,,,,,,,,,,,,,,,,,,,,,,,,,,,,,,,,,
51021,1648953003.268175,1648953003.289908,44.0,0.0,4152.307617,4372.820313,4383.589844,4046.6667479999996,4103.589844,0.0,3.0,73.0,,,,0.0,0.0,0.0,1.0,0.0,0.0,0.0,,,,,,,,22.0,0.0,0.584079,-0.11377000000000001,0.092529,0.7983399999999999,0.298833,-0.018067,-0.9707180000000001,0.0012640000000000001,-0.012771,-0.038392,,,,,,,,,,,,,,,,,,,,,,,,,,,,,,,,,,,,,,,,,,,,,,,,,,,,,,,,,,,,,,,,,
51022,1648953003.27599,1648953003.297722,45.0,0.0,4174.358886999999,4451.794922,4291.794922,4233.333496,4464.615234000001,0.0,3.0,73.0,,,,0.0,0.0,0.0,1.0,0.0,0.0,0.0,,,,,,,,,,,,,,,,,,,,,,,,,,,,,,,,,,,,,,,,,,,,,,,,,,,,,,0.0,0.0,32.0,0.042672,1.0,0.0,,,,,,,,,,,,,,,,,,,,,,,,,
51023,1648953003.283804,1648953003.3054368,46.0,0.0,4451.794922,4408.717772999999,4056.923096,4437.436035,4577.436035,0.0,3.0,73.0,,,,0.0,0.0,0.0,1.0,0.0,0.0,0.0,,,,,,,,23.0,0.0,0.584079,-0.11377000000000001,0.092529,0.7983399999999999,0.304204,-0.015625,-0.9868309999999999,0.0015279999999999998,-0.012764,-0.040754000000000005,,,,,,,,,,,,,,,,,,,,,,,,,,,,,,,,,,,,,,,,,,,,,,,,,,,,,,,,,,,,,,,,,
51024,1648953003.291619,1648953003.313251,47.0,0.0,4437.436035,4535.384765999999,4078.974365,4315.897461,4360.512695,0.0,3.0,73.0,,,,0.0,0.0,0.0,1.0,0.0,0.0,0.0,,,,,,,,,,,,,,,,,,,,,,,,,,,,,,,,,,,,,,,,,,,,,,,,,,,,,,,,,,,,,,,,,,,,,,,,,,,,,,,,,,,,
51025,1648953003.299433,1648953003.320966,48.0,0.0,4272.307617,4870.769043,4259.487305,4066.6667479999996,4110.256348,0.0,3.0,73.0,,,,0.0,0.0,0.0,1.0,0.0,0.0,0.0,,,,,,,,24.0,0.0,0.584079,-0.11377000000000001,0.092529,0.7983399999999999,0.293462,-0.026856,-0.979507,0.0017170000000000002,-0.012806,-0.036581,,,,,,,,,,,,,,,,,,,,,,,,,,,,,,,,,,,,,,,,,,,,,,,,,,,,,,,,,,,,,,,,,
51026,1648953003.307248,1648953003.3287802,49.0,0.0,4287.692383,4796.410156,4363.589844,4217.436035,4094.358887,0.0,3.0,73.0,,,,0.0,0.0,0.0,1.0,0.0,0.0,0.0,,,,,,,,,,,,,,,,,,,,1.0,0.0,0.0,,,,,,,,,,,,,,,,,,,,,,,,,,,,,,,,0.0,0.0,32.0,0.043218,1.0,0.0,115.73331499999999,45.597823999999996,55.453796,77.217323,488.386688,192.716049,94.68420400000001,246.64587400000002,357.377136,76.95213299999999,288.141235,143.409683,256.777802,536.485046,287.93624900000003,116.315353,97.338966,32.773064,77.985138,353.147797,92.647591,116.59601599999999,46.811131,48.393208,360.610779
51027,1648953003.3150618,1648953003.336495,50.0,0.0,4443.077147999999,4496.922852000001,4425.641113000001,4521.025879,4368.205078,0.0,3.0,73.0,,,,0.0,0.0,0.0,1.0,0.0,0.0,0.0,,,,,,,,25.0,0.0,0.584079,-0.11377000000000001,0.092529,0.7983399999999999,0.299809,-0.0058590000000000005,-0.973159,-0.00114,-0.012795,-0.038929000000000005,,,,,,,,,,,,,,,,,,,,,,,,,,,,,,,,,,,,,,,,,,,,,,,,,,,,,,,,,,,,,,,,,
51028,1648953003.322877,1648953003.344209,51.0,0.0,4665.641113000001,4559.487305,4324.615234000001,4482.05127,4611.282227000001,0.0,3.0,73.0,,,,0.0,0.0,0.0,1.0,0.0,0.0,0.0,,,,,,,,,,,,,,,,,,,,,,,,,,,,,,,,,,,,,,,,,,,,,,,,,,,,,,,,,,,,,,,,,,,,,,,,,,,,,,,,,,,,
