,Timestamp,OriginalTimestamp,EEG.Counter,EEG.Interpolated,EEG.AF3,EEG.T7,EEG.Pz,EEG.T8,EEG.AF4,EEG.RawCq,EEG.Battery,EEG.BatteryPercent,MarkerIndex,MarkerType,MarkerValueInt,EEG.MarkerHardware,CQ.AF3,CQ.T7,CQ.Pz,CQ.T8,CQ.AF4,CQ.Overall,EQ.SampleRateQuality,EQ.OVERALL,EQ.AF3,EQ.T7,EQ.Pz,EQ.T8,EQ.AF4,MOT.CounterMems,MOT.InterpolatedMems,MOT.Q0,MOT.Q1,MOT.Q2,MOT.Q3,MOT.AccX,MOT.AccY,MOT.AccZ,MOT.MagX,MOT.MagY,MOT.MagZ,MC.Action,MC.ActionPower,MC.IsActive,PM.Engagement.IsActive,PM.Engagement.Scaled,PM.Engagement.Raw,PM.Engagement.Min,PM.Engagement.Max,PM.Excitement.IsActive,PM.Excitement.Scaled,PM.Excitement.Raw,PM.Excitement.Min,PM.Excitement.Max,PM.LongTermExcitement,PM.Stress.IsActive,PM.Stress.Scaled,PM.Stress.Raw,PM.Stress.Min,PM.Stress.Max,PM.Relaxation.IsActive,PM.Relaxation.Scaled,PM.Relaxation.Raw,PM.Relaxation.Min,PM.Relaxation.Max,PM.Interest.IsActive,PM.Interest.Scaled,PM.Interest.Raw,PM.Interest.Min,PM.Interest.Max,PM.Focus.IsActive,PM.Focus.Scaled,PM.Focus.Raw,PM.Focus.Min,PM.Focus.Max,FE.BlinkWink,FE.HorizontalEyesDirection,FE.UpperFaceAction,FE.UpperFaceActionPower,FE.LowerFaceAction,FE.LowerFaceActionPower,POW.AF3.Theta,POW.AF3.Alpha,POW.AF3.BetaL,POW.AF3.BetaH,POW.AF3.Gamma,POW.T7.Theta,POW.T7.Alpha,POW.T7.BetaL,POW.T7.BetaH,POW.T7.Gamma,POW.Pz.Theta,POW.Pz.Alpha,POW.Pz.BetaL,POW.Pz.BetaH,POW.Pz.Gamma,POW.T8.Theta,POW.T8.Alpha,POW.T8.BetaL,POW.T8.BetaH,POW.T8.Gamma,POW.AF4.Theta,POW.AF4.Alpha,POW.AF4.BetaL,POW.AF4.BetaH,POW.AF4.Gamma
35319,1648952880.56411,1648952880.582759,86.0,0.0,4353.846191,4802.05127,3862.0512700000004,4324.615234000001,4624.615234000001,450.0,3.0,73.0,,,,0.0,0.0,4.0,1.0,0.0,0.0,0.0,,,,,,,,43.0,0.0,0.7771520000000001,-0.085938,0.11718800000000001,0.612305,0.299321,-0.011231,-0.985367,0.0028699999999999997,-0.020413999999999998,-0.038169999999999996,,,,,,,,,,,,,,,,,,,,,,,,,,,,,,,,,,,,,,,,,,,,,,,,,,,,,,,,,,,,,,,,,
35320,1648952880.571925,1648952880.590675,87.0,0.0,4526.666504,4717.436035,4201.538574,4481.025879,4369.230957,0.0,3.0,73.0,,,,0.0,0.0,4.0,1.0,0.0,0.0,0.0,,,,,,,,,,,,,,,,,,,,,,,,,,,,,,,,,,,,,,,,,,,,,,,,,,,,,,,,,,,,,,,,,,,,,,,,,,,,,,,,,,,,
35321,1648952880.579739,1648952880.59849,88.0,0.0,4308.717772999999,4604.102539,4236.410156,4206.153809,4282.563965,450.0,3.0,73.0,,,,0.0,0.0,4.0,1.0,0.0,0.0,0.0,,,,,,,,44.0,0.0,0.777215,-0.08569299999999999,0.116943,0.612305,0.282231,-0.013672,-0.9858549999999999,0.003706,-0.020424,-0.0407,,,,,,,,,,,,,,,,,,,,,,,,,,,,,,,,,,,,,,,,,,,,,,,,,,,,,,,,,,,,,,,,,
35322,1648952880.587554,1648952880.606405,89.0,0.0,4599.487305,4521.538574,3905.1281740000004,4492.307617,4880.0,450.0,3.0,73.0,,,,0.0,0.0,4.0,1.0,0.0,0.0,0.0,,,,,,,,,,,,,,,,,,,,,,,,,,,,,,,,,,,,,,,,,,,,,,,,,,,,,,0.0,0.0,32.0,0.106707,1.0,0.0,,,,,,,,,,,,,,,,,,,,,,,,,
35323,1648952880.595368,1648952880.614221,90.0,0.0,4272.307617,4382.05127,4137.94873,4240.0,4492.820313,450.0,3.0,73.0,,,,0.0,0.0,4.0,1.0,0.0,0.0,0.0,,,,,,,,45.0,0.0,0.777289,-0.08569299999999999,0.11645499999999999,0.612305,0.323735,-0.012206999999999999,-0.9629049999999999,0.001382,-0.020334,-0.033457,,,,,,,,,,,,,,,,,,,,,,,,,,,,,,,,,,,,,,,,,,,,,,,,,,,,,,,,,,,,,,,,,
35324,1648952880.603183,1648952880.6221359,91.0,0.0,4220.0,4534.871582,4089.743652,4051.794922,3974.358887,0.0,3.0,73.0,,,,0.0,0.0,4.0,1.0,0.0,0.0,0.0,,,,,,,,,,,,,,,,,,,,,,,,,,,,,,,,,,,,,,,,,,,,,,,,,,,,,,,,,,,,,,,,,,,,,,,,,,,,,,,,,,,,
35325,1648952880.6109982,1648952880.629951,92.0,0.0,5631.282227000001,4606.153809,3828.718018,5474.358886999999,5306.153809,450.0,3.0,73.0,,,,0.0,0.0,4.0,1.0,0.0,0.0,0.0,,,,,,,,46.0,0.0,0.777389,-0.085449,0.115967,0.612305,0.29639099999999996,-0.012695999999999999,-0.957534,0.003979,-0.020401,-0.036459,,,,,,,,,,,,,,,,,,,,,,,,,,,,,,,,,,,,,,,,,,,,,,,,,,,,,,,,,,,,,,,,,
35326,1648952880.6188118,1648952880.637867,93.0,0.0,5208.205078,4451.282227000001,3962.5642090000006,4991.794922,5044.102539,450.0,3.0,73.0,,,,0.0,0.0,4.0,1.0,0.0,0.0,0.0,,,,,,,,,,,,,,,,,,,,,,,,,,,,,,,,,,,,,,,,,,,,,,,,,,,,,,0.0,0.0,32.0,0.106707,1.0,0.0,,,,,,,,,,,,,,,,,,,,,,,,,
35327,1648952880.626627,1648952880.645682,94.0,0.0,4191.794922,4209.230957,4460.512695,3918.461426,4156.922852000001,450.0,3.0,73.0,,,,0.0,0.0,4.0,1.0,0.0,0.0,0.0,,,,,,,,47.0,0.0,0.777316,-0.085449,0.11645499999999999,0.612305,0.293462,-0.017578,-1.000992,0.006412999999999999,-0.020362,-0.039209,,,,,,,,,,,,,,,,,,,,,,,,,,,,,,,,,,,,,,,,,,,,,,,,,,,,,,,,,,,,,,,,,
35328,1648952880.634441,1648952880.653497,95.0,0.0,4063.076904,4333.846191,4428.205078,4153.846191,4132.307617,0.0,3.0,73.0,,,,0.0,0.0,4.0,1.0,0.0,0.0,0.0,,,,,,,,,,,,,,,,,,,,,,,,,,,,,,,,,,,,,,,,,,,,,,,,,,,,,,,,,,,,,,,,,,,,,,,,,,,,,,,,,,,,
35329,1648952880.642256,1648952880.661412,96.0,0.0,4572.820313,4236.922852000001,4154.358886999999,4869.743652,4604.102539,450.0,3.0,73.0,,,,0.0,0.0,4.0,1.0,0.0,0.0,0.0,,,,,,,,48.0,0.0,0.777115,-0.085938,0.117432,0.612305,0.284672,0.0,-0.993667,0.006943,-0.020426,-0.041587,,,,,,,,,,,,,,,,,,,,,,,,,,,,,,,,,,,,,,,,,,,,,,,,,,,,,,,,,,,,,,,,,
35330,1648952880.65007,1648952880.669227,97.0,0.0,3974.8718259999996,4301.538574,4105.641113000001,3824.615479,3812.820557,450.0,3.0,73.0,,,,0.0,0.0,4.0,1.0,0.0,0.0,0.0,,,,,,,,,,,,,,,,,,,,1.0,0.0,0.0,,,,,,,,,,,,,,,,,,,,,,,,,,,,,,,,0.0,0.0,32.0,0.0606,1.0,0.0,355.964081,386.738434,598.065613,456.314728,1646.902466,154.251572,284.673096,158.932739,200.527054,212.266632,701.240662,308.056519,53.732932999999996,304.933044,668.018311,169.168686,127.35511000000001,95.387794,96.514786,337.929169,483.88739000000004,256.112427,1109.557617,589.079773,1356.020386
35331,1648952880.657885,1648952880.677142,98.0,0.0,4460.0,4308.717772999999,4089.2307130000004,3939.487061,4117.94873,450.0,3.0,73.0,,,,0.0,0.0,4.0,1.0,0.0,0.0,0.0,,,,,,,,49.0,0.0,0.777142,-0.086426,0.118164,0.612061,0.294926,-0.001953,-0.98439,0.004296,-0.020385,-0.034255,,,,,,,,,,,,,,,,,,,,,,,,,,,,,,,,,,,,,,,,,,,,,,,,,,,,,,,,,,,,,,,,,
35332,1648952880.665699,1648952880.685058,99.0,1.0,4427.115234000001,4321.153809,4080.4487299999996,3973.397461,4188.782227000001,450.0,3.0,73.0,,,,0.0,0.0,4.0,1.0,0.0,0.0,0.0,,,,,,,,,,,,,,,,,,,,,,,,,,,,,,,,,,,,,,,,,,,,,,,,,,,,,,,,,,,,,,,,,,,,,,,,,,,,,,,,,,,,
35333,1648952880.6735141,1648952880.692873,100.0,1.0,4394.230957,4333.589844,4071.6667479999996,4007.3076170000004,4259.615234000001,450.0,3.0,73.0,,,,0.0,0.0,4.0,1.0,0.0,0.0,0.0,,,,,,,,50.0,1.0,0.777177,-0.086365,0.11798099999999999,0.612061,0.29529299999999997,-0.006836,-0.98793,0.004482,-0.020376,-0.034973000000000004,,,,,,,,,,,,,,,,,,,,,,,,,,,,,,,,,,,,,,,,,,,,,,,,,,,,,,,,,,,,,,,,,
35334,1648952880.6813278,1648952880.7006881,101.0,1.0,4361.346191,4346.025879,4062.884521,4041.218018,4330.44873,450.0,3.0,73.0,,,,0.0,0.0,4.0,1.0,0.0,0.0,0.0,,,,,,,,,,,,,,,,,,,,,,,,,,,,,,,,,,,,,,,,,,,,,,,,,,,,,,0.0,0.0,32.0,0.0606,1.0,0.0,,,,,,,,,,,,,,,,,,,,,,,,,
35335,1648952880.689143,1648952880.708504,102.0,1.0,4328.461426,4358.461426,4054.102539,4075.1281740000004,4401.282227000001,450.0,3.0,73.0,,,,0.0,0.0,4.0,1.0,0.0,0.0,0.0,,,,,,,,51.0,1.0,0.777211,-0.08630399999999999,0.117798,0.612061,0.295659,-0.011719,-0.9914700000000001,0.004667,-0.020367,-0.035691,,,,,,,,,,,,,,,,,,,,,,,,,,,,,,,,,,,,,,,,,,,,,,,,,,,,,,,,,,,,,,,,,
35336,1648952880.696957,1648952880.7163188,103.0,1.0,4295.577147999999,4370.897461,4045.320557,4109.038574,4472.115234000001,450.0,3.0,73.0,,,,0.0,0.0,4.0,1.0,0.0,0.0,0.0,,,,,,,,,,,,,,,,,,,,,,,,,,,,,,,,,,,,,,,,,,,,,,,,,,,,,,,,,,,,,,,,,,,,,,,,,,,,,,,,,,,,
35337,1648952880.704772,1648952880.724134,104.0,1.0,4262.692383,4383.333496,4036.538574,4142.94873,4542.94873,450.0,3.0,73.0,,,,0.0,0.0,4.0,1.0,0.0,0.0,0.0,,,,,,,,52.0,1.0,0.777246,-0.086243,0.11761500000000001,0.612061,0.296025,-0.016602000000000002,-0.9950100000000001,0.0048530000000000005,-0.020358,-0.036410000000000005,,,,,,,,,,,,,,,,,,,,,,,,,,,,,,,,,,,,,,,,,,,,,,,,,,,,,,,,,,,,,,,,,
35338,1648952880.7125869,1648952880.73195,105.0,1.0,4229.807617,4395.769043,4027.756348,4176.858886999999,4613.782227000001,450.0,3.0,73.0,,,,0.0,0.0,4.0,1.0,0.0,0.0,0.0,,,,,,,,,,,,,,,,,,,,,,,,,,,,,,,,,,,,,,,,,,,,,,,,,,,,,,0.0,0.0,32.0,0.0606,1.0,0.0,,,,,,,,,,,,,,,,,,,,,,,,,
35339,1648952880.720401,1648952880.739765,106.0,0.0,4196.922852000001,4408.205078,4018.974365,4210.769043,4684.615234000001,450.0,3.0,73.0,,,,0.0,0.0,4.0,1.0,0.0,0.0,0.0,,,,,,,,53.0,0.0,0.77728,-0.08618200000000001,0.117432,0.612061,0.29639099999999996,-0.021485,-0.99855,0.005038,-0.020349000000000003,-0.037127999999999994,,,,,,,,,,,,,,,,,,,,,,,,,,,,,,,,,,,,,,,,,,,,,,,,,,,,,,,,,,,,,,,,,
35340,1648952880.728216,1648952880.7474802,107.0,0.0,4043.5898439999996,4622.563965,3740.512939,3941.538574,4125.641113000001,0.0,3.0,73.0,,,,0.0,0.0,4.0,1.0,0.0,0.0,0.0,,,,,,,,,,,,,,,,,,,,,,,,,,,,,,,,,,,,,,,,,,,,,,,,,,,,,,,,,,,,,,,,,,,,,,,,,,,,,,,,,,,,
35341,1648952880.73603,1648952880.7552938,108.0,0.0,5164.615234000001,4750.769043,4233.333496,4885.641113000001,4860.0,450.0,3.0,73.0,,,,0.0,0.0,4.0,1.0,0.0,0.0,0.0,,,,,,,,54.0,0.0,0.7772060000000001,-0.08618200000000001,0.11792000000000001,0.612061,0.277348,-0.013672,-0.993667,0.004193,-0.020413,-0.039861,,,,,,,,,,,,,,,,,,,,,,,,,,,,,,,,,,,,,,,,,,,,,,,,,,,,,,,,,,,,,,,,,
35342,1648952880.743845,1648952880.763009,109.0,0.0,4358.461426,4576.922852000001,4338.974121,4117.94873,4352.820313,450.0,3.0,73.0,,,,0.0,0.0,4.0,1.0,0.0,0.0,0.0,,,,,,,,,,,,,,,,,,,,,,,,,,,,,,,,,,,,,,,,,,,,,,,,,,,,,,0.0,0.0,32.0,0.0606,1.0,0.0,,,,,,,,,,,,,,,,,,,,,,,,,
35343,1648952880.751659,1648952880.770823,110.0,0.0,4114.871582,4581.025879,4053.8461909999996,4214.871582,4469.230957,450.0,3.0,73.0,,,,0.0,0.0,4.0,1.0,0.0,0.0,0.0,,,,,,,,55.0,0.0,0.7772060000000001,-0.08618200000000001,0.11792000000000001,0.612061,0.299321,-0.019532,-0.957046,0.006605,-0.020325,-0.042222,,,,,,,,,,,,,,,,,,,,,,,,,,,,,,,,,,,,,,,,,,,,,,,,,,,,,,,,,,,,,,,,,
35344,1648952880.759474,1648952880.778637,111.0,0.0,4344.102539,4664.102539,4096.922852000001,4556.410156,4520.0,0.0,3.0,73.0,,,,0.0,0.0,4.0,1.0,0.0,0.0,0.0,,,,,,,,,,,,,,,,,,,,,,,,,,,,,,,,,,,,,,,,,,,,,,,,,,,,,,,,,,,,,,,,,,,,,,,,,,,,,,,,,,,,
35345,1648952880.7672892,1648952880.786352,112.0,0.0,4554.871582,4188.717772999999,4243.077147999999,4439.487305,4446.153809,450.0,3.0,73.0,,,,0.0,0.0,4.0,1.0,0.0,0.0,0.0,,,,,,,,56.0,0.0,0.777317,-0.08618200000000001,0.11718800000000001,0.612061,0.310552,-0.013672,-0.9863430000000001,0.00863,-0.020392,-0.044348,,,,,,,,,,,,,,,,,,,,,,,,,,,,,,,,,,,,,,,,,,,,,,,,,,,,,,,,,,,,,,,,,
35346,1648952880.7751029,1648952880.794166,113.0,0.0,4287.692383,4317.436035,4176.410156,4229.230957,4462.05127,450.0,3.0,73.0,,,,0.0,0.0,4.0,1.0,0.0,0.0,0.0,,,,,,,,,,,,,,,,,,,,1.0,0.0,0.0,,,,,,,,,,,,,,,,,,,,,,,,,,,,,,,,0.0,0.0,32.0,0.068713,1.0,0.0,267.915161,301.868805,346.318085,302.01504500000004,1196.450562,168.077469,187.933777,126.10451499999999,178.95137,257.585938,592.89917,225.004883,58.001571999999996,216.23413100000002,478.71231100000006,173.279846,105.67953500000002,91.350647,85.354332,400.513702,342.558807,167.782379,703.644958,411.72000099999997,907.7608640000001
35347,1648952880.782918,1648952880.8018801,114.0,0.0,4001.538574,4864.102539,3918.461426,4337.94873,4398.974121,450.0,3.0,73.0,,,,0.0,0.0,4.0,1.0,0.0,0.0,0.0,,,,,,,,57.0,0.0,0.77761,-0.085938,0.116699,0.611816,0.315923,-0.008789,-0.8999159999999999,0.005863,-0.020453,-0.036739,,,,,,,,,,,,,,,,,,,,,,,,,,,,,,,,,,,,,,,,,,,,,,,,,,,,,,,,,,,,,,,,,
35348,1648952880.7907321,1648952880.809694,115.0,0.0,4302.05127,4557.436035,4148.205078,4642.05127,4502.563965,0.0,3.0,73.0,,,,0.0,0.0,4.0,1.0,0.0,0.0,0.0,,,,,,,,,,,,,,,,,,,,,,,,,,,,,,,,,,,,,,,,,,,,,,,,,,,,,,,,,,,,,,,,,,,,,,,,,,,,,,,,,,,,
35349,1648952880.798547,1648952880.817409,116.0,0.0,4091.794922,4198.974121,4163.589844,4094.8718259999996,4170.256348,450.0,3.0,73.0,,,,0.0,0.0,4.0,1.0,0.0,0.0,0.0,,,,,,,,58.0,0.0,0.77761,-0.085938,0.116699,0.611816,0.25195700000000004,0.005371,-1.068864,0.006449,-0.020458,-0.039413,,,,,,,,,,,,,,,,,,,,,,,,,,,,,,,,,,,,,,,,,,,,,,,,,,,,,,,,,,,,,,,,,
35350,1648952880.806361,1648952880.825123,117.0,0.0,4741.538574,4168.717772999999,3770.7692869999996,4788.717772999999,4947.692383,450.0,3.0,73.0,,,,0.0,0.0,4.0,1.0,0.0,0.0,0.0,,,,,,,,,,,,,,,,,,,,,,,,,,,,,,,,,,,,,,,,,,,,,,,,,,,,,,0.0,0.0,32.0,0.068713,1.0,0.0,,,,,,,,,,,,,,,,,,,,,,,,,
35351,1648952880.814176,1648952880.8329382,118.0,0.0,4103.589844,4108.205078,4456.410156,4376.922852000001,4326.666504,450.0,3.0,73.0,,,,0.0,0.0,4.0,1.0,0.0,0.0,0.0,,,,,,,,59.0,0.0,0.777408,-0.086426,0.117676,0.611816,0.279789,-0.0063479999999999995,-1.019547,0.008587000000000001,-0.020413999999999998,-0.041868,,,,,,,,,,,,,,,,,,,,,,,,,,,,,,,,,,,,,,,,,,,,,,,,,,,,,,,,,,,,,,,,,
35352,1648952880.82199,1648952880.840752,119.0,0.0,3147.6923829999996,3821.025635,5175.897461,2970.769287,3020.0,0.0,3.0,73.0,,,,0.0,0.0,4.0,1.0,0.0,0.0,0.0,,,,,,,,,,,,,,,,,,,,,,,,,,,,,,,,,,,,,,,,,,,,,,,,,,,,,,,,,,,,,,,,,,,,,,,,,,,,,,,,,,,,
35353,1648952880.8298051,1648952880.848466,120.0,0.0,4089.743652,3887.179443,4578.974121,3746.1538090000004,4024.615479,450.0,3.0,73.0,,,,0.0,0.0,4.0,1.0,0.0,0.0,0.0,,,,,,,,60.0,0.0,0.777307,-0.08667000000000001,0.118164,0.611816,0.28076599999999996,-0.002441,-0.991714,0.009047,-0.020375,-0.04398,,,,,,,,,,,,,,,,,,,,,,,,,,,,,,,,,,,,,,,,,,,,,,,,,,,,,,,,,,,,,,,,,
35354,1648952880.8376188,1648952880.8561811,121.0,0.0,4747.692383,4226.153809,3862.5642090000006,4890.769043,4990.256348,450.0,3.0,73.0,,,,0.0,0.0,4.0,1.0,0.0,0.0,0.0,,,,,,,,,,,,,,,,,,,,,,,,,,,,,,,,,,,,,,,,,,,,,,,,,,,,,,0.0,0.0,32.0,0.068713,1.0,0.0,,,,,,,,,,,,,,,,,,,,,,,,,
35355,1648952880.845434,1648952880.8639948,122.0,0.0,4106.666504,4291.282227000001,4394.358886999999,4416.410156,4282.563965,450.0,3.0,73.0,,,,0.0,0.0,4.0,1.0,0.0,0.0,0.0,,,,,,,,61.0,0.0,0.7774449999999999,-0.086426,0.117432,0.611816,0.308598,-0.013672,-0.9834129999999999,0.009216,-0.020291,-0.036409,,,,,,,,,,,,,,,,,,,,,,,,,,,,,,,,,,,,,,,,,,,,,,,,,,,,,,,,,,,,,,,,,
35356,1648952880.8532481,1648952880.87171,123.0,0.0,3755.384521,4347.692383,4416.922852000001,3576.4101560000004,3696.923096,0.0,3.0,73.0,,,,0.0,0.0,4.0,1.0,0.0,0.0,0.0,,,,,,,,,,,,,,,,,,,,,,,,,,,,,,,,,,,,,,,,,,,,,,,,,,,,,,,,,,,,,,,,,,,,,,,,,,,,,,,,,,,,
35357,1648952880.861063,1648952880.879524,124.0,0.0,4909.743652,4232.307617,3925.641113,4572.820313,4850.256348,450.0,3.0,73.0,,,,0.0,0.0,4.0,1.0,0.0,0.0,0.0,,,,,,,,62.0,0.0,0.777408,-0.086426,0.117676,0.611816,0.279789,-0.0063479999999999995,-1.019547,0.007855,-0.02041,-0.029594,,,,,,,,,,,,,,,,,,,,,,,,,,,,,,,,,,,,,,,,,,,,,,,,,,,,,,,,,,,,,,,,,
35358,1648952880.868878,1648952880.887239,125.0,0.0,4214.871582,4291.282227000001,4164.615234000001,4203.077147999999,4100.512695,450.0,3.0,73.0,,,,0.0,0.0,4.0,1.0,0.0,0.0,0.0,,,,,,,,,,,,,,,,,,,,,,,,,,,,,,,,,,,,,,,,,,,,,,,,,,,,,,0.0,0.0,32.0,0.068713,1.0,0.0,,,,,,,,,,,,,,,,,,,,,,,,,
35359,1648952880.876692,1648952880.895053,126.0,0.0,3719.487061,4269.743652,4235.897461,3476.4101560000004,3422.0512700000004,450.0,3.0,73.0,,,,0.0,0.0,4.0,1.0,0.0,0.0,0.0,,,,,,,,63.0,0.0,0.7774449999999999,-0.086426,0.117432,0.611816,0.308598,-0.013672,-0.9834129999999999,0.008144,-0.020322,-0.023461000000000003,,,,,,,,,,,,,,,,,,,,,,,,,,,,,,,,,,,,,,,,,,,,,,,,,,,,,,,,,,,,,,,,,
35360,1648952880.884507,1648952880.902767,127.0,0.0,5438.974121,4243.589844,3784.615479,4853.333496,5306.153809,238.0,3.0,73.0,,,,0.0,0.0,4.0,1.0,0.0,0.0,0.0,,,,,,,,,,,,,,,,,,,,,,,,,,,,,,,,,,,,,,,,,,,,,,,,,,,,,,,,,,,,,,,,,,,,,,,,,,,,,,,,,,,,
35361,1648952880.892321,1648952880.910582,0.0,0.0,5494.358886999999,4310.769043,3618.974365,5360.512695,5719.487305,450.0,3.0,73.0,,,,0.0,0.0,4.0,1.0,0.0,0.0,0.0,,,,,,,,0.0,0.0,0.777646,-0.085938,0.11645499999999999,0.611816,0.29102,-0.030762,-0.980972,0.008453,-0.020291999999999998,-0.027364999999999997,,,,,,,,,,,,,,,,,,,,,,,,,,,,,,,,,,,,,,,,,,,,,,,,,,,,,,,,,,,,,,,,,
35362,1648952880.900136,1648952880.918296,1.0,0.0,4128.205078,4290.256348,3973.3332520000004,4532.820313,4361.538574,450.0,3.0,73.0,,,,0.0,0.0,4.0,1.0,0.0,0.0,0.0,0.972656,0.0,0.0,0.0,0.0,0.0,0.0,,,,,,,,,,,,,1.0,0.0,0.0,,,,,,,,,,,,,,,,,,,,,,,,,,,,,,,,0.0,0.0,32.0,0.047485,1.0,0.0,203.548431,234.15846299999998,183.458405,185.972137,835.792297,240.585083,148.095322,90.633347,187.432068,294.776276,484.24090599999994,174.143021,66.733536,149.580551,330.88266,179.87493899999998,103.944069,86.92984,73.73485600000001,457.91589400000004,214.794769,103.123802,386.49755899999997,250.25134300000002,578.0769650000001
35363,1648952880.90795,1648952880.926111,2.0,0.0,3780.512939,4481.025879,4133.333496,3968.718018,3784.102539,0.0,3.0,73.0,,,,0.0,0.0,4.0,1.0,0.0,0.0,0.0,,,,,,,,1.0,0.0,0.77761,-0.085938,0.116699,0.611816,0.299321,-0.020508000000000002,-0.9673,0.010391,-0.020265000000000002,-0.031025,,,,,,,,,,,,,,,,,,,,,,,,,,,,,,,,,,,,,,,,,,,,,,,,,,,,,,,,,,,,,,,,,
35364,1648952880.915765,1648952880.933825,3.0,0.0,4929.743652,4333.333496,4092.3076170000004,4820.0,4921.538574,450.0,3.0,73.0,,,,0.0,0.0,0.0,1.0,0.0,0.0,0.0,,,,,,,,,,,,,,,,,,,,,,,,,,,,,,,,,,,,,,,,,,,,,,,,,,,,,,,,,,,,,,,,,,,,,,,,,,,,,,,,,,,,
35365,1648952880.9235802,1648952880.941639,4.0,0.0,4257.436035,4324.102539,4047.6923829999996,4357.436035,4492.307617,0.0,3.0,73.0,,,,0.0,0.0,0.0,1.0,0.0,0.0,0.0,,,,,,,,2.0,0.0,0.777472,-0.08618200000000001,0.117432,0.611816,0.294926,-0.00293,-0.993667,0.010475,-0.020191,-0.034319,,,,,,,,,,,,,,,,,,,,,,,,,,,,,,,,,,,,,,,,,,,,,,,,,,,,,,,,,,,,,,,,,
35366,1648952880.9313939,1648952880.949354,5.0,0.0,3835.384521,4726.666504,3932.3076170000004,4113.846191,4035.897461,450.0,3.0,73.0,,,,0.0,0.0,0.0,2.0,0.0,0.0,0.0,,,,,,,,,,,,,,,,,,,,,,,,,,,,,,,,,,,,,,,,,,,,,,,,,,,,,,0.0,0.0,32.0,0.047485,1.0,0.0,,,,,,,,,,,,,,,,,,,,,,,,,
35367,1648952880.939209,1648952880.9571679,6.0,0.0,4434.358886999999,4980.512695,4135.384765999999,4744.102539,4475.897461,246.0,3.0,73.0,,,,0.0,0.0,0.0,2.0,0.0,0.0,0.0,,,,,,,,3.0,0.0,0.777334,-0.086426,0.118164,0.611816,0.300786,-0.010742,-0.9873200000000001,0.010598999999999999,-0.020272,-0.037235000000000004,,,,,,,,,,,,,,,,,,,,,,,,,,,,,,,,,,,,,,,,,,,,,,,,,,,,,,,,,,,,,,,,,
35368,1648952880.9470232,1648952880.9648821,7.0,0.0,4374.871582,4597.94873,4166.666504,4418.974121,4483.589844,450.0,3.0,73.0,,,,0.0,0.0,0.0,2.0,0.0,0.0,0.0,,,,,,,,,,,,,,,,,,,,,,,,,,,,,,,,,,,,,,,,,,,,,,,,,,,,,,,,,,,,,,,,,,,,,,,,,,,,,,,,,,,,
35369,1648952880.954838,1648952880.972696,8.0,0.0,4510.256348,4368.717772999999,3977.9487299999996,4318.974121,4763.589844,450.0,3.0,73.0,,,,0.0,0.0,0.0,2.0,0.0,0.0,0.0,,,,,,,,4.0,0.0,0.777334,-0.086426,0.118164,0.611816,0.307622,-0.017578,-0.94435,0.009148,-0.020296,-0.030191000000000003,,,,,,,,,,,,,,,,,,,,,,,,,,,,,,,,,,,,,,,,,,,,,,,,,,,,,,,,,,,,,,,,,
35370,1648952880.962652,1648952880.980411,9.0,0.0,3830.7692869999996,4833.846191,3943.076904,4009.743652,4047.6923829999996,11.0,3.0,73.0,,,,0.0,0.0,0.0,2.0,0.0,0.0,0.0,,,,,,,,,,,,,,,,,,,,,,,,,,,,,,,,,,,,,,,,,,,,,,,,,,,,,,0.0,0.0,32.0,0.047485,1.0,0.0,,,,,,,,,,,,,,,,,,,,,,,,,
35371,1648952880.970467,1648952880.988225,10.0,0.0,4410.256348,5126.153809,3964.102539,4822.05127,4474.871582,450.0,3.0,73.0,,,,0.0,0.0,0.0,2.0,0.0,0.0,0.0,,,,,,,,5.0,0.0,0.777509,-0.08618200000000001,0.11718800000000001,0.611816,0.311528,-0.024413999999999998,-0.960464,0.006183,-0.020268,-0.033471,,,,,,,,,,,,,,,,,,,,,,,,,,,,,,,,,,,,,,,,,,,,,,,,,,,,,,,,,,,,,,,,,
35372,1648952880.978281,1648952880.995939,11.0,0.0,4849.230957,4856.410156,4518.974121,4860.512695,4895.897461,75.0,3.0,73.0,,,,0.0,0.0,0.0,2.0,0.0,1.0,0.0,,,,,,,,,,,,,,,,,,,,,,,,,,,,,,,,,,,,,,,,,,,,,,,,,,,,,,,,,,,,,,,,,,,,,,,,,,,,,,,,,,,,
35373,1648952880.9860961,1648952881.003654,12.0,0.0,3103.076904,4335.384765999999,4797.94873,2710.256348,2951.281982,450.0,3.0,73.0,,,,0.0,0.0,0.0,2.0,0.0,1.0,0.0,,,,,,,,6.0,0.0,0.77761,-0.085938,0.116699,0.611816,0.270512,-0.003418,-1.022965,0.006736,-0.020340999999999998,-0.03652,,,,,,,,,,,,,,,,,,,,,,,,,,,,,,,,,,,,,,,,,,,,,,,,,,,,,,,,,,,,,,,,,
35374,1648952880.99391,1648952881.011468,13.0,0.0,3255.897461,4057.9487299999996,4406.666504,3061.5385739999997,2944.102539,450.0,3.0,73.0,,,,0.0,0.0,0.0,2.0,0.0,1.0,0.0,,,,,,,,,,,,,,,,,,,,,,,,,,,,,,,,,,,,,,,,,,,,,,,,,,,,,,0.0,0.0,32.0,0.047485,1.0,0.0,,,,,,,,,,,,,,,,,,,,,,,,,
35375,1648952881.001725,1648952881.019283,14.0,0.0,4661.538574,4277.436035,4002.0512700000004,4544.102539,4434.871582,450.0,3.0,73.0,,,,0.0,0.0,0.0,2.0,0.0,1.0,0.0,,,,,,,,7.0,0.0,0.777472,-0.08618200000000001,0.117432,0.611816,0.280278,0.000977,-1.0053860000000001,0.007039,-0.02026,-0.039314,,,,,,,,,,,,,,,,,,,,,,,,,,,,,,,,,,,,,,,,,,,,,,,,,,,,,,,,,,,,,,,,,
35376,1648952881.0095391,1648952881.026997,15.0,0.0,4844.102539,4309.743652,4112.820313,4465.641113000001,4689.230957,75.0,3.0,73.0,,,,0.0,0.0,0.0,2.0,0.0,1.0,0.0,,,,,,,,,,,,,,,,,,,,,,,,,,,,,,,,,,,,,,,,,,,,,,,,,,,,,,,,,,,,,,,,,,,,,,,,,,,,,,,,,,,,
35377,1648952881.017354,1648952881.034711,16.0,0.0,3737.9487299999996,4187.692383,4089.2307130000004,3576.923096,3627.179443,0.0,3.0,73.0,,,,0.0,0.0,0.0,2.0,0.0,1.0,0.0,,,,,,,,8.0,0.0,0.777307,-0.08667000000000001,0.118164,0.611816,0.28809,0.001953,-1.000992,0.007506999999999999,-0.020431,-0.029279000000000003,,,,,,,,,,,,,,,,,,,,,,,,,,,,,,,,,,,,,,,,,,,,,,,,,,,,,,,,,,,,,,,,,
35378,1648952881.025169,1648952881.042526,17.0,0.0,4411.282227000001,4104.615234000001,4206.153809,4714.871582,4451.794922,0.0,3.0,73.0,,,,0.0,0.0,0.0,2.0,0.0,1.0,0.0,,,,,,,,,,,,,,,,,,,,1.0,0.0,0.0,,,,,,,,,,,,,,,,,,,,,,,,,,,,,,,,0.0,0.0,32.0,0.04444,1.0,0.0,181.798004,186.836136,111.64888799999999,129.713211,612.181641,384.821014,147.644211,62.354645,225.90777599999998,312.956116,407.170746,166.32798799999998,77.640663,110.601021,240.976181,210.33342000000002,130.00663799999998,85.642609,68.272255,517.716675,144.16236899999998,72.448174,196.760162,137.673691,398.425385
35379,1648952881.032983,1648952881.05024,18.0,0.0,4390.256348,4306.666504,4592.307617,4569.743652,4567.692383,0.0,3.0,73.0,,,,0.0,0.0,0.0,2.0,0.0,1.0,0.0,,,,,,,,9.0,0.0,0.777371,-0.086426,0.11792000000000001,0.611816,0.294926,-0.012695999999999999,-0.9858549999999999,0.007977,-0.020340999999999998,-0.03265,,,,,,,,,,,,,,,,,,,,,,,,,,,,,,,,,,,,,,,,,,,,,,,,,,,,,,,,,,,,,,,,,
35380,1648952881.040798,1648952881.0580552,19.0,0.0,4045.641113,4323.589844,4306.153809,3748.205078,4081.538574,0.0,3.0,73.0,,,,0.0,0.0,0.0,2.0,0.0,1.0,0.0,,,,,,,,,,,,,,,,,,,,,,,,,,,,,,,,,,,,,,,,,,,,,,,,,,,,,,,,,,,,,,,,,,,,,,,,,,,,,,,,,,,,
35381,1648952881.0486119,1648952881.065769,20.0,0.0,4813.846191,4239.487305,4238.461426,4709.230957,4797.436035,0.0,3.0,73.0,,,,0.0,0.0,0.0,2.0,0.0,1.0,0.0,,,,,,,,10.0,0.0,0.77761,-0.085938,0.116699,0.611816,0.316411,-0.031738999999999996,-0.95021,0.005324000000000001,-0.020406999999999998,-0.026211,,,,,,,,,,,,,,,,,,,,,,,,,,,,,,,,,,,,,,,,,,,,,,,,,,,,,,,,,,,,,,,,,
35382,1648952881.056427,1648952881.073584,21.0,0.0,3520.0,4331.282227000001,4359.487305,3813.8461909999996,3506.6667479999996,0.0,3.0,73.0,,,,0.0,0.0,0.0,2.0,0.0,1.0,0.0,,,,,,,,,,,,,,,,,,,,,,,,,,,,,,,,,,,,,,,,,,,,,,,,,,,,,,0.0,0.0,32.0,0.04444,1.0,0.0,,,,,,,,,,,,,,,,,,,,,,,,,
35383,1648952881.064241,1648952881.081298,22.0,0.0,3020.512939,4275.897461,3881.538574,2948.718018,2875.897461,0.0,3.0,73.0,,,,0.0,0.0,0.0,2.0,0.0,1.0,0.0,,,,,,,,11.0,0.0,0.777518,-0.08569299999999999,0.116211,0.612061,0.287602,0.001465,-0.9785309999999999,0.005915,-0.020222,-0.029938,,,,,,,,,,,,,,,,,,,,,,,,,,,,,,,,,,,,,,,,,,,,,,,,,,,,,,,,,,,,,,,,,
35384,1648952881.072056,1648952881.089113,23.0,0.0,4430.256348,4282.05127,3613.8461909999996,4118.461426,4413.333496,0.0,3.0,73.0,,,,0.0,0.0,0.0,2.0,0.0,1.0,0.0,,,,,,,,,,,,,,,,,,,,,,,,,,,,,,,,,,,,,,,,,,,,,,,,,,,,,,,,,,,,,,,,,,,,,,,,,,,,,,,,,,,,
35385,1648952881.0798712,1648952881.096827,24.0,0.0,4847.692383,4363.077147999999,3987.6923829999996,5049.743652,5078.461426,0.0,3.0,73.0,,,,0.0,0.0,0.0,2.0,0.0,1.0,0.0,,,,,,,,12.0,0.0,0.777573,-0.085938,0.116943,0.611816,0.284672,-0.005371,-1.001968,0.00337,-0.02025,-0.023721000000000003,,,,,,,,,,,,,,,,,,,,,,,,,,,,,,,,,,,,,,,,,,,,,,,,,,,,,,,,,,,,,,,,,
35386,1648952881.0876849,1648952881.104641,25.0,0.0,3960.512939,4637.94873,4305.128418,4453.333496,4142.563965,0.0,3.0,73.0,,,,0.0,0.0,0.0,2.0,0.0,1.0,0.0,,,,,,,,,,,,,,,,,,,,,,,,,,,,,,,,,,,,,,,,,,,,,,,,,,,,,,0.0,0.0,32.0,0.04444,1.0,0.0,,,,,,,,,,,,,,,,,,,,,,,,,
35387,1648952881.0955,1648952881.112356,26.0,0.0,4173.333496,4659.487305,4185.641113000001,4160.512695,4117.94873,0.0,3.0,73.0,,,,0.0,0.0,0.0,2.0,0.0,1.0,0.0,,,,,,,,13.0,0.0,0.777371,-0.086426,0.11792000000000001,0.611816,0.291508,-0.013672,-0.99025,0.004303,-0.020325,-0.027648000000000002,,,,,,,,,,,,,,,,,,,,,,,,,,,,,,,,,,,,,,,,,,,,,,,,,,,,,,,,,,,,,,,,,
35388,1648952881.1033142,1648952881.1201699,27.0,0.0,4933.333496,4346.666504,4171.282227000001,4696.922852000001,4977.436035,0.0,3.0,73.0,,,,0.0,0.0,0.0,2.0,0.0,1.0,0.0,,,,,,,,,,,,,,,,,,,,,,,,,,,,,,,,,,,,,,,,,,,,,,,,,,,,,,,,,,,,,,,,,,,,,,,,,,,,,,,,,,,,
35389,1648952881.1111288,1648952881.1278849,28.0,0.0,4038.461426,4440.512695,4101.025879,4198.461426,4191.282227000001,0.0,3.0,73.0,,,,0.0,0.0,0.0,2.0,0.0,1.0,0.0,,,,,,,,14.0,0.0,0.777371,-0.086426,0.11792000000000001,0.611816,0.30811,-0.022461000000000002,-0.96144,0.005093,-0.020294,-0.031132999999999997,,,,,,,,,,,,,,,,,,,,,,,,,,,,,,,,,,,,,,,,,,,,,,,,,,,,,,,,,,,,,,,,,
35390,1648952881.118943,1648952881.135699,29.0,0.0,4220.0,4743.589844,4206.153809,4730.769043,4338.974121,0.0,3.0,73.0,,,,0.0,0.0,0.0,2.0,0.0,1.0,0.0,,,,,,,,,,,,,,,,,,,,,,,,,,,,,,,,,,,,,,,,,,,,,,,,,,,,,,0.0,0.0,32.0,0.04444,1.0,0.0,,,,,,,,,,,,,,,,,,,,,,,,,
35391,1648952881.126758,1648952881.143414,30.0,0.0,4178.461426,4618.974121,4320.512695,4396.922852000001,4398.461426,0.0,3.0,73.0,,,,0.0,0.0,0.0,2.0,0.0,1.0,0.0,,,,,,,,15.0,0.0,0.777417,-0.085938,0.116699,0.612061,0.301274,-0.013672,-0.9580219999999999,0.005658,-0.020316,-0.034319,,,,,,,,,,,,,,,,,,,,,,,,,,,,,,,,,,,,,,,,,,,,,,,,,,,,,,,,,,,,,,,,,
35392,1648952881.134572,1648952881.1511278,31.0,0.0,4462.05127,4273.846191,4024.615479,4084.615479,4624.102539,0.0,3.0,73.0,,,,0.0,0.0,0.0,2.0,0.0,1.0,0.0,,,,,,,,,,,,,,,,,,,,,,,,,,,,,,,,,,,,,,,,,,,,,,,,,,,,,,,,,,,,,,,,,,,,,,,,,,,,,,,,,,,,
35393,1648952881.142387,1648952881.158943,32.0,0.0,4758.461426,4292.307617,4155.897461,4733.846191,4869.743652,0.0,3.0,73.0,,,,0.0,0.0,0.0,2.0,0.0,1.0,0.0,,,,,,,,16.0,0.0,0.777617,-0.085449,0.115723,0.612061,0.29736799999999997,-0.01709,-0.9799950000000001,0.006313,-0.020286000000000002,-0.037137,,,,,,,,,,,,,,,,,,,,,,,,,,,,,,,,,,,,,,,,,,,,,,,,,,,,,,,,,,,,,,,,,
35394,1648952881.150201,1648952881.166657,33.0,0.0,3414.358887,4403.077147999999,4255.384765999999,3921.538574,3544.615479,0.0,3.0,73.0,,,,0.0,0.0,0.0,2.0,0.0,1.0,0.0,,,,,,,,,,,,,,,,,,,,1.0,0.0,0.0,,,,,,,,,,,,,,,,,,,,,,,,,,,,,,,,0.0,0.0,32.0,0.052384,1.0,0.0,217.401627,163.302612,116.33483100000001,136.484253,543.619629,597.1297,168.677933,48.041809,284.606384,307.948059,383.841003,194.722809,90.449089,102.756271,207.08999599999999,296.55169700000005,182.591385,92.153038,86.75522600000001,605.618042,162.696671,83.370491,129.72468600000002,97.73509200000001,374.320587
35395,1648952881.158016,1648952881.1744711,34.0,0.0,4311.794922,4186.666504,3918.461426,4398.974121,4335.897461,0.0,3.0,73.0,,,,0.0,0.0,0.0,2.0,0.0,1.0,0.0,,,,,,,,17.0,0.0,0.777518,-0.08569299999999999,0.116211,0.612061,0.297856,-0.000488,-1.002457,0.005389,-0.02026,-0.039673,,,,,,,,,,,,,,,,,,,,,,,,,,,,,,,,,,,,,,,,,,,,,,,,,,,,,,,,,,,,,,,,,
35396,1648952881.1658301,1648952881.182186,35.0,0.0,5400.0,3982.5642090000006,3844.615479,5080.0,5467.179688,0.0,3.0,73.0,,,,0.0,0.0,0.0,2.0,0.0,1.0,0.0,,,,,,,,,,,,,,,,,,,,,,,,,,,,,,,,,,,,,,,,,,,,,,,,,,,,,,,,,,,,,,,,,,,,,,,,,,,,,,,,,,,,
35397,1648952881.173645,1648952881.19,36.0,0.0,4717.94873,4119.487305,4262.563965,4490.256348,4926.153809,0.0,3.0,73.0,,,,0.0,0.0,0.0,2.0,0.0,1.0,0.0,,,,,,,,18.0,0.0,0.777243,-0.08618200000000001,0.117676,0.612061,0.280278,-0.0063479999999999995,-0.993179,0.007534999999999999,-0.020236,-0.042005,,,,,,,,,,,,,,,,,,,,,,,,,,,,,,,,,,,,,,,,,,,,,,,,,,,,,,,,,,,,,,,,,
35398,1648952881.18146,1648952881.197715,37.0,0.0,3856.4101560000004,4564.102539,4586.666504,3765.1281740000004,3996.4101560000004,0.0,3.0,73.0,,,,0.0,0.0,0.0,2.0,0.0,1.0,0.0,,,,,,,,,,,,,,,,,,,,,,,,,,,,,,,,,,,,,,,,,,,,,,,,,,,,,,0.0,0.0,32.0,0.052384,1.0,0.0,,,,,,,,,,,,,,,,,,,,,,,,,
35399,1648952881.189274,1648952881.205529,38.0,0.0,4358.461426,4477.436035,4361.538574,4448.205078,4350.769043,0.0,3.0,73.0,,,,0.0,0.0,0.0,2.0,0.0,1.0,0.0,,,,,,,,19.0,0.0,0.777179,-0.086426,0.11792000000000001,0.612061,0.286625,-0.009276999999999999,-0.989273,0.008003,-0.020263,-0.044152,,,,,,,,,,,,,,,,,,,,,,,,,,,,,,,,,,,,,,,,,,,,,,,,,,,,,,,,,,,,,,,,,
35400,1648952881.197089,1648952881.213244,39.0,0.0,4234.358886999999,4073.8461909999996,4189.743652,4424.102539,4210.769043,0.0,3.0,73.0,,,,0.0,0.0,0.0,2.0,0.0,1.0,0.0,,,,,,,,,,,,,,,,,,,,,,,,,,,,,,,,,,,,,,,,,,,,,,,,,,,,,,,,,,,,,,,,,,,,,,,,,,,,,,,,,,,,
35401,1648952881.204903,1648952881.221058,40.0,0.0,4037.4357909999994,4053.8461909999996,4064.102539,3763.5898439999996,3813.3332520000004,0.0,3.0,73.0,,,,0.0,0.0,0.0,2.0,0.0,1.0,0.0,,,,,,,,20.0,0.0,0.777354,-0.08618200000000001,0.116943,0.612061,0.32910700000000004,-0.021973,-0.9629049999999999,0.008325,-0.020239,-0.046036,,,,,,,,,,,,,,,,,,,,,,,,,,,,,,,,,,,,,,,,,,,,,,,,,,,,,,,,,,,,,,,,,
35402,1648952881.212718,1648952881.228773,41.0,0.0,4885.128418,4101.538574,4166.666504,4497.94873,4694.358886999999,0.0,3.0,73.0,,,,0.0,0.0,0.0,2.0,0.0,1.0,0.0,,,,,,,,,,,,,,,,,,,,,,,,,,,,,,,,,,,,,,,,,,,,,,,,,,,,,,0.0,0.0,32.0,0.052384,1.0,0.0,,,,,,,,,,,,,,,,,,,,,,,,,
35403,1648952881.220532,1648952881.2365868,42.0,0.0,3880.512939,4244.102539,4161.538574,3992.3076170000004,4116.922852000001,0.0,3.0,73.0,,,,0.0,0.0,0.0,2.0,0.0,1.0,0.0,,,,,,,,21.0,0.0,0.777518,-0.08569299999999999,0.116211,0.612061,0.295903,-0.008301000000000001,-0.9824370000000001,0.005686,-0.020314,-0.038258,,,,,,,,,,,,,,,,,,,,,,,,,,,,,,,,,,,,,,,,,,,,,,,,,,,,,,,,,,,,,,,,,
35404,1648952881.228347,1648952881.244302,43.0,0.0,4184.102539,4249.743652,4175.897461,4315.897461,4426.153809,0.0,3.0,73.0,,,,0.0,0.0,0.0,2.0,0.0,1.0,0.0,,,,,,,,,,,,,,,,,,,,,,,,,,,,,,,,,,,,,,,,,,,,,,,,,,,,,,,,,,,,,,,,,,,,,,,,,,,,,,,,,,,,
35405,1648952881.236162,1648952881.252116,44.0,0.0,4995.384765999999,4280.0,4672.820313,4992.820313,4835.897461,0.0,3.0,73.0,,,,0.0,0.0,0.0,2.0,0.0,1.0,0.0,,,,,,,,22.0,0.0,0.7774909999999999,-0.085938,0.116211,0.612061,0.286137,-0.010742,-0.988296,0.0063869999999999994,-0.020285,-0.040732,,,,,,,,,,,,,,,,,,,,,,,,,,,,,,,,,,,,,,,,,,,,,,,,,,,,,,,,,,,,,,,,,
35406,1648952881.2439759,1648952881.259831,45.0,0.0,3331.794922,4580.512695,4732.307617,3316.923096,3137.94873,0.0,3.0,73.0,,,,0.0,0.0,0.0,2.0,0.0,1.0,0.0,,,,,,,,,,,,,,,,,,,,,,,,,,,,,,,,,,,,,,,,,,,,,,,,,,,,,,0.0,0.0,32.0,0.052384,1.0,0.0,,,,,,,,,,,,,,,,,,,,,,,,,
35407,1648952881.251791,1648952881.267645,46.0,0.0,3171.281982,5024.615234000001,4332.820313,3147.6923829999996,3290.256348,0.0,3.0,73.0,,,,0.0,0.0,0.0,2.0,0.0,1.0,0.0,,,,,,,,23.0,0.0,0.77728,-0.08618200000000001,0.117432,0.612061,0.27881300000000003,-0.005371,-0.993667,0.00692,-0.020356,-0.042957,,,,,,,,,,,,,,,,,,,,,,,,,,,,,,,,,,,,,,,,,,,,,,,,,,,,,,,,,,,,,,,,,
35408,1648952881.2596052,1648952881.275359,47.0,0.0,4570.256348,5066.666504,4324.615234000001,4537.94873,4710.769043,0.0,3.0,73.0,,,,0.0,0.0,0.0,2.0,0.0,1.0,0.0,,,,,,,,,,,,,,,,,,,,,,,,,,,,,,,,,,,,,,,,,,,,,,,,,,,,,,,,,,,,,,,,,,,,,,,,,,,,,,,,,,,,
35409,1648952881.2674198,1648952881.2830741,48.0,0.0,5024.615234000001,4496.922852000001,4568.717772999999,4959.487305,5044.615234000001,0.0,3.0,73.0,,,,0.0,0.0,0.0,2.0,0.0,1.0,0.0,,,,,,,,24.0,0.0,0.777371,-0.086426,0.11792000000000001,0.611816,0.29443800000000003,-0.012695999999999999,-0.977554,0.007449,-0.020322,-0.045058,,,,,,,,,,,,,,,,,,,,,,,,,,,,,,,,,,,,,,,,,,,,,,,,,,,,,,,,,,,,,,,,,
35410,1648952881.275234,1648952881.290888,49.0,0.0,4026.6667479999996,4562.563965,4272.307617,3862.0512700000004,4064.102539,0.0,3.0,73.0,,,,0.0,0.0,0.0,2.0,0.0,1.0,0.0,,,,,,,,,,,,,,,,,,,,1.0,0.0,0.0,,,,,,,,,,,,,,,,,,,,,,,,,,,,,,,,0.0,0.0,32.0,0.052721000000000004,1.0,0.0,320.21484399999997,166.825119,186.19941699999998,200.744095,639.369629,865.3974609999999,201.08334399999998,50.316803,346.28326400000003,285.831757,423.57833899999997,244.291306,107.68148799999999,131.389587,218.00717200000003,466.63369800000004,253.237274,128.58367900000002,155.217773,765.613892,283.92981000000003,132.16989099999998,173.720566,146.109894,513.912659
35411,1648952881.283049,1648952881.2986028,50.0,0.0,4594.871582,5055.384765999999,3981.025635,4418.974121,4648.717772999999,0.0,3.0,73.0,,,,0.0,0.0,0.0,2.0,0.0,1.0,0.0,,,,,,,,25.0,0.0,0.77728,-0.08618200000000001,0.117432,0.612061,0.31006300000000003,-0.028321,-0.9546040000000001,0.006362,-0.020340999999999998,-0.03733,,,,,,,,,,,,,,,,,,,,,,,,,,,,,,,,,,,,,,,,,,,,,,,,,,,,,,,,,,,,,,,,,
35412,1648952881.290863,1648952881.306417,51.0,0.0,4569.743652,5169.230957,4299.487305,4567.179688,4645.128418,0.0,3.0,73.0,,,,0.0,0.0,0.0,2.0,0.0,1.0,0.0,,,,,,,,,,,,,,,,,,,,,,,,,,,,,,,,,,,,,,,,,,,,,,,,,,,,,,,,,,,,,,,,,,,,,,,,,,,,,,,,,,,,
35413,1648952881.298678,1648952881.314232,52.0,0.0,4310.769043,4483.077147999999,4458.461426,4171.282227000001,4351.794922,0.0,3.0,73.0,,,,0.0,0.0,0.0,2.0,0.0,1.0,0.0,,,,,,,,26.0,0.0,0.77728,-0.08618200000000001,0.117432,0.612061,0.27881300000000003,-0.005371,-0.993667,0.003822,-0.02026,-0.030374,,,,,,,,,,,,,,,,,,,,,,,,,,,,,,,,,,,,,,,,,,,,,,,,,,,,,,,,,,,,,,,,,
35414,1648952881.306492,1648952881.3219461,53.0,0.0,4648.717772999999,4316.922852000001,4177.94873,4381.025879,4663.077147999999,0.0,3.0,73.0,,,,0.0,0.0,0.0,2.0,0.0,1.0,0.0,,,,,,,,,,,,,,,,,,,,,,,,,,,,,,,,,,,,,,,,,,,,,,,,,,,,,,0.0,0.0,32.0,0.052721000000000004,1.0,0.0,,,,,,,,,,,,,,,,,,,,,,,,,
35415,1648952881.314307,1648952881.32976,54.0,0.0,4384.102539,4934.358886999999,3946.6667479999996,4221.025879,4370.256348,0.0,3.0,73.0,,,,0.0,0.0,0.0,2.0,0.0,1.0,0.0,,,,,,,,27.0,0.0,0.77728,-0.08618200000000001,0.117432,0.612061,0.31006300000000003,-0.028321,-0.9546040000000001,0.003098,-0.020285,-0.024114,,,,,,,,,,,,,,,,,,,,,,,,,,,,,,,,,,,,,,,,,,,,,,,,,,,,,,,,,,,,,,,,,
35416,1648952881.322122,1648952881.337474,55.0,0.0,4325.641113000001,5023.589844,4095.384521,4442.563965,4396.922852000001,0.0,3.0,73.0,,,,0.0,0.0,0.0,2.0,0.0,1.0,0.0,,,,,,,,,,,,,,,,,,,,,,,,,,,,,,,,,,,,,,,,,,,,,,,,,,,,,,,,,,,,,,,,,,,,,,,,,,,,,,,,,,,,
35417,1648952881.329936,1648952881.345289,56.0,0.0,4424.102539,4509.230957,4331.794922,4631.794922,4453.333496,0.0,3.0,73.0,,,,0.0,0.0,0.0,2.0,0.0,1.0,0.0,,,,,,,,28.0,0.0,0.7774439999999999,-0.08569299999999999,0.116699,0.612061,0.306157,-0.01709,-0.9677879999999999,0.005571,-0.020405,-0.028099000000000002,,,,,,,,,,,,,,,,,,,,,,,,,,,,,,,,,,,,,,,,,,,,,,,,,,,,,,,,,,,,,,,,,
35418,1648952881.337751,1648952881.353003,57.0,0.0,4634.358886999999,4263.589844,4201.025879,4583.589844,4686.666504,0.0,3.0,73.0,,,,0.0,0.0,0.0,2.0,0.0,1.0,0.0,,,,,,,,,,,,,,,,,,,,,,,,,,,,,,,,,,,,,,,,,,,,,,,,,,,,,,0.0,0.0,32.0,0.052721000000000004,1.0,0.0,,,,,,,,,,,,,,,,,,,,,,,,,
35419,1648952881.345565,1648952881.360717,58.0,0.0,4182.05127,4641.025879,4041.025635,3996.4101560000004,4205.128418,0.0,3.0,73.0,,,,0.0,0.0,0.0,2.0,0.0,1.0,0.0,,,,,,,,29.0,0.0,0.777381,-0.085938,0.116943,0.612061,0.287602,-0.013672,-0.9946440000000001,0.006235,-0.020366,-0.031686,,,,,,,,,,,,,,,,,,,,,,,,,,,,,,,,,,,,,,,,,,,,,,,,,,,,,,,,,,,,,,,,,
35420,1648952881.35338,1648952881.368532,59.0,0.0,4436.410156,4937.436035,3872.820557,4469.743652,4376.922852000001,0.0,3.0,73.0,,,,0.0,0.0,0.0,2.0,0.0,1.0,0.0,,,,,,,,,,,,,,,,,,,,,,,,,,,,,,,,,,,,,,,,,,,,,,,,,,,,,,,,,,,,,,,,,,,,,,,,,,,,,,,,,,,,
35421,1648952881.361194,1648952881.376346,60.0,0.0,4630.256348,4499.487305,4152.820313,4918.974121,4837.436035,0.0,3.0,73.0,,,,0.0,0.0,0.0,2.0,0.0,1.0,0.0,,,,,,,,30.0,0.0,0.7773979999999999,-0.08618200000000001,0.11792000000000001,0.611816,0.299321,-0.013184,-1.002457,0.006979000000000001,-0.020429,-0.034865,,,,,,,,,,,,,,,,,,,,,,,,,,,,,,,,,,,,,,,,,,,,,,,,,,,,,,,,,,,,,,,,,
35422,1648952881.369009,1648952881.38406,61.0,0.0,3186.666748,3674.8718259999996,4544.615234000001,3252.820557,3321.5385739999997,0.0,3.0,73.0,,,,0.0,0.0,0.0,2.0,0.0,1.0,0.0,,,,,,,,,,,,,,,,,,,,,,,,,,,,,,,,,,,,,,,,,,,,,,,,,,,,,,0.0,0.0,32.0,0.052721000000000004,1.0,0.0,,,,,,,,,,,,,,,,,,,,,,,,,
35423,1648952881.376823,1648952881.391875,62.0,0.0,3638.974365,3438.461426,4501.538574,3538.461426,3360.512939,0.0,3.0,73.0,,,,0.0,0.0,0.0,2.0,0.0,1.0,0.0,,,,,,,,31.0,0.0,0.777297,-0.086426,0.118408,0.611816,0.279301,-0.011231,-1.009293,0.004328,-0.02034,-0.028205,,,,,,,,,,,,,,,,,,,,,,,,,,,,,,,,,,,,,,,,,,,,,,,,,,,,,,,,,,,,,,,,,
35424,1648952881.384638,1648952881.399589,63.0,0.0,4781.025879,4261.538574,4112.307617,4649.743652,4446.666504,0.0,3.0,73.0,,,,0.0,0.0,0.0,2.0,0.0,1.0,0.0,,,,,,,,,,,,,,,,,,,,,,,,,,,,,,,,,,,,,,,,,,,,,,,,,,,,,,,,,,,,,,,,,,,,,,,,,,,,,,,,,,,,
35425,1648952881.392453,1648952881.4073029,64.0,0.0,4755.897461,4400.512695,4016.923096,4540.512695,4780.512695,450.0,3.0,73.0,,,,0.0,0.0,0.0,2.0,0.0,1.0,0.0,,,,,,,,32.0,0.0,0.777371,-0.086426,0.11792000000000001,0.611816,0.310552,-0.019043,-0.957046,0.0035039999999999997,-0.020259,-0.031830000000000004,,,,,,,,,,,,,,,,,,,,,,,,,,,,,,,,,,,,,,,,,,,,,,,,,,,,,,,,,,,,,,,,,
35426,1648952881.400267,1648952881.415018,65.0,0.0,3773.3332520000004,4028.718018,4150.769043,3549.2307130000004,3843.076904,450.0,3.0,73.0,,,,0.0,1.0,0.0,2.0,0.0,1.0,8.333333,0.972656,0.0,0.0,0.0,0.0,0.0,0.0,,,,,,,,,,,,,1.0,0.0,0.0,,,,,,,,,,,,,,,,,,,,,,,,,,,,,,,,0.0,0.0,32.0,0.052362,1.0,0.0,484.218719,190.08377099999998,318.878204,311.967896,904.897217,1163.643677,239.995544,68.744392,393.302887,260.271271,517.500671,295.72226,134.220917,195.55213899999998,259.886688,723.331421,325.02340699999996,234.594925,288.679749,1040.299927,500.078033,204.405502,333.48495499999996,286.717834,829.975708
35427,1648952881.408082,1648952881.422832,66.0,0.0,4343.589844,4134.871582,4160.0,4098.461426,4108.205078,98.0,3.0,73.0,,,,0.0,1.0,0.0,2.0,0.0,1.0,8.333333,,,,,,,,33.0,0.0,0.777381,-0.085938,0.116943,0.612061,0.331548,-0.008789,-0.9643700000000001,0.005888,-0.020235,-0.035043,,,,,,,,,,,,,,,,,,,,,,,,,,,,,,,,,,,,,,,,,,,,,,,,,,,,,,,,,,,,,,,,,
35428,1648952881.4158962,1648952881.4306471,67.0,0.0,5250.769043,4464.615234000001,4492.307617,5275.384765999999,5146.666504,450.0,3.0,73.0,,,,0.0,1.0,0.0,2.0,0.0,1.0,8.333333,,,,,,,,,,,,,,,,,,,,,,,,,,,,,,,,,,,,,,,,,,,,,,,,,,,,,,,,,,,,,,,,,,,,,,,,,,,,,,,,,,,,
35429,1648952881.4237108,1648952881.438361,68.0,0.0,3921.025635,4805.641113000001,4776.410156,4193.846191,3956.4101560000004,82.0,3.0,73.0,,,,0.0,1.0,1.0,2.0,0.0,1.0,16.666666,,,,,,,,34.0,0.0,0.777417,-0.085938,0.116699,0.612061,0.276371,-0.013184,-1.003433,0.006422,-0.020311000000000003,-0.025386000000000002,,,,,,,,,,,,,,,,,,,,,,,,,,,,,,,,,,,,,,,,,,,,,,,,,,,,,,,,,,,,,,,,,
35430,1648952881.431525,1648952881.446176,69.0,0.0,3019.487061,4957.436035,4469.743652,3023.589844,2854.871826,450.0,3.0,73.0,,,,0.0,1.0,1.0,2.0,0.0,1.0,16.666666,,,,,,,,,,,,,,,,,,,,,,,,,,,,,,,,,,,,,,,,,,,,,,,,,,,,,,0.0,0.0,32.0,0.052362,1.0,0.0,,,,,,,,,,,,,,,,,,,,,,,,,
35431,1648952881.43934,1648952881.45389,70.0,0.0,4038.461426,4807.692383,4038.461426,3760.0,3860.0,5.0,3.0,73.0,,,,0.0,1.0,1.0,0.0,0.0,1.0,8.333333,,,,,,,,35.0,0.0,0.77728,-0.08618200000000001,0.117432,0.612061,0.278325,-0.009276999999999999,-0.996597,0.003827,-0.020281999999999998,-0.019674,,,,,,,,,,,,,,,,,,,,,,,,,,,,,,,,,,,,,,,,,,,,,,,,,,,,,,,,,,,,,,,,,
35432,1648952881.4471538,1648952881.461705,71.0,0.0,4922.05127,4623.589844,4022.0512700000004,5120.0,5078.974121,450.0,3.0,73.0,,,,0.0,1.0,1.0,0.0,0.0,1.0,8.333333,,,,,,,,,,,,,,,,,,,,,,,,,,,,,,,,,,,,,,,,,,,,,,,,,,,,,,,,,,,,,,,,,,,,,,,,,,,,,,,,,,,,
35433,1648952881.454969,1648952881.469419,72.0,0.0,4041.025635,4840.512695,4248.205078,4546.153809,4257.436035,450.0,3.0,73.0,,,,0.0,1.0,1.0,0.0,0.0,1.0,8.333333,,,,,,,,36.0,0.0,0.777179,-0.086426,0.11792000000000001,0.612061,0.298344,-0.008789,-0.985367,0.001491,-0.020305,-0.014533,,,,,,,,,,,,,,,,,,,,,,,,,,,,,,,,,,,,,,,,,,,,,,,,,,,,,,,,,,,,,,,,,
35434,1648952881.462783,1648952881.477233,73.0,0.0,4106.666504,4659.487305,4194.871582,4066.6667479999996,4142.05127,0.0,3.0,73.0,,,,0.0,1.0,1.0,0.0,0.0,1.0,8.333333,,,,,,,,,,,,,,,,,,,,,,,,,,,,,,,,,,,,,,,,,,,,,,,,,,,,,,0.0,0.0,32.0,0.052362,1.0,0.0,,,,,,,,,,,,,,,,,,,,,,,,,
35435,1648952881.470598,1648952881.4849482,74.0,0.0,4810.769043,4260.512695,4018.461426,4582.05127,5029.230957,450.0,3.0,73.0,,,,0.0,1.0,1.0,0.0,0.0,0.0,0.0,,,,,,,,37.0,0.0,0.777243,-0.08618200000000001,0.117676,0.612061,0.298833,-0.029297000000000004,-0.953628,0.004028,-0.020227000000000002,-0.019427,,,,,,,,,,,,,,,,,,,,,,,,,,,,,,,,,,,,,,,,,,,,,,,,,,,,,,,,,,,,,,,,,
35436,1648952881.478413,1648952881.4927619,75.0,0.0,4044.615479,4587.692383,3929.743652,4227.179688,4284.102539,0.0,3.0,73.0,,,,0.0,1.0,1.0,0.0,0.0,0.0,0.0,,,,,,,,,,,,,,,,,,,,,,,,,,,,,,,,,,,,,,,,,,,,,,,,,,,,,,,,,,,,,,,,,,,,,,,,,,,,,,,,,,,,
35437,1648952881.486227,1648952881.5004768,76.0,0.0,4385.641113000001,4832.820313,4191.282227000001,4797.436035,4471.282227000001,450.0,3.0,73.0,,,,0.0,1.0,1.0,0.0,0.0,0.0,0.0,,,,,,,,38.0,0.0,0.777317,-0.08618200000000001,0.11718800000000001,0.612061,0.301274,-0.018555000000000002,-0.9550930000000001,0.004699,-0.020158000000000002,-0.023783000000000002,,,,,,,,,,,,,,,,,,,,,,,,,,,,,,,,,,,,,,,,,,,,,,,,,,,,,,,,,,,,,,,,,
35438,1648952881.494042,1648952881.508291,77.0,0.0,4234.358886999999,4440.0,4433.846191,4298.974121,4389.743652,450.0,3.0,73.0,,,,0.0,1.0,1.0,0.0,0.0,0.0,0.0,,,,,,,,,,,,,,,,,,,,,,,,,,,,,,,,,,,,,,,,,,,,,,,,,,,,,,0.0,0.0,32.0,0.052362,1.0,0.0,,,,,,,,,,,,,,,,,,,,,,,,,
35439,1648952881.501856,1648952881.516005,78.0,0.0,4301.025879,4256.410156,3976.4101560000004,4010.7692869999996,4496.410156,450.0,3.0,73.0,,,,0.0,1.0,1.0,0.0,0.0,0.0,0.0,,,,,,,,39.0,0.0,0.777381,-0.085938,0.116943,0.612061,0.30225100000000005,-0.023438,-0.976089,0.0054009999999999996,-0.020242,-0.018182,,,,,,,,,,,,,,,,,,,,,,,,,,,,,,,,,,,,,,,,,,,,,,,,,,,,,,,,,,,,,,,,,
35440,1648952881.5096712,1648952881.523819,79.0,0.0,5114.358886999999,4559.487305,4093.3332520000004,5155.897461,5283.589844,0.0,3.0,73.0,,,,0.0,1.0,1.0,0.0,0.0,0.0,0.0,,,,,,,,,,,,,,,,,,,,,,,,,,,,,,,,,,,,,,,,,,,,,,,,,,,,,,,,,,,,,,,,,,,,,,,,,,,,,,,,,,,,
35441,1648952881.517485,1648952881.531534,80.0,0.0,3513.3332520000004,4484.102539,4824.102539,3780.512939,3693.3332520000004,450.0,3.0,73.0,,,,0.0,1.0,1.0,0.0,0.0,0.0,0.0,,,,,,,,40.0,0.0,0.777381,-0.085938,0.116943,0.612061,0.285649,-0.017578,-1.002945,0.004422,-0.020316999999999998,-0.022712,,,,,,,,,,,,,,,,,,,,,,,,,,,,,,,,,,,,,,,,,,,,,,,,,,,,,,,,,,,,,,,,,
35442,1648952881.5253,1648952881.539248,81.0,0.0,3032.3076170000004,4062.0512700000004,4888.717772999999,2974.3588870000003,3292.3076170000004,450.0,3.0,73.0,,,,0.0,1.0,1.0,0.0,0.0,0.0,0.0,,,,,,,,,,,,,,,,,,,,1.0,0.0,0.0,,,,,,,,,,,,,,,,,,,,,,,,,,,,,,,,0.0,0.0,32.0,0.055767,1.0,0.0,687.913879,219.456512,510.337585,454.261627,1331.8397220000002,1460.685547,280.545898,104.99246200000002,411.771576,247.972763,639.27594,330.759521,178.67271399999998,285.028625,319.170685,1033.727539,376.60900899999996,438.177795,479.74939000000006,1441.65918,789.193176,277.674652,615.243896,514.272888,1315.340332
35443,1648952881.533114,1648952881.547062,82.0,0.0,4273.846191,4220.512695,4410.769043,4222.563965,4517.94873,450.0,3.0,73.0,,,,0.0,1.0,1.0,0.0,0.0,0.0,0.0,,,,,,,,41.0,0.0,0.77728,-0.08618200000000001,0.117432,0.612061,0.298833,-0.007812999999999999,-0.9799950000000001,0.006811,-0.020287,-0.026788,,,,,,,,,,,,,,,,,,,,,,,,,,,,,,,,,,,,,,,,,,,,,,,,,,,,,,,,,,,,,,,,,
35444,1648952881.5409288,1648952881.554877,83.0,0.0,4713.846191,4338.461426,4207.692383,4930.769043,4764.615234000001,0.0,3.0,73.0,,,,0.0,1.0,1.0,0.0,0.0,0.0,0.0,,,,,,,,,,,,,,,,,,,,,,,,,,,,,,,,,,,,,,,,,,,,,,,,,,,,,,,,,,,,,,,,,,,,,,,,,,,,,,,,,,,,
35445,1648952881.548744,1648952881.562591,84.0,0.0,3710.7692869999996,4254.871582,4197.94873,3701.025635,3609.2307130000004,450.0,3.0,73.0,,,,0.0,1.0,1.0,0.0,0.0,0.0,0.0,,,,,,,,42.0,0.0,0.777243,-0.08618200000000001,0.117676,0.612061,0.29688000000000003,0.0,-0.9751129999999999,0.004177,-0.020163,-0.020789,,,,,,,,,,,,,,,,,,,,,,,,,,,,,,,,,,,,,,,,,,,,,,,,,,,,,,,,,,,,,,,,,
35446,1648952881.556558,1648952881.570306,85.0,0.0,4223.077147999999,4216.922852000001,4042.0512700000004,3887.6923829999996,4008.205078,450.0,3.0,73.0,,,,0.0,1.0,1.0,0.0,0.0,0.0,0.0,,,,,,,,,,,,,,,,,,,,,,,,,,,,,,,,,,,,,,,,,,,,,,,,,,,,,,0.0,0.0,32.0,0.055767,1.0,0.0,,,,,,,,,,,,,,,,,,,,,,,,,
35447,1648952881.564373,1648952881.57812,86.0,0.0,4637.436035,4138.974121,4034.8718259999996,4413.333496,4402.563965,450.0,3.0,73.0,,,,0.0,1.0,1.0,0.0,0.0,0.0,0.0,,,,,,,,43.0,0.0,0.77728,-0.08618200000000001,0.117432,0.612061,0.29395,-0.012695999999999999,-0.980484,0.004834000000000001,-0.0201,-0.025058,,,,,,,,,,,,,,,,,,,,,,,,,,,,,,,,,,,,,,,,,,,,,,,,,,,,,,,,,,,,,,,,,
35448,1648952881.572187,1648952881.585835,87.0,0.0,4097.436035,4114.871582,4101.538574,4097.436035,3984.102539,0.0,3.0,73.0,,,,0.0,1.0,1.0,0.0,0.0,0.0,0.0,,,,,,,,,,,,,,,,,,,,,,,,,,,,,,,,,,,,,,,,,,,,,,,,,,,,,,,,,,,,,,,,,,,,,,,,,,,,,,,,,,,,
35449,1648952881.580002,1648952881.593649,88.0,0.0,4406.666504,4372.820313,4527.692383,4673.846191,4586.666504,450.0,3.0,73.0,,,,0.0,1.0,1.0,0.0,0.0,0.0,0.0,,,,,,,,44.0,0.0,0.777317,-0.08618200000000001,0.11718800000000001,0.612061,0.286625,-0.008789,-0.9785309999999999,0.007181999999999999,-0.020092,-0.0289,,,,,,,,,,,,,,,,,,,,,,,,,,,,,,,,,,,,,,,,,,,,,,,,,,,,,,,,,,,,,,,,,
35450,1648952881.587816,1648952881.6013632,89.0,0.0,4063.5898439999996,4631.282227000001,4438.461426,4178.974121,4285.128418,450.0,3.0,73.0,,,,0.0,1.0,1.0,0.0,0.0,0.0,0.0,,,,,,,,,,,,,,,,,,,,,,,,,,,,,,,,,,,,,,,,,,,,,,,,,,,,,,0.0,0.0,32.0,0.055767,1.0,0.0,,,,,,,,,,,,,,,,,,,,,,,,,
35451,1648952881.5956311,1648952881.6091778,90.0,0.0,4552.307617,4382.563965,3931.281982,4180.0,4460.0,450.0,3.0,73.0,,,,0.0,1.0,1.0,0.0,0.0,0.0,0.0,,,,,,,,45.0,0.0,0.77728,-0.08618200000000001,0.117432,0.612061,0.313481,-0.018555000000000002,-0.9712059999999999,0.006122,-0.020133,-0.032358,,,,,,,,,,,,,,,,,,,,,,,,,,,,,,,,,,,,,,,,,,,,,,,,,,,,,,,,,,,,,,,,,
35452,1648952881.6034448,1648952881.616892,91.0,0.0,4282.05127,4234.871582,4161.025879,4212.307617,4111.794922,0.0,3.0,73.0,,,,0.0,1.0,1.0,0.0,0.0,0.0,0.0,,,,,,,,,,,,,,,,,,,,,,,,,,,,,,,,,,,,,,,,,,,,,,,,,,,,,,,,,,,,,,,,,,,,,,,,,,,,,,,,,,,,
35453,1648952881.61126,1648952881.624707,92.0,0.0,3126.153809,4300.512695,4249.743652,3384.102539,3160.0,450.0,3.0,73.0,,,,0.0,1.0,1.0,0.0,0.0,0.0,0.0,,,,,,,,46.0,0.0,0.777253,-0.086426,0.117432,0.612061,0.294926,0.0043950000000000005,-0.9922030000000001,0.006633,-0.020122,-0.03547,,,,,,,,,,,,,,,,,,,,,,,,,,,,,,,,,,,,,,,,,,,,,,,,,,,,,,,,,,,,,,,,,
35454,1648952881.619074,1648952881.632421,93.0,0.0,4470.256348,4408.205078,3911.794922,4373.333496,4629.743652,450.0,3.0,73.0,,,,0.0,1.0,1.0,0.0,0.0,0.0,0.0,,,,,,,,,,,,,,,,,,,,,,,,,,,,,,,,,,,,,,,,,,,,,,,,,,,,,,0.0,0.0,32.0,0.055767,1.0,0.0,,,,,,,,,,,,,,,,,,,,,,,,,
35455,1648952881.626889,1648952881.640236,94.0,0.0,5329.230957,4630.769043,4000.0,5086.666504,5291.794922,450.0,3.0,73.0,,,,0.0,1.0,1.0,0.0,0.0,0.0,0.0,,,,,,,,47.0,0.0,0.777253,-0.086426,0.117432,0.612061,0.303716,-0.003906,-0.991714,0.007239,-0.020161000000000002,-0.025818999999999998,,,,,,,,,,,,,,,,,,,,,,,,,,,,,,,,,,,,,,,,,,,,,,,,,,,,,,,,,,,,,,,,,
35456,1648952881.6347039,1648952881.64795,95.0,0.0,4507.179688,4783.589844,4251.794922,4503.077147999999,4447.179688,0.0,3.0,73.0,,,,0.0,1.0,1.0,0.0,0.0,0.0,0.0,,,,,,,,,,,,,,,,,,,,,,,,,,,,,,,,,,,,,,,,,,,,,,,,,,,,,,,,,,,,,,,,,,,,,,,,,,,,,,,,,,,,
35457,1648952881.642518,1648952881.655765,96.0,0.0,3839.487061,4911.794922,4137.436035,3748.205078,3955.897461,450.0,3.0,73.0,,,,0.0,1.0,1.0,0.0,0.0,0.0,0.0,,,,,,,,48.0,0.0,0.777125,-0.08618200000000001,0.11718800000000001,0.612305,0.301762,-0.026856,-0.9741360000000001,0.004562,-0.020194999999999998,-0.017085,,,,,,,,,,,,,,,,,,,,,,,,,,,,,,,,,,,,,,,,,,,,,,,,,,,,,,,,,,,,,,,,,
35458,1648952881.650333,1648952881.6634789,97.0,0.0,4840.512695,4978.461426,4155.384765999999,4664.615234000001,4872.820313,450.0,3.0,73.0,,,,0.0,1.0,1.0,0.0,0.0,0.0,0.0,,,,,,,,,,,,,,,,,,,,1.0,0.0,0.0,,,,,,,,,,,,,,,,,,,,,,,,,,,,,,,,0.0,0.0,32.0,0.051769,1.0,0.0,895.81427,249.92366,743.300476,613.535828,1878.057983,1746.3299559999998,323.99841299999997,165.250885,399.79055800000003,265.35168500000003,759.93512,339.99884,245.529358,386.065491,382.909424,1335.7733150000001,392.864136,730.664795,701.44696,1939.119507,1112.11145,335.763489,999.941467,815.003296,1915.164429
35459,1648952881.658147,1648952881.671294,98.0,0.0,4496.922852000001,5086.153809,4232.307617,4503.589844,4457.94873,450.0,3.0,73.0,,,,0.0,1.0,1.0,0.0,0.0,0.0,0.0,,,,,,,,49.0,0.0,0.777088,-0.08618200000000001,0.117432,0.612305,0.298833,0.000488,-0.981949,0.00518,-0.020128999999999998,-0.021773,,,,,,,,,,,,,,,,,,,,,,,,,,,,,,,,,,,,,,,,,,,,,,,,,,,,,,,,,,,,,,,,,
35460,1648952881.665962,1648952881.679008,99.0,0.0,4340.0,4933.333496,4033.8461909999996,4263.589844,4440.512695,0.0,3.0,73.0,,,,0.0,1.0,1.0,0.0,0.0,0.0,0.0,,,,,,,,,,,,,,,,,,,,,,,,,,,,,,,,,,,,,,,,,,,,,,,,,,,,,,,,,,,,,,,,,,,,,,,,,,,,,,,,,,,,
35461,1648952881.673776,1648952881.6868222,100.0,0.0,4486.666504,4694.358886999999,4026.1538090000004,4391.282227000001,4778.461426,450.0,3.0,73.0,,,,0.0,1.0,1.0,0.0,0.0,0.0,0.0,,,,,,,,50.0,0.0,0.7770239999999999,-0.086426,0.117676,0.612305,0.300298,-0.020508000000000002,-0.98146,0.005785,-0.020265000000000002,-0.013443,,,,,,,,,,,,,,,,,,,,,,,,,,,,,,,,,,,,,,,,,,,,,,,,,,,,,,,,,,,,,,,,,
35462,1648952881.681591,1648952881.694536,101.0,0.0,4069.2307130000004,4797.436035,4074.8718259999996,3972.3076170000004,4082.5642090000006,450.0,3.0,73.0,,,,0.0,1.0,1.0,0.0,0.0,0.0,0.0,,,,,,,,,,,,,,,,,,,,,,,,,,,,,,,,,,,,,,,,,,,,,,,,,,,,,,0.0,0.0,32.0,0.051769,1.0,0.0,,,,,,,,,,,,,,,,,,,,,,,,,
35463,1648952881.689405,1648952881.702251,102.0,0.0,5037.436035,4977.94873,4080.0,4889.230957,4966.153809,450.0,3.0,73.0,,,,0.0,1.0,1.0,0.0,0.0,0.0,0.0,,,,,,,,51.0,0.0,0.777179,-0.086426,0.11792000000000001,0.612061,0.30518,-0.007324,-0.985367,0.006379,-0.020191,-0.018544,,,,,,,,,,,,,,,,,,,,,,,,,,,,,,,,,,,,,,,,,,,,,,,,,,,,,,,,,,,,,,,,,
35464,1648952881.6972198,1648952881.7100651,103.0,0.0,4131.794922,4492.307617,4228.205078,4117.94873,4408.717772999999,0.0,3.0,73.0,,,,0.0,1.0,1.0,0.0,0.0,0.0,0.0,,,,,,,,,,,,,,,,,,,,,,,,,,,,,,,,,,,,,,,,,,,,,,,,,,,,,,,,,,,,,,,,,,,,,,,,,,,,,,,,,,,,
35465,1648952881.705034,1648952881.71778,104.0,0.0,2755.897461,3791.281982,4229.743652,2792.820557,2923.589844,450.0,3.0,73.0,,,,0.0,1.0,1.0,0.0,0.0,0.0,0.0,,,,,,,,52.0,0.0,0.776987,-0.086426,0.11792000000000001,0.612305,0.30225100000000005,-0.01709,-0.969741,0.005399,-0.020222999999999998,-0.013516,,,,,,,,,,,,,,,,,,,,,,,,,,,,,,,,,,,,,,,,,,,,,,,,,,,,,,,,,,,,,,,,,
35466,1648952881.7128491,1648952881.725594,105.0,0.0,3894.358887,3907.6923829999996,4280.0,3856.4101560000004,3705.1281740000004,450.0,3.0,73.0,,,,0.0,1.0,1.0,0.0,0.0,0.0,0.0,,,,,,,,,,,,,,,,,,,,,,,,,,,,,,,,,,,,,,,,,,,,,,,,,,,,,,0.0,0.0,32.0,0.051769,1.0,0.0,,,,,,,,,,,,,,,,,,,,,,,,,
35467,1648952881.720664,1648952881.733309,106.0,0.0,5029.230957,4368.717772999999,4295.897461,4709.743652,4656.922852000001,450.0,3.0,73.0,,,,0.0,1.0,1.0,0.0,0.0,0.0,0.0,,,,,,,,53.0,0.0,0.777088,-0.08618200000000001,0.117432,0.612305,0.300298,-0.019043,-0.977554,0.004566,-0.0203,-0.018463,,,,,,,,,,,,,,,,,,,,,,,,,,,,,,,,,,,,,,,,,,,,,,,,,,,,,,,,,,,,,,,,,
35468,1648952881.728478,1648952881.741123,107.0,0.0,4541.538574,4320.0,4321.025879,4204.102539,4369.743652,0.0,3.0,73.0,,,,0.0,1.0,1.0,0.0,0.0,0.0,0.0,,,,,,,,,,,,,,,,,,,,,,,,,,,,,,,,,,,,,,,,,,,,,,,,,,,,,,,,,,,,,,,,,,,,,,,,,,,,,,,,,,,,
35469,1648952881.736293,1648952881.7488382,108.0,0.0,3908.718018,4234.358886999999,4160.512695,3959.487061,3913.3332520000004,450.0,3.0,73.0,,,,0.0,1.0,1.0,0.0,0.0,0.0,0.0,,,,,,,,54.0,0.0,0.777179,-0.086426,0.11792000000000001,0.612061,0.30518,-0.007324,-0.985367,0.002205,-0.02037,-0.013443,,,,,,,,,,,,,,,,,,,,,,,,,,,,,,,,,,,,,,,,,,,,,,,,,,,,,,,,,,,,,,,,,
35470,1648952881.744107,1648952881.7566519,109.0,0.0,4557.94873,4279.487305,4239.487305,4925.128418,4599.487305,450.0,3.0,73.0,,,,0.0,1.0,1.0,0.0,0.0,0.0,0.0,,,,,,,,,,,,,,,,,,,,,,,,,,,,,,,,,,,,,,,,,,,,,,,,,,,,,,0.0,0.0,32.0,0.051769,1.0,0.0,,,,,,,,,,,,,,,,,,,,,,,,,
35471,1648952881.7519221,1648952881.764366,110.0,0.0,4031.794922,4348.205078,4308.205078,4068.718018,3904.615479,450.0,3.0,73.0,,,,0.0,1.0,1.0,0.0,0.0,0.0,0.0,,,,,,,,55.0,0.0,0.777088,-0.08618200000000001,0.117432,0.612305,0.300298,-0.019043,-0.977554,0.0016920000000000001,-0.020433,-0.018397999999999998,,,,,,,,,,,,,,,,,,,,,,,,,,,,,,,,,,,,,,,,,,,,,,,,,,,,,,,,,,,,,,,,,
35472,1648952881.7597358,1648952881.772181,111.0,0.0,4311.794922,4216.410156,4009.2307130000004,3969.743652,4064.102539,0.0,3.0,73.0,,,,0.0,1.0,1.0,0.0,0.0,0.0,0.0,,,,,,,,,,,,,,,,,,,,,,,,,,,,,,,,,,,,,,,,,,,,,,,,,,,,,,,,,,,,,,,,,,,,,,,,,,,,,,,,,,,,
35473,1648952881.767551,1648952881.779995,112.0,0.0,4560.512695,4182.563965,4104.102539,4551.794922,4477.436035,450.0,3.0,73.0,,,,0.0,1.0,1.0,0.0,0.0,0.0,0.0,,,,,,,,56.0,0.0,0.777354,-0.08618200000000001,0.116943,0.612061,0.298344,0.003418,-0.988296,0.004403,-0.02044,-0.022906,,,,,,,,,,,,,,,,,,,,,,,,,,,,,,,,,,,,,,,,,,,,,,,,,,,,,,,,,,,,,,,,,
35474,1648952881.775365,1648952881.78771,113.0,0.0,3207.179443,4186.153809,4245.641113000001,3463.5898439999996,3413.3332520000004,450.0,3.0,73.0,,,,0.0,1.0,1.0,0.0,0.0,0.0,0.0,,,,,,,,,,,,,,,,,,,,1.0,0.0,0.0,,,,,,,,,,,,,,,,,,,,,,,,,,,,,,,,0.0,0.0,32.0,0.045994,1.0,0.0,1065.096924,282.496063,979.757385,774.8625490000001,2463.868408,2027.468262,369.917572,250.075226,365.06939700000004,320.78662099999997,856.83844,329.078461,329.258484,481.62161299999997,436.530243,1565.154297,371.35153199999996,1056.575562,912.214294,2469.104248,1419.6147460000002,369.401581,1413.766357,1152.021362,2533.346924
35475,1648952881.78318,1648952881.795424,114.0,0.0,3846.6667479999996,3966.6667479999996,4022.5642090000006,3957.9487299999996,4449.230957,450.0,3.0,73.0,,,,0.0,1.0,1.0,0.0,0.0,0.0,0.0,,,,,,,,57.0,0.0,0.777125,-0.08618200000000001,0.11718800000000001,0.612305,0.285161,-0.019532,-0.9868309999999999,0.0021079999999999996,-0.020447,-0.014413999999999998,,,,,,,,,,,,,,,,,,,,,,,,,,,,,,,,,,,,,,,,,,,,,,,,,,,,,,,,,,,,,,,,,
35476,1648952881.790995,1648952881.8032382,115.0,0.0,5024.615234000001,4281.025879,3961.025635,4989.743652,5503.077147999999,0.0,3.0,73.0,,,,0.0,1.0,1.0,0.0,0.0,0.0,0.0,,,,,,,,,,,,,,,,,,,,,,,,,,,,,,,,,,,,,,,,,,,,,,,,,,,,,,,,,,,,,,,,,,,,,,,,,,,,,,,,,,,,
35477,1648952881.798809,1648952881.810953,116.0,0.0,4856.410156,4928.717772999999,4176.410156,4751.794922,4830.769043,450.0,3.0,73.0,,,,0.0,1.0,1.0,0.0,0.0,0.0,0.0,,,,,,,,58.0,0.0,0.777051,-0.08618200000000001,0.117676,0.612305,0.289555,-0.018555000000000002,-0.969253,0.003069,-0.020355,-0.019369,,,,,,,,,,,,,,,,,,,,,,,,,,,,,,,,,,,,,,,,,,,,,,,,,,,,,,,,,,,,,,,,,
35478,1648952881.806624,1648952881.818767,117.0,0.0,3929.2307130000004,5265.128418,4206.666504,3963.5898439999996,3912.3076170000004,450.0,3.0,73.0,,,,0.0,1.0,1.0,0.0,0.0,0.0,0.0,,,,,,,,,,,,,,,,,,,,,,,,,,,,,,,,,,,,,,,,,,,,,,,,,,,,,,0.0,0.0,32.0,0.045994,1.0,0.0,,,,,,,,,,,,,,,,,,,,,,,,,
35479,1648952881.814438,1648952881.826482,118.0,0.0,4407.692383,4855.384765999999,4154.358886999999,4544.615234000001,4603.077147999999,450.0,3.0,73.0,,,,0.0,1.0,1.0,0.0,0.0,0.0,0.0,,,,,,,,59.0,0.0,0.777051,-0.08618200000000001,0.117676,0.612305,0.289555,-0.011231,-0.9751129999999999,0.0008089999999999999,-0.020273,-0.026757999999999997,,,,,,,,,,,,,,,,,,,,,,,,,,,,,,,,,,,,,,,,,,,,,,,,,,,,,,,,,,,,,,,,,
35480,1648952881.822253,1648952881.834196,119.0,0.0,4549.743652,4796.922852000001,4222.563965,4589.743652,4806.153809,0.0,3.0,73.0,,,,0.0,1.0,1.0,0.0,0.0,0.0,0.0,,,,,,,,,,,,,,,,,,,,,,,,,,,,,,,,,,,,,,,,,,,,,,,,,,,,,,,,,,,,,,,,,,,,,,,,,,,,,,,,,,,,
35481,1648952881.830067,1648952881.842011,120.0,0.0,4069.2307130000004,5276.922852000001,4058.461426,3848.205078,4125.641113000001,450.0,3.0,73.0,,,,0.0,1.0,1.0,0.0,0.0,0.0,0.0,,,,,,,,60.0,0.0,0.777088,-0.08618200000000001,0.117432,0.612305,0.295903,-0.016114,-0.984878,0.003462,-0.020248,-0.030333,,,,,,,,,,,,,,,,,,,,,,,,,,,,,,,,,,,,,,,,,,,,,,,,,,,,,,,,,,,,,,,,,
35482,1648952881.837882,1648952881.849825,121.0,0.0,4531.282227000001,5331.282227000001,4088.718018,4492.820313,4501.538574,450.0,3.0,73.0,,,,0.0,1.0,1.0,0.0,0.0,0.0,0.0,,,,,,,,,,,,,,,,,,,,,,,,,,,,,,,,,,,,,,,,,,,,,,,,,,,,,,0.0,0.0,32.0,0.045994,1.0,0.0,,,,,,,,,,,,,,,,,,,,,,,,,
35483,1648952881.8456962,1648952881.8575401,122.0,0.0,4316.922852000001,4872.820313,4241.538574,4544.102539,4381.025879,450.0,3.0,73.0,,,,0.0,1.0,1.0,0.0,0.0,0.0,0.0,,,,,,,,61.0,0.0,0.7771520000000001,-0.085938,0.11718800000000001,0.612305,0.306157,-0.007812999999999999,-0.9785309999999999,0.004288,-0.020274,-0.033598,,,,,,,,,,,,,,,,,,,,,,,,,,,,,,,,,,,,,,,,,,,,,,,,,,,,,,,,,,,,,,,,,
35484,1648952881.8535109,1648952881.8653538,123.0,0.0,4280.0,4661.538574,4205.128418,4327.692383,4536.922852000001,0.0,3.0,73.0,,,,0.0,1.0,1.0,0.0,0.0,0.0,0.0,,,,,,,,,,,,,,,,,,,,,,,,,,,,,,,,,,,,,,,,,,,,,,,,,,,,,,,,,,,,,,,,,,,,,,,,,,,,,,,,,,,,
35485,1648952881.861325,1648952881.8730679,124.0,0.0,4245.641113000001,5248.205078,4145.128418,4040.512939,4382.563965,450.0,3.0,73.0,,,,0.0,1.0,1.0,0.0,0.0,0.0,0.0,,,,,,,,62.0,0.0,0.777088,-0.08618200000000001,0.117432,0.612305,0.29688000000000003,-0.014159999999999999,-0.988296,0.005031,-0.020248,-0.036635,,,,,,,,,,,,,,,,,,,,,,,,,,,,,,,,,,,,,,,,,,,,,,,,,,,,,,,,,,,,,,,,,
35486,1648952881.8691401,1648952881.880883,125.0,0.0,4638.461426,5426.153809,3951.281982,4535.384765999999,4542.05127,450.0,3.0,73.0,,,,0.0,1.0,1.0,0.0,0.0,0.0,0.0,,,,,,,,,,,,,,,,,,,,,,,,,,,,,,,,,,,,,,,,,,,,,,,,,,,,,,0.0,0.0,32.0,0.045994,1.0,0.0,,,,,,,,,,,,,,,,,,,,,,,,,
35487,1648952881.876955,1648952881.888597,126.0,0.0,4464.615234000001,4905.128418,4155.384765999999,4637.94873,4575.384765999999,450.0,3.0,73.0,,,,0.0,1.0,1.0,0.0,0.0,0.0,0.0,,,,,,,,63.0,0.0,0.777088,-0.08618200000000001,0.117432,0.612305,0.286625,-0.017578,-0.992691,0.002575,-0.020322999999999997,-0.029798,,,,,,,,,,,,,,,,,,,,,,,,,,,,,,,,,,,,,,,,,,,,,,,,,,,,,,,,,,,,,,,,,
35488,1648952881.884769,1648952881.896411,127.0,0.0,3806.1538090000004,4741.025879,4101.538574,3776.4101560000004,3955.384521,238.0,3.0,73.0,,,,0.0,1.0,1.0,0.0,0.0,0.0,0.0,,,,,,,,,,,,,,,,,,,,,,,,,,,,,,,,,,,,,,,,,,,,,,,,,,,,,,,,,,,,,,,,,,,,,,,,,,,,,,,,,,,,
35489,1648952881.892584,1648952881.904125,0.0,0.0,5521.025879,4862.563965,3455.384521,5262.563965,5444.102539,450.0,3.0,73.0,,,,0.0,1.0,1.0,0.0,0.0,0.0,0.0,,,,,,,,0.0,0.0,0.777125,-0.08618200000000001,0.11718800000000001,0.612305,0.290044,0.001953,-1.001968,0.0035380000000000003,-0.020243999999999998,-0.033214999999999995,,,,,,,,,,,,,,,,,,,,,,,,,,,,,,,,,,,,,,,,,,,,,,,,,,,,,,,,,,,,,,,,,
35490,1648952881.900398,1648952881.9119391,1.0,0.0,5658.461426,4836.922852000001,3372.820557,5569.230957,5576.922852000001,450.0,3.0,73.0,,,,0.0,1.0,1.0,0.0,0.0,0.0,0.0,0.972656,0.0,0.0,0.0,0.0,0.0,0.0,,,,,,,,,,,,,1.0,0.0,0.0,,,,,,,,,,,,,,,,,,,,,,,,,,,,,,,,12.0,0.0,32.0,0.047922,1.0,0.0,1162.446899,326.10357700000003,1174.344971,928.15155,2997.3198239999997,2316.603027,416.01297,355.18515,323.396606,408.46191400000004,910.1045529999999,310.900299,415.324066,555.448547,468.71932999999996,1682.305786,327.23584,1334.083374,1075.0626220000001,2957.275391,1670.0366210000002,382.782654,1751.625732,1473.737549,3066.489502
35491,1648952881.9082131,1648952881.919654,2.0,0.0,4033.3332520000004,4307.179688,4040.512939,3996.923096,3998.461426,35.0,3.0,73.0,,,,0.0,0.0,1.0,0.0,0.0,0.0,0.0,,,,,,,,1.0,0.0,0.777225,-0.085938,0.116699,0.612305,0.29688000000000003,-0.001953,-0.984878,0.001231,-0.020368,-0.02667,,,,,,,,,,,,,,,,,,,,,,,,,,,,,,,,,,,,,,,,,,,,,,,,,,,,,,,,,,,,,,,,,
35492,1648952881.916027,1648952881.927468,3.0,0.0,3464.615479,4033.3332520000004,4189.743652,3375.384521,3358.974365,450.0,3.0,73.0,,,,0.0,0.0,1.0,0.0,0.0,0.0,0.0,,,,,,,,,,,,,,,,,,,,,,,,,,,,,,,,,,,,,,,,,,,,,,,,,,,,,,,,,,,,,,,,,,,,,,,,,,,,,,,,,,,,
35493,1648952881.923842,1648952881.935182,4.0,0.0,4537.436035,4141.025879,4072.3076170000004,4680.512695,4529.743652,2.0,3.0,73.0,,,,0.0,0.0,0.0,0.0,0.0,0.0,0.0,,,,,,,,2.0,0.0,0.777225,-0.085938,0.116699,0.612305,0.304204,-0.010742,-0.968765,0.002329,-0.020431,-0.017949,,,,,,,,,,,,,,,,,,,,,,,,,,,,,,,,,,,,,,,,,,,,,,,,,,,,,,,,,,,,,,,,,
35494,1648952881.9316561,1648952881.942996,5.0,0.0,4607.179688,4440.512695,4587.179688,4875.897461,4819.487305,450.0,3.0,73.0,,,,0.0,0.0,0.0,0.0,0.0,0.0,0.0,,,,,,,,,,,,,,,,,,,,,,,,,,,,,,,,,,,,,,,,,,,,,,,,,,,,,,0.0,0.0,32.0,0.047922,1.0,0.0,,,,,,,,,,,,,,,,,,,,,,,,,
35495,1648952881.939471,1648952881.950711,6.0,0.0,3800.512939,4585.128418,4423.589844,3497.4357909999994,3742.5642090000006,70.0,3.0,73.0,,,,0.0,0.0,0.0,1.0,0.0,0.0,0.0,,,,,,,,3.0,0.0,0.777188,-0.085938,0.116943,0.612305,0.29102,-0.003906,-1.0205229999999998,0.0016079999999999998,-0.020340999999999998,-0.012931,,,,,,,,,,,,,,,,,,,,,,,,,,,,,,,,,,,,,,,,,,,,,,,,,,,,,,,,,,,,,,,,,
35496,1648952881.947286,1648952881.958525,7.0,0.0,4693.846191,4307.692383,4031.794922,4276.922852000001,4511.794922,450.0,3.0,73.0,,,,0.0,0.0,0.0,1.0,0.0,0.0,0.0,,,,,,,,,,,,,,,,,,,,,,,,,,,,,,,,,,,,,,,,,,,,,,,,,,,,,,,,,,,,,,,,,,,,,,,,,,,,,,,,,,,,
35497,1648952881.9551,1648952881.966239,8.0,0.0,5123.589844,4056.923096,4366.666504,5242.05127,5244.615234000001,450.0,3.0,73.0,,,,0.0,0.0,0.0,1.0,0.0,0.0,0.0,,,,,,,,4.0,0.0,0.777317,-0.08618200000000001,0.11718800000000001,0.612061,0.307622,-0.006836,-0.9673,0.004279,-0.020406999999999998,-0.017937,,,,,,,,,,,,,,,,,,,,,,,,,,,,,,,,,,,,,,,,,,,,,,,,,,,,,,,,,,,,,,,,,
35498,1648952881.962915,1648952881.973954,9.0,0.0,4153.846191,3935.384521,4473.846191,4472.307617,4397.94873,103.0,3.0,73.0,,,,0.0,0.0,0.0,1.0,1.0,0.0,0.0,,,,,,,,,,,,,,,,,,,,,,,,,,,,,,,,,,,,,,,,,,,,,,,,,,,,,,0.0,0.0,32.0,0.047922,1.0,0.0,,,,,,,,,,,,,,,,,,,,,,,,,
35499,1648952881.9707289,1648952881.981768,10.0,0.0,3645.641113,4378.461426,4231.282227000001,3786.6667479999996,3733.3332520000004,450.0,3.0,73.0,,,,0.0,0.0,0.0,1.0,1.0,0.0,0.0,,,,,,,,5.0,0.0,0.77728,-0.08618200000000001,0.117432,0.612061,0.30225100000000005,-0.021973,-0.948257,0.001947,-0.020319,-0.012969,,,,,,,,,,,,,,,,,,,,,,,,,,,,,,,,,,,,,,,,,,,,,,,,,,,,,,,,,,,,,,,,,
35500,1648952881.978544,1648952881.989482,11.0,0.0,4457.94873,4639.487305,4182.05127,4398.461426,4562.563965,16065.0,3.0,73.0,,,,0.0,0.0,0.0,1.0,1.0,4.0,8.333333,,,,,,,,,,,,,,,,,,,,,,,,,,,,,,,,,,,,,,,,,,,,,,,,,,,,,,,,,,,,,,,,,,,,,,,,,,,,,,,,,,,,
35501,1648952881.986358,1648952881.997297,12.0,0.0,4760.0,4460.0,4131.794922,4715.384765999999,5074.871582,450.0,3.0,73.0,,,,0.0,0.0,0.0,1.0,1.0,4.0,8.333333,,,,,,,,6.0,0.0,0.7773439999999999,-0.085938,0.11718800000000001,0.612061,0.298344,-0.019043,-0.989273,0.002924,-0.020288999999999998,-0.017971,,,,,,,,,,,,,,,,,,,,,,,,,,,,,,,,,,,,,,,,,,,,,,,,,,,,,,,,,,,,,,,,,
35502,1648952881.994173,1648952882.0050108,13.0,0.0,4000.0,4809.230957,3995.384521,4026.6667479999996,4081.025635,450.0,3.0,73.0,,,,0.0,0.0,0.0,1.0,1.0,4.0,8.333333,,,,,,,,,,,,,,,,,,,,,,,,,,,,,,,,,,,,,,,,,,,,,,,,,,,,,,0.0,0.0,32.0,0.047922,1.0,0.0,,,,,,,,,,,,,,,,,,,,,,,,,
35503,1648952882.001987,1648952882.012826,14.0,0.0,4674.358886999999,5041.538574,4193.846191,4668.205078,4497.436035,450.0,3.0,73.0,,,,0.0,0.0,0.0,1.0,1.0,4.0,8.333333,,,,,,,,7.0,0.0,0.777317,-0.08618200000000001,0.11718800000000001,0.612061,0.29639099999999996,0.0,-0.9702299999999999,0.003803,-0.020262,-0.022522,,,,,,,,,,,,,,,,,,,,,,,,,,,,,,,,,,,,,,,,,,,,,,,,,,,,,,,,,,,,,,,,,
35504,1648952882.0098019,1648952882.02054,15.0,0.0,4353.846191,4850.769043,4168.205078,4336.922852000001,4448.205078,16065.0,3.0,73.0,,,,0.0,0.0,0.0,1.0,1.0,4.0,8.333333,,,,,,,,,,,,,,,,,,,,,,,,,,,,,,,,,,,,,,,,,,,,,,,,,,,,,,,,,,,,,,,,,,,,,,,,,,,,,,,,,,,,
35505,1648952882.017616,1648952882.0283551,16.0,0.0,4060.512939,4838.461426,3951.794922,4276.410156,4366.666504,0.0,3.0,73.0,,,,0.0,0.0,0.0,1.0,1.0,4.0,8.333333,,,,,,,,8.0,0.0,0.777243,-0.08618200000000001,0.117676,0.612061,0.299321,-0.002441,-0.9746239999999999,0.00313,-0.020238,-0.026666000000000002,,,,,,,,,,,,,,,,,,,,,,,,,,,,,,,,,,,,,,,,,,,,,,,,,,,,,,,,,,,,,,,,,
35506,1648952882.0254312,1648952882.036069,17.0,0.0,4228.205078,4994.871582,4131.794922,4527.692383,4385.641113000001,0.0,3.0,73.0,,,,0.0,0.0,0.0,1.0,1.0,4.0,8.333333,,,,,,,,,,,,,,,,,,,,1.0,0.0,0.0,,,,,,,,,,,,,,,,,,,,,,,,,,,,,,,,0.0,0.0,32.0,0.048458999999999995,1.0,0.0,1176.601196,391.15820299999996,1294.523193,1066.986084,3406.97583,2646.5778809999997,465.714844,472.75842300000005,288.953094,509.57592800000003,907.5482789999999,298.377136,486.1716,595.461914,474.71398899999997,1680.563721,287.37487799999997,1493.49292,1173.5897220000002,3341.576172,1842.648926,391.288483,1927.5253910000001,1732.726685,3439.899658
35507,1648952882.033246,1648952882.043883,18.0,0.0,4414.358886999999,4647.179688,4118.461426,4382.05127,4428.205078,0.0,3.0,73.0,,,,0.0,0.0,0.0,1.0,1.0,4.0,8.333333,,,,,,,,9.0,0.0,0.7772060000000001,-0.08618200000000001,0.11792000000000001,0.612061,0.298833,-0.033692,-0.96144,0.003989,-0.020216,-0.030445,,,,,,,,,,,,,,,,,,,,,,,,,,,,,,,,,,,,,,,,,,,,,,,,,,,,,,,,,,,,,,,,,
35508,1648952882.04106,1648952882.051598,19.0,0.0,4743.589844,4466.153809,4084.102539,4676.410156,4851.794922,0.0,3.0,73.0,,,,0.0,0.0,0.0,1.0,1.0,4.0,8.333333,,,,,,,,,,,,,,,,,,,,,,,,,,,,,,,,,,,,,,,,,,,,,,,,,,,,,,,,,,,,,,,,,,,,,,,,,,,,,,,,,,,,
35509,1648952882.048875,1648952882.059412,20.0,0.0,3581.025635,4802.05127,4116.410156,3779.487061,3759.487061,0.0,3.0,73.0,,,,0.0,0.0,0.0,1.0,1.0,4.0,8.333333,,,,,,,,10.0,0.0,0.77727,-0.085938,0.117676,0.612061,0.29736799999999997,-0.011231,-0.981949,0.004811,-0.020245,-0.033651,,,,,,,,,,,,,,,,,,,,,,,,,,,,,,,,,,,,,,,,,,,,,,,,,,,,,,,,,,,,,,,,,
35510,1648952882.056689,1648952882.067126,21.0,0.0,4293.846191,4592.307617,3906.1538090000004,4610.769043,4516.922852000001,0.0,3.0,73.0,,,,0.0,0.0,0.0,1.0,1.0,4.0,8.333333,,,,,,,,,,,,,,,,,,,,,,,,,,,,,,,,,,,,,,,,,,,,,,,,,,,,,,0.0,0.0,32.0,0.048458999999999995,1.0,0.0,,,,,,,,,,,,,,,,,,,,,,,,,
35511,1648952882.064504,1648952882.07494,22.0,0.0,5683.589844,4202.563965,3965.1281740000004,5823.589844,5841.025879,0.0,3.0,73.0,,,,0.0,0.0,0.0,1.0,1.0,4.0,8.333333,,,,,,,,11.0,0.0,0.77727,-0.085938,0.117676,0.612061,0.307622,-0.020508000000000002,-0.981949,0.007064,-0.020222999999999998,-0.036633,,,,,,,,,,,,,,,,,,,,,,,,,,,,,,,,,,,,,,,,,,,,,,,,,,,,,,,,,,,,,,,,,
35512,1648952882.072318,1648952882.0826552,23.0,0.0,4979.487305,4176.410156,4224.615234000001,4641.538574,4765.128418,0.0,3.0,73.0,,,,0.0,0.0,0.0,1.0,1.0,4.0,8.333333,,,,,,,,,,,,,,,,,,,,,,,,,,,,,,,,,,,,,,,,,,,,,,,,,,,,,,,,,,,,,,,,,,,,,,,,,,,,,,,,,,,,
35513,1648952882.080133,1648952882.090469,24.0,0.0,3918.461426,4297.94873,4253.333496,3540.512939,3783.076904,0.0,3.0,73.0,,,,0.0,0.0,0.0,1.0,1.0,4.0,8.333333,,,,,,,,12.0,0.0,0.777233,-0.085938,0.11792000000000001,0.612061,0.28809,-0.022461000000000002,-0.9907379999999999,0.004405,-0.0203,-0.029796,,,,,,,,,,,,,,,,,,,,,,,,,,,,,,,,,,,,,,,,,,,,,,,,,,,,,,,,,,,,,,,,,
35514,1648952882.0879471,1648952882.098183,25.0,0.0,4234.358886999999,4254.358886999999,4047.6923829999996,4319.487305,4431.794922,0.0,3.0,73.0,,,,0.0,0.0,0.0,1.0,1.0,4.0,8.333333,,,,,,,,,,,,,,,,,,,,,,,,,,,,,,,,,,,,,,,,,,,,,,,,,,,,,,0.0,0.0,32.0,0.048458999999999995,1.0,0.0,,,,,,,,,,,,,,,,,,,,,,,,,
35515,1648952882.095762,1648952882.1058981,26.0,0.0,4664.615234000001,4172.820313,4396.922852000001,4937.436035,4796.410156,0.0,3.0,73.0,,,,0.0,0.0,0.0,1.0,1.0,4.0,8.333333,,,,,,,,13.0,0.0,0.777233,-0.085938,0.11792000000000001,0.612061,0.304692,-0.020508000000000002,-0.992691,0.0050869999999999995,-0.02037,-0.033164,,,,,,,,,,,,,,,,,,,,,,,,,,,,,,,,,,,,,,,,,,,,,,,,,,,,,,,,,,,,,,,,,
35516,1648952882.103577,1648952882.1137118,27.0,0.0,3697.4357909999994,4433.333496,4398.974121,3653.8461909999996,3581.538574,0.0,3.0,73.0,,,,0.0,0.0,0.0,1.0,1.0,4.0,8.333333,,,,,,,,,,,,,,,,,,,,,,,,,,,,,,,,,,,,,,,,,,,,,,,,,,,,,,,,,,,,,,,,,,,,,,,,,,,,,,,,,,,,
35517,1648952882.111391,1648952882.121427,28.0,0.0,4519.487305,4153.846191,3915.897461,4151.794922,4356.922852000001,0.0,3.0,73.0,,,,0.0,0.0,0.0,1.0,1.0,4.0,8.333333,,,,,,,,14.0,0.0,0.777233,-0.085938,0.11792000000000001,0.612061,0.298833,-0.017578,-0.981949,0.00575,-0.020481,-0.023647,,,,,,,,,,,,,,,,,,,,,,,,,,,,,,,,,,,,,,,,,,,,,,,,,,,,,,,,,,,,,,,,,
35518,1648952882.119206,1648952882.129241,29.0,0.0,4838.974121,4066.6667479999996,4151.282227000001,4605.641113000001,4736.410156,0.0,3.0,73.0,,,,0.0,0.0,0.0,1.0,1.0,4.0,8.333333,,,,,,,,,,,,,,,,,,,,,,,,,,,,,,,,,,,,,,,,,,,,,,,,,,,,,,0.0,0.0,32.0,0.048458999999999995,1.0,0.0,,,,,,,,,,,,,,,,,,,,,,,,,
35519,1648952882.12702,1648952882.136956,30.0,0.0,3002.05127,4651.282227000001,4524.102539,2940.0,3036.410156,0.0,3.0,73.0,,,,0.0,0.0,0.0,1.0,1.0,4.0,8.333333,,,,,,,,15.0,0.0,0.777233,-0.085938,0.11792000000000001,0.612061,0.300786,-0.013184,-0.980972,0.006347,-0.020435,-0.018059,,,,,,,,,,,,,,,,,,,,,,,,,,,,,,,,,,,,,,,,,,,,,,,,,,,,,,,,,,,,,,,,,
35520,1648952882.134835,1648952882.14477,31.0,0.0,3049.230713,4797.436035,4216.922852000001,2905.128174,3249.230713,0.0,3.0,73.0,,,,0.0,0.0,0.0,1.0,1.0,4.0,8.333333,,,,,,,,,,,,,,,,,,,,,,,,,,,,,,,,,,,,,,,,,,,,,,,,,,,,,,,,,,,,,,,,,,,,,,,,,,,,,,,,,,,,
35521,1648952882.142649,1648952882.152484,32.0,0.0,4617.436035,4686.153809,3959.487061,4443.589844,4677.436035,0.0,3.0,73.0,,,,0.0,0.0,0.0,1.0,1.0,4.0,8.333333,,,,,,,,16.0,0.0,0.777196,-0.085938,0.118164,0.612061,0.301762,-0.019043,-0.989273,0.005273,-0.020491,-0.022601,,,,,,,,,,,,,,,,,,,,,,,,,,,,,,,,,,,,,,,,,,,,,,,,,,,,,,,,,,,,,,,,,
35522,1648952882.150464,1648952882.160299,33.0,0.0,5107.692383,4765.128418,4323.589844,4934.358886999999,4982.563965,0.0,3.0,73.0,,,,0.0,0.0,0.0,1.0,1.0,4.0,8.333333,,,,,,,,,,,,,,,,,,,,1.0,0.0,0.0,,,,,,,,,,,,,,,,,,,,,,,,,,,,,,,,0.0,0.0,32.0,0.046477,1.0,0.0,1118.286865,479.96698,1337.861206,1188.6834720000002,3664.6357420000004,3065.839111,517.227783,596.3770139999999,270.079346,601.1922,851.4470210000001,303.277008,526.949707,596.785706,458.093933,1581.657959,276.55181899999997,1512.574341,1215.708862,3591.342285,1933.766846,409.70282000000003,1907.3186039999998,1900.445923,3633.569336
35523,1648952882.158278,1648952882.168013,34.0,0.0,3879.487061,4748.205078,4418.461426,3758.461426,3908.205078,0.0,3.0,73.0,,,,0.0,0.0,0.0,1.0,1.0,4.0,8.333333,,,,,,,,17.0,0.0,0.777196,-0.085938,0.118164,0.612061,0.300786,-0.028808999999999998,-0.9834129999999999,0.007529000000000001,-0.020395,-0.026737999999999998,,,,,,,,,,,,,,,,,,,,,,,,,,,,,,,,,,,,,,,,,,,,,,,,,,,,,,,,,,,,,,,,,
35524,1648952882.1660929,1648952882.175828,35.0,0.0,4317.94873,4282.05127,4173.846191,4453.846191,4569.230957,0.0,3.0,73.0,,,,0.0,0.0,0.0,1.0,1.0,4.0,8.333333,,,,,,,,,,,,,,,,,,,,,,,,,,,,,,,,,,,,,,,,,,,,,,,,,,,,,,,,,,,,,,,,,,,,,,,,,,,,,,,,,,,,
35525,1648952882.173907,1648952882.183642,36.0,0.0,4630.256348,4383.077147999999,4195.384765999999,4821.538574,4748.205078,0.0,3.0,73.0,,,,0.0,0.0,0.0,1.0,1.0,4.0,8.333333,,,,,,,,18.0,0.0,0.777233,-0.085938,0.11792000000000001,0.612061,0.300786,-0.013184,-0.980972,0.006337,-0.020309,-0.033341,,,,,,,,,,,,,,,,,,,,,,,,,,,,,,,,,,,,,,,,,,,,,,,,,,,,,,,,,,,,,,,,,
35526,1648952882.1817222,1648952882.191356,37.0,0.0,4536.922852000001,4655.897461,4193.333496,4255.384765999999,4268.717772999999,0.0,3.0,73.0,,,,0.0,0.0,0.0,1.0,1.0,4.0,8.333333,,,,,,,,,,,,,,,,,,,,,,,,,,,,,,,,,,,,,,,,,,,,,,,,,,,,,,0.0,0.0,32.0,0.046477,1.0,0.0,,,,,,,,,,,,,,,,,,,,,,,,,
35527,1648952882.1895368,1648952882.1990712,38.0,0.0,4817.436035,4288.717772999999,4260.512695,4528.205078,4652.820313,0.0,3.0,73.0,,,,0.0,0.0,0.0,1.0,1.0,4.0,8.333333,,,,,,,,19.0,0.0,0.777196,-0.085938,0.118164,0.612061,0.300786,-0.028808999999999998,-0.9834129999999999,0.008486,-0.020231,-0.036404,,,,,,,,,,,,,,,,,,,,,,,,,,,,,,,,,,,,,,,,,,,,,,,,,,,,,,,,,,,,,,,,,
35528,1648952882.197351,1648952882.2068849,39.0,0.0,3760.512939,4082.5642090000006,4188.205078,4054.358887,3935.384521,0.0,3.0,73.0,,,,0.0,0.0,0.0,1.0,1.0,4.0,8.333333,,,,,,,,,,,,,,,,,,,,,,,,,,,,,,,,,,,,,,,,,,,,,,,,,,,,,,,,,,,,,,,,,,,,,,,,,,,,,,,,,,,,
35529,1648952882.205166,1648952882.2146,40.0,0.0,4550.769043,4396.922852000001,4091.794922,4762.563965,4676.922852000001,0.0,3.0,73.0,,,,0.0,0.0,0.0,1.0,1.0,4.0,8.333333,,,,,,,,20.0,0.0,0.777196,-0.085938,0.118164,0.612061,0.29395,-0.016602000000000002,-0.99855,0.008858,-0.020357,-0.026708999999999997,,,,,,,,,,,,,,,,,,,,,,,,,,,,,,,,,,,,,,,,,,,,,,,,,,,,,,,,,,,,,,,,,
35530,1648952882.21298,1648952882.222414,41.0,0.0,5233.333496,4744.615234000001,4569.230957,5119.487305,5276.410156,0.0,3.0,73.0,,,,0.0,0.0,0.0,1.0,1.0,4.0,8.333333,,,,,,,,,,,,,,,,,,,,,,,,,,,,,,,,,,,,,,,,,,,,,,,,,,,,,,0.0,0.0,32.0,0.046477,1.0,0.0,,,,,,,,,,,,,,,,,,,,,,,,,
35531,1648952882.220795,1648952882.230129,42.0,0.0,3513.3332520000004,4509.230957,4529.743652,3423.5898439999996,3521.025635,0.0,3.0,73.0,,,,0.0,0.0,0.0,1.0,1.0,4.0,8.333333,,,,,,,,21.0,0.0,0.777196,-0.085938,0.118164,0.612061,0.30225100000000005,-0.005371,-0.978042,0.009193000000000002,-0.020372,-0.030337,,,,,,,,,,,,,,,,,,,,,,,,,,,,,,,,,,,,,,,,,,,,,,,,,,,,,,,,,,,,,,,,,
35532,1648952882.228609,1648952882.237943,43.0,0.0,3107.179443,4182.563965,4037.4357909999994,3253.846191,3078.4614260000003,0.0,3.0,73.0,,,,0.0,0.0,0.0,1.0,1.0,4.0,8.333333,,,,,,,,,,,,,,,,,,,,,,,,,,,,,,,,,,,,,,,,,,,,,,,,,,,,,,,,,,,,,,,,,,,,,,,,,,,,,,,,,,,,
35533,1648952882.236424,1648952882.245657,44.0,0.0,4280.0,4354.871582,3944.102539,4315.897461,4317.436035,0.0,3.0,73.0,,,,0.0,0.0,0.0,1.0,1.0,4.0,8.333333,,,,,,,,22.0,0.0,0.777159,-0.085938,0.118408,0.612061,0.303716,-0.005371,-0.99025,0.006321,-0.020385,-0.02408,,,,,,,,,,,,,,,,,,,,,,,,,,,,,,,,,,,,,,,,,,,,,,,,,,,,,,,,,,,,,,,,,
35534,1648952882.244239,1648952882.253372,45.0,0.0,4681.025879,4280.0,4217.436035,4537.94873,4778.461426,0.0,3.0,73.0,,,,0.0,0.0,0.0,1.0,1.0,4.0,8.333333,,,,,,,,,,,,,,,,,,,,,,,,,,,,,,,,,,,,,,,,,,,,,,,,,,,,,,0.0,0.0,32.0,0.046477,1.0,0.0,,,,,,,,,,,,,,,,,,,,,,,,,
35535,1648952882.252053,1648952882.261186,46.0,0.0,3659.487061,4127.692383,4060.0,3484.615479,3668.205078,0.0,3.0,73.0,,,,0.0,0.0,0.0,1.0,1.0,4.0,8.333333,,,,,,,,23.0,0.0,0.777196,-0.085938,0.118164,0.612061,0.293462,-0.02295,-0.976577,0.008472,-0.020398,-0.028118,,,,,,,,,,,,,,,,,,,,,,,,,,,,,,,,,,,,,,,,,,,,,,,,,,,,,,,,,,,,,,,,,
35536,1648952882.259868,1648952882.2689009,47.0,0.0,4638.974121,4248.205078,4155.384765999999,4395.384765999999,4617.94873,0.0,3.0,73.0,,,,0.0,0.0,0.0,1.0,1.0,4.0,8.333333,,,,,,,,,,,,,,,,,,,,,,,,,,,,,,,,,,,,,,,,,,,,,,,,,,,,,,,,,,,,,,,,,,,,,,,,,,,,,,,,,,,,
35537,1648952882.267682,1648952882.276715,48.0,0.0,4867.179688,4603.077147999999,4691.282227000001,4926.666504,5032.307617,0.0,3.0,73.0,,,,0.0,0.0,0.0,1.0,1.0,4.0,8.333333,,,,,,,,24.0,0.0,0.77727,-0.085938,0.117676,0.612061,0.28809,-0.018067,-0.9399559999999999,0.008893999999999999,-0.020409,-0.031702,,,,,,,,,,,,,,,,,,,,,,,,,,,,,,,,,,,,,,,,,,,,,,,,,,,,,,,,,,,,,,,,,
35538,1648952882.275497,1648952882.28443,49.0,0.0,3215.897461,4340.512695,4320.512695,3443.5898439999996,3322.05127,0.0,3.0,73.0,,,,0.0,0.0,0.0,1.0,1.0,4.0,8.333333,,,,,,,,,,,,,,,,,,,,1.0,0.0,0.0,,,,,,,,,,,,,,,,,,,,,,,,,,,,,,,,0.0,0.0,32.0,0.048621,1.0,0.0,1011.5417480000001,587.337646,1326.286987,1294.965698,3788.68335,3610.8396,559.41571,716.123535,267.525604,663.960144,762.838562,334.663269,532.698303,563.672546,428.788391,1420.344482,309.433929,1418.0391849999999,1223.784058,3715.5273439999996,1949.8299559999998,450.822021,1721.925049,1974.2092289999998,3684.224365
35539,1648952882.283311,1648952882.292244,50.0,0.0,3954.8718259999996,3918.461426,3733.8461909999996,3897.9487299999996,3804.615479,0.0,3.0,73.0,,,,0.0,0.0,0.0,1.0,1.0,4.0,8.333333,,,,,,,,25.0,0.0,0.777334,-0.08569299999999999,0.117432,0.612061,0.286625,-0.006836,-1.001968,0.009323,-0.020516,-0.02531,,,,,,,,,,,,,,,,,,,,,,,,,,,,,,,,,,,,,,,,,,,,,,,,,,,,,,,,,,,,,,,,,
35540,1648952882.291126,1648952882.300059,51.0,0.0,5306.666504,4417.436035,3905.641113,5265.641113000001,5237.94873,0.0,3.0,73.0,,,,0.0,0.0,0.0,1.0,1.0,4.0,8.333333,,,,,,,,,,,,,,,,,,,,,,,,,,,,,,,,,,,,,,,,,,,,,,,,,,,,,,,,,,,,,,,,,,,,,,,,,,,,,,,,,,,,
35541,1648952882.29894,1648952882.307773,52.0,0.0,4969.230957,4567.179688,4315.897461,5113.333496,5046.666504,0.0,3.0,73.0,,,,0.0,0.0,0.0,1.0,1.0,4.0,8.333333,,,,,,,,26.0,0.0,0.77727,-0.085938,0.117676,0.612061,0.288579,-0.010254000000000001,-0.976577,0.006291,-0.020564,-0.016577,,,,,,,,,,,,,,,,,,,,,,,,,,,,,,,,,,,,,,,,,,,,,,,,,,,,,,,,,,,,,,,,,
35542,1648952882.306755,1648952882.315487,53.0,0.0,3916.4101560000004,4635.897461,4141.538574,3832.3076170000004,3948.205078,0.0,3.0,73.0,,,,0.0,0.0,0.0,1.0,1.0,4.0,8.333333,,,,,,,,,,,,,,,,,,,,,,,,,,,,,,,,,,,,,,,,,,,,,,,,,,,,,,0.0,0.0,32.0,0.048621,1.0,0.0,,,,,,,,,,,,,,,,,,,,,,,,,
35543,1648952882.314569,1648952882.323302,54.0,0.0,4516.410156,5175.384765999999,3878.974365,4227.179688,4395.897461,0.0,3.0,73.0,,,,0.0,0.0,0.0,1.0,1.0,4.0,8.333333,,,,,,,,27.0,0.0,0.777004,-0.085938,0.118164,0.612305,0.295415,-0.012206999999999999,-0.978042,0.0037090000000000005,-0.020607,-0.011746,,,,,,,,,,,,,,,,,,,,,,,,,,,,,,,,,,,,,,,,,,,,,,,,,,,,,,,,,,,,,,,,,
35544,1648952882.3223839,1648952882.331116,55.0,0.0,4596.410156,5447.179688,4139.487305,4745.641113000001,4552.820313,0.0,3.0,73.0,,,,0.0,0.0,0.0,1.0,1.0,4.0,8.333333,,,,,,,,,,,,,,,,,,,,,,,,,,,,,,,,,,,,,,,,,,,,,,,,,,,,,,,,,,,,,,,,,,,,,,,,,,,,,,,,,,,,
35545,1648952882.330198,1648952882.338831,56.0,0.0,4095.384521,4817.94873,4259.487305,4261.025879,4084.102539,0.0,3.0,73.0,,,,0.0,0.0,0.0,1.0,1.0,4.0,8.333333,,,,,,,,28.0,0.0,0.777196,-0.085938,0.118164,0.612061,0.31396999999999997,-0.018067,-0.9799950000000001,0.00451,-0.020646,-0.016919,,,,,,,,,,,,,,,,,,,,,,,,,,,,,,,,,,,,,,,,,,,,,,,,,,,,,,,,,,,,,,,,,
35546,1648952882.3380132,1648952882.3466449,57.0,0.0,4510.256348,4640.0,4183.589844,4339.487305,4667.692383,0.0,3.0,73.0,,,,0.0,0.0,0.0,1.0,1.0,4.0,8.333333,,,,,,,,,,,,,,,,,,,,,,,,,,,,,,,,,,,,,,,,,,,,,,,,,,,,,,0.0,0.0,32.0,0.048621,1.0,0.0,,,,,,,,,,,,,,,,,,,,,,,,,
35547,1648952882.3458278,1648952882.354359,58.0,0.0,4202.05127,5228.717772999999,4059.487061,3980.512939,4470.256348,0.0,3.0,73.0,,,,0.0,0.0,0.0,1.0,1.0,4.0,8.333333,,,,,,,,29.0,0.0,0.777068,-0.08569299999999999,0.11792000000000001,0.612305,0.310552,-0.013184,-0.972671,0.002106,-0.020534999999999998,-0.012004,,,,,,,,,,,,,,,,,,,,,,,,,,,,,,,,,,,,,,,,,,,,,,,,,,,,,,,,,,,,,,,,,
35548,1648952882.353642,1648952882.362073,59.0,0.0,4336.922852000001,5149.230957,4157.436035,4408.205078,4400.512695,0.0,3.0,73.0,,,,0.0,0.0,0.0,1.0,1.0,4.0,8.333333,,,,,,,,,,,,,,,,,,,,,,,,,,,,,,,,,,,,,,,,,,,,,,,,,,,,,,,,,,,,,,,,,,,,,,,,,,,,,,,,,,,,
35549,1648952882.361457,1648952882.369888,60.0,0.0,4495.384765999999,4757.436035,4237.94873,4621.025879,4354.871582,0.0,3.0,73.0,,,,0.0,0.0,0.0,1.0,1.0,4.0,8.333333,,,,,,,,30.0,0.0,0.777142,-0.08569299999999999,0.117432,0.612305,0.295415,-0.02295,-0.969741,0.001602,-0.020483,-0.007483,,,,,,,,,,,,,,,,,,,,,,,,,,,,,,,,,,,,,,,,,,,,,,,,,,,,,,,,,,,,,,,,,
35550,1648952882.369271,1648952882.377702,61.0,0.0,4446.153809,4558.461426,4117.94873,4234.358886999999,4446.153809,0.0,3.0,73.0,,,,0.0,0.0,0.0,1.0,1.0,4.0,8.333333,,,,,,,,,,,,,,,,,,,,,,,,,,,,,,,,,,,,,,,,,,,,,,,,,,,,,,0.0,0.0,32.0,0.048621,1.0,0.0,,,,,,,,,,,,,,,,,,,,,,,,,
35551,1648952882.377086,1648952882.385417,62.0,0.0,4242.563965,4911.282227000001,3993.3332520000004,4114.871582,4605.128418,0.0,3.0,73.0,,,,0.0,0.0,0.0,1.0,1.0,4.0,8.333333,,,,,,,,31.0,0.0,0.777169,-0.085449,0.117432,0.612305,0.29443800000000003,-0.010742,-0.978042,-0.00056,-0.020437,-0.013034,,,,,,,,,,,,,,,,,,,,,,,,,,,,,,,,,,,,,,,,,,,,,,,,,,,,,,,,,,,,,,,,,
35552,1648952882.3849,1648952882.3932312,63.0,0.0,4244.615234000001,5074.871582,4072.820557,4430.769043,4489.743652,0.0,3.0,73.0,,,,0.0,0.0,0.0,1.0,1.0,4.0,8.333333,,,,,,,,,,,,,,,,,,,,,,,,,,,,,,,,,,,,,,,,,,,,,,,,,,,,,,,,,,,,,,,,,,,,,,,,,,,,,,,,,,,,
35553,1648952882.392715,1648952882.4010448,64.0,0.0,4536.922852000001,4804.102539,4203.077147999999,4618.974121,4351.282227000001,450.0,3.0,73.0,,,,0.0,0.0,0.0,1.0,1.0,4.0,8.333333,,,,,,,,32.0,0.0,0.777068,-0.08569299999999999,0.11792000000000001,0.612305,0.275883,-0.023438,-0.993667,0.00223,-0.020395,-0.018127,,,,,,,,,,,,,,,,,,,,,,,,,,,,,,,,,,,,,,,,,,,,,,,,,,,,,,,,,,,,,,,,,
35554,1648952882.40053,1648952882.4087589,65.0,0.0,4460.512695,4489.743652,4159.487305,4305.641113000001,4387.179688,450.0,3.0,73.0,,,,0.0,4.0,0.0,1.0,1.0,4.0,16.666666,0.972656,0.0,0.0,0.0,0.0,0.0,0.0,,,,,,,,,,,,,1.0,0.0,0.0,,,,,,,,,,,,,,,,,,,,,,,,,,,,,,,,0.0,0.0,32.0,0.052414999999999996,1.0,0.0,897.368835,713.586365,1283.342407,1395.12854,3833.39209,4261.109863000001,582.989441,820.734192,276.63198900000003,687.255432,672.766113,389.69439700000004,508.500793,507.712036,397.569641,1252.040649,395.960632,1265.9724119999998,1228.847046,3759.906006,1907.637939,532.779358,1447.3032230000001,1974.5488280000002,3667.8461909999996
35555,1648952882.408344,1648952882.416574,66.0,0.0,4223.077147999999,4727.179688,3950.256348,4143.589844,4605.641113000001,16078.0,3.0,73.0,,,,0.0,4.0,0.0,1.0,1.0,4.0,16.666666,,,,,,,,33.0,0.0,0.777031,-0.08569299999999999,0.118164,0.612305,0.30225100000000005,-0.02002,-0.969253,0.000152,-0.020406999999999998,-0.010112999999999999,,,,,,,,,,,,,,,,,,,,,,,,,,,,,,,,,,,,,,,,,,,,,,,,,,,,,,,,,,,,,,,,,
35556,1648952882.416159,1648952882.424288,67.0,0.0,4410.256348,5086.153809,3906.6667479999996,4360.0,4614.358886999999,450.0,3.0,73.0,,,,0.0,4.0,4.0,1.0,1.0,4.0,50.0,,,,,,,,,,,,,,,,,,,,,,,,,,,,,,,,,,,,,,,,,,,,,,,,,,,,,,,,,,,,,,,,,,,,,,,,,,,,,,,,,,,,
35557,1648952882.423973,1648952882.432102,68.0,0.0,4665.128418,4922.563965,4257.436035,4452.307617,4362.05127,16271.0,3.0,73.0,,,,0.0,4.0,4.0,1.0,1.0,4.0,50.0,,,,,,,,34.0,0.0,0.777068,-0.08569299999999999,0.11792000000000001,0.612305,0.303716,-0.015625,-0.985367,0.00292,-0.020416999999999998,-0.015401,,,,,,,,,,,,,,,,,,,,,,,,,,,,,,,,,,,,,,,,,,,,,,,,,,,,,,,,,,,,,,,,,
35558,1648952882.431788,1648952882.439817,69.0,0.0,4308.717772999999,4580.512695,4386.666504,4248.717772999999,4213.333496,450.0,3.0,73.0,,,,0.0,4.0,4.0,0.0,1.0,4.0,41.666668,,,,,,,,,,,,,,,,,,,,,,,,,,,,,,,,,,,,,,,,,,,,,,,,,,,,,,0.0,0.0,32.0,0.052414999999999996,1.0,0.0,,,,,,,,,,,,,,,,,,,,,,,,,
35559,1648952882.439602,1648952882.4476311,70.0,0.0,4072.3076170000004,4687.179688,4051.794922,4306.153809,4417.94873,0.0,3.0,73.0,,,,0.0,4.0,4.0,0.0,1.0,4.0,41.666668,,,,,,,,35.0,0.0,0.777068,-0.08569299999999999,0.11792000000000001,0.612305,0.302739,-0.013184,-0.960952,0.005362,-0.020377000000000003,-0.020257,,,,,,,,,,,,,,,,,,,,,,,,,,,,,,,,,,,,,,,,,,,,,,,,,,,,,,,,,,,,,,,,,
35560,1648952882.447417,1648952882.455345,71.0,0.0,4494.871582,4895.384765999999,4004.102539,4518.974121,4574.871582,450.0,3.0,73.0,,,,0.0,4.0,4.0,0.0,1.0,4.0,41.666668,,,,,,,,,,,,,,,,,,,,,,,,,,,,,,,,,,,,,,,,,,,,,,,,,,,,,,,,,,,,,,,,,,,,,,,,,,,,,,,,,,,,
35561,1648952882.455231,1648952882.463159,72.0,0.0,4786.153809,4858.974121,4344.102539,4381.025879,4370.769043,450.0,3.0,73.0,,,,0.0,4.0,4.0,0.0,1.0,4.0,41.666668,,,,,,,,36.0,0.0,0.777068,-0.08569299999999999,0.11792000000000001,0.612305,0.293462,-0.016114,-0.993179,0.005998,-0.020439,-0.024628,,,,,,,,,,,,,,,,,,,,,,,,,,,,,,,,,,,,,,,,,,,,,,,,,,,,,,,,,,,,,,,,,
35562,1648952882.463046,1648952882.470873,73.0,0.0,4258.974121,4727.179688,4353.846191,4100.0,4168.205078,16065.0,3.0,73.0,,,,0.0,4.0,4.0,0.0,4.0,4.0,66.666664,,,,,,,,,,,,,,,,,,,,,,,,,,,,,,,,,,,,,,,,,,,,,,,,,,,,,,0.0,0.0,32.0,0.052414999999999996,1.0,0.0,,,,,,,,,,,,,,,,,,,,,,,,,
35563,1648952882.47086,1648952882.478688,74.0,0.0,3988.205078,4756.410156,3977.9487299999996,4321.025879,4380.512695,450.0,3.0,73.0,,,,0.0,4.0,4.0,0.0,4.0,4.0,66.666664,,,,,,,,37.0,0.0,0.777068,-0.08569299999999999,0.11792000000000001,0.612305,0.29102,-0.016114,-0.992691,0.006520999999999999,-0.020495,-0.015964,,,,,,,,,,,,,,,,,,,,,,,,,,,,,,,,,,,,,,,,,,,,,,,,,,,,,,,,,,,,,,,,,
35564,1648952882.478675,1648952882.486402,75.0,0.0,4418.974121,4787.179688,4007.179443,4603.589844,4585.641113000001,305.0,3.0,73.0,,,,0.0,4.0,4.0,0.0,4.0,2.0,50.0,,,,,,,,,,,,,,,,,,,,,,,,,,,,,,,,,,,,,,,,,,,,,,,,,,,,,,,,,,,,,,,,,,,,,,,,,,,,,,,,,,,,
35565,1648952882.486489,1648952882.494116,76.0,0.0,4568.205078,4520.512695,4168.717772999999,4328.717772999999,4391.282227000001,450.0,3.0,73.0,,,,0.0,4.0,4.0,0.0,4.0,2.0,50.0,,,,,,,,38.0,0.0,0.777031,-0.08569299999999999,0.118164,0.612305,0.300298,-0.014649,-0.962417,0.004014,-0.020447,-0.011193999999999999,,,,,,,,,,,,,,,,,,,,,,,,,,,,,,,,,,,,,,,,,,,,,,,,,,,,,,,,,,,,,,,,,
35566,1648952882.494304,1648952882.501931,77.0,0.0,4109.230957,4404.615234000001,4085.1281740000004,3992.3076170000004,4202.563965,450.0,3.0,73.0,,,,0.0,4.0,4.0,0.0,4.0,2.0,50.0,,,,,,,,,,,,,,,,,,,,,,,,,,,,,,,,,,,,,,,,,,,,,,,,,,,,,,0.0,0.0,32.0,0.052414999999999996,1.0,0.0,,,,,,,,,,,,,,,,,,,,,,,,,
35567,1648952882.502119,1648952882.509645,78.0,0.0,4006.6667479999996,4678.974121,3876.923096,4245.128418,4391.794922,450.0,3.0,73.0,,,,0.0,4.0,4.0,0.0,4.0,2.0,50.0,,,,,,,,39.0,0.0,0.777068,-0.08569299999999999,0.11792000000000001,0.612305,0.298833,-0.016114,-0.9868309999999999,0.0016589999999999999,-0.020551,-0.006901000000000001,,,,,,,,,,,,,,,,,,,,,,,,,,,,,,,,,,,,,,,,,,,,,,,,,,,,,,,,,,,,,,,,,
35568,1648952882.509933,1648952882.5174599,79.0,0.0,4363.589844,4916.922852000001,4029.2307130000004,4612.307617,4564.615234000001,305.0,3.0,73.0,,,,0.0,4.0,4.0,0.0,4.0,2.0,50.0,,,,,,,,,,,,,,,,,,,,,,,,,,,,,,,,,,,,,,,,,,,,,,,,,,,,,,,,,,,,,,,,,,,,,,,,,,,,,,,,,,,,
35569,1648952882.517748,1648952882.5251741,80.0,0.0,4411.282227000001,4652.820313,4187.179688,4368.717772999999,4388.717772999999,450.0,3.0,73.0,,,,0.0,4.0,4.0,0.0,4.0,2.0,50.0,,,,,,,,40.0,0.0,0.777068,-0.08569299999999999,0.11792000000000001,0.612305,0.289067,-0.005371,-0.9785309999999999,0.002616,-0.020547,-0.012558,,,,,,,,,,,,,,,,,,,,,,,,,,,,,,,,,,,,,,,,,,,,,,,,,,,,,,,,,,,,,,,,,
35570,1648952882.5255618,1648952882.532989,81.0,0.0,4098.461426,4354.358886999999,4065.641113,3934.358887,4199.487305,450.0,3.0,73.0,,,,0.0,4.0,4.0,0.0,4.0,2.0,50.0,,,,,,,,,,,,,,,,,,,,1.0,0.0,0.0,,,,,,,,,,,,,,,,,,,,,,,,,,,,,,,,0.0,0.0,32.0,0.053637,1.0,0.0,816.599854,858.89325,1220.7386470000001,1495.825073,3862.373779,4916.084473,590.041565,898.058533,292.647675,672.8613280000001,608.949341,451.90063499999997,464.412415,442.106476,372.151276,1132.660645,542.795288,1106.804077,1252.401001,3784.0107420000004,1824.112305,665.3150019999999,1165.6928710000002,1933.758545,3664.031982
35571,1648952882.533377,1648952882.5407028,82.0,0.0,4154.871582,4496.922852000001,3893.3332520000004,4252.820313,4487.179688,450.0,3.0,73.0,,,,0.0,4.0,4.0,0.0,4.0,2.0,50.0,,,,,,,,41.0,0.0,0.777068,-0.08569299999999999,0.11792000000000001,0.612305,0.288579,-0.012695999999999999,-0.969741,0.00045,-0.020592,-0.008129,,,,,,,,,,,,,,,,,,,,,,,,,,,,,,,,,,,,,,,,,,,,,,,,,,,,,,,,,,,,,,,,,
35572,1648952882.541191,1648952882.548518,83.0,0.0,4625.641113000001,4884.615234000001,4058.974365,4817.94873,4815.384765999999,305.0,3.0,73.0,,,,0.0,4.0,4.0,0.0,4.0,2.0,50.0,,,,,,,,,,,,,,,,,,,,,,,,,,,,,,,,,,,,,,,,,,,,,,,,,,,,,,,,,,,,,,,,,,,,,,,,,,,,,,,,,,,,
35573,1648952882.549006,1648952882.556232,84.0,0.0,4047.6923829999996,4746.153809,4186.153809,3919.487061,3907.6923829999996,450.0,3.0,73.0,,,,0.0,4.0,4.0,0.0,4.0,2.0,50.0,,,,,,,,42.0,0.0,0.776838,-0.08569299999999999,0.118164,0.612549,0.295903,-0.015625,-0.9834129999999999,-0.00145,-0.020632,-0.004142,,,,,,,,,,,,,,,,,,,,,,,,,,,,,,,,,,,,,,,,,,,,,,,,,,,,,,,,,,,,,,,,,
35574,1648952882.556821,1648952882.5640461,85.0,0.0,4808.205078,4411.794922,3911.281982,4584.615234000001,4720.512695,450.0,3.0,73.0,,,,0.0,4.0,4.0,0.0,4.0,2.0,50.0,,,,,,,,,,,,,,,,,,,,,,,,,,,,,,,,,,,,,,,,,,,,,,,,,,,,,,0.0,0.0,32.0,0.053637,1.0,0.0,,,,,,,,,,,,,,,,,,,,,,,,,
35575,1648952882.564635,1648952882.571761,86.0,0.0,5292.307617,4600.0,3946.1538090000004,5376.410156,5546.666504,450.0,3.0,73.0,,,,0.0,4.0,4.0,0.0,4.0,2.0,50.0,,,,,,,,43.0,0.0,0.776838,-0.08569299999999999,0.118164,0.612549,0.303227,-0.015137000000000001,-0.977066,-0.001696,-0.020571000000000002,-0.013005000000000001,,,,,,,,,,,,,,,,,,,,,,,,,,,,,,,,,,,,,,,,,,,,,,,,,,,,,,,,,,,,,,,,,
35576,1648952882.57245,1648952882.579575,87.0,0.0,4205.641113000001,4798.461426,4226.666504,4146.666504,4401.538574,305.0,3.0,73.0,,,,0.0,4.0,4.0,0.0,4.0,2.0,50.0,,,,,,,,,,,,,,,,,,,,,,,,,,,,,,,,,,,,,,,,,,,,,,,,,,,,,,,,,,,,,,,,,,,,,,,,,,,,,,,,,,,,
35577,1648952882.580264,1648952882.58729,88.0,0.0,3875.897461,4678.974121,4441.025879,3674.358887,3851.281982,450.0,3.0,73.0,,,,0.0,4.0,4.0,0.0,4.0,2.0,50.0,,,,,,,,44.0,0.0,0.776838,-0.08569299999999999,0.118164,0.612549,0.298833,-0.015137000000000001,-0.9980620000000001,0.001208,-0.020613,-0.018101,,,,,,,,,,,,,,,,,,,,,,,,,,,,,,,,,,,,,,,,,,,,,,,,,,,,,,,,,,,,,,,,,
35578,1648952882.588079,1648952882.595104,89.0,0.0,4476.410156,4703.077147999999,4298.461426,4506.666504,4429.230957,450.0,3.0,73.0,,,,0.0,4.0,4.0,0.0,4.0,2.0,50.0,,,,,,,,,,,,,,,,,,,,,,,,,,,,,,,,,,,,,,,,,,,,,,,,,,,,,,0.0,0.0,32.0,0.053637,1.0,0.0,,,,,,,,,,,,,,,,,,,,,,,,,
35579,1648952882.595893,1648952882.602819,90.0,0.0,4313.846191,4812.307617,4236.922852000001,4331.794922,4321.538574,450.0,3.0,73.0,,,,0.0,4.0,4.0,0.0,4.0,2.0,50.0,,,,,,,,45.0,0.0,0.776875,-0.08569299999999999,0.11792000000000001,0.612549,0.299809,-0.021485,-0.976089,0.002259,-0.020554,-0.022639,,,,,,,,,,,,,,,,,,,,,,,,,,,,,,,,,,,,,,,,,,,,,,,,,,,,,,,,,,,,,,,,,
35580,1648952882.603708,1648952882.610633,91.0,0.0,3863.076904,4728.205078,4156.410156,3489.743652,3650.256348,305.0,3.0,73.0,,,,0.0,4.0,4.0,0.0,4.0,2.0,50.0,,,,,,,,,,,,,,,,,,,,,,,,,,,,,,,,,,,,,,,,,,,,,,,,,,,,,,,,,,,,,,,,,,,,,,,,,,,,,,,,,,,,
35581,1648952882.611522,1648952882.6183472,92.0,0.0,4791.282227000001,4857.94873,4312.820313,4417.94873,4477.94873,450.0,3.0,73.0,,,,0.0,4.0,4.0,0.0,4.0,2.0,50.0,,,,,,,,46.0,0.0,0.776838,-0.08569299999999999,0.118164,0.612549,0.303227,-0.015137000000000001,-0.977066,0.001643,-0.020597999999999998,-0.02682,,,,,,,,,,,,,,,,,,,,,,,,,,,,,,,,,,,,,,,,,,,,,,,,,,,,,,,,,,,,,,,,,
35582,1648952882.6193368,1648952882.6261618,93.0,0.0,4138.974121,4900.512695,4292.307617,4147.692383,3983.5898439999996,450.0,3.0,73.0,,,,0.0,4.0,4.0,0.0,4.0,2.0,50.0,,,,,,,,,,,,,,,,,,,,,,,,,,,,,,,,,,,,,,,,,,,,,,,,,,,,,,0.0,0.0,32.0,0.053637,1.0,0.0,,,,,,,,,,,,,,,,,,,,,,,,,
35583,1648952882.627151,1648952882.633876,94.0,0.0,4098.461426,4769.743652,4068.718018,4262.05127,4134.871582,450.0,3.0,73.0,,,,0.0,4.0,4.0,0.0,4.0,2.0,50.0,,,,,,,,47.0,0.0,0.776875,-0.08569299999999999,0.11792000000000001,0.612549,0.299809,-0.021485,-0.976089,0.00265,-0.02054,-0.030486000000000003,,,,,,,,,,,,,,,,,,,,,,,,,,,,,,,,,,,,,,,,,,,,,,,,,,,,,,,,,,,,,,,,,
35584,1648952882.634966,1648952882.64159,95.0,0.0,4664.615234000001,4716.922852000001,4184.102539,4839.487305,4691.282227000001,305.0,3.0,73.0,,,,0.0,4.0,4.0,0.0,4.0,2.0,50.0,,,,,,,,,,,,,,,,,,,,,,,,,,,,,,,,,,,,,,,,,,,,,,,,,,,,,,,,,,,,,,,,,,,,,,,,,,,,,,,,,,,,
35585,1648952882.64278,1648952882.649405,96.0,0.0,2898.4614260000003,4551.794922,4044.615479,2910.769287,2992.820557,450.0,3.0,73.0,,,,0.0,4.0,4.0,0.0,4.0,2.0,50.0,,,,,,,,48.0,0.0,0.776875,-0.08569299999999999,0.11792000000000001,0.612549,0.291508,-0.000488,-0.9746239999999999,0.00043200000000000004,-0.020586,-0.024263999999999997,,,,,,,,,,,,,,,,,,,,,,,,,,,,,,,,,,,,,,,,,,,,,,,,,,,,,,,,,,,,,,,,,
35586,1648952882.650595,1648952882.657219,97.0,0.0,2832.820557,4493.846191,3818.461426,2580.512939,3181.025635,450.0,3.0,73.0,,,,0.0,4.0,4.0,0.0,4.0,2.0,50.0,,,,,,,,,,,,,,,,,,,,1.0,0.0,0.0,,,,,,,,,,,,,,,,,,,,,,,,,,,,,,,,0.0,0.0,32.0,0.052239,1.0,0.0,789.363708,1019.279907,1132.231689,1592.094727,3909.7292479999996,5416.666992,588.8936769999999,931.5693359999999,312.605804,634.304749,577.5136110000001,498.35375999999997,411.68212900000003,379.61441,356.199646,1091.392944,748.717834,963.5772710000001,1293.498169,3824.274902,1708.98645,842.13678,927.9832150000001,1877.96814,3709.828125
35587,1648952882.65841,1648952882.664933,98.0,0.0,4449.230957,4633.333496,4086.1538090000004,4212.820313,4751.794922,450.0,3.0,73.0,,,,0.0,4.0,4.0,0.0,4.0,2.0,50.0,,,,,,,,49.0,0.0,0.776875,-0.08569299999999999,0.11792000000000001,0.612549,0.276371,-0.01709,-0.989273,0.003026,-0.020481,-0.028234,,,,,,,,,,,,,,,,,,,,,,,,,,,,,,,,,,,,,,,,,,,,,,,,,,,,,,,,,,,,,,,,,
35588,1648952882.666224,1648952882.672648,99.0,0.0,4880.512695,4678.974121,4380.512695,4913.333496,5059.487305,305.0,3.0,73.0,,,,0.0,4.0,4.0,0.0,4.0,2.0,50.0,,,,,,,,,,,,,,,,,,,,,,,,,,,,,,,,,,,,,,,,,,,,,,,,,,,,,,,,,,,,,,,,,,,,,,,,,,,,,,,,,,,,
35589,1648952882.6740391,1648952882.680462,100.0,0.0,3951.794922,4525.641113000001,4169.230957,3965.1281740000004,4066.6667479999996,450.0,3.0,73.0,,,,0.0,4.0,4.0,0.0,4.0,2.0,50.0,,,,,,,,50.0,0.0,0.776875,-0.08569299999999999,0.11792000000000001,0.612549,0.289067,-0.014159999999999999,-0.989273,0.003846,-0.020581,-0.01916,,,,,,,,,,,,,,,,,,,,,,,,,,,,,,,,,,,,,,,,,,,,,,,,,,,,,,,,,,,,,,,,,
35590,1648952882.6818528,1648952882.6881769,101.0,0.0,4620.0,4570.769043,4009.743652,4338.461426,4451.282227000001,450.0,3.0,73.0,,,,0.0,4.0,4.0,0.0,4.0,2.0,50.0,,,,,,,,,,,,,,,,,,,,,,,,,,,,,,,,,,,,,,,,,,,,,,,,,,,,,,0.0,0.0,32.0,0.052239,1.0,0.0,,,,,,,,,,,,,,,,,,,,,,,,,
35591,1648952882.689668,1648952882.695991,102.0,0.0,4734.871582,4762.05127,4312.820313,4587.179688,4505.641113000001,450.0,3.0,73.0,,,,0.0,4.0,4.0,0.0,4.0,2.0,50.0,,,,,,,,51.0,0.0,0.776875,-0.08569299999999999,0.11792000000000001,0.612549,0.290044,-0.018555000000000002,-0.977554,0.004633,-0.020574000000000002,-0.023543,,,,,,,,,,,,,,,,,,,,,,,,,,,,,,,,,,,,,,,,,,,,,,,,,,,,,,,,,,,,,,,,,
35592,1648952882.697482,1648952882.703706,103.0,0.0,3969.743652,4810.769043,4496.922852000001,3980.512939,4141.538574,305.0,3.0,73.0,,,,0.0,4.0,4.0,0.0,4.0,2.0,50.0,,,,,,,,,,,,,,,,,,,,,,,,,,,,,,,,,,,,,,,,,,,,,,,,,,,,,,,,,,,,,,,,,,,,,,,,,,,,,,,,,,,,
35593,1648952882.705297,1648952882.71152,104.0,0.0,4397.94873,4611.794922,4425.128418,4424.615234000001,4746.666504,450.0,3.0,73.0,,,,0.0,4.0,4.0,0.0,4.0,2.0,50.0,,,,,,,,52.0,0.0,0.776875,-0.08569299999999999,0.11792000000000001,0.612549,0.299321,-0.020508000000000002,-0.977066,0.0021190000000000002,-0.020518,-0.02114,,,,,,,,,,,,,,,,,,,,,,,,,,,,,,,,,,,,,,,,,,,,,,,,,,,,,,,,,,,,,,,,,
35594,1648952882.7131119,1648952882.719235,105.0,0.0,4495.897461,4514.358886999999,4312.307617,4500.0,4377.436035,450.0,3.0,73.0,,,,0.0,4.0,4.0,0.0,4.0,2.0,50.0,,,,,,,,,,,,,,,,,,,,,,,,,,,,,,,,,,,,,,,,,,,,,,,,,,,,,,0.0,0.0,32.0,0.052239,1.0,0.0,,,,,,,,,,,,,,,,,,,,,,,,,
35595,1648952882.720926,1648952882.727049,106.0,0.0,4364.615234000001,4789.230957,4327.179688,4305.128418,4338.461426,450.0,3.0,73.0,,,,0.0,4.0,4.0,0.0,4.0,2.0,50.0,,,,,,,,53.0,0.0,0.776875,-0.08569299999999999,0.11792000000000001,0.612549,0.299809,-0.016602000000000002,-0.9668120000000001,0.001468,-0.020615,-0.015852,,,,,,,,,,,,,,,,,,,,,,,,,,,,,,,,,,,,,,,,,,,,,,,,,,,,,,,,,,,,,,,,,
35596,1648952882.728741,1648952882.734764,107.0,0.0,4165.128418,4866.153809,4160.512695,4028.718018,4432.820313,305.0,3.0,73.0,,,,0.0,4.0,4.0,0.0,4.0,2.0,50.0,,,,,,,,,,,,,,,,,,,,,,,,,,,,,,,,,,,,,,,,,,,,,,,,,,,,,,,,,,,,,,,,,,,,,,,,,,,,,,,,,,,,
35597,1648952882.736555,1648952882.742478,108.0,0.0,4300.0,4741.025879,3958.461426,4296.410156,4416.410156,450.0,3.0,73.0,,,,0.0,4.0,4.0,0.0,4.0,2.0,50.0,,,,,,,,54.0,0.0,0.776838,-0.08569299999999999,0.118164,0.612549,0.30518,-0.015625,-0.9922030000000001,-0.001111,-0.020683,-0.006663,,,,,,,,,,,,,,,,,,,,,,,,,,,,,,,,,,,,,,,,,,,,,,,,,,,,,,,,,,,,,,,,,
35598,1648952882.74437,1648952882.750293,109.0,0.0,4374.358886999999,4725.128418,4171.794922,4498.974121,4296.922852000001,450.0,3.0,73.0,,,,0.0,4.0,4.0,0.0,4.0,2.0,50.0,,,,,,,,,,,,,,,,,,,,,,,,,,,,,,,,,,,,,,,,,,,,,,,,,,,,,,0.0,0.0,32.0,0.052239,1.0,0.0,,,,,,,,,,,,,,,,,,,,,,,,,
35599,1648952882.752184,1648952882.758007,110.0,0.0,4547.692383,4550.769043,4117.436035,4375.897461,4556.922852000001,450.0,3.0,73.0,,,,0.0,4.0,4.0,0.0,4.0,2.0,50.0,,,,,,,,55.0,0.0,0.776838,-0.08569299999999999,0.118164,0.612549,0.305669,-0.007324,-0.9824370000000001,0.001832,-0.020714,-0.012345,,,,,,,,,,,,,,,,,,,,,,,,,,,,,,,,,,,,,,,,,,,,,,,,,,,,,,,,,,,,,,,,,
35600,1648952882.759999,1648952882.7658222,111.0,0.0,4454.358886999999,4312.307617,3958.461426,4246.153809,4621.025879,305.0,3.0,73.0,,,,0.0,4.0,4.0,0.0,4.0,2.0,50.0,,,,,,,,,,,,,,,,,,,,,,,,,,,,,,,,,,,,,,,,,,,,,,,,,,,,,,,,,,,,,,,,,,,,,,,,,,,,,,,,,,,,
35601,1648952882.767813,1648952882.773536,112.0,0.0,3452.820557,4427.179688,3901.025635,3648.205078,3675.384521,450.0,3.0,73.0,,,,0.0,4.0,4.0,0.0,4.0,2.0,50.0,,,,,,,,56.0,0.0,0.776838,-0.08569299999999999,0.118164,0.612549,0.307134,-0.021485,-0.9560690000000001,-0.00025499999999999996,-0.020791,-0.007936,,,,,,,,,,,,,,,,,,,,,,,,,,,,,,,,,,,,,,,,,,,,,,,,,,,,,,,,,,,,,,,,,
35602,1648952882.7756279,1648952882.781251,113.0,0.0,4830.256348,4910.769043,3945.641113,5100.0,5079.487305,450.0,3.0,73.0,,,,0.0,4.0,4.0,0.0,4.0,2.0,50.0,,,,,,,,,,,,,,,,,,,,1.0,0.0,0.0,,,,,,,,,,,,,,,,,,,,,,,,,,,,,,,,0.0,0.0,32.0,0.055697,1.0,0.0,810.280701,1179.831299,1004.9249880000001,1665.5742189999999,3958.686279,5595.498047,585.72699,905.61322,333.994324,589.9863280000001,563.777649,511.58358799999996,359.695587,329.070526,350.04736299999996,1125.567261,995.3254390000001,829.576599,1330.397949,3871.459717,1571.689209,1042.349243,742.508179,1815.439209,3779.412354
35603,1648952882.783442,1648952882.7890651,114.0,0.0,5635.897461,4968.717772999999,4078.461426,5556.410156,5699.487305,450.0,3.0,73.0,,,,0.0,4.0,4.0,0.0,4.0,2.0,50.0,,,,,,,,57.0,0.0,0.776875,-0.08569299999999999,0.11792000000000001,0.612549,0.288579,-0.012206999999999999,-1.0053860000000001,0.002554,-0.020763,-0.013538999999999999,,,,,,,,,,,,,,,,,,,,,,,,,,,,,,,,,,,,,,,,,,,,,,,,,,,,,,,,,,,,,,,,,
35604,1648952882.7912571,1648952882.79678,115.0,0.0,4610.769043,4691.794922,4131.282227000001,4276.410156,4526.153809,305.0,3.0,73.0,,,,0.0,4.0,4.0,0.0,4.0,2.0,50.0,,,,,,,,,,,,,,,,,,,,,,,,,,,,,,,,,,,,,,,,,,,,,,,,,,,,,,,,,,,,,,,,,,,,,,,,,,,,,,,,,,,,
35605,1648952882.799071,1648952882.804595,116.0,0.0,4499.487305,4856.410156,4326.153809,4170.256348,4258.461426,450.0,3.0,73.0,,,,0.0,4.0,4.0,0.0,4.0,2.0,50.0,,,,,,,,58.0,0.0,0.7769119999999999,-0.08569299999999999,0.117676,0.612549,0.295903,-0.003418,-0.975601,0.002054,-0.020786000000000002,-0.018484,,,,,,,,,,,,,,,,,,,,,,,,,,,,,,,,,,,,,,,,,,,,,,,,,,,,,,,,,,,,,,,,,
35606,1648952882.806886,1648952882.81231,117.0,0.0,4220.0,4951.794922,4280.0,3977.4357909999994,4173.333496,450.0,3.0,73.0,,,,0.0,4.0,4.0,0.0,4.0,2.0,50.0,,,,,,,,,,,,,,,,,,,,,,,,,,,,,,,,,,,,,,,,,,,,,,,,,,,,,,0.0,0.0,32.0,0.055697,1.0,0.0,,,,,,,,,,,,,,,,,,,,,,,,,
35607,1648952882.8147,1648952882.820124,118.0,0.0,3882.0512700000004,4511.282227000001,3923.076904,3718.461426,4394.871582,450.0,3.0,73.0,,,,0.0,4.0,4.0,0.0,4.0,2.0,50.0,,,,,,,,59.0,0.0,0.776875,-0.08569299999999999,0.11792000000000001,0.612549,0.29395,-0.022461000000000002,-0.996597,0.0030210000000000002,-0.020807,-0.022935,,,,,,,,,,,,,,,,,,,,,,,,,,,,,,,,,,,,,,,,,,,,,,,,,,,,,,,,,,,,,,,,,
35608,1648952882.822515,1648952882.827939,119.0,0.0,5113.846191,4309.743652,3855.384521,4905.128418,5487.179688,305.0,3.0,73.0,,,,0.0,4.0,4.0,0.0,4.0,2.0,50.0,,,,,,,,,,,,,,,,,,,,,,,,,,,,,,,,,,,,,,,,,,,,,,,,,,,,,,,,,,,,,,,,,,,,,,,,,,,,,,,,,,,,
35609,1648952882.8303301,1648952882.8356528,120.0,0.0,5470.256348,4650.256348,4230.769043,5253.846191,5269.230957,450.0,3.0,73.0,,,,0.0,4.0,4.0,0.0,4.0,2.0,50.0,,,,,,,,60.0,0.0,0.776875,-0.08569299999999999,0.11792000000000001,0.612549,0.284672,-0.019043,-0.976577,0.004037,-0.020826,-0.014391,,,,,,,,,,,,,,,,,,,,,,,,,,,,,,,,,,,,,,,,,,,,,,,,,,,,,,,,,,,,,,,,,
35610,1648952882.838144,1648952882.843468,121.0,0.0,3838.974365,4813.333496,4331.282227000001,3727.179443,3746.6667479999996,450.0,3.0,73.0,,,,0.0,4.0,4.0,0.0,4.0,2.0,50.0,,,,,,,,,,,,,,,,,,,,,,,,,,,,,,,,,,,,,,,,,,,,,,,,,,,,,,0.0,0.0,32.0,0.055697,1.0,0.0,,,,,,,,,,,,,,,,,,,,,,,,,
35611,1648952882.845959,1648952882.851182,122.0,0.0,4007.6923829999996,4745.128418,4324.102539,3876.923096,4315.384765999999,450.0,3.0,73.0,,,,0.0,4.0,4.0,0.0,4.0,2.0,50.0,,,,,,,,61.0,0.0,0.776875,-0.08569299999999999,0.11792000000000001,0.612549,0.29443800000000003,-0.0058590000000000005,-0.95314,0.006368,-0.020745,-0.019349,,,,,,,,,,,,,,,,,,,,,,,,,,,,,,,,,,,,,,,,,,,,,,,,,,,,,,,,,,,,,,,,,
35612,1648952882.853773,1648952882.858897,123.0,0.0,4767.692383,4634.358886999999,4449.743652,4790.769043,5008.717772999999,305.0,3.0,73.0,,,,0.0,4.0,4.0,0.0,4.0,2.0,50.0,,,,,,,,,,,,,,,,,,,,,,,,,,,,,,,,,,,,,,,,,,,,,,,,,,,,,,,,,,,,,,,,,,,,,,,,,,,,,,,,,,,,
35613,1648952882.861588,1648952882.866711,124.0,0.0,4204.102539,4491.282227000001,4257.94873,4300.512695,4090.7692869999996,450.0,3.0,73.0,,,,0.0,4.0,4.0,0.0,4.0,2.0,50.0,,,,,,,,62.0,0.0,0.776875,-0.08569299999999999,0.11792000000000001,0.612549,0.300298,-0.018067,-0.980484,0.006903,-0.020624,-0.023859,,,,,,,,,,,,,,,,,,,,,,,,,,,,,,,,,,,,,,,,,,,,,,,,,,,,,,,,,,,,,,,,,
35614,1648952882.869403,1648952882.874426,125.0,0.0,4530.769043,4611.282227000001,4175.384765999999,4393.333496,4400.512695,450.0,3.0,73.0,,,,0.0,4.0,4.0,0.0,4.0,2.0,50.0,,,,,,,,,,,,,,,,,,,,,,,,,,,,,,,,,,,,,,,,,,,,,,,,,,,,,,0.0,0.0,32.0,0.055697,1.0,0.0,,,,,,,,,,,,,,,,,,,,,,,,,
35615,1648952882.877217,1648952882.88224,126.0,0.0,4221.025879,4713.846191,4066.1538090000004,4081.025635,4401.025879,450.0,3.0,73.0,,,,0.0,4.0,4.0,0.0,4.0,2.0,50.0,,,,,,,,63.0,0.0,0.7769020000000001,-0.085449,0.11792000000000001,0.612549,0.295903,-0.02002,-0.9707180000000001,0.007384,-0.020515000000000002,-0.027675,,,,,,,,,,,,,,,,,,,,,,,,,,,,,,,,,,,,,,,,,,,,,,,,,,,,,,,,,,,,,,,,,
35616,1648952882.885032,1648952882.889955,127.0,0.0,4199.487305,4780.0,3895.897461,4281.025879,4408.717772999999,238.0,3.0,73.0,,,,0.0,4.0,4.0,0.0,4.0,2.0,50.0,,,,,,,,,,,,,,,,,,,,,,,,,,,,,,,,,,,,,,,,,,,,,,,,,,,,,,,,,,,,,,,,,,,,,,,,,,,,,,,,,,,,
35617,1648952882.892846,1648952882.8976688,0.0,0.0,4520.0,4795.384765999999,4143.589844,4652.820313,4440.0,450.0,3.0,73.0,,,,0.0,4.0,4.0,0.0,4.0,2.0,50.0,,,,,,,,0.0,0.0,0.776875,-0.08569299999999999,0.11792000000000001,0.612549,0.298833,-0.014159999999999999,-0.981949,0.007867,-0.020465,-0.031157,,,,,,,,,,,,,,,,,,,,,,,,,,,,,,,,,,,,,,,,,,,,,,,,,,,,,,,,,,,,,,,,,
35618,1648952882.900661,1648952882.905484,1.0,0.0,4402.05127,4507.692383,4196.922852000001,4341.538574,4353.846191,450.0,3.0,73.0,,,,0.0,4.0,4.0,0.0,4.0,2.0,50.0,1.0,0.0,0.0,0.0,0.0,0.0,0.0,,,,,,,,,,,,,1.0,0.0,0.0,,,,,,,,,,,,,,,,,,,,,,,,,,,,,,,,0.0,0.0,32.0,0.060131,1.0,0.0,866.7219240000001,1309.893066,835.0224,1695.893677,3960.170898,5345.120117,580.89801,814.475281,351.71991,554.163757,547.4699099999999,491.29116799999997,310.710052,292.61080899999996,351.308746,1212.7404789999998,1234.897339,689.5802,1344.695923,3886.3154299999997,1433.170044,1226.725952,586.966492,1745.8730469999998,3809.640137
35619,1648952882.908475,1648952882.913199,2.0,0.0,4153.846191,4221.538574,3867.6923829999996,4010.256348,4356.410156,72.0,3.0,73.0,,,,0.0,1.0,4.0,0.0,4.0,2.0,25.0,,,,,,,,1.0,0.0,0.776838,-0.08569299999999999,0.118164,0.612549,0.298344,-0.011719,-0.973648,0.008251999999999999,-0.020372,-0.034487000000000004,,,,,,,,,,,,,,,,,,,,,,,,,,,,,,,,,,,,,,,,,,,,,,,,,,,,,,,,,,,,,,,,,
35620,1648952882.91629,1648952882.921013,3.0,0.0,4183.077147999999,4350.769043,3840.0,4240.0,4474.871582,450.0,3.0,73.0,,,,0.0,1.0,4.0,0.0,4.0,2.0,25.0,,,,,,,,,,,,,,,,,,,,,,,,,,,,,,,,,,,,,,,,,,,,,,,,,,,,,,,,,,,,,,,,,,,,,,,,,,,,,,,,,,,,
35621,1648952882.924104,1648952882.9287279,4.0,0.0,4618.974121,4590.256348,4148.205078,4738.974121,4764.615234000001,16332.0,3.0,73.0,,,,0.0,1.0,4.0,0.0,4.0,2.0,25.0,,,,,,,,2.0,0.0,0.7768010000000001,-0.08569299999999999,0.118408,0.612549,0.303227,-0.036622,-0.9243309999999999,0.006987,-0.020386,-0.040316000000000005,,,,,,,,,,,,,,,,,,,,,,,,,,,,,,,,,,,,,,,,,,,,,,,,,,,,,,,,,,,,,,,,,
35622,1648952882.9319189,1648952882.936543,5.0,0.0,4149.230957,4508.205078,4128.717772999999,4000.0,3991.281982,450.0,3.0,73.0,,,,0.0,1.0,4.0,0.0,4.0,2.0,25.0,,,,,,,,,,,,,,,,,,,,,,,,,,,,,,,,,,,,,,,,,,,,,,,,,,,,,,0.0,0.0,32.0,0.060131,1.0,0.0,,,,,,,,,,,,,,,,,,,,,,,,,
35623,1648952882.939733,1648952882.944357,6.0,0.0,4868.717772999999,4725.128418,4053.3332520000004,4603.077147999999,4725.641113000001,0.0,3.0,73.0,,,,0.0,1.0,4.0,0.0,4.0,2.0,25.0,,,,,,,,3.0,0.0,0.776838,-0.08569299999999999,0.118164,0.612549,0.295903,-0.030762,-0.953628,0.00746,-0.0203,-0.03311,,,,,,,,,,,,,,,,,,,,,,,,,,,,,,,,,,,,,,,,,,,,,,,,,,,,,,,,,,,,,,,,,
35624,1648952882.9475482,1648952882.9522722,7.0,0.0,4991.282227000001,5075.897461,4292.307617,4918.974121,5207.692383,450.0,3.0,73.0,,,,0.0,1.0,4.0,0.0,4.0,2.0,25.0,,,,,,,,,,,,,,,,,,,,,,,,,,,,,,,,,,,,,,,,,,,,,,,,,,,,,,,,,,,,,,,,,,,,,,,,,,,,,,,,,,,,
35625,1648952882.9553618,1648952882.959987,8.0,0.0,3643.076904,4884.615234000001,4215.897461,3381.538574,3706.6667479999996,450.0,3.0,73.0,,,,0.0,1.0,4.0,0.0,0.0,2.0,8.333333,,,,,,,,4.0,0.0,0.7768010000000001,-0.08569299999999999,0.118408,0.612549,0.298344,-0.020996,-0.9546040000000001,0.009448999999999999,-0.02037,-0.036147000000000006,,,,,,,,,,,,,,,,,,,,,,,,,,,,,,,,,,,,,,,,,,,,,,,,,,,,,,,,,,,,,,,,,
35626,1648952882.963177,1648952882.967801,9.0,0.0,3765.1281740000004,4716.922852000001,4183.589844,3324.615479,3608.718018,27.0,3.0,73.0,,,,0.0,1.0,4.0,0.0,0.0,2.0,8.333333,,,,,,,,,,,,,,,,,,,,,,,,,,,,,,,,,,,,,,,,,,,,,,,,,,,,,,0.0,0.0,32.0,0.060131,1.0,0.0,,,,,,,,,,,,,,,,,,,,,,,,,
35627,1648952882.9709911,1648952882.975516,10.0,0.0,4762.05127,4753.846191,4209.743652,4370.769043,4704.102539,450.0,3.0,73.0,,,,0.0,1.0,4.0,0.0,0.0,0.0,0.0,,,,,,,,5.0,0.0,0.7768010000000001,-0.08569299999999999,0.118408,0.612549,0.327153,-0.03125,-0.976089,0.009773,-0.020481,-0.029212000000000002,,,,,,,,,,,,,,,,,,,,,,,,,,,,,,,,,,,,,,,,,,,,,,,,,,,,,,,,,,,,,,,,,
35628,1648952882.978806,1648952882.983331,11.0,0.0,4832.307617,4637.94873,4271.794922,4702.05127,4836.922852000001,21.0,3.0,73.0,,,,0.0,1.0,4.0,0.0,0.0,0.0,0.0,,,,,,,,,,,,,,,,,,,,,,,,,,,,,,,,,,,,,,,,,,,,,,,,,,,,,,,,,,,,,,,,,,,,,,,,,,,,,,,,,,,,
35629,1648952882.9866211,1648952882.9910462,12.0,0.0,3502.0512700000004,4491.282227000001,4130.256348,3689.2307130000004,3603.076904,450.0,3.0,73.0,,,,0.0,1.0,4.0,0.0,0.0,0.0,0.0,,,,,,,,6.0,0.0,0.7767,-0.085938,0.118896,0.612549,0.29736799999999997,-0.008789,-0.9746239999999999,0.011433,-0.020435,-0.03259,,,,,,,,,,,,,,,,,,,,,,,,,,,,,,,,,,,,,,,,,,,,,,,,,,,,,,,,,,,,,,,,,
35630,1648952882.994435,1648952882.99886,13.0,0.0,4027.179443,4796.410156,4015.897461,3960.0,4080.0,450.0,3.0,73.0,,,,0.0,1.0,4.0,0.0,0.0,0.0,0.0,,,,,,,,,,,,,,,,,,,,,,,,,,,,,,,,,,,,,,,,,,,,,,,,,,,,,,0.0,0.0,32.0,0.060131,1.0,0.0,,,,,,,,,,,,,,,,,,,,,,,,,
35631,1648952883.00225,1648952883.006575,14.0,0.0,5333.333496,5046.153809,4140.512695,4996.410156,5053.846191,450.0,3.0,73.0,,,,0.0,1.0,4.0,0.0,0.0,0.0,0.0,,,,,,,,7.0,0.0,0.776737,-0.085938,0.118652,0.612549,0.289067,-0.011719,-0.995132,0.008385,-0.020394,-0.026108,,,,,,,,,,,,,,,,,,,,,,,,,,,,,,,,,,,,,,,,,,,,,,,,,,,,,,,,,,,,,,,,,
35632,1648952883.0100641,1648952883.01439,15.0,0.0,4761.538574,4741.538574,4321.025879,4726.666504,4297.94873,21.0,3.0,73.0,,,,0.0,1.0,4.0,0.0,0.0,0.0,0.0,,,,,,,,,,,,,,,,,,,,,,,,,,,,,,,,,,,,,,,,,,,,,,,,,,,,,,,,,,,,,,,,,,,,,,,,,,,,,,,,,,,,
35633,1648952883.017879,1648952883.022104,16.0,0.0,3828.718018,4488.205078,4302.563965,3869.2307130000004,3701.538574,0.0,3.0,73.0,,,,0.0,1.0,4.0,0.0,0.0,0.0,0.0,,,,,,,,8.0,0.0,0.776764,-0.08569299999999999,0.118652,0.612549,0.285649,-0.008789,-0.968765,0.008719,-0.020454,-0.029796,,,,,,,,,,,,,,,,,,,,,,,,,,,,,,,,,,,,,,,,,,,,,,,,,,,,,,,,,,,,,,,,,
35634,1648952883.025694,1648952883.030019,17.0,0.0,3982.5642090000006,4593.333496,4080.512939,3712.3076170000004,4318.974121,0.0,3.0,73.0,,,,0.0,1.0,4.0,0.0,0.0,0.0,0.0,,,,,,,,,,,,,,,,,,,,1.0,0.0,0.0,,,,,,,,,,,,,,,,,,,,,,,,,,,,,,,,0.0,0.0,32.0,0.059715,1.0,0.0,950.136108,1388.755005,648.147644,1678.135986,3872.006592,4684.388672,573.068848,672.092285,360.767334,530.462036,518.5936889999999,452.715942,263.93945299999996,269.123291,355.28326400000003,1314.627197,1410.849243,549.120422,1338.209839,3833.2143549999996,1324.259155,1350.100342,438.97161900000003,1672.619873,3748.209961
35635,1648952883.033508,1648952883.037834,18.0,0.0,4862.05127,4824.615234000001,4185.128418,4695.897461,5061.025879,0.0,3.0,73.0,,,,0.0,1.0,4.0,0.0,0.0,0.0,0.0,,,,,,,,9.0,0.0,0.7768010000000001,-0.08569299999999999,0.118408,0.612549,0.306645,-0.005371,-0.9873200000000001,0.008921,-0.020313,-0.020713,,,,,,,,,,,,,,,,,,,,,,,,,,,,,,,,,,,,,,,,,,,,,,,,,,,,,,,,,,,,,,,,,
35636,1648952883.041323,1648952883.045748,19.0,0.0,4278.461426,4682.05127,4299.487305,4326.153809,4061.025635,0.0,3.0,73.0,,,,0.0,1.0,4.0,0.0,0.0,0.0,0.0,,,,,,,,,,,,,,,,,,,,,,,,,,,,,,,,,,,,,,,,,,,,,,,,,,,,,,,,,,,,,,,,,,,,,,,,,,,,,,,,,,,,
35637,1648952883.0491369,1648952883.053563,20.0,0.0,4346.666504,4387.179688,4098.461426,4276.410156,4277.94873,0.0,3.0,73.0,,,,0.0,1.0,4.0,0.0,0.0,0.0,0.0,,,,,,,,10.0,0.0,0.776737,-0.085938,0.118652,0.612549,0.289067,-0.011719,-0.995132,0.00588,-0.020332,-0.015419,,,,,,,,,,,,,,,,,,,,,,,,,,,,,,,,,,,,,,,,,,,,,,,,,,,,,,,,,,,,,,,,,
35638,1648952883.056952,1648952883.061477,21.0,0.0,4386.153809,4398.461426,3997.4357909999994,4390.769043,4796.922852000001,0.0,3.0,73.0,,,,0.0,1.0,4.0,0.0,0.0,0.0,0.0,,,,,,,,,,,,,,,,,,,,,,,,,,,,,,,,,,,,,,,,,,,,,,,,,,,,,,0.0,0.0,32.0,0.059715,1.0,0.0,,,,,,,,,,,,,,,,,,,,,,,,,
35639,1648952883.064766,1648952883.069292,22.0,0.0,4293.333496,4685.641113000001,4147.179688,4284.102539,4412.307617,0.0,3.0,73.0,,,,0.0,1.0,4.0,0.0,0.0,0.0,0.0,,,,,,,,11.0,0.0,0.7768010000000001,-0.08569299999999999,0.118408,0.612549,0.306645,-0.005371,-0.9873200000000001,0.006367,-0.020203,-0.007773,,,,,,,,,,,,,,,,,,,,,,,,,,,,,,,,,,,,,,,,,,,,,,,,,,,,,,,,,,,,,,,,,
35640,1648952883.072581,1648952883.0772061,23.0,0.0,4726.153809,4781.538574,4257.436035,4598.974121,4406.153809,0.0,3.0,73.0,,,,0.0,1.0,4.0,0.0,0.0,0.0,0.0,,,,,,,,,,,,,,,,,,,,,,,,,,,,,,,,,,,,,,,,,,,,,,,,,,,,,,,,,,,,,,,,,,,,,,,,,,,,,,,,,,,,
35641,1648952883.080395,1648952883.085021,24.0,0.0,4234.358886999999,4442.563965,4099.487305,4184.102539,4231.282227000001,0.0,3.0,73.0,,,,0.0,1.0,4.0,0.0,0.0,0.0,0.0,,,,,,,,12.0,0.0,0.776838,-0.08569299999999999,0.118164,0.612549,0.29688000000000003,-0.008789,-0.988785,0.006951000000000001,-0.020234000000000002,-0.013393,,,,,,,,,,,,,,,,,,,,,,,,,,,,,,,,,,,,,,,,,,,,,,,,,,,,,,,,,,,,,,,,,
35642,1648952883.0882099,1648952883.092936,25.0,0.0,4409.743652,4409.230957,4069.743652,4516.410156,4789.743652,0.0,3.0,73.0,,,,0.0,1.0,4.0,0.0,0.0,0.0,0.0,,,,,,,,,,,,,,,,,,,,,,,,,,,,,,,,,,,,,,,,,,,,,,,,,,,,,,0.0,0.0,32.0,0.059715,1.0,0.0,,,,,,,,,,,,,,,,,,,,,,,,,
35643,1648952883.096024,1648952883.10075,26.0,0.0,4291.282227000001,4646.153809,4353.846191,4266.666504,4383.589844,0.0,3.0,73.0,,,,0.0,1.0,4.0,0.0,0.0,0.0,0.0,,,,,,,,13.0,0.0,0.7768010000000001,-0.08569299999999999,0.118408,0.612549,0.28809,-0.005371,-0.978042,0.004351,-0.020309999999999998,-0.008733,,,,,,,,,,,,,,,,,,,,,,,,,,,,,,,,,,,,,,,,,,,,,,,,,,,,,,,,,,,,,,,,,
35644,1648952883.1038392,1648952883.108465,27.0,0.0,4538.461426,4501.025879,4118.974121,4264.615234000001,4254.871582,0.0,3.0,73.0,,,,0.0,1.0,4.0,0.0,0.0,0.0,0.0,,,,,,,,,,,,,,,,,,,,,,,,,,,,,,,,,,,,,,,,,,,,,,,,,,,,,,,,,,,,,,,,,,,,,,,,,,,,,,,,,,,,
35645,1648952883.1116529,1648952883.11628,28.0,0.0,5485.128418,4243.077147999999,3656.923096,5251.282227000001,5572.820313,0.0,3.0,73.0,,,,0.0,1.0,4.0,0.0,0.0,0.0,0.0,,,,,,,,14.0,0.0,0.776764,-0.08569299999999999,0.118652,0.612549,0.321294,0.0058590000000000005,-1.054704,0.00499,-0.02033,-0.014159,,,,,,,,,,,,,,,,,,,,,,,,,,,,,,,,,,,,,,,,,,,,,,,,,,,,,,,,,,,,,,,,,
35646,1648952883.119468,1648952883.1239939,29.0,0.0,4429.743652,4331.794922,3821.025635,4106.153809,4772.307617,0.0,3.0,73.0,,,,0.0,1.0,4.0,0.0,0.0,0.0,0.0,,,,,,,,,,,,,,,,,,,,,,,,,,,,,,,,,,,,,,,,,,,,,,,,,,,,,,0.0,0.0,32.0,0.059715,1.0,0.0,,,,,,,,,,,,,,,,,,,,,,,,,
35647,1648952883.127283,1648952883.131809,30.0,0.0,3806.1538090000004,4693.333496,4428.717772999999,3427.179443,3934.8718259999996,0.0,3.0,73.0,,,,0.0,1.0,4.0,0.0,0.0,0.0,0.0,,,,,,,,15.0,0.0,0.7768010000000001,-0.08569299999999999,0.118408,0.612549,0.313481,-0.026368,-0.973159,0.005712,-0.020397,-0.019042,,,,,,,,,,,,,,,,,,,,,,,,,,,,,,,,,,,,,,,,,,,,,,,,,,,,,,,,,,,,,,,,,
35648,1648952883.135097,1648952883.139524,31.0,0.0,4355.897461,4808.717772999999,4387.179688,4096.410156,4298.974121,0.0,3.0,73.0,,,,0.0,1.0,4.0,0.0,0.0,0.0,0.0,,,,,,,,,,,,,,,,,,,,,,,,,,,,,,,,,,,,,,,,,,,,,,,,,,,,,,,,,,,,,,,,,,,,,,,,,,,,,,,,,,,,
35649,1648952883.142912,1648952883.1473382,32.0,0.0,4737.94873,4668.205078,3995.897461,4610.769043,4651.282227000001,0.0,3.0,73.0,,,,0.0,1.0,4.0,0.0,0.0,0.0,0.0,,,,,,,,16.0,0.0,0.7769020000000001,-0.085449,0.11792000000000001,0.612549,0.294926,-0.02002,-0.969741,0.003139,-0.020457,-0.023436000000000002,,,,,,,,,,,,,,,,,,,,,,,,,,,,,,,,,,,,,,,,,,,,,,,,,,,,,,,,,,,,,,,,,
35650,1648952883.150726,1648952883.155053,33.0,0.0,3714.358887,4543.077147999999,4038.461426,3690.7692869999996,3664.102539,0.0,3.0,73.0,,,,0.0,1.0,4.0,0.0,0.0,0.0,0.0,,,,,,,,,,,,,,,,,,,,1.0,0.0,0.0,,,,,,,,,,,,,,,,,,,,,,,,,,,,,,,,0.0,0.0,32.0,0.067691,1.0,0.0,1044.385498,1404.133301,497.495392,1623.514771,3686.090332,3741.347168,556.165039,512.1062009999999,359.722687,511.381622,480.24169900000004,417.433716,220.551178,255.35134900000003,354.802277,1381.451904,1477.010742,449.86367800000005,1327.623413,3703.642822,1258.883789,1380.909668,305.065704,1599.643799,3583.139404
35651,1648952883.158541,1648952883.162868,34.0,0.0,4201.538574,4688.205078,4135.384765999999,4174.871582,4196.410156,0.0,3.0,73.0,,,,0.0,1.0,4.0,0.0,0.0,0.0,0.0,,,,,,,,17.0,0.0,0.7769020000000001,-0.085449,0.11792000000000001,0.612549,0.301762,-0.023926,-0.972671,0.002581,-0.020559,-0.027392000000000003,,,,,,,,,,,,,,,,,,,,,,,,,,,,,,,,,,,,,,,,,,,,,,,,,,,,,,,,,,,,,,,,,
35652,1648952883.1663551,1648952883.170583,35.0,0.0,4465.128418,4795.384765999999,4098.974121,4345.128418,4538.461426,0.0,3.0,73.0,,,,0.0,1.0,4.0,0.0,0.0,0.0,0.0,,,,,,,,,,,,,,,,,,,,,,,,,,,,,,,,,,,,,,,,,,,,,,,,,,,,,,,,,,,,,,,,,,,,,,,,,,,,,,,,,,,,
35653,1648952883.17417,1648952883.1783972,36.0,0.0,3904.615479,4731.282227000001,4124.615234000001,3641.538574,3834.8718259999996,0.0,3.0,73.0,,,,0.0,1.0,4.0,0.0,0.0,0.0,0.0,,,,,,,,18.0,0.0,0.7769020000000001,-0.085449,0.11792000000000001,0.612549,0.285161,-0.001953,-0.928725,0.00496,-0.020554,-0.031049,,,,,,,,,,,,,,,,,,,,,,,,,,,,,,,,,,,,,,,,,,,,,,,,,,,,,,,,,,,,,,,,,
35654,1648952883.181985,1648952883.186112,37.0,0.0,5004.102539,4761.538574,4449.743652,5084.615234000001,4951.282227000001,0.0,3.0,73.0,,,,0.0,1.0,4.0,0.0,0.0,0.0,0.0,,,,,,,,,,,,,,,,,,,,,,,,,,,,,,,,,,,,,,,,,,,,,,,,,,,,,,0.0,0.0,32.0,0.067691,1.0,0.0,,,,,,,,,,,,,,,,,,,,,,,,,
35655,1648952883.189799,1648952883.194027,38.0,0.0,4282.563965,4779.487305,4759.487305,4726.666504,4427.692383,0.0,3.0,73.0,,,,0.0,1.0,4.0,0.0,0.0,0.0,0.0,,,,,,,,19.0,0.0,0.776828,-0.085449,0.118408,0.612549,0.292485,-0.021485,-0.991226,0.007148999999999999,-0.020597999999999998,-0.034292,,,,,,,,,,,,,,,,,,,,,,,,,,,,,,,,,,,,,,,,,,,,,,,,,,,,,,,,,,,,,,,,,
35656,1648952883.197614,1648952883.201841,39.0,0.0,2933.846191,4582.05127,4495.384765999999,2982.564209,3053.333252,0.0,3.0,73.0,,,,0.0,1.0,4.0,0.0,0.0,0.0,0.0,,,,,,,,,,,,,,,,,,,,,,,,,,,,,,,,,,,,,,,,,,,,,,,,,,,,,,,,,,,,,,,,,,,,,,,,,,,,,,,,,,,,
35657,1648952883.205428,1648952883.2097561,40.0,0.0,3786.1538090000004,4278.974121,4080.0,3493.8461909999996,3803.5898439999996,0.0,3.0,73.0,,,,0.0,1.0,4.0,0.0,0.0,0.0,0.0,,,,,,,,20.0,0.0,0.7768010000000001,-0.08569299999999999,0.118408,0.612549,0.300298,-0.014159999999999999,-0.9643700000000001,0.0075569999999999995,-0.020541,-0.037259,,,,,,,,,,,,,,,,,,,,,,,,,,,,,,,,,,,,,,,,,,,,,,,,,,,,,,,,,,,,,,,,,
35658,1648952883.213243,1648952883.2175698,41.0,0.0,4808.717772999999,4225.641113000001,4132.307617,5084.615234000001,4922.05127,0.0,3.0,73.0,,,,0.0,1.0,4.0,0.0,0.0,0.0,0.0,,,,,,,,,,,,,,,,,,,,,,,,,,,,,,,,,,,,,,,,,,,,,,,,,,,,,,0.0,0.0,32.0,0.067691,1.0,0.0,,,,,,,,,,,,,,,,,,,,,,,,,
35659,1648952883.221057,1648952883.2254848,42.0,0.0,4298.461426,4596.410156,4371.794922,4977.436035,4449.230957,0.0,3.0,73.0,,,,0.0,1.0,4.0,0.0,0.0,0.0,0.0,,,,,,,,21.0,0.0,0.7768649999999999,-0.085449,0.118164,0.612549,0.294926,-0.015625,-0.968277,0.008022,-0.020537,-0.039784,,,,,,,,,,,,,,,,,,,,,,,,,,,,,,,,,,,,,,,,,,,,,,,,,,,,,,,,,,,,,,,,,
35660,1648952883.228872,1648952883.2333,43.0,0.0,4032.820557,4788.205078,4294.871582,3937.9487299999996,3898.974365,0.0,3.0,73.0,,,,0.0,1.0,4.0,0.0,0.0,0.0,0.0,,,,,,,,,,,,,,,,,,,,,,,,,,,,,,,,,,,,,,,,,,,,,,,,,,,,,,,,,,,,,,,,,,,,,,,,,,,,,,,,,,,,
35661,1648952883.236686,1648952883.241214,44.0,0.0,4868.205078,4465.641113000001,4252.820313,4389.743652,4789.230957,0.0,3.0,73.0,,,,0.0,1.0,4.0,0.0,0.0,0.0,0.0,,,,,,,,22.0,0.0,0.7768649999999999,-0.085449,0.118164,0.612549,0.29639099999999996,-0.021973,-0.9790190000000001,0.010052,-0.020486,-0.042055,,,,,,,,,,,,,,,,,,,,,,,,,,,,,,,,,,,,,,,,,,,,,,,,,,,,,,,,,,,,,,,,,
35662,1648952883.2445009,1648952883.249029,45.0,0.0,4190.256348,4278.974121,4316.922852000001,4259.487305,4372.307617,0.0,3.0,73.0,,,,0.0,1.0,4.0,0.0,0.0,0.0,0.0,,,,,,,,,,,,,,,,,,,,,,,,,,,,,,,,,,,,,,,,,,,,,,,,,,,,,,0.0,0.0,32.0,0.067691,1.0,0.0,,,,,,,,,,,,,,,,,,,,,,,,,
35663,1648952883.252315,1648952883.2568429,46.0,0.0,4338.974121,4687.692383,4246.666504,4726.153809,4485.128418,0.0,3.0,73.0,,,,0.0,1.0,4.0,0.0,0.0,0.0,0.0,,,,,,,,23.0,0.0,0.776828,-0.085449,0.118408,0.612549,0.301762,-0.008301000000000001,-0.9858549999999999,0.010121,-0.020537,-0.044149,,,,,,,,,,,,,,,,,,,,,,,,,,,,,,,,,,,,,,,,,,,,,,,,,,,,,,,,,,,,,,,,,
35664,1648952883.2601302,1648952883.264558,47.0,0.0,4325.641113000001,4868.717772999999,4353.846191,4338.461426,4421.538574,0.0,3.0,73.0,,,,0.0,1.0,4.0,0.0,0.0,0.0,0.0,,,,,,,,,,,,,,,,,,,,,,,,,,,,,,,,,,,,,,,,,,,,,,,,,,,,,,,,,,,,,,,,,,,,,,,,,,,,,,,,,,,,
35665,1648952883.2679439,1648952883.2724721,48.0,0.0,4123.077147999999,4509.230957,4324.615234000001,3639.487061,4178.974121,0.0,3.0,73.0,,,,0.0,1.0,4.0,0.0,0.0,0.0,0.0,,,,,,,,24.0,0.0,0.7767270000000001,-0.08569299999999999,0.118896,0.612549,0.288579,-0.009276999999999999,-0.987808,0.007107,-0.020583,-0.036413,,,,,,,,,,,,,,,,,,,,,,,,,,,,,,,,,,,,,,,,,,,,,,,,,,,,,,,,,,,,,,,,,
35666,1648952883.275759,1648952883.280287,49.0,0.0,5170.769043,4422.05127,4243.077147999999,5070.769043,5262.563965,0.0,3.0,73.0,,,,0.0,1.0,4.0,0.0,0.0,0.0,0.0,,,,,,,,,,,,,,,,,,,,1.0,0.0,0.0,,,,,,,,,,,,,,,,,,,,,,,,,,,,,,,,0.0,0.0,32.0,0.06375800000000001,1.0,0.0,1123.142822,1357.096313,426.413483,1554.321533,3439.24585,2709.153076,522.946106,373.39068599999996,349.48605299999997,486.067413,442.89608799999996,398.856903,184.42598,245.78053300000002,342.941559,1379.404419,1421.366211,431.93286100000006,1331.796143,3522.571777,1227.448975,1315.564697,207.52835100000001,1532.560181,3350.860352
35667,1648952883.283574,1648952883.288002,50.0,0.0,4083.5898439999996,4663.589844,4404.615234000001,4441.025879,4226.153809,0.0,3.0,73.0,,,,0.0,1.0,4.0,0.0,0.0,0.0,0.0,,,,,,,,25.0,0.0,0.7767270000000001,-0.08569299999999999,0.118896,0.612549,0.300298,-0.008301000000000001,-0.9897610000000001,0.007666,-0.020624,-0.039169,,,,,,,,,,,,,,,,,,,,,,,,,,,,,,,,,,,,,,,,,,,,,,,,,,,,,,,,,,,,,,,,,
35668,1648952883.291388,1648952883.295816,51.0,0.0,3378.974365,4844.102539,4574.871582,3315.897461,3332.820557,0.0,3.0,73.0,,,,0.0,1.0,4.0,0.0,0.0,0.0,0.0,,,,,,,,,,,,,,,,,,,,,,,,,,,,,,,,,,,,,,,,,,,,,,,,,,,,,,,,,,,,,,,,,,,,,,,,,,,,,,,,,,,,
35669,1648952883.299203,1648952883.3035312,52.0,0.0,4382.05127,4772.307617,4548.205078,4065.641113,4152.307617,0.0,3.0,73.0,,,,0.0,1.0,4.0,0.0,0.0,0.0,0.0,,,,,,,,26.0,0.0,0.776753,-0.085449,0.118896,0.612549,0.301274,-0.016602000000000002,-0.960464,0.007974,-0.020661000000000002,-0.041551,,,,,,,,,,,,,,,,,,,,,,,,,,,,,,,,,,,,,,,,,,,,,,,,,,,,,,,,,,,,,,,,,
35670,1648952883.307017,1648952883.311346,53.0,0.0,4904.615234000001,4635.897461,4322.563965,4887.179688,4748.205078,0.0,3.0,73.0,,,,0.0,1.0,4.0,0.0,0.0,0.0,0.0,,,,,,,,,,,,,,,,,,,,,,,,,,,,,,,,,,,,,,,,,,,,,,,,,,,,,,0.0,0.0,32.0,0.06375800000000001,1.0,0.0,,,,,,,,,,,,,,,,,,,,,,,,,
35671,1648952883.314832,1648952883.319061,54.0,0.0,3902.5642090000006,4655.384765999999,4250.769043,3847.179443,3844.615479,0.0,3.0,73.0,,,,0.0,1.0,4.0,0.0,0.0,0.0,0.0,,,,,,,,27.0,0.0,0.776791,-0.085449,0.118652,0.612549,0.298344,-0.028808999999999998,-0.968765,0.008445999999999999,-0.020597,-0.043695,,,,,,,,,,,,,,,,,,,,,,,,,,,,,,,,,,,,,,,,,,,,,,,,,,,,,,,,,,,,,,,,,
35672,1648952883.3226461,1648952883.326975,55.0,0.0,4027.179443,4823.077147999999,4200.0,3676.4101560000004,3817.4357909999994,0.0,3.0,73.0,,,,0.0,1.0,4.0,0.0,0.0,0.0,0.0,,,,,,,,,,,,,,,,,,,,,,,,,,,,,,,,,,,,,,,,,,,,,,,,,,,,,,,,,,,,,,,,,,,,,,,,,,,,,,,,,,,,
