,Timestamp,OriginalTimestamp,EEG.Counter,EEG.Interpolated,EEG.AF3,EEG.T7,EEG.Pz,EEG.T8,EEG.AF4,EEG.RawCq,EEG.Battery,EEG.BatteryPercent,MarkerIndex,MarkerType,MarkerValueInt,EEG.MarkerHardware,CQ.AF3,CQ.T7,CQ.Pz,CQ.T8,CQ.AF4,CQ.Overall,EQ.SampleRateQuality,EQ.OVERALL,EQ.AF3,EQ.T7,EQ.Pz,EQ.T8,EQ.AF4,MOT.CounterMems,MOT.InterpolatedMems,MOT.Q0,MOT.Q1,MOT.Q2,MOT.Q3,MOT.AccX,MOT.AccY,MOT.AccZ,MOT.MagX,MOT.MagY,MOT.MagZ,MC.Action,MC.ActionPower,MC.IsActive,PM.Engagement.IsActive,PM.Engagement.Scaled,PM.Engagement.Raw,PM.Engagement.Min,PM.Engagement.Max,PM.Excitement.IsActive,PM.Excitement.Scaled,PM.Excitement.Raw,PM.Excitement.Min,PM.Excitement.Max,PM.LongTermExcitement,PM.Stress.IsActive,PM.Stress.Scaled,PM.Stress.Raw,PM.Stress.Min,PM.Stress.Max,PM.Relaxation.IsActive,PM.Relaxation.Scaled,PM.Relaxation.Raw,PM.Relaxation.Min,PM.Relaxation.Max,PM.Interest.IsActive,PM.Interest.Scaled,PM.Interest.Raw,PM.Interest.Min,PM.Interest.Max,PM.Focus.IsActive,PM.Focus.Scaled,PM.Focus.Raw,PM.Focus.Min,PM.Focus.Max,FE.BlinkWink,FE.HorizontalEyesDirection,FE.UpperFaceAction,FE.UpperFaceActionPower,FE.LowerFaceAction,FE.LowerFaceActionPower,POW.AF3.Theta,POW.AF3.Alpha,POW.AF3.BetaL,POW.AF3.BetaH,POW.AF3.Gamma,POW.T7.Theta,POW.T7.Alpha,POW.T7.BetaL,POW.T7.BetaH,POW.T7.Gamma,POW.Pz.Theta,POW.Pz.Alpha,POW.Pz.BetaL,POW.Pz.BetaH,POW.Pz.Gamma,POW.T8.Theta,POW.T8.Alpha,POW.T8.BetaL,POW.T8.BetaH,POW.T8.Gamma,POW.AF4.Theta,POW.AF4.Alpha,POW.AF4.BetaL,POW.AF4.BetaH,POW.AF4.Gamma
20347,1648952763.564667,1648952763.576648,90.0,0.0,4597.94873,4761.025879,4121.538574,4359.487305,4377.94873,450.0,3.0,73.0,,,,0.0,0.0,0.0,0.0,1.0,1.0,0.0,,,,,,,,45.0,0.0,0.850211,-0.06665,0.123779,0.507324,0.284672,-0.006836,-0.988296,0.010343999999999999,-0.025221,-0.022728,,,,,,,,,,,,,,,,,,,,,,,,,,,,,,,,,,,,,,,,,,,,,,,,,,,,,,,,,,,,,,,,,
20348,1648952763.5724812,1648952763.584564,91.0,0.0,4212.820313,4830.769043,4191.282227000001,4072.3076170000004,4175.897461,66.0,3.0,73.0,,,,0.0,0.0,0.0,0.0,1.0,1.0,0.0,,,,,,,,,,,,,,,,,,,,,,,,,,,,,,,,,,,,,,,,,,,,,,,,,,,,,,,,,,,,,,,,,,,,,,,,,,,,,,,,,,,,
20349,1648952763.580296,1648952763.592479,92.0,0.0,4246.153809,4917.94873,4088.718018,4270.256348,4390.769043,450.0,3.0,73.0,,,,0.0,0.0,0.0,0.0,1.0,1.0,0.0,,,,,,,,46.0,0.0,0.850211,-0.06665,0.123779,0.507324,0.29736799999999997,-0.013672,-0.98146,0.010725,-0.025189,-0.026755,,,,,,,,,,,,,,,,,,,,,,,,,,,,,,,,,,,,,,,,,,,,,,,,,,,,,,,,,,,,,,,,,
20350,1648952763.58811,1648952763.6002948,93.0,0.0,4566.153809,4809.743652,4287.692383,4597.436035,4416.410156,450.0,3.0,73.0,,,,0.0,0.0,0.0,0.0,1.0,1.0,0.0,,,,,,,,,,,,,,,,,,,,,,,,,,,,,,,,,,,,,,,,,,,,,,,,,,,,,,0.0,0.0,32.0,0.10613900000000001,1.0,0.0,,,,,,,,,,,,,,,,,,,,,,,,,
20351,1648952763.595925,1648952763.6082098,94.0,0.0,4360.512695,4803.589844,4537.436035,4374.358886999999,4102.05127,450.0,3.0,73.0,,,,0.0,0.0,0.0,0.0,1.0,1.0,0.0,,,,,,,,47.0,0.0,0.850211,-0.06665,0.123779,0.507324,0.283696,-0.012206999999999999,-0.991226,0.01102,-0.025112,-0.017975,,,,,,,,,,,,,,,,,,,,,,,,,,,,,,,,,,,,,,,,,,,,,,,,,,,,,,,,,,,,,,,,,
20352,1648952763.603739,1648952763.616026,95.0,0.0,4125.128418,4893.846191,4412.307617,4143.077147999999,4224.102539,66.0,3.0,73.0,,,,0.0,0.0,0.0,0.0,1.0,1.0,0.0,,,,,,,,,,,,,,,,,,,,,,,,,,,,,,,,,,,,,,,,,,,,,,,,,,,,,,,,,,,,,,,,,,,,,,,,,,,,,,,,,,,,
20353,1648952763.611554,1648952763.623941,96.0,0.0,4382.563965,4758.461426,4128.717772999999,4368.717772999999,4523.589844,450.0,3.0,73.0,,,,0.0,0.0,0.0,0.0,1.0,1.0,0.0,,,,,,,,48.0,0.0,0.850211,-0.06665,0.123779,0.507324,0.292485,-0.028321,-0.9799950000000001,0.011432,-0.02514,-0.022574,,,,,,,,,,,,,,,,,,,,,,,,,,,,,,,,,,,,,,,,,,,,,,,,,,,,,,,,,,,,,,,,,
20354,1648952763.619369,1648952763.631757,97.0,0.0,4455.897461,4750.769043,4106.153809,4409.230957,4424.615234000001,450.0,3.0,73.0,,,,0.0,0.0,0.0,0.0,1.0,1.0,0.0,,,,,,,,,,,,,,,,,,,,1.0,0.0,0.0,,,,,,,,,,,,,,,,,,,,,,,,,,,,,,,,0.0,0.0,32.0,0.09496,1.0,0.0,28.592292999999998,36.730038,67.48696899999999,101.715462,309.864929,77.261658,135.528381,47.739983,47.361247999999996,68.816826,109.441681,289.091583,586.300598,92.015556,93.317047,103.110237,95.45614599999999,233.869125,95.271416,334.143097,37.350468,73.428719,103.183212,41.61562,258.114502
20355,1648952763.627183,1648952763.639672,98.0,0.0,4197.436035,4926.666504,4243.077147999999,4151.282227000001,4375.897461,450.0,3.0,73.0,,,,0.0,0.0,0.0,0.0,1.0,1.0,0.0,,,,,,,,49.0,0.0,0.8502299999999999,-0.06640599999999999,0.123779,0.507324,0.291508,-0.007324,-0.984878,0.008628,-0.025214,-0.029643,,,,,,,,,,,,,,,,,,,,,,,,,,,,,,,,,,,,,,,,,,,,,,,,,,,,,,,,,,,,,,,,,
20356,1648952763.634998,1648952763.647488,99.0,0.0,4414.358886999999,4860.512695,4122.05127,4298.974121,4560.0,66.0,3.0,73.0,,,,0.0,0.0,0.0,0.0,1.0,1.0,0.0,,,,,,,,,,,,,,,,,,,,,,,,,,,,,,,,,,,,,,,,,,,,,,,,,,,,,,,,,,,,,,,,,,,,,,,,,,,,,,,,,,,,
20357,1648952763.642812,1648952763.655403,100.0,0.0,4649.743652,4714.871582,3991.281982,4402.05127,4396.922852000001,450.0,3.0,73.0,,,,0.0,0.0,0.0,0.0,1.0,1.0,0.0,,,,,,,,50.0,0.0,0.850211,-0.06665,0.123779,0.507324,0.292973,-0.022461000000000002,-0.9858549999999999,0.007619,-0.025329,-0.023456,,,,,,,,,,,,,,,,,,,,,,,,,,,,,,,,,,,,,,,,,,,,,,,,,,,,,,,,,,,,,,,,,
20358,1648952763.650627,1648952763.663219,101.0,0.0,4312.820313,4758.461426,4144.615234000001,4158.974121,4242.563965,450.0,3.0,73.0,,,,0.0,0.0,0.0,0.0,1.0,1.0,0.0,,,,,,,,,,,,,,,,,,,,,,,,,,,,,,,,,,,,,,,,,,,,,,,,,,,,,,0.0,0.0,32.0,0.09496,1.0,0.0,,,,,,,,,,,,,,,,,,,,,,,,,
20359,1648952763.658441,1648952763.671135,102.0,0.0,4217.94873,4906.666504,4190.256348,4226.153809,4433.333496,450.0,3.0,73.0,,,,0.0,0.0,0.0,0.0,1.0,1.0,0.0,,,,,,,,51.0,0.0,0.850211,-0.06665,0.123779,0.507324,0.301274,-0.015137000000000001,-0.98146,0.006515000000000001,-0.025335,-0.027556,,,,,,,,,,,,,,,,,,,,,,,,,,,,,,,,,,,,,,,,,,,,,,,,,,,,,,,,,,,,,,,,,
20360,1648952763.666256,1648952763.67895,103.0,0.0,4616.410156,4988.717772999999,4084.102539,4492.820313,4418.974121,66.0,3.0,73.0,,,,0.0,0.0,0.0,0.0,1.0,1.0,0.0,,,,,,,,,,,,,,,,,,,,,,,,,,,,,,,,,,,,,,,,,,,,,,,,,,,,,,,,,,,,,,,,,,,,,,,,,,,,,,,,,,,,
20361,1648952763.67407,1648952763.686866,104.0,0.0,4417.94873,4914.358886999999,4199.487305,4284.102539,4158.461426,450.0,3.0,73.0,,,,0.0,0.0,0.0,0.0,1.0,1.0,0.0,,,,,,,,52.0,0.0,0.850211,-0.06665,0.123779,0.507324,0.292973,-0.02002,-0.980972,0.008695999999999999,-0.025341,-0.031197000000000003,,,,,,,,,,,,,,,,,,,,,,,,,,,,,,,,,,,,,,,,,,,,,,,,,,,,,,,,,,,,,,,,,
20362,1648952763.681885,1648952763.694781,105.0,0.0,4039.487061,4812.307617,4142.563965,4276.410156,4351.282227000001,450.0,3.0,73.0,,,,0.0,0.0,0.0,0.0,1.0,1.0,0.0,,,,,,,,,,,,,,,,,,,,,,,,,,,,,,,,,,,,,,,,,,,,,,,,,,,,,,0.0,0.0,32.0,0.09496,1.0,0.0,,,,,,,,,,,,,,,,,,,,,,,,,
20363,1648952763.6897,1648952763.7025971,106.0,0.0,4379.487305,4775.384765999999,4004.102539,4568.717772999999,4511.282227000001,450.0,3.0,73.0,,,,0.0,0.0,0.0,0.0,1.0,1.0,0.0,,,,,,,,53.0,0.0,0.850211,-0.06665,0.123779,0.507324,0.304692,-0.009276999999999999,-0.98146,0.009145,-0.025297,-0.034474,,,,,,,,,,,,,,,,,,,,,,,,,,,,,,,,,,,,,,,,,,,,,,,,,,,,,,,,,,,,,,,,,
20364,1648952763.697514,1648952763.710513,107.0,0.0,4564.102539,4801.025879,4007.6923829999996,4370.769043,4234.358886999999,66.0,3.0,73.0,,,,0.0,0.0,0.0,0.0,1.0,1.0,0.0,,,,,,,,,,,,,,,,,,,,,,,,,,,,,,,,,,,,,,,,,,,,,,,,,,,,,,,,,,,,,,,,,,,,,,,,,,,,,,,,,,,,
20365,1648952763.705329,1648952763.718329,108.0,0.0,4180.0,4929.230957,4052.3076170000004,3993.8461909999996,4319.487305,450.0,3.0,73.0,,,,0.0,0.0,0.0,0.0,1.0,1.0,0.0,,,,,,,,54.0,0.0,0.850266,-0.06640599999999999,0.12353499999999999,0.507324,0.305669,-0.013184,-0.975601,0.006375,-0.025404,-0.027804000000000002,,,,,,,,,,,,,,,,,,,,,,,,,,,,,,,,,,,,,,,,,,,,,,,,,,,,,,,,,,,,,,,,,
20366,1648952763.7131429,1648952763.726145,109.0,0.0,4233.846191,4886.666504,4142.563965,4247.179688,4723.589844,450.0,3.0,73.0,,,,0.0,0.0,0.0,0.0,1.0,1.0,0.0,,,,,,,,,,,,,,,,,,,,,,,,,,,,,,,,,,,,,,,,,,,,,,,,,,,,,,0.0,0.0,32.0,0.09496,1.0,0.0,,,,,,,,,,,,,,,,,,,,,,,,,
20367,1648952763.720958,1648952763.73406,110.0,0.0,4560.0,4754.358886999999,4206.153809,4538.461426,4507.179688,450.0,3.0,73.0,,,,0.0,0.0,0.0,0.0,1.0,1.0,0.0,,,,,,,,55.0,0.0,0.8502299999999999,-0.06640599999999999,0.123779,0.507324,0.294926,-0.01709,-0.988785,0.008814,-0.0255,-0.031469,,,,,,,,,,,,,,,,,,,,,,,,,,,,,,,,,,,,,,,,,,,,,,,,,,,,,,,,,,,,,,,,,
20368,1648952763.7287722,1648952763.741976,111.0,0.0,4452.820313,4885.641113000001,4296.410156,4204.102539,4110.769043,66.0,3.0,73.0,,,,0.0,0.0,0.0,0.0,1.0,1.0,0.0,,,,,,,,,,,,,,,,,,,,,,,,,,,,,,,,,,,,,,,,,,,,,,,,,,,,,,,,,,,,,,,,,,,,,,,,,,,,,,,,,,,,
20369,1648952763.7365868,1648952763.749792,112.0,0.0,4243.589844,4858.461426,4480.0,4111.794922,4378.461426,450.0,3.0,73.0,,,,0.0,0.0,0.0,0.0,1.0,1.0,0.0,,,,,,,,56.0,0.0,0.8502299999999999,-0.06640599999999999,0.123779,0.507324,0.299809,-0.007812999999999999,-0.977554,0.010862,-0.025488999999999998,-0.034865,,,,,,,,,,,,,,,,,,,,,,,,,,,,,,,,,,,,,,,,,,,,,,,,,,,,,,,,,,,,,,,,,
20370,1648952763.744401,1648952763.757608,113.0,0.0,4332.820313,4645.128418,4360.0,4558.461426,4594.358886999999,450.0,3.0,73.0,,,,0.0,0.0,0.0,0.0,1.0,1.0,0.0,,,,,,,,,,,,,,,,,,,,1.0,0.0,0.0,,,,,,,,,,,,,,,,,,,,,,,,,,,,,,,,0.0,0.0,32.0,0.102923,1.0,0.0,36.632385,31.871090000000002,80.617584,89.066498,335.902893,83.791214,102.41328399999999,51.971363000000004,46.762669,76.203941,114.616051,224.22770699999998,615.39032,86.629021,88.651764,125.378555,97.876793,247.211594,101.812157,336.880219,43.031788,71.68776700000001,118.786819,44.664577,255.75882000000001
20371,1648952763.752216,1648952763.765523,114.0,0.0,4371.282227000001,4740.512695,4118.461426,4540.512695,4358.974121,450.0,3.0,73.0,,,,0.0,0.0,0.0,0.0,1.0,1.0,0.0,,,,,,,,57.0,0.0,0.8502299999999999,-0.06640599999999999,0.123779,0.507324,0.290532,-0.013672,-0.98439,0.011192,-0.025431,-0.037775,,,,,,,,,,,,,,,,,,,,,,,,,,,,,,,,,,,,,,,,,,,,,,,,,,,,,,,,,,,,,,,,,
20372,1648952763.76003,1648952763.7734392,115.0,0.0,4191.282227000001,4898.974121,4176.922852000001,4087.179443,4402.563965,66.0,3.0,73.0,,,,0.0,0.0,0.0,0.0,1.0,1.0,0.0,,,,,,,,,,,,,,,,,,,,,,,,,,,,,,,,,,,,,,,,,,,,,,,,,,,,,,,,,,,,,,,,,,,,,,,,,,,,,,,,,,,,
20373,1648952763.767845,1648952763.781255,116.0,0.0,4412.820313,4858.974121,4156.922852000001,4191.794922,4614.358886999999,450.0,3.0,73.0,,,,0.0,0.0,0.0,0.0,1.0,1.0,0.0,,,,,,,,58.0,0.0,0.8502299999999999,-0.06640599999999999,0.123779,0.507324,0.294926,-0.01709,-0.988785,0.008315000000000001,-0.025329,-0.030775,,,,,,,,,,,,,,,,,,,,,,,,,,,,,,,,,,,,,,,,,,,,,,,,,,,,,,,,,,,,,,,,,
20374,1648952763.77566,1648952763.78917,117.0,0.0,4626.153809,4742.563965,3985.1281740000004,4391.282227000001,4377.436035,450.0,3.0,73.0,,,,0.0,0.0,0.0,0.0,1.0,1.0,0.0,,,,,,,,,,,,,,,,,,,,,,,,,,,,,,,,,,,,,,,,,,,,,,,,,,,,,,0.0,0.0,32.0,0.102923,1.0,0.0,,,,,,,,,,,,,,,,,,,,,,,,,
20375,1648952763.783474,1648952763.7969859,118.0,0.0,4312.307617,4683.077147999999,4080.512939,4149.230957,4244.615234000001,450.0,3.0,73.0,,,,0.0,0.0,0.0,0.0,1.0,1.0,0.0,,,,,,,,59.0,0.0,0.8502299999999999,-0.06640599999999999,0.123779,0.507324,0.290532,-0.013672,-0.98439,0.008898999999999999,-0.025287,-0.034094,,,,,,,,,,,,,,,,,,,,,,,,,,,,,,,,,,,,,,,,,,,,,,,,,,,,,,,,,,,,,,,,,
20376,1648952763.791289,1648952763.8049018,119.0,0.0,4230.256348,4810.256348,4200.0,4141.538574,4427.692383,66.0,3.0,73.0,,,,0.0,0.0,0.0,0.0,1.0,1.0,0.0,,,,,,,,,,,,,,,,,,,,,,,,,,,,,,,,,,,,,,,,,,,,,,,,,,,,,,,,,,,,,,,,,,,,,,,,,,,,,,,,,,,,
20377,1648952763.799103,1648952763.812717,120.0,0.0,4608.205078,4950.256348,4073.8461909999996,4443.077147999999,4417.436035,450.0,3.0,73.0,,,,0.0,0.0,0.0,0.0,1.0,1.0,0.0,,,,,,,,60.0,0.0,0.8502299999999999,-0.06640599999999999,0.123779,0.507324,0.293462,-0.020508000000000002,-0.973159,0.0063,-0.025248,-0.027511,,,,,,,,,,,,,,,,,,,,,,,,,,,,,,,,,,,,,,,,,,,,,,,,,,,,,,,,,,,,,,,,,
20378,1648952763.806918,1648952763.820633,121.0,0.0,4473.846191,4901.538574,4168.717772999999,4304.102539,4170.256348,450.0,3.0,73.0,,,,0.0,0.0,0.0,0.0,1.0,1.0,0.0,,,,,,,,,,,,,,,,,,,,,,,,,,,,,,,,,,,,,,,,,,,,,,,,,,,,,,0.0,0.0,32.0,0.102923,1.0,0.0,,,,,,,,,,,,,,,,,,,,,,,,,
20379,1648952763.814732,1648952763.828448,122.0,0.0,4195.384765999999,4816.922852000001,4197.94873,4261.538574,4339.487305,450.0,3.0,73.0,,,,0.0,0.0,0.0,0.0,1.0,1.0,0.0,,,,,,,,61.0,0.0,0.8502299999999999,-0.06640599999999999,0.123779,0.507324,0.287602,-0.011719,-0.981949,0.008648999999999999,-0.025311,-0.031156,,,,,,,,,,,,,,,,,,,,,,,,,,,,,,,,,,,,,,,,,,,,,,,,,,,,,,,,,,,,,,,,,
20380,1648952763.822547,1648952763.836364,123.0,0.0,4471.794922,4802.05127,4047.179443,4553.333496,4514.358886999999,66.0,3.0,73.0,,,,0.0,0.0,0.0,0.0,1.0,1.0,0.0,,,,,,,,,,,,,,,,,,,,,,,,,,,,,,,,,,,,,,,,,,,,,,,,,,,,,,,,,,,,,,,,,,,,,,,,,,,,,,,,,,,,
20381,1648952763.830361,1648952763.844179,124.0,0.0,4529.230957,4807.179688,4012.3076170000004,4415.384765999999,4237.436035,450.0,3.0,73.0,,,,0.0,0.0,0.0,0.0,1.0,1.0,0.0,,,,,,,,62.0,0.0,0.8502299999999999,-0.06640599999999999,0.123779,0.507324,0.295903,-0.016114,-0.985367,0.0059770000000000005,-0.025319,-0.024867,,,,,,,,,,,,,,,,,,,,,,,,,,,,,,,,,,,,,,,,,,,,,,,,,,,,,,,,,,,,,,,,,
20382,1648952763.838176,1648952763.852095,125.0,0.0,4173.846191,4938.461426,4098.461426,4017.9487299999996,4260.512695,450.0,3.0,73.0,,,,0.0,0.0,0.0,0.0,1.0,1.0,0.0,,,,,,,,,,,,,,,,,,,,,,,,,,,,,,,,,,,,,,,,,,,,,,,,,,,,,,0.0,0.0,32.0,0.102923,1.0,0.0,,,,,,,,,,,,,,,,,,,,,,,,,
20383,1648952763.8459911,1648952763.859911,126.0,0.0,4284.102539,4931.282227000001,4170.256348,4218.974121,4676.410156,450.0,3.0,73.0,,,,0.0,0.0,0.0,0.0,1.0,1.0,0.0,,,,,,,,63.0,0.0,0.850211,-0.06665,0.123779,0.507324,0.298833,-0.009276999999999999,-0.9863430000000001,0.0067469999999999995,-0.025375,-0.028776999999999997,,,,,,,,,,,,,,,,,,,,,,,,,,,,,,,,,,,,,,,,,,,,,,,,,,,,,,,,,,,,,,,,,
20384,1648952763.853805,1648952763.867826,127.0,0.0,4554.358886999999,4811.282227000001,4220.512695,4552.820313,4534.871582,238.0,3.0,73.0,,,,0.0,0.0,0.0,0.0,1.0,1.0,0.0,,,,,,,,,,,,,,,,,,,,,,,,,,,,,,,,,,,,,,,,,,,,,,,,,,,,,,,,,,,,,,,,,,,,,,,,,,,,,,,,,,,,
20385,1648952763.86162,1648952763.875642,0.0,0.0,4412.820313,4889.230957,4372.820313,4277.436035,4064.102539,450.0,3.0,73.0,,,,0.0,0.0,0.0,0.0,1.0,1.0,0.0,,,,,,,,0.0,0.0,0.850211,-0.06665,0.123779,0.507324,0.287602,-0.000977,-0.980484,0.004412,-0.025328,-0.022675999999999998,,,,,,,,,,,,,,,,,,,,,,,,,,,,,,,,,,,,,,,,,,,,,,,,,,,,,,,,,,,,,,,,,
20386,1648952763.8694339,1648952763.883557,1.0,0.0,4235.897461,4856.922852000001,4533.846191,4174.358886999999,4244.102539,450.0,3.0,73.0,,,,0.0,0.0,0.0,0.0,1.0,1.0,0.0,1.0,0.0,0.0,0.0,0.0,0.0,0.0,,,,,,,,,,,,,1.0,0.0,0.0,,,,,,,,,,,,,,,,,,,,,,,,,,,,,,,,0.0,0.0,32.0,0.102558,1.0,0.0,47.003159000000004,29.863559999999996,94.991364,75.159706,362.448456,90.304199,74.977806,57.053413,47.287254,81.667603,122.56016499999998,175.808731,642.573914,86.113174,84.487122,144.627548,95.79373199999999,257.253845,106.33319099999999,344.56143199999997,48.2285,69.065453,132.551849,44.226784,251.62329100000002
20387,1648952763.877249,1648952763.8913732,2.0,0.0,4284.615234000001,4772.307617,4397.94873,4426.153809,4522.563965,0.0,3.0,73.0,,,,0.0,0.0,0.0,0.0,1.0,1.0,0.0,,,,,,,,1.0,0.0,0.850211,-0.06665,0.123779,0.507324,0.287602,-0.012695999999999999,-0.989273,0.003824,-0.025237,-0.029686,,,,,,,,,,,,,,,,,,,,,,,,,,,,,,,,,,,,,,,,,,,,,,,,,,,,,,,,,,,,,,,,,
20388,1648952763.8850632,1648952763.8992882,3.0,0.0,4320.0,4838.974121,4226.153809,4263.077147999999,4353.333496,450.0,3.0,73.0,,,,0.0,0.0,0.0,0.0,1.0,1.0,0.0,,,,,,,,,,,,,,,,,,,,,,,,,,,,,,,,,,,,,,,,,,,,,,,,,,,,,,,,,,,,,,,,,,,,,,,,,,,,,,,,,,,,
20389,1648952763.8928778,1648952763.907104,4.0,0.0,4205.641113000001,4812.307617,4206.666504,4085.1281740000004,4383.589844,1.0,3.0,73.0,,,,0.0,0.0,0.0,0.0,1.0,1.0,0.0,,,,,,,,2.0,0.0,0.850211,-0.06665,0.123779,0.507324,0.283696,-0.015137000000000001,-0.9751129999999999,0.006323,-0.02535,-0.033163,,,,,,,,,,,,,,,,,,,,,,,,,,,,,,,,,,,,,,,,,,,,,,,,,,,,,,,,,,,,,,,,,
20390,1648952763.900692,1648952763.914919,5.0,0.0,4362.05127,4786.153809,4091.794922,4460.0,4613.333496,450.0,3.0,73.0,,,,0.0,0.0,0.0,0.0,1.0,1.0,0.0,,,,,,,,,,,,,,,,,,,,,,,,,,,,,,,,,,,,,,,,,,,,,,,,,,,,,,0.0,0.0,32.0,0.102558,1.0,0.0,,,,,,,,,,,,,,,,,,,,,,,,,
20391,1648952763.908507,1648952763.9228349,6.0,0.0,4464.615234000001,4751.282227000001,4000.0,4514.871582,4387.692383,0.0,3.0,73.0,,,,0.0,0.0,0.0,0.0,1.0,1.0,0.0,,,,,,,,3.0,0.0,0.850211,-0.06665,0.123779,0.507324,0.288579,-0.011719,-0.989273,0.0070090000000000005,-0.025403,-0.036341000000000005,,,,,,,,,,,,,,,,,,,,,,,,,,,,,,,,,,,,,,,,,,,,,,,,,,,,,,,,,,,,,,,,,
20392,1648952763.916321,1648952763.930651,7.0,0.0,4222.05127,4652.820313,4051.794922,4160.512695,4256.922852000001,450.0,3.0,73.0,,,,0.0,0.0,0.0,0.0,1.0,1.0,0.0,,,,,,,,,,,,,,,,,,,,,,,,,,,,,,,,,,,,,,,,,,,,,,,,,,,,,,,,,,,,,,,,,,,,,,,,,,,,,,,,,,,,
20393,1648952763.924136,1648952763.938466,8.0,0.0,4254.358886999999,4774.871582,4058.974365,4245.641113000001,4477.436035,450.0,3.0,73.0,,,,0.0,0.0,0.0,0.0,1.0,1.0,0.0,,,,,,,,4.0,0.0,0.850211,-0.06665,0.123779,0.507324,0.291508,-0.022461000000000002,-0.977554,0.007675,-0.025499,-0.026652,,,,,,,,,,,,,,,,,,,,,,,,,,,,,,,,,,,,,,,,,,,,,,,,,,,,,,,,,,,,,,,,,
20394,1648952763.931951,1648952763.946382,9.0,0.0,4647.692383,4922.05127,4036.4101560000004,4495.897461,4454.871582,67.0,3.0,73.0,,,,0.0,0.0,0.0,0.0,1.0,1.0,0.0,,,,,,,,,,,,,,,,,,,,,,,,,,,,,,,,,,,,,,,,,,,,,,,,,,,,,,0.0,0.0,32.0,0.102558,1.0,0.0,,,,,,,,,,,,,,,,,,,,,,,,,
20395,1648952763.939765,1648952763.9541972,10.0,0.0,4466.153809,4769.230957,4244.102539,4264.615234000001,4166.153809,450.0,3.0,73.0,,,,0.0,0.0,0.0,0.0,1.0,1.0,0.0,,,,,,,,5.0,0.0,0.850211,-0.06665,0.123779,0.507324,0.286625,-0.0058590000000000005,-0.984878,0.008324,-0.025391,-0.030432,,,,,,,,,,,,,,,,,,,,,,,,,,,,,,,,,,,,,,,,,,,,,,,,,,,,,,,,,,,,,,,,,
20396,1648952763.94758,1648952763.9621131,11.0,0.0,4081.025635,4775.897461,4182.05127,4256.922852000001,4331.282227000001,69.0,3.0,73.0,,,,0.0,0.0,0.0,0.0,1.0,1.0,0.0,,,,,,,,,,,,,,,,,,,,,,,,,,,,,,,,,,,,,,,,,,,,,,,,,,,,,,,,,,,,,,,,,,,,,,,,,,,,,,,,,,,,
20397,1648952763.955394,1648952763.970028,12.0,0.0,4396.410156,4883.077147999999,3993.8461909999996,4545.128418,4562.563965,450.0,3.0,73.0,,,,0.0,0.0,0.0,0.0,1.0,1.0,0.0,,,,,,,,6.0,0.0,0.850175,-0.06665,0.12402300000000001,0.507324,0.295415,-0.00293,-0.977554,0.010421,-0.025391,-0.033786000000000004,,,,,,,,,,,,,,,,,,,,,,,,,,,,,,,,,,,,,,,,,,,,,,,,,,,,,,,,,,,,,,,,,
20398,1648952763.963209,1648952763.977844,13.0,0.0,4619.487305,4708.717772999999,4041.538574,4370.256348,4347.692383,450.0,3.0,73.0,,,,0.0,0.0,0.0,0.0,1.0,1.0,0.0,,,,,,,,,,,,,,,,,,,,,,,,,,,,,,,,,,,,,,,,,,,,,,,,,,,,,,0.0,0.0,32.0,0.102558,1.0,0.0,,,,,,,,,,,,,,,,,,,,,,,,,
20399,1648952763.971023,1648952763.98566,14.0,0.0,4206.153809,4716.922852000001,4050.256348,3971.794922,4298.461426,450.0,3.0,73.0,,,,0.0,0.0,0.0,0.0,1.0,1.0,0.0,,,,,,,,7.0,0.0,0.850175,-0.06665,0.12402300000000001,0.507324,0.287114,-0.007812999999999999,-0.984878,0.010844,-0.025488,-0.036755,,,,,,,,,,,,,,,,,,,,,,,,,,,,,,,,,,,,,,,,,,,,,,,,,,,,,,,,,,,,,,,,,
20400,1648952763.978838,1648952763.993576,15.0,0.0,4199.487305,4861.025879,4068.205078,4170.769043,4564.615234000001,69.0,3.0,73.0,,,,0.0,0.0,0.0,0.0,1.0,1.0,0.0,,,,,,,,,,,,,,,,,,,,,,,,,,,,,,,,,,,,,,,,,,,,,,,,,,,,,,,,,,,,,,,,,,,,,,,,,,,,,,,,,,,,
20401,1648952763.986652,1648952764.001491,16.0,0.0,4549.230957,4815.384765999999,4273.846191,4566.666504,4457.94873,0.0,3.0,73.0,,,,0.0,0.0,0.0,0.0,1.0,1.0,0.0,,,,,,,,8.0,0.0,0.850175,-0.06665,0.12402300000000001,0.507324,0.295903,-0.014649,-0.9824370000000001,0.011127,-0.025528,-0.027025,,,,,,,,,,,,,,,,,,,,,,,,,,,,,,,,,,,,,,,,,,,,,,,,,,,,,,,,,,,,,,,,,
20402,1648952763.994467,1648952764.0093071,17.0,0.0,4410.256348,4881.538574,4503.589844,4353.846191,4051.794922,0.0,3.0,73.0,,,,0.0,0.0,0.0,0.0,1.0,1.0,0.0,,,,,,,,,,,,,,,,,,,,1.0,0.0,0.0,,,,,,,,,,,,,,,,,,,,,,,,,,,,,,,,0.0,0.0,32.0,0.097575,1.0,0.0,56.819378,29.599438,106.368668,62.87078100000001,384.59231600000004,95.727631,57.344387,60.24981700000001,48.459736,83.978615,132.652756,149.99903899999998,656.026306,87.161781,82.42603299999999,154.935013,90.483749,261.787781,107.93838500000001,355.174408,50.630745000000005,67.10672,142.98468,40.546951,246.29281600000002
20403,1648952764.0022821,1648952764.0172222,18.0,0.0,4187.692383,4884.102539,4567.179688,4195.384765999999,4171.794922,0.0,3.0,73.0,,,,0.0,0.0,0.0,0.0,1.0,1.0,0.0,,,,,,,,9.0,0.0,0.8503209999999999,-0.06665,0.12402300000000001,0.50708,0.288579,-0.015137000000000001,-0.981949,0.011381,-0.025465,-0.030621,,,,,,,,,,,,,,,,,,,,,,,,,,,,,,,,,,,,,,,,,,,,,,,,,,,,,,,,,,,,,,,,,
20404,1648952764.010096,1648952764.025038,19.0,0.0,4303.589844,4755.897461,4370.769043,4410.769043,4483.077147999999,0.0,3.0,73.0,,,,0.0,0.0,0.0,0.0,1.0,1.0,0.0,,,,,,,,,,,,,,,,,,,,,,,,,,,,,,,,,,,,,,,,,,,,,,,,,,,,,,,,,,,,,,,,,,,,,,,,,,,,,,,,,,,,
20405,1648952764.017911,1648952764.032953,20.0,0.0,4365.641113000001,4794.358886999999,4200.512695,4328.717772999999,4409.743652,0.0,3.0,73.0,,,,0.0,0.0,0.0,0.0,1.0,1.0,0.0,,,,,,,,10.0,0.0,0.8503209999999999,-0.06665,0.12402300000000001,0.50708,0.303227,-0.018555000000000002,-0.98146,0.011561,-0.025311,-0.034102,,,,,,,,,,,,,,,,,,,,,,,,,,,,,,,,,,,,,,,,,,,,,,,,,,,,,,,,,,,,,,,,,
20406,1648952764.025725,1648952764.0407689,21.0,0.0,4182.563965,4800.512695,4261.538574,4065.641113,4400.0,0.0,3.0,73.0,,,,0.0,0.0,0.0,0.0,1.0,1.0,0.0,,,,,,,,,,,,,,,,,,,,,,,,,,,,,,,,,,,,,,,,,,,,,,,,,,,,,,0.0,0.0,32.0,0.097575,1.0,0.0,,,,,,,,,,,,,,,,,,,,,,,,,
20407,1648952764.03354,1648952764.048684,22.0,0.0,4353.846191,4780.0,4178.974121,4293.846191,4603.077147999999,0.0,3.0,73.0,,,,0.0,0.0,0.0,0.0,1.0,1.0,0.0,,,,,,,,11.0,0.0,0.850175,-0.06665,0.12402300000000001,0.507324,0.292485,-0.021973,-0.9868309999999999,0.011724,-0.025368,-0.024637,,,,,,,,,,,,,,,,,,,,,,,,,,,,,,,,,,,,,,,,,,,,,,,,,,,,,,,,,,,,,,,,,
20408,1648952764.041354,1648952764.0565,23.0,0.0,4568.205078,4811.794922,4004.615479,4436.410156,4435.384765999999,0.0,3.0,73.0,,,,0.0,0.0,0.0,0.0,1.0,1.0,0.0,,,,,,,,,,,,,,,,,,,,,,,,,,,,,,,,,,,,,,,,,,,,,,,,,,,,,,,,,,,,,,,,,,,,,,,,,,,,,,,,,,,,
20409,1648952764.049169,1648952764.064416,24.0,0.0,4318.974121,4695.897461,4068.718018,4155.897461,4240.512695,0.0,3.0,73.0,,,,0.0,0.0,0.0,0.0,1.0,1.0,0.0,,,,,,,,12.0,0.0,0.8501559999999999,-0.06689500000000001,0.12402300000000001,0.507324,0.302739,-0.010254000000000001,-0.9868309999999999,0.011918999999999999,-0.025468,-0.028520999999999998,,,,,,,,,,,,,,,,,,,,,,,,,,,,,,,,,,,,,,,,,,,,,,,,,,,,,,,,,,,,,,,,,
20410,1648952764.056983,1648952764.072331,25.0,0.0,4177.94873,4703.077147999999,4147.179688,4221.538574,4429.230957,0.0,3.0,73.0,,,,0.0,0.0,0.0,0.0,1.0,1.0,0.0,,,,,,,,,,,,,,,,,,,,,,,,,,,,,,,,,,,,,,,,,,,,,,,,,,,,,,0.0,0.0,32.0,0.097575,1.0,0.0,,,,,,,,,,,,,,,,,,,,,,,,,
20411,1648952764.064798,1648952764.080147,26.0,0.0,4525.128418,4911.794922,4045.1281740000004,4555.384765999999,4497.436035,0.0,3.0,73.0,,,,0.0,0.0,0.0,0.0,1.0,1.0,0.0,,,,,,,,13.0,0.0,0.8501559999999999,-0.06689500000000001,0.12402300000000001,0.507324,0.293462,-0.013672,-0.977066,0.010483,-0.025558,-0.022494999999999998,,,,,,,,,,,,,,,,,,,,,,,,,,,,,,,,,,,,,,,,,,,,,,,,,,,,,,,,,,,,,,,,,
20412,1648952764.0726118,1648952764.087963,27.0,0.0,4433.846191,4820.0,4178.974121,4355.897461,4213.333496,0.0,3.0,73.0,,,,0.0,0.0,0.0,0.0,1.0,1.0,0.0,,,,,,,,,,,,,,,,,,,,,,,,,,,,,,,,,,,,,,,,,,,,,,,,,,,,,,,,,,,,,,,,,,,,,,,,,,,,,,,,,,,,
20413,1648952764.080427,1648952764.095878,28.0,0.0,4026.6667479999996,4700.0,4167.692383,4227.692383,4289.230957,0.0,3.0,73.0,,,,0.0,0.0,0.0,0.0,1.0,1.0,0.0,,,,,,,,14.0,0.0,0.850302,-0.06689500000000001,0.12402300000000001,0.50708,0.292485,-0.0043950000000000005,-0.988785,0.009288,-0.025639,-0.026691000000000003,,,,,,,,,,,,,,,,,,,,,,,,,,,,,,,,,,,,,,,,,,,,,,,,,,,,,,,,,,,,,,,,,
20414,1648952764.088242,1648952764.103694,29.0,0.0,4315.384765999999,4814.358886999999,3981.025635,4527.692383,4561.538574,0.0,3.0,73.0,,,,0.0,0.0,0.0,0.0,1.0,1.0,0.0,,,,,,,,,,,,,,,,,,,,,,,,,,,,,,,,,,,,,,,,,,,,,,,,,,,,,,0.0,0.0,32.0,0.097575,1.0,0.0,,,,,,,,,,,,,,,,,,,,,,,,,
20415,1648952764.096056,1648952764.11161,30.0,0.0,4584.615234000001,4674.871582,4022.5642090000006,4416.922852000001,4408.205078,0.0,3.0,73.0,,,,0.0,0.0,0.0,0.0,1.0,1.0,0.0,,,,,,,,15.0,0.0,0.850302,-0.06689500000000001,0.12402300000000001,0.50708,0.294926,-0.012206999999999999,-0.972183,0.011386,-0.025565,-0.030369999999999998,,,,,,,,,,,,,,,,,,,,,,,,,,,,,,,,,,,,,,,,,,,,,,,,,,,,,,,,,,,,,,,,,
20416,1648952764.103871,1648952764.119425,31.0,0.0,4164.615234000001,4605.128418,4060.0,3984.102539,4221.538574,0.0,3.0,73.0,,,,0.0,0.0,0.0,0.0,1.0,1.0,0.0,,,,,,,,,,,,,,,,,,,,,,,,,,,,,,,,,,,,,,,,,,,,,,,,,,,,,,,,,,,,,,,,,,,,,,,,,,,,,,,,,,,,
20417,1648952764.111685,1648952764.127341,32.0,0.0,4150.769043,4830.256348,4048.205078,4154.358886999999,4386.666504,0.0,3.0,73.0,,,,0.0,0.0,0.0,0.0,1.0,1.0,0.0,,,,,,,,16.0,0.0,0.850302,-0.06689500000000001,0.12402300000000001,0.50708,0.291997,-0.015137000000000001,-0.9834129999999999,0.011664,-0.02545,-0.033729,,,,,,,,,,,,,,,,,,,,,,,,,,,,,,,,,,,,,,,,,,,,,,,,,,,,,,,,,,,,,,,,,
20418,1648952764.1195,1648952764.135256,33.0,0.0,4571.282227000001,4833.846191,4271.282227000001,4596.922852000001,4446.153809,0.0,3.0,73.0,,,,0.0,0.0,0.0,0.0,1.0,1.0,0.0,,,,,,,,,,,,,,,,,,,,1.0,0.0,0.0,,,,,,,,,,,,,,,,,,,,,,,,,,,,,,,,0.0,0.0,32.0,0.09869800000000001,1.0,0.0,63.539177,29.536932,111.67839099999999,53.527446999999995,398.910706,99.223244,48.804573,59.685852000000004,49.845329,82.851967,146.168671,148.627655,648.60614,86.192474,83.282005,153.77070600000002,85.130127,258.845612,106.64321899999999,366.820038,49.559235,66.954826,149.920746,35.481021999999996,242.73109399999998
20419,1648952764.127314,1648952764.1430721,34.0,0.0,4410.256348,4814.871582,4530.769043,4436.410156,4141.025879,0.0,3.0,73.0,,,,0.0,0.0,0.0,0.0,1.0,1.0,0.0,,,,,,,,17.0,0.0,0.850302,-0.06689500000000001,0.12402300000000001,0.50708,0.290532,-0.010742,-0.980972,0.010351,-0.025542,-0.036802,,,,,,,,,,,,,,,,,,,,,,,,,,,,,,,,,,,,,,,,,,,,,,,,,,,,,,,,,,,,,,,,,
20420,1648952764.135129,1648952764.150987,35.0,0.0,4140.0,4852.307617,4437.94873,4143.589844,4162.563965,0.0,3.0,73.0,,,,0.0,0.0,0.0,0.0,1.0,1.0,0.0,,,,,,,,,,,,,,,,,,,,,,,,,,,,,,,,,,,,,,,,,,,,,,,,,,,,,,,,,,,,,,,,,,,,,,,,,,,,,,,,,,,,
20421,1648952764.1429439,1648952764.158803,36.0,0.0,4345.128418,4681.538574,4157.436035,4207.692383,4465.641113000001,0.0,3.0,73.0,,,,0.0,0.0,0.0,0.0,1.0,1.0,0.0,,,,,,,,18.0,0.0,0.850302,-0.06689500000000001,0.12402300000000001,0.50708,0.28320700000000004,-0.015625,-0.9799950000000001,0.012392,-0.025478,-0.039518,,,,,,,,,,,,,,,,,,,,,,,,,,,,,,,,,,,,,,,,,,,,,,,,,,,,,,,,,,,,,,,,,
20422,1648952764.150758,1648952764.166718,37.0,0.0,4472.820313,4708.717772999999,4121.025879,4324.102539,4422.563965,0.0,3.0,73.0,,,,0.0,0.0,0.0,0.0,1.0,1.0,0.0,,,,,,,,,,,,,,,,,,,,,,,,,,,,,,,,,,,,,,,,,,,,,,,,,,,,,,0.0,0.0,32.0,0.09869800000000001,1.0,0.0,,,,,,,,,,,,,,,,,,,,,,,,,
20423,1648952764.1585732,1648952764.174534,38.0,0.0,4199.487305,4922.563965,4266.666504,4211.794922,4333.333496,0.0,3.0,73.0,,,,0.0,0.0,0.0,0.0,1.0,1.0,0.0,,,,,,,,19.0,0.0,0.850302,-0.06689500000000001,0.12402300000000001,0.50708,0.287602,-0.002441,-0.9799950000000001,0.009444,-0.025518,-0.032246,,,,,,,,,,,,,,,,,,,,,,,,,,,,,,,,,,,,,,,,,,,,,,,,,,,,,,,,,,,,,,,,,
20424,1648952764.1663868,1648952764.182449,39.0,0.0,4330.256348,4810.769043,4169.230957,4238.461426,4544.615234000001,0.0,3.0,73.0,,,,0.0,0.0,0.0,0.0,1.0,1.0,0.0,,,,,,,,,,,,,,,,,,,,,,,,,,,,,,,,,,,,,,,,,,,,,,,,,,,,,,,,,,,,,,,,,,,,,,,,,,,,,,,,,,,,
20425,1648952764.174202,1648952764.190265,40.0,0.0,4638.461426,4657.436035,4032.3076170000004,4291.794922,4451.282227000001,0.0,3.0,73.0,,,,0.0,0.0,0.0,0.0,1.0,1.0,0.0,,,,,,,,20.0,0.0,0.850266,-0.06689500000000001,0.124268,0.50708,0.291997,-0.0058590000000000005,-0.976089,0.009915,-0.025554,-0.035418,,,,,,,,,,,,,,,,,,,,,,,,,,,,,,,,,,,,,,,,,,,,,,,,,,,,,,,,,,,,,,,,,
20426,1648952764.1820161,1648952764.19818,41.0,0.0,4381.025879,4816.410156,4083.5898439999996,4191.794922,4265.128418,0.0,3.0,73.0,,,,0.0,0.0,0.0,0.0,1.0,1.0,0.0,,,,,,,,,,,,,,,,,,,,,,,,,,,,,,,,,,,,,,,,,,,,,,,,,,,,,,0.0,0.0,32.0,0.09869800000000001,1.0,0.0,,,,,,,,,,,,,,,,,,,,,,,,,
20427,1648952764.189831,1648952764.205996,42.0,0.0,4210.256348,4897.436035,4152.820313,4254.871582,4428.717772999999,0.0,3.0,73.0,,,,0.0,0.0,0.0,0.0,1.0,1.0,0.0,,,,,,,,21.0,0.0,0.850266,-0.06689500000000001,0.124268,0.50708,0.298833,-0.013672,-0.9741360000000001,0.01034,-0.025488999999999998,-0.028556,,,,,,,,,,,,,,,,,,,,,,,,,,,,,,,,,,,,,,,,,,,,,,,,,,,,,,,,,,,,,,,,,
20428,1648952764.197645,1648952764.213912,43.0,0.0,4581.025879,4807.179688,4097.436035,4444.615234000001,4433.333496,0.0,3.0,73.0,,,,0.0,0.0,0.0,0.0,1.0,1.0,0.0,,,,,,,,,,,,,,,,,,,,,,,,,,,,,,,,,,,,,,,,,,,,,,,,,,,,,,,,,,,,,,,,,,,,,,,,,,,,,,,,,,,,
20429,1648952764.20546,1648952764.221727,44.0,0.0,4534.871582,4843.589844,4176.922852000001,4288.205078,4140.0,0.0,3.0,73.0,,,,0.0,0.0,0.0,0.0,1.0,1.0,0.0,,,,,,,,22.0,0.0,0.850302,-0.06689500000000001,0.12402300000000001,0.50708,0.287602,-0.002441,-0.9799950000000001,0.01082,-0.025478999999999998,-0.019645,,,,,,,,,,,,,,,,,,,,,,,,,,,,,,,,,,,,,,,,,,,,,,,,,,,,,,,,,,,,,,,,,
20430,1648952764.213274,1648952764.2296429,45.0,0.0,4205.128418,4872.307617,4206.153809,4221.538574,4280.512695,0.0,3.0,73.0,,,,0.0,0.0,0.0,0.0,1.0,1.0,0.0,,,,,,,,,,,,,,,,,,,,,,,,,,,,,,,,,,,,,,,,,,,,,,,,,,,,,,0.0,0.0,32.0,0.09869800000000001,1.0,0.0,,,,,,,,,,,,,,,,,,,,,,,,,
20431,1648952764.2210891,1648952764.237458,46.0,0.0,4433.846191,4720.0,4134.871582,4530.256348,4529.230957,0.0,3.0,73.0,,,,0.0,0.0,0.0,0.0,1.0,1.0,0.0,,,,,,,,23.0,0.0,0.850266,-0.06689500000000001,0.124268,0.50708,0.298833,-0.013672,-0.9741360000000001,0.011154,-0.025422,-0.014361,,,,,,,,,,,,,,,,,,,,,,,,,,,,,,,,,,,,,,,,,,,,,,,,,,,,,,,,,,,,,,,,,
20432,1648952764.2289028,1648952764.245374,47.0,0.0,4576.410156,4677.436035,4103.589844,4476.410156,4253.846191,0.0,3.0,73.0,,,,0.0,0.0,0.0,0.0,1.0,1.0,0.0,,,,,,,,,,,,,,,,,,,,,,,,,,,,,,,,,,,,,,,,,,,,,,,,,,,,,,,,,,,,,,,,,,,,,,,,,,,,,,,,,,,,
20433,1648952764.236718,1648952764.25329,48.0,0.0,4247.692383,4907.692383,4091.794922,4069.2307130000004,4202.05127,0.0,3.0,73.0,,,,0.0,0.0,0.0,0.0,1.0,1.0,0.0,,,,,,,,24.0,0.0,0.850266,-0.06689500000000001,0.124268,0.50708,0.288579,0.005371,-0.991714,0.012919,-0.025516,-0.019321,,,,,,,,,,,,,,,,,,,,,,,,,,,,,,,,,,,,,,,,,,,,,,,,,,,,,,,,,,,,,,,,,
20434,1648952764.244533,1648952764.261105,49.0,0.0,4297.94873,4930.769043,4166.153809,4106.666504,4634.358886999999,0.0,3.0,73.0,,,,0.0,0.0,0.0,0.0,1.0,1.0,0.0,,,,,,,,,,,,,,,,,,,,1.0,0.0,0.0,,,,,,,,,,,,,,,,,,,,,,,,,,,,,,,,0.0,0.0,32.0,0.105278,1.0,0.0,65.609215,28.523478000000004,110.37731200000002,46.82143,404.78717,100.788002,45.684925,55.173363,51.081989,78.88266,171.53331,165.596176,622.024292,80.881783,86.062706,141.05110200000001,80.848091,246.978546,103.165894,377.993927,45.776711,67.488647,154.351746,31.842367,244.748169
20435,1648952764.252347,1648952764.269021,50.0,0.0,4566.153809,4712.820313,4196.922852000001,4403.077147999999,4600.0,0.0,3.0,73.0,,,,0.0,0.0,0.0,0.0,1.0,1.0,0.0,,,,,,,,25.0,0.0,0.850266,-0.06689500000000001,0.124268,0.50708,0.295415,0.0,-0.975601,0.009967,-0.025601,-0.011334,,,,,,,,,,,,,,,,,,,,,,,,,,,,,,,,,,,,,,,,,,,,,,,,,,,,,,,,,,,,,,,,,
20436,1648952764.2601619,1648952764.2768369,51.0,0.0,4412.307617,4804.102539,4195.897461,4297.436035,4112.820313,0.0,3.0,73.0,,,,0.0,0.0,0.0,0.0,1.0,1.0,0.0,,,,,,,,,,,,,,,,,,,,,,,,,,,,,,,,,,,,,,,,,,,,,,,,,,,,,,,,,,,,,,,,,,,,,,,,,,,,,,,,,,,,
20437,1648952764.267976,1648952764.284653,52.0,0.0,4307.179688,4903.077147999999,4352.820313,4220.512695,4222.563965,0.0,3.0,73.0,,,,0.0,0.0,0.0,0.0,1.0,1.0,0.0,,,,,,,,26.0,0.0,0.850266,-0.06689500000000001,0.124268,0.50708,0.290532,-0.00293,-0.991714,0.007115000000000001,-0.025531,-0.007026999999999999,,,,,,,,,,,,,,,,,,,,,,,,,,,,,,,,,,,,,,,,,,,,,,,,,,,,,,,,,,,,,,,,,
20438,1648952764.275791,1648952764.292568,53.0,0.0,4421.538574,4778.974121,4477.94873,4301.538574,4537.436035,0.0,3.0,73.0,,,,0.0,0.0,0.0,0.0,1.0,1.0,0.0,,,,,,,,,,,,,,,,,,,,,,,,,,,,,,,,,,,,,,,,,,,,,,,,,,,,,,0.0,0.0,32.0,0.105278,1.0,0.0,,,,,,,,,,,,,,,,,,,,,,,,,
20439,1648952764.283605,1648952764.300384,54.0,0.0,4396.410156,4890.256348,4331.282227000001,4206.666504,4334.871582,0.0,3.0,73.0,,,,0.0,0.0,0.0,0.0,1.0,1.0,0.0,,,,,,,,27.0,0.0,0.850266,-0.06689500000000001,0.124268,0.50708,0.271,-0.012206999999999999,-0.983902,0.009333,-0.025566,-0.012623,,,,,,,,,,,,,,,,,,,,,,,,,,,,,,,,,,,,,,,,,,,,,,,,,,,,,,,,,,,,,,,,,
20440,1648952764.29142,1648952764.308299,55.0,0.0,4164.615234000001,5026.666504,4152.820313,4069.743652,4264.102539,0.0,3.0,73.0,,,,0.0,0.0,0.0,0.0,1.0,1.0,0.0,,,,,,,,,,,,,,,,,,,,,,,,,,,,,,,,,,,,,,,,,,,,,,,,,,,,,,,,,,,,,,,,,,,,,,,,,,,,,,,,,,,,
20441,1648952764.2992349,1648952764.3161151,56.0,0.0,4331.282227000001,4796.410156,4186.153809,4268.717772999999,4588.717772999999,0.0,3.0,73.0,,,,0.0,0.0,0.0,0.0,1.0,1.0,0.0,,,,,,,,28.0,0.0,0.8502850000000001,-0.06665,0.124268,0.50708,0.291508,-0.008789,-0.9868309999999999,0.008253,-0.025598,-0.020638,,,,,,,,,,,,,,,,,,,,,,,,,,,,,,,,,,,,,,,,,,,,,,,,,,,,,,,,,,,,,,,,,
20442,1648952764.307049,1648952764.3240302,57.0,0.0,4592.307617,4663.589844,4349.743652,4377.436035,4514.871582,0.0,3.0,73.0,,,,0.0,0.0,0.0,0.0,1.0,1.0,0.0,,,,,,,,,,,,,,,,,,,,,,,,,,,,,,,,,,,,,,,,,,,,,,,,,,,,,,0.0,0.0,32.0,0.105278,1.0,0.0,,,,,,,,,,,,,,,,,,,,,,,,,
20443,1648952764.3148642,1648952764.331846,58.0,0.0,4392.820313,4892.820313,4417.436035,4203.077147999999,4198.974121,0.0,3.0,73.0,,,,0.0,0.0,0.0,0.0,1.0,1.0,0.0,,,,,,,,29.0,0.0,0.8502850000000001,-0.06665,0.124268,0.50708,0.28076599999999996,-0.019532,-0.969253,0.010407,-0.025626,-0.02502,,,,,,,,,,,,,,,,,,,,,,,,,,,,,,,,,,,,,,,,,,,,,,,,,,,,,,,,,,,,,,,,,
20444,1648952764.3226779,1648952764.339762,59.0,0.0,4069.743652,5026.153809,4265.128418,4104.102539,4301.538574,0.0,3.0,73.0,,,,0.0,0.0,0.0,0.0,1.0,1.0,0.0,,,,,,,,,,,,,,,,,,,,,,,,,,,,,,,,,,,,,,,,,,,,,,,,,,,,,,,,,,,,,,,,,,,,,,,,,,,,,,,,,,,,
20445,1648952764.330493,1648952764.347677,60.0,0.0,4278.461426,4842.05127,4122.563965,4296.410156,4667.692383,0.0,3.0,73.0,,,,0.0,0.0,0.0,0.0,1.0,1.0,0.0,,,,,,,,30.0,0.0,0.850266,-0.06689500000000001,0.124268,0.50708,0.286625,-0.011719,-0.9868309999999999,0.010831,-0.025651,-0.028914,,,,,,,,,,,,,,,,,,,,,,,,,,,,,,,,,,,,,,,,,,,,,,,,,,,,,,,,,,,,,,,,,
20446,1648952764.3383071,1648952764.355493,61.0,0.0,4602.563965,4678.974121,4336.922852000001,4516.922852000001,4506.666504,0.0,3.0,73.0,,,,0.0,0.0,0.0,0.0,1.0,1.0,0.0,,,,,,,,,,,,,,,,,,,,,,,,,,,,,,,,,,,,,,,,,,,,,,,,,,,,,,0.0,0.0,32.0,0.105278,1.0,0.0,,,,,,,,,,,,,,,,,,,,,,,,,
20447,1648952764.346122,1648952764.363409,62.0,0.0,4388.717772999999,4830.256348,4440.512695,4379.487305,4010.256348,0.0,3.0,73.0,,,,0.0,0.0,0.0,0.0,1.0,1.0,0.0,,,,,,,,31.0,0.0,0.85014,-0.06665,0.124268,0.507324,0.289067,-0.026368,-0.9785309999999999,0.011261,-0.025674000000000002,-0.03242,,,,,,,,,,,,,,,,,,,,,,,,,,,,,,,,,,,,,,,,,,,,,,,,,,,,,,,,,,,,,,,,,
20448,1648952764.353936,1648952764.371224,63.0,0.0,4117.436035,4977.94873,4354.871582,4086.6667479999996,4173.846191,0.0,3.0,73.0,,,,0.0,0.0,0.0,0.0,1.0,1.0,0.0,,,,,,,,,,,,,,,,,,,,,,,,,,,,,,,,,,,,,,,,,,,,,,,,,,,,,,,,,,,,,,,,,,,,,,,,,,,,,,,,,,,,
20449,1648952764.361751,1648952764.3791401,64.0,0.0,4338.461426,4755.384765999999,4333.333496,4177.94873,4753.333496,450.0,3.0,73.0,,,,0.0,0.0,0.0,0.0,1.0,1.0,0.0,,,,,,,,32.0,0.0,0.8502850000000001,-0.06665,0.124268,0.50708,0.291997,-0.0043950000000000005,-0.980972,0.008426000000000001,-0.025646,-0.023269,,,,,,,,,,,,,,,,,,,,,,,,,,,,,,,,,,,,,,,,,,,,,,,,,,,,,,,,,,,,,,,,,
20450,1648952764.369565,1648952764.386955,65.0,0.0,4586.153809,4588.717772999999,4197.436035,4430.769043,4625.641113000001,450.0,3.0,73.0,,,,0.0,0.0,0.0,0.0,1.0,1.0,0.0,1.0,0.0,0.0,0.0,0.0,0.0,0.0,,,,,,,,,,,,,1.0,0.0,0.0,0.0,,,-0.601787,2.688663,0.0,,,-2.5485990000000003,10.131662,,0.0,,,-0.320128,0.199377,0.0,,,-0.8045140000000001,3.351609,0.0,,,-189.085873,247.186858,0.0,,,0.46536700000000003,0.694221,0.0,0.0,32.0,0.119448,1.0,0.0,63.118343,26.163746,103.899963,41.577579,404.63208,99.50235,44.139671,48.442409999999995,52.226925,73.378662,218.24244700000003,192.783615,588.504211,71.996155,88.580559,119.770653,76.748924,226.81231699999998,99.25591999999999,387.438263,41.383179,66.867203,158.703903,32.041119,254.256577
20451,1648952764.3773801,1648952764.394871,66.0,0.0,4411.794922,4816.922852000001,4118.461426,4281.025879,4068.205078,0.0,3.0,73.0,,,,0.0,0.0,0.0,0.0,1.0,1.0,0.0,,,,,,,,33.0,0.0,0.85014,-0.06665,0.124268,0.507324,0.299321,-0.015137000000000001,-0.977066,0.010465,-0.02562,-0.027388,,,,,,,,,,,,,,,,,,,,,,,,,,,,,,,,,,,,,,,,,,,,,,,,,,,,,,,,,,,,,,,,,
20452,1648952764.385194,1648952764.4026859,67.0,0.0,4261.538574,4854.871582,4413.333496,4148.717772999999,4202.563965,450.0,3.0,73.0,,,,0.0,0.0,0.0,0.0,1.0,1.0,0.0,,,,,,,,,,,,,,,,,,,,,,,,,,,,,,,,,,,,,,,,,,,,,,,,,,,,,,,,,,,,,,,,,,,,,,,,,,,,,,,,,,,,
20453,1648952764.393009,1648952764.4106019,68.0,0.0,4332.307617,4574.358886999999,4441.025879,4337.94873,4582.563965,0.0,3.0,73.0,,,,0.0,0.0,0.0,0.0,1.0,1.0,0.0,,,,,,,,34.0,0.0,0.85014,-0.06665,0.124268,0.507324,0.310552,-0.010254000000000001,-0.980484,0.010931999999999999,-0.025646,-0.031045999999999997,,,,,,,,,,,,,,,,,,,,,,,,,,,,,,,,,,,,,,,,,,,,,,,,,,,,,,,,,,,,,,,,,
20454,1648952764.400824,1648952764.418418,69.0,0.0,4384.102539,4651.794922,4060.0,4389.230957,4444.102539,450.0,3.0,73.0,,,,0.0,0.0,0.0,0.0,1.0,1.0,0.0,,,,,,,,,,,,,,,,,,,,,,,,,,,,,,,,,,,,,,,,,,,,,,,,,,,,,,0.0,0.0,32.0,0.119448,1.0,0.0,,,,,,,,,,,,,,,,,,,,,,,,,
20455,1648952764.408638,1648952764.426333,70.0,0.0,4303.077147999999,4928.205078,4082.0512700000004,4152.820313,4167.179688,0.0,3.0,73.0,,,,0.0,0.0,0.0,0.0,1.0,1.0,0.0,,,,,,,,35.0,0.0,0.85025,-0.06665,0.12451199999999998,0.50708,0.292485,-0.012695999999999999,-0.972183,0.011206,-0.025572,-0.02174,,,,,,,,,,,,,,,,,,,,,,,,,,,,,,,,,,,,,,,,,,,,,,,,,,,,,,,,,,,,,,,,,
20456,1648952764.416453,1648952764.434149,71.0,0.0,4284.615234000001,4839.487305,4180.0,4186.153809,4394.871582,450.0,3.0,73.0,,,,0.0,0.0,0.0,0.0,1.0,1.0,0.0,,,,,,,,,,,,,,,,,,,,,,,,,,,,,,,,,,,,,,,,,,,,,,,,,,,,,,,,,,,,,,,,,,,,,,,,,,,,,,,,,,,,
20457,1648952764.424267,1648952764.442065,72.0,0.0,4448.717772999999,4661.025879,4114.871582,4372.820313,4529.230957,450.0,3.0,73.0,,,,0.0,0.0,0.0,0.0,1.0,1.0,0.0,,,,,,,,36.0,0.0,0.8501040000000001,-0.06665,0.12451199999999998,0.507324,0.28809,-0.017578,-0.978042,0.009792,-0.025651,-0.016392,,,,,,,,,,,,,,,,,,,,,,,,,,,,,,,,,,,,,,,,,,,,,,,,,,,,,,,,,,,,,,,,,
20458,1648952764.432082,1648952764.4498801,73.0,0.0,4643.077147999999,4653.846191,4270.769043,4370.256348,4278.461426,67.0,3.0,73.0,,,,0.0,0.0,0.0,0.0,1.0,1.0,0.0,,,,,,,,,,,,,,,,,,,,,,,,,,,,,,,,,,,,,,,,,,,,,,,,,,,,,,0.0,0.0,32.0,0.119448,1.0,0.0,,,,,,,,,,,,,,,,,,,,,,,,,
20459,1648952764.439896,1648952764.457796,74.0,0.0,4393.846191,4592.820313,4419.487305,4263.589844,4126.153809,450.0,3.0,73.0,,,,0.0,0.0,0.0,0.0,1.0,0.0,0.0,,,,,,,,37.0,0.0,0.8502299999999999,-0.06689500000000001,0.12451199999999998,0.50708,0.292973,-0.015625,-0.98439,0.010278,-0.025575999999999998,-0.020954,,,,,,,,,,,,,,,,,,,,,,,,,,,,,,,,,,,,,,,,,,,,,,,,,,,,,,,,,,,,,,,,,
20460,1648952764.447711,1648952764.465611,75.0,0.0,3994.8718259999996,4543.589844,4246.153809,4237.94873,4309.743652,0.0,3.0,73.0,,,,0.0,0.0,0.0,0.0,1.0,0.0,0.0,,,,,,,,,,,,,,,,,,,,,,,,,,,,,,,,,,,,,,,,,,,,,,,,,,,,,,,,,,,,,,,,,,,,,,,,,,,,,,,,,,,,
20461,1648952764.4555259,1648952764.473527,76.0,0.0,4002.0512700000004,4626.153809,4188.717772999999,4434.871582,4470.256348,450.0,3.0,73.0,,,,0.0,0.0,0.0,0.0,1.0,0.0,0.0,,,,,,,,38.0,0.0,0.8501040000000001,-0.06665,0.12451199999999998,0.507324,0.28809,-0.004883,-0.977554,0.010764,-0.025606999999999998,-0.012754999999999999,,,,,,,,,,,,,,,,,,,,,,,,,,,,,,,,,,,,,,,,,,,,,,,,,,,,,,,,,,,,,,,,,
20462,1648952764.46334,1648952764.481342,77.0,0.0,4332.307617,4777.94873,4161.538574,4729.743652,4447.179688,450.0,3.0,73.0,,,,0.0,0.0,0.0,0.0,1.0,0.0,0.0,,,,,,,,,,,,,,,,,,,,,,,,,,,,,,,,,,,,,,,,,,,,,,,,,,,,,,0.0,0.0,32.0,0.119448,1.0,0.0,,,,,,,,,,,,,,,,,,,,,,,,,
20463,1648952764.4711552,1648952764.489258,78.0,0.0,4427.692383,4824.102539,4118.974121,4532.820313,4300.0,450.0,3.0,73.0,,,,0.0,0.0,0.0,0.0,1.0,0.0,0.0,,,,,,,,39.0,0.0,0.8501040000000001,-0.06665,0.12451199999999998,0.507324,0.298344,-0.013672,-0.973159,0.012764,-0.025633999999999997,-0.017778,,,,,,,,,,,,,,,,,,,,,,,,,,,,,,,,,,,,,,,,,,,,,,,,,,,,,,,,,,,,,,,,,
20464,1648952764.4789689,1648952764.497073,79.0,0.0,4306.666504,4729.743652,4112.820313,4112.307617,4310.256348,0.0,3.0,73.0,,,,0.0,0.0,0.0,0.0,1.0,0.0,0.0,,,,,,,,,,,,,,,,,,,,,,,,,,,,,,,,,,,,,,,,,,,,,,,,,,,,,,,,,,,,,,,,,,,,,,,,,,,,,,,,,,,,
20465,1648952764.486784,1648952764.5049891,80.0,0.0,4341.538574,4714.871582,4098.461426,4287.692383,4533.333496,450.0,3.0,73.0,,,,0.0,0.0,0.0,0.0,1.0,0.0,0.0,,,,,,,,40.0,0.0,0.85025,-0.06665,0.12451199999999998,0.50708,0.286137,-0.010742,-0.9863430000000001,0.012757,-0.025658999999999998,-0.009946,,,,,,,,,,,,,,,,,,,,,,,,,,,,,,,,,,,,,,,,,,,,,,,,,,,,,,,,,,,,,,,,,
20466,1648952764.4945982,1648952764.512805,81.0,0.0,4384.102539,4705.641113000001,4172.820313,4512.820313,4409.230957,450.0,3.0,73.0,,,,0.0,0.0,0.0,0.0,1.0,0.0,0.0,,,,,,,,,,,,,,,,,,,,1.0,0.0,0.0,,,,,,,,,,,,,,,,,,,,,,,,,,,,,,,,0.0,0.0,32.0,0.127434,1.0,0.0,58.084213,23.220919,94.611641,37.016415,402.38629199999997,94.48185699999999,41.213108,41.854282,53.676743,68.182388,289.178833,220.658875,562.025818,63.497963,89.01911899999999,95.55214699999999,71.223129,201.14318799999998,96.519279,394.02099599999997,38.06419,63.619719999999994,164.703201,36.666729,270.13622999999995
20467,1648952764.502413,1648952764.52072,82.0,0.0,4238.974121,4589.743652,4263.077147999999,4197.94873,4162.05127,450.0,3.0,73.0,,,,0.0,0.0,0.0,0.0,1.0,0.0,0.0,,,,,,,,41.0,0.0,0.8501040000000001,-0.06665,0.12451199999999998,0.507324,0.301762,-0.012206999999999999,-0.985367,0.011335,-0.025632,-0.018131,,,,,,,,,,,,,,,,,,,,,,,,,,,,,,,,,,,,,,,,,,,,,,,,,,,,,,,,,,,,,,,,,
20468,1648952764.510227,1648952764.5285358,83.0,0.0,4121.538574,4666.153809,4141.025879,4123.589844,4330.769043,0.0,3.0,73.0,,,,0.0,0.0,0.0,0.0,1.0,0.0,0.0,,,,,,,,,,,,,,,,,,,,,,,,,,,,,,,,,,,,,,,,,,,,,,,,,,,,,,,,,,,,,,,,,,,,,,,,,,,,,,,,,,,,
20469,1648952764.518042,1648952764.5364509,84.0,0.0,4316.410156,4895.384765999999,4032.3076170000004,4546.153809,4546.153809,450.0,3.0,73.0,,,,0.0,0.0,0.0,0.0,1.0,0.0,0.0,,,,,,,,42.0,0.0,0.8501040000000001,-0.06665,0.12451199999999998,0.507324,0.282719,-0.002441,-0.983902,0.011666,-0.025608,-0.022666,,,,,,,,,,,,,,,,,,,,,,,,,,,,,,,,,,,,,,,,,,,,,,,,,,,,,,,,,,,,,,,,,
20470,1648952764.525856,1648952764.544367,85.0,0.0,4363.589844,4692.820313,4126.153809,4498.974121,4341.025879,450.0,3.0,73.0,,,,0.0,0.0,0.0,0.0,1.0,0.0,0.0,,,,,,,,,,,,,,,,,,,,,,,,,,,,,,,,,,,,,,,,,,,,,,,,,,,,,,0.0,0.0,32.0,0.127434,1.0,0.0,,,,,,,,,,,,,,,,,,,,,,,,,
20471,1648952764.5336711,1648952764.552182,86.0,0.0,4176.922852000001,4407.179688,4100.512695,4122.563965,4287.692383,450.0,3.0,73.0,,,,0.0,0.0,0.0,0.0,1.0,0.0,0.0,,,,,,,,43.0,0.0,0.8501040000000001,-0.06665,0.12451199999999998,0.507324,0.291997,-0.013184,-0.9941559999999999,0.011915,-0.025586,-0.014296000000000001,,,,,,,,,,,,,,,,,,,,,,,,,,,,,,,,,,,,,,,,,,,,,,,,,,,,,,,,,,,,,,,,,
20472,1648952764.541485,1648952764.560098,87.0,0.0,4234.358886999999,4662.05127,4016.4101560000004,4226.153809,4468.205078,0.0,3.0,73.0,,,,0.0,0.0,0.0,0.0,1.0,0.0,0.0,,,,,,,,,,,,,,,,,,,,,,,,,,,,,,,,,,,,,,,,,,,,,,,,,,,,,,,,,,,,,,,,,,,,,,,,,,,,,,,,,,,,
20473,1648952764.5493,1648952764.567913,88.0,0.0,4515.897461,4862.563965,4098.974121,4598.461426,4440.512695,450.0,3.0,73.0,,,,0.0,0.0,0.0,0.0,1.0,0.0,0.0,,,,,,,,44.0,0.0,0.8501040000000001,-0.06665,0.12451199999999998,0.507324,0.295415,-0.011231,-0.9790190000000001,0.009113,-0.025469,-0.006714,,,,,,,,,,,,,,,,,,,,,,,,,,,,,,,,,,,,,,,,,,,,,,,,,,,,,,,,,,,,,,,,,
20474,1648952764.5571141,1648952764.5758288,89.0,0.0,4326.666504,4693.333496,4268.205078,4438.461426,4179.487305,450.0,3.0,73.0,,,,0.0,0.0,0.0,0.0,1.0,0.0,0.0,,,,,,,,,,,,,,,,,,,,,,,,,,,,,,,,,,,,,,,,,,,,,,,,,,,,,,0.0,0.0,32.0,0.127434,1.0,0.0,,,,,,,,,,,,,,,,,,,,,,,,,
20475,1648952764.564929,1648952764.583644,90.0,0.0,4028.205078,4676.922852000001,4105.641113000001,4226.666504,4283.589844,450.0,3.0,73.0,,,,0.0,0.0,0.0,0.0,1.0,0.0,0.0,,,,,,,,45.0,0.0,0.8501040000000001,-0.06665,0.12451199999999998,0.507324,0.282719,-0.002441,-0.983902,0.009666,-0.025461,-0.01239,,,,,,,,,,,,,,,,,,,,,,,,,,,,,,,,,,,,,,,,,,,,,,,,,,,,,,,,,,,,,,,,,
20476,1648952764.572744,1648952764.59156,91.0,0.0,4356.410156,4829.743652,3976.4101560000004,4397.436035,4573.846191,0.0,3.0,73.0,,,,0.0,0.0,0.0,0.0,1.0,0.0,0.0,,,,,,,,,,,,,,,,,,,,,,,,,,,,,,,,,,,,,,,,,,,,,,,,,,,,,,,,,,,,,,,,,,,,,,,,,,,,,,,,,,,,
20477,1648952764.580558,1648952764.599376,92.0,0.0,4655.384765999999,4693.846191,4166.666504,4395.897461,4415.384765999999,450.0,3.0,73.0,,,,0.0,0.0,0.0,0.0,1.0,0.0,0.0,,,,,,,,46.0,0.0,0.8502139999999999,-0.06665,0.12475599999999999,0.50708,0.289555,-0.016114,-0.975601,0.010164,-0.025454,-0.004998,,,,,,,,,,,,,,,,,,,,,,,,,,,,,,,,,,,,,,,,,,,,,,,,,,,,,,,,,,,,,,,,,
20478,1648952764.588373,1648952764.607291,93.0,0.0,4256.410156,4583.589844,4272.820313,4092.3076170000004,4105.641113000001,450.0,3.0,73.0,,,,0.0,0.0,0.0,0.0,1.0,0.0,0.0,,,,,,,,,,,,,,,,,,,,,,,,,,,,,,,,,,,,,,,,,,,,,,,,,,,,,,0.0,0.0,32.0,0.127434,1.0,0.0,,,,,,,,,,,,,,,,,,,,,,,,,
20479,1648952764.5961869,1648952764.615107,94.0,0.0,4060.512939,4832.307617,4090.7692869999996,4204.615234000001,4294.358886999999,450.0,3.0,73.0,,,,0.0,0.0,0.0,0.0,1.0,0.0,0.0,,,,,,,,47.0,0.0,0.8502139999999999,-0.06665,0.12475599999999999,0.50708,0.282719,-0.011231,-0.9677879999999999,0.010564,-0.025594,-0.010944,,,,,,,,,,,,,,,,,,,,,,,,,,,,,,,,,,,,,,,,,,,,,,,,,,,,,,,,,,,,,,,,,
20480,1648952764.604002,1648952764.623022,95.0,0.0,4454.871582,4933.333496,4037.9487299999996,4579.487305,4586.153809,0.0,3.0,73.0,,,,0.0,0.0,0.0,0.0,1.0,0.0,0.0,,,,,,,,,,,,,,,,,,,,,,,,,,,,,,,,,,,,,,,,,,,,,,,,,,,,,,,,,,,,,,,,,,,,,,,,,,,,,,,,,,,,
20481,1648952764.611817,1648952764.6308382,96.0,0.0,4493.333496,4638.461426,4103.077147999999,4403.589844,4422.563965,450.0,3.0,73.0,,,,0.0,0.0,0.0,0.0,1.0,0.0,0.0,,,,,,,,48.0,0.0,0.8502139999999999,-0.06665,0.12475599999999999,0.50708,0.291997,-0.0043950000000000005,-0.988785,0.010826,-0.025525,-0.016295,,,,,,,,,,,,,,,,,,,,,,,,,,,,,,,,,,,,,,,,,,,,,,,,,,,,,,,,,,,,,,,,,
20482,1648952764.619631,1648952764.638753,97.0,0.0,4114.871582,4505.641113000001,4054.8718259999996,4029.2307130000004,4251.282227000001,450.0,3.0,73.0,,,,0.0,0.0,0.0,0.0,1.0,0.0,0.0,,,,,,,,,,,,,,,,,,,,1.0,0.0,0.0,,,,,,,,,,,,,,,,,,,,,,,,,,,,,,,,0.0,0.0,32.0,0.12880999999999998,1.0,0.0,52.827839000000004,20.416992,84.493881,33.566565999999995,401.090027,85.675751,35.698353000000004,37.35125,55.601078,65.528297,374.372223,240.83918799999998,547.824402,58.980433999999995,87.115967,74.31750500000001,63.493839,174.23286399999998,95.435707,396.372528,36.514362,57.218990000000005,171.9608,44.200577,290.35858199999996
20483,1648952764.6274462,1648952764.646569,98.0,0.0,4170.769043,4745.641113000001,4058.974365,4175.384765999999,4363.589844,450.0,3.0,73.0,,,,0.0,0.0,0.0,0.0,1.0,0.0,0.0,,,,,,,,49.0,0.0,0.85025,-0.06665,0.12451199999999998,0.50708,0.291997,-0.005371,-0.99025,0.011159,-0.025561,-0.008611,,,,,,,,,,,,,,,,,,,,,,,,,,,,,,,,,,,,,,,,,,,,,,,,,,,,,,,,,,,,,,,,,
20484,1648952764.6352599,1648952764.654484,99.0,0.0,4553.846191,4765.128418,4178.974121,4568.205078,4449.743652,0.0,3.0,73.0,,,,0.0,0.0,0.0,0.0,1.0,0.0,0.0,,,,,,,,,,,,,,,,,,,,,,,,,,,,,,,,,,,,,,,,,,,,,,,,,,,,,,,,,,,,,,,,,,,,,,,,,,,,,,,,,,,,
20485,1648952764.643075,1648952764.6623,100.0,0.0,4459.487305,4593.846191,4221.025879,4469.230957,4286.153809,450.0,3.0,73.0,,,,0.0,0.0,0.0,0.0,1.0,0.0,0.0,,,,,,,,50.0,0.0,0.8502139999999999,-0.06665,0.12475599999999999,0.50708,0.29688000000000003,-0.0063479999999999995,-0.988785,0.009798999999999999,-0.025495,-0.004527000000000001,,,,,,,,,,,,,,,,,,,,,,,,,,,,,,,,,,,,,,,,,,,,,,,,,,,,,,,,,,,,,,,,,
20486,1648952764.6508892,1648952764.6702151,101.0,0.0,4209.743652,4727.179688,4025.1281740000004,4180.0,4311.794922,450.0,3.0,73.0,,,,0.0,0.0,0.0,0.0,1.0,0.0,0.0,,,,,,,,,,,,,,,,,,,,,,,,,,,,,,,,,,,,,,,,,,,,,,,,,,,,,,0.0,0.0,32.0,0.12880999999999998,1.0,0.0,,,,,,,,,,,,,,,,,,,,,,,,,
20487,1648952764.6587038,1648952764.678131,102.0,0.0,4440.512695,4875.384765999999,4030.256348,4186.666504,4546.153809,450.0,3.0,73.0,,,,0.0,0.0,0.0,0.0,1.0,0.0,0.0,,,,,,,,51.0,0.0,0.850269,-0.06640599999999999,0.12451199999999998,0.50708,0.294926,-0.008789,-0.9707180000000001,0.011895999999999999,-0.025533,-0.010569,,,,,,,,,,,,,,,,,,,,,,,,,,,,,,,,,,,,,,,,,,,,,,,,,,,,,,,,,,,,,,,,,
20488,1648952764.666518,1648952764.6859472,103.0,0.0,4683.077147999999,4782.563965,4302.563965,4333.846191,4478.461426,0.0,3.0,73.0,,,,0.0,0.0,0.0,0.0,1.0,0.0,0.0,,,,,,,,,,,,,,,,,,,,,,,,,,,,,,,,,,,,,,,,,,,,,,,,,,,,,,,,,,,,,,,,,,,,,,,,,,,,,,,,,,,,
20489,1648952764.674333,1648952764.6938632,104.0,0.0,4401.538574,4824.102539,4349.230957,4243.589844,4158.461426,450.0,3.0,73.0,,,,0.0,0.0,0.0,0.0,1.0,0.0,0.0,,,,,,,,52.0,0.0,0.8502139999999999,-0.06665,0.12475599999999999,0.50708,0.289067,0.000488,-0.985367,0.009046,-0.025421,-0.0061909999999999995,,,,,,,,,,,,,,,,,,,,,,,,,,,,,,,,,,,,,,,,,,,,,,,,,,,,,,,,,,,,,,,,,
20490,1648952764.682147,1648952764.701679,105.0,0.0,4252.820313,4861.538574,4177.94873,4306.153809,4233.846191,450.0,3.0,73.0,,,,0.0,0.0,0.0,0.0,1.0,0.0,0.0,,,,,,,,,,,,,,,,,,,,,,,,,,,,,,,,,,,,,,,,,,,,,,,,,,,,,,0.0,0.0,32.0,0.12880999999999998,1.0,0.0,,,,,,,,,,,,,,,,,,,,,,,,,
20491,1648952764.689962,1648952764.709594,106.0,0.0,4474.358886999999,4648.205078,4192.820313,4505.128418,4411.794922,450.0,3.0,73.0,,,,0.0,0.0,0.0,0.0,1.0,0.0,0.0,,,,,,,,53.0,0.0,0.8502139999999999,-0.06665,0.12475599999999999,0.50708,0.290044,-0.0063479999999999995,-0.978042,0.00946,-0.025369,-0.012018000000000001,,,,,,,,,,,,,,,,,,,,,,,,,,,,,,,,,,,,,,,,,,,,,,,,,,,,,,,,,,,,,,,,,
20492,1648952764.697776,1648952764.7174098,107.0,0.0,4487.179688,4602.05127,4187.692383,4346.666504,4261.538574,0.0,3.0,73.0,,,,0.0,0.0,0.0,0.0,1.0,0.0,0.0,,,,,,,,,,,,,,,,,,,,,,,,,,,,,,,,,,,,,,,,,,,,,,,,,,,,,,,,,,,,,,,,,,,,,,,,,,,,,,,,,,,,
20493,1648952764.705591,1648952764.725326,108.0,0.0,4193.846191,4880.512695,4075.897461,4035.897461,4188.717772999999,450.0,3.0,73.0,,,,0.0,0.0,0.0,0.0,1.0,0.0,0.0,,,,,,,,54.0,0.0,0.8502139999999999,-0.06665,0.12475599999999999,0.50708,0.29395,-0.0058590000000000005,-0.985367,0.006756,-0.025372,-0.007495,,,,,,,,,,,,,,,,,,,,,,,,,,,,,,,,,,,,,,,,,,,,,,,,,,,,,,,,,,,,,,,,,
20494,1648952764.7134051,1648952764.733142,109.0,0.0,4240.512695,4914.358886999999,4111.794922,4227.692383,4416.410156,450.0,3.0,73.0,,,,0.0,0.0,0.0,0.0,1.0,0.0,0.0,,,,,,,,,,,,,,,,,,,,,,,,,,,,,,,,,,,,,,,,,,,,,,,,,,,,,,0.0,0.0,32.0,0.12880999999999998,1.0,0.0,,,,,,,,,,,,,,,,,,,,,,,,,
20495,1648952764.72122,1648952764.741057,110.0,0.0,4534.871582,4650.769043,4263.077147999999,4600.512695,4456.922852000001,450.0,3.0,73.0,,,,0.0,0.0,0.0,0.0,1.0,0.0,0.0,,,,,,,,55.0,0.0,0.8502139999999999,-0.06665,0.12475599999999999,0.50708,0.294926,-0.008301000000000001,-0.979507,0.006031,-0.025471,-0.013191,,,,,,,,,,,,,,,,,,,,,,,,,,,,,,,,,,,,,,,,,,,,,,,,,,,,,,,,,,,,,,,,,
20496,1648952764.729035,1648952764.748873,111.0,0.0,4480.0,4709.743652,4291.794922,4457.436035,4176.922852000001,0.0,3.0,73.0,,,,0.0,0.0,0.0,0.0,1.0,0.0,0.0,,,,,,,,,,,,,,,,,,,,,,,,,,,,,,,,,,,,,,,,,,,,,,,,,,,,,,,,,,,,,,,,,,,,,,,,,,,,,,,,,,,,
20497,1648952764.736849,1648952764.756788,112.0,0.0,4221.538574,4998.974121,4204.615234000001,4103.589844,4195.384765999999,450.0,3.0,73.0,,,,0.0,0.0,0.0,0.0,1.0,0.0,0.0,,,,,,,,56.0,0.0,0.8502139999999999,-0.06665,0.12475599999999999,0.50708,0.298344,-0.021973,-0.98146,0.006843999999999999,-0.025414,-0.018269,,,,,,,,,,,,,,,,,,,,,,,,,,,,,,,,,,,,,,,,,,,,,,,,,,,,,,,,,,,,,,,,,
20498,1648952764.744664,1648952764.7646039,113.0,0.0,4322.563965,4890.256348,4158.974121,4124.102539,4630.256348,450.0,3.0,73.0,,,,0.0,0.0,0.0,0.0,1.0,0.0,0.0,,,,,,,,,,,,,,,,,,,,1.0,0.0,0.0,,,,,,,,,,,,,,,,,,,,,,,,,,,,,,,,0.0,0.0,32.0,0.131268,1.0,0.0,49.100945,18.24194,75.189438,33.955436999999996,401.112549,74.194214,28.224733,35.722297999999995,58.129711,67.537399,449.800659,245.793961,538.7851559999999,61.152122,84.421242,59.884602,54.454411,149.88536100000002,95.563194,393.094604,36.09935,48.392097,178.20015,52.545124,313.550232
20499,1648952764.752478,1648952764.7725189,114.0,0.0,4579.487305,4631.794922,4356.410156,4433.846191,4677.436035,450.0,3.0,73.0,,,,0.0,0.0,0.0,0.0,1.0,0.0,0.0,,,,,,,,57.0,0.0,0.850233,-0.06640599999999999,0.12475599999999999,0.50708,0.294926,-0.015137000000000001,-0.9751129999999999,0.007576,-0.025461,-0.022838,,,,,,,,,,,,,,,,,,,,,,,,,,,,,,,,,,,,,,,,,,,,,,,,,,,,,,,,,,,,,,,,,
20500,1648952764.760293,1648952764.780335,115.0,0.0,4382.563965,4791.794922,4511.794922,4445.128418,4152.307617,0.0,3.0,73.0,,,,0.0,0.0,0.0,0.0,1.0,0.0,0.0,,,,,,,,,,,,,,,,,,,,,,,,,,,,,,,,,,,,,,,,,,,,,,,,,,,,,,,,,,,,,,,,,,,,,,,,,,,,,,,,,,,,
20501,1648952764.768108,1648952764.78825,116.0,0.0,4171.282227000001,4934.871582,4291.282227000001,4226.666504,4091.794922,450.0,3.0,73.0,,,,0.0,0.0,0.0,0.0,1.0,0.0,0.0,,,,,,,,58.0,0.0,0.850233,-0.06640599999999999,0.12475599999999999,0.50708,0.287114,-0.013672,-0.984878,0.0050609999999999995,-0.025552000000000002,-0.017332,,,,,,,,,,,,,,,,,,,,,,,,,,,,,,,,,,,,,,,,,,,,,,,,,,,,,,,,,,,,,,,,,
20502,1648952764.775922,1648952764.796166,117.0,0.0,4360.512695,4690.769043,4134.871582,4204.615234000001,4521.025879,450.0,3.0,73.0,,,,0.0,0.0,0.0,0.0,1.0,0.0,0.0,,,,,,,,,,,,,,,,,,,,,,,,,,,,,,,,,,,,,,,,,,,,,,,,,,,,,,0.0,0.0,32.0,0.131268,1.0,0.0,,,,,,,,,,,,,,,,,,,,,,,,,
20503,1648952764.783737,1648952764.803982,118.0,0.0,4526.153809,4596.922852000001,4182.05127,4329.230957,4465.128418,450.0,3.0,73.0,,,,0.0,0.0,0.0,0.0,1.0,0.0,0.0,,,,,,,,59.0,0.0,0.8502139999999999,-0.06665,0.12475599999999999,0.50708,0.29443800000000003,0.000488,-0.977066,0.005873,-0.025535,-0.021946,,,,,,,,,,,,,,,,,,,,,,,,,,,,,,,,,,,,,,,,,,,,,,,,,,,,,,,,,,,,,,,,,
20504,1648952764.7915509,1648952764.811898,119.0,0.0,4312.820313,4793.846191,4146.153809,4264.615234000001,4146.666504,0.0,3.0,73.0,,,,0.0,0.0,0.0,0.0,1.0,0.0,0.0,,,,,,,,,,,,,,,,,,,,,,,,,,,,,,,,,,,,,,,,,,,,,,,,,,,,,,,,,,,,,,,,,,,,,,,,,,,,,,,,,,,,
20505,1648952764.799366,1648952764.819714,120.0,0.0,4277.94873,4766.666504,4187.179688,4302.563965,4336.410156,450.0,3.0,73.0,,,,0.0,0.0,0.0,0.0,1.0,0.0,0.0,,,,,,,,60.0,0.0,0.8502139999999999,-0.06665,0.12475599999999999,0.50708,0.289555,-0.007324,-0.9873200000000001,0.008166,-0.025472,-0.026197,,,,,,,,,,,,,,,,,,,,,,,,,,,,,,,,,,,,,,,,,,,,,,,,,,,,,,,,,,,,,,,,,
20506,1648952764.8071802,1648952764.827529,121.0,0.0,4477.436035,4592.307617,4434.871582,4425.641113000001,4470.256348,450.0,3.0,73.0,,,,0.0,0.0,0.0,0.0,1.0,0.0,0.0,,,,,,,,,,,,,,,,,,,,,,,,,,,,,,,,,,,,,,,,,,,,,,,,,,,,,,0.0,0.0,32.0,0.131268,1.0,0.0,,,,,,,,,,,,,,,,,,,,,,,,,
20507,1648952764.8149948,1648952764.835445,122.0,0.0,4445.128418,4726.153809,4400.0,4310.256348,4225.128418,450.0,3.0,73.0,,,,0.0,0.0,0.0,0.0,1.0,0.0,0.0,,,,,,,,61.0,0.0,0.8502139999999999,-0.06665,0.12475599999999999,0.50708,0.294926,-0.010254000000000001,-0.9799950000000001,0.008815,-0.025463999999999997,-0.029876,,,,,,,,,,,,,,,,,,,,,,,,,,,,,,,,,,,,,,,,,,,,,,,,,,,,,,,,,,,,,,,,,
20508,1648952764.822809,1648952764.843261,123.0,0.0,4187.179688,4956.410156,4138.461426,4093.3332520000004,4254.871582,0.0,3.0,73.0,,,,0.0,0.0,0.0,0.0,1.0,0.0,0.0,,,,,,,,,,,,,,,,,,,,,,,,,,,,,,,,,,,,,,,,,,,,,,,,,,,,,,,,,,,,,,,,,,,,,,,,,,,,,,,,,,,,
20509,1648952764.830624,1648952764.851176,124.0,0.0,4258.974121,4851.794922,4137.94873,4256.922852000001,4622.563965,450.0,3.0,73.0,,,,0.0,0.0,0.0,0.0,1.0,0.0,0.0,,,,,,,,62.0,0.0,0.850359,-0.06665,0.12475599999999999,0.506836,0.291997,-0.018067,-0.982925,0.006078,-0.025408,-0.023568000000000002,,,,,,,,,,,,,,,,,,,,,,,,,,,,,,,,,,,,,,,,,,,,,,,,,,,,,,,,,,,,,,,,,
20510,1648952764.838438,1648952764.858992,125.0,0.0,4541.538574,4665.641113000001,4387.692383,4555.897461,4495.384765999999,450.0,3.0,73.0,,,,0.0,0.0,0.0,0.0,1.0,0.0,0.0,,,,,,,,,,,,,,,,,,,,,,,,,,,,,,,,,,,,,,,,,,,,,,,,,,,,,,0.0,0.0,32.0,0.131268,1.0,0.0,,,,,,,,,,,,,,,,,,,,,,,,,
20511,1648952764.846253,1648952764.8669071,126.0,0.0,4438.974121,4768.205078,4450.769043,4410.769043,4095.384521,450.0,3.0,73.0,,,,0.0,0.0,0.0,0.0,1.0,0.0,0.0,,,,,,,,63.0,0.0,0.850359,-0.06665,0.12475599999999999,0.506836,0.289067,-0.016114,-0.976577,0.005275,-0.025406,-0.030489,,,,,,,,,,,,,,,,,,,,,,,,,,,,,,,,,,,,,,,,,,,,,,,,,,,,,,,,,,,,,,,,,
20512,1648952764.854067,1648952764.874723,127.0,0.0,4127.179688,4958.974121,4212.820313,4084.615479,4230.769043,238.0,3.0,73.0,,,,0.0,0.0,0.0,0.0,1.0,0.0,0.0,,,,,,,,,,,,,,,,,,,,,,,,,,,,,,,,,,,,,,,,,,,,,,,,,,,,,,,,,,,,,,,,,,,,,,,,,,,,,,,,,,,,
20513,1648952764.861882,1648952764.882638,0.0,0.0,4248.205078,4870.769043,4061.025635,4183.077147999999,4610.256348,450.0,3.0,73.0,,,,0.0,0.0,0.0,0.0,1.0,0.0,0.0,,,,,,,,0.0,0.0,0.8502139999999999,-0.06665,0.12475599999999999,0.50708,0.294926,-0.010254000000000001,-0.9799950000000001,0.003038,-0.025454,-0.024169,,,,,,,,,,,,,,,,,,,,,,,,,,,,,,,,,,,,,,,,,,,,,,,,,,,,,,,,,,,,,,,,,
20514,1648952764.869697,1648952764.890554,1.0,0.0,4574.871582,4633.333496,4332.820313,4544.615234000001,4550.769043,450.0,3.0,73.0,,,,0.0,0.0,0.0,0.0,1.0,0.0,0.0,1.0,0.0,0.0,0.0,0.0,0.0,0.0,,,,,,,,,,,,,1.0,0.0,0.0,,,,,,,,,,,,,,,,,,,,,,,,,,,,,,,,0.0,0.0,32.0,0.13543,1.0,0.0,47.39822,17.000467,67.864616,41.141754,400.868317,61.720013,21.38884,36.777676,61.41264,75.826523,489.56942699999996,233.21792599999998,520.036438,70.470146,83.141052,52.377888,47.203635999999996,129.884735,96.61599,384.16513100000003,35.444088,39.361934999999995,179.66902199999998,60.22296899999999,338.647125
20515,1648952764.877511,1648952764.89837,2.0,0.0,4430.256348,4733.333496,4463.589844,4483.589844,4122.563965,0.0,3.0,73.0,,,,0.0,0.0,0.0,0.0,1.0,0.0,0.0,,,,,,,,1.0,0.0,0.850359,-0.06665,0.12475599999999999,0.506836,0.289067,-0.016114,-0.976577,0.002539,-0.025447,-0.031029,,,,,,,,,,,,,,,,,,,,,,,,,,,,,,,,,,,,,,,,,,,,,,,,,,,,,,,,,,,,,,,,,
20516,1648952764.885326,1648952764.906285,3.0,0.0,4171.282227000001,4944.102539,4213.846191,4152.820313,4138.461426,450.0,3.0,73.0,,,,0.0,0.0,0.0,0.0,1.0,0.0,0.0,,,,,,,,,,,,,,,,,,,,,,,,,,,,,,,,,,,,,,,,,,,,,,,,,,,,,,,,,,,,,,,,,,,,,,,,,,,,,,,,,,,,
20517,1648952764.89314,1648952764.914101,4.0,0.0,4374.358886999999,4755.384765999999,4189.743652,4165.128418,4535.384765999999,0.0,3.0,73.0,,,,0.0,0.0,0.0,0.0,1.0,0.0,0.0,,,,,,,,2.0,0.0,0.850359,-0.06665,0.12475599999999999,0.506836,0.292973,-0.011719,-0.9941559999999999,0.003604,-0.025637,-0.034274,,,,,,,,,,,,,,,,,,,,,,,,,,,,,,,,,,,,,,,,,,,,,,,,,,,,,,,,,,,,,,,,,
20518,1648952764.900955,1648952764.921917,5.0,0.0,4624.615234000001,4593.846191,4247.179688,4379.487305,4497.436035,450.0,3.0,73.0,,,,0.0,0.0,0.0,0.0,1.0,0.0,0.0,,,,,,,,,,,,,,,,,,,,,,,,,,,,,,,,,,,,,,,,,,,,,,,,,,,,,,0.0,0.0,32.0,0.13543,1.0,0.0,,,,,,,,,,,,,,,,,,,,,,,,,
20519,1648952764.908769,1648952764.929832,6.0,0.0,4386.153809,4789.743652,4094.358887,4288.205078,4155.897461,0.0,3.0,73.0,,,,0.0,0.0,0.0,0.0,1.0,0.0,0.0,,,,,,,,3.0,0.0,0.850359,-0.06665,0.12475599999999999,0.506836,0.291997,-0.011719,-0.9824370000000001,0.001436,-0.025612,-0.027526,,,,,,,,,,,,,,,,,,,,,,,,,,,,,,,,,,,,,,,,,,,,,,,,,,,,,,,,,,,,,,,,,
20520,1648952764.916584,1648952764.937748,7.0,0.0,4278.461426,4796.410156,4161.025879,4242.563965,4314.871582,450.0,3.0,73.0,,,,0.0,0.0,0.0,0.0,1.0,0.0,0.0,,,,,,,,,,,,,,,,,,,,,,,,,,,,,,,,,,,,,,,,,,,,,,,,,,,,,,,,,,,,,,,,,,,,,,,,,,,,,,,,,,,,
20521,1648952764.9243991,1648952764.945563,8.0,0.0,4475.897461,4642.563965,4473.333496,4337.436035,4528.717772999999,450.0,3.0,73.0,,,,0.0,0.0,0.0,0.0,1.0,0.0,0.0,,,,,,,,4.0,0.0,0.850359,-0.06665,0.12475599999999999,0.506836,0.291997,-0.01709,-0.9873200000000001,0.002611,-0.025639,-0.03117,,,,,,,,,,,,,,,,,,,,,,,,,,,,,,,,,,,,,,,,,,,,,,,,,,,,,,,,,,,,,,,,,
20522,1648952764.932213,1648952764.9534788,9.0,0.0,4437.94873,4841.025879,4352.820313,4275.897461,4333.846191,0.0,3.0,73.0,,,,0.0,0.0,0.0,0.0,0.0,0.0,0.0,,,,,,,,,,,,,,,,,,,,,,,,,,,,,,,,,,,,,,,,,,,,,,,,,,,,,,0.0,0.0,32.0,0.13543,1.0,0.0,,,,,,,,,,,,,,,,,,,,,,,,,
20523,1648952764.940028,1648952764.961294,10.0,0.0,4174.358886999999,5038.461426,4075.384521,4107.692383,4290.769043,450.0,3.0,73.0,,,,0.0,0.0,0.0,0.0,0.0,0.0,0.0,,,,,,,,5.0,0.0,0.850359,-0.06665,0.12475599999999999,0.506836,0.289555,-0.010254000000000001,-0.980972,0.002252,-0.025613999999999998,-0.037380000000000004,,,,,,,,,,,,,,,,,,,,,,,,,,,,,,,,,,,,,,,,,,,,,,,,,,,,,,,,,,,,,,,,,
20524,1648952764.947842,1648952764.96921,11.0,0.0,4290.769043,4818.461426,4180.512695,4285.128418,4546.153809,0.0,3.0,73.0,,,,0.0,0.0,0.0,0.0,0.0,0.0,0.0,,,,,,,,,,,,,,,,,,,,,,,,,,,,,,,,,,,,,,,,,,,,,,,,,,,,,,,,,,,,,,,,,,,,,,,,,,,,,,,,,,,,
20525,1648952764.955657,1648952764.977025,12.0,0.0,4514.871582,4611.282227000001,4373.333496,4562.563965,4469.230957,450.0,3.0,73.0,,,,0.0,0.0,0.0,0.0,0.0,0.0,0.0,,,,,,,,6.0,0.0,0.8503229999999999,-0.06665,0.125,0.506836,0.299809,-0.011231,-0.987808,0.005006,-0.025787,-0.040038,,,,,,,,,,,,,,,,,,,,,,,,,,,,,,,,,,,,,,,,,,,,,,,,,,,,,,,,,,,,,,,,,
20526,1648952764.9634712,1648952764.984941,13.0,0.0,4369.743652,4810.256348,4338.974121,4403.077147999999,4172.307617,450.0,3.0,73.0,,,,0.0,0.0,0.0,0.0,0.0,0.0,0.0,,,,,,,,,,,,,,,,,,,,,,,,,,,,,,,,,,,,,,,,,,,,,,,,,,,,,,0.0,0.0,32.0,0.13543,1.0,0.0,,,,,,,,,,,,,,,,,,,,,,,,,
20527,1648952764.9712858,1648952764.9927561,14.0,0.0,4158.974121,4988.717772999999,4363.077147999999,4092.820557,4304.102539,450.0,3.0,73.0,,,,0.0,0.0,0.0,0.0,0.0,0.0,0.0,,,,,,,,7.0,0.0,0.8503229999999999,-0.06665,0.125,0.506836,0.288579,-0.008789,-0.984878,0.006019,-0.025845,-0.042381999999999996,,,,,,,,,,,,,,,,,,,,,,,,,,,,,,,,,,,,,,,,,,,,,,,,,,,,,,,,,,,,,,,,,
20528,1648952764.9791,1648952765.000672,15.0,0.0,4318.974121,4742.563965,4335.897461,4226.153809,4701.025879,0.0,3.0,73.0,,,,0.0,0.0,0.0,0.0,0.0,0.0,0.0,,,,,,,,,,,,,,,,,,,,,,,,,,,,,,,,,,,,,,,,,,,,,,,,,,,,,,,,,,,,,,,,,,,,,,,,,,,,,,,,,,,,
20529,1648952764.986915,1648952765.0084882,16.0,0.0,4551.282227000001,4593.333496,4081.538574,4461.025879,4569.230957,0.0,3.0,73.0,,,,0.0,0.0,0.0,0.0,0.0,0.0,0.0,,,,,,,,8.0,0.0,0.8503040000000001,-0.06689500000000001,0.125,0.506836,0.29736799999999997,-0.008301000000000001,-0.9668120000000001,0.006833,-0.025849,-0.034824,,,,,,,,,,,,,,,,,,,,,,,,,,,,,,,,,,,,,,,,,,,,,,,,,,,,,,,,,,,,,,,,,
20530,1648952764.9947288,1648952765.016403,17.0,0.0,4447.179688,4843.589844,4070.256348,4204.615234000001,4170.769043,0.0,3.0,73.0,,,,0.0,0.0,0.0,0.0,0.0,0.0,0.0,,,,,,,,,,,,,,,,,,,,1.0,0.0,0.0,,,,,,,,,,,,,,,,,,,,,,,,,,,,,,,,0.0,0.0,32.0,0.147722,1.0,0.0,46.994602,16.808178,63.161094999999996,55.729176,398.762207,49.941563,18.02351,39.894096000000005,65.207611,90.998711,477.43057300000004,206.247757,477.91177400000004,85.801163,84.67932900000001,49.722614,45.26178,113.83622,98.981476,371.891968,33.251682,32.2812,172.537689,66.878555,364.072693
20531,1648952765.002544,1648952765.024219,18.0,0.0,4278.461426,4848.205078,4457.94873,4110.769043,4365.641113000001,0.0,3.0,73.0,,,,0.0,0.0,0.0,0.0,0.0,0.0,0.0,,,,,,,,9.0,0.0,0.8503040000000001,-0.06689500000000001,0.125,0.506836,0.292973,-0.00293,-0.9834129999999999,0.007566,-0.025851999999999997,-0.028167,,,,,,,,,,,,,,,,,,,,,,,,,,,,,,,,,,,,,,,,,,,,,,,,,,,,,,,,,,,,,,,,,
20532,1648952765.010358,1648952765.032134,19.0,0.0,4253.333496,4646.153809,4446.153809,4503.077147999999,4603.077147999999,0.0,3.0,73.0,,,,0.0,0.0,0.0,0.0,0.0,0.0,0.0,,,,,,,,,,,,,,,,,,,,,,,,,,,,,,,,,,,,,,,,,,,,,,,,,,,,,,,,,,,,,,,,,,,,,,,,,,,,,,,,,,,,
20533,1648952765.018173,1648952765.03995,20.0,0.0,4289.743652,4846.666504,4064.102539,4540.0,4352.307617,0.0,3.0,73.0,,,,0.0,0.0,0.0,0.0,0.0,0.0,0.0,,,,,,,,10.0,0.0,0.850159,-0.06689500000000001,0.125,0.50708,0.298344,-0.009276999999999999,-0.9858549999999999,0.009739,-0.025855,-0.031747000000000004,,,,,,,,,,,,,,,,,,,,,,,,,,,,,,,,,,,,,,,,,,,,,,,,,,,,,,,,,,,,,,,,,
20534,1648952765.025988,1648952765.0478652,21.0,0.0,4275.897461,4983.077147999999,4085.1281740000004,4122.05127,4237.94873,0.0,3.0,73.0,,,,0.0,0.0,0.0,0.0,0.0,0.0,0.0,,,,,,,,,,,,,,,,,,,,,,,,,,,,,,,,,,,,,,,,,,,,,,,,,,,,,,0.0,0.0,32.0,0.147722,1.0,0.0,,,,,,,,,,,,,,,,,,,,,,,,,
20535,1648952765.033802,1648952765.055681,22.0,0.0,4442.05127,4703.589844,4249.743652,4146.153809,4543.077147999999,0.0,3.0,73.0,,,,0.0,0.0,0.0,0.0,0.0,0.0,0.0,,,,,,,,11.0,0.0,0.850159,-0.06689500000000001,0.125,0.50708,0.292973,-0.009276999999999999,-0.975601,0.007154000000000001,-0.025807999999999998,-0.025252,,,,,,,,,,,,,,,,,,,,,,,,,,,,,,,,,,,,,,,,,,,,,,,,,,,,,,,,,,,,,,,,,
20536,1648952765.041617,1648952765.063596,23.0,0.0,4586.666504,4608.205078,4193.846191,4380.0,4502.05127,0.0,3.0,73.0,,,,0.0,0.0,0.0,0.0,0.0,0.0,0.0,,,,,,,,,,,,,,,,,,,,,,,,,,,,,,,,,,,,,,,,,,,,,,,,,,,,,,,,,,,,,,,,,,,,,,,,,,,,,,,,,,,,
20537,1648952765.049431,1648952765.071512,24.0,0.0,4435.897461,4888.205078,4183.077147999999,4243.077147999999,4183.077147999999,0.0,3.0,73.0,,,,0.0,0.0,0.0,0.0,0.0,0.0,0.0,,,,,,,,12.0,0.0,0.850159,-0.06689500000000001,0.125,0.50708,0.300786,-0.012206999999999999,-0.981949,0.007854,-0.025669,-0.029026,,,,,,,,,,,,,,,,,,,,,,,,,,,,,,,,,,,,,,,,,,,,,,,,,,,,,,,,,,,,,,,,,
20538,1648952765.0572462,1648952765.0793278,25.0,0.0,4150.769043,4986.153809,4283.589844,4054.8718259999996,4267.179688,0.0,3.0,73.0,,,,0.0,0.0,0.0,0.0,0.0,0.0,0.0,,,,,,,,,,,,,,,,,,,,,,,,,,,,,,,,,,,,,,,,,,,,,,,,,,,,,,0.0,0.0,32.0,0.147722,1.0,0.0,,,,,,,,,,,,,,,,,,,,,,,,,
20539,1648952765.06506,1648952765.087244,26.0,0.0,4293.846191,4730.256348,4174.358886999999,4275.897461,4634.358886999999,0.0,3.0,73.0,,,,0.0,0.0,0.0,0.0,0.0,0.0,0.0,,,,,,,,13.0,0.0,0.850159,-0.06689500000000001,0.125,0.50708,0.286625,-0.009766,-0.985367,0.006825,-0.025641000000000004,-0.022852,,,,,,,,,,,,,,,,,,,,,,,,,,,,,,,,,,,,,,,,,,,,,,,,,,,,,,,,,,,,,,,,,
20540,1648952765.072875,1648952765.095059,27.0,0.0,4600.512695,4601.538574,4116.922852000001,4381.025879,4522.563965,0.0,3.0,73.0,,,,0.0,0.0,0.0,0.0,0.0,0.0,0.0,,,,,,,,,,,,,,,,,,,,,,,,,,,,,,,,,,,,,,,,,,,,,,,,,,,,,,,,,,,,,,,,,,,,,,,,,,,,,,,,,,,,
20541,1648952765.0806901,1648952765.102975,28.0,0.0,4440.0,4796.922852000001,4277.94873,4164.102539,4188.717772999999,0.0,3.0,73.0,,,,0.0,0.0,0.0,0.0,0.0,0.0,0.0,,,,,,,,14.0,0.0,0.8503040000000001,-0.06689500000000001,0.125,0.506836,0.285161,-0.030274000000000002,-0.9858549999999999,0.005898,-0.025713999999999997,-0.027012,,,,,,,,,,,,,,,,,,,,,,,,,,,,,,,,,,,,,,,,,,,,,,,,,,,,,,,,,,,,,,,,,
20542,1648952765.0885038,1648952765.110791,29.0,0.0,4112.820313,4850.769043,4488.205078,4203.589844,4347.692383,0.0,3.0,73.0,,,,0.0,0.0,0.0,0.0,0.0,0.0,0.0,,,,,,,,,,,,,,,,,,,,,,,,,,,,,,,,,,,,,,,,,,,,,,,,,,,,,,0.0,0.0,32.0,0.147722,1.0,0.0,,,,,,,,,,,,,,,,,,,,,,,,,
20543,1648952765.096319,1648952765.118706,30.0,0.0,4260.512695,4602.563965,4333.846191,4544.615234000001,4655.897461,0.0,3.0,73.0,,,,0.0,0.0,0.0,0.0,0.0,0.0,0.0,,,,,,,,15.0,0.0,0.8503040000000001,-0.06689500000000001,0.125,0.506836,0.285649,-0.019043,-0.988296,0.003453,-0.025876999999999997,-0.021137,,,,,,,,,,,,,,,,,,,,,,,,,,,,,,,,,,,,,,,,,,,,,,,,,,,,,,,,,,,,,,,,,
20544,1648952765.104133,1648952765.126522,31.0,0.0,4570.256348,4622.563965,3977.9487299999996,4510.256348,4453.846191,0.0,3.0,73.0,,,,0.0,0.0,0.0,0.0,0.0,0.0,0.0,,,,,,,,,,,,,,,,,,,,,,,,,,,,,,,,,,,,,,,,,,,,,,,,,,,,,,,,,,,,,,,,,,,,,,,,,,,,,,,,,,,,
20545,1648952765.111948,1648952765.1344368,32.0,0.0,4483.077147999999,4890.769043,4068.205078,4092.3076170000004,4195.897461,0.0,3.0,73.0,,,,0.0,0.0,0.0,0.0,0.0,0.0,0.0,,,,,,,,16.0,0.0,0.8503040000000001,-0.06689500000000001,0.125,0.506836,0.290532,-0.001465,-0.980484,0.004524,-0.025827999999999997,-0.025371,,,,,,,,,,,,,,,,,,,,,,,,,,,,,,,,,,,,,,,,,,,,,,,,,,,,,,,,,,,,,,,,,
20546,1648952765.119762,1648952765.142253,33.0,0.0,4220.512695,4844.102539,4464.102539,4180.512695,4414.871582,0.0,3.0,73.0,,,,0.0,0.0,0.0,0.0,0.0,0.0,0.0,,,,,,,,,,,,,,,,,,,,1.0,0.0,0.0,,,,,,,,,,,,,,,,,,,,,,,,,,,,,,,,0.0,0.0,32.0,0.163136,1.0,0.0,46.679871,17.919539999999998,61.154095,74.94968399999999,394.31774900000005,40.197876,20.250173999999998,44.010471,68.559616,112.11478400000001,413.62616,170.839752,409.1138,104.748772,89.063919,48.736881,48.794121000000004,99.935913,103.214149,360.369263,29.245777,28.476671000000003,155.014465,72.676552,387.88324
20547,1648952765.127577,1648952765.150168,34.0,0.0,4199.487305,4732.307617,4363.589844,4612.820313,4537.94873,0.0,3.0,73.0,,,,0.0,0.0,0.0,0.0,0.0,0.0,0.0,,,,,,,,17.0,0.0,0.8503040000000001,-0.06689500000000001,0.125,0.506836,0.291508,-0.01709,-0.9922030000000001,0.005536,-0.025736000000000002,-0.029182,,,,,,,,,,,,,,,,,,,,,,,,,,,,,,,,,,,,,,,,,,,,,,,,,,,,,,,,,,,,,,,,,
20548,1648952765.135391,1648952765.157984,35.0,0.0,4301.025879,4780.0,4124.102539,4479.487305,4329.230957,0.0,3.0,73.0,,,,0.0,0.0,0.0,0.0,0.0,0.0,0.0,,,,,,,,,,,,,,,,,,,,,,,,,,,,,,,,,,,,,,,,,,,,,,,,,,,,,,,,,,,,,,,,,,,,,,,,,,,,,,,,,,,,
20549,1648952765.1432061,1648952765.165899,36.0,0.0,4234.358886999999,4679.487305,4254.358886999999,4093.8461909999996,4307.179688,0.0,3.0,73.0,,,,0.0,0.0,0.0,0.0,0.0,0.0,0.0,,,,,,,,18.0,0.0,0.8503040000000001,-0.06689500000000001,0.125,0.506836,0.298344,-0.013184,-0.9824370000000001,0.00469,-0.025799000000000002,-0.032708999999999995,,,,,,,,,,,,,,,,,,,,,,,,,,,,,,,,,,,,,,,,,,,,,,,,,,,,,,,,,,,,,,,,,
20550,1648952765.1510198,1648952765.173715,37.0,0.0,4325.128418,4628.717772999999,4156.410156,4312.820313,4578.461426,0.0,3.0,73.0,,,,0.0,0.0,0.0,0.0,0.0,0.0,0.0,,,,,,,,,,,,,,,,,,,,,,,,,,,,,,,,,,,,,,,,,,,,,,,,,,,,,,0.0,0.0,32.0,0.163136,1.0,0.0,,,,,,,,,,,,,,,,,,,,,,,,,
20551,1648952765.158835,1648952765.1816301,38.0,0.0,4505.128418,4803.589844,3946.6667479999996,4565.641113000001,4460.512695,0.0,3.0,73.0,,,,0.0,0.0,0.0,0.0,0.0,0.0,0.0,,,,,,,,19.0,0.0,0.850268,-0.06689500000000001,0.125244,0.506836,0.299809,-0.009276999999999999,-0.976577,0.00715,-0.025856,-0.035835000000000006,,,,,,,,,,,,,,,,,,,,,,,,,,,,,,,,,,,,,,,,,,,,,,,,,,,,,,,,,,,,,,,,,
20552,1648952765.166649,1648952765.1894462,39.0,0.0,4401.025879,4745.641113000001,4182.05127,4235.897461,4158.461426,0.0,3.0,73.0,,,,0.0,0.0,0.0,0.0,0.0,0.0,0.0,,,,,,,,,,,,,,,,,,,,,,,,,,,,,,,,,,,,,,,,,,,,,,,,,,,,,,,,,,,,,,,,,,,,,,,,,,,,,,,,,,,,
20553,1648952765.174464,1648952765.197362,40.0,0.0,4135.897461,4465.641113000001,4396.922852000001,4074.8718259999996,4296.922852000001,0.0,3.0,73.0,,,,0.0,0.0,0.0,0.0,0.0,0.0,0.0,,,,,,,,20.0,0.0,0.8502879999999999,-0.06665,0.125244,0.506836,0.300786,-0.011719,-0.98146,0.0077540000000000005,-0.025712,-0.038696,,,,,,,,,,,,,,,,,,,,,,,,,,,,,,,,,,,,,,,,,,,,,,,,,,,,,,,,,,,,,,,,,
20554,1648952765.1822789,1648952765.205177,41.0,0.0,4306.153809,4616.922852000001,4060.0,4487.692383,4651.794922,0.0,3.0,73.0,,,,0.0,0.0,0.0,0.0,0.0,0.0,0.0,,,,,,,,,,,,,,,,,,,,,,,,,,,,,,,,,,,,,,,,,,,,,,,,,,,,,,0.0,0.0,32.0,0.163136,1.0,0.0,,,,,,,,,,,,,,,,,,,,,,,,,
20555,1648952765.190093,1648952765.213093,42.0,0.0,4604.615234000001,4861.538574,3891.794922,4505.641113000001,4475.897461,0.0,3.0,73.0,,,,0.0,0.0,0.0,0.0,0.0,0.0,0.0,,,,,,,,21.0,0.0,0.8502879999999999,-0.06665,0.125244,0.506836,0.301274,-0.013672,-0.984878,0.010054,-0.02568,-0.041272,,,,,,,,,,,,,,,,,,,,,,,,,,,,,,,,,,,,,,,,,,,,,,,,,,,,,,,,,,,,,,,,,
20556,1648952765.197908,1648952765.221008,43.0,0.0,4399.487305,4600.512695,4178.974121,4110.256348,4201.538574,0.0,3.0,73.0,,,,0.0,0.0,0.0,0.0,0.0,0.0,0.0,,,,,,,,,,,,,,,,,,,,,,,,,,,,,,,,,,,,,,,,,,,,,,,,,,,,,,,,,,,,,,,,,,,,,,,,,,,,,,,,,,,,
20557,1648952765.205722,1648952765.2288241,44.0,0.0,4148.205078,4477.94873,4366.666504,4251.794922,4388.717772999999,0.0,3.0,73.0,,,,0.0,0.0,0.0,0.0,0.0,0.0,0.0,,,,,,,,22.0,0.0,0.850268,-0.06689500000000001,0.125244,0.506836,0.299809,-0.009276999999999999,-0.976577,0.011979,-0.025748000000000004,-0.043542000000000004,,,,,,,,,,,,,,,,,,,,,,,,,,,,,,,,,,,,,,,,,,,,,,,,,,,,,,,,,,,,,,,,,
20558,1648952765.213537,1648952765.23674,45.0,0.0,4401.538574,4788.717772999999,4167.692383,4686.666504,4523.589844,0.0,3.0,73.0,,,,0.0,0.0,0.0,0.0,0.0,0.0,0.0,,,,,,,,,,,,,,,,,,,,,,,,,,,,,,,,,,,,,,,,,,,,,,,,,,,,,,0.0,0.0,32.0,0.163136,1.0,0.0,,,,,,,,,,,,,,,,,,,,,,,,,
20559,1648952765.221351,1648952765.244556,46.0,0.0,4430.256348,4805.641113000001,4102.05127,4464.615234000001,4248.717772999999,0.0,3.0,73.0,,,,0.0,0.0,0.0,0.0,0.0,0.0,0.0,,,,,,,,23.0,0.0,0.850123,-0.06689500000000001,0.125244,0.50708,0.289555,-0.012206999999999999,-0.9799950000000001,0.012246,-0.025713,-0.033132999999999996,,,,,,,,,,,,,,,,,,,,,,,,,,,,,,,,,,,,,,,,,,,,,,,,,,,,,,,,,,,,,,,,,
20560,1648952765.229166,1648952765.2524712,47.0,0.0,4023.5898439999996,4623.589844,4153.846191,4165.128418,4208.717772999999,0.0,3.0,73.0,,,,0.0,0.0,0.0,0.0,0.0,0.0,0.0,,,,,,,,,,,,,,,,,,,,,,,,,,,,,,,,,,,,,,,,,,,,,,,,,,,,,,,,,,,,,,,,,,,,,,,,,,,,,,,,,,,,
20561,1648952765.2369812,1648952765.2602868,48.0,0.0,4169.230957,4740.512695,4048.718018,4462.563965,4525.128418,0.0,3.0,73.0,,,,0.0,0.0,0.0,0.0,0.0,0.0,0.0,,,,,,,,24.0,0.0,0.850123,-0.06689500000000001,0.125244,0.50708,0.287114,-0.020996,-0.980484,0.014,-0.025632,-0.036216000000000005,,,,,,,,,,,,,,,,,,,,,,,,,,,,,,,,,,,,,,,,,,,,,,,,,,,,,,,,,,,,,,,,,
20562,1648952765.2447948,1648952765.268203,49.0,0.0,4539.487305,4668.205078,4072.3076170000004,4514.871582,4484.102539,0.0,3.0,73.0,,,,0.0,0.0,0.0,0.0,0.0,0.0,0.0,,,,,,,,,,,,,,,,,,,,1.0,0.0,0.0,,,,,,,,,,,,,,,,,,,,,,,,,,,,,,,,0.0,0.0,32.0,0.110242,1.0,0.0,45.47504,20.263885000000002,61.406151,93.876671,387.905334,32.927338,28.01199,47.608551,70.114952,136.988678,315.646637,132.788544,323.492462,125.72435800000001,95.480591,46.918743,54.483986,86.68898,109.262474,353.564636,24.305858999999998,28.031851,128.546463,77.839783,408.405975
20563,1648952765.25261,1648952765.2760189,50.0,0.0,4229.230957,4466.666504,4217.94873,4122.563965,4226.153809,0.0,3.0,73.0,,,,0.0,0.0,0.0,0.0,0.0,0.0,0.0,,,,,,,,25.0,0.0,0.850123,-0.06689500000000001,0.125244,0.50708,0.297856,-0.02002,-0.98146,0.014015999999999999,-0.025705000000000002,-0.026393,,,,,,,,,,,,,,,,,,,,,,,,,,,,,,,,,,,,,,,,,,,,,,,,,,,,,,,,,,,,,,,,,
20564,1648952765.2604241,1648952765.283835,51.0,0.0,4047.6923829999996,4693.333496,4183.589844,4125.641113000001,4292.307617,0.0,3.0,73.0,,,,0.0,0.0,0.0,0.0,0.0,0.0,0.0,,,,,,,,,,,,,,,,,,,,,,,,,,,,,,,,,,,,,,,,,,,,,,,,,,,,,,,,,,,,,,,,,,,,,,,,,,,,,,,,,,,,
20565,1648952765.268239,1648952765.29175,52.0,0.0,4489.743652,4799.487305,4098.461426,4538.974121,4528.717772999999,0.0,3.0,73.0,,,,0.0,0.0,0.0,0.0,0.0,0.0,0.0,,,,,,,,26.0,0.0,0.850142,-0.06665,0.125244,0.50708,0.29102,-0.017578,-0.9873200000000001,0.014079,-0.025674000000000002,-0.017699,,,,,,,,,,,,,,,,,,,,,,,,,,,,,,,,,,,,,,,,,,,,,,,,,,,,,,,,,,,,,,,,,
20566,1648952765.276053,1648952765.299566,53.0,0.0,4496.410156,4608.205078,4148.205078,4492.307617,4351.282227000001,0.0,3.0,73.0,,,,0.0,0.0,0.0,0.0,0.0,0.0,0.0,,,,,,,,,,,,,,,,,,,,,,,,,,,,,,,,,,,,,,,,,,,,,,,,,,,,,,0.0,0.0,32.0,0.110242,1.0,0.0,,,,,,,,,,,,,,,,,,,,,,,,,
20567,1648952765.283868,1648952765.307481,54.0,0.0,4144.102539,4700.512695,4030.256348,4178.461426,4222.563965,0.0,3.0,73.0,,,,0.0,0.0,0.0,0.0,0.0,0.0,0.0,,,,,,,,27.0,0.0,0.850123,-0.06689500000000001,0.125244,0.50708,0.289555,-0.014159999999999999,-0.972671,0.012525,-0.025743000000000002,-0.025109,,,,,,,,,,,,,,,,,,,,,,,,,,,,,,,,,,,,,,,,,,,,,,,,,,,,,,,,,,,,,,,,,
20568,1648952765.291682,1648952765.315397,55.0,0.0,4314.358886999999,4862.05127,4029.2307130000004,4173.846191,4491.282227000001,0.0,3.0,73.0,,,,0.0,0.0,0.0,0.0,0.0,0.0,0.0,,,,,,,,,,,,,,,,,,,,,,,,,,,,,,,,,,,,,,,,,,,,,,,,,,,,,,,,,,,,,,,,,,,,,,,,,,,,,,,,,,,,
20569,1648952765.2994971,1648952765.323212,56.0,0.0,4660.0,4755.897461,4260.512695,4386.666504,4552.307617,0.0,3.0,73.0,,,,0.0,0.0,0.0,0.0,0.0,0.0,0.0,,,,,,,,28.0,0.0,0.850142,-0.06665,0.125244,0.50708,0.288579,-0.003418,-0.989273,0.014153,-0.025806,-0.029092000000000003,,,,,,,,,,,,,,,,,,,,,,,,,,,,,,,,,,,,,,,,,,,,,,,,,,,,,,,,,,,,,,,,,
20570,1648952765.3073108,1648952765.331128,57.0,0.0,4458.461426,4773.846191,4343.589844,4288.205078,4166.153809,0.0,3.0,73.0,,,,0.0,0.0,0.0,0.0,0.0,0.0,0.0,,,,,,,,,,,,,,,,,,,,,,,,,,,,,,,,,,,,,,,,,,,,,,,,,,,,,,0.0,0.0,32.0,0.110242,1.0,0.0,,,,,,,,,,,,,,,,,,,,,,,,,
20571,1648952765.315126,1648952765.339043,58.0,0.0,4262.05127,4840.512695,4237.436035,4274.358886999999,4131.794922,0.0,3.0,73.0,,,,0.0,0.0,0.0,0.0,0.0,0.0,0.0,,,,,,,,29.0,0.0,0.850142,-0.06665,0.125244,0.50708,0.289067,-0.003418,-0.978042,0.012445,-0.025715,-0.035363,,,,,,,,,,,,,,,,,,,,,,,,,,,,,,,,,,,,,,,,,,,,,,,,,,,,,,,,,,,,,,,,,
20572,1648952765.32294,1648952765.346859,59.0,0.0,4436.410156,4643.589844,4241.538574,4503.589844,4397.436035,0.0,3.0,73.0,,,,0.0,0.0,0.0,0.0,0.0,0.0,0.0,,,,,,,,,,,,,,,,,,,,,,,,,,,,,,,,,,,,,,,,,,,,,,,,,,,,,,,,,,,,,,,,,,,,,,,,,,,,,,,,,,,,
20573,1648952765.330755,1648952765.354675,60.0,0.0,4475.384765999999,4560.0,4254.358886999999,4411.794922,4290.256348,0.0,3.0,73.0,,,,0.0,0.0,0.0,0.0,0.0,0.0,0.0,,,,,,,,30.0,0.0,0.850123,-0.06689500000000001,0.125244,0.50708,0.289067,-0.010254000000000001,-0.979507,0.012616,-0.025781000000000002,-0.038174,,,,,,,,,,,,,,,,,,,,,,,,,,,,,,,,,,,,,,,,,,,,,,,,,,,,,,,,,,,,,,,,,
20574,1648952765.3385699,1648952765.362591,61.0,0.0,4216.410156,4781.538574,4123.589844,4072.3076170000004,4153.846191,0.0,3.0,73.0,,,,0.0,0.0,0.0,0.0,0.0,0.0,0.0,,,,,,,,,,,,,,,,,,,,,,,,,,,,,,,,,,,,,,,,,,,,,,,,,,,,,,0.0,0.0,32.0,0.110242,1.0,0.0,,,,,,,,,,,,,,,,,,,,,,,,,
20575,1648952765.346384,1648952765.3704062,62.0,0.0,4225.128418,4792.820313,4144.615234000001,4189.743652,4433.846191,0.0,3.0,73.0,,,,0.0,0.0,0.0,0.0,0.0,0.0,0.0,,,,,,,,31.0,0.0,0.850123,-0.06689500000000001,0.125244,0.50708,0.281254,-0.021973,-0.9702299999999999,0.012722,-0.025887999999999998,-0.028301999999999997,,,,,,,,,,,,,,,,,,,,,,,,,,,,,,,,,,,,,,,,,,,,,,,,,,,,,,,,,,,,,,,,,
20576,1648952765.354199,1648952765.3783221,63.0,0.0,4490.256348,4573.846191,4336.410156,4590.769043,4542.05127,0.0,3.0,73.0,,,,0.0,0.0,0.0,0.0,0.0,0.0,0.0,,,,,,,,,,,,,,,,,,,,,,,,,,,,,,,,,,,,,,,,,,,,,,,,,,,,,,,,,,,,,,,,,,,,,,,,,,,,,,,,,,,,
20577,1648952765.362013,1648952765.386137,64.0,0.0,4478.461426,4698.461426,4321.538574,4487.179688,4167.179688,450.0,3.0,73.0,,,,0.0,0.0,0.0,0.0,0.0,0.0,0.0,,,,,,,,32.0,0.0,0.850123,-0.06689500000000001,0.125244,0.50708,0.298344,-0.0063479999999999995,-0.980972,0.01438,-0.025789999999999997,-0.03182,,,,,,,,,,,,,,,,,,,,,,,,,,,,,,,,,,,,,,,,,,,,,,,,,,,,,,,,,,,,,,,,,
20578,1648952765.369828,1648952765.394053,65.0,0.0,4259.487305,4957.94873,4252.307617,4097.94873,4160.512695,450.0,3.0,73.0,,,,0.0,2.0,0.0,0.0,0.0,0.0,0.0,1.0,0.0,0.0,0.0,0.0,0.0,0.0,,,,,,,,,,,,,1.0,0.0,0.0,,,,,,,,,,,,,,,,,,,,,,,,,,,,,,,,0.0,0.0,32.0,0.097499,1.0,0.0,43.55291,23.51549,62.547408999999995,107.785599,380.216614,28.187898999999998,39.500816,48.852066,68.960831,162.907852,210.38853500000002,98.08371700000001,238.06968700000002,148.572632,103.57086899999999,43.614742,58.46348199999999,74.361801,115.73867,354.05816699999997,19.647514,30.151575,97.374962,82.275993,424.713745
20579,1648952765.377642,1648952765.4018679,66.0,0.0,4313.333496,4780.0,4348.717772999999,4145.128418,4676.922852000001,159.0,3.0,73.0,,,,0.0,2.0,0.0,0.0,0.0,0.0,0.0,,,,,,,,33.0,0.0,0.850123,-0.06689500000000001,0.125244,0.50708,0.291997,-0.004883,-0.99025,0.01426,-0.025799000000000002,-0.035082999999999996,,,,,,,,,,,,,,,,,,,,,,,,,,,,,,,,,,,,,,,,,,,,,,,,,,,,,,,,,,,,,,,,,
20580,1648952765.385457,1648952765.409784,67.0,0.0,4543.589844,4554.358886999999,4337.436035,4486.666504,4680.512695,450.0,3.0,73.0,,,,0.0,2.0,2.0,0.0,0.0,0.0,0.0,,,,,,,,,,,,,,,,,,,,,,,,,,,,,,,,,,,,,,,,,,,,,,,,,,,,,,,,,,,,,,,,,,,,,,,,,,,,,,,,,,,,
20581,1648952765.3932722,1648952765.417599,68.0,0.0,4453.333496,4750.256348,4207.692383,4385.128418,4156.922852000001,272.0,3.0,73.0,,,,0.0,2.0,2.0,0.0,0.0,0.0,0.0,,,,,,,,34.0,0.0,0.850268,-0.06689500000000001,0.125244,0.506836,0.29688000000000003,-0.009276999999999999,-0.98146,0.014299000000000001,-0.025758,-0.025519999999999998,,,,,,,,,,,,,,,,,,,,,,,,,,,,,,,,,,,,,,,,,,,,,,,,,,,,,,,,,,,,,,,,,
20582,1648952765.4010859,1648952765.425515,69.0,0.0,4334.871582,4832.307617,4367.692383,4182.05127,4222.05127,450.0,3.0,73.0,,,,0.0,2.0,2.0,0.0,0.0,0.0,0.0,,,,,,,,,,,,,,,,,,,,,,,,,,,,,,,,,,,,,,,,,,,,,,,,,,,,,,0.0,0.0,32.0,0.097499,1.0,0.0,,,,,,,,,,,,,,,,,,,,,,,,,
20583,1648952765.408901,1648952765.4334311,70.0,0.0,4353.333496,4671.794922,4534.358886999999,4313.333496,4584.615234000001,0.0,3.0,73.0,,,,0.0,2.0,2.0,0.0,0.0,0.0,0.0,,,,,,,,35.0,0.0,0.850268,-0.06689500000000001,0.125244,0.506836,0.300298,-0.009766,-0.9824370000000001,0.010965,-0.025720999999999997,-0.019648,,,,,,,,,,,,,,,,,,,,,,,,,,,,,,,,,,,,,,,,,,,,,,,,,,,,,,,,,,,,,,,,,
20584,1648952765.4167151,1648952765.441247,71.0,0.0,4333.846191,4783.589844,4229.743652,4375.384765999999,4379.487305,450.0,3.0,73.0,,,,0.0,2.0,2.0,0.0,0.0,0.0,0.0,,,,,,,,,,,,,,,,,,,,,,,,,,,,,,,,,,,,,,,,,,,,,,,,,,,,,,,,,,,,,,,,,,,,,,,,,,,,,,,,,,,,
20585,1648952765.42453,1648952765.4490619,72.0,0.0,4248.205078,4935.384765999999,3990.7692869999996,4169.743652,4137.94873,450.0,3.0,73.0,,,,0.0,2.0,2.0,0.0,0.0,0.0,0.0,,,,,,,,36.0,0.0,0.850123,-0.06689500000000001,0.125244,0.50708,0.291997,-0.004883,-0.99025,0.011187,-0.025737,-0.024128,,,,,,,,,,,,,,,,,,,,,,,,,,,,,,,,,,,,,,,,,,,,,,,,,,,,,,,,,,,,,,,,,
20586,1648952765.432344,1648952765.4569778,73.0,0.0,4396.410156,4743.589844,4208.717772999999,4247.692383,4424.102539,0.0,3.0,73.0,,,,0.0,2.0,2.0,0.0,0.0,0.0,0.0,,,,,,,,,,,,,,,,,,,,,,,,,,,,,,,,,,,,,,,,,,,,,,,,,,,,,,0.0,0.0,32.0,0.097499,1.0,0.0,,,,,,,,,,,,,,,,,,,,,,,,,
20587,1648952765.440159,1648952765.4648929,74.0,0.0,4502.05127,4625.128418,4498.461426,4428.717772999999,4514.358886999999,450.0,3.0,73.0,,,,0.0,2.0,2.0,0.0,0.0,0.0,0.0,,,,,,,,37.0,0.0,0.850268,-0.06689500000000001,0.125244,0.506836,0.294926,0.003906,-0.983902,0.011581999999999999,-0.025653,-0.015612000000000001,,,,,,,,,,,,,,,,,,,,,,,,,,,,,,,,,,,,,,,,,,,,,,,,,,,,,,,,,,,,,,,,,
20588,1648952765.447973,1648952765.472709,75.0,0.0,4328.717772999999,4838.974121,4385.641113000001,4314.358886999999,4275.897461,11.0,3.0,73.0,,,,0.0,2.0,2.0,0.0,0.0,0.0,0.0,,,,,,,,,,,,,,,,,,,,,,,,,,,,,,,,,,,,,,,,,,,,,,,,,,,,,,,,,,,,,,,,,,,,,,,,,,,,,,,,,,,,
20589,1648952765.4557881,1648952765.480624,76.0,0.0,4142.05127,4979.487305,4140.512695,4107.692383,4277.436035,450.0,3.0,73.0,,,,0.0,2.0,2.0,0.0,0.0,0.0,0.0,,,,,,,,38.0,0.0,0.850249,-0.067139,0.125244,0.506836,0.286137,-0.013184,-0.973648,0.013304,-0.025626999999999997,-0.020496,,,,,,,,,,,,,,,,,,,,,,,,,,,,,,,,,,,,,,,,,,,,,,,,,,,,,,,,,,,,,,,,,
20590,1648952765.463602,1648952765.48844,77.0,0.0,4267.179688,4797.94873,4160.0,4240.512695,4541.538574,450.0,3.0,73.0,,,,0.0,2.0,2.0,0.0,0.0,0.0,0.0,,,,,,,,,,,,,,,,,,,,,,,,,,,,,,,,,,,,,,,,,,,,,,,,,,,,,,0.0,0.0,32.0,0.097499,1.0,0.0,,,,,,,,,,,,,,,,,,,,,,,,,
20591,1648952765.471417,1648952765.496256,78.0,0.0,4492.820313,4600.512695,4371.794922,4577.436035,4517.436035,450.0,3.0,73.0,,,,0.0,2.0,2.0,0.0,0.0,0.0,0.0,,,,,,,,39.0,0.0,0.850249,-0.067139,0.125244,0.506836,0.29443800000000003,-0.0058590000000000005,-0.9907379999999999,0.010216,-0.025700999999999998,-0.015272999999999998,,,,,,,,,,,,,,,,,,,,,,,,,,,,,,,,,,,,,,,,,,,,,,,,,,,,,,,,,,,,,,,,,
20592,1648952765.479231,1648952765.5041711,79.0,0.0,4420.0,4747.692383,4360.512695,4487.692383,4213.846191,11.0,3.0,73.0,,,,0.0,2.0,2.0,0.0,0.0,0.0,0.0,,,,,,,,,,,,,,,,,,,,,,,,,,,,,,,,,,,,,,,,,,,,,,,,,,,,,,,,,,,,,,,,,,,,,,,,,,,,,,,,,,,,
20593,1648952765.487046,1648952765.5120869,80.0,0.0,4208.205078,4953.846191,4308.717772999999,4103.589844,4290.256348,450.0,3.0,73.0,,,,0.0,2.0,2.0,0.0,0.0,0.0,0.0,,,,,,,,40.0,0.0,0.850249,-0.067139,0.125244,0.506836,0.298833,-0.013672,-0.973648,0.00895,-0.025719,-0.007642,,,,,,,,,,,,,,,,,,,,,,,,,,,,,,,,,,,,,,,,,,,,,,,,,,,,,,,,,,,,,,,,,
20594,1648952765.494861,1648952765.519902,81.0,0.0,4289.743652,4767.692383,4364.615234000001,4173.846191,4691.282227000001,450.0,3.0,73.0,,,,0.0,2.0,2.0,0.0,0.0,0.0,0.0,,,,,,,,,,,,,,,,,,,,1.0,0.0,0.0,,,,,,,,,,,,,,,,,,,,,,,,,,,,,,,,0.0,0.0,32.0,0.090787,1.0,0.0,41.553955,27.178587,63.034351,114.227043,372.257538,25.124489,51.923404999999995,46.662483,64.633415,187.14579799999998,122.359375,71.0242,166.689316,173.33223,114.26992,39.448257,58.313488,63.884563,120.344879,362.773865,16.404367,33.116879,66.926224,85.55883,436.608643
20595,1648952765.502675,1648952765.527818,82.0,0.0,4532.307617,4564.102539,4224.615234000001,4516.410156,4632.307617,450.0,3.0,73.0,,,,0.0,2.0,2.0,0.0,0.0,0.0,0.0,,,,,,,,41.0,0.0,0.850249,-0.067139,0.125244,0.506836,0.294926,-0.009276999999999999,-0.9790190000000001,0.009422,-0.025833,-0.0008230000000000001,,,,,,,,,,,,,,,,,,,,,,,,,,,,,,,,,,,,,,,,,,,,,,,,,,,,,,,,,,,,,,,,,
20596,1648952765.51049,1648952765.535633,83.0,0.0,4475.384765999999,4753.846191,4118.461426,4351.282227000001,4184.615234000001,11.0,3.0,73.0,,,,0.0,2.0,2.0,0.0,0.0,0.0,0.0,,,,,,,,,,,,,,,,,,,,,,,,,,,,,,,,,,,,,,,,,,,,,,,,,,,,,,,,,,,,,,,,,,,,,,,,,,,,,,,,,,,,
20597,1648952765.5183039,1648952765.543549,84.0,0.0,4310.256348,4807.179688,4412.820313,4135.897461,4301.025879,450.0,3.0,73.0,,,,0.0,2.0,2.0,0.0,0.0,0.0,0.0,,,,,,,,42.0,0.0,0.850068,-0.067139,0.12548800000000002,0.50708,0.288579,-0.012695999999999999,-0.9868309999999999,0.009847,-0.025789,-0.007137,,,,,,,,,,,,,,,,,,,,,,,,,,,,,,,,,,,,,,,,,,,,,,,,,,,,,,,,,,,,,,,,,
20598,1648952765.526119,1648952765.551364,85.0,0.0,4290.256348,4527.692383,4507.179688,4415.384765999999,4631.794922,450.0,3.0,73.0,,,,0.0,2.0,2.0,0.0,0.0,0.0,0.0,,,,,,,,,,,,,,,,,,,,,,,,,,,,,,,,,,,,,,,,,,,,,,,,,,,,,,0.0,0.0,32.0,0.090787,1.0,0.0,,,,,,,,,,,,,,,,,,,,,,,,,
20599,1648952765.533933,1648952765.5592802,86.0,0.0,4327.179688,4586.153809,4081.025635,4564.102539,4420.512695,450.0,3.0,73.0,,,,0.0,2.0,2.0,0.0,0.0,0.0,0.0,,,,,,,,43.0,0.0,0.850068,-0.067139,0.12548800000000002,0.50708,0.28174299999999997,-0.007324,-0.976577,0.010279,-0.025798,-0.012819999999999998,,,,,,,,,,,,,,,,,,,,,,,,,,,,,,,,,,,,,,,,,,,,,,,,,,,,,,,,,,,,,,,,,
20600,1648952765.541748,1648952765.567096,87.0,0.0,4281.025879,4892.820313,3949.743652,4230.256348,4180.512695,11.0,3.0,73.0,,,,0.0,2.0,2.0,0.0,0.0,0.0,0.0,,,,,,,,,,,,,,,,,,,,,,,,,,,,,,,,,,,,,,,,,,,,,,,,,,,,,,,,,,,,,,,,,,,,,,,,,,,,,,,,,,,,
20601,1648952765.5495632,1648952765.575011,88.0,0.0,4416.922852000001,4827.179688,4223.077147999999,4166.666504,4470.256348,450.0,3.0,73.0,,,,0.0,2.0,2.0,0.0,0.0,0.0,0.0,,,,,,,,44.0,0.0,0.850068,-0.067139,0.12548800000000002,0.50708,0.295415,-0.021485,-0.980484,0.012083,-0.025707999999999998,-0.017983000000000002,,,,,,,,,,,,,,,,,,,,,,,,,,,,,,,,,,,,,,,,,,,,,,,,,,,,,,,,,,,,,,,,,
20602,1648952765.5573769,1648952765.5828269,89.0,0.0,4543.589844,4655.897461,4367.179688,4340.0,4545.128418,450.0,3.0,73.0,,,,0.0,2.0,2.0,0.0,0.0,0.0,0.0,,,,,,,,,,,,,,,,,,,,,,,,,,,,,,,,,,,,,,,,,,,,,,,,,,,,,,0.0,0.0,32.0,0.090787,1.0,0.0,,,,,,,,,,,,,,,,,,,,,,,,,
20603,1648952765.565192,1648952765.590742,90.0,0.0,4396.922852000001,4849.230957,4307.179688,4252.307617,4216.410156,450.0,3.0,73.0,,,,0.0,2.0,2.0,0.0,0.0,0.0,0.0,,,,,,,,45.0,0.0,0.850068,-0.067139,0.12548800000000002,0.50708,0.290044,-0.003418,-0.9824370000000001,0.012242,-0.025675999999999997,-0.022581999999999998,,,,,,,,,,,,,,,,,,,,,,,,,,,,,,,,,,,,,,,,,,,,,,,,,,,,,,,,,,,,,,,,,
20604,1648952765.5730062,1648952765.598558,91.0,0.0,4151.282227000001,5014.358886999999,4240.512695,4065.641113,4211.794922,11.0,3.0,73.0,,,,0.0,2.0,2.0,0.0,0.0,0.0,0.0,,,,,,,,,,,,,,,,,,,,,,,,,,,,,,,,,,,,,,,,,,,,,,,,,,,,,,,,,,,,,,,,,,,,,,,,,,,,,,,,,,,,
20605,1648952765.580821,1648952765.606473,92.0,0.0,4271.794922,4799.487305,4185.128418,4239.487305,4584.615234000001,450.0,3.0,73.0,,,,0.0,2.0,2.0,0.0,0.0,0.0,0.0,,,,,,,,46.0,0.0,0.850249,-0.067139,0.125244,0.506836,0.287114,-0.008301000000000001,-0.976089,0.012336,-0.02555,-0.026769,,,,,,,,,,,,,,,,,,,,,,,,,,,,,,,,,,,,,,,,,,,,,,,,,,,,,,,,,,,,,,,,,
20606,1648952765.588635,1648952765.6143892,93.0,0.0,4538.461426,4624.615234000001,4328.717772999999,4494.871582,4549.230957,450.0,3.0,73.0,,,,0.0,2.0,2.0,0.0,0.0,0.0,0.0,,,,,,,,,,,,,,,,,,,,,,,,,,,,,,,,,,,,,,,,,,,,,,,,,,,,,,0.0,0.0,32.0,0.090787,1.0,0.0,,,,,,,,,,,,,,,,,,,,,,,,,
20607,1648952765.59645,1648952765.622205,94.0,0.0,4404.615234000001,4812.820313,4472.307617,4357.94873,4211.794922,450.0,3.0,73.0,,,,0.0,2.0,2.0,0.0,0.0,0.0,0.0,,,,,,,,47.0,0.0,0.850249,-0.067139,0.125244,0.506836,0.292973,-0.01709,-0.98146,0.012421,-0.025485,-0.030489,,,,,,,,,,,,,,,,,,,,,,,,,,,,,,,,,,,,,,,,,,,,,,,,,,,,,,,,,,,,,,,,,
20608,1648952765.604264,1648952765.630021,95.0,0.0,4107.179688,4994.871582,4387.179688,4092.820557,4322.563965,11.0,3.0,73.0,,,,0.0,2.0,2.0,0.0,0.0,0.0,0.0,,,,,,,,,,,,,,,,,,,,,,,,,,,,,,,,,,,,,,,,,,,,,,,,,,,,,,,,,,,,,,,,,,,,,,,,,,,,,,,,,,,,
20609,1648952765.612079,1648952765.6379359,96.0,0.0,4237.94873,4796.410156,4223.589844,4202.05127,4683.077147999999,450.0,3.0,73.0,,,,0.0,2.0,2.0,0.0,0.0,0.0,0.0,,,,,,,,48.0,0.0,0.850249,-0.067139,0.125244,0.506836,0.295903,-0.018067,-0.99025,0.012692,-0.025525,-0.024217,,,,,,,,,,,,,,,,,,,,,,,,,,,,,,,,,,,,,,,,,,,,,,,,,,,,,,,,,,,,,,,,,
20610,1648952765.619893,1648952765.6458519,97.0,0.0,4572.820313,4595.384765999999,4228.205078,4507.179688,4579.487305,450.0,3.0,73.0,,,,0.0,2.0,2.0,0.0,0.0,0.0,0.0,,,,,,,,,,,,,,,,,,,,1.0,0.0,0.0,,,,,,,,,,,,,,,,,,,,,,,,,,,,,,,,0.0,0.0,32.0,0.092622,1.0,0.0,40.102638,31.269262,61.383293,113.89538600000002,365.035675,23.084349,62.364189,41.594584999999995,57.451523,207.40863000000002,65.018738,53.62570600000001,115.684242,198.753723,128.968292,35.250015000000005,54.484104,55.684006000000004,121.004723,378.603943,15.01955,35.568977000000004,41.662388,86.854958,444.879608
20611,1648952765.627708,1648952765.653668,98.0,0.0,4448.205078,4770.256348,4345.641113000001,4420.512695,4164.102539,450.0,3.0,73.0,,,,0.0,2.0,2.0,0.0,0.0,0.0,0.0,,,,,,,,49.0,0.0,0.8502129999999999,-0.067139,0.12548800000000002,0.506836,0.303716,-0.02295,-0.976577,0.009714,-0.025463,-0.018621000000000002,,,,,,,,,,,,,,,,,,,,,,,,,,,,,,,,,,,,,,,,,,,,,,,,,,,,,,,,,,,,,,,,,
20612,1648952765.6355221,1648952765.661583,99.0,0.0,4173.333496,4887.179688,4480.0,4167.692383,4252.307617,11.0,3.0,73.0,,,,0.0,2.0,2.0,0.0,0.0,0.0,0.0,,,,,,,,,,,,,,,,,,,,,,,,,,,,,,,,,,,,,,,,,,,,,,,,,,,,,,,,,,,,,,,,,,,,,,,,,,,,,,,,,,,,
20613,1648952765.643337,1648952765.669399,100.0,0.0,4323.077147999999,4638.974121,4460.0,4244.102539,4641.025879,450.0,3.0,73.0,,,,0.0,2.0,2.0,0.0,0.0,0.0,0.0,,,,,,,,50.0,0.0,0.8502129999999999,-0.067139,0.12548800000000002,0.506836,0.297856,-0.015625,-0.980972,0.010256,-0.025602,-0.023156,,,,,,,,,,,,,,,,,,,,,,,,,,,,,,,,,,,,,,,,,,,,,,,,,,,,,,,,,,,,,,,,,
20614,1648952765.651152,1648952765.677315,101.0,0.0,4589.743652,4501.538574,4168.205078,4466.153809,4560.0,450.0,3.0,73.0,,,,0.0,2.0,2.0,0.0,0.0,0.0,0.0,,,,,,,,,,,,,,,,,,,,,,,,,,,,,,,,,,,,,,,,,,,,,,,,,,,,,,0.0,0.0,32.0,0.092622,1.0,0.0,,,,,,,,,,,,,,,,,,,,,,,,,
20615,1648952765.658966,1648952765.6851301,102.0,0.0,4451.282227000001,4737.436035,4085.641113,4344.102539,4100.512695,450.0,3.0,73.0,,,,0.0,2.0,2.0,0.0,0.0,0.0,0.0,,,,,,,,51.0,0.0,0.850232,-0.06689500000000001,0.12548800000000002,0.506836,0.299321,-0.009276999999999999,-0.9873200000000001,0.010695999999999999,-0.025581,-0.014737,,,,,,,,,,,,,,,,,,,,,,,,,,,,,,,,,,,,,,,,,,,,,,,,,,,,,,,,,,,,,,,,,
20616,1648952765.666781,1648952765.693046,103.0,0.0,4279.487305,4819.487305,4321.025879,4212.820313,4130.769043,11.0,3.0,73.0,,,,0.0,2.0,2.0,0.0,0.0,0.0,0.0,,,,,,,,,,,,,,,,,,,,,,,,,,,,,,,,,,,,,,,,,,,,,,,,,,,,,,,,,,,,,,,,,,,,,,,,,,,,,,,,,,,,
20617,1648952765.6745949,1648952765.700862,104.0,0.0,4361.025879,4535.897461,4438.461426,4318.974121,4485.641113000001,450.0,3.0,73.0,,,,0.0,2.0,2.0,0.0,0.0,0.0,0.0,,,,,,,,52.0,0.0,0.850232,-0.06689500000000001,0.12548800000000002,0.506836,0.295903,-0.018555000000000002,-0.989273,0.007965999999999999,-0.025562,-0.010089,,,,,,,,,,,,,,,,,,,,,,,,,,,,,,,,,,,,,,,,,,,,,,,,,,,,,,,,,,,,,,,,,
20618,1648952765.68241,1648952765.708777,105.0,0.0,4429.743652,4485.641113000001,4186.666504,4388.717772999999,4468.205078,450.0,3.0,73.0,,,,0.0,2.0,2.0,0.0,0.0,0.0,0.0,,,,,,,,,,,,,,,,,,,,,,,,,,,,,,,,,,,,,,,,,,,,,,,,,,,,,,0.0,0.0,32.0,0.092622,1.0,0.0,,,,,,,,,,,,,,,,,,,,,,,,,
20619,1648952765.690224,1648952765.716593,106.0,0.0,4284.102539,4786.153809,4037.9487299999996,4226.153809,4217.436035,450.0,3.0,73.0,,,,0.0,2.0,2.0,0.0,0.0,0.0,0.0,,,,,,,,53.0,0.0,0.850232,-0.06689500000000001,0.12548800000000002,0.506836,0.284184,-0.013672,-0.989273,0.006925,-0.025594,-0.005906000000000001,,,,,,,,,,,,,,,,,,,,,,,,,,,,,,,,,,,,,,,,,,,,,,,,,,,,,,,,,,,,,,,,,
20620,1648952765.698039,1648952765.724508,107.0,0.0,4295.384765999999,4789.743652,4210.256348,4265.641113000001,4367.692383,11.0,3.0,73.0,,,,0.0,2.0,2.0,0.0,0.0,0.0,0.0,,,,,,,,,,,,,,,,,,,,,,,,,,,,,,,,,,,,,,,,,,,,,,,,,,,,,,,,,,,,,,,,,,,,,,,,,,,,,,,,,,,,
20621,1648952765.705853,1648952765.7323241,108.0,0.0,4478.974121,4593.333496,4431.794922,4468.205078,4484.102539,450.0,3.0,73.0,,,,0.0,2.0,2.0,0.0,0.0,0.0,0.0,,,,,,,,54.0,0.0,0.850232,-0.06689500000000001,0.12548800000000002,0.506836,0.29102,-0.016602000000000002,-0.980972,0.00926,-0.025622000000000002,-0.011712,,,,,,,,,,,,,,,,,,,,,,,,,,,,,,,,,,,,,,,,,,,,,,,,,,,,,,,,,,,,,,,,,
20622,1648952765.7136679,1648952765.7402391,109.0,0.0,4436.410156,4747.692383,4418.461426,4370.256348,4243.077147999999,450.0,3.0,73.0,,,,0.0,2.0,2.0,0.0,0.0,0.0,0.0,,,,,,,,,,,,,,,,,,,,,,,,,,,,,,,,,,,,,,,,,,,,,,,,,,,,,,0.0,0.0,32.0,0.092622,1.0,0.0,,,,,,,,,,,,,,,,,,,,,,,,,
20623,1648952765.721483,1648952765.748055,110.0,0.0,4160.512695,4954.871582,4253.333496,4113.333496,4269.230957,450.0,3.0,73.0,,,,0.0,2.0,2.0,0.0,0.0,0.0,0.0,,,,,,,,55.0,0.0,0.850232,-0.06689500000000001,0.12548800000000002,0.506836,0.290044,-0.016114,-0.969253,0.009701000000000001,-0.025599,-0.016937999999999998,,,,,,,,,,,,,,,,,,,,,,,,,,,,,,,,,,,,,,,,,,,,,,,,,,,,,,,,,,,,,,,,,
20624,1648952765.7292972,1648952765.75597,111.0,0.0,4214.871582,4802.05127,4186.153809,4192.820313,4629.743652,11.0,3.0,73.0,,,,0.0,2.0,2.0,0.0,0.0,0.0,0.0,,,,,,,,,,,,,,,,,,,,,,,,,,,,,,,,,,,,,,,,,,,,,,,,,,,,,,,,,,,,,,,,,,,,,,,,,,,,,,,,,,,,
20625,1648952765.7371118,1648952765.7637858,112.0,0.0,4553.333496,4651.794922,4354.871582,4523.589844,4545.128418,450.0,3.0,73.0,,,,0.0,2.0,2.0,0.0,0.0,0.0,0.0,,,,,,,,56.0,0.0,0.850232,-0.06689500000000001,0.12548800000000002,0.506836,0.284184,-0.013672,-0.989273,0.008633,-0.025529,-0.024569999999999998,,,,,,,,,,,,,,,,,,,,,,,,,,,,,,,,,,,,,,,,,,,,,,,,,,,,,,,,,,,,,,,,,
20626,1648952765.744926,1648952765.7717009,113.0,0.0,4472.820313,4751.794922,4518.974121,4474.358886999999,4090.7692869999996,450.0,3.0,73.0,,,,0.0,2.0,2.0,0.0,0.0,0.0,0.0,,,,,,,,,,,,,,,,,,,,1.0,0.0,0.0,,,,,,,,,,,,,,,,,,,,,,,,,,,,,,,,0.0,0.0,32.0,0.146537,1.0,0.0,39.658896999999996,36.514922999999996,57.336018,109.69503799999998,358.710419,21.900038000000002,68.882233,35.577808000000005,48.953876,222.326141,38.263618,45.044209,84.10640699999999,221.735229,148.223648,32.204983,48.743736,49.790707,117.035027,398.364594,15.406307,37.52142,24.154482,85.572548,451.203033
20627,1648952765.752741,1648952765.779517,114.0,0.0,4122.563965,4889.743652,4360.512695,4124.615234000001,4167.692383,450.0,3.0,73.0,,,,0.0,2.0,2.0,0.0,0.0,0.0,0.0,,,,,,,,57.0,0.0,0.850232,-0.06689500000000001,0.12548800000000002,0.506836,0.290044,-0.016114,-0.969253,0.009137000000000001,-0.025516,-0.02851,,,,,,,,,,,,,,,,,,,,,,,,,,,,,,,,,,,,,,,,,,,,,,,,,,,,,,,,,,,,,,,,,
20628,1648952765.760555,1648952765.787432,115.0,0.0,4206.666504,4882.563965,4103.077147999999,4125.641113000001,4597.94873,11.0,3.0,73.0,,,,0.0,2.0,2.0,0.0,0.0,0.0,0.0,,,,,,,,,,,,,,,,,,,,,,,,,,,,,,,,,,,,,,,,,,,,,,,,,,,,,,,,,,,,,,,,,,,,,,,,,,,,,,,,,,,,
20629,1648952765.76837,1648952765.795348,116.0,0.0,4572.820313,4714.358886999999,4222.563965,4492.307617,4635.384765999999,450.0,3.0,73.0,,,,0.0,2.0,2.0,0.0,0.0,0.0,0.0,,,,,,,,58.0,0.0,0.8502129999999999,-0.067139,0.12548800000000002,0.506836,0.291508,-0.009276999999999999,-0.980972,0.0064659999999999995,-0.025503,-0.034936,,,,,,,,,,,,,,,,,,,,,,,,,,,,,,,,,,,,,,,,,,,,,,,,,,,,,,,,,,,,,,,,,
20630,1648952765.776184,1648952765.803164,117.0,0.0,4451.282227000001,4723.589844,4482.05127,4513.846191,4185.128418,450.0,3.0,73.0,,,,0.0,2.0,2.0,0.0,0.0,0.0,0.0,,,,,,,,,,,,,,,,,,,,,,,,,,,,,,,,,,,,,,,,,,,,,,,,,,,,,,0.0,0.0,32.0,0.146537,1.0,0.0,,,,,,,,,,,,,,,,,,,,,,,,,
20631,1648952765.783999,1648952765.81098,118.0,0.0,4169.743652,4869.743652,4414.871582,4234.871582,4092.3076170000004,450.0,3.0,73.0,,,,0.0,2.0,2.0,0.0,0.0,0.0,0.0,,,,,,,,59.0,0.0,0.8502129999999999,-0.067139,0.12548800000000002,0.506836,0.29102,-0.007324,-0.9790190000000001,0.007186,-0.025541,-0.037839,,,,,,,,,,,,,,,,,,,,,,,,,,,,,,,,,,,,,,,,,,,,,,,,,,,,,,,,,,,,,,,,,
20632,1648952765.7918131,1648952765.8188949,119.0,0.0,4313.333496,4695.897461,4318.974121,4216.922852000001,4487.179688,11.0,3.0,73.0,,,,0.0,2.0,2.0,0.0,0.0,0.0,0.0,,,,,,,,,,,,,,,,,,,,,,,,,,,,,,,,,,,,,,,,,,,,,,,,,,,,,,,,,,,,,,,,,,,,,,,,,,,,,,,,,,,,
20633,1648952765.799628,1648952765.8268108,120.0,0.0,4555.897461,4530.769043,4233.846191,4406.153809,4514.871582,450.0,3.0,73.0,,,,0.0,2.0,2.0,0.0,0.0,0.0,0.0,,,,,,,,60.0,0.0,0.8502129999999999,-0.067139,0.12548800000000002,0.506836,0.29639099999999996,-0.0043950000000000005,-0.978042,0.004856,-0.025623000000000003,-0.028098,,,,,,,,,,,,,,,,,,,,,,,,,,,,,,,,,,,,,,,,,,,,,,,,,,,,,,,,,,,,,,,,,
20634,1648952765.807443,1648952765.834627,121.0,0.0,4392.307617,4714.871582,4085.641113,4310.769043,4153.333496,450.0,3.0,73.0,,,,0.0,2.0,2.0,0.0,0.0,0.0,0.0,,,,,,,,,,,,,,,,,,,,,,,,,,,,,,,,,,,,,,,,,,,,,,,,,,,,,,0.0,0.0,32.0,0.146537,1.0,0.0,,,,,,,,,,,,,,,,,,,,,,,,,
20635,1648952765.815257,1648952765.842543,122.0,0.0,4279.487305,4748.205078,4146.153809,4254.871582,4276.410156,450.0,3.0,73.0,,,,0.0,2.0,2.0,0.0,0.0,0.0,0.0,,,,,,,,61.0,0.0,0.8502129999999999,-0.067139,0.12548800000000002,0.506836,0.28809,-0.01709,-0.973159,0.005738,-0.025649,-0.031636000000000004,,,,,,,,,,,,,,,,,,,,,,,,,,,,,,,,,,,,,,,,,,,,,,,,,,,,,,,,,,,,,,,,,
20636,1648952765.823072,1648952765.850359,123.0,0.0,4435.384765999999,4594.358886999999,4443.589844,4376.410156,4538.974121,11.0,3.0,73.0,,,,0.0,2.0,2.0,0.0,0.0,0.0,0.0,,,,,,,,,,,,,,,,,,,,,,,,,,,,,,,,,,,,,,,,,,,,,,,,,,,,,,,,,,,,,,,,,,,,,,,,,,,,,,,,,,,,
20637,1648952765.830886,1648952765.858274,124.0,0.0,4446.666504,4718.974121,4395.384765999999,4321.538574,4342.05127,450.0,3.0,73.0,,,,0.0,2.0,2.0,0.0,0.0,0.0,0.0,,,,,,,,62.0,0.0,0.8502129999999999,-0.067139,0.12548800000000002,0.506836,0.297856,-0.000488,-0.995132,0.0032600000000000003,-0.025672000000000004,-0.025299000000000002,,,,,,,,,,,,,,,,,,,,,,,,,,,,,,,,,,,,,,,,,,,,,,,,,,,,,,,,,,,,,,,,,
20638,1648952765.838701,1648952765.86609,125.0,0.0,4231.282227000001,4873.846191,4128.205078,4102.05127,4189.743652,450.0,3.0,73.0,,,,0.0,2.0,2.0,0.0,0.0,0.0,0.0,,,,,,,,,,,,,,,,,,,,,,,,,,,,,,,,,,,,,,,,,,,,,,,,,,,,,,0.0,0.0,32.0,0.146537,1.0,0.0,,,,,,,,,,,,,,,,,,,,,,,,,
20639,1648952765.846515,1648952765.874005,126.0,0.0,4218.461426,4727.692383,4176.410156,4211.282227000001,4438.974121,450.0,3.0,73.0,,,,0.0,2.0,2.0,0.0,0.0,0.0,0.0,,,,,,,,63.0,0.0,0.850249,-0.067139,0.125244,0.506836,0.299321,-0.012206999999999999,-0.969741,0.001274,-0.025644,-0.019448,,,,,,,,,,,,,,,,,,,,,,,,,,,,,,,,,,,,,,,,,,,,,,,,,,,,,,,,,,,,,,,,,
20640,1648952765.85433,1648952765.8818212,127.0,0.0,4462.563965,4565.641113000001,4368.717772999999,4565.128418,4484.615234000001,238.0,3.0,73.0,,,,0.0,2.0,2.0,0.0,0.0,0.0,0.0,,,,,,,,,,,,,,,,,,,,,,,,,,,,,,,,,,,,,,,,,,,,,,,,,,,,,,,,,,,,,,,,,,,,,,,,,,,,,,,,,,,,
20641,1648952765.862144,1648952765.889636,0.0,0.0,4524.615234000001,4622.563965,4334.358886999999,4489.230957,4185.641113000001,450.0,3.0,73.0,,,,0.0,2.0,2.0,0.0,0.0,0.0,0.0,,,,,,,,0.0,0.0,0.850249,-0.067139,0.125244,0.506836,0.28174299999999997,-0.010742,-0.984878,-0.000612,-0.025716000000000003,-0.014183000000000001,,,,,,,,,,,,,,,,,,,,,,,,,,,,,,,,,,,,,,,,,,,,,,,,,,,,,,,,,,,,,,,,,
20642,1648952765.8699589,1648952765.897552,1.0,0.0,4265.128418,4829.230957,4215.384765999999,4116.922852000001,4195.384765999999,450.0,3.0,73.0,,,,0.0,2.0,2.0,0.0,0.0,0.0,0.0,1.0,0.0,0.0,0.0,0.0,0.0,0.0,,,,,,,,,,,,,1.0,0.0,0.0,,,,,,,,,,,,,,,,,,,,,,,,,,,,,,,,0.0,0.0,32.0,0.163626,1.0,0.0,40.139065,43.209553,51.514214,104.231018,352.433899,23.475384,70.829536,30.932289,40.889801,231.91030899999998,33.003304,42.632481,66.088737,236.228546,170.646896,31.025499,43.311943,46.057078999999995,108.4589,417.554352,17.010115,39.975895,14.152307999999998,80.90123,457.73800700000004
20643,1648952765.877774,1648952765.905467,2.0,0.0,4198.974121,4875.897461,4202.563965,4131.794922,4563.589844,0.0,3.0,73.0,,,,0.0,0.0,2.0,0.0,0.0,0.0,0.0,,,,,,,,1.0,0.0,0.850249,-0.067139,0.125244,0.506836,0.29443800000000003,-0.000977,-0.981949,0.000817,-0.025733,-0.019112999999999998,,,,,,,,,,,,,,,,,,,,,,,,,,,,,,,,,,,,,,,,,,,,,,,,,,,,,,,,,,,,,,,,,
20644,1648952765.8855882,1648952765.913383,3.0,0.0,4507.692383,4661.538574,4311.794922,4524.615234000001,4635.384765999999,450.0,3.0,73.0,,,,0.0,0.0,1.0,0.0,0.0,0.0,0.0,,,,,,,,,,,,,,,,,,,,,,,,,,,,,,,,,,,,,,,,,,,,,,,,,,,,,,,,,,,,,,,,,,,,,,,,,,,,,,,,,,,,
20645,1648952765.8934028,1648952765.921199,4.0,0.0,4472.307617,4670.256348,4416.410156,4522.05127,4149.743652,51.0,3.0,73.0,,,,0.0,0.0,1.0,0.0,0.0,0.0,0.0,,,,,,,,2.0,0.0,0.8502850000000001,-0.067139,0.125,0.506836,0.288579,-0.009276999999999999,-0.991226,-0.001072,-0.02565,-0.026381,,,,,,,,,,,,,,,,,,,,,,,,,,,,,,,,,,,,,,,,,,,,,,,,,,,,,,,,,,,,,,,,,
20646,1648952765.901217,1648952765.929014,5.0,0.0,4164.615234000001,4874.358886999999,4418.974121,4176.922852000001,4060.512939,450.0,3.0,73.0,,,,0.0,0.0,1.0,0.0,0.0,0.0,0.0,,,,,,,,,,,,,,,,,,,,,,,,,,,,,,,,,,,,,,,,,,,,,,,,,,,,,,0.0,0.0,32.0,0.163626,1.0,0.0,,,,,,,,,,,,,,,,,,,,,,,,,
20647,1648952765.909032,1648952765.9369302,6.0,0.0,4260.512695,4712.307617,4397.94873,4153.846191,4522.563965,0.0,3.0,73.0,,,,0.0,0.0,1.0,0.0,0.0,0.0,0.0,,,,,,,,3.0,0.0,0.850249,-0.067139,0.125244,0.506836,0.29443800000000003,-0.020508000000000002,-0.9677879999999999,0.002112,-0.025624,-0.030188,,,,,,,,,,,,,,,,,,,,,,,,,,,,,,,,,,,,,,,,,,,,,,,,,,,,,,,,,,,,,,,,,
20648,1648952765.916846,1648952765.944746,7.0,0.0,4560.512695,4463.077147999999,4240.512695,4405.641113000001,4568.205078,450.0,3.0,73.0,,,,0.0,0.0,1.0,0.0,0.0,0.0,0.0,,,,,,,,,,,,,,,,,,,,,,,,,,,,,,,,,,,,,,,,,,,,,,,,,,,,,,,,,,,,,,,,,,,,,,,,,,,,,,,,,,,,
20649,1648952765.924661,1648952765.952661,8.0,0.0,4449.743652,4663.589844,4083.076904,4338.461426,4149.743652,450.0,3.0,73.0,,,,0.0,0.0,1.0,0.0,0.0,0.0,0.0,,,,,,,,4.0,0.0,0.850249,-0.067139,0.125244,0.506836,0.294926,-0.015137000000000001,-0.98146,0.00023999999999999998,-0.0256,-0.036496,,,,,,,,,,,,,,,,,,,,,,,,,,,,,,,,,,,,,,,,,,,,,,,,,,,,,,,,,,,,,,,,,
20650,1648952765.932475,1648952765.9604769,9.0,0.0,4334.358886999999,4800.512695,4225.128418,4233.333496,4195.897461,0.0,3.0,73.0,,,,0.0,0.0,1.0,0.0,0.0,0.0,0.0,,,,,,,,,,,,,,,,,,,,,,,,,,,,,,,,,,,,,,,,,,,,,,,,,,,,,,0.0,0.0,32.0,0.163626,1.0,0.0,,,,,,,,,,,,,,,,,,,,,,,,,
20651,1648952765.94029,1648952765.968392,10.0,0.0,4414.358886999999,4561.538574,4502.05127,4338.461426,4539.487305,450.0,3.0,73.0,,,,0.0,0.0,1.0,0.0,0.0,0.0,0.0,,,,,,,,5.0,0.0,0.850249,-0.067139,0.125244,0.506836,0.302739,-0.015625,-0.9897610000000001,0.003195,-0.025677,-0.039243,,,,,,,,,,,,,,,,,,,,,,,,,,,,,,,,,,,,,,,,,,,,,,,,,,,,,,,,,,,,,,,,,
20652,1648952765.948105,1648952765.976308,11.0,0.0,4396.410156,4606.153809,4345.641113000001,4335.384765999999,4457.94873,0.0,3.0,73.0,,,,0.0,0.0,1.0,0.0,0.0,0.0,0.0,,,,,,,,,,,,,,,,,,,,,,,,,,,,,,,,,,,,,,,,,,,,,,,,,,,,,,,,,,,,,,,,,,,,,,,,,,,,,,,,,,,,
20653,1648952765.955919,1648952765.984125,12.0,0.0,4237.436035,4918.461426,4070.256348,4139.487305,4245.128418,450.0,3.0,73.0,,,,0.0,0.0,1.0,0.0,0.0,0.0,0.0,,,,,,,,6.0,0.0,0.850249,-0.067139,0.125244,0.506836,0.29395,-0.016602000000000002,-0.991714,0.004243,-0.025697,-0.041666,,,,,,,,,,,,,,,,,,,,,,,,,,,,,,,,,,,,,,,,,,,,,,,,,,,,,,,,,,,,,,,,,
20654,1648952765.963734,1648952765.991941,13.0,0.0,4260.512695,4820.512695,4154.871582,4233.846191,4443.589844,450.0,3.0,73.0,,,,0.0,0.0,1.0,0.0,0.0,0.0,0.0,,,,,,,,,,,,,,,,,,,,,,,,,,,,,,,,,,,,,,,,,,,,,,,,,,,,,,0.0,0.0,32.0,0.163626,1.0,0.0,,,,,,,,,,,,,,,,,,,,,,,,,
20655,1648952765.971548,1648952765.999757,14.0,0.0,4468.205078,4530.256348,4382.563965,4522.563965,4521.538574,450.0,3.0,73.0,,,,0.0,0.0,1.0,0.0,0.0,0.0,0.0,,,,,,,,7.0,0.0,0.850249,-0.067139,0.125244,0.506836,0.28809,-0.022461000000000002,-0.9834129999999999,0.0067480000000000005,-0.025764,-0.043848000000000005,,,,,,,,,,,,,,,,,,,,,,,,,,,,,,,,,,,,,,,,,,,,,,,,,,,,,,,,,,,,,,,,,
20656,1648952765.9793632,1648952766.007673,15.0,0.0,4484.615234000001,4638.974121,4378.974121,4426.153809,4193.333496,0.0,3.0,73.0,,,,0.0,0.0,1.0,0.0,0.0,0.0,0.0,,,,,,,,,,,,,,,,,,,,,,,,,,,,,,,,,,,,,,,,,,,,,,,,,,,,,,,,,,,,,,,,,,,,,,,,,,,,,,,,,,,,
20657,1648952765.987177,1648952766.0154881,16.0,0.0,4227.692383,4931.282227000001,4200.0,4115.384765999999,4152.307617,0.0,3.0,73.0,,,,0.0,0.0,1.0,0.0,0.0,0.0,0.0,,,,,,,,8.0,0.0,0.850249,-0.067139,0.125244,0.506836,0.291997,-0.014159999999999999,-0.988296,0.0075379999999999996,-0.025727,-0.045859,,,,,,,,,,,,,,,,,,,,,,,,,,,,,,,,,,,,,,,,,,,,,,,,,,,,,,,,,,,,,,,,,
20658,1648952765.994992,1648952766.023304,17.0,0.0,4185.641113000001,4886.666504,4106.153809,4149.743652,4587.179688,0.0,3.0,73.0,,,,0.0,0.0,1.0,0.0,0.0,0.0,0.0,,,,,,,,,,,,,,,,,,,,1.0,0.0,0.0,,,,,,,,,,,,,,,,,,,,,,,,,,,,,,,,0.0,0.0,32.0,0.168159,1.0,0.0,40.999466,50.485703,44.887314,98.397972,345.148865,30.861988,68.276459,29.239447,34.4627,237.22984300000002,38.539558,43.376796999999996,55.217014,234.945023,193.327896,31.507639,39.353072999999995,43.781723,96.563316,431.63217199999997,19.107342000000003,43.663002,9.34787,72.76989,466.62536600000004
20659,1648952766.002806,1648952766.03122,18.0,0.0,4507.179688,4647.179688,4283.589844,4524.102539,4673.333496,0.0,3.0,73.0,,,,0.0,0.0,1.0,0.0,0.0,0.0,0.0,,,,,,,,9.0,0.0,0.8502299999999999,-0.067383,0.125244,0.506836,0.299809,-0.013184,-0.9668120000000001,0.005075,-0.025791,-0.038051,,,,,,,,,,,,,,,,,,,,,,,,,,,,,,,,,,,,,,,,,,,,,,,,,,,,,,,,,,,,,,,,,
20660,1648952766.010621,1648952766.039135,19.0,0.0,4518.461426,4687.179688,4452.820313,4540.512695,4116.922852000001,0.0,3.0,73.0,,,,0.0,0.0,1.0,0.0,0.0,0.0,0.0,,,,,,,,,,,,,,,,,,,,,,,,,,,,,,,,,,,,,,,,,,,,,,,,,,,,,,,,,,,,,,,,,,,,,,,,,,,,,,,,,,,,
20661,1648952766.018435,1648952766.046951,20.0,0.0,4194.871582,4902.05127,4325.641113000001,4149.230957,4012.3076170000004,0.0,3.0,73.0,,,,0.0,0.0,1.0,0.0,0.0,0.0,0.0,,,,,,,,10.0,0.0,0.8502299999999999,-0.067383,0.125244,0.506836,0.300298,0.00293,-0.991226,0.005837,-0.025751,-0.040642000000000005,,,,,,,,,,,,,,,,,,,,,,,,,,,,,,,,,,,,,,,,,,,,,,,,,,,,,,,,,,,,,,,,,
20662,1648952766.02625,1648952766.054866,21.0,0.0,4222.563965,4824.102539,4213.333496,4067.6923829999996,4571.794922,0.0,3.0,73.0,,,,0.0,0.0,1.0,0.0,0.0,0.0,0.0,,,,,,,,,,,,,,,,,,,,,,,,,,,,,,,,,,,,,,,,,,,,,,,,,,,,,,0.0,0.0,32.0,0.168159,1.0,0.0,,,,,,,,,,,,,,,,,,,,,,,,,
20663,1648952766.034065,1648952766.062682,22.0,0.0,4554.871582,4614.358886999999,4290.769043,4428.205078,4745.128418,0.0,3.0,73.0,,,,0.0,0.0,1.0,0.0,0.0,0.0,0.0,,,,,,,,11.0,0.0,0.850266,-0.067383,0.125,0.506836,0.28174299999999997,-0.025391,-0.9790190000000001,0.006572,-0.025715,-0.030474,,,,,,,,,,,,,,,,,,,,,,,,,,,,,,,,,,,,,,,,,,,,,,,,,,,,,,,,,,,,,,,,,
20664,1648952766.041879,1648952766.0705972,23.0,0.0,4474.871582,4739.487305,4374.871582,4465.128418,4220.0,0.0,3.0,73.0,,,,0.0,0.0,1.0,0.0,0.0,0.0,0.0,,,,,,,,,,,,,,,,,,,,,,,,,,,,,,,,,,,,,,,,,,,,,,,,,,,,,,,,,,,,,,,,,,,,,,,,,,,,,,,,,,,,
20665,1648952766.049694,1648952766.078413,24.0,0.0,4278.461426,4831.794922,4391.794922,4240.0,4095.384521,0.0,3.0,73.0,,,,0.0,0.0,1.0,0.0,0.0,0.0,0.0,,,,,,,,12.0,0.0,0.850139,-0.067139,0.125,0.50708,0.292485,-0.001465,-0.984878,0.005671,-0.025682999999999997,-0.036752999999999994,,,,,,,,,,,,,,,,,,,,,,,,,,,,,,,,,,,,,,,,,,,,,,,,,,,,,,,,,,,,,,,,,
20666,1648952766.057508,1648952766.086328,25.0,0.0,4334.871582,4564.615234000001,4409.743652,4261.538574,4492.820313,0.0,3.0,73.0,,,,0.0,0.0,1.0,0.0,0.0,0.0,0.0,,,,,,,,,,,,,,,,,,,,,,,,,,,,,,,,,,,,,,,,,,,,,,,,,,,,,,0.0,0.0,32.0,0.168159,1.0,0.0,,,,,,,,,,,,,,,,,,,,,,,,,
20667,1648952766.065323,1648952766.0941439,26.0,0.0,4386.153809,4566.666504,4215.384765999999,4353.333496,4474.358886999999,0.0,3.0,73.0,,,,0.0,0.0,1.0,0.0,0.0,0.0,0.0,,,,,,,,13.0,0.0,0.850139,-0.067139,0.125,0.50708,0.290044,-0.011231,-0.984878,0.0033950000000000004,-0.025654000000000003,-0.042258,,,,,,,,,,,,,,,,,,,,,,,,,,,,,,,,,,,,,,,,,,,,,,,,,,,,,,,,,,,,,,,,,
20668,1648952766.0731368,1648952766.102059,27.0,0.0,4229.743652,4898.461426,4030.7692869999996,4200.512695,4197.94873,0.0,3.0,73.0,,,,0.0,0.0,1.0,0.0,0.0,0.0,0.0,,,,,,,,,,,,,,,,,,,,,,,,,,,,,,,,,,,,,,,,,,,,,,,,,,,,,,,,,,,,,,,,,,,,,,,,,,,,,,,,,,,,
20669,1648952766.080952,1648952766.109875,28.0,0.0,4312.307617,4867.692383,4112.820313,4220.0,4403.077147999999,0.0,3.0,73.0,,,,0.0,0.0,1.0,0.0,0.0,0.0,0.0,,,,,,,,14.0,0.0,0.8501200000000001,-0.067383,0.125,0.50708,0.294926,-0.024903,-0.9897610000000001,0.004520000000000001,-0.025675999999999997,-0.044429,,,,,,,,,,,,,,,,,,,,,,,,,,,,,,,,,,,,,,,,,,,,,,,,,,,,,,,,,,,,,,,,,
20670,1648952766.088766,1648952766.117791,29.0,0.0,4575.384765999999,4624.615234000001,4308.205078,4396.922852000001,4590.769043,0.0,3.0,73.0,,,,0.0,0.0,1.0,0.0,0.0,0.0,0.0,,,,,,,,,,,,,,,,,,,,,,,,,,,,,,,,,,,,,,,,,,,,,,,,,,,,,,0.0,0.0,32.0,0.168159,1.0,0.0,,,,,,,,,,,,,,,,,,,,,,,,,
20671,1648952766.096581,1648952766.125606,30.0,0.0,4483.077147999999,4792.820313,4333.846191,4305.128418,4280.0,0.0,3.0,73.0,,,,0.0,0.0,1.0,0.0,0.0,0.0,0.0,,,,,,,,15.0,0.0,0.8501200000000001,-0.067383,0.125,0.50708,0.29688000000000003,-0.011231,-0.977066,0.002261,-0.025745,-0.036812,,,,,,,,,,,,,,,,,,,,,,,,,,,,,,,,,,,,,,,,,,,,,,,,,,,,,,,,,,,,,,,,,
20672,1648952766.104396,1648952766.133522,31.0,0.0,4141.538574,5005.641113000001,4362.563965,4156.410156,4174.871582,0.0,3.0,73.0,,,,0.0,0.0,1.0,0.0,0.0,0.0,0.0,,,,,,,,,,,,,,,,,,,,,,,,,,,,,,,,,,,,,,,,,,,,,,,,,,,,,,,,,,,,,,,,,,,,,,,,,,,,,,,,,,,,
20673,1648952766.11221,1648952766.141337,32.0,0.0,4184.102539,4763.589844,4311.794922,4264.102539,4580.0,0.0,3.0,73.0,,,,0.0,0.0,1.0,0.0,0.0,0.0,0.0,,,,,,,,16.0,0.0,0.8501200000000001,-0.067383,0.125,0.50708,0.292485,-0.007812999999999999,-0.985367,0.004915999999999999,-0.025807,-0.039576,,,,,,,,,,,,,,,,,,,,,,,,,,,,,,,,,,,,,,,,,,,,,,,,,,,,,,,,,,,,,,,,,
20674,1648952766.120025,1648952766.149253,33.0,0.0,4555.384765999999,4496.922852000001,4155.897461,4426.666504,4664.615234000001,0.0,3.0,73.0,,,,0.0,0.0,1.0,0.0,0.0,0.0,0.0,,,,,,,,,,,,,,,,,,,,1.0,0.0,0.0,,,,,,,,,,,,,,,,,,,,,,,,,,,,,,,,0.0,0.0,32.0,0.215169,1.0,0.0,41.306362,56.493412,38.425979999999996,91.122047,336.58606000000003,47.295307,62.249809,30.420054999999998,29.870277,239.63117999999997,48.265327,44.714802,47.955616,214.81921400000002,213.499481,32.905373,36.675373,41.670925,83.262413,437.274292,20.990591000000002,48.467255,7.513872999999999,62.216965,479.286163
20675,1648952766.127839,1648952766.157168,34.0,0.0,4491.794922,4621.538574,4218.974121,4304.615234000001,4218.974121,0.0,3.0,73.0,,,,0.0,0.0,1.0,0.0,0.0,0.0,0.0,,,,,,,,17.0,0.0,0.8501200000000001,-0.067383,0.125,0.50708,0.289067,-0.009766,-0.982925,0.002764,-0.025619,-0.032396,,,,,,,,,,,,,,,,,,,,,,,,,,,,,,,,,,,,,,,,,,,,,,,,,,,,,,,,,,,,,,,,,
20676,1648952766.135654,1648952766.164984,35.0,0.0,4138.974121,4861.025879,4416.922852000001,4084.615479,4185.641113000001,0.0,3.0,73.0,,,,0.0,0.0,1.0,0.0,0.0,0.0,0.0,,,,,,,,,,,,,,,,,,,,,,,,,,,,,,,,,,,,,,,,,,,,,,,,,,,,,,,,,,,,,,,,,,,,,,,,,,,,,,,,,,,,
20677,1648952766.143468,1648952766.1728,36.0,0.0,4194.358886999999,4805.641113000001,4393.333496,4149.743652,4667.179688,0.0,3.0,73.0,,,,0.0,0.0,1.0,0.0,0.0,0.0,0.0,,,,,,,,18.0,0.0,0.8501200000000001,-0.067383,0.125,0.50708,0.292973,-0.014159999999999999,-0.984878,0.003855,-0.025596999999999998,-0.035601999999999995,,,,,,,,,,,,,,,,,,,,,,,,,,,,,,,,,,,,,,,,,,,,,,,,,,,,,,,,,,,,,,,,,
20678,1648952766.151283,1648952766.180716,37.0,0.0,4547.692383,4591.282227000001,4243.077147999999,4448.205078,4737.94873,0.0,3.0,73.0,,,,0.0,0.0,1.0,0.0,0.0,0.0,0.0,,,,,,,,,,,,,,,,,,,,,,,,,,,,,,,,,,,,,,,,,,,,,,,,,,,,,,0.0,0.0,32.0,0.215169,1.0,0.0,,,,,,,,,,,,,,,,,,,,,,,,,
20679,1648952766.159097,1648952766.188631,38.0,0.0,4505.641113000001,4629.743652,4290.769043,4421.025879,4194.871582,0.0,3.0,73.0,,,,0.0,0.0,1.0,0.0,0.0,0.0,0.0,,,,,,,,19.0,0.0,0.8501200000000001,-0.067383,0.125,0.50708,0.294926,-0.014159999999999999,-0.981949,0.004886,-0.025575999999999998,-0.02584,,,,,,,,,,,,,,,,,,,,,,,,,,,,,,,,,,,,,,,,,,,,,,,,,,,,,,,,,,,,,,,,,
20680,1648952766.1669118,1648952766.1964471,39.0,0.0,4251.794922,4809.743652,4383.589844,4144.102539,4094.8718259999996,0.0,3.0,73.0,,,,0.0,0.0,1.0,0.0,0.0,0.0,0.0,,,,,,,,,,,,,,,,,,,,,,,,,,,,,,,,,,,,,,,,,,,,,,,,,,,,,,,,,,,,,,,,,,,,,,,,,,,,,,,,,,,,
20681,1648952766.174726,1648952766.204363,40.0,0.0,4291.794922,4674.358886999999,4426.153809,4141.538574,4502.563965,0.0,3.0,73.0,,,,0.0,0.0,1.0,0.0,0.0,0.0,0.0,,,,,,,,20.0,0.0,0.8501200000000001,-0.067383,0.125,0.50708,0.289067,-0.009766,-0.982925,0.00259,-0.025509,-0.019936000000000002,,,,,,,,,,,,,,,,,,,,,,,,,,,,,,,,,,,,,,,,,,,,,,,,,,,,,,,,,,,,,,,,,
20682,1648952766.1825411,1648952766.212179,41.0,0.0,4486.153809,4428.717772999999,4259.487305,4405.641113000001,4549.230957,0.0,3.0,73.0,,,,0.0,0.0,1.0,0.0,0.0,0.0,0.0,,,,,,,,,,,,,,,,,,,,,,,,,,,,,,,,,,,,,,,,,,,,,,,,,,,,,,0.0,0.0,32.0,0.215169,1.0,0.0,,,,,,,,,,,,,,,,,,,,,,,,,
20683,1648952766.190356,1648952766.220094,42.0,0.0,4397.436035,4599.487305,4087.6923829999996,4354.871582,4125.641113000001,0.0,3.0,73.0,,,,0.0,0.0,1.0,0.0,0.0,0.0,0.0,,,,,,,,21.0,0.0,0.8501200000000001,-0.067383,0.125,0.50708,0.294926,-0.014159999999999999,-0.981949,0.003747,-0.025497,-0.011741,,,,,,,,,,,,,,,,,,,,,,,,,,,,,,,,,,,,,,,,,,,,,,,,,,,,,,,,,,,,,,,,,
20684,1648952766.19817,1648952766.22791,43.0,0.0,4273.333496,4826.666504,4236.410156,4255.897461,4066.1538090000004,0.0,3.0,73.0,,,,0.0,0.0,1.0,0.0,0.0,0.0,0.0,,,,,,,,,,,,,,,,,,,,,,,,,,,,,,,,,,,,,,,,,,,,,,,,,,,,,,,,,,,,,,,,,,,,,,,,,,,,,,,,,,,,
20685,1648952766.205985,1648952766.235825,44.0,0.0,4357.436035,4654.358886999999,4426.666504,4382.563965,4371.794922,0.0,3.0,73.0,,,,0.0,0.0,1.0,0.0,0.0,0.0,0.0,,,,,,,,22.0,0.0,0.8501200000000001,-0.067383,0.125,0.50708,0.281254,-0.001465,-0.980972,0.004838,-0.025437,-0.016915,,,,,,,,,,,,,,,,,,,,,,,,,,,,,,,,,,,,,,,,,,,,,,,,,,,,,,,,,,,,,,,,,
20686,1648952766.213799,1648952766.243641,45.0,0.0,4414.871582,4496.410156,4245.128418,4376.922852000001,4452.820313,0.0,3.0,73.0,,,,0.0,0.0,1.0,0.0,0.0,0.0,0.0,,,,,,,,,,,,,,,,,,,,,,,,,,,,,,,,,,,,,,,,,,,,,,,,,,,,,,0.0,0.0,32.0,0.215169,1.0,0.0,,,,,,,,,,,,,,,,,,,,,,,,,
20687,1648952766.2216141,1648952766.2515562,46.0,0.0,4268.205078,4686.666504,4070.7692869999996,4144.102539,4242.05127,0.0,3.0,73.0,,,,0.0,0.0,1.0,0.0,0.0,0.0,0.0,,,,,,,,23.0,0.0,0.8501200000000001,-0.067383,0.125,0.50708,0.279789,-0.0058590000000000005,-0.9712059999999999,0.002742,-0.025433,-0.024452,,,,,,,,,,,,,,,,,,,,,,,,,,,,,,,,,,,,,,,,,,,,,,,,,,,,,,,,,,,,,,,,,
20688,1648952766.2294278,1648952766.259372,47.0,0.0,4216.922852000001,4773.333496,4189.230957,4185.128418,4236.410156,0.0,3.0,73.0,,,,0.0,0.0,1.0,0.0,0.0,0.0,0.0,,,,,,,,,,,,,,,,,,,,,,,,,,,,,,,,,,,,,,,,,,,,,,,,,,,,,,,,,,,,,,,,,,,,,,,,,,,,,,,,,,,,
20689,1648952766.237243,1648952766.267288,48.0,0.0,4431.794922,4551.794922,4325.641113000001,4546.153809,4412.307617,0.0,3.0,73.0,,,,0.0,0.0,1.0,0.0,0.0,0.0,0.0,,,,,,,,24.0,0.0,0.850266,-0.067383,0.125,0.506836,0.294926,-0.018067,-0.968277,0.005447,-0.025477,-0.028451999999999998,,,,,,,,,,,,,,,,,,,,,,,,,,,,,,,,,,,,,,,,,,,,,,,,,,,,,,,,,,,,,,,,,
20690,1648952766.245057,1648952766.2751029,49.0,0.0,4529.743652,4516.410156,4274.358886999999,4507.179688,4261.538574,0.0,3.0,73.0,,,,0.0,0.0,1.0,0.0,0.0,0.0,0.0,,,,,,,,,,,,,,,,,,,,1.0,0.0,0.0,,,,,,,,,,,,,,,,,,,,,,,,,,,,,,,,0.0,0.0,32.0,0.21714499999999998,1.0,0.0,40.024044,58.788925,32.572071,80.604996,327.591827,72.85895500000001,54.23934200000001,33.001698,26.897323999999998,240.48561099999998,59.271378000000006,45.040543,43.394989,179.030624,229.459641,34.138191,34.093712,38.749798,70.27887700000001,433.577454,22.359669,53.573753,7.271364999999999,50.791199,497.01406900000006
20691,1648952766.252872,1648952766.2830188,50.0,0.0,4277.94873,4814.871582,4136.410156,4124.102539,4178.461426,0.0,3.0,73.0,,,,0.0,0.0,1.0,0.0,0.0,0.0,0.0,,,,,,,,25.0,0.0,0.850101,-0.06762699999999999,0.125,0.50708,0.30518,-0.015137000000000001,-0.993667,0.006367,-0.025419999999999998,-0.032052,,,,,,,,,,,,,,,,,,,,,,,,,,,,,,,,,,,,,,,,,,,,,,,,,,,,,,,,,,,,,,,,,
20692,1648952766.2606869,1648952766.290834,51.0,0.0,4164.615234000001,4892.307617,4101.538574,4105.641113000001,4511.794922,0.0,3.0,73.0,,,,0.0,0.0,1.0,0.0,0.0,0.0,0.0,,,,,,,,,,,,,,,,,,,,,,,,,,,,,,,,,,,,,,,,,,,,,,,,,,,,,,,,,,,,,,,,,,,,,,,,,,,,,,,,,,,,
20693,1648952766.268501,1648952766.29875,52.0,1.0,4201.346191,4857.436035,4150.128418,4130.128418,4517.820313,0.0,3.0,73.0,,,,0.0,0.0,1.0,0.0,0.0,0.0,0.0,,,,,,,,26.0,1.0,0.8501299999999999,-0.06762699999999999,0.125,0.507031,0.30039499999999997,-0.014551,-0.99064,0.006533,-0.025419,-0.030767000000000003,,,,,,,,,,,,,,,,,,,,,,,,,,,,,,,,,,,,,,,,,,,,,,,,,,,,,,,,,,,,,,,,,
20694,1648952766.276316,1648952766.306565,53.0,1.0,4238.077147999999,4822.563965,4198.717772999999,4154.615234000001,4523.846191,0.0,3.0,73.0,,,,0.0,0.0,1.0,0.0,0.0,0.0,0.0,,,,,,,,,,,,,,,,,,,,,,,,,,,,,,,,,,,,,,,,,,,,,,,,,,,,,,0.0,0.0,32.0,0.21714499999999998,1.0,0.0,,,,,,,,,,,,,,,,,,,,,,,,,
20695,1648952766.28413,1648952766.3143811,54.0,1.0,4274.807617,4787.692383,4247.307617,4179.102539,4529.871582,0.0,3.0,73.0,,,,0.0,0.0,1.0,0.0,0.0,0.0,0.0,,,,,,,,27.0,1.0,0.850159,-0.06762699999999999,0.125,0.5069819999999999,0.29561,-0.013965,-0.987613,0.006698000000000001,-0.025419,-0.029481,,,,,,,,,,,,,,,,,,,,,,,,,,,,,,,,,,,,,,,,,,,,,,,,,,,,,,,,,,,,,,,,,
20696,1648952766.291945,1648952766.322197,55.0,1.0,4311.538574,4752.820313,4295.897461,4203.589844,4535.897461,0.0,3.0,73.0,,,,0.0,0.0,1.0,0.0,0.0,0.0,0.0,,,,,,,,,,,,,,,,,,,,,,,,,,,,,,,,,,,,,,,,,,,,,,,,,,,,,,,,,,,,,,,,,,,,,,,,,,,,,,,,,,,,
20697,1648952766.299759,1648952766.3300118,56.0,1.0,4348.269043,4717.94873,4344.487305,4228.077147999999,4541.922852000001,0.0,3.0,73.0,,,,0.0,0.0,1.0,0.0,0.0,0.0,0.0,,,,,,,,28.0,1.0,0.8501879999999999,-0.06762699999999999,0.125,0.506934,0.290825,-0.013378999999999999,-0.984585,0.006864,-0.025418,-0.028194999999999998,,,,,,,,,,,,,,,,,,,,,,,,,,,,,,,,,,,,,,,,,,,,,,,,,,,,,,,,,,,,,,,,,
20698,1648952766.307574,1648952766.337828,57.0,1.0,4385.0,4683.077147999999,4393.077147999999,4252.563965,4547.94873,0.0,3.0,73.0,,,,0.0,0.0,1.0,0.0,0.0,0.0,0.0,,,,,,,,,,,,,,,,,,,,,,,,,,,,,,,,,,,,,,,,,,,,,,,,,,,,,,0.0,0.0,32.0,0.21714499999999998,1.0,0.0,,,,,,,,,,,,,,,,,,,,,,,,,
20699,1648952766.3153882,1648952766.345643,58.0,1.0,4421.730957,4648.205078,4441.666504,4277.05127,4553.974121,0.0,3.0,73.0,,,,0.0,0.0,1.0,0.0,0.0,0.0,0.0,,,,,,,,29.0,1.0,0.850217,-0.06762699999999999,0.125,0.506885,0.28604,-0.012793,-0.981558,0.0070290000000000005,-0.025418,-0.026910000000000003,,,,,,,,,,,,,,,,,,,,,,,,,,,,,,,,,,,,,,,,,,,,,,,,,,,,,,,,,,,,,,,,,
20700,1648952766.3232028,1648952766.353459,59.0,0.0,4458.461426,4613.333496,4490.256348,4301.538574,4560.0,0.0,3.0,73.0,,,,0.0,0.0,1.0,0.0,0.0,0.0,0.0,,,,,,,,,,,,,,,,,,,,,,,,,,,,,,,,,,,,,,,,,,,,,,,,,,,,,,,,,,,,,,,,,,,,,,,,,,,,,,,,,,,,
20701,1648952766.331017,1648952766.361275,60.0,0.0,4458.974121,4757.436035,4310.256348,4289.230957,4316.410156,0.0,3.0,73.0,,,,0.0,0.0,1.0,0.0,0.0,0.0,0.0,,,,,,,,30.0,0.0,0.850246,-0.06762699999999999,0.125,0.506836,0.281254,-0.012206999999999999,-0.9785309999999999,0.007195,-0.025417,-0.025624,,,,,,,,,,,,,,,,,,,,,,,,,,,,,,,,,,,,,,,,,,,,,,,,,,,,,,,,,,,,,,,,,
20702,1648952766.3388321,1648952766.368989,61.0,0.0,4194.358886999999,4917.94873,4264.102539,4026.1538090000004,4174.871582,0.0,3.0,73.0,,,,0.0,0.0,1.0,0.0,0.0,0.0,0.0,,,,,,,,,,,,,,,,,,,,,,,,,,,,,,,,,,,,,,,,,,,,,,,,,,,,,,0.0,0.0,32.0,0.21714499999999998,1.0,0.0,,,,,,,,,,,,,,,,,,,,,,,,,
20703,1648952766.346647,1648952766.376703,62.0,0.0,4215.897461,4678.461426,4351.794922,4137.94873,4566.153809,0.0,3.0,73.0,,,,0.0,0.0,1.0,0.0,0.0,0.0,0.0,,,,,,,,31.0,0.0,0.850246,-0.06762699999999999,0.125,0.506836,0.28809,-0.010742,-0.9868309999999999,0.009552,-0.025366,-0.029361,,,,,,,,,,,,,,,,,,,,,,,,,,,,,,,,,,,,,,,,,,,,,,,,,,,,,,,,,,,,,,,,,
20704,1648952766.354461,1648952766.384518,63.0,0.0,4562.05127,4617.436035,4132.307617,4396.410156,4598.974121,0.0,3.0,73.0,,,,0.0,0.0,1.0,0.0,0.0,0.0,0.0,,,,,,,,,,,,,,,,,,,,,,,,,,,,,,,,,,,,,,,,,,,,,,,,,,,,,,,,,,,,,,,,,,,,,,,,,,,,,,,,,,,,
