,Timestamp,OriginalTimestamp,EEG.Counter,EEG.Interpolated,EEG.AF3,EEG.T7,EEG.Pz,EEG.T8,EEG.AF4,EEG.RawCq,EEG.Battery,EEG.BatteryPercent,MarkerIndex,MarkerType,MarkerValueInt,EEG.MarkerHardware,CQ.AF3,CQ.T7,CQ.Pz,CQ.T8,CQ.AF4,CQ.Overall,EQ.SampleRateQuality,EQ.OVERALL,EQ.AF3,EQ.T7,EQ.Pz,EQ.T8,EQ.AF4,MOT.CounterMems,MOT.InterpolatedMems,MOT.Q0,MOT.Q1,MOT.Q2,MOT.Q3,MOT.AccX,MOT.AccY,MOT.AccZ,MOT.MagX,MOT.MagY,MOT.MagZ,MC.Action,MC.ActionPower,MC.IsActive,PM.Engagement.IsActive,PM.Engagement.Scaled,PM.Engagement.Raw,PM.Engagement.Min,PM.Engagement.Max,PM.Excitement.IsActive,PM.Excitement.Scaled,PM.Excitement.Raw,PM.Excitement.Min,PM.Excitement.Max,PM.LongTermExcitement,PM.Stress.IsActive,PM.Stress.Scaled,PM.Stress.Raw,PM.Stress.Min,PM.Stress.Max,PM.Relaxation.IsActive,PM.Relaxation.Scaled,PM.Relaxation.Raw,PM.Relaxation.Min,PM.Relaxation.Max,PM.Interest.IsActive,PM.Interest.Scaled,PM.Interest.Raw,PM.Interest.Min,PM.Interest.Max,PM.Focus.IsActive,PM.Focus.Scaled,PM.Focus.Raw,PM.Focus.Min,PM.Focus.Max,FE.BlinkWink,FE.HorizontalEyesDirection,FE.UpperFaceAction,FE.UpperFaceActionPower,FE.LowerFaceAction,FE.LowerFaceActionPower,POW.AF3.Theta,POW.AF3.Alpha,POW.AF3.BetaL,POW.AF3.BetaH,POW.AF3.Gamma,POW.T7.Theta,POW.T7.Alpha,POW.T7.BetaL,POW.T7.BetaH,POW.T7.Gamma,POW.Pz.Theta,POW.Pz.Alpha,POW.Pz.BetaL,POW.Pz.BetaH,POW.Pz.Gamma,POW.T8.Theta,POW.T8.Alpha,POW.T8.BetaL,POW.T8.BetaH,POW.T8.Gamma,POW.AF4.Theta,POW.AF4.Alpha,POW.AF4.BetaL,POW.AF4.BetaH,POW.AF4.Gamma
29177,1648953321.1791189,1648953321.194665,22.0,0.0,4489.230957,4915.384765999999,4471.794922,4415.897461,4335.897461,0.0,3.0,73.0,,,,0.0,0.0,0.0,0.0,0.0,0.0,0.0,,,,,,,,11.0,0.0,0.389358,-0.131348,0.067383,0.9091799999999999,0.306157,-0.008301000000000001,-0.989273,-0.004308,-0.009934,-0.036449,,,,,,,,,,,,,,,,,,,,,,,,,,,,,,,,,,,,,,,,,,,,,,,,,,,,,,,,,,,,,,,,,
29178,1648953321.186933,1648953321.2023802,23.0,0.0,4312.307617,4786.666504,4388.717772999999,4418.974121,4010.7692869999996,0.0,3.0,73.0,,,,0.0,0.0,0.0,0.0,0.0,0.0,0.0,,,,,,,,,,,,,,,,,,,,,,,,,,,,,,,,,,,,,,,,,,,,,,,,,,,,,,,,,,,,,,,,,,,,,,,,,,,,,,,,,,,,
29179,1648953321.1947482,1648953321.2101948,24.0,0.0,4254.871582,4863.077147999999,4405.641113000001,4216.410156,4045.1281740000004,0.0,3.0,73.0,,,,0.0,0.0,0.0,0.0,0.0,0.0,0.0,,,,,,,,12.0,0.0,0.389358,-0.131348,0.067383,0.9091799999999999,0.292485,-0.026856,-0.9868309999999999,-0.004268,-0.010015000000000001,-0.038664,,,,,,,,,,,,,,,,,,,,,,,,,,,,,,,,,,,,,,,,,,,,,,,,,,,,,,,,,,,,,,,,,
29180,1648953321.2025619,1648953321.217909,25.0,0.0,4288.717772999999,4998.461426,4583.589844,4051.794922,4169.743652,0.0,3.0,73.0,,,,0.0,0.0,0.0,0.0,0.0,0.0,0.0,,,,,,,,,,,,,,,,,,,,,,,,,,,,,,,,,,,,,,,,,,,,,,,,,,,,,,0.0,0.0,32.0,0.081432,1.0,0.0,,,,,,,,,,,,,,,,,,,,,,,,,
29181,1648953321.210377,1648953321.225724,26.0,0.0,4345.128418,4969.230957,4682.05127,4382.563965,4306.153809,0.0,3.0,73.0,,,,0.0,0.0,0.0,0.0,0.0,0.0,0.0,,,,,,,,13.0,0.0,0.389358,-0.131348,0.067383,0.9091799999999999,0.309087,-0.021485,-0.9785309999999999,-0.004281,-0.010088,-0.040608,,,,,,,,,,,,,,,,,,,,,,,,,,,,,,,,,,,,,,,,,,,,,,,,,,,,,,,,,,,,,,,,,
29182,1648953321.218191,1648953321.233439,27.0,0.0,4424.615234000001,4887.692383,4366.666504,4748.717772999999,4504.102539,0.0,3.0,73.0,,,,0.0,0.0,0.0,0.0,0.0,0.0,0.0,,,,,,,,,,,,,,,,,,,,,,,,,,,,,,,,,,,,,,,,,,,,,,,,,,,,,,,,,,,,,,,,,,,,,,,,,,,,,,,,,,,,
29183,1648953321.226006,1648953321.241253,28.0,0.0,4379.487305,4850.769043,4095.897461,4594.871582,4548.205078,0.0,3.0,73.0,,,,0.0,0.0,0.0,0.0,0.0,0.0,0.0,,,,,,,,14.0,0.0,0.389358,-0.131348,0.067383,0.9091799999999999,0.307622,-0.012695999999999999,-0.9790190000000001,-0.004292,-0.010104,-0.036059,,,,,,,,,,,,,,,,,,,,,,,,,,,,,,,,,,,,,,,,,,,,,,,,,,,,,,,,,,,,,,,,,
29184,1648953321.23382,1648953321.248968,29.0,0.0,4208.717772999999,4947.179688,4283.077147999999,4221.538574,4354.871582,0.0,3.0,73.0,,,,0.0,0.0,0.0,0.0,0.0,0.0,0.0,,,,,,,,,,,,,,,,,,,,,,,,,,,,,,,,,,,,,,,,,,,,,,,,,,,,,,0.0,0.0,32.0,0.081432,1.0,0.0,,,,,,,,,,,,,,,,,,,,,,,,,
29185,1648953321.2416348,1648953321.256783,30.0,0.0,4178.461426,5093.846191,4510.256348,4139.487305,4166.153809,0.0,3.0,73.0,,,,0.0,0.0,0.0,0.0,0.0,0.0,0.0,,,,,,,,15.0,0.0,0.389358,-0.131348,0.067383,0.9091799999999999,0.295903,-0.018555000000000002,-0.976577,-0.004253,-0.01007,-0.03216,,,,,,,,,,,,,,,,,,,,,,,,,,,,,,,,,,,,,,,,,,,,,,,,,,,,,,,,,,,,,,,,,
29186,1648953321.249449,1648953321.264498,31.0,0.0,4134.871582,4999.487305,4353.333496,4195.897461,4087.6923829999996,0.0,3.0,73.0,,,,0.0,0.0,0.0,0.0,0.0,0.0,0.0,,,,,,,,,,,,,,,,,,,,,,,,,,,,,,,,,,,,,,,,,,,,,,,,,,,,,,,,,,,,,,,,,,,,,,,,,,,,,,,,,,,,
29187,1648953321.2572641,1648953321.272312,32.0,0.0,4086.1538090000004,4824.615234000001,4223.589844,4277.94873,4242.05127,0.0,3.0,73.0,,,,0.0,0.0,0.0,0.0,0.0,0.0,0.0,,,,,,,,16.0,0.0,0.389358,-0.131348,0.067383,0.9091799999999999,0.29639099999999996,-0.005371,-0.977066,-0.0043159999999999995,-0.010089,-0.028602,,,,,,,,,,,,,,,,,,,,,,,,,,,,,,,,,,,,,,,,,,,,,,,,,,,,,,,,,,,,,,,,,
29188,1648953321.2650778,1648953321.280027,33.0,0.0,4189.743652,4923.077147999999,4417.436035,4360.0,4513.333496,0.0,3.0,73.0,,,,0.0,0.0,0.0,0.0,0.0,0.0,0.0,,,,,,,,,,,,,,,,,,,,1.0,0.0,0.0,,,,,,,,,,,,,,,,,,,,,,,,,,,,,,,,0.0,0.0,32.0,0.09548999999999999,1.0,0.0,105.478668,318.43277,428.335754,585.359009,74.78299,80.52089699999999,60.328430000000004,112.026215,93.737061,57.667457999999996,56.462681,75.756462,145.713791,164.948624,300.616882,49.003674,123.500648,304.835419,803.621216,119.243385,141.80661,264.583771,448.12737999999996,839.7841800000001,114.39291399999999
29189,1648953321.272893,1648953321.287841,34.0,0.0,4406.153809,5055.897461,4642.563965,4467.179688,4610.769043,0.0,3.0,73.0,,,,0.0,0.0,0.0,0.0,0.0,0.0,0.0,,,,,,,,17.0,0.0,0.389316,-0.131348,0.06762699999999999,0.9091799999999999,0.300786,-0.022461000000000002,-0.988296,-0.004324000000000001,-0.010008,-0.031455000000000004,,,,,,,,,,,,,,,,,,,,,,,,,,,,,,,,,,,,,,,,,,,,,,,,,,,,,,,,,,,,,,,,,
29190,1648953321.2807071,1648953321.295556,35.0,0.0,4635.384765999999,4921.538574,4536.410156,4522.563965,4310.769043,0.0,3.0,73.0,,,,0.0,0.0,0.0,0.0,0.0,0.0,0.0,,,,,,,,,,,,,,,,,,,,,,,,,,,,,,,,,,,,,,,,,,,,,,,,,,,,,,,,,,,,,,,,,,,,,,,,,,,,,,,,,,,,
29191,1648953321.288522,1648953321.30337,36.0,0.0,4667.692383,4826.666504,4343.077147999999,4451.794922,4033.3332520000004,0.0,3.0,73.0,,,,0.0,0.0,0.0,0.0,0.0,0.0,0.0,,,,,,,,18.0,0.0,0.389316,-0.131348,0.06762699999999999,0.9091799999999999,0.304692,-0.016602000000000002,-0.9629049999999999,-0.004331000000000001,-0.010032,-0.027919,,,,,,,,,,,,,,,,,,,,,,,,,,,,,,,,,,,,,,,,,,,,,,,,,,,,,,,,,,,,,,,,,
29192,1648953321.296337,1648953321.311085,37.0,0.0,4355.897461,4949.230957,4304.102539,4153.846191,4098.461426,0.0,3.0,73.0,,,,0.0,0.0,0.0,0.0,0.0,0.0,0.0,,,,,,,,,,,,,,,,,,,,,,,,,,,,,,,,,,,,,,,,,,,,,,,,,,,,,,0.0,0.0,32.0,0.09548999999999999,1.0,0.0,,,,,,,,,,,,,,,,,,,,,,,,,
29193,1648953321.304151,1648953321.318899,38.0,0.0,4123.589844,5025.128418,4503.589844,4035.897461,4380.512695,0.0,3.0,73.0,,,,0.0,0.0,0.0,0.0,0.0,0.0,0.0,,,,,,,,19.0,0.0,0.389316,-0.131348,0.06762699999999999,0.9091799999999999,0.303716,-0.029297000000000004,-0.977554,-0.004435000000000001,-0.009956999999999999,-0.030986,,,,,,,,,,,,,,,,,,,,,,,,,,,,,,,,,,,,,,,,,,,,,,,,,,,,,,,,,,,,,,,,,
29194,1648953321.311966,1648953321.3266132,39.0,0.0,4148.717772999999,4974.358886999999,4606.153809,4316.410156,4528.205078,0.0,3.0,73.0,,,,0.0,0.0,0.0,0.0,0.0,0.0,0.0,,,,,,,,,,,,,,,,,,,,,,,,,,,,,,,,,,,,,,,,,,,,,,,,,,,,,,,,,,,,,,,,,,,,,,,,,,,,,,,,,,,,
29195,1648953321.31978,1648953321.334328,40.0,0.0,4262.563965,4933.333496,4397.436035,4606.666504,4508.717772999999,0.0,3.0,73.0,,,,0.0,0.0,0.0,0.0,0.0,0.0,0.0,,,,,,,,20.0,0.0,0.389316,-0.131348,0.06762699999999999,0.9091799999999999,0.300298,-0.023438,-0.9716950000000001,-0.004529,-0.009987000000000001,-0.033845,,,,,,,,,,,,,,,,,,,,,,,,,,,,,,,,,,,,,,,,,,,,,,,,,,,,,,,,,,,,,,,,,
29196,1648953321.327595,1648953321.342143,41.0,0.0,4304.102539,4907.179688,4195.897461,4532.820313,4438.974121,0.0,3.0,73.0,,,,0.0,0.0,0.0,0.0,0.0,0.0,0.0,,,,,,,,,,,,,,,,,,,,,,,,,,,,,,,,,,,,,,,,,,,,,,,,,,,,,,0.0,0.0,32.0,0.09548999999999999,1.0,0.0,,,,,,,,,,,,,,,,,,,,,,,,,
29197,1648953321.3354099,1648953321.349958,42.0,0.0,4341.538574,4959.487305,4236.410156,4234.358886999999,4312.307617,0.0,3.0,73.0,,,,0.0,0.0,0.0,0.0,0.0,0.0,0.0,,,,,,,,21.0,0.0,0.389316,-0.131348,0.06762699999999999,0.9091799999999999,0.302739,-0.019532,-0.9716950000000001,-0.004418,-0.009964,-0.036417000000000005,,,,,,,,,,,,,,,,,,,,,,,,,,,,,,,,,,,,,,,,,,,,,,,,,,,,,,,,,,,,,,,,,
29198,1648953321.343224,1648953321.357672,43.0,0.0,4280.0,5140.0,4372.307617,4106.153809,4143.589844,0.0,3.0,73.0,,,,0.0,0.0,0.0,0.0,0.0,0.0,0.0,,,,,,,,,,,,,,,,,,,,,,,,,,,,,,,,,,,,,,,,,,,,,,,,,,,,,,,,,,,,,,,,,,,,,,,,,,,,,,,,,,,,
29199,1648953321.3510392,1648953321.365486,44.0,0.0,4087.179443,5101.025879,4283.077147999999,4232.820313,4030.7692869999996,0.0,3.0,73.0,,,,0.0,0.0,0.0,0.0,0.0,0.0,0.0,,,,,,,,22.0,0.0,0.389273,-0.131348,0.067871,0.9091799999999999,0.286137,-0.02002,-0.975601,-0.004415,-0.009945,-0.032336000000000004,,,,,,,,,,,,,,,,,,,,,,,,,,,,,,,,,,,,,,,,,,,,,,,,,,,,,,,,,,,,,,,,,
29200,1648953321.3588529,1648953321.373201,45.0,0.0,4052.3076170000004,4887.179688,4151.794922,4334.871582,4137.436035,0.0,3.0,73.0,,,,0.0,0.0,0.0,0.0,0.0,0.0,0.0,,,,,,,,,,,,,,,,,,,,,,,,,,,,,,,,,,,,,,,,,,,,,,,,,,,,,,0.0,0.0,32.0,0.09548999999999999,1.0,0.0,,,,,,,,,,,,,,,,,,,,,,,,,
29201,1648953321.366668,1648953321.381015,46.0,0.0,4188.717772999999,4941.025879,4277.436035,4270.256348,4374.871582,0.0,3.0,73.0,,,,0.0,0.0,0.0,0.0,0.0,0.0,0.0,,,,,,,,23.0,0.0,0.389316,-0.131348,0.06762699999999999,0.9091799999999999,0.304692,-0.016114,-0.9956209999999999,-0.004462,-0.009927,-0.034962,,,,,,,,,,,,,,,,,,,,,,,,,,,,,,,,,,,,,,,,,,,,,,,,,,,,,,,,,,,,,,,,,
29202,1648953321.374482,1648953321.38873,47.0,0.0,4432.307617,5029.230957,4543.589844,4406.666504,4504.102539,0.0,3.0,73.0,,,,0.0,0.0,0.0,0.0,0.0,0.0,0.0,,,,,,,,,,,,,,,,,,,,,,,,,,,,,,,,,,,,,,,,,,,,,,,,,,,,,,,,,,,,,,,,,,,,,,,,,,,,,,,,,,,,
29203,1648953321.382297,1648953321.396544,48.0,0.0,4677.94873,4918.974121,4478.461426,4581.538574,4440.0,0.0,3.0,73.0,,,,0.0,0.0,0.0,0.0,0.0,0.0,0.0,,,,,,,,24.0,0.0,0.389316,-0.131348,0.06762699999999999,0.9091799999999999,0.285649,-0.016114,-0.9834129999999999,-0.004358,-0.009959,-0.031075,,,,,,,,,,,,,,,,,,,,,,,,,,,,,,,,,,,,,,,,,,,,,,,,,,,,,,,,,,,,,,,,,
29204,1648953321.390111,1648953321.404259,49.0,0.0,4689.743652,4857.94873,4173.846191,4445.641113000001,4376.922852000001,0.0,3.0,73.0,,,,0.0,0.0,0.0,0.0,0.0,0.0,0.0,,,,,,,,,,,,,,,,,,,,1.0,0.0,0.0,,,,,,,,,,,,,,,,,,,,,,,,,,,,,,,,0.0,0.0,32.0,0.100238,1.0,0.0,78.951004,341.919647,280.710999,609.967712,69.011925,69.718781,62.17326,137.62175,82.760071,61.277378000000006,66.26355699999999,73.0495,152.01683,145.021408,289.683624,56.106274,112.826797,197.898666,857.0205080000001,119.217308,107.03698700000001,279.025574,274.823639,876.767334,109.35921499999999
29205,1648953321.397926,1648953321.411974,50.0,0.0,4308.717772999999,4910.256348,4282.05127,4164.615234000001,4310.256348,0.0,3.0,73.0,,,,0.0,0.0,0.0,0.0,0.0,0.0,0.0,,,,,,,,25.0,0.0,0.389316,-0.131348,0.06762699999999999,0.9091799999999999,0.30811,-0.018067,-0.988296,-0.004313,-0.009842,-0.033826999999999996,,,,,,,,,,,,,,,,,,,,,,,,,,,,,,,,,,,,,,,,,,,,,,,,,,,,,,,,,,,,,,,,,
29206,1648953321.40574,1648953321.4197881,51.0,0.0,4093.3332520000004,5066.666504,4625.641113000001,4084.615479,4330.256348,0.0,3.0,73.0,,,,0.0,0.0,0.0,0.0,0.0,0.0,0.0,,,,,,,,,,,,,,,,,,,,,,,,,,,,,,,,,,,,,,,,,,,,,,,,,,,,,,,,,,,,,,,,,,,,,,,,,,,,,,,,,,,,
29207,1648953321.4135551,1648953321.427603,52.0,0.0,4128.717772999999,5151.282227000001,4421.538574,4122.05127,4365.641113000001,0.0,3.0,73.0,,,,0.0,0.0,0.0,0.0,0.0,0.0,0.0,,,,,,,,26.0,0.0,0.389316,-0.131348,0.06762699999999999,0.9091799999999999,0.292973,-0.016602000000000002,-0.9746239999999999,-0.004222999999999999,-0.009786,-0.030054,,,,,,,,,,,,,,,,,,,,,,,,,,,,,,,,,,,,,,,,,,,,,,,,,,,,,,,,,,,,,,,,,
29208,1648953321.4213688,1648953321.435317,53.0,0.0,4108.205078,4998.974121,4188.717772999999,4286.666504,4370.769043,0.0,3.0,73.0,,,,0.0,0.0,0.0,0.0,0.0,0.0,0.0,,,,,,,,,,,,,,,,,,,,,,,,,,,,,,,,,,,,,,,,,,,,,,,,,,,,,,0.0,0.0,32.0,0.100238,1.0,0.0,,,,,,,,,,,,,,,,,,,,,,,,,
29209,1648953321.429184,1648953321.443032,54.0,0.0,4231.282227000001,4897.94873,4361.025879,4430.256348,4538.461426,0.0,3.0,73.0,,,,0.0,0.0,0.0,0.0,0.0,0.0,0.0,,,,,,,,27.0,0.0,0.389316,-0.131348,0.06762699999999999,0.9091799999999999,0.299809,-0.016602000000000002,-0.980484,-0.004289,-0.009734999999999999,-0.026706999999999998,,,,,,,,,,,,,,,,,,,,,,,,,,,,,,,,,,,,,,,,,,,,,,,,,,,,,,,,,,,,,,,,,
29210,1648953321.4369981,1648953321.4508471,55.0,0.0,4553.333496,5058.974121,4544.102539,4410.256348,4756.410156,0.0,3.0,73.0,,,,0.0,0.0,0.0,0.0,0.0,0.0,0.0,,,,,,,,,,,,,,,,,,,,,,,,,,,,,,,,,,,,,,,,,,,,,,,,,,,,,,,,,,,,,,,,,,,,,,,,,,,,,,,,,,,,
29211,1648953321.444813,1648953321.458561,56.0,0.0,4531.282227000001,5062.05127,4472.820313,4380.512695,4462.563965,0.0,3.0,73.0,,,,0.0,0.0,0.0,0.0,0.0,0.0,0.0,,,,,,,,28.0,0.0,0.389316,-0.131348,0.06762699999999999,0.9091799999999999,0.30811,-0.018067,-0.988296,-0.004397,-0.009738,-0.023694,,,,,,,,,,,,,,,,,,,,,,,,,,,,,,,,,,,,,,,,,,,,,,,,,,,,,,,,,,,,,,,,,
29212,1648953321.452628,1648953321.466376,57.0,0.0,4285.641113000001,4786.666504,4267.179688,4350.256348,4058.974365,0.0,3.0,73.0,,,,0.0,0.0,0.0,0.0,0.0,0.0,0.0,,,,,,,,,,,,,,,,,,,,,,,,,,,,,,,,,,,,,,,,,,,,,,,,,,,,,,0.0,0.0,32.0,0.100238,1.0,0.0,,,,,,,,,,,,,,,,,,,,,,,,,
29213,1648953321.460442,1648953321.47409,58.0,0.0,4217.94873,4685.641113000001,4314.871582,4166.666504,4063.5898439999996,0.0,3.0,73.0,,,,0.0,0.0,0.0,0.0,0.0,0.0,0.0,,,,,,,,29.0,0.0,0.389316,-0.131348,0.06762699999999999,0.9091799999999999,0.299809,-0.016602000000000002,-0.980484,-0.004446,-0.009692000000000001,-0.020983,,,,,,,,,,,,,,,,,,,,,,,,,,,,,,,,,,,,,,,,,,,,,,,,,,,,,,,,,,,,,,,,,
29214,1648953321.468257,1648953321.481905,59.0,0.0,4276.922852000001,4935.384765999999,4656.922852000001,4049.743652,4107.692383,0.0,3.0,73.0,,,,0.0,0.0,0.0,0.0,0.0,0.0,0.0,,,,,,,,,,,,,,,,,,,,,,,,,,,,,,,,,,,,,,,,,,,,,,,,,,,,,,,,,,,,,,,,,,,,,,,,,,,,,,,,,,,,
29215,1648953321.4760711,1648953321.489619,60.0,0.0,4294.871582,5133.846191,4650.769043,4265.641113000001,4196.922852000001,0.0,3.0,73.0,,,,0.0,0.0,0.0,0.0,0.0,0.0,0.0,,,,,,,,30.0,0.0,0.389316,-0.131348,0.06762699999999999,0.9091799999999999,0.292973,-0.026856,-0.973159,-0.004538,-0.009699,-0.018543,,,,,,,,,,,,,,,,,,,,,,,,,,,,,,,,,,,,,,,,,,,,,,,,,,,,,,,,,,,,,,,,,
29216,1648953321.483886,1648953321.497433,61.0,0.0,4270.769043,4980.512695,4216.410156,4589.743652,4463.077147999999,0.0,3.0,73.0,,,,0.0,0.0,0.0,0.0,0.0,0.0,0.0,,,,,,,,,,,,,,,,,,,,,,,,,,,,,,,,,,,,,,,,,,,,,,,,,,,,,,0.0,0.0,32.0,0.100238,1.0,0.0,,,,,,,,,,,,,,,,,,,,,,,,,
29217,1648953321.4917,1648953321.505148,62.0,0.0,4318.974121,4868.717772999999,4129.230957,4622.563965,4569.230957,0.0,3.0,73.0,,,,0.0,0.0,0.0,0.0,0.0,0.0,0.0,,,,,,,,31.0,0.0,0.389316,-0.131348,0.06762699999999999,0.9091799999999999,0.286137,-0.010254000000000001,-0.9834129999999999,-0.004475,-0.009804,-0.022646,,,,,,,,,,,,,,,,,,,,,,,,,,,,,,,,,,,,,,,,,,,,,,,,,,,,,,,,,,,,,,,,,
29218,1648953321.499515,1648953321.5129619,63.0,0.0,4318.974121,5098.974121,4410.256348,4288.205078,4417.94873,0.0,3.0,73.0,,,,0.0,0.0,0.0,0.0,0.0,0.0,0.0,,,,,,,,,,,,,,,,,,,,,,,,,,,,,,,,,,,,,,,,,,,,,,,,,,,,,,,,,,,,,,,,,,,,,,,,,,,,,,,,,,,,
29219,1648953321.5073302,1648953321.5206769,64.0,0.0,4276.410156,5260.0,4516.922852000001,4097.436035,4272.820313,450.0,3.0,73.0,,,,0.0,0.0,0.0,0.0,0.0,0.0,0.0,,,,,,,,32.0,0.0,0.389316,-0.131348,0.06762699999999999,0.9091799999999999,0.29736799999999997,-0.028321,-0.9673,-0.0044670000000000005,-0.009995,-0.020038999999999998,,,,,,,,,,,,,,,,,,,,,,,,,,,,,,,,,,,,,,,,,,,,,,,,,,,,,,,,,,,,,,,,,
29220,1648953321.5151439,1648953321.528491,65.0,0.0,4164.615234000001,5023.589844,4322.05127,4185.641113000001,4111.282227000001,450.0,3.0,73.0,,,,0.0,0.0,0.0,0.0,0.0,0.0,0.0,1.0,0.0,0.0,0.0,0.0,0.0,0.0,,,,,,,,,,,,,1.0,0.0,0.0,,,,,,,,,,,,,,,,,,,,,,,,,,,,,,,,0.0,0.0,32.0,0.089857,1.0,0.0,63.526931999999995,346.291962,192.855255,629.944153,63.465874,61.078648,64.612526,158.75071699999998,71.242912,67.868874,73.050064,68.26615100000001,153.96405,123.456024,285.339996,65.753311,100.31468199999999,150.661774,868.963318,116.3694,82.727791,303.026581,169.20021100000002,876.1103519999999,101.02065999999999
29221,1648953321.522959,1648953321.536206,66.0,0.0,4130.256348,4816.922852000001,4212.307617,4325.641113000001,4176.410156,34.0,3.0,73.0,,,,0.0,0.0,0.0,0.0,0.0,0.0,0.0,,,,,,,,33.0,0.0,0.389316,-0.131348,0.06762699999999999,0.9091799999999999,0.292973,-0.030274000000000002,-0.9824370000000001,-0.004509,-0.009972,-0.017644999999999997,,,,,,,,,,,,,,,,,,,,,,,,,,,,,,,,,,,,,,,,,,,,,,,,,,,,,,,,,,,,,,,,,
29222,1648953321.5307732,1648953321.54402,67.0,0.0,4237.94873,4982.563965,4333.846191,4355.384765999999,4495.897461,450.0,3.0,73.0,,,,0.0,0.0,0.0,0.0,0.0,0.0,0.0,,,,,,,,,,,,,,,,,,,,,,,,,,,,,,,,,,,,,,,,,,,,,,,,,,,,,,,,,,,,,,,,,,,,,,,,,,,,,,,,,,,,
29223,1648953321.538588,1648953321.551735,68.0,0.0,4389.230957,5092.307617,4570.769043,4431.282227000001,4653.333496,11.0,3.0,73.0,,,,0.0,0.0,0.0,0.0,0.0,0.0,0.0,,,,,,,,34.0,0.0,0.389316,-0.131348,0.06762699999999999,0.9091799999999999,0.29395,-0.01709,-0.988296,-0.0044,-0.009903,-0.021691,,,,,,,,,,,,,,,,,,,,,,,,,,,,,,,,,,,,,,,,,,,,,,,,,,,,,,,,,,,,,,,,,
29224,1648953321.546402,1648953321.559549,69.0,0.0,4596.922852000001,4947.179688,4533.846191,4526.153809,4370.256348,450.0,3.0,73.0,,,,0.0,0.0,0.0,0.0,0.0,0.0,0.0,,,,,,,,,,,,,,,,,,,,,,,,,,,,,,,,,,,,,,,,,,,,,,,,,,,,,,0.0,0.0,32.0,0.089857,1.0,0.0,,,,,,,,,,,,,,,,,,,,,,,,,
29225,1648953321.554217,1648953321.567264,70.0,0.0,4725.128418,4821.025879,4292.307617,4493.333496,4078.461426,60.0,3.0,73.0,,,,0.0,0.0,0.0,1.0,0.0,0.0,0.0,,,,,,,,35.0,0.0,0.389316,-0.131348,0.06762699999999999,0.9091799999999999,0.290532,-0.025879000000000003,-0.981949,-0.004301,-0.009889,-0.025381,,,,,,,,,,,,,,,,,,,,,,,,,,,,,,,,,,,,,,,,,,,,,,,,,,,,,,,,,,,,,,,,,
29226,1648953321.562031,1648953321.575078,71.0,0.0,4465.128418,4925.641113000001,4264.615234000001,4195.897461,4095.384521,450.0,3.0,73.0,,,,0.0,0.0,0.0,1.0,0.0,0.0,0.0,,,,,,,,,,,,,,,,,,,,,,,,,,,,,,,,,,,,,,,,,,,,,,,,,,,,,,,,,,,,,,,,,,,,,,,,,,,,,,,,,,,,
29227,1648953321.5698462,1648953321.582793,72.0,0.0,4172.820313,5105.641113000001,4533.846191,4016.923096,4348.717772999999,450.0,3.0,73.0,,,,0.0,0.0,0.0,1.0,0.0,0.0,0.0,,,,,,,,36.0,0.0,0.389273,-0.131348,0.067871,0.9091799999999999,0.303227,-0.024413999999999998,-0.979507,-0.00436,-0.009926,-0.028605000000000002,,,,,,,,,,,,,,,,,,,,,,,,,,,,,,,,,,,,,,,,,,,,,,,,,,,,,,,,,,,,,,,,,
29228,1648953321.5776598,1648953321.590507,73.0,0.0,4130.256348,5072.307617,4636.922852000001,4268.717772999999,4522.563965,3.0,3.0,73.0,,,,0.0,0.0,0.0,1.0,0.0,0.0,0.0,,,,,,,,,,,,,,,,,,,,,,,,,,,,,,,,,,,,,,,,,,,,,,,,,,,,,,0.0,0.0,32.0,0.089857,1.0,0.0,,,,,,,,,,,,,,,,,,,,,,,,,
29229,1648953321.585475,1648953321.5983222,74.0,0.0,4167.692383,4937.436035,4401.025879,4568.205078,4500.0,450.0,3.0,73.0,,,,0.0,0.0,0.0,1.0,0.0,0.0,0.0,,,,,,,,37.0,0.0,0.389316,-0.131348,0.06762699999999999,0.9091799999999999,0.30518,-0.011231,-0.9790190000000001,-0.004461,-0.010006999999999999,-0.025305,,,,,,,,,,,,,,,,,,,,,,,,,,,,,,,,,,,,,,,,,,,,,,,,,,,,,,,,,,,,,,,,,
29230,1648953321.59329,1648953321.606037,75.0,0.0,4222.563965,4941.025879,4245.641113000001,4553.333496,4492.820313,33.0,3.0,73.0,,,,0.0,0.0,0.0,1.0,0.0,0.0,0.0,,,,,,,,,,,,,,,,,,,,,,,,,,,,,,,,,,,,,,,,,,,,,,,,,,,,,,,,,,,,,,,,,,,,,,,,,,,,,,,,,,,,
29231,1648953321.601104,1648953321.613851,76.0,0.0,4367.692383,5025.128418,4230.256348,4321.538574,4490.256348,450.0,3.0,73.0,,,,0.0,0.0,0.0,1.0,0.0,0.0,0.0,,,,,,,,38.0,0.0,0.389398,-0.131104,0.06762699999999999,0.9091799999999999,0.303227,-0.014649,-0.976577,-0.0045520000000000005,-0.009983,-0.028682999999999997,,,,,,,,,,,,,,,,,,,,,,,,,,,,,,,,,,,,,,,,,,,,,,,,,,,,,,,,,,,,,,,,,
29232,1648953321.608919,1648953321.621566,77.0,0.0,4366.666504,5107.692383,4292.820313,4165.641113000001,4304.615234000001,450.0,3.0,73.0,,,,0.0,0.0,0.0,1.0,0.0,0.0,0.0,,,,,,,,,,,,,,,,,,,,,,,,,,,,,,,,,,,,,,,,,,,,,,,,,,,,,,0.0,0.0,32.0,0.089857,1.0,0.0,,,,,,,,,,,,,,,,,,,,,,,,,
29233,1648953321.616733,1648953321.629381,78.0,0.0,4151.794922,5124.615234000001,4328.205078,4202.05127,4032.820557,450.0,3.0,73.0,,,,0.0,0.0,0.0,1.0,0.0,0.0,0.0,,,,,,,,39.0,0.0,0.389316,-0.131348,0.06762699999999999,0.9091799999999999,0.30518,-0.006836,-0.9790190000000001,-0.004487,-0.009913,-0.025473,,,,,,,,,,,,,,,,,,,,,,,,,,,,,,,,,,,,,,,,,,,,,,,,,,,,,,,,,,,,,,,,,
29234,1648953321.624548,1648953321.6370962,79.0,0.0,4140.512695,5030.256348,4220.512695,4333.846191,4090.256348,33.0,3.0,73.0,,,,0.0,0.0,0.0,1.0,0.0,0.0,0.0,,,,,,,,,,,,,,,,,,,,,,,,,,,,,,,,,,,,,,,,,,,,,,,,,,,,,,,,,,,,,,,,,,,,,,,,,,,,,,,,,,,,
29235,1648953321.632362,1648953321.6449099,80.0,0.0,4247.179688,4968.717772999999,4203.077147999999,4318.461426,4382.563965,450.0,3.0,73.0,,,,0.0,0.0,0.0,1.0,0.0,0.0,0.0,,,,,,,,40.0,0.0,0.389316,-0.131348,0.06762699999999999,0.9091799999999999,0.298344,-0.020508000000000002,-0.980972,-0.004478,-0.009849,-0.028785,,,,,,,,,,,,,,,,,,,,,,,,,,,,,,,,,,,,,,,,,,,,,,,,,,,,,,,,,,,,,,,,,
29236,1648953321.640177,1648953321.652625,81.0,0.0,4409.230957,4988.205078,4503.077147999999,4344.102539,4526.666504,450.0,3.0,73.0,,,,0.0,0.0,0.0,1.0,0.0,0.0,0.0,,,,,,,,,,,,,,,,,,,,1.0,0.0,0.0,,,,,,,,,,,,,,,,,,,,,,,,,,,,,,,,0.0,0.0,32.0,0.114025,1.0,0.0,56.369465000000005,337.631195,154.217285,654.60907,59.533302,55.888732999999995,69.63414,170.67865,61.013027,76.97558599999999,74.51046,66.62059,148.88108799999998,102.223228,288.14556899999997,71.61191600000001,88.983154,136.107254,854.740601,111.84845,67.230659,332.60733,116.81141699999999,861.470398,92.114227
29237,1648953321.647991,1648953321.660439,82.0,0.0,4662.563965,4958.974121,4586.666504,4464.615234000001,4450.769043,450.0,3.0,73.0,,,,0.0,0.0,0.0,1.0,0.0,0.0,0.0,,,,,,,,41.0,0.0,0.389316,-0.131348,0.06762699999999999,0.9091799999999999,0.29736799999999997,-0.012695999999999999,-0.983902,-0.0044210000000000005,-0.009937999999999999,-0.031814999999999996,,,,,,,,,,,,,,,,,,,,,,,,,,,,,,,,,,,,,,,,,,,,,,,,,,,,,,,,,,,,,,,,,
29238,1648953321.655806,1648953321.668154,83.0,0.0,4735.384765999999,4928.205078,4366.153809,4461.025879,4410.256348,33.0,3.0,73.0,,,,0.0,0.0,0.0,1.0,0.0,0.0,0.0,,,,,,,,,,,,,,,,,,,,,,,,,,,,,,,,,,,,,,,,,,,,,,,,,,,,,,,,,,,,,,,,,,,,,,,,,,,,,,,,,,,,
29239,1648953321.66362,1648953321.675968,84.0,0.0,4372.820313,4995.897461,4374.358886999999,4177.436035,4344.102539,450.0,3.0,73.0,,,,0.0,0.0,0.0,1.0,0.0,0.0,0.0,,,,,,,,42.0,0.0,0.389316,-0.131348,0.06762699999999999,0.9091799999999999,0.298833,-0.020996,-0.9941559999999999,-0.004516,-0.009921,-0.034493,,,,,,,,,,,,,,,,,,,,,,,,,,,,,,,,,,,,,,,,,,,,,,,,,,,,,,,,,,,,,,,,,
29240,1648953321.6714349,1648953321.683682,85.0,0.0,4106.153809,5124.102539,4596.922852000001,4037.9487299999996,4315.384765999999,450.0,3.0,73.0,,,,0.0,0.0,0.0,1.0,0.0,0.0,0.0,,,,,,,,,,,,,,,,,,,,,,,,,,,,,,,,,,,,,,,,,,,,,,,,,,,,,,0.0,0.0,32.0,0.114025,1.0,0.0,,,,,,,,,,,,,,,,,,,,,,,,,
29241,1648953321.67925,1648953321.691397,86.0,0.0,4150.256348,5210.769043,4538.461426,4227.179688,4365.641113000001,450.0,3.0,73.0,,,,0.0,0.0,0.0,1.0,0.0,0.0,0.0,,,,,,,,43.0,0.0,0.389316,-0.131348,0.06762699999999999,0.9091799999999999,0.29443800000000003,-0.010254000000000001,-0.976577,-0.004504,-0.009906,-0.030652999999999996,,,,,,,,,,,,,,,,,,,,,,,,,,,,,,,,,,,,,,,,,,,,,,,,,,,,,,,,,,,,,,,,,
29242,1648953321.6870642,1648953321.6992118,87.0,0.0,4223.077147999999,5085.641113000001,4352.820313,4426.666504,4403.589844,33.0,3.0,73.0,,,,0.0,0.0,0.0,1.0,0.0,0.0,0.0,,,,,,,,,,,,,,,,,,,,,,,,,,,,,,,,,,,,,,,,,,,,,,,,,,,,,,,,,,,,,,,,,,,,,,,,,,,,,,,,,,,,
29243,1648953321.6948788,1648953321.707027,88.0,0.0,4357.94873,4961.025879,4306.666504,4516.922852000001,4392.820313,450.0,3.0,73.0,,,,0.0,0.0,0.0,1.0,0.0,0.0,0.0,,,,,,,,44.0,0.0,0.389316,-0.131348,0.06762699999999999,0.9091799999999999,0.303227,-0.020996,-0.9897610000000001,-0.004542,-0.009940000000000001,-0.033496,,,,,,,,,,,,,,,,,,,,,,,,,,,,,,,,,,,,,,,,,,,,,,,,,,,,,,,,,,,,,,,,,
29244,1648953321.702693,1648953321.714741,89.0,0.0,4550.769043,5035.897461,4202.563965,4553.333496,4464.615234000001,450.0,3.0,73.0,,,,0.0,0.0,0.0,1.0,0.0,0.0,0.0,,,,,,,,,,,,,,,,,,,,,,,,,,,,,,,,,,,,,,,,,,,,,,,,,,,,,,0.0,0.0,32.0,0.114025,1.0,0.0,,,,,,,,,,,,,,,,,,,,,,,,,
29245,1648953321.710508,1648953321.7225552,90.0,0.0,4489.230957,4992.307617,4218.974121,4349.230957,4325.128418,450.0,3.0,73.0,,,,0.0,0.0,0.0,1.0,0.0,0.0,0.0,,,,,,,,45.0,0.0,0.389316,-0.131348,0.06762699999999999,0.9091799999999999,0.28809,-0.016114,-0.9741360000000001,-0.004478,-0.009972,-0.029707,,,,,,,,,,,,,,,,,,,,,,,,,,,,,,,,,,,,,,,,,,,,,,,,,,,,,,,,,,,,,,,,,
29246,1648953321.718322,1648953321.73027,91.0,0.0,4283.589844,4946.153809,4573.333496,4065.641113,4030.256348,33.0,3.0,73.0,,,,0.0,0.0,0.0,1.0,0.0,0.0,0.0,,,,,,,,,,,,,,,,,,,,,,,,,,,,,,,,,,,,,,,,,,,,,,,,,,,,,,,,,,,,,,,,,,,,,,,,,,,,,,,,,,,,
29247,1648953321.726137,1648953321.737985,92.0,0.0,4142.05127,5091.794922,4640.0,4166.153809,4195.897461,450.0,3.0,73.0,,,,0.0,0.0,0.0,1.0,0.0,0.0,0.0,,,,,,,,46.0,0.0,0.389316,-0.131348,0.06762699999999999,0.9091799999999999,0.313481,-0.016602000000000002,-0.9907379999999999,-0.00447,-0.010048999999999999,-0.032596,,,,,,,,,,,,,,,,,,,,,,,,,,,,,,,,,,,,,,,,,,,,,,,,,,,,,,,,,,,,,,,,,
29248,1648953321.733951,1648953321.745799,93.0,0.0,4136.410156,5057.94873,4198.974121,4501.538574,4514.358886999999,450.0,3.0,73.0,,,,0.0,0.0,0.0,1.0,0.0,0.0,0.0,,,,,,,,,,,,,,,,,,,,,,,,,,,,,,,,,,,,,,,,,,,,,,,,,,,,,,0.0,0.0,32.0,0.114025,1.0,0.0,,,,,,,,,,,,,,,,,,,,,,,,,
29249,1648953321.741766,1648953321.753514,94.0,0.0,4267.179688,4872.307617,4069.2307130000004,4576.922852000001,4542.563965,450.0,3.0,73.0,,,,0.0,0.0,0.0,1.0,0.0,0.0,0.0,,,,,,,,47.0,0.0,0.389233,-0.13159200000000001,0.06762699999999999,0.9091799999999999,0.304692,-0.016602000000000002,-0.98146,-0.004365,-0.009972,-0.035244,,,,,,,,,,,,,,,,,,,,,,,,,,,,,,,,,,,,,,,,,,,,,,,,,,,,,,,,,,,,,,,,,
29250,1648953321.749581,1648953321.761329,95.0,0.0,4342.05127,4996.922852000001,4351.794922,4282.05127,4452.307617,33.0,3.0,73.0,,,,0.0,0.0,0.0,1.0,0.0,0.0,0.0,,,,,,,,,,,,,,,,,,,,,,,,,,,,,,,,,,,,,,,,,,,,,,,,,,,,,,,,,,,,,,,,,,,,,,,,,,,,,,,,,,,,
29251,1648953321.757395,1648953321.769043,96.0,0.0,4342.05127,5261.538574,4395.384765999999,4085.1281740000004,4329.230957,450.0,3.0,73.0,,,,0.0,0.0,0.0,1.0,0.0,0.0,0.0,,,,,,,,48.0,0.0,0.389233,-0.13159200000000001,0.06762699999999999,0.9091799999999999,0.294926,-0.02295,-0.9858549999999999,-0.004416,-0.009853,-0.037676999999999995,,,,,,,,,,,,,,,,,,,,,,,,,,,,,,,,,,,,,,,,,,,,,,,,,,,,,,,,,,,,,,,,,
29252,1648953321.76521,1648953321.776858,97.0,0.0,4146.153809,5127.179688,4208.717772999999,4196.410156,4072.820557,450.0,3.0,73.0,,,,0.0,0.0,0.0,1.0,0.0,0.0,0.0,,,,,,,,,,,,,,,,,,,,1.0,0.0,0.0,,,,,,,,,,,,,,,,,,,,,,,,,,,,,,,,0.0,0.0,32.0,0.100709,1.0,0.0,54.350262,328.767853,141.683075,686.309021,57.694901,53.994521999999996,78.83712,170.587128,52.304123,87.59346,71.30143699999999,72.162537,134.96684299999998,82.491905,297.081909,69.840813,81.42920699999999,126.91293300000001,831.042542,107.791283,58.371295999999994,359.590973,96.76265699999999,854.5421140000001,85.016373
29253,1648953321.773024,1648953321.784673,98.0,0.0,4047.6923829999996,4899.487305,4202.05127,4387.692383,4085.641113,450.0,3.0,73.0,,,,0.0,0.0,0.0,1.0,0.0,0.0,0.0,,,,,,,,49.0,0.0,0.389233,-0.13159200000000001,0.06762699999999999,0.9091799999999999,0.29736799999999997,-0.021973,-0.9716950000000001,-0.004365,-0.009845,-0.033519,,,,,,,,,,,,,,,,,,,,,,,,,,,,,,,,,,,,,,,,,,,,,,,,,,,,,,,,,,,,,,,,,
29254,1648953321.780839,1648953321.792387,99.0,0.0,4193.333496,4979.487305,4250.256348,4326.666504,4423.077147999999,33.0,3.0,73.0,,,,0.0,0.0,0.0,1.0,0.0,0.0,0.0,,,,,,,,,,,,,,,,,,,,,,,,,,,,,,,,,,,,,,,,,,,,,,,,,,,,,,,,,,,,,,,,,,,,,,,,,,,,,,,,,,,,
29255,1648953321.788653,1648953321.800202,100.0,0.0,4394.871582,5071.794922,4459.487305,4357.94873,4584.102539,450.0,3.0,73.0,,,,0.0,0.0,0.0,1.0,0.0,0.0,0.0,,,,,,,,50.0,0.0,0.389316,-0.131348,0.06762699999999999,0.9091799999999999,0.290044,-0.012695999999999999,-0.991714,-0.004368,-0.009886,-0.036075,,,,,,,,,,,,,,,,,,,,,,,,,,,,,,,,,,,,,,,,,,,,,,,,,,,,,,,,,,,,,,,,,
29256,1648953321.796468,1648953321.807916,101.0,0.0,4613.333496,5000.512695,4513.333496,4549.230957,4420.512695,450.0,3.0,73.0,,,,0.0,0.0,0.0,1.0,0.0,0.0,0.0,,,,,,,,,,,,,,,,,,,,,,,,,,,,,,,,,,,,,,,,,,,,,,,,,,,,,,0.0,0.0,32.0,0.100709,1.0,0.0,,,,,,,,,,,,,,,,,,,,,,,,,
29257,1648953321.804282,1648953321.815731,102.0,0.0,4730.256348,4954.871582,4315.384765999999,4553.333496,4306.153809,450.0,3.0,73.0,,,,0.0,0.0,0.0,1.0,0.0,0.0,0.0,,,,,,,,51.0,0.0,0.389233,-0.13159200000000001,0.06762699999999999,0.9091799999999999,0.295903,-0.024413999999999998,-0.976089,-0.00442,-0.009873999999999999,-0.038376,,,,,,,,,,,,,,,,,,,,,,,,,,,,,,,,,,,,,,,,,,,,,,,,,,,,,,,,,,,,,,,,,
29258,1648953321.812097,1648953321.8234448,103.0,0.0,4418.974121,5013.333496,4312.820313,4228.205078,4261.025879,33.0,3.0,73.0,,,,0.0,0.0,0.0,1.0,0.0,0.0,0.0,,,,,,,,,,,,,,,,,,,,,,,,,,,,,,,,,,,,,,,,,,,,,,,,,,,,,,,,,,,,,,,,,,,,,,,,,,,,,,,,,,,,
29259,1648953321.819911,1648953321.83116,104.0,0.0,4094.8718259999996,5133.846191,4526.153809,4007.6923829999996,4314.358886999999,450.0,3.0,73.0,,,,0.0,0.0,0.0,1.0,0.0,0.0,0.0,,,,,,,,52.0,0.0,0.389233,-0.13159200000000001,0.06762699999999999,0.9091799999999999,0.29688000000000003,-0.015625,-0.9863430000000001,-0.004368,-0.009912,-0.034148000000000005,,,,,,,,,,,,,,,,,,,,,,,,,,,,,,,,,,,,,,,,,,,,,,,,,,,,,,,,,,,,,,,,,
29260,1648953321.827726,1648953321.838974,105.0,0.0,4104.615234000001,5180.0,4489.743652,4199.487305,4454.358886999999,450.0,3.0,73.0,,,,0.0,0.0,0.0,1.0,0.0,0.0,0.0,,,,,,,,,,,,,,,,,,,,,,,,,,,,,,,,,,,,,,,,,,,,,,,,,,,,,,0.0,0.0,32.0,0.100709,1.0,0.0,,,,,,,,,,,,,,,,,,,,,,,,,
29261,1648953321.83554,1648953321.846689,106.0,0.0,4120.512695,5036.922852000001,4270.256348,4467.692383,4459.487305,450.0,3.0,73.0,,,,0.0,0.0,0.0,1.0,0.0,0.0,0.0,,,,,,,,53.0,0.0,0.389233,-0.13159200000000001,0.06762699999999999,0.9091799999999999,0.29688000000000003,-0.015625,-0.9785309999999999,-0.004469,-0.010043999999999999,-0.036592,,,,,,,,,,,,,,,,,,,,,,,,,,,,,,,,,,,,,,,,,,,,,,,,,,,,,,,,,,,,,,,,,
29262,1648953321.8433552,1648953321.854503,107.0,0.0,4179.487305,4926.153809,4241.025879,4518.974121,4467.692383,33.0,3.0,73.0,,,,0.0,0.0,0.0,1.0,0.0,0.0,0.0,,,,,,,,,,,,,,,,,,,,,,,,,,,,,,,,,,,,,,,,,,,,,,,,,,,,,,,,,,,,,,,,,,,,,,,,,,,,,,,,,,,,
29263,1648953321.8511698,1648953321.862217,108.0,0.0,4513.333496,5034.358886999999,4309.743652,4449.743652,4641.538574,450.0,3.0,73.0,,,,0.0,0.0,0.0,1.0,0.0,0.0,0.0,,,,,,,,54.0,0.0,0.389233,-0.13159200000000001,0.06762699999999999,0.9091799999999999,0.29102,-0.029297000000000004,-0.977554,-0.004364,-0.009918000000000001,-0.032639999999999995,,,,,,,,,,,,,,,,,,,,,,,,,,,,,,,,,,,,,,,,,,,,,,,,,,,,,,,,,,,,,,,,,
29264,1648953321.858984,1648953321.869932,109.0,0.0,4601.025879,5103.589844,4343.589844,4356.922852000001,4566.153809,450.0,3.0,73.0,,,,0.0,0.0,0.0,1.0,0.0,0.0,0.0,,,,,,,,,,,,,,,,,,,,,,,,,,,,,,,,,,,,,,,,,,,,,,,,,,,,,,0.0,0.0,32.0,0.100709,1.0,0.0,,,,,,,,,,,,,,,,,,,,,,,,,
29265,1648953321.866799,1648953321.877747,110.0,0.0,4224.102539,4942.05127,4224.615234000001,4249.743652,4107.692383,450.0,3.0,73.0,,,,0.0,0.0,0.0,1.0,0.0,0.0,0.0,,,,,,,,55.0,0.0,0.389233,-0.13159200000000001,0.06762699999999999,0.9091799999999999,0.29639099999999996,-0.035644999999999996,-0.969741,-0.004367,-0.009854,-0.035138,,,,,,,,,,,,,,,,,,,,,,,,,,,,,,,,,,,,,,,,,,,,,,,,,,,,,,,,,,,,,,,,,
29266,1648953321.874613,1648953321.885562,111.0,0.0,4083.5898439999996,4866.666504,4111.794922,4215.897461,3943.5898439999996,33.0,3.0,73.0,,,,0.0,0.0,0.0,1.0,0.0,0.0,0.0,,,,,,,,,,,,,,,,,,,,,,,,,,,,,,,,,,,,,,,,,,,,,,,,,,,,,,,,,,,,,,,,,,,,,,,,,,,,,,,,,,,,
29267,1648953321.882428,1648953321.893276,112.0,0.0,4222.05127,5012.307617,4271.794922,4186.666504,4205.641113000001,450.0,3.0,73.0,,,,0.0,0.0,0.0,1.0,0.0,0.0,0.0,,,,,,,,56.0,0.0,0.389233,-0.13159200000000001,0.06762699999999999,0.9091799999999999,0.29688000000000003,-0.015625,-0.9785309999999999,-0.004321,-0.009748,-0.031233999999999998,,,,,,,,,,,,,,,,,,,,,,,,,,,,,,,,,,,,,,,,,,,,,,,,,,,,,,,,,,,,,,,,,
29268,1648953321.890242,1648953321.9010901,113.0,0.0,4368.205078,5060.0,4564.615234000001,4315.897461,4455.897461,450.0,3.0,73.0,,,,0.0,0.0,0.0,1.0,0.0,0.0,0.0,,,,,,,,,,,,,,,,,,,,1.0,0.0,0.0,,,,,,,,,,,,,,,,,,,,,,,,,,,,,,,,0.0,0.0,32.0,0.09477999999999999,1.0,0.0,55.455975,333.57785,134.060654,719.6730349999999,57.331242,53.55386,92.45076800000001,159.66589399999998,44.672874,98.825142,66.924316,87.449371,114.34656499999998,65.74584200000001,309.109283,60.91848,78.402168,109.395302,809.7487179999999,106.35998500000001,55.661846,375.75116,87.174377,863.75415,81.101135
29269,1648953321.898057,1648953321.9088051,114.0,0.0,4565.128418,4978.974121,4480.512695,4508.717772999999,4508.205078,450.0,3.0,73.0,,,,0.0,0.0,0.0,1.0,0.0,0.0,0.0,,,,,,,,57.0,0.0,0.389233,-0.13159200000000001,0.06762699999999999,0.9091799999999999,0.29639099999999996,-0.035644999999999996,-0.969741,-0.004328,-0.009701000000000001,-0.033872,,,,,,,,,,,,,,,,,,,,,,,,,,,,,,,,,,,,,,,,,,,,,,,,,,,,,,,,,,,,,,,,,
29270,1648953321.905872,1648953321.916619,115.0,0.0,4685.641113000001,4964.615234000001,4235.384765999999,4494.871582,4511.794922,33.0,3.0,73.0,,,,0.0,0.0,0.0,1.0,0.0,0.0,0.0,,,,,,,,,,,,,,,,,,,,,,,,,,,,,,,,,,,,,,,,,,,,,,,,,,,,,,,,,,,,,,,,,,,,,,,,,,,,,,,,,,,,
29271,1648953321.913686,1648953321.924334,116.0,0.0,4385.641113000001,5005.128418,4358.974121,4233.333496,4422.05127,450.0,3.0,73.0,,,,0.0,0.0,0.0,1.0,0.0,0.0,0.0,,,,,,,,58.0,0.0,0.389233,-0.13159200000000001,0.06762699999999999,0.9091799999999999,0.301762,-0.025879000000000003,-0.9716950000000001,-0.004432,-0.009658,-0.030143,,,,,,,,,,,,,,,,,,,,,,,,,,,,,,,,,,,,,,,,,,,,,,,,,,,,,,,,,,,,,,,,,
29272,1648953321.921501,1648953321.932049,117.0,0.0,4156.410156,5098.461426,4609.743652,4078.974365,4284.615234000001,450.0,3.0,73.0,,,,0.0,0.0,0.0,1.0,0.0,0.0,0.0,,,,,,,,,,,,,,,,,,,,,,,,,,,,,,,,,,,,,,,,,,,,,,,,,,,,,,0.0,0.0,32.0,0.09477999999999999,1.0,0.0,,,,,,,,,,,,,,,,,,,,,,,,,
29273,1648953321.929315,1648953321.9398632,118.0,0.0,4144.102539,5181.538574,4407.179688,4128.717772999999,4121.538574,450.0,3.0,73.0,,,,0.0,0.0,0.0,1.0,0.0,0.0,0.0,,,,,,,,59.0,0.0,0.389233,-0.13159200000000001,0.06762699999999999,0.9091799999999999,0.29688000000000003,-0.027344,-0.981949,-0.004562,-0.009537,-0.029919,,,,,,,,,,,,,,,,,,,,,,,,,,,,,,,,,,,,,,,,,,,,,,,,,,,,,,,,,,,,,,,,,
29274,1648953321.93713,1648953321.9476779,119.0,0.0,4084.102539,5013.333496,4139.487305,4326.153809,4179.487305,33.0,3.0,73.0,,,,0.0,0.0,0.0,1.0,0.0,0.0,0.0,,,,,,,,,,,,,,,,,,,,,,,,,,,,,,,,,,,,,,,,,,,,,,,,,,,,,,,,,,,,,,,,,,,,,,,,,,,,,,,,,,,,
29275,1648953321.944944,1648953321.955493,120.0,0.0,4220.512695,4903.077147999999,4257.436035,4451.794922,4547.179688,450.0,3.0,73.0,,,,0.0,0.0,0.0,1.0,0.0,0.0,0.0,,,,,,,,60.0,0.0,0.389233,-0.13159200000000001,0.06762699999999999,0.9091799999999999,0.301762,-0.025879000000000003,-0.98146,-0.004399,-0.009804,-0.026585,,,,,,,,,,,,,,,,,,,,,,,,,,,,,,,,,,,,,,,,,,,,,,,,,,,,,,,,,,,,,,,,,
29276,1648953321.952759,1648953321.963207,121.0,0.0,4522.563965,5011.282227000001,4439.487305,4391.282227000001,4778.461426,450.0,3.0,73.0,,,,0.0,0.0,0.0,1.0,0.0,0.0,0.0,,,,,,,,,,,,,,,,,,,,,,,,,,,,,,,,,,,,,,,,,,,,,,,,,,,,,,0.0,0.0,32.0,0.09477999999999999,1.0,0.0,,,,,,,,,,,,,,,,,,,,,,,,,
29277,1648953321.960573,1648953321.970922,122.0,0.0,4529.743652,4921.025879,4431.794922,4461.538574,4504.615234000001,450.0,3.0,73.0,,,,0.0,0.0,0.0,1.0,0.0,0.0,0.0,,,,,,,,61.0,0.0,0.389233,-0.13159200000000001,0.06762699999999999,0.9091799999999999,0.290044,-0.025391,-0.972671,-0.0044469999999999996,-0.0098,-0.029737,,,,,,,,,,,,,,,,,,,,,,,,,,,,,,,,,,,,,,,,,,,,,,,,,,,,,,,,,,,,,,,,,
29278,1648953321.968388,1648953321.9787369,123.0,0.0,4470.256348,4912.820313,4355.384765999999,4600.512695,4222.05127,33.0,3.0,73.0,,,,0.0,0.0,0.0,1.0,0.0,0.0,0.0,,,,,,,,,,,,,,,,,,,,,,,,,,,,,,,,,,,,,,,,,,,,,,,,,,,,,,,,,,,,,,,,,,,,,,,,,,,,,,,,,,,,
29279,1648953321.976202,1648953321.986451,124.0,0.0,4523.589844,5159.487305,4324.102539,4375.897461,4277.94873,450.0,3.0,73.0,,,,0.0,0.0,0.0,1.0,0.0,0.0,0.0,,,,,,,,62.0,0.0,0.389233,-0.13159200000000001,0.06762699999999999,0.9091799999999999,0.303716,-0.026856,-0.989273,-0.004442,-0.009845999999999999,-0.032623,,,,,,,,,,,,,,,,,,,,,,,,,,,,,,,,,,,,,,,,,,,,,,,,,,,,,,,,,,,,,,,,,
29280,1648953321.984017,1648953321.994266,125.0,0.0,4418.974121,5064.102539,4322.05127,4094.8718259999996,4188.205078,450.0,3.0,73.0,,,,0.0,0.0,0.0,1.0,0.0,0.0,0.0,,,,,,,,,,,,,,,,,,,,,,,,,,,,,,,,,,,,,,,,,,,,,,,,,,,,,,0.0,0.0,32.0,0.09477999999999999,1.0,0.0,,,,,,,,,,,,,,,,,,,,,,,,,
29281,1648953321.991831,1648953322.001981,126.0,0.0,4250.769043,4865.128418,4266.666504,4180.512695,4020.0,450.0,3.0,73.0,,,,0.0,0.0,0.0,1.0,0.0,0.0,0.0,,,,,,,,63.0,0.0,0.389233,-0.13159200000000001,0.06762699999999999,0.9091799999999999,0.29639099999999996,-0.021973,-0.975601,-0.004339,-0.009935,-0.035318,,,,,,,,,,,,,,,,,,,,,,,,,,,,,,,,,,,,,,,,,,,,,,,,,,,,,,,,,,,,,,,,,
29282,1648953321.9996462,1648953322.009795,127.0,0.0,4143.589844,5036.410156,4237.94873,4248.717772999999,4175.897461,238.0,3.0,73.0,,,,0.0,0.0,0.0,1.0,0.0,0.0,0.0,,,,,,,,,,,,,,,,,,,,,,,,,,,,,,,,,,,,,,,,,,,,,,,,,,,,,,,,,,,,,,,,,,,,,,,,,,,,,,,,,,,,
29283,1648953322.0074599,1648953322.01751,0.0,0.0,4255.897461,5121.538574,4468.205078,4255.897461,4473.846191,450.0,3.0,73.0,,,,0.0,0.0,0.0,1.0,0.0,0.0,0.0,,,,,,,,0.0,0.0,0.389233,-0.13159200000000001,0.06762699999999999,0.9091799999999999,0.29639099999999996,-0.015625,-0.989273,-0.004296,-0.009918000000000001,-0.031395,,,,,,,,,,,,,,,,,,,,,,,,,,,,,,,,,,,,,,,,,,,,,,,,,,,,,,,,,,,,,,,,,
29284,1648953322.015275,1648953322.025325,1.0,0.0,4563.077147999999,5001.025879,4506.153809,4414.358886999999,4542.563965,450.0,3.0,73.0,,,,0.0,0.0,0.0,1.0,0.0,0.0,0.0,1.0,0.0,0.0,0.0,0.0,0.0,0.0,,,,,,,,,,,,,1.0,0.0,0.0,,,,,,,,,,,,,,,,,,,,,,,,,,,,,,,,0.0,0.0,32.0,0.12324,1.0,0.0,59.2383,360.056366,124.341705,748.722351,57.149078,51.867683,108.322319,142.464584,37.974922,109.84018700000001,65.986473,112.218781,91.708504,54.173725,320.071686,47.501743,78.258003,84.729729,795.74823,108.806549,58.751656000000004,374.37695299999996,81.52359,884.234558,80.345039
29285,1648953322.0230901,1648953322.03304,2.0,0.0,4666.666504,4998.461426,4330.769043,4525.128418,4497.94873,0.0,3.0,73.0,,,,0.0,0.0,0.0,1.0,0.0,0.0,0.0,,,,,,,,1.0,0.0,0.389233,-0.13159200000000001,0.06762699999999999,0.9091799999999999,0.29395,-0.013184,-0.9751129999999999,-0.004257,-0.009903,-0.034115,,,,,,,,,,,,,,,,,,,,,,,,,,,,,,,,,,,,,,,,,,,,,,,,,,,,,,,,,,,,,,,,,
29286,1648953322.0309038,1648953322.040854,3.0,0.0,4369.743652,5049.230957,4354.871582,4272.820313,4350.769043,450.0,3.0,73.0,,,,0.0,0.0,0.0,1.0,0.0,0.0,0.0,,,,,,,,,,,,,,,,,,,,,,,,,,,,,,,,,,,,,,,,,,,,,,,,,,,,,,,,,,,,,,,,,,,,,,,,,,,,,,,,,,,,
29287,1648953322.038719,1648953322.048569,4.0,0.0,4165.641113000001,5090.256348,4452.820313,4104.615234000001,4191.282227000001,280.0,3.0,73.0,,,,0.0,0.0,2.0,1.0,0.0,0.0,0.0,,,,,,,,2.0,0.0,0.389233,-0.13159200000000001,0.06762699999999999,0.9091799999999999,0.301274,-0.03125,-0.983902,-0.004173,-0.009987000000000001,-0.030313,,,,,,,,,,,,,,,,,,,,,,,,,,,,,,,,,,,,,,,,,,,,,,,,,,,,,,,,,,,,,,,,,
29288,1648953322.046533,1648953322.056384,5.0,0.0,4177.94873,5177.436035,4448.205078,4190.769043,4110.256348,450.0,3.0,73.0,,,,0.0,0.0,2.0,1.0,0.0,0.0,0.0,,,,,,,,,,,,,,,,,,,,,,,,,,,,,,,,,,,,,,,,,,,,,,,,,,,,,,0.0,0.0,32.0,0.12324,1.0,0.0,,,,,,,,,,,,,,,,,,,,,,,,,
29289,1648953322.054348,1648953322.0640981,6.0,0.0,4326.153809,5167.179688,4466.153809,4327.692383,4150.256348,40.0,3.0,73.0,,,,0.0,0.0,2.0,0.0,0.0,0.0,0.0,,,,,,,,3.0,0.0,0.389233,-0.13159200000000001,0.06762699999999999,0.9091799999999999,0.283696,-0.018067,-0.9746239999999999,-0.004147,-0.009916,-0.033141000000000004,,,,,,,,,,,,,,,,,,,,,,,,,,,,,,,,,,,,,,,,,,,,,,,,,,,,,,,,,,,,,,,,,
29290,1648953322.062162,1648953322.071913,7.0,0.0,4477.436035,5009.230957,4341.538574,4510.256348,4311.282227000001,450.0,3.0,73.0,,,,0.0,0.0,2.0,0.0,0.0,0.0,0.0,,,,,,,,,,,,,,,,,,,,,,,,,,,,,,,,,,,,,,,,,,,,,,,,,,,,,,,,,,,,,,,,,,,,,,,,,,,,,,,,,,,,
29291,1648953322.069977,1648953322.079628,8.0,0.0,4516.410156,4925.128418,4135.897461,4651.282227000001,4614.871582,450.0,3.0,73.0,,,,0.0,0.0,2.0,0.0,0.0,0.0,0.0,,,,,,,,4.0,0.0,0.389233,-0.13159200000000001,0.06762699999999999,0.9091799999999999,0.293462,-0.021485,-0.9956209999999999,-0.004074,-0.00995,-0.029533999999999998,,,,,,,,,,,,,,,,,,,,,,,,,,,,,,,,,,,,,,,,,,,,,,,,,,,,,,,,,,,,,,,,,
29292,1648953322.077792,1648953322.087442,9.0,0.0,4475.384765999999,5016.410156,4249.743652,4453.333496,4515.384765999999,0.0,3.0,73.0,,,,0.0,0.0,2.0,0.0,0.0,0.0,0.0,,,,,,,,,,,,,,,,,,,,,,,,,,,,,,,,,,,,,,,,,,,,,,,,,,,,,,0.0,0.0,32.0,0.12324,1.0,0.0,,,,,,,,,,,,,,,,,,,,,,,,,
29293,1648953322.085606,1648953322.0951571,10.0,0.0,4433.846191,5185.128418,4541.538574,4143.589844,4082.5642090000006,450.0,3.0,73.0,,,,0.0,0.0,2.0,0.0,0.0,0.0,0.0,,,,,,,,5.0,0.0,0.389233,-0.13159200000000001,0.06762699999999999,0.9091799999999999,0.293462,-0.003418,-0.9863430000000001,-0.004106,-0.009931,-0.026337,,,,,,,,,,,,,,,,,,,,,,,,,,,,,,,,,,,,,,,,,,,,,,,,,,,,,,,,,,,,,,,,,
29294,1648953322.093421,1648953322.102972,11.0,0.0,4224.615234000001,5185.641113000001,4439.487305,4121.538574,4159.487305,0.0,3.0,73.0,,,,0.0,0.0,2.0,0.0,0.0,0.0,0.0,,,,,,,,,,,,,,,,,,,,,,,,,,,,,,,,,,,,,,,,,,,,,,,,,,,,,,,,,,,,,,,,,,,,,,,,,,,,,,,,,,,,
29295,1648953322.101235,1648953322.110687,12.0,0.0,4017.4357909999994,5049.230957,4159.487305,4262.563965,4450.256348,450.0,3.0,73.0,,,,0.0,0.0,2.0,0.0,0.0,0.0,0.0,,,,,,,,6.0,0.0,0.389233,-0.13159200000000001,0.06762699999999999,0.9091799999999999,0.290532,-0.013184,-0.980484,-0.004086,-0.009817,-0.029611000000000002,,,,,,,,,,,,,,,,,,,,,,,,,,,,,,,,,,,,,,,,,,,,,,,,,,,,,,,,,,,,,,,,,
29296,1648953322.10905,1648953322.118401,13.0,0.0,4191.794922,5008.205078,4228.717772999999,4371.794922,4491.794922,450.0,3.0,73.0,,,,0.0,0.0,2.0,0.0,0.0,0.0,0.0,,,,,,,,,,,,,,,,,,,,,,,,,,,,,,,,,,,,,,,,,,,,,,,,,,,,,,0.0,0.0,32.0,0.12324,1.0,0.0,,,,,,,,,,,,,,,,,,,,,,,,,
29297,1648953322.116864,1648953322.126216,14.0,0.0,4506.153809,5034.871582,4475.897461,4398.461426,4628.205078,450.0,3.0,73.0,,,,0.0,0.0,2.0,0.0,0.0,0.0,0.0,,,,,,,,7.0,0.0,0.389233,-0.13159200000000001,0.06762699999999999,0.9091799999999999,0.291508,-0.028808999999999998,-0.9834129999999999,-0.004117,-0.009762999999999999,-0.026211,,,,,,,,,,,,,,,,,,,,,,,,,,,,,,,,,,,,,,,,,,,,,,,,,,,,,,,,,,,,,,,,,
29298,1648953322.1246789,1648953322.134031,15.0,0.0,4569.743652,5062.05127,4484.102539,4356.922852000001,4685.128418,0.0,3.0,73.0,,,,0.0,0.0,2.0,0.0,0.0,0.0,0.0,,,,,,,,,,,,,,,,,,,,,,,,,,,,,,,,,,,,,,,,,,,,,,,,,,,,,,,,,,,,,,,,,,,,,,,,,,,,,,,,,,,,
29299,1648953322.132493,1648953322.1417449,16.0,0.0,4335.897461,4891.794922,4238.974121,4279.487305,4238.461426,0.0,3.0,73.0,,,,0.0,0.0,2.0,0.0,0.0,0.0,0.0,,,,,,,,8.0,0.0,0.389233,-0.13159200000000001,0.06762699999999999,0.9091799999999999,0.29102,-0.020508000000000002,-0.9907379999999999,-0.004145,-0.009861,-0.029498000000000003,,,,,,,,,,,,,,,,,,,,,,,,,,,,,,,,,,,,,,,,,,,,,,,,,,,,,,,,,,,,,,,,,
29300,1648953322.140308,1648953322.14946,17.0,0.0,4201.025879,4701.538574,4098.974121,4263.589844,3956.923096,0.0,3.0,73.0,,,,0.0,0.0,2.0,0.0,0.0,0.0,0.0,,,,,,,,,,,,,,,,,,,,1.0,0.0,0.0,,,,,,,,,,,,,,,,,,,,,,,,,,,,,,,,0.0,0.0,32.0,0.10513900000000001,1.0,0.0,65.376762,405.797791,120.51635,772.5078129999999,56.181709,47.293877,122.290749,125.232262,32.985195000000004,119.69967700000001,71.56781,143.54759199999998,72.81079100000001,49.046108000000004,326.48373399999997,33.463493,78.515991,63.140868999999995,787.592529,115.013222,66.42532299999999,352.951508,83.113739,904.1666869999999,81.984344
29301,1648953322.148122,1648953322.157275,18.0,0.0,4215.897461,4916.410156,4195.897461,4201.538574,4176.410156,0.0,3.0,73.0,,,,0.0,0.0,2.0,0.0,0.0,0.0,0.0,,,,,,,,9.0,0.0,0.389233,-0.13159200000000001,0.06762699999999999,0.9091799999999999,0.302739,-0.020508000000000002,-0.975601,-0.00417,-0.009803000000000001,-0.026206,,,,,,,,,,,,,,,,,,,,,,,,,,,,,,,,,,,,,,,,,,,,,,,,,,,,,,,,,,,,,,,,,
29302,1648953322.155937,1648953322.16499,19.0,0.0,4327.179688,5132.307617,4507.692383,4286.666504,4418.974121,0.0,3.0,73.0,,,,0.0,0.0,2.0,0.0,0.0,0.0,0.0,,,,,,,,,,,,,,,,,,,,,,,,,,,,,,,,,,,,,,,,,,,,,,,,,,,,,,,,,,,,,,,,,,,,,,,,,,,,,,,,,,,,
29303,1648953322.163751,1648953322.1728039,20.0,0.0,4583.077147999999,5018.974121,4559.487305,4424.102539,4502.563965,0.0,3.0,73.0,,,,0.0,0.0,2.0,0.0,0.0,0.0,0.0,,,,,,,,10.0,0.0,0.389233,-0.13159200000000001,0.06762699999999999,0.9091799999999999,0.301762,-0.016114,-0.980484,-0.004241,-0.009848,-0.029494,,,,,,,,,,,,,,,,,,,,,,,,,,,,,,,,,,,,,,,,,,,,,,,,,,,,,,,,,,,,,,,,,
29304,1648953322.171566,1648953322.1805189,21.0,0.0,4734.358886999999,5012.820313,4431.794922,4441.538574,4552.307617,0.0,3.0,73.0,,,,0.0,0.0,2.0,0.0,0.0,0.0,0.0,,,,,,,,,,,,,,,,,,,,,,,,,,,,,,,,,,,,,,,,,,,,,,,,,,,,,,0.0,0.0,32.0,0.10513900000000001,1.0,0.0,,,,,,,,,,,,,,,,,,,,,,,,,
29305,1648953322.1793811,1648953322.188334,22.0,0.0,4432.820313,5116.922852000001,4377.436035,4204.615234000001,4391.794922,0.0,3.0,73.0,,,,0.0,0.0,2.0,0.0,0.0,0.0,0.0,,,,,,,,11.0,0.0,0.389233,-0.13159200000000001,0.06762699999999999,0.9091799999999999,0.30518,-0.021485,-0.979507,-0.004256,-0.009937,-0.032452999999999996,,,,,,,,,,,,,,,,,,,,,,,,,,,,,,,,,,,,,,,,,,,,,,,,,,,,,,,,,,,,,,,,,
29306,1648953322.1871948,1648953322.196048,23.0,0.0,4122.05127,4960.512695,4402.05127,4068.205078,4238.974121,0.0,3.0,73.0,,,,0.0,0.0,2.0,0.0,0.0,0.0,0.0,,,,,,,,,,,,,,,,,,,,,,,,,,,,,,,,,,,,,,,,,,,,,,,,,,,,,,,,,,,,,,,,,,,,,,,,,,,,,,,,,,,,
29307,1648953322.19501,1648953322.2038631,24.0,0.0,4159.487305,4941.538574,4537.94873,4295.897461,4289.230957,0.0,3.0,73.0,,,,0.0,0.0,2.0,0.0,0.0,0.0,0.0,,,,,,,,12.0,0.0,0.389233,-0.13159200000000001,0.06762699999999999,0.9091799999999999,0.30225100000000005,-0.010742,-0.9873200000000001,-0.00427,-0.009969,-0.035213999999999995,,,,,,,,,,,,,,,,,,,,,,,,,,,,,,,,,,,,,,,,,,,,,,,,,,,,,,,,,,,,,,,,,
29308,1648953322.202824,1648953322.211578,25.0,0.0,4323.589844,5078.461426,4600.0,4496.922852000001,4347.692383,0.0,3.0,73.0,,,,0.0,0.0,2.0,0.0,0.0,0.0,0.0,,,,,,,,,,,,,,,,,,,,,,,,,,,,,,,,,,,,,,,,,,,,,,,,,,,,,,0.0,0.0,32.0,0.10513900000000001,1.0,0.0,,,,,,,,,,,,,,,,,,,,,,,,,
29309,1648953322.210639,1648953322.219392,26.0,0.0,4495.384765999999,4998.974121,4495.384765999999,4519.487305,4268.717772999999,0.0,3.0,73.0,,,,0.0,0.0,2.0,0.0,0.0,0.0,0.0,,,,,,,,13.0,0.0,0.389233,-0.13159200000000001,0.06762699999999999,0.9091799999999999,0.301762,-0.016114,-0.980484,-0.004234,-0.009851,-0.031301999999999996,,,,,,,,,,,,,,,,,,,,,,,,,,,,,,,,,,,,,,,,,,,,,,,,,,,,,,,,,,,,,,,,,
29310,1648953322.218453,1648953322.227107,27.0,0.0,4604.102539,4947.692383,4262.05127,4525.128418,4297.94873,0.0,3.0,73.0,,,,0.0,0.0,2.0,0.0,0.0,0.0,0.0,,,,,,,,,,,,,,,,,,,,,,,,,,,,,,,,,,,,,,,,,,,,,,,,,,,,,,,,,,,,,,,,,,,,,,,,,,,,,,,,,,,,
29311,1648953322.226268,1648953322.2349222,28.0,0.0,4453.846191,4964.102539,4211.282227000001,4373.333496,4317.436035,0.0,3.0,73.0,,,,0.0,0.0,2.0,0.0,0.0,0.0,0.0,,,,,,,,14.0,0.0,0.389276,-0.13159200000000001,0.067383,0.9091799999999999,0.29395,-0.014159999999999999,-0.977066,-0.00425,-0.009843000000000001,-0.02783,,,,,,,,,,,,,,,,,,,,,,,,,,,,,,,,,,,,,,,,,,,,,,,,,,,,,,,,,,,,,,,,,
29312,1648953322.234082,1648953322.242636,29.0,0.0,4234.871582,4982.05127,4532.820313,4088.205078,4182.563965,0.0,3.0,73.0,,,,0.0,0.0,2.0,0.0,0.0,0.0,0.0,,,,,,,,,,,,,,,,,,,,,,,,,,,,,,,,,,,,,,,,,,,,,,,,,,,,,,0.0,0.0,32.0,0.10513900000000001,1.0,0.0,,,,,,,,,,,,,,,,,,,,,,,,,
29313,1648953322.241897,1648953322.250451,30.0,0.0,4137.436035,5098.461426,4632.307617,4110.256348,4357.436035,0.0,3.0,73.0,,,,0.0,0.0,2.0,0.0,0.0,0.0,0.0,,,,,,,,15.0,0.0,0.389233,-0.13159200000000001,0.06762699999999999,0.9091799999999999,0.30225100000000005,-0.027344,-0.984878,-0.004215,-0.009932999999999999,-0.031004000000000004,,,,,,,,,,,,,,,,,,,,,,,,,,,,,,,,,,,,,,,,,,,,,,,,,,,,,,,,,,,,,,,,,
29314,1648953322.249712,1648953322.258166,31.0,0.0,4064.102539,5124.102539,4246.666504,4351.282227000001,4549.743652,0.0,3.0,73.0,,,,0.0,0.0,2.0,0.0,0.0,0.0,0.0,,,,,,,,,,,,,,,,,,,,,,,,,,,,,,,,,,,,,,,,,,,,,,,,,,,,,,,,,,,,,,,,,,,,,,,,,,,,,,,,,,,,
29315,1648953322.257526,1648953322.265981,32.0,0.0,4172.307617,5007.179688,4178.974121,4467.179688,4487.692383,0.0,3.0,73.0,,,,0.0,0.0,2.0,0.0,0.0,0.0,0.0,,,,,,,,16.0,0.0,0.389233,-0.13159200000000001,0.06762699999999999,0.9091799999999999,0.300298,-0.019043,-0.9790190000000001,-0.0040869999999999995,-0.009916,-0.027513,,,,,,,,,,,,,,,,,,,,,,,,,,,,,,,,,,,,,,,,,,,,,,,,,,,,,,,,,,,,,,,,,
29316,1648953322.265341,1648953322.273695,33.0,0.0,4478.461426,5018.461426,4462.563965,4381.538574,4547.179688,0.0,3.0,73.0,,,,0.0,0.0,2.0,0.0,0.0,0.0,0.0,,,,,,,,,,,,,,,,,,,,1.0,0.0,0.0,,,,,,,,,,,,,,,,,,,,,,,,,,,,,,,,0.0,0.0,32.0,0.124355,1.0,0.0,73.673737,455.597748,129.14978,794.987183,54.383026,39.583214,129.742599,112.271286,30.608643,127.13932,83.45630600000001,175.809906,62.278071999999995,50.288425,325.77887000000004,22.088718,76.982864,50.61657,779.2976070000001,123.154648,75.91526800000001,316.253448,91.702065,914.279663,85.307266
29317,1648953322.273155,1648953322.28161,34.0,0.0,4646.666504,5156.922852000001,4475.384765999999,4272.307617,4603.077147999999,0.0,3.0,73.0,,,,0.0,0.0,2.0,0.0,0.0,0.0,0.0,,,,,,,,17.0,0.0,0.389276,-0.13159200000000001,0.067383,0.9091799999999999,0.295903,-0.00293,-0.977554,-0.004118,-0.009852,-0.03067,,,,,,,,,,,,,,,,,,,,,,,,,,,,,,,,,,,,,,,,,,,,,,,,,,,,,,,,,,,,,,,,,
29318,1648953322.2809699,1648953322.289424,35.0,0.0,4352.820313,5017.94873,4249.743652,4245.641113000001,4221.538574,0.0,3.0,73.0,,,,0.0,0.0,2.0,0.0,0.0,0.0,0.0,,,,,,,,,,,,,,,,,,,,,,,,,,,,,,,,,,,,,,,,,,,,,,,,,,,,,,,,,,,,,,,,,,,,,,,,,,,,,,,,,,,,
29319,1648953322.288784,1648953322.297339,36.0,0.0,4116.922852000001,4814.871582,4179.487305,4317.436035,3976.4101560000004,0.0,3.0,73.0,,,,0.0,0.0,2.0,0.0,0.0,0.0,0.0,,,,,,,,18.0,0.0,0.389233,-0.13159200000000001,0.06762699999999999,0.9091799999999999,0.291508,-0.016602000000000002,-0.9834129999999999,-0.004194,-0.009941,-0.027212,,,,,,,,,,,,,,,,,,,,,,,,,,,,,,,,,,,,,,,,,,,,,,,,,,,,,,,,,,,,,,,,,
29320,1648953322.296599,1648953322.3051538,37.0,0.0,4189.230957,4934.871582,4218.974121,4262.05127,4202.563965,0.0,3.0,73.0,,,,0.0,0.0,2.0,0.0,0.0,0.0,0.0,,,,,,,,,,,,,,,,,,,,,,,,,,,,,,,,,,,,,,,,,,,,,,,,,,,,,,0.0,0.0,32.0,0.124355,1.0,0.0,,,,,,,,,,,,,,,,,,,,,,,,,
29321,1648953322.304413,1648953322.312968,38.0,0.0,4325.641113000001,5049.230957,4432.820313,4304.102539,4418.461426,0.0,3.0,73.0,,,,0.0,0.0,2.0,0.0,0.0,0.0,0.0,,,,,,,,19.0,0.0,0.389233,-0.13159200000000001,0.06762699999999999,0.9091799999999999,0.292485,-0.015625,-0.9751129999999999,-0.004214,-0.009972,-0.030399000000000002,,,,,,,,,,,,,,,,,,,,,,,,,,,,,,,,,,,,,,,,,,,,,,,,,,,,,,,,,,,,,,,,,
29322,1648953322.312228,1648953322.320683,39.0,0.0,4489.743652,4987.179688,4502.05127,4546.666504,4416.922852000001,0.0,3.0,73.0,,,,0.0,0.0,2.0,0.0,0.0,0.0,0.0,,,,,,,,,,,,,,,,,,,,,,,,,,,,,,,,,,,,,,,,,,,,,,,,,,,,,,,,,,,,,,,,,,,,,,,,,,,,,,,,,,,,
29323,1648953322.320042,1648953322.328398,40.0,0.0,4652.307617,4993.333496,4202.05127,4598.974121,4443.589844,0.0,3.0,73.0,,,,0.0,0.0,2.0,0.0,0.0,0.0,0.0,,,,,,,,20.0,0.0,0.389233,-0.13159200000000001,0.06762699999999999,0.9091799999999999,0.285649,-0.011719,-0.977554,-0.004281,-0.009951999999999999,-0.033219,,,,,,,,,,,,,,,,,,,,,,,,,,,,,,,,,,,,,,,,,,,,,,,,,,,,,,,,,,,,,,,,,
29324,1648953322.327857,1648953322.336212,41.0,0.0,4449.230957,5002.05127,4122.563965,4335.897461,4387.179688,0.0,3.0,73.0,,,,0.0,0.0,2.0,0.0,0.0,0.0,0.0,,,,,,,,,,,,,,,,,,,,,,,,,,,,,,,,,,,,,,,,,,,,,,,,,,,,,,0.0,0.0,32.0,0.124355,1.0,0.0,,,,,,,,,,,,,,,,,,,,,,,,,
29325,1648953322.3356721,1648953322.343927,42.0,0.0,4160.512695,4997.436035,4494.871582,4115.384765999999,4300.0,0.0,3.0,73.0,,,,0.0,0.0,2.0,0.0,0.0,0.0,0.0,,,,,,,,21.0,0.0,0.389233,-0.13159200000000001,0.06762699999999999,0.9091799999999999,0.300786,-0.01709,-0.976089,-0.004292,-0.009982,-0.035903,,,,,,,,,,,,,,,,,,,,,,,,,,,,,,,,,,,,,,,,,,,,,,,,,,,,,,,,,,,,,,,,,
29326,1648953322.3434858,1648953322.351742,43.0,0.0,4129.743652,5118.461426,4583.077147999999,4123.077147999999,4338.461426,0.0,3.0,73.0,,,,0.0,0.0,2.0,0.0,0.0,0.0,0.0,,,,,,,,,,,,,,,,,,,,,,,,,,,,,,,,,,,,,,,,,,,,,,,,,,,,,,,,,,,,,,,,,,,,,,,,,,,,,,,,,,,,
29327,1648953322.351301,1648953322.359457,44.0,0.0,4105.641113000001,5114.871582,4232.820313,4265.641113000001,4336.922852000001,0.0,3.0,73.0,,,,0.0,0.0,2.0,0.0,0.0,0.0,0.0,,,,,,,,22.0,0.0,0.389233,-0.13159200000000001,0.06762699999999999,0.9091799999999999,0.300298,-0.025879000000000003,-0.996109,-0.004351,-0.010107,-0.038221,,,,,,,,,,,,,,,,,,,,,,,,,,,,,,,,,,,,,,,,,,,,,,,,,,,,,,,,,,,,,,,,,
29328,1648953322.3591151,1648953322.3672712,45.0,0.0,4177.94873,4944.102539,4179.487305,4434.358886999999,4425.128418,0.0,3.0,73.0,,,,0.0,0.0,2.0,0.0,0.0,0.0,0.0,,,,,,,,,,,,,,,,,,,,,,,,,,,,,,,,,,,,,,,,,,,,,,,,,,,,,,0.0,0.0,32.0,0.124355,1.0,0.0,,,,,,,,,,,,,,,,,,,,,,,,,
29329,1648953322.36693,1648953322.374986,46.0,0.0,4473.846191,4974.871582,4434.871582,4458.461426,4712.307617,0.0,3.0,73.0,,,,0.0,0.0,2.0,0.0,0.0,0.0,0.0,,,,,,,,23.0,0.0,0.389233,-0.13159200000000001,0.06762699999999999,0.9091799999999999,0.301762,-0.01709,-0.972183,-0.004307,-0.010024,-0.034057,,,,,,,,,,,,,,,,,,,,,,,,,,,,,,,,,,,,,,,,,,,,,,,,,,,,,,,,,,,,,,,,,
29330,1648953322.374744,1648953322.382801,47.0,0.0,4602.05127,5083.589844,4497.94873,4384.102539,4705.128418,0.0,3.0,73.0,,,,0.0,0.0,2.0,0.0,0.0,0.0,0.0,,,,,,,,,,,,,,,,,,,,,,,,,,,,,,,,,,,,,,,,,,,,,,,,,,,,,,,,,,,,,,,,,,,,,,,,,,,,,,,,,,,,
29331,1648953322.382559,1648953322.390515,48.0,0.0,4368.717772999999,4884.102539,4234.871582,4291.794922,4214.871582,0.0,3.0,73.0,,,,0.0,0.0,2.0,0.0,0.0,0.0,0.0,,,,,,,,24.0,0.0,0.389233,-0.13159200000000001,0.06762699999999999,0.9091799999999999,0.30518,-0.027344,-0.980972,-0.004218,-0.010047,-0.036462,,,,,,,,,,,,,,,,,,,,,,,,,,,,,,,,,,,,,,,,,,,,,,,,,,,,,,,,,,,,,,,,,
29332,1648953322.390373,1648953322.39833,49.0,0.0,4226.153809,4694.358886999999,4104.102539,4190.769043,4006.6667479999996,0.0,3.0,73.0,,,,0.0,0.0,2.0,0.0,0.0,0.0,0.0,,,,,,,,,,,,,,,,,,,,1.0,0.0,0.0,,,,,,,,,,,,,,,,,,,,,,,,,,,,,,,,0.0,0.0,32.0,0.11053699999999998,1.0,0.0,83.222328,490.315674,152.39003,822.276428,52.763718000000004,31.129441999999997,128.718002,105.36601999999999,31.240321999999995,130.939957,99.03083000000001,201.342804,62.419231,56.378002,317.194153,15.464391,74.160301,46.625954,765.8184200000001,130.21618700000002,83.425026,272.29235800000004,104.563263,913.9987789999999,89.977127
29333,1648953322.398188,1648953322.406045,50.0,0.0,4205.128418,4896.922852000001,4361.025879,4076.4101560000004,4155.897461,0.0,3.0,73.0,,,,0.0,0.0,2.0,0.0,0.0,0.0,0.0,,,,,,,,25.0,0.0,0.389233,-0.13159200000000001,0.06762699999999999,0.9091799999999999,0.301762,-0.019043,-0.95314,-0.004285,-0.010165,-0.038675,,,,,,,,,,,,,,,,,,,,,,,,,,,,,,,,,,,,,,,,,,,,,,,,,,,,,,,,,,,,,,,,,
29334,1648953322.406002,1648953322.413859,51.0,0.0,4240.0,5090.769043,4681.025879,4193.333496,4312.820313,0.0,3.0,73.0,,,,0.0,0.0,2.0,0.0,0.0,0.0,0.0,,,,,,,,,,,,,,,,,,,,,,,,,,,,,,,,,,,,,,,,,,,,,,,,,,,,,,,,,,,,,,,,,,,,,,,,,,,,,,,,,,,,
29335,1648953322.413817,1648953322.421574,52.0,0.0,4367.692383,5029.230957,4528.717772999999,4506.153809,4435.897461,0.0,3.0,73.0,,,,0.0,0.0,2.0,0.0,0.0,0.0,0.0,,,,,,,,26.0,0.0,0.389233,-0.13159200000000001,0.06762699999999999,0.9091799999999999,0.300786,-0.016602000000000002,-0.98439,-0.004344,-0.010125,-0.040667,,,,,,,,,,,,,,,,,,,,,,,,,,,,,,,,,,,,,,,,,,,,,,,,,,,,,,,,,,,,,,,,,
29336,1648953322.421632,1648953322.429389,53.0,0.0,4511.794922,4968.205078,4201.538574,4712.307617,4536.922852000001,0.0,3.0,73.0,,,,0.0,0.0,2.0,0.0,0.0,0.0,0.0,,,,,,,,,,,,,,,,,,,,,,,,,,,,,,,,,,,,,,,,,,,,,,,,,,,,,,0.0,0.0,32.0,0.11053699999999998,1.0,0.0,,,,,,,,,,,,,,,,,,,,,,,,,
29337,1648953322.429446,1648953322.437104,54.0,0.0,4374.871582,4952.307617,4170.769043,4456.410156,4442.05127,0.0,3.0,73.0,,,,0.0,0.0,2.0,0.0,0.0,0.0,0.0,,,,,,,,27.0,0.0,0.389233,-0.13159200000000001,0.06762699999999999,0.9091799999999999,0.30518,-0.027344,-0.980972,-0.004252000000000001,-0.010138,-0.042411000000000004,,,,,,,,,,,,,,,,,,,,,,,,,,,,,,,,,,,,,,,,,,,,,,,,,,,,,,,,,,,,,,,,,
29338,1648953322.4372609,1648953322.444918,55.0,0.0,4212.307617,5017.94873,4314.871582,4114.358886999999,4252.307617,0.0,3.0,73.0,,,,0.0,0.0,2.0,0.0,0.0,0.0,0.0,,,,,,,,,,,,,,,,,,,,,,,,,,,,,,,,,,,,,,,,,,,,,,,,,,,,,,,,,,,,,,,,,,,,,,,,,,,,,,,,,,,,
29339,1648953322.445075,1648953322.452633,56.0,0.0,4141.025879,5201.025879,4349.230957,4138.461426,4062.0512700000004,0.0,3.0,73.0,,,,0.0,0.0,2.0,0.0,0.0,0.0,0.0,,,,,,,,28.0,0.0,0.389233,-0.13159200000000001,0.06762699999999999,0.9091799999999999,0.294926,-0.0043950000000000005,-0.9716950000000001,-0.004315,-0.010052,-0.037779,,,,,,,,,,,,,,,,,,,,,,,,,,,,,,,,,,,,,,,,,,,,,,,,,,,,,,,,,,,,,,,,,
29340,1648953322.4528902,1648953322.460448,57.0,0.0,4087.179443,5124.102539,4244.615234000001,4324.102539,4068.205078,0.0,3.0,73.0,,,,0.0,0.0,2.0,0.0,0.0,0.0,0.0,,,,,,,,,,,,,,,,,,,,,,,,,,,,,,,,,,,,,,,,,,,,,,,,,,,,,,0.0,0.0,32.0,0.11053699999999998,1.0,0.0,,,,,,,,,,,,,,,,,,,,,,,,,
29341,1648953322.4607038,1648953322.4681618,58.0,0.0,4247.179688,4881.538574,4177.94873,4386.153809,4377.94873,0.0,3.0,73.0,,,,0.0,0.0,2.0,0.0,0.0,0.0,0.0,,,,,,,,29.0,0.0,0.389233,-0.13159200000000001,0.06762699999999999,0.9091799999999999,0.29639099999999996,-0.023438,-0.991714,-0.004274,-0.010072,-0.03991,,,,,,,,,,,,,,,,,,,,,,,,,,,,,,,,,,,,,,,,,,,,,,,,,,,,,,,,,,,,,,,,,
29342,1648953322.468519,1648953322.475977,59.0,0.0,4495.897461,4983.589844,4282.563965,4400.512695,4682.563965,0.0,3.0,73.0,,,,0.0,0.0,2.0,0.0,0.0,0.0,0.0,,,,,,,,,,,,,,,,,,,,,,,,,,,,,,,,,,,,,,,,,,,,,,,,,,,,,,,,,,,,,,,,,,,,,,,,,,,,,,,,,,,,
29343,1648953322.476334,1648953322.483692,60.0,0.0,4558.461426,5127.692383,4405.641113000001,4360.512695,4580.0,0.0,3.0,73.0,,,,0.0,0.0,2.0,0.0,0.0,0.0,0.0,,,,,,,,30.0,0.0,0.389233,-0.13159200000000001,0.06762699999999999,0.9091799999999999,0.286625,-0.025391,-0.965835,-0.004286,-0.01009,-0.035528,,,,,,,,,,,,,,,,,,,,,,,,,,,,,,,,,,,,,,,,,,,,,,,,,,,,,,,,,,,,,,,,,
29344,1648953322.484148,1648953322.491606,61.0,0.0,4507.179688,4894.871582,4387.692383,4191.794922,4201.025879,0.0,3.0,73.0,,,,0.0,0.0,2.0,0.0,0.0,0.0,0.0,,,,,,,,,,,,,,,,,,,,,,,,,,,,,,,,,,,,,,,,,,,,,,,,,,,,,,0.0,0.0,32.0,0.11053699999999998,1.0,0.0,,,,,,,,,,,,,,,,,,,,,,,,,
29345,1648953322.4919631,1648953322.4994211,62.0,0.0,4373.846191,4740.512695,4341.538574,4083.5898439999996,4069.743652,0.0,3.0,73.0,,,,0.0,0.0,2.0,0.0,0.0,0.0,0.0,,,,,,,,31.0,0.0,0.389233,-0.13159200000000001,0.06762699999999999,0.9091799999999999,0.28809,-0.025879000000000003,-0.989273,-0.004297,-0.010107,-0.037883999999999994,,,,,,,,,,,,,,,,,,,,,,,,,,,,,,,,,,,,,,,,,,,,,,,,,,,,,,,,,,,,,,,,,
29346,1648953322.4997768,1648953322.507236,63.0,0.0,4146.666504,4977.94873,4390.256348,4054.358887,4229.230957,0.0,3.0,73.0,,,,0.0,0.0,2.0,0.0,0.0,0.0,0.0,,,,,,,,,,,,,,,,,,,,,,,,,,,,,,,,,,,,,,,,,,,,,,,,,,,,,,,,,,,,,,,,,,,,,,,,,,,,,,,,,,,,
29347,1648953322.507592,1648953322.51495,64.0,0.0,4082.5642090000006,5168.717772999999,4544.102539,4168.205078,4468.205078,450.0,3.0,73.0,,,,0.0,0.0,2.0,0.0,0.0,0.0,0.0,,,,,,,,32.0,0.0,0.389233,-0.13159200000000001,0.06762699999999999,0.9091799999999999,0.284672,-0.026856,-0.9668120000000001,-0.0043560000000000005,-0.010073,-0.033558,,,,,,,,,,,,,,,,,,,,,,,,,,,,,,,,,,,,,,,,,,,,,,,,,,,,,,,,,,,,,,,,,
29348,1648953322.5154061,1648953322.522665,65.0,0.0,4189.743652,5042.563965,4499.487305,4403.589844,4525.641113000001,450.0,3.0,73.0,,,,0.0,1.0,2.0,0.0,0.0,0.0,0.0,1.0,0.0,0.0,0.0,0.0,0.0,0.0,,,,,,,,,,,,,1.0,0.0,0.0,,,,,,,,,,,,,,,,,,,,,,,,,,,,,,,,0.0,0.0,32.0,0.096627,1.0,0.0,92.346176,496.99264500000004,183.710098,858.109802,52.620922,25.263586,120.23406999999999,104.183937,34.64127,130.512741,114.11071799999999,212.99481200000002,71.622238,64.97261800000001,302.697449,13.926895000000002,73.077873,48.281231,745.460999,133.282837,86.259857,229.34823599999999,120.63391899999999,908.0573119999999,95.707695
29349,1648953322.523221,1648953322.5304801,66.0,0.0,4349.230957,4912.307617,4294.871582,4590.256348,4480.0,50.0,3.0,73.0,,,,0.0,1.0,2.0,0.0,0.0,0.0,0.0,,,,,,,,33.0,0.0,0.389233,-0.13159200000000001,0.06762699999999999,0.9091799999999999,0.305669,-0.026856,-0.984878,-0.004311,-0.010042,-0.036062000000000004,,,,,,,,,,,,,,,,,,,,,,,,,,,,,,,,,,,,,,,,,,,,,,,,,,,,,,,,,,,,,,,,,
29350,1648953322.531035,1648953322.538194,67.0,0.0,4385.641113000001,4962.563965,4166.666504,4470.769043,4425.128418,450.0,3.0,73.0,,,,0.0,1.0,1.0,0.0,0.0,0.0,0.0,,,,,,,,,,,,,,,,,,,,,,,,,,,,,,,,,,,,,,,,,,,,,,,,,,,,,,,,,,,,,,,,,,,,,,,,,,,,,,,,,,,,
29351,1648953322.53885,1648953322.546009,68.0,0.0,4297.436035,5044.102539,4208.205078,4198.461426,4340.0,56.0,3.0,73.0,,,,0.0,1.0,1.0,0.0,0.0,0.0,0.0,,,,,,,,34.0,0.0,0.389276,-0.13159200000000001,0.067383,0.9091799999999999,0.29395,-0.023926,-0.976577,-0.004319,-0.010062999999999999,-0.038217,,,,,,,,,,,,,,,,,,,,,,,,,,,,,,,,,,,,,,,,,,,,,,,,,,,,,,,,,,,,,,,,,
29352,1648953322.546664,1648953322.553724,69.0,0.0,4203.589844,5131.282227000001,4348.717772999999,4045.641113,4098.461426,450.0,3.0,73.0,,,,0.0,1.0,1.0,0.0,0.0,0.0,0.0,,,,,,,,,,,,,,,,,,,,,,,,,,,,,,,,,,,,,,,,,,,,,,,,,,,,,,0.0,0.0,32.0,0.096627,1.0,0.0,,,,,,,,,,,,,,,,,,,,,,,,,
29353,1648953322.554479,1648953322.5615392,70.0,0.0,4265.641113000001,5119.487305,4409.743652,4186.666504,4042.0512700000004,0.0,3.0,73.0,,,,0.0,1.0,1.0,0.0,0.0,0.0,0.0,,,,,,,,35.0,0.0,0.389276,-0.13159200000000001,0.067383,0.9091799999999999,0.307622,-0.007324,-0.991226,-0.004229,-0.009984999999999999,-0.040304,,,,,,,,,,,,,,,,,,,,,,,,,,,,,,,,,,,,,,,,,,,,,,,,,,,,,,,,,,,,,,,,,
29354,1648953322.562293,1648953322.569253,71.0,0.0,4297.94873,5006.666504,4255.897461,4370.256348,4338.974121,450.0,3.0,73.0,,,,0.0,1.0,1.0,0.0,0.0,0.0,0.0,,,,,,,,,,,,,,,,,,,,,,,,,,,,,,,,,,,,,,,,,,,,,,,,,,,,,,,,,,,,,,,,,,,,,,,,,,,,,,,,,,,,
29355,1648953322.570108,1648953322.5770679,72.0,0.0,4360.0,5003.077147999999,4194.358886999999,4366.153809,4557.94873,450.0,3.0,73.0,,,,0.0,1.0,1.0,0.0,0.0,0.0,0.0,,,,,,,,36.0,0.0,0.389358,-0.131348,0.067383,0.9091799999999999,0.282719,-0.013672,-0.9580219999999999,-0.004197,-0.009914,-0.035883,,,,,,,,,,,,,,,,,,,,,,,,,,,,,,,,,,,,,,,,,,,,,,,,,,,,,,,,,,,,,,,,,
29356,1648953322.577922,1648953322.584783,73.0,0.0,4529.743652,4992.820313,4421.538574,4248.717772999999,4488.717772999999,0.0,3.0,73.0,,,,0.0,1.0,1.0,0.0,0.0,0.0,0.0,,,,,,,,,,,,,,,,,,,,,,,,,,,,,,,,,,,,,,,,,,,,,,,,,,,,,,0.0,0.0,32.0,0.096627,1.0,0.0,,,,,,,,,,,,,,,,,,,,,,,,,
29357,1648953322.585737,1648953322.592597,74.0,0.0,4604.102539,4969.230957,4624.102539,4200.512695,4423.077147999999,450.0,3.0,73.0,,,,0.0,1.0,1.0,0.0,0.0,0.0,0.0,,,,,,,,37.0,0.0,0.389358,-0.131348,0.067383,0.9091799999999999,0.31201599999999996,-0.026368,-0.9990389999999999,-0.004215999999999999,-0.009948,-0.038252,,,,,,,,,,,,,,,,,,,,,,,,,,,,,,,,,,,,,,,,,,,,,,,,,,,,,,,,,,,,,,,,,
29358,1648953322.5935519,1648953322.600312,75.0,0.0,4392.820313,5019.487305,4432.820313,4164.615234000001,4344.615234000001,0.0,3.0,73.0,,,,0.0,1.0,1.0,0.0,0.0,0.0,0.0,,,,,,,,,,,,,,,,,,,,,,,,,,,,,,,,,,,,,,,,,,,,,,,,,,,,,,,,,,,,,,,,,,,,,,,,,,,,,,,,,,,,
29359,1648953322.601366,1648953322.6081269,76.0,0.0,4090.7692869999996,4995.897461,4240.0,4112.820313,4198.974121,450.0,3.0,73.0,,,,0.0,1.0,1.0,0.0,0.0,0.0,0.0,,,,,,,,38.0,0.0,0.389358,-0.131348,0.067383,0.9091799999999999,0.291997,-0.026368,-0.9643700000000001,-0.004234,-0.009881000000000001,-0.040335,,,,,,,,,,,,,,,,,,,,,,,,,,,,,,,,,,,,,,,,,,,,,,,,,,,,,,,,,,,,,,,,,
29360,1648953322.6091812,1648953322.615841,77.0,0.0,4085.641113,4970.769043,4346.666504,4254.358886999999,4325.641113000001,450.0,3.0,73.0,,,,0.0,1.0,1.0,0.0,0.0,0.0,0.0,,,,,,,,,,,,,,,,,,,,,,,,,,,,,,,,,,,,,,,,,,,,,,,,,,,,,,0.0,0.0,32.0,0.096627,1.0,0.0,,,,,,,,,,,,,,,,,,,,,,,,,
29361,1648953322.6169949,1648953322.623656,78.0,0.0,4258.974121,5090.256348,4478.461426,4449.743652,4600.512695,450.0,3.0,73.0,,,,0.0,1.0,1.0,0.0,0.0,0.0,0.0,,,,,,,,39.0,0.0,0.389358,-0.131348,0.067383,0.9091799999999999,0.304204,-0.021973,-0.996109,-0.004201,-0.009821,-0.042210000000000004,,,,,,,,,,,,,,,,,,,,,,,,,,,,,,,,,,,,,,,,,,,,,,,,,,,,,,,,,,,,,,,,,
29362,1648953322.62481,1648953322.631371,79.0,0.0,4448.717772999999,5127.692383,4564.615234000001,4523.589844,4514.871582,0.0,3.0,73.0,,,,0.0,1.0,1.0,0.0,0.0,0.0,0.0,,,,,,,,,,,,,,,,,,,,,,,,,,,,,,,,,,,,,,,,,,,,,,,,,,,,,,,,,,,,,,,,,,,,,,,,,,,,,,,,,,,,
29363,1648953322.632624,1648953322.639185,80.0,0.0,4613.846191,4958.974121,4418.974121,4502.05127,4159.487305,450.0,3.0,73.0,,,,0.0,1.0,1.0,0.0,0.0,0.0,0.0,,,,,,,,40.0,0.0,0.389358,-0.131348,0.067383,0.9091799999999999,0.301274,-0.019043,-0.9785309999999999,-0.004123,-0.009962,-0.037549,,,,,,,,,,,,,,,,,,,,,,,,,,,,,,,,,,,,,,,,,,,,,,,,,,,,,,,,,,,,,,,,,
29364,1648953322.640439,1648953322.6469,81.0,0.0,4583.589844,4830.769043,4230.769043,4393.846191,4072.3076170000004,450.0,3.0,73.0,,,,0.0,1.0,1.0,0.0,0.0,0.0,0.0,,,,,,,,,,,,,,,,,,,,1.0,0.0,0.0,,,,,,,,,,,,,,,,,,,,,,,,,,,,,,,,0.0,0.0,32.0,0.10575799999999999,1.0,0.0,97.018127,471.896912,210.33416699999998,901.052307,54.692387,24.607347,109.234398,105.99778,39.776474,126.422997,124.665245,207.603149,84.781479,73.923248,286.84481800000003,16.181688,75.95728299999999,52.343376,720.772522,130.734039,84.53327900000001,196.145096,141.63295,901.873108,101.957909
29365,1648953322.648254,1648953322.654815,82.0,0.0,4350.769043,4891.794922,4369.230957,4105.641113000001,4123.077147999999,450.0,3.0,73.0,,,,0.0,1.0,1.0,0.0,0.0,0.0,0.0,,,,,,,,41.0,0.0,0.389358,-0.131348,0.067383,0.9091799999999999,0.305669,-0.014159999999999999,-0.968765,-0.004248,-0.009991,-0.039654,,,,,,,,,,,,,,,,,,,,,,,,,,,,,,,,,,,,,,,,,,,,,,,,,,,,,,,,,,,,,,,,,
29366,1648953322.656068,1648953322.662629,83.0,0.0,4198.461426,5011.282227000001,4691.282227000001,4073.3332520000004,4253.333496,0.0,3.0,73.0,,,,0.0,1.0,1.0,0.0,0.0,0.0,0.0,,,,,,,,,,,,,,,,,,,,,,,,,,,,,,,,,,,,,,,,,,,,,,,,,,,,,,,,,,,,,,,,,,,,,,,,,,,,,,,,,,,,
29367,1648953322.663883,1648953322.670544,84.0,0.0,4156.410156,5077.436035,4571.794922,4408.717772999999,4424.102539,450.0,3.0,73.0,,,,0.0,1.0,1.0,0.0,0.0,0.0,0.0,,,,,,,,42.0,0.0,0.38944,-0.131104,0.067383,0.9091799999999999,0.291508,-0.029786,-0.992691,-0.00436,-0.009968000000000001,-0.041597,,,,,,,,,,,,,,,,,,,,,,,,,,,,,,,,,,,,,,,,,,,,,,,,,,,,,,,,,,,,,,,,,
29368,1648953322.6716971,1648953322.678359,85.0,0.0,4221.025879,4992.820313,4216.410156,4635.897461,4537.94873,450.0,3.0,73.0,,,,0.0,1.0,1.0,0.0,0.0,0.0,0.0,,,,,,,,,,,,,,,,,,,,,,,,,,,,,,,,,,,,,,,,,,,,,,,,,,,,,,0.0,0.0,32.0,0.10575799999999999,1.0,0.0,,,,,,,,,,,,,,,,,,,,,,,,,
29369,1648953322.679512,1648953322.686273,86.0,0.0,4259.487305,4954.871582,4167.692383,4457.436035,4491.794922,450.0,3.0,73.0,,,,0.0,1.0,1.0,0.0,0.0,0.0,0.0,,,,,,,,43.0,0.0,0.38944,-0.131104,0.067383,0.9091799999999999,0.303716,-0.009276999999999999,-0.979507,-0.004364,-0.009997,-0.043443,,,,,,,,,,,,,,,,,,,,,,,,,,,,,,,,,,,,,,,,,,,,,,,,,,,,,,,,,,,,,,,,,
29370,1648953322.687326,1648953322.694088,87.0,0.0,4325.128418,5169.743652,4287.692383,4180.512695,4338.461426,0.0,3.0,73.0,,,,0.0,1.0,1.0,0.0,0.0,0.0,0.0,,,,,,,,,,,,,,,,,,,,,,,,,,,,,,,,,,,,,,,,,,,,,,,,,,,,,,,,,,,,,,,,,,,,,,,,,,,,,,,,,,,,
29371,1648953322.695141,1648953322.702002,88.0,0.0,4213.846191,5258.974121,4315.384765999999,4127.179688,4105.128418,450.0,3.0,73.0,,,,0.0,1.0,1.0,0.0,0.0,0.0,0.0,,,,,,,,44.0,0.0,0.389358,-0.131348,0.067383,0.9091799999999999,0.300298,-0.012695999999999999,-0.972671,-0.004367,-0.009925,-0.044860000000000004,,,,,,,,,,,,,,,,,,,,,,,,,,,,,,,,,,,,,,,,,,,,,,,,,,,,,,,,,,,,,,,,,
29372,1648953322.702955,1648953322.709817,89.0,0.0,4057.4357909999994,5010.769043,4252.307617,4289.743652,4031.281982,450.0,3.0,73.0,,,,0.0,1.0,1.0,0.0,0.0,0.0,0.0,,,,,,,,,,,,,,,,,,,,,,,,,,,,,,,,,,,,,,,,,,,,,,,,,,,,,,0.0,0.0,32.0,0.10575799999999999,1.0,0.0,,,,,,,,,,,,,,,,,,,,,,,,,
29373,1648953322.71077,1648953322.717732,90.0,0.0,4182.05127,4881.538574,4151.282227000001,4380.512695,4315.384765999999,450.0,3.0,73.0,,,,0.0,1.0,1.0,0.0,0.0,0.0,0.0,,,,,,,,45.0,0.0,0.38944,-0.131104,0.067383,0.9091799999999999,0.298833,-0.02002,-0.980972,-0.004272,-0.009909000000000001,-0.039984,,,,,,,,,,,,,,,,,,,,,,,,,,,,,,,,,,,,,,,,,,,,,,,,,,,,,,,,,,,,,,,,,
29374,1648953322.718584,1648953322.7255461,91.0,0.0,4403.077147999999,5034.871582,4211.794922,4357.436035,4612.820313,0.0,3.0,73.0,,,,0.0,1.0,1.0,0.0,0.0,0.0,0.0,,,,,,,,,,,,,,,,,,,,,,,,,,,,,,,,,,,,,,,,,,,,,,,,,,,,,,,,,,,,,,,,,,,,,,,,,,,,,,,,,,,,
29375,1648953322.726399,1648953322.7332609,92.0,0.0,4525.641113000001,5053.846191,4450.769043,4348.717772999999,4536.922852000001,450.0,3.0,73.0,,,,0.0,1.0,1.0,0.0,0.0,0.0,0.0,,,,,,,,46.0,0.0,0.38944,-0.131104,0.067383,0.9091799999999999,0.282231,-0.018067,-0.969741,-0.004333,-0.009944,-0.041845,,,,,,,,,,,,,,,,,,,,,,,,,,,,,,,,,,,,,,,,,,,,,,,,,,,,,,,,,,,,,,,,,
29376,1648953322.734213,1648953322.741076,93.0,0.0,4595.897461,4960.0,4635.897461,4330.256348,4282.563965,450.0,3.0,73.0,,,,0.0,1.0,1.0,0.0,0.0,0.0,0.0,,,,,,,,,,,,,,,,,,,,,,,,,,,,,,,,,,,,,,,,,,,,,,,,,,,,,,0.0,0.0,32.0,0.10575799999999999,1.0,0.0,,,,,,,,,,,,,,,,,,,,,,,,,
29377,1648953322.742028,1648953322.74879,94.0,0.0,4490.256348,5029.743652,4471.794922,4235.897461,4222.563965,450.0,3.0,73.0,,,,0.0,1.0,1.0,0.0,0.0,0.0,0.0,,,,,,,,47.0,0.0,0.389358,-0.131348,0.067383,0.9091799999999999,0.297856,-0.007812999999999999,-0.996109,-0.004193,-0.009926,-0.043666,,,,,,,,,,,,,,,,,,,,,,,,,,,,,,,,,,,,,,,,,,,,,,,,,,,,,,,,,,,,,,,,,
29378,1648953322.749843,1648953322.7566051,95.0,0.0,4128.205078,5049.230957,4217.436035,4053.8461909999996,4259.487305,0.0,3.0,73.0,,,,0.0,1.0,1.0,0.0,0.0,0.0,0.0,,,,,,,,,,,,,,,,,,,,,,,,,,,,,,,,,,,,,,,,,,,,,,,,,,,,,,,,,,,,,,,,,,,,,,,,,,,,,,,,,,,,
29379,1648953322.757657,1648953322.76432,96.0,0.0,4035.897461,4981.538574,4357.436035,4156.922852000001,4386.153809,450.0,3.0,73.0,,,,0.0,1.0,1.0,0.0,0.0,0.0,0.0,,,,,,,,48.0,0.0,0.38944,-0.131104,0.067383,0.9091799999999999,0.298833,-0.02002,-0.980972,-0.004164,-0.010006999999999999,-0.038909,,,,,,,,,,,,,,,,,,,,,,,,,,,,,,,,,,,,,,,,,,,,,,,,,,,,,,,,,,,,,,,,,
29380,1648953322.7654722,1648953322.772134,97.0,0.0,4309.230957,5043.077147999999,4525.641113000001,4419.487305,4620.0,450.0,3.0,73.0,,,,0.0,1.0,1.0,0.0,0.0,0.0,0.0,,,,,,,,,,,,,,,,,,,,1.0,0.0,0.0,,,,,,,,,,,,,,,,,,,,,,,,,,,,,,,,0.0,0.0,32.0,0.105308,1.0,0.0,94.102356,420.957947,222.27058399999999,943.961365,58.3545,29.672256,102.227654,107.52143899999999,44.984398,120.520256,128.48461899999998,186.578201,96.398315,80.976662,274.79483,19.58246,83.461533,57.60205500000001,697.606689,122.793747,80.077202,177.839737,168.129471,900.239807,107.839722
29381,1648953322.7732859,1648953322.779849,98.0,0.0,4527.692383,5108.717772999999,4561.025879,4488.205078,4629.743652,450.0,3.0,73.0,,,,0.0,1.0,1.0,0.0,0.0,0.0,0.0,,,,,,,,49.0,0.0,0.389358,-0.131348,0.067383,0.9091799999999999,0.297856,-0.007812999999999999,-0.996109,-0.0040409999999999995,-0.009983,-0.041024,,,,,,,,,,,,,,,,,,,,,,,,,,,,,,,,,,,,,,,,,,,,,,,,,,,,,,,,,,,,,,,,,
29382,1648953322.781101,1648953322.7876642,99.0,0.0,4453.846191,4999.487305,4467.692383,4427.179688,4217.94873,0.0,3.0,73.0,,,,0.0,1.0,1.0,0.0,0.0,0.0,0.0,,,,,,,,,,,,,,,,,,,,,,,,,,,,,,,,,,,,,,,,,,,,,,,,,,,,,,,,,,,,,,,,,,,,,,,,,,,,,,,,,,,,
29383,1648953322.7889152,1648953322.795378,100.0,0.0,4295.897461,4836.922852000001,4337.436035,4389.230957,3982.5642090000006,450.0,3.0,73.0,,,,0.0,1.0,1.0,0.0,0.0,0.0,0.0,,,,,,,,50.0,0.0,0.389358,-0.131348,0.067383,0.9091799999999999,0.284184,-0.026368,-0.968765,-0.004027,-0.009913,-0.04283,,,,,,,,,,,,,,,,,,,,,,,,,,,,,,,,,,,,,,,,,,,,,,,,,,,,,,,,,,,,,,,,,
29384,1648953322.79673,1648953322.8031929,101.0,0.0,4238.461426,4893.846191,4401.025879,4167.692383,4083.076904,450.0,3.0,73.0,,,,0.0,1.0,1.0,0.0,0.0,0.0,0.0,,,,,,,,,,,,,,,,,,,,,,,,,,,,,,,,,,,,,,,,,,,,,,,,,,,,,,0.0,0.0,32.0,0.105308,1.0,0.0,,,,,,,,,,,,,,,,,,,,,,,,,
29385,1648953322.804544,1648953322.811008,102.0,0.0,4281.538574,5065.128418,4592.307617,4074.8718259999996,4265.641113000001,450.0,3.0,73.0,,,,0.0,1.0,1.0,0.0,0.0,0.0,0.0,,,,,,,,51.0,0.0,0.38944,-0.131104,0.067383,0.9091799999999999,0.30518,-0.030762,-0.976577,-0.003966,-0.009996,-0.038205,,,,,,,,,,,,,,,,,,,,,,,,,,,,,,,,,,,,,,,,,,,,,,,,,,,,,,,,,,,,,,,,,
29386,1648953322.812359,1648953322.818722,103.0,0.0,4258.974121,5080.0,4532.820313,4403.077147999999,4413.333496,0.0,3.0,73.0,,,,0.0,1.0,1.0,0.0,0.0,0.0,0.0,,,,,,,,,,,,,,,,,,,,,,,,,,,,,,,,,,,,,,,,,,,,,,,,,,,,,,,,,,,,,,,,,,,,,,,,,,,,,,,,,,,,
29387,1648953322.820174,1648953322.826537,104.0,0.0,4274.358886999999,4924.102539,4253.846191,4688.205078,4513.846191,450.0,3.0,73.0,,,,0.0,1.0,1.0,0.0,0.0,0.0,0.0,,,,,,,,52.0,0.0,0.389398,-0.131104,0.06762699999999999,0.9091799999999999,0.313481,-0.027832,-0.98146,-0.00396,-0.009923999999999999,-0.040391,,,,,,,,,,,,,,,,,,,,,,,,,,,,,,,,,,,,,,,,,,,,,,,,,,,,,,,,,,,,,,,,,
29388,1648953322.8279881,1648953322.834451,105.0,0.0,4271.794922,4896.922852000001,4151.794922,4512.307617,4504.102539,450.0,3.0,73.0,,,,0.0,1.0,1.0,0.0,0.0,0.0,0.0,,,,,,,,,,,,,,,,,,,,,,,,,,,,,,,,,,,,,,,,,,,,,,,,,,,,,,0.0,0.0,32.0,0.105308,1.0,0.0,,,,,,,,,,,,,,,,,,,,,,,,,
29389,1648953322.835803,1648953322.842266,106.0,0.0,4274.358886999999,5111.794922,4345.641113000001,4193.333496,4385.128418,450.0,3.0,73.0,,,,0.0,1.0,1.0,0.0,0.0,0.0,0.0,,,,,,,,53.0,0.0,0.38944,-0.131104,0.067383,0.9091799999999999,0.280278,-0.023438,-0.9741360000000001,-0.004004,-0.010006000000000001,-0.036059,,,,,,,,,,,,,,,,,,,,,,,,,,,,,,,,,,,,,,,,,,,,,,,,,,,,,,,,,,,,,,,,,
29390,1648953322.843617,1648953322.850081,107.0,0.0,4231.282227000001,5209.230957,4483.589844,4144.102539,4148.717772999999,0.0,3.0,73.0,,,,0.0,1.0,1.0,0.0,0.0,0.0,0.0,,,,,,,,,,,,,,,,,,,,,,,,,,,,,,,,,,,,,,,,,,,,,,,,,,,,,,,,,,,,,,,,,,,,,,,,,,,,,,,,,,,,
29391,1648953322.851432,1648953322.857795,108.0,0.0,4077.4357909999994,5028.717772999999,4275.384765999999,4297.436035,4016.4101560000004,450.0,3.0,73.0,,,,0.0,1.0,1.0,0.0,0.0,0.0,0.0,,,,,,,,54.0,0.0,0.38944,-0.131104,0.067383,0.9091799999999999,0.29443800000000003,-0.016114,-0.9824370000000001,-0.004092,-0.009932999999999999,-0.032208999999999995,,,,,,,,,,,,,,,,,,,,,,,,,,,,,,,,,,,,,,,,,,,,,,,,,,,,,,,,,,,,,,,,,
29392,1648953322.859246,1648953322.86561,109.0,0.0,4150.256348,4868.717772999999,4067.179443,4374.358886999999,4293.333496,450.0,3.0,73.0,,,,0.0,1.0,1.0,0.0,0.0,0.0,0.0,,,,,,,,,,,,,,,,,,,,,,,,,,,,,,,,,,,,,,,,,,,,,,,,,,,,,,0.0,0.0,32.0,0.105308,1.0,0.0,,,,,,,,,,,,,,,,,,,,,,,,,
29393,1648953322.867061,1648953322.873325,110.0,0.0,4400.0,4946.666504,4248.205078,4366.153809,4665.128418,450.0,3.0,73.0,,,,0.0,1.0,1.0,0.0,0.0,0.0,0.0,,,,,,,,55.0,0.0,0.389398,-0.131104,0.06762699999999999,0.9091799999999999,0.294926,-0.024413999999999998,-0.976089,-0.004072999999999999,-0.009916,-0.028548,,,,,,,,,,,,,,,,,,,,,,,,,,,,,,,,,,,,,,,,,,,,,,,,,,,,,,,,,,,,,,,,,
29394,1648953322.874875,1648953322.881139,111.0,0.0,4541.025879,5071.794922,4507.179688,4406.666504,4634.358886999999,0.0,3.0,73.0,,,,0.0,1.0,1.0,0.0,0.0,0.0,0.0,,,,,,,,,,,,,,,,,,,,,,,,,,,,,,,,,,,,,,,,,,,,,,,,,,,,,,,,,,,,,,,,,,,,,,,,,,,,,,,,,,,,
29395,1648953322.88269,1648953322.8888538,112.0,0.0,4542.563965,4963.077147999999,4420.512695,4331.794922,4249.743652,450.0,3.0,73.0,,,,0.0,1.0,1.0,0.0,0.0,0.0,0.0,,,,,,,,56.0,0.0,0.389398,-0.131104,0.06762699999999999,0.9091799999999999,0.284672,-0.015625,-0.984878,-0.004154,-0.009901,-0.031602,,,,,,,,,,,,,,,,,,,,,,,,,,,,,,,,,,,,,,,,,,,,,,,,,,,,,,,,,,,,,,,,,
29396,1648953322.890504,1648953322.896769,113.0,0.0,4406.666504,4811.282227000001,4327.692383,4188.205078,4063.076904,450.0,3.0,73.0,,,,0.0,1.0,1.0,0.0,0.0,0.0,0.0,,,,,,,,,,,,,,,,,,,,1.0,0.0,0.0,,,,,,,,,,,,,,,,,,,,,,,,,,,,,,,,0.0,0.0,32.0,0.108876,1.0,0.0,84.392044,357.526093,218.04472400000003,976.3948359999999,61.776230000000005,38.392703999999995,103.50161,106.087326,48.562733,115.237144,126.410141,156.13855,104.25829300000001,84.396187,269.719513,21.809174,94.26619000000001,62.828938,682.030029,111.42031899999999,75.03533900000001,174.088821,197.36726399999998,904.7992550000001,112.16974599999999
29397,1648953322.898319,1648953322.904583,114.0,0.0,4152.820313,4918.974121,4440.512695,4057.4357909999994,4176.922852000001,450.0,3.0,73.0,,,,0.0,1.0,1.0,0.0,0.0,0.0,0.0,,,,,,,,57.0,0.0,0.389398,-0.131104,0.06762699999999999,0.9091799999999999,0.295903,-0.016114,-0.9790190000000001,-0.004129,-0.010131999999999999,-0.028002,,,,,,,,,,,,,,,,,,,,,,,,,,,,,,,,,,,,,,,,,,,,,,,,,,,,,,,,,,,,,,,,,
29398,1648953322.906134,1648953322.912498,115.0,0.0,4088.205078,5151.794922,4585.128418,4108.717772999999,4436.410156,0.0,3.0,73.0,,,,0.0,1.0,1.0,0.0,0.0,0.0,0.0,,,,,,,,,,,,,,,,,,,,,,,,,,,,,,,,,,,,,,,,,,,,,,,,,,,,,,,,,,,,,,,,,,,,,,,,,,,,,,,,,,,,
29399,1648953322.913948,1648953322.920312,116.0,0.0,4106.666504,5152.820313,4464.615234000001,4323.589844,4530.256348,450.0,3.0,73.0,,,,0.0,1.0,1.0,0.0,0.0,0.0,0.0,,,,,,,,58.0,0.0,0.389398,-0.131104,0.06762699999999999,0.9091799999999999,0.293462,-0.019532,-0.982925,-0.004156,-0.010144,-0.031159,,,,,,,,,,,,,,,,,,,,,,,,,,,,,,,,,,,,,,,,,,,,,,,,,,,,,,,,,,,,,,,,,
29400,1648953322.9217632,1648953322.928027,117.0,0.0,4149.743652,4972.307617,4286.666504,4554.871582,4485.128418,450.0,3.0,73.0,,,,0.0,1.0,1.0,0.0,0.0,0.0,0.0,,,,,,,,,,,,,,,,,,,,,,,,,,,,,,,,,,,,,,,,,,,,,,,,,,,,,,0.0,0.0,32.0,0.108876,1.0,0.0,,,,,,,,,,,,,,,,,,,,,,,,,
29401,1648953322.9295769,1648953322.935842,118.0,0.0,4292.307617,4900.0,4223.077147999999,4507.179688,4443.077147999999,450.0,3.0,73.0,,,,0.0,1.0,1.0,0.0,0.0,0.0,0.0,,,,,,,,59.0,0.0,0.389398,-0.131104,0.06762699999999999,0.9091799999999999,0.297856,-0.014649,-0.9677879999999999,-0.004131,-0.010253,-0.033902999999999996,,,,,,,,,,,,,,,,,,,,,,,,,,,,,,,,,,,,,,,,,,,,,,,,,,,,,,,,,,,,,,,,,
29402,1648953322.937392,1648953322.943656,119.0,0.0,4381.538574,5035.897461,4195.384765999999,4259.487305,4397.94873,0.0,3.0,73.0,,,,0.0,1.0,1.0,0.0,0.0,0.0,0.0,,,,,,,,,,,,,,,,,,,,,,,,,,,,,,,,,,,,,,,,,,,,,,,,,,,,,,,,,,,,,,,,,,,,,,,,,,,,,,,,,,,,
29403,1648953322.9452062,1648953322.9513712,120.0,0.0,4264.102539,5232.820313,4311.282227000001,4117.436035,4166.666504,450.0,3.0,73.0,,,,0.0,1.0,1.0,0.0,0.0,0.0,0.0,,,,,,,,60.0,0.0,0.389316,-0.131348,0.06762699999999999,0.9091799999999999,0.30225100000000005,-0.017578,-0.989273,-0.004157,-0.010204000000000001,-0.036372,,,,,,,,,,,,,,,,,,,,,,,,,,,,,,,,,,,,,,,,,,,,,,,,,,,,,,,,,,,,,,,,,
29404,1648953322.953021,1648953322.9591858,121.0,0.0,4237.436035,5209.743652,4440.0,4200.512695,4018.461426,450.0,3.0,73.0,,,,0.0,1.0,1.0,0.0,0.0,0.0,0.0,,,,,,,,,,,,,,,,,,,,,,,,,,,,,,,,,,,,,,,,,,,,,,,,,,,,,,0.0,0.0,32.0,0.108876,1.0,0.0,,,,,,,,,,,,,,,,,,,,,,,,,
29405,1648953322.960835,1648953322.967001,122.0,0.0,4298.461426,5013.846191,4297.94873,4342.05127,4269.230957,450.0,3.0,73.0,,,,0.0,1.0,1.0,0.0,0.0,0.0,0.0,,,,,,,,61.0,0.0,0.389316,-0.131348,0.06762699999999999,0.9091799999999999,0.301274,-0.019043,-0.9677879999999999,-0.004181,-0.010111,-0.038741000000000005,,,,,,,,,,,,,,,,,,,,,,,,,,,,,,,,,,,,,,,,,,,,,,,,,,,,,,,,,,,,,,,,,
29406,1648953322.96865,1648953322.974715,123.0,0.0,4345.641113000001,4979.487305,4141.538574,4415.897461,4542.05127,0.0,3.0,73.0,,,,0.0,1.0,1.0,0.0,0.0,0.0,0.0,,,,,,,,,,,,,,,,,,,,,,,,,,,,,,,,,,,,,,,,,,,,,,,,,,,,,,,,,,,,,,,,,,,,,,,,,,,,,,,,,,,,
29407,1648953322.976464,1648953322.98253,124.0,0.0,4461.025879,5046.666504,4294.358886999999,4349.230957,4520.0,450.0,3.0,73.0,,,,0.0,1.0,1.0,0.0,0.0,0.0,0.0,,,,,,,,62.0,0.0,0.389316,-0.131348,0.06762699999999999,0.9091799999999999,0.294926,-0.012695999999999999,-0.979507,-0.004105,-0.010028,-0.040726,,,,,,,,,,,,,,,,,,,,,,,,,,,,,,,,,,,,,,,,,,,,,,,,,,,,,,,,,,,,,,,,,
29408,1648953322.984279,1648953322.9902449,125.0,0.0,4495.897461,5026.153809,4578.974121,4165.641113000001,4410.769043,450.0,3.0,73.0,,,,0.0,1.0,1.0,0.0,0.0,0.0,0.0,,,,,,,,,,,,,,,,,,,,,,,,,,,,,,,,,,,,,,,,,,,,,,,,,,,,,,0.0,0.0,32.0,0.108876,1.0,0.0,,,,,,,,,,,,,,,,,,,,,,,,,
29409,1648953322.992094,1648953322.998059,126.0,0.0,4347.692383,5023.589844,4526.666504,4087.6923829999996,4308.717772999999,450.0,3.0,73.0,,,,0.0,1.0,1.0,0.0,0.0,0.0,0.0,,,,,,,,63.0,0.0,0.389885,-0.131348,0.06762699999999999,0.9089360000000001,0.30225100000000005,-0.008789,-0.9629049999999999,-0.004183,-0.010001999999999999,-0.042513,,,,,,,,,,,,,,,,,,,,,,,,,,,,,,,,,,,,,,,,,,,,,,,,,,,,,,,,,,,,,,,,,
29410,1648953322.999908,1648953323.005774,127.0,0.0,4104.615234000001,4992.820313,4231.794922,4089.2307130000004,4169.230957,238.0,3.0,73.0,,,,0.0,1.0,1.0,0.0,0.0,0.0,0.0,,,,,,,,,,,,,,,,,,,,,,,,,,,,,,,,,,,,,,,,,,,,,,,,,,,,,,,,,,,,,,,,,,,,,,,,,,,,,,,,,,,,
29411,1648953323.007723,1648953323.0135891,0.0,0.0,4054.8718259999996,4933.846191,4287.179688,4217.436035,4278.461426,450.0,3.0,73.0,,,,0.0,1.0,1.0,0.0,0.0,0.0,0.0,,,,,,,,0.0,0.0,0.389803,-0.13159200000000001,0.06762699999999999,0.9089360000000001,0.305669,-0.020508000000000002,-0.985367,-0.004204,-0.010076,-0.037870999999999995,,,,,,,,,,,,,,,,,,,,,,,,,,,,,,,,,,,,,,,,,,,,,,,,,,,,,,,,,,,,,,,,,
29412,1648953323.015537,1648953323.021303,1.0,0.0,4195.897461,4999.487305,4514.871582,4395.384765999999,4498.974121,450.0,3.0,73.0,,,,0.0,0.0,1.0,0.0,0.0,0.0,0.0,1.0,0.0,0.0,0.0,0.0,0.0,0.0,,,,,,,,,,,,,1.0,0.0,0.0,0.0,,,-0.141261,2.380697,0.0,,,-1.6948729999999999,7.436445,,0.0,,,-0.278481,0.126833,0.0,,,-0.29161,2.799273,0.0,,,-132.111913,186.59121299999998,0.0,,,0.45733100000000004,0.715404,0.0,0.0,32.0,0.111187,1.0,0.0,72.94965400000001,297.37445099999997,205.412216,988.132141,63.056789,47.483578,112.49481999999999,101.601822,49.617447,112.55720500000001,123.952721,125.28846000000001,110.182533,83.772751,271.81356800000003,23.276001,105.39223500000001,66.081688,677.025208,99.603859,71.156624,178.804077,222.933563,914.3703,114.09470400000001
29413,1648953323.023352,1648953323.029118,2.0,0.0,4396.922852000001,5022.05127,4559.487305,4508.205078,4450.769043,4.0,3.0,73.0,,,,0.0,0.0,1.0,0.0,0.0,0.0,0.0,,,,,,,,1.0,0.0,0.389885,-0.131348,0.06762699999999999,0.9089360000000001,0.299321,-0.025391,-0.9751129999999999,-0.004222999999999999,-0.009996,-0.039943,,,,,,,,,,,,,,,,,,,,,,,,,,,,,,,,,,,,,,,,,,,,,,,,,,,,,,,,,,,,,,,,,
29414,1648953323.031166,1648953323.036833,3.0,0.0,4609.230957,4956.410156,4349.743652,4529.743652,4233.333496,450.0,3.0,73.0,,,,0.0,0.0,4.0,0.0,0.0,0.0,0.0,,,,,,,,,,,,,,,,,,,,,,,,,,,,,,,,,,,,,,,,,,,,,,,,,,,,,,,,,,,,,,,,,,,,,,,,,,,,,,,,,,,,
29415,1648953323.038981,1648953323.044648,4.0,0.0,4656.410156,4923.077147999999,4249.743652,4470.256348,4205.641113000001,16086.0,3.0,73.0,,,,0.0,0.0,4.0,0.0,0.0,0.0,0.0,,,,,,,,2.0,0.0,0.389885,-0.131348,0.06762699999999999,0.9089360000000001,0.30811,-0.018555000000000002,-0.98146,-0.004289,-0.009973000000000001,-0.041808,,,,,,,,,,,,,,,,,,,,,,,,,,,,,,,,,,,,,,,,,,,,,,,,,,,,,,,,,,,,,,,,,
29416,1648953323.046795,1648953323.052362,5.0,0.0,4402.05127,4945.641113000001,4436.922852000001,4181.538574,4180.0,450.0,3.0,73.0,,,,0.0,0.0,4.0,0.0,0.0,0.0,0.0,,,,,,,,,,,,,,,,,,,,,,,,,,,,,,,,,,,,,,,,,,,,,,,,,,,,,,0.0,0.0,32.0,0.111187,1.0,0.0,,,,,,,,,,,,,,,,,,,,,,,,,
29417,1648953323.05461,1648953323.0601768,6.0,0.0,4165.641113000001,4972.820313,4682.563965,4034.8718259999996,4242.05127,0.0,3.0,73.0,,,,0.0,0.0,4.0,0.0,0.0,0.0,0.0,,,,,,,,3.0,0.0,0.389885,-0.131348,0.06762699999999999,0.9089360000000001,0.284184,-0.03125,-0.981949,-0.004202,-0.009855,-0.043536,,,,,,,,,,,,,,,,,,,,,,,,,,,,,,,,,,,,,,,,,,,,,,,,,,,,,,,,,,,,,,,,,
29418,1648953323.062425,1648953323.067892,7.0,0.0,4144.102539,5080.0,4611.794922,4323.077147999999,4435.384765999999,450.0,3.0,73.0,,,,0.0,0.0,4.0,0.0,0.0,0.0,0.0,,,,,,,,,,,,,,,,,,,,,,,,,,,,,,,,,,,,,,,,,,,,,,,,,,,,,,,,,,,,,,,,,,,,,,,,,,,,,,,,,,,,
29419,1648953323.070239,1648953323.0758061,8.0,0.0,4271.794922,5047.692383,4278.974121,4620.512695,4543.077147999999,450.0,3.0,73.0,,,,0.0,0.0,4.0,0.0,0.0,0.0,0.0,,,,,,,,4.0,0.0,0.389885,-0.131348,0.06762699999999999,0.9089360000000001,0.316411,-0.02002,-0.982925,-0.004221,-0.009845999999999999,-0.038743,,,,,,,,,,,,,,,,,,,,,,,,,,,,,,,,,,,,,,,,,,,,,,,,,,,,,,,,,,,,,,,,,
29420,1648953323.078054,1648953323.083621,9.0,0.0,4297.436035,4891.794922,4132.307617,4506.153809,4481.538574,27.0,3.0,73.0,,,,0.0,0.0,4.0,0.0,0.0,0.0,0.0,,,,,,,,,,,,,,,,,,,,,,,,,,,,,,,,,,,,,,,,,,,,,,,,,,,,,,0.0,0.0,32.0,0.111187,1.0,0.0,,,,,,,,,,,,,,,,,,,,,,,,,
29421,1648953323.085868,1648953323.0915349,10.0,0.0,4314.871582,5073.333496,4271.282227000001,4222.05127,4344.102539,450.0,3.0,73.0,,,,0.0,0.0,4.0,0.0,0.0,0.0,0.0,,,,,,,,5.0,0.0,0.389885,-0.131348,0.06762699999999999,0.9089360000000001,0.301762,-0.019532,-0.9751129999999999,-0.0042380000000000004,-0.009838,-0.040728,,,,,,,,,,,,,,,,,,,,,,,,,,,,,,,,,,,,,,,,,,,,,,,,,,,,,,,,,,,,,,,,,
29422,1648953323.093683,1648953323.09935,11.0,0.0,4245.128418,5235.897461,4372.820313,4149.230957,4136.410156,0.0,3.0,73.0,,,,0.0,0.0,4.0,0.0,0.0,0.0,0.0,,,,,,,,,,,,,,,,,,,,,,,,,,,,,,,,,,,,,,,,,,,,,,,,,,,,,,,,,,,,,,,,,,,,,,,,,,,,,,,,,,,,
29423,1648953323.1014972,1648953323.107265,12.0,0.0,4068.205078,4988.717772999999,4229.230957,4283.589844,4014.8718259999996,450.0,3.0,73.0,,,,0.0,0.0,4.0,0.0,0.0,0.0,0.0,,,,,,,,6.0,0.0,0.389803,-0.13159200000000001,0.06762699999999999,0.9089360000000001,0.303227,-0.028321,-0.973159,-0.004254,-0.00983,-0.036313,,,,,,,,,,,,,,,,,,,,,,,,,,,,,,,,,,,,,,,,,,,,,,,,,,,,,,,,,,,,,,,,,
29424,1648953323.1093118,1648953323.115079,13.0,0.0,4141.538574,4837.94873,4067.179443,4362.05127,4236.922852000001,450.0,3.0,73.0,,,,0.0,0.0,4.0,0.0,0.0,0.0,0.0,,,,,,,,,,,,,,,,,,,,,,,,,,,,,,,,,,,,,,,,,,,,,,,,,,,,,,0.0,0.0,32.0,0.111187,1.0,0.0,,,,,,,,,,,,,,,,,,,,,,,,,
29425,1648953323.117126,1648953323.122994,14.0,0.0,4351.794922,4994.871582,4203.077147999999,4326.153809,4553.846191,450.0,3.0,73.0,,,,0.0,0.0,4.0,0.0,0.0,0.0,0.0,,,,,,,,7.0,0.0,0.389803,-0.13159200000000001,0.06762699999999999,0.9089360000000001,0.289555,-0.023438,-0.9834129999999999,-0.004268,-0.009824,-0.038395,,,,,,,,,,,,,,,,,,,,,,,,,,,,,,,,,,,,,,,,,,,,,,,,,,,,,,,,,,,,,,,,,
29426,1648953323.124941,1648953323.130808,15.0,0.0,4501.538574,4990.769043,4461.538574,4365.128418,4574.358886999999,0.0,3.0,73.0,,,,0.0,0.0,4.0,0.0,0.0,0.0,0.0,,,,,,,,,,,,,,,,,,,,,,,,,,,,,,,,,,,,,,,,,,,,,,,,,,,,,,,,,,,,,,,,,,,,,,,,,,,,,,,,,,,,
29427,1648953323.132755,1648953323.138523,16.0,0.0,4617.436035,4883.589844,4573.333496,4386.666504,4346.153809,0.0,3.0,73.0,,,,0.0,0.0,4.0,0.0,0.0,0.0,0.0,,,,,,,,8.0,0.0,0.389803,-0.13159200000000001,0.06762699999999999,0.9089360000000001,0.301274,-0.019043,-0.993667,-0.004232,-0.009867,-0.034165,,,,,,,,,,,,,,,,,,,,,,,,,,,,,,,,,,,,,,,,,,,,,,,,,,,,,,,,,,,,,,,,,
29428,1648953323.14057,1648953323.146338,17.0,0.0,4605.128418,5014.358886999999,4480.0,4312.307617,4263.589844,0.0,3.0,73.0,,,,0.0,0.0,4.0,0.0,0.0,0.0,0.0,,,,,,,,,,,,,,,,,,,,1.0,0.0,0.0,,,,,,,,,,,,,,,,,,,,,,,,,,,,,,,,0.0,0.0,32.0,0.09855499999999999,1.0,0.0,64.823006,250.430527,197.426834,972.609924,61.157348999999996,53.984634,124.569397,95.834908,47.738888,113.118202,127.74428600000002,101.805717,116.84227,79.009659,277.920258,25.839729000000002,113.34441399999999,66.15679200000001,681.4231570000001,90.232559,68.827652,182.266953,239.034256,927.617065,113.557175
29429,1648953323.148384,1648953323.154053,18.0,0.0,4241.538574,5025.641113000001,4250.769043,4088.205078,4275.384765999999,0.0,3.0,73.0,,,,0.0,0.0,4.0,0.0,0.0,0.0,0.0,,,,,,,,9.0,0.0,0.389803,-0.13159200000000001,0.06762699999999999,0.9089360000000001,0.288579,-0.012695999999999999,-0.979507,-0.004297,-0.009906,-0.036608,,,,,,,,,,,,,,,,,,,,,,,,,,,,,,,,,,,,,,,,,,,,,,,,,,,,,,,,,,,,,,,,,
29430,1648953323.156199,1648953323.161867,19.0,0.0,3998.461426,4869.743652,4328.717772999999,4095.384521,4345.641113000001,0.0,3.0,73.0,,,,0.0,0.0,4.0,0.0,0.0,0.0,0.0,,,,,,,,,,,,,,,,,,,,,,,,,,,,,,,,,,,,,,,,,,,,,,,,,,,,,,,,,,,,,,,,,,,,,,,,,,,,,,,,,,,,
29431,1648953323.164014,1648953323.1695821,20.0,0.0,4177.94873,4967.179688,4492.307617,4390.769043,4508.205078,0.0,3.0,73.0,,,,0.0,0.0,4.0,0.0,0.0,0.0,0.0,,,,,,,,10.0,0.0,0.389885,-0.131348,0.06762699999999999,0.9089360000000001,0.311528,-0.004883,-0.995132,-0.0043560000000000005,-0.009843000000000001,-0.038952999999999995,,,,,,,,,,,,,,,,,,,,,,,,,,,,,,,,,,,,,,,,,,,,,,,,,,,,,,,,,,,,,,,,,
29432,1648953323.171828,1648953323.177397,21.0,0.0,4447.179688,5143.077147999999,4544.615234000001,4557.436035,4566.666504,0.0,3.0,73.0,,,,0.0,0.0,4.0,0.0,0.0,0.0,0.0,,,,,,,,,,,,,,,,,,,,,,,,,,,,,,,,,,,,,,,,,,,,,,,,,,,,,,0.0,0.0,32.0,0.09855499999999999,1.0,0.0,,,,,,,,,,,,,,,,,,,,,,,,,
29433,1648953323.179643,1648953323.185111,22.0,0.0,4496.410156,5019.487305,4505.128418,4485.128418,4265.128418,0.0,3.0,73.0,,,,0.0,0.0,4.0,0.0,0.0,0.0,0.0,,,,,,,,11.0,0.0,0.389885,-0.131348,0.06762699999999999,0.9089360000000001,0.293462,-0.020508000000000002,-0.975601,-0.004457,-0.009932999999999999,-0.034765,,,,,,,,,,,,,,,,,,,,,,,,,,,,,,,,,,,,,,,,,,,,,,,,,,,,,,,,,,,,,,,,,
29434,1648953323.187457,1648953323.192926,23.0,0.0,4389.230957,4784.102539,4372.307617,4408.717772999999,4011.794922,0.0,3.0,73.0,,,,0.0,0.0,4.0,0.0,0.0,0.0,0.0,,,,,,,,,,,,,,,,,,,,,,,,,,,,,,,,,,,,,,,,,,,,,,,,,,,,,,,,,,,,,,,,,,,,,,,,,,,,,,,,,,,,
29435,1648953323.195272,1648953323.200641,24.0,0.0,4275.384765999999,4874.358886999999,4331.794922,4204.615234000001,4058.974365,0.0,3.0,73.0,,,,0.0,0.0,4.0,0.0,0.0,0.0,0.0,,,,,,,,12.0,0.0,0.389803,-0.13159200000000001,0.06762699999999999,0.9089360000000001,0.288579,-0.012695999999999999,-0.979507,-0.004451,-0.010014,-0.030945999999999998,,,,,,,,,,,,,,,,,,,,,,,,,,,,,,,,,,,,,,,,,,,,,,,,,,,,,,,,,,,,,,,,,
29436,1648953323.2030869,1648953323.208455,25.0,0.0,4251.794922,5035.384765999999,4543.077147999999,4058.461426,4245.641113000001,0.0,3.0,73.0,,,,0.0,0.0,4.0,0.0,0.0,0.0,0.0,,,,,,,,,,,,,,,,,,,,,,,,,,,,,,,,,,,,,,,,,,,,,,,,,,,,,,0.0,0.0,32.0,0.09855499999999999,1.0,0.0,,,,,,,,,,,,,,,,,,,,,,,,,
29437,1648953323.210901,1648953323.2161698,26.0,0.0,4293.333496,4977.94873,4653.846191,4343.589844,4415.384765999999,0.0,3.0,73.0,,,,0.0,0.0,4.0,0.0,0.0,0.0,0.0,,,,,,,,13.0,0.0,0.389885,-0.131348,0.06762699999999999,0.9089360000000001,0.293462,-0.020508000000000002,-0.975601,-0.004543,-0.010087,-0.027558999999999997,,,,,,,,,,,,,,,,,,,,,,,,,,,,,,,,,,,,,,,,,,,,,,,,,,,,,,,,,,,,,,,,,
29438,1648953323.218716,1648953323.2240849,27.0,0.0,4460.512695,4909.230957,4346.666504,4689.230957,4513.333496,0.0,3.0,73.0,,,,0.0,0.0,4.0,0.0,0.0,0.0,0.0,,,,,,,,,,,,,,,,,,,,,,,,,,,,,,,,,,,,,,,,,,,,,,,,,,,,,,,,,,,,,,,,,,,,,,,,,,,,,,,,,,,,
29439,1648953323.22653,1648953323.231899,28.0,0.0,4461.538574,4883.589844,4126.666504,4575.384765999999,4498.974121,0.0,3.0,73.0,,,,0.0,0.0,4.0,0.0,0.0,0.0,0.0,,,,,,,,14.0,0.0,0.389885,-0.131348,0.06762699999999999,0.9089360000000001,0.302739,-0.015137000000000001,-0.979507,-0.00443,-0.010103000000000001,-0.030808999999999996,,,,,,,,,,,,,,,,,,,,,,,,,,,,,,,,,,,,,,,,,,,,,,,,,,,,,,,,,,,,,,,,,
29440,1648953323.234345,1648953323.239814,29.0,0.0,4236.410156,4964.102539,4283.589844,4213.846191,4327.179688,0.0,3.0,73.0,,,,0.0,0.0,4.0,0.0,0.0,0.0,0.0,,,,,,,,,,,,,,,,,,,,,,,,,,,,,,,,,,,,,,,,,,,,,,,,,,,,,,0.0,0.0,32.0,0.09855499999999999,1.0,0.0,,,,,,,,,,,,,,,,,,,,,,,,,
29441,1648953323.242159,1648953323.247628,30.0,0.0,4164.615234000001,5162.05127,4417.436035,4112.307617,4105.641113000001,0.0,3.0,73.0,,,,0.0,0.0,4.0,0.0,0.0,0.0,0.0,,,,,,,,15.0,0.0,0.389885,-0.131348,0.06762699999999999,0.9089360000000001,0.30518,-0.021485,-0.977554,-0.004524,-0.010167,-0.027483999999999998,,,,,,,,,,,,,,,,,,,,,,,,,,,,,,,,,,,,,,,,,,,,,,,,,,,,,,,,,,,,,,,,,
29442,1648953323.249974,1648953323.255543,31.0,0.0,4106.666504,5132.307617,4268.205078,4256.410156,4007.6923829999996,0.0,3.0,73.0,,,,0.0,0.0,4.0,0.0,0.0,0.0,0.0,,,,,,,,,,,,,,,,,,,,,,,,,,,,,,,,,,,,,,,,,,,,,,,,,,,,,,,,,,,,,,,,,,,,,,,,,,,,,,,,,,,,
29443,1648953323.2577882,1648953323.263358,32.0,0.0,4090.7692869999996,4933.846191,4150.256348,4382.05127,4213.333496,0.0,3.0,73.0,,,,0.0,0.0,4.0,0.0,0.0,0.0,0.0,,,,,,,,16.0,0.0,0.389885,-0.131348,0.06762699999999999,0.9089360000000001,0.298833,-0.007324,-0.9868309999999999,-0.004463,-0.010176000000000001,-0.030644,,,,,,,,,,,,,,,,,,,,,,,,,,,,,,,,,,,,,,,,,,,,,,,,,,,,,,,,,,,,,,,,,
29444,1648953323.2656028,1648953323.2712722,33.0,0.0,4246.153809,4962.563965,4274.358886999999,4359.487305,4553.333496,0.0,3.0,73.0,,,,0.0,0.0,4.0,0.0,0.0,0.0,0.0,,,,,,,,,,,,,,,,,,,,1.0,0.0,0.0,,,,,,,,,,,,,,,,,,,,,,,,,,,,,,,,0.0,0.0,32.0,0.099625,1.0,0.0,64.417397,218.795227,207.62883,929.418091,56.381638,57.509392000000005,134.062119,91.75386800000001,43.706818,116.381836,143.235245,89.029198,125.107368,71.155556,284.116943,31.509821000000002,116.876663,64.265701,691.293335,85.121521,67.090538,176.901947,243.886154,943.912476,111.269424
29445,1648953323.273417,1648953323.2790868,34.0,0.0,4460.512695,5030.256348,4506.153809,4387.692383,4668.717772999999,0.0,3.0,73.0,,,,0.0,0.0,4.0,0.0,0.0,0.0,0.0,,,,,,,,17.0,0.0,0.389885,-0.131348,0.06762699999999999,0.9089360000000001,0.29443800000000003,-0.027832,-0.9751129999999999,-0.004554,-0.010232999999999999,-0.033537,,,,,,,,,,,,,,,,,,,,,,,,,,,,,,,,,,,,,,,,,,,,,,,,,,,,,,,,,,,,,,,,,
29446,1648953323.281232,1648953323.287001,35.0,0.0,4607.179688,4914.358886999999,4590.769043,4428.717772999999,4327.692383,0.0,3.0,73.0,,,,0.0,0.0,4.0,0.0,0.0,0.0,0.0,,,,,,,,,,,,,,,,,,,,,,,,,,,,,,,,,,,,,,,,,,,,,,,,,,,,,,,,,,,,,,,,,,,,,,,,,,,,,,,,,,,,
29447,1648953323.289046,1648953323.294816,36.0,0.0,4613.846191,4935.384765999999,4450.769043,4372.307617,4035.897461,0.0,3.0,73.0,,,,0.0,0.0,4.0,0.0,0.0,0.0,0.0,,,,,,,,18.0,0.0,0.389885,-0.131348,0.06762699999999999,0.9089360000000001,0.29736799999999997,-0.016114,-0.989273,-0.004489,-0.010137,-0.029841000000000003,,,,,,,,,,,,,,,,,,,,,,,,,,,,,,,,,,,,,,,,,,,,,,,,,,,,,,,,,,,,,,,,,
29448,1648953323.296861,1648953323.302731,37.0,0.0,4296.922852000001,5067.692383,4196.410156,4140.0,4124.615234000001,0.0,3.0,73.0,,,,0.0,0.0,4.0,0.0,0.0,0.0,0.0,,,,,,,,,,,,,,,,,,,,,,,,,,,,,,,,,,,,,,,,,,,,,,,,,,,,,,0.0,0.0,32.0,0.099625,1.0,0.0,,,,,,,,,,,,,,,,,,,,,,,,,
29449,1648953323.304675,1648953323.310545,38.0,0.0,4002.0512700000004,5084.615234000001,4302.05127,4077.4357909999994,4388.205078,0.0,3.0,73.0,,,,0.0,0.0,4.0,0.0,0.0,0.0,0.0,,,,,,,,19.0,0.0,0.389885,-0.131348,0.06762699999999999,0.9089360000000001,0.29639099999999996,-0.023926,-0.9785309999999999,-0.004431,-0.010051000000000001,-0.032619,,,,,,,,,,,,,,,,,,,,,,,,,,,,,,,,,,,,,,,,,,,,,,,,,,,,,,,,,,,,,,,,,
29450,1648953323.31249,1648953323.31846,39.0,0.0,4106.153809,5073.846191,4549.230957,4323.589844,4508.717772999999,0.0,3.0,73.0,,,,0.0,0.0,4.0,0.0,0.0,0.0,0.0,,,,,,,,,,,,,,,,,,,,,,,,,,,,,,,,,,,,,,,,,,,,,,,,,,,,,,,,,,,,,,,,,,,,,,,,,,,,,,,,,,,,
29451,1648953323.320305,1648953323.326274,40.0,0.0,4431.794922,4998.461426,4508.205078,4538.974121,4493.846191,0.0,3.0,73.0,,,,0.0,0.0,4.0,0.0,0.0,0.0,0.0,,,,,,,,20.0,0.0,0.389885,-0.131348,0.06762699999999999,0.9089360000000001,0.300298,-0.018555000000000002,-0.9751129999999999,-0.004378,-0.010023,-0.03507,,,,,,,,,,,,,,,,,,,,,,,,,,,,,,,,,,,,,,,,,,,,,,,,,,,,,,,,,,,,,,,,,
29452,1648953323.328119,1648953323.3339891,41.0,0.0,4504.102539,4863.589844,4325.641113000001,4498.461426,4314.871582,0.0,3.0,73.0,,,,0.0,0.0,4.0,0.0,0.0,0.0,0.0,,,,,,,,,,,,,,,,,,,,,,,,,,,,,,,,,,,,,,,,,,,,,,,,,,,,,,0.0,0.0,32.0,0.099625,1.0,0.0,,,,,,,,,,,,,,,,,,,,,,,,,
29453,1648953323.335934,1648953323.3418038,42.0,0.0,4326.666504,4874.358886999999,4246.153809,4330.769043,4121.538574,0.0,3.0,73.0,,,,0.0,0.0,4.0,0.0,0.0,0.0,0.0,,,,,,,,21.0,0.0,0.389885,-0.131348,0.06762699999999999,0.9089360000000001,0.31104,-0.023438,-0.9712059999999999,-0.004379999999999999,-0.010095,-0.031172000000000002,,,,,,,,,,,,,,,,,,,,,,,,,,,,,,,,,,,,,,,,,,,,,,,,,,,,,,,,,,,,,,,,,
29454,1648953323.343748,1648953323.349519,43.0,0.0,4208.717772999999,4962.563965,4417.436035,4127.179688,4062.5642090000006,0.0,3.0,73.0,,,,0.0,0.0,4.0,0.0,0.0,0.0,0.0,,,,,,,,,,,,,,,,,,,,,,,,,,,,,,,,,,,,,,,,,,,,,,,,,,,,,,,,,,,,,,,,,,,,,,,,,,,,,,,,,,,,
29455,1648953323.351563,1648953323.357433,44.0,0.0,4289.230957,5008.205078,4608.205078,4033.3332520000004,4054.8718259999996,0.0,3.0,73.0,,,,0.0,0.0,4.0,0.0,0.0,0.0,0.0,,,,,,,,22.0,0.0,0.389885,-0.131348,0.06762699999999999,0.9089360000000001,0.295903,-0.025879000000000003,-0.9790190000000001,-0.00443,-0.010111,-0.033915,,,,,,,,,,,,,,,,,,,,,,,,,,,,,,,,,,,,,,,,,,,,,,,,,,,,,,,,,,,,,,,,,
29456,1648953323.359377,1648953323.365248,45.0,0.0,4380.0,5017.94873,4534.358886999999,4299.487305,4219.487305,0.0,3.0,73.0,,,,0.0,0.0,4.0,0.0,0.0,0.0,0.0,,,,,,,,,,,,,,,,,,,,,,,,,,,,,,,,,,,,,,,,,,,,,,,,,,,,,,0.0,0.0,32.0,0.099625,1.0,0.0,,,,,,,,,,,,,,,,,,,,,,,,,
29457,1648953323.367192,1648953323.373162,46.0,0.0,4362.05127,4961.538574,4270.256348,4662.563965,4481.025879,0.0,3.0,73.0,,,,0.0,0.0,4.0,0.0,0.0,0.0,0.0,,,,,,,,23.0,0.0,0.389885,-0.131348,0.06762699999999999,0.9089360000000001,0.295415,-0.025879000000000003,-0.9702299999999999,-0.0043289999999999995,-0.010027,-0.036578,,,,,,,,,,,,,,,,,,,,,,,,,,,,,,,,,,,,,,,,,,,,,,,,,,,,,,,,,,,,,,,,,
29458,1648953323.375007,1648953323.380977,47.0,0.0,4335.897461,4891.794922,4182.563965,4634.871582,4547.179688,0.0,3.0,73.0,,,,0.0,0.0,4.0,0.0,0.0,0.0,0.0,,,,,,,,,,,,,,,,,,,,,,,,,,,,,,,,,,,,,,,,,,,,,,,,,,,,,,,,,,,,,,,,,,,,,,,,,,,,,,,,,,,,
29459,1648953323.382821,1648953323.388892,48.0,0.0,4327.179688,5016.922852000001,4385.128418,4268.717772999999,4425.128418,0.0,3.0,73.0,,,,0.0,0.0,4.0,0.0,0.0,0.0,0.0,,,,,,,,24.0,0.0,0.389885,-0.131348,0.06762699999999999,0.9089360000000001,0.29639099999999996,-0.017578,-0.9897610000000001,-0.0044329999999999994,-0.010099,-0.038827999999999994,,,,,,,,,,,,,,,,,,,,,,,,,,,,,,,,,,,,,,,,,,,,,,,,,,,,,,,,,,,,,,,,,
29460,1648953323.390636,1648953323.396706,49.0,0.0,4338.974121,5189.743652,4528.717772999999,4114.358886999999,4314.358886999999,0.0,3.0,73.0,,,,0.0,0.0,4.0,0.0,0.0,0.0,0.0,,,,,,,,,,,,,,,,,,,,1.0,0.0,0.0,,,,,,,,,,,,,,,,,,,,,,,,,,,,,,,,0.0,0.0,32.0,0.09861900000000001,1.0,0.0,71.769646,199.707947,241.860123,865.226685,50.096863,58.814453,135.312759,90.37958499999999,38.96133,120.908798,171.590256,85.436058,135.341873,62.460403,287.469147,40.837379,116.158119,61.59484499999999,701.563171,84.76325200000001,64.371071,158.852432,239.019135,961.6713869999999,108.009491
29461,1648953323.39845,1648953323.404521,50.0,0.0,4142.05127,5038.974121,4374.871582,4192.307617,4148.717772999999,0.0,3.0,73.0,,,,0.0,0.0,4.0,0.0,0.0,0.0,0.0,,,,,,,,25.0,0.0,0.389885,-0.131348,0.06762699999999999,0.9089360000000001,0.29102,-0.028321,-0.9799950000000001,-0.004379999999999999,-0.010065000000000001,-0.040756,,,,,,,,,,,,,,,,,,,,,,,,,,,,,,,,,,,,,,,,,,,,,,,,,,,,,,,,,,,,,,,,,
29462,1648953323.406265,1648953323.412236,51.0,0.0,4101.025879,4862.05127,4243.589844,4289.230957,4206.666504,0.0,3.0,73.0,,,,0.0,0.0,4.0,0.0,0.0,0.0,0.0,,,,,,,,,,,,,,,,,,,,,,,,,,,,,,,,,,,,,,,,,,,,,,,,,,,,,,,,,,,,,,,,,,,,,,,,,,,,,,,,,,,,
29463,1648953323.414079,1648953323.42015,52.0,0.0,4361.025879,4894.358886999999,4287.179688,4356.410156,4597.436035,0.0,3.0,73.0,,,,0.0,0.0,4.0,0.0,0.0,0.0,0.0,,,,,,,,26.0,0.0,0.389885,-0.131348,0.06762699999999999,0.9089360000000001,0.300786,-0.0043950000000000005,-0.977554,-0.004187,-0.009937999999999999,-0.042589,,,,,,,,,,,,,,,,,,,,,,,,,,,,,,,,,,,,,,,,,,,,,,,,,,,,,,,,,,,,,,,,,
29464,1648953323.4218938,1648953323.427965,53.0,0.0,4557.436035,5017.436035,4449.743652,4451.282227000001,4770.769043,0.0,3.0,73.0,,,,0.0,0.0,4.0,0.0,0.0,0.0,0.0,,,,,,,,,,,,,,,,,,,,,,,,,,,,,,,,,,,,,,,,,,,,,,,,,,,,,,0.0,0.0,32.0,0.09861900000000001,1.0,0.0,,,,,,,,,,,,,,,,,,,,,,,,,
29465,1648953323.429708,1648953323.4357789,54.0,0.0,4502.05127,4975.384765999999,4374.358886999999,4345.641113000001,4389.230957,0.0,3.0,73.0,,,,0.0,0.0,4.0,0.0,0.0,0.0,0.0,,,,,,,,27.0,0.0,0.389885,-0.131348,0.06762699999999999,0.9089360000000001,0.303716,-0.019043,-0.988296,-0.004207,-0.009969,-0.037988,,,,,,,,,,,,,,,,,,,,,,,,,,,,,,,,,,,,,,,,,,,,,,,,,,,,,,,,,,,,,,,,,
29466,1648953323.4375231,1648953323.4434938,55.0,0.0,4385.128418,4696.410156,4188.717772999999,4157.436035,4057.9487299999996,0.0,3.0,73.0,,,,0.0,0.0,4.0,0.0,0.0,0.0,0.0,,,,,,,,,,,,,,,,,,,,,,,,,,,,,,,,,,,,,,,,,,,,,,,,,,,,,,,,,,,,,,,,,,,,,,,,,,,,,,,,,,,,
29467,1648953323.4453368,1648953323.451309,56.0,0.0,4294.358886999999,4691.282227000001,4256.410156,4045.641113,4109.743652,0.0,3.0,73.0,,,,0.0,0.0,4.0,0.0,0.0,0.0,0.0,,,,,,,,28.0,0.0,0.389885,-0.131348,0.06762699999999999,0.9089360000000001,0.297856,-0.02002,-0.973648,-0.004275,-0.0099,-0.040146,,,,,,,,,,,,,,,,,,,,,,,,,,,,,,,,,,,,,,,,,,,,,,,,,,,,,,,,,,,,,,,,,
29468,1648953323.453152,1648953323.459024,57.0,0.0,4204.615234000001,4954.358886999999,4568.205078,4077.4357909999994,4349.230957,0.0,3.0,73.0,,,,0.0,0.0,4.0,0.0,0.0,0.0,0.0,,,,,,,,,,,,,,,,,,,,,,,,,,,,,,,,,,,,,,,,,,,,,,,,,,,,,,0.0,0.0,32.0,0.09861900000000001,1.0,0.0,,,,,,,,,,,,,,,,,,,,,,,,,
29469,1648953323.460966,1648953323.466938,58.0,0.0,4174.871582,5024.102539,4650.769043,4298.461426,4502.563965,0.0,3.0,73.0,,,,0.0,0.0,4.0,0.0,0.0,0.0,0.0,,,,,,,,29.0,0.0,0.389885,-0.131348,0.06762699999999999,0.9089360000000001,0.302739,-0.025391,-0.989273,-0.004287,-0.009887,-0.041942,,,,,,,,,,,,,,,,,,,,,,,,,,,,,,,,,,,,,,,,,,,,,,,,,,,,,,,,,,,,,,,,,
29470,1648953323.468781,1648953323.474753,59.0,0.0,4358.461426,4913.846191,4412.820313,4566.153809,4517.436035,0.0,3.0,73.0,,,,0.0,0.0,4.0,0.0,0.0,0.0,0.0,,,,,,,,,,,,,,,,,,,,,,,,,,,,,,,,,,,,,,,,,,,,,,,,,,,,,,,,,,,,,,,,,,,,,,,,,,,,,,,,,,,,
29471,1648953323.476596,1648953323.482667,60.0,0.0,4509.230957,4891.282227000001,4280.0,4568.717772999999,4433.333496,0.0,3.0,73.0,,,,0.0,0.0,4.0,0.0,0.0,0.0,0.0,,,,,,,,30.0,0.0,0.389885,-0.131348,0.06762699999999999,0.9089360000000001,0.293462,-0.028321,-0.975601,-0.004249,-0.009728,-0.043608,,,,,,,,,,,,,,,,,,,,,,,,,,,,,,,,,,,,,,,,,,,,,,,,,,,,,,,,,,,,,,,,,
29472,1648953323.48441,1648953323.490582,61.0,0.0,4343.589844,4954.358886999999,4229.743652,4265.128418,4254.871582,0.0,3.0,73.0,,,,0.0,0.0,4.0,0.0,0.0,0.0,0.0,,,,,,,,,,,,,,,,,,,,,,,,,,,,,,,,,,,,,,,,,,,,,,,,,,,,,,0.0,0.0,32.0,0.09861900000000001,1.0,0.0,,,,,,,,,,,,,,,,,,,,,,,,,
29473,1648953323.492225,1648953323.4983962,62.0,0.0,4169.743652,5014.358886999999,4404.615234000001,4090.7692869999996,4092.3076170000004,0.0,3.0,73.0,,,,0.0,0.0,4.0,0.0,0.0,0.0,0.0,,,,,,,,31.0,0.0,0.389885,-0.131348,0.06762699999999999,0.9089360000000001,0.303716,-0.016114,-0.9834129999999999,-0.004215,-0.009781,-0.038905,,,,,,,,,,,,,,,,,,,,,,,,,,,,,,,,,,,,,,,,,,,,,,,,,,,,,,,,,,,,,,,,,
29474,1648953323.500039,1648953323.506211,63.0,0.0,4249.743652,5066.666504,4648.205078,4134.358886999999,4018.461426,0.0,3.0,73.0,,,,0.0,0.0,4.0,0.0,0.0,0.0,0.0,,,,,,,,,,,,,,,,,,,,,,,,,,,,,,,,,,,,,,,,,,,,,,,,,,,,,,,,,,,,,,,,,,,,,,,,,,,,,,,,,,,,
29475,1648953323.507854,1648953323.513926,64.0,0.0,4421.025879,5006.666504,4577.436035,4341.538574,4171.282227000001,450.0,3.0,73.0,,,,0.0,0.0,4.0,0.0,0.0,0.0,0.0,,,,,,,,32.0,0.0,0.389885,-0.131348,0.06762699999999999,0.9089360000000001,0.302739,-0.018555000000000002,-0.992691,-0.004184,-0.009877,-0.040825,,,,,,,,,,,,,,,,,,,,,,,,,,,,,,,,,,,,,,,,,,,,,,,,,,,,,,,,,,,,,,,,,
29476,1648953323.515668,1648953323.52174,65.0,0.0,4465.641113000001,4909.230957,4326.666504,4634.358886999999,4445.641113000001,450.0,3.0,73.0,,,,0.0,0.0,4.0,0.0,0.0,0.0,0.0,1.0,0.0,0.0,0.0,0.0,0.0,0.0,,,,,,,,,,,,,1.0,0.0,0.0,,,,,,,,,,,,,,,,,,,,,,,,,,,,,,,,0.0,0.0,32.0,0.098445,1.0,0.0,83.260216,188.816101,294.708862,793.310425,44.243484,58.735939,124.453323,89.856636,34.665569,125.041969,209.205063,86.528114,147.161591,54.52474599999999,287.01806600000003,52.327187,111.851173,58.898318999999994,708.103149,88.397041,59.983081999999996,130.034607,228.78630099999998,978.51825,104.177589
29477,1648953323.523483,1648953323.5294552,66.0,0.0,4414.358886999999,4880.512695,4176.922852000001,4681.025879,4569.230957,204.0,3.0,73.0,,,,0.0,2.0,4.0,0.0,0.0,0.0,0.0,,,,,,,,33.0,0.0,0.389885,-0.131348,0.06762699999999999,0.9089360000000001,0.311528,-0.019043,-0.980972,-0.004156,-0.009963,-0.0427,,,,,,,,,,,,,,,,,,,,,,,,,,,,,,,,,,,,,,,,,,,,,,,,,,,,,,,,,,,,,,,,,
29478,1648953323.531297,1648953323.5372698,67.0,0.0,4291.794922,4992.307617,4304.102539,4340.0,4407.179688,450.0,3.0,73.0,,,,0.0,2.0,4.0,0.0,0.0,0.0,0.0,,,,,,,,,,,,,,,,,,,,,,,,,,,,,,,,,,,,,,,,,,,,,,,,,,,,,,,,,,,,,,,,,,,,,,,,,,,,,,,,,,,,
29479,1648953323.5391119,1648953323.544985,68.0,0.0,4263.589844,5149.743652,4524.615234000001,4144.102539,4315.897461,101.0,3.0,73.0,,,,0.0,2.0,1.0,0.0,0.0,0.0,0.0,,,,,,,,34.0,0.0,0.389885,-0.131348,0.06762699999999999,0.9089360000000001,0.298344,-0.020508000000000002,-0.9668120000000001,-0.004229,-0.010041,-0.038088,,,,,,,,,,,,,,,,,,,,,,,,,,,,,,,,,,,,,,,,,,,,,,,,,,,,,,,,,,,,,,,,,
29480,1648953323.546927,1648953323.552799,69.0,0.0,4163.077147999999,5047.692383,4407.692383,4139.487305,4302.563965,450.0,3.0,73.0,,,,0.0,2.0,1.0,0.0,0.0,0.0,0.0,,,,,,,,,,,,,,,,,,,,,,,,,,,,,,,,,,,,,,,,,,,,,,,,,,,,,,0.0,0.0,32.0,0.098445,1.0,0.0,,,,,,,,,,,,,,,,,,,,,,,,,
29481,1648953323.554741,1648953323.560514,70.0,0.0,4045.641113,4893.846191,4263.589844,4190.256348,4311.282227000001,132.0,3.0,73.0,,,,0.0,2.0,1.0,1.0,0.0,0.0,8.333333,,,,,,,,35.0,0.0,0.389885,-0.131348,0.06762699999999999,0.9089360000000001,0.300786,-0.026856,-0.9922030000000001,-0.0042450000000000005,-0.010111,-0.040139,,,,,,,,,,,,,,,,,,,,,,,,,,,,,,,,,,,,,,,,,,,,,,,,,,,,,,,,,,,,,,,,,
29482,1648953323.562556,1648953323.5683289,71.0,0.0,4133.846191,4927.179688,4378.974121,4335.384765999999,4508.205078,450.0,3.0,73.0,,,,0.0,2.0,1.0,1.0,0.0,0.0,8.333333,,,,,,,,,,,,,,,,,,,,,,,,,,,,,,,,,,,,,,,,,,,,,,,,,,,,,,,,,,,,,,,,,,,,,,,,,,,,,,,,,,,,
29483,1648953323.57037,1648953323.576043,72.0,0.0,4443.077147999999,5017.94873,4609.743652,4481.025879,4691.794922,450.0,3.0,73.0,,,,0.0,2.0,1.0,1.0,0.0,0.0,8.333333,,,,,,,,36.0,0.0,0.389885,-0.131348,0.06762699999999999,0.9089360000000001,0.29639099999999996,-0.019532,-0.969253,-0.004358,-0.010028,-0.042033,,,,,,,,,,,,,,,,,,,,,,,,,,,,,,,,,,,,,,,,,,,,,,,,,,,,,,,,,,,,,,,,,
29484,1648953323.5781848,1648953323.583858,73.0,0.0,4544.102539,4995.897461,4574.871582,4448.205078,4410.256348,0.0,3.0,73.0,,,,0.0,2.0,1.0,1.0,0.0,0.0,8.333333,,,,,,,,,,,,,,,,,,,,,,,,,,,,,,,,,,,,,,,,,,,,,,,,,,,,,,0.0,0.0,32.0,0.098445,1.0,0.0,,,,,,,,,,,,,,,,,,,,,,,,,
29485,1648953323.585999,1648953323.591573,74.0,0.0,4311.282227000001,4807.692383,4316.410156,4356.922852000001,4062.0512700000004,450.0,3.0,73.0,,,,0.0,2.0,1.0,1.0,0.0,0.0,8.333333,,,,,,,,37.0,0.0,0.389925,-0.131104,0.067871,0.9089360000000001,0.29639099999999996,-0.024413999999999998,-0.991226,-0.0043619999999999996,-0.010001999999999999,-0.043689,,,,,,,,,,,,,,,,,,,,,,,,,,,,,,,,,,,,,,,,,,,,,,,,,,,,,,,,,,,,,,,,,
29486,1648953323.5938141,1648953323.599387,75.0,0.0,4186.666504,4753.846191,4246.153809,4183.077147999999,4067.179443,0.0,3.0,73.0,,,,0.0,2.0,1.0,1.0,0.0,0.0,8.333333,,,,,,,,,,,,,,,,,,,,,,,,,,,,,,,,,,,,,,,,,,,,,,,,,,,,,,,,,,,,,,,,,,,,,,,,,,,,,,,,,,,,
29487,1648953323.6016278,1648953323.607102,76.0,0.0,4255.897461,4930.256348,4532.820313,4043.076904,4196.922852000001,450.0,3.0,73.0,,,,0.0,2.0,1.0,1.0,0.0,0.0,8.333333,,,,,,,,38.0,0.0,0.389843,-0.131348,0.067871,0.9089360000000001,0.303227,-0.015625,-0.976577,-0.004414,-0.009978,-0.045229000000000005,,,,,,,,,,,,,,,,,,,,,,,,,,,,,,,,,,,,,,,,,,,,,,,,,,,,,,,,,,,,,,,,,
29488,1648953323.609443,1648953323.615017,77.0,0.0,4292.307617,5010.769043,4678.974121,4292.307617,4345.641113000001,450.0,3.0,73.0,,,,0.0,2.0,1.0,1.0,0.0,0.0,8.333333,,,,,,,,,,,,,,,,,,,,,,,,,,,,,,,,,,,,,,,,,,,,,,,,,,,,,,0.0,0.0,32.0,0.098445,1.0,0.0,,,,,,,,,,,,,,,,,,,,,,,,,
29489,1648953323.617257,1648953323.622831,78.0,0.0,4380.512695,4942.05127,4331.794922,4636.922852000001,4500.0,450.0,3.0,73.0,,,,0.0,2.0,1.0,1.0,0.0,0.0,8.333333,,,,,,,,39.0,0.0,0.389885,-0.131348,0.06762699999999999,0.9089360000000001,0.29639099999999996,-0.019532,-0.969253,-0.004314,-0.009908,-0.040462,,,,,,,,,,,,,,,,,,,,,,,,,,,,,,,,,,,,,,,,,,,,,,,,,,,,,,,,,,,,,,,,,
29490,1648953323.625072,1648953323.630646,79.0,0.0,4469.743652,4866.153809,4172.820313,4616.922852000001,4531.794922,0.0,3.0,73.0,,,,0.0,2.0,1.0,1.0,0.0,0.0,8.333333,,,,,,,,,,,,,,,,,,,,,,,,,,,,,,,,,,,,,,,,,,,,,,,,,,,,,,,,,,,,,,,,,,,,,,,,,,,,,,,,,,,,
29491,1648953323.632887,1648953323.638361,80.0,0.0,4325.641113000001,4905.128418,4284.615234000001,4287.179688,4338.974121,450.0,3.0,73.0,,,,0.0,2.0,1.0,1.0,0.0,0.0,8.333333,,,,,,,,40.0,0.0,0.389843,-0.131348,0.067871,0.9089360000000001,0.303227,-0.015625,-0.976577,-0.004371,-0.009894,-0.042324,,,,,,,,,,,,,,,,,,,,,,,,,,,,,,,,,,,,,,,,,,,,,,,,,,,,,,,,,,,,,,,,,
29492,1648953323.640701,1648953323.646275,81.0,0.0,4201.025879,5109.230957,4384.102539,4149.230957,4158.461426,450.0,3.0,73.0,,,,0.0,2.0,1.0,1.0,0.0,0.0,8.333333,,,,,,,,,,,,,,,,,,,,1.0,0.0,0.0,,,,,,,,,,,,,,,,,,,,,,,,,,,,,,,,0.0,0.0,32.0,0.08604500000000001,1.0,0.0,94.473381,181.268585,354.444702,727.4813839999999,40.750206,57.953433999999994,102.962845,88.569992,31.59487,127.71826899999999,249.475754,87.627228,158.502533,47.967087,284.342407,63.02014499999999,104.428467,56.567569999999996,710.965393,94.518692,54.965965000000004,95.544212,217.30790699999997,992.243042,100.108582
29493,1648953323.648516,1648953323.65409,82.0,0.0,4167.179688,5203.077147999999,4430.256348,4217.436035,4091.281982,450.0,3.0,73.0,,,,0.0,2.0,1.0,1.0,0.0,0.0,8.333333,,,,,,,,41.0,0.0,0.389843,-0.131348,0.067871,0.9089360000000001,0.298833,-0.016114,-0.9824370000000001,-0.004325,-0.00993,-0.044,,,,,,,,,,,,,,,,,,,,,,,,,,,,,,,,,,,,,,,,,,,,,,,,,,,,,,,,,,,,,,,,,
29494,1648953323.65633,1648953323.6620052,83.0,0.0,4268.717772999999,5037.436035,4390.256348,4325.128418,4157.94873,0.0,3.0,73.0,,,,0.0,2.0,1.0,1.0,0.0,0.0,8.333333,,,,,,,,,,,,,,,,,,,,,,,,,,,,,,,,,,,,,,,,,,,,,,,,,,,,,,,,,,,,,,,,,,,,,,,,,,,,,,,,,,,,
29495,1648953323.664145,1648953323.6698189,84.0,0.0,4454.871582,4915.384765999999,4268.717772999999,4544.102539,4378.974121,450.0,3.0,73.0,,,,0.0,2.0,1.0,1.0,0.0,0.0,8.333333,,,,,,,,42.0,0.0,0.389843,-0.131348,0.067871,0.9089360000000001,0.30225100000000005,-0.019532,-0.968277,-0.004332,-0.009914,-0.045459,,,,,,,,,,,,,,,,,,,,,,,,,,,,,,,,,,,,,,,,,,,,,,,,,,,,,,,,,,,,,,,,,
29496,1648953323.671959,1648953323.677734,85.0,0.0,4516.410156,4947.692383,4149.230957,4683.589844,4637.94873,450.0,3.0,73.0,,,,0.0,2.0,1.0,1.0,0.0,0.0,8.333333,,,,,,,,,,,,,,,,,,,,,,,,,,,,,,,,,,,,,,,,,,,,,,,,,,,,,,0.0,0.0,32.0,0.08604500000000001,1.0,0.0,,,,,,,,,,,,,,,,,,,,,,,,,
29497,1648953323.679774,1648953323.685548,86.0,0.0,4368.717772999999,5013.846191,4266.153809,4397.436035,4394.871582,450.0,3.0,73.0,,,,0.0,2.0,1.0,1.0,0.0,0.0,8.333333,,,,,,,,43.0,0.0,0.389843,-0.131348,0.067871,0.9089360000000001,0.289555,-0.022461000000000002,-0.98439,-0.004190999999999999,-0.010045,-0.046724,,,,,,,,,,,,,,,,,,,,,,,,,,,,,,,,,,,,,,,,,,,,,,,,,,,,,,,,,,,,,,,,,
29498,1648953323.687588,1648953323.693263,87.0,0.0,4280.512695,5138.461426,4591.282227000001,4112.820313,4059.487061,0.0,3.0,73.0,,,,0.0,2.0,1.0,1.0,0.0,0.0,8.333333,,,,,,,,,,,,,,,,,,,,,,,,,,,,,,,,,,,,,,,,,,,,,,,,,,,,,,,,,,,,,,,,,,,,,,,,,,,,,,,,,,,,
29499,1648953323.6954029,1648953323.701078,88.0,0.0,4141.025879,5096.922852000001,4484.615234000001,4135.897461,4253.846191,450.0,3.0,73.0,,,,0.0,2.0,1.0,1.0,0.0,0.0,8.333333,,,,,,,,44.0,0.0,0.389843,-0.131348,0.067871,0.9089360000000001,0.295415,-0.026856,-0.977066,-0.004163,-0.009968000000000001,-0.041612,,,,,,,,,,,,,,,,,,,,,,,,,,,,,,,,,,,,,,,,,,,,,,,,,,,,,,,,,,,,,,,,,
29500,1648953323.703217,1648953323.708792,89.0,0.0,4049.743652,4935.897461,4178.461426,4286.666504,4474.358886999999,450.0,3.0,73.0,,,,0.0,2.0,1.0,1.0,0.0,0.0,8.333333,,,,,,,,,,,,,,,,,,,,,,,,,,,,,,,,,,,,,,,,,,,,,,,,,,,,,,0.0,0.0,32.0,0.08604500000000001,1.0,0.0,,,,,,,,,,,,,,,,,,,,,,,,,
29501,1648953323.711032,1648953323.716607,90.0,0.0,4267.179688,4928.205078,4252.307617,4376.410156,4501.538574,450.0,3.0,73.0,,,,0.0,2.0,1.0,1.0,0.0,0.0,8.333333,,,,,,,,45.0,0.0,0.390454,-0.131348,0.06762699999999999,0.908691,0.29688000000000003,-0.018067,-0.981949,-0.004137,-0.009899,-0.03706,,,,,,,,,,,,,,,,,,,,,,,,,,,,,,,,,,,,,,,,,,,,,,,,,,,,,,,,,,,,,,,,,
29502,1648953323.718846,1648953323.724322,91.0,0.0,4558.974121,4992.307617,4509.743652,4400.0,4690.256348,0.0,3.0,73.0,,,,0.0,2.0,1.0,1.0,0.0,0.0,8.333333,,,,,,,,,,,,,,,,,,,,,,,,,,,,,,,,,,,,,,,,,,,,,,,,,,,,,,,,,,,,,,,,,,,,,,,,,,,,,,,,,,,,
29503,1648953323.726661,1648953323.732137,92.0,0.0,4541.538574,4996.410156,4458.974121,4351.794922,4604.615234000001,450.0,3.0,73.0,,,,0.0,2.0,1.0,1.0,0.0,0.0,8.333333,,,,,,,,46.0,0.0,0.390454,-0.131348,0.06762699999999999,0.908691,0.29688000000000003,-0.020996,-0.9746239999999999,-0.004163,-0.009935,-0.033061,,,,,,,,,,,,,,,,,,,,,,,,,,,,,,,,,,,,,,,,,,,,,,,,,,,,,,,,,,,,,,,,,
29504,1648953323.734476,1648953323.739851,93.0,0.0,4304.615234000001,4834.871582,4225.128418,4286.666504,4113.846191,450.0,3.0,73.0,,,,0.0,2.0,1.0,1.0,0.0,0.0,8.333333,,,,,,,,,,,,,,,,,,,,,,,,,,,,,,,,,,,,,,,,,,,,,,,,,,,,,,0.0,0.0,32.0,0.08604500000000001,1.0,0.0,,,,,,,,,,,,,,,,,,,,,,,,,
29505,1648953323.74229,1648953323.7476661,94.0,0.0,4211.282227000001,4737.436035,4195.897461,4234.358886999999,3990.256348,450.0,3.0,73.0,,,,0.0,2.0,1.0,1.0,0.0,0.0,8.333333,,,,,,,,47.0,0.0,0.390454,-0.131348,0.06762699999999999,0.908691,0.301762,-0.013672,-0.981949,-0.0040880000000000005,-0.010015999999999999,-0.035712,,,,,,,,,,,,,,,,,,,,,,,,,,,,,,,,,,,,,,,,,,,,,,,,,,,,,,,,,,,,,,,,,
29506,1648953323.7501051,1648953323.755381,95.0,0.0,4249.743652,4920.0,4358.974121,4143.589844,4218.461426,0.0,3.0,73.0,,,,0.0,2.0,1.0,1.0,0.0,0.0,8.333333,,,,,,,,,,,,,,,,,,,,,,,,,,,,,,,,,,,,,,,,,,,,,,,,,,,,,,,,,,,,,,,,,,,,,,,,,,,,,,,,,,,,
29507,1648953323.7579188,1648953323.763195,96.0,0.0,4342.05127,5007.692383,4585.641113000001,4306.666504,4372.820313,450.0,3.0,73.0,,,,0.0,2.0,1.0,1.0,0.0,0.0,8.333333,,,,,,,,48.0,0.0,0.390372,-0.13159200000000001,0.06762699999999999,0.908691,0.291508,-0.025391,-0.9716950000000001,-0.004021,-0.009991,-0.031799,,,,,,,,,,,,,,,,,,,,,,,,,,,,,,,,,,,,,,,,,,,,,,,,,,,,,,,,,,,,,,,,,
29508,1648953323.765734,1648953323.77091,97.0,0.0,4464.615234000001,4888.205078,4471.794922,4643.589844,4470.769043,450.0,3.0,73.0,,,,0.0,2.0,1.0,1.0,0.0,0.0,8.333333,,,,,,,,,,,,,,,,,,,,1.0,0.0,0.0,,,,,,,,,,,,,,,,,,,,,,,,,,,,,,,,0.0,0.0,32.0,0.08216699999999999,1.0,0.0,101.126572,172.657745,406.393829,676.349426,40.747974,57.18206,77.180916,85.91999100000001,30.376703000000003,128.528244,282.422638,85.238365,166.208878,44.415314,281.937408,70.216095,94.26690699999999,54.287735,716.020142,101.336235,51.818676,61.983585,209.275177,1002.079468,96.153625
29509,1648953323.7735481,1648953323.778825,98.0,0.0,4482.563965,4806.153809,4149.743652,4713.846191,4538.974121,450.0,3.0,73.0,,,,0.0,2.0,1.0,1.0,0.0,0.0,8.333333,,,,,,,,49.0,0.0,0.390372,-0.13159200000000001,0.06762699999999999,0.908691,0.29736799999999997,-0.001953,-0.9799950000000001,-0.003961,-0.009918999999999999,-0.028326,,,,,,,,,,,,,,,,,,,,,,,,,,,,,,,,,,,,,,,,,,,,,,,,,,,,,,,,,,,,,,,,,
29510,1648953323.781363,1648953323.786639,99.0,0.0,4250.256348,4858.974121,4181.538574,4332.307617,4421.538574,0.0,3.0,73.0,,,,0.0,2.0,1.0,1.0,0.0,0.0,8.333333,,,,,,,,,,,,,,,,,,,,,,,,,,,,,,,,,,,,,,,,,,,,,,,,,,,,,,,,,,,,,,,,,,,,,,,,,,,,,,,,,,,,
29511,1648953323.789178,1648953323.794554,100.0,0.0,4136.922852000001,4988.717772999999,4524.102539,4069.743652,4242.05127,450.0,3.0,73.0,,,,0.0,2.0,1.0,1.0,0.0,0.0,8.333333,,,,,,,,50.0,0.0,0.390372,-0.13159200000000001,0.06762699999999999,0.908691,0.285161,-0.024903,-0.987808,-0.003858,-0.009953,-0.031353,,,,,,,,,,,,,,,,,,,,,,,,,,,,,,,,,,,,,,,,,,,,,,,,,,,,,,,,,,,,,,,,,
29512,1648953323.796992,1648953323.802368,101.0,0.0,4134.871582,5069.230957,4467.692383,4166.153809,4073.8461909999996,450.0,3.0,73.0,,,,0.0,2.0,1.0,1.0,0.0,0.0,8.333333,,,,,,,,,,,,,,,,,,,,,,,,,,,,,,,,,,,,,,,,,,,,,,,,,,,,,,0.0,0.0,32.0,0.08216699999999999,1.0,0.0,,,,,,,,,,,,,,,,,,,,,,,,,
29513,1648953323.804807,1648953323.810283,102.0,0.0,4079.487061,4944.102539,4163.589844,4335.897461,4179.487305,450.0,3.0,73.0,,,,0.0,2.0,1.0,1.0,0.0,0.0,8.333333,,,,,,,,51.0,0.0,0.390372,-0.13159200000000001,0.06762699999999999,0.908691,0.29639099999999996,-0.019043,-0.983902,-0.003912,-0.009934,-0.034175,,,,,,,,,,,,,,,,,,,,,,,,,,,,,,,,,,,,,,,,,,,,,,,,,,,,,,,,,,,,,,,,,
29514,1648953323.812621,1648953323.818098,103.0,0.0,4138.461426,4854.871582,4231.282227000001,4380.512695,4511.282227000001,0.0,3.0,73.0,,,,0.0,2.0,1.0,1.0,0.0,0.0,8.333333,,,,,,,,,,,,,,,,,,,,,,,,,,,,,,,,,,,,,,,,,,,,,,,,,,,,,,,,,,,,,,,,,,,,,,,,,,,,,,,,,,,,
29515,1648953323.820436,1648953323.825912,104.0,0.0,4410.256348,5016.410156,4569.743652,4431.794922,4693.846191,450.0,3.0,73.0,,,,0.0,2.0,1.0,1.0,0.0,0.0,8.333333,,,,,,,,52.0,0.0,0.390372,-0.13159200000000001,0.06762699999999999,0.908691,0.316899,-0.02295,-0.976577,-0.00396,-0.009966,-0.036519,,,,,,,,,,,,,,,,,,,,,,,,,,,,,,,,,,,,,,,,,,,,,,,,,,,,,,,,,,,,,,,,,
29516,1648953323.82825,1648953323.833627,105.0,0.0,4560.512695,5008.717772999999,4589.230957,4473.333496,4433.846191,450.0,3.0,73.0,,,,0.0,2.0,1.0,1.0,0.0,0.0,8.333333,,,,,,,,,,,,,,,,,,,,,,,,,,,,,,,,,,,,,,,,,,,,,,,,,,,,,,0.0,0.0,32.0,0.08216699999999999,1.0,0.0,,,,,,,,,,,,,,,,,,,,,,,,,
29517,1648953323.836065,1648953323.841542,106.0,0.0,4437.436035,4748.717772999999,4322.563965,4388.205078,4081.538574,450.0,3.0,73.0,,,,0.0,2.0,1.0,1.0,0.0,0.0,8.333333,,,,,,,,53.0,0.0,0.390372,-0.13159200000000001,0.06762699999999999,0.908691,0.299321,-0.024413999999999998,-0.975601,-0.0040030000000000005,-0.010043999999999999,-0.038678,,,,,,,,,,,,,,,,,,,,,,,,,,,,,,,,,,,,,,,,,,,,,,,,,,,,,,,,,,,,,,,,,
29518,1648953323.843879,1648953323.849356,107.0,0.0,4272.820313,4753.333496,4233.846191,4160.0,4066.1538090000004,0.0,3.0,73.0,,,,0.0,2.0,1.0,1.0,0.0,0.0,8.333333,,,,,,,,,,,,,,,,,,,,,,,,,,,,,,,,,,,,,,,,,,,,,,,,,,,,,,,,,,,,,,,,,,,,,,,,,,,,,,,,,,,,
29519,1648953323.8516939,1648953323.8572712,108.0,0.0,4188.717772999999,5016.410156,4457.436035,4034.8718259999996,4291.794922,450.0,3.0,73.0,,,,0.0,2.0,1.0,1.0,0.0,0.0,8.333333,,,,,,,,54.0,0.0,0.390372,-0.13159200000000001,0.06762699999999999,0.908691,0.300298,-0.030762,-0.9707180000000001,-0.003945000000000001,-0.009967,-0.034468,,,,,,,,,,,,,,,,,,,,,,,,,,,,,,,,,,,,,,,,,,,,,,,,,,,,,,,,,,,,,,,,,
29520,1648953323.859508,1648953323.865085,109.0,0.0,4175.897461,5030.769043,4628.717772999999,4243.077147999999,4491.282227000001,450.0,3.0,73.0,,,,0.0,2.0,1.0,1.0,0.0,0.0,8.333333,,,,,,,,,,,,,,,,,,,,,,,,,,,,,,,,,,,,,,,,,,,,,,,,,,,,,,0.0,0.0,32.0,0.08216699999999999,1.0,0.0,,,,,,,,,,,,,,,,,,,,,,,,,
29521,1648953323.8673232,1648953323.8728,110.0,0.0,4349.743652,4873.333496,4431.794922,4534.358886999999,4521.025879,450.0,3.0,73.0,,,,0.0,2.0,1.0,1.0,0.0,0.0,8.333333,,,,,,,,55.0,0.0,0.390372,-0.13159200000000001,0.06762699999999999,0.908691,0.289067,-0.02002,-0.9746239999999999,-0.003892,-0.009996,-0.036832,,,,,,,,,,,,,,,,,,,,,,,,,,,,,,,,,,,,,,,,,,,,,,,,,,,,,,,,,,,,,,,,,
29522,1648953323.8751369,1648953323.880615,111.0,0.0,4522.05127,4855.384765999999,4234.871582,4590.256348,4461.025879,0.0,3.0,73.0,,,,0.0,2.0,1.0,1.0,0.0,0.0,8.333333,,,,,,,,,,,,,,,,,,,,,,,,,,,,,,,,,,,,,,,,,,,,,,,,,,,,,,,,,,,,,,,,,,,,,,,,,,,,,,,,,,,,
29523,1648953323.882952,1648953323.888429,112.0,0.0,4371.282227000001,4880.0,4191.282227000001,4340.512695,4296.922852000001,450.0,3.0,73.0,,,,0.0,2.0,1.0,1.0,0.0,0.0,8.333333,,,,,,,,56.0,0.0,0.390372,-0.13159200000000001,0.06762699999999999,0.908691,0.290044,-0.020996,-0.973648,-0.003894,-0.009973000000000001,-0.039057,,,,,,,,,,,,,,,,,,,,,,,,,,,,,,,,,,,,,,,,,,,,,,,,,,,,,,,,,,,,,,,,,
29524,1648953323.890767,1648953323.896244,113.0,0.0,4180.512695,4969.743652,4330.769043,4126.666504,4119.487305,450.0,3.0,73.0,,,,0.0,2.0,1.0,1.0,0.0,0.0,8.333333,,,,,,,,,,,,,,,,,,,,1.0,0.0,0.0,,,,,,,,,,,,,,,,,,,,,,,,,,,,,,,,0.0,0.0,32.0,0.070624,1.0,0.0,100.936646,159.47464,438.686768,641.0097049999999,44.22348,58.165436,54.509071,82.679039,30.7985,127.66161299999999,298.53094500000003,77.817604,167.14801,45.618881,281.533539,73.046051,81.915253,51.129326,732.591309,107.12253600000001,54.156742,36.499908000000005,205.671494,1009.109131,92.669685
