,Timestamp,OriginalTimestamp,EEG.Counter,EEG.Interpolated,EEG.AF3,EEG.T7,EEG.Pz,EEG.T8,EEG.AF4,EEG.RawCq,EEG.Battery,EEG.BatteryPercent,MarkerIndex,MarkerType,MarkerValueInt,EEG.MarkerHardware,CQ.AF3,CQ.T7,CQ.Pz,CQ.T8,CQ.AF4,CQ.Overall,EQ.SampleRateQuality,EQ.OVERALL,EQ.AF3,EQ.T7,EQ.Pz,EQ.T8,EQ.AF4,MOT.CounterMems,MOT.InterpolatedMems,MOT.Q0,MOT.Q1,MOT.Q2,MOT.Q3,MOT.AccX,MOT.AccY,MOT.AccZ,MOT.MagX,MOT.MagY,MOT.MagZ,MC.Action,MC.ActionPower,MC.IsActive,PM.Engagement.IsActive,PM.Engagement.Scaled,PM.Engagement.Raw,PM.Engagement.Min,PM.Engagement.Max,PM.Excitement.IsActive,PM.Excitement.Scaled,PM.Excitement.Raw,PM.Excitement.Min,PM.Excitement.Max,PM.LongTermExcitement,PM.Stress.IsActive,PM.Stress.Scaled,PM.Stress.Raw,PM.Stress.Min,PM.Stress.Max,PM.Relaxation.IsActive,PM.Relaxation.Scaled,PM.Relaxation.Raw,PM.Relaxation.Min,PM.Relaxation.Max,PM.Interest.IsActive,PM.Interest.Scaled,PM.Interest.Raw,PM.Interest.Min,PM.Interest.Max,PM.Focus.IsActive,PM.Focus.Scaled,PM.Focus.Raw,PM.Focus.Min,PM.Focus.Max,FE.BlinkWink,FE.HorizontalEyesDirection,FE.UpperFaceAction,FE.UpperFaceActionPower,FE.LowerFaceAction,FE.LowerFaceActionPower,POW.AF3.Theta,POW.AF3.Alpha,POW.AF3.BetaL,POW.AF3.BetaH,POW.AF3.Gamma,POW.T7.Theta,POW.T7.Alpha,POW.T7.BetaL,POW.T7.BetaH,POW.T7.Gamma,POW.Pz.Theta,POW.Pz.Alpha,POW.Pz.BetaL,POW.Pz.BetaH,POW.Pz.Gamma,POW.T8.Theta,POW.T8.Alpha,POW.T8.BetaL,POW.T8.BetaH,POW.T8.Gamma,POW.AF4.Theta,POW.AF4.Alpha,POW.AF4.BetaL,POW.AF4.BetaH,POW.AF4.Gamma
5759,1648953138.178034,1648953138.212338,28.0,0.0,4374.358886999999,4589.230957,4117.436035,4374.871582,4286.666504,0.0,3.0,73.0,,,,0.0,0.0,0.0,0.0,2.0,0.0,0.0,,,,,,,,14.0,0.0,0.47697,-0.12402300000000001,0.079834,0.866455,0.306157,-0.021485,-0.98439,-0.0039380000000000005,-0.01111,-0.034581,,,,,,,,,,,,,,,,,,,,,,,,,,,,,,,,,,,,,,,,,,,,,,,,,,,,,,,,,,,,,,,,,
5760,1648953138.185848,1648953138.2201529,29.0,0.0,3948.718018,4241.538574,4059.487061,4006.1538090000004,4037.4357909999994,0.0,3.0,73.0,,,,0.0,0.0,0.0,0.0,2.0,0.0,0.0,,,,,,,,,,,,,,,,,,,,,,,,,,,,,,,,,,,,,,,,,,,,,,,,,,,,,,12.0,0.0,32.0,0.080741,1.0,0.0,,,,,,,,,,,,,,,,,,,,,,,,,
5761,1648953138.1936631,1648953138.228067,30.0,0.0,5238.461426,4362.05127,4341.538574,5331.794922,5411.282227000001,0.0,3.0,73.0,,,,0.0,0.0,0.0,0.0,2.0,0.0,0.0,,,,,,,,15.0,0.0,0.476929,-0.12402300000000001,0.080078,0.866455,0.29639099999999996,-0.013184,-0.99025,-0.003593,-0.011025,-0.037129,,,,,,,,,,,,,,,,,,,,,,,,,,,,,,,,,,,,,,,,,,,,,,,,,,,,,,,,,,,,,,,,,
5762,1648953138.201477,1648953138.235882,31.0,0.0,4682.05127,4504.615234000001,4081.538574,4594.358886999999,4791.794922,0.0,3.0,73.0,,,,0.0,0.0,0.0,0.0,2.0,0.0,0.0,,,,,,,,,,,,,,,,,,,,,,,,,,,,,,,,,,,,,,,,,,,,,,,,,,,,,,,,,,,,,,,,,,,,,,,,,,,,,,,,,,,,
5763,1648953138.209292,1648953138.243797,32.0,0.0,3431.281982,4326.153809,4031.794922,3432.3076170000004,3541.025635,0.0,3.0,73.0,,,,0.0,0.0,0.0,0.0,2.0,0.0,0.0,,,,,,,,16.0,0.0,0.476865,-0.124268,0.080078,0.866455,0.298344,-0.020996,-0.9707180000000001,-0.003331,-0.010948000000000001,-0.033172,,,,,,,,,,,,,,,,,,,,,,,,,,,,,,,,,,,,,,,,,,,,,,,,,,,,,,,,,,,,,,,,,
5764,1648953138.217106,1648953138.251612,33.0,0.0,3514.358887,4339.487305,4262.563965,3937.4357909999994,3633.3332520000004,0.0,3.0,73.0,,,,0.0,0.0,0.0,0.0,2.0,0.0,0.0,,,,,,,,,,,,,,,,,,,,1.0,0.0,0.0,,,,,,,,,,,,,,,,,,,,,,,,,,,,,,,,0.0,0.0,32.0,0.066554,1.0,0.0,1147.410889,580.313721,1055.482422,1019.466553,1936.9044190000002,44.722351,325.202698,523.098938,317.32775899999996,210.779297,326.195221,285.81329300000004,865.5066529999999,476.052612,476.95843499999995,1456.678711,630.9689940000001,1332.8302,1167.357056,1678.663818,1664.8496089999999,646.103882,1181.090454,1064.108154,1564.077393
5765,1648953138.224921,1648953138.259527,34.0,0.0,4420.0,4548.717772999999,4488.717772999999,4817.94873,4600.0,0.0,3.0,73.0,,,,0.0,0.0,0.0,0.0,2.0,0.0,0.0,,,,,,,,17.0,0.0,0.476929,-0.12402300000000001,0.080078,0.866455,0.298344,-0.027344,-0.980972,-0.0030960000000000002,-0.011025,-0.035762999999999996,,,,,,,,,,,,,,,,,,,,,,,,,,,,,,,,,,,,,,,,,,,,,,,,,,,,,,,,,,,,,,,,,
5766,1648953138.2327359,1648953138.267342,35.0,0.0,3725.1281740000004,4540.0,4014.8718259999996,3879.487061,3951.281982,0.0,3.0,73.0,,,,0.0,0.0,0.0,0.0,2.0,0.0,0.0,,,,,,,,,,,,,,,,,,,,,,,,,,,,,,,,,,,,,,,,,,,,,,,,,,,,,,,,,,,,,,,,,,,,,,,,,,,,,,,,,,,,
5767,1648953138.24055,1648953138.2752562,36.0,0.0,3778.461426,4570.769043,4032.3076170000004,4092.820557,4082.0512700000004,0.0,3.0,73.0,,,,0.0,0.0,0.0,0.0,2.0,0.0,0.0,,,,,,,,18.0,0.0,0.476929,-0.12402300000000001,0.080078,0.866455,0.294926,-0.016602000000000002,-0.987808,-0.0029809999999999997,-0.01085,-0.031845,,,,,,,,,,,,,,,,,,,,,,,,,,,,,,,,,,,,,,,,,,,,,,,,,,,,,,,,,,,,,,,,,
5768,1648953138.248365,1648953138.283071,37.0,0.0,4242.05127,4570.256348,4469.230957,4569.743652,4637.94873,0.0,3.0,73.0,,,,0.0,0.0,0.0,0.0,2.0,0.0,0.0,,,,,,,,,,,,,,,,,,,,,,,,,,,,,,,,,,,,,,,,,,,,,,,,,,,,,,0.0,0.0,32.0,0.066554,1.0,0.0,,,,,,,,,,,,,,,,,,,,,,,,,
5769,1648953138.2561789,1648953138.2909858,38.0,0.0,4324.615234000001,4383.077147999999,4329.230957,4133.333496,4407.179688,0.0,3.0,73.0,,,,0.0,0.0,0.0,0.0,2.0,0.0,0.0,,,,,,,,19.0,0.0,0.476992,-0.123779,0.080078,0.866455,0.295903,-0.011231,-0.9863430000000001,-0.002781,-0.010790000000000001,-0.034714999999999996,,,,,,,,,,,,,,,,,,,,,,,,,,,,,,,,,,,,,,,,,,,,,,,,,,,,,,,,,,,,,,,,,
5770,1648953138.263994,1648953138.298801,39.0,0.0,4509.230957,4305.641113000001,4053.8461909999996,4217.436035,4296.410156,0.0,3.0,73.0,,,,0.0,0.0,0.0,0.0,2.0,0.0,0.0,,,,,,,,,,,,,,,,,,,,,,,,,,,,,,,,,,,,,,,,,,,,,,,,,,,,,,,,,,,,,,,,,,,,,,,,,,,,,,,,,,,,
5771,1648953138.271808,1648953138.306716,40.0,0.0,4234.358886999999,4285.641113000001,4049.2307130000004,4150.256348,4200.512695,0.0,3.0,73.0,,,,0.0,0.0,0.0,0.0,2.0,0.0,0.0,,,,,,,,20.0,0.0,0.477137,-0.12353499999999999,0.07959,0.866455,0.297856,-0.014159999999999999,-0.979507,-0.002601,-0.010883,-0.037347000000000005,,,,,,,,,,,,,,,,,,,,,,,,,,,,,,,,,,,,,,,,,,,,,,,,,,,,,,,,,,,,,,,,,
5772,1648953138.279623,1648953138.314531,41.0,0.0,4367.179688,4283.589844,4366.153809,4089.2307130000004,4470.769043,0.0,3.0,73.0,,,,0.0,0.0,0.0,0.0,2.0,0.0,0.0,,,,,,,,,,,,,,,,,,,,,,,,,,,,,,,,,,,,,,,,,,,,,,,,,,,,,,0.0,0.0,32.0,0.066554,1.0,0.0,,,,,,,,,,,,,,,,,,,,,,,,,
5773,1648953138.2874382,1648953138.322246,42.0,0.0,4549.743652,4634.871582,4226.153809,3962.0512700000004,4300.512695,0.0,3.0,73.0,,,,0.0,0.0,0.0,0.0,2.0,0.0,0.0,,,,,,,,21.0,0.0,0.47679799999999994,-0.12329100000000001,0.079346,0.866699,0.301762,-0.02002,-0.976577,-0.002438,-0.010869,-0.039472,,,,,,,,,,,,,,,,,,,,,,,,,,,,,,,,,,,,,,,,,,,,,,,,,,,,,,,,,,,,,,,,,
5774,1648953138.2952518,1648953138.330061,43.0,0.0,4912.307617,4966.153809,4058.974365,4294.358886999999,4449.230957,0.0,3.0,73.0,,,,0.0,0.0,0.0,0.0,2.0,0.0,0.0,,,,,,,,,,,,,,,,,,,,,,,,,,,,,,,,,,,,,,,,,,,,,,,,,,,,,,,,,,,,,,,,,,,,,,,,,,,,,,,,,,,,
5775,1648953138.303067,1648953138.337776,44.0,0.0,4414.358886999999,4655.384765999999,4074.8718259999996,3870.7692869999996,4194.871582,0.0,3.0,73.0,,,,0.0,0.0,0.0,0.0,2.0,0.0,0.0,,,,,,,,22.0,0.0,0.47679799999999994,-0.12329100000000001,0.079346,0.866699,0.282231,0.023438,-0.979507,-0.002292,-0.010905,-0.035281,,,,,,,,,,,,,,,,,,,,,,,,,,,,,,,,,,,,,,,,,,,,,,,,,,,,,,,,,,,,,,,,,
5776,1648953138.3108811,1648953138.34559,45.0,0.0,4232.820313,4352.307617,4226.666504,3632.3076170000004,4124.615234000001,0.0,3.0,73.0,,,,0.0,0.0,0.0,0.0,2.0,0.0,0.0,,,,,,,,,,,,,,,,,,,,,,,,,,,,,,,,,,,,,,,,,,,,,,,,,,,,,,0.0,0.0,32.0,0.066554,1.0,0.0,,,,,,,,,,,,,,,,,,,,,,,,,
5777,1648953138.318696,1648953138.353305,46.0,0.0,6018.461426,4666.153809,4686.666504,5685.641113000001,5978.461426,0.0,3.0,73.0,,,,0.0,0.0,0.0,0.0,2.0,0.0,0.0,,,,,,,,23.0,0.0,0.477137,-0.12353499999999999,0.07959,0.866455,0.29736799999999997,-0.019043,-0.988785,0.001013,-0.010987,-0.037759,,,,,,,,,,,,,,,,,,,,,,,,,,,,,,,,,,,,,,,,,,,,,,,,,,,,,,,,,,,,,,,,,
5778,1648953138.32651,1648953138.36112,47.0,0.0,5715.384765999999,4797.94873,4503.077147999999,5709.743652,5571.282227000001,0.0,3.0,73.0,,,,0.0,0.0,0.0,0.0,2.0,0.0,0.0,,,,,,,,,,,,,,,,,,,,,,,,,,,,,,,,,,,,,,,,,,,,,,,,,,,,,,,,,,,,,,,,,,,,,,,,,,,,,,,,,,,,
5779,1648953138.334325,1648953138.368835,48.0,0.0,4203.077147999999,4657.436035,4152.307617,4098.461426,3911.281982,0.0,3.0,73.0,,,,0.0,0.0,0.0,0.0,2.0,0.0,0.0,,,,,,,,24.0,0.0,0.477074,-0.123779,0.07959,0.866455,0.29395,-0.00293,-0.9668120000000001,0.0009119999999999999,-0.010962000000000001,-0.040038,,,,,,,,,,,,,,,,,,,,,,,,,,,,,,,,,,,,,,,,,,,,,,,,,,,,,,,,,,,,,,,,,
5780,1648953138.342139,1648953138.37675,49.0,0.0,3791.794922,4715.897461,3945.1281740000004,3731.794922,3804.615479,0.0,3.0,73.0,,,,0.0,0.0,0.0,0.0,2.0,0.0,0.0,,,,,,,,,,,,,,,,,,,,1.0,0.0,0.0,,,,,,,,,,,,,,,,,,,,,,,,,,,,,,,,0.0,0.0,32.0,0.082449,1.0,0.0,1289.4116210000002,740.030579,1088.6171880000002,1227.5004880000001,2212.034668,44.446144,339.556641,462.876068,362.123688,249.47903399999998,281.035492,217.68263199999998,765.16156,409.915375,499.324249,1651.266235,770.184692,1431.3396,1327.1485599999999,2036.061523,1775.092041,818.004944,1229.119263,1245.538818,1851.701782
5781,1648953138.349954,1648953138.384565,50.0,0.0,4662.05127,4815.897461,3949.2307130000004,5013.846191,5083.077147999999,0.0,3.0,73.0,,,,0.0,0.0,0.0,0.0,2.0,0.0,0.0,,,,,,,,25.0,0.0,0.477074,-0.123779,0.07959,0.866455,0.31396999999999997,-0.025879000000000003,-0.968277,0.000674,-0.010989,-0.041991,,,,,,,,,,,,,,,,,,,,,,,,,,,,,,,,,,,,,,,,,,,,,,,,,,,,,,,,,,,,,,,,,
5782,1648953138.357768,1648953138.3924801,51.0,0.0,4238.974121,4677.436035,3700.512939,4624.615234000001,4532.307617,0.0,3.0,73.0,,,,0.0,0.0,0.0,0.0,2.0,0.0,0.0,,,,,,,,,,,,,,,,,,,,,,,,,,,,,,,,,,,,,,,,,,,,,,,,,,,,,,,,,,,,,,,,,,,,,,,,,,,,,,,,,,,,
5783,1648953138.365583,1648953138.400295,52.0,0.0,3894.358887,4549.743652,3549.743652,3876.4101560000004,3784.615479,0.0,3.0,73.0,,,,0.0,0.0,0.0,0.0,2.0,0.0,0.0,,,,,,,,26.0,0.0,0.477137,-0.12353499999999999,0.07959,0.866455,0.298833,-0.026368,-0.9643700000000001,0.000509,-0.011013,-0.037499,,,,,,,,,,,,,,,,,,,,,,,,,,,,,,,,,,,,,,,,,,,,,,,,,,,,,,,,,,,,,,,,,
5784,1648953138.373397,1648953138.408209,53.0,0.0,4944.102539,4592.820313,3698.974365,4829.743652,4847.692383,0.0,3.0,73.0,,,,0.0,0.0,0.0,0.0,2.0,0.0,0.0,,,,,,,,,,,,,,,,,,,,,,,,,,,,,,,,,,,,,,,,,,,,,,,,,,,,,,0.0,0.0,32.0,0.082449,1.0,0.0,,,,,,,,,,,,,,,,,,,,,,,,,
5785,1648953138.381212,1648953138.416024,54.0,0.0,4520.512695,4562.563965,3454.358887,4601.025879,4625.641113000001,0.0,3.0,73.0,,,,0.0,0.0,0.0,0.0,2.0,0.0,0.0,,,,,,,,27.0,0.0,0.476735,-0.12353499999999999,0.079346,0.866699,0.295415,-0.013184,-0.9858549999999999,0.003535,-0.010986,-0.039755,,,,,,,,,,,,,,,,,,,,,,,,,,,,,,,,,,,,,,,,,,,,,,,,,,,,,,,,,,,,,,,,,
5786,1648953138.3890269,1648953138.423939,55.0,0.0,3218.974365,4245.641113000001,3424.102539,3406.1538090000004,3377.9487299999996,0.0,3.0,73.0,,,,0.0,0.0,0.0,0.0,2.0,0.0,0.0,,,,,,,,,,,,,,,,,,,,,,,,,,,,,,,,,,,,,,,,,,,,,,,,,,,,,,,,,,,,,,,,,,,,,,,,,,,,,,,,,,,,
5787,1648953138.396841,1648953138.4317539,56.0,0.0,4077.4357909999994,4096.922852000001,4096.922852000001,3758.461426,3814.358887,0.0,3.0,73.0,,,,0.0,0.0,0.0,0.0,2.0,0.0,0.0,,,,,,,,28.0,0.0,0.476735,-0.12353499999999999,0.079346,0.866699,0.300786,-0.019532,-0.993667,0.0031320000000000002,-0.011011,-0.041638999999999995,,,,,,,,,,,,,,,,,,,,,,,,,,,,,,,,,,,,,,,,,,,,,,,,,,,,,,,,,,,,,,,,,
5788,1648953138.4046562,1648953138.439669,57.0,0.0,4653.333496,4517.94873,4437.94873,4065.1281740000004,4330.769043,0.0,3.0,73.0,,,,0.0,0.0,0.0,0.0,2.0,0.0,0.0,,,,,,,,,,,,,,,,,,,,,,,,,,,,,,,,,,,,,,,,,,,,,,,,,,,,,,0.0,0.0,32.0,0.082449,1.0,0.0,,,,,,,,,,,,,,,,,,,,,,,,,
5789,1648953138.4124699,1648953138.447484,58.0,0.0,4172.307617,4871.282227000001,4414.358886999999,4243.077147999999,4516.410156,0.0,3.0,73.0,,,,0.0,0.0,0.0,0.0,2.0,0.0,0.0,,,,,,,,29.0,0.0,0.477178,-0.12353499999999999,0.079346,0.866455,0.298344,-0.013184,-0.988296,-0.000306,-0.011033,-0.037182,,,,,,,,,,,,,,,,,,,,,,,,,,,,,,,,,,,,,,,,,,,,,,,,,,,,,,,,,,,,,,,,,
5790,1648953138.420285,1648953138.455398,59.0,0.0,5213.846191,4715.384765999999,4631.282227000001,5474.358886999999,5454.358886999999,0.0,3.0,73.0,,,,0.0,0.0,0.0,0.0,2.0,0.0,0.0,,,,,,,,,,,,,,,,,,,,,,,,,,,,,,,,,,,,,,,,,,,,,,,,,,,,,,,,,,,,,,,,,,,,,,,,,,,,,,,,,,,,
5791,1648953138.428099,1648953138.463213,60.0,0.0,5495.384765999999,4582.563965,4360.512695,5230.769043,5114.358886999999,0.0,3.0,73.0,,,,0.0,0.0,0.0,0.0,2.0,0.0,0.0,,,,,,,,30.0,0.0,0.477178,-0.12353499999999999,0.079346,0.866455,0.297856,-0.032715,-0.976577,-0.0005200000000000001,-0.011004,-0.03947,,,,,,,,,,,,,,,,,,,,,,,,,,,,,,,,,,,,,,,,,,,,,,,,,,,,,,,,,,,,,,,,,
5792,1648953138.435914,1648953138.471128,61.0,0.0,3822.0512700000004,4659.487305,3685.641113,3713.8461909999996,3660.0,0.0,3.0,73.0,,,,0.0,0.0,0.0,0.0,2.0,0.0,0.0,,,,,,,,,,,,,,,,,,,,,,,,,,,,,,,,,,,,,,,,,,,,,,,,,,,,,,0.0,0.0,32.0,0.082449,1.0,0.0,,,,,,,,,,,,,,,,,,,,,,,,,
5793,1648953138.443728,1648953138.4789429,62.0,0.0,4040.0,4527.692383,3966.6667479999996,4307.179688,4230.256348,0.0,3.0,73.0,,,,0.0,0.0,0.0,0.0,2.0,0.0,0.0,,,,,,,,31.0,0.0,0.476735,-0.12353499999999999,0.079346,0.866699,0.283696,-0.007812999999999999,-0.9824370000000001,-0.0005650000000000001,-0.010879999999999999,-0.041333,,,,,,,,,,,,,,,,,,,,,,,,,,,,,,,,,,,,,,,,,,,,,,,,,,,,,,,,,,,,,,,,,
5794,1648953138.4515429,1648953138.486858,63.0,0.0,5031.282227000001,4260.512695,4394.358886999999,4966.153809,4892.307617,0.0,3.0,73.0,,,,0.0,0.0,0.0,0.0,2.0,0.0,0.0,,,,,,,,,,,,,,,,,,,,,,,,,,,,,,,,,,,,,,,,,,,,,,,,,,,,,,,,,,,,,,,,,,,,,,,,,,,,,,,,,,,,
5795,1648953138.459358,1648953138.494673,64.0,0.0,3922.0512700000004,4291.282227000001,4148.717772999999,3825.641113,3815.384521,450.0,3.0,73.0,,,,0.0,0.0,0.0,0.0,2.0,0.0,0.0,,,,,,,,32.0,0.0,0.476735,-0.12353499999999999,0.079346,0.866699,0.29639099999999996,-0.023438,-0.9897610000000001,-0.000655,-0.010817,-0.043157,,,,,,,,,,,,,,,,,,,,,,,,,,,,,,,,,,,,,,,,,,,,,,,,,,,,,,,,,,,,,,,,,
5796,1648953138.4671721,1648953138.502487,65.0,0.0,3963.076904,4522.05127,4429.230957,4281.538574,4271.282227000001,450.0,3.0,73.0,,,,0.0,0.0,0.0,0.0,2.0,0.0,0.0,1.0,0.0,0.0,0.0,0.0,0.0,0.0,,,,,,,,,,,,,1.0,0.0,0.0,,,,,,,,,,,,,,,,,,,,,,,,,,,,,,,,0.0,0.0,32.0,0.068891,1.0,0.0,1290.253296,857.8900150000001,985.5556029999999,1355.13562,2304.790771,47.118927,352.472504,393.529419,394.328033,275.83554100000003,243.573685,207.5746,673.993774,343.286377,491.267975,1664.321045,891.975281,1397.0373539999998,1358.4105220000001,2282.060547,1669.411987,920.304932,1144.186646,1317.643921,2047.6306149999998
5797,1648953138.474987,1648953138.510302,66.0,0.0,4381.538574,4537.94873,4357.436035,4582.563965,4604.615234000001,0.0,3.0,73.0,,,,0.0,0.0,0.0,0.0,2.0,0.0,0.0,,,,,,,,33.0,0.0,0.476735,-0.12353499999999999,0.079346,0.866699,0.31396999999999997,-0.037110000000000004,-0.9799950000000001,-0.000638,-0.01081,-0.0385,,,,,,,,,,,,,,,,,,,,,,,,,,,,,,,,,,,,,,,,,,,,,,,,,,,,,,,,,,,,,,,,,
5798,1648953138.482801,1648953138.518017,67.0,0.0,4347.692383,4636.410156,4006.1538090000004,4383.077147999999,4488.205078,450.0,3.0,73.0,,,,0.0,0.0,0.0,0.0,2.0,0.0,0.0,,,,,,,,,,,,,,,,,,,,,,,,,,,,,,,,,,,,,,,,,,,,,,,,,,,,,,,,,,,,,,,,,,,,,,,,,,,,,,,,,,,,
5799,1648953138.490616,1648953138.525832,68.0,0.0,4345.128418,4742.05127,4061.538574,4289.743652,4456.922852000001,0.0,3.0,73.0,,,,0.0,0.0,0.0,0.0,2.0,0.0,0.0,,,,,,,,34.0,0.0,0.476735,-0.12353499999999999,0.079346,0.866699,0.297856,-0.018067,-0.9834129999999999,-0.0007700000000000001,-0.010705,-0.040802,,,,,,,,,,,,,,,,,,,,,,,,,,,,,,,,,,,,,,,,,,,,,,,,,,,,,,,,,,,,,,,,,
5800,1648953138.49843,1648953138.5335472,69.0,0.0,4288.205078,4557.436035,4194.358886999999,3964.102539,4256.922852000001,450.0,3.0,73.0,,,,0.0,0.0,0.0,0.0,2.0,0.0,0.0,,,,,,,,,,,,,,,,,,,,,,,,,,,,,,,,,,,,,,,,,,,,,,,,,,,,,,0.0,0.0,32.0,0.068891,1.0,0.0,,,,,,,,,,,,,,,,,,,,,,,,,
5801,1648953138.506245,1648953138.541462,70.0,0.0,4502.563965,4449.743652,4262.563965,4240.0,4448.205078,4.0,3.0,73.0,,,,0.0,0.0,0.0,0.0,2.0,0.0,0.0,,,,,,,,35.0,0.0,0.476735,-0.12353499999999999,0.079346,0.866699,0.304692,-0.016114,-0.9741360000000001,-0.000839,-0.01066,-0.036331,,,,,,,,,,,,,,,,,,,,,,,,,,,,,,,,,,,,,,,,,,,,,,,,,,,,,,,,,,,,,,,,,
5802,1648953138.514059,1648953138.549277,71.0,0.0,4416.410156,4495.897461,4495.897461,4422.05127,4560.512695,450.0,3.0,73.0,,,,0.0,0.0,0.0,0.0,2.0,0.0,0.0,,,,,,,,,,,,,,,,,,,,,,,,,,,,,,,,,,,,,,,,,,,,,,,,,,,,,,,,,,,,,,,,,,,,,,,,,,,,,,,,,,,,
5803,1648953138.521874,1648953138.557192,72.0,0.0,4362.05127,4516.410156,4505.641113000001,4257.94873,4449.743652,450.0,3.0,73.0,,,,0.0,0.0,0.0,0.0,0.0,0.0,0.0,,,,,,,,36.0,0.0,0.476735,-0.12353499999999999,0.079346,0.866699,0.304204,-0.023438,-0.972183,-0.0008039999999999999,-0.010668,-0.038801999999999996,,,,,,,,,,,,,,,,,,,,,,,,,,,,,,,,,,,,,,,,,,,,,,,,,,,,,,,,,,,,,,,,,
5804,1648953138.5296881,1648953138.565007,73.0,0.0,4342.05127,4693.846191,4106.666504,4140.512695,4094.358887,0.0,3.0,73.0,,,,0.0,0.0,0.0,0.0,0.0,0.0,0.0,,,,,,,,,,,,,,,,,,,,,,,,,,,,,,,,,,,,,,,,,,,,,,,,,,,,,,0.0,0.0,32.0,0.068891,1.0,0.0,,,,,,,,,,,,,,,,,,,,,,,,,
5805,1648953138.537503,1648953138.572823,74.0,0.0,4265.641113000001,4826.666504,4048.205078,4355.384765999999,4083.076904,450.0,3.0,73.0,,,,0.0,0.0,0.0,0.0,0.0,0.0,0.0,,,,,,,,37.0,0.0,0.476735,-0.12353499999999999,0.079346,0.866699,0.29395,-0.014649,-0.980484,-0.003849,-0.010578,-0.034629,,,,,,,,,,,,,,,,,,,,,,,,,,,,,,,,,,,,,,,,,,,,,,,,,,,,,,,,,,,,,,,,,
5806,1648953138.545318,1648953138.580538,75.0,0.0,4420.512695,4662.05127,4106.666504,4521.025879,4380.0,0.0,3.0,73.0,,,,0.0,0.0,0.0,0.0,0.0,0.0,0.0,,,,,,,,,,,,,,,,,,,,,,,,,,,,,,,,,,,,,,,,,,,,,,,,,,,,,,,,,,,,,,,,,,,,,,,,,,,,,,,,,,,,
5807,1648953138.553132,1648953138.5884519,76.0,0.0,4605.128418,4536.410156,3959.487061,4478.974121,4414.358886999999,450.0,3.0,73.0,,,,0.0,0.0,0.0,0.0,0.0,0.0,0.0,,,,,,,,38.0,0.0,0.476775,-0.12353499999999999,0.07910199999999999,0.866699,0.287114,-0.020996,-0.9712059999999999,-0.0035619999999999996,-0.010595,-0.030873,,,,,,,,,,,,,,,,,,,,,,,,,,,,,,,,,,,,,,,,,,,,,,,,,,,,,,,,,,,,,,,,,
5808,1648953138.5609472,1648953138.596267,77.0,0.0,4484.615234000001,4444.102539,4030.256348,4298.461426,4281.025879,450.0,3.0,73.0,,,,0.0,0.0,0.0,0.0,0.0,0.0,0.0,,,,,,,,,,,,,,,,,,,,,,,,,,,,,,,,,,,,,,,,,,,,,,,,,,,,,,0.0,0.0,32.0,0.068891,1.0,0.0,,,,,,,,,,,,,,,,,,,,,,,,,
5809,1648953138.5687609,1648953138.604082,78.0,0.0,4285.641113000001,4222.05127,4215.384765999999,4150.256348,4321.025879,450.0,3.0,73.0,,,,0.0,0.0,0.0,0.0,0.0,0.0,0.0,,,,,,,,39.0,0.0,0.476775,-0.12353499999999999,0.07910199999999999,0.866699,0.304692,-0.020508000000000002,-0.9716950000000001,-0.003303,-0.010707,-0.033743,,,,,,,,,,,,,,,,,,,,,,,,,,,,,,,,,,,,,,,,,,,,,,,,,,,,,,,,,,,,,,,,,
5810,1648953138.576576,1648953138.611797,79.0,0.0,4205.641113000001,4232.820313,4258.461426,4311.282227000001,4469.230957,0.0,3.0,73.0,,,,0.0,0.0,0.0,0.0,0.0,0.0,0.0,,,,,,,,,,,,,,,,,,,,,,,,,,,,,,,,,,,,,,,,,,,,,,,,,,,,,,,,,,,,,,,,,,,,,,,,,,,,,,,,,,,,
5811,1648953138.58439,1648953138.6197119,80.0,0.0,4282.563965,4458.974121,4350.769043,4546.666504,4615.897461,450.0,3.0,73.0,,,,0.0,0.0,0.0,0.0,0.0,0.0,0.0,,,,,,,,40.0,0.0,0.476735,-0.12353499999999999,0.079346,0.866699,0.29395,-0.014649,-0.980484,-0.0032170000000000002,-0.010759000000000001,-0.030026999999999998,,,,,,,,,,,,,,,,,,,,,,,,,,,,,,,,,,,,,,,,,,,,,,,,,,,,,,,,,,,,,,,,,
5812,1648953138.592205,1648953138.627527,81.0,0.0,4502.05127,4588.205078,4302.05127,4494.871582,4537.94873,450.0,3.0,73.0,,,,0.0,0.0,0.0,0.0,0.0,0.0,0.0,,,,,,,,,,,,,,,,,,,,1.0,0.0,0.0,,,,,,,,,,,,,,,,,,,,,,,,,,,,,,,,0.0,0.0,32.0,0.06522599999999999,1.0,0.0,1202.282593,919.1345210000001,785.717224,1392.299927,2254.704834,57.62610600000001,364.088776,334.844452,411.698517,284.36679100000003,225.61105299999997,254.31652799999998,610.091187,285.577271,457.51944000000003,1523.979858,998.765503,1276.168579,1277.458008,2410.620361,1413.170166,925.261475,969.620483,1292.47522,2165.134277
5813,1648953138.600019,1648953138.635442,82.0,0.0,4525.128418,4687.692383,4035.897461,4264.102539,4347.179688,450.0,3.0,73.0,,,,0.0,0.0,0.0,0.0,0.0,0.0,0.0,,,,,,,,41.0,0.0,0.476775,-0.12353499999999999,0.07910199999999999,0.866699,0.304692,-0.020508000000000002,-0.9716950000000001,-0.002993,-0.010855,-0.032981,,,,,,,,,,,,,,,,,,,,,,,,,,,,,,,,,,,,,,,,,,,,,,,,,,,,,,,,,,,,,,,,,
5814,1648953138.607834,1648953138.643256,83.0,0.0,4150.769043,4744.615234000001,4073.8461909999996,4121.025879,4351.282227000001,0.0,3.0,73.0,,,,0.0,0.0,0.0,0.0,0.0,0.0,0.0,,,,,,,,,,,,,,,,,,,,,,,,,,,,,,,,,,,,,,,,,,,,,,,,,,,,,,,,,,,,,,,,,,,,,,,,,,,,,,,,,,,,
5815,1648953138.615648,1648953138.6511712,84.0,0.0,4101.538574,4743.589844,3904.615479,4308.717772999999,4433.333496,450.0,3.0,73.0,,,,0.0,0.0,0.0,0.0,0.0,0.0,0.0,,,,,,,,42.0,0.0,0.47711499999999996,-0.123779,0.079346,0.866455,0.291508,-0.021973,-0.977066,-0.002889,-0.010893,-0.035542000000000004,,,,,,,,,,,,,,,,,,,,,,,,,,,,,,,,,,,,,,,,,,,,,,,,,,,,,,,,,,,,,,,,,
5816,1648953138.6234632,1648953138.6589859,85.0,0.0,4707.179688,4738.974121,3803.5898439999996,4834.358886999999,4745.128418,450.0,3.0,73.0,,,,0.0,0.0,0.0,0.0,0.0,0.0,0.0,,,,,,,,,,,,,,,,,,,,,,,,,,,,,,,,,,,,,,,,,,,,,,,,,,,,,,0.0,0.0,32.0,0.06522599999999999,1.0,0.0,,,,,,,,,,,,,,,,,,,,,,,,,
5817,1648953138.631278,1648953138.6669009,86.0,0.0,4051.281982,4482.05127,3523.5898439999996,4016.4101560000004,3997.4357909999994,450.0,3.0,73.0,,,,0.0,0.0,0.0,0.0,0.0,0.0,0.0,,,,,,,,43.0,0.0,0.476567,-0.12402300000000001,0.07959,0.866699,0.297856,-0.003906,-1.056657,-0.002698,-0.010878,-0.031646,,,,,,,,,,,,,,,,,,,,,,,,,,,,,,,,,,,,,,,,,,,,,,,,,,,,,,,,,,,,,,,,,
5818,1648953138.639092,1648953138.6748161,87.0,0.0,4419.487305,4290.769043,3372.3076170000004,4493.333496,4369.230957,0.0,3.0,73.0,,,,0.0,0.0,0.0,0.0,0.0,0.0,0.0,,,,,,,,,,,,,,,,,,,,,,,,,,,,,,,,,,,,,,,,,,,,,,,,,,,,,,,,,,,,,,,,,,,,,,,,,,,,,,,,,,,,
5819,1648953138.646907,1648953138.682631,88.0,0.0,5174.358886999999,4427.692383,3921.025635,5595.384765999999,5147.179688,450.0,3.0,73.0,,,,0.0,0.0,0.0,0.0,0.0,0.0,0.0,,,,,,,,44.0,0.0,0.4761,-0.124268,0.079346,0.866943,0.284672,-0.009276999999999999,-0.9990389999999999,-0.002526,-0.010815,-0.02814,,,,,,,,,,,,,,,,,,,,,,,,,,,,,,,,,,,,,,,,,,,,,,,,,,,,,,,,,,,,,,,,,
5820,1648953138.654721,1648953138.6904461,89.0,0.0,4433.333496,4580.0,4425.641113000001,4526.666504,4496.410156,450.0,3.0,73.0,,,,0.0,0.0,0.0,0.0,0.0,0.0,0.0,,,,,,,,,,,,,,,,,,,,,,,,,,,,,,,,,,,,,,,,,,,,,,,,,,,,,,0.0,0.0,32.0,0.06522599999999999,1.0,0.0,,,,,,,,,,,,,,,,,,,,,,,,,
5821,1648953138.662536,1648953138.698161,90.0,0.0,3986.6667479999996,4698.974121,4388.717772999999,3567.6923829999996,3990.7692869999996,450.0,3.0,73.0,,,,0.0,0.0,0.0,0.0,0.0,0.0,0.0,,,,,,,,45.0,0.0,0.474567,-0.123779,0.078613,0.86792,0.28174299999999997,0.009766,-0.980972,-0.002273,-0.010856999999999999,-0.031137,,,,,,,,,,,,,,,,,,,,,,,,,,,,,,,,,,,,,,,,,,,,,,,,,,,,,,,,,,,,,,,,,
5822,1648953138.67035,1648953138.705976,91.0,0.0,4384.102539,4742.05127,4233.333496,4260.0,4237.436035,0.0,3.0,73.0,,,,0.0,0.0,0.0,0.0,0.0,0.0,0.0,,,,,,,,,,,,,,,,,,,,,,,,,,,,,,,,,,,,,,,,,,,,,,,,,,,,,,,,,,,,,,,,,,,,,,,,,,,,,,,,,,,,
5823,1648953138.678165,1648953138.713691,92.0,0.0,4357.94873,4507.692383,4371.794922,4630.769043,4380.512695,450.0,3.0,73.0,,,,0.0,0.0,0.0,0.0,0.0,0.0,0.0,,,,,,,,46.0,0.0,0.47341000000000005,-0.12353499999999999,0.07788099999999999,0.8686520000000001,0.280278,-0.01709,-0.9858549999999999,-0.002143,-0.010845,-0.03398,,,,,,,,,,,,,,,,,,,,,,,,,,,,,,,,,,,,,,,,,,,,,,,,,,,,,,,,,,,,,,,,,
5824,1648953138.685979,1648953138.721506,93.0,0.0,3866.6667479999996,4492.307617,4110.256348,3805.641113,3934.8718259999996,450.0,3.0,73.0,,,,0.0,0.0,0.0,0.0,0.0,0.0,0.0,,,,,,,,,,,,,,,,,,,,,,,,,,,,,,,,,,,,,,,,,,,,,,,,,,,,,,0.0,0.0,32.0,0.06522599999999999,1.0,0.0,,,,,,,,,,,,,,,,,,,,,,,,,
5825,1648953138.693794,1648953138.729221,94.0,0.0,4476.922852000001,4837.436035,4441.025879,4591.282227000001,4580.0,450.0,3.0,73.0,,,,0.0,0.0,0.0,0.0,0.0,0.0,0.0,,,,,,,,47.0,0.0,0.471895,-0.12402300000000001,0.078125,0.8693850000000001,0.291997,-0.012695999999999999,-1.000992,-0.001978,-0.010835,-0.036539,,,,,,,,,,,,,,,,,,,,,,,,,,,,,,,,,,,,,,,,,,,,,,,,,,,,,,,,,,,,,,,,,
5826,1648953138.701609,1648953138.737036,95.0,0.0,4050.256348,4570.769043,4536.410156,4606.666504,4355.384765999999,0.0,3.0,73.0,,,,0.0,0.0,0.0,0.0,0.0,0.0,0.0,,,,,,,,,,,,,,,,,,,,,,,,,,,,,,,,,,,,,,,,,,,,,,,,,,,,,,,,,,,,,,,,,,,,,,,,,,,,,,,,,,,,
5827,1648953138.709423,1648953138.744751,96.0,0.0,4193.846191,4221.538574,4054.8718259999996,4114.871582,4233.333496,450.0,3.0,73.0,,,,0.0,0.0,0.0,0.0,0.0,0.0,0.0,,,,,,,,48.0,0.0,0.47076,-0.12475599999999999,0.07836900000000001,0.869873,0.311528,-0.013672,-0.9751129999999999,-0.001975,-0.010826,-0.032739,,,,,,,,,,,,,,,,,,,,,,,,,,,,,,,,,,,,,,,,,,,,,,,,,,,,,,,,,,,,,,,,,
5828,1648953138.7172382,1648953138.752666,97.0,0.0,4652.820313,4522.05127,4013.8461909999996,3988.718018,4250.256348,450.0,3.0,73.0,,,,0.0,0.0,0.0,0.0,0.0,0.0,0.0,,,,,,,,,,,,,,,,,,,,1.0,0.0,0.0,,,,,,,,,,,,,,,,,,,,,,,,,,,,,,,,0.0,0.0,32.0,0.052613,1.0,0.0,1129.19397,943.4578859999999,567.6192629999999,1375.411011,2157.438965,80.073532,369.57876600000003,305.67019700000003,417.908722,275.47345,241.122055,362.15072599999996,585.72998,244.43370099999999,409.26550299999997,1312.518799,1101.8188480000001,1143.3439939999998,1163.71936,2462.737793,1123.0153810000002,845.426575,789.091431,1238.568481,2249.3908690000003
5829,1648953138.7250519,1648953138.7604802,98.0,0.0,4462.563965,4737.436035,4401.538574,4244.615234000001,4384.102539,450.0,3.0,73.0,,,,0.0,0.0,0.0,0.0,0.0,0.0,0.0,,,,,,,,49.0,0.0,0.468992,-0.12475599999999999,0.078125,0.87085,0.304692,-0.020508000000000002,-0.9716950000000001,-0.001827,-0.01072,-0.035422,,,,,,,,,,,,,,,,,,,,,,,,,,,,,,,,,,,,,,,,,,,,,,,,,,,,,,,,,,,,,,,,,
5830,1648953138.732867,1648953138.768395,99.0,0.0,4369.230957,4661.025879,4412.820313,4378.974121,4637.94873,0.0,3.0,73.0,,,,0.0,0.0,0.0,0.0,0.0,0.0,0.0,,,,,,,,,,,,,,,,,,,,,,,,,,,,,,,,,,,,,,,,,,,,,,,,,,,,,,,,,,,,,,,,,,,,,,,,,,,,,,,,,,,,
5831,1648953138.7406812,1648953138.77621,100.0,0.0,4496.922852000001,4763.077147999999,4075.384521,4066.6667479999996,4260.0,450.0,3.0,73.0,,,,0.0,0.0,0.0,0.0,0.0,0.0,0.0,,,,,,,,50.0,0.0,0.467571,-0.12402300000000001,0.076904,0.871826,0.29639099999999996,-0.012206999999999999,-0.964858,-0.001888,-0.010722,-0.031488999999999996,,,,,,,,,,,,,,,,,,,,,,,,,,,,,,,,,,,,,,,,,,,,,,,,,,,,,,,,,,,,,,,,,
5832,1648953138.748496,1648953138.784125,101.0,0.0,4468.717772999999,4834.871582,3993.8461909999996,4061.538574,3987.179443,450.0,3.0,73.0,,,,0.0,0.0,0.0,0.0,0.0,0.0,0.0,,,,,,,,,,,,,,,,,,,,,,,,,,,,,,,,,,,,,,,,,,,,,,,,,,,,,,0.0,0.0,32.0,0.052613,1.0,0.0,,,,,,,,,,,,,,,,,,,,,,,,,
5833,1648953138.75631,1648953138.79194,102.0,0.0,4161.538574,4775.384765999999,4191.794922,4256.410156,4193.333496,450.0,3.0,73.0,,,,0.0,0.0,0.0,0.0,0.0,0.0,0.0,,,,,,,,51.0,0.0,0.466308,-0.123779,0.07666,0.872559,0.32910700000000004,-0.041016000000000004,-1.013687,-0.0019440000000000002,-0.010773,-0.0342,,,,,,,,,,,,,,,,,,,,,,,,,,,,,,,,,,,,,,,,,,,,,,,,,,,,,,,,,,,,,,,,,
5834,1648953138.764125,1648953138.799855,103.0,0.0,4057.9487299999996,4637.436035,4503.077147999999,4385.641113000001,4462.563965,0.0,3.0,73.0,,,,0.0,0.0,0.0,0.0,0.0,0.0,0.0,,,,,,,,,,,,,,,,,,,,,,,,,,,,,,,,,,,,,,,,,,,,,,,,,,,,,,,,,,,,,,,,,,,,,,,,,,,,,,,,,,,,
5835,1648953138.771939,1648953138.807669,104.0,0.0,4074.8718259999996,4453.333496,4456.922852000001,4348.717772999999,4322.563965,450.0,3.0,73.0,,,,0.0,0.0,0.0,0.0,0.0,0.0,0.0,,,,,,,,52.0,0.0,0.466555,-0.124268,0.07714800000000001,0.8723139999999999,0.31396999999999997,-0.04004,-0.992691,-0.0017980000000000001,-0.010672,-0.036737,,,,,,,,,,,,,,,,,,,,,,,,,,,,,,,,,,,,,,,,,,,,,,,,,,,,,,,,,,,,,,,,,
5836,1648953138.779754,1648953138.815584,105.0,0.0,4268.205078,4510.256348,4158.974121,4260.512695,4136.410156,450.0,3.0,73.0,,,,0.0,0.0,0.0,0.0,0.0,0.0,0.0,,,,,,,,,,,,,,,,,,,,,,,,,,,,,,,,,,,,,,,,,,,,,,,,,,,,,,0.0,0.0,32.0,0.052613,1.0,0.0,,,,,,,,,,,,,,,,,,,,,,,,,
5837,1648953138.7875679,1648953138.823399,106.0,0.0,4657.94873,4650.256348,4062.5642090000006,4136.410156,4242.05127,450.0,3.0,73.0,,,,0.0,0.0,0.0,0.0,0.0,0.0,0.0,,,,,,,,53.0,0.0,0.4668,-0.12475599999999999,0.077637,0.8720700000000001,0.292485,-0.046876,-0.982925,-0.0017649999999999999,-0.01063,-0.032868,,,,,,,,,,,,,,,,,,,,,,,,,,,,,,,,,,,,,,,,,,,,,,,,,,,,,,,,,,,,,,,,,
5838,1648953138.795383,1648953138.831314,107.0,0.0,4731.282227000001,4560.0,4167.179688,3991.794922,4302.05127,0.0,3.0,73.0,,,,0.0,0.0,0.0,0.0,0.0,0.0,0.0,,,,,,,,,,,,,,,,,,,,,,,,,,,,,,,,,,,,,,,,,,,,,,,,,,,,,,,,,,,,,,,,,,,,,,,,,,,,,,,,,,,,
5839,1648953138.803198,1648953138.839129,108.0,0.0,4402.05127,4436.410156,4301.025879,4001.025635,4327.692383,450.0,3.0,73.0,,,,0.0,0.0,0.0,0.0,0.0,0.0,0.0,,,,,,,,54.0,0.0,0.467426,-0.124268,0.07739299999999999,0.871826,0.290532,-0.010742,-0.9580219999999999,-0.0017350000000000002,-0.010642,-0.035489,,,,,,,,,,,,,,,,,,,,,,,,,,,,,,,,,,,,,,,,,,,,,,,,,,,,,,,,,,,,,,,,,
5840,1648953138.811012,1648953138.847044,109.0,0.0,4178.461426,4474.871582,4496.410156,4110.769043,4499.487305,450.0,3.0,73.0,,,,0.0,0.0,0.0,0.0,0.0,0.0,0.0,,,,,,,,,,,,,,,,,,,,,,,,,,,,,,,,,,,,,,,,,,,,,,,,,,,,,,0.0,0.0,32.0,0.052613,1.0,0.0,,,,,,,,,,,,,,,,,,,,,,,,,
5841,1648953138.818827,1648953138.854858,110.0,0.0,4297.94873,4706.666504,4510.769043,4098.461426,4398.974121,450.0,3.0,73.0,,,,0.0,0.0,0.0,0.0,0.0,0.0,0.0,,,,,,,,55.0,0.0,0.46767600000000004,-0.123779,0.07666,0.871826,0.32227100000000003,-0.048341,-0.9702299999999999,-0.00161,-0.010652,-0.0378,,,,,,,,,,,,,,,,,,,,,,,,,,,,,,,,,,,,,,,,,,,,,,,,,,,,,,,,,,,,,,,,,
5842,1648953138.826641,1648953138.862773,111.0,0.0,4781.538574,4980.0,4281.025879,4252.820313,4209.230957,0.0,3.0,73.0,,,,0.0,0.0,0.0,0.0,0.0,0.0,0.0,,,,,,,,,,,,,,,,,,,,,,,,,,,,,,,,,,,,,,,,,,,,,,,,,,,,,,,,,,,,,,,,,,,,,,,,,,,,,,,,,,,,
5843,1648953138.834456,1648953138.870588,112.0,0.0,4562.563965,4679.487305,4104.102539,4037.9487299999996,4110.256348,450.0,3.0,73.0,,,,0.0,0.0,0.0,0.0,0.0,0.0,0.0,,,,,,,,56.0,0.0,0.467325,-0.12353499999999999,0.076416,0.8720700000000001,0.285161,0.001465,-0.988296,-0.001498,-0.010661,-0.033678,,,,,,,,,,,,,,,,,,,,,,,,,,,,,,,,,,,,,,,,,,,,,,,,,,,,,,,,,,,,,,,,,
5844,1648953138.84227,1648953138.8783028,113.0,0.0,3824.615479,4267.692383,4192.820313,3669.2307130000004,4134.358886999999,450.0,3.0,73.0,,,,0.0,0.0,0.0,0.0,0.0,0.0,0.0,,,,,,,,,,,,,,,,,,,,1.0,0.0,0.0,,,,,,,,,,,,,,,,,,,,,,,,,,,,,,,,0.0,0.0,32.0,0.048979,1.0,0.0,1156.417236,969.3408810000001,416.017853,1360.3811039999998,2106.1567379999997,114.72939299999999,366.819672,317.965973,419.55981399999996,254.409683,302.87426800000003,542.801941,604.450439,227.825134,359.85693399999997,1114.068726,1205.897217,1058.508057,1109.142456,2494.3984379999997,909.149719,727.960388,685.5626219999999,1233.90979,2339.766846
5845,1648953138.850085,1648953138.886118,114.0,0.0,5352.820313,4600.512695,4690.256348,5048.717772999999,5282.563965,450.0,3.0,73.0,,,,0.0,0.0,0.0,0.0,0.0,0.0,0.0,,,,,,,,57.0,0.0,0.46767600000000004,-0.123779,0.07666,0.871826,0.28809,-0.013184,-1.0112459999999999,-0.0015429999999999999,-0.010570999999999999,-0.036219,,,,,,,,,,,,,,,,,,,,,,,,,,,,,,,,,,,,,,,,,,,,,,,,,,,,,,,,,,,,,,,,,
5846,1648953138.8579,1648953138.893833,115.0,0.0,5631.282227000001,4787.692383,4420.512695,4627.179688,4550.256348,0.0,3.0,73.0,,,,0.0,0.0,0.0,0.0,0.0,0.0,0.0,,,,,,,,,,,,,,,,,,,,,,,,,,,,,,,,,,,,,,,,,,,,,,,,,,,,,,,,,,,,,,,,,,,,,,,,,,,,,,,,,,,,
5847,1648953138.865714,1648953138.901648,116.0,0.0,4251.794922,4627.179688,4085.641113,3433.8461909999996,3546.6667479999996,450.0,3.0,73.0,,,,0.0,0.0,0.0,0.0,0.0,0.0,0.0,,,,,,,,58.0,0.0,0.467466,-0.124268,0.07714800000000001,0.871826,0.295415,-0.004883,-0.992691,-0.001438,-0.010686,-0.032304,,,,,,,,,,,,,,,,,,,,,,,,,,,,,,,,,,,,,,,,,,,,,,,,,,,,,,,,,,,,,,,,,
5848,1648953138.873529,1648953138.909363,117.0,0.0,3756.923096,4715.897461,4145.641113000001,3836.4101560000004,4042.0512700000004,450.0,3.0,73.0,,,,0.0,0.0,0.0,0.0,0.0,0.0,0.0,,,,,,,,,,,,,,,,,,,,,,,,,,,,,,,,,,,,,,,,,,,,,,,,,,,,,,0.0,0.0,32.0,0.048979,1.0,0.0,,,,,,,,,,,,,,,,,,,,,,,,,
5849,1648953138.881343,1648953138.917178,118.0,0.0,4644.102539,4862.05127,4135.384765999999,4821.025879,4882.05127,450.0,3.0,73.0,,,,0.0,0.0,0.0,0.0,0.0,0.0,0.0,,,,,,,,59.0,0.0,0.467466,-0.124268,0.07714800000000001,0.871826,0.31006300000000003,-0.020508000000000002,-0.969741,-0.001392,-0.010594,-0.035031,,,,,,,,,,,,,,,,,,,,,,,,,,,,,,,,,,,,,,,,,,,,,,,,,,,,,,,,,,,,,,,,,
5850,1648953138.889158,1648953138.924893,119.0,0.0,4337.436035,4569.743652,3884.615479,4358.974121,4266.153809,0.0,3.0,73.0,,,,0.0,0.0,0.0,0.0,0.0,0.0,0.0,,,,,,,,,,,,,,,,,,,,,,,,,,,,,,,,,,,,,,,,,,,,,,,,,,,,,,,,,,,,,,,,,,,,,,,,,,,,,,,,,,,,
5851,1648953138.8969722,1648953138.932708,120.0,0.0,4222.563965,4334.871582,4113.333496,4284.615234000001,4121.025879,450.0,3.0,73.0,,,,0.0,0.0,0.0,0.0,0.0,0.0,0.0,,,,,,,,60.0,0.0,0.46763599999999994,-0.123779,0.076904,0.871826,0.317388,-0.014649,-0.976089,-0.001301,-0.010707,-0.037533,,,,,,,,,,,,,,,,,,,,,,,,,,,,,,,,,,,,,,,,,,,,,,,,,,,,,,,,,,,,,,,,,
5852,1648953138.9047868,1648953138.940423,121.0,0.0,4630.256348,4461.538574,4374.358886999999,4571.282227000001,4448.717772999999,450.0,3.0,73.0,,,,0.0,0.0,0.0,0.0,0.0,0.0,0.0,,,,,,,,,,,,,,,,,,,,,,,,,,,,,,,,,,,,,,,,,,,,,,,,,,,,,,0.0,0.0,32.0,0.048979,1.0,0.0,,,,,,,,,,,,,,,,,,,,,,,,,
5853,1648953138.912601,1648953138.9483368,122.0,0.0,4054.8718259999996,4462.563965,4267.179688,4034.358887,4020.0,450.0,3.0,73.0,,,,0.0,0.0,0.0,0.0,0.0,0.0,0.0,,,,,,,,61.0,0.0,0.46778100000000006,-0.12353499999999999,0.076416,0.871826,0.294926,-0.012206999999999999,-0.982925,-0.001367,-0.010661,-0.039737,,,,,,,,,,,,,,,,,,,,,,,,,,,,,,,,,,,,,,,,,,,,,,,,,,,,,,,,,,,,,,,,,
5854,1648953138.920416,1648953138.956152,123.0,0.0,4180.0,4355.897461,4387.692383,4380.0,4418.461426,0.0,3.0,73.0,,,,0.0,0.0,0.0,0.0,0.0,0.0,0.0,,,,,,,,,,,,,,,,,,,,,,,,,,,,,,,,,,,,,,,,,,,,,,,,,,,,,,,,,,,,,,,,,,,,,,,,,,,,,,,,,,,,
5855,1648953138.92823,1648953138.964067,124.0,0.0,4353.846191,4376.922852000001,4128.717772999999,4490.769043,4573.846191,450.0,3.0,73.0,,,,0.0,0.0,0.0,0.0,0.0,0.0,0.0,,,,,,,,62.0,0.0,0.46767600000000004,-0.123779,0.07666,0.871826,0.299321,-0.020996,-0.9946440000000001,-0.001279,-0.010572,-0.041672,,,,,,,,,,,,,,,,,,,,,,,,,,,,,,,,,,,,,,,,,,,,,,,,,,,,,,,,,,,,,,,,,
5856,1648953138.936045,1648953138.971882,125.0,0.0,4437.94873,4582.563965,3988.205078,4500.512695,4508.717772999999,450.0,3.0,73.0,,,,0.0,0.0,0.0,0.0,0.0,0.0,0.0,,,,,,,,,,,,,,,,,,,,,,,,,,,,,,,,,,,,,,,,,,,,,,,,,,,,,,0.0,0.0,32.0,0.048979,1.0,0.0,,,,,,,,,,,,,,,,,,,,,,,,,
5857,1648953138.943859,1648953138.9797971,126.0,0.0,4386.666504,4626.153809,4061.538574,4221.025879,4278.461426,450.0,3.0,73.0,,,,0.0,0.0,0.0,0.0,0.0,0.0,0.0,,,,,,,,63.0,0.0,0.467571,-0.12402300000000001,0.076904,0.871826,0.298344,-0.005371,-0.992691,-0.0012,-0.01054,-0.03726,,,,,,,,,,,,,,,,,,,,,,,,,,,,,,,,,,,,,,,,,,,,,,,,,,,,,,,,,,,,,,,,,
5858,1648953138.951674,1648953138.987612,127.0,0.0,4362.563965,4506.666504,4103.077147999999,4007.179443,4232.307617,238.0,3.0,73.0,,,,0.0,0.0,0.0,0.0,0.0,0.0,0.0,,,,,,,,,,,,,,,,,,,,,,,,,,,,,,,,,,,,,,,,,,,,,,,,,,,,,,,,,,,,,,,,,,,,,,,,,,,,,,,,,,,,
5859,1648953138.959489,1648953138.995526,0.0,0.0,4255.897461,4431.794922,4299.487305,4210.256348,4383.077147999999,450.0,3.0,73.0,,,,0.0,0.0,0.0,0.0,0.0,0.0,0.0,,,,,,,,0.0,0.0,0.467466,-0.124268,0.07714800000000001,0.871826,0.305669,-0.030762,-0.987808,-0.0011769999999999999,-0.010609,-0.039492,,,,,,,,,,,,,,,,,,,,,,,,,,,,,,,,,,,,,,,,,,,,,,,,,,,,,,,,,,,,,,,,,
5860,1648953138.967303,1648953139.003341,1.0,0.0,4461.538574,4456.922852000001,4478.461426,4536.922852000001,4681.025879,450.0,3.0,73.0,,,,0.0,0.0,0.0,0.0,0.0,0.0,0.0,1.0,0.0,0.0,0.0,0.0,0.0,0.0,,,,,,,,,,,,,1.0,0.0,0.0,,,,,,,,,,,,,,,,,,,,,,,,,,,,,,,,0.0,0.0,32.0,0.070785,1.0,0.0,1297.448364,1025.4610599999999,369.799347,1380.533203,2135.595703,155.089462,356.159607,373.897156,419.073669,228.46647599999997,420.95364400000005,796.060791,658.265076,242.40562400000002,320.760834,975.8078,1304.244995,1034.1522220000002,1163.3066410000001,2538.4729,821.627258,625.596313,690.392212,1312.485352,2436.644775
5861,1648953138.975118,1648953139.011256,2.0,0.0,4534.358886999999,4695.897461,4437.94873,4376.410156,4478.974121,26.0,3.0,73.0,,,,0.0,0.0,0.0,0.0,0.0,0.0,0.0,,,,,,,,1.0,0.0,0.46705100000000005,-0.124268,0.076904,0.8720700000000001,0.29736799999999997,-0.018555000000000002,-0.99025,-0.001157,-0.010622,-0.041499,,,,,,,,,,,,,,,,,,,,,,,,,,,,,,,,,,,,,,,,,,,,,,,,,,,,,,,,,,,,,,,,,
5862,1648953138.982932,1648953139.019071,3.0,0.0,3804.102539,4792.307617,3854.8718259999996,3625.1281740000004,3528.205078,450.0,3.0,73.0,,,,0.0,0.0,0.0,0.0,0.0,0.0,0.0,,,,,,,,,,,,,,,,,,,,,,,,,,,,,,,,,,,,,,,,,,,,,,,,,,,,,,,,,,,,,,,,,,,,,,,,,,,,,,,,,,,,
5863,1648953138.990747,1648953139.026986,4.0,0.0,5181.538574,4667.692383,3619.487061,5199.487305,5130.256348,0.0,3.0,73.0,,,,0.0,0.0,0.0,0.0,0.0,0.0,0.0,,,,,,,,2.0,0.0,0.467156,-0.12402300000000001,0.07666,0.8720700000000001,0.285649,-0.003906,-0.972183,-0.001188,-0.010634000000000001,-0.036959,,,,,,,,,,,,,,,,,,,,,,,,,,,,,,,,,,,,,,,,,,,,,,,,,,,,,,,,,,,,,,,,,
5864,1648953138.998561,1648953139.034801,5.0,0.0,5453.846191,4674.871582,3662.0512700000004,5719.487305,5678.974121,450.0,3.0,73.0,,,,0.0,0.0,0.0,0.0,0.0,0.0,0.0,,,,,,,,,,,,,,,,,,,,,,,,,,,,,,,,,,,,,,,,,,,,,,,,,,,,,,0.0,0.0,32.0,0.070785,1.0,0.0,,,,,,,,,,,,,,,,,,,,,,,,,
5865,1648953139.006376,1648953139.042715,6.0,0.0,3700.512939,4752.820313,4011.281982,4164.102539,3946.6667479999996,0.0,3.0,73.0,,,,0.0,0.0,0.0,0.0,0.0,0.0,0.0,,,,,,,,3.0,0.0,0.466595,-0.124268,0.076904,0.8723139999999999,0.304204,-0.032227,-0.9834129999999999,-0.0013130000000000001,-0.010546999999999999,-0.039171,,,,,,,,,,,,,,,,,,,,,,,,,,,,,,,,,,,,,,,,,,,,,,,,,,,,,,,,,,,,,,,,,
5866,1648953139.01419,1648953139.0505302,7.0,0.0,3246.153809,4560.512695,4191.794922,3509.2307130000004,3433.8461909999996,450.0,3.0,73.0,,,,0.0,0.0,0.0,0.0,0.0,0.0,0.0,,,,,,,,,,,,,,,,,,,,,,,,,,,,,,,,,,,,,,,,,,,,,,,,,,,,,,,,,,,,,,,,,,,,,,,,,,,,,,,,,,,,
5867,1648953139.022005,1648953139.058245,8.0,0.0,4629.743652,4580.0,4288.205078,4555.384765999999,4652.307617,450.0,3.0,73.0,,,,0.0,0.0,0.0,0.0,0.0,0.0,0.0,,,,,,,,4.0,0.0,0.46705100000000005,-0.124268,0.076904,0.8720700000000001,0.29736799999999997,-0.018555000000000002,-0.99025,-0.001377,-0.010567,-0.034864,,,,,,,,,,,,,,,,,,,,,,,,,,,,,,,,,,,,,,,,,,,,,,,,,,,,,,,,,,,,,,,,,
5868,1648953139.02982,1648953139.06606,9.0,0.0,4350.256348,4762.563965,4505.128418,4654.358886999999,4471.282227000001,0.0,3.0,73.0,,,,0.0,0.0,0.0,0.0,0.0,0.0,0.0,,,,,,,,,,,,,,,,,,,,,,,,,,,,,,,,,,,,,,,,,,,,,,,,,,,,,,0.0,0.0,32.0,0.070785,1.0,0.0,,,,,,,,,,,,,,,,,,,,,,,,,
5869,1648953139.037634,1648953139.073775,10.0,0.0,3516.4101560000004,4476.410156,4362.563965,4060.512939,3877.4357909999994,450.0,3.0,73.0,,,,0.0,0.0,0.0,0.0,0.0,0.0,0.0,,,,,,,,5.0,0.0,0.466595,-0.124268,0.076904,0.8723139999999999,0.304204,-0.032227,-0.9834129999999999,-0.001484,-0.010487,-0.037285000000000006,,,,,,,,,,,,,,,,,,,,,,,,,,,,,,,,,,,,,,,,,,,,,,,,,,,,,,,,,,,,,,,,,
5870,1648953139.045449,1648953139.08169,11.0,0.0,4390.769043,4252.820313,4364.102539,4388.205078,4583.589844,0.0,3.0,73.0,,,,0.0,0.0,0.0,0.0,0.0,0.0,0.0,,,,,,,,,,,,,,,,,,,,,,,,,,,,,,,,,,,,,,,,,,,,,,,,,,,,,,,,,,,,,,,,,,,,,,,,,,,,,,,,,,,,
5871,1648953139.0532632,1648953139.0895052,12.0,0.0,4504.615234000001,4594.358886999999,4385.641113000001,4192.820313,4411.282227000001,450.0,3.0,73.0,,,,0.0,0.0,0.0,0.0,0.0,0.0,0.0,,,,,,,,6.0,0.0,0.466384,-0.12475599999999999,0.07739299999999999,0.8723139999999999,0.300298,-0.021973,-0.988296,-0.001433,-0.010464,-0.039661,,,,,,,,,,,,,,,,,,,,,,,,,,,,,,,,,,,,,,,,,,,,,,,,,,,,,,,,,,,,,,,,,
5872,1648953139.0610778,1648953139.09742,13.0,0.0,4462.05127,4878.461426,4398.461426,4495.384765999999,4467.179688,450.0,3.0,73.0,,,,0.0,0.0,0.0,0.0,0.0,0.0,0.0,,,,,,,,,,,,,,,,,,,,,,,,,,,,,,,,,,,,,,,,,,,,,,,,,,,,,,0.0,0.0,32.0,0.070785,1.0,0.0,,,,,,,,,,,,,,,,,,,,,,,,,
5873,1648953139.068892,1648953139.1052349,14.0,0.0,4429.743652,4846.666504,4145.641113000001,4248.205078,4240.0,450.0,3.0,73.0,,,,0.0,0.0,0.0,0.0,0.0,0.0,0.0,,,,,,,,7.0,0.0,0.46648900000000004,-0.12451199999999998,0.07714800000000001,0.8723139999999999,0.308598,-0.015625,-0.957046,-0.004415,-0.01054,-0.035401999999999996,,,,,,,,,,,,,,,,,,,,,,,,,,,,,,,,,,,,,,,,,,,,,,,,,,,,,,,,,,,,,,,,,
5874,1648953139.0767071,1648953139.113051,15.0,0.0,4585.641113000001,4859.487305,4051.794922,3949.2307130000004,4065.1281740000004,0.0,3.0,73.0,,,,0.0,0.0,0.0,0.0,0.0,0.0,0.0,,,,,,,,,,,,,,,,,,,,,,,,,,,,,,,,,,,,,,,,,,,,,,,,,,,,,,,,,,,,,,,,,,,,,,,,,,,,,,,,,,,,
5875,1648953139.084521,1648953139.120765,16.0,0.0,4493.333496,4676.410156,4064.615479,4051.281982,4210.256348,0.0,3.0,73.0,,,,0.0,0.0,0.0,0.0,0.0,0.0,0.0,,,,,,,,8.0,0.0,0.466805,-0.123779,0.076416,0.8723139999999999,0.307622,-0.008301000000000001,-0.9555809999999999,-0.00412,-0.010512,-0.037721,,,,,,,,,,,,,,,,,,,,,,,,,,,,,,,,,,,,,,,,,,,,,,,,,,,,,,,,,,,,,,,,,
5876,1648953139.092336,1648953139.12858,17.0,0.0,4440.512695,4502.05127,4289.230957,4387.179688,4462.05127,0.0,3.0,73.0,,,,0.0,0.0,0.0,0.0,0.0,0.0,0.0,,,,,,,,,,,,,,,,,,,,1.0,0.0,0.0,,,,,,,,,,,,,,,,,,,,,,,,,,,,,,,,0.0,0.0,32.0,0.062645,1.0,0.0,1487.6405029999999,1106.104858,413.50531,1425.7576900000001,2208.5986329999996,191.403976,342.51611299999996,466.325104,414.057526,204.441772,585.5490110000001,1086.4057619999999,730.421387,288.482819,298.90979,892.2933960000001,1368.895264,1036.0834960000002,1304.344971,2585.106934,833.6026,567.469666,768.912964,1441.725464,2498.942139
5877,1648953139.10015,1648953139.1362948,18.0,0.0,4109.230957,4616.410156,4546.666504,4471.794922,4244.615234000001,0.0,3.0,73.0,,,,0.0,0.0,0.0,0.0,0.0,0.0,0.0,,,,,,,,9.0,0.0,0.46655699999999994,-0.12329100000000001,0.075928,0.872559,0.29443800000000003,-0.026856,-0.991714,-0.003854,-0.010486,-0.033705,,,,,,,,,,,,,,,,,,,,,,,,,,,,,,,,,,,,,,,,,,,,,,,,,,,,,,,,,,,,,,,,,
5878,1648953139.107965,1648953139.14411,19.0,0.0,3819.487061,4581.025879,4318.461426,4164.102539,3902.0512700000004,0.0,3.0,73.0,,,,0.0,0.0,0.0,0.0,0.0,0.0,0.0,,,,,,,,,,,,,,,,,,,,,,,,,,,,,,,,,,,,,,,,,,,,,,,,,,,,,,,,,,,,,,,,,,,,,,,,,,,,,,,,,,,,
5879,1648953139.11578,1648953139.151825,20.0,0.0,4829.230957,4354.871582,4158.461426,4653.846191,4740.0,0.0,3.0,73.0,,,,0.0,0.0,0.0,0.0,0.0,0.0,0.0,,,,,,,,10.0,0.0,0.466909,-0.12353499999999999,0.076172,0.8723139999999999,0.291997,-0.019043,-1.015152,-0.003664,-0.010512,-0.03634,,,,,,,,,,,,,,,,,,,,,,,,,,,,,,,,,,,,,,,,,,,,,,,,,,,,,,,,,,,,,,,,,
5880,1648953139.123594,1648953139.15974,21.0,0.0,3672.820557,4275.384765999999,3937.9487299999996,3471.281982,3620.512939,0.0,3.0,73.0,,,,0.0,0.0,0.0,0.0,0.0,0.0,0.0,,,,,,,,,,,,,,,,,,,,,,,,,,,,,,,,,,,,,,,,,,,,,,,,,,,,,,0.0,0.0,32.0,0.062645,1.0,0.0,,,,,,,,,,,,,,,,,,,,,,,,,
5881,1648953139.131409,1648953139.167555,22.0,0.0,2883.076904,4442.05127,3974.8718259999996,3056.410156,3047.179443,0.0,3.0,73.0,,,,0.0,0.0,0.0,0.0,0.0,0.0,0.0,,,,,,,,11.0,0.0,0.466595,-0.124268,0.076904,0.8723139999999999,0.293462,-0.016114,-1.009781,-0.0034439999999999996,-0.010486,-0.038613999999999996,,,,,,,,,,,,,,,,,,,,,,,,,,,,,,,,,,,,,,,,,,,,,,,,,,,,,,,,,,,,,,,,,
5882,1648953139.139223,1648953139.1754699,23.0,0.0,4376.410156,4533.846191,4264.102539,4531.794922,4529.230957,0.0,3.0,73.0,,,,0.0,0.0,0.0,0.0,0.0,0.0,0.0,,,,,,,,,,,,,,,,,,,,,,,,,,,,,,,,,,,,,,,,,,,,,,,,,,,,,,,,,,,,,,,,,,,,,,,,,,,,,,,,,,,,
5883,1648953139.147038,1648953139.183285,24.0,0.0,5121.025879,4543.077147999999,4512.820313,5052.307617,5207.692383,0.0,3.0,73.0,,,,0.0,0.0,0.0,0.0,0.0,0.0,0.0,,,,,,,,12.0,0.0,0.466555,-0.124268,0.07714800000000001,0.8723139999999999,0.295903,-0.012695999999999999,-0.9790190000000001,-0.003246,-0.010511,-0.040612,,,,,,,,,,,,,,,,,,,,,,,,,,,,,,,,,,,,,,,,,,,,,,,,,,,,,,,,,,,,,,,,,
5884,1648953139.154852,1648953139.191199,25.0,0.0,4055.897461,4531.794922,4352.820313,3976.4101560000004,4193.333496,0.0,3.0,73.0,,,,0.0,0.0,0.0,0.0,0.0,0.0,0.0,,,,,,,,,,,,,,,,,,,,,,,,,,,,,,,,,,,,,,,,,,,,,,,,,,,,,,0.0,0.0,32.0,0.062645,1.0,0.0,,,,,,,,,,,,,,,,,,,,,,,,,
5885,1648953139.162667,1648953139.199014,26.0,0.0,4049.2307130000004,4667.692383,4183.589844,3918.461426,3948.718018,0.0,3.0,73.0,,,,0.0,0.0,0.0,0.0,0.0,0.0,0.0,,,,,,,,13.0,0.0,0.466765,-0.123779,0.07666,0.8723139999999999,0.303716,-0.015137000000000001,-0.9633940000000001,-0.0032630000000000003,-0.010631999999999999,-0.036209,,,,,,,,,,,,,,,,,,,,,,,,,,,,,,,,,,,,,,,,,,,,,,,,,,,,,,,,,,,,,,,,,
5886,1648953139.170481,1648953139.206929,27.0,0.0,4622.05127,4805.128418,4191.282227000001,4725.128418,4515.897461,0.0,3.0,73.0,,,,0.0,0.0,0.0,0.0,0.0,0.0,0.0,,,,,,,,,,,,,,,,,,,,,,,,,,,,,,,,,,,,,,,,,,,,,,,,,,,,,,,,,,,,,,,,,,,,,,,,,,,,,,,,,,,,
5887,1648953139.178296,1648953139.214844,28.0,0.0,4263.589844,4663.077147999999,3851.281982,4358.461426,4227.692383,0.0,3.0,73.0,,,,0.0,0.0,0.0,0.0,0.0,0.0,0.0,,,,,,,,14.0,0.0,0.46651800000000004,-0.12329100000000001,0.076172,0.872559,0.292485,-0.029786,-0.964858,-0.0031320000000000002,-0.010643000000000001,-0.038546,,,,,,,,,,,,,,,,,,,,,,,,,,,,,,,,,,,,,,,,,,,,,,,,,,,,,,,,,,,,,,,,,
5888,1648953139.18611,1648953139.2226589,29.0,0.0,4775.384765999999,4520.0,3798.461426,4496.410156,4523.589844,0.0,3.0,73.0,,,,0.0,0.0,0.0,0.0,0.0,0.0,0.0,,,,,,,,,,,,,,,,,,,,,,,,,,,,,,,,,,,,,,,,,,,,,,,,,,,,,,0.0,0.0,32.0,0.062645,1.0,0.0,,,,,,,,,,,,,,,,,,,,,,,,,
5889,1648953139.193925,1648953139.230474,30.0,0.0,4436.922852000001,4405.128418,4163.589844,4201.538574,4188.205078,0.0,3.0,73.0,,,,0.0,0.0,0.0,0.0,0.0,0.0,0.0,,,,,,,,15.0,0.0,0.466974,-0.12329100000000001,0.076172,0.8723139999999999,0.291508,-0.027344,-0.989273,-0.0029170000000000003,-0.010653,-0.040648000000000004,,,,,,,,,,,,,,,,,,,,,,,,,,,,,,,,,,,,,,,,,,,,,,,,,,,,,,,,,,,,,,,,,
5890,1648953139.20174,1648953139.238189,31.0,0.0,4137.436035,4389.230957,4686.666504,4229.230957,4293.333496,0.0,3.0,73.0,,,,0.0,0.0,0.0,0.0,0.0,0.0,0.0,,,,,,,,,,,,,,,,,,,,,,,,,,,,,,,,,,,,,,,,,,,,,,,,,,,,,,,,,,,,,,,,,,,,,,,,,,,,,,,,,,,,
5891,1648953139.209554,1648953139.2460039,32.0,0.0,4384.615234000001,4540.0,4357.94873,4471.282227000001,4654.358886999999,0.0,3.0,73.0,,,,0.0,0.0,0.0,0.0,0.0,0.0,0.0,,,,,,,,16.0,0.0,0.46666,-0.12402300000000001,0.076904,0.8723139999999999,0.290044,-0.007812999999999999,-0.995132,-0.002723,-0.010711,-0.036338999999999996,,,,,,,,,,,,,,,,,,,,,,,,,,,,,,,,,,,,,,,,,,,,,,,,,,,,,,,,,,,,,,,,,
5892,1648953139.2173688,1648953139.2537189,33.0,0.0,4543.589844,4710.769043,3947.179443,4489.743652,4546.666504,0.0,3.0,73.0,,,,0.0,0.0,0.0,0.0,0.0,0.0,0.0,,,,,,,,,,,,,,,,,,,,1.0,0.0,0.0,,,,,,,,,,,,,,,,,,,,,,,,,,,,,,,,0.0,0.0,32.0,0.077389,1.0,0.0,1621.253296,1178.787476,510.22399900000005,1453.4823,2255.077393,214.41729700000002,331.44809,577.875549,398.878143,186.531982,756.388367,1343.335693,796.185608,360.88266,294.050537,816.316895,1367.90918,1015.146545,1450.516724,2598.029541,863.37677,547.037048,847.569458,1539.858154,2479.165527
5893,1648953139.225183,1648953139.261534,34.0,0.0,4466.666504,4709.230957,3987.6923829999996,4308.717772999999,4283.077147999999,0.0,3.0,73.0,,,,0.0,0.0,0.0,0.0,0.0,0.0,0.0,,,,,,,,17.0,0.0,0.466555,-0.124268,0.07714800000000001,0.8723139999999999,0.30518,-0.02002,-0.9746239999999999,-0.002548,-0.010763,-0.038564999999999995,,,,,,,,,,,,,,,,,,,,,,,,,,,,,,,,,,,,,,,,,,,,,,,,,,,,,,,,,,,,,,,,,
5894,1648953139.2329981,1648953139.269249,35.0,0.0,4348.717772999999,4635.384765999999,4091.794922,4053.8461909999996,4200.0,0.0,3.0,73.0,,,,0.0,0.0,0.0,0.0,0.0,0.0,0.0,,,,,,,,,,,,,,,,,,,,,,,,,,,,,,,,,,,,,,,,,,,,,,,,,,,,,,,,,,,,,,,,,,,,,,,,,,,,,,,,,,,,
5895,1648953139.2408118,1648953139.277064,36.0,0.0,4285.128418,4588.717772999999,4026.6667479999996,4166.153809,4437.94873,0.0,3.0,73.0,,,,0.0,0.0,0.0,0.0,0.0,0.0,0.0,,,,,,,,18.0,0.0,0.46666,-0.12402300000000001,0.076904,0.8723139999999999,0.310552,-0.030762,-0.9560690000000001,-0.002489,-0.010712000000000001,-0.040665,,,,,,,,,,,,,,,,,,,,,,,,,,,,,,,,,,,,,,,,,,,,,,,,,,,,,,,,,,,,,,,,,
5896,1648953139.248627,1648953139.2847788,37.0,0.0,4308.717772999999,4543.077147999999,3978.461426,4384.615234000001,4509.743652,0.0,3.0,73.0,,,,0.0,0.0,0.0,0.0,0.0,0.0,0.0,,,,,,,,,,,,,,,,,,,,,,,,,,,,,,,,,,,,,,,,,,,,,,,,,,,,,,0.0,0.0,32.0,0.077389,1.0,0.0,,,,,,,,,,,,,,,,,,,,,,,,,
5897,1648953139.256441,1648953139.292594,38.0,0.0,4525.641113000001,4449.743652,4161.025879,4423.589844,4446.666504,0.0,3.0,73.0,,,,0.0,0.0,0.0,0.0,0.0,0.0,0.0,,,,,,,,19.0,0.0,0.46687,-0.12353499999999999,0.076416,0.8723139999999999,0.31006300000000003,-0.030762,-0.959976,-0.002337,-0.010715,-0.042556000000000004,,,,,,,,,,,,,,,,,,,,,,,,,,,,,,,,,,,,,,,,,,,,,,,,,,,,,,,,,,,,,,,,,
5898,1648953139.264256,1648953139.300309,39.0,0.0,4463.589844,4242.563965,4404.102539,4317.94873,4381.025879,0.0,3.0,73.0,,,,0.0,0.0,0.0,0.0,0.0,0.0,0.0,,,,,,,,,,,,,,,,,,,,,,,,,,,,,,,,,,,,,,,,,,,,,,,,,,,,,,,,,,,,,,,,,,,,,,,,,,,,,,,,,,,,
5899,1648953139.2720711,1648953139.308124,40.0,0.0,4187.692383,4169.230957,4429.230957,4232.307617,4291.794922,0.0,3.0,73.0,,,,0.0,0.0,0.0,0.0,0.0,0.0,0.0,,,,,,,,20.0,0.0,0.46683,-0.12353499999999999,0.07666,0.8723139999999999,0.289555,-0.017578,-0.980484,-0.002153,-0.010620000000000001,-0.038007,,,,,,,,,,,,,,,,,,,,,,,,,,,,,,,,,,,,,,,,,,,,,,,,,,,,,,,,,,,,,,,,,
5900,1648953139.279885,1648953139.315839,41.0,0.0,4073.3332520000004,4302.563965,4371.282227000001,4206.666504,4304.102539,0.0,3.0,73.0,,,,0.0,0.0,0.0,0.0,0.0,0.0,0.0,,,,,,,,,,,,,,,,,,,,,,,,,,,,,,,,,,,,,,,,,,,,,,,,,,,,,,12.0,0.0,32.0,0.077389,1.0,0.0,,,,,,,,,,,,,,,,,,,,,,,,,
5901,1648953139.2877,1648953139.323654,42.0,0.0,4312.820313,4413.846191,4386.153809,4359.487305,4477.94873,0.0,3.0,73.0,,,,0.0,0.0,0.0,0.0,0.0,0.0,0.0,,,,,,,,21.0,0.0,0.46666,-0.12402300000000001,0.076904,0.8723139999999999,0.291508,-0.017578,-0.993667,-0.001986,-0.010681,-0.040164,,,,,,,,,,,,,,,,,,,,,,,,,,,,,,,,,,,,,,,,,,,,,,,,,,,,,,,,,,,,,,,,,
5902,1648953139.295514,1648953139.331368,43.0,0.0,4534.358886999999,4605.128418,4162.563965,4372.307617,4513.846191,0.0,3.0,73.0,,,,0.0,0.0,0.0,0.0,0.0,0.0,0.0,,,,,,,,,,,,,,,,,,,,,,,,,,,,,,,,,,,,,,,,,,,,,,,,,,,,,,,,,,,,,,,,,,,,,,,,,,,,,,,,,,,,
5903,1648953139.303329,1648953139.339183,44.0,0.0,4429.743652,4897.436035,3934.358887,4180.512695,4395.384765999999,0.0,3.0,73.0,,,,0.0,0.0,0.0,0.0,0.0,0.0,0.0,,,,,,,,22.0,0.0,0.46697,-0.124268,0.07739299999999999,0.8720700000000001,0.288579,-0.019532,-0.9751129999999999,-0.0018850000000000002,-0.010736,-0.042152999999999996,,,,,,,,,,,,,,,,,,,,,,,,,,,,,,,,,,,,,,,,,,,,,,,,,,,,,,,,,,,,,,,,,
5904,1648953139.311143,1648953139.346898,45.0,0.0,4243.589844,4952.820313,3995.384521,4072.3076170000004,4245.641113000001,0.0,3.0,73.0,,,,0.0,0.0,0.0,0.0,0.0,0.0,0.0,,,,,,,,,,,,,,,,,,,,,,,,,,,,,,,,,,,,,,,,,,,,,,,,,,,,,,12.0,0.0,32.0,0.077389,1.0,0.0,,,,,,,,,,,,,,,,,,,,,,,,,
5905,1648953139.318958,1648953139.354813,46.0,0.0,4253.333496,4750.769043,3931.281982,4253.846191,4203.589844,0.0,3.0,73.0,,,,0.0,0.0,0.0,0.0,0.0,0.0,0.0,,,,,,,,23.0,0.0,0.46662,-0.12402300000000001,0.07714800000000001,0.8723139999999999,0.30811,-0.015137000000000001,-0.9633940000000001,-0.001794,-0.010883,-0.043894999999999997,,,,,,,,,,,,,,,,,,,,,,,,,,,,,,,,,,,,,,,,,,,,,,,,,,,,,,,,,,,,,,,,,
5906,1648953139.326772,1648953139.362628,47.0,0.0,4416.922852000001,4569.230957,3765.641113,4564.615234000001,4286.666504,0.0,3.0,73.0,,,,0.0,0.0,0.0,0.0,0.0,0.0,0.0,,,,,,,,,,,,,,,,,,,,,,,,,,,,,,,,,,,,,,,,,,,,,,,,,,,,,,,,,,,,,,,,,,,,,,,,,,,,,,,,,,,,
5907,1648953139.3345869,1648953139.370543,48.0,0.0,4651.282227000001,4534.358886999999,3807.6923829999996,4564.102539,4391.282227000001,0.0,3.0,73.0,,,,0.0,0.0,0.0,0.0,0.0,0.0,0.0,,,,,,,,24.0,0.0,0.466725,-0.123779,0.076904,0.8723139999999999,0.316899,-0.02002,-0.972671,-0.001713,-0.010918,-0.045364999999999996,,,,,,,,,,,,,,,,,,,,,,,,,,,,,,,,,,,,,,,,,,,,,,,,,,,,,,,,,,,,,,,,,
5908,1648953139.342401,1648953139.3783581,49.0,0.0,4529.230957,4534.871582,4131.794922,4288.205078,4303.589844,0.0,3.0,73.0,,,,0.0,0.0,0.0,0.0,0.0,0.0,0.0,,,,,,,,,,,,,,,,,,,,1.0,0.0,0.0,,,,,,,,,,,,,,,,,,,,,,,,,,,,,,,,12.0,0.0,32.0,0.06540800000000001,1.0,0.0,1614.6676029999999,1219.102539,620.134155,1420.794312,2233.876465,219.850967,326.870087,682.716858,372.651154,176.415436,885.812378,1501.876831,837.2525019999999,452.499908,298.302582,706.513428,1287.204834,943.544678,1515.037231,2552.806641,832.959351,537.805908,863.75824,1530.61084,2369.895264
5909,1648953139.350216,1648953139.386272,50.0,0.0,4129.743652,4421.025879,4493.846191,4211.794922,4246.666504,0.0,3.0,73.0,,,,0.0,0.0,0.0,0.0,0.0,0.0,0.0,,,,,,,,25.0,0.0,0.466789,-0.12353499999999999,0.076904,0.8723139999999999,0.305669,-0.015137000000000001,-0.982925,-0.00159,-0.0109,-0.046835,,,,,,,,,,,,,,,,,,,,,,,,,,,,,,,,,,,,,,,,,,,,,,,,,,,,,,,,,,,,,,,,,
5910,1648953139.35803,1648953139.3940868,51.0,0.0,4223.077147999999,4432.307617,4415.897461,4393.333496,4509.230957,0.0,3.0,73.0,,,,0.0,0.0,0.0,0.0,0.0,0.0,0.0,,,,,,,,,,,,,,,,,,,,,,,,,,,,,,,,,,,,,,,,,,,,,,,,,,,,,,,,,,,,,,,,,,,,,,,,,,,,,,,,,,,,
5911,1648953139.365845,1648953139.401802,52.0,0.0,4540.512695,4701.538574,3924.102539,4535.897461,4605.641113000001,0.0,3.0,73.0,,,,0.0,0.0,0.0,0.0,0.0,0.0,0.0,,,,,,,,26.0,0.0,0.46662,-0.12402300000000001,0.07714800000000001,0.8723139999999999,0.289555,-0.014159999999999999,-0.9746239999999999,-0.00148,-0.010836,-0.041858,,,,,,,,,,,,,,,,,,,,,,,,,,,,,,,,,,,,,,,,,,,,,,,,,,,,,,,,,,,,,,,,,
5912,1648953139.3736598,1648953139.409617,53.0,0.0,4472.307617,4747.179688,3777.9487299999996,4393.333496,4356.922852000001,0.0,3.0,73.0,,,,0.0,0.0,0.0,0.0,0.0,0.0,0.0,,,,,,,,,,,,,,,,,,,,,,,,,,,,,,,,,,,,,,,,,,,,,,,,,,,,,,12.0,0.0,32.0,0.06540800000000001,1.0,0.0,,,,,,,,,,,,,,,,,,,,,,,,,
5913,1648953139.381474,1648953139.417332,54.0,0.0,4323.589844,4495.897461,3951.281982,4072.3076170000004,4196.922852000001,0.0,3.0,73.0,,,,0.0,0.0,0.0,0.0,0.0,0.0,0.0,,,,,,,,27.0,0.0,0.46651400000000004,-0.124268,0.07739299999999999,0.8723139999999999,0.29443800000000003,-0.020996,-0.9863430000000001,-0.00143,-0.010778,-0.043677999999999995,,,,,,,,,,,,,,,,,,,,,,,,,,,,,,,,,,,,,,,,,,,,,,,,,,,,,,,,,,,,,,,,,
5914,1648953139.3892891,1648953139.425147,55.0,0.0,4289.230957,4476.410156,4153.846191,4127.179688,4330.769043,0.0,3.0,73.0,,,,0.0,0.0,0.0,0.0,0.0,0.0,0.0,,,,,,,,,,,,,,,,,,,,,,,,,,,,,,,,,,,,,,,,,,,,,,,,,,,,,,,,,,,,,,,,,,,,,,,,,,,,,,,,,,,,
5915,1648953139.3971028,1648953139.432962,56.0,0.0,4273.333496,4616.410156,4347.692383,4389.230957,4561.025879,0.0,3.0,73.0,,,,0.0,0.0,0.0,0.0,0.0,0.0,0.0,,,,,,,,28.0,0.0,0.46651400000000004,-0.124268,0.07739299999999999,0.8723139999999999,0.298833,-0.011719,-0.979507,-0.001335,-0.010676,-0.039017,,,,,,,,,,,,,,,,,,,,,,,,,,,,,,,,,,,,,,,,,,,,,,,,,,,,,,,,,,,,,,,,,
5916,1648953139.404918,1648953139.440777,57.0,0.0,4461.025879,4529.230957,4369.230957,4410.769043,4595.897461,0.0,3.0,73.0,,,,0.0,0.0,0.0,0.0,0.0,0.0,0.0,,,,,,,,,,,,,,,,,,,,,,,,,,,,,,,,,,,,,,,,,,,,,,,,,,,,,,12.0,0.0,32.0,0.06540800000000001,1.0,0.0,,,,,,,,,,,,,,,,,,,,,,,,,
5917,1648953139.4127321,1648953139.448492,58.0,0.0,4551.794922,4475.384765999999,4294.358886999999,4303.077147999999,4279.487305,0.0,3.0,73.0,,,,0.0,0.0,0.0,0.0,0.0,0.0,0.0,,,,,,,,29.0,0.0,0.46697,-0.124268,0.07739299999999999,0.8720700000000001,0.291997,-0.021973,-0.977554,-0.0013,-0.010634000000000001,-0.034823,,,,,,,,,,,,,,,,,,,,,,,,,,,,,,,,,,,,,,,,,,,,,,,,,,,,,,,,,,,,,,,,,
5918,1648953139.420547,1648953139.456307,59.0,0.0,4348.717772999999,4642.563965,4271.282227000001,4331.282227000001,4140.512695,0.0,3.0,73.0,,,,0.0,0.0,0.0,0.0,0.0,0.0,0.0,,,,,,,,,,,,,,,,,,,,,,,,,,,,,,,,,,,,,,,,,,,,,,,,,,,,,,,,,,,,,,,,,,,,,,,,,,,,,,,,,,,,
5919,1648953139.428362,1648953139.4640222,60.0,0.0,4208.717772999999,4721.025879,4126.666504,4416.410156,4347.179688,0.0,3.0,73.0,,,,0.0,0.0,0.0,0.0,0.0,0.0,0.0,,,,,,,,30.0,0.0,0.46693,-0.124268,0.077637,0.8720700000000001,0.291997,-0.015137000000000001,-0.964858,-0.001267,-0.010694,-0.037346,,,,,,,,,,,,,,,,,,,,,,,,,,,,,,,,,,,,,,,,,,,,,,,,,,,,,,,,,,,,,,,,,
5920,1648953139.436176,1648953139.4718368,61.0,0.0,4565.641113000001,4758.461426,4022.0512700000004,4745.641113000001,4690.769043,0.0,3.0,73.0,,,,0.0,0.0,0.0,0.0,0.0,0.0,0.0,,,,,,,,,,,,,,,,,,,,,,,,,,,,,,,,,,,,,,,,,,,,,,,,,,,,,,12.0,0.0,32.0,0.06540800000000001,1.0,0.0,,,,,,,,,,,,,,,,,,,,,,,,,
5921,1648953139.443991,1648953139.479552,62.0,0.0,4413.846191,4620.512695,3926.1538090000004,4387.692383,4334.871582,0.0,3.0,73.0,,,,0.0,0.0,0.0,0.0,0.0,0.0,0.0,,,,,,,,31.0,0.0,0.466196,-0.125,0.078125,0.8723139999999999,0.290532,-0.0063479999999999995,-1.00734,-0.001287,-0.010601000000000001,-0.039667,,,,,,,,,,,,,,,,,,,,,,,,,,,,,,,,,,,,,,,,,,,,,,,,,,,,,,,,,,,,,,,,,
5922,1648953139.451805,1648953139.487366,63.0,0.0,4053.3332520000004,4136.922852000001,3876.923096,4082.0512700000004,4093.8461909999996,0.0,3.0,73.0,,,,0.0,0.0,0.0,0.0,0.0,0.0,0.0,,,,,,,,,,,,,,,,,,,,,,,,,,,,,,,,,,,,,,,,,,,,,,,,,,,,,,,,,,,,,,,,,,,,,,,,,,,,,,,,,,,,
5923,1648953139.45962,1648953139.495081,64.0,0.0,4871.794922,4358.461426,4779.487305,5147.692383,5135.897461,450.0,3.0,73.0,,,,0.0,0.0,0.0,0.0,0.0,0.0,0.0,,,,,,,,32.0,0.0,0.46697,-0.124268,0.07739299999999999,0.8720700000000001,0.291997,-0.021973,-0.977554,-0.001256,-0.010565999999999999,-0.035407,,,,,,,,,,,,,,,,,,,,,,,,,,,,,,,,,,,,,,,,,,,,,,,,,,,,,,,,,,,,,,,,,
5924,1648953139.467434,1648953139.5029962,65.0,0.0,4651.794922,5013.846191,4975.897461,4245.641113000001,4563.077147999999,450.0,3.0,73.0,,,,0.0,2.0,0.0,0.0,0.0,0.0,0.0,1.0,0.0,0.0,0.0,0.0,0.0,0.0,,,,,,,,,,,,,1.0,0.0,0.0,,,,,,,,,,,,,,,,,,,,,,,,,,,,,,,,0.0,0.0,32.0,0.050423,1.0,0.0,1446.469971,1226.3126220000001,725.897278,1316.041382,2167.46875,209.706909,328.226227,757.502808,339.042572,173.78048700000002,934.7006230000001,1527.512939,846.0522460000001,553.47821,301.217468,566.420288,1135.794678,833.398865,1465.272461,2460.737793,722.436584,511.078308,806.131958,1399.448242,2218.39624
5925,1648953139.475249,1648953139.5108118,66.0,0.0,4472.307617,4874.358886999999,4334.871582,3485.1281740000004,3976.4101560000004,178.0,3.0,73.0,,,,0.0,2.0,0.0,0.0,0.0,0.0,0.0,,,,,,,,33.0,0.0,0.466196,-0.125,0.078125,0.8723139999999999,0.290532,-0.0063479999999999995,-1.00734,-0.001277,-0.010486,-0.037920999999999996,,,,,,,,,,,,,,,,,,,,,,,,,,,,,,,,,,,,,,,,,,,,,,,,,,,,,,,,,,,,,,,,,
5926,1648953139.483063,1648953139.5187259,67.0,0.0,4767.179688,4268.205078,4079.487061,4309.230957,4334.358886999999,450.0,3.0,73.0,,,,0.0,2.0,0.0,0.0,0.0,0.0,0.0,,,,,,,,,,,,,,,,,,,,,,,,,,,,,,,,,,,,,,,,,,,,,,,,,,,,,,,,,,,,,,,,,,,,,,,,,,,,,,,,,,,,
5927,1648953139.4908779,1648953139.526541,68.0,0.0,5064.102539,4392.820313,4399.487305,4944.615234000001,4941.025879,33.0,3.0,73.0,,,,0.0,2.0,0.0,0.0,0.0,0.0,0.0,,,,,,,,34.0,0.0,0.46606499999999995,-0.12548800000000002,0.078125,0.8723139999999999,0.29395,-0.01709,-0.973648,-0.0013449999999999998,-0.010561,-0.033885000000000005,,,,,,,,,,,,,,,,,,,,,,,,,,,,,,,,,,,,,,,,,,,,,,,,,,,,,,,,,,,,,,,,,
5928,1648953139.498692,1648953139.534456,69.0,0.0,4445.128418,4744.102539,4108.205078,4131.794922,4509.230957,450.0,3.0,73.0,,,,0.0,2.0,0.0,0.0,0.0,0.0,0.0,,,,,,,,,,,,,,,,,,,,,,,,,,,,,,,,,,,,,,,,,,,,,,,,,,,,,,0.0,0.0,32.0,0.050423,1.0,0.0,,,,,,,,,,,,,,,,,,,,,,,,,
5929,1648953139.506507,1648953139.5422711,70.0,0.0,4575.897461,4505.128418,3952.820557,4389.743652,4584.615234000001,0.0,3.0,73.0,,,,0.0,2.0,0.0,0.0,0.0,0.0,0.0,,,,,,,,35.0,0.0,0.46617200000000003,-0.125244,0.07788099999999999,0.8723139999999999,0.304204,-0.01709,-0.963882,-0.0013570000000000001,-0.01053,-0.030251999999999998,,,,,,,,,,,,,,,,,,,,,,,,,,,,,,,,,,,,,,,,,,,,,,,,,,,,,,,,,,,,,,,,,
5930,1648953139.514321,1648953139.550186,71.0,0.0,4875.384765999999,4329.743652,4208.205078,4412.307617,4435.384765999999,450.0,3.0,73.0,,,,0.0,2.0,0.0,0.0,0.0,0.0,0.0,,,,,,,,,,,,,,,,,,,,,,,,,,,,,,,,,,,,,,,,,,,,,,,,,,,,,,,,,,,,,,,,,,,,,,,,,,,,,,,,,,,,
5931,1648953139.522136,1648953139.558001,72.0,0.0,4442.563965,4407.692383,4299.487305,3833.3332520000004,4133.333496,450.0,3.0,73.0,,,,0.0,2.0,0.0,0.0,0.0,0.0,0.0,,,,,,,,36.0,0.0,0.466343,-0.12475599999999999,0.077637,0.8723139999999999,0.314946,-0.031738999999999996,-0.980484,-0.001367,-0.010502,-0.033184,,,,,,,,,,,,,,,,,,,,,,,,,,,,,,,,,,,,,,,,,,,,,,,,,,,,,,,,,,,,,,,,,
5932,1648953139.529951,1648953139.565915,73.0,0.0,4400.512695,4411.794922,4542.563965,4295.384765999999,4660.0,0.0,3.0,73.0,,,,0.0,2.0,0.0,0.0,0.0,0.0,0.0,,,,,,,,,,,,,,,,,,,,,,,,,,,,,,,,,,,,,,,,,,,,,,,,,,,,,,0.0,0.0,32.0,0.050423,1.0,0.0,,,,,,,,,,,,,,,,,,,,,,,,,
5933,1648953139.537765,1648953139.57373,74.0,0.0,4473.333496,4365.641113000001,4463.077147999999,4165.641113000001,4437.94873,450.0,3.0,73.0,,,,0.0,2.0,0.0,0.0,0.0,0.0,0.0,,,,,,,,37.0,0.0,0.466555,-0.124268,0.07714800000000001,0.8723139999999999,0.298833,-0.008789,-0.9668120000000001,-0.001328,-0.01038,-0.036067,,,,,,,,,,,,,,,,,,,,,,,,,,,,,,,,,,,,,,,,,,,,,,,,,,,,,,,,,,,,,,,,,
5934,1648953139.5455801,1648953139.581645,75.0,0.0,4423.589844,4322.05127,4195.897461,3905.641113,4313.333496,33.0,3.0,73.0,,,,0.0,2.0,0.0,0.0,0.0,0.0,0.0,,,,,,,,,,,,,,,,,,,,,,,,,,,,,,,,,,,,,,,,,,,,,,,,,,,,,,,,,,,,,,,,,,,,,,,,,,,,,,,,,,,,
5935,1648953139.5533938,1648953139.58946,76.0,0.0,3734.358887,4243.589844,3956.4101560000004,3941.025635,4333.846191,450.0,3.0,73.0,,,,0.0,2.0,0.0,0.0,0.0,0.0,0.0,,,,,,,,38.0,0.0,0.466765,-0.123779,0.07666,0.8723139999999999,0.301274,-0.018067,-0.9863430000000001,-0.001342,-0.010416,-0.038466,,,,,,,,,,,,,,,,,,,,,,,,,,,,,,,,,,,,,,,,,,,,,,,,,,,,,,,,,,,,,,,,,
5936,1648953139.561209,1648953139.597375,77.0,0.0,4161.025879,4307.179688,4034.8718259999996,4345.128418,4568.717772999999,450.0,3.0,73.0,,,,0.0,2.0,0.0,0.0,0.0,0.0,0.0,,,,,,,,,,,,,,,,,,,,,,,,,,,,,,,,,,,,,,,,,,,,,,,,,,,,,,0.0,0.0,32.0,0.050423,1.0,0.0,,,,,,,,,,,,,,,,,,,,,,,,,
5937,1648953139.5690231,1648953139.60519,78.0,0.0,4378.461426,4505.641113000001,4148.717772999999,3882.5642090000006,4112.307617,450.0,3.0,73.0,,,,0.0,2.0,0.0,0.0,0.0,0.0,0.0,,,,,,,,39.0,0.0,0.466765,-0.123779,0.07666,0.8723139999999999,0.295415,-0.015137000000000001,-1.158709,-0.001452,-0.010498,-0.034229,,,,,,,,,,,,,,,,,,,,,,,,,,,,,,,,,,,,,,,,,,,,,,,,,,,,,,,,,,,,,,,,,
5938,1648953139.576838,1648953139.612905,79.0,0.0,3652.820557,4536.410156,4162.563965,3437.4357909999994,3857.9487299999996,33.0,3.0,73.0,,,,0.0,2.0,0.0,0.0,0.0,0.0,0.0,,,,,,,,,,,,,,,,,,,,,,,,,,,,,,,,,,,,,,,,,,,,,,,,,,,,,,,,,,,,,,,,,,,,,,,,,,,,,,,,,,,,
5939,1648953139.584653,1648953139.620719,80.0,0.0,5022.563965,4630.769043,4482.563965,5027.692383,5569.743652,450.0,3.0,73.0,,,,0.0,2.0,0.0,0.0,0.0,0.0,0.0,,,,,,,,40.0,0.0,0.466555,-0.124268,0.07714800000000001,0.8723139999999999,0.291508,-0.02002,-1.02443,-0.0014039999999999999,-0.010620000000000001,-0.036812,,,,,,,,,,,,,,,,,,,,,,,,,,,,,,,,,,,,,,,,,,,,,,,,,,,,,,,,,,,,,,,,,
5940,1648953139.592467,1648953139.628434,81.0,0.0,5380.0,4688.205078,4380.0,4985.641113000001,5125.641113000001,450.0,3.0,73.0,,,,0.0,2.0,0.0,0.0,0.0,0.0,0.0,,,,,,,,,,,,,,,,,,,,1.0,0.0,0.0,,,,,,,,,,,,,,,,,,,,,,,,,,,,,,,,0.0,0.0,32.0,0.063775,1.0,0.0,1166.591431,1215.299438,812.745361,1156.8845210000002,2110.2658690000003,192.10382099999998,334.231842,796.375854,303.794037,175.595871,888.296997,1429.2735599999999,840.430359,655.80542,294.963409,431.04251100000005,941.902222,710.205933,1321.577271,2352.849854,566.291565,451.166779,694.3690190000001,1188.778198,2088.3903809999997
5941,1648953139.600282,1648953139.636349,82.0,0.0,4226.666504,4683.589844,4218.974121,3960.512939,3686.6667479999996,450.0,3.0,73.0,,,,0.0,2.0,0.0,0.0,0.0,0.0,0.0,,,,,,,,41.0,0.0,0.46648900000000004,-0.12451199999999998,0.07714800000000001,0.8723139999999999,0.295903,-0.013672,-0.9633940000000001,-0.00141,-0.010681,-0.032838,,,,,,,,,,,,,,,,,,,,,,,,,,,,,,,,,,,,,,,,,,,,,,,,,,,,,,,,,,,,,,,,,
5942,1648953139.6080961,1648953139.644165,83.0,0.0,3918.461426,4729.743652,3971.794922,3963.5898439999996,3944.102539,33.0,3.0,73.0,,,,0.0,2.0,0.0,0.0,0.0,0.0,0.0,,,,,,,,,,,,,,,,,,,,,,,,,,,,,,,,,,,,,,,,,,,,,,,,,,,,,,,,,,,,,,,,,,,,,,,,,,,,,,,,,,,,
5943,1648953139.615911,1648953139.65208,84.0,0.0,4792.820313,4684.102539,4038.461426,5031.282227000001,5141.025879,450.0,3.0,73.0,,,,0.0,2.0,0.0,0.0,0.0,0.0,0.0,,,,,,,,42.0,0.0,0.466595,-0.124268,0.076904,0.8723139999999999,0.300786,-0.028808999999999998,-0.9790190000000001,-0.001465,-0.010687,-0.035413,,,,,,,,,,,,,,,,,,,,,,,,,,,,,,,,,,,,,,,,,,,,,,,,,,,,,,,,,,,,,,,,,
5944,1648953139.623725,1648953139.659895,85.0,0.0,4315.897461,4569.743652,3977.9487299999996,4498.974121,4338.974121,450.0,3.0,73.0,,,,0.0,2.0,0.0,0.0,0.0,0.0,0.0,,,,,,,,,,,,,,,,,,,,,,,,,,,,,,,,,,,,,,,,,,,,,,,,,,,,,,0.0,0.0,32.0,0.063775,1.0,0.0,,,,,,,,,,,,,,,,,,,,,,,,,
5945,1648953139.63154,1648953139.66771,86.0,0.0,4184.102539,4644.102539,4027.179443,4126.666504,4100.0,450.0,3.0,73.0,,,,0.0,2.0,0.0,0.0,0.0,0.0,0.0,,,,,,,,43.0,0.0,0.466243,-0.12402300000000001,0.07666,0.872559,0.306157,-0.023438,-0.959976,-0.001416,-0.010790000000000001,-0.037877999999999995,,,,,,,,,,,,,,,,,,,,,,,,,,,,,,,,,,,,,,,,,,,,,,,,,,,,,,,,,,,,,,,,,
5946,1648953139.639354,1648953139.675425,87.0,0.0,4391.794922,4776.922852000001,4092.820557,4243.077147999999,4446.153809,33.0,3.0,73.0,,,,0.0,2.0,0.0,0.0,0.0,0.0,0.0,,,,,,,,,,,,,,,,,,,,,,,,,,,,,,,,,,,,,,,,,,,,,,,,,,,,,,,,,,,,,,,,,,,,,,,,,,,,,,,,,,,,
5947,1648953139.6471689,1648953139.68324,88.0,0.0,4064.615479,4735.897461,3995.897461,4126.153809,4109.743652,450.0,3.0,73.0,,,,0.0,2.0,0.0,0.0,0.0,0.0,0.0,,,,,,,,44.0,0.0,0.466138,-0.124268,0.076904,0.872559,0.297856,-0.01709,-0.977066,-0.0014210000000000002,-0.010834,-0.033797,,,,,,,,,,,,,,,,,,,,,,,,,,,,,,,,,,,,,,,,,,,,,,,,,,,,,,,,,,,,,,,,,
5948,1648953139.654983,1648953139.6909552,89.0,0.0,4651.794922,4582.563965,4130.256348,4861.538574,4718.974121,450.0,3.0,73.0,,,,0.0,2.0,0.0,0.0,0.0,0.0,0.0,,,,,,,,,,,,,,,,,,,,,,,,,,,,,,,,,,,,,,,,,,,,,,,,,,,,,,0.0,0.0,32.0,0.063775,1.0,0.0,,,,,,,,,,,,,,,,,,,,,,,,,
5949,1648953139.662798,1648953139.6987698,90.0,0.0,4169.230957,4487.692383,3745.1281740000004,4119.487305,4028.205078,450.0,3.0,73.0,,,,0.0,2.0,0.0,0.0,0.0,0.0,0.0,,,,,,,,45.0,0.0,0.46588599999999997,-0.12475599999999999,0.077637,0.872559,0.29688000000000003,-0.025879000000000003,-0.964858,-0.001425,-0.010825,-0.036424,,,,,,,,,,,,,,,,,,,,,,,,,,,,,,,,,,,,,,,,,,,,,,,,,,,,,,,,,,,,,,,,,
5950,1648953139.6706119,1648953139.706485,91.0,0.0,4695.384765999999,4519.487305,3558.974365,4460.0,4345.641113000001,33.0,3.0,73.0,,,,0.0,2.0,0.0,0.0,0.0,0.0,0.0,,,,,,,,,,,,,,,,,,,,,,,,,,,,,,,,,,,,,,,,,,,,,,,,,,,,,,,,,,,,,,,,,,,,,,,,,,,,,,,,,,,,
5951,1648953139.678427,1648953139.714299,92.0,0.0,5756.922852000001,4290.256348,4069.2307130000004,5817.94873,5798.974121,450.0,3.0,73.0,,,,0.0,2.0,0.0,0.0,0.0,0.0,0.0,,,,,,,,46.0,0.0,0.465363,-0.125,0.077637,0.8728030000000001,0.303227,-0.026368,-0.960952,-0.0013800000000000002,-0.010817,-0.038738,,,,,,,,,,,,,,,,,,,,,,,,,,,,,,,,,,,,,,,,,,,,,,,,,,,,,,,,,,,,,,,,,
5952,1648953139.686242,1648953139.722014,93.0,0.0,4572.307617,4261.025879,4455.384765999999,4937.436035,4916.922852000001,450.0,3.0,73.0,,,,0.0,2.0,0.0,0.0,0.0,0.0,0.0,,,,,,,,,,,,,,,,,,,,,,,,,,,,,,,,,,,,,,,,,,,,,,,,,,,,,,0.0,0.0,32.0,0.063775,1.0,0.0,,,,,,,,,,,,,,,,,,,,,,,,,
5953,1648953139.694056,1648953139.729929,94.0,0.0,3743.5898439999996,4781.538574,4505.641113000001,3893.3332520000004,3751.794922,450.0,3.0,73.0,,,,0.0,2.0,0.0,0.0,0.0,0.0,0.0,,,,,,,,47.0,0.0,0.46406800000000004,-0.125,0.07714800000000001,0.8735350000000001,0.29443800000000003,0.004883,-0.95021,-0.001438,-0.010712000000000001,-0.034523000000000005,,,,,,,,,,,,,,,,,,,,,,,,,,,,,,,,,,,,,,,,,,,,,,,,,,,,,,,,,,,,,,,,,
5954,1648953139.7018712,1648953139.7377439,95.0,0.0,4464.615234000001,4667.692383,4129.743652,4066.1538090000004,4171.282227000001,33.0,3.0,73.0,,,,0.0,2.0,0.0,0.0,0.0,0.0,0.0,,,,,,,,,,,,,,,,,,,,,,,,,,,,,,,,,,,,,,,,,,,,,,,,,,,,,,,,,,,,,,,,,,,,,,,,,,,,,,,,,,,,
5955,1648953139.7096848,1648953139.7456589,96.0,0.0,4997.436035,4060.512939,4143.077147999999,4497.436035,4903.589844,450.0,3.0,73.0,,,,0.0,2.0,0.0,0.0,0.0,0.0,0.0,,,,,,,,48.0,0.0,0.462373,-0.12475599999999999,0.07666,0.8745120000000001,0.30811,-0.021973,-0.9677879999999999,-0.00144,-0.010715,-0.037076,,,,,,,,,,,,,,,,,,,,,,,,,,,,,,,,,,,,,,,,,,,,,,,,,,,,,,,,,,,,,,,,,
5956,1648953139.7175,1648953139.753474,97.0,0.0,4222.563965,4334.871582,4264.102539,3836.4101560000004,4017.9487299999996,450.0,3.0,73.0,,,,0.0,2.0,0.0,0.0,0.0,0.0,0.0,,,,,,,,,,,,,,,,,,,,1.0,0.0,0.0,,,,,,,,,,,,,,,,,,,,,,,,,,,,,,,,0.0,0.0,32.0,0.0597,1.0,0.0,868.4851679999999,1206.764404,860.666321,976.117676,2090.673096,177.359711,346.530151,806.107727,272.404114,179.123306,760.215027,1242.786865,850.697815,754.8937990000001,279.701508,335.706665,754.4825440000001,596.680908,1131.904053,2251.011719,415.245575,378.091248,564.2643429999999,963.468994,2012.108398
5957,1648953139.7253141,1648953139.761389,98.0,0.0,4720.0,4878.461426,4465.641113000001,4444.102539,4354.871582,450.0,3.0,73.0,,,,0.0,2.0,0.0,0.0,0.0,0.0,0.0,,,,,,,,49.0,0.0,0.461025,-0.12475599999999999,0.076416,0.875244,0.286137,-0.013184,-0.9668120000000001,-0.001443,-0.010815,-0.033027,,,,,,,,,,,,,,,,,,,,,,,,,,,,,,,,,,,,,,,,,,,,,,,,,,,,,,,,,,,,,,,,,
5958,1648953139.733129,1648953139.769203,99.0,0.0,4683.589844,4516.410156,4107.692383,4329.230957,4427.179688,33.0,3.0,73.0,,,,0.0,2.0,0.0,0.0,0.0,0.0,0.0,,,,,,,,,,,,,,,,,,,,,,,,,,,,,,,,,,,,,,,,,,,,,,,,,,,,,,,,,,,,,,,,,,,,,,,,,,,,,,,,,,,,
5959,1648953139.740943,1648953139.777018,100.0,0.0,4381.025879,4189.230957,4157.94873,4086.6667479999996,4314.358886999999,450.0,3.0,73.0,,,,0.0,2.0,0.0,0.0,0.0,0.0,0.0,,,,,,,,50.0,0.0,0.460495,-0.125,0.076416,0.8754879999999999,0.341802,-0.04004,-0.9716950000000001,-0.0014449999999999999,-0.010759000000000001,-0.035779000000000005,,,,,,,,,,,,,,,,,,,,,,,,,,,,,,,,,,,,,,,,,,,,,,,,,,,,,,,,,,,,,,,,,
5960,1648953139.748758,1648953139.784733,101.0,0.0,4317.436035,4331.282227000001,4548.205078,4335.897461,4452.820313,450.0,3.0,73.0,,,,0.0,2.0,0.0,0.0,0.0,0.0,0.0,,,,,,,,,,,,,,,,,,,,,,,,,,,,,,,,,,,,,,,,,,,,,,,,,,,,,,0.0,0.0,32.0,0.0597,1.0,0.0,,,,,,,,,,,,,,,,,,,,,,,,,
5961,1648953139.756572,1648953139.792648,102.0,0.0,4557.436035,4447.179688,4408.717772999999,4293.846191,4485.128418,450.0,3.0,73.0,,,,0.0,2.0,0.0,0.0,0.0,0.0,0.0,,,,,,,,51.0,0.0,0.46056099999999994,-0.12475599999999999,0.076416,0.8754879999999999,0.283696,-0.041993,-0.983902,-0.001398,-0.010757,-0.031859,,,,,,,,,,,,,,,,,,,,,,,,,,,,,,,,,,,,,,,,,,,,,,,,,,,,,,,,,,,,,,,,,
5962,1648953139.764387,1648953139.8004632,103.0,0.0,5117.436035,4454.358886999999,4345.128418,4530.256348,4754.358886999999,33.0,3.0,73.0,,,,0.0,2.0,0.0,0.0,0.0,0.0,0.0,,,,,,,,,,,,,,,,,,,,,,,,,,,,,,,,,,,,,,,,,,,,,,,,,,,,,,,,,,,,,,,,,,,,,,,,,,,,,,,,,,,,
5963,1648953139.772202,1648953139.808178,104.0,0.0,4165.641113000001,4477.436035,3999.487061,3756.4101560000004,3811.794922,450.0,3.0,73.0,,,,0.0,2.0,0.0,0.0,0.0,0.0,0.0,,,,,,,,52.0,0.0,0.46060200000000007,-0.12475599999999999,0.076172,0.8754879999999999,0.306157,-0.025879000000000003,-0.9707180000000001,-0.001551,-0.010756,-0.028429000000000003,,,,,,,,,,,,,,,,,,,,,,,,,,,,,,,,,,,,,,,,,,,,,,,,,,,,,,,,,,,,,,,,,
5964,1648953139.780016,1648953139.815993,105.0,0.0,4857.94873,4712.307617,4282.563965,4764.615234000001,4760.0,450.0,3.0,73.0,,,,0.0,2.0,0.0,0.0,0.0,0.0,0.0,,,,,,,,,,,,,,,,,,,,,,,,,,,,,,,,,,,,,,,,,,,,,,,,,,,,,,0.0,0.0,32.0,0.0597,1.0,0.0,,,,,,,,,,,,,,,,,,,,,,,,,
5965,1648953139.787831,1648953139.823708,106.0,0.0,6230.256348,4818.461426,4848.205078,6384.615234000001,6418.974121,450.0,3.0,73.0,,,,0.0,2.0,0.0,0.0,0.0,0.0,0.0,,,,,,,,53.0,0.0,0.46056099999999994,-0.12475599999999999,0.076416,0.8754879999999999,0.295415,-0.025879000000000003,-0.977554,-0.0015429999999999999,-0.010754999999999999,-0.031543,,,,,,,,,,,,,,,,,,,,,,,,,,,,,,,,,,,,,,,,,,,,,,,,,,,,,,,,,,,,,,,,,
5966,1648953139.795645,1648953139.831523,107.0,0.0,4982.563965,4534.358886999999,4335.897461,5166.666504,5186.153809,33.0,3.0,73.0,,,,0.0,2.0,0.0,0.0,0.0,0.0,0.0,,,,,,,,,,,,,,,,,,,,,,,,,,,,,,,,,,,,,,,,,,,,,,,,,,,,,,,,,,,,,,,,,,,,,,,,,,,,,,,,,,,,
5967,1648953139.80346,1648953139.8392382,108.0,0.0,3629.2307130000004,4408.717772999999,3498.974365,3773.3332520000004,3786.1538090000004,450.0,3.0,73.0,,,,0.0,2.0,0.0,0.0,0.0,0.0,0.0,,,,,,,,54.0,0.0,0.460495,-0.125,0.076416,0.8754879999999999,0.31104,-0.016602000000000002,-0.9668120000000001,-0.001486,-0.010801999999999999,-0.034151,,,,,,,,,,,,,,,,,,,,,,,,,,,,,,,,,,,,,,,,,,,,,,,,,,,,,,,,,,,,,,,,,
5968,1648953139.811274,1648953139.8470528,109.0,0.0,4408.205078,4569.743652,3559.487061,4402.05127,4328.205078,450.0,3.0,73.0,,,,0.0,2.0,0.0,0.0,0.0,0.0,0.0,,,,,,,,,,,,,,,,,,,,,,,,,,,,,,,,,,,,,,,,,,,,,,,,,,,,,,0.0,0.0,32.0,0.0597,1.0,0.0,,,,,,,,,,,,,,,,,,,,,,,,,
5969,1648953139.8190892,1648953139.854768,110.0,0.0,4989.230957,4409.230957,4029.743652,4934.871582,4733.333496,450.0,3.0,73.0,,,,0.0,2.0,0.0,0.0,0.0,0.0,0.0,,,,,,,,55.0,0.0,0.46056099999999994,-0.12475599999999999,0.076416,0.8754879999999999,0.29736799999999997,-0.02295,-0.98146,-0.001484,-0.010796,-0.036693,,,,,,,,,,,,,,,,,,,,,,,,,,,,,,,,,,,,,,,,,,,,,,,,,,,,,,,,,,,,,,,,,
5970,1648953139.8269029,1648953139.862582,111.0,0.0,4027.6923829999996,4148.717772999999,3893.8461909999996,3773.8461909999996,3844.102539,33.0,3.0,73.0,,,,0.0,2.0,0.0,0.0,0.0,0.0,0.0,,,,,,,,,,,,,,,,,,,,,,,,,,,,,,,,,,,,,,,,,,,,,,,,,,,,,,,,,,,,,,,,,,,,,,,,,,,,,,,,,,,,
5971,1648953139.834718,1648953139.870297,112.0,0.0,4267.692383,4234.358886999999,4149.230957,4111.282227000001,4353.846191,450.0,3.0,73.0,,,,0.0,2.0,0.0,0.0,0.0,0.0,0.0,,,,,,,,56.0,0.0,0.46056099999999994,-0.12475599999999999,0.076416,0.8754879999999999,0.306645,-0.025879000000000003,-0.96144,-0.00158,-0.01084,-0.032779,,,,,,,,,,,,,,,,,,,,,,,,,,,,,,,,,,,,,,,,,,,,,,,,,,,,,,,,,,,,,,,,,
5972,1648953139.842533,1648953139.878212,113.0,0.0,4191.282227000001,4310.769043,4325.128418,4344.615234000001,4455.897461,450.0,3.0,73.0,,,,0.0,2.0,0.0,0.0,0.0,0.0,0.0,,,,,,,,,,,,,,,,,,,,1.0,0.0,0.0,,,,,,,,,,,,,,,,,,,,,,,,,,,,,,,,0.0,0.0,32.0,0.061582000000000005,1.0,0.0,649.78125,1215.8751220000001,856.461975,807.1979980000001,2091.800293,177.859573,361.82028199999996,792.663147,247.417496,183.779114,592.256165,1020.210632,895.2899779999999,844.6004029999999,262.07568399999997,304.797974,609.788696,504.39877300000006,947.326477,2159.549316,307.652588,314.980286,444.908112,781.050476,1980.8211670000003
5973,1648953139.850347,1648953139.8860269,114.0,0.0,4275.897461,4457.436035,4433.846191,4369.743652,4579.487305,450.0,3.0,73.0,,,,0.0,2.0,0.0,0.0,0.0,0.0,0.0,,,,,,,,57.0,0.0,0.46056099999999994,-0.12475599999999999,0.076416,0.8754879999999999,0.29688000000000003,-0.009766,-0.977554,-0.001519,-0.010781,-0.035507,,,,,,,,,,,,,,,,,,,,,,,,,,,,,,,,,,,,,,,,,,,,,,,,,,,,,,,,,,,,,,,,,
5974,1648953139.858162,1648953139.8939419,115.0,0.0,4504.615234000001,4607.179688,4335.897461,4388.717772999999,4598.974121,33.0,3.0,73.0,,,,0.0,2.0,0.0,0.0,0.0,0.0,0.0,,,,,,,,,,,,,,,,,,,,,,,,,,,,,,,,,,,,,,,,,,,,,,,,,,,,,,,,,,,,,,,,,,,,,,,,,,,,,,,,,,,,
5975,1648953139.865976,1648953139.901757,116.0,0.0,4574.358886999999,4590.256348,4331.794922,4276.922852000001,4230.769043,450.0,3.0,73.0,,,,0.0,2.0,0.0,0.0,0.0,0.0,0.0,,,,,,,,58.0,0.0,0.46056099999999994,-0.12475599999999999,0.076416,0.8754879999999999,0.299809,-0.02002,-0.980484,-0.001465,-0.010777,-0.037963,,,,,,,,,,,,,,,,,,,,,,,,,,,,,,,,,,,,,,,,,,,,,,,,,,,,,,,,,,,,,,,,,
5976,1648953139.873791,1648953139.909672,117.0,0.0,4335.384765999999,4523.589844,4397.436035,4276.922852000001,4266.153809,450.0,3.0,73.0,,,,0.0,2.0,0.0,0.0,0.0,0.0,0.0,,,,,,,,,,,,,,,,,,,,,,,,,,,,,,,,,,,,,,,,,,,,,,,,,,,,,,0.0,0.0,32.0,0.061582000000000005,1.0,0.0,,,,,,,,,,,,,,,,,,,,,,,,,
5977,1648953139.8816051,1648953139.917486,118.0,0.0,3985.641113,4553.846191,4232.307617,4372.307617,4434.358886999999,450.0,3.0,73.0,,,,0.0,2.0,0.0,0.0,0.0,0.0,0.0,,,,,,,,59.0,0.0,0.46056099999999994,-0.12475599999999999,0.076416,0.8754879999999999,0.299321,-0.010742,-0.976577,-0.001416,-0.010725,-0.040075,,,,,,,,,,,,,,,,,,,,,,,,,,,,,,,,,,,,,,,,,,,,,,,,,,,,,,,,,,,,,,,,,
5978,1648953139.88942,1648953139.925401,119.0,0.0,4309.743652,4541.538574,4127.692383,4561.538574,4472.307617,33.0,3.0,73.0,,,,0.0,2.0,0.0,0.0,0.0,0.0,0.0,,,,,,,,,,,,,,,,,,,,,,,,,,,,,,,,,,,,,,,,,,,,,,,,,,,,,,,,,,,,,,,,,,,,,,,,,,,,,,,,,,,,
5979,1648953139.897234,1648953139.933216,120.0,0.0,4597.436035,4436.922852000001,4136.922852000001,4353.846191,4524.615234000001,450.0,3.0,73.0,,,,0.0,2.0,0.0,0.0,0.0,0.0,0.0,,,,,,,,60.0,0.0,0.46056099999999994,-0.12475599999999999,0.076416,0.8754879999999999,0.29688000000000003,-0.009766,-0.977554,-0.0014210000000000002,-0.010727,-0.041976,,,,,,,,,,,,,,,,,,,,,,,,,,,,,,,,,,,,,,,,,,,,,,,,,,,,,,,,,,,,,,,,,
5980,1648953139.905049,1648953139.941031,121.0,0.0,4363.589844,4420.512695,4077.9487299999996,4140.0,4467.179688,450.0,3.0,73.0,,,,0.0,2.0,0.0,0.0,0.0,0.0,0.0,,,,,,,,,,,,,,,,,,,,,,,,,,,,,,,,,,,,,,,,,,,,,,,,,,,,,,0.0,0.0,32.0,0.061582000000000005,1.0,0.0,,,,,,,,,,,,,,,,,,,,,,,,,
5981,1648953139.912863,1648953139.948946,122.0,0.0,4177.94873,4490.769043,4118.461426,4271.282227000001,4111.794922,450.0,3.0,73.0,,,,0.0,2.0,0.0,0.0,0.0,0.0,0.0,,,,,,,,61.0,0.0,0.46056099999999994,-0.12475599999999999,0.076416,0.8754879999999999,0.299321,-0.010742,-0.976577,-0.001377,-0.010679000000000001,-0.043686,,,,,,,,,,,,,,,,,,,,,,,,,,,,,,,,,,,,,,,,,,,,,,,,,,,,,,,,,,,,,,,,,
5982,1648953139.920678,1648953139.956861,123.0,0.0,4402.05127,4598.461426,4237.94873,4360.0,4171.282227000001,33.0,3.0,73.0,,,,0.0,2.0,0.0,0.0,0.0,0.0,0.0,,,,,,,,,,,,,,,,,,,,,,,,,,,,,,,,,,,,,,,,,,,,,,,,,,,,,,,,,,,,,,,,,,,,,,,,,,,,,,,,,,,,
5983,1648953139.928492,1648953139.964675,124.0,0.0,4401.538574,4631.794922,4198.461426,4431.794922,4592.820313,450.0,3.0,73.0,,,,0.0,2.0,0.0,0.0,0.0,0.0,0.0,,,,,,,,62.0,0.0,0.46056099999999994,-0.12475599999999999,0.076416,0.8754879999999999,0.309575,-0.018555000000000002,-0.977554,-0.0013369999999999999,-0.010539,-0.038976,,,,,,,,,,,,,,,,,,,,,,,,,,,,,,,,,,,,,,,,,,,,,,,,,,,,,,,,,,,,,,,,,
5984,1648953139.936307,1648953139.97249,125.0,0.0,4349.230957,4558.974121,4192.307617,4627.179688,4636.410156,450.0,3.0,73.0,,,,0.0,2.0,0.0,0.0,0.0,0.0,0.0,,,,,,,,,,,,,,,,,,,,,,,,,,,,,,,,,,,,,,,,,,,,,,,,,,,,,,0.0,0.0,32.0,0.061582000000000005,1.0,0.0,,,,,,,,,,,,,,,,,,,,,,,,,
5985,1648953139.944122,1648953139.9803052,126.0,0.0,4524.102539,4594.871582,4143.589844,4500.0,4425.128418,450.0,3.0,73.0,,,,0.0,2.0,0.0,0.0,0.0,0.0,0.0,,,,,,,,63.0,0.0,0.46056099999999994,-0.12475599999999999,0.076416,0.8754879999999999,0.28809,-0.017578,-0.993667,-0.001301,-0.010559,-0.041083999999999996,,,,,,,,,,,,,,,,,,,,,,,,,,,,,,,,,,,,,,,,,,,,,,,,,,,,,,,,,,,,,,,,,
5986,1648953139.951936,1648953139.98802,127.0,0.0,4537.436035,4771.282227000001,3949.743652,4207.179688,4446.666504,238.0,3.0,73.0,,,,0.0,2.0,0.0,0.0,0.0,0.0,0.0,,,,,,,,,,,,,,,,,,,,,,,,,,,,,,,,,,,,,,,,,,,,,,,,,,,,,,,,,,,,,,,,,,,,,,,,,,,,,,,,,,,,
5987,1648953139.959751,1648953139.995835,0.0,0.0,4190.769043,4783.077147999999,3963.076904,4288.717772999999,4313.333496,450.0,3.0,73.0,,,,0.0,2.0,0.0,0.0,0.0,0.0,0.0,,,,,,,,0.0,0.0,0.46056099999999994,-0.12475599999999999,0.076416,0.8754879999999999,0.290532,-0.025391,-0.9751129999999999,-0.001366,-0.010578,-0.036732,,,,,,,,,,,,,,,,,,,,,,,,,,,,,,,,,,,,,,,,,,,,,,,,,,,,,,,,,,,,,,,,,
5988,1648953139.967565,1648953140.00355,1.0,0.0,4009.743652,4614.871582,4204.102539,4431.282227000001,4155.384765999999,450.0,3.0,73.0,,,,0.0,0.0,0.0,0.0,0.0,0.0,0.0,1.0,0.0,0.0,0.0,0.0,0.0,0.0,,,,,,,,,,,,,1.0,0.0,0.0,,,,,,,,,,,,,,,,,,,,,,,,,,,,,,,,0.0,0.0,32.0,0.07498200000000001,1.0,0.0,549.802979,1229.5415039999998,797.713196,678.855042,2076.328125,202.811264,372.674042,762.559631,230.958542,191.309326,433.23110999999994,806.700256,978.95697,918.928284,250.814041,337.17276,535.032776,432.415863,808.976501,2077.946045,249.17988599999998,276.531036,347.23877000000005,676.55365,1971.113281
5989,1648953139.9753802,1648953140.011365,2.0,0.0,4274.358886999999,4574.871582,4133.846191,4462.563965,4465.128418,29.0,3.0,73.0,,,,0.0,0.0,0.0,0.0,0.0,0.0,0.0,,,,,,,,1.0,0.0,0.460521,-0.12475599999999999,0.07666,0.8754879999999999,0.30225100000000005,-0.029297000000000004,-0.98439,-0.001327,-0.010594,-0.038918,,,,,,,,,,,,,,,,,,,,,,,,,,,,,,,,,,,,,,,,,,,,,,,,,,,,,,,,,,,,,,,,,
5990,1648953139.9831939,1648953140.0190802,3.0,0.0,4518.974121,4624.615234000001,3902.0512700000004,4677.94873,4631.794922,450.0,3.0,73.0,,,,0.0,0.0,0.0,0.0,0.0,0.0,0.0,,,,,,,,,,,,,,,,,,,,,,,,,,,,,,,,,,,,,,,,,,,,,,,,,,,,,,,,,,,,,,,,,,,,,,,,,,,,,,,,,,,,
5991,1648953139.991009,1648953140.0268948,4.0,0.0,4533.333496,4711.794922,3961.025635,4602.05127,4286.666504,0.0,3.0,73.0,,,,0.0,0.0,0.0,0.0,0.0,0.0,0.0,,,,,,,,2.0,0.0,0.460455,-0.125,0.07666,0.8754879999999999,0.29102,-0.019532,-0.982925,-0.001536,-0.010609,-0.040983,,,,,,,,,,,,,,,,,,,,,,,,,,,,,,,,,,,,,,,,,,,,,,,,,,,,,,,,,,,,,,,,,
5992,1648953139.9988241,1648953140.03461,5.0,0.0,4426.666504,4811.282227000001,3966.1538090000004,4196.922852000001,4185.128418,450.0,3.0,73.0,,,,0.0,0.0,0.0,0.0,0.0,0.0,0.0,,,,,,,,,,,,,,,,,,,,,,,,,,,,,,,,,,,,,,,,,,,,,,,,,,,,,,0.0,0.0,32.0,0.07498200000000001,1.0,0.0,,,,,,,,,,,,,,,,,,,,,,,,,
5993,1648953140.006638,1648953140.042525,6.0,0.0,4281.025879,4713.333496,3953.8461909999996,4300.0,4464.615234000001,0.0,3.0,73.0,,,,0.0,0.0,0.0,0.0,0.0,0.0,0.0,,,,,,,,3.0,0.0,0.460455,-0.125,0.07666,0.8754879999999999,0.29736799999999997,-0.023926,-0.977066,-0.001578,-0.010622,-0.042744,,,,,,,,,,,,,,,,,,,,,,,,,,,,,,,,,,,,,,,,,,,,,,,,,,,,,,,,,,,,,,,,,
5994,1648953140.014453,1648953140.05034,7.0,0.0,4318.461426,4565.641113000001,3986.1538090000004,4643.077147999999,4481.025879,450.0,3.0,73.0,,,,0.0,0.0,0.0,0.0,0.0,0.0,0.0,,,,,,,,,,,,,,,,,,,,,,,,,,,,,,,,,,,,,,,,,,,,,,,,,,,,,,,,,,,,,,,,,,,,,,,,,,,,,,,,,,,,
5995,1648953140.022267,1648953140.058254,8.0,0.0,4531.794922,4589.743652,4002.0512700000004,4575.897461,4437.436035,450.0,3.0,73.0,,,,0.0,0.0,0.0,0.0,2.0,0.0,0.0,,,,,,,,4.0,0.0,0.460495,-0.125,0.076416,0.8754879999999999,0.306157,-0.015137000000000001,-0.969741,-0.0016640000000000001,-0.010487999999999999,-0.038079,,,,,,,,,,,,,,,,,,,,,,,,,,,,,,,,,,,,,,,,,,,,,,,,,,,,,,,,,,,,,,,,,
5996,1648953140.030082,1648953140.066069,9.0,0.0,4416.410156,4475.897461,4141.538574,4403.077147999999,4419.487305,115.0,3.0,73.0,,,,0.0,0.0,0.0,0.0,2.0,0.0,0.0,,,,,,,,,,,,,,,,,,,,,,,,,,,,,,,,,,,,,,,,,,,,,,,,,,,,,,0.0,0.0,32.0,0.07498200000000001,1.0,0.0,,,,,,,,,,,,,,,,,,,,,,,,,
5997,1648953140.0378962,1648953140.073984,10.0,0.0,4190.769043,4195.897461,4286.153809,4355.384765999999,4299.487305,450.0,3.0,73.0,,,,0.0,0.0,0.0,0.0,2.0,2.0,0.0,,,,,,,,5.0,0.0,0.460495,-0.125,0.076416,0.8754879999999999,0.292973,-0.022461000000000002,-0.977066,-0.001644,-0.010465,-0.040277,,,,,,,,,,,,,,,,,,,,,,,,,,,,,,,,,,,,,,,,,,,,,,,,,,,,,,,,,,,,,,,,,
5998,1648953140.045711,1648953140.081799,11.0,0.0,4300.512695,4267.692383,4115.384765999999,4120.0,4298.461426,180.0,3.0,73.0,,,,0.0,0.0,0.0,0.0,2.0,2.0,0.0,,,,,,,,,,,,,,,,,,,,,,,,,,,,,,,,,,,,,,,,,,,,,,,,,,,,,,,,,,,,,,,,,,,,,,,,,,,,,,,,,,,,
5999,1648953140.053525,1648953140.089714,12.0,0.0,4420.512695,4491.282227000001,4107.179688,4187.179688,4439.487305,450.0,3.0,73.0,,,,0.0,0.0,0.0,0.0,2.0,2.0,0.0,,,,,,,,6.0,0.0,0.460495,-0.125,0.076416,0.8754879999999999,0.29443800000000003,-0.015625,-0.976089,-0.001675,-0.010443000000000001,-0.042256,,,,,,,,,,,,,,,,,,,,,,,,,,,,,,,,,,,,,,,,,,,,,,,,,,,,,,,,,,,,,,,,,
6000,1648953140.06134,1648953140.097529,13.0,0.0,4404.102539,4413.333496,4511.794922,4465.641113000001,4548.717772999999,450.0,3.0,73.0,,,,0.0,0.0,0.0,0.0,2.0,2.0,0.0,,,,,,,,,,,,,,,,,,,,,,,,,,,,,,,,,,,,,,,,,,,,,,,,,,,,,,0.0,0.0,32.0,0.07498200000000001,1.0,0.0,,,,,,,,,,,,,,,,,,,,,,,,,
6001,1648953140.069154,1648953140.1053429,14.0,0.0,4485.128418,4346.666504,4453.846191,4384.102539,4589.743652,450.0,3.0,73.0,,,,0.0,0.0,0.0,0.0,2.0,2.0,0.0,,,,,,,,7.0,0.0,0.460455,-0.125,0.07666,0.8754879999999999,0.300298,-0.021973,-0.978042,-0.001605,-0.010473,-0.043938,,,,,,,,,,,,,,,,,,,,,,,,,,,,,,,,,,,,,,,,,,,,,,,,,,,,,,,,,,,,,,,,,
6002,1648953140.076969,1648953140.113058,15.0,0.0,4384.615234000001,4507.692383,4305.641113000001,4202.563965,4334.871582,180.0,3.0,73.0,,,,0.0,0.0,0.0,0.0,2.0,2.0,0.0,,,,,,,,,,,,,,,,,,,,,,,,,,,,,,,,,,,,,,,,,,,,,,,,,,,,,,,,,,,,,,,,,,,,,,,,,,,,,,,,,,,,
6003,1648953140.084783,1648953140.120873,16.0,0.0,4269.743652,4627.179688,4529.230957,4262.563965,4140.0,0.0,3.0,73.0,,,,0.0,0.0,0.0,0.0,2.0,2.0,0.0,,,,,,,,8.0,0.0,0.460455,-0.125,0.07666,0.8754879999999999,0.306157,-0.015625,-0.98146,-0.00164,-0.0105,-0.045453,,,,,,,,,,,,,,,,,,,,,,,,,,,,,,,,,,,,,,,,,,,,,,,,,,,,,,,,,,,,,,,,,
6004,1648953140.092598,1648953140.1285882,17.0,0.0,4406.153809,4566.153809,4426.153809,4418.974121,4446.153809,0.0,3.0,73.0,,,,0.0,0.0,0.0,0.0,2.0,2.0,0.0,,,,,,,,,,,,,,,,,,,,1.0,0.0,0.0,,,,,,,,,,,,,,,,,,,,,,,,,,,,,,,,0.0,0.0,32.0,0.066719,1.0,0.0,552.459656,1241.160889,708.976685,608.967529,2025.754761,252.77536,371.37854,719.508423,222.108261,204.887299,330.632629,636.598145,1083.1779789999998,968.992859,254.250381,422.418274,564.341431,387.200714,738.463562,2014.427002,228.17627000000002,296.051422,280.349762,658.564148,1973.022827
6005,1648953140.100412,1648953140.136503,18.0,0.0,4481.025879,4548.205078,4104.102539,4614.358886999999,4671.794922,0.0,3.0,73.0,,,,0.0,0.0,0.0,0.0,2.0,2.0,0.0,,,,,,,,9.0,0.0,0.460455,-0.125,0.07666,0.8754879999999999,0.300298,-0.030274000000000002,-0.981949,-0.001525,-0.010476000000000001,-0.046718,,,,,,,,,,,,,,,,,,,,,,,,,,,,,,,,,,,,,,,,,,,,,,,,,,,,,,,,,,,,,,,,,
6006,1648953140.108227,1648953140.1443179,19.0,0.0,4409.230957,4685.128418,4125.641113000001,4568.205078,4386.153809,0.0,3.0,73.0,,,,0.0,0.0,0.0,0.0,2.0,2.0,0.0,,,,,,,,,,,,,,,,,,,,,,,,,,,,,,,,,,,,,,,,,,,,,,,,,,,,,,,,,,,,,,,,,,,,,,,,,,,,,,,,,,,,
6007,1648953140.116042,1648953140.1522331,20.0,0.0,4348.205078,4734.358886999999,4178.461426,4204.615234000001,4240.512695,0.0,3.0,73.0,,,,0.0,0.0,0.0,0.0,2.0,2.0,0.0,,,,,,,,10.0,0.0,0.460455,-0.125,0.07666,0.8754879999999999,0.29443800000000003,-0.029786,-0.978042,-0.001519,-0.010405,-0.041656,,,,,,,,,,,,,,,,,,,,,,,,,,,,,,,,,,,,,,,,,,,,,,,,,,,,,,,,,,,,,,,,,
6008,1648953140.123856,1648953140.160048,21.0,0.0,4232.307617,4709.230957,4013.8461909999996,4166.153809,4363.077147999999,0.0,3.0,73.0,,,,0.0,0.0,0.0,0.0,2.0,2.0,0.0,,,,,,,,,,,,,,,,,,,,,,,,,,,,,,,,,,,,,,,,,,,,,,,,,,,,,,0.0,0.0,32.0,0.066719,1.0,0.0,,,,,,,,,,,,,,,,,,,,,,,,,
6009,1648953140.1316712,1648953140.1679618,22.0,0.0,4187.179688,4746.153809,4074.358887,4407.179688,4330.256348,0.0,3.0,73.0,,,,0.0,0.0,0.0,0.0,2.0,2.0,0.0,,,,,,,,11.0,0.0,0.460455,-0.125,0.07666,0.8754879999999999,0.299809,-0.031738999999999996,-0.9712059999999999,-0.001513,-0.010438,-0.037148,,,,,,,,,,,,,,,,,,,,,,,,,,,,,,,,,,,,,,,,,,,,,,,,,,,,,,,,,,,,,,,,,
6010,1648953140.139485,1648953140.1758769,23.0,0.0,4408.205078,4691.282227000001,4203.077147999999,4477.94873,4407.692383,0.0,3.0,73.0,,,,0.0,0.0,0.0,0.0,2.0,2.0,0.0,,,,,,,,,,,,,,,,,,,,,,,,,,,,,,,,,,,,,,,,,,,,,,,,,,,,,,,,,,,,,,,,,,,,,,,,,,,,,,,,,,,,
6011,1648953140.1473,1648953140.183693,24.0,0.0,4585.641113000001,4589.743652,4158.461426,4528.205078,4511.282227000001,0.0,3.0,73.0,,,,0.0,0.0,0.0,0.0,2.0,2.0,0.0,,,,,,,,12.0,0.0,0.460455,-0.125,0.07666,0.8754879999999999,0.287602,-0.01709,-0.9790190000000001,-0.001557,-0.010469,-0.039293,,,,,,,,,,,,,,,,,,,,,,,,,,,,,,,,,,,,,,,,,,,,,,,,,,,,,,,,,,,,,,,,,
6012,1648953140.1551151,1648953140.191608,25.0,0.0,4540.512695,4569.743652,4087.6923829999996,4462.05127,4355.897461,0.0,3.0,73.0,,,,0.0,0.0,0.0,0.0,2.0,2.0,0.0,,,,,,,,,,,,,,,,,,,,,,,,,,,,,,,,,,,,,,,,,,,,,,,,,,,,,,0.0,0.0,32.0,0.066719,1.0,0.0,,,,,,,,,,,,,,,,,,,,,,,,,
6013,1648953140.1629288,1648953140.199423,26.0,0.0,4375.384765999999,4464.615234000001,4150.769043,4077.4357909999994,4196.410156,0.0,3.0,73.0,,,,0.0,0.0,0.0,0.0,2.0,2.0,0.0,,,,,,,,13.0,0.0,0.460455,-0.125,0.07666,0.8754879999999999,0.295415,-0.018067,-0.9712059999999999,-0.0014990000000000001,-0.010496,-0.034973000000000004,,,,,,,,,,,,,,,,,,,,,,,,,,,,,,,,,,,,,,,,,,,,,,,,,,,,,,,,,,,,,,,,,
6014,1648953140.170744,1648953140.2072382,27.0,0.0,4242.05127,4330.256348,4280.512695,4102.563965,4346.153809,0.0,3.0,73.0,,,,0.0,0.0,0.0,0.0,2.0,2.0,0.0,,,,,,,,,,,,,,,,,,,,,,,,,,,,,,,,,,,,,,,,,,,,,,,,,,,,,,,,,,,,,,,,,,,,,,,,,,,,,,,,,,,,
6015,1648953140.178558,1648953140.214953,28.0,0.0,4293.846191,4460.512695,4188.717772999999,4451.282227000001,4492.820313,0.0,3.0,73.0,,,,0.0,0.0,0.0,0.0,2.0,2.0,0.0,,,,,,,,14.0,0.0,0.46041400000000005,-0.125,0.076904,0.8754879999999999,0.302739,-0.018555000000000002,-0.977554,-0.001545,-0.010520999999999999,-0.037482,,,,,,,,,,,,,,,,,,,,,,,,,,,,,,,,,,,,,,,,,,,,,,,,,,,,,,,,,,,,,,,,,
6016,1648953140.186373,1648953140.222768,29.0,0.0,4522.563965,4610.256348,4080.512939,4456.922852000001,4515.384765999999,0.0,3.0,73.0,,,,0.0,0.0,0.0,0.0,2.0,2.0,0.0,,,,,,,,,,,,,,,,,,,,,,,,,,,,,,,,,,,,,,,,,,,,,,,,,,,,,,0.0,0.0,32.0,0.066719,1.0,0.0,,,,,,,,,,,,,,,,,,,,,,,,,
6017,1648953140.194187,1648953140.230483,30.0,0.0,4485.128418,4390.256348,4259.487305,4313.846191,4466.666504,0.0,3.0,73.0,,,,0.0,0.0,0.0,0.0,2.0,2.0,0.0,,,,,,,,15.0,0.0,0.460455,-0.125,0.07666,0.8754879999999999,0.299809,-0.023926,-0.9897610000000001,-0.001439,-0.010592,-0.033343,,,,,,,,,,,,,,,,,,,,,,,,,,,,,,,,,,,,,,,,,,,,,,,,,,,,,,,,,,,,,,,,,
6018,1648953140.202002,1648953140.238298,31.0,0.0,4249.743652,4150.256348,4317.94873,4362.563965,4295.897461,0.0,3.0,73.0,,,,0.0,0.0,0.0,0.0,2.0,2.0,0.0,,,,,,,,,,,,,,,,,,,,,,,,,,,,,,,,,,,,,,,,,,,,,,,,,,,,,,,,,,,,,,,,,,,,,,,,,,,,,,,,,,,,
6019,1648953140.209816,1648953140.246012,32.0,0.0,4260.512695,4294.358886999999,4122.563965,4187.179688,4208.717772999999,0.0,3.0,73.0,,,,0.0,0.0,0.0,0.0,2.0,2.0,0.0,,,,,,,,16.0,0.0,0.46048,-0.12475599999999999,0.076904,0.8754879999999999,0.290044,-0.019532,-0.9824370000000001,-0.00149,-0.010607,-0.036063,,,,,,,,,,,,,,,,,,,,,,,,,,,,,,,,,,,,,,,,,,,,,,,,,,,,,,,,,,,,,,,,,
6020,1648953140.217631,1648953140.253927,33.0,0.0,4387.692383,4480.512695,4054.8718259999996,4094.8718259999996,4418.974121,0.0,3.0,73.0,,,,0.0,0.0,0.0,0.0,2.0,2.0,0.0,,,,,,,,,,,,,,,,,,,,1.0,0.0,0.0,,,,,,,,,,,,,,,,,,,,,,,,,,,,,,,,0.0,0.0,32.0,0.066359,1.0,0.0,603.105896,1242.588745,624.97644,593.856506,1949.9633789999998,320.881714,353.2771,662.596436,215.660706,225.210892,311.18576,527.376648,1170.645386,984.435669,274.677826,545.478516,706.910217,383.76409900000004,734.5057370000001,1980.099243,229.42430099999999,395.606781,252.05346699999998,711.249084,1990.3972170000002
6021,1648953140.225445,1648953140.2617419,34.0,0.0,4385.641113000001,4400.0,4096.922852000001,4488.717772999999,4525.128418,0.0,3.0,73.0,,,,0.0,0.0,0.0,0.0,2.0,2.0,0.0,,,,,,,,17.0,0.0,0.460521,-0.12475599999999999,0.07666,0.8754879999999999,0.288579,-0.030274000000000002,-0.984878,-0.001439,-0.010620000000000001,-0.032213,,,,,,,,,,,,,,,,,,,,,,,,,,,,,,,,,,,,,,,,,,,,,,,,,,,,,,,,,,,,,,,,,
6022,1648953140.23326,1648953140.2696571,35.0,0.0,4503.077147999999,4434.871582,3930.7692869999996,4633.846191,4361.538574,0.0,3.0,73.0,,,,0.0,0.0,0.0,0.0,2.0,2.0,0.0,,,,,,,,,,,,,,,,,,,,,,,,,,,,,,,,,,,,,,,,,,,,,,,,,,,,,,,,,,,,,,,,,,,,,,,,,,,,,,,,,,,,
6023,1648953140.241074,1648953140.277472,36.0,0.0,4568.205078,4501.025879,3947.179443,4290.256348,4295.897461,0.0,3.0,73.0,,,,0.0,0.0,0.0,0.0,2.0,2.0,0.0,,,,,,,,18.0,0.0,0.460521,-0.12475599999999999,0.07666,0.8754879999999999,0.291997,-0.016602000000000002,-0.98146,-0.001539,-0.010633,-0.0349,,,,,,,,,,,,,,,,,,,,,,,,,,,,,,,,,,,,,,,,,,,,,,,,,,,,,,,,,,,,,,,,,
6024,1648953140.248889,1648953140.285287,37.0,0.0,4325.641113000001,4272.307617,4122.563965,4128.717772999999,4397.94873,0.0,3.0,73.0,,,,0.0,0.0,0.0,0.0,2.0,2.0,0.0,,,,,,,,,,,,,,,,,,,,,,,,,,,,,,,,,,,,,,,,,,,,,,,,,,,,,,0.0,0.0,32.0,0.066359,1.0,0.0,,,,,,,,,,,,,,,,,,,,,,,,,
6025,1648953140.2567039,1648953140.293002,38.0,0.0,4192.820313,4297.436035,4063.076904,4241.025879,4367.692383,0.0,3.0,73.0,,,,0.0,0.0,0.0,0.0,2.0,2.0,0.0,,,,,,,,19.0,0.0,0.460521,-0.12475599999999999,0.07666,0.8754879999999999,0.294926,-0.009276999999999999,-0.9585110000000001,-0.001483,-0.010740999999999999,-0.031117000000000002,,,,,,,,,,,,,,,,,,,,,,,,,,,,,,,,,,,,,,,,,,,,,,,,,,,,,,,,,,,,,,,,,
6026,1648953140.264518,1648953140.300817,39.0,0.0,4252.820313,4566.666504,3600.512939,4293.333496,4234.358886999999,0.0,3.0,73.0,,,,0.0,0.0,0.0,0.0,2.0,2.0,0.0,,,,,,,,,,,,,,,,,,,,,,,,,,,,,,,,,,,,,,,,,,,,,,,,,,,,,,,,,,,,,,,,,,,,,,,,,,,,,,,,,,,,
6027,1648953140.272333,1648953140.308532,40.0,0.0,4556.922852000001,4631.282227000001,3612.3076170000004,4689.743652,4629.743652,0.0,3.0,73.0,,,,0.0,0.0,0.0,0.0,2.0,2.0,0.0,,,,,,,,20.0,0.0,0.460521,-0.12475599999999999,0.07666,0.8754879999999999,0.295903,-0.031738999999999996,-0.988785,-0.0014810000000000001,-0.010740999999999999,-0.033865,,,,,,,,,,,,,,,,,,,,,,,,,,,,,,,,,,,,,,,,,,,,,,,,,,,,,,,,,,,,,,,,,
6028,1648953140.280147,1648953140.316446,41.0,0.0,4222.05127,4536.410156,3466.6667479999996,4142.05127,4052.3076170000004,0.0,3.0,73.0,,,,0.0,0.0,0.0,0.0,2.0,2.0,0.0,,,,,,,,,,,,,,,,,,,,,,,,,,,,,,,,,,,,,,,,,,,,,,,,,,,,,,0.0,0.0,32.0,0.066359,1.0,0.0,,,,,,,,,,,,,,,,,,,,,,,,,
6029,1648953140.287962,1648953140.324261,42.0,0.0,4363.077147999999,4213.333496,2928.718018,4277.94873,4031.281982,0.0,3.0,73.0,,,,0.0,0.0,0.0,0.0,2.0,2.0,0.0,,,,,,,,21.0,0.0,0.460521,-0.12475599999999999,0.07666,0.8754879999999999,0.295415,-0.013672,-0.963882,-0.0015279999999999998,-0.010740999999999999,-0.036239999999999994,,,,,,,,,,,,,,,,,,,,,,,,,,,,,,,,,,,,,,,,,,,,,,,,,,,,,,,,,,,,,,,,,
6030,1648953140.295776,1648953140.332176,43.0,0.0,5322.05127,3986.1538090000004,3273.333252,5434.358886999999,5123.589844,0.0,3.0,73.0,,,,0.0,0.0,0.0,0.0,2.0,2.0,0.0,,,,,,,,,,,,,,,,,,,,,,,,,,,,,,,,,,,,,,,,,,,,,,,,,,,,,,,,,,,,,,,,,,,,,,,,,,,,,,,,,,,,
6031,1648953140.303591,1648953140.339991,44.0,0.0,3636.923096,4170.769043,3529.2307130000004,3548.718018,3469.743652,0.0,3.0,73.0,,,,0.0,0.0,0.0,0.0,2.0,2.0,0.0,,,,,,,,22.0,0.0,0.460521,-0.12475599999999999,0.07666,0.8754879999999999,0.309087,-0.015625,-0.975601,-0.0015710000000000001,-0.010742,-0.038475,,,,,,,,,,,,,,,,,,,,,,,,,,,,,,,,,,,,,,,,,,,,,,,,,,,,,,,,,,,,,,,,,
6032,1648953140.3114052,1648953140.347906,45.0,0.0,2250.769287,4461.025879,3887.179443,2599.487061,2681.025635,0.0,3.0,73.0,,,,0.0,0.0,0.0,0.0,2.0,2.0,0.0,,,,,,,,,,,,,,,,,,,,,,,,,,,,,,,,,,,,,,,,,,,,,,,,,,,,,,0.0,0.0,32.0,0.066359,1.0,0.0,,,,,,,,,,,,,,,,,,,,,,,,,
6033,1648953140.3192198,1648953140.355721,46.0,0.0,4834.871582,4571.282227000001,5056.922852000001,5763.077147999999,5770.769043,0.0,3.0,73.0,,,,0.0,0.0,0.0,0.0,2.0,2.0,0.0,,,,,,,,23.0,0.0,0.46048,-0.12475599999999999,0.076904,0.8754879999999999,0.29688000000000003,-0.016114,-0.9868309999999999,-0.00156,-0.010742,-0.040633999999999997,,,,,,,,,,,,,,,,,,,,,,,,,,,,,,,,,,,,,,,,,,,,,,,,,,,,,,,,,,,,,,,,,
6034,1648953140.327035,1648953140.363436,47.0,0.0,6042.05127,4506.666504,5274.358886999999,6447.179688,6411.282227000001,0.0,3.0,73.0,,,,0.0,0.0,0.0,0.0,2.0,2.0,0.0,,,,,,,,,,,,,,,,,,,,,,,,,,,,,,,,,,,,,,,,,,,,,,,,,,,,,,,,,,,,,,,,,,,,,,,,,,,,,,,,,,,,
6035,1648953140.334849,1648953140.371351,48.0,0.0,3928.205078,4257.94873,4136.410156,3803.5898439999996,3740.0,0.0,3.0,73.0,,,,0.0,0.0,0.0,0.0,2.0,2.0,0.0,,,,,,,,24.0,0.0,0.460521,-0.12475599999999999,0.07666,0.8754879999999999,0.295415,-0.013672,-0.963882,-0.0016,-0.010742,-0.042332,,,,,,,,,,,,,,,,,,,,,,,,,,,,,,,,,,,,,,,,,,,,,,,,,,,,,,,,,,,,,,,,,
6036,1648953140.342664,1648953140.3791661,49.0,0.0,3696.4101560000004,4190.769043,3930.256348,3759.487061,3847.6923829999996,0.0,3.0,73.0,,,,0.0,0.0,0.0,0.0,2.0,2.0,0.0,,,,,,,,,,,,,,,,,,,,1.0,0.0,0.0,,,,,,,,,,,,,,,,,,,,,,,,,,,,,,,,0.0,0.0,32.0,0.052087,1.0,0.0,650.005432,1227.25415,578.489014,613.2200320000001,1868.706177,396.091919,318.93102999999996,594.0186769999999,205.76973,248.07099900000003,361.826324,468.267242,1199.111816,955.699524,305.957397,681.502563,929.366699,426.8862,777.630798,1972.592896,242.27516200000002,562.181213,263.96038799999997,802.5437009999999,2022.1340329999998
6037,1648953140.350478,1648953140.3870811,50.0,0.0,4845.128418,4441.538574,4382.05127,4838.461426,5080.512695,0.0,3.0,73.0,,,,0.0,0.0,0.0,0.0,2.0,2.0,0.0,,,,,,,,25.0,0.0,0.46048,-0.12475599999999999,0.076904,0.8754879999999999,0.29688000000000003,-0.016114,-0.9868309999999999,-0.001586,-0.010742,-0.044105,,,,,,,,,,,,,,,,,,,,,,,,,,,,,,,,,,,,,,,,,,,,,,,,,,,,,,,,,,,,,,,,,
6038,1648953140.358293,1648953140.394896,51.0,0.0,4342.05127,4427.179688,4244.102539,4233.333496,4317.94873,0.0,3.0,73.0,,,,0.0,0.0,0.0,0.0,2.0,2.0,0.0,,,,,,,,,,,,,,,,,,,,,,,,,,,,,,,,,,,,,,,,,,,,,,,,,,,,,,,,,,,,,,,,,,,,,,,,,,,,,,,,,,,,
6039,1648953140.366107,1648953140.402811,52.0,0.0,4346.153809,4310.256348,4340.512695,4361.025879,4476.922852000001,0.0,3.0,73.0,,,,0.0,0.0,0.0,0.0,2.0,2.0,0.0,,,,,,,,26.0,0.0,0.46041400000000005,-0.125,0.076904,0.8754879999999999,0.302739,-0.013672,-0.983902,-0.001574,-0.010791,-0.039402,,,,,,,,,,,,,,,,,,,,,,,,,,,,,,,,,,,,,,,,,,,,,,,,,,,,,,,,,,,,,,,,,
6040,1648953140.373922,1648953140.410626,53.0,0.0,4561.538574,4445.128418,4416.922852000001,4386.153809,4596.922852000001,0.0,3.0,73.0,,,,0.0,0.0,0.0,0.0,2.0,2.0,0.0,,,,,,,,,,,,,,,,,,,,,,,,,,,,,,,,,,,,,,,,,,,,,,,,,,,,,,0.0,0.0,32.0,0.052087,1.0,0.0,,,,,,,,,,,,,,,,,,,,,,,,,
6041,1648953140.381736,1648953140.418541,54.0,0.0,4322.05127,4588.717772999999,4523.077147999999,4184.615234000001,4169.743652,0.0,3.0,73.0,,,,0.0,0.0,0.0,0.0,2.0,2.0,0.0,,,,,,,,27.0,0.0,0.46041400000000005,-0.125,0.076904,0.8754879999999999,0.30518,-0.014159999999999999,-0.99025,-0.001661,-0.010835,-0.04137,,,,,,,,,,,,,,,,,,,,,,,,,,,,,,,,,,,,,,,,,,,,,,,,,,,,,,,,,,,,,,,,,
6042,1648953140.389551,1648953140.426356,55.0,0.0,4467.692383,4598.461426,4636.410156,4395.897461,4393.846191,0.0,3.0,73.0,,,,0.0,0.0,0.0,0.0,2.0,2.0,0.0,,,,,,,,,,,,,,,,,,,,,,,,,,,,,,,,,,,,,,,,,,,,,,,,,,,,,,,,,,,,,,,,,,,,,,,,,,,,,,,,,,,,
6043,1648953140.397365,1648953140.434271,56.0,0.0,4446.153809,4597.94873,4362.05127,4477.94873,4635.897461,0.0,3.0,73.0,,,,0.0,0.0,0.0,0.0,2.0,2.0,0.0,,,,,,,,28.0,0.0,0.46041400000000005,-0.125,0.076904,0.8754879999999999,0.303716,-0.025391,-0.973159,-0.001641,-0.010825,-0.036842,,,,,,,,,,,,,,,,,,,,,,,,,,,,,,,,,,,,,,,,,,,,,,,,,,,,,,,,,,,,,,,,,
6044,1648953140.40518,1648953140.4421859,57.0,0.0,4386.153809,4711.282227000001,4143.589844,4591.282227000001,4503.077147999999,0.0,3.0,73.0,,,,0.0,0.0,0.0,0.0,2.0,2.0,0.0,,,,,,,,,,,,,,,,,,,,,,,,,,,,,,,,,,,,,,,,,,,,,,,,,,,,,,0.0,0.0,32.0,0.052087,1.0,0.0,,,,,,,,,,,,,,,,,,,,,,,,,
6045,1648953140.4129949,1648953140.450001,58.0,0.0,4361.025879,4721.025879,4028.205078,4326.666504,4223.077147999999,0.0,3.0,73.0,,,,0.0,0.0,0.0,0.0,2.0,2.0,0.0,,,,,,,,29.0,0.0,0.46041400000000005,-0.125,0.076904,0.8754879999999999,0.298344,-0.023926,-0.98146,-0.0016239999999999998,-0.010719,-0.032767000000000004,,,,,,,,,,,,,,,,,,,,,,,,,,,,,,,,,,,,,,,,,,,,,,,,,,,,,,,,,,,,,,,,,
6046,1648953140.420809,1648953140.457916,59.0,0.0,4291.282227000001,4653.333496,3927.179443,4107.179688,4291.282227000001,0.0,3.0,73.0,,,,0.0,0.0,0.0,0.0,2.0,2.0,0.0,,,,,,,,,,,,,,,,,,,,,,,,,,,,,,,,,,,,,,,,,,,,,,,,,,,,,,,,,,,,,,,,,,,,,,,,,,,,,,,,,,,,
6047,1648953140.428624,1648953140.4657311,60.0,0.0,4185.128418,4745.128418,4031.794922,4291.794922,4288.717772999999,0.0,3.0,73.0,,,,0.0,0.0,0.0,0.0,2.0,2.0,0.0,,,,,,,,30.0,0.0,0.46041400000000005,-0.125,0.076904,0.8754879999999999,0.29688000000000003,-0.020996,-0.9716950000000001,-0.0016079999999999998,-0.010819,-0.0291,,,,,,,,,,,,,,,,,,,,,,,,,,,,,,,,,,,,,,,,,,,,,,,,,,,,,,,,,,,,,,,,,
6048,1648953140.436438,1648953140.4736462,61.0,0.0,4297.436035,4760.0,4026.1538090000004,4472.307617,4323.589844,0.0,3.0,73.0,,,,0.0,0.0,0.0,0.0,2.0,2.0,0.0,,,,,,,,,,,,,,,,,,,,,,,,,,,,,,,,,,,,,,,,,,,,,,,,,,,,,,0.0,0.0,32.0,0.052087,1.0,0.0,,,,,,,,,,,,,,,,,,,,,,,,,
6049,1648953140.444253,1648953140.481461,62.0,0.0,4513.846191,4564.615234000001,3741.025635,4507.179688,4444.102539,0.0,3.0,73.0,,,,0.0,0.0,0.0,0.0,2.0,2.0,0.0,,,,,,,,31.0,0.0,0.46041400000000005,-0.125,0.076904,0.8754879999999999,0.299321,-0.019043,-0.976089,-0.001691,-0.010763,-0.032098,,,,,,,,,,,,,,,,,,,,,,,,,,,,,,,,,,,,,,,,,,,,,,,,,,,,,,,,,,,,,,,,,
6050,1648953140.452067,1648953140.489376,63.0,0.0,4554.358886999999,4459.487305,3851.794922,4496.922852000001,4321.538574,0.0,3.0,73.0,,,,0.0,0.0,0.0,0.0,2.0,2.0,0.0,,,,,,,,,,,,,,,,,,,,,,,,,,,,,,,,,,,,,,,,,,,,,,,,,,,,,,,,,,,,,,,,,,,,,,,,,,,,,,,,,,,,
6051,1648953140.459882,1648953140.497191,64.0,0.0,4358.974121,4438.461426,4054.8718259999996,4146.666504,4113.846191,450.0,3.0,73.0,,,,0.0,0.0,0.0,0.0,2.0,2.0,0.0,,,,,,,,32.0,0.0,0.460373,-0.125,0.07714800000000001,0.8754879999999999,0.299321,-0.020996,-0.980972,-0.00162,-0.010761,-0.028644,,,,,,,,,,,,,,,,,,,,,,,,,,,,,,,,,,,,,,,,,,,,,,,,,,,,,,,,,,,,,,,,,
6052,1648953140.4676962,1648953140.505106,65.0,0.0,4461.025879,4355.384765999999,3985.1281740000004,4180.512695,4465.641113000001,450.0,3.0,73.0,,,,0.0,2.0,0.0,0.0,2.0,2.0,16.666666,1.0,0.0,0.0,0.0,0.0,0.0,0.0,,,,,,,,,,,,,1.0,0.0,0.0,,,,,,,,,,,,,,,,,,,,,,,,,,,,,,,,0.0,0.0,32.0,0.045721,1.0,0.0,672.400757,1192.4998779999999,582.628235,646.311279,1799.50415,468.962036,277.424622,517.786743,188.77920500000002,265.351471,454.793091,440.712067,1139.850586,879.1376339999999,335.87445099999997,801.066895,1167.019409,498.938354,844.543091,1976.2801510000002,262.602753,749.010437,307.31543,897.3054810000001,2056.080811
6053,1648953140.4755108,1648953140.512922,66.0,0.0,4254.358886999999,4385.128418,4271.794922,4286.153809,4501.025879,187.0,3.0,73.0,,,,0.0,2.0,0.0,0.0,2.0,2.0,16.666666,,,,,,,,33.0,0.0,0.460373,-0.125,0.07714800000000001,0.8754879999999999,0.286137,-0.014649,-0.9702299999999999,-0.0015550000000000002,-0.010564,-0.031786,,,,,,,,,,,,,,,,,,,,,,,,,,,,,,,,,,,,,,,,,,,,,,,,,,,,,,,,,,,,,,,,,
6054,1648953140.483325,1648953140.5208368,67.0,0.0,3902.0512700000004,4594.358886999999,4561.025879,4044.102539,4046.6667479999996,450.0,3.0,73.0,,,,0.0,2.0,0.0,0.0,2.0,2.0,16.666666,,,,,,,,,,,,,,,,,,,,,,,,,,,,,,,,,,,,,,,,,,,,,,,,,,,,,,,,,,,,,,,,,,,,,,,,,,,,,,,,,,,,
6055,1648953140.4911401,1648953140.528652,68.0,0.0,5236.410156,4587.692383,4456.410156,5184.102539,5198.461426,0.0,3.0,73.0,,,,0.0,2.0,0.0,0.0,2.0,2.0,16.666666,,,,,,,,34.0,0.0,0.460373,-0.125,0.07714800000000001,0.8754879999999999,0.299809,-0.01709,-0.996109,-0.001644,-0.010533,-0.034515,,,,,,,,,,,,,,,,,,,,,,,,,,,,,,,,,,,,,,,,,,,,,,,,,,,,,,,,,,,,,,,,,
6056,1648953140.498955,1648953140.536567,69.0,0.0,4870.256348,4165.641113000001,3680.0,4552.307617,4810.769043,450.0,3.0,73.0,,,,0.0,2.0,0.0,0.0,2.0,2.0,16.666666,,,,,,,,,,,,,,,,,,,,,,,,,,,,,,,,,,,,,,,,,,,,,,,,,,,,,,0.0,0.0,32.0,0.045721,1.0,0.0,,,,,,,,,,,,,,,,,,,,,,,,,
6057,1648953140.506769,1648953140.544382,70.0,0.0,3773.3332520000004,4171.282227000001,3745.1281740000004,3331.281982,3731.281982,0.0,3.0,73.0,,,,0.0,2.0,0.0,0.0,2.0,2.0,16.666666,,,,,,,,35.0,0.0,0.460373,-0.125,0.07714800000000001,0.8754879999999999,0.31006300000000003,-0.027832,-0.972671,-0.001675,-0.010456,-0.03707,,,,,,,,,,,,,,,,,,,,,,,,,,,,,,,,,,,,,,,,,,,,,,,,,,,,,,,,,,,,,,,,,
6058,1648953140.514584,1648953140.552297,71.0,0.0,4045.1281740000004,4487.692383,4271.282227000001,3651.794922,3942.5642090000006,450.0,3.0,73.0,,,,0.0,2.0,0.0,0.0,2.0,2.0,16.666666,,,,,,,,,,,,,,,,,,,,,,,,,,,,,,,,,,,,,,,,,,,,,,,,,,,,,,,,,,,,,,,,,,,,,,,,,,,,,,,,,,,,
6059,1648953140.522398,1648953140.560112,72.0,0.0,4847.692383,4287.692383,4402.563965,4644.615234000001,4864.102539,450.0,3.0,73.0,,,,0.0,2.0,0.0,0.0,2.0,2.0,16.666666,,,,,,,,36.0,0.0,0.46048,-0.12475599999999999,0.076904,0.8754879999999999,0.299809,-0.016602000000000002,-0.965347,-0.001605,-0.010435999999999999,-0.039369,,,,,,,,,,,,,,,,,,,,,,,,,,,,,,,,,,,,,,,,,,,,,,,,,,,,,,,,,,,,,,,,,
6060,1648953140.530213,1648953140.568027,73.0,0.0,3829.743652,4151.794922,4238.461426,4135.897461,4143.077147999999,311.0,3.0,73.0,,,,0.0,2.0,0.0,0.0,4.0,2.0,16.666666,,,,,,,,,,,,,,,,,,,,,,,,,,,,,,,,,,,,,,,,,,,,,,,,,,,,,,0.0,0.0,32.0,0.045721,1.0,0.0,,,,,,,,,,,,,,,,,,,,,,,,,
6061,1648953140.538027,1648953140.575842,74.0,0.0,3259.487061,4810.256348,4193.333496,3794.358887,3442.0512700000004,450.0,3.0,73.0,,,,0.0,2.0,0.0,0.0,4.0,2.0,16.666666,,,,,,,,37.0,0.0,0.46048,-0.12475599999999999,0.076904,0.8754879999999999,0.295415,-0.02295,-0.9873200000000001,-0.001542,-0.010320000000000001,-0.041243,,,,,,,,,,,,,,,,,,,,,,,,,,,,,,,,,,,,,,,,,,,,,,,,,,,,,,,,,,,,,,,,,
6062,1648953140.545842,1648953140.583757,75.0,0.0,4926.666504,4980.512695,4544.102539,4968.717772999999,4718.461426,16099.0,3.0,73.0,,,,0.0,2.0,0.0,0.0,4.0,4.0,16.666666,,,,,,,,,,,,,,,,,,,,,,,,,,,,,,,,,,,,,,,,,,,,,,,,,,,,,,,,,,,,,,,,,,,,,,,,,,,,,,,,,,,,
6063,1648953140.553656,1648953140.591572,76.0,0.0,4441.538574,4161.025879,4150.769043,3945.641113,4081.025635,450.0,3.0,73.0,,,,0.0,2.0,0.0,0.0,4.0,4.0,16.666666,,,,,,,,38.0,0.0,0.460373,-0.125,0.07714800000000001,0.8754879999999999,0.280278,-0.027344,-0.9751129999999999,-0.001583,-0.010362,-0.036923000000000004,,,,,,,,,,,,,,,,,,,,,,,,,,,,,,,,,,,,,,,,,,,,,,,,,,,,,,,,,,,,,,,,,
6064,1648953140.561471,1648953140.5994868,77.0,0.0,2615.897461,4085.641113,3815.384521,2273.333252,2240.512939,450.0,3.0,73.0,,,,0.0,2.0,0.0,0.0,4.0,4.0,16.666666,,,,,,,,,,,,,,,,,,,,,,,,,,,,,,,,,,,,,,,,,,,,,,,,,,,,,,0.0,0.0,32.0,0.045721,1.0,0.0,,,,,,,,,,,,,,,,,,,,,,,,,
6065,1648953140.5692859,1648953140.6074018,78.0,0.0,3180.512939,4768.717772999999,4154.358886999999,3256.410156,3067.6923829999996,450.0,3.0,73.0,,,,0.0,2.0,0.0,0.0,4.0,4.0,16.666666,,,,,,,,39.0,0.0,0.460266,-0.125244,0.07739299999999999,0.8754879999999999,0.294926,-0.013672,-0.9741360000000001,-0.001523,-0.010254000000000001,-0.039188,,,,,,,,,,,,,,,,,,,,,,,,,,,,,,,,,,,,,,,,,,,,,,,,,,,,,,,,,,,,,,,,,
6066,1648953140.5771,1648953140.615217,79.0,0.0,5051.794922,4817.94873,4058.974365,5056.410156,5064.102539,16099.0,3.0,73.0,,,,0.0,2.0,0.0,0.0,4.0,4.0,16.666666,,,,,,,,,,,,,,,,,,,,,,,,,,,,,,,,,,,,,,,,,,,,,,,,,,,,,,,,,,,,,,,,,,,,,,,,,,,,,,,,,,,,
6067,1648953140.584915,1648953140.623133,80.0,0.0,5032.307617,4433.846191,3746.1538090000004,4830.256348,4745.641113000001,450.0,3.0,73.0,,,,0.0,2.0,0.0,0.0,4.0,4.0,16.666666,,,,,,,,40.0,0.0,0.46033199999999996,-0.125,0.07739299999999999,0.8754879999999999,0.303716,-0.032227,-0.982925,-0.001468,-0.010254000000000001,-0.035025,,,,,,,,,,,,,,,,,,,,,,,,,,,,,,,,,,,,,,,,,,,,,,,,,,,,,,,,,,,,,,,,,
6068,1648953140.5927289,1648953140.630948,81.0,0.0,3983.5898439999996,4305.128418,3940.0,3676.4101560000004,3649.2307130000004,450.0,3.0,73.0,,,,0.0,2.0,0.0,0.0,4.0,4.0,16.666666,,,,,,,,,,,,,,,,,,,,1.0,0.0,0.0,,,,,,,,,,,,,,,,,,,,,,,,,,,,,,,,0.0,0.0,32.0,0.05474400000000001,1.0,0.0,657.457581,1133.486328,607.4882200000001,686.3269650000001,1764.480103,536.408691,240.53273,441.777557,168.801727,268.376373,603.084167,442.522736,1022.611633,772.7082519999999,354.151794,870.5552369999999,1340.770874,558.744934,919.8060300000001,1989.958618,283.460205,895.0281369999999,361.967133,969.754028,2090.606201
6069,1648953140.600544,1648953140.6387632,82.0,0.0,4547.179688,4336.410156,4366.153809,4436.410156,4636.410156,450.0,3.0,73.0,,,,0.0,2.0,0.0,0.0,4.0,4.0,16.666666,,,,,,,,41.0,0.0,0.460373,-0.125,0.07714800000000001,0.8754879999999999,0.307134,-0.021973,-0.973159,-0.001517,-0.0104,-0.031132,,,,,,,,,,,,,,,,,,,,,,,,,,,,,,,,,,,,,,,,,,,,,,,,,,,,,,,,,,,,,,,,,
6070,1648953140.608358,1648953140.6465778,83.0,0.0,4216.922852000001,4320.512695,4317.94873,4389.230957,4525.641113000001,16099.0,3.0,73.0,,,,0.0,2.0,0.0,0.0,4.0,4.0,16.666666,,,,,,,,,,,,,,,,,,,,,,,,,,,,,,,,,,,,,,,,,,,,,,,,,,,,,,,,,,,,,,,,,,,,,,,,,,,,,,,,,,,,
6071,1648953140.616173,1648953140.6544929,84.0,1.0,4221.025879,4361.987305,4218.461426,4347.628418,4479.038574,16099.0,3.0,73.0,,,,0.0,2.0,0.0,0.0,4.0,4.0,16.666666,,,,,,,,42.0,1.0,0.460373,-0.125,0.07714800000000001,0.8754879999999999,0.30449699999999996,-0.022266,-0.973941,-0.001506,-0.010397,-0.031681,,,,,,,,,,,,,,,,,,,,,,,,,,,,,,,,,,,,,,,,,,,,,,,,,,,,,,,,,,,,,,,,,
6072,1648953140.623987,1648953140.662308,85.0,1.0,4225.128418,4403.461426,4118.974121,4306.025879,4432.436035,16099.0,3.0,73.0,,,,0.0,2.0,0.0,0.0,4.0,4.0,16.666666,,,,,,,,,,,,,,,,,,,,,,,,,,,,,,,,,,,,,,,,,,,,,,,,,,,,,,0.0,0.0,32.0,0.05474400000000001,1.0,0.0,,,,,,,,,,,,,,,,,,,,,,,,,
6073,1648953140.6318018,1648953140.670123,86.0,1.0,4229.230957,4444.936035,4019.487061,4264.422852000001,4385.833496,16099.0,3.0,73.0,,,,0.0,2.0,0.0,0.0,4.0,4.0,16.666666,,,,,,,,43.0,1.0,0.460373,-0.125,0.07714800000000001,0.8754879999999999,0.30186,-0.022559,-0.974722,-0.001495,-0.010394,-0.03223,,,,,,,,,,,,,,,,,,,,,,,,,,,,,,,,,,,,,,,,,,,,,,,,,,,,,,,,,,,,,,,,,
6074,1648953140.639616,1648953140.677938,87.0,1.0,4233.333496,4486.410156,3920.0,4222.820313,4339.230957,16099.0,3.0,73.0,,,,0.0,2.0,0.0,0.0,4.0,4.0,16.666666,,,,,,,,,,,,,,,,,,,,,,,,,,,,,,,,,,,,,,,,,,,,,,,,,,,,,,,,,,,,,,,,,,,,,,,,,,,,,,,,,,,,
6075,1648953140.6474311,1648953140.6857529,88.0,1.0,4237.436035,4527.884765999999,3820.512939,4181.217772999999,4292.628418,16099.0,3.0,73.0,,,,0.0,2.0,0.0,0.0,4.0,4.0,16.666666,,,,,,,,44.0,1.0,0.460373,-0.125,0.07714800000000001,0.8754879999999999,0.299223,-0.022852,-0.9755030000000001,-0.001484,-0.010392,-0.032780000000000004,,,,,,,,,,,,,,,,,,,,,,,,,,,,,,,,,,,,,,,,,,,,,,,,,,,,,,,,,,,,,,,,,
6076,1648953140.6552448,1648953140.693568,89.0,1.0,4241.538574,4569.358886999999,3721.025635,4139.615234000001,4246.025879,16099.0,3.0,73.0,,,,0.0,2.0,0.0,0.0,4.0,4.0,16.666666,,,,,,,,,,,,,,,,,,,,,,,,,,,,,,,,,,,,,,,,,,,,,,,,,,,,,,0.0,0.0,32.0,0.05474400000000001,1.0,0.0,,,,,,,,,,,,,,,,,,,,,,,,,
6077,1648953140.66306,1648953140.701383,90.0,1.0,4245.641113000001,4610.833496,3621.538574,4098.012695,4199.422852000001,16099.0,3.0,73.0,,,,0.0,2.0,0.0,0.0,4.0,4.0,16.666666,,,,,,,,45.0,1.0,0.460373,-0.125,0.07714800000000001,0.8754879999999999,0.296587,-0.023145,-0.976284,-0.0014730000000000001,-0.010389,-0.033329000000000004,,,,,,,,,,,,,,,,,,,,,,,,,,,,,,,,,,,,,,,,,,,,,,,,,,,,,,,,,,,,,,,,,
6078,1648953140.670875,1648953140.709199,91.0,0.0,4249.743652,4652.307617,3522.0512700000004,4056.4101560000004,4152.820313,16099.0,3.0,73.0,,,,0.0,2.0,0.0,0.0,4.0,4.0,16.666666,,,,,,,,,,,,,,,,,,,,,,,,,,,,,,,,,,,,,,,,,,,,,,,,,,,,,,,,,,,,,,,,,,,,,,,,,,,,,,,,,,,,
6079,1648953140.678689,1648953140.717014,92.0,0.0,5744.615234000001,4867.179688,4229.743652,5354.871582,5596.410156,450.0,3.0,73.0,,,,0.0,2.0,0.0,0.0,4.0,4.0,16.666666,,,,,,,,46.0,0.0,0.460373,-0.125,0.07714800000000001,0.8754879999999999,0.29395,-0.023438,-0.977066,-0.001463,-0.010386,-0.033878,,,,,,,,,,,,,,,,,,,,,,,,,,,,,,,,,,,,,,,,,,,,,,,,,,,,,,,,,,,,,,,,,
6080,1648953140.686504,1648953140.7247279,93.0,0.0,5377.436035,4961.538574,4581.538574,4958.974121,5062.05127,450.0,3.0,73.0,,,,0.0,2.0,0.0,0.0,4.0,4.0,16.666666,,,,,,,,,,,,,,,,,,,,,,,,,,,,,,,,,,,,,,,,,,,,,,,,,,,,,,0.0,0.0,32.0,0.05474400000000001,1.0,0.0,,,,,,,,,,,,,,,,,,,,,,,,,
6081,1648953140.694318,1648953140.732543,94.0,0.0,4343.589844,4857.94873,4000.0,3855.384521,3877.9487299999996,450.0,3.0,73.0,,,,0.0,2.0,0.0,0.0,4.0,4.0,16.666666,,,,,,,,47.0,0.0,0.46041400000000005,-0.125,0.076904,0.8754879999999999,0.300298,-0.013184,-0.9643700000000001,-0.0015119999999999999,-0.010421,-0.030148,,,,,,,,,,,,,,,,,,,,,,,,,,,,,,,,,,,,,,,,,,,,,,,,,,,,,,,,,,,,,,,,,
6082,1648953140.702133,1648953140.740257,95.0,0.0,4497.436035,4544.615234000001,3930.7692869999996,3942.5642090000006,4178.974121,16099.0,3.0,73.0,,,,0.0,2.0,0.0,0.0,4.0,4.0,16.666666,,,,,,,,,,,,,,,,,,,,,,,,,,,,,,,,,,,,,,,,,,,,,,,,,,,,,,,,,,,,,,,,,,,,,,,,,,,,,,,,,,,,
6083,1648953140.709947,1648953140.7480712,96.0,0.0,5022.05127,4453.846191,4601.025879,4657.436035,5038.974121,450.0,3.0,73.0,,,,0.0,2.0,0.0,0.0,4.0,4.0,16.666666,,,,,,,,48.0,0.0,0.46041400000000005,-0.125,0.076904,0.8754879999999999,0.305669,-0.013184,-1.006851,-0.001458,-0.010356,-0.033139999999999996,,,,,,,,,,,,,,,,,,,,,,,,,,,,,,,,,,,,,,,,,,,,,,,,,,,,,,,,,,,,,,,,,
6084,1648953140.717762,1648953140.7558858,97.0,0.0,4046.1538090000004,4623.077147999999,4165.128418,3727.179443,3962.0512700000004,450.0,3.0,73.0,,,,0.0,2.0,0.0,0.0,4.0,4.0,16.666666,,,,,,,,,,,,,,,,,,,,1.0,0.0,0.0,,,,,,,,,,,,,,,,,,,,,,,,,,,,,,,,0.0,0.0,32.0,0.057735,1.0,0.0,601.586853,1038.474976,621.4158940000001,741.282898,1785.668213,600.476135,215.349167,374.291534,155.422043,253.325134,847.702942,478.98980700000004,926.749573,671.308716,358.70816,864.894897,1385.36438,585.136108,1007.360718,2035.4821780000002,301.685944,948.478455,418.730804,1010.6006470000001,2142.29248
6085,1648953140.7255769,1648953140.7636,98.0,0.0,4655.897461,4703.077147999999,4074.8718259999996,4138.461426,4267.692383,450.0,3.0,73.0,,,,0.0,2.0,0.0,0.0,4.0,4.0,16.666666,,,,,,,,49.0,0.0,0.46030699999999997,-0.125244,0.07714800000000001,0.8754879999999999,0.295903,-0.028321,-0.9677879999999999,-0.00141,-0.010394,-0.029532999999999997,,,,,,,,,,,,,,,,,,,,,,,,,,,,,,,,,,,,,,,,,,,,,,,,,,,,,,,,,,,,,,,,,
6086,1648953140.733391,1648953140.771315,99.0,0.0,5065.641113000001,4421.025879,4483.077147999999,4792.820313,4815.384765999999,16099.0,3.0,73.0,,,,0.0,2.0,0.0,0.0,4.0,4.0,16.666666,,,,,,,,,,,,,,,,,,,,,,,,,,,,,,,,,,,,,,,,,,,,,,,,,,,,,,,,,,,,,,,,,,,,,,,,,,,,,,,,,,,,
6087,1648953140.7412062,1648953140.779029,100.0,0.0,3040.0,4095.384521,3668.718018,2940.0,2880.512939,450.0,3.0,73.0,,,,0.0,2.0,0.0,0.0,4.0,4.0,16.666666,,,,,,,,50.0,0.0,0.46073000000000003,-0.125244,0.07739299999999999,0.875244,0.304692,-0.014159999999999999,-0.9824370000000001,-0.001513,-0.010429,-0.032683,,,,,,,,,,,,,,,,,,,,,,,,,,,,,,,,,,,,,,,,,,,,,,,,,,,,,,,,,,,,,,,,,
6088,1648953140.7490199,1648953140.786844,101.0,0.0,2770.256348,4147.179688,3204.615479,2437.94873,2529.743652,450.0,3.0,73.0,,,,0.0,2.0,0.0,0.0,4.0,4.0,16.666666,,,,,,,,,,,,,,,,,,,,,,,,,,,,,,,,,,,,,,,,,,,,,,,,,,,,,,0.0,0.0,32.0,0.057735,1.0,0.0,,,,,,,,,,,,,,,,,,,,,,,,,
6089,1648953140.756835,1648953140.794658,102.0,0.0,4290.769043,4382.563965,4028.205078,4190.256348,4345.128418,450.0,3.0,73.0,,,,0.0,2.0,0.0,0.0,4.0,4.0,16.666666,,,,,,,,51.0,0.0,0.46041400000000005,-0.125,0.076904,0.8754879999999999,0.305669,-0.013184,-1.006851,-0.0016059999999999998,-0.010509000000000001,-0.029171,,,,,,,,,,,,,,,,,,,,,,,,,,,,,,,,,,,,,,,,,,,,,,,,,,,,,,,,,,,,,,,,,
6090,1648953140.764649,1648953140.802373,103.0,0.0,4876.410156,4593.333496,4862.05127,5328.205078,5245.128418,16099.0,3.0,73.0,,,,0.0,2.0,0.0,0.0,4.0,4.0,16.666666,,,,,,,,,,,,,,,,,,,,,,,,,,,,,,,,,,,,,,,,,,,,,,,,,,,,,,,,,,,,,,,,,,,,,,,,,,,,,,,,,,,,
6091,1648953140.772464,1648953140.8101869,104.0,0.0,3909.2307130000004,4657.94873,4388.205078,4103.589844,3940.0,450.0,3.0,73.0,,,,0.0,2.0,0.0,0.0,4.0,4.0,16.666666,,,,,,,,52.0,0.0,0.46073000000000003,-0.125244,0.07739299999999999,0.875244,0.304692,-0.014159999999999999,-0.9824370000000001,-0.001689,-0.010533,-0.032357,,,,,,,,,,,,,,,,,,,,,,,,,,,,,,,,,,,,,,,,,,,,,,,,,,,,,,,,,,,,,,,,,
6092,1648953140.780278,1648953140.8179018,105.0,0.0,4433.846191,4762.05127,3962.0512700000004,4012.3076170000004,4145.641113000001,450.0,3.0,73.0,,,,0.0,2.0,0.0,0.0,4.0,4.0,16.666666,,,,,,,,,,,,,,,,,,,,,,,,,,,,,,,,,,,,,,,,,,,,,,,,,,,,,,0.0,0.0,32.0,0.057735,1.0,0.0,,,,,,,,,,,,,,,,,,,,,,,,,
6093,1648953140.7880929,1648953140.825716,106.0,0.0,4689.743652,4721.538574,4215.897461,4458.974121,4653.846191,450.0,3.0,73.0,,,,0.0,2.0,0.0,0.0,4.0,4.0,16.666666,,,,,,,,53.0,0.0,0.460771,-0.125244,0.07714800000000001,0.875244,0.297856,-0.016114,-0.9707180000000001,-0.001667,-0.010554000000000001,-0.028827999999999996,,,,,,,,,,,,,,,,,,,,,,,,,,,,,,,,,,,,,,,,,,,,,,,,,,,,,,,,,,,,,,,,,
6094,1648953140.795907,1648953140.833431,107.0,0.0,4141.025879,4492.820313,4639.487305,4282.05127,4390.769043,16099.0,3.0,73.0,,,,0.0,2.0,0.0,0.0,4.0,4.0,16.666666,,,,,,,,,,,,,,,,,,,,,,,,,,,,,,,,,,,,,,,,,,,,,,,,,,,,,,,,,,,,,,,,,,,,,,,,,,,,,,,,,,,,
6095,1648953140.8037221,1648953140.841245,108.0,0.0,4484.102539,4469.230957,4748.205078,4444.102539,4587.179688,450.0,3.0,73.0,,,,0.0,2.0,0.0,0.0,4.0,4.0,16.666666,,,,,,,,54.0,0.0,0.460771,-0.125244,0.07714800000000001,0.875244,0.302739,-0.020996,-0.98146,-0.001696,-0.010573,-0.031854,,,,,,,,,,,,,,,,,,,,,,,,,,,,,,,,,,,,,,,,,,,,,,,,,,,,,,,,,,,,,,,,,
6096,1648953140.8115358,1648953140.848959,109.0,0.0,4381.025879,4660.0,4134.358886999999,4193.333496,4151.794922,450.0,3.0,73.0,,,,0.0,2.0,0.0,0.0,4.0,4.0,16.666666,,,,,,,,,,,,,,,,,,,,,,,,,,,,,,,,,,,,,,,,,,,,,,,,,,,,,,0.0,0.0,32.0,0.057735,1.0,0.0,,,,,,,,,,,,,,,,,,,,,,,,,
6097,1648953140.819351,1648953140.856774,110.0,0.0,4286.666504,4789.230957,3935.897461,4391.794922,4110.769043,450.0,3.0,73.0,,,,0.0,2.0,0.0,0.0,4.0,4.0,16.666666,,,,,,,,55.0,0.0,0.460771,-0.125244,0.07714800000000001,0.875244,0.28809,-0.021485,-0.992691,-0.001721,-0.010638,-0.028522000000000002,,,,,,,,,,,,,,,,,,,,,,,,,,,,,,,,,,,,,,,,,,,,,,,,,,,,,,,,,,,,,,,,,
6098,1648953140.8271651,1648953140.8644881,111.0,0.0,4143.589844,4666.666504,3825.641113,4365.641113000001,4203.077147999999,16099.0,3.0,73.0,,,,0.0,2.0,0.0,0.0,4.0,4.0,16.666666,,,,,,,,,,,,,,,,,,,,,,,,,,,,,,,,,,,,,,,,,,,,,,,,,,,,,,,,,,,,,,,,,,,,,,,,,,,,,,,,,,,,
6099,1648953140.83498,1648953140.872303,112.0,0.0,4740.0,4597.436035,3744.102539,4562.563965,4651.282227000001,450.0,3.0,73.0,,,,0.0,2.0,0.0,0.0,4.0,4.0,16.666666,,,,,,,,56.0,0.0,0.46073000000000003,-0.125244,0.07739299999999999,0.875244,0.304204,-0.026368,-0.9868309999999999,-0.001598,-0.010648999999999999,-0.031577999999999995,,,,,,,,,,,,,,,,,,,,,,,,,,,,,,,,,,,,,,,,,,,,,,,,,,,,,,,,,,,,,,,,,
6100,1648953140.842795,1648953140.880017,113.0,0.0,4712.307617,4424.102539,4143.077147999999,4420.512695,4598.461426,450.0,3.0,73.0,,,,0.0,2.0,0.0,0.0,4.0,4.0,16.666666,,,,,,,,,,,,,,,,,,,,1.0,0.0,0.0,,,,,,,,,,,,,,,,,,,,,,,,,,,,,,,,0.0,0.0,32.0,0.068226,1.0,0.0,520.258667,912.738037,603.886047,824.90155,1887.51062,658.597961,196.81350700000002,319.417175,157.00161699999998,226.419891,1217.907837,544.8582759999999,933.453247,606.659912,357.267456,789.366638,1287.705933,582.159607,1134.898682,2150.842773,335.684326,914.310669,473.41561900000005,1032.442383,2247.412598
6101,1648953140.850609,1648953140.887732,114.0,0.0,3504.102539,4163.077147999999,4456.922852000001,3518.974365,3581.538574,450.0,3.0,73.0,,,,0.0,2.0,0.0,0.0,4.0,4.0,16.666666,,,,,,,,57.0,0.0,0.46019899999999997,-0.12548800000000002,0.07739299999999999,0.8754879999999999,0.301274,-0.014649,-0.9707180000000001,-0.001634,-0.010657999999999999,-0.028127,,,,,,,,,,,,,,,,,,,,,,,,,,,,,,,,,,,,,,,,,,,,,,,,,,,,,,,,,,,,,,,,,
6102,1648953140.858424,1648953140.8955462,115.0,0.0,4665.128418,4627.179688,4831.282227000001,4690.769043,4643.077147999999,16099.0,3.0,73.0,,,,0.0,2.0,0.0,0.0,4.0,4.0,16.666666,,,,,,,,,,,,,,,,,,,,,,,,,,,,,,,,,,,,,,,,,,,,,,,,,,,,,,,,,,,,,,,,,,,,,,,,,,,,,,,,,,,,
6103,1648953140.866238,1648953140.903261,116.0,0.0,5588.205078,5060.512695,4572.307617,5113.846191,5223.077147999999,450.0,3.0,73.0,,,,0.0,2.0,0.0,0.0,4.0,4.0,16.666666,,,,,,,,58.0,0.0,0.46019899999999997,-0.12548800000000002,0.07739299999999999,0.8754879999999999,0.298344,-0.022461000000000002,-0.991714,-0.0016170000000000002,-0.010618,-0.031272,,,,,,,,,,,,,,,,,,,,,,,,,,,,,,,,,,,,,,,,,,,,,,,,,,,,,,,,,,,,,,,,,
6104,1648953140.874053,1648953140.911075,117.0,0.0,4881.538574,4511.794922,4110.769043,4222.563965,4476.410156,450.0,3.0,73.0,,,,0.0,2.0,0.0,0.0,4.0,4.0,16.666666,,,,,,,,,,,,,,,,,,,,,,,,,,,,,,,,,,,,,,,,,,,,,,,,,,,,,,0.0,0.0,32.0,0.068226,1.0,0.0,,,,,,,,,,,,,,,,,,,,,,,,,
6105,1648953140.881867,1648953140.91879,118.0,0.0,3901.538574,4202.05127,4038.974365,3622.0512700000004,3698.974365,450.0,3.0,73.0,,,,0.0,2.0,0.0,0.0,4.0,4.0,16.666666,,,,,,,,59.0,0.0,0.46030699999999997,-0.125244,0.07714800000000001,0.8754879999999999,0.305669,-0.015137000000000001,-0.9707180000000001,-0.001553,-0.010532,-0.034004,,,,,,,,,,,,,,,,,,,,,,,,,,,,,,,,,,,,,,,,,,,,,,,,,,,,,,,,,,,,,,,,,
6106,1648953140.889682,1648953140.9266038,119.0,0.0,4537.94873,4844.102539,4596.922852000001,4729.230957,4609.230957,16099.0,3.0,73.0,,,,0.0,2.0,0.0,0.0,4.0,4.0,16.666666,,,,,,,,,,,,,,,,,,,,,,,,,,,,,,,,,,,,,,,,,,,,,,,,,,,,,,,,,,,,,,,,,,,,,,,,,,,,,,,,,,,,
6107,1648953140.8974972,1648953140.934319,120.0,0.0,4666.153809,4863.077147999999,4560.0,4863.077147999999,4766.153809,450.0,3.0,73.0,,,,0.0,2.0,0.0,0.0,4.0,4.0,16.666666,,,,,,,,60.0,0.0,0.46030699999999997,-0.125244,0.07714800000000001,0.8754879999999999,0.29443800000000003,-0.014649,-0.993179,-0.001544,-0.010456,-0.036561,,,,,,,,,,,,,,,,,,,,,,,,,,,,,,,,,,,,,,,,,,,,,,,,,,,,,,,,,,,,,,,,,
6108,1648953140.9053109,1648953140.942133,121.0,0.0,3657.9487299999996,4311.282227000001,4006.1538090000004,3675.897461,3658.461426,450.0,3.0,73.0,,,,0.0,2.0,0.0,0.0,4.0,4.0,16.666666,,,,,,,,,,,,,,,,,,,,,,,,,,,,,,,,,,,,,,,,,,,,,,,,,,,,,,0.0,0.0,32.0,0.068226,1.0,0.0,,,,,,,,,,,,,,,,,,,,,,,,,
