,Timestamp,OriginalTimestamp,EEG.Counter,EEG.Interpolated,EEG.AF3,EEG.T7,EEG.Pz,EEG.T8,EEG.AF4,EEG.RawCq,EEG.Battery,EEG.BatteryPercent,MarkerIndex,MarkerType,MarkerValueInt,EEG.MarkerHardware,CQ.AF3,CQ.T7,CQ.Pz,CQ.T8,CQ.AF4,CQ.Overall,EQ.SampleRateQuality,EQ.OVERALL,EQ.AF3,EQ.T7,EQ.Pz,EQ.T8,EQ.AF4,MOT.CounterMems,MOT.InterpolatedMems,MOT.Q0,MOT.Q1,MOT.Q2,MOT.Q3,MOT.AccX,MOT.AccY,MOT.AccZ,MOT.MagX,MOT.MagY,MOT.MagZ,MC.Action,MC.ActionPower,MC.IsActive,PM.Engagement.IsActive,PM.Engagement.Scaled,PM.Engagement.Raw,PM.Engagement.Min,PM.Engagement.Max,PM.Excitement.IsActive,PM.Excitement.Scaled,PM.Excitement.Raw,PM.Excitement.Min,PM.Excitement.Max,PM.LongTermExcitement,PM.Stress.IsActive,PM.Stress.Scaled,PM.Stress.Raw,PM.Stress.Min,PM.Stress.Max,PM.Relaxation.IsActive,PM.Relaxation.Scaled,PM.Relaxation.Raw,PM.Relaxation.Min,PM.Relaxation.Max,PM.Interest.IsActive,PM.Interest.Scaled,PM.Interest.Raw,PM.Interest.Min,PM.Interest.Max,PM.Focus.IsActive,PM.Focus.Scaled,PM.Focus.Raw,PM.Focus.Min,PM.Focus.Max,FE.BlinkWink,FE.HorizontalEyesDirection,FE.UpperFaceAction,FE.UpperFaceActionPower,FE.LowerFaceAction,FE.LowerFaceActionPower,POW.AF3.Theta,POW.AF3.Alpha,POW.AF3.BetaL,POW.AF3.BetaH,POW.AF3.Gamma,POW.T7.Theta,POW.T7.Alpha,POW.T7.BetaL,POW.T7.BetaH,POW.T7.Gamma,POW.Pz.Theta,POW.Pz.Alpha,POW.Pz.BetaL,POW.Pz.BetaH,POW.Pz.Gamma,POW.T8.Theta,POW.T8.Alpha,POW.T8.BetaL,POW.T8.BetaH,POW.T8.Gamma,POW.AF4.Theta,POW.AF4.Alpha,POW.AF4.BetaL,POW.AF4.BetaH,POW.AF4.Gamma
19963,1648953249.175873,1648953249.202594,24.0,0.0,4427.692383,4584.102539,4652.307617,4540.0,4544.102539,0.0,3.0,73.0,,,,0.0,1.0,0.0,1.0,1.0,1.0,16.666666,,,,,,,,12.0,0.0,0.5147609999999999,-0.120361,0.083496,0.844727,0.304692,-0.018067,-0.978042,-0.004919,-0.011335,-0.034032,,,,,,,,,,,,,,,,,,,,,,,,,,,,,,,,,,,,,,,,,,,,,,,,,,,,,,,,,,,,,,,,,
19964,1648953249.1836882,1648953249.210409,25.0,0.0,4576.922852000001,4659.487305,4505.128418,4550.256348,4557.94873,0.0,3.0,73.0,,,,0.0,1.0,0.0,1.0,1.0,1.0,16.666666,,,,,,,,,,,,,,,,,,,,,,,,,,,,,,,,,,,,,,,,,,,,,,,,,,,,,,0.0,0.0,32.0,0.091451,1.0,0.0,,,,,,,,,,,,,,,,,,,,,,,,,
19965,1648953249.1915019,1648953249.218124,26.0,0.0,4447.179688,4726.153809,4342.563965,4269.230957,4185.128418,0.0,3.0,73.0,,,,0.0,1.0,0.0,1.0,1.0,1.0,16.666666,,,,,,,,13.0,0.0,0.5148,-0.120361,0.08325199999999999,0.844727,0.308598,-0.030762,-0.976089,-0.004427,-0.011276000000000001,-0.036683,,,,,,,,,,,,,,,,,,,,,,,,,,,,,,,,,,,,,,,,,,,,,,,,,,,,,,,,,,,,,,,,,
19966,1648953249.199317,1648953249.225939,27.0,0.0,4220.512695,4769.230957,4591.282227000001,4098.974121,4020.0,0.0,3.0,73.0,,,,0.0,1.0,0.0,1.0,1.0,1.0,16.666666,,,,,,,,,,,,,,,,,,,,,,,,,,,,,,,,,,,,,,,,,,,,,,,,,,,,,,,,,,,,,,,,,,,,,,,,,,,,,,,,,,,,
19967,1648953249.207132,1648953249.233654,28.0,0.0,4067.179443,4721.538574,4682.05127,4239.487305,4315.897461,0.0,3.0,73.0,,,,0.0,1.0,0.0,1.0,1.0,1.0,16.666666,,,,,,,,14.0,0.0,0.5147609999999999,-0.120361,0.083496,0.844727,0.307134,-0.027344,-0.9751129999999999,-0.000908,-0.01132,-0.039021,,,,,,,,,,,,,,,,,,,,,,,,,,,,,,,,,,,,,,,,,,,,,,,,,,,,,,,,,,,,,,,,,
19968,1648953249.214946,1648953249.241469,29.0,0.0,4168.205078,4580.0,4489.230957,4517.94873,4524.615234000001,0.0,3.0,73.0,,,,0.0,1.0,0.0,1.0,1.0,1.0,16.666666,,,,,,,,,,,,,,,,,,,,,,,,,,,,,,,,,,,,,,,,,,,,,,,,,,,,,,0.0,0.0,32.0,0.091451,1.0,0.0,,,,,,,,,,,,,,,,,,,,,,,,,
19969,1648953249.222761,1648953249.249184,30.0,0.0,4347.179688,4499.487305,4584.102539,4476.410156,4488.717772999999,0.0,3.0,73.0,,,,0.0,1.0,0.0,1.0,1.0,1.0,16.666666,,,,,,,,15.0,0.0,0.5147609999999999,-0.120361,0.083496,0.844727,0.300786,-0.025391,-0.9707180000000001,-0.003698,-0.011311,-0.034825999999999996,,,,,,,,,,,,,,,,,,,,,,,,,,,,,,,,,,,,,,,,,,,,,,,,,,,,,,,,,,,,,,,,,
19970,1648953249.230575,1648953249.257098,31.0,0.0,4401.538574,4585.128418,4677.94873,4179.487305,4410.256348,0.0,3.0,73.0,,,,0.0,1.0,0.0,1.0,1.0,1.0,16.666666,,,,,,,,,,,,,,,,,,,,,,,,,,,,,,,,,,,,,,,,,,,,,,,,,,,,,,,,,,,,,,,,,,,,,,,,,,,,,,,,,,,,
19971,1648953249.23839,1648953249.264913,32.0,0.0,4249.743652,4682.05127,4512.820313,4120.0,4192.307617,0.0,3.0,73.0,,,,0.0,1.0,0.0,1.0,1.0,1.0,16.666666,,,,,,,,16.0,0.0,0.5147609999999999,-0.120361,0.083496,0.844727,0.29688000000000003,-0.020996,-0.980484,-0.0032310000000000004,-0.011254,-0.037398,,,,,,,,,,,,,,,,,,,,,,,,,,,,,,,,,,,,,,,,,,,,,,,,,,,,,,,,,,,,,,,,,
19972,1648953249.246204,1648953249.272728,33.0,0.0,4087.179443,4644.615234000001,4574.358886999999,4312.820313,4024.102539,0.0,3.0,73.0,,,,0.0,1.0,0.0,1.0,1.0,1.0,16.666666,,,,,,,,,,,,,,,,,,,,1.0,0.0,0.0,,,,,,,,,,,,,,,,,,,,,,,,,,,,,,,,0.0,0.0,32.0,0.103459,1.0,0.0,81.01490799999999,26.700659,247.183731,923.183777,48.768745,163.839828,65.33377800000001,37.36898,148.440933,85.930931,415.44671600000004,148.805649,134.388138,302.794037,84.273361,26.044849,45.15287,67.693993,981.892517,80.46991,51.150295,46.743435,147.464401,1075.352905,102.33381700000001
19973,1648953249.254019,1648953249.280443,34.0,0.0,4168.205078,4558.461426,4671.794922,4389.743652,4278.461426,0.0,3.0,73.0,,,,0.0,1.0,0.0,1.0,1.0,1.0,16.666666,,,,,,,,17.0,0.0,0.5147609999999999,-0.120361,0.083496,0.844727,0.29688000000000003,-0.024903,-0.988296,-0.00281,-0.011252,-0.039811,,,,,,,,,,,,,,,,,,,,,,,,,,,,,,,,,,,,,,,,,,,,,,,,,,,,,,,,,,,,,,,,,
19974,1648953249.261833,1648953249.288358,35.0,0.0,4379.487305,4506.153809,4457.94873,4342.563965,4651.282227000001,0.0,3.0,73.0,,,,0.0,1.0,0.0,1.0,1.0,1.0,16.666666,,,,,,,,,,,,,,,,,,,,,,,,,,,,,,,,,,,,,,,,,,,,,,,,,,,,,,,,,,,,,,,,,,,,,,,,,,,,,,,,,,,,
19975,1648953249.269648,1648953249.296173,36.0,0.0,4534.871582,4517.94873,4464.102539,4316.410156,4607.179688,0.0,3.0,73.0,,,,0.0,1.0,0.0,1.0,1.0,1.0,16.666666,,,,,,,,18.0,0.0,0.5147609999999999,-0.120361,0.083496,0.844727,0.300298,-0.02002,-0.9785309999999999,0.000547,-0.01125,-0.035585000000000006,,,,,,,,,,,,,,,,,,,,,,,,,,,,,,,,,,,,,,,,,,,,,,,,,,,,,,,,,,,,,,,,,
19976,1648953249.277462,1648953249.304088,37.0,0.0,4496.410156,4574.871582,4754.358886999999,4200.0,4232.820313,0.0,3.0,73.0,,,,0.0,1.0,0.0,1.0,1.0,1.0,16.666666,,,,,,,,,,,,,,,,,,,,,,,,,,,,,,,,,,,,,,,,,,,,,,,,,,,,,,0.0,0.0,32.0,0.103459,1.0,0.0,,,,,,,,,,,,,,,,,,,,,,,,,
19977,1648953249.285277,1648953249.311903,38.0,0.0,4334.871582,4555.384765999999,4746.153809,4142.05127,4092.820557,0.0,3.0,73.0,,,,0.0,1.0,0.0,1.0,1.0,1.0,16.666666,,,,,,,,19.0,0.0,0.5147609999999999,-0.120361,0.083496,0.844727,0.281254,-0.020508000000000002,-0.963882,0.000541,-0.011346,-0.038082,,,,,,,,,,,,,,,,,,,,,,,,,,,,,,,,,,,,,,,,,,,,,,,,,,,,,,,,,,,,,,,,,
19978,1648953249.293092,1648953249.319817,39.0,0.0,4141.538574,4519.487305,4490.769043,4073.3332520000004,4222.05127,0.0,3.0,73.0,,,,0.0,1.0,0.0,1.0,1.0,1.0,16.666666,,,,,,,,,,,,,,,,,,,,,,,,,,,,,,,,,,,,,,,,,,,,,,,,,,,,,,,,,,,,,,,,,,,,,,,,,,,,,,,,,,,,
19979,1648953249.300906,1648953249.327632,40.0,0.0,4059.487061,4531.282227000001,4321.025879,4133.333496,4385.641113000001,0.0,3.0,73.0,,,,0.0,1.0,0.0,1.0,1.0,1.0,16.666666,,,,,,,,20.0,0.0,0.5147609999999999,-0.120361,0.083496,0.844727,0.290044,-0.031738999999999996,-0.981949,0.000585,-0.011188,-0.040327999999999996,,,,,,,,,,,,,,,,,,,,,,,,,,,,,,,,,,,,,,,,,,,,,,,,,,,,,,,,,,,,,,,,,
19980,1648953249.308721,1648953249.335547,41.0,0.0,4151.794922,4576.410156,4253.846191,4392.307617,4450.256348,0.0,3.0,73.0,,,,0.0,1.0,0.0,1.0,1.0,1.0,16.666666,,,,,,,,,,,,,,,,,,,,,,,,,,,,,,,,,,,,,,,,,,,,,,,,,,,,,,0.0,0.0,32.0,0.103459,1.0,0.0,,,,,,,,,,,,,,,,,,,,,,,,,
19981,1648953249.316535,1648953249.3433619,42.0,0.0,4406.666504,4566.666504,4297.94873,4560.512695,4453.333496,0.0,3.0,73.0,,,,0.0,1.0,0.0,1.0,1.0,1.0,16.666666,,,,,,,,21.0,0.0,0.5147609999999999,-0.120361,0.083496,0.844727,0.29688000000000003,-0.020996,-0.98146,0.0036030000000000003,-0.011192,-0.036051,,,,,,,,,,,,,,,,,,,,,,,,,,,,,,,,,,,,,,,,,,,,,,,,,,,,,,,,,,,,,,,,,
19982,1648953249.32435,1648953249.3512769,43.0,0.0,4535.384765999999,4471.282227000001,4423.589844,4494.358886999999,4246.666504,0.0,3.0,73.0,,,,0.0,1.0,0.0,1.0,1.0,1.0,16.666666,,,,,,,,,,,,,,,,,,,,,,,,,,,,,,,,,,,,,,,,,,,,,,,,,,,,,,,,,,,,,,,,,,,,,,,,,,,,,,,,,,,,
19983,1648953249.332164,1648953249.359092,44.0,0.0,4387.179688,4306.153809,4396.922852000001,4386.666504,4012.3076170000004,0.0,3.0,73.0,,,,0.0,1.0,0.0,1.0,1.0,1.0,16.666666,,,,,,,,22.0,0.0,0.514818,-0.120117,0.083496,0.844727,0.299809,-0.019532,-0.977554,0.003242,-0.011147,-0.038452,,,,,,,,,,,,,,,,,,,,,,,,,,,,,,,,,,,,,,,,,,,,,,,,,,,,,,,,,,,,,,,,,
19984,1648953249.339979,1648953249.366807,45.0,0.0,4233.846191,4341.025879,4231.794922,4162.05127,4066.6667479999996,0.0,3.0,73.0,,,,0.0,1.0,0.0,1.0,1.0,1.0,16.666666,,,,,,,,,,,,,,,,,,,,,,,,,,,,,,,,,,,,,,,,,,,,,,,,,,,,,,0.0,0.0,32.0,0.103459,1.0,0.0,,,,,,,,,,,,,,,,,,,,,,,,,
19985,1648953249.3477929,1648953249.3746212,46.0,0.0,4195.384765999999,4523.077147999999,4223.589844,4046.6667479999996,4357.94873,0.0,3.0,73.0,,,,0.0,1.0,0.0,1.0,1.0,1.0,16.666666,,,,,,,,23.0,0.0,0.514778,-0.120117,0.08374,0.844727,0.303227,-0.009276999999999999,-0.980972,-0.000207,-0.011155,-0.040662000000000004,,,,,,,,,,,,,,,,,,,,,,,,,,,,,,,,,,,,,,,,,,,,,,,,,,,,,,,,,,,,,,,,,
19986,1648953249.355608,1648953249.382336,47.0,0.0,4215.384765999999,4583.077147999999,4315.384765999999,4343.589844,4526.153809,0.0,3.0,73.0,,,,0.0,1.0,0.0,1.0,1.0,1.0,16.666666,,,,,,,,,,,,,,,,,,,,,,,,,,,,,,,,,,,,,,,,,,,,,,,,,,,,,,,,,,,,,,,,,,,,,,,,,,,,,,,,,,,,
19987,1648953249.363423,1648953249.390151,48.0,0.0,4433.333496,4563.589844,4280.0,4664.615234000001,4511.794922,0.0,3.0,73.0,,,,0.0,1.0,0.0,1.0,1.0,1.0,16.666666,,,,,,,,24.0,0.0,0.514778,-0.120117,0.08374,0.844727,0.291508,-0.025391,-0.965835,0.0028899999999999998,-0.011212,-0.042601,,,,,,,,,,,,,,,,,,,,,,,,,,,,,,,,,,,,,,,,,,,,,,,,,,,,,,,,,,,,,,,,,
19988,1648953249.3712368,1648953249.397866,49.0,0.0,4471.282227000001,4553.333496,4139.487305,4544.615234000001,4461.025879,0.0,3.0,73.0,,,,0.0,1.0,0.0,1.0,1.0,1.0,16.666666,,,,,,,,,,,,,,,,,,,,1.0,0.0,0.0,,,,,,,,,,,,,,,,,,,,,,,,,,,,,,,,0.0,0.0,32.0,0.096486,1.0,0.0,68.209076,31.142452000000002,250.308487,935.874695,51.056228999999995,155.63551299999997,67.797226,28.305769,144.597748,97.81562,357.826904,168.96666000000002,158.993546,313.326233,80.362099,18.47053,44.817158,73.093254,983.8461300000001,79.367577,55.358047,54.864959999999996,164.941086,1015.716309,94.332832
19989,1648953249.379052,1648953249.4056811,50.0,0.0,4264.102539,4661.025879,4194.358886999999,4195.897461,4323.077147999999,0.0,3.0,73.0,,,,0.0,1.0,0.0,1.0,1.0,1.0,16.666666,,,,,,,,25.0,0.0,0.514778,-0.120117,0.08374,0.844727,0.304204,-0.023438,-0.976089,0.00265,-0.011165000000000001,-0.044347000000000004,,,,,,,,,,,,,,,,,,,,,,,,,,,,,,,,,,,,,,,,,,,,,,,,,,,,,,,,,,,,,,,,,
19990,1648953249.386866,1648953249.4133961,51.0,0.0,4176.922852000001,4760.512695,4469.230957,4128.205078,4092.820557,0.0,3.0,73.0,,,,0.0,1.0,0.0,1.0,1.0,1.0,16.666666,,,,,,,,,,,,,,,,,,,,,,,,,,,,,,,,,,,,,,,,,,,,,,,,,,,,,,,,,,,,,,,,,,,,,,,,,,,,,,,,,,,,
19991,1648953249.394681,1648953249.421311,52.0,0.0,4105.128418,4681.538574,4568.717772999999,4249.743652,4003.076904,0.0,3.0,73.0,,,,0.0,1.0,0.0,1.0,1.0,1.0,16.666666,,,,,,,,26.0,0.0,0.514778,-0.120117,0.08374,0.844727,0.303227,-0.009276999999999999,-0.980972,-0.000594,-0.011122,-0.039619999999999995,,,,,,,,,,,,,,,,,,,,,,,,,,,,,,,,,,,,,,,,,,,,,,,,,,,,,,,,,,,,,,,,,
19992,1648953249.402495,1648953249.429126,53.0,0.0,4143.077147999999,4584.102539,4630.769043,4326.153809,4229.230957,0.0,3.0,73.0,,,,0.0,1.0,0.0,1.0,1.0,1.0,16.666666,,,,,,,,,,,,,,,,,,,,,,,,,,,,,,,,,,,,,,,,,,,,,,,,,,,,,,0.0,0.0,32.0,0.096486,1.0,0.0,,,,,,,,,,,,,,,,,,,,,,,,,
19993,1648953249.41031,1648953249.437041,54.0,0.0,4391.794922,4573.846191,4658.974121,4485.641113000001,4555.384765999999,0.0,3.0,73.0,,,,0.0,1.0,0.0,1.0,1.0,1.0,16.666666,,,,,,,,27.0,0.0,0.514778,-0.120117,0.08374,0.844727,0.304204,-0.023438,-0.976089,-0.00048600000000000005,-0.011084,-0.041664,,,,,,,,,,,,,,,,,,,,,,,,,,,,,,,,,,,,,,,,,,,,,,,,,,,,,,,,,,,,,,,,,
19994,1648953249.418124,1648953249.4448562,55.0,0.0,4513.333496,4616.410156,4530.769043,4613.846191,4630.256348,0.0,3.0,73.0,,,,0.0,1.0,0.0,1.0,1.0,1.0,16.666666,,,,,,,,,,,,,,,,,,,,,,,,,,,,,,,,,,,,,,,,,,,,,,,,,,,,,,,,,,,,,,,,,,,,,,,,,,,,,,,,,,,,
19995,1648953249.425939,1648953249.45277,56.0,0.0,4315.384765999999,4730.769043,4388.205078,4343.589844,4310.256348,0.0,3.0,73.0,,,,0.0,1.0,0.0,1.0,1.0,1.0,16.666666,,,,,,,,28.0,0.0,0.514778,-0.120117,0.08374,0.844727,0.289067,-0.022461000000000002,-0.973159,-0.000339,-0.011148,-0.043406,,,,,,,,,,,,,,,,,,,,,,,,,,,,,,,,,,,,,,,,,,,,,,,,,,,,,,,,,,,,,,,,,
19996,1648953249.433753,1648953249.4605849,57.0,0.0,4198.461426,4870.256348,4492.307617,4084.615479,4113.333496,0.0,3.0,73.0,,,,0.0,1.0,0.0,1.0,1.0,1.0,16.666666,,,,,,,,,,,,,,,,,,,,,,,,,,,,,,,,,,,,,,,,,,,,,,,,,,,,,,0.0,0.0,32.0,0.096486,1.0,0.0,,,,,,,,,,,,,,,,,,,,,,,,,
19997,1648953249.441568,1648953249.4685,58.0,0.0,4097.436035,4718.974121,4558.461426,4188.717772999999,4190.256348,0.0,3.0,73.0,,,,0.0,1.0,0.0,1.0,1.0,1.0,16.666666,,,,,,,,29.0,0.0,0.514778,-0.120117,0.08374,0.844727,0.29443800000000003,0.0,-0.980972,-0.003235,-0.011106999999999999,-0.03887,,,,,,,,,,,,,,,,,,,,,,,,,,,,,,,,,,,,,,,,,,,,,,,,,,,,,,,,,,,,,,,,,
19998,1648953249.449382,1648953249.476315,59.0,0.0,4096.410156,4504.102539,4528.205078,4353.846191,4332.820313,0.0,3.0,73.0,,,,0.0,1.0,0.0,1.0,1.0,1.0,16.666666,,,,,,,,,,,,,,,,,,,,,,,,,,,,,,,,,,,,,,,,,,,,,,,,,,,,,,,,,,,,,,,,,,,,,,,,,,,,,,,,,,,,
19999,1648953249.4571972,1648953249.48423,60.0,0.0,4358.461426,4483.589844,4575.384765999999,4469.743652,4552.820313,0.0,3.0,73.0,,,,0.0,1.0,0.0,1.0,1.0,1.0,16.666666,,,,,,,,30.0,0.0,0.514778,-0.120117,0.08374,0.844727,0.29443800000000003,-0.021973,-0.99025,-0.005841,-0.011022,-0.034787,,,,,,,,,,,,,,,,,,,,,,,,,,,,,,,,,,,,,,,,,,,,,,,,,,,,,,,,,,,,,,,,,
20000,1648953249.4650118,1648953249.492044,61.0,0.0,4566.153809,4491.282227000001,4554.871582,4598.974121,4728.205078,0.0,3.0,73.0,,,,0.0,1.0,0.0,1.0,1.0,1.0,16.666666,,,,,,,,,,,,,,,,,,,,,,,,,,,,,,,,,,,,,,,,,,,,,,,,,,,,,,0.0,0.0,32.0,0.096486,1.0,0.0,,,,,,,,,,,,,,,,,,,,,,,,,
20001,1648953249.472826,1648953249.499959,62.0,0.0,4493.333496,4556.410156,4536.922852000001,4441.025879,4429.743652,0.0,3.0,73.0,,,,0.0,1.0,0.0,1.0,1.0,1.0,16.666666,,,,,,,,31.0,0.0,0.514778,-0.120117,0.08374,0.844727,0.293462,-0.021485,-0.960952,-0.005208,-0.011043,-0.037315,,,,,,,,,,,,,,,,,,,,,,,,,,,,,,,,,,,,,,,,,,,,,,,,,,,,,,,,,,,,,,,,,
20002,1648953249.4806411,1648953249.507774,63.0,0.0,4315.384765999999,4675.384765999999,4698.974121,4205.641113000001,4009.2307130000004,0.0,3.0,73.0,,,,0.0,1.0,0.0,1.0,1.0,1.0,16.666666,,,,,,,,,,,,,,,,,,,,,,,,,,,,,,,,,,,,,,,,,,,,,,,,,,,,,,,,,,,,,,,,,,,,,,,,,,,,,,,,,,,,
20003,1648953249.488455,1648953249.5156891,64.0,0.0,4128.717772999999,4636.410156,4725.641113000001,4168.717772999999,4043.5898439999996,450.0,3.0,73.0,,,,0.0,1.0,0.0,1.0,1.0,1.0,16.666666,,,,,,,,32.0,0.0,0.514778,-0.120117,0.08374,0.844727,0.301762,-0.019532,-0.9824370000000001,-0.004639,-0.011159,-0.039589,,,,,,,,,,,,,,,,,,,,,,,,,,,,,,,,,,,,,,,,,,,,,,,,,,,,,,,,,,,,,,,,,
20004,1648953249.49627,1648953249.523504,65.0,0.0,4107.179688,4498.974121,4493.333496,4266.666504,4324.102539,450.0,3.0,73.0,,,,0.0,1.0,0.0,1.0,1.0,1.0,16.666666,1.0,0.0,0.0,0.0,0.0,0.0,0.0,,,,,,,,,,,,,1.0,0.0,0.0,,,,,,,,,,,,,,,,,,,,,,,,,,,,,,,,0.0,0.0,32.0,0.090643,1.0,0.0,53.077991000000004,36.575806,250.550323,945.1063230000001,52.575249,161.864151,74.283905,26.196239000000002,144.282349,108.730713,344.926025,210.605392,196.505722,317.221832,77.514641,14.559781,46.445510999999996,83.468018,974.155334,80.791382,64.11158,68.128159,189.227905,963.34375,87.31010400000001
20005,1648953249.5040839,1648953249.531419,66.0,0.0,4316.410156,4452.820313,4482.05127,4337.436035,4498.974121,50.0,3.0,73.0,,,,0.0,1.0,0.0,1.0,1.0,1.0,16.666666,,,,,,,,33.0,0.0,0.514778,-0.120117,0.08374,0.844727,0.29443800000000003,-0.024413999999999998,-0.969741,-0.004224,-0.011165999999999999,-0.03524,,,,,,,,,,,,,,,,,,,,,,,,,,,,,,,,,,,,,,,,,,,,,,,,,,,,,,,,,,,,,,,,,
20006,1648953249.511899,1648953249.539233,67.0,0.0,4498.974121,4496.922852000001,4612.820313,4246.153809,4491.282227000001,450.0,3.0,73.0,,,,0.0,1.0,0.0,1.0,1.0,1.0,16.666666,,,,,,,,,,,,,,,,,,,,,,,,,,,,,,,,,,,,,,,,,,,,,,,,,,,,,,,,,,,,,,,,,,,,,,,,,,,,,,,,,,,,
20007,1648953249.519714,1648953249.547148,68.0,0.0,4394.871582,4580.0,4547.179688,4174.871582,4273.846191,8.0,3.0,73.0,,,,0.0,1.0,0.0,1.0,1.0,1.0,16.666666,,,,,,,,34.0,0.0,0.514738,-0.120117,0.083984,0.844727,0.31299299999999997,-0.009276999999999999,-0.996109,-0.00678,-0.011173,-0.031471,,,,,,,,,,,,,,,,,,,,,,,,,,,,,,,,,,,,,,,,,,,,,,,,,,,,,,,,,,,,,,,,,
20008,1648953249.527528,1648953249.554963,69.0,0.0,4124.102539,4643.589844,4516.922852000001,4212.820313,4040.512939,450.0,3.0,73.0,,,,0.0,1.0,0.0,1.0,1.0,1.0,16.666666,,,,,,,,,,,,,,,,,,,,,,,,,,,,,,,,,,,,,,,,,,,,,,,,,,,,,,0.0,0.0,32.0,0.090643,1.0,0.0,,,,,,,,,,,,,,,,,,,,,,,,,
20009,1648953249.535343,1648953249.5626779,70.0,0.0,4132.820313,4640.512695,4650.769043,4306.153809,4174.871582,0.0,3.0,73.0,,,,0.0,1.0,0.0,0.0,1.0,1.0,8.333333,,,,,,,,35.0,0.0,0.514738,-0.120117,0.083984,0.844727,0.29736799999999997,-0.015625,-0.973648,-0.006053,-0.011179000000000001,-0.034379,,,,,,,,,,,,,,,,,,,,,,,,,,,,,,,,,,,,,,,,,,,,,,,,,,,,,,,,,,,,,,,,,
20010,1648953249.543157,1648953249.5705929,71.0,0.0,4335.384765999999,4616.410156,4595.897461,4409.743652,4507.179688,450.0,3.0,73.0,,,,0.0,1.0,0.0,0.0,1.0,1.0,8.333333,,,,,,,,,,,,,,,,,,,,,,,,,,,,,,,,,,,,,,,,,,,,,,,,,,,,,,,,,,,,,,,,,,,,,,,,,,,,,,,,,,,,
20011,1648953249.550972,1648953249.578408,72.0,0.0,4486.153809,4534.871582,4536.410156,4527.692383,4614.358886999999,450.0,3.0,73.0,,,,0.0,1.0,0.0,0.0,1.0,1.0,8.333333,,,,,,,,36.0,0.0,0.514738,-0.120117,0.083984,0.844727,0.291997,-0.020508000000000002,-0.9707180000000001,-0.005301,-0.011184,-0.030697000000000002,,,,,,,,,,,,,,,,,,,,,,,,,,,,,,,,,,,,,,,,,,,,,,,,,,,,,,,,,,,,,,,,,
20012,1648953249.558786,1648953249.586323,73.0,0.0,4508.205078,4454.358886999999,4670.256348,4338.461426,4356.410156,52.0,3.0,73.0,,,,0.0,1.0,0.0,0.0,1.0,0.0,0.0,,,,,,,,,,,,,,,,,,,,,,,,,,,,,,,,,,,,,,,,,,,,,,,,,,,,,,0.0,0.0,32.0,0.090643,1.0,0.0,,,,,,,,,,,,,,,,,,,,,,,,,
20013,1648953249.566601,1648953249.594137,74.0,0.0,4433.846191,4555.897461,4722.05127,4077.4357909999994,4170.256348,450.0,3.0,73.0,,,,0.0,1.0,0.0,0.0,1.0,0.0,0.0,,,,,,,,37.0,0.0,0.5150819999999999,-0.120361,0.083984,0.844482,0.295415,-0.013184,-0.983902,-0.004722,-0.011189,-0.033583999999999996,,,,,,,,,,,,,,,,,,,,,,,,,,,,,,,,,,,,,,,,,,,,,,,,,,,,,,,,,,,,,,,,,
20014,1648953249.574415,1648953249.6019518,75.0,0.0,4179.487305,4667.179688,4604.615234000001,4124.615234000001,4168.205078,1.0,3.0,73.0,,,,0.0,1.0,0.0,0.0,1.0,0.0,0.0,,,,,,,,,,,,,,,,,,,,,,,,,,,,,,,,,,,,,,,,,,,,,,,,,,,,,,,,,,,,,,,,,,,,,,,,,,,,,,,,,,,,
20015,1648953249.58223,1648953249.609667,76.0,0.0,4021.025635,4510.769043,4541.538574,4333.846191,4270.769043,450.0,3.0,73.0,,,,0.0,1.0,0.0,0.0,1.0,0.0,0.0,,,,,,,,38.0,0.0,0.5150819999999999,-0.120361,0.083984,0.844482,0.29736799999999997,-0.020508000000000002,-0.99025,-0.004201,-0.011144,-0.029932999999999998,,,,,,,,,,,,,,,,,,,,,,,,,,,,,,,,,,,,,,,,,,,,,,,,,,,,,,,,,,,,,,,,,
20016,1648953249.590044,1648953249.617482,77.0,0.0,4161.538574,4312.307617,4513.846191,4434.871582,4535.384765999999,450.0,3.0,73.0,,,,0.0,1.0,0.0,0.0,1.0,0.0,0.0,,,,,,,,,,,,,,,,,,,,,,,,,,,,,,,,,,,,,,,,,,,,,,,,,,,,,,0.0,0.0,32.0,0.090643,1.0,0.0,,,,,,,,,,,,,,,,,,,,,,,,,
20017,1648953249.597859,1648953249.6251972,78.0,0.0,4425.641113000001,4389.743652,4396.410156,4473.846191,4764.615234000001,450.0,3.0,73.0,,,,0.0,1.0,0.0,0.0,1.0,0.0,0.0,,,,,,,,39.0,0.0,0.5150819999999999,-0.120361,0.083984,0.844482,0.301274,-0.024903,-0.972671,-0.0008029999999999999,-0.011153,-0.032945999999999996,,,,,,,,,,,,,,,,,,,,,,,,,,,,,,,,,,,,,,,,,,,,,,,,,,,,,,,,,,,,,,,,,
20018,1648953249.605673,1648953249.633112,79.0,0.0,4527.179688,4522.563965,4407.179688,4422.05127,4507.179688,1.0,3.0,73.0,,,,0.0,1.0,0.0,0.0,1.0,0.0,0.0,,,,,,,,,,,,,,,,,,,,,,,,,,,,,,,,,,,,,,,,,,,,,,,,,,,,,,,,,,,,,,,,,,,,,,,,,,,,,,,,,,,,
20019,1648953249.6134882,1648953249.6409268,80.0,0.0,4377.436035,4333.333496,4476.410156,4285.128418,4078.974365,450.0,3.0,73.0,,,,0.0,1.0,0.0,0.0,1.0,0.0,0.0,,,,,,,,40.0,0.0,0.5150819999999999,-0.120361,0.083984,0.844482,0.295415,-0.023438,-0.984878,-0.000625,-0.011112,-0.029407,,,,,,,,,,,,,,,,,,,,,,,,,,,,,,,,,,,,,,,,,,,,,,,,,,,,,,,,,,,,,,,,,
20020,1648953249.621302,1648953249.648742,81.0,0.0,4227.692383,4200.0,4312.307617,4103.077147999999,4056.4101560000004,450.0,3.0,73.0,,,,0.0,1.0,0.0,0.0,1.0,0.0,0.0,,,,,,,,,,,,,,,,,,,,1.0,0.0,0.0,,,,,,,,,,,,,,,,,,,,,,,,,,,,,,,,0.0,0.0,32.0,0.107342,1.0,0.0,38.663113,41.737682,247.72003199999997,951.923462,53.033333,174.747513,80.663651,28.441740000000003,146.997726,114.684349,355.23379500000004,266.570984,239.36785899999998,313.19491600000003,76.36718,13.628747,50.551182,96.916969,952.120667,83.813622,73.10932199999999,86.171738,217.534683,920.450928,81.458794
20021,1648953249.629117,1648953249.656457,82.0,0.0,4178.461426,4427.692383,4228.717772999999,4033.3332520000004,4305.128418,450.0,3.0,73.0,,,,0.0,1.0,0.0,0.0,1.0,0.0,0.0,,,,,,,,41.0,0.0,0.5150819999999999,-0.120361,0.083984,0.844482,0.302739,-0.009276999999999999,-0.969741,-0.000367,-0.011123000000000001,-0.032423,,,,,,,,,,,,,,,,,,,,,,,,,,,,,,,,,,,,,,,,,,,,,,,,,,,,,,,,,,,,,,,,,
20022,1648953249.6369321,1648953249.664372,83.0,0.0,4148.717772999999,4625.128418,4307.179688,4250.256348,4483.589844,1.0,3.0,73.0,,,,0.0,1.0,0.0,0.0,1.0,0.0,0.0,,,,,,,,,,,,,,,,,,,,,,,,,,,,,,,,,,,,,,,,,,,,,,,,,,,,,,,,,,,,,,,,,,,,,,,,,,,,,,,,,,,,
20023,1648953249.644746,1648953249.672186,84.0,0.0,4345.641113000001,4591.794922,4283.077147999999,4542.05127,4523.077147999999,450.0,3.0,73.0,,,,0.0,1.0,0.0,0.0,1.0,0.0,0.0,,,,,,,,42.0,0.0,0.5150819999999999,-0.120361,0.083984,0.844482,0.29639099999999996,0.002441,-0.981949,-0.00042800000000000005,-0.011134,-0.028986,,,,,,,,,,,,,,,,,,,,,,,,,,,,,,,,,,,,,,,,,,,,,,,,,,,,,,,,,,,,,,,,,
20024,1648953249.652561,1648953249.680001,85.0,0.0,4570.769043,4503.589844,4218.461426,4595.384765999999,4461.025879,450.0,3.0,73.0,,,,0.0,1.0,0.0,0.0,1.0,0.0,0.0,,,,,,,,,,,,,,,,,,,,,,,,,,,,,,,,,,,,,,,,,,,,,,,,,,,,,,0.0,0.0,32.0,0.107342,1.0,0.0,,,,,,,,,,,,,,,,,,,,,,,,,
20025,1648953249.660375,1648953249.687716,86.0,0.0,4360.0,4502.05127,4223.077147999999,4307.179688,4285.128418,450.0,3.0,73.0,,,,0.0,1.0,0.0,0.0,1.0,0.0,0.0,,,,,,,,43.0,0.0,0.5150819999999999,-0.120361,0.083984,0.844482,0.300298,-0.011231,-0.9707180000000001,0.002691,-0.011144,-0.032191000000000004,,,,,,,,,,,,,,,,,,,,,,,,,,,,,,,,,,,,,,,,,,,,,,,,,,,,,,,,,,,,,,,,,
20026,1648953249.66819,1648953249.6955311,87.0,0.0,4128.717772999999,4674.871582,4275.384765999999,4066.6667479999996,4126.666504,1.0,3.0,73.0,,,,0.0,1.0,0.0,0.0,1.0,0.0,0.0,,,,,,,,,,,,,,,,,,,,,,,,,,,,,,,,,,,,,,,,,,,,,,,,,,,,,,,,,,,,,,,,,,,,,,,,,,,,,,,,,,,,
20027,1648953249.6760051,1648953249.7033448,88.0,0.0,4220.512695,4838.974121,4418.974121,4067.179443,4039.487061,450.0,3.0,73.0,,,,0.0,1.0,0.0,0.0,1.0,0.0,0.0,,,,,,,,44.0,0.0,0.5150819999999999,-0.120361,0.083984,0.844482,0.300298,-0.02002,-0.980484,0.002471,-0.011104000000000001,-0.035026,,,,,,,,,,,,,,,,,,,,,,,,,,,,,,,,,,,,,,,,,,,,,,,,,,,,,,,,,,,,,,,,,
20028,1648953249.683819,1648953249.7112598,89.0,0.0,4395.384765999999,4724.615234000001,4452.820313,4289.230957,4144.615234000001,450.0,3.0,73.0,,,,0.0,1.0,0.0,0.0,1.0,0.0,0.0,,,,,,,,,,,,,,,,,,,,,,,,,,,,,,,,,,,,,,,,,,,,,,,,,,,,,,0.0,0.0,32.0,0.107342,1.0,0.0,,,,,,,,,,,,,,,,,,,,,,,,,
20029,1648953249.691634,1648953249.719075,90.0,0.0,4464.615234000001,4637.94873,4321.025879,4620.0,4382.563965,450.0,3.0,73.0,,,,0.0,1.0,0.0,0.0,1.0,0.0,0.0,,,,,,,,45.0,0.0,0.5150819999999999,-0.120361,0.083984,0.844482,0.292973,-0.007324,-0.9707180000000001,0.002321,-0.011068000000000001,-0.031231000000000002,,,,,,,,,,,,,,,,,,,,,,,,,,,,,,,,,,,,,,,,,,,,,,,,,,,,,,,,,,,,,,,,,
20030,1648953249.699448,1648953249.72699,91.0,0.0,4447.179688,4637.436035,4304.615234000001,4746.666504,4553.333496,1.0,3.0,73.0,,,,0.0,1.0,0.0,0.0,1.0,0.0,0.0,,,,,,,,,,,,,,,,,,,,,,,,,,,,,,,,,,,,,,,,,,,,,,,,,,,,,,,,,,,,,,,,,,,,,,,,,,,,,,,,,,,,
20031,1648953249.707263,1648953249.734805,92.0,0.0,4238.461426,4573.846191,4263.589844,4411.282227000001,4426.666504,450.0,3.0,73.0,,,,0.0,1.0,0.0,0.0,1.0,0.0,0.0,,,,,,,,46.0,0.0,0.5150819999999999,-0.120361,0.083984,0.844482,0.301274,-0.012206999999999999,-0.984878,0.0019920000000000003,-0.010986,-0.034163,,,,,,,,,,,,,,,,,,,,,,,,,,,,,,,,,,,,,,,,,,,,,,,,,,,,,,,,,,,,,,,,,
20032,1648953249.715077,1648953249.742719,93.0,0.0,4144.615234000001,4678.974121,4282.563965,4085.1281740000004,4271.282227000001,450.0,3.0,73.0,,,,0.0,1.0,0.0,0.0,1.0,0.0,0.0,,,,,,,,,,,,,,,,,,,,,,,,,,,,,,,,,,,,,,,,,,,,,,,,,,,,,,0.0,0.0,32.0,0.107342,1.0,0.0,,,,,,,,,,,,,,,,,,,,,,,,,
20033,1648953249.722892,1648953249.750534,94.0,0.0,4118.461426,4746.153809,4533.333496,4143.077147999999,4249.230957,450.0,3.0,73.0,,,,0.0,1.0,0.0,0.0,1.0,0.0,0.0,,,,,,,,47.0,0.0,0.5150819999999999,-0.120361,0.083984,0.844482,0.298344,-0.02002,-0.981949,0.004869,-0.011059000000000001,-0.036801,,,,,,,,,,,,,,,,,,,,,,,,,,,,,,,,,,,,,,,,,,,,,,,,,,,,,,,,,,,,,,,,,
20034,1648953249.730706,1648953249.758249,95.0,0.0,4083.5898439999996,4565.128418,4634.871582,4310.256348,4287.692383,1.0,3.0,73.0,,,,0.0,1.0,0.0,0.0,1.0,0.0,0.0,,,,,,,,,,,,,,,,,,,,,,,,,,,,,,,,,,,,,,,,,,,,,,,,,,,,,,,,,,,,,,,,,,,,,,,,,,,,,,,,,,,,
20035,1648953249.738521,1648953249.7660642,96.0,0.0,4272.820313,4514.358886999999,4582.05127,4468.717772999999,4432.820313,450.0,3.0,73.0,,,,0.0,1.0,0.0,0.0,1.0,0.0,0.0,,,,,,,,48.0,0.0,0.5150819999999999,-0.120361,0.083984,0.844482,0.31006300000000003,-0.010254000000000001,-0.9799950000000001,0.007458,-0.011125,-0.039077999999999995,,,,,,,,,,,,,,,,,,,,,,,,,,,,,,,,,,,,,,,,,,,,,,,,,,,,,,,,,,,,,,,,,
20036,1648953249.746335,1648953249.773779,97.0,0.0,4540.512695,4641.538574,4491.794922,4610.256348,4604.615234000001,450.0,3.0,73.0,,,,0.0,1.0,0.0,0.0,1.0,0.0,0.0,,,,,,,,,,,,,,,,,,,,1.0,0.0,0.0,,,,,,,,,,,,,,,,,,,,,,,,,,,,,,,,0.0,0.0,32.0,0.083179,1.0,0.0,27.369736,46.002296,242.622452,954.6414789999999,51.514339,185.985306,83.970619,31.881245,151.099167,112.94376399999999,362.359589,316.952362,274.599152,300.11859100000004,77.202682,14.804364999999999,56.132599,109.663948,920.988281,87.159439,77.989868,105.161102,241.644363,894.107788,76.725365
20037,1648953249.75415,1648953249.781594,98.0,0.0,4529.230957,4654.358886999999,4310.769043,4442.563965,4402.05127,450.0,3.0,73.0,,,,0.0,1.0,0.0,0.0,1.0,0.0,0.0,,,,,,,,49.0,0.0,0.5150819999999999,-0.120361,0.083984,0.844482,0.304692,-0.023926,-0.982925,0.003587,-0.011087,-0.034828,,,,,,,,,,,,,,,,,,,,,,,,,,,,,,,,,,,,,,,,,,,,,,,,,,,,,,,,,,,,,,,,,
20038,1648953249.761964,1648953249.789309,99.0,0.0,4314.871582,4749.230957,4251.282227000001,4118.974121,4051.794922,1.0,3.0,73.0,,,,0.0,1.0,0.0,0.0,1.0,0.0,0.0,,,,,,,,,,,,,,,,,,,,,,,,,,,,,,,,,,,,,,,,,,,,,,,,,,,,,,,,,,,,,,,,,,,,,,,,,,,,,,,,,,,,
20039,1648953249.769779,1648953249.797124,100.0,0.0,4098.974121,4857.436035,4494.358886999999,4098.461426,4203.077147999999,450.0,3.0,73.0,,,,0.0,1.0,0.0,0.0,1.0,0.0,0.0,,,,,,,,50.0,0.0,0.5150819999999999,-0.120361,0.083984,0.844482,0.300298,-0.018555000000000002,-0.988785,0.006256,-0.011248000000000001,-0.0374,,,,,,,,,,,,,,,,,,,,,,,,,,,,,,,,,,,,,,,,,,,,,,,,,,,,,,,,,,,,,,,,,
20040,1648953249.777593,1648953249.8048391,101.0,0.0,4022.0512700000004,4640.512695,4575.897461,4342.05127,4514.358886999999,450.0,3.0,73.0,,,,0.0,1.0,0.0,0.0,1.0,0.0,0.0,,,,,,,,,,,,,,,,,,,,,,,,,,,,,,,,,,,,,,,,,,,,,,,,,,,,,,0.0,0.0,32.0,0.083179,1.0,0.0,,,,,,,,,,,,,,,,,,,,,,,,,
20041,1648953249.785408,1648953249.812654,102.0,0.0,4225.641113000001,4518.974121,4502.563965,4535.384765999999,4548.205078,450.0,3.0,73.0,,,,0.0,1.0,0.0,0.0,1.0,0.0,0.0,,,,,,,,51.0,0.0,0.5150819999999999,-0.120361,0.083984,0.844482,0.295903,-0.025879000000000003,-0.972671,0.008657999999999999,-0.011344,-0.039666,,,,,,,,,,,,,,,,,,,,,,,,,,,,,,,,,,,,,,,,,,,,,,,,,,,,,,,,,,,,,,,,,
20042,1648953249.7932231,1648953249.820369,103.0,0.0,4360.512695,4746.153809,4527.179688,4410.256348,4423.077147999999,1.0,3.0,73.0,,,,0.0,1.0,0.0,0.0,1.0,0.0,0.0,,,,,,,,,,,,,,,,,,,,,,,,,,,,,,,,,,,,,,,,,,,,,,,,,,,,,,,,,,,,,,,,,,,,,,,,,,,,,,,,,,,,
20043,1648953249.8010368,1648953249.828284,104.0,0.0,4276.922852000001,4863.077147999999,4473.846191,4168.717772999999,4284.615234000001,450.0,3.0,73.0,,,,0.0,1.0,0.0,0.0,1.0,0.0,0.0,,,,,,,,52.0,0.0,0.515042,-0.120361,0.084229,0.844482,0.291508,-0.018555000000000002,-0.981949,0.007937999999999999,-0.01143,-0.041706,,,,,,,,,,,,,,,,,,,,,,,,,,,,,,,,,,,,,,,,,,,,,,,,,,,,,,,,,,,,,,,,,
20044,1648953249.808852,1648953249.836098,105.0,0.0,4233.333496,4735.384765999999,4394.871582,4073.8461909999996,4065.641113,450.0,3.0,73.0,,,,0.0,1.0,0.0,0.0,1.0,0.0,0.0,,,,,,,,,,,,,,,,,,,,,,,,,,,,,,,,,,,,,,,,,,,,,,,,,,,,,,0.0,0.0,32.0,0.083179,1.0,0.0,,,,,,,,,,,,,,,,,,,,,,,,,
20045,1648953249.8166661,1648953249.844013,106.0,0.0,4355.897461,4691.282227000001,4594.358886999999,4196.922852000001,4087.6923829999996,450.0,3.0,73.0,,,,0.0,1.0,0.0,0.0,1.0,0.0,0.0,,,,,,,,53.0,0.0,0.515042,-0.120361,0.084229,0.844482,0.29395,-0.007812999999999999,-0.9746239999999999,0.007242,-0.011313,-0.043541,,,,,,,,,,,,,,,,,,,,,,,,,,,,,,,,,,,,,,,,,,,,,,,,,,,,,,,,,,,,,,,,,
20046,1648953249.824481,1648953249.8518279,107.0,0.0,4386.666504,4670.769043,4708.205078,4412.820313,4394.358886999999,1.0,3.0,73.0,,,,0.0,1.0,0.0,0.0,1.0,0.0,0.0,,,,,,,,,,,,,,,,,,,,,,,,,,,,,,,,,,,,,,,,,,,,,,,,,,,,,,,,,,,,,,,,,,,,,,,,,,,,,,,,,,,,
20047,1648953249.832295,1648953249.8597429,108.0,0.0,4385.128418,4574.871582,4558.974121,4615.897461,4567.692383,450.0,3.0,73.0,,,,0.0,1.0,0.0,0.0,1.0,0.0,0.0,,,,,,,,54.0,0.0,0.5150819999999999,-0.120361,0.083984,0.844482,0.295903,-0.025879000000000003,-0.972671,0.003442,-0.011207,-0.038992,,,,,,,,,,,,,,,,,,,,,,,,,,,,,,,,,,,,,,,,,,,,,,,,,,,,,,,,,,,,,,,,,
20048,1648953249.84011,1648953249.867558,109.0,0.0,4396.922852000001,4634.358886999999,4484.102539,4452.307617,4463.077147999999,450.0,3.0,73.0,,,,0.0,1.0,0.0,0.0,1.0,0.0,0.0,,,,,,,,,,,,,,,,,,,,,,,,,,,,,,,,,,,,,,,,,,,,,,,,,,,,,,0.0,0.0,32.0,0.083179,1.0,0.0,,,,,,,,,,,,,,,,,,,,,,,,,
20049,1648953249.847924,1648953249.875473,110.0,0.0,4357.94873,4783.077147999999,4536.410156,4147.179688,4324.615234000001,450.0,3.0,73.0,,,,0.0,1.0,0.0,0.0,1.0,0.0,0.0,,,,,,,,55.0,0.0,0.515042,-0.120361,0.084229,0.844482,0.29395,-0.007812999999999999,-0.9746239999999999,0.003195,-0.011111,-0.041098,,,,,,,,,,,,,,,,,,,,,,,,,,,,,,,,,,,,,,,,,,,,,,,,,,,,,,,,,,,,,,,,,
20050,1648953249.855739,1648953249.883287,111.0,0.0,4205.641113000001,4709.230957,4583.589844,4106.153809,4200.512695,1.0,3.0,73.0,,,,0.0,1.0,0.0,0.0,1.0,0.0,0.0,,,,,,,,,,,,,,,,,,,,,,,,,,,,,,,,,,,,,,,,,,,,,,,,,,,,,,,,,,,,,,,,,,,,,,,,,,,,,,,,,,,,
20051,1648953249.863554,1648953249.891202,112.0,0.0,4035.384521,4461.025879,4550.256348,4276.922852000001,4188.717772999999,450.0,3.0,73.0,,,,0.0,1.0,0.0,0.0,1.0,0.0,0.0,,,,,,,,56.0,0.0,0.5150819999999999,-0.120361,0.083984,0.844482,0.295415,-0.019532,-0.976089,0.002925,-0.011172,-0.043043,,,,,,,,,,,,,,,,,,,,,,,,,,,,,,,,,,,,,,,,,,,,,,,,,,,,,,,,,,,,,,,,,
20052,1648953249.871368,1648953249.899017,113.0,0.0,4063.5898439999996,4405.641113000001,4401.025879,4434.871582,4394.871582,450.0,3.0,73.0,,,,0.0,1.0,0.0,0.0,1.0,0.0,0.0,,,,,,,,,,,,,,,,,,,,1.0,0.0,0.0,,,,,,,,,,,,,,,,,,,,,,,,,,,,,,,,0.0,0.0,32.0,0.093428,1.0,0.0,19.819443,49.035171999999996,236.660233,948.7471310000001,47.962029,192.384262,83.645157,35.249846999999995,155.148788,103.445251,354.761017,340.36499,290.670959,278.800507,79.49200400000001,17.906374,61.147953,118.729561,888.535706,88.684265,76.96090699999999,119.42955800000001,253.10621600000002,897.35376,73.103371
20053,1648953249.879183,1648953249.906932,114.0,0.0,4266.153809,4491.794922,4277.436035,4475.897461,4540.0,450.0,3.0,73.0,,,,0.0,1.0,0.0,0.0,1.0,0.0,0.0,,,,,,,,57.0,0.0,0.5150819999999999,-0.120361,0.083984,0.844482,0.300786,-0.013672,-0.973648,-0.000346,-0.011276000000000001,-0.038495,,,,,,,,,,,,,,,,,,,,,,,,,,,,,,,,,,,,,,,,,,,,,,,,,,,,,,,,,,,,,,,,,
20054,1648953249.886997,1648953249.914747,115.0,0.0,4501.025879,4520.0,4231.282227000001,4495.897461,4392.307617,1.0,3.0,73.0,,,,0.0,1.0,0.0,0.0,1.0,0.0,0.0,,,,,,,,,,,,,,,,,,,,,,,,,,,,,,,,,,,,,,,,,,,,,,,,,,,,,,,,,,,,,,,,,,,,,,,,,,,,,,,,,,,,
20055,1648953249.8948119,1648953249.922662,116.0,0.0,4653.846191,4542.05127,4263.589844,4526.153809,4216.922852000001,450.0,3.0,73.0,,,,0.0,1.0,0.0,0.0,1.0,0.0,0.0,,,,,,,,58.0,0.0,0.5150819999999999,-0.120361,0.083984,0.844482,0.299321,-0.014649,-0.963882,0.002716,-0.011222,-0.0407,,,,,,,,,,,,,,,,,,,,,,,,,,,,,,,,,,,,,,,,,,,,,,,,,,,,,,,,,,,,,,,,,
20056,1648953249.902626,1648953249.930476,117.0,0.0,4562.563965,4463.077147999999,4328.205078,4389.230957,4191.282227000001,450.0,3.0,73.0,,,,0.0,1.0,0.0,0.0,1.0,0.0,0.0,,,,,,,,,,,,,,,,,,,,,,,,,,,,,,,,,,,,,,,,,,,,,,,,,,,,,,0.0,0.0,32.0,0.093428,1.0,0.0,,,,,,,,,,,,,,,,,,,,,,,,,
20057,1648953249.910441,1648953249.938191,118.0,0.0,4280.0,4370.256348,4234.358886999999,4074.8718259999996,4220.0,450.0,3.0,73.0,,,,0.0,1.0,0.0,0.0,1.0,0.0,0.0,,,,,,,,59.0,0.0,0.5150819999999999,-0.120361,0.083984,0.844482,0.29395,-0.011719,-0.969253,0.002493,-0.011174,-0.036532,,,,,,,,,,,,,,,,,,,,,,,,,,,,,,,,,,,,,,,,,,,,,,,,,,,,,,,,,,,,,,,,,
20058,1648953249.918255,1648953249.946006,119.0,0.0,4096.410156,4530.256348,4243.077147999999,4059.487061,4401.538574,1.0,3.0,73.0,,,,0.0,1.0,0.0,0.0,1.0,0.0,0.0,,,,,,,,,,,,,,,,,,,,,,,,,,,,,,,,,,,,,,,,,,,,,,,,,,,,,,,,,,,,,,,,,,,,,,,,,,,,,,,,,,,,
20059,1648953249.92607,1648953249.953721,120.0,0.0,4093.8461909999996,4713.333496,4542.563965,4350.769043,4523.589844,450.0,3.0,73.0,,,,0.0,1.0,0.0,0.0,1.0,0.0,0.0,,,,,,,,60.0,0.0,0.5150819999999999,-0.120361,0.083984,0.844482,0.28320700000000004,-0.028808999999999998,-0.980484,0.002195,-0.011082,-0.038787999999999996,,,,,,,,,,,,,,,,,,,,,,,,,,,,,,,,,,,,,,,,,,,,,,,,,,,,,,,,,,,,,,,,,
20060,1648953249.9338849,1648953249.961536,121.0,0.0,4217.94873,4590.256348,4550.769043,4577.94873,4518.461426,450.0,3.0,73.0,,,,0.0,1.0,0.0,0.0,1.0,0.0,0.0,,,,,,,,,,,,,,,,,,,,,,,,,,,,,,,,,,,,,,,,,,,,,,,,,,,,,,0.0,0.0,32.0,0.093428,1.0,0.0,,,,,,,,,,,,,,,,,,,,,,,,,
20061,1648953249.941699,1648953249.969251,122.0,0.0,4300.512695,4526.666504,4297.94873,4421.538574,4450.256348,450.0,3.0,73.0,,,,0.0,1.0,0.0,0.0,1.0,0.0,0.0,,,,,,,,61.0,0.0,0.515139,-0.120117,0.083984,0.844482,0.303227,-0.023438,-0.9873200000000001,0.0018780000000000001,-0.011097,-0.040817,,,,,,,,,,,,,,,,,,,,,,,,,,,,,,,,,,,,,,,,,,,,,,,,,,,,,,,,,,,,,,,,,
20062,1648953249.9495142,1648953249.977066,123.0,0.0,4331.282227000001,4715.384765999999,4426.153809,4154.871582,4293.846191,1.0,3.0,73.0,,,,0.0,1.0,0.0,0.0,1.0,0.0,0.0,,,,,,,,,,,,,,,,,,,,,,,,,,,,,,,,,,,,,,,,,,,,,,,,,,,,,,,,,,,,,,,,,,,,,,,,,,,,,,,,,,,,
20063,1648953249.9573278,1648953249.984781,124.0,0.0,4192.820313,4722.563965,4641.538574,4143.077147999999,4049.2307130000004,450.0,3.0,73.0,,,,0.0,1.0,0.0,0.0,1.0,0.0,0.0,,,,,,,,62.0,0.0,0.5155390000000001,-0.120117,0.083984,0.8442379999999999,0.30225100000000005,-0.011719,-0.975601,0.004717,-0.011208,-0.042888,,,,,,,,,,,,,,,,,,,,,,,,,,,,,,,,,,,,,,,,,,,,,,,,,,,,,,,,,,,,,,,,,
20064,1648953249.965143,1648953249.992696,125.0,0.0,4140.512695,4624.615234000001,4665.128418,4286.153809,4062.0512700000004,450.0,3.0,73.0,,,,0.0,1.0,0.0,0.0,1.0,0.0,0.0,,,,,,,,,,,,,,,,,,,,,,,,,,,,,,,,,,,,,,,,,,,,,,,,,,,,,,0.0,0.0,32.0,0.093428,1.0,0.0,,,,,,,,,,,,,,,,,,,,,,,,,
20065,1648953249.9729571,1648953250.000511,126.0,0.0,4234.871582,4616.922852000001,4576.922852000001,4334.358886999999,4345.128418,450.0,3.0,73.0,,,,0.0,1.0,0.0,0.0,1.0,0.0,0.0,,,,,,,,63.0,0.0,0.5155390000000001,-0.120117,0.083984,0.8442379999999999,0.29639099999999996,-0.020996,-0.9790190000000001,0.001267,-0.01121,-0.038404,,,,,,,,,,,,,,,,,,,,,,,,,,,,,,,,,,,,,,,,,,,,,,,,,,,,,,,,,,,,,,,,,
20066,1648953249.980772,1648953250.008426,127.0,0.0,4397.94873,4540.0,4490.256348,4413.333496,4566.153809,238.0,3.0,73.0,,,,0.0,1.0,0.0,0.0,1.0,0.0,0.0,,,,,,,,,,,,,,,,,,,,,,,,,,,,,,,,,,,,,,,,,,,,,,,,,,,,,,,,,,,,,,,,,,,,,,,,,,,,,,,,,,,,
20067,1648953249.988586,1648953250.0162401,0.0,0.0,4520.512695,4416.922852000001,4590.769043,4377.94873,4498.461426,450.0,3.0,73.0,,,,0.0,1.0,0.0,0.0,1.0,0.0,0.0,,,,,,,,0.0,0.0,0.5155390000000001,-0.120117,0.083984,0.8442379999999999,0.293462,-0.010742,-0.9873200000000001,0.00114,-0.011261,-0.040618,,,,,,,,,,,,,,,,,,,,,,,,,,,,,,,,,,,,,,,,,,,,,,,,,,,,,,,,,,,,,,,,,
20068,1648953249.996401,1648953250.0241551,1.0,0.0,4493.333496,4487.179688,4671.794922,4165.641113000001,4291.794922,450.0,3.0,73.0,,,,0.0,0.0,0.0,0.0,1.0,0.0,0.0,1.0,0.0,0.0,0.0,0.0,0.0,0.0,,,,,,,,,,,,,1.0,0.0,0.0,,,,,,,,,,,,,,,,,,,,,,,,,,,,,,,,0.0,0.0,32.0,0.099774,1.0,0.0,15.236382,50.819653,231.94574,929.586792,42.966778000000005,194.774673,81.520218,38.221542,159.104095,89.331734,336.598602,326.118896,283.983398,252.56068399999998,81.717316,22.945971,63.649333999999996,121.922081,866.9168699999999,87.17021899999999,71.380409,123.907257,245.600952,939.698608,70.636703
20069,1648953250.004215,1648953250.03197,2.0,0.0,4302.05127,4628.205078,4596.410156,4086.1538090000004,4189.743652,0.0,3.0,73.0,,,,0.0,0.0,0.0,0.0,1.0,0.0,0.0,,,,,,,,1.0,0.0,0.515139,-0.120117,0.083984,0.844482,0.292973,-0.014649,-0.980484,0.001124,-0.011356,-0.042611,,,,,,,,,,,,,,,,,,,,,,,,,,,,,,,,,,,,,,,,,,,,,,,,,,,,,,,,,,,,,,,,,
20070,1648953250.0120301,1648953250.039885,3.0,0.0,4045.641113,4522.563965,4553.846191,4182.05127,4196.922852000001,450.0,3.0,73.0,,,,0.0,0.0,1.0,0.0,1.0,0.0,0.0,,,,,,,,,,,,,,,,,,,,,,,,,,,,,,,,,,,,,,,,,,,,,,,,,,,,,,,,,,,,,,,,,,,,,,,,,,,,,,,,,,,,
20071,1648953250.019844,1648953250.0477,4.0,0.0,4048.205078,4355.384765999999,4521.538574,4336.410156,4357.436035,62.0,3.0,73.0,,,,0.0,0.0,1.0,0.0,1.0,0.0,0.0,,,,,,,,2.0,0.0,0.515139,-0.120117,0.083984,0.844482,0.286137,-0.018555000000000002,-0.979507,0.0040880000000000005,-0.011343,-0.044405,,,,,,,,,,,,,,,,,,,,,,,,,,,,,,,,,,,,,,,,,,,,,,,,,,,,,,,,,,,,,,,,,
20072,1648953250.027659,1648953250.055615,5.0,0.0,4236.410156,4434.358886999999,4373.846191,4441.025879,4618.461426,450.0,3.0,73.0,,,,0.0,0.0,1.0,0.0,1.0,0.0,0.0,,,,,,,,,,,,,,,,,,,,,,,,,,,,,,,,,,,,,,,,,,,,,,,,,,,,,,0.0,0.0,32.0,0.099774,1.0,0.0,,,,,,,,,,,,,,,,,,,,,,,,,
20073,1648953250.035474,1648953250.0634289,6.0,0.0,4452.820313,4553.333496,4308.717772999999,4509.743652,4603.077147999999,0.0,3.0,73.0,,,,0.0,0.0,1.0,0.0,1.0,0.0,0.0,,,,,,,,3.0,0.0,0.5155390000000001,-0.120117,0.083984,0.8442379999999999,0.306157,-0.019043,-0.987808,0.003679,-0.011381,-0.046117,,,,,,,,,,,,,,,,,,,,,,,,,,,,,,,,,,,,,,,,,,,,,,,,,,,,,,,,,,,,,,,,,
20074,1648953250.043288,1648953250.071344,7.0,0.0,4659.487305,4473.333496,4393.846191,4505.128418,4190.256348,450.0,3.0,73.0,,,,0.0,0.0,1.0,0.0,0.0,0.0,0.0,,,,,,,,,,,,,,,,,,,,,,,,,,,,,,,,,,,,,,,,,,,,,,,,,,,,,,,,,,,,,,,,,,,,,,,,,,,,,,,,,,,,
20075,1648953250.0511029,1648953250.079159,8.0,0.0,4586.153809,4287.179688,4402.563965,4368.717772999999,3969.743652,450.0,3.0,73.0,,,,0.0,0.0,1.0,0.0,0.0,0.0,0.0,,,,,,,,4.0,0.0,0.5155390000000001,-0.120117,0.083984,0.8442379999999999,0.290044,-0.023438,-0.969741,0.006338,-0.011415,-0.047413,,,,,,,,,,,,,,,,,,,,,,,,,,,,,,,,,,,,,,,,,,,,,,,,,,,,,,,,,,,,,,,,,
20076,1648953250.058917,1648953250.086974,9.0,0.0,4288.205078,4313.846191,4224.102539,4106.666504,4144.102539,29.0,3.0,73.0,,,,0.0,0.0,1.0,0.0,0.0,0.0,0.0,,,,,,,,,,,,,,,,,,,,,,,,,,,,,,,,,,,,,,,,,,,,,,,,,,,,,,0.0,0.0,32.0,0.099774,1.0,0.0,,,,,,,,,,,,,,,,,,,,,,,,,
20077,1648953250.066732,1648953250.0946891,10.0,0.0,4145.641113000001,4549.230957,4230.256348,4039.487061,4439.487305,450.0,3.0,73.0,,,,0.0,0.0,1.0,0.0,0.0,0.0,0.0,,,,,,,,5.0,0.0,0.5155390000000001,-0.120117,0.083984,0.8442379999999999,0.309087,-0.024903,-0.9863430000000001,0.0059,-0.011347,-0.048629,,,,,,,,,,,,,,,,,,,,,,,,,,,,,,,,,,,,,,,,,,,,,,,,,,,,,,,,,,,,,,,,,
20078,1648953250.074546,1648953250.102603,11.0,0.0,4118.974121,4645.641113000001,4485.641113000001,4269.743652,4521.025879,5.0,3.0,73.0,,,,0.0,0.0,1.0,0.0,0.0,0.0,0.0,,,,,,,,,,,,,,,,,,,,,,,,,,,,,,,,,,,,,,,,,,,,,,,,,,,,,,,,,,,,,,,,,,,,,,,,,,,,,,,,,,,,
20079,1648953250.082361,1648953250.110418,12.0,0.0,4158.974121,4561.538574,4631.282227000001,4551.282227000001,4490.769043,450.0,3.0,73.0,,,,0.0,0.0,1.0,0.0,0.0,0.0,0.0,,,,,,,,6.0,0.0,0.5155390000000001,-0.120117,0.083984,0.8442379999999999,0.28809,-0.011719,-0.977066,0.002234,-0.011336,-0.043522000000000005,,,,,,,,,,,,,,,,,,,,,,,,,,,,,,,,,,,,,,,,,,,,,,,,,,,,,,,,,,,,,,,,,
20080,1648953250.0901759,1648953250.118133,13.0,0.0,4293.846191,4488.717772999999,4621.025879,4482.05127,4508.205078,450.0,3.0,73.0,,,,0.0,0.0,1.0,0.0,0.0,0.0,0.0,,,,,,,,,,,,,,,,,,,,,,,,,,,,,,,,,,,,,,,,,,,,,,,,,,,,,,0.0,0.0,32.0,0.099774,1.0,0.0,,,,,,,,,,,,,,,,,,,,,,,,,
20081,1648953250.09799,1648953250.126048,14.0,0.0,4470.256348,4550.256348,4625.641113000001,4210.769043,4450.256348,450.0,3.0,73.0,,,,0.0,0.0,1.0,0.0,0.0,0.0,0.0,,,,,,,,7.0,0.0,0.5155390000000001,-0.120117,0.083984,0.8442379999999999,0.305669,-0.010742,-0.9863430000000001,0.00494,-0.011325,-0.045322,,,,,,,,,,,,,,,,,,,,,,,,,,,,,,,,,,,,,,,,,,,,,,,,,,,,,,,,,,,,,,,,,
20082,1648953250.1058052,1648953250.133863,15.0,0.0,4325.128418,4584.615234000001,4671.794922,4161.025879,4181.538574,5.0,3.0,73.0,,,,0.0,0.0,1.0,0.0,0.0,0.0,0.0,,,,,,,,,,,,,,,,,,,,,,,,,,,,,,,,,,,,,,,,,,,,,,,,,,,,,,,,,,,,,,,,,,,,,,,,,,,,,,,,,,,,
20083,1648953250.1136189,1648953250.1416779,16.0,0.0,4060.0,4423.077147999999,4627.692383,4318.461426,4011.281982,0.0,3.0,73.0,,,,0.0,0.0,1.0,0.0,0.0,0.0,0.0,,,,,,,,8.0,0.0,0.5155390000000001,-0.120117,0.083984,0.8442379999999999,0.299809,-0.017578,-0.977066,0.004543999999999999,-0.011462,-0.040595,,,,,,,,,,,,,,,,,,,,,,,,,,,,,,,,,,,,,,,,,,,,,,,,,,,,,,,,,,,,,,,,,
20084,1648953250.121434,1648953250.149393,17.0,0.0,4072.820557,4312.820313,4463.589844,4312.820313,4165.641113000001,0.0,3.0,73.0,,,,0.0,0.0,1.0,0.0,0.0,0.0,0.0,,,,,,,,,,,,,,,,,,,,1.0,0.0,0.0,,,,,,,,,,,,,,,,,,,,,,,,,,,,,,,,0.0,0.0,32.0,0.11192,1.0,0.0,12.341657000000001,51.313796999999994,232.987289,894.666626,37.913952,197.72439599999998,79.20668,39.930915999999996,163.46241799999999,75.181763,319.681732,277.625031,256.127747,225.872147,82.304863,29.479589,62.043071999999995,118.888618,865.8777470000001,82.492195,64.185753,116.49133300000001,218.307129,1015.177551,69.393227
20085,1648953250.1292481,1648953250.157208,18.0,0.0,4273.333496,4405.641113000001,4269.743652,4246.666504,4381.025879,0.0,3.0,73.0,,,,0.0,0.0,1.0,0.0,0.0,0.0,0.0,,,,,,,,9.0,0.0,0.515578,-0.120117,0.08374,0.8442379999999999,0.30811,-0.013184,-0.9907379999999999,0.001111,-0.011439,-0.036389,,,,,,,,,,,,,,,,,,,,,,,,,,,,,,,,,,,,,,,,,,,,,,,,,,,,,,,,,,,,,,,,,
20086,1648953250.137063,1648953250.164923,19.0,0.0,4454.358886999999,4528.205078,4206.666504,4467.179688,4439.487305,0.0,3.0,73.0,,,,0.0,0.0,1.0,0.0,0.0,0.0,0.0,,,,,,,,,,,,,,,,,,,,,,,,,,,,,,,,,,,,,,,,,,,,,,,,,,,,,,,,,,,,,,,,,,,,,,,,,,,,,,,,,,,,
20087,1648953250.144877,1648953250.172738,20.0,0.0,4578.974121,4536.410156,4233.846191,4693.846191,4437.94873,0.0,3.0,73.0,,,,0.0,0.0,1.0,0.0,0.0,0.0,0.0,,,,,,,,10.0,0.0,0.515578,-0.120117,0.08374,0.8442379999999999,0.287114,-0.014649,-0.976577,0.004076,-0.011516,-0.038805,,,,,,,,,,,,,,,,,,,,,,,,,,,,,,,,,,,,,,,,,,,,,,,,,,,,,,,,,,,,,,,,,
20088,1648953250.152692,1648953250.1804528,21.0,0.0,4512.307617,4523.589844,4231.794922,4515.897461,4424.615234000001,0.0,3.0,73.0,,,,0.0,0.0,1.0,0.0,0.0,0.0,0.0,,,,,,,,,,,,,,,,,,,,,,,,,,,,,,,,,,,,,,,,,,,,,,,,,,,,,,0.0,0.0,32.0,0.11192,1.0,0.0,,,,,,,,,,,,,,,,,,,,,,,,,
20089,1648953250.160506,1648953250.188367,22.0,0.0,4175.897461,4600.512695,4213.846191,4170.769043,4336.922852000001,0.0,3.0,73.0,,,,0.0,0.0,1.0,0.0,0.0,0.0,0.0,,,,,,,,11.0,0.0,0.515578,-0.120117,0.08374,0.8442379999999999,0.307622,-0.013184,-0.981949,0.006696,-0.011487,-0.040979,,,,,,,,,,,,,,,,,,,,,,,,,,,,,,,,,,,,,,,,,,,,,,,,,,,,,,,,,,,,,,,,,
20090,1648953250.1683211,1648953250.196182,23.0,0.0,4064.102539,4716.410156,4362.05127,4116.922852000001,4254.358886999999,0.0,3.0,73.0,,,,0.0,0.0,1.0,0.0,0.0,0.0,0.0,,,,,,,,,,,,,,,,,,,,,,,,,,,,,,,,,,,,,,,,,,,,,,,,,,,,,,,,,,,,,,,,,,,,,,,,,,,,,,,,,,,,
20091,1648953250.176135,1648953250.2039971,24.0,0.0,4140.0,4626.153809,4599.487305,4131.282227000001,4217.94873,0.0,3.0,73.0,,,,0.0,0.0,1.0,0.0,0.0,0.0,0.0,,,,,,,,12.0,0.0,0.515578,-0.120117,0.08374,0.8442379999999999,0.298344,-0.028321,-0.976089,0.006173,-0.011559,-0.036539,,,,,,,,,,,,,,,,,,,,,,,,,,,,,,,,,,,,,,,,,,,,,,,,,,,,,,,,,,,,,,,,,
20092,1648953250.18395,1648953250.211712,25.0,0.0,4042.5642090000006,4363.077147999999,4508.205078,4204.615234000001,4348.205078,0.0,3.0,73.0,,,,0.0,0.0,1.0,0.0,0.0,0.0,0.0,,,,,,,,,,,,,,,,,,,,,,,,,,,,,,,,,,,,,,,,,,,,,,,,,,,,,,0.0,0.0,32.0,0.11192,1.0,0.0,,,,,,,,,,,,,,,,,,,,,,,,,
20093,1648953250.191764,1648953250.219627,26.0,0.0,4087.6923829999996,4423.077147999999,4280.0,4424.615234000001,4537.94873,0.0,3.0,73.0,,,,0.0,0.0,1.0,0.0,0.0,0.0,0.0,,,,,,,,13.0,0.0,0.515578,-0.120117,0.08374,0.8442379999999999,0.29688000000000003,-0.027832,-0.98146,0.008583,-0.011575,-0.038988999999999996,,,,,,,,,,,,,,,,,,,,,,,,,,,,,,,,,,,,,,,,,,,,,,,,,,,,,,,,,,,,,,,,,
20094,1648953250.199579,1648953250.227442,27.0,0.0,4449.230957,4608.205078,4321.025879,4546.153809,4579.487305,0.0,3.0,73.0,,,,0.0,0.0,1.0,0.0,0.0,0.0,0.0,,,,,,,,,,,,,,,,,,,,,,,,,,,,,,,,,,,,,,,,,,,,,,,,,,,,,,,,,,,,,,,,,,,,,,,,,,,,,,,,,,,,
20095,1648953250.207394,1648953250.235356,28.0,0.0,4542.563965,4535.384765999999,4283.589844,4512.307617,4312.820313,0.0,3.0,73.0,,,,0.0,0.0,1.0,0.0,0.0,0.0,0.0,,,,,,,,14.0,0.0,0.515578,-0.120117,0.08374,0.8442379999999999,0.288579,-0.028321,-0.973648,0.004647999999999999,-0.011541,-0.034845999999999995,,,,,,,,,,,,,,,,,,,,,,,,,,,,,,,,,,,,,,,,,,,,,,,,,,,,,,,,,,,,,,,,,
20096,1648953250.215208,1648953250.243171,29.0,0.0,4386.666504,4524.615234000001,4124.615234000001,4434.871582,4120.0,0.0,3.0,73.0,,,,0.0,0.0,1.0,0.0,0.0,0.0,0.0,,,,,,,,,,,,,,,,,,,,,,,,,,,,,,,,,,,,,,,,,,,,,,,,,,,,,,0.0,0.0,32.0,0.11192,1.0,0.0,,,,,,,,,,,,,,,,,,,,,,,,,
20097,1648953250.223023,1648953250.251086,30.0,0.0,4321.538574,4669.743652,4277.436035,4180.512695,4094.8718259999996,0.0,3.0,73.0,,,,0.0,0.0,1.0,0.0,0.0,0.0,0.0,,,,,,,,15.0,0.0,0.5155390000000001,-0.120117,0.083984,0.8442379999999999,0.306157,-0.017578,-0.983902,0.0072109999999999995,-0.01151,-0.037416000000000005,,,,,,,,,,,,,,,,,,,,,,,,,,,,,,,,,,,,,,,,,,,,,,,,,,,,,,,,,,,,,,,,,
20098,1648953250.2308369,1648953250.258901,31.0,0.0,4314.871582,4699.487305,4655.384765999999,4088.205078,4069.743652,0.0,3.0,73.0,,,,0.0,0.0,1.0,0.0,0.0,0.0,0.0,,,,,,,,,,,,,,,,,,,,,,,,,,,,,,,,,,,,,,,,,,,,,,,,,,,,,,,,,,,,,,,,,,,,,,,,,,,,,,,,,,,,
20099,1648953250.238652,1648953250.266816,32.0,0.0,4176.410156,4605.641113000001,4749.230957,4244.615234000001,4170.769043,0.0,3.0,73.0,,,,0.0,0.0,1.0,0.0,0.0,0.0,0.0,,,,,,,,16.0,0.0,0.5155390000000001,-0.120117,0.083984,0.8442379999999999,0.299809,-0.016114,-0.976089,0.006587000000000001,-0.011628,-0.039777999999999994,,,,,,,,,,,,,,,,,,,,,,,,,,,,,,,,,,,,,,,,,,,,,,,,,,,,,,,,,,,,,,,,,
20100,1648953250.2464669,1648953250.274631,33.0,0.0,4131.282227000001,4468.717772999999,4447.692383,4299.487305,4413.333496,0.0,3.0,73.0,,,,0.0,0.0,1.0,0.0,0.0,0.0,0.0,,,,,,,,,,,,,,,,,,,,1.0,0.0,0.0,,,,,,,,,,,,,,,,,,,,,,,,,,,,,,,,0.0,0.0,32.0,0.10581099999999999,1.0,0.0,11.033712,51.024184999999996,244.81068399999998,846.636108,33.923134000000005,208.072357,78.353699,39.832798,167.932861,65.59343,320.275085,213.524811,214.523102,203.078018,80.623215,36.810989,56.201729,111.565048,886.831909,76.52295699999999,58.421131,99.346977,179.608582,1101.731445,69.25395999999999
20101,1648953250.254281,1648953250.2825449,34.0,0.0,4418.461426,4427.179688,4236.410156,4330.256348,4534.871582,0.0,3.0,73.0,,,,0.0,0.0,1.0,0.0,0.0,0.0,0.0,,,,,,,,17.0,0.0,0.515578,-0.120117,0.08374,0.8442379999999999,0.288579,-0.028321,-0.973648,0.006124,-0.011686,-0.035556,,,,,,,,,,,,,,,,,,,,,,,,,,,,,,,,,,,,,,,,,,,,,,,,,,,,,,,,,,,,,,,,,
20102,1648953250.2620962,1648953250.29036,35.0,0.0,4728.205078,4571.794922,4405.128418,4443.077147999999,4515.384765999999,0.0,3.0,73.0,,,,0.0,0.0,1.0,0.0,0.0,0.0,0.0,,,,,,,,,,,,,,,,,,,,,,,,,,,,,,,,,,,,,,,,,,,,,,,,,,,,,,,,,,,,,,,,,,,,,,,,,,,,,,,,,,,,
20103,1648953250.2699099,1648953250.298075,36.0,0.0,4581.538574,4536.922852000001,4484.615234000001,4388.717772999999,4473.333496,0.0,3.0,73.0,,,,0.0,0.0,1.0,0.0,0.0,0.0,0.0,,,,,,,,18.0,0.0,0.5155390000000001,-0.120117,0.083984,0.8442379999999999,0.299809,-0.016114,-0.976089,0.005609,-0.011787,-0.038104,,,,,,,,,,,,,,,,,,,,,,,,,,,,,,,,,,,,,,,,,,,,,,,,,,,,,,,,,,,,,,,,,
20104,1648953250.277725,1648953250.30589,37.0,0.0,4224.102539,4370.769043,4306.666504,4136.410156,4327.179688,0.0,3.0,73.0,,,,0.0,0.0,1.0,0.0,0.0,0.0,0.0,,,,,,,,,,,,,,,,,,,,,,,,,,,,,,,,,,,,,,,,,,,,,,,,,,,,,,0.0,0.0,32.0,0.10581099999999999,1.0,0.0,,,,,,,,,,,,,,,,,,,,,,,,,
20105,1648953250.2855392,1648953250.313605,38.0,0.0,4173.333496,4529.743652,4411.282227000001,4054.8718259999996,4131.282227000001,0.0,3.0,73.0,,,,0.0,0.0,1.0,0.0,0.0,0.0,0.0,,,,,,,,19.0,0.0,0.5155390000000001,-0.120117,0.083984,0.8442379999999999,0.298344,-0.020996,-0.984878,0.008076,-0.011683,-0.0403,,,,,,,,,,,,,,,,,,,,,,,,,,,,,,,,,,,,,,,,,,,,,,,,,,,,,,,,,,,,,,,,,
20106,1648953250.2933538,1648953250.32142,39.0,0.0,4126.153809,4697.94873,4624.615234000001,4200.512695,4037.4357909999994,0.0,3.0,73.0,,,,0.0,0.0,1.0,0.0,0.0,0.0,0.0,,,,,,,,,,,,,,,,,,,,,,,,,,,,,,,,,,,,,,,,,,,,,,,,,,,,,,,,,,,,,,,,,,,,,,,,,,,,,,,,,,,,
20107,1648953250.301168,1648953250.329135,40.0,0.0,4076.923096,4498.974121,4564.102539,4408.205078,4252.307617,0.0,3.0,73.0,,,,0.0,0.0,1.0,0.0,0.0,0.0,0.0,,,,,,,,20.0,0.0,0.5155390000000001,-0.120117,0.083984,0.8442379999999999,0.29443800000000003,-0.015137000000000001,-0.9746239999999999,0.004192,-0.011637999999999999,-0.035879,,,,,,,,,,,,,,,,,,,,,,,,,,,,,,,,,,,,,,,,,,,,,,,,,,,,,,,,,,,,,,,,,
20108,1648953250.308983,1648953250.33695,41.0,0.0,4249.230957,4345.128418,4460.512695,4410.769043,4649.743652,0.0,3.0,73.0,,,,0.0,0.0,1.0,0.0,0.0,0.0,0.0,,,,,,,,,,,,,,,,,,,,,,,,,,,,,,,,,,,,,,,,,,,,,,,,,,,,,,0.0,0.0,32.0,0.10581099999999999,1.0,0.0,,,,,,,,,,,,,,,,,,,,,,,,,
20109,1648953250.316797,1648953250.344665,42.0,0.0,4448.717772999999,4447.692383,4414.871582,4418.974121,4735.897461,0.0,3.0,73.0,,,,0.0,0.0,1.0,0.0,0.0,0.0,0.0,,,,,,,,21.0,0.0,0.515578,-0.120117,0.08374,0.8442379999999999,0.29736799999999997,-0.007324,-0.969741,0.000843,-0.011597,-0.038346,,,,,,,,,,,,,,,,,,,,,,,,,,,,,,,,,,,,,,,,,,,,,,,,,,,,,,,,,,,,,,,,,
20110,1648953250.324612,1648953250.3524802,43.0,0.0,4627.179688,4538.461426,4292.820313,4545.128418,4324.102539,0.0,3.0,73.0,,,,0.0,0.0,1.0,0.0,0.0,0.0,0.0,,,,,,,,,,,,,,,,,,,,,,,,,,,,,,,,,,,,,,,,,,,,,,,,,,,,,,,,,,,,,,,,,,,,,,,,,,,,,,,,,,,,
20111,1648953250.332426,1648953250.360195,44.0,0.0,4735.897461,4451.794922,4314.358886999999,4479.487305,4080.512939,0.0,3.0,73.0,,,,0.0,0.0,1.0,0.0,0.0,0.0,0.0,,,,,,,,22.0,0.0,0.5155390000000001,-0.120117,0.083984,0.8442379999999999,0.307134,-0.032227,-0.9834129999999999,0.0009539999999999999,-0.011511,-0.040468000000000004,,,,,,,,,,,,,,,,,,,,,,,,,,,,,,,,,,,,,,,,,,,,,,,,,,,,,,,,,,,,,,,,,
20112,1648953250.340241,1648953250.36811,45.0,0.0,4423.077147999999,4349.230957,4292.307617,4172.307617,4129.743652,0.0,3.0,73.0,,,,0.0,0.0,1.0,0.0,0.0,0.0,0.0,,,,,,,,,,,,,,,,,,,,,,,,,,,,,,,,,,,,,,,,,,,,,,,,,,,,,,0.0,0.0,32.0,0.10581099999999999,1.0,0.0,,,,,,,,,,,,,,,,,,,,,,,,,
20113,1648953250.3480551,1648953250.375924,46.0,0.0,4081.025635,4518.974121,4182.05127,4015.897461,4274.358886999999,0.0,3.0,73.0,,,,0.0,0.0,1.0,0.0,0.0,0.0,0.0,,,,,,,,23.0,0.0,0.5155390000000001,-0.120117,0.083984,0.8442379999999999,0.29443800000000003,-0.008301000000000001,-0.983902,0.000907,-0.011483,-0.036177,,,,,,,,,,,,,,,,,,,,,,,,,,,,,,,,,,,,,,,,,,,,,,,,,,,,,,,,,,,,,,,,,
20114,1648953250.35587,1648953250.3838391,47.0,0.0,4058.974365,4704.102539,4377.436035,4160.0,4431.282227000001,0.0,3.0,73.0,,,,0.0,0.0,1.0,0.0,0.0,0.0,0.0,,,,,,,,,,,,,,,,,,,,,,,,,,,,,,,,,,,,,,,,,,,,,,,,,,,,,,,,,,,,,,,,,,,,,,,,,,,,,,,,,,,,
20115,1648953250.363685,1648953250.391654,48.0,0.0,4135.384765999999,4609.743652,4624.102539,4444.102539,4508.717772999999,0.0,3.0,73.0,,,,0.0,0.0,1.0,0.0,0.0,0.0,0.0,,,,,,,,24.0,0.0,0.5155390000000001,-0.120117,0.083984,0.8442379999999999,0.29102,-0.013672,-0.980972,0.0038929999999999998,-0.011604999999999999,-0.038517,,,,,,,,,,,,,,,,,,,,,,,,,,,,,,,,,,,,,,,,,,,,,,,,,,,,,,,,,,,,,,,,,
20116,1648953250.371499,1648953250.399569,49.0,0.0,4226.153809,4491.794922,4656.922852000001,4531.282227000001,4510.769043,0.0,3.0,73.0,,,,0.0,0.0,1.0,0.0,0.0,0.0,0.0,,,,,,,,,,,,,,,,,,,,1.0,0.0,0.0,,,,,,,,,,,,,,,,,,,,,,,,,,,,,,,,0.0,0.0,32.0,0.130277,1.0,0.0,11.600181,51.457077000000005,274.525208,795.823181,32.04874,229.625992,79.012909,38.921096999999996,170.335739,63.073238,348.410675,158.58325200000002,172.569748,185.40283200000002,77.13916800000001,44.357037,48.257453999999996,105.089882,920.5029300000001,71.498749,55.116661,78.531944,144.370575,1169.366333,70.298988
20117,1648953250.379314,1648953250.407384,50.0,0.0,4437.436035,4502.05127,4631.282227000001,4361.538574,4473.333496,0.0,3.0,73.0,,,,0.0,0.0,1.0,0.0,0.0,0.0,0.0,,,,,,,,25.0,0.0,0.5155390000000001,-0.120117,0.083984,0.8442379999999999,0.31396999999999997,-0.017578,-0.978042,0.00658,-0.011567000000000001,-0.040671,,,,,,,,,,,,,,,,,,,,,,,,,,,,,,,,,,,,,,,,,,,,,,,,,,,,,,,,,,,,,,,,,
20118,1648953250.3871279,1648953250.415299,51.0,0.0,4410.769043,4546.153809,4634.871582,4237.94873,4285.128418,0.0,3.0,73.0,,,,0.0,0.0,1.0,0.0,0.0,0.0,0.0,,,,,,,,,,,,,,,,,,,,,,,,,,,,,,,,,,,,,,,,,,,,,,,,,,,,,,,,,,,,,,,,,,,,,,,,,,,,,,,,,,,,
20119,1648953250.394943,1648953250.423113,52.0,0.0,4117.436035,4565.641113000001,4613.333496,4288.717772999999,4026.6667479999996,0.0,3.0,73.0,,,,0.0,0.0,1.0,0.0,0.0,0.0,0.0,,,,,,,,26.0,0.0,0.5155390000000001,-0.120117,0.083984,0.8442379999999999,0.30225100000000005,-0.023926,-0.9741360000000001,0.008948999999999999,-0.011581999999999999,-0.042561,,,,,,,,,,,,,,,,,,,,,,,,,,,,,,,,,,,,,,,,,,,,,,,,,,,,,,,,,,,,,,,,,
20120,1648953250.402757,1648953250.431028,53.0,0.0,4068.205078,4513.846191,4586.666504,4323.589844,4102.563965,0.0,3.0,73.0,,,,0.0,0.0,1.0,0.0,0.0,0.0,0.0,,,,,,,,,,,,,,,,,,,,,,,,,,,,,,,,,,,,,,,,,,,,,,,,,,,,,,0.0,0.0,32.0,0.130277,1.0,0.0,,,,,,,,,,,,,,,,,,,,,,,,,
20121,1648953250.410572,1648953250.438843,54.0,0.0,4220.0,4450.256348,4460.512695,4260.0,4401.538574,0.0,3.0,73.0,,,,0.0,0.0,1.0,0.0,0.0,0.0,0.0,,,,,,,,27.0,0.0,0.5155390000000001,-0.120117,0.083984,0.8442379999999999,0.300298,-0.014649,-0.991714,0.005027,-0.011498,-0.038110000000000005,,,,,,,,,,,,,,,,,,,,,,,,,,,,,,,,,,,,,,,,,,,,,,,,,,,,,,,,,,,,,,,,,
20122,1648953250.418387,1648953250.446758,55.0,0.0,4421.025879,4515.384765999999,4330.769043,4375.384765999999,4526.666504,0.0,3.0,73.0,,,,0.0,0.0,1.0,0.0,0.0,0.0,0.0,,,,,,,,,,,,,,,,,,,,,,,,,,,,,,,,,,,,,,,,,,,,,,,,,,,,,,,,,,,,,,,,,,,,,,,,,,,,,,,,,,,,
20123,1648953250.4262009,1648953250.4545732,56.0,0.0,4661.538574,4529.743652,4323.589844,4521.538574,4454.871582,0.0,3.0,73.0,,,,0.0,0.0,1.0,0.0,0.0,0.0,0.0,,,,,,,,28.0,0.0,0.515578,-0.120117,0.08374,0.8442379999999999,0.295415,-0.012695999999999999,-0.9663229999999999,0.004622,-0.011618,-0.040305,,,,,,,,,,,,,,,,,,,,,,,,,,,,,,,,,,,,,,,,,,,,,,,,,,,,,,,,,,,,,,,,,
20124,1648953250.434016,1648953250.4624882,57.0,0.0,4694.358886999999,4395.384765999999,4286.666504,4452.307617,4413.846191,0.0,3.0,73.0,,,,0.0,0.0,1.0,0.0,0.0,0.0,0.0,,,,,,,,,,,,,,,,,,,,,,,,,,,,,,,,,,,,,,,,,,,,,,,,,,,,,,0.0,0.0,32.0,0.130277,1.0,0.0,,,,,,,,,,,,,,,,,,,,,,,,,
20125,1648953250.4418302,1648953250.4703019,58.0,0.0,4308.717772999999,4458.974121,4190.256348,4197.94873,4374.871582,0.0,3.0,73.0,,,,0.0,0.0,1.0,0.0,0.0,0.0,0.0,,,,,,,,29.0,0.0,0.5155390000000001,-0.120117,0.083984,0.8442379999999999,0.292485,-0.032227,-0.980972,0.0043549999999999995,-0.01153,-0.035981,,,,,,,,,,,,,,,,,,,,,,,,,,,,,,,,,,,,,,,,,,,,,,,,,,,,,,,,,,,,,,,,,
20126,1648953250.4496448,1648953250.478117,59.0,0.0,4098.461426,4687.692383,4328.717772999999,4098.461426,4288.717772999999,0.0,3.0,73.0,,,,0.0,0.0,1.0,0.0,0.0,0.0,0.0,,,,,,,,,,,,,,,,,,,,,,,,,,,,,,,,,,,,,,,,,,,,,,,,,,,,,,,,,,,,,,,,,,,,,,,,,,,,,,,,,,,,
20127,1648953250.457459,1648953250.485832,60.0,0.0,4127.179688,4703.589844,4572.307617,4185.128418,4163.077147999999,0.0,3.0,73.0,,,,0.0,0.0,1.0,0.0,0.0,0.0,0.0,,,,,,,,30.0,0.0,0.5155390000000001,-0.120117,0.083984,0.8442379999999999,0.287114,-0.029786,-0.9799950000000001,0.003968,-0.011647,-0.038487,,,,,,,,,,,,,,,,,,,,,,,,,,,,,,,,,,,,,,,,,,,,,,,,,,,,,,,,,,,,,,,,,
20128,1648953250.465274,1648953250.493547,61.0,0.0,4122.563965,4583.077147999999,4634.358886999999,4300.0,4240.512695,0.0,3.0,73.0,,,,0.0,0.0,1.0,0.0,0.0,0.0,0.0,,,,,,,,,,,,,,,,,,,,,,,,,,,,,,,,,,,,,,,,,,,,,,,,,,,,,,0.0,0.0,32.0,0.130277,1.0,0.0,,,,,,,,,,,,,,,,,,,,,,,,,
20129,1648953250.473088,1648953250.501462,62.0,0.0,4289.743652,4577.436035,4617.94873,4504.102539,4534.871582,0.0,3.0,73.0,,,,0.0,0.0,1.0,0.0,0.0,0.0,0.0,,,,,,,,31.0,0.0,0.5155390000000001,-0.120117,0.083984,0.8442379999999999,0.298344,-0.007324,-0.9707180000000001,0.003474,-0.011654000000000001,-0.034492,,,,,,,,,,,,,,,,,,,,,,,,,,,,,,,,,,,,,,,,,,,,,,,,,,,,,,,,,,,,,,,,,
20130,1648953250.480903,1648953250.5092769,63.0,0.0,4567.179688,4629.743652,4564.102539,4658.974121,4725.128418,0.0,3.0,73.0,,,,0.0,0.0,1.0,0.0,0.0,0.0,0.0,,,,,,,,,,,,,,,,,,,,,,,,,,,,,,,,,,,,,,,,,,,,,,,,,,,,,,,,,,,,,,,,,,,,,,,,,,,,,,,,,,,,
20131,1648953250.488717,1648953250.517092,64.0,0.0,4513.333496,4692.307617,4413.333496,4415.897461,4393.333496,450.0,3.0,73.0,,,,0.0,0.0,1.0,0.0,0.0,0.0,0.0,,,,,,,,32.0,0.0,0.5155390000000001,-0.120117,0.083984,0.8442379999999999,0.29639099999999996,-0.021485,-0.9824370000000001,0.003078,-0.011612,-0.037048000000000005,,,,,,,,,,,,,,,,,,,,,,,,,,,,,,,,,,,,,,,,,,,,,,,,,,,,,,,,,,,,,,,,,
20132,1648953250.496532,1648953250.524807,65.0,0.0,4267.179688,4856.922852000001,4421.025879,4108.717772999999,4000.0,450.0,3.0,73.0,,,,0.0,0.0,1.0,0.0,0.0,0.0,0.0,1.0,0.0,0.0,0.0,0.0,0.0,0.0,,,,,,,,,,,,,1.0,0.0,0.0,,,,,,,,,,,,,,,,,,,,,,,,,,,,,,,,0.0,0.0,32.0,0.12953699999999999,1.0,0.0,14.718285999999999,56.780277000000005,324.116333,754.782104,32.446766,258.389435,79.066154,41.31794,167.195145,67.47734799999999,402.39447,132.81587199999998,147.421127,171.214951,73.730446,51.238704999999996,42.004543,103.727654,951.138367,69.64265400000001,53.54646700000001,61.632893,123.42417900000001,1194.577515,72.10548399999999
20133,1648953250.5043461,1648953250.532721,66.0,0.0,4072.3076170000004,4828.717772999999,4588.205078,4145.128418,4156.922852000001,0.0,3.0,73.0,,,,0.0,0.0,1.0,0.0,0.0,0.0,0.0,,,,,,,,33.0,0.0,0.5155390000000001,-0.120117,0.083984,0.8442379999999999,0.292973,-0.019043,-0.980972,0.002868,-0.011525,-0.033099,,,,,,,,,,,,,,,,,,,,,,,,,,,,,,,,,,,,,,,,,,,,,,,,,,,,,,,,,,,,,,,,,
20134,1648953250.512161,1648953250.540536,67.0,0.0,4043.076904,4585.641113000001,4531.794922,4318.461426,4421.025879,450.0,3.0,73.0,,,,0.0,0.0,1.0,0.0,0.0,0.0,0.0,,,,,,,,,,,,,,,,,,,,,,,,,,,,,,,,,,,,,,,,,,,,,,,,,,,,,,,,,,,,,,,,,,,,,,,,,,,,,,,,,,,,
20135,1648953250.519976,1648953250.548451,68.0,0.0,4274.871582,4457.436035,4460.512695,4368.205078,4481.025879,0.0,3.0,73.0,,,,0.0,0.0,0.0,0.0,0.0,0.0,0.0,,,,,,,,34.0,0.0,0.515578,-0.120117,0.08374,0.8442379999999999,0.292485,-0.013672,-0.985367,0.0027760000000000003,-0.011447,-0.035844,,,,,,,,,,,,,,,,,,,,,,,,,,,,,,,,,,,,,,,,,,,,,,,,,,,,,,,,,,,,,,,,,
20136,1648953250.52779,1648953250.556266,69.0,0.0,4598.974121,4458.461426,4477.436035,4334.871582,4574.871582,450.0,3.0,73.0,,,,0.0,0.0,0.0,0.0,0.0,0.0,0.0,,,,,,,,,,,,,,,,,,,,,,,,,,,,,,,,,,,,,,,,,,,,,,,,,,,,,,0.0,0.0,32.0,0.12953699999999999,1.0,0.0,,,,,,,,,,,,,,,,,,,,,,,,,
20137,1648953250.5356052,1648953250.564181,70.0,0.0,4615.384765999999,4549.743652,4484.102539,4299.487305,4502.563965,0.0,3.0,73.0,,,,0.0,0.0,0.0,0.0,0.0,0.0,0.0,,,,,,,,35.0,0.0,0.5156350000000001,-0.11987300000000001,0.08374,0.8442379999999999,0.29688000000000003,-0.008301000000000001,-0.9712059999999999,0.0054280000000000005,-0.011376,-0.038266,,,,,,,,,,,,,,,,,,,,,,,,,,,,,,,,,,,,,,,,,,,,,,,,,,,,,,,,,,,,,,,,,
20138,1648953250.543419,1648953250.5719962,71.0,0.0,4184.615234000001,4607.692383,4587.692383,4262.05127,4102.563965,450.0,3.0,73.0,,,,0.0,0.0,0.0,0.0,0.0,0.0,0.0,,,,,,,,,,,,,,,,,,,,,,,,,,,,,,,,,,,,,,,,,,,,,,,,,,,,,,,,,,,,,,,,,,,,,,,,,,,,,,,,,,,,
20139,1648953250.551234,1648953250.57981,72.0,0.0,3982.5642090000006,4545.641113000001,4647.692383,4302.05127,4068.205078,450.0,3.0,73.0,,,,0.0,0.0,0.0,0.0,0.0,0.0,0.0,,,,,,,,36.0,0.0,0.515578,-0.120117,0.08374,0.8442379999999999,0.301762,-0.014649,-0.9790190000000001,0.004788000000000001,-0.01141,-0.040445,,,,,,,,,,,,,,,,,,,,,,,,,,,,,,,,,,,,,,,,,,,,,,,,,,,,,,,,,,,,,,,,,
20140,1648953250.559048,1648953250.587525,73.0,0.0,4211.282227000001,4499.487305,4476.922852000001,4280.512695,4445.128418,0.0,3.0,73.0,,,,0.0,0.0,0.0,0.0,0.0,0.0,0.0,,,,,,,,,,,,,,,,,,,,,,,,,,,,,,,,,,,,,,,,,,,,,,,,,,,,,,0.0,0.0,32.0,0.12953699999999999,1.0,0.0,,,,,,,,,,,,,,,,,,,,,,,,,
20141,1648953250.566863,1648953250.5954401,74.0,0.0,4448.205078,4493.846191,4399.487305,4333.333496,4564.615234000001,450.0,3.0,73.0,,,,0.0,0.0,0.0,0.0,0.0,0.0,0.0,,,,,,,,37.0,0.0,0.5156350000000001,-0.11987300000000001,0.08374,0.8442379999999999,0.295415,-0.017578,-0.9834129999999999,0.00426,-0.011344,-0.042553,,,,,,,,,,,,,,,,,,,,,,,,,,,,,,,,,,,,,,,,,,,,,,,,,,,,,,,,,,,,,,,,,
20142,1648953250.574677,1648953250.603255,75.0,0.0,4565.641113000001,4467.179688,4402.563965,4334.871582,4416.922852000001,0.0,3.0,73.0,,,,0.0,0.0,0.0,0.0,0.0,0.0,0.0,,,,,,,,,,,,,,,,,,,,,,,,,,,,,,,,,,,,,,,,,,,,,,,,,,,,,,,,,,,,,,,,,,,,,,,,,,,,,,,,,,,,
20143,1648953250.5824919,1648953250.6111698,76.0,0.0,4602.563965,4541.538574,4381.025879,4208.205078,4377.94873,450.0,3.0,73.0,,,,0.0,0.0,0.0,0.0,0.0,0.0,0.0,,,,,,,,38.0,0.0,0.5156350000000001,-0.11987300000000001,0.08374,0.8442379999999999,0.29736799999999997,-0.012206999999999999,-0.976089,0.0069099999999999995,-0.01143,-0.044304,,,,,,,,,,,,,,,,,,,,,,,,,,,,,,,,,,,,,,,,,,,,,,,,,,,,,,,,,,,,,,,,,
20144,1648953250.590307,1648953250.618985,77.0,0.0,4282.563965,4687.692383,4474.871582,4162.563965,4253.333496,450.0,3.0,73.0,,,,0.0,0.0,0.0,0.0,0.0,0.0,0.0,,,,,,,,,,,,,,,,,,,,,,,,,,,,,,,,,,,,,,,,,,,,,,,,,,,,,,0.0,0.0,32.0,0.12953699999999999,1.0,0.0,,,,,,,,,,,,,,,,,,,,,,,,,
20145,1648953250.5981212,1648953250.6268,78.0,0.0,3994.8718259999996,4556.922852000001,4634.358886999999,4332.820313,4188.717772999999,450.0,3.0,73.0,,,,0.0,0.0,0.0,0.0,0.0,0.0,0.0,,,,,,,,39.0,0.0,0.515578,-0.120117,0.08374,0.8442379999999999,0.301274,-0.025391,-0.973159,0.0063170000000000006,-0.011361,-0.045879,,,,,,,,,,,,,,,,,,,,,,,,,,,,,,,,,,,,,,,,,,,,,,,,,,,,,,,,,,,,,,,,,
20146,1648953250.605936,1648953250.634514,79.0,0.0,4151.794922,4313.846191,4539.487305,4463.077147999999,4490.256348,0.0,3.0,73.0,,,,0.0,0.0,0.0,0.0,0.0,0.0,0.0,,,,,,,,,,,,,,,,,,,,,,,,,,,,,,,,,,,,,,,,,,,,,,,,,,,,,,,,,,,,,,,,,,,,,,,,,,,,,,,,,,,,
20147,1648953250.61375,1648953250.6424289,80.0,0.0,4402.563965,4392.307617,4309.230957,4466.153809,4786.153809,450.0,3.0,73.0,,,,0.0,0.0,0.0,0.0,0.0,0.0,0.0,,,,,,,,40.0,0.0,0.5156350000000001,-0.11987300000000001,0.08374,0.8442379999999999,0.295415,-0.017578,-0.9834129999999999,0.0056359999999999995,-0.011299,-0.047444,,,,,,,,,,,,,,,,,,,,,,,,,,,,,,,,,,,,,,,,,,,,,,,,,,,,,,,,,,,,,,,,,
20148,1648953250.621565,1648953250.650244,81.0,0.0,4516.922852000001,4515.384765999999,4463.077147999999,4397.94873,4518.974121,450.0,3.0,73.0,,,,0.0,0.0,0.0,0.0,0.0,0.0,0.0,,,,,,,,,,,,,,,,,,,,1.0,0.0,0.0,,,,,,,,,,,,,,,,,,,,,,,,,,,,,,,,0.0,0.0,32.0,0.137735,1.0,0.0,20.572523,73.15686,385.675995,733.520569,35.116703,282.69281,75.734337,51.626915000000004,155.691528,76.363365,469.107574,142.272171,151.738449,159.05015600000002,72.55516800000001,56.109413,41.353638000000004,107.76563999999999,963.017883,71.695374,51.999821000000004,55.007819999999995,118.260979,1173.568726,74.11702700000001
20149,1648953250.6293788,1648953250.657959,82.0,0.0,4504.102539,4335.897461,4732.307617,4238.974121,4088.718018,450.0,3.0,73.0,,,,0.0,0.0,0.0,0.0,0.0,0.0,0.0,,,,,,,,41.0,0.0,0.5156350000000001,-0.11987300000000001,0.08374,0.8442379999999999,0.302739,-0.024903,-0.988785,0.005219,-0.011292,-0.042309,,,,,,,,,,,,,,,,,,,,,,,,,,,,,,,,,,,,,,,,,,,,,,,,,,,,,,,,,,,,,,,,,
20150,1648953250.637194,1648953250.665874,83.0,0.0,4304.615234000001,4300.512695,4598.461426,4082.5642090000006,4058.974365,0.0,3.0,73.0,,,,0.0,0.0,0.0,0.0,0.0,0.0,0.0,,,,,,,,,,,,,,,,,,,,,,,,,,,,,,,,,,,,,,,,,,,,,,,,,,,,,,,,,,,,,,,,,,,,,,,,,,,,,,,,,,,,
20151,1648953250.645008,1648953250.6736891,84.0,0.0,4076.4101560000004,4548.717772999999,4350.256348,4060.512939,4287.179688,450.0,3.0,73.0,,,,0.0,0.0,0.0,0.0,0.0,0.0,0.0,,,,,,,,42.0,0.0,0.515596,-0.11987300000000001,0.083984,0.8442379999999999,0.304204,-0.007324,-0.9799950000000001,0.004843999999999999,-0.011286,-0.044133,,,,,,,,,,,,,,,,,,,,,,,,,,,,,,,,,,,,,,,,,,,,,,,,,,,,,,,,,,,,,,,,,
20152,1648953250.652823,1648953250.681504,85.0,0.0,4075.897461,4616.922852000001,4340.0,4217.436035,4482.563965,450.0,3.0,73.0,,,,0.0,0.0,0.0,0.0,0.0,0.0,0.0,,,,,,,,,,,,,,,,,,,,,,,,,,,,,,,,,,,,,,,,,,,,,,,,,,,,,,0.0,0.0,32.0,0.137735,1.0,0.0,,,,,,,,,,,,,,,,,,,,,,,,,
20153,1648953250.660638,1648953250.689219,86.0,0.0,4336.922852000001,4524.615234000001,4288.205078,4452.820313,4516.410156,450.0,3.0,73.0,,,,0.0,0.0,0.0,0.0,0.0,0.0,0.0,,,,,,,,43.0,0.0,0.5155390000000001,-0.120117,0.083984,0.8442379999999999,0.291997,0.0,-0.968765,0.004457,-0.011231999999999999,-0.045725,,,,,,,,,,,,,,,,,,,,,,,,,,,,,,,,,,,,,,,,,,,,,,,,,,,,,,,,,,,,,,,,,
20154,1648953250.668452,1648953250.697033,87.0,0.0,4538.974121,4507.692383,4091.281982,4588.717772999999,4481.538574,0.0,3.0,73.0,,,,0.0,0.0,0.0,0.0,0.0,0.0,0.0,,,,,,,,,,,,,,,,,,,,,,,,,,,,,,,,,,,,,,,,,,,,,,,,,,,,,,,,,,,,,,,,,,,,,,,,,,,,,,,,,,,,
20155,1648953250.676267,1648953250.7047482,88.0,0.0,4401.025879,4577.94873,4104.615234000001,4378.974121,4346.153809,450.0,3.0,73.0,,,,0.0,0.0,0.0,0.0,0.0,0.0,0.0,,,,,,,,44.0,0.0,0.5155390000000001,-0.120117,0.083984,0.8442379999999999,0.292973,-0.011719,-0.9751129999999999,0.004109000000000001,-0.011281,-0.047208,,,,,,,,,,,,,,,,,,,,,,,,,,,,,,,,,,,,,,,,,,,,,,,,,,,,,,,,,,,,,,,,,
20156,1648953250.684081,1648953250.712563,89.0,0.0,4231.282227000001,4734.358886999999,4284.615234000001,4118.461426,4164.102539,450.0,3.0,73.0,,,,0.0,0.0,0.0,0.0,0.0,0.0,0.0,,,,,,,,,,,,,,,,,,,,,,,,,,,,,,,,,,,,,,,,,,,,,,,,,,,,,,0.0,0.0,32.0,0.137735,1.0,0.0,,,,,,,,,,,,,,,,,,,,,,,,,
20157,1648953250.6918962,1648953250.720278,90.0,0.0,4241.025879,4835.384765999999,4409.230957,4081.025635,4020.0,450.0,3.0,73.0,,,,0.0,0.0,0.0,0.0,0.0,0.0,0.0,,,,,,,,45.0,0.0,0.5155390000000001,-0.120117,0.083984,0.8442379999999999,0.30518,-0.02002,-0.989273,0.003942,-0.011323999999999999,-0.042243,,,,,,,,,,,,,,,,,,,,,,,,,,,,,,,,,,,,,,,,,,,,,,,,,,,,,,,,,,,,,,,,,
20158,1648953250.69971,1648953250.728093,91.0,0.0,4371.282227000001,4718.461426,4563.589844,4209.230957,4117.436035,0.0,3.0,73.0,,,,0.0,0.0,0.0,0.0,0.0,0.0,0.0,,,,,,,,,,,,,,,,,,,,,,,,,,,,,,,,,,,,,,,,,,,,,,,,,,,,,,,,,,,,,,,,,,,,,,,,,,,,,,,,,,,,
20159,1648953250.707525,1648953250.735808,92.0,0.0,4424.102539,4571.794922,4682.563965,4445.641113000001,4383.077147999999,450.0,3.0,73.0,,,,0.0,0.0,0.0,0.0,0.0,0.0,0.0,,,,,,,,46.0,0.0,0.5155390000000001,-0.120117,0.083984,0.8442379999999999,0.292485,-0.021485,-0.969253,0.003743,-0.011413,-0.043976,,,,,,,,,,,,,,,,,,,,,,,,,,,,,,,,,,,,,,,,,,,,,,,,,,,,,,,,,,,,,,,,,
20160,1648953250.715339,1648953250.743623,93.0,0.0,4406.666504,4525.128418,4548.205078,4654.358886999999,4562.05127,450.0,3.0,73.0,,,,0.0,0.0,0.0,0.0,0.0,0.0,0.0,,,,,,,,,,,,,,,,,,,,,,,,,,,,,,,,,,,,,,,,,,,,,,,,,,,,,,0.0,0.0,32.0,0.137735,1.0,0.0,,,,,,,,,,,,,,,,,,,,,,,,,
20161,1648953250.7231538,1648953250.751338,94.0,0.0,4242.05127,4577.436035,4308.205078,4469.743652,4457.94873,450.0,3.0,73.0,,,,0.0,0.0,0.0,0.0,0.0,0.0,0.0,,,,,,,,47.0,0.0,0.5155390000000001,-0.120117,0.083984,0.8442379999999999,0.29443800000000003,-0.008789,-0.9799950000000001,0.00039,-0.011395,-0.039334,,,,,,,,,,,,,,,,,,,,,,,,,,,,,,,,,,,,,,,,,,,,,,,,,,,,,,,,,,,,,,,,,
20162,1648953250.730968,1648953250.759253,95.0,0.0,4169.743652,4764.615234000001,4390.769043,4131.282227000001,4270.769043,0.0,3.0,73.0,,,,0.0,0.0,0.0,0.0,0.0,0.0,0.0,,,,,,,,,,,,,,,,,,,,,,,,,,,,,,,,,,,,,,,,,,,,,,,,,,,,,,,,,,,,,,,,,,,,,,,,,,,,,,,,,,,,
20163,1648953250.7387831,1648953250.767068,96.0,0.0,4130.256348,4789.230957,4600.512695,4132.307617,4161.538574,450.0,3.0,73.0,,,,0.0,0.0,0.0,0.0,0.0,0.0,0.0,,,,,,,,48.0,0.0,0.5155390000000001,-0.120117,0.083984,0.8442379999999999,0.301762,-0.014159999999999999,-0.980484,0.000547,-0.011525,-0.041358,,,,,,,,,,,,,,,,,,,,,,,,,,,,,,,,,,,,,,,,,,,,,,,,,,,,,,,,,,,,,,,,,
20164,1648953250.746597,1648953250.774983,97.0,0.0,4068.205078,4591.282227000001,4585.128418,4324.102539,4171.282227000001,450.0,3.0,73.0,,,,0.0,0.0,0.0,0.0,0.0,0.0,0.0,,,,,,,,,,,,,,,,,,,,1.0,0.0,0.0,,,,,,,,,,,,,,,,,,,,,,,,,,,,,,,,0.0,0.0,32.0,0.147117,1.0,0.0,28.165046999999998,105.70311699999999,442.203857,740.895447,39.868996,291.83264199999996,69.306526,71.724686,135.907822,86.218239,528.712097,182.3423,185.925476,148.491608,74.850677,57.523669999999996,48.250813,113.41383400000001,946.3739009999999,76.895103,48.567661,60.521214,122.881622,1123.2250980000001,75.365723
20165,1648953250.754412,1648953250.782797,98.0,0.0,4235.897461,4492.820313,4579.487305,4422.563965,4451.794922,450.0,3.0,73.0,,,,0.0,0.0,0.0,0.0,0.0,0.0,0.0,,,,,,,,49.0,0.0,0.5155390000000001,-0.120117,0.083984,0.8442379999999999,0.297856,-0.018555000000000002,-0.977066,-0.002535,-0.011495,-0.036929000000000003,,,,,,,,,,,,,,,,,,,,,,,,,,,,,,,,,,,,,,,,,,,,,,,,,,,,,,,,,,,,,,,,,
20166,1648953250.762227,1648953250.7907119,99.0,0.0,4502.05127,4538.974121,4564.102539,4510.769043,4790.256348,0.0,3.0,73.0,,,,0.0,0.0,0.0,0.0,0.0,0.0,0.0,,,,,,,,,,,,,,,,,,,,,,,,,,,,,,,,,,,,,,,,,,,,,,,,,,,,,,,,,,,,,,,,,,,,,,,,,,,,,,,,,,,,
20167,1648953250.770041,1648953250.798527,100.0,0.0,4559.487305,4541.025879,4591.794922,4460.0,4617.94873,450.0,3.0,73.0,,,,0.0,0.0,0.0,0.0,0.0,0.0,0.0,,,,,,,,50.0,0.0,0.515482,-0.120361,0.083984,0.8442379999999999,0.293462,-0.019532,-0.9863430000000001,-0.0023309999999999997,-0.011664,-0.039242,,,,,,,,,,,,,,,,,,,,,,,,,,,,,,,,,,,,,,,,,,,,,,,,,,,,,,,,,,,,,,,,,
20168,1648953250.777856,1648953250.806442,101.0,0.0,4399.487305,4391.794922,4781.538574,4243.077147999999,4101.025879,450.0,3.0,73.0,,,,0.0,0.0,0.0,0.0,0.0,0.0,0.0,,,,,,,,,,,,,,,,,,,,,,,,,,,,,,,,,,,,,,,,,,,,,,,,,,,,,,0.0,0.0,32.0,0.147117,1.0,0.0,,,,,,,,,,,,,,,,,,,,,,,,,
20169,1648953250.7856698,1648953250.8142571,102.0,0.0,4253.333496,4295.384765999999,4686.666504,4122.05127,3973.8461909999996,450.0,3.0,73.0,,,,0.0,0.0,0.0,0.0,0.0,0.0,0.0,,,,,,,,51.0,0.0,0.515482,-0.120361,0.083984,0.8442379999999999,0.306645,-0.02295,-0.978042,0.0009789999999999998,-0.011572,-0.041275,,,,,,,,,,,,,,,,,,,,,,,,,,,,,,,,,,,,,,,,,,,,,,,,,,,,,,,,,,,,,,,,,
20170,1648953250.793485,1648953250.8221712,103.0,0.0,4134.358886999999,4434.871582,4309.743652,4067.179443,4228.717772999999,0.0,3.0,73.0,,,,0.0,0.0,0.0,0.0,0.0,0.0,0.0,,,,,,,,,,,,,,,,,,,,,,,,,,,,,,,,,,,,,,,,,,,,,,,,,,,,,,,,,,,,,,,,,,,,,,,,,,,,,,,,,,,,
20171,1648953250.801299,1648953250.8299859,104.0,0.0,4082.5642090000006,4596.410156,4235.384765999999,4173.846191,4471.794922,450.0,3.0,73.0,,,,0.0,0.0,0.0,0.0,0.0,0.0,0.0,,,,,,,,52.0,0.0,0.515482,-0.120361,0.083984,0.8442379999999999,0.29639099999999996,-0.0043950000000000005,-0.985367,0.0008810000000000001,-0.011635,-0.043153,,,,,,,,,,,,,,,,,,,,,,,,,,,,,,,,,,,,,,,,,,,,,,,,,,,,,,,,,,,,,,,,,
20172,1648953250.809114,1648953250.837801,105.0,0.0,4274.358886999999,4601.538574,4327.692383,4457.436035,4516.410156,450.0,3.0,73.0,,,,0.0,0.0,0.0,0.0,0.0,0.0,0.0,,,,,,,,,,,,,,,,,,,,,,,,,,,,,,,,,,,,,,,,,,,,,,,,,,,,,,0.0,0.0,32.0,0.147117,1.0,0.0,,,,,,,,,,,,,,,,,,,,,,,,,
20173,1648953250.8169289,1648953250.845616,106.0,0.0,4535.384765999999,4506.153809,4187.692383,4652.307617,4489.230957,450.0,3.0,73.0,,,,0.0,0.0,0.0,0.0,0.0,0.0,0.0,,,,,,,,53.0,0.0,0.515482,-0.120361,0.083984,0.8442379999999999,0.29639099999999996,-0.02002,-0.973159,-0.002235,-0.011741,-0.038692000000000004,,,,,,,,,,,,,,,,,,,,,,,,,,,,,,,,,,,,,,,,,,,,,,,,,,,,,,,,,,,,,,,,,
20174,1648953250.824743,1648953250.853331,107.0,0.0,4429.743652,4497.94873,4125.641113000001,4409.230957,4346.666504,0.0,3.0,73.0,,,,0.0,0.0,0.0,0.0,0.0,0.0,0.0,,,,,,,,,,,,,,,,,,,,,,,,,,,,,,,,,,,,,,,,,,,,,,,,,,,,,,,,,,,,,,,,,,,,,,,,,,,,,,,,,,,,
20175,1648953250.832558,1648953250.8611462,108.0,0.0,4240.0,4665.128418,4296.922852000001,4127.179688,4161.538574,450.0,3.0,73.0,,,,0.0,0.0,0.0,0.0,0.0,0.0,0.0,,,,,,,,54.0,0.0,0.515482,-0.120361,0.083984,0.8442379999999999,0.298344,-0.028321,-0.973648,0.001065,-0.011544,-0.040827999999999996,,,,,,,,,,,,,,,,,,,,,,,,,,,,,,,,,,,,,,,,,,,,,,,,,,,,,,,,,,,,,,,,,
20176,1648953250.840372,1648953250.868861,109.0,0.0,4173.846191,4785.128418,4463.589844,4136.922852000001,4029.743652,450.0,3.0,73.0,,,,0.0,0.0,0.0,0.0,0.0,0.0,0.0,,,,,,,,,,,,,,,,,,,,,,,,,,,,,,,,,,,,,,,,,,,,,,,,,,,,,,0.0,0.0,32.0,0.147117,1.0,0.0,,,,,,,,,,,,,,,,,,,,,,,,,
20177,1648953250.848187,1648953250.876676,110.0,0.0,4101.025879,4573.333496,4616.410156,4295.384765999999,4073.8461909999996,450.0,3.0,73.0,,,,0.0,0.0,0.0,0.0,0.0,0.0,0.0,,,,,,,,55.0,0.0,0.515482,-0.120361,0.083984,0.8442379999999999,0.290532,-0.016114,-0.979507,0.001056,-0.011561,-0.0428,,,,,,,,,,,,,,,,,,,,,,,,,,,,,,,,,,,,,,,,,,,,,,,,,,,,,,,,,,,,,,,,,
20178,1648953250.856001,1648953250.884391,111.0,0.0,4087.6923829999996,4381.538574,4568.205078,4311.282227000001,4307.179688,0.0,3.0,73.0,,,,0.0,0.0,0.0,0.0,0.0,0.0,0.0,,,,,,,,,,,,,,,,,,,,,,,,,,,,,,,,,,,,,,,,,,,,,,,,,,,,,,,,,,,,,,,,,,,,,,,,,,,,,,,,,,,,
20179,1648953250.863816,1648953250.892206,112.0,0.0,4281.025879,4488.205078,4360.0,4297.436035,4551.282227000001,450.0,3.0,73.0,,,,0.0,0.0,0.0,0.0,0.0,0.0,0.0,,,,,,,,56.0,0.0,0.515482,-0.120361,0.083984,0.8442379999999999,0.297856,-0.018067,-0.983902,0.001097,-0.011576999999999999,-0.044476999999999996,,,,,,,,,,,,,,,,,,,,,,,,,,,,,,,,,,,,,,,,,,,,,,,,,,,,,,,,,,,,,,,,,
20180,1648953250.8716302,1648953250.8999212,113.0,0.0,4557.436035,4475.897461,4315.384765999999,4394.358886999999,4511.794922,450.0,3.0,73.0,,,,0.0,0.0,0.0,0.0,0.0,0.0,0.0,,,,,,,,,,,,,,,,,,,,1.0,0.0,0.0,,,,,,,,,,,,,,,,,,,,,,,,,,,,,,,,0.0,0.0,32.0,0.106492,1.0,0.0,35.97826,151.11113,474.43222000000003,783.3711549999999,46.511982,283.404083,64.452354,98.357895,112.309525,94.115211,563.318054,240.44511400000002,241.89543199999997,139.40155,80.094849,54.672878000000004,60.982128,117.539497,901.5928960000001,83.301765,42.706432,74.157608,129.233566,1070.811401,76.482574
20181,1648953250.8794448,1648953250.9077358,114.0,0.0,4750.769043,4400.512695,4464.102539,4457.436035,4343.589844,450.0,3.0,73.0,,,,0.0,0.0,0.0,0.0,0.0,0.0,0.0,,,,,,,,57.0,0.0,0.515482,-0.120361,0.083984,0.8442379999999999,0.29102,-0.014649,-0.987808,0.001183,-0.011590999999999999,-0.045938,,,,,,,,,,,,,,,,,,,,,,,,,,,,,,,,,,,,,,,,,,,,,,,,,,,,,,,,,,,,,,,,,
20182,1648953250.887259,1648953250.915451,115.0,0.0,4572.307617,4540.0,4558.461426,4282.05127,4301.538574,0.0,3.0,73.0,,,,0.0,0.0,0.0,0.0,0.0,0.0,0.0,,,,,,,,,,,,,,,,,,,,,,,,,,,,,,,,,,,,,,,,,,,,,,,,,,,,,,,,,,,,,,,,,,,,,,,,,,,,,,,,,,,,
20183,1648953250.8950741,1648953250.923266,116.0,0.0,4140.512695,4596.922852000001,4421.025879,4037.9487299999996,4305.641113000001,450.0,3.0,73.0,,,,0.0,0.0,0.0,0.0,0.0,0.0,0.0,,,,,,,,58.0,0.0,0.515482,-0.120361,0.083984,0.8442379999999999,0.305669,-0.018555000000000002,-0.977066,0.001016,-0.011701999999999999,-0.041051,,,,,,,,,,,,,,,,,,,,,,,,,,,,,,,,,,,,,,,,,,,,,,,,,,,,,,,,,,,,,,,,,
20184,1648953250.902888,1648953250.93098,117.0,0.0,4054.8718259999996,4527.179688,4255.384765999999,4192.307617,4359.487305,450.0,3.0,73.0,,,,0.0,0.0,0.0,0.0,0.0,0.0,0.0,,,,,,,,,,,,,,,,,,,,,,,,,,,,,,,,,,,,,,,,,,,,,,,,,,,,,,0.0,0.0,32.0,0.106492,1.0,0.0,,,,,,,,,,,,,,,,,,,,,,,,,
20185,1648953250.910703,1648953250.9387949,118.0,0.0,4269.230957,4560.512695,4229.230957,4496.410156,4433.846191,450.0,3.0,73.0,,,,0.0,0.0,0.0,0.0,0.0,0.0,0.0,,,,,,,,59.0,0.0,0.515482,-0.120361,0.083984,0.8442379999999999,0.297856,-0.018067,-0.983902,-0.002113,-0.011557,-0.042952,,,,,,,,,,,,,,,,,,,,,,,,,,,,,,,,,,,,,,,,,,,,,,,,,,,,,,,,,,,,,,,,,
20186,1648953250.9185169,1648953250.94661,119.0,0.0,4453.333496,4576.922852000001,4219.487305,4543.589844,4376.922852000001,0.0,3.0,73.0,,,,0.0,0.0,0.0,0.0,0.0,0.0,0.0,,,,,,,,,,,,,,,,,,,,,,,,,,,,,,,,,,,,,,,,,,,,,,,,,,,,,,,,,,,,,,,,,,,,,,,,,,,,,,,,,,,,
20187,1648953250.926332,1648953250.954325,120.0,0.0,4562.05127,4495.897461,4210.769043,4470.769043,4173.333496,450.0,3.0,73.0,,,,0.0,0.0,0.0,0.0,0.0,0.0,0.0,,,,,,,,60.0,0.0,0.515482,-0.120361,0.083984,0.8442379999999999,0.305669,-0.018555000000000002,-0.977066,-0.0019510000000000003,-0.011670999999999999,-0.038363999999999995,,,,,,,,,,,,,,,,,,,,,,,,,,,,,,,,,,,,,,,,,,,,,,,,,,,,,,,,,,,,,,,,,
20188,1648953250.9341471,1648953250.96204,121.0,0.0,4515.897461,4422.05127,4299.487305,4380.512695,4090.256348,450.0,3.0,73.0,,,,0.0,0.0,0.0,0.0,0.0,0.0,0.0,,,,,,,,,,,,,,,,,,,,,,,,,,,,,,,,,,,,,,,,,,,,,,,,,,,,,,0.0,0.0,32.0,0.106492,1.0,0.0,,,,,,,,,,,,,,,,,,,,,,,,,
20189,1648953250.941961,1648953250.969955,122.0,0.0,4311.794922,4404.615234000001,4272.307617,4114.358886999999,4137.436035,450.0,3.0,73.0,,,,0.0,0.0,0.0,0.0,0.0,0.0,0.0,,,,,,,,61.0,0.0,0.515482,-0.120361,0.083984,0.8442379999999999,0.311528,-0.003418,-0.9834129999999999,0.00132,-0.011676,-0.040533,,,,,,,,,,,,,,,,,,,,,,,,,,,,,,,,,,,,,,,,,,,,,,,,,,,,,,,,,,,,,,,,,
20190,1648953250.949776,1648953250.9777699,123.0,0.0,4175.897461,4528.205078,4203.589844,4061.025635,4332.307617,0.0,3.0,73.0,,,,0.0,0.0,0.0,0.0,0.0,0.0,0.0,,,,,,,,,,,,,,,,,,,,,,,,,,,,,,,,,,,,,,,,,,,,,,,,,,,,,,,,,,,,,,,,,,,,,,,,,,,,,,,,,,,,
20191,1648953250.95759,1648953250.985684,124.0,0.0,4165.641113000001,4718.974121,4396.922852000001,4382.563965,4487.692383,450.0,3.0,73.0,,,,0.0,0.0,0.0,0.0,0.0,0.0,0.0,,,,,,,,62.0,0.0,0.515482,-0.120361,0.083984,0.8442379999999999,0.299321,-0.023438,-0.977066,-0.00179,-0.011729,-0.036334,,,,,,,,,,,,,,,,,,,,,,,,,,,,,,,,,,,,,,,,,,,,,,,,,,,,,,,,,,,,,,,,,
20192,1648953250.965405,1648953250.993499,125.0,0.0,4329.230957,4668.205078,4432.820313,4628.205078,4529.230957,450.0,3.0,73.0,,,,0.0,0.0,0.0,0.0,0.0,0.0,0.0,,,,,,,,,,,,,,,,,,,,,,,,,,,,,,,,,,,,,,,,,,,,,,,,,,,,,,0.0,0.0,32.0,0.106492,1.0,0.0,,,,,,,,,,,,,,,,,,,,,,,,,
20193,1648953250.973219,1648953251.001414,126.0,0.0,4357.94873,4538.461426,4167.179688,4448.717772999999,4448.205078,450.0,3.0,73.0,,,,0.0,0.0,0.0,0.0,0.0,0.0,0.0,,,,,,,,63.0,0.0,0.5155390000000001,-0.120117,0.083984,0.8442379999999999,0.300298,-0.021485,-0.9863430000000001,0.001416,-0.011679,-0.038804000000000005,,,,,,,,,,,,,,,,,,,,,,,,,,,,,,,,,,,,,,,,,,,,,,,,,,,,,,,,,,,,,,,,,
20194,1648953250.981034,1648953251.009229,127.0,0.0,4276.922852000001,4679.487305,4241.025879,4163.589844,4249.743652,238.0,3.0,73.0,,,,0.0,0.0,0.0,0.0,0.0,0.0,0.0,,,,,,,,,,,,,,,,,,,,,,,,,,,,,,,,,,,,,,,,,,,,,,,,,,,,,,,,,,,,,,,,,,,,,,,,,,,,,,,,,,,,
20195,1648953250.988849,1648953251.0170438,0.0,0.0,4178.461426,4751.282227000001,4547.179688,4146.666504,4038.461426,450.0,3.0,73.0,,,,0.0,0.0,0.0,0.0,0.0,0.0,0.0,,,,,,,,0.0,0.0,0.5155390000000001,-0.120117,0.083984,0.8442379999999999,0.304692,-0.023438,-0.968277,0.004351,-0.011683,-0.040929,,,,,,,,,,,,,,,,,,,,,,,,,,,,,,,,,,,,,,,,,,,,,,,,,,,,,,,,,,,,,,,,,
20196,1648953250.996663,1648953251.024759,1.0,0.0,4178.461426,4619.487305,4636.922852000001,4269.230957,4051.794922,450.0,3.0,73.0,,,,0.0,0.0,0.0,0.0,0.0,0.0,0.0,1.0,0.0,0.0,0.0,0.0,0.0,0.0,,,,,,,,,,,,,1.0,0.0,0.0,,,,,,,,,,,,,,,,,,,,,,,,,,,,,,,,0.0,0.0,32.0,0.10375699999999999,1.0,0.0,42.244213,198.99070700000001,470.001953,858.870972,54.226971,263.355194,67.37338299999999,124.369171,91.825401,98.71822399999999,563.952759,302.559265,311.475952,132.794006,86.600021,48.144993,75.04052,117.607079,838.687805,88.339867,36.241859000000005,88.684105,129.775757,1040.3321529999998,78.953972
20197,1648953251.004478,1648953251.032574,2.0,0.0,4291.282227000001,4600.0,4660.512695,4340.0,4309.743652,134.0,3.0,73.0,,,,0.0,1.0,0.0,0.0,0.0,0.0,0.0,,,,,,,,1.0,0.0,0.515482,-0.120361,0.083984,0.8442379999999999,0.300298,-0.014649,-0.978042,0.003867,-0.011687000000000001,-0.042794,,,,,,,,,,,,,,,,,,,,,,,,,,,,,,,,,,,,,,,,,,,,,,,,,,,,,,,,,,,,,,,,,
20198,1648953251.012292,1648953251.040388,3.0,0.0,4431.794922,4595.897461,4641.025879,4473.846191,4582.563965,450.0,3.0,73.0,,,,0.0,1.0,0.0,0.0,0.0,0.0,0.0,,,,,,,,,,,,,,,,,,,,,,,,,,,,,,,,,,,,,,,,,,,,,,,,,,,,,,,,,,,,,,,,,,,,,,,,,,,,,,,,,,,,
20199,1648953251.020107,1648953251.0481029,4.0,0.0,4509.743652,4462.563965,4624.102539,4495.897461,4552.820313,201.0,3.0,73.0,,,,0.0,1.0,2.0,0.0,0.0,0.0,0.0,,,,,,,,2.0,0.0,0.5155390000000001,-0.120117,0.083984,0.8442379999999999,0.30225100000000005,-0.033204000000000004,-0.989273,0.006508,-0.011592,-0.04452,,,,,,,,,,,,,,,,,,,,,,,,,,,,,,,,,,,,,,,,,,,,,,,,,,,,,,,,,,,,,,,,,
20200,1648953251.0279212,1648953251.055918,5.0,0.0,4453.333496,4567.179688,4627.179688,4216.922852000001,4229.743652,450.0,3.0,73.0,,,,0.0,1.0,2.0,0.0,0.0,0.0,0.0,,,,,,,,,,,,,,,,,,,,,,,,,,,,,,,,,,,,,,,,,,,,,,,,,,,,,,0.0,0.0,32.0,0.10375699999999999,1.0,0.0,,,,,,,,,,,,,,,,,,,,,,,,,
20201,1648953251.0357358,1648953251.063633,6.0,0.0,4272.307617,4808.205078,4612.307617,4077.9487299999996,4097.94873,0.0,3.0,73.0,,,,0.0,1.0,2.0,0.0,0.0,0.0,0.0,,,,,,,,3.0,0.0,0.5155390000000001,-0.120117,0.083984,0.8442379999999999,0.292973,-0.012206999999999999,-0.973159,0.005906000000000001,-0.011556,-0.046123000000000004,,,,,,,,,,,,,,,,,,,,,,,,,,,,,,,,,,,,,,,,,,,,,,,,,,,,,,,,,,,,,,,,,
20202,1648953251.04355,1648953251.071548,7.0,0.0,4037.9487299999996,4686.153809,4523.589844,4237.94873,4194.871582,450.0,3.0,73.0,,,,0.0,1.0,2.0,0.0,0.0,0.0,0.0,,,,,,,,,,,,,,,,,,,,,,,,,,,,,,,,,,,,,,,,,,,,,,,,,,,,,,,,,,,,,,,,,,,,,,,,,,,,,,,,,,,,
20203,1648953251.0513651,1648953251.079363,8.0,0.0,4145.128418,4471.794922,4558.974121,4409.743652,4378.974121,450.0,3.0,73.0,,,,0.0,1.0,2.0,0.0,0.0,0.0,0.0,,,,,,,,4.0,0.0,0.5154989999999999,-0.120117,0.084229,0.8442379999999999,0.29639099999999996,-0.02002,-0.9790190000000001,0.005364,-0.011475,-0.041218,,,,,,,,,,,,,,,,,,,,,,,,,,,,,,,,,,,,,,,,,,,,,,,,,,,,,,,,,,,,,,,,,
20204,1648953251.0591788,1648953251.087278,9.0,0.0,4441.538574,4491.282227000001,4556.922852000001,4478.974121,4665.128418,188.0,3.0,73.0,,,,0.0,1.0,2.0,0.0,2.0,0.0,8.333333,,,,,,,,,,,,,,,,,,,,,,,,,,,,,,,,,,,,,,,,,,,,,,,,,,,,,,0.0,0.0,32.0,0.10375699999999999,1.0,0.0,,,,,,,,,,,,,,,,,,,,,,,,,
20205,1648953251.066994,1648953251.095093,10.0,0.0,4544.615234000001,4562.563965,4510.256348,4469.743652,4747.692383,450.0,3.0,73.0,,,,0.0,1.0,2.0,0.0,2.0,0.0,8.333333,,,,,,,,5.0,0.0,0.5155390000000001,-0.120117,0.083984,0.8442379999999999,0.29688000000000003,-0.023438,-0.9922030000000001,0.007756999999999999,-0.011498999999999999,-0.043004,,,,,,,,,,,,,,,,,,,,,,,,,,,,,,,,,,,,,,,,,,,,,,,,,,,,,,,,,,,,,,,,,
20206,1648953251.0748081,1648953251.103007,11.0,0.0,4456.410156,4503.589844,4654.358886999999,4298.974121,4302.05127,2.0,3.0,73.0,,,,0.0,1.0,2.0,0.0,2.0,0.0,8.333333,,,,,,,,,,,,,,,,,,,,,,,,,,,,,,,,,,,,,,,,,,,,,,,,,,,,,,,,,,,,,,,,,,,,,,,,,,,,,,,,,,,,
20207,1648953251.082623,1648953251.110822,12.0,0.0,4313.846191,4402.563965,4823.589844,4186.153809,3967.179443,450.0,3.0,73.0,,,,0.0,1.0,2.0,0.0,2.0,0.0,8.333333,,,,,,,,6.0,0.0,0.5155390000000001,-0.120117,0.083984,0.8442379999999999,0.303716,-0.01709,-0.975601,0.0040030000000000005,-0.011423,-0.038508,,,,,,,,,,,,,,,,,,,,,,,,,,,,,,,,,,,,,,,,,,,,,,,,,,,,,,,,,,,,,,,,,
20208,1648953251.0904381,1648953251.118737,13.0,0.0,4145.641113000001,4444.102539,4657.436035,4142.05127,4128.205078,450.0,3.0,73.0,,,,0.0,1.0,2.0,0.0,2.0,0.0,8.333333,,,,,,,,,,,,,,,,,,,,,,,,,,,,,,,,,,,,,,,,,,,,,,,,,,,,,,0.0,0.0,32.0,0.10375699999999999,1.0,0.0,,,,,,,,,,,,,,,,,,,,,,,,,
20209,1648953251.098252,1648953251.1265519,14.0,0.0,4101.025879,4524.615234000001,4351.282227000001,4192.820313,4375.384765999999,450.0,3.0,73.0,,,,0.0,1.0,2.0,0.0,2.0,0.0,8.333333,,,,,,,,7.0,0.0,0.5155390000000001,-0.120117,0.083984,0.8442379999999999,0.29443800000000003,-0.029786,-0.977066,0.0036520000000000003,-0.011453,-0.04081,,,,,,,,,,,,,,,,,,,,,,,,,,,,,,,,,,,,,,,,,,,,,,,,,,,,,,,,,,,,,,,,,
20210,1648953251.106067,1648953251.134367,15.0,0.0,4307.692383,4540.0,4293.333496,4290.256348,4528.205078,2.0,3.0,73.0,,,,0.0,1.0,2.0,0.0,2.0,0.0,8.333333,,,,,,,,,,,,,,,,,,,,,,,,,,,,,,,,,,,,,,,,,,,,,,,,,,,,,,,,,,,,,,,,,,,,,,,,,,,,,,,,,,,,
20211,1648953251.113881,1648953251.142082,16.0,0.0,4571.282227000001,4572.820313,4401.538574,4362.05127,4610.256348,0.0,3.0,73.0,,,,0.0,1.0,2.0,0.0,2.0,0.0,8.333333,,,,,,,,8.0,0.0,0.5155390000000001,-0.120117,0.083984,0.8442379999999999,0.301274,-0.013184,-0.981949,0.0033840000000000003,-0.011479999999999999,-0.036631,,,,,,,,,,,,,,,,,,,,,,,,,,,,,,,,,,,,,,,,,,,,,,,,,,,,,,,,,,,,,,,,,
20212,1648953251.121696,1648953251.149997,17.0,0.0,4505.641113000001,4512.307617,4377.94873,4330.256348,4386.666504,0.0,3.0,73.0,,,,0.0,1.0,2.0,0.0,2.0,0.0,8.333333,,,,,,,,,,,,,,,,,,,,1.0,0.0,0.0,,,,,,,,,,,,,,,,,,,,,,,,,,,,,,,,0.0,0.0,32.0,0.082509,1.0,0.0,45.552555,236.705612,427.05529800000005,953.743958,61.782821999999996,243.81233199999997,80.739395,142.634415,79.82040400000001,100.20830500000001,538.294006,357.668671,384.735748,129.297028,92.49000500000001,39.616459000000006,85.01902,112.724075,775.2346190000001,89.79847,32.275574,97.00190699999999,124.45273600000002,1041.491333,83.76708199999999
20213,1648953251.12951,1648953251.157811,18.0,0.0,4255.384765999999,4342.563965,4261.538574,4223.589844,4103.589844,0.0,3.0,73.0,,,,0.0,1.0,2.0,0.0,2.0,0.0,8.333333,,,,,,,,9.0,0.0,0.5155390000000001,-0.120117,0.083984,0.8442379999999999,0.303227,-0.012695999999999999,-0.9643700000000001,0.00285,-0.011503,-0.032724,,,,,,,,,,,,,,,,,,,,,,,,,,,,,,,,,,,,,,,,,,,,,,,,,,,,,,,,,,,,,,,,,
20214,1648953251.137325,1648953251.165626,19.0,0.0,4185.641113000001,4489.743652,4311.282227000001,4105.641113000001,4075.897461,0.0,3.0,73.0,,,,0.0,1.0,2.0,0.0,2.0,0.0,8.333333,,,,,,,,,,,,,,,,,,,,,,,,,,,,,,,,,,,,,,,,,,,,,,,,,,,,,,,,,,,,,,,,,,,,,,,,,,,,,,,,,,,,
20215,1648953251.145139,1648953251.173341,20.0,0.0,4284.615234000001,4760.512695,4415.384765999999,4095.384521,4127.692383,0.0,3.0,73.0,,,,0.0,1.0,2.0,0.0,2.0,0.0,8.333333,,,,,,,,10.0,0.0,0.515442,-0.120361,0.084229,0.8442379999999999,0.30518,-0.013672,-0.9751129999999999,0.002712,-0.011476,-0.035457999999999996,,,,,,,,,,,,,,,,,,,,,,,,,,,,,,,,,,,,,,,,,,,,,,,,,,,,,,,,,,,,,,,,,
20216,1648953251.1529539,1648953251.181256,21.0,0.0,4416.922852000001,4716.410156,4343.077147999999,4404.615234000001,4218.461426,0.0,3.0,73.0,,,,0.0,1.0,2.0,0.0,2.0,0.0,8.333333,,,,,,,,,,,,,,,,,,,,,,,,,,,,,,,,,,,,,,,,,,,,,,,,,,,,,,0.0,0.0,32.0,0.082509,1.0,0.0,,,,,,,,,,,,,,,,,,,,,,,,,
20217,1648953251.160769,1648953251.1890712,22.0,0.0,4518.461426,4645.128418,4280.0,4716.410156,4431.282227000001,0.0,3.0,73.0,,,,0.0,1.0,2.0,0.0,2.0,0.0,8.333333,,,,,,,,11.0,0.0,0.5154989999999999,-0.120117,0.084229,0.8442379999999999,0.290532,-0.013184,-0.9668120000000001,0.002538,-0.011549,-0.031619,,,,,,,,,,,,,,,,,,,,,,,,,,,,,,,,,,,,,,,,,,,,,,,,,,,,,,,,,,,,,,,,,
20218,1648953251.168583,1648953251.196986,23.0,0.0,4415.897461,4668.205078,4275.897461,4614.358886999999,4508.717772999999,0.0,3.0,73.0,,,,0.0,1.0,2.0,0.0,2.0,0.0,8.333333,,,,,,,,,,,,,,,,,,,,,,,,,,,,,,,,,,,,,,,,,,,,,,,,,,,,,,,,,,,,,,,,,,,,,,,,,,,,,,,,,,,,
20219,1648953251.176398,1648953251.2048,24.0,0.0,4180.0,4661.025879,4205.641113000001,4230.769043,4330.769043,0.0,3.0,73.0,,,,0.0,1.0,2.0,0.0,2.0,0.0,8.333333,,,,,,,,12.0,0.0,0.515442,-0.120361,0.084229,0.8442379999999999,0.29688000000000003,-0.015625,-0.9897610000000001,0.002431,-0.011566,-0.034414,,,,,,,,,,,,,,,,,,,,,,,,,,,,,,,,,,,,,,,,,,,,,,,,,,,,,,,,,,,,,,,,,
20220,1648953251.184212,1648953251.2127151,25.0,0.0,4142.563965,4712.820313,4365.641113000001,4090.7692869999996,4272.307617,0.0,3.0,73.0,,,,0.0,1.0,2.0,0.0,2.0,0.0,8.333333,,,,,,,,,,,,,,,,,,,,,,,,,,,,,,,,,,,,,,,,,,,,,,,,,,,,,,0.0,0.0,32.0,0.082509,1.0,0.0,,,,,,,,,,,,,,,,,,,,,,,,,
20221,1648953251.1920269,1648953251.2206302,26.0,0.0,4098.974121,4683.077147999999,4580.0,4220.512695,4257.436035,0.0,3.0,73.0,,,,0.0,1.0,2.0,0.0,2.0,0.0,8.333333,,,,,,,,13.0,0.0,0.515442,-0.120361,0.084229,0.8442379999999999,0.295415,-0.019043,-0.973159,0.00209,-0.011533,-0.037028,,,,,,,,,,,,,,,,,,,,,,,,,,,,,,,,,,,,,,,,,,,,,,,,,,,,,,,,,,,,,,,,,
20222,1648953251.199841,1648953251.2284448,27.0,0.0,4124.615234000001,4525.128418,4597.94873,4349.743652,4321.538574,0.0,3.0,73.0,,,,0.0,1.0,2.0,0.0,2.0,0.0,8.333333,,,,,,,,,,,,,,,,,,,,,,,,,,,,,,,,,,,,,,,,,,,,,,,,,,,,,,,,,,,,,,,,,,,,,,,,,,,,,,,,,,,,
20223,1648953251.2076561,1648953251.23626,28.0,0.0,4370.769043,4464.102539,4634.358886999999,4507.179688,4576.922852000001,0.0,3.0,73.0,,,,0.0,1.0,2.0,0.0,2.0,0.0,8.333333,,,,,,,,14.0,0.0,0.515482,-0.120361,0.083984,0.8442379999999999,0.298833,-0.024413999999999998,-0.980972,0.001832,-0.011454,-0.039331,,,,,,,,,,,,,,,,,,,,,,,,,,,,,,,,,,,,,,,,,,,,,,,,,,,,,,,,,,,,,,,,,
20224,1648953251.2154698,1648953251.243975,29.0,0.0,4591.282227000001,4519.487305,4630.256348,4616.922852000001,4707.179688,0.0,3.0,73.0,,,,0.0,1.0,2.0,0.0,2.0,0.0,8.333333,,,,,,,,,,,,,,,,,,,,,,,,,,,,,,,,,,,,,,,,,,,,,,,,,,,,,,0.0,0.0,32.0,0.082509,1.0,0.0,,,,,,,,,,,,,,,,,,,,,,,,,
20225,1648953251.223285,1648953251.25179,30.0,0.0,4484.615234000001,4643.589844,4500.0,4384.102539,4284.615234000001,0.0,3.0,73.0,,,,0.0,1.0,2.0,0.0,2.0,0.0,8.333333,,,,,,,,15.0,0.0,0.515482,-0.120361,0.083984,0.8442379999999999,0.303716,-0.013184,-0.960952,0.004676,-0.011285,-0.041355,,,,,,,,,,,,,,,,,,,,,,,,,,,,,,,,,,,,,,,,,,,,,,,,,,,,,,,,,,,,,,,,,
20226,1648953251.2310991,1648953251.259505,31.0,0.0,4231.794922,4838.461426,4550.256348,4118.974121,4004.102539,0.0,3.0,73.0,,,,0.0,1.0,2.0,0.0,2.0,0.0,8.333333,,,,,,,,,,,,,,,,,,,,,,,,,,,,,,,,,,,,,,,,,,,,,,,,,,,,,,,,,,,,,,,,,,,,,,,,,,,,,,,,,,,,
20227,1648953251.238914,1648953251.267319,32.0,0.0,4023.5898439999996,4797.436035,4649.230957,4183.077147999999,4307.179688,0.0,3.0,73.0,,,,0.0,1.0,2.0,0.0,2.0,0.0,8.333333,,,,,,,,16.0,0.0,0.515482,-0.120361,0.083984,0.8442379999999999,0.298344,-0.008789,-0.995132,0.0043549999999999995,-0.011279,-0.037073,,,,,,,,,,,,,,,,,,,,,,,,,,,,,,,,,,,,,,,,,,,,,,,,,,,,,,,,,,,,,,,,,
20228,1648953251.246729,1648953251.275034,33.0,0.0,4091.794922,4557.436035,4506.666504,4483.589844,4578.461426,0.0,3.0,73.0,,,,0.0,1.0,2.0,0.0,2.0,0.0,8.333333,,,,,,,,,,,,,,,,,,,,1.0,0.0,0.0,,,,,,,,,,,,,,,,,,,,,,,,,,,,,,,,0.0,0.0,32.0,0.091017,1.0,0.0,45.731007,254.384598,360.74295,1045.9724119999998,67.40554,236.13501000000002,101.52574200000001,150.297897,76.99047900000001,99.606224,506.695038,397.165283,449.267975,128.582748,96.706696,31.058584000000003,87.35849,104.64222,730.4940799999999,87.355042,33.212238,95.151871,117.65103899999998,1068.234741,90.354004
20229,1648953251.254543,1648953251.282849,34.0,0.0,4300.512695,4567.179688,4452.307617,4530.769043,4504.615234000001,0.0,3.0,73.0,,,,0.0,1.0,2.0,0.0,2.0,0.0,8.333333,,,,,,,,17.0,0.0,0.515482,-0.120361,0.083984,0.8442379999999999,0.30225100000000005,-0.015137000000000001,-0.977554,0.003871,-0.011372,-0.033121,,,,,,,,,,,,,,,,,,,,,,,,,,,,,,,,,,,,,,,,,,,,,,,,,,,,,,,,,,,,,,,,,
20230,1648953251.262358,1648953251.290564,35.0,0.0,4332.307617,4783.077147999999,4498.461426,4247.179688,4351.794922,0.0,3.0,73.0,,,,0.0,1.0,2.0,0.0,2.0,0.0,8.333333,,,,,,,,,,,,,,,,,,,,,,,,,,,,,,,,,,,,,,,,,,,,,,,,,,,,,,,,,,,,,,,,,,,,,,,,,,,,,,,,,,,,
20231,1648953251.270172,1648953251.298379,36.0,0.0,4238.461426,4788.205078,4462.05127,4108.717772999999,4180.0,0.0,3.0,73.0,,,,0.0,1.0,2.0,0.0,2.0,0.0,8.333333,,,,,,,,18.0,0.0,0.515482,-0.120361,0.083984,0.8442379999999999,0.30518,-0.014649,-0.981949,0.00656,-0.011456000000000001,-0.035718,,,,,,,,,,,,,,,,,,,,,,,,,,,,,,,,,,,,,,,,,,,,,,,,,,,,,,,,,,,,,,,,,
20232,1648953251.277987,1648953251.306094,37.0,0.0,4190.256348,4625.128418,4504.615234000001,4203.077147999999,4030.256348,0.0,3.0,73.0,,,,0.0,1.0,2.0,0.0,2.0,0.0,8.333333,,,,,,,,,,,,,,,,,,,,,,,,,,,,,,,,,,,,,,,,,,,,,,,,,,,,,,0.0,0.0,32.0,0.091017,1.0,0.0,,,,,,,,,,,,,,,,,,,,,,,,,
20233,1648953251.285801,1648953251.313909,38.0,0.0,4270.256348,4586.666504,4655.897461,4317.94873,4193.846191,0.0,3.0,73.0,,,,0.0,1.0,2.0,0.0,2.0,0.0,8.333333,,,,,,,,19.0,0.0,0.515482,-0.120361,0.083984,0.8442379999999999,0.293462,-0.013184,-0.973648,0.002877,-0.011482,-0.031804,,,,,,,,,,,,,,,,,,,,,,,,,,,,,,,,,,,,,,,,,,,,,,,,,,,,,,,,,,,,,,,,,
20234,1648953251.293616,1648953251.321624,39.0,0.0,4383.077147999999,4548.717772999999,4668.205078,4465.128418,4489.743652,0.0,3.0,73.0,,,,0.0,1.0,2.0,0.0,2.0,0.0,8.333333,,,,,,,,,,,,,,,,,,,,,,,,,,,,,,,,,,,,,,,,,,,,,,,,,,,,,,,,,,,,,,,,,,,,,,,,,,,,,,,,,,,,
20235,1648953251.30143,1648953251.329539,40.0,0.0,4422.05127,4519.487305,4557.436035,4577.94873,4546.666504,0.0,3.0,73.0,,,,0.0,1.0,2.0,0.0,2.0,0.0,8.333333,,,,,,,,20.0,0.0,0.515482,-0.120361,0.083984,0.8442379999999999,0.287114,-0.024413999999999998,-0.973159,0.002833,-0.011359000000000001,-0.034727,,,,,,,,,,,,,,,,,,,,,,,,,,,,,,,,,,,,,,,,,,,,,,,,,,,,,,,,,,,,,,,,,
20236,1648953251.3092449,1648953251.337354,41.0,0.0,4336.922852000001,4713.846191,4448.717772999999,4322.05127,4386.153809,0.0,3.0,73.0,,,,0.0,1.0,2.0,0.0,2.0,0.0,8.333333,,,,,,,,,,,,,,,,,,,,,,,,,,,,,,,,,,,,,,,,,,,,,,,,,,,,,,0.0,0.0,32.0,0.091017,1.0,0.0,,,,,,,,,,,,,,,,,,,,,,,,,
20237,1648953251.317059,1648953251.345269,42.0,0.0,4271.282227000001,4847.692383,4460.512695,4094.8718259999996,4267.692383,0.0,3.0,73.0,,,,0.0,1.0,2.0,0.0,2.0,0.0,8.333333,,,,,,,,21.0,0.0,0.515482,-0.120361,0.083984,0.8442379999999999,0.287602,-0.010742,-0.9785309999999999,-0.000331,-0.011298,-0.031010000000000003,,,,,,,,,,,,,,,,,,,,,,,,,,,,,,,,,,,,,,,,,,,,,,,,,,,,,,,,,,,,,,,,,
20238,1648953251.324874,1648953251.353083,43.0,0.0,4138.461426,4666.153809,4542.563965,4174.871582,4181.538574,0.0,3.0,73.0,,,,0.0,1.0,2.0,0.0,2.0,0.0,8.333333,,,,,,,,,,,,,,,,,,,,,,,,,,,,,,,,,,,,,,,,,,,,,,,,,,,,,,,,,,,,,,,,,,,,,,,,,,,,,,,,,,,,
20239,1648953251.332689,1648953251.3609982,44.0,0.0,4043.076904,4408.717772999999,4571.794922,4352.820313,4240.512695,0.0,3.0,73.0,,,,0.0,1.0,2.0,0.0,2.0,0.0,8.333333,,,,,,,,22.0,0.0,0.515482,-0.120361,0.083984,0.8442379999999999,0.299809,-0.019043,-0.9790190000000001,-0.00034700000000000003,-0.011242,-0.033818,,,,,,,,,,,,,,,,,,,,,,,,,,,,,,,,,,,,,,,,,,,,,,,,,,,,,,,,,,,,,,,,,
20240,1648953251.340503,1648953251.368813,45.0,0.0,4167.179688,4331.794922,4455.897461,4430.769043,4565.641113000001,0.0,3.0,73.0,,,,0.0,1.0,2.0,0.0,2.0,0.0,8.333333,,,,,,,,,,,,,,,,,,,,,,,,,,,,,,,,,,,,,,,,,,,,,,,,,,,,,,0.0,0.0,32.0,0.091017,1.0,0.0,,,,,,,,,,,,,,,,,,,,,,,,,
20241,1648953251.3483179,1648953251.3767278,46.0,0.0,4432.820313,4452.820313,4329.743652,4484.615234000001,4777.436035,0.0,3.0,73.0,,,,0.0,1.0,2.0,0.0,2.0,0.0,8.333333,,,,,,,,23.0,0.0,0.515482,-0.120361,0.083984,0.8442379999999999,0.287114,-0.024413999999999998,-0.973159,-0.003437,-0.011290000000000001,-0.030143,,,,,,,,,,,,,,,,,,,,,,,,,,,,,,,,,,,,,,,,,,,,,,,,,,,,,,,,,,,,,,,,,
20242,1648953251.356132,1648953251.384543,47.0,0.0,4552.820313,4507.179688,4354.358886999999,4445.128418,4426.153809,0.0,3.0,73.0,,,,0.0,1.0,2.0,0.0,2.0,0.0,8.333333,,,,,,,,,,,,,,,,,,,,,,,,,,,,,,,,,,,,,,,,,,,,,,,,,,,,,,,,,,,,,,,,,,,,,,,,,,,,,,,,,,,,
20243,1648953251.3639472,1648953251.392458,48.0,0.0,4428.717772999999,4245.128418,4431.282227000001,4304.615234000001,4041.538574,0.0,3.0,73.0,,,,0.0,1.0,2.0,0.0,2.0,0.0,8.333333,,,,,,,,24.0,0.0,0.515482,-0.120361,0.083984,0.8442379999999999,0.299809,-0.019043,-0.9790190000000001,-0.0031420000000000003,-0.011235,-0.033037000000000004,,,,,,,,,,,,,,,,,,,,,,,,,,,,,,,,,,,,,,,,,,,,,,,,,,,,,,,,,,,,,,,,,
20244,1648953251.3717608,1648953251.4002721,49.0,0.0,4238.461426,4149.230957,4307.692383,4104.615234000001,4071.794922,0.0,3.0,73.0,,,,0.0,1.0,2.0,0.0,2.0,0.0,8.333333,,,,,,,,,,,,,,,,,,,,1.0,0.0,0.0,,,,,,,,,,,,,,,,,,,,,,,,,,,,,,,,0.0,0.0,32.0,0.10515,1.0,0.0,43.859951,249.268143,293.558807,1110.261108,69.478531,243.835098,122.568405,150.229645,79.73183399999999,98.250465,492.14019800000005,415.112457,493.955078,129.980637,99.482277,24.482599,81.817741,95.426247,715.871643,82.345528,39.003242,84.106323,116.412247,1105.953125,96.751183
20245,1648953251.379576,1648953251.4079869,50.0,0.0,4153.333496,4466.153809,4191.282227000001,4043.5898439999996,4307.179688,0.0,3.0,73.0,,,,0.0,1.0,2.0,0.0,2.0,0.0,8.333333,,,,,,,,25.0,0.0,0.515482,-0.120361,0.083984,0.8442379999999999,0.291997,-0.008789,-0.975601,-0.005953,-0.011283,-0.029439999999999997,,,,,,,,,,,,,,,,,,,,,,,,,,,,,,,,,,,,,,,,,,,,,,,,,,,,,,,,,,,,,,,,,
20246,1648953251.387391,1648953251.415802,51.0,0.0,4130.256348,4679.487305,4403.077147999999,4243.589844,4460.0,0.0,3.0,73.0,,,,0.0,1.0,2.0,0.0,2.0,0.0,8.333333,,,,,,,,,,,,,,,,,,,,,,,,,,,,,,,,,,,,,,,,,,,,,,,,,,,,,,,,,,,,,,,,,,,,,,,,,,,,,,,,,,,,
20247,1648953251.395205,1648953251.423517,52.0,0.0,4220.512695,4643.589844,4513.846191,4515.384765999999,4502.563965,0.0,3.0,73.0,,,,0.0,1.0,2.0,0.0,2.0,0.0,8.333333,,,,,,,,26.0,0.0,0.515442,-0.120361,0.084229,0.8442379999999999,0.295903,-0.015137000000000001,-0.9716950000000001,-0.005162,-0.011327,-0.032452999999999996,,,,,,,,,,,,,,,,,,,,,,,,,,,,,,,,,,,,,,,,,,,,,,,,,,,,,,,,,,,,,,,,,
20248,1648953251.40302,1648953251.431332,53.0,0.0,4366.153809,4593.333496,4301.538574,4573.846191,4514.871582,0.0,3.0,73.0,,,,0.0,1.0,2.0,0.0,2.0,0.0,8.333333,,,,,,,,,,,,,,,,,,,,,,,,,,,,,,,,,,,,,,,,,,,,,,,,,,,,,,0.0,0.0,32.0,0.10515,1.0,0.0,,,,,,,,,,,,,,,,,,,,,,,,,
20249,1648953251.410834,1648953251.439047,54.0,0.0,4356.410156,4646.666504,4254.358886999999,4300.512695,4405.128418,0.0,3.0,73.0,,,,0.0,1.0,2.0,0.0,2.0,0.0,8.333333,,,,,,,,27.0,0.0,0.515442,-0.120361,0.084229,0.8442379999999999,0.297856,-0.03418,-0.978042,-0.0016190000000000002,-0.011366,-0.03536,,,,,,,,,,,,,,,,,,,,,,,,,,,,,,,,,,,,,,,,,,,,,,,,,,,,,,,,,,,,,,,,,
20250,1648953251.418649,1648953251.4469619,55.0,0.0,4253.333496,4793.333496,4403.589844,4108.205078,4180.0,0.0,3.0,73.0,,,,0.0,1.0,2.0,0.0,2.0,0.0,8.333333,,,,,,,,,,,,,,,,,,,,,,,,,,,,,,,,,,,,,,,,,,,,,,,,,,,,,,,,,,,,,,,,,,,,,,,,,,,,,,,,,,,,
20251,1648953251.4264631,1648953251.454777,56.0,0.0,4242.05127,4816.922852000001,4453.333496,4149.230957,4011.794922,0.0,3.0,73.0,,,,0.0,1.0,2.0,0.0,2.0,0.0,8.333333,,,,,,,,28.0,0.0,0.515442,-0.120361,0.084229,0.8442379999999999,0.297856,-0.020996,-0.982925,-0.0015550000000000002,-0.011401,-0.037879,,,,,,,,,,,,,,,,,,,,,,,,,,,,,,,,,,,,,,,,,,,,,,,,,,,,,,,,,,,,,,,,,
20252,1648953251.434278,1648953251.462692,57.0,0.0,4362.563965,4641.025879,4587.179688,4257.436035,4151.794922,0.0,3.0,73.0,,,,0.0,1.0,2.0,0.0,2.0,0.0,8.333333,,,,,,,,,,,,,,,,,,,,,,,,,,,,,,,,,,,,,,,,,,,,,,,,,,,,,,0.0,0.0,32.0,0.10515,1.0,0.0,,,,,,,,,,,,,,,,,,,,,,,,,
20253,1648953251.442092,1648953251.470506,58.0,0.0,4412.820313,4497.94873,4667.179688,4463.077147999999,4435.897461,0.0,3.0,73.0,,,,0.0,1.0,2.0,0.0,2.0,0.0,8.333333,,,,,,,,29.0,0.0,0.515442,-0.120361,0.084229,0.8442379999999999,0.298833,-0.029297000000000004,-0.9799950000000001,-0.001448,-0.011336,-0.040048,,,,,,,,,,,,,,,,,,,,,,,,,,,,,,,,,,,,,,,,,,,,,,,,,,,,,,,,,,,,,,,,,
20254,1648953251.449907,1648953251.4784212,59.0,0.0,4410.256348,4540.0,4513.333496,4644.615234000001,4568.205078,0.0,3.0,73.0,,,,0.0,1.0,2.0,0.0,2.0,0.0,8.333333,,,,,,,,,,,,,,,,,,,,,,,,,,,,,,,,,,,,,,,,,,,,,,,,,,,,,,,,,,,,,,,,,,,,,,,,,,,,,,,,,,,,
20255,1648953251.457721,1648953251.4862359,60.0,0.0,4337.94873,4718.974121,4354.871582,4406.666504,4405.641113000001,0.0,3.0,73.0,,,,0.0,1.0,2.0,0.0,2.0,0.0,8.333333,,,,,,,,30.0,0.0,0.515442,-0.120361,0.084229,0.8442379999999999,0.300298,-0.032715,-0.9751129999999999,0.0017239999999999998,-0.011373999999999999,-0.042196,,,,,,,,,,,,,,,,,,,,,,,,,,,,,,,,,,,,,,,,,,,,,,,,,,,,,,,,,,,,,,,,,
20256,1648953251.4655359,1648953251.4941509,61.0,0.0,4274.358886999999,4842.05127,4430.256348,4104.102539,4233.333496,0.0,3.0,73.0,,,,0.0,1.0,2.0,0.0,2.0,0.0,8.333333,,,,,,,,,,,,,,,,,,,,,,,,,,,,,,,,,,,,,,,,,,,,,,,,,,,,,,0.0,0.0,32.0,0.10515,1.0,0.0,,,,,,,,,,,,,,,,,,,,,,,,,
20257,1648953251.47335,1648953251.501966,62.0,0.0,4130.256348,4665.128418,4554.358886999999,4162.05127,4184.102539,0.0,3.0,73.0,,,,0.0,1.0,2.0,0.0,2.0,0.0,8.333333,,,,,,,,31.0,0.0,0.515442,-0.120361,0.084229,0.8442379999999999,0.291508,-0.009766,-0.9751129999999999,0.0016010000000000002,-0.011359999999999999,-0.037635,,,,,,,,,,,,,,,,,,,,,,,,,,,,,,,,,,,,,,,,,,,,,,,,,,,,,,,,,,,,,,,,,
20258,1648953251.481165,1648953251.509881,63.0,0.0,4064.102539,4455.897461,4565.128418,4333.846191,4243.077147999999,0.0,3.0,73.0,,,,0.0,1.0,2.0,0.0,2.0,0.0,8.333333,,,,,,,,,,,,,,,,,,,,,,,,,,,,,,,,,,,,,,,,,,,,,,,,,,,,,,,,,,,,,,,,,,,,,,,,,,,,,,,,,,,,
20259,1648953251.4889789,1648953251.517695,64.0,0.0,4231.282227000001,4482.05127,4493.846191,4437.94873,4517.436035,450.0,3.0,73.0,,,,0.0,1.0,2.0,0.0,2.0,0.0,8.333333,,,,,,,,32.0,0.0,0.515442,-0.120361,0.084229,0.8442379999999999,0.299809,-0.013184,-0.98439,-0.001538,-0.011347,-0.033627,,,,,,,,,,,,,,,,,,,,,,,,,,,,,,,,,,,,,,,,,,,,,,,,,,,,,,,,,,,,,,,,,
20260,1648953251.496794,1648953251.52561,65.0,0.0,4466.666504,4523.589844,4451.282227000001,4545.641113000001,4809.230957,450.0,3.0,73.0,,,,0.0,0.0,2.0,0.0,2.0,0.0,0.0,1.0,0.0,0.0,0.0,0.0,0.0,0.0,,,,,,,,,,,,,1.0,0.0,0.0,,,,,,,,,,,,,,,,,,,,,,,,,,,,,,,,0.0,0.0,32.0,0.10592599999999999,1.0,0.0,41.961155,224.370377,240.582367,1128.7661130000001,67.51984399999999,262.479156,137.047302,149.41236899999998,83.154945,97.427231,511.97009299999996,407.99661299999997,512.831421,132.66175800000002,101.479752,21.804419,70.94208499999999,86.518745,731.217224,77.01561,48.16473,69.17189,124.105515,1140.802856,100.489311
20261,1648953251.5046089,1648953251.533425,66.0,0.0,4525.641113000001,4554.871582,4535.897461,4424.615234000001,4525.641113000001,0.0,3.0,73.0,,,,0.0,0.0,2.0,0.0,2.0,0.0,0.0,,,,,,,,33.0,0.0,0.515442,-0.120361,0.084229,0.8442379999999999,0.304692,-0.017578,-0.98146,-0.001384,-0.011482,-0.03627,,,,,,,,,,,,,,,,,,,,,,,,,,,,,,,,,,,,,,,,,,,,,,,,,,,,,,,,,,,,,,,,,
20262,1648953251.512423,1648953251.54134,67.0,0.0,4371.282227000001,4691.282227000001,4684.615234000001,4187.179688,4020.512939,450.0,3.0,73.0,,,,0.0,0.0,0.0,0.0,2.0,0.0,0.0,,,,,,,,,,,,,,,,,,,,,,,,,,,,,,,,,,,,,,,,,,,,,,,,,,,,,,,,,,,,,,,,,,,,,,,,,,,,,,,,,,,,
20263,1648953251.5202382,1648953251.549155,68.0,0.0,4122.05127,4718.461426,4688.717772999999,4157.94873,4064.102539,39.0,3.0,73.0,,,,0.0,0.0,0.0,0.0,2.0,0.0,0.0,,,,,,,,34.0,0.0,0.515442,-0.120361,0.084229,0.8442379999999999,0.29688000000000003,-0.012206999999999999,-0.98146,-0.004176,-0.011505,-0.032399000000000004,,,,,,,,,,,,,,,,,,,,,,,,,,,,,,,,,,,,,,,,,,,,,,,,,,,,,,,,,,,,,,,,,
20264,1648953251.5280519,1648953251.55707,69.0,0.0,4025.641113,4572.820313,4488.717772999999,4277.94873,4359.487305,450.0,3.0,73.0,,,,0.0,0.0,0.0,1.0,2.0,0.0,0.0,,,,,,,,,,,,,,,,,,,,,,,,,,,,,,,,,,,,,,,,,,,,,,,,,,,,,,0.0,0.0,32.0,0.10592599999999999,1.0,0.0,,,,,,,,,,,,,,,,,,,,,,,,,
20265,1648953251.535867,1648953251.564884,70.0,0.0,4256.410156,4420.512695,4505.128418,4407.179688,4483.589844,110.0,3.0,73.0,,,,0.0,0.0,0.0,1.0,2.0,0.0,0.0,,,,,,,,35.0,0.0,0.515442,-0.120361,0.084229,0.8442379999999999,0.30811,-0.022461000000000002,-0.9824370000000001,-0.00366,-0.011526999999999999,-0.028866000000000003,,,,,,,,,,,,,,,,,,,,,,,,,,,,,,,,,,,,,,,,,,,,,,,,,,,,,,,,,,,,,,,,,
20266,1648953251.5436811,1648953251.572599,71.0,0.0,4531.282227000001,4397.94873,4651.794922,4426.666504,4529.230957,450.0,3.0,73.0,,,,0.0,0.0,0.0,1.0,2.0,0.0,0.0,,,,,,,,,,,,,,,,,,,,,,,,,,,,,,,,,,,,,,,,,,,,,,,,,,,,,,,,,,,,,,,,,,,,,,,,,,,,,,,,,,,,
20267,1648953251.551496,1648953251.580414,72.0,0.0,4509.230957,4593.846191,4487.179688,4328.717772999999,4420.0,450.0,3.0,73.0,,,,0.0,0.0,0.0,1.0,2.0,0.0,0.0,,,,,,,,36.0,0.0,0.515442,-0.120361,0.084229,0.8442379999999999,0.299809,-0.016602000000000002,-0.983902,-0.003343,-0.011351,-0.025833,,,,,,,,,,,,,,,,,,,,,,,,,,,,,,,,,,,,,,,,,,,,,,,,,,,,,,,,,,,,,,,,,
20268,1648953251.559311,1648953251.5881288,73.0,0.0,4285.128418,4767.179688,4396.922852000001,4181.538574,4085.641113,0.0,3.0,73.0,,,,0.0,0.0,0.0,1.0,0.0,0.0,0.0,,,,,,,,,,,,,,,,,,,,,,,,,,,,,,,,,,,,,,,,,,,,,,,,,,,,,,0.0,0.0,32.0,0.10592599999999999,1.0,0.0,,,,,,,,,,,,,,,,,,,,,,,,,
20269,1648953251.567125,1648953251.595944,74.0,0.0,4229.230957,4685.128418,4657.94873,4213.846191,4095.897461,450.0,3.0,73.0,,,,0.0,0.0,0.0,1.0,0.0,0.0,0.0,,,,,,,,37.0,0.0,0.515402,-0.120361,0.084473,0.8442379999999999,0.309575,-0.028808999999999998,-0.9834129999999999,-0.003106,-0.011290000000000001,-0.029305,,,,,,,,,,,,,,,,,,,,,,,,,,,,,,,,,,,,,,,,,,,,,,,,,,,,,,,,,,,,,,,,,
20270,1648953251.57494,1648953251.603659,75.0,0.0,4280.512695,4533.333496,4657.94873,4363.589844,4441.538574,0.0,3.0,73.0,,,,0.0,0.0,0.0,1.0,0.0,0.0,0.0,,,,,,,,,,,,,,,,,,,,,,,,,,,,,,,,,,,,,,,,,,,,,,,,,,,,,,,,,,,,,,,,,,,,,,,,,,,,,,,,,,,,
20271,1648953251.582754,1648953251.611474,76.0,0.0,4365.641113000001,4521.538574,4514.358886999999,4486.666504,4565.128418,450.0,3.0,73.0,,,,0.0,0.0,0.0,1.0,0.0,0.0,0.0,,,,,,,,38.0,0.0,0.515442,-0.120361,0.084229,0.8442379999999999,0.299809,-0.02295,-0.973648,-0.002893,-0.011333,-0.026179,,,,,,,,,,,,,,,,,,,,,,,,,,,,,,,,,,,,,,,,,,,,,,,,,,,,,,,,,,,,,,,,,
20272,1648953251.590569,1648953251.619189,77.0,0.0,4445.641113000001,4570.256348,4608.717772999999,4339.487305,4432.820313,450.0,3.0,73.0,,,,0.0,0.0,0.0,1.0,0.0,0.0,0.0,,,,,,,,,,,,,,,,,,,,,,,,,,,,,,,,,,,,,,,,,,,,,,,,,,,,,,0.0,0.0,32.0,0.10592599999999999,1.0,0.0,,,,,,,,,,,,,,,,,,,,,,,,,
20273,1648953251.598383,1648953251.6271038,78.0,0.0,4448.717772999999,4617.94873,4592.820313,4118.974121,4368.205078,450.0,3.0,73.0,,,,0.0,0.0,0.0,1.0,0.0,0.0,0.0,,,,,,,,39.0,0.0,0.515402,-0.120361,0.084473,0.8442379999999999,0.30518,-0.020508000000000002,-0.977066,-0.002506,-0.011225,-0.029567000000000003,,,,,,,,,,,,,,,,,,,,,,,,,,,,,,,,,,,,,,,,,,,,,,,,,,,,,,,,,,,,,,,,,
20274,1648953251.606198,1648953251.634919,79.0,0.0,4205.128418,4674.358886999999,4464.615234000001,4140.0,4228.717772999999,0.0,3.0,73.0,,,,0.0,0.0,0.0,1.0,0.0,0.0,0.0,,,,,,,,,,,,,,,,,,,,,,,,,,,,,,,,,,,,,,,,,,,,,,,,,,,,,,,,,,,,,,,,,,,,,,,,,,,,,,,,,,,,
20275,1648953251.614012,1648953251.642834,80.0,0.0,4026.6667479999996,4552.820313,4567.179688,4342.563965,4157.436035,450.0,3.0,73.0,,,,0.0,0.0,0.0,1.0,0.0,0.0,0.0,,,,,,,,40.0,0.0,0.515402,-0.120361,0.084473,0.8442379999999999,0.286137,-0.013672,-0.988296,-0.0022559999999999998,-0.011323,-0.026414999999999998,,,,,,,,,,,,,,,,,,,,,,,,,,,,,,,,,,,,,,,,,,,,,,,,,,,,,,,,,,,,,,,,,
20276,1648953251.621827,1648953251.650648,81.0,0.0,4171.794922,4330.769043,4581.025879,4414.871582,4463.589844,450.0,3.0,73.0,,,,0.0,0.0,0.0,1.0,0.0,0.0,0.0,,,,,,,,,,,,,,,,,,,,1.0,0.0,0.0,,,,,,,,,,,,,,,,,,,,,,,,,,,,,,,,0.0,0.0,32.0,0.113621,1.0,0.0,41.785847,187.179001,213.220108,1097.521851,62.22081800000001,285.66488599999997,141.85936,154.404007,84.813301,98.188934,567.347351,378.908386,503.99649000000005,135.14093,102.817307,23.888847,58.447086,80.14295200000001,766.702637,73.307549,59.353462,57.122707,138.634613,1165.767334,100.67156999999999
20277,1648953251.629641,1648953251.658463,82.0,0.0,4403.589844,4367.692383,4375.897461,4417.436035,4781.025879,450.0,3.0,73.0,,,,0.0,0.0,0.0,1.0,0.0,0.0,0.0,,,,,,,,41.0,0.0,0.515402,-0.120361,0.084473,0.8442379999999999,0.293462,-0.022461000000000002,-0.9785309999999999,0.000997,-0.011411,-0.029779000000000003,,,,,,,,,,,,,,,,,,,,,,,,,,,,,,,,,,,,,,,,,,,,,,,,,,,,,,,,,,,,,,,,,
20278,1648953251.637456,1648953251.666178,83.0,0.0,4531.282227000001,4527.692383,4412.307617,4400.512695,4545.641113000001,0.0,3.0,73.0,,,,0.0,0.0,0.0,1.0,0.0,0.0,0.0,,,,,,,,,,,,,,,,,,,,,,,,,,,,,,,,,,,,,,,,,,,,,,,,,,,,,,,,,,,,,,,,,,,,,,,,,,,,,,,,,,,,
20279,1648953251.6452699,1648953251.6739929,84.0,0.0,4493.846191,4416.922852000001,4628.205078,4251.794922,4108.205078,450.0,3.0,73.0,,,,0.0,0.0,0.0,1.0,0.0,0.0,0.0,,,,,,,,42.0,0.0,0.515402,-0.120361,0.084473,0.8442379999999999,0.309575,-0.024413999999999998,-0.9702299999999999,0.003827,-0.011442,-0.03271,,,,,,,,,,,,,,,,,,,,,,,,,,,,,,,,,,,,,,,,,,,,,,,,,,,,,,,,,,,,,,,,,
20280,1648953251.653085,1648953251.681708,85.0,0.0,4297.94873,4348.717772999999,4601.538574,4084.102539,4053.8461909999996,450.0,3.0,73.0,,,,0.0,0.0,0.0,1.0,0.0,0.0,0.0,,,,,,,,,,,,,,,,,,,,,,,,,,,,,,,,,,,,,,,,,,,,,,,,,,,,,,0.0,0.0,32.0,0.113621,1.0,0.0,,,,,,,,,,,,,,,,,,,,,,,,,
20281,1648953251.6609,1648953251.689623,86.0,0.0,4078.974365,4564.615234000001,4446.666504,4038.974365,4264.102539,450.0,3.0,73.0,,,,0.0,0.0,0.0,1.0,0.0,0.0,0.0,,,,,,,,43.0,0.0,0.515442,-0.120361,0.084229,0.8442379999999999,0.301762,-0.020996,-0.980972,0.003542,-0.011372,-0.035445,,,,,,,,,,,,,,,,,,,,,,,,,,,,,,,,,,,,,,,,,,,,,,,,,,,,,,,,,,,,,,,,,
20282,1648953251.668714,1648953251.697438,87.0,0.0,4023.076904,4648.717772999999,4324.615234000001,4205.128418,4468.717772999999,0.0,3.0,73.0,,,,0.0,0.0,0.0,1.0,0.0,0.0,0.0,,,,,,,,,,,,,,,,,,,,,,,,,,,,,,,,,,,,,,,,,,,,,,,,,,,,,,,,,,,,,,,,,,,,,,,,,,,,,,,,,,,,
20283,1648953251.676529,1648953251.705353,88.0,0.0,4242.05127,4583.077147999999,4275.384765999999,4446.153809,4527.692383,450.0,3.0,73.0,,,,0.0,0.0,0.0,1.0,0.0,0.0,0.0,,,,,,,,44.0,0.0,0.515402,-0.120361,0.084473,0.8442379999999999,0.295903,-0.021485,-0.9741360000000001,-0.000168,-0.011155,-0.033774,,,,,,,,,,,,,,,,,,,,,,,,,,,,,,,,,,,,,,,,,,,,,,,,,,,,,,,,,,,,,,,,,
20284,1648953251.6843429,1648953251.713267,89.0,0.0,4519.487305,4558.461426,4272.820313,4567.179688,4447.179688,450.0,3.0,73.0,,,,0.0,0.0,0.0,1.0,0.0,0.0,0.0,,,,,,,,,,,,,,,,,,,,,,,,,,,,,,,,,,,,,,,,,,,,,,,,,,,,,,0.0,0.0,32.0,0.113621,1.0,0.0,,,,,,,,,,,,,,,,,,,,,,,,,
20285,1648953251.692158,1648953251.721082,90.0,0.0,4418.974121,4493.846191,4221.025879,4420.512695,4240.0,450.0,3.0,73.0,,,,0.0,0.0,0.0,1.0,0.0,0.0,0.0,,,,,,,,45.0,0.0,0.515402,-0.120361,0.084473,0.8442379999999999,0.309575,-0.024413999999999998,-0.9702299999999999,0.002778,-0.011211,-0.036305000000000004,,,,,,,,,,,,,,,,,,,,,,,,,,,,,,,,,,,,,,,,,,,,,,,,,,,,,,,,,,,,,,,,,
20286,1648953251.6999722,1648953251.728997,91.0,0.0,4200.512695,4530.256348,4184.615234000001,4197.436035,4106.666504,0.0,3.0,73.0,,,,0.0,0.0,0.0,1.0,0.0,0.0,0.0,,,,,,,,,,,,,,,,,,,,,,,,,,,,,,,,,,,,,,,,,,,,,,,,,,,,,,,,,,,,,,,,,,,,,,,,,,,,,,,,,,,,
20287,1648953251.7077868,1648953251.7368119,92.0,0.0,4217.94873,4745.128418,4281.538574,4056.4101560000004,4040.0,450.0,3.0,73.0,,,,0.0,0.0,0.0,1.0,0.0,0.0,0.0,,,,,,,,46.0,0.0,0.515442,-0.120361,0.084229,0.8442379999999999,0.286625,-0.019532,-0.984878,0.002598,-0.011311,-0.03243,,,,,,,,,,,,,,,,,,,,,,,,,,,,,,,,,,,,,,,,,,,,,,,,,,,,,,,,,,,,,,,,,
20288,1648953251.715601,1648953251.744727,93.0,0.0,4352.307617,4739.487305,4317.94873,4166.153809,4112.307617,450.0,3.0,73.0,,,,0.0,0.0,0.0,1.0,0.0,0.0,0.0,,,,,,,,,,,,,,,,,,,,,,,,,,,,,,,,,,,,,,,,,,,,,,,,,,,,,,0.0,0.0,32.0,0.113621,1.0,0.0,,,,,,,,,,,,,,,,,,,,,,,,,
20289,1648953251.723416,1648953251.752641,94.0,0.0,4410.769043,4632.307617,4265.128418,4514.358886999999,4349.743652,450.0,3.0,73.0,,,,0.0,0.0,0.0,1.0,0.0,0.0,0.0,,,,,,,,47.0,0.0,0.515442,-0.120361,0.084229,0.8442379999999999,0.287602,-0.011719,-0.975601,0.0024850000000000002,-0.011303,-0.035193,,,,,,,,,,,,,,,,,,,,,,,,,,,,,,,,,,,,,,,,,,,,,,,,,,,,,,,,,,,,,,,,,
20290,1648953251.731231,1648953251.760456,95.0,0.0,4470.256348,4642.05127,4285.128418,4726.153809,4569.230957,0.0,3.0,73.0,,,,0.0,0.0,0.0,1.0,0.0,0.0,0.0,,,,,,,,,,,,,,,,,,,,,,,,,,,,,,,,,,,,,,,,,,,,,,,,,,,,,,,,,,,,,,,,,,,,,,,,,,,,,,,,,,,,
20291,1648953251.739045,1648953251.7682712,96.0,0.0,4340.0,4606.153809,4218.974121,4456.922852000001,4491.794922,450.0,3.0,73.0,,,,0.0,0.0,0.0,1.0,0.0,0.0,0.0,,,,,,,,48.0,0.0,0.515442,-0.120361,0.084229,0.8442379999999999,0.299809,-0.013184,-0.9712059999999999,-0.0006929999999999999,-0.011247,-0.03143,,,,,,,,,,,,,,,,,,,,,,,,,,,,,,,,,,,,,,,,,,,,,,,,,,,,,,,,,,,,,,,,,
20292,1648953251.74686,1648953251.776186,97.0,0.0,4185.641113000001,4660.0,4199.487305,4106.666504,4269.743652,450.0,3.0,73.0,,,,0.0,0.0,0.0,1.0,0.0,0.0,0.0,,,,,,,,,,,,,,,,,,,,1.0,0.0,0.0,,,,,,,,,,,,,,,,,,,,,,,,,,,,,,,,0.0,0.0,32.0,0.102284,1.0,0.0,43.659267,147.021698,213.54826400000002,1025.672485,55.443847999999996,309.550629,140.086853,166.159454,86.629456,100.992325,640.269287,335.68631,468.836761,135.61733999999998,102.95683299999999,30.001365999999997,47.634403000000006,75.87129200000001,809.174744,71.519958,71.714737,51.705658,153.709076,1182.089355,97.98492399999999
20293,1648953251.754674,1648953251.7840009,98.0,0.0,4156.922852000001,4803.589844,4486.153809,4126.153809,4141.025879,450.0,3.0,73.0,,,,0.0,0.0,0.0,1.0,0.0,0.0,0.0,,,,,,,,49.0,0.0,0.515402,-0.120361,0.084473,0.8442379999999999,0.281254,-0.032227,-0.9741360000000001,-0.000575,-0.011148,-0.028042,,,,,,,,,,,,,,,,,,,,,,,,,,,,,,,,,,,,,,,,,,,,,,,,,,,,,,,,,,,,,,,,,
20294,1648953251.762489,1648953251.7919161,99.0,0.0,4191.794922,4695.897461,4611.794922,4292.307617,4158.974121,0.0,3.0,73.0,,,,0.0,0.0,0.0,1.0,0.0,0.0,0.0,,,,,,,,,,,,,,,,,,,,,,,,,,,,,,,,,,,,,,,,,,,,,,,,,,,,,,,,,,,,,,,,,,,,,,,,,,,,,,,,,,,,
20295,1648953251.770303,1648953251.799731,100.0,0.0,4384.102539,4553.846191,4496.922852000001,4427.179688,4366.153809,450.0,3.0,73.0,,,,0.0,0.0,0.0,1.0,0.0,0.0,0.0,,,,,,,,50.0,0.0,0.515402,-0.120361,0.084473,0.8442379999999999,0.307622,-0.012206999999999999,-0.983902,-0.000615,-0.011156000000000001,-0.031244,,,,,,,,,,,,,,,,,,,,,,,,,,,,,,,,,,,,,,,,,,,,,,,,,,,,,,,,,,,,,,,,,
20296,1648953251.778118,1648953251.8076448,101.0,0.0,4539.487305,4653.846191,4471.282227000001,4616.410156,4562.563965,450.0,3.0,73.0,,,,0.0,0.0,0.0,1.0,0.0,0.0,0.0,,,,,,,,,,,,,,,,,,,,,,,,,,,,,,,,,,,,,,,,,,,,,,,,,,,,,,0.0,0.0,32.0,0.102284,1.0,0.0,,,,,,,,,,,,,,,,,,,,,,,,,
20297,1648953251.785932,1648953251.81546,102.0,0.0,4421.025879,4669.230957,4358.974121,4539.487305,4425.128418,450.0,3.0,73.0,,,,0.0,0.0,0.0,1.0,0.0,0.0,0.0,,,,,,,,51.0,0.0,0.515402,-0.120361,0.084473,0.8442379999999999,0.295415,-0.027832,-0.976089,0.0024739999999999996,-0.011212,-0.034175,,,,,,,,,,,,,,,,,,,,,,,,,,,,,,,,,,,,,,,,,,,,,,,,,,,,,,,,,,,,,,,,,
20298,1648953251.7937472,1648953251.823375,103.0,0.0,4227.179688,4613.846191,4128.205078,4116.410156,4233.333496,0.0,3.0,73.0,,,,0.0,0.0,0.0,1.0,0.0,0.0,0.0,,,,,,,,,,,,,,,,,,,,,,,,,,,,,,,,,,,,,,,,,,,,,,,,,,,,,,,,,,,,,,,,,,,,,,,,,,,,,,,,,,,,
20299,1648953251.8015609,1648953251.83119,104.0,0.0,4122.563965,4695.897461,4349.743652,4034.358887,4421.025879,450.0,3.0,73.0,,,,0.0,0.0,0.0,1.0,0.0,0.0,0.0,,,,,,,,52.0,0.0,0.515402,-0.120361,0.084473,0.8442379999999999,0.303716,-0.018555000000000002,-0.996597,-0.000655,-0.011165000000000001,-0.030513,,,,,,,,,,,,,,,,,,,,,,,,,,,,,,,,,,,,,,,,,,,,,,,,,,,,,,,,,,,,,,,,,
20300,1648953251.809376,1648953251.8391051,105.0,0.0,4100.0,4674.871582,4702.563965,4328.717772999999,4573.846191,450.0,3.0,73.0,,,,0.0,0.0,0.0,1.0,0.0,0.0,0.0,,,,,,,,,,,,,,,,,,,,,,,,,,,,,,,,,,,,,,,,,,,,,,,,,,,,,,0.0,0.0,32.0,0.102284,1.0,0.0,,,,,,,,,,,,,,,,,,,,,,,,,
20301,1648953251.8171911,1648953251.84692,106.0,0.0,4293.333496,4592.820313,4470.769043,4504.615234000001,4492.307617,450.0,3.0,73.0,,,,0.0,0.0,0.0,1.0,0.0,0.0,0.0,,,,,,,,53.0,0.0,0.515402,-0.120361,0.084473,0.8442379999999999,0.294926,-0.019532,-0.972183,0.002487,-0.011221,-0.033516000000000004,,,,,,,,,,,,,,,,,,,,,,,,,,,,,,,,,,,,,,,,,,,,,,,,,,,,,,,,,,,,,,,,,
20302,1648953251.825005,1648953251.854834,107.0,0.0,4420.0,4663.077147999999,4105.641113000001,4484.615234000001,4356.922852000001,0.0,3.0,73.0,,,,0.0,0.0,0.0,1.0,0.0,0.0,0.0,,,,,,,,,,,,,,,,,,,,,,,,,,,,,,,,,,,,,,,,,,,,,,,,,,,,,,,,,,,,,,,,,,,,,,,,,,,,,,,,,,,,
20303,1648953251.83282,1648953251.862749,108.0,0.0,4363.589844,4678.974121,4230.256348,4366.153809,4234.871582,450.0,3.0,73.0,,,,0.0,0.0,0.0,1.0,0.0,0.0,0.0,,,,,,,,54.0,0.0,0.515402,-0.120361,0.084473,0.8442379999999999,0.303716,-0.010742,-0.9707180000000001,0.005266,-0.01127,-0.03622,,,,,,,,,,,,,,,,,,,,,,,,,,,,,,,,,,,,,,,,,,,,,,,,,,,,,,,,,,,,,,,,,
20304,1648953251.8406339,1648953251.870564,109.0,0.0,4290.769043,4612.307617,4363.589844,4083.5898439999996,4052.820557,450.0,3.0,73.0,,,,0.0,0.0,0.0,1.0,0.0,0.0,0.0,,,,,,,,,,,,,,,,,,,,,,,,,,,,,,,,,,,,,,,,,,,,,,,,,,,,,,0.0,0.0,32.0,0.102284,1.0,0.0,,,,,,,,,,,,,,,,,,,,,,,,,
20305,1648953251.848449,1648953251.878479,110.0,0.0,4274.358886999999,4608.717772999999,4210.256348,4075.897461,4095.897461,450.0,3.0,73.0,,,,0.0,0.0,0.0,1.0,0.0,0.0,0.0,,,,,,,,55.0,0.0,0.515402,-0.120361,0.084473,0.8442379999999999,0.290532,-0.020508000000000002,-0.963882,0.0077670000000000005,-0.011364,-0.038604,,,,,,,,,,,,,,,,,,,,,,,,,,,,,,,,,,,,,,,,,,,,,,,,,,,,,,,,,,,,,,,,,
20306,1648953251.8562632,1648953251.886294,111.0,0.0,4328.205078,4659.487305,4183.589844,4452.307617,4357.94873,0.0,3.0,73.0,,,,0.0,0.0,0.0,1.0,0.0,0.0,0.0,,,,,,,,,,,,,,,,,,,,,,,,,,,,,,,,,,,,,,,,,,,,,,,,,,,,,,,,,,,,,,,,,,,,,,,,,,,,,,,,,,,,
20307,1648953251.864078,1648953251.894208,112.0,0.0,4494.358886999999,4641.538574,4323.077147999999,4711.282227000001,4558.461426,450.0,3.0,73.0,,,,0.0,0.0,0.0,1.0,0.0,0.0,0.0,,,,,,,,56.0,0.0,0.515442,-0.120361,0.084229,0.8442379999999999,0.29102,-0.010254000000000001,-0.98146,0.007136,-0.011302,-0.040798,,,,,,,,,,,,,,,,,,,,,,,,,,,,,,,,,,,,,,,,,,,,,,,,,,,,,,,,,,,,,,,,,
20308,1648953251.871892,1648953251.902023,113.0,0.0,4436.922852000001,4535.897461,4255.384765999999,4468.717772999999,4497.94873,450.0,3.0,73.0,,,,0.0,0.0,0.0,1.0,0.0,0.0,0.0,,,,,,,,,,,,,,,,,,,,1.0,0.0,0.0,,,,,,,,,,,,,,,,,,,,,,,,,,,,,,,,0.0,0.0,32.0,0.078724,1.0,0.0,45.881012,110.803467,232.802872,930.2591550000001,48.870354,332.711731,137.212357,179.905441,93.991318,105.33166499999999,698.686584,286.55551099999997,412.8125,133.82872,101.280472,37.877186,39.517146999999994,71.592987,848.34729,70.973938,84.086426,52.264385,161.869095,1195.632568,94.772476
20309,1648953251.879707,1648953251.909938,114.0,0.0,4204.615234000001,4530.256348,4162.563965,4133.333496,4266.666504,450.0,3.0,73.0,,,,0.0,0.0,0.0,1.0,0.0,0.0,0.0,,,,,,,,57.0,0.0,0.515442,-0.120361,0.084229,0.8442379999999999,0.29395,-0.028808999999999998,-0.977554,0.0064719999999999995,-0.011344,-0.042773,,,,,,,,,,,,,,,,,,,,,,,,,,,,,,,,,,,,,,,,,,,,,,,,,,,,,,,,,,,,,,,,,
20310,1648953251.887521,1648953251.917753,115.0,0.0,4174.358886999999,4716.410156,4368.205078,4112.307617,4132.820313,0.0,3.0,73.0,,,,0.0,0.0,0.0,1.0,0.0,0.0,0.0,,,,,,,,,,,,,,,,,,,,,,,,,,,,,,,,,,,,,,,,,,,,,,,,,,,,,,,,,,,,,,,,,,,,,,,,,,,,,,,,,,,,
20311,1648953251.895336,1648953251.925668,116.0,0.0,4279.487305,4780.512695,4485.641113000001,4280.0,4158.461426,450.0,3.0,73.0,,,,0.0,0.0,0.0,1.0,0.0,0.0,0.0,,,,,,,,58.0,0.0,0.515442,-0.120361,0.084229,0.8442379999999999,0.29102,-0.024903,-0.982925,0.002797,-0.011332,-0.038349,,,,,,,,,,,,,,,,,,,,,,,,,,,,,,,,,,,,,,,,,,,,,,,,,,,,,,,,,,,,,,,,,
20312,1648953251.903151,1648953251.9334831,117.0,0.0,4449.230957,4606.666504,4242.563965,4485.128418,4263.589844,450.0,3.0,73.0,,,,0.0,0.0,0.0,1.0,0.0,0.0,0.0,,,,,,,,,,,,,,,,,,,,,,,,,,,,,,,,,,,,,,,,,,,,,,,,,,,,,,0.0,0.0,32.0,0.078724,1.0,0.0,,,,,,,,,,,,,,,,,,,,,,,,,
20313,1648953251.910965,1648953251.941298,118.0,0.0,4634.358886999999,4529.743652,4169.743652,4586.153809,4381.538574,450.0,3.0,73.0,,,,0.0,0.0,0.0,1.0,0.0,0.0,0.0,,,,,,,,59.0,0.0,0.515442,-0.120361,0.084229,0.8442379999999999,0.305669,-0.02295,-0.9824370000000001,0.002664,-0.011322,-0.04052,,,,,,,,,,,,,,,,,,,,,,,,,,,,,,,,,,,,,,,,,,,,,,,,,,,,,,,,,,,,,,,,,
20314,1648953251.91878,1648953251.9492118,119.0,0.0,4502.563965,4509.230957,4314.358886999999,4440.512695,4366.666504,0.0,3.0,73.0,,,,0.0,0.0,0.0,1.0,0.0,0.0,0.0,,,,,,,,,,,,,,,,,,,,,,,,,,,,,,,,,,,,,,,,,,,,,,,,,,,,,,,,,,,,,,,,,,,,,,,,,,,,,,,,,,,,
20315,1648953251.926594,1648953251.9571269,120.0,0.0,4178.974121,4493.333496,4205.128418,4111.794922,4267.179688,450.0,3.0,73.0,,,,0.0,0.0,0.0,1.0,0.0,0.0,0.0,,,,,,,,60.0,0.0,0.515442,-0.120361,0.084229,0.8442379999999999,0.295415,-0.010254000000000001,-0.9799950000000001,0.002495,-0.011313,-0.036126,,,,,,,,,,,,,,,,,,,,,,,,,,,,,,,,,,,,,,,,,,,,,,,,,,,,,,,,,,,,,,,,,
20316,1648953251.934409,1648953251.964942,121.0,0.0,4098.461426,4648.205078,4275.897461,4038.461426,4389.743652,450.0,3.0,73.0,,,,0.0,0.0,0.0,1.0,0.0,0.0,0.0,,,,,,,,,,,,,,,,,,,,,,,,,,,,,,,,,,,,,,,,,,,,,,,,,,,,,,0.0,0.0,32.0,0.078724,1.0,0.0,,,,,,,,,,,,,,,,,,,,,,,,,
