,Timestamp,OriginalTimestamp,EEG.Counter,EEG.Interpolated,EEG.AF3,EEG.T7,EEG.Pz,EEG.T8,EEG.AF4,EEG.RawCq,EEG.Battery,EEG.BatteryPercent,MarkerIndex,MarkerType,MarkerValueInt,EEG.MarkerHardware,CQ.AF3,CQ.T7,CQ.Pz,CQ.T8,CQ.AF4,CQ.Overall,EQ.SampleRateQuality,EQ.OVERALL,EQ.AF3,EQ.T7,EQ.Pz,EQ.T8,EQ.AF4,MOT.CounterMems,MOT.InterpolatedMems,MOT.Q0,MOT.Q1,MOT.Q2,MOT.Q3,MOT.AccX,MOT.AccY,MOT.AccZ,MOT.MagX,MOT.MagY,MOT.MagZ,MC.Action,MC.ActionPower,MC.IsActive,PM.Engagement.IsActive,PM.Engagement.Scaled,PM.Engagement.Raw,PM.Engagement.Min,PM.Engagement.Max,PM.Excitement.IsActive,PM.Excitement.Scaled,PM.Excitement.Raw,PM.Excitement.Min,PM.Excitement.Max,PM.LongTermExcitement,PM.Stress.IsActive,PM.Stress.Scaled,PM.Stress.Raw,PM.Stress.Min,PM.Stress.Max,PM.Relaxation.IsActive,PM.Relaxation.Scaled,PM.Relaxation.Raw,PM.Relaxation.Min,PM.Relaxation.Max,PM.Interest.IsActive,PM.Interest.Scaled,PM.Interest.Raw,PM.Interest.Min,PM.Interest.Max,PM.Focus.IsActive,PM.Focus.Scaled,PM.Focus.Raw,PM.Focus.Min,PM.Focus.Max,FE.BlinkWink,FE.HorizontalEyesDirection,FE.UpperFaceAction,FE.UpperFaceActionPower,FE.LowerFaceAction,FE.LowerFaceActionPower,POW.AF3.Theta,POW.AF3.Alpha,POW.AF3.BetaL,POW.AF3.BetaH,POW.AF3.Gamma,POW.T7.Theta,POW.T7.Alpha,POW.T7.BetaL,POW.T7.BetaH,POW.T7.Gamma,POW.Pz.Theta,POW.Pz.Alpha,POW.Pz.BetaL,POW.Pz.BetaH,POW.Pz.Gamma,POW.T8.Theta,POW.T8.Alpha,POW.T8.BetaL,POW.T8.BetaH,POW.T8.Gamma,POW.AF4.Theta,POW.AF4.Alpha,POW.AF4.BetaL,POW.AF4.BetaH,POW.AF4.Gamma
43826,1645902732.94124,1645902732.941663,22.0,0.0,4423.589844,4550.256348,4163.077147999999,4165.128418,4268.205078,0.0,1.0,15.0,,,,0.0,4.0,4.0,0.0,4.0,4.0,66.666664,1.0,25.0,3.0,1.0,0.0,2.0,3.0,11.0,0.0,0.712553,0.033447000000000005,0.673828,0.192627,0.9463030000000001,-0.324712,-0.098634,-0.029748,-0.030345,-0.014997,1.0,0.0,0.0,,,,,,,,,,,,,,,,,,,,,,,,,,,,,,,,0.0,0.0,1.0,0.0,512.0,0.479599,4.1769,4.641682,8.36937,2.21572,2.4855150000000004,32.906612,36.44249,34.725227000000004,18.462894,13.58056,44.330376,38.737495,31.797649,14.555984,14.571662,15.631129999999999,7.60894,7.077732000000001,4.498349,3.8190760000000004,3.4415730000000004,5.402843,4.156219,3.2982720000000003,2.579971
43827,1645902732.9490552,1645902732.949478,23.0,0.0,4388.717772999999,4498.974121,4111.794922,4140.0,4267.692383,0.0,1.0,15.0,,,,0.0,4.0,4.0,0.0,4.0,4.0,66.666664,,,,,,,,,,,,,,,,,,,,,,,,,,,,,,,,,,,,,,,,,,,,,,,,,,,,,,,,,,,,,,,,,,,,,,,,,,,,,,,,,,,,
43828,1645902732.956869,1645902732.957292,24.0,0.0,4397.94873,4417.94873,4203.589844,4141.538574,4261.538574,0.0,1.0,15.0,,,,0.0,4.0,4.0,0.0,4.0,4.0,66.666664,,,,,,,,12.0,0.0,0.7127720000000001,0.033691000000000006,0.673584,0.192627,0.953628,-0.318364,-0.092775,-0.029947,-0.030386,-0.012618,,,,,,,,,,,,,,,,,,,,,,,,,,,,,,,,,,,,,,,,,,,,,,,,,,,,,,,,,,,,,,,,,
43829,1645902732.964684,1645902732.965107,25.0,0.0,4414.871582,4453.333496,4259.487305,4170.769043,4267.692383,0.0,1.0,15.0,,,,0.0,4.0,4.0,0.0,4.0,4.0,66.666664,,,,,,,,,,,,,,,,,,,,,,,,,,,,,,,,,,,,,,,,,,,,,,,,,,,,,,,,,,,,,,,,,,,,,,,,,,,,,,,,,,,,
43830,1645902732.9724991,1645902732.972922,26.0,0.0,4397.436035,4546.153809,4210.769043,4156.922852000001,4261.025879,0.0,1.0,15.0,,,,0.0,4.0,4.0,0.0,4.0,4.0,66.666664,,,,,,,,13.0,0.0,0.712827,0.033936,0.673584,0.192383,0.9472799999999999,-0.303227,-0.092775,-0.030175,-0.030375,-0.0137,,,,,,,,,,,,,,,,,,,,,,,,,,,,,,,,,,,0.0,0.0,1.0,0.0,512.0,0.479599,,,,,,,,,,,,,,,,,,,,,,,,,
43831,1645902732.980313,1645902732.980736,27.0,0.0,4401.538574,4502.05127,4165.128418,4129.230957,4257.94873,0.0,1.0,15.0,,,,0.0,4.0,4.0,0.0,4.0,4.0,66.666664,,,,,,,,,,,,,,,,,,,,,,,,,,,,,,,,,,,,,,,,,,,,,,,,,,,,,,,,,,,,,,,,,,,,,,,,,,,,,,,,,,,,
43832,1645902732.988128,1645902732.988551,28.0,0.0,4404.102539,4434.358886999999,4201.538574,4115.897461,4262.563965,0.0,1.0,15.0,,,,0.0,4.0,4.0,0.0,4.0,4.0,66.666664,,,,,,,,14.0,0.0,0.712827,0.033936,0.673584,0.192383,0.945815,-0.309575,-0.093751,-0.030429,-0.030463,-0.014674000000000001,,,,,,,,,,,,,,,,,,,,,,,,,,,,,,,,,,,,,,,,,,,,,,,,,,,,,,,,,,,,,,,,,
43833,1645902732.9959419,1645902732.9962661,29.0,0.0,4375.384765999999,4488.205078,4231.794922,4130.769043,4252.820313,0.0,1.0,15.0,,,,0.0,4.0,4.0,0.0,4.0,4.0,66.666664,,,,,,,,,,,,,,,,,,,,,,,,,,,,,,,,,,,,,,,,,,,,,,,,,,,,,,,,,,,,,,,,,,,,,,,,,,,,,,,,,,,,
43834,1645902733.003757,1645902733.00408,30.0,0.0,4364.615234000001,4508.205078,4200.512695,4151.794922,4235.384765999999,0.0,1.0,15.0,,,,0.0,4.0,4.0,0.0,4.0,4.0,66.666664,,,,,,,,15.0,0.0,0.713046,0.03418,0.6733399999999999,0.192383,0.95021,-0.327153,-0.098634,-0.030511,-0.030493,-0.012425,,,,,,,,,,,,,,,,,,,,,,,,,,,,,,,,,,,0.0,0.0,1.0,0.0,512.0,0.479599,,,,,,,,,,,,,,,,,,,,,,,,,
43835,1645902733.0115712,1645902733.011895,31.0,0.0,4417.94873,4482.563965,4130.256348,4174.358886999999,4248.717772999999,0.0,1.0,15.0,,,,0.0,4.0,4.0,0.0,4.0,4.0,66.666664,,,,,,,,,,,,,,,,,,,,,,,,,,,,,,,,,,,,,,,,,,,,,,,,,,,,,,,,,,,,,,,,,,,,,,,,,,,,,,,,,,,,
43836,1645902733.019386,1645902733.01971,32.0,0.0,4426.153809,4446.666504,4124.615234000001,4176.410156,4253.333496,0.0,1.0,15.0,,,,0.0,4.0,4.0,0.0,4.0,4.0,66.666664,,,,,,,,16.0,0.0,0.7131109999999999,0.03418,0.6733399999999999,0.192139,0.9506979999999999,-0.298833,-0.10351700000000001,-0.030781,-0.030666000000000002,-0.010548,,,,,,,,,,,,,,,,,,,,,,,,,,,,,,,,,,,,,,,,,,,,,,,,,,,,,,,,,,,,,,,,,
43837,1645902733.027201,1645902733.027524,33.0,0.0,4390.256348,4384.102539,4130.256348,4196.410156,4260.0,0.0,1.0,15.0,,,,0.0,4.0,4.0,0.0,4.0,4.0,66.666664,,,,,,,,,,,,,,,,,,,,,,,,,,,,,,,,,,,,,,,,,,,,,,,,,,,,,,,,,,,,,,,,,,,,,,,,,,,,,,,,,,,,
43838,1645902733.035015,1645902733.035339,34.0,0.0,4406.153809,4383.589844,4105.641113000001,4203.589844,4268.717772999999,0.0,1.0,15.0,,,,0.0,4.0,4.0,0.0,4.0,4.0,66.666664,,,,,,,,17.0,0.0,0.7131109999999999,0.03418,0.6733399999999999,0.192139,0.94435,-0.299809,-0.101564,-0.030925,-0.030577999999999998,-0.011837,,,,,,,,,,,,,,,,,,,,,,,,,,,,,,,,,,,0.0,0.0,1.0,0.0,512.0,0.479599,,,,,,,,,,,,,,,,,,,,,,,,,
43839,1645902733.04283,1645902733.043154,35.0,0.0,4426.666504,4443.589844,4190.769043,4168.205078,4261.025879,0.0,1.0,15.0,,,,0.0,4.0,4.0,0.0,4.0,4.0,66.666664,,,,,,,,,,,,,,,,,,,,,,,,,,,,,,,,,,,,,,,,,,,,,,,,,,,,,,,,,,,,,,,,,,,,,,,,,,,,,,,,,,,,
43840,1645902733.050644,1645902733.050968,36.0,0.0,4400.0,4431.794922,4249.743652,4129.743652,4258.461426,0.0,1.0,15.0,,,,0.0,4.0,4.0,0.0,4.0,4.0,66.666664,,,,,,,,18.0,0.0,0.713046,0.03418,0.6733399999999999,0.192383,0.948257,-0.30518,-0.08838,-0.031055000000000003,-0.030595999999999998,-0.0129,,,,,,,,,,,,,,,,,,,,,,,,,,,,,,,,,,,,,,,,,,,,,,,,,,,,,,,,,,,,,,,,,
43841,1645902733.058459,1645902733.058783,37.0,0.0,4394.358886999999,4386.153809,4200.0,4108.205078,4259.487305,0.0,1.0,15.0,,,,0.0,4.0,4.0,0.0,4.0,4.0,66.666664,,,,,,,,,,,,,,,,,,,,,,,,,,,,,,,,,,,,,,,,,,,,,,,,,,,,,,,,,,,,,,,,,,,,,,,,,,,,,,,,,,,,
43842,1645902733.066273,1645902733.066498,38.0,0.0,4429.743652,4402.563965,4153.846191,4112.820313,4248.205078,0.0,1.0,15.0,,,,0.0,4.0,4.0,0.0,4.0,4.0,66.666664,,,,,,,,19.0,0.0,0.713354,0.033936,0.673096,0.192139,0.95314,-0.323247,-0.092775,-0.031319,-0.030612999999999998,-0.014051,1.0,0.0,0.0,,,,,,,,,,,,,,,,,,,,,,,,,,,,,,,,0.0,0.0,1.0,0.0,512.0,0.533479,4.6032589999999995,4.906937,9.726904,2.150001,2.79068,38.325835999999995,45.889728999999996,41.948128000000004,19.224659,15.383507,37.952957,34.234905,32.177067,14.460732,16.748392000000003,18.304853,6.6979940000000004,7.921111,4.376684,3.756707,4.3911940000000005,6.536126,5.237388,3.960383,2.597842
43843,1645902733.074088,1645902733.074312,39.0,0.0,4424.102539,4405.128418,4219.487305,4129.743652,4263.589844,0.0,1.0,15.0,,,,0.0,4.0,4.0,0.0,4.0,4.0,66.666664,,,,,,,,,,,,,,,,,,,,,,,,,,,,,,,,,,,,,,,,,,,,,,,,,,,,,,,,,,,,,,,,,,,,,,,,,,,,,,,,,,,,
43844,1645902733.081902,1645902733.082027,40.0,0.0,4378.974121,4378.461426,4266.153809,4143.589844,4282.563965,0.0,1.0,15.0,,,,0.0,4.0,4.0,0.0,4.0,4.0,66.666664,,,,,,,,20.0,0.0,0.7133649999999999,0.033691000000000006,0.673096,0.192139,0.953628,-0.30811,-0.10888800000000001,-0.031361,-0.030628,-0.011962,,,,,,,,,,,,,,,,,,,,,,,,,,,,,,,,,,,,,,,,,,,,,,,,,,,,,,,,,,,,,,,,,
43845,1645902733.089717,1645902733.089842,41.0,0.0,4375.384765999999,4406.153809,4244.615234000001,4172.307617,4248.717772999999,0.0,1.0,15.0,,,,0.0,4.0,4.0,0.0,4.0,4.0,66.666664,,,,,,,,,,,,,,,,,,,,,,,,,,,,,,,,,,,,,,,,,,,,,,,,,,,,,,,,,,,,,,,,,,,,,,,,,,,,,,,,,,,,
43846,1645902733.097531,1645902733.097656,42.0,0.0,4442.05127,4471.794922,4145.128418,4217.436035,4254.871582,0.0,1.0,15.0,,,,0.0,4.0,4.0,0.0,4.0,4.0,66.666664,,,,,,,,21.0,0.0,0.7133649999999999,0.033691000000000006,0.673096,0.192139,0.968277,-0.323735,-0.100587,-0.028274,-0.030494999999999998,-0.013256,,,,,,,,,,,,,,,,,,,,,,,,,,,,,,,,,,,0.0,0.0,1.0,0.0,512.0,0.533479,,,,,,,,,,,,,,,,,,,,,,,,,
43847,1645902733.1053462,1645902733.1054711,43.0,0.0,4452.820313,4484.615234000001,4152.820313,4200.0,4269.230957,0.0,1.0,15.0,,,,0.0,4.0,4.0,0.0,4.0,4.0,66.666664,,,,,,,,,,,,,,,,,,,,,,,,,,,,,,,,,,,,,,,,,,,,,,,,,,,,,,,,,,,,,,,,,,,,,,,,,,,,,,,,,,,,
43848,1645902733.11316,1645902733.113286,44.0,0.0,4420.512695,4427.692383,4204.102539,4138.461426,4252.307617,0.0,1.0,15.0,,,,0.0,4.0,4.0,0.0,4.0,4.0,66.666664,,,,,,,,22.0,0.0,0.7133649999999999,0.033691000000000006,0.673096,0.192139,0.9702299999999999,-0.309087,-0.093263,-0.02862,-0.030473,-0.014275,,,,,,,,,,,,,,,,,,,,,,,,,,,,,,,,,,,,,,,,,,,,,,,,,,,,,,,,,,,,,,,,,
43849,1645902733.120975,1645902733.1211,45.0,0.0,4420.0,4383.589844,4188.205078,4134.358886999999,4255.897461,0.0,1.0,15.0,,,,0.0,4.0,4.0,0.0,4.0,4.0,66.666664,,,,,,,,,,,,,,,,,,,,,,,,,,,,,,,,,,,,,,,,,,,,,,,,,,,,,,,,,,,,,,,,,,,,,,,,,,,,,,,,,,,,
43850,1645902733.1287901,1645902733.128915,46.0,0.0,4433.333496,4453.333496,4156.922852000001,4153.846191,4287.179688,0.0,1.0,15.0,,,,0.0,4.0,4.0,0.0,4.0,4.0,66.666664,,,,,,,,23.0,0.0,0.713123,0.033936,0.6733399999999999,0.192139,0.965835,-0.306157,-0.095216,-0.028932,-0.030404,-0.015142,,,,,,,,,,,,,,,,,,,,,,,,,,,,,,,,,,,0.0,0.0,1.0,0.0,512.0,0.533479,,,,,,,,,,,,,,,,,,,,,,,,,
43851,1645902733.1366038,1645902733.1367302,47.0,0.0,4415.384765999999,4595.384765999999,4158.974121,4122.05127,4278.461426,0.0,1.0,15.0,,,,0.0,4.0,4.0,0.0,4.0,4.0,66.666664,,,,,,,,,,,,,,,,,,,,,,,,,,,,,,,,,,,,,,,,,,,,,,,,,,,,,,,,,,,,,,,,,,,,,,,,,,,,,,,,,,,,
43852,1645902733.144419,1645902733.144444,48.0,0.0,4396.922852000001,4596.922852000001,4191.282227000001,4128.205078,4266.666504,0.0,1.0,15.0,,,,0.0,4.0,4.0,0.0,4.0,4.0,66.666664,,,,,,,,24.0,0.0,0.713354,0.033936,0.673096,0.192139,0.9423969999999999,-0.318364,-0.099611,-0.029213,-0.030342,-0.012894999999999998,,,,,,,,,,,,,,,,,,,,,,,,,,,,,,,,,,,,,,,,,,,,,,,,,,,,,,,,,,,,,,,,,
43853,1645902733.1522331,1645902733.1522589,49.0,0.0,4390.769043,4494.358886999999,4205.641113000001,4160.512695,4283.589844,0.0,1.0,15.0,,,,0.0,4.0,4.0,0.0,4.0,4.0,66.666664,,,,,,,,,,,,,,,,,,,,,,,,,,,,,,,,,,,,,,,,,,,,,,,,,,,,,,,,,,,,,,,,,,,,,,,,,,,,,,,,,,,,
43854,1645902733.160048,1645902733.159974,50.0,0.0,4395.384765999999,4544.102539,4175.384765999999,4165.128418,4303.589844,0.0,1.0,15.0,,,,0.0,4.0,4.0,0.0,4.0,4.0,66.666664,,,,,,,,25.0,0.0,0.713276,0.03418,0.673096,0.192383,0.957534,-0.316899,-0.088869,-0.029514,-0.030335,-0.010727,,,,,,,,,,,,,,,,,,,,,,,,,,,,,,,,,,,0.0,0.0,1.0,0.0,512.0,0.533479,,,,,,,,,,,,,,,,,,,,,,,,,
43855,1645902733.167862,1645902733.167788,51.0,0.0,4412.820313,4589.743652,4129.743652,4157.94873,4289.230957,0.0,1.0,15.0,,,,0.0,4.0,4.0,0.0,4.0,4.0,66.666664,,,,,,,,,,,,,,,,,,,,,,,,,,,,,,,,,,,,,,,,,,,,,,,,,,,,,,,,,,,,,,,,,,,,,,,,,,,,,,,,,,,,
43856,1645902733.175677,1645902733.175603,52.0,0.0,4425.128418,4463.589844,4160.512695,4148.717772999999,4262.05127,0.0,1.0,15.0,,,,0.0,4.0,4.0,0.0,4.0,4.0,66.666664,,,,,,,,26.0,0.0,0.713046,0.03418,0.6733399999999999,0.192383,0.9506979999999999,-0.303227,-0.092775,-0.029932,-0.030329000000000002,-0.012095999999999999,,,,,,,,,,,,,,,,,,,,,,,,,,,,,,,,,,,,,,,,,,,,,,,,,,,,,,,,,,,,,,,,,
43857,1645902733.183491,1645902733.183418,53.0,0.0,4436.922852000001,4467.179688,4171.794922,4146.153809,4273.333496,0.0,1.0,15.0,,,,0.0,4.0,4.0,0.0,4.0,4.0,66.666664,,,,,,,,,,,,,,,,,,,,,,,,,,,,,,,,,,,,,,,,,,,,,,,,,,,,,,,,,,,,,,,,,,,,,,,,,,,,,,,,,,,,
43858,1645902733.191306,1645902733.191232,54.0,0.0,4468.205078,4641.538574,4178.461426,4163.077147999999,4300.0,0.0,1.0,15.0,,,,0.0,4.0,4.0,0.0,4.0,4.0,66.666664,,,,,,,,27.0,0.0,0.7131109999999999,0.03418,0.6733399999999999,0.192139,0.95314,-0.31104,-0.09668099999999999,-0.03021,-0.030420999999999997,-0.0103,1.0,0.0,0.0,,,,,,,,,,,,,,,,,,,,,,,,,,,,,,,,0.0,0.0,1.0,0.0,512.0,0.578771,5.0531440000000005,4.915644,10.694201,2.196767,3.033348,43.819321,53.335838,48.896103000000004,19.528759,17.534610999999998,32.338276,30.378193,33.502716,15.099838,19.198717000000002,20.933992,6.3318389999999996,9.100883,4.581242,3.704411,5.796879,7.151508,6.035835,4.50478,2.634461
43859,1645902733.1991198,1645902733.199047,55.0,0.0,4473.846191,4637.436035,4174.358886999999,4151.794922,4291.794922,0.0,1.0,15.0,,,,0.0,4.0,4.0,0.0,4.0,4.0,66.666664,,,,,,,,,,,,,,,,,,,,,,,,,,,,,,,,,,,,,,,,,,,,,,,,,,,,,,,,,,,,,,,,,,,,,,,,,,,,,,,,,,,,
43860,1645902733.206935,1645902733.206862,56.0,0.0,4435.384765999999,4502.563965,4207.692383,4136.922852000001,4255.384765999999,0.0,1.0,15.0,,,,0.0,4.0,4.0,0.0,4.0,4.0,66.666664,,,,,,,,28.0,0.0,0.7131109999999999,0.03418,0.6733399999999999,0.192139,0.945327,-0.292973,-0.092775,-0.030313999999999997,-0.030650999999999998,-0.008537999999999999,,,,,,,,,,,,,,,,,,,,,,,,,,,,,,,,,,,,,,,,,,,,,,,,,,,,,,,,,,,,,,,,,
43861,1645902733.21475,1645902733.214776,57.0,0.0,4421.538574,4476.410156,4226.153809,4159.487305,4253.846191,0.0,1.0,15.0,,,,0.0,4.0,4.0,0.0,4.0,4.0,66.666664,,,,,,,,,,,,,,,,,,,,,,,,,,,,,,,,,,,,,,,,,,,,,,,,,,,,,,,,,,,,,,,,,,,,,,,,,,,,,,,,,,,,
43862,1645902733.222564,1645902733.222591,58.0,0.0,4438.461426,4518.461426,4224.102539,4151.282227000001,4284.102539,0.0,1.0,15.0,,,,0.0,4.0,4.0,0.0,4.0,4.0,66.666664,,,,,,,,29.0,0.0,0.713342,0.03418,0.673096,0.192139,0.9550930000000001,-0.307134,-0.09668099999999999,-0.030652,-0.030612999999999998,-0.010125,,,,,,,,,,,,,,,,,,,,,,,,,,,,,,,,,,,0.0,0.0,1.0,0.0,512.0,0.578771,,,,,,,,,,,,,,,,,,,,,,,,,
43863,1645902733.2303789,1645902733.230405,59.0,0.0,4442.563965,4557.436035,4181.538574,4145.128418,4317.94873,0.0,1.0,15.0,,,,0.0,4.0,4.0,0.0,4.0,4.0,66.666664,,,,,,,,,,,,,,,,,,,,,,,,,,,,,,,,,,,,,,,,,,,,,,,,,,,,,,,,,,,,,,,,,,,,,,,,,,,,,,,,,,,,
43864,1645902733.238193,1645902733.23822,60.0,0.0,4396.922852000001,4592.307617,4159.487305,4158.461426,4303.077147999999,0.0,1.0,15.0,,,,0.0,4.0,4.0,0.0,4.0,4.0,66.666664,,,,,,,,30.0,0.0,0.713354,0.033936,0.673096,0.192139,0.95314,-0.31543499999999997,-0.093263,-0.030761,-0.030726,-0.011359000000000001,,,,,,,,,,,,,,,,,,,,,,,,,,,,,,,,,,,,,,,,,,,,,,,,,,,,,,,,,,,,,,,,,
43865,1645902733.246008,1645902733.2460349,61.0,0.0,4379.487305,4578.974121,4145.641113000001,4155.897461,4260.512695,0.0,1.0,15.0,,,,0.0,4.0,4.0,0.0,4.0,4.0,66.666664,,,,,,,,,,,,,,,,,,,,,,,,,,,,,,,,,,,,,,,,,,,,,,,,,,,,,,,,,,,,,,,,,,,,,,,,,,,,,,,,,,,,
43866,1645902733.253822,1645902733.253849,62.0,0.0,4393.333496,4526.666504,4140.512695,4173.846191,4248.717772999999,0.0,1.0,15.0,,,,0.0,4.0,4.0,0.0,4.0,4.0,66.666664,,,,,,,,31.0,0.0,0.713354,0.033936,0.673096,0.192139,0.95021,-0.311528,-0.09472799999999999,-0.030858999999999998,-0.030777999999999996,-0.009393,,,,,,,,,,,,,,,,,,,,,,,,,,,,,,,,,,,0.0,0.0,1.0,0.0,512.0,0.578771,,,,,,,,,,,,,,,,,,,,,,,,,
43867,1645902733.261637,1645902733.2616642,63.0,0.0,4417.436035,4508.205078,4109.230957,4213.846191,4280.512695,0.0,1.0,15.0,,,,0.0,4.0,4.0,0.0,4.0,4.0,66.666664,,,,,,,,,,,,,,,,,,,,,,,,,,,,,,,,,,,,,,,,,,,,,,,,,,,,,,,,,,,,,,,,,,,,,,,,,,,,,,,,,,,,
43868,1645902733.2694519,1645902733.2694788,64.0,0.0,4413.333496,4487.179688,4096.922852000001,4175.384765999999,4277.94873,450.0,1.0,15.0,,,,0.0,4.0,4.0,0.0,4.0,4.0,66.666664,,,,,,,,32.0,0.0,0.7134189999999999,0.033936,0.673096,0.191895,0.9594870000000001,-0.31299299999999997,-0.09472799999999999,-0.031044,-0.030728,-0.010944,,,,,,,,,,,,,,,,,,,,,,,,,,,,,,,,,,,,,,,,,,,,,,,,,,,,,,,,,,,,,,,,,
43869,1645902733.277266,1645902733.277293,65.0,0.0,4403.589844,4536.922852000001,4201.025879,4147.179688,4271.282227000001,450.0,1.0,15.0,,,,0.0,4.0,4.0,0.0,4.0,4.0,66.666664,,,,,,,,,,,,,,,,,,,,,,,,,,,,,,,,,,,,,,,,,,,,,,,,,,,,,,,,,,,,,,,,,,,,,,,,,,,,,,,,,,,,
43870,1645902733.2850811,1645902733.285108,66.0,0.0,4403.077147999999,4580.0,4276.410156,4167.692383,4301.025879,16255.0,1.0,15.0,,,,0.0,4.0,4.0,0.0,4.0,4.0,66.666664,,,,,,,,33.0,0.0,0.7134189999999999,0.033936,0.673096,0.191895,0.9633940000000001,-0.300786,-0.099611,-0.031114,-0.030780000000000002,-0.012193,,,,,,,,,,,,,,,,,,,,,,,,,,,,,,,,,,,0.0,0.0,1.0,0.0,512.0,0.578771,,,,,,,,,,,,,,,,,,,,,,,,,
43871,1645902733.2928948,1645902733.292823,67.0,0.0,4406.153809,4516.922852000001,4163.077147999999,4178.974121,4317.94873,450.0,1.0,15.0,,,,0.0,4.0,2.0,0.0,4.0,4.0,50.0,,,,,,,,,,,,,,,,,,,,,,,,,,,,,,,,,,,,,,,,,,,,,,,,,,,,,,,,,,,,,,,,,,,,,,,,,,,,,,,,,,,,
43872,1645902733.30071,1645902733.300637,68.0,0.0,4425.641113000001,4509.230957,4043.5898439999996,4167.692383,4289.230957,224.0,1.0,15.0,,,,0.0,4.0,2.0,0.0,4.0,4.0,50.0,,,,,,,,34.0,0.0,0.713408,0.03418,0.673096,0.191895,0.9594870000000001,-0.310552,-0.103029,-0.031225,-0.030777999999999996,-0.013366999999999999,,,,,,,,,,,,,,,,,,,,,,,,,,,,,,,,,,,,,,,,,,,,,,,,,,,,,,,,,,,,,,,,,
43873,1645902733.3085241,1645902733.308452,69.0,0.0,4430.769043,4598.461426,4149.230957,4146.153809,4278.974121,450.0,1.0,15.0,,,,0.0,4.0,2.0,0.0,4.0,4.0,50.0,,,,,,,,,,,,,,,,,,,,,,,,,,,,,,,,,,,,,,,,,,,,,,,,,,,,,,,,,,,,,,,,,,,,,,,,,,,,,,,,,,,,
43874,1645902733.316339,1645902733.316267,70.0,0.0,4415.897461,4584.615234000001,4217.94873,4134.358886999999,4298.974121,0.0,1.0,15.0,,,,0.0,4.0,2.0,0.0,4.0,4.0,50.0,,,,,,,,35.0,0.0,0.713638,0.03418,0.672852,0.191895,0.948257,-0.31250500000000003,-0.10351700000000001,-0.031276,-0.030679,-0.014374000000000001,1.0,0.0,0.0,,,,,,,,,,,,,,,,,,,,,,,,,,,,,,,,0.0,0.0,1.0,0.0,512.0,0.514664,5.391788,4.659525,11.324614,2.387885,3.164059,48.249725,56.53433199999999,54.456017,19.05859,19.56321,27.899481,27.496060999999997,36.455729999999996,15.733619000000001,21.517329999999998,22.794025,6.486088,10.482907,5.042872,3.6262849999999998,7.501632000000001,7.0176929999999995,6.326321,4.763046,2.696564
43875,1645902733.324153,1645902733.324081,71.0,0.0,4409.743652,4499.487305,4192.820313,4149.743652,4294.871582,450.0,1.0,15.0,,,,0.0,4.0,2.0,0.0,4.0,4.0,50.0,,,,,,,,,,,,,,,,,,,,,,,,,,,,,,,,,,,,,,,,,,,,,,,,,,,,,,,,,,,,,,,,,,,,,,,,,,,,,,,,,,,,
43876,1645902733.331968,1645902733.331896,72.0,0.0,4413.333496,4502.563965,4185.128418,4176.410156,4280.512695,450.0,1.0,15.0,,,,0.0,4.0,2.0,0.0,4.0,4.0,50.0,,,,,,,,36.0,0.0,0.713638,0.03418,0.672852,0.191895,0.945815,-0.321294,-0.090822,-0.031323000000000004,-0.030541000000000002,-0.012155,,,,,,,,,,,,,,,,,,,,,,,,,,,,,,,,,,,,,,,,,,,,,,,,,,,,,,,,,,,,,,,,,
43877,1645902733.339782,1645902733.339711,73.0,0.0,4415.384765999999,4498.974121,4205.641113000001,4182.563965,4288.717772999999,289.0,1.0,15.0,,,,0.0,4.0,2.0,0.0,4.0,4.0,50.0,,,,,,,,,,,,,,,,,,,,,,,,,,,,,,,,,,,,,,,,,,,,,,,,,,,,,,,,,,,,,,,,,,,,,,,,,,,,,,,,,,,,
43878,1645902733.3475971,1645902733.347525,74.0,0.0,4431.794922,4496.922852000001,4134.871582,4157.436035,4327.179688,450.0,1.0,15.0,,,,0.0,4.0,2.0,0.0,4.0,4.0,50.0,,,,,,,,37.0,0.0,0.713408,0.03418,0.673096,0.191895,0.9594870000000001,-0.310552,-0.103029,-0.031363999999999996,-0.030514,-0.010206999999999999,,,,,,,,,,,,,,,,,,,,,,,,,,,,,,,,,,,0.0,0.0,1.0,0.0,512.0,0.514664,,,,,,,,,,,,,,,,,,,,,,,,,
43879,1645902733.355411,1645902733.35534,75.0,0.0,4425.641113000001,4537.94873,4140.0,4115.384765999999,4330.769043,16121.0,1.0,15.0,,,,0.0,4.0,2.0,0.0,4.0,4.0,50.0,,,,,,,,,,,,,,,,,,,,,,,,,,,,,,,,,,,,,,,,,,,,,,,,,,,,,,,,,,,,,,,,,,,,,,,,,,,,,,,,,,,,
43880,1645902733.363226,1645902733.363055,76.0,0.0,4414.871582,4541.538574,4226.153809,4136.410156,4312.307617,450.0,1.0,15.0,,,,0.0,4.0,2.0,0.0,4.0,4.0,50.0,,,,,,,,38.0,0.0,0.713638,0.03418,0.672852,0.191895,0.945815,-0.321294,-0.090822,-0.031402,-0.030392000000000002,-0.008405,,,,,,,,,,,,,,,,,,,,,,,,,,,,,,,,,,,,,,,,,,,,,,,,,,,,,,,,,,,,,,,,,
43881,1645902733.37104,1645902733.370869,77.0,0.0,4423.077147999999,4485.128418,4211.794922,4196.922852000001,4291.794922,450.0,1.0,15.0,,,,0.0,4.0,2.0,0.0,4.0,4.0,50.0,,,,,,,,,,,,,,,,,,,,,,,,,,,,,,,,,,,,,,,,,,,,,,,,,,,,,,,,,,,,,,,,,,,,,,,,,,,,,,,,,,,,
43882,1645902733.378855,1645902733.378684,78.0,0.0,4452.307617,4492.307617,4075.384521,4195.897461,4291.282227000001,450.0,1.0,15.0,,,,0.0,4.0,2.0,0.0,4.0,4.0,50.0,,,,,,,,39.0,0.0,0.713638,0.03418,0.672852,0.191895,0.944839,-0.299809,-0.09472799999999999,-0.031435000000000005,-0.030381000000000002,-0.0068319999999999995,,,,,,,,,,,,,,,,,,,,,,,,,,,,,,,,,,,0.0,0.0,1.0,0.0,512.0,0.514664,,,,,,,,,,,,,,,,,,,,,,,,,
43883,1645902733.3866699,1645902733.386498,79.0,0.0,4450.256348,4597.94873,4042.5642090000006,4154.871582,4295.384765999999,16121.0,1.0,15.0,,,,0.0,4.0,2.0,0.0,4.0,4.0,50.0,,,,,,,,,,,,,,,,,,,,,,,,,,,,,,,,,,,,,,,,,,,,,,,,,,,,,,,,,,,,,,,,,,,,,,,,,,,,,,,,,,,,
43884,1645902733.394484,1645902733.394313,80.0,0.0,4418.461426,4623.077147999999,4210.256348,4147.692383,4288.717772999999,450.0,1.0,15.0,,,,0.0,4.0,2.0,0.0,4.0,4.0,50.0,,,,,,,,40.0,0.0,0.713572,0.03418,0.672852,0.192139,0.941421,-0.307622,-0.104005,-0.031417,-0.030418999999999998,-0.008395,,,,,,,,,,,,,,,,,,,,,,,,,,,,,,,,,,,,,,,,,,,,,,,,,,,,,,,,,,,,,,,,,
43885,1645902733.402299,1645902733.402128,81.0,0.0,4382.05127,4558.974121,4307.692383,4138.461426,4256.410156,450.0,1.0,15.0,,,,0.0,4.0,2.0,0.0,4.0,4.0,50.0,,,,,,,,,,,,,,,,,,,,,,,,,,,,,,,,,,,,,,,,,,,,,,,,,,,,,,,,,,,,,,,,,,,,,,,,,,,,,,,,,,,,
43886,1645902733.410113,1645902733.409942,82.0,0.0,4386.666504,4551.794922,4178.974121,4137.94873,4244.102539,450.0,1.0,15.0,,,,0.0,4.0,2.0,0.0,4.0,4.0,50.0,,,,,,,,41.0,0.0,0.713572,0.03418,0.672852,0.192139,0.963882,-0.30811,-0.099123,-0.031547000000000006,-0.030404,-0.009802,,,,,,,,,,,,,,,,,,,,,,,,,,,,,,,,,,,0.0,0.0,1.0,0.0,512.0,0.514664,,,,,,,,,,,,,,,,,,,,,,,,,
43887,1645902733.417928,1645902733.417757,83.0,0.0,4397.94873,4527.692383,4091.281982,4142.563965,4245.128418,16121.0,1.0,15.0,,,,0.0,4.0,2.0,0.0,4.0,4.0,50.0,,,,,,,,,,,,,,,,,,,,,,,,,,,,,,,,,,,,,,,,,,,,,,,,,,,,,,,,,,,,,,,,,,,,,,,,,,,,,,,,,,,,
43888,1645902733.425742,1645902733.4255722,84.0,0.0,4387.179688,4504.102539,4197.94873,4129.743652,4231.282227000001,450.0,1.0,15.0,,,,0.0,4.0,2.0,0.0,4.0,4.0,50.0,,,,,,,,42.0,0.0,0.7135060000000001,0.03418,0.672852,0.192383,0.956558,-0.303227,-0.09033300000000001,-0.031517,-0.030489,-0.008089,,,,,,,,,,,,,,,,,,,,,,,,,,,,,,,,,,,,,,,,,,,,,,,,,,,,,,,,,,,,,,,,,
43889,1645902733.433557,1645902733.433486,85.0,0.0,4396.410156,4594.871582,4236.410156,4108.205078,4241.025879,450.0,1.0,15.0,,,,0.0,4.0,2.0,0.0,4.0,4.0,50.0,,,,,,,,,,,,,,,,,,,,,,,,,,,,,,,,,,,,,,,,,,,,,,,,,,,,,,,,,,,,,,,,,,,,,,,,,,,,,,,,,,,,
43890,1645902733.4413722,1645902733.4413009,86.0,0.0,4401.025879,4654.871582,4201.538574,4146.666504,4270.769043,450.0,1.0,15.0,,,,0.0,4.0,2.0,0.0,4.0,4.0,50.0,1.0,25.0,3.0,1.0,0.0,2.0,3.0,43.0,0.0,0.7135060000000001,0.03418,0.672852,0.192383,0.9463030000000001,-0.321294,-0.085939,-0.031539,-0.030565,-0.0064010000000000004,1.0,0.0,0.0,,,,,,,,,,,,,,,,,,,,,,,,,,,,,,,,0.0,0.0,1.0,0.0,512.0,0.466688,5.511437,4.27909,11.790412,2.711144,3.18485,51.643459,54.785698,57.636596999999995,18.025377,21.236397,24.798942999999998,25.674482,40.930126,15.542567000000002,23.328285,23.113728,7.142794,12.042075,5.561534,3.5234349999999997,9.252733000000001,6.153427,6.029234,4.652496,2.773299
43891,1645902733.4491858,1645902733.449116,87.0,0.0,4384.102539,4610.769043,4203.077147999999,4182.05127,4268.205078,16121.0,1.0,15.0,,,,0.0,4.0,2.0,0.0,4.0,4.0,50.0,,,,,,,,,,,,,,,,,,,,,,,,,,,,,,,,,,,,,,,,,,,,,,,,,,,,,,,,,,,,,,,,,,,,,,,,,,,,,,,,,,,,
43892,1645902733.457001,1645902733.4569302,88.0,0.0,4386.666504,4609.743652,4220.512695,4139.487305,4245.128418,450.0,1.0,15.0,,,,0.0,4.0,2.0,0.0,4.0,4.0,50.0,,,,,,,,44.0,0.0,0.7135060000000001,0.03418,0.672852,0.192383,0.948257,-0.321782,-0.10498199999999999,-0.031657,-0.030487,-0.008203,,,,,,,,,,,,,,,,,,,,,,,,,,,,,,,,,,,,,,,,,,,,,,,,,,,,,,,,,,,,,,,,,
43893,1645902733.4648151,1645902733.4647448,89.0,0.0,4415.897461,4614.871582,4127.179688,4112.820313,4253.333496,450.0,1.0,15.0,,,,0.0,4.0,2.0,0.0,4.0,4.0,50.0,,,,,,,,,,,,,,,,,,,,,,,,,,,,,,,,,,,,,,,,,,,,,,,,,,,,,,,,,,,,,,,,,,,,,,,,,,,,,,,,,,,,
43894,1645902733.47263,1645902733.47256,90.0,0.0,4414.871582,4584.102539,4118.461426,4142.563965,4266.666504,450.0,1.0,15.0,,,,0.0,4.0,2.0,0.0,4.0,4.0,50.0,,,,,,,,45.0,0.0,0.713725,0.034424,0.672607,0.192383,0.9555809999999999,-0.316899,-0.10351700000000001,-0.031519,-0.030466000000000003,-0.009824,,,,,,,,,,,,,,,,,,,,,,,,,,,,,,,,,,,0.0,0.0,1.0,0.0,512.0,0.466688,,,,,,,,,,,,,,,,,,,,,,,,,
43895,1645902733.480444,1645902733.480374,91.0,0.0,4398.461426,4598.974121,4239.487305,4163.077147999999,4274.871582,16121.0,1.0,15.0,,,,0.0,4.0,2.0,0.0,4.0,4.0,50.0,,,,,,,,,,,,,,,,,,,,,,,,,,,,,,,,,,,,,,,,,,,,,,,,,,,,,,,,,,,,,,,,,,,,,,,,,,,,,,,,,,,,
43896,1645902733.488259,1645902733.488189,92.0,0.0,4398.461426,4552.820313,4271.794922,4149.743652,4276.410156,450.0,1.0,15.0,,,,0.0,4.0,2.0,0.0,4.0,4.0,50.0,,,,,,,,46.0,0.0,0.713725,0.034424,0.672607,0.192383,0.957534,-0.313481,-0.10009900000000001,-0.031638,-0.030398,-0.008011,,,,,,,,,,,,,,,,,,,,,,,,,,,,,,,,,,,,,,,,,,,,,,,,,,,,,,,,,,,,,,,,,
43897,1645902733.496073,1645902733.496003,93.0,0.0,4443.077147999999,4472.307617,4106.153809,4163.077147999999,4295.897461,450.0,1.0,15.0,,,,0.0,4.0,2.0,0.0,4.0,4.0,50.0,,,,,,,,,,,,,,,,,,,,,,,,,,,,,,,,,,,,,,,,,,,,,,,,,,,,,,,,,,,,,,,,,,,,,,,,,,,,,,,,,,,,
43898,1645902733.5038881,1645902733.503818,94.0,0.0,4464.102539,4530.769043,4068.718018,4179.487305,4309.743652,450.0,1.0,15.0,,,,0.0,4.0,2.0,0.0,4.0,4.0,50.0,,,,,,,,47.0,0.0,0.713725,0.034424,0.672607,0.192383,0.957534,-0.308598,-0.09424,-0.031697,-0.030385000000000002,-0.009603,,,,,,,,,,,,,,,,,,,,,,,,,,,,,,,,,,,0.0,0.0,1.0,0.0,512.0,0.466688,,,,,,,,,,,,,,,,,,,,,,,,,
43899,1645902733.511702,1645902733.511533,95.0,0.0,4428.717772999999,4585.128418,4219.487305,4172.307617,4311.794922,16121.0,1.0,15.0,,,,0.0,4.0,2.0,0.0,4.0,4.0,50.0,,,,,,,,,,,,,,,,,,,,,,,,,,,,,,,,,,,,,,,,,,,,,,,,,,,,,,,,,,,,,,,,,,,,,,,,,,,,,,,,,,,,
43900,1645902733.519517,1645902733.519347,96.0,0.0,4381.538574,4503.077147999999,4260.512695,4136.922852000001,4300.0,450.0,1.0,15.0,,,,0.0,4.0,2.0,0.0,4.0,4.0,50.0,,,,,,,,48.0,0.0,0.713713,0.034668,0.672607,0.192383,0.95314,-0.300786,-0.10009900000000001,-0.031799,-0.030227999999999998,-0.007764,,,,,,,,,,,,,,,,,,,,,,,,,,,,,,,,,,,,,,,,,,,,,,,,,,,,,,,,,,,,,,,,,
43901,1645902733.527331,1645902733.5271618,97.0,0.0,4386.666504,4443.589844,4176.410156,4138.974121,4294.358886999999,450.0,1.0,15.0,,,,0.0,4.0,2.0,0.0,4.0,4.0,50.0,,,,,,,,,,,,,,,,,,,,,,,,,,,,,,,,,,,,,,,,,,,,,,,,,,,,,,,,,,,,,,,,,,,,,,,,,,,,,,,,,,,,
43902,1645902733.535146,1645902733.534977,98.0,0.0,4400.512695,4454.358886999999,4146.153809,4170.256348,4277.436035,450.0,1.0,15.0,,,,0.0,4.0,2.0,0.0,4.0,4.0,50.0,,,,,,,,49.0,0.0,0.713647,0.034668,0.672607,0.192627,0.94435,-0.30225100000000005,-0.087892,-0.031842,-0.030135000000000002,-0.00938,,,,,,,,,,,,,,,,,,,,,,,,,,,,,,,,,,,0.0,0.0,1.0,0.0,512.0,0.466688,,,,,,,,,,,,,,,,,,,,,,,,,
43903,1645902733.542961,1645902733.5427911,99.0,0.0,4389.743652,4462.05127,4192.307617,4152.820313,4262.563965,16121.0,1.0,15.0,,,,0.0,4.0,2.0,0.0,4.0,4.0,50.0,,,,,,,,,,,,,,,,,,,,,,,,,,,,,,,,,,,,,,,,,,,,,,,,,,,,,,,,,,,,,,,,,,,,,,,,,,,,,,,,,,,,
43904,1645902733.550775,1645902733.550606,100.0,0.0,4393.846191,4482.563965,4197.436035,4108.205078,4278.974121,450.0,1.0,15.0,,,,0.0,4.0,2.0,0.0,4.0,4.0,50.0,,,,,,,,50.0,0.0,0.713659,0.034424,0.672607,0.192627,0.9560690000000001,-0.30518,-0.10009900000000001,-0.031866000000000005,-0.030122000000000003,-0.009019,,,,,,,,,,,,,,,,,,,,,,,,,,,,,,,,,,,,,,,,,,,,,,,,,,,,,,,,,,,,,,,,,
43905,1645902733.55859,1645902733.5584211,101.0,0.0,4402.563965,4530.256348,4216.922852000001,4137.94873,4299.487305,450.0,1.0,15.0,,,,0.0,4.0,2.0,0.0,4.0,4.0,50.0,,,,,,,,,,,,,,,,,,,,,,,,,,,,,,,,,,,,,,,,,,,,,,,,,,,,,,,,,,,,,,,,,,,,,,,,,,,,,,,,,,,,
43906,1645902733.5664039,1645902733.566235,102.0,0.0,4401.025879,4500.512695,4233.333496,4193.333496,4286.666504,450.0,1.0,15.0,,,,0.0,4.0,2.0,0.0,4.0,4.0,50.0,,,,,,,,51.0,0.0,0.713593,0.034424,0.672607,0.19287100000000001,0.96144,-0.306645,-0.092287,-0.031805,-0.030186,-0.010509000000000001,1.0,0.0,0.0,,,,,,,,,,,,,,,,,,,,,,,,,,,,,,,,0.0,0.0,1.0,0.0,512.0,0.407999,5.451086,4.158475,12.207585,3.117091,3.13958,54.112061,48.466938,57.651028000000004,17.209726,22.537585999999997,22.63341,24.849943,45.622840999999994,14.230154,24.436275,21.484682,8.221654,13.686562,5.901917,3.423944,10.679076,4.877276,5.300851000000001,4.245612,2.846428
43907,1645902733.574219,1645902733.57405,103.0,0.0,4409.230957,4460.0,4215.897461,4179.487305,4262.05127,16121.0,1.0,15.0,,,,0.0,4.0,2.0,0.0,4.0,4.0,50.0,,,,,,,,,,,,,,,,,,,,,,,,,,,,,,,,,,,,,,,,,,,,,,,,,,,,,,,,,,,,,,,,,,,,,,,,,,,,,,,,,,,,
43908,1645902733.582033,1645902733.581965,104.0,0.0,4429.230957,4531.794922,4114.358886999999,4130.256348,4276.410156,450.0,1.0,15.0,,,,0.0,4.0,2.0,0.0,4.0,4.0,50.0,,,,,,,,52.0,0.0,0.713593,0.034424,0.672607,0.19287100000000001,0.9633940000000001,-0.304692,-0.09424,-0.031798,-0.030244,-0.008775,,,,,,,,,,,,,,,,,,,,,,,,,,,,,,,,,,,,,,,,,,,,,,,,,,,,,,,,,,,,,,,,,
43909,1645902733.589848,1645902733.589779,105.0,0.0,4413.333496,4612.307617,4152.820313,4111.282227000001,4288.205078,450.0,1.0,15.0,,,,0.0,4.0,2.0,0.0,4.0,4.0,50.0,,,,,,,,,,,,,,,,,,,,,,,,,,,,,,,,,,,,,,,,,,,,,,,,,,,,,,,,,,,,,,,,,,,,,,,,,,,,,,,,,,,,
43910,1645902733.597662,1645902733.597594,106.0,0.0,4397.436035,4583.077147999999,4291.794922,4133.846191,4281.025879,450.0,1.0,15.0,,,,0.0,4.0,2.0,0.0,4.0,4.0,50.0,,,,,,,,53.0,0.0,0.713593,0.034424,0.672607,0.19287100000000001,0.9580219999999999,-0.318853,-0.099123,-0.031743,-0.030344,-0.01029,,,,,,,,,,,,,,,,,,,,,,,,,,,,,,,,,,,0.0,0.0,1.0,0.0,512.0,0.407999,,,,,,,,,,,,,,,,,,,,,,,,,
43911,1645902733.6054769,1645902733.605408,107.0,0.0,4415.384765999999,4494.358886999999,4267.692383,4164.102539,4284.102539,16121.0,1.0,15.0,,,,0.0,4.0,2.0,0.0,4.0,4.0,50.0,,,,,,,,,,,,,,,,,,,,,,,,,,,,,,,,,,,,,,,,,,,,,,,,,,,,,,,,,,,,,,,,,,,,,,,,,,,,,,,,,,,,
43912,1645902733.613291,1645902733.613223,108.0,0.0,4438.974121,4485.641113000001,4106.666504,4182.05127,4298.461426,450.0,1.0,15.0,,,,0.0,4.0,2.0,0.0,4.0,4.0,50.0,,,,,,,,54.0,0.0,0.713757,0.034424,0.672363,0.193115,0.9677879999999999,-0.310552,-0.088869,-0.031694,-0.030289,-0.008577,,,,,,,,,,,,,,,,,,,,,,,,,,,,,,,,,,,,,,,,,,,,,,,,,,,,,,,,,,,,,,,,,
43913,1645902733.6211061,1645902733.6210382,109.0,0.0,4440.0,4544.615234000001,4123.589844,4190.769043,4272.820313,450.0,1.0,15.0,,,,0.0,4.0,2.0,0.0,4.0,4.0,50.0,,,,,,,,,,,,,,,,,,,,,,,,,,,,,,,,,,,,,,,,,,,,,,,,,,,,,,,,,,,,,,,,,,,,,,,,,,,,,,,,,,,,
43914,1645902733.628921,1645902733.628852,110.0,0.0,4448.205078,4554.358886999999,4214.871582,4174.871582,4278.461426,450.0,1.0,15.0,,,,0.0,4.0,2.0,0.0,4.0,4.0,50.0,,,,,,,,55.0,0.0,0.713527,0.034424,0.672607,0.193115,0.952651,-0.31201599999999996,-0.090822,-0.031747000000000004,-0.030385000000000002,-0.010062999999999999,,,,,,,,,,,,,,,,,,,,,,,,,,,,,,,,,,,0.0,0.0,1.0,0.0,512.0,0.407999,,,,,,,,,,,,,,,,,,,,,,,,,
43915,1645902733.636735,1645902733.636667,111.0,0.0,4438.461426,4536.922852000001,4170.769043,4124.102539,4297.94873,16121.0,1.0,15.0,,,,0.0,4.0,2.0,0.0,4.0,4.0,50.0,,,,,,,,,,,,,,,,,,,,,,,,,,,,,,,,,,,,,,,,,,,,,,,,,,,,,,,,,,,,,,,,,,,,,,,,,,,,,,,,,,,,
43916,1645902733.64455,1645902733.644582,112.0,0.0,4409.743652,4594.871582,4104.102539,4127.692383,4283.077147999999,450.0,1.0,15.0,,,,0.0,4.0,2.0,0.0,4.0,4.0,50.0,,,,,,,,56.0,0.0,0.713527,0.034424,0.672607,0.193115,0.948257,-0.31396999999999997,-0.09131,-0.031745999999999996,-0.030422,-0.011595999999999999,,,,,,,,,,,,,,,,,,,,,,,,,,,,,,,,,,,,,,,,,,,,,,,,,,,,,,,,,,,,,,,,,
43917,1645902733.652364,1645902733.6523962,113.0,0.0,4394.871582,4601.538574,4093.8461909999996,4160.512695,4269.743652,450.0,1.0,15.0,,,,0.0,4.0,2.0,0.0,4.0,4.0,50.0,,,,,,,,,,,,,,,,,,,,,,,,,,,,,,,,,,,,,,,,,,,,,,,,,,,,,,,,,,,,,,,,,,,,,,,,,,,,,,,,,,,,
43918,1645902733.660179,1645902733.6602108,114.0,0.0,4430.769043,4474.358886999999,4122.563965,4159.487305,4281.025879,450.0,1.0,15.0,,,,0.0,4.0,2.0,0.0,4.0,4.0,50.0,,,,,,,,57.0,0.0,0.713515,0.034668,0.672607,0.193115,0.949233,-0.307622,-0.085939,-0.031794,-0.030407999999999998,-0.01278,,,,,,,,,,,,,,,,,,,,,,,,,,,,,,,,,,,0.0,0.0,1.0,0.0,512.0,0.407999,,,,,,,,,,,,,,,,,,,,,,,,,
43919,1645902733.667993,1645902733.668026,115.0,0.0,4423.077147999999,4395.897461,4137.94873,4144.615234000001,4265.128418,16121.0,1.0,15.0,,,,0.0,4.0,2.0,0.0,4.0,4.0,50.0,,,,,,,,,,,,,,,,,,,,,,,,,,,,,,,,,,,,,,,,,,,,,,,,,,,,,,,,,,,,,,,,,,,,,,,,,,,,,,,,,,,,
43920,1645902733.675808,1645902733.67594,116.0,0.0,4381.025879,4443.077147999999,4106.666504,4152.820313,4244.615234000001,450.0,1.0,15.0,,,,0.0,4.0,2.0,0.0,4.0,4.0,50.0,,,,,,,,58.0,0.0,0.713437,0.034912,0.672607,0.193359,0.9550930000000001,-0.300786,-0.085451,-0.03174,-0.030394,-0.013944,,,,,,,,,,,,,,,,,,,,,,,,,,,,,,,,,,,,,,,,,,,,,,,,,,,,,,,,,,,,,,,,,
43921,1645902733.6836221,1645902733.6837552,117.0,0.0,4406.666504,4495.897461,4078.461426,4160.0,4262.563965,450.0,1.0,15.0,,,,0.0,4.0,2.0,0.0,4.0,4.0,50.0,,,,,,,,,,,,,,,,,,,,,,,,,,,,,,,,,,,,,,,,,,,,,,,,,,,,,,,,,,,,,,,,,,,,,,,,,,,,,,,,,,,,
43922,1645902733.691437,1645902733.6915689,118.0,0.0,4436.922852000001,4471.282227000001,4220.0,4169.743652,4267.692383,450.0,1.0,15.0,,,,0.0,4.0,2.0,0.0,4.0,4.0,50.0,,,,,,,,59.0,0.0,0.713425,0.035156,0.672607,0.193359,0.9560690000000001,-0.31006300000000003,-0.09765800000000001,-0.03174,-0.030333,-0.014893,1.0,0.0,0.0,,,,,,,,,,,,,,,,,,,,,,,,,,,,,,,,0.0,0.0,1.0,0.0,512.0,0.305431,5.358765,4.543715,12.477587,3.5177660000000004,3.081802,55.396076,39.346657,54.312241,17.443207,23.503241,20.769773,24.731962,48.678154,12.349406,25.054665,18.207897,9.392702,15.149287,5.9350760000000005,3.369472,11.560708,3.6190239999999996,4.438823999999999,3.7019,2.8953919999999997
43923,1645902733.699252,1645902733.699384,119.0,0.0,4422.05127,4410.769043,4322.563965,4163.589844,4264.615234000001,16121.0,1.0,15.0,,,,0.0,4.0,2.0,0.0,4.0,4.0,50.0,,,,,,,,,,,,,,,,,,,,,,,,,,,,,,,,,,,,,,,,,,,,,,,,,,,,,,,,,,,,,,,,,,,,,,,,,,,,,,,,,,,,
43924,1645902733.707066,1645902733.707199,120.0,0.0,4400.0,4405.128418,4219.487305,4137.94873,4280.512695,450.0,1.0,15.0,,,,0.0,4.0,2.0,0.0,4.0,4.0,50.0,,,,,,,,60.0,0.0,0.7133470000000001,0.0354,0.672607,0.193604,0.940932,-0.29443800000000003,-0.091798,-0.031789,-0.030376,-0.015796,,,,,,,,,,,,,,,,,,,,,,,,,,,,,,,,,,,,,,,,,,,,,,,,,,,,,,,,,,,,,,,,,
43925,1645902733.714881,1645902733.7151132,121.0,0.0,4371.282227000001,4428.717772999999,4087.6923829999996,4150.769043,4283.589844,450.0,1.0,15.0,,,,0.0,4.0,2.0,0.0,4.0,4.0,50.0,,,,,,,,,,,,,,,,,,,,,,,,,,,,,,,,,,,,,,,,,,,,,,,,,,,,,,,,,,,,,,,,,,,,,,,,,,,,,,,,,,,,
43926,1645902733.7226949,1645902733.722928,122.0,0.0,4374.871582,4461.025879,4155.384765999999,4187.692383,4297.436035,450.0,1.0,15.0,,,,0.0,4.0,2.0,0.0,4.0,4.0,50.0,,,,,,,,61.0,0.0,0.713437,0.034912,0.672607,0.193359,0.9550930000000001,-0.300786,-0.085451,-0.031735,-0.030366000000000004,-0.016658000000000003,,,,,,,,,,,,,,,,,,,,,,,,,,,,,,,,,,,0.0,0.0,1.0,0.0,512.0,0.305431,,,,,,,,,,,,,,,,,,,,,,,,,
43927,1645902733.73051,1645902733.730743,123.0,0.0,4479.487305,4580.512695,4202.05127,4183.589844,4396.922852000001,16121.0,1.0,15.0,,,,0.0,4.0,2.0,0.0,4.0,4.0,50.0,,,,,,,,,,,,,,,,,,,,,,,,,,,,,,,,,,,,,,,,,,,,,,,,,,,,,,,,,,,,,,,,,,,,,,,,,,,,,,,,,,,,
43928,1645902733.738324,1645902733.738557,124.0,0.0,4487.179688,4685.641113000001,4155.897461,4147.692383,4487.179688,450.0,1.0,15.0,,,,0.0,4.0,2.0,0.0,4.0,4.0,50.0,,,,,,,,62.0,0.0,0.713256,0.035889,0.672607,0.193848,0.948257,-0.3252,-0.096193,-0.031735,-0.030357,-0.014211000000000001,,,,,,,,,,,,,,,,,,,,,,,,,,,,,,,,,,,,,,,,,,,,,,,,,,,,,,,,,,,,,,,,,
43929,1645902733.746139,1645902733.746372,125.0,0.0,4435.897461,4652.307617,4127.692383,4188.717772999999,4500.512695,450.0,1.0,15.0,,,,0.0,4.0,2.0,0.0,4.0,4.0,50.0,,,,,,,,,,,,,,,,,,,,,,,,,,,,,,,,,,,,,,,,,,,,,,,,,,,,,,,,,,,,,,,,,,,,,,,,,,,,,,,,,,,,
43930,1645902733.753953,1645902733.754186,126.0,0.0,4577.436035,4623.589844,4154.358886999999,4228.205078,4532.307617,450.0,1.0,15.0,,,,0.0,4.0,2.0,0.0,4.0,4.0,50.0,,,,,,,,63.0,0.0,0.7130989999999999,0.036377,0.672607,0.19433599999999998,0.953628,-0.29688000000000003,-0.09131,-0.031589,-0.030397000000000004,-0.015183000000000002,,,,,,,,,,,,,,,,,,,,,,,,,,,,,,,,,,,0.0,0.0,1.0,0.0,512.0,0.305431,,,,,,,,,,,,,,,,,,,,,,,,,
43931,1645902733.7617679,1645902733.762001,127.0,0.0,4748.205078,4652.820313,4143.077147999999,4201.538574,4635.897461,232.0,1.0,15.0,,,,0.0,4.0,2.0,0.0,4.0,4.0,50.0,,,,,,,,,,,,,,,,,,,,,,,,,,,,,,,,,,,,,,,,,,,,,,,,,,,,,,,,,,,,,,,,,,,,,,,,,,,,,,,,,,,,
43932,1645902733.769582,1645902733.769816,0.0,0.0,4719.487305,4625.128418,4123.589844,4200.512695,4677.436035,450.0,1.0,15.0,,,,0.0,4.0,2.0,0.0,4.0,4.0,50.0,,,,,,,,0.0,0.0,0.713019,0.036621,0.672607,0.19458,0.957534,-0.314458,-0.10498199999999999,-0.031653,-0.030385000000000002,-0.012931999999999999,,,,,,,,,,,,,,,,,,,,,,,,,,,,,,,,,,,,,,,,,,,,,,,,,,,,,,,,,,,,,,,,,
43933,1645902733.7773972,1645902733.77763,1.0,0.0,4737.436035,4547.692383,4140.512695,4235.897461,4681.025879,450.0,1.0,15.0,,,,0.0,4.0,2.0,0.0,4.0,4.0,50.0,,,,,,,,,,,,,,,,,,,,,,,,,,,,,,,,,,,,,,,,,,,,,,,,,,,,,,,,,,,,,,,,,,,,,,,,,,,,,,,,,,,,
43934,1645902733.7852108,1645902733.7855449,2.0,0.0,4893.846191,4482.563965,4140.0,4197.436035,4701.025879,16265.0,1.0,15.0,,,,0.0,4.0,2.0,0.0,4.0,4.0,50.0,,,,,,,,1.0,0.0,0.712928,0.037108999999999996,0.672607,0.194824,0.9555809999999999,-0.326177,-0.096193,-0.031807999999999996,-0.030472000000000003,-0.010906,,,,,,,,,,,,,,,,,,,,,,,,,,,,,,,,,,,0.0,0.0,1.0,0.0,512.0,0.305431,,,,,,,,,,,,,,,,,,,,,,,,,
43935,1645902733.793026,1645902733.79336,3.0,0.0,4986.666504,4463.077147999999,4143.589844,4127.179688,4664.615234000001,450.0,1.0,15.0,,,,0.0,4.0,2.0,0.0,4.0,4.0,50.0,,,,,,,,,,,,,,,,,,,,,,,,,,,,,,,,,,,,,,,,,,,,,,,,,,,,,,,,,,,,,,,,,,,,,,,,,,,,,,,,,,,,
43936,1645902733.800841,1645902733.801174,4.0,0.0,5142.563965,4413.333496,4153.333496,4134.871582,4629.743652,202.0,1.0,15.0,,,,0.0,4.0,2.0,0.0,4.0,4.0,50.0,,,,,,,,2.0,0.0,0.712551,0.037354000000000005,0.672852,0.19531300000000001,0.956558,-0.302739,-0.09033300000000001,-0.03185,-0.030354000000000003,-0.012208,,,,,,,,,,,,,,,,,,,,,,,,,,,,,,,,,,,,,,,,,,,,,,,,,,,,,,,,,,,,,,,,,
43937,1645902733.808655,1645902733.808989,5.0,0.0,5456.922852000001,4389.743652,4246.153809,4187.692383,4691.794922,450.0,1.0,15.0,,,,0.0,4.0,2.0,0.0,4.0,4.0,50.0,,,,,,,,,,,,,,,,,,,,,,,,,,,,,,,,,,,,,,,,,,,,,,,,,,,,,,,,,,,,,,,,,,,,,,,,,,,,,,,,,,,,
43938,1645902733.81647,1645902733.816804,6.0,0.0,5704.102539,4423.589844,4358.974121,4177.436035,4727.692383,2.0,1.0,15.0,,,,0.0,4.0,2.0,0.0,4.0,4.0,50.0,,,,,,,,3.0,0.0,0.712484,0.037354000000000005,0.672852,0.19555699999999998,0.9546040000000001,-0.319341,-0.098634,-0.032034,-0.030345999999999998,-0.013234000000000001,1.0,0.0,0.0,,,,,,,,,,,,,,,,,,,,,,,,,,,,,,,,0.0,0.0,1.0,0.0,512.0,0.5162399999999999,5.481127,5.375935,12.369572999999999,3.8270980000000003,3.0529189999999997,56.67091,30.239126000000002,48.304752,19.073675,24.088976000000002,19.14617,24.565970999999998,48.320728,11.091722,25.803757,13.96306,10.262161,16.009998,5.715676,3.4071599999999997,11.97852,2.752454,3.7016129999999996,3.1857450000000003,2.8951599999999997
43939,1645902733.824284,1645902733.8246179,7.0,0.0,5750.769043,4412.820313,4344.102539,4148.205078,4645.641113000001,450.0,1.0,15.0,,,,0.0,4.0,2.0,0.0,4.0,4.0,50.0,,,,,,,,,,,,,,,,,,,,,,,,,,,,,,,,,,,,,,,,,,,,,,,,,,,,,,,,,,,,,,,,,,,,,,,,,,,,,,,,,,,,
43940,1645902733.832099,1645902733.832433,8.0,0.0,5930.769043,4342.05127,4139.487305,4142.563965,4597.94873,450.0,1.0,15.0,,,,0.0,4.0,2.0,0.0,4.0,4.0,50.0,,,,,,,,4.0,0.0,0.712404,0.037598,0.672852,0.195801,0.941909,-0.339361,-0.09033300000000001,-0.032053,-0.030534,-0.011129,,,,,,,,,,,,,,,,,,,,,,,,,,,,,,,,,,,,,,,,,,,,,,,,,,,,,,,,,,,,,,,,,
43941,1645902733.8399131,1645902733.8402472,9.0,0.0,6206.666504,4310.769043,4107.692383,4105.128418,4627.692383,16150.0,1.0,15.0,,,,0.0,4.0,2.0,0.0,4.0,4.0,50.0,,,,,,,,,,,,,,,,,,,,,,,,,,,,,,,,,,,,,,,,,,,,,,,,,,,,,,,,,,,,,,,,,,,,,,,,,,,,,,,,,,,,
43942,1645902733.847728,1645902733.8480618,10.0,0.0,6388.205078,4325.641113000001,4251.794922,4088.718018,4655.384765999999,450.0,1.0,15.0,,,,0.0,4.0,2.0,0.0,4.0,4.0,50.0,,,,,,,,5.0,0.0,0.712554,0.037842,0.672607,0.196045,0.9404440000000001,-0.327642,-0.09765800000000001,-0.031973,-0.030507999999999997,-0.01236,,,,,,,,,,,,,,,,,,,,,,,,,,,,,,,,,,,0.0,0.0,1.0,0.0,512.0,0.5162399999999999,,,,,,,,,,,,,,,,,,,,,,,,,
43943,1645902733.855543,1645902733.855877,11.0,0.0,6506.153809,4307.179688,4245.128418,4132.820313,4680.512695,16155.0,1.0,15.0,,,,0.0,4.0,2.0,0.0,4.0,4.0,50.0,,,,,,,,,,,,,,,,,,,,,,,,,,,,,,,,,,,,,,,,,,,,,,,,,,,,,,,,,,,,,,,,,,,,,,,,,,,,,,,,,,,,
43944,1645902733.863357,1645902733.863791,12.0,0.0,6664.615234000001,4272.820313,4066.6667479999996,4142.05127,4729.743652,450.0,1.0,15.0,,,,0.0,4.0,2.0,0.0,4.0,4.0,50.0,,,,,,,,6.0,0.0,0.712487,0.037842,0.672607,0.19628900000000002,0.9487450000000001,-0.323735,-0.09424,-0.03195,-0.030485,-0.010294,,,,,,,,,,,,,,,,,,,,,,,,,,,,,,,,,,,,,,,,,,,,,,,,,,,,,,,,,,,,,,,,,
43945,1645902733.871172,1645902733.871606,13.0,0.0,6752.307617,4325.641113000001,4081.538574,4118.461426,4743.589844,450.0,1.0,15.0,,,,0.0,4.0,2.0,0.0,4.0,4.0,50.0,,,,,,,,,,,,,,,,,,,,,,,,,,,,,,,,,,,,,,,,,,,,,,,,,,,,,,,,,,,,,,,,,,,,,,,,,,,,,,,,,,,,
43946,1645902733.878986,1645902733.879421,14.0,0.0,6745.641113,4486.666504,4210.256348,4159.487305,4741.025879,450.0,1.0,15.0,,,,0.0,4.0,2.0,0.0,4.0,4.0,50.0,,,,,,,,7.0,0.0,0.712487,0.037842,0.672607,0.19628900000000002,0.96144,-0.33789600000000003,-0.092287,-0.028804000000000003,-0.030512,-0.011706,,,,,,,,,,,,,,,,,,,,,,,,,,,,,,,,,,,0.0,0.0,1.0,0.0,512.0,0.5162399999999999,,,,,,,,,,,,,,,,,,,,,,,,,
43947,1645902733.886801,1645902733.887235,15.0,0.0,6752.820312999999,4541.025879,4205.128418,4160.512695,4732.820313,16155.0,1.0,15.0,,,,0.0,4.0,2.0,0.0,4.0,4.0,50.0,,,,,,,,,,,,,,,,,,,,,,,,,,,,,,,,,,,,,,,,,,,,,,,,,,,,,,,,,,,,,,,,,,,,,,,,,,,,,,,,,,,,
43948,1645902733.894615,1645902733.89505,16.0,0.0,6753.333495999999,4479.487305,4163.589844,4114.871582,4727.692383,0.0,1.0,15.0,,,,0.0,4.0,2.0,0.0,4.0,4.0,50.0,,,,,,,,8.0,0.0,0.7124739999999999,0.038086,0.672607,0.19628900000000002,0.963882,-0.327153,-0.100587,-0.029244,-0.030489,-0.012928,,,,,,,,,,,,,,,,,,,,,,,,,,,,,,,,,,,,,,,,,,,,,,,,,,,,,,,,,,,,,,,,,
43949,1645902733.90243,1645902733.902865,17.0,0.0,6775.897461,4508.205078,4185.128418,4102.05127,4717.436035,0.0,1.0,15.0,,,,0.0,4.0,2.0,0.0,4.0,4.0,50.0,,,,,,,,,,,,,,,,,,,,,,,,,,,,,,,,,,,,,,,,,,,,,,,,,,,,,,,,,,,,,,,,,,,,,,,,,,,,,,,,,,,,
43950,1645902733.910244,1645902733.9106789,18.0,0.0,6786.666504000001,4594.871582,4170.769043,4084.102539,4693.333496,0.0,1.0,15.0,,,,0.0,4.0,2.0,0.0,4.0,4.0,50.0,,,,,,,,9.0,0.0,0.7124739999999999,0.038086,0.672607,0.19628900000000002,0.959976,-0.31201599999999996,-0.092775,-0.029591000000000003,-0.030565,-0.014028,,,,,,,,,,,,,,,,,,,,,,,,,,,,,,,,,,,0.0,0.0,1.0,0.0,512.0,0.5162399999999999,,,,,,,,,,,,,,,,,,,,,,,,,
43951,1645902733.9180589,1645902733.918494,19.0,0.0,6797.94873,4557.94873,4113.333496,4064.102539,4642.05127,0.0,1.0,15.0,,,,0.0,4.0,2.0,0.0,4.0,4.0,50.0,,,,,,,,,,,,,,,,,,,,,,,,,,,,,,,,,,,,,,,,,,,,,,,,,,,,,,,,,,,,,,,,,,,,,,,,,,,,,,,,,,,,
43952,1645902733.925873,1645902733.926308,20.0,0.0,6795.897461,4497.94873,4161.025879,4113.846191,4618.974121,0.0,1.0,15.0,,,,0.0,4.0,2.0,0.0,4.0,4.0,50.0,,,,,,,,10.0,0.0,0.7124739999999999,0.038086,0.672607,0.19628900000000002,0.952651,-0.327642,-0.09033300000000001,-0.029806,-0.030682,-0.014969,,,,,,,,,,,,,,,,,,,,,,,,,,,,,,,,,,,,,,,,,,,,,,,,,,,,,,,,,,,,,,,,,
43953,1645902733.9336882,1645902733.934223,21.0,0.0,6745.641113,4566.153809,4222.05127,4168.717772999999,4634.358886999999,0.0,1.0,15.0,,,,0.0,4.0,2.0,0.0,4.0,4.0,50.0,,,,,,,,,,,,,,,,,,,,,,,,,,,,,,,,,,,,,,,,,,,,,,,,,,,,,,,,,,,,,,,,,,,,,,,,,,,,,,,,,,,,
43954,1645902733.9415019,1645902733.942038,22.0,0.0,6697.94873,4635.384765999999,4215.897461,4146.666504,4616.410156,0.0,1.0,15.0,,,,0.0,4.0,2.0,0.0,4.0,4.0,50.0,1.0,8.333333,0.0,1.0,0.0,2.0,3.0,11.0,0.0,0.7124739999999999,0.038086,0.672607,0.19628900000000002,0.9428850000000001,-0.31396999999999997,-0.093263,-0.030048000000000002,-0.030593000000000002,-0.015864,1.0,0.0,0.0,,,,,,,,,,,,,,,,,,,,,,,,,,,,,,,,0.0,0.0,1.0,0.0,512.0,0.49797299999999994,8.249779,6.315848,11.734375,4.001908,3.10813,59.352539,24.012173,40.836498,21.847361,24.152885,18.223843,23.912519,43.902977,11.614884,27.296961,9.840045,10.538955,15.853696,5.438926,3.560168,13.563269,2.482688,3.2147799999999997,2.8019830000000003,2.822091
43955,1645902733.949317,1645902733.949852,23.0,0.0,6648.205078,4550.256348,4155.384765999999,4120.512695,4567.692383,0.0,1.0,15.0,,,,0.0,4.0,2.0,0.0,4.0,4.0,50.0,,,,,,,,,,,,,,,,,,,,,,,,,,,,,,,,,,,,,,,,,,,,,,,,,,,,,,,,,,,,,,,,,,,,,,,,,,,,,,,,,,,,
43956,1645902733.957132,1645902733.9576669,24.0,0.0,6583.077147999999,4527.179688,4153.333496,4133.333496,4533.333496,0.0,1.0,15.0,,,,0.0,4.0,2.0,0.0,4.0,4.0,50.0,,,,,,,,12.0,0.0,0.712407,0.038086,0.672607,0.19653299999999999,0.957046,-0.31396999999999997,-0.093751,-0.030168,-0.030610000000000002,-0.016622,,,,,,,,,,,,,,,,,,,,,,,,,,,,,,,,,,,,,,,,,,,,,,,,,,,,,,,,,,,,,,,,,
43957,1645902733.964946,1645902733.965482,25.0,0.0,6555.897461,4653.846191,4137.94873,4116.922852000001,4524.102539,0.0,1.0,15.0,,,,0.0,4.0,2.0,0.0,4.0,4.0,50.0,,,,,,,,,,,,,,,,,,,,,,,,,,,,,,,,,,,,,,,,,,,,,,,,,,,,,,,,,,,,,,,,,,,,,,,,,,,,,,,,,,,,
43958,1645902733.972761,1645902733.9732962,26.0,0.0,6536.922852000001,4655.384765999999,4142.563965,4109.230957,4495.897461,0.0,1.0,15.0,,,,0.0,4.0,2.0,0.0,4.0,4.0,50.0,,,,,,,,13.0,0.0,0.712407,0.038086,0.672607,0.19653299999999999,0.9511860000000001,-0.327642,-0.084962,-0.030472000000000003,-0.030576,-0.014227000000000002,,,,,,,,,,,,,,,,,,,,,,,,,,,,,,,,,,,0.0,0.0,1.0,0.0,512.0,0.49797299999999994,,,,,,,,,,,,,,,,,,,,,,,,,
43959,1645902733.980575,1645902733.981111,27.0,0.0,6435.897461,4625.128418,4150.769043,4124.615234000001,4461.025879,0.0,1.0,15.0,,,,0.0,4.0,2.0,0.0,4.0,4.0,50.0,,,,,,,,,,,,,,,,,,,,,,,,,,,,,,,,,,,,,,,,,,,,,,,,,,,,,,,,,,,,,,,,,,,,,,,,,,,,,,,,,,,,
43960,1645902733.98839,1645902733.988926,28.0,0.0,6355.897461,4698.461426,4194.871582,4085.1281740000004,4446.666504,0.0,1.0,15.0,,,,0.0,4.0,2.0,0.0,4.0,4.0,50.0,,,,,,,,14.0,0.0,0.712339,0.038086,0.672607,0.196777,0.949233,-0.313481,-0.081544,-0.030647000000000004,-0.030594999999999997,-0.015050999999999998,,,,,,,,,,,,,,,,,,,,,,,,,,,,,,,,,,,,,,,,,,,,,,,,,,,,,,,,,,,,,,,,,
43961,1645902733.996204,1645902733.99674,29.0,0.0,6388.717772999999,4666.666504,4228.717772999999,4064.615479,4438.974121,0.0,1.0,15.0,,,,0.0,4.0,2.0,0.0,4.0,4.0,50.0,,,,,,,,,,,,,,,,,,,,,,,,,,,,,,,,,,,,,,,,,,,,,,,,,,,,,,,,,,,,,,,,,,,,,,,,,,,,,,,,,,,,
43962,1645902734.004019,1645902734.0046551,30.0,0.0,6397.436035,4563.589844,4181.538574,4074.8718259999996,4414.358886999999,0.0,1.0,15.0,,,,0.0,4.0,2.0,0.0,4.0,4.0,50.0,,,,,,,,15.0,0.0,0.712407,0.038086,0.672607,0.19653299999999999,0.957046,-0.31396999999999997,-0.093751,-0.030805000000000003,-0.030611000000000003,-0.012764,,,,,,,,,,,,,,,,,,,,,,,,,,,,,,,,,,,0.0,0.0,1.0,0.0,512.0,0.49797299999999994,,,,,,,,,,,,,,,,,,,,,,,,,
43963,1645902734.011833,1645902734.012469,31.0,0.0,6360.512695,4586.153809,4112.820313,4068.718018,4439.487305,0.0,1.0,15.0,,,,0.0,4.0,2.0,0.0,4.0,4.0,50.0,,,,,,,,,,,,,,,,,,,,,,,,,,,,,,,,,,,,,,,,,,,,,,,,,,,,,,,,,,,,,,,,,,,,,,,,,,,,,,,,,,,,
43964,1645902734.019648,1645902734.020284,32.0,0.0,6331.282227000001,4612.820313,4096.410156,4071.794922,4458.461426,0.0,1.0,15.0,,,,0.0,4.0,2.0,0.0,4.0,4.0,50.0,,,,,,,,16.0,0.0,0.712339,0.038086,0.672607,0.196777,0.949233,-0.313481,-0.081544,-0.030947000000000002,-0.030626,-0.013734,,,,,,,,,,,,,,,,,,,,,,,,,,,,,,,,,,,,,,,,,,,,,,,,,,,,,,,,,,,,,,,,,
43965,1645902734.027462,1645902734.028099,33.0,0.0,6297.94873,4649.230957,4077.9487299999996,4111.282227000001,4418.974121,0.0,1.0,15.0,,,,0.0,4.0,2.0,0.0,4.0,4.0,50.0,,,,,,,,,,,,,,,,,,,,,,,,,,,,,,,,,,,,,,,,,,,,,,,,,,,,,,,,,,,,,,,,,,,,,,,,,,,,,,,,,,,,
43966,1645902734.035277,1645902734.035913,34.0,0.0,6243.589844,4711.282227000001,4070.7692869999996,4107.692383,4389.230957,0.0,1.0,15.0,,,,0.0,4.0,2.0,0.0,4.0,4.0,50.0,,,,,,,,17.0,0.0,0.712339,0.038086,0.672607,0.196777,0.9423969999999999,-0.322759,-0.081544,-0.031075,-0.030737999999999998,-0.014656,,,,,,,,,,,,,,,,,,,,,,,,,,,,,,,,,,,0.0,0.0,1.0,0.0,512.0,0.49797299999999994,,,,,,,,,,,,,,,,,,,,,,,,,
43967,1645902734.043092,1645902734.0437279,35.0,0.0,6210.256348,4648.717772999999,4134.871582,4084.615479,4428.717772999999,0.0,1.0,15.0,,,,0.0,4.0,2.0,0.0,4.0,4.0,50.0,,,,,,,,,,,,,,,,,,,,,,,,,,,,,,,,,,,,,,,,,,,,,,,,,,,,,,,,,,,,,,,,,,,,,,,,,,,,,,,,,,,,
43968,1645902734.050906,1645902734.051543,36.0,0.0,6190.769043,4572.820313,4199.487305,4067.6923829999996,4451.282227000001,0.0,1.0,15.0,,,,0.0,4.0,2.0,0.0,4.0,4.0,50.0,,,,,,,,18.0,0.0,0.712339,0.038086,0.672607,0.196777,0.9550930000000001,-0.322759,-0.10009900000000001,-0.031093,-0.030739999999999996,-0.015583000000000001,,,,,,,,,,,,,,,,,,,,,,,,,,,,,,,,,,,,,,,,,,,,,,,,,,,,,,,,,,,,,,,,,
43969,1645902734.058721,1645902734.059357,37.0,0.0,6184.102539,4589.230957,4220.0,4087.179443,4452.820313,0.0,1.0,15.0,,,,0.0,4.0,2.0,0.0,4.0,4.0,50.0,,,,,,,,,,,,,,,,,,,,,,,,,,,,,,,,,,,,,,,,,,,,,,,,,,,,,,,,,,,,,,,,,,,,,,,,,,,,,,,,,,,,
43970,1645902734.066535,1645902734.0672722,38.0,0.0,6157.436035,4584.615234000001,4154.358886999999,4145.128418,4447.692383,0.0,1.0,15.0,,,,0.0,4.0,2.0,0.0,4.0,4.0,50.0,,,,,,,,19.0,0.0,0.712272,0.038086,0.672607,0.197021,0.949722,-0.330571,-0.095216,-0.031206,-0.030742000000000002,-0.01339,1.0,0.0,0.0,,,,,,,,,,,,,,,,,,,,,,,,,,,,,,,,0.0,0.0,1.0,0.0,512.0,0.43715699999999996,37.259163,7.823302,10.664944,4.170688,3.411865,67.249962,21.68153,33.645065,25.064213,23.545179,18.205919,23.518832999999997,36.353035,14.364101999999999,29.803444,6.883734,10.012152,14.492299,5.353294,3.826226,19.525375,3.3453690000000003,2.9845599999999997,2.62665,2.7021759999999997
43971,1645902734.07435,1645902734.0750859,39.0,0.0,6119.487305,4553.333496,4169.230957,4142.563965,4405.641113000001,0.0,1.0,15.0,,,,0.0,4.0,2.0,0.0,4.0,4.0,50.0,,,,,,,,,,,,,,,,,,,,,,,,,,,,,,,,,,,,,,,,,,,,,,,,,,,,,,,,,,,,,,,,,,,,,,,,,,,,,,,,,,,,
43972,1645902734.082164,1645902734.082901,40.0,0.0,6120.0,4575.384765999999,4238.461426,4092.820557,4388.717772999999,0.0,1.0,15.0,,,,0.0,4.0,2.0,0.0,4.0,4.0,50.0,,,,,,,,20.0,0.0,0.712259,0.03833,0.672607,0.197021,0.95021,-0.336919,-0.099611,-0.031406,-0.030793,-0.014443000000000001,,,,,,,,,,,,,,,,,,,,,,,,,,,,,,,,,,,,,,,,,,,,,,,,,,,,,,,,,,,,,,,,,
43973,1645902734.089979,1645902734.0907161,41.0,0.0,6132.307617,4630.769043,4262.05127,4067.179443,4389.230957,0.0,1.0,15.0,,,,0.0,4.0,2.0,0.0,4.0,4.0,50.0,,,,,,,,,,,,,,,,,,,,,,,,,,,,,,,,,,,,,,,,,,,,,,,,,,,,,,,,,,,,,,,,,,,,,,,,,,,,,,,,,,,,
43974,1645902734.0977929,1645902734.09853,42.0,0.0,6071.282227000001,4590.769043,4190.256348,4042.0512700000004,4388.205078,0.0,1.0,15.0,,,,0.0,4.0,2.0,0.0,4.0,4.0,50.0,,,,,,,,21.0,0.0,0.712326,0.03833,0.672607,0.196777,0.95021,-0.32910700000000004,-0.101076,-0.031439,-0.030692,-0.015392,,,,,,,,,,,,,,,,,,,,,,,,,,,,,,,,,,,0.0,0.0,1.0,0.0,512.0,0.43715699999999996,,,,,,,,,,,,,,,,,,,,,,,,,
43975,1645902734.105608,1645902734.106345,43.0,0.0,5993.846191,4505.641113000001,4197.94873,4057.9487299999996,4422.05127,0.0,1.0,15.0,,,,0.0,4.0,2.0,0.0,4.0,4.0,50.0,,,,,,,,,,,,,,,,,,,,,,,,,,,,,,,,,,,,,,,,,,,,,,,,,,,,,,,,,,,,,,,,,,,,,,,,,,,,,,,,,,,,
43976,1645902734.113423,1645902734.11416,44.0,0.0,5993.333496,4527.692383,4182.563965,4133.846191,4471.794922,0.0,1.0,15.0,,,,0.0,4.0,2.0,0.0,4.0,4.0,50.0,,,,,,,,22.0,0.0,0.712326,0.03833,0.672607,0.196777,0.9550930000000001,-0.323247,-0.090822,-0.031567000000000005,-0.030797,-0.016146999999999998,,,,,,,,,,,,,,,,,,,,,,,,,,,,,,,,,,,,,,,,,,,,,,,,,,,,,,,,,,,,,,,,,
43977,1645902734.1212368,1645902734.121974,45.0,0.0,6003.077147999999,4550.769043,4112.307617,4150.769043,4445.641113000001,0.0,1.0,15.0,,,,0.0,4.0,2.0,0.0,4.0,4.0,50.0,,,,,,,,,,,,,,,,,,,,,,,,,,,,,,,,,,,,,,,,,,,,,,,,,,,,,,,,,,,,,,,,,,,,,,,,,,,,,,,,,,,,
43978,1645902734.129052,1645902734.129789,46.0,0.0,5992.820313,4465.641113000001,4120.0,4118.974121,4414.871582,0.0,1.0,15.0,,,,0.0,4.0,2.0,0.0,4.0,4.0,50.0,,,,,,,,23.0,0.0,0.712313,0.038574000000000004,0.672607,0.196777,0.9428850000000001,-0.321782,-0.09131,-0.031584,-0.030842,-0.0138,,,,,,,,,,,,,,,,,,,,,,,,,,,,,,,,,,,0.0,0.0,1.0,0.0,512.0,0.43715699999999996,,,,,,,,,,,,,,,,,,,,,,,,,
43979,1645902734.136866,1645902734.137703,47.0,0.0,5955.384765999999,4485.128418,4161.538574,4103.589844,4437.94873,0.0,1.0,15.0,,,,0.0,4.0,2.0,0.0,4.0,4.0,50.0,,,,,,,,,,,,,,,,,,,,,,,,,,,,,,,,,,,,,,,,,,,,,,,,,,,,,,,,,,,,,,,,,,,,,,,,,,,,,,,,,,,,
43980,1645902734.144681,1645902734.145518,48.0,0.0,5923.589844,4631.282227000001,4154.871582,4090.7692869999996,4452.820313,0.0,1.0,15.0,,,,0.0,4.0,2.0,0.0,4.0,4.0,50.0,,,,,,,,24.0,0.0,0.712259,0.03833,0.672607,0.197021,0.957534,-0.324712,-0.075196,-0.0316,-0.030737,-0.014666,,,,,,,,,,,,,,,,,,,,,,,,,,,,,,,,,,,,,,,,,,,,,,,,,,,,,,,,,,,,,,,,,
43981,1645902734.152495,1645902734.153333,49.0,0.0,5924.615234000001,4568.717772999999,4134.871582,4099.487305,4430.769043,0.0,1.0,15.0,,,,0.0,4.0,2.0,0.0,4.0,4.0,50.0,,,,,,,,,,,,,,,,,,,,,,,,,,,,,,,,,,,,,,,,,,,,,,,,,,,,,,,,,,,,,,,,,,,,,,,,,,,,,,,,,,,,
43982,1645902734.16031,1645902734.161147,50.0,0.0,5927.179688,4388.205078,4152.820313,4155.897461,4426.153809,0.0,1.0,15.0,,,,0.0,4.0,2.0,0.0,4.0,4.0,50.0,,,,,,,,25.0,0.0,0.712191,0.03833,0.672607,0.197266,0.9585110000000001,-0.316411,-0.091798,-0.031711,-0.030788,-0.01237,,,,,,,,,,,,,,,,,,,,,,,,,,,,,,,,,,,0.0,0.0,1.0,0.0,512.0,0.43715699999999996,,,,,,,,,,,,,,,,,,,,,,,,,
43983,1645902734.168124,1645902734.168962,51.0,0.0,5870.256348,4357.94873,4218.974121,4166.153809,4426.153809,0.0,1.0,15.0,,,,0.0,4.0,2.0,0.0,4.0,4.0,50.0,,,,,,,,,,,,,,,,,,,,,,,,,,,,,,,,,,,,,,,,,,,,,,,,,,,,,,,,,,,,,,,,,,,,,,,,,,,,,,,,,,,,
43984,1645902734.175939,1645902734.176777,52.0,0.0,5837.94873,4385.641113000001,4273.333496,4138.461426,4414.871582,0.0,1.0,15.0,,,,0.0,4.0,2.0,0.0,4.0,4.0,50.0,,,,,,,,26.0,0.0,0.712137,0.038086,0.672607,0.19751,0.9487450000000001,-0.32861799999999997,-0.096193,-0.031812,-0.030688,-0.013428,,,,,,,,,,,,,,,,,,,,,,,,,,,,,,,,,,,,,,,,,,,,,,,,,,,,,,,,,,,,,,,,,
43985,1645902734.183753,1645902734.184591,53.0,0.0,5838.974121,4356.410156,4193.846191,4112.307617,4407.179688,0.0,1.0,15.0,,,,0.0,4.0,2.0,0.0,4.0,4.0,50.0,,,,,,,,,,,,,,,,,,,,,,,,,,,,,,,,,,,,,,,,,,,,,,,,,,,,,,,,,,,,,,,,,,,,,,,,,,,,,,,,,,,,
43986,1645902734.191568,1645902734.192406,54.0,0.0,5805.128418,4385.128418,4175.384765999999,4068.205078,4422.563965,0.0,1.0,15.0,,,,0.0,4.0,2.0,0.0,4.0,4.0,50.0,,,,,,,,27.0,0.0,0.71215,0.037842,0.672607,0.19751,0.9585110000000001,-0.332036,-0.085451,-0.031902,-0.030695,-0.011255,1.0,0.0,0.0,,,,,,,,,,,,,,,,,,,,,,,,,,,,,,,,0.0,0.0,32.0,1.0,1.0,0.0,125.14218100000001,10.904496,9.619497,4.69831,4.19005,86.57717099999999,22.988609,28.737524,27.779020000000003,22.293426999999998,19.132492000000003,24.836132,27.799788,18.934879000000002,33.149464,5.646007,8.773827,12.229650999999999,5.616626999999999,4.161615,32.695347,5.957694999999999,2.970143,2.712847,2.6095330000000003
43987,1645902734.199382,1645902734.200221,55.0,0.0,5779.487305,4426.666504,4292.307617,4037.4357909999994,4447.692383,0.0,1.0,15.0,,,,0.0,4.0,2.0,0.0,4.0,4.0,50.0,,,,,,,,,,,,,,,,,,,,,,,,,,,,,,,,,,,,,,,,,,,,,,,,,,,,,,,,,,,,,,,,,,,,,,,,,,,,,,,,,,,,
43988,1645902734.2071972,1645902734.208035,56.0,0.0,5767.692383,4351.282227000001,4318.974121,4059.487061,4457.94873,0.0,1.0,15.0,,,,0.0,4.0,2.0,0.0,4.0,4.0,50.0,,,,,,,,28.0,0.0,0.712163,0.037598,0.672607,0.19751,0.95314,-0.327642,-0.095216,-0.031837,-0.030701999999999997,-0.009396999999999999,,,,,,,,,,,,,,,,,,,,,,,,,,,,,,,,,,,,,,,,,,,,,,,,,,,,,,,,,,,,,,,,,
43989,1645902734.215011,1645902734.21595,57.0,0.0,5714.871582,4313.846191,4120.0,4062.0512700000004,4450.769043,0.0,1.0,15.0,,,,0.0,4.0,2.0,0.0,4.0,4.0,50.0,,,,,,,,,,,,,,,,,,,,,,,,,,,,,,,,,,,,,,,,,,,,,,,,,,,,,,,,,,,,,,,,,,,,,,,,,,,,,,,,,,,,
43990,1645902734.222826,1645902734.2237642,58.0,0.0,5685.641113000001,4354.358886999999,4043.076904,4046.1538090000004,4405.128418,0.0,1.0,15.0,,,,0.0,4.0,2.0,0.0,4.0,4.0,50.0,,,,,,,,29.0,0.0,0.712163,0.037598,0.672607,0.19751,0.947768,-0.344244,-0.09472799999999999,-0.031925,-0.030561,-0.01085,,,,,,,,,,,,,,,,,,,,,,,,,,,,,,,,,,,0.0,0.0,32.0,1.0,1.0,0.0,,,,,,,,,,,,,,,,,,,,,,,,,
43991,1645902734.2306411,1645902734.2315788,59.0,0.0,5713.846191,4330.256348,4124.615234000001,4087.6923829999996,4397.94873,0.0,1.0,15.0,,,,0.0,4.0,2.0,0.0,4.0,4.0,50.0,,,,,,,,,,,,,,,,,,,,,,,,,,,,,,,,,,,,,,,,,,,,,,,,,,,,,,,,,,,,,,,,,,,,,,,,,,,,,,,,,,,,
43992,1645902734.238455,1645902734.239294,60.0,0.0,5688.205078,4284.102539,4209.230957,4092.3076170000004,4427.179688,0.0,1.0,15.0,,,,0.0,4.0,2.0,0.0,4.0,4.0,50.0,,,,,,,,30.0,0.0,0.7123109999999999,0.037354000000000005,0.672607,0.197021,0.951675,-0.322759,-0.109865,-0.031955000000000004,-0.030581999999999998,-0.012206,,,,,,,,,,,,,,,,,,,,,,,,,,,,,,,,,,,,,,,,,,,,,,,,,,,,,,,,,,,,,,,,,
43993,1645902734.24627,1645902734.247109,61.0,0.0,5640.512695,4350.256348,4247.179688,4053.8461909999996,4427.179688,0.0,1.0,15.0,,,,0.0,4.0,2.0,0.0,4.0,4.0,50.0,,,,,,,,,,,,,,,,,,,,,,,,,,,,,,,,,,,,,,,,,,,,,,,,,,,,,,,,,,,,,,,,,,,,,,,,,,,,,,,,,,,,
43994,1645902734.2540839,1645902734.254923,62.0,0.0,5633.846191,4442.05127,4262.05127,4052.3076170000004,4423.077147999999,0.0,1.0,15.0,,,,0.0,4.0,2.0,0.0,4.0,4.0,50.0,,,,,,,,31.0,0.0,0.712148,0.037354000000000005,0.672852,0.196777,0.946792,-0.332036,-0.101564,-0.032031,-0.030697000000000002,-0.013475999999999998,,,,,,,,,,,,,,,,,,,,,,,,,,,,,,,,,,,0.0,0.0,32.0,1.0,1.0,0.0,,,,,,,,,,,,,,,,,,,,,,,,,
43995,1645902734.261899,1645902734.262738,63.0,0.0,5604.102539,4423.589844,4205.128418,4060.512939,4460.512695,0.0,1.0,15.0,,,,0.0,4.0,2.0,0.0,4.0,4.0,50.0,,,,,,,,,,,,,,,,,,,,,,,,,,,,,,,,,,,,,,,,,,,,,,,,,,,,,,,,,,,,,,,,,,,,,,,,,,,,,,,,,,,,
43996,1645902734.269714,1645902734.270552,64.0,0.0,5532.820313,4381.538574,4113.846191,4015.897461,4447.179688,450.0,1.0,15.0,,,,0.0,4.0,2.0,0.0,4.0,4.0,50.0,,,,,,,,32.0,0.0,0.712295,0.037108999999999996,0.672852,0.19628900000000002,0.957046,-0.333013,-0.092287,-0.032050999999999996,-0.030752999999999996,-0.011396,,,,,,,,,,,,,,,,,,,,,,,,,,,,,,,,,,,,,,,,,,,,,,,,,,,,,,,,,,,,,,,,,
43997,1645902734.277528,1645902734.278367,65.0,0.0,5494.358886999999,4419.487305,4150.256348,4024.102539,4401.025879,450.0,1.0,15.0,,,,0.0,4.0,2.0,0.0,4.0,4.0,50.0,,,,,,,,,,,,,,,,,,,,,,,,,,,,,,,,,,,,,,,,,,,,,,,,,,,,,,,,,,,,,,,,,,,,,,,,,,,,,,,,,,,,
43998,1645902734.285343,1645902734.286282,66.0,0.0,5427.179688,4370.769043,4244.615234000001,4050.256348,4374.871582,226.0,1.0,15.0,,,,0.0,2.0,2.0,0.0,4.0,4.0,33.333332,,,,,,,,33.0,0.0,0.712375,0.036864999999999995,0.672852,0.196045,0.9487450000000001,-0.307134,-0.083986,-0.031971,-0.030802,-0.012648999999999999,,,,,,,,,,,,,,,,,,,,,,,,,,,,,,,,,,,0.0,0.0,32.0,1.0,1.0,0.0,,,,,,,,,,,,,,,,,,,,,,,,,
43999,1645902734.293157,1645902734.294096,67.0,0.0,5355.897461,4284.615234000001,4197.436035,4023.076904,4354.358886999999,450.0,1.0,15.0,,,,0.0,2.0,2.0,0.0,4.0,4.0,33.333332,,,,,,,,,,,,,,,,,,,,,,,,,,,,,,,,,,,,,,,,,,,,,,,,,,,,,,,,,,,,,,,,,,,,,,,,,,,,,,,,,,,,
44000,1645902734.300972,1645902734.3019109,68.0,0.0,5321.025879,4345.641113000001,4118.974121,4028.205078,4358.974121,187.0,1.0,15.0,,,,0.0,2.0,2.0,0.0,4.0,4.0,33.333332,,,,,,,,34.0,0.0,0.712522,0.036621,0.672852,0.19555699999999998,0.944839,-0.300298,-0.096193,-0.028822000000000004,-0.030847000000000003,-0.013874000000000001,,,,,,,,,,,,,,,,,,,,,,,,,,,,,,,,,,,,,,,,,,,,,,,,,,,,,,,,,,,,,,,,,
44001,1645902734.308786,1645902734.309726,69.0,0.0,5261.538574,4405.128418,4203.077147999999,4048.205078,4380.512695,450.0,1.0,15.0,,,,0.0,2.0,2.0,0.0,4.0,4.0,33.333332,,,,,,,,,,,,,,,,,,,,,,,,,,,,,,,,,,,,,,,,,,,,,,,,,,,,,,,,,,,,,,,,,,,,,,,,,,,,,,,,,,,,
44002,1645902734.316601,1645902734.31754,70.0,0.0,5130.256348,4366.153809,4223.077147999999,4005.1281740000004,4352.307617,0.0,1.0,15.0,,,,0.0,2.0,2.0,0.0,4.0,4.0,33.333332,,,,,,,,35.0,0.0,0.712601,0.036377,0.672852,0.19531300000000001,0.960952,-0.303227,-0.095216,-0.029064999999999997,-0.030888,-0.014782,1.0,0.0,0.0,,,,,,,,,,,,,,,,,,,,,,,,,,,,,,,,0.0,0.0,32.0,0.5919300000000001,1.0,0.0,328.04235800000004,16.261983999999998,9.249188,5.930718,5.558351,119.588196,26.984688000000002,27.509642,29.385223,20.669088000000002,21.167944,28.808937,20.452631,24.272322,36.701263,5.979851999999999,7.396866,9.653449,6.276593,4.484964,52.936131,10.644958,3.116061,3.112632,2.618811
44003,1645902734.324415,1645902734.325355,71.0,0.0,5030.256348,4382.563965,4187.692383,3994.8718259999996,4301.025879,450.0,1.0,15.0,,,,0.0,2.0,2.0,0.0,4.0,4.0,33.333332,,,,,,,,,,,,,,,,,,,,,,,,,,,,,,,,,,,,,,,,,,,,,,,,,,,,,,,,,,,,,,,,,,,,,,,,,,,,,,,,,,,,
44004,1645902734.33223,1645902734.33317,72.0,0.0,4980.0,4425.128418,4208.717772999999,4053.3332520000004,4300.0,450.0,1.0,15.0,,,,0.0,2.0,2.0,0.0,4.0,4.0,33.333332,,,,,,,,36.0,0.0,0.712626,0.035889,0.672852,0.19531300000000001,0.95314,-0.313481,-0.08984500000000001,-0.029332,-0.030924,-0.012522,,,,,,,,,,,,,,,,,,,,,,,,,,,,,,,,,,,,,,,,,,,,,,,,,,,,,,,,,,,,,,,,,
44005,1645902734.340044,1645902734.3409839,73.0,0.0,4903.589844,4382.563965,4247.692383,4068.205078,4304.102539,16195.0,1.0,15.0,,,,0.0,2.0,2.0,0.0,4.0,4.0,33.333332,,,,,,,,,,,,,,,,,,,,,,,,,,,,,,,,,,,,,,,,,,,,,,,,,,,,,,,,,,,,,,,,,,,,,,,,,,,,,,,,,,,,
44006,1645902734.347859,1645902734.348799,74.0,0.0,4802.563965,4344.102539,4177.94873,4029.743652,4267.179688,450.0,1.0,15.0,,,,0.0,2.0,2.0,0.0,4.0,4.0,33.333332,,,,,,,,37.0,0.0,0.712475,0.035644999999999996,0.673096,0.19506800000000002,0.953628,-0.323735,-0.092775,-0.029573000000000002,-0.030858999999999998,-0.01376,,,,,,,,,,,,,,,,,,,,,,,,,,,,,,,,,,,0.0,0.0,32.0,0.5919300000000001,1.0,0.0,,,,,,,,,,,,,,,,,,,,,,,,,
44007,1645902734.355673,1645902734.356713,75.0,0.0,4748.717772999999,4357.94873,4149.743652,4018.461426,4215.897461,16194.0,1.0,15.0,,,,0.0,2.0,2.0,0.0,4.0,4.0,33.333332,,,,,,,,,,,,,,,,,,,,,,,,,,,,,,,,,,,,,,,,,,,,,,,,,,,,,,,,,,,,,,,,,,,,,,,,,,,,,,,,,,,,
44008,1645902734.3634882,1645902734.364528,76.0,0.0,4710.769043,4364.102539,4204.615234000001,4045.1281740000004,4208.205078,450.0,1.0,15.0,,,,0.0,2.0,2.0,0.0,4.0,4.0,33.333332,,,,,,,,38.0,0.0,0.712475,0.035644999999999996,0.673096,0.19506800000000002,0.941909,-0.299321,-0.078126,-0.029838999999999997,-0.030702999999999998,-0.011505,,,,,,,,,,,,,,,,,,,,,,,,,,,,,,,,,,,,,,,,,,,,,,,,,,,,,,,,,,,,,,,,,
44009,1645902734.371302,1645902734.372343,77.0,0.0,4598.974121,4360.512695,4229.743652,4062.5642090000006,4205.641113000001,450.0,1.0,15.0,,,,0.0,2.0,2.0,0.0,4.0,4.0,33.333332,,,,,,,,,,,,,,,,,,,,,,,,,,,,,,,,,,,,,,,,,,,,,,,,,,,,,,,,,,,,,,,,,,,,,,,,,,,,,,,,,,,,
44010,1645902734.379117,1645902734.380157,78.0,0.0,4496.410156,4406.153809,4148.205078,4067.179443,4171.794922,450.0,1.0,15.0,,,,0.0,2.0,2.0,0.0,4.0,4.0,33.333332,,,,,,,,39.0,0.0,0.712487,0.0354,0.673096,0.19506800000000002,0.9546040000000001,-0.311528,-0.09033300000000001,-0.026902999999999996,-0.030708999999999997,-0.012796,,,,,,,,,,,,,,,,,,,,,,,,,,,,,,,,,,,0.0,0.0,32.0,0.5919300000000001,1.0,0.0,,,,,,,,,,,,,,,,,,,,,,,,,
44011,1645902734.3869321,1645902734.387972,79.0,0.0,4448.205078,4488.205078,4124.102539,4061.025635,4140.0,16194.0,1.0,15.0,,,,0.0,2.0,2.0,0.0,4.0,4.0,33.333332,,,,,,,,,,,,,,,,,,,,,,,,,,,,,,,,,,,,,,,,,,,,,,,,,,,,,,,,,,,,,,,,,,,,,,,,,,,,,,,,,,,,
44012,1645902734.394746,1645902734.395787,80.0,0.0,4423.589844,4483.077147999999,4181.025879,4081.025635,4158.974121,450.0,1.0,15.0,,,,0.0,2.0,2.0,0.0,4.0,4.0,33.333332,,,,,,,,40.0,0.0,0.712487,0.0354,0.673096,0.19506800000000002,0.9511860000000001,-0.307134,-0.096193,-0.027387,-0.030664999999999998,-0.014006999999999999,,,,,,,,,,,,,,,,,,,,,,,,,,,,,,,,,,,,,,,,,,,,,,,,,,,,,,,,,,,,,,,,,
44013,1645902734.402561,1645902734.403601,81.0,0.0,4350.769043,4440.512695,4191.282227000001,4096.922852000001,4170.769043,450.0,1.0,15.0,,,,0.0,2.0,2.0,0.0,4.0,4.0,33.333332,,,,,,,,,,,,,,,,,,,,,,,,,,,,,,,,,,,,,,,,,,,,,,,,,,,,,,,,,,,,,,,,,,,,,,,,,,,,,,,,,,,,
44014,1645902734.410375,1645902734.411416,82.0,0.0,4254.871582,4486.153809,4199.487305,4083.076904,4144.615234000001,450.0,1.0,15.0,,,,0.0,2.0,2.0,0.0,4.0,4.0,33.333332,,,,,,,,41.0,0.0,0.712499,0.035156,0.673096,0.19506800000000002,0.94435,-0.315923,-0.08691499999999999,-0.027822000000000003,-0.030675,-0.011727,,,,,,,,,,,,,,,,,,,,,,,,,,,,,,,,,,,0.0,0.0,32.0,0.5919300000000001,1.0,0.0,,,,,,,,,,,,,,,,,,,,,,,,,
44015,1645902734.41819,1645902734.419231,83.0,0.0,4193.333496,4483.589844,4193.333496,4056.923096,4133.846191,16194.0,1.0,15.0,,,,0.0,2.0,2.0,0.0,4.0,4.0,33.333332,,,,,,,,,,,,,,,,,,,,,,,,,,,,,,,,,,,,,,,,,,,,,,,,,,,,,,,,,,,,,,,,,,,,,,,,,,,,,,,,,,,,
44016,1645902734.426004,1645902734.4270449,84.0,0.0,4203.077147999999,4405.128418,4135.384765999999,4078.974365,4185.128418,450.0,1.0,15.0,,,,0.0,2.0,2.0,0.0,4.0,4.0,33.333332,,,,,,,,42.0,0.0,0.712566,0.035156,0.673096,0.194824,0.9487450000000001,-0.319341,-0.10254100000000001,-0.028214,-0.030635000000000003,-0.012801,,,,,,,,,,,,,,,,,,,,,,,,,,,,,,,,,,,,,,,,,,,,,,,,,,,,,,,,,,,,,,,,,
44017,1645902734.433819,1645902734.43486,85.0,0.0,4176.410156,4434.871582,4105.641113000001,4083.076904,4196.922852000001,450.0,1.0,15.0,,,,0.0,2.0,2.0,0.0,4.0,4.0,33.333332,,,,,,,,,,,,,,,,,,,,,,,,,,,,,,,,,,,,,,,,,,,,,,,,,,,,,,,,,,,,,,,,,,,,,,,,,,,,,,,,,,,,
44018,1645902734.441633,1645902734.442575,86.0,0.0,4085.641113,4528.717772999999,4183.589844,4033.3332520000004,4144.102539,450.0,1.0,15.0,,,,0.0,2.0,2.0,0.0,4.0,4.0,33.333332,1.0,8.333333,0.0,1.0,0.0,3.0,3.0,43.0,0.0,0.712487,0.0354,0.673096,0.19506800000000002,0.9511860000000001,-0.307134,-0.096193,-0.028614999999999998,-0.030695999999999998,-0.010690999999999999,1.0,0.0,0.0,,,,,,,,,,,,,,,,,,,,,,,,,,,,,,,,0.0,0.0,32.0,0.8766459999999999,1.0,0.0,606.9075320000001,23.674175,9.991695,7.898391999999999,7.382753999999999,161.602341,32.286102,29.783308,29.98757,19.142687,24.034616,35.638458,15.574503,29.075470000000003,39.547748999999996,7.287807000000001,6.531642,7.439288,7.366297,4.707269999999999,76.33078,16.970819,3.443936,3.8398309999999998,2.756116
44019,1645902734.449448,1645902734.4503891,87.0,0.0,4034.8718259999996,4476.410156,4208.717772999999,4040.0,4115.897461,16194.0,1.0,15.0,,,,0.0,2.0,2.0,0.0,4.0,4.0,33.333332,,,,,,,,,,,,,,,,,,,,,,,,,,,,,,,,,,,,,,,,,,,,,,,,,,,,,,,,,,,,,,,,,,,,,,,,,,,,,,,,,,,,
44020,1645902734.457263,1645902734.4582038,88.0,0.0,3998.461426,4329.743652,4193.333496,4070.7692869999996,4115.384765999999,450.0,1.0,15.0,,,,0.0,2.0,2.0,0.0,4.0,4.0,33.333332,,,,,,,,44.0,0.0,0.712566,0.035156,0.673096,0.194824,0.9487450000000001,-0.319341,-0.10254100000000001,-0.028928,-0.030654,-0.011868,,,,,,,,,,,,,,,,,,,,,,,,,,,,,,,,,,,,,,,,,,,,,,,,,,,,,,,,,,,,,,,,,
44021,1645902734.465077,1645902734.466018,89.0,0.0,3911.281982,4277.94873,4188.205078,4049.2307130000004,4116.410156,450.0,1.0,15.0,,,,0.0,2.0,2.0,0.0,4.0,4.0,33.333332,,,,,,,,,,,,,,,,,,,,,,,,,,,,,,,,,,,,,,,,,,,,,,,,,,,,,,,,,,,,,,,,,,,,,,,,,,,,,,,,,,,,
44022,1645902734.472892,1645902734.473833,90.0,0.0,3811.281982,4270.769043,4289.743652,4098.974121,4123.589844,450.0,1.0,15.0,,,,0.0,2.0,2.0,0.0,4.0,4.0,33.333332,,,,,,,,45.0,0.0,0.712796,0.035156,0.672852,0.194824,0.9585110000000001,-0.31396999999999997,-0.099611,-0.029257,-0.030763,-0.012976,,,,,,,,,,,,,,,,,,,,,,,,,,,,,,,,,,,0.0,0.0,32.0,0.8766459999999999,1.0,0.0,,,,,,,,,,,,,,,,,,,,,,,,,
44023,1645902734.480706,1645902734.481648,91.0,0.0,3808.205078,4283.077147999999,4296.410156,4174.871582,4134.871582,16194.0,1.0,15.0,,,,0.0,2.0,2.0,0.0,4.0,4.0,33.333332,,,,,,,,,,,,,,,,,,,,,,,,,,,,,,,,,,,,,,,,,,,,,,,,,,,,,,,,,,,,,,,,,,,,,,,,,,,,,,,,,,,,
44024,1645902734.488521,1645902734.489462,92.0,0.0,3855.897461,4325.128418,4153.333496,4122.563965,4112.307617,450.0,1.0,15.0,,,,0.0,2.0,2.0,0.0,4.0,4.0,33.333332,,,,,,,,46.0,0.0,0.712796,0.035156,0.672852,0.194824,0.965347,-0.318853,-0.092287,-0.029506,-0.030811,-0.010897,,,,,,,,,,,,,,,,,,,,,,,,,,,,,,,,,,,,,,,,,,,,,,,,,,,,,,,,,,,,,,,,,
44025,1645902734.496335,1645902734.497277,93.0,0.0,3832.820557,4321.025879,4092.3076170000004,4070.256348,4145.128418,450.0,1.0,15.0,,,,0.0,2.0,2.0,0.0,4.0,4.0,33.333332,,,,,,,,,,,,,,,,,,,,,,,,,,,,,,,,,,,,,,,,,,,,,,,,,,,,,,,,,,,,,,,,,,,,,,,,,,,,,,,,,,,,
44026,1645902734.50415,1645902734.505192,94.0,0.0,3722.0512700000004,4297.94873,4178.461426,4091.794922,4200.0,450.0,1.0,15.0,,,,0.0,2.0,2.0,0.0,4.0,4.0,33.333332,,,,,,,,47.0,0.0,0.712796,0.035156,0.672852,0.194824,0.9521629999999999,-0.318364,-0.10498199999999999,-0.029827,-0.030757999999999997,-0.012249,,,,,,,,,,,,,,,,,,,,,,,,,,,,,,,,,,,0.0,0.0,32.0,0.8766459999999999,1.0,0.0,,,,,,,,,,,,,,,,,,,,,,,,,
44027,1645902734.511964,1645902734.513006,95.0,0.0,3677.4357909999994,4317.94873,4238.461426,4113.846191,4203.077147999999,16194.0,1.0,15.0,,,,0.0,2.0,2.0,0.0,4.0,4.0,33.333332,,,,,,,,,,,,,,,,,,,,,,,,,,,,,,,,,,,,,,,,,,,,,,,,,,,,,,,,,,,,,,,,,,,,,,,,,,,,,,,,,,,,
44028,1645902734.519779,1645902734.520821,96.0,0.0,3690.7692869999996,4305.641113000001,4221.538574,4152.307617,4167.179688,450.0,1.0,15.0,,,,0.0,2.0,2.0,0.0,4.0,4.0,33.333332,,,,,,,,48.0,0.0,0.712796,0.035156,0.672852,0.194824,0.9472799999999999,-0.313481,-0.093751,-0.030018,-0.030856,-0.010145,,,,,,,,,,,,,,,,,,,,,,,,,,,,,,,,,,,,,,,,,,,,,,,,,,,,,,,,,,,,,,,,,
44029,1645902734.527593,1645902734.528636,97.0,0.0,3697.4357909999994,4294.871582,4154.358886999999,4190.256348,4160.512695,450.0,1.0,15.0,,,,0.0,2.0,2.0,0.0,4.0,4.0,33.333332,,,,,,,,,,,,,,,,,,,,,,,,,,,,,,,,,,,,,,,,,,,,,,,,,,,,,,,,,,,,,,,,,,,,,,,,,,,,,,,,,,,,
44030,1645902734.535408,1645902734.53645,98.0,0.0,3698.461426,4366.153809,4063.076904,4165.641113000001,4166.666504,450.0,1.0,15.0,,,,0.0,2.0,2.0,0.0,4.0,4.0,33.333332,,,,,,,,49.0,0.0,0.712863,0.035156,0.672852,0.19458,0.9550930000000001,-0.309575,-0.091798,-0.030239,-0.030895,-0.011474,,,,,,,,,,,,,,,,,,,,,,,,,,,,,,,,,,,0.0,0.0,32.0,0.8766459999999999,1.0,0.0,,,,,,,,,,,,,,,,,,,,,,,,,
44031,1645902734.5432231,1645902734.544265,99.0,0.0,3681.538574,4400.0,4062.0512700000004,4124.102539,4180.0,16194.0,1.0,15.0,,,,0.0,2.0,2.0,0.0,4.0,4.0,33.333332,,,,,,,,,,,,,,,,,,,,,,,,,,,,,,,,,,,,,,,,,,,,,,,,,,,,,,,,,,,,,,,,,,,,,,,,,,,,,,,,,,,,
44032,1645902734.5510368,1645902734.552079,100.0,0.0,3620.0,4314.358886999999,4114.871582,4086.6667479999996,4194.871582,450.0,1.0,15.0,,,,0.0,2.0,2.0,0.0,4.0,4.0,33.333332,,,,,,,,50.0,0.0,0.712796,0.035156,0.672852,0.194824,0.957534,-0.326665,-0.09668099999999999,-0.030438,-0.030931,-0.012671,,,,,,,,,,,,,,,,,,,,,,,,,,,,,,,,,,,,,,,,,,,,,,,,,,,,,,,,,,,,,,,,,
44033,1645902734.558852,1645902734.5598938,101.0,0.0,3585.1281740000004,4280.512695,4186.666504,4098.974121,4175.897461,450.0,1.0,15.0,,,,0.0,2.0,2.0,0.0,4.0,4.0,33.333332,,,,,,,,,,,,,,,,,,,,,,,,,,,,,,,,,,,,,,,,,,,,,,,,,,,,,,,,,,,,,,,,,,,,,,,,,,,,,,,,,,,,
44034,1645902734.5666661,1645902734.567709,102.0,0.0,3560.512939,4304.615234000001,4258.974121,4124.615234000001,4172.307617,450.0,1.0,15.0,,,,0.0,2.0,2.0,0.0,4.0,4.0,33.333332,,,,,,,,51.0,0.0,0.712796,0.035156,0.672852,0.194824,0.952651,-0.318853,-0.099123,-0.030519,-0.030913999999999997,-0.013747,1.0,0.0,0.0,,,,,,,,,,,,,,,,,,,,,,,,,,,,,,,,0.0,0.0,32.0,1.0,1.0,0.0,923.040527,31.389778000000003,11.685875,10.214319999999999,9.264380000000001,202.530624,37.43486,34.232494,30.216137,18.175936,27.210711,44.311581,13.4179,32.397812,40.776245,8.941221,6.547186,5.9576150000000005,8.850439,4.761737999999999,97.17916899999999,23.443104,4.023242,4.856053,2.9816279999999997
44035,1645902734.574481,1645902734.5755231,103.0,0.0,3494.8718259999996,4277.94873,4261.538574,4118.974121,4209.743652,16194.0,1.0,15.0,,,,0.0,2.0,2.0,0.0,4.0,4.0,33.333332,,,,,,,,,,,,,,,,,,,,,,,,,,,,,,,,,,,,,,,,,,,,,,,,,,,,,,,,,,,,,,,,,,,,,,,,,,,,,,,,,,,,
44036,1645902734.582295,1645902734.5834382,104.0,0.0,3511.794922,4246.153809,4182.05127,4140.0,4238.974121,450.0,1.0,15.0,,,,0.0,2.0,2.0,0.0,4.0,4.0,33.333332,,,,,,,,52.0,0.0,0.712875,0.034912,0.672852,0.19458,0.951675,-0.294926,-0.10254100000000001,-0.030641,-0.030801,-0.014716,,,,,,,,,,,,,,,,,,,,,,,,,,,,,,,,,,,,,,,,,,,,,,,,,,,,,,,,,,,,,,,,,
44037,1645902734.59011,1645902734.591253,105.0,0.0,3555.384521,4238.461426,4164.102539,4186.153809,4220.0,450.0,1.0,15.0,,,,0.0,2.0,2.0,0.0,4.0,4.0,33.333332,,,,,,,,,,,,,,,,,,,,,,,,,,,,,,,,,,,,,,,,,,,,,,,,,,,,,,,,,,,,,,,,,,,,,,,,,,,,,,,,,,,,
44038,1645902734.597924,1645902734.599067,106.0,0.0,3521.538574,4258.461426,4123.589844,4152.307617,4199.487305,450.0,1.0,15.0,,,,0.0,2.0,2.0,0.0,4.0,4.0,33.333332,,,,,,,,53.0,0.0,0.712875,0.034912,0.672852,0.19458,0.96144,-0.318853,-0.098146,-0.030701999999999997,-0.0307,-0.012561,,,,,,,,,,,,,,,,,,,,,,,,,,,,,,,,,,,0.0,0.0,32.0,1.0,1.0,0.0,,,,,,,,,,,,,,,,,,,,,,,,,
44039,1645902734.605739,1645902734.606882,107.0,0.0,3510.256348,4364.102539,4121.538574,4088.205078,4209.230957,16194.0,1.0,15.0,,,,0.0,2.0,2.0,0.0,4.0,4.0,33.333332,,,,,,,,,,,,,,,,,,,,,,,,,,,,,,,,,,,,,,,,,,,,,,,,,,,,,,,,,,,,,,,,,,,,,,,,,,,,,,,,,,,,
44040,1645902734.613553,1645902734.614697,108.0,0.0,3538.974365,4464.102539,4165.128418,4112.820313,4257.436035,450.0,1.0,15.0,,,,0.0,2.0,2.0,0.0,4.0,4.0,33.333332,,,,,,,,54.0,0.0,0.712875,0.034912,0.672852,0.19458,0.9506979999999999,-0.31543499999999997,-0.08984500000000001,-0.030951999999999997,-0.030608,-0.013649000000000001,,,,,,,,,,,,,,,,,,,,,,,,,,,,,,,,,,,,,,,,,,,,,,,,,,,,,,,,,,,,,,,,,
44041,1645902734.621368,1645902734.622511,109.0,0.0,3480.512939,4420.0,4165.128418,4158.974121,4272.820313,450.0,1.0,15.0,,,,0.0,2.0,2.0,0.0,4.0,4.0,33.333332,,,,,,,,,,,,,,,,,,,,,,,,,,,,,,,,,,,,,,,,,,,,,,,,,,,,,,,,,,,,,,,,,,,,,,,,,,,,,,,,,,,,
44042,1645902734.629182,1645902734.630326,110.0,0.0,3458.461426,4398.974121,4103.589844,4138.974121,4264.615234000001,450.0,1.0,15.0,,,,0.0,2.0,2.0,0.0,4.0,4.0,33.333332,,,,,,,,55.0,0.0,0.7128869999999999,0.034668,0.672852,0.19458,0.94435,-0.309087,-0.104005,-0.031079000000000002,-0.030624000000000002,-0.0116,,,,,,,,,,,,,,,,,,,,,,,,,,,,,,,,,,,0.0,0.0,32.0,1.0,1.0,0.0,,,,,,,,,,,,,,,,,,,,,,,,,
44043,1645902734.636997,1645902734.63814,111.0,0.0,3501.538574,4435.384765999999,4095.897461,4102.05127,4276.410156,16194.0,1.0,15.0,,,,0.0,2.0,2.0,0.0,4.0,4.0,33.333332,,,,,,,,,,,,,,,,,,,,,,,,,,,,,,,,,,,,,,,,,,,,,,,,,,,,,,,,,,,,,,,,,,,,,,,,,,,,,,,,,,,,
44044,1645902734.6448119,1645902734.645955,112.0,0.0,3515.897461,4421.538574,4117.436035,4141.025879,4301.025879,450.0,1.0,15.0,,,,0.0,2.0,2.0,0.0,4.0,4.0,33.333332,,,,,,,,56.0,0.0,0.712953,0.034668,0.672852,0.19433599999999998,0.9350729999999999,-0.31250500000000003,-0.098634,-0.02802,-0.030686,-0.012784,,,,,,,,,,,,,,,,,,,,,,,,,,,,,,,,,,,,,,,,,,,,,,,,,,,,,,,,,,,,,,,,,
44045,1645902734.652626,1645902734.65377,113.0,0.0,3508.205078,4403.589844,4113.846191,4175.897461,4289.743652,450.0,1.0,15.0,,,,0.0,2.0,2.0,0.0,4.0,4.0,33.333332,,,,,,,,,,,,,,,,,,,,,,,,,,,,,,,,,,,,,,,,,,,,,,,,,,,,,,,,,,,,,,,,,,,,,,,,,,,,,,,,,,,,
44046,1645902734.660441,1645902734.661485,114.0,0.0,3506.6667479999996,4405.641113000001,4102.05127,4157.94873,4276.410156,450.0,1.0,15.0,,,,0.0,2.0,2.0,0.0,4.0,4.0,33.333332,,,,,,,,57.0,0.0,0.71302,0.034668,0.672852,0.19409200000000001,0.95314,-0.304692,-0.08691499999999999,-0.028489999999999998,-0.030694,-0.013800999999999999,,,,,,,,,,,,,,,,,,,,,,,,,,,,,,,,,,,0.0,0.0,32.0,1.0,1.0,0.0,,,,,,,,,,,,,,,,,,,,,,,,,
44047,1645902734.668255,1645902734.6692991,115.0,0.0,3490.256348,4366.666504,4089.2307130000004,4129.230957,4284.615234000001,16194.0,1.0,15.0,,,,0.0,2.0,2.0,0.0,4.0,4.0,33.333332,,,,,,,,,,,,,,,,,,,,,,,,,,,,,,,,,,,,,,,,,,,,,,,,,,,,,,,,,,,,,,,,,,,,,,,,,,,,,,,,,,,,
44048,1645902734.67607,1645902734.6772141,116.0,0.0,3456.4101560000004,4390.256348,4102.05127,4134.358886999999,4254.358886999999,450.0,1.0,15.0,,,,0.0,2.0,2.0,0.0,4.0,4.0,33.333332,,,,,,,,58.0,0.0,0.712953,0.034668,0.672852,0.19433599999999998,0.9629049999999999,-0.318364,-0.08838,-0.028912,-0.030602999999999998,-0.014813,,,,,,,,,,,,,,,,,,,,,,,,,,,,,,,,,,,,,,,,,,,,,,,,,,,,,,,,,,,,,,,,,
44049,1645902734.6838849,1645902734.6850278,117.0,0.0,3433.3332520000004,4493.846191,4116.922852000001,4131.282227000001,4208.205078,450.0,1.0,15.0,,,,0.0,2.0,2.0,0.0,4.0,4.0,33.333332,,,,,,,,,,,,,,,,,,,,,,,,,,,,,,,,,,,,,,,,,,,,,,,,,,,,,,,,,,,,,,,,,,,,,,,,,,,,,,,,,,,,
44050,1645902734.691699,1645902734.692843,118.0,0.0,3417.4357909999994,4457.94873,4148.205078,4139.487305,4218.461426,450.0,1.0,15.0,,,,0.0,2.0,2.0,0.0,4.0,4.0,33.333332,,,,,,,,59.0,0.0,0.7129409999999999,0.034912,0.672852,0.19433599999999998,0.963882,-0.317388,-0.09424,-0.029195,-0.03057,-0.012648000000000001,1.0,0.0,0.0,,,,,,,,,,,,,,,,,,,,,,,,,,,,,,,,0.0,0.0,32.0,1.0,1.0,0.0,1178.398804,36.997231,13.550292,12.225881,10.687206,228.757263,40.537563,38.29422,30.582129,17.921425,30.03705,52.943962,13.725727,34.025894,40.035057,10.460184,7.497681,5.1504199999999996,10.537458,4.625814,109.24819199999999,28.207895,4.891333,5.989866,3.216454
44051,1645902734.6995142,1645902734.700658,119.0,0.0,3421.025635,4328.205078,4150.256348,4157.436035,4237.436035,16194.0,1.0,15.0,,,,0.0,2.0,2.0,0.0,4.0,4.0,33.333332,,,,,,,,,,,,,,,,,,,,,,,,,,,,,,,,,,,,,,,,,,,,,,,,,,,,,,,,,,,,,,,,,,,,,,,,,,,,,,,,,,,,
44052,1645902734.7073278,1645902734.708472,120.0,0.0,3410.7692869999996,4345.128418,4133.846191,4159.487305,4223.589844,450.0,1.0,15.0,,,,0.0,2.0,2.0,0.0,4.0,4.0,33.333332,,,,,,,,60.0,0.0,0.7129409999999999,0.034912,0.672852,0.19433599999999998,0.960464,-0.315923,-0.10254100000000001,-0.026324,-0.030638,-0.013727000000000001,,,,,,,,,,,,,,,,,,,,,,,,,,,,,,,,,,,,,,,,,,,,,,,,,,,,,,,,,,,,,,,,,
44053,1645902734.715143,1645902734.7163868,121.0,0.0,3435.897461,4463.077147999999,4085.1281740000004,4140.0,4213.846191,450.0,1.0,15.0,,,,0.0,4.0,2.0,0.0,4.0,4.0,50.0,,,,,,,,,,,,,,,,,,,,,,,,,,,,,,,,,,,,,,,,,,,,,,,,,,,,,,,,,,,,,,,,,,,,,,,,,,,,,,,,,,,,
44054,1645902734.7229571,1645902734.724201,122.0,0.0,3468.205078,4452.820313,4089.2307130000004,4118.461426,4217.94873,450.0,1.0,15.0,,,,0.0,4.0,2.0,0.0,4.0,4.0,50.0,,,,,,,,61.0,0.0,0.712711,0.034912,0.673096,0.19433599999999998,0.9404440000000001,-0.30225100000000005,-0.100587,-0.026914999999999998,-0.030699,-0.011622,,,,,,,,,,,,,,,,,,,,,,,,,,,,,,,,,,,0.0,0.0,32.0,1.0,1.0,0.0,,,,,,,,,,,,,,,,,,,,,,,,,
44055,1645902734.730772,1645902734.732016,123.0,0.0,3448.718018,4361.025879,4113.333496,4164.102539,4212.307617,16194.0,1.0,15.0,,,,0.0,4.0,2.0,0.0,4.0,4.0,50.0,,,,,,,,,,,,,,,,,,,,,,,,,,,,,,,,,,,,,,,,,,,,,,,,,,,,,,,,,,,,,,,,,,,,,,,,,,,,,,,,,,,,
44056,1645902734.738586,1645902734.739831,124.0,0.0,3442.0512700000004,4355.897461,4180.0,4201.538574,4236.922852000001,450.0,1.0,15.0,,,,0.0,4.0,2.0,0.0,4.0,4.0,50.0,,,,,,,,62.0,0.0,0.712699,0.035156,0.673096,0.19433599999999998,0.960464,-0.323247,-0.104494,-0.027397,-0.030802999999999997,-0.012804,,,,,,,,,,,,,,,,,,,,,,,,,,,,,,,,,,,,,,,,,,,,,,,,,,,,,,,,,,,,,,,,,
44057,1645902734.746401,1645902734.747645,125.0,0.0,3472.3076170000004,4378.461426,4133.333496,4204.615234000001,4256.922852000001,450.0,1.0,15.0,,,,0.0,4.0,2.0,0.0,4.0,4.0,50.0,,,,,,,,,,,,,,,,,,,,,,,,,,,,,,,,,,,,,,,,,,,,,,,,,,,,,,,,,,,,,,,,,,,,,,,,,,,,,,,,,,,,
44058,1645902734.754215,1645902734.75546,126.0,0.0,3474.358887,4355.897461,4082.5642090000006,4160.512695,4213.333496,450.0,1.0,15.0,,,,0.0,4.0,2.0,0.0,4.0,4.0,50.0,,,,,,,,63.0,0.0,0.712699,0.035156,0.673096,0.19433599999999998,0.957534,-0.30811,-0.088869,-0.027880000000000002,-0.030701999999999997,-0.013916,,,,,,,,,,,,,,,,,,,,,,,,,,,,,,,,,,,0.0,0.0,32.0,1.0,1.0,0.0,,,,,,,,,,,,,,,,,,,,,,,,,
44059,1645902734.7620301,1645902734.763275,127.0,0.0,3424.615479,4288.205078,4123.077147999999,4176.922852000001,4201.538574,232.0,1.0,15.0,,,,0.0,4.0,2.0,0.0,4.0,4.0,50.0,,,,,,,,,,,,,,,,,,,,,,,,,,,,,,,,,,,,,,,,,,,,,,,,,,,,,,,,,,,,,,,,,,,,,,,,,,,,,,,,,,,,
44060,1645902734.769844,1645902734.771089,0.0,0.0,3410.256348,4257.94873,4205.128418,4264.102539,4207.179688,450.0,1.0,15.0,,,,0.0,4.0,2.0,0.0,4.0,4.0,50.0,,,,,,,,0.0,0.0,0.712699,0.035156,0.673096,0.19433599999999998,0.9555809999999999,-0.30811,-0.092775,-0.025141,-0.030659,-0.014966,,,,,,,,,,,,,,,,,,,,,,,,,,,,,,,,,,,,,,,,,,,,,,,,,,,,,,,,,,,,,,,,,
44061,1645902734.777659,1645902734.778904,1.0,0.0,3402.0512700000004,4276.922852000001,4263.077147999999,4275.384765999999,4205.128418,450.0,1.0,15.0,,,,0.0,4.0,2.0,0.0,4.0,4.0,50.0,,,,,,,,,,,,,,,,,,,,,,,,,,,,,,,,,,,,,,,,,,,,,,,,,,,,,,,,,,,,,,,,,,,,,,,,,,,,,,,,,,,,
44062,1645902734.785473,1645902734.7867188,2.0,0.0,3321.5385739999997,4246.666504,4250.769043,4224.102539,4170.769043,16103.0,1.0,15.0,,,,0.0,4.0,2.0,0.0,4.0,4.0,50.0,,,,,,,,1.0,0.0,0.712699,0.035156,0.673096,0.19433599999999998,0.949722,-0.321294,-0.093751,-0.025898,-0.030619999999999998,-0.01259,,,,,,,,,,,,,,,,,,,,,,,,,,,,,,,,,,,0.0,0.0,32.0,1.0,1.0,0.0,,,,,,,,,,,,,,,,,,,,,,,,,
44063,1645902734.793288,1645902734.794433,3.0,0.0,3311.281982,4231.794922,4261.025879,4191.282227000001,4195.897461,450.0,1.0,15.0,,,,0.0,4.0,1.0,0.0,4.0,4.0,41.666668,,,,,,,,,,,,,,,,,,,,,,,,,,,,,,,,,,,,,,,,,,,,,,,,,,,,,,,,,,,,,,,,,,,,,,,,,,,,,,,,,,,,
44064,1645902734.8011029,1645902734.802248,4.0,0.0,3328.205078,4281.025879,4300.0,4185.641113000001,4254.358886999999,138.0,1.0,15.0,,,,0.0,4.0,1.0,0.0,4.0,4.0,41.666668,,,,,,,,2.0,0.0,0.712711,0.034912,0.673096,0.19433599999999998,0.952651,-0.321782,-0.098146,-0.026482,-0.030633999999999998,-0.013724,,,,,,,,,,,,,,,,,,,,,,,,,,,,,,,,,,,,,,,,,,,,,,,,,,,,,,,,,,,,,,,,,
44065,1645902734.808917,1645902734.8100631,5.0,0.0,3331.281982,4351.282227000001,4343.077147999999,4150.256348,4248.717772999999,450.0,1.0,15.0,,,,0.0,4.0,1.0,0.0,4.0,4.0,41.666668,,,,,,,,,,,,,,,,,,,,,,,,,,,,,,,,,,,,,,,,,,,,,,,,,,,,,,,,,,,,,,,,,,,,,,,,,,,,,,,,,,,,
44066,1645902734.816732,1645902734.817877,6.0,0.0,3346.666748,4366.666504,4288.205078,4125.641113000001,4230.256348,0.0,1.0,15.0,,,,0.0,4.0,1.0,0.0,4.0,4.0,41.666668,,,,,,,,3.0,0.0,0.712711,0.034912,0.673096,0.19433599999999998,0.9546040000000001,-0.301274,-0.10254100000000001,-0.027106,-0.030695999999999998,-0.014646000000000001,1.0,0.0,0.0,,,,,,,,,,,,,,,,,,,,,,,,,,,,,,,,0.0,0.0,32.0,1.0,1.0,0.0,1281.778198,38.580276,14.592891,13.37258,11.256527,232.69271899999998,41.282654,39.633247,31.424576000000002,18.186563,31.785653999999997,59.322952,16.034409,34.547031,37.633438,11.427302000000001,9.061532000000001,4.733873,12.183895,4.363151,108.485924,30.011026,5.985978,6.954910000000001,3.3961980000000005
44067,1645902734.824546,1645902734.825692,7.0,0.0,3380.512939,4364.615234000001,4206.153809,4165.641113000001,4234.358886999999,450.0,1.0,15.0,,,,0.0,4.0,1.0,0.0,4.0,4.0,41.666668,,,,,,,,,,,,,,,,,,,,,,,,,,,,,,,,,,,,,,,,,,,,,,,,,,,,,,,,,,,,,,,,,,,,,,,,,,,,,,,,,,,,
44068,1645902734.832361,1645902734.833507,8.0,0.0,3403.5898439999996,4355.897461,4153.846191,4182.563965,4249.743652,450.0,1.0,15.0,,,,0.0,4.0,1.0,0.0,4.0,4.0,41.666668,,,,,,,,4.0,0.0,0.712711,0.034912,0.673096,0.19433599999999998,0.9546040000000001,-0.307134,-0.100587,-0.027618,-0.030702999999999998,-0.012401,,,,,,,,,,,,,,,,,,,,,,,,,,,,,,,,,,,,,,,,,,,,,,,,,,,,,,,,,,,,,,,,,
44069,1645902734.840175,1645902734.841321,9.0,0.0,3383.076904,4285.641113000001,4182.563965,4184.615234000001,4224.615234000001,16124.0,1.0,15.0,,,,0.0,4.0,1.0,0.0,4.0,4.0,41.666668,,,,,,,,,,,,,,,,,,,,,,,,,,,,,,,,,,,,,,,,,,,,,,,,,,,,,,,,,,,,,,,,,,,,,,,,,,,,,,,,,,,,
44070,1645902734.84799,1645902734.8491359,10.0,0.0,3403.5898439999996,4273.333496,4186.153809,4160.0,4203.589844,450.0,1.0,15.0,,,,0.0,4.0,1.0,0.0,4.0,4.0,41.666668,,,,,,,,5.0,0.0,0.712711,0.034912,0.673096,0.19433599999999998,0.951675,-0.321294,-0.09131,-0.024905,-0.030806,-0.013602000000000001,,,,,,,,,,,,,,,,,,,,,,,,,,,,,,,,,,,0.0,0.0,32.0,1.0,1.0,0.0,,,,,,,,,,,,,,,,,,,,,,,,,
44071,1645902734.855804,1645902734.856951,11.0,0.0,3442.5642090000006,4378.974121,4112.307617,4105.128418,4227.692383,16160.0,1.0,15.0,,,,0.0,4.0,1.0,0.0,4.0,4.0,41.666668,,,,,,,,,,,,,,,,,,,,,,,,,,,,,,,,,,,,,,,,,,,,,,,,,,,,,,,,,,,,,,,,,,,,,,,,,,,,,,,,,,,,
44072,1645902734.8636189,1645902734.864865,12.0,0.0,3449.743652,4396.410156,4038.974365,4115.897461,4233.846191,450.0,1.0,15.0,,,,0.0,4.0,1.0,0.0,4.0,4.0,41.666668,,,,,,,,6.0,0.0,0.712711,0.034912,0.673096,0.19433599999999998,0.948257,-0.314458,-0.092775,-0.022463,-0.030752999999999996,-0.014634000000000001,,,,,,,,,,,,,,,,,,,,,,,,,,,,,,,,,,,,,,,,,,,,,,,,,,,,,,,,,,,,,,,,,
44073,1645902734.871434,1645902734.8726802,13.0,0.0,3423.076904,4271.794922,4116.922852000001,4168.205078,4203.077147999999,450.0,1.0,15.0,,,,0.0,4.0,1.0,0.0,4.0,4.0,41.666668,,,,,,,,,,,,,,,,,,,,,,,,,,,,,,,,,,,,,,,,,,,,,,,,,,,,,,,,,,,,,,,,,,,,,,,,,,,,,,,,,,,,
44074,1645902734.8792481,1645902734.8804939,14.0,0.0,3427.6923829999996,4244.615234000001,4225.128418,4228.717772999999,4211.282227000001,450.0,1.0,15.0,,,,0.0,4.0,1.0,0.0,4.0,4.0,41.666668,,,,,,,,7.0,0.0,0.712711,0.034912,0.673096,0.19433599999999998,0.9546040000000001,-0.307134,-0.100587,-0.02344,-0.030754000000000004,-0.01239,,,,,,,,,,,,,,,,,,,,,,,,,,,,,,,,,,,0.0,0.0,32.0,1.0,1.0,0.0,,,,,,,,,,,,,,,,,,,,,,,,,
44075,1645902734.887063,1645902734.888309,15.0,0.0,3438.461426,4298.461426,4268.717772999999,4268.717772999999,4231.282227000001,16160.0,1.0,15.0,,,,0.0,4.0,1.0,0.0,4.0,4.0,41.666668,,,,,,,,,,,,,,,,,,,,,,,,,,,,,,,,,,,,,,,,,,,,,,,,,,,,,,,,,,,,,,,,,,,,,,,,,,,,,,,,,,,,
44076,1645902734.894877,1645902734.8961241,16.0,0.0,3380.0,4264.615234000001,4254.871582,4257.94873,4216.410156,0.0,1.0,15.0,,,,0.0,4.0,1.0,0.0,4.0,4.0,41.666668,,,,,,,,8.0,0.0,0.712711,0.034912,0.673096,0.19433599999999998,0.948257,-0.314458,-0.092775,-0.021144,-0.030706,-0.013543000000000001,,,,,,,,,,,,,,,,,,,,,,,,,,,,,,,,,,,,,,,,,,,,,,,,,,,,,,,,,,,,,,,,,
44077,1645902734.902692,1645902734.903938,17.0,0.0,3318.974365,4237.94873,4258.974121,4172.820313,4192.307617,0.0,1.0,15.0,,,,0.0,4.0,1.0,0.0,4.0,4.0,41.666668,,,,,,,,,,,,,,,,,,,,,,,,,,,,,,,,,,,,,,,,,,,,,,,,,,,,,,,,,,,,,,,,,,,,,,,,,,,,,,,,,,,,
44078,1645902734.910506,1645902734.911753,18.0,0.0,3327.179443,4304.102539,4274.871582,4148.205078,4225.128418,0.0,1.0,15.0,,,,0.0,4.0,1.0,0.0,4.0,4.0,41.666668,,,,,,,,9.0,0.0,0.71248,0.034912,0.6733399999999999,0.19433599999999998,0.947768,-0.330571,-0.083497,-0.022155,-0.030614,-0.014484,,,,,,,,,,,,,,,,,,,,,,,,,,,,,,,,,,,0.0,0.0,32.0,1.0,1.0,0.0,,,,,,,,,,,,,,,,,,,,,,,,,
44079,1645902734.9183211,1645902734.919568,19.0,0.0,3340.0,4383.077147999999,4220.0,4191.282227000001,4241.025879,0.0,1.0,15.0,,,,0.0,4.0,1.0,0.0,4.0,4.0,41.666668,,,,,,,,,,,,,,,,,,,,,,,,,,,,,,,,,,,,,,,,,,,,,,,,,,,,,,,,,,,,,,,,,,,,,,,,,,,,,,,,,,,,
44080,1645902734.926135,1645902734.927382,20.0,0.0,3368.205078,4404.102539,4182.563965,4153.333496,4243.077147999999,0.0,1.0,15.0,,,,0.0,4.0,1.0,0.0,4.0,4.0,41.666668,,,,,,,,10.0,0.0,0.712468,0.035156,0.6733399999999999,0.19433599999999998,0.945327,-0.317388,-0.089357,-0.023162000000000002,-0.03058,-0.015428,,,,,,,,,,,,,,,,,,,,,,,,,,,,,,,,,,,,,,,,,,,,,,,,,,,,,,,,,,,,,,,,,
44081,1645902734.93395,1645902734.935197,21.0,0.0,3407.179443,4358.461426,4176.922852000001,4117.436035,4254.358886999999,0.0,1.0,15.0,,,,0.0,4.0,1.0,0.0,4.0,4.0,41.666668,,,,,,,,,,,,,,,,,,,,,,,,,,,,,,,,,,,,,,,,,,,,,,,,,,,,,,,,,,,,,,,,,,,,,,,,,,,,,,,,,,,,
44082,1645902734.941764,1645902734.9429119,22.0,0.0,3443.5898439999996,4376.410156,4196.922852000001,4156.410156,4245.641113000001,0.0,1.0,15.0,,,,0.0,4.0,1.0,0.0,4.0,4.0,41.666668,1.0,8.333333,0.0,1.0,0.0,3.0,3.0,11.0,0.0,0.712468,0.035156,0.6733399999999999,0.19433599999999998,0.952651,-0.309087,-0.09472799999999999,-0.02402,-0.030452,-0.016278,1.0,0.0,0.0,,,,,,,,,,,,,,,,,,,,,,,,,,,,,,,,0.0,0.0,32.0,0.433324,1.0,0.0,1211.8514400000001,36.083729,14.407425,13.522173,10.877792999999999,211.58808900000002,40.669094,37.240421000000005,32.679607,18.611147,31.966475,61.758423,19.288004,34.955276,34.209938,11.724964,10.736067,4.327708,13.554310999999998,4.107801,95.500069,28.388904999999998,7.140846000000001,7.476285000000001,3.502164
44083,1645902734.949579,1645902734.950726,23.0,0.0,3429.743652,4417.436035,4203.589844,4162.05127,4238.461426,0.0,1.0,15.0,,,,0.0,4.0,1.0,0.0,4.0,4.0,41.666668,,,,,,,,,,,,,,,,,,,,,,,,,,,,,,,,,,,,,,,,,,,,,,,,,,,,,,,,,,,,,,,,,,,,,,,,,,,,,,,,,,,,
44084,1645902734.957394,1645902734.958541,24.0,0.0,3405.1281740000004,4350.769043,4190.769043,4154.358886999999,4215.897461,0.0,1.0,15.0,,,,0.0,4.0,1.0,0.0,4.0,4.0,41.666668,,,,,,,,12.0,0.0,0.71248,0.034912,0.6733399999999999,0.19433599999999998,0.945815,-0.315923,-0.088869,-0.024888999999999998,-0.030433999999999996,-0.016944999999999998,,,,,,,,,,,,,,,,,,,,,,,,,,,,,,,,,,,,,,,,,,,,,,,,,,,,,,,,,,,,,,,,,
44085,1645902734.965208,1645902734.966356,25.0,0.0,3457.9487299999996,4312.820313,4121.538574,4158.974121,4227.692383,0.0,1.0,15.0,,,,0.0,4.0,1.0,0.0,4.0,4.0,41.666668,,,,,,,,,,,,,,,,,,,,,,,,,,,,,,,,,,,,,,,,,,,,,,,,,,,,,,,,,,,,,,,,,,,,,,,,,,,,,,,,,,,,
44086,1645902734.973023,1645902734.97417,26.0,0.0,3483.076904,4389.743652,4091.281982,4177.436035,4245.128418,0.0,1.0,15.0,,,,0.0,4.0,1.0,0.0,4.0,4.0,41.666668,,,,,,,,13.0,0.0,0.712547,0.034912,0.6733399999999999,0.19409200000000001,0.963882,-0.303716,-0.09472799999999999,-0.025623000000000003,-0.030418,-0.017594,,,,,,,,,,,,,,,,,,,,,,,,,,,,,,,,,,,0.0,0.0,32.0,0.433324,1.0,0.0,,,,,,,,,,,,,,,,,,,,,,,,,
44087,1645902734.9808369,1645902734.9819849,27.0,0.0,3496.4101560000004,4463.589844,4095.384521,4160.512695,4246.666504,0.0,1.0,15.0,,,,0.0,4.0,1.0,0.0,4.0,4.0,41.666668,,,,,,,,,,,,,,,,,,,,,,,,,,,,,,,,,,,,,,,,,,,,,,,,,,,,,,,,,,,,,,,,,,,,,,,,,,,,,,,,,,,,
44088,1645902734.988652,1645902734.9898,28.0,0.0,3481.025635,4441.538574,4086.6667479999996,4132.307617,4246.153809,0.0,1.0,15.0,,,,0.0,4.0,1.0,0.0,4.0,4.0,41.666668,,,,,,,,14.0,0.0,0.712547,0.034912,0.6733399999999999,0.19409200000000001,0.9585110000000001,-0.320317,-0.08838,-0.026137,-0.030452,-0.015005000000000001,,,,,,,,,,,,,,,,,,,,,,,,,,,,,,,,,,,,,,,,,,,,,,,,,,,,,,,,,,,,,,,,,
44089,1645902734.996466,1645902734.9976141,29.0,0.0,3482.0512700000004,4401.538574,4064.102539,4148.205078,4228.717772999999,0.0,1.0,15.0,,,,0.0,4.0,1.0,0.0,4.0,4.0,41.666668,,,,,,,,,,,,,,,,,,,,,,,,,,,,,,,,,,,,,,,,,,,,,,,,,,,,,,,,,,,,,,,,,,,,,,,,,,,,,,,,,,,,
44090,1645902735.004281,1645902735.0054288,30.0,0.0,3503.076904,4351.794922,4096.922852000001,4140.0,4214.358886999999,0.0,1.0,15.0,,,,0.0,4.0,1.0,0.0,4.0,4.0,41.666668,,,,,,,,15.0,0.0,0.712547,0.034912,0.6733399999999999,0.19409200000000001,0.9633940000000001,-0.327642,-0.099611,-0.026697000000000002,-0.030483,-0.015897,,,,,,,,,,,,,,,,,,,,,,,,,,,,,,,,,,,0.0,0.0,32.0,0.433324,1.0,0.0,,,,,,,,,,,,,,,,,,,,,,,,,
44091,1645902735.012095,1645902735.013144,31.0,0.0,3503.076904,4317.94873,4084.102539,4150.769043,4196.922852000001,0.0,1.0,15.0,,,,0.0,4.0,1.0,0.0,4.0,4.0,41.666668,,,,,,,,,,,,,,,,,,,,,,,,,,,,,,,,,,,,,,,,,,,,,,,,,,,,,,,,,,,,,,,,,,,,,,,,,,,,,,,,,,,,
44092,1645902735.0199099,1645902735.020958,32.0,0.0,3516.4101560000004,4344.102539,4069.2307130000004,4170.256348,4192.307617,0.0,1.0,15.0,,,,0.0,4.0,1.0,0.0,4.0,4.0,41.666668,,,,,,,,16.0,0.0,0.712547,0.034912,0.6733399999999999,0.19409200000000001,0.9506979999999999,-0.330083,-0.082521,-0.027201,-0.030560000000000004,-0.013673,,,,,,,,,,,,,,,,,,,,,,,,,,,,,,,,,,,,,,,,,,,,,,,,,,,,,,,,,,,,,,,,,
44093,1645902735.027724,1645902735.028773,33.0,0.0,3510.7692869999996,4341.538574,4110.769043,4193.333496,4214.871582,0.0,1.0,15.0,,,,0.0,4.0,1.0,0.0,4.0,4.0,41.666668,,,,,,,,,,,,,,,,,,,,,,,,,,,,,,,,,,,,,,,,,,,,,,,,,,,,,,,,,,,,,,,,,,,,,,,,,,,,,,,,,,,,
44094,1645902735.0355392,1645902735.0365882,34.0,0.0,3489.743652,4282.563965,4193.846191,4194.358886999999,4204.615234000001,0.0,1.0,15.0,,,,0.0,4.0,1.0,0.0,4.0,4.0,41.666668,,,,,,,,17.0,0.0,0.712535,0.035156,0.6733399999999999,0.19409200000000001,0.95314,-0.31201599999999996,-0.093751,-0.027752999999999996,-0.030531,-0.014698,,,,,,,,,,,,,,,,,,,,,,,,,,,,,,,,,,,0.0,0.0,32.0,0.433324,1.0,0.0,,,,,,,,,,,,,,,,,,,,,,,,,
44095,1645902735.0433528,1645902735.044402,35.0,0.0,3495.384521,4261.025879,4192.820313,4200.512695,4191.282227000001,0.0,1.0,15.0,,,,0.0,4.0,1.0,0.0,4.0,4.0,41.666668,,,,,,,,,,,,,,,,,,,,,,,,,,,,,,,,,,,,,,,,,,,,,,,,,,,,,,,,,,,,,,,,,,,,,,,,,,,,,,,,,,,,
44096,1645902735.051168,1645902735.052217,36.0,0.0,3509.2307130000004,4306.666504,4112.820313,4215.897461,4191.794922,0.0,1.0,15.0,,,,0.0,4.0,1.0,0.0,4.0,4.0,41.666668,,,,,,,,18.0,0.0,0.712601,0.035156,0.6733399999999999,0.193848,0.957534,-0.307622,-0.090822,-0.0282,-0.030506000000000002,-0.012398000000000001,,,,,,,,,,,,,,,,,,,,,,,,,,,,,,,,,,,,,,,,,,,,,,,,,,,,,,,,,,,,,,,,,
44097,1645902735.058983,1645902735.060031,37.0,0.0,3496.4101560000004,4368.205078,4153.333496,4205.128418,4210.256348,0.0,1.0,15.0,,,,0.0,4.0,1.0,0.0,4.0,4.0,41.666668,,,,,,,,,,,,,,,,,,,,,,,,,,,,,,,,,,,,,,,,,,,,,,,,,,,,,,,,,,,,,,,,,,,,,,,,,,,,,,,,,,,,
44098,1645902735.066797,1645902735.067846,38.0,0.0,3474.8718259999996,4343.589844,4193.333496,4202.563965,4205.641113000001,0.0,1.0,15.0,,,,0.0,4.0,1.0,0.0,4.0,4.0,41.666668,,,,,,,,19.0,0.0,0.712601,0.035156,0.6733399999999999,0.193848,0.956558,-0.31396999999999997,-0.095705,-0.028554000000000003,-0.03058,-0.013502000000000002,1.0,0.0,0.0,,,,,,,,,,,,,,,,,,,,,,,,,,,,,,,,0.0,0.0,32.0,0.08694500000000001,1.0,0.0,976.737,31.401932000000002,13.079576,12.91581,9.778467,174.327148,40.212738,31.526304,33.754929,18.87818,30.747639000000003,60.466995,22.429632,35.893229999999996,30.410615999999997,11.650335,12.103323,3.74375,14.53994,4.0042290000000005,74.406494,24.007401,8.163486,7.393764,3.5581940000000003
44099,1645902735.074612,1645902735.075661,39.0,0.0,3502.5642090000006,4288.717772999999,4194.871582,4197.436035,4188.717772999999,0.0,1.0,15.0,,,,0.0,4.0,1.0,0.0,4.0,4.0,41.666668,,,,,,,,,,,,,,,,,,,,,,,,,,,,,,,,,,,,,,,,,,,,,,,,,,,,,,,,,,,,,,,,,,,,,,,,,,,,,,,,,,,,
44100,1645902735.082426,1645902735.083575,40.0,0.0,3522.5642090000006,4339.487305,4198.974121,4162.563965,4202.05127,0.0,1.0,15.0,,,,0.0,4.0,1.0,0.0,4.0,4.0,41.666668,,,,,,,,20.0,0.0,0.712601,0.035156,0.6733399999999999,0.193848,0.961929,-0.31201599999999996,-0.093751,-0.028921,-0.030598,-0.014496,,,,,,,,,,,,,,,,,,,,,,,,,,,,,,,,,,,,,,,,,,,,,,,,,,,,,,,,,,,,,,,,,
44101,1645902735.090241,1645902735.0913901,41.0,0.0,3523.5898439999996,4466.666504,4174.358886999999,4138.974121,4222.05127,0.0,1.0,15.0,,,,0.0,4.0,1.0,0.0,4.0,4.0,41.666668,,,,,,,,,,,,,,,,,,,,,,,,,,,,,,,,,,,,,,,,,,,,,,,,,,,,,,,,,,,,,,,,,,,,,,,,,,,,,,,,,,,,
44102,1645902735.0980551,1645902735.099205,42.0,0.0,3540.0,4502.05127,4049.2307130000004,4129.230957,4229.743652,0.0,1.0,15.0,,,,0.0,4.0,1.0,0.0,4.0,4.0,41.666668,,,,,,,,21.0,0.0,0.712601,0.035156,0.6733399999999999,0.193848,0.953628,-0.307622,-0.082521,-0.02935,-0.030566000000000003,-0.015291999999999998,,,,,,,,,,,,,,,,,,,,,,,,,,,,,,,,,,,0.0,0.0,32.0,0.08694500000000001,1.0,0.0,,,,,,,,,,,,,,,,,,,,,,,,,
44103,1645902735.10587,1645902735.107019,43.0,0.0,3545.1281740000004,4425.128418,4041.025635,4124.102539,4205.128418,0.0,1.0,15.0,,,,0.0,4.0,1.0,0.0,4.0,4.0,41.666668,,,,,,,,,,,,,,,,,,,,,,,,,,,,,,,,,,,,,,,,,,,,,,,,,,,,,,,,,,,,,,,,,,,,,,,,,,,,,,,,,,,,
44104,1645902735.113685,1645902735.114834,44.0,0.0,3572.3076170000004,4427.179688,4075.384521,4121.025879,4212.307617,0.0,1.0,15.0,,,,0.0,4.0,1.0,0.0,4.0,4.0,41.666668,,,,,,,,22.0,0.0,0.712601,0.035156,0.6733399999999999,0.193848,0.951675,-0.32422399999999996,-0.098146,-0.029637,-0.030488,-0.013030000000000002,,,,,,,,,,,,,,,,,,,,,,,,,,,,,,,,,,,,,,,,,,,,,,,,,,,,,,,,,,,,,,,,,
44105,1645902735.121499,1645902735.122649,45.0,0.0,3588.718018,4484.615234000001,4052.3076170000004,4133.333496,4232.307617,0.0,1.0,15.0,,,,0.0,4.0,1.0,0.0,4.0,4.0,41.666668,,,,,,,,,,,,,,,,,,,,,,,,,,,,,,,,,,,,,,,,,,,,,,,,,,,,,,,,,,,,,,,,,,,,,,,,,,,,,,,,,,,,
44106,1645902735.129314,1645902735.1304631,46.0,0.0,3589.743652,4461.025879,4072.3076170000004,4150.769043,4230.769043,0.0,1.0,15.0,,,,0.0,4.0,1.0,0.0,4.0,4.0,41.666668,,,,,,,,23.0,0.0,0.712371,0.035156,0.673584,0.193848,0.960464,-0.31104,-0.080079,-0.029896,-0.030418,-0.014119999999999999,,,,,,,,,,,,,,,,,,,,,,,,,,,,,,,,,,,0.0,0.0,32.0,0.08694500000000001,1.0,0.0,,,,,,,,,,,,,,,,,,,,,,,,,
44107,1645902735.1371279,1645902735.138278,47.0,0.0,3582.5642090000006,4408.717772999999,4090.256348,4140.0,4200.512695,0.0,1.0,15.0,,,,0.0,4.0,1.0,0.0,4.0,4.0,41.666668,,,,,,,,,,,,,,,,,,,,,,,,,,,,,,,,,,,,,,,,,,,,,,,,,,,,,,,,,,,,,,,,,,,,,,,,,,,,,,,,,,,,
44108,1645902735.144943,1645902735.146092,48.0,0.0,3593.8461909999996,4452.820313,4067.179443,4121.025879,4199.487305,0.0,1.0,15.0,,,,0.0,4.0,1.0,0.0,4.0,4.0,41.666668,,,,,,,,24.0,0.0,0.712371,0.035156,0.673584,0.193848,0.9472799999999999,-0.318364,-0.085939,-0.030177999999999996,-0.030452,-0.015101,,,,,,,,,,,,,,,,,,,,,,,,,,,,,,,,,,,,,,,,,,,,,,,,,,,,,,,,,,,,,,,,,
44109,1645902735.152757,1645902735.153907,49.0,0.0,3595.384521,4493.846191,4075.897461,4131.282227000001,4213.846191,0.0,1.0,15.0,,,,0.0,4.0,1.0,0.0,4.0,4.0,41.666668,,,,,,,,,,,,,,,,,,,,,,,,,,,,,,,,,,,,,,,,,,,,,,,,,,,,,,,,,,,,,,,,,,,,,,,,,,,,,,,,,,,,
44110,1645902735.160572,1645902735.161622,50.0,0.0,3585.641113,4445.128418,4115.384765999999,4180.0,4227.692383,0.0,1.0,15.0,,,,0.0,4.0,1.0,0.0,4.0,4.0,41.666668,,,,,,,,25.0,0.0,0.712371,0.035156,0.673584,0.193848,0.9550930000000001,-0.323735,-0.088869,-0.030382999999999997,-0.030483,-0.015934,,,,,,,,,,,,,,,,,,,,,,,,,,,,,,,,,,,0.0,0.0,32.0,0.08694500000000001,1.0,0.0,,,,,,,,,,,,,,,,,,,,,,,,,
44111,1645902735.168386,1645902735.169437,51.0,0.0,3592.820557,4454.871582,4170.769043,4174.358886999999,4241.025879,0.0,1.0,15.0,,,,0.0,4.0,1.0,0.0,4.0,4.0,41.666668,,,,,,,,,,,,,,,,,,,,,,,,,,,,,,,,,,,,,,,,,,,,,,,,,,,,,,,,,,,,,,,,,,,,,,,,,,,,,,,,,,,,
44112,1645902735.1762009,1645902735.1772509,52.0,0.0,3606.1538090000004,4485.641113000001,4240.0,4138.974121,4248.205078,0.0,1.0,15.0,,,,0.0,4.0,1.0,0.0,4.0,4.0,41.666668,,,,,,,,26.0,0.0,0.712371,0.035156,0.673584,0.193848,0.944839,-0.299321,-0.091798,-0.03047,-0.030462,-0.013609,,,,,,,,,,,,,,,,,,,,,,,,,,,,,,,,,,,,,,,,,,,,,,,,,,,,,,,,,,,,,,,,,
44113,1645902735.184015,1645902735.185066,53.0,0.0,3572.820557,4460.0,4256.410156,4174.871582,4225.128418,0.0,1.0,15.0,,,,0.0,4.0,1.0,0.0,4.0,4.0,41.666668,,,,,,,,,,,,,,,,,,,,,,,,,,,,,,,,,,,,,,,,,,,,,,,,,,,,,,,,,,,,,,,,,,,,,,,,,,,,,,,,,,,,
44114,1645902735.1918302,1645902735.1928802,54.0,0.0,3543.076904,4469.230957,4287.692383,4226.153809,4217.436035,0.0,1.0,15.0,,,,0.0,4.0,1.0,0.0,4.0,4.0,41.666668,,,,,,,,27.0,0.0,0.712371,0.035156,0.673584,0.193848,0.956558,-0.31299299999999997,-0.08691499999999999,-0.030792,-0.030443,-0.01132,1.0,0.0,0.0,,,,,,,,,,,,,,,,,,,,,,,,,,,,,,,,0.0,0.0,1.0,0.0,512.0,0.335358,670.4666139999999,27.638258,11.090847,12.014783,8.376358999999999,133.012085,41.629604,24.270132,34.078495000000004,18.848608,29.708525,58.129864000000005,24.576878,37.151367,26.645737,11.812337,13.011172,3.3060199999999997,15.197029,4.138276,51.757744,18.509966,8.838743,6.739667,3.59686
44115,1645902735.1996439,1645902735.200695,55.0,0.0,3574.358887,4440.512695,4290.256348,4218.461426,4218.461426,0.0,1.0,15.0,,,,0.0,4.0,1.0,0.0,4.0,4.0,41.666668,,,,,,,,,,,,,,,,,,,,,,,,,,,,,,,,,,,,,,,,,,,,,,,,,,,,,,,,,,,,,,,,,,,,,,,,,,,,,,,,,,,,
44116,1645902735.207459,1645902735.20851,56.0,0.0,3616.4101560000004,4372.307617,4203.077147999999,4196.922852000001,4183.589844,0.0,1.0,15.0,,,,0.0,4.0,1.0,0.0,4.0,4.0,41.666668,,,,,,,,28.0,0.0,0.712371,0.035156,0.673584,0.193848,0.9594870000000001,-0.316411,-0.101564,-0.030887,-0.030573000000000003,-0.012678,,,,,,,,,,,,,,,,,,,,,,,,,,,,,,,,,,,,,,,,,,,,,,,,,,,,,,,,,,,,,,,,,
44117,1645902735.215274,1645902735.216324,57.0,0.0,3628.205078,4369.230957,4061.538574,4185.641113000001,4173.333496,0.0,1.0,15.0,,,,0.0,4.0,1.0,0.0,4.0,4.0,41.666668,,,,,,,,,,,,,,,,,,,,,,,,,,,,,,,,,,,,,,,,,,,,,,,,,,,,,,,,,,,,,,,,,,,,,,,,,,,,,,,,,,,,
44118,1645902735.223088,1645902735.224139,58.0,0.0,3645.1281740000004,4411.794922,4029.2307130000004,4158.461426,4208.205078,0.0,1.0,15.0,,,,0.0,4.0,1.0,0.0,4.0,4.0,41.666668,,,,,,,,29.0,0.0,0.7126680000000001,0.035156,0.6733399999999999,0.193604,0.945327,-0.319829,-0.101564,-0.031020999999999996,-0.030494,-0.013900999999999998,,,,,,,,,,,,,,,,,,,,,,,,,,,,,,,,,,,0.0,0.0,1.0,0.0,512.0,0.335358,,,,,,,,,,,,,,,,,,,,,,,,,
44119,1645902735.230903,1645902735.231854,59.0,0.0,3652.3076170000004,4442.563965,4051.281982,4129.743652,4222.05127,0.0,1.0,15.0,,,,0.0,4.0,1.0,0.0,4.0,4.0,41.666668,,,,,,,,,,,,,,,,,,,,,,,,,,,,,,,,,,,,,,,,,,,,,,,,,,,,,,,,,,,,,,,,,,,,,,,,,,,,,,,,,,,,
44120,1645902735.238717,1645902735.239668,60.0,0.0,3644.615479,4445.128418,4118.461426,4119.487305,4200.0,0.0,1.0,15.0,,,,0.0,4.0,1.0,0.0,4.0,4.0,41.666668,,,,,,,,30.0,0.0,0.7126560000000001,0.0354,0.6733399999999999,0.193604,0.944839,-0.332036,-0.09033300000000001,-0.031093,-0.030374,-0.014903,,,,,,,,,,,,,,,,,,,,,,,,,,,,,,,,,,,,,,,,,,,,,,,,,,,,,,,,,,,,,,,,,
44121,1645902735.246532,1645902735.247483,61.0,0.0,3643.076904,4388.717772999999,4161.538574,4157.94873,4222.563965,0.0,1.0,15.0,,,,0.0,4.0,1.0,0.0,4.0,4.0,41.666668,,,,,,,,,,,,,,,,,,,,,,,,,,,,,,,,,,,,,,,,,,,,,,,,,,,,,,,,,,,,,,,,,,,,,,,,,,,,,,,,,,,,
44122,1645902735.2543461,1645902735.2552981,62.0,0.0,3583.5898439999996,4407.179688,4252.820313,4219.487305,4245.641113000001,0.0,1.0,15.0,,,,0.0,4.0,1.0,0.0,4.0,4.0,41.666668,,,,,,,,31.0,0.0,0.7126560000000001,0.0354,0.6733399999999999,0.193604,0.95314,-0.30811,-0.09131,-0.031206,-0.030462,-0.012631999999999999,,,,,,,,,,,,,,,,,,,,,,,,,,,,,,,,,,,0.0,0.0,1.0,0.0,512.0,0.335358,,,,,,,,,,,,,,,,,,,,,,,,,
44123,1645902735.262161,1645902735.2631118,63.0,0.0,3548.718018,4488.717772999999,4316.410156,4249.743652,4196.410156,0.0,1.0,15.0,,,,0.0,4.0,1.0,0.0,4.0,4.0,41.666668,,,,,,,,,,,,,,,,,,,,,,,,,,,,,,,,,,,,,,,,,,,,,,,,,,,,,,,,,,,,,,,,,,,,,,,,,,,,,,,,,,,,
44124,1645902735.269975,1645902735.270927,64.0,0.0,3586.6667479999996,4395.384765999999,4269.230957,4240.0,4146.666504,450.0,1.0,15.0,,,,0.0,4.0,1.0,0.0,4.0,4.0,41.666668,,,,,,,,32.0,0.0,0.7127220000000001,0.0354,0.6733399999999999,0.193359,0.95314,-0.320317,-0.083986,-0.028133999999999996,-0.030492000000000002,-0.013761,,,,,,,,,,,,,,,,,,,,,,,,,,,,,,,,,,,,,,,,,,,,,,,,,,,,,,,,,,,,,,,,,
44125,1645902735.27779,1645902735.278742,65.0,0.0,3643.5898439999996,4324.615234000001,4202.05127,4253.846191,4183.589844,450.0,1.0,15.0,,,,0.0,4.0,1.0,0.0,4.0,4.0,41.666668,,,,,,,,,,,,,,,,,,,,,,,,,,,,,,,,,,,,,,,,,,,,,,,,,,,,,,,,,,,,,,,,,,,,,,,,,,,,,,,,,,,,
44126,1645902735.2856052,1645902735.286556,66.0,0.0,3654.8718259999996,4402.563965,4138.974121,4221.538574,4195.384765999999,16194.0,1.0,15.0,,,,0.0,4.0,1.0,0.0,4.0,4.0,41.666668,,,,,,,,33.0,0.0,0.712952,0.0354,0.673096,0.193359,0.961929,-0.299809,-0.096193,-0.02537,-0.030519,-0.014825999999999999,,,,,,,,,,,,,,,,,,,,,,,,,,,,,,,,,,,0.0,0.0,1.0,0.0,512.0,0.335358,,,,,,,,,,,,,,,,,,,,,,,,,
44127,1645902735.293419,1645902735.2943711,67.0,0.0,3645.1281740000004,4420.512695,4061.538574,4143.077147999999,4152.307617,450.0,1.0,15.0,,,,0.0,4.0,1.0,0.0,4.0,4.0,41.666668,,,,,,,,,,,,,,,,,,,,,,,,,,,,,,,,,,,,,,,,,,,,,,,,,,,,,,,,,,,,,,,,,,,,,,,,,,,,,,,,,,,,
44128,1645902735.301234,1645902735.302285,68.0,0.0,3658.461426,4374.871582,4038.974365,4119.487305,4131.282227000001,210.0,1.0,15.0,,,,0.0,4.0,2.0,0.0,4.0,4.0,50.0,,,,,,,,34.0,0.0,0.712952,0.0354,0.673096,0.193359,0.947768,-0.310552,-0.098146,-0.025958,-0.030543,-0.015688,,,,,,,,,,,,,,,,,,,,,,,,,,,,,,,,,,,,,,,,,,,,,,,,,,,,,,,,,,,,,,,,,
44129,1645902735.309048,1645902735.3101,69.0,0.0,3690.256348,4394.871582,4104.615234000001,4161.538574,4166.666504,450.0,1.0,15.0,,,,0.0,4.0,2.0,0.0,4.0,4.0,50.0,,,,,,,,,,,,,,,,,,,,,,,,,,,,,,,,,,,,,,,,,,,,,,,,,,,,,,,,,,,,,,,,,,,,,,,,,,,,,,,,,,,,
44130,1645902735.316863,1645902735.317915,70.0,0.0,3671.281982,4436.410156,4143.077147999999,4175.384765999999,4198.974121,3.0,1.0,15.0,,,,0.0,4.0,2.0,0.0,4.0,4.0,50.0,,,,,,,,35.0,0.0,0.7127220000000001,0.0354,0.6733399999999999,0.193359,0.95314,-0.320317,-0.083986,-0.026536,-0.030663,-0.016463,1.0,0.0,0.0,,,,,,,,,,,,,,,,,,,,,,,,,,,,,,,,0.0,0.0,1.0,0.0,512.0,0.306543,379.63919100000004,27.272554,8.946439,11.202745,7.063916000000001,100.432716,45.250984,17.627119,33.339996,18.61853,31.717857000000002,58.211643,25.561035,38.075462,23.1108,13.022614,13.533288,3.385393,15.652454999999998,4.471467,32.80896,13.656766000000001,8.988817,5.723629,3.624504
44131,1645902735.324677,1645902735.325729,71.0,0.0,3632.820557,4453.846191,4211.282227000001,4153.846191,4195.384765999999,450.0,1.0,15.0,,,,0.0,4.0,2.0,0.0,4.0,4.0,50.0,,,,,,,,,,,,,,,,,,,,,,,,,,,,,,,,,,,,,,,,,,,,,,,,,,,,,,,,,,,,,,,,,,,,,,,,,,,,,,,,,,,,
44132,1645902735.3324919,1645902735.333544,72.0,0.0,3673.3332520000004,4446.153809,4268.717772999999,4180.0,4210.256348,450.0,1.0,15.0,,,,0.0,4.0,2.0,0.0,4.0,4.0,50.0,,,,,,,,36.0,0.0,0.712952,0.0354,0.673096,0.193359,0.947768,-0.310552,-0.098146,-0.027007,-0.030673000000000002,-0.017159999999999998,,,,,,,,,,,,,,,,,,,,,,,,,,,,,,,,,,,,,,,,,,,,,,,,,,,,,,,,,,,,,,,,,
44133,1645902735.340306,1645902735.341359,73.0,0.0,3704.102539,4412.307617,4305.128418,4220.0,4234.871582,16149.0,1.0,15.0,,,,0.0,4.0,2.0,0.0,4.0,4.0,50.0,,,,,,,,,,,,,,,,,,,,,,,,,,,,,,,,,,,,,,,,,,,,,,,,,,,,,,,,,,,,,,,,,,,,,,,,,,,,,,,,,,,,
44134,1645902735.3481212,1645902735.349173,74.0,0.0,3689.743652,4390.256348,4265.128418,4202.563965,4217.436035,450.0,1.0,15.0,,,,0.0,4.0,2.0,0.0,4.0,4.0,50.0,,,,,,,,37.0,0.0,0.712952,0.0354,0.673096,0.193359,0.946792,-0.31787600000000005,-0.08447400000000001,-0.02748,-0.030779,-0.017787999999999998,,,,,,,,,,,,,,,,,,,,,,,,,,,,,,,,,,,0.0,0.0,1.0,0.0,512.0,0.306543,,,,,,,,,,,,,,,,,,,,,,,,,
44135,1645902735.3559349,1645902735.3569882,75.0,0.0,3704.615479,4335.897461,4171.794922,4165.641113000001,4170.256348,16179.0,1.0,15.0,,,,0.0,4.0,2.0,0.0,4.0,4.0,50.0,,,,,,,,,,,,,,,,,,,,,,,,,,,,,,,,,,,,,,,,,,,,,,,,,,,,,,,,,,,,,,,,,,,,,,,,,,,,,,,,,,,,
44136,1645902735.36375,1645902735.3648028,76.0,0.0,3727.179443,4325.128418,4088.205078,4179.487305,4202.563965,450.0,1.0,15.0,,,,0.0,4.0,2.0,0.0,4.0,4.0,50.0,,,,,,,,38.0,0.0,0.713019,0.0354,0.673096,0.193115,0.957534,-0.31104,-0.076661,-0.027906,-0.030777999999999996,-0.018255,,,,,,,,,,,,,,,,,,,,,,,,,,,,,,,,,,,,,,,,,,,,,,,,,,,,,,,,,,,,,,,,,
44137,1645902735.371565,1645902735.372717,77.0,0.0,3708.205078,4434.358886999999,4089.2307130000004,4190.256348,4249.743652,450.0,1.0,15.0,,,,0.0,4.0,2.0,0.0,4.0,4.0,50.0,,,,,,,,,,,,,,,,,,,,,,,,,,,,,,,,,,,,,,,,,,,,,,,,,,,,,,,,,,,,,,,,,,,,,,,,,,,,,,,,,,,,
44138,1645902735.3793788,1645902735.380532,78.0,0.0,3678.461426,4452.307617,4093.3332520000004,4168.205078,4220.0,450.0,1.0,15.0,,,,0.0,4.0,2.0,0.0,4.0,4.0,50.0,,,,,,,,39.0,0.0,0.713006,0.035644999999999996,0.673096,0.193115,0.9463030000000001,-0.318853,-0.09472799999999999,-0.02829,-0.030726999999999997,-0.0156,,,,,,,,,,,,,,,,,,,,,,,,,,,,,,,,,,,0.0,0.0,1.0,0.0,512.0,0.306543,,,,,,,,,,,,,,,,,,,,,,,,,
44139,1645902735.387194,1645902735.3883462,79.0,0.0,3621.025635,4374.358886999999,4195.897461,4171.794922,4169.230957,16179.0,1.0,15.0,,,,0.0,4.0,2.0,0.0,4.0,4.0,50.0,,,,,,,,,,,,,,,,,,,,,,,,,,,,,,,,,,,,,,,,,,,,,,,,,,,,,,,,,,,,,,,,,,,,,,,,,,,,,,,,,,,,
44140,1645902735.395008,1645902735.3961608,80.0,0.0,3626.1538090000004,4429.230957,4286.666504,4201.025879,4168.205078,450.0,1.0,15.0,,,,0.0,4.0,2.0,0.0,4.0,4.0,50.0,,,,,,,,40.0,0.0,0.713019,0.0354,0.673096,0.193115,0.9712059999999999,-0.305669,-0.098146,-0.028682999999999997,-0.030583999999999997,-0.016432,,,,,,,,,,,,,,,,,,,,,,,,,,,,,,,,,,,,,,,,,,,,,,,,,,,,,,,,,,,,,,,,,
44141,1645902735.402823,1645902735.403976,81.0,0.0,3723.076904,4502.05127,4140.512695,4187.692383,4167.179688,450.0,1.0,15.0,,,,0.0,4.0,2.0,0.0,4.0,4.0,50.0,,,,,,,,,,,,,,,,,,,,,,,,,,,,,,,,,,,,,,,,,,,,,,,,,,,,,,,,,,,,,,,,,,,,,,,,,,,,,,,,,,,,
44142,1645902735.410637,1645902735.4117901,82.0,0.0,3778.974365,4449.743652,3990.7692869999996,4162.05127,4178.974121,450.0,1.0,15.0,,,,0.0,4.0,2.0,0.0,4.0,4.0,50.0,,,,,,,,41.0,0.0,0.713019,0.0354,0.673096,0.193115,0.961929,-0.300786,-0.09765800000000001,-0.028988999999999997,-0.030552999999999997,-0.017230000000000002,,,,,,,,,,,,,,,,,,,,,,,,,,,,,,,,,,,0.0,0.0,1.0,0.0,512.0,0.306543,,,,,,,,,,,,,,,,,,,,,,,,,
44143,1645902735.418452,1645902735.419605,83.0,0.0,3753.8461909999996,4433.333496,4088.205078,4155.384765999999,4221.025879,16179.0,1.0,15.0,,,,0.0,4.0,2.0,0.0,4.0,4.0,50.0,,,,,,,,,,,,,,,,,,,,,,,,,,,,,,,,,,,,,,,,,,,,,,,,,,,,,,,,,,,,,,,,,,,,,,,,,,,,,,,,,,,,
44144,1645902735.426266,1645902735.42742,84.0,0.0,3751.281982,4468.717772999999,4209.230957,4163.077147999999,4241.025879,450.0,1.0,15.0,,,,0.0,4.0,2.0,0.0,4.0,4.0,50.0,,,,,,,,42.0,0.0,0.713019,0.0354,0.673096,0.193115,0.965835,-0.309087,-0.089357,-0.029410000000000002,-0.030525,-0.017949,,,,,,,,,,,,,,,,,,,,,,,,,,,,,,,,,,,,,,,,,,,,,,,,,,,,,,,,,,,,,,,,,
44145,1645902735.434081,1645902735.435234,85.0,0.0,3729.743652,4400.0,4214.358886999999,4161.538574,4195.897461,450.0,1.0,15.0,,,,0.0,4.0,2.0,0.0,4.0,4.0,50.0,,,,,,,,,,,,,,,,,,,,,,,,,,,,,,,,,,,,,,,,,,,,,,,,,,,,,,,,,,,,,,,,,,,,,,,,,,,,,,,,,,,,
44146,1645902735.441895,1645902735.443049,86.0,0.0,3680.0,4324.615234000001,4291.282227000001,4193.846191,4170.769043,450.0,1.0,15.0,,,,0.0,4.0,2.0,0.0,4.0,4.0,50.0,1.0,8.333333,0.0,1.0,0.0,3.0,3.0,43.0,0.0,0.7133149999999999,0.0354,0.672852,0.19287100000000001,0.9521629999999999,-0.31104,-0.095705,-0.029594,-0.030451,-0.015373,1.0,0.0,0.0,,,,,,,,,,,,,,,,,,,,,,,,,,,,,,,,0.0,0.0,1.0,0.0,512.0,0.273949,173.905624,30.837317,7.159066,10.596239,6.033917,84.14102199999999,49.816971,13.463157999999998,31.593203999999997,18.381388,39.200771,63.32018299999999,26.16206,38.055195,19.843037,15.925569,13.915873000000001,4.195487,15.953024,4.862352,20.495926,10.432675999999999,8.620296000000002,4.647913,3.6095300000000003
44147,1645902735.44971,1645902735.4507642,87.0,0.0,3693.8461909999996,4338.974121,4295.897461,4220.512695,4191.282227000001,16179.0,1.0,15.0,,,,0.0,4.0,2.0,0.0,4.0,4.0,50.0,,,,,,,,,,,,,,,,,,,,,,,,,,,,,,,,,,,,,,,,,,,,,,,,,,,,,,,,,,,,,,,,,,,,,,,,,,,,,,,,,,,,
44148,1645902735.457524,1645902735.4585779,88.0,0.0,3750.256348,4423.077147999999,4185.641113000001,4170.769043,4195.897461,450.0,1.0,15.0,,,,0.0,4.0,2.0,0.0,4.0,4.0,50.0,,,,,,,,44.0,0.0,0.7133149999999999,0.0354,0.672852,0.19287100000000001,0.9677879999999999,-0.30518,-0.088869,-0.029906,-0.030385000000000002,-0.013005000000000001,,,,,,,,,,,,,,,,,,,,,,,,,,,,,,,,,,,,,,,,,,,,,,,,,,,,,,,,,,,,,,,,,
44149,1645902735.465339,1645902735.466393,89.0,0.0,3750.7692869999996,4514.358886999999,4141.025879,4133.846191,4182.563965,450.0,1.0,15.0,,,,0.0,4.0,2.0,0.0,4.0,4.0,50.0,,,,,,,,,,,,,,,,,,,,,,,,,,,,,,,,,,,,,,,,,,,,,,,,,,,,,,,,,,,,,,,,,,,,,,,,,,,,,,,,,,,,
44150,1645902735.4731538,1645902735.474208,90.0,0.0,3698.461426,4505.128418,4284.615234000001,4184.615234000001,4189.743652,450.0,1.0,15.0,,,,0.0,4.0,2.0,0.0,4.0,4.0,50.0,,,,,,,,45.0,0.0,0.7133149999999999,0.0354,0.672852,0.19287100000000001,0.953628,-0.31396999999999997,-0.10351700000000001,-0.030236000000000002,-0.030374,-0.014,,,,,,,,,,,,,,,,,,,,,,,,,,,,,,,,,,,0.0,0.0,1.0,0.0,512.0,0.273949,,,,,,,,,,,,,,,,,,,,,,,,,
44151,1645902735.480968,1645902735.482022,91.0,0.0,3721.538574,4443.077147999999,4301.025879,4219.487305,4227.179688,16179.0,1.0,15.0,,,,0.0,4.0,2.0,0.0,4.0,4.0,50.0,,,,,,,,,,,,,,,,,,,,,,,,,,,,,,,,,,,,,,,,,,,,,,,,,,,,,,,,,,,,,,,,,,,,,,,,,,,,,,,,,,,,
44152,1645902735.4887831,1645902735.489837,92.0,0.0,3820.0,4465.641113000001,4154.871582,4172.820313,4229.743652,450.0,1.0,15.0,,,,0.0,4.0,2.0,0.0,4.0,4.0,50.0,,,,,,,,46.0,0.0,0.713611,0.0354,0.672607,0.192627,0.9487450000000001,-0.307622,-0.099611,-0.030386,-0.030364,-0.011819,,,,,,,,,,,,,,,,,,,,,,,,,,,,,,,,,,,,,,,,,,,,,,,,,,,,,,,,,,,,,,,,,
44153,1645902735.496597,1645902735.497652,93.0,0.0,3829.2307130000004,4494.358886999999,4090.7692869999996,4155.897461,4233.333496,450.0,1.0,15.0,,,,0.0,4.0,2.0,0.0,4.0,4.0,50.0,,,,,,,,,,,,,,,,,,,,,,,,,,,,,,,,,,,,,,,,,,,,,,,,,,,,,,,,,,,,,,,,,,,,,,,,,,,,,,,,,,,,
44154,1645902735.504412,1645902735.505466,94.0,0.0,3708.718018,4459.487305,4210.769043,4189.230957,4243.589844,450.0,1.0,15.0,,,,0.0,4.0,2.0,0.0,4.0,4.0,50.0,,,,,,,,47.0,0.0,0.7133689999999999,0.035644999999999996,0.672852,0.192627,0.9555809999999999,-0.313481,-0.101076,-0.030522000000000004,-0.030404,-0.013028999999999999,,,,,,,,,,,,,,,,,,,,,,,,,,,,,,,,,,,0.0,0.0,1.0,0.0,512.0,0.273949,,,,,,,,,,,,,,,,,,,,,,,,,
44155,1645902735.5122259,1645902735.513281,95.0,0.0,3700.512939,4503.589844,4275.384765999999,4204.102539,4229.230957,16179.0,1.0,15.0,,,,0.0,4.0,2.0,0.0,4.0,4.0,50.0,,,,,,,,,,,,,,,,,,,,,,,,,,,,,,,,,,,,,,,,,,,,,,,,,,,,,,,,,,,,,,,,,,,,,,,,,,,,,,,,,,,,
44156,1645902735.520041,1645902735.521195,96.0,0.0,3803.076904,4522.05127,4151.282227000001,4166.666504,4172.820313,450.0,1.0,15.0,,,,0.0,4.0,2.0,0.0,4.0,4.0,50.0,,,,,,,,48.0,0.0,0.7133689999999999,0.035644999999999996,0.672852,0.192627,0.9594870000000001,-0.31201599999999996,-0.087404,-0.030594999999999997,-0.030438999999999997,-0.010896,,,,,,,,,,,,,,,,,,,,,,,,,,,,,,,,,,,,,,,,,,,,,,,,,,,,,,,,,,,,,,,,,
44157,1645902735.527856,1645902735.52901,97.0,0.0,3841.025635,4431.794922,4026.6667479999996,4150.256348,4167.179688,450.0,1.0,15.0,,,,0.0,4.0,2.0,0.0,4.0,4.0,50.0,,,,,,,,,,,,,,,,,,,,,,,,,,,,,,,,,,,,,,,,,,,,,,,,,,,,,,,,,,,,,,,,,,,,,,,,,,,,,,,,,,,,
44158,1645902735.5356698,1645902735.536825,98.0,0.0,3805.1281740000004,4422.563965,4052.820557,4169.230957,4232.307617,450.0,1.0,15.0,,,,0.0,4.0,2.0,0.0,4.0,4.0,50.0,,,,,,,,49.0,0.0,0.713138,0.035644999999999996,0.673096,0.192627,0.9589989999999999,-0.314458,-0.07910299999999999,-0.030807,-0.030472000000000003,-0.009123000000000001,,,,,,,,,,,,,,,,,,,,,,,,,,,,,,,,,,,0.0,0.0,1.0,0.0,512.0,0.273949,,,,,,,,,,,,,,,,,,,,,,,,,
44159,1645902735.543485,1645902735.544639,99.0,0.0,3790.7692869999996,4465.128418,4161.025879,4182.05127,4260.0,16179.0,1.0,15.0,,,,0.0,4.0,2.0,0.0,4.0,4.0,50.0,,,,,,,,,,,,,,,,,,,,,,,,,,,,,,,,,,,,,,,,,,,,,,,,,,,,,,,,,,,,,,,,,,,,,,,,,,,,,,,,,,,,
44160,1645902735.551299,1645902735.552454,100.0,0.0,3769.2307130000004,4369.230957,4200.512695,4198.974121,4208.205078,450.0,1.0,15.0,,,,0.0,4.0,2.0,0.0,4.0,4.0,50.0,,,,,,,,50.0,0.0,0.713138,0.035644999999999996,0.673096,0.192627,0.951675,-0.291997,-0.082521,-0.030949,-0.030501,-0.007381,,,,,,,,,,,,,,,,,,,,,,,,,,,,,,,,,,,,,,,,,,,,,,,,,,,,,,,,,,,,,,,,,
44161,1645902735.559114,1645902735.5602689,101.0,0.0,3749.2307130000004,4323.589844,4189.230957,4236.410156,4156.410156,450.0,1.0,15.0,,,,0.0,4.0,2.0,0.0,4.0,4.0,50.0,,,,,,,,,,,,,,,,,,,,,,,,,,,,,,,,,,,,,,,,,,,,,,,,,,,,,,,,,,,,,,,,,,,,,,,,,,,,,,,,,,,,
44162,1645902735.566928,1645902735.568083,102.0,0.0,3789.2307130000004,4429.743652,4151.282227000001,4190.769043,4161.025879,450.0,1.0,15.0,,,,0.0,4.0,2.0,0.0,4.0,4.0,50.0,,,,,,,,51.0,0.0,0.713138,0.035644999999999996,0.673096,0.192627,0.9521629999999999,-0.309575,-0.09033300000000001,-0.031076,-0.030527,-0.008986,1.0,0.0,0.0,,,,,,,,,,,,,,,,,,,,,,,,,,,,,,,,0.0,0.0,1.0,0.0,512.0,0.230498,70.001801,36.641242999999996,6.190539,10.091025,5.271672,83.5215,52.798869999999994,12.460465,29.016787,18.282198,53.063274,74.056793,29.276995,36.708984,16.873520000000003,20.29896,14.447889000000002,6.12035,16.012064000000002,5.143441,13.95694,8.941903,7.945328,3.7550779999999997,3.519399
44163,1645902735.574743,1645902735.575898,103.0,0.0,3817.9487299999996,4452.307617,4138.461426,4122.05127,4193.846191,16179.0,1.0,15.0,,,,0.0,4.0,2.0,0.0,4.0,4.0,50.0,,,,,,,,,,,,,,,,,,,,,,,,,,,,,,,,,,,,,,,,,,,,,,,,,,,,,,,,,,,,,,,,,,,,,,,,,,,,,,,,,,,,
44164,1645902735.582557,1645902735.583713,104.0,0.0,3796.923096,4386.666504,4192.820313,4157.94873,4204.102539,450.0,1.0,15.0,,,,0.0,4.0,2.0,0.0,4.0,4.0,50.0,,,,,,,,52.0,0.0,0.713126,0.035889,0.673096,0.192627,0.949722,-0.31787600000000005,-0.09131,-0.031192,-0.03055,-0.007404000000000001,,,,,,,,,,,,,,,,,,,,,,,,,,,,,,,,,,,,,,,,,,,,,,,,,,,,,,,,,,,,,,,,,
44165,1645902735.590372,1645902735.591627,105.0,0.0,3785.641113,4377.94873,4258.461426,4207.179688,4170.256348,450.0,1.0,15.0,,,,0.0,4.0,2.0,0.0,4.0,4.0,50.0,,,,,,,,,,,,,,,,,,,,,,,,,,,,,,,,,,,,,,,,,,,,,,,,,,,,,,,,,,,,,,,,,,,,,,,,,,,,,,,,,,,,
44166,1645902735.598186,1645902735.599442,106.0,0.0,3812.820557,4409.743652,4161.538574,4173.333496,4149.230957,450.0,1.0,15.0,,,,0.0,4.0,2.0,0.0,4.0,4.0,50.0,,,,,,,,53.0,0.0,0.71306,0.035889,0.673096,0.19287100000000001,0.9506979999999999,-0.316411,-0.101564,-0.031294999999999996,-0.030425,-0.008860999999999999,,,,,,,,,,,,,,,,,,,,,,,,,,,,,,,,,,,0.0,0.0,1.0,0.0,512.0,0.230498,,,,,,,,,,,,,,,,,,,,,,,,,
44167,1645902735.606001,1645902735.607256,107.0,0.0,3842.0512700000004,4483.077147999999,4082.5642090000006,4113.846191,4203.077147999999,16179.0,1.0,15.0,,,,0.0,4.0,2.0,0.0,4.0,4.0,50.0,,,,,,,,,,,,,,,,,,,,,,,,,,,,,,,,,,,,,,,,,,,,,,,,,,,,,,,,,,,,,,,,,,,,,,,,,,,,,,,,,,,,
44168,1645902735.613815,1645902735.615071,108.0,0.0,3840.512939,4486.666504,4142.05127,4144.102539,4240.512695,450.0,1.0,15.0,,,,0.0,4.0,2.0,0.0,4.0,4.0,50.0,,,,,,,,54.0,0.0,0.71306,0.035889,0.673096,0.19287100000000001,0.9580219999999999,-0.316411,-0.09668099999999999,-0.031388,-0.030507999999999997,-0.007291,,,,,,,,,,,,,,,,,,,,,,,,,,,,,,,,,,,,,,,,,,,,,,,,,,,,,,,,,,,,,,,,,
44169,1645902735.6216302,1645902735.622886,109.0,0.0,3792.3076170000004,4383.077147999999,4271.282227000001,4230.256348,4170.256348,450.0,1.0,15.0,,,,0.0,4.0,2.0,0.0,4.0,4.0,50.0,,,,,,,,,,,,,,,,,,,,,,,,,,,,,,,,,,,,,,,,,,,,,,,,,,,,,,,,,,,,,,,,,,,,,,,,,,,,,,,,,,,,
44170,1645902735.629444,1645902735.6307,110.0,0.0,3810.7692869999996,4356.922852000001,4261.025879,4247.179688,4149.230957,450.0,1.0,15.0,,,,0.0,4.0,2.0,0.0,4.0,4.0,50.0,,,,,,,,55.0,0.0,0.7130479999999999,0.036133,0.673096,0.19287100000000001,0.9589989999999999,-0.314458,-0.107424,-0.031472,-0.030387,-0.009004,,,,,,,,,,,,,,,,,,,,,,,,,,,,,,,,,,,0.0,0.0,1.0,0.0,512.0,0.230498,,,,,,,,,,,,,,,,,,,,,,,,,
44171,1645902735.637259,1645902735.638515,111.0,0.0,3907.6923829999996,4346.666504,4131.282227000001,4184.615234000001,4205.128418,16179.0,1.0,15.0,,,,0.0,4.0,2.0,0.0,4.0,4.0,50.0,,,,,,,,,,,,,,,,,,,,,,,,,,,,,,,,,,,,,,,,,,,,,,,,,,,,,,,,,,,,,,,,,,,,,,,,,,,,,,,,,,,,
44172,1645902735.6450741,1645902735.64633,112.0,0.0,3918.461426,4291.282227000001,4044.102539,4157.436035,4224.102539,450.0,1.0,15.0,,,,0.0,4.0,2.0,0.0,4.0,4.0,50.0,,,,,,,,56.0,0.0,0.712982,0.036133,0.673096,0.193115,0.9511860000000001,-0.31299299999999997,-0.085939,-0.031548,-0.030277999999999996,-0.00742,,,,,,,,,,,,,,,,,,,,,,,,,,,,,,,,,,,,,,,,,,,,,,,,,,,,,,,,,,,,,,,,,
44173,1645902735.652888,1645902735.654144,113.0,0.0,3817.4357909999994,4365.128418,4159.487305,4162.05127,4209.743652,450.0,1.0,15.0,,,,0.0,4.0,2.0,0.0,4.0,4.0,50.0,,,,,,,,,,,,,,,,,,,,,,,,,,,,,,,,,,,,,,,,,,,,,,,,,,,,,,,,,,,,,,,,,,,,,,,,,,,,,,,,,,,,
44174,1645902735.660703,1645902735.661959,114.0,0.0,3806.1538090000004,4450.256348,4308.717772999999,4169.230957,4227.692383,450.0,1.0,15.0,,,,0.0,4.0,2.0,0.0,4.0,4.0,50.0,,,,,,,,57.0,0.0,0.7132,0.036377,0.672852,0.193115,0.954116,-0.31201599999999996,-0.09472799999999999,-0.031518,-0.030326,-0.009168,,,,,,,,,,,,,,,,,,,,,,,,,,,,,,,,,,,0.0,0.0,1.0,0.0,512.0,0.230498,,,,,,,,,,,,,,,,,,,,,,,,,
44175,1645902735.6685169,1645902735.669674,115.0,0.0,3854.358887,4297.436035,4233.333496,4198.461426,4201.538574,16179.0,1.0,15.0,,,,0.0,4.0,2.0,0.0,4.0,4.0,50.0,,,,,,,,,,,,,,,,,,,,,,,,,,,,,,,,,,,,,,,,,,,,,,,,,,,,,,,,,,,,,,,,,,,,,,,,,,,,,,,,,,,,
44176,1645902735.676332,1645902735.677488,116.0,0.0,3868.718018,4143.077147999999,4136.922852000001,4232.307617,4184.615234000001,450.0,1.0,15.0,,,,0.0,4.0,2.0,0.0,4.0,4.0,50.0,,,,,,,,58.0,0.0,0.713134,0.036377,0.672852,0.193359,0.946792,-0.30518,-0.090822,-0.031638,-0.030320999999999997,-0.007421,,,,,,,,,,,,,,,,,,,,,,,,,,,,,,,,,,,,,,,,,,,,,,,,,,,,,,,,,,,,,,,,,
44177,1645902735.6841462,1645902735.6854029,117.0,0.0,3887.179443,4207.692383,4170.769043,4215.897461,4233.333496,450.0,1.0,15.0,,,,0.0,4.0,2.0,0.0,4.0,4.0,50.0,,,,,,,,,,,,,,,,,,,,,,,,,,,,,,,,,,,,,,,,,,,,,,,,,,,,,,,,,,,,,,,,,,,,,,,,,,,,,,,,,,,,
