,Timestamp,OriginalTimestamp,EEG.Counter,EEG.Interpolated,EEG.AF3,EEG.T7,EEG.Pz,EEG.T8,EEG.AF4,EEG.RawCq,EEG.Battery,EEG.BatteryPercent,MarkerIndex,MarkerType,MarkerValueInt,EEG.MarkerHardware,CQ.AF3,CQ.T7,CQ.Pz,CQ.T8,CQ.AF4,CQ.Overall,EQ.SampleRateQuality,EQ.OVERALL,EQ.AF3,EQ.T7,EQ.Pz,EQ.T8,EQ.AF4,MOT.CounterMems,MOT.InterpolatedMems,MOT.Q0,MOT.Q1,MOT.Q2,MOT.Q3,MOT.AccX,MOT.AccY,MOT.AccZ,MOT.MagX,MOT.MagY,MOT.MagZ,MC.Action,MC.ActionPower,MC.IsActive,PM.Engagement.IsActive,PM.Engagement.Scaled,PM.Engagement.Raw,PM.Engagement.Min,PM.Engagement.Max,PM.Excitement.IsActive,PM.Excitement.Scaled,PM.Excitement.Raw,PM.Excitement.Min,PM.Excitement.Max,PM.LongTermExcitement,PM.Stress.IsActive,PM.Stress.Scaled,PM.Stress.Raw,PM.Stress.Min,PM.Stress.Max,PM.Relaxation.IsActive,PM.Relaxation.Scaled,PM.Relaxation.Raw,PM.Relaxation.Min,PM.Relaxation.Max,PM.Interest.IsActive,PM.Interest.Scaled,PM.Interest.Raw,PM.Interest.Min,PM.Interest.Max,PM.Focus.IsActive,PM.Focus.Scaled,PM.Focus.Raw,PM.Focus.Min,PM.Focus.Max,FE.BlinkWink,FE.HorizontalEyesDirection,FE.UpperFaceAction,FE.UpperFaceActionPower,FE.LowerFaceAction,FE.LowerFaceActionPower,POW.AF3.Theta,POW.AF3.Alpha,POW.AF3.BetaL,POW.AF3.BetaH,POW.AF3.Gamma,POW.T7.Theta,POW.T7.Alpha,POW.T7.BetaL,POW.T7.BetaH,POW.T7.Gamma,POW.Pz.Theta,POW.Pz.Alpha,POW.Pz.BetaL,POW.Pz.BetaH,POW.Pz.Gamma,POW.T8.Theta,POW.T8.Alpha,POW.T8.BetaL,POW.T8.BetaH,POW.T8.Gamma,POW.AF4.Theta,POW.AF4.Alpha,POW.AF4.BetaL,POW.AF4.BetaH,POW.AF4.Gamma
11903,1645902483.477464,1645902483.487494,99.0,0.0,4422.05127,4410.256348,4284.102539,4203.589844,4250.769043,16190.0,1.0,15.0,12.0,1.0,6.0,0.0,4.0,1.0,0.0,4.0,4.0,41.666668,,,,,,,,,,,,,,,,,,,,,,,,,,,,,,,,,,,,,,,,,,,,,,,,,,,,,,,,,,,,,,,,,,,,,,,,,,,,,,,,,,,,
11904,1645902483.4852788,1645902483.4953089,100.0,0.0,4422.05127,4423.077147999999,4274.358886999999,4187.179688,4242.563965,450.0,1.0,15.0,,,,0.0,4.0,1.0,0.0,4.0,4.0,41.666668,,,,,,,,50.0,0.0,0.710349,-0.009033,0.658447,0.24853499999999998,0.938491,-0.33105999999999997,-0.145022,-0.031401,-0.031935000000000005,-0.012541,,,,,,,,,,,,,,,,,,,,,,,,,,,,,,,,,,,,,,,,,,,,,,,,,,,,,,,,,,,,,,,,,
11905,1645902483.493093,1645902483.503123,101.0,0.0,4418.974121,4400.512695,4257.436035,4188.205078,4237.436035,450.0,1.0,15.0,,,,0.0,4.0,1.0,0.0,4.0,4.0,41.666668,,,,,,,,,,,,,,,,,,,,,,,,,,,,,,,,,,,,,,,,,,,,,,,,,,,,,,,,,,,,,,,,,,,,,,,,,,,,,,,,,,,,
11906,1645902483.500908,1645902483.5109382,102.0,0.0,4401.025879,4289.230957,4287.692383,4204.615234000001,4233.333496,450.0,1.0,15.0,,,,0.0,4.0,1.0,0.0,4.0,4.0,41.666668,,,,,,,,51.0,0.0,0.710349,-0.009033,0.658447,0.24853499999999998,0.9463030000000001,-0.318853,-0.142092,-0.031483,-0.031915,-0.013826,1.0,0.0,0.0,,,,,,,,,,,,,,,,,,,,,,,,,,,,,,,,0.0,0.0,1.0,0.0,512.0,1.0,6.593421,6.088862000000001,1.23494,1.412023,1.4934479999999999,78.810303,50.417202,24.189491,25.06189,18.100437,22.299910999999998,17.121328,21.35,2.716568,4.207654,4.432975,3.536911,3.0301560000000003,2.8577150000000002,2.500075,9.444519999999999,2.589703,1.71839,1.184304,0.957458
11907,1645902483.508722,1645902483.5187528,103.0,0.0,4397.436035,4226.666504,4268.717772999999,4211.794922,4241.538574,16190.0,1.0,15.0,,,,0.0,4.0,1.0,0.0,4.0,4.0,41.666668,,,,,,,,,,,,,,,,,,,,,,,,,,,,,,,,,,,,,,,,,,,,,,,,,,,,,,,,,,,,,,,,,,,,,,,,,,,,,,,,,,,,
11908,1645902483.516537,1645902483.526567,104.0,0.0,4407.179688,4261.025879,4249.743652,4200.0,4238.974121,450.0,1.0,15.0,,,,0.0,4.0,1.0,0.0,4.0,4.0,41.666668,,,,,,,,52.0,0.0,0.710434,-0.009033,0.658447,0.24829099999999998,0.949233,-0.321782,-0.144533,-0.031508999999999995,-0.031897,-0.014934000000000001,,,,,,,,,,,,,,,,,,,,,,,,,,,,,,,,,,,,,,,,,,,,,,,,,,,,,,,,,,,,,,,,,
11909,1645902483.524351,1645902483.534382,105.0,0.0,4417.436035,4265.128418,4241.538574,4189.230957,4240.512695,450.0,1.0,15.0,,,,0.0,4.0,1.0,0.0,4.0,4.0,41.666668,,,,,,,,,,,,,,,,,,,,,,,,,,,,,,,,,,,,,,,,,,,,,,,,,,,,,,,,,,,,,,,,,,,,,,,,,,,,,,,,,,,,
11910,1645902483.532166,1645902483.542197,106.0,0.0,4423.589844,4268.717772999999,4247.692383,4188.205078,4245.128418,450.0,1.0,15.0,,,,0.0,4.0,1.0,0.0,4.0,4.0,41.666668,,,,,,,,53.0,0.0,0.710434,-0.009033,0.658447,0.24829099999999998,0.9555809999999999,-0.317388,-0.136233,-0.031629000000000004,-0.031833,-0.012708,,,,,,,,,,,,,,,,,,,,,,,,,,,,,,,,,,,0.0,0.0,1.0,0.0,512.0,1.0,,,,,,,,,,,,,,,,,,,,,,,,,
11911,1645902483.5399811,1645902483.550011,107.0,0.0,4426.153809,4374.871582,4264.102539,4185.641113000001,4245.641113000001,16190.0,1.0,15.0,,,,0.0,4.0,1.0,0.0,4.0,4.0,41.666668,,,,,,,,,,,,,,,,,,,,,,,,,,,,,,,,,,,,,,,,,,,,,,,,,,,,,,,,,,,,,,,,,,,,,,,,,,,,,,,,,,,,
11912,1645902483.5477948,1645902483.557826,108.0,0.0,4413.846191,4408.717772999999,4278.461426,4164.102539,4243.589844,450.0,1.0,15.0,,,,0.0,4.0,1.0,0.0,4.0,4.0,41.666668,,,,,,,,54.0,0.0,0.710434,-0.009033,0.658447,0.24829099999999998,0.954116,-0.31543499999999997,-0.141604,-0.031592,-0.031823000000000004,-0.013975999999999999,,,,,,,,,,,,,,,,,,,,,,,,,,,,,,,,,,,,,,,,,,,,,,,,,,,,,,,,,,,,,,,,,
11913,1645902483.55561,1645902483.565541,109.0,0.0,4407.692383,4343.077147999999,4250.769043,4152.820313,4249.743652,450.0,1.0,15.0,,,,0.0,4.0,1.0,0.0,4.0,4.0,41.666668,,,,,,,,,,,,,,,,,,,,,,,,,,,,,,,,,,,,,,,,,,,,,,,,,,,,,,,,,,,,,,,,,,,,,,,,,,,,,,,,,,,,
11914,1645902483.563424,1645902483.573355,110.0,0.0,4407.692383,4369.743652,4223.077147999999,4165.641113000001,4254.358886999999,450.0,1.0,15.0,,,,0.0,4.0,1.0,0.0,4.0,4.0,41.666668,,,,,,,,55.0,0.0,0.710434,-0.009033,0.658447,0.24829099999999998,0.932143,-0.305669,-0.146975,-0.031655,-0.031961,-0.011993,,,,,,,,,,,,,,,,,,,,,,,,,,,,,,,,,,,0.0,0.0,1.0,0.0,512.0,1.0,,,,,,,,,,,,,,,,,,,,,,,,,
11915,1645902483.571239,1645902483.5811698,111.0,0.0,4403.077147999999,4397.94873,4246.153809,4191.794922,4281.025879,16190.0,1.0,15.0,,,,0.0,4.0,1.0,0.0,4.0,4.0,41.666668,,,,,,,,,,,,,,,,,,,,,,,,,,,,,,,,,,,,,,,,,,,,,,,,,,,,,,,,,,,,,,,,,,,,,,,,,,,,,,,,,,,,
11916,1645902483.5790539,1645902483.588985,112.0,0.0,4383.077147999999,4328.205078,4260.0,4181.538574,4283.589844,450.0,1.0,15.0,,,,0.0,4.0,1.0,0.0,4.0,4.0,41.666668,,,,,,,,56.0,0.0,0.710434,-0.009033,0.658447,0.24829099999999998,0.951675,-0.32227100000000003,-0.151858,-0.031761000000000005,-0.031938999999999995,-0.013333000000000001,,,,,,,,,,,,,,,,,,,,,,,,,,,,,,,,,,,,,,,,,,,,,,,,,,,,,,,,,,,,,,,,,
11917,1645902483.586868,1645902483.5967991,113.0,0.0,4373.846191,4354.358886999999,4285.128418,4149.230957,4238.974121,450.0,1.0,15.0,,,,0.0,4.0,1.0,0.0,4.0,4.0,41.666668,,,,,,,,,,,,,,,,,,,,,,,,,,,,,,,,,,,,,,,,,,,,,,,,,,,,,,,,,,,,,,,,,,,,,,,,,,,,,,,,,,,,
11918,1645902483.594683,1645902483.604614,114.0,0.0,4389.230957,4407.692383,4270.769043,4143.077147999999,4230.769043,450.0,1.0,15.0,,,,0.0,4.0,1.0,0.0,4.0,4.0,41.666668,,,,,,,,57.0,0.0,0.710208,-0.009033,0.658691,0.24829099999999998,0.9399559999999999,-0.309575,-0.13379100000000002,-0.031856999999999996,-0.032017000000000004,-0.014537999999999999,,,,,,,,,,,,,,,,,,,,,,,,,,,,,,,,,,,0.0,0.0,1.0,0.0,512.0,1.0,,,,,,,,,,,,,,,,,,,,,,,,,
11919,1645902483.602497,1645902483.612428,115.0,0.0,4401.538574,4374.358886999999,4251.282227000001,4159.487305,4266.153809,16190.0,1.0,15.0,,,,0.0,4.0,1.0,0.0,4.0,4.0,41.666668,,,,,,,,,,,,,,,,,,,,,,,,,,,,,,,,,,,,,,,,,,,,,,,,,,,,,,,,,,,,,,,,,,,,,,,,,,,,,,,,,,,,
11920,1645902483.610312,1645902483.620243,116.0,0.0,4390.256348,4407.692383,4249.230957,4158.461426,4255.897461,450.0,1.0,15.0,,,,0.0,4.0,1.0,0.0,4.0,4.0,41.666668,,,,,,,,58.0,0.0,0.710123,-0.009033,0.658691,0.24853499999999998,0.962417,-0.323247,-0.135744,-0.031845,-0.032038,-0.01245,,,,,,,,,,,,,,,,,,,,,,,,,,,,,,,,,,,,,,,,,,,,,,,,,,,,,,,,,,,,,,,,,
11921,1645902483.618126,1645902483.628058,117.0,0.0,4385.641113000001,4437.94873,4270.256348,4136.410156,4226.666504,450.0,1.0,15.0,,,,0.0,4.0,1.0,0.0,4.0,4.0,41.666668,,,,,,,,,,,,,,,,,,,,,,,,,,,,,,,,,,,,,,,,,,,,,,,,,,,,,,,,,,,,,,,,,,,,,,,,,,,,,,,,,,,,
11922,1645902483.625941,1645902483.6358721,118.0,0.0,4412.820313,4373.333496,4243.589844,4128.717772999999,4259.487305,450.0,1.0,15.0,,,,0.0,4.0,1.0,0.0,4.0,4.0,41.666668,,,,,,,,59.0,0.0,0.709896,-0.009033,0.658936,0.24853499999999998,0.938491,-0.313481,-0.138186,-0.031883,-0.032057,-0.013694999999999999,1.0,0.0,0.0,,,,,,,,,,,,,,,,,,,,,,,,,,,,,,,,0.0,0.0,1.0,0.0,512.0,1.0,6.848350999999999,7.251791000000001,1.368686,1.384233,1.629779,42.46965,37.113884000000006,19.302818,26.670713,18.138115,20.882702,20.091488000000002,20.455977999999998,3.301786,4.376875,4.0642190000000005,3.123011,3.055,2.871918,2.6639939999999998,10.144803999999999,3.187775,1.579238,1.226299,1.150111
11923,1645902483.633755,1645902483.6435869,119.0,0.0,4418.974121,4358.974121,4253.333496,4162.563965,4286.666504,16190.0,1.0,15.0,,,,0.0,4.0,1.0,0.0,4.0,4.0,41.666668,,,,,,,,,,,,,,,,,,,,,,,,,,,,,,,,,,,,,,,,,,,,,,,,,,,,,,,,,,,,,,,,,,,,,,,,,,,,,,,,,,,,
11924,1645902483.6415699,1645902483.651402,120.0,0.0,4397.436035,4388.717772999999,4266.153809,4182.563965,4263.589844,450.0,1.0,15.0,,,,0.0,4.0,1.0,0.0,4.0,4.0,41.666668,,,,,,,,60.0,0.0,0.710037,-0.009033,0.658691,0.248779,0.9463030000000001,-0.326665,-0.134279,-0.031869,-0.031830000000000004,-0.014766999999999999,,,,,,,,,,,,,,,,,,,,,,,,,,,,,,,,,,,,,,,,,,,,,,,,,,,,,,,,,,,,,,,,,
11925,1645902483.649384,1645902483.659216,121.0,0.0,4389.230957,4369.743652,4261.025879,4154.358886999999,4240.512695,450.0,1.0,15.0,,,,0.0,4.0,1.0,0.0,4.0,4.0,41.666668,,,,,,,,,,,,,,,,,,,,,,,,,,,,,,,,,,,,,,,,,,,,,,,,,,,,,,,,,,,,,,,,,,,,,,,,,,,,,,,,,,,,
11926,1645902483.657199,1645902483.667031,122.0,0.0,4405.641113000001,4389.230957,4245.641113000001,4161.538574,4251.794922,450.0,1.0,15.0,,,,0.0,4.0,1.0,0.0,4.0,4.0,41.666668,,,,,,,,61.0,0.0,0.709811,-0.009033,0.658936,0.248779,0.941421,-0.316411,-0.12255999999999999,-0.031856,-0.031772,-0.015683000000000002,,,,,,,,,,,,,,,,,,,,,,,,,,,,,,,,,,,0.0,0.0,1.0,0.0,512.0,1.0,,,,,,,,,,,,,,,,,,,,,,,,,
11927,1645902483.665013,1645902483.6748462,123.0,0.0,4396.410156,4418.461426,4236.410156,4186.666504,4253.846191,16190.0,1.0,15.0,,,,0.0,4.0,1.0,0.0,4.0,4.0,41.666668,,,,,,,,,,,,,,,,,,,,,,,,,,,,,,,,,,,,,,,,,,,,,,,,,,,,,,,,,,,,,,,,,,,,,,,,,,,,,,,,,,,,
11928,1645902483.672828,1645902483.6826599,124.0,0.0,4392.820313,4411.794922,4214.358886999999,4168.717772999999,4258.974121,450.0,1.0,15.0,,,,0.0,4.0,1.0,0.0,4.0,4.0,41.666668,,,,,,,,62.0,0.0,0.709896,-0.009033,0.658936,0.24853499999999998,0.938491,-0.313481,-0.138186,-0.031893,-0.031817000000000005,-0.016605,,,,,,,,,,,,,,,,,,,,,,,,,,,,,,,,,,,,,,,,,,,,,,,,,,,,,,,,,,,,,,,,,
11929,1645902483.680642,1645902483.690475,125.0,0.0,4401.025879,4426.666504,4226.153809,4134.358886999999,4264.615234000001,450.0,1.0,15.0,,,,0.0,4.0,1.0,0.0,4.0,4.0,41.666668,,,,,,,,,,,,,,,,,,,,,,,,,,,,,,,,,,,,,,,,,,,,,,,,,,,,,,,,,,,,,,,,,,,,,,,,,,,,,,,,,,,,
11930,1645902483.688457,1645902483.69829,126.0,0.0,4392.307617,4444.615234000001,4255.897461,4130.256348,4257.436035,450.0,1.0,15.0,,,,0.0,4.0,1.0,0.0,4.0,4.0,41.666668,,,,,,,,63.0,0.0,0.709725,-0.009033,0.658936,0.249023,0.941909,-0.325689,-0.13379100000000002,-0.03178,-0.031858,-0.014261000000000001,,,,,,,,,,,,,,,,,,,,,,,,,,,,,,,,,,,0.0,0.0,1.0,0.0,512.0,1.0,,,,,,,,,,,,,,,,,,,,,,,,,
11931,1645902483.6962721,1645902483.706004,127.0,0.0,4387.179688,4442.563965,4239.487305,4127.692383,4250.256348,232.0,1.0,15.0,,,,0.0,4.0,1.0,0.0,4.0,4.0,41.666668,,,,,,,,,,,,,,,,,,,,,,,,,,,,,,,,,,,,,,,,,,,,,,,,,,,,,,,,,,,,,,,,,,,,,,,,,,,,,,,,,,,,
11932,1645902483.7040858,1645902483.713819,0.0,0.0,4396.410156,4415.897461,4232.307617,4150.256348,4257.94873,450.0,1.0,15.0,,,,0.0,4.0,1.0,0.0,4.0,4.0,41.666668,,,,,,,,0.0,0.0,0.709725,-0.009033,0.658936,0.249023,0.9506979999999999,-0.318364,-0.135256,-0.031824,-0.031895,-0.012346,,,,,,,,,,,,,,,,,,,,,,,,,,,,,,,,,,,,,,,,,,,,,,,,,,,,,,,,,,,,,,,,,
11933,1645902483.711901,1645902483.721634,1.0,0.0,4390.256348,4412.307617,4246.666504,4182.05127,4258.974121,450.0,1.0,15.0,,,,0.0,4.0,1.0,0.0,4.0,4.0,41.666668,,,,,,,,,,,,,,,,,,,,,,,,,,,,,,,,,,,,,,,,,,,,,,,,,,,,,,,,,,,,,,,,,,,,,,,,,,,,,,,,,,,,
11934,1645902483.719715,1645902483.729448,2.0,0.0,4395.897461,4469.230957,4286.666504,4179.487305,4260.0,16109.0,1.0,15.0,,,,0.0,4.0,1.0,0.0,4.0,4.0,41.666668,,,,,,,,1.0,0.0,0.709728,-0.008789,0.658936,0.249023,0.946792,-0.33984899999999996,-0.136233,-0.031816000000000004,-0.031831,-0.013503999999999999,,,,,,,,,,,,,,,,,,,,,,,,,,,,,,,,,,,0.0,0.0,1.0,0.0,512.0,1.0,,,,,,,,,,,,,,,,,,,,,,,,,
11935,1645902483.72753,1645902483.737163,3.0,0.0,4411.282227000001,4463.077147999999,4279.487305,4154.358886999999,4258.974121,450.0,1.0,15.0,,,,0.0,4.0,1.0,0.0,4.0,4.0,41.666668,,,,,,,,,,,,,,,,,,,,,,,,,,,,,,,,,,,,,,,,,,,,,,,,,,,,,,,,,,,,,,,,,,,,,,,,,,,,,,,,,,,,
11936,1645902483.735344,1645902483.744978,4.0,0.0,4402.05127,4394.358886999999,4300.0,4138.974121,4248.717772999999,146.0,1.0,15.0,,,,0.0,4.0,1.0,0.0,4.0,4.0,41.666668,,,,,,,,2.0,0.0,0.709728,-0.008789,0.658936,0.249023,0.952651,-0.3252,-0.145022,-0.031807999999999996,-0.031773,-0.014594999999999999,,,,,,,,,,,,,,,,,,,,,,,,,,,,,,,,,,,,,,,,,,,,,,,,,,,,,,,,,,,,,,,,,
11937,1645902483.743159,1645902483.752693,5.0,0.0,4400.0,4411.794922,4313.846191,4138.461426,4254.871582,450.0,1.0,15.0,,,,0.0,4.0,1.0,1.0,4.0,4.0,50.0,,,,,,,,,,,,,,,,,,,,,,,,,,,,,,,,,,,,,,,,,,,,,,,,,,,,,,,,,,,,,,,,,,,,,,,,,,,,,,,,,,,,
11938,1645902483.750973,1645902483.760507,6.0,0.0,4406.153809,4446.153809,4283.589844,4144.615234000001,4256.922852000001,123.0,1.0,15.0,,,,0.0,4.0,1.0,1.0,4.0,4.0,50.0,,,,,,,,3.0,0.0,0.709731,-0.008545,0.658936,0.249023,0.941909,-0.324712,-0.141604,-0.031844,-0.031771,-0.013434,1.0,0.0,0.0,,,,,,,,,,,,,,,,,,,,,,,,,,,,,,,,0.0,0.0,1.0,0.0,512.0,1.0,6.406785,7.670033,1.507775,1.245881,1.6435669999999998,33.151783,34.883392,18.011398,29.361195000000002,18.299295,19.033293,23.17042,18.373825,4.087121,4.386157,3.962718,2.659064,3.168523,3.101857,2.811652,9.819201,3.9244529999999997,1.365597,1.212302,1.348535
11939,1645902483.758788,1645902483.768322,7.0,0.0,4397.436035,4360.512695,4230.256348,4141.538574,4237.436035,450.0,1.0,15.0,,,,0.0,4.0,1.0,1.0,4.0,4.0,50.0,,,,,,,,,,,,,,,,,,,,,,,,,,,,,,,,,,,,,,,,,,,,,,,,,,,,,,,,,,,,,,,,,,,,,,,,,,,,,,,,,,,,
11940,1645902483.766603,1645902483.776136,8.0,0.0,4392.820313,4372.820313,4261.025879,4153.846191,4223.589844,450.0,1.0,15.0,,,,0.0,4.0,1.0,1.0,4.0,4.0,50.0,,,,,,,,4.0,0.0,0.709731,-0.008545,0.658936,0.249023,0.954116,-0.313481,-0.144045,-0.031882,-0.031768,-0.014581,,,,,,,,,,,,,,,,,,,,,,,,,,,,,,,,,,,,,,,,,,,,,,,,,,,,,,,,,,,,,,,,,
11941,1645902483.774417,1645902483.783951,9.0,0.0,4412.820313,4477.436035,4267.179688,4193.846191,4245.128418,16226.0,1.0,15.0,,,,0.0,4.0,1.0,1.0,4.0,4.0,50.0,,,,,,,,,,,,,,,,,,,,,,,,,,,,,,,,,,,,,,,,,,,,,,,,,,,,,,,,,,,,,,,,,,,,,,,,,,,,,,,,,,,,
11942,1645902483.782232,1645902483.791766,10.0,0.0,4401.025879,4415.897461,4245.641113000001,4204.102539,4250.256348,450.0,1.0,15.0,,,,0.0,4.0,1.0,1.0,4.0,4.0,50.0,,,,,,,,5.0,0.0,0.709731,-0.008545,0.658936,0.249023,0.944839,-0.31787600000000005,-0.140139,-0.031965,-0.031764999999999995,-0.012439,,,,,,,,,,,,,,,,,,,,,,,,,,,,,,,,,,,0.0,0.0,1.0,0.0,512.0,1.0,,,,,,,,,,,,,,,,,,,,,,,,,
11943,1645902483.790046,1645902483.79958,11.0,0.0,4395.384765999999,4340.0,4256.922852000001,4187.692383,4243.077147999999,16142.0,1.0,15.0,,,,0.0,4.0,1.0,1.0,4.0,4.0,50.0,,,,,,,,,,,,,,,,,,,,,,,,,,,,,,,,,,,,,,,,,,,,,,,,,,,,,,,,,,,,,,,,,,,,,,,,,,,,,,,,,,,,
11944,1645902483.7978609,1645902483.807395,12.0,0.0,4411.794922,4407.692383,4274.871582,4184.615234000001,4244.102539,450.0,1.0,15.0,,,,0.0,4.0,1.0,1.0,4.0,4.0,50.0,,,,,,,,6.0,0.0,0.709731,-0.008545,0.658936,0.249023,0.956558,-0.317388,-0.12842,-0.03204,-0.031811,-0.013636,,,,,,,,,,,,,,,,,,,,,,,,,,,,,,,,,,,,,,,,,,,,,,,,,,,,,,,,,,,,,,,,,
11945,1645902483.805675,1645902483.81511,13.0,0.0,4411.282227000001,4437.94873,4262.563965,4181.538574,4261.538574,450.0,1.0,15.0,,,,0.0,4.0,1.0,1.0,4.0,4.0,50.0,,,,,,,,,,,,,,,,,,,,,,,,,,,,,,,,,,,,,,,,,,,,,,,,,,,,,,,,,,,,,,,,,,,,,,,,,,,,,,,,,,,,
11946,1645902483.8134902,1645902483.8229241,14.0,0.0,4387.179688,4385.128418,4248.717772999999,4155.384765999999,4271.794922,450.0,1.0,15.0,,,,0.0,4.0,1.0,1.0,4.0,4.0,50.0,,,,,,,,7.0,0.0,0.709504,-0.008545,0.65918,0.249023,0.940932,-0.32227100000000003,-0.132326,-0.031961,-0.031706,-0.011637999999999999,,,,,,,,,,,,,,,,,,,,,,,,,,,,,,,,,,,0.0,0.0,1.0,0.0,512.0,1.0,,,,,,,,,,,,,,,,,,,,,,,,,
11947,1645902483.8213038,1645902483.830739,15.0,0.0,4388.717772999999,4413.846191,4229.230957,4166.666504,4272.820313,16142.0,1.0,15.0,,,,0.0,4.0,1.0,1.0,4.0,4.0,50.0,,,,,,,,,,,,,,,,,,,,,,,,,,,,,,,,,,,,,,,,,,,,,,,,,,,,,,,,,,,,,,,,,,,,,,,,,,,,,,,,,,,,
11948,1645902483.829119,1645902483.838554,16.0,0.0,4401.025879,4408.205078,4190.256348,4181.538574,4285.641113000001,0.0,1.0,15.0,,,,0.0,4.0,1.0,1.0,4.0,4.0,50.0,,,,,,,,8.0,0.0,0.709501,-0.008789,0.65918,0.249023,0.95314,-0.315923,-0.136233,-0.032037,-0.031708999999999994,-0.009791,,,,,,,,,,,,,,,,,,,,,,,,,,,,,,,,,,,,,,,,,,,,,,,,,,,,,,,,,,,,,,,,,
11949,1645902483.836933,1645902483.846368,17.0,0.0,4398.461426,4320.0,4221.025879,4167.179688,4304.102539,0.0,1.0,15.0,,,,0.0,4.0,1.0,1.0,4.0,4.0,50.0,,,,,,,,,,,,,,,,,,,,,,,,,,,,,,,,,,,,,,,,,,,,,,,,,,,,,,,,,,,,,,,,,,,,,,,,,,,,,,,,,,,,
11950,1645902483.844748,1645902483.854183,18.0,0.0,4398.461426,4372.307617,4251.794922,4162.05127,4304.615234000001,0.0,1.0,15.0,,,,0.0,4.0,1.0,1.0,4.0,4.0,50.0,,,,,,,,9.0,0.0,0.709731,-0.008545,0.658936,0.249023,0.956558,-0.317388,-0.12842,-0.032056,-0.031712,-0.008177,,,,,,,,,,,,,,,,,,,,,,,,,,,,,,,,,,,0.0,0.0,1.0,0.0,512.0,1.0,,,,,,,,,,,,,,,,,,,,,,,,,
11951,1645902483.8525631,1645902483.861998,19.0,0.0,4385.128418,4484.615234000001,4261.538574,4163.077147999999,4286.153809,0.0,1.0,15.0,,,,0.0,4.0,1.0,1.0,4.0,4.0,50.0,,,,,,,,,,,,,,,,,,,,,,,,,,,,,,,,,,,,,,,,,,,,,,,,,,,,,,,,,,,,,,,,,,,,,,,,,,,,,,,,,,,,
11952,1645902483.8603768,1645902483.869812,20.0,0.0,4370.769043,4449.743652,4262.563965,4147.179688,4276.922852000001,0.0,1.0,15.0,,,,0.0,4.0,1.0,1.0,4.0,4.0,50.0,,,,,,,,10.0,0.0,0.7094159999999999,-0.008789,0.65918,0.249268,0.941909,-0.333013,-0.138674,-0.032073000000000004,-0.031715,-0.006723999999999999,,,,,,,,,,,,,,,,,,,,,,,,,,,,,,,,,,,,,,,,,,,,,,,,,,,,,,,,,,,,,,,,,
11953,1645902483.868192,1645902483.877627,21.0,0.0,4388.717772999999,4374.358886999999,4284.615234000001,4160.512695,4291.794922,0.0,1.0,15.0,,,,0.0,4.0,1.0,1.0,4.0,4.0,50.0,,,,,,,,,,,,,,,,,,,,,,,,,,,,,,,,,,,,,,,,,,,,,,,,,,,,,,,,,,,,,,,,,,,,,,,,,,,,,,,,,,,,
11954,1645902483.8760061,1645902483.885342,22.0,0.0,4401.025879,4408.205078,4258.974121,4187.692383,4297.94873,0.0,1.0,15.0,,,,0.0,4.0,1.0,1.0,4.0,4.0,50.0,0.972656,16.666666,2.0,1.0,0.0,1.0,1.0,11.0,0.0,0.709728,-0.008789,0.658936,0.249023,0.94435,-0.318364,-0.127443,-0.032088,-0.031717,-0.008542000000000001,1.0,0.0,0.0,,,,,,,,,,,,,,,,,,,,,,,,,,,,,,,,0.0,0.0,1.0,0.0,512.0,1.0,5.402283000000001,7.255416,1.601552,1.045085,1.5474450000000002,38.840709999999994,38.828056,20.903097,32.286312,18.458927,16.781797,25.424963,15.560101999999999,5.185906,4.276863,4.184527,2.197018,3.433136,3.479623,2.908575,8.635969000000001,4.688166000000001,1.115982,1.138916,1.5105540000000002
11955,1645902483.883821,1645902483.893156,23.0,0.0,4372.820313,4460.0,4274.871582,4164.615234000001,4266.153809,0.0,1.0,15.0,,,,0.0,4.0,1.0,1.0,4.0,4.0,50.0,,,,,,,,,,,,,,,,,,,,,,,,,,,,,,,,,,,,,,,,,,,,,,,,,,,,,,,,,,,,,,,,,,,,,,,,,,,,,,,,,,,,
11956,1645902483.891635,1645902483.9009712,24.0,0.0,4378.974121,4420.512695,4296.922852000001,4136.922852000001,4261.538574,0.0,1.0,15.0,,,,0.0,4.0,1.0,1.0,4.0,4.0,50.0,,,,,,,,12.0,0.0,0.709728,-0.008789,0.658936,0.249023,0.95021,-0.314458,-0.140627,-0.032151,-0.03172,-0.007053,,,,,,,,,,,,,,,,,,,,,,,,,,,,,,,,,,,,,,,,,,,,,,,,,,,,,,,,,,,,,,,,,
11957,1645902483.89945,1645902483.9087858,25.0,0.0,4414.871582,4357.94873,4280.512695,4144.102539,4293.333496,0.0,1.0,15.0,,,,0.0,4.0,1.0,1.0,4.0,4.0,50.0,,,,,,,,,,,,,,,,,,,,,,,,,,,,,,,,,,,,,,,,,,,,,,,,,,,,,,,,,,,,,,,,,,,,,,,,,,,,,,,,,,,,
11958,1645902483.907264,1645902483.9166,26.0,0.0,4425.641113000001,4365.641113000001,4244.615234000001,4161.538574,4307.692383,0.0,1.0,15.0,,,,0.0,4.0,1.0,1.0,4.0,4.0,50.0,,,,,,,,13.0,0.0,0.709731,-0.008545,0.658936,0.249023,0.9365379999999999,-0.32959499999999997,-0.134279,-0.03211,-0.031819,-0.008838,,,,,,,,,,,,,,,,,,,,,,,,,,,,,,,,,,,0.0,0.0,1.0,0.0,512.0,1.0,,,,,,,,,,,,,,,,,,,,,,,,,
11959,1645902483.9150789,1645902483.924415,27.0,0.0,4413.846191,4397.436035,4234.358886999999,4157.436035,4306.666504,0.0,1.0,15.0,,,,0.0,4.0,1.0,1.0,4.0,4.0,50.0,,,,,,,,,,,,,,,,,,,,,,,,,,,,,,,,,,,,,,,,,,,,,,,,,,,,,,,,,,,,,,,,,,,,,,,,,,,,,,,,,,,,
11960,1645902483.922893,1645902483.93223,28.0,0.0,4417.94873,4420.0,4196.410156,4160.0,4327.692383,0.0,1.0,15.0,,,,0.0,4.0,1.0,1.0,4.0,4.0,50.0,,,,,,,,14.0,0.0,0.709731,-0.008545,0.658936,0.249023,0.9580219999999999,-0.331548,-0.145998,-0.03217,-0.031811,-0.010347,,,,,,,,,,,,,,,,,,,,,,,,,,,,,,,,,,,,,,,,,,,,,,,,,,,,,,,,,,,,,,,,,
11961,1645902483.930708,1645902483.940044,29.0,0.0,4418.974121,4474.358886999999,4200.0,4169.743652,4322.05127,0.0,1.0,15.0,,,,0.0,4.0,1.0,1.0,4.0,4.0,50.0,,,,,,,,,,,,,,,,,,,,,,,,,,,,,,,,,,,,,,,,,,,,,,,,,,,,,,,,,,,,,,,,,,,,,,,,,,,,,,,,,,,,
11962,1645902483.938522,1645902483.947859,30.0,0.0,4411.282227000001,4532.820313,4296.410156,4147.692383,4307.179688,0.0,1.0,15.0,,,,0.0,4.0,1.0,1.0,4.0,4.0,50.0,,,,,,,,15.0,0.0,0.709731,-0.008545,0.658936,0.249023,0.932143,-0.310552,-0.128908,-0.032126999999999996,-0.031902,-0.011705,,,,,,,,,,,,,,,,,,,,,,,,,,,,,,,,,,,0.0,0.0,1.0,0.0,512.0,1.0,,,,,,,,,,,,,,,,,,,,,,,,,
11963,1645902483.946337,1645902483.955574,31.0,0.0,4404.102539,4515.897461,4309.230957,4105.128418,4310.769043,0.0,1.0,15.0,,,,0.0,4.0,1.0,1.0,4.0,4.0,50.0,,,,,,,,,,,,,,,,,,,,,,,,,,,,,,,,,,,,,,,,,,,,,,,,,,,,,,,,,,,,,,,,,,,,,,,,,,,,,,,,,,,,
11964,1645902483.9541519,1645902483.9633882,32.0,0.0,4403.077147999999,4476.410156,4233.333496,4134.871582,4310.256348,0.0,1.0,15.0,,,,0.0,4.0,1.0,1.0,4.0,4.0,50.0,,,,,,,,16.0,0.0,0.709734,-0.008301000000000001,0.658936,0.249023,0.9472799999999999,-0.32910700000000004,-0.129885,-0.032137,-0.031885000000000004,-0.013122,,,,,,,,,,,,,,,,,,,,,,,,,,,,,,,,,,,,,,,,,,,,,,,,,,,,,,,,,,,,,,,,,
11965,1645902483.961966,1645902483.9712029,33.0,0.0,4404.615234000001,4430.769043,4196.410156,4190.256348,4303.077147999999,0.0,1.0,15.0,,,,0.0,4.0,1.0,1.0,4.0,4.0,50.0,,,,,,,,,,,,,,,,,,,,,,,,,,,,,,,,,,,,,,,,,,,,,,,,,,,,,,,,,,,,,,,,,,,,,,,,,,,,,,,,,,,,
11966,1645902483.9697812,1645902483.979018,34.0,0.0,4406.153809,4409.230957,4264.102539,4174.871582,4304.615234000001,0.0,1.0,15.0,,,,0.0,4.0,1.0,1.0,4.0,4.0,50.0,,,,,,,,17.0,0.0,0.70982,-0.008301000000000001,0.658936,0.248779,0.9389790000000001,-0.314458,-0.146975,-0.032244,-0.031919,-0.0143,,,,,,,,,,,,,,,,,,,,,,,,,,,,,,,,,,,0.0,0.0,1.0,0.0,512.0,1.0,,,,,,,,,,,,,,,,,,,,,,,,,
11967,1645902483.9775949,1645902483.9868321,35.0,0.0,4405.128418,4458.974121,4275.384765999999,4135.897461,4301.538574,0.0,1.0,15.0,,,,0.0,4.0,1.0,1.0,4.0,4.0,50.0,,,,,,,,,,,,,,,,,,,,,,,,,,,,,,,,,,,,,,,,,,,,,,,,,,,,,,,,,,,,,,,,,,,,,,,,,,,,,,,,,,,,
11968,1645902483.98541,1645902483.994647,36.0,0.0,4408.205078,4488.205078,4254.358886999999,4132.307617,4294.871582,0.0,1.0,15.0,,,,0.0,4.0,1.0,1.0,4.0,4.0,50.0,,,,,,,,18.0,0.0,0.709817,-0.008545,0.658936,0.248779,0.9463030000000001,-0.32227100000000003,-0.13135,-0.032193,-0.03195,-0.015361000000000001,,,,,,,,,,,,,,,,,,,,,,,,,,,,,,,,,,,,,,,,,,,,,,,,,,,,,,,,,,,,,,,,,
11969,1645902483.993225,1645902484.002461,37.0,0.0,4412.820313,4438.974121,4274.871582,4130.256348,4306.666504,0.0,1.0,15.0,,,,0.0,4.0,1.0,1.0,4.0,4.0,50.0,,,,,,,,,,,,,,,,,,,,,,,,,,,,,,,,,,,,,,,,,,,,,,,,,,,,,,,,,,,,,,,,,,,,,,,,,,,,,,,,,,,,
11970,1645902484.001039,1645902484.010276,38.0,0.0,4414.358886999999,4423.589844,4312.820313,4132.307617,4303.077147999999,0.0,1.0,15.0,,,,0.0,4.0,1.0,1.0,4.0,4.0,50.0,,,,,,,,19.0,0.0,0.710043,-0.008545,0.658691,0.248779,0.952651,-0.309575,-0.142092,-0.032246,-0.03188,-0.016364,1.0,0.0,0.0,,,,,,,,,,,,,,,,,,,,,,,,,,,,,,,,0.0,0.0,1.0,0.0,512.0,1.0,4.055756,6.191118,1.629489,0.851941,1.384089,47.416332000000004,44.176186,27.628769000000002,34.106312,18.329306,14.463281,25.990458,12.521237,6.543673,4.089424,4.7108669999999995,1.810802,3.895586,3.9376889999999998,2.92624,6.870996000000001,5.3000989999999994,0.893344,1.03385,1.611899
11971,1645902484.008854,1645902484.017991,39.0,0.0,4423.589844,4476.922852000001,4265.128418,4160.0,4291.282227000001,0.0,1.0,15.0,,,,0.0,4.0,1.0,1.0,4.0,4.0,50.0,,,,,,,,,,,,,,,,,,,,,,,,,,,,,,,,,,,,,,,,,,,,,,,,,,,,,,,,,,,,,,,,,,,,,,,,,,,,,,,,,,,,
11972,1645902484.016668,1645902484.025806,40.0,0.0,4425.641113000001,4483.589844,4244.102539,4186.666504,4301.025879,0.0,1.0,15.0,,,,0.0,4.0,1.0,1.0,4.0,4.0,50.0,,,,,,,,20.0,0.0,0.710046,-0.008301000000000001,0.658691,0.248779,0.9594870000000001,-0.336431,-0.133303,-0.032244,-0.031964,-0.017169,,,,,,,,,,,,,,,,,,,,,,,,,,,,,,,,,,,,,,,,,,,,,,,,,,,,,,,,,,,,,,,,,
11973,1645902484.024483,1645902484.0336199,41.0,0.0,4432.820313,4425.128418,4263.077147999999,4183.077147999999,4318.974121,0.0,1.0,15.0,,,,0.0,4.0,1.0,1.0,4.0,4.0,50.0,,,,,,,,,,,,,,,,,,,,,,,,,,,,,,,,,,,,,,,,,,,,,,,,,,,,,,,,,,,,,,,,,,,,,,,,,,,,,,,,,,,,
11974,1645902484.0322971,1645902484.041435,42.0,0.0,4433.846191,4413.846191,4281.025879,4159.487305,4303.589844,0.0,1.0,15.0,,,,0.0,4.0,1.0,1.0,4.0,4.0,50.0,,,,,,,,21.0,0.0,0.709963,-0.008057,0.658691,0.249023,0.9350729999999999,-0.32861799999999997,-0.14257999999999998,-0.032242,-0.031941000000000004,-0.014816999999999999,,,,,,,,,,,,,,,,,,,,,,,,,,,,,,,,,,,0.0,0.0,1.0,0.0,512.0,1.0,,,,,,,,,,,,,,,,,,,,,,,,,
11975,1645902484.040112,1645902484.049249,43.0,0.0,4426.666504,4442.563965,4255.897461,4154.358886999999,4295.384765999999,0.0,1.0,15.0,,,,0.0,4.0,1.0,1.0,4.0,4.0,50.0,,,,,,,,,,,,,,,,,,,,,,,,,,,,,,,,,,,,,,,,,,,,,,,,,,,,,,,,,,,,,,,,,,,,,,,,,,,,,,,,,,,,
11976,1645902484.047926,1645902484.057064,44.0,0.0,4406.153809,4449.743652,4223.077147999999,4152.820313,4308.717772999999,0.0,1.0,15.0,,,,0.0,4.0,1.0,1.0,4.0,4.0,50.0,,,,,,,,22.0,0.0,0.709963,-0.008057,0.658691,0.249023,0.951675,-0.319829,-0.14111500000000002,-0.032289,-0.031921,-0.012603,,,,,,,,,,,,,,,,,,,,,,,,,,,,,,,,,,,,,,,,,,,,,,,,,,,,,,,,,,,,,,,,,
11977,1645902484.055741,1645902484.064879,45.0,0.0,4401.025879,4442.563965,4217.436035,4150.256348,4297.436035,0.0,1.0,15.0,,,,0.0,4.0,1.0,1.0,4.0,4.0,50.0,,,,,,,,,,,,,,,,,,,,,,,,,,,,,,,,,,,,,,,,,,,,,,,,,,,,,,,,,,,,,,,,,,,,,,,,,,,,,,,,,,,,
11978,1645902484.063555,1645902484.0726929,46.0,0.0,4396.922852000001,4382.05127,4242.05127,4146.153809,4256.410156,0.0,1.0,15.0,,,,0.0,4.0,1.0,1.0,4.0,4.0,50.0,,,,,,,,23.0,0.0,0.710052,-0.007812999999999999,0.658691,0.248779,0.9428850000000001,-0.323247,-0.140139,-0.032283,-0.031854,-0.013833000000000002,,,,,,,,,,,,,,,,,,,,,,,,,,,,,,,,,,,0.0,0.0,1.0,0.0,512.0,1.0,,,,,,,,,,,,,,,,,,,,,,,,,
11979,1645902484.07137,1645902484.080508,47.0,0.0,4385.641113000001,4294.871582,4285.641113000001,4163.589844,4256.410156,0.0,1.0,15.0,,,,0.0,4.0,1.0,1.0,4.0,4.0,50.0,,,,,,,,,,,,,,,,,,,,,,,,,,,,,,,,,,,,,,,,,,,,,,,,,,,,,,,,,,,,,,,,,,,,,,,,,,,,,,,,,,,,
11980,1645902484.079184,1645902484.088323,48.0,0.0,4387.692383,4335.384765999999,4283.077147999999,4189.230957,4274.871582,0.0,1.0,15.0,,,,0.0,4.0,1.0,1.0,4.0,4.0,50.0,,,,,,,,24.0,0.0,0.710052,-0.007812999999999999,0.658691,0.248779,0.939467,-0.324712,-0.14257999999999998,-0.032277999999999994,-0.031891,-0.015038,,,,,,,,,,,,,,,,,,,,,,,,,,,,,,,,,,,,,,,,,,,,,,,,,,,,,,,,,,,,,,,,,
11981,1645902484.086999,1645902484.096037,49.0,0.0,4409.230957,4421.538574,4274.358886999999,4212.820313,4277.436035,0.0,1.0,15.0,,,,0.0,4.0,1.0,1.0,4.0,4.0,50.0,,,,,,,,,,,,,,,,,,,,,,,,,,,,,,,,,,,,,,,,,,,,,,,,,,,,,,,,,,,,,,,,,,,,,,,,,,,,,,,,,,,,
11982,1645902484.094813,1645902484.103852,50.0,0.0,4421.538574,4328.717772999999,4284.615234000001,4209.230957,4281.025879,0.0,1.0,15.0,,,,0.0,4.0,1.0,1.0,4.0,4.0,50.0,,,,,,,,25.0,0.0,0.7100489999999999,-0.008057,0.658691,0.248779,0.9463030000000001,-0.321294,-0.14648699999999998,-0.032224,-0.031876,-0.012899,,,,,,,,,,,,,,,,,,,,,,,,,,,,,,,,,,,0.0,0.0,1.0,0.0,512.0,1.0,,,,,,,,,,,,,,,,,,,,,,,,,
11983,1645902484.102628,1645902484.111667,51.0,0.0,4411.282227000001,4247.179688,4302.05127,4192.307617,4276.410156,0.0,1.0,15.0,,,,0.0,4.0,1.0,1.0,4.0,4.0,50.0,,,,,,,,,,,,,,,,,,,,,,,,,,,,,,,,,,,,,,,,,,,,,,,,,,,,,,,,,,,,,,,,,,,,,,,,,,,,,,,,,,,,
11984,1645902484.1104429,1645902484.119481,52.0,0.0,4403.077147999999,4351.794922,4243.077147999999,4185.641113000001,4254.358886999999,0.0,1.0,15.0,,,,0.0,4.0,1.0,1.0,4.0,4.0,50.0,,,,,,,,26.0,0.0,0.7100489999999999,-0.008057,0.658691,0.248779,0.9511860000000001,-0.32813000000000003,-0.12695499999999998,-0.032175,-0.032008999999999996,-0.014099,,,,,,,,,,,,,,,,,,,,,,,,,,,,,,,,,,,,,,,,,,,,,,,,,,,,,,,,,,,,,,,,,
11985,1645902484.118257,1645902484.1272962,53.0,0.0,4409.743652,4393.846191,4236.922852000001,4168.205078,4255.384765999999,0.0,1.0,15.0,,,,0.0,4.0,1.0,1.0,4.0,4.0,50.0,,,,,,,,,,,,,,,,,,,,,,,,,,,,,,,,,,,,,,,,,,,,,,,,,,,,,,,,,,,,,,,,,,,,,,,,,,,,,,,,,,,,
11986,1645902484.1260722,1645902484.1351109,54.0,0.0,4424.102539,4289.743652,4265.641113000001,4147.692383,4289.743652,0.0,1.0,15.0,,,,0.0,4.0,1.0,1.0,4.0,4.0,50.0,,,,,,,,27.0,0.0,0.710132,-0.008301000000000001,0.658691,0.24853499999999998,0.9560690000000001,-0.314946,-0.135256,-0.032132,-0.032031,-0.015082,1.0,0.0,0.0,,,,,,,,,,,,,,,,,,,,,,,,,,,,,,,,0.0,0.0,1.0,0.0,512.0,0.859792,2.883808,4.8563220000000005,1.572441,0.724458,1.208257,54.54911800000001,48.273533,36.268421000000004,33.609928000000004,17.710998999999997,12.789432000000001,24.555475,9.829945,7.934408,3.858977,5.386912000000001,1.5644280000000002,4.536146,4.391837000000001,2.856347,5.207477,5.638536,0.7316739999999999,0.935377,1.6495389999999999
11987,1645902484.1338859,1645902484.142925,55.0,0.0,4409.230957,4286.153809,4274.358886999999,4152.307617,4275.897461,0.0,1.0,15.0,,,,0.0,4.0,1.0,1.0,4.0,4.0,50.0,,,,,,,,,,,,,,,,,,,,,,,,,,,,,,,,,,,,,,,,,,,,,,,,,,,,,,,,,,,,,,,,,,,,,,,,,,,,,,,,,,,,
11988,1645902484.141701,1645902484.1507401,56.0,0.0,4387.692383,4387.692383,4242.563965,4158.974121,4246.153809,0.0,1.0,15.0,,,,0.0,4.0,1.0,1.0,4.0,4.0,50.0,,,,,,,,28.0,0.0,0.710132,-0.008301000000000001,0.658691,0.24853499999999998,0.937514,-0.318364,-0.144533,-0.032141,-0.032197,-0.015918,,,,,,,,,,,,,,,,,,,,,,,,,,,,,,,,,,,,,,,,,,,,,,,,,,,,,,,,,,,,,,,,,
11989,1645902484.1495152,1645902484.158555,57.0,0.0,4387.179688,4339.487305,4217.94873,4160.512695,4260.0,0.0,1.0,15.0,,,,0.0,4.0,1.0,1.0,4.0,4.0,50.0,,,,,,,,,,,,,,,,,,,,,,,,,,,,,,,,,,,,,,,,,,,,,,,,,,,,,,,,,,,,,,,,,,,,,,,,,,,,,,,,,,,,
11990,1645902484.15733,1645902484.166269,58.0,0.0,4405.641113000001,4267.692383,4186.666504,4182.563965,4277.436035,0.0,1.0,15.0,,,,0.0,4.0,1.0,1.0,4.0,4.0,50.0,,,,,,,,29.0,0.0,0.710132,-0.008301000000000001,0.658691,0.24853499999999998,0.9428850000000001,-0.321782,-0.147463,-0.032101,-0.032249,-0.013642,,,,,,,,,,,,,,,,,,,,,,,,,,,,,,,,,,,0.0,0.0,1.0,0.0,512.0,0.859792,,,,,,,,,,,,,,,,,,,,,,,,,
11991,1645902484.165144,1645902484.174084,59.0,0.0,4398.974121,4352.820313,4205.128418,4181.025879,4247.692383,0.0,1.0,15.0,,,,0.0,4.0,1.0,1.0,4.0,4.0,50.0,,,,,,,,,,,,,,,,,,,,,,,,,,,,,,,,,,,,,,,,,,,,,,,,,,,,,,,,,,,,,,,,,,,,,,,,,,,,,,,,,,,,
11992,1645902484.172959,1645902484.181899,60.0,0.0,4390.769043,4405.128418,4221.025879,4160.0,4230.769043,0.0,1.0,15.0,,,,0.0,4.0,1.0,1.0,4.0,4.0,50.0,,,,,,,,30.0,0.0,0.710132,-0.008301000000000001,0.658691,0.24853499999999998,0.9560690000000001,-0.314946,-0.135256,-0.032113,-0.032246,-0.011594,,,,,,,,,,,,,,,,,,,,,,,,,,,,,,,,,,,,,,,,,,,,,,,,,,,,,,,,,,,,,,,,,
11993,1645902484.180774,1645902484.189713,61.0,0.0,4395.897461,4330.769043,4217.436035,4161.025879,4247.179688,0.0,1.0,15.0,,,,0.0,4.0,1.0,1.0,4.0,4.0,50.0,,,,,,,,,,,,,,,,,,,,,,,,,,,,,,,,,,,,,,,,,,,,,,,,,,,,,,,,,,,,,,,,,,,,,,,,,,,,,,,,,,,,
11994,1645902484.1885881,1645902484.197528,62.0,0.0,4405.128418,4303.077147999999,4271.794922,4187.179688,4257.94873,0.0,1.0,15.0,,,,0.0,4.0,1.0,1.0,4.0,4.0,50.0,,,,,,,,31.0,0.0,0.710132,-0.008301000000000001,0.658691,0.24853499999999998,0.9428850000000001,-0.321782,-0.147463,-0.032076,-0.032293,-0.009751000000000001,,,,,,,,,,,,,,,,,,,,,,,,,,,,,,,,,,,0.0,0.0,1.0,0.0,512.0,0.859792,,,,,,,,,,,,,,,,,,,,,,,,,
11995,1645902484.196403,1645902484.205343,63.0,0.0,4415.384765999999,4352.307617,4323.077147999999,4195.384765999999,4252.307617,0.0,1.0,15.0,,,,0.0,4.0,1.0,1.0,4.0,4.0,50.0,,,,,,,,,,,,,,,,,,,,,,,,,,,,,,,,,,,,,,,,,,,,,,,,,,,,,,,,,,,,,,,,,,,,,,,,,,,,,,,,,,,,
11996,1645902484.204217,1645902484.213157,64.0,0.0,4419.487305,4348.205078,4293.333496,4187.692383,4246.153809,450.0,1.0,15.0,,,,0.0,4.0,1.0,1.0,4.0,4.0,50.0,,,,,,,,32.0,0.0,0.710132,-0.008301000000000001,0.658691,0.24853499999999998,0.940932,-0.3252,-0.135256,-0.031945,-0.032336000000000004,-0.011169,,,,,,,,,,,,,,,,,,,,,,,,,,,,,,,,,,,,,,,,,,,,,,,,,,,,,,,,,,,,,,,,,
11997,1645902484.212032,1645902484.220972,65.0,0.0,4411.794922,4320.0,4227.692383,4172.820313,4238.461426,450.0,1.0,15.0,,,,0.0,4.0,1.0,1.0,4.0,4.0,50.0,,,,,,,,,,,,,,,,,,,,,,,,,,,,,,,,,,,,,,,,,,,,,,,,,,,,,,,,,,,,,,,,,,,,,,,,,,,,,,,,,,,,
11998,1645902484.219846,1645902484.228787,66.0,0.0,4410.256348,4348.205078,4260.0,4175.897461,4241.025879,16263.0,1.0,15.0,,,,0.0,4.0,1.0,1.0,4.0,4.0,50.0,,,,,,,,33.0,0.0,0.709905,-0.008301000000000001,0.658936,0.24853499999999998,0.945327,-0.320317,-0.12842,-0.031875,-0.032471,-0.009417,,,,,,,,,,,,,,,,,,,,,,,,,,,,,,,,,,,0.0,0.0,1.0,0.0,512.0,0.859792,,,,,,,,,,,,,,,,,,,,,,,,,
11999,1645902484.227661,1645902484.236501,67.0,0.0,4417.94873,4383.077147999999,4284.102539,4188.717772999999,4240.0,450.0,1.0,15.0,,,,0.0,4.0,4.0,0.0,4.0,4.0,66.666664,,,,,,,,,,,,,,,,,,,,,,,,,,,,,,,,,,,,,,,,,,,,,,,,,,,,,,,,,,,,,,,,,,,,,,,,,,,,,,,,,,,,
12000,1645902484.235475,1645902484.244316,68.0,0.0,4414.358886999999,4402.05127,4274.358886999999,4181.025879,4247.179688,16114.0,1.0,15.0,,,,0.0,4.0,4.0,0.0,4.0,4.0,66.666664,,,,,,,,34.0,0.0,0.710132,-0.008301000000000001,0.658691,0.24853499999999998,0.9350729999999999,-0.32861799999999997,-0.144045,-0.031862,-0.032447000000000004,-0.007792,,,,,,,,,,,,,,,,,,,,,,,,,,,,,,,,,,,,,,,,,,,,,,,,,,,,,,,,,,,,,,,,,
12001,1645902484.24329,1645902484.252131,69.0,0.0,4407.692383,4371.794922,4258.461426,4175.897461,4271.794922,450.0,1.0,15.0,,,,0.0,4.0,4.0,0.0,4.0,4.0,66.666664,,,,,,,,,,,,,,,,,,,,,,,,,,,,,,,,,,,,,,,,,,,,,,,,,,,,,,,,,,,,,,,,,,,,,,,,,,,,,,,,,,,,
12002,1645902484.2511039,1645902484.259945,70.0,0.0,4392.307617,4308.717772999999,4268.205078,4191.794922,4255.384765999999,0.0,1.0,15.0,,,,0.0,4.0,4.0,0.0,4.0,4.0,66.666664,,,,,,,,35.0,0.0,0.710132,-0.008301000000000001,0.658691,0.24853499999999998,0.948257,-0.318853,-0.131838,-0.031898,-0.032376,-0.009503,1.0,0.0,0.0,,,,,,,,,,,,,,,,,,,,,,,,,,,,,,,,0.0,0.0,64.0,0.08293500000000001,1.0,0.0,2.200093,3.6652720000000003,1.448353,0.6791590000000001,1.063691,56.668944999999994,48.970741,44.392235,30.451502,16.638435,12.296623,21.628357,7.971075,9.078852000000001,3.635018,5.9199,1.4506620000000001,5.246633999999999,4.745463,2.7129060000000003,3.969432,5.681265,0.636644,0.879041,1.636284
12003,1645902484.258919,1645902484.26776,71.0,0.0,4389.230957,4298.461426,4225.641113000001,4184.102539,4226.153809,450.0,1.0,15.0,,,,0.0,4.0,4.0,0.0,4.0,4.0,66.666664,,,,,,,,,,,,,,,,,,,,,,,,,,,,,,,,,,,,,,,,,,,,,,,,,,,,,,,,,,,,,,,,,,,,,,,,,,,,,,,,,,,,
12004,1645902484.266734,1645902484.275574,72.0,0.0,4433.333496,4328.717772999999,4230.256348,4151.794922,4235.384765999999,450.0,1.0,15.0,,,,0.0,4.0,4.0,0.0,4.0,4.0,66.666664,,,,,,,,36.0,0.0,0.709905,-0.008301000000000001,0.658936,0.24853499999999998,0.938491,-0.316899,-0.137209,-0.031931,-0.032312,-0.007918000000000001,,,,,,,,,,,,,,,,,,,,,,,,,,,,,,,,,,,,,,,,,,,,,,,,,,,,,,,,,,,,,,,,,
12005,1645902484.274548,1645902484.283389,73.0,0.0,4505.641113000001,4383.589844,4269.230957,4158.461426,4270.256348,16149.0,1.0,15.0,,,,0.0,4.0,4.0,0.0,4.0,4.0,66.666664,,,,,,,,,,,,,,,,,,,,,,,,,,,,,,,,,,,,,,,,,,,,,,,,,,,,,,,,,,,,,,,,,,,,,,,,,,,,,,,,,,,,
12006,1645902484.2823632,1645902484.291204,74.0,0.0,4551.794922,4441.538574,4256.410156,4198.461426,4296.922852000001,450.0,1.0,15.0,,,,0.0,4.0,4.0,0.0,4.0,4.0,66.666664,,,,,,,,37.0,0.0,0.709905,-0.008301000000000001,0.658936,0.24853499999999998,0.954116,-0.321782,-0.142092,-0.031961,-0.032304,-0.009568,,,,,,,,,,,,,,,,,,,,,,,,,,,,,,,,,,,0.0,0.0,64.0,0.08293500000000001,1.0,0.0,,,,,,,,,,,,,,,,,,,,,,,,,
12007,1645902484.2901769,1645902484.299018,75.0,0.0,4587.692383,4444.615234000001,4202.563965,4211.794922,4318.461426,16309.0,1.0,15.0,,,,0.0,4.0,4.0,0.0,4.0,4.0,66.666664,,,,,,,,,,,,,,,,,,,,,,,,,,,,,,,,,,,,,,,,,,,,,,,,,,,,,,,,,,,,,,,,,,,,,,,,,,,,,,,,,,,,
12008,1645902484.297992,1645902484.306833,76.0,0.0,4601.538574,4421.538574,4200.0,4190.256348,4323.589844,450.0,1.0,15.0,,,,0.0,4.0,4.0,0.0,4.0,4.0,66.666664,,,,,,,,38.0,0.0,0.709905,-0.008301000000000001,0.658936,0.24853499999999998,0.946792,-0.321294,-0.12695499999999998,-0.032036,-0.032198000000000004,-0.007976,,,,,,,,,,,,,,,,,,,,,,,,,,,,,,,,,,,,,,,,,,,,,,,,,,,,,,,,,,,,,,,,,
12009,1645902484.3058062,1645902484.314548,77.0,0.0,4587.179688,4418.974121,4237.94873,4172.820313,4328.205078,450.0,1.0,15.0,,,,0.0,4.0,4.0,0.0,4.0,4.0,66.666664,,,,,,,,,,,,,,,,,,,,,,,,,,,,,,,,,,,,,,,,,,,,,,,,,,,,,,,,,,,,,,,,,,,,,,,,,,,,,,,,,,,,
12010,1645902484.313621,1645902484.322362,78.0,0.0,4582.563965,4439.487305,4253.846191,4151.282227000001,4315.384765999999,450.0,1.0,15.0,,,,0.0,4.0,4.0,0.0,4.0,4.0,66.666664,,,,,,,,39.0,0.0,0.709905,-0.008301000000000001,0.658936,0.24853499999999998,0.947768,-0.326665,-0.142092,-0.032055,-0.03225,-0.00962,,,,,,,,,,,,,,,,,,,,,,,,,,,,,,,,,,,0.0,0.0,64.0,0.08293500000000001,1.0,0.0,,,,,,,,,,,,,,,,,,,,,,,,,
12011,1645902484.321435,1645902484.330177,79.0,0.0,4592.820313,4487.179688,4243.589844,4156.922852000001,4304.615234000001,16309.0,1.0,15.0,,,,0.0,4.0,4.0,0.0,4.0,4.0,66.666664,,,,,,,,,,,,,,,,,,,,,,,,,,,,,,,,,,,,,,,,,,,,,,,,,,,,,,,,,,,,,,,,,,,,,,,,,,,,,,,,,,,,
12012,1645902484.32925,1645902484.337992,80.0,0.0,4557.94873,4521.538574,4234.871582,4185.641113000001,4311.794922,450.0,1.0,15.0,,,,0.0,4.0,4.0,0.0,4.0,4.0,66.666664,,,,,,,,40.0,0.0,0.709902,-0.008545,0.658936,0.24853499999999998,0.9673,-0.309575,-0.145022,-0.032024000000000004,-0.032394,-0.008023,,,,,,,,,,,,,,,,,,,,,,,,,,,,,,,,,,,,,,,,,,,,,,,,,,,,,,,,,,,,,,,,,
12013,1645902484.337064,1645902484.3458061,81.0,0.0,4500.0,4509.743652,4289.743652,4192.307617,4296.922852000001,450.0,1.0,15.0,,,,0.0,4.0,4.0,0.0,4.0,4.0,66.666664,,,,,,,,,,,,,,,,,,,,,,,,,,,,,,,,,,,,,,,,,,,,,,,,,,,,,,,,,,,,,,,,,,,,,,,,,,,,,,,,,,,,
12014,1645902484.344879,1645902484.353621,82.0,0.0,4478.461426,4462.05127,4298.974121,4164.102539,4271.282227000001,450.0,1.0,15.0,,,,0.0,4.0,4.0,0.0,4.0,4.0,66.666664,,,,,,,,41.0,0.0,0.709902,-0.008545,0.658936,0.24853499999999998,0.945327,-0.327642,-0.143069,-0.032093,-0.032329000000000004,-0.009613,,,,,,,,,,,,,,,,,,,,,,,,,,,,,,,,,,,0.0,0.0,64.0,0.08293500000000001,1.0,0.0,,,,,,,,,,,,,,,,,,,,,,,,,
12015,1645902484.352693,1645902484.361436,83.0,0.0,4465.128418,4396.410156,4238.461426,4131.282227000001,4275.384765999999,16309.0,1.0,15.0,,,,0.0,4.0,4.0,0.0,4.0,4.0,66.666664,,,,,,,,,,,,,,,,,,,,,,,,,,,,,,,,,,,,,,,,,,,,,,,,,,,,,,,,,,,,,,,,,,,,,,,,,,,,,,,,,,,,
12016,1645902484.360508,1645902484.36925,84.0,0.0,4441.025879,4395.897461,4196.922852000001,4139.487305,4275.897461,450.0,1.0,15.0,,,,0.0,4.0,4.0,0.0,4.0,4.0,66.666664,,,,,,,,42.0,0.0,0.7099880000000001,-0.008545,0.658936,0.24829099999999998,0.9463030000000001,-0.3252,-0.140139,-0.032155,-0.032367,-0.008213,,,,,,,,,,,,,,,,,,,,,,,,,,,,,,,,,,,,,,,,,,,,,,,,,,,,,,,,,,,,,,,,,
12017,1645902484.368323,1645902484.377065,85.0,0.0,4435.384765999999,4490.769043,4282.05127,4185.641113000001,4256.922852000001,450.0,1.0,15.0,,,,0.0,4.0,4.0,0.0,4.0,4.0,66.666664,,,,,,,,,,,,,,,,,,,,,,,,,,,,,,,,,,,,,,,,,,,,,,,,,,,,,,,,,,,,,,,,,,,,,,,,,,,,,,,,,,,,
12018,1645902484.376137,1645902484.3847802,86.0,0.0,4441.538574,4488.205078,4308.205078,4185.641113000001,4254.871582,450.0,1.0,15.0,,,,0.0,4.0,4.0,0.0,4.0,4.0,66.666664,1.0,16.666666,2.0,1.0,0.0,1.0,1.0,43.0,0.0,0.709991,-0.008301000000000001,0.658936,0.24829099999999998,0.960952,-0.31787600000000005,-0.142092,-0.032064999999999996,-0.032305,-0.009882,1.0,0.0,0.0,,,,,,,,,,,,,,,,,,,,,,,,,,,,,,,,10.0,0.0,64.0,0.188427,1.0,0.0,2.028814,2.945837,1.305302,0.692403,0.970039,53.284180000000006,45.537338,49.608523999999996,25.416061,15.509704999999999,12.785250999999999,18.274876000000003,7.241381,9.772028,3.494485,6.080421,1.411559,5.93227,4.966908,2.5271049999999997,3.2478029999999998,5.514926,0.587162,0.879257,1.595314
12019,1645902484.383952,1645902484.3925939,87.0,0.0,4414.358886999999,4413.333496,4256.410156,4136.410156,4240.512695,16309.0,1.0,15.0,,,,0.0,4.0,4.0,0.0,4.0,4.0,66.666664,,,,,,,,,,,,,,,,,,,,,,,,,,,,,,,,,,,,,,,,,,,,,,,,,,,,,,,,,,,,,,,,,,,,,,,,,,,,,,,,,,,,
12020,1645902484.391766,1645902484.400409,88.0,0.0,4401.025879,4452.820313,4257.94873,4114.358886999999,4231.282227000001,450.0,1.0,15.0,,,,0.0,4.0,4.0,0.0,4.0,4.0,66.666664,,,,,,,,44.0,0.0,0.709991,-0.008301000000000001,0.658936,0.24829099999999998,0.960464,-0.316411,-0.15332300000000001,-0.032081,-0.032297,-0.008308,,,,,,,,,,,,,,,,,,,,,,,,,,,,,,,,,,,,,,,,,,,,,,,,,,,,,,,,,,,,,,,,,
12021,1645902484.399581,1645902484.408224,89.0,0.0,4419.487305,4510.769043,4307.692383,4127.692383,4238.974121,450.0,1.0,15.0,,,,0.0,4.0,4.0,0.0,4.0,4.0,66.666664,,,,,,,,,,,,,,,,,,,,,,,,,,,,,,,,,,,,,,,,,,,,,,,,,,,,,,,,,,,,,,,,,,,,,,,,,,,,,,,,,,,,
12022,1645902484.407395,1645902484.416038,90.0,0.0,4433.846191,4495.384765999999,4255.897461,4157.436035,4245.128418,450.0,1.0,15.0,,,,0.0,4.0,4.0,0.0,4.0,4.0,66.666664,,,,,,,,45.0,0.0,0.709991,-0.008301000000000001,0.658936,0.24829099999999998,0.949722,-0.31396999999999997,-0.144045,-0.032047000000000006,-0.032192,-0.010114,,,,,,,,,,,,,,,,,,,,,,,,,,,,,,,,,,,10.0,0.0,64.0,0.188427,1.0,0.0,,,,,,,,,,,,,,,,,,,,,,,,,
12023,1645902484.41521,1645902484.423853,91.0,0.0,4411.282227000001,4433.846191,4210.769043,4190.256348,4236.922852000001,16309.0,1.0,15.0,,,,0.0,4.0,4.0,0.0,4.0,4.0,66.666664,,,,,,,,,,,,,,,,,,,,,,,,,,,,,,,,,,,,,,,,,,,,,,,,,,,,,,,,,,,,,,,,,,,,,,,,,,,,,,,,,,,,
12024,1645902484.423025,1645902484.431668,92.0,0.0,4401.025879,4433.333496,4235.384765999999,4195.897461,4239.487305,450.0,1.0,15.0,,,,0.0,4.0,4.0,0.0,4.0,4.0,66.666664,,,,,,,,46.0,0.0,0.709761,-0.008545,0.65918,0.24829099999999998,0.956558,-0.314946,-0.130373,-0.032064999999999996,-0.032195999999999995,-0.008516,,,,,,,,,,,,,,,,,,,,,,,,,,,,,,,,,,,,,,,,,,,,,,,,,,,,,,,,,,,,,,,,,
12025,1645902484.430839,1645902484.439482,93.0,0.0,4402.563965,4471.794922,4254.358886999999,4170.769043,4246.153809,450.0,1.0,15.0,,,,0.0,4.0,4.0,0.0,4.0,4.0,66.666664,,,,,,,,,,,,,,,,,,,,,,,,,,,,,,,,,,,,,,,,,,,,,,,,,,,,,,,,,,,,,,,,,,,,,,,,,,,,,,,,,,,,
12026,1645902484.438654,1645902484.447297,94.0,0.0,4382.05127,4420.0,4287.692383,4158.974121,4239.487305,450.0,1.0,15.0,,,,0.0,4.0,4.0,0.0,4.0,4.0,66.666664,,,,,,,,47.0,0.0,0.709676,-0.008545,0.65918,0.24853499999999998,0.934585,-0.316899,-0.13281500000000002,-0.032081,-0.032101,-0.010204000000000001,,,,,,,,,,,,,,,,,,,,,,,,,,,,,,,,,,,10.0,0.0,64.0,0.188427,1.0,0.0,,,,,,,,,,,,,,,,,,,,,,,,,
12027,1645902484.4464679,1645902484.455112,95.0,0.0,4358.461426,4403.077147999999,4307.179688,4123.589844,4212.307617,16309.0,1.0,15.0,,,,0.0,4.0,4.0,0.0,4.0,4.0,66.666664,,,,,,,,,,,,,,,,,,,,,,,,,,,,,,,,,,,,,,,,,,,,,,,,,,,,,,,,,,,,,,,,,,,,,,,,,,,,,,,,,,,,
12028,1645902484.454283,1645902484.462826,96.0,0.0,4374.358886999999,4543.077147999999,4266.153809,4107.692383,4210.769043,450.0,1.0,15.0,,,,0.0,4.0,4.0,0.0,4.0,4.0,66.666664,,,,,,,,48.0,0.0,0.709673,-0.008789,0.65918,0.24853499999999998,0.947768,-0.316411,-0.138186,-0.032095,-0.032114,-0.011625,,,,,,,,,,,,,,,,,,,,,,,,,,,,,,,,,,,,,,,,,,,,,,,,,,,,,,,,,,,,,,,,,
12029,1645902484.4620972,1645902484.470641,97.0,0.0,4385.641113000001,4596.922852000001,4228.717772999999,4136.410156,4234.871582,450.0,1.0,15.0,,,,0.0,4.0,4.0,0.0,4.0,4.0,66.666664,,,,,,,,,,,,,,,,,,,,,,,,,,,,,,,,,,,,,,,,,,,,,,,,,,,,,,,,,,,,,,,,,,,,,,,,,,,,,,,,,,,,
12030,1645902484.4699118,1645902484.478456,98.0,0.0,4367.179688,4487.692383,4261.538574,4143.077147999999,4229.743652,450.0,1.0,15.0,,,,0.0,4.0,4.0,0.0,4.0,4.0,66.666664,,,,,,,,49.0,0.0,0.709676,-0.008545,0.65918,0.24853499999999998,0.9546040000000001,-0.321782,-0.127932,-0.032109,-0.032125,-0.009828,,,,,,,,,,,,,,,,,,,,,,,,,,,,,,,,,,,10.0,0.0,64.0,0.188427,1.0,0.0,,,,,,,,,,,,,,,,,,,,,,,,,
12031,1645902484.477726,1645902484.48627,99.0,0.0,4360.0,4443.589844,4249.743652,4125.641113000001,4191.794922,16309.0,1.0,15.0,,,,0.0,4.0,4.0,0.0,4.0,4.0,66.666664,,,,,,,,,,,,,,,,,,,,,,,,,,,,,,,,,,,,,,,,,,,,,,,,,,,,,,,,,,,,,,,,,,,,,,,,,,,,,,,,,,,,
12032,1645902484.485541,1645902484.494085,100.0,0.0,4363.589844,4511.794922,4263.589844,4155.384765999999,4182.05127,450.0,1.0,15.0,,,,0.0,4.0,4.0,0.0,4.0,4.0,66.666664,,,,,,,,50.0,0.0,0.709676,-0.008545,0.65918,0.24853499999999998,0.948257,-0.32227100000000003,-0.142092,-0.032119999999999996,-0.032135000000000004,-0.011335,,,,,,,,,,,,,,,,,,,,,,,,,,,,,,,,,,,,,,,,,,,,,,,,,,,,,,,,,,,,,,,,,
12033,1645902484.493355,1645902484.5019,101.0,0.0,4377.436035,4545.128418,4278.974121,4189.230957,4230.256348,450.0,1.0,15.0,,,,0.0,4.0,4.0,0.0,4.0,4.0,66.666664,,,,,,,,,,,,,,,,,,,,,,,,,,,,,,,,,,,,,,,,,,,,,,,,,,,,,,,,,,,,,,,,,,,,,,,,,,,,,,,,,,,,
12034,1645902484.50117,1645902484.5097141,102.0,0.0,4399.487305,4518.461426,4279.487305,4165.128418,4269.230957,450.0,1.0,15.0,,,,0.0,4.0,4.0,0.0,4.0,4.0,66.666664,,,,,,,,51.0,0.0,0.709676,-0.008545,0.65918,0.24853499999999998,0.95021,-0.330083,-0.12842,-0.032229,-0.032193,-0.012692,1.0,0.0,0.0,,,,,,,,,,,,,,,,,,,,,,,,,,,,,,,,10.0,0.0,64.0,0.217962,1.0,0.0,2.5961689999999997,2.980542,1.211078,0.7359319999999999,0.923724,44.501529999999995,39.127132,50.211376,19.989912,14.889524,13.532706,15.637616,7.448875,9.980979,3.515289,5.8365,1.413392,6.548728,5.076155,2.32796,2.947637,5.269794999999999,0.567943,0.932629,1.55261
12035,1645902484.508984,1645902484.517529,103.0,0.0,4382.05127,4521.025879,4241.538574,4136.922852000001,4244.615234000001,16309.0,1.0,15.0,,,,0.0,4.0,4.0,0.0,4.0,4.0,66.666664,,,,,,,,,,,,,,,,,,,,,,,,,,,,,,,,,,,,,,,,,,,,,,,,,,,,,,,,,,,,,,,,,,,,,,,,,,,,,,,,,,,,
12036,1645902484.516799,1645902484.525343,104.0,0.0,4342.05127,4554.871582,4231.282227000001,4154.358886999999,4205.641113000001,450.0,1.0,15.0,,,,0.0,4.0,4.0,0.0,4.0,4.0,66.666664,,,,,,,,52.0,0.0,0.709676,-0.008545,0.65918,0.24853499999999998,0.9423969999999999,-0.319829,-0.135744,-0.032131,-0.032197,-0.013913,,,,,,,,,,,,,,,,,,,,,,,,,,,,,,,,,,,,,,,,,,,,,,,,,,,,,,,,,,,,,,,,,
12037,1645902484.524614,1645902484.533058,105.0,0.0,4373.333496,4535.897461,4231.282227000001,4187.692383,4225.128418,450.0,1.0,15.0,,,,0.0,4.0,4.0,0.0,4.0,4.0,66.666664,,,,,,,,,,,,,,,,,,,,,,,,,,,,,,,,,,,,,,,,,,,,,,,,,,,,,,,,,,,,,,,,,,,,,,,,,,,,,,,,,,,,
12038,1645902484.532428,1645902484.540873,106.0,0.0,4403.077147999999,4482.563965,4269.743652,4182.563965,4243.077147999999,450.0,1.0,15.0,,,,0.0,4.0,4.0,0.0,4.0,4.0,66.666664,,,,,,,,53.0,0.0,0.709593,-0.008301000000000001,0.65918,0.248779,0.9428850000000001,-0.334478,-0.124025,-0.032238,-0.0322,-0.011692000000000001,,,,,,,,,,,,,,,,,,,,,,,,,,,,,,,,,,,0.0,0.0,64.0,0.217962,1.0,0.0,,,,,,,,,,,,,,,,,,,,,,,,,
12039,1645902484.540243,1645902484.5486882,107.0,0.0,4382.05127,4502.563965,4291.282227000001,4160.0,4227.179688,16309.0,1.0,15.0,,,,0.0,4.0,4.0,0.0,4.0,4.0,66.666664,,,,,,,,,,,,,,,,,,,,,,,,,,,,,,,,,,,,,,,,,,,,,,,,,,,,,,,,,,,,,,,,,,,,,,,,,,,,,,,,,,,,
12040,1645902484.548057,1645902484.5565019,108.0,0.0,4372.820313,4532.307617,4260.0,4137.94873,4218.461426,450.0,1.0,15.0,,,,0.0,4.0,4.0,0.0,4.0,4.0,66.666664,,,,,,,,54.0,0.0,0.709593,-0.008301000000000001,0.65918,0.248779,0.947768,-0.319341,-0.143069,-0.032286,-0.032105,-0.013013,,,,,,,,,,,,,,,,,,,,,,,,,,,,,,,,,,,,,,,,,,,,,,,,,,,,,,,,,,,,,,,,,
12041,1645902484.555872,1645902484.564317,109.0,0.0,4390.769043,4511.794922,4243.589844,4146.153809,4225.128418,450.0,1.0,15.0,,,,0.0,4.0,4.0,0.0,4.0,4.0,66.666664,,,,,,,,,,,,,,,,,,,,,,,,,,,,,,,,,,,,,,,,,,,,,,,,,,,,,,,,,,,,,,,,,,,,,,,,,,,,,,,,,,,,
12042,1645902484.563686,1645902484.5721312,110.0,0.0,4383.077147999999,4481.025879,4268.717772999999,4174.871582,4228.717772999999,450.0,1.0,15.0,,,,0.0,4.0,4.0,0.0,4.0,4.0,66.666664,,,,,,,,55.0,0.0,0.709593,-0.008301000000000001,0.65918,0.248779,0.9423969999999999,-0.327642,-0.123537,-0.032329000000000004,-0.032068,-0.014202000000000001,,,,,,,,,,,,,,,,,,,,,,,,,,,,,,,,,,,0.0,0.0,64.0,0.217962,1.0,0.0,,,,,,,,,,,,,,,,,,,,,,,,,
12043,1645902484.571501,1645902484.579946,111.0,0.0,4372.820313,4495.384765999999,4273.846191,4185.641113000001,4237.94873,16309.0,1.0,15.0,,,,0.0,4.0,4.0,0.0,4.0,4.0,66.666664,,,,,,,,,,,,,,,,,,,,,,,,,,,,,,,,,,,,,,,,,,,,,,,,,,,,,,,,,,,,,,,,,,,,,,,,,,,,,,,,,,,,
12044,1645902484.579315,1645902484.587761,112.0,0.0,4371.794922,4601.025879,4221.538574,4167.692383,4225.128418,450.0,1.0,15.0,,,,0.0,4.0,4.0,0.0,4.0,4.0,66.666664,,,,,,,,56.0,0.0,0.709593,-0.008301000000000001,0.65918,0.248779,0.954116,-0.316411,-0.141604,-0.032416,-0.032083999999999994,-0.015271999999999999,,,,,,,,,,,,,,,,,,,,,,,,,,,,,,,,,,,,,,,,,,,,,,,,,,,,,,,,,,,,,,,,,
12045,1645902484.58713,1645902484.595575,113.0,0.0,4362.05127,4688.205078,4214.358886999999,4171.794922,4218.461426,450.0,1.0,15.0,,,,0.0,4.0,4.0,0.0,4.0,4.0,66.666664,,,,,,,,,,,,,,,,,,,,,,,,,,,,,,,,,,,,,,,,,,,,,,,,,,,,,,,,,,,,,,,,,,,,,,,,,,,,,,,,,,,,
12046,1645902484.594945,1645902484.60329,114.0,0.0,4356.922852000001,4641.025879,4246.153809,4181.538574,4226.666504,450.0,1.0,15.0,,,,0.0,4.0,4.0,0.0,4.0,4.0,66.666664,,,,,,,,57.0,0.0,0.709593,-0.008301000000000001,0.65918,0.248779,0.945815,-0.314458,-0.131838,-0.032544,-0.03205,-0.012962999999999999,,,,,,,,,,,,,,,,,,,,,,,,,,,,,,,,,,,0.0,0.0,64.0,0.217962,1.0,0.0,,,,,,,,,,,,,,,,,,,,,,,,,
12047,1645902484.602759,1645902484.611105,115.0,0.0,4360.512695,4534.871582,4283.589844,4180.512695,4217.436035,16309.0,1.0,15.0,,,,0.0,4.0,4.0,0.0,4.0,4.0,66.666664,,,,,,,,,,,,,,,,,,,,,,,,,,,,,,,,,,,,,,,,,,,,,,,,,,,,,,,,,,,,,,,,,,,,,,,,,,,,,,,,,,,,
12048,1645902484.610574,1645902484.618919,116.0,0.0,4363.589844,4542.563965,4264.102539,4185.128418,4207.179688,450.0,1.0,15.0,,,,0.0,4.0,4.0,0.0,4.0,4.0,66.666664,,,,,,,,58.0,0.0,0.709593,-0.008301000000000001,0.65918,0.248779,0.9423969999999999,-0.327642,-0.123537,-0.032561,-0.032116000000000006,-0.011081,,,,,,,,,,,,,,,,,,,,,,,,,,,,,,,,,,,,,,,,,,,,,,,,,,,,,,,,,,,,,,,,,
12049,1645902484.6183882,1645902484.626734,117.0,0.0,4348.717772999999,4636.410156,4237.94873,4163.589844,4209.743652,450.0,1.0,15.0,,,,0.0,4.0,4.0,0.0,4.0,4.0,66.666664,,,,,,,,,,,,,,,,,,,,,,,,,,,,,,,,,,,,,,,,,,,,,,,,,,,,,,,,,,,,,,,,,,,,,,,,,,,,,,,,,,,,
12050,1645902484.6262028,1645902484.6345491,118.0,0.0,4344.615234000001,4620.0,4210.256348,4148.205078,4219.487305,450.0,1.0,15.0,,,,0.0,4.0,4.0,0.0,4.0,4.0,66.666664,,,,,,,,59.0,0.0,0.709593,-0.008301000000000001,0.65918,0.248779,0.945815,-0.314458,-0.131838,-0.032674,-0.032077999999999995,-0.009192,1.0,0.0,0.0,,,,,,,,,,,,,,,,,,,,,,,,,,,,,,,,0.0,0.0,64.0,0.283979,1.0,0.0,5.128208,4.272498000000001,1.2408379999999999,0.810884,0.908849,34.113411,31.729785999999997,45.936409000000005,15.709845999999999,15.077797,13.871591,14.407763000000001,8.153821,9.836628999999999,3.7547599999999997,5.336092,1.47456,7.09543,5.152779,2.131192,3.103774,5.100231,0.594086,1.0277100000000001,1.5212290000000002
12051,1645902484.634017,1645902484.642363,119.0,0.0,4369.743652,4542.05127,4252.820313,4183.589844,4223.589844,16309.0,1.0,15.0,,,,0.0,4.0,4.0,0.0,4.0,4.0,66.666664,,,,,,,,,,,,,,,,,,,,,,,,,,,,,,,,,,,,,,,,,,,,,,,,,,,,,,,,,,,,,,,,,,,,,,,,,,,,,,,,,,,,
12052,1645902484.641832,1645902484.650178,120.0,0.0,4386.153809,4608.717772999999,4280.0,4175.897461,4229.743652,450.0,1.0,15.0,,,,0.0,4.0,4.0,0.0,4.0,4.0,66.666664,,,,,,,,60.0,0.0,0.70982,-0.008301000000000001,0.658936,0.248779,0.952651,-0.318364,-0.136721,-0.032581,-0.032044,-0.010714,,,,,,,,,,,,,,,,,,,,,,,,,,,,,,,,,,,,,,,,,,,,,,,,,,,,,,,,,,,,,,,,,
12053,1645902484.649646,1645902484.657993,121.0,0.0,4367.179688,4699.487305,4270.256348,4133.333496,4218.974121,450.0,1.0,15.0,,,,0.0,4.0,4.0,0.0,4.0,4.0,66.666664,,,,,,,,,,,,,,,,,,,,,,,,,,,,,,,,,,,,,,,,,,,,,,,,,,,,,,,,,,,,,,,,,,,,,,,,,,,,,,,,,,,,
12054,1645902484.657461,1645902484.665707,122.0,0.0,4367.692383,4645.641113000001,4265.128418,4146.153809,4216.410156,450.0,1.0,15.0,,,,0.0,4.0,4.0,0.0,4.0,4.0,66.666664,,,,,,,,61.0,0.0,0.70982,-0.008301000000000001,0.658936,0.248779,0.945815,-0.316411,-0.139651,-0.032594,-0.031867,-0.009105,,,,,,,,,,,,,,,,,,,,,,,,,,,,,,,,,,,0.0,0.0,64.0,0.283979,1.0,0.0,,,,,,,,,,,,,,,,,,,,,,,,,
12055,1645902484.665275,1645902484.673522,123.0,0.0,4376.410156,4610.256348,4281.025879,4158.974121,4207.692383,16309.0,1.0,15.0,,,,0.0,4.0,4.0,0.0,4.0,4.0,66.666664,,,,,,,,,,,,,,,,,,,,,,,,,,,,,,,,,,,,,,,,,,,,,,,,,,,,,,,,,,,,,,,,,,,,,,,,,,,,,,,,,,,,
12056,1645902484.67309,1645902484.6813369,124.0,0.0,4370.256348,4689.230957,4251.282227000001,4151.282227000001,4194.871582,450.0,1.0,15.0,,,,0.0,4.0,4.0,0.0,4.0,4.0,66.666664,,,,,,,,62.0,0.0,0.709905,-0.008301000000000001,0.658936,0.24853499999999998,0.9511860000000001,-0.307622,-0.14990499999999998,-0.032655,-0.031854,-0.010636,,,,,,,,,,,,,,,,,,,,,,,,,,,,,,,,,,,,,,,,,,,,,,,,,,,,,,,,,,,,,,,,,
12057,1645902484.680905,1645902484.689051,125.0,0.0,4356.922852000001,4732.820313,4211.282227000001,4162.563965,4197.436035,450.0,1.0,15.0,,,,0.0,0.0,4.0,0.0,4.0,4.0,33.333332,,,,,,,,,,,,,,,,,,,,,,,,,,,,,,,,,,,,,,,,,,,,,,,,,,,,,,,,,,,,,,,,,,,,,,,,,,,,,,,,,,,,
12058,1645902484.688719,1645902484.696866,126.0,0.0,4353.846191,4693.846191,4225.641113000001,4147.692383,4205.128418,450.0,1.0,15.0,,,,0.0,0.0,4.0,0.0,4.0,4.0,33.333332,,,,,,,,63.0,0.0,0.709905,-0.008301000000000001,0.658936,0.24853499999999998,0.94435,-0.319829,-0.136233,-0.032563,-0.031989,-0.008938,,,,,,,,,,,,,,,,,,,,,,,,,,,,,,,,,,,0.0,0.0,64.0,0.283979,1.0,0.0,,,,,,,,,,,,,,,,,,,,,,,,,
12059,1645902484.696534,1645902484.7046812,127.0,0.0,4359.487305,4632.307617,4264.102539,4113.333496,4204.102539,232.0,1.0,15.0,,,,0.0,0.0,4.0,0.0,4.0,4.0,33.333332,,,,,,,,,,,,,,,,,,,,,,,,,,,,,,,,,,,,,,,,,,,,,,,,,,,,,,,,,,,,,,,,,,,,,,,,,,,,,,,,,,,,
12060,1645902484.704348,1645902484.7124949,0.0,0.0,4356.922852000001,4637.94873,4328.205078,4130.256348,4196.922852000001,450.0,1.0,15.0,,,,0.0,0.0,4.0,0.0,4.0,4.0,33.333332,,,,,,,,0.0,0.0,0.70982,-0.008301000000000001,0.658936,0.248779,0.939467,-0.327153,-0.147463,-0.03253,-0.031964,-0.007409000000000001,,,,,,,,,,,,,,,,,,,,,,,,,,,,,,,,,,,,,,,,,,,,,,,,,,,,,,,,,,,,,,,,,
12061,1645902484.712163,1645902484.72031,1.0,0.0,4337.436035,4657.436035,4307.179688,4126.153809,4185.128418,450.0,1.0,15.0,,,,0.0,0.0,4.0,0.0,4.0,4.0,33.333332,,,,,,,,,,,,,,,,,,,,,,,,,,,,,,,,,,,,,,,,,,,,,,,,,,,,,,,,,,,,,,,,,,,,,,,,,,,,,,,,,,,,
12062,1645902484.719977,1645902484.728125,2.0,0.0,4341.538574,4636.922852000001,4245.128418,4120.0,4190.769043,3.0,1.0,15.0,,,,0.0,0.0,4.0,0.0,4.0,4.0,33.333332,,,,,,,,1.0,0.0,0.709902,-0.008545,0.658936,0.24853499999999998,0.944839,-0.315923,-0.140627,-0.032499,-0.031942,-0.009159,,,,,,,,,,,,,,,,,,,,,,,,,,,,,,,,,,,0.0,0.0,64.0,0.283979,1.0,0.0,,,,,,,,,,,,,,,,,,,,,,,,,
12063,1645902484.727792,1645902484.735939,3.0,0.0,4364.615234000001,4624.615234000001,4248.717772999999,4171.282227000001,4208.205078,450.0,1.0,15.0,,,,0.0,0.0,4.0,0.0,4.0,4.0,33.333332,,,,,,,,,,,,,,,,,,,,,,,,,,,,,,,,,,,,,,,,,,,,,,,,,,,,,,,,,,,,,,,,,,,,,,,,,,,,,,,,,,,,
12064,1645902484.735606,1645902484.743654,4.0,0.0,4363.589844,4647.692383,4304.102539,4186.153809,4204.615234000001,16162.0,1.0,15.0,,,,0.0,0.0,4.0,0.0,4.0,4.0,33.333332,,,,,,,,2.0,0.0,0.709817,-0.008545,0.658936,0.248779,0.944839,-0.33105999999999997,-0.143557,-0.032472,-0.032019,-0.010684,,,,,,,,,,,,,,,,,,,,,,,,,,,,,,,,,,,,,,,,,,,,,,,,,,,,,,,,,,,,,,,,,
12065,1645902484.743421,1645902484.751469,5.0,0.0,4362.05127,4646.153809,4258.461426,4130.769043,4192.820313,450.0,1.0,15.0,,,,0.0,0.0,4.0,0.0,4.0,4.0,33.333332,,,,,,,,,,,,,,,,,,,,,,,,,,,,,,,,,,,,,,,,,,,,,,,,,,,,,,,,,,,,,,,,,,,,,,,,,,,,,,,,,,,,
12066,1645902484.751235,1645902484.759283,6.0,0.0,4373.333496,4614.358886999999,4242.05127,4120.512695,4190.769043,0.0,1.0,15.0,,,,0.0,0.0,4.0,0.0,4.0,4.0,33.333332,,,,,,,,3.0,0.0,0.709817,-0.008545,0.658936,0.248779,0.9560690000000001,-0.313481,-0.147951,-0.032448000000000005,-0.031991000000000006,-0.008931999999999999,1.0,0.0,0.0,,,,,,,,,,,,,,,,,,,,,,,,,,,,,,,,0.0,0.0,64.0,0.376619,1.0,0.0,11.477444,7.421889999999999,1.443933,0.9442790000000001,0.9159579999999999,24.631153,25.125229,37.952232,13.570438000000001,15.977992,13.558005,14.446660000000001,8.736668,9.565677,4.219101,4.748952,1.68753,7.5589759999999995,5.309659,1.959373,3.9019230000000005,5.122224,0.697952,1.160569,1.505915
12067,1645902484.75905,1645902484.767098,7.0,0.0,4362.05127,4580.512695,4258.974121,4123.589844,4188.205078,450.0,1.0,15.0,,,,0.0,0.0,4.0,0.0,4.0,4.0,33.333332,,,,,,,,,,,,,,,,,,,,,,,,,,,,,,,,,,,,,,,,,,,,,,,,,,,,,,,,,,,,,,,,,,,,,,,,,,,,,,,,,,,,
12068,1645902484.766864,1645902484.774913,8.0,0.0,4335.384765999999,4591.794922,4264.102539,4077.4357909999994,4180.0,450.0,1.0,15.0,,,,0.0,0.0,4.0,0.0,4.0,4.0,33.333332,,,,,,,,4.0,0.0,0.709899,-0.008789,0.658936,0.24853499999999998,0.947768,-0.32227100000000003,-0.134768,-0.032425999999999996,-0.031966,-0.01048,,,,,,,,,,,,,,,,,,,,,,,,,,,,,,,,,,,,,,,,,,,,,,,,,,,,,,,,,,,,,,,,,
12069,1645902484.774679,1645902484.782727,9.0,0.0,4350.256348,4655.897461,4257.94873,4070.256348,4200.512695,16081.0,1.0,15.0,,,,0.0,0.0,4.0,0.0,4.0,4.0,33.333332,,,,,,,,,,,,,,,,,,,,,,,,,,,,,,,,,,,,,,,,,,,,,,,,,,,,,,,,,,,,,,,,,,,,,,,,,,,,,,,,,,,,
12070,1645902484.7824938,1645902484.790542,10.0,0.0,4371.282227000001,4672.307617,4257.94873,4103.077147999999,4212.820313,450.0,1.0,15.0,,,,0.0,0.0,4.0,0.0,4.0,4.0,33.333332,,,,,,,,5.0,0.0,0.7098140000000001,-0.008789,0.658936,0.248779,0.9438620000000001,-0.330083,-0.14111500000000002,-0.032357,-0.031894,-0.01202,,,,,,,,,,,,,,,,,,,,,,,,,,,,,,,,,,,0.0,0.0,64.0,0.376619,1.0,0.0,,,,,,,,,,,,,,,,,,,,,,,,,
12071,1645902484.790308,1645902484.798357,11.0,0.0,4367.692383,4588.717772999999,4208.717772999999,4127.179688,4206.153809,16341.0,1.0,15.0,,,,0.0,0.0,4.0,0.0,4.0,4.0,33.333332,,,,,,,,,,,,,,,,,,,,,,,,,,,,,,,,,,,,,,,,,,,,,,,,,,,,,,,,,,,,,,,,,,,,,,,,,,,,,,,,,,,,
12072,1645902484.7981231,1645902484.8061712,12.0,0.0,4344.615234000001,4527.692383,4184.615234000001,4127.692383,4206.666504,450.0,1.0,15.0,,,,0.0,0.0,4.0,0.0,4.0,4.0,33.333332,,,,,,,,6.0,0.0,0.71004,-0.008789,0.658691,0.248779,0.9423969999999999,-0.317388,-0.137697,-0.03249,-0.032074,-0.01326,,,,,,,,,,,,,,,,,,,,,,,,,,,,,,,,,,,,,,,,,,,,,,,,,,,,,,,,,,,,,,,,,
12073,1645902484.8059368,1645902484.8139858,13.0,0.0,4352.820313,4575.384765999999,4212.307617,4124.615234000001,4217.94873,450.0,1.0,15.0,,,,0.0,0.0,4.0,0.0,4.0,4.0,33.333332,,,,,,,,,,,,,,,,,,,,,,,,,,,,,,,,,,,,,,,,,,,,,,,,,,,,,,,,,,,,,,,,,,,,,,,,,,,,,,,,,,,,
12074,1645902484.813752,1645902484.821701,14.0,0.0,4356.410156,4597.436035,4231.794922,4122.563965,4201.025879,450.0,1.0,15.0,,,,0.0,0.0,4.0,0.0,4.0,4.0,33.333332,,,,,,,,7.0,0.0,0.710037,-0.009033,0.658691,0.248779,0.952651,-0.31104,-0.143069,-0.032464,-0.032041,-0.014473,,,,,,,,,,,,,,,,,,,,,,,,,,,,,,,,,,,0.0,0.0,64.0,0.376619,1.0,0.0,,,,,,,,,,,,,,,,,,,,,,,,,
12075,1645902484.821566,1645902484.829515,15.0,0.0,4315.384765999999,4540.512695,4261.538574,4130.769043,4180.0,16341.0,1.0,15.0,,,,0.0,0.0,4.0,0.0,4.0,4.0,33.333332,,,,,,,,,,,,,,,,,,,,,,,,,,,,,,,,,,,,,,,,,,,,,,,,,,,,,,,,,,,,,,,,,,,,,,,,,,,,,,,,,,,,
12076,1645902484.829381,1645902484.83733,16.0,0.0,4310.769043,4538.461426,4254.871582,4112.307617,4185.128418,0.0,1.0,15.0,,,,0.0,0.0,4.0,0.0,4.0,4.0,33.333332,,,,,,,,8.0,0.0,0.709952,-0.009033,0.658691,0.249023,0.95314,-0.326177,-0.14990499999999998,-0.032538,-0.032206,-0.015466999999999998,,,,,,,,,,,,,,,,,,,,,,,,,,,,,,,,,,,,,,,,,,,,,,,,,,,,,,,,,,,,,,,,,
12077,1645902484.837196,1645902484.845145,17.0,0.0,4368.205078,4586.666504,4252.820313,4089.743652,4208.205078,0.0,1.0,15.0,,,,0.0,0.0,4.0,0.0,4.0,4.0,33.333332,,,,,,,,,,,,,,,,,,,,,,,,,,,,,,,,,,,,,,,,,,,,,,,,,,,,,,,,,,,,,,,,,,,,,,,,,,,,,,,,,,,,
12078,1645902484.84501,1645902484.852959,18.0,0.0,4383.589844,4574.358886999999,4285.128418,4122.563965,4218.974121,0.0,1.0,15.0,,,,0.0,0.0,4.0,0.0,4.0,4.0,33.333332,,,,,,,,9.0,0.0,0.709952,-0.009033,0.658691,0.249023,0.960952,-0.321294,-0.156252,-0.032556,-0.032208,-0.016362,,,,,,,,,,,,,,,,,,,,,,,,,,,,,,,,,,,0.0,0.0,64.0,0.376619,1.0,0.0,,,,,,,,,,,,,,,,,,,,,,,,,
12079,1645902484.852825,1645902484.860774,19.0,0.0,4336.922852000001,4537.94873,4300.0,4148.205078,4202.563965,0.0,1.0,15.0,,,,0.0,0.0,4.0,0.0,4.0,4.0,33.333332,,,,,,,,,,,,,,,,,,,,,,,,,,,,,,,,,,,,,,,,,,,,,,,,,,,,,,,,,,,,,,,,,,,,,,,,,,,,,,,,,,,,
12080,1645902484.860639,1645902484.868588,20.0,0.0,4324.102539,4494.871582,4252.307617,4122.05127,4185.641113000001,0.0,1.0,15.0,,,,0.0,0.0,4.0,0.0,4.0,4.0,33.333332,,,,,,,,10.0,0.0,0.709952,-0.009033,0.658691,0.249023,0.9472799999999999,-0.32422399999999996,-0.134279,-0.032376,-0.03221,-0.014091,,,,,,,,,,,,,,,,,,,,,,,,,,,,,,,,,,,,,,,,,,,,,,,,,,,,,,,,,,,,,,,,,
12081,1645902484.868454,1645902484.8764029,21.0,0.0,4347.692383,4429.230957,4260.512695,4109.743652,4195.897461,0.0,1.0,15.0,,,,0.0,0.0,4.0,0.0,4.0,4.0,33.333332,,,,,,,,,,,,,,,,,,,,,,,,,,,,,,,,,,,,,,,,,,,,,,,,,,,,,,,,,,,,,,,,,,,,,,,,,,,,,,,,,,,,
12082,1645902484.876268,1645902484.884218,22.0,0.0,4360.512695,4431.282227000001,4253.846191,4119.487305,4216.410156,0.0,1.0,15.0,,,,0.0,0.0,4.0,0.0,4.0,4.0,33.333332,1.0,8.333333,0.0,1.0,0.0,1.0,1.0,11.0,0.0,0.709955,-0.008789,0.658691,0.249023,0.944839,-0.3252,-0.144045,-0.032458999999999995,-0.032211000000000004,-0.015269999999999999,1.0,0.0,0.0,,,,,,,,,,,,,,,,,,,,,,,,,,,,,,,,0.0,0.0,1.0,0.0,512.0,1.0,22.195667,12.501168,1.804541,1.15147,0.9480299999999999,19.329798,20.29834,28.489016999999997,13.750055999999999,17.24329,12.793545,15.018338,8.773406,9.379781,4.839588,4.187898000000001,2.100261,7.9369559999999995,5.572551,1.855607,5.551985,5.324753,0.893804,1.323533,1.513614
12083,1645902484.884083,1645902484.891933,23.0,0.0,4352.307617,4510.256348,4270.256348,4122.05127,4196.922852000001,0.0,1.0,15.0,,,,0.0,0.0,4.0,0.0,4.0,4.0,33.333332,,,,,,,,,,,,,,,,,,,,,,,,,,,,,,,,,,,,,,,,,,,,,,,,,,,,,,,,,,,,,,,,,,,,,,,,,,,,,,,,,,,,
12084,1645902484.891897,1645902484.8997471,24.0,0.0,4346.666504,4558.974121,4292.820313,4116.922852000001,4178.974121,0.0,1.0,15.0,,,,0.0,0.0,4.0,0.0,4.0,4.0,33.333332,,,,,,,,12.0,0.0,0.709955,-0.008789,0.658691,0.249023,0.931167,-0.332036,-0.136721,-0.032387,-0.032213,-0.013059000000000001,,,,,,,,,,,,,,,,,,,,,,,,,,,,,,,,,,,,,,,,,,,,,,,,,,,,,,,,,,,,,,,,,
12085,1645902484.8997118,1645902484.907562,25.0,0.0,4351.794922,4497.436035,4288.717772999999,4144.102539,4190.256348,0.0,1.0,15.0,,,,0.0,0.0,4.0,0.0,4.0,4.0,33.333332,,,,,,,,,,,,,,,,,,,,,,,,,,,,,,,,,,,,,,,,,,,,,,,,,,,,,,,,,,,,,,,,,,,,,,,,,,,,,,,,,,,,
12086,1645902484.907526,1645902484.915376,26.0,0.0,4365.128418,4428.205078,4264.615234000001,4193.846191,4206.666504,0.0,1.0,15.0,,,,0.0,0.0,4.0,0.0,4.0,4.0,33.333332,,,,,,,,13.0,0.0,0.709955,-0.008789,0.658691,0.249023,0.9438620000000001,-0.325689,-0.146975,-0.03242,-0.032166,-0.014243,,,,,,,,,,,,,,,,,,,,,,,,,,,,,,,,,,,0.0,0.0,1.0,0.0,512.0,1.0,,,,,,,,,,,,,,,,,,,,,,,,,
12087,1645902484.915341,1645902484.923191,27.0,0.0,4356.410156,4468.717772999999,4265.641113000001,4185.641113000001,4197.94873,0.0,1.0,15.0,,,,0.0,0.0,4.0,0.0,4.0,4.0,33.333332,,,,,,,,,,,,,,,,,,,,,,,,,,,,,,,,,,,,,,,,,,,,,,,,,,,,,,,,,,,,,,,,,,,,,,,,,,,,,,,,,,,,
12088,1645902484.923155,1645902484.931006,28.0,0.0,4341.538574,4537.436035,4235.897461,4140.512695,4197.436035,0.0,1.0,15.0,,,,0.0,0.0,4.0,0.0,4.0,4.0,33.333332,,,,,,,,14.0,0.0,0.709869,-0.008789,0.658691,0.249268,0.938003,-0.31104,-0.141604,-0.032449,-0.032074,-0.015358000000000002,,,,,,,,,,,,,,,,,,,,,,,,,,,,,,,,,,,,,,,,,,,,,,,,,,,,,,,,,,,,,,,,,
12089,1645902484.93097,1645902484.93882,29.0,0.0,4334.871582,4544.615234000001,4210.256348,4144.615234000001,4206.153809,0.0,1.0,15.0,,,,0.0,0.0,4.0,0.0,4.0,4.0,33.333332,,,,,,,,,,,,,,,,,,,,,,,,,,,,,,,,,,,,,,,,,,,,,,,,,,,,,,,,,,,,,,,,,,,,,,,,,,,,,,,,,,,,
12090,1645902484.938784,1645902484.946635,30.0,0.0,4346.153809,4522.05127,4216.922852000001,4160.512695,4200.0,0.0,1.0,15.0,,,,0.0,0.0,4.0,0.0,4.0,4.0,33.333332,,,,,,,,15.0,0.0,0.709955,-0.008789,0.658691,0.249023,0.940932,-0.324712,-0.136721,-0.032330000000000005,-0.032089,-0.016313,,,,,,,,,,,,,,,,,,,,,,,,,,,,,,,,,,,0.0,0.0,1.0,0.0,512.0,1.0,,,,,,,,,,,,,,,,,,,,,,,,,
12091,1645902484.946599,1645902484.95445,31.0,0.0,4345.128418,4463.589844,4199.487305,4125.641113000001,4190.769043,0.0,1.0,15.0,,,,0.0,0.0,4.0,0.0,4.0,4.0,33.333332,,,,,,,,,,,,,,,,,,,,,,,,,,,,,,,,,,,,,,,,,,,,,,,,,,,,,,,,,,,,,,,,,,,,,,,,,,,,,,,,,,,,
12092,1645902484.9544141,1645902484.962264,32.0,0.0,4332.820313,4453.846191,4221.025879,4126.666504,4211.282227000001,0.0,1.0,15.0,,,,0.0,0.0,4.0,0.0,4.0,4.0,33.333332,,,,,,,,16.0,0.0,0.709952,-0.009033,0.658691,0.249023,0.941421,-0.323735,-0.128908,-0.032368,-0.032054,-0.017172,,,,,,,,,,,,,,,,,,,,,,,,,,,,,,,,,,,,,,,,,,,,,,,,,,,,,,,,,,,,,,,,,
12093,1645902484.9622278,1645902484.9699788,33.0,0.0,4330.769043,4503.077147999999,4264.102539,4152.820313,4202.563965,0.0,1.0,15.0,,,,0.0,0.0,4.0,0.0,4.0,4.0,33.333332,,,,,,,,,,,,,,,,,,,,,,,,,,,,,,,,,,,,,,,,,,,,,,,,,,,,,,,,,,,,,,,,,,,,,,,,,,,,,,,,,,,,
12094,1645902484.970043,1645902484.977794,34.0,0.0,4342.05127,4487.179688,4318.461426,4153.846191,4167.692383,0.0,1.0,15.0,,,,0.0,0.0,4.0,0.0,4.0,4.0,33.333332,,,,,,,,17.0,0.0,0.709952,-0.009033,0.658691,0.249023,0.946792,-0.321294,-0.139651,-0.032451999999999995,-0.032119999999999996,-0.017896000000000002,,,,,,,,,,,,,,,,,,,,,,,,,,,,,,,,,,,0.0,0.0,1.0,0.0,512.0,1.0,,,,,,,,,,,,,,,,,,,,,,,,,
12095,1645902484.977857,1645902484.985608,35.0,0.0,4350.769043,4463.077147999999,4317.94873,4147.179688,4171.794922,0.0,1.0,15.0,,,,0.0,0.0,4.0,0.0,4.0,4.0,33.333332,,,,,,,,,,,,,,,,,,,,,,,,,,,,,,,,,,,,,,,,,,,,,,,,,,,,,,,,,,,,,,,,,,,,,,,,,,,,,,,,,,,,
12096,1645902484.985672,1645902484.993423,36.0,0.0,4346.153809,4543.589844,4283.077147999999,4136.410156,4192.820313,0.0,1.0,15.0,,,,0.0,0.0,4.0,0.0,4.0,4.0,33.333332,,,,,,,,18.0,0.0,0.709866,-0.009033,0.658691,0.249268,0.959976,-0.309087,-0.142092,-0.032478,-0.032082,-0.015472,,,,,,,,,,,,,,,,,,,,,,,,,,,,,,,,,,,,,,,,,,,,,,,,,,,,,,,,,,,,,,,,,
12097,1645902484.993486,1645902485.001238,37.0,0.0,4347.692383,4572.307617,4273.846191,4135.897461,4197.436035,0.0,1.0,15.0,,,,0.0,0.0,4.0,0.0,4.0,4.0,33.333332,,,,,,,,,,,,,,,,,,,,,,,,,,,,,,,,,,,,,,,,,,,,,,,,,,,,,,,,,,,,,,,,,,,,,,,,,,,,,,,,,,,,
12098,1645902485.001301,1645902485.009052,38.0,0.0,4345.128418,4503.077147999999,4307.692383,4151.794922,4204.102539,0.0,1.0,15.0,,,,0.0,0.0,4.0,0.0,4.0,4.0,33.333332,,,,,,,,19.0,0.0,0.709866,-0.009033,0.658691,0.249268,0.961929,-0.323735,-0.138674,-0.032404,-0.032048,-0.016366,1.0,0.0,0.0,,,,,,,,,,,,,,,,,,,,,,,,,,,,,,,,0.0,0.0,1.0,0.0,512.0,1.0,35.594532,18.626623000000002,2.223243,1.415833,1.015231,17.678545,17.35574,19.961508,15.56961,18.425314,11.914667999999999,15.286191,8.229626,9.410079,5.5000290000000005,3.605311,2.6531580000000003,8.221844,5.889583,1.864493,7.776652,5.550912,1.1731260000000001,1.495573,1.547557
12099,1645902485.009116,1645902485.016867,39.0,0.0,4335.897461,4511.794922,4250.769043,4164.102539,4216.922852000001,0.0,1.0,15.0,,,,0.0,0.0,4.0,0.0,4.0,4.0,33.333332,,,,,,,,,,,,,,,,,,,,,,,,,,,,,,,,,,,,,,,,,,,,,,,,,,,,,,,,,,,,,,,,,,,,,,,,,,,,,,,,,,,,
12100,1645902485.01693,1645902485.024682,40.0,0.0,4331.282227000001,4565.128418,4213.846191,4164.615234000001,4208.205078,0.0,1.0,15.0,,,,0.0,0.0,4.0,0.0,4.0,4.0,33.333332,,,,,,,,20.0,0.0,0.70978,-0.009033,0.658691,0.24951199999999998,0.945815,-0.3252,-0.14551,-0.032435000000000005,-0.032066000000000004,-0.014046000000000001,,,,,,,,,,,,,,,,,,,,,,,,,,,,,,,,,,,,,,,,,,,,,,,,,,,,,,,,,,,,,,,,,
12101,1645902485.024745,1645902485.032396,41.0,0.0,4343.589844,4503.077147999999,4230.256348,4173.846191,4197.436035,0.0,1.0,15.0,,,,0.0,0.0,4.0,0.0,4.0,4.0,33.333332,,,,,,,,,,,,,,,,,,,,,,,,,,,,,,,,,,,,,,,,,,,,,,,,,,,,,,,,,,,,,,,,,,,,,,,,,,,,,,,,,,,,
12102,1645902485.032559,1645902485.040211,42.0,0.0,4357.436035,4384.615234000001,4234.358886999999,4165.128418,4195.384765999999,0.0,1.0,15.0,,,,0.0,0.0,4.0,0.0,4.0,4.0,33.333332,,,,,,,,21.0,0.0,0.709866,-0.009033,0.658691,0.249268,0.959976,-0.309087,-0.142092,-0.032414,-0.032033,-0.012055,,,,,,,,,,,,,,,,,,,,,,,,,,,,,,,,,,,0.0,0.0,1.0,0.0,512.0,1.0,,,,,,,,,,,,,,,,,,,,,,,,,
12103,1645902485.040374,1645902485.048026,43.0,0.0,4371.794922,4418.974121,4198.974121,4142.05127,4211.794922,0.0,1.0,15.0,,,,0.0,0.0,4.0,0.0,4.0,4.0,33.333332,,,,,,,,,,,,,,,,,,,,,,,,,,,,,,,,,,,,,,,,,,,,,,,,,,,,,,,,,,,,,,,,,,,,,,,,,,,,,,,,,,,,
12104,1645902485.048188,1645902485.05584,44.0,0.0,4373.846191,4527.692383,4214.358886999999,4122.563965,4226.153809,0.0,1.0,15.0,,,,0.0,0.0,4.0,0.0,4.0,4.0,33.333332,,,,,,,,22.0,0.0,0.70978,-0.009033,0.658691,0.24951199999999998,0.945815,-0.3252,-0.14551,-0.032445,-0.032053,-0.010166,,,,,,,,,,,,,,,,,,,,,,,,,,,,,,,,,,,,,,,,,,,,,,,,,,,,,,,,,,,,,,,,,
12105,1645902485.0560029,1645902485.0636551,45.0,0.0,4365.641113000001,4521.538574,4249.230957,4139.487305,4212.820313,0.0,1.0,15.0,,,,0.0,0.0,4.0,0.0,4.0,4.0,33.333332,,,,,,,,,,,,,,,,,,,,,,,,,,,,,,,,,,,,,,,,,,,,,,,,,,,,,,,,,,,,,,,,,,,,,,,,,,,,,,,,,,,,
12106,1645902485.063817,1645902485.07147,46.0,0.0,4343.589844,4467.179688,4235.897461,4168.205078,4181.538574,0.0,1.0,15.0,,,,0.0,0.0,4.0,0.0,4.0,4.0,33.333332,,,,,,,,23.0,0.0,0.7097829999999999,-0.008789,0.658691,0.24951199999999998,0.9589989999999999,-0.313481,-0.140627,-0.032423,-0.032021,-0.011590999999999999,,,,,,,,,,,,,,,,,,,,,,,,,,,,,,,,,,,0.0,0.0,1.0,0.0,512.0,1.0,,,,,,,,,,,,,,,,,,,,,,,,,
12107,1645902485.0716321,1645902485.079284,47.0,0.0,4358.974121,4449.230957,4250.769043,4180.512695,4205.641113000001,0.0,1.0,15.0,,,,0.0,0.0,4.0,0.0,4.0,4.0,33.333332,,,,,,,,,,,,,,,,,,,,,,,,,,,,,,,,,,,,,,,,,,,,,,,,,,,,,,,,,,,,,,,,,,,,,,,,,,,,,,,,,,,,
12108,1645902485.079446,1645902485.087099,48.0,0.0,4397.436035,4455.897461,4283.589844,4175.897461,4254.871582,0.0,1.0,15.0,,,,0.0,0.0,4.0,0.0,4.0,4.0,33.333332,,,,,,,,24.0,0.0,0.709697,-0.008789,0.658691,0.249756,0.9463030000000001,-0.304204,-0.13916199999999998,-0.032354,-0.031944,-0.009845999999999999,,,,,,,,,,,,,,,,,,,,,,,,,,,,,,,,,,,,,,,,,,,,,,,,,,,,,,,,,,,,,,,,,
12109,1645902485.087261,1645902485.094914,49.0,0.0,4380.0,4497.94873,4276.922852000001,4184.615234000001,4234.358886999999,0.0,1.0,15.0,,,,0.0,0.0,4.0,0.0,4.0,4.0,33.333332,,,,,,,,,,,,,,,,,,,,,,,,,,,,,,,,,,,,,,,,,,,,,,,,,,,,,,,,,,,,,,,,,,,,,,,,,,,,,,,,,,,,
12110,1645902485.095075,1645902485.102728,50.0,0.0,4349.230957,4498.461426,4221.538574,4189.230957,4188.717772999999,0.0,1.0,15.0,,,,0.0,0.0,4.0,0.0,4.0,4.0,33.333332,,,,,,,,25.0,0.0,0.709697,-0.008789,0.658691,0.249756,0.952651,-0.323735,-0.130373,-0.032438999999999996,-0.03207,-0.008226,,,,,,,,,,,,,,,,,,,,,,,,,,,,,,,,,,,0.0,0.0,1.0,0.0,512.0,1.0,,,,,,,,,,,,,,,,,,,,,,,,,
12111,1645902485.10289,1645902485.1104429,51.0,0.0,4391.282227000001,4458.461426,4246.153809,4175.384765999999,4211.282227000001,0.0,1.0,15.0,,,,0.0,0.0,4.0,0.0,4.0,4.0,33.333332,,,,,,,,,,,,,,,,,,,,,,,,,,,,,,,,,,,,,,,,,,,,,,,,,,,,,,,,,,,,,,,,,,,,,,,,,,,,,,,,,,,,
12112,1645902485.1107051,1645902485.118258,52.0,0.0,4425.128418,4510.256348,4266.153809,4149.230957,4228.717772999999,0.0,1.0,15.0,,,,0.0,0.0,4.0,0.0,4.0,4.0,33.333332,,,,,,,,26.0,0.0,0.709471,-0.008789,0.658936,0.249756,0.953628,-0.33105999999999997,-0.138186,-0.032272,-0.031988,-0.009943,,,,,,,,,,,,,,,,,,,,,,,,,,,,,,,,,,,,,,,,,,,,,,,,,,,,,,,,,,,,,,,,,
12113,1645902485.1185188,1645902485.1260722,53.0,0.0,4386.666504,4516.410156,4283.589844,4149.230957,4182.05127,0.0,1.0,15.0,,,,0.0,0.0,4.0,0.0,4.0,4.0,33.333332,,,,,,,,,,,,,,,,,,,,,,,,,,,,,,,,,,,,,,,,,,,,,,,,,,,,,,,,,,,,,,,,,,,,,,,,,,,,,,,,,,,,
12114,1645902485.126334,1645902485.1338868,54.0,0.0,4433.333496,4397.436035,4293.333496,4156.410156,4197.436035,0.0,1.0,15.0,,,,0.0,0.0,4.0,0.0,4.0,4.0,33.333332,,,,,,,,27.0,0.0,0.709388,-0.008545,0.658936,0.25,0.934585,-0.32227100000000003,-0.140139,-0.032218000000000004,-0.031963,-0.008314,1.0,0.0,0.0,,,,,,,,,,,,,,,,,,,,,,,,,,,,,,,,0.0,0.0,1.0,0.0,512.0,1.0,48.172688,24.136035999999997,2.564225,1.693342,1.129561,18.128157,15.989901000000001,14.099286,17.947554,19.200602,11.324043,14.702147,7.348484,9.58729,6.071167,2.989706,3.2559669999999996,8.415099,6.175193,2.0025560000000002,10.049534,5.575923,1.504208,1.635837,1.602541
12115,1645902485.1341481,1645902485.141702,55.0,0.0,4510.256348,4422.05127,4269.230957,4136.410156,4259.487305,0.0,1.0,15.0,,,,0.0,0.0,4.0,0.0,4.0,4.0,33.333332,,,,,,,,,,,,,,,,,,,,,,,,,,,,,,,,,,,,,,,,,,,,,,,,,,,,,,,,,,,,,,,,,,,,,,,,,,,,,,,,,,,,
12116,1645902485.141963,1645902485.149516,56.0,0.0,4461.025879,4564.102539,4218.974121,4152.307617,4247.692383,0.0,1.0,15.0,,,,0.0,0.0,4.0,0.0,4.0,4.0,33.333332,,,,,,,,28.0,0.0,0.709388,-0.008545,0.658936,0.25,0.9506979999999999,-0.332036,-0.134279,-0.032268,-0.032087,-0.009973000000000001,,,,,,,,,,,,,,,,,,,,,,,,,,,,,,,,,,,,,,,,,,,,,,,,,,,,,,,,,,,,,,,,,
12117,1645902485.149777,1645902485.157331,57.0,0.0,4406.153809,4544.102539,4235.384765999999,4204.102539,4191.794922,0.0,1.0,15.0,,,,0.0,0.0,4.0,0.0,4.0,4.0,33.333332,,,,,,,,,,,,,,,,,,,,,,,,,,,,,,,,,,,,,,,,,,,,,,,,,,,,,,,,,,,,,,,,,,,,,,,,,,,,,,,,,,,,
12118,1645902485.157592,1645902485.165145,58.0,0.0,4480.512695,4500.0,4243.589844,4196.922852000001,4194.358886999999,0.0,1.0,15.0,,,,0.0,0.0,4.0,0.0,4.0,4.0,33.333332,,,,,,,,29.0,0.0,0.709305,-0.008301000000000001,0.658936,0.250244,0.95314,-0.318364,-0.134768,-0.032313,-0.03215,-0.011368000000000001,,,,,,,,,,,,,,,,,,,,,,,,,,,,,,,,,,,0.0,0.0,1.0,0.0,512.0,1.0,,,,,,,,,,,,,,,,,,,,,,,,,
12119,1645902485.165406,1645902485.17296,59.0,0.0,4518.461426,4533.333496,4251.794922,4140.512695,4200.512695,0.0,1.0,15.0,,,,0.0,0.0,4.0,0.0,4.0,4.0,33.333332,,,,,,,,,,,,,,,,,,,,,,,,,,,,,,,,,,,,,,,,,,,,,,,,,,,,,,,,,,,,,,,,,,,,,,,,,,,,,,,,,,,,
12120,1645902485.173221,1645902485.180675,60.0,0.0,4484.102539,4515.384765999999,4280.0,4149.230957,4163.589844,0.0,1.0,15.0,,,,0.0,0.0,4.0,0.0,4.0,4.0,33.333332,,,,,,,,30.0,0.0,0.709307,-0.008057,0.658936,0.250244,0.952651,-0.330571,-0.135256,-0.032304,-0.031962,-0.012722,,,,,,,,,,,,,,,,,,,,,,,,,,,,,,,,,,,,,,,,,,,,,,,,,,,,,,,,,,,,,,,,,
12121,1645902485.181035,1645902485.188489,61.0,0.0,4532.820313,4520.0,4262.05127,4206.666504,4167.179688,0.0,1.0,15.0,,,,0.0,0.0,4.0,0.0,4.0,4.0,33.333332,,,,,,,,,,,,,,,,,,,,,,,,,,,,,,,,,,,,,,,,,,,,,,,,,,,,,,,,,,,,,,,,,,,,,,,,,,,,,,,,,,,,
12122,1645902485.18885,1645902485.1963038,62.0,0.0,4600.512695,4552.820313,4238.974121,4240.0,4220.0,0.0,1.0,15.0,,,,0.0,0.0,4.0,0.0,4.0,4.0,33.333332,,,,,,,,31.0,0.0,0.709221,-0.008057,0.658936,0.250488,0.957046,-0.31250500000000003,-0.133303,-0.032394,-0.031939999999999996,-0.010766,,,,,,,,,,,,,,,,,,,,,,,,,,,,,,,,,,,0.0,0.0,1.0,0.0,512.0,1.0,,,,,,,,,,,,,,,,,,,,,,,,,
12123,1645902485.196665,1645902485.204119,63.0,0.0,4577.94873,4505.128418,4258.461426,4190.769043,4203.589844,0.0,1.0,15.0,,,,0.0,0.0,4.0,0.0,4.0,4.0,33.333332,,,,,,,,,,,,,,,,,,,,,,,,,,,,,,,,,,,,,,,,,,,,,,,,,,,,,,,,,,,,,,,,,,,,,,,,,,,,,,,,,,,,
12124,1645902485.204479,1645902485.211933,64.0,0.0,4574.871582,4490.256348,4263.589844,4126.153809,4151.794922,450.0,1.0,15.0,,,,0.0,0.0,4.0,0.0,4.0,4.0,33.333332,,,,,,,,32.0,0.0,0.709221,-0.008057,0.658936,0.250488,0.948257,-0.327642,-0.144533,-0.032425999999999996,-0.032115,-0.012131,,,,,,,,,,,,,,,,,,,,,,,,,,,,,,,,,,,,,,,,,,,,,,,,,,,,,,,,,,,,,,,,,
12125,1645902485.2122939,1645902485.219748,65.0,0.0,4636.922852000001,4500.512695,4248.205078,4147.692383,4144.615234000001,450.0,1.0,15.0,,,,0.0,0.0,4.0,0.0,4.0,4.0,33.333332,,,,,,,,,,,,,,,,,,,,,,,,,,,,,,,,,,,,,,,,,,,,,,,,,,,,,,,,,,,,,,,,,,,,,,,,,,,,,,,,,,,,
12126,1645902485.220108,1645902485.2275631,66.0,0.0,4700.512695,4440.512695,4280.512695,4185.128418,4154.871582,16.0,1.0,15.0,,,,0.0,0.0,4.0,0.0,4.0,4.0,33.333332,,,,,,,,33.0,0.0,0.708994,-0.008057,0.65918,0.250488,0.9546040000000001,-0.322759,-0.136233,-0.032357,-0.032126,-0.010185,,,,,,,,,,,,,,,,,,,,,,,,,,,,,,,,,,,0.0,0.0,1.0,0.0,512.0,1.0,,,,,,,,,,,,,,,,,,,,,,,,,
12127,1645902485.2279232,1645902485.2353768,67.0,0.0,4760.512695,4418.461426,4276.410156,4168.205078,4163.077147999999,450.0,1.0,15.0,,,,0.0,0.0,4.0,0.0,4.0,4.0,33.333332,,,,,,,,,,,,,,,,,,,,,,,,,,,,,,,,,,,,,,,,,,,,,,,,,,,,,,,,,,,,,,,,,,,,,,,,,,,,,,,,,,,,
12128,1645902485.2357368,1645902485.243192,68.0,0.0,4823.589844,4438.974121,4275.384765999999,4180.512695,4194.358886999999,16148.0,1.0,15.0,,,,0.0,0.0,4.0,0.0,4.0,4.0,33.333332,,,,,,,,34.0,0.0,0.708994,-0.008057,0.65918,0.250488,0.9350729999999999,-0.327153,-0.136233,-0.032344,-0.032136,-0.011706,,,,,,,,,,,,,,,,,,,,,,,,,,,,,,,,,,,,,,,,,,,,,,,,,,,,,,,,,,,,,,,,,
12129,1645902485.243552,1645902485.251007,69.0,0.0,4870.769043,4403.589844,4270.256348,4212.307617,4204.615234000001,450.0,1.0,15.0,,,,0.0,0.0,4.0,0.0,4.0,4.0,33.333332,,,,,,,,,,,,,,,,,,,,,,,,,,,,,,,,,,,,,,,,,,,,,,,,,,,,,,,,,,,,,,,,,,,,,,,,,,,,,,,,,,,,
12130,1645902485.251367,1645902485.258721,70.0,0.0,4898.974121,4368.717772999999,4262.563965,4170.769043,4172.307617,272.0,1.0,15.0,,,,0.0,0.0,4.0,2.0,4.0,4.0,50.0,,,,,,,,35.0,0.0,0.708908,-0.008057,0.65918,0.250732,0.951675,-0.320317,-0.136721,-0.032235,-0.032194,-0.009803000000000001,1.0,0.0,0.0,,,,,,,,,,,,,,,,,,,,,,,,,,,,,,,,0.0,0.0,1.0,0.0,512.0,1.0,55.367962,27.247284000000004,2.7185029999999997,1.9206189999999999,1.29703,18.682714,15.773178,11.439749,20.002807999999998,19.539145,11.271999000000001,13.407869,6.589342,9.711654,6.4302019999999995,2.379538,3.868815,8.486241,6.3524199999999995,2.236441,11.519025,5.236282,1.8228970000000002,1.6997369999999998,1.6637950000000001
12131,1645902485.259181,1645902485.266536,71.0,0.0,4929.743652,4349.743652,4236.922852000001,4123.077147999999,4169.230957,450.0,1.0,15.0,,,,0.0,0.0,4.0,2.0,4.0,4.0,50.0,,,,,,,,,,,,,,,,,,,,,,,,,,,,,,,,,,,,,,,,,,,,,,,,,,,,,,,,,,,,,,,,,,,,,,,,,,,,,,,,,,,,
12132,1645902485.2669961,1645902485.274351,72.0,0.0,4967.179688,4333.846191,4251.282227000001,4121.538574,4182.05127,450.0,1.0,15.0,,,,0.0,0.0,4.0,2.0,4.0,4.0,50.0,,,,,,,,36.0,0.0,0.7088220000000001,-0.008057,0.65918,0.250977,0.946792,-0.323735,-0.12842,-0.032332,-0.032149000000000004,-0.01141,,,,,,,,,,,,,,,,,,,,,,,,,,,,,,,,,,,,,,,,,,,,,,,,,,,,,,,,,,,,,,,,,
12133,1645902485.27481,1645902485.282165,73.0,0.0,5028.205078,4350.769043,4227.692383,4115.384765999999,4190.256348,16075.0,1.0,15.0,,,,0.0,0.0,4.0,2.0,4.0,4.0,50.0,,,,,,,,,,,,,,,,,,,,,,,,,,,,,,,,,,,,,,,,,,,,,,,,,,,,,,,,,,,,,,,,,,,,,,,,,,,,,,,,,,,,
12134,1645902485.282625,1645902485.2899802,74.0,0.0,5025.641113000001,4323.589844,4209.230957,4129.230957,4166.153809,450.0,1.0,15.0,,,,0.0,0.0,4.0,2.0,4.0,4.0,50.0,,,,,,,,37.0,0.0,0.7088220000000001,-0.008057,0.65918,0.250977,0.9521629999999999,-0.336919,-0.136721,-0.032320999999999996,-0.032157,-0.009537,,,,,,,,,,,,,,,,,,,,,,,,,,,,,,,,,,,0.0,0.0,1.0,0.0,512.0,1.0,,,,,,,,,,,,,,,,,,,,,,,,,
12135,1645902485.2904391,1645902485.2977948,75.0,0.0,4980.512695,4298.974121,4215.897461,4181.538574,4132.307617,16255.0,1.0,15.0,,,,0.0,0.0,4.0,2.0,4.0,4.0,50.0,,,,,,,,,,,,,,,,,,,,,,,,,,,,,,,,,,,,,,,,,,,,,,,,,,,,,,,,,,,,,,,,,,,,,,,,,,,,,,,,,,,,
12136,1645902485.298254,1645902485.305609,76.0,0.0,4978.974121,4396.922852000001,4212.820313,4178.974121,4121.538574,450.0,1.0,15.0,,,,0.0,0.0,4.0,2.0,4.0,4.0,50.0,,,,,,,,38.0,0.0,0.7088220000000001,-0.008057,0.65918,0.250977,0.9389790000000001,-0.334966,-0.128908,-0.03241,-0.032212,-0.010976,,,,,,,,,,,,,,,,,,,,,,,,,,,,,,,,,,,,,,,,,,,,,,,,,,,,,,,,,,,,,,,,,
12137,1645902485.306068,1645902485.313424,77.0,0.0,4987.692383,4511.282227000001,4205.128418,4121.025879,4124.615234000001,450.0,1.0,15.0,,,,0.0,0.0,4.0,2.0,4.0,4.0,50.0,,,,,,,,,,,,,,,,,,,,,,,,,,,,,,,,,,,,,,,,,,,,,,,,,,,,,,,,,,,,,,,,,,,,,,,,,,,,,,,,,,,,
12138,1645902485.313883,1645902485.321239,78.0,0.0,4951.794922,4503.077147999999,4210.769043,4105.128418,4109.230957,450.0,1.0,15.0,,,,0.0,0.0,4.0,2.0,4.0,4.0,50.0,,,,,,,,39.0,0.0,0.7088220000000001,-0.008057,0.65918,0.250977,0.948257,-0.314458,-0.136233,-0.032489,-0.032312,-0.009243000000000001,,,,,,,,,,,,,,,,,,,,,,,,,,,,,,,,,,,0.0,0.0,1.0,0.0,512.0,1.0,,,,,,,,,,,,,,,,,,,,,,,,,
12139,1645902485.321697,1645902485.328953,79.0,0.0,4945.128418,4453.846191,4248.205078,4122.05127,4121.025879,16255.0,1.0,15.0,,,,0.0,0.0,4.0,2.0,4.0,4.0,50.0,,,,,,,,,,,,,,,,,,,,,,,,,,,,,,,,,,,,,,,,,,,,,,,,,,,,,,,,,,,,,,,,,,,,,,,,,,,,,,,,,,,,
12140,1645902485.329512,1645902485.336768,80.0,0.0,5018.461426,4503.589844,4268.205078,4095.897461,4180.512695,450.0,1.0,15.0,,,,0.0,0.0,4.0,2.0,4.0,4.0,50.0,,,,,,,,40.0,0.0,0.708427,-0.007568000000000001,0.659424,0.251465,0.9506979999999999,-0.31396999999999997,-0.12549000000000002,-0.029289,-0.032303,-0.0076359999999999996,,,,,,,,,,,,,,,,,,,,,,,,,,,,,,,,,,,,,,,,,,,,,,,,,,,,,,,,,,,,,,,,,
12141,1645902485.337326,1645902485.344583,81.0,0.0,4995.384765999999,4590.769043,4274.358886999999,4105.641113000001,4197.436035,450.0,1.0,15.0,,,,0.0,0.0,4.0,2.0,4.0,4.0,50.0,,,,,,,,,,,,,,,,,,,,,,,,,,,,,,,,,,,,,,,,,,,,,,,,,,,,,,,,,,,,,,,,,,,,,,,,,,,,,,,,,,,,
12142,1645902485.345141,1645902485.352397,82.0,0.0,4946.666504,4531.794922,4248.205078,4152.307617,4167.179688,450.0,1.0,15.0,,,,0.0,0.0,4.0,2.0,4.0,4.0,50.0,,,,,,,,41.0,0.0,0.7083430000000001,-0.007324,0.659424,0.251709,0.949722,-0.31201599999999996,-0.127443,-0.02968,-0.032442,-0.009509,,,,,,,,,,,,,,,,,,,,,,,,,,,,,,,,,,,0.0,0.0,1.0,0.0,512.0,1.0,,,,,,,,,,,,,,,,,,,,,,,,,
12143,1645902485.352955,1645902485.3602118,83.0,0.0,5067.692383,4361.025879,4286.153809,4129.743652,4192.820313,16255.0,1.0,15.0,,,,0.0,0.0,4.0,2.0,4.0,4.0,50.0,,,,,,,,,,,,,,,,,,,,,,,,,,,,,,,,,,,,,,,,,,,,,,,,,,,,,,,,,,,,,,,,,,,,,,,,,,,,,,,,,,,,
12144,1645902485.36077,1645902485.368027,84.0,0.0,5038.461426,4211.794922,4309.743652,4084.102539,4197.436035,450.0,1.0,15.0,,,,0.0,0.0,4.0,2.0,4.0,4.0,50.0,,,,,,,,42.0,0.0,0.708256,-0.007324,0.659424,0.25195300000000004,0.9355610000000001,-0.320806,-0.135744,-0.029837,-0.032421,-0.011097,,,,,,,,,,,,,,,,,,,,,,,,,,,,,,,,,,,,,,,,,,,,,,,,,,,,,,,,,,,,,,,,,
12145,1645902485.3685849,1645902485.375841,85.0,0.0,4793.333496,4150.256348,4265.641113000001,4123.077147999999,4103.077147999999,450.0,1.0,15.0,,,,0.0,0.0,4.0,2.0,4.0,4.0,50.0,,,,,,,,,,,,,,,,,,,,,,,,,,,,,,,,,,,,,,,,,,,,,,,,,,,,,,,,,,,,,,,,,,,,,,,,,,,,,,,,,,,,
12146,1645902485.376399,1645902485.383656,86.0,0.0,4970.256348,4156.922852000001,4240.512695,4157.436035,4089.2307130000004,450.0,1.0,15.0,,,,0.0,0.0,4.0,2.0,4.0,4.0,50.0,1.0,8.333333,0.0,1.0,0.0,3.0,4.0,43.0,0.0,0.7083119999999999,-0.0070799999999999995,0.65918,0.25244099999999997,0.953628,-0.338384,-0.133303,-0.030076,-0.03245,-0.012478,1.0,0.0,0.0,,,,,,,,,,,,,,,,,,,,,,,,,,,,,,,,0.0,0.0,1.0,0.0,512.0,1.0,54.62624,26.789295000000003,2.628767,2.054965,1.532032,18.368816,16.234762,11.46443,21.297531,19.594234,11.802328999999999,12.203234,6.387729,9.553289999999999,6.497355000000001,1.8563740000000002,4.504653,8.359296,6.375736,2.50143,11.706759,4.536417,2.07202,1.6873060000000002,1.728991
12147,1645902485.3842142,1645902485.39147,87.0,0.0,5482.563965,4158.461426,4303.589844,4126.153809,4189.743652,16255.0,1.0,15.0,,,,0.0,0.0,4.0,2.0,4.0,4.0,50.0,,,,,,,,,,,,,,,,,,,,,,,,,,,,,,,,,,,,,,,,,,,,,,,,,,,,,,,,,,,,,,,,,,,,,,,,,,,,,,,,,,,,
12148,1645902485.3920279,1645902485.399185,88.0,0.0,5655.897461,4185.128418,4240.512695,4129.230957,4215.384765999999,450.0,1.0,15.0,,,,0.0,0.0,4.0,2.0,4.0,4.0,50.0,,,,,,,,44.0,0.0,0.708227,-0.006836,0.65918,0.252686,0.949722,-0.326177,-0.127443,-0.030389,-0.032379000000000005,-0.010643999999999999,,,,,,,,,,,,,,,,,,,,,,,,,,,,,,,,,,,,,,,,,,,,,,,,,,,,,,,,,,,,,,,,,
12149,1645902485.399843,1645902485.407,89.0,0.0,5676.410156,4238.974121,4127.179688,4175.897461,4169.743652,450.0,1.0,15.0,,,,0.0,0.0,4.0,2.0,4.0,4.0,50.0,,,,,,,,,,,,,,,,,,,,,,,,,,,,,,,,,,,,,,,,,,,,,,,,,,,,,,,,,,,,,,,,,,,,,,,,,,,,,,,,,,,,
12150,1645902485.4076571,1645902485.414815,90.0,0.0,5983.589844,4201.538574,4167.692383,4163.589844,4194.358886999999,450.0,1.0,15.0,,,,0.0,0.0,4.0,2.0,4.0,4.0,50.0,,,,,,,,45.0,0.0,0.708142,-0.006592,0.65918,0.25293000000000004,0.945815,-0.339361,-0.129397,-0.030524000000000003,-0.032364,-0.012020999999999999,,,,,,,,,,,,,,,,,,,,,,,,,,,,,,,,,,,0.0,0.0,1.0,0.0,512.0,1.0,,,,,,,,,,,,,,,,,,,,,,,,,
12151,1645902485.415472,1645902485.4226289,91.0,0.0,6192.820313,4203.589844,4286.666504,4047.179443,4171.282227000001,16255.0,1.0,15.0,,,,0.0,0.0,4.0,2.0,4.0,4.0,50.0,,,,,,,,,,,,,,,,,,,,,,,,,,,,,,,,,,,,,,,,,,,,,,,,,,,,,,,,,,,,,,,,,,,,,,,,,,,,,,,,,,,,
12152,1645902485.423287,1645902485.430444,92.0,0.0,6184.102539,4373.846191,4223.077147999999,3985.1281740000004,4085.641113,450.0,1.0,15.0,,,,0.0,0.0,4.0,2.0,4.0,4.0,50.0,,,,,,,,46.0,0.0,0.7080569999999999,-0.0063479999999999995,0.65918,0.25317399999999995,0.953628,-0.33350100000000005,-0.133303,-0.030597000000000003,-0.03235,-0.013358000000000002,,,,,,,,,,,,,,,,,,,,,,,,,,,,,,,,,,,,,,,,,,,,,,,,,,,,,,,,,,,,,,,,,
12153,1645902485.431101,1645902485.438258,93.0,0.0,6314.358886999999,4405.641113000001,4130.256348,4046.1538090000004,4087.179443,450.0,1.0,15.0,,,,0.0,0.0,4.0,2.0,4.0,4.0,50.0,,,,,,,,,,,,,,,,,,,,,,,,,,,,,,,,,,,,,,,,,,,,,,,,,,,,,,,,,,,,,,,,,,,,,,,,,,,,,,,,,,,,
12154,1645902485.438916,1645902485.446073,94.0,0.0,6460.0,4255.384765999999,4197.94873,4095.384521,4143.077147999999,450.0,1.0,15.0,,,,0.0,0.0,4.0,2.0,4.0,4.0,50.0,,,,,,,,47.0,0.0,0.70797,-0.0063479999999999995,0.65918,0.253418,0.9404440000000001,-0.330571,-0.136721,-0.030760000000000003,-0.032289,-0.014415,,,,,,,,,,,,,,,,,,,,,,,,,,,,,,,,,,,0.0,0.0,1.0,0.0,512.0,1.0,,,,,,,,,,,,,,,,,,,,,,,,,
12155,1645902485.4467301,1645902485.4538882,95.0,0.0,6408.717772999999,4198.461426,4229.230957,4056.923096,4076.4101560000004,16255.0,1.0,15.0,,,,0.0,0.0,4.0,2.0,4.0,4.0,50.0,,,,,,,,,,,,,,,,,,,,,,,,,,,,,,,,,,,,,,,,,,,,,,,,,,,,,,,,,,,,,,,,,,,,,,,,,,,,,,,,,,,,
12156,1645902485.454545,1645902485.4617019,96.0,0.0,6400.512695,4212.820313,4195.384765999999,4013.8461909999996,3961.025635,450.0,1.0,15.0,,,,0.0,0.0,4.0,2.0,4.0,4.0,50.0,,,,,,,,48.0,0.0,0.70797,-0.0063479999999999995,0.65918,0.253418,0.945327,-0.33984899999999996,-0.14551,-0.030955,-0.03238,-0.012436,,,,,,,,,,,,,,,,,,,,,,,,,,,,,,,,,,,,,,,,,,,,,,,,,,,,,,,,,,,,,,,,,
12157,1645902485.462359,1645902485.469517,97.0,0.0,6535.384765999999,4141.538574,4243.589844,4001.538574,3932.3076170000004,450.0,1.0,15.0,,,,0.0,0.0,4.0,2.0,4.0,4.0,50.0,,,,,,,,,,,,,,,,,,,,,,,,,,,,,,,,,,,,,,,,,,,,,,,,,,,,,,,,,,,,,,,,,,,,,,,,,,,,,,,,,,,,
12158,1645902485.470174,1645902485.477232,98.0,0.0,6565.128418,4068.718018,4303.589844,3998.974365,3877.9487299999996,450.0,1.0,15.0,,,,0.0,0.0,4.0,2.0,4.0,4.0,50.0,,,,,,,,49.0,0.0,0.7080569999999999,-0.0063479999999999995,0.65918,0.25317399999999995,0.953628,-0.33350100000000005,-0.133303,-0.031082,-0.032316000000000004,-0.010655,,,,,,,,,,,,,,,,,,,,,,,,,,,,,,,,,,,0.0,0.0,1.0,0.0,512.0,1.0,,,,,,,,,,,,,,,,,,,,,,,,,
12159,1645902485.477988,1645902485.4850461,99.0,0.0,6571.282227000001,3981.538574,4189.230957,4002.5642090000006,3720.0,16255.0,1.0,15.0,,,,0.0,0.0,4.0,2.0,4.0,4.0,50.0,,,,,,,,,,,,,,,,,,,,,,,,,,,,,,,,,,,,,,,,,,,,,,,,,,,,,,,,,,,,,,,,,,,,,,,,,,,,,,,,,,,,
12160,1645902485.485803,1645902485.492861,100.0,0.0,6683.077147999999,3921.025635,4166.153809,3979.487061,3611.794922,450.0,1.0,15.0,,,,0.0,0.0,4.0,2.0,4.0,4.0,50.0,,,,,,,,50.0,0.0,0.70797,-0.0063479999999999995,0.65918,0.253418,0.945327,-0.33984899999999996,-0.14551,-0.031246,-0.032405,-0.009053,,,,,,,,,,,,,,,,,,,,,,,,,,,,,,,,,,,,,,,,,,,,,,,,,,,,,,,,,,,,,,,,,
12161,1645902485.493617,1645902485.500676,101.0,0.0,6721.538573999999,3940.512939,4279.487305,3915.384521,3613.8461909999996,450.0,1.0,15.0,,,,0.0,0.0,4.0,2.0,4.0,4.0,50.0,,,,,,,,,,,,,,,,,,,,,,,,,,,,,,,,,,,,,,,,,,,,,,,,,,,,,,,,,,,,,,,,,,,,,,,,,,,,,,,,,,,,
12162,1645902485.501432,1645902485.50849,102.0,0.0,6649.743652,3928.205078,4314.358886999999,3892.3076170000004,3572.3076170000004,450.0,1.0,15.0,,,,0.0,0.0,4.0,2.0,4.0,4.0,50.0,,,,,,,,51.0,0.0,0.707882,-0.0063479999999999995,0.65918,0.253662,0.9555809999999999,-0.317388,-0.129885,-0.031344,-0.032436,-0.010638,1.0,0.0,0.0,,,,,,,,,,,,,,,,,,,,,,,,,,,,,,,,0.0,0.0,1.0,0.0,512.0,1.0,49.214802,23.533911,2.440298,2.167007,1.913531,18.813805,17.373339,13.299254999999999,21.750538,19.513037,12.898208,12.168322,6.934653,9.025928,6.268823,1.492409,5.1213940000000004,8.035886999999999,6.336125,2.751127,10.455411999999999,3.664648,2.259811,1.6721720000000002,1.8279459999999998
12163,1645902485.509246,1645902485.516305,103.0,0.0,6665.641113000001,3928.718018,4217.94873,3939.487061,3462.0512700000004,16255.0,1.0,15.0,,,,0.0,0.0,4.0,2.0,4.0,4.0,50.0,,,,,,,,,,,,,,,,,,,,,,,,,,,,,,,,,,,,,,,,,,,,,,,,,,,,,,,,,,,,,,,,,,,,,,,,,,,,,,,,,,,,
12164,1645902485.517061,1645902485.5241199,104.0,0.0,6711.282227,3926.6667479999996,4195.384765999999,3956.923096,3402.5642090000006,450.0,1.0,15.0,,,,0.0,0.0,4.0,2.0,4.0,4.0,50.0,,,,,,,,52.0,0.0,0.707655,-0.0063479999999999995,0.659424,0.253662,0.941421,-0.336431,-0.137209,-0.031335,-0.032415,-0.00889,,,,,,,,,,,,,,,,,,,,,,,,,,,,,,,,,,,,,,,,,,,,,,,,,,,,,,,,,,,,,,,,,
12165,1645902485.5248759,1645902485.531934,105.0,0.0,6679.487305,3942.5642090000006,4252.307617,3883.076904,3437.9487299999996,450.0,1.0,15.0,,,,0.0,0.0,4.0,2.0,4.0,4.0,50.0,,,,,,,,,,,,,,,,,,,,,,,,,,,,,,,,,,,,,,,,,,,,,,,,,,,,,,,,,,,,,,,,,,,,,,,,,,,,,,,,,,,,
12166,1645902485.53269,1645902485.539749,106.0,0.0,6663.077147999999,4087.6923829999996,4272.307617,3829.743652,3474.8718259999996,450.0,1.0,15.0,,,,0.0,0.0,4.0,2.0,4.0,4.0,50.0,,,,,,,,53.0,0.0,0.707565,-0.006592,0.659424,0.253906,0.9423969999999999,-0.322759,-0.13281500000000002,-0.031375,-0.032299,-0.010492,,,,,,,,,,,,,,,,,,,,,,,,,,,,,,,,,,,0.0,0.0,1.0,0.0,512.0,1.0,,,,,,,,,,,,,,,,,,,,,,,,,
12167,1645902485.5405052,1645902485.5474641,107.0,0.0,6686.666504,4214.358886999999,4218.974121,3854.358887,3418.974365,16255.0,1.0,15.0,,,,0.0,0.0,4.0,2.0,4.0,4.0,50.0,,,,,,,,,,,,,,,,,,,,,,,,,,,,,,,,,,,,,,,,,,,,,,,,,,,,,,,,,,,,,,,,,,,,,,,,,,,,,,,,,,,,
12168,1645902485.5483189,1645902485.5552778,108.0,0.0,6654.358886999999,4166.666504,4210.256348,3903.5898439999996,3322.05127,450.0,1.0,15.0,,,,0.0,0.0,4.0,2.0,4.0,4.0,50.0,,,,,,,,54.0,0.0,0.707477,-0.006592,0.659424,0.25415,0.939467,-0.3252,-0.135256,-0.03146,-0.032291,-0.008709999999999999,,,,,,,,,,,,,,,,,,,,,,,,,,,,,,,,,,,,,,,,,,,,,,,,,,,,,,,,,,,,,,,,,
12169,1645902485.556134,1645902485.563093,109.0,0.0,6648.205078,4094.8718259999996,4221.025879,3930.256348,3321.025635,450.0,1.0,15.0,,,,0.0,0.0,4.0,2.0,4.0,4.0,50.0,,,,,,,,,,,,,,,,,,,,,,,,,,,,,,,,,,,,,,,,,,,,,,,,,,,,,,,,,,,,,,,,,,,,,,,,,,,,,,,,,,,,
12170,1645902485.5639482,1645902485.570908,110.0,0.0,6720.0,4039.487061,4187.692383,3882.5642090000006,3302.564209,450.0,1.0,15.0,,,,0.0,0.0,4.0,2.0,4.0,4.0,50.0,,,,,,,,55.0,0.0,0.707475,-0.006836,0.659424,0.25415,0.938003,-0.339361,-0.136721,-0.031488,-0.032333999999999995,-0.010378,,,,,,,,,,,,,,,,,,,,,,,,,,,,,,,,,,,0.0,0.0,1.0,0.0,512.0,1.0,,,,,,,,,,,,,,,,,,,,,,,,,
12171,1645902485.571763,1645902485.578722,111.0,0.0,6691.282227000001,3945.641113,4210.256348,3844.102539,3152.820557,16255.0,1.0,15.0,,,,0.0,0.0,4.0,2.0,4.0,4.0,50.0,,,,,,,,,,,,,,,,,,,,,,,,,,,,,,,,,,,,,,,,,,,,,,,,,,,,,,,,,,,,,,,,,,,,,,,,,,,,,,,,,,,,
12172,1645902485.579577,1645902485.586537,112.0,0.0,6589.743652,3924.615479,4232.820313,3863.076904,3026.153809,450.0,1.0,15.0,,,,0.0,0.0,4.0,2.0,4.0,4.0,50.0,,,,,,,,56.0,0.0,0.707475,-0.006836,0.659424,0.25415,0.9428850000000001,-0.33350100000000005,-0.146975,-0.031464,-0.032323000000000005,-0.011781999999999999,,,,,,,,,,,,,,,,,,,,,,,,,,,,,,,,,,,,,,,,,,,,,,,,,,,,,,,,,,,,,,,,,
12173,1645902485.587392,1645902485.594352,113.0,0.0,6581.025879,3896.4101560000004,4229.230957,3885.1281740000004,3023.076904,450.0,1.0,15.0,,,,0.0,0.0,4.0,2.0,4.0,4.0,50.0,,,,,,,,,,,,,,,,,,,,,,,,,,,,,,,,,,,,,,,,,,,,,,,,,,,,,,,,,,,,,,,,,,,,,,,,,,,,,,,,,,,,
12174,1645902485.595206,1645902485.602166,114.0,0.0,6626.153809,3781.025635,4242.05127,3895.897461,3035.897461,450.0,1.0,15.0,,,,0.0,0.0,4.0,2.0,4.0,4.0,50.0,,,,,,,,57.0,0.0,0.707475,-0.006836,0.659424,0.25415,0.953628,-0.33789600000000003,-0.131838,-0.031638,-0.032313999999999996,-0.013094,,,,,,,,,,,,,,,,,,,,,,,,,,,,,,,,,,,0.0,0.0,1.0,0.0,512.0,1.0,,,,,,,,,,,,,,,,,,,,,,,,,
12175,1645902485.6030211,1645902485.609981,115.0,0.0,6632.307617,3750.7692869999996,4289.230957,3898.461426,3005.128174,16255.0,1.0,15.0,,,,0.0,0.0,4.0,2.0,4.0,4.0,50.0,,,,,,,,,,,,,,,,,,,,,,,,,,,,,,,,,,,,,,,,,,,,,,,,,,,,,,,,,,,,,,,,,,,,,,,,,,,,,,,,,,,,
12176,1645902485.610836,1645902485.6177962,116.0,0.0,6588.205078,3825.1281740000004,4262.563965,3846.6667479999996,3003.076904,450.0,1.0,15.0,,,,0.0,0.0,4.0,2.0,4.0,4.0,50.0,,,,,,,,58.0,0.0,0.707475,-0.006836,0.659424,0.25415,0.9389790000000001,-0.33789600000000003,-0.140139,-0.031599,-0.032354,-0.01115,,,,,,,,,,,,,,,,,,,,,,,,,,,,,,,,,,,,,,,,,,,,,,,,,,,,,,,,,,,,,,,,,
12177,1645902485.61865,1645902485.62551,117.0,0.0,6558.974121,3888.205078,4220.0,3816.923096,3002.564209,450.0,1.0,15.0,,,,0.0,0.0,4.0,2.0,4.0,4.0,50.0,,,,,,,,,,,,,,,,,,,,,,,,,,,,,,,,,,,,,,,,,,,,,,,,,,,,,,,,,,,,,,,,,,,,,,,,,,,,,,,,,,,,
12178,1645902485.626465,1645902485.633325,118.0,0.0,6556.922852000001,3863.076904,4171.282227000001,3832.820557,2973.846191,450.0,1.0,15.0,,,,0.0,0.0,4.0,2.0,4.0,4.0,50.0,,,,,,,,59.0,0.0,0.707475,-0.006836,0.659424,0.25415,0.9521629999999999,-0.340337,-0.134768,-0.031662,-0.032389999999999995,-0.012426999999999999,1.0,0.0,0.0,,,,,,,,,,,,,,,,,,,,,,,,,,,,,,,,0.0,0.0,1.0,0.0,512.0,1.0,60.92989300000001,20.5499,3.312533,2.723775,2.898429,23.302069,22.584503,16.055325,21.662893,19.362171,14.423538,13.910108,7.998517999999999,8.212992999999999,5.859488,1.612254,5.630086,7.553791,6.411821,2.992819,9.149142999999999,3.054518,2.523908,1.819015,2.034753
12179,1645902485.634279,1645902485.64114,119.0,0.0,6504.615234000001,3805.1281740000004,4176.922852000001,3802.5642090000006,2917.435791,16255.0,1.0,15.0,,,,0.0,0.0,4.0,2.0,4.0,4.0,50.0,,,,,,,,,,,,,,,,,,,,,,,,,,,,,,,,,,,,,,,,,,,,,,,,,,,,,,,,,,,,,,,,,,,,,,,,,,,,,,,,,,,,
12180,1645902485.642094,1645902485.648954,120.0,0.0,6406.666504,3799.487061,4195.897461,3792.3076170000004,2895.897461,450.0,1.0,15.0,,,,0.0,0.0,4.0,2.0,4.0,4.0,50.0,,,,,,,,60.0,0.0,0.707563,-0.006836,0.659424,0.253906,0.9365379999999999,-0.319829,-0.13135,-0.03167,-0.032422,-0.013675,,,,,,,,,,,,,,,,,,,,,,,,,,,,,,,,,,,,,,,,,,,,,,,,,,,,,,,,,,,,,,,,,
12181,1645902485.649908,1645902485.656769,121.0,0.0,6398.461426,3767.179443,4172.820313,3833.3332520000004,2951.794922,450.0,1.0,15.0,,,,0.0,0.0,4.0,2.0,4.0,4.0,50.0,,,,,,,,,,,,,,,,,,,,,,,,,,,,,,,,,,,,,,,,,,,,,,,,,,,,,,,,,,,,,,,,,,,,,,,,,,,,,,,,,,,,
12182,1645902485.657723,1645902485.664583,122.0,0.0,6461.025879,3700.512939,4168.717772999999,3794.358887,3020.512939,450.0,1.0,15.0,,,,0.0,0.0,4.0,2.0,4.0,4.0,50.0,,,,,,,,61.0,0.0,0.707563,-0.006836,0.659424,0.253906,0.9438620000000001,-0.333013,-0.129397,-0.031677,-0.032451999999999995,-0.014894999999999999,,,,,,,,,,,,,,,,,,,,,,,,,,,,,,,,,,,0.0,0.0,1.0,0.0,512.0,1.0,,,,,,,,,,,,,,,,,,,,,,,,,
12183,1645902485.6655369,1645902485.672398,123.0,0.0,6397.436035,3681.025635,4253.333496,3691.794922,3068.718018,16255.0,1.0,15.0,,,,0.0,0.0,4.0,2.0,4.0,4.0,50.0,,,,,,,,,,,,,,,,,,,,,,,,,,,,,,,,,,,,,,,,,,,,,,,,,,,,,,,,,,,,,,,,,,,,,,,,,,,,,,,,,,,,
12184,1645902485.673352,1645902485.680213,124.0,0.0,6287.179688,3720.512939,4235.384765999999,3703.5898439999996,3158.974365,450.0,1.0,15.0,,,,0.0,0.0,4.0,2.0,4.0,4.0,50.0,,,,,,,,62.0,0.0,0.7075600000000001,-0.0070799999999999995,0.659424,0.253906,0.95314,-0.334966,-0.138186,-0.031633999999999995,-0.03238,-0.012722,,,,,,,,,,,,,,,,,,,,,,,,,,,,,,,,,,,,,,,,,,,,,,,,,,,,,,,,,,,,,,,,,
12185,1645902485.681167,1645902485.688027,125.0,0.0,6276.410156,3778.974365,4178.461426,3747.179443,3244.102539,450.0,1.0,15.0,,,,0.0,0.0,4.0,2.0,4.0,4.0,50.0,,,,,,,,,,,,,,,,,,,,,,,,,,,,,,,,,,,,,,,,,,,,,,,,,,,,,,,,,,,,,,,,,,,,,,,,,,,,,,,,,,,,
12186,1645902485.688981,1645902485.695742,126.0,0.0,6277.436035,3763.5898439999996,4181.025879,3708.205078,3203.076904,450.0,1.0,15.0,,,,0.0,0.0,4.0,2.0,4.0,4.0,50.0,,,,,,,,63.0,0.0,0.707788,-0.0070799999999999995,0.65918,0.253906,0.94435,-0.321782,-0.147463,-0.031742,-0.032365,-0.013890999999999999,,,,,,,,,,,,,,,,,,,,,,,,,,,,,,,,,,,0.0,0.0,1.0,0.0,512.0,1.0,,,,,,,,,,,,,,,,,,,,,,,,,
12187,1645902485.6967962,1645902485.703557,127.0,0.0,6205.641113000001,3656.4101560000004,4139.487305,3700.0,3116.923096,232.0,1.0,15.0,,,,0.0,0.0,4.0,2.0,4.0,4.0,50.0,,,,,,,,,,,,,,,,,,,,,,,,,,,,,,,,,,,,,,,,,,,,,,,,,,,,,,,,,,,,,,,,,,,,,,,,,,,,,,,,,,,,
12188,1645902485.7046099,1645902485.711272,0.0,0.0,6148.717772999999,3656.923096,4142.563965,3745.641113,3129.230713,450.0,1.0,15.0,,,,0.0,2.0,2.0,2.0,4.0,4.0,50.0,,,,,,,,0.0,0.0,0.707873,-0.007324,0.65918,0.253662,0.9350729999999999,-0.325689,-0.136233,-0.031791,-0.032254000000000005,-0.015138999999999998,,,,,,,,,,,,,,,,,,,,,,,,,,,,,,,,,,,,,,,,,,,,,,,,,,,,,,,,,,,,,,,,,
12189,1645902485.712425,1645902485.719086,1.0,0.0,6084.615234000001,3749.2307130000004,4211.794922,3676.923096,3110.256348,450.0,1.0,15.0,,,,0.0,2.0,2.0,2.0,4.0,4.0,50.0,,,,,,,,,,,,,,,,,,,,,,,,,,,,,,,,,,,,,,,,,,,,,,,,,,,,,,,,,,,,,,,,,,,,,,,,,,,,,,,,,,,,
12190,1645902485.7202392,1645902485.726901,2.0,0.0,5986.666504,3688.205078,4226.666504,3583.076904,3060.512939,296.0,1.0,15.0,,,,0.0,2.0,2.0,2.0,4.0,4.0,50.0,,,,,,,,1.0,0.0,0.708098,-0.007568000000000001,0.658936,0.253662,0.9423969999999999,-0.327153,-0.12695499999999998,-0.031833999999999994,-0.032152999999999994,-0.013038999999999999,,,,,,,,,,,,,,,,,,,,,,,,,,,,,,,,,,,0.0,0.0,1.0,0.0,512.0,1.0,,,,,,,,,,,,,,,,,,,,,,,,,
12191,1645902485.7280538,1645902485.734716,3.0,0.0,5905.128418,3619.487061,4149.743652,3601.538574,3092.3076170000004,450.0,1.0,15.0,,,,0.0,2.0,2.0,2.0,4.0,4.0,50.0,,,,,,,,,,,,,,,,,,,,,,,,,,,,,,,,,,,,,,,,,,,,,,,,,,,,,,,,,,,,,,,,,,,,,,,,,,,,,,,,,,,,
12192,1645902485.735868,1645902485.74253,4.0,0.0,5838.974121,3710.256348,4152.820313,3626.6667479999996,3131.281982,246.0,1.0,15.0,,,,0.0,2.0,2.0,2.0,4.0,4.0,50.0,,,,,,,,2.0,0.0,0.7081850000000001,-0.007568000000000001,0.658936,0.253418,0.945815,-0.326665,-0.137209,-0.031971,-0.032257999999999995,-0.014274,,,,,,,,,,,,,,,,,,,,,,,,,,,,,,,,,,,,,,,,,,,,,,,,,,,,,,,,,,,,,,,,,
12193,1645902485.743683,1645902485.750345,5.0,0.0,5726.153809,3745.1281740000004,4177.436035,3574.8718259999996,3127.179443,450.0,1.0,15.0,,,,0.0,2.0,2.0,2.0,4.0,4.0,50.0,,,,,,,,,,,,,,,,,,,,,,,,,,,,,,,,,,,,,,,,,,,,,,,,,,,,,,,,,,,,,,,,,,,,,,,,,,,,,,,,,,,,
12194,1645902485.751497,1645902485.758159,6.0,0.0,5613.846191,3653.8461909999996,4214.358886999999,3555.897461,3169.743652,281.0,1.0,15.0,,,,0.0,2.0,2.0,2.0,4.0,4.0,50.0,,,,,,,,3.0,0.0,0.70827,-0.007812999999999999,0.658936,0.25317399999999995,0.951675,-0.338872,-0.148928,-0.032046,-0.032304,-0.012212,1.0,0.0,0.0,,,,,,,,,,,,,,,,,,,,,,,,,,,,,,,,0.0,0.0,32.0,1.0,1.0,0.0,135.81015,23.215612,7.492707000000001,4.453984999999999,5.3361019999999995,35.854510999999995,40.031689,18.8993,21.536633,19.213573,16.427958,17.166439,8.99878,7.318480999999999,5.569028,2.635349,5.962947,7.050586999999999,6.804664,3.328215,9.784171,3.5570199999999996,3.102114,2.3372490000000004,2.495368
12195,1645902485.759312,1645902485.765974,7.0,0.0,5542.05127,3636.923096,4213.333496,3589.743652,3254.871826,450.0,1.0,15.0,,,,0.0,2.0,2.0,2.0,4.0,4.0,50.0,,,,,,,,,,,,,,,,,,,,,,,,,,,,,,,,,,,,,,,,,,,,,,,,,,,,,,,,,,,,,,,,,,,,,,,,,,,,,,,,,,,,
12196,1645902485.767126,1645902485.7737892,8.0,0.0,5473.333496,3728.205078,4189.743652,3598.461426,3289.743652,450.0,1.0,15.0,,,,0.0,2.0,2.0,2.0,4.0,4.0,50.0,,,,,,,,4.0,0.0,0.70827,-0.007812999999999999,0.658936,0.25317399999999995,0.9438620000000001,-0.332525,-0.13916199999999998,-0.032113,-0.032443,-0.013481,,,,,,,,,,,,,,,,,,,,,,,,,,,,,,,,,,,,,,,,,,,,,,,,,,,,,,,,,,,,,,,,,
12197,1645902485.774941,1645902485.781503,9.0,0.0,5385.641113000001,3767.179443,4188.717772999999,3619.487061,3308.205078,16134.0,1.0,15.0,,,,0.0,2.0,2.0,2.0,4.0,4.0,50.0,,,,,,,,,,,,,,,,,,,,,,,,,,,,,,,,,,,,,,,,,,,,,,,,,,,,,,,,,,,,,,,,,,,,,,,,,,,,,,,,,,,,
12198,1645902485.7827551,1645902485.789318,10.0,0.0,5304.102539,3704.615479,4189.743652,3636.923096,3302.05127,450.0,1.0,15.0,,,,0.0,2.0,2.0,2.0,4.0,4.0,50.0,,,,,,,,5.0,0.0,0.708357,-0.007812999999999999,0.658936,0.25293000000000004,0.947768,-0.32910700000000004,-0.13916199999999998,-0.032026,-0.03247,-0.014622999999999999,,,,,,,,,,,,,,,,,,,,,,,,,,,,,,,,,,,0.0,0.0,32.0,1.0,1.0,0.0,,,,,,,,,,,,,,,,,,,,,,,,,
12199,1645902485.79057,1645902485.797133,11.0,0.0,5251.282227000001,3656.923096,4158.974121,3590.256348,3293.333252,16245.0,1.0,15.0,,,,0.0,2.0,2.0,2.0,4.0,4.0,50.0,,,,,,,,,,,,,,,,,,,,,,,,,,,,,,,,,,,,,,,,,,,,,,,,,,,,,,,,,,,,,,,,,,,,,,,,,,,,,,,,,,,,
12200,1645902485.798385,1645902485.8049471,12.0,0.0,5182.563965,3702.0512700000004,4174.871582,3554.8718259999996,3325.128174,450.0,1.0,15.0,,,,0.0,2.0,2.0,2.0,4.0,4.0,50.0,,,,,,,,6.0,0.0,0.708671,-0.007812999999999999,0.658691,0.252686,0.938003,-0.34473200000000004,-0.137697,-0.031998,-0.032348,-0.012526,,,,,,,,,,,,,,,,,,,,,,,,,,,,,,,,,,,,,,,,,,,,,,,,,,,,,,,,,,,,,,,,,
12201,1645902485.806199,1645902485.812762,13.0,0.0,5155.384765999999,3811.281982,4208.717772999999,3640.0,3370.256348,450.0,1.0,15.0,,,,0.0,2.0,2.0,2.0,4.0,4.0,50.0,,,,,,,,,,,,,,,,,,,,,,,,,,,,,,,,,,,,,,,,,,,,,,,,,,,,,,,,,,,,,,,,,,,,,,,,,,,,,,,,,,,,
12202,1645902485.814014,1645902485.820577,14.0,0.0,5129.743652,3869.743652,4190.769043,3682.0512700000004,3363.076904,450.0,1.0,15.0,,,,0.0,2.0,2.0,2.0,4.0,4.0,50.0,,,,,,,,7.0,0.0,0.708671,-0.007812999999999999,0.658691,0.252686,0.945815,-0.320806,-0.136721,-0.032118,-0.032336000000000004,-0.010541,,,,,,,,,,,,,,,,,,,,,,,,,,,,,,,,,,,0.0,0.0,32.0,1.0,1.0,0.0,,,,,,,,,,,,,,,,,,,,,,,,,
12203,1645902485.821828,1645902485.828391,15.0,0.0,5001.025879,3815.384521,4174.871582,3594.8718259999996,3329.230713,16245.0,1.0,15.0,,,,0.0,2.0,2.0,2.0,4.0,4.0,50.0,,,,,,,,,,,,,,,,,,,,,,,,,,,,,,,,,,,,,,,,,,,,,,,,,,,,,,,,,,,,,,,,,,,,,,,,,,,,,,,,,,,,
12204,1645902485.829643,1645902485.836206,16.0,0.0,4825.128418,3795.897461,4178.974121,3549.2307130000004,3326.153809,0.0,1.0,15.0,,,,0.0,2.0,2.0,2.0,4.0,4.0,50.0,,,,,,,,8.0,0.0,0.708755,-0.008057,0.658691,0.25244099999999997,0.948257,-0.31104,-0.131838,-0.031983,-0.032325,-0.011831,,,,,,,,,,,,,,,,,,,,,,,,,,,,,,,,,,,,,,,,,,,,,,,,,,,,,,,,,,,,,,,,,
12205,1645902485.837458,1645902485.844021,17.0,0.0,4737.94873,3907.179443,4204.615234000001,3571.281982,3347.179443,0.0,1.0,15.0,,,,0.0,2.0,2.0,2.0,4.0,4.0,50.0,,,,,,,,,,,,,,,,,,,,,,,,,,,,,,,,,,,,,,,,,,,,,,,,,,,,,,,,,,,,,,,,,,,,,,,,,,,,,,,,,,,,
12206,1645902485.845272,1645902485.851835,18.0,0.0,4671.282227000001,3937.4357909999994,4190.769043,3568.718018,3350.769287,0.0,1.0,15.0,,,,0.0,2.0,2.0,2.0,4.0,4.0,50.0,,,,,,,,9.0,0.0,0.708755,-0.008057,0.658691,0.25244099999999997,0.947768,-0.326177,-0.14551,-0.031958,-0.032266,-0.009964,,,,,,,,,,,,,,,,,,,,,,,,,,,,,,,,,,,0.0,0.0,32.0,1.0,1.0,0.0,,,,,,,,,,,,,,,,,,,,,,,,,
12207,1645902485.853087,1645902485.85955,19.0,0.0,4602.563965,3872.3076170000004,4197.94873,3612.3076170000004,3395.384521,0.0,1.0,15.0,,,,0.0,2.0,2.0,2.0,4.0,4.0,50.0,,,,,,,,,,,,,,,,,,,,,,,,,,,,,,,,,,,,,,,,,,,,,,,,,,,,,,,,,,,,,,,,,,,,,,,,,,,,,,,,,,,,
12208,1645902485.8609009,1645902485.8673651,20.0,0.0,4542.563965,3988.205078,4223.589844,3684.102539,3460.0,0.0,1.0,15.0,,,,0.0,2.0,2.0,2.0,4.0,4.0,50.0,,,,,,,,10.0,0.0,0.708839,-0.008301000000000001,0.658691,0.252197,0.941421,-0.332036,-0.134279,-0.031936,-0.032311,-0.011359999999999999,,,,,,,,,,,,,,,,,,,,,,,,,,,,,,,,,,,,,,,,,,,,,,,,,,,,,,,,,,,,,,,,,
12209,1645902485.868716,1645902485.8751788,21.0,0.0,4447.179688,4190.769043,4267.692383,3664.102539,3448.205078,0.0,1.0,15.0,,,,0.0,2.0,2.0,2.0,4.0,4.0,50.0,,,,,,,,,,,,,,,,,,,,,,,,,,,,,,,,,,,,,,,,,,,,,,,,,,,,,,,,,,,,,,,,,,,,,,,,,,,,,,,,,,,,
12210,1645902485.8765302,1645902485.882994,22.0,0.0,4353.333496,4323.077147999999,4241.538574,3622.5642090000006,3421.025635,0.0,1.0,15.0,,,,0.0,2.0,2.0,2.0,4.0,4.0,50.0,1.0,0.0,0.0,0.0,0.0,3.0,1.0,11.0,0.0,0.708836,-0.008545,0.658691,0.252197,0.9438620000000001,-0.32227100000000003,-0.135256,-0.031917,-0.032352,-0.009590000000000001,1.0,0.0,0.0,,,,,,,,,,,,,,,,,,,,,,,,,,,,,,,,0.0,0.0,32.0,0.857526,1.0,0.0,314.49984700000005,36.04385,16.862841,7.815957000000001,9.862405,58.772240000000004,78.629227,21.658195000000003,21.720160999999997,19.167854000000002,18.832079,20.827108,9.432811000000001,6.579208,5.758948999999999,5.032812,6.054702,6.6283,7.653383,3.919374,15.255573000000002,6.7446850000000005,4.726851,3.3596690000000002,3.380171
12211,1645902485.8843448,1645902485.890809,23.0,0.0,4301.538574,4610.256348,4233.333496,3662.5642090000006,3471.281982,0.0,1.0,15.0,,,,0.0,2.0,2.0,2.0,4.0,4.0,50.0,,,,,,,,,,,,,,,,,,,,,,,,,,,,,,,,,,,,,,,,,,,,,,,,,,,,,,,,,,,,,,,,,,,,,,,,,,,,,,,,,,,,
12212,1645902485.892159,1645902485.898623,24.0,0.0,4245.641113000001,4880.512695,4246.153809,3713.3332520000004,3525.1281740000004,0.0,1.0,15.0,,,,0.0,2.0,2.0,2.0,4.0,4.0,50.0,,,,,,,,12.0,0.0,0.708923,-0.008545,0.658691,0.25195300000000004,0.9433739999999999,-0.332036,-0.134279,-0.031948000000000004,-0.032388,-0.011072,,,,,,,,,,,,,,,,,,,,,,,,,,,,,,,,,,,,,,,,,,,,,,,,,,,,,,,,,,,,,,,,,
12213,1645902485.899974,1645902485.906438,25.0,0.0,4186.153809,4790.256348,4257.94873,3736.923096,3527.6923829999996,0.0,1.0,15.0,,,,0.0,2.0,2.0,2.0,4.0,4.0,50.0,,,,,,,,,,,,,,,,,,,,,,,,,,,,,,,,,,,,,,,,,,,,,,,,,,,,,,,,,,,,,,,,,,,,,,,,,,,,,,,,,,,,
12214,1645902485.907788,1645902485.914253,26.0,0.0,4138.461426,4630.769043,4236.922852000001,3778.974365,3553.8461909999996,0.0,1.0,15.0,,,,0.0,2.0,2.0,2.0,4.0,4.0,50.0,,,,,,,,13.0,0.0,0.708839,-0.008301000000000001,0.658691,0.252197,0.941421,-0.332036,-0.134279,-0.031976,-0.032323000000000005,-0.009281000000000001,,,,,,,,,,,,,,,,,,,,,,,,,,,,,,,,,,,0.0,0.0,32.0,0.857526,1.0,0.0,,,,,,,,,,,,,,,,,,,,,,,,,
12215,1645902485.915603,1645902485.922067,27.0,0.0,4091.281982,4706.153809,4204.102539,3802.5642090000006,3598.461426,0.0,1.0,15.0,,,,0.0,2.0,2.0,2.0,4.0,4.0,50.0,,,,,,,,,,,,,,,,,,,,,,,,,,,,,,,,,,,,,,,,,,,,,,,,,,,,,,,,,,,,,,,,,,,,,,,,,,,,,,,,,,,,
12216,1645902485.923417,1645902485.929882,28.0,0.0,4189.743652,4873.846191,4175.384765999999,3806.6667479999996,3635.384521,0.0,1.0,15.0,,,,0.0,2.0,2.0,2.0,4.0,4.0,50.0,,,,,,,,14.0,0.0,0.708923,-0.008545,0.658691,0.25195300000000004,0.9433739999999999,-0.332036,-0.134279,-0.032001,-0.032362,-0.010795,,,,,,,,,,,,,,,,,,,,,,,,,,,,,,,,,,,,,,,,,,,,,,,,,,,,,,,,,,,,,,,,,
12217,1645902485.931232,1645902485.937597,29.0,0.0,4401.025879,4971.794922,4197.94873,3814.358887,3652.820557,0.0,1.0,15.0,,,,0.0,2.0,2.0,2.0,4.0,4.0,50.0,,,,,,,,,,,,,,,,,,,,,,,,,,,,,,,,,,,,,,,,,,,,,,,,,,,,,,,,,,,,,,,,,,,,,,,,,,,,,,,,,,,,
12218,1645902485.939047,1645902485.945411,30.0,0.0,4518.974121,5057.436035,4274.358886999999,3817.9487299999996,3677.9487299999996,0.0,1.0,15.0,,,,0.0,2.0,2.0,2.0,4.0,4.0,50.0,,,,,,,,15.0,0.0,0.708923,-0.008545,0.658691,0.25195300000000004,0.9438620000000001,-0.31201599999999996,-0.133303,-0.032023,-0.0323,-0.009031,,,,,,,,,,,,,,,,,,,,,,,,,,,,,,,,,,,0.0,0.0,32.0,0.857526,1.0,0.0,,,,,,,,,,,,,,,,,,,,,,,,,
12219,1645902485.946861,1645902485.953226,31.0,0.0,4554.871582,5199.487305,4273.846191,3855.897461,3726.6667479999996,0.0,1.0,15.0,,,,0.0,2.0,2.0,2.0,4.0,4.0,50.0,,,,,,,,,,,,,,,,,,,,,,,,,,,,,,,,,,,,,,,,,,,,,,,,,,,,,,,,,,,,,,,,,,,,,,,,,,,,,,,,,,,,
12220,1645902485.954676,1645902485.961041,32.0,0.0,4618.974121,5382.05127,4232.307617,3909.743652,3782.5642090000006,0.0,1.0,15.0,,,,0.0,2.0,2.0,2.0,4.0,4.0,50.0,,,,,,,,16.0,0.0,0.708923,-0.008545,0.658691,0.25195300000000004,0.945327,-0.326177,-0.126467,-0.032044,-0.032244,-0.010520999999999999,,,,,,,,,,,,,,,,,,,,,,,,,,,,,,,,,,,,,,,,,,,,,,,,,,,,,,,,,,,,,,,,,
12221,1645902485.96249,1645902485.9688551,33.0,0.0,4640.0,5449.743652,4243.589844,3893.8461909999996,3808.205078,0.0,1.0,15.0,,,,0.0,2.0,2.0,2.0,4.0,4.0,50.0,,,,,,,,,,,,,,,,,,,,,,,,,,,,,,,,,,,,,,,,,,,,,,,,,,,,,,,,,,,,,,,,,,,,,,,,,,,,,,,,,,,,
12222,1645902485.970305,1645902485.97667,34.0,0.0,4609.230957,5443.589844,4274.358886999999,3880.512939,3837.4357909999994,0.0,1.0,15.0,,,,0.0,2.0,2.0,2.0,4.0,4.0,50.0,,,,,,,,17.0,0.0,0.708923,-0.008545,0.658691,0.25195300000000004,0.9506979999999999,-0.318364,-0.138674,-0.03216,-0.032291,-0.011909999999999999,,,,,,,,,,,,,,,,,,,,,,,,,,,,,,,,,,,0.0,0.0,32.0,0.857526,1.0,0.0,,,,,,,,,,,,,,,,,,,,,,,,,
12223,1645902485.978119,1645902485.984484,35.0,0.0,4618.461426,5564.102539,4240.0,3920.512939,3893.8461909999996,0.0,1.0,15.0,,,,0.0,2.0,2.0,2.0,4.0,4.0,50.0,,,,,,,,,,,,,,,,,,,,,,,,,,,,,,,,,,,,,,,,,,,,,,,,,,,,,,,,,,,,,,,,,,,,,,,,,,,,,,,,,,,,
12224,1645902485.985934,1645902485.992299,36.0,0.0,4629.743652,5655.384765999999,4262.563965,3936.4101560000004,3941.538574,0.0,1.0,15.0,,,,0.0,2.0,2.0,2.0,4.0,4.0,50.0,,,,,,,,18.0,0.0,0.7087859999999999,-0.008301000000000001,0.658936,0.251709,0.95021,-0.320317,-0.142092,-0.032166,-0.032138,-0.013161,,,,,,,,,,,,,,,,,,,,,,,,,,,,,,,,,,,,,,,,,,,,,,,,,,,,,,,,,,,,,,,,,
12225,1645902485.993748,1645902486.000114,37.0,0.0,4598.974121,5558.461426,4267.692383,3918.974365,3967.6923829999996,0.0,1.0,15.0,,,,0.0,2.0,2.0,2.0,4.0,4.0,50.0,,,,,,,,,,,,,,,,,,,,,,,,,,,,,,,,,,,,,,,,,,,,,,,,,,,,,,,,,,,,,,,,,,,,,,,,,,,,,,,,,,,,
12226,1645902486.001563,1645902486.007928,38.0,0.0,4562.05127,5456.922852000001,4242.563965,3943.076904,3988.718018,0.0,1.0,15.0,,,,0.0,2.0,2.0,2.0,4.0,4.0,50.0,,,,,,,,19.0,0.0,0.709016,-0.008057,0.658691,0.251709,0.9404440000000001,-0.32813000000000003,-0.138674,-0.032221,-0.032098,-0.014237,1.0,0.0,0.0,,,,,,,,,,,,,,,,,,,,,,,,,,,,,,,,0.0,0.0,32.0,1.0,1.0,0.0,591.444397,59.08194399999999,30.86784,12.525053,16.264345000000002,89.283524,140.454483,25.024689000000002,22.176453,19.380568,21.438467000000003,23.591764,9.22449,6.227887,6.638068,9.804053,6.010023,6.37394,8.985744,4.8638,32.115532,14.872963,8.635624,4.881907,4.746392
12227,1645902486.009377,1645902486.015643,39.0,0.0,4552.307617,5505.641113000001,4250.256348,3973.8461909999996,4029.2307130000004,0.0,1.0,15.0,,,,0.0,2.0,2.0,2.0,4.0,4.0,50.0,,,,,,,,,,,,,,,,,,,,,,,,,,,,,,,,,,,,,,,,,,,,,,,,,,,,,,,,,,,,,,,,,,,,,,,,,,,,,,,,,,,,
12228,1645902486.017192,1645902486.023458,40.0,0.0,4526.666504,5567.692383,4274.871582,3982.5642090000006,4052.820557,0.0,1.0,15.0,,,,0.0,2.0,2.0,2.0,4.0,4.0,50.0,,,,,,,,20.0,0.0,0.709016,-0.008057,0.658691,0.251709,0.9404440000000001,-0.321294,-0.148928,-0.032173,-0.032013,-0.015304,,,,,,,,,,,,,,,,,,,,,,,,,,,,,,,,,,,,,,,,,,,,,,,,,,,,,,,,,,,,,,,,,
12229,1645902486.025007,1645902486.0312722,41.0,0.0,4501.025879,5524.102539,4205.128418,3995.897461,4062.0512700000004,0.0,1.0,15.0,,,,0.0,2.0,2.0,2.0,4.0,4.0,50.0,,,,,,,,,,,,,,,,,,,,,,,,,,,,,,,,,,,,,,,,,,,,,,,,,,,,,,,,,,,,,,,,,,,,,,,,,,,,,,,,,,,,
12230,1645902486.0328212,1645902486.0390868,42.0,0.0,4475.897461,5449.743652,4218.461426,4003.076904,4065.1281740000004,0.0,1.0,15.0,,,,0.0,2.0,2.0,2.0,4.0,4.0,50.0,,,,,,,,21.0,0.0,0.709016,-0.008057,0.658691,0.251709,0.951675,-0.316411,-0.12842,-0.032227,-0.032083999999999994,-0.016215,,,,,,,,,,,,,,,,,,,,,,,,,,,,,,,,,,,0.0,0.0,32.0,1.0,1.0,0.0,,,,,,,,,,,,,,,,,,,,,,,,,
12231,1645902486.0406358,1645902486.046902,43.0,0.0,4452.820313,5421.538574,4304.102539,4012.3076170000004,4090.7692869999996,0.0,1.0,15.0,,,,0.0,2.0,2.0,2.0,4.0,4.0,50.0,,,,,,,,,,,,,,,,,,,,,,,,,,,,,,,,,,,,,,,,,,,,,,,,,,,,,,,,,,,,,,,,,,,,,,,,,,,,,,,,,,,,
12232,1645902486.04845,1645902486.054716,44.0,0.0,4424.102539,5410.256348,4271.282227000001,4018.974365,4129.230957,0.0,1.0,15.0,,,,0.0,2.0,2.0,2.0,4.0,4.0,50.0,,,,,,,,22.0,0.0,0.709016,-0.008057,0.658691,0.251709,0.9463030000000001,-0.333013,-0.143557,-0.032178,-0.032195999999999995,-0.016986,,,,,,,,,,,,,,,,,,,,,,,,,,,,,,,,,,,,,,,,,,,,,,,,,,,,,,,,,,,,,,,,,
12233,1645902486.056265,1645902486.062531,45.0,0.0,4382.05127,5365.128418,4173.846191,4020.512939,4145.641113000001,0.0,1.0,15.0,,,,0.0,2.0,2.0,2.0,4.0,4.0,50.0,,,,,,,,,,,,,,,,,,,,,,,,,,,,,,,,,,,,,,,,,,,,,,,,,,,,,,,,,,,,,,,,,,,,,,,,,,,,,,,,,,,,
12234,1645902486.0640788,1645902486.070346,46.0,0.0,4329.230957,5303.589844,4165.128418,4007.6923829999996,4138.461426,0.0,1.0,15.0,,,,0.0,2.0,2.0,2.0,4.0,4.0,50.0,,,,,,,,23.0,0.0,0.708789,-0.008057,0.658936,0.251709,0.9550930000000001,-0.32813000000000003,-0.129885,-0.032086,-0.032199,-0.017778,,,,,,,,,,,,,,,,,,,,,,,,,,,,,,,,,,,0.0,0.0,32.0,1.0,1.0,0.0,,,,,,,,,,,,,,,,,,,,,,,,,
12235,1645902486.071894,1645902486.07816,47.0,0.0,4302.05127,5321.025879,4227.179688,3989.2307130000004,4144.615234000001,0.0,1.0,15.0,,,,0.0,2.0,2.0,2.0,4.0,4.0,50.0,,,,,,,,,,,,,,,,,,,,,,,,,,,,,,,,,,,,,,,,,,,,,,,,,,,,,,,,,,,,,,,,,,,,,,,,,,,,,,,,,,,,
12236,1645902486.079708,1645902486.085875,48.0,0.0,4283.077147999999,5396.922852000001,4243.077147999999,3974.8718259999996,4151.282227000001,0.0,1.0,15.0,,,,0.0,2.0,2.0,2.0,4.0,4.0,50.0,,,,,,,,24.0,0.0,0.708789,-0.008057,0.658936,0.251709,0.9550930000000001,-0.32813000000000003,-0.148928,-0.032149000000000004,-0.03225,-0.018441,,,,,,,,,,,,,,,,,,,,,,,,,,,,,,,,,,,,,,,,,,,,,,,,,,,,,,,,,,,,,,,,,
12237,1645902486.087523,1645902486.0936902,49.0,0.0,4244.102539,5426.153809,4250.769043,3988.718018,4160.0,0.0,1.0,15.0,,,,0.0,2.0,2.0,2.0,4.0,4.0,50.0,,,,,,,,,,,,,,,,,,,,,,,,,,,,,,,,,,,,,,,,,,,,,,,,,,,,,,,,,,,,,,,,,,,,,,,,,,,,,,,,,,,,
12238,1645902486.095338,1645902486.1015038,50.0,0.0,4215.384765999999,5272.307617,4252.820313,4017.4357909999994,4192.820313,0.0,1.0,15.0,,,,0.0,2.0,2.0,2.0,4.0,4.0,50.0,,,,,,,,25.0,0.0,0.7087859999999999,-0.008301000000000001,0.658936,0.251709,0.9487450000000001,-0.327153,-0.143069,-0.032108,-0.032395,-0.019039,,,,,,,,,,,,,,,,,,,,,,,,,,,,,,,,,,,12.0,0.0,32.0,1.0,1.0,0.0,,,,,,,,,,,,,,,,,,,,,,,,,
12239,1645902486.103152,1645902486.109319,51.0,0.0,4206.666504,4975.897461,4282.05127,4040.512939,4230.256348,0.0,1.0,15.0,,,,0.0,2.0,2.0,2.0,4.0,4.0,50.0,,,,,,,,,,,,,,,,,,,,,,,,,,,,,,,,,,,,,,,,,,,,,,,,,,,,,,,,,,,,,,,,,,,,,,,,,,,,,,,,,,,,
12240,1645902486.110967,1645902486.117134,52.0,0.0,4186.153809,4811.794922,4270.769043,4054.358887,4232.820313,0.0,1.0,15.0,,,,0.0,2.0,2.0,2.0,4.0,4.0,50.0,,,,,,,,26.0,0.0,0.7087859999999999,-0.008301000000000001,0.658936,0.251709,0.9487450000000001,-0.333013,-0.143069,-0.032119999999999996,-0.032378,-0.016354,,,,,,,,,,,,,,,,,,,,,,,,,,,,,,,,,,,,,,,,,,,,,,,,,,,,,,,,,,,,,,,,,
12241,1645902486.118781,1645902486.124948,53.0,0.0,4168.717772999999,4887.179688,4241.025879,4049.743652,4227.179688,0.0,1.0,15.0,,,,0.0,2.0,2.0,2.0,4.0,4.0,50.0,,,,,,,,,,,,,,,,,,,,,,,,,,,,,,,,,,,,,,,,,,,,,,,,,,,,,,,,,,,,,,,,,,,,,,,,,,,,,,,,,,,,
12242,1645902486.1265962,1645902486.1327631,54.0,0.0,4169.743652,4944.102539,4242.05127,4031.794922,4250.256348,0.0,1.0,15.0,,,,0.0,2.0,2.0,2.0,4.0,4.0,50.0,,,,,,,,27.0,0.0,0.708873,-0.008301000000000001,0.658936,0.251465,0.949722,-0.324712,-0.134279,-0.028956,-0.03246,-0.017159999999999998,1.0,0.0,0.0,,,,,,,,,,,,,,,,,,,,,,,,,,,,,,,,12.0,0.0,32.0,1.0,1.0,0.0,920.775757,85.28817,46.393009,17.570808,23.268542999999998,122.340149,217.09405499999997,30.914409999999997,22.830448,20.089001,23.641581,24.579556,8.619358,6.373607,8.107096,15.370522,6.093241,6.311203,10.672953999999999,6.120595,53.826770999999994,29.253046,15.649597,6.737706,6.435693
12243,1645902486.13441,1645902486.140578,55.0,0.0,4160.512695,4862.05127,4277.94873,4038.974365,4269.230957,0.0,1.0,15.0,,,,0.0,2.0,2.0,2.0,4.0,4.0,50.0,,,,,,,,,,,,,,,,,,,,,,,,,,,,,,,,,,,,,,,,,,,,,,,,,,,,,,,,,,,,,,,,,,,,,,,,,,,,,,,,,,,,
12244,1645902486.142225,1645902486.148292,56.0,0.0,4133.333496,4795.897461,4250.256348,4059.487061,4278.461426,0.0,1.0,15.0,,,,0.0,2.0,2.0,2.0,4.0,4.0,50.0,,,,,,,,28.0,0.0,0.708649,-0.008057,0.65918,0.251465,0.9472799999999999,-0.330083,-0.136721,-0.029235,-0.032388,-0.014759999999999999,,,,,,,,,,,,,,,,,,,,,,,,,,,,,,,,,,,,,,,,,,,,,,,,,,,,,,,,,,,,,,,,,
12245,1645902486.150039,1645902486.156107,57.0,0.0,4069.2307130000004,4835.897461,4240.512695,4056.923096,4265.128418,0.0,1.0,15.0,,,,0.0,2.0,2.0,2.0,4.0,4.0,50.0,,,,,,,,,,,,,,,,,,,,,,,,,,,,,,,,,,,,,,,,,,,,,,,,,,,,,,,,,,,,,,,,,,,,,,,,,,,,,,,,,,,,
12246,1645902486.1578538,1645902486.163922,58.0,0.0,4029.743652,4903.077147999999,4238.974121,4022.0512700000004,4262.563965,0.0,1.0,15.0,,,,0.0,2.0,2.0,2.0,4.0,4.0,50.0,,,,,,,,29.0,0.0,0.708649,-0.008057,0.65918,0.251465,0.937514,-0.323735,-0.142092,-0.029533999999999998,-0.032421,-0.015774,,,,,,,,,,,,,,,,,,,,,,,,,,,,,,,,,,,12.0,0.0,32.0,1.0,1.0,0.0,,,,,,,,,,,,,,,,,,,,,,,,,
12247,1645902486.165668,1645902486.171736,59.0,0.0,4015.897461,4879.487305,4233.846191,4006.1538090000004,4274.871582,0.0,1.0,15.0,,,,0.0,2.0,2.0,2.0,4.0,4.0,50.0,,,,,,,,,,,,,,,,,,,,,,,,,,,,,,,,,,,,,,,,,,,,,,,,,,,,,,,,,,,,,,,,,,,,,,,,,,,,,,,,,,,,
12248,1645902486.173483,1645902486.179551,60.0,0.0,3997.4357909999994,4841.025879,4224.615234000001,4080.512939,4283.077147999999,0.0,1.0,15.0,,,,0.0,2.0,2.0,2.0,4.0,4.0,50.0,,,,,,,,30.0,0.0,0.708646,-0.008301000000000001,0.65918,0.251465,0.9511860000000001,-0.31543499999999997,-0.137209,-0.029851999999999997,-0.032402,-0.013562000000000001,,,,,,,,,,,,,,,,,,,,,,,,,,,,,,,,,,,,,,,,,,,,,,,,,,,,,,,,,,,,,,,,,
12249,1645902486.181297,1645902486.187366,61.0,0.0,3985.641113,4882.563965,4202.05127,4117.94873,4286.153809,0.0,1.0,15.0,,,,0.0,2.0,2.0,2.0,4.0,4.0,50.0,,,,,,,,,,,,,,,,,,,,,,,,,,,,,,,,,,,,,,,,,,,,,,,,,,,,,,,,,,,,,,,,,,,,,,,,,,,,,,,,,,,,
12250,1645902486.189112,1645902486.1951802,62.0,0.0,3980.0,4853.846191,4213.333496,4058.461426,4305.128418,0.0,1.0,15.0,,,,0.0,2.0,2.0,2.0,4.0,4.0,50.0,,,,,,,,31.0,0.0,0.708418,-0.008301000000000001,0.659424,0.251465,0.95314,-0.320806,-0.12842,-0.030041,-0.032335,-0.014696,,,,,,,,,,,,,,,,,,,,,,,,,,,,,,,,,,,0.0,0.0,32.0,1.0,1.0,0.0,,,,,,,,,,,,,,,,,,,,,,,,,
12251,1645902486.1969259,1645902486.2029948,63.0,0.0,3937.4357909999994,4769.743652,4270.769043,4024.102539,4305.641113000001,0.0,1.0,15.0,,,,0.0,2.0,2.0,2.0,4.0,4.0,50.0,,,,,,,,,,,,,,,,,,,,,,,,,,,,,,,,,,,,,,,,,,,,,,,,,,,,,,,,,,,,,,,,,,,,,,,,,,,,,,,,,,,,
12252,1645902486.204741,1645902486.21071,64.0,0.0,3909.2307130000004,4832.820313,4278.974121,4057.9487299999996,4287.692383,450.0,1.0,15.0,,,,0.0,4.0,2.0,4.0,4.0,4.0,83.333336,,,,,,,,32.0,0.0,0.708332,-0.008301000000000001,0.659424,0.251709,0.944839,-0.318364,-0.145022,-0.030258999999999998,-0.032324,-0.015668,,,,,,,,,,,,,,,,,,,,,,,,,,,,,,,,,,,,,,,,,,,,,,,,,,,,,,,,,,,,,,,,,
12253,1645902486.2125561,1645902486.218524,65.0,0.0,3921.025635,4887.179688,4209.743652,4047.6923829999996,4295.897461,450.0,1.0,15.0,,,,0.0,4.0,2.0,4.0,4.0,4.0,83.333336,,,,,,,,,,,,,,,,,,,,,,,,,,,,,,,,,,,,,,,,,,,,,,,,,,,,,,,,,,,,,,,,,,,,,,,,,,,,,,,,,,,,
12254,1645902486.2203698,1645902486.226339,66.0,0.0,3904.102539,4778.461426,4232.820313,4025.641113,4315.897461,16176.0,1.0,15.0,,,,0.0,4.0,2.0,4.0,4.0,4.0,83.333336,,,,,,,,33.0,0.0,0.708332,-0.008301000000000001,0.659424,0.251709,0.941909,-0.320317,-0.12109600000000001,-0.030456,-0.032364,-0.013319999999999999,,,,,,,,,,,,,,,,,,,,,,,,,,,,,,,,,,,0.0,0.0,32.0,1.0,1.0,0.0,,,,,,,,,,,,,,,,,,,,,,,,,
12255,1645902486.228185,1645902486.234154,67.0,0.0,3883.076904,4720.512695,4258.974121,4061.025635,4316.922852000001,450.0,1.0,15.0,,,,0.0,4.0,2.0,4.0,4.0,4.0,83.333336,,,,,,,,,,,,,,,,,,,,,,,,,,,,,,,,,,,,,,,,,,,,,,,,,,,,,,,,,,,,,,,,,,,,,,,,,,,,,,,,,,,,
12256,1645902486.235999,1645902486.241968,68.0,0.0,3893.3332520000004,4824.102539,4266.153809,4107.179688,4318.461426,262.0,1.0,15.0,,,,0.0,4.0,2.0,4.0,4.0,4.0,83.333336,,,,,,,,34.0,0.0,0.708245,-0.008301000000000001,0.659424,0.25195300000000004,0.9506979999999999,-0.321294,-0.131838,-0.030536,-0.032300999999999996,-0.014428999999999999,,,,,,,,,,,,,,,,,,,,,,,,,,,,,,,,,,,,,,,,,,,,,,,,,,,,,,,,,,,,,,,,,
12257,1645902486.243814,1645902486.249783,69.0,0.0,3891.281982,4910.769043,4289.230957,4112.307617,4333.846191,450.0,1.0,15.0,,,,0.0,4.0,2.0,4.0,4.0,4.0,83.333336,,,,,,,,,,,,,,,,,,,,,,,,,,,,,,,,,,,,,,,,,,,,,,,,,,,,,,,,,,,,,,,,,,,,,,,,,,,,,,,,,,,,
