,Timestamp,OriginalTimestamp,EEG.Counter,EEG.Interpolated,EEG.AF3,EEG.T7,EEG.Pz,EEG.T8,EEG.AF4,EEG.RawCq,EEG.Battery,EEG.BatteryPercent,MarkerIndex,MarkerType,MarkerValueInt,EEG.MarkerHardware,CQ.AF3,CQ.T7,CQ.Pz,CQ.T8,CQ.AF4,CQ.Overall,EQ.SampleRateQuality,EQ.OVERALL,EQ.AF3,EQ.T7,EQ.Pz,EQ.T8,EQ.AF4,MOT.CounterMems,MOT.InterpolatedMems,MOT.Q0,MOT.Q1,MOT.Q2,MOT.Q3,MOT.AccX,MOT.AccY,MOT.AccZ,MOT.MagX,MOT.MagY,MOT.MagZ,MC.Action,MC.ActionPower,MC.IsActive,PM.Engagement.IsActive,PM.Engagement.Scaled,PM.Engagement.Raw,PM.Engagement.Min,PM.Engagement.Max,PM.Excitement.IsActive,PM.Excitement.Scaled,PM.Excitement.Raw,PM.Excitement.Min,PM.Excitement.Max,PM.LongTermExcitement,PM.Stress.IsActive,PM.Stress.Scaled,PM.Stress.Raw,PM.Stress.Min,PM.Stress.Max,PM.Relaxation.IsActive,PM.Relaxation.Scaled,PM.Relaxation.Raw,PM.Relaxation.Min,PM.Relaxation.Max,PM.Interest.IsActive,PM.Interest.Scaled,PM.Interest.Raw,PM.Interest.Min,PM.Interest.Max,PM.Focus.IsActive,PM.Focus.Scaled,PM.Focus.Raw,PM.Focus.Min,PM.Focus.Max,FE.BlinkWink,FE.HorizontalEyesDirection,FE.UpperFaceAction,FE.UpperFaceActionPower,FE.LowerFaceAction,FE.LowerFaceActionPower,POW.AF3.Theta,POW.AF3.Alpha,POW.AF3.BetaL,POW.AF3.BetaH,POW.AF3.Gamma,POW.T7.Theta,POW.T7.Alpha,POW.T7.BetaL,POW.T7.BetaH,POW.T7.Gamma,POW.Pz.Theta,POW.Pz.Alpha,POW.Pz.BetaL,POW.Pz.BetaH,POW.Pz.Gamma,POW.T8.Theta,POW.T8.Alpha,POW.T8.BetaL,POW.T8.BetaH,POW.T8.Gamma,POW.AF4.Theta,POW.AF4.Alpha,POW.AF4.BetaL,POW.AF4.BetaH,POW.AF4.Gamma
11324,1650414127.662014,1650414127.696285,122.0,0.0,4288.205078,4593.333496,4220.512695,4280.512695,4246.666504,450.0,3.0,73.0,,,,0.0,4.0,0.0,4.0,0.0,4.0,33.333332,,,,,,,,61.0,0.0,0.252274,-0.45385699999999995,0.46386700000000003,0.717773,0.8999159999999999,-0.45215500000000003,-0.145998,-0.045936000000000005,-0.055566,-0.015009999999999999,,,,,,,,,,,,,,,,,,,,,,,,,,,,,,,,,,,,,,,,,,,,,,,,,,,,,,,,,,,,,,,,,
11325,1650414127.669828,1650414127.704199,123.0,0.0,4285.641113000001,4601.538574,4211.794922,4280.512695,4232.307617,16213.0,3.0,73.0,,,,0.0,4.0,0.0,4.0,0.0,4.0,33.333332,,,,,,,,,,,,,,,,,,,,,,,,,,,,,,,,,,,,,,,,,,,,,,,,,,,,,,,,,,,,,,,,,,,,,,,,,,,,,,,,,,,,
11326,1650414127.677643,1650414127.712114,124.0,0.0,4281.025879,4581.538574,4221.538574,4280.512695,4229.743652,450.0,3.0,73.0,,,,0.0,4.0,0.0,4.0,0.0,4.0,33.333332,,,,,,,,62.0,0.0,0.252264,-0.453613,0.46411099999999994,0.717773,0.8803850000000001,-0.441413,-0.16406500000000002,-0.044761,-0.055625,-0.019563,,,,,,,,,,,,,,,,,,,,,,,,,,,,,,,,,,,,,,,,,,,,,,,,,,,,,,,,,,,,,,,,,
11327,1650414127.685457,1650414127.719929,125.0,0.0,4276.410156,4632.820313,4227.179688,4280.512695,4234.871582,450.0,3.0,73.0,,,,0.0,4.0,0.0,4.0,0.0,4.0,33.333332,,,,,,,,,,,,,,,,,,,,,,,,,,,,,,,,,,,,,,,,,,,,,,,,,,,,,,0.0,0.0,1.0,0.0,512.0,1.0,,,,,,,,,,,,,,,,,,,,,,,,,
11328,1650414127.693272,1650414127.727844,126.0,0.0,4292.820313,4733.846191,4211.282227000001,4280.512695,4248.717772999999,450.0,3.0,73.0,,,,0.0,4.0,0.0,4.0,0.0,4.0,33.333332,,,,,,,,63.0,0.0,0.252264,-0.453613,0.46411099999999994,0.717773,0.894545,-0.446296,-0.158694,-0.043654000000000005,-0.05558,-0.021025,,,,,,,,,,,,,,,,,,,,,,,,,,,,,,,,,,,,,,,,,,,,,,,,,,,,,,,,,,,,,,,,,
11329,1650414127.701086,1650414127.735658,127.0,0.0,4305.641113000001,4736.922852000001,4220.0,4280.512695,4272.307617,238.0,3.0,73.0,,,,0.0,4.0,0.0,4.0,0.0,4.0,33.333332,,,,,,,,,,,,,,,,,,,,,,,,,,,,,,,,,,,,,,,,,,,,,,,,,,,,,,,,,,,,,,,,,,,,,,,,,,,,,,,,,,,,
11330,1650414127.708901,1650414127.743573,0.0,0.0,4283.589844,4662.563965,4238.974121,4280.512695,4263.077147999999,450.0,3.0,73.0,,,,0.0,4.0,0.0,4.0,0.0,4.0,33.333332,,,,,,,,0.0,0.0,0.252253,-0.45336899999999997,0.464355,0.717773,0.8838030000000001,-0.4336,-0.161135,-0.044219999999999995,-0.05554,-0.022341,,,,,,,,,,,,,,,,,,,,,,,,,,,,,,,,,,,,,,,,,,,,,,,,,,,,,,,,,,,,,,,,,
11331,1650414127.716715,1650414127.751388,1.0,0.0,4289.230957,4650.256348,4228.717772999999,4280.512695,4235.897461,450.0,3.0,73.0,,,,0.0,4.0,0.0,4.0,0.0,4.0,33.333332,,,,,,,,,,,,,,,,,,,,,,,,,,,,,,,,,,,,,,,,,,,,,,,,,,,,,,0.0,0.0,1.0,0.0,512.0,1.0,,,,,,,,,,,,,,,,,,,,,,,,,
11332,1650414127.72453,1650414127.7593029,2.0,0.0,4327.179688,4637.94873,4232.820313,4280.512695,4249.230957,16229.0,3.0,73.0,,,,0.0,4.0,0.0,4.0,0.0,4.0,33.333332,,,,,,,,1.0,0.0,0.252253,-0.45336899999999997,0.464355,0.717773,0.902358,-0.440925,-0.16211199999999998,-0.044681,-0.055699,-0.019911,,,,,,,,,,,,,,,,,,,,,,,,,,,,,,,,,,,,,,,,,,,,,,,,,,,,,,,,,,,,,,,,,
11333,1650414127.7323449,1650414127.767118,3.0,0.0,4327.692383,4594.358886999999,4254.358886999999,4280.512695,4276.922852000001,450.0,3.0,73.0,,,,0.0,4.0,0.0,4.0,0.0,4.0,33.333332,,,,,,,,,,,,,,,,,,,,,,,,,,,,,,,,,,,,,,,,,,,,,,,,,,,,,,,,,,,,,,,,,,,,,,,,,,,,,,,,,,,,
11334,1650414127.740159,1650414127.775033,4.0,0.0,4305.641113000001,4634.358886999999,4250.256348,4280.512695,4282.563965,1.0,3.0,73.0,,,,0.0,4.0,0.0,4.0,0.0,4.0,33.333332,,,,,,,,2.0,0.0,0.252253,-0.45336899999999997,0.464355,0.717773,0.905776,-0.431159,-0.161624,-0.045145,-0.055646,-0.017871,,,,,,,,,,,,,,,,,,,,,,,,,,,,,,,,,,,,,,,,,,,,,,,,,,,,,,,,,,,,,,,,,
11335,1650414127.747974,1650414127.7828472,5.0,0.0,4320.0,4689.230957,4245.128418,4280.512695,4283.077147999999,450.0,3.0,73.0,,,,0.0,4.0,0.0,4.0,0.0,4.0,33.333332,,,,,,,,,,,,,,,,,,,,,,,,,,,,,,,,,,,,,,,,,,,,,,,,,,,,,,0.0,0.0,1.0,0.0,512.0,1.0,,,,,,,,,,,,,,,,,,,,,,,,,
11336,1650414127.755788,1650414127.790762,6.0,0.0,4331.282227000001,4619.487305,4252.820313,4280.512695,4281.538574,16142.0,3.0,73.0,,,,0.0,4.0,0.0,4.0,0.0,4.0,33.333332,,,,,,,,3.0,0.0,0.252253,-0.45336899999999997,0.464355,0.717773,0.903334,-0.437018,-0.159182,-0.045513,-0.055648,-0.019405000000000002,,,,,,,,,,,,,,,,,,,,,,,,,,,,,,,,,,,,,,,,,,,,,,,,,,,,,,,,,,,,,,,,,
11337,1650414127.763603,1650414127.798577,7.0,0.0,4320.0,4566.153809,4251.282227000001,4280.512695,4274.358886999999,450.0,3.0,73.0,,,,0.0,4.0,0.0,4.0,0.0,4.0,33.333332,,,,,,,,,,,,,,,,,,,,,,,,,,,,,,,,,,,,,,,,,,,,,,,,,,,,,,,,,,,,,,,,,,,,,,,,,,,,,,,,,,,,
11338,1650414127.771417,1650414127.806392,8.0,0.0,4331.794922,4651.794922,4252.307617,4280.512695,4278.974121,450.0,3.0,73.0,,,,0.0,4.0,0.0,4.0,0.0,4.0,33.333332,,,,,,,,4.0,0.0,0.252702,-0.45336899999999997,0.46411099999999994,0.717773,0.8886850000000001,-0.44385399999999997,-0.161624,-0.045894,-0.055748,-0.020638,,,,,,,,,,,,,,,,,,,,,,,,,,,,,,,,,,,,,,,,,,,,,,,,,,,,,,,,,,,,,,,,,
11339,1650414127.779232,1650414127.814307,9.0,0.0,4347.179688,4652.307617,4269.230957,4280.512695,4288.717772999999,0.0,3.0,73.0,,,,0.0,4.0,0.0,4.0,0.0,4.0,33.333332,1.0,33.333332,4.0,0.0,4.0,0.0,4.0,,,,,,,,,,,,,1.0,0.0,0.0,,,,,,,,,,,,,,,,,,,,,,,,,,,,,,,,0.0,0.0,1.0,0.0,512.0,1.0,9.391788,5.803449,0.560164,0.621767,2.042873,14.370493,10.002767,8.327355,11.711425,7.750583,4.1238790000000005,3.057513,0.768912,1.113908,0.42800600000000005,0.053657,0.020638999999999998,0.031975,0.025669,0.031226,5.00473,4.346303,0.6412869999999999,1.217868,1.5238040000000002
11340,1650414127.7870462,1650414127.822221,10.0,0.0,4346.666504,4558.974121,4277.94873,4280.512695,4291.282227000001,450.0,3.0,73.0,,,,0.0,4.0,0.0,4.0,0.0,4.0,33.333332,,,,,,,,5.0,0.0,0.252264,-0.453613,0.46411099999999994,0.717773,0.8838030000000001,-0.440436,-0.164553,-0.046285,-0.055642,-0.015643999999999998,,,,,,,,,,,,,,,,,,,,,,,,,,,,,,,,,,,,,,,,,,,,,,,,,,,,,,,,,,,,,,,,,
11341,1650414127.7948608,1650414127.830036,11.0,0.0,4349.230957,4623.589844,4266.666504,4281.025879,4281.538574,16219.0,3.0,73.0,,,,0.0,4.0,0.0,4.0,0.0,4.0,33.333332,,,,,,,,,,,,,,,,,,,,,,,,,,,,,,,,,,,,,,,,,,,,,,,,,,,,,,,,,,,,,,,,,,,,,,,,,,,,,,,,,,,,
11342,1650414127.802675,1650414127.837951,12.0,0.0,4343.077147999999,4714.358886999999,4263.077147999999,4280.512695,4269.230957,450.0,3.0,73.0,,,,0.0,4.0,0.0,4.0,0.0,4.0,33.333332,,,,,,,,6.0,0.0,0.25156799999999996,-0.453613,0.46411099999999994,0.718018,0.8896620000000001,-0.443366,-0.157229,-0.044976999999999996,-0.05569299999999999,-0.014031,,,,,,,,,,,,,,,,,,,,,,,,,,,,,,,,,,,,,,,,,,,,,,,,,,,,,,,,,,,,,,,,,
11343,1650414127.8104901,1650414127.845765,13.0,0.0,4332.820313,4618.974121,4279.487305,4279.487305,4284.102539,450.0,3.0,73.0,,,,0.0,4.0,0.0,4.0,0.0,4.0,33.333332,,,,,,,,,,,,,,,,,,,,,,,,,,,,,,,,,,,,,,,,,,,,,,,,,,,,,,0.0,0.0,1.0,0.0,512.0,1.0,,,,,,,,,,,,,,,,,,,,,,,,,
11344,1650414127.8183038,1650414127.8536801,14.0,0.0,4336.922852000001,4555.384765999999,4275.897461,4280.0,4300.0,450.0,3.0,73.0,,,,0.0,4.0,0.0,4.0,0.0,4.0,33.333332,,,,,,,,7.0,0.0,0.25201799999999996,-0.453613,0.46386700000000003,0.718018,0.8916149999999999,-0.449226,-0.161135,-0.045411,-0.055689999999999996,-0.016144,,,,,,,,,,,,,,,,,,,,,,,,,,,,,,,,,,,,,,,,,,,,,,,,,,,,,,,,,,,,,,,,,
11345,1650414127.826119,1650414127.861495,15.0,0.0,4342.05127,4651.794922,4251.794922,4281.538574,4285.128418,16219.0,3.0,73.0,,,,0.0,4.0,0.0,4.0,0.0,4.0,33.333332,,,,,,,,,,,,,,,,,,,,,,,,,,,,,,,,,,,,,,,,,,,,,,,,,,,,,,,,,,,,,,,,,,,,,,,,,,,,,,,,,,,,
11346,1650414127.833933,1650414127.869409,16.0,0.0,4329.230957,4702.05127,4251.794922,4281.538574,4270.769043,0.0,3.0,73.0,,,,0.0,4.0,0.0,4.0,0.0,4.0,33.333332,,,,,,,,8.0,0.0,0.25201799999999996,-0.453613,0.46386700000000003,0.718018,0.9004040000000001,-0.44483100000000003,-0.16211199999999998,-0.045801,-0.055736,-0.014383000000000002,,,,,,,,,,,,,,,,,,,,,,,,,,,,,,,,,,,,,,,,,,,,,,,,,,,,,,,,,,,,,,,,,
11347,1650414127.841748,1650414127.877324,17.0,0.0,4317.94873,4629.743652,4270.769043,4281.025879,4275.384765999999,0.0,3.0,73.0,,,,0.0,4.0,0.0,4.0,0.0,4.0,33.333332,,,,,,,,,,,,,,,,,,,,,,,,,,,,,,,,,,,,,,,,,,,,,,,,,,,,,,0.0,0.0,1.0,0.0,512.0,1.0,,,,,,,,,,,,,,,,,,,,,,,,,
11348,1650414127.8495631,1650414127.885139,18.0,0.0,4335.384765999999,4573.333496,4265.641113000001,4282.05127,4268.205078,0.0,3.0,73.0,,,,0.0,4.0,0.0,4.0,0.0,4.0,33.333332,,,,,,,,9.0,0.0,0.25201799999999996,-0.453613,0.46386700000000003,0.718018,0.894545,-0.44824899999999995,-0.167483,-0.046153,-0.055728999999999994,-0.016314,,,,,,,,,,,,,,,,,,,,,,,,,,,,,,,,,,,,,,,,,,,,,,,,,,,,,,,,,,,,,,,,,
11349,1650414127.857377,1650414127.893054,19.0,0.0,4352.820313,4600.0,4251.282227000001,4282.05127,4256.410156,0.0,3.0,73.0,,,,0.0,4.0,0.0,4.0,0.0,4.0,33.333332,,,,,,,,,,,,,,,,,,,,,,,,,,,,,,,,,,,,,,,,,,,,,,,,,,,,,,,,,,,,,,,,,,,,,,,,,,,,,,,,,,,,
11350,1650414127.865192,1650414127.900868,20.0,0.0,4335.384765999999,4630.769043,4257.94873,4280.512695,4272.820313,0.0,3.0,73.0,,,,0.0,4.0,0.0,4.0,0.0,4.0,33.333332,,,,,,,,10.0,0.0,0.251578,-0.45385699999999995,0.46386700000000003,0.718018,0.8955209999999999,-0.443366,-0.167971,-0.046372000000000003,-0.055625,-0.01185,,,,,,,,,,,,,,,,,,,,,,,,,,,,,,,,,,,,,,,,,,,,,,,,,,,,,,,,,,,,,,,,,
11351,1650414127.873006,1650414127.908683,21.0,0.0,4323.589844,4626.666504,4261.025879,4278.974121,4290.256348,0.0,3.0,73.0,,,,0.0,4.0,0.0,4.0,0.0,4.0,33.333332,,,,,,,,,,,,,,,,,,,,,,,,,,,,,,,,,,,,,,,,,,,,,,,,,,,,,,10.0,0.0,1.0,0.0,512.0,1.0,,,,,,,,,,,,,,,,,,,,,,,,,
11352,1650414127.880821,1650414127.916598,22.0,0.0,4343.589844,4638.974121,4246.153809,4279.487305,4274.871582,0.0,3.0,73.0,,,,0.0,4.0,0.0,4.0,0.0,4.0,33.333332,,,,,,,,11.0,0.0,0.252274,-0.45385699999999995,0.46386700000000003,0.717773,0.91017,-0.449226,-0.160159,-0.045104000000000005,-0.05558,-0.013986000000000002,,,,,,,,,,,,,,,,,,,,,,,,,,,,,,,,,,,,,,,,,,,,,,,,,,,,,,,,,,,,,,,,,
11353,1650414127.888635,1650414127.924513,23.0,0.0,4346.666504,4642.05127,4241.025879,4280.512695,4254.871582,0.0,3.0,73.0,,,,0.0,4.0,0.0,4.0,0.0,4.0,33.333332,,,,,,,,,,,,,,,,,,,,,,,,,,,,,,,,,,,,,,,,,,,,,,,,,,,,,,,,,,,,,,,,,,,,,,,,,,,,,,,,,,,,
11354,1650414127.89645,1650414127.932328,24.0,0.0,4328.205078,4603.589844,4254.871582,4280.512695,4268.717772999999,0.0,3.0,73.0,,,,0.0,4.0,0.0,4.0,0.0,4.0,33.333332,,,,,,,,12.0,0.0,0.252722,-0.45385699999999995,0.46362299999999995,0.717773,0.893568,-0.43897200000000003,-0.161624,-0.043963,-0.055491,-0.015956,,,,,,,,,,,,,,,,,,,,,,,,,,,,,,,,,,,,,,,,,,,,,,,,,,,,,,,,,,,,,,,,,
11355,1650414127.904264,1650414127.940242,25.0,0.0,4331.794922,4578.974121,4262.563965,4280.0,4286.666504,0.0,3.0,73.0,,,,0.0,4.0,0.0,4.0,0.0,4.0,33.333332,,,,,,,,,,,,,,,,,,,,1.0,0.0,0.0,,,,,,,,,,,,,,,,,,,,,,,,,,,,,,,,10.0,0.0,1.0,0.0,512.0,1.0,7.966512,5.368964,0.665736,0.6259640000000001,1.971817,14.588424,10.648513000000001,7.914425,13.559747,8.41611,4.152326,3.046625,0.850671,1.288778,0.46122799999999997,0.039006,0.016516,0.02595,0.019280000000000002,0.021907,4.305462,4.178891,0.803847,1.289469,1.475003
11356,1650414127.9120789,1650414127.948057,26.0,0.0,4345.641113000001,4600.0,4262.563965,4280.512695,4278.461426,0.0,3.0,73.0,,,,0.0,4.0,0.0,4.0,0.0,4.0,33.333332,,,,,,,,13.0,0.0,0.252722,-0.45385699999999995,0.46362299999999995,0.717773,0.8969860000000001,-0.43457700000000005,-0.15332300000000001,-0.044449,-0.05546,-0.011479999999999999,,,,,,,,,,,,,,,,,,,,,,,,,,,,,,,,,,,,,,,,,,,,,,,,,,,,,,,,,,,,,,,,,
11357,1650414127.919893,1650414127.955872,27.0,0.0,4346.153809,4654.871582,4269.743652,4280.512695,4280.512695,0.0,3.0,73.0,,,,0.0,4.0,0.0,4.0,0.0,4.0,33.333332,,,,,,,,,,,,,,,,,,,,,,,,,,,,,,,,,,,,,,,,,,,,,,,,,,,,,,,,,,,,,,,,,,,,,,,,,,,,,,,,,,,,
11358,1650414127.927708,1650414127.9637868,28.0,0.0,4337.436035,4694.358886999999,4269.230957,4280.512695,4287.692383,0.0,3.0,73.0,,,,0.0,4.0,0.0,4.0,0.0,4.0,33.333332,,,,,,,,14.0,0.0,0.252274,-0.45385699999999995,0.46386700000000003,0.717773,0.91017,-0.449226,-0.160159,-0.043325,-0.055528999999999995,-0.013652000000000001,,,,,,,,,,,,,,,,,,,,,,,,,,,,,,,,,,,,,,,,,,,,,,,,,,,,,,,,,,,,,,,,,
11359,1650414127.935522,1650414127.971701,29.0,0.0,4322.563965,4668.205078,4255.897461,4280.512695,4270.256348,0.0,3.0,73.0,,,,0.0,4.0,0.0,4.0,0.0,4.0,33.333332,,,,,,,,,,,,,,,,,,,,,,,,,,,,,,,,,,,,,,,,,,,,,,,,,,,,,,10.0,0.0,1.0,0.0,512.0,1.0,,,,,,,,,,,,,,,,,,,,,,,,,
11360,1650414127.943337,1650414127.979516,30.0,0.0,4327.179688,4648.205078,4250.769043,4280.512695,4265.128418,0.0,3.0,73.0,,,,0.0,4.0,0.0,4.0,0.0,4.0,33.333332,,,,,,,,15.0,0.0,0.252722,-0.45385699999999995,0.46362299999999995,0.717773,0.8969860000000001,-0.43457700000000005,-0.15332300000000001,-0.043875,-0.05549400000000001,-0.009406,,,,,,,,,,,,,,,,,,,,,,,,,,,,,,,,,,,,,,,,,,,,,,,,,,,,,,,,,,,,,,,,,
11361,1650414127.951151,1650414127.987431,31.0,0.0,4344.102539,4682.05127,4257.436035,4280.512695,4280.512695,0.0,3.0,73.0,,,,0.0,4.0,0.0,4.0,0.0,4.0,33.333332,,,,,,,,,,,,,,,,,,,,,,,,,,,,,,,,,,,,,,,,,,,,,,,,,,,,,,,,,,,,,,,,,,,,,,,,,,,,,,,,,,,,
11362,1650414127.958966,1650414127.995346,32.0,0.0,4347.179688,4675.384765999999,4269.230957,4280.512695,4283.077147999999,0.0,3.0,73.0,,,,0.0,4.0,0.0,4.0,0.0,4.0,33.333332,,,,,,,,16.0,0.0,0.252283,-0.45410200000000006,0.46362299999999995,0.717773,0.8964979999999999,-0.44483100000000003,-0.16552999999999998,-0.042808,-0.055560000000000005,-0.011786,,,,,,,,,,,,,,,,,,,,,,,,,,,,,,,,,,,,,,,,,,,,,,,,,,,,,,,,,,,,,,,,,
11363,1650414127.9667811,1650414128.003161,33.0,0.0,4346.153809,4601.025879,4283.077147999999,4280.512695,4282.563965,0.0,3.0,73.0,,,,0.0,4.0,0.0,4.0,0.0,4.0,33.333332,,,,,,,,,,,,,,,,,,,,,,,,,,,,,,,,,,,,,,,,,,,,,,,,,,,,,,10.0,0.0,1.0,0.0,512.0,1.0,,,,,,,,,,,,,,,,,,,,,,,,,
11364,1650414127.9745948,1650414128.010976,34.0,0.0,4350.256348,4586.153809,4273.333496,4280.512695,4291.282227000001,0.0,3.0,73.0,,,,0.0,4.0,0.0,4.0,0.0,4.0,33.333332,,,,,,,,17.0,0.0,0.252731,-0.45410200000000006,0.463379,0.717773,0.8994280000000001,-0.43457700000000005,-0.157717,-0.043508,-0.055521,-0.013878999999999999,,,,,,,,,,,,,,,,,,,,,,,,,,,,,,,,,,,,,,,,,,,,,,,,,,,,,,,,,,,,,,,,,
11365,1650414127.98241,1650414128.0188901,35.0,0.0,4352.307617,4644.102539,4246.666504,4280.512695,4284.102539,0.0,3.0,73.0,,,,0.0,4.0,0.0,4.0,0.0,4.0,33.333332,,,,,,,,,,,,,,,,,,,,,,,,,,,,,,,,,,,,,,,,,,,,,,,,,,,,,,,,,,,,,,,,,,,,,,,,,,,,,,,,,,,,
11366,1650414127.9902241,1650414128.026705,36.0,0.0,4360.512695,4633.846191,4250.256348,4280.512695,4275.897461,0.0,3.0,73.0,,,,0.0,4.0,0.0,4.0,0.0,4.0,33.333332,,,,,,,,18.0,0.0,0.252731,-0.45410200000000006,0.463379,0.717773,0.893568,-0.44385399999999997,-0.150393,-0.044137,-0.055536,-0.012296,,,,,,,,,,,,,,,,,,,,,,,,,,,,,,,,,,,,,,,,,,,,,,,,,,,,,,,,,,,,,,,,,
11367,1650414127.998039,1650414128.0346198,37.0,0.0,4362.563965,4548.717772999999,4270.769043,4280.512695,4288.717772999999,0.0,3.0,73.0,,,,0.0,4.0,0.0,4.0,0.0,4.0,33.333332,,,,,,,,,,,,,,,,,,,,,,,,,,,,,,,,,,,,,,,,,,,,,,,,,,,,,,10.0,0.0,1.0,0.0,512.0,1.0,,,,,,,,,,,,,,,,,,,,,,,,,
11368,1650414128.005853,1650414128.042435,38.0,0.0,4341.025879,4562.05127,4258.974121,4280.512695,4280.0,0.0,3.0,73.0,,,,0.0,4.0,0.0,4.0,0.0,4.0,33.333332,,,,,,,,19.0,0.0,0.25247600000000003,-0.45385699999999995,0.463379,0.718018,0.8955209999999999,-0.435065,-0.152834,-0.044558,-0.0555,-0.014435,,,,,,,,,,,,,,,,,,,,,,,,,,,,,,,,,,,,,,,,,,,,,,,,,,,,,,,,,,,,,,,,,
11369,1650414128.013668,1650414128.050349,39.0,0.0,4334.358886999999,4658.974121,4238.974121,4280.512695,4259.487305,0.0,3.0,73.0,,,,0.0,4.0,0.0,4.0,0.0,4.0,33.333332,,,,,,,,,,,,,,,,,,,,,,,,,,,,,,,,,,,,,,,,,,,,,,,,,,,,,,,,,,,,,,,,,,,,,,,,,,,,,,,,,,,,
11370,1650414128.021482,1650414128.0581641,40.0,0.0,4346.153809,4654.871582,4251.282227000001,4280.512695,4267.692383,0.0,3.0,73.0,,,,0.0,4.0,0.0,4.0,0.0,4.0,33.333332,,,,,,,,20.0,0.0,0.25247600000000003,-0.45385699999999995,0.463379,0.718018,0.897963,-0.431647,-0.163088,-0.044887,-0.055564999999999996,-0.010111,,,,,,,,,,,,,,,,,,,,,,,,,,,,,,,,,,,,,,,,,,,,,,,,,,,,,,,,,,,,,,,,,
11371,1650414128.029297,1650414128.066078,41.0,0.0,4332.820313,4610.769043,4258.461426,4280.512695,4269.743652,0.0,3.0,73.0,,,,0.0,4.0,0.0,4.0,0.0,4.0,33.333332,,,,,,,,,,,,,,,,,,,,1.0,0.0,0.0,,,,,,,,,,,,,,,,,,,,,,,,,,,,,,,,0.0,0.0,1.0,0.0,512.0,1.0,6.090626,4.726608000000001,0.8361700000000001,0.615129,1.8235169999999998,13.641903,11.301283,7.8571979999999995,15.448659,9.48208,3.8513949999999997,2.839906,0.9808040000000001,1.389051,0.504474,0.024631,0.011763,0.020396,0.014244,0.013766,3.486011,3.7763739999999997,0.9729479999999999,1.344924,1.387203
11372,1650414128.037111,1650414128.073993,42.0,0.0,4317.94873,4637.94873,4236.410156,4280.512695,4245.641113000001,0.0,3.0,73.0,,,,0.0,4.0,0.0,4.0,0.0,4.0,33.333332,,,,,,,,21.0,0.0,0.252722,-0.45385699999999995,0.46362299999999995,0.717773,0.8999159999999999,-0.437018,-0.1626,-0.043963,-0.055624,-0.015203,,,,,,,,,,,,,,,,,,,,,,,,,,,,,,,,,,,,,,,,,,,,,,,,,,,,,,,,,,,,,,,,,
11373,1650414128.044926,1650414128.081808,43.0,0.0,4330.769043,4655.384765999999,4230.256348,4280.512695,4242.563965,0.0,3.0,73.0,,,,0.0,4.0,0.0,4.0,0.0,4.0,33.333332,,,,,,,,,,,,,,,,,,,,,,,,,,,,,,,,,,,,,,,,,,,,,,,,,,,,,,,,,,,,,,,,,,,,,,,,,,,,,,,,,,,,
11374,1650414128.05274,1650414128.089623,44.0,0.0,4332.820313,4634.871582,4247.179688,4280.512695,4264.615234000001,0.0,3.0,73.0,,,,0.0,4.0,0.0,4.0,0.0,4.0,33.333332,,,,,,,,22.0,0.0,0.252722,-0.45385699999999995,0.46362299999999995,0.717773,0.9131,-0.427741,-0.164553,-0.044400999999999996,-0.055628,-0.013536000000000001,,,,,,,,,,,,,,,,,,,,,,,,,,,,,,,,,,,,,,,,,,,,,,,,,,,,,,,,,,,,,,,,,
11375,1650414128.060555,1650414128.0975368,45.0,0.0,4309.230957,4624.615234000001,4241.025879,4280.512695,4252.307617,0.0,3.0,73.0,,,,0.0,4.0,0.0,4.0,0.0,4.0,33.333332,,,,,,,,,,,,,,,,,,,,,,,,,,,,,,,,,,,,,,,,,,,,,,,,,,,,,,0.0,0.0,1.0,0.0,512.0,1.0,,,,,,,,,,,,,,,,,,,,,,,,,
11376,1650414128.0683699,1650414128.105452,46.0,0.0,4304.615234000001,4616.922852000001,4223.589844,4280.512695,4220.0,0.0,3.0,73.0,,,,0.0,4.0,0.0,4.0,0.0,4.0,33.333332,,,,,,,,23.0,0.0,0.25316,-0.453613,0.46362299999999995,0.717773,0.8750129999999999,-0.42676400000000003,-0.146975,-0.04333,-0.05563200000000001,-0.018238,,,,,,,,,,,,,,,,,,,,,,,,,,,,,,,,,,,,,,,,,,,,,,,,,,,,,,,,,,,,,,,,,
11377,1650414128.076184,1650414128.113267,47.0,0.0,4315.384765999999,4619.487305,4228.717772999999,4280.0,4225.641113000001,0.0,3.0,73.0,,,,0.0,4.0,0.0,4.0,0.0,4.0,33.333332,,,,,,,,,,,,,,,,,,,,,,,,,,,,,,,,,,,,,,,,,,,,,,,,,,,,,,,,,,,,,,,,,,,,,,,,,,,,,,,,,,,,
11378,1650414128.083999,1650414128.121082,48.0,0.0,4313.846191,4618.461426,4236.410156,4280.512695,4247.179688,0.0,3.0,73.0,,,,0.0,4.0,0.0,4.0,0.0,4.0,33.333332,,,,,,,,24.0,0.0,0.252712,-0.453613,0.46386700000000003,0.717773,0.8847790000000001,-0.442878,-0.160159,-0.04388,-0.055635000000000004,-0.019685,,,,,,,,,,,,,,,,,,,,,,,,,,,,,,,,,,,,,,,,,,,,,,,,,,,,,,,,,,,,,,,,,
11379,1650414128.091813,1650414128.128897,49.0,0.0,4309.743652,4611.794922,4231.794922,4281.538574,4239.487305,0.0,3.0,73.0,,,,0.0,4.0,0.0,4.0,0.0,4.0,33.333332,,,,,,,,,,,,,,,,,,,,,,,,,,,,,,,,,,,,,,,,,,,,,,,,,,,,,,0.0,0.0,1.0,0.0,512.0,1.0,,,,,,,,,,,,,,,,,,,,,,,,,
11380,1650414128.099628,1650414128.136811,50.0,0.0,4323.077147999999,4610.256348,4244.102539,4282.05127,4233.333496,0.0,3.0,73.0,,,,0.0,4.0,0.0,4.0,0.0,4.0,33.333332,,,,,,,,25.0,0.0,0.252712,-0.453613,0.46386700000000003,0.717773,0.8994280000000001,-0.440436,-0.166995,-0.042861,-0.055589,-0.023869,,,,,,,,,,,,,,,,,,,,,,,,,,,,,,,,,,,,,,,,,,,,,,,,,,,,,,,,,,,,,,,,,
11381,1650414128.107442,1650414128.144626,51.0,0.0,4343.589844,4583.077147999999,4266.666504,4280.512695,4255.897461,0.0,3.0,73.0,,,,0.0,4.0,0.0,4.0,0.0,4.0,33.333332,,,,,,,,,,,,,,,,,,,,,,,,,,,,,,,,,,,,,,,,,,,,,,,,,,,,,,,,,,,,,,,,,,,,,,,,,,,,,,,,,,,,
11382,1650414128.115257,1650414128.152541,52.0,0.0,4353.333496,4598.461426,4266.153809,4280.512695,4276.922852000001,0.0,3.0,73.0,,,,0.0,4.0,0.0,4.0,0.0,4.0,33.333332,,,,,,,,26.0,0.0,0.252702,-0.45336899999999997,0.46411099999999994,0.717773,0.903334,-0.438483,-0.159182,-0.041993,-0.055548,-0.0249,,,,,,,,,,,,,,,,,,,,,,,,,,,,,,,,,,,,,,,,,,,,,,,,,,,,,,,,,,,,,,,,,
11383,1650414128.1230712,1650414128.160356,53.0,0.0,4356.922852000001,4690.256348,4259.487305,4281.025879,4284.615234000001,0.0,3.0,73.0,,,,0.0,4.0,0.0,4.0,0.0,4.0,33.333332,,,,,,,,,,,,,,,,,,,,,,,,,,,,,,,,,,,,,,,,,,,,,,,,,,,,,,0.0,0.0,1.0,0.0,512.0,1.0,,,,,,,,,,,,,,,,,,,,,,,,,
11384,1650414128.1308858,1650414128.1682699,54.0,0.0,4363.589844,4698.461426,4274.871582,4280.512695,4293.846191,0.0,3.0,73.0,,,,0.0,4.0,0.0,4.0,0.0,4.0,33.333332,,,,,,,,27.0,0.0,0.252702,-0.45336899999999997,0.46411099999999994,0.717773,0.891127,-0.440925,-0.16894800000000001,-0.042676,-0.055560000000000005,-0.025682,,,,,,,,,,,,,,,,,,,,,,,,,,,,,,,,,,,,,,,,,,,,,,,,,,,,,,,,,,,,,,,,,
11385,1650414128.1387,1650414128.176085,55.0,0.0,4357.436035,4609.230957,4278.974121,4280.512695,4290.256348,0.0,3.0,73.0,,,,0.0,4.0,0.0,4.0,0.0,4.0,33.333332,,,,,,,,,,,,,,,,,,,,,,,,,,,,,,,,,,,,,,,,,,,,,,,,,,,,,,,,,,,,,,,,,,,,,,,,,,,,,,,,,,,,
11386,1650414128.1465151,1650414128.184,56.0,0.0,4349.743652,4598.461426,4261.538574,4280.512695,4278.461426,0.0,3.0,73.0,,,,0.0,4.0,0.0,4.0,0.0,4.0,33.333332,,,,,,,,28.0,0.0,0.252702,-0.45336899999999997,0.46411099999999994,0.717773,0.9004040000000001,-0.44824899999999995,-0.14990499999999998,-0.043389,-0.055521,-0.020233,,,,,,,,,,,,,,,,,,,,,,,,,,,,,,,,,,,,,,,,,,,,,,,,,,,,,,,,,,,,,,,,,
11387,1650414128.1543288,1650414128.1918151,57.0,0.0,4363.589844,4633.333496,4266.666504,4280.512695,4284.615234000001,0.0,3.0,73.0,,,,0.0,4.0,0.0,4.0,0.0,4.0,33.333332,,,,,,,,,,,,,,,,,,,,1.0,0.0,0.0,,,,,,,,,,,,,,,,,,,,,,,,,,,,,,,,0.0,0.0,1.0,0.0,512.0,1.0,4.6240120000000005,3.9317860000000002,1.013001,0.588097,1.6583169999999998,11.902859,12.188571000000001,8.304628999999998,16.786167000000003,11.015228,3.411976,2.505718,1.143407,1.377634,0.556126,0.013737000000000001,0.007539,0.016356,0.011178,0.008232999999999999,2.885733,3.201035,1.103176,1.391464,1.274693
11388,1650414128.162144,1650414128.1997302,58.0,0.0,4372.307617,4582.563965,4286.666504,4280.512695,4294.871582,0.0,3.0,73.0,,,,0.0,4.0,0.0,4.0,0.0,4.0,33.333332,,,,,,,,29.0,0.0,0.252702,-0.45336899999999997,0.46411099999999994,0.717773,0.893568,-0.435065,-0.154788,-0.043982,-0.055438,-0.018161,,,,,,,,,,,,,,,,,,,,,,,,,,,,,,,,,,,,,,,,,,,,,,,,,,,,,,,,,,,,,,,,,
11389,1650414128.169958,1650414128.2075448,59.0,0.0,4365.641113000001,4537.94873,4285.641113000001,4280.512695,4298.974121,0.0,3.0,73.0,,,,0.0,4.0,0.0,4.0,0.0,4.0,33.333332,,,,,,,,,,,,,,,,,,,,,,,,,,,,,,,,,,,,,,,,,,,,,,,,,,,,,,,,,,,,,,,,,,,,,,,,,,,,,,,,,,,,
11390,1650414128.177773,1650414128.2154589,60.0,0.0,4373.333496,4591.282227000001,4275.384765999999,4280.512695,4296.922852000001,0.0,3.0,73.0,,,,0.0,4.0,0.0,4.0,0.0,4.0,33.333332,,,,,,,,30.0,0.0,0.252702,-0.45336899999999997,0.46411099999999994,0.717773,0.903334,-0.44385399999999997,-0.167971,-0.043002,-0.055510000000000004,-0.019615999999999998,,,,,,,,,,,,,,,,,,,,,,,,,,,,,,,,,,,,,,,,,,,,,,,,,,,,,,,,,,,,,,,,,
11391,1650414128.1855881,1650414128.223274,61.0,0.0,4382.563965,4657.94873,4280.512695,4280.512695,4289.230957,0.0,3.0,73.0,,,,0.0,4.0,0.0,4.0,0.0,4.0,33.333332,,,,,,,,,,,,,,,,,,,,,,,,,,,,,,,,,,,,,,,,,,,,,,,,,,,,,,0.0,0.0,1.0,0.0,512.0,1.0,,,,,,,,,,,,,,,,,,,,,,,,,
11392,1650414128.193402,1650414128.231188,62.0,0.0,4376.410156,4627.179688,4304.615234000001,4280.512695,4304.102539,0.0,3.0,73.0,,,,0.0,4.0,0.0,4.0,0.0,4.0,33.333332,,,,,,,,31.0,0.0,0.25314000000000003,-0.453125,0.46411099999999994,0.717773,0.897475,-0.45361999999999997,-0.166506,-0.043682,-0.055476,-0.014774,,,,,,,,,,,,,,,,,,,,,,,,,,,,,,,,,,,,,,,,,,,,,,,,,,,,,,,,,,,,,,,,,
11393,1650414128.201217,1650414128.239003,63.0,0.0,4387.179688,4564.102539,4317.94873,4280.512695,4340.512695,0.0,3.0,73.0,,,,0.0,4.0,0.0,4.0,0.0,4.0,33.333332,,,,,,,,,,,,,,,,,,,,,,,,,,,,,,,,,,,,,,,,,,,,,,,,,,,,,,,,,,,,,,,,,,,,,,,,,,,,,,,,,,,,
11394,1650414128.209031,1650414128.246918,64.0,0.0,4400.0,4591.282227000001,4293.333496,4280.512695,4331.282227000001,450.0,3.0,73.0,,,,0.0,4.0,0.0,4.0,0.0,4.0,33.333332,,,,,,,,32.0,0.0,0.252692,-0.453125,0.464355,0.717773,0.893568,-0.45606199999999997,-0.160647,-0.044295,-0.055446,-0.016519,,,,,,,,,,,,,,,,,,,,,,,,,,,,,,,,,,,,,,,,,,,,,,,,,,,,,,,,,,,,,,,,,
11395,1650414128.216846,1650414128.254832,65.0,0.0,4377.436035,4658.974121,4269.230957,4280.512695,4284.615234000001,450.0,3.0,73.0,,,,0.0,4.0,0.0,4.0,0.0,4.0,33.333332,,,,,,,,,,,,,,,,,,,,,,,,,,,,,,,,,,,,,,,,,,,,,,,,,,,,,,0.0,0.0,1.0,0.0,512.0,1.0,,,,,,,,,,,,,,,,,,,,,,,,,
11396,1650414128.22466,1650414128.2626472,66.0,0.0,4365.128418,4692.820313,4278.974121,4280.512695,4286.153809,16196.0,3.0,73.0,,,,0.0,4.0,0.0,4.0,0.0,4.0,33.333332,,,,,,,,33.0,0.0,0.252692,-0.453125,0.464355,0.717773,0.887709,-0.43946,-0.14990499999999998,-0.043186,-0.055467999999999996,-0.014818000000000001,,,,,,,,,,,,,,,,,,,,,,,,,,,,,,,,,,,,,,,,,,,,,,,,,,,,,,,,,,,,,,,,,
11397,1650414128.232475,1650414128.2704618,67.0,0.0,4367.692383,4675.897461,4287.179688,4280.512695,4319.487305,450.0,3.0,73.0,,,,0.0,4.0,0.0,4.0,0.0,4.0,33.333332,,,,,,,,,,,,,,,,,,,,,,,,,,,,,,,,,,,,,,,,,,,,,,,,,,,,,,,,,,,,,,,,,,,,,,,,,,,,,,,,,,,,
11398,1650414128.240289,1650414128.278377,68.0,0.0,4349.230957,4626.666504,4274.871582,4280.512695,4304.615234000001,0.0,3.0,73.0,,,,0.0,4.0,0.0,4.0,0.0,4.0,33.333332,,,,,,,,34.0,0.0,0.252692,-0.453125,0.464355,0.717773,0.891127,-0.427253,-0.158694,-0.042285,-0.055438999999999995,-0.016706,,,,,,,,,,,,,,,,,,,,,,,,,,,,,,,,,,,,,,,,,,,,,,,,,,,,,,,,,,,,,,,,,
11399,1650414128.2481039,1650414128.2862911,69.0,0.0,4343.077147999999,4631.282227000001,4267.179688,4280.512695,4262.05127,450.0,3.0,73.0,,,,0.0,4.0,0.0,4.0,0.0,4.0,33.333332,,,,,,,,,,,,,,,,,,,,,,,,,,,,,,,,,,,,,,,,,,,,,,,,,,,,,,0.0,0.0,1.0,0.0,512.0,1.0,,,,,,,,,,,,,,,,,,,,,,,,,
11400,1650414128.255918,1650414128.294106,70.0,0.0,4364.102539,4685.641113000001,4275.897461,4280.512695,4257.436035,16144.0,3.0,73.0,,,,0.0,4.0,0.0,4.0,0.0,4.0,33.333332,,,,,,,,35.0,0.0,0.252242,-0.453125,0.4646,0.717773,0.893568,-0.44776099999999996,-0.14990499999999998,-0.043037,-0.055364,-0.01484,,,,,,,,,,,,,,,,,,,,,,,,,,,,,,,,,,,,,,,,,,,,,,,,,,,,,,,,,,,,,,,,,
11401,1650414128.263733,1650414128.302021,71.0,0.0,4363.589844,4668.717772999999,4291.282227000001,4280.512695,4291.282227000001,450.0,3.0,73.0,,,,0.0,4.0,0.0,4.0,0.0,4.0,33.333332,,,,,,,,,,,,,,,,,,,,,,,,,,,,,,,,,,,,,,,,,,,,,,,,,,,,,,,,,,,,,,,,,,,,,,,,,,,,,,,,,,,,
11402,1650414128.271547,1650414128.309836,72.0,0.0,4345.128418,4597.436035,4293.333496,4280.512695,4306.666504,450.0,3.0,73.0,,,,0.0,4.0,0.0,4.0,0.0,4.0,33.333332,,,,,,,,36.0,0.0,0.251986,-0.45288100000000003,0.4646,0.718018,0.885756,-0.43653000000000003,-0.152834,-0.043567,-0.05544299999999999,-0.016725,,,,,,,,,,,,,,,,,,,,,,,,,,,,,,,,,,,,,,,,,,,,,,,,,,,,,,,,,,,,,,,,,
11403,1650414128.279362,1650414128.317751,73.0,0.0,4363.589844,4615.384765999999,4280.512695,4280.512695,4288.205078,0.0,3.0,73.0,,,,0.0,4.0,0.0,4.0,0.0,4.0,33.333332,1.0,33.333332,4.0,0.0,4.0,0.0,4.0,,,,,,,,,,,,,1.0,0.0,0.0,,,,,,,,,,,,,,,,,,,,,,,,,,,,,,,,10.0,0.0,1.0,0.0,512.0,1.0,3.6977629999999997,3.11122,1.152944,0.5472520000000001,1.530892,9.944064,13.565714000000002,9.15976,17.189875,12.862912,3.028195,2.132613,1.2861559999999999,1.256357,0.614448,0.007245000000000001,0.004634,0.013938999999999998,0.009648,0.005303,2.816548,2.558862,1.155928,1.436554,1.165468
11404,1650414128.287176,1650414128.325566,74.0,0.0,4394.358886999999,4706.153809,4274.358886999999,4280.512695,4277.94873,450.0,3.0,73.0,,,,0.0,4.0,0.0,4.0,0.0,4.0,33.333332,,,,,,,,37.0,0.0,0.251986,-0.45288100000000003,0.4646,0.718018,0.890639,-0.441413,-0.161135,-0.044094,-0.055416,-0.014856999999999999,,,,,,,,,,,,,,,,,,,,,,,,,,,,,,,,,,,,,,,,,,,,,,,,,,,,,,,,,,,,,,,,,
11405,1650414128.294991,1650414128.3334801,75.0,0.0,4374.871582,4721.025879,4280.0,4281.025879,4283.589844,16205.0,3.0,73.0,,,,0.0,4.0,0.0,4.0,0.0,4.0,33.333332,,,,,,,,,,,,,,,,,,,,,,,,,,,,,,,,,,,,,,,,,,,,,,,,,,,,,,,,,,,,,,,,,,,,,,,,,,,,,,,,,,,,
11406,1650414128.3028061,1650414128.341295,76.0,0.0,4341.538574,4649.743652,4279.487305,4280.0,4285.641113000001,450.0,3.0,73.0,,,,0.0,4.0,0.0,4.0,0.0,4.0,33.333332,,,,,,,,38.0,0.0,0.251974,-0.452637,0.464844,0.718018,0.901381,-0.44483100000000003,-0.167483,-0.043005,-0.05549,-0.019573,,,,,,,,,,,,,,,,,,,,,,,,,,,,,,,,,,,,,,,,,,,,,,,,,,,,,,,,,,,,,,,,,
11407,1650414128.3106198,1650414128.34921,77.0,0.0,4375.384765999999,4625.128418,4275.384765999999,4280.512695,4290.256348,450.0,3.0,73.0,,,,0.0,4.0,0.0,4.0,0.0,4.0,33.333332,,,,,,,,,,,,,,,,,,,,,,,,,,,,,,,,,,,,,,,,,,,,,,,,,,,,,,10.0,0.0,1.0,0.0,512.0,1.0,,,,,,,,,,,,,,,,,,,,,,,,,
11408,1650414128.318435,1650414128.357025,78.0,0.0,4407.179688,4666.666504,4276.410156,4283.077147999999,4288.205078,450.0,3.0,73.0,,,,0.0,4.0,0.0,4.0,0.0,4.0,33.333332,,,,,,,,39.0,0.0,0.25196199999999996,-0.45239300000000005,0.465088,0.718018,0.893568,-0.44190100000000004,-0.161135,-0.042024,-0.05550700000000001,-0.021082,,,,,,,,,,,,,,,,,,,,,,,,,,,,,,,,,,,,,,,,,,,,,,,,,,,,,,,,,,,,,,,,,
11409,1650414128.3262491,1650414128.36494,79.0,1.0,4489.679688,4666.282227000001,4275.0,4284.679688,4313.141113000001,16219.0,3.0,73.0,,,,0.0,4.0,0.0,4.0,0.0,4.0,33.333332,,,,,,,,,,,,,,,,,,,,,,,,,,,,,,,,,,,,,,,,,,,,,,,,,,,,,,,,,,,,,,,,,,,,,,,,,,,,,,,,,,,,
11410,1650414128.334064,1650414128.372755,80.0,1.0,4572.179688,4665.897461,4273.589844,4286.282227000001,4338.077147999999,450.0,3.0,73.0,,,,0.0,4.0,0.0,4.0,0.0,4.0,33.333332,,,,,,,,40.0,1.0,0.251785,-0.45233199999999996,0.465149,0.718079,0.892958,-0.44373199999999996,-0.160403,-0.041828,-0.055524000000000004,-0.021398,,,,,,,,,,,,,,,,,,,,,,,,,,,,,,,,,,,,,,,,,,,,,,,,,,,,,,,,,,,,,,,,,
11411,1650414128.341878,1650414128.38057,81.0,1.0,4654.679688,4665.512695,4272.179688,4287.884765999999,4363.012695,450.0,3.0,73.0,,,,0.0,4.0,0.0,4.0,0.0,4.0,33.333332,,,,,,,,,,,,,,,,,,,,,,,,,,,,,,,,,,,,,,,,,,,,,,,,,,,,,,10.0,0.0,1.0,0.0,512.0,1.0,,,,,,,,,,,,,,,,,,,,,,,,,
11412,1650414128.349693,1650414128.3883839,82.0,1.0,4737.179688,4665.128418,4270.769043,4289.487305,4387.94873,450.0,3.0,73.0,,,,0.0,4.0,0.0,4.0,0.0,4.0,33.333332,,,,,,,,41.0,1.0,0.251608,-0.452271,0.46521,0.71814,0.8923479999999999,-0.445563,-0.15967,-0.041632,-0.05554,-0.021713,,,,,,,,,,,,,,,,,,,,,,,,,,,,,,,,,,,,,,,,,,,,,,,,,,,,,,,,,,,,,,,,,
11413,1650414128.357507,1650414128.396199,83.0,1.0,4819.679688,4664.743652,4269.358886999999,4291.089844,4412.884765999999,450.0,3.0,73.0,,,,0.0,4.0,0.0,4.0,0.0,4.0,33.333332,,,,,,,,,,,,,,,,,,,,,,,,,,,,,,,,,,,,,,,,,,,,,,,,,,,,,,,,,,,,,,,,,,,,,,,,,,,,,,,,,,,,
11414,1650414128.365322,1650414128.404014,84.0,1.0,4902.179688,4664.358886999999,4267.94873,4292.692383,4437.820313,450.0,3.0,73.0,,,,0.0,4.0,0.0,4.0,0.0,4.0,33.333332,,,,,,,,42.0,1.0,0.25143000000000004,-0.452209,0.465271,0.718201,0.8917370000000001,-0.447395,-0.15893800000000002,-0.041436,-0.055555999999999994,-0.022028,,,,,,,,,,,,,,,,,,,,,,,,,,,,,,,,,,,,,,,,,,,,,,,,,,,,,,,,,,,,,,,,,
11415,1650414128.373136,1650414128.411829,85.0,1.0,4984.679688,4663.974121,4266.538574,4294.294922,4462.756348,450.0,3.0,73.0,,,,0.0,4.0,0.0,4.0,0.0,4.0,33.333332,,,,,,,,,,,,,,,,,,,,,,,,,,,,,,,,,,,,,,,,,,,,,,,,,,,,,,10.0,0.0,1.0,0.0,512.0,1.0,,,,,,,,,,,,,,,,,,,,,,,,,
11416,1650414128.380951,1650414128.4196439,86.0,0.0,5067.179688,4663.589844,4265.128418,4295.897461,4487.692383,450.0,3.0,73.0,,,,0.0,4.0,0.0,4.0,0.0,4.0,33.333332,,,,,,,,43.0,0.0,0.251253,-0.45214799999999994,0.46533199999999997,0.718262,0.891127,-0.449226,-0.15820599999999999,-0.04124,-0.055572,-0.022343000000000002,,,,,,,,,,,,,,,,,,,,,,,,,,,,,,,,,,,,,,,,,,,,,,,,,,,,,,,,,,,,,,,,,
11417,1650414128.388765,1650414128.427459,87.0,0.0,5230.256348,4586.666504,4289.230957,4295.897461,4549.230957,16205.0,3.0,73.0,,,,0.0,4.0,0.0,4.0,0.0,4.0,33.333332,,,,,,,,,,,,,,,,,,,,,,,,,,,,,,,,,,,,,,,,,,,,,,,,,,,,,,,,,,,,,,,,,,,,,,,,,,,,,,,,,,,,
11418,1650414128.39658,1650414128.435174,88.0,0.0,5320.0,4395.384765999999,4324.615234000001,4296.922852000001,4583.589844,450.0,3.0,73.0,,,,0.0,4.0,0.0,4.0,0.0,4.0,33.333332,,,,,,,,44.0,0.0,0.25124,-0.451904,0.46557600000000005,0.718262,0.8989389999999999,-0.446784,-0.167483,-0.042097,-0.05558099999999999,-0.020059999999999998,,,,,,,,,,,,,,,,,,,,,,,,,,,,,,,,,,,,,,,,,,,,,,,,,,,,,,,,,,,,,,,,,
11419,1650414128.4043949,1650414128.4429882,89.0,0.0,5428.205078,4478.974121,4288.205078,4303.077147999999,4560.0,450.0,3.0,73.0,,,,0.0,4.0,0.0,4.0,0.0,4.0,33.333332,,,,,,,,,,,,,,,,,,,,1.0,0.0,0.0,,,,,,,,,,,,,,,,,,,,,,,,,,,,,,,,10.0,0.0,1.0,0.0,512.0,0.8727159999999999,3.578304,2.382973,1.246185,0.506687,1.459849,8.364271,15.538198999999999,10.026848,16.618682999999997,14.681222,2.906764,1.7800060000000002,1.377305,1.069124,0.679142,0.004311,0.0031579999999999998,0.012542,0.008707,0.003995,3.403087,1.932668,1.1354870000000001,1.473424,1.0913959999999998
11420,1650414128.412209,1650414128.450703,90.0,0.0,5546.666504,4624.615234000001,4264.102539,4306.666504,4540.512695,450.0,3.0,73.0,,,,0.0,4.0,0.0,4.0,0.0,4.0,33.333332,,,,,,,,45.0,0.0,0.25124,-0.451904,0.46557600000000005,0.718262,0.9004040000000001,-0.44531899999999996,-0.158694,-0.041305,-0.05559,-0.021374,,,,,,,,,,,,,,,,,,,,,,,,,,,,,,,,,,,,,,,,,,,,,,,,,,,,,,,,,,,,,,,,,
11421,1650414128.420024,1650414128.458518,91.0,0.0,5602.05127,4442.05127,4318.974121,4305.641113000001,4570.256348,16205.0,3.0,73.0,,,,0.0,4.0,0.0,4.0,0.0,4.0,33.333332,,,,,,,,,,,,,,,,,,,,,,,,,,,,,,,,,,,,,,,,,,,,,,,,,,,,,,,,,,,,,,,,,,,,,,,,,,,,,,,,,,,,
11422,1650414128.427838,1650414128.466232,92.0,0.0,5568.205078,4219.487305,4348.205078,4304.615234000001,4575.897461,450.0,3.0,73.0,,,,0.0,4.0,0.0,4.0,0.0,4.0,33.333332,,,,,,,,46.0,0.0,0.250787,-0.451904,0.46581999999999996,0.718262,0.897475,-0.45459700000000003,-0.160647,-0.042155,-0.055646,-0.019042,,,,,,,,,,,,,,,,,,,,,,,,,,,,,,,,,,,,,,,,,,,,,,,,,,,,,,,,,,,,,,,,,
11423,1650414128.435653,1650414128.473947,93.0,0.0,5556.410156,4225.128418,4324.102539,4303.589844,4533.333496,450.0,3.0,73.0,,,,0.0,4.0,0.0,4.0,0.0,4.0,33.333332,,,,,,,,,,,,,,,,,,,,,,,,,,,,,,,,,,,,,,,,,,,,,,,,,,,,,,0.0,0.0,1.0,0.0,512.0,0.8727159999999999,,,,,,,,,,,,,,,,,,,,,,,,,
11424,1650414128.443467,1650414128.481762,94.0,0.0,5632.820313,4267.179688,4330.769043,4303.589844,4515.384765999999,450.0,3.0,73.0,,,,0.0,4.0,0.0,4.0,0.0,4.0,33.333332,,,,,,,,47.0,0.0,0.250346,-0.45214799999999994,0.46581999999999996,0.718262,0.8969860000000001,-0.448737,-0.15674100000000002,-0.042871,-0.055648,-0.014061,,,,,,,,,,,,,,,,,,,,,,,,,,,,,,,,,,,,,,,,,,,,,,,,,,,,,,,,,,,,,,,,,
11425,1650414128.451282,1650414128.489476,95.0,0.0,5644.615234000001,4274.871582,4342.05127,4304.102539,4518.974121,16205.0,3.0,73.0,,,,0.0,4.0,0.0,4.0,0.0,4.0,33.333332,,,,,,,,,,,,,,,,,,,,,,,,,,,,,,,,,,,,,,,,,,,,,,,,,,,,,,,,,,,,,,,,,,,,,,,,,,,,,,,,,,,,
11426,1650414128.4590962,1650414128.497291,96.0,0.0,5607.179688,4284.615234000001,4331.282227000001,4303.589844,4515.897461,450.0,3.0,73.0,,,,0.0,4.0,0.0,4.0,0.0,4.0,33.333332,,,,,,,,48.0,0.0,0.251046,-0.45214799999999994,0.46581999999999996,0.718018,0.890639,-0.44971400000000006,-0.163088,-0.043369,-0.05565,-0.009774,,,,,,,,,,,,,,,,,,,,,,,,,,,,,,,,,,,,,,,,,,,,,,,,,,,,,,,,,,,,,,,,,
11427,1650414128.4669108,1650414128.505106,97.0,0.0,5635.897461,4333.846191,4332.820313,4304.102539,4507.692383,450.0,3.0,73.0,,,,0.0,4.0,0.0,4.0,0.0,4.0,33.333332,,,,,,,,,,,,,,,,,,,,,,,,,,,,,,,,,,,,,,,,,,,,,,,,,,,,,,0.0,0.0,1.0,0.0,512.0,0.8727159999999999,,,,,,,,,,,,,,,,,,,,,,,,,
11428,1650414128.474725,1650414128.5128212,98.0,0.0,5618.974121,4397.94873,4335.897461,4304.102539,4476.922852000001,450.0,3.0,73.0,,,,0.0,4.0,0.0,4.0,0.0,4.0,33.333332,,,,,,,,49.0,0.0,0.250787,-0.451904,0.46581999999999996,0.718262,0.8989389999999999,-0.458991,-0.164553,-0.04245,-0.055602,-0.012117000000000001,,,,,,,,,,,,,,,,,,,,,,,,,,,,,,,,,,,,,,,,,,,,,,,,,,,,,,,,,,,,,,,,,
11429,1650414128.4825401,1650414128.520535,99.0,0.0,5545.641113000001,4340.0,4323.077147999999,4304.102539,4437.436035,16205.0,3.0,73.0,,,,0.0,4.0,0.0,4.0,0.0,4.0,33.333332,,,,,,,,,,,,,,,,,,,,,,,,,,,,,,,,,,,,,,,,,,,,,,,,,,,,,,,,,,,,,,,,,,,,,,,,,,,,,,,,,,,,
11430,1650414128.4903538,1650414128.52835,100.0,0.0,5562.563965,4213.333496,4334.358886999999,4304.102539,4465.128418,450.0,3.0,73.0,,,,0.0,4.0,0.0,4.0,0.0,4.0,33.333332,,,,,,,,50.0,0.0,0.250787,-0.451904,0.46581999999999996,0.718262,0.8964979999999999,-0.44971400000000006,-0.151369,-0.043137,-0.055657000000000005,-0.014225999999999999,,,,,,,,,,,,,,,,,,,,,,,,,,,,,,,,,,,,,,,,,,,,,,,,,,,,,,,,,,,,,,,,,
11431,1650414128.498169,1650414128.536065,101.0,0.0,5604.102539,4234.871582,4355.897461,4304.102539,4520.0,450.0,3.0,73.0,,,,0.0,4.0,0.0,4.0,0.0,4.0,33.333332,,,,,,,,,,,,,,,,,,,,,,,,,,,,,,,,,,,,,,,,,,,,,,,,,,,,,,0.0,0.0,1.0,0.0,512.0,0.8727159999999999,,,,,,,,,,,,,,,,,,,,,,,,,
11432,1650414128.505983,1650414128.5438788,102.0,0.0,5541.025879,4355.384765999999,4337.94873,4304.615234000001,4504.615234000001,450.0,3.0,73.0,,,,0.0,4.0,0.0,4.0,0.0,4.0,33.333332,,,,,,,,51.0,0.0,0.250787,-0.451904,0.46581999999999996,0.718262,0.8930799999999999,-0.458991,-0.153811,-0.042095,-0.05575599999999999,-0.016124,,,,,,,,,,,,,,,,,,,,,,,,,,,,,,,,,,,,,,,,,,,,,,,,,,,,,,,,,,,,,,,,,
11433,1650414128.513798,1650414128.551594,103.0,0.0,5444.102539,4351.794922,4320.0,4304.102539,4455.897461,16205.0,3.0,73.0,,,,0.0,4.0,0.0,4.0,0.0,4.0,33.333332,,,,,,,,,,,,,,,,,,,,,,,,,,,,,,,,,,,,,,,,,,,,,,,,,,,,,,,,,,,,,,,,,,,,,,,,,,,,,,,,,,,,
11434,1650414128.5216131,1650414128.559409,104.0,0.0,5396.922852000001,4295.897461,4322.563965,4304.102539,4442.563965,450.0,3.0,73.0,,,,0.0,4.0,0.0,4.0,0.0,4.0,33.333332,,,,,,,,52.0,0.0,0.25124,-0.451904,0.46557600000000005,0.718262,0.8964979999999999,-0.447272,-0.157717,-0.042817,-0.055698000000000004,-0.014413999999999998,,,,,,,,,,,,,,,,,,,,,,,,,,,,,,,,,,,,,,,,,,,,,,,,,,,,,,,,,,,,,,,,,
11435,1650414128.529427,1650414128.567123,105.0,0.0,5360.0,4426.666504,4292.307617,4305.128418,4415.384765999999,450.0,3.0,73.0,,,,0.0,4.0,0.0,4.0,0.0,4.0,33.333332,,,,,,,,,,,,,,,,,,,,1.0,0.0,0.0,,,,,,,,,,,,,,,,,,,,,,,,,,,,,,,,11.0,0.0,1.0,0.0,512.0,1.0,5.580394,1.867743,1.365517,0.5049600000000001,1.42667,7.380022,17.954956,10.519401,15.38364,16.113146,3.132275,1.469937,1.400634,0.876724,0.752699,0.0037229999999999997,0.002651,0.011462,0.007712,0.0033060000000000003,4.8482389999999995,1.416714,1.088655,1.481974,1.086593
11436,1650414128.537242,1650414128.574938,106.0,0.0,5282.563965,4615.897461,4252.307617,4302.05127,4373.333496,450.0,3.0,73.0,,,,0.0,4.0,0.0,4.0,0.0,4.0,33.333332,,,,,,,,53.0,0.0,0.25195,-0.45214799999999994,0.46533199999999997,0.718018,0.902358,-0.45361999999999997,-0.157229,-0.041905,-0.055791999999999994,-0.016439,,,,,,,,,,,,,,,,,,,,,,,,,,,,,,,,,,,,,,,,,,,,,,,,,,,,,,,,,,,,,,,,,
11437,1650414128.545056,1650414128.582653,107.0,0.0,5177.436035,4595.384765999999,4266.666504,4297.436035,4373.846191,16205.0,3.0,73.0,,,,0.0,4.0,0.0,4.0,0.0,4.0,33.333332,,,,,,,,,,,,,,,,,,,,,,,,,,,,,,,,,,,,,,,,,,,,,,,,,,,,,,,,,,,,,,,,,,,,,,,,,,,,,,,,,,,,
11438,1650414128.552871,1650414128.590468,108.0,0.0,5087.692383,4521.538574,4277.94873,4296.922852000001,4362.563965,450.0,3.0,73.0,,,,0.0,4.0,0.0,4.0,0.0,4.0,33.333332,,,,,,,,54.0,0.0,0.25195,-0.45214799999999994,0.46533199999999997,0.718018,0.886244,-0.438483,-0.165042,-0.042548,-0.055827999999999996,-0.018164,,,,,,,,,,,,,,,,,,,,,,,,,,,,,,,,,,,,,,,,,,,,,,,,,,,,,,,,,,,,,,,,,
11439,1650414128.560685,1650414128.598282,109.0,0.0,5032.307617,4605.641113000001,4246.153809,4297.436035,4323.589844,450.0,3.0,73.0,,,,0.0,4.0,0.0,4.0,0.0,4.0,33.333332,,,,,,,,,,,,,,,,,,,,,,,,,,,,,,,,,,,,,,,,,,,,,,,,,,,,,,11.0,0.0,1.0,0.0,512.0,1.0,,,,,,,,,,,,,,,,,,,,,,,,,
11440,1650414128.5685,1650414128.605997,110.0,0.0,4981.025879,4678.974121,4249.743652,4296.922852000001,4326.153809,450.0,3.0,73.0,,,,0.0,4.0,0.0,4.0,0.0,4.0,33.333332,,,,,,,,55.0,0.0,0.25196199999999996,-0.45239300000000005,0.465088,0.718018,0.8803850000000001,-0.447272,-0.154788,-0.043274,-0.055958,-0.019668,,,,,,,,,,,,,,,,,,,,,,,,,,,,,,,,,,,,,,,,,,,,,,,,,,,,,,,,,,,,,,,,,
11441,1650414128.576314,1650414128.6137118,111.0,0.0,4905.641113000001,4651.282227000001,4275.897461,4294.871582,4337.436035,16205.0,3.0,73.0,,,,0.0,4.0,0.0,4.0,0.0,4.0,33.333332,,,,,,,,,,,,,,,,,,,,,,,,,,,,,,,,,,,,,,,,,,,,,,,,,,,,,,,,,,,,,,,,,,,,,,,,,,,,,,,,,,,,
11442,1650414128.5841289,1650414128.621526,112.0,0.0,4842.563965,4664.615234000001,4264.615234000001,4293.333496,4318.974121,450.0,3.0,73.0,,,,0.0,4.0,0.0,4.0,0.0,4.0,33.333332,,,,,,,,56.0,0.0,0.25196199999999996,-0.45239300000000005,0.465088,0.718018,0.897475,-0.440436,-0.163088,-0.043927,-0.055929,-0.017603999999999998,,,,,,,,,,,,,,,,,,,,,,,,,,,,,,,,,,,,,,,,,,,,,,,,,,,,,,,,,,,,,,,,,
11443,1650414128.591943,1650414128.629241,113.0,0.0,4794.358886999999,4676.922852000001,4252.307617,4291.282227000001,4301.538574,450.0,3.0,73.0,,,,0.0,4.0,0.0,4.0,0.0,4.0,33.333332,,,,,,,,,,,,,,,,,,,,,,,,,,,,,,,,,,,,,,,,,,,,,,,,,,,,,,11.0,0.0,1.0,0.0,512.0,1.0,,,,,,,,,,,,,,,,,,,,,,,,,
11444,1650414128.599758,1650414128.637056,114.0,0.0,4727.692383,4613.333496,4262.05127,4289.230957,4284.615234000001,450.0,3.0,73.0,,,,0.0,4.0,0.0,4.0,0.0,4.0,33.333332,,,,,,,,57.0,0.0,0.25196199999999996,-0.45239300000000005,0.465088,0.718018,0.893568,-0.44385399999999997,-0.164553,-0.044515,-0.055951999999999995,-0.019213,,,,,,,,,,,,,,,,,,,,,,,,,,,,,,,,,,,,,,,,,,,,,,,,,,,,,,,,,,,,,,,,,
11445,1650414128.607572,1650414128.64477,115.0,0.0,4668.717772999999,4566.153809,4267.179688,4287.179688,4270.769043,16205.0,3.0,73.0,,,,0.0,4.0,0.0,4.0,0.0,4.0,33.333332,,,,,,,,,,,,,,,,,,,,,,,,,,,,,,,,,,,,,,,,,,,,,,,,,,,,,,,,,,,,,,,,,,,,,,,,,,,,,,,,,,,,
11446,1650414128.615387,1650414128.652585,116.0,0.0,4637.436035,4584.615234000001,4261.025879,4287.179688,4272.307617,450.0,3.0,73.0,,,,0.0,4.0,0.0,4.0,0.0,4.0,33.333332,,,,,,,,58.0,0.0,0.251974,-0.452637,0.464844,0.718018,0.901869,-0.437018,-0.151369,-0.044995,-0.055972,-0.020856,,,,,,,,,,,,,,,,,,,,,,,,,,,,,,,,,,,,,,,,,,,,,,,,,,,,,,,,,,,,,,,,,
11447,1650414128.623201,1650414128.6603,117.0,0.0,4593.846191,4643.077147999999,4253.333496,4287.692383,4247.179688,450.0,3.0,73.0,,,,0.0,4.0,0.0,4.0,0.0,4.0,33.333332,,,,,,,,,,,,,,,,,,,,,,,,,,,,,,,,,,,,,,,,,,,,,,,,,,,,,,11.0,0.0,1.0,0.0,512.0,1.0,,,,,,,,,,,,,,,,,,,,,,,,,
11448,1650414128.631016,1650414128.668114,118.0,0.0,4542.563965,4681.538574,4250.256348,4286.666504,4223.077147999999,450.0,3.0,73.0,,,,0.0,4.0,0.0,4.0,0.0,4.0,33.333332,,,,,,,,59.0,0.0,0.251974,-0.452637,0.464844,0.718018,0.886244,-0.441413,-0.151858,-0.04533,-0.055941,-0.015889,,,,,,,,,,,,,,,,,,,,,,,,,,,,,,,,,,,,,,,,,,,,,,,,,,,,,,,,,,,,,,,,,
11449,1650414128.6388311,1650414128.675829,119.0,0.0,4508.205078,4633.846191,4255.897461,4287.692383,4232.820313,16205.0,3.0,73.0,,,,0.0,4.0,0.0,4.0,0.0,4.0,33.333332,,,,,,,,,,,,,,,,,,,,,,,,,,,,,,,,,,,,,,,,,,,,,,,,,,,,,,,,,,,,,,,,,,,,,,,,,,,,,,,,,,,,
11450,1650414128.6466448,1650414128.683644,120.0,0.0,4467.179688,4576.410156,4253.846191,4287.692383,4220.512695,450.0,3.0,73.0,,,,0.0,4.0,0.0,4.0,0.0,4.0,33.333332,,,,,,,,60.0,0.0,0.251974,-0.452637,0.464844,0.718018,0.897963,-0.43799499999999997,-0.15332300000000001,-0.044166000000000004,-0.055962,-0.014252,,,,,,,,,,,,,,,,,,,,,,,,,,,,,,,,,,,,,,,,,,,,,,,,,,,,,,,,,,,,,,,,,
11451,1650414128.65446,1650414128.691359,121.0,0.0,4423.589844,4631.794922,4242.05127,4283.589844,4201.025879,450.0,3.0,73.0,,,,0.0,4.0,0.0,4.0,0.0,4.0,33.333332,,,,,,,,,,,,,,,,,,,,1.0,0.0,0.0,,,,,,,,,,,,,,,,,,,,,,,,,,,,,,,,11.0,0.0,1.0,0.0,512.0,1.0,21.652079,1.635787,1.773111,0.615024,1.411157,8.175898,20.610447,10.33388,14.060417999999999,17.091803,3.779892,1.186492,1.375645,0.726414,0.842226,0.007670999999999999,0.0027,0.010726000000000001,0.006618000000000001,0.002822,8.70474,1.145824,1.0912110000000002,1.444687,1.178796
11452,1650414128.6622741,1650414128.699173,122.0,0.0,4387.692383,4660.0,4247.179688,4281.025879,4209.743652,450.0,3.0,73.0,,,,0.0,4.0,0.0,4.0,0.0,4.0,33.333332,,,,,,,,61.0,0.0,0.251974,-0.452637,0.464844,0.718018,0.893568,-0.446784,-0.159182,-0.043021,-0.056029999999999996,-0.016244,,,,,,,,,,,,,,,,,,,,,,,,,,,,,,,,,,,,,,,,,,,,,,,,,,,,,,,,,,,,,,,,,
11453,1650414128.670089,1650414128.7068882,123.0,0.0,4354.358886999999,4600.0,4254.871582,4281.538574,4207.179688,16205.0,3.0,73.0,,,,0.0,4.0,0.0,4.0,0.0,4.0,33.333332,,,,,,,,,,,,,,,,,,,,,,,,,,,,,,,,,,,,,,,,,,,,,,,,,,,,,,,,,,,,,,,,,,,,,,,,,,,,,,,,,,,,
11454,1650414128.677903,1650414128.714603,124.0,0.0,4339.487305,4631.282227000001,4243.077147999999,4281.538574,4196.410156,450.0,3.0,73.0,,,,0.0,4.0,0.0,4.0,0.0,4.0,33.333332,,,,,,,,62.0,0.0,0.251974,-0.452637,0.464844,0.718018,0.8994280000000001,-0.438483,-0.164553,-0.042088,-0.055945,-0.018087,,,,,,,,,,,,,,,,,,,,,,,,,,,,,,,,,,,,,,,,,,,,,,,,,,,,,,,,,,,,,,,,,
11455,1650414128.685718,1650414128.7224169,125.0,0.0,4333.333496,4686.666504,4236.922852000001,4281.025879,4203.589844,450.0,3.0,73.0,,,,0.0,4.0,0.0,4.0,0.0,4.0,33.333332,,,,,,,,,,,,,,,,,,,,,,,,,,,,,,,,,,,,,,,,,,,,,,,,,,,,,,11.0,0.0,1.0,0.0,512.0,1.0,,,,,,,,,,,,,,,,,,,,,,,,,
11456,1650414128.693532,1650414128.730132,126.0,0.0,4313.846191,4643.589844,4247.692383,4281.025879,4210.256348,450.0,3.0,73.0,,,,0.0,4.0,0.0,4.0,0.0,4.0,33.333332,,,,,,,,63.0,0.0,0.251974,-0.452637,0.464844,0.718018,0.8930799999999999,-0.438483,-0.151369,-0.04286,-0.055916999999999994,-0.016132,,,,,,,,,,,,,,,,,,,,,,,,,,,,,,,,,,,,,,,,,,,,,,,,,,,,,,,,,,,,,,,,,
11457,1650414128.701347,1650414128.737947,127.0,0.0,4293.846191,4614.358886999999,4254.871582,4281.538574,4209.743652,238.0,3.0,73.0,,,,0.0,4.0,0.0,4.0,0.0,4.0,33.333332,,,,,,,,,,,,,,,,,,,,,,,,,,,,,,,,,,,,,,,,,,,,,,,,,,,,,,,,,,,,,,,,,,,,,,,,,,,,,,,,,,,,
11458,1650414128.709161,1650414128.745662,0.0,0.0,4284.615234000001,4625.128418,4244.615234000001,4281.025879,4206.666504,450.0,3.0,73.0,,,,0.0,4.0,0.0,4.0,0.0,4.0,33.333332,,,,,,,,0.0,0.0,0.251523,-0.452637,0.465088,0.718018,0.886732,-0.440925,-0.15820599999999999,-0.041943,-0.05594,-0.017937,,,,,,,,,,,,,,,,,,,,,,,,,,,,,,,,,,,,,,,,,,,,,,,,,,,,,,,,,,,,,,,,,
11459,1650414128.716976,1650414128.753476,1.0,0.0,4270.256348,4617.94873,4233.333496,4281.025879,4200.512695,450.0,3.0,73.0,,,,0.0,4.0,0.0,4.0,0.0,4.0,33.333332,,,,,,,,,,,,,,,,,,,,,,,,,,,,,,,,,,,,,,,,,,,,,,,,,,,,,,11.0,0.0,1.0,0.0,512.0,1.0,,,,,,,,,,,,,,,,,,,,,,,,,
11460,1650414128.72479,1650414128.7611911,2.0,0.0,4248.205078,4608.717772999999,4238.461426,4281.025879,4196.922852000001,16218.0,3.0,73.0,,,,0.0,4.0,0.0,4.0,0.0,4.0,33.333332,,,,,,,,1.0,0.0,0.25196199999999996,-0.45239300000000005,0.465088,0.718018,0.8750129999999999,-0.44190100000000004,-0.154299,-0.041118,-0.055864,-0.01961,,,,,,,,,,,,,,,,,,,,,,,,,,,,,,,,,,,,,,,,,,,,,,,,,,,,,,,,,,,,,,,,,
11461,1650414128.732605,1650414128.769006,3.0,0.0,4233.333496,4607.692383,4257.436035,4281.025879,4203.077147999999,450.0,3.0,73.0,,,,0.0,4.0,0.0,4.0,0.0,4.0,33.333332,,,,,,,,,,,,,,,,,,,,,,,,,,,,,,,,,,,,,,,,,,,,,,,,,,,,,,,,,,,,,,,,,,,,,,,,,,,,,,,,,,,,
11462,1650414128.740419,1650414128.7767198,4.0,0.0,4225.641113000001,4620.512695,4265.641113000001,4281.025879,4209.743652,32.0,3.0,73.0,,,,0.0,4.0,0.0,4.0,0.0,4.0,33.333332,,,,,,,,2.0,0.0,0.25241199999999997,-0.45239300000000005,0.464844,0.718018,0.8808729999999999,-0.44531899999999996,-0.15332300000000001,-0.042083999999999996,-0.055795000000000004,-0.021018000000000002,,,,,,,,,,,,,,,,,,,,,,,,,,,,,,,,,,,,,,,,,,,,,,,,,,,,,,,,,,,,,,,,,
11463,1650414128.748234,1650414128.784535,5.0,0.0,4213.333496,4670.769043,4248.205078,4281.025879,4205.128418,450.0,3.0,73.0,,,,0.0,4.0,0.0,4.0,0.0,4.0,33.333332,,,,,,,,,,,,,,,,,,,,,,,,,,,,,,,,,,,,,,,,,,,,,,,,,,,,,,11.0,0.0,1.0,0.0,512.0,1.0,,,,,,,,,,,,,,,,,,,,,,,,,
11464,1650414128.756048,1650414128.79225,6.0,0.0,4201.025879,4689.230957,4234.871582,4281.538574,4192.307617,16132.0,3.0,73.0,,,,0.0,4.0,0.0,4.0,0.0,4.0,33.333332,,,,,,,,3.0,0.0,0.25241199999999997,-0.45239300000000005,0.464844,0.718018,0.8994280000000001,-0.446296,-0.150393,-0.042808,-0.055782000000000005,-0.016035,,,,,,,,,,,,,,,,,,,,,,,,,,,,,,,,,,,,,,,,,,,,,,,,,,,,,,,,,,,,,,,,,
11465,1650414128.763863,1650414128.800064,7.0,0.0,4199.487305,4667.692383,4242.563965,4281.538574,4204.102539,450.0,3.0,73.0,,,,0.0,4.0,0.0,4.0,0.0,4.0,33.333332,,,,,,,,,,,,,,,,,,,,,,,,,,,,,,,,,,,,,,,,,,,,,,,,,,,,,,,,,,,,,,,,,,,,,,,,,,,,,,,,,,,,
11466,1650414128.771677,1650414128.8077788,8.0,0.0,4189.230957,4661.025879,4249.230957,4281.025879,4230.256348,450.0,3.0,73.0,,,,0.0,4.0,0.0,4.0,0.0,4.0,33.333332,,,,,,,,4.0,0.0,0.25241199999999997,-0.45239300000000005,0.464844,0.718018,0.9116350000000001,-0.44385399999999997,-0.14941600000000002,-0.043507,-0.055722,-0.0116,,,,,,,,,,,,,,,,,,,,,,,,,,,,,,,,,,,,,,,,,,,,,,,,,,,,,,,,,,,,,,,,,
11467,1650414128.779492,1650414128.815594,9.0,0.0,4162.05127,4608.205078,4246.153809,4281.538574,4214.871582,0.0,3.0,73.0,,,,0.0,4.0,0.0,4.0,0.0,4.0,33.333332,0.972656,8.333333,1.0,0.0,4.0,0.0,4.0,,,,,,,,,,,,,1.0,0.0,0.0,1.0,0.45702,0.873474,-0.020743,1.932221,1.0,0.328925,6.112615,2.4351830000000003,13.067032000000001,0.404805,1.0,0.224204,-0.16980699999999999,-0.2851,0.141513,1.0,0.197079,-0.012941999999999999,-0.6713359999999999,2.199993,1.0,0.502789,2.265844,-43.307257,47.972568,1.0,0.385157,0.58928,0.499382,0.7147899999999999,11.0,0.0,1.0,0.0,512.0,1.0,61.52071,2.0980659999999998,2.746563,0.956702,1.438318,16.013769,23.562251999999997,9.79843,13.533888000000001,17.973398,4.875145,0.940506,1.346692,0.6428050000000001,0.960507,0.017238,0.0034950000000000003,0.010671,0.00584,0.0025629999999999997,16.397029999999997,1.348484,1.199624,1.374741,1.384887
11468,1650414128.787307,1650414128.823309,10.0,0.0,4154.358886999999,4568.205078,4246.153809,4281.025879,4197.436035,450.0,3.0,73.0,,,,0.0,4.0,0.0,4.0,0.0,4.0,33.333332,,,,,,,,5.0,0.0,0.25241199999999997,-0.45239300000000005,0.464844,0.718018,0.8808729999999999,-0.44531899999999996,-0.15332300000000001,-0.044137,-0.055666999999999994,-0.010391,,,,,,,,,,,,,,,,,,,,,,,,,,,,,,,,,,,,,,,,,,,,,,,,,,,,,,,,,,,,,,,,,
11469,1650414128.7951212,1650414128.831123,11.0,0.0,4169.743652,4611.794922,4247.692383,4280.512695,4216.410156,16202.0,3.0,73.0,,,,0.0,4.0,0.0,4.0,0.0,4.0,33.333332,,,,,,,,,,,,,,,,,,,,,,,,,,,,,,,,,,,,,,,,,,,,,,,,,,,,,,,,,,,,,,,,,,,,,,,,,,,,,,,,,,,,
11470,1650414128.8029358,1650414128.838838,12.0,0.0,4174.871582,4641.538574,4247.179688,4280.512695,4230.256348,450.0,3.0,73.0,,,,0.0,4.0,0.0,4.0,0.0,4.0,33.333332,,,,,,,,6.0,0.0,0.25241199999999997,-0.45239300000000005,0.464844,0.718018,0.9116350000000001,-0.44385399999999997,-0.14941600000000002,-0.044704,-0.055617999999999994,-0.006520000000000001,,,,,,,,,,,,,,,,,,,,,,,,,,,,,,,,,,,,,,,,,,,,,,,,,,,,,,,,,,,,,,,,,
11471,1650414128.81075,1650414128.846653,13.0,0.0,4153.846191,4604.615234000001,4247.179688,4280.512695,4227.692383,450.0,3.0,73.0,,,,0.0,4.0,0.0,4.0,0.0,4.0,33.333332,,,,,,,,,,,,,,,,,,,,,,,,,,,,,,,,,,,,,,,,,,,,,,,,,,,,,,11.0,0.0,1.0,0.0,512.0,1.0,,,,,,,,,,,,,,,,,,,,,,,,,
11472,1650414128.8185651,1650414128.854367,14.0,0.0,4134.871582,4583.077147999999,4250.256348,4280.512695,4232.307617,450.0,3.0,73.0,,,,0.0,4.0,0.0,4.0,0.0,4.0,33.333332,,,,,,,,7.0,0.0,0.25241199999999997,-0.45239300000000005,0.464844,0.718018,0.9072399999999999,-0.446296,-0.15674100000000002,-0.045068000000000004,-0.055672,-0.00577,,,,,,,,,,,,,,,,,,,,,,,,,,,,,,,,,,,,,,,,,,,,,,,,,,,,,,,,,,,,,,,,,
11473,1650414128.8263788,1650414128.8621821,15.0,0.0,4152.820313,4650.769043,4250.769043,4280.512695,4227.692383,16202.0,3.0,73.0,,,,0.0,4.0,0.0,4.0,0.0,4.0,33.333332,,,,,,,,,,,,,,,,,,,,,,,,,,,,,,,,,,,,,,,,,,,,,,,,,,,,,,,,,,,,,,,,,,,,,,,,,,,,,,,,,,,,
11474,1650414128.834194,1650414128.8698971,16.0,0.0,4169.743652,4689.743652,4246.153809,4280.512695,4208.717772999999,0.0,3.0,73.0,,,,0.0,4.0,0.0,4.0,0.0,4.0,33.333332,,,,,,,,8.0,0.0,0.25241199999999997,-0.45239300000000005,0.464844,0.718018,0.892592,-0.442878,-0.164553,-0.045395,-0.055769000000000006,-0.008513,,,,,,,,,,,,,,,,,,,,,,,,,,,,,,,,,,,,,,,,,,,,,,,,,,,,,,,,,,,,,,,,,
11475,1650414128.842008,1650414128.877611,17.0,0.0,4133.333496,4656.922852000001,4235.384765999999,4280.512695,4218.461426,0.0,3.0,73.0,,,,0.0,4.0,0.0,4.0,0.0,4.0,33.333332,,,,,,,,,,,,,,,,,,,,,,,,,,,,,,,,,,,,,,,,,,,,,,,,,,,,,,11.0,0.0,1.0,0.0,512.0,1.0,,,,,,,,,,,,,,,,,,,,,,,,,
11476,1650414128.849823,1650414128.885426,18.0,0.0,4104.102539,4645.641113000001,4226.153809,4281.025879,4244.102539,0.0,3.0,73.0,,,,0.0,4.0,0.0,4.0,0.0,4.0,33.333332,,,,,,,,9.0,0.0,0.25241199999999997,-0.45239300000000005,0.464844,0.718018,0.9028459999999999,-0.42822899999999997,-0.151369,-0.045738,-0.055807,-0.00483,,,,,,,,,,,,,,,,,,,,,,,,,,,,,,,,,,,,,,,,,,,,,,,,,,,,,,,,,,,,,,,,,
11477,1650414128.857637,1650414128.893141,19.0,0.0,4134.358886999999,4661.538574,4232.820313,4280.512695,4237.94873,0.0,3.0,73.0,,,,0.0,4.0,0.0,4.0,0.0,4.0,33.333332,,,,,,,,,,,,,,,,,,,,,,,,,,,,,,,,,,,,,,,,,,,,,,,,,,,,,,,,,,,,,,,,,,,,,,,,,,,,,,,,,,,,
11478,1650414128.865452,1650414128.900856,20.0,0.0,4152.820313,4662.05127,4243.589844,4278.974121,4218.974121,0.0,3.0,73.0,,,,0.0,4.0,0.0,4.0,0.0,4.0,33.333332,,,,,,,,10.0,0.0,0.253106,-0.45239300000000005,0.464844,0.717773,0.9150530000000001,-0.43457700000000005,-0.161624,-0.044583,-0.055792999999999995,-0.007765,,,,,,,,,,,,,,,,,,,,,,,,,,,,,,,,,,,,,,,,,,,,,,,,,,,,,,,,,,,,,,,,,
11479,1650414128.873266,1650414128.90867,21.0,0.0,4120.0,4681.538574,4237.436035,4279.487305,4231.794922,0.0,3.0,73.0,,,,0.0,4.0,0.0,4.0,0.0,4.0,33.333332,,,,,,,,,,,,,,,,,,,,,,,,,,,,,,,,,,,,,,,,,,,,,,,,,,,,,,0.0,0.0,1.0,0.0,512.0,1.0,,,,,,,,,,,,,,,,,,,,,,,,,
11480,1650414128.881081,1650414128.916385,22.0,0.0,4101.025879,4683.077147999999,4228.717772999999,4280.512695,4251.282227000001,0.0,3.0,73.0,,,,0.0,4.0,0.0,4.0,0.0,4.0,33.333332,,,,,,,,11.0,0.0,0.253106,-0.45239300000000005,0.464844,0.717773,0.894545,-0.43946,-0.164553,-0.043542000000000004,-0.055829,-0.006842,,,,,,,,,,,,,,,,,,,,,,,,,,,,,,,,,,,,,,,,,,,,,,,,,,,,,,,,,,,,,,,,,
11481,1650414128.888895,1650414128.9242,23.0,0.0,4112.307617,4619.487305,4237.436035,4280.512695,4241.025879,0.0,3.0,73.0,,,,0.0,4.0,0.0,4.0,0.0,4.0,33.333332,,,,,,,,,,,,,,,,,,,,,,,,,,,,,,,,,,,,,,,,,,,,,,,,,,,,,,,,,,,,,,,,,,,,,,,,,,,,,,,,,,,,
11482,1650414128.89671,1650414128.932014,24.0,0.0,4109.230957,4587.179688,4246.666504,4280.0,4227.692383,0.0,3.0,73.0,,,,0.0,4.0,0.0,4.0,0.0,4.0,33.333332,,,,,,,,12.0,0.0,0.253106,-0.45239300000000005,0.464844,0.717773,0.8881969999999999,-0.43457700000000005,-0.165042,-0.042557,-0.055764,-0.009576000000000001,,,,,,,,,,,,,,,,,,,,,,,,,,,,,,,,,,,,,,,,,,,,,,,,,,,,,,,,,,,,,,,,,
11483,1650414128.904524,1650414128.939729,25.0,0.0,4107.179688,4614.358886999999,4245.641113000001,4278.974121,4229.743652,0.0,3.0,73.0,,,,0.0,4.0,0.0,4.0,0.0,4.0,33.333332,,,,,,,,,,,,,,,,,,,,1.0,0.0,0.0,,,,,,,,,,,,,,,,,,,,,,,,,,,,,,,,0.0,0.0,1.0,0.0,512.0,1.0,131.125916,3.7595739999999997,4.379619,1.618763,1.564237,38.053089,26.921633,9.627868,14.578951000000002,19.289137,6.472106,0.784515,1.359916,0.6206050000000001,1.116334,0.032973,0.0056549999999999994,0.011668000000000001,0.006058,0.002621,27.656981,2.205103,1.434102,1.312603,1.6913639999999999
11484,1650414128.912339,1650414128.947444,26.0,0.0,4122.563965,4644.615234000001,4248.205078,4278.461426,4232.307617,0.0,3.0,73.0,,,,0.0,4.0,0.0,4.0,0.0,4.0,33.333332,,,,,,,,13.0,0.0,0.252657,-0.45239300000000005,0.465088,0.717773,0.892592,-0.448737,-0.169924,-0.043282,-0.055754,-0.011939,,,,,,,,,,,,,,,,,,,,,,,,,,,,,,,,,,,,,,,,,,,,,,,,,,,,,,,,,,,,,,,,,
11485,1650414128.9201539,1650414128.955258,27.0,0.0,4124.102539,4663.077147999999,4245.128418,4278.974121,4231.794922,0.0,3.0,73.0,,,,0.0,4.0,0.0,4.0,0.0,4.0,33.333332,,,,,,,,,,,,,,,,,,,,,,,,,,,,,,,,,,,,,,,,,,,,,,,,,,,,,,,,,,,,,,,,,,,,,,,,,,,,,,,,,,,,
11486,1650414128.927968,1650414128.962973,28.0,0.0,4112.307617,4633.846191,4237.94873,4278.974121,4230.769043,0.0,3.0,73.0,,,,0.0,4.0,0.0,4.0,0.0,4.0,33.333332,,,,,,,,14.0,0.0,0.253094,-0.45214799999999994,0.465088,0.717773,0.886732,-0.43946,-0.160647,-0.043886,-0.055794,-0.014113999999999998,,,,,,,,,,,,,,,,,,,,,,,,,,,,,,,,,,,,,,,,,,,,,,,,,,,,,,,,,,,,,,,,,
11487,1650414128.935783,1650414128.970788,29.0,0.0,4115.384765999999,4601.538574,4246.153809,4278.461426,4228.717772999999,0.0,3.0,73.0,,,,0.0,4.0,0.0,4.0,0.0,4.0,33.333332,,,,,,,,,,,,,,,,,,,,,,,,,,,,,,,,,,,,,,,,,,,,,,,,,,,,,,0.0,0.0,1.0,0.0,512.0,1.0,,,,,,,,,,,,,,,,,,,,,,,,,
11488,1650414128.943597,1650414128.978503,30.0,0.0,4115.897461,4632.820313,4250.256348,4278.461426,4229.230957,0.0,3.0,73.0,,,,0.0,4.0,0.0,4.0,0.0,4.0,33.333332,,,,,,,,15.0,0.0,0.253542,-0.45214799999999994,0.464844,0.717773,0.8896620000000001,-0.42822899999999997,-0.15967,-0.044525999999999996,-0.05583,-0.015974000000000002,,,,,,,,,,,,,,,,,,,,,,,,,,,,,,,,,,,,,,,,,,,,,,,,,,,,,,,,,,,,,,,,,
11489,1650414128.951412,1650414128.986217,31.0,0.0,4092.820557,4635.897461,4239.487305,4279.487305,4235.897461,0.0,3.0,73.0,,,,0.0,4.0,0.0,4.0,0.0,4.0,33.333332,,,,,,,,,,,,,,,,,,,,,,,,,,,,,,,,,,,,,,,,,,,,,,,,,,,,,,,,,,,,,,,,,,,,,,,,,,,,,,,,,,,,
11490,1650414128.959226,1650414128.9940321,32.0,0.0,4081.025635,4608.717772999999,4245.641113000001,4279.487305,4236.410156,0.0,3.0,73.0,,,,0.0,4.0,0.0,4.0,0.0,4.0,33.333332,,,,,,,,16.0,0.0,0.252861,-0.45239300000000005,0.4646,0.718018,0.8960100000000001,-0.433112,-0.147951,-0.045005,-0.055862,-0.011496,,,,,,,,,,,,,,,,,,,,,,,,,,,,,,,,,,,,,,,,,,,,,,,,,,,,,,,,,,,,,,,,,
11491,1650414128.967041,1650414129.001847,33.0,0.0,4105.641113000001,4647.692383,4258.461426,4280.0,4226.153809,0.0,3.0,73.0,,,,0.0,4.0,0.0,4.0,0.0,4.0,33.333332,,,,,,,,,,,,,,,,,,,,,,,,,,,,,,,,,,,,,,,,,,,,,,,,,,,,,,0.0,0.0,1.0,0.0,512.0,1.0,,,,,,,,,,,,,,,,,,,,,,,,,
11492,1650414128.9748552,1650414129.0095608,34.0,0.0,4124.615234000001,4658.461426,4257.436035,4281.025879,4233.846191,0.0,3.0,73.0,,,,0.0,4.0,0.0,4.0,0.0,4.0,33.333332,,,,,,,,17.0,0.0,0.252861,-0.45239300000000005,0.4646,0.718018,0.8916149999999999,-0.43994799999999995,-0.164553,-0.043825,-0.055989,-0.013862000000000001,,,,,,,,,,,,,,,,,,,,,,,,,,,,,,,,,,,,,,,,,,,,,,,,,,,,,,,,,,,,,,,,,
11493,1650414128.9826698,1650414129.017276,35.0,0.0,4110.256348,4626.153809,4255.384765999999,4280.512695,4250.769043,0.0,3.0,73.0,,,,0.0,4.0,0.0,4.0,0.0,4.0,33.333332,,,,,,,,,,,,,,,,,,,,,,,,,,,,,,,,,,,,,,,,,,,,,,,,,,,,,,,,,,,,,,,,,,,,,,,,,,,,,,,,,,,,
11494,1650414128.990484,1650414129.025091,36.0,0.0,4096.922852000001,4660.0,4257.94873,4278.974121,4247.692383,0.0,3.0,73.0,,,,0.0,4.0,0.0,4.0,0.0,4.0,33.333332,,,,,,,,18.0,0.0,0.252861,-0.45239300000000005,0.4646,0.718018,0.8989389999999999,-0.44776099999999996,-0.160647,-0.044374000000000004,-0.055859000000000006,-0.009595000000000001,,,,,,,,,,,,,,,,,,,,,,,,,,,,,,,,,,,,,,,,,,,,,,,,,,,,,,,,,,,,,,,,,
11495,1650414128.9982991,1650414129.032905,37.0,0.0,4104.615234000001,4680.0,4262.563965,4278.461426,4252.307617,0.0,3.0,73.0,,,,0.0,4.0,0.0,4.0,0.0,4.0,33.333332,,,,,,,,,,,,,,,,,,,,,,,,,,,,,,,,,,,,,,,,,,,,,,,,,,,,,,0.0,0.0,1.0,0.0,512.0,1.0,,,,,,,,,,,,,,,,,,,,,,,,,
11496,1650414129.006113,1650414129.0406199,38.0,0.0,4103.077147999999,4658.461426,4267.179688,4278.974121,4269.743652,0.0,3.0,73.0,,,,0.0,4.0,0.0,4.0,0.0,4.0,33.333332,,,,,,,,19.0,0.0,0.252861,-0.45239300000000005,0.4646,0.718018,0.8994280000000001,-0.437507,-0.15674100000000002,-0.043209,-0.05579099999999999,-0.008489,,,,,,,,,,,,,,,,,,,,,,,,,,,,,,,,,,,,,,,,,,,,,,,,,,,,,,,,,,,,,,,,,
11497,1650414129.013928,1650414129.048435,39.0,0.0,4101.538574,4690.769043,4270.769043,4278.461426,4269.743652,0.0,3.0,73.0,,,,0.0,4.0,0.0,4.0,0.0,4.0,33.333332,,,,,,,,,,,,,,,,,,,,,,,,,,,,,,,,,,,,,,,,,,,,,,,,,,,,,,,,,,,,,,,,,,,,,,,,,,,,,,,,,,,,
11498,1650414129.021742,1650414129.05615,40.0,0.0,4114.871582,4689.230957,4275.897461,4278.461426,4267.692383,0.0,3.0,73.0,,,,0.0,4.0,0.0,4.0,0.0,4.0,33.333332,,,,,,,,20.0,0.0,0.252861,-0.45239300000000005,0.4646,0.718018,0.8955209999999999,-0.44385399999999997,-0.163577,-0.044015,-0.055728999999999994,-0.004759,,,,,,,,,,,,,,,,,,,,,,,,,,,,,,,,,,,,,,,,,,,,,,,,,,,,,,,,,,,,,,,,,
11499,1650414129.029557,1650414129.0639641,41.0,0.0,4107.692383,4623.077147999999,4279.487305,4278.461426,4276.410156,0.0,3.0,73.0,,,,0.0,4.0,0.0,4.0,0.0,4.0,33.333332,,,,,,,,,,,,,,,,,,,,1.0,0.0,0.0,,,,,,,,,,,,,,,,,,,,,,,,,,,,,,,,0.0,0.0,1.0,0.0,512.0,0.545782,218.91090400000002,6.738046000000001,6.418591,2.556371,1.828324,76.956505,30.762259000000004,10.390889,17.326258,21.272898,8.344053,0.762614,1.435546,0.639376,1.300282,0.051077,0.009529000000000001,0.013788,0.007702,0.003045,40.256527,3.699625,1.7531259999999997,1.3020399999999999,2.0474
11500,1650414129.037372,1650414129.0716789,42.0,0.0,4087.179443,4666.666504,4270.769043,4278.461426,4270.256348,0.0,3.0,73.0,,,,0.0,4.0,0.0,4.0,0.0,4.0,33.333332,,,,,,,,21.0,0.0,0.252861,-0.45239300000000005,0.4646,0.718018,0.8921030000000001,-0.442878,-0.161624,-0.044594,-0.055723,-0.0076040000000000005,,,,,,,,,,,,,,,,,,,,,,,,,,,,,,,,,,,,,,,,,,,,,,,,,,,,,,,,,,,,,,,,,
11501,1650414129.045186,1650414129.0793939,43.0,0.0,4103.077147999999,4733.846191,4266.153809,4278.974121,4271.282227000001,0.0,3.0,73.0,,,,0.0,4.0,0.0,4.0,0.0,4.0,33.333332,,,,,,,,,,,,,,,,,,,,,,,,,,,,,,,,,,,,,,,,,,,,,,,,,,,,,,,,,,,,,,,,,,,,,,,,,,,,,,,,,,,,
11502,1650414129.053001,1650414129.087208,44.0,0.0,4126.666504,4647.179688,4282.05127,4278.461426,4283.077147999999,0.0,3.0,73.0,,,,0.0,4.0,0.0,4.0,0.0,4.0,33.333332,,,,,,,,22.0,0.0,0.253106,-0.45239300000000005,0.464844,0.717773,0.897963,-0.445808,-0.166506,-0.043406,-0.055667999999999995,-0.006697,,,,,,,,,,,,,,,,,,,,,,,,,,,,,,,,,,,,,,,,,,,,,,,,,,,,,,,,,,,,,,,,,
11503,1650414129.060815,1650414129.094923,45.0,0.0,4097.436035,4590.256348,4281.538574,4277.94873,4262.05127,0.0,3.0,73.0,,,,0.0,4.0,0.0,4.0,0.0,4.0,33.333332,,,,,,,,,,,,,,,,,,,,,,,,,,,,,,,,,,,,,,,,,,,,,,,,,,,,,,0.0,0.0,1.0,0.0,512.0,0.545782,,,,,,,,,,,,,,,,,,,,,,,,,
11504,1650414129.06863,1650414129.1027381,46.0,0.0,4071.794922,4655.384765999999,4264.615234000001,4278.974121,4237.436035,0.0,3.0,73.0,,,,0.0,4.0,0.0,4.0,0.0,4.0,33.333332,,,,,,,,23.0,0.0,0.252849,-0.45214799999999994,0.464844,0.718018,0.8838030000000001,-0.446296,-0.156252,-0.042288,-0.055667999999999995,-0.009347,,,,,,,,,,,,,,,,,,,,,,,,,,,,,,,,,,,,,,,,,,,,,,,,,,,,,,,,,,,,,,,,,
11505,1650414129.076444,1650414129.110452,47.0,0.0,4095.384521,4671.794922,4262.05127,4278.974121,4246.153809,0.0,3.0,73.0,,,,0.0,4.0,0.0,4.0,0.0,4.0,33.333332,,,,,,,,,,,,,,,,,,,,,,,,,,,,,,,,,,,,,,,,,,,,,,,,,,,,,,,,,,,,,,,,,,,,,,,,,,,,,,,,,,,,
11506,1650414129.084259,1650414129.118267,48.0,0.0,4097.436035,4612.307617,4265.128418,4277.436035,4261.538574,0.0,3.0,73.0,,,,0.0,4.0,0.0,4.0,0.0,4.0,33.333332,,,,,,,,24.0,0.0,0.252849,-0.45214799999999994,0.464844,0.718018,0.8955209999999999,-0.447272,-0.166506,-0.042893,-0.05561900000000001,-0.008265999999999999,,,,,,,,,,,,,,,,,,,,,,,,,,,,,,,,,,,,,,,,,,,,,,,,,,,,,,,,,,,,,,,,,
11507,1650414129.092073,1650414129.125982,49.0,0.0,4073.8461909999996,4594.358886999999,4262.563965,4277.94873,4266.666504,0.0,3.0,73.0,,,,0.0,4.0,0.0,4.0,0.0,4.0,33.333332,,,,,,,,,,,,,,,,,,,,,,,,,,,,,,,,,,,,,,,,,,,,,,,,,,,,,,0.0,0.0,1.0,0.0,512.0,0.545782,,,,,,,,,,,,,,,,,,,,,,,,,
11508,1650414129.099888,1650414129.1337972,50.0,0.0,4085.641113,4608.717772999999,4268.205078,4278.974121,4251.282227000001,0.0,3.0,73.0,,,,0.0,4.0,0.0,4.0,0.0,4.0,33.333332,,,,,,,,25.0,0.0,0.252849,-0.45214799999999994,0.464844,0.718018,0.8969860000000001,-0.431159,-0.163088,-0.042022000000000004,-0.055623,-0.010858,,,,,,,,,,,,,,,,,,,,,,,,,,,,,,,,,,,,,,,,,,,,,,,,,,,,,,,,,,,,,,,,,
11509,1650414129.107702,1650414129.141511,51.0,0.0,4105.641113000001,4588.205078,4279.487305,4278.974121,4237.94873,0.0,3.0,73.0,,,,0.0,4.0,0.0,4.0,0.0,4.0,33.333332,,,,,,,,,,,,,,,,,,,,,,,,,,,,,,,,,,,,,,,,,,,,,,,,,,,,,,,,,,,,,,,,,,,,,,,,,,,,,,,,,,,,
11510,1650414129.115517,1650414129.149326,52.0,0.0,4094.8718259999996,4616.410156,4276.410156,4278.974121,4262.05127,0.0,3.0,73.0,,,,0.0,4.0,0.0,4.0,0.0,4.0,33.333332,,,,,,,,26.0,0.0,0.252861,-0.45239300000000005,0.4646,0.718018,0.902358,-0.44190100000000004,-0.167483,-0.042654000000000004,-0.055675999999999996,-0.01319,,,,,,,,,,,,,,,,,,,,,,,,,,,,,,,,,,,,,,,,,,,,,,,,,,,,,,,,,,,,,,,,,
11511,1650414129.123331,1650414129.157041,53.0,0.0,4087.6923829999996,4691.282227000001,4264.615234000001,4278.974121,4285.641113000001,0.0,3.0,73.0,,,,0.0,4.0,0.0,4.0,0.0,4.0,33.333332,,,,,,,,,,,,,,,,,,,,,,,,,,,,,,,,,,,,,,,,,,,,,,,,,,,,,,0.0,0.0,1.0,0.0,512.0,0.545782,,,,,,,,,,,,,,,,,,,,,,,,,
11512,1650414129.1311462,1650414129.164855,54.0,0.0,4091.794922,4704.102539,4261.538574,4278.974121,4269.743652,0.0,3.0,73.0,,,,0.0,4.0,0.0,4.0,0.0,4.0,33.333332,,,,,,,,27.0,0.0,0.253298,-0.45214799999999994,0.4646,0.718018,0.9077290000000001,-0.446296,-0.161135,-0.043369,-0.055724,-0.015288999999999999,,,,,,,,,,,,,,,,,,,,,,,,,,,,,,,,,,,,,,,,,,,,,,,,,,,,,,,,,,,,,,,,,
11513,1650414129.13896,1650414129.17257,55.0,0.0,4091.281982,4665.641113000001,4268.717772999999,4280.0,4250.256348,0.0,3.0,73.0,,,,0.0,4.0,0.0,4.0,0.0,4.0,33.333332,,,,,,,,,,,,,,,,,,,,,,,,,,,,,,,,,,,,,,,,,,,,,,,,,,,,,,,,,,,,,,,,,,,,,,,,,,,,,,,,,,,,
11514,1650414129.146775,1650414129.1803849,56.0,0.0,4099.487305,4639.487305,4275.897461,4279.487305,4265.641113000001,0.0,3.0,73.0,,,,0.0,4.0,0.0,4.0,0.0,4.0,33.333332,,,,,,,,28.0,0.0,0.253298,-0.45214799999999994,0.4646,0.718018,0.89015,-0.446784,-0.152346,-0.044013,-0.055767,-0.013613,,,,,,,,,,,,,,,,,,,,,,,,,,,,,,,,,,,,,,,,,,,,,,,,,,,,,,,,,,,,,,,,,
11515,1650414129.1545901,1650414129.188099,57.0,0.0,4112.307617,4636.410156,4278.461426,4274.871582,4293.846191,0.0,3.0,73.0,,,,0.0,4.0,0.0,4.0,0.0,4.0,33.333332,,,,,,,,,,,,,,,,,,,,1.0,0.0,0.0,,,,,,,,,,,,,,,,,,,,,,,,,,,,,,,,0.0,0.0,1.0,0.0,512.0,0.792514,302.96749900000003,10.537230000000001,8.299575,3.566958,2.212668,127.75833100000001,34.697071,12.224787,21.081381,23.565687,10.169508,0.864562,1.5523799999999999,0.673575,1.4755969999999998,0.067062,0.014765,0.016619,0.010577,0.0037869999999999996,50.350571,5.547586,2.0509779999999997,1.354395,2.373945
11516,1650414129.1624038,1650414129.195914,58.0,0.0,4106.666504,4631.794922,4278.461426,4274.358886999999,4291.282227000001,0.0,3.0,73.0,,,,0.0,4.0,0.0,4.0,0.0,4.0,33.333332,,,,,,,,29.0,0.0,0.252849,-0.45214799999999994,0.464844,0.718018,0.8994280000000001,-0.44971400000000006,-0.170901,-0.044397000000000006,-0.055805999999999994,-0.015571999999999999,,,,,,,,,,,,,,,,,,,,,,,,,,,,,,,,,,,,,,,,,,,,,,,,,,,,,,,,,,,,,,,,,
11517,1650414129.170219,1650414129.203629,59.0,0.0,4092.3076170000004,4620.512695,4276.922852000001,4277.94873,4265.641113000001,0.0,3.0,73.0,,,,0.0,4.0,0.0,4.0,0.0,4.0,33.333332,,,,,,,,,,,,,,,,,,,,,,,,,,,,,,,,,,,,,,,,,,,,,,,,,,,,,,,,,,,,,,,,,,,,,,,,,,,,,,,,,,,,
11518,1650414129.178033,1650414129.211443,60.0,0.0,4094.8718259999996,4615.897461,4276.922852000001,4280.0,4264.102539,0.0,3.0,73.0,,,,0.0,4.0,0.0,4.0,0.0,4.0,33.333332,,,,,,,,30.0,0.0,0.252849,-0.45214799999999994,0.464844,0.718018,0.903334,-0.43457700000000005,-0.163088,-0.04484,-0.05579099999999999,-0.017384,,,,,,,,,,,,,,,,,,,,,,,,,,,,,,,,,,,,,,,,,,,,,,,,,,,,,,,,,,,,,,,,,
11519,1650414129.185848,1650414129.219158,61.0,0.0,4105.128418,4649.230957,4277.94873,4278.974121,4287.692383,0.0,3.0,73.0,,,,0.0,4.0,0.0,4.0,0.0,4.0,33.333332,,,,,,,,,,,,,,,,,,,,,,,,,,,,,,,,,,,,,,,,,,,,,,,,,,,,,,0.0,0.0,1.0,0.0,512.0,0.792514,,,,,,,,,,,,,,,,,,,,,,,,,
11520,1650414129.193662,1650414129.226973,62.0,0.0,4105.641113000001,4652.820313,4275.897461,4277.94873,4288.717772999999,0.0,3.0,73.0,,,,0.0,4.0,0.0,4.0,0.0,4.0,33.333332,,,,,,,,31.0,0.0,0.253298,-0.45214799999999994,0.4646,0.718018,0.897475,-0.446784,-0.170901,-0.045336,-0.055827999999999996,-0.015597,,,,,,,,,,,,,,,,,,,,,,,,,,,,,,,,,,,,,,,,,,,,,,,,,,,,,,,,,,,,,,,,,
11521,1650414129.201477,1650414129.234688,63.0,0.0,4102.563965,4598.974121,4266.153809,4281.538574,4277.94873,0.0,3.0,73.0,,,,0.0,4.0,0.0,4.0,0.0,4.0,33.333332,,,,,,,,,,,,,,,,,,,,,,,,,,,,,,,,,,,,,,,,,,,,,,,,,,,,,,,,,,,,,,,,,,,,,,,,,,,,,,,,,,,,
11522,1650414129.209291,1650414129.242502,64.0,0.0,4089.2307130000004,4613.333496,4251.282227000001,4280.0,4263.077147999999,450.0,3.0,73.0,,,,0.0,4.0,0.0,4.0,0.0,4.0,33.333332,,,,,,,,32.0,0.0,0.253298,-0.45214799999999994,0.4646,0.718018,0.886244,-0.42627600000000004,-0.166995,-0.044172,-0.05586,-0.013988999999999998,,,,,,,,,,,,,,,,,,,,,,,,,,,,,,,,,,,,,,,,,,,,,,,,,,,,,,,,,,,,,,,,,
11523,1650414129.217106,1650414129.250217,65.0,0.0,4067.6923829999996,4681.538574,4246.153809,4273.333496,4235.897461,450.0,3.0,73.0,,,,0.0,4.0,0.0,4.0,0.0,4.0,33.333332,,,,,,,,,,,,,,,,,,,,,,,,,,,,,,,,,,,,,,,,,,,,,,,,,,,,,,0.0,0.0,1.0,0.0,512.0,0.792514,,,,,,,,,,,,,,,,,,,,,,,,,
11524,1650414129.22492,1650414129.257932,66.0,0.0,4064.615479,4665.128418,4254.358886999999,4272.820313,4235.384765999999,16214.0,3.0,73.0,,,,0.0,4.0,0.0,4.0,0.0,4.0,33.333332,,,,,,,,33.0,0.0,0.252849,-0.45214799999999994,0.464844,0.718018,0.903334,-0.43457700000000005,-0.163088,-0.044442,-0.055889999999999995,-0.012492,,,,,,,,,,,,,,,,,,,,,,,,,,,,,,,,,,,,,,,,,,,,,,,,,,,,,,,,,,,,,,,,,
11525,1650414129.232735,1650414129.265746,67.0,0.0,4076.923096,4608.205078,4256.922852000001,4276.922852000001,4257.436035,450.0,3.0,73.0,,,,0.0,4.0,0.0,4.0,0.0,4.0,33.333332,,,,,,,,,,,,,,,,,,,,,,,,,,,,,,,,,,,,,,,,,,,,,,,,,,,,,,,,,,,,,,,,,,,,,,,,,,,,,,,,,,,,
11526,1650414129.240549,1650414129.2734609,68.0,0.0,4092.3076170000004,4617.94873,4249.230957,4276.410156,4271.282227000001,2.0,3.0,73.0,,,,0.0,4.0,0.0,4.0,0.0,4.0,33.333332,,,,,,,,34.0,0.0,0.253298,-0.45214799999999994,0.4646,0.718018,0.886244,-0.42627600000000004,-0.166995,-0.043367,-0.055915999999999993,-0.011193999999999999,,,,,,,,,,,,,,,,,,,,,,,,,,,,,,,,,,,,,,,,,,,,,,,,,,,,,,,,,,,,,,,,,
11527,1650414129.248364,1650414129.281276,69.0,0.0,4109.743652,4651.794922,4252.820313,4273.333496,4282.05127,450.0,3.0,73.0,,,,0.0,4.0,0.0,4.0,0.0,4.0,33.333332,,,,,,,,,,,,,,,,,,,,,,,,,,,,,,,,,,,,,,,,,,,,,,,,,,,,,,0.0,0.0,1.0,0.0,512.0,0.792514,,,,,,,,,,,,,,,,,,,,,,,,,
11528,1650414129.2561789,1650414129.2890902,70.0,0.0,4111.282227000001,4629.230957,4267.692383,4272.820313,4276.922852000001,16128.0,3.0,73.0,,,,0.0,4.0,0.0,4.0,0.0,4.0,33.333332,,,,,,,,35.0,0.0,0.253298,-0.45214799999999994,0.4646,0.718018,0.881849,-0.449226,-0.1626,-0.043864999999999994,-0.05594,-0.013493000000000002,,,,,,,,,,,,,,,,,,,,,,,,,,,,,,,,,,,,,,,,,,,,,,,,,,,,,,,,,,,,,,,,,
11529,1650414129.263993,1650414129.2968051,71.0,0.0,4090.256348,4605.128418,4267.692383,4272.307617,4256.410156,450.0,3.0,73.0,,,,0.0,4.0,0.0,4.0,0.0,4.0,33.333332,,,,,,,,,,,,,,,,,,,,,,,,,,,,,,,,,,,,,,,,,,,,,,,,,,,,,,,,,,,,,,,,,,,,,,,,,,,,,,,,,,,,
11530,1650414129.271808,1650414129.30452,72.0,0.0,4087.179443,4632.820313,4261.538574,4272.307617,4269.743652,450.0,3.0,73.0,,,,0.0,4.0,0.0,4.0,0.0,4.0,33.333332,,,,,,,,36.0,0.0,0.253298,-0.45214799999999994,0.4646,0.718018,0.8930799999999999,-0.44434300000000004,-0.161624,-0.042847,-0.056010000000000004,-0.015561000000000002,,,,,,,,,,,,,,,,,,,,,,,,,,,,,,,,,,,,,,,,,,,,,,,,,,,,,,,,,,,,,,,,,
11531,1650414129.279622,1650414129.3122349,73.0,0.0,4100.0,4669.230957,4266.666504,4276.922852000001,4286.153809,0.0,3.0,73.0,,,,0.0,4.0,0.0,4.0,0.0,4.0,33.333332,0.972656,8.333333,1.0,0.0,4.0,0.0,4.0,,,,,,,,,,,,,1.0,0.0,0.0,,,,,,,,,,,,,,,,,,,,,,,,,,,,,,,,0.0,0.0,1.0,0.0,512.0,1.0,358.87005600000003,14.100368,9.380977,4.35695,2.629998,177.755157,37.895901,14.752355999999999,24.557655,25.332836,11.327456,1.022032,1.6454099999999998,0.701176,1.58874,0.07594,0.020201,0.019269,0.013793000000000001,0.004645000000000001,54.584503000000005,7.236519,2.212606,1.429656,2.582744
11532,1650414129.287437,1650414129.320049,74.0,0.0,4087.6923829999996,4682.05127,4256.922852000001,4281.025879,4254.871582,450.0,3.0,73.0,,,,0.0,4.0,0.0,4.0,0.0,4.0,33.333332,,,,,,,,37.0,0.0,0.253298,-0.45214799999999994,0.4646,0.718018,0.8969860000000001,-0.45410900000000004,-0.160647,-0.043348000000000005,-0.056122000000000005,-0.011173,,,,,,,,,,,,,,,,,,,,,,,,,,,,,,,,,,,,,,,,,,,,,,,,,,,,,,,,,,,,,,,,,
11533,1650414129.295251,1650414129.327764,75.0,0.0,4083.076904,4695.384765999999,4242.563965,4278.974121,4245.128418,16199.0,3.0,73.0,,,,0.0,4.0,0.0,4.0,0.0,4.0,33.333332,,,,,,,,,,,,,,,,,,,,,,,,,,,,,,,,,,,,,,,,,,,,,,,,,,,,,,,,,,,,,,,,,,,,,,,,,,,,,,,,,,,,
11534,1650414129.303066,1650414129.335579,76.0,0.0,4105.128418,4689.230957,4254.358886999999,4275.384765999999,4269.743652,450.0,3.0,73.0,,,,0.0,4.0,0.0,4.0,0.0,4.0,33.333332,,,,,,,,38.0,0.0,0.253298,-0.45214799999999994,0.4646,0.718018,0.891127,-0.4336,-0.167971,-0.043896,-0.055978,-0.013425,,,,,,,,,,,,,,,,,,,,,,,,,,,,,,,,,,,,,,,,,,,,,,,,,,,,,,,,,,,,,,,,,
11535,1650414129.3108802,1650414129.343293,77.0,0.0,4114.358886999999,4656.922852000001,4264.102539,4277.436035,4270.769043,450.0,3.0,73.0,,,,0.0,4.0,0.0,4.0,0.0,4.0,33.333332,,,,,,,,,,,,,,,,,,,,,,,,,,,,,,,,,,,,,,,,,,,,,,,,,,,,,,0.0,0.0,1.0,0.0,512.0,1.0,,,,,,,,,,,,,,,,,,,,,,,,,
11536,1650414129.3186948,1650414129.351108,78.0,0.0,4106.666504,4649.743652,4246.666504,4276.922852000001,4260.512695,450.0,3.0,73.0,,,,0.0,4.0,0.0,4.0,0.0,4.0,33.333332,,,,,,,,39.0,0.0,0.253298,-0.45214799999999994,0.4646,0.718018,0.894057,-0.44434300000000004,-0.16211199999999998,-0.042924000000000004,-0.055947000000000004,-0.015354,,,,,,,,,,,,,,,,,,,,,,,,,,,,,,,,,,,,,,,,,,,,,,,,,,,,,,,,,,,,,,,,,
11537,1650414129.326509,1650414129.358823,79.0,0.0,4108.717772999999,4636.922852000001,4232.307617,4271.794922,4260.512695,16199.0,3.0,73.0,,,,0.0,4.0,0.0,4.0,0.0,4.0,33.333332,,,,,,,,,,,,,,,,,,,,,,,,,,,,,,,,,,,,,,,,,,,,,,,,,,,,,,,,,,,,,,,,,,,,,,,,,,,,,,,,,,,,
11538,1650414129.3343241,1650414129.3666382,80.0,0.0,4103.589844,4590.769043,4238.461426,4271.282227000001,4259.487305,450.0,3.0,73.0,,,,0.0,4.0,0.0,4.0,0.0,4.0,33.333332,,,,,,,,40.0,0.0,0.253298,-0.45214799999999994,0.4646,0.718018,0.897475,-0.430671,-0.153811,-0.043368000000000004,-0.05587,-0.017138999999999998,,,,,,,,,,,,,,,,,,,,,,,,,,,,,,,,,,,,,,,,,,,,,,,,,,,,,,,,,,,,,,,,,
11539,1650414129.342138,1650414129.374352,81.0,0.0,4090.256348,4574.871582,4246.666504,4273.333496,4257.436035,450.0,3.0,73.0,,,,0.0,4.0,0.0,4.0,0.0,4.0,33.333332,,,,,,,,,,,,,,,,,,,,,,,,,,,,,,,,,,,,,,,,,,,,,,,,,,,,,,0.0,0.0,1.0,0.0,512.0,1.0,,,,,,,,,,,,,,,,,,,,,,,,,
11540,1650414129.349953,1650414129.382167,82.0,0.0,4101.538574,4592.307617,4247.692383,4271.282227000001,4256.410156,450.0,3.0,73.0,,,,0.0,4.0,0.0,4.0,0.0,4.0,33.333332,,,,,,,,41.0,0.0,0.253745,-0.45214799999999994,0.464355,0.718018,0.891127,-0.437018,-0.15967,-0.043963,-0.055947000000000004,-0.012691,,,,,,,,,,,,,,,,,,,,,,,,,,,,,,,,,,,,,,,,,,,,,,,,,,,,,,,,,,,,,,,,,
11541,1650414129.357767,1650414129.389882,83.0,0.0,4124.102539,4619.487305,4246.153809,4269.743652,4272.307617,16199.0,3.0,73.0,,,,0.0,4.0,0.0,4.0,0.0,4.0,33.333332,,,,,,,,,,,,,,,,,,,,,,,,,,,,,,,,,,,,,,,,,,,,,,,,,,,,,,,,,,,,,,,,,,,,,,,,,,,,,,,,,,,,
11542,1650414129.365582,1650414129.3975961,84.0,0.0,4127.179688,4681.538574,4251.282227000001,4276.922852000001,4285.128418,450.0,3.0,73.0,,,,0.0,4.0,0.0,4.0,0.0,4.0,33.333332,,,,,,,,42.0,0.0,0.253298,-0.45214799999999994,0.4646,0.718018,0.9004040000000001,-0.451179,-0.157717,-0.04445,-0.055919,-0.014791,,,,,,,,,,,,,,,,,,,,,,,,,,,,,,,,,,,,,,,,,,,,,,,,,,,,,,,,,,,,,,,,,
11543,1650414129.373397,1650414129.405411,85.0,0.0,4121.025879,4719.487305,4254.871582,4280.512695,4264.615234000001,450.0,3.0,73.0,,,,0.0,4.0,0.0,4.0,0.0,4.0,33.333332,,,,,,,,,,,,,,,,,,,,,,,,,,,,,,,,,,,,,,,,,,,,,,,,,,,,,,0.0,0.0,1.0,0.0,512.0,1.0,,,,,,,,,,,,,,,,,,,,,,,,,
11544,1650414129.381211,1650414129.413226,86.0,0.0,4126.666504,4681.025879,4247.692383,4272.820313,4268.205078,450.0,3.0,73.0,,,,0.0,4.0,0.0,4.0,0.0,4.0,33.333332,,,,,,,,43.0,0.0,0.253298,-0.45214799999999994,0.4646,0.718018,0.887709,-0.433112,-0.170413,-0.045034,-0.055894000000000006,-0.013165000000000001,,,,,,,,,,,,,,,,,,,,,,,,,,,,,,,,,,,,,,,,,,,,,,,,,,,,,,,,,,,,,,,,,
11545,1650414129.389026,1650414129.42094,87.0,0.0,4125.641113000001,4673.333496,4242.05127,4269.743652,4294.358886999999,16199.0,3.0,73.0,,,,0.0,4.0,0.0,4.0,0.0,4.0,33.333332,,,,,,,,,,,,,,,,,,,,,,,,,,,,,,,,,,,,,,,,,,,,,,,,,,,,,,,,,,,,,,,,,,,,,,,,,,,,,,,,,,,,
11546,1650414129.39684,1650414129.4286551,88.0,0.0,4109.230957,4690.256348,4243.077147999999,4277.94873,4276.922852000001,450.0,3.0,73.0,,,,0.0,4.0,0.0,4.0,0.0,4.0,33.333332,,,,,,,,44.0,0.0,0.253298,-0.45214799999999994,0.4646,0.718018,0.8921030000000001,-0.45020200000000005,-0.157229,-0.045462,-0.055822000000000004,-0.015169,,,,,,,,,,,,,,,,,,,,,,,,,,,,,,,,,,,,,,,,,,,,,,,,,,,,,,,,,,,,,,,,,
11547,1650414129.404655,1650414129.43647,89.0,0.0,4106.153809,4678.974121,4241.025879,4277.94873,4251.794922,450.0,3.0,73.0,,,,0.0,4.0,0.0,4.0,0.0,4.0,33.333332,,,,,,,,,,,,,,,,,,,,1.0,0.0,0.0,,,,,,,,,,,,,,,,,,,,,,,,,,,,,,,,0.0,0.0,1.0,0.0,512.0,1.0,364.878448,16.303787,9.248557,4.665929,2.952826,211.225266,39.317642,16.924671,26.482843,25.686426,11.497451,1.155878,1.650697,0.713082,1.5923479999999999,0.074698,0.024297,0.020954,0.016306,0.0054399999999999995,51.400059000000006,8.237055,2.177938,1.46526,2.61575
11548,1650414129.412469,1650414129.444185,90.0,0.0,4105.128418,4684.102539,4233.333496,4270.256348,4257.94873,450.0,3.0,73.0,,,,0.0,4.0,0.0,4.0,0.0,4.0,33.333332,,,,,,,,45.0,0.0,0.253298,-0.45214799999999994,0.4646,0.718018,0.8813610000000001,-0.43897200000000003,-0.158694,-0.045799,-0.05575700000000001,-0.013555000000000001,,,,,,,,,,,,,,,,,,,,,,,,,,,,,,,,,,,,,,,,,,,,,,,,,,,,,,,,,,,,,,,,,
11549,1650414129.420284,1650414129.451999,91.0,0.0,4087.6923829999996,4690.256348,4227.179688,4273.846191,4250.256348,16199.0,3.0,73.0,,,,0.0,4.0,0.0,4.0,0.0,4.0,33.333332,,,,,,,,,,,,,,,,,,,,,,,,,,,,,,,,,,,,,,,,,,,,,,,,,,,,,,,,,,,,,,,,,,,,,,,,,,,,,,,,,,,,
11550,1650414129.428098,1650414129.4597142,92.0,0.0,4094.358887,4657.94873,4229.230957,4280.512695,4242.563965,450.0,3.0,73.0,,,,0.0,4.0,0.0,4.0,0.0,4.0,33.333332,,,,,,,,46.0,0.0,0.253298,-0.45214799999999994,0.4646,0.718018,0.9052870000000001,-0.437018,-0.155276,-0.046249,-0.055797,-0.012101,,,,,,,,,,,,,,,,,,,,,,,,,,,,,,,,,,,,,,,,,,,,,,,,,,,,,,,,,,,,,,,,,
11551,1650414129.435913,1650414129.4675288,93.0,0.0,4133.333496,4639.487305,4238.974121,4276.410156,4262.563965,450.0,3.0,73.0,,,,0.0,4.0,0.0,4.0,0.0,4.0,33.333332,,,,,,,,,,,,,,,,,,,,,,,,,,,,,,,,,,,,,,,,,,,,,,,,,,,,,,0.0,0.0,1.0,0.0,512.0,1.0,,,,,,,,,,,,,,,,,,,,,,,,,
11552,1650414129.443727,1650414129.4752429,94.0,0.0,4137.94873,4658.461426,4236.922852000001,4273.333496,4268.205078,450.0,3.0,73.0,,,,0.0,4.0,0.0,4.0,0.0,4.0,33.333332,,,,,,,,47.0,0.0,0.253298,-0.45214799999999994,0.4646,0.718018,0.903334,-0.42627600000000004,-0.154299,-0.046555,-0.055686,-0.014309,,,,,,,,,,,,,,,,,,,,,,,,,,,,,,,,,,,,,,,,,,,,,,,,,,,,,,,,,,,,,,,,,
11553,1650414129.451542,1650414129.483058,95.0,0.0,4120.512695,4656.410156,4227.692383,4280.512695,4265.128418,16199.0,3.0,73.0,,,,0.0,4.0,0.0,4.0,0.0,4.0,33.333332,,,,,,,,,,,,,,,,,,,,,,,,,,,,,,,,,,,,,,,,,,,,,,,,,,,,,,,,,,,,,,,,,,,,,,,,,,,,,,,,,,,,
11554,1650414129.459356,1650414129.490773,96.0,0.0,4120.0,4632.820313,4230.769043,4279.487305,4266.666504,450.0,3.0,73.0,,,,0.0,4.0,0.0,4.0,0.0,4.0,33.333332,,,,,,,,48.0,0.0,0.253298,-0.45214799999999994,0.4646,0.718018,0.876967,-0.442878,-0.166018,-0.045318000000000004,-0.055782000000000005,-0.01615,,,,,,,,,,,,,,,,,,,,,,,,,,,,,,,,,,,,,,,,,,,,,,,,,,,,,,,,,,,,,,,,,
11555,1650414129.4671712,1650414129.498587,97.0,0.0,4112.307617,4650.769043,4232.820313,4269.230957,4257.94873,450.0,3.0,73.0,,,,0.0,4.0,0.0,4.0,0.0,4.0,33.333332,,,,,,,,,,,,,,,,,,,,,,,,,,,,,,,,,,,,,,,,,,,,,,,,,,,,,,0.0,0.0,1.0,0.0,512.0,1.0,,,,,,,,,,,,,,,,,,,,,,,,,
11556,1650414129.474985,1650414129.5063019,98.0,0.0,4104.615234000001,4672.820313,4220.0,4265.641113000001,4244.615234000001,450.0,3.0,73.0,,,,0.0,4.0,0.0,4.0,0.0,4.0,33.333332,,,,,,,,49.0,0.0,0.252605,-0.45214799999999994,0.4646,0.718262,0.9052870000000001,-0.436042,-0.15674100000000002,-0.045767,-0.05577000000000001,-0.01434,,,,,,,,,,,,,,,,,,,,,,,,,,,,,,,,,,,,,,,,,,,,,,,,,,,,,,,,,,,,,,,,,
11557,1650414129.4828,1650414129.514117,99.0,0.0,4111.282227000001,4649.230957,4216.410156,4267.692383,4247.692383,16199.0,3.0,73.0,,,,0.0,4.0,0.0,4.0,0.0,4.0,33.333332,,,,,,,,,,,,,,,,,,,,,,,,,,,,,,,,,,,,,,,,,,,,,,,,,,,,,,,,,,,,,,,,,,,,,,,,,,,,,,,,,,,,
11558,1650414129.4906151,1650414129.521832,100.0,0.0,4120.0,4637.436035,4223.077147999999,4267.692383,4254.871582,450.0,3.0,73.0,,,,0.0,4.0,0.0,4.0,0.0,4.0,33.333332,,,,,,,,50.0,0.0,0.252605,-0.45214799999999994,0.4646,0.718262,0.8916149999999999,-0.438483,-0.163088,-0.046122,-0.055808,-0.016177,,,,,,,,,,,,,,,,,,,,,,,,,,,,,,,,,,,,,,,,,,,,,,,,,,,,,,,,,,,,,,,,,
11559,1650414129.4984288,1650414129.5296462,101.0,0.0,4133.333496,4675.897461,4221.025879,4265.128418,4247.692383,450.0,3.0,73.0,,,,0.0,4.0,0.0,4.0,0.0,4.0,33.333332,,,,,,,,,,,,,,,,,,,,,,,,,,,,,,,,,,,,,,,,,,,,,,,,,,,,,,0.0,0.0,1.0,0.0,512.0,1.0,,,,,,,,,,,,,,,,,,,,,,,,,
11560,1650414129.506244,1650414129.537361,102.0,0.0,4138.974121,4660.512695,4217.436035,4266.153809,4241.538574,450.0,3.0,73.0,,,,0.0,4.0,0.0,4.0,0.0,4.0,33.333332,,,,,,,,51.0,0.0,0.25305300000000003,-0.45214799999999994,0.464355,0.718262,0.8872209999999999,-0.443366,-0.161135,-0.044781,-0.055745,-0.01788,,,,,,,,,,,,,,,,,,,,,,,,,,,,,,,,,,,,,,,,,,,,,,,,,,,,,,,,,,,,,,,,,
11561,1650414129.514058,1650414129.545076,103.0,0.0,4126.666504,4593.846191,4218.461426,4273.846191,4252.307617,16199.0,3.0,73.0,,,,0.0,4.0,0.0,4.0,0.0,4.0,33.333332,,,,,,,,,,,,,,,,,,,,,,,,,,,,,,,,,,,,,,,,,,,,,,,,,,,,,,,,,,,,,,,,,,,,,,,,,,,,,,,,,,,,
11562,1650414129.521873,1650414129.55289,104.0,0.0,4134.871582,4609.743652,4226.153809,4281.025879,4282.05127,450.0,3.0,73.0,,,,0.0,4.0,0.0,4.0,0.0,4.0,33.333332,,,,,,,,52.0,0.0,0.252808,-0.45214799999999994,0.46411099999999994,0.7185060000000001,0.8886850000000001,-0.433112,-0.16846,-0.043526,-0.055884,-0.01951,,,,,,,,,,,,,,,,,,,,,,,,,,,,,,,,,,,,,,,,,,,,,,,,,,,,,,,,,,,,,,,,,
11563,1650414129.529687,1650414129.560605,105.0,0.0,4168.205078,4688.717772999999,4231.282227000001,4276.410156,4295.384765999999,450.0,3.0,73.0,,,,0.0,4.0,0.0,4.0,0.0,4.0,33.333332,,,,,,,,,,,,,,,,,,,,1.0,0.0,0.0,,,,,,,,,,,,,,,,,,,,,,,,,,,,,,,,0.0,0.0,1.0,0.0,512.0,0.8311299999999999,322.795258,16.388981,7.927891000000001,4.39814,3.068324,216.99102799999997,38.232914,17.799362,26.067028,24.143953,10.528828,1.2309,1.534348,0.707643,1.468952,0.06514400000000001,0.027005,0.021641,0.017653,0.00636,42.072777,8.267035,1.972221,1.415261,2.476469
11564,1650414129.537502,1650414129.56842,106.0,0.0,4171.794922,4700.0,4218.461426,4269.743652,4277.436035,450.0,3.0,73.0,,,,0.0,4.0,0.0,4.0,0.0,4.0,33.333332,,,,,,,,53.0,0.0,0.252808,-0.45214799999999994,0.46411099999999994,0.7185060000000001,0.8886850000000001,-0.44483100000000003,-0.166995,-0.044007,-0.055959,-0.020782,,,,,,,,,,,,,,,,,,,,,,,,,,,,,,,,,,,,,,,,,,,,,,,,,,,,,,,,,,,,,,,,,
11565,1650414129.545316,1650414129.576234,107.0,0.0,4151.282227000001,4648.205078,4211.794922,4274.871582,4262.05127,16199.0,3.0,73.0,,,,0.0,4.0,0.0,4.0,0.0,4.0,33.333332,,,,,,,,,,,,,,,,,,,,,,,,,,,,,,,,,,,,,,,,,,,,,,,,,,,,,,,,,,,,,,,,,,,,,,,,,,,,,,,,,,,,
11566,1650414129.553131,1650414129.583949,108.0,0.0,4141.538574,4650.769043,4225.641113000001,4279.487305,4264.615234000001,450.0,3.0,73.0,,,,0.0,4.0,0.0,4.0,0.0,4.0,33.333332,,,,,,,,54.0,0.0,0.252808,-0.45214799999999994,0.46411099999999994,0.7185060000000001,0.9087049999999999,-0.446296,-0.16552999999999998,-0.044636,-0.055978999999999994,-0.018606,,,,,,,,,,,,,,,,,,,,,,,,,,,,,,,,,,,,,,,,,,,,,,,,,,,,,,,,,,,,,,,,,
11567,1650414129.560945,1650414129.591764,109.0,0.0,4148.205078,4711.794922,4231.794922,4276.922852000001,4273.846191,450.0,3.0,73.0,,,,0.0,4.0,0.0,4.0,0.0,4.0,33.333332,,,,,,,,,,,,,,,,,,,,,,,,,,,,,,,,,,,,,,,,,,,,,,,,,,,,,,0.0,0.0,1.0,0.0,512.0,0.8311299999999999,,,,,,,,,,,,,,,,,,,,,,,,,
11568,1650414129.56876,1650414129.599479,110.0,0.0,4169.230957,4705.128418,4233.333496,4277.436035,4291.794922,450.0,3.0,73.0,,,,0.0,4.0,0.0,4.0,0.0,4.0,33.333332,,,,,,,,55.0,0.0,0.252371,-0.45239300000000005,0.46411099999999994,0.7185060000000001,0.9043110000000001,-0.44971400000000006,-0.15332300000000001,-0.045104000000000005,-0.056045000000000005,-0.020017,,,,,,,,,,,,,,,,,,,,,,,,,,,,,,,,,,,,,,,,,,,,,,,,,,,,,,,,,,,,,,,,,
11569,1650414129.576574,1650414129.607293,111.0,0.0,4182.05127,4648.205078,4238.974121,4281.025879,4302.563965,16199.0,3.0,73.0,,,,0.0,4.0,0.0,4.0,0.0,4.0,33.333332,,,,,,,,,,,,,,,,,,,,,,,,,,,,,,,,,,,,,,,,,,,,,,,,,,,,,,,,,,,,,,,,,,,,,,,,,,,,,,,,,,,,
11570,1650414129.584389,1650414129.615008,112.0,0.0,4172.820313,4621.538574,4231.794922,4272.307617,4278.974121,450.0,3.0,73.0,,,,0.0,4.0,0.0,4.0,0.0,4.0,33.333332,,,,,,,,56.0,0.0,0.252616,-0.45239300000000005,0.464355,0.718262,0.897475,-0.448737,-0.16552999999999998,-0.045574,-0.05600700000000001,-0.017917,,,,,,,,,,,,,,,,,,,,,,,,,,,,,,,,,,,,,,,,,,,,,,,,,,,,,,,,,,,,,,,,,
11571,1650414129.5922039,1650414129.622823,113.0,0.0,4161.538574,4608.717772999999,4227.179688,4263.589844,4275.384765999999,450.0,3.0,73.0,,,,0.0,4.0,0.0,4.0,0.0,4.0,33.333332,,,,,,,,,,,,,,,,,,,,,,,,,,,,,,,,,,,,,,,,,,,,,,,,,,,,,,0.0,0.0,1.0,0.0,512.0,0.8311299999999999,,,,,,,,,,,,,,,,,,,,,,,,,
11572,1650414129.600018,1650414129.630537,114.0,0.0,4173.333496,4609.743652,4242.05127,4272.820313,4314.358886999999,450.0,3.0,73.0,,,,0.0,4.0,0.0,4.0,0.0,4.0,33.333332,,,,,,,,57.0,0.0,0.252616,-0.45239300000000005,0.464355,0.718262,0.8881969999999999,-0.440436,-0.164553,-0.0459,-0.055924,-0.019348,,,,,,,,,,,,,,,,,,,,,,,,,,,,,,,,,,,,,,,,,,,,,,,,,,,,,,,,,,,,,,,,,
11573,1650414129.607833,1650414129.638252,115.0,0.0,4186.666504,4635.384765999999,4252.820313,4282.05127,4323.077147999999,16199.0,3.0,73.0,,,,0.0,4.0,0.0,4.0,0.0,4.0,33.333332,,,,,,,,,,,,,,,,,,,,,,,,,,,,,,,,,,,,,,,,,,,,,,,,,,,,,,,,,,,,,,,,,,,,,,,,,,,,,,,,,,,,
11574,1650414129.615647,1650414129.646067,116.0,0.0,4169.230957,4641.025879,4251.794922,4279.487305,4290.769043,450.0,3.0,73.0,,,,0.0,4.0,0.0,4.0,0.0,4.0,33.333332,,,,,,,,58.0,0.0,0.252616,-0.45239300000000005,0.464355,0.718262,0.8886850000000001,-0.43897200000000003,-0.153811,-0.046193,-0.055849,-0.020783000000000003,,,,,,,,,,,,,,,,,,,,,,,,,,,,,,,,,,,,,,,,,,,,,,,,,,,,,,,,,,,,,,,,,
11575,1650414129.623462,1650414129.653781,117.0,0.0,4155.384765999999,4628.205078,4235.897461,4275.384765999999,4269.743652,450.0,3.0,73.0,,,,0.0,4.0,0.0,4.0,0.0,4.0,33.333332,,,,,,,,,,,,,,,,,,,,,,,,,,,,,,,,,,,,,,,,,,,,,,,,,,,,,,0.0,0.0,1.0,0.0,512.0,0.8311299999999999,,,,,,,,,,,,,,,,,,,,,,,,,
11576,1650414129.631276,1650414129.661596,118.0,0.0,4160.512695,4643.589844,4215.897461,4276.410156,4258.974121,450.0,3.0,73.0,,,,0.0,4.0,0.0,4.0,0.0,4.0,33.333332,,,,,,,,59.0,0.0,0.252179,-0.452637,0.464355,0.718262,0.8955209999999999,-0.44483100000000003,-0.1626,-0.046603,-0.05583099999999999,-0.018509,,,,,,,,,,,,,,,,,,,,,,,,,,,,,,,,,,,,,,,,,,,,,,,,,,,,,,,,,,,,,,,,,
11577,1650414129.639091,1650414129.669311,119.0,0.0,4148.205078,4626.153809,4222.563965,4276.410156,4248.205078,16199.0,3.0,73.0,,,,0.0,4.0,0.0,4.0,0.0,4.0,33.333332,,,,,,,,,,,,,,,,,,,,,,,,,,,,,,,,,,,,,,,,,,,,,,,,,,,,,,,,,,,,,,,,,,,,,,,,,,,,,,,,,,,,
11578,1650414129.6469052,1650414129.677126,120.0,0.0,4162.05127,4590.256348,4237.436035,4277.94873,4279.487305,450.0,3.0,73.0,,,,0.0,4.0,0.0,4.0,0.0,4.0,33.333332,,,,,,,,60.0,0.0,0.252179,-0.452637,0.464355,0.718262,0.8960100000000001,-0.427253,-0.1626,-0.045312,-0.055813999999999996,-0.019979,,,,,,,,,,,,,,,,,,,,,,,,,,,,,,,,,,,,,,,,,,,,,,,,,,,,,,,,,,,,,,,,,
11579,1650414129.6547198,1650414129.68484,121.0,0.0,4223.589844,4642.05127,4232.307617,4280.0,4326.153809,450.0,3.0,73.0,,,,0.0,4.0,0.0,4.0,0.0,4.0,33.333332,,,,,,,,,,,,,,,,,,,,1.0,0.0,0.0,,,,,,,,,,,,,,,,,,,,,,,,,,,,,,,,0.0,0.0,1.0,0.0,512.0,0.744633,243.91863999999998,14.334882,5.924612000000001,3.685679,2.934102,193.08561699999998,34.791576,17.106564000000002,23.368729000000002,20.916757999999998,8.642666,1.256161,1.312003,0.683615,1.242192,0.050184,0.030488,0.023709,0.018302000000000002,0.008456,29.658167,7.378627000000001,1.70065,1.277303,2.228854
11580,1650414129.662534,1650414129.692655,122.0,0.0,4238.974121,4675.384765999999,4233.846191,4279.487305,4322.05127,450.0,3.0,73.0,,,,0.0,4.0,0.0,4.0,0.0,4.0,33.333332,,,,,,,,61.0,0.0,0.252616,-0.45239300000000005,0.464355,0.718262,0.8886850000000001,-0.43897200000000003,-0.153811,-0.045810000000000003,-0.055946,-0.017932,,,,,,,,,,,,,,,,,,,,,,,,,,,,,,,,,,,,,,,,,,,,,,,,,,,,,,,,,,,,,,,,,
11581,1650414129.6703491,1650414129.7003698,123.0,0.0,4215.384765999999,4641.538574,4251.282227000001,4279.487305,4302.05127,16199.0,3.0,73.0,,,,0.0,4.0,0.0,4.0,0.0,4.0,33.333332,,,,,,,,,,,,,,,,,,,,,,,,,,,,,,,,,,,,,,,,,,,,,,,,,,,,,,,,,,,,,,,,,,,,,,,,,,,,,,,,,,,,
11582,1650414129.678163,1650414129.708184,124.0,0.0,4232.307617,4636.410156,4253.846191,4280.512695,4321.538574,450.0,3.0,73.0,,,,0.0,4.0,0.0,4.0,0.0,4.0,33.333332,,,,,,,,62.0,0.0,0.252179,-0.452637,0.464355,0.718262,0.8960100000000001,-0.427253,-0.1626,-0.044598,-0.055917999999999995,-0.019459,,,,,,,,,,,,,,,,,,,,,,,,,,,,,,,,,,,,,,,,,,,,,,,,,,,,,,,,,,,,,,,,,
11583,1650414129.685978,1650414129.715899,125.0,0.0,4247.692383,4640.512695,4247.692383,4280.512695,4340.512695,450.0,3.0,73.0,,,,0.0,4.0,0.0,4.0,0.0,4.0,33.333332,,,,,,,,,,,,,,,,,,,,,,,,,,,,,,,,,,,,,,,,,,,,,,,,,,,,,,0.0,0.0,1.0,0.0,512.0,0.744633,,,,,,,,,,,,,,,,,,,,,,,,,
11584,1650414129.693792,1650414129.723714,126.0,0.0,4221.025879,4649.230957,4248.717772999999,4280.0,4327.692383,450.0,3.0,73.0,,,,0.0,4.0,0.0,4.0,0.0,4.0,33.333332,,,,,,,,63.0,0.0,0.252628,-0.452637,0.46411099999999994,0.718262,0.8955209999999999,-0.447272,-0.166506,-0.045119,-0.05599,-0.020834000000000002,,,,,,,,,,,,,,,,,,,,,,,,,,,,,,,,,,,,,,,,,,,,,,,,,,,,,,,,,,,,,,,,,
11585,1650414129.701607,1650414129.731428,127.0,0.0,4207.179688,4659.487305,4247.692383,4281.025879,4318.461426,238.0,3.0,73.0,,,,0.0,4.0,0.0,4.0,0.0,4.0,33.333332,,,,,,,,,,,,,,,,,,,,,,,,,,,,,,,,,,,,,,,,,,,,,,,,,,,,,,,,,,,,,,,,,,,,,,,,,,,,,,,,,,,,
11586,1650414129.709422,1650414129.739243,0.0,0.0,4217.436035,4640.512695,4245.128418,4280.0,4315.384765999999,450.0,3.0,73.0,,,,0.0,4.0,0.0,4.0,0.0,4.0,33.333332,,,,,,,,0.0,0.0,0.252628,-0.452637,0.46411099999999994,0.718262,0.8921030000000001,-0.430671,-0.165042,-0.045636,-0.055958,-0.018555000000000002,,,,,,,,,,,,,,,,,,,,,,,,,,,,,,,,,,,,,,,,,,,,,,,,,,,,,,,,,,,,,,,,,
11587,1650414129.717236,1650414129.746958,1.0,0.0,4217.94873,4658.461426,4240.512695,4277.94873,4313.333496,450.0,3.0,73.0,,,,0.0,4.0,0.0,4.0,0.0,4.0,33.333332,,,,,,,,,,,,,,,,,,,,,,,,,,,,,,,,,,,,,,,,,,,,,,,,,,,,,,0.0,0.0,1.0,0.0,512.0,0.744633,,,,,,,,,,,,,,,,,,,,,,,,,
11588,1650414129.725051,1650414129.7547722,2.0,0.0,4200.0,4705.641113000001,4232.820313,4278.461426,4306.666504,16205.0,3.0,73.0,,,,0.0,4.0,0.0,4.0,0.0,4.0,33.333332,,,,,,,,1.0,0.0,0.252628,-0.452637,0.46411099999999994,0.718262,0.8989389999999999,-0.44238999999999995,-0.16846,-0.046151,-0.055879,-0.019971,,,,,,,,,,,,,,,,,,,,,,,,,,,,,,,,,,,,,,,,,,,,,,,,,,,,,,,,,,,,,,,,,
11589,1650414129.732865,1650414129.762487,3.0,0.0,4188.717772999999,4660.0,4241.538574,4280.0,4294.358886999999,450.0,3.0,73.0,,,,0.0,4.0,0.0,4.0,0.0,4.0,33.333332,,,,,,,,,,,,,,,,,,,,,,,,,,,,,,,,,,,,,,,,,,,,,,,,,,,,,,,,,,,,,,,,,,,,,,,,,,,,,,,,,,,,
11590,1650414129.74068,1650414129.770302,4.0,0.0,4201.538574,4637.94873,4253.846191,4279.487305,4302.05127,1.0,3.0,73.0,,,,0.0,4.0,0.0,4.0,0.0,4.0,33.333332,,,,,,,,2.0,0.0,0.252628,-0.452637,0.46411099999999994,0.718262,0.910658,-0.438483,-0.166018,-0.04637,-0.055858000000000005,-0.015093,,,,,,,,,,,,,,,,,,,,,,,,,,,,,,,,,,,,,,,,,,,,,,,,,,,,,,,,,,,,,,,,,
11591,1650414129.748494,1650414129.778017,5.0,0.0,4202.563965,4710.256348,4238.974121,4277.94873,4314.871582,450.0,3.0,73.0,,,,0.0,4.0,0.0,4.0,0.0,4.0,33.333332,,,,,,,,,,,,,,,,,,,,,,,,,,,,,,,,,,,,,,,,,,,,,,,,,,,,,,0.0,0.0,1.0,0.0,512.0,0.744633,,,,,,,,,,,,,,,,,,,,,,,,,
11592,1650414129.756309,1650414129.785831,6.0,0.0,4195.384765999999,4668.205078,4226.666504,4278.974121,4304.102539,16130.0,3.0,73.0,,,,0.0,4.0,0.0,4.0,0.0,4.0,33.333332,,,,,,,,3.0,0.0,0.253321,-0.452637,0.46411099999999994,0.718018,0.8813610000000001,-0.462898,-0.17383099999999999,-0.045052999999999996,-0.055839,-0.016904,,,,,,,,,,,,,,,,,,,,,,,,,,,,,,,,,,,,,,,,,,,,,,,,,,,,,,,,,,,,,,,,,
11593,1650414129.764123,1650414129.7935462,7.0,0.0,4201.538574,4582.05127,4238.974121,4280.0,4304.102539,450.0,3.0,73.0,,,,0.0,4.0,0.0,4.0,0.0,4.0,33.333332,,,,,,,,,,,,,,,,,,,,,,,,,,,,,,,,,,,,,,,,,,,,,,,,,,,,,,,,,,,,,,,,,,,,,,,,,,,,,,,,,,,,
11594,1650414129.771938,1650414129.801261,8.0,0.0,4196.922852000001,4630.769043,4235.384765999999,4278.461426,4310.256348,450.0,3.0,73.0,,,,0.0,4.0,0.0,4.0,0.0,4.0,33.333332,,,,,,,,4.0,0.0,0.252873,-0.452637,0.464355,0.718018,0.894545,-0.446784,-0.161624,-0.045528,-0.055675,-0.018534000000000002,,,,,,,,,,,,,,,,,,,,,,,,,,,,,,,,,,,,,,,,,,,,,,,,,,,,,,,,,,,,,,,,,
11595,1650414129.779752,1650414129.809075,9.0,0.0,4187.179688,4680.512695,4215.897461,4278.461426,4290.256348,0.0,3.0,73.0,,,,0.0,4.0,0.0,4.0,0.0,4.0,33.333332,0.972656,8.333333,1.0,0.0,4.0,0.0,4.0,,,,,,,,,,,,,1.0,0.0,0.0,,,,,,,,,,,,,,,,,,,,,,,,,,,,,,,,0.0,0.0,1.0,0.0,512.0,1.0,156.223038,10.886172,3.992663,2.827152,2.596459,148.505051,30.029315999999998,15.381166,19.253538,16.795357,6.270823,1.262866,1.044659,0.6407109999999999,0.966191,0.03871,0.040263,0.030923000000000003,0.019988,0.013791999999999999,17.829017999999998,5.917428,1.508282,1.107545,1.961973
11596,1650414129.787567,1650414129.81679,10.0,0.0,4180.0,4636.410156,4214.358886999999,4280.0,4273.846191,450.0,3.0,73.0,,,,0.0,4.0,0.0,4.0,0.0,4.0,33.333332,,,,,,,,5.0,0.0,0.252873,-0.452637,0.464355,0.718018,0.8886850000000001,-0.43457700000000005,-0.1626,-0.045857999999999996,-0.055674,-0.02005,,,,,,,,,,,,,,,,,,,,,,,,,,,,,,,,,,,,,,,,,,,,,,,,,,,,,,,,,,,,,,,,,
11597,1650414129.795381,1650414129.824605,11.0,0.0,4163.077147999999,4628.717772999999,4209.743652,4277.436035,4270.256348,16212.0,3.0,73.0,,,,0.0,4.0,0.0,4.0,0.0,4.0,33.333332,,,,,,,,,,,,,,,,,,,,,,,,,,,,,,,,,,,,,,,,,,,,,,,,,,,,,,,,,,,,,,,,,,,,,,,,,,,,,,,,,,,,
11598,1650414129.8031962,1650414129.83232,12.0,0.0,4166.153809,4661.025879,4197.94873,4275.384765999999,4262.05127,450.0,3.0,73.0,,,,0.0,4.0,0.0,4.0,0.0,4.0,33.333332,,,,,,,,6.0,0.0,0.253321,-0.452637,0.46411099999999994,0.718018,0.886732,-0.42822899999999997,-0.16211199999999998,-0.044593,-0.055722,-0.015212999999999999,,,,,,,,,,,,,,,,,,,,,,,,,,,,,,,,,,,,,,,,,,,,,,,,,,,,,,,,,,,,,,,,,
11599,1650414129.81101,1650414129.840134,13.0,0.0,4192.307617,4621.025879,4198.461426,4278.461426,4266.666504,450.0,3.0,73.0,,,,0.0,4.0,0.0,4.0,0.0,4.0,33.333332,,,,,,,,,,,,,,,,,,,,,,,,,,,,,,,,,,,,,,,,,,,,,,,,,,,,,,0.0,0.0,1.0,0.0,512.0,1.0,,,,,,,,,,,,,,,,,,,,,,,,,
11600,1650414129.818825,1650414129.8478491,14.0,0.0,4192.307617,4616.922852000001,4199.487305,4280.0,4278.974121,450.0,3.0,73.0,,,,0.0,4.0,0.0,4.0,0.0,4.0,33.333332,,,,,,,,7.0,0.0,0.253321,-0.452637,0.46411099999999994,0.718018,0.9004040000000001,-0.42920600000000003,-0.160647,-0.045065,-0.055813999999999996,-0.013594,,,,,,,,,,,,,,,,,,,,,,,,,,,,,,,,,,,,,,,,,,,,,,,,,,,,,,,,,,,,,,,,,
11601,1650414129.8266401,1650414129.855664,15.0,0.0,4175.897461,4678.461426,4197.436035,4276.922852000001,4280.512695,16212.0,3.0,73.0,,,,0.0,4.0,0.0,4.0,0.0,4.0,33.333332,,,,,,,,,,,,,,,,,,,,,,,,,,,,,,,,,,,,,,,,,,,,,,,,,,,,,,,,,,,,,,,,,,,,,,,,,,,,,,,,,,,,
11602,1650414129.8344538,1650414129.863378,16.0,0.0,4192.307617,4664.102539,4201.538574,4276.922852000001,4274.358886999999,0.0,3.0,73.0,,,,0.0,4.0,0.0,4.0,0.0,4.0,33.333332,,,,,,,,8.0,0.0,0.252884,-0.45288100000000003,0.46411099999999994,0.718018,0.8989389999999999,-0.441413,-0.15967,-0.045442,-0.05575,-0.015604,,,,,,,,,,,,,,,,,,,,,,,,,,,,,,,,,,,,,,,,,,,,,,,,,,,,,,,,,,,,,,,,,
11603,1650414129.842269,1650414129.871193,17.0,0.0,4205.641113000001,4630.256348,4203.589844,4277.436035,4268.717772999999,0.0,3.0,73.0,,,,0.0,4.0,0.0,4.0,0.0,4.0,33.333332,,,,,,,,,,,,,,,,,,,,,,,,,,,,,,,,,,,,,,,,,,,,,,,,,,,,,,0.0,0.0,1.0,0.0,512.0,1.0,,,,,,,,,,,,,,,,,,,,,,,,,
11604,1650414129.850083,1650414129.878908,18.0,0.0,4190.769043,4650.256348,4200.512695,4272.820313,4267.179688,0.0,3.0,73.0,,,,0.0,4.0,0.0,4.0,0.0,4.0,33.333332,,,,,,,,9.0,0.0,0.252884,-0.45288100000000003,0.46411099999999994,0.718018,0.8994280000000001,-0.447272,-0.16846,-0.045975999999999996,-0.055644000000000006,-0.011065,,,,,,,,,,,,,,,,,,,,,,,,,,,,,,,,,,,,,,,,,,,,,,,,,,,,,,,,,,,,,,,,,
11605,1650414129.857898,1650414129.886722,19.0,0.0,4190.256348,4632.820313,4204.102539,4269.743652,4282.05127,0.0,3.0,73.0,,,,0.0,4.0,0.0,4.0,0.0,4.0,33.333332,,,,,,,,,,,,,,,,,,,,,,,,,,,,,,,,,,,,,,,,,,,,,,,,,,,,,,,,,,,,,,,,,,,,,,,,,,,,,,,,,,,,
11606,1650414129.865712,1650414129.8944368,20.0,0.0,4204.102539,4598.974121,4207.179688,4274.358886999999,4287.692383,0.0,3.0,73.0,,,,0.0,4.0,0.0,4.0,0.0,4.0,33.333332,,,,,,,,10.0,0.0,0.252884,-0.45288100000000003,0.46411099999999994,0.718018,0.8989389999999999,-0.440925,-0.165042,-0.046163,-0.055597,-0.016062,,,,,,,,,,,,,,,,,,,,,,,,,,,,,,,,,,,,,,,,,,,,,,,,,,,,,,,,,,,,,,,,,
11607,1650414129.873527,1650414129.902252,21.0,0.0,4211.794922,4629.230957,4203.589844,4280.512695,4275.897461,0.0,3.0,73.0,,,,0.0,4.0,0.0,4.0,0.0,4.0,33.333332,,,,,,,,,,,,,,,,,,,,,,,,,,,,,,,,,,,,,,,,,,,,,,,,,,,,,,0.0,0.0,1.0,0.0,512.0,1.0,,,,,,,,,,,,,,,,,,,,,,,,,
11608,1650414129.881341,1650414129.909967,22.0,0.0,4213.333496,4662.563965,4200.0,4280.0,4274.871582,0.0,3.0,73.0,,,,0.0,4.0,0.0,4.0,0.0,4.0,33.333332,,,,,,,,11.0,0.0,0.252884,-0.45288100000000003,0.46411099999999994,0.718018,0.905776,-0.440925,-0.154788,-0.044965,-0.055652999999999994,-0.017776,,,,,,,,,,,,,,,,,,,,,,,,,,,,,,,,,,,,,,,,,,,,,,,,,,,,,,,,,,,,,,,,,
11609,1650414129.889156,1650414129.917781,23.0,0.0,4207.692383,4665.641113000001,4192.307617,4278.461426,4273.846191,0.0,3.0,73.0,,,,0.0,4.0,0.0,4.0,0.0,4.0,33.333332,,,,,,,,,,,,,,,,,,,,,,,,,,,,,,,,,,,,,,,,,,,,,,,,,,,,,,,,,,,,,,,,,,,,,,,,,,,,,,,,,,,,
11610,1650414129.89697,1650414129.925496,24.0,0.0,4195.897461,4647.692383,4192.820313,4279.487305,4270.769043,0.0,3.0,73.0,,,,0.0,4.0,0.0,4.0,0.0,4.0,33.333332,,,,,,,,12.0,0.0,0.252884,-0.45288100000000003,0.46411099999999994,0.718018,0.887709,-0.43897200000000003,-0.159182,-0.043789,-0.055604999999999995,-0.019319,,,,,,,,,,,,,,,,,,,,,,,,,,,,,,,,,,,,,,,,,,,,,,,,,,,,,,,,,,,,,,,,,
11611,1650414129.904785,1650414129.9332108,25.0,0.0,4203.077147999999,4611.282227000001,4208.205078,4279.487305,4282.05127,0.0,3.0,73.0,,,,0.0,4.0,0.0,4.0,0.0,4.0,33.333332,,,,,,,,,,,,,,,,,,,,1.0,0.0,0.0,,,,,,,,,,,,,,,,,,,,,,,,,,,,,,,,0.0,0.0,1.0,0.0,512.0,0.9406450000000001,81.85464499999999,7.169689999999999,2.764753,2.121514,2.1613849999999997,98.307526,25.437489000000003,13.487501000000002,14.964099,12.798078,3.992638,1.277703,0.8147840000000001,0.591244,0.705164,0.03901,0.062012,0.046186000000000005,0.025702999999999997,0.024355,9.495809,4.378161,1.563038,1.01352,1.750193
11612,1650414129.912599,1650414129.941025,26.0,0.0,4223.589844,4589.743652,4221.538574,4276.922852000001,4302.563965,0.0,3.0,73.0,,,,0.0,4.0,0.0,4.0,0.0,4.0,33.333332,,,,,,,,13.0,0.0,0.252446,-0.453125,0.46411099999999994,0.718018,0.901869,-0.449226,-0.15820599999999999,-0.044244,-0.055611,-0.014555000000000002,,,,,,,,,,,,,,,,,,,,,,,,,,,,,,,,,,,,,,,,,,,,,,,,,,,,,,,,,,,,,,,,,
11613,1650414129.920414,1650414129.94874,27.0,0.0,4219.487305,4603.589844,4212.307617,4277.436035,4300.0,0.0,3.0,73.0,,,,0.0,4.0,0.0,4.0,0.0,4.0,33.333332,,,,,,,,,,,,,,,,,,,,,,,,,,,,,,,,,,,,,,,,,,,,,,,,,,,,,,,,,,,,,,,,,,,,,,,,,,,,,,,,,,,,
11614,1650414129.9282289,1650414129.9565551,28.0,0.0,4205.641113000001,4631.794922,4196.410156,4275.897461,4280.512695,0.0,3.0,73.0,,,,0.0,4.0,0.0,4.0,0.0,4.0,33.333332,,,,,,,,14.0,0.0,0.252446,-0.453125,0.46411099999999994,0.718018,0.894057,-0.44385399999999997,-0.171389,-0.044849,-0.055616,-0.016371,,,,,,,,,,,,,,,,,,,,,,,,,,,,,,,,,,,,,,,,,,,,,,,,,,,,,,,,,,,,,,,,,
11615,1650414129.936043,1650414129.964269,29.0,0.0,4205.641113000001,4632.307617,4200.512695,4271.282227000001,4278.461426,0.0,3.0,73.0,,,,0.0,4.0,0.0,4.0,0.0,4.0,33.333332,,,,,,,,,,,,,,,,,,,,,,,,,,,,,,,,,,,,,,,,,,,,,,,,,,,,,,0.0,0.0,1.0,0.0,512.0,0.9406450000000001,,,,,,,,,,,,,,,,,,,,,,,,,
11616,1650414129.943858,1650414129.972084,30.0,0.0,4217.94873,4635.897461,4201.025879,4274.871582,4290.256348,0.0,3.0,73.0,,,,0.0,4.0,0.0,4.0,0.0,4.0,33.333332,,,,,,,,15.0,0.0,0.252446,-0.453125,0.46411099999999994,0.718018,0.8921030000000001,-0.440436,-0.154299,-0.045295999999999996,-0.055573000000000004,-0.011853,,,,,,,,,,,,,,,,,,,,,,,,,,,,,,,,,,,,,,,,,,,,,,,,,,,,,,,,,,,,,,,,,
11617,1650414129.951672,1650414129.979799,31.0,0.0,4215.384765999999,4646.153809,4188.717772999999,4278.461426,4292.307617,0.0,3.0,73.0,,,,0.0,4.0,0.0,4.0,0.0,4.0,33.333332,,,,,,,,,,,,,,,,,,,,,,,,,,,,,,,,,,,,,,,,,,,,,,,,,,,,,,,,,,,,,,,,,,,,,,,,,,,,,,,,,,,,
11618,1650414129.959487,1650414129.9876132,32.0,0.0,4195.897461,4651.794922,4186.153809,4273.333496,4274.871582,0.0,3.0,73.0,,,,0.0,4.0,0.0,4.0,0.0,4.0,33.333332,,,,,,,,16.0,0.0,0.252446,-0.453125,0.46411099999999994,0.718018,0.8955209999999999,-0.43994799999999995,-0.154299,-0.045747,-0.055582000000000006,-0.014037,,,,,,,,,,,,,,,,,,,,,,,,,,,,,,,,,,,,,,,,,,,,,,,,,,,,,,,,,,,,,,,,,
11619,1650414129.967301,1650414129.9954278,33.0,0.0,4202.05127,4670.256348,4200.0,4273.333496,4275.384765999999,0.0,3.0,73.0,,,,0.0,4.0,0.0,4.0,0.0,4.0,33.333332,,,,,,,,,,,,,,,,,,,,,,,,,,,,,,,,,,,,,,,,,,,,,,,,,,,,,,0.0,0.0,1.0,0.0,512.0,0.9406450000000001,,,,,,,,,,,,,,,,,,,,,,,,,
11620,1650414129.975116,1650414130.003143,34.0,0.0,4218.461426,4667.692383,4201.538574,4283.077147999999,4290.769043,0.0,3.0,73.0,,,,0.0,4.0,0.0,4.0,0.0,4.0,33.333332,,,,,,,,17.0,0.0,0.252446,-0.453125,0.46411099999999994,0.718018,0.8989389999999999,-0.443366,-0.154788,-0.046104,-0.05559,-0.009752,,,,,,,,,,,,,,,,,,,,,,,,,,,,,,,,,,,,,,,,,,,,,,,,,,,,,,,,,,,,,,,,,
11621,1650414129.9829302,1650414130.010858,35.0,0.0,4207.692383,4655.384765999999,4183.589844,4280.0,4282.05127,0.0,3.0,73.0,,,,0.0,4.0,0.0,4.0,0.0,4.0,33.333332,,,,,,,,,,,,,,,,,,,,,,,,,,,,,,,,,,,,,,,,,,,,,,,,,,,,,,,,,,,,,,,,,,,,,,,,,,,,,,,,,,,,
11622,1650414129.9907448,1650414130.018672,36.0,0.0,4197.94873,4698.974121,4178.974121,4268.717772999999,4272.307617,0.0,3.0,73.0,,,,0.0,4.0,0.0,4.0,0.0,4.0,33.333332,,,,,,,,18.0,0.0,0.252446,-0.453125,0.46411099999999994,0.718018,0.894057,-0.43653000000000003,-0.163577,-0.046425,-0.055549,-0.012145999999999999,,,,,,,,,,,,,,,,,,,,,,,,,,,,,,,,,,,,,,,,,,,,,,,,,,,,,,,,,,,,,,,,,
11623,1650414129.998559,1650414130.0264869,37.0,0.0,4218.974121,4715.384765999999,4194.358886999999,4273.333496,4285.128418,0.0,3.0,73.0,,,,0.0,4.0,0.0,4.0,0.0,4.0,33.333332,,,,,,,,,,,,,,,,,,,,,,,,,,,,,,,,,,,,,,,,,,,,,,,,,,,,,,0.0,0.0,1.0,0.0,512.0,0.9406450000000001,,,,,,,,,,,,,,,,,,,,,,,,,
11624,1650414130.0063741,1650414130.0342019,38.0,0.0,4229.230957,4649.743652,4197.436035,4280.0,4289.743652,0.0,3.0,73.0,,,,0.0,4.0,0.0,4.0,0.0,4.0,33.333332,,,,,,,,19.0,0.0,0.252446,-0.453125,0.46411099999999994,0.718018,0.8921030000000001,-0.445808,-0.151858,-0.046763,-0.055560000000000005,-0.014301,,,,,,,,,,,,,,,,,,,,,,,,,,,,,,,,,,,,,,,,,,,,,,,,,,,,,,,,,,,,,,,,,
11625,1650414130.014188,1650414130.0419161,39.0,0.0,4202.05127,4620.512695,4189.230957,4277.436035,4275.384765999999,0.0,3.0,73.0,,,,0.0,4.0,0.0,4.0,0.0,4.0,33.333332,,,,,,,,,,,,,,,,,,,,,,,,,,,,,,,,,,,,,,,,,,,,,,,,,,,,,,,,,,,,,,,,,,,,,,,,,,,,,,,,,,,,
11626,1650414130.022003,1650414130.049731,40.0,0.0,4190.256348,4669.230957,4197.436035,4275.897461,4274.871582,0.0,3.0,73.0,,,,0.0,4.0,0.0,4.0,0.0,4.0,33.333332,,,,,,,,20.0,0.0,0.252446,-0.453125,0.46411099999999994,0.718018,0.9043110000000001,-0.425299,-0.15820599999999999,-0.047019,-0.055473,-0.016191,,,,,,,,,,,,,,,,,,,,,,,,,,,,,,,,,,,,,,,,,,,,,,,,,,,,,,,,,,,,,,,,,
11627,1650414130.029817,1650414130.057446,41.0,0.0,4223.077147999999,4730.256348,4205.641113000001,4280.0,4294.358886999999,0.0,3.0,73.0,,,,0.0,4.0,0.0,4.0,0.0,4.0,33.333332,,,,,,,,,,,,,,,,,,,,1.0,0.0,0.0,,,,,,,,,,,,,,,,,,,,,,,,,,,,,,,,0.0,0.0,1.0,0.0,512.0,0.761595,34.496853,4.233302,2.493611,1.739053,1.7489080000000001,56.707469999999994,22.14246,12.15029,11.520466,9.742268,2.301904,1.311957,0.6851189999999999,0.551978,0.509756,0.054425,0.097886,0.06854,0.037722000000000006,0.040382,5.243949,3.2133130000000003,1.9673990000000001,1.087304,1.619774
11628,1650414130.037632,1650414130.06526,42.0,0.0,4241.025879,4711.794922,4201.025879,4281.538574,4302.05127,0.0,3.0,73.0,,,,0.0,4.0,0.0,4.0,0.0,4.0,33.333332,,,,,,,,21.0,0.0,0.252895,-0.453125,0.46386700000000003,0.718018,0.8994280000000001,-0.44531899999999996,-0.167971,-0.047297000000000006,-0.05549199999999999,-0.014474,,,,,,,,,,,,,,,,,,,,,,,,,,,,,,,,,,,,,,,,,,,,,,,,,,,,,,,,,,,,,,,,,
11629,1650414130.0454462,1650414130.072975,43.0,0.0,4201.538574,4620.512695,4199.487305,4277.436035,4274.358886999999,0.0,3.0,73.0,,,,0.0,4.0,0.0,4.0,0.0,4.0,33.333332,,,,,,,,,,,,,,,,,,,,,,,,,,,,,,,,,,,,,,,,,,,,,,,,,,,,,,,,,,,,,,,,,,,,,,,,,,,,,,,,,,,,
11630,1650414130.053261,1650414130.08079,44.0,0.0,4179.487305,4608.205078,4196.410156,4273.846191,4265.641113000001,0.0,3.0,73.0,,,,0.0,4.0,0.0,4.0,0.0,4.0,33.333332,,,,,,,,22.0,0.0,0.252895,-0.453125,0.46386700000000003,0.718018,0.909682,-0.443366,-0.15967,-0.045888,-0.055412,-0.01288,,,,,,,,,,,,,,,,,,,,,,,,,,,,,,,,,,,,,,,,,,,,,,,,,,,,,,,,,,,,,,,,,
11631,1650414130.061076,1650414130.088505,45.0,0.0,4223.077147999999,4673.333496,4192.307617,4274.871582,4298.461426,0.0,3.0,73.0,,,,0.0,4.0,0.0,4.0,0.0,4.0,33.333332,,,,,,,,,,,,,,,,,,,,,,,,,,,,,,,,,,,,,,,,,,,,,,,,,,,,,,0.0,0.0,1.0,0.0,512.0,0.761595,,,,,,,,,,,,,,,,,,,,,,,,,
11632,1650414130.06889,1650414130.096319,46.0,0.0,4247.692383,4654.871582,4190.769043,4280.512695,4302.563965,0.0,3.0,73.0,,,,0.0,4.0,0.0,4.0,0.0,4.0,33.333332,,,,,,,,23.0,0.0,0.252446,-0.453125,0.46411099999999994,0.718018,0.8881969999999999,-0.43653000000000003,-0.15674100000000002,-0.046329,-0.055486,-0.015009999999999999,,,,,,,,,,,,,,,,,,,,,,,,,,,,,,,,,,,,,,,,,,,,,,,,,,,,,,,,,,,,,,,,,
11633,1650414130.076705,1650414130.104034,47.0,0.0,4214.871582,4602.05127,4191.282227000001,4279.487305,4274.871582,0.0,3.0,73.0,,,,0.0,4.0,0.0,4.0,0.0,4.0,33.333332,,,,,,,,,,,,,,,,,,,,,,,,,,,,,,,,,,,,,,,,,,,,,,,,,,,,,,,,,,,,,,,,,,,,,,,,,,,,,,,,,,,,
11634,1650414130.084519,1650414130.111849,48.0,0.0,4197.436035,4623.077147999999,4197.94873,4270.769043,4266.153809,0.0,3.0,73.0,,,,0.0,4.0,0.0,4.0,0.0,4.0,33.333332,,,,,,,,24.0,0.0,0.252446,-0.453125,0.46411099999999994,0.718018,0.9004040000000001,-0.437018,-0.17383099999999999,-0.045114,-0.055504,-0.016781,,,,,,,,,,,,,,,,,,,,,,,,,,,,,,,,,,,,,,,,,,,,,,,,,,,,,,,,,,,,,,,,,
11635,1650414130.092334,1650414130.119563,49.0,0.0,4208.717772999999,4625.128418,4206.153809,4270.256348,4263.589844,0.0,3.0,73.0,,,,0.0,4.0,0.0,4.0,0.0,4.0,33.333332,,,,,,,,,,,,,,,,,,,,,,,,,,,,,,,,,,,,,,,,,,,,,,,,,,,,,,0.0,0.0,1.0,0.0,512.0,0.761595,,,,,,,,,,,,,,,,,,,,,,,,,
11636,1650414130.100148,1650414130.127378,50.0,0.0,4207.179688,4591.282227000001,4203.077147999999,4277.436035,4264.102539,0.0,3.0,73.0,,,,0.0,4.0,0.0,4.0,0.0,4.0,33.333332,,,,,,,,25.0,0.0,0.252895,-0.453125,0.46386700000000003,0.718018,0.909682,-0.443366,-0.15967,-0.045339,-0.05552000000000001,-0.014956,,,,,,,,,,,,,,,,,,,,,,,,,,,,,,,,,,,,,,,,,,,,,,,,,,,,,,,,,,,,,,,,,
11637,1650414130.107963,1650414130.135093,51.0,0.0,4206.666504,4585.128418,4203.077147999999,4276.922852000001,4288.717772999999,0.0,3.0,73.0,,,,0.0,4.0,0.0,4.0,0.0,4.0,33.333332,,,,,,,,,,,,,,,,,,,,,,,,,,,,,,,,,,,,,,,,,,,,,,,,,,,,,,,,,,,,,,,,,,,,,,,,,,,,,,,,,,,,
11638,1650414130.115777,1650414130.1429071,52.0,0.0,4227.692383,4624.615234000001,4207.692383,4274.871582,4293.333496,0.0,3.0,73.0,,,,0.0,4.0,0.0,4.0,0.0,4.0,33.333332,,,,,,,,26.0,0.0,0.252446,-0.453125,0.46411099999999994,0.718018,0.9004040000000001,-0.437018,-0.17383099999999999,-0.044223,-0.055535,-0.016732,,,,,,,,,,,,,,,,,,,,,,,,,,,,,,,,,,,,,,,,,,,,,,,,,,,,,,,,,,,,,,,,,
11639,1650414130.123592,1650414130.150722,53.0,0.0,4245.128418,4665.641113000001,4211.282227000001,4279.487305,4271.282227000001,0.0,3.0,73.0,,,,0.0,4.0,0.0,4.0,0.0,4.0,33.333332,,,,,,,,,,,,,,,,,,,,,,,,,,,,,,,,,,,,,,,,,,,,,,,,,,,,,,0.0,0.0,1.0,0.0,512.0,0.761595,,,,,,,,,,,,,,,,,,,,,,,,,
11640,1650414130.131406,1650414130.158537,54.0,0.0,4241.538574,4653.846191,4221.538574,4282.05127,4272.307617,0.0,3.0,73.0,,,,0.0,4.0,0.0,4.0,0.0,4.0,33.333332,,,,,,,,27.0,0.0,0.252446,-0.453125,0.46411099999999994,0.718018,0.8960100000000001,-0.423835,-0.158694,-0.044537,-0.055548,-0.014912,,,,,,,,,,,,,,,,,,,,,,,,,,,,,,,,,,,,,,,,,,,,,,,,,,,,,,,,,,,,,,,,,
11641,1650414130.1392212,1650414130.166251,55.0,0.0,4237.94873,4631.794922,4215.384765999999,4279.487305,4287.179688,0.0,3.0,73.0,,,,0.0,4.0,0.0,4.0,0.0,4.0,33.333332,,,,,,,,,,,,,,,,,,,,,,,,,,,,,,,,,,,,,,,,,,,,,,,,,,,,,,,,,,,,,,,,,,,,,,,,,,,,,,,,,,,,
11642,1650414130.147035,1650414130.174066,56.0,0.0,4232.820313,4629.743652,4203.077147999999,4280.0,4292.820313,0.0,3.0,73.0,,,,0.0,4.0,0.0,4.0,0.0,4.0,33.333332,,,,,,,,28.0,0.0,0.252446,-0.453125,0.46411099999999994,0.718018,0.9028459999999999,-0.433112,-0.163577,-0.045064,-0.055462,-0.013372,,,,,,,,,,,,,,,,,,,,,,,,,,,,,,,,,,,,,,,,,,,,,,,,,,,,,,,,,,,,,,,,,
11643,1650414130.15485,1650414130.181781,57.0,0.0,4228.717772999999,4644.102539,4214.358886999999,4281.025879,4296.922852000001,0.0,3.0,73.0,,,,0.0,4.0,0.0,4.0,0.0,4.0,33.333332,,,,,,,,,,,,,,,,,,,,1.0,0.0,0.0,,,,,,,,,,,,,,,,,,,,,,,,,,,,,,,,0.0,0.0,1.0,0.0,512.0,0.9529350000000001,12.155764,2.633314,2.962584,1.6624240000000001,1.443827,30.738236999999998,20.419287,11.570948,9.312609,7.924988000000001,1.363323,1.350047,0.6745359999999999,0.534192,0.399675,0.080358,0.143543,0.093198,0.055589,0.059611000000000004,3.873529,2.637009,2.681451,1.338771,1.545026
11644,1650414130.1626642,1650414130.189496,58.0,0.0,4239.487305,4656.922852000001,4225.641113000001,4280.512695,4296.922852000001,0.0,3.0,73.0,,,,0.0,4.0,0.0,4.0,0.0,4.0,33.333332,,,,,,,,29.0,0.0,0.25245700000000004,-0.45336899999999997,0.46386700000000003,0.718018,0.893568,-0.442878,-0.166018,-0.045439999999999994,-0.055482000000000004,-0.015307,,,,,,,,,,,,,,,,,,,,,,,,,,,,,,,,,,,,,,,,,,,,,,,,,,,,,,,,,,,,,,,,,
11645,1650414130.1704788,1650414130.19731,59.0,0.0,4242.563965,4644.102539,4214.871582,4279.487305,4281.538574,0.0,3.0,73.0,,,,0.0,4.0,0.0,4.0,0.0,4.0,33.333332,,,,,,,,,,,,,,,,,,,,,,,,,,,,,,,,,,,,,,,,,,,,,,,,,,,,,,,,,,,,,,,,,,,,,,,,,,,,,,,,,,,,
11646,1650414130.178293,1650414130.205125,60.0,0.0,4235.897461,4609.743652,4204.615234000001,4273.846191,4267.179688,0.0,3.0,73.0,,,,0.0,4.0,0.0,4.0,0.0,4.0,33.333332,,,,,,,,30.0,0.0,0.25245700000000004,-0.45336899999999997,0.46386700000000003,0.718018,0.904799,-0.445808,-0.166506,-0.044168,-0.055549,-0.017243,,,,,,,,,,,,,,,,,,,,,,,,,,,,,,,,,,,,,,,,,,,,,,,,,,,,,,,,,,,,,,,,,
11647,1650414130.186108,1650414130.21284,61.0,0.0,4237.94873,4612.820313,4202.05127,4270.256348,4270.769043,0.0,3.0,73.0,,,,0.0,4.0,0.0,4.0,0.0,4.0,33.333332,,,,,,,,,,,,,,,,,,,,,,,,,,,,,,,,,,,,,,,,,,,,,,,,,,,,,,0.0,0.0,1.0,0.0,512.0,0.9529350000000001,,,,,,,,,,,,,,,,,,,,,,,,,
11648,1650414130.193922,1650414130.2205539,62.0,0.0,4238.974121,4645.641113000001,4195.897461,4271.794922,4269.743652,0.0,3.0,73.0,,,,0.0,4.0,0.0,4.0,0.0,4.0,33.333332,,,,,,,,31.0,0.0,0.252008,-0.45336899999999997,0.46411099999999994,0.718018,0.8955209999999999,-0.44190100000000004,-0.161624,-0.044683,-0.055707000000000007,-0.018888,,,,,,,,,,,,,,,,,,,,,,,,,,,,,,,,,,,,,,,,,,,,,,,,,,,,,,,,,,,,,,,,,
11649,1650414130.201737,1650414130.228369,63.0,0.0,4226.666504,4647.179688,4197.94873,4274.871582,4268.205078,0.0,3.0,73.0,,,,0.0,4.0,0.0,4.0,0.0,4.0,33.333332,,,,,,,,,,,,,,,,,,,,,,,,,,,,,,,,,,,,,,,,,,,,,,,,,,,,,,,,,,,,,,,,,,,,,,,,,,,,,,,,,,,,
11650,1650414130.209552,1650414130.236084,64.0,0.0,4227.179688,4640.512695,4198.974121,4280.0,4281.538574,450.0,3.0,73.0,,,,0.0,4.0,0.0,4.0,0.0,4.0,33.333332,,,,,,,,32.0,0.0,0.252008,-0.45336899999999997,0.46411099999999994,0.718018,0.897475,-0.437507,-0.175784,-0.045146,-0.055702999999999996,-0.016853,,,,,,,,,,,,,,,,,,,,,,,,,,,,,,,,,,,,,,,,,,,,,,,,,,,,,,,,,,,,,,,,,
11651,1650414130.217366,1650414130.2438982,65.0,0.0,4239.487305,4649.230957,4184.102539,4282.05127,4274.871582,450.0,3.0,73.0,,,,0.0,4.0,0.0,4.0,0.0,4.0,33.333332,,,,,,,,,,,,,,,,,,,,,,,,,,,,,,,,,,,,,,,,,,,,,,,,,,,,,,0.0,0.0,1.0,0.0,512.0,0.9529350000000001,,,,,,,,,,,,,,,,,,,,,,,,,
11652,1650414130.225181,1650414130.2516131,66.0,0.0,4231.282227000001,4620.512695,4181.538574,4276.922852000001,4253.846191,16222.0,3.0,73.0,,,,0.0,4.0,0.0,4.0,0.0,4.0,33.333332,,,,,,,,33.0,0.0,0.251761,-0.45336899999999997,0.46386700000000003,0.718262,0.882338,-0.449226,-0.183108,-0.045417,-0.055797,-0.018585,,,,,,,,,,,,,,,,,,,,,,,,,,,,,,,,,,,,,,,,,,,,,,,,,,,,,,,,,,,,,,,,,
11653,1650414130.232995,1650414130.259428,67.0,0.0,4223.077147999999,4594.871582,4194.871582,4275.897461,4263.077147999999,450.0,3.0,73.0,,,,0.0,4.0,0.0,4.0,0.0,4.0,33.333332,,,,,,,,,,,,,,,,,,,,,,,,,,,,,,,,,,,,,,,,,,,,,,,,,,,,,,,,,,,,,,,,,,,,,,,,,,,,,,,,,,,,
11654,1650414130.24081,1650414130.267143,68.0,0.0,4225.128418,4617.94873,4193.333496,4277.94873,4279.487305,17.0,3.0,73.0,,,,0.0,4.0,0.0,4.0,0.0,4.0,33.333332,,,,,,,,34.0,0.0,0.251761,-0.45336899999999997,0.46386700000000003,0.718262,0.8886850000000001,-0.4336,-0.156252,-0.045758,-0.05588099999999999,-0.016678,,,,,,,,,,,,,,,,,,,,,,,,,,,,,,,,,,,,,,,,,,,,,,,,,,,,,,,,,,,,,,,,,
11655,1650414130.248624,1650414130.274957,69.0,0.0,4228.717772999999,4598.974121,4190.769043,4277.94873,4283.589844,450.0,3.0,73.0,,,,0.0,4.0,0.0,4.0,0.0,4.0,33.333332,,,,,,,,,,,,,,,,,,,,,,,,,,,,,,,,,,,,,,,,,,,,,,,,,,,,,,0.0,0.0,1.0,0.0,512.0,0.9529350000000001,,,,,,,,,,,,,,,,,,,,,,,,,
11656,1650414130.256439,1650414130.2826722,70.0,0.0,4240.0,4593.333496,4198.974121,4278.461426,4292.307617,16141.0,3.0,73.0,,,,0.0,4.0,0.0,4.0,0.0,4.0,33.333332,,,,,,,,35.0,0.0,0.251761,-0.45336899999999997,0.46386700000000003,0.718262,0.890639,-0.44434300000000004,-0.166018,-0.046113999999999995,-0.055908000000000006,-0.018428,,,,,,,,,,,,,,,,,,,,,,,,,,,,,,,,,,,,,,,,,,,,,,,,,,,,,,,,,,,,,,,,,
11657,1650414130.264253,1650414130.2904868,71.0,0.0,4249.743652,4654.358886999999,4201.025879,4279.487305,4291.794922,450.0,3.0,73.0,,,,0.0,4.0,0.0,4.0,0.0,4.0,33.333332,,,,,,,,,,,,,,,,,,,,,,,,,,,,,,,,,,,,,,,,,,,,,,,,,,,,,,,,,,,,,,,,,,,,,,,,,,,,,,,,,,,,
11658,1650414130.272068,1650414130.298201,72.0,0.0,4250.256348,4643.589844,4207.692383,4278.461426,4284.102539,450.0,3.0,73.0,,,,0.0,4.0,0.0,4.0,0.0,4.0,33.333332,,,,,,,,36.0,0.0,0.251321,-0.453613,0.46386700000000003,0.718262,0.893568,-0.437018,-0.155764,-0.046288,-0.055982000000000004,-0.020003,,,,,,,,,,,,,,,,,,,,,,,,,,,,,,,,,,,,,,,,,,,,,,,,,,,,,,,,,,,,,,,,,
11659,1650414130.279882,1650414130.306016,73.0,0.0,4252.820313,4601.538574,4213.333496,4277.94873,4298.974121,0.0,3.0,73.0,,,,0.0,4.0,0.0,4.0,0.0,4.0,33.333332,0.972656,8.333333,1.0,0.0,4.0,0.0,4.0,,,,,,,,,,,,,1.0,0.0,0.0,,,,,,,,,,,,,,,,,,,,,,,,,,,,,,,,0.0,0.0,1.0,0.0,512.0,1.0,5.3129919999999995,2.228341,3.679357,1.7332889999999999,1.2781870000000002,19.549177,19.521931,11.36551,8.135791000000001,7.142457,1.0986559999999999,1.3621370000000002,0.753753,0.535311,0.36232600000000004,0.107092,0.18935,0.11402999999999999,0.075639,0.078319,3.7249260000000004,2.543509,3.5059489999999998,1.679643,1.47674
11660,1650414130.287697,1650414130.313731,74.0,0.0,4271.282227000001,4640.0,4200.0,4280.0,4319.487305,450.0,3.0,73.0,,,,0.0,4.0,0.0,4.0,0.0,4.0,33.333332,,,,,,,,37.0,0.0,0.251321,-0.453613,0.46386700000000003,0.718262,0.9077290000000001,-0.44385399999999997,-0.166018,-0.045077,-0.055901,-0.021322999999999998,,,,,,,,,,,,,,,,,,,,,,,,,,,,,,,,,,,,,,,,,,,,,,,,,,,,,,,,,,,,,,,,,
11661,1650414130.295511,1650414130.321545,75.0,0.0,4265.128418,4645.128418,4196.410156,4278.974121,4308.205078,16216.0,3.0,73.0,,,,0.0,4.0,0.0,4.0,0.0,4.0,33.333332,,,,,,,,,,,,,,,,,,,,,,,,,,,,,,,,,,,,,,,,,,,,,,,,,,,,,,,,,,,,,,,,,,,,,,,,,,,,,,,,,,,,
11662,1650414130.303326,1650414130.3292599,76.0,0.0,4236.922852000001,4574.358886999999,4216.922852000001,4276.922852000001,4297.94873,450.0,3.0,73.0,,,,0.0,4.0,0.0,4.0,0.0,4.0,33.333332,,,,,,,,38.0,0.0,0.251321,-0.453613,0.46386700000000003,0.718262,0.8798959999999999,-0.443366,-0.159182,-0.04389,-0.055829,-0.022609,,,,,,,,,,,,,,,,,,,,,,,,,,,,,,,,,,,,,,,,,,,,,,,,,,,,,,,,,,,,,,,,,
11663,1650414130.31114,1650414130.336975,77.0,0.0,4254.871582,4535.384765999999,4223.077147999999,4278.461426,4316.922852000001,450.0,3.0,73.0,,,,0.0,4.0,0.0,4.0,0.0,4.0,33.333332,,,,,,,,,,,,,,,,,,,,,,,,,,,,,,,,,,,,,,,,,,,,,,,,,,,,,,0.0,0.0,1.0,0.0,512.0,1.0,,,,,,,,,,,,,,,,,,,,,,,,,
11664,1650414130.3189552,1650414130.34469,78.0,0.0,4291.282227000001,4555.897461,4206.666504,4279.487305,4328.717772999999,450.0,3.0,73.0,,,,0.0,4.0,0.0,4.0,0.0,4.0,33.333332,,,,,,,,39.0,0.0,0.251321,-0.453613,0.46386700000000003,0.718262,0.8881969999999999,-0.449226,-0.154788,-0.044432,-0.055861,-0.023717,,,,,,,,,,,,,,,,,,,,,,,,,,,,,,,,,,,,,,,,,,,,,,,,,,,,,,,,,,,,,,,,,
11665,1650414130.3267689,1650414130.352504,79.0,0.0,4303.077147999999,4637.94873,4202.563965,4279.487305,4327.692383,16216.0,3.0,73.0,,,,0.0,4.0,0.0,4.0,0.0,4.0,33.333332,,,,,,,,,,,,,,,,,,,,,,,,,,,,,,,,,,,,,,,,,,,,,,,,,,,,,,,,,,,,,,,,,,,,,,,,,,,,,,,,,,,,
11666,1650414130.334584,1650414130.360319,80.0,0.0,4307.692383,4697.94873,4218.461426,4279.487305,4347.179688,450.0,3.0,73.0,,,,0.0,4.0,0.0,4.0,0.0,4.0,33.333332,,,,,,,,40.0,0.0,0.25201799999999996,-0.453613,0.46386700000000003,0.718018,0.8847790000000001,-0.45410900000000004,-0.16406500000000002,-0.044872,-0.055889999999999995,-0.021199000000000003,,,,,,,,,,,,,,,,,,,,,,,,,,,,,,,,,,,,,,,,,,,,,,,,,,,,,,,,,,,,,,,,,
11667,1650414130.3423991,1650414130.368034,81.0,0.0,4310.256348,4669.230957,4224.615234000001,4280.512695,4365.128418,450.0,3.0,73.0,,,,0.0,4.0,0.0,4.0,0.0,4.0,33.333332,,,,,,,,,,,,,,,,,,,,,,,,,,,,,,,,,,,,,,,,,,,,,,,,,,,,,,0.0,0.0,1.0,0.0,512.0,1.0,,,,,,,,,,,,,,,,,,,,,,,,,
11668,1650414130.350213,1650414130.3757482,82.0,0.0,4304.102539,4668.205078,4202.05127,4280.0,4344.102539,450.0,3.0,73.0,,,,0.0,4.0,0.0,4.0,0.0,4.0,33.333332,,,,,,,,41.0,0.0,0.25156799999999996,-0.453613,0.46411099999999994,0.718018,0.9131,-0.43946,-0.165042,-0.045219,-0.05581900000000001,-0.022546,,,,,,,,,,,,,,,,,,,,,,,,,,,,,,,,,,,,,,,,,,,,,,,,,,,,,,,,,,,,,,,,,
11669,1650414130.358028,1650414130.383563,83.0,0.0,4296.922852000001,4664.102539,4193.333496,4277.94873,4325.641113000001,16216.0,3.0,73.0,,,,0.0,4.0,0.0,4.0,0.0,4.0,33.333332,,,,,,,,,,,,,,,,,,,,,,,,,,,,,,,,,,,,,,,,,,,,,,,,,,,,,,,,,,,,,,,,,,,,,,,,,,,,,,,,,,,,
11670,1650414130.365842,1650414130.391278,84.0,0.0,4289.743652,4631.794922,4205.641113000001,4277.94873,4333.846191,450.0,3.0,73.0,,,,0.0,4.0,0.0,4.0,0.0,4.0,33.333332,,,,,,,,42.0,0.0,0.25155700000000003,-0.45336899999999997,0.464355,0.718018,0.893568,-0.45410900000000004,-0.153811,-0.04558,-0.05570599999999999,-0.020194,,,,,,,,,,,,,,,,,,,,,,,,,,,,,,,,,,,,,,,,,,,,,,,,,,,,,,,,,,,,,,,,,
11671,1650414130.373657,1650414130.399092,85.0,0.0,4274.871582,4675.384765999999,4189.743652,4278.974121,4318.974121,450.0,3.0,73.0,,,,0.0,4.0,0.0,4.0,0.0,4.0,33.333332,,,,,,,,,,,,,,,,,,,,,,,,,,,,,,,,,,,,,,,,,,,,,,,,,,,,,,0.0,0.0,1.0,0.0,512.0,1.0,,,,,,,,,,,,,,,,,,,,,,,,,
