,Timestamp,OriginalTimestamp,EEG.Counter,EEG.Interpolated,EEG.AF3,EEG.T7,EEG.Pz,EEG.T8,EEG.AF4,EEG.RawCq,EEG.Battery,EEG.BatteryPercent,MarkerIndex,MarkerType,MarkerValueInt,EEG.MarkerHardware,CQ.AF3,CQ.T7,CQ.Pz,CQ.T8,CQ.AF4,CQ.Overall,EQ.SampleRateQuality,EQ.OVERALL,EQ.AF3,EQ.T7,EQ.Pz,EQ.T8,EQ.AF4,MOT.CounterMems,MOT.InterpolatedMems,MOT.Q0,MOT.Q1,MOT.Q2,MOT.Q3,MOT.AccX,MOT.AccY,MOT.AccZ,MOT.MagX,MOT.MagY,MOT.MagZ,MC.Action,MC.ActionPower,MC.IsActive,PM.Engagement.IsActive,PM.Engagement.Scaled,PM.Engagement.Raw,PM.Engagement.Min,PM.Engagement.Max,PM.Excitement.IsActive,PM.Excitement.Scaled,PM.Excitement.Raw,PM.Excitement.Min,PM.Excitement.Max,PM.LongTermExcitement,PM.Stress.IsActive,PM.Stress.Scaled,PM.Stress.Raw,PM.Stress.Min,PM.Stress.Max,PM.Relaxation.IsActive,PM.Relaxation.Scaled,PM.Relaxation.Raw,PM.Relaxation.Min,PM.Relaxation.Max,PM.Interest.IsActive,PM.Interest.Scaled,PM.Interest.Raw,PM.Interest.Min,PM.Interest.Max,PM.Focus.IsActive,PM.Focus.Scaled,PM.Focus.Raw,PM.Focus.Min,PM.Focus.Max,FE.BlinkWink,FE.HorizontalEyesDirection,FE.UpperFaceAction,FE.UpperFaceActionPower,FE.LowerFaceAction,FE.LowerFaceActionPower,POW.AF3.Theta,POW.AF3.Alpha,POW.AF3.BetaL,POW.AF3.BetaH,POW.AF3.Gamma,POW.T7.Theta,POW.T7.Alpha,POW.T7.BetaL,POW.T7.BetaH,POW.T7.Gamma,POW.Pz.Theta,POW.Pz.Alpha,POW.Pz.BetaL,POW.Pz.BetaH,POW.Pz.Gamma,POW.T8.Theta,POW.T8.Alpha,POW.T8.BetaL,POW.T8.BetaH,POW.T8.Gamma,POW.AF4.Theta,POW.AF4.Alpha,POW.AF4.BetaL,POW.AF4.BetaH,POW.AF4.Gamma
11043,1650415325.537133,1650415325.564692,65.0,0.0,4430.256348,4194.358886999999,4313.333496,4293.333496,4372.820313,450.0,3.0,68.0,,,,0.0,4.0,2.0,0.0,0.0,4.0,16.666666,,,,,,,,,,,,,,,,,,,,,,,,,,,,,,,,,,,,,,,,,,,,,,,,,,,,,,0.0,0.0,1.0,0.0,512.0,1.0,,,,,,,,,,,,,,,,,,,,,,,,,
11044,1650415325.5449471,1650415325.572506,66.0,0.0,4422.05127,4232.820313,4308.717772999999,4335.384765999999,4380.0,16206.0,3.0,68.0,,,,0.0,4.0,2.0,0.0,0.0,4.0,16.666666,,,,,,,,33.0,0.0,0.078687,-0.549072,0.340332,0.7592770000000001,0.8994280000000001,-0.423346,-0.160159,-0.046543,-0.055517,-0.025368,,,,,,,,,,,,,,,,,,,,,,,,,,,,,,,,,,,,,,,,,,,,,,,,,,,,,,,,,,,,,,,,,
11045,1650415325.552762,1650415325.5804212,67.0,0.0,4420.0,4206.153809,4311.282227000001,4313.333496,4349.743652,450.0,3.0,68.0,,,,0.0,4.0,2.0,0.0,0.0,4.0,16.666666,,,,,,,,,,,,,,,,,,,,,,,,,,,,,,,,,,,,,,,,,,,,,,,,,,,,,,,,,,,,,,,,,,,,,,,,,,,,,,,,,,,,
11046,1650415325.560577,1650415325.588235,68.0,0.0,4429.230957,4184.615234000001,4331.794922,4315.384765999999,4341.025879,221.0,3.0,68.0,,,,0.0,4.0,2.0,0.0,0.0,4.0,16.666666,,,,,,,,34.0,0.0,0.078687,-0.549072,0.340332,0.7592770000000001,0.902358,-0.422858,-0.167483,-0.046528,-0.05558,-0.026249,,,,,,,,,,,,,,,,,,,,,,,,,,,,,,,,,,,,,,,,,,,,,,,,,,,,,,,,,,,,,,,,,
11047,1650415325.568391,1650415325.59605,69.0,0.0,4422.563965,4196.410156,4316.410156,4328.717772999999,4353.846191,450.0,3.0,68.0,,,,0.0,4.0,2.0,0.0,0.0,4.0,16.666666,,,,,,,,,,,,,,,,,,,,,,,,,,,,,,,,,,,,,,,,,,,,,,,,,,,,,,0.0,0.0,1.0,0.0,512.0,1.0,,,,,,,,,,,,,,,,,,,,,,,,,
11048,1650415325.576206,1650415325.603965,70.0,0.0,4397.94873,4207.179688,4284.615234000001,4289.743652,4363.589844,103.0,3.0,68.0,,,,0.0,4.0,2.0,1.0,0.0,4.0,25.0,,,,,,,,35.0,0.0,0.079336,-0.549316,0.340332,0.759033,0.9038219999999999,-0.43262399999999995,-0.16406500000000002,-0.046465,-0.055686,-0.020694999999999998,,,,,,,,,,,,,,,,,,,,,,,,,,,,,,,,,,,,,,,,,,,,,,,,,,,,,,,,,,,,,,,,,
11049,1650415325.584021,1650415325.6118789,71.0,0.0,4386.666504,4232.820313,4288.205078,4267.692383,4350.256348,450.0,3.0,68.0,,,,0.0,4.0,2.0,1.0,0.0,4.0,25.0,,,,,,,,,,,,,,,,,,,,,,,,,,,,,,,,,,,,,,,,,,,,,,,,,,,,,,,,,,,,,,,,,,,,,,,,,,,,,,,,,,,,
11050,1650415325.591835,1650415325.619694,72.0,0.0,4400.512695,4255.897461,4333.333496,4290.769043,4332.307617,450.0,3.0,68.0,,,,0.0,4.0,2.0,1.0,0.0,4.0,25.0,,,,,,,,36.0,0.0,0.078687,-0.549072,0.340332,0.7592770000000001,0.8994280000000001,-0.423346,-0.160159,-0.046457,-0.055636,-0.018576,,,,,,,,,,,,,,,,,,,,,,,,,,,,,,,,,,,,,,,,,,,,,,,,,,,,,,,,,,,,,,,,,
11051,1650415325.59965,1650415325.627608,73.0,0.0,4419.487305,4210.769043,4350.769043,4307.692383,4325.641113000001,0.0,3.0,68.0,,,,0.0,4.0,2.0,1.0,0.0,4.0,25.0,1.0,8.333333,3.0,1.0,0.0,0.0,3.0,,,,,,,,,,,,,1.0,0.0,0.0,,,,,,,,,,,,,,,,,,,,,,,,,,,,,,,,0.0,0.0,1.0,0.0,512.0,1.0,26.928827000000002,5.55063,3.16277,4.491246,4.320168,99.57839200000001,96.317123,35.951958000000005,20.751951000000002,10.365469000000001,2.4216450000000003,2.7078990000000003,3.307756,2.804999,2.9842459999999997,5.524666000000001,5.3209480000000005,3.2621569999999998,3.244516,3.845407,12.18572,4.808687,3.148863,9.978387,3.763575
11052,1650415325.607464,1650415325.635423,74.0,0.0,4393.846191,4140.0,4327.692383,4278.461426,4322.05127,450.0,3.0,68.0,,,,0.0,4.0,2.0,1.0,0.0,4.0,25.0,,,,,,,,37.0,0.0,0.079336,-0.549316,0.340332,0.759033,0.9038219999999999,-0.43262399999999995,-0.16406500000000002,-0.046401,-0.055736,-0.013789,,,,,,,,,,,,,,,,,,,,,,,,,,,,,,,,,,,,,,,,,,,,,,,,,,,,,,,,,,,,,,,,,
11053,1650415325.615279,1650415325.6433382,75.0,0.0,4367.179688,4118.974121,4313.333496,4251.794922,4314.358886999999,16173.0,3.0,68.0,,,,0.0,4.0,2.0,1.0,0.0,4.0,25.0,,,,,,,,,,,,,,,,,,,,,,,,,,,,,,,,,,,,,,,,,,,,,,,,,,,,,,,,,,,,,,,,,,,,,,,,,,,,,,,,,,,,
11054,1650415325.623093,1650415325.651252,76.0,0.0,4386.153809,4127.692383,4304.615234000001,4275.897461,4338.974121,450.0,3.0,68.0,,,,0.0,4.0,2.0,1.0,0.0,4.0,25.0,,,,,,,,38.0,0.0,0.079336,-0.549316,0.340332,0.759033,0.897963,-0.42920600000000003,-0.16406500000000002,-0.046350999999999996,-0.05567999999999999,-0.015778999999999998,,,,,,,,,,,,,,,,,,,,,,,,,,,,,,,,,,,,,,,,,,,,,,,,,,,,,,,,,,,,,,,,,
11055,1650415325.630908,1650415325.659067,77.0,0.0,4413.846191,4153.333496,4326.153809,4317.436035,4360.512695,450.0,3.0,68.0,,,,0.0,4.0,2.0,1.0,0.0,4.0,25.0,,,,,,,,,,,,,,,,,,,,,,,,,,,,,,,,,,,,,,,,,,,,,,,,,,,,,,0.0,0.0,1.0,0.0,512.0,1.0,,,,,,,,,,,,,,,,,,,,,,,,,
11056,1650415325.6387231,1650415325.666881,78.0,0.0,4388.205078,4190.256348,4333.846191,4298.461426,4308.205078,450.0,3.0,68.0,,,,0.0,4.0,2.0,1.0,0.0,4.0,25.0,,,,,,,,39.0,0.0,0.07828099999999999,-0.549316,0.34057600000000005,0.759033,0.885267,-0.431647,-0.151369,-0.046404,-0.055776,-0.014006000000000001,,,,,,,,,,,,,,,,,,,,,,,,,,,,,,,,,,,,,,,,,,,,,,,,,,,,,,,,,,,,,,,,,
11057,1650415325.6465368,1650415325.674796,79.0,0.0,4355.897461,4229.230957,4310.769043,4250.256348,4289.230957,16173.0,3.0,68.0,,,,0.0,4.0,2.0,1.0,0.0,4.0,25.0,,,,,,,,,,,,,,,,,,,,,,,,,,,,,,,,,,,,,,,,,,,,,,,,,,,,,,,,,,,,,,,,,,,,,,,,,,,,,,,,,,,,
11058,1650415325.654352,1650415325.682611,80.0,0.0,4391.794922,4248.205078,4317.94873,4270.769043,4343.589844,450.0,3.0,68.0,,,,0.0,4.0,2.0,1.0,0.0,4.0,25.0,,,,,,,,40.0,0.0,0.07828099999999999,-0.549316,0.34057600000000005,0.759033,0.900893,-0.427741,-0.165042,-0.046402,-0.055813999999999996,-0.015926,,,,,,,,,,,,,,,,,,,,,,,,,,,,,,,,,,,,,,,,,,,,,,,,,,,,,,,,,,,,,,,,,
11059,1650415325.662166,1650415325.690525,81.0,0.0,4420.0,4256.922852000001,4340.512695,4311.282227000001,4349.743652,450.0,3.0,68.0,,,,0.0,4.0,2.0,1.0,0.0,4.0,25.0,,,,,,,,,,,,,,,,,,,,,,,,,,,,,,,,,,,,,,,,,,,,,,,,,,,,,,0.0,0.0,1.0,0.0,512.0,1.0,,,,,,,,,,,,,,,,,,,,,,,,,
11060,1650415325.669981,1650415325.69834,82.0,0.0,4394.871582,4257.436035,4330.769043,4296.922852000001,4319.487305,450.0,3.0,68.0,,,,0.0,4.0,2.0,1.0,0.0,4.0,25.0,,,,,,,,41.0,0.0,0.07828099999999999,-0.549316,0.34057600000000005,0.759033,0.897475,-0.425788,-0.167483,-0.046401,-0.05575,-0.017605000000000003,,,,,,,,,,,,,,,,,,,,,,,,,,,,,,,,,,,,,,,,,,,,,,,,,,,,,,,,,,,,,,,,,
11061,1650415325.6777961,1650415325.706254,83.0,0.0,4400.512695,4212.307617,4307.179688,4303.589844,4336.410156,16173.0,3.0,68.0,,,,0.0,4.0,2.0,1.0,0.0,4.0,25.0,,,,,,,,,,,,,,,,,,,,,,,,,,,,,,,,,,,,,,,,,,,,,,,,,,,,,,,,,,,,,,,,,,,,,,,,,,,,,,,,,,,,
11062,1650415325.68561,1650415325.714169,84.0,1.0,4396.987305,4216.025879,4308.782227000001,4303.653809,4335.063965,16173.0,3.0,68.0,,,,0.0,4.0,2.0,1.0,0.0,4.0,25.0,,,,,,,,42.0,1.0,0.07801699999999999,-0.549219,0.34057600000000005,0.759131,0.8978649999999999,-0.428425,-0.167678,-0.0464,-0.055749,-0.017243,,,,,,,,,,,,,,,,,,,,,,,,,,,,,,,,,,,,,,,,,,,,,,,,,,,,,,,,,,,,,,,,,
11063,1650415325.693425,1650415325.721983,85.0,1.0,4393.461426,4219.743652,4310.384765999999,4303.717772999999,4333.717772999999,16173.0,3.0,68.0,,,,0.0,4.0,2.0,1.0,0.0,4.0,25.0,,,,,,,,,,,,,,,,,,,,,,,,,,,,,,,,,,,,,,,,,,,,,,,,,,,,,,0.0,0.0,1.0,0.0,512.0,1.0,,,,,,,,,,,,,,,,,,,,,,,,,
11064,1650415325.70124,1650415325.729798,86.0,1.0,4389.936035,4223.461426,4311.987305,4303.782227000001,4332.371582,16173.0,3.0,68.0,,,,0.0,4.0,2.0,1.0,0.0,4.0,25.0,,,,,,,,43.0,1.0,0.077752,-0.549121,0.34057600000000005,0.759229,0.8982559999999999,-0.43106099999999997,-0.167874,-0.0464,-0.055747000000000005,-0.016881,,,,,,,,,,,,,,,,,,,,,,,,,,,,,,,,,,,,,,,,,,,,,,,,,,,,,,,,,,,,,,,,,
11065,1650415325.709054,1650415325.7376132,87.0,1.0,4386.410156,4227.179688,4313.589844,4303.846191,4331.025879,16173.0,3.0,68.0,,,,0.0,4.0,2.0,1.0,0.0,4.0,25.0,,,,,,,,,,,,,,,,,,,,,,,,,,,,,,,,,,,,,,,,,,,,,,,,,,,,,,,,,,,,,,,,,,,,,,,,,,,,,,,,,,,,
11066,1650415325.7168689,1650415325.745427,88.0,1.0,4382.884765999999,4230.897461,4315.192383,4303.910156,4329.679688,16173.0,3.0,68.0,,,,0.0,4.0,2.0,1.0,0.0,4.0,25.0,,,,,,,,44.0,1.0,0.077488,-0.5490229999999999,0.34057600000000005,0.7593260000000001,0.898647,-0.433698,-0.168069,-0.0464,-0.055745,-0.016519,,,,,,,,,,,,,,,,,,,,,,,,,,,,,,,,,,,,,,,,,,,,,,,,,,,,,,,,,,,,,,,,,
11067,1650415325.724683,1650415325.753242,89.0,1.0,4379.358886999999,4234.615234000001,4316.794922,4303.974121,4328.333496,16173.0,3.0,68.0,,,,0.0,4.0,2.0,1.0,0.0,4.0,25.0,,,,,,,,,,,,,,,,,,,,1.0,0.0,0.0,,,,,,,,,,,,,,,,,,,,,,,,,,,,,,,,0.0,0.0,1.0,0.0,512.0,0.7915949999999999,28.220726000000003,6.880462,4.032737,4.552485,4.427377,94.397247,80.518105,34.90765,20.112688000000002,10.548561,2.180748,2.3431040000000003,2.714785,2.908728,2.9969919999999997,6.692114999999999,5.956297,3.0665970000000002,3.336751,3.9607959999999998,11.681337,4.423783,4.044207,10.009928,3.796885
11068,1650415325.732498,1650415325.7610571,90.0,1.0,4375.833496,4238.333496,4318.397461,4304.038574,4326.987305,16173.0,3.0,68.0,,,,0.0,4.0,2.0,1.0,0.0,4.0,25.0,,,,,,,,45.0,1.0,0.077223,-0.548926,0.34057600000000005,0.759424,0.8990370000000001,-0.43633500000000003,-0.168264,-0.046399,-0.055742999999999994,-0.016156999999999998,,,,,,,,,,,,,,,,,,,,,,,,,,,,,,,,,,,,,,,,,,,,,,,,,,,,,,,,,,,,,,,,,
11069,1650415325.740313,1650415325.768871,91.0,0.0,4372.307617,4242.05127,4320.0,4304.102539,4325.641113000001,16173.0,3.0,68.0,,,,0.0,4.0,2.0,1.0,0.0,4.0,25.0,,,,,,,,,,,,,,,,,,,,,,,,,,,,,,,,,,,,,,,,,,,,,,,,,,,,,,,,,,,,,,,,,,,,,,,,,,,,,,,,,,,,
11070,1650415325.748127,1650415325.776686,92.0,0.0,4351.794922,4201.025879,4332.307617,4277.94873,4274.871582,450.0,3.0,68.0,,,,0.0,4.0,2.0,1.0,0.0,4.0,25.0,,,,,,,,46.0,0.0,0.076959,-0.548828,0.34057600000000005,0.759521,0.8994280000000001,-0.43897200000000003,-0.16846,-0.046399,-0.05574199999999999,-0.015795,,,,,,,,,,,,,,,,,,,,,,,,,,,,,,,,,,,,,,,,,,,,,,,,,,,,,,,,,,,,,,,,,
11071,1650415325.755942,1650415325.784501,93.0,0.0,4355.384765999999,4279.487305,4322.05127,4260.0,4329.743652,450.0,3.0,68.0,,,,0.0,4.0,2.0,1.0,0.0,4.0,25.0,,,,,,,,,,,,,,,,,,,,,,,,,,,,,,,,,,,,,,,,,,,,,,,,,,,,,,0.0,0.0,1.0,0.0,512.0,0.7915949999999999,,,,,,,,,,,,,,,,,,,,,,,,,
11072,1650415325.763756,1650415325.792215,94.0,0.0,4407.179688,4340.0,4333.333496,4295.897461,4368.205078,450.0,3.0,68.0,,,,0.0,4.0,2.0,1.0,0.0,4.0,25.0,,,,,,,,47.0,0.0,0.076959,-0.548828,0.34057600000000005,0.759521,0.906264,-0.437507,-0.166506,-0.046349,-0.055783000000000006,-0.017536000000000003,,,,,,,,,,,,,,,,,,,,,,,,,,,,,,,,,,,,,,,,,,,,,,,,,,,,,,,,,,,,,,,,,
11073,1650415325.7715712,1650415325.79993,95.0,0.0,4425.641113000001,4263.077147999999,4338.461426,4329.743652,4317.94873,16173.0,3.0,68.0,,,,0.0,4.0,2.0,1.0,0.0,4.0,25.0,,,,,,,,,,,,,,,,,,,,,,,,,,,,,,,,,,,,,,,,,,,,,,,,,,,,,,,,,,,,,,,,,,,,,,,,,,,,,,,,,,,,
11074,1650415325.779386,1650415325.8076448,96.0,0.0,4364.615234000001,4241.538574,4332.307617,4321.538574,4293.846191,450.0,3.0,68.0,,,,0.0,4.0,2.0,1.0,0.0,4.0,25.0,,,,,,,,48.0,0.0,0.076959,-0.548828,0.34057600000000005,0.759521,0.887709,-0.422858,-0.16894800000000001,-0.046255000000000004,-0.055771,-0.019201,,,,,,,,,,,,,,,,,,,,,,,,,,,,,,,,,,,,,,,,,,,,,,,,,,,,,,,,,,,,,,,,,
11075,1650415325.7872,1650415325.81546,97.0,0.0,4348.717772999999,4275.897461,4335.897461,4311.794922,4323.077147999999,450.0,3.0,68.0,,,,0.0,4.0,2.0,1.0,0.0,4.0,25.0,,,,,,,,,,,,,,,,,,,,,,,,,,,,,,,,,,,,,,,,,,,,,,,,,,,,,,0.0,0.0,1.0,0.0,512.0,0.7915949999999999,,,,,,,,,,,,,,,,,,,,,,,,,
11076,1650415325.795015,1650415325.8232741,98.0,0.0,4386.153809,4210.769043,4333.333496,4323.589844,4320.512695,450.0,3.0,68.0,,,,0.0,4.0,2.0,1.0,0.0,4.0,25.0,,,,,,,,49.0,0.0,0.076959,-0.548828,0.34057600000000005,0.759521,0.89015,-0.43213500000000005,-0.155276,-0.046317000000000004,-0.055663,-0.02065,,,,,,,,,,,,,,,,,,,,,,,,,,,,,,,,,,,,,,,,,,,,,,,,,,,,,,,,,,,,,,,,,
11077,1650415325.80283,1650415325.8309891,99.0,0.0,4375.384765999999,4156.410156,4302.05127,4301.538574,4289.230957,16173.0,3.0,68.0,,,,0.0,4.0,2.0,1.0,0.0,4.0,25.0,,,,,,,,,,,,,,,,,,,,,,,,,,,,,,,,,,,,,,,,,,,,,,,,,,,,,,,,,,,,,,,,,,,,,,,,,,,,,,,,,,,,
11078,1650415325.810644,1650415325.838804,100.0,0.0,4365.128418,4222.563965,4293.333496,4255.897461,4309.230957,450.0,3.0,68.0,,,,0.0,4.0,2.0,1.0,0.0,4.0,25.0,,,,,,,,50.0,0.0,0.076959,-0.548828,0.34057600000000005,0.759521,0.8989389999999999,-0.44531899999999996,-0.171878,-0.046227,-0.055712,-0.015606,,,,,,,,,,,,,,,,,,,,,,,,,,,,,,,,,,,,,,,,,,,,,,,,,,,,,,,,,,,,,,,,,
11079,1650415325.818459,1650415325.846518,101.0,0.0,4405.641113000001,4278.974121,4322.05127,4261.025879,4348.717772999999,450.0,3.0,68.0,,,,0.0,4.0,2.0,1.0,0.0,4.0,25.0,,,,,,,,,,,,,,,,,,,,,,,,,,,,,,,,,,,,,,,,,,,,,,,,,,,,,,0.0,0.0,1.0,0.0,512.0,0.7915949999999999,,,,,,,,,,,,,,,,,,,,,,,,,
11080,1650415325.826273,1650415325.854333,102.0,0.0,4404.615234000001,4261.025879,4321.025879,4303.589844,4321.025879,450.0,3.0,68.0,,,,0.0,4.0,2.0,1.0,0.0,4.0,25.0,,,,,,,,51.0,0.0,0.076959,-0.548828,0.34057600000000005,0.759521,0.894545,-0.44385399999999997,-0.16894800000000001,-0.044778,-0.055707000000000007,-0.017464,,,,,,,,,,,,,,,,,,,,,,,,,,,,,,,,,,,,,,,,,,,,,,,,,,,,,,,,,,,,,,,,,
11081,1650415325.834088,1650415325.8620481,103.0,0.0,4359.487305,4236.410156,4301.025879,4279.487305,4254.871582,16173.0,3.0,68.0,,,,0.0,4.0,2.0,1.0,0.0,4.0,25.0,,,,,,,,,,,,,,,,,,,,,,,,,,,,,,,,,,,,,,,,,,,,,,,,,,,,,,,,,,,,,,,,,,,,,,,,,,,,,,,,,,,,
11082,1650415325.841903,1650415325.8698618,104.0,0.0,4364.102539,4233.846191,4305.128418,4242.05127,4281.538574,450.0,3.0,68.0,,,,0.0,4.0,2.0,1.0,0.0,4.0,25.0,,,,,,,,52.0,0.0,0.07868,-0.548584,0.34057600000000005,0.759521,0.9004040000000001,-0.43653000000000003,-0.18115499999999998,-0.044792,-0.055800999999999996,-0.02187,,,,,,,,,,,,,,,,,,,,,,,,,,,,,,,,,,,,,,,,,,,,,,,,,,,,,,,,,,,,,,,,,
11083,1650415325.849717,1650415325.877577,105.0,0.0,4378.974121,4231.794922,4326.153809,4296.410156,4317.436035,450.0,3.0,68.0,,,,0.0,4.0,2.0,1.0,0.0,4.0,25.0,,,,,,,,,,,,,,,,,,,,1.0,0.0,0.0,,,,,,,,,,,,,,,,,,,,,,,,,,,,,,,,0.0,0.0,1.0,0.0,512.0,1.0,27.471558,8.230099000000001,4.863479,4.6631849999999995,4.574214,88.334198,64.558014,34.437576,18.919334,10.666753,2.058359,2.057717,2.275687,3.076227,3.04431,7.746867,6.2713730000000005,2.823354,3.246943,4.08172,11.185262,4.300421,4.786025,10.055071,3.9663760000000003
11084,1650415325.857532,1650415325.885392,106.0,0.0,4346.153809,4189.743652,4322.563965,4317.94873,4273.333496,450.0,3.0,68.0,,,,0.0,4.0,2.0,1.0,0.0,4.0,25.0,,,,,,,,53.0,0.0,0.07761599999999999,-0.548584,0.34081999999999996,0.759521,0.901869,-0.43799499999999997,-0.163088,-0.045001,-0.055640999999999996,-0.023003,,,,,,,,,,,,,,,,,,,,,,,,,,,,,,,,,,,,,,,,,,,,,,,,,,,,,,,,,,,,,,,,,
11085,1650415325.8653471,1650415325.893107,107.0,0.0,4320.512695,4173.333496,4295.384765999999,4252.307617,4271.282227000001,16173.0,3.0,68.0,,,,0.0,4.0,2.0,1.0,0.0,4.0,25.0,,,,,,,,,,,,,,,,,,,,,,,,,,,,,,,,,,,,,,,,,,,,,,,,,,,,,,,,,,,,,,,,,,,,,,,,,,,,,,,,,,,,
11086,1650415325.8731608,1650415325.900921,108.0,0.0,4356.410156,4200.0,4304.615234000001,4250.769043,4294.871582,450.0,3.0,68.0,,,,0.0,4.0,2.0,1.0,0.0,4.0,25.0,,,,,,,,54.0,0.0,0.07761599999999999,-0.548584,0.34081999999999996,0.759521,0.904799,-0.437507,-0.160159,-0.045237,-0.055741,-0.017773,,,,,,,,,,,,,,,,,,,,,,,,,,,,,,,,,,,,,,,,,,,,,,,,,,,,,,,,,,,,,,,,,
11087,1650415325.880976,1650415325.9086359,109.0,0.0,4400.512695,4225.641113000001,4337.436035,4318.974121,4287.692383,450.0,3.0,68.0,,,,0.0,4.0,2.0,1.0,0.0,4.0,25.0,,,,,,,,,,,,,,,,,,,,,,,,,,,,,,,,,,,,,,,,,,,,,,,,,,,,,,0.0,0.0,1.0,0.0,512.0,1.0,,,,,,,,,,,,,,,,,,,,,,,,,
11088,1650415325.8887901,1650415325.916451,110.0,0.0,4393.333496,4295.384765999999,4343.589844,4325.128418,4294.358886999999,450.0,3.0,68.0,,,,0.0,4.0,2.0,1.0,0.0,4.0,25.0,,,,,,,,55.0,0.0,0.07761599999999999,-0.548584,0.34081999999999996,0.759521,0.908217,-0.44483100000000003,-0.160159,-0.045499,-0.055733000000000005,-0.022099,,,,,,,,,,,,,,,,,,,,,,,,,,,,,,,,,,,,,,,,,,,,,,,,,,,,,,,,,,,,,,,,,
11089,1650415325.896605,1650415325.924165,111.0,0.0,4376.922852000001,4348.205078,4322.563965,4296.922852000001,4329.743652,16173.0,3.0,68.0,,,,0.0,4.0,2.0,1.0,0.0,4.0,25.0,,,,,,,,,,,,,,,,,,,,,,,,,,,,,,,,,,,,,,,,,,,,,,,,,,,,,,,,,,,,,,,,,,,,,,,,,,,,,,,,,,,,
11090,1650415325.90442,1650415325.9319801,112.0,0.0,4398.974121,4328.205078,4310.769043,4301.538574,4361.025879,450.0,3.0,68.0,,,,0.0,4.0,2.0,1.0,0.0,4.0,25.0,,,,,,,,56.0,0.0,0.07761599999999999,-0.548584,0.34081999999999996,0.759521,0.903334,-0.43653000000000003,-0.16846,-0.045538999999999996,-0.055775,-0.023161,,,,,,,,,,,,,,,,,,,,,,,,,,,,,,,,,,,,,,,,,,,,,,,,,,,,,,,,,,,,,,,,,
11091,1650415325.912234,1650415325.939695,113.0,0.0,4420.512695,4323.077147999999,4318.461426,4298.461426,4348.205078,450.0,3.0,68.0,,,,0.0,4.0,2.0,1.0,0.0,4.0,25.0,,,,,,,,,,,,,,,,,,,,,,,,,,,,,,,,,,,,,,,,,,,,,,,,,,,,,,0.0,0.0,1.0,0.0,512.0,1.0,,,,,,,,,,,,,,,,,,,,,,,,,
11092,1650415325.920049,1650415325.947409,114.0,0.0,4408.205078,4321.538574,4323.077147999999,4303.077147999999,4307.692383,450.0,3.0,68.0,,,,0.0,4.0,2.0,1.0,0.0,4.0,25.0,,,,,,,,57.0,0.0,0.07761599999999999,-0.548584,0.34081999999999996,0.759521,0.8916149999999999,-0.427741,-0.167971,-0.045477,-0.055715,-0.024116,,,,,,,,,,,,,,,,,,,,,,,,,,,,,,,,,,,,,,,,,,,,,,,,,,,,,,,,,,,,,,,,,
11093,1650415325.9278631,1650415325.955224,115.0,0.0,4396.922852000001,4263.077147999999,4337.94873,4321.025879,4288.205078,16173.0,3.0,68.0,,,,0.0,4.0,2.0,1.0,0.0,4.0,25.0,,,,,,,,,,,,,,,,,,,,,,,,,,,,,,,,,,,,,,,,,,,,,,,,,,,,,,,,,,,,,,,,,,,,,,,,,,,,,,,,,,,,
11094,1650415325.935678,1650415325.962939,116.0,0.0,4393.846191,4206.666504,4364.615234000001,4302.563965,4323.589844,450.0,3.0,68.0,,,,0.0,4.0,2.0,1.0,0.0,4.0,25.0,,,,,,,,58.0,0.0,0.07761599999999999,-0.548584,0.34081999999999996,0.759521,0.8886850000000001,-0.449226,-0.150393,-0.045568,-0.055808,-0.018726,,,,,,,,,,,,,,,,,,,,,,,,,,,,,,,,,,,,,,,,,,,,,,,,,,,,,,,,,,,,,,,,,
11095,1650415325.943493,1650415325.970753,117.0,0.0,4391.282227000001,4194.358886999999,4374.871582,4280.512695,4357.94873,450.0,3.0,68.0,,,,0.0,4.0,2.0,1.0,0.0,4.0,25.0,,,,,,,,,,,,,,,,,,,,,,,,,,,,,,,,,,,,,,,,,,,,,,,,,,,,,,0.0,0.0,1.0,0.0,512.0,1.0,,,,,,,,,,,,,,,,,,,,,,,,,
11096,1650415325.951307,1650415325.978468,118.0,0.0,4397.94873,4179.487305,4353.846191,4303.589844,4327.692383,450.0,3.0,68.0,,,,0.0,4.0,2.0,1.0,0.0,4.0,25.0,,,,,,,,59.0,0.0,0.07761599999999999,-0.548584,0.34081999999999996,0.759521,0.892592,-0.44824899999999995,-0.170901,-0.04565,-0.055745,-0.020222999999999998,,,,,,,,,,,,,,,,,,,,,,,,,,,,,,,,,,,,,,,,,,,,,,,,,,,,,,,,,,,,,,,,,
11097,1650415325.9591222,1650415325.986283,119.0,0.0,4387.692383,4191.282227000001,4331.794922,4322.563965,4290.256348,16173.0,3.0,68.0,,,,0.0,4.0,2.0,1.0,0.0,4.0,25.0,,,,,,,,,,,,,,,,,,,,,,,,,,,,,,,,,,,,,,,,,,,,,,,,,,,,,,,,,,,,,,,,,,,,,,,,,,,,,,,,,,,,
11098,1650415325.9669359,1650415325.993998,120.0,0.0,4367.179688,4238.974121,4354.358886999999,4293.846191,4329.230957,450.0,3.0,68.0,,,,0.0,4.0,2.0,1.0,0.0,4.0,25.0,,,,,,,,60.0,0.0,0.07761599999999999,-0.548584,0.34081999999999996,0.759521,0.8881969999999999,-0.43946,-0.16552999999999998,-0.045675,-0.055639,-0.02157,,,,,,,,,,,,,,,,,,,,,,,,,,,,,,,,,,,,,,,,,,,,,,,,,,,,,,,,,,,,,,,,,
11099,1650415325.974751,1650415326.001812,121.0,0.0,4394.871582,4260.0,4376.410156,4275.384765999999,4415.897461,450.0,3.0,68.0,,,,0.0,4.0,2.0,1.0,0.0,4.0,25.0,,,,,,,,,,,,,,,,,,,,1.0,0.0,0.0,,,,,,,,,,,,,,,,,,,,,,,,,,,,,,,,0.0,0.0,1.0,0.0,512.0,1.0,24.228811,9.096602,5.35735,4.670029,4.690263,82.06223299999999,51.878571,33.95789,17.633898000000002,10.541021,2.152606,1.919703,2.1058939999999997,3.313244,3.096391,8.393825,6.189393,2.631145,3.100641,4.197899,10.479948,4.344474,5.123117,9.856043,4.249531
11100,1650415325.982566,1650415326.009527,122.0,0.0,4383.077147999999,4268.717772999999,4345.641113000001,4284.615234000001,4345.641113000001,450.0,3.0,68.0,,,,0.0,4.0,2.0,1.0,0.0,4.0,25.0,,,,,,,,61.0,0.0,0.079322,-0.5483399999999999,0.34081999999999996,0.759521,0.9038219999999999,-0.42969399999999996,-0.153811,-0.045697,-0.055689999999999996,-0.022684,,,,,,,,,,,,,,,,,,,,,,,,,,,,,,,,,,,,,,,,,,,,,,,,,,,,,,,,,,,,,,,,,
11101,1650415325.99038,1650415326.017342,123.0,0.0,4313.333496,4281.538574,4301.025879,4300.512695,4188.205078,16173.0,3.0,68.0,,,,0.0,4.0,2.0,1.0,0.0,4.0,25.0,,,,,,,,,,,,,,,,,,,,,,,,,,,,,,,,,,,,,,,,,,,,,,,,,,,,,,,,,,,,,,,,,,,,,,,,,,,,,,,,,,,,
11102,1650415325.998195,1650415326.0250561,124.0,0.0,4355.384765999999,4291.794922,4304.615234000001,4319.487305,4283.589844,450.0,3.0,68.0,,,,0.0,4.0,2.0,1.0,0.0,4.0,25.0,,,,,,,,62.0,0.0,0.079322,-0.5483399999999999,0.34081999999999996,0.759521,0.8999159999999999,-0.43262399999999995,-0.15820599999999999,-0.045864,-0.055834,-0.017535,,,,,,,,,,,,,,,,,,,,,,,,,,,,,,,,,,,,,,,,,,,,,,,,,,,,,,,,,,,,,,,,,
11103,1650415326.006009,1650415326.032871,125.0,0.0,4451.282227000001,4283.077147999999,4340.512695,4322.05127,4441.025879,450.0,3.0,68.0,,,,0.0,4.0,2.0,1.0,0.0,4.0,25.0,,,,,,,,,,,,,,,,,,,,,,,,,,,,,,,,,,,,,,,,,,,,,,,,,,,,,,0.0,0.0,1.0,0.0,512.0,1.0,,,,,,,,,,,,,,,,,,,,,,,,,
11104,1650415326.013824,1650415326.040586,126.0,0.0,4416.922852000001,4255.384765999999,4342.05127,4318.974121,4358.461426,450.0,3.0,68.0,,,,0.0,4.0,2.0,1.0,0.0,4.0,25.0,,,,,,,,63.0,0.0,0.07761599999999999,-0.548584,0.34081999999999996,0.759521,0.8881969999999999,-0.43946,-0.16552999999999998,-0.046063,-0.055817,-0.015684,,,,,,,,,,,,,,,,,,,,,,,,,,,,,,,,,,,,,,,,,,,,,,,,,,,,,,,,,,,,,,,,,
11105,1650415326.021639,1650415326.0484,127.0,0.0,4343.077147999999,4220.512695,4330.769043,4312.307617,4292.820313,237.0,3.0,68.0,,,,0.0,4.0,2.0,1.0,0.0,4.0,25.0,,,,,,,,,,,,,,,,,,,,,,,,,,,,,,,,,,,,,,,,,,,,,,,,,,,,,,,,,,,,,,,,,,,,,,,,,,,,,,,,,,,,
11106,1650415326.029453,1650415326.0561152,0.0,0.0,4377.94873,4188.717772999999,4360.0,4289.230957,4366.153809,450.0,3.0,68.0,,,,0.0,4.0,2.0,1.0,0.0,4.0,25.0,,,,,,,,0.0,0.0,0.079322,-0.5483399999999999,0.34081999999999996,0.759521,0.8999159999999999,-0.43262399999999995,-0.15820599999999999,-0.046193,-0.055949,-0.011234000000000001,,,,,,,,,,,,,,,,,,,,,,,,,,,,,,,,,,,,,,,,,,,,,,,,,,,,,,,,,,,,,,,,,
11107,1650415326.037268,1650415326.06393,1.0,0.0,4422.563965,4192.820313,4394.871582,4273.333496,4317.436035,450.0,3.0,68.0,,,,0.0,4.0,2.0,1.0,0.0,4.0,25.0,,,,,,,,,,,,,,,,,,,,,,,,,,,,,,,,,,,,,,,,,,,,,,,,,,,,,,0.0,0.0,1.0,0.0,512.0,1.0,,,,,,,,,,,,,,,,,,,,,,,,,
11108,1650415326.045083,1650415326.071645,2.0,0.0,4403.077147999999,4208.717772999999,4391.282227000001,4276.410156,4323.077147999999,16209.0,3.0,68.0,,,,0.0,4.0,2.0,1.0,0.0,4.0,25.0,,,,,,,,1.0,0.0,0.078266,-0.5483399999999999,0.341064,0.759521,0.905776,-0.41846300000000003,-0.164553,-0.046212,-0.055920000000000004,-0.013529,,,,,,,,,,,,,,,,,,,,,,,,,,,,,,,,,,,,,,,,,,,,,,,,,,,,,,,,,,,,,,,,,
11109,1650415326.052897,1650415326.079459,3.0,0.0,4401.538574,4249.743652,4379.487305,4289.230957,4448.205078,450.0,3.0,68.0,,,,0.0,4.0,2.0,1.0,0.0,4.0,25.0,,,,,,,,,,,,,,,,,,,,,,,,,,,,,,,,,,,,,,,,,,,,,,,,,,,,,,,,,,,,,,,,,,,,,,,,,,,,,,,,,,,,
11110,1650415326.0607119,1650415326.087174,4.0,0.0,4431.282227000001,4333.846191,4413.846191,4304.102539,4249.230957,166.0,3.0,68.0,,,,0.0,4.0,2.0,1.0,0.0,4.0,25.0,,,,,,,,2.0,0.0,0.07608999999999999,-0.547852,0.34179699999999996,0.7597659999999999,0.905776,-0.39942,-0.166506,-0.04623,-0.05589500000000001,-0.015594,,,,,,,,,,,,,,,,,,,,,,,,,,,,,,,,,,,,,,,,,,,,,,,,,,,,,,,,,,,,,,,,,
11111,1650415326.068526,1650415326.0948892,5.0,0.0,4416.922852000001,4415.897461,4429.230957,4302.563965,4104.102539,450.0,3.0,68.0,,,,0.0,4.0,2.0,0.0,0.0,4.0,16.666666,,,,,,,,,,,,,,,,,,,,,,,,,,,,,,,,,,,,,,,,,,,,,,,,,,,,,,0.0,0.0,1.0,0.0,512.0,1.0,,,,,,,,,,,,,,,,,,,,,,,,,
11112,1650415326.076341,1650415326.1027029,6.0,0.0,4410.256348,4539.487305,4482.563965,4278.974121,4407.692383,42.0,3.0,68.0,,,,0.0,4.0,2.0,0.0,0.0,4.0,16.666666,,,,,,,,3.0,0.0,0.074538,-0.547607,0.342529,0.7597659999999999,0.902358,-0.39649,-0.182132,-0.046099,-0.055969000000000005,-0.011056,,,,,,,,,,,,,,,,,,,,,,,,,,,,,,,,,,,,,,,,,,,,,,,,,,,,,,,,,,,,,,,,,
11113,1650415326.084156,1650415326.110418,7.0,0.0,4496.410156,4772.307617,4704.102539,4177.436035,4477.94873,450.0,3.0,68.0,,,,0.0,4.0,2.0,0.0,0.0,4.0,16.666666,,,,,,,,,,,,,,,,,,,,,,,,,,,,,,,,,,,,,,,,,,,,,,,,,,,,,,,,,,,,,,,,,,,,,,,,,,,,,,,,,,,,
11114,1650415326.09197,1650415326.118233,8.0,0.0,4625.128418,5186.666504,4856.922852000001,4116.410156,4193.846191,450.0,3.0,68.0,,,,0.0,4.0,2.0,0.0,0.0,4.0,16.666666,,,,,,,,4.0,0.0,0.074085,-0.547363,0.343018,0.7597659999999999,0.886732,-0.474128,-0.174319,-0.046176999999999996,-0.055938999999999996,-0.013319999999999999,,,,,,,,,,,,,,,,,,,,,,,,,,,,,,,,,,,,,,,,,,,,,,,,,,,,,,,,,,,,,,,,,
11115,1650415326.0997849,1650415326.125948,9.0,0.0,4979.487305,5808.717772999999,4805.641113000001,4230.769043,4363.589844,0.0,3.0,68.0,,,,0.0,4.0,2.0,0.0,0.0,4.0,16.666666,0.972656,0.0,3.0,0.0,0.0,0.0,1.0,,,,,,,,,,,,,1.0,0.0,0.0,,,,,,,,,,,,,,,,,,,,,,,,,,,,,,,,0.0,0.0,1.0,0.0,512.0,1.0,19.305588,9.105597,5.327119000000001,4.473339,4.697712,75.246262,44.007095,33.113979,16.650572,10.073999,2.485144,1.915671,2.1486549999999998,3.5839160000000003,3.102783,8.423639,5.736113,2.5069529999999998,3.0270200000000003,4.2854470000000005,9.494055,4.346191999999999,4.918978,9.173391,4.565157
11116,1650415326.1076,1650415326.133762,10.0,0.0,5466.153809,6488.717772999999,4861.538574,4130.256348,4695.897461,450.0,3.0,68.0,,,,0.0,4.0,2.0,0.0,0.0,4.0,16.666666,,,,,,,,5.0,0.0,0.073624,-0.5471189999999999,0.343506,0.7597659999999999,0.8994280000000001,-0.40283800000000003,-0.171878,-0.046149,-0.05596,-0.011792,,,,,,,,,,,,,,,,,,,,,,,,,,,,,,,,,,,,,,,,,,,,,,,,,,,,,,,,,,,,,,,,,
11117,1650415326.1154141,1650415326.1414769,11.0,0.0,5634.871582,7017.436035,5137.436035,3712.3076170000004,4482.05127,16252.0,3.0,68.0,,,,0.0,4.0,2.0,0.0,0.0,4.0,16.666666,,,,,,,,,,,,,,,,,,,,,,,,,,,,,,,,,,,,,,,,,,,,,,,,,,,,,,,,,,,,,,,,,,,,,,,,,,,,,,,,,,,,
11118,1650415326.1232288,1650415326.149292,12.0,0.0,5684.102539,7392.820312999999,5283.589844,3659.487061,4234.871582,450.0,3.0,68.0,,,,0.0,4.0,2.0,0.0,0.0,4.0,16.666666,,,,,,,,6.0,0.0,0.07565,-0.546875,0.343994,0.759521,0.9131,-0.43799499999999997,-0.171878,-0.046173,-0.056028999999999995,-0.014031,,,,,,,,,,,,,,,,,,,,,,,,,,,,,,,,,,,,,,,,,,,,,,,,,,,,,,,,,,,,,,,,,
11119,1650415326.131043,1650415326.157006,13.0,0.0,5713.333496,7667.179687999999,5130.256348,4071.794922,4418.461426,450.0,3.0,68.0,,,,0.0,4.0,2.0,0.0,0.0,4.0,16.666666,,,,,,,,,,,,,,,,,,,,,,,,,,,,,,,,,,,,,,,,,,,,,,,,,,,,,,0.0,0.0,1.0,0.0,512.0,1.0,,,,,,,,,,,,,,,,,,,,,,,,,
11120,1650415326.138858,1650415326.1648211,14.0,0.0,5428.205078,7782.563965,4944.102539,4345.128418,4448.205078,450.0,3.0,68.0,,,,0.0,4.0,2.0,0.0,0.0,4.0,16.666666,,,,,,,,7.0,0.0,0.073394,-0.546875,0.344482,0.759521,0.8833139999999999,-0.455085,-0.171389,-0.046097000000000006,-0.056040999999999994,-0.0159,,,,,,,,,,,,,,,,,,,,,,,,,,,,,,,,,,,,,,,,,,,,,,,,,,,,,,,,,,,,,,,,,
11121,1650415326.146673,1650415326.172636,15.0,0.0,5408.205078,7798.974120999999,4831.282227000001,4399.487305,4110.256348,16252.0,3.0,68.0,,,,0.0,4.0,2.0,0.0,0.0,4.0,16.666666,,,,,,,,,,,,,,,,,,,,,,,,,,,,,,,,,,,,,,,,,,,,,,,,,,,,,,,,,,,,,,,,,,,,,,,,,,,,,,,,,,,,
11122,1650415326.154487,1650415326.18035,16.0,0.0,6163.589844,7807.179687999999,4788.717772999999,4344.615234000001,4124.102539,0.0,3.0,68.0,,,,0.0,4.0,2.0,0.0,0.0,4.0,16.666666,,,,,,,,8.0,0.0,0.074064,-0.5466310000000001,0.344727,0.759521,0.8989389999999999,-0.46973400000000004,-0.160647,-0.046175,-0.056052,-0.01763,,,,,,,,,,,,,,,,,,,,,,,,,,,,,,,,,,,,,,,,,,,,,,,,,,,,,,,,,,,,,,,,,
11123,1650415326.162302,1650415326.188065,17.0,0.0,6910.256348000001,7796.410156,4868.717772999999,4132.820313,4542.05127,0.0,3.0,68.0,,,,0.0,4.0,2.0,0.0,0.0,4.0,16.666666,,,,,,,,,,,,,,,,,,,,,,,,,,,,,,,,,,,,,,,,,,,,,,,,,,,,,,0.0,0.0,1.0,0.0,512.0,1.0,,,,,,,,,,,,,,,,,,,,,,,,,
11124,1650415326.170117,1650415326.1958802,18.0,0.0,7125.128418000001,7779.487305,4926.153809,4105.128418,4627.692383,0.0,3.0,68.0,,,,0.0,4.0,2.0,0.0,0.0,4.0,16.666666,,,,,,,,9.0,0.0,0.072918,-0.5466310000000001,0.344971,0.759521,0.882826,-0.45655,-0.17773699999999998,-0.046147,-0.055915999999999993,-0.015721000000000002,,,,,,,,,,,,,,,,,,,,,,,,,,,,,,,,,,,,,,,,,,,,,,,,,,,,,,,,,,,,,,,,,
11125,1650415326.177931,1650415326.203594,19.0,0.0,7221.025879000001,7775.897461,4805.128418,4375.897461,4369.743652,0.0,3.0,68.0,,,,0.0,4.0,2.0,0.0,0.0,4.0,16.666666,,,,,,,,,,,,,,,,,,,,,,,,,,,,,,,,,,,,,,,,,,,,,,,,,,,,,,,,,,,,,,,,,,,,,,,,,,,,,,,,,,,,
11126,1650415326.1857462,1650415326.211409,20.0,0.0,7351.282227,7774.358887,4614.358886999999,4535.897461,4275.897461,0.0,3.0,68.0,,,,0.0,4.0,2.0,0.0,0.0,4.0,16.666666,,,,,,,,10.0,0.0,0.072918,-0.5466310000000001,0.344971,0.759521,0.9121229999999999,-0.424811,-0.15967,-0.045975999999999996,-0.055987999999999996,-0.017518000000000002,,,,,,,,,,,,,,,,,,,,,,,,,,,,,,,,,,,,,,,,,,,,,,,,,,,,,,,,,,,,,,,,,
11127,1650415326.19356,1650415326.219124,21.0,0.0,7451.282227,7771.282227,4552.307617,4472.307617,4315.384765999999,0.0,3.0,68.0,,,,0.0,4.0,2.0,0.0,0.0,4.0,16.666666,,,,,,,,,,,,,,,,,,,,,,,,,,,,,,,,,,,,,,,,,,,,,,,,,,,,,,0.0,0.0,1.0,0.0,512.0,1.0,,,,,,,,,,,,,,,,,,,,,,,,,
11128,1650415326.201375,1650415326.226939,22.0,0.0,7507.692383,7771.794922,4583.589844,4402.05127,4183.077147999999,0.0,3.0,68.0,,,,0.0,4.0,2.0,0.0,0.0,4.0,16.666666,,,,,,,,11.0,0.0,0.071753,-0.5466310000000001,0.345215,0.759521,0.8842909999999999,-0.474128,-0.174319,-0.045968,-0.056054,-0.015668,,,,,,,,,,,,,,,,,,,,,,,,,,,,,,,,,,,,,,,,,,,,,,,,,,,,,,,,,,,,,,,,,
11129,1650415326.2091901,1650415326.234653,23.0,0.0,7503.077148,7771.282227,4640.0,4429.230957,4130.256348,0.0,3.0,68.0,,,,0.0,4.0,2.0,0.0,0.0,4.0,16.666666,,,,,,,,,,,,,,,,,,,,,,,,,,,,,,,,,,,,,,,,,,,,,,,,,,,,,,,,,,,,,,,,,,,,,,,,,,,,,,,,,,,,
11130,1650415326.2170038,1650415326.242368,24.0,0.0,7515.384765999999,7771.282227,4578.974121,4440.512695,4353.846191,0.0,3.0,68.0,,,,0.0,4.0,2.0,0.0,0.0,4.0,16.666666,,,,,,,,12.0,0.0,0.073589,-0.546387,0.345215,0.759521,0.895033,-0.449226,-0.17236600000000002,-0.046058999999999996,-0.056063999999999996,-0.017519,,,,,,,,,,,,,,,,,,,,,,,,,,,,,,,,,,,,,,,,,,,,,,,,,,,,,,,,,,,,,,,,,
11131,1650415326.224819,1650415326.250183,25.0,0.0,7526.666504000001,7771.282227,4434.871582,4266.153809,4568.205078,0.0,3.0,68.0,,,,0.0,4.0,2.0,0.0,0.0,4.0,16.666666,,,,,,,,,,,,,,,,,,,,1.0,0.0,0.0,,,,,,,,,,,,,,,,,,,,,,,,,,,,,,,,0.0,0.0,1.0,0.0,512.0,1.0,15.806707999999999,8.985225,5.131609,4.225376,4.600925,69.156754,42.928883,30.962208,15.937189000000002,9.3207,3.6910199999999995,2.067255,2.241943,3.822117,3.052714,7.9997229999999995,5.021736,2.406307,3.132677,4.36067,8.255977,4.2241089999999994,4.395887999999999,7.951378999999999,5.050072
11132,1650415326.232633,1650415326.257997,26.0,0.0,7481.538573999999,7771.282227,4500.512695,4042.5642090000006,4421.025879,0.0,3.0,68.0,,,,0.0,4.0,2.0,0.0,0.0,4.0,16.666666,,,,,,,,13.0,0.0,0.073589,-0.546387,0.345215,0.759521,0.8960100000000001,-0.462409,-0.157717,-0.046043,-0.056073000000000005,-0.01567,,,,,,,,,,,,,,,,,,,,,,,,,,,,,,,,,,,,,,,,,,,,,,,,,,,,,,,,,,,,,,,,,
11133,1650415326.240448,1650415326.265712,27.0,0.0,7433.333495999999,7771.282227,4663.077147999999,4075.897461,4248.205078,0.0,3.0,68.0,,,,0.0,4.0,2.0,0.0,0.0,4.0,16.666666,,,,,,,,,,,,,,,,,,,,,,,,,,,,,,,,,,,,,,,,,,,,,,,,,,,,,,,,,,,,,,,,,,,,,,,,,,,,,,,,,,,,
11134,1650415326.2482631,1650415326.273527,28.0,0.0,7405.641113,7771.282227,4636.410156,4313.846191,4404.102539,0.0,3.0,68.0,,,,0.0,4.0,2.0,0.0,0.0,4.0,16.666666,,,,,,,,14.0,0.0,0.074064,-0.5466310000000001,0.344727,0.759521,0.887709,-0.462409,-0.159182,-0.04598,-0.056032000000000005,-0.017472,,,,,,,,,,,,,,,,,,,,,,,,,,,,,,,,,,,,,,,,,,,,,,,,,,,,,,,,,,,,,,,,,
11135,1650415326.256077,1650415326.281241,29.0,0.0,7376.922852,7771.282227,4472.307617,4452.307617,4430.256348,0.0,3.0,68.0,,,,0.0,4.0,2.0,0.0,0.0,4.0,16.666666,,,,,,,,,,,,,,,,,,,,,,,,,,,,,,,,,,,,,,,,,,,,,,,,,,,,,,0.0,0.0,1.0,0.0,512.0,1.0,,,,,,,,,,,,,,,,,,,,,,,,,
11136,1650415326.263892,1650415326.289056,30.0,0.0,7338.461426000001,7771.282227,4416.410156,4415.384765999999,4206.666504,0.0,3.0,68.0,,,,0.0,4.0,2.0,0.0,0.0,4.0,16.666666,,,,,,,,15.0,0.0,0.074531,-0.546875,0.344238,0.759521,0.8955209999999999,-0.45459700000000003,-0.169924,-0.045972000000000006,-0.056093,-0.015676,,,,,,,,,,,,,,,,,,,,,,,,,,,,,,,,,,,,,,,,,,,,,,,,,,,,,,,,,,,,,,,,,
11137,1650415326.271706,1650415326.296771,31.0,0.0,7282.563965,7771.282227,4483.077147999999,4330.769043,4259.487305,0.0,3.0,68.0,,,,0.0,4.0,2.0,0.0,0.0,4.0,16.666666,,,,,,,,,,,,,,,,,,,,,,,,,,,,,,,,,,,,,,,,,,,,,,,,,,,,,,,,,,,,,,,,,,,,,,,,,,,,,,,,,,,,
11138,1650415326.279521,1650415326.304586,32.0,0.0,7208.717773,7771.282227,4538.461426,4301.025879,4400.512695,0.0,3.0,68.0,,,,0.0,4.0,2.0,0.0,0.0,4.0,16.666666,,,,,,,,16.0,0.0,0.073863,-0.5471189999999999,0.343994,0.759521,0.8847790000000001,-0.43262399999999995,-0.16211199999999998,-0.046062,-0.056245,-0.017672999999999998,,,,,,,,,,,,,,,,,,,,,,,,,,,,,,,,,,,,,,,,,,,,,,,,,,,,,,,,,,,,,,,,,
11139,1650415326.2873359,1650415326.3123,33.0,0.0,7114.871581999999,7771.282227,4524.615234000001,4344.102539,4243.077147999999,0.0,3.0,68.0,,,,0.0,4.0,2.0,0.0,0.0,4.0,16.666666,,,,,,,,,,,,,,,,,,,,,,,,,,,,,,,,,,,,,,,,,,,,,,,,,,,,,,0.0,0.0,1.0,0.0,512.0,1.0,,,,,,,,,,,,,,,,,,,,,,,,,
11140,1650415326.29515,1650415326.320115,34.0,0.0,6945.128418000001,7771.282227,4476.410156,4373.333496,4252.307617,0.0,3.0,68.0,,,,0.0,4.0,2.0,0.0,0.0,4.0,16.666666,,,,,,,,17.0,0.0,0.076779,-0.547363,0.343506,0.7592770000000001,0.863783,-0.44483100000000003,-0.18555,-0.046192000000000004,-0.056236,-0.019275,,,,,,,,,,,,,,,,,,,,,,,,,,,,,,,,,,,,,,,,,,,,,,,,,,,,,,,,,,,,,,,,,
11141,1650415326.302965,1650415326.32783,35.0,0.0,6693.846191,7771.282227,4517.94873,4341.538574,4507.692383,0.0,3.0,68.0,,,,0.0,4.0,2.0,0.0,0.0,4.0,16.666666,,,,,,,,,,,,,,,,,,,,,,,,,,,,,,,,,,,,,,,,,,,,,,,,,,,,,,,,,,,,,,,,,,,,,,,,,,,,,,,,,,,,
11142,1650415326.3107789,1650415326.335644,36.0,0.0,6455.897461,7771.282227,4586.153809,4294.358886999999,4515.384765999999,0.0,3.0,68.0,,,,0.0,4.0,2.0,0.0,0.0,4.0,16.666666,,,,,,,,18.0,0.0,0.077864,-0.547363,0.343262,0.7592770000000001,0.8994280000000001,-0.42676400000000003,-0.156252,-0.046212,-0.05612999999999999,-0.01725,,,,,,,,,,,,,,,,,,,,,,,,,,,,,,,,,,,,,,,,,,,,,,,,,,,,,,,,,,,,,,,,,
11143,1650415326.318594,1650415326.343359,37.0,0.0,6296.410156,7771.282227,4527.179688,4289.743652,4325.128418,0.0,3.0,68.0,,,,0.0,4.0,2.0,0.0,0.0,4.0,16.666666,,,,,,,,,,,,,,,,,,,,,,,,,,,,,,,,,,,,,,,,,,,,,,,,,,,,,,0.0,0.0,1.0,0.0,512.0,1.0,,,,,,,,,,,,,,,,,,,,,,,,,
11144,1650415326.326409,1650415326.351074,38.0,0.0,6216.922852000001,7771.282227,4381.025879,4324.615234000001,4257.436035,0.0,3.0,68.0,,,,0.0,4.0,2.0,0.0,0.0,4.0,16.666666,,,,,,,,19.0,0.0,0.077864,-0.547363,0.343262,0.7592770000000001,0.889174,-0.428717,-0.155764,-0.044764,-0.05613200000000001,-0.018844999999999997,,,,,,,,,,,,,,,,,,,,,,,,,,,,,,,,,,,,,,,,,,,,,,,,,,,,,,,,,,,,,,,,,
11145,1650415326.334223,1650415326.3588881,39.0,0.0,6207.179688,7771.282227,4338.461426,4323.077147999999,4375.384765999999,0.0,3.0,68.0,,,,0.0,4.0,2.0,0.0,0.0,4.0,16.666666,,,,,,,,,,,,,,,,,,,,,,,,,,,,,,,,,,,,,,,,,,,,,,,,,,,,,,,,,,,,,,,,,,,,,,,,,,,,,,,,,,,,
11146,1650415326.3420382,1650415326.366603,40.0,0.0,6222.05127,7771.282227,4428.717772999999,4296.410156,4554.358886999999,0.0,3.0,68.0,,,,0.0,4.0,2.0,0.0,0.0,4.0,16.666666,,,,,,,,20.0,0.0,0.07722000000000001,-0.547607,0.343018,0.7592770000000001,0.8964979999999999,-0.430671,-0.160647,-0.044926999999999995,-0.056135000000000004,-0.020281,,,,,,,,,,,,,,,,,,,,,,,,,,,,,,,,,,,,,,,,,,,,,,,,,,,,,,,,,,,,,,,,,
11147,1650415326.349853,1650415326.374418,41.0,0.0,6183.077147999999,7771.282227,4466.666504,4308.717772999999,4599.487305,0.0,3.0,68.0,,,,0.0,4.0,2.0,0.0,0.0,4.0,16.666666,,,,,,,,,,,,,,,,,,,,1.0,0.0,0.0,,,,,,,,,,,,,,,,,,,,,,,,,,,,,,,,0.0,0.0,1.0,0.0,512.0,1.0,40.089923999999996,10.82504,10.73656,7.068136999999999,4.7944949999999995,187.12210100000001,65.843056,31.362609999999997,15.795364999999999,8.447308999999999,15.756498,3.5659349999999996,2.8695,4.334383,3.172941,10.657619,5.497051,3.165338,4.755257,4.865576,7.2605070000000005,4.17275,4.772453,6.662146000000001,6.977345
11148,1650415326.357667,1650415326.382133,42.0,0.0,6076.922852000001,7771.282227,4372.307617,4308.717772999999,4458.461426,0.0,3.0,68.0,,,,0.0,4.0,2.0,0.0,0.0,4.0,16.666666,,,,,,,,21.0,0.0,0.07722000000000001,-0.547607,0.343018,0.7592770000000001,0.885267,-0.4336,-0.160647,-0.044975,-0.056136,-0.021671,,,,,,,,,,,,,,,,,,,,,,,,,,,,,,,,,,,,,,,,,,,,,,,,,,,,,,,,,,,,,,,,,
11149,1650415326.365482,1650415326.3899472,43.0,0.0,5971.794922,7771.282227,4245.128418,4254.871582,4368.205078,0.0,3.0,68.0,,,,0.0,4.0,2.0,0.0,0.0,4.0,16.666666,,,,,,,,,,,,,,,,,,,,,,,,,,,,,,,,,,,,,,,,,,,,,,,,,,,,,,,,,,,,,,,,,,,,,,,,,,,,,,,,,,,,
11150,1650415326.373296,1650415326.397662,44.0,0.0,5923.589844,7771.282227,4201.538574,4243.077147999999,4470.769043,0.0,3.0,68.0,,,,0.0,4.0,2.0,0.0,0.0,4.0,16.666666,,,,,,,,22.0,0.0,0.078297,-0.547607,0.342773,0.7592770000000001,0.893568,-0.44531899999999996,-0.16211199999999998,-0.045165,-0.05594299999999999,-0.019406,,,,,,,,,,,,,,,,,,,,,,,,,,,,,,,,,,,,,,,,,,,,,,,,,,,,,,,,,,,,,,,,,
11151,1650415326.381111,1650415326.405477,45.0,0.0,5882.05127,7771.282227,4195.897461,4306.153809,4610.256348,0.0,3.0,68.0,,,,0.0,4.0,2.0,0.0,0.0,4.0,16.666666,,,,,,,,,,,,,,,,,,,,,,,,,,,,,,,,,,,,,,,,,,,,,,,,,,,,,,0.0,0.0,1.0,0.0,512.0,1.0,,,,,,,,,,,,,,,,,,,,,,,,,
11152,1650415326.388926,1650415326.413191,46.0,0.0,5796.410156,7771.282227,4145.128418,4330.256348,4591.794922,0.0,3.0,68.0,,,,0.0,4.0,2.0,0.0,0.0,4.0,16.666666,,,,,,,,23.0,0.0,0.076986,-0.547607,0.342529,0.759521,0.8994280000000001,-0.440925,-0.174319,-0.045287,-0.055915,-0.020835,,,,,,,,,,,,,,,,,,,,,,,,,,,,,,,,,,,,,,,,,,,,,,,,,,,,,,,,,,,,,,,,,
11153,1650415326.39674,1650415326.421006,47.0,0.0,5688.205078,7771.282227,4084.102539,4268.717772999999,4507.692383,0.0,3.0,68.0,,,,0.0,4.0,2.0,0.0,0.0,4.0,16.666666,,,,,,,,,,,,,,,,,,,,,,,,,,,,,,,,,,,,,,,,,,,,,,,,,,,,,,,,,,,,,,,,,,,,,,,,,,,,,,,,,,,,
11154,1650415326.404555,1650415326.4287212,48.0,0.0,5561.025879,7771.282227,4030.7692869999996,4277.436035,4505.641113000001,0.0,3.0,68.0,,,,0.0,4.0,2.0,0.0,0.0,4.0,16.666666,,,,,,,,24.0,0.0,0.076986,-0.547607,0.342529,0.759521,0.8930799999999999,-0.43799499999999997,-0.167971,-0.045397,-0.055938999999999996,-0.022119999999999997,,,,,,,,,,,,,,,,,,,,,,,,,,,,,,,,,,,,,,,,,,,,,,,,,,,,,,,,,,,,,,,,,
11155,1650415326.41237,1650415326.436535,49.0,0.0,5474.871582,7771.282227,4016.4101560000004,4376.922852000001,4508.717772999999,0.0,3.0,68.0,,,,0.0,4.0,2.0,0.0,0.0,4.0,16.666666,,,,,,,,,,,,,,,,,,,,,,,,,,,,,,,,,,,,,,,,,,,,,,,,,,,,,,0.0,0.0,1.0,0.0,512.0,1.0,,,,,,,,,,,,,,,,,,,,,,,,,
11156,1650415326.420184,1650415326.44425,50.0,0.0,5448.205078,7771.794922,4043.076904,4293.846191,4580.512695,0.0,3.0,68.0,,,,0.0,4.0,2.0,0.0,0.0,4.0,16.666666,,,,,,,,25.0,0.0,0.076986,-0.547607,0.342529,0.759521,0.9038219999999999,-0.436042,-0.161624,-0.045448,-0.055911,-0.023180000000000003,,,,,,,,,,,,,,,,,,,,,,,,,,,,,,,,,,,,,,,,,,,,,,,,,,,,,,,,,,,,,,,,,
11157,1650415326.427999,1650415326.452065,51.0,0.0,5389.743652,7771.794922,4033.8461909999996,4071.794922,4695.384765999999,0.0,3.0,68.0,,,,0.0,4.0,2.0,0.0,0.0,4.0,16.666666,,,,,,,,,,,,,,,,,,,,,,,,,,,,,,,,,,,,,,,,,,,,,,,,,,,,,,,,,,,,,,,,,,,,,,,,,,,,,,,,,,,,
11158,1650415326.4358132,1650415326.45978,52.0,0.0,5265.128418,7773.333495999999,3990.256348,4087.179443,4584.102539,0.0,3.0,68.0,,,,0.0,4.0,2.0,0.0,0.0,4.0,16.666666,,,,,,,,26.0,0.0,0.076986,-0.547607,0.342529,0.759521,0.902358,-0.43457700000000005,-0.170901,-0.045542,-0.055887,-0.026917,,,,,,,,,,,,,,,,,,,,,,,,,,,,,,,,,,,,,,,,,,,,,,,,,,,,,,,,,,,,,,,,,
11159,1650415326.4436278,1650415326.467594,53.0,0.0,5144.615234000001,7774.358887,3990.7692869999996,4295.897461,4461.025879,0.0,3.0,68.0,,,,0.0,4.0,2.0,0.0,0.0,4.0,16.666666,,,,,,,,,,,,,,,,,,,,,,,,,,,,,,,,,,,,,,,,,,,,,,,,,,,,,,0.0,0.0,1.0,0.0,512.0,1.0,,,,,,,,,,,,,,,,,,,,,,,,,
11160,1650415326.451443,1650415326.475309,54.0,0.0,5085.641113000001,7765.128418000001,4081.538574,4372.820313,4616.410156,0.0,3.0,68.0,,,,0.0,4.0,2.0,0.0,0.0,4.0,16.666666,,,,,,,,27.0,0.0,0.076986,-0.547607,0.342529,0.759521,0.8930799999999999,-0.43799499999999997,-0.167971,-0.045626,-0.055913,-0.024030000000000003,,,,,,,,,,,,,,,,,,,,,,,,,,,,,,,,,,,,,,,,,,,,,,,,,,,,,,,,,,,,,,,,,
11161,1650415326.4592571,1650415326.483124,55.0,0.0,5070.769043,7773.333495999999,4146.666504,4315.897461,4686.153809,0.0,3.0,68.0,,,,0.0,4.0,2.0,0.0,0.0,4.0,16.666666,,,,,,,,,,,,,,,,,,,,,,,,,,,,,,,,,,,,,,,,,,,,,,,,,,,,,,,,,,,,,,,,,,,,,,,,,,,,,,,,,,,,
11162,1650415326.467072,1650415326.490838,56.0,0.0,5053.333496,7769.230956999999,4138.974121,4285.128418,4517.94873,0.0,3.0,68.0,,,,0.0,4.0,2.0,0.0,0.0,4.0,16.666666,,,,,,,,28.0,0.0,0.076986,-0.547607,0.342529,0.759521,0.902358,-0.43457700000000005,-0.170901,-0.045702,-0.055889,-0.027682,,,,,,,,,,,,,,,,,,,,,,,,,,,,,,,,,,,,,,,,,,,,,,,,,,,,,,,,,,,,,,,,,
11163,1650415326.474886,1650415326.498653,57.0,0.0,4990.256348,7716.410156,4171.282227000001,4271.282227000001,4517.436035,0.0,3.0,68.0,,,,0.0,4.0,2.0,0.0,0.0,4.0,16.666666,,,,,,,,,,,,,,,,,,,,1.0,0.0,0.0,,,,,,,,,,,,,,,,,,,,,,,,,,,,,,,,0.0,0.0,32.0,0.18318900000000002,1.0,0.0,140.063721,24.297857,38.024440999999996,21.816101,6.305182,686.613953,151.28741499999998,42.810226,16.681829,7.585021,60.762287,9.328233,5.224943,6.321811,4.139766000000001,24.903189,11.37534,7.339421000000001,12.028663,7.093986,6.9069009999999995,4.644294,9.298108000000001,7.172202,13.074991
11164,1650415326.482701,1650415326.506368,58.0,0.0,4937.436035,7710.769043000001,4198.974121,4252.820313,4658.461426,0.0,3.0,68.0,,,,0.0,4.0,2.0,0.0,0.0,4.0,16.666666,,,,,,,,29.0,0.0,0.076986,-0.547607,0.342529,0.759521,0.897963,-0.430671,-0.17383099999999999,-0.045771,-0.055817,-0.028234,,,,,,,,,,,,,,,,,,,,,,,,,,,,,,,,,,,,,,,,,,,,,,,,,,,,,,,,,,,,,,,,,
11165,1650415326.490516,1650415326.514082,59.0,0.0,4917.94873,7755.384765999999,4156.922852000001,4254.358886999999,4618.974121,0.0,3.0,68.0,,,,0.0,4.0,2.0,0.0,0.0,4.0,16.666666,,,,,,,,,,,,,,,,,,,,,,,,,,,,,,,,,,,,,,,,,,,,,,,,,,,,,,,,,,,,,,,,,,,,,,,,,,,,,,,,,,,,
11166,1650415326.49833,1650415326.521897,60.0,0.0,4858.974121,7720.512695,4168.205078,4283.077147999999,4498.461426,0.0,3.0,68.0,,,,0.0,4.0,2.0,0.0,0.0,4.0,16.666666,,,,,,,,30.0,0.0,0.078703,-0.547363,0.342529,0.759521,0.9052870000000001,-0.44483100000000003,-0.170413,-0.045832,-0.055851,-0.025215,,,,,,,,,,,,,,,,,,,,,,,,,,,,,,,,,,,,,,,,,,,,,,,,,,,,,,,,,,,,,,,,,
11167,1650415326.506145,1650415326.5296118,61.0,0.0,4780.0,7633.333495999999,4262.05127,4301.025879,4516.410156,0.0,3.0,68.0,,,,0.0,4.0,2.0,0.0,0.0,4.0,16.666666,,,,,,,,,,,,,,,,,,,,,,,,,,,,,,,,,,,,,,,,,,,,,,,,,,,,,,0.0,0.0,32.0,0.18318900000000002,1.0,0.0,,,,,,,,,,,,,,,,,,,,,,,,,
11168,1650415326.51396,1650415326.537427,62.0,0.0,4726.666504,7611.794922,4283.589844,4269.743652,4610.256348,0.0,3.0,68.0,,,,0.0,4.0,2.0,0.0,0.0,4.0,16.666666,,,,,,,,31.0,0.0,0.079759,-0.547363,0.342285,0.759521,0.890639,-0.424811,-0.178714,-0.045839,-0.05583200000000001,-0.026112,,,,,,,,,,,,,,,,,,,,,,,,,,,,,,,,,,,,,,,,,,,,,,,,,,,,,,,,,,,,,,,,,
11169,1650415326.521774,1650415326.545141,63.0,0.0,4713.333496,7648.205078,4227.179688,4251.794922,4658.974121,0.0,3.0,68.0,,,,0.0,4.0,2.0,0.0,0.0,4.0,16.666666,,,,,,,,,,,,,,,,,,,,,,,,,,,,,,,,,,,,,,,,,,,,,,,,,,,,,,,,,,,,,,,,,,,,,,,,,,,,,,,,,,,,
11170,1650415326.5295892,1650415326.552956,64.0,0.0,4707.692383,7710.769043000001,4168.717772999999,4278.974121,4649.743652,450.0,3.0,68.0,,,,0.0,4.0,2.0,0.0,0.0,4.0,16.666666,,,,,,,,32.0,0.0,0.078065,-0.547607,0.342285,0.759521,0.905776,-0.447272,-0.163088,-0.045943,-0.055718,-0.02062,,,,,,,,,,,,,,,,,,,,,,,,,,,,,,,,,,,,,,,,,,,,,,,,,,,,,,,,,,,,,,,,,
11171,1650415326.5374029,1650415326.560671,65.0,0.0,4678.461426,7778.974120999999,4118.461426,4286.153809,4593.846191,450.0,3.0,68.0,,,,0.0,2.0,2.0,0.0,0.0,4.0,16.666666,,,,,,,,,,,,,,,,,,,,,,,,,,,,,,,,,,,,,,,,,,,,,,,,,,,,,,0.0,0.0,32.0,0.18318900000000002,1.0,0.0,,,,,,,,,,,,,,,,,,,,,,,,,
11172,1650415326.545218,1650415326.568485,66.0,0.0,4650.256348,7771.794922,4106.153809,4262.05127,4540.512695,167.0,3.0,68.0,,,,0.0,2.0,2.0,0.0,0.0,4.0,16.666666,,,,,,,,33.0,0.0,0.079128,-0.547607,0.342041,0.759521,0.894545,-0.435065,-0.175784,-0.046036,-0.055761,-0.024612000000000002,,,,,,,,,,,,,,,,,,,,,,,,,,,,,,,,,,,,,,,,,,,,,,,,,,,,,,,,,,,,,,,,,
11173,1650415326.553033,1650415326.5762,67.0,0.0,4623.589844,7715.384765999999,4081.538574,4263.589844,4514.358886999999,450.0,3.0,68.0,,,,0.0,2.0,0.0,0.0,0.0,4.0,0.0,,,,,,,,,,,,,,,,,,,,,,,,,,,,,,,,,,,,,,,,,,,,,,,,,,,,,,,,,,,,,,,,,,,,,,,,,,,,,,,,,,,,
11174,1650415326.560847,1650415326.5840151,68.0,0.0,4575.897461,7697.94873,4061.538574,4297.94873,4509.230957,0.0,3.0,68.0,,,,0.0,2.0,0.0,0.0,0.0,4.0,0.0,,,,,,,,34.0,0.0,0.079128,-0.547607,0.342041,0.759521,0.8921030000000001,-0.43408900000000006,-0.170413,-0.046071,-0.055849,-0.025519999999999998,,,,,,,,,,,,,,,,,,,,,,,,,,,,,,,,,,,,,,,,,,,,,,,,,,,,,,,,,,,,,,,,,
11175,1650415326.568662,1650415326.591729,69.0,0.0,4545.641113000001,7710.769043000001,4134.871582,4310.769043,4539.487305,450.0,3.0,68.0,,,,0.0,2.0,0.0,1.0,0.0,4.0,8.333333,,,,,,,,,,,,,,,,,,,,,,,,,,,,,,,,,,,,,,,,,,,,,,,,,,,,,,0.0,0.0,32.0,0.18318900000000002,1.0,0.0,,,,,,,,,,,,,,,,,,,,,,,,,
11176,1650415326.5764759,1650415326.599544,70.0,0.0,4518.974121,7716.922852,4181.538574,4295.897461,4535.384765999999,73.0,3.0,68.0,,,,0.0,2.0,0.0,1.0,0.0,4.0,8.333333,,,,,,,,35.0,0.0,0.07849,-0.547852,0.34179699999999996,0.759521,0.8881969999999999,-0.431647,-0.170901,-0.046201,-0.055782000000000005,-0.020136,,,,,,,,,,,,,,,,,,,,,,,,,,,,,,,,,,,,,,,,,,,,,,,,,,,,,,,,,,,,,,,,,
11177,1650415326.584291,1650415326.607259,71.0,0.0,4448.717772999999,7717.94873,4087.6923829999996,4288.717772999999,4496.410156,450.0,3.0,68.0,,,,0.0,2.0,0.0,1.0,0.0,4.0,8.333333,,,,,,,,,,,,,,,,,,,,,,,,,,,,,,,,,,,,,,,,,,,,,,,,,,,,,,,,,,,,,,,,,,,,,,,,,,,,,,,,,,,,
11178,1650415326.592106,1650415326.615073,72.0,0.0,4422.563965,7653.333495999999,4042.5642090000006,4277.436035,4546.666504,450.0,3.0,68.0,,,,0.0,2.0,0.0,1.0,0.0,4.0,8.333333,,,,,,,,36.0,0.0,0.07849,-0.547852,0.34179699999999996,0.759521,0.9091940000000001,-0.42920600000000003,-0.175784,-0.046169999999999996,-0.055722,-0.017976,,,,,,,,,,,,,,,,,,,,,,,,,,,,,,,,,,,,,,,,,,,,,,,,,,,,,,,,,,,,,,,,,
11179,1650415326.59992,1650415326.6227882,73.0,0.0,4455.384765999999,7491.794922,4206.153809,4253.333496,4645.641113000001,0.0,3.0,68.0,,,,0.0,2.0,0.0,1.0,0.0,4.0,8.333333,0.972656,0.0,0.0,0.0,0.0,0.0,0.0,,,,,,,,,,,,,1.0,0.0,0.0,,,,,,,,,,,,,,,,,,,,,,,,,,,,,,,,0.0,0.0,32.0,0.76693,1.0,0.0,396.144897,62.515910999999996,102.153679,57.690491,10.149415,1822.364502,327.963196,70.960083,18.688215,6.740495,161.16816699999998,22.423378,10.344738000000001,11.156816000000001,6.874498,58.231186,27.308851,18.32049,29.393013,12.608171,7.942935,6.114218,21.686029,12.335998,26.063171
11180,1650415326.607735,1650415326.6306028,74.0,0.0,4453.333496,7428.717773,4317.436035,4260.0,4612.307617,450.0,3.0,68.0,,,,0.0,2.0,0.0,1.0,0.0,4.0,8.333333,,,,,,,,37.0,0.0,0.080192,-0.548096,0.341553,0.7592770000000001,0.9072399999999999,-0.41944,-0.17773699999999998,-0.046192000000000004,-0.055764999999999995,-0.019596000000000002,,,,,,,,,,,,,,,,,,,,,,,,,,,,,,,,,,,,,,,,,,,,,,,,,,,,,,,,,,,,,,,,,
11181,1650415326.615549,1650415326.638318,75.0,0.0,4419.487305,7519.487305,4133.333496,4288.205078,4512.307617,16260.0,3.0,68.0,,,,0.0,2.0,0.0,1.0,0.0,4.0,8.333333,,,,,,,,,,,,,,,,,,,,,,,,,,,,,,,,,,,,,,,,,,,,,,,,,,,,,,,,,,,,,,,,,,,,,,,,,,,,,,,,,,,,
11182,1650415326.623364,1650415326.646032,76.0,0.0,4369.743652,7504.102539,4003.5898439999996,4290.256348,4527.692383,450.0,3.0,68.0,,,,0.0,2.0,0.0,1.0,0.0,4.0,8.333333,,,,,,,,38.0,0.0,0.07850499999999999,-0.5483399999999999,0.341553,0.7592770000000001,0.897963,-0.423346,-0.17383099999999999,-0.046212,-0.05570599999999999,-0.020908000000000003,,,,,,,,,,,,,,,,,,,,,,,,,,,,,,,,,,,,,,,,,,,,,,,,,,,,,,,,,,,,,,,,,
11183,1650415326.6311789,1650415326.653847,77.0,0.0,4323.077147999999,7364.615234000001,4152.307617,4276.922852000001,4565.641113000001,450.0,3.0,68.0,,,,0.0,2.0,0.0,1.0,0.0,4.0,8.333333,,,,,,,,,,,,,,,,,,,,,,,,,,,,,,,,,,,,,,,,,,,,,,,,,,,,,,0.0,0.0,32.0,0.76693,1.0,0.0,,,,,,,,,,,,,,,,,,,,,,,,,
11184,1650415326.638993,1650415326.661562,78.0,0.0,4305.641113000001,7324.102539,4212.820313,4273.846191,4542.563965,450.0,3.0,68.0,,,,0.0,2.0,0.0,1.0,0.0,4.0,8.333333,,,,,,,,39.0,0.0,0.081225,-0.548096,0.34130900000000003,0.7592770000000001,0.892592,-0.427741,-0.167971,-0.046132,-0.055652999999999994,-0.022284,,,,,,,,,,,,,,,,,,,,,,,,,,,,,,,,,,,,,,,,,,,,,,,,,,,,,,,,,,,,,,,,,
11185,1650415326.646808,1650415326.669376,79.0,0.0,4275.384765999999,7362.563965,4116.922852000001,4266.666504,4536.410156,16260.0,3.0,68.0,,,,0.0,2.0,0.0,1.0,0.0,4.0,8.333333,,,,,,,,,,,,,,,,,,,,,,,,,,,,,,,,,,,,,,,,,,,,,,,,,,,,,,,,,,,,,,,,,,,,,,,,,,,,,,,,,,,,
11186,1650415326.654622,1650415326.6770911,80.0,0.0,4237.436035,7361.538573999999,4113.333496,4254.871582,4524.615234000001,450.0,3.0,68.0,,,,0.0,2.0,0.0,1.0,0.0,4.0,8.333333,,,,,,,,40.0,0.0,0.080192,-0.548096,0.341553,0.7592770000000001,0.8916149999999999,-0.435065,-0.15967,-0.046107999999999996,-0.055653999999999995,-0.023474000000000002,,,,,,,,,,,,,,,,,,,,,,,,,,,,,,,,,,,,,,,,,,,,,,,,,,,,,,,,,,,,,,,,,
11187,1650415326.662437,1650415326.684906,81.0,0.0,4226.666504,7330.769043000001,4187.692383,4262.05127,4482.563965,450.0,3.0,68.0,,,,0.0,2.0,0.0,1.0,0.0,4.0,8.333333,,,,,,,,,,,,,,,,,,,,,,,,,,,,,,,,,,,,,,,,,,,,,,,,,,,,,,0.0,0.0,32.0,0.76693,1.0,0.0,,,,,,,,,,,,,,,,,,,,,,,,,
11188,1650415326.6702518,1650415326.692621,82.0,0.0,4226.666504,7309.230956999999,4201.538574,4285.128418,4457.94873,450.0,3.0,68.0,,,,0.0,2.0,0.0,1.0,0.0,4.0,8.333333,,,,,,,,41.0,0.0,0.078909,-0.548096,0.34130900000000003,0.759521,0.9038219999999999,-0.430671,-0.175784,-0.046136,-0.055605999999999996,-0.027181,,,,,,,,,,,,,,,,,,,,,,,,,,,,,,,,,,,,,,,,,,,,,,,,,,,,,,,,,,,,,,,,,
11189,1650415326.678066,1650415326.700435,83.0,0.0,4238.974121,7285.641113,4172.307617,4288.717772999999,4484.102539,16260.0,3.0,68.0,,,,0.0,2.0,0.0,1.0,0.0,4.0,8.333333,,,,,,,,,,,,,,,,,,,,,,,,,,,,,,,,,,,,,,,,,,,,,,,,,,,,,,,,,,,,,,,,,,,,,,,,,,,,,,,,,,,,
11190,1650415326.6858811,1650415326.70825,84.0,0.0,4238.974121,7255.897461,4162.05127,4250.769043,4504.615234000001,450.0,3.0,68.0,,,,0.0,2.0,0.0,1.0,0.0,4.0,8.333333,,,,,,,,42.0,0.0,0.078909,-0.548096,0.34130900000000003,0.759521,0.8969860000000001,-0.436042,-0.16894800000000001,-0.046161,-0.055661,-0.027881,,,,,,,,,,,,,,,,,,,,,,,,,,,,,,,,,,,,,,,,,,,,,,,,,,,,,,,,,,,,,,,,,
11191,1650415326.693696,1650415326.715965,85.0,0.0,4197.436035,7226.153809,4202.563965,4220.0,4474.871582,450.0,3.0,68.0,,,,0.0,2.0,0.0,1.0,0.0,4.0,8.333333,,,,,,,,,,,,,,,,,,,,,,,,,,,,,,,,,,,,,,,,,,,,,,,,,,,,,,0.0,0.0,32.0,0.76693,1.0,0.0,,,,,,,,,,,,,,,,,,,,,,,,,
11192,1650415326.70151,1650415326.7236788,86.0,0.0,4182.563965,7221.025879000001,4269.743652,4235.897461,4453.846191,450.0,3.0,68.0,,,,0.0,2.0,0.0,1.0,0.0,4.0,8.333333,,,,,,,,43.0,0.0,0.078909,-0.548096,0.34130900000000003,0.759521,0.8916149999999999,-0.44483100000000003,-0.16846,-0.046135,-0.05571,-0.024751,,,,,,,,,,,,,,,,,,,,,,,,,,,,,,,,,,,,,,,,,,,,,,,,,,,,,,,,,,,,,,,,,
11193,1650415326.709325,1650415326.731494,87.0,0.0,4157.436035,7206.666504000001,4243.589844,4249.230957,4466.666504,16260.0,3.0,68.0,,,,0.0,2.0,0.0,1.0,0.0,4.0,8.333333,,,,,,,,,,,,,,,,,,,,,,,,,,,,,,,,,,,,,,,,,,,,,,,,,,,,,,,,,,,,,,,,,,,,,,,,,,,,,,,,,,,,
11194,1650415326.717139,1650415326.739209,88.0,0.0,4100.0,7156.410156,4183.589844,4266.153809,4493.333496,450.0,3.0,68.0,,,,0.0,2.0,0.0,1.0,0.0,4.0,8.333333,,,,,,,,44.0,0.0,0.078909,-0.548096,0.34130900000000003,0.759521,0.8896620000000001,-0.423346,-0.175296,-0.046063,-0.055657000000000005,-0.025644999999999998,,,,,,,,,,,,,,,,,,,,,,,,,,,,,,,,,,,,,,,,,,,,,,,,,,,,,,,,,,,,,,,,,
11195,1650415326.724954,1650415326.747023,89.0,0.0,4123.589844,7100.512695,4197.94873,4281.025879,4500.512695,450.0,3.0,68.0,,,,0.0,2.0,0.0,1.0,0.0,4.0,8.333333,,,,,,,,,,,,,,,,,,,,1.0,0.0,0.0,,,,,,,,,,,,,,,,,,,,,,,,,,,,,,,,0.0,0.0,32.0,1.0,1.0,0.0,824.0799559999999,132.268311,204.42248500000002,116.507805,16.446756,3468.367676,584.104797,113.447014,21.554037,5.879574,322.833527,43.235516,18.261689999999998,19.350154999999997,11.923001,110.4786,54.528606,37.782585,58.101749,22.129564000000002,10.108409,8.75447,42.829066999999995,24.185263,46.589764
11196,1650415326.732769,1650415326.754738,90.0,0.0,4117.436035,7057.94873,4221.538574,4228.205078,4447.179688,450.0,3.0,68.0,,,,0.0,2.0,0.0,1.0,0.0,4.0,8.333333,,,,,,,,45.0,0.0,0.079958,-0.548096,0.341064,0.759521,0.897963,-0.44385399999999997,-0.16406500000000002,-0.046095,-0.055853,-0.022934,,,,,,,,,,,,,,,,,,,,,,,,,,,,,,,,,,,,,,,,,,,,,,,,,,,,,,,,,,,,,,,,,
11197,1650415326.740583,1650415326.762553,91.0,0.0,4029.2307130000004,7054.871581999999,4229.743652,4195.897461,4392.307617,16260.0,3.0,68.0,,,,0.0,2.0,0.0,1.0,0.0,4.0,8.333333,,,,,,,,,,,,,,,,,,,,,,,,,,,,,,,,,,,,,,,,,,,,,,,,,,,,,,,,,,,,,,,,,,,,,,,,,,,,,,,,,,,,
11198,1650415326.748398,1650415326.770268,92.0,0.0,4026.1538090000004,7071.794922,4235.384765999999,4268.205078,4426.153809,450.0,3.0,68.0,,,,0.0,2.0,0.0,1.0,0.0,4.0,8.333333,,,,,,,,46.0,0.0,0.079958,-0.548096,0.341064,0.759521,0.904799,-0.44238999999999995,-0.174807,-0.046173,-0.055883,-0.024059,,,,,,,,,,,,,,,,,,,,,,,,,,,,,,,,,,,,,,,,,,,,,,,,,,,,,,,,,,,,,,,,,
11199,1650415326.7562132,1650415326.7780821,93.0,0.0,4066.1538090000004,7040.0,4219.487305,4310.769043,4474.871582,450.0,3.0,68.0,,,,0.0,2.0,0.0,1.0,0.0,4.0,8.333333,,,,,,,,,,,,,,,,,,,,,,,,,,,,,,,,,,,,,,,,,,,,,,,,,,,,,,0.0,0.0,32.0,1.0,1.0,0.0,,,,,,,,,,,,,,,,,,,,,,,,,
11200,1650415326.7640269,1650415326.785797,94.0,0.0,4026.1538090000004,6970.769043000001,4176.922852000001,4261.538574,4452.820313,450.0,3.0,68.0,,,,0.0,2.0,0.0,1.0,0.0,4.0,8.333333,,,,,,,,47.0,0.0,0.079958,-0.548096,0.341064,0.759521,0.8955209999999999,-0.43262399999999995,-0.170901,-0.046195,-0.055959,-0.024876,,,,,,,,,,,,,,,,,,,,,,,,,,,,,,,,,,,,,,,,,,,,,,,,,,,,,,,,,,,,,,,,,
11201,1650415326.771842,1650415326.7935119,95.0,0.0,3971.794922,6949.743651999999,4200.512695,4235.897461,4402.05127,16260.0,3.0,68.0,,,,0.0,2.0,0.0,1.0,0.0,4.0,8.333333,,,,,,,,,,,,,,,,,,,,,,,,,,,,,,,,,,,,,,,,,,,,,,,,,,,,,,,,,,,,,,,,,,,,,,,,,,,,,,,,,,,,
11202,1650415326.7796562,1650415326.801326,96.0,0.0,3976.923096,6957.436035,4250.256348,4257.436035,4367.692383,450.0,3.0,68.0,,,,0.0,2.0,0.0,1.0,0.0,4.0,8.333333,,,,,,,,48.0,0.0,0.079958,-0.548096,0.341064,0.759521,0.8916149999999999,-0.41651000000000005,-0.172854,-0.046214,-0.05588099999999999,-0.019458,,,,,,,,,,,,,,,,,,,,,,,,,,,,,,,,,,,,,,,,,,,,,,,,,,,,,,,,,,,,,,,,,
11203,1650415326.787471,1650415326.809141,97.0,0.0,3986.1538090000004,6912.820312999999,4232.820313,4279.487305,4394.871582,450.0,3.0,68.0,,,,0.0,2.0,0.0,1.0,0.0,4.0,8.333333,,,,,,,,,,,,,,,,,,,,,,,,,,,,,,,,,,,,,,,,,,,,,,,,,,,,,,0.0,0.0,32.0,1.0,1.0,0.0,,,,,,,,,,,,,,,,,,,,,,,,,
11204,1650415326.795286,1650415326.8168561,98.0,0.0,3971.281982,6833.846191,4227.179688,4296.410156,4457.436035,450.0,3.0,68.0,,,,0.0,2.0,0.0,1.0,0.0,4.0,8.333333,,,,,,,,49.0,0.0,0.079309,-0.547852,0.341064,0.7597659999999999,0.9116350000000001,-0.43946,-0.159182,-0.046182,-0.055908000000000006,-0.014632,,,,,,,,,,,,,,,,,,,,,,,,,,,,,,,,,,,,,,,,,,,,,,,,,,,,,,,,,,,,,,,,,
11205,1650415326.8031,1650415326.8246698,99.0,0.0,3971.794922,6760.0,4238.974121,4260.512695,4457.94873,16260.0,3.0,68.0,,,,0.0,2.0,0.0,1.0,0.0,4.0,8.333333,,,,,,,,,,,,,,,,,,,,,,,,,,,,,,,,,,,,,,,,,,,,,,,,,,,,,,,,,,,,,,,,,,,,,,,,,,,,,,,,,,,,
11206,1650415326.810915,1650415326.832385,100.0,0.0,3985.641113,6711.282227,4215.384765999999,4215.897461,4389.230957,450.0,3.0,68.0,,,,0.0,2.0,0.0,1.0,0.0,4.0,8.333333,,,,,,,,50.0,0.0,0.079309,-0.547852,0.341064,0.7597659999999999,0.902358,-0.431159,-0.170901,-0.046202999999999994,-0.055980999999999996,-0.01644,,,,,,,,,,,,,,,,,,,,,,,,,,,,,,,,,,,,,,,,,,,,,,,,,,,,,,,,,,,,,,,,,
11207,1650415326.81873,1650415326.8402,101.0,0.0,3966.6667479999996,6688.205078,4227.179688,4261.025879,4358.974121,450.0,3.0,68.0,,,,0.0,2.0,0.0,1.0,0.0,4.0,8.333333,,,,,,,,,,,,,,,,,,,,,,,,,,,,,,,,,,,,,,,,,,,,,,,,,,,,,,0.0,0.0,32.0,1.0,1.0,0.0,,,,,,,,,,,,,,,,,,,,,,,,,
11208,1650415326.826544,1650415326.847915,102.0,0.0,3954.358887,6690.256348,4262.563965,4280.0,4419.487305,450.0,3.0,68.0,,,,0.0,2.0,0.0,1.0,0.0,4.0,8.333333,,,,,,,,51.0,0.0,0.078252,-0.547852,0.34130900000000003,0.7597659999999999,0.894545,-0.438483,-0.166995,-0.046221,-0.055803,-0.011866,,,,,,,,,,,,,,,,,,,,,,,,,,,,,,,,,,,,,,,,,,,,,,,,,,,,,,,,,,,,,,,,,
11209,1650415326.834359,1650415326.8557289,103.0,0.0,3996.4101560000004,6697.436035,4262.05127,4167.179688,4457.436035,16260.0,3.0,68.0,,,,0.0,2.0,0.0,1.0,0.0,4.0,8.333333,,,,,,,,,,,,,,,,,,,,,,,,,,,,,,,,,,,,,,,,,,,,,,,,,,,,,,,,,,,,,,,,,,,,,,,,,,,,,,,,,,,,
11210,1650415326.842173,1650415326.8634439,104.0,0.0,4009.2307130000004,6685.128418,4266.153809,4166.153809,4418.974121,450.0,3.0,68.0,,,,0.0,2.0,0.0,1.0,0.0,4.0,8.333333,,,,,,,,52.0,0.0,0.078252,-0.547852,0.34130900000000003,0.7597659999999999,0.898451,-0.44238999999999995,-0.167483,-0.046287,-0.055936,-0.007896,,,,,,,,,,,,,,,,,,,,,,,,,,,,,,,,,,,,,,,,,,,,,,,,,,,,,,,,,,,,,,,,,
11211,1650415326.849988,1650415326.871159,105.0,0.0,3823.5898439999996,6558.974121,4258.974121,4306.666504,4281.025879,450.0,3.0,68.0,,,,0.0,2.0,0.0,1.0,0.0,4.0,8.333333,,,,,,,,,,,,,,,,,,,,1.0,0.0,0.0,,,,,,,,,,,,,,,,,,,,,,,,,,,,,,,,0.0,0.0,32.0,0.351275,1.0,0.0,1373.834839,226.73985299999998,326.378418,188.182907,23.999966,5376.285645,861.324036,159.996643,24.733852,5.058285,521.739868,68.589203,27.525364,29.914084999999996,18.984939999999998,170.839508,88.71880300000001,63.515312,93.953903,34.551083,13.52338,12.3233,69.21077,42.03537,71.784615
11212,1650415326.8578029,1650415326.878973,106.0,0.0,3659.487061,6441.538574,4261.538574,4260.0,4170.769043,450.0,3.0,68.0,,,,0.0,2.0,0.0,1.0,0.0,4.0,8.333333,,,,,,,,53.0,0.0,0.080587,-0.547852,0.34130900000000003,0.759521,0.901869,-0.430671,-0.176272,-0.046297000000000005,-0.055811,-0.007058,,,,,,,,,,,,,,,,,,,,,,,,,,,,,,,,,,,,,,,,,,,,,,,,,,,,,,,,,,,,,,,,,
11213,1650415326.865617,1650415326.8867881,107.0,0.0,3795.384521,6518.461426,4318.974121,4197.94873,4267.692383,16260.0,3.0,68.0,,,,0.0,2.0,0.0,1.0,0.0,4.0,8.333333,,,,,,,,,,,,,,,,,,,,,,,,,,,,,,,,,,,,,,,,,,,,,,,,,,,,,,,,,,,,,,,,,,,,,,,,,,,,,,,,,,,,
11214,1650415326.873432,1650415326.8945029,108.0,0.0,3969.2307130000004,6587.179688,4314.871582,4263.589844,4432.307617,450.0,3.0,68.0,,,,0.0,2.0,0.0,1.0,0.0,4.0,8.333333,,,,,,,,54.0,0.0,0.080587,-0.547852,0.34130900000000003,0.759521,0.898451,-0.43799499999999997,-0.178225,-0.046306,-0.055748,-0.009770000000000001,,,,,,,,,,,,,,,,,,,,,,,,,,,,,,,,,,,,,,,,,,,,,,,,,,,,,,,,,,,,,,,,,
11215,1650415326.881246,1650415326.902217,109.0,0.0,3893.8461909999996,6484.102539,4227.179688,4026.1538090000004,4422.05127,450.0,3.0,68.0,,,,0.0,2.0,0.0,1.0,0.0,4.0,8.333333,,,,,,,,,,,,,,,,,,,,,,,,,,,,,,,,,,,,,,,,,,,,,,,,,,,,,,0.0,0.0,32.0,0.351275,1.0,0.0,,,,,,,,,,,,,,,,,,,,,,,,,
11216,1650415326.889061,1650415326.910032,110.0,0.0,3794.358887,6397.94873,4226.666504,3677.9487299999996,4312.820313,450.0,3.0,68.0,,,,0.0,2.0,0.0,1.0,0.0,4.0,8.333333,,,,,,,,55.0,0.0,0.078252,-0.547852,0.34130900000000003,0.7597659999999999,0.898451,-0.44238999999999995,-0.167483,-0.046363,-0.055886,-0.00601,,,,,,,,,,,,,,,,,,,,,,,,,,,,,,,,,,,,,,,,,,,,,,,,,,,,,,,,,,,,,,,,,
11217,1650415326.8968759,1650415326.9178472,111.0,0.0,3872.3076170000004,6443.589844,4284.615234000001,3840.512939,4323.589844,16260.0,3.0,68.0,,,,0.0,2.0,0.0,1.0,0.0,4.0,8.333333,,,,,,,,,,,,,,,,,,,,,,,,,,,,,,,,,,,,,,,,,,,,,,,,,,,,,,,,,,,,,,,,,,,,,,,,,,,,,,,,,,,,
11218,1650415326.90469,1650415326.925561,112.0,0.0,3905.641113,6464.102539,4263.589844,4227.179688,4389.230957,450.0,3.0,68.0,,,,0.0,2.0,0.0,1.0,0.0,4.0,8.333333,,,,,,,,56.0,0.0,0.080587,-0.547852,0.34130900000000003,0.759521,0.898451,-0.43799499999999997,-0.178225,-0.046364999999999996,-0.055815,-0.008827,,,,,,,,,,,,,,,,,,,,,,,,,,,,,,,,,,,,,,,,,,,,,,,,,,,,,,,,,,,,,,,,,
11219,1650415326.9125051,1650415326.933276,113.0,0.0,3853.8461909999996,6410.256348,4247.692383,4325.641113000001,4402.563965,450.0,3.0,68.0,,,,0.0,2.0,0.0,1.0,0.0,4.0,8.333333,,,,,,,,,,,,,,,,,,,,,,,,,,,,,,,,,,,,,,,,,,,,,,,,,,,,,,0.0,0.0,32.0,0.351275,1.0,0.0,,,,,,,,,,,,,,,,,,,,,,,,,
11220,1650415326.9203188,1650415326.941091,114.0,0.0,3831.794922,6376.922852000001,4272.307617,4281.025879,4354.871582,450.0,3.0,68.0,,,,0.0,2.0,0.0,1.0,0.0,4.0,8.333333,,,,,,,,57.0,0.0,0.080587,-0.547852,0.34130900000000003,0.759521,0.9150530000000001,-0.42236999999999997,-0.176761,-0.04627,-0.0558,-0.011265,,,,,,,,,,,,,,,,,,,,,,,,,,,,,,,,,,,,,,,,,,,,,,,,,,,,,,,,,,,,,,,,,
11221,1650415326.928134,1650415326.948806,115.0,0.0,3798.461426,6380.512695,4267.179688,4282.563965,4285.128418,16260.0,3.0,68.0,,,,0.0,2.0,0.0,1.0,0.0,4.0,8.333333,,,,,,,,,,,,,,,,,,,,,,,,,,,,,,,,,,,,,,,,,,,,,,,,,,,,,,,,,,,,,,,,,,,,,,,,,,,,,,,,,,,,
11222,1650415326.935949,1650415326.95662,116.0,0.0,3790.7692869999996,6386.153809,4263.077147999999,4309.743652,4287.179688,450.0,3.0,68.0,,,,0.0,2.0,0.0,1.0,0.0,4.0,8.333333,,,,,,,,58.0,0.0,0.080587,-0.547852,0.34130900000000003,0.759521,0.906752,-0.431159,-0.176761,-0.04633,-0.055738,-0.013507,,,,,,,,,,,,,,,,,,,,,,,,,,,,,,,,,,,,,,,,,,,,,,,,,,,,,,,,,,,,,,,,,
11223,1650415326.943763,1650415326.964335,117.0,0.0,3811.794922,6342.563965,4284.615234000001,4306.666504,4305.641113000001,450.0,3.0,68.0,,,,0.0,2.0,0.0,1.0,0.0,4.0,8.333333,,,,,,,,,,,,,,,,,,,,,,,,,,,,,,,,,,,,,,,,,,,,,,,,,,,,,,0.0,0.0,32.0,0.351275,1.0,0.0,,,,,,,,,,,,,,,,,,,,,,,,,
11224,1650415326.951578,1650415326.97215,118.0,0.0,3816.923096,6276.410156,4287.179688,4234.358886999999,4301.538574,450.0,3.0,68.0,,,,0.0,2.0,0.0,1.0,0.0,4.0,8.333333,,,,,,,,59.0,0.0,0.078909,-0.548096,0.34130900000000003,0.759521,0.898451,-0.43018199999999995,-0.163088,-0.046336,-0.055729999999999995,-0.015672,,,,,,,,,,,,,,,,,,,,,,,,,,,,,,,,,,,,,,,,,,,,,,,,,,,,,,,,,,,,,,,,,
11225,1650415326.959392,1650415326.9798641,119.0,0.0,3789.2307130000004,6200.0,4242.05127,4206.153809,4307.692383,16260.0,3.0,68.0,,,,0.0,2.0,0.0,1.0,0.0,4.0,8.333333,,,,,,,,,,,,,,,,,,,,,,,,,,,,,,,,,,,,,,,,,,,,,,,,,,,,,,,,,,,,,,,,,,,,,,,,,,,,,,,,,,,,
11226,1650415326.967207,1650415326.987679,120.0,0.0,3783.076904,6132.820313,4229.230957,4261.025879,4320.512695,450.0,3.0,68.0,,,,0.0,2.0,0.0,1.0,0.0,4.0,8.333333,,,,,,,,60.0,0.0,0.078909,-0.548096,0.34130900000000003,0.759521,0.8921030000000001,-0.438483,-0.176761,-0.046341,-0.055821,-0.020306,,,,,,,,,,,,,,,,,,,,,,,,,,,,,,,,,,,,,,,,,,,,,,,,,,,,,,,,,,,,,,,,,
11227,1650415326.975022,1650415326.995394,121.0,0.0,3791.794922,6160.512695,4267.179688,4284.615234000001,4313.333496,450.0,3.0,68.0,,,,0.0,2.0,0.0,1.0,0.0,4.0,8.333333,,,,,,,,,,,,,,,,,,,,1.0,0.0,0.0,,,,,,,,,,,,,,,,,,,,,,,,,,,,,,,,0.0,0.0,32.0,0.071043,1.0,0.0,1908.707153,323.082672,433.245941,252.70078999999998,30.66235,6848.03125,1074.448975,194.909637,27.539785,4.439687999999999,710.04364,92.501541,35.660109999999996,40.358878999999995,26.890089,221.69714399999998,120.93286100000002,89.138092,127.719101,46.902256,17.025276,16.124062,93.45192,61.90470500000001,95.580574
11228,1650415326.982836,1650415327.003208,122.0,0.0,3758.974365,6235.384765999999,4280.0,4262.563965,4308.205078,450.0,3.0,68.0,,,,0.0,2.0,0.0,1.0,0.0,4.0,8.333333,,,,,,,,61.0,0.0,0.078909,-0.548096,0.34130900000000003,0.759521,0.8999159999999999,-0.427741,-0.164553,-0.046346,-0.055854999999999995,-0.021547,,,,,,,,,,,,,,,,,,,,,,,,,,,,,,,,,,,,,,,,,,,,,,,,,,,,,,,,,,,,,,,,,
11229,1650415326.990651,1650415327.0109231,123.0,0.0,3762.5642090000006,6227.692383,4270.769043,4271.794922,4337.436035,16260.0,3.0,68.0,,,,0.0,2.0,0.0,1.0,0.0,4.0,8.333333,,,,,,,,,,,,,,,,,,,,,,,,,,,,,,,,,,,,,,,,,,,,,,,,,,,,,,,,,,,,,,,,,,,,,,,,,,,,,,,,,,,,
11230,1650415326.998466,1650415327.018738,124.0,0.0,3817.4357909999994,6127.179688,4271.282227000001,4284.102539,4340.0,450.0,3.0,68.0,,,,0.0,2.0,0.0,1.0,0.0,4.0,8.333333,,,,,,,,62.0,0.0,0.078909,-0.548096,0.34130900000000003,0.759521,0.892592,-0.437507,-0.176272,-0.046252,-0.055738,-0.022713,,,,,,,,,,,,,,,,,,,,,,,,,,,,,,,,,,,,,,,,,,,,,,,,,,,,,,,,,,,,,,,,,
11231,1650415327.0062802,1650415327.026453,125.0,0.0,3832.3076170000004,6074.358886999999,4292.820313,4253.846191,4283.077147999999,450.0,3.0,68.0,,,,0.0,2.0,0.0,1.0,0.0,4.0,8.333333,,,,,,,,,,,,,,,,,,,,,,,,,,,,,,,,,,,,,,,,,,,,,,,,,,,,,,0.0,0.0,32.0,0.071043,1.0,0.0,,,,,,,,,,,,,,,,,,,,,,,,,
11232,1650415327.0140948,1650415327.034267,126.0,0.0,3785.641113,6100.0,4316.410156,4256.410156,4241.025879,450.0,3.0,68.0,,,,0.0,2.0,0.0,1.0,0.0,4.0,8.333333,,,,,,,,63.0,0.0,0.081225,-0.548096,0.34130900000000003,0.7592770000000001,0.8930799999999999,-0.436042,-0.167971,-0.046217,-0.055682,-0.01761,,,,,,,,,,,,,,,,,,,,,,,,,,,,,,,,,,,,,,,,,,,,,,,,,,,,,,,,,,,,,,,,,
11233,1650415327.021909,1650415327.041982,127.0,0.0,3766.1538090000004,6088.717772999999,4304.102539,4305.641113000001,4268.717772999999,237.0,3.0,68.0,,,,0.0,2.0,0.0,1.0,0.0,4.0,8.333333,,,,,,,,,,,,,,,,,,,,,,,,,,,,,,,,,,,,,,,,,,,,,,,,,,,,,,,,,,,,,,,,,,,,,,,,,,,,,,,,,,,,
11234,1650415327.0297241,1650415327.0496972,0.0,0.0,3790.256348,6000.512695,4285.641113000001,4287.179688,4292.307617,450.0,3.0,68.0,,,,0.0,4.0,0.0,1.0,0.0,4.0,8.333333,,,,,,,,0.0,0.0,0.07956,-0.5483399999999999,0.34130900000000003,0.7592770000000001,0.8994280000000001,-0.437018,-0.173342,-0.046185000000000004,-0.055728999999999994,-0.0158,,,,,,,,,,,,,,,,,,,,,,,,,,,,,,,,,,,,,,,,,,,,,,,,,,,,,,,,,,,,,,,,,
11235,1650415327.037539,1650415327.0575109,1.0,0.0,3798.974365,5912.307617,4306.666504,4248.717772999999,4274.871582,450.0,3.0,68.0,,,,0.0,4.0,0.0,1.0,0.0,4.0,8.333333,,,,,,,,,,,,,,,,,,,,,,,,,,,,,,,,,,,,,,,,,,,,,,,,,,,,,,0.0,0.0,32.0,0.071043,1.0,0.0,,,,,,,,,,,,,,,,,,,,,,,,,
11236,1650415327.045353,1650415327.065326,2.0,0.0,3790.256348,5932.820313,4318.974121,4267.692383,4258.461426,16145.0,3.0,68.0,,,,0.0,4.0,0.0,1.0,0.0,4.0,8.333333,,,,,,,,1.0,0.0,0.07956,-0.5483399999999999,0.34130900000000003,0.7592770000000001,0.901869,-0.435554,-0.17236600000000002,-0.046157,-0.055771,-0.017638,,,,,,,,,,,,,,,,,,,,,,,,,,,,,,,,,,,,,,,,,,,,,,,,,,,,,,,,,,,,,,,,,
11237,1650415327.053168,1650415327.073041,3.0,0.0,3787.6923829999996,5984.102539,4289.230957,4254.358886999999,4271.282227000001,450.0,3.0,68.0,,,,0.0,4.0,0.0,1.0,0.0,4.0,8.333333,,,,,,,,,,,,,,,,,,,,,,,,,,,,,,,,,,,,,,,,,,,,,,,,,,,,,,,,,,,,,,,,,,,,,,,,,,,,,,,,,,,,
11238,1650415327.060983,1650415327.080756,4.0,0.0,3783.5898439999996,5925.128418,4254.358886999999,4223.077147999999,4294.358886999999,46.0,3.0,68.0,,,,0.0,4.0,0.0,1.0,0.0,4.0,8.333333,,,,,,,,2.0,0.0,0.07956,-0.5483399999999999,0.34130900000000003,0.7592770000000001,0.881849,-0.44776099999999996,-0.170413,-0.04618,-0.055761,-0.012993000000000001,,,,,,,,,,,,,,,,,,,,,,,,,,,,,,,,,,,,,,,,,,,,,,,,,,,,,,,,,,,,,,,,,
11239,1650415327.068797,1650415327.0885699,5.0,0.0,3783.5898439999996,5862.05127,4244.102539,4264.102539,4303.589844,450.0,3.0,68.0,,,,0.0,4.0,0.0,1.0,0.0,4.0,8.333333,,,,,,,,,,,,,,,,,,,,,,,,,,,,,,,,,,,,,,,,,,,,,,,,,,,,,,0.0,0.0,32.0,0.071043,1.0,0.0,,,,,,,,,,,,,,,,,,,,,,,,,
11240,1650415327.076612,1650415327.0962849,6.0,0.0,3792.820557,5905.641113000001,4259.487305,4286.666504,4301.025879,103.0,3.0,68.0,,,,0.0,4.0,0.0,1.0,0.0,4.0,8.333333,,,,,,,,3.0,0.0,0.07956,-0.5483399999999999,0.34130900000000003,0.7592770000000001,0.9038219999999999,-0.44238999999999995,-0.160159,-0.046201,-0.0558,-0.008666,,,,,,,,,,,,,,,,,,,,,,,,,,,,,,,,,,,,,,,,,,,,,,,,,,,,,,,,,,,,,,,,,
11241,1650415327.084426,1650415327.1041,7.0,0.0,3783.076904,5935.897461,4287.179688,4247.692383,4290.769043,450.0,3.0,68.0,,,,0.0,4.0,0.0,1.0,0.0,4.0,8.333333,,,,,,,,,,,,,,,,,,,,,,,,,,,,,,,,,,,,,,,,,,,,,,,,,,,,,,,,,,,,,,,,,,,,,,,,,,,,,,,,,,,,
11242,1650415327.092241,1650415327.111814,8.0,0.0,3767.6923829999996,5877.436035,4296.922852000001,4263.077147999999,4269.743652,450.0,3.0,68.0,,,,0.0,4.0,0.0,1.0,0.0,4.0,8.333333,,,,,,,,4.0,0.0,0.07956,-0.5483399999999999,0.34130900000000003,0.7592770000000001,0.902358,-0.43262399999999995,-0.164553,-0.046219,-0.055786,-0.007653,,,,,,,,,,,,,,,,,,,,,,,,,,,,,,,,,,,,,,,,,,,,,,,,,,,,,,,,,,,,,,,,,
11243,1650415327.1000562,1650415327.119629,9.0,0.0,3793.3332520000004,5856.410156,4289.743652,4305.128418,4258.974121,0.0,3.0,68.0,,,,0.0,4.0,0.0,1.0,0.0,4.0,8.333333,0.972656,0.0,0.0,0.0,0.0,0.0,0.0,,,,,,,,,,,,,1.0,0.0,0.0,,,,,,,,,,,,,,,,,,,,,,,,,,,,,,,,0.0,0.0,32.0,0.024595,1.0,0.0,2253.081787,391.32128900000004,489.038971,288.617798,34.395042,7487.280273,1149.3396,205.472763,29.398756,4.228231,831.295166,108.28016699999999,40.20557,47.636978000000006,33.887669,248.279312,141.678818,106.982529,149.134445,55.657458999999996,19.826397,19.378574,107.539093,78.081726,111.13351399999999
11244,1650415327.1078699,1650415327.127444,10.0,0.0,3815.897461,5884.102539,4300.0,4272.307617,4266.666504,450.0,3.0,68.0,,,,0.0,4.0,0.0,1.0,0.0,4.0,8.333333,,,,,,,,5.0,0.0,0.07956,-0.5483399999999999,0.34130900000000003,0.7592770000000001,0.898451,-0.423835,-0.171878,-0.046187,-0.055823000000000005,-0.010159,,,,,,,,,,,,,,,,,,,,,,,,,,,,,,,,,,,,,,,,,,,,,,,,,,,,,,,,,,,,,,,,,
11245,1650415327.115685,1650415327.135158,11.0,0.0,3790.7692869999996,5832.307617,4316.922852000001,4228.717772999999,4262.05127,16196.0,3.0,68.0,,,,0.0,4.0,0.0,1.0,0.0,4.0,8.333333,,,,,,,,,,,,,,,,,,,,,,,,,,,,,,,,,,,,,,,,,,,,,,,,,,,,,,,,,,,,,,,,,,,,,,,,,,,,,,,,,,,,
11246,1650415327.1235,1650415327.142873,12.0,0.0,3769.2307130000004,5748.717772999999,4296.922852000001,4298.461426,4237.436035,450.0,3.0,68.0,,,,0.0,4.0,0.0,1.0,0.0,4.0,8.333333,,,,,,,,6.0,0.0,0.07956,-0.5483399999999999,0.34130900000000003,0.7592770000000001,0.8999159999999999,-0.427253,-0.169436,-0.046256,-0.055759,-0.012562,,,,,,,,,,,,,,,,,,,,,,,,,,,,,,,,,,,,,,,,,,,,,,,,,,,,,,,,,,,,,,,,,
11247,1650415327.131314,1650415327.1506882,13.0,0.0,3789.2307130000004,5752.820313,4268.717772999999,4380.512695,4245.128418,450.0,3.0,68.0,,,,0.0,4.0,0.0,1.0,0.0,4.0,8.333333,,,,,,,,,,,,,,,,,,,,,,,,,,,,,,,,,,,,,,,,,,,,,,,,,,,,,,0.0,0.0,32.0,0.024595,1.0,0.0,,,,,,,,,,,,,,,,,,,,,,,,,
11248,1650415327.139129,1650415327.158402,14.0,0.0,3796.923096,5767.692383,4288.717772999999,4250.256348,4268.205078,450.0,3.0,68.0,,,,0.0,4.0,0.0,1.0,0.0,4.0,8.333333,,,,,,,,7.0,0.0,0.077846,-0.548096,0.341553,0.759521,0.9004040000000001,-0.43994799999999995,-0.166018,-0.046318,-0.055749,-0.014722999999999998,,,,,,,,,,,,,,,,,,,,,,,,,,,,,,,,,,,,,,,,,,,,,,,,,,,,,,,,,,,,,,,,,
11249,1650415327.1469429,1650415327.166217,15.0,0.0,3787.6923829999996,5674.358886999999,4295.384765999999,4065.1281740000004,4263.077147999999,16196.0,3.0,68.0,,,,0.0,4.0,0.0,1.0,0.0,4.0,8.333333,,,,,,,,,,,,,,,,,,,,,,,,,,,,,,,,,,,,,,,,,,,,,,,,,,,,,,,,,,,,,,,,,,,,,,,,,,,,,,,,,,,,
11250,1650415327.154758,1650415327.173932,16.0,0.0,3770.7692869999996,5557.94873,4246.666504,4142.563965,4221.025879,0.0,3.0,68.0,,,,0.0,4.0,0.0,1.0,0.0,4.0,8.333333,,,,,,,,8.0,0.0,0.080192,-0.548096,0.341553,0.7592770000000001,0.9028459999999999,-0.44190100000000004,-0.167971,-0.046178,-0.055838,-0.019306,,,,,,,,,,,,,,,,,,,,,,,,,,,,,,,,,,,,,,,,,,,,,,,,,,,,,,,,,,,,,,,,,
11251,1650415327.162573,1650415327.181747,17.0,0.0,3778.974365,5582.563965,4239.487305,4353.333496,4223.077147999999,0.0,3.0,68.0,,,,0.0,4.0,0.0,1.0,0.0,4.0,8.333333,,,,,,,,,,,,,,,,,,,,,,,,,,,,,,,,,,,,,,,,,,,,,,,,,,,,,,0.0,0.0,32.0,0.024595,1.0,0.0,,,,,,,,,,,,,,,,,,,,,,,,,
11252,1650415327.170387,1650415327.189461,18.0,0.0,3837.4357909999994,5681.538574,4272.820313,4256.410156,4308.717772999999,0.0,3.0,68.0,,,,0.0,4.0,0.0,1.0,0.0,4.0,8.333333,,,,,,,,9.0,0.0,0.07914500000000001,-0.548096,0.34179699999999996,0.7592770000000001,0.9150530000000001,-0.440925,-0.161624,-0.046199000000000004,-0.055772,-0.020744,,,,,,,,,,,,,,,,,,,,,,,,,,,,,,,,,,,,,,,,,,,,,,,,,,,,,,,,,,,,,,,,,
11253,1650415327.178202,1650415327.197176,19.0,0.0,3827.6923829999996,5656.922852000001,4267.692383,3939.487061,4301.025879,0.0,3.0,68.0,,,,0.0,4.0,0.0,1.0,0.0,4.0,8.333333,,,,,,,,,,,,,,,,,,,,,,,,,,,,,,,,,,,,,,,,,,,,,,,,,,,,,,,,,,,,,,,,,,,,,,,,,,,,,,,,,,,,
11254,1650415327.186016,1650415327.204991,20.0,0.0,3773.8461909999996,5549.743652,4272.820313,3982.5642090000006,4209.230957,0.0,3.0,68.0,,,,0.0,4.0,0.0,1.0,0.0,4.0,8.333333,,,,,,,,10.0,0.0,0.078083,-0.548096,0.342041,0.7592770000000001,0.892592,-0.447272,-0.16846,-0.046218,-0.055810000000000005,-0.022039,,,,,,,,,,,,,,,,,,,,,,,,,,,,,,,,,,,,,,,,,,,,,,,,,,,,,,,,,,,,,,,,,
11255,1650415327.193831,1650415327.2127051,21.0,0.0,3818.974365,5548.717772999999,4310.256348,4286.666504,4250.256348,0.0,3.0,68.0,,,,0.0,4.0,0.0,1.0,0.0,4.0,8.333333,,,,,,,,,,,,,,,,,,,,,,,,,,,,,,,,,,,,,,,,,,,,,,,,,,,,,,0.0,0.0,32.0,0.024595,1.0,0.0,,,,,,,,,,,,,,,,,,,,,,,,,
11256,1650415327.201645,1650415327.22052,22.0,0.0,3888.205078,5642.05127,4322.563965,4289.743652,4323.077147999999,0.0,3.0,68.0,,,,0.0,4.0,0.0,1.0,0.0,4.0,8.333333,,,,,,,,11.0,0.0,0.078083,-0.548096,0.342041,0.7592770000000001,0.8994280000000001,-0.43457700000000005,-0.15967,-0.046284,-0.055845000000000006,-0.023107,,,,,,,,,,,,,,,,,,,,,,,,,,,,,,,,,,,,,,,,,,,,,,,,,,,,,,,,,,,,,,,,,
11257,1650415327.20946,1650415327.228335,23.0,0.0,3849.743652,5687.692383,4306.153809,4125.128418,4276.922852000001,0.0,3.0,68.0,,,,0.0,4.0,0.0,1.0,0.0,4.0,8.333333,,,,,,,,,,,,,,,,,,,,,,,,,,,,,,,,,,,,,,,,,,,,,,,,,,,,,,,,,,,,,,,,,,,,,,,,,,,,,,,,,,,,
11258,1650415327.217275,1650415327.236049,24.0,0.0,3797.4357909999994,5644.615234000001,4300.0,4207.179688,4243.077147999999,0.0,3.0,68.0,,,,0.0,4.0,0.0,1.0,0.0,4.0,8.333333,,,,,,,,12.0,0.0,0.079778,-0.547852,0.342041,0.7592770000000001,0.901869,-0.43262399999999995,-0.172854,-0.046294,-0.055875,-0.020600999999999998,,,,,,,,,,,,,,,,,,,,,,,,,,,,,,,,,,,,,,,,,,,,,,,,,,,,,,,,,,,,,,,,,
11259,1650415327.225089,1650415327.243864,25.0,0.0,3806.6667479999996,5564.102539,4302.563965,4343.077147999999,4246.153809,0.0,3.0,68.0,,,,0.0,4.0,0.0,1.0,0.0,4.0,8.333333,,,,,,,,,,,,,,,,,,,,1.0,0.0,0.0,,,,,,,,,,,,,,,,,,,,,,,,,,,,,,,,0.0,0.0,32.0,0.020771,1.0,0.0,2286.998047,408.752289,474.770966,283.449677,34.315735,6985.062012,1057.483032,187.087952,30.081196000000002,4.676221,847.6616210000001,111.389526,39.825901,49.515244,38.270912,244.215485,146.08493,114.014954,152.85794099999998,58.688152,21.041842000000003,21.728877999999998,106.82608799999998,85.716995,113.945229
11260,1650415327.232904,1650415327.2515788,26.0,0.0,3802.5642090000006,5530.769043,4288.717772999999,4311.794922,4214.871582,0.0,3.0,68.0,,,,0.0,4.0,0.0,1.0,0.0,4.0,8.333333,,,,,,,,13.0,0.0,0.078083,-0.548096,0.342041,0.7592770000000001,0.8999159999999999,-0.437507,-0.176272,-0.046255000000000004,-0.055902999999999994,-0.018491999999999998,,,,,,,,,,,,,,,,,,,,,,,,,,,,,,,,,,,,,,,,,,,,,,,,,,,,,,,,,,,,,,,,,
11261,1650415327.2407188,1650415327.259294,27.0,0.0,3800.0,5542.05127,4298.974121,4269.743652,4224.102539,0.0,3.0,68.0,,,,0.0,4.0,0.0,1.0,0.0,4.0,8.333333,,,,,,,,,,,,,,,,,,,,,,,,,,,,,,,,,,,,,,,,,,,,,,,,,,,,,,,,,,,,,,,,,,,,,,,,,,,,,,,,,,,,
11262,1650415327.248533,1650415327.267108,28.0,0.0,3812.820557,5542.05127,4332.307617,4263.589844,4237.94873,0.0,3.0,68.0,,,,0.0,4.0,0.0,1.0,0.0,4.0,8.333333,,,,,,,,14.0,0.0,0.07914500000000001,-0.548096,0.34179699999999996,0.7592770000000001,0.898451,-0.44190100000000004,-0.16211199999999998,-0.046219,-0.05583099999999999,-0.020012000000000002,,,,,,,,,,,,,,,,,,,,,,,,,,,,,,,,,,,,,,,,,,,,,,,,,,,,,,,,,,,,,,,,,
11263,1650415327.2563481,1650415327.274823,29.0,0.0,3802.5642090000006,5522.563965,4322.05127,4265.641113000001,4211.794922,0.0,3.0,68.0,,,,0.0,4.0,0.0,1.0,0.0,4.0,8.333333,,,,,,,,,,,,,,,,,,,,,,,,,,,,,,,,,,,,,,,,,,,,,,,,,,,,,,0.0,0.0,32.0,0.020771,1.0,0.0,,,,,,,,,,,,,,,,,,,,,,,,,
11264,1650415327.2641618,1650415327.282638,30.0,0.0,3796.923096,5522.563965,4297.94873,4281.538574,4224.615234000001,0.0,3.0,68.0,,,,0.0,4.0,0.0,1.0,0.0,4.0,8.333333,,,,,,,,15.0,0.0,0.076767,-0.548096,0.34179699999999996,0.759521,0.9038219999999999,-0.45215500000000003,-0.169436,-0.046138,-0.055764999999999995,-0.017863999999999998,,,,,,,,,,,,,,,,,,,,,,,,,,,,,,,,,,,,,,,,,,,,,,,,,,,,,,,,,,,,,,,,,
11265,1650415327.271977,1650415327.2903519,31.0,0.0,3813.3332520000004,5531.282227000001,4326.153809,4285.128418,4247.692383,0.0,3.0,68.0,,,,0.0,4.0,0.0,1.0,0.0,4.0,8.333333,,,,,,,,,,,,,,,,,,,,,,,,,,,,,,,,,,,,,,,,,,,,,,,,,,,,,,,,,,,,,,,,,,,,,,,,,,,,,,,,,,,,
11266,1650415327.279792,1650415327.298167,32.0,0.0,3820.512939,5513.846191,4346.666504,4279.487305,4214.871582,0.0,3.0,68.0,,,,0.0,4.0,0.0,1.0,0.0,4.0,8.333333,,,,,,,,16.0,0.0,0.076767,-0.548096,0.34179699999999996,0.759521,0.893568,-0.4336,-0.167483,-0.046113999999999995,-0.055853,-0.016028999999999998,,,,,,,,,,,,,,,,,,,,,,,,,,,,,,,,,,,,,,,,,,,,,,,,,,,,,,,,,,,,,,,,,
11267,1650415327.287606,1650415327.305882,33.0,0.0,3801.538574,5494.871582,4314.871582,4271.282227000001,4190.769043,0.0,3.0,68.0,,,,0.0,4.0,0.0,1.0,0.0,4.0,8.333333,,,,,,,,,,,,,,,,,,,,,,,,,,,,,,,,,,,,,,,,,,,,,,,,,,,,,,0.0,0.0,32.0,0.020771,1.0,0.0,,,,,,,,,,,,,,,,,,,,,,,,,
11268,1650415327.2954211,1650415327.3136961,34.0,0.0,3803.076904,5464.102539,4297.436035,4265.128418,4227.179688,0.0,3.0,68.0,,,,0.0,4.0,0.0,1.0,0.0,4.0,8.333333,,,,,,,,17.0,0.0,0.076767,-0.548096,0.34179699999999996,0.759521,0.8994280000000001,-0.45410900000000004,-0.155276,-0.044677,-0.055785,-0.017844,,,,,,,,,,,,,,,,,,,,,,,,,,,,,,,,,,,,,,,,,,,,,,,,,,,,,,,,,,,,,,,,,
11269,1650415327.303235,1650415327.321511,35.0,0.0,3809.2307130000004,5413.846191,4309.743652,4266.153809,4242.05127,0.0,3.0,68.0,,,,0.0,4.0,0.0,1.0,0.0,4.0,8.333333,,,,,,,,,,,,,,,,,,,,,,,,,,,,,,,,,,,,,,,,,,,,,,,,,,,,,,,,,,,,,,,,,,,,,,,,,,,,,,,,,,,,
11270,1650415327.31105,1650415327.329226,36.0,0.0,3792.3076170000004,5395.384765999999,4312.820313,4278.974121,4199.487305,0.0,3.0,68.0,,,,0.0,4.0,0.0,1.0,0.0,4.0,8.333333,,,,,,,,18.0,0.0,0.076767,-0.548096,0.34179699999999996,0.759521,0.8842909999999999,-0.44190100000000004,-0.164553,-0.044848,-0.055626999999999996,-0.01938,,,,,,,,,,,,,,,,,,,,,,,,,,,,,,,,,,,,,,,,,,,,,,,,,,,,,,,,,,,,,,,,,
11271,1650415327.318865,1650415327.33704,37.0,0.0,3780.0,5382.05127,4296.410156,4300.0,4153.846191,0.0,3.0,68.0,,,,0.0,4.0,0.0,1.0,0.0,4.0,8.333333,,,,,,,,,,,,,,,,,,,,,,,,,,,,,,,,,,,,,,,,,,,,,,,,,,,,,,0.0,0.0,32.0,0.020771,1.0,0.0,,,,,,,,,,,,,,,,,,,,,,,,,
11272,1650415327.326679,1650415327.344855,38.0,0.0,3784.615479,5308.205078,4264.102539,4309.230957,4167.692383,0.0,3.0,68.0,,,,0.0,4.0,0.0,1.0,0.0,4.0,8.333333,,,,,,,,19.0,0.0,0.076767,-0.548096,0.34179699999999996,0.759521,0.893568,-0.4336,-0.167483,-0.045051,-0.05563,-0.020909,,,,,,,,,,,,,,,,,,,,,,,,,,,,,,,,,,,,,,,,,,,,,,,,,,,,,,,,,,,,,,,,,
11273,1650415327.3344939,1650415327.3525698,39.0,0.0,3807.179443,5208.717772999999,4260.512695,4290.769043,4233.846191,0.0,3.0,68.0,,,,0.0,4.0,0.0,1.0,0.0,4.0,8.333333,,,,,,,,,,,,,,,,,,,,,,,,,,,,,,,,,,,,,,,,,,,,,,,,,,,,,,,,,,,,,,,,,,,,,,,,,,,,,,,,,,,,
11274,1650415327.342309,1650415327.360385,40.0,0.0,3839.487061,5091.282227000001,4283.589844,4263.589844,4269.743652,0.0,3.0,68.0,,,,0.0,4.0,0.0,1.0,0.0,4.0,8.333333,,,,,,,,20.0,0.0,0.076767,-0.548096,0.34179699999999996,0.759521,0.8842909999999999,-0.44190100000000004,-0.164553,-0.045183999999999995,-0.055487,-0.022137999999999998,,,,,,,,,,,,,,,,,,,,,,,,,,,,,,,,,,,,,,,,,,,,,,,,,,,,,,,,,,,,,,,,,
11275,1650415327.350123,1650415327.368099,41.0,0.0,3852.3076170000004,4934.358886999999,4264.615234000001,4262.563965,4248.717772999999,0.0,3.0,68.0,,,,0.0,4.0,0.0,1.0,0.0,4.0,8.333333,,,,,,,,,,,,,,,,,,,,1.0,0.0,0.0,,,,,,,,,,,,,,,,,,,,,,,,,,,,,,,,0.0,0.0,32.0,0.039769,1.0,0.0,2005.739868,369.853729,396.658997,239.578354,31.046537,5579.785156,832.163696,146.35498,29.569145000000002,6.0175849999999995,754.7928469999999,101.52939599999999,34.845314,45.49654,38.992882,215.80198700000003,135.750565,112.479355,140.468262,56.200545999999996,20.138897,23.218403,92.066856,82.7864,103.752831
11276,1650415327.357938,1650415327.375914,42.0,0.0,3835.384521,4805.641113000001,4246.666504,4282.563965,4216.410156,0.0,3.0,68.0,,,,0.0,4.0,0.0,1.0,0.0,4.0,8.333333,,,,,,,,21.0,0.0,0.076767,-0.548096,0.34179699999999996,0.759521,0.9087049999999999,-0.431647,-0.182132,-0.045207,-0.055554,-0.019729,,,,,,,,,,,,,,,,,,,,,,,,,,,,,,,,,,,,,,,,,,,,,,,,,,,,,,,,,,,,,,,,,
11277,1650415327.365752,1650415327.3836288,43.0,0.0,3832.3076170000004,4724.102539,4286.153809,4298.461426,4229.230957,0.0,3.0,68.0,,,,0.0,4.0,0.0,1.0,0.0,4.0,8.333333,,,,,,,,,,,,,,,,,,,,,,,,,,,,,,,,,,,,,,,,,,,,,,,,,,,,,,,,,,,,,,,,,,,,,,,,,,,,,,,,,,,,
11278,1650415327.373567,1650415327.391443,44.0,0.0,3840.0,4666.153809,4303.077147999999,4276.922852000001,4256.410156,0.0,3.0,68.0,,,,0.0,4.0,0.0,1.0,0.0,4.0,8.333333,,,,,,,,22.0,0.0,0.07914500000000001,-0.548096,0.34179699999999996,0.7592770000000001,0.908217,-0.437507,-0.17383099999999999,-0.045325,-0.055564999999999996,-0.021125,,,,,,,,,,,,,,,,,,,,,,,,,,,,,,,,,,,,,,,,,,,,,,,,,,,,,,,,,,,,,,,,,
11279,1650415327.381382,1650415327.399158,45.0,0.0,3812.3076170000004,4592.307617,4275.897461,4261.538574,4243.589844,0.0,3.0,68.0,,,,0.0,4.0,0.0,1.0,0.0,4.0,8.333333,,,,,,,,,,,,,,,,,,,,,,,,,,,,,,,,,,,,,,,,,,,,,,,,,,,,,,0.0,0.0,32.0,0.039769,1.0,0.0,,,,,,,,,,,,,,,,,,,,,,,,,
11280,1650415327.3891962,1650415327.4069731,46.0,0.0,3790.7692869999996,4454.358886999999,4281.538574,4296.922852000001,4221.025879,0.0,3.0,68.0,,,,0.0,4.0,0.0,1.0,0.0,4.0,8.333333,,,,,,,,23.0,0.0,0.078083,-0.548096,0.342041,0.7592770000000001,0.8969860000000001,-0.43262399999999995,-0.164553,-0.045431,-0.055429,-0.022333000000000002,,,,,,,,,,,,,,,,,,,,,,,,,,,,,,,,,,,,,,,,,,,,,,,,,,,,,,,,,,,,,,,,,
11281,1650415327.397011,1650415327.414687,47.0,0.0,3807.179443,4348.205078,4314.358886999999,4305.641113000001,4211.282227000001,0.0,3.0,68.0,,,,0.0,4.0,0.0,1.0,0.0,4.0,8.333333,,,,,,,,,,,,,,,,,,,,,,,,,,,,,,,,,,,,,,,,,,,,,,,,,,,,,,,,,,,,,,,,,,,,,,,,,,,,,,,,,,,,
11282,1650415327.404826,1650415327.422502,48.0,0.0,3833.8461909999996,4360.0,4315.897461,4262.05127,4202.563965,0.0,3.0,68.0,,,,0.0,4.0,0.0,1.0,0.0,4.0,8.333333,,,,,,,,24.0,0.0,0.078083,-0.548096,0.342041,0.7592770000000001,0.897963,-0.42627600000000004,-0.169924,-0.045527,-0.055501,-0.023372,,,,,,,,,,,,,,,,,,,,,,,,,,,,,,,,,,,,,,,,,,,,,,,,,,,,,,,,,,,,,,,,,
11283,1650415327.41264,1650415327.430217,49.0,0.0,3830.7692869999996,4352.307617,4292.307617,4239.487305,4175.384765999999,0.0,3.0,68.0,,,,0.0,4.0,0.0,1.0,0.0,4.0,8.333333,,,,,,,,,,,,,,,,,,,,,,,,,,,,,,,,,,,,,,,,,,,,,,,,,,,,,,0.0,0.0,32.0,0.039769,1.0,0.0,,,,,,,,,,,,,,,,,,,,,,,,,
11284,1650415327.420455,1650415327.437932,50.0,0.0,3813.3332520000004,4268.717772999999,4292.307617,4260.512695,4186.666504,0.0,3.0,68.0,,,,0.0,4.0,0.0,1.0,0.0,4.0,8.333333,,,,,,,,25.0,0.0,0.078083,-0.548096,0.342041,0.7592770000000001,0.9028459999999999,-0.436042,-0.15820599999999999,-0.045564,-0.055615,-0.024355,,,,,,,,,,,,,,,,,,,,,,,,,,,,,,,,,,,,,,,,,,,,,,,,,,,,,,,,,,,,,,,,,
11285,1650415327.428269,1650415327.4457462,51.0,0.0,3810.7692869999996,4200.0,4301.025879,4304.102539,4227.179688,0.0,3.0,68.0,,,,0.0,4.0,0.0,1.0,0.0,4.0,8.333333,,,,,,,,,,,,,,,,,,,,,,,,,,,,,,,,,,,,,,,,,,,,,,,,,,,,,,,,,,,,,,,,,,,,,,,,,,,,,,,,,,,,
11286,1650415327.436084,1650415327.453461,52.0,0.0,3802.0512700000004,4179.487305,4277.436035,4352.307617,4203.077147999999,0.0,3.0,68.0,,,,0.0,4.0,0.0,1.0,0.0,4.0,8.333333,,,,,,,,26.0,0.0,0.078083,-0.548096,0.342041,0.7592770000000001,0.8881969999999999,-0.438483,-0.164553,-0.045598,-0.055474,-0.021822,,,,,,,,,,,,,,,,,,,,,,,,,,,,,,,,,,,,,,,,,,,,,,,,,,,,,,,,,,,,,,,,,
11287,1650415327.443899,1650415327.461276,53.0,0.0,3808.718018,4170.769043,4278.461426,4305.641113000001,4173.846191,0.0,3.0,68.0,,,,0.0,4.0,0.0,1.0,0.0,4.0,8.333333,,,,,,,,,,,,,,,,,,,,,,,,,,,,,,,,,,,,,,,,,,,,,,,,,,,,,,0.0,0.0,32.0,0.039769,1.0,0.0,,,,,,,,,,,,,,,,,,,,,,,,,
11288,1650415327.451713,1650415327.46899,54.0,0.0,3837.4357909999994,4113.846191,4327.692383,4147.692383,4200.512695,0.0,3.0,68.0,,,,0.0,4.0,0.0,1.0,0.0,4.0,8.333333,,,,,,,,27.0,0.0,0.078083,-0.548096,0.342041,0.7592770000000001,0.9004040000000001,-0.43799499999999997,-0.163088,-0.045579,-0.055492999999999994,-0.019493,,,,,,,,,,,,,,,,,,,,,,,,,,,,,,,,,,,,,,,,,,,,,,,,,,,,,,,,,,,,,,,,,
11289,1650415327.459528,1650415327.476805,55.0,0.0,3875.897461,4095.897461,4342.05127,4093.8461909999996,4234.871582,0.0,3.0,68.0,,,,0.0,4.0,0.0,1.0,0.0,4.0,8.333333,,,,,,,,,,,,,,,,,,,,,,,,,,,,,,,,,,,,,,,,,,,,,,,,,,,,,,,,,,,,,,,,,,,,,,,,,,,,,,,,,,,,
11290,1650415327.4673429,1650415327.48452,56.0,0.0,3884.615479,4097.436035,4315.384765999999,4221.025879,4230.256348,0.0,3.0,68.0,,,,0.0,4.0,0.0,1.0,0.0,4.0,8.333333,,,,,,,,28.0,0.0,0.07914500000000001,-0.548096,0.34179699999999996,0.7592770000000001,0.89015,-0.453132,-0.16406500000000002,-0.045611,-0.055559000000000004,-0.020962,,,,,,,,,,,,,,,,,,,,,,,,,,,,,,,,,,,,,,,,,,,,,,,,,,,,,,,,,,,,,,,,,
11291,1650415327.475157,1650415327.492334,57.0,0.0,3835.897461,4028.205078,4319.487305,4338.461426,4214.871582,0.0,3.0,68.0,,,,0.0,4.0,0.0,1.0,0.0,4.0,8.333333,,,,,,,,,,,,,,,,,,,,1.0,0.0,0.0,,,,,,,,,,,,,,,,,,,,,,,,,,,,,,,,0.0,0.0,32.0,0.04421,1.0,0.0,1495.584961,289.101135,283.029205,172.844025,26.243321999999996,3725.248779,550.87323,96.913925,28.030886,8.323642999999999,585.109802,82.51134499999999,27.098581,37.040588,36.043411,177.74321,118.03803300000001,107.474953,119.430054,51.071644,17.688866,24.106651,68.965561,70.838989,84.51332099999999
11292,1650415327.4829721,1650415327.500149,58.0,0.0,3810.7692869999996,4020.0,4337.436035,4294.871582,4222.563965,0.0,3.0,68.0,,,,0.0,4.0,0.0,1.0,0.0,4.0,8.333333,,,,,,,,29.0,0.0,0.077435,-0.5483399999999999,0.34179699999999996,0.7592770000000001,0.893568,-0.43946,-0.15674100000000002,-0.045786,-0.055617999999999994,-0.018817,,,,,,,,,,,,,,,,,,,,,,,,,,,,,,,,,,,,,,,,,,,,,,,,,,,,,,,,,,,,,,,,,
11293,1650415327.4907858,1650415327.507864,59.0,0.0,3856.4101560000004,4055.897461,4324.102539,4200.512695,4237.94873,0.0,3.0,68.0,,,,0.0,4.0,0.0,1.0,0.0,4.0,8.333333,,,,,,,,,,,,,,,,,,,,,,,,,,,,,,,,,,,,,,,,,,,,,,,,,,,,,,,,,,,,,,,,,,,,,,,,,,,,,,,,,,,,
11294,1650415327.498601,1650415327.515579,60.0,0.0,3895.384521,4020.0,4314.871582,4206.666504,4237.436035,0.0,3.0,68.0,,,,0.0,4.0,0.0,1.0,0.0,4.0,8.333333,,,,,,,,30.0,0.0,0.077435,-0.5483399999999999,0.34179699999999996,0.7592770000000001,0.9004040000000001,-0.43946,-0.169436,-0.045944,-0.055574,-0.014152000000000001,,,,,,,,,,,,,,,,,,,,,,,,,,,,,,,,,,,,,,,,,,,,,,,,,,,,,,,,,,,,,,,,,
11295,1650415327.5064151,1650415327.523393,61.0,0.0,3877.9487299999996,4024.102539,4324.102539,4274.871582,4216.922852000001,0.0,3.0,68.0,,,,0.0,4.0,0.0,1.0,0.0,4.0,8.333333,,,,,,,,,,,,,,,,,,,,,,,,,,,,,,,,,,,,,,,,,,,,,,,,,,,,,,0.0,0.0,32.0,0.04421,1.0,0.0,,,,,,,,,,,,,,,,,,,,,,,,,
11296,1650415327.51423,1650415327.531108,62.0,0.0,3889.2307130000004,4137.436035,4328.717772999999,4311.794922,4238.974121,0.0,3.0,68.0,,,,0.0,4.0,0.0,1.0,0.0,4.0,8.333333,,,,,,,,31.0,0.0,0.077435,-0.5483399999999999,0.34179699999999996,0.7592770000000001,0.895033,-0.43018199999999995,-0.166018,-0.046037,-0.055485,-0.012541,,,,,,,,,,,,,,,,,,,,,,,,,,,,,,,,,,,,,,,,,,,,,,,,,,,,,,,,,,,,,,,,,
11297,1650415327.522045,1650415327.538923,63.0,0.0,3908.718018,4179.487305,4312.820313,4307.179688,4268.205078,0.0,3.0,68.0,,,,0.0,4.0,0.0,1.0,0.0,4.0,8.333333,,,,,,,,,,,,,,,,,,,,,,,,,,,,,,,,,,,,,,,,,,,,,,,,,,,,,,,,,,,,,,,,,,,,,,,,,,,,,,,,,,,,
11298,1650415327.529859,1650415327.5466368,64.0,0.0,3872.820557,4122.563965,4288.205078,4301.025879,4242.563965,450.0,3.0,68.0,,,,0.0,4.0,0.0,1.0,0.0,4.0,8.333333,,,,,,,,32.0,0.0,0.077435,-0.5483399999999999,0.34179699999999996,0.7592770000000001,0.9028459999999999,-0.44434300000000004,-0.164553,-0.046023,-0.055455,-0.014705000000000001,,,,,,,,,,,,,,,,,,,,,,,,,,,,,,,,,,,,,,,,,,,,,,,,,,,,,,,,,,,,,,,,,
11299,1650415327.537674,1650415327.554452,65.0,0.0,3864.615479,4077.4357909999994,4278.974121,4288.717772999999,4230.769043,450.0,3.0,68.0,,,,0.0,4.0,0.0,1.0,0.0,4.0,8.333333,,,,,,,,,,,,,,,,,,,,,,,,,,,,,,,,,,,,,,,,,,,,,,,,,,,,,,0.0,0.0,32.0,0.04421,1.0,0.0,,,,,,,,,,,,,,,,,,,,,,,,,
11300,1650415327.545488,1650415327.562167,66.0,0.0,3883.5898439999996,4075.897461,4282.563965,4255.897461,4235.897461,16173.0,3.0,68.0,,,,0.0,4.0,0.0,1.0,0.0,4.0,8.333333,,,,,,,,33.0,0.0,0.077435,-0.5483399999999999,0.34179699999999996,0.7592770000000001,0.8872209999999999,-0.442878,-0.18115499999999998,-0.046109,-0.055476,-0.016555,,,,,,,,,,,,,,,,,,,,,,,,,,,,,,,,,,,,,,,,,,,,,,,,,,,,,,,,,,,,,,,,,
11301,1650415327.553303,1650415327.569981,67.0,0.0,3862.0512700000004,4099.487305,4289.230957,4248.717772999999,4214.358886999999,450.0,3.0,68.0,,,,0.0,4.0,0.0,1.0,0.0,4.0,8.333333,,,,,,,,,,,,,,,,,,,,,,,,,,,,,,,,,,,,,,,,,,,,,,,,,,,,,,,,,,,,,,,,,,,,,,,,,,,,,,,,,,,,
11302,1650415327.561118,1650415327.577696,68.0,0.0,3842.0512700000004,4072.3076170000004,4283.589844,4285.641113000001,4207.179688,179.0,3.0,68.0,,,,0.0,4.0,2.0,1.0,0.0,4.0,25.0,,,,,,,,34.0,0.0,0.077435,-0.5483399999999999,0.34179699999999996,0.7592770000000001,0.902358,-0.436042,-0.16894800000000001,-0.046137,-0.055446,-0.014851,,,,,,,,,,,,,,,,,,,,,,,,,,,,,,,,,,,,,,,,,,,,,,,,,,,,,,,,,,,,,,,,,
11303,1650415327.568932,1650415327.585511,69.0,0.0,3874.8718259999996,4052.820557,4281.538574,4307.179688,4237.436035,450.0,3.0,68.0,,,,0.0,4.0,2.0,1.0,0.0,4.0,25.0,,,,,,,,,,,,,,,,,,,,,,,,,,,,,,,,,,,,,,,,,,,,,,,,,,,,,,0.0,0.0,32.0,0.04421,1.0,0.0,,,,,,,,,,,,,,,,,,,,,,,,,
11304,1650415327.5767472,1650415327.593226,70.0,0.0,3917.9487299999996,4076.923096,4300.512695,4291.282227000001,4252.820313,3.0,3.0,68.0,,,,0.0,4.0,2.0,0.0,0.0,4.0,16.666666,,,,,,,,35.0,0.0,0.077435,-0.5483399999999999,0.34179699999999996,0.7592770000000001,0.881849,-0.440436,-0.170901,-0.046113,-0.055564999999999996,-0.016735,,,,,,,,,,,,,,,,,,,,,,,,,,,,,,,,,,,,,,,,,,,,,,,,,,,,,,,,,,,,,,,,,
11305,1650415327.5845618,1650415327.6010401,71.0,0.0,3895.897461,4067.179443,4317.94873,4294.358886999999,4212.820313,450.0,3.0,68.0,,,,0.0,4.0,2.0,0.0,0.0,4.0,16.666666,,,,,,,,,,,,,,,,,,,,,,,,,,,,,,,,,,,,,,,,,,,,,,,,,,,,,,,,,,,,,,,,,,,,,,,,,,,,,,,,,,,,
11306,1650415327.592376,1650415327.608755,72.0,0.0,3867.6923829999996,4026.1538090000004,4318.461426,4298.974121,4179.487305,450.0,3.0,68.0,,,,0.0,4.0,2.0,0.0,0.0,4.0,16.666666,,,,,,,,36.0,0.0,0.07914500000000001,-0.548096,0.34179699999999996,0.7592770000000001,0.8833139999999999,-0.43799499999999997,-0.16894800000000001,-0.04614,-0.055575,-0.01218,,,,,,,,,,,,,,,,,,,,,,,,,,,,,,,,,,,,,,,,,,,,,,,,,,,,,,,,,,,,,,,,,
11307,1650415327.600191,1650415327.6164699,73.0,0.0,3895.384521,3961.538574,4293.333496,4304.102539,4204.102539,0.0,3.0,68.0,,,,0.0,4.0,2.0,0.0,0.0,4.0,16.666666,0.972656,0.0,0.0,0.0,0.0,0.0,0.0,,,,,,,,,,,,,1.0,0.0,0.0,,,,,,,,,,,,,,,,,,,,,,,,,,,,,,,,0.0,0.0,1.0,0.0,512.0,1.0,937.246765,193.436646,170.00473,104.811325,21.665085,1992.060791,299.660553,53.288047999999996,25.787086,11.351933,391.722748,60.467006999999995,18.905071,26.802851,30.395908000000002,145.96191399999998,101.400848,103.44051400000001,98.526382,47.184273,14.277535999999998,24.513273,45.275806,54.11653100000001,62.402267
11308,1650415327.608005,1650415327.624284,74.0,0.0,3887.6923829999996,3865.641113,4287.179688,4323.589844,4195.384765999999,450.0,3.0,68.0,,,,0.0,4.0,2.0,0.0,0.0,4.0,16.666666,,,,,,,,37.0,0.0,0.077435,-0.5483399999999999,0.34179699999999996,0.7592770000000001,0.905776,-0.43799499999999997,-0.166506,-0.046165,-0.055682,-0.014332,,,,,,,,,,,,,,,,,,,,,,,,,,,,,,,,,,,,,,,,,,,,,,,,,,,,,,,,,,,,,,,,,
11309,1650415327.61582,1650415327.631999,75.0,0.0,3849.743652,3806.6667479999996,4326.666504,4272.307617,4156.922852000001,16174.0,3.0,68.0,,,,0.0,4.0,2.0,0.0,0.0,4.0,16.666666,,,,,,,,,,,,,,,,,,,,,,,,,,,,,,,,,,,,,,,,,,,,,,,,,,,,,,,,,,,,,,,,,,,,,,,,,,,,,,,,,,,,
11310,1650415327.623635,1650415327.6398141,76.0,0.0,3894.8718259999996,3802.5642090000006,4347.692383,4228.205078,4189.230957,450.0,3.0,68.0,,,,0.0,4.0,2.0,0.0,0.0,4.0,16.666666,,,,,,,,38.0,0.0,0.077435,-0.5483399999999999,0.34179699999999996,0.7592770000000001,0.906264,-0.423835,-0.165042,-0.046138,-0.055777999999999994,-0.016268,,,,,,,,,,,,,,,,,,,,,,,,,,,,,,,,,,,,,,,,,,,,,,,,,,,,,,,,,,,,,,,,,
11311,1650415327.631449,1650415327.647528,77.0,0.0,3954.8718259999996,3747.179443,4312.307617,4308.717772999999,4245.128418,450.0,3.0,68.0,,,,0.0,4.0,2.0,0.0,0.0,4.0,16.666666,,,,,,,,,,,,,,,,,,,,,,,,,,,,,,,,,,,,,,,,,,,,,,,,,,,,,,0.0,0.0,1.0,0.0,512.0,1.0,,,,,,,,,,,,,,,,,,,,,,,,,
11312,1650415327.639264,1650415327.655343,78.0,0.0,3903.5898439999996,3669.2307130000004,4284.102539,4365.641113000001,4217.94873,450.0,3.0,68.0,,,,0.0,4.0,2.0,0.0,0.0,4.0,16.666666,,,,,,,,39.0,0.0,0.07979299999999999,-0.5483399999999999,0.34179699999999996,0.759033,0.9028459999999999,-0.437018,-0.172854,-0.046163,-0.055767,-0.01176,,,,,,,,,,,,,,,,,,,,,,,,,,,,,,,,,,,,,,,,,,,,,,,,,,,,,,,,,,,,,,,,,
11313,1650415327.647079,1650415327.663058,79.0,0.0,3844.615479,3633.3332520000004,4289.743652,4295.384765999999,4160.512695,16174.0,3.0,68.0,,,,0.0,4.0,2.0,0.0,0.0,4.0,16.666666,,,,,,,,,,,,,,,,,,,,,,,,,,,,,,,,,,,,,,,,,,,,,,,,,,,,,,,,,,,,,,,,,,,,,,,,,,,,,,,,,,,,
11314,1650415327.654893,1650415327.670872,80.0,0.0,3847.6923829999996,3596.4101560000004,4274.871582,4249.743652,4136.922852000001,450.0,3.0,68.0,,,,0.0,4.0,2.0,0.0,0.0,4.0,16.666666,,,,,,,,40.0,0.0,0.078097,-0.548584,0.34179699999999996,0.759033,0.895033,-0.43799499999999997,-0.161624,-0.046137,-0.055853999999999994,-0.010486,,,,,,,,,,,,,,,,,,,,,,,,,,,,,,,,,,,,,,,,,,,,,,,,,,,,,,,,,,,,,,,,,
11315,1650415327.662708,1650415327.6786869,81.0,0.0,3865.1281740000004,3598.974365,4258.461426,4318.461426,4159.487305,450.0,3.0,68.0,,,,0.0,4.0,2.0,0.0,0.0,4.0,16.666666,,,,,,,,,,,,,,,,,,,,,,,,,,,,,,,,,,,,,,,,,,,,,,,,,,,,,,0.0,0.0,1.0,0.0,512.0,1.0,,,,,,,,,,,,,,,,,,,,,,,,,
11316,1650415327.670522,1650415327.6864018,82.0,0.0,3931.794922,3707.6923829999996,4297.436035,4313.846191,4256.410156,450.0,3.0,68.0,,,,0.0,4.0,2.0,0.0,0.0,4.0,16.666666,,,,,,,,41.0,0.0,0.078097,-0.548584,0.34179699999999996,0.759033,0.897963,-0.43653000000000003,-0.167483,-0.044697,-0.055786,-0.012758,,,,,,,,,,,,,,,,,,,,,,,,,,,,,,,,,,,,,,,,,,,,,,,,,,,,,,,,,,,,,,,,,
11317,1650415327.6783369,1650415327.694217,83.0,0.0,4003.5898439999996,3761.025635,4333.846191,4166.666504,4321.025879,16174.0,3.0,68.0,,,,0.0,4.0,2.0,0.0,0.0,4.0,16.666666,,,,,,,,,,,,,,,,,,,,,,,,,,,,,,,,,,,,,,,,,,,,,,,,,,,,,,,,,,,,,,,,,,,,,,,,,,,,,,,,,,,,
11318,1650415327.686152,1650415327.701931,84.0,0.0,3984.615479,3680.512939,4299.487305,4127.179688,4271.282227000001,450.0,3.0,68.0,,,,0.0,4.0,2.0,0.0,0.0,4.0,16.666666,,,,,,,,42.0,0.0,0.078097,-0.548584,0.34179699999999996,0.759033,0.897963,-0.445808,-0.1626,-0.044866,-0.055774000000000004,-0.008551999999999999,,,,,,,,,,,,,,,,,,,,,,,,,,,,,,,,,,,,,,,,,,,,,,,,,,,,,,,,,,,,,,,,,
11319,1650415327.693966,1650415327.709646,85.0,0.0,3908.718018,3647.6923829999996,4271.794922,4256.410156,4196.410156,450.0,3.0,68.0,,,,0.0,4.0,2.0,0.0,0.0,4.0,16.666666,,,,,,,,,,,,,,,,,,,,,,,,,,,,,,,,,,,,,,,,,,,,,,,,,,,,,,0.0,0.0,1.0,0.0,512.0,1.0,,,,,,,,,,,,,,,,,,,,,,,,,
11320,1650415327.701781,1650415327.7174609,86.0,0.0,3907.179443,3660.512939,4295.384765999999,4269.230957,4222.05127,450.0,3.0,68.0,,,,0.0,4.0,2.0,0.0,0.0,4.0,16.666666,,,,,,,,43.0,0.0,0.076362,-0.548828,0.34179699999999996,0.759033,0.8989389999999999,-0.431159,-0.158694,-0.045018,-0.055959,-0.011066,,,,,,,,,,,,,,,,,,,,,,,,,,,,,,,,,,,,,,,,,,,,,,,,,,,,,,,,,,,,,,,,,
11321,1650415327.7095962,1650415327.725175,87.0,0.0,3958.461426,3612.820557,4301.025879,4195.384765999999,4280.0,16174.0,3.0,68.0,,,,0.0,4.0,2.0,0.0,0.0,4.0,16.666666,,,,,,,,,,,,,,,,,,,,,,,,,,,,,,,,,,,,,,,,,,,,,,,,,,,,,,,,,,,,,,,,,,,,,,,,,,,,,,,,,,,,
11322,1650415327.7174098,1650415327.7328901,88.0,0.0,3948.718018,3585.641113,4295.897461,4290.769043,4230.769043,450.0,3.0,68.0,,,,0.0,4.0,2.0,0.0,0.0,4.0,16.666666,,,,,,,,44.0,0.0,0.078751,-0.548828,0.34179699999999996,0.758789,0.908217,-0.431159,-0.16211199999999998,-0.045106,-0.055978,-0.016112,,,,,,,,,,,,,,,,,,,,,,,,,,,,,,,,,,,,,,,,,,,,,,,,,,,,,,,,,,,,,,,,,
11323,1650415327.725225,1650415327.740705,89.0,0.0,3919.487061,3632.3076170000004,4313.846191,4380.0,4179.487305,450.0,3.0,68.0,,,,0.0,4.0,2.0,0.0,0.0,4.0,16.666666,,,,,,,,,,,,,,,,,,,,1.0,0.0,0.0,,,,,,,,,,,,,,,,,,,,,,,,,,,,,,,,0.0,0.0,32.0,0.072112,1.0,0.0,465.471863,109.82073999999999,85.404457,52.895568999999995,18.312548,807.7325440000001,135.208466,24.752176000000002,23.183743,14.532612,225.05250499999997,41.119282,12.140922,17.41766,23.549061,128.02121,90.749939,101.496803,83.96570600000001,47.158229999999996,11.278423,24.251585000000002,27.080999,37.544792,42.972415999999996
11324,1650415327.7330391,1650415327.74842,90.0,0.0,3929.743652,3653.8461909999996,4304.102539,4313.846191,4231.794922,450.0,3.0,68.0,,,,0.0,4.0,2.0,0.0,0.0,4.0,16.666666,,,,,,,,45.0,0.0,0.078751,-0.548828,0.34179699999999996,0.758789,0.8921030000000001,-0.430671,-0.169436,-0.045137000000000004,-0.055849,-0.017821,,,,,,,,,,,,,,,,,,,,,,,,,,,,,,,,,,,,,,,,,,,,,,,,,,,,,,,,,,,,,,,,,
11325,1650415327.740854,1650415327.756234,91.0,0.0,3913.8461909999996,3598.974365,4271.282227000001,4282.563965,4244.102539,16174.0,3.0,68.0,,,,0.0,4.0,2.0,0.0,0.0,4.0,16.666666,,,,,,,,,,,,,,,,,,,,,,,,,,,,,,,,,,,,,,,,,,,,,,,,,,,,,,,,,,,,,,,,,,,,,,,,,,,,,,,,,,,,
11326,1650415327.748669,1650415327.763949,92.0,0.0,3854.8718259999996,3547.179443,4280.0,4304.102539,4165.641113000001,450.0,3.0,68.0,,,,0.0,4.0,2.0,0.0,0.0,4.0,16.666666,,,,,,,,46.0,0.0,0.078751,-0.548828,0.34179699999999996,0.758789,0.8989389999999999,-0.43994799999999995,-0.15820599999999999,-0.045262000000000004,-0.055733000000000005,-0.019408,,,,,,,,,,,,,,,,,,,,,,,,,,,,,,,,,,,,,,,,,,,,,,,,,,,,,,,,,,,,,,,,,
11327,1650415327.756483,1650415327.771764,93.0,0.0,3889.2307130000004,3596.923096,4311.794922,4254.358886999999,4192.820313,450.0,3.0,68.0,,,,0.0,4.0,2.0,0.0,0.0,4.0,16.666666,,,,,,,,,,,,,,,,,,,,,,,,,,,,,,,,,,,,,,,,,,,,,,,,,,,,,,0.0,0.0,32.0,0.072112,1.0,0.0,,,,,,,,,,,,,,,,,,,,,,,,,
11328,1650415327.764298,1650415327.779578,94.0,0.0,3973.8461909999996,3673.3332520000004,4329.743652,4212.307617,4279.487305,450.0,3.0,68.0,,,,0.0,4.0,2.0,0.0,0.0,4.0,16.666666,,,,,,,,47.0,0.0,0.078751,-0.548828,0.34179699999999996,0.758789,0.908217,-0.431159,-0.16211199999999998,-0.045423000000000005,-0.055775,-0.01737,,,,,,,,,,,,,,,,,,,,,,,,,,,,,,,,,,,,,,,,,,,,,,,,,,,,,,,,,,,,,,,,,
11329,1650415327.772112,1650415327.787293,95.0,0.0,3963.076904,3630.256348,4320.512695,4252.307617,4250.256348,16174.0,3.0,68.0,,,,0.0,4.0,2.0,0.0,0.0,4.0,16.666666,,,,,,,,,,,,,,,,,,,,,,,,,,,,,,,,,,,,,,,,,,,,,,,,,,,,,,,,,,,,,,,,,,,,,,,,,,,,,,,,,,,,
11330,1650415327.779927,1650415327.795008,96.0,0.0,3905.1281740000004,3538.461426,4286.153809,4284.102539,4176.410156,450.0,3.0,68.0,,,,0.0,4.0,2.0,0.0,0.0,4.0,16.666666,,,,,,,,48.0,0.0,0.078751,-0.548828,0.34179699999999996,0.758789,0.8989389999999999,-0.43994799999999995,-0.15820599999999999,-0.04552,-0.055666,-0.019002,,,,,,,,,,,,,,,,,,,,,,,,,,,,,,,,,,,,,,,,,,,,,,,,,,,,,,,,,,,,,,,,,
11331,1650415327.787742,1650415327.802822,97.0,0.0,3922.0512700000004,3510.7692869999996,4285.641113000001,4289.743652,4183.589844,450.0,3.0,68.0,,,,0.0,4.0,2.0,0.0,0.0,4.0,16.666666,,,,,,,,,,,,,,,,,,,,,,,,,,,,,,,,,,,,,,,,,,,,,,,,,,,,,,0.0,0.0,32.0,0.072112,1.0,0.0,,,,,,,,,,,,,,,,,,,,,,,,,
11332,1650415327.795556,1650415327.810637,98.0,0.0,4005.1281740000004,3507.179443,4322.563965,4318.461426,4253.333496,450.0,3.0,68.0,,,,0.0,4.0,2.0,0.0,0.0,4.0,16.666666,,,,,,,,49.0,0.0,0.078751,-0.548828,0.34179699999999996,0.758789,0.886732,-0.436042,-0.16211199999999998,-0.045509,-0.055715,-0.020471,,,,,,,,,,,,,,,,,,,,,,,,,,,,,,,,,,,,,,,,,,,,,,,,,,,,,,,,,,,,,,,,,
11333,1650415327.8033712,1650415327.818352,99.0,0.0,4045.641113,3535.897461,4330.256348,4355.384765999999,4290.256348,16174.0,3.0,68.0,,,,0.0,4.0,2.0,0.0,0.0,4.0,16.666666,,,,,,,,,,,,,,,,,,,,,,,,,,,,,,,,,,,,,,,,,,,,,,,,,,,,,,,,,,,,,,,,,,,,,,,,,,,,,,,,,,,,
11334,1650415327.811185,1650415327.826067,100.0,0.0,4026.1538090000004,3602.5642090000006,4288.205078,4364.102539,4261.025879,450.0,3.0,68.0,,,,0.0,4.0,2.0,0.0,0.0,4.0,16.666666,,,,,,,,50.0,0.0,0.07593899999999999,-0.549072,0.342041,0.758789,0.890639,-0.43653000000000003,-0.160647,-0.045694,-0.055759,-0.018278,,,,,,,,,,,,,,,,,,,,,,,,,,,,,,,,,,,,,,,,,,,,,,,,,,,,,,,,,,,,,,,,,
11335,1650415327.819,1650415327.8338811,101.0,0.0,4015.897461,3597.9487299999996,4272.307617,4349.230957,4246.666504,450.0,3.0,68.0,,,,0.0,4.0,2.0,0.0,0.0,4.0,16.666666,,,,,,,,,,,,,,,,,,,,,,,,,,,,,,,,,,,,,,,,,,,,,,,,,,,,,,0.0,0.0,32.0,0.072112,1.0,0.0,,,,,,,,,,,,,,,,,,,,,,,,,
11336,1650415327.8268151,1650415327.8415961,102.0,0.0,4056.923096,3526.6667479999996,4309.230957,4335.384765999999,4283.077147999999,450.0,3.0,68.0,,,,0.0,4.0,2.0,0.0,0.0,4.0,16.666666,,,,,,,,51.0,0.0,0.07593899999999999,-0.549072,0.342041,0.758789,0.894057,-0.43897200000000003,-0.163088,-0.045764,-0.055798,-0.016352000000000002,,,,,,,,,,,,,,,,,,,,,,,,,,,,,,,,,,,,,,,,,,,,,,,,,,,,,,,,,,,,,,,,,
11337,1650415327.8346288,1650415327.849411,103.0,0.0,4103.589844,3470.256348,4313.846191,4334.358886999999,4297.94873,16174.0,3.0,68.0,,,,0.0,4.0,2.0,0.0,0.0,4.0,16.666666,,,,,,,,,,,,,,,,,,,,,,,,,,,,,,,,,,,,,,,,,,,,,,,,,,,,,,,,,,,,,,,,,,,,,,,,,,,,,,,,,,,,
11338,1650415327.842444,1650415327.857125,104.0,0.0,4124.615234000001,3425.1281740000004,4258.974121,4335.897461,4297.436035,450.0,3.0,68.0,,,,0.0,4.0,2.0,0.0,0.0,4.0,16.666666,,,,,,,,52.0,0.0,0.07833999999999999,-0.549072,0.342041,0.758545,0.891127,-0.440925,-0.171389,-0.045777,-0.055785,-0.017988,,,,,,,,,,,,,,,,,,,,,,,,,,,,,,,,,,,,,,,,,,,,,,,,,,,,,,,,,,,,,,,,,
11339,1650415327.850258,1650415327.86494,105.0,0.0,4163.077147999999,3409.743652,4239.487305,4331.282227000001,4316.922852000001,450.0,3.0,68.0,,,,0.0,4.0,2.0,0.0,0.0,4.0,16.666666,,,,,,,,,,,,,,,,,,,,1.0,0.0,0.0,,,,,,,,,,,,,,,,,,,,,,,,,,,,,,,,0.0,0.0,32.0,0.143328,1.0,0.0,175.171661,53.68974300000001,38.219833,23.83704,16.126959,278.3909,64.0271,12.516863,20.500477,17.132784,112.22358700000001,27.420042,7.683441999999999,10.514216000000001,16.93788,121.65949199999999,85.194626,98.72377,76.550476,50.870567,9.352739,22.915422,16.483763,24.7138,29.076459999999997
11340,1650415327.858073,1650415327.8726552,106.0,0.0,4211.794922,3464.615479,4296.410156,4345.128418,4327.692383,450.0,3.0,68.0,,,,0.0,4.0,2.0,0.0,0.0,4.0,16.666666,,,,,,,,53.0,0.0,0.07833999999999999,-0.549072,0.342041,0.758545,0.8921030000000001,-0.448737,-0.161135,-0.045741000000000004,-0.055724,-0.019461000000000003,,,,,,,,,,,,,,,,,,,,,,,,,,,,,,,,,,,,,,,,,,,,,,,,,,,,,,,,,,,,,,,,,
11341,1650415327.865888,1650415327.8804688,107.0,0.0,4213.846191,3502.0512700000004,4327.692383,4358.461426,4328.205078,16174.0,3.0,68.0,,,,0.0,4.0,2.0,0.0,0.0,4.0,16.666666,,,,,,,,,,,,,,,,,,,,,,,,,,,,,,,,,,,,,,,,,,,,,,,,,,,,,,,,,,,,,,,,,,,,,,,,,,,,,,,,,,,,
11342,1650415327.873702,1650415327.888284,108.0,0.0,4181.538574,3493.8461909999996,4299.487305,4319.487305,4322.563965,450.0,3.0,68.0,,,,0.0,4.0,2.0,0.0,0.0,4.0,16.666666,,,,,,,,54.0,0.0,0.07833999999999999,-0.549072,0.342041,0.758545,0.8930799999999999,-0.427741,-0.169436,-0.045854,-0.055718,-0.01732,,,,,,,,,,,,,,,,,,,,,,,,,,,,,,,,,,,,,,,,,,,,,,,,,,,,,,,,,,,,,,,,,
11343,1650415327.881517,1650415327.895999,109.0,0.0,4177.94873,3553.3332520000004,4290.769043,4274.871582,4307.179688,450.0,3.0,68.0,,,,0.0,4.0,2.0,0.0,0.0,4.0,16.666666,,,,,,,,,,,,,,,,,,,,,,,,,,,,,,,,,,,,,,,,,,,,,,,,,,,,,,0.0,0.0,32.0,0.143328,1.0,0.0,,,,,,,,,,,,,,,,,,,,,,,,,
11344,1650415327.889332,1650415327.9037142,110.0,0.0,4190.769043,3604.102539,4312.307617,4297.436035,4313.333496,450.0,3.0,68.0,,,,0.0,4.0,2.0,0.0,0.0,4.0,16.666666,,,,,,,,55.0,0.0,0.07833999999999999,-0.549072,0.342041,0.758545,0.8930799999999999,-0.44824899999999995,-0.166506,-0.045906999999999996,-0.055664,-0.012609,,,,,,,,,,,,,,,,,,,,,,,,,,,,,,,,,,,,,,,,,,,,,,,,,,,,,,,,,,,,,,,,,
11345,1650415327.897146,1650415327.9115279,111.0,0.0,4156.922852000001,3548.718018,4315.384765999999,4339.487305,4315.384765999999,16174.0,3.0,68.0,,,,0.0,4.0,2.0,0.0,0.0,4.0,16.666666,,,,,,,,,,,,,,,,,,,,,,,,,,,,,,,,,,,,,,,,,,,,,,,,,,,,,,,,,,,,,,,,,,,,,,,,,,,,,,,,,,,,
11346,1650415327.9049609,1650415327.9192429,112.0,0.0,4147.692383,3496.923096,4284.615234000001,4347.179688,4315.897461,450.0,3.0,68.0,,,,0.0,4.0,2.0,0.0,0.0,4.0,16.666666,,,,,,,,56.0,0.0,0.07833999999999999,-0.549072,0.342041,0.758545,0.897963,-0.425788,-0.166506,-0.045955,-0.055713,-0.014669,,,,,,,,,,,,,,,,,,,,,,,,,,,,,,,,,,,,,,,,,,,,,,,,,,,,,,,,,,,,,,,,,
11347,1650415327.912775,1650415327.927058,113.0,0.0,4177.436035,3480.0,4270.769043,4342.563965,4321.538574,450.0,3.0,68.0,,,,0.0,4.0,2.0,0.0,0.0,4.0,16.666666,,,,,,,,,,,,,,,,,,,,,,,,,,,,,,,,,,,,,,,,,,,,,,,,,,,,,,0.0,0.0,32.0,0.143328,1.0,0.0,,,,,,,,,,,,,,,,,,,,,,,,,
11348,1650415327.92059,1650415327.934772,114.0,0.0,4121.538574,3400.0,4284.615234000001,4324.102539,4258.974121,450.0,3.0,68.0,,,,0.0,4.0,2.0,0.0,0.0,4.0,16.666666,,,,,,,,57.0,0.0,0.077267,-0.549072,0.342285,0.758545,0.901381,-0.43213500000000005,-0.165042,-0.045999,-0.05575700000000001,-0.010272,,,,,,,,,,,,,,,,,,,,,,,,,,,,,,,,,,,,,,,,,,,,,,,,,,,,,,,,,,,,,,,,,
11349,1650415327.928405,1650415327.942587,115.0,0.0,4038.461426,3330.256348,4293.333496,4303.077147999999,4197.436035,16174.0,3.0,68.0,,,,0.0,4.0,2.0,0.0,0.0,4.0,16.666666,,,,,,,,,,,,,,,,,,,,,,,,,,,,,,,,,,,,,,,,,,,,,,,,,,,,,,,,,,,,,,,,,,,,,,,,,,,,,,,,,,,,
11350,1650415327.936219,1650415327.950302,116.0,0.0,4038.461426,3348.205078,4303.589844,4321.025879,4206.666504,450.0,3.0,68.0,,,,0.0,4.0,2.0,0.0,0.0,4.0,16.666666,,,,,,,,58.0,0.0,0.077267,-0.549072,0.342285,0.758545,0.8886850000000001,-0.44776099999999996,-0.167483,-0.045939999999999995,-0.055748,-0.012516,,,,,,,,,,,,,,,,,,,,,,,,,,,,,,,,,,,,,,,,,,,,,,,,,,,,,,,,,,,,,,,,,
11351,1650415327.944034,1650415327.958116,117.0,0.0,4068.718018,3309.743652,4310.769043,4342.563965,4226.666504,450.0,3.0,68.0,,,,0.0,4.0,2.0,0.0,0.0,4.0,16.666666,,,,,,,,,,,,,,,,,,,,,,,,,,,,,,,,,,,,,,,,,,,,,,,,,,,,,,10.0,0.0,32.0,0.143328,1.0,0.0,,,,,,,,,,,,,,,,,,,,,,,,,
11352,1650415327.951849,1650415327.965831,118.0,0.0,4067.179443,3223.589844,4299.487305,4334.871582,4239.487305,450.0,3.0,68.0,,,,0.0,4.0,2.0,0.0,0.0,4.0,16.666666,,,,,,,,59.0,0.0,0.07898200000000001,-0.548828,0.342285,0.758545,0.904799,-0.43408900000000006,-0.172854,-0.045985000000000005,-0.055691,-0.008384,,,,,,,,,,,,,,,,,,,,,,,,,,,,,,,,,,,,,,,,,,,,,,,,,,,,,,,,,,,,,,,,,
11353,1650415327.9596632,1650415327.9736462,119.0,0.0,4046.6667479999996,3232.3076170000004,4291.794922,4332.820313,4252.307617,16174.0,3.0,68.0,,,,0.0,4.0,2.0,0.0,0.0,4.0,16.666666,,,,,,,,,,,,,,,,,,,,,,,,,,,,,,,,,,,,,,,,,,,,,,,,,,,,,,,,,,,,,,,,,,,,,,,,,,,,,,,,,,,,
11354,1650415327.967478,1650415327.98136,120.0,0.0,4035.897461,3261.025635,4299.487305,4338.974121,4229.230957,450.0,3.0,68.0,,,,0.0,4.0,2.0,0.0,0.0,4.0,16.666666,,,,,,,,60.0,0.0,0.07833999999999999,-0.549072,0.342041,0.758545,0.8930799999999999,-0.43213500000000005,-0.169924,-0.046025,-0.05559,-0.010817,,,,,,,,,,,,,,,,,,,,,,,,,,,,,,,,,,,,,,,,,,,,,,,,,,,,,,,,,,,,,,,,,
11355,1650415327.975292,1650415327.989175,121.0,0.0,4043.076904,3231.281982,4293.333496,4335.384765999999,4188.205078,450.0,3.0,68.0,,,,0.0,4.0,2.0,0.0,0.0,4.0,16.666666,,,,,,,,,,,,,,,,,,,,1.0,0.0,0.0,,,,,,,,,,,,,,,,,,,,,,,,,,,,,,,,10.0,0.0,1.0,0.0,512.0,1.0,42.877075,25.287842,19.66827,13.195166,14.332260999999999,217.82394399999998,53.66265500000001,11.2905,18.020201,18.543839000000002,52.027649,19.244875,5.2195279999999995,6.30218,11.479965,117.55401599999999,80.38580300000001,91.228951,72.227592,55.613014,8.940203,20.327723000000002,11.7802,16.735104,20.506577
11356,1650415327.983107,1650415327.99689,122.0,0.0,4051.281982,3245.128174,4297.436035,4333.846191,4190.769043,450.0,3.0,68.0,,,,0.0,4.0,2.0,0.0,0.0,4.0,16.666666,,,,,,,,61.0,0.0,0.077684,-0.548828,0.342041,0.758789,0.9004040000000001,-0.43946,-0.165042,-0.045915,-0.055598,-0.006756999999999999,,,,,,,,,,,,,,,,,,,,,,,,,,,,,,,,,,,,,,,,,,,,,,,,,,,,,,,,,,,,,,,,,
11357,1650415327.990922,1650415328.004605,123.0,0.0,4033.3332520000004,3298.4614260000003,4318.974121,4334.871582,4205.128418,16174.0,3.0,68.0,,,,0.0,4.0,2.0,0.0,0.0,4.0,16.666666,,,,,,,,,,,,,,,,,,,,,,,,,,,,,,,,,,,,,,,,,,,,,,,,,,,,,,,,,,,,,,,,,,,,,,,,,,,,,,,,,,,,
11358,1650415327.998736,1650415328.012419,124.0,0.0,4007.6923829999996,3233.333252,4321.025879,4334.871582,4192.820313,450.0,3.0,68.0,,,,0.0,4.0,2.0,0.0,0.0,4.0,16.666666,,,,,,,,62.0,0.0,0.07593899999999999,-0.549072,0.342041,0.758789,0.8921030000000001,-0.45069,-0.15967,-0.045962,-0.055652999999999994,-0.009401000000000001,,,,,,,,,,,,,,,,,,,,,,,,,,,,,,,,,,,,,,,,,,,,,,,,,,,,,,,,,,,,,,,,,
11359,1650415328.006551,1650415328.020134,125.0,0.0,3988.718018,3120.512939,4327.179688,4334.871582,4164.102539,450.0,3.0,68.0,,,,0.0,4.0,2.0,0.0,0.0,4.0,16.666666,,,,,,,,,,,,,,,,,,,,,,,,,,,,,,,,,,,,,,,,,,,,,,,,,,,,,,10.0,0.0,1.0,0.0,512.0,1.0,,,,,,,,,,,,,,,,,,,,,,,,,
11360,1650415328.014365,1650415328.027949,126.0,0.0,3978.974365,3140.0,4325.641113000001,4334.358886999999,4166.153809,450.0,3.0,68.0,,,,0.0,4.0,2.0,0.0,0.0,4.0,16.666666,,,,,,,,63.0,0.0,0.07593899999999999,-0.549072,0.342041,0.758789,0.8994280000000001,-0.443366,-0.170901,-0.045956,-0.055702999999999996,-0.008265999999999999,,,,,,,,,,,,,,,,,,,,,,,,,,,,,,,,,,,,,,,,,,,,,,,,,,,,,,,,,,,,,,,,,
11361,1650415328.02218,1650415328.0356631,127.0,0.0,3981.538574,3215.384521,4295.384765999999,4334.358886999999,4185.128418,237.0,3.0,68.0,,,,0.0,4.0,2.0,0.0,0.0,4.0,16.666666,,,,,,,,,,,,,,,,,,,,,,,,,,,,,,,,,,,,,,,,,,,,,,,,,,,,,,,,,,,,,,,,,,,,,,,,,,,,,,,,,,,,
11362,1650415328.029995,1650415328.043478,0.0,0.0,3969.743652,3194.3588870000003,4291.282227000001,4335.897461,4160.512695,450.0,3.0,68.0,,,,0.0,4.0,2.0,0.0,0.0,4.0,16.666666,,,,,,,,0.0,0.0,0.07703099999999999,-0.549072,0.34179699999999996,0.758789,0.8989389999999999,-0.437018,-0.161135,-0.045999,-0.0557,-0.010759999999999999,,,,,,,,,,,,,,,,,,,,,,,,,,,,,,,,,,,,,,,,,,,,,,,,,,,,,,,,,,,,,,,,,
11363,1650415328.037809,1650415328.051193,1.0,0.0,3953.3332520000004,3142.05127,4304.102539,4331.282227000001,4141.025879,450.0,3.0,68.0,,,,0.0,4.0,2.0,0.0,0.0,4.0,16.666666,,,,,,,,,,,,,,,,,,,,,,,,,,,,,,,,,,,,,,,,,,,,,,,,,,,,,,10.0,0.0,1.0,0.0,512.0,1.0,,,,,,,,,,,,,,,,,,,,,,,,,
11364,1650415328.045624,1650415328.059007,2.0,0.0,3953.3332520000004,3156.410156,4270.256348,4325.641113000001,4161.538574,16220.0,3.0,68.0,,,,0.0,4.0,2.0,0.0,0.0,4.0,16.666666,,,,,,,,1.0,0.0,0.07703099999999999,-0.549072,0.34179699999999996,0.758789,0.898451,-0.437018,-0.165042,-0.045939999999999995,-0.055598,-0.009488,,,,,,,,,,,,,,,,,,,,,,,,,,,,,,,,,,,,,,,,,,,,,,,,,,,,,,,,,,,,,,,,,
11365,1650415328.0534391,1650415328.0667222,3.0,0.0,3965.641113,3183.076904,4264.615234000001,4329.230957,4173.333496,450.0,3.0,68.0,,,,0.0,4.0,2.0,0.0,0.0,4.0,16.666666,,,,,,,,,,,,,,,,,,,,,,,,,,,,,,,,,,,,,,,,,,,,,,,,,,,,,,,,,,,,,,,,,,,,,,,,,,,,,,,,,,,,
11366,1650415328.0612528,1650415328.0745368,4.0,0.0,3988.718018,3179.487061,4305.641113000001,4334.358886999999,4185.641113000001,193.0,3.0,68.0,,,,0.0,4.0,2.0,0.0,0.0,4.0,16.666666,,,,,,,,2.0,0.0,0.07703099999999999,-0.549072,0.34179699999999996,0.758789,0.8886850000000001,-0.43946,-0.15674100000000002,-0.045985000000000005,-0.055653999999999995,-0.011859999999999999,,,,,,,,,,,,,,,,,,,,,,,,,,,,,,,,,,,,,,,,,,,,,,,,,,,,,,,,,,,,,,,,,
11367,1650415328.069068,1650415328.082252,5.0,0.0,3993.3332520000004,3127.6923829999996,4281.025879,4333.846191,4212.820313,450.0,3.0,68.0,,,,0.0,4.0,2.0,1.0,0.0,4.0,25.0,,,,,,,,,,,,,,,,,,,,,,,,,,,,,,,,,,,,,,,,,,,,,,,,,,,,,,10.0,0.0,1.0,0.0,512.0,1.0,,,,,,,,,,,,,,,,,,,,,,,,,
11368,1650415328.0768821,1650415328.090066,6.0,0.0,3985.641113,3034.871826,4253.333496,4333.333496,4214.358886999999,94.0,3.0,68.0,,,,0.0,4.0,2.0,1.0,0.0,4.0,25.0,,,,,,,,3.0,0.0,0.078106,-0.549072,0.341553,0.758789,0.897963,-0.44190100000000004,-0.170901,-0.046074000000000004,-0.055605999999999996,-0.016875,,,,,,,,,,,,,,,,,,,,,,,,,,,,,,,,,,,,,,,,,,,,,,,,,,,,,,,,,,,,,,,,,
11369,1650415328.084697,1650415328.097781,7.0,0.0,3981.538574,2990.256348,4294.871582,4334.871582,4190.769043,450.0,3.0,68.0,,,,0.0,4.0,2.0,1.0,0.0,4.0,25.0,,,,,,,,,,,,,,,,,,,,,,,,,,,,,,,,,,,,,,,,,,,,,,,,,,,,,,,,,,,,,,,,,,,,,,,,,,,,,,,,,,,,
11370,1650415328.092512,1650415328.105596,8.0,0.0,3979.487061,3040.512939,4291.282227000001,4334.871582,4192.820313,450.0,3.0,68.0,,,,0.0,4.0,2.0,1.0,0.0,4.0,25.0,,,,,,,,4.0,0.0,0.07703099999999999,-0.549072,0.34179699999999996,0.758789,0.9155409999999999,-0.44385399999999997,-0.163577,-0.046202999999999994,-0.055563,-0.018557,,,,,,,,,,,,,,,,,,,,,,,,,,,,,,,,,,,,,,,,,,,,,,,,,,,,,,,,,,,,,,,,,
11371,1650415328.100326,1650415328.1133099,9.0,0.0,3998.974365,3097.94873,4252.820313,4333.333496,4205.128418,0.0,3.0,68.0,,,,0.0,4.0,2.0,1.0,0.0,4.0,25.0,1.0,0.0,0.0,0.0,0.0,0.0,0.0,,,,,,,,,,,,,1.0,0.0,0.0,,,,,,,,,,,,,,,,,,,,,,,,,,,,,,,,0.0,0.0,1.0,0.0,512.0,1.0,11.540827,14.537533999999999,13.364587,11.318967,12.213063,329.29449500000004,61.125626000000004,13.906088,16.299818,18.502171,25.733926999999998,14.807519000000001,3.8954489999999997,4.0421059999999995,7.506295,106.892128,71.942665,77.287643,65.867401,57.788853,9.961095,16.76449,9.557264,12.672507000000001,15.404407
11372,1650415328.108141,1650415328.121125,10.0,0.0,4056.923096,3079.487061,4279.487305,4334.871582,4226.666504,450.0,3.0,68.0,,,,0.0,4.0,2.0,1.0,0.0,4.0,25.0,,,,,,,,5.0,0.0,0.077692,-0.549316,0.34179699999999996,0.758545,0.9004040000000001,-0.440436,-0.170413,-0.046221,-0.055525,-0.019972999999999998,,,,,,,,,,,,,,,,,,,,,,,,,,,,,,,,,,,,,,,,,,,,,,,,,,,,,,,,,,,,,,,,,
11373,1650415328.115955,1650415328.12884,11.0,0.0,4104.102539,3040.512939,4286.666504,4336.922852000001,4237.436035,16187.0,3.0,68.0,,,,0.0,4.0,2.0,1.0,0.0,4.0,25.0,,,,,,,,,,,,,,,,,,,,,,,,,,,,,,,,,,,,,,,,,,,,,,,,,,,,,,,,,,,,,,,,,,,,,,,,,,,,,,,,,,,,
11374,1650415328.12377,1650415328.1365552,12.0,0.0,4127.692383,3072.820557,4259.487305,4332.820313,4233.333496,450.0,3.0,68.0,,,,0.0,4.0,2.0,1.0,0.0,4.0,25.0,,,,,,,,6.0,0.0,0.077692,-0.549316,0.34179699999999996,0.758545,0.891127,-0.425299,-0.170901,-0.046238,-0.055539,-0.024177,,,,,,,,,,,,,,,,,,,,,,,,,,,,,,,,,,,,,,,,,,,,,,,,,,,,,,,,,,,,,,,,,
11375,1650415328.131585,1650415328.144369,13.0,0.0,4174.871582,3112.3076170000004,4275.384765999999,4330.256348,4261.025879,450.0,3.0,68.0,,,,0.0,4.0,2.0,1.0,0.0,4.0,25.0,,,,,,,,,,,,,,,,,,,,,,,,,,,,,,,,,,,,,,,,,,,,,,,,,,,,,,0.0,0.0,1.0,0.0,512.0,1.0,,,,,,,,,,,,,,,,,,,,,,,,,
11376,1650415328.139399,1650415328.152184,14.0,0.0,4214.358886999999,3042.05127,4284.102539,4334.358886999999,4286.666504,450.0,3.0,68.0,,,,0.0,4.0,2.0,1.0,0.0,4.0,25.0,,,,,,,,7.0,0.0,0.077692,-0.549316,0.34179699999999996,0.758545,0.8989389999999999,-0.437018,-0.15674100000000002,-0.046204,-0.055453999999999996,-0.025128,,,,,,,,,,,,,,,,,,,,,,,,,,,,,,,,,,,,,,,,,,,,,,,,,,,,,,,,,,,,,,,,,
11377,1650415328.1472142,1650415328.159998,15.0,0.0,4225.128418,2964.102539,4273.846191,4336.922852000001,4284.102539,16187.0,3.0,68.0,,,,0.0,4.0,2.0,1.0,0.0,4.0,25.0,,,,,,,,,,,,,,,,,,,,,,,,,,,,,,,,,,,,,,,,,,,,,,,,,,,,,,,,,,,,,,,,,,,,,,,,,,,,,,,,,,,,
11378,1650415328.1550279,1650415328.1677132,16.0,0.0,4212.307617,3011.281982,4293.846191,4334.358886999999,4288.205078,0.0,3.0,68.0,,,,0.0,4.0,2.0,1.0,0.0,4.0,25.0,,,,,,,,8.0,0.0,0.077692,-0.549316,0.34179699999999996,0.758545,0.897475,-0.42920600000000003,-0.161135,-0.046271,-0.055475,-0.025985,,,,,,,,,,,,,,,,,,,,,,,,,,,,,,,,,,,,,,,,,,,,,,,,,,,,,,,,,,,,,,,,,
11379,1650415328.162843,1650415328.1755278,17.0,0.0,4167.692383,3061.5385739999997,4304.102539,4334.358886999999,4287.179688,0.0,3.0,68.0,,,,0.0,4.0,2.0,1.0,0.0,4.0,25.0,,,,,,,,,,,,,,,,,,,,,,,,,,,,,,,,,,,,,,,,,,,,,,,,,,,,,,0.0,0.0,1.0,0.0,512.0,1.0,,,,,,,,,,,,,,,,,,,,,,,,,
11380,1650415328.170658,1650415328.183243,18.0,0.0,4145.128418,3075.384521,4292.307617,4336.922852000001,4267.179688,0.0,3.0,68.0,,,,0.0,4.0,2.0,1.0,0.0,4.0,25.0,,,,,,,,9.0,0.0,0.077692,-0.549316,0.34179699999999996,0.758545,0.9126120000000001,-0.431647,-0.161135,-0.046283,-0.055542999999999995,-0.026657999999999998,,,,,,,,,,,,,,,,,,,,,,,,,,,,,,,,,,,,,,,,,,,,,,,,,,,,,,,,,,,,,,,,,
11381,1650415328.178472,1650415328.191057,19.0,0.0,4190.256348,3133.333252,4324.102539,4332.820313,4286.153809,0.0,3.0,68.0,,,,0.0,4.0,2.0,1.0,0.0,4.0,25.0,,,,,,,,,,,,,,,,,,,,,,,,,,,,,,,,,,,,,,,,,,,,,,,,,,,,,,,,,,,,,,,,,,,,,,,,,,,,,,,,,,,,
11382,1650415328.186287,1650415328.198772,20.0,0.0,4214.871582,3139.487061,4352.307617,4329.743652,4311.282227000001,0.0,3.0,68.0,,,,0.0,4.0,2.0,1.0,0.0,4.0,25.0,,,,,,,,10.0,0.0,0.077692,-0.549316,0.34179699999999996,0.758545,0.894057,-0.42822899999999997,-0.166018,-0.046439999999999995,-0.055652,-0.023797,,,,,,,,,,,,,,,,,,,,,,,,,,,,,,,,,,,,,,,,,,,,,,,,,,,,,,,,,,,,,,,,,
11383,1650415328.194101,1650415328.2065868,21.0,0.0,4143.589844,3034.871826,4325.641113000001,4330.256348,4249.743652,0.0,3.0,68.0,,,,0.0,4.0,2.0,1.0,0.0,4.0,25.0,,,,,,,,,,,,,,,,,,,,,,,,,,,,,,,,,,,,,,,,,,,,,,,,,,,,,,0.0,0.0,1.0,0.0,512.0,1.0,,,,,,,,,,,,,,,,,,,,,,,,,
11384,1650415328.201916,1650415328.2143009,22.0,0.0,4093.8461909999996,2982.05127,4316.922852000001,4336.410156,4216.922852000001,0.0,3.0,68.0,,,,0.0,4.0,2.0,1.0,0.0,4.0,25.0,,,,,,,,11.0,0.0,0.077692,-0.549316,0.34179699999999996,0.758545,0.897475,-0.42920600000000003,-0.161135,-0.046532,-0.05550700000000001,-0.021269999999999997,,,,,,,,,,,,,,,,,,,,,,,,,,,,,,,,,,,,,,,,,,,,,,,,,,,,,,,,,,,,,,,,,
11385,1650415328.209731,1650415328.222116,23.0,0.0,4100.512695,3003.589844,4325.641113000001,4341.538574,4260.512695,0.0,3.0,68.0,,,,0.0,4.0,2.0,1.0,0.0,4.0,25.0,,,,,,,,,,,,,,,,,,,,,,,,,,,,,,,,,,,,,,,,,,,,,,,,,,,,,,,,,,,,,,,,,,,,,,,,,,,,,,,,,,,,
11386,1650415328.217545,1650415328.229831,24.0,0.0,4076.4101560000004,2969.230713,4310.256348,4332.307617,4242.05127,0.0,3.0,68.0,,,,0.0,4.0,2.0,1.0,0.0,4.0,25.0,,,,,,,,12.0,0.0,0.077692,-0.549316,0.34179699999999996,0.758545,0.894057,-0.42822899999999997,-0.166018,-0.046664,-0.055621000000000004,-0.018948,,,,,,,,,,,,,,,,,,,,,,,,,,,,,,,,,,,,,,,,,,,,,,,,,,,,,,,,,,,,,,,,,
11387,1650415328.22536,1650415328.237645,25.0,0.0,4032.820557,2914.3588870000003,4309.230957,4316.410156,4163.589844,0.0,3.0,68.0,,,,0.0,4.0,2.0,1.0,0.0,4.0,25.0,,,,,,,,,,,,,,,,,,,,1.0,0.0,0.0,,,,,,,,,,,,,,,,,,,,,,,,,,,,,,,,10.0,0.0,1.0,0.0,512.0,1.0,14.866519,10.870835000000001,9.378213,11.370502,9.773161,404.639923,66.25544000000001,17.077562,16.118507,17.169228,15.215615,12.157248,3.028702,2.985244,4.9886040000000005,87.833931,59.322365000000005,59.253315,55.471493,55.108326,12.505805,12.946660000000001,7.627114999999999,10.923502000000001,12.147592
11388,1650415328.233175,1650415328.24536,26.0,0.0,4061.538574,2929.230713,4337.94873,4320.0,4199.487305,0.0,3.0,68.0,,,,0.0,4.0,2.0,1.0,0.0,4.0,25.0,,,,,,,,13.0,0.0,0.077692,-0.549316,0.34179699999999996,0.758545,0.897475,-0.44434300000000004,-0.172854,-0.046637,-0.055576,-0.020325,,,,,,,,,,,,,,,,,,,,,,,,,,,,,,,,,,,,,,,,,,,,,,,,,,,,,,,,,,,,,,,,,
11389,1650415328.240989,1650415328.253175,27.0,0.0,4106.153809,2987.179443,4330.256348,4336.922852000001,4280.0,0.0,3.0,68.0,,,,0.0,4.0,2.0,1.0,0.0,4.0,25.0,,,,,,,,,,,,,,,,,,,,,,,,,,,,,,,,,,,,,,,,,,,,,,,,,,,,,,,,,,,,,,,,,,,,,,,,,,,,,,,,,,,,
