,Timestamp,OriginalTimestamp,EEG.Counter,EEG.Interpolated,EEG.AF3,EEG.T7,EEG.Pz,EEG.T8,EEG.AF4,EEG.RawCq,EEG.Battery,EEG.BatteryPercent,MarkerIndex,MarkerType,MarkerValueInt,EEG.MarkerHardware,CQ.AF3,CQ.T7,CQ.Pz,CQ.T8,CQ.AF4,CQ.Overall,EQ.SampleRateQuality,EQ.OVERALL,EQ.AF3,EQ.T7,EQ.Pz,EQ.T8,EQ.AF4,MOT.CounterMems,MOT.InterpolatedMems,MOT.Q0,MOT.Q1,MOT.Q2,MOT.Q3,MOT.AccX,MOT.AccY,MOT.AccZ,MOT.MagX,MOT.MagY,MOT.MagZ,MC.Action,MC.ActionPower,MC.IsActive,PM.Engagement.IsActive,PM.Engagement.Scaled,PM.Engagement.Raw,PM.Engagement.Min,PM.Engagement.Max,PM.Excitement.IsActive,PM.Excitement.Scaled,PM.Excitement.Raw,PM.Excitement.Min,PM.Excitement.Max,PM.LongTermExcitement,PM.Stress.IsActive,PM.Stress.Scaled,PM.Stress.Raw,PM.Stress.Min,PM.Stress.Max,PM.Relaxation.IsActive,PM.Relaxation.Scaled,PM.Relaxation.Raw,PM.Relaxation.Min,PM.Relaxation.Max,PM.Interest.IsActive,PM.Interest.Scaled,PM.Interest.Raw,PM.Interest.Min,PM.Interest.Max,PM.Focus.IsActive,PM.Focus.Scaled,PM.Focus.Raw,PM.Focus.Min,PM.Focus.Max,FE.BlinkWink,FE.HorizontalEyesDirection,FE.UpperFaceAction,FE.UpperFaceActionPower,FE.LowerFaceAction,FE.LowerFaceActionPower,POW.AF3.Theta,POW.AF3.Alpha,POW.AF3.BetaL,POW.AF3.BetaH,POW.AF3.Gamma,POW.T7.Theta,POW.T7.Alpha,POW.T7.BetaL,POW.T7.BetaH,POW.T7.Gamma,POW.Pz.Theta,POW.Pz.Alpha,POW.Pz.BetaL,POW.Pz.BetaH,POW.Pz.Gamma,POW.T8.Theta,POW.T8.Alpha,POW.T8.BetaL,POW.T8.BetaH,POW.T8.Gamma,POW.AF4.Theta,POW.AF4.Alpha,POW.AF4.BetaL,POW.AF4.BetaH,POW.AF4.Gamma
1437,1645584240.126011,1645584240.131708,34.0,0.0,4395.897461,4373.846191,4214.871582,4266.153809,4329.743652,0.0,4.0,91.0,2.0,1.0,6.0,0.0,4.0,2.0,4.0,0.0,4.0,50.0,,,,,,,,17.0,0.0,0.638777,-0.158203,0.631592,0.409912,0.9555809999999999,-0.32813000000000003,-0.154299,-0.035586,-0.031267,-0.023030000000000002,,,,,,,,,,,,,,,,,,,,,,,,,,,,,,,,,,,0.0,0.0,1.0,0.0,512.0,1.0,,,,,,,,,,,,,,,,,,,,,,,,,
1438,1645584240.133826,1645584240.139523,35.0,0.0,4393.333496,4264.615234000001,4232.820313,4267.179688,4320.512695,0.0,4.0,91.0,,,,0.0,4.0,2.0,4.0,0.0,4.0,50.0,,,,,,,,,,,,,,,,,,,,,,,,,,,,,,,,,,,,,,,,,,,,,,,,,,,,,,,,,,,,,,,,,,,,,,,,,,,,,,,,,,,,
1439,1645584240.141641,1645584240.147337,36.0,0.0,4371.794922,4252.307617,4225.641113000001,4267.179688,4298.974121,0.0,4.0,91.0,,,,0.0,4.0,2.0,4.0,0.0,4.0,50.0,,,,,,,,18.0,0.0,0.638777,-0.158203,0.631592,0.409912,0.933608,-0.31787600000000005,-0.15820599999999999,-0.035445,-0.031314,-0.019506,,,,,,,,,,,,,,,,,,,,,,,,,,,,,,,,,,,,,,,,,,,,,,,,,,,,,,,,,,,,,,,,,
1440,1645584240.149455,1645584240.155151,37.0,0.0,4382.563965,4318.461426,4213.846191,4266.153809,4324.102539,0.0,4.0,91.0,,,,0.0,4.0,2.0,4.0,0.0,4.0,50.0,,,,,,,,,,,,,,,,,,,,,,,,,,,,,,,,,,,,,,,,,,,,,,,,,,,,,,,,,,,,,,,,,,,,,,,,,,,,,,,,,,,,
1441,1645584240.15727,1645584240.162966,38.0,0.0,4394.871582,4287.179688,4234.358886999999,4272.820313,4331.794922,0.0,4.0,91.0,,,,0.0,4.0,2.0,4.0,0.0,4.0,50.0,,,,,,,,19.0,0.0,0.638777,-0.158203,0.631592,0.409912,0.932631,-0.318853,-0.142092,-0.035464999999999997,-0.031356999999999996,-0.022633,,,,,,,,,,,,,,,,,,,,,,,,,,,,,,,,,,,0.0,0.0,1.0,0.0,512.0,1.0,,,,,,,,,,,,,,,,,,,,,,,,,
1442,1645584240.165084,1645584240.1707802,39.0,0.0,4375.897461,4235.384765999999,4245.128418,4280.0,4299.487305,0.0,4.0,91.0,,,,0.0,4.0,2.0,4.0,0.0,4.0,50.0,,,,,,,,,,,,,,,,,,,,,,,,,,,,,,,,,,,,,,,,,,,,,,,,,,,,,,,,,,,,,,,,,,,,,,,,,,,,,,,,,,,,
1443,1645584240.172899,1645584240.1785948,40.0,0.0,4385.128418,4267.179688,4225.128418,4277.436035,4313.333496,0.0,4.0,91.0,,,,0.0,4.0,2.0,4.0,0.0,4.0,50.0,,,,,,,,20.0,0.0,0.638777,-0.158203,0.631592,0.409912,0.9399559999999999,-0.325689,-0.157717,-0.035581,-0.031395,-0.025351,,,,,,,,,,,,,,,,,,,,,,,,,,,,,,,,,,,,,,,,,,,,,,,,,,,,,,,,,,,,,,,,,
1444,1645584240.1807132,1645584240.186509,41.0,0.0,4411.794922,4281.025879,4220.0,4270.769043,4340.0,0.0,4.0,91.0,,,,0.0,4.0,2.0,4.0,0.0,4.0,50.0,,,,,,,,,,,,,,,,,,,,,,,,,,,,,,,,,,,,,,,,,,,,,,,,,,,,,,,,,,,,,,,,,,,,,,,,,,,,,,,,,,,,
1445,1645584240.1885278,1645584240.194323,42.0,0.0,4401.025879,4263.077147999999,4241.538574,4271.794922,4318.974121,0.0,4.0,91.0,,,,0.0,4.0,2.0,4.0,0.0,4.0,50.0,,,,,,,,21.0,0.0,0.638837,-0.157959,0.631592,0.409912,0.9399559999999999,-0.330083,-0.158694,-0.035636,-0.031381,-0.021497,,,,,,,,,,,,,,,,,,,,,,,,,,,,,,,,,,,0.0,0.0,1.0,0.0,512.0,1.0,,,,,,,,,,,,,,,,,,,,,,,,,
1446,1645584240.196342,1645584240.2021382,43.0,0.0,4377.94873,4312.820313,4245.641113000001,4272.820313,4318.461426,0.0,4.0,91.0,,,,0.0,4.0,2.0,4.0,0.0,4.0,50.0,,,,,,,,,,,,,,,,,,,,,,,,,,,,,,,,,,,,,,,,,,,,,,,,,,,,,,,,,,,,,,,,,,,,,,,,,,,,,,,,,,,,
1447,1645584240.204157,1645584240.2099519,44.0,0.0,4387.179688,4331.282227000001,4232.307617,4271.794922,4347.179688,0.0,4.0,91.0,,,,0.0,4.0,2.0,4.0,0.0,4.0,50.0,,,,,,,,22.0,0.0,0.638837,-0.157959,0.631592,0.409912,0.941421,-0.332036,-0.14990499999999998,-0.035735,-0.031319,-0.024377,,,,,,,,,,,,,,,,,,,,,,,,,,,,,,,,,,,,,,,,,,,,,,,,,,,,,,,,,,,,,,,,,
1448,1645584240.211971,1645584240.217767,45.0,0.0,4409.230957,4284.615234000001,4227.692383,4275.897461,4342.563965,0.0,4.0,91.0,,,,0.0,4.0,2.0,4.0,0.0,4.0,50.0,,,,,,,,,,,,,,,,,,,,,,,,,,,,,,,,,,,,,,,,,,,,,,,,,,,,,,,,,,,,,,,,,,,,,,,,,,,,,,,,,,,,
1449,1645584240.219786,1645584240.2255812,46.0,0.0,4403.589844,4328.205078,4220.0,4280.512695,4328.717772999999,0.0,4.0,91.0,,,,0.0,4.0,2.0,4.0,0.0,4.0,50.0,,,,,,,,23.0,0.0,0.638596,-0.157959,0.631836,0.409912,0.94435,-0.321782,-0.154299,-0.035774,-0.031361,-0.02692,1.0,0.0,0.0,,,,,,,,,,,,,,,,,,,,,,,,,,,,,,,,0.0,0.0,1.0,0.0,512.0,1.0,3.3637910000000004,2.8660799999999997,1.6739119999999998,1.326241,1.9991189999999999,98.22865300000001,18.458666,14.208110000000001,14.001961999999999,11.730575,0.880949,1.155002,0.8361370000000001,0.752153,1.413186,0.02462,0.019655000000000002,0.008545,0.018775,0.014145,2.8504150000000004,2.0469779999999997,1.5838430000000001,1.9678220000000002,1.491947
1450,1645584240.2276,1645584240.2333949,47.0,0.0,4381.538574,4360.0,4212.820313,4278.974121,4344.615234000001,0.0,4.0,91.0,,,,0.0,4.0,2.0,4.0,0.0,4.0,50.0,,,,,,,,,,,,,,,,,,,,,,,,,,,,,,,,,,,,,,,,,,,,,,,,,,,,,,,,,,,,,,,,,,,,,,,,,,,,,,,,,,,,
1451,1645584240.235415,1645584240.24121,48.0,0.0,4393.333496,4264.615234000001,4224.615234000001,4277.436035,4338.461426,0.0,4.0,91.0,,,,0.0,4.0,2.0,4.0,0.0,4.0,50.0,,,,,,,,24.0,0.0,0.638596,-0.157959,0.631836,0.409912,0.9506979999999999,-0.334966,-0.14990499999999998,-0.035762,-0.031399,-0.023056,,,,,,,,,,,,,,,,,,,,,,,,,,,,,,,,,,,,,,,,,,,,,,,,,,,,,,,,,,,,,,,,,
1452,1645584240.24323,1645584240.249024,49.0,0.0,4409.230957,4230.769043,4229.743652,4279.487305,4294.871582,0.0,4.0,91.0,,,,0.0,4.0,2.0,4.0,0.0,4.0,50.0,,,,,,,,,,,,,,,,,,,,,,,,,,,,,,,,,,,,,,,,,,,,,,,,,,,,,,,,,,,,,,,,,,,,,,,,,,,,,,,,,,,,
1453,1645584240.251044,1645584240.256839,50.0,0.0,4371.282227000001,4295.384765999999,4211.794922,4280.512695,4270.769043,0.0,4.0,91.0,,,,0.0,4.0,2.0,4.0,0.0,4.0,50.0,,,,,,,,25.0,0.0,0.638596,-0.157959,0.631836,0.409912,0.9404440000000001,-0.309575,-0.14990499999999998,-0.035848000000000005,-0.031383999999999995,-0.019530000000000002,,,,,,,,,,,,,,,,,,,,,,,,,,,,,,,,,,,0.0,0.0,1.0,0.0,512.0,1.0,,,,,,,,,,,,,,,,,,,,,,,,,
1454,1645584240.258859,1645584240.2647529,51.0,0.0,4347.692383,4294.358886999999,4208.205078,4278.461426,4292.307617,0.0,4.0,91.0,,,,0.0,4.0,2.0,4.0,0.0,4.0,50.0,,,,,,,,,,,,,,,,,,,,,,,,,,,,,,,,,,,,,,,,,,,,,,,,,,,,,,,,,,,,,,,,,,,,,,,,,,,,,,,,,,,,
1455,1645584240.266673,1645584240.272567,52.0,0.0,4387.692383,4252.820313,4230.769043,4276.922852000001,4323.589844,0.0,4.0,91.0,,,,0.0,4.0,2.0,4.0,0.0,4.0,50.0,,,,,,,,26.0,0.0,0.638439,-0.157959,0.631836,0.410156,0.946792,-0.32910700000000004,-0.15674100000000002,-0.035827,-0.031419,-0.022704,,,,,,,,,,,,,,,,,,,,,,,,,,,,,,,,,,,,,,,,,,,,,,,,,,,,,,,,,,,,,,,,,
1456,1645584240.274488,1645584240.280382,53.0,0.0,4403.077147999999,4223.077147999999,4234.358886999999,4280.0,4320.0,0.0,4.0,91.0,,,,0.0,4.0,2.0,4.0,0.0,4.0,50.0,,,,,,,,,,,,,,,,,,,,,,,,,,,,,,,,,,,,,,,,,,,,,,,,,,,,,,,,,,,,,,,,,,,,,,,,,,,,,,,,,,,,
1457,1645584240.282302,1645584240.288196,54.0,0.0,4378.974121,4217.94873,4221.538574,4281.538574,4307.179688,0.0,4.0,91.0,,,,0.0,4.0,2.0,4.0,0.0,4.0,50.0,,,,,,,,27.0,0.0,0.638439,-0.157959,0.631836,0.410156,0.946792,-0.31299299999999997,-0.160647,-0.035858,-0.031305,-0.019163999999999997,,,,,,,,,,,,,,,,,,,,,,,,,,,,,,,,,,,0.0,0.0,1.0,0.0,512.0,1.0,,,,,,,,,,,,,,,,,,,,,,,,,
1458,1645584240.290117,1645584240.296011,55.0,0.0,4390.256348,4264.615234000001,4232.307617,4276.410156,4324.102539,0.0,4.0,91.0,,,,0.0,4.0,2.0,4.0,0.0,4.0,50.0,,,,,,,,,,,,,,,,,,,,,,,,,,,,,,,,,,,,,,,,,,,,,,,,,,,,,,,,,,,,,,,,,,,,,,,,,,,,,,,,,,,,
1459,1645584240.297931,1645584240.303825,56.0,0.0,4406.153809,4298.461426,4236.410156,4274.871582,4350.769043,0.0,4.0,91.0,,,,0.0,4.0,2.0,4.0,0.0,4.0,50.0,,,,,,,,28.0,0.0,0.638378,-0.158203,0.631836,0.410156,0.9463030000000001,-0.323735,-0.156252,-0.035788,-0.031299,-0.022277,,,,,,,,,,,,,,,,,,,,,,,,,,,,,,,,,,,,,,,,,,,,,,,,,,,,,,,,,,,,,,,,,
1460,1645584240.305746,1645584240.311639,57.0,0.0,4395.384765999999,4278.974121,4210.256348,4278.461426,4358.974121,0.0,4.0,91.0,,,,0.0,4.0,2.0,4.0,0.0,4.0,50.0,,,,,,,,,,,,,,,,,,,,,,,,,,,,,,,,,,,,,,,,,,,,,,,,,,,,,,,,,,,,,,,,,,,,,,,,,,,,,,,,,,,,
1461,1645584240.31356,1645584240.319454,58.0,0.0,4401.538574,4244.615234000001,4208.717772999999,4281.538574,4342.563965,0.0,4.0,91.0,,,,0.0,4.0,2.0,4.0,0.0,4.0,50.0,,,,,,,,29.0,0.0,0.6385350000000001,-0.158203,0.631836,0.409912,0.948257,-0.318853,-0.154299,-0.03592,-0.031343,-0.018828,,,,,,,,,,,,,,,,,,,,,,,,,,,,,,,,,,,0.0,0.0,1.0,0.0,512.0,1.0,,,,,,,,,,,,,,,,,,,,,,,,,
1462,1645584240.321375,1645584240.327268,59.0,0.0,4402.05127,4228.717772999999,4232.820313,4280.0,4318.461426,0.0,4.0,91.0,,,,0.0,4.0,2.0,4.0,0.0,4.0,50.0,,,,,,,,,,,,,,,,,,,,,,,,,,,,,,,,,,,,,,,,,,,,,,,,,,,,,,,,,,,,,,,,,,,,,,,,,,,,,,,,,,,,
1463,1645584240.32919,1645584240.335182,60.0,0.0,4360.512695,4253.333496,4222.563965,4273.846191,4313.333496,0.0,4.0,91.0,,,,0.0,4.0,2.0,4.0,0.0,4.0,50.0,,,,,,,,30.0,0.0,0.638475,-0.158447,0.631836,0.409912,0.9389790000000001,-0.330571,-0.16552999999999998,-0.036039,-0.031334,-0.021925999999999998,,,,,,,,,,,,,,,,,,,,,,,,,,,,,,,,,,,,,,,,,,,,,,,,,,,,,,,,,,,,,,,,,
1464,1645584240.337004,1645584240.342997,61.0,0.0,4337.94873,4315.897461,4200.512695,4273.846191,4318.461426,0.0,4.0,91.0,,,,0.0,4.0,2.0,4.0,0.0,4.0,50.0,,,,,,,,,,,,,,,,,,,,,,,,,,,,,,,,,,,,,,,,,,,,,,,,,,,,,,,,,,,,,,,,,,,,,,,,,,,,,,,,,,,,
1465,1645584240.3448188,1645584240.350811,62.0,0.0,4374.871582,4353.846191,4213.333496,4280.0,4318.974121,0.0,4.0,91.0,,,,0.0,4.0,2.0,4.0,0.0,4.0,50.0,1.0,41.666668,4.0,1.0,4.0,0.0,4.0,31.0,0.0,0.638378,-0.158203,0.631836,0.410156,0.9463030000000001,-0.323735,-0.156252,-0.035852999999999996,-0.03113,-0.018562000000000002,1.0,0.0,0.0,,,,,,,,,,,,,,,,,,,,,,,,,,,,,,,,0.0,0.0,1.0,0.0,512.0,1.0,3.23985,2.993929,1.581601,1.279662,2.051132,96.335358,23.965979,14.556501,13.494631,11.954381,0.853474,1.18461,0.788034,0.79178,1.511421,0.037937,0.029951,0.015643,0.035322000000000006,0.026027999999999996,2.8731430000000002,2.304076,1.4722709999999999,1.9657229999999999,1.486784
1466,1645584240.352633,1645584240.358626,63.0,0.0,4396.922852000001,4311.794922,4222.05127,4279.487305,4319.487305,0.0,4.0,91.0,,,,0.0,4.0,2.0,4.0,0.0,4.0,50.0,,,,,,,,,,,,,,,,,,,,,,,,,,,,,,,,,,,,,,,,,,,,,,,,,,,,,,,,,,,,,,,,,,,,,,,,,,,,,,,,,,,,
1467,1645584240.3604481,1645584240.36644,64.0,0.0,4384.102539,4240.0,4214.871582,4275.384765999999,4326.666504,450.0,4.0,91.0,,,,0.0,4.0,2.0,4.0,0.0,4.0,50.0,,,,,,,,32.0,0.0,0.638475,-0.158447,0.631836,0.409912,0.9389790000000001,-0.330571,-0.16552999999999998,-0.035979000000000004,-0.031142000000000003,-0.021686,,,,,,,,,,,,,,,,,,,,,,,,,,,,,,,,,,,,,,,,,,,,,,,,,,,,,,,,,,,,,,,,,
1468,1645584240.3682618,1645584240.3742552,65.0,0.0,4387.179688,4165.641113000001,4222.563965,4280.0,4318.461426,450.0,4.0,91.0,,,,0.0,4.0,2.0,4.0,0.0,4.0,50.0,,,,,,,,,,,,,,,,,,,,,,,,,,,,,,,,,,,,,,,,,,,,,,,,,,,,,,,,,,,,,,,,,,,,,,,,,,,,,,,,,,,,
1469,1645584240.376077,1645584240.3820689,66.0,0.0,4405.128418,4092.3076170000004,4228.205078,4277.436035,4304.615234000001,16212.0,4.0,91.0,,,,0.0,4.0,2.0,4.0,0.0,4.0,50.0,,,,,,,,33.0,0.0,0.638329,-0.158691,0.63208,0.40966800000000003,0.948257,-0.31006300000000003,-0.147463,-0.035994,-0.031104000000000003,-0.018345,,,,,,,,,,,,,,,,,,,,,,,,,,,,,,,,,,,0.0,0.0,1.0,0.0,512.0,1.0,,,,,,,,,,,,,,,,,,,,,,,,,
1470,1645584240.383891,1645584240.389883,67.0,0.0,4396.410156,4080.0,4211.282227000001,4267.692383,4328.717772999999,450.0,4.0,91.0,,,,0.0,4.0,2.0,4.0,0.0,4.0,50.0,,,,,,,,,,,,,,,,,,,,,,,,,,,,,,,,,,,,,,,,,,,,,,,,,,,,,,,,,,,,,,,,,,,,,,,,,,,,,,,,,,,,
1471,1645584240.391706,1645584240.397798,68.0,0.0,4388.205078,4132.307617,4208.717772999999,4272.820313,4348.717772999999,242.0,4.0,91.0,,,,0.0,4.0,2.0,4.0,0.0,4.0,50.0,,,,,,,,34.0,0.0,0.638329,-0.158691,0.63208,0.40966800000000003,0.95314,-0.31104,-0.150393,-0.036008,-0.03107,-0.021491,,,,,,,,,,,,,,,,,,,,,,,,,,,,,,,,,,,,,,,,,,,,,,,,,,,,,,,,,,,,,,,,,
1472,1645584240.399521,1645584240.405612,69.0,0.0,4414.871582,4127.692383,4223.077147999999,4281.538574,4333.846191,450.0,4.0,91.0,,,,0.0,4.0,2.0,4.0,0.0,4.0,50.0,,,,,,,,,,,,,,,,,,,,,,,,,,,,,,,,,,,,,,,,,,,,,,,,,,,,,,,,,,,,,,,,,,,,,,,,,,,,,,,,,,,,
1473,1645584240.407335,1645584240.413426,70.0,0.0,4419.487305,4115.897461,4215.384765999999,4280.0,4336.922852000001,16212.0,4.0,91.0,,,,0.0,4.0,2.0,4.0,0.0,4.0,50.0,,,,,,,,35.0,0.0,0.638183,-0.158936,0.632324,0.40942399999999995,0.948257,-0.311528,-0.144533,-0.036021,-0.030942,-0.018073,,,,,,,,,,,,,,,,,,,,,,,,,,,,,,,,,,,0.0,0.0,1.0,0.0,512.0,1.0,,,,,,,,,,,,,,,,,,,,,,,,,
1474,1645584240.41515,1645584240.421241,71.0,0.0,4395.384765999999,4200.0,4199.487305,4276.922852000001,4356.410156,450.0,4.0,91.0,,,,0.0,4.0,2.0,4.0,0.0,4.0,50.0,,,,,,,,,,,,,,,,,,,,,,,,,,,,,,,,,,,,,,,,,,,,,,,,,,,,,,,,,,,,,,,,,,,,,,,,,,,,,,,,,,,,
1475,1645584240.422964,1645584240.429055,72.0,0.0,4384.102539,4245.128418,4202.05127,4279.487305,4330.769043,450.0,4.0,91.0,,,,0.0,4.0,2.0,4.0,0.0,4.0,50.0,,,,,,,,36.0,0.0,0.6381220000000001,-0.15918,0.632324,0.40942399999999995,0.9463030000000001,-0.31250500000000003,-0.145022,-0.035983,-0.030924,-0.021197,,,,,,,,,,,,,,,,,,,,,,,,,,,,,,,,,,,,,,,,,,,,,,,,,,,,,,,,,,,,,,,,,
1476,1645584240.430779,1645584240.4368699,73.0,0.0,4403.589844,4233.333496,4211.282227000001,4281.538574,4298.974121,0.0,4.0,91.0,,,,0.0,4.0,2.0,4.0,0.0,4.0,50.0,,,,,,,,,,,,,,,,,,,,,,,,,,,,,,,,,,,,,,,,,,,,,,,,,,,,,,,,,,,,,,,,,,,,,,,,,,,,,,,,,,,,
1477,1645584240.438593,1645584240.444684,74.0,0.0,4421.025879,4261.538574,4209.743652,4276.922852000001,4310.769043,450.0,4.0,91.0,,,,0.0,4.0,2.0,4.0,0.0,4.0,50.0,,,,,,,,37.0,0.0,0.6381220000000001,-0.15918,0.632324,0.40942399999999995,0.9463030000000001,-0.323735,-0.136721,-0.035998,-0.031005,-0.024156,,,,,,,,,,,,,,,,,,,,,,,,,,,,,,,,,,,0.0,0.0,1.0,0.0,512.0,1.0,,,,,,,,,,,,,,,,,,,,,,,,,
1478,1645584240.446408,1645584240.452498,75.0,0.0,4406.153809,4257.94873,4211.794922,4269.743652,4311.282227000001,16231.0,4.0,91.0,,,,0.0,4.0,2.0,4.0,0.0,4.0,50.0,,,,,,,,,,,,,,,,,,,,,,,,,,,,,,,,,,,,,,,,,,,,,,,,,,,,,,,,,,,,,,,,,,,,,,,,,,,,,,,,,,,,
1479,1645584240.454222,1645584240.460313,76.0,0.0,4386.153809,4216.922852000001,4211.794922,4268.205078,4309.743652,450.0,4.0,91.0,,,,0.0,4.0,2.0,4.0,0.0,4.0,50.0,,,,,,,,38.0,0.0,0.6381220000000001,-0.15918,0.632324,0.40942399999999995,0.937026,-0.314946,-0.151858,-0.03606,-0.030931999999999998,-0.026769,,,,,,,,,,,,,,,,,,,,,,,,,,,,,,,,,,,,,,,,,,,,,,,,,,,,,,,,,,,,,,,,,
1480,1645584240.4620368,1645584240.468127,77.0,0.0,4385.641113000001,4245.641113000001,4198.974121,4276.410156,4317.436035,450.0,4.0,91.0,,,,0.0,4.0,2.0,4.0,0.0,4.0,50.0,,,,,,,,,,,,,,,,,,,,,,,,,,,,,,,,,,,,,,,,,,,,,,,,,,,,,,,,,,,,,,,,,,,,,,,,,,,,,,,,,,,,
1481,1645584240.469851,1645584240.476042,78.0,0.0,4377.436035,4289.230957,4179.487305,4280.512695,4296.410156,450.0,4.0,91.0,,,,0.0,4.0,2.0,4.0,0.0,4.0,50.0,,,,,,,,39.0,0.0,0.6381220000000001,-0.15918,0.632324,0.40942399999999995,0.937514,-0.326177,-0.153811,-0.035920999999999995,-0.031013,-0.022774000000000003,1.0,0.0,0.0,,,,,,,,,,,,,,,,,,,,,,,,,,,,,,,,0.0,0.0,1.0,0.0,512.0,1.0,3.077169,3.067154,1.378655,1.347676,2.126288,102.983253,31.745338,15.586985,14.067901999999998,12.53637,0.876717,1.114744,0.682138,0.810567,1.511312,0.05530499999999999,0.044579,0.027913999999999998,0.058852,0.041565,2.915676,2.534488,1.457825,1.936659,1.527044
1482,1645584240.477666,1645584240.483856,79.0,0.0,4358.974121,4292.820313,4177.94873,4273.333496,4283.589844,16231.0,4.0,91.0,,,,0.0,4.0,2.0,4.0,0.0,4.0,50.0,,,,,,,,,,,,,,,,,,,,,,,,,,,,,,,,,,,,,,,,,,,,,,,,,,,,,,,,,,,,,,,,,,,,,,,,,,,,,,,,,,,,
1483,1645584240.48548,1645584240.49167,80.0,0.0,4377.94873,4316.410156,4204.102539,4272.820313,4307.179688,450.0,4.0,91.0,,,,0.0,4.0,2.0,4.0,0.0,4.0,50.0,,,,,,,,40.0,0.0,0.638183,-0.158936,0.632324,0.40942399999999995,0.936049,-0.33105999999999997,-0.13916199999999998,-0.035845,-0.031037000000000002,-0.025526,,,,,,,,,,,,,,,,,,,,,,,,,,,,,,,,,,,,,,,,,,,,,,,,,,,,,,,,,,,,,,,,,
1484,1645584240.493295,1645584240.499485,81.0,0.0,4393.333496,4352.307617,4210.256348,4282.563965,4311.794922,450.0,4.0,91.0,,,,0.0,4.0,2.0,4.0,0.0,4.0,50.0,,,,,,,,,,,,,,,,,,,,,,,,,,,,,,,,,,,,,,,,,,,,,,,,,,,,,,,,,,,,,,,,,,,,,,,,,,,,,,,,,,,,
1485,1645584240.501109,1645584240.507299,82.0,0.0,4381.538574,4358.974121,4187.179688,4277.94873,4298.974121,450.0,4.0,91.0,,,,0.0,4.0,2.0,4.0,0.0,4.0,50.0,,,,,,,,41.0,0.0,0.638183,-0.158936,0.632324,0.40942399999999995,0.949722,-0.320806,-0.150393,-0.035726999999999995,-0.031107,-0.028051999999999997,,,,,,,,,,,,,,,,,,,,,,,,,,,,,,,,,,,0.0,0.0,1.0,0.0,512.0,1.0,,,,,,,,,,,,,,,,,,,,,,,,,
1486,1645584240.508924,1645584240.515114,83.0,0.0,4381.538574,4344.102539,4183.589844,4266.666504,4320.512695,16231.0,4.0,91.0,,,,0.0,4.0,2.0,4.0,0.0,4.0,50.0,,,,,,,,,,,,,,,,,,,,,,,,,,,,,,,,,,,,,,,,,,,,,,,,,,,,,,,,,,,,,,,,,,,,,,,,,,,,,,,,,,,,
1487,1645584240.5167391,1645584240.522928,84.0,0.0,4375.384765999999,4366.153809,4196.922852000001,4272.307617,4325.641113000001,450.0,4.0,91.0,,,,0.0,4.0,2.0,4.0,0.0,4.0,50.0,,,,,,,,42.0,0.0,0.6382439999999999,-0.158691,0.632324,0.40942399999999995,0.952651,-0.316899,-0.152834,-0.035768,-0.03117,-0.023928,,,,,,,,,,,,,,,,,,,,,,,,,,,,,,,,,,,,,,,,,,,,,,,,,,,,,,,,,,,,,,,,,
1488,1645584240.5245528,1645584240.530742,85.0,0.0,4365.128418,4375.897461,4185.641113000001,4282.563965,4302.563965,450.0,4.0,91.0,,,,0.0,4.0,2.0,4.0,0.0,4.0,50.0,,,,,,,,,,,,,,,,,,,,,,,,,,,,,,,,,,,,,,,,,,,,,,,,,,,,,,,,,,,,,,,,,,,,,,,,,,,,,,,,,,,,
1489,1645584240.532368,1645584240.538557,86.0,0.0,4395.897461,4334.871582,4174.358886999999,4280.512695,4323.589844,450.0,4.0,91.0,,,,0.0,4.0,2.0,4.0,0.0,4.0,50.0,,,,,,,,43.0,0.0,0.6382439999999999,-0.158691,0.632324,0.40942399999999995,0.9589989999999999,-0.323247,-0.157717,-0.035804,-0.031226999999999998,-0.020363,,,,,,,,,,,,,,,,,,,,,,,,,,,,,,,,,,,0.0,0.0,1.0,0.0,512.0,1.0,,,,,,,,,,,,,,,,,,,,,,,,,
1490,1645584240.540182,1645584240.546471,87.0,0.0,4416.410156,4333.846191,4182.05127,4274.358886999999,4351.282227000001,16231.0,4.0,91.0,,,,0.0,4.0,2.0,4.0,0.0,4.0,50.0,,,,,,,,,,,,,,,,,,,,,,,,,,,,,,,,,,,,,,,,,,,,,,,,,,,,,,,,,,,,,,,,,,,,,,,,,,,,,,,,,,,,
1491,1645584240.547997,1645584240.554286,88.0,0.0,4364.102539,4358.974121,4182.563965,4270.769043,4319.487305,450.0,4.0,91.0,,,,0.0,4.0,2.0,4.0,0.0,4.0,50.0,,,,,,,,44.0,0.0,0.638305,-0.158447,0.632324,0.40942399999999995,0.947768,-0.32910700000000004,-0.14257999999999998,-0.035935,-0.031132,-0.023356000000000002,,,,,,,,,,,,,,,,,,,,,,,,,,,,,,,,,,,,,,,,,,,,,,,,,,,,,,,,,,,,,,,,,
1492,1645584240.555811,1645584240.5621,89.0,0.0,4341.025879,4352.820313,4189.743652,4273.333496,4282.05127,450.0,4.0,91.0,,,,0.0,4.0,2.0,4.0,0.0,4.0,50.0,,,,,,,,,,,,,,,,,,,,,,,,,,,,,,,,,,,,,,,,,,,,,,,,,,,,,,,,,,,,,,,,,,,,,,,,,,,,,,,,,,,,
1493,1645584240.563626,1645584240.569914,90.0,0.0,4390.769043,4362.05127,4190.256348,4282.05127,4296.410156,450.0,4.0,91.0,,,,0.0,4.0,2.0,4.0,0.0,4.0,50.0,,,,,,,,45.0,0.0,0.638305,-0.158447,0.632324,0.40942399999999995,0.945815,-0.325689,-0.14990499999999998,-0.035906,-0.031143,-0.02605,,,,,,,,,,,,,,,,,,,,,,,,,,,,,,,,,,,0.0,0.0,1.0,0.0,512.0,1.0,,,,,,,,,,,,,,,,,,,,,,,,,
1494,1645584240.57144,1645584240.577729,91.0,0.0,4391.282227000001,4394.358886999999,4172.307617,4281.538574,4304.102539,16231.0,4.0,91.0,,,,0.0,4.0,2.0,4.0,0.0,4.0,50.0,,,,,,,,,,,,,,,,,,,,,,,,,,,,,,,,,,,,,,,,,,,,,,,,,,,,,,,,,,,,,,,,,,,,,,,,,,,,,,,,,,,,
1495,1645584240.579255,1645584240.585543,92.0,0.0,4350.256348,4395.897461,4186.666504,4271.794922,4293.846191,450.0,4.0,91.0,,,,0.0,4.0,2.0,4.0,0.0,4.0,50.0,,,,,,,,46.0,0.0,0.638208,-0.158203,0.632324,0.40966800000000003,0.941909,-0.30811,-0.150881,-0.035733,-0.031202999999999998,-0.022322,,,,,,,,,,,,,,,,,,,,,,,,,,,,,,,,,,,,,,,,,,,,,,,,,,,,,,,,,,,,,,,,,
1496,1645584240.58707,1645584240.593358,93.0,0.0,4382.563965,4411.794922,4218.974121,4272.307617,4317.94873,450.0,4.0,91.0,,,,0.0,4.0,2.0,4.0,0.0,4.0,50.0,,,,,,,,,,,,,,,,,,,,,,,,,,,,,,,,,,,,,,,,,,,,,,,,,,,,,,,,,,,,,,,,,,,,,,,,,,,,,,,,,,,,
1497,1645584240.594884,1645584240.601172,94.0,0.0,4404.615234000001,4449.230957,4200.512695,4280.0,4314.871582,450.0,4.0,91.0,,,,0.0,4.0,2.0,4.0,0.0,4.0,50.0,,,,,,,,47.0,0.0,0.638112,-0.157959,0.632324,0.409912,0.9272600000000001,-0.291997,-0.15674100000000002,-0.035725,-0.031257,-0.025168,1.0,0.0,0.0,,,,,,,,,,,,,,,,,,,,,,,,,,,,,,,,0.0,0.0,1.0,0.0,512.0,1.0,2.831401,2.9933680000000003,1.189293,1.553367,2.205645,105.78508799999999,40.396519,17.124922,15.330109,13.519459,0.866891,0.986059,0.549447,0.8085979999999999,1.426623,0.076623,0.06439199999999999,0.046669,0.087434,0.058852,2.884359,2.785995,1.548964,1.893835,1.611544
1498,1645584240.602699,1645584240.608986,95.0,0.0,4397.436035,4435.384765999999,4175.897461,4281.538574,4303.077147999999,16231.0,4.0,91.0,,,,0.0,4.0,2.0,4.0,0.0,4.0,50.0,,,,,,,,,,,,,,,,,,,,,,,,,,,,,,,,,,,,,,,,,,,,,,,,,,,,,,,,,,,,,,,,,,,,,,,,,,,,,,,,,,,,
1499,1645584240.610513,1645584240.616901,96.0,0.0,4495.897461,4427.692383,4204.615234000001,4278.974121,4359.487305,450.0,4.0,91.0,,,,0.0,4.0,2.0,4.0,0.0,4.0,50.0,,,,,,,,48.0,0.0,0.637677,-0.157471,0.632568,0.4104,0.9594870000000001,-0.324712,-0.155764,-0.035717,-0.031256,-0.027681,,,,,,,,,,,,,,,,,,,,,,,,,,,,,,,,,,,,,,,,,,,,,,,,,,,,,,,,,,,,,,,,,
1500,1645584240.6183279,1645584240.624715,97.0,0.0,4518.461426,4455.384765999999,4214.871582,4279.487305,4375.384765999999,450.0,4.0,91.0,,,,0.0,4.0,2.0,4.0,0.0,4.0,50.0,,,,,,,,,,,,,,,,,,,,,,,,,,,,,,,,,,,,,,,,,,,,,,,,,,,,,,,,,,,,,,,,,,,,,,,,,,,,,,,,,,,,
1501,1645584240.626142,1645584240.63253,98.0,0.0,4454.871582,4392.307617,4197.94873,4281.025879,4340.512695,450.0,4.0,91.0,,,,0.0,4.0,2.0,4.0,0.0,4.0,50.0,,,,,,,,49.0,0.0,0.6372399999999999,-0.15698199999999998,0.632813,0.41088900000000006,0.96144,-0.325689,-0.152834,-0.035807,-0.031207,-0.029893,,,,,,,,,,,,,,,,,,,,,,,,,,,,,,,,,,,0.0,0.0,1.0,0.0,512.0,1.0,,,,,,,,,,,,,,,,,,,,,,,,,
1502,1645584240.6339571,1645584240.640344,99.0,0.0,4547.692383,4308.205078,4207.692383,4280.0,4373.846191,16231.0,4.0,91.0,,,,0.0,4.0,2.0,4.0,0.0,4.0,50.0,,,,,,,,,,,,,,,,,,,,,,,,,,,,,,,,,,,,,,,,,,,,,,,,,,,,,,,,,,,,,,,,,,,,,,,,,,,,,,,,,,,,
1503,1645584240.641771,1645584240.648158,100.0,0.0,4534.871582,4389.743652,4218.461426,4278.461426,4369.743652,450.0,4.0,91.0,,,,0.0,4.0,2.0,4.0,0.0,4.0,50.0,,,,,,,,50.0,0.0,0.636863,-0.15625,0.633057,0.41137700000000005,0.9438620000000001,-0.326177,-0.154299,-0.035937000000000004,-0.031356999999999996,-0.025585,,,,,,,,,,,,,,,,,,,,,,,,,,,,,,,,,,,,,,,,,,,,,,,,,,,,,,,,,,,,,,,,,
1504,1645584240.649586,1645584240.655973,101.0,0.0,4360.0,4585.641113000001,4205.641113000001,4276.922852000001,4296.922852000001,450.0,4.0,91.0,,,,0.0,4.0,2.0,4.0,0.0,4.0,50.0,,,,,,,,,,,,,,,,,,,,,,,,,,,,,,,,,,,,,,,,,,,,,,,,,,,,,,,,,,,,,,,,,,,,,,,,,,,,,,,,,,,,
1505,1645584240.6574,1645584240.663787,102.0,0.0,4491.794922,4744.102539,4198.461426,4278.974121,4373.333496,450.0,4.0,91.0,,,,0.0,4.0,2.0,4.0,0.0,4.0,50.0,,,,,,,,51.0,0.0,0.636023,-0.15576199999999998,0.633545,0.412109,0.936049,-0.304692,-0.160647,-0.035858999999999995,-0.031396,-0.021855,,,,,,,,,,,,,,,,,,,,,,,,,,,,,,,,,,,0.0,0.0,1.0,0.0,512.0,1.0,,,,,,,,,,,,,,,,,,,,,,,,,
1506,1645584240.665215,1645584240.671602,103.0,0.0,4778.461426,4557.94873,4221.025879,4282.05127,4564.615234000001,16231.0,4.0,91.0,,,,0.0,4.0,2.0,4.0,0.0,4.0,50.0,,,,,,,,,,,,,,,,,,,,,,,,,,,,,,,,,,,,,,,,,,,,,,,,,,,,,,,,,,,,,,,,,,,,,,,,,,,,,,,,,,,,
1507,1645584240.6730301,1645584240.679416,104.0,0.0,4979.487305,3953.3332520000004,4235.897461,4286.666504,4686.153809,450.0,4.0,91.0,,,,0.0,4.0,2.0,4.0,0.0,4.0,50.0,,,,,,,,52.0,0.0,0.635424,-0.155273,0.633789,0.412842,0.937026,-0.332525,-0.155764,-0.03574,-0.031479,-0.018546,,,,,,,,,,,,,,,,,,,,,,,,,,,,,,,,,,,,,,,,,,,,,,,,,,,,,,,,,,,,,,,,,
1508,1645584240.6808438,1645584240.68733,105.0,0.0,5532.820313,3501.025635,4225.128418,4300.512695,4815.897461,450.0,4.0,91.0,,,,0.0,4.0,2.0,4.0,0.0,4.0,50.0,,,,,,,,,,,,,,,,,,,,,,,,,,,,,,,,,,,,,,,,,,,,,,,,,,,,,,,,,,,,,,,,,,,,,,,,,,,,,,,,,,,,
1509,1645584240.688659,1645584240.695145,106.0,0.0,6307.179688,3563.5898439999996,4224.615234000001,4312.820313,5004.615234000001,450.0,4.0,91.0,,,,0.0,4.0,2.0,4.0,0.0,4.0,50.0,,,,,,,,53.0,0.0,0.635325,-0.155029,0.633789,0.41308599999999995,0.9340959999999999,-0.373053,-0.143557,-0.035731,-0.031554,-0.021721,,,,,,,,,,,,,,,,,,,,,,,,,,,,,,,,,,,0.0,0.0,1.0,0.0,512.0,1.0,,,,,,,,,,,,,,,,,,,,,,,,,
1510,1645584240.6964731,1645584240.702959,107.0,0.0,6814.871581999999,3800.0,4251.282227000001,4319.487305,5185.128418,16231.0,4.0,91.0,,,,0.0,4.0,2.0,4.0,0.0,4.0,50.0,,,,,,,,,,,,,,,,,,,,,,,,,,,,,,,,,,,,,,,,,,,,,,,,,,,,,,,,,,,,,,,,,,,,,,,,,,,,,,,,,,,,
1511,1645584240.704288,1645584240.710774,108.0,0.0,7291.282227,4069.2307130000004,4258.974121,4332.820313,5364.102539,450.0,4.0,91.0,,,,0.0,4.0,2.0,4.0,0.0,4.0,50.0,,,,,,,,54.0,0.0,0.635653,-0.155029,0.633301,0.41333000000000003,0.94435,-0.30811,-0.14648699999999998,-0.03582,-0.031523,-0.01828,,,,,,,,,,,,,,,,,,,,,,,,,,,,,,,,,,,,,,,,,,,,,,,,,,,,,,,,,,,,,,,,,
1512,1645584240.712102,1645584240.718588,109.0,0.0,7766.666504000001,4495.897461,4249.230957,4353.333496,5514.871582,450.0,4.0,91.0,,,,0.0,4.0,2.0,4.0,0.0,4.0,50.0,,,,,,,,,,,,,,,,,,,,,,,,,,,,,,,,,,,,,,,,,,,,,,,,,,,,,,,,,,,,,,,,,,,,,,,,,,,,,,,,,,,,
1513,1645584240.719917,1645584240.726402,110.0,0.0,7893.846191,5001.025879,4262.05127,4379.487305,5598.461426,450.0,4.0,91.0,,,,0.0,4.0,2.0,4.0,0.0,4.0,50.0,,,,,,,,55.0,0.0,0.635861,-0.15551800000000002,0.632813,0.413574,0.9233540000000001,-0.383795,-0.146975,-0.035802,-0.031594,-0.021481,1.0,0.0,0.0,,,,,,,,,,,,,,,,,,,,,,,,,,,,,,,,0.0,0.0,1.0,0.0,512.0,0.71822,2.498278,2.780272,1.213452,1.870581,2.271204,99.435165,48.156368,19.523546,16.757616,14.642349,0.784618,0.85803,0.43467799999999995,0.791898,1.298367,0.100566,0.08803899999999999,0.071633,0.11673299999999999,0.075941,2.77509,3.212999,1.7524380000000002,1.842743,1.727803
1514,1645584240.727731,1645584240.734317,111.0,0.0,7808.205078,5598.974121,4257.94873,4411.794922,5665.641113000001,16231.0,4.0,91.0,,,,0.0,4.0,2.0,4.0,0.0,4.0,50.0,,,,,,,,,,,,,,,,,,,,,,,,,,,,,,,,,,,,,,,,,,,,,,,,,,,,,,,,,,,,,,,,,,,,,,,,,,,,,,,,,,,,
1515,1645584240.735546,1645584240.742131,112.0,0.0,7803.077148,6033.333496,4244.615234000001,4435.897461,5726.153809,450.0,4.0,91.0,,,,0.0,4.0,2.0,4.0,0.0,4.0,50.0,,,,,,,,56.0,0.0,0.63641,-0.15625,0.63208,0.413574,0.9463030000000001,-0.332036,-0.14648699999999998,-0.035787,-0.031559,-0.018063,,,,,,,,,,,,,,,,,,,,,,,,,,,,,,,,,,,,,,,,,,,,,,,,,,,,,,,,,,,,,,,,,
1516,1645584240.74336,1645584240.749945,113.0,0.0,7808.717773,5958.461426,4256.410156,4446.153809,5731.282227000001,450.0,4.0,91.0,,,,0.0,4.0,2.0,4.0,0.0,4.0,50.0,,,,,,,,,,,,,,,,,,,,,,,,,,,,,,,,,,,,,,,,,,,,,,,,,,,,,,,,,,,,,,,,,,,,,,,,,,,,,,,,,,,,
1517,1645584240.751175,1645584240.75776,114.0,0.0,7778.461426000001,5698.461426,4259.487305,4454.871582,5727.692383,450.0,4.0,91.0,,,,0.0,4.0,2.0,4.0,0.0,4.0,50.0,,,,,,,,57.0,0.0,0.6368119999999999,-0.157227,0.631592,0.41333000000000003,0.9506979999999999,-0.346197,-0.156252,-0.035772000000000005,-0.031577,-0.021238,,,,,,,,,,,,,,,,,,,,,,,,,,,,,,,,,,,0.0,0.0,1.0,0.0,512.0,0.71822,,,,,,,,,,,,,,,,,,,,,,,,,
1518,1645584240.758989,1645584240.765574,115.0,0.0,7769.230956999999,5508.717772999999,4249.230957,4462.05127,5697.436035,16231.0,4.0,91.0,,,,0.0,4.0,2.0,4.0,0.0,4.0,50.0,,,,,,,,,,,,,,,,,,,,,,,,,,,,,,,,,,,,,,,,,,,,,,,,,,,,,,,,,,,,,,,,,,,,,,,,,,,,,,,,,,,,
1519,1645584240.766804,1645584240.773489,116.0,0.0,7769.230956999999,5200.512695,4242.563965,4460.512695,5588.205078,450.0,4.0,91.0,,,,0.0,4.0,2.0,4.0,0.0,4.0,50.0,,,,,,,,58.0,0.0,0.636994,-0.157471,0.6313479999999999,0.41333000000000003,0.932631,-0.34473200000000004,-0.155764,-0.03576,-0.031642,-0.024045,,,,,,,,,,,,,,,,,,,,,,,,,,,,,,,,,,,,,,,,,,,,,,,,,,,,,,,,,,,,,,,,,
1520,1645584240.7746189,1645584240.781303,117.0,0.0,7770.769043000001,4738.974121,4234.358886999999,4454.871582,5470.769043,450.0,4.0,91.0,,,,0.0,4.0,2.0,4.0,0.0,4.0,50.0,,,,,,,,,,,,,,,,,,,,,,,,,,,,,,,,,,,,,,,,,,,,,,,,,,,,,,,,,,,,,,,,,,,,,,,,,,,,,,,,,,,,
1521,1645584240.782433,1645584240.789117,118.0,0.0,7770.769043000001,4238.461426,4233.846191,4449.230957,5385.128418,450.0,4.0,91.0,,,,0.0,4.0,2.0,4.0,0.0,4.0,50.0,,,,,,,,59.0,0.0,0.63641,-0.15625,0.63208,0.413574,0.9463030000000001,-0.332036,-0.14648699999999998,-0.035748,-0.031603,-0.020371,,,,,,,,,,,,,,,,,,,,,,,,,,,,,,,,,,,0.0,0.0,1.0,0.0,512.0,0.71822,,,,,,,,,,,,,,,,,,,,,,,,,
1522,1645584240.7902482,1645584240.796932,119.0,0.0,7774.358887,3709.743652,4246.153809,4443.077147999999,5270.256348,16231.0,4.0,91.0,,,,0.0,4.0,2.0,4.0,0.0,4.0,50.0,,,,,,,,,,,,,,,,,,,,,,,,,,,,,,,,,,,,,,,,,,,,,,,,,,,,,,,,,,,,,,,,,,,,,,,,,,,,,,,,,,,,
1523,1645584240.7980618,1645584240.8047462,120.0,0.0,7785.128418000001,3260.0,4252.307617,4434.871582,5094.871582,450.0,4.0,91.0,,,,0.0,4.0,2.0,4.0,0.0,4.0,50.0,,,,,,,,60.0,0.0,0.636994,-0.157471,0.6313479999999999,0.41333000000000003,0.932631,-0.34473200000000004,-0.155764,-0.035738,-0.031665,-0.023266,,,,,,,,,,,,,,,,,,,,,,,,,,,,,,,,,,,,,,,,,,,,,,,,,,,,,,,,,,,,,,,,,
1524,1645584240.805877,1645584240.812561,121.0,0.0,7792.820312999999,2962.564209,4251.794922,4426.153809,4912.820313,450.0,4.0,91.0,,,,0.0,4.0,2.0,4.0,0.0,4.0,50.0,,,,,,,,,,,,,,,,,,,,,,,,,,,,,,,,,,,,,,,,,,,,,,,,,,,,,,,,,,,,,,,,,,,,,,,,,,,,,,,,,,,,
1525,1645584240.813691,1645584240.820375,122.0,0.0,7797.436035,2712.3076170000004,4258.974121,4415.897461,4782.05127,450.0,4.0,91.0,,,,0.0,4.0,2.0,4.0,0.0,4.0,50.0,,,,,,,,61.0,0.0,0.6371760000000001,-0.15771500000000002,0.631104,0.41333000000000003,0.9506979999999999,-0.319341,-0.169924,-0.035776999999999996,-0.031575,-0.026018,,,,,,,,,,,,,,,,,,,,,,,,,,,,,,,,,,,0.0,0.0,1.0,0.0,512.0,0.71822,,,,,,,,,,,,,,,,,,,,,,,,,
1526,1645584240.821506,1645584240.8281891,123.0,0.0,7806.666504000001,2488.205078,4272.307617,4400.0,4707.179688,16231.0,4.0,91.0,,,,0.0,4.0,2.0,4.0,0.0,4.0,50.0,,,,,,,,,,,,,,,,,,,,,,,,,,,,,,,,,,,,,,,,,,,,,,,,,,,,,,,,,,,,,,,,,,,,,,,,,,,,,,,,,,,,
1527,1645584240.82932,1645584240.836104,124.0,0.0,7776.410156,2342.564209,4270.769043,4379.487305,4619.487305,450.0,4.0,91.0,,,,0.0,2.0,2.0,4.0,0.0,4.0,33.333332,,,,,,,,62.0,0.0,0.6373340000000001,-0.15771500000000002,0.631104,0.41308599999999995,0.9521629999999999,-0.3252,-0.169436,-0.035764,-0.031543,-0.028444999999999998,,,,,,,,,,,,,,,,,,,,,,,,,,,,,,,,,,,,,,,,,,,,,,,,,,,,,,,,,,,,,,,,,
1528,1645584240.837135,1645584240.843918,125.0,0.0,7592.307617,2236.923096,4246.153809,4364.102539,4512.820313,450.0,4.0,91.0,,,,0.0,2.0,2.0,4.0,0.0,4.0,33.333332,,,,,,,,,,,,,,,,,,,,,,,,,,,,,,,,,,,,,,,,,,,,,,,,,,,,,,,,,,,,,,,,,,,,,,,,,,,,,,,,,,,,
1529,1645584240.844949,1645584240.851733,126.0,0.0,7269.230956999999,2148.205078,4237.436035,4354.871582,4457.436035,450.0,4.0,91.0,,,,0.0,2.0,2.0,4.0,0.0,4.0,33.333332,1.0,0.0,0.0,0.0,4.0,0.0,1.0,63.0,0.0,0.637432,-0.157959,0.631104,0.412842,0.954116,-0.35547399999999996,-0.16552999999999998,-0.035655,-0.031562,-0.024380000000000002,1.0,0.0,0.0,,,,,,,,,,,,,,,,,,,,,,,,,,,,,,,,0.0,0.0,64.0,1.0,1.0,0.0,23.878294,9.290711,3.4288769999999995,2.2084,2.3923509999999997,92.082573,57.689083,26.305111,18.996296,15.599541,0.647143,0.780539,0.36703800000000003,0.771058,1.177082,0.152186,0.109695,0.10233099999999999,0.141825,0.092205,6.1296230000000005,4.252459,2.229865,1.803137,1.8734330000000001
1530,1645584240.8527641,1645584240.8595471,127.0,0.0,6963.077148,2160.512939,4257.436035,4347.692383,4454.358886999999,242.0,4.0,91.0,,,,0.0,2.0,2.0,4.0,0.0,4.0,33.333332,,,,,,,,,,,,,,,,,,,,,,,,,,,,,,,,,,,,,,,,,,,,,,,,,,,,,,,,,,,,,,,,,,,,,,,,,,,,,,,,,,,,
1531,1645584240.860579,1645584240.8673608,0.0,0.0,6686.666504,2288.205078,4270.769043,4341.538574,4437.436035,450.0,4.0,91.0,,,,0.0,2.0,2.0,4.0,0.0,4.0,33.333332,,,,,,,,0.0,0.0,0.63759,-0.157959,0.631104,0.41259799999999996,0.936049,-0.332036,-0.161135,-0.035703,-0.031432999999999996,-0.027069,,,,,,,,,,,,,,,,,,,,,,,,,,,,,,,,,,,,,,,,,,,,,,,,,,,,,,,,,,,,,,,,,
1532,1645584240.868393,1645584240.875176,1.0,0.0,6344.615234000001,2368.718018,4274.358886999999,4335.384765999999,4384.102539,450.0,4.0,91.0,,,,0.0,2.0,2.0,4.0,0.0,4.0,33.333332,,,,,,,,,,,,,,,,,,,,,,,,,,,,,,,,,,,,,,,,,,,,,,,,,,,,,,,,,,,,,,,,,,,,,,,,,,,,,,,,,,,,
1533,1645584240.876208,1645584240.8829901,2.0,0.0,6014.358886999999,2365.6411129999997,4271.794922,4327.692383,4333.333496,294.0,4.0,91.0,,,,0.0,2.0,2.0,4.0,0.0,4.0,33.333332,,,,,,,,1.0,0.0,0.63759,-0.157959,0.631104,0.41259799999999996,0.937026,-0.334966,-0.15674100000000002,-0.035746,-0.031415,-0.029391000000000004,,,,,,,,,,,,,,,,,,,,,,,,,,,,,,,,,,,0.0,0.0,64.0,1.0,1.0,0.0,,,,,,,,,,,,,,,,,,,,,,,,,
1534,1645584240.884022,1645584240.890805,3.0,0.0,5778.461426,2438.974365,4275.897461,4320.512695,4300.0,450.0,4.0,91.0,,,,0.0,2.0,2.0,4.0,0.0,4.0,33.333332,,,,,,,,,,,,,,,,,,,,,,,,,,,,,,,,,,,,,,,,,,,,,,,,,,,,,,,,,,,,,,,,,,,,,,,,,,,,,,,,,,,,
1535,1645584240.891837,1645584240.898619,4.0,0.0,5561.538574,2534.3588870000003,4288.717772999999,4319.487305,4262.05127,320.0,4.0,91.0,,,,0.0,2.0,2.0,4.0,0.0,4.0,33.333332,,,,,,,,2.0,0.0,0.637748,-0.157959,0.631104,0.412354,0.9428850000000001,-0.333013,-0.15674100000000002,-0.035687,-0.031448000000000004,-0.025329,,,,,,,,,,,,,,,,,,,,,,,,,,,,,,,,,,,,,,,,,,,,,,,,,,,,,,,,,,,,,,,,,
1536,1645584240.899651,1645584240.906433,5.0,0.0,5332.820313,2502.05127,4272.820313,4318.461426,4221.025879,450.0,4.0,91.0,,,,0.0,2.0,2.0,4.0,0.0,4.0,33.333332,,,,,,,,,,,,,,,,,,,,,,,,,,,,,,,,,,,,,,,,,,,,,,,,,,,,,,,,,,,,,,,,,,,,,,,,,,,,,,,,,,,,
1537,1645584240.907466,1645584240.9143481,6.0,0.0,5137.94873,2477.94873,4252.820313,4314.871582,4192.307617,16210.0,4.0,91.0,,,,0.0,2.0,2.0,4.0,0.0,4.0,33.333332,,,,,,,,3.0,0.0,0.637905,-0.157959,0.631104,0.412109,0.937026,-0.31543499999999997,-0.157229,-0.035585000000000006,-0.031525,-0.021527,,,,,,,,,,,,,,,,,,,,,,,,,,,,,,,,,,,0.0,0.0,64.0,1.0,1.0,0.0,,,,,,,,,,,,,,,,,,,,,,,,,
1538,1645584240.91528,1645584240.9221618,7.0,0.0,4972.307617,2596.410156,4270.769043,4310.769043,4175.384765999999,450.0,4.0,91.0,,,,0.0,2.0,2.0,4.0,0.0,4.0,33.333332,,,,,,,,,,,,,,,,,,,,,,,,,,,,,,,,,,,,,,,,,,,,,,,,,,,,,,,,,,,,,,,,,,,,,,,,,,,,,,,,,,,,
1539,1645584240.923095,1645584240.929977,8.0,0.0,4808.717772999999,2685.128174,4284.102539,4305.128418,4170.769043,450.0,4.0,91.0,,,,0.0,2.0,2.0,4.0,0.0,4.0,33.333332,,,,,,,,4.0,0.0,0.637845,-0.158203,0.631104,0.412109,0.9404440000000001,-0.311528,-0.16211199999999998,-0.035542000000000004,-0.031449,-0.02455,,,,,,,,,,,,,,,,,,,,,,,,,,,,,,,,,,,,,,,,,,,,,,,,,,,,,,,,,,,,,,,,,
1540,1645584240.9309099,1645584240.937791,9.0,0.0,4680.0,2654.871826,4277.94873,4302.05127,4170.769043,0.0,4.0,91.0,,,,0.0,2.0,2.0,4.0,0.0,4.0,33.333332,,,,,,,,,,,,,,,,,,,,,,,,,,,,,,,,,,,,,,,,,,,,,,,,,,,,,,,,,,,,,,,,,,,,,,,,,,,,,,,,,,,,
1541,1645584240.938724,1645584240.945605,10.0,0.0,4582.05127,2633.333252,4278.461426,4304.102539,4165.128418,450.0,4.0,91.0,,,,0.0,2.0,2.0,4.0,0.0,4.0,33.333332,,,,,,,,5.0,0.0,0.638183,-0.158447,0.6308590000000001,0.411865,0.939467,-0.316899,-0.154299,-0.035504,-0.031429,-0.020923,,,,,,,,,,,,,,,,,,,,,,,,,,,,,,,,,,,0.0,0.0,64.0,1.0,1.0,0.0,,,,,,,,,,,,,,,,,,,,,,,,,
1542,1645584240.9465392,1645584240.95342,11.0,0.0,4463.589844,2653.333252,4274.358886999999,4303.077147999999,4135.384765999999,16247.0,4.0,91.0,,,,0.0,2.0,2.0,4.0,0.0,4.0,33.333332,,,,,,,,,,,,,,,,,,,,,,,,,,,,,,,,,,,,,,,,,,,,,,,,,,,,,,,,,,,,,,,,,,,,,,,,,,,,,,,,,,,,
1543,1645584240.9543529,1645584240.961234,12.0,0.0,4347.179688,2686.666748,4268.717772999999,4297.94873,4098.461426,450.0,4.0,91.0,,,,0.0,2.0,2.0,4.0,0.0,4.0,33.333332,,,,,,,,6.0,0.0,0.6382800000000001,-0.158691,0.6308590000000001,0.411621,0.9511860000000001,-0.33105999999999997,-0.158694,-0.035567,-0.03146,-0.023811000000000002,,,,,,,,,,,,,,,,,,,,,,,,,,,,,,,,,,,,,,,,,,,,,,,,,,,,,,,,,,,,,,,,,
1544,1645584240.962168,1645584240.969049,13.0,0.0,4263.589844,2720.0,4277.436035,4297.436035,4114.871582,450.0,4.0,91.0,,,,0.0,2.0,2.0,4.0,0.0,4.0,33.333332,,,,,,,,,,,,,,,,,,,,,,,,,,,,,,,,,,,,,,,,,,,,,,,,,,,,,,,,,,,,,,,,,,,,,,,,,,,,,,,,,,,,
1545,1645584240.9699821,1645584240.9768631,14.0,0.0,4178.974121,2742.05127,4269.230957,4297.94873,4142.563965,450.0,4.0,91.0,,,,0.0,2.0,2.0,4.0,0.0,4.0,33.333332,,,,,,,,7.0,0.0,0.6382800000000001,-0.158691,0.6308590000000001,0.411621,0.9423969999999999,-0.319341,-0.152346,-0.035526,-0.031586,-0.020307,1.0,0.0,0.0,,,,,,,,,,,,,,,,,,,,,,,,,,,,,,,,0.0,0.0,64.0,0.784555,1.0,0.0,214.84788500000002,64.06073,15.005657000000001,2.736988,2.878287,228.61055,125.67475900000001,55.548992000000005,24.894175,16.641216,0.5203270000000001,0.7754979999999999,0.351948,0.7573350000000001,1.104108,0.655987,0.144621,0.140907,0.159532,0.107798,49.457596,6.914436,3.253445,1.843172,2.07407
1546,1645584240.977797,1645584240.984777,15.0,0.0,4098.974121,2745.128174,4254.871582,4296.410156,4118.974121,16247.0,4.0,91.0,,,,0.0,2.0,2.0,4.0,0.0,4.0,33.333332,,,,,,,,,,,,,,,,,,,,,,,,,,,,,,,,,,,,,,,,,,,,,,,,,,,,,,,,,,,,,,,,,,,,,,,,,,,,,,,,,,,,
1547,1645584240.985611,1645584240.992592,16.0,0.0,4032.820557,2775.897461,4267.179688,4293.333496,4101.025879,0.0,4.0,91.0,,,,0.0,2.0,2.0,4.0,0.0,4.0,33.333332,,,,,,,,8.0,0.0,0.6382800000000001,-0.158691,0.6308590000000001,0.411621,0.940932,-0.330571,-0.15967,-0.035538,-0.031502999999999996,-0.023355,,,,,,,,,,,,,,,,,,,,,,,,,,,,,,,,,,,,,,,,,,,,,,,,,,,,,,,,,,,,,,,,,
1548,1645584240.993426,1645584241.000406,17.0,0.0,3952.3076170000004,2870.256348,4282.05127,4289.230957,4116.410156,0.0,4.0,91.0,,,,0.0,2.0,2.0,4.0,0.0,4.0,33.333332,,,,,,,,,,,,,,,,,,,,,,,,,,,,,,,,,,,,,,,,,,,,,,,,,,,,,,,,,,,,,,,,,,,,,,,,,,,,,,,,,,,,
1549,1645584241.00124,1645584241.00822,18.0,0.0,3885.641113,2924.102539,4267.692383,4287.692383,4105.641113000001,0.0,4.0,91.0,,,,0.0,2.0,2.0,4.0,0.0,4.0,33.333332,,,,,,,,9.0,0.0,0.638039,-0.158691,0.631104,0.411621,0.9438620000000001,-0.327642,-0.147951,-0.035548,-0.031478,-0.026146,,,,,,,,,,,,,,,,,,,,,,,,,,,,,,,,,,,0.0,0.0,64.0,0.784555,1.0,0.0,,,,,,,,,,,,,,,,,,,,,,,,,
1550,1645584241.0090551,1645584241.016035,19.0,0.0,3836.923096,2926.666748,4251.794922,4286.153809,4074.358887,0.0,4.0,91.0,,,,0.0,2.0,2.0,4.0,0.0,4.0,33.333332,,,,,,,,,,,,,,,,,,,,,,,,,,,,,,,,,,,,,,,,,,,,,,,,,,,,,,,,,,,,,,,,,,,,,,,,,,,,,,,,,,,,
1551,1645584241.0168688,1645584241.023849,20.0,0.0,3780.0,3048.205078,4261.538574,4282.05127,4073.8461909999996,0.0,4.0,91.0,,,,0.0,2.0,2.0,4.0,0.0,4.0,33.333332,,,,,,,,10.0,0.0,0.638039,-0.158691,0.631104,0.411621,0.9423969999999999,-0.31250500000000003,-0.158694,-0.035607,-0.031504000000000004,-0.028610000000000003,,,,,,,,,,,,,,,,,,,,,,,,,,,,,,,,,,,,,,,,,,,,,,,,,,,,,,,,,,,,,,,,,
1552,1645584241.024684,1645584241.0316641,21.0,0.0,3740.512939,3254.871826,4270.769043,4282.05127,4077.9487299999996,0.0,4.0,91.0,,,,0.0,2.0,2.0,4.0,0.0,4.0,33.333332,,,,,,,,,,,,,,,,,,,,,,,,,,,,,,,,,,,,,,,,,,,,,,,,,,,,,,,,,,,,,,,,,,,,,,,,,,,,,,,,,,,,
1553,1645584241.0324981,1645584241.0394778,22.0,0.0,3704.615479,3317.435791,4261.538574,4284.102539,4071.281982,0.0,4.0,91.0,,,,0.0,2.0,2.0,4.0,0.0,4.0,33.333332,,,,,,,,11.0,0.0,0.6379779999999999,-0.158936,0.631104,0.411621,0.9463030000000001,-0.32422399999999996,-0.153811,-0.035611000000000004,-0.031528,-0.024577,,,,,,,,,,,,,,,,,,,,,,,,,,,,,,,,,,,0.0,0.0,64.0,0.784555,1.0,0.0,,,,,,,,,,,,,,,,,,,,,,,,,
1554,1645584241.040313,1645584241.047293,23.0,0.0,3638.974365,3321.025635,4255.384765999999,4282.05127,4066.6667479999996,0.0,4.0,91.0,,,,0.0,2.0,2.0,4.0,0.0,4.0,33.333332,,,,,,,,,,,,,,,,,,,,,,,,,,,,,,,,,,,,,,,,,,,,,,,,,,,,,,,,,,,,,,,,,,,,,,,,,,,,,,,,,,,,
1555,1645584241.048128,1645584241.055207,24.0,0.0,3578.974365,3430.256348,4259.487305,4280.512695,4052.820557,0.0,4.0,91.0,,,,0.0,2.0,2.0,4.0,0.0,4.0,33.333332,,,,,,,,12.0,0.0,0.6379779999999999,-0.158936,0.631104,0.411621,0.940932,-0.319829,-0.155276,-0.035565,-0.0315,-0.027149,,,,,,,,,,,,,,,,,,,,,,,,,,,,,,,,,,,,,,,,,,,,,,,,,,,,,,,,,,,,,,,,,
1556,1645584241.055942,1645584241.0630212,25.0,0.0,3517.4357909999994,3476.923096,4258.974121,4281.538574,4050.256348,0.0,4.0,91.0,,,,0.0,2.0,2.0,4.0,0.0,4.0,33.333332,,,,,,,,,,,,,,,,,,,,,,,,,,,,,,,,,,,,,,,,,,,,,,,,,,,,,,,,,,,,,,,,,,,,,,,,,,,,,,,,,,,,
1557,1645584241.063757,1645584241.0708358,26.0,0.0,3482.5642090000006,3401.538574,4262.563965,4281.538574,4069.2307130000004,0.0,4.0,91.0,,,,0.0,2.0,2.0,4.0,0.0,4.0,33.333332,,,,,,,,13.0,0.0,0.637917,-0.15918,0.631104,0.411621,0.949722,-0.314946,-0.146975,-0.03572,-0.031524,-0.029561,,,,,,,,,,,,,,,,,,,,,,,,,,,,,,,,,,,0.0,0.0,64.0,0.784555,1.0,0.0,,,,,,,,,,,,,,,,,,,,,,,,,
1558,1645584241.071571,1645584241.07865,27.0,0.0,3484.615479,3365.1281740000004,4274.358886999999,4281.025879,4080.0,0.0,4.0,91.0,,,,0.0,2.0,2.0,4.0,0.0,4.0,33.333332,,,,,,,,,,,,,,,,,,,,,,,,,,,,,,,,,,,,,,,,,,,,,,,,,,,,,,,,,,,,,,,,,,,,,,,,,,,,,,,,,,,,
1559,1645584241.079386,1645584241.0864642,28.0,0.0,3442.5642090000006,3372.820557,4268.205078,4281.025879,4066.6667479999996,0.0,4.0,91.0,,,,0.0,2.0,2.0,4.0,0.0,4.0,33.333332,,,,,,,,14.0,0.0,0.637917,-0.15918,0.631104,0.411621,0.938003,-0.333013,-0.154788,-0.035663,-0.031545,-0.031633999999999995,,,,,,,,,,,,,,,,,,,,,,,,,,,,,,,,,,,,,,,,,,,,,,,,,,,,,,,,,,,,,,,,,
1560,1645584241.0872,1645584241.0942788,29.0,0.0,3401.538574,3368.205078,4253.333496,4279.487305,4064.102539,0.0,4.0,91.0,,,,0.0,2.0,2.0,4.0,0.0,4.0,33.333332,,,,,,,,,,,,,,,,,,,,,,,,,,,,,,,,,,,,,,,,,,,,,,,,,,,,,,,,,,,,,,,,,,,,,,,,,,,,,,,,,,,,
1561,1645584241.095015,1645584241.102093,30.0,0.0,3397.4357909999994,3395.897461,4253.333496,4280.512695,4062.5642090000006,0.0,4.0,91.0,,,,0.0,2.0,2.0,4.0,0.0,4.0,33.333332,,,,,,,,15.0,0.0,0.637917,-0.15918,0.631104,0.411621,0.9546040000000001,-0.336431,-0.159182,-0.035759,-0.031467,-0.027299,1.0,0.0,0.0,,,,,,,,,,,,,,,,,,,,,,,,,,,,,,,,0.0,0.0,32.0,0.485324,1.0,0.0,739.314392,241.638138,46.166225,3.9929919999999997,4.143577,956.6906740000001,375.636444,134.112167,37.983398,18.629566,0.493758,0.829508,0.383919,0.755264,1.093234,2.589425,0.22255300000000003,0.191051,0.17056500000000002,0.12224700000000001,210.104462,13.195727999999999,5.230044,2.027654,2.3702650000000003
1562,1645584241.102829,1645584241.109908,31.0,0.0,3361.538574,3443.5898439999996,4251.282227000001,4277.94873,4044.615479,0.0,4.0,91.0,,,,0.0,2.0,2.0,4.0,0.0,4.0,33.333332,,,,,,,,,,,,,,,,,,,,,,,,,,,,,,,,,,,,,,,,,,,,,,,,,,,,,,,,,,,,,,,,,,,,,,,,,,,,,,,,,,,,
1563,1645584241.1106439,1645584241.117722,32.0,0.0,3330.769287,3496.923096,4244.102539,4269.743652,4047.179443,0.0,4.0,91.0,,,,0.0,2.0,2.0,4.0,0.0,4.0,33.333332,,,,,,,,16.0,0.0,0.637917,-0.15918,0.631104,0.411621,0.9487450000000001,-0.341314,-0.151858,-0.03565,-0.031494,-0.029598000000000003,,,,,,,,,,,,,,,,,,,,,,,,,,,,,,,,,,,,,,,,,,,,,,,,,,,,,,,,,,,,,,,,,
1564,1645584241.118459,1645584241.125536,33.0,0.0,3334.871826,3614.8718259999996,4254.871582,4268.717772999999,4055.897461,0.0,4.0,91.0,,,,0.0,2.0,2.0,4.0,0.0,4.0,33.333332,,,,,,,,,,,,,,,,,,,,,,,,,,,,,,,,,,,,,,,,,,,,,,,,,,,,,,,,,,,,,,,,,,,,,,,,,,,,,,,,,,,,
1565,1645584241.1262732,1645584241.133451,34.0,0.0,3306.153809,3718.461426,4262.563965,4272.820313,4054.8718259999996,0.0,4.0,91.0,,,,0.0,2.0,2.0,4.0,0.0,4.0,33.333332,,,,,,,,17.0,0.0,0.638075,-0.15918,0.631104,0.41137700000000005,0.9438620000000001,-0.3252,-0.143557,-0.035795999999999994,-0.031519,-0.031717,,,,,,,,,,,,,,,,,,,,,,,,,,,,,,,,,,,0.0,0.0,32.0,0.485324,1.0,0.0,,,,,,,,,,,,,,,,,,,,,,,,,
1566,1645584241.134088,1645584241.1412652,35.0,0.0,3276.923096,3717.9487299999996,4253.846191,4272.307617,4068.718018,0.0,4.0,91.0,,,,0.0,2.0,2.0,4.0,0.0,4.0,33.333332,,,,,,,,,,,,,,,,,,,,,,,,,,,,,,,,,,,,,,,,,,,,,,,,,,,,,,,,,,,,,,,,,,,,,,,,,,,,,,,,,,,,
1567,1645584241.141902,1645584241.14908,36.0,0.0,3289.230713,3740.512939,4258.974121,4270.769043,4072.820557,0.0,4.0,91.0,,,,0.0,2.0,2.0,4.0,0.0,4.0,33.333332,,,,,,,,18.0,0.0,0.638255,-0.159424,0.6308590000000001,0.41137700000000005,0.940932,-0.319829,-0.165042,-0.035781,-0.031492,-0.027373,,,,,,,,,,,,,,,,,,,,,,,,,,,,,,,,,,,,,,,,,,,,,,,,,,,,,,,,,,,,,,,,,
1568,1645584241.149717,1645584241.156894,37.0,0.0,3271.794922,3838.974365,4262.05127,4270.769043,4074.8718259999996,0.0,4.0,91.0,,,,0.0,2.0,2.0,4.0,0.0,4.0,33.333332,,,,,,,,,,,,,,,,,,,,,,,,,,,,,,,,,,,,,,,,,,,,,,,,,,,,,,,,,,,,,,,,,,,,,,,,,,,,,,,,,,,,
1569,1645584241.157531,1645584241.164708,38.0,0.0,3248.718018,3886.1538090000004,4254.358886999999,4267.692383,4092.820557,0.0,4.0,91.0,,,,0.0,2.0,2.0,4.0,0.0,4.0,33.333332,,,,,,,,19.0,0.0,0.638412,-0.159424,0.6308590000000001,0.41113299999999997,0.938491,-0.327153,-0.160647,-0.035816,-0.031516,-0.029713999999999997,,,,,,,,,,,,,,,,,,,,,,,,,,,,,,,,,,,0.0,0.0,32.0,0.485324,1.0,0.0,,,,,,,,,,,,,,,,,,,,,,,,,
1570,1645584241.1653461,1645584241.172523,39.0,0.0,3264.102539,3828.718018,4259.487305,4266.666504,4087.6923829999996,0.0,4.0,91.0,,,,0.0,2.0,2.0,4.0,0.0,4.0,33.333332,,,,,,,,,,,,,,,,,,,,,,,,,,,,,,,,,,,,,,,,,,,,,,,,,,,,,,,,,,,,,,,,,,,,,,,,,,,,,,,,,,,,
1571,1645584241.17316,1645584241.180337,40.0,0.0,3252.820557,3794.8718259999996,4265.641113000001,4267.692383,4056.923096,0.0,4.0,91.0,,,,0.0,2.0,2.0,4.0,0.0,4.0,33.333332,,,,,,,,20.0,0.0,0.6385689999999999,-0.159424,0.6308590000000001,0.41088900000000006,0.9511860000000001,-0.316899,-0.154788,-0.03575,-0.031539,-0.031723,,,,,,,,,,,,,,,,,,,,,,,,,,,,,,,,,,,,,,,,,,,,,,,,,,,,,,,,,,,,,,,,,
1572,1645584241.180975,1645584241.1881518,41.0,0.0,3223.589844,3805.641113,4261.538574,4267.179688,4056.923096,0.0,4.0,91.0,,,,0.0,2.0,2.0,4.0,0.0,4.0,33.333332,,,,,,,,,,,,,,,,,,,,,,,,,,,,,,,,,,,,,,,,,,,,,,,,,,,,,,,,,,,,,,,,,,,,,,,,,,,,,,,,,,,,
1573,1645584241.1887891,1645584241.196066,42.0,0.0,3204.615479,3802.0512700000004,4251.794922,4267.179688,4061.025635,0.0,4.0,91.0,,,,0.0,2.0,2.0,4.0,0.0,4.0,33.333332,,,,,,,,21.0,0.0,0.638328,-0.159424,0.631104,0.41088900000000006,0.9560690000000001,-0.316411,-0.157717,-0.035593,-0.031363,-0.033678,,,,,,,,,,,,,,,,,,,,,,,,,,,,,,,,,,,0.0,0.0,32.0,0.485324,1.0,0.0,,,,,,,,,,,,,,,,,,,,,,,,,
1574,1645584241.196604,1645584241.20388,43.0,0.0,3189.230713,3877.4357909999994,4247.179688,4267.692383,4055.384521,0.0,4.0,91.0,,,,0.0,2.0,2.0,4.0,0.0,4.0,33.333332,,,,,,,,,,,,,,,,,,,,,,,,,,,,,,,,,,,,,,,,,,,,,,,,,,,,,,,,,,,,,,,,,,,,,,,,,,,,,,,,,,,,
1575,1645584241.204419,1645584241.211695,44.0,0.0,3198.974365,3983.5898439999996,4258.461426,4267.179688,4066.6667479999996,0.0,4.0,91.0,,,,0.0,2.0,2.0,4.0,0.0,4.0,33.333332,,,,,,,,22.0,0.0,0.638267,-0.159668,0.631104,0.41088900000000006,0.9546040000000001,-0.318364,-0.152834,-0.035647000000000005,-0.031303,-0.035291,,,,,,,,,,,,,,,,,,,,,,,,,,,,,,,,,,,,,,,,,,,,,,,,,,,,,,,,,,,,,,,,,
1576,1645584241.212233,1645584241.219509,45.0,0.0,3223.076904,3944.615479,4267.179688,4266.666504,4063.5898439999996,0.0,4.0,91.0,,,,0.0,2.0,2.0,4.0,0.0,4.0,33.333332,,,,,,,,,,,,,,,,,,,,,,,,,,,,,,,,,,,,,,,,,,,,,,,,,,,,,,,,,,,,,,,,,,,,,,,,,,,,,,,,,,,,
1577,1645584241.220048,1645584241.227324,46.0,0.0,3196.923096,3872.3076170000004,4244.102539,4266.153809,4058.461426,0.0,4.0,91.0,,,,0.0,2.0,2.0,4.0,0.0,4.0,33.333332,,,,,,,,23.0,0.0,0.6385689999999999,-0.159424,0.6308590000000001,0.41088900000000006,0.9511860000000001,-0.316899,-0.154788,-0.035598000000000005,-0.031347,-0.036791000000000004,1.0,0.0,0.0,,,,,,,,,,,,,,,,,,,,,,,,,,,,,,,,0.0,0.0,32.0,0.6265850000000001,1.0,0.0,1707.9741210000002,594.724365,101.396782,6.4973160000000005,6.371441,2732.44043,901.798401,275.319305,59.419849,22.394935999999998,0.6222270000000001,0.914374,0.454574,0.762154,1.12727,7.0268809999999995,0.36248800000000003,0.255797,0.178244,0.13353099999999998,554.785706,24.054165,8.265242,2.388573,2.7868630000000003
1578,1645584241.227862,1645584241.2351382,47.0,0.0,3160.0,3925.1281740000004,4235.384765999999,4266.666504,4076.4101560000004,0.0,4.0,91.0,,,,0.0,2.0,2.0,4.0,0.0,4.0,33.333332,,,,,,,,,,,,,,,,,,,,,,,,,,,,,,,,,,,,,,,,,,,,,,,,,,,,,,,,,,,,,,,,,,,,,,,,,,,,,,,,,,,,
1579,1645584241.235677,1645584241.2429519,48.0,0.0,3189.743652,3934.8718259999996,4269.743652,4266.666504,4081.025635,0.0,4.0,91.0,,,,0.0,2.0,2.0,4.0,0.0,4.0,33.333332,,,,,,,,24.0,0.0,0.638267,-0.159668,0.631104,0.41088900000000006,0.9546040000000001,-0.318364,-0.152834,-0.035651999999999996,-0.031287999999999996,-0.038092,,,,,,,,,,,,,,,,,,,,,,,,,,,,,,,,,,,,,,,,,,,,,,,,,,,,,,,,,,,,,,,,,
1580,1645584241.243491,1645584241.250767,49.0,0.0,3212.820557,3865.641113,4280.512695,4266.153809,4066.6667479999996,0.0,4.0,91.0,,,,0.0,2.0,2.0,4.0,0.0,4.0,33.333332,,,,,,,,,,,,,,,,,,,,,,,,,,,,,,,,,,,,,,,,,,,,,,,,,,,,,,,,,,,,,,,,,,,,,,,,,,,,,,,,,,,,
1581,1645584241.251306,1645584241.2585812,50.0,0.0,3181.025635,3901.025635,4256.922852000001,4266.666504,4068.718018,0.0,4.0,91.0,,,,0.0,2.0,2.0,4.0,0.0,4.0,33.333332,,,,,,,,25.0,0.0,0.638424,-0.159668,0.631104,0.410645,0.941909,-0.305669,-0.153811,-0.035651,-0.031236,-0.039264,,,,,,,,,,,,,,,,,,,,,,,,,,,,,,,,,,,0.0,0.0,32.0,0.6265850000000001,1.0,0.0,,,,,,,,,,,,,,,,,,,,,,,,,
1582,1645584241.25912,1645584241.266396,51.0,0.0,3168.718018,3961.538574,4244.615234000001,4266.666504,4095.897461,0.0,4.0,91.0,,,,0.0,2.0,2.0,4.0,0.0,4.0,33.333332,,,,,,,,,,,,,,,,,,,,,,,,,,,,,,,,,,,,,,,,,,,,,,,,,,,,,,,,,,,,,,,,,,,,,,,,,,,,,,,,,,,,
1583,1645584241.2669349,1645584241.2743099,52.0,0.0,3184.102539,3943.076904,4243.077147999999,4266.666504,4105.641113000001,0.0,4.0,91.0,,,,0.0,2.0,2.0,4.0,0.0,4.0,33.333332,,,,,,,,26.0,0.0,0.638424,-0.159668,0.631104,0.410645,0.9365379999999999,-0.317388,-0.145022,-0.035601999999999995,-0.031188,-0.034165,,,,,,,,,,,,,,,,,,,,,,,,,,,,,,,,,,,,,,,,,,,,,,,,,,,,,,,,,,,,,,,,,
1584,1645584241.274749,1645584241.282124,53.0,0.0,3175.384521,3975.384521,4235.897461,4266.666504,4072.3076170000004,0.0,4.0,91.0,,,,0.0,2.0,2.0,4.0,0.0,4.0,33.333332,,,,,,,,,,,,,,,,,,,,,,,,,,,,,,,,,,,,,,,,,,,,,,,,,,,,,,,,,,,,,,,,,,,,,,,,,,,,,,,,,,,,
1585,1645584241.2825642,1645584241.2899392,54.0,0.0,3157.94873,4092.820557,4238.461426,4266.153809,4066.1538090000004,0.0,4.0,91.0,,,,0.0,2.0,2.0,4.0,0.0,4.0,33.333332,,,,,,,,27.0,0.0,0.638267,-0.159668,0.631104,0.41088900000000006,0.9365379999999999,-0.31299299999999997,-0.155276,-0.03585,-0.031243,-0.035778,,,,,,,,,,,,,,,,,,,,,,,,,,,,,,,,,,,0.0,0.0,32.0,0.6265850000000001,1.0,0.0,,,,,,,,,,,,,,,,,,,,,,,,,
1586,1645584241.2903779,1645584241.2977529,55.0,0.0,3168.718018,4126.153809,4244.102539,4265.641113000001,4104.615234000001,0.0,4.0,91.0,,,,0.0,2.0,2.0,4.0,0.0,4.0,33.333332,,,,,,,,,,,,,,,,,,,,,,,,,,,,,,,,,,,,,,,,,,,,,,,,,,,,,,,,,,,,,,,,,,,,,,,,,,,,,,,,,,,,
1587,1645584241.298193,1645584241.305568,56.0,0.0,3181.5385739999997,4090.256348,4230.769043,4265.641113000001,4100.512695,0.0,4.0,91.0,,,,0.0,2.0,2.0,4.0,0.0,4.0,33.333332,,,,,,,,28.0,0.0,0.638026,-0.159668,0.6313479999999999,0.41088900000000006,0.949722,-0.321782,-0.140627,-0.035878,-0.031145999999999997,-0.031029,,,,,,,,,,,,,,,,,,,,,,,,,,,,,,,,,,,,,,,,,,,,,,,,,,,,,,,,,,,,,,,,,
1588,1645584241.306008,1645584241.3133821,57.0,0.0,3169.230713,4103.077147999999,4218.461426,4265.641113000001,4085.1281740000004,0.0,4.0,91.0,,,,0.0,2.0,2.0,4.0,0.0,4.0,33.333332,,,,,,,,,,,,,,,,,,,,,,,,,,,,,,,,,,,,,,,,,,,,,,,,,,,,,,,,,,,,,,,,,,,,,,,,,,,,,,,,,,,,
1589,1645584241.313822,1645584241.321196,58.0,0.0,3146.666748,4108.205078,4231.794922,4265.641113000001,4105.641113000001,0.0,4.0,91.0,,,,0.0,2.0,2.0,4.0,0.0,4.0,33.333332,,,,,,,,29.0,0.0,0.638026,-0.159668,0.6313479999999999,0.41088900000000006,0.9423969999999999,-0.319829,-0.143557,-0.035709,-0.031206,-0.026802999999999997,,,,,,,,,,,,,,,,,,,,,,,,,,,,,,,,,,,0.0,0.0,32.0,0.6265850000000001,1.0,0.0,,,,,,,,,,,,,,,,,,,,,,,,,
1590,1645584241.321637,1645584241.329011,59.0,0.0,3120.512939,4135.897461,4239.487305,4265.641113000001,4103.589844,0.0,4.0,91.0,,,,0.0,2.0,2.0,4.0,0.0,4.0,33.333332,,,,,,,,,,,,,,,,,,,,,,,,,,,,,,,,,,,,,,,,,,,,,,,,,,,,,,,,,,,,,,,,,,,,,,,,,,,,,,,,,,,,
1591,1645584241.329451,1645584241.336825,60.0,0.0,3106.153809,4280.0,4224.615234000001,4265.641113000001,4083.5898439999996,0.0,4.0,91.0,,,,0.0,2.0,2.0,4.0,0.0,4.0,33.333332,,,,,,,,30.0,0.0,0.638087,-0.159424,0.6313479999999999,0.41088900000000006,0.95021,-0.31543499999999997,-0.142092,-0.035605,-0.031307999999999996,-0.029151999999999997,,,,,,,,,,,,,,,,,,,,,,,,,,,,,,,,,,,,,,,,,,,,,,,,,,,,,,,,,,,,,,,,,
1592,1645584241.337266,1645584241.344739,61.0,0.0,3110.769287,4351.794922,4221.025879,4265.641113000001,4083.5898439999996,0.0,4.0,91.0,,,,0.0,4.0,2.0,4.0,0.0,4.0,50.0,,,,,,,,,,,,,,,,,,,,,,,,,,,,,,,,,,,,,,,,,,,,,,,,,,,,,,,,,,,,,,,,,,,,,,,,,,,,,,,,,,,,
1593,1645584241.3450801,1645584241.3525538,62.0,0.0,3106.666748,4302.05127,4229.743652,4265.641113000001,4068.205078,0.0,4.0,91.0,,,,0.0,4.0,2.0,4.0,0.0,4.0,50.0,1.0,0.0,0.0,0.0,4.0,0.0,1.0,31.0,0.0,0.638328,-0.159424,0.631104,0.41088900000000006,0.954116,-0.327153,-0.151858,-0.035755,-0.031301999999999996,-0.031168,1.0,0.0,0.0,,,,,,,,,,,,,,,,,,,,,,,,,,,,,,,,0.0,0.0,32.0,1.0,1.0,0.0,3028.424805,1100.386841,173.799896,10.250114,9.264096,5685.532227000001,1677.8187260000002,463.127533,85.880081,27.929841999999997,0.9415389999999999,0.9953110000000001,0.561224,0.775209,1.171117,13.964035,0.553555,0.32957600000000004,0.18523199999999998,0.138434,1077.54187,38.269465999999994,11.928053,2.876968,3.283866
1594,1645584241.352895,1645584241.360368,63.0,0.0,3111.794922,4353.846191,4225.641113000001,4265.641113000001,4058.974365,0.0,4.0,91.0,,,,0.0,4.0,2.0,4.0,0.0,4.0,50.0,,,,,,,,,,,,,,,,,,,,,,,,,,,,,,,,,,,,,,,,,,,,,,,,,,,,,,,,,,,,,,,,,,,,,,,,,,,,,,,,,,,,
1595,1645584241.360709,1645584241.368183,64.0,0.0,3138.974365,4408.205078,4212.820313,4265.641113000001,4093.8461909999996,450.0,4.0,91.0,,,,0.0,4.0,2.0,4.0,0.0,4.0,50.0,,,,,,,,32.0,0.0,0.6381479999999999,-0.15918,0.6313479999999999,0.41088900000000006,0.947768,-0.33105999999999997,-0.143557,-0.035744,-0.031297000000000005,-0.02688,,,,,,,,,,,,,,,,,,,,,,,,,,,,,,,,,,,,,,,,,,,,,,,,,,,,,,,,,,,,,,,,,
1596,1645584241.368524,1645584241.375997,65.0,0.0,3143.076904,4346.153809,4207.692383,4265.641113000001,4099.487305,450.0,4.0,91.0,,,,0.0,4.0,2.0,4.0,0.0,4.0,50.0,,,,,,,,,,,,,,,,,,,,,,,,,,,,,,,,,,,,,,,,,,,,,,,,,,,,,,,,,,,,,,,,,,,,,,,,,,,,,,,,,,,,
1597,1645584241.376339,1645584241.383812,66.0,0.0,3108.205078,4356.922852000001,4206.666504,4264.615234000001,4072.3076170000004,16194.0,4.0,91.0,,,,0.0,4.0,2.0,4.0,0.0,4.0,50.0,,,,,,,,33.0,0.0,0.638389,-0.15918,0.631104,0.41088900000000006,0.932143,-0.326177,-0.152346,-0.035782999999999995,-0.031341,-0.029319,,,,,,,,,,,,,,,,,,,,,,,,,,,,,,,,,,,0.0,0.0,32.0,1.0,1.0,0.0,,,,,,,,,,,,,,,,,,,,,,,,,
1598,1645584241.384153,1645584241.391626,67.0,0.0,3100.512939,4435.384765999999,4212.820313,4263.589844,4086.1538090000004,450.0,4.0,91.0,,,,0.0,4.0,2.0,4.0,0.0,4.0,50.0,,,,,,,,,,,,,,,,,,,,,,,,,,,,,,,,,,,,,,,,,,,,,,,,,,,,,,,,,,,,,,,,,,,,,,,,,,,,,,,,,,,,
1599,1645584241.391968,1645584241.39944,68.0,0.0,3127.6923829999996,4477.436035,4225.128418,4264.102539,4111.794922,209.0,4.0,91.0,,,,0.0,4.0,2.0,4.0,0.0,4.0,50.0,,,,,,,,34.0,0.0,0.638389,-0.15918,0.631104,0.41088900000000006,0.947768,-0.325689,-0.147951,-0.035818,-0.03143,-0.031416,,,,,,,,,,,,,,,,,,,,,,,,,,,,,,,,,,,,,,,,,,,,,,,,,,,,,,,,,,,,,,,,,
1600,1645584241.399782,1645584241.407355,69.0,0.0,3117.435791,4527.179688,4224.102539,4264.102539,4100.0,450.0,4.0,91.0,,,,0.0,4.0,2.0,4.0,0.0,4.0,50.0,,,,,,,,,,,,,,,,,,,,,,,,,,,,,,,,,,,,,,,,,,,,,,,,,,,,,,,,,,,,,,,,,,,,,,,,,,,,,,,,,,,,
1601,1645584241.407597,1645584241.415169,70.0,0.0,3103.589844,4512.820313,4207.179688,4263.589844,4093.8461909999996,16199.0,4.0,91.0,,,,0.0,4.0,2.0,4.0,0.0,4.0,50.0,,,,,,,,35.0,0.0,0.63845,-0.158936,0.631104,0.41088900000000006,0.949722,-0.33105999999999997,-0.160159,-0.035898,-0.031412,-0.033206,,,,,,,,,,,,,,,,,,,,,,,,,,,,,,,,,,,0.0,0.0,32.0,1.0,1.0,0.0,,,,,,,,,,,,,,,,,,,,,,,,,
1602,1645584241.415411,1645584241.422983,71.0,0.0,3143.076904,4414.871582,4205.128418,4264.102539,4107.179688,450.0,4.0,91.0,,,,0.0,4.0,2.0,4.0,0.0,4.0,50.0,,,,,,,,,,,,,,,,,,,,,,,,,,,,,,,,,,,,,,,,,,,,,,,,,,,,,,,,,,,,,,,,,,,,,,,,,,,,,,,,,,,,
1603,1645584241.4232259,1645584241.430798,72.0,0.0,3168.205078,4405.128418,4219.487305,4264.102539,4085.1281740000004,450.0,4.0,91.0,,,,0.0,4.0,2.0,4.0,0.0,4.0,50.0,,,,,,,,36.0,0.0,0.638691,-0.158936,0.6308590000000001,0.41088900000000006,0.944839,-0.3252,-0.160647,-0.035873,-0.031347,-0.034964,,,,,,,,,,,,,,,,,,,,,,,,,,,,,,,,,,,,,,,,,,,,,,,,,,,,,,,,,,,,,,,,,
1604,1645584241.43104,1645584241.438612,73.0,0.0,3138.974365,4480.512695,4217.436035,4264.102539,4082.0512700000004,0.0,4.0,91.0,,,,0.0,4.0,2.0,4.0,0.0,4.0,50.0,,,,,,,,,,,,,,,,,,,,,,,,,,,,,,,,,,,,,,,,,,,,,,,,,,,,,,,,,,,,,,,,,,,,,,,,,,,,,,,,,,,,
1605,1645584241.4388552,1645584241.4464269,74.0,0.0,3136.410156,4522.563965,4207.692383,4264.102539,4129.230957,450.0,4.0,91.0,,,,0.0,4.0,2.0,4.0,0.0,4.0,50.0,,,,,,,,37.0,0.0,0.638848,-0.158936,0.6308590000000001,0.410645,0.9438620000000001,-0.31787600000000005,-0.154788,-0.035781,-0.031285,-0.031622000000000004,,,,,,,,,,,,,,,,,,,,,,,,,,,,,,,,,,,0.0,0.0,32.0,1.0,1.0,0.0,,,,,,,,,,,,,,,,,,,,,,,,,
1606,1645584241.4466689,1645584241.454241,75.0,0.0,3169.743652,4526.153809,4218.974121,4264.102539,4136.922852000001,16231.0,4.0,91.0,,,,0.0,4.0,2.0,4.0,0.0,4.0,50.0,,,,,,,,,,,,,,,,,,,,,,,,,,,,,,,,,,,,,,,,,,,,,,,,,,,,,,,,,,,,,,,,,,,,,,,,,,,,,,,,,,,,
1607,1645584241.454484,1645584241.462155,76.0,0.0,3169.230713,4498.461426,4225.641113000001,4264.102539,4104.102539,450.0,4.0,91.0,,,,0.0,4.0,2.0,4.0,0.0,4.0,50.0,,,,,,,,38.0,0.0,0.638787,-0.15918,0.6308590000000001,0.410645,0.952651,-0.323735,-0.151369,-0.035767,-0.031330000000000004,-0.033538,,,,,,,,,,,,,,,,,,,,,,,,,,,,,,,,,,,,,,,,,,,,,,,,,,,,,,,,,,,,,,,,,
1608,1645584241.462299,1645584241.46997,77.0,0.0,3157.435791,4427.692383,4208.717772999999,4264.102539,4104.102539,450.0,4.0,91.0,,,,0.0,4.0,2.0,4.0,0.0,4.0,50.0,,,,,,,,,,,,,,,,,,,,,,,,,,,,,,,,,,,,,,,,,,,,,,,,,,,,,,,,,,,,,,,,,,,,,,,,,,,,,,,,,,,,
1609,1645584241.470113,1645584241.477784,78.0,0.0,3183.076904,4425.128418,4200.0,4263.589844,4122.563965,450.0,4.0,91.0,,,,0.0,4.0,2.0,4.0,0.0,4.0,50.0,,,,,,,,39.0,0.0,0.638944,-0.15918,0.6308590000000001,0.4104,0.9487450000000001,-0.323247,-0.155764,-0.035804,-0.031322,-0.028914,1.0,0.0,0.0,,,,,,,,,,,,,,,,,,,,,,,,,,,,,,,,0.0,0.0,1.0,0.0,128.0,1.0,4372.329102000001,1645.637817,245.30352799999997,14.513263,12.07265,9285.613281,2530.9379879999997,650.586914,110.53878799999998,34.093269,1.351077,1.049884,0.68797,0.790746,1.191202,22.140566,0.751292,0.397548,0.191128,0.134023,1670.090942,52.398788,15.323860999999999,3.3429699999999998,3.745746
1610,1645584241.477928,1645584241.485599,79.0,0.0,3203.076904,4480.0,4206.153809,4264.102539,4123.077147999999,16231.0,4.0,91.0,,,,0.0,4.0,2.0,4.0,0.0,4.0,50.0,,,,,,,,,,,,,,,,,,,,,,,,,,,,,,,,,,,,,,,,,,,,,,,,,,,,,,,,,,,,,,,,,,,,,,,,,,,,,,,,,,,,
1611,1645584241.485742,1645584241.493413,80.0,0.0,3184.102539,4463.589844,4203.077147999999,4264.102539,4122.05127,450.0,4.0,91.0,,,,0.0,4.0,2.0,4.0,0.0,4.0,50.0,,,,,,,,40.0,0.0,0.638944,-0.15918,0.6308590000000001,0.4104,0.9580219999999999,-0.316899,-0.16211199999999998,-0.035837,-0.031461,-0.031002999999999996,,,,,,,,,,,,,,,,,,,,,,,,,,,,,,,,,,,,,,,,,,,,,,,,,,,,,,,,,,,,,,,,,
1612,1645584241.493557,1645584241.501227,81.0,0.0,3168.718018,4426.153809,4190.769043,4263.077147999999,4115.897461,450.0,4.0,91.0,,,,0.0,4.0,2.0,4.0,0.0,4.0,50.0,,,,,,,,,,,,,,,,,,,,,,,,,,,,,,,,,,,,,,,,,,,,,,,,,,,,,,,,,,,,,,,,,,,,,,,,,,,,,,,,,,,,
1613,1645584241.5013711,1645584241.509042,82.0,0.0,3189.743652,4410.256348,4191.282227000001,4262.563965,4105.641113000001,450.0,4.0,91.0,,,,0.0,4.0,2.0,4.0,0.0,4.0,50.0,,,,,,,,41.0,0.0,0.639281,-0.159424,0.6306149999999999,0.410156,0.946792,-0.306645,-0.156252,-0.035963999999999996,-0.031587,-0.032884,,,,,,,,,,,,,,,,,,,,,,,,,,,,,,,,,,,0.0,0.0,1.0,0.0,128.0,1.0,,,,,,,,,,,,,,,,,,,,,,,,,
1614,1645584241.509186,1645584241.516856,83.0,0.0,3207.6923829999996,4406.666504,4213.333496,4263.077147999999,4105.128418,16231.0,4.0,91.0,,,,0.0,4.0,2.0,4.0,0.0,4.0,50.0,,,,,,,,,,,,,,,,,,,,,,,,,,,,,,,,,,,,,,,,,,,,,,,,,,,,,,,,,,,,,,,,,,,,,,,,,,,,,,,,,,,,
1615,1645584241.517,1645584241.524671,84.0,0.0,3195.384521,4458.461426,4225.641113000001,4264.615234000001,4110.256348,450.0,4.0,91.0,,,,0.0,4.0,2.0,4.0,0.0,4.0,50.0,,,,,,,,42.0,0.0,0.639281,-0.159424,0.6306149999999999,0.410156,0.945815,-0.311528,-0.147463,-0.03603,-0.031602,-0.028276999999999997,,,,,,,,,,,,,,,,,,,,,,,,,,,,,,,,,,,,,,,,,,,,,,,,,,,,,,,,,,,,,,,,,
1616,1645584241.524815,1645584241.532485,85.0,0.0,3197.94873,4495.897461,4211.794922,4265.128418,4125.128418,450.0,4.0,91.0,,,,0.0,4.0,2.0,4.0,0.0,4.0,50.0,,,,,,,,,,,,,,,,,,,,,,,,,,,,,,,,,,,,,,,,,,,,,,,,,,,,,,,,,,,,,,,,,,,,,,,,,,,,,,,,,,,,
1617,1645584241.532629,1645584241.540399,86.0,0.0,3222.564209,4417.94873,4209.743652,4264.615234000001,4128.205078,450.0,4.0,91.0,,,,0.0,4.0,2.0,4.0,0.0,4.0,50.0,,,,,,,,43.0,0.0,0.639281,-0.159424,0.6306149999999999,0.410156,0.949233,-0.317388,-0.158694,-0.036039999999999996,-0.031616000000000005,-0.030527,,,,,,,,,,,,,,,,,,,,,,,,,,,,,,,,,,,0.0,0.0,1.0,0.0,128.0,1.0,,,,,,,,,,,,,,,,,,,,,,,,,
1618,1645584241.540444,1645584241.548214,87.0,0.0,3227.179443,4360.512695,4223.077147999999,4264.102539,4106.666504,16231.0,4.0,91.0,,,,0.0,4.0,2.0,4.0,0.0,4.0,50.0,,,,,,,,,,,,,,,,,,,,,,,,,,,,,,,,,,,,,,,,,,,,,,,,,,,,,,,,,,,,,,,,,,,,,,,,,,,,,,,,,,,,
1619,1645584241.548258,1645584241.556028,88.0,0.0,3220.512939,4385.641113000001,4217.436035,4264.102539,4111.794922,450.0,4.0,91.0,,,,0.0,4.0,2.0,4.0,0.0,4.0,50.0,,,,,,,,44.0,0.0,0.639281,-0.159424,0.6306149999999999,0.410156,0.953628,-0.31250500000000003,-0.160647,-0.036001,-0.031627999999999996,-0.032602,,,,,,,,,,,,,,,,,,,,,,,,,,,,,,,,,,,,,,,,,,,,,,,,,,,,,,,,,,,,,,,,,
1620,1645584241.556073,1645584241.563843,89.0,0.0,3234.871826,4373.333496,4213.846191,4263.589844,4142.05127,450.0,4.0,91.0,,,,0.0,4.0,2.0,4.0,0.0,4.0,50.0,,,,,,,,,,,,,,,,,,,,,,,,,,,,,,,,,,,,,,,,,,,,,,,,,,,,,,,,,,,,,,,,,,,,,,,,,,,,,,,,,,,,
1621,1645584241.563887,1645584241.571657,90.0,0.0,3232.3076170000004,4418.461426,4222.05127,4263.589844,4150.769043,450.0,4.0,91.0,,,,0.0,4.0,2.0,4.0,0.0,4.0,50.0,,,,,,,,45.0,0.0,0.639281,-0.159424,0.6306149999999999,0.410156,0.944839,-0.316411,-0.153811,-0.035868000000000004,-0.03159,-0.028023000000000003,,,,,,,,,,,,,,,,,,,,,,,,,,,,,,,,,,,0.0,0.0,1.0,0.0,128.0,1.0,,,,,,,,,,,,,,,,,,,,,,,,,
1622,1645584241.571702,1645584241.579471,91.0,0.0,3211.794922,4521.025879,4206.666504,4263.589844,4141.025879,16231.0,4.0,91.0,,,,0.0,4.0,2.0,4.0,0.0,4.0,50.0,,,,,,,,,,,,,,,,,,,,,,,,,,,,,,,,,,,,,,,,,,,,,,,,,,,,,,,,,,,,,,,,,,,,,,,,,,,,,,,,,,,,
1623,1645584241.579517,1645584241.587286,92.0,0.0,3234.3588870000003,4543.077147999999,4202.563965,4263.589844,4142.05127,450.0,4.0,91.0,,,,0.0,4.0,2.0,4.0,0.0,4.0,50.0,,,,,,,,46.0,0.0,0.639342,-0.15918,0.6306149999999999,0.410156,0.9555809999999999,-0.319341,-0.14990499999999998,-0.035748,-0.031361,-0.030299,,,,,,,,,,,,,,,,,,,,,,,,,,,,,,,,,,,,,,,,,,,,,,,,,,,,,,,,,,,,,,,,,
1624,1645584241.587331,1645584241.5951,93.0,0.0,3265.128174,4551.282227000001,4224.102539,4264.102539,4143.589844,450.0,4.0,91.0,,,,0.0,4.0,2.0,4.0,0.0,4.0,50.0,,,,,,,,,,,,,,,,,,,,,,,,,,,,,,,,,,,,,,,,,,,,,,,,,,,,,,,,,,,,,,,,,,,,,,,,,,,,,,,,,,,,
1625,1645584241.5951462,1645584241.602915,94.0,0.0,3261.5385739999997,4587.179688,4213.846191,4263.077147999999,4138.974121,450.0,4.0,91.0,,,,0.0,4.0,2.0,4.0,0.0,4.0,50.0,,,,,,,,47.0,0.0,0.639342,-0.15918,0.6306149999999999,0.410156,0.9472799999999999,-0.317388,-0.16552999999999998,-0.035786,-0.03135,-0.026097000000000002,1.0,0.0,0.0,,,,,,,,,,,,,,,,,,,,,,,,,,,,,,,,0.0,0.0,1.0,0.0,128.0,1.0,5392.450195,2065.8120120000003,293.166138,18.001301,13.897827,12545.155273,3202.064941,778.866638,125.404099,38.945217,1.748603,1.074719,0.816576,0.800732,1.17246,29.229865999999998,0.892826,0.439392,0.192165,0.119325,2164.226318,62.063805,17.398636,3.5981669999999997,4.027091
1626,1645584241.6029599,1645584241.6108289,95.0,0.0,3262.05127,4580.512695,4192.307617,4262.563965,4130.769043,16231.0,4.0,91.0,,,,0.0,4.0,2.0,4.0,0.0,4.0,50.0,,,,,,,,,,,,,,,,,,,,,,,,,,,,,,,,,,,,,,,,,,,,,,,,,,,,,,,,,,,,,,,,,,,,,,,,,,,,,,,,,,,,
1627,1645584241.610775,1645584241.618643,96.0,0.0,3278.4614260000003,4548.717772999999,4202.563965,4263.077147999999,4125.641113000001,450.0,4.0,91.0,,,,0.0,4.0,2.0,4.0,0.0,4.0,50.0,,,,,,,,48.0,0.0,0.639342,-0.15918,0.6306149999999999,0.410156,0.9506979999999999,-0.332525,-0.150881,-0.035674000000000004,-0.031389,-0.028468,,,,,,,,,,,,,,,,,,,,,,,,,,,,,,,,,,,,,,,,,,,,,,,,,,,,,,,,,,,,,,,,,
1628,1645584241.6185892,1645584241.626458,97.0,0.0,3281.025635,4585.641113000001,4214.358886999999,4264.102539,4142.563965,450.0,4.0,91.0,,,,0.0,4.0,2.0,4.0,0.0,4.0,50.0,,,,,,,,,,,,,,,,,,,,,,,,,,,,,,,,,,,,,,,,,,,,,,,,,,,,,,,,,,,,,,,,,,,,,,,,,,,,,,,,,,,,
1629,1645584241.6264038,1645584241.634272,98.0,0.0,3277.435791,4620.512695,4204.615234000001,4263.589844,4149.230957,450.0,4.0,91.0,,,,0.0,4.0,2.0,4.0,0.0,4.0,50.0,,,,,,,,49.0,0.0,0.639342,-0.15918,0.6306149999999999,0.410156,0.940932,-0.32227100000000003,-0.144045,-0.035574,-0.031228,-0.024401,,,,,,,,,,,,,,,,,,,,,,,,,,,,,,,,,,,0.0,0.0,1.0,0.0,128.0,1.0,,,,,,,,,,,,,,,,,,,,,,,,,
1630,1645584241.634218,1645584241.642087,99.0,0.0,3288.718018,4537.94873,4198.461426,4263.589844,4133.333496,16231.0,4.0,91.0,,,,0.0,4.0,2.0,4.0,0.0,4.0,50.0,,,,,,,,,,,,,,,,,,,,,,,,,,,,,,,,,,,,,,,,,,,,,,,,,,,,,,,,,,,,,,,,,,,,,,,,,,,,,,,,,,,,
1631,1645584241.642033,1645584241.649901,100.0,0.0,3304.615479,4492.820313,4209.230957,4264.102539,4143.077147999999,450.0,4.0,91.0,,,,0.0,4.0,2.0,4.0,0.0,4.0,50.0,,,,,,,,50.0,0.0,0.639342,-0.15918,0.6306149999999999,0.410156,0.9472799999999999,-0.317388,-0.16552999999999998,-0.035483,-0.031132999999999997,-0.02074,,,,,,,,,,,,,,,,,,,,,,,,,,,,,,,,,,,,,,,,,,,,,,,,,,,,,,,,,,,,,,,,,
1632,1645584241.649848,1645584241.657715,101.0,0.0,3311.281982,4590.256348,4212.307617,4263.589844,4152.820313,450.0,4.0,91.0,,,,0.0,4.0,2.0,4.0,0.0,4.0,50.0,,,,,,,,,,,,,,,,,,,,,,,,,,,,,,,,,,,,,,,,,,,,,,,,,,,,,,,,,,,,,,,,,,,,,,,,,,,,,,,,,,,,
1633,1645584241.657662,1645584241.66553,102.0,0.0,3312.3076170000004,4618.461426,4197.436035,4263.589844,4136.410156,450.0,4.0,91.0,,,,0.0,4.0,2.0,4.0,0.0,4.0,50.0,,,,,,,,51.0,0.0,0.639342,-0.15918,0.6306149999999999,0.410156,0.940932,-0.32227100000000003,-0.144045,-0.035401999999999996,-0.030998,-0.017445,,,,,,,,,,,,,,,,,,,,,,,,,,,,,,,,,,,0.0,0.0,1.0,0.0,128.0,1.0,,,,,,,,,,,,,,,,,,,,,,,,,
1634,1645584241.665477,1645584241.673344,103.0,0.0,3322.564209,4527.692383,4188.717772999999,4263.589844,4153.333496,16231.0,4.0,91.0,,,,0.0,4.0,2.0,4.0,0.0,4.0,50.0,,,,,,,,,,,,,,,,,,,,,,,,,,,,,,,,,,,,,,,,,,,,,,,,,,,,,,,,,,,,,,,,,,,,,,,,,,,,,,,,,,,,
1635,1645584241.673291,1645584241.681258,104.0,0.0,3343.076904,4552.307617,4202.05127,4264.102539,4190.256348,450.0,4.0,91.0,,,,0.0,4.0,2.0,4.0,0.0,4.0,50.0,,,,,,,,52.0,0.0,0.639342,-0.15918,0.6306149999999999,0.410156,0.95021,-0.32959499999999997,-0.147951,-0.035475,-0.031023000000000002,-0.020730000000000002,,,,,,,,,,,,,,,,,,,,,,,,,,,,,,,,,,,,,,,,,,,,,,,,,,,,,,,,,,,,,,,,,
1636,1645584241.681106,1645584241.689073,105.0,0.0,3350.769287,4636.922852000001,4209.230957,4264.102539,4169.230957,450.0,4.0,91.0,,,,0.0,4.0,2.0,4.0,0.0,4.0,50.0,,,,,,,,,,,,,,,,,,,,,,,,,,,,,,,,,,,,,,,,,,,,,,,,,,,,,,,,,,,,,,,,,,,,,,,,,,,,,,,,,,,,
1637,1645584241.68892,1645584241.696987,106.0,0.0,3328.718018,4548.717772999999,4193.333496,4263.589844,4140.0,450.0,4.0,91.0,,,,0.0,4.0,2.0,4.0,0.0,4.0,50.0,,,,,,,,53.0,0.0,0.639342,-0.15918,0.6306149999999999,0.410156,0.945327,-0.31787600000000005,-0.152346,-0.035394,-0.030949,-0.017534,,,,,,,,,,,,,,,,,,,,,,,,,,,,,,,,,,,0.0,0.0,1.0,0.0,128.0,1.0,,,,,,,,,,,,,,,,,,,,,,,,,
1638,1645584241.696735,1645584241.704802,107.0,0.0,3326.153809,4445.641113000001,4198.461426,4264.102539,4162.563965,16231.0,4.0,91.0,,,,0.0,4.0,2.0,4.0,0.0,4.0,50.0,,,,,,,,,,,,,,,,,,,,,,,,,,,,,,,,,,,,,,,,,,,,,,,,,,,,,,,,,,,,,,,,,,,,,,,,,,,,,,,,,,,,
1639,1645584241.704549,1645584241.712616,108.0,0.0,3365.1281740000004,4526.666504,4220.0,4264.102539,4175.897461,450.0,4.0,91.0,,,,0.0,4.0,2.0,4.0,0.0,4.0,50.0,,,,,,,,54.0,0.0,0.639342,-0.15918,0.6306149999999999,0.410156,0.941909,-0.32959499999999997,-0.14551,-0.035517,-0.030881,-0.02081,,,,,,,,,,,,,,,,,,,,,,,,,,,,,,,,,,,,,,,,,,,,,,,,,,,,,,,,,,,,,,,,,
1640,1645584241.712364,1645584241.7204301,109.0,0.0,3375.897461,4584.102539,4217.436035,4262.05127,4152.820313,450.0,4.0,91.0,,,,0.0,4.0,2.0,4.0,0.0,4.0,50.0,,,,,,,,,,,,,,,,,,,,,,,,,,,,,,,,,,,,,,,,,,,,,,,,,,,,,,,,,,,,,,,,,,,,,,,,,,,,,,,,,,,,
1641,1645584241.720178,1645584241.728245,110.0,0.0,3367.6923829999996,4532.820313,4204.102539,4262.05127,4147.179688,450.0,4.0,91.0,,,,0.0,4.0,2.0,4.0,0.0,4.0,50.0,,,,,,,,55.0,0.0,0.639342,-0.15918,0.6306149999999999,0.410156,0.9433739999999999,-0.321782,-0.154788,-0.035481,-0.030869,-0.023758,1.0,0.0,0.0,,,,,,,,,,,,,,,,,,,,,,,,,,,,,,,,0.0,0.0,1.0,0.0,128.0,1.0,5681.835938,2217.394287,300.880402,19.468177999999998,14.1058,14377.543945,3458.211426,803.361816,125.328125,40.700503999999995,1.984323,1.075491,0.9199649999999999,0.796499,1.120283,32.838271999999996,0.925309,0.43833199999999994,0.183333,0.096425,2386.881104,63.919334,17.440386,3.5154949999999996,4.022812
1642,1645584241.727993,1645584241.736059,111.0,0.0,3403.076904,4551.282227000001,4205.641113000001,4263.077147999999,4166.666504,16231.0,4.0,91.0,,,,0.0,4.0,2.0,4.0,0.0,4.0,50.0,,,,,,,,,,,,,,,,,,,,,,,,,,,,,,,,,,,,,,,,,,,,,,,,,,,,,,,,,,,,,,,,,,,,,,,,,,,,,,,,,,,,
1643,1645584241.735808,1645584241.743874,112.0,0.0,3429.2307130000004,4616.922852000001,4211.282227000001,4262.563965,4166.666504,450.0,4.0,91.0,,,,0.0,4.0,2.0,4.0,0.0,4.0,50.0,,,,,,,,56.0,0.0,0.639498,-0.15918,0.6306149999999999,0.409912,0.937026,-0.32227100000000003,-0.151858,-0.035449,-0.030907,-0.026508999999999998,,,,,,,,,,,,,,,,,,,,,,,,,,,,,,,,,,,,,,,,,,,,,,,,,,,,,,,,,,,,,,,,,
1644,1645584241.743622,1645584241.751688,113.0,0.0,3398.974365,4606.666504,4207.179688,4263.589844,4153.846191,450.0,4.0,91.0,,,,0.0,4.0,2.0,4.0,0.0,4.0,50.0,,,,,,,,,,,,,,,,,,,,,,,,,,,,,,,,,,,,,,,,,,,,,,,,,,,,,,,,,,,,,,,,,,,,,,,,,,,,,,,,,,,,
1645,1645584241.751437,1645584241.759502,114.0,0.0,3401.025635,4597.436035,4206.666504,4263.589844,4176.410156,450.0,4.0,91.0,,,,0.0,4.0,2.0,4.0,0.0,4.0,50.0,,,,,,,,57.0,0.0,0.639498,-0.15918,0.6306149999999999,0.409912,0.932143,-0.32861799999999997,-0.157717,-0.035566,-0.030844,-0.028789999999999996,,,,,,,,,,,,,,,,,,,,,,,,,,,,,,,,,,,0.0,0.0,1.0,0.0,128.0,1.0,,,,,,,,,,,,,,,,,,,,,,,,,
1646,1645584241.7592509,1645584241.767417,115.0,0.0,3441.025635,4696.922852000001,4213.333496,4262.05127,4206.666504,16231.0,4.0,91.0,,,,0.0,4.0,2.0,4.0,0.0,4.0,50.0,,,,,,,,,,,,,,,,,,,,,,,,,,,,,,,,,,,,,,,,,,,,,,,,,,,,,,,,,,,,,,,,,,,,,,,,,,,,,,,,,,,,
1647,1645584241.767066,1645584241.7752311,116.0,0.0,3434.8718259999996,4783.077147999999,4206.666504,4262.563965,4198.974121,450.0,4.0,91.0,,,,0.0,4.0,2.0,4.0,0.0,4.0,50.0,,,,,,,,58.0,0.0,0.639498,-0.15918,0.6306149999999999,0.409912,0.941421,-0.32422399999999996,-0.155764,-0.035623,-0.030787000000000002,-0.030941000000000003,,,,,,,,,,,,,,,,,,,,,,,,,,,,,,,,,,,,,,,,,,,,,,,,,,,,,,,,,,,,,,,,,
1648,1645584241.7748802,1645584241.783046,117.0,0.0,3418.974365,4694.358886999999,4194.871582,4263.589844,4180.512695,450.0,4.0,91.0,,,,0.0,4.0,2.0,4.0,0.0,4.0,50.0,,,,,,,,,,,,,,,,,,,,,,,,,,,,,,,,,,,,,,,,,,,,,,,,,,,,,,,,,,,,,,,,,,,,,,,,,,,,,,,,,,,,
1649,1645584241.7826948,1645584241.79086,118.0,0.0,3447.6923829999996,4544.615234000001,4200.512695,4262.563965,4202.05127,450.0,4.0,91.0,,,,0.0,4.0,2.0,4.0,0.0,4.0,50.0,,,,,,,,59.0,0.0,0.639498,-0.15918,0.6306149999999999,0.409912,0.9487450000000001,-0.320806,-0.150393,-0.035575999999999997,-0.030882,-0.032777999999999995,,,,,,,,,,,,,,,,,,,,,,,,,,,,,,,,,,,0.0,0.0,1.0,0.0,128.0,1.0,,,,,,,,,,,,,,,,,,,,,,,,,
1650,1645584241.790509,1645584241.798674,119.0,0.0,3472.3076170000004,4552.307617,4208.717772999999,4262.05127,4221.538574,16231.0,4.0,91.0,,,,0.0,4.0,2.0,4.0,0.0,4.0,50.0,,,,,,,,,,,,,,,,,,,,,,,,,,,,,,,,,,,,,,,,,,,,,,,,,,,,,,,,,,,,,,,,,,,,,,,,,,,,,,,,,,,,
1651,1645584241.798324,1645584241.806489,120.0,0.0,3455.384521,4646.666504,4205.128418,4261.538574,4193.333496,450.0,4.0,91.0,,,,0.0,4.0,2.0,4.0,0.0,4.0,50.0,,,,,,,,60.0,0.0,0.639498,-0.15918,0.6306149999999999,0.409912,0.951675,-0.314458,-0.153811,-0.035681,-0.030968,-0.02828,,,,,,,,,,,,,,,,,,,,,,,,,,,,,,,,,,,,,,,,,,,,,,,,,,,,,,,,,,,,,,,,,
1652,1645584241.806138,1645584241.814303,121.0,0.0,3438.974365,4615.384765999999,4208.205078,4261.538574,4167.692383,450.0,4.0,91.0,,,,0.0,4.0,2.0,4.0,0.0,4.0,50.0,,,,,,,,,,,,,,,,,,,,,,,,,,,,,,,,,,,,,,,,,,,,,,,,,,,,,,,,,,,,,,,,,,,,,,,,,,,,,,,,,,,,
1653,1645584241.813953,1645584241.822118,122.0,0.0,3469.2307130000004,4537.94873,4218.461426,4263.589844,4185.641113000001,450.0,4.0,91.0,,,,0.0,4.0,2.0,4.0,0.0,4.0,50.0,,,,,,,,61.0,0.0,0.639498,-0.15918,0.6306149999999999,0.409912,0.9487450000000001,-0.31299299999999997,-0.160647,-0.035726,-0.031045,-0.030481,,,,,,,,,,,,,,,,,,,,,,,,,,,,,,,,,,,0.0,0.0,1.0,0.0,128.0,1.0,,,,,,,,,,,,,,,,,,,,,,,,,
1654,1645584241.821767,1645584241.829932,123.0,0.0,3503.076904,4537.436035,4211.282227000001,4263.077147999999,4200.0,16231.0,4.0,91.0,,,,0.0,4.0,2.0,4.0,0.0,4.0,50.0,,,,,,,,,,,,,,,,,,,,,,,,,,,,,,,,,,,,,,,,,,,,,,,,,,,,,,,,,,,,,,,,,,,,,,,,,,,,,,,,,,,,
1655,1645584241.829582,1645584241.837846,124.0,0.0,3505.1281740000004,4576.922852000001,4202.563965,4261.538574,4186.666504,450.0,4.0,91.0,,,,0.0,4.0,2.0,4.0,0.0,4.0,50.0,,,,,,,,62.0,0.0,0.639342,-0.15918,0.6306149999999999,0.410156,0.940932,-0.324712,-0.163088,-0.035669,-0.031114,-0.032462,,,,,,,,,,,,,,,,,,,,,,,,,,,,,,,,,,,,,,,,,,,,,,,,,,,,,,,,,,,,,,,,,
1656,1645584241.837397,1645584241.845661,125.0,0.0,3522.5642090000006,4623.589844,4216.410156,4263.077147999999,4191.794922,450.0,4.0,91.0,,,,0.0,4.0,2.0,4.0,0.0,4.0,50.0,,,,,,,,,,,,,,,,,,,,,,,,,,,,,,,,,,,,,,,,,,,,,,,,,,,,,,,,,,,,,,,,,,,,,,,,,,,,,,,,,,,,
1657,1645584241.845211,1645584241.853475,126.0,0.0,3555.384521,4666.666504,4223.589844,4264.615234000001,4202.05127,450.0,4.0,91.0,,,,0.0,4.0,2.0,4.0,0.0,4.0,50.0,1.0,0.0,0.0,0.0,4.0,0.0,1.0,63.0,0.0,0.639342,-0.15918,0.6306149999999999,0.410156,0.9433739999999999,-0.316899,-0.154299,-0.035667000000000004,-0.031079000000000002,-0.034392,1.0,0.0,0.0,,,,,,,,,,,,,,,,,,,,,,,,,,,,,,,,0.0,0.0,1.0,0.0,128.0,0.367539,5217.455566,2045.7996829999997,265.48526,18.328794,12.623097999999999,14129.708008000001,3208.329346,715.803223,110.707268,38.605263,1.974753,1.059129,0.9733940000000001,0.7709239999999999,1.0527549999999999,31.727646000000004,0.8339629999999999,0.38993,0.16159,0.07009299999999999,2265.059082,57.185359999999996,15.408921,3.1107560000000003,3.725101
1658,1645584241.853026,1645584241.86129,127.0,0.0,3531.281982,4683.589844,4201.538574,4263.589844,4196.410156,242.0,4.0,91.0,,,,0.0,4.0,2.0,4.0,0.0,4.0,50.0,,,,,,,,,,,,,,,,,,,,,,,,,,,,,,,,,,,,,,,,,,,,,,,,,,,,,,,,,,,,,,,,,,,,,,,,,,,,,,,,,,,,
1659,1645584241.86084,1645584241.869104,0.0,0.0,3498.461426,4676.922852000001,4186.666504,4263.589844,4197.94873,450.0,4.0,91.0,,,,0.0,4.0,2.0,4.0,0.0,4.0,50.0,,,,,,,,0.0,0.0,0.639342,-0.15918,0.6306149999999999,0.410156,0.9438620000000001,-0.318853,-0.154788,-0.035664,-0.031096,-0.029781000000000002,,,,,,,,,,,,,,,,,,,,,,,,,,,,,,,,,,,,,,,,,,,,,,,,,,,,,,,,,,,,,,,,,
1660,1645584241.868655,1645584241.876918,1.0,0.0,3537.9487299999996,4685.128418,4204.102539,4264.102539,4210.256348,450.0,4.0,91.0,,,,0.0,4.0,2.0,4.0,0.0,4.0,50.0,,,,,,,,,,,,,,,,,,,,,,,,,,,,,,,,,,,,,,,,,,,,,,,,,,,,,,,,,,,,,,,,,,,,,,,,,,,,,,,,,,,,
1661,1645584241.876469,1645584241.884733,2.0,0.0,3564.102539,4654.871582,4211.282227000001,4263.589844,4214.358886999999,16234.0,4.0,91.0,,,,0.0,4.0,2.0,4.0,0.0,4.0,50.0,,,,,,,,1.0,0.0,0.639342,-0.15918,0.6306149999999999,0.410156,0.938491,-0.325689,-0.15820599999999999,-0.035663,-0.031112,-0.03193,,,,,,,,,,,,,,,,,,,,,,,,,,,,,,,,,,,0.0,0.0,1.0,0.0,128.0,0.367539,,,,,,,,,,,,,,,,,,,,,,,,,
1662,1645584241.884284,1645584241.8925471,3.0,0.0,3531.794922,4601.025879,4205.128418,4262.563965,4199.487305,450.0,4.0,91.0,,,,0.0,4.0,2.0,4.0,0.0,4.0,50.0,,,,,,,,,,,,,,,,,,,,,,,,,,,,,,,,,,,,,,,,,,,,,,,,,,,,,,,,,,,,,,,,,,,,,,,,,,,,,,,,,,,,
1663,1645584241.892098,1645584241.900362,4.0,0.0,3531.281982,4633.333496,4210.256348,4263.077147999999,4194.358886999999,280.0,4.0,91.0,,,,0.0,4.0,2.0,4.0,0.0,4.0,50.0,,,,,,,,2.0,0.0,0.639342,-0.15918,0.6306149999999999,0.410156,0.941421,-0.316411,-0.154788,-0.035758,-0.031125999999999997,-0.027467000000000002,,,,,,,,,,,,,,,,,,,,,,,,,,,,,,,,,,,,,,,,,,,,,,,,,,,,,,,,,,,,,,,,,
1664,1645584241.899913,1645584241.908276,5.0,0.0,3572.3076170000004,4637.436035,4212.820313,4263.589844,4214.358886999999,450.0,4.0,91.0,,,,0.0,4.0,2.0,4.0,0.0,4.0,50.0,,,,,,,,,,,,,,,,,,,,,,,,,,,,,,,,,,,,,,,,,,,,,,,,,,,,,,,,,,,,,,,,,,,,,,,,,,,,,,,,,,,,
1665,1645584241.907728,1645584241.91609,6.0,0.0,3584.102539,4537.436035,4210.256348,4262.563965,4232.820313,16216.0,4.0,91.0,,,,0.0,4.0,2.0,4.0,0.0,4.0,50.0,,,,,,,,3.0,0.0,0.639342,-0.15918,0.6306149999999999,0.410156,0.9506979999999999,-0.314458,-0.16406500000000002,-0.035894,-0.031089,-0.029799000000000003,,,,,,,,,,,,,,,,,,,,,,,,,,,,,,,,,,,0.0,0.0,1.0,0.0,128.0,0.367539,,,,,,,,,,,,,,,,,,,,,,,,,
1666,1645584241.915542,1645584241.9239051,7.0,0.0,3566.6667479999996,4568.717772999999,4220.512695,4262.563965,4211.282227000001,450.0,4.0,91.0,,,,0.0,4.0,2.0,4.0,0.0,4.0,50.0,,,,,,,,,,,,,,,,,,,,,,,,,,,,,,,,,,,,,,,,,,,,,,,,,,,,,,,,,,,,,,,,,,,,,,,,,,,,,,,,,,,,
1667,1645584241.923357,1645584241.931819,8.0,0.0,3565.1281740000004,4710.256348,4220.512695,4263.077147999999,4176.922852000001,450.0,4.0,91.0,,,,0.0,4.0,2.0,4.0,0.0,4.0,50.0,,,,,,,,4.0,0.0,0.639342,-0.15918,0.6306149999999999,0.410156,0.954116,-0.31201599999999996,-0.147951,-0.035869,-0.031105,-0.025549000000000002,,,,,,,,,,,,,,,,,,,,,,,,,,,,,,,,,,,,,,,,,,,,,,,,,,,,,,,,,,,,,,,,,
1668,1645584241.9311712,1645584241.939733,9.0,0.0,3567.6923829999996,4730.769043,4194.871582,4262.563965,4176.410156,0.0,4.0,91.0,,,,0.0,4.0,2.0,4.0,0.0,4.0,50.0,,,,,,,,,,,,,,,,,,,,,,,,,,,,,,,,,,,,,,,,,,,,,,,,,,,,,,,,,,,,,,,,,,,,,,,,,,,,,,,,,,,,
1669,1645584241.9389858,1645584241.9475482,10.0,0.0,3572.820557,4681.025879,4188.717772999999,4262.563965,4195.897461,450.0,4.0,91.0,,,,0.0,4.0,2.0,4.0,0.0,4.0,50.0,,,,,,,,5.0,0.0,0.639281,-0.159424,0.6306149999999999,0.410156,0.940932,-0.324712,-0.155764,-0.035845999999999996,-0.031022000000000004,-0.021774,,,,,,,,,,,,,,,,,,,,,,,,,,,,,,,,,,,0.0,0.0,1.0,0.0,128.0,0.367539,,,,,,,,,,,,,,,,,,,,,,,,,
1670,1645584241.9468,1645584241.9553618,11.0,0.0,3597.9487299999996,4649.743652,4219.487305,4263.077147999999,4208.205078,16242.0,4.0,91.0,,,,0.0,4.0,2.0,4.0,0.0,4.0,50.0,,,,,,,,,,,,,,,,,,,,,,,,,,,,,,,,,,,,,,,,,,,,,,,,,,,,,,,,,,,,,,,,,,,,,,,,,,,,,,,,,,,,
1671,1645584241.954615,1645584241.963177,12.0,0.0,3614.358887,4688.717772999999,4229.230957,4262.563965,4213.333496,450.0,4.0,91.0,,,,0.0,4.0,2.0,4.0,0.0,4.0,50.0,,,,,,,,6.0,0.0,0.639281,-0.159424,0.6306149999999999,0.410156,0.9511860000000001,-0.316899,-0.154788,-0.035924,-0.030947000000000002,-0.024723,,,,,,,,,,,,,,,,,,,,,,,,,,,,,,,,,,,,,,,,,,,,,,,,,,,,,,,,,,,,,,,,,
1672,1645584241.9624288,1645584241.9709911,13.0,0.0,3607.179443,4755.384765999999,4206.666504,4262.563965,4222.563965,450.0,4.0,91.0,,,,0.0,4.0,2.0,4.0,0.0,4.0,50.0,,,,,,,,,,,,,,,,,,,,,,,,,,,,,,,,,,,,,,,,,,,,,,,,,,,,,,,,,,,,,,,,,,,,,,,,,,,,,,,,,,,,
1673,1645584241.970244,1645584241.978805,14.0,0.0,3611.794922,4707.179688,4196.410156,4264.102539,4218.461426,450.0,4.0,91.0,,,,0.0,4.0,2.0,4.0,0.0,4.0,50.0,,,,,,,,7.0,0.0,0.6394380000000001,-0.159424,0.6306149999999999,0.409912,0.944839,-0.322759,-0.151858,-0.035798,-0.031075,-0.027280000000000002,1.0,0.0,0.0,,,,,,,,,,,,,,,,,,,,,,,,,,,,,,,,0.0,0.0,1.0,0.0,512.0,0.6838,4106.606445,1612.5894779999999,199.589752,14.981392000000001,9.969419,11906.419922,2545.189941,547.4974980000001,87.116196,33.403881,1.745991,1.031031,0.965618,0.7231609999999999,0.990411,26.250935,0.647331,0.305153,0.12883499999999998,0.045867000000000005,1836.667114,44.137516,11.98063,2.523791,3.2362189999999997
1674,1645584241.978058,1645584241.98662,15.0,0.0,3626.1538090000004,4622.563965,4202.05127,4265.128418,4204.102539,16242.0,4.0,91.0,,,,0.0,4.0,2.0,4.0,0.0,4.0,50.0,,,,,,,,,,,,,,,,,,,,,,,,,,,,,,,,,,,,,,,,,,,,,,,,,,,,,,,,,,,,,,,,,,,,,,,,,,,,,,,,,,,,
1675,1645584241.985873,1645584241.9944339,16.0,0.0,3629.743652,4646.153809,4200.512695,4264.615234000001,4209.230957,0.0,4.0,91.0,,,,0.0,4.0,2.0,4.0,0.0,4.0,50.0,,,,,,,,8.0,0.0,0.6394380000000001,-0.159424,0.6306149999999999,0.409912,0.9463030000000001,-0.327642,-0.144045,-0.035733999999999995,-0.031239,-0.023185,,,,,,,,,,,,,,,,,,,,,,,,,,,,,,,,,,,,,,,,,,,,,,,,,,,,,,,,,,,,,,,,,
1676,1645584241.993688,1645584242.002249,17.0,0.0,3631.281982,4689.230957,4199.487305,4263.077147999999,4216.922852000001,0.0,4.0,91.0,,,,0.0,4.0,2.0,4.0,0.0,4.0,50.0,,,,,,,,,,,,,,,,,,,,,,,,,,,,,,,,,,,,,,,,,,,,,,,,,,,,,,,,,,,,,,,,,,,,,,,,,,,,,,,,,,,,
1677,1645584242.001502,1645584242.010163,18.0,0.0,3643.076904,4686.153809,4205.128418,4263.077147999999,4224.615234000001,0.0,4.0,91.0,,,,0.0,4.0,2.0,4.0,0.0,4.0,50.0,,,,,,,,9.0,0.0,0.639353,-0.159424,0.6308590000000001,0.40966800000000003,0.9555809999999999,-0.320317,-0.155764,-0.035774,-0.031143,-0.025798,,,,,,,,,,,,,,,,,,,,,,,,,,,,,,,,,,,0.0,0.0,1.0,0.0,512.0,0.6838,,,,,,,,,,,,,,,,,,,,,,,,,
1678,1645584242.009317,1645584242.017977,19.0,0.0,3659.487061,4664.102539,4212.307617,4263.589844,4229.743652,0.0,4.0,91.0,,,,0.0,4.0,2.0,4.0,0.0,4.0,50.0,,,,,,,,,,,,,,,,,,,,,,,,,,,,,,,,,,,,,,,,,,,,,,,,,,,,,,,,,,,,,,,,,,,,,,,,,,,,,,,,,,,,
1679,1645584242.017131,1645584242.025792,20.0,0.0,3659.487061,4641.538574,4210.256348,4264.102539,4208.717772999999,0.0,4.0,91.0,,,,0.0,4.0,2.0,4.0,0.0,4.0,50.0,,,,,,,,10.0,0.0,0.6394489999999999,-0.159668,0.6308590000000001,0.40942399999999995,0.962417,-0.316899,-0.15674100000000002,-0.035761,-0.031201999999999997,-0.028248000000000002,,,,,,,,,,,,,,,,,,,,,,,,,,,,,,,,,,,,,,,,,,,,,,,,,,,,,,,,,,,,,,,,,
1680,1645584242.0249462,1645584242.033606,21.0,0.0,3634.8718259999996,4675.897461,4194.871582,4263.589844,4188.205078,0.0,4.0,91.0,,,,0.0,4.0,2.0,4.0,0.0,4.0,50.0,,,,,,,,,,,,,,,,,,,,,,,,,,,,,,,,,,,,,,,,,,,,,,,,,,,,,,,,,,,,,,,,,,,,,,,,,,,,,,,,,,,,
1681,1645584242.03276,1645584242.0414212,22.0,0.0,3630.256348,4662.563965,4194.871582,4263.589844,4212.820313,0.0,4.0,91.0,,,,0.0,4.0,2.0,4.0,0.0,4.0,50.0,,,,,,,,11.0,0.0,0.639208,-0.159668,0.631104,0.40942399999999995,0.9643700000000001,-0.300786,-0.160159,-0.03575,-0.031157999999999998,-0.030501,,,,,,,,,,,,,,,,,,,,,,,,,,,,,,,,,,,0.0,0.0,1.0,0.0,512.0,0.6838,,,,,,,,,,,,,,,,,,,,,,,,,
1682,1645584242.040575,1645584242.0492349,23.0,0.0,3659.487061,4568.717772999999,4213.333496,4264.102539,4221.025879,0.0,4.0,91.0,,,,0.0,4.0,2.0,4.0,0.0,4.0,50.0,,,,,,,,,,,,,,,,,,,,,,,,,,,,,,,,,,,,,,,,,,,,,,,,,,,,,,,,,,,,,,,,,,,,,,,,,,,,,,,,,,,,
1683,1645584242.048389,1645584242.057049,24.0,0.0,3669.2307130000004,4574.358886999999,4208.205078,4264.102539,4185.128418,0.0,4.0,91.0,,,,0.0,4.0,2.0,4.0,0.0,4.0,50.0,,,,,,,,12.0,0.0,0.639208,-0.159668,0.631104,0.40942399999999995,0.948257,-0.304204,-0.141604,-0.035593,-0.031168,-0.032529,,,,,,,,,,,,,,,,,,,,,,,,,,,,,,,,,,,,,,,,,,,,,,,,,,,,,,,,,,,,,,,,,
1684,1645584242.0562038,1645584242.0648642,25.0,0.0,3658.974365,4591.282227000001,4183.589844,4263.589844,4196.922852000001,0.0,4.0,91.0,,,,0.0,4.0,2.0,4.0,0.0,4.0,50.0,,,,,,,,,,,,,,,,,,,,,,,,,,,,,,,,,,,,,,,,,,,,,,,,,,,,,,,,,,,,,,,,,,,,,,,,,,,,,,,,,,,,
1685,1645584242.064018,1645584242.0726779,26.0,0.0,3671.794922,4485.641113000001,4196.410156,4264.102539,4231.282227000001,0.0,4.0,91.0,,,,0.0,4.0,2.0,4.0,0.0,4.0,50.0,,,,,,,,13.0,0.0,0.639051,-0.159668,0.631104,0.40966800000000003,0.9506979999999999,-0.30518,-0.160647,-0.035793,-0.031127,-0.028105,,,,,,,,,,,,,,,,,,,,,,,,,,,,,,,,,,,0.0,0.0,1.0,0.0,512.0,0.6838,,,,,,,,,,,,,,,,,,,,,,,,,
1686,1645584242.071833,1645584242.080493,27.0,0.0,3688.718018,4448.717772999999,4217.436035,4265.641113000001,4216.922852000001,0.0,4.0,91.0,,,,0.0,4.0,2.0,4.0,0.0,4.0,50.0,,,,,,,,,,,,,,,,,,,,,,,,,,,,,,,,,,,,,,,,,,,,,,,,,,,,,,,,,,,,,,,,,,,,,,,,,,,,,,,,,,,,
1687,1645584242.079647,1645584242.088407,28.0,0.0,3677.4357909999994,4513.846191,4207.692383,4264.615234000001,4200.512695,0.0,4.0,91.0,,,,0.0,4.0,2.0,4.0,0.0,4.0,50.0,,,,,,,,14.0,0.0,0.639208,-0.159668,0.631104,0.40942399999999995,0.9643700000000001,-0.300786,-0.160159,-0.035778,-0.031091000000000004,-0.030372000000000003,,,,,,,,,,,,,,,,,,,,,,,,,,,,,,,,,,,,,,,,,,,,,,,,,,,,,,,,,,,,,,,,,
1688,1645584242.087462,1645584242.0962212,29.0,0.0,3684.102539,4415.384765999999,4203.077147999999,4263.589844,4212.307617,0.0,4.0,91.0,,,,0.0,4.0,2.0,4.0,0.0,4.0,50.0,,,,,,,,,,,,,,,,,,,,,,,,,,,,,,,,,,,,,,,,,,,,,,,,,,,,,,,,,,,,,,,,,,,,,,,,,,,,,,,,,,,,
1689,1645584242.0952759,1645584242.104136,30.0,0.0,3723.5898439999996,4290.769043,4212.820313,4263.589844,4215.897461,0.0,4.0,91.0,,,,0.0,4.0,2.0,4.0,0.0,4.0,50.0,,,,,,,,15.0,0.0,0.639051,-0.159668,0.631104,0.40966800000000003,0.9506979999999999,-0.30518,-0.160647,-0.03596,-0.031058,-0.026163,1.0,0.0,0.0,,,,,,,,,,,,,,,,,,,,,,,,,,,,,,,,0.0,0.0,1.0,0.0,512.0,1.0,2761.957275,1065.1992189999999,125.002571,10.608164,7.018764999999999,8483.041992,1696.8847660000001,354.361176,62.740826,27.076115,1.4067370000000001,0.999033,0.898875,0.659813,0.9484459999999999,18.357277,0.42348199999999997,0.20587600000000003,0.09121599999999999,0.027548000000000003,1254.614502,29.058267999999998,8.184296,1.932548,2.719086
1690,1645584242.103091,1645584242.11205,31.0,1.0,3724.8718259999996,4319.55127,4208.461426,4263.589844,4217.243652,0.0,4.0,91.0,,,,0.0,4.0,2.0,4.0,0.0,4.0,50.0,,,,,,,,,,,,,,,,,,,,,,,,,,,,,,,,,,,,,,,,,,,,,,,,,,,,,,,,,,,,,,,,,,,,,,,,,,,,,,,,,,,,
1691,1645584242.1109061,1645584242.119864,32.0,1.0,3726.1538090000004,4348.333496,4204.102539,4263.589844,4218.589844,0.0,4.0,91.0,,,,0.0,4.0,2.0,4.0,0.0,4.0,50.0,,,,,,,,16.0,1.0,0.6389130000000001,-0.159668,0.631165,0.40979,0.945815,-0.31006300000000003,-0.157107,-0.035976999999999995,-0.031038,-0.026779,,,,,,,,,,,,,,,,,,,,,,,,,,,,,,,,,,,,,,,,,,,,,,,,,,,,,,,,,,,,,,,,,
1692,1645584242.1187198,1645584242.1276789,33.0,1.0,3727.4357909999994,4377.115234000001,4199.743652,4263.589844,4219.936035,0.0,4.0,91.0,,,,0.0,4.0,2.0,4.0,0.0,4.0,50.0,,,,,,,,,,,,,,,,,,,,,,,,,,,,,,,,,,,,,,,,,,,,,,,,,,,,,,,,,,,,,,,,,,,,,,,,,,,,,,,,,,,,
1693,1645584242.126535,1645584242.135493,34.0,1.0,3728.718018,4405.897461,4195.384765999999,4263.589844,4221.282227000001,0.0,4.0,91.0,,,,0.0,4.0,2.0,4.0,0.0,4.0,50.0,,,,,,,,17.0,1.0,0.638774,-0.159668,0.6312260000000001,0.409912,0.940932,-0.314946,-0.153567,-0.035993,-0.031019,-0.027393999999999998,,,,,,,,,,,,,,,,,,,,,,,,,,,,,,,,,,,0.0,0.0,1.0,0.0,512.0,1.0,,,,,,,,,,,,,,,,,,,,,,,,,
1694,1645584242.134349,1645584242.143307,35.0,1.0,3730.0,4434.679688,4191.025879,4263.589844,4222.628418,0.0,4.0,91.0,,,,0.0,4.0,2.0,4.0,0.0,4.0,50.0,,,,,,,,,,,,,,,,,,,,,,,,,,,,,,,,,,,,,,,,,,,,,,,,,,,,,,,,,,,,,,,,,,,,,,,,,,,,,,,,,,,,
1695,1645584242.142164,1645584242.151122,36.0,1.0,3731.281982,4463.461426,4186.666504,4263.589844,4223.974121,0.0,4.0,91.0,,,,0.0,4.0,2.0,4.0,0.0,4.0,50.0,,,,,,,,18.0,1.0,0.6386350000000001,-0.159668,0.631287,0.410034,0.936049,-0.319829,-0.150027,-0.03601,-0.030999000000000002,-0.028010000000000004,,,,,,,,,,,,,,,,,,,,,,,,,,,,,,,,,,,,,,,,,,,,,,,,,,,,,,,,,,,,,,,,,
1696,1645584242.149978,1645584242.158936,37.0,1.0,3732.5642090000006,4492.243652,4182.307617,4263.589844,4225.320313,0.0,4.0,91.0,,,,0.0,4.0,2.0,4.0,0.0,4.0,50.0,,,,,,,,,,,,,,,,,,,,,,,,,,,,,,,,,,,,,,,,,,,,,,,,,,,,,,,,,,,,,,,,,,,,,,,,,,,,,,,,,,,,
1697,1645584242.157793,1645584242.166751,38.0,0.0,3733.8461909999996,4521.025879,4177.94873,4263.589844,4226.666504,0.0,4.0,91.0,,,,0.0,4.0,2.0,4.0,0.0,4.0,50.0,,,,,,,,19.0,0.0,0.638497,-0.159668,0.6313479999999999,0.410156,0.931167,-0.324712,-0.14648699999999998,-0.036026999999999997,-0.030979000000000003,-0.028625,,,,,,,,,,,,,,,,,,,,,,,,,,,,,,,,,,,0.0,0.0,1.0,0.0,512.0,1.0,,,,,,,,,,,,,,,,,,,,,,,,,
1698,1645584242.165607,1645584242.174565,39.0,0.0,3742.5642090000006,4507.179688,4179.487305,4264.102539,4236.922852000001,0.0,4.0,91.0,,,,0.0,4.0,2.0,4.0,0.0,4.0,50.0,,,,,,,,,,,,,,,,,,,,,,,,,,,,,,,,,,,,,,,,,,,,,,,,,,,,,,,,,,,,,,,,,,,,,,,,,,,,,,,,,,,,
1699,1645584242.173422,1645584242.18228,40.0,0.0,3783.076904,4518.974121,4190.256348,4264.102539,4227.179688,0.0,4.0,91.0,,,,0.0,4.0,2.0,4.0,0.0,4.0,50.0,,,,,,,,20.0,0.0,0.638401,-0.159424,0.6313479999999999,0.4104,0.944839,-0.332036,-0.15332300000000001,-0.03594,-0.031006,-0.024638999999999998,,,,,,,,,,,,,,,,,,,,,,,,,,,,,,,,,,,,,,,,,,,,,,,,,,,,,,,,,,,,,,,,,
1700,1645584242.181237,1645584242.190094,41.0,0.0,3780.512939,4615.897461,4180.512695,4264.102539,4208.205078,0.0,4.0,91.0,,,,0.0,4.0,2.0,4.0,0.0,4.0,50.0,,,,,,,,,,,,,,,,,,,,,,,,,,,,,,,,,,,,,,,,,,,,,,,,,,,,,,,,,,,,,,,,,,,,,,,,,,,,,,,,,,,,
1701,1645584242.189051,1645584242.197908,42.0,0.0,3767.6923829999996,4655.897461,4182.05127,4264.102539,4216.410156,0.0,4.0,91.0,,,,0.0,4.0,2.0,4.0,0.0,4.0,50.0,,,,,,,,21.0,0.0,0.638401,-0.159424,0.6313479999999999,0.4104,0.9546040000000001,-0.31006300000000003,-0.153811,-0.035910000000000004,-0.031129,-0.027254,,,,,,,,,,,,,,,,,,,,,,,,,,,,,,,,,,,0.0,0.0,1.0,0.0,512.0,1.0,,,,,,,,,,,,,,,,,,,,,,,,,
1702,1645584242.196866,1645584242.205723,43.0,0.0,3792.3076170000004,4595.384765999999,4195.384765999999,4264.102539,4233.846191,0.0,4.0,91.0,,,,0.0,4.0,2.0,4.0,0.0,4.0,50.0,,,,,,,,,,,,,,,,,,,,,,,,,,,,,,,,,,,,,,,,,,,,,,,,,,,,,,,,,,,,,,,,,,,,,,,,,,,,,,,,,,,,
1703,1645584242.20468,1645584242.213537,44.0,0.0,3819.487061,4582.05127,4182.563965,4264.102539,4241.025879,0.0,4.0,91.0,,,,0.0,4.0,2.0,4.0,0.0,4.0,50.0,,,,,,,,22.0,0.0,0.638401,-0.159424,0.6313479999999999,0.4104,0.940932,-0.33105999999999997,-0.14551,-0.035884,-0.03119,-0.029460000000000004,,,,,,,,,,,,,,,,,,,,,,,,,,,,,,,,,,,,,,,,,,,,,,,,,,,,,,,,,,,,,,,,,
1704,1645584242.2124949,1645584242.221252,45.0,0.0,3827.6923829999996,4620.0,4180.512695,4264.102539,4237.94873,0.0,4.0,91.0,,,,0.0,4.0,2.0,4.0,0.0,4.0,50.0,,,,,,,,,,,,,,,,,,,,,,,,,,,,,,,,,,,,,,,,,,,,,,,,,,,,,,,,,,,,,,,,,,,,,,,,,,,,,,,,,,,,
1705,1645584242.220309,1645584242.2290661,46.0,0.0,3826.1538090000004,4609.230957,4195.384765999999,4264.102539,4239.487305,0.0,4.0,91.0,,,,0.0,4.0,2.0,4.0,0.0,4.0,50.0,,,,,,,,23.0,0.0,0.638305,-0.15918,0.6313479999999999,0.410645,0.948257,-0.344244,-0.156252,-0.035762,-0.031049,-0.025293,1.0,0.0,0.0,,,,,,,,,,,,,,,,,,,,,,,,,,,,,,,,0.0,0.0,1.0,0.0,512.0,1.0,1536.082764,567.256104,62.537006000000005,6.575444,4.595492,4979.464844,923.642273,191.24250800000002,44.171906,21.859157999999997,1.0860379999999998,0.969548,0.792343,0.595008,0.932016,10.494317,0.22592399999999999,0.116023,0.056534,0.016012000000000002,695.123413,16.185028,4.965007,1.483503,2.314738
1706,1645584242.2281241,1645584242.236881,47.0,0.0,3822.5642090000006,4647.692383,4187.692383,4263.589844,4244.615234000001,0.0,4.0,91.0,,,,0.0,4.0,2.0,4.0,0.0,4.0,50.0,,,,,,,,,,,,,,,,,,,,,,,,,,,,,,,,,,,,,,,,,,,,,,,,,,,,,,,,,,,,,,,,,,,,,,,,,,,,,,,,,,,,
1707,1645584242.235938,1645584242.244695,48.0,0.0,3822.5642090000006,4724.615234000001,4173.333496,4264.102539,4228.717772999999,0.0,4.0,91.0,,,,0.0,4.0,2.0,4.0,0.0,4.0,50.0,,,,,,,,24.0,0.0,0.638305,-0.15918,0.6313479999999999,0.410645,0.9463030000000001,-0.32227100000000003,-0.14844000000000002,-0.035604000000000004,-0.031069,-0.027842000000000002,,,,,,,,,,,,,,,,,,,,,,,,,,,,,,,,,,,,,,,,,,,,,,,,,,,,,,,,,,,,,,,,,
1708,1645584242.243753,1645584242.2525089,49.0,0.0,3830.7692869999996,4687.692383,4182.05127,4264.102539,4215.384765999999,0.0,4.0,91.0,,,,0.0,4.0,2.0,4.0,0.0,4.0,50.0,,,,,,,,,,,,,,,,,,,,,,,,,,,,,,,,,,,,,,,,,,,,,,,,,,,,,,,,,,,,,,,,,,,,,,,,,,,,,,,,,,,,
1709,1645584242.251567,1645584242.260324,50.0,0.0,3843.076904,4603.077147999999,4195.897461,4264.102539,4238.461426,0.0,4.0,91.0,,,,0.0,4.0,2.0,4.0,0.0,4.0,50.0,,,,,,,,25.0,0.0,0.638305,-0.15918,0.6313479999999999,0.410645,0.937026,-0.32959499999999997,-0.151858,-0.035754,-0.031087,-0.02374,,,,,,,,,,,,,,,,,,,,,,,,,,,,,,,,,,,0.0,0.0,1.0,0.0,512.0,1.0,,,,,,,,,,,,,,,,,,,,,,,,,
1710,1645584242.259382,1645584242.2681382,51.0,0.0,3842.0512700000004,4591.282227000001,4197.436035,4264.102539,4235.384765999999,0.0,4.0,91.0,,,,0.0,4.0,2.0,4.0,0.0,4.0,50.0,,,,,,,,,,,,,,,,,,,,,,,,,,,,,,,,,,,,,,,,,,,,,,,,,,,,,,,,,,,,,,,,,,,,,,,,,,,,,,,,,,,,
1711,1645584242.2671971,1645584242.2759528,52.0,0.0,3839.487061,4632.820313,4190.769043,4264.102539,4202.563965,0.0,4.0,91.0,,,,0.0,4.0,2.0,4.0,0.0,4.0,50.0,,,,,,,,26.0,0.0,0.638305,-0.15918,0.6313479999999999,0.410645,0.9428850000000001,-0.323735,-0.160159,-0.035792000000000004,-0.030957,-0.026444,,,,,,,,,,,,,,,,,,,,,,,,,,,,,,,,,,,,,,,,,,,,,,,,,,,,,,,,,,,,,,,,,
1712,1645584242.2750108,1645584242.283767,53.0,0.0,3849.2307130000004,4649.743652,4180.0,4264.102539,4204.615234000001,0.0,4.0,91.0,,,,0.0,4.0,2.0,4.0,0.0,4.0,50.0,,,,,,,,,,,,,,,,,,,,,,,,,,,,,,,,,,,,,,,,,,,,,,,,,,,,,,,,,,,,,,,,,,,,,,,,,,,,,,,,,,,,
1713,1645584242.282826,1645584242.2915812,54.0,0.0,3849.743652,4647.692383,4177.436035,4264.102539,4205.128418,0.0,4.0,91.0,,,,0.0,4.0,2.0,4.0,0.0,4.0,50.0,,,,,,,,27.0,0.0,0.6384850000000001,-0.159424,0.631104,0.410645,0.9365379999999999,-0.320806,-0.166506,-0.035778,-0.031035000000000004,-0.02878,,,,,,,,,,,,,,,,,,,,,,,,,,,,,,,,,,,0.0,0.0,1.0,0.0,512.0,1.0,,,,,,,,,,,,,,,,,,,,,,,,,
1714,1645584242.29064,1645584242.2992961,55.0,0.0,3841.538574,4684.615234000001,4177.436035,4264.102539,4206.666504,0.0,4.0,91.0,,,,0.0,4.0,2.0,4.0,0.0,4.0,50.0,,,,,,,,,,,,,,,,,,,,,,,,,,,,,,,,,,,,,,,,,,,,,,,,,,,,,,,,,,,,,,,,,,,,,,,,,,,,,,,,,,,,
1715,1645584242.298455,1645584242.30711,56.0,0.0,3861.025635,4727.179688,4187.179688,4264.102539,4238.461426,0.0,4.0,91.0,,,,0.0,4.0,2.0,4.0,0.0,4.0,50.0,,,,,,,,28.0,0.0,0.638642,-0.159424,0.631104,0.4104,0.941421,-0.32227100000000003,-0.163577,-0.035862,-0.031106,-0.024681,,,,,,,,,,,,,,,,,,,,,,,,,,,,,,,,,,,,,,,,,,,,,,,,,,,,,,,,,,,,,,,,,
1716,1645584242.306269,1645584242.314925,57.0,0.0,3878.461426,4719.487305,4197.94873,4264.102539,4244.615234000001,0.0,4.0,91.0,,,,0.0,4.0,2.0,4.0,0.0,4.0,50.0,,,,,,,,,,,,,,,,,,,,,,,,,,,,,,,,,,,,,,,,,,,,,,,,,,,,,,,,,,,,,,,,,,,,,,,,,,,,,,,,,,,,
1717,1645584242.314084,1645584242.3227391,58.0,0.0,3855.897461,4715.897461,4187.692383,4264.102539,4224.615234000001,0.0,4.0,91.0,,,,0.0,4.0,2.0,4.0,0.0,4.0,50.0,,,,,,,,29.0,0.0,0.6385810000000001,-0.159668,0.631104,0.4104,0.957534,-0.326665,-0.160647,-0.035889,-0.031169,-0.021041,,,,,,,,,,,,,,,,,,,,,,,,,,,,,,,,,,,0.0,0.0,1.0,0.0,512.0,1.0,,,,,,,,,,,,,,,,,,,,,,,,,
1718,1645584242.321898,1645584242.330554,59.0,0.0,3863.5898439999996,4747.692383,4184.615234000001,4264.102539,4234.871582,0.0,4.0,91.0,,,,0.0,4.0,2.0,4.0,0.0,4.0,50.0,,,,,,,,,,,,,,,,,,,,,,,,,,,,,,,,,,,,,,,,,,,,,,,,,,,,,,,,,,,,,,,,,,,,,,,,,,,,,,,,,,,,
1719,1645584242.329713,1645584242.338368,60.0,0.0,3889.743652,4706.153809,4191.282227000001,4264.102539,4253.333496,0.0,4.0,91.0,,,,0.0,4.0,2.0,4.0,0.0,4.0,50.0,,,,,,,,30.0,0.0,0.6385810000000001,-0.159668,0.631104,0.4104,0.9550930000000001,-0.316411,-0.150393,-0.035962,-0.031127999999999996,-0.024064,,,,,,,,,,,,,,,,,,,,,,,,,,,,,,,,,,,,,,,,,,,,,,,,,,,,,,,,,,,,,,,,,
1720,1645584242.337527,1645584242.346182,61.0,0.0,3881.538574,4617.94873,4178.461426,4264.102539,4242.563965,0.0,4.0,91.0,,,,0.0,4.0,2.0,4.0,0.0,4.0,50.0,,,,,,,,,,,,,,,,,,,,,,,,,,,,,,,,,,,,,,,,,,,,,,,,,,,,,,,,,,,,,,,,,,,,,,,,,,,,,,,,,,,,
1721,1645584242.345342,1645584242.353997,62.0,0.0,3884.615479,4612.307617,4173.333496,4264.102539,4235.384765999999,0.0,4.0,91.0,,,,0.0,4.0,2.0,4.0,0.0,4.0,50.0,0.972656,0.0,0.0,0.0,4.0,0.0,1.0,31.0,0.0,0.63852,-0.159912,0.631104,0.4104,0.9355610000000001,-0.322759,-0.155764,-0.03598,-0.031141000000000002,-0.026736000000000003,1.0,0.0,0.0,,,,,,,,,,,,,,,,,,,,,,,,,,,,,,,,0.0,0.0,1.0,0.0,512.0,1.0,687.493225,226.291458,23.407055,3.804846,3.123869,2287.850342,395.192566,87.90921800000001,33.690269,19.149063,0.877662,0.9439799999999999,0.6767770000000001,0.547177,0.935407,4.61774,0.094532,0.052087,0.030688,0.009781999999999999,292.794159,7.929410000000001,2.8128330000000004,1.239832,2.088175
1722,1645584242.353156,1645584242.361711,63.0,0.0,3912.820557,4642.563965,4193.846191,4264.102539,4251.282227000001,0.0,4.0,91.0,,,,0.0,4.0,2.0,4.0,0.0,4.0,50.0,,,,,,,,,,,,,,,,,,,,,,,,,,,,,,,,,,,,,,,,,,,,,,,,,,,,,,,,,,,,,,,,,,,,,,,,,,,,,,,,,,,,
1723,1645584242.3609712,1645584242.369526,64.0,0.0,3918.974365,4642.563965,4195.384765999999,4264.102539,4256.922852000001,450.0,4.0,91.0,,,,0.0,4.0,2.0,4.0,0.0,4.0,50.0,,,,,,,,32.0,0.0,0.63852,-0.159912,0.631104,0.4104,0.9433739999999999,-0.313481,-0.146975,-0.036044,-0.031005,-0.022938999999999998,,,,,,,,,,,,,,,,,,,,,,,,,,,,,,,,,,,,,,,,,,,,,,,,,,,,,,,,,,,,,,,,,
1724,1645584242.3687859,1645584242.37734,65.0,0.0,3911.794922,4627.179688,4184.102539,4264.102539,4236.922852000001,450.0,4.0,91.0,,,,0.0,4.0,2.0,4.0,0.0,4.0,50.0,,,,,,,,,,,,,,,,,,,,,,,,,,,,,,,,,,,,,,,,,,,,,,,,,,,,,,,,,,,,,,,,,,,,,,,,,,,,,,,,,,,,
1725,1645584242.3766,1645584242.385155,66.0,0.0,3928.205078,4616.410156,4193.846191,4264.102539,4225.641113000001,16220.0,4.0,91.0,,,,0.0,4.0,2.0,4.0,0.0,4.0,50.0,,,,,,,,33.0,0.0,0.63852,-0.159912,0.631104,0.4104,0.946792,-0.327642,-0.15332300000000001,-0.036101999999999995,-0.031077999999999998,-0.025675,,,,,,,,,,,,,,,,,,,,,,,,,,,,,,,,,,,0.0,0.0,1.0,0.0,512.0,1.0,,,,,,,,,,,,,,,,,,,,,,,,,
1726,1645584242.3844151,1645584242.392969,67.0,0.0,3953.8461909999996,4618.461426,4195.384765999999,4264.102539,4248.205078,450.0,4.0,91.0,,,,0.0,4.0,2.0,4.0,0.0,4.0,50.0,,,,,,,,,,,,,,,,,,,,,,,,,,,,,,,,,,,,,,,,,,,,,,,,,,,,,,,,,,,,,,,,,,,,,,,,,,,,,,,,,,,,
1727,1645584242.3922288,1645584242.400783,68.0,0.0,3966.1538090000004,4638.974121,4186.666504,4264.102539,4252.307617,190.0,4.0,91.0,,,,0.0,4.0,2.0,4.0,0.0,4.0,50.0,,,,,,,,34.0,0.0,0.638279,-0.159912,0.6313479999999999,0.4104,0.9404440000000001,-0.335943,-0.139651,-0.036105,-0.031096,-0.028234,,,,,,,,,,,,,,,,,,,,,,,,,,,,,,,,,,,,,,,,,,,,,,,,,,,,,,,,,,,,,,,,,
1728,1645584242.400044,1645584242.408598,69.0,0.0,3943.5898439999996,4660.0,4190.769043,4264.102539,4235.897461,450.0,4.0,91.0,,,,0.0,4.0,2.0,4.0,0.0,4.0,50.0,,,,,,,,,,,,,,,,,,,,,,,,,,,,,,,,,,,,,,,,,,,,,,,,,,,,,,,,,,,,,,,,,,,,,,,,,,,,,,,,,,,,
1729,1645584242.407858,1645584242.4164119,70.0,0.0,3922.5642090000006,4657.436035,4195.897461,4264.102539,4249.743652,16193.0,4.0,91.0,,,,0.0,4.0,2.0,4.0,0.0,4.0,50.0,,,,,,,,35.0,0.0,0.6381220000000001,-0.159912,0.6313479999999999,0.410645,0.9521629999999999,-0.308598,-0.156252,-0.035961,-0.031208999999999997,-0.030489,,,,,,,,,,,,,,,,,,,,,,,,,,,,,,,,,,,0.0,0.0,1.0,0.0,512.0,1.0,,,,,,,,,,,,,,,,,,,,,,,,,
1730,1645584242.415673,1645584242.424227,71.0,0.0,3943.076904,4622.05127,4189.230957,4264.102539,4260.512695,450.0,4.0,91.0,,,,0.0,4.0,2.0,4.0,0.0,4.0,50.0,,,,,,,,,,,,,,,,,,,,,,,,,,,,,,,,,,,,,,,,,,,,,,,,,,,,,,,,,,,,,,,,,,,,,,,,,,,,,,,,,,,,
1731,1645584242.423487,1645584242.432041,72.0,0.0,3951.281982,4566.153809,4178.461426,4264.102539,4229.743652,450.0,4.0,91.0,,,,0.0,4.0,2.0,4.0,0.0,4.0,50.0,,,,,,,,36.0,0.0,0.638183,-0.159668,0.6313479999999999,0.410645,0.934585,-0.330083,-0.151858,-0.035929,-0.031163999999999997,-0.026122000000000003,,,,,,,,,,,,,,,,,,,,,,,,,,,,,,,,,,,,,,,,,,,,,,,,,,,,,,,,,,,,,,,,,
1732,1645584242.431302,1645584242.439755,73.0,0.0,3951.794922,4570.769043,4179.487305,4264.102539,4220.0,0.0,4.0,91.0,,,,0.0,4.0,2.0,4.0,0.0,4.0,50.0,,,,,,,,,,,,,,,,,,,,,,,,,,,,,,,,,,,,,,,,,,,,,,,,,,,,,,,,,,,,,,,,,,,,,,,,,,,,,,,,,,,,
1733,1645584242.439117,1645584242.4475698,74.0,0.0,3975.897461,4630.256348,4189.230957,4264.102539,4256.922852000001,450.0,4.0,91.0,,,,0.0,4.0,2.0,4.0,0.0,4.0,50.0,,,,,,,,37.0,0.0,0.638183,-0.159668,0.6313479999999999,0.410645,0.945815,-0.31543499999999997,-0.154299,-0.03595,-0.03127,-0.028489999999999998,,,,,,,,,,,,,,,,,,,,,,,,,,,,,,,,,,,0.0,0.0,1.0,0.0,512.0,1.0,,,,,,,,,,,,,,,,,,,,,,,,,
1734,1645584242.4469311,1645584242.455384,75.0,0.0,3985.1281740000004,4665.128418,4198.461426,4264.102539,4261.538574,16214.0,4.0,91.0,,,,0.0,4.0,2.0,4.0,0.0,4.0,50.0,,,,,,,,,,,,,,,,,,,,,,,,,,,,,,,,,,,,,,,,,,,,,,,,,,,,,,,,,,,,,,,,,,,,,,,,,,,,,,,,,,,,
1735,1645584242.454746,1645584242.4631991,76.0,0.0,3968.205078,4685.128418,4194.358886999999,4264.102539,4238.974121,450.0,4.0,91.0,,,,0.0,4.0,2.0,4.0,0.0,4.0,50.0,,,,,,,,38.0,0.0,0.6381220000000001,-0.159912,0.6313479999999999,0.410645,0.9521629999999999,-0.308598,-0.156252,-0.035822,-0.031366000000000005,-0.030719,,,,,,,,,,,,,,,,,,,,,,,,,,,,,,,,,,,,,,,,,,,,,,,,,,,,,,,,,,,,,,,,,
1736,1645584242.46256,1645584242.471013,77.0,0.0,3958.461426,4709.743652,4181.538574,4264.102539,4237.94873,450.0,4.0,91.0,,,,0.0,4.0,2.0,4.0,0.0,4.0,50.0,,,,,,,,,,,,,,,,,,,,,,,,,,,,,,,,,,,,,,,,,,,,,,,,,,,,,,,,,,,,,,,,,,,,,,,,,,,,,,,,,,,,
1737,1645584242.470375,1645584242.478828,78.0,0.0,3967.179443,4685.128418,4177.436035,4264.102539,4230.256348,450.0,4.0,91.0,,,,0.0,4.0,2.0,4.0,0.0,4.0,50.0,,,,,,,,39.0,0.0,0.6382439999999999,-0.159424,0.6313479999999999,0.410645,0.9423969999999999,-0.316899,-0.148928,-0.035901999999999996,-0.031306,-0.026427,1.0,0.0,0.0,,,,,,,,,,,,,,,,,,,,,,,,,,,,,,,,0.0,0.0,1.0,0.0,512.0,1.0,240.31082200000003,59.01747099999999,6.347568,2.444109,2.52242,774.661011,139.414429,41.166683,29.254385,18.934288000000002,0.7817,0.9156129999999999,0.577281,0.528656,0.944996,1.3819700000000001,0.031431,0.017834,0.015197,0.0065260000000000006,81.57914,4.227082,1.668957,1.179654,2.006246
1738,1645584242.478189,1645584242.486642,79.0,0.0,3979.487061,4616.922852000001,4187.179688,4264.102539,4224.102539,16214.0,4.0,91.0,,,,0.0,4.0,2.0,4.0,0.0,4.0,50.0,,,,,,,,,,,,,,,,,,,,,,,,,,,,,,,,,,,,,,,,,,,,,,,,,,,,,,,,,,,,,,,,,,,,,,,,,,,,,,,,,,,,
1739,1645584242.4860039,1645584242.494456,80.0,0.0,3981.538574,4625.641113000001,4195.897461,4264.102539,4245.641113000001,450.0,4.0,91.0,,,,0.0,4.0,2.0,4.0,0.0,4.0,50.0,,,,,,,,40.0,0.0,0.638087,-0.159424,0.6313479999999999,0.41088900000000006,0.9463030000000001,-0.330083,-0.148928,-0.035778,-0.031349,-0.028716000000000002,,,,,,,,,,,,,,,,,,,,,,,,,,,,,,,,,,,,,,,,,,,,,,,,,,,,,,,,,,,,,,,,,
1740,1645584242.493818,1645584242.502171,81.0,0.0,3967.6923829999996,4689.743652,4182.563965,4264.102539,4245.641113000001,450.0,4.0,91.0,,,,0.0,4.0,2.0,4.0,0.0,4.0,50.0,,,,,,,,,,,,,,,,,,,,,,,,,,,,,,,,,,,,,,,,,,,,,,,,,,,,,,,,,,,,,,,,,,,,,,,,,,,,,,,,,,,,
1741,1645584242.501633,1645584242.509985,82.0,0.0,3960.512939,4658.461426,4172.820313,4264.102539,4216.922852000001,450.0,4.0,91.0,,,,0.0,4.0,2.0,4.0,0.0,4.0,50.0,,,,,,,,41.0,0.0,0.638087,-0.159424,0.6313479999999999,0.41088900000000006,0.9355610000000001,-0.313481,-0.14551,-0.035716000000000005,-0.031339,-0.024672,,,,,,,,,,,,,,,,,,,,,,,,,,,,,,,,,,,0.0,0.0,1.0,0.0,512.0,1.0,,,,,,,,,,,,,,,,,,,,,,,,,
1742,1645584242.509447,1645584242.5178,83.0,0.0,3968.205078,4554.358886999999,4188.205078,4264.102539,4220.0,16214.0,4.0,91.0,,,,0.0,4.0,2.0,4.0,0.0,4.0,50.0,,,,,,,,,,,,,,,,,,,,,,,,,,,,,,,,,,,,,,,,,,,,,,,,,,,,,,,,,,,,,,,,,,,,,,,,,,,,,,,,,,,,
1743,1645584242.517262,1645584242.525614,84.0,0.0,3970.256348,4564.102539,4193.846191,4264.102539,4246.666504,450.0,4.0,91.0,,,,0.0,4.0,2.0,4.0,0.0,4.0,50.0,,,,,,,,42.0,0.0,0.638328,-0.159424,0.631104,0.41088900000000006,0.949722,-0.323735,-0.154788,-0.035856,-0.031281,-0.027282999999999998,,,,,,,,,,,,,,,,,,,,,,,,,,,,,,,,,,,,,,,,,,,,,,,,,,,,,,,,,,,,,,,,,
1744,1645584242.5250769,1645584242.533428,85.0,0.0,3985.641113,4641.025879,4180.0,4263.589844,4245.128418,450.0,4.0,91.0,,,,0.0,4.0,2.0,4.0,0.0,4.0,50.0,,,,,,,,,,,,,,,,,,,,,,,,,,,,,,,,,,,,,,,,,,,,,,,,,,,,,,,,,,,,,,,,,,,,,,,,,,,,,,,,,,,,
1745,1645584242.532891,1645584242.541243,86.0,0.0,3996.923096,4604.102539,4176.922852000001,4264.102539,4230.769043,450.0,4.0,91.0,,,,0.0,4.0,2.0,4.0,0.0,4.0,50.0,,,,,,,,43.0,0.0,0.638328,-0.159424,0.631104,0.41088900000000006,0.9463030000000001,-0.32861799999999997,-0.161624,-0.035786,-0.03123,-0.029633,,,,,,,,,,,,,,,,,,,,,,,,,,,,,,,,,,,0.0,0.0,1.0,0.0,512.0,1.0,,,,,,,,,,,,,,,,,,,,,,,,,
1746,1645584242.5407062,1645584242.549057,87.0,0.0,3975.384521,4538.974121,4185.128418,4264.102539,4232.820313,16214.0,4.0,91.0,,,,0.0,4.0,2.0,4.0,0.0,4.0,50.0,,,,,,,,,,,,,,,,,,,,,,,,,,,,,,,,,,,,,,,,,,,,,,,,,,,,,,,,,,,,,,,,,,,,,,,,,,,,,,,,,,,,
1747,1645584242.5485198,1645584242.5568721,88.0,0.0,3970.7692869999996,4538.461426,4186.153809,4263.589844,4240.512695,450.0,4.0,91.0,,,,0.0,4.0,2.0,4.0,0.0,4.0,50.0,,,,,,,,44.0,0.0,0.638328,-0.159424,0.631104,0.41088900000000006,0.9428850000000001,-0.335943,-0.15820599999999999,-0.035772000000000005,-0.031134,-0.031797000000000006,,,,,,,,,,,,,,,,,,,,,,,,,,,,,,,,,,,,,,,,,,,,,,,,,,,,,,,,,,,,,,,,,
1748,1645584242.556335,1645584242.5646858,89.0,0.0,3993.3332520000004,4547.179688,4182.05127,4263.589844,4241.025879,450.0,4.0,91.0,,,,0.0,4.0,2.0,4.0,0.0,4.0,50.0,,,,,,,,,,,,,,,,,,,,,,,,,,,,,,,,,,,,,,,,,,,,,,,,,,,,,,,,,,,,,,,,,,,,,,,,,,,,,,,,,,,,
1749,1645584242.5641491,1645584242.572501,90.0,0.0,4019.487061,4547.179688,4196.410156,4265.128418,4246.666504,450.0,4.0,91.0,,,,0.0,4.0,2.0,4.0,0.0,4.0,50.0,,,,,,,,45.0,0.0,0.638232,-0.15918,0.631104,0.41113299999999997,0.9433739999999999,-0.334966,-0.158694,-0.035759,-0.031097000000000003,-0.027395999999999997,,,,,,,,,,,,,,,,,,,,,,,,,,,,,,,,,,,0.0,0.0,1.0,0.0,512.0,1.0,,,,,,,,,,,,,,,,,,,,,,,,,
1750,1645584242.571964,1645584242.580315,91.0,0.0,4032.820557,4497.436035,4212.820313,4265.128418,4260.0,16214.0,4.0,91.0,,,,0.0,4.0,2.0,4.0,0.0,4.0,50.0,,,,,,,,,,,,,,,,,,,,,,,,,,,,,,,,,,,,,,,,,,,,,,,,,,,,,,,,,,,,,,,,,,,,,,,,,,,,,,,,,,,,
1751,1645584242.579778,1645584242.588029,92.0,0.0,4014.358887,4452.307617,4212.820313,4264.615234000001,4255.384765999999,450.0,4.0,91.0,,,,0.0,4.0,2.0,4.0,0.0,4.0,50.0,,,,,,,,46.0,0.0,0.638473,-0.15918,0.6308590000000001,0.41113299999999997,0.9423969999999999,-0.320806,-0.14941600000000002,-0.035845,-0.031014,-0.029783999999999998,,,,,,,,,,,,,,,,,,,,,,,,,,,,,,,,,,,,,,,,,,,,,,,,,,,,,,,,,,,,,,,,,
1752,1645584242.587593,1645584242.595844,93.0,0.0,4001.025635,4523.589844,4197.94873,4265.128418,4243.077147999999,450.0,4.0,91.0,,,,0.0,4.0,2.0,4.0,0.0,4.0,50.0,,,,,,,,,,,,,,,,,,,,,,,,,,,,,,,,,,,,,,,,,,,,,,,,,,,,,,,,,,,,,,,,,,,,,,,,,,,,,,,,,,,,
1753,1645584242.595407,1645584242.603658,94.0,0.0,4017.9487299999996,4600.0,4190.769043,4266.153809,4232.820313,450.0,4.0,91.0,,,,0.0,4.0,2.0,4.0,0.0,4.0,50.0,,,,,,,,47.0,0.0,0.638534,-0.158936,0.6308590000000001,0.41113299999999997,0.949722,-0.321782,-0.155764,-0.035776,-0.030989,-0.031883999999999996,1.0,0.0,0.0,,,,,,,,,,,,,,,,,,,,,,,,,,,,,,,,0.0,0.0,1.0,0.0,512.0,1.0,65.881035,8.806775,2.041601,2.0070259999999998,2.3849,216.09735099999997,65.68089300000001,27.074177000000002,26.963274,20.019497,0.787617,0.8716389999999999,0.501266,0.541175,0.946225,0.22445,0.012123,0.0053939999999999995,0.007884,0.004635,11.996044,3.251337,1.153931,1.229484,1.978459
1754,1645584242.6032221,1645584242.611473,95.0,0.0,4022.5642090000006,4550.256348,4198.461426,4265.641113000001,4232.307617,16214.0,4.0,91.0,,,,0.0,4.0,2.0,4.0,0.0,4.0,50.0,,,,,,,,,,,,,,,,,,,,,,,,,,,,,,,,,,,,,,,,,,,,,,,,,,,,,,,,,,,,,,,,,,,,,,,,,,,,,,,,,,,,
1755,1645584242.6110358,1645584242.619287,96.0,0.0,4017.9487299999996,4523.077147999999,4203.589844,4265.641113000001,4251.282227000001,450.0,4.0,91.0,,,,0.0,4.0,2.0,4.0,0.0,4.0,50.0,,,,,,,,48.0,0.0,0.638534,-0.158936,0.6308590000000001,0.41113299999999997,0.9365379999999999,-0.3252,-0.150393,-0.035812000000000004,-0.031014999999999997,-0.033676,,,,,,,,,,,,,,,,,,,,,,,,,,,,,,,,,,,,,,,,,,,,,,,,,,,,,,,,,,,,,,,,,
1756,1645584242.618851,1645584242.627101,97.0,0.0,4045.641113,4546.153809,4206.153809,4265.641113000001,4253.333496,450.0,4.0,91.0,,,,0.0,4.0,2.0,4.0,0.0,4.0,50.0,,,,,,,,,,,,,,,,,,,,,,,,,,,,,,,,,,,,,,,,,,,,,,,,,,,,,,,,,,,,,,,,,,,,,,,,,,,,,,,,,,,,
1757,1645584242.626665,1645584242.634916,98.0,0.0,4055.897461,4489.743652,4204.615234000001,4265.641113000001,4244.615234000001,450.0,4.0,91.0,,,,0.0,4.0,2.0,4.0,0.0,4.0,50.0,,,,,,,,49.0,0.0,0.6387520000000001,-0.158691,0.6308590000000001,0.41088900000000006,0.9511860000000001,-0.330083,-0.153811,-0.035795,-0.031088,-0.029088,,,,,,,,,,,,,,,,,,,,,,,,,,,,,,,,,,,0.0,0.0,1.0,0.0,512.0,1.0,,,,,,,,,,,,,,,,,,,,,,,,,
1758,1645584242.63448,1645584242.64273,99.0,0.0,4043.076904,4440.0,4200.512695,4265.641113000001,4251.282227000001,16214.0,4.0,91.0,,,,0.0,4.0,2.0,4.0,0.0,4.0,50.0,,,,,,,,,,,,,,,,,,,,,,,,,,,,,,,,,,,,,,,,,,,,,,,,,,,,,,,,,,,,,,,,,,,,,,,,,,,,,,,,,,,,
1759,1645584242.642295,1645584242.650545,100.0,0.0,4049.743652,4485.641113000001,4191.794922,4265.641113000001,4252.307617,450.0,4.0,91.0,,,,0.0,4.0,2.0,4.0,0.0,4.0,50.0,,,,,,,,50.0,0.0,0.6387520000000001,-0.158691,0.6308590000000001,0.41088900000000006,0.9629049999999999,-0.330083,-0.1626,-0.03578,-0.031201999999999997,-0.031208,,,,,,,,,,,,,,,,,,,,,,,,,,,,,,,,,,,,,,,,,,,,,,,,,,,,,,,,,,,,,,,,,
1760,1645584242.650109,1645584242.658259,101.0,0.0,4042.5642090000006,4499.487305,4184.615234000001,4265.641113000001,4245.641113000001,450.0,4.0,91.0,,,,0.0,4.0,2.0,4.0,0.0,4.0,50.0,,,,,,,,,,,,,,,,,,,,,,,,,,,,,,,,,,,,,,,,,,,,,,,,,,,,,,,,,,,,,,,,,,,,,,,,,,,,,,,,,,,,
1761,1645584242.657924,1645584242.666074,102.0,0.0,4023.076904,4490.256348,4190.256348,4265.641113000001,4244.615234000001,450.0,4.0,91.0,,,,0.0,4.0,2.0,4.0,0.0,4.0,50.0,,,,,,,,51.0,0.0,0.638993,-0.158691,0.6306149999999999,0.41088900000000006,0.939467,-0.318853,-0.14990499999999998,-0.035767,-0.031108999999999998,-0.033263,,,,,,,,,,,,,,,,,,,,,,,,,,,,,,,,,,,0.0,0.0,1.0,0.0,512.0,1.0,,,,,,,,,,,,,,,,,,,,,,,,,
1762,1645584242.665738,1645584242.673888,103.0,0.0,4033.3332520000004,4534.871582,4195.384765999999,4265.641113000001,4253.333496,16214.0,4.0,91.0,,,,0.0,4.0,2.0,4.0,0.0,4.0,50.0,,,,,,,,,,,,,,,,,,,,,,,,,,,,,,,,,,,,,,,,,,,,,,,,,,,,,,,,,,,,,,,,,,,,,,,,,,,,,,,,,,,,
1763,1645584242.673553,1645584242.681702,104.0,0.0,4056.4101560000004,4550.769043,4192.307617,4265.641113000001,4261.538574,450.0,4.0,91.0,,,,0.0,4.0,2.0,4.0,0.0,4.0,50.0,,,,,,,,52.0,0.0,0.6387520000000001,-0.158691,0.6308590000000001,0.41088900000000006,0.9511860000000001,-0.330083,-0.153811,-0.035755,-0.031172000000000002,-0.028716000000000002,,,,,,,,,,,,,,,,,,,,,,,,,,,,,,,,,,,,,,,,,,,,,,,,,,,,,,,,,,,,,,,,,
1764,1645584242.681367,1645584242.689517,105.0,0.0,4055.897461,4546.666504,4190.256348,4265.641113000001,4250.256348,450.0,4.0,91.0,,,,0.0,4.0,2.0,4.0,0.0,4.0,50.0,,,,,,,,,,,,,,,,,,,,,,,,,,,,,,,,,,,,,,,,,,,,,,,,,,,,,,,,,,,,,,,,,,,,,,,,,,,,,,,,,,,,
1765,1645584242.689182,1645584242.697331,106.0,0.0,4042.5642090000006,4558.461426,4189.230957,4265.641113000001,4222.05127,450.0,4.0,91.0,,,,0.0,4.0,2.0,4.0,0.0,4.0,50.0,,,,,,,,53.0,0.0,0.638993,-0.158691,0.6306149999999999,0.41088900000000006,0.9463030000000001,-0.320806,-0.157717,-0.035695,-0.031180000000000003,-0.024575,,,,,,,,,,,,,,,,,,,,,,,,,,,,,,,,,,,0.0,0.0,1.0,0.0,512.0,1.0,,,,,,,,,,,,,,,,,,,,,,,,,
1766,1645584242.6969972,1645584242.705146,107.0,0.0,4053.3332520000004,4482.563965,4182.05127,4265.641113000001,4228.717772999999,16214.0,4.0,91.0,,,,0.0,4.0,2.0,4.0,0.0,4.0,50.0,,,,,,,,,,,,,,,,,,,,,,,,,,,,,,,,,,,,,,,,,,,,,,,,,,,,,,,,,,,,,,,,,,,,,,,,,,,,,,,,,,,,
1767,1645584242.7048109,1645584242.71296,108.0,0.0,4085.641113,4422.563965,4184.102539,4265.641113000001,4252.820313,450.0,4.0,91.0,,,,0.0,4.0,2.0,4.0,0.0,4.0,50.0,,,,,,,,54.0,0.0,0.638993,-0.158691,0.6306149999999999,0.41088900000000006,0.952651,-0.316411,-0.161135,-0.035788,-0.031039999999999998,-0.020799,,,,,,,,,,,,,,,,,,,,,,,,,,,,,,,,,,,,,,,,,,,,,,,,,,,,,,,,,,,,,,,,,
1768,1645584242.712626,1645584242.720774,109.0,0.0,4090.7692869999996,4503.589844,4202.05127,4265.641113000001,4236.922852000001,450.0,4.0,91.0,,,,0.0,4.0,2.0,4.0,0.0,4.0,50.0,,,,,,,,,,,,,,,,,,,,,,,,,,,,,,,,,,,,,,,,,,,,,,,,,,,,,,,,,,,,,,,,,,,,,,,,,,,,,,,,,,,,
1769,1645584242.7204401,1645584242.7284892,110.0,0.0,4068.205078,4529.230957,4202.563965,4265.641113000001,4242.05127,450.0,4.0,91.0,,,,0.0,4.0,2.0,4.0,0.0,4.0,50.0,,,,,,,,55.0,0.0,0.638836,-0.158691,0.6306149999999999,0.41113299999999997,0.9506979999999999,-0.317388,-0.160159,-0.035822,-0.031061000000000002,-0.01745,1.0,0.0,0.0,,,,,,,,,,,,,,,,,,,,,,,,,,,,,,,,0.0,0.0,1.0,0.0,512.0,1.0,12.331539,2.4363189999999997,1.2634969999999999,1.870579,2.321391,126.53456899999999,55.268818,21.88789,24.211451,20.890831,0.8254790000000001,0.8086180000000001,0.448125,0.5754859999999999,0.9289879999999999,0.022389,0.008324,0.002948,0.00485,0.00358,1.561375,3.221113,0.891753,1.325124,1.9259849999999998
1770,1645584242.728255,1645584242.7363029,111.0,0.0,4070.256348,4426.153809,4191.794922,4265.641113000001,4268.717772999999,16214.0,4.0,91.0,,,,0.0,4.0,2.0,4.0,0.0,4.0,50.0,,,,,,,,,,,,,,,,,,,,,,,,,,,,,,,,,,,,,,,,,,,,,,,,,,,,,,,,,,,,,,,,,,,,,,,,,,,,,,,,,,,,
1771,1645584242.736069,1645584242.744018,112.0,0.0,4080.512939,4406.153809,4187.179688,4265.641113000001,4253.333496,450.0,4.0,91.0,,,,0.0,4.0,2.0,4.0,0.0,4.0,50.0,,,,,,,,56.0,0.0,0.638836,-0.158691,0.6306149999999999,0.41113299999999997,0.9555809999999999,-0.313481,-0.167971,-0.035804,-0.031129,-0.020783000000000003,,,,,,,,,,,,,,,,,,,,,,,,,,,,,,,,,,,,,,,,,,,,,,,,,,,,,,,,,,,,,,,,,
1772,1645584242.743884,1645584242.751832,113.0,0.0,4066.1538090000004,4474.871582,4187.692383,4265.641113000001,4226.666504,450.0,4.0,91.0,,,,0.0,4.0,2.0,4.0,0.0,4.0,50.0,,,,,,,,,,,,,,,,,,,,,,,,,,,,,,,,,,,,,,,,,,,,,,,,,,,,,,,,,,,,,,,,,,,,,,,,,,,,,,,,,,,,
1773,1645584242.751698,1645584242.759547,114.0,0.0,4068.718018,4477.436035,4200.0,4265.641113000001,4231.794922,450.0,4.0,91.0,,,,0.0,4.0,2.0,4.0,0.0,4.0,50.0,,,,,,,,57.0,0.0,0.638993,-0.158691,0.6306149999999999,0.41088900000000006,0.945815,-0.317388,-0.154299,-0.035886,-0.031287999999999996,-0.017484,,,,,,,,,,,,,,,,,,,,,,,,,,,,,,,,,,,0.0,0.0,1.0,0.0,512.0,1.0,,,,,,,,,,,,,,,,,,,,,,,,,
1774,1645584242.7595131,1645584242.767361,115.0,0.0,4086.1538090000004,4421.025879,4208.205078,4265.641113000001,4238.974121,16214.0,4.0,91.0,,,,0.0,4.0,2.0,4.0,0.0,4.0,50.0,,,,,,,,,,,,,,,,,,,,,,,,,,,,,,,,,,,,,,,,,,,,,,,,,,,,,,,,,,,,,,,,,,,,,,,,,,,,,,,,,,,,
1775,1645584242.767327,1645584242.775176,116.0,0.0,4090.256348,4420.0,4206.153809,4265.641113000001,4246.666504,450.0,4.0,91.0,,,,0.0,4.0,2.0,4.0,0.0,4.0,50.0,,,,,,,,58.0,0.0,0.638836,-0.158691,0.6306149999999999,0.41113299999999997,0.9433739999999999,-0.321782,-0.152834,-0.035911,-0.031382,-0.020814,,,,,,,,,,,,,,,,,,,,,,,,,,,,,,,,,,,,,,,,,,,,,,,,,,,,,,,,,,,,,,,,,
1776,1645584242.775142,1645584242.78299,117.0,0.0,4101.538574,4479.487305,4209.230957,4265.641113000001,4267.692383,450.0,4.0,91.0,,,,0.0,4.0,2.0,4.0,0.0,4.0,50.0,,,,,,,,,,,,,,,,,,,,,,,,,,,,,,,,,,,,,,,,,,,,,,,,,,,,,,,,,,,,,,,,,,,,,,,,,,,,,,,,,,,,
1777,1645584242.7829561,1645584242.790804,118.0,0.0,4116.410156,4480.512695,4211.794922,4265.641113000001,4267.692383,450.0,4.0,91.0,,,,0.0,4.0,2.0,4.0,0.0,4.0,50.0,,,,,,,,59.0,0.0,0.638993,-0.158691,0.6306149999999999,0.41088900000000006,0.9404440000000001,-0.324712,-0.16211199999999998,-0.035933,-0.031417,-0.017463,,,,,,,,,,,,,,,,,,,,,,,,,,,,,,,,,,,0.0,0.0,1.0,0.0,512.0,1.0,,,,,,,,,,,,,,,,,,,,,,,,,
1778,1645584242.790771,1645584242.798619,119.0,0.0,4108.717772999999,4465.128418,4193.846191,4265.641113000001,4261.025879,16214.0,4.0,91.0,,,,0.0,4.0,2.0,4.0,0.0,4.0,50.0,,,,,,,,,,,,,,,,,,,,,,,,,,,,,,,,,,,,,,,,,,,,,,,,,,,,,,,,,,,,,,,,,,,,,,,,,,,,,,,,,,,,
1779,1645584242.798586,1645584242.806433,120.0,0.0,4102.05127,4530.256348,4189.743652,4265.641113000001,4265.641113000001,450.0,4.0,91.0,,,,0.0,4.0,2.0,4.0,0.0,4.0,50.0,,,,,,,,60.0,0.0,0.6387520000000001,-0.158691,0.6308590000000001,0.41088900000000006,0.944839,-0.319829,-0.14941600000000002,-0.035758,-0.031254000000000004,-0.020746,,,,,,,,,,,,,,,,,,,,,,,,,,,,,,,,,,,,,,,,,,,,,,,,,,,,,,,,,,,,,,,,,
1780,1645584242.8064,1645584242.814248,121.0,0.0,4114.871582,4549.743652,4202.563965,4265.641113000001,4265.641113000001,450.0,4.0,91.0,,,,0.0,4.0,2.0,4.0,0.0,4.0,50.0,,,,,,,,,,,,,,,,,,,,,,,,,,,,,,,,,,,,,,,,,,,,,,,,,,,,,,,,,,,,,,,,,,,,,,,,,,,,,,,,,,,,
1781,1645584242.814215,1645584242.8219619,122.0,0.0,4122.563965,4515.384765999999,4196.922852000001,4265.641113000001,4263.077147999999,450.0,4.0,91.0,,,,0.0,4.0,2.0,4.0,0.0,4.0,50.0,,,,,,,,61.0,0.0,0.6388119999999999,-0.158447,0.6308590000000001,0.41088900000000006,0.945815,-0.334966,-0.15820599999999999,-0.035844,-0.031303,-0.017597,,,,,,,,,,,,,,,,,,,,,,,,,,,,,,,,,,,0.0,0.0,1.0,0.0,512.0,1.0,,,,,,,,,,,,,,,,,,,,,,,,,
1782,1645584242.8220289,1645584242.829777,123.0,0.0,4118.974121,4530.769043,4189.230957,4265.641113000001,4266.153809,16214.0,4.0,91.0,,,,0.0,4.0,2.0,4.0,0.0,4.0,50.0,,,,,,,,,,,,,,,,,,,,,,,,,,,,,,,,,,,,,,,,,,,,,,,,,,,,,,,,,,,,,,,,,,,,,,,,,,,,,,,,,,,,
1783,1645584242.829844,1645584242.837591,124.0,0.0,4113.333496,4505.641113000001,4190.769043,4265.641113000001,4275.897461,450.0,4.0,91.0,,,,0.0,4.0,2.0,4.0,0.0,4.0,50.0,,,,,,,,62.0,0.0,0.638969,-0.158447,0.6308590000000001,0.410645,0.945815,-0.309575,-0.159182,-0.035775,-0.031346,-0.020769,,,,,,,,,,,,,,,,,,,,,,,,,,,,,,,,,,,,,,,,,,,,,,,,,,,,,,,,,,,,,,,,,
1784,1645584242.837658,1645584242.845405,125.0,0.0,4109.230957,4477.436035,4192.820313,4265.641113000001,4272.820313,450.0,4.0,91.0,,,,0.0,4.0,2.0,4.0,0.0,4.0,50.0,,,,,,,,,,,,,,,,,,,,,,,,,,,,,,,,,,,,,,,,,,,,,,,,,,,,,,,,,,,,,,,,,,,,,,,,,,,,,,,,,,,,
1785,1645584242.845473,1645584242.85322,126.0,0.0,4120.512695,4534.358886999999,4199.487305,4265.641113000001,4266.153809,450.0,4.0,91.0,,,,0.0,4.0,2.0,4.0,0.0,4.0,50.0,0.972656,0.0,0.0,0.0,4.0,0.0,1.0,63.0,0.0,0.6389090000000001,-0.158691,0.6308590000000001,0.410645,0.9546040000000001,-0.31299299999999997,-0.154788,-0.035713999999999996,-0.031483,-0.017569,1.0,0.0,0.0,,,,,,,,,,,,,,,,,,,,,,,,,,,,,,,,0.0,0.0,1.0,0.0,128.0,1.0,3.292245,2.48465,0.8711260000000001,1.771468,2.184181,138.80879199999998,52.683597999999996,18.192068,21.117161,20.763970999999998,0.8800819999999999,0.729103,0.411224,0.617114,0.88956,0.006587999999999999,0.006219,0.002361,0.0034700000000000004,0.003036,1.0396729999999998,3.2885519999999997,0.733797,1.415225,1.8250950000000001
1786,1645584242.853287,1645584242.861034,127.0,0.0,4146.666504,4527.692383,4208.717772999999,4265.641113000001,4287.692383,242.0,4.0,91.0,,,,0.0,4.0,2.0,4.0,0.0,4.0,50.0,,,,,,,,,,,,,,,,,,,,,,,,,,,,,,,,,,,,,,,,,,,,,,,,,,,,,,,,,,,,,,,,,,,,,,,,,,,,,,,,,,,,
1787,1645584242.8611019,1645584242.868849,0.0,0.0,4151.794922,4454.358886999999,4208.717772999999,4265.641113000001,4298.461426,450.0,4.0,91.0,,,,0.0,4.0,2.0,4.0,0.0,4.0,50.0,,,,,,,,0.0,0.0,0.638668,-0.158691,0.631104,0.410645,0.9550930000000001,-0.321782,-0.157229,-0.035804,-0.03146,-0.020793,,,,,,,,,,,,,,,,,,,,,,,,,,,,,,,,,,,,,,,,,,,,,,,,,,,,,,,,,,,,,,,,,
1788,1645584242.868916,1645584242.876663,1.0,0.0,4128.717772999999,4420.0,4204.615234000001,4265.641113000001,4271.282227000001,450.0,4.0,91.0,,,,0.0,4.0,2.0,4.0,0.0,4.0,50.0,,,,,,,,,,,,,,,,,,,,,,,,,,,,,,,,,,,,,,,,,,,,,,,,,,,,,,,,,,,,,,,,,,,,,,,,,,,,,,,,,,,,
1789,1645584242.8767312,1645584242.884477,2.0,0.0,4119.487305,4389.743652,4203.077147999999,4265.641113000001,4252.820313,16194.0,4.0,91.0,,,,0.0,4.0,2.0,4.0,0.0,4.0,50.0,,,,,,,,1.0,0.0,0.638668,-0.158691,0.631104,0.410645,0.949233,-0.30518,-0.157229,-0.035886,-0.031389999999999994,-0.01759,,,,,,,,,,,,,,,,,,,,,,,,,,,,,,,,,,,0.0,0.0,1.0,0.0,128.0,1.0,,,,,,,,,,,,,,,,,,,,,,,,,
1790,1645584242.8845448,1645584242.892292,3.0,0.0,4128.717772999999,4403.077147999999,4187.692383,4265.641113000001,4257.94873,450.0,4.0,91.0,,,,0.0,4.0,2.0,4.0,0.0,4.0,50.0,,,,,,,,,,,,,,,,,,,,,,,,,,,,,,,,,,,,,,,,,,,,,,,,,,,,,,,,,,,,,,,,,,,,,,,,,,,,,,,,,,,,
1791,1645584242.89236,1645584242.900006,4.0,0.0,4129.230957,4495.384765999999,4181.025879,4265.641113000001,4263.077147999999,238.0,4.0,91.0,,,,0.0,4.0,2.0,4.0,0.0,4.0,50.0,,,,,,,,2.0,0.0,0.638668,-0.158691,0.631104,0.410645,0.9399559999999999,-0.314458,-0.14941600000000002,-0.035813,-0.031376,-0.020861,,,,,,,,,,,,,,,,,,,,,,,,,,,,,,,,,,,,,,,,,,,,,,,,,,,,,,,,,,,,,,,,,
