,Timestamp,EEG.Counter,EEG.Interpolated,EEG.AF3,EEG.T7,EEG.Pz,EEG.T8,EEG.AF4,EEG.RawCq,EEG.Battery,EEG.BatteryPercent,MarkerIndex,MarkerType,MarkerValueInt,EEG.MarkerHardware,CQ.AF3,CQ.T7,CQ.Pz,CQ.T8,CQ.AF4,CQ.Overall,EQ.SampleRateQuality,EQ.OVERALL,EQ.AF3,EQ.T7,EQ.Pz,EQ.T8,EQ.AF4,MOT.CounterMems,MOT.InterpolatedMems,MOT.Q0,MOT.Q1,MOT.Q2,MOT.Q3,MOT.AccX,MOT.AccY,MOT.AccZ,MOT.MagX,MOT.MagY,MOT.MagZ,MC.Action,MC.ActionPower,MC.IsActive,PM.Engagement.IsActive,PM.Engagement.Scaled,PM.Engagement.Raw,PM.Engagement.Min,PM.Engagement.Max,PM.Excitement.IsActive,PM.Excitement.Scaled,PM.Excitement.Raw,PM.Excitement.Min,PM.Excitement.Max,PM.LongTermExcitement,PM.Stress.IsActive,PM.Stress.Scaled,PM.Stress.Raw,PM.Stress.Min,PM.Stress.Max,PM.Relaxation.IsActive,PM.Relaxation.Scaled,PM.Relaxation.Raw,PM.Relaxation.Min,PM.Relaxation.Max,PM.Interest.IsActive,PM.Interest.Scaled,PM.Interest.Raw,PM.Interest.Min,PM.Interest.Max,PM.Focus.IsActive,PM.Focus.Scaled,PM.Focus.Raw,PM.Focus.Min,PM.Focus.Max,FE.BlinkWink,FE.HorizontalEyesDirection,FE.UpperFaceAction,FE.UpperFaceActionPower,FE.LowerFaceAction,FE.LowerFaceActionPower,POW.AF3.Theta,POW.AF3.Alpha,POW.AF3.BetaL,POW.AF3.BetaH,POW.AF3.Gamma,POW.T7.Theta,POW.T7.Alpha,POW.T7.BetaL,POW.T7.BetaH,POW.T7.Gamma,POW.Pz.Theta,POW.Pz.Alpha,POW.Pz.BetaL,POW.Pz.BetaH,POW.Pz.Gamma,POW.T8.Theta,POW.T8.Alpha,POW.T8.BetaL,POW.T8.BetaH,POW.T8.Gamma,POW.AF4.Theta,POW.AF4.Alpha,POW.AF4.BetaL,POW.AF4.BetaH,POW.AF4.Gamma
39848,1645651955.413127,19.0,0.0,4321.025879,4666.153809,4254.358886999999,4280.512695,4256.410156,0.0,3.0,55.0,63.0,1.0,6.0,0.0,4.0,0.0,4.0,0.0,4.0,33.333332,,,,,,,,,,,,,,,,,,,,,,,,,,,,,,,,,,,,,,,,,,,,,,,,,,,,,,,,,,,,,,,,,,,,,,,,,,,,,,,,,,,,
39849,1645651955.420942,20.0,0.0,4289.743652,4681.025879,4232.307617,4280.512695,4234.358886999999,0.0,3.0,55.0,,,,0.0,4.0,0.0,4.0,0.0,4.0,33.333332,,,,,,,,10.0,0.0,0.44392200000000004,0.509033,0.27050799999999997,-0.6860350000000001,0.944839,-0.07910299999999999,-0.344244,-0.018756000000000002,-0.046673,-0.034763999999999996,1.0,0.0,0.0,,,,,,,,,,,,,,,,,,,,,,,,,,,,,,,,0.0,0.0,1.0,0.0,512.0,0.255405,1.142601,0.989274,3.787283,1.025383,2.019425,4.975573000000001,20.270594,31.619691999999997,13.854404,22.93391,0.630905,2.593451,3.052324,0.933425,2.0673779999999997,0.009318,0.008306000000000001,0.009547,0.007031,0.007558,1.8078400000000001,1.578819,3.8528830000000003,1.268274,2.3060669999999996
39850,1645651955.428757,21.0,0.0,4291.794922,4640.512695,4238.974121,4280.512695,4241.025879,0.0,3.0,55.0,,,,0.0,4.0,0.0,4.0,0.0,4.0,33.333332,,,,,,,,,,,,,,,,,,,,,,,,,,,,,,,,,,,,,,,,,,,,,,,,,,,,,,,,,,,,,,,,,,,,,,,,,,,,,,,,,,,,
39851,1645651955.436573,22.0,0.0,4322.563965,4627.179688,4236.922852000001,4278.974121,4265.128418,0.0,3.0,55.0,,,,0.0,4.0,0.0,4.0,0.0,4.0,33.333332,,,,,,,,11.0,0.0,0.443773,0.509033,0.270752,-0.6860350000000001,0.9594870000000001,-0.079591,-0.342779,-0.017027,-0.046644,-0.037147,,,,,,,,,,,,,,,,,,,,,,,,,,,,,,,,,,,,,,,,,,,,,,,,,,,,,,,,,,,,,,,,,
39852,1645651955.4443882,23.0,0.0,4335.384765999999,4680.512695,4251.794922,4279.487305,4278.461426,0.0,3.0,55.0,,,,0.0,4.0,0.0,4.0,0.0,4.0,33.333332,,,,,,,,,,,,,,,,,,,,,,,,,,,,,,,,,,,,,,,,,,,,,,,,,,,,,,,,,,,,,,,,,,,,,,,,,,,,,,,,,,,,
39853,1645651955.452204,24.0,0.0,4334.358886999999,4686.666504,4245.641113000001,4281.025879,4268.717772999999,0.0,3.0,55.0,,,,0.0,4.0,0.0,4.0,0.0,4.0,33.333332,,,,,,,,12.0,0.0,0.44387,0.5092770000000001,0.270752,-0.685791,0.9629049999999999,-0.099123,-0.354986,-0.016105,-0.046667,-0.039291,,,,,,,,,,,,,,,,,,,,,,,,,,,,,,,,,,,0.0,0.0,1.0,0.0,512.0,0.255405,,,,,,,,,,,,,,,,,,,,,,,,,
39854,1645651955.460119,25.0,0.0,4317.94873,4649.743652,4220.512695,4281.025879,4248.717772999999,0.0,3.0,55.0,,,,0.0,4.0,0.0,4.0,0.0,4.0,33.333332,,,,,,,,,,,,,,,,,,,,,,,,,,,,,,,,,,,,,,,,,,,,,,,,,,,,,,,,,,,,,,,,,,,,,,,,,,,,,,,,,,,,
39855,1645651955.467934,26.0,0.0,4302.563965,4617.436035,4235.897461,4280.512695,4248.717772999999,0.0,3.0,55.0,,,,0.0,4.0,0.0,4.0,0.0,4.0,33.333332,,,,,,,,13.0,0.0,0.44387,0.5092770000000001,0.270752,-0.685791,0.949233,-0.090822,-0.346197,-0.014544,-0.046639,-0.041222,,,,,,,,,,,,,,,,,,,,,,,,,,,,,,,,,,,,,,,,,,,,,,,,,,,,,,,,,,,,,,,,,
39856,1645651955.47575,27.0,0.0,4315.897461,4598.461426,4255.384765999999,4280.0,4267.692383,0.0,3.0,55.0,,,,0.0,4.0,0.0,4.0,0.0,4.0,33.333332,,,,,,,,,,,,,,,,,,,,,,,,,,,,,,,,,,,,,,,,,,,,,,,,,,,,,,,,,,,,,,,,,,,,,,,,,,,,,,,,,,,,
39857,1645651955.483565,28.0,0.0,4342.05127,4669.230957,4250.256348,4279.487305,4283.077147999999,0.0,3.0,55.0,,,,0.0,4.0,0.0,4.0,0.0,4.0,33.333332,,,,,,,,14.0,0.0,0.44387,0.5092770000000001,0.270752,-0.685791,0.941909,-0.08447400000000001,-0.336919,-0.013138,-0.046712000000000004,-0.043008,,,,,,,,,,,,,,,,,,,,,,,,,,,,,,,,,,,0.0,0.0,1.0,0.0,512.0,0.255405,,,,,,,,,,,,,,,,,,,,,,,,,
39858,1645651955.49138,29.0,0.0,4337.94873,4723.589844,4236.922852000001,4278.974121,4285.128418,0.0,3.0,55.0,,,,0.0,4.0,0.0,4.0,0.0,4.0,33.333332,,,,,,,,,,,,,,,,,,,,,,,,,,,,,,,,,,,,,,,,,,,,,,,,,,,,,,,,,,,,,,,,,,,,,,,,,,,,,,,,,,,,
39859,1645651955.499196,30.0,0.0,4320.0,4618.974121,4252.820313,4278.461426,4282.563965,0.0,3.0,55.0,,,,0.0,4.0,0.0,4.0,0.0,4.0,33.333332,,,,,,,,15.0,0.0,0.44387,0.5092770000000001,0.270752,-0.685791,0.9355610000000001,-0.072267,-0.33984899999999996,-0.014266,-0.046679000000000005,-0.044518,,,,,,,,,,,,,,,,,,,,,,,,,,,,,,,,,,,,,,,,,,,,,,,,,,,,,,,,,,,,,,,,,
39860,1645651955.507011,31.0,0.0,4323.589844,4546.666504,4241.025879,4278.974121,4272.307617,0.0,3.0,55.0,,,,0.0,4.0,0.0,4.0,0.0,4.0,33.333332,,,,,,,,,,,,,,,,,,,,,,,,,,,,,,,,,,,,,,,,,,,,,,,,,,,,,,,,,,,,,,,,,,,,,,,,,,,,,,,,,,,,
39861,1645651955.514826,32.0,0.0,4316.922852000001,4644.615234000001,4202.563965,4280.512695,4250.769043,0.0,3.0,55.0,,,,0.0,4.0,0.0,4.0,0.0,4.0,33.333332,,,,,,,,16.0,0.0,0.44387,0.5092770000000001,0.270752,-0.685791,0.95314,-0.075196,-0.343267,-0.015378,-0.046699,-0.039675,,,,,,,,,,,,,,,,,,,,,,,,,,,,,,,,,,,0.0,0.0,1.0,0.0,512.0,0.255405,,,,,,,,,,,,,,,,,,,,,,,,,
39862,1645651955.522642,33.0,0.0,4315.897461,4691.794922,4204.615234000001,4280.512695,4251.282227000001,0.0,3.0,55.0,,,,0.0,4.0,0.0,4.0,0.0,4.0,33.333332,,,,,,,,,,,,,,,,,,,,,,,,,,,,,,,,,,,,,,,,,,,,,,,,,,,,,,,,,,,,,,,,,,,,,,,,,,,,,,,,,,,,
39863,1645651955.530557,34.0,0.0,4337.436035,4633.846191,4238.974121,4279.487305,4278.974121,0.0,3.0,55.0,,,,0.0,4.0,0.0,4.0,0.0,4.0,33.333332,,,,,,,,17.0,0.0,0.44400100000000003,0.509033,0.270996,-0.685791,0.9633940000000001,-0.078126,-0.34766199999999997,-0.016380000000000002,-0.046668,-0.041518,,,,,,,,,,,,,,,,,,,,,,,,,,,,,,,,,,,,,,,,,,,,,,,,,,,,,,,,,,,,,,,,,
39864,1645651955.538372,35.0,0.0,4351.794922,4633.846191,4254.358886999999,4279.487305,4296.410156,0.0,3.0,55.0,,,,0.0,4.0,0.0,4.0,0.0,4.0,33.333332,,,,,,,,,,,,,,,,,,,,,,,,,,,,,,,,,,,,,,,,,,,,,,,,,,,,,,,,,,,,,,,,,,,,,,,,,,,,,,,,,,,,
39865,1645651955.546188,36.0,0.0,4338.974121,4679.487305,4240.512695,4280.0,4285.641113000001,0.0,3.0,55.0,,,,0.0,4.0,0.0,4.0,0.0,4.0,33.333332,,,,,,,,18.0,0.0,0.44400100000000003,0.509033,0.270996,-0.685791,0.9560690000000001,-0.080568,-0.34229,-0.017085,-0.04664,-0.037025,1.0,0.0,0.0,,,,,,,,,,,,,,,,,,,,,,,,,,,,,,,,0.0,0.0,32.0,0.024751,1.0,0.0,1.4488219999999998,1.053503,3.7553160000000005,1.0191299999999999,2.1743349999999997,5.999756,17.514536,39.256248,14.791421,20.996361,1.053733,3.34288,3.8982589999999995,1.272644,3.134531,0.024030000000000003,0.00967,0.01008,0.007849,0.007922,1.743614,1.549793,3.776673,1.286999,2.514211
39866,1645651955.554003,37.0,0.0,4319.487305,4706.153809,4216.922852000001,4280.512695,4267.692383,0.0,3.0,55.0,,,,0.0,4.0,0.0,4.0,0.0,4.0,33.333332,,,,,,,,,,,,,,,,,,,,,,,,,,,,,,,,,,,,,,,,,,,,,,,,,,,,,,,,,,,,,,,,,,,,,,,,,,,,,,,,,,,,
39867,1645651955.561818,38.0,0.0,4308.717772999999,4729.743652,4198.974121,4281.025879,4248.717772999999,0.0,3.0,55.0,,,,0.0,4.0,0.0,4.0,0.0,4.0,33.333332,,,,,,,,19.0,0.0,0.44415,0.509033,0.270752,-0.685791,0.9560690000000001,-0.079591,-0.339361,-0.017672,-0.046566,-0.032931999999999996,,,,,,,,,,,,,,,,,,,,,,,,,,,,,,,,,,,,,,,,,,,,,,,,,,,,,,,,,,,,,,,,,
39868,1645651955.569634,39.0,0.0,4321.025879,4746.153809,4218.461426,4280.512695,4261.025879,0.0,3.0,55.0,,,,0.0,4.0,0.0,4.0,0.0,4.0,33.333332,,,,,,,,,,,,,,,,,,,,,,,,,,,,,,,,,,,,,,,,,,,,,,,,,,,,,,,,,,,,,,,,,,,,,,,,,,,,,,,,,,,,
39869,1645651955.577449,40.0,0.0,4338.461426,4736.922852000001,4235.384765999999,4279.487305,4283.077147999999,0.0,3.0,55.0,,,,0.0,4.0,0.0,4.0,0.0,4.0,33.333332,,,,,,,,20.0,0.0,0.44387,0.5092770000000001,0.270752,-0.685791,0.9716950000000001,-0.080079,-0.332525,-0.018297,-0.046646,-0.029248000000000003,,,,,,,,,,,,,,,,,,,,,,,,,,,,,,,,,,,0.0,0.0,32.0,0.024751,1.0,0.0,,,,,,,,,,,,,,,,,,,,,,,,,
39870,1645651955.585264,41.0,0.0,4331.794922,4691.282227000001,4231.794922,4278.974121,4277.436035,0.0,3.0,55.0,,,,0.0,4.0,0.0,4.0,0.0,4.0,33.333332,,,,,,,,,,,,,,,,,,,,,,,,,,,,,,,,,,,,,,,,,,,,,,,,,,,,,,,,,,,,,,,,,,,,,,,,,,,,,,,,,,,,
39871,1645651955.59308,42.0,0.0,4311.282227000001,4669.743652,4212.820313,4280.0,4263.589844,0.0,3.0,55.0,,,,0.0,4.0,0.0,4.0,0.0,4.0,33.333332,,,,,,,,21.0,0.0,0.44401899999999994,0.5092770000000001,0.27050799999999997,-0.685791,0.9673,-0.093263,-0.34521999999999997,-0.01886,-0.046571,-0.025932,,,,,,,,,,,,,,,,,,,,,,,,,,,,,,,,,,,,,,,,,,,,,,,,,,,,,,,,,,,,,,,,,
39872,1645651955.600895,43.0,0.0,4326.153809,4703.077147999999,4229.230957,4278.974121,4282.05127,0.0,3.0,55.0,,,,0.0,4.0,0.0,4.0,0.0,4.0,33.333332,,,,,,,,,,,,,,,,,,,,,,,,,,,,,,,,,,,,,,,,,,,,,,,,,,,,,,,,,,,,,,,,,,,,,,,,,,,,,,,,,,,,
39873,1645651955.60881,44.0,0.0,4348.717772999999,4706.666504,4248.205078,4277.94873,4294.358886999999,0.0,3.0,55.0,,,,0.0,4.0,0.0,4.0,0.0,4.0,33.333332,,,,,,,,22.0,0.0,0.44378999999999996,0.5092770000000001,0.270264,-0.6860350000000001,0.9472799999999999,-0.093263,-0.332525,-0.017072,-0.046553,-0.029199,,,,,,,,,,,,,,,,,,,,,,,,,,,,,,,,,,,0.0,0.0,32.0,0.024751,1.0,0.0,,,,,,,,,,,,,,,,,,,,,,,,,
39874,1645651955.616626,45.0,0.0,4334.358886999999,4675.384765999999,4233.333496,4281.025879,4269.743652,0.0,3.0,55.0,,,,0.0,4.0,0.0,4.0,0.0,4.0,33.333332,,,,,,,,,,,,,,,,,,,,,,,,,,,,,,,,,,,,,,,,,,,,,,,,,,,,,,,,,,,,,,,,,,,,,,,,,,,,,,,,,,,,
39875,1645651955.624441,46.0,0.0,4325.128418,4702.563965,4203.589844,4280.512695,4267.692383,0.0,3.0,55.0,,,,0.0,4.0,0.0,4.0,0.0,4.0,33.333332,,,,,,,,23.0,0.0,0.444087,0.5092770000000001,0.269775,-0.6860350000000001,0.9340959999999999,-0.090822,-0.332525,-0.016097,-0.046536,-0.032187,,,,,,,,,,,,,,,,,,,,,,,,,,,,,,,,,,,,,,,,,,,,,,,,,,,,,,,,,,,,,,,,,
39876,1645651955.632257,47.0,0.0,4314.871582,4703.589844,4202.563965,4277.436035,4274.871582,0.0,3.0,55.0,,,,0.0,4.0,0.0,4.0,0.0,4.0,33.333332,,,,,,,,,,,,,,,,,,,,,,,,,,,,,,,,,,,,,,,,,,,,,,,,,,,,,,,,,,,,,,,,,,,,,,,,,,,,,,,,,,,,
39877,1645651955.640072,48.0,0.0,4297.94873,4631.282227000001,4205.641113000001,4279.487305,4262.05127,0.0,3.0,55.0,,,,0.0,4.0,0.0,4.0,0.0,4.0,33.333332,,,,,,,,24.0,0.0,0.443858,0.5092770000000001,0.269531,-0.686279,0.9389790000000001,-0.080568,-0.32861799999999997,-0.016880000000000003,-0.046668,-0.034730000000000004,,,,,,,,,,,,,,,,,,,,,,,,,,,,,,,,,,,0.0,0.0,32.0,0.024751,1.0,0.0,,,,,,,,,,,,,,,,,,,,,,,,,
39878,1645651955.647887,49.0,0.0,4316.410156,4632.820313,4204.615234000001,4281.025879,4267.692383,0.0,3.0,55.0,,,,0.0,4.0,0.0,4.0,0.0,4.0,33.333332,,,,,,,,,,,,,,,,,,,,,,,,,,,,,,,,,,,,,,,,,,,,,,,,,,,,,,,,,,,,,,,,,,,,,,,,,,,,,,,,,,,,
39879,1645651955.6557028,50.0,0.0,4360.0,4672.307617,4207.692383,4280.0,4288.205078,0.0,3.0,55.0,,,,0.0,4.0,0.0,4.0,0.0,4.0,33.333332,,,,,,,,25.0,0.0,0.443629,0.5092770000000001,0.269287,-0.686523,0.9463030000000001,-0.07422000000000001,-0.339361,-0.017682,-0.046689,-0.030818,,,,,,,,,,,,,,,,,,,,,,,,,,,,,,,,,,,,,,,,,,,,,,,,,,,,,,,,,,,,,,,,,
39880,1645651955.663518,51.0,0.0,4349.743652,4645.641113000001,4193.846191,4280.0,4271.282227000001,0.0,3.0,55.0,,,,0.0,4.0,0.0,4.0,0.0,4.0,33.333332,,,,,,,,,,,,,,,,,,,,,,,,,,,,,,,,,,,,,,,,,,,,,,,,,,,,,,,,,,,,,,,,,,,,,,,,,,,,,,,,,,,,
39881,1645651955.671333,52.0,0.0,4333.846191,4637.94873,4183.589844,4281.025879,4268.717772999999,0.0,3.0,55.0,,,,0.0,4.0,0.0,4.0,0.0,4.0,33.333332,1.0,0.0,3.0,0.0,0.0,0.0,1.0,26.0,0.0,0.443827,0.509033,0.26879899999999995,-0.686768,0.95314,-0.088869,-0.335943,-0.018404,-0.046707,-0.033595,1.0,0.0,0.0,,,,,,,,,,,,,,,,,,,,,,,,,,,,,,,,0.0,0.0,32.0,0.024884,1.0,0.0,1.9839060000000002,1.198169,3.495807,1.125949,2.686235,6.9434,15.068966,44.878849,17.562578,20.48431,3.4254239999999996,6.813600999999999,6.138646,3.3391629999999997,7.23804,0.074035,0.011885,0.011131,0.008638,0.00883,1.7406220000000001,1.566267,3.4542059999999997,1.533639,3.358802
39882,1645651955.679249,53.0,0.0,4386.666504,4677.436035,4198.461426,4281.025879,4309.230957,0.0,3.0,55.0,,,,0.0,4.0,0.0,4.0,0.0,4.0,33.333332,,,,,,,,,,,,,,,,,,,,,,,,,,,,,,,,,,,,,,,,,,,,,,,,,,,,,,,,,,,,,,,,,,,,,,,,,,,,,,,,,,,,
39883,1645651955.6870642,54.0,0.0,4431.794922,4690.769043,4218.461426,4280.512695,4301.538574,0.0,3.0,55.0,,,,0.0,4.0,0.0,4.0,0.0,4.0,33.333332,,,,,,,,27.0,0.0,0.444172,0.508789,0.26806599999999997,-0.687012,0.9580219999999999,-0.085451,-0.338384,-0.018956,-0.046822,-0.035998,,,,,,,,,,,,,,,,,,,,,,,,,,,,,,,,,,,,,,,,,,,,,,,,,,,,,,,,,,,,,,,,,
39884,1645651955.6948788,55.0,0.0,4420.512695,4653.333496,4214.358886999999,4281.538574,4256.922852000001,0.0,3.0,55.0,,,,0.0,4.0,0.0,4.0,0.0,4.0,33.333332,,,,,,,,,,,,,,,,,,,,,,,,,,,,,,,,,,,,,,,,,,,,,,,,,,,,,,,,,,,,,,,,,,,,,,,,,,,,,,,,,,,,
39885,1645651955.702695,56.0,0.0,4493.846191,4637.436035,4205.128418,4282.05127,4288.717772999999,0.0,3.0,55.0,,,,0.0,4.0,0.0,4.0,0.0,4.0,33.333332,,,,,,,,28.0,0.0,0.44399099999999997,0.508545,0.26757800000000004,-0.6875,0.945327,-0.106447,-0.338384,-0.019405000000000002,-0.046778,-0.038209,,,,,,,,,,,,,,,,,,,,,,,,,,,,,,,,,,,0.0,0.0,32.0,0.024884,1.0,0.0,,,,,,,,,,,,,,,,,,,,,,,,,
39886,1645651955.71051,57.0,0.0,4598.461426,4679.487305,4174.358886999999,4283.077147999999,4300.0,0.0,3.0,55.0,,,,0.0,4.0,0.0,4.0,0.0,4.0,33.333332,,,,,,,,,,,,,,,,,,,,,,,,,,,,,,,,,,,,,,,,,,,,,,,,,,,,,,,,,,,,,,,,,,,,,,,,,,,,,,,,,,,,
39887,1645651955.718325,58.0,0.0,4573.333496,4700.0,4158.974121,4282.05127,4250.769043,0.0,3.0,55.0,,,,0.0,4.0,0.0,4.0,0.0,4.0,33.333332,,,,,,,,29.0,0.0,0.44385600000000003,0.508057,0.266846,-0.688232,0.9423969999999999,-0.091798,-0.34473200000000004,-0.020003,-0.046738999999999996,-0.034095,,,,,,,,,,,,,,,,,,,,,,,,,,,,,,,,,,,,,,,,,,,,,,,,,,,,,,,,,,,,,,,,,
39888,1645651955.726141,59.0,0.0,4610.769043,4642.563965,4198.974121,4283.589844,4322.05127,0.0,3.0,55.0,,,,0.0,4.0,0.0,4.0,0.0,4.0,33.333332,,,,,,,,,,,,,,,,,,,,,,,,,,,,,,,,,,,,,,,,,,,,,,,,,,,,,,,,,,,,,,,,,,,,,,,,,,,,,,,,,,,,
39889,1645651955.733956,60.0,0.0,4826.153809,4664.102539,4246.153809,4292.820313,4429.743652,0.0,3.0,55.0,,,,0.0,4.0,0.0,4.0,0.0,4.0,33.333332,,,,,,,,30.0,0.0,0.444172,0.508789,0.26806599999999997,-0.687012,0.9580219999999999,-0.085451,-0.338384,-0.020396,-0.046752999999999996,-0.030197,,,,,,,,,,,,,,,,,,,,,,,,,,,,,,,,,,,0.0,0.0,32.0,0.024884,1.0,0.0,,,,,,,,,,,,,,,,,,,,,,,,,
39890,1645651955.7417722,61.0,0.0,4942.563965,4783.589844,4196.922852000001,4295.897461,4323.589844,0.0,3.0,55.0,,,,0.0,4.0,0.0,4.0,0.0,4.0,33.333332,,,,,,,,,,,,,,,,,,,,,,,,,,,,,,,,,,,,,,,,,,,,,,,,,,,,,,,,,,,,,,,,,,,,,,,,,,,,,,,,,,,,
39891,1645651955.749687,62.0,0.0,4948.205078,4688.717772999999,4183.589844,4291.794922,4260.0,0.0,3.0,55.0,,,,0.0,4.0,0.0,4.0,0.0,4.0,33.333332,,,,,,,,31.0,0.0,0.44385600000000003,0.508057,0.266846,-0.688232,0.9423969999999999,-0.091798,-0.34473200000000004,-0.020895,-0.046716,-0.026883999999999998,,,,,,,,,,,,,,,,,,,,,,,,,,,,,,,,,,,,,,,,,,,,,,,,,,,,,,,,,,,,,,,,,
39892,1645651955.7575018,63.0,0.0,5024.102539,4540.512695,4240.512695,4292.307617,4418.461426,0.0,3.0,55.0,,,,0.0,4.0,0.0,4.0,0.0,4.0,33.333332,,,,,,,,,,,,,,,,,,,,,,,,,,,,,,,,,,,,,,,,,,,,,,,,,,,,,,,,,,,,,,,,,,,,,,,,,,,,,,,,,,,,
39893,1645651955.765317,64.0,0.0,5072.820313,4657.436035,4234.358886999999,4297.436035,4420.0,450.0,3.0,55.0,,,,0.0,4.0,0.0,4.0,0.0,4.0,33.333332,,,,,,,,32.0,0.0,0.443571,0.507568,0.266357,-0.6889649999999999,0.9389790000000001,-0.09131,-0.33789600000000003,-0.021247,-0.046682999999999995,-0.030104000000000002,,,,,,,,,,,,,,,,,,,,,,,,,,,,,,,,,,,0.0,0.0,32.0,0.024884,1.0,0.0,,,,,,,,,,,,,,,,,,,,,,,,,
39894,1645651955.773133,65.0,0.0,5033.846191,4688.717772999999,4206.153809,4295.897461,4263.077147999999,450.0,3.0,55.0,,,,0.0,4.0,0.0,4.0,0.0,4.0,33.333332,,,,,,,,,,,,,,,,,,,,,,,,,,,,,,,,,,,,,,,,,,,,,,,,,,,,,,,,,,,,,,,,,,,,,,,,,,,,,,,,,,,,
39895,1645651955.7809482,66.0,0.0,5012.820313,4584.102539,4220.512695,4293.846191,4252.307617,16211.0,3.0,55.0,,,,0.0,4.0,0.0,4.0,0.0,4.0,33.333332,,,,,,,,33.0,0.0,0.443229,0.506592,0.265625,-0.690186,0.949233,-0.087404,-0.34912600000000005,-0.021466,-0.046654,-0.032904,,,,,,,,,,,,,,,,,,,,,,,,,,,,,,,,,,,,,,,,,,,,,,,,,,,,,,,,,,,,,,,,,
39896,1645651955.788764,67.0,0.0,5042.563965,4767.692383,4193.846191,4296.410156,4283.589844,450.0,3.0,55.0,,,,0.0,4.0,0.0,4.0,0.0,4.0,33.333332,,,,,,,,,,,,,,,,,,,,,,,,,,,,,,,,,,,,,,,,,,,,,,,,,,,,,,,,,,,,,,,,,,,,,,,,,,,,,,,,,,,,
39897,1645651955.796579,68.0,0.0,5061.538574,4843.589844,4178.974121,4297.436035,4285.128418,0.0,3.0,55.0,,,,0.0,4.0,0.0,4.0,0.0,4.0,33.333332,,,,,,,,34.0,0.0,0.44283599999999995,0.5058590000000001,0.265137,-0.6911619999999999,0.945327,-0.07910299999999999,-0.34912600000000005,-0.021761000000000003,-0.046676,-0.035425,1.0,0.0,0.0,,,,,,,,,,,,,,,,,,,,,,,,,,,,,,,,0.0,0.0,32.0,0.368795,1.0,0.0,2.721718,1.375383,3.087514,1.4011,3.7031709999999998,7.727613000000001,13.987203,47.587963,22.86305,22.461057999999998,9.549451,15.254816,11.208637,8.543075,16.374926000000002,0.178106,0.01592,0.013508000000000001,0.009543000000000001,0.010341,1.8849200000000002,1.59113,3.0132689999999998,2.1806330000000003,5.210183
39898,1645651955.804394,69.0,0.0,5047.692383,4531.794922,4242.05127,4295.897461,4350.769043,450.0,3.0,55.0,,,,0.0,4.0,0.0,4.0,0.0,4.0,33.333332,,,,,,,,,,,,,,,,,,,,,,,,,,,,,,,,,,,,,,,,,,,,,,,,,,,,,,,,,,,,,,,,,,,,,,,,,,,,,,,,,,,,
39899,1645651955.8122098,70.0,0.0,4965.641113000001,4501.025879,4240.0,4294.871582,4374.358886999999,16167.0,3.0,55.0,,,,0.0,4.0,0.0,4.0,0.0,4.0,33.333332,,,,,,,,35.0,0.0,0.44282,0.505127,0.264648,-0.6918949999999999,0.9546040000000001,-0.059083000000000004,-0.34668499999999997,-0.02188,-0.046696,-0.031638,,,,,,,,,,,,,,,,,,,,,,,,,,,,,,,,,,,,,,,,,,,,,,,,,,,,,,,,,,,,,,,,,
39900,1645651955.820025,71.0,0.0,4853.333496,4714.358886999999,4210.256348,4294.358886999999,4377.94873,450.0,3.0,55.0,,,,0.0,4.0,0.0,4.0,0.0,4.0,33.333332,,,,,,,,,,,,,,,,,,,,,,,,,,,,,,,,,,,,,,,,,,,,,,,,,,,,,,,,,,,,,,,,,,,,,,,,,,,,,,,,,,,,
39901,1645651955.82774,72.0,0.0,4790.256348,4635.897461,4223.077147999999,4291.794922,4411.794922,450.0,3.0,55.0,,,,0.0,4.0,0.0,4.0,0.0,4.0,33.333332,,,,,,,,36.0,0.0,0.44276000000000004,0.5046390000000001,0.264404,-0.692383,0.954116,-0.06543099999999999,-0.34912600000000005,-0.019788999999999998,-0.046665,-0.028035,,,,,,,,,,,,,,,,,,,,,,,,,,,,,,,,,,,0.0,0.0,32.0,0.368795,1.0,0.0,,,,,,,,,,,,,,,,,,,,,,,,,
39902,1645651955.835555,73.0,0.0,4758.461426,4529.743652,4225.641113000001,4290.256348,4385.641113000001,0.0,3.0,55.0,,,,0.0,4.0,0.0,4.0,0.0,4.0,33.333332,,,,,,,,,,,,,,,,,,,,,,,,,,,,,,,,,,,,,,,,,,,,,,,,,,,,,,,,,,,,,,,,,,,,,,,,,,,,,,,,,,,,
39903,1645651955.84337,74.0,0.0,4682.05127,4653.333496,4204.615234000001,4288.205078,4349.230957,450.0,3.0,55.0,,,,0.0,4.0,0.0,4.0,0.0,4.0,33.333332,,,,,,,,37.0,0.0,0.44308000000000003,0.50415,0.26416,-0.692627,0.963882,-0.052247,-0.364263,-0.017859,-0.046637,-0.031139999999999998,,,,,,,,,,,,,,,,,,,,,,,,,,,,,,,,,,,,,,,,,,,,,,,,,,,,,,,,,,,,,,,,,
39904,1645651955.851186,75.0,0.0,4590.769043,4727.179688,4205.128418,4284.102539,4365.128418,16206.0,3.0,55.0,,,,0.0,4.0,0.0,4.0,0.0,4.0,33.333332,,,,,,,,,,,,,,,,,,,,,,,,,,,,,,,,,,,,,,,,,,,,,,,,,,,,,,,,,,,,,,,,,,,,,,,,,,,,,,,,,,,,
39905,1645651955.859001,76.0,0.0,4578.974121,4671.794922,4221.538574,4283.589844,4380.512695,450.0,3.0,55.0,,,,0.0,4.0,0.0,4.0,0.0,4.0,33.333332,,,,,,,,38.0,0.0,0.44283,0.5039060000000001,0.264404,-0.692871,0.9643700000000001,-0.062013,-0.3794,-0.016806,-0.04671,-0.033934,,,,,,,,,,,,,,,,,,,,,,,,,,,,,,,,,,,11.0,0.0,32.0,0.368795,1.0,0.0,,,,,,,,,,,,,,,,,,,,,,,,,
39906,1645651955.866816,77.0,0.0,4585.641113000001,4678.974121,4247.179688,4286.153809,4389.743652,450.0,3.0,55.0,,,,0.0,4.0,0.0,4.0,0.0,4.0,33.333332,,,,,,,,,,,,,,,,,,,,,,,,,,,,,,,,,,,,,,,,,,,,,,,,,,,,,,,,,,,,,,,,,,,,,,,,,,,,,,,,,,,,
39907,1645651955.8746312,78.0,0.0,4546.666504,4713.333496,4230.769043,4284.102539,4388.205078,450.0,3.0,55.0,,,,0.0,4.0,0.0,4.0,0.0,4.0,33.333332,,,,,,,,39.0,0.0,0.44283,0.5039060000000001,0.264404,-0.692871,0.973159,-0.08105599999999999,-0.38721300000000003,-0.017518000000000002,-0.046678,-0.030101,,,,,,,,,,,,,,,,,,,,,,,,,,,,,,,,,,,,,,,,,,,,,,,,,,,,,,,,,,,,,,,,,
39908,1645651955.882446,79.0,0.0,4517.436035,4672.820313,4215.384765999999,4281.538574,4360.512695,16206.0,3.0,55.0,,,,0.0,4.0,0.0,4.0,0.0,4.0,33.333332,,,,,,,,,,,,,,,,,,,,,,,,,,,,,,,,,,,,,,,,,,,,,,,,,,,,,,,,,,,,,,,,,,,,,,,,,,,,,,,,,,,,
39909,1645651955.890261,80.0,0.0,4526.153809,4612.307617,4233.333496,4284.102539,4384.615234000001,450.0,3.0,55.0,,,,0.0,4.0,0.0,4.0,0.0,4.0,33.333332,,,,,,,,40.0,0.0,0.442788,0.50415,0.264648,-0.692627,0.9673,-0.07715,-0.372564,-0.018159,-0.046745999999999996,-0.03295,,,,,,,,,,,,,,,,,,,,,,,,,,,,,,,,,,,11.0,0.0,32.0,0.368795,1.0,0.0,,,,,,,,,,,,,,,,,,,,,,,,,
39910,1645651955.8979769,81.0,0.0,4516.410156,4614.871582,4228.205078,4285.128418,4401.538574,450.0,3.0,55.0,,,,0.0,4.0,0.0,4.0,0.0,4.0,33.333332,,,,,,,,,,,,,,,,,,,,,,,,,,,,,,,,,,,,,,,,,,,,,,,,,,,,,,,,,,,,,,,,,,,,,,,,,,,,,,,,,,,,
39911,1645651955.905792,82.0,0.0,4498.974121,4635.384765999999,4211.794922,4284.615234000001,4384.615234000001,450.0,3.0,55.0,,,,0.0,4.0,0.0,4.0,0.0,4.0,33.333332,,,,,,,,41.0,0.0,0.442892,0.5043949999999999,0.264648,-0.692383,0.9487450000000001,-0.080568,-0.365728,-0.01644,-0.04671,-0.035515,,,,,,,,,,,,,,,,,,,,,,,,,,,,,,,,,,,,,,,,,,,,,,,,,,,,,,,,,,,,,,,,,
39912,1645651955.9136071,83.0,0.0,4508.717772999999,4631.282227000001,4245.128418,4283.077147999999,4400.512695,16206.0,3.0,55.0,,,,0.0,4.0,0.0,4.0,0.0,4.0,33.333332,,,,,,,,,,,,,,,,,,,,,,,,,,,,,,,,,,,,,,,,,,,,,,,,,,,,,,,,,,,,,,,,,,,,,,,,,,,,,,,,,,,,
39913,1645651955.921423,84.0,0.0,4525.128418,4670.769043,4272.307617,4282.563965,4432.820313,450.0,3.0,55.0,,,,0.0,4.0,0.0,4.0,0.0,4.0,33.333332,,,,,,,,42.0,0.0,0.442953,0.504883,0.264893,-0.6918949999999999,0.939467,-0.07128999999999999,-0.36817,-0.014844999999999999,-0.046678,-0.037823,1.0,0.0,0.0,,,,,,,,,,,,,,,,,,,,,,,,,,,,,,,,11.0,0.0,32.0,1.0,1.0,0.0,6.242290000000001,1.5936299999999999,2.6714439999999997,1.879001,5.206316999999999,8.794030000000001,14.535160999999999,47.296993,30.14883,26.689541,19.881264,29.153190999999996,19.563467000000003,17.219307,30.678089,0.329162,0.022142,0.017515,0.010664,0.012239,2.221261,1.650468,2.6394580000000003,3.2653220000000003,8.080967
39914,1645651955.929238,85.0,0.0,4521.025879,4685.641113000001,4260.0,4284.615234000001,4442.563965,450.0,3.0,55.0,,,,0.0,4.0,0.0,4.0,0.0,4.0,33.333332,,,,,,,,,,,,,,,,,,,,,,,,,,,,,,,,,,,,,,,,,,,,,,,,,,,,,,,,,,,,,,,,,,,,,,,,,,,,,,,,,,,,
39915,1645651955.937053,86.0,0.0,4517.94873,4657.436035,4262.563965,4285.128418,4441.538574,450.0,3.0,55.0,,,,0.0,4.0,0.0,4.0,0.0,4.0,33.333332,,,,,,,,43.0,0.0,0.44277700000000003,0.505371,0.264893,-0.69165,0.945815,-0.076661,-0.350591,-0.015802,-0.046747000000000004,-0.039802,,,,,,,,,,,,,,,,,,,,,,,,,,,,,,,,,,,,,,,,,,,,,,,,,,,,,,,,,,,,,,,,,
39916,1645651955.944869,87.0,0.0,4510.769043,4662.563965,4262.05127,4282.05127,4426.666504,16206.0,3.0,55.0,,,,0.0,4.0,0.0,4.0,0.0,4.0,33.333332,,,,,,,,,,,,,,,,,,,,,,,,,,,,,,,,,,,,,,,,,,,,,,,,,,,,,,,,,,,,,,,,,,,,,,,,,,,,,,,,,,,,
39917,1645651955.952684,88.0,0.0,4496.922852000001,4671.282227000001,4261.025879,4282.05127,4422.05127,450.0,3.0,55.0,,,,0.0,4.0,0.0,4.0,0.0,4.0,33.333332,,,,,,,,44.0,0.0,0.44283599999999995,0.5058590000000001,0.265137,-0.6911619999999999,0.937514,-0.08203300000000001,-0.361334,-0.014906,-0.046807999999999995,-0.041828,,,,,,,,,,,,,,,,,,,,,,,,,,,,,,,,,,,0.0,0.0,32.0,1.0,1.0,0.0,,,,,,,,,,,,,,,,,,,,,,,,,
39918,1645651955.9605,89.0,0.0,4487.179688,4685.641113000001,4248.205078,4284.102539,4416.410156,450.0,3.0,55.0,,,,0.0,4.0,0.0,4.0,0.0,4.0,33.333332,,,,,,,,,,,,,,,,,,,,,,,,,,,,,,,,,,,,,,,,,,,,,,,,,,,,,,,,,,,,,,,,,,,,,,,,,,,,,,,,,,,,
39919,1645651955.968415,90.0,0.0,4477.94873,4681.538574,4257.94873,4281.538574,4408.205078,450.0,3.0,55.0,,,,0.0,4.0,0.0,4.0,0.0,4.0,33.333332,,,,,,,,45.0,0.0,0.442659,0.5063479999999999,0.265137,-0.690918,0.9404440000000001,-0.07324299999999999,-0.35938000000000003,-0.013512999999999999,-0.046863999999999996,-0.043505,,,,,,,,,,,,,,,,,,,,,,,,,,,,,,,,,,,,,,,,,,,,,,,,,,,,,,,,,,,,,,,,,
39920,1645651955.9762301,91.0,0.0,4480.0,4679.487305,4280.512695,4281.025879,4418.461426,16206.0,3.0,55.0,,,,0.0,4.0,0.0,4.0,0.0,4.0,33.333332,,,,,,,,,,,,,,,,,,,,,,,,,,,,,,,,,,,,,,,,,,,,,,,,,,,,,,,,,,,,,,,,,,,,,,,,,,,,,,,,,,,,
39921,1645651955.984046,92.0,0.0,4481.538574,4723.589844,4274.358886999999,4283.077147999999,4420.512695,450.0,3.0,55.0,,,,0.0,4.0,0.0,4.0,0.0,4.0,33.333332,,,,,,,,46.0,0.0,0.443141,0.506592,0.265137,-0.69043,0.938003,-0.065919,-0.350103,-0.014505,-0.046816,-0.045014,,,,,,,,,,,,,,,,,,,,,,,,,,,,,,,,,,,0.0,0.0,32.0,1.0,1.0,0.0,,,,,,,,,,,,,,,,,,,,,,,,,
39922,1645651955.9918609,93.0,0.0,4444.615234000001,4731.282227000001,4235.897461,4282.563965,4378.461426,450.0,3.0,55.0,,,,0.0,4.0,0.0,4.0,0.0,4.0,33.333332,,,,,,,,,,,,,,,,,,,,,,,,,,,,,,,,,,,,,,,,,,,,,,,,,,,,,,,,,,,,,,,,,,,,,,,,,,,,,,,,,,,,
39923,1645651955.999676,94.0,0.0,4429.743652,4731.794922,4245.641113000001,4281.538574,4360.512695,450.0,3.0,55.0,,,,0.0,4.0,0.0,4.0,0.0,4.0,33.333332,,,,,,,,47.0,0.0,0.443242,0.506836,0.265137,-0.690186,0.9428850000000001,-0.080568,-0.34473200000000004,-0.015447,-0.046773,-0.046225,,,,,,,,,,,,,,,,,,,,,,,,,,,,,,,,,,,,,,,,,,,,,,,,,,,,,,,,,,,,,,,,,
39924,1645651956.007492,95.0,0.0,4456.410156,4750.256348,4283.589844,4282.563965,4405.641113000001,16206.0,3.0,55.0,,,,0.0,4.0,0.0,4.0,0.0,4.0,33.333332,,,,,,,,,,,,,,,,,,,,,,,,,,,,,,,,,,,,,,,,,,,,,,,,,,,,,,,,,,,,,,,,,,,,,,,,,,,,,,,,,,,,
39925,1645651956.015307,96.0,0.0,4437.436035,4754.871582,4279.487305,4282.05127,4406.153809,450.0,3.0,55.0,,,,0.0,4.0,0.0,4.0,0.0,4.0,33.333332,,,,,,,,48.0,0.0,0.44334300000000004,0.50708,0.265137,-0.689941,0.952651,-0.081544,-0.34375500000000003,-0.014,-0.046833,-0.047462,,,,,,,,,,,,,,,,,,,,,,,,,,,,,,,,,,,0.0,0.0,32.0,1.0,1.0,0.0,,,,,,,,,,,,,,,,,,,,,,,,,
39926,1645651956.023122,97.0,0.0,4374.358886999999,4735.897461,4248.717772999999,4280.512695,4356.410156,450.0,3.0,55.0,,,,0.0,4.0,0.0,4.0,0.0,4.0,33.333332,,,,,,,,,,,,,,,,,,,,,,,,,,,,,,,,,,,,,,,,,,,,,,,,,,,,,,,,,,,,,,,,,,,,,,,,,,,,,,,,,,,,
39927,1645651956.0309381,98.0,0.0,4350.769043,4722.563965,4255.384765999999,4281.538574,4343.589844,450.0,3.0,55.0,,,,0.0,4.0,0.0,4.0,0.0,4.0,33.333332,,,,,,,,49.0,0.0,0.44329799999999997,0.507324,0.265381,-0.689697,0.945327,-0.075196,-0.350591,-0.013284,-0.046787999999999996,-0.048527,,,,,,,,,,,,,,,,,,,,,,,,,,,,,,,,,,,,,,,,,,,,,,,,,,,,,,,,,,,,,,,,,
39928,1645651956.038853,99.0,0.0,4366.153809,4678.461426,4277.436035,4281.538574,4356.922852000001,16206.0,3.0,55.0,,,,0.0,4.0,0.0,4.0,0.0,4.0,33.333332,,,,,,,,,,,,,,,,,,,,,,,,,,,,,,,,,,,,,,,,,,,,,,,,,,,,,,,,,,,,,,,,,,,,,,,,,,,,,,,,,,,,
39929,1645651956.046668,100.0,0.0,4335.384765999999,4634.871582,4257.436035,4280.512695,4333.333496,450.0,3.0,55.0,,,,0.0,4.0,0.0,4.0,0.0,4.0,33.333332,,,,,,,,50.0,0.0,0.44329799999999997,0.507324,0.265381,-0.689697,0.9399559999999999,-0.080568,-0.34375500000000003,-0.012053,-0.046748000000000005,-0.049485,1.0,0.0,0.0,,,,,,,,,,,,,,,,,,,,,,,,,,,,,,,,0.0,0.0,32.0,1.0,1.0,0.0,25.193314,1.9080990000000002,2.495633,2.600125,6.9947490000000005,10.571304,15.791604000000001,44.558018,37.603905,31.92206,32.775494,46.083003999999995,29.878446999999998,27.930737,47.533882,0.492616,0.029302999999999996,0.022699,0.012023,0.014244999999999999,2.6730169999999998,1.892642,2.6323830000000004,4.643202,11.584665
39930,1645651956.054484,101.0,0.0,4285.128418,4695.897461,4229.230957,4280.0,4302.563965,450.0,3.0,55.0,,,,0.0,4.0,0.0,4.0,0.0,4.0,33.333332,,,,,,,,,,,,,,,,,,,,,,,,,,,,,,,,,,,,,,,,,,,,,,,,,,,,,,,,,,,,,,,,,,,,,,,,,,,,,,,,,,,,
39931,1645651956.062299,102.0,0.0,4257.94873,4709.230957,4231.282227000001,4280.512695,4284.102539,450.0,3.0,55.0,,,,0.0,4.0,0.0,4.0,0.0,4.0,33.333332,,,,,,,,51.0,0.0,0.443644,0.507813,0.265137,-0.689209,0.952651,-0.093751,-0.34815,-0.01324,-0.046810000000000004,-0.050395999999999996,,,,,,,,,,,,,,,,,,,,,,,,,,,,,,,,,,,,,,,,,,,,,,,,,,,,,,,,,,,,,,,,,
39932,1645651956.0701141,103.0,0.0,4264.615234000001,4603.589844,4255.384765999999,4280.512695,4279.487305,16206.0,3.0,55.0,,,,0.0,4.0,0.0,4.0,0.0,4.0,33.333332,,,,,,,,,,,,,,,,,,,,,,,,,,,,,,,,,,,,,,,,,,,,,,,,,,,,,,,,,,,,,,,,,,,,,,,,,,,,,,,,,,,,
39933,1645651956.07793,104.0,0.0,4270.256348,4584.102539,4262.05127,4280.512695,4302.05127,450.0,3.0,55.0,,,,0.0,4.0,0.0,4.0,0.0,4.0,33.333332,,,,,,,,52.0,0.0,0.44336400000000004,0.508057,0.265137,-0.689209,0.9511860000000001,-0.09472799999999999,-0.343267,-0.014407,-0.046816,-0.044965,,,,,,,,,,,,,,,,,,,,,,,,,,,,,,,,,,,0.0,0.0,32.0,1.0,1.0,0.0,,,,,,,,,,,,,,,,,,,,,,,,,
39934,1645651956.0857449,105.0,0.0,4254.871582,4674.871582,4268.205078,4281.025879,4320.512695,450.0,3.0,55.0,,,,0.0,4.0,0.0,4.0,0.0,4.0,33.333332,,,,,,,,,,,,,,,,,,,,,,,,,,,,,,,,,,,,,,,,,,,,,,,,,,,,,,,,,,,,,,,,,,,,,,,,,,,,,,,,,,,,
39935,1645651956.093561,106.0,0.0,4242.563965,4697.94873,4258.461426,4281.025879,4297.436035,450.0,3.0,55.0,,,,0.0,4.0,0.0,4.0,0.0,4.0,33.333332,,,,,,,,53.0,0.0,0.44374399999999997,0.508057,0.265137,-0.6889649999999999,0.9438620000000001,-0.085451,-0.35938000000000003,-0.015456000000000001,-0.046969,-0.046377,,,,,,,,,,,,,,,,,,,,,,,,,,,,,,,,,,,,,,,,,,,,,,,,,,,,,,,,,,,,,,,,,
39936,1645651956.101376,107.0,0.0,4227.692383,4618.974121,4250.256348,4280.512695,4271.282227000001,16206.0,3.0,55.0,,,,0.0,4.0,0.0,4.0,0.0,4.0,33.333332,,,,,,,,,,,,,,,,,,,,,,,,,,,,,,,,,,,,,,,,,,,,,,,,,,,,,,,,,,,,,,,,,,,,,,,,,,,,,,,,,,,,
39937,1645651956.109291,108.0,0.0,4211.282227000001,4581.538574,4248.717772999999,4280.512695,4270.769043,450.0,3.0,55.0,,,,0.0,4.0,0.0,4.0,0.0,4.0,33.333332,,,,,,,,54.0,0.0,0.44384300000000004,0.508301,0.265137,-0.688721,0.9550930000000001,-0.089357,-0.348638,-0.016206,-0.047057,-0.041446,,,,,,,,,,,,,,,,,,,,,,,,,,,,,,,,,,,0.0,0.0,32.0,1.0,1.0,0.0,,,,,,,,,,,,,,,,,,,,,,,,,
39938,1645651956.117106,109.0,0.0,4204.102539,4613.846191,4251.794922,4280.512695,4268.205078,450.0,3.0,55.0,,,,0.0,4.0,0.0,4.0,0.0,4.0,33.333332,,,,,,,,,,,,,,,,,,,,,,,,,,,,,,,,,,,,,,,,,,,,,,,,,,,,,,,,,,,,,,,,,,,,,,,,,,,,,,,,,,,,
39939,1645651956.124922,110.0,0.0,4197.436035,4657.436035,4233.846191,4278.974121,4245.128418,450.0,3.0,55.0,,,,0.0,4.0,0.0,4.0,0.0,4.0,33.333332,,,,,,,,55.0,0.0,0.443563,0.508545,0.265137,-0.688721,0.9423969999999999,-0.08691499999999999,-0.340826,-0.016929,-0.047088,-0.043210000000000005,,,,,,,,,,,,,,,,,,,,,,,,,,,,,,,,,,,,,,,,,,,,,,,,,,,,,,,,,,,,,,,,,
39940,1645651956.132737,111.0,0.0,4176.922852000001,4656.410156,4220.512695,4277.94873,4233.333496,16206.0,3.0,55.0,,,,0.0,4.0,0.0,4.0,0.0,4.0,33.333332,,,,,,,,,,,,,,,,,,,,,,,,,,,,,,,,,,,,,,,,,,,,,,,,,,,,,,,,,,,,,,,,,,,,,,,,,,,,,,,,,,,,
39941,1645651956.140553,112.0,0.0,4170.256348,4618.974121,4224.102539,4278.974121,4246.666504,450.0,3.0,55.0,,,,0.0,4.0,0.0,4.0,0.0,4.0,33.333332,,,,,,,,56.0,0.0,0.443709,0.508545,0.264893,-0.688721,0.9555809999999999,-0.091798,-0.341802,-0.017580000000000002,-0.047066000000000004,-0.03845,,,,,,,,,,,,,,,,,,,,,,,,,,,,,,,,,,,0.0,0.0,32.0,1.0,1.0,0.0,,,,,,,,,,,,,,,,,,,,,,,,,
39942,1645651956.148368,113.0,0.0,4180.0,4674.871582,4230.769043,4280.0,4249.230957,450.0,3.0,55.0,,,,0.0,4.0,0.0,4.0,0.0,4.0,33.333332,,,,,,,,,,,,,,,,,,,,,,,,,,,,,,,,,,,,,,,,,,,,,,,,,,,,,,,,,,,,,,,,,,,,,,,,,,,,,,,,,,,,
39943,1645651956.156183,114.0,0.0,4188.717772999999,4749.743652,4237.436035,4280.0,4255.897461,450.0,3.0,55.0,,,,0.0,4.0,0.0,4.0,0.0,4.0,33.333332,,,,,,,,57.0,0.0,0.44384300000000004,0.508301,0.265137,-0.688721,0.9550930000000001,-0.089357,-0.348638,-0.018361000000000002,-0.047096,-0.034263,,,,,,,,,,,,,,,,,,,,,,,,,,,,,,,,,,,,,,,,,,,,,,,,,,,,,,,,,,,,,,,,,
39944,1645651956.163999,115.0,0.0,4198.974121,4676.922852000001,4257.94873,4277.436035,4276.410156,16206.0,3.0,55.0,,,,0.0,4.0,0.0,4.0,0.0,4.0,33.333332,,,,,,,,,,,,,,,,,,,,,,,,,,,,,,,,,,,,,,,,,,,,,,,,,,,,,,,,,,,,,,,,,,,,,,,,,,,,,,,,,,,,
39945,1645651956.171814,116.0,0.0,4197.436035,4613.333496,4261.538574,4277.94873,4277.94873,450.0,3.0,55.0,,,,0.0,4.0,0.0,4.0,0.0,4.0,33.333332,1.0,0.0,3.0,0.0,0.0,0.0,1.0,58.0,0.0,0.443709,0.508545,0.264893,-0.688721,0.9555809999999999,-0.091798,-0.341802,-0.018869,-0.047074,-0.030397000000000004,1.0,0.0,0.0,,,,,,,,,,,,,,,,,,,,,,,,,,,,,,,,0.0,0.0,32.0,0.9987219999999999,1.0,0.0,80.88327,2.529718,2.844323,3.578035,8.723121,13.210606,16.409101,40.281665999999994,42.936295,36.631617999999996,44.879996999999996,61.242123,39.294033,37.78463,62.253891,0.631034,0.03556,0.027991000000000002,0.013483000000000002,0.016184,3.192647,2.634465,3.252071,6.049618,15.019292000000002
39946,1645651956.1796288,117.0,0.0,4162.563965,4681.538574,4233.333496,4278.461426,4244.615234000001,450.0,3.0,55.0,,,,0.0,4.0,0.0,4.0,0.0,4.0,33.333332,,,,,,,,,,,,,,,,,,,,,,,,,,,,,,,,,,,,,,,,,,,,,,,,,,,,,,,,,,,,,,,,,,,,,,,,,,,,,,,,,,,,
39947,1645651956.187345,118.0,0.0,4148.717772999999,4740.512695,4218.461426,4277.436035,4234.358886999999,450.0,3.0,55.0,,,,0.0,4.0,0.0,4.0,0.0,4.0,33.333332,,,,,,,,59.0,0.0,0.443808,0.508789,0.264893,-0.688477,0.945327,-0.081544,-0.34912600000000005,-0.017763,-0.047152,-0.033217,,,,,,,,,,,,,,,,,,,,,,,,,,,,,,,,,,,,,,,,,,,,,,,,,,,,,,,,,,,,,,,,,
39948,1645651956.19516,119.0,0.0,4161.538574,4706.153809,4220.0,4277.94873,4242.05127,16206.0,3.0,55.0,,,,0.0,4.0,0.0,4.0,0.0,4.0,33.333332,,,,,,,,,,,,,,,,,,,,,,,,,,,,,,,,,,,,,,,,,,,,,,,,,,,,,,,,,,,,,,,,,,,,,,,,,,,,,,,,,,,,
39949,1645651956.202976,120.0,0.0,4182.563965,4636.410156,4243.077147999999,4278.974121,4253.846191,450.0,3.0,55.0,,,,0.0,4.0,0.0,4.0,0.0,4.0,33.333332,,,,,,,,60.0,0.0,0.443808,0.508789,0.264893,-0.688477,0.9550930000000001,-0.095705,-0.340826,-0.018379,-0.047076,-0.029407,,,,,,,,,,,,,,,,,,,,,,,,,,,,,,,,,,,0.0,0.0,32.0,0.9987219999999999,1.0,0.0,,,,,,,,,,,,,,,,,,,,,,,,,
39950,1645651956.210791,121.0,0.0,4178.974121,4615.897461,4245.641113000001,4278.461426,4260.512695,450.0,3.0,55.0,,,,0.0,4.0,0.0,4.0,0.0,4.0,33.333332,,,,,,,,,,,,,,,,,,,,,,,,,,,,,,,,,,,,,,,,,,,,,,,,,,,,,,,,,,,,,,,,,,,,,,,,,,,,,,,,,,,,
39951,1645651956.218606,122.0,0.0,4164.615234000001,4662.05127,4244.102539,4278.461426,4258.461426,450.0,3.0,55.0,,,,0.0,4.0,0.0,4.0,0.0,4.0,33.333332,,,,,,,,61.0,0.0,0.443808,0.508789,0.264893,-0.688477,0.934585,-0.09424,-0.343267,-0.018934,-0.046958,-0.025977999999999998,,,,,,,,,,,,,,,,,,,,,,,,,,,,,,,,,,,,,,,,,,,,,,,,,,,,,,,,,,,,,,,,,
39952,1645651956.226422,123.0,0.0,4180.0,4725.641113000001,4249.743652,4279.487305,4262.05127,16206.0,3.0,55.0,,,,0.0,4.0,0.0,4.0,0.0,4.0,33.333332,,,,,,,,,,,,,,,,,,,,,,,,,,,,,,,,,,,,,,,,,,,,,,,,,,,,,,,,,,,,,,,,,,,,,,,,,,,,,,,,,,,,
39953,1645651956.234237,124.0,0.0,4187.692383,4760.512695,4248.717772999999,4279.487305,4260.512695,450.0,3.0,55.0,,,,0.0,4.0,0.0,4.0,0.0,4.0,33.333332,,,,,,,,62.0,0.0,0.443954,0.508789,0.264648,-0.688477,0.938491,-0.09668099999999999,-0.349615,-0.01958,-0.046999,-0.029191,,,,,,,,,,,,,,,,,,,,,,,,,,,,,,,,,,,0.0,0.0,32.0,0.9987219999999999,1.0,0.0,,,,,,,,,,,,,,,,,,,,,,,,,
39954,1645651956.242152,125.0,0.0,4163.589844,4743.589844,4220.0,4278.974121,4243.077147999999,450.0,3.0,55.0,,,,0.0,4.0,1.0,4.0,0.0,4.0,41.666668,,,,,,,,,,,,,,,,,,,,,,,,,,,,,,,,,,,,,,,,,,,,,,,,,,,,,,,,,,,,,,,,,,,,,,,,,,,,,,,,,,,,
39955,1645651956.249968,126.0,0.0,4152.820313,4669.743652,4221.025879,4278.461426,4241.538574,450.0,3.0,55.0,,,,0.0,4.0,1.0,4.0,0.0,4.0,41.666668,,,,,,,,63.0,0.0,0.443954,0.508789,0.264648,-0.688477,0.9594870000000001,-0.07422000000000001,-0.343267,-0.017719,-0.047035,-0.025782999999999997,,,,,,,,,,,,,,,,,,,,,,,,,,,,,,,,,,,,,,,,,,,,,,,,,,,,,,,,,,,,,,,,,
39956,1645651956.257783,127.0,0.0,4181.025879,4626.153809,4248.205078,4277.436035,4260.0,234.0,3.0,55.0,,,,0.0,4.0,1.0,4.0,0.0,4.0,41.666668,,,,,,,,,,,,,,,,,,,,,,,,,,,,,,,,,,,,,,,,,,,,,,,,,,,,,,,,,,,,,,,,,,,,,,,,,,,,,,,,,,,,
39957,1645651956.265598,0.0,0.0,4177.436035,4659.487305,4241.025879,4278.974121,4241.538574,450.0,3.0,55.0,,,,0.0,4.0,1.0,4.0,0.0,4.0,41.666668,,,,,,,,0.0,0.0,0.443954,0.508789,0.264648,-0.688477,0.9487450000000001,-0.087404,-0.357916,-0.015996,-0.04697,-0.029113,,,,,,,,,,,,,,,,,,,,,,,,,,,,,,,,,,,0.0,0.0,32.0,0.9987219999999999,1.0,0.0,,,,,,,,,,,,,,,,,,,,,,,,,
39958,1645651956.2734141,1.0,0.0,4143.589844,4643.589844,4216.922852000001,4279.487305,4204.615234000001,450.0,3.0,55.0,,,,0.0,4.0,1.0,4.0,0.0,4.0,41.666668,,,,,,,,,,,,,,,,,,,,,,,,,,,,,,,,,,,,,,,,,,,,,,,,,,,,,,,,,,,,,,,,,,,,,,,,,,,,,,,,,,,,
39959,1645651956.281229,2.0,0.0,4142.05127,4596.922852000001,4221.538574,4276.922852000001,4208.717772999999,16193.0,3.0,55.0,,,,0.0,4.0,1.0,4.0,0.0,4.0,41.666668,,,,,,,,1.0,0.0,0.443528,0.509033,0.264893,-0.688477,0.9580219999999999,-0.09131,-0.34375500000000003,-0.016887,-0.046912,-0.032061,,,,,,,,,,,,,,,,,,,,,,,,,,,,,,,,,,,,,,,,,,,,,,,,,,,,,,,,,,,,,,,,,
39960,1645651956.289044,3.0,0.0,4162.05127,4636.410156,4227.692383,4276.410156,4239.487305,450.0,3.0,55.0,,,,0.0,4.0,1.0,4.0,0.0,4.0,41.666668,,,,,,,,,,,,,,,,,,,,,,,,,,,,,,,,,,,,,,,,,,,,,,,,,,,,,,,,,,,,,,,,,,,,,,,,,,,,,,,,,,,,
39961,1645651956.29686,4.0,0.0,4167.179688,4691.794922,4223.077147999999,4279.487305,4246.666504,66.0,3.0,55.0,,,,0.0,4.0,1.0,4.0,0.0,4.0,41.666668,,,,,,,,2.0,0.0,0.44405200000000006,0.509033,0.264648,-0.688232,0.954116,-0.095705,-0.353033,-0.015931,-0.046908,-0.034470999999999995,1.0,0.0,0.0,,,,,,,,,,,,,,,,,,,,,,,,,,,,,,,,0.0,0.0,64.0,1.0,1.0,0.0,187.737564,3.683501,3.8270160000000004,4.722332,9.996310000000001,16.501921,15.404027,35.625862,44.387535,39.672543,52.288662,69.543297,44.621777,43.589741,70.016602,0.709839,0.039456,0.031955000000000004,0.014706,0.017981,3.872585,4.180917,4.555003,7.156034,17.570269
39962,1645651956.304675,5.0,0.0,4165.641113000001,4681.538574,4225.128418,4278.974121,4237.436035,450.0,3.0,55.0,,,,0.0,4.0,1.0,4.0,0.0,4.0,41.666668,,,,,,,,,,,,,,,,,,,,,,,,,,,,,,,,,,,,,,,,,,,,,,,,,,,,,,,,,,,,,,,,,,,,,,,,,,,,,,,,,,,,
39963,1645651956.3125901,6.0,0.0,4158.974121,4672.820313,4216.410156,4277.436035,4215.897461,16218.0,3.0,55.0,,,,0.0,4.0,1.0,4.0,0.0,4.0,41.666668,,,,,,,,3.0,0.0,0.443772,0.5092770000000001,0.264648,-0.688232,0.96144,-0.085451,-0.344244,-0.016633000000000002,-0.047002999999999996,-0.030632999999999997,,,,,,,,,,,,,,,,,,,,,,,,,,,,,,,,,,,,,,,,,,,,,,,,,,,,,,,,,,,,,,,,,
39964,1645651956.320406,7.0,0.0,4156.410156,4644.615234000001,4217.94873,4278.974121,4220.0,450.0,3.0,55.0,,,,0.0,4.0,1.0,4.0,0.0,4.0,41.666668,,,,,,,,,,,,,,,,,,,,,,,,,,,,,,,,,,,,,,,,,,,,,,,,,,,,,,,,,,,,,,,,,,,,,,,,,,,,,,,,,,,,
39965,1645651956.328221,8.0,0.0,4156.922852000001,4576.410156,4231.282227000001,4278.974121,4249.230957,450.0,3.0,55.0,,,,0.0,4.0,1.0,4.0,0.0,4.0,41.666668,,,,,,,,4.0,0.0,0.443772,0.5092770000000001,0.264648,-0.688232,0.946792,-0.082521,-0.34521999999999997,-0.01746,-0.047039,-0.03338,,,,,,,,,,,,,,,,,,,,,,,,,,,,,,,,,,,0.0,0.0,64.0,1.0,1.0,0.0,,,,,,,,,,,,,,,,,,,,,,,,,
39966,1645651956.336036,9.0,0.0,4164.615234000001,4637.94873,4230.256348,4278.461426,4255.384765999999,0.0,3.0,55.0,,,,0.0,4.0,1.0,4.0,0.0,4.0,41.666668,,,,,,,,,,,,,,,,,,,,,,,,,,,,,,,,,,,,,,,,,,,,,,,,,,,,,,,,,,,,,,,,,,,,,,,,,,,,,,,,,,,,
39967,1645651956.343852,10.0,0.0,4170.769043,4767.179688,4199.487305,4280.0,4239.487305,450.0,3.0,55.0,,,,0.0,4.0,1.0,4.0,0.0,4.0,41.666668,,,,,,,,5.0,0.0,0.443492,0.509521,0.264648,-0.688232,0.941909,-0.08447400000000001,-0.35352100000000003,-0.016446000000000002,-0.047023,-0.035657999999999995,,,,,,,,,,,,,,,,,,,,,,,,,,,,,,,,,,,,,,,,,,,,,,,,,,,,,,,,,,,,,,,,,
39968,1645651956.351667,11.0,0.0,4174.871582,4703.077147999999,4205.128418,4278.461426,4241.025879,16208.0,3.0,55.0,,,,0.0,4.0,1.0,4.0,0.0,4.0,41.666668,,,,,,,,,,,,,,,,,,,,,,,,,,,,,,,,,,,,,,,,,,,,,,,,,,,,,,,,,,,,,,,,,,,,,,,,,,,,,,,,,,,,
39969,1645651956.359483,12.0,0.0,4161.538574,4589.743652,4209.743652,4276.922852000001,4243.589844,450.0,3.0,55.0,,,,0.0,4.0,1.0,4.0,0.0,4.0,41.666668,,,,,,,,6.0,0.0,0.443871,0.509521,0.264648,-0.687988,0.9438620000000001,-0.083009,-0.344244,-0.017243,-0.047057,-0.037951,,,,,,,,,,,,,,,,,,,,,,,,,,,,,,,,,,,0.0,0.0,64.0,1.0,1.0,0.0,,,,,,,,,,,,,,,,,,,,,,,,,
39970,1645651956.3672981,13.0,0.0,4130.256348,4655.897461,4179.487305,4278.974121,4213.846191,450.0,3.0,55.0,,,,0.0,4.0,1.0,4.0,0.0,4.0,41.666668,,,,,,,,,,,,,,,,,,,,,,,,,,,,,,,,,,,,,,,,,,,,,,,,,,,,,,,,,,,,,,,,,,,,,,,,,,,,,,,,,,,,
39971,1645651956.375113,14.0,0.0,4138.974121,4678.974121,4158.461426,4280.0,4193.846191,450.0,3.0,55.0,,,,0.0,4.0,1.0,4.0,0.0,4.0,41.666668,,,,,,,,7.0,0.0,0.443871,0.509521,0.264648,-0.687988,0.9404440000000001,-0.07128999999999999,-0.343267,-0.017911,-0.047136000000000004,-0.033717000000000004,,,,,,,,,,,,,,,,,,,,,,,,,,,,,,,,,,,,,,,,,,,,,,,,,,,,,,,,,,,,,,,,,
39972,1645651956.383029,15.0,0.0,4165.641113000001,4602.563965,4193.846191,4276.922852000001,4214.358886999999,16208.0,3.0,55.0,,,,0.0,4.0,1.0,4.0,0.0,4.0,41.666668,,,,,,,,,,,,,,,,,,,,,,,,,,,,,,,,,,,,,,,,,,,,,,,,,,,,,,,,,,,,,,,,,,,,,,,,,,,,,,,,,,,,
39973,1645651956.3908439,16.0,0.0,4158.974121,4639.487305,4215.897461,4275.384765999999,4246.666504,0.0,3.0,55.0,,,,0.0,4.0,1.0,4.0,0.0,4.0,41.666668,,,,,,,,8.0,0.0,0.443871,0.509521,0.264648,-0.687988,0.945815,-0.100587,-0.344244,-0.018562000000000002,-0.04711,-0.036205,,,,,,,,,,,,,,,,,,,,,,,,,,,,,,,,,,,0.0,0.0,64.0,1.0,1.0,0.0,,,,,,,,,,,,,,,,,,,,,,,,,
39974,1645651956.398659,17.0,0.0,4154.871582,4723.589844,4201.025879,4277.94873,4255.897461,0.0,3.0,55.0,,,,0.0,4.0,1.0,4.0,0.0,4.0,41.666668,,,,,,,,,,,,,,,,,,,,,,,,,,,,,,,,,,,,,,,,,,,,,,,,,,,,,,,,,,,,,,,,,,,,,,,,,,,,,,,,,,,,
39975,1645651956.406575,18.0,0.0,4187.179688,4711.282227000001,4188.205078,4280.512695,4246.153809,0.0,3.0,55.0,,,,0.0,4.0,1.0,4.0,0.0,4.0,41.666668,,,,,,,,9.0,0.0,0.443871,0.509521,0.264648,-0.687988,0.947768,-0.085939,-0.344244,-0.019098,-0.046988999999999996,-0.032047000000000006,,,,,,,,,,,,,,,,,,,,,,,,,,,,,,,,,,,,,,,,,,,,,,,,,,,,,,,,,,,,,,,,,
39976,1645651956.41449,19.0,0.0,4193.846191,4628.717772999999,4192.820313,4279.487305,4234.358886999999,0.0,3.0,55.0,,,,0.0,4.0,1.0,4.0,0.0,4.0,41.666668,,,,,,,,,,,,,,,,,,,,,,,,,,,,,,,,,,,,,,,,,,,,,,,,,,,,,,,,,,,,,,,,,,,,,,,,,,,,,,,,,,,,
39977,1645651956.422305,20.0,0.0,4167.179688,4609.230957,4201.538574,4276.922852000001,4227.179688,0.0,3.0,55.0,,,,0.0,4.0,1.0,4.0,0.0,4.0,41.666668,,,,,,,,10.0,0.0,0.443871,0.509521,0.264648,-0.687988,0.9487450000000001,-0.082521,-0.351568,-0.01963,-0.047173,-0.034652999999999996,1.0,0.0,0.0,,,,,,,,,,,,,,,,,,,,,,,,,,,,,,,,0.0,0.0,64.0,1.0,1.0,0.0,338.402954,5.390886,5.283588,5.828313,10.504238,20.565607,12.940524,31.482591999999997,41.513508,40.650535999999995,52.570866,67.957672,43.875744,43.365383,68.11320500000001,0.716561,0.04032,0.033507999999999996,0.015284,0.01952,4.799233999999999,6.522221,6.3481,7.713341000000001,18.605324
39978,1645651956.4301212,21.0,0.0,4165.128418,4705.641113000001,4204.615234000001,4277.94873,4231.282227000001,0.0,3.0,55.0,,,,0.0,4.0,1.0,4.0,0.0,4.0,41.666668,,,,,,,,,,,,,,,,,,,,,,,,,,,,,,,,,,,,,,,,,,,,,,,,,,,,,,,,,,,,,,,,,,,,,,,,,,,,,,,,,,,,
39979,1645651956.4379358,22.0,0.0,4180.512695,4752.307617,4207.692383,4279.487305,4249.743652,0.0,3.0,55.0,,,,0.0,4.0,1.0,4.0,0.0,4.0,41.666668,,,,,,,,11.0,0.0,0.443871,0.509521,0.264648,-0.687988,0.938003,-0.09424,-0.34815,-0.02001,-0.047192000000000005,-0.030846,,,,,,,,,,,,,,,,,,,,,,,,,,,,,,,,,,,,,,,,,,,,,,,,,,,,,,,,,,,,,,,,,
39980,1645651956.445751,23.0,0.0,4174.358886999999,4656.410156,4192.820313,4277.94873,4240.512695,0.0,3.0,55.0,,,,0.0,4.0,1.0,4.0,0.0,4.0,41.666668,,,,,,,,,,,,,,,,,,,,,,,,,,,,,,,,,,,,,,,,,,,,,,,,,,,,,,,,,,,,,,,,,,,,,,,,,,,,,,,,,,,,
39981,1645651956.453567,24.0,0.0,4180.512695,4586.666504,4199.487305,4277.94873,4241.025879,0.0,3.0,55.0,,,,0.0,4.0,1.0,4.0,0.0,4.0,41.666668,,,,,,,,12.0,0.0,0.443492,0.509521,0.264648,-0.688232,0.946792,-0.082521,-0.34766199999999997,-0.018058,-0.047161,-0.033621,,,,,,,,,,,,,,,,,,,,,,,,,,,,,,,,,,,0.0,0.0,64.0,1.0,1.0,0.0,,,,,,,,,,,,,,,,,,,,,,,,,
39982,1645651956.461382,25.0,0.0,4197.436035,4590.769043,4225.128418,4278.974121,4270.256348,0.0,3.0,55.0,,,,0.0,4.0,1.0,4.0,0.0,4.0,41.666668,,,,,,,,,,,,,,,,,,,,,,,,,,,,,,,,,,,,,,,,,,,,,,,,,,,,,,,,,,,,,,,,,,,,,,,,,,,,,,,,,,,,
39983,1645651956.469197,26.0,0.0,4190.769043,4607.692383,4224.102539,4277.94873,4264.102539,0.0,3.0,55.0,,,,0.0,4.0,1.0,4.0,0.0,4.0,41.666668,,,,,,,,13.0,0.0,0.443871,0.509521,0.264648,-0.687988,0.95021,-0.093751,-0.354986,-0.01635,-0.047132,-0.036118,,,,,,,,,,,,,,,,,,,,,,,,,,,,,,,,,,,,,,,,,,,,,,,,,,,,,,,,,,,,,,,,,
39984,1645651956.477013,27.0,0.0,4171.794922,4695.384765999999,4187.179688,4278.461426,4228.717772999999,0.0,3.0,55.0,,,,0.0,4.0,1.0,4.0,0.0,4.0,41.666668,,,,,,,,,,,,,,,,,,,,,,,,,,,,,,,,,,,,,,,,,,,,,,,,,,,,,,,,,,,,,,,,,,,,,,,,,,,,,,,,,,,,
39985,1645651956.484928,28.0,0.0,4189.743652,4730.256348,4202.05127,4279.487305,4244.615234000001,0.0,3.0,55.0,,,,0.0,4.0,1.0,4.0,0.0,4.0,41.666668,,,,,,,,14.0,0.0,0.443871,0.509521,0.264648,-0.687988,0.951675,-0.085451,-0.34815,-0.017254,-0.047204,-0.038366000000000004,,,,,,,,,,,,,,,,,,,,,,,,,,,,,,,,,,,0.0,0.0,64.0,1.0,1.0,0.0,,,,,,,,,,,,,,,,,,,,,,,,,
39986,1645651956.492743,29.0,0.0,4189.743652,4660.0,4205.641113000001,4277.436035,4256.410156,0.0,3.0,55.0,,,,0.0,4.0,1.0,4.0,0.0,4.0,41.666668,,,,,,,,,,,,,,,,,,,,,,,,,,,,,,,,,,,,,,,,,,,,,,,,,,,,,,,,,,,,,,,,,,,,,,,,,,,,,,,,,,,,
39987,1645651956.500559,30.0,0.0,4150.256348,4659.487305,4175.384765999999,4276.922852000001,4207.179688,0.0,3.0,55.0,,,,0.0,4.0,1.0,4.0,0.0,4.0,41.666668,,,,,,,,15.0,0.0,0.443492,0.509521,0.264648,-0.688232,0.9399559999999999,-0.08203300000000001,-0.34375500000000003,-0.017921,-0.047171,-0.040291,,,,,,,,,,,,,,,,,,,,,,,,,,,,,,,,,,,,,,,,,,,,,,,,,,,,,,,,,,,,,,,,,
39988,1645651956.508374,31.0,0.0,4169.230957,4728.205078,4191.794922,4278.974121,4206.153809,0.0,3.0,55.0,,,,0.0,4.0,1.0,4.0,0.0,4.0,41.666668,,,,,,,,,,,,,,,,,,,,,,,,,,,,,,,,,,,,,,,,,,,,,,,,,,,,,,,,,,,,,,,,,,,,,,,,,,,,,,,,,,,,
39989,1645651956.516189,32.0,0.0,4224.102539,4733.846191,4244.102539,4279.487305,4258.974121,0.0,3.0,55.0,,,,0.0,4.0,1.0,4.0,0.0,4.0,41.666668,,,,,,,,16.0,0.0,0.443871,0.509521,0.264648,-0.687988,0.95021,-0.093751,-0.354986,-0.016227000000000002,-0.047142,-0.042121,,,,,,,,,,,,,,,,,,,,,,,,,,,,,,,,,,,0.0,0.0,64.0,1.0,1.0,0.0,,,,,,,,,,,,,,,,,,,,,,,,,
39990,1645651956.5240052,33.0,0.0,4233.333496,4650.256348,4250.256348,4278.461426,4273.333496,0.0,3.0,55.0,,,,0.0,4.0,1.0,4.0,0.0,4.0,41.666668,,,,,,,,,,,,,,,,,,,,,,,,,,,,,,,,,,,,,,,,,,,,,,,,,,,,,,,,,,,,,,,,,,,,,,,,,,,,,,,,,,,,
39991,1645651956.5318198,34.0,0.0,4206.666504,4576.410156,4229.743652,4278.974121,4256.410156,0.0,3.0,55.0,,,,0.0,4.0,1.0,4.0,0.0,4.0,41.666668,,,,,,,,17.0,0.0,0.443871,0.509521,0.264648,-0.687988,0.95314,-0.08105599999999999,-0.357916,-0.016947999999999998,-0.047066000000000004,-0.037616000000000004,,,,,,,,,,,,,,,,,,,,,,,,,,,,,,,,,,,,,,,,,,,,,,,,,,,,,,,,,,,,,,,,,
39992,1645651956.539635,35.0,0.0,4200.0,4610.769043,4215.384765999999,4279.487305,4253.333496,0.0,3.0,55.0,,,,0.0,4.0,1.0,4.0,0.0,4.0,41.666668,,,,,,,,,,,,,,,,,,,,,,,,,,,,,,,,,,,,,,,,,,,,,,,,,,,,,,,,,,,,,,,,,,,,,,,,,,,,,,,,,,,,
39993,1645651956.547451,36.0,0.0,4197.436035,4726.666504,4199.487305,4278.974121,4248.717772999999,0.0,3.0,55.0,,,,0.0,4.0,1.0,4.0,0.0,4.0,41.666668,,,,,,,,18.0,0.0,0.44373599999999996,0.5097659999999999,0.264404,-0.687988,0.957534,-0.081544,-0.33789600000000003,-0.017597,-0.046998000000000005,-0.039665,1.0,0.0,0.0,,,,,,,,,,,,,,,,,,,,,,,,,,,,,,,,0.0,0.0,64.0,0.195522,1.0,0.0,499.729553,7.328853,6.81314,6.630064,10.135336,25.408096,9.992981,28.467701,35.628322999999995,39.876606,45.659115,57.030418000000004,37.320049,37.256813,57.22739,0.658872,0.038248000000000004,0.032365,0.01489,0.020618,5.922271,9.208018,8.252637,7.628035000000001,17.904711
39994,1645651956.555266,37.0,0.0,4196.922852000001,4748.717772999999,4204.102539,4278.461426,4245.128418,0.0,3.0,55.0,,,,0.0,4.0,1.0,4.0,0.0,4.0,41.666668,,,,,,,,,,,,,,,,,,,,,,,,,,,,,,,,,,,,,,,,,,,,,,,,,,,,,,,,,,,,,,,,,,,,,,,,,,,,,,,,,,,,
39995,1645651956.562982,38.0,0.0,4193.846191,4649.743652,4210.769043,4278.461426,4235.384765999999,0.0,3.0,55.0,,,,0.0,4.0,1.0,4.0,0.0,4.0,41.666668,,,,,,,,19.0,0.0,0.44373599999999996,0.5097659999999999,0.264404,-0.687988,0.9594870000000001,-0.084962,-0.339361,-0.018279,-0.046937,-0.041509,,,,,,,,,,,,,,,,,,,,,,,,,,,,,,,,,,,,,,,,,,,,,,,,,,,,,,,,,,,,,,,,,
39996,1645651956.570797,39.0,0.0,4190.256348,4591.794922,4213.846191,4278.461426,4223.077147999999,0.0,3.0,55.0,,,,0.0,4.0,1.0,4.0,0.0,4.0,41.666668,,,,,,,,,,,,,,,,,,,,,,,,,,,,,,,,,,,,,,,,,,,,,,,,,,,,,,,,,,,,,,,,,,,,,,,,,,,,,,,,,,,,
39997,1645651956.5786119,40.0,0.0,4200.0,4595.384765999999,4226.666504,4276.922852000001,4232.307617,0.0,3.0,55.0,,,,0.0,4.0,1.0,4.0,0.0,4.0,41.666668,,,,,,,,20.0,0.0,0.444114,0.5097659999999999,0.264404,-0.6877439999999999,0.9580219999999999,-0.101076,-0.347173,-0.018843000000000002,-0.04698,-0.037065,,,,,,,,,,,,,,,,,,,,,,,,,,,,,,,,,,,0.0,0.0,64.0,0.195522,1.0,0.0,,,,,,,,,,,,,,,,,,,,,,,,,
39998,1645651956.586428,41.0,0.0,4195.897461,4615.897461,4235.897461,4276.410156,4249.230957,0.0,3.0,55.0,,,,0.0,4.0,1.0,4.0,0.0,4.0,41.666668,,,,,,,,,,,,,,,,,,,,,,,,,,,,,,,,,,,,,,,,,,,,,,,,,,,,,,,,,,,,,,,,,,,,,,,,,,,,,,,,,,,,
39999,1645651956.594243,42.0,0.0,4176.922852000001,4658.461426,4212.820313,4278.461426,4232.820313,0.0,3.0,55.0,,,,0.0,4.0,1.0,4.0,0.0,4.0,41.666668,,,,,,,,21.0,0.0,0.444114,0.5097659999999999,0.264404,-0.6877439999999999,0.957534,-0.086427,-0.348638,-0.017057,-0.047067000000000005,-0.032919,,,,,,,,,,,,,,,,,,,,,,,,,,,,,,,,,,,,,,,,,,,,,,,,,,,,,,,,,,,,,,,,,
40000,1645651956.602058,43.0,0.0,4190.769043,4679.487305,4212.820313,4277.94873,4230.769043,0.0,3.0,55.0,,,,0.0,4.0,1.0,4.0,0.0,4.0,41.666668,,,,,,,,,,,,,,,,,,,,,,,,,,,,,,,,,,,,,,,,,,,,,,,,,,,,,,,,,,,,,,,,,,,,,,,,,,,,,,,,,,,,
40001,1645651956.609874,44.0,0.0,4208.717772999999,4633.333496,4229.230957,4276.922852000001,4252.307617,0.0,3.0,55.0,,,,0.0,4.0,1.0,4.0,0.0,4.0,41.666668,,,,,,,,22.0,0.0,0.444259,0.5097659999999999,0.26416,-0.6877439999999999,0.957046,-0.082521,-0.356451,-0.015449000000000001,-0.047097,-0.035487,,,,,,,,,,,,,,,,,,,,,,,,,,,,,,,,,,,0.0,0.0,64.0,0.195522,1.0,0.0,,,,,,,,,,,,,,,,,,,,,,,,,
40002,1645651956.6176891,45.0,0.0,4191.282227000001,4600.0,4234.871582,4277.94873,4245.128418,0.0,3.0,55.0,,,,0.0,4.0,1.0,4.0,0.0,4.0,41.666668,,,,,,,,,,,,,,,,,,,,,,,,,,,,,,,,,,,,,,,,,,,,,,,,,,,,,,,,,,,,,,,,,,,,,,,,,,,,,,,,,,,,
40003,1645651956.625604,46.0,0.0,4188.717772999999,4649.743652,4225.641113000001,4278.974121,4240.0,0.0,3.0,55.0,,,,0.0,4.0,1.0,4.0,0.0,4.0,41.666668,,,,,,,,23.0,0.0,0.444259,0.5097659999999999,0.26416,-0.6877439999999999,0.9399559999999999,-0.08691499999999999,-0.36230999999999997,-0.016394,-0.047124,-0.03145,,,,,,,,,,,,,,,,,,,,,,,,,,,,,,,,,,,,,,,,,,,,,,,,,,,,,,,,,,,,,,,,,
40004,1645651956.63342,47.0,0.0,4219.487305,4732.820313,4228.717772999999,4279.487305,4252.307617,0.0,3.0,55.0,,,,0.0,4.0,1.0,4.0,0.0,4.0,41.666668,,,,,,,,,,,,,,,,,,,,,,,,,,,,,,,,,,,,,,,,,,,,,,,,,,,,,,,,,,,,,,,,,,,,,,,,,,,,,,,,,,,,
40005,1645651956.6412349,48.0,0.0,4214.871582,4726.153809,4213.333496,4279.487305,4234.358886999999,0.0,3.0,55.0,,,,0.0,4.0,1.0,4.0,0.0,4.0,41.666668,,,,,,,,24.0,0.0,0.444114,0.5097659999999999,0.264404,-0.6877439999999999,0.9629049999999999,-0.083497,-0.347173,-0.017196,-0.047148,-0.034018,,,,,,,,,,,,,,,,,,,,,,,,,,,,,,,,,,,0.0,0.0,64.0,0.195522,1.0,0.0,,,,,,,,,,,,,,,,,,,,,,,,,
40006,1645651956.649051,49.0,0.0,4178.461426,4597.94873,4210.769043,4278.974121,4210.256348,0.0,3.0,55.0,,,,0.0,4.0,1.0,4.0,0.0,4.0,41.666668,,,,,,,,,,,,,,,,,,,,,,,,,,,,,,,,,,,,,,,,,,,,,,,,,,,,,,,,,,,,,,,,,,,,,,,,,,,,,,,,,,,,
40007,1645651956.656866,50.0,0.0,4197.436035,4575.384765999999,4226.666504,4278.461426,4236.410156,0.0,3.0,55.0,,,,0.0,4.0,1.0,4.0,0.0,4.0,41.666668,,,,,,,,25.0,0.0,0.444114,0.5097659999999999,0.264404,-0.6877439999999999,0.9428850000000001,-0.075685,-0.35108,-0.017869,-0.047169,-0.030177,,,,,,,,,,,,,,,,,,,,,,,,,,,,,,,,,,,,,,,,,,,,,,,,,,,,,,,,,,,,,,,,,
40008,1645651956.664681,51.0,0.0,4220.0,4700.512695,4209.230957,4278.461426,4242.05127,0.0,3.0,55.0,,,,0.0,4.0,1.0,4.0,0.0,4.0,41.666668,,,,,,,,,,,,,,,,,,,,,,,,,,,,,,,,,,,,,,,,,,,,,,,,,,,,,,,,,,,,,,,,,,,,,,,,,,,,,,,,,,,,
40009,1645651956.672497,52.0,0.0,4192.307617,4710.769043,4183.077147999999,4277.94873,4208.717772999999,0.0,3.0,55.0,,,,0.0,4.0,1.0,4.0,0.0,4.0,41.666668,1.0,0.0,3.0,0.0,0.0,0.0,1.0,26.0,0.0,0.44406599999999996,0.5100100000000001,0.264648,-0.6875,0.944839,-0.097169,-0.35547399999999996,-0.016863999999999997,-0.047189,-0.032872000000000005,1.0,0.0,0.0,,,,,,,,,,,,,,,,,,,,,,,,,,,,,,,,0.0,0.0,1.0,0.0,512.0,1.0,623.041504,8.953795,7.892902,6.894322,9.015058999999999,30.425172999999997,7.5145800000000005,26.829803000000002,29.045408000000002,37.926212,34.056011,40.583805,27.210359999999998,27.46306,41.112469,0.560298,0.034104,0.028956,0.013441,0.021082,7.024439999999999,11.445735,9.741954,7.0001690000000005,15.733413
40010,1645651956.680312,53.0,0.0,4182.05127,4591.794922,4195.897461,4278.461426,4211.282227000001,0.0,3.0,55.0,,,,0.0,4.0,1.0,4.0,0.0,4.0,41.666668,,,,,,,,,,,,,,,,,,,,,,,,,,,,,,,,,,,,,,,,,,,,,,,,,,,,,,,,,,,,,,,,,,,,,,,,,,,,,,,,,,,,
40011,1645651956.688127,54.0,0.0,4218.974121,4533.846191,4235.384765999999,4278.974121,4256.922852000001,0.0,3.0,55.0,,,,0.0,4.0,1.0,4.0,0.0,4.0,41.666668,,,,,,,,27.0,0.0,0.44406599999999996,0.5100100000000001,0.264648,-0.6875,0.95021,-0.09472799999999999,-0.346197,-0.017716,-0.047157,-0.035298,,,,,,,,,,,,,,,,,,,,,,,,,,,,,,,,,,,,,,,,,,,,,,,,,,,,,,,,,,,,,,,,,
40012,1645651956.6959429,55.0,0.0,4230.256348,4583.077147999999,4242.05127,4277.436035,4275.384765999999,0.0,3.0,55.0,,,,0.0,4.0,1.0,4.0,0.0,4.0,41.666668,,,,,,,,,,,,,,,,,,,,,,,,,,,,,,,,,,,,,,,,,,,,,,,,,,,,,,,,,,,,,,,,,,,,,,,,,,,,,,,,,,,,
40013,1645651956.703858,56.0,0.0,4225.128418,4647.179688,4229.230957,4277.436035,4263.589844,0.0,3.0,55.0,,,,0.0,4.0,1.0,4.0,0.0,4.0,41.666668,,,,,,,,28.0,0.0,0.44406599999999996,0.5100100000000001,0.264648,-0.6875,0.959976,-0.088869,-0.345708,-0.018288,-0.047129000000000004,-0.037627,,,,,,,,,,,,,,,,,,,,,,,,,,,,,,,,,,,0.0,0.0,1.0,0.0,512.0,1.0,,,,,,,,,,,,,,,,,,,,,,,,,
40014,1645651956.711673,57.0,0.0,4227.179688,4626.153809,4225.128418,4278.461426,4255.384765999999,0.0,3.0,55.0,,,,0.0,4.0,1.0,4.0,0.0,4.0,41.666668,,,,,,,,,,,,,,,,,,,,,,,,,,,,,,,,,,,,,,,,,,,,,,,,,,,,,,,,,,,,,,,,,,,,,,,,,,,,,,,,,,,,
40015,1645651956.719489,58.0,0.0,4222.05127,4601.538574,4240.512695,4278.461426,4255.897461,0.0,3.0,55.0,,,,0.0,4.0,1.0,4.0,0.0,4.0,41.666668,,,,,,,,29.0,0.0,0.444299,0.5100100000000001,0.264893,-0.6872560000000001,0.9550930000000001,-0.086427,-0.340826,-0.01895,-0.047006,-0.033375999999999996,,,,,,,,,,,,,,,,,,,,,,,,,,,,,,,,,,,,,,,,,,,,,,,,,,,,,,,,,,,,,,,,,
40016,1645651956.727304,59.0,0.0,4224.615234000001,4652.820313,4234.358886999999,4278.461426,4249.743652,0.0,3.0,55.0,,,,0.0,4.0,1.0,4.0,0.0,4.0,41.666668,,,,,,,,,,,,,,,,,,,,,,,,,,,,,,,,,,,,,,,,,,,,,,,,,,,,,,,,,,,,,,,,,,,,,,,,,,,,,,,,,,,,
40017,1645651956.7351189,60.0,0.0,4230.256348,4624.615234000001,4227.692383,4278.461426,4253.846191,0.0,3.0,55.0,,,,0.0,4.0,1.0,4.0,0.0,4.0,41.666668,,,,,,,,30.0,0.0,0.444299,0.5100100000000001,0.264893,-0.6872560000000001,0.956558,-0.092775,-0.332525,-0.017787,-0.046944,-0.035898,,,,,,,,,,,,,,,,,,,,,,,,,,,,,,,,,,,0.0,0.0,1.0,0.0,512.0,1.0,,,,,,,,,,,,,,,,,,,,,,,,,
40018,1645651956.742935,61.0,0.0,4212.820313,4575.897461,4215.897461,4277.94873,4256.922852000001,0.0,3.0,55.0,,,,0.0,4.0,1.0,4.0,0.0,4.0,41.666668,,,,,,,,,,,,,,,,,,,,,,,,,,,,,,,,,,,,,,,,,,,,,,,,,,,,,,,,,,,,,,,,,,,,,,,,,,,,,,,,,,,,
40019,1645651956.75075,62.0,0.0,4208.205078,4647.692383,4207.179688,4277.94873,4238.461426,0.0,3.0,55.0,,,,0.0,4.0,1.0,4.0,0.0,4.0,41.666668,,,,,,,,31.0,0.0,0.44415299999999996,0.5100100000000001,0.265137,-0.6872560000000001,0.949233,-0.09033300000000001,-0.34375500000000003,-0.018499,-0.04684,-0.031918,,,,,,,,,,,,,,,,,,,,,,,,,,,,,,,,,,,,,,,,,,,,,,,,,,,,,,,,,,,,,,,,,
40020,1645651956.758665,63.0,0.0,4219.487305,4621.025879,4208.717772999999,4277.94873,4223.077147999999,0.0,3.0,55.0,,,,0.0,4.0,0.0,4.0,0.0,4.0,33.333332,,,,,,,,,,,,,,,,,,,,,,,,,,,,,,,,,,,,,,,,,,,,,,,,,,,,,,,,,,,,,,,,,,,,,,,,,,,,,,,,,,,,
40021,1645651956.7664812,64.0,0.0,4215.384765999999,4538.461426,4221.538574,4277.94873,4227.179688,450.0,3.0,55.0,,,,0.0,4.0,0.0,4.0,0.0,4.0,33.333332,,,,,,,,32.0,0.0,0.44415299999999996,0.5100100000000001,0.265137,-0.6872560000000001,0.9472799999999999,-0.08838,-0.339361,-0.019042,-0.046892,-0.034585000000000005,,,,,,,,,,,,,,,,,,,,,,,,,,,,,,,,,,,0.0,0.0,1.0,0.0,512.0,1.0,,,,,,,,,,,,,,,,,,,,,,,,,
40022,1645651956.774296,65.0,0.0,4231.794922,4641.025879,4223.077147999999,4277.436035,4251.794922,450.0,3.0,55.0,,,,0.0,4.0,0.0,4.0,0.0,4.0,33.333332,,,,,,,,,,,,,,,,,,,,,,,,,,,,,,,,,,,,,,,,,,,,,,,,,,,,,,,,,,,,,,,,,,,,,,,,,,,,,,,,,,,,
40023,1645651956.782111,66.0,0.0,4242.563965,4680.0,4216.410156,4276.410156,4255.897461,16165.0,3.0,55.0,,,,0.0,4.0,0.0,4.0,0.0,4.0,33.333332,,,,,,,,33.0,0.0,0.444299,0.5100100000000001,0.264893,-0.6872560000000001,0.9472799999999999,-0.08203300000000001,-0.34521999999999997,-0.019628,-0.046891,-0.030687,,,,,,,,,,,,,,,,,,,,,,,,,,,,,,,,,,,,,,,,,,,,,,,,,,,,,,,,,,,,,,,,,
40024,1645651956.789927,67.0,0.0,4233.333496,4576.922852000001,4220.512695,4276.922852000001,4242.05127,450.0,3.0,55.0,,,,0.0,4.0,0.0,4.0,0.0,4.0,33.333332,,,,,,,,,,,,,,,,,,,,,,,,,,,,,,,,,,,,,,,,,,,,,,,,,,,,,,,,,,,,,,,,,,,,,,,,,,,,,,,,,,,,
40025,1645651956.797742,68.0,0.0,4245.641113000001,4607.692383,4245.641113000001,4278.974121,4253.333496,5.0,3.0,55.0,,,,0.0,4.0,0.0,4.0,0.0,4.0,33.333332,,,,,,,,34.0,0.0,0.444018,0.510254,0.264893,-0.6872560000000001,0.954116,-0.092287,-0.346197,-0.018251,-0.046889,-0.033332,1.0,0.0,0.0,,,,,,,,,,,,,,,,,,,,,,,,,,,,,,,,0.0,0.0,1.0,0.0,512.0,1.0,666.9675900000001,9.746853,8.12988,6.553564,7.452367999999999,34.682316,6.180512,26.34848,24.104105,35.379711,21.501934,23.860275,16.801828,17.206257,24.817083,0.44861899999999993,0.029160000000000002,0.024189,0.011201000000000001,0.02078,7.872609,12.458527,10.382953,6.086525,12.713248
40026,1645651956.805558,69.0,0.0,4274.358886999999,4667.692383,4266.153809,4279.487305,4288.205078,450.0,3.0,55.0,,,,0.0,4.0,0.0,4.0,0.0,4.0,33.333332,,,,,,,,,,,,,,,,,,,,,,,,,,,,,,,,,,,,,,,,,,,,,,,,,,,,,,,,,,,,,,,,,,,,,,,,,,,,,,,,,,,,
40027,1645651956.813373,70.0,0.0,4263.077147999999,4640.512695,4240.512695,4277.94873,4282.05127,16249.0,3.0,55.0,,,,0.0,4.0,0.0,4.0,0.0,4.0,33.333332,,,,,,,,35.0,0.0,0.44415299999999996,0.5100100000000001,0.265137,-0.6872560000000001,0.9472799999999999,-0.08838,-0.339361,-0.01877,-0.046888,-0.029559,,,,,,,,,,,,,,,,,,,,,,,,,,,,,,,,,,,,,,,,,,,,,,,,,,,,,,,,,,,,,,,,,
40028,1645651956.821188,71.0,0.0,4234.358886999999,4667.692383,4206.153809,4277.94873,4245.641113000001,450.0,3.0,55.0,,,,0.0,4.0,0.0,4.0,0.0,4.0,33.333332,,,,,,,,,,,,,,,,,,,,,,,,,,,,,,,,,,,,,,,,,,,,,,,,,,,,,,,,,,,,,,,,,,,,,,,,,,,,,,,,,,,,
40029,1645651956.829104,72.0,0.0,4220.512695,4664.102539,4199.487305,4277.94873,4227.179688,450.0,3.0,55.0,,,,0.0,4.0,0.0,4.0,0.0,4.0,33.333332,,,,,,,,36.0,0.0,0.444018,0.510254,0.264893,-0.6872560000000001,0.954116,-0.092287,-0.346197,-0.017478999999999998,-0.046887,-0.032316000000000004,,,,,,,,,,,,,,,,,,,,,,,,,,,,,,,,,,,0.0,0.0,1.0,0.0,512.0,1.0,,,,,,,,,,,,,,,,,,,,,,,,,
40030,1645651956.8369188,73.0,0.0,4215.897461,4595.384765999999,4215.384765999999,4277.94873,4227.692383,0.0,3.0,55.0,,,,0.0,4.0,0.0,4.0,0.0,4.0,33.333332,,,,,,,,,,,,,,,,,,,,,,,,,,,,,,,,,,,,,,,,,,,,,,,,,,,,,,,,,,,,,,,,,,,,,,,,,,,,,,,,,,,,
40031,1645651956.844734,74.0,0.0,4220.0,4646.153809,4215.384765999999,4278.461426,4231.794922,450.0,3.0,55.0,,,,0.0,4.0,0.0,4.0,0.0,4.0,33.333332,,,,,,,,37.0,0.0,0.444018,0.510254,0.264893,-0.6872560000000001,0.965835,-0.084962,-0.348638,-0.018172,-0.046934,-0.034993,,,,,,,,,,,,,,,,,,,,,,,,,,,,,,,,,,,,,,,,,,,,,,,,,,,,,,,,,,,,,,,,,
40032,1645651956.85255,75.0,0.0,4235.384765999999,4701.538574,4226.153809,4277.436035,4262.05127,16199.0,3.0,55.0,,,,0.0,4.0,0.0,4.0,0.0,4.0,33.333332,,,,,,,,,,,,,,,,,,,,,,,,,,,,,,,,,,,,,,,,,,,,,,,,,,,,,,,,,,,,,,,,,,,,,,,,,,,,,,,,,,,,
40033,1645651956.8603652,76.0,0.0,4255.384765999999,4602.05127,4244.102539,4278.461426,4292.820313,450.0,3.0,55.0,,,,0.0,4.0,0.0,4.0,0.0,4.0,33.333332,,,,,,,,38.0,0.0,0.44416400000000006,0.510254,0.264648,-0.6872560000000001,0.949233,-0.08105599999999999,-0.33984899999999996,-0.018796,-0.046977,-0.031005,,,,,,,,,,,,,,,,,,,,,,,,,,,,,,,,,,,0.0,0.0,1.0,0.0,512.0,1.0,,,,,,,,,,,,,,,,,,,,,,,,,
40034,1645651956.86818,77.0,0.0,4273.333496,4582.563965,4257.436035,4280.0,4281.538574,450.0,3.0,55.0,,,,0.0,4.0,0.0,4.0,0.0,4.0,33.333332,,,,,,,,,,,,,,,,,,,,,,,,,,,,,,,,,,,,,,,,,,,,,,,,,,,,,,,,,,,,,,,,,,,,,,,,,,,,,,,,,,,,
40035,1645651956.875996,78.0,0.0,4284.102539,4698.974121,4243.589844,4279.487305,4263.077147999999,450.0,3.0,55.0,,,,0.0,4.0,0.0,4.0,0.0,4.0,33.333332,,,,,,,,39.0,0.0,0.44454099999999996,0.510254,0.264648,-0.687012,0.946792,-0.086427,-0.34521999999999997,-0.019407,-0.047064999999999996,-0.033862,,,,,,,,,,,,,,,,,,,,,,,,,,,,,,,,,,,,,,,,,,,,,,,,,,,,,,,,,,,,,,,,,
40036,1645651956.883811,79.0,0.0,4270.769043,4682.05127,4240.0,4277.94873,4272.307617,16199.0,3.0,55.0,,,,0.0,4.0,0.0,4.0,0.0,4.0,33.333332,,,,,,,,,,,,,,,,,,,,,,,,,,,,,,,,,,,,,,,,,,,,,,,,,,,,,,,,,,,,,,,,,,,,,,,,,,,,,,,,,,,,
40037,1645651956.891626,80.0,0.0,4244.615234000001,4598.974121,4250.256348,4277.94873,4276.410156,450.0,3.0,55.0,,,,0.0,4.0,0.0,4.0,0.0,4.0,33.333332,,,,,,,,40.0,0.0,0.44454099999999996,0.510254,0.264648,-0.687012,0.9580219999999999,-0.08691499999999999,-0.332036,-0.017515,-0.046997000000000004,-0.036286,,,,,,,,,,,,,,,,,,,,,,,,,,,,,,,,,,,0.0,0.0,1.0,0.0,512.0,1.0,,,,,,,,,,,,,,,,,,,,,,,,,
40038,1645651956.899542,81.0,0.0,4258.461426,4618.461426,4255.384765999999,4278.461426,4262.05127,450.0,3.0,55.0,,,,0.0,4.0,0.0,4.0,0.0,4.0,33.333332,,,,,,,,,,,,,,,,,,,,,,,,,,,,,,,,,,,,,,,,,,,,,,,,,,,,,,,,,,,,,,,,,,,,,,,,,,,,,,,,,,,,
40039,1645651956.907357,82.0,0.0,4282.563965,4615.897461,4243.077147999999,4278.461426,4261.538574,450.0,3.0,55.0,,,,0.0,4.0,0.0,4.0,0.0,4.0,33.333332,,,,,,,,41.0,0.0,0.44454099999999996,0.510254,0.264648,-0.687012,0.937026,-0.089357,-0.345708,-0.016544999999999997,-0.046936,-0.038566,,,,,,,,,,,,,,,,,,,,,,,,,,,,,,,,,,,,,,,,,,,,,,,,,,,,,,,,,,,,,,,,,
40040,1645651956.915172,83.0,0.0,4245.128418,4616.922852000001,4236.922852000001,4277.436035,4258.461426,16199.0,3.0,55.0,,,,0.0,4.0,0.0,4.0,0.0,4.0,33.333332,,,,,,,,,,,,,,,,,,,,,,,,,,,,,,,,,,,,,,,,,,,,,,,,,,,,,,,,,,,,,,,,,,,,,,,,,,,,,,,,,,,,
40041,1645651956.9229882,84.0,0.0,4224.615234000001,4678.974121,4244.102539,4276.922852000001,4264.615234000001,450.0,3.0,55.0,,,,0.0,4.0,0.0,4.0,0.0,4.0,33.333332,,,,,,,,42.0,0.0,0.444676,0.5100100000000001,0.264893,-0.687012,0.951675,-0.08838,-0.335943,-0.017234,-0.046979,-0.040618,1.0,0.0,0.0,,,,,,,,,,,,,,,,,,,,,,,,,,,,,,,,0.0,0.0,1.0,0.0,512.0,1.0,616.085022,9.430594000000001,7.423619,5.728927,5.8174,36.984829,6.181951000000001,26.400373,22.093956,32.788452,11.35511,11.216751,8.797842999999999,9.225937,12.388773,0.341673,0.024297,0.019009,0.008681999999999999,0.019681,8.147731,11.907698,10.007503999999999,5.166296,9.562121000000001
40042,1645651956.9308028,85.0,0.0,4252.820313,4671.282227000001,4238.974121,4278.974121,4272.820313,450.0,3.0,55.0,,,,0.0,4.0,0.0,4.0,0.0,4.0,33.333332,,,,,,,,,,,,,,,,,,,,,,,,,,,,,,,,,,,,,,,,,,,,,,,,,,,,,,,,,,,,,,,,,,,,,,,,,,,,,,,,,,,,
40043,1645651956.938618,86.0,0.0,4249.230957,4616.922852000001,4216.410156,4280.0,4246.666504,450.0,3.0,55.0,,,,0.0,4.0,0.0,4.0,0.0,4.0,33.333332,,,,,,,,43.0,0.0,0.444299,0.5100100000000001,0.264893,-0.6872560000000001,0.949233,-0.097169,-0.343267,-0.017952000000000003,-0.046919999999999996,-0.036116,,,,,,,,,,,,,,,,,,,,,,,,,,,,,,,,,,,,,,,,,,,,,,,,,,,,,,,,,,,,,,,,,
40044,1645651956.946434,87.0,0.0,4195.897461,4678.461426,4184.102539,4277.94873,4206.666504,16199.0,3.0,55.0,,,,0.0,4.0,0.0,4.0,0.0,4.0,33.333332,,,,,,,,,,,,,,,,,,,,,,,,,,,,,,,,,,,,,,,,,,,,,,,,,,,,,,,,,,,,,,,,,,,,,,,,,,,,,,,,,,,,
40045,1645651956.954249,88.0,0.0,4181.538574,4730.256348,4190.256348,4276.922852000001,4214.871582,450.0,3.0,55.0,,,,0.0,4.0,0.0,4.0,0.0,4.0,33.333332,,,,,,,,44.0,0.0,0.444299,0.5100100000000001,0.264893,-0.6872560000000001,0.961929,-0.099123,-0.344244,-0.016303,-0.046964,-0.032064999999999996,,,,,,,,,,,,,,,,,,,,,,,,,,,,,,,,,,,0.0,0.0,1.0,0.0,512.0,1.0,,,,,,,,,,,,,,,,,,,,,,,,,
40046,1645651956.962065,89.0,0.0,4199.487305,4679.487305,4220.512695,4277.436035,4242.05127,450.0,3.0,55.0,,,,0.0,4.0,0.0,4.0,0.0,4.0,33.333332,,,,,,,,,,,,,,,,,,,,,,,,,,,,,,,,,,,,,,,,,,,,,,,,,,,,,,,,,,,,,,,,,,,,,,,,,,,,,,,,,,,,
40047,1645651956.96998,90.0,0.0,4205.641113000001,4689.230957,4237.94873,4277.436035,4241.538574,450.0,3.0,55.0,,,,0.0,4.0,0.0,4.0,0.0,4.0,33.333332,,,,,,,,45.0,0.0,0.44443299999999997,0.5097659999999999,0.265137,-0.6872560000000001,0.9487450000000001,-0.100587,-0.349615,-0.014722,-0.047004000000000004,-0.034621,,,,,,,,,,,,,,,,,,,,,,,,,,,,,,,,,,,,,,,,,,,,,,,,,,,,,,,,,,,,,,,,,
40048,1645651956.977795,91.0,0.0,4195.897461,4681.538574,4231.282227000001,4277.436035,4225.128418,16199.0,3.0,55.0,,,,0.0,4.0,0.0,4.0,0.0,4.0,33.333332,,,,,,,,,,,,,,,,,,,,,,,,,,,,,,,,,,,,,,,,,,,,,,,,,,,,,,,,,,,,,,,,,,,,,,,,,,,,,,,,,,,,
40049,1645651956.985611,92.0,0.0,4183.077147999999,4605.641113000001,4238.461426,4277.94873,4224.615234000001,450.0,3.0,55.0,,,,0.0,4.0,0.0,4.0,0.0,4.0,33.333332,,,,,,,,46.0,0.0,0.44443299999999997,0.5097659999999999,0.265137,-0.6872560000000001,0.939467,-0.091798,-0.340337,-0.015788999999999997,-0.046894,-0.03692,,,,,,,,,,,,,,,,,,,,,,,,,,,,,,,,,,,0.0,0.0,1.0,0.0,512.0,1.0,,,,,,,,,,,,,,,,,,,,,,,,,
40050,1645651956.993426,93.0,0.0,4175.384765999999,4600.0,4221.538574,4277.94873,4215.384765999999,450.0,3.0,55.0,,,,0.0,4.0,0.0,4.0,0.0,4.0,33.333332,,,,,,,,,,,,,,,,,,,,,,,,,,,,,,,,,,,,,,,,,,,,,,,,,,,,,,,,,,,,,,,,,,,,,,,,,,,,,,,,,,,,
40051,1645651957.001241,94.0,0.0,4159.487305,4633.333496,4200.0,4276.922852000001,4195.897461,450.0,3.0,55.0,,,,0.0,4.0,0.0,4.0,0.0,4.0,33.333332,,,,,,,,47.0,0.0,0.444288,0.5097659999999999,0.265381,-0.6872560000000001,0.946792,-0.095705,-0.341314,-0.016749,-0.046843,-0.039088,,,,,,,,,,,,,,,,,,,,,,,,,,,,,,,,,,,,,,,,,,,,,,,,,,,,,,,,,,,,,,,,,
40052,1645651957.009057,95.0,0.0,4156.922852000001,4609.230957,4205.128418,4275.897461,4194.358886999999,16199.0,3.0,55.0,,,,0.0,4.0,0.0,4.0,0.0,4.0,33.333332,,,,,,,,,,,,,,,,,,,,,,,,,,,,,,,,,,,,,,,,,,,,,,,,,,,,,,,,,,,,,,,,,,,,,,,,,,,,,,,,,,,,
40053,1645651957.0168722,96.0,0.0,4175.897461,4586.153809,4213.846191,4275.897461,4193.333496,450.0,3.0,55.0,,,,0.0,4.0,0.0,4.0,0.0,4.0,33.333332,,,,,,,,48.0,0.0,0.444567,0.509521,0.265381,-0.6872560000000001,0.9580219999999999,-0.087892,-0.348638,-0.015172,-0.046895,-0.034788,,,,,,,,,,,,,,,,,,,,,,,,,,,,,,,,,,,0.0,0.0,1.0,0.0,512.0,1.0,,,,,,,,,,,,,,,,,,,,,,,,,
40054,1645651957.0246868,97.0,0.0,4188.717772999999,4617.94873,4209.230957,4276.410156,4194.871582,450.0,3.0,55.0,,,,0.0,4.0,0.0,4.0,0.0,4.0,33.333332,,,,,,,,,,,,,,,,,,,,,,,,,,,,,,,,,,,,,,,,,,,,,,,,,,,,,,,,,,,,,,,,,,,,,,,,,,,,,,,,,,,,
40055,1645651957.032503,98.0,0.0,4196.410156,4618.974121,4227.179688,4277.94873,4208.717772999999,450.0,3.0,55.0,,,,0.0,4.0,0.0,4.0,0.0,4.0,33.333332,,,,,,,,49.0,0.0,0.44419,0.509521,0.265381,-0.6875,0.9438620000000001,-0.07910299999999999,-0.34473200000000004,-0.013703,-0.046991000000000005,-0.037169,,,,,,,,,,,,,,,,,,,,,,,,,,,,,,,,,,,,,,,,,,,,,,,,,,,,,,,,,,,,,,,,,
40056,1645651957.040318,99.0,0.0,4205.128418,4634.871582,4237.436035,4277.94873,4213.333496,16199.0,3.0,55.0,,,,0.0,4.0,0.0,4.0,0.0,4.0,33.333332,,,,,,,,,,,,,,,,,,,,,,,,,,,,,,,,,,,,,,,,,,,,,,,,,,,,,,,,,,,,,,,,,,,,,,,,,,,,,,,,,,,,
40057,1645651957.048233,100.0,0.0,4182.05127,4669.743652,4211.794922,4275.384765999999,4185.641113000001,450.0,3.0,55.0,,,,0.0,4.0,0.0,4.0,0.0,4.0,33.333332,,,,,,,,50.0,0.0,0.44419,0.509521,0.265381,-0.6875,0.951675,-0.082521,-0.345708,-0.014677,-0.047077,-0.033061,1.0,0.0,0.0,,,,,,,,,,,,,,,,,,,,,,,,,,,,,,,,0.0,0.0,1.0,0.0,512.0,1.0,487.61377000000005,8.207497,6.029256,4.670738,4.403631,36.494785,7.069043,26.165089000000002,22.798683,30.535984000000003,5.139487,4.336663,4.274997,4.680541000000001,5.341721,0.246221,0.019969,0.014117,0.006406,0.017929,7.705699000000001,10.052456,8.806263000000001,4.4065900000000005,6.835309
40058,1645651957.056049,101.0,0.0,4157.94873,4633.333496,4200.0,4275.897461,4179.487305,450.0,3.0,55.0,,,,0.0,4.0,0.0,4.0,0.0,4.0,33.333332,,,,,,,,,,,,,,,,,,,,,,,,,,,,,,,,,,,,,,,,,,,,,,,,,,,,,,,,,,,,,,,,,,,,,,,,,,,,,,,,,,,,
40059,1645651957.063864,102.0,0.0,4182.05127,4618.461426,4217.94873,4277.94873,4206.666504,450.0,3.0,55.0,,,,0.0,4.0,0.0,4.0,0.0,4.0,33.333332,,,,,,,,51.0,0.0,0.44419,0.509521,0.265381,-0.6875,0.95021,-0.087404,-0.353033,-0.013307,-0.047155,-0.035712,,,,,,,,,,,,,,,,,,,,,,,,,,,,,,,,,,,,,,,,,,,,,,,,,,,,,,,,,,,,,,,,,
40060,1645651957.0716789,103.0,0.0,4218.974121,4638.461426,4230.256348,4276.922852000001,4225.641113000001,16199.0,3.0,55.0,,,,0.0,4.0,0.0,4.0,0.0,4.0,33.333332,,,,,,,,,,,,,,,,,,,,,,,,,,,,,,,,,,,,,,,,,,,,,,,,,,,,,,,,,,,,,,,,,,,,,,,,,,,,,,,,,,,,
40061,1645651957.079495,104.0,0.0,4192.820313,4640.512695,4207.692383,4276.410156,4207.179688,450.0,3.0,55.0,,,,0.0,4.0,0.0,4.0,0.0,4.0,33.333332,,,,,,,,52.0,0.0,0.444615,0.5092770000000001,0.265137,-0.6875,0.957534,-0.086427,-0.348638,-0.012025,-0.047126999999999995,-0.038001,,,,,,,,,,,,,,,,,,,,,,,,,,,,,,,,,,,0.0,0.0,1.0,0.0,512.0,1.0,,,,,,,,,,,,,,,,,,,,,,,,,
40062,1645651957.08731,105.0,0.0,4161.025879,4659.487305,4190.769043,4279.487305,4184.102539,450.0,3.0,55.0,,,,0.0,4.0,0.0,4.0,0.0,4.0,33.333332,,,,,,,,,,,,,,,,,,,,,,,,,,,,,,,,,,,,,,,,,,,,,,,,,,,,,,,,,,,,,,,,,,,,,,,,,,,,,,,,,,,,
40063,1645651957.095125,106.0,0.0,4188.205078,4689.743652,4200.0,4279.487305,4198.461426,450.0,3.0,55.0,,,,0.0,4.0,0.0,4.0,0.0,4.0,33.333332,,,,,,,,53.0,0.0,0.44447,0.5092770000000001,0.265381,-0.6875,0.9428850000000001,-0.085939,-0.342779,-0.010969,-0.047199,-0.040109,,,,,,,,,,,,,,,,,,,,,,,,,,,,,,,,,,,,,,,,,,,,,,,,,,,,,,,,,,,,,,,,,
40064,1645651957.102941,107.0,0.0,4217.94873,4621.538574,4224.615234000001,4275.897461,4227.179688,16199.0,3.0,55.0,,,,0.0,4.0,0.0,4.0,0.0,4.0,33.333332,,,,,,,,,,,,,,,,,,,,,,,,,,,,,,,,,,,,,,,,,,,,,,,,,,,,,,,,,,,,,,,,,,,,,,,,,,,,,,,,,,,,
40065,1645651957.110856,108.0,0.0,4205.128418,4570.769043,4222.563965,4276.410156,4225.128418,450.0,3.0,55.0,,,,0.0,4.0,0.0,4.0,0.0,4.0,33.333332,,,,,,,,54.0,0.0,0.444324,0.5092770000000001,0.265625,-0.6875,0.939467,-0.066896,-0.34668499999999997,-0.009921,-0.047216,-0.041908999999999995,,,,,,,,,,,,,,,,,,,,,,,,,,,,,,,,,,,0.0,0.0,1.0,0.0,512.0,1.0,,,,,,,,,,,,,,,,,,,,,,,,,
40066,1645651957.1186712,109.0,0.0,4198.461426,4671.794922,4207.692383,4278.461426,4208.717772999999,450.0,3.0,55.0,,,,0.0,4.0,0.0,4.0,0.0,4.0,33.333332,,,,,,,,,,,,,,,,,,,,,,,,,,,,,,,,,,,,,,,,,,,,,,,,,,,,,,,,,,,,,,,,,,,,,,,,,,,,,,,,,,,,
40067,1645651957.126487,110.0,0.0,4199.487305,4659.487305,4201.538574,4276.922852000001,4201.538574,450.0,3.0,55.0,,,,0.0,4.0,0.0,4.0,0.0,4.0,33.333332,,,,,,,,55.0,0.0,0.444324,0.5092770000000001,0.265625,-0.6875,0.9506979999999999,-0.08691499999999999,-0.35108,-0.011321,-0.047182,-0.043431,,,,,,,,,,,,,,,,,,,,,,,,,,,,,,,,,,,,,,,,,,,,,,,,,,,,,,,,,,,,,,,,,
40068,1645651957.134302,111.0,0.0,4200.0,4555.897461,4222.563965,4277.436035,4215.897461,16199.0,3.0,55.0,,,,0.0,4.0,0.0,4.0,0.0,4.0,33.333332,,,,,,,,,,,,,,,,,,,,,,,,,,,,,,,,,,,,,,,,,,,,,,,,,,,,,,,,,,,,,,,,,,,,,,,,,,,,,,,,,,,,
40069,1645651957.142118,112.0,0.0,4216.922852000001,4648.205078,4218.974121,4276.922852000001,4225.128418,450.0,3.0,55.0,,,,0.0,4.0,0.0,4.0,0.0,4.0,33.333332,,,,,,,,56.0,0.0,0.444324,0.5092770000000001,0.265625,-0.6875,0.938003,-0.089357,-0.357916,-0.012484,-0.0472,-0.044849,,,,,,,,,,,,,,,,,,,,,,,,,,,,,,,,,,,0.0,0.0,1.0,0.0,512.0,1.0,,,,,,,,,,,,,,,,,,,,,,,,,
40070,1645651957.149933,113.0,0.0,4230.256348,4763.077147999999,4216.410156,4274.358886999999,4227.179688,450.0,3.0,55.0,,,,0.0,4.0,0.0,4.0,0.0,4.0,33.333332,,,,,,,,,,,,,,,,,,,,,,,,,,,,,,,,,,,,,,,,,,,,,,,,,,,,,,,,,,,,,,,,,,,,,,,,,,,,,,,,,,,,
40071,1645651957.157748,114.0,0.0,4238.974121,4667.692383,4236.922852000001,4275.897461,4242.563965,450.0,3.0,55.0,,,,0.0,4.0,0.0,4.0,0.0,4.0,33.333332,,,,,,,,57.0,0.0,0.444604,0.509033,0.265625,-0.6875,0.940932,-0.093751,-0.349615,-0.013580000000000002,-0.047119,-0.046224,,,,,,,,,,,,,,,,,,,,,,,,,,,,,,,,,,,,,,,,,,,,,,,,,,,,,,,,,,,,,,,,,
40072,1645651957.165564,115.0,0.0,4248.717772999999,4581.538574,4259.487305,4278.974121,4252.820313,16199.0,3.0,55.0,,,,0.0,4.0,0.0,4.0,0.0,4.0,33.333332,,,,,,,,,,,,,,,,,,,,,,,,,,,,,,,,,,,,,,,,,,,,,,,,,,,,,,,,,,,,,,,,,,,,,,,,,,,,,,,,,,,,
40073,1645651957.173379,116.0,0.0,4233.333496,4681.025879,4234.871582,4276.922852000001,4243.589844,450.0,3.0,55.0,,,,0.0,4.0,0.0,4.0,0.0,4.0,33.333332,1.0,0.0,3.0,0.0,0.0,0.0,1.0,58.0,0.0,0.444226,0.509033,0.265625,-0.6877439999999999,0.947768,-0.083009,-0.345708,-0.014565,-0.047143,-0.047412,1.0,0.0,0.0,,,,,,,,,,,,,,,,,,,,,,,,,,,,,,,,0.0,0.0,1.0,0.0,512.0,1.0,324.76266499999997,6.592008,4.448804,3.649454,3.346572,33.036209,8.154547,24.946035000000002,24.917799,28.882846999999998,2.4169080000000003,2.2202599999999997,2.6342220000000003,3.0154080000000003,2.61666,0.161512,0.016255000000000002,0.010015999999999999,0.00471,0.015827,6.634519999999999,7.68916,7.254996,3.838407,4.785116
40074,1645651957.181294,117.0,0.0,4219.487305,4745.128418,4207.179688,4274.358886999999,4234.871582,450.0,3.0,55.0,,,,0.0,4.0,0.0,4.0,0.0,4.0,33.333332,,,,,,,,,,,,,,,,,,,,,,,,,,,,,,,,,,,,,,,,,,,,,,,,,,,,,,,,,,,,,,,,,,,,,,,,,,,,,,,,,,,,
40075,1645651957.18911,118.0,0.0,4246.666504,4665.128418,4217.436035,4275.897461,4252.820313,450.0,3.0,55.0,,,,0.0,4.0,0.0,4.0,0.0,4.0,33.333332,,,,,,,,59.0,0.0,0.444324,0.5092770000000001,0.265625,-0.6875,0.938003,-0.089357,-0.357916,-0.015404,-0.047165,-0.048433,,,,,,,,,,,,,,,,,,,,,,,,,,,,,,,,,,,,,,,,,,,,,,,,,,,,,,,,,,,,,,,,,
40076,1645651957.196925,119.0,0.0,4250.769043,4611.794922,4233.846191,4275.384765999999,4249.743652,16199.0,3.0,55.0,,,,0.0,4.0,0.0,4.0,0.0,4.0,33.333332,,,,,,,,,,,,,,,,,,,,,,,,,,,,,,,,,,,,,,,,,,,,,,,,,,,,,,,,,,,,,,,,,,,,,,,,,,,,,,,,,,,,
40077,1645651957.20474,120.0,0.0,4221.538574,4626.666504,4232.820313,4275.384765999999,4220.512695,450.0,3.0,55.0,,,,0.0,4.0,0.0,4.0,0.0,4.0,33.333332,,,,,,,,60.0,0.0,0.444226,0.509033,0.265625,-0.6877439999999999,0.9331200000000001,-0.092775,-0.356939,-0.016256,-0.047087000000000004,-0.043052,,,,,,,,,,,,,,,,,,,,,,,,,,,,,,,,,,,0.0,0.0,1.0,0.0,512.0,1.0,,,,,,,,,,,,,,,,,,,,,,,,,
40078,1645651957.2125561,121.0,0.0,4210.256348,4619.487305,4214.358886999999,4277.436035,4210.256348,450.0,3.0,55.0,,,,0.0,4.0,0.0,4.0,0.0,4.0,33.333332,,,,,,,,,,,,,,,,,,,,,,,,,,,,,,,,,,,,,,,,,,,,,,,,,,,,,,,,,,,,,,,,,,,,,,,,,,,,,,,,,,,,
40079,1645651957.220371,122.0,0.0,4234.871582,4636.922852000001,4218.974121,4278.461426,4232.820313,450.0,3.0,55.0,,,,0.0,4.0,0.0,4.0,0.0,4.0,33.333332,,,,,,,,61.0,0.0,0.44408000000000003,0.509033,0.265869,-0.6877439999999999,0.9546040000000001,-0.07324299999999999,-0.350591,-0.017072,-0.047017,-0.038308,,,,,,,,,,,,,,,,,,,,,,,,,,,,,,,,,,,,,,,,,,,,,,,,,,,,,,,,,,,,,,,,,
40080,1645651957.228186,123.0,0.0,4248.205078,4665.641113000001,4229.743652,4275.897461,4242.563965,16199.0,3.0,55.0,,,,0.0,4.0,0.0,4.0,0.0,4.0,33.333332,,,,,,,,,,,,,,,,,,,,,,,,,,,,,,,,,,,,,,,,,,,,,,,,,,,,,,,,,,,,,,,,,,,,,,,,,,,,,,,,,,,,
40081,1645651957.236002,124.0,0.0,4235.897461,4618.461426,4238.974121,4274.871582,4230.256348,450.0,3.0,55.0,,,,0.0,4.0,0.0,4.0,0.0,4.0,33.333332,,,,,,,,62.0,0.0,0.44408000000000003,0.509033,0.265869,-0.6877439999999999,0.956558,-0.08447400000000001,-0.35352100000000003,-0.016097,-0.046954,-0.040239,,,,,,,,,,,,,,,,,,,,,,,,,,,,,,,,,,,0.0,0.0,1.0,0.0,512.0,1.0,,,,,,,,,,,,,,,,,,,,,,,,,
40082,1645651957.243817,125.0,0.0,4229.230957,4617.436035,4224.615234000001,4275.897461,4216.922852000001,450.0,3.0,55.0,,,,0.0,4.0,0.0,4.0,0.0,4.0,33.333332,,,,,,,,,,,,,,,,,,,,,,,,,,,,,,,,,,,,,,,,,,,,,,,,,,,,,,,,,,,,,,,,,,,,,,,,,,,,,,,,,,,,
40083,1645651957.251732,126.0,0.0,4248.205078,4671.282227000001,4225.128418,4276.410156,4227.179688,450.0,3.0,55.0,,,,0.0,4.0,0.0,4.0,0.0,4.0,33.333332,,,,,,,,63.0,0.0,0.444226,0.509033,0.265625,-0.6877439999999999,0.949233,-0.08447400000000001,-0.340826,-0.014731999999999999,-0.046898,-0.041977,,,,,,,,,,,,,,,,,,,,,,,,,,,,,,,,,,,,,,,,,,,,,,,,,,,,,,,,,,,,,,,,,
40084,1645651957.259548,127.0,0.0,4264.615234000001,4621.538574,4240.512695,4276.410156,4252.307617,234.0,3.0,55.0,,,,0.0,4.0,0.0,4.0,0.0,4.0,33.333332,,,,,,,,,,,,,,,,,,,,,,,,,,,,,,,,,,,,,,,,,,,,,,,,,,,,,,,,,,,,,,,,,,,,,,,,,,,,,,,,,,,,
40085,1645651957.267363,0.0,0.0,4265.128418,4580.0,4251.794922,4276.922852000001,4268.717772999999,450.0,3.0,55.0,,,,0.0,4.0,0.0,4.0,0.0,4.0,33.333332,,,,,,,,0.0,0.0,0.444604,0.509033,0.265625,-0.6875,0.947768,-0.076173,-0.35108,-0.0157,-0.046944,-0.03734,,,,,,,,,,,,,,,,,,,,,,,,,,,,,,,,,,,0.0,0.0,1.0,0.0,512.0,1.0,,,,,,,,,,,,,,,,,,,,,,,,,
40086,1645651957.275178,1.0,0.0,4269.743652,4657.94873,4228.205078,4277.436035,4266.153809,450.0,3.0,55.0,,,,0.0,4.0,0.0,4.0,0.0,4.0,33.333332,,,,,,,,,,,,,,,,,,,,,,,,,,,,,,,,,,,,,,,,,,,,,,,,,,,,,,,,,,,,,,,,,,,,,,,,,,,,,,,,,,,,
40087,1645651957.282994,2.0,0.0,4271.282227000001,4692.820313,4225.641113000001,4276.922852000001,4271.282227000001,16213.0,3.0,55.0,,,,0.0,4.0,0.0,4.0,0.0,4.0,33.333332,,,,,,,,1.0,0.0,0.444604,0.509033,0.265625,-0.6875,0.962417,-0.075196,-0.34521999999999997,-0.016571000000000002,-0.046889,-0.039465,,,,,,,,,,,,,,,,,,,,,,,,,,,,,,,,,,,,,,,,,,,,,,,,,,,,,,,,,,,,,,,,,
40088,1645651957.290809,3.0,0.0,4258.974121,4607.692383,4241.538574,4276.922852000001,4269.230957,450.0,3.0,55.0,,,,0.0,4.0,0.0,4.0,0.0,4.0,33.333332,,,,,,,,,,,,,,,,,,,,,,,,,,,,,,,,,,,,,,,,,,,,,,,,,,,,,,,,,,,,,,,,,,,,,,,,,,,,,,,,,,,,
40089,1645651957.298625,4.0,0.0,4247.179688,4574.358886999999,4244.102539,4275.384765999999,4245.128418,0.0,3.0,55.0,,,,0.0,4.0,0.0,4.0,0.0,4.0,33.333332,,,,,,,,2.0,0.0,0.444604,0.509033,0.265625,-0.6875,0.949722,-0.085939,-0.349615,-0.017356,-0.046741000000000005,-0.041525,1.0,0.0,0.0,,,,,,,,,,,,,,,,,,,,,,,,,,,,,,,,0.0,0.0,1.0,0.0,512.0,1.0,174.859772,5.209582,3.204387,2.879095,2.6456169999999997,27.355587,9.115895,22.669242999999998,26.674409999999998,27.942514000000003,1.632201,2.478383,2.4066549999999998,2.7816349999999996,1.967536,0.088625,0.013198,0.0069489999999999994,0.0037869999999999996,0.013729,5.3692839999999995,5.686927,5.865957,3.427517,3.406628
40090,1645651957.30644,5.0,0.0,4258.461426,4661.025879,4226.666504,4276.410156,4247.179688,450.0,3.0,55.0,,,,0.0,4.0,0.0,4.0,0.0,4.0,33.333332,,,,,,,,,,,,,,,,,,,,,,,,,,,,,,,,,,,,,,,,,,,,,,,,,,,,,,,,,,,,,,,,,,,,,,,,,,,,,,,,,,,,
40091,1645651957.314255,6.0,0.0,4247.692383,4695.384765999999,4216.410156,4277.436035,4248.717772999999,16172.0,3.0,55.0,,,,0.0,4.0,0.0,4.0,0.0,4.0,33.333332,,,,,,,,3.0,0.0,0.444604,0.509033,0.265625,-0.6875,0.9521629999999999,-0.083986,-0.351568,-0.015669,-0.046657,-0.043232,,,,,,,,,,,,,,,,,,,,,,,,,,,,,,,,,,,,,,,,,,,,,,,,,,,,,,,,,,,,,,,,,
40092,1645651957.322071,7.0,0.0,4223.589844,4632.307617,4221.538574,4276.922852000001,4236.410156,450.0,3.0,55.0,,,,0.0,4.0,0.0,4.0,0.0,4.0,33.333332,,,,,,,,,,,,,,,,,,,,,,,,,,,,,,,,,,,,,,,,,,,,,,,,,,,,,,,,,,,,,,,,,,,,,,,,,,,,,,,,,,,,
40093,1645651957.3297858,8.0,0.0,4218.974121,4620.512695,4210.256348,4277.94873,4220.0,450.0,3.0,55.0,,,,0.0,4.0,0.0,4.0,0.0,4.0,33.333332,,,,,,,,4.0,0.0,0.444604,0.509033,0.265625,-0.6875,0.95021,-0.10009900000000001,-0.347173,-0.016543000000000002,-0.04663,-0.044719,,,,,,,,,,,,,,,,,,,,,,,,,,,,,,,,,,,0.0,0.0,1.0,0.0,512.0,1.0,,,,,,,,,,,,,,,,,,,,,,,,,
40094,1645651957.337601,9.0,0.0,4240.512695,4663.589844,4214.871582,4278.974121,4231.794922,0.0,3.0,55.0,,,,0.0,4.0,0.0,4.0,0.0,4.0,33.333332,,,,,,,,,,,,,,,,,,,,,,,,,,,,,,,,,,,,,,,,,,,,,,,,,,,,,,,,,,,,,,,,,,,,,,,,,,,,,,,,,,,,
40095,1645651957.345416,10.0,0.0,4265.641113000001,4661.025879,4242.563965,4277.436035,4254.871582,450.0,3.0,55.0,,,,0.0,4.0,0.0,4.0,0.0,4.0,33.333332,,,,,,,,5.0,0.0,0.444749,0.509033,0.265381,-0.6875,0.949233,-0.08691499999999999,-0.35547399999999996,-0.017233000000000002,-0.046606,-0.04596,,,,,,,,,,,,,,,,,,,,,,,,,,,,,,,,,,,,,,,,,,,,,,,,,,,,,,,,,,,,,,,,,
40096,1645651957.353231,11.0,0.0,4275.897461,4637.436035,4261.538574,4276.410156,4257.436035,16210.0,3.0,55.0,,,,0.0,4.0,0.0,4.0,0.0,4.0,33.333332,,,,,,,,,,,,,,,,,,,,,,,,,,,,,,,,,,,,,,,,,,,,,,,,,,,,,,,,,,,,,,,,,,,,,,,,,,,,,,,,,,,,
40097,1645651957.361046,12.0,0.0,4250.256348,4640.512695,4224.615234000001,4276.922852000001,4236.410156,450.0,3.0,55.0,,,,0.0,4.0,0.0,4.0,0.0,4.0,33.333332,,,,,,,,6.0,0.0,0.44447,0.5092770000000001,0.265381,-0.6875,0.9487450000000001,-0.087404,-0.340826,-0.017950999999999998,-0.046681,-0.047224,,,,,,,,,,,,,,,,,,,,,,,,,,,,,,,,,,,0.0,0.0,1.0,0.0,512.0,1.0,,,,,,,,,,,,,,,,,,,,,,,,,
40098,1645651957.368861,13.0,0.0,4226.666504,4659.487305,4213.333496,4276.410156,4230.769043,450.0,3.0,55.0,,,,0.0,4.0,0.0,4.0,0.0,4.0,33.333332,,,,,,,,,,,,,,,,,,,,,,,,,,,,,,,,,,,,,,,,,,,,,,,,,,,,,,,,,,,,,,,,,,,,,,,,,,,,,,,,,,,,
40099,1645651957.376677,14.0,0.0,4243.077147999999,4678.974121,4219.487305,4276.922852000001,4251.794922,450.0,3.0,55.0,,,,0.0,4.0,0.0,4.0,0.0,4.0,33.333332,,,,,,,,7.0,0.0,0.444749,0.509033,0.265381,-0.6875,0.952651,-0.07422000000000001,-0.356451,-0.018549,-0.04675,-0.048361,,,,,,,,,,,,,,,,,,,,,,,,,,,,,,,,,,,,,,,,,,,,,,,,,,,,,,,,,,,,,,,,,
40100,1645651957.384492,15.0,0.0,4260.0,4649.743652,4224.615234000001,4277.436035,4249.743652,16210.0,3.0,55.0,,,,0.0,4.0,0.0,4.0,0.0,4.0,33.333332,,,,,,,,,,,,,,,,,,,,,,,,,,,,,,,,,,,,,,,,,,,,,,,,,,,,,,,,,,,,,,,,,,,,,,,,,,,,,,,,,,,,
40101,1645651957.392407,16.0,0.0,4265.128418,4571.794922,4232.307617,4275.897461,4242.05127,0.0,3.0,55.0,,,,0.0,4.0,0.0,4.0,0.0,4.0,33.333332,,,,,,,,8.0,0.0,0.444749,0.509033,0.265381,-0.6875,0.952651,-0.08447400000000001,-0.338872,-0.019619,-0.04672,-0.050354,,,,,,,,,,,,,,,,,,,,,,,,,,,,,,,,,,,0.0,0.0,1.0,0.0,512.0,1.0,,,,,,,,,,,,,,,,,,,,,,,,,
40102,1645651957.400222,17.0,0.0,4263.589844,4569.230957,4232.307617,4276.410156,4249.230957,0.0,3.0,55.0,,,,0.0,4.0,0.0,4.0,0.0,4.0,33.333332,,,,,,,,,,,,,,,,,,,,,,,,,,,,,,,,,,,,,,,,,,,,,,,,,,,,,,,,,,,,,,,,,,,,,,,,,,,,,,,,,,,,
40103,1645651957.408138,18.0,0.0,4261.538574,4674.358886999999,4206.153809,4279.487305,4253.333496,0.0,3.0,55.0,,,,0.0,4.0,0.0,4.0,0.0,4.0,33.333332,,,,,,,,9.0,0.0,0.44447,0.5092770000000001,0.265381,-0.6875,0.9487450000000001,-0.087404,-0.340826,-0.020099000000000002,-0.046784,-0.051177999999999994,,,,,,,,,,,,,,,,,,,,,,,,,,,,,,,,,,,,,,,,,,,,,,,,,,,,,,,,,,,,,,,,,
40104,1645651957.415953,19.0,0.0,4249.230957,4725.128418,4200.0,4278.461426,4238.461426,0.0,3.0,55.0,,,,0.0,4.0,0.0,4.0,0.0,4.0,33.333332,,,,,,,,,,,,,,,,,,,,,,,,,,,,,,,,,,,,,,,,,,,,,,,,,,,,,,,,,,,,,,,,,,,,,,,,,,,,,,,,,,,,
40105,1645651957.423768,20.0,0.0,4245.641113000001,4661.025879,4228.717772999999,4276.922852000001,4235.384765999999,0.0,3.0,55.0,,,,0.0,4.0,0.0,4.0,0.0,4.0,33.333332,,,,,,,,10.0,0.0,0.444749,0.509033,0.265381,-0.6875,0.9355610000000001,-0.089357,-0.344244,-0.02053,-0.046842,-0.045572,1.0,0.0,0.0,,,,,,,,,,,,,,,,,,,,,,,,,,,,,,,,0.0,0.0,1.0,0.0,512.0,1.0,72.040459,4.462663,2.5533330000000003,2.464534,2.250718,20.868761,10.001627000000001,19.706127,26.813705,27.648888,1.434266,3.294201,2.3932889999999998,2.842563,1.7773349999999999,0.037217,0.010933,0.005057,0.0037310000000000004,0.011981,4.216819,4.542745,4.897665,3.153639,2.60333
40106,1645651957.431584,21.0,0.0,4253.333496,4596.922852000001,4216.410156,4277.94873,4233.846191,0.0,3.0,55.0,,,,0.0,4.0,0.0,4.0,0.0,4.0,33.333332,,,,,,,,,,,,,,,,,,,,,,,,,,,,,,,,,,,,,,,,,,,,,,,,,,,,,,,,,,,,,,,,,,,,,,,,,,,,,,,,,,,,
40107,1645651957.439399,22.0,0.0,4264.102539,4586.666504,4210.769043,4278.461426,4234.871582,0.0,3.0,55.0,,,,0.0,4.0,0.0,4.0,0.0,4.0,33.333332,,,,,,,,11.0,0.0,0.444749,0.509033,0.265381,-0.6875,0.9389790000000001,-0.08838,-0.357427,-0.018673,-0.046797000000000005,-0.040624,,,,,,,,,,,,,,,,,,,,,,,,,,,,,,,,,,,,,,,,,,,,,,,,,,,,,,,,,,,,,,,,,
40108,1645651957.4472141,23.0,0.0,4260.512695,4617.436035,4228.205078,4277.436035,4237.94873,0.0,3.0,55.0,,,,0.0,4.0,0.0,4.0,0.0,4.0,33.333332,,,,,,,,,,,,,,,,,,,,,,,,,,,,,,,,,,,,,,,,,,,,,,,,,,,,,,,,,,,,,,,,,,,,,,,,,,,,,,,,,,,,
40109,1645651957.45503,24.0,0.0,4253.333496,4673.333496,4225.128418,4278.461426,4231.794922,0.0,3.0,55.0,,,,0.0,4.0,0.0,4.0,0.0,4.0,33.333332,,,,,,,,12.0,0.0,0.444604,0.509033,0.265625,-0.6875,0.951675,-0.09033300000000001,-0.34766199999999997,-0.019149,-0.046805,-0.042323,,,,,,,,,,,,,,,,,,,,,,,,,,,,,,,,,,,0.0,0.0,1.0,0.0,512.0,1.0,,,,,,,,,,,,,,,,,,,,,,,,,
40110,1645651957.4628448,25.0,0.0,4266.666504,4702.05127,4214.358886999999,4278.461426,4229.743652,0.0,3.0,55.0,,,,0.0,4.0,0.0,4.0,0.0,4.0,33.333332,,,,,,,,,,,,,,,,,,,,,,,,,,,,,,,,,,,,,,,,,,,,,,,,,,,,,,,,,,,,,,,,,,,,,,,,,,,,,,,,,,,,
40111,1645651957.4707608,26.0,0.0,4282.563965,4700.512695,4243.589844,4276.922852000001,4256.922852000001,0.0,3.0,55.0,,,,0.0,4.0,0.0,4.0,0.0,4.0,33.333332,,,,,,,,13.0,0.0,0.444981,0.509033,0.265625,-0.6872560000000001,0.960464,-0.08838,-0.34815,-0.017283,-0.046812,-0.043706,,,,,,,,,,,,,,,,,,,,,,,,,,,,,,,,,,,,,,,,,,,,,,,,,,,,,,,,,,,,,,,,,
40112,1645651957.478576,27.0,0.0,4250.256348,4685.641113000001,4242.05127,4276.410156,4251.794922,0.0,3.0,55.0,,,,0.0,4.0,0.0,4.0,0.0,4.0,33.333332,,,,,,,,,,,,,,,,,,,,,,,,,,,,,,,,,,,,,,,,,,,,,,,,,,,,,,,,,,,,,,,,,,,,,,,,,,,,,,,,,,,,
40113,1645651957.486392,28.0,0.0,4224.615234000001,4640.0,4222.563965,4277.436035,4210.256348,0.0,3.0,55.0,,,,0.0,4.0,0.0,4.0,0.0,4.0,33.333332,,,,,,,,14.0,0.0,0.44455500000000003,0.5092770000000001,0.265869,-0.6872560000000001,0.9550930000000001,-0.098634,-0.33984899999999996,-0.017996,-0.046818,-0.038848,,,,,,,,,,,,,,,,,,,,,,,,,,,,,,,,,,,0.0,0.0,1.0,0.0,512.0,1.0,,,,,,,,,,,,,,,,,,,,,,,,,
40114,1645651957.4942071,29.0,0.0,4265.641113000001,4585.128418,4236.410156,4276.410156,4222.563965,0.0,3.0,55.0,,,,0.0,4.0,0.0,4.0,0.0,4.0,33.333332,,,,,,,,,,,,,,,,,,,,,,,,,,,,,,,,,,,,,,,,,,,,,,,,,,,,,,,,,,,,,,,,,,,,,,,,,,,,,,,,,,,,
40115,1645651957.502023,30.0,0.0,4297.94873,4590.769043,4260.512695,4276.922852000001,4262.563965,0.0,3.0,55.0,,,,0.0,4.0,0.0,4.0,0.0,4.0,33.333332,,,,,,,,15.0,0.0,0.44483500000000004,0.509033,0.265869,-0.6872560000000001,0.95314,-0.083009,-0.342779,-0.018687,-0.046873000000000005,-0.040773000000000004,,,,,,,,,,,,,,,,,,,,,,,,,,,,,,,,,,,,,,,,,,,,,,,,,,,,,,,,,,,,,,,,,
40116,1645651957.509839,31.0,0.0,4271.794922,4672.307617,4221.538574,4277.436035,4249.230957,0.0,3.0,55.0,,,,0.0,4.0,0.0,4.0,0.0,4.0,33.333332,,,,,,,,,,,,,,,,,,,,,,,,,,,,,,,,,,,,,,,,,,,,,,,,,,,,,,,,,,,,,,,,,,,,,,,,,,,,,,,,,,,,
40117,1645651957.517654,32.0,0.0,4267.692383,4707.179688,4204.615234000001,4275.384765999999,4228.717772999999,0.0,3.0,55.0,,,,0.0,4.0,0.0,4.0,0.0,4.0,33.333332,,,,,,,,16.0,0.0,0.44483500000000004,0.509033,0.265869,-0.6872560000000001,0.939467,-0.099123,-0.340337,-0.019211000000000002,-0.046873000000000005,-0.036257,,,,,,,,,,,,,,,,,,,,,,,,,,,,,,,,,,,0.0,0.0,1.0,0.0,512.0,1.0,,,,,,,,,,,,,,,,,,,,,,,,,
40118,1645651957.52547,33.0,0.0,4300.512695,4635.384765999999,4227.692383,4276.410156,4251.282227000001,0.0,3.0,55.0,,,,0.0,4.0,0.0,4.0,0.0,4.0,33.333332,,,,,,,,,,,,,,,,,,,,,,,,,,,,,,,,,,,,,,,,,,,,,,,,,,,,,,,,,,,,,,,,,,,,,,,,,,,,,,,,,,,,
40119,1645651957.533285,34.0,0.0,4292.307617,4621.025879,4230.256348,4279.487305,4257.94873,0.0,3.0,55.0,,,,0.0,4.0,0.0,4.0,0.0,4.0,33.333332,,,,,,,,17.0,0.0,0.44431099999999996,0.509033,0.266113,-0.6875,0.9511860000000001,-0.084962,-0.341802,-0.018071,-0.046776,-0.038442000000000004,,,,,,,,,,,,,,,,,,,,,,,,,,,,,,,,,,,,,,,,,,,,,,,,,,,,,,,,,,,,,,,,,
40120,1645651957.5412009,35.0,0.0,4293.846191,4669.230957,4241.025879,4279.487305,4258.974121,0.0,3.0,55.0,,,,0.0,4.0,0.0,4.0,0.0,4.0,33.333332,,,,,,,,,,,,,,,,,,,,,,,,,,,,,,,,,,,,,,,,,,,,,,,,,,,,,,,,,,,,,,,,,,,,,,,,,,,,,,,,,,,,
40121,1645651957.549016,36.0,0.0,4323.077147999999,4660.512695,4286.666504,4279.487305,4285.641113000001,0.0,3.0,55.0,,,,0.0,4.0,0.0,4.0,0.0,4.0,33.333332,,,,,,,,18.0,0.0,0.44459099999999996,0.508789,0.266113,-0.6875,0.9399559999999999,-0.083009,-0.338384,-0.018754,-0.046737,-0.034207,1.0,0.0,0.0,,,,,,,,,,,,,,,,,,,,,,,,,,,,,,,,0.0,0.0,1.0,0.0,512.0,1.0,21.122073999999998,4.351468,2.419663,2.3765009999999998,2.105034,15.258474,10.95979,16.594141,24.859901,27.611055,1.413394,4.121242,2.417153,2.892346,1.664823,0.013225,0.009447,0.004323,0.004566,0.010753,3.465207,4.267787,4.302033,3.017534,2.248956
40122,1645651957.5568311,37.0,0.0,4321.025879,4646.666504,4282.563965,4280.0,4294.871582,0.0,3.0,55.0,,,,0.0,4.0,0.0,4.0,0.0,4.0,33.333332,,,,,,,,,,,,,,,,,,,,,,,,,,,,,,,,,,,,,,,,,,,,,,,,,,,,,,,,,,,,,,,,,,,,,,,,,,,,,,,,,,,,
40123,1645651957.564647,38.0,0.0,4289.743652,4654.871582,4225.641113000001,4277.436035,4265.128418,0.0,3.0,55.0,,,,0.0,4.0,0.0,4.0,0.0,4.0,33.333332,,,,,,,,19.0,0.0,0.444213,0.508789,0.266113,-0.6877439999999999,0.957534,-0.087404,-0.354009,-0.01932,-0.046897,-0.030347000000000002,,,,,,,,,,,,,,,,,,,,,,,,,,,,,,,,,,,,,,,,,,,,,,,,,,,,,,,,,,,,,,,,,
40124,1645651957.5724618,39.0,0.0,4298.974121,4621.025879,4226.666504,4276.410156,4258.974121,0.0,3.0,55.0,,,,0.0,4.0,0.0,4.0,0.0,4.0,33.333332,,,,,,,,,,,,,,,,,,,,,,,,,,,,,,,,,,,,,,,,,,,,,,,,,,,,,,,,,,,,,,,,,,,,,,,,,,,,,,,,,,,,
40125,1645651957.580277,40.0,0.0,4313.846191,4572.307617,4243.077147999999,4278.461426,4264.615234000001,0.0,3.0,55.0,,,,0.0,4.0,0.0,4.0,0.0,4.0,33.333332,,,,,,,,20.0,0.0,0.444213,0.508789,0.266113,-0.6877439999999999,0.94435,-0.084962,-0.356451,-0.019732,-0.046944,-0.026920999999999997,,,,,,,,,,,,,,,,,,,,,,,,,,,,,,,,,,,0.0,0.0,1.0,0.0,512.0,1.0,,,,,,,,,,,,,,,,,,,,,,,,,
40126,1645651957.588093,41.0,0.0,4300.0,4570.769043,4236.410156,4278.461426,4256.922852000001,0.0,3.0,55.0,,,,0.0,4.0,0.0,4.0,0.0,4.0,33.333332,,,,,,,,,,,,,,,,,,,,,,,,,,,,,,,,,,,,,,,,,,,,,,,,,,,,,,,,,,,,,,,,,,,,,,,,,,,,,,,,,,,,
40127,1645651957.595908,42.0,0.0,4290.256348,4620.0,4230.256348,4277.436035,4244.102539,0.0,3.0,55.0,,,,0.0,4.0,0.0,4.0,0.0,4.0,33.333332,,,,,,,,21.0,0.0,0.444493,0.508545,0.266113,-0.6877439999999999,0.934585,-0.081544,-0.347173,-0.020151,-0.046888,-0.030088999999999998,,,,,,,,,,,,,,,,,,,,,,,,,,,,,,,,,,,,,,,,,,,,,,,,,,,,,,,,,,,,,,,,,
40128,1645651957.6038241,43.0,0.0,4283.077147999999,4657.94873,4223.077147999999,4277.94873,4233.846191,0.0,3.0,55.0,,,,0.0,4.0,0.0,4.0,0.0,4.0,33.333332,,,,,,,,,,,,,,,,,,,,,,,,,,,,,,,,,,,,,,,,,,,,,,,,,,,,,,,,,,,,,,,,,,,,,,,,,,,,,,,,,,,,
40129,1645651957.611639,44.0,0.0,4274.871582,4641.538574,4212.820313,4278.461426,4226.666504,0.0,3.0,55.0,,,,0.0,4.0,0.0,4.0,0.0,4.0,33.333332,,,,,,,,22.0,0.0,0.44426099999999996,0.508545,0.265869,-0.687988,0.944839,-0.085939,-0.346197,-0.020626,-0.046936,-0.033037000000000004,,,,,,,,,,,,,,,,,,,,,,,,,,,,,,,,,,,0.0,0.0,1.0,0.0,512.0,1.0,,,,,,,,,,,,,,,,,,,,,,,,,
40130,1645651957.619555,45.0,0.0,4303.589844,4633.333496,4249.230957,4278.461426,4260.512695,0.0,3.0,55.0,,,,0.0,4.0,0.0,4.0,0.0,4.0,33.333332,,,,,,,,,,,,,,,,,,,,,,,,,,,,,,,,,,,,,,,,,,,,,,,,,,,,,,,,,,,,,,,,,,,,,,,,,,,,,,,,,,,,
40131,1645651957.6273699,46.0,0.0,4347.692383,4637.436035,4283.077147999999,4278.461426,4315.897461,0.0,3.0,55.0,,,,0.0,4.0,0.0,4.0,0.0,4.0,33.333332,,,,,,,,23.0,0.0,0.444115,0.508545,0.266113,-0.687988,0.9389790000000001,-0.075685,-0.341802,-0.018613,-0.046783,-0.035593,,,,,,,,,,,,,,,,,,,,,,,,,,,,,,,,,,,,,,,,,,,,,,,,,,,,,,,,,,,,,,,,,
40132,1645651957.635186,47.0,0.0,4351.282227000001,4649.743652,4270.769043,4278.974121,4308.717772999999,0.0,3.0,55.0,,,,0.0,4.0,0.0,4.0,0.0,4.0,33.333332,,,,,,,,,,,,,,,,,,,,,,,,,,,,,,,,,,,,,,,,,,,,,,,,,,,,,,,,,,,,,,,,,,,,,,,,,,,,,,,,,,,,
40133,1645651957.643002,48.0,0.0,4333.846191,4711.794922,4221.538574,4280.0,4265.641113000001,0.0,3.0,55.0,,,,0.0,4.0,0.0,4.0,0.0,4.0,33.333332,,,,,,,,24.0,0.0,0.444115,0.508545,0.266113,-0.687988,0.954116,-0.083009,-0.34912600000000005,-0.017435,-0.046841,-0.037844,,,,,,,,,,,,,,,,,,,,,,,,,,,,,,,,,,,0.0,0.0,1.0,0.0,512.0,1.0,,,,,,,,,,,,,,,,,,,,,,,,,
40134,1645651957.650817,49.0,0.0,4330.769043,4717.94873,4222.563965,4279.487305,4264.615234000001,0.0,3.0,55.0,,,,0.0,4.0,0.0,4.0,0.0,4.0,33.333332,,,,,,,,,,,,,,,,,,,,,,,,,,,,,,,,,,,,,,,,,,,,,,,,,,,,,,,,,,,,,,,,,,,,,,,,,,,,,,,,,,,,
40135,1645651957.658633,50.0,0.0,4334.358886999999,4614.358886999999,4257.436035,4277.94873,4294.871582,0.0,3.0,55.0,,,,0.0,4.0,0.0,4.0,0.0,4.0,33.333332,,,,,,,,25.0,0.0,0.444639,0.508545,0.265869,-0.6877439999999999,0.959976,-0.10351700000000001,-0.352544,-0.016375,-0.046894,-0.039919,,,,,,,,,,,,,,,,,,,,,,,,,,,,,,,,,,,,,,,,,,,,,,,,,,,,,,,,,,,,,,,,,
40136,1645651957.666448,51.0,0.0,4311.282227000001,4583.589844,4238.461426,4277.436035,4277.436035,0.0,3.0,55.0,,,,0.0,4.0,0.0,4.0,0.0,4.0,33.333332,,,,,,,,,,,,,,,,,,,,,,,,,,,,,,,,,,,,,,,,,,,,,,,,,,,,,,,,,,,,,,,,,,,,,,,,,,,,,,,,,,,,
40137,1645651957.674264,52.0,0.0,4289.743652,4654.871582,4189.230957,4278.461426,4243.077147999999,0.0,3.0,55.0,,,,0.0,4.0,0.0,4.0,0.0,4.0,33.333332,1.0,25.0,3.0,0.0,4.0,0.0,3.0,26.0,0.0,0.444639,0.508545,0.265869,-0.6877439999999999,0.944839,-0.081544,-0.34668499999999997,-0.017130000000000003,-0.046794,-0.041787,1.0,0.0,0.0,,,,,,,,,,,,,,,,,,,,,,,,,,,,,,,,0.0,0.0,1.0,0.0,512.0,1.0,6.319373000000001,4.613478,2.500607,2.484502,2.098932,11.710131,11.989421,13.542411999999999,21.228554000000003,27.29113,1.512405,4.7451550000000005,2.433231,2.9012990000000003,1.597573,0.007739,0.008251,0.0042439999999999995,0.006155,0.010001000000000001,3.190163,4.50194,3.8246660000000006,2.961807,2.120277
40138,1645651957.68208,53.0,0.0,4295.384765999999,4669.230957,4207.179688,4277.436035,4249.230957,0.0,3.0,55.0,,,,0.0,4.0,0.0,4.0,0.0,4.0,33.333332,,,,,,,,,,,,,,,,,,,,,,,,,,,,,,,,,,,,,,,,,,,,,,,,,,,,,,,,,,,,,,,,,,,,,,,,,,,,,,,,,,,,
40139,1645651957.6899948,54.0,0.0,4323.077147999999,4653.333496,4264.615234000001,4277.94873,4285.641113000001,0.0,3.0,55.0,,,,0.0,4.0,0.0,4.0,0.0,4.0,33.333332,,,,,,,,27.0,0.0,0.444115,0.508545,0.266113,-0.687988,0.954116,-0.083009,-0.34912600000000005,-0.016101,-0.046851,-0.043419,,,,,,,,,,,,,,,,,,,,,,,,,,,,,,,,,,,,,,,,,,,,,,,,,,,,,,,,,,,,,,,,,
40140,1645651957.69781,55.0,0.0,4342.05127,4661.538574,4270.769043,4279.487305,4311.794922,0.0,3.0,55.0,,,,0.0,4.0,0.0,4.0,0.0,4.0,33.333332,,,,,,,,,,,,,,,,,,,,,,,,,,,,,,,,,,,,,,,,,,,,,,,,,,,,,,,,,,,,,,,,,,,,,,,,,,,,,,,,,,,,
40141,1645651957.705626,56.0,0.0,4350.256348,4676.410156,4256.922852000001,4278.461426,4310.769043,0.0,3.0,55.0,,,,0.0,4.0,0.0,4.0,0.0,4.0,33.333332,,,,,,,,28.0,0.0,0.444639,0.508545,0.265869,-0.6877439999999999,0.944839,-0.081544,-0.34668499999999997,-0.016883000000000002,-0.046756,-0.044936000000000004,,,,,,,,,,,,,,,,,,,,,,,,,,,,,,,,,,,0.0,0.0,1.0,0.0,512.0,1.0,,,,,,,,,,,,,,,,,,,,,,,,,
40142,1645651957.7134411,57.0,0.0,4348.717772999999,4700.0,4249.743652,4277.94873,4291.282227000001,0.0,3.0,55.0,,,,0.0,4.0,0.0,4.0,0.0,4.0,33.333332,,,,,,,,,,,,,,,,,,,,,,,,,,,,,,,,,,,,,,,,,,,,,,,,,,,,,,,,,,,,,,,,,,,,,,,,,,,,,,,,,,,,
40143,1645651957.721256,58.0,0.0,4345.128418,4685.641113000001,4251.282227000001,4280.512695,4288.205078,0.0,3.0,55.0,,,,0.0,4.0,0.0,4.0,0.0,4.0,33.333332,,,,,,,,29.0,0.0,0.444493,0.508545,0.266113,-0.6877439999999999,0.957534,-0.09131,-0.345708,-0.017636000000000002,-0.046719,-0.046301999999999996,,,,,,,,,,,,,,,,,,,,,,,,,,,,,,,,,,,,,,,,,,,,,,,,,,,,,,,,,,,,,,,,,
40144,1645651957.729072,59.0,0.0,4330.256348,4651.794922,4233.846191,4277.94873,4284.615234000001,0.0,3.0,55.0,,,,0.0,4.0,0.0,4.0,0.0,4.0,33.333332,,,,,,,,,,,,,,,,,,,,,,,,,,,,,,,,,,,,,,,,,,,,,,,,,,,,,,,,,,,,,,,,,,,,,,,,,,,,,,,,,,,,
40145,1645651957.736887,60.0,0.0,4306.153809,4645.128418,4230.256348,4275.384765999999,4272.307617,0.0,3.0,55.0,,,,0.0,4.0,0.0,4.0,0.0,4.0,33.333332,,,,,,,,30.0,0.0,0.444213,0.508789,0.266113,-0.6877439999999999,0.9555809999999999,-0.078126,-0.352056,-0.016654,-0.046832,-0.047385000000000004,,,,,,,,,,,,,,,,,,,,,,,,,,,,,,,,,,,0.0,0.0,1.0,0.0,512.0,1.0,,,,,,,,,,,,,,,,,,,,,,,,,
40146,1645651957.7447019,61.0,0.0,4295.384765999999,4608.717772999999,4231.794922,4277.94873,4260.512695,0.0,3.0,55.0,,,,0.0,4.0,0.0,4.0,0.0,4.0,33.333332,,,,,,,,,,,,,,,,,,,,,,,,,,,,,,,,,,,,,,,,,,,,,,,,,,,,,,,,,,,,,,,,,,,,,,,,,,,,,,,,,,,,
40147,1645651957.752518,62.0,0.0,4292.820313,4581.025879,4221.538574,4279.487305,4244.615234000001,0.0,3.0,55.0,,,,0.0,4.0,0.0,4.0,0.0,4.0,33.333332,,,,,,,,31.0,0.0,0.444213,0.508789,0.266113,-0.6877439999999999,0.941909,-0.085451,-0.354009,-0.017381,-0.046738999999999996,-0.042256,,,,,,,,,,,,,,,,,,,,,,,,,,,,,,,,,,,,,,,,,,,,,,,,,,,,,,,,,,,,,,,,,
40148,1645651957.760433,63.0,0.0,4285.641113000001,4680.512695,4197.436035,4277.94873,4229.743652,0.0,3.0,55.0,,,,0.0,4.0,0.0,4.0,0.0,4.0,33.333332,,,,,,,,,,,,,,,,,,,,,,,,,,,,,,,,,,,,,,,,,,,,,,,,,,,,,,,,,,,,,,,,,,,,,,,,,,,,,,,,,,,,
40149,1645651957.768249,64.0,0.0,4297.436035,4739.487305,4213.333496,4278.461426,4249.743652,450.0,3.0,55.0,,,,0.0,4.0,0.0,4.0,0.0,4.0,33.333332,,,,,,,,32.0,0.0,0.444213,0.508789,0.266113,-0.6877439999999999,0.9389790000000001,-0.089357,-0.349615,-0.018085,-0.046899,-0.04389,,,,,,,,,,,,,,,,,,,,,,,,,,,,,,,,,,,0.0,0.0,1.0,0.0,512.0,1.0,,,,,,,,,,,,,,,,,,,,,,,,,
40150,1645651957.7760642,65.0,0.0,4325.128418,4678.461426,4226.153809,4278.461426,4287.179688,450.0,3.0,55.0,,,,0.0,4.0,0.0,4.0,0.0,4.0,33.333332,,,,,,,,,,,,,,,,,,,,,,,,,,,,,,,,,,,,,,,,,,,,,,,,,,,,,,,,,,,,,,,,,,,,,,,,,,,,,,,,,,,,
40151,1645651957.78388,66.0,0.0,4316.922852000001,4686.666504,4214.358886999999,4277.436035,4277.436035,16224.0,3.0,55.0,,,,0.0,4.0,0.0,4.0,0.0,4.0,33.333332,,,,,,,,33.0,0.0,0.444213,0.508789,0.266113,-0.6877439999999999,0.937514,-0.07910299999999999,-0.335454,-0.018619999999999998,-0.046897,-0.039012,,,,,,,,,,,,,,,,,,,,,,,,,,,,,,,,,,,,,,,,,,,,,,,,,,,,,,,,,,,,,,,,,
40152,1645651957.791696,67.0,0.0,4313.333496,4678.461426,4225.641113000001,4277.94873,4271.282227000001,450.0,3.0,55.0,,,,0.0,4.0,0.0,4.0,0.0,4.0,33.333332,,,,,,,,,,,,,,,,,,,,,,,,,,,,,,,,,,,,,,,,,,,,,,,,,,,,,,,,,,,,,,,,,,,,,,,,,,,,,,,,,,,,
40153,1645651957.799511,68.0,0.0,4339.487305,4604.102539,4247.179688,4278.974121,4291.282227000001,0.0,3.0,55.0,,,,0.0,4.0,0.0,4.0,0.0,4.0,33.333332,,,,,,,,34.0,0.0,0.444067,0.508789,0.266357,-0.6877439999999999,0.9463030000000001,-0.082521,-0.33789600000000003,-0.016807,-0.046797000000000005,-0.034672,1.0,0.0,0.0,,,,,,,,,,,,,,,,,,,,,,,,,,,,,,,,0.0,0.0,1.0,0.0,512.0,1.0,5.1340330000000005,5.034305000000001,2.507425,2.6500529999999998,2.1345080000000003,10.227177000000001,12.898236,10.732422999999999,17.203426,26.279154,1.625866,5.014767,2.4320880000000002,2.842726,1.565244,0.008186,0.007248,0.004364,0.008199,0.009632,3.311657,4.83026,3.262635,2.8776450000000002,2.031653
40154,1645651957.807327,69.0,0.0,4345.641113000001,4653.846191,4240.512695,4278.461426,4293.846191,450.0,3.0,55.0,,,,0.0,4.0,0.0,4.0,0.0,4.0,33.333332,,,,,,,,,,,,,,,,,,,,,,,,,,,,,,,,,,,,,,,,,,,,,,,,,,,,,,,,,,,,,,,,,,,,,,,,,,,,,,,,,,,,
40155,1645651957.815142,70.0,0.0,4304.615234000001,4689.743652,4217.436035,4277.436035,4258.974121,16150.0,3.0,55.0,,,,0.0,4.0,0.0,4.0,0.0,4.0,33.333332,,,,,,,,35.0,0.0,0.44472399999999995,0.508545,0.266357,-0.6875,0.938491,-0.082521,-0.34912600000000005,-0.01747,-0.046805,-0.030813999999999998,,,,,,,,,,,,,,,,,,,,,,,,,,,,,,,,,,,,,,,,,,,,,,,,,,,,,,,,,,,,,,,,,
40156,1645651957.822958,71.0,0.0,4293.333496,4596.922852000001,4226.153809,4277.94873,4247.692383,450.0,3.0,55.0,,,,0.0,4.0,0.0,4.0,0.0,4.0,33.333332,,,,,,,,,,,,,,,,,,,,,,,,,,,,,,,,,,,,,,,,,,,,,,,,,,,,,,,,,,,,,,,,,,,,,,,,,,,,,,,,,,,,
40157,1645651957.830874,72.0,0.0,4308.717772999999,4609.230957,4220.0,4277.94873,4261.025879,450.0,3.0,55.0,,,,0.0,4.0,0.0,4.0,0.0,4.0,33.333332,,,,,,,,36.0,0.0,0.444578,0.508545,0.266602,-0.6875,0.9560690000000001,-0.08838,-0.338872,-0.018115,-0.046763,-0.033592000000000004,,,,,,,,,,,,,,,,,,,,,,,,,,,,,,,,,,,0.0,0.0,1.0,0.0,512.0,1.0,,,,,,,,,,,,,,,,,,,,,,,,,
40158,1645651957.838689,73.0,0.0,4305.641113000001,4695.897461,4209.230957,4277.94873,4255.897461,0.0,3.0,55.0,,,,0.0,4.0,0.0,4.0,0.0,4.0,33.333332,,,,,,,,,,,,,,,,,,,,,,,,,,,,,,,,,,,,,,,,,,,,,,,,,,,,,,,,,,,,,,,,,,,,,,,,,,,,,,,,,,,,
40159,1645651957.8465052,74.0,0.0,4313.333496,4626.153809,4213.846191,4280.0,4254.358886999999,450.0,3.0,55.0,,,,0.0,4.0,0.0,4.0,0.0,4.0,33.333332,,,,,,,,37.0,0.0,0.444578,0.508545,0.266602,-0.6875,0.9589989999999999,-0.093263,-0.354986,-0.018744999999999998,-0.046774,-0.029744,,,,,,,,,,,,,,,,,,,,,,,,,,,,,,,,,,,,,,,,,,,,,,,,,,,,,,,,,,,,,,,,,
40160,1645651957.8543198,75.0,0.0,4331.794922,4509.743652,4250.769043,4279.487305,4282.05127,16204.0,3.0,55.0,,,,0.0,4.0,0.0,4.0,0.0,4.0,33.333332,,,,,,,,,,,,,,,,,,,,,,,,,,,,,,,,,,,,,,,,,,,,,,,,,,,,,,,,,,,,,,,,,,,,,,,,,,,,,,,,,,,,
40161,1645651957.862136,76.0,0.0,4323.589844,4529.743652,4249.230957,4277.436035,4290.769043,450.0,3.0,55.0,,,,0.0,4.0,0.0,4.0,0.0,4.0,33.333332,,,,,,,,38.0,0.0,0.444383,0.508789,0.26709,-0.6872560000000001,0.965835,-0.086427,-0.366217,-0.017016999999999997,-0.046833,-0.032629000000000005,,,,,,,,,,,,,,,,,,,,,,,,,,,,,,,,,,,0.0,0.0,1.0,0.0,512.0,1.0,,,,,,,,,,,,,,,,,,,,,,,,,
40162,1645651957.869952,77.0,0.0,4303.589844,4627.692383,4214.358886999999,4278.461426,4259.487305,450.0,3.0,55.0,,,,0.0,4.0,0.0,4.0,0.0,4.0,33.333332,,,,,,,,,,,,,,,,,,,,,,,,,,,,,,,,,,,,,,,,,,,,,,,,,,,,,,,,,,,,,,,,,,,,,,,,,,,,,,,,,,,,
40163,1645651957.877767,78.0,0.0,4317.94873,4670.256348,4203.589844,4279.487305,4256.922852000001,450.0,3.0,55.0,,,,0.0,4.0,0.0,4.0,0.0,4.0,33.333332,,,,,,,,39.0,0.0,0.444481,0.509033,0.26709,-0.687012,0.948257,-0.087892,-0.355962,-0.017611,-0.046886000000000004,-0.028976,,,,,,,,,,,,,,,,,,,,,,,,,,,,,,,,,,,,,,,,,,,,,,,,,,,,,,,,,,,,,,,,,
40164,1645651957.885583,79.0,0.0,4325.128418,4637.94873,4238.974121,4278.461426,4277.94873,16204.0,3.0,55.0,,,,0.0,4.0,0.0,4.0,0.0,4.0,33.333332,,,,,,,,,,,,,,,,,,,,,,,,,,,,,,,,,,,,,,,,,,,,,,,,,,,,,,,,,,,,,,,,,,,,,,,,,,,,,,,,,,,,
40165,1645651957.893398,80.0,0.0,4297.94873,4638.974121,4226.153809,4277.94873,4262.05127,450.0,3.0,55.0,,,,0.0,4.0,0.0,4.0,0.0,4.0,33.333332,,,,,,,,40.0,0.0,0.444201,0.5092770000000001,0.26709,-0.687012,0.941909,-0.093751,-0.35108,-0.018241999999999998,-0.046934,-0.031938,,,,,,,,,,,,,,,,,,,,,,,,,,,,,,,,,,,0.0,0.0,1.0,0.0,512.0,1.0,,,,,,,,,,,,,,,,,,,,,,,,,
40166,1645651957.901314,81.0,0.0,4267.692383,4692.307617,4168.205078,4278.461426,4217.436035,450.0,3.0,55.0,,,,0.0,4.0,0.0,4.0,0.0,4.0,33.333332,,,,,,,,,,,,,,,,,,,,,,,,,,,,,,,,,,,,,,,,,,,,,,,,,,,,,,,,,,,,,,,,,,,,,,,,,,,,,,,,,,,,
40167,1645651957.909129,82.0,0.0,4289.230957,4688.205078,4192.307617,4278.974121,4239.487305,450.0,3.0,55.0,,,,0.0,4.0,0.0,4.0,0.0,4.0,33.333332,,,,,,,,41.0,0.0,0.444299,0.509521,0.26709,-0.686768,0.9433739999999999,-0.069825,-0.350103,-0.018956999999999998,-0.046977,-0.028256,,,,,,,,,,,,,,,,,,,,,,,,,,,,,,,,,,,,,,,,,,,,,,,,,,,,,,,,,,,,,,,,,
40168,1645651957.916945,83.0,0.0,4293.846191,4638.461426,4221.025879,4278.974121,4246.153809,16204.0,3.0,55.0,,,,0.0,4.0,0.0,4.0,0.0,4.0,33.333332,,,,,,,,,,,,,,,,,,,,,,,,,,,,,,,,,,,,,,,,,,,,,,,,,,,,,,,,,,,,,,,,,,,,,,,,,,,,,,,,,,,,
40169,1645651957.9247608,84.0,0.0,4286.666504,4603.077147999999,4210.256348,4278.974121,4227.179688,450.0,3.0,55.0,,,,0.0,4.0,0.0,4.0,0.0,4.0,33.333332,,,,,,,,42.0,0.0,0.444249,0.5097659999999999,0.267334,-0.686523,0.964858,-0.10351700000000001,-0.369635,-0.01711,-0.047016,-0.031338,1.0,0.0,0.0,,,,,,,,,,,,,,,,,,,,,,,,,,,,,,,,0.0,0.0,64.0,0.15523299999999998,1.0,0.0,5.846918,5.397007,2.432541,2.818793,2.174058,9.873907,13.373872,8.491238000000001,14.320523000000001,24.572905,1.6391959999999999,4.9052489999999995,2.521882,2.7269639999999997,1.599705,0.009170000000000001,0.006869,0.004615,0.010303,0.009599,3.655846,5.094079,2.743404,2.72574,1.961048
40170,1645651957.932576,85.0,0.0,4324.102539,4576.410156,4213.333496,4278.461426,4250.769043,450.0,3.0,55.0,,,,0.0,4.0,0.0,4.0,0.0,4.0,33.333332,,,,,,,,,,,,,,,,,,,,,,,,,,,,,,,,,,,,,,,,,,,,,,,,,,,,,,,,,,,,,,,,,,,,,,,,,,,,,,,,,,,,
40171,1645651957.940392,86.0,0.0,4375.897461,4608.205078,4245.641113000001,4280.0,4295.384765999999,450.0,3.0,55.0,,,,0.0,4.0,0.0,4.0,0.0,4.0,33.333332,,,,,,,,43.0,0.0,0.44444300000000003,0.510254,0.267334,-0.6860350000000001,0.969741,-0.097169,-0.338384,-0.017743000000000002,-0.047001999999999995,-0.027716,,,,,,,,,,,,,,,,,,,,,,,,,,,,,,,,,,,,,,,,,,,,,,,,,,,,,,,,,,,,,,,,,
40172,1645651957.9482071,87.0,0.0,4382.05127,4691.282227000001,4207.179688,4281.538574,4288.717772999999,16204.0,3.0,55.0,,,,0.0,4.0,0.0,4.0,0.0,4.0,33.333332,,,,,,,,,,,,,,,,,,,,,,,,,,,,,,,,,,,,,,,,,,,,,,,,,,,,,,,,,,,,,,,,,,,,,,,,,,,,,,,,,,,,
40173,1645651957.956023,88.0,0.0,4406.666504,4670.256348,4211.282227000001,4281.538574,4301.538574,450.0,3.0,55.0,,,,0.0,4.0,0.0,4.0,0.0,4.0,33.333332,,,,,,,,44.0,0.0,0.443978,0.5109859999999999,0.267334,-0.685791,0.956558,-0.102052,-0.348638,-0.018312000000000002,-0.047037999999999996,-0.030804,,,,,,,,,,,,,,,,,,,,,,,,,,,,,,,,,,,0.0,0.0,64.0,0.15523299999999998,1.0,0.0,,,,,,,,,,,,,,,,,,,,,,,,,
40174,1645651957.963839,89.0,0.0,4459.487305,4566.153809,4249.743652,4281.538574,4356.410156,450.0,3.0,55.0,,,,0.0,4.0,0.0,4.0,0.0,4.0,33.333332,,,,,,,,,,,,,,,,,,,,,,,,,,,,,,,,,,,,,,,,,,,,,,,,,,,,,,,,,,,,,,,,,,,,,,,,,,,,,,,,,,,,
40175,1645651957.9717538,90.0,0.0,4456.922852000001,4574.358886999999,4253.846191,4281.538574,4355.384765999999,450.0,3.0,55.0,,,,0.0,4.0,0.0,4.0,0.0,4.0,33.333332,,,,,,,,45.0,0.0,0.443697,0.5112300000000001,0.267334,-0.685791,0.9423969999999999,-0.11425999999999999,-0.350103,-0.018923,-0.046973,-0.033583,,,,,,,,,,,,,,,,,,,,,,,,,,,,,,,,,,,,,,,,,,,,,,,,,,,,,,,,,,,,,,,,,
40176,1645651957.979569,91.0,0.0,4432.820313,4651.282227000001,4235.897461,4281.538574,4330.769043,16204.0,3.0,55.0,,,,0.0,4.0,0.0,4.0,0.0,4.0,33.333332,,,,,,,,,,,,,,,,,,,,,,,,,,,,,,,,,,,,,,,,,,,,,,,,,,,,,,,,,,,,,,,,,,,,,,,,,,,,,,,,,,,,
40177,1645651957.987485,92.0,0.0,4427.179688,4637.436035,4254.358886999999,4281.538574,4334.871582,450.0,3.0,55.0,,,,0.0,4.0,0.0,4.0,0.0,4.0,33.333332,,,,,,,,46.0,0.0,0.44341499999999995,0.511475,0.267334,-0.685791,0.938003,-0.086427,-0.339361,-0.019569,-0.046963,-0.029833999999999996,,,,,,,,,,,,,,,,,,,,,,,,,,,,,,,,,,,0.0,0.0,64.0,0.15523299999999998,1.0,0.0,,,,,,,,,,,,,,,,,,,,,,,,,
40178,1645651957.9953,93.0,0.0,4444.102539,4601.025879,4273.333496,4282.563965,4357.436035,450.0,3.0,55.0,,,,0.0,4.0,0.0,4.0,0.0,4.0,33.333332,,,,,,,,,,,,,,,,,,,,,,,,,,,,,,,,,,,,,,,,,,,,,,,,,,,,,,,,,,,,,,,,,,,,,,,,,,,,,,,,,,,,
40179,1645651958.003115,94.0,0.0,4421.025879,4645.128418,4249.743652,4281.538574,4326.153809,450.0,3.0,55.0,,,,0.0,4.0,0.0,4.0,0.0,4.0,33.333332,,,,,,,,47.0,0.0,0.443133,0.5117189999999999,0.267334,-0.685791,0.9306780000000001,-0.09765800000000001,-0.341802,-0.01771,-0.047002999999999996,-0.032563999999999996,,,,,,,,,,,,,,,,,,,,,,,,,,,,,,,,,,,,,,,,,,,,,,,,,,,,,,,,,,,,,,,,,
40180,1645651958.010931,95.0,0.0,4381.538574,4653.333496,4227.692383,4280.0,4288.717772999999,16204.0,3.0,55.0,,,,0.0,4.0,0.0,4.0,0.0,4.0,33.333332,,,,,,,,,,,,,,,,,,,,,,,,,,,,,,,,,,,,,,,,,,,,,,,,,,,,,,,,,,,,,,,,,,,,,,,,,,,,,,,,,,,,
40181,1645651958.0187461,96.0,0.0,4393.333496,4618.974121,4245.641113000001,4281.025879,4307.179688,450.0,3.0,55.0,,,,0.0,4.0,0.0,4.0,0.0,4.0,33.333332,,,,,,,,48.0,0.0,0.443133,0.5117189999999999,0.267334,-0.685791,0.941421,-0.095705,-0.326665,-0.018381,-0.046991000000000005,-0.035118,,,,,,,,,,,,,,,,,,,,,,,,,,,,,,,,,,,0.0,0.0,64.0,0.15523299999999998,1.0,0.0,,,,,,,,,,,,,,,,,,,,,,,,,
40182,1645651958.026561,97.0,0.0,4440.0,4685.641113000001,4273.846191,4282.05127,4347.179688,450.0,3.0,55.0,,,,0.0,4.0,0.0,4.0,0.0,4.0,33.333332,,,,,,,,,,,,,,,,,,,,,,,,,,,,,,,,,,,,,,,,,,,,,,,,,,,,,,,,,,,,,,,,,,,,,,,,,,,,,,,,,,,,
40183,1645651958.0343769,98.0,0.0,4435.897461,4722.05127,4267.692383,4280.512695,4345.128418,450.0,3.0,55.0,,,,0.0,4.0,0.0,4.0,0.0,4.0,33.333332,,,,,,,,49.0,0.0,0.442608,0.5117189999999999,0.26757800000000004,-0.6860350000000001,0.9594870000000001,-0.09668099999999999,-0.327642,-0.016640000000000002,-0.047028,-0.037515,,,,,,,,,,,,,,,,,,,,,,,,,,,,,,,,,,,,,,,,,,,,,,,,,,,,,,,,,,,,,,,,,
40184,1645651958.042192,99.0,0.0,4396.410156,4633.846191,4242.05127,4281.025879,4315.384765999999,16204.0,3.0,55.0,,,,0.0,4.0,0.0,4.0,0.0,4.0,33.333332,,,,,,,,,,,,,,,,,,,,,,,,,,,,,,,,,,,,,,,,,,,,,,,,,,,,,,,,,,,,,,,,,,,,,,,,,,,,,,,,,,,,
40185,1645651958.050107,100.0,0.0,4385.128418,4649.230957,4218.461426,4282.05127,4302.563965,450.0,3.0,55.0,,,,0.0,4.0,0.0,4.0,0.0,4.0,33.333332,,,,,,,,50.0,0.0,0.44246,0.5117189999999999,0.267822,-0.6860350000000001,0.9663229999999999,-0.09131,-0.33789600000000003,-0.017369,-0.046964,-0.033324,1.0,0.0,0.0,,,,,,,,,,,,,,,,,,,,,,,,,,,,,,,,0.0,0.0,1.0,0.0,512.0,1.0,6.018987,5.568859,2.499547,2.935679,2.203635,9.556161999999999,13.388938000000001,7.321991000000001,13.682402,22.458988,1.527208,4.521704,2.8423950000000002,2.57225,1.7479669999999998,0.009537,0.007428,0.005121,0.012006999999999999,0.009785,3.9688790000000003,5.322736,2.587427,2.493026,1.9530490000000003
40186,1645651958.057923,101.0,0.0,4410.769043,4733.333496,4237.436035,4282.563965,4329.743652,450.0,3.0,55.0,,,,0.0,4.0,0.0,4.0,0.0,4.0,33.333332,,,,,,,,,,,,,,,,,,,,,,,,,,,,,,,,,,,,,,,,,,,,,,,,,,,,,,,,,,,,,,,,,,,,,,,,,,,,,,,,,,,,
40187,1645651958.0657382,102.0,0.0,4437.94873,4680.512695,4262.563965,4282.563965,4354.871582,450.0,3.0,55.0,,,,0.0,4.0,0.0,4.0,0.0,4.0,33.333332,,,,,,,,51.0,0.0,0.442312,0.5117189999999999,0.26806599999999997,-0.6860350000000001,0.960952,-0.09131,-0.33984899999999996,-0.018122,-0.046955000000000004,-0.035802,,,,,,,,,,,,,,,,,,,,,,,,,,,,,,,,,,,,,,,,,,,,,,,,,,,,,,,,,,,,,,,,,
40188,1645651958.0735528,103.0,0.0,4441.538574,4662.05127,4248.205078,4280.512695,4347.692383,16204.0,3.0,55.0,,,,0.0,4.0,0.0,4.0,0.0,4.0,33.333332,,,,,,,,,,,,,,,,,,,,,,,,,,,,,,,,,,,,,,,,,,,,,,,,,,,,,,,,,,,,,,,,,,,,,,,,,,,,,,,,,,,,
40189,1645651958.081369,104.0,0.0,4428.717772999999,4678.974121,4230.256348,4278.974121,4335.897461,450.0,3.0,55.0,,,,0.0,4.0,0.0,4.0,0.0,4.0,33.333332,,,,,,,,52.0,0.0,0.441933,0.5117189999999999,0.26806599999999997,-0.686279,0.9506979999999999,-0.08691499999999999,-0.334966,-0.016359000000000002,-0.046995999999999996,-0.037984,,,,,,,,,,,,,,,,,,,,,,,,,,,,,,,,,,,10.0,0.0,1.0,0.0,512.0,1.0,,,,,,,,,,,,,,,,,,,,,,,,,
40190,1645651958.089184,105.0,0.0,4426.666504,4575.384765999999,4248.205078,4281.025879,4344.102539,450.0,3.0,55.0,,,,0.0,4.0,0.0,4.0,0.0,4.0,33.333332,,,,,,,,,,,,,,,,,,,,,,,,,,,,,,,,,,,,,,,,,,,,,,,,,,,,,,,,,,,,,,,,,,,,,,,,,,,,,,,,,,,,
40191,1645651958.096999,106.0,0.0,4409.743652,4567.179688,4226.153809,4282.563965,4331.794922,450.0,3.0,55.0,,,,0.0,4.0,0.0,4.0,0.0,4.0,33.333332,,,,,,,,53.0,0.0,0.44168900000000005,0.511475,0.268311,-0.686523,0.940932,-0.076173,-0.33789600000000003,-0.017164,-0.046984,-0.040045,,,,,,,,,,,,,,,,,,,,,,,,,,,,,,,,,,,,,,,,,,,,,,,,,,,,,,,,,,,,,,,,,
40192,1645651958.104815,107.0,0.0,4390.256348,4694.358886999999,4202.05127,4281.025879,4312.307617,16204.0,3.0,55.0,,,,0.0,4.0,0.0,4.0,0.0,4.0,33.333332,,,,,,,,,,,,,,,,,,,,,,,,,,,,,,,,,,,,,,,,,,,,,,,,,,,,,,,,,,,,,,,,,,,,,,,,,,,,,,,,,,,,
40193,1645651958.1126301,108.0,0.0,4400.512695,4709.230957,4215.384765999999,4281.025879,4320.0,450.0,3.0,55.0,,,,0.0,4.0,0.0,4.0,0.0,4.0,33.333332,,,,,,,,54.0,0.0,0.44144300000000003,0.5112300000000001,0.26855500000000004,-0.686768,0.938491,-0.059571000000000006,-0.332036,-0.017841,-0.046875,-0.035552,,,,,,,,,,,,,,,,,,,,,,,,,,,,,,,,,,,10.0,0.0,1.0,0.0,512.0,1.0,,,,,,,,,,,,,,,,,,,,,,,,,
40194,1645651958.120545,109.0,0.0,4401.025879,4645.128418,4220.512695,4282.05127,4322.563965,450.0,3.0,55.0,,,,0.0,4.0,0.0,4.0,0.0,4.0,33.333332,,,,,,,,,,,,,,,,,,,,,,,,,,,,,,,,,,,,,,,,,,,,,,,,,,,,,,,,,,,,,,,,,,,,,,,,,,,,,,,,,,,,
40195,1645651958.128361,110.0,0.0,4389.743652,4671.282227000001,4205.641113000001,4281.025879,4314.358886999999,450.0,3.0,55.0,,,,0.0,4.0,0.0,4.0,0.0,4.0,33.333332,,,,,,,,55.0,0.0,0.441933,0.5117189999999999,0.26806599999999997,-0.686279,0.9506979999999999,-0.08691499999999999,-0.334966,-0.016153999999999998,-0.046924,-0.031508,,,,,,,,,,,,,,,,,,,,,,,,,,,,,,,,,,,,,,,,,,,,,,,,,,,,,,,,,,,,,,,,,
40196,1645651958.1361759,111.0,0.0,4398.461426,4692.820313,4212.307617,4281.025879,4312.307617,16204.0,3.0,55.0,,,,0.0,4.0,0.0,4.0,0.0,4.0,33.333332,,,,,,,,,,,,,,,,,,,,,,,,,,,,,,,,,,,,,,,,,,,,,,,,,,,,,,,,,,,,,,,,,,,,,,,,,,,,,,,,,,,,
40197,1645651958.143992,112.0,0.0,4399.487305,4641.025879,4214.358886999999,4282.05127,4304.615234000001,450.0,3.0,55.0,,,,0.0,4.0,0.0,4.0,0.0,4.0,33.333332,,,,,,,,56.0,0.0,0.44144300000000003,0.5112300000000001,0.26855500000000004,-0.686768,0.938491,-0.059571000000000006,-0.332036,-0.016931,-0.046822,-0.027869,,,,,,,,,,,,,,,,,,,,,,,,,,,,,,,,,,,0.0,0.0,1.0,0.0,512.0,1.0,,,,,,,,,,,,,,,,,,,,,,,,,
40198,1645651958.151807,113.0,0.0,4387.692383,4627.179688,4207.179688,4282.05127,4305.641113000001,450.0,3.0,55.0,,,,0.0,4.0,0.0,4.0,0.0,4.0,33.333332,,,,,,,,,,,,,,,,,,,,,,,,,,,,,,,,,,,,,,,,,,,,,,,,,,,,,,,,,,,,,,,,,,,,,,,,,,,,,,,,,,,,
40199,1645651958.159622,114.0,0.0,4407.692383,4661.025879,4221.025879,4281.025879,4338.461426,450.0,3.0,55.0,,,,0.0,4.0,0.0,4.0,0.0,4.0,33.333332,,,,,,,,57.0,0.0,0.44171099999999996,0.510742,0.269043,-0.686768,0.945327,-0.052247,-0.32910700000000004,-0.015287,-0.046778,-0.030942,,,,,,,,,,,,,,,,,,,,,,,,,,,,,,,,,,,,,,,,,,,,,,,,,,,,,,,,,,,,,,,,,
40200,1645651958.167438,115.0,0.0,4427.692383,4647.692383,4239.487305,4282.05127,4355.897461,16204.0,3.0,55.0,,,,0.0,4.0,0.0,4.0,0.0,4.0,33.333332,,,,,,,,,,,,,,,,,,,,,,,,,,,,,,,,,,,,,,,,,,,,,,,,,,,,,,,,,,,,,,,,,,,,,,,,,,,,,,,,,,,,
40201,1645651958.175253,116.0,0.0,4404.102539,4636.410156,4215.897461,4281.538574,4322.05127,450.0,3.0,55.0,,,,0.0,4.0,0.0,4.0,0.0,4.0,33.333332,1.0,33.333332,4.0,0.0,4.0,0.0,4.0,58.0,0.0,0.441316,0.510498,0.269531,-0.687012,0.949233,-0.057617999999999996,-0.332036,-0.016102,-0.046837000000000004,-0.027408,1.0,0.0,0.0,,,,,,,,,,,,,,,,,,,,,,,,,,,,,,,,0.0,0.0,1.0,0.0,512.0,1.0,5.581876,5.689624,3.05022,2.944113,2.2176720000000003,8.997147,13.145217,7.512662,15.280952,20.270048000000003,1.366851,4.049761,3.4689589999999995,2.389314,2.034407,0.009123000000000001,0.008865999999999999,0.005952000000000001,0.012903999999999999,0.009967,4.064507,5.551784,3.070179,2.171602,2.047032
40202,1645651958.183068,117.0,0.0,4385.128418,4686.666504,4205.128418,4280.0,4306.666504,450.0,3.0,55.0,,,,0.0,4.0,0.0,4.0,0.0,4.0,33.333332,,,,,,,,,,,,,,,,,,,,,,,,,,,,,,,,,,,,,,,,,,,,,,,,,,,,,,,,,,,,,,,,,,,,,,,,,,,,,,,,,,,,
40203,1645651958.1908839,118.0,0.0,4402.05127,4639.487305,4229.743652,4280.512695,4336.410156,450.0,3.0,55.0,,,,0.0,4.0,0.0,4.0,0.0,4.0,33.333332,,,,,,,,59.0,0.0,0.441679,0.510254,0.27002,-0.686768,0.963882,-0.067384,-0.344244,-0.016982,-0.04689,-0.030624000000000002,,,,,,,,,,,,,,,,,,,,,,,,,,,,,,,,,,,,,,,,,,,,,,,,,,,,,,,,,,,,,,,,,
40204,1645651958.1987991,119.0,0.0,4408.717772999999,4547.692383,4240.512695,4281.538574,4343.077147999999,16204.0,3.0,55.0,,,,0.0,4.0,0.0,4.0,0.0,4.0,33.333332,,,,,,,,,,,,,,,,,,,,,,,,,,,,,,,,,,,,,,,,,,,,,,,,,,,,,,,,,,,,,,,,,,,,,,,,,,,,,,,,,,,,
40205,1645651958.206614,120.0,0.0,4407.692383,4590.256348,4233.333496,4281.538574,4340.0,450.0,3.0,55.0,,,,0.0,4.0,0.0,4.0,0.0,4.0,33.333332,,,,,,,,60.0,0.0,0.442042,0.5100100000000001,0.27050799999999997,-0.686523,0.969253,-0.06884900000000001,-0.331548,-0.017823,-0.046839,-0.027170999999999997,,,,,,,,,,,,,,,,,,,,,,,,,,,,,,,,,,,0.0,0.0,1.0,0.0,512.0,1.0,,,,,,,,,,,,,,,,,,,,,,,,,
40206,1645651958.21443,121.0,0.0,4409.743652,4659.487305,4236.410156,4281.538574,4339.487305,450.0,3.0,55.0,,,,0.0,4.0,0.0,4.0,0.0,4.0,33.333332,,,,,,,,,,,,,,,,,,,,,,,,,,,,,,,,,,,,,,,,,,,,,,,,,,,,,,,,,,,,,,,,,,,,,,,,,,,,,,,,,,,,
40207,1645651958.222245,122.0,0.0,4394.871582,4648.717772999999,4220.0,4281.538574,4312.307617,450.0,3.0,55.0,,,,0.0,4.0,0.0,4.0,0.0,4.0,33.333332,,,,,,,,61.0,0.0,0.442272,0.5100100000000001,0.270752,-0.686279,0.960952,-0.062501,-0.351568,-0.01609,-0.046892,-0.024015,,,,,,,,,,,,,,,,,,,,,,,,,,,,,,,,,,,,,,,,,,,,,,,,,,,,,,,,,,,,,,,,,
40208,1645651958.230161,123.0,0.0,4366.153809,4632.820313,4193.333496,4281.025879,4276.922852000001,16204.0,3.0,55.0,,,,0.0,4.0,0.0,4.0,0.0,4.0,33.333332,,,,,,,,,,,,,,,,,,,,,,,,,,,,,,,,,,,,,,,,,,,,,,,,,,,,,,,,,,,,,,,,,,,,,,,,,,,,,,,,,,,,
40209,1645651958.237976,124.0,0.0,4377.436035,4638.461426,4210.769043,4280.0,4287.692383,450.0,3.0,55.0,,,,0.0,4.0,0.0,4.0,0.0,4.0,33.333332,,,,,,,,62.0,0.0,0.442122,0.5100100000000001,0.270996,-0.686279,0.9511860000000001,-0.06347799999999999,-0.33789600000000003,-0.014627000000000001,-0.04689,-0.027326,,,,,,,,,,,,,,,,,,,,,,,,,,,,,,,,,,,0.0,0.0,1.0,0.0,512.0,1.0,,,,,,,,,,,,,,,,,,,,,,,,,
40210,1645651958.245792,125.0,0.0,4387.179688,4623.077147999999,4221.025879,4281.025879,4300.512695,450.0,3.0,55.0,,,,0.0,4.0,0.0,4.0,0.0,4.0,33.333332,,,,,,,,,,,,,,,,,,,,,,,,,,,,,,,,,,,,,,,,,,,,,,,,,,,,,,,,,,,,,,,,,,,,,,,,,,,,,,,,,,,,
40211,1645651958.253607,126.0,0.0,4369.743652,4626.666504,4216.922852000001,4282.05127,4302.05127,450.0,3.0,55.0,,,,0.0,4.0,0.0,4.0,0.0,4.0,33.333332,,,,,,,,63.0,0.0,0.44250100000000003,0.5100100000000001,0.270996,-0.6860350000000001,0.9555809999999999,-0.076661,-0.34375500000000003,-0.015655000000000002,-0.046791,-0.030501999999999998,,,,,,,,,,,,,,,,,,,,,,,,,,,,,,,,,,,,,,,,,,,,,,,,,,,,,,,,,,,,,,,,,
40212,1645651958.261423,127.0,0.0,4375.384765999999,4657.94873,4235.897461,4282.05127,4325.128418,234.0,3.0,55.0,,,,0.0,4.0,0.0,4.0,0.0,4.0,33.333332,,,,,,,,,,,,,,,,,,,,,,,,,,,,,,,,,,,,,,,,,,,,,,,,,,,,,,,,,,,,,,,,,,,,,,,,,,,,,,,,,,,,
40213,1645651958.269239,0.0,0.0,4389.743652,4664.102539,4256.410156,4281.025879,4337.436035,450.0,3.0,55.0,,,,0.0,4.0,0.0,4.0,0.0,4.0,33.333332,,,,,,,,0.0,0.0,0.44250100000000003,0.5100100000000001,0.270996,-0.6860350000000001,0.95314,-0.08838,-0.338872,-0.016384,-0.046702,-0.027061,,,,,,,,,,,,,,,,,,,,,,,,,,,,,,,,,,,0.0,0.0,1.0,0.0,512.0,1.0,,,,,,,,,,,,,,,,,,,,,,,,,
40214,1645651958.2770538,1.0,0.0,4368.717772999999,4648.205078,4230.256348,4280.512695,4312.307617,450.0,3.0,55.0,,,,0.0,4.0,0.0,4.0,0.0,4.0,33.333332,,,,,,,,,,,,,,,,,,,,,,,,,,,,,,,,,,,,,,,,,,,,,,,,,,,,,,,,,,,,,,,,,,,,,,,,,,,,,,,,,,,,
40215,1645651958.28487,2.0,0.0,4356.410156,4631.282227000001,4219.487305,4280.0,4306.666504,16190.0,3.0,55.0,,,,0.0,4.0,0.0,4.0,0.0,4.0,33.333332,,,,,,,,1.0,0.0,0.442747,0.510254,0.270752,-0.685791,0.9663229999999999,-0.07422000000000001,-0.33984899999999996,-0.017187,-0.046669999999999996,-0.030068,,,,,,,,,,,,,,,,,,,,,,,,,,,,,,,,,,,,,,,,,,,,,,,,,,,,,,,,,,,,,,,,,
40216,1645651958.292685,3.0,0.0,4379.487305,4626.153809,4235.384765999999,4280.0,4320.0,450.0,3.0,55.0,,,,0.0,4.0,0.0,4.0,0.0,4.0,33.333332,,,,,,,,,,,,,,,,,,,,,,,,,,,,,,,,,,,,,,,,,,,,,,,,,,,,,,,,,,,,,,,,,,,,,,,,,,,,,,,,,,,,
40217,1645651958.3005009,4.0,0.0,4394.871582,4660.512695,4241.538574,4280.512695,4322.563965,0.0,3.0,55.0,,,,0.0,4.0,0.0,4.0,0.0,4.0,33.333332,,,,,,,,2.0,0.0,0.442993,0.510498,0.27050799999999997,-0.685547,0.960952,-0.07422000000000001,-0.340337,-0.015566,-0.04674,-0.032921,1.0,0.0,0.0,,,,,,,,,,,,,,,,,,,,,,,,,,,,,,,,0.0,0.0,1.0,0.0,512.0,1.0,5.439171,6.121226999999999,4.23643,2.823673,2.222106,8.580914,13.04942,8.822619,18.013103,18.378128,1.348574,3.6720349999999997,4.314573,2.192213,2.43609,0.008216,0.010689,0.006971,0.012816999999999999,0.009946,4.256839,5.921762,4.211596,1.8016020000000001,2.250255
40218,1645651958.3084161,5.0,0.0,4374.358886999999,4677.436035,4200.512695,4281.025879,4300.0,450.0,3.0,55.0,,,,0.0,4.0,0.0,4.0,0.0,4.0,33.333332,,,,,,,,,,,,,,,,,,,,,,,,,,,,,,,,,,,,,,,,,,,,,,,,,,,,,,,,,,,,,,,,,,,,,,,,,,,,,,,,,,,,
40219,1645651958.316232,6.0,0.0,4375.384765999999,4593.333496,4218.461426,4281.025879,4298.974121,16194.0,3.0,55.0,,,,0.0,4.0,0.0,4.0,0.0,4.0,33.333332,,,,,,,,3.0,0.0,0.44286099999999995,0.510742,0.270264,-0.685547,0.951675,-0.106447,-0.33789600000000003,-0.014741999999999998,-0.046801999999999996,-0.035439,,,,,,,,,,,,,,,,,,,,,,,,,,,,,,,,,,,,,,,,,,,,,,,,,,,,,,,,,,,,,,,,,
40220,1645651958.324147,7.0,0.0,4386.153809,4574.358886999999,4252.820313,4280.512695,4317.436035,450.0,3.0,55.0,,,,0.0,4.0,0.0,4.0,0.0,4.0,33.333332,,,,,,,,,,,,,,,,,,,,,,,,,,,,,,,,,,,,,,,,,,,,,,,,,,,,,,,,,,,,,,,,,,,,,,,,,,,,,,,,,,,,
