,Timestamp,EEG.Counter,EEG.Interpolated,EEG.AF3,EEG.T7,EEG.Pz,EEG.T8,EEG.AF4,EEG.RawCq,EEG.Battery,EEG.BatteryPercent,MarkerIndex,MarkerType,MarkerValueInt,EEG.MarkerHardware,CQ.AF3,CQ.T7,CQ.Pz,CQ.T8,CQ.AF4,CQ.Overall,EQ.SampleRateQuality,EQ.OVERALL,EQ.AF3,EQ.T7,EQ.Pz,EQ.T8,EQ.AF4,MOT.CounterMems,MOT.InterpolatedMems,MOT.Q0,MOT.Q1,MOT.Q2,MOT.Q3,MOT.AccX,MOT.AccY,MOT.AccZ,MOT.MagX,MOT.MagY,MOT.MagZ,MC.Action,MC.ActionPower,MC.IsActive,PM.Engagement.IsActive,PM.Engagement.Scaled,PM.Engagement.Raw,PM.Engagement.Min,PM.Engagement.Max,PM.Excitement.IsActive,PM.Excitement.Scaled,PM.Excitement.Raw,PM.Excitement.Min,PM.Excitement.Max,PM.LongTermExcitement,PM.Stress.IsActive,PM.Stress.Scaled,PM.Stress.Raw,PM.Stress.Min,PM.Stress.Max,PM.Relaxation.IsActive,PM.Relaxation.Scaled,PM.Relaxation.Raw,PM.Relaxation.Min,PM.Relaxation.Max,PM.Interest.IsActive,PM.Interest.Scaled,PM.Interest.Raw,PM.Interest.Min,PM.Interest.Max,PM.Focus.IsActive,PM.Focus.Scaled,PM.Focus.Raw,PM.Focus.Min,PM.Focus.Max,FE.BlinkWink,FE.HorizontalEyesDirection,FE.UpperFaceAction,FE.UpperFaceActionPower,FE.LowerFaceAction,FE.LowerFaceActionPower,POW.AF3.Theta,POW.AF3.Alpha,POW.AF3.BetaL,POW.AF3.BetaH,POW.AF3.Gamma,POW.T7.Theta,POW.T7.Alpha,POW.T7.BetaL,POW.T7.BetaH,POW.T7.Gamma,POW.Pz.Theta,POW.Pz.Alpha,POW.Pz.BetaL,POW.Pz.BetaH,POW.Pz.Gamma,POW.T8.Theta,POW.T8.Alpha,POW.T8.BetaL,POW.T8.BetaH,POW.T8.Gamma,POW.AF4.Theta,POW.AF4.Alpha,POW.AF4.BetaL,POW.AF4.BetaH,POW.AF4.Gamma
12627,1645651742.6989949,62.0,0.0,4412.307617,4564.102539,4232.307617,4281.538574,4308.717772999999,0.0,3.0,55.0,16.0,1.0,6.0,0.0,4.0,1.0,4.0,0.0,4.0,41.666668,,,,,,,,31.0,0.0,0.453453,0.513672,0.26806599999999997,-0.677246,0.9487450000000001,-0.099123,-0.322759,-0.017731,-0.047751,-0.032471,,,,,,,,,,,,,,,,,,,,,,,,,,,,,,,,,,,,,,,,,,,,,,,,,,,,,,,,,,,,,,,,,
12628,1645651742.706812,63.0,0.0,4397.436035,4573.333496,4227.692383,4280.0,4298.461426,0.0,3.0,55.0,,,,0.0,4.0,1.0,4.0,0.0,4.0,41.666668,,,,,,,,,,,,,,,,,,,,,,,,,,,,,,,,,,,,,,,,,,,,,,,,,,,,,,,,,,,,,,,,,,,,,,,,,,,,,,,,,,,,
12629,1645651742.714629,64.0,0.0,4405.128418,4576.922852000001,4230.769043,4278.461426,4298.974121,450.0,3.0,55.0,,,,0.0,4.0,1.0,4.0,0.0,4.0,41.666668,,,,,,,,32.0,0.0,0.453308,0.513672,0.268311,-0.677246,0.931167,-0.08447400000000001,-0.333989,-0.018351,-0.047810000000000005,-0.035132,,,,,,,,,,,,,,,,,,,,,,,,,,,,,,,,,,,0.0,0.0,1.0,0.0,512.0,1.0,,,,,,,,,,,,,,,,,,,,,,,,,
12630,1645651742.722445,65.0,0.0,4418.461426,4599.487305,4246.153809,4280.0,4309.230957,450.0,3.0,55.0,,,,0.0,4.0,1.0,4.0,0.0,4.0,41.666668,,,,,,,,,,,,,,,,,,,,,,,,,,,,,,,,,,,,,,,,,,,,,,,,,,,,,,,,,,,,,,,,,,,,,,,,,,,,,,,,,,,,
12631,1645651742.7302618,66.0,0.0,4398.461426,4607.179688,4243.589844,4280.0,4292.307617,16239.0,3.0,55.0,,,,0.0,4.0,1.0,4.0,0.0,4.0,41.666668,,,,,,,,33.0,0.0,0.453308,0.513672,0.268311,-0.677246,0.9585110000000001,-0.10498199999999999,-0.334966,-0.016662,-0.047863,-0.031229000000000003,,,,,,,,,,,,,,,,,,,,,,,,,,,,,,,,,,,,,,,,,,,,,,,,,,,,,,,,,,,,,,,,,
12632,1645651742.7380788,67.0,0.0,4383.077147999999,4573.846191,4233.846191,4277.436035,4276.922852000001,450.0,3.0,55.0,,,,0.0,4.0,1.0,4.0,0.0,4.0,41.666668,,,,,,,,,,,,,,,,,,,,,,,,,,,,,,,,,,,,,,,,,,,,,,,,,,,,,,,,,,,,,,,,,,,,,,,,,,,,,,,,,,,,
12633,1645651742.745896,68.0,0.0,4394.358886999999,4617.94873,4235.384765999999,4276.922852000001,4281.538574,135.0,3.0,55.0,,,,0.0,4.0,1.0,4.0,0.0,4.0,41.666668,,,,,,,,34.0,0.0,0.453308,0.513672,0.268311,-0.677246,0.9555809999999999,-0.09033300000000001,-0.330571,-0.01734,-0.047813,-0.027666000000000003,1.0,0.0,0.0,,,,,,,,,,,,,,,,,,,,,,,,,,,,,,,,0.0,0.0,1.0,0.0,512.0,1.0,13.434304999999998,4.00981,1.59391,2.1304279999999998,2.092543,13.926310999999998,17.036909,25.260326,14.57665,10.251373,2.3830869999999997,1.534483,1.9673900000000002,1.2276340000000001,1.477638,0.027547000000000002,0.010256,0.010787,0.011545,0.012216,10.865074,2.019227,1.286403,2.21406,1.9387919999999998
12634,1645651742.753813,69.0,0.0,4409.230957,4727.692383,4224.615234000001,4280.0,4287.692383,450.0,3.0,55.0,,,,0.0,4.0,1.0,4.0,0.0,4.0,41.666668,,,,,,,,,,,,,,,,,,,,,,,,,,,,,,,,,,,,,,,,,,,,,,,,,,,,,,,,,,,,,,,,,,,,,,,,,,,,,,,,,,,,
12635,1645651742.76163,70.0,0.0,4400.0,4750.769043,4206.153809,4279.487305,4275.897461,16160.0,3.0,55.0,,,,0.0,4.0,1.0,4.0,0.0,4.0,41.666668,,,,,,,,35.0,0.0,0.45367299999999994,0.513672,0.268311,-0.677002,0.956558,-0.09472799999999999,-0.324712,-0.018047,-0.047817,-0.030758999999999998,,,,,,,,,,,,,,,,,,,,,,,,,,,,,,,,,,,,,,,,,,,,,,,,,,,,,,,,,,,,,,,,,
12636,1645651742.769447,71.0,0.0,4411.794922,4672.820313,4228.717772999999,4278.461426,4289.230957,450.0,3.0,55.0,,,,0.0,4.0,1.0,4.0,0.0,4.0,41.666668,,,,,,,,,,,,,,,,,,,,,,,,,,,,,,,,,,,,,,,,,,,,,,,,,,,,,,,,,,,,,,,,,,,,,,,,,,,,,,,,,,,,
12637,1645651742.777265,72.0,0.0,4435.384765999999,4624.102539,4254.871582,4281.025879,4315.384765999999,450.0,3.0,55.0,,,,0.0,4.0,1.0,4.0,0.0,4.0,41.666668,,,,,,,,36.0,0.0,0.453396,0.513916,0.268311,-0.677002,0.9633940000000001,-0.104005,-0.333013,-0.018635,-0.047723,-0.027293,,,,,,,,,,,,,,,,,,,,,,,,,,,,,,,,,,,0.0,0.0,1.0,0.0,512.0,1.0,,,,,,,,,,,,,,,,,,,,,,,,,
12638,1645651742.785082,73.0,0.0,4431.794922,4640.512695,4256.922852000001,4281.025879,4315.897461,0.0,3.0,55.0,,,,0.0,4.0,1.0,4.0,0.0,4.0,41.666668,,,,,,,,,,,,,,,,,,,,,,,,,,,,,,,,,,,,,,,,,,,,,,,,,,,,,,,,,,,,,,,,,,,,,,,,,,,,,,,,,,,,
12639,1645651742.7928991,74.0,0.0,4413.333496,4630.256348,4238.974121,4280.0,4301.025879,450.0,3.0,55.0,,,,0.0,4.0,1.0,4.0,0.0,4.0,41.666668,,,,,,,,37.0,0.0,0.453176,0.513916,0.26806599999999997,-0.677246,0.945327,-0.11035299999999999,-0.34521999999999997,-0.016869,-0.047736,-0.030275999999999997,,,,,,,,,,,,,,,,,,,,,,,,,,,,,,,,,,,,,,,,,,,,,,,,,,,,,,,,,,,,,,,,,
12640,1645651742.800716,75.0,0.0,4411.282227000001,4623.589844,4232.820313,4280.512695,4305.641113000001,16216.0,3.0,55.0,,,,0.0,4.0,1.0,4.0,0.0,4.0,41.666668,,,,,,,,,,,,,,,,,,,,,,,,,,,,,,,,,,,,,,,,,,,,,,,,,,,,,,,,,,,,,,,,,,,,,,,,,,,,,,,,,,,,
12641,1645651742.808534,76.0,0.0,4415.384765999999,4646.153809,4230.769043,4279.487305,4311.282227000001,450.0,3.0,55.0,,,,0.0,4.0,1.0,4.0,0.0,4.0,41.666668,,,,,,,,38.0,0.0,0.453176,0.513916,0.26806599999999997,-0.677246,0.952651,-0.10254100000000001,-0.333013,-0.017624,-0.047748,-0.033108,,,,,,,,,,,,,,,,,,,,,,,,,,,,,,,,,,,0.0,0.0,1.0,0.0,512.0,1.0,,,,,,,,,,,,,,,,,,,,,,,,,
12642,1645651742.816351,77.0,0.0,4411.282227000001,4651.282227000001,4241.538574,4277.94873,4308.205078,450.0,3.0,55.0,,,,0.0,4.0,1.0,4.0,0.0,4.0,41.666668,,,,,,,,,,,,,,,,,,,,,,,,,,,,,,,,,,,,,,,,,,,,,,,,,,,,,,,,,,,,,,,,,,,,,,,,,,,,,,,,,,,,
12643,1645651742.824168,78.0,0.0,4409.230957,4624.615234000001,4235.384765999999,4280.0,4302.563965,450.0,3.0,55.0,,,,0.0,4.0,1.0,4.0,0.0,4.0,41.666668,,,,,,,,39.0,0.0,0.453396,0.513916,0.268311,-0.677002,0.9589989999999999,-0.095705,-0.32813000000000003,-0.016008,-0.047612,-0.029407,,,,,,,,,,,,,,,,,,,,,,,,,,,,,,,,,,,,,,,,,,,,,,,,,,,,,,,,,,,,,,,,,
12644,1645651742.832085,79.0,0.0,4414.358886999999,4586.666504,4233.846191,4280.0,4305.641113000001,16216.0,3.0,55.0,,,,0.0,4.0,1.0,4.0,0.0,4.0,41.666668,,,,,,,,,,,,,,,,,,,,,,,,,,,,,,,,,,,,,,,,,,,,,,,,,,,,,,,,,,,,,,,,,,,,,,,,,,,,,,,,,,,,
12645,1645651742.8399029,80.0,0.0,4404.102539,4580.512695,4230.256348,4279.487305,4304.615234000001,450.0,3.0,55.0,,,,0.0,4.0,1.0,4.0,0.0,4.0,41.666668,,,,,,,,40.0,0.0,0.453396,0.513916,0.268311,-0.677002,0.965835,-0.099123,-0.34229,-0.016897,-0.047636000000000005,-0.025977999999999998,,,,,,,,,,,,,,,,,,,,,,,,,,,,,,,,,,,0.0,0.0,1.0,0.0,512.0,1.0,,,,,,,,,,,,,,,,,,,,,,,,,
12646,1645651742.84772,81.0,0.0,4385.128418,4622.05127,4214.871582,4280.0,4286.153809,450.0,3.0,55.0,,,,0.0,4.0,1.0,4.0,0.0,4.0,41.666668,,,,,,,,,,,,,,,,,,,,,,,,,,,,,,,,,,,,,,,,,,,,,,,,,,,,,,,,,,,,,,,,,,,,,,,,,,,,,,,,,,,,
12647,1645651742.855537,82.0,0.0,4392.820313,4628.205078,4210.256348,4280.0,4286.153809,450.0,3.0,55.0,,,,0.0,4.0,1.0,4.0,0.0,4.0,41.666668,,,,,,,,41.0,0.0,0.45325200000000004,0.513916,0.26855500000000004,-0.677002,0.9560690000000001,-0.10547000000000001,-0.333013,-0.017649,-0.047609,-0.029191,,,,,,,,,,,,,,,,,,,,,,,,,,,,,,,,,,,,,,,,,,,,,,,,,,,,,,,,,,,,,,,,,
12648,1645651742.863354,83.0,0.0,4416.410156,4569.743652,4248.717772999999,4279.487305,4311.282227000001,16216.0,3.0,55.0,,,,0.0,4.0,1.0,4.0,0.0,4.0,41.666668,,,,,,,,,,,,,,,,,,,,,,,,,,,,,,,,,,,,,,,,,,,,,,,,,,,,,,,,,,,,,,,,,,,,,,,,,,,,,,,,,,,,
12649,1645651742.871172,84.0,0.0,4426.666504,4571.794922,4261.025879,4280.512695,4328.717772999999,450.0,3.0,55.0,,,,0.0,4.0,1.0,4.0,0.0,4.0,41.666668,,,,,,,,42.0,0.0,0.45325200000000004,0.513916,0.26855500000000004,-0.677002,0.963882,-0.104494,-0.341802,-0.018374,-0.047682,-0.025881,1.0,0.0,0.0,,,,,,,,,,,,,,,,,,,,,,,,,,,,,,,,0.0,0.0,1.0,0.0,512.0,1.0,7.387154,2.537042,1.636439,2.058775,1.8843919999999998,16.996046,18.594032000000002,26.679792,13.559407,10.668877,1.998141,1.417907,2.050655,1.0935190000000001,1.437658,0.019008,0.00936,0.011595999999999999,0.007519,0.008886,6.663399000000001,1.881227,1.384887,2.345528,1.7944
12650,1645651742.878989,85.0,0.0,4419.487305,4648.205078,4242.563965,4280.512695,4315.897461,450.0,3.0,55.0,,,,0.0,4.0,1.0,4.0,0.0,4.0,41.666668,,,,,,,,,,,,,,,,,,,,,,,,,,,,,,,,,,,,,,,,,,,,,,,,,,,,,,,,,,,,,,,,,,,,,,,,,,,,,,,,,,,,
12651,1645651742.886806,86.0,0.0,4416.922852000001,4623.077147999999,4240.512695,4279.487305,4305.128418,450.0,3.0,55.0,,,,0.0,4.0,1.0,4.0,0.0,4.0,41.666668,,,,,,,,43.0,0.0,0.45325200000000004,0.513916,0.26855500000000004,-0.677002,0.9423969999999999,-0.100587,-0.326177,-0.018930000000000002,-0.04765,-0.029151999999999997,,,,,,,,,,,,,,,,,,,,,,,,,,,,,,,,,,,,,,,,,,,,,,,,,,,,,,,,,,,,,,,,,
12652,1645651742.894624,87.0,0.0,4406.153809,4572.820313,4243.589844,4278.461426,4302.05127,16216.0,3.0,55.0,,,,0.0,4.0,1.0,4.0,0.0,4.0,41.666668,,,,,,,,,,,,,,,,,,,,,,,,,,,,,,,,,,,,,,,,,,,,,,,,,,,,,,,,,,,,,,,,,,,,,,,,,,,,,,,,,,,,
12653,1645651742.90254,88.0,0.0,4402.05127,4620.0,4230.769043,4280.0,4297.436035,450.0,3.0,55.0,,,,0.0,4.0,1.0,4.0,0.0,4.0,41.666668,,,,,,,,44.0,0.0,0.45325200000000004,0.513916,0.26855500000000004,-0.677002,0.954116,-0.12109600000000001,-0.340337,-0.019576,-0.047719,-0.032096,,,,,,,,,,,,,,,,,,,,,,,,,,,,,,,,,,,0.0,0.0,1.0,0.0,512.0,1.0,,,,,,,,,,,,,,,,,,,,,,,,,
12654,1645651742.910358,89.0,0.0,4407.179688,4634.871582,4222.563965,4280.512695,4294.358886999999,450.0,3.0,55.0,,,,0.0,4.0,1.0,4.0,0.0,4.0,41.666668,,,,,,,,,,,,,,,,,,,,,,,,,,,,,,,,,,,,,,,,,,,,,,,,,,,,,,,,,,,,,,,,,,,,,,,,,,,,,,,,,,,,
12655,1645651742.918175,90.0,0.0,4416.922852000001,4609.743652,4234.871582,4280.0,4310.256348,450.0,3.0,55.0,,,,0.0,4.0,1.0,4.0,0.0,4.0,41.666668,,,,,,,,45.0,0.0,0.45325200000000004,0.513916,0.26855500000000004,-0.677002,0.95021,-0.09131,-0.319341,-0.017667,-0.047684,-0.034697000000000006,,,,,,,,,,,,,,,,,,,,,,,,,,,,,,,,,,,,,,,,,,,,,,,,,,,,,,,,,,,,,,,,,
12656,1645651742.925992,91.0,0.0,4405.641113000001,4676.410156,4213.333496,4279.487305,4304.615234000001,16216.0,3.0,55.0,,,,0.0,4.0,1.0,4.0,0.0,4.0,41.666668,,,,,,,,,,,,,,,,,,,,,,,,,,,,,,,,,,,,,,,,,,,,,,,,,,,,,,,,,,,,,,,,,,,,,,,,,,,,,,,,,,,,
12657,1645651742.933809,92.0,0.0,4390.769043,4693.333496,4195.897461,4279.487305,4286.153809,450.0,3.0,55.0,,,,0.0,4.0,1.0,4.0,0.0,4.0,41.666668,,,,,,,,46.0,0.0,0.45325200000000004,0.513916,0.26855500000000004,-0.677002,0.948257,-0.109865,-0.32910700000000004,-0.018391,-0.047652,-0.030739,,,,,,,,,,,,,,,,,,,,,,,,,,,,,,,,,,,0.0,0.0,1.0,0.0,512.0,1.0,,,,,,,,,,,,,,,,,,,,,,,,,
12658,1645651742.941626,93.0,0.0,4408.717772999999,4625.641113000001,4217.94873,4279.487305,4305.128418,450.0,3.0,55.0,,,,0.0,4.0,1.0,4.0,0.0,4.0,41.666668,,,,,,,,,,,,,,,,,,,,,,,,,,,,,,,,,,,,,,,,,,,,,,,,,,,,,,,,,,,,,,,,,,,,,,,,,,,,,,,,,,,,
12659,1645651742.9494429,94.0,0.0,4440.512695,4683.077147999999,4241.025879,4281.538574,4331.794922,450.0,3.0,55.0,,,,0.0,4.0,1.0,4.0,0.0,4.0,41.666668,,,,,,,,47.0,0.0,0.45325200000000004,0.513916,0.26855500000000004,-0.677002,0.957046,-0.095705,-0.32861799999999997,-0.017333,-0.047672000000000006,-0.033525,,,,,,,,,,,,,,,,,,,,,,,,,,,,,,,,,,,,,,,,,,,,,,,,,,,,,,,,,,,,,,,,,
12660,1645651742.95726,95.0,0.0,4438.974121,4746.666504,4217.436035,4281.538574,4310.769043,16216.0,3.0,55.0,,,,0.0,4.0,1.0,4.0,0.0,4.0,41.666668,,,,,,,,,,,,,,,,,,,,,,,,,,,,,,,,,,,,,,,,,,,,,,,,,,,,,,,,,,,,,,,,,,,,,,,,,,,,,,,,,,,,
12661,1645651742.965077,96.0,0.0,4422.563965,4680.0,4212.307617,4279.487305,4296.922852000001,450.0,3.0,55.0,,,,0.0,4.0,1.0,4.0,0.0,4.0,41.666668,,,,,,,,48.0,0.0,0.45325200000000004,0.513916,0.26855500000000004,-0.677002,0.956558,-0.092287,-0.323247,-0.017943,-0.047689999999999996,-0.035934,,,,,,,,,,,,,,,,,,,,,,,,,,,,,,,,,,,0.0,0.0,1.0,0.0,512.0,1.0,,,,,,,,,,,,,,,,,,,,,,,,,
12662,1645651742.9729939,97.0,0.0,4421.025879,4655.384765999999,4226.153809,4279.487305,4313.846191,450.0,3.0,55.0,,,,0.0,4.0,1.0,4.0,0.0,4.0,41.666668,,,,,,,,,,,,,,,,,,,,,,,,,,,,,,,,,,,,,,,,,,,,,,,,,,,,,,,,,,,,,,,,,,,,,,,,,,,,,,,,,,,,
12663,1645651742.9808109,98.0,0.0,4432.307617,4694.871582,4233.846191,4281.538574,4308.205078,450.0,3.0,55.0,,,,0.0,4.0,1.0,4.0,0.0,4.0,41.666668,,,,,,,,49.0,0.0,0.45325200000000004,0.513916,0.26855500000000004,-0.677002,0.949722,-0.10888800000000001,-0.330571,-0.018639,-0.047804,-0.031804,,,,,,,,,,,,,,,,,,,,,,,,,,,,,,,,,,,,,,,,,,,,,,,,,,,,,,,,,,,,,,,,,
12664,1645651742.988628,99.0,0.0,4427.179688,4696.922852000001,4212.820313,4281.025879,4290.256348,16216.0,3.0,55.0,,,,0.0,4.0,1.0,4.0,0.0,4.0,41.666668,,,,,,,,,,,,,,,,,,,,,,,,,,,,,,,,,,,,,,,,,,,,,,,,,,,,,,,,,,,,,,,,,,,,,,,,,,,,,,,,,,,,
12665,1645651742.9964461,100.0,0.0,4387.692383,4683.589844,4194.358886999999,4280.0,4272.820313,450.0,3.0,55.0,,,,0.0,4.0,1.0,4.0,0.0,4.0,41.666668,,,,,,,,50.0,0.0,0.45361599999999996,0.513916,0.26855500000000004,-0.676758,0.9633940000000001,-0.10547000000000001,-0.33105999999999997,-0.01907,-0.047760000000000004,-0.034385,1.0,0.0,0.0,,,,,,,,,,,,,,,,,,,,,,,,,,,,,,,,0.0,0.0,1.0,0.0,128.0,0.698832,3.666083,1.696245,1.6435830000000002,1.990677,1.6615240000000002,19.525221,19.37067,25.991926,13.437654,11.332622,1.790202,1.335495,2.145886,0.968572,1.436404,0.013396000000000002,0.01012,0.012128,0.005372,0.007344,4.068535,2.1681779999999997,1.514041,2.42734,1.640673
12666,1645651743.0042632,101.0,0.0,4376.410156,4608.205078,4202.05127,4280.512695,4272.820313,450.0,3.0,55.0,,,,0.0,4.0,1.0,4.0,0.0,4.0,41.666668,,,,,,,,,,,,,,,,,,,,,,,,,,,,,,,,,,,,,,,,,,,,,,,,,,,,,,,,,,,,,,,,,,,,,,,,,,,,,,,,,,,,
12667,1645651743.0120802,102.0,0.0,4398.461426,4530.256348,4223.077147999999,4280.512695,4282.563965,450.0,3.0,55.0,,,,0.0,4.0,1.0,4.0,0.0,4.0,41.666668,,,,,,,,51.0,0.0,0.45376099999999997,0.513916,0.268311,-0.676758,0.9433739999999999,-0.11425999999999999,-0.338872,-0.019605,-0.047769,-0.030556,,,,,,,,,,,,,,,,,,,,,,,,,,,,,,,,,,,,,,,,,,,,,,,,,,,,,,,,,,,,,,,,,
12668,1645651743.019898,103.0,0.0,4402.563965,4593.333496,4225.128418,4280.512695,4280.512695,16216.0,3.0,55.0,,,,0.0,4.0,1.0,4.0,0.0,4.0,41.666668,,,,,,,,,,,,,,,,,,,,,,,,,,,,,,,,,,,,,,,,,,,,,,,,,,,,,,,,,,,,,,,,,,,,,,,,,,,,,,,,,,,,
12669,1645651743.027715,104.0,0.0,4376.922852000001,4634.358886999999,4220.0,4280.512695,4265.128418,450.0,3.0,55.0,,,,0.0,4.0,1.0,4.0,0.0,4.0,41.666668,,,,,,,,52.0,0.0,0.45376099999999997,0.513916,0.268311,-0.676758,0.956558,-0.098146,-0.345708,-0.017741999999999997,-0.047728,-0.033311,,,,,,,,,,,,,,,,,,,,,,,,,,,,,,,,,,,0.0,0.0,1.0,0.0,128.0,0.698832,,,,,,,,,,,,,,,,,,,,,,,,,
12670,1645651743.0356321,105.0,0.0,4379.487305,4610.769043,4228.205078,4280.0,4273.333496,450.0,3.0,55.0,,,,0.0,4.0,1.0,4.0,0.0,4.0,41.666668,,,,,,,,,,,,,,,,,,,,,,,,,,,,,,,,,,,,,,,,,,,,,,,,,,,,,,,,,,,,,,,,,,,,,,,,,,,,,,,,,,,,
12671,1645651743.043449,106.0,0.0,4396.410156,4669.743652,4227.179688,4280.512695,4286.666504,450.0,3.0,55.0,,,,0.0,4.0,1.0,4.0,0.0,4.0,41.666668,,,,,,,,53.0,0.0,0.45361599999999996,0.513916,0.26855500000000004,-0.676758,0.9633940000000001,-0.10547000000000001,-0.33105999999999997,-0.018262999999999998,-0.047692,-0.035742,,,,,,,,,,,,,,,,,,,,,,,,,,,,,,,,,,,,,,,,,,,,,,,,,,,,,,,,,,,,,,,,,
12672,1645651743.051266,107.0,0.0,4407.179688,4704.615234000001,4236.922852000001,4280.512695,4291.282227000001,16216.0,3.0,55.0,,,,0.0,4.0,1.0,4.0,0.0,4.0,41.666668,,,,,,,,,,,,,,,,,,,,,,,,,,,,,,,,,,,,,,,,,,,,,,,,,,,,,,,,,,,,,,,,,,,,,,,,,,,,,,,,,,,,
12673,1645651743.059084,108.0,0.0,4409.230957,4594.358886999999,4249.230957,4280.0,4298.461426,450.0,3.0,55.0,,,,0.0,4.0,1.0,4.0,0.0,4.0,41.666668,,,,,,,,54.0,0.0,0.45376099999999997,0.513916,0.268311,-0.676758,0.956558,-0.098146,-0.345708,-0.016534,-0.047659,-0.037978,,,,,,,,,,,,,,,,,,,,,,,,,,,,,,,,,,,0.0,0.0,1.0,0.0,128.0,0.698832,,,,,,,,,,,,,,,,,,,,,,,,,
12674,1645651743.066901,109.0,0.0,4407.179688,4575.897461,4244.615234000001,4280.512695,4308.717772999999,450.0,3.0,55.0,,,,0.0,4.0,1.0,4.0,0.0,4.0,41.666668,,,,,,,,,,,,,,,,,,,,,,,,,,,,,,,,,,,,,,,,,,,,,,,,,,,,,,,,,,,,,,,,,,,,,,,,,,,,,,,,,,,,
12675,1645651743.074718,110.0,0.0,4413.333496,4659.487305,4229.743652,4280.512695,4307.692383,450.0,3.0,55.0,,,,0.0,4.0,1.0,4.0,0.0,4.0,41.666668,,,,,,,,55.0,0.0,0.453484,0.5141600000000001,0.268311,-0.676758,0.9438620000000001,-0.10254100000000001,-0.333013,-0.017127,-0.047679,-0.039991000000000006,,,,,,,,,,,,,,,,,,,,,,,,,,,,,,,,,,,,,,,,,,,,,,,,,,,,,,,,,,,,,,,,,
12676,1645651743.082536,111.0,0.0,4409.230957,4602.563965,4250.769043,4278.974121,4309.743652,16216.0,3.0,55.0,,,,0.0,4.0,1.0,4.0,0.0,4.0,41.666668,,,,,,,,,,,,,,,,,,,,,,,,,,,,,,,,,,,,,,,,,,,,,,,,,,,,,,,,,,,,,,,,,,,,,,,,,,,,,,,,,,,,
12677,1645651743.090353,112.0,0.0,4395.384765999999,4597.94873,4252.307617,4279.487305,4303.589844,450.0,3.0,55.0,,,,0.0,4.0,1.0,4.0,0.0,4.0,41.666668,,,,,,,,56.0,0.0,0.45326400000000006,0.5141600000000001,0.26806599999999997,-0.677002,0.9438620000000001,-0.101076,-0.342779,-0.016194999999999998,-0.047695999999999995,-0.041803,,,,,,,,,,,,,,,,,,,,,,,,,,,,,,,,,,,0.0,0.0,1.0,0.0,128.0,0.698832,,,,,,,,,,,,,,,,,,,,,,,,,
12678,1645651743.0981698,113.0,0.0,4409.230957,4689.743652,4237.436035,4280.512695,4297.94873,450.0,3.0,55.0,,,,0.0,4.0,1.0,4.0,0.0,4.0,41.666668,,,,,,,,,,,,,,,,,,,,,,,,,,,,,,,,,,,,,,,,,,,,,,,,,,,,,,,,,,,,,,,,,,,,,,,,,,,,,,,,,,,,
12679,1645651743.106087,114.0,0.0,4434.358886999999,4626.153809,4243.589844,4280.512695,4316.410156,450.0,3.0,55.0,,,,0.0,4.0,1.0,4.0,0.0,4.0,41.666668,,,,,,,,57.0,0.0,0.45326400000000006,0.5141600000000001,0.26806599999999997,-0.677002,0.95314,-0.09033300000000001,-0.330571,-0.014672999999999999,-0.047663,-0.043433,,,,,,,,,,,,,,,,,,,,,,,,,,,,,,,,,,,,,,,,,,,,,,,,,,,,,,,,,,,,,,,,,
12680,1645651743.113904,115.0,0.0,4426.153809,4523.077147999999,4272.820313,4280.512695,4330.256348,16216.0,3.0,55.0,,,,0.0,4.0,1.0,4.0,0.0,4.0,41.666668,,,,,,,,,,,,,,,,,,,,,,,,,,,,,,,,,,,,,,,,,,,,,,,,,,,,,,,,,,,,,,,,,,,,,,,,,,,,,,,,,,,,
12681,1645651743.121721,116.0,0.0,4418.461426,4573.333496,4252.307617,4280.512695,4317.436035,450.0,3.0,55.0,,,,0.0,4.0,1.0,4.0,0.0,4.0,41.666668,1.0,33.333332,4.0,0.0,4.0,0.0,4.0,58.0,0.0,0.453772,0.5141600000000001,0.267822,-0.676758,0.9365379999999999,-0.105959,-0.333013,-0.01555,-0.047633,-0.044851,1.0,0.0,0.0,,,,,,,,,,,,,,,,,,,,,,,,,,,,,,,,0.0,0.0,1.0,0.0,128.0,0.898531,1.9229319999999999,1.4266459999999999,1.625242,1.93868,1.480055,21.501764,19.514425,23.610146,13.940895999999999,11.912154,1.713455,1.310334,2.295772,0.901668,1.5079360000000002,0.010393000000000001,0.011492,0.012184,0.004588,0.007247,3.0484459999999998,2.855624,1.63444,2.426822,1.501469
12682,1645651743.129538,117.0,0.0,4445.641113000001,4596.922852000001,4214.871582,4280.0,4296.922852000001,450.0,3.0,55.0,,,,0.0,4.0,1.0,4.0,0.0,4.0,41.666668,,,,,,,,,,,,,,,,,,,,,,,,,,,,,,,,,,,,,,,,,,,,,,,,,,,,,,,,,,,,,,,,,,,,,,,,,,,,,,,,,,,,
12683,1645651743.137355,118.0,0.0,4484.615234000001,4543.077147999999,4223.077147999999,4279.487305,4303.077147999999,450.0,3.0,55.0,,,,0.0,4.0,1.0,4.0,0.0,4.0,41.666668,,,,,,,,59.0,0.0,0.45386000000000004,0.514404,0.267822,-0.6765140000000001,0.96144,-0.088869,-0.332525,-0.016339,-0.047704,-0.039927,,,,,,,,,,,,,,,,,,,,,,,,,,,,,,,,,,,,,,,,,,,,,,,,,,,,,,,,,,,,,,,,,
12684,1645651743.145172,119.0,0.0,4521.538574,4624.102539,4233.846191,4280.512695,4308.205078,16216.0,3.0,55.0,,,,0.0,4.0,1.0,4.0,0.0,4.0,41.666668,,,,,,,,,,,,,,,,,,,,,,,,,,,,,,,,,,,,,,,,,,,,,,,,,,,,,,,,,,,,,,,,,,,,,,,,,,,,,,,,,,,,
12685,1645651743.1529891,120.0,0.0,4636.410156,4694.871582,4222.05127,4281.538574,4318.461426,450.0,3.0,55.0,,,,0.0,4.0,1.0,4.0,0.0,4.0,41.666668,,,,,,,,60.0,0.0,0.454367,0.514404,0.26757800000000004,-0.6762699999999999,0.949722,-0.09033300000000001,-0.330083,-0.017049,-0.04767,-0.041745,,,,,,,,,,,,,,,,,,,,,,,,,,,,,,,,,,,0.0,0.0,1.0,0.0,128.0,0.898531,,,,,,,,,,,,,,,,,,,,,,,,,
12686,1645651743.160806,121.0,0.0,4795.897461,4642.563965,4213.333496,4285.128418,4337.436035,450.0,3.0,55.0,,,,0.0,4.0,1.0,4.0,0.0,4.0,41.666668,,,,,,,,,,,,,,,,,,,,,,,,,,,,,,,,,,,,,,,,,,,,,,,,,,,,,,,,,,,,,,,,,,,,,,,,,,,,,,,,,,,,
12687,1645651743.168623,122.0,0.0,5027.179688,4667.692383,4225.128418,4292.820313,4365.641113000001,450.0,3.0,55.0,,,,0.0,4.0,1.0,4.0,0.0,4.0,41.666668,,,,,,,,61.0,0.0,0.45445399999999997,0.514648,0.26757800000000004,-0.676025,0.95021,-0.103029,-0.32813000000000003,-0.017834,-0.047639,-0.03718,,,,,,,,,,,,,,,,,,,,,,,,,,,,,,,,,,,,,,,,,,,,,,,,,,,,,,,,,,,,,,,,,
12688,1645651743.1765401,123.0,0.0,5432.307617,4842.563965,4208.717772999999,4302.563965,4381.025879,16216.0,3.0,55.0,,,,0.0,4.0,1.0,4.0,0.0,4.0,41.666668,,,,,,,,,,,,,,,,,,,,,,,,,,,,,,,,,,,,,,,,,,,,,,,,,,,,,,,,,,,,,,,,,,,,,,,,,,,,,,,,,,,,
12689,1645651743.1843581,124.0,0.0,6033.333496,4829.743652,4206.666504,4316.410156,4391.794922,450.0,3.0,55.0,,,,0.0,4.0,1.0,4.0,0.0,4.0,41.666668,,,,,,,,62.0,0.0,0.45459799999999995,0.514648,0.267334,-0.676025,0.96144,-0.11084200000000001,-0.324712,-0.016148,-0.047563,-0.039224,,,,,,,,,,,,,,,,,,,,,,,,,,,,,,,,,,,0.0,0.0,1.0,0.0,128.0,0.898531,,,,,,,,,,,,,,,,,,,,,,,,,
12690,1645651743.192275,125.0,0.0,6690.256348,4576.410156,4237.94873,4330.769043,4410.256348,450.0,3.0,55.0,,,,0.0,4.0,0.0,4.0,0.0,4.0,33.333332,,,,,,,,,,,,,,,,,,,,,,,,,,,,,,,,,,,,,,,,,,,,,,,,,,,,,,,,,,,,,,,,,,,,,,,,,,,,,,,,,,,,
12691,1645651743.200092,126.0,0.0,7181.025879000001,4534.358886999999,4251.282227000001,4342.563965,4427.179688,450.0,3.0,55.0,,,,0.0,4.0,0.0,4.0,0.0,4.0,33.333332,,,,,,,,63.0,0.0,0.45459799999999995,0.514648,0.267334,-0.676025,0.9555809999999999,-0.11425999999999999,-0.338872,-0.016877,-0.047592,-0.034763999999999996,,,,,,,,,,,,,,,,,,,,,,,,,,,,,,,,,,,,,,,,,,,,,,,,,,,,,,,,,,,,,,,,,
12692,1645651743.2079089,127.0,0.0,7551.282227,4656.410156,4223.589844,4353.846191,4435.897461,234.0,3.0,55.0,,,,0.0,4.0,0.0,4.0,0.0,4.0,33.333332,,,,,,,,,,,,,,,,,,,,,,,,,,,,,,,,,,,,,,,,,,,,,,,,,,,,,,,,,,,,,,,,,,,,,,,,,,,,,,,,,,,,
12693,1645651743.2157269,0.0,0.0,7734.871581999999,4569.743652,4232.307617,4368.717772999999,4443.077147999999,450.0,3.0,55.0,,,,0.0,4.0,0.0,4.0,0.0,4.0,33.333332,,,,,,,,0.0,0.0,0.454741,0.514648,0.26709,-0.676025,0.9555809999999999,-0.12255999999999999,-0.34229,-0.017582,-0.047618,-0.037147,,,,,,,,,,,,,,,,,,,,,,,,,,,,,,,,,,,0.0,0.0,1.0,0.0,128.0,0.898531,,,,,,,,,,,,,,,,,,,,,,,,,
12694,1645651743.223544,1.0,0.0,7805.641113,4464.102539,4260.512695,4378.974121,4453.333496,450.0,3.0,55.0,,,,0.0,4.0,0.0,4.0,0.0,4.0,33.333332,,,,,,,,,,,,,,,,,,,,,,,,,,,,,,,,,,,,,,,,,,,,,,,,,,,,,,,,,,,,,,,,,,,,,,,,,,,,,,,,,,,,
12695,1645651743.231361,2.0,0.0,7793.846191,4604.102539,4264.615234000001,4384.615234000001,4460.512695,16125.0,3.0,55.0,,,,0.0,4.0,0.0,4.0,0.0,4.0,33.333332,,,,,,,,1.0,0.0,0.454741,0.514648,0.26709,-0.676025,0.952651,-0.109377,-0.322759,-0.018313999999999997,-0.047641,-0.033188,,,,,,,,,,,,,,,,,,,,,,,,,,,,,,,,,,,,,,,,,,,,,,,,,,,,,,,,,,,,,,,,,
12696,1645651743.239178,3.0,0.0,7804.615234000001,4647.179688,4240.0,4392.307617,4449.743652,450.0,3.0,55.0,,,,0.0,4.0,0.0,4.0,0.0,4.0,33.333332,,,,,,,,,,,,,,,,,,,,,,,,,,,,,,,,,,,,,,,,,,,,,,,,,,,,,,,,,,,,,,,,,,,,,,,,,,,,,,,,,,,,
12697,1645651743.2469962,4.0,0.0,7789.230956999999,4546.153809,4235.897461,4397.436035,4427.692383,8.0,3.0,55.0,,,,0.0,4.0,0.0,4.0,0.0,4.0,33.333332,,,,,,,,2.0,0.0,0.45446499999999995,0.514893,0.26709,-0.676025,0.9521629999999999,-0.107424,-0.330083,-0.018778,-0.047662,-0.029381,1.0,0.0,0.0,,,,,,,,,,,,,,,,,,,,,,,,,,,,,,,,0.0,0.0,1.0,0.0,512.0,0.382764,1.926809,1.716089,1.6573669999999998,1.9135650000000002,1.388327,23.801153,19.398291,20.267702,14.705898999999999,12.240842,1.748161,1.372632,2.527113,0.911874,1.65703,0.008985,0.012476000000000001,0.011691,0.0044859999999999995,0.008031,3.118635,3.818202,1.712488,2.323491,1.401537
12698,1645651743.2548132,5.0,0.0,7770.769043000001,4579.487305,4233.846191,4402.05127,4426.666504,450.0,3.0,55.0,,,,0.0,4.0,0.0,4.0,0.0,4.0,33.333332,,,,,,,,,,,,,,,,,,,,,,,,,,,,,,,,,,,,,,,,,,,,,,,,,,,,,,,,,,,,,,,,,,,,,,,,,,,,,,,,,,,,
12699,1645651743.2627301,6.0,0.0,7776.410156,4596.410156,4234.358886999999,4406.666504,4449.230957,16088.0,3.0,55.0,,,,0.0,4.0,0.0,4.0,0.0,4.0,33.333332,,,,,,,,3.0,0.0,0.45452200000000004,0.514648,0.266846,-0.6762699999999999,0.949722,-0.120119,-0.332525,-0.016998,-0.047779,-0.032156,,,,,,,,,,,,,,,,,,,,,,,,,,,,,,,,,,,,,,,,,,,,,,,,,,,,,,,,,,,,,,,,,
12700,1645651743.2705472,7.0,0.0,7768.717773,4551.794922,4253.846191,4406.666504,4482.563965,450.0,3.0,55.0,,,,0.0,4.0,0.0,4.0,0.0,4.0,33.333332,,,,,,,,,,,,,,,,,,,,,,,,,,,,,,,,,,,,,,,,,,,,,,,,,,,,,,,,,,,,,,,,,,,,,,,,,,,,,,,,,,,,
12701,1645651743.2783642,8.0,0.0,7771.282227,4621.025879,4264.102539,4406.666504,4485.641113000001,450.0,3.0,55.0,,,,0.0,4.0,0.0,4.0,0.0,4.0,33.333332,,,,,,,,4.0,0.0,0.454158,0.514648,0.266846,-0.6765140000000001,0.9428850000000001,-0.10888800000000001,-0.32959499999999997,-0.017593,-0.047688999999999995,-0.034652999999999996,,,,,,,,,,,,,,,,,,,,,,,,,,,,,,,,,,,0.0,0.0,1.0,0.0,512.0,0.382764,,,,,,,,,,,,,,,,,,,,,,,,,
12702,1645651743.286181,9.0,0.0,7772.307617,4745.641113000001,4254.871582,4407.179688,4466.153809,0.0,3.0,55.0,,,,0.0,4.0,0.0,4.0,0.0,4.0,33.333332,,,,,,,,,,,,,,,,,,,,,,,,,,,,,,,,,,,,,,,,,,,,,,,,,,,,,,,,,,,,,,,,,,,,,,,,,,,,,,,,,,,,
12703,1645651743.293998,10.0,0.0,7784.615234000001,4774.871582,4242.05127,4404.102539,4456.410156,450.0,3.0,55.0,,,,0.0,4.0,0.0,4.0,0.0,4.0,33.333332,,,,,,,,5.0,0.0,0.454071,0.514404,0.266846,-0.676758,0.954116,-0.107424,-0.334966,-0.018275,-0.047559,-0.036900999999999996,,,,,,,,,,,,,,,,,,,,,,,,,,,,,,,,,,,,,,,,,,,,,,,,,,,,,,,,,,,,,,,,,
12704,1645651743.301815,11.0,0.0,7778.974120999999,4810.769043,4251.282227000001,4403.077147999999,4478.974121,16228.0,3.0,55.0,,,,0.0,4.0,0.0,4.0,0.0,4.0,33.333332,,,,,,,,,,,,,,,,,,,,,,,,,,,,,,,,,,,,,,,,,,,,,,,,,,,,,,,,,,,,,,,,,,,,,,,,,,,,,,,,,,,,
12705,1645651743.309632,12.0,0.0,7804.615234000001,4850.769043,4236.410156,4401.025879,4484.615234000001,450.0,3.0,55.0,,,,0.0,4.0,0.0,4.0,0.0,4.0,33.333332,,,,,,,,6.0,0.0,0.45370699999999997,0.514404,0.266846,-0.677002,0.949722,-0.11133,-0.320806,-0.018791,-0.047539,-0.032918,,,,,,,,,,,,,,,,,,,,,,,,,,,,,,,,,,,0.0,0.0,1.0,0.0,512.0,0.382764,,,,,,,,,,,,,,,,,,,,,,,,,
12706,1645651743.317549,13.0,0.0,7822.563965,4823.077147999999,4216.410156,4391.282227000001,4463.589844,450.0,3.0,55.0,,,,0.0,4.0,0.0,4.0,0.0,4.0,33.333332,,,,,,,,,,,,,,,,,,,,,,,,,,,,,,,,,,,,,,,,,,,,,,,,,,,,,,,,,,,,,,,,,,,,,,,,,,,,,,,,,,,,
12707,1645651743.325366,14.0,0.0,7742.05127,4769.743652,4231.794922,4381.538574,4468.205078,450.0,3.0,55.0,,,,0.0,4.0,0.0,4.0,0.0,4.0,33.333332,,,,,,,,7.0,0.0,0.45361899999999994,0.5141600000000001,0.266846,-0.677246,0.95021,-0.104005,-0.336431,-0.019305000000000003,-0.047522,-0.035388,,,,,,,,,,,,,,,,,,,,,,,,,,,,,,,,,,,,,,,,,,,,,,,,,,,,,,,,,,,,,,,,,
12708,1645651743.333183,15.0,0.0,7636.922852,4666.666504,4271.282227000001,4375.897461,4494.358886999999,16228.0,3.0,55.0,,,,0.0,4.0,0.0,4.0,0.0,4.0,33.333332,,,,,,,,,,,,,,,,,,,,,,,,,,,,,,,,,,,,,,,,,,,,,,,,,,,,,,,,,,,,,,,,,,,,,,,,,,,,,,,,,,,,
12709,1645651743.341,16.0,0.0,7407.179687999999,4580.0,4256.410156,4364.102539,4479.487305,0.0,3.0,55.0,,,,0.0,4.0,0.0,4.0,0.0,4.0,33.333332,,,,,,,,8.0,0.0,0.453896,0.513916,0.266846,-0.677246,0.9389790000000001,-0.10888800000000001,-0.32813000000000003,-0.019767,-0.047603,-0.037709,,,,,,,,,,,,,,,,,,,,,,,,,,,,,,,,,,,0.0,0.0,1.0,0.0,512.0,0.382764,,,,,,,,,,,,,,,,,,,,,,,,,
12710,1645651743.348917,17.0,0.0,7098.461426000001,4597.436035,4236.922852000001,4351.794922,4447.179688,0.0,3.0,55.0,,,,0.0,4.0,0.0,4.0,0.0,4.0,33.333332,,,,,,,,,,,,,,,,,,,,,,,,,,,,,,,,,,,,,,,,,,,,,,,,,,,,,,,,,,,,,,,,,,,,,,,,,,,,,,,,,,,,
12711,1645651743.356734,18.0,0.0,6683.589844,4611.282227000001,4258.461426,4341.538574,4460.0,0.0,3.0,55.0,,,,0.0,4.0,0.0,4.0,0.0,4.0,33.333332,,,,,,,,9.0,0.0,0.453675,0.513916,0.266602,-0.6774899999999999,0.9521629999999999,-0.111818,-0.33984899999999996,-0.02028,-0.047726,-0.039748,,,,,,,,,,,,,,,,,,,,,,,,,,,,,,,,,,,,,,,,,,,,,,,,,,,,,,,,,,,,,,,,,
12712,1645651743.364551,19.0,0.0,6243.077147999999,4573.333496,4280.0,4331.282227000001,4469.230957,0.0,3.0,55.0,,,,0.0,4.0,0.0,4.0,0.0,4.0,33.333332,,,,,,,,,,,,,,,,,,,,,,,,,,,,,,,,,,,,,,,,,,,,,,,,,,,,,,,,,,,,,,,,,,,,,,,,,,,,,,,,,,,,
12713,1645651743.3723679,20.0,0.0,5792.820313,4647.692383,4263.589844,4321.538574,4454.871582,0.0,3.0,55.0,,,,0.0,4.0,0.0,4.0,0.0,4.0,33.333332,,,,,,,,10.0,0.0,0.453675,0.513916,0.266602,-0.6774899999999999,0.9677879999999999,-0.104494,-0.342779,-0.020694,-0.047836000000000004,-0.035481,1.0,0.0,0.0,,,,,,,,,,,,,,,,,,,,,,,,,,,,,,,,0.0,0.0,1.0,0.0,512.0,0.331541,46.022048999999996,9.765895,3.406118,2.084797,1.405952,27.618057,19.821476,16.784443,15.565189000000002,12.395415,1.843119,1.51625,2.822939,0.9857889999999999,1.8503450000000001,0.043695,0.01493,0.011456000000000001,0.00457,0.009159,3.692428,4.8977059999999994,1.7236639999999999,2.11828,1.353193
12714,1645651743.380185,21.0,0.0,5390.769043,4688.205078,4268.717772999999,4311.794922,4453.846191,0.0,3.0,55.0,,,,0.0,4.0,0.0,4.0,0.0,4.0,33.333332,,,,,,,,,,,,,,,,,,,,,,,,,,,,,,,,,,,,,,,,,,,,,,,,,,,,,,,,,,,,,,,,,,,,,,,,,,,,,,,,,,,,
12715,1645651743.388002,22.0,0.0,5000.512695,4547.179688,4276.922852000001,4302.563965,4449.230957,0.0,3.0,55.0,,,,0.0,4.0,0.0,4.0,0.0,4.0,33.333332,,,,,,,,11.0,0.0,0.453454,0.513916,0.266357,-0.6777340000000001,0.9423969999999999,-0.085939,-0.336919,-0.021016999999999997,-0.047838,-0.037694,,,,,,,,,,,,,,,,,,,,,,,,,,,,,,,,,,,,,,,,,,,,,,,,,,,,,,,,,,,,,,,,,
12716,1645651743.395819,23.0,0.0,4659.487305,4530.769043,4248.205078,4297.94873,4412.307617,0.0,3.0,55.0,,,,0.0,4.0,0.0,4.0,0.0,4.0,33.333332,,,,,,,,,,,,,,,,,,,,,,,,,,,,,,,,,,,,,,,,,,,,,,,,,,,,,,,,,,,,,,,,,,,,,,,,,,,,,,,,,,,,
12717,1645651743.403636,24.0,0.0,4474.358886999999,4671.794922,4242.05127,4296.922852000001,4401.538574,0.0,3.0,55.0,,,,0.0,4.0,0.0,4.0,0.0,4.0,33.333332,,,,,,,,12.0,0.0,0.453454,0.513916,0.266357,-0.6777340000000001,0.956558,-0.100587,-0.340337,-0.021406,-0.047888,-0.033533999999999994,,,,,,,,,,,,,,,,,,,,,,,,,,,,,,,,,,,0.0,0.0,1.0,0.0,512.0,0.331541,,,,,,,,,,,,,,,,,,,,,,,,,
12718,1645651743.411553,25.0,0.0,4293.333496,4684.615234000001,4266.666504,4294.871582,4414.358886999999,0.0,3.0,55.0,,,,0.0,4.0,0.0,4.0,0.0,4.0,33.333332,,,,,,,,,,,,,,,,,,,,,,,,,,,,,,,,,,,,,,,,,,,,,,,,,,,,,,,,,,,,,,,,,,,,,,,,,,,,,,,,,,,,
12719,1645651743.41937,26.0,0.0,4117.436035,4652.307617,4260.0,4291.282227000001,4397.94873,0.0,3.0,55.0,,,,0.0,4.0,0.0,4.0,0.0,4.0,33.333332,,,,,,,,13.0,0.0,0.453454,0.513916,0.266357,-0.6777340000000001,0.9580219999999999,-0.1084,-0.341314,-0.021609,-0.047885000000000004,-0.035991,,,,,,,,,,,,,,,,,,,,,,,,,,,,,,,,,,,,,,,,,,,,,,,,,,,,,,,,,,,,,,,,,
12720,1645651743.427187,27.0,0.0,3978.461426,4690.256348,4229.743652,4285.128418,4363.077147999999,0.0,3.0,55.0,,,,0.0,4.0,0.0,4.0,0.0,4.0,33.333332,,,,,,,,,,,,,,,,,,,,,,,,,,,,,,,,,,,,,,,,,,,,,,,,,,,,,,,,,,,,,,,,,,,,,,,,,,,,,,,,,,,,
12721,1645651743.435004,28.0,0.0,3885.1281740000004,4672.820313,4244.102539,4282.05127,4358.461426,0.0,3.0,55.0,,,,0.0,4.0,0.0,4.0,0.0,4.0,33.333332,,,,,,,,14.0,0.0,0.45359700000000003,0.513916,0.266113,-0.6777340000000001,0.944839,-0.098634,-0.335454,-0.021841,-0.04793,-0.032001999999999996,,,,,,,,,,,,,,,,,,,,,,,,,,,,,,,,,,,0.0,0.0,1.0,0.0,512.0,0.331541,,,,,,,,,,,,,,,,,,,,,,,,,
12722,1645651743.442821,29.0,0.0,3787.179443,4673.846191,4249.230957,4283.077147999999,4350.769043,0.0,3.0,55.0,,,,0.0,4.0,0.0,4.0,0.0,4.0,33.333332,,,,,,,,,,,,,,,,,,,,,,,,,,,,,,,,,,,,,,,,,,,,,,,,,,,,,,,,,,,,,,,,,,,,,,,,,,,,,,,,,,,,
12723,1645651743.450638,30.0,0.0,3695.897461,4688.205078,4236.922852000001,4282.05127,4324.615234000001,0.0,3.0,55.0,,,,0.0,4.0,0.0,4.0,0.0,4.0,33.333332,,,,,,,,15.0,0.0,0.45323199999999997,0.513916,0.266113,-0.677979,0.962417,-0.104494,-0.33789600000000003,-0.02034,-0.04802,-0.028411000000000002,,,,,,,,,,,,,,,,,,,,,,,,,,,,,,,,,,,,,,,,,,,,,,,,,,,,,,,,,,,,,,,,,
12724,1645651743.458455,31.0,0.0,3646.1538090000004,4600.512695,4233.846191,4277.436035,4317.94873,0.0,3.0,55.0,,,,0.0,4.0,0.0,4.0,0.0,4.0,33.333332,,,,,,,,,,,,,,,,,,,,,,,,,,,,,,,,,,,,,,,,,,,,,,,,,,,,,,,,,,,,,,,,,,,,,,,,,,,,,,,,,,,,
12725,1645651743.466272,32.0,0.0,3609.743652,4567.179688,4255.897461,4276.922852000001,4342.05127,0.0,3.0,55.0,,,,0.0,4.0,0.0,4.0,0.0,4.0,33.333332,,,,,,,,16.0,0.0,0.453375,0.513916,0.265869,-0.677979,0.9673,-0.09765800000000001,-0.34668499999999997,-0.018453,-0.047954000000000004,-0.031429,,,,,,,,,,,,,,,,,,,,,,,,,,,,,,,,,,,0.0,0.0,1.0,0.0,512.0,0.331541,,,,,,,,,,,,,,,,,,,,,,,,,
12726,1645651743.4740891,33.0,0.0,3553.8461909999996,4654.871582,4260.512695,4278.461426,4337.94873,0.0,3.0,55.0,,,,0.0,4.0,0.0,4.0,0.0,4.0,33.333332,,,,,,,,,,,,,,,,,,,,,,,,,,,,,,,,,,,,,,,,,,,,,,,,,,,,,,,,,,,,,,,,,,,,,,,,,,,,,,,,,,,,
12727,1645651743.481906,34.0,0.0,3488.205078,4640.0,4255.897461,4278.461426,4290.769043,0.0,3.0,55.0,,,,0.0,4.0,0.0,4.0,0.0,4.0,33.333332,,,,,,,,17.0,0.0,0.45359700000000003,0.513916,0.266113,-0.6777340000000001,0.944839,-0.098634,-0.335454,-0.019,-0.047993,-0.027895999999999997,,,,,,,,,,,,,,,,,,,,,,,,,,,,,,,,,,,,,,,,,,,,,,,,,,,,,,,,,,,,,,,,,
12728,1645651743.489823,35.0,0.0,3447.6923829999996,4560.512695,4243.077147999999,4278.461426,4275.897461,0.0,3.0,55.0,,,,0.0,4.0,0.0,4.0,0.0,4.0,33.333332,,,,,,,,,,,,,,,,,,,,,,,,,,,,,,,,,,,,,,,,,,,,,,,,,,,,,,,,,,,,,,,,,,,,,,,,,,,,,,,,,,,,
12729,1645651743.4976401,36.0,0.0,3437.4357909999994,4677.94873,4241.538574,4277.436035,4309.230957,0.0,3.0,55.0,,,,0.0,4.0,0.0,4.0,0.0,4.0,33.333332,,,,,,,,18.0,0.0,0.453375,0.513916,0.265869,-0.677979,0.9673,-0.09765800000000001,-0.34668499999999997,-0.017246,-0.04793,-0.030966000000000004,1.0,0.0,0.0,,,,,,,,,,,,,,,,,,,,,,,,,,,,,,,,0.0,0.0,64.0,1.0,1.0,0.0,293.23962400000005,63.84297900000001,12.416657,3.044451,1.514691,34.125019,22.247162,14.520260999999998,16.395609,12.850922,2.074318,1.682877,3.111956,1.0867799999999999,2.027768,0.303088,0.028912,0.012034,0.00458,0.010203,4.550864,5.858211,1.6703580000000002,1.849375,1.3450870000000001
12730,1645651743.505457,37.0,0.0,3416.923096,4768.205078,4240.0,4275.897461,4309.230957,0.0,3.0,55.0,,,,0.0,4.0,0.0,4.0,0.0,4.0,33.333332,,,,,,,,,,,,,,,,,,,,,,,,,,,,,,,,,,,,,,,,,,,,,,,,,,,,,,,,,,,,,,,,,,,,,,,,,,,,,,,,,,,,
12731,1645651743.513274,38.0,0.0,3362.0512700000004,4589.230957,4243.077147999999,4273.846191,4248.717772999999,0.0,3.0,55.0,,,,0.0,4.0,0.0,4.0,0.0,4.0,33.333332,,,,,,,,19.0,0.0,0.45374,0.513916,0.265869,-0.6777340000000001,0.957046,-0.10693499999999999,-0.327642,-0.017914,-0.047922,-0.033729,,,,,,,,,,,,,,,,,,,,,,,,,,,,,,,,,,,,,,,,,,,,,,,,,,,,,,,,,,,,,,,,,
12732,1645651743.52109,39.0,0.0,3326.666748,4490.769043,4246.153809,4271.794922,4226.153809,0.0,3.0,55.0,,,,0.0,4.0,0.0,4.0,0.0,4.0,33.333332,,,,,,,,,,,,,,,,,,,,,,,,,,,,,,,,,,,,,,,,,,,,,,,,,,,,,,,,,,,,,,,,,,,,,,,,,,,,,,,,,,,,
12733,1645651743.528907,40.0,0.0,3324.615479,4646.666504,4232.820313,4268.717772999999,4257.436035,0.0,3.0,55.0,,,,0.0,4.0,0.0,4.0,0.0,4.0,33.333332,,,,,,,,20.0,0.0,0.453375,0.513916,0.265869,-0.677979,0.95021,-0.09472799999999999,-0.331548,-0.018516,-0.047867,-0.029965,,,,,,,,,,,,,,,,,,,,,,,,,,,,,,,,,,,0.0,0.0,64.0,1.0,1.0,0.0,,,,,,,,,,,,,,,,,,,,,,,,,
12734,1645651743.536724,41.0,0.0,3332.3076170000004,4736.922852000001,4225.128418,4265.128418,4278.974121,0.0,3.0,55.0,,,,0.0,4.0,0.0,4.0,0.0,4.0,33.333332,,,,,,,,,,,,,,,,,,,,,,,,,,,,,,,,,,,,,,,,,,,,,,,,,,,,,,,,,,,,,,,,,,,,,,,,,,,,,,,,,,,,
12735,1645651743.5445411,42.0,0.0,3318.4614260000003,4690.769043,4231.282227000001,4265.128418,4269.743652,0.0,3.0,55.0,,,,0.0,4.0,0.0,4.0,0.0,4.0,33.333332,,,,,,,,21.0,0.0,0.45323199999999997,0.513916,0.266113,-0.677979,0.949722,-0.10009900000000001,-0.333989,-0.019154,-0.047914,-0.03273,,,,,,,,,,,,,,,,,,,,,,,,,,,,,,,,,,,,,,,,,,,,,,,,,,,,,,,,,,,,,,,,,
12736,1645651743.552458,43.0,0.0,3302.564209,4694.871582,4253.333496,4268.717772999999,4270.769043,0.0,3.0,55.0,,,,0.0,4.0,0.0,4.0,0.0,4.0,33.333332,,,,,,,,,,,,,,,,,,,,,,,,,,,,,,,,,,,,,,,,,,,,,,,,,,,,,,,,,,,,,,,,,,,,,,,,,,,,,,,,,,,,
12737,1645651743.560275,44.0,0.0,3288.718018,4667.692383,4249.743652,4269.230957,4267.179688,0.0,3.0,55.0,,,,0.0,4.0,0.0,4.0,0.0,4.0,33.333332,,,,,,,,22.0,0.0,0.45323199999999997,0.513916,0.266113,-0.677979,0.9580219999999999,-0.105959,-0.337407,-0.019534,-0.047957,-0.035463,,,,,,,,,,,,,,,,,,,,,,,,,,,,,,,,,,,0.0,0.0,64.0,1.0,1.0,0.0,,,,,,,,,,,,,,,,,,,,,,,,,
12738,1645651743.568092,45.0,0.0,3287.179443,4588.717772999999,4245.128418,4266.153809,4257.94873,0.0,3.0,55.0,,,,0.0,4.0,0.0,4.0,0.0,4.0,33.333332,,,,,,,,,,,,,,,,,,,,,,,,,,,,,,,,,,,,,,,,,,,,,,,,,,,,,,,,,,,,,,,,,,,,,,,,,,,,,,,,,,,,
12739,1645651743.5759099,46.0,0.0,3304.615479,4596.410156,4253.333496,4266.153809,4266.153809,0.0,3.0,55.0,,,,0.0,4.0,0.0,4.0,0.0,4.0,33.333332,,,,,,,,23.0,0.0,0.45359700000000003,0.513916,0.266113,-0.6777340000000001,0.9546040000000001,-0.11230599999999999,-0.33984899999999996,-0.018362,-0.047945999999999996,-0.037679000000000004,,,,,,,,,,,,,,,,,,,,,,,,,,,,,,,,,,,,,,,,,,,,,,,,,,,,,,,,,,,,,,,,,
12740,1645651743.583727,47.0,0.0,3313.846191,4630.769043,4254.871582,4265.641113000001,4276.922852000001,0.0,3.0,55.0,,,,0.0,4.0,0.0,4.0,0.0,4.0,33.333332,,,,,,,,,,,,,,,,,,,,,,,,,,,,,,,,,,,,,,,,,,,,,,,,,,,,,,,,,,,,,,,,,,,,,,,,,,,,,,,,,,,,
12741,1645651743.591544,48.0,0.0,3293.846191,4646.666504,4211.282227000001,4265.641113000001,4262.05127,0.0,3.0,55.0,,,,0.0,4.0,0.0,4.0,0.0,4.0,33.333332,,,,,,,,24.0,0.0,0.45332,0.5141600000000001,0.266113,-0.6777340000000001,0.9472799999999999,-0.095705,-0.340337,-0.018918,-0.047839,-0.039673,,,,,,,,,,,,,,,,,,,,,,,,,,,,,,,,,,,0.0,0.0,64.0,1.0,1.0,0.0,,,,,,,,,,,,,,,,,,,,,,,,,
12742,1645651743.599361,49.0,0.0,3269.743652,4661.025879,4191.282227000001,4264.615234000001,4245.641113000001,0.0,3.0,55.0,,,,0.0,4.0,0.0,4.0,0.0,4.0,33.333332,,,,,,,,,,,,,,,,,,,,,,,,,,,,,,,,,,,,,,,,,,,,,,,,,,,,,,,,,,,,,,,,,,,,,,,,,,,,,,,,,,,,
12743,1645651743.607179,50.0,0.0,3267.179443,4663.077147999999,4198.461426,4265.641113000001,4245.641113000001,0.0,3.0,55.0,,,,0.0,4.0,0.0,4.0,0.0,4.0,33.333332,,,,,,,,25.0,0.0,0.453463,0.5141600000000001,0.265869,-0.6777340000000001,0.937514,-0.106447,-0.341314,-0.019517,-0.04784,-0.041516000000000004,,,,,,,,,,,,,,,,,,,,,,,,,,,,,,,,,,,,,,,,,,,,,,,,,,,,,,,,,,,,,,,,,
12744,1645651743.6149962,51.0,0.0,3278.4614260000003,4707.692383,4198.461426,4266.153809,4251.282227000001,0.0,3.0,55.0,,,,0.0,4.0,0.0,4.0,0.0,4.0,33.333332,,,,,,,,,,,,,,,,,,,,,,,,,,,,,,,,,,,,,,,,,,,,,,,,,,,,,,,,,,,,,,,,,,,,,,,,,,,,,,,,,,,,
12745,1645651743.622813,52.0,0.0,3292.3076170000004,4717.94873,4205.128418,4265.641113000001,4262.563965,0.0,3.0,55.0,,,,0.0,4.0,0.0,4.0,0.0,4.0,33.333332,1.0,0.0,0.0,0.0,4.0,0.0,4.0,26.0,0.0,0.453463,0.5141600000000001,0.265869,-0.6777340000000001,0.940932,-0.101564,-0.338384,-0.019958,-0.047889999999999995,-0.043126,1.0,0.0,0.0,1.0,0.55907,0.8266020000000001,-0.542709,1.993986,1.0,0.5599029999999999,6.957561999999999,1.341544,11.211333,0.581674,1.0,0.348584,-0.13299,-0.286998,0.104992,1.0,0.29997199999999996,0.217996,-0.7038300000000001,2.004348,1.0,0.534086,11.892752,-93.371161,105.15631,1.0,0.45976999999999996,0.5936640000000001,0.49294099999999996,0.704191,0.0,0.0,64.0,1.0,1.0,0.0,900.5187990000001,225.565704,35.980129,5.439776,1.6661139999999999,45.311134,28.552785999999998,15.337627,17.083702,14.222083999999999,2.4916970000000003,1.806632,3.301283,1.1827379999999998,2.1326169999999998,1.0843200000000002,0.069168,0.013755000000000002,0.004502,0.010938,5.476941,6.501341,1.559137,1.58795,1.351716
12746,1645651743.6307302,53.0,0.0,3292.820557,4645.128418,4233.846191,4265.641113000001,4257.94873,0.0,3.0,55.0,,,,0.0,4.0,0.0,4.0,0.0,4.0,33.333332,,,,,,,,,,,,,,,,,,,,,,,,,,,,,,,,,,,,,,,,,,,,,,,,,,,,,,,,,,,,,,,,,,,,,,,,,,,,,,,,,,,,
12747,1645651743.6385472,54.0,0.0,3306.666748,4603.589844,4248.717772999999,4265.641113000001,4262.05127,0.0,3.0,55.0,,,,0.0,4.0,0.0,4.0,0.0,4.0,33.333332,,,,,,,,27.0,0.0,0.453463,0.5141600000000001,0.265869,-0.6777340000000001,0.945327,-0.10009900000000001,-0.338872,-0.020452,-0.047887,-0.038374,,,,,,,,,,,,,,,,,,,,,,,,,,,,,,,,,,,,,,,,,,,,,,,,,,,,,,,,,,,,,,,,,
12748,1645651743.646364,55.0,0.0,3311.281982,4574.358886999999,4240.512695,4265.641113000001,4257.436035,0.0,3.0,55.0,,,,0.0,4.0,0.0,4.0,0.0,4.0,33.333332,,,,,,,,,,,,,,,,,,,,,,,,,,,,,,,,,,,,,,,,,,,,,,,,,,,,,,,,,,,,,,,,,,,,,,,,,,,,,,,,,,,,
12749,1645651743.654181,56.0,0.0,3296.923096,4529.743652,4223.589844,4266.153809,4233.846191,0.0,3.0,55.0,,,,0.0,4.0,0.0,4.0,0.0,4.0,33.333332,,,,,,,,28.0,0.0,0.45382799999999995,0.5141600000000001,0.265869,-0.6774899999999999,0.961929,-0.093751,-0.33789600000000003,-0.020897,-0.047932,-0.040299,,,,,,,,,,,,,,,,,,,,,,,,,,,,,,,,,,,0.0,0.0,64.0,1.0,1.0,0.0,,,,,,,,,,,,,,,,,,,,,,,,,
12750,1645651743.661998,57.0,0.0,3303.076904,4606.666504,4209.230957,4265.128418,4231.282227000001,0.0,3.0,55.0,,,,0.0,4.0,0.0,4.0,0.0,4.0,33.333332,,,,,,,,,,,,,,,,,,,,,,,,,,,,,,,,,,,,,,,,,,,,,,,,,,,,,,,,,,,,,,,,,,,,,,,,,,,,,,,,,,,,
12751,1645651743.669815,58.0,0.0,3323.076904,4714.871582,4207.179688,4265.128418,4255.384765999999,0.0,3.0,55.0,,,,0.0,4.0,0.0,4.0,0.0,4.0,33.333332,,,,,,,,29.0,0.0,0.45382799999999995,0.5141600000000001,0.265869,-0.6774899999999999,0.956558,-0.11133,-0.341314,-0.0212,-0.047973,-0.04203,,,,,,,,,,,,,,,,,,,,,,,,,,,,,,,,,,,,,,,,,,,,,,,,,,,,,,,,,,,,,,,,,
12752,1645651743.677632,59.0,0.0,3300.0,4698.461426,4193.333496,4265.641113000001,4246.153809,0.0,3.0,55.0,,,,0.0,4.0,0.0,4.0,0.0,4.0,33.333332,,,,,,,,,,,,,,,,,,,,,,,,,,,,,,,,,,,,,,,,,,,,,,,,,,,,,,,,,,,,,,,,,,,,,,,,,,,,,,,,,,,,
12753,1645651743.6854491,60.0,0.0,3278.4614260000003,4681.538574,4199.487305,4265.641113000001,4232.307617,0.0,3.0,55.0,,,,0.0,4.0,0.0,4.0,0.0,4.0,33.333332,,,,,,,,30.0,0.0,0.45355100000000004,0.514404,0.265869,-0.6774899999999999,0.940932,-0.11621300000000001,-0.335943,-0.021375,-0.047961000000000004,-0.043687000000000004,,,,,,,,,,,,,,,,,,,,,,,,,,,,,,,,,,,0.0,0.0,64.0,1.0,1.0,0.0,,,,,,,,,,,,,,,,,,,,,,,,,
12754,1645651743.693266,61.0,0.0,3298.974365,4690.256348,4225.641113000001,4265.641113000001,4251.282227000001,0.0,3.0,55.0,,,,0.0,4.0,0.0,4.0,0.0,4.0,33.333332,,,,,,,,,,,,,,,,,,,,,,,,,,,,,,,,,,,,,,,,,,,,,,,,,,,,,,,,,,,,,,,,,,,,,,,,,,,,,,,,,,,,
12755,1645651743.701183,62.0,0.0,3331.281982,4652.820313,4250.769043,4265.641113000001,4268.205078,0.0,3.0,55.0,,,,0.0,4.0,0.0,4.0,0.0,4.0,33.333332,,,,,,,,31.0,0.0,0.453694,0.514404,0.265625,-0.6774899999999999,0.9555809999999999,-0.1084,-0.340826,-0.019286,-0.047901,-0.045226999999999996,,,,,,,,,,,,,,,,,,,,,,,,,,,,,,,,,,,,,,,,,,,,,,,,,,,,,,,,,,,,,,,,,
12756,1645651743.709,63.0,0.0,3345.128174,4581.538574,4249.230957,4265.128418,4255.897461,0.0,3.0,55.0,,,,0.0,4.0,0.0,4.0,0.0,4.0,33.333332,,,,,,,,,,,,,,,,,,,,,,,,,,,,,,,,,,,,,,,,,,,,,,,,,,,,,,,,,,,,,,,,,,,,,,,,,,,,,,,,,,,,
12757,1645651743.716917,64.0,0.0,3337.94873,4536.410156,4248.205078,4265.128418,4245.641113000001,450.0,3.0,55.0,,,,0.0,4.0,0.0,4.0,0.0,4.0,33.333332,,,,,,,,32.0,0.0,0.453694,0.514404,0.265625,-0.6774899999999999,0.9511860000000001,-0.102052,-0.331548,-0.019799,-0.047896,-0.046612,,,,,,,,,,,,,,,,,,,,,,,,,,,,,,,,,,,0.0,0.0,64.0,1.0,1.0,0.0,,,,,,,,,,,,,,,,,,,,,,,,,
12758,1645651743.724734,65.0,0.0,3337.435791,4594.871582,4239.487305,4265.128418,4249.743652,450.0,3.0,55.0,,,,0.0,4.0,0.0,4.0,0.0,4.0,33.333332,,,,,,,,,,,,,,,,,,,,,,,,,,,,,,,,,,,,,,,,,,,,,,,,,,,,,,,,,,,,,,,,,,,,,,,,,,,,,,,,,,,,
12759,1645651743.7325509,66.0,0.0,3347.179443,4658.461426,4236.410156,4264.102539,4247.692383,16125.0,3.0,55.0,,,,0.0,4.0,0.0,4.0,0.0,4.0,33.333332,,,,,,,,33.0,0.0,0.453694,0.514404,0.265625,-0.6774899999999999,0.949233,-0.10351700000000001,-0.321782,-0.020114,-0.047744999999999996,-0.041511,,,,,,,,,,,,,,,,,,,,,,,,,,,,,,,,,,,,,,,,,,,,,,,,,,,,,,,,,,,,,,,,,
12760,1645651743.740368,67.0,0.0,3355.384521,4600.0,4235.897461,4265.128418,4242.563965,450.0,3.0,55.0,,,,0.0,4.0,0.0,4.0,0.0,4.0,33.333332,,,,,,,,,,,,,,,,,,,,,,,,,,,,,,,,,,,,,,,,,,,,,,,,,,,,,,,,,,,,,,,,,,,,,,,,,,,,,,,,,,,,
12761,1645651743.748185,68.0,0.0,3365.1281740000004,4565.128418,4236.922852000001,4266.153809,4242.05127,31.0,3.0,55.0,,,,0.0,4.0,0.0,4.0,0.0,4.0,33.333332,,,,,,,,34.0,0.0,0.45355100000000004,0.514404,0.265869,-0.6774899999999999,0.9463030000000001,-0.105959,-0.340337,-0.020447,-0.047658,-0.04322,1.0,0.0,0.0,,,,,,,,,,,,,,,,,,,,,,,,,,,,,,,,0.0,0.0,64.0,1.0,1.0,0.0,1953.7083739999998,536.6365969999999,77.089516,9.429111,1.8169330000000001,62.290234,40.28783,20.550892,17.790751,16.887594,3.129649,1.8830490000000002,3.319117,1.261993,2.142264,2.6484490000000003,0.143597,0.016719,0.0046240000000000005,0.011459,6.349105000000001,6.778282000000001,1.410258,1.410068,1.364227
12762,1645651743.756002,69.0,0.0,3372.820557,4666.666504,4225.641113000001,4264.615234000001,4248.717772999999,450.0,3.0,55.0,,,,0.0,4.0,0.0,4.0,0.0,4.0,33.333332,,,,,,,,,,,,,,,,,,,,,,,,,,,,,,,,,,,,,,,,,,,,,,,,,,,,,,,,,,,,,,,,,,,,,,,,,,,,,,,,,,,,
12763,1645651743.76382,70.0,0.0,3370.256348,4723.077147999999,4229.743652,4263.589844,4261.025879,16140.0,3.0,55.0,,,,0.0,4.0,0.0,4.0,0.0,4.0,33.333332,,,,,,,,35.0,0.0,0.453971,0.5141600000000001,0.265625,-0.6774899999999999,0.9423969999999999,-0.11084200000000001,-0.34521999999999997,-0.020697,-0.047678,-0.038361,,,,,,,,,,,,,,,,,,,,,,,,,,,,,,,,,,,,,,,,,,,,,,,,,,,,,,,,,,,,,,,,,
12764,1645651743.771637,71.0,0.0,3386.6667479999996,4682.05127,4242.05127,4265.128418,4270.769043,450.0,3.0,55.0,,,,0.0,4.0,0.0,4.0,0.0,4.0,33.333332,,,,,,,,,,,,,,,,,,,,,,,,,,,,,,,,,,,,,,,,,,,,,,,,,,,,,,,,,,,,,,,,,,,,,,,,,,,,,,,,,,,,
12765,1645651743.779454,72.0,0.0,3397.4357909999994,4647.179688,4242.05127,4266.666504,4240.512695,450.0,3.0,55.0,,,,0.0,4.0,0.0,4.0,0.0,4.0,33.333332,,,,,,,,36.0,0.0,0.453971,0.5141600000000001,0.265625,-0.6774899999999999,0.951675,-0.104005,-0.334966,-0.020971,-0.047695,-0.040335,,,,,,,,,,,,,,,,,,,,,,,,,,,,,,,,,,,0.0,0.0,64.0,1.0,1.0,0.0,,,,,,,,,,,,,,,,,,,,,,,,,
12766,1645651743.7873712,73.0,0.0,3388.718018,4569.743652,4240.512695,4265.641113000001,4210.769043,0.0,3.0,55.0,,,,0.0,4.0,0.0,4.0,0.0,4.0,33.333332,,,,,,,,,,,,,,,,,,,,,,,,,,,,,,,,,,,,,,,,,,,,,,,,,,,,,,,,,,,,,,,,,,,,,,,,,,,,,,,,,,,,
12767,1645651743.7951882,74.0,0.0,3379.487061,4497.94873,4228.205078,4264.615234000001,4209.230957,450.0,3.0,55.0,,,,0.0,4.0,0.0,4.0,0.0,4.0,33.333332,,,,,,,,37.0,0.0,0.453971,0.5141600000000001,0.265625,-0.6774899999999999,0.9629049999999999,-0.10547000000000001,-0.340826,-0.021218,-0.047662,-0.035813,,,,,,,,,,,,,,,,,,,,,,,,,,,,,,,,,,,,,,,,,,,,,,,,,,,,,,,,,,,,,,,,,
12768,1645651743.803105,75.0,0.0,3387.6923829999996,4556.922852000001,4212.820313,4265.128418,4218.461426,16224.0,3.0,55.0,,,,0.0,4.0,0.0,4.0,0.0,4.0,33.333332,,,,,,,,,,,,,,,,,,,,,,,,,,,,,,,,,,,,,,,,,,,,,,,,,,,,,,,,,,,,,,,,,,,,,,,,,,,,,,,,,,,,
12769,1645651743.8109221,76.0,0.0,3408.205078,4645.641113000001,4203.589844,4265.128418,4232.307617,450.0,3.0,55.0,,,,0.0,4.0,0.0,4.0,0.0,4.0,33.333332,,,,,,,,38.0,0.0,0.453971,0.5141600000000001,0.265625,-0.6774899999999999,0.937514,-0.099611,-0.33789600000000003,-0.02144,-0.047583,-0.037994,,,,,,,,,,,,,,,,,,,,,,,,,,,,,,,,,,,0.0,0.0,64.0,1.0,1.0,0.0,,,,,,,,,,,,,,,,,,,,,,,,,
12770,1645651743.8187401,77.0,0.0,3430.256348,4663.589844,4222.05127,4264.615234000001,4248.205078,450.0,3.0,55.0,,,,0.0,4.0,0.0,4.0,0.0,4.0,33.333332,,,,,,,,,,,,,,,,,,,,,,,,,,,,,,,,,,,,,,,,,,,,,,,,,,,,,,,,,,,,,,,,,,,,,,,,,,,,,,,,,,,,
12771,1645651743.826557,78.0,0.0,3432.820557,4698.461426,4226.153809,4264.615234000001,4250.769043,450.0,3.0,55.0,,,,0.0,4.0,0.0,4.0,0.0,4.0,33.333332,,,,,,,,39.0,0.0,0.453971,0.5141600000000001,0.265625,-0.6774899999999999,0.960952,-0.11914200000000001,-0.33350100000000005,-0.021737,-0.047562,-0.033755,,,,,,,,,,,,,,,,,,,,,,,,,,,,,,,,,,,,,,,,,,,,,,,,,,,,,,,,,,,,,,,,,
12772,1645651743.834374,79.0,0.0,3430.7692869999996,4690.769043,4226.153809,4265.128418,4254.358886999999,16224.0,3.0,55.0,,,,0.0,4.0,0.0,4.0,0.0,4.0,33.333332,,,,,,,,,,,,,,,,,,,,,,,,,,,,,,,,,,,,,,,,,,,,,,,,,,,,,,,,,,,,,,,,,,,,,,,,,,,,,,,,,,,,
12773,1645651743.842192,80.0,0.0,3430.7692869999996,4616.410156,4206.666504,4264.102539,4236.922852000001,450.0,3.0,55.0,,,,0.0,4.0,0.0,4.0,0.0,4.0,33.333332,,,,,,,,40.0,0.0,0.453971,0.5141600000000001,0.265625,-0.6774899999999999,0.9555809999999999,-0.10351700000000001,-0.33984899999999996,-0.021858000000000002,-0.047493,-0.036141,,,,,,,,,,,,,,,,,,,,,,,,,,,,,,,,,,,0.0,0.0,64.0,1.0,1.0,0.0,,,,,,,,,,,,,,,,,,,,,,,,,
12774,1645651743.850009,81.0,0.0,3439.487061,4603.077147999999,4213.846191,4263.589844,4227.179688,450.0,3.0,55.0,,,,0.0,4.0,0.0,4.0,0.0,4.0,33.333332,,,,,,,,,,,,,,,,,,,,,,,,,,,,,,,,,,,,,,,,,,,,,,,,,,,,,,,,,,,,,,,,,,,,,,,,,,,,,,,,,,,,
12775,1645651743.857826,82.0,0.0,3481.538574,4636.922852000001,4246.153809,4264.615234000001,4266.666504,450.0,3.0,55.0,,,,0.0,4.0,0.0,4.0,0.0,4.0,33.333332,,,,,,,,41.0,0.0,0.453971,0.5141600000000001,0.265625,-0.6774899999999999,0.95314,-0.087404,-0.342779,-0.020454,-0.047333999999999994,-0.038338,,,,,,,,,,,,,,,,,,,,,,,,,,,,,,,,,,,,,,,,,,,,,,,,,,,,,,,,,,,,,,,,,
12776,1645651743.865643,83.0,0.0,3501.025635,4678.974121,4248.205078,4266.153809,4289.743652,16224.0,3.0,55.0,,,,0.0,4.0,0.0,4.0,0.0,4.0,33.333332,,,,,,,,,,,,,,,,,,,,,,,,,,,,,,,,,,,,,,,,,,,,,,,,,,,,,,,,,,,,,,,,,,,,,,,,,,,,,,,,,,,,
12777,1645651743.873461,84.0,0.0,3479.487061,4678.974121,4224.102539,4265.128418,4262.05127,450.0,3.0,55.0,,,,0.0,4.0,0.0,4.0,0.0,4.0,33.333332,,,,,,,,42.0,0.0,0.453971,0.5141600000000001,0.265625,-0.6774899999999999,0.945327,-0.102052,-0.331548,-0.019190000000000002,-0.047483,-0.033967000000000004,1.0,0.0,0.0,,,,,,,,,,,,,,,,,,,,,,,,,,,,,,,,0.0,0.0,64.0,1.0,1.0,0.0,3379.6899409999996,974.182007,130.32247900000002,14.377342,1.9366400000000001,83.676994,56.91046899999999,30.475725,19.052935,20.698456,3.8564550000000004,1.977422,3.197551,1.323793,2.067059,4.941335,0.244668,0.021109,0.005326,0.012034999999999999,7.046836,6.723039999999999,1.275933,1.358849,1.395425
12778,1645651743.881378,85.0,0.0,3476.4101560000004,4573.333496,4235.384765999999,4264.102539,4231.794922,450.0,3.0,55.0,,,,0.0,4.0,0.0,4.0,0.0,4.0,33.333332,,,,,,,,,,,,,,,,,,,,,,,,,,,,,,,,,,,,,,,,,,,,,,,,,,,,,,,,,,,,,,,,,,,,,,,,,,,,,,,,,,,,
12779,1645651743.889195,86.0,0.0,3504.102539,4548.205078,4246.153809,4265.128418,4251.282227000001,450.0,3.0,55.0,,,,0.0,4.0,0.0,4.0,0.0,4.0,33.333332,,,,,,,,43.0,0.0,0.454247,0.513916,0.265625,-0.6774899999999999,0.947768,-0.101076,-0.341314,-0.018003,-0.047618,-0.036331999999999996,,,,,,,,,,,,,,,,,,,,,,,,,,,,,,,,,,,,,,,,,,,,,,,,,,,,,,,,,,,,,,,,,
12780,1645651743.897012,87.0,0.0,3512.820557,4672.820313,4243.589844,4266.666504,4282.05127,16224.0,3.0,55.0,,,,0.0,4.0,0.0,4.0,0.0,4.0,33.333332,,,,,,,,,,,,,,,,,,,,,,,,,,,,,,,,,,,,,,,,,,,,,,,,,,,,,,,,,,,,,,,,,,,,,,,,,,,,,,,,,,,,
12781,1645651743.904829,88.0,0.0,3505.641113,4672.307617,4238.461426,4266.666504,4264.615234000001,450.0,3.0,55.0,,,,0.0,4.0,0.0,4.0,0.0,4.0,33.333332,,,,,,,,44.0,0.0,0.453971,0.5141600000000001,0.265625,-0.6774899999999999,0.9550930000000001,-0.10498199999999999,-0.341314,-0.016349000000000002,-0.047543,-0.038557999999999995,,,,,,,,,,,,,,,,,,,,,,,,,,,,,,,,,,,0.0,0.0,64.0,1.0,1.0,0.0,,,,,,,,,,,,,,,,,,,,,,,,,
12782,1645651743.912646,89.0,0.0,3483.5898439999996,4619.487305,4205.641113000001,4265.641113000001,4218.974121,450.0,3.0,55.0,,,,0.0,4.0,0.0,4.0,0.0,4.0,33.333332,,,,,,,,,,,,,,,,,,,,,,,,,,,,,,,,,,,,,,,,,,,,,,,,,,,,,,,,,,,,,,,,,,,,,,,,,,,,,,,,,,,,
12783,1645651743.920463,90.0,0.0,3492.3076170000004,4705.641113000001,4208.717772999999,4265.128418,4239.487305,450.0,3.0,55.0,,,,0.0,4.0,0.0,4.0,0.0,4.0,33.333332,,,,,,,,45.0,0.0,0.453971,0.5141600000000001,0.265625,-0.6774899999999999,0.945327,-0.102052,-0.331548,-0.017156,-0.047526,-0.034263,,,,,,,,,,,,,,,,,,,,,,,,,,,,,,,,,,,,,,,,,,,,,,,,,,,,,,,,,,,,,,,,,
12784,1645651743.92828,91.0,0.0,3529.2307130000004,4685.128418,4250.256348,4266.153809,4270.256348,16224.0,3.0,55.0,,,,0.0,4.0,0.0,4.0,0.0,4.0,33.333332,,,,,,,,,,,,,,,,,,,,,,,,,,,,,,,,,,,,,,,,,,,,,,,,,,,,,,,,,,,,,,,,,,,,,,,,,,,,,,,,,,,,
12785,1645651743.9360971,92.0,0.0,3547.6923829999996,4615.384765999999,4257.436035,4266.153809,4256.410156,450.0,3.0,55.0,,,,0.0,4.0,0.0,4.0,0.0,4.0,33.333332,,,,,,,,46.0,0.0,0.453971,0.5141600000000001,0.265625,-0.6774899999999999,0.9550930000000001,-0.10498199999999999,-0.341314,-0.015587,-0.047461,-0.036696,,,,,,,,,,,,,,,,,,,,,,,,,,,,,,,,,,,0.0,0.0,64.0,1.0,1.0,0.0,,,,,,,,,,,,,,,,,,,,,,,,,
12786,1645651743.944014,93.0,0.0,3544.615479,4724.102539,4228.205078,4265.641113000001,4254.871582,450.0,3.0,55.0,,,,0.0,4.0,0.0,4.0,0.0,4.0,33.333332,,,,,,,,,,,,,,,,,,,,,,,,,,,,,,,,,,,,,,,,,,,,,,,,,,,,,,,,,,,,,,,,,,,,,,,,,,,,,,,,,,,,
12787,1645651743.951831,94.0,0.0,3545.641113,4776.922852000001,4233.846191,4265.641113000001,4265.128418,450.0,3.0,55.0,,,,0.0,4.0,0.0,4.0,0.0,4.0,33.333332,,,,,,,,47.0,0.0,0.45433500000000004,0.5141600000000001,0.265625,-0.677246,0.961929,-0.10547000000000001,-0.33350100000000005,-0.01647,-0.0475,-0.038787999999999996,,,,,,,,,,,,,,,,,,,,,,,,,,,,,,,,,,,,,,,,,,,,,,,,,,,,,,,,,,,,,,,,,
12788,1645651743.9596481,95.0,0.0,3554.358887,4691.282227000001,4236.922852000001,4265.128418,4253.846191,16224.0,3.0,55.0,,,,0.0,4.0,0.0,4.0,0.0,4.0,33.333332,,,,,,,,,,,,,,,,,,,,,,,,,,,,,,,,,,,,,,,,,,,,,,,,,,,,,,,,,,,,,,,,,,,,,,,,,,,,,,,,,,,,
12789,1645651743.967465,96.0,0.0,3578.461426,4684.102539,4232.307617,4264.615234000001,4257.94873,450.0,3.0,55.0,,,,0.0,4.0,0.0,4.0,0.0,4.0,33.333332,,,,,,,,48.0,0.0,0.45433500000000004,0.5141600000000001,0.265625,-0.677246,0.948257,-0.093263,-0.334478,-0.017166,-0.047486,-0.034372,,,,,,,,,,,,,,,,,,,,,,,,,,,,,,,,,,,0.0,0.0,64.0,1.0,1.0,0.0,,,,,,,,,,,,,,,,,,,,,,,,,
12790,1645651743.975282,97.0,0.0,3580.0,4655.897461,4215.897461,4265.641113000001,4247.179688,450.0,3.0,55.0,,,,0.0,4.0,0.0,4.0,0.0,4.0,33.333332,,,,,,,,,,,,,,,,,,,,,,,,,,,,,,,,,,,,,,,,,,,,,,,,,,,,,,,,,,,,,,,,,,,,,,,,,,,,,,,,,,,,
12791,1645651743.983099,98.0,0.0,3557.9487299999996,4578.461426,4206.153809,4266.153809,4222.05127,450.0,3.0,55.0,,,,0.0,4.0,0.0,4.0,0.0,4.0,33.333332,,,,,,,,49.0,0.0,0.45433500000000004,0.5141600000000001,0.265625,-0.677246,0.944839,-0.111818,-0.330571,-0.017793,-0.047523,-0.036697,,,,,,,,,,,,,,,,,,,,,,,,,,,,,,,,,,,,,,,,,,,,,,,,,,,,,,,,,,,,,,,,,
12792,1645651743.990916,99.0,0.0,3578.974365,4663.077147999999,4207.692383,4265.641113000001,4248.717772999999,16224.0,3.0,55.0,,,,0.0,4.0,0.0,4.0,0.0,4.0,33.333332,,,,,,,,,,,,,,,,,,,,,,,,,,,,,,,,,,,,,,,,,,,,,,,,,,,,,,,,,,,,,,,,,,,,,,,,,,,,,,,,,,,,
12793,1645651743.998733,100.0,0.0,3615.384521,4752.307617,4229.743652,4266.153809,4283.589844,450.0,3.0,55.0,,,,0.0,4.0,0.0,4.0,0.0,4.0,33.333332,,,,,,,,50.0,0.0,0.454192,0.5141600000000001,0.265869,-0.677246,0.949722,-0.093263,-0.32813000000000003,-0.018358000000000003,-0.047409,-0.038789,1.0,0.0,0.0,,,,,,,,,,,,,,,,,,,,,,,,,,,,,,,,0.0,0.0,1.0,0.0,512.0,1.0,4851.985352000001,1440.104248,182.245132,18.949451,2.0112509999999997,104.94766200000001,74.96682,44.280209,21.18952,24.900309,4.494808,2.153674,3.1208869999999997,1.368285,1.938808,7.499485000000001,0.348043,0.026760000000000003,0.0067870000000000005,0.012851,7.406878999999999,6.366537,1.203214,1.423514,1.467782
12794,1645651744.00655,101.0,0.0,3619.487061,4675.384765999999,4233.333496,4266.153809,4276.410156,450.0,3.0,55.0,,,,0.0,4.0,0.0,4.0,0.0,4.0,33.333332,,,,,,,,,,,,,,,,,,,,,,,,,,,,,,,,,,,,,,,,,,,,,,,,,,,,,,,,,,,,,,,,,,,,,,,,,,,,,,,,,,,,
12795,1645651744.014367,102.0,0.0,3603.5898439999996,4700.0,4207.692383,4265.128418,4256.922852000001,450.0,3.0,55.0,,,,0.0,4.0,0.0,4.0,0.0,4.0,33.333332,,,,,,,,51.0,0.0,0.454192,0.5141600000000001,0.265869,-0.677246,0.949722,-0.1084,-0.33105999999999997,-0.018963999999999998,-0.047405,-0.040672,,,,,,,,,,,,,,,,,,,,,,,,,,,,,,,,,,,,,,,,,,,,,,,,,,,,,,,,,,,,,,,,,
12796,1645651744.022284,103.0,0.0,3601.538574,4788.717772999999,4194.871582,4265.641113000001,4255.384765999999,16224.0,3.0,55.0,,,,0.0,4.0,0.0,4.0,0.0,4.0,33.333332,,,,,,,,,,,,,,,,,,,,,,,,,,,,,,,,,,,,,,,,,,,,,,,,,,,,,,,,,,,,,,,,,,,,,,,,,,,,,,,,,,,,
12797,1645651744.030101,104.0,0.0,3606.1538090000004,4693.846191,4208.717772999999,4266.153809,4243.589844,450.0,3.0,55.0,,,,0.0,4.0,0.0,4.0,0.0,4.0,33.333332,,,,,,,,52.0,0.0,0.454049,0.5141600000000001,0.266113,-0.677246,0.952651,-0.11425999999999999,-0.338384,-0.019411,-0.047547000000000006,-0.036164999999999996,,,,,,,,,,,,,,,,,,,,,,,,,,,,,,,,,,,0.0,0.0,1.0,0.0,512.0,1.0,,,,,,,,,,,,,,,,,,,,,,,,,
12798,1645651744.0379179,105.0,0.0,3613.8461909999996,4610.769043,4214.358886999999,4265.128418,4232.307617,450.0,3.0,55.0,,,,0.0,4.0,0.0,4.0,0.0,4.0,33.333332,,,,,,,,,,,,,,,,,,,,,,,,,,,,,,,,,,,,,,,,,,,,,,,,,,,,,,,,,,,,,,,,,,,,,,,,,,,,,,,,,,,,
12799,1645651744.045735,106.0,0.0,3601.025635,4657.436035,4193.333496,4265.641113000001,4208.205078,450.0,3.0,55.0,,,,0.0,4.0,0.0,4.0,0.0,4.0,33.333332,,,,,,,,53.0,0.0,0.454413,0.5141600000000001,0.266113,-0.677002,0.947768,-0.11084200000000001,-0.344244,-0.019814,-0.047529,-0.038408,,,,,,,,,,,,,,,,,,,,,,,,,,,,,,,,,,,,,,,,,,,,,,,,,,,,,,,,,,,,,,,,,
12800,1645651744.053552,107.0,0.0,3614.8718259999996,4632.820313,4203.077147999999,4266.153809,4214.871582,16224.0,3.0,55.0,,,,0.0,4.0,0.0,4.0,0.0,4.0,33.333332,,,,,,,,,,,,,,,,,,,,,,,,,,,,,,,,,,,,,,,,,,,,,,,,,,,,,,,,,,,,,,,,,,,,,,,,,,,,,,,,,,,,
12801,1645651744.061369,108.0,0.0,3664.615479,4621.025879,4225.128418,4266.153809,4267.692383,450.0,3.0,55.0,,,,0.0,4.0,0.0,4.0,0.0,4.0,33.333332,,,,,,,,54.0,0.0,0.454413,0.5141600000000001,0.266113,-0.677002,0.949233,-0.120119,-0.331548,-0.020322999999999997,-0.047512,-0.034128,,,,,,,,,,,,,,,,,,,,,,,,,,,,,,,,,,,0.0,0.0,1.0,0.0,512.0,1.0,,,,,,,,,,,,,,,,,,,,,,,,,
12802,1645651744.069186,109.0,0.0,3684.615479,4701.538574,4240.0,4266.153809,4284.102539,450.0,3.0,55.0,,,,0.0,4.0,0.0,4.0,0.0,4.0,33.333332,,,,,,,,,,,,,,,,,,,,,,,,,,,,,,,,,,,,,,,,,,,,,,,,,,,,,,,,,,,,,,,,,,,,,,,,,,,,,,,,,,,,
12803,1645651744.077003,110.0,0.0,3675.384521,4692.307617,4231.794922,4266.153809,4253.333496,450.0,3.0,55.0,,,,0.0,4.0,0.0,4.0,0.0,4.0,33.333332,,,,,,,,55.0,0.0,0.454049,0.5141600000000001,0.266113,-0.677246,0.944839,-0.109377,-0.340826,-0.020732,-0.047497000000000004,-0.036476999999999996,,,,,,,,,,,,,,,,,,,,,,,,,,,,,,,,,,,,,,,,,,,,,,,,,,,,,,,,,,,,,,,,,
12804,1645651744.08492,111.0,0.0,3673.8461909999996,4658.461426,4215.897461,4265.641113000001,4248.205078,16224.0,3.0,55.0,,,,0.0,4.0,0.0,4.0,0.0,4.0,33.333332,,,,,,,,,,,,,,,,,,,,,,,,,,,,,,,,,,,,,,,,,,,,,,,,,,,,,,,,,,,,,,,,,,,,,,,,,,,,,,,,,,,,
12805,1645651744.092737,112.0,0.0,3657.4357909999994,4712.307617,4186.153809,4264.615234000001,4241.538574,450.0,3.0,55.0,,,,0.0,4.0,0.0,4.0,0.0,4.0,33.333332,,,,,,,,56.0,0.0,0.454049,0.5141600000000001,0.266113,-0.677246,0.9365379999999999,-0.10888800000000001,-0.33350100000000005,-0.021002,-0.047484,-0.032389999999999995,,,,,,,,,,,,,,,,,,,,,,,,,,,,,,,,,,,0.0,0.0,1.0,0.0,512.0,1.0,,,,,,,,,,,,,,,,,,,,,,,,,
12806,1645651744.100554,113.0,0.0,3635.384521,4657.94873,4183.077147999999,4264.615234000001,4205.641113000001,450.0,3.0,55.0,,,,0.0,4.0,0.0,4.0,0.0,4.0,33.333332,,,,,,,,,,,,,,,,,,,,,,,,,,,,,,,,,,,,,,,,,,,,,,,,,,,,,,,,,,,,,,,,,,,,,,,,,,,,,,,,,,,,
12807,1645651744.108371,114.0,0.0,3666.6667479999996,4545.641113000001,4208.205078,4265.128418,4215.384765999999,450.0,3.0,55.0,,,,0.0,4.0,0.0,4.0,0.0,4.0,33.333332,,,,,,,,57.0,0.0,0.454183,0.513916,0.266357,-0.677246,0.9546040000000001,-0.100587,-0.35108,-0.019049,-0.047472,-0.034913,,,,,,,,,,,,,,,,,,,,,,,,,,,,,,,,,,,,,,,,,,,,,,,,,,,,,,,,,,,,,,,,,
12808,1645651744.116188,115.0,0.0,3701.025635,4620.0,4221.538574,4266.153809,4257.94873,16224.0,3.0,55.0,,,,0.0,4.0,0.0,4.0,0.0,4.0,33.333332,,,,,,,,,,,,,,,,,,,,,,,,,,,,,,,,,,,,,,,,,,,,,,,,,,,,,,,,,,,,,,,,,,,,,,,,,,,,,,,,,,,,
12809,1645651744.124005,116.0,0.0,3690.7692869999996,4712.307617,4201.025879,4265.641113000001,4262.05127,450.0,3.0,55.0,,,,0.0,4.0,0.0,4.0,0.0,4.0,33.333332,1.0,0.0,0.0,0.0,4.0,0.0,4.0,58.0,0.0,0.454183,0.513916,0.266357,-0.677246,0.9506979999999999,-0.107424,-0.33984899999999996,-0.017925,-0.047461,-0.037037,1.0,0.0,0.0,,,,,,,,,,,,,,,,,,,,,,,,,,,,,,,,0.0,0.0,1.0,0.0,512.0,0.6025020000000001,6005.753418,1794.30188,216.50152599999998,21.682152,2.043491,119.977577,89.357925,59.985507999999996,24.230978,28.383528000000002,4.886056,2.416748,3.3179540000000003,1.398559,1.79397,9.60982,0.42121000000000003,0.032777,0.008768999999999999,0.013826,7.377905,5.7536059999999996,1.2196049999999998,1.57661,1.597504
12810,1645651744.131822,117.0,0.0,3692.3076170000004,4561.025879,4211.282227000001,4265.128418,4240.512695,450.0,3.0,55.0,,,,0.0,4.0,0.0,4.0,0.0,4.0,33.333332,,,,,,,,,,,,,,,,,,,,,,,,,,,,,,,,,,,,,,,,,,,,,,,,,,,,,,,,,,,,,,,,,,,,,,,,,,,,,,,,,,,,
12811,1645651744.1396391,118.0,0.0,3721.025635,4468.205078,4226.666504,4264.615234000001,4243.077147999999,450.0,3.0,55.0,,,,0.0,4.0,0.0,4.0,0.0,4.0,33.333332,,,,,,,,59.0,0.0,0.45390600000000003,0.5141600000000001,0.266357,-0.677246,0.9521629999999999,-0.11133,-0.32422399999999996,-0.018525,-0.047549,-0.039241000000000005,,,,,,,,,,,,,,,,,,,,,,,,,,,,,,,,,,,,,,,,,,,,,,,,,,,,,,,,,,,,,,,,,
12812,1645651744.1474562,119.0,0.0,3717.4357909999994,4608.205078,4209.230957,4265.128418,4249.743652,16224.0,3.0,55.0,,,,0.0,4.0,0.0,4.0,0.0,4.0,33.333332,,,,,,,,,,,,,,,,,,,,,,,,,,,,,,,,,,,,,,,,,,,,,,,,,,,,,,,,,,,,,,,,,,,,,,,,,,,,,,,,,,,,
12813,1645651744.155373,120.0,0.0,3727.179443,4631.794922,4213.846191,4265.641113000001,4260.512695,450.0,3.0,55.0,,,,0.0,4.0,0.0,4.0,0.0,4.0,33.333332,,,,,,,,60.0,0.0,0.454183,0.513916,0.266357,-0.677246,0.9472799999999999,-0.109377,-0.347173,-0.019114,-0.047531,-0.035024,,,,,,,,,,,,,,,,,,,,,,,,,,,,,,,,,,,0.0,0.0,1.0,0.0,512.0,0.6025020000000001,,,,,,,,,,,,,,,,,,,,,,,,,
12814,1645651744.163191,121.0,0.0,3749.2307130000004,4566.153809,4223.589844,4265.641113000001,4258.461426,450.0,3.0,55.0,,,,0.0,4.0,0.0,4.0,0.0,4.0,33.333332,,,,,,,,,,,,,,,,,,,,,,,,,,,,,,,,,,,,,,,,,,,,,,,,,,,,,,,,,,,,,,,,,,,,,,,,,,,,,,,,,,,,
12815,1645651744.171008,122.0,0.0,3730.7692869999996,4645.641113000001,4198.461426,4265.641113000001,4228.205078,450.0,3.0,55.0,,,,0.0,4.0,0.0,4.0,0.0,4.0,33.333332,,,,,,,,61.0,0.0,0.454183,0.513916,0.266357,-0.677246,0.944839,-0.11767799999999999,-0.333013,-0.019644,-0.047661,-0.037235000000000004,,,,,,,,,,,,,,,,,,,,,,,,,,,,,,,,,,,,,,,,,,,,,,,,,,,,,,,,,,,,,,,,,
12816,1645651744.178825,123.0,0.0,3715.384521,4660.512695,4193.333496,4265.641113000001,4216.410156,16224.0,3.0,55.0,,,,0.0,4.0,0.0,4.0,0.0,4.0,33.333332,,,,,,,,,,,,,,,,,,,,,,,,,,,,,,,,,,,,,,,,,,,,,,,,,,,,,,,,,,,,,,,,,,,,,,,,,,,,,,,,,,,,
12817,1645651744.186642,124.0,0.0,3758.974365,4567.179688,4241.538574,4265.641113000001,4259.487305,450.0,3.0,55.0,,,,0.0,4.0,0.0,4.0,0.0,4.0,33.333332,,,,,,,,62.0,0.0,0.454183,0.513916,0.266357,-0.677246,0.944839,-0.101076,-0.334478,-0.020268,-0.047729,-0.039273,,,,,,,,,,,,,,,,,,,,,,,,,,,,,,,,,,,0.0,0.0,1.0,0.0,512.0,0.6025020000000001,,,,,,,,,,,,,,,,,,,,,,,,,
12818,1645651744.19446,125.0,0.0,3784.615479,4582.563965,4246.153809,4266.666504,4272.820313,450.0,3.0,55.0,,,,0.0,4.0,0.0,4.0,0.0,4.0,33.333332,,,,,,,,,,,,,,,,,,,,,,,,,,,,,,,,,,,,,,,,,,,,,,,,,,,,,,,,,,,,,,,,,,,,,,,,,,,,,,,,,,,,
12819,1645651744.202277,126.0,0.0,3758.461426,4649.230957,4231.794922,4266.153809,4243.077147999999,450.0,3.0,55.0,,,,0.0,4.0,0.0,4.0,0.0,4.0,33.333332,,,,,,,,63.0,0.0,0.454039,0.513916,0.266602,-0.677246,0.9506979999999999,-0.098146,-0.346197,-0.020731,-0.047692,-0.041205,,,,,,,,,,,,,,,,,,,,,,,,,,,,,,,,,,,,,,,,,,,,,,,,,,,,,,,,,,,,,,,,,
12820,1645651744.210094,127.0,0.0,3749.743652,4645.641113000001,4241.538574,4266.153809,4244.102539,234.0,3.0,55.0,,,,0.0,4.0,0.0,4.0,0.0,4.0,33.333332,,,,,,,,,,,,,,,,,,,,,,,,,,,,,,,,,,,,,,,,,,,,,,,,,,,,,,,,,,,,,,,,,,,,,,,,,,,,,,,,,,,,
12821,1645651744.217912,0.0,0.0,3787.6923829999996,4668.205078,4262.05127,4266.153809,4272.307617,450.0,3.0,55.0,,,,0.0,4.0,0.0,4.0,0.0,4.0,33.333332,,,,,,,,0.0,0.0,0.454039,0.513916,0.266602,-0.677246,0.95314,-0.09765800000000001,-0.334478,-0.021099,-0.047659,-0.043042000000000004,,,,,,,,,,,,,,,,,,,,,,,,,,,,,,,,,,,0.0,0.0,1.0,0.0,512.0,0.6025020000000001,,,,,,,,,,,,,,,,,,,,,,,,,
12822,1645651744.225729,1.0,0.0,3809.2307130000004,4717.94873,4254.358886999999,4265.641113000001,4272.820313,450.0,3.0,55.0,,,,0.0,4.0,0.0,4.0,0.0,4.0,33.333332,,,,,,,,,,,,,,,,,,,,,,,,,,,,,,,,,,,,,,,,,,,,,,,,,,,,,,,,,,,,,,,,,,,,,,,,,,,,,,,,,,,,
12823,1645651744.2336462,2.0,0.0,3778.974365,4695.897461,4243.589844,4265.641113000001,4244.615234000001,16194.0,3.0,55.0,,,,0.0,4.0,0.0,4.0,0.0,4.0,33.333332,,,,,,,,1.0,0.0,0.453896,0.513916,0.266846,-0.677246,0.945327,-0.10693499999999999,-0.33350100000000005,-0.019087,-0.047679,-0.038396,,,,,,,,,,,,,,,,,,,,,,,,,,,,,,,,,,,,,,,,,,,,,,,,,,,,,,,,,,,,,,,,,
12824,1645651744.2414632,3.0,0.0,3769.2307130000004,4640.512695,4232.820313,4266.153809,4231.282227000001,450.0,3.0,55.0,,,,0.0,4.0,0.0,4.0,0.0,4.0,33.333332,,,,,,,,,,,,,,,,,,,,,,,,,,,,,,,,,,,,,,,,,,,,,,,,,,,,,,,,,,,,,,,,,,,,,,,,,,,,,,,,,,,,
12825,1645651744.24928,4.0,0.0,3815.897461,4649.230957,4246.153809,4266.666504,4262.05127,1.0,3.0,55.0,,,,0.0,4.0,0.0,4.0,0.0,4.0,33.333332,,,,,,,,2.0,0.0,0.453896,0.513916,0.266846,-0.677246,0.9521629999999999,-0.100587,-0.336919,-0.019571,-0.047695999999999995,-0.040367,1.0,0.0,0.0,,,,,,,,,,,,,,,,,,,,,,,,,,,,,,,,0.0,0.0,1.0,0.0,512.0,1.0,6422.057129,1916.6788329999997,221.28852799999999,21.677309,2.044808,123.62193300000001,95.534988,74.879868,27.665577000000003,30.217087,4.96044,2.695105,3.897587,1.4320760000000001,1.6641720000000002,10.544775999999999,0.43871000000000004,0.03777,0.010692,0.014587000000000001,6.948421000000001,4.945043,1.353805,1.8091689999999998,1.7820599999999998
12826,1645651744.257097,5.0,0.0,3839.487061,4662.563965,4252.307617,4266.153809,4281.538574,450.0,3.0,55.0,,,,0.0,4.0,0.0,4.0,0.0,4.0,33.333332,,,,,,,,,,,,,,,,,,,,,,,,,,,,,,,,,,,,,,,,,,,,,,,,,,,,,,,,,,,,,,,,,,,,,,,,,,,,,,,,,,,,
12827,1645651744.264914,6.0,0.0,3809.743652,4643.077147999999,4229.230957,4265.128418,4247.179688,16220.0,3.0,55.0,,,,0.0,4.0,0.0,4.0,0.0,4.0,33.333332,,,,,,,,3.0,0.0,0.45426000000000005,0.513916,0.266846,-0.677002,0.9594870000000001,-0.11084200000000001,-0.34473200000000004,-0.020055,-0.047712,-0.041994,,,,,,,,,,,,,,,,,,,,,,,,,,,,,,,,,,,,,,,,,,,,,,,,,,,,,,,,,,,,,,,,,
12828,1645651744.272731,7.0,0.0,3805.641113,4649.230957,4218.974121,4267.692383,4239.487305,450.0,3.0,55.0,,,,0.0,4.0,0.0,4.0,0.0,4.0,33.333332,,,,,,,,,,,,,,,,,,,,,,,,,,,,,,,,,,,,,,,,,,,,,,,,,,,,,,,,,,,,,,,,,,,,,,,,,,,,,,,,,,,,
12829,1645651744.280548,8.0,0.0,3813.8461909999996,4618.974121,4231.282227000001,4270.256348,4236.410156,450.0,3.0,55.0,,,,0.0,4.0,0.0,4.0,0.0,4.0,33.333332,,,,,,,,4.0,0.0,0.45411599999999996,0.513916,0.26709,-0.677002,0.9433739999999999,-0.092775,-0.339361,-0.020296,-0.047774000000000004,-0.043654000000000005,,,,,,,,,,,,,,,,,,,,,,,,,,,,,,,,,,,0.0,0.0,1.0,0.0,512.0,1.0,,,,,,,,,,,,,,,,,,,,,,,,,
12830,1645651744.2883651,9.0,0.0,3818.461426,4560.0,4238.461426,4267.179688,4225.128418,0.0,3.0,55.0,,,,0.0,4.0,0.0,4.0,0.0,4.0,33.333332,,,,,,,,,,,,,,,,,,,,,,,,,,,,,,,,,,,,,,,,,,,,,,,,,,,,,,,,,,,,,,,,,,,,,,,,,,,,,,,,,,,,
12831,1645651744.296182,10.0,0.0,3833.3332520000004,4611.282227000001,4236.410156,4265.128418,4245.641113000001,450.0,3.0,55.0,,,,0.0,4.0,0.0,4.0,0.0,4.0,33.333332,,,,,,,,5.0,0.0,0.45411599999999996,0.513916,0.26709,-0.677002,0.947768,-0.084962,-0.333013,-0.018315,-0.047685000000000005,-0.038801,,,,,,,,,,,,,,,,,,,,,,,,,,,,,,,,,,,,,,,,,,,,,,,,,,,,,,,,,,,,,,,,,
12832,1645651744.303999,11.0,0.0,3855.384521,4690.256348,4245.128418,4266.153809,4266.153809,16211.0,3.0,55.0,,,,0.0,4.0,0.0,4.0,0.0,4.0,33.333332,,,,,,,,,,,,,,,,,,,,,,,,,,,,,,,,,,,,,,,,,,,,,,,,,,,,,,,,,,,,,,,,,,,,,,,,,,,,,,,,,,,,
12833,1645651744.311916,12.0,0.0,3859.487061,4676.410156,4245.641113000001,4265.641113000001,4253.846191,450.0,3.0,55.0,,,,0.0,4.0,0.0,4.0,0.0,4.0,33.333332,,,,,,,,6.0,0.0,0.45411599999999996,0.513916,0.26709,-0.677002,0.9585110000000001,-0.11572400000000001,-0.33350100000000005,-0.017216,-0.047604,-0.040681999999999996,,,,,,,,,,,,,,,,,,,,,,,,,,,,,,,,,,,0.0,0.0,1.0,0.0,512.0,1.0,,,,,,,,,,,,,,,,,,,,,,,,,
12834,1645651744.319732,13.0,0.0,3852.3076170000004,4650.769043,4243.589844,4265.128418,4249.743652,450.0,3.0,55.0,,,,0.0,4.0,0.0,4.0,0.0,4.0,33.333332,,,,,,,,,,,,,,,,,,,,,,,,,,,,,,,,,,,,,,,,,,,,,,,,,,,,,,,,,,,,,,,,,,,,,,,,,,,,,,,,,,,,
12835,1645651744.327549,14.0,0.0,3856.923096,4650.256348,4231.282227000001,4267.692383,4251.282227000001,450.0,3.0,55.0,,,,0.0,4.0,0.0,4.0,0.0,4.0,33.333332,,,,,,,,7.0,0.0,0.45411599999999996,0.513916,0.26709,-0.677002,0.95021,-0.10693499999999999,-0.33984899999999996,-0.017936,-0.047629000000000005,-0.042376,,,,,,,,,,,,,,,,,,,,,,,,,,,,,,,,,,,,,,,,,,,,,,,,,,,,,,,,,,,,,,,,,
12836,1645651744.335366,15.0,0.0,3889.743652,4648.717772999999,4252.307617,4267.692383,4262.563965,16211.0,3.0,55.0,,,,0.0,4.0,0.0,4.0,0.0,4.0,33.333332,,,,,,,,,,,,,,,,,,,,,,,,,,,,,,,,,,,,,,,,,,,,,,,,,,,,,,,,,,,,,,,,,,,,,,,,,,,,,,,,,,,,
12837,1645651744.343183,16.0,0.0,3912.820557,4661.538574,4270.769043,4265.128418,4288.717772999999,0.0,3.0,55.0,,,,0.0,4.0,0.0,4.0,0.0,4.0,33.333332,,,,,,,,8.0,0.0,0.45411599999999996,0.513916,0.26709,-0.677002,0.95021,-0.102052,-0.334966,-0.018584,-0.047651,-0.037699,,,,,,,,,,,,,,,,,,,,,,,,,,,,,,,,,,,0.0,0.0,1.0,0.0,512.0,1.0,,,,,,,,,,,,,,,,,,,,,,,,,
12838,1645651744.351,17.0,0.0,3892.820557,4655.384765999999,4257.436035,4266.153809,4286.153809,0.0,3.0,55.0,,,,0.0,4.0,0.0,4.0,0.0,4.0,33.333332,,,,,,,,,,,,,,,,,,,,,,,,,,,,,,,,,,,,,,,,,,,,,,,,,,,,,,,,,,,,,,,,,,,,,,,,,,,,,,,,,,,,
12839,1645651744.358816,18.0,0.0,3882.5642090000006,4596.410156,4238.461426,4268.717772999999,4263.077147999999,0.0,3.0,55.0,,,,0.0,4.0,0.0,4.0,0.0,4.0,33.333332,,,,,,,,9.0,0.0,0.45411599999999996,0.513916,0.26709,-0.677002,0.9585110000000001,-0.11572400000000001,-0.33350100000000005,-0.017506999999999998,-0.047622000000000005,-0.03974,,,,,,,,,,,,,,,,,,,,,,,,,,,,,,,,,,,,,,,,,,,,,,,,,,,,,,,,,,,,,,,,,
12840,1645651744.366633,19.0,0.0,3904.102539,4567.692383,4254.358886999999,4270.256348,4262.563965,0.0,3.0,55.0,,,,0.0,4.0,0.0,4.0,0.0,4.0,33.333332,,,,,,,,,,,,,,,,,,,,,,,,,,,,,,,,,,,,,,,,,,,,,,,,,,,,,,,,,,,,,,,,,,,,,,,,,,,,,,,,,,,,
12841,1645651744.37445,20.0,0.0,3912.3076170000004,4663.077147999999,4245.128418,4267.179688,4268.717772999999,0.0,3.0,55.0,,,,0.0,4.0,0.0,4.0,0.0,4.0,33.333332,,,,,,,,10.0,0.0,0.45411599999999996,0.513916,0.26709,-0.677002,0.95021,-0.102052,-0.334966,-0.018197,-0.047645,-0.035325999999999996,1.0,0.0,0.0,,,,,,,,,,,,,,,,,,,,,,,,,,,,,,,,0.0,0.0,1.0,0.0,512.0,1.0,6026.104004,1764.090332,194.93808,18.98724,2.027687,113.74729199999999,91.230377,86.303207,30.720621,30.105711,4.756589,2.888932,4.782299,1.4869430000000001,1.566285,10.019949,0.39417199999999997,0.040077999999999996,0.011879,0.014637,6.2249620000000006,4.039868,1.6859240000000002,2.122862,1.995834
12842,1645651744.382367,21.0,0.0,3904.615479,4718.974121,4236.410156,4267.692383,4265.128418,0.0,3.0,55.0,,,,0.0,4.0,0.0,4.0,0.0,4.0,33.333332,,,,,,,,,,,,,,,,,,,,,,,,,,,,,,,,,,,,,,,,,,,,,,,,,,,,,,,,,,,,,,,,,,,,,,,,,,,,,,,,,,,,
12843,1645651744.390184,22.0,0.0,3925.641113,4663.077147999999,4265.641113000001,4269.743652,4283.589844,0.0,3.0,55.0,,,,0.0,4.0,0.0,4.0,0.0,4.0,33.333332,,,,,,,,11.0,0.0,0.45375200000000004,0.513916,0.26709,-0.677246,0.956558,-0.103029,-0.34375500000000003,-0.017159,-0.047617,-0.037604000000000005,,,,,,,,,,,,,,,,,,,,,,,,,,,,,,,,,,,,,,,,,,,,,,,,,,,,,,,,,,,,,,,,,
12844,1645651744.398001,23.0,0.0,3950.256348,4644.615234000001,4277.94873,4269.230957,4296.410156,0.0,3.0,55.0,,,,0.0,4.0,0.0,4.0,0.0,4.0,33.333332,,,,,,,,,,,,,,,,,,,,,,,,,,,,,,,,,,,,,,,,,,,,,,,,,,,,,,,,,,,,,,,,,,,,,,,,,,,,,,,,,,,,
12845,1645651744.405918,24.0,0.0,3957.4357909999994,4665.641113000001,4262.05127,4268.205078,4290.769043,0.0,3.0,55.0,,,,0.0,4.0,0.0,4.0,0.0,4.0,33.333332,,,,,,,,12.0,0.0,0.45411599999999996,0.513916,0.26709,-0.677002,0.949233,-0.098634,-0.334966,-0.017836,-0.047688999999999995,-0.039606,,,,,,,,,,,,,,,,,,,,,,,,,,,,,,,,,,,0.0,0.0,1.0,0.0,512.0,1.0,,,,,,,,,,,,,,,,,,,,,,,,,
12846,1645651744.413734,25.0,0.0,3953.8461909999996,4644.615234000001,4262.05127,4268.205078,4277.436035,0.0,3.0,55.0,,,,0.0,4.0,0.0,4.0,0.0,4.0,33.333332,,,,,,,,,,,,,,,,,,,,,,,,,,,,,,,,,,,,,,,,,,,,,,,,,,,,,,,,,,,,,,,,,,,,,,,,,,,,,,,,,,,,
12847,1645651744.421551,26.0,0.0,3952.820557,4599.487305,4270.769043,4267.692383,4275.384765999999,0.0,3.0,55.0,,,,0.0,4.0,0.0,4.0,0.0,4.0,33.333332,,,,,,,,13.0,0.0,0.45397299999999996,0.513916,0.267334,-0.677002,0.944839,-0.09765800000000001,-0.340337,-0.018591,-0.047706,-0.041407,,,,,,,,,,,,,,,,,,,,,,,,,,,,,,,,,,,,,,,,,,,,,,,,,,,,,,,,,,,,,,,,,
12848,1645651744.429368,27.0,0.0,3936.4101560000004,4596.922852000001,4246.666504,4267.179688,4259.487305,0.0,3.0,55.0,,,,0.0,4.0,0.0,4.0,0.0,4.0,33.333332,,,,,,,,,,,,,,,,,,,,,,,,,,,,,,,,,,,,,,,,,,,,,,,,,,,,,,,,,,,,,,,,,,,,,,,,,,,,,,,,,,,,
12849,1645651744.437185,28.0,0.0,3944.102539,4631.794922,4250.256348,4269.230957,4254.871582,0.0,3.0,55.0,,,,0.0,4.0,0.0,4.0,0.0,4.0,33.333332,,,,,,,,14.0,0.0,0.45397299999999996,0.513916,0.267334,-0.677002,0.9399559999999999,-0.11084200000000001,-0.336431,-0.019125,-0.047769,-0.043028,,,,,,,,,,,,,,,,,,,,,,,,,,,,,,,,,,,0.0,0.0,1.0,0.0,512.0,1.0,,,,,,,,,,,,,,,,,,,,,,,,,
12850,1645651744.4450018,29.0,0.0,3985.1281740000004,4654.871582,4274.871582,4268.717772999999,4284.102539,0.0,3.0,55.0,,,,0.0,4.0,0.0,4.0,0.0,4.0,33.333332,,,,,,,,,,,,,,,,,,,,,,,,,,,,,,,,,,,,,,,,,,,,,,,,,,,,,,,,,,,,,,,,,,,,,,,,,,,,,,,,,,,,
12851,1645651744.452818,30.0,0.0,3986.1538090000004,4630.769043,4274.358886999999,4271.282227000001,4284.102539,0.0,3.0,55.0,,,,0.0,4.0,0.0,4.0,0.0,4.0,33.333332,,,,,,,,15.0,0.0,0.45397299999999996,0.513916,0.267334,-0.677002,0.9511860000000001,-0.119631,-0.336919,-0.019556,-0.047875,-0.038286,,,,,,,,,,,,,,,,,,,,,,,,,,,,,,,,,,,,,,,,,,,,,,,,,,,,,,,,,,,,,,,,,
12852,1645651744.460736,31.0,0.0,3961.025635,4591.282227000001,4253.846191,4274.871582,4256.922852000001,0.0,3.0,55.0,,,,0.0,4.0,0.0,4.0,0.0,4.0,33.333332,,,,,,,,,,,,,,,,,,,,,,,,,,,,,,,,,,,,,,,,,,,,,,,,,,,,,,,,,,,,,,,,,,,,,,,,,,,,,,,,,,,,
12853,1645651744.4685528,32.0,0.0,3976.4101560000004,4592.307617,4265.128418,4269.230957,4262.05127,0.0,3.0,55.0,,,,0.0,4.0,0.0,4.0,0.0,4.0,33.333332,,,,,,,,16.0,0.0,0.453696,0.5141600000000001,0.267334,-0.677002,0.94435,-0.1084,-0.340826,-0.018382,-0.047873,-0.040268,,,,,,,,,,,,,,,,,,,,,,,,,,,,,,,,,,,0.0,0.0,1.0,0.0,512.0,1.0,,,,,,,,,,,,,,,,,,,,,,,,,
12854,1645651744.4763699,33.0,0.0,3994.8718259999996,4596.922852000001,4269.230957,4264.102539,4275.384765999999,0.0,3.0,55.0,,,,0.0,4.0,0.0,4.0,0.0,4.0,33.333332,,,,,,,,,,,,,,,,,,,,,,,,,,,,,,,,,,,,,,,,,,,,,,,,,,,,,,,,,,,,,,,,,,,,,,,,,,,,,,,,,,,,
12855,1645651744.484187,34.0,0.0,3976.923096,4625.128418,4251.282227000001,4267.179688,4263.589844,0.0,3.0,55.0,,,,0.0,4.0,0.0,4.0,0.0,4.0,33.333332,,,,,,,,17.0,0.0,0.453696,0.5141600000000001,0.267334,-0.677002,0.948257,-0.11425999999999999,-0.326177,-0.018887,-0.047871,-0.035704,,,,,,,,,,,,,,,,,,,,,,,,,,,,,,,,,,,,,,,,,,,,,,,,,,,,,,,,,,,,,,,,,
12856,1645651744.4921038,35.0,0.0,3973.8461909999996,4645.128418,4229.230957,4267.692383,4249.743652,0.0,3.0,55.0,,,,0.0,4.0,0.0,4.0,0.0,4.0,33.333332,,,,,,,,,,,,,,,,,,,,,,,,,,,,,,,,,,,,,,,,,,,,,,,,,,,,,,,,,,,,,,,,,,,,,,,,,,,,,,,,,,,,
12857,1645651744.499921,36.0,0.0,3992.3076170000004,4619.487305,4247.179688,4265.128418,4258.974121,0.0,3.0,55.0,,,,0.0,4.0,0.0,4.0,0.0,4.0,33.333332,,,,,,,,18.0,0.0,0.453696,0.5141600000000001,0.267334,-0.677002,0.95021,-0.112795,-0.338384,-0.019196,-0.047869,-0.037895,1.0,0.0,0.0,,,,,,,,,,,,,,,,,,,,,,,,,,,,,,,,0.0,0.0,1.0,0.0,512.0,1.0,4903.515625,1391.170166,146.817322,14.567822,2.016975,92.929138,77.710571,92.313194,32.662502,28.519844,4.416974,2.9102189999999997,5.711151999999999,1.566168,1.508048,8.179525,0.303264,0.038598,0.011909000000000001,0.01366,5.343756,3.1556490000000004,2.283455,2.5118110000000002,2.209005
12858,1645651744.507738,37.0,0.0,4003.076904,4652.820313,4264.102539,4268.717772999999,4281.538574,0.0,3.0,55.0,,,,0.0,4.0,0.0,4.0,0.0,4.0,33.333332,,,,,,,,,,,,,,,,,,,,,,,,,,,,,,,,,,,,,,,,,,,,,,,,,,,,,,,,,,,,,,,,,,,,,,,,,,,,,,,,,,,,
12859,1645651744.5155551,38.0,0.0,3994.358887,4721.025879,4251.282227000001,4270.769043,4276.410156,0.0,3.0,55.0,,,,0.0,4.0,0.0,4.0,0.0,4.0,33.333332,,,,,,,,19.0,0.0,0.453696,0.5141600000000001,0.267334,-0.677002,0.947768,-0.101564,-0.331548,-0.019669,-0.047818,-0.039916,,,,,,,,,,,,,,,,,,,,,,,,,,,,,,,,,,,,,,,,,,,,,,,,,,,,,,,,,,,,,,,,,
12860,1645651744.5233722,39.0,0.0,3974.358887,4673.333496,4222.563965,4268.205078,4244.615234000001,0.0,3.0,55.0,,,,0.0,4.0,0.0,4.0,0.0,4.0,33.333332,,,,,,,,,,,,,,,,,,,,,,,,,,,,,,,,,,,,,,,,,,,,,,,,,,,,,,,,,,,,,,,,,,,,,,,,,,,,,,,,,,,,
12861,1645651744.531189,40.0,0.0,3972.3076170000004,4577.436035,4217.94873,4268.205078,4235.897461,0.0,3.0,55.0,,,,0.0,4.0,0.0,4.0,0.0,4.0,33.333332,,,,,,,,20.0,0.0,0.453696,0.5141600000000001,0.267334,-0.677002,0.9511860000000001,-0.098634,-0.332036,-0.017849,-0.047822,-0.041783999999999995,,,,,,,,,,,,,,,,,,,,,,,,,,,,,,,,,,,0.0,0.0,1.0,0.0,512.0,1.0,,,,,,,,,,,,,,,,,,,,,,,,,
12862,1645651744.539007,41.0,0.0,4001.025635,4625.128418,4233.333496,4268.717772999999,4265.641113000001,0.0,3.0,55.0,,,,0.0,4.0,0.0,4.0,0.0,4.0,33.333332,,,,,,,,,,,,,,,,,,,,,,,,,,,,,,,,,,,,,,,,,,,,,,,,,,,,,,,,,,,,,,,,,,,,,,,,,,,,,,,,,,,,
12863,1645651744.5469232,42.0,0.0,3996.4101560000004,4706.666504,4228.205078,4268.717772999999,4258.974121,0.0,3.0,55.0,,,,0.0,4.0,0.0,4.0,0.0,4.0,33.333332,,,,,,,,21.0,0.0,0.45333199999999996,0.5141600000000001,0.267334,-0.677246,0.953628,-0.10009900000000001,-0.33350100000000005,-0.016161000000000002,-0.047874,-0.043465,,,,,,,,,,,,,,,,,,,,,,,,,,,,,,,,,,,,,,,,,,,,,,,,,,,,,,,,,,,,,,,,,
12864,1645651744.55474,43.0,0.0,3984.102539,4666.153809,4224.102539,4268.205078,4241.025879,0.0,3.0,55.0,,,,0.0,4.0,0.0,4.0,0.0,4.0,33.333332,,,,,,,,,,,,,,,,,,,,,,,,,,,,,,,,,,,,,,,,,,,,,,,,,,,,,,,,,,,,,,,,,,,,,,,,,,,,,,,,,,,,
12865,1645651744.562558,44.0,0.0,3996.4101560000004,4621.025879,4221.538574,4268.205078,4247.692383,0.0,3.0,55.0,,,,0.0,4.0,0.0,4.0,0.0,4.0,33.333332,,,,,,,,22.0,0.0,0.453608,0.513916,0.267334,-0.677246,0.954116,-0.099123,-0.34912600000000005,-0.017034999999999998,-0.047823000000000004,-0.044929000000000004,,,,,,,,,,,,,,,,,,,,,,,,,,,,,,,,,,,0.0,0.0,1.0,0.0,512.0,1.0,,,,,,,,,,,,,,,,,,,,,,,,,
12866,1645651744.570375,45.0,0.0,4007.179443,4647.692383,4230.769043,4271.794922,4256.922852000001,0.0,3.0,55.0,,,,0.0,4.0,0.0,4.0,0.0,4.0,33.333332,,,,,,,,,,,,,,,,,,,,,,,,,,,,,,,,,,,,,,,,,,,,,,,,,,,,,,,,,,,,,,,,,,,,,,,,,,,,,,,,,,,,
12867,1645651744.578192,46.0,0.0,4010.7692869999996,4662.563965,4232.307617,4271.794922,4253.846191,0.0,3.0,55.0,,,,0.0,4.0,0.0,4.0,0.0,4.0,33.333332,,,,,,,,23.0,0.0,0.453608,0.513916,0.267334,-0.677246,0.960464,-0.104494,-0.339361,-0.017725,-0.047923,-0.039948000000000004,,,,,,,,,,,,,,,,,,,,,,,,,,,,,,,,,,,,,,,,,,,,,,,,,,,,,,,,,,,,,,,,,
12868,1645651744.586009,47.0,0.0,4028.718018,4620.512695,4249.743652,4267.692383,4262.563965,0.0,3.0,55.0,,,,0.0,4.0,0.0,4.0,0.0,4.0,33.333332,,,,,,,,,,,,,,,,,,,,,,,,,,,,,,,,,,,,,,,,,,,,,,,,,,,,,,,,,,,,,,,,,,,,,,,,,,,,,,,,,,,,
12869,1645651744.593826,48.0,0.0,4031.281982,4627.179688,4249.743652,4267.179688,4268.205078,0.0,3.0,55.0,,,,0.0,4.0,0.0,4.0,0.0,4.0,33.333332,,,,,,,,24.0,0.0,0.45333199999999996,0.5141600000000001,0.267334,-0.677246,0.94435,-0.10009900000000001,-0.327642,-0.018247,-0.047965,-0.035464999999999997,,,,,,,,,,,,,,,,,,,,,,,,,,,,,,,,,,,0.0,0.0,1.0,0.0,512.0,1.0,,,,,,,,,,,,,,,,,,,,,,,,,
12870,1645651744.601643,49.0,1.0,4034.615479,4628.717772999999,4249.038574,4268.012695,4269.871582,0.0,3.0,55.0,,,,0.0,4.0,0.0,4.0,0.0,4.0,33.333332,,,,,,,,,,,,,,,,,,,,,,,,,,,,,,,,,,,,,,,,,,,,,,,,,,,,,,,,,,,,,,,,,,,,,,,,,,,,,,,,,,,,
12871,1645651744.6094599,50.0,1.0,4037.9487299999996,4630.256348,4248.333496,4268.846191,4271.538574,0.0,3.0,55.0,,,,0.0,4.0,0.0,4.0,0.0,4.0,33.333332,,,,,,,,25.0,1.0,0.453312,0.5141600000000001,0.267212,-0.677307,0.948501,-0.100343,-0.330083,-0.017803,-0.047987,-0.034469,,,,,,,,,,,,,,,,,,,,,,,,,,,,,,,,,,,,,,,,,,,,,,,,,,,,,,,,,,,,,,,,,
12872,1645651744.617277,51.0,1.0,4041.281982,4631.794922,4247.628418,4269.679688,4273.205078,0.0,3.0,55.0,,,,0.0,4.0,0.0,4.0,0.0,4.0,33.333332,,,,,,,,,,,,,,,,,,,,,,,,,,,,,,,,,,,,,,,,,,,,,,,,,,,,,,,,,,,,,,,,,,,,,,,,,,,,,,,,,,,,
12873,1645651744.625094,52.0,1.0,4044.615479,4633.333496,4246.922852000001,4270.512695,4274.871582,0.0,3.0,55.0,,,,0.0,4.0,0.0,4.0,0.0,4.0,33.333332,0.984375,0.0,0.0,0.0,4.0,0.0,4.0,26.0,1.0,0.453293,0.5141600000000001,0.26709,-0.6773680000000001,0.952651,-0.100587,-0.332525,-0.017359,-0.048007999999999995,-0.033472,1.0,0.0,0.0,,,,,,,,,,,,,,,,,,,,,,,,,,,,,,,,0.0,0.0,1.0,0.0,512.0,1.0,3452.0097659999997,923.2492070000001,92.686859,9.833767,2.046568,67.444427,59.156826,92.239525,33.0877,26.342813,4.106668,2.752626,6.350672,1.650468,1.494926,5.677917,0.19609000000000001,0.033318,0.010962000000000001,0.011807999999999999,4.440156,2.384016,3.124654,2.941863,2.394005
12874,1645651744.632911,53.0,1.0,4047.9487299999996,4634.871582,4246.217772999999,4271.346191,4276.538574,0.0,3.0,55.0,,,,0.0,4.0,0.0,4.0,0.0,4.0,33.333332,,,,,,,,,,,,,,,,,,,,,,,,,,,,,,,,,,,,,,,,,,,,,,,,,,,,,,,,,,,,,,,,,,,,,,,,,,,,,,,,,,,,
12875,1645651744.640728,54.0,1.0,4051.281982,4636.410156,4245.512695,4272.179688,4278.205078,0.0,3.0,55.0,,,,0.0,4.0,0.0,4.0,0.0,4.0,33.333332,,,,,,,,27.0,1.0,0.45327399999999995,0.5141600000000001,0.266968,-0.677429,0.956802,-0.100832,-0.334966,-0.016915,-0.04803,-0.032476,,,,,,,,,,,,,,,,,,,,,,,,,,,,,,,,,,,,,,,,,,,,,,,,,,,,,,,,,,,,,,,,,
12876,1645651744.648545,55.0,1.0,4054.615479,4637.94873,4244.807617,4273.012695,4279.871582,0.0,3.0,55.0,,,,0.0,4.0,0.0,4.0,0.0,4.0,33.333332,,,,,,,,,,,,,,,,,,,,,,,,,,,,,,,,,,,,,,,,,,,,,,,,,,,,,,,,,,,,,,,,,,,,,,,,,,,,,,,,,,,,
12877,1645651744.6563618,56.0,0.0,4057.9487299999996,4639.487305,4244.102539,4273.846191,4281.538574,0.0,3.0,55.0,,,,0.0,4.0,0.0,4.0,0.0,4.0,33.333332,,,,,,,,28.0,0.0,0.453255,0.5141600000000001,0.266846,-0.6774899999999999,0.960952,-0.101076,-0.337407,-0.016471,-0.048050999999999996,-0.031479,,,,,,,,,,,,,,,,,,,,,,,,,,,,,,,,,,,0.0,0.0,1.0,0.0,512.0,1.0,,,,,,,,,,,,,,,,,,,,,,,,,
12878,1645651744.664077,57.0,0.0,4065.641113,4644.102539,4240.512695,4273.846191,4274.358886999999,0.0,3.0,55.0,,,,0.0,4.0,0.0,4.0,0.0,4.0,33.333332,,,,,,,,,,,,,,,,,,,,,,,,,,,,,,,,,,,,,,,,,,,,,,,,,,,,,,,,,,,,,,,,,,,,,,,,,,,,,,,,,,,,
12879,1645651744.671892,58.0,0.0,4049.2307130000004,4638.974121,4227.692383,4272.820313,4244.102539,0.0,3.0,55.0,,,,0.0,4.0,0.0,4.0,0.0,4.0,33.333332,,,,,,,,29.0,0.0,0.453255,0.5141600000000001,0.266846,-0.6774899999999999,0.9546040000000001,-0.098146,-0.338872,-0.015605,-0.047983,-0.034044,,,,,,,,,,,,,,,,,,,,,,,,,,,,,,,,,,,,,,,,,,,,,,,,,,,,,,,,,,,,,,,,,
12880,1645651744.679707,59.0,0.0,4060.0,4662.05127,4231.794922,4272.307617,4263.589844,0.0,3.0,55.0,,,,0.0,4.0,0.0,4.0,0.0,4.0,33.333332,,,,,,,,,,,,,,,,,,,,,,,,,,,,,,,,,,,,,,,,,,,,,,,,,,,,,,,,,,,,,,,,,,,,,,,,,,,,,,,,,,,,
12881,1645651744.6875222,60.0,0.0,4106.153809,4707.179688,4255.897461,4268.717772999999,4317.94873,0.0,3.0,55.0,,,,0.0,4.0,0.0,4.0,0.0,4.0,33.333332,,,,,,,,30.0,0.0,0.453255,0.5141600000000001,0.266846,-0.6774899999999999,0.969741,-0.09033300000000001,-0.35108,-0.014825999999999999,-0.04797,-0.036352999999999996,,,,,,,,,,,,,,,,,,,,,,,,,,,,,,,,,,,0.0,0.0,1.0,0.0,512.0,1.0,,,,,,,,,,,,,,,,,,,,,,,,,
12882,1645651744.695338,61.0,0.0,4084.615479,4699.487305,4222.05127,4266.666504,4286.666504,0.0,3.0,55.0,,,,0.0,4.0,0.0,4.0,0.0,4.0,33.333332,,,,,,,,,,,,,,,,,,,,,,,,,,,,,,,,,,,,,,,,,,,,,,,,,,,,,,,,,,,,,,,,,,,,,,,,,,,,,,,,,,,,
12883,1645651744.703153,62.0,0.0,4025.1281740000004,4650.769043,4178.461426,4271.282227000001,4221.025879,0.0,3.0,55.0,,,,0.0,4.0,0.0,4.0,0.0,4.0,33.333332,,,,,,,,31.0,0.0,0.452834,0.514404,0.26709,-0.6774899999999999,0.951675,-0.092775,-0.34229,-0.015785,-0.048007,-0.038577,,,,,,,,,,,,,,,,,,,,,,,,,,,,,,,,,,,,,,,,,,,,,,,,,,,,,,,,,,,,,,,,,
12884,1645651744.710968,63.0,0.0,4044.615479,4676.922852000001,4184.615234000001,4271.794922,4242.05127,0.0,3.0,55.0,,,,0.0,4.0,0.0,4.0,0.0,4.0,33.333332,,,,,,,,,,,,,,,,,,,,,,,,,,,,,,,,,,,,,,,,,,,,,,,,,,,,,,,,,,,,,,,,,,,,,,,,,,,,,,,,,,,,
12885,1645651744.718783,64.0,0.0,4108.205078,4696.922852000001,4239.487305,4269.743652,4295.897461,450.0,3.0,55.0,,,,0.0,4.0,0.0,4.0,0.0,4.0,33.333332,,,,,,,,32.0,0.0,0.452834,0.514404,0.26709,-0.6774899999999999,0.9580219999999999,-0.09424,-0.33984899999999996,-0.01655,-0.047991000000000006,-0.03428,,,,,,,,,,,,,,,,,,,,,,,,,,,,,,,,,,,0.0,0.0,1.0,0.0,512.0,1.0,,,,,,,,,,,,,,,,,,,,,,,,,
12886,1645651744.726598,65.0,0.0,4111.794922,4620.512695,4253.333496,4273.333496,4286.153809,450.0,3.0,55.0,,,,0.0,4.0,0.0,4.0,0.0,4.0,33.333332,,,,,,,,,,,,,,,,,,,,,,,,,,,,,,,,,,,,,,,,,,,,,,,,,,,,,,,,,,,,,,,,,,,,,,,,,,,,,,,,,,,,
12887,1645651744.7344131,66.0,0.0,4073.8461909999996,4584.615234000001,4228.205078,4273.846191,4251.794922,16260.0,3.0,55.0,,,,0.0,4.0,0.0,4.0,0.0,4.0,33.333332,,,,,,,,33.0,0.0,0.452921,0.514648,0.26709,-0.677246,0.9594870000000001,-0.097169,-0.34766199999999997,-0.017287999999999998,-0.047831,-0.036614,,,,,,,,,,,,,,,,,,,,,,,,,,,,,,,,,,,,,,,,,,,,,,,,,,,,,,,,,,,,,,,,,
12888,1645651744.742128,67.0,0.0,4058.461426,4673.333496,4197.94873,4270.256348,4248.205078,450.0,3.0,55.0,,,,0.0,4.0,0.0,4.0,0.0,4.0,33.333332,,,,,,,,,,,,,,,,,,,,,,,,,,,,,,,,,,,,,,,,,,,,,,,,,,,,,,,,,,,,,,,,,,,,,,,,,,,,,,,,,,,,
12889,1645651744.749943,68.0,0.0,4081.025635,4739.487305,4213.846191,4271.794922,4267.179688,0.0,3.0,55.0,,,,0.0,4.0,0.0,4.0,0.0,4.0,33.333332,,,,,,,,34.0,0.0,0.452921,0.514648,0.26709,-0.677246,0.945327,-0.10547000000000001,-0.335943,-0.015705,-0.047735,-0.038763,1.0,0.0,0.0,,,,,,,,,,,,,,,,,,,,,,,,,,,,,,,,0.0,0.0,1.0,0.0,512.0,0.5422899999999999,2049.0385739999997,498.090637,47.549702,6.01912,2.14099,44.22435,40.945889,86.414932,31.893311999999998,24.38842,3.9571730000000005,2.502059,6.431902,1.706392,1.5313450000000002,3.238251,0.103324,0.025914999999999997,0.00987,0.00979,3.718882,1.8357430000000001,4.0454550000000005,3.342633,2.532351
12890,1645651744.757758,69.0,0.0,4114.358886999999,4683.077147999999,4242.05127,4276.410156,4276.922852000001,450.0,3.0,55.0,,,,0.0,4.0,0.0,4.0,0.0,4.0,33.333332,,,,,,,,,,,,,,,,,,,,,,,,,,,,,,,,,,,,,,,,,,,,,,,,,,,,,,,,,,,,,,,,,,,,,,,,,,,,,,,,,,,,
12891,1645651744.765573,70.0,0.0,4086.1538090000004,4628.205078,4209.743652,4273.333496,4236.922852000001,16181.0,3.0,55.0,,,,0.0,4.0,0.0,4.0,0.0,4.0,33.333332,,,,,,,,35.0,0.0,0.453142,0.514648,0.267334,-0.677002,0.9521629999999999,-0.105959,-0.333013,-0.016625,-0.047649000000000004,-0.040795,,,,,,,,,,,,,,,,,,,,,,,,,,,,,,,,,,,,,,,,,,,,,,,,,,,,,,,,,,,,,,,,,
12892,1645651744.7733881,71.0,0.0,4064.615479,4658.974121,4172.307617,4268.205078,4226.153809,450.0,3.0,55.0,,,,0.0,4.0,0.0,4.0,0.0,4.0,33.333332,,,,,,,,,,,,,,,,,,,,,,,,,,,,,,,,,,,,,,,,,,,,,,,,,,,,,,,,,,,,,,,,,,,,,,,,,,,,,,,,,,,,
12893,1645651744.781203,72.0,0.0,4107.179688,4669.743652,4200.0,4271.794922,4272.820313,450.0,3.0,55.0,,,,0.0,4.0,0.0,4.0,0.0,4.0,33.333332,,,,,,,,36.0,0.0,0.452921,0.514648,0.26709,-0.677246,0.9594870000000001,-0.097169,-0.34766199999999997,-0.017306000000000002,-0.047523,-0.036275999999999996,,,,,,,,,,,,,,,,,,,,,,,,,,,,,,,,,,,0.0,0.0,1.0,0.0,512.0,0.5422899999999999,,,,,,,,,,,,,,,,,,,,,,,,,
12894,1645651744.789017,73.0,0.0,4126.666504,4620.0,4234.358886999999,4275.897461,4286.666504,0.0,3.0,55.0,,,,0.0,4.0,0.0,4.0,0.0,4.0,33.333332,,,,,,,,,,,,,,,,,,,,,,,,,,,,,,,,,,,,,,,,,,,,,,,,,,,,,,,,,,,,,,,,,,,,,,,,,,,,,,,,,,,,
12895,1645651744.796832,74.0,0.0,4095.897461,4608.205078,4216.410156,4272.307617,4254.871582,450.0,3.0,55.0,,,,0.0,4.0,0.0,4.0,0.0,4.0,33.333332,,,,,,,,37.0,0.0,0.453142,0.514648,0.267334,-0.677002,0.9521629999999999,-0.105959,-0.333013,-0.018066,-0.047458,-0.038557,,,,,,,,,,,,,,,,,,,,,,,,,,,,,,,,,,,,,,,,,,,,,,,,,,,,,,,,,,,,,,,,,
12896,1645651744.804647,75.0,0.0,4104.615234000001,4656.410156,4197.94873,4269.743652,4263.589844,16228.0,3.0,55.0,,,,0.0,4.0,0.0,4.0,0.0,4.0,33.333332,,,,,,,,,,,,,,,,,,,,,,,,,,,,,,,,,,,,,,,,,,,,,,,,,,,,,,,,,,,,,,,,,,,,,,,,,,,,,,,,,,,,
12897,1645651744.8124619,76.0,0.0,4131.794922,4690.256348,4206.666504,4272.307617,4285.128418,450.0,3.0,55.0,,,,0.0,4.0,0.0,4.0,0.0,4.0,33.333332,,,,,,,,38.0,0.0,0.453142,0.514648,0.267334,-0.677002,0.9506979999999999,-0.11133,-0.333989,-0.018603,-0.047351,-0.034262,,,,,,,,,,,,,,,,,,,,,,,,,,,,,,,,,,,0.0,0.0,1.0,0.0,512.0,0.5422899999999999,,,,,,,,,,,,,,,,,,,,,,,,,
12898,1645651744.8201768,77.0,0.0,4141.538574,4649.743652,4244.615234000001,4273.846191,4290.769043,450.0,3.0,55.0,,,,0.0,4.0,0.0,4.0,0.0,4.0,33.333332,,,,,,,,,,,,,,,,,,,,,,,,,,,,,,,,,,,,,,,,,,,,,,,,,,,,,,,,,,,,,,,,,,,,,,,,,,,,,,,,,,,,
12899,1645651744.827992,78.0,0.0,4126.153809,4589.743652,4229.230957,4272.307617,4272.307617,450.0,3.0,55.0,,,,0.0,4.0,0.0,4.0,0.0,4.0,33.333332,,,,,,,,39.0,0.0,0.45299799999999996,0.514648,0.26757800000000004,-0.677002,0.9487450000000001,-0.09668099999999999,-0.32861799999999997,-0.019184,-0.047401,-0.030347000000000002,,,,,,,,,,,,,,,,,,,,,,,,,,,,,,,,,,,,,,,,,,,,,,,,,,,,,,,,,,,,,,,,,
12900,1645651744.835706,79.0,0.0,4090.7692869999996,4673.846191,4167.179688,4274.358886999999,4232.307617,16228.0,3.0,55.0,,,,0.0,4.0,0.0,4.0,0.0,4.0,33.333332,,,,,,,,,,,,,,,,,,,,,,,,,,,,,,,,,,,,,,,,,,,,,,,,,,,,,,,,,,,,,,,,,,,,,,,,,,,,,,,,,,,,
12901,1645651744.8434222,80.0,0.0,4096.410156,4762.563965,4150.769043,4274.358886999999,4228.205078,450.0,3.0,55.0,,,,0.0,4.0,0.0,4.0,0.0,4.0,33.333332,,,,,,,,40.0,0.0,0.453363,0.514648,0.26757800000000004,-0.676758,0.953628,-0.103029,-0.32813000000000003,-0.019561000000000002,-0.047349,-0.033025,,,,,,,,,,,,,,,,,,,,,,,,,,,,,,,,,,,0.0,0.0,1.0,0.0,512.0,0.5422899999999999,,,,,,,,,,,,,,,,,,,,,,,,,
12902,1645651744.8512368,81.0,0.0,4132.307617,4649.743652,4203.077147999999,4272.820313,4258.974121,450.0,3.0,55.0,,,,0.0,4.0,0.0,4.0,0.0,4.0,33.333332,,,,,,,,,,,,,,,,,,,,,,,,,,,,,,,,,,,,,,,,,,,,,,,,,,,,,,,,,,,,,,,,,,,,,,,,,,,,,,,,,,,,
12903,1645651744.859052,82.0,0.0,4129.230957,4593.333496,4207.692383,4274.358886999999,4260.0,450.0,3.0,55.0,,,,0.0,4.0,0.0,4.0,0.0,4.0,33.333332,,,,,,,,41.0,0.0,0.453219,0.514648,0.267822,-0.676758,0.957534,-0.1084,-0.335454,-0.017654,-0.047302,-0.029332,,,,,,,,,,,,,,,,,,,,,,,,,,,,,,,,,,,,,,,,,,,,,,,,,,,,,,,,,,,,,,,,,
12904,1645651744.866867,83.0,0.0,4117.436035,4653.846191,4198.974121,4272.307617,4256.410156,16228.0,3.0,55.0,,,,0.0,4.0,0.0,4.0,0.0,4.0,33.333332,,,,,,,,,,,,,,,,,,,,,,,,,,,,,,,,,,,,,,,,,,,,,,,,,,,,,,,,,,,,,,,,,,,,,,,,,,,,,,,,,,,,
12905,1645651744.874682,84.0,0.0,4134.871582,4618.974121,4214.358886999999,4267.692383,4274.358886999999,450.0,3.0,55.0,,,,0.0,4.0,0.0,4.0,0.0,4.0,33.333332,,,,,,,,42.0,0.0,0.452941,0.514893,0.267822,-0.676758,0.9511860000000001,-0.096193,-0.32422399999999996,-0.018427000000000002,-0.047258999999999995,-0.025958999999999996,1.0,0.0,0.0,,,,,,,,,,,,,,,,,,,,,,,,,,,,,,,,0.0,0.0,1.0,0.0,512.0,0.392827,1003.136658,205.292572,19.27984,3.660739,2.289119,28.321215000000002,27.289659999999998,75.96826899999999,29.352001,22.988905,4.023934,2.2325049999999997,5.893109,1.7018659999999999,1.6006559999999999,1.445654,0.044211,0.019072,0.009705,0.008573,3.3305949999999998,1.515234,4.788798,3.6096690000000002,2.611078
12906,1645651744.882497,85.0,0.0,4135.384765999999,4626.153809,4211.282227000001,4268.717772999999,4267.692383,450.0,3.0,55.0,,,,0.0,4.0,0.0,4.0,0.0,4.0,33.333332,,,,,,,,,,,,,,,,,,,,,,,,,,,,,,,,,,,,,,,,,,,,,,,,,,,,,,,,,,,,,,,,,,,,,,,,,,,,,,,,,,,,
12907,1645651744.890312,86.0,0.0,4121.538574,4674.871582,4192.307617,4271.794922,4243.589844,450.0,3.0,55.0,,,,0.0,4.0,0.0,4.0,0.0,4.0,33.333332,,,,,,,,43.0,0.0,0.452941,0.514893,0.267822,-0.676758,0.96144,-0.11230599999999999,-0.332036,-0.016682,-0.047318,-0.029077,,,,,,,,,,,,,,,,,,,,,,,,,,,,,,,,,,,,,,,,,,,,,,,,,,,,,,,,,,,,,,,,,
12908,1645651744.8981268,87.0,0.0,4110.769043,4600.0,4193.846191,4271.282227000001,4226.666504,16228.0,3.0,55.0,,,,0.0,4.0,0.0,4.0,0.0,4.0,33.333332,,,,,,,,,,,,,,,,,,,,,,,,,,,,,,,,,,,,,,,,,,,,,,,,,,,,,,,,,,,,,,,,,,,,,,,,,,,,,,,,,,,,
12909,1645651744.905942,88.0,0.0,4126.666504,4597.436035,4195.897461,4272.820313,4243.077147999999,450.0,3.0,55.0,,,,0.0,4.0,0.0,4.0,0.0,4.0,33.333332,,,,,,,,44.0,0.0,0.453028,0.515137,0.267822,-0.6765140000000001,0.95021,-0.101564,-0.341314,-0.015698,-0.047372000000000004,-0.032027999999999994,,,,,,,,,,,,,,,,,,,,,,,,,,,,,,,,,,,0.0,0.0,1.0,0.0,512.0,0.392827,,,,,,,,,,,,,,,,,,,,,,,,,
12910,1645651744.913758,89.0,0.0,4152.820313,4683.077147999999,4188.717772999999,4272.820313,4267.179688,450.0,3.0,55.0,,,,0.0,4.0,0.0,4.0,0.0,4.0,33.333332,,,,,,,,,,,,,,,,,,,,,,,,,,,,,,,,,,,,,,,,,,,,,,,,,,,,,,,,,,,,,,,,,,,,,,,,,,,,,,,,,,,,
12911,1645651744.921473,90.0,0.0,4152.820313,4615.384765999999,4187.692383,4270.256348,4263.077147999999,450.0,3.0,55.0,,,,0.0,4.0,0.0,4.0,0.0,4.0,33.333332,,,,,,,,45.0,0.0,0.452941,0.514893,0.267822,-0.676758,0.948257,-0.1084,-0.332036,-0.016521,-0.04742,-0.028386,,,,,,,,,,,,,,,,,,,,,,,,,,,,,,,,,,,,,,,,,,,,,,,,,,,,,,,,,,,,,,,,,
12912,1645651744.929287,91.0,0.0,4120.0,4547.692383,4164.102539,4271.282227000001,4239.487305,16228.0,3.0,55.0,,,,0.0,4.0,0.0,4.0,0.0,4.0,33.333332,,,,,,,,,,,,,,,,,,,,,,,,,,,,,,,,,,,,,,,,,,,,,,,,,,,,,,,,,,,,,,,,,,,,,,,,,,,,,,,,,,,,
12913,1645651744.937002,92.0,0.0,4115.897461,4651.282227000001,4148.205078,4273.333496,4245.641113000001,450.0,3.0,55.0,,,,0.0,4.0,0.0,4.0,0.0,4.0,33.333332,,,,,,,,46.0,0.0,0.453085,0.514893,0.26757800000000004,-0.676758,0.956558,-0.11133,-0.335943,-0.017261000000000002,-0.047463,-0.031309,,,,,,,,,,,,,,,,,,,,,,,,,,,,,,,,,,,0.0,0.0,1.0,0.0,512.0,0.392827,,,,,,,,,,,,,,,,,,,,,,,,,
12914,1645651744.944817,93.0,0.0,4142.563965,4717.94873,4148.205078,4271.282227000001,4258.461426,450.0,3.0,55.0,,,,0.0,4.0,0.0,4.0,0.0,4.0,33.333332,,,,,,,,,,,,,,,,,,,,,,,,,,,,,,,,,,,,,,,,,,,,,,,,,,,,,,,,,,,,,,,,,,,,,,,,,,,,,,,,,,,,
12915,1645651744.952632,94.0,0.0,4166.666504,4660.0,4167.179688,4270.256348,4262.05127,450.0,3.0,55.0,,,,0.0,4.0,0.0,4.0,0.0,4.0,33.333332,,,,,,,,47.0,0.0,0.452941,0.514893,0.267822,-0.676758,0.948257,-0.104005,-0.327642,-0.016219,-0.047501999999999996,-0.034038,,,,,,,,,,,,,,,,,,,,,,,,,,,,,,,,,,,,,,,,,,,,,,,,,,,,,,,,,,,,,,,,,
12916,1645651744.960447,95.0,0.0,4174.871582,4597.94873,4177.436035,4273.846191,4274.871582,16228.0,3.0,55.0,,,,0.0,4.0,0.0,4.0,0.0,4.0,33.333332,,,,,,,,,,,,,,,,,,,,,,,,,,,,,,,,,,,,,,,,,,,,,,,,,,,,,,,,,,,,,,,,,,,,,,,,,,,,,,,,,,,,
12917,1645651744.968262,96.0,0.0,4180.0,4633.846191,4173.846191,4275.384765999999,4282.563965,450.0,3.0,55.0,,,,0.0,4.0,0.0,4.0,0.0,4.0,33.333332,,,,,,,,48.0,0.0,0.452941,0.514893,0.267822,-0.676758,0.9463030000000001,-0.09472799999999999,-0.323735,-0.015378,-0.047537,-0.036396,,,,,,,,,,,,,,,,,,,,,,,,,,,,,,,,,,,0.0,0.0,1.0,0.0,512.0,0.392827,,,,,,,,,,,,,,,,,,,,,,,,,
12918,1645651744.9760768,97.0,0.0,4169.743652,4697.436035,4142.563965,4271.794922,4256.922852000001,450.0,3.0,55.0,,,,0.0,4.0,0.0,4.0,0.0,4.0,33.333332,,,,,,,,,,,,,,,,,,,,,,,,,,,,,,,,,,,,,,,,,,,,,,,,,,,,,,,,,,,,,,,,,,,,,,,,,,,,,,,,,,,,
12919,1645651744.983892,98.0,0.0,4144.615234000001,4655.897461,4153.333496,4273.846191,4239.487305,450.0,3.0,55.0,,,,0.0,4.0,0.0,4.0,0.0,4.0,33.333332,,,,,,,,49.0,0.0,0.452797,0.514893,0.26806599999999997,-0.676758,0.960952,-0.097169,-0.32910700000000004,-0.016281999999999998,-0.04752,-0.038567000000000004,,,,,,,,,,,,,,,,,,,,,,,,,,,,,,,,,,,,,,,,,,,,,,,,,,,,,,,,,,,,,,,,,
12920,1645651744.991707,99.0,0.0,4158.974121,4613.846191,4196.922852000001,4276.922852000001,4264.102539,16228.0,3.0,55.0,,,,0.0,4.0,0.0,4.0,0.0,4.0,33.333332,,,,,,,,,,,,,,,,,,,,,,,,,,,,,,,,,,,,,,,,,,,,,,,,,,,,,,,,,,,,,,,,,,,,,,,,,,,,,,,,,,,,
12921,1645651744.999522,100.0,0.0,4196.922852000001,4637.94873,4212.307617,4274.358886999999,4286.666504,450.0,3.0,55.0,,,,0.0,4.0,0.0,4.0,0.0,4.0,33.333332,,,,,,,,50.0,0.0,0.452797,0.514893,0.26806599999999997,-0.676758,0.946792,-0.100587,-0.33789600000000003,-0.016996999999999998,-0.047504000000000005,-0.034270999999999996,1.0,0.0,0.0,,,,,,,,,,,,,,,,,,,,,,,,,,,,,,,,0.0,0.0,1.0,0.0,512.0,0.390712,385.387787,58.426823,6.859806,2.568883,2.463748,21.000795,19.064049,62.531704000000005,25.846666,21.927311,4.2782849999999994,1.991516,4.918514,1.6434220000000002,1.684693,0.458267,0.020479,0.015184999999999999,0.011225,0.008978,3.30895,1.34471,5.0949290000000005,3.667536,2.647298
12922,1645651745.007237,101.0,0.0,4198.461426,4646.666504,4200.512695,4272.307617,4284.615234000001,450.0,3.0,55.0,,,,0.0,4.0,0.0,4.0,0.0,4.0,33.333332,,,,,,,,,,,,,,,,,,,,,,,,,,,,,,,,,,,,,,,,,,,,,,,,,,,,,,,,,,,,,,,,,,,,,,,,,,,,,,,,,,,,
12923,1645651745.0150518,102.0,0.0,4186.153809,4629.743652,4208.717772999999,4272.820313,4277.436035,450.0,3.0,55.0,,,,0.0,4.0,0.0,4.0,0.0,4.0,33.333332,,,,,,,,51.0,0.0,0.452797,0.514893,0.26806599999999997,-0.676758,0.9589989999999999,-0.093263,-0.35108,-0.017837000000000002,-0.047441000000000004,-0.036654,,,,,,,,,,,,,,,,,,,,,,,,,,,,,,,,,,,,,,,,,,,,,,,,,,,,,,,,,,,,,,,,,
12924,1645651745.022867,103.0,0.0,4210.256348,4590.769043,4234.358886999999,4275.384765999999,4287.692383,16228.0,3.0,55.0,,,,0.0,4.0,0.0,4.0,0.0,4.0,33.333332,,,,,,,,,,,,,,,,,,,,,,,,,,,,,,,,,,,,,,,,,,,,,,,,,,,,,,,,,,,,,,,,,,,,,,,,,,,,,,,,,,,,
12925,1645651745.030682,104.0,0.0,4212.820313,4564.102539,4241.025879,4276.922852000001,4281.538574,450.0,3.0,55.0,,,,0.0,4.0,0.0,4.0,0.0,4.0,33.333332,,,,,,,,52.0,0.0,0.45265200000000005,0.514893,0.268311,-0.676758,0.94435,-0.103029,-0.334966,-0.018446,-0.047531,-0.038848,,,,,,,,,,,,,,,,,,,,,,,,,,,,,,,,,,,0.0,0.0,1.0,0.0,512.0,0.390712,,,,,,,,,,,,,,,,,,,,,,,,,
12926,1645651745.038497,105.0,0.0,4176.922852000001,4609.743652,4214.871582,4275.384765999999,4258.974121,450.0,3.0,55.0,,,,0.0,4.0,0.0,4.0,0.0,4.0,33.333332,,,,,,,,,,,,,,,,,,,,,,,,,,,,,,,,,,,,,,,,,,,,,,,,,,,,,,,,,,,,,,,,,,,,,,,,,,,,,,,,,,,,
12927,1645651745.0463119,106.0,0.0,4161.538574,4653.846191,4189.230957,4275.897461,4236.410156,450.0,3.0,55.0,,,,0.0,4.0,0.0,4.0,0.0,4.0,33.333332,,,,,,,,53.0,0.0,0.453294,0.514648,0.268311,-0.6765140000000001,0.9404440000000001,-0.102052,-0.335943,-0.018798,-0.047563,-0.034573,,,,,,,,,,,,,,,,,,,,,,,,,,,,,,,,,,,,,,,,,,,,,,,,,,,,,,,,,,,,,,,,,
12928,1645651745.054128,107.0,0.0,4180.512695,4617.94873,4209.743652,4276.922852000001,4249.743652,16228.0,3.0,55.0,,,,0.0,4.0,0.0,4.0,0.0,4.0,33.333332,,,,,,,,,,,,,,,,,,,,,,,,,,,,,,,,,,,,,,,,,,,,,,,,,,,,,,,,,,,,,,,,,,,,,,,,,,,,,,,,,,,,
12929,1645651745.061943,108.0,0.0,4188.717772999999,4603.077147999999,4227.692383,4272.307617,4271.282227000001,450.0,3.0,55.0,,,,0.0,4.0,0.0,4.0,0.0,4.0,33.333332,,,,,,,,54.0,0.0,0.45315,0.514648,0.26855500000000004,-0.6765140000000001,0.948257,-0.096193,-0.32959499999999997,-0.019213,-0.047494999999999996,-0.036926,,,,,,,,,,,,,,,,,,,,,,,,,,,,,,,,,,,0.0,0.0,1.0,0.0,512.0,0.390712,,,,,,,,,,,,,,,,,,,,,,,,,
12930,1645651745.069758,109.0,0.0,4192.820313,4650.769043,4226.666504,4270.769043,4269.230957,450.0,3.0,55.0,,,,0.0,4.0,0.0,4.0,0.0,4.0,33.333332,,,,,,,,,,,,,,,,,,,,,,,,,,,,,,,,,,,,,,,,,,,,,,,,,,,,,,,,,,,,,,,,,,,,,,,,,,,,,,,,,,,,
12931,1645651745.077573,110.0,0.0,4203.077147999999,4663.077147999999,4224.102539,4273.333496,4263.077147999999,450.0,3.0,55.0,,,,0.0,4.0,0.0,4.0,0.0,4.0,33.333332,,,,,,,,55.0,0.0,0.453294,0.514648,0.268311,-0.6765140000000001,0.9546040000000001,-0.109377,-0.336919,-0.017439,-0.047481999999999996,-0.032794,,,,,,,,,,,,,,,,,,,,,,,,,,,,,,,,,,,,,,,,,,,,,,,,,,,,,,,,,,,,,,,,,
12932,1645651745.085288,111.0,0.0,4211.794922,4629.230957,4243.077147999999,4272.820313,4271.794922,16228.0,3.0,55.0,,,,0.0,4.0,0.0,4.0,0.0,4.0,33.333332,,,,,,,,,,,,,,,,,,,,,,,,,,,,,,,,,,,,,,,,,,,,,,,,,,,,,,,,,,,,,,,,,,,,,,,,,,,,,,,,,,,,
12933,1645651745.093103,112.0,0.0,4234.358886999999,4614.358886999999,4248.717772999999,4273.846191,4288.717772999999,450.0,3.0,55.0,,,,0.0,4.0,0.0,4.0,0.0,4.0,33.333332,,,,,,,,56.0,0.0,0.453294,0.514648,0.268311,-0.6765140000000001,0.96144,-0.106447,-0.338384,-0.015841,-0.047567,-0.035423,,,,,,,,,,,,,,,,,,,,,,,,,,,,,,,,,,,0.0,0.0,1.0,0.0,512.0,0.390712,,,,,,,,,,,,,,,,,,,,,,,,,
12934,1645651745.100918,113.0,0.0,4228.205078,4645.641113000001,4241.538574,4274.871582,4282.05127,450.0,3.0,55.0,,,,0.0,4.0,0.0,4.0,0.0,4.0,33.333332,,,,,,,,,,,,,,,,,,,,,,,,,,,,,,,,,,,,,,,,,,,,,,,,,,,,,,,,,,,,,,,,,,,,,,,,,,,,,,,,,,,,
12935,1645651745.108733,114.0,0.0,4181.538574,4677.436035,4217.436035,4274.871582,4251.282227000001,450.0,3.0,55.0,,,,0.0,4.0,0.0,4.0,0.0,4.0,33.333332,,,,,,,,57.0,0.0,0.45293,0.514648,0.268311,-0.676758,0.941421,-0.101076,-0.32422399999999996,-0.016600999999999998,-0.047547000000000006,-0.037594,,,,,,,,,,,,,,,,,,,,,,,,,,,,,,,,,,,,,,,,,,,,,,,,,,,,,,,,,,,,,,,,,
12936,1645651745.116547,115.0,0.0,4178.974121,4690.256348,4222.563965,4276.410156,4244.102539,16228.0,3.0,55.0,,,,0.0,4.0,0.0,4.0,0.0,4.0,33.333332,,,,,,,,,,,,,,,,,,,,,,,,,,,,,,,,,,,,,,,,,,,,,,,,,,,,,,,,,,,,,,,,,,,,,,,,,,,,,,,,,,,,
12937,1645651745.124362,116.0,0.0,4232.307617,4722.563965,4245.641113000001,4276.410156,4274.871582,450.0,3.0,55.0,,,,0.0,4.0,0.0,4.0,0.0,4.0,33.333332,0.972656,0.0,0.0,0.0,4.0,0.0,4.0,58.0,0.0,0.453294,0.514648,0.268311,-0.6765140000000001,0.949722,-0.10254100000000001,-0.332036,-0.017381999999999998,-0.047626,-0.033395,1.0,0.0,0.0,,,,,,,,,,,,,,,,,,,,,,,,,,,,,,,,0.0,0.0,1.0,0.0,512.0,0.717943,105.35189799999999,10.749928,3.536393,2.163194,2.646938,19.737935999999998,14.584499,48.066032,21.900869,20.80846,4.624042,1.7737040000000002,3.85477,1.568278,1.7952439999999998,0.092113,0.020482,0.015350999999999998,0.014348,0.011397,3.3987629999999998,1.2315969999999998,4.862312,3.5006800000000005,2.683825
12938,1645651745.1321769,117.0,0.0,4243.589844,4730.769043,4251.282227000001,4275.384765999999,4283.589844,450.0,3.0,55.0,,,,0.0,4.0,0.0,4.0,0.0,4.0,33.333332,,,,,,,,,,,,,,,,,,,,,,,,,,,,,,,,,,,,,,,,,,,,,,,,,,,,,,,,,,,,,,,,,,,,,,,,,,,,,,,,,,,,
12939,1645651745.139992,118.0,0.0,4222.05127,4689.743652,4243.589844,4276.922852000001,4264.102539,450.0,3.0,55.0,,,,0.0,4.0,0.0,4.0,0.0,4.0,33.333332,,,,,,,,59.0,0.0,0.453017,0.514893,0.268311,-0.6765140000000001,0.9663229999999999,-0.088869,-0.3252,-0.017988,-0.047649000000000004,-0.035817,,,,,,,,,,,,,,,,,,,,,,,,,,,,,,,,,,,,,,,,,,,,,,,,,,,,,,,,,,,,,,,,,
12940,1645651745.1478071,119.0,0.0,4218.974121,4643.589844,4255.384765999999,4274.871582,4262.563965,16228.0,3.0,55.0,,,,0.0,4.0,0.0,4.0,0.0,4.0,33.333332,,,,,,,,,,,,,,,,,,,,,,,,,,,,,,,,,,,,,,,,,,,,,,,,,,,,,,,,,,,,,,,,,,,,,,,,,,,,,,,,,,,,
12941,1645651745.155522,120.0,0.0,4216.922852000001,4632.820313,4266.153809,4273.846191,4272.820313,450.0,3.0,55.0,,,,0.0,4.0,0.0,4.0,0.0,4.0,33.333332,,,,,,,,60.0,0.0,0.453017,0.514893,0.268311,-0.6765140000000001,0.956558,-0.098146,-0.341314,-0.018533,-0.047669,-0.031747000000000004,,,,,,,,,,,,,,,,,,,,,,,,,,,,,,,,,,,0.0,0.0,1.0,0.0,512.0,0.717943,,,,,,,,,,,,,,,,,,,,,,,,,
12942,1645651745.163337,121.0,0.0,4207.179688,4694.358886999999,4253.846191,4276.410156,4258.974121,450.0,3.0,55.0,,,,0.0,4.0,0.0,4.0,0.0,4.0,33.333332,,,,,,,,,,,,,,,,,,,,,,,,,,,,,,,,,,,,,,,,,,,,,,,,,,,,,,,,,,,,,,,,,,,,,,,,,,,,,,,,,,,,
12943,1645651745.1711519,122.0,0.0,4232.820313,4732.307617,4273.846191,4276.410156,4278.974121,450.0,3.0,55.0,,,,0.0,4.0,0.0,4.0,0.0,4.0,33.333332,,,,,,,,61.0,0.0,0.45338100000000003,0.514893,0.268311,-0.6762699999999999,0.9594870000000001,-0.09765800000000001,-0.32959499999999997,-0.016777,-0.047639,-0.034333999999999996,,,,,,,,,,,,,,,,,,,,,,,,,,,,,,,,,,,,,,,,,,,,,,,,,,,,,,,,,,,,,,,,,
12944,1645651745.178967,123.0,0.0,4257.94873,4690.256348,4304.615234000001,4275.897461,4313.333496,16228.0,3.0,55.0,,,,0.0,4.0,0.0,4.0,0.0,4.0,33.333332,,,,,,,,,,,,,,,,,,,,,,,,,,,,,,,,,,,,,,,,,,,,,,,,,,,,,,,,,,,,,,,,,,,,,,,,,,,,,,,,,,,,
12945,1645651745.1867812,124.0,0.0,4254.871582,4676.410156,4289.230957,4276.922852000001,4294.871582,450.0,3.0,55.0,,,,0.0,4.0,0.0,4.0,0.0,4.0,33.333332,,,,,,,,62.0,0.0,0.453237,0.514893,0.26855500000000004,-0.6762699999999999,0.9521629999999999,-0.10351700000000001,-0.331548,-0.017443,-0.047562,-0.03676,,,,,,,,,,,,,,,,,,,,,,,,,,,,,,,,,,,0.0,0.0,1.0,0.0,512.0,0.717943,,,,,,,,,,,,,,,,,,,,,,,,,
12946,1645651745.194596,125.0,0.0,4246.153809,4693.846191,4261.538574,4276.410156,4258.974121,450.0,3.0,55.0,,,,0.0,4.0,0.0,4.0,0.0,4.0,33.333332,,,,,,,,,,,,,,,,,,,,,,,,,,,,,,,,,,,,,,,,,,,,,,,,,,,,,,,,,,,,,,,,,,,,,,,,,,,,,,,,,,,,
12947,1645651745.202411,126.0,0.0,4258.974121,4625.128418,4294.871582,4275.897461,4280.0,450.0,3.0,55.0,,,,0.0,4.0,0.0,4.0,0.0,4.0,33.333332,,,,,,,,63.0,0.0,0.453237,0.514893,0.26855500000000004,-0.6762699999999999,0.953628,-0.105959,-0.345708,-0.018189,-0.047543,-0.032694,,,,,,,,,,,,,,,,,,,,,,,,,,,,,,,,,,,,,,,,,,,,,,,,,,,,,,,,,,,,,,,,,
12948,1645651745.210226,127.0,0.0,4254.871582,4561.538574,4299.487305,4276.410156,4295.897461,234.0,3.0,55.0,,,,0.0,4.0,0.0,4.0,0.0,4.0,33.333332,,,,,,,,,,,,,,,,,,,,,,,,,,,,,,,,,,,,,,,,,,,,,,,,,,,,,,,,,,,,,,,,,,,,,,,,,,,,,,,,,,,,
12949,1645651745.218041,0.0,0.0,4244.102539,4648.205078,4273.333496,4276.410156,4272.820313,450.0,3.0,55.0,,,,0.0,4.0,0.0,4.0,0.0,4.0,33.333332,,,,,,,,0.0,0.0,0.45338100000000003,0.514893,0.268311,-0.6762699999999999,0.9594870000000001,-0.09765800000000001,-0.32959499999999997,-0.018713999999999998,-0.047574,-0.028985000000000004,,,,,,,,,,,,,,,,,,,,,,,,,,,,,,,,,,,0.0,0.0,1.0,0.0,512.0,0.717943,,,,,,,,,,,,,,,,,,,,,,,,,
12950,1645651745.225856,1.0,0.0,4261.025879,4736.410156,4256.922852000001,4277.94873,4274.358886999999,450.0,3.0,55.0,,,,0.0,4.0,0.0,4.0,0.0,4.0,33.333332,,,,,,,,,,,,,,,,,,,,,,,,,,,,,,,,,,,,,,,,,,,,,,,,,,,,,,,,,,,,,,,,,,,,,,,,,,,,,,,,,,,,
12951,1645651745.233571,2.0,0.0,4254.871582,4717.94873,4235.384765999999,4277.436035,4283.077147999999,16262.0,3.0,55.0,,,,0.0,4.0,0.0,4.0,0.0,4.0,33.333332,,,,,,,,1.0,0.0,0.453237,0.514893,0.26855500000000004,-0.6762699999999999,0.953628,-0.105959,-0.345708,-0.019333000000000003,-0.047553,-0.025695999999999997,,,,,,,,,,,,,,,,,,,,,,,,,,,,,,,,,,,,,,,,,,,,,,,,,,,,,,,,,,,,,,,,,
12952,1645651745.241386,3.0,0.0,4233.846191,4687.179688,4209.743652,4273.846191,4269.743652,450.0,3.0,55.0,,,,0.0,4.0,0.0,4.0,0.0,4.0,33.333332,,,,,,,,,,,,,,,,,,,,,,,,,,,,,,,,,,,,,,,,,,,,,,,,,,,,,,,,,,,,,,,,,,,,,,,,,,,,,,,,,,,,
12953,1645651745.249201,4.0,0.0,4255.897461,4657.436035,4240.0,4273.846191,4282.563965,0.0,3.0,55.0,,,,0.0,4.0,0.0,4.0,0.0,4.0,33.333332,,,,,,,,2.0,0.0,0.453092,0.514893,0.26879899999999995,-0.6762699999999999,0.956558,-0.101076,-0.336919,-0.019791999999999997,-0.047534,-0.022588999999999998,1.0,0.0,0.0,,,,,,,,,,,,,,,,,,,,,,,,,,,,,,,,0.0,0.0,1.0,0.0,512.0,0.788826,14.298526,2.4892279999999998,2.831604,2.0020580000000003,2.831413,20.186708,11.733688,34.668694,18.027447,19.471315,5.054479,1.574,3.05435,1.53708,1.96417,0.017519,0.030088999999999998,0.019321,0.018142,0.015603,3.4701440000000003,1.121861,4.221226000000001,3.185629,2.7583919999999997
12954,1645651745.257016,5.0,0.0,4300.0,4617.94873,4269.743652,4276.922852000001,4321.538574,450.0,3.0,55.0,,,,0.0,4.0,0.0,4.0,0.0,4.0,33.333332,,,,,,,,,,,,,,,,,,,,,,,,,,,,,,,,,,,,,,,,,,,,,,,,,,,,,,,,,,,,,,,,,,,,,,,,,,,,,,,,,,,,
12955,1645651745.26483,6.0,0.0,4296.410156,4642.05127,4238.461426,4276.410156,4311.282227000001,16150.0,3.0,55.0,,,,0.0,4.0,0.0,4.0,0.0,4.0,33.333332,,,,,,,,3.0,0.0,0.453456,0.514893,0.26879899999999995,-0.676025,0.9677879999999999,-0.098634,-0.32959499999999997,-0.020156999999999998,-0.047663,-0.026043,,,,,,,,,,,,,,,,,,,,,,,,,,,,,,,,,,,,,,,,,,,,,,,,,,,,,,,,,,,,,,,,,
12956,1645651745.272645,7.0,0.0,4270.769043,4697.94873,4198.461426,4275.897461,4270.256348,450.0,3.0,55.0,,,,0.0,4.0,0.0,4.0,0.0,4.0,33.333332,,,,,,,,,,,,,,,,,,,,,,,,,,,,,,,,,,,,,,,,,,,,,,,,,,,,,,,,,,,,,,,,,,,,,,,,,,,,,,,,,,,,
12957,1645651745.28046,8.0,0.0,4268.205078,4674.358886999999,4205.128418,4275.897461,4263.589844,450.0,3.0,55.0,,,,0.0,4.0,0.0,4.0,0.0,4.0,33.333332,,,,,,,,4.0,0.0,0.45281400000000005,0.515137,0.26879899999999995,-0.6762699999999999,0.959976,-0.10009900000000001,-0.318853,-0.020631,-0.047633,-0.023048,,,,,,,,,,,,,,,,,,,,,,,,,,,,,,,,,,,0.0,0.0,1.0,0.0,512.0,0.788826,,,,,,,,,,,,,,,,,,,,,,,,,
12958,1645651745.288275,9.0,0.0,4271.794922,4616.410156,4224.615234000001,4276.922852000001,4285.128418,0.0,3.0,55.0,,,,0.0,4.0,0.0,4.0,0.0,4.0,33.333332,,,,,,,,,,,,,,,,,,,,,,,,,,,,,,,,,,,,,,,,,,,,,,,,,,,,,,,,,,,,,,,,,,,,,,,,,,,,,,,,,,,,
12959,1645651745.2960901,10.0,0.0,4251.794922,4631.282227000001,4207.692383,4277.436035,4265.128418,450.0,3.0,55.0,,,,0.0,4.0,0.0,4.0,0.0,4.0,33.333332,,,,,,,,5.0,0.0,0.453179,0.515137,0.26879899999999995,-0.676025,0.9350729999999999,-0.102052,-0.32813000000000003,-0.020961,-0.047655,-0.026505,,,,,,,,,,,,,,,,,,,,,,,,,,,,,,,,,,,,,,,,,,,,,,,,,,,,,,,,,,,,,,,,,
12960,1645651745.303805,11.0,0.0,4245.128418,4699.487305,4192.820313,4276.922852000001,4236.410156,16233.0,3.0,55.0,,,,0.0,4.0,0.0,4.0,0.0,4.0,33.333332,,,,,,,,,,,,,,,,,,,,,,,,,,,,,,,,,,,,,,,,,,,,,,,,,,,,,,,,,,,,,,,,,,,,,,,,,,,,,,,,,,,,
12961,1645651745.31162,12.0,0.0,4274.358886999999,4725.641113000001,4206.666504,4276.922852000001,4260.512695,450.0,3.0,55.0,,,,0.0,4.0,0.0,4.0,0.0,4.0,33.333332,,,,,,,,6.0,0.0,0.453034,0.515137,0.269043,-0.676025,0.95314,-0.08838,-0.330571,-0.018962,-0.047626,-0.029568,,,,,,,,,,,,,,,,,,,,,,,,,,,,,,,,,,,0.0,0.0,1.0,0.0,512.0,0.788826,,,,,,,,,,,,,,,,,,,,,,,,,
12962,1645651745.319435,13.0,0.0,4304.615234000001,4714.358886999999,4234.871582,4276.922852000001,4309.743652,450.0,3.0,55.0,,,,0.0,4.0,0.0,4.0,0.0,4.0,33.333332,,,,,,,,,,,,,,,,,,,,,,,,,,,,,,,,,,,,,,,,,,,,,,,,,,,,,,,,,,,,,,,,,,,,,,,,,,,,,,,,,,,,
12963,1645651745.32725,14.0,0.0,4290.769043,4687.692383,4215.897461,4275.384765999999,4297.436035,450.0,3.0,55.0,,,,0.0,4.0,0.0,4.0,0.0,4.0,33.333332,,,,,,,,7.0,0.0,0.453034,0.515137,0.269043,-0.676025,0.949722,-0.101564,-0.337407,-0.017115000000000002,-0.047698000000000004,-0.03247,,,,,,,,,,,,,,,,,,,,,,,,,,,,,,,,,,,,,,,,,,,,,,,,,,,,,,,,,,,,,,,,,
12964,1645651745.3350642,15.0,0.0,4268.717772999999,4626.666504,4196.410156,4274.358886999999,4256.410156,16233.0,3.0,55.0,,,,0.0,4.0,0.0,4.0,0.0,4.0,33.333332,,,,,,,,,,,,,,,,,,,,,,,,,,,,,,,,,,,,,,,,,,,,,,,,,,,,,,,,,,,,,,,,,,,,,,,,,,,,,,,,,,,,
12965,1645651745.3428788,16.0,0.0,4278.974121,4616.410156,4205.128418,4277.436035,4272.820313,0.0,3.0,55.0,,,,0.0,4.0,0.0,4.0,0.0,4.0,33.333332,,,,,,,,8.0,0.0,0.453034,0.515137,0.269043,-0.676025,0.9511860000000001,-0.10547000000000001,-0.333989,-0.017894,-0.047518,-0.035082999999999996,,,,,,,,,,,,,,,,,,,,,,,,,,,,,,,,,,,0.0,0.0,1.0,0.0,512.0,0.788826,,,,,,,,,,,,,,,,,,,,,,,,,
12966,1645651745.350694,17.0,0.0,4295.384765999999,4692.307617,4230.769043,4280.0,4304.102539,0.0,3.0,55.0,,,,0.0,4.0,0.0,4.0,0.0,4.0,33.333332,,,,,,,,,,,,,,,,,,,,,,,,,,,,,,,,,,,,,,,,,,,,,,,,,,,,,,,,,,,,,,,,,,,,,,,,,,,,,,,,,,,,
12967,1645651745.358509,18.0,0.0,4310.256348,4730.769043,4231.794922,4278.461426,4295.384765999999,0.0,3.0,55.0,,,,0.0,4.0,0.0,4.0,0.0,4.0,33.333332,,,,,,,,9.0,0.0,0.453034,0.515137,0.269043,-0.676025,0.9428850000000001,-0.105959,-0.335454,-0.018497,-0.0476,-0.037336,,,,,,,,,,,,,,,,,,,,,,,,,,,,,,,,,,,,,,,,,,,,,,,,,,,,,,,,,,,,,,,,,
12968,1645651745.366324,19.0,0.0,4314.358886999999,4676.410156,4236.922852000001,4276.922852000001,4281.025879,0.0,3.0,55.0,,,,0.0,4.0,0.0,4.0,0.0,4.0,33.333332,,,,,,,,,,,,,,,,,,,,,,,,,,,,,,,,,,,,,,,,,,,,,,,,,,,,,,,,,,,,,,,,,,,,,,,,,,,,,,,,,,,,
12969,1645651745.374139,20.0,0.0,4296.410156,4605.641113000001,4238.461426,4277.436035,4278.974121,0.0,3.0,55.0,,,,0.0,4.0,0.0,4.0,0.0,4.0,33.333332,,,,,,,,10.0,0.0,0.453034,0.515137,0.269043,-0.676025,0.969253,-0.09765800000000001,-0.34375500000000003,-0.019138,-0.047576,-0.033212,1.0,0.0,0.0,,,,,,,,,,,,,,,,,,,,,,,,,,,,,,,,0.0,0.0,1.0,0.0,512.0,0.7024560000000001,2.62655,1.4905540000000002,2.447845,1.9959040000000001,3.013697,19.664122,9.275803,23.897039000000003,14.62432,18.126909,5.625826999999999,1.427737,2.700749,1.582921,2.211709,0.01733,0.041589999999999995,0.025619,0.02131,0.020768000000000002,3.316013,1.024155,3.469521,2.840625,2.878079
12970,1645651745.3818538,21.0,0.0,4271.794922,4590.769043,4228.717772999999,4276.410156,4271.794922,0.0,3.0,55.0,,,,0.0,4.0,0.0,4.0,0.0,4.0,33.333332,,,,,,,,,,,,,,,,,,,,,,,,,,,,,,,,,,,,,,,,,,,,,,,,,,,,,,,,,,,,,,,,,,,,,,,,,,,,,,,,,,,,
12971,1645651745.389668,22.0,0.0,4291.794922,4638.974121,4245.641113000001,4275.384765999999,4287.179688,0.0,3.0,55.0,,,,0.0,4.0,0.0,4.0,0.0,4.0,33.333332,,,,,,,,11.0,0.0,0.453179,0.515137,0.26879899999999995,-0.676025,0.9487450000000001,-0.101076,-0.334966,-0.019568000000000002,-0.047702,-0.029549000000000002,,,,,,,,,,,,,,,,,,,,,,,,,,,,,,,,,,,,,,,,,,,,,,,,,,,,,,,,,,,,,,,,,
12972,1645651745.397383,23.0,0.0,4317.94873,4665.641113000001,4272.307617,4277.436035,4305.641113000001,0.0,3.0,55.0,,,,0.0,4.0,0.0,4.0,0.0,4.0,33.333332,,,,,,,,,,,,,,,,,,,,,,,,,,,,,,,,,,,,,,,,,,,,,,,,,,,,,,,,,,,,,,,,,,,,,,,,,,,,,,,,,,,,
12973,1645651745.405198,24.0,0.0,4312.820313,4646.153809,4255.384765999999,4279.487305,4298.461426,0.0,3.0,55.0,,,,0.0,4.0,0.0,4.0,0.0,4.0,33.333332,,,,,,,,12.0,0.0,0.45281400000000005,0.515137,0.26879899999999995,-0.6762699999999999,0.947768,-0.09033300000000001,-0.33105999999999997,-0.020052,-0.047717,-0.032405,,,,,,,,,,,,,,,,,,,,,,,,,,,,,,,,,,,0.0,0.0,1.0,0.0,512.0,0.7024560000000001,,,,,,,,,,,,,,,,,,,,,,,,,
12974,1645651745.413013,25.0,0.0,4300.0,4701.538574,4235.897461,4277.436035,4280.512695,0.0,3.0,55.0,,,,0.0,4.0,0.0,4.0,0.0,4.0,33.333332,,,,,,,,,,,,,,,,,,,,,,,,,,,,,,,,,,,,,,,,,,,,,,,,,,,,,,,,,,,,,,,,,,,,,,,,,,,,,,,,,,,,
12975,1645651745.4208279,26.0,0.0,4306.666504,4753.846191,4266.666504,4276.410156,4291.794922,0.0,3.0,55.0,,,,0.0,4.0,0.0,4.0,0.0,4.0,33.333332,,,,,,,,13.0,0.0,0.453092,0.514893,0.26879899999999995,-0.6762699999999999,0.9438620000000001,-0.098146,-0.323735,-0.02044,-0.047681,-0.034975,,,,,,,,,,,,,,,,,,,,,,,,,,,,,,,,,,,,,,,,,,,,,,,,,,,,,,,,,,,,,,,,,
12976,1645651745.428643,27.0,0.0,4316.922852000001,4667.692383,4296.410156,4278.461426,4305.641113000001,0.0,3.0,55.0,,,,0.0,4.0,0.0,4.0,0.0,4.0,33.333332,,,,,,,,,,,,,,,,,,,,,,,,,,,,,,,,,,,,,,,,,,,,,,,,,,,,,,,,,,,,,,,,,,,,,,,,,,,,,,,,,,,,
12977,1645651745.436458,28.0,0.0,4314.871582,4609.230957,4300.0,4278.974121,4301.538574,0.0,3.0,55.0,,,,0.0,4.0,0.0,4.0,0.0,4.0,33.333332,,,,,,,,14.0,0.0,0.453092,0.514893,0.26879899999999995,-0.6762699999999999,0.944839,-0.109865,-0.3252,-0.018493,-0.047552,-0.031038,,,,,,,,,,,,,,,,,,,,,,,,,,,,,,,,,,,0.0,0.0,1.0,0.0,512.0,0.7024560000000001,,,,,,,,,,,,,,,,,,,,,,,,,
12978,1645651745.444173,29.0,0.0,4294.871582,4667.692383,4286.153809,4277.94873,4278.974121,0.0,3.0,55.0,,,,0.0,4.0,0.0,4.0,0.0,4.0,33.333332,,,,,,,,,,,,,,,,,,,,,,,,,,,,,,,,,,,,,,,,,,,,,,,,,,,,,,,,,,,,,,,,,,,,,,,,,,,,,,,,,,,,
12979,1645651745.451988,30.0,0.0,4296.922852000001,4695.384765999999,4291.794922,4278.461426,4268.205078,0.0,3.0,55.0,,,,0.0,4.0,0.0,4.0,0.0,4.0,33.333332,,,,,,,,15.0,0.0,0.45281400000000005,0.515137,0.26879899999999995,-0.6762699999999999,0.965347,-0.095216,-0.319341,-0.018987999999999998,-0.047533,-0.033842000000000004,,,,,,,,,,,,,,,,,,,,,,,,,,,,,,,,,,,,,,,,,,,,,,,,,,,,,,,,,,,,,,,,,
12980,1645651745.459802,31.0,0.0,4325.641113000001,4666.153809,4299.487305,4277.94873,4279.487305,0.0,3.0,55.0,,,,0.0,4.0,0.0,4.0,0.0,4.0,33.333332,,,,,,,,,,,,,,,,,,,,,,,,,,,,,,,,,,,,,,,,,,,,,,,,,,,,,,,,,,,,,,,,,,,,,,,,,,,,,,,,,,,,
12981,1645651745.467617,32.0,0.0,4322.05127,4641.538574,4291.794922,4277.94873,4278.461426,0.0,3.0,55.0,,,,0.0,4.0,0.0,4.0,0.0,4.0,33.333332,,,,,,,,16.0,0.0,0.453179,0.515137,0.26879899999999995,-0.676025,0.962417,-0.10547000000000001,-0.333013,-0.019579,-0.047516,-0.036170999999999995,,,,,,,,,,,,,,,,,,,,,,,,,,,,,,,,,,,0.0,0.0,1.0,0.0,512.0,0.7024560000000001,,,,,,,,,,,,,,,,,,,,,,,,,
12982,1645651745.475432,33.0,0.0,4299.487305,4615.384765999999,4251.794922,4276.410156,4265.128418,0.0,3.0,55.0,,,,0.0,4.0,0.0,4.0,0.0,4.0,33.333332,,,,,,,,,,,,,,,,,,,,,,,,,,,,,,,,,,,,,,,,,,,,,,,,,,,,,,,,,,,,,,,,,,,,,,,,,,,,,,,,,,,,
12983,1645651745.483247,34.0,0.0,4309.743652,4626.153809,4252.820313,4274.871582,4277.94873,0.0,3.0,55.0,,,,0.0,4.0,0.0,4.0,0.0,4.0,33.333332,,,,,,,,17.0,0.0,0.453179,0.515137,0.26879899999999995,-0.676025,0.9511860000000001,-0.10254100000000001,-0.334478,-0.020063,-0.04755,-0.032066000000000004,,,,,,,,,,,,,,,,,,,,,,,,,,,,,,,,,,,,,,,,,,,,,,,,,,,,,,,,,,,,,,,,,
12984,1645651745.491062,35.0,0.0,4327.179688,4641.025879,4273.333496,4276.922852000001,4303.589844,0.0,3.0,55.0,,,,0.0,4.0,0.0,4.0,0.0,4.0,33.333332,,,,,,,,,,,,,,,,,,,,,,,,,,,,,,,,,,,,,,,,,,,,,,,,,,,,,,,,,,,,,,,,,,,,,,,,,,,,,,,,,,,,
12985,1645651745.498777,36.0,0.0,4322.563965,4591.282227000001,4279.487305,4278.974121,4309.743652,0.0,3.0,55.0,,,,0.0,4.0,0.0,4.0,0.0,4.0,33.333332,,,,,,,,18.0,0.0,0.453179,0.515137,0.26879899999999995,-0.676025,0.9506979999999999,-0.11035299999999999,-0.333989,-0.020449000000000002,-0.047531,-0.034621,1.0,0.0,0.0,,,,,,,,,,,,,,,,,,,,,,,,,,,,,,,,0.0,0.0,1.0,0.0,512.0,0.844563,2.380441,1.173433,2.071882,2.173882,3.174619,18.177294,7.283619,16.477860999999997,12.191952,17.085279,6.394093,1.410165,2.75391,1.706098,2.525491,0.020552,0.050681,0.032204,0.022806,0.025691000000000002,3.185423,0.9679110000000001,2.908579,2.569537,3.022369
12986,1645651745.506592,37.0,0.0,4317.436035,4580.0,4273.333496,4277.94873,4297.436035,0.0,3.0,55.0,,,,0.0,4.0,0.0,4.0,0.0,4.0,33.333332,,,,,,,,,,,,,,,,,,,,,,,,,,,,,,,,,,,,,,,,,,,,,,,,,,,,,,,,,,,,,,,,,,,,,,,,,,,,,,,,,,,,
12987,1645651745.514308,38.0,0.0,4313.333496,4636.410156,4264.102539,4278.974121,4284.102539,0.0,3.0,55.0,,,,0.0,4.0,0.0,4.0,0.0,4.0,33.333332,,,,,,,,19.0,0.0,0.453179,0.515137,0.26879899999999995,-0.676025,0.952651,-0.095216,-0.33350100000000005,-0.020748,-0.047563,-0.030670999999999997,,,,,,,,,,,,,,,,,,,,,,,,,,,,,,,,,,,,,,,,,,,,,,,,,,,,,,,,,,,,,,,,,
12988,1645651745.522123,39.0,0.0,4322.563965,4697.94873,4249.743652,4280.0,4294.871582,0.0,3.0,55.0,,,,0.0,4.0,0.0,4.0,0.0,4.0,33.333332,,,,,,,,,,,,,,,,,,,,,,,,,,,,,,,,,,,,,,,,,,,,,,,,,,,,,,,,,,,,,,,,,,,,,,,,,,,,,,,,,,,,
12989,1645651745.529938,40.0,0.0,4329.230957,4708.205078,4249.230957,4277.94873,4306.666504,0.0,3.0,55.0,,,,0.0,4.0,0.0,4.0,0.0,4.0,33.333332,,,,,,,,20.0,0.0,0.453179,0.515137,0.26879899999999995,-0.676025,0.9550930000000001,-0.09765800000000001,-0.3252,-0.019454,-0.047543,-0.033414,,,,,,,,,,,,,,,,,,,,,,,,,,,,,,,,,,,0.0,0.0,1.0,0.0,512.0,0.844563,,,,,,,,,,,,,,,,,,,,,,,,,
12990,1645651745.5377529,41.0,0.0,4326.153809,4652.820313,4263.077147999999,4277.94873,4302.563965,0.0,3.0,55.0,,,,0.0,4.0,0.0,4.0,0.0,4.0,33.333332,,,,,,,,,,,,,,,,,,,,,,,,,,,,,,,,,,,,,,,,,,,,,,,,,,,,,,,,,,,,,,,,,,,,,,,,,,,,,,,,,,,,
12991,1645651745.545568,42.0,0.0,4322.05127,4632.307617,4250.769043,4278.974121,4284.615234000001,0.0,3.0,55.0,,,,0.0,4.0,0.0,4.0,0.0,4.0,33.333332,,,,,,,,21.0,0.0,0.453179,0.515137,0.26879899999999995,-0.676025,0.9506979999999999,-0.10888800000000001,-0.333989,-0.019902,-0.047574,-0.029682,,,,,,,,,,,,,,,,,,,,,,,,,,,,,,,,,,,,,,,,,,,,,,,,,,,,,,,,,,,,,,,,,
12992,1645651745.553383,43.0,0.0,4322.05127,4692.820313,4229.230957,4277.94873,4278.974121,0.0,3.0,55.0,,,,0.0,4.0,0.0,4.0,0.0,4.0,33.333332,,,,,,,,,,,,,,,,,,,,,,,,,,,,,,,,,,,,,,,,,,,,,,,,,,,,,,,,,,,,,,,,,,,,,,,,,,,,,,,,,,,,
12993,1645651745.561198,44.0,0.0,4311.794922,4671.794922,4231.794922,4278.974121,4265.128418,0.0,3.0,55.0,,,,0.0,4.0,0.0,4.0,0.0,4.0,33.333332,,,,,,,,22.0,0.0,0.452959,0.515137,0.26855500000000004,-0.6762699999999999,0.9550930000000001,-0.109377,-0.332525,-0.01796,-0.047553,-0.032476,,,,,,,,,,,,,,,,,,,,,,,,,,,,,,,,,,,0.0,0.0,1.0,0.0,512.0,0.844563,,,,,,,,,,,,,,,,,,,,,,,,,
12994,1645651745.569013,45.0,0.0,4324.102539,4578.461426,4269.743652,4279.487305,4265.128418,0.0,3.0,55.0,,,,0.0,4.0,0.0,4.0,0.0,4.0,33.333332,,,,,,,,,,,,,,,,,,,,,,,,,,,,,,,,,,,,,,,,,,,,,,,,,,,,,,,,,,,,,,,,,,,,,,,,,,,,,,,,,,,,
