,Timestamp,EEG.Counter,EEG.Interpolated,EEG.AF3,EEG.T7,EEG.Pz,EEG.T8,EEG.AF4,EEG.RawCq,EEG.Battery,EEG.BatteryPercent,MarkerIndex,MarkerType,MarkerValueInt,EEG.MarkerHardware,CQ.AF3,CQ.T7,CQ.Pz,CQ.T8,CQ.AF4,CQ.Overall,EQ.SampleRateQuality,EQ.OVERALL,EQ.AF3,EQ.T7,EQ.Pz,EQ.T8,EQ.AF4,MOT.CounterMems,MOT.InterpolatedMems,MOT.Q0,MOT.Q1,MOT.Q2,MOT.Q3,MOT.AccX,MOT.AccY,MOT.AccZ,MOT.MagX,MOT.MagY,MOT.MagZ,MC.Action,MC.ActionPower,MC.IsActive,PM.Engagement.IsActive,PM.Engagement.Scaled,PM.Engagement.Raw,PM.Engagement.Min,PM.Engagement.Max,PM.Excitement.IsActive,PM.Excitement.Scaled,PM.Excitement.Raw,PM.Excitement.Min,PM.Excitement.Max,PM.LongTermExcitement,PM.Stress.IsActive,PM.Stress.Scaled,PM.Stress.Raw,PM.Stress.Min,PM.Stress.Max,PM.Relaxation.IsActive,PM.Relaxation.Scaled,PM.Relaxation.Raw,PM.Relaxation.Min,PM.Relaxation.Max,PM.Interest.IsActive,PM.Interest.Scaled,PM.Interest.Raw,PM.Interest.Min,PM.Interest.Max,PM.Focus.IsActive,PM.Focus.Scaled,PM.Focus.Raw,PM.Focus.Min,PM.Focus.Max,FE.BlinkWink,FE.HorizontalEyesDirection,FE.UpperFaceAction,FE.UpperFaceActionPower,FE.LowerFaceAction,FE.LowerFaceActionPower,POW.AF3.Theta,POW.AF3.Alpha,POW.AF3.BetaL,POW.AF3.BetaH,POW.AF3.Gamma,POW.T7.Theta,POW.T7.Alpha,POW.T7.BetaL,POW.T7.BetaH,POW.T7.Gamma,POW.Pz.Theta,POW.Pz.Alpha,POW.Pz.BetaL,POW.Pz.BetaH,POW.Pz.Gamma,POW.T8.Theta,POW.T8.Alpha,POW.T8.BetaL,POW.T8.BetaH,POW.T8.Gamma,POW.AF4.Theta,POW.AF4.Alpha,POW.AF4.BetaL,POW.AF4.BetaH,POW.AF4.Gamma
6000,1645651690.925612,91.0,0.0,4389.230957,4744.615234000001,4222.05127,4280.0,4284.615234000001,16220.0,3.0,55.0,5.0,1.0,6.0,0.0,4.0,0.0,4.0,0.0,4.0,33.333332,,,,,,,,,,,,,,,,,,,,,,,,,,,,,,,,,,,,,,,,,,,,,,,,,,,,,,,,,,,,,,,,,,,,,,,,,,,,,,,,,,,,
6001,1645651690.9334302,92.0,0.0,4366.666504,4723.589844,4212.307617,4280.512695,4269.743652,450.0,3.0,55.0,,,,0.0,4.0,0.0,4.0,0.0,4.0,33.333332,,,,,,,,46.0,0.0,0.45100200000000007,0.522217,0.257324,-0.6765140000000001,0.9433739999999999,-0.12255999999999999,-0.323735,-0.018413,-0.048647,-0.025009,,,,,,,,,,,,,,,,,,,,,,,,,,,,,,,,,,,0.0,0.0,1.0,0.0,512.0,0.822478,,,,,,,,,,,,,,,,,,,,,,,,,
6002,1645651690.941248,93.0,0.0,4336.410156,4650.256348,4212.307617,4279.487305,4257.94873,450.0,3.0,55.0,,,,0.0,4.0,0.0,4.0,0.0,4.0,33.333332,,,,,,,,,,,,,,,,,,,,,,,,,,,,,,,,,,,,,,,,,,,,,,,,,,,,,,,,,,,,,,,,,,,,,,,,,,,,,,,,,,,,
6003,1645651690.949066,94.0,0.0,4350.769043,4640.0,4226.666504,4279.487305,4265.128418,450.0,3.0,55.0,,,,0.0,4.0,0.0,4.0,0.0,4.0,33.333332,,,,,,,,47.0,0.0,0.45100200000000007,0.522217,0.257324,-0.6765140000000001,0.9511860000000001,-0.119631,-0.323247,-0.019062,-0.048616,-0.022019999999999998,,,,,,,,,,,,,,,,,,,,,,,,,,,,,,,,,,,,,,,,,,,,,,,,,,,,,,,,,,,,,,,,,
6004,1645651690.956884,95.0,0.0,4370.769043,4647.179688,4235.897461,4279.487305,4273.333496,16220.0,3.0,55.0,,,,0.0,4.0,0.0,4.0,0.0,4.0,33.333332,,,,,,,,,,,,,,,,,,,,,,,,,,,,,,,,,,,,,,,,,,,,,,,,,,,,,,,,,,,,,,,,,,,,,,,,,,,,,,,,,,,,
6005,1645651690.964702,96.0,0.0,4358.974121,4626.666504,4226.666504,4280.0,4266.666504,450.0,3.0,55.0,,,,0.0,4.0,0.0,4.0,0.0,4.0,33.333332,,,,,,,,48.0,0.0,0.45091899999999996,0.5219729999999999,0.257324,-0.676758,0.9487450000000001,-0.122072,-0.340337,-0.019549,-0.04854,-0.019427,,,,,,,,,,,,,,,,,,,,,,,,,,,,,,,,,,,0.0,0.0,1.0,0.0,512.0,0.822478,,,,,,,,,,,,,,,,,,,,,,,,,
6006,1645651690.97262,97.0,0.0,4345.128418,4626.153809,4227.692383,4280.0,4265.641113000001,450.0,3.0,55.0,,,,0.0,4.0,0.0,4.0,0.0,4.0,33.333332,,,,,,,,,,,,,,,,,,,,,,,,,,,,,,,,,,,,,,,,,,,,,,,,,,,,,,,,,,,,,,,,,,,,,,,,,,,,,,,,,,,,
6007,1645651690.980439,98.0,0.0,4343.589844,4608.205078,4215.897461,4278.461426,4256.922852000001,450.0,3.0,55.0,,,,0.0,4.0,0.0,4.0,0.0,4.0,33.333332,,,,,,,,49.0,0.0,0.45091899999999996,0.5219729999999999,0.257324,-0.676758,0.9677879999999999,-0.13135,-0.32422399999999996,-0.019986,-0.04852,-0.016947999999999998,,,,,,,,,,,,,,,,,,,,,,,,,,,,,,,,,,,,,,,,,,,,,,,,,,,,,,,,,,,,,,,,,
6008,1645651690.988257,99.0,0.0,4352.307617,4597.94873,4213.333496,4277.94873,4245.641113000001,16220.0,3.0,55.0,,,,0.0,4.0,0.0,4.0,0.0,4.0,33.333332,,,,,,,,,,,,,,,,,,,,,,,,,,,,,,,,,,,,,,,,,,,,,,,,,,,,,,,,,,,,,,,,,,,,,,,,,,,,,,,,,,,,
6009,1645651690.9960759,100.0,0.0,4369.230957,4643.589844,4224.102539,4277.94873,4251.282227000001,450.0,3.0,55.0,,,,0.0,4.0,0.0,4.0,0.0,4.0,33.333332,,,,,,,,50.0,0.0,0.45091899999999996,0.5219729999999999,0.257324,-0.676758,0.9580219999999999,-0.142092,-0.332036,-0.020283000000000002,-0.048551,-0.020916999999999998,1.0,0.0,0.0,,,,,,,,,,,,,,,,,,,,,,,,,,,,,,,,0.0,0.0,1.0,0.0,512.0,1.0,5.05485,1.931766,1.427537,1.03644,1.7553330000000003,11.594213,50.698921,31.149843,15.156823000000001,12.596282,7.0983600000000004,4.364102,2.251074,1.247922,1.65415,0.012701,0.01601,0.012192,0.007804000000000001,0.012642,4.523874,3.6845830000000004,2.130322,0.947213,1.703548
6010,1645651691.0038939,101.0,0.0,4369.230957,4635.897461,4226.153809,4278.461426,4251.282227000001,450.0,3.0,55.0,,,,0.0,4.0,0.0,4.0,0.0,4.0,33.333332,,,,,,,,,,,,,,,,,,,,,,,,,,,,,,,,,,,,,,,,,,,,,,,,,,,,,,,,,,,,,,,,,,,,,,,,,,,,,,,,,,,,
6011,1645651691.011713,102.0,0.0,4348.205078,4581.538574,4200.0,4277.436035,4237.94873,450.0,3.0,55.0,,,,0.0,4.0,0.0,4.0,0.0,4.0,33.333332,,,,,,,,51.0,0.0,0.451201,0.521729,0.257324,-0.676758,0.954116,-0.136721,-0.330571,-0.020647,-0.048431999999999996,-0.018337,,,,,,,,,,,,,,,,,,,,,,,,,,,,,,,,,,,,,,,,,,,,,,,,,,,,,,,,,,,,,,,,,
6012,1645651691.019531,103.0,0.0,4353.333496,4642.563965,4197.436035,4277.436035,4239.487305,16220.0,3.0,55.0,,,,0.0,4.0,0.0,4.0,0.0,4.0,33.333332,,,,,,,,,,,,,,,,,,,,,,,,,,,,,,,,,,,,,,,,,,,,,,,,,,,,,,,,,,,,,,,,,,,,,,,,,,,,,,,,,,,,
6013,1645651691.02735,104.0,0.0,4376.922852000001,4728.205078,4206.153809,4278.974121,4258.461426,450.0,3.0,55.0,,,,0.0,4.0,0.0,4.0,0.0,4.0,33.333332,,,,,,,,52.0,0.0,0.45106199999999996,0.521729,0.25756799999999996,-0.676758,0.948257,-0.11572400000000001,-0.333013,-0.018778,-0.048423,-0.022313999999999997,,,,,,,,,,,,,,,,,,,,,,,,,,,,,,,,,,,0.0,0.0,1.0,0.0,512.0,1.0,,,,,,,,,,,,,,,,,,,,,,,,,
6014,1645651691.035168,105.0,0.0,4380.0,4700.0,4225.641113000001,4280.512695,4275.384765999999,450.0,3.0,55.0,,,,0.0,4.0,0.0,4.0,0.0,4.0,33.333332,,,,,,,,,,,,,,,,,,,,,,,,,,,,,,,,,,,,,,,,,,,,,,,,,,,,,,,,,,,,,,,,,,,,,,,,,,,,,,,,,,,,
6015,1645651691.043086,106.0,0.0,4370.256348,4654.871582,4227.692383,4280.512695,4284.102539,450.0,3.0,55.0,,,,0.0,4.0,0.0,4.0,0.0,4.0,33.333332,,,,,,,,53.0,0.0,0.45106199999999996,0.521729,0.25756799999999996,-0.676758,0.9389790000000001,-0.127443,-0.332036,-0.016949000000000002,-0.048317,-0.025796,,,,,,,,,,,,,,,,,,,,,,,,,,,,,,,,,,,,,,,,,,,,,,,,,,,,,,,,,,,,,,,,,
6016,1645651691.050905,107.0,0.0,4348.205078,4660.0,4207.692383,4279.487305,4263.589844,16220.0,3.0,55.0,,,,0.0,4.0,0.0,4.0,0.0,4.0,33.333332,,,,,,,,,,,,,,,,,,,,,,,,,,,,,,,,,,,,,,,,,,,,,,,,,,,,,,,,,,,,,,,,,,,,,,,,,,,,,,,,,,,,
6017,1645651691.058723,108.0,0.0,4352.307617,4646.666504,4212.820313,4280.0,4260.512695,450.0,3.0,55.0,,,,0.0,4.0,0.0,4.0,0.0,4.0,33.333332,,,,,,,,54.0,0.0,0.45106199999999996,0.521729,0.25756799999999996,-0.676758,0.961929,-0.124025,-0.32227100000000003,-0.017598,-0.048368,-0.02888,,,,,,,,,,,,,,,,,,,,,,,,,,,,,,,,,,,0.0,0.0,1.0,0.0,512.0,1.0,,,,,,,,,,,,,,,,,,,,,,,,,
6018,1645651691.066542,109.0,0.0,4375.384765999999,4605.128418,4244.615234000001,4281.025879,4287.179688,450.0,3.0,55.0,,,,0.0,4.0,0.0,4.0,0.0,4.0,33.333332,,,,,,,,,,,,,,,,,,,,,,,,,,,,,,,,,,,,,,,,,,,,,,,,,,,,,,,,,,,,,,,,,,,,,,,,,,,,,,,,,,,,
6019,1645651691.07436,110.0,0.0,4376.922852000001,4604.615234000001,4234.871582,4280.512695,4285.641113000001,450.0,3.0,55.0,,,,0.0,4.0,0.0,4.0,0.0,4.0,33.333332,,,,,,,,55.0,0.0,0.45106199999999996,0.521729,0.25756799999999996,-0.676758,0.946792,-0.126467,-0.331548,-0.018133,-0.048463,-0.025504,,,,,,,,,,,,,,,,,,,,,,,,,,,,,,,,,,,,,,,,,,,,,,,,,,,,,,,,,,,,,,,,,
6020,1645651691.0821788,111.0,0.0,4346.666504,4637.436035,4191.282227000001,4280.0,4248.205078,16220.0,3.0,55.0,,,,0.0,4.0,0.0,4.0,0.0,4.0,33.333332,,,,,,,,,,,,,,,,,,,,,,,,,,,,,,,,,,,,,,,,,,,,,,,,,,,,,,,,,,,,,,,,,,,,,,,,,,,,,,,,,,,,
6021,1645651691.089997,112.0,0.0,4345.128418,4658.461426,4190.769043,4280.512695,4246.153809,450.0,3.0,55.0,,,,0.0,4.0,0.0,4.0,0.0,4.0,33.333332,,,,,,,,56.0,0.0,0.45106199999999996,0.521729,0.25756799999999996,-0.676758,0.9389790000000001,-0.127443,-0.332036,-0.016368,-0.048353,-0.028666000000000004,,,,,,,,,,,,,,,,,,,,,,,,,,,,,,,,,,,0.0,0.0,1.0,0.0,512.0,1.0,,,,,,,,,,,,,,,,,,,,,,,,,
6022,1645651691.097816,113.0,0.0,4364.102539,4652.307617,4200.0,4281.025879,4256.922852000001,450.0,3.0,55.0,,,,0.0,4.0,0.0,4.0,0.0,4.0,33.333332,,,,,,,,,,,,,,,,,,,,,,,,,,,,,,,,,,,,,,,,,,,,,,,,,,,,,,,,,,,,,,,,,,,,,,,,,,,,,,,,,,,,
6023,1645651691.105634,114.0,0.0,4357.94873,4615.897461,4189.743652,4279.487305,4248.205078,450.0,3.0,55.0,,,,0.0,4.0,0.0,4.0,0.0,4.0,33.333332,,,,,,,,57.0,0.0,0.45106199999999996,0.521729,0.25756799999999996,-0.676758,0.946792,-0.126467,-0.331548,-0.017027,-0.04845,-0.025311,,,,,,,,,,,,,,,,,,,,,,,,,,,,,,,,,,,,,,,,,,,,,,,,,,,,,,,,,,,,,,,,,
6024,1645651691.1135519,115.0,0.0,4348.717772999999,4583.589844,4188.205078,4278.974121,4241.025879,16220.0,3.0,55.0,,,,0.0,4.0,0.0,4.0,0.0,4.0,33.333332,,,,,,,,,,,,,,,,,,,,,,,,,,,,,,,,,,,,,,,,,,,,,,,,,,,,,,,,,,,,,,,,,,,,,,,,,,,,,,,,,,,,
6025,1645651691.1213698,116.0,0.0,4372.307617,4656.410156,4204.615234000001,4280.512695,4252.820313,450.0,3.0,55.0,,,,0.0,4.0,0.0,4.0,0.0,4.0,33.333332,1.0,33.333332,4.0,0.0,4.0,0.0,4.0,58.0,0.0,0.45106199999999996,0.521729,0.25756799999999996,-0.676758,0.9555809999999999,-0.122072,-0.325689,-0.017716,-0.048487999999999996,-0.022243000000000002,1.0,0.0,0.0,,,,,,,,,,,,,,,,,,,,,,,,,,,,,,,,0.0,0.0,1.0,0.0,1.0,0.0,5.079429,2.896816,1.518957,1.156606,1.681786,15.339559,47.381824,32.183094,15.427717000000001,13.313002,8.303576,4.450548,2.2866299999999997,1.280016,1.584959,0.01323,0.014544999999999999,0.010990999999999999,0.0068709999999999995,0.012844,5.500705,4.387974,2.0174630000000002,0.9624389999999999,1.6297030000000001
6026,1645651691.129189,117.0,0.0,4373.333496,4748.717772999999,4182.563965,4280.512695,4253.846191,450.0,3.0,55.0,,,,0.0,4.0,0.0,4.0,0.0,4.0,33.333332,,,,,,,,,,,,,,,,,,,,,,,,,,,,,,,,,,,,,,,,,,,,,,,,,,,,,,,,,,,,,,,,,,,,,,,,,,,,,,,,,,,,
6027,1645651691.137007,118.0,0.0,4332.820313,4692.820313,4165.641113000001,4279.487305,4230.769043,450.0,3.0,55.0,,,,0.0,4.0,0.0,4.0,0.0,4.0,33.333332,,,,,,,,59.0,0.0,0.45106199999999996,0.521729,0.25756799999999996,-0.676758,0.9506979999999999,-0.13135,-0.333013,-0.018289,-0.048522,-0.025731999999999998,,,,,,,,,,,,,,,,,,,,,,,,,,,,,,,,,,,,,,,,,,,,,,,,,,,,,,,,,,,,,,,,,
6028,1645651691.144825,119.0,0.0,4330.769043,4630.769043,4173.333496,4278.974121,4228.205078,16220.0,3.0,55.0,,,,0.0,4.0,0.0,4.0,0.0,4.0,33.333332,,,,,,,,,,,,,,,,,,,,,,,,,,,,,,,,,,,,,,,,,,,,,,,,,,,,,,,,,,,,,,,,,,,,,,,,,,,,,,,,,,,,
6029,1645651691.152643,120.0,0.0,4377.94873,4672.820313,4207.692383,4279.487305,4270.256348,450.0,3.0,55.0,,,,0.0,4.0,0.0,4.0,0.0,4.0,33.333332,,,,,,,,60.0,0.0,0.45069499999999996,0.521729,0.25756799999999996,-0.677002,0.948257,-0.134279,-0.33105999999999997,-0.018755,-0.048455,-0.022573,,,,,,,,,,,,,,,,,,,,,,,,,,,,,,,,,,,0.0,0.0,1.0,0.0,1.0,0.0,,,,,,,,,,,,,,,,,,,,,,,,,
6030,1645651691.160461,121.0,0.0,4388.717772999999,4684.615234000001,4218.461426,4279.487305,4302.05127,450.0,3.0,55.0,,,,0.0,4.0,0.0,4.0,0.0,4.0,33.333332,,,,,,,,,,,,,,,,,,,,,,,,,,,,,,,,,,,,,,,,,,,,,,,,,,,,,,,,,,,,,,,,,,,,,,,,,,,,,,,,,,,,
6031,1645651691.1682801,122.0,0.0,4351.794922,4638.461426,4205.641113000001,4277.94873,4272.307617,450.0,3.0,55.0,,,,0.0,4.0,0.0,4.0,0.0,4.0,33.333332,,,,,,,,61.0,0.0,0.45083500000000004,0.521729,0.257324,-0.677002,0.947768,-0.12109600000000001,-0.332525,-0.019272,-0.048443,-0.026175,,,,,,,,,,,,,,,,,,,,,,,,,,,,,,,,,,,,,,,,,,,,,,,,,,,,,,,,,,,,,,,,,
6032,1645651691.176098,123.0,0.0,4338.461426,4596.922852000001,4186.666504,4278.461426,4235.384765999999,16220.0,3.0,55.0,,,,0.0,4.0,0.0,4.0,0.0,4.0,33.333332,,,,,,,,,,,,,,,,,,,,,,,,,,,,,,,,,,,,,,,,,,,,,,,,,,,,,,,,,,,,,,,,,,,,,,,,,,,,,,,,,,,,
6033,1645651691.183916,124.0,0.0,4348.717772999999,4582.05127,4189.230957,4279.487305,4238.461426,450.0,3.0,55.0,,,,0.0,4.0,0.0,4.0,0.0,4.0,33.333332,,,,,,,,62.0,0.0,0.451201,0.521729,0.257324,-0.676758,0.9487450000000001,-0.129885,-0.327153,-0.019835,-0.048433,-0.029269999999999997,,,,,,,,,,,,,,,,,,,,,,,,,,,,,,,,,,,0.0,0.0,1.0,0.0,1.0,0.0,,,,,,,,,,,,,,,,,,,,,,,,,
6034,1645651691.191634,125.0,0.0,4361.538574,4633.333496,4200.0,4280.0,4260.512695,450.0,3.0,55.0,,,,0.0,4.0,0.0,4.0,0.0,4.0,33.333332,,,,,,,,,,,,,,,,,,,,,,,,,,,,,,,,,,,,,,,,,,,,,,,,,,,,,,,,,,,,,,,,,,,,,,,,,,,,,,,,,,,,
6035,1645651691.199452,126.0,0.0,4355.897461,4718.461426,4182.05127,4280.0,4259.487305,450.0,3.0,55.0,,,,0.0,4.0,0.0,4.0,0.0,4.0,33.333332,,,,,,,,63.0,0.0,0.45091899999999996,0.5219729999999999,0.257324,-0.676758,0.95021,-0.121584,-0.324712,-0.018584,-0.048424,-0.032202999999999996,,,,,,,,,,,,,,,,,,,,,,,,,,,,,,,,,,,,,,,,,,,,,,,,,,,,,,,,,,,,,,,,,
6036,1645651691.20727,127.0,0.0,4353.333496,4737.94873,4173.333496,4280.512695,4253.846191,234.0,3.0,55.0,,,,0.0,4.0,0.0,4.0,0.0,4.0,33.333332,,,,,,,,,,,,,,,,,,,,,,,,,,,,,,,,,,,,,,,,,,,,,,,,,,,,,,,,,,,,,,,,,,,,,,,,,,,,,,,,,,,,
6037,1645651691.2150881,0.0,0.0,4362.05127,4723.077147999999,4192.820313,4279.487305,4255.897461,450.0,3.0,55.0,,,,0.0,4.0,0.0,4.0,0.0,4.0,33.333332,,,,,,,,0.0,0.0,0.451058,0.5219729999999999,0.25708000000000003,-0.676758,0.948257,-0.11621300000000001,-0.326665,-0.018972,-0.048562,-0.028543000000000002,,,,,,,,,,,,,,,,,,,,,,,,,,,,,,,,,,,0.0,0.0,1.0,0.0,1.0,0.0,,,,,,,,,,,,,,,,,,,,,,,,,
6038,1645651691.222906,1.0,0.0,4356.922852000001,4710.256348,4198.461426,4278.461426,4249.230957,450.0,3.0,55.0,,,,0.0,4.0,0.0,4.0,0.0,4.0,33.333332,,,,,,,,,,,,,,,,,,,,,,,,,,,,,,,,,,,,,,,,,,,,,,,,,,,,,,,,,,,,,,,,,,,,,,,,,,,,,,,,,,,,
6039,1645651691.230724,2.0,0.0,4323.589844,4682.05127,4169.743652,4278.461426,4216.922852000001,16211.0,3.0,55.0,,,,0.0,4.0,0.0,4.0,0.0,4.0,33.333332,,,,,,,,1.0,0.0,0.451058,0.5219729999999999,0.25708000000000003,-0.676758,0.9550930000000001,-0.132326,-0.32227100000000003,-0.019369,-0.04854,-0.031402,,,,,,,,,,,,,,,,,,,,,,,,,,,,,,,,,,,,,,,,,,,,,,,,,,,,,,,,,,,,,,,,,
6040,1645651691.238542,3.0,0.0,4331.794922,4650.769043,4188.717772999999,4278.974121,4223.077147999999,450.0,3.0,55.0,,,,0.0,4.0,0.0,4.0,0.0,4.0,33.333332,,,,,,,,,,,,,,,,,,,,,,,,,,,,,,,,,,,,,,,,,,,,,,,,,,,,,,,,,,,,,,,,,,,,,,,,,,,,,,,,,,,,
6041,1645651691.24636,4.0,0.0,4359.487305,4624.102539,4217.94873,4279.487305,4252.307617,0.0,3.0,55.0,,,,0.0,4.0,0.0,4.0,0.0,4.0,33.333332,,,,,,,,2.0,0.0,0.45133999999999996,0.521729,0.25708000000000003,-0.676758,0.954116,-0.13135,-0.32813000000000003,-0.018165,-0.04852,-0.034121,1.0,0.0,0.0,,,,,,,,,,,,,,,,,,,,,,,,,,,,,,,,0.0,0.0,1.0,0.0,512.0,1.0,5.132297,3.907628,1.7587119999999998,1.206424,1.625314,20.571253,40.523651,33.063526,15.074357000000001,13.478895000000001,9.35283,4.607575,2.300055,1.247041,1.534289,0.013526,0.01258,0.009318,0.005649,0.012421,6.31259,5.2084980000000005,1.9307349999999999,0.946361,1.584433
6042,1645651691.254178,5.0,0.0,4351.794922,4591.282227000001,4209.743652,4279.487305,4252.307617,450.0,3.0,55.0,,,,0.0,4.0,0.0,4.0,0.0,4.0,33.333332,,,,,,,,,,,,,,,,,,,,,,,,,,,,,,,,,,,,,,,,,,,,,,,,,,,,,,,,,,,,,,,,,,,,,,,,,,,,,,,,,,,,
6043,1645651691.2620962,6.0,0.0,4350.256348,4591.282227000001,4207.692383,4278.974121,4257.436035,16195.0,3.0,55.0,,,,0.0,4.0,0.0,4.0,0.0,4.0,33.333332,,,,,,,,3.0,0.0,0.45133999999999996,0.521729,0.25708000000000003,-0.676758,0.9589989999999999,-0.123537,-0.338872,-0.01879,-0.0486,-0.036470999999999996,,,,,,,,,,,,,,,,,,,,,,,,,,,,,,,,,,,,,,,,,,,,,,,,,,,,,,,,,,,,,,,,,
6044,1645651691.2699142,7.0,0.0,4363.077147999999,4674.871582,4236.922852000001,4278.461426,4271.282227000001,450.0,3.0,55.0,,,,0.0,4.0,0.0,4.0,0.0,4.0,33.333332,,,,,,,,,,,,,,,,,,,,,,,,,,,,,,,,,,,,,,,,,,,,,,,,,,,,,,,,,,,,,,,,,,,,,,,,,,,,,,,,,,,,
6045,1645651691.277733,8.0,0.0,4361.538574,4704.102539,4233.333496,4278.974121,4274.358886999999,450.0,3.0,55.0,,,,0.0,4.0,0.0,4.0,0.0,4.0,33.333332,,,,,,,,4.0,0.0,0.45133999999999996,0.521729,0.25708000000000003,-0.676758,0.965347,-0.133303,-0.335943,-0.01696,-0.048623,-0.038488,,,,,,,,,,,,,,,,,,,,,,,,,,,,,,,,,,,0.0,0.0,1.0,0.0,512.0,1.0,,,,,,,,,,,,,,,,,,,,,,,,,
6046,1645651691.285551,9.0,0.0,4371.282227000001,4665.641113000001,4228.717772999999,4280.512695,4281.538574,0.0,3.0,55.0,,,,0.0,4.0,0.0,4.0,0.0,4.0,33.333332,,,,,,,,,,,,,,,,,,,,,,,,,,,,,,,,,,,,,,,,,,,,,,,,,,,,,,,,,,,,,,,,,,,,,,,,,,,,,,,,,,,,
6047,1645651691.293369,10.0,0.0,4384.615234000001,4709.230957,4219.487305,4280.0,4283.077147999999,450.0,3.0,55.0,,,,0.0,4.0,0.0,4.0,0.0,4.0,33.333332,,,,,,,,5.0,0.0,0.45133999999999996,0.521729,0.25708000000000003,-0.676758,0.947768,-0.131838,-0.333013,-0.017754,-0.048497000000000005,-0.034102,,,,,,,,,,,,,,,,,,,,,,,,,,,,,,,,,,,,,,,,,,,,,,,,,,,,,,,,,,,,,,,,,
6048,1645651691.3011868,11.0,0.0,4353.846191,4736.922852000001,4210.256348,4278.461426,4265.128418,16226.0,3.0,55.0,,,,0.0,4.0,0.0,4.0,0.0,4.0,33.333332,,,,,,,,,,,,,,,,,,,,,,,,,,,,,,,,,,,,,,,,,,,,,,,,,,,,,,,,,,,,,,,,,,,,,,,,,,,,,,,,,,,,
6049,1645651691.309006,12.0,0.0,4346.153809,4663.077147999999,4219.487305,4279.487305,4266.666504,450.0,3.0,55.0,,,,0.0,4.0,0.0,4.0,0.0,4.0,33.333332,,,,,,,,6.0,0.0,0.45133999999999996,0.521729,0.25708000000000003,-0.676758,0.949233,-0.118654,-0.326177,-0.018371000000000002,-0.048481,-0.030251999999999998,,,,,,,,,,,,,,,,,,,,,,,,,,,,,,,,,,,0.0,0.0,1.0,0.0,512.0,1.0,,,,,,,,,,,,,,,,,,,,,,,,,
6050,1645651691.316824,13.0,0.0,4360.512695,4597.436035,4227.692383,4280.0,4271.282227000001,450.0,3.0,55.0,,,,0.0,4.0,0.0,4.0,0.0,4.0,33.333332,,,,,,,,,,,,,,,,,,,,,,,,,,,,,,,,,,,,,,,,,,,,,,,,,,,,,,,,,,,,,,,,,,,,,,,,,,,,,,,,,,,,
6051,1645651691.324542,14.0,0.0,4342.563965,4600.512695,4226.666504,4278.974121,4255.897461,450.0,3.0,55.0,,,,0.0,4.0,0.0,4.0,0.0,4.0,33.333332,,,,,,,,7.0,0.0,0.45133999999999996,0.521729,0.25708000000000003,-0.676758,0.9472799999999999,-0.118654,-0.32422399999999996,-0.017218,-0.048516000000000004,-0.033038,,,,,,,,,,,,,,,,,,,,,,,,,,,,,,,,,,,,,,,,,,,,,,,,,,,,,,,,,,,,,,,,,
6052,1645651691.332359,15.0,0.0,4328.205078,4594.358886999999,4236.410156,4279.487305,4247.179688,16226.0,3.0,55.0,,,,0.0,4.0,0.0,4.0,0.0,4.0,33.333332,,,,,,,,,,,,,,,,,,,,,,,,,,,,,,,,,,,,,,,,,,,,,,,,,,,,,,,,,,,,,,,,,,,,,,,,,,,,,,,,,,,,
6053,1645651691.340177,16.0,0.0,4344.615234000001,4622.05127,4241.025879,4278.974121,4253.333496,0.0,3.0,55.0,,,,0.0,4.0,0.0,4.0,0.0,4.0,33.333332,,,,,,,,8.0,0.0,0.45133999999999996,0.521729,0.25708000000000003,-0.676758,0.968765,-0.119631,-0.326665,-0.017937,-0.048596,-0.035545,,,,,,,,,,,,,,,,,,,,,,,,,,,,,,,,,,,0.0,0.0,1.0,0.0,512.0,1.0,,,,,,,,,,,,,,,,,,,,,,,,,
6054,1645651691.3479948,17.0,0.0,4350.769043,4700.512695,4233.846191,4279.487305,4253.846191,0.0,3.0,55.0,,,,0.0,4.0,0.0,4.0,0.0,4.0,33.333332,,,,,,,,,,,,,,,,,,,,,,,,,,,,,,,,,,,,,,,,,,,,,,,,,,,,,,,,,,,,,,,,,,,,,,,,,,,,,,,,,,,,
6055,1645651691.355813,18.0,0.0,4354.871582,4694.358886999999,4256.922852000001,4281.025879,4270.256348,0.0,3.0,55.0,,,,0.0,4.0,0.0,4.0,0.0,4.0,33.333332,,,,,,,,9.0,0.0,0.451058,0.5219729999999999,0.25708000000000003,-0.676758,0.953628,-0.123537,-0.327642,-0.018341,-0.048668,-0.037752,,,,,,,,,,,,,,,,,,,,,,,,,,,,,,,,,,,,,,,,,,,,,,,,,,,,,,,,,,,,,,,,,
6056,1645651691.36363,19.0,0.0,4351.282227000001,4598.974121,4265.641113000001,4278.974121,4275.384765999999,0.0,3.0,55.0,,,,0.0,4.0,0.0,4.0,0.0,4.0,33.333332,,,,,,,,,,,,,,,,,,,,,,,,,,,,,,,,,,,,,,,,,,,,,,,,,,,,,,,,,,,,,,,,,,,,,,,,,,,,,,,,,,,,
6057,1645651691.371448,20.0,0.0,4333.333496,4528.205078,4263.077147999999,4276.410156,4273.846191,0.0,3.0,55.0,,,,0.0,4.0,0.0,4.0,0.0,4.0,33.333332,,,,,,,,10.0,0.0,0.451197,0.5219729999999999,0.256836,-0.676758,0.949722,-0.106447,-0.32813000000000003,-0.018948,-0.048831,-0.039641,1.0,0.0,0.0,,,,,,,,,,,,,,,,,,,,,,,,,,,,,,,,0.0,0.0,1.0,0.0,512.0,1.0,5.026689,4.729629,2.095358,1.1761,1.650777,25.963663,32.236244,33.500640999999995,14.333571,13.052901,9.785563,4.723538,2.264407,1.160687,1.5194889999999999,0.013734,0.010805,0.007370000000000001,0.004372,0.011371,6.679514999999999,5.9471099999999995,1.8689080000000002,0.910575,1.594719
6058,1645651691.379266,21.0,0.0,4317.436035,4556.410156,4250.256348,4278.461426,4267.179688,0.0,3.0,55.0,,,,0.0,4.0,0.0,4.0,0.0,4.0,33.333332,,,,,,,,,,,,,,,,,,,,,,,,,,,,,,,,,,,,,,,,,,,,,,,,,,,,,,,,,,,,,,,,,,,,,,,,,,,,,,,,,,,,
6059,1645651691.387184,22.0,0.0,4328.717772999999,4619.487305,4244.615234000001,4281.025879,4261.025879,0.0,3.0,55.0,,,,0.0,4.0,0.0,4.0,0.0,4.0,33.333332,,,,,,,,11.0,0.0,0.45133999999999996,0.521729,0.25708000000000003,-0.676758,0.941421,-0.131838,-0.325689,-0.017102000000000003,-0.04883,-0.035188,,,,,,,,,,,,,,,,,,,,,,,,,,,,,,,,,,,,,,,,,,,,,,,,,,,,,,,,,,,,,,,,,
6060,1645651691.395002,23.0,0.0,4354.871582,4676.410156,4243.077147999999,4278.461426,4271.794922,0.0,3.0,55.0,,,,0.0,4.0,0.0,4.0,0.0,4.0,33.333332,,,,,,,,,,,,,,,,,,,,,,,,,,,,,,,,,,,,,,,,,,,,,,,,,,,,,,,,,,,,,,,,,,,,,,,,,,,,,,,,,,,,
6061,1645651691.4028199,24.0,0.0,4357.94873,4647.692383,4264.102539,4276.410156,4282.05127,0.0,3.0,55.0,,,,0.0,4.0,0.0,4.0,0.0,4.0,33.333332,,,,,,,,12.0,0.0,0.451058,0.5219729999999999,0.25708000000000003,-0.676758,0.947768,-0.128908,-0.32422399999999996,-0.016124,-0.048733,-0.037431,,,,,,,,,,,,,,,,,,,,,,,,,,,,,,,,,,,0.0,0.0,1.0,0.0,512.0,1.0,,,,,,,,,,,,,,,,,,,,,,,,,
6062,1645651691.410639,25.0,0.0,4346.153809,4596.410156,4260.0,4278.461426,4276.410156,0.0,3.0,55.0,,,,0.0,4.0,0.0,4.0,0.0,4.0,33.333332,,,,,,,,,,,,,,,,,,,,,,,,,,,,,,,,,,,,,,,,,,,,,,,,,,,,,,,,,,,,,,,,,,,,,,,,,,,,,,,,,,,,
6063,1645651691.4183571,26.0,0.0,4352.307617,4650.769043,4247.692383,4280.0,4266.153809,0.0,3.0,55.0,,,,0.0,4.0,0.0,4.0,0.0,4.0,33.333332,,,,,,,,13.0,0.0,0.451424,0.5219729999999999,0.25708000000000003,-0.6765140000000001,0.9580219999999999,-0.11816600000000001,-0.331548,-0.016905,-0.048742,-0.039401,,,,,,,,,,,,,,,,,,,,,,,,,,,,,,,,,,,,,,,,,,,,,,,,,,,,,,,,,,,,,,,,,
6064,1645651691.426275,27.0,0.0,4368.205078,4678.974121,4246.666504,4278.974121,4271.794922,0.0,3.0,55.0,,,,0.0,4.0,0.0,4.0,0.0,4.0,33.333332,,,,,,,,,,,,,,,,,,,,,,,,,,,,,,,,,,,,,,,,,,,,,,,,,,,,,,,,,,,,,,,,,,,,,,,,,,,,,,,,,,,,
6065,1645651691.434094,28.0,0.0,4359.487305,4649.743652,4240.512695,4278.974121,4266.153809,0.0,3.0,55.0,,,,0.0,4.0,0.0,4.0,0.0,4.0,33.333332,,,,,,,,14.0,0.0,0.451507,0.522217,0.25708000000000003,-0.6762699999999999,0.94435,-0.104494,-0.334478,-0.017606999999999998,-0.048701999999999995,-0.041174,,,,,,,,,,,,,,,,,,,,,,,,,,,,,,,,,,,0.0,0.0,1.0,0.0,512.0,1.0,,,,,,,,,,,,,,,,,,,,,,,,,
6066,1645651691.4420118,29.0,0.0,4374.358886999999,4627.692383,4240.0,4280.512695,4273.333496,0.0,3.0,55.0,,,,0.0,4.0,0.0,4.0,0.0,4.0,33.333332,,,,,,,,,,,,,,,,,,,,,,,,,,,,,,,,,,,,,,,,,,,,,,,,,,,,,,,,,,,,,,,,,,,,,,,,,,,,,,,,,,,,
6067,1645651691.44983,30.0,0.0,4376.922852000001,4615.384765999999,4244.615234000001,4280.512695,4281.538574,0.0,3.0,55.0,,,,0.0,4.0,0.0,4.0,0.0,4.0,33.333332,,,,,,,,15.0,0.0,0.45159099999999996,0.522461,0.25708000000000003,-0.676025,0.949233,-0.123537,-0.330571,-0.01819,-0.048617,-0.042720999999999995,,,,,,,,,,,,,,,,,,,,,,,,,,,,,,,,,,,,,,,,,,,,,,,,,,,,,,,,,,,,,,,,,
6068,1645651691.457649,31.0,0.0,4335.897461,4613.333496,4231.282227000001,4279.487305,4261.538574,0.0,3.0,55.0,,,,0.0,4.0,0.0,4.0,0.0,4.0,33.333332,,,,,,,,,,,,,,,,,,,,,,,,,,,,,,,,,,,,,,,,,,,,,,,,,,,,,,,,,,,,,,,,,,,,,,,,,,,,,,,,,,,,
6069,1645651691.465467,32.0,0.0,4337.94873,4626.153809,4215.384765999999,4278.974121,4253.846191,0.0,3.0,55.0,,,,0.0,4.0,0.0,4.0,0.0,4.0,33.333332,,,,,,,,16.0,0.0,0.451956,0.522461,0.25708000000000003,-0.6757810000000001,0.952651,-0.11425999999999999,-0.326665,-0.016469,-0.048589,-0.044162,,,,,,,,,,,,,,,,,,,,,,,,,,,,,,,,,,,0.0,0.0,1.0,0.0,512.0,1.0,,,,,,,,,,,,,,,,,,,,,,,,,
6070,1645651691.473285,33.0,0.0,4400.0,4632.307617,4222.05127,4277.94873,4282.563965,0.0,3.0,55.0,,,,0.0,4.0,0.0,4.0,0.0,4.0,33.333332,,,,,,,,,,,,,,,,,,,,,,,,,,,,,,,,,,,,,,,,,,,,,,,,,,,,,,,,,,,,,,,,,,,,,,,,,,,,,,,,,,,,
6071,1645651691.481103,34.0,0.0,4474.358886999999,4658.461426,4205.128418,4278.461426,4284.615234000001,0.0,3.0,55.0,,,,0.0,4.0,0.0,4.0,0.0,4.0,33.333332,,,,,,,,17.0,0.0,0.452403,0.522705,0.25708000000000003,-0.675293,0.95021,-0.139651,-0.330571,-0.017166,-0.048662000000000004,-0.03916,,,,,,,,,,,,,,,,,,,,,,,,,,,,,,,,,,,,,,,,,,,,,,,,,,,,,,,,,,,,,,,,,
6072,1645651691.488822,35.0,0.0,4697.94873,4684.102539,4188.717772999999,4283.077147999999,4269.230957,0.0,3.0,55.0,,,,0.0,4.0,0.0,4.0,0.0,4.0,33.333332,,,,,,,,,,,,,,,,,,,,,,,,,,,,,,,,,,,,,,,,,,,,,,,,,,,,,,,,,,,,,,,,,,,,,,,,,,,,,,,,,,,,
6073,1645651691.49664,36.0,0.0,5077.436035,4593.846191,4207.179688,4291.282227000001,4288.205078,0.0,3.0,55.0,,,,0.0,4.0,0.0,4.0,0.0,4.0,33.333332,,,,,,,,18.0,0.0,0.452347,0.522949,0.257324,-0.675049,0.964858,-0.12695499999999998,-0.31787600000000005,-0.017842,-0.048581,-0.034707,1.0,0.0,0.0,,,,,,,,,,,,,,,,,,,,,,,,,,,,,,,,0.0,0.0,1.0,0.0,512.0,0.681236,4.633234,5.150777,2.40996,1.1082239999999999,1.7922650000000002,30.215818,25.554415,33.488186,13.476279000000002,12.194894999999999,9.306001,4.741032,2.1670279999999997,1.060318,1.552789,0.013866,0.009829000000000001,0.005435,0.0033159999999999995,0.009926,6.524145,6.425315,1.827618,0.906803,1.668653
6074,1645651691.504458,37.0,0.0,5565.641113000001,4501.025879,4233.846191,4302.563965,4323.589844,0.0,3.0,55.0,,,,0.0,4.0,0.0,4.0,0.0,4.0,33.333332,,,,,,,,,,,,,,,,,,,,,,,,,,,,,,,,,,,,,,,,,,,,,,,,,,,,,,,,,,,,,,,,,,,,,,,,,,,,,,,,,,,,
6075,1645651691.512276,38.0,0.0,6298.974121,4588.205078,4216.410156,4317.94873,4343.077147999999,0.0,3.0,55.0,,,,0.0,4.0,0.0,4.0,0.0,4.0,33.333332,,,,,,,,19.0,0.0,0.451956,0.522461,0.25708000000000003,-0.6757810000000001,0.952651,-0.11425999999999999,-0.326665,-0.018401,-0.048655000000000004,-0.03065,,,,,,,,,,,,,,,,,,,,,,,,,,,,,,,,,,,,,,,,,,,,,,,,,,,,,,,,,,,,,,,,,
6076,1645651691.520094,39.0,0.0,7003.589844,4670.256348,4228.205078,4334.871582,4363.589844,0.0,3.0,55.0,,,,0.0,4.0,0.0,4.0,0.0,4.0,33.333332,,,,,,,,,,,,,,,,,,,,,,,,,,,,,,,,,,,,,,,,,,,,,,,,,,,,,,,,,,,,,,,,,,,,,,,,,,,,,,,,,,,,
6077,1645651691.527913,40.0,0.0,7460.0,4604.102539,4242.563965,4351.794922,4374.358886999999,0.0,3.0,55.0,,,,0.0,4.0,0.0,4.0,0.0,4.0,33.333332,,,,,,,,20.0,0.0,0.452347,0.522949,0.257324,-0.675049,0.964858,-0.12695499999999998,-0.31787600000000005,-0.018954,-0.048575,-0.027048000000000003,,,,,,,,,,,,,,,,,,,,,,,,,,,,,,,,,,,0.0,0.0,1.0,0.0,512.0,0.681236,,,,,,,,,,,,,,,,,,,,,,,,,
6078,1645651691.535831,41.0,0.0,7685.641113,4633.846191,4229.743652,4369.230957,4376.922852000001,0.0,3.0,55.0,,,,0.0,4.0,0.0,4.0,0.0,4.0,33.333332,,,,,,,,,,,,,,,,,,,,,,,,,,,,,,,,,,,,,,,,,,,,,,,,,,,,,,,,,,,,,,,,,,,,,,,,,,,,,,,,,,,,
6079,1645651691.543649,42.0,0.0,7823.077148,4734.358886999999,4218.461426,4385.641113000001,4416.410156,0.0,3.0,55.0,,,,0.0,4.0,0.0,4.0,0.0,4.0,33.333332,,,,,,,,21.0,0.0,0.45257200000000003,0.522949,0.25756799999999996,-0.674805,0.9487450000000001,-0.140139,-0.32861799999999997,-0.019353,-0.048551,-0.030007,,,,,,,,,,,,,,,,,,,,,,,,,,,,,,,,,,,,,,,,,,,,,,,,,,,,,,,,,,,,,,,,,
6080,1645651691.551467,43.0,0.0,7818.461426000001,4722.563965,4220.512695,4395.897461,4443.077147999999,0.0,3.0,55.0,,,,0.0,4.0,0.0,4.0,0.0,4.0,33.333332,,,,,,,,,,,,,,,,,,,,,,,,,,,,,,,,,,,,,,,,,,,,,,,,,,,,,,,,,,,,,,,,,,,,,,,,,,,,,,,,,,,,
6081,1645651691.559285,44.0,0.0,7802.05127,4716.922852000001,4211.794922,4400.512695,4427.692383,0.0,3.0,55.0,,,,0.0,4.0,0.0,4.0,0.0,4.0,33.333332,,,,,,,,22.0,0.0,0.452654,0.523193,0.25756799999999996,-0.674561,0.9521629999999999,-0.12109600000000001,-0.32861799999999997,-0.017613,-0.048628,-0.032768,,,,,,,,,,,,,,,,,,,,,,,,,,,,,,,,,,,0.0,0.0,1.0,0.0,512.0,0.681236,,,,,,,,,,,,,,,,,,,,,,,,,
6082,1645651691.5671039,45.0,0.0,7798.974120999999,4772.820313,4205.128418,4402.563965,4420.0,0.0,3.0,55.0,,,,0.0,4.0,0.0,4.0,0.0,4.0,33.333332,,,,,,,,,,,,,,,,,,,,,,,,,,,,,,,,,,,,,,,,,,,,,,,,,,,,,,,,,,,,,,,,,,,,,,,,,,,,,,,,,,,,
6083,1645651691.574922,46.0,0.0,7771.282227,4745.128418,4213.846191,4402.563965,4434.358886999999,0.0,3.0,55.0,,,,0.0,4.0,0.0,4.0,0.0,4.0,33.333332,,,,,,,,23.0,0.0,0.452596,0.523438,0.257813,-0.674316,0.949233,-0.127932,-0.32959499999999997,-0.018196,-0.048697000000000004,-0.029051999999999998,,,,,,,,,,,,,,,,,,,,,,,,,,,,,,,,,,,,,,,,,,,,,,,,,,,,,,,,,,,,,,,,,
6084,1645651691.58274,47.0,0.0,7777.94873,4674.358886999999,4239.487305,4406.153809,4444.102539,0.0,3.0,55.0,,,,0.0,4.0,0.0,4.0,0.0,4.0,33.333332,,,,,,,,,,,,,,,,,,,,,,,,,,,,,,,,,,,,,,,,,,,,,,,,,,,,,,,,,,,,,,,,,,,,,,,,,,,,,,,,,,,,
6085,1645651691.590558,48.0,0.0,7768.205078,4699.487305,4262.05127,4410.256348,4455.897461,0.0,3.0,55.0,,,,0.0,4.0,0.0,4.0,0.0,4.0,33.333332,,,,,,,,24.0,0.0,0.45282100000000003,0.523438,0.25805700000000004,-0.674072,0.9629049999999999,-0.140139,-0.321782,-0.018769,-0.048661,-0.03186,,,,,,,,,,,,,,,,,,,,,,,,,,,,,,,,,,,0.0,0.0,1.0,0.0,512.0,0.681236,,,,,,,,,,,,,,,,,,,,,,,,,
6086,1645651691.598477,49.0,0.0,7770.769043000001,4738.461426,4237.94873,4411.794922,4450.256348,0.0,3.0,55.0,,,,0.0,4.0,0.0,4.0,0.0,4.0,33.333332,,,,,,,,,,,,,,,,,,,,,,,,,,,,,,,,,,,,,,,,,,,,,,,,,,,,,,,,,,,,,,,,,,,,,,,,,,,,,,,,,,,,
6087,1645651691.606296,50.0,0.0,7768.717773,4753.846191,4246.153809,4415.384765999999,4467.179688,0.0,3.0,55.0,,,,0.0,4.0,0.0,4.0,0.0,4.0,33.333332,,,,,,,,25.0,0.0,0.45268100000000006,0.523438,0.258301,-0.674072,0.947768,-0.12842,-0.327642,-0.019333000000000003,-0.04858,-0.028283,,,,,,,,,,,,,,,,,,,,,,,,,,,,,,,,,,,,,,,,,,,,,,,,,,,,,,,,,,,,,,,,,
6088,1645651691.614114,51.0,0.0,7769.743651999999,4761.025879,4301.538574,4421.538574,4523.077147999999,0.0,3.0,55.0,,,,0.0,4.0,0.0,4.0,0.0,4.0,33.333332,,,,,,,,,,,,,,,,,,,,,,,,,,,,,,,,,,,,,,,,,,,,,,,,,,,,,,,,,,,,,,,,,,,,,,,,,,,,,,,,,,,,
6089,1645651691.621933,52.0,0.0,7769.743651999999,4731.282227000001,4320.0,4423.589844,4553.846191,0.0,3.0,55.0,,,,0.0,4.0,0.0,4.0,0.0,4.0,33.333332,1.0,0.0,0.0,0.0,4.0,0.0,4.0,26.0,0.0,0.452542,0.523438,0.25854499999999997,-0.674072,0.959976,-0.13281500000000002,-0.319341,-0.019744,-0.048507,-0.031217,1.0,0.0,0.0,,,,,,,,,,,,,,,,,,,,,,,,,,,,,,,,0.0,0.0,1.0,0.0,512.0,0.294327,10.067428,7.3653830000000005,2.7214709999999998,1.146672,2.030742,32.179741,22.63702,33.380623,12.82422,11.215617,7.9113690000000005,4.692368,1.9759959999999999,0.991274,1.62907,0.018417,0.011828,0.004307,0.002646,0.008439,5.883299,6.585883,1.7631689999999998,0.992712,1.7827240000000002
6090,1645651691.629752,53.0,0.0,7770.769043000001,4718.974121,4293.846191,4422.563965,4548.205078,0.0,3.0,55.0,,,,0.0,4.0,0.0,4.0,0.0,4.0,33.333332,,,,,,,,,,,,,,,,,,,,,,,,,,,,,,,,,,,,,,,,,,,,,,,,,,,,,,,,,,,,,,,,,,,,,,,,,,,,,,,,,,,,
6091,1645651691.63757,54.0,0.0,7772.307617,4722.05127,4316.410156,4422.05127,4570.769043,0.0,3.0,55.0,,,,0.0,4.0,0.0,4.0,0.0,4.0,33.333332,,,,,,,,27.0,0.0,0.452402,0.523438,0.258789,-0.674072,0.957534,-0.132326,-0.326665,-0.018550999999999998,-0.04854,-0.033759,,,,,,,,,,,,,,,,,,,,,,,,,,,,,,,,,,,,,,,,,,,,,,,,,,,,,,,,,,,,,,,,,
6092,1645651691.645389,55.0,0.0,7779.487305,4715.897461,4339.487305,4417.94873,4604.102539,0.0,3.0,55.0,,,,0.0,4.0,0.0,4.0,0.0,4.0,33.333332,,,,,,,,,,,,,,,,,,,,,,,,,,,,,,,,,,,,,,,,,,,,,,,,,,,,,,,,,,,,,,,,,,,,,,,,,,,,,,,,,,,,
6093,1645651691.653208,56.0,0.0,7786.153809,4724.615234000001,4344.102539,4413.846191,4616.922852000001,0.0,3.0,55.0,,,,0.0,4.0,0.0,4.0,0.0,4.0,33.333332,,,,,,,,28.0,0.0,0.452766,0.523438,0.258789,-0.673828,0.945327,-0.12451400000000001,-0.321294,-0.019039,-0.04852,-0.036095999999999996,,,,,,,,,,,,,,,,,,,,,,,,,,,,,,,,,,,0.0,0.0,1.0,0.0,512.0,0.294327,,,,,,,,,,,,,,,,,,,,,,,,,
6094,1645651691.661027,57.0,0.0,7779.487305,4766.666504,4324.102539,4408.205078,4621.025879,0.0,3.0,55.0,,,,0.0,4.0,0.0,4.0,0.0,4.0,33.333332,,,,,,,,,,,,,,,,,,,,,,,,,,,,,,,,,,,,,,,,,,,,,,,,,,,,,,,,,,,,,,,,,,,,,,,,,,,,,,,,,,,,
6095,1645651691.668845,58.0,0.0,7812.820312999999,4785.641113000001,4305.641113000001,4400.512695,4616.922852000001,0.0,3.0,55.0,,,,0.0,4.0,0.0,4.0,0.0,4.0,33.333332,,,,,,,,29.0,0.0,0.452402,0.523438,0.258789,-0.674072,0.945327,-0.135744,-0.308598,-0.019479,-0.048551,-0.038248000000000004,,,,,,,,,,,,,,,,,,,,,,,,,,,,,,,,,,,,,,,,,,,,,,,,,,,,,,,,,,,,,,,,,
6096,1645651691.676664,59.0,0.0,7771.794922,4718.461426,4302.563965,4391.794922,4614.358886999999,0.0,3.0,55.0,,,,0.0,4.0,0.0,4.0,0.0,4.0,33.333332,,,,,,,,,,,,,,,,,,,,,,,,,,,,,,,,,,,,,,,,,,,,,,,,,,,,,,,,,,,,,,,,,,,,,,,,,,,,,,,,,,,,
6097,1645651691.684382,60.0,0.0,7675.897461,4596.410156,4297.94873,4381.025879,4600.0,0.0,3.0,55.0,,,,0.0,2.0,0.0,4.0,0.0,4.0,16.666666,,,,,,,,30.0,0.0,0.452263,0.523438,0.259033,-0.674072,0.951675,-0.121584,-0.314946,-0.019826,-0.048577999999999996,-0.033886,,,,,,,,,,,,,,,,,,,,,,,,,,,,,,,,,,,0.0,0.0,1.0,0.0,512.0,0.294327,,,,,,,,,,,,,,,,,,,,,,,,,
6098,1645651691.6922,61.0,0.0,7521.025879000001,4526.666504,4280.0,4370.256348,4594.871582,0.0,3.0,55.0,,,,0.0,2.0,0.0,4.0,0.0,4.0,16.666666,,,,,,,,,,,,,,,,,,,,,,,,,,,,,,,,,,,,,,,,,,,,,,,,,,,,,,,,,,,,,,,,,,,,,,,,,,,,,,,,,,,,
6099,1645651691.700018,62.0,0.0,7295.897461,4645.641113000001,4261.025879,4362.05127,4593.333496,0.0,3.0,55.0,,,,0.0,2.0,0.0,4.0,0.0,4.0,16.666666,,,,,,,,31.0,0.0,0.452038,0.523438,0.258789,-0.674316,0.945815,-0.13379100000000002,-0.321294,-0.020285,-0.048457,-0.03626,,,,,,,,,,,,,,,,,,,,,,,,,,,,,,,,,,,,,,,,,,,,,,,,,,,,,,,,,,,,,,,,,
6100,1645651691.707836,63.0,0.0,6947.179687999999,4740.512695,4242.563965,4354.358886999999,4584.615234000001,0.0,3.0,55.0,,,,0.0,2.0,0.0,4.0,0.0,4.0,16.666666,,,,,,,,,,,,,,,,,,,,,,,,,,,,,,,,,,,,,,,,,,,,,,,,,,,,,,,,,,,,,,,,,,,,,,,,,,,,,,,,,,,,
6101,1645651691.715654,64.0,0.0,6498.461426,4564.102539,4212.307617,4341.025879,4569.743652,450.0,3.0,55.0,,,,0.0,2.0,0.0,4.0,0.0,4.0,16.666666,,,,,,,,32.0,0.0,0.45232100000000003,0.523193,0.258789,-0.674316,0.957046,-0.136721,-0.327642,-0.020649,-0.048397,-0.038347000000000006,,,,,,,,,,,,,,,,,,,,,,,,,,,,,,,,,,,0.0,0.0,1.0,0.0,512.0,0.294327,,,,,,,,,,,,,,,,,,,,,,,,,
6102,1645651691.723472,65.0,0.0,6065.641113000001,4440.0,4188.205078,4329.743652,4560.0,450.0,3.0,55.0,,,,0.0,2.0,0.0,4.0,0.0,4.0,16.666666,,,,,,,,,,,,,,,,,,,,,,,,,,,,,,,,,,,,,,,,,,,,,,,,,,,,,,,,,,,,,,,,,,,,,,,,,,,,,,,,,,,,
6103,1645651691.73129,66.0,0.0,5615.897461,4547.179688,4167.179688,4322.05127,4538.974121,231.0,3.0,55.0,,,,0.0,2.0,0.0,4.0,0.0,4.0,16.666666,,,,,,,,33.0,0.0,0.45232100000000003,0.523193,0.258789,-0.674316,0.9555809999999999,-0.14111500000000002,-0.32861799999999997,-0.020928,-0.048489,-0.034072000000000005,,,,,,,,,,,,,,,,,,,,,,,,,,,,,,,,,,,,,,,,,,,,,,,,,,,,,,,,,,,,,,,,,
6104,1645651691.739108,67.0,0.0,5225.641113000001,4575.897461,4171.282227000001,4316.410156,4531.282227000001,450.0,3.0,55.0,,,,0.0,2.0,0.0,4.0,0.0,4.0,16.666666,,,,,,,,,,,,,,,,,,,,,,,,,,,,,,,,,,,,,,,,,,,,,,,,,,,,,,,,,,,,,,,,,,,,,,,,,,,,,,,,,,,,
6105,1645651691.746926,68.0,0.0,4816.410156,4494.358886999999,4148.205078,4307.692383,4495.897461,0.0,3.0,55.0,,,,0.0,2.0,0.0,4.0,0.0,4.0,16.666666,,,,,,,,34.0,0.0,0.45232100000000003,0.523193,0.258789,-0.674316,0.95314,-0.12549000000000002,-0.31201599999999996,-0.021179,-0.048474,-0.036525,1.0,0.0,0.0,,,,,,,,,,,,,,,,,,,,,,,,,,,,,,,,0.0,0.0,1.0,0.0,512.0,0.303883,134.60562099999999,35.766529,7.535603999999999,1.8535830000000002,2.312634,31.611947999999998,23.748323000000003,33.999069,12.662632,10.464174,5.927042,4.590639,1.69055,0.982866,1.713848,0.128702,0.033658,0.006178,0.002374,0.007287999999999999,5.133204,6.559796,1.6685759999999998,1.18418,1.8871330000000002
6106,1645651691.754644,69.0,0.0,4493.333496,4518.974121,4108.717772999999,4297.94873,4432.820313,450.0,3.0,55.0,,,,0.0,2.0,0.0,4.0,0.0,4.0,16.666666,,,,,,,,,,,,,,,,,,,,,,,,,,,,,,,,,,,,,,,,,,,,,,,,,,,,,,,,,,,,,,,,,,,,,,,,,,,,,,,,,,,,
6107,1645651691.762462,70.0,0.0,4268.717772999999,4581.025879,4104.615234000001,4293.333496,4427.692383,16072.0,3.0,55.0,,,,0.0,2.0,0.0,4.0,0.0,4.0,16.666666,,,,,,,,35.0,0.0,0.451957,0.523193,0.258789,-0.674561,0.963882,-0.138674,-0.319341,-0.021454,-0.048607,-0.038585,,,,,,,,,,,,,,,,,,,,,,,,,,,,,,,,,,,,,,,,,,,,,,,,,,,,,,,,,,,,,,,,,
6108,1645651691.770281,71.0,0.0,4110.769043,4601.538574,4133.333496,4294.871582,4444.615234000001,450.0,3.0,55.0,,,,0.0,2.0,0.0,4.0,0.0,4.0,16.666666,,,,,,,,,,,,,,,,,,,,,,,,,,,,,,,,,,,,,,,,,,,,,,,,,,,,,,,,,,,,,,,,,,,,,,,,,,,,,,,,,,,,
6109,1645651691.778099,72.0,0.0,3939.487061,4608.717772999999,4118.974121,4293.333496,4414.871582,450.0,3.0,55.0,,,,0.0,2.0,0.0,4.0,0.0,4.0,16.666666,,,,,,,,36.0,0.0,0.451957,0.523193,0.258789,-0.674561,0.95021,-0.119631,-0.330083,-0.021799000000000002,-0.04858,-0.034238,,,,,,,,,,,,,,,,,,,,,,,,,,,,,,,,,,,0.0,0.0,1.0,0.0,512.0,0.303883,,,,,,,,,,,,,,,,,,,,,,,,,
6110,1645651691.785917,73.0,0.0,3777.4357909999994,4595.384765999999,4104.615234000001,4284.615234000001,4385.641113000001,0.0,3.0,55.0,,,,0.0,2.0,0.0,4.0,0.0,4.0,16.666666,,,,,,,,,,,,,,,,,,,,,,,,,,,,,,,,,,,,,,,,,,,,,,,,,,,,,,,,,,,,,,,,,,,,,,,,,,,,,,,,,,,,
6111,1645651691.793735,74.0,0.0,3660.0,4623.077147999999,4096.410156,4278.974121,4370.256348,450.0,3.0,55.0,,,,0.0,2.0,0.0,4.0,0.0,4.0,16.666666,,,,,,,,37.0,0.0,0.451957,0.523193,0.258789,-0.674561,0.945327,-0.128908,-0.3252,-0.021963,-0.048556,-0.036479000000000004,,,,,,,,,,,,,,,,,,,,,,,,,,,,,,,,,,,,,,,,,,,,,,,,,,,,,,,,,,,,,,,,,
6112,1645651691.801554,75.0,0.0,3530.256348,4631.794922,4082.0512700000004,4280.0,4324.615234000001,16224.0,3.0,55.0,,,,0.0,2.0,0.0,4.0,0.0,4.0,16.666666,,,,,,,,,,,,,,,,,,,,,,,,,,,,,,,,,,,,,,,,,,,,,,,,,,,,,,,,,,,,,,,,,,,,,,,,,,,,,,,,,,,,
6113,1645651691.8093722,76.0,0.0,3441.025635,4578.461426,4090.7692869999996,4278.974121,4312.820313,450.0,3.0,55.0,,,,0.0,2.0,0.0,4.0,0.0,4.0,16.666666,,,,,,,,38.0,0.0,0.451592,0.523193,0.258789,-0.674805,0.9550930000000001,-0.123049,-0.32861799999999997,-0.022208000000000002,-0.048535,-0.032293999999999996,,,,,,,,,,,,,,,,,,,,,,,,,,,,,,,,,,,0.0,0.0,1.0,0.0,512.0,0.303883,,,,,,,,,,,,,,,,,,,,,,,,,
6114,1645651691.81719,77.0,0.0,3380.0,4622.563965,4127.692383,4276.410156,4338.974121,450.0,3.0,55.0,,,,0.0,2.0,0.0,4.0,0.0,4.0,16.666666,,,,,,,,,,,,,,,,,,,,,,,,,,,,,,,,,,,,,,,,,,,,,,,,,,,,,,,,,,,,,,,,,,,,,,,,,,,,,,,,,,,,
6115,1645651691.825008,78.0,0.0,3304.102539,4653.846191,4149.743652,4276.410156,4327.179688,450.0,3.0,55.0,,,,0.0,2.0,0.0,4.0,0.0,4.0,16.666666,,,,,,,,39.0,0.0,0.451592,0.523193,0.258789,-0.674805,0.9433739999999999,-0.11718900000000002,-0.323735,-0.020133,-0.048612999999999996,-0.034776999999999995,,,,,,,,,,,,,,,,,,,,,,,,,,,,,,,,,,,,,,,,,,,,,,,,,,,,,,,,,,,,,,,,,
6116,1645651691.832726,79.0,0.0,3228.718018,4561.025879,4134.358886999999,4273.846191,4278.974121,16224.0,3.0,55.0,,,,0.0,2.0,0.0,4.0,0.0,4.0,16.666666,,,,,,,,,,,,,,,,,,,,,,,,,,,,,,,,,,,,,,,,,,,,,,,,,,,,,,,,,,,,,,,,,,,,,,,,,,,,,,,,,,,,
6117,1645651691.840544,80.0,0.0,3191.794922,4572.307617,4111.794922,4271.794922,4270.769043,450.0,3.0,55.0,,,,0.0,2.0,0.0,4.0,0.0,4.0,16.666666,,,,,,,,40.0,0.0,0.451875,0.522949,0.258789,-0.674805,0.9463030000000001,-0.12549000000000002,-0.330083,-0.018900999999999998,-0.048586000000000004,-0.037159,,,,,,,,,,,,,,,,,,,,,,,,,,,,,,,,,,,0.0,0.0,1.0,0.0,512.0,0.303883,,,,,,,,,,,,,,,,,,,,,,,,,
6118,1645651691.848362,81.0,0.0,3178.974365,4674.358886999999,4129.230957,4269.743652,4302.563965,450.0,3.0,55.0,,,,0.0,2.0,0.0,4.0,0.0,4.0,16.666666,,,,,,,,,,,,,,,,,,,,,,,,,,,,,,,,,,,,,,,,,,,,,,,,,,,,,,,,,,,,,,,,,,,,,,,,,,,,,,,,,,,,
6119,1645651691.856179,82.0,0.0,3152.3076170000004,4686.153809,4181.538574,4268.205078,4317.94873,450.0,3.0,55.0,,,,0.0,2.0,0.0,4.0,0.0,4.0,16.666666,,,,,,,,41.0,0.0,0.451875,0.522949,0.258789,-0.674805,0.9438620000000001,-0.124025,-0.32910700000000004,-0.019453,-0.04861,-0.039156,,,,,,,,,,,,,,,,,,,,,,,,,,,,,,,,,,,,,,,,,,,,,,,,,,,,,,,,,,,,,,,,,
6120,1645651691.863997,83.0,0.0,3087.6923829999996,4682.563965,4189.230957,4268.717772999999,4277.94873,16224.0,3.0,55.0,,,,0.0,2.0,0.0,4.0,0.0,4.0,16.666666,,,,,,,,,,,,,,,,,,,,,,,,,,,,,,,,,,,,,,,,,,,,,,,,,,,,,,,,,,,,,,,,,,,,,,,,,,,,,,,,,,,,
6121,1645651691.871815,84.0,0.0,3040.512939,4683.589844,4192.820313,4269.230957,4250.256348,450.0,3.0,55.0,,,,0.0,2.0,0.0,4.0,0.0,4.0,16.666666,,,,,,,,42.0,0.0,0.45179300000000006,0.522705,0.258789,-0.675049,0.9487450000000001,-0.119631,-0.320317,-0.019949,-0.048534,-0.034606,1.0,0.0,0.0,,,,,,,,,,,,,,,,,,,,,,,,,,,,,,,,0.0,0.0,32.0,1.0,1.0,0.0,568.866638,138.211746,28.01462,4.250087000000001,2.582512,29.493708,27.738847999999997,36.165915999999996,13.277835000000001,10.187638,4.308602,4.551904,1.353921,1.033318,1.760114,0.54503,0.11788199999999999,0.014868000000000001,0.002553,0.006772,4.853651999999999,6.666688000000001,1.556904,1.435619,1.931554
6122,1645651691.879633,85.0,0.0,3030.769287,4642.563965,4223.077147999999,4266.153809,4257.94873,450.0,3.0,55.0,,,,0.0,2.0,0.0,4.0,0.0,4.0,16.666666,,,,,,,,,,,,,,,,,,,,,,,,,,,,,,,,,,,,,,,,,,,,,,,,,,,,,,,,,,,,,,,,,,,,,,,,,,,,,,,,,,,,
6123,1645651691.88745,86.0,0.0,3022.564209,4612.307617,4269.230957,4264.102539,4263.589844,450.0,3.0,55.0,,,,0.0,2.0,0.0,4.0,0.0,4.0,16.666666,,,,,,,,43.0,0.0,0.45179300000000006,0.522705,0.258789,-0.675049,0.95021,-0.118654,-0.315923,-0.018734999999999998,-0.048563999999999996,-0.036858,,,,,,,,,,,,,,,,,,,,,,,,,,,,,,,,,,,,,,,,,,,,,,,,,,,,,,,,,,,,,,,,,
6124,1645651691.895268,87.0,0.0,3011.281982,4622.05127,4272.307617,4265.641113000001,4264.615234000001,16224.0,3.0,55.0,,,,0.0,2.0,0.0,4.0,0.0,4.0,16.666666,,,,,,,,,,,,,,,,,,,,,,,,,,,,,,,,,,,,,,,,,,,,,,,,,,,,,,,,,,,,,,,,,,,,,,,,,,,,,,,,,,,,
6125,1645651691.902986,88.0,0.0,2988.718018,4638.974121,4257.94873,4264.615234000001,4245.128418,450.0,3.0,55.0,,,,0.0,2.0,0.0,4.0,0.0,4.0,16.666666,,,,,,,,44.0,0.0,0.45201800000000003,0.522705,0.259033,-0.674805,0.9585110000000001,-0.12109600000000001,-0.314458,-0.019303,-0.048589999999999994,-0.032635000000000004,,,,,,,,,,,,,,,,,,,,,,,,,,,,,,,,,,,0.0,0.0,32.0,1.0,1.0,0.0,,,,,,,,,,,,,,,,,,,,,,,,,
6126,1645651691.9108038,89.0,0.0,2960.512939,4680.0,4239.487305,4263.589844,4219.487305,450.0,3.0,55.0,,,,0.0,2.0,0.0,4.0,0.0,4.0,16.666666,,,,,,,,,,,,,,,,,,,,,,,,,,,,,,,,,,,,,,,,,,,,,,,,,,,,,,,,,,,,,,,,,,,,,,,,,,,,,,,,,,,,
6127,1645651691.918622,90.0,0.0,2955.384521,4686.153809,4247.179688,4263.589844,4227.179688,450.0,3.0,55.0,,,,0.0,2.0,0.0,4.0,0.0,4.0,16.666666,,,,,,,,45.0,0.0,0.45165299999999997,0.522705,0.259033,-0.675049,0.9580219999999999,-0.138186,-0.33105999999999997,-0.019717,-0.048663,-0.035085000000000005,,,,,,,,,,,,,,,,,,,,,,,,,,,,,,,,,,,,,,,,,,,,,,,,,,,,,,,,,,,,,,,,,
6128,1645651691.92644,91.0,0.0,2995.384521,4679.487305,4285.128418,4263.589844,4275.897461,16224.0,3.0,55.0,,,,0.0,2.0,0.0,4.0,0.0,4.0,16.666666,,,,,,,,,,,,,,,,,,,,,,,,,,,,,,,,,,,,,,,,,,,,,,,,,,,,,,,,,,,,,,,,,,,,,,,,,,,,,,,,,,,,
6129,1645651691.934258,92.0,0.0,3010.256348,4681.538574,4315.897461,4264.102539,4288.205078,450.0,3.0,55.0,,,,0.0,2.0,0.0,4.0,0.0,4.0,16.666666,,,,,,,,46.0,0.0,0.45165299999999997,0.522705,0.259033,-0.675049,0.954116,-0.12549000000000002,-0.321294,-0.020235,-0.04868,-0.031038999999999997,,,,,,,,,,,,,,,,,,,,,,,,,,,,,,,,,,,0.0,0.0,32.0,1.0,1.0,0.0,,,,,,,,,,,,,,,,,,,,,,,,,
6130,1645651691.942076,93.0,0.0,2985.128174,4657.94873,4308.717772999999,4263.589844,4260.0,450.0,3.0,55.0,,,,0.0,2.0,0.0,4.0,0.0,4.0,16.666666,,,,,,,,,,,,,,,,,,,,,,,,,,,,,,,,,,,,,,,,,,,,,,,,,,,,,,,,,,,,,,,,,,,,,,,,,,,,,,,,,,,,
6131,1645651691.949894,94.0,0.0,2965.6411129999997,4702.563965,4293.846191,4262.563965,4254.358886999999,450.0,3.0,55.0,,,,0.0,2.0,0.0,4.0,0.0,4.0,16.666666,,,,,,,,47.0,0.0,0.45201800000000003,0.522705,0.259033,-0.674805,0.9585110000000001,-0.12109600000000001,-0.314458,-0.020555,-0.048499,-0.0273,,,,,,,,,,,,,,,,,,,,,,,,,,,,,,,,,,,,,,,,,,,,,,,,,,,,,,,,,,,,,,,,,
6132,1645651691.957712,95.0,0.0,2985.6411129999997,4729.743652,4323.077147999999,4262.05127,4271.282227000001,16224.0,3.0,55.0,,,,0.0,2.0,0.0,4.0,0.0,4.0,16.666666,,,,,,,,,,,,,,,,,,,,,,,,,,,,,,,,,,,,,,,,,,,,,,,,,,,,,,,,,,,,,,,,,,,,,,,,,,,,,,,,,,,,
6133,1645651691.9655302,96.0,0.0,3004.102539,4683.589844,4358.461426,4263.077147999999,4271.282227000001,450.0,3.0,55.0,,,,0.0,2.0,0.0,4.0,0.0,4.0,16.666666,,,,,,,,48.0,0.0,0.45165299999999997,0.522705,0.259033,-0.675049,0.954116,-0.12549000000000002,-0.321294,-0.02099,-0.048532,-0.024033000000000002,,,,,,,,,,,,,,,,,,,,,,,,,,,,,,,,,,,0.0,0.0,32.0,1.0,1.0,0.0,,,,,,,,,,,,,,,,,,,,,,,,,
6134,1645651691.973248,97.0,0.0,2993.846191,4683.077147999999,4374.358886999999,4263.077147999999,4270.769043,450.0,3.0,55.0,,,,0.0,2.0,0.0,4.0,0.0,4.0,16.666666,,,,,,,,,,,,,,,,,,,,,,,,,,,,,,,,,,,,,,,,,,,,,,,,,,,,,,,,,,,,,,,,,,,,,,,,,,,,,,,,,,,,
6135,1645651691.981066,98.0,0.0,2990.769287,4686.153809,4388.717772999999,4263.589844,4279.487305,450.0,3.0,55.0,,,,0.0,2.0,0.0,4.0,0.0,4.0,16.666666,,,,,,,,49.0,0.0,0.45165299999999997,0.522705,0.259033,-0.675049,0.949233,-0.11718900000000002,-0.32910700000000004,-0.021333,-0.048562,-0.027538,,,,,,,,,,,,,,,,,,,,,,,,,,,,,,,,,,,,,,,,,,,,,,,,,,,,,,,,,,,,,,,,,
6136,1645651691.988884,99.0,0.0,3008.718018,4653.846191,4414.871582,4263.077147999999,4294.871582,16224.0,3.0,55.0,,,,0.0,2.0,0.0,4.0,0.0,4.0,16.666666,,,,,,,,,,,,,,,,,,,,,,,,,,,,,,,,,,,,,,,,,,,,,,,,,,,,,,,,,,,,,,,,,,,,,,,,,,,,,,,,,,,,
6137,1645651691.996702,100.0,0.0,3007.6923829999996,4651.282227000001,4417.436035,4262.05127,4289.743652,450.0,3.0,55.0,,,,0.0,2.0,0.0,4.0,0.0,4.0,16.666666,,,,,,,,50.0,0.0,0.45193500000000003,0.522461,0.259033,-0.675049,0.9589989999999999,-0.128908,-0.314458,-0.02169,-0.048393,-0.030449,1.0,0.0,0.0,,,,,,,,,,,,,,,,,,,,,,,,,,,,,,,,0.0,0.0,32.0,1.0,1.0,0.0,1478.6408689999998,348.96582,75.18581400000001,9.139336,2.8019990000000004,27.886209,32.506458,39.710831,14.757126999999999,10.595428,4.741117,4.636195,1.027683,1.118876,1.7390150000000002,1.4725780000000002,0.30398400000000003,0.034163,0.003353,0.007176999999999999,5.141961,7.088356,1.428868,1.651675,1.8939110000000001
6138,1645651692.00452,101.0,0.0,2993.333252,4632.307617,4410.256348,4263.077147999999,4271.794922,450.0,3.0,55.0,,,,0.0,2.0,0.0,4.0,0.0,4.0,16.666666,,,,,,,,,,,,,,,,,,,,,,,,,,,,,,,,,,,,,,,,,,,,,,,,,,,,,,,,,,,,,,,,,,,,,,,,,,,,,,,,,,,,
6139,1645651692.0123382,102.0,0.0,2990.769287,4567.692383,4397.436035,4264.102539,4252.307617,450.0,3.0,55.0,,,,0.0,2.0,0.0,4.0,0.0,4.0,16.666666,,,,,,,,51.0,0.0,0.45193500000000003,0.522461,0.259033,-0.675049,0.9555809999999999,-0.12451400000000001,-0.335943,-0.021962,-0.048339,-0.026719999999999997,,,,,,,,,,,,,,,,,,,,,,,,,,,,,,,,,,,,,,,,,,,,,,,,,,,,,,,,,,,,,,,,,
6140,1645651692.0201561,103.0,0.0,3001.5385739999997,4632.820313,4394.358886999999,4262.05127,4251.282227000001,16224.0,3.0,55.0,,,,0.0,2.0,0.0,4.0,0.0,4.0,16.666666,,,,,,,,,,,,,,,,,,,,,,,,,,,,,,,,,,,,,,,,,,,,,,,,,,,,,,,,,,,,,,,,,,,,,,,,,,,,,,,,,,,,
6141,1645651692.0279741,104.0,0.0,3014.3588870000003,4669.743652,4382.563965,4262.05127,4259.487305,450.0,3.0,55.0,,,,0.0,2.0,0.0,4.0,0.0,4.0,16.666666,,,,,,,,52.0,0.0,0.45156999999999997,0.522461,0.259033,-0.675293,0.964858,-0.126467,-0.337407,-0.021963,-0.048486,-0.029615,,,,,,,,,,,,,,,,,,,,,,,,,,,,,,,,,,,0.0,0.0,32.0,1.0,1.0,0.0,,,,,,,,,,,,,,,,,,,,,,,,,
6142,1645651692.0357919,105.0,0.0,3022.564209,4565.641113000001,4367.692383,4264.615234000001,4250.769043,450.0,3.0,55.0,,,,0.0,2.0,0.0,4.0,0.0,4.0,16.666666,,,,,,,,,,,,,,,,,,,,,,,,,,,,,,,,,,,,,,,,,,,,,,,,,,,,,,,,,,,,,,,,,,,,,,,,,,,,,,,,,,,,
6143,1645651692.0436099,106.0,0.0,3029.743652,4548.205078,4329.230957,4263.589844,4242.563965,450.0,3.0,55.0,,,,0.0,2.0,0.0,4.0,0.0,4.0,16.666666,,,,,,,,53.0,0.0,0.45185299999999995,0.522217,0.259033,-0.675293,0.947768,-0.13086099999999998,-0.31201599999999996,-0.022257,-0.048471,-0.032513,,,,,,,,,,,,,,,,,,,,,,,,,,,,,,,,,,,,,,,,,,,,,,,,,,,,,,,,,,,,,,,,,
6144,1645651692.051328,107.0,0.0,3026.153809,4626.666504,4289.230957,4260.512695,4240.512695,16224.0,3.0,55.0,,,,0.0,2.0,0.0,4.0,0.0,4.0,16.666666,,,,,,,,,,,,,,,,,,,,,,,,,,,,,,,,,,,,,,,,,,,,,,,,,,,,,,,,,,,,,,,,,,,,,,,,,,,,,,,,,,,,
6145,1645651692.059145,108.0,0.0,3029.230713,4590.256348,4263.589844,4261.538574,4237.94873,450.0,3.0,55.0,,,,0.0,2.0,0.0,4.0,0.0,4.0,16.666666,,,,,,,,54.0,0.0,0.45171000000000006,0.522461,0.258789,-0.675293,0.957046,-0.131838,-0.319829,-0.020763999999999998,-0.048507,-0.035023,,,,,,,,,,,,,,,,,,,,,,,,,,,,,,,,,,,0.0,0.0,32.0,1.0,1.0,0.0,,,,,,,,,,,,,,,,,,,,,,,,,
6146,1645651692.0669632,109.0,0.0,3034.871826,4543.589844,4233.846191,4262.563965,4228.717772999999,450.0,3.0,55.0,,,,0.0,2.0,0.0,4.0,0.0,4.0,16.666666,,,,,,,,,,,,,,,,,,,,,,,,,,,,,,,,,,,,,,,,,,,,,,,,,,,,,,,,,,,,,,,,,,,,,,,,,,,,,,,,,,,,
6147,1645651692.074781,110.0,0.0,3055.897461,4590.256348,4210.256348,4262.05127,4237.94873,450.0,3.0,55.0,,,,0.0,2.0,0.0,4.0,0.0,4.0,16.666666,,,,,,,,55.0,0.0,0.45171000000000006,0.522461,0.258789,-0.675293,0.962417,-0.133303,-0.332036,-0.021129,-0.04849,-0.037331,,,,,,,,,,,,,,,,,,,,,,,,,,,,,,,,,,,,,,,,,,,,,,,,,,,,,,,,,,,,,,,,,
6148,1645651692.082599,111.0,0.0,3070.769287,4640.0,4192.820313,4261.538574,4246.153809,16224.0,3.0,55.0,,,,0.0,2.0,0.0,4.0,0.0,4.0,16.666666,,,,,,,,,,,,,,,,,,,,,,,,,,,,,,,,,,,,,,,,,,,,,,,,,,,,,,,,,,,,,,,,,,,,,,,,,,,,,,,,,,,,
6149,1645651692.090416,112.0,0.0,3057.94873,4663.589844,4150.769043,4261.025879,4227.692383,450.0,3.0,55.0,,,,0.0,2.0,0.0,4.0,0.0,4.0,16.666666,,,,,,,,56.0,0.0,0.45171000000000006,0.522461,0.258789,-0.675293,0.9580219999999999,-0.131838,-0.32861799999999997,-0.02136,-0.048524,-0.03936,,,,,,,,,,,,,,,,,,,,,,,,,,,,,,,,,,,0.0,0.0,32.0,1.0,1.0,0.0,,,,,,,,,,,,,,,,,,,,,,,,,
6150,1645651692.098234,113.0,0.0,3049.230713,4672.820313,4104.615234000001,4260.0,4207.179688,450.0,3.0,55.0,,,,0.0,2.0,0.0,4.0,0.0,4.0,16.666666,,,,,,,,,,,,,,,,,,,,,,,,,,,,,,,,,,,,,,,,,,,,,,,,,,,,,,,,,,,,,,,,,,,,,,,,,,,,,,,,,,,,
6151,1645651692.106052,114.0,0.0,3076.923096,4616.922852000001,4113.333496,4262.563965,4226.666504,450.0,3.0,55.0,,,,0.0,2.0,0.0,4.0,0.0,4.0,16.666666,,,,,,,,57.0,0.0,0.452215,0.522461,0.25854499999999997,-0.675049,0.9550930000000001,-0.12451400000000001,-0.308598,-0.021616,-0.048506,-0.034887,,,,,,,,,,,,,,,,,,,,,,,,,,,,,,,,,,,,,,,,,,,,,,,,,,,,,,,,,,,,,,,,,
6152,1645651692.11387,115.0,0.0,3101.5385739999997,4597.94873,4119.487305,4262.563965,4255.897461,16224.0,3.0,55.0,,,,0.0,2.0,0.0,4.0,0.0,4.0,16.666666,,,,,,,,,,,,,,,,,,,,,,,,,,,,,,,,,,,,,,,,,,,,,,,,,,,,,,,,,,,,,,,,,,,,,,,,,,,,,,,,,,,,
6153,1645651692.121588,116.0,1.0,3106.025635,4611.922852000001,4112.820313,4262.563965,4251.987305,16224.0,3.0,55.0,,,,0.0,4.0,0.0,4.0,0.0,4.0,33.333332,0.996094,0.0,0.0,0.0,3.0,0.0,4.0,58.0,1.0,0.452186,0.52251,0.258496,-0.675049,0.953628,-0.125978,-0.31064899999999995,-0.021653,-0.048493,-0.035351,1.0,0.0,0.0,,,,,,,,,,,,,,,,,,,,,,,,,,,,,,,,0.0,0.0,32.0,1.0,1.0,0.0,2871.069336,662.173767,150.17157,16.328583,2.964546,28.904152000000003,35.863358000000005,43.411926,16.982847,11.779605,8.516444,4.8843440000000005,0.774221,1.2334450000000001,1.668382,2.913089,0.593974,0.064237,0.005012,0.008762,6.511634,7.778291,1.313257,1.759679,1.80837
6154,1645651692.129406,117.0,1.0,3110.512939,4625.897461,4106.153809,4262.563965,4248.077147999999,16224.0,3.0,55.0,,,,0.0,4.0,0.0,4.0,0.0,4.0,33.333332,,,,,,,,,,,,,,,,,,,,,,,,,,,,,,,,,,,,,,,,,,,,,,,,,,,,,,,,,,,,,,,,,,,,,,,,,,,,,,,,,,,,
6155,1645651692.137224,118.0,1.0,3115.0,4639.871582,4099.487305,4262.563965,4244.166504,16224.0,3.0,55.0,,,,0.0,4.0,0.0,4.0,0.0,4.0,33.333332,,,,,,,,59.0,1.0,0.452158,0.522559,0.258447,-0.675049,0.9521629999999999,-0.127443,-0.3127,-0.021689,-0.04848,-0.035816,,,,,,,,,,,,,,,,,,,,,,,,,,,,,,,,,,,,,,,,,,,,,,,,,,,,,,,,,,,,,,,,,
6156,1645651692.145042,119.0,1.0,3119.487061,4653.846191,4092.820557,4262.563965,4240.256348,16224.0,3.0,55.0,,,,0.0,4.0,0.0,4.0,0.0,4.0,33.333332,,,,,,,,,,,,,,,,,,,,,,,,,,,,,,,,,,,,,,,,,,,,,,,,,,,,,,,,,,,,,,,,,,,,,,,,,,,,,,,,,,,,
6157,1645651692.15286,120.0,1.0,3123.974365,4667.820313,4086.1538090000004,4262.563965,4236.346191,16224.0,3.0,55.0,,,,0.0,4.0,0.0,4.0,0.0,4.0,33.333332,,,,,,,,60.0,1.0,0.452129,0.5226069999999999,0.258398,-0.675049,0.9506979999999999,-0.128908,-0.314751,-0.021726,-0.048467,-0.03628,,,,,,,,,,,,,,,,,,,,,,,,,,,,,,,,,,,0.0,0.0,32.0,1.0,1.0,0.0,,,,,,,,,,,,,,,,,,,,,,,,,
6158,1645651692.160678,121.0,1.0,3128.4614260000003,4681.794922,4079.487061,4262.563965,4232.436035,16224.0,3.0,55.0,,,,0.0,4.0,0.0,4.0,0.0,4.0,33.333332,,,,,,,,,,,,,,,,,,,,,,,,,,,,,,,,,,,,,,,,,,,,,,,,,,,,,,,,,,,,,,,,,,,,,,,,,,,,,,,,,,,,
6159,1645651692.1684961,122.0,1.0,3132.94873,4695.769043,4072.820557,4262.563965,4228.525879,16224.0,3.0,55.0,,,,0.0,4.0,0.0,4.0,0.0,4.0,33.333332,,,,,,,,61.0,1.0,0.45210100000000003,0.522656,0.25835,-0.675049,0.949233,-0.130373,-0.316802,-0.021762,-0.048454000000000004,-0.036745,,,,,,,,,,,,,,,,,,,,,,,,,,,,,,,,,,,,,,,,,,,,,,,,,,,,,,,,,,,,,,,,,
6160,1645651692.176314,123.0,0.0,3137.435791,4709.743652,4066.1538090000004,4262.563965,4224.615234000001,16224.0,3.0,55.0,,,,0.0,4.0,0.0,4.0,0.0,4.0,33.333332,,,,,,,,,,,,,,,,,,,,,,,,,,,,,,,,,,,,,,,,,,,,,,,,,,,,,,,,,,,,,,,,,,,,,,,,,,,,,,,,,,,,
6161,1645651692.184132,124.0,0.0,3123.589844,4724.102539,4081.538574,4262.563965,4220.0,450.0,3.0,55.0,,,,0.0,4.0,0.0,4.0,0.0,4.0,33.333332,,,,,,,,62.0,0.0,0.45207200000000003,0.522705,0.258301,-0.675049,0.947768,-0.131838,-0.318853,-0.021799000000000002,-0.04844,-0.037209,,,,,,,,,,,,,,,,,,,,,,,,,,,,,,,,,,,0.0,0.0,32.0,1.0,1.0,0.0,,,,,,,,,,,,,,,,,,,,,,,,,
6162,1645651692.19195,125.0,0.0,3116.410156,4747.692383,4084.615479,4262.563965,4203.589844,450.0,3.0,55.0,,,,0.0,4.0,0.0,4.0,0.0,4.0,33.333332,,,,,,,,,,,,,,,,,,,,,,,,,,,,,,,,,,,,,,,,,,,,,,,,,,,,,,,,,,,,,,,,,,,,,,,,,,,,,,,,,,,,
6163,1645651692.199768,126.0,0.0,3152.820557,4683.589844,4103.077147999999,4265.641113000001,4197.436035,450.0,3.0,55.0,,,,0.0,4.0,0.0,4.0,0.0,4.0,33.333332,,,,,,,,63.0,0.0,0.45207200000000003,0.522705,0.258301,-0.675049,0.941421,-0.136233,-0.327642,-0.021914,-0.048479,-0.032951,,,,,,,,,,,,,,,,,,,,,,,,,,,,,,,,,,,,,,,,,,,,,,,,,,,,,,,,,,,,,,,,,
6164,1645651692.207586,127.0,0.0,3182.05127,4574.871582,4138.974121,4265.128418,4201.538574,234.0,3.0,55.0,,,,0.0,4.0,0.0,4.0,0.0,4.0,33.333332,,,,,,,,,,,,,,,,,,,,,,,,,,,,,,,,,,,,,,,,,,,,,,,,,,,,,,,,,,,,,,,,,,,,,,,,,,,,,,,,,,,,
6165,1645651692.2154038,0.0,0.0,3177.435791,4597.436035,4130.769043,4261.538574,4196.922852000001,450.0,3.0,55.0,,,,0.0,4.0,0.0,4.0,0.0,4.0,33.333332,,,,,,,,0.0,0.0,0.452211,0.522705,0.25805700000000004,-0.675049,0.938003,-0.129885,-0.33350100000000005,-0.019771,-0.048514,-0.035418,,,,,,,,,,,,,,,,,,,,,,,,,,,,,,,,,,,0.0,0.0,32.0,1.0,1.0,0.0,,,,,,,,,,,,,,,,,,,,,,,,,
6166,1645651692.223222,1.0,0.0,3185.128174,4677.94873,4104.102539,4260.0,4201.025879,450.0,3.0,55.0,,,,0.0,4.0,0.0,4.0,0.0,4.0,33.333332,,,,,,,,,,,,,,,,,,,,,,,,,,,,,,,,,,,,,,,,,,,,,,,,,,,,,,,,,,,,,,,,,,,,,,,,,,,,,,,,,,,,
6167,1645651692.23104,2.0,0.0,3188.205078,4680.0,4108.717772999999,4261.025879,4203.589844,16225.0,3.0,55.0,,,,0.0,4.0,0.0,4.0,0.0,4.0,33.333332,,,,,,,,1.0,0.0,0.452211,0.522705,0.25805700000000004,-0.675049,0.9463030000000001,-0.127932,-0.332036,-0.020138,-0.048497000000000005,-0.031339,,,,,,,,,,,,,,,,,,,,,,,,,,,,,,,,,,,,,,,,,,,,,,,,,,,,,,,,,,,,,,,,,
6168,1645651692.238755,3.0,0.0,3175.384521,4670.769043,4140.512695,4261.538574,4196.922852000001,450.0,3.0,55.0,,,,0.0,4.0,0.0,4.0,0.0,4.0,33.333332,,,,,,,,,,,,,,,,,,,,,,,,,,,,,,,,,,,,,,,,,,,,,,,,,,,,,,,,,,,,,,,,,,,,,,,,,,,,,,,,,,,,
6169,1645651692.2465699,4.0,0.0,3176.923096,4648.205078,4147.692383,4262.563965,4185.641113000001,0.0,3.0,55.0,,,,0.0,4.0,0.0,4.0,0.0,4.0,33.333332,,,,,,,,2.0,0.0,0.452211,0.522705,0.25805700000000004,-0.675049,0.95021,-0.126467,-0.32813000000000003,-0.018222,-0.048530000000000004,-0.033918000000000004,1.0,0.0,0.0,,,,,,,,,,,,,,,,,,,,,,,,,,,,,,,,0.0,0.0,32.0,0.362161,1.0,0.0,4534.881836,1016.376953,239.443359,24.347614,3.087942,33.435577,36.523251,45.384243,19.497951999999998,13.613237,14.879676000000002,5.375159,0.626216,1.396522,1.605705,4.646167,0.9337129999999999,0.099953,0.007631999999999999,0.011505,8.987738,8.464742999999999,1.2496120000000002,1.745573,1.7502659999999999
6170,1645651692.254385,5.0,0.0,3205.6411129999997,4623.077147999999,4157.94873,4263.589844,4187.692383,450.0,3.0,55.0,,,,0.0,4.0,0.0,4.0,0.0,4.0,33.333332,,,,,,,,,,,,,,,,,,,,,,,,,,,,,,,,,,,,,,,,,,,,,,,,,,,,,,,,,,,,,,,,,,,,,,,,,,,,,,,,,,,,
6171,1645651692.2622,6.0,0.0,3232.3076170000004,4630.769043,4173.333496,4263.077147999999,4201.025879,16233.0,3.0,55.0,,,,0.0,4.0,0.0,4.0,0.0,4.0,33.333332,,,,,,,,3.0,0.0,0.452211,0.522705,0.25805700000000004,-0.675049,0.9399559999999999,-0.12549000000000002,-0.326177,-0.018743,-0.048658,-0.036239,,,,,,,,,,,,,,,,,,,,,,,,,,,,,,,,,,,,,,,,,,,,,,,,,,,,,,,,,,,,,,,,,
6172,1645651692.270015,7.0,0.0,3242.564209,4644.102539,4181.025879,4262.05127,4210.256348,450.0,3.0,55.0,,,,0.0,4.0,0.0,4.0,0.0,4.0,33.333332,,,,,,,,,,,,,,,,,,,,,,,,,,,,,,,,,,,,,,,,,,,,,,,,,,,,,,,,,,,,,,,,,,,,,,,,,,,,,,,,,,,,
6173,1645651692.2778301,8.0,0.0,3248.205078,4713.333496,4161.538574,4261.538574,4212.307617,450.0,3.0,55.0,,,,0.0,4.0,0.0,4.0,0.0,4.0,33.333332,,,,,,,,4.0,0.0,0.452211,0.522705,0.25805700000000004,-0.675049,0.940932,-0.131838,-0.318364,-0.019213,-0.048724,-0.032126999999999996,,,,,,,,,,,,,,,,,,,,,,,,,,,,,,,,,,,0.0,0.0,32.0,0.362161,1.0,0.0,,,,,,,,,,,,,,,,,,,,,,,,,
6174,1645651692.2856462,9.0,0.0,3257.435791,4790.769043,4173.333496,4262.563965,4220.0,0.0,3.0,55.0,,,,0.0,4.0,0.0,4.0,0.0,4.0,33.333332,,,,,,,,,,,,,,,,,,,,,,,,,,,,,,,,,,,,,,,,,,,,,,,,,,,,,,,,,,,,,,,,,,,,,,,,,,,,,,,,,,,,
6175,1645651692.2934608,10.0,0.0,3272.3076170000004,4700.512695,4203.077147999999,4264.102539,4231.282227000001,450.0,3.0,55.0,,,,0.0,4.0,0.0,4.0,0.0,4.0,33.333332,,,,,,,,5.0,0.0,0.452211,0.522705,0.25805700000000004,-0.675049,0.9438620000000001,-0.122072,-0.333989,-0.019733,-0.048685,-0.034627,,,,,,,,,,,,,,,,,,,,,,,,,,,,,,,,,,,,,,,,,,,,,,,,,,,,,,,,,,,,,,,,,
6176,1645651692.301276,11.0,0.0,3287.6923829999996,4556.922852000001,4230.256348,4262.05127,4223.589844,16175.0,3.0,55.0,,,,0.0,4.0,0.0,4.0,0.0,4.0,33.333332,,,,,,,,,,,,,,,,,,,,,,,,,,,,,,,,,,,,,,,,,,,,,,,,,,,,,,,,,,,,,,,,,,,,,,,,,,,,,,,,,,,,
6177,1645651692.308991,12.0,0.0,3312.3076170000004,4592.820313,4243.077147999999,4261.025879,4227.692383,450.0,3.0,55.0,,,,0.0,4.0,0.0,4.0,0.0,4.0,33.333332,,,,,,,,6.0,0.0,0.452211,0.522705,0.25805700000000004,-0.675049,0.9506979999999999,-0.131838,-0.32861799999999997,-0.017808,-0.048651,-0.03053,,,,,,,,,,,,,,,,,,,,,,,,,,,,,,,,,,,0.0,0.0,32.0,0.362161,1.0,0.0,,,,,,,,,,,,,,,,,,,,,,,,,
6178,1645651692.316806,13.0,0.0,3314.3588870000003,4728.717772999999,4229.230957,4263.589844,4240.0,450.0,3.0,55.0,,,,0.0,4.0,0.0,4.0,0.0,4.0,33.333332,,,,,,,,,,,,,,,,,,,,,,,,,,,,,,,,,,,,,,,,,,,,,,,,,,,,,,,,,,,,,,,,,,,,,,,,,,,,,,,,,,,,
6179,1645651692.3246212,14.0,0.0,3300.0,4730.769043,4216.410156,4264.102539,4226.666504,450.0,3.0,55.0,,,,0.0,4.0,0.0,4.0,0.0,4.0,33.333332,,,,,,,,7.0,0.0,0.45257600000000003,0.522705,0.25805700000000004,-0.674805,0.961929,-0.137209,-0.31396999999999997,-0.016125,-0.048669,-0.03319,,,,,,,,,,,,,,,,,,,,,,,,,,,,,,,,,,,,,,,,,,,,,,,,,,,,,,,,,,,,,,,,,
6180,1645651692.3324358,15.0,0.0,3316.923096,4601.025879,4232.820313,4262.563965,4209.743652,16175.0,3.0,55.0,,,,0.0,4.0,0.0,4.0,0.0,4.0,33.333332,,,,,,,,,,,,,,,,,,,,,,,,,,,,,,,,,,,,,,,,,,,,,,,,,,,,,,,,,,,,,,,,,,,,,,,,,,,,,,,,,,,,
6181,1645651692.340251,16.0,0.0,3370.7692869999996,4584.615234000001,4259.487305,4263.077147999999,4247.179688,0.0,3.0,55.0,,,,0.0,4.0,0.0,4.0,0.0,4.0,33.333332,,,,,,,,8.0,0.0,0.45257600000000003,0.522705,0.25805700000000004,-0.674805,0.968277,-0.129397,-0.321782,-0.017052,-0.048489,-0.029382,,,,,,,,,,,,,,,,,,,,,,,,,,,,,,,,,,,0.0,0.0,32.0,0.362161,1.0,0.0,,,,,,,,,,,,,,,,,,,,,,,,,
6182,1645651692.348067,17.0,0.0,3376.4101560000004,4736.410156,4257.436035,4263.077147999999,4274.358886999999,0.0,3.0,55.0,,,,0.0,4.0,0.0,4.0,0.0,4.0,33.333332,,,,,,,,,,,,,,,,,,,,,,,,,,,,,,,,,,,,,,,,,,,,,,,,,,,,,,,,,,,,,,,,,,,,,,,,,,,,,,,,,,,,
6183,1645651692.355882,18.0,0.0,3335.897461,4733.333496,4250.769043,4262.05127,4229.743652,0.0,3.0,55.0,,,,0.0,4.0,0.0,4.0,0.0,4.0,33.333332,,,,,,,,9.0,0.0,0.45257600000000003,0.522705,0.25805700000000004,-0.674805,0.9560690000000001,-0.129397,-0.333013,-0.017738999999999998,-0.048572000000000004,-0.026005,,,,,,,,,,,,,,,,,,,,,,,,,,,,,,,,,,,,,,,,,,,,,,,,,,,,,,,,,,,,,,,,,
6184,1645651692.363697,19.0,0.0,3330.256348,4563.589844,4244.102539,4262.563965,4176.922852000001,0.0,3.0,55.0,,,,0.0,4.0,0.0,4.0,0.0,4.0,33.333332,,,,,,,,,,,,,,,,,,,,,,,,,,,,,,,,,,,,,,,,,,,,,,,,,,,,,,,,,,,,,,,,,,,,,,,,,,,,,,,,,,,,
6185,1645651692.371512,20.0,0.0,3362.5642090000006,4589.743652,4257.94873,4263.077147999999,4202.563965,0.0,3.0,55.0,,,,0.0,4.0,0.0,4.0,0.0,4.0,33.333332,,,,,,,,10.0,0.0,0.452715,0.522705,0.257813,-0.674805,0.957534,-0.134768,-0.322759,-0.016112,-0.048451,-0.029117,1.0,0.0,0.0,,,,,,,,,,,,,,,,,,,,,,,,,,,,,,,,0.0,0.0,32.0,0.134286,1.0,0.0,6073.250977000001,1311.7071529999998,318.192047,30.903095,3.169675,40.658485,34.525471,44.094025,21.680574,15.713231,22.318481,6.09446,0.600453,1.624141,1.604334,6.229247,1.227019,0.131802,0.010921,0.014947,12.452254,8.798771,1.265863,1.65133,1.780066
6186,1645651692.379327,21.0,0.0,3361.025635,4718.461426,4271.282227000001,4263.077147999999,4233.333496,0.0,3.0,55.0,,,,0.0,4.0,0.0,4.0,0.0,4.0,33.333332,,,,,,,,,,,,,,,,,,,,,,,,,,,,,,,,,,,,,,,,,,,,,,,,,,,,,,,,,,,,,,,,,,,,,,,,,,,,,,,,,,,,
6187,1645651692.387042,22.0,0.0,3346.153809,4692.307617,4286.666504,4263.589844,4213.333496,0.0,3.0,55.0,,,,0.0,4.0,0.0,4.0,0.0,4.0,33.333332,,,,,,,,11.0,0.0,0.45257600000000003,0.522705,0.25805700000000004,-0.674805,0.968277,-0.129397,-0.321782,-0.01704,-0.048294,-0.025717,,,,,,,,,,,,,,,,,,,,,,,,,,,,,,,,,,,,,,,,,,,,,,,,,,,,,,,,,,,,,,,,,
6188,1645651692.394857,23.0,0.0,3363.076904,4633.333496,4290.769043,4263.589844,4200.0,0.0,3.0,55.0,,,,0.0,4.0,0.0,4.0,0.0,4.0,33.333332,,,,,,,,,,,,,,,,,,,,,,,,,,,,,,,,,,,,,,,,,,,,,,,,,,,,,,,,,,,,,,,,,,,,,,,,,,,,,,,,,,,,
6189,1645651692.402672,24.0,0.0,3387.179443,4626.153809,4284.102539,4263.077147999999,4208.205078,0.0,3.0,55.0,,,,0.0,4.0,0.0,4.0,0.0,4.0,33.333332,,,,,,,,12.0,0.0,0.452715,0.522705,0.257813,-0.674805,0.957534,-0.134768,-0.322759,-0.015482,-0.048201,-0.028857999999999998,,,,,,,,,,,,,,,,,,,,,,,,,,,,,,,,,,,0.0,0.0,32.0,0.134286,1.0,0.0,,,,,,,,,,,,,,,,,,,,,,,,,
6190,1645651692.410487,25.0,0.0,3391.794922,4644.102539,4255.897461,4262.05127,4212.820313,0.0,3.0,55.0,,,,0.0,4.0,0.0,4.0,0.0,4.0,33.333332,,,,,,,,,,,,,,,,,,,,,,,,,,,,,,,,,,,,,,,,,,,,,,,,,,,,,,,,,,,,,,,,,,,,,,,,,,,,,,,,,,,,
6191,1645651692.418202,26.0,0.0,3384.102539,4689.230957,4265.641113000001,4262.563965,4212.307617,0.0,3.0,55.0,,,,0.0,4.0,0.0,4.0,0.0,4.0,33.333332,,,,,,,,13.0,0.0,0.452433,0.522949,0.257813,-0.674805,0.9589989999999999,-0.12109600000000001,-0.32813000000000003,-0.016327,-0.048215,-0.031832,,,,,,,,,,,,,,,,,,,,,,,,,,,,,,,,,,,,,,,,,,,,,,,,,,,,,,,,,,,,,,,,,
6192,1645651692.426017,27.0,0.0,3396.923096,4700.0,4288.717772999999,4262.05127,4213.333496,0.0,3.0,55.0,,,,0.0,4.0,0.0,4.0,0.0,4.0,33.333332,,,,,,,,,,,,,,,,,,,,,,,,,,,,,,,,,,,,,,,,,,,,,,,,,,,,,,,,,,,,,,,,,,,,,,,,,,,,,,,,,,,,
6193,1645651692.433832,28.0,0.0,3404.615479,4720.512695,4263.077147999999,4261.025879,4202.563965,0.0,3.0,55.0,,,,0.0,4.0,0.0,4.0,0.0,4.0,33.333332,,,,,,,,14.0,0.0,0.45257200000000003,0.522949,0.25756799999999996,-0.674805,0.957046,-0.137697,-0.31543499999999997,-0.016988999999999997,-0.048227,-0.028307,,,,,,,,,,,,,,,,,,,,,,,,,,,,,,,,,,,11.0,0.0,32.0,0.134286,1.0,0.0,,,,,,,,,,,,,,,,,,,,,,,,,
6194,1645651692.441647,29.0,0.0,3414.358887,4743.077147999999,4248.205078,4262.563965,4210.769043,0.0,3.0,55.0,,,,0.0,4.0,0.0,4.0,0.0,4.0,33.333332,,,,,,,,,,,,,,,,,,,,,,,,,,,,,,,,,,,,,,,,,,,,,,,,,,,,,,,,,,,,,,,,,,,,,,,,,,,,,,,,,,,,
6195,1645651692.449462,30.0,0.0,3451.281982,4632.307617,4287.179688,4264.615234000001,4230.256348,0.0,3.0,55.0,,,,0.0,4.0,0.0,4.0,0.0,4.0,33.333332,,,,,,,,15.0,0.0,0.45293599999999995,0.522949,0.25756799999999996,-0.674561,0.95021,-0.14111500000000002,-0.323735,-0.017683,-0.048239,-0.031287,,,,,,,,,,,,,,,,,,,,,,,,,,,,,,,,,,,,,,,,,,,,,,,,,,,,,,,,,,,,,,,,,
6196,1645651692.457278,31.0,0.0,3482.0512700000004,4566.153809,4288.205078,4263.077147999999,4231.794922,0.0,3.0,55.0,,,,0.0,4.0,0.0,4.0,0.0,4.0,33.333332,,,,,,,,,,,,,,,,,,,,,,,,,,,,,,,,,,,,,,,,,,,,,,,,,,,,,,,,,,,,,,,,,,,,,,,,,,,,,,,,,,,,
6197,1645651692.465093,32.0,0.0,3455.897461,4637.94873,4243.077147999999,4263.077147999999,4209.743652,0.0,3.0,55.0,,,,0.0,4.0,0.0,4.0,0.0,4.0,33.333332,,,,,,,,16.0,0.0,0.45257200000000003,0.522949,0.25756799999999996,-0.674805,0.9463030000000001,-0.12255999999999999,-0.332525,-0.018307,-0.0482,-0.02767,,,,,,,,,,,,,,,,,,,,,,,,,,,,,,,,,,,11.0,0.0,32.0,0.134286,1.0,0.0,,,,,,,,,,,,,,,,,,,,,,,,,
6198,1645651692.4728081,33.0,0.0,3449.2307130000004,4628.717772999999,4245.128418,4264.615234000001,4204.615234000001,0.0,3.0,55.0,,,,0.0,4.0,0.0,4.0,0.0,4.0,33.333332,,,,,,,,,,,,,,,,,,,,,,,,,,,,,,,,,,,,,,,,,,,,,,,,,,,,,,,,,,,,,,,,,,,,,,,,,,,,,,,,,,,,
6199,1645651692.480623,34.0,0.0,3484.102539,4623.077147999999,4243.077147999999,4263.077147999999,4213.846191,0.0,3.0,55.0,,,,0.0,4.0,0.0,4.0,0.0,4.0,33.333332,,,,,,,,17.0,0.0,0.45257200000000003,0.522949,0.25756799999999996,-0.674805,0.947768,-0.134279,-0.320806,-0.017111,-0.048263,-0.030420999999999997,,,,,,,,,,,,,,,,,,,,,,,,,,,,,,,,,,,,,,,,,,,,,,,,,,,,,,,,,,,,,,,,,
6200,1645651692.488437,35.0,0.0,3498.461426,4694.358886999999,4224.102539,4262.563965,4215.384765999999,0.0,3.0,55.0,,,,0.0,4.0,0.0,4.0,0.0,4.0,33.333332,,,,,,,,,,,,,,,,,,,,,,,,,,,,,,,,,,,,,,,,,,,,,,,,,,,,,,,,,,,,,,,,,,,,,,,,,,,,,,,,,,,,
6201,1645651692.496252,36.0,0.0,3490.7692869999996,4678.461426,4223.077147999999,4265.128418,4209.743652,0.0,3.0,55.0,,,,0.0,4.0,0.0,4.0,0.0,4.0,33.333332,,,,,,,,18.0,0.0,0.45257200000000003,0.522949,0.25756799999999996,-0.674805,0.952651,-0.121584,-0.320806,-0.017744,-0.048222,-0.032895999999999995,1.0,0.0,0.0,,,,,,,,,,,,,,,,,,,,,,,,,,,,,,,,11.0,0.0,64.0,0.329963,1.0,0.0,7032.968262,1451.9001460000002,360.224365,33.864017,3.17275,48.240547,30.80242,39.478268,23.126547,17.547371,30.012048999999998,6.8351429999999995,0.695856,1.9310459999999998,1.67195,7.1668389999999995,1.376105,0.14968900000000002,0.01427,0.018261000000000003,16.295517,8.496513,1.344726,1.559412,1.8976169999999999
6202,1645651692.504067,37.0,0.0,3480.512939,4639.487305,4227.692383,4265.128418,4205.128418,0.0,3.0,55.0,,,,0.0,4.0,0.0,4.0,0.0,4.0,33.333332,,,,,,,,,,,,,,,,,,,,,,,,,,,,,,,,,,,,,,,,,,,,,,,,,,,,,,,,,,,,,,,,,,,,,,,,,,,,,,,,,,,,
6203,1645651692.511882,38.0,0.0,3478.974365,4616.410156,4211.794922,4263.589844,4200.0,0.0,3.0,55.0,,,,0.0,4.0,0.0,4.0,0.0,4.0,33.333332,,,,,,,,19.0,0.0,0.452654,0.523193,0.25756799999999996,-0.674561,0.954116,-0.12549000000000002,-0.334966,-0.018411,-0.048283,-0.029216000000000002,,,,,,,,,,,,,,,,,,,,,,,,,,,,,,,,,,,,,,,,,,,,,,,,,,,,,,,,,,,,,,,,,
6204,1645651692.5196972,39.0,0.0,3515.897461,4570.769043,4232.307617,4263.589844,4212.307617,0.0,3.0,55.0,,,,0.0,4.0,0.0,4.0,0.0,4.0,33.333332,,,,,,,,,,,,,,,,,,,,,,,,,,,,,,,,,,,,,,,,,,,,,,,,,,,,,,,,,,,,,,,,,,,,,,,,,,,,,,,,,,,,
6205,1645651692.5275118,40.0,0.0,3550.256348,4641.025879,4238.974121,4263.589844,4239.487305,0.0,3.0,55.0,,,,0.0,4.0,0.0,4.0,0.0,4.0,33.333332,,,,,,,,20.0,0.0,0.452654,0.523193,0.25756799999999996,-0.674561,0.9487450000000001,-0.125978,-0.319341,-0.018962,-0.048337,-0.025904000000000003,,,,,,,,,,,,,,,,,,,,,,,,,,,,,,,,,,,11.0,0.0,64.0,0.329963,1.0,0.0,,,,,,,,,,,,,,,,,,,,,,,,,
6206,1645651692.535327,41.0,0.0,3539.487061,4677.94873,4242.05127,4262.05127,4240.0,0.0,3.0,55.0,,,,0.0,4.0,0.0,4.0,0.0,4.0,33.333332,,,,,,,,,,,,,,,,,,,,,,,,,,,,,,,,,,,,,,,,,,,,,,,,,,,,,,,,,,,,,,,,,,,,,,,,,,,,,,,,,,,,
6207,1645651692.543142,42.0,0.0,3545.641113,4569.743652,4248.205078,4262.563965,4233.846191,0.0,3.0,55.0,,,,0.0,4.0,0.0,4.0,0.0,4.0,33.333332,,,,,,,,21.0,0.0,0.45251,0.523438,0.257324,-0.674561,0.9487450000000001,-0.128908,-0.3252,-0.019459,-0.048484,-0.029026,,,,,,,,,,,,,,,,,,,,,,,,,,,,,,,,,,,,,,,,,,,,,,,,,,,,,,,,,,,,,,,,,
6208,1645651692.550856,43.0,0.0,3570.256348,4575.384765999999,4240.512695,4263.589844,4241.538574,0.0,3.0,55.0,,,,0.0,4.0,0.0,4.0,0.0,4.0,33.333332,,,,,,,,,,,,,,,,,,,,,,,,,,,,,,,,,,,,,,,,,,,,,,,,,,,,,,,,,,,,,,,,,,,,,,,,,,,,,,,,,,,,
6209,1645651692.558671,44.0,0.0,3580.0,4650.769043,4222.05127,4264.615234000001,4241.538574,0.0,3.0,55.0,,,,0.0,4.0,0.0,4.0,0.0,4.0,33.333332,,,,,,,,22.0,0.0,0.45251,0.523438,0.257324,-0.674561,0.9463030000000001,-0.12060699999999999,-0.32861799999999997,-0.019808000000000003,-0.048323000000000005,-0.031934,,,,,,,,,,,,,,,,,,,,,,,,,,,,,,,,,,,11.0,0.0,64.0,0.329963,1.0,0.0,,,,,,,,,,,,,,,,,,,,,,,,,
6210,1645651692.566486,45.0,0.0,3559.487061,4661.538574,4194.871582,4263.589844,4209.743652,0.0,3.0,55.0,,,,0.0,4.0,0.0,4.0,0.0,4.0,33.333332,,,,,,,,,,,,,,,,,,,,,,,,,,,,,,,,,,,,,,,,,,,,,,,,,,,,,,,,,,,,,,,,,,,,,,,,,,,,,,,,,,,,
6211,1645651692.5743,46.0,0.0,3549.2307130000004,4660.512695,4174.871582,4262.563965,4190.769043,0.0,3.0,55.0,,,,0.0,4.0,0.0,4.0,0.0,4.0,33.333332,,,,,,,,23.0,0.0,0.452367,0.523682,0.25708000000000003,-0.674561,0.954116,-0.122072,-0.316899,-0.020073,-0.048325,-0.034503,,,,,,,,,,,,,,,,,,,,,,,,,,,,,,,,,,,,,,,,,,,,,,,,,,,,,,,,,,,,,,,,,
6212,1645651692.582115,47.0,0.0,3568.205078,4668.717772999999,4189.230957,4264.102539,4209.743652,0.0,3.0,55.0,,,,0.0,4.0,0.0,4.0,0.0,4.0,33.333332,,,,,,,,,,,,,,,,,,,,,,,,,,,,,,,,,,,,,,,,,,,,,,,,,,,,,,,,,,,,,,,,,,,,,,,,,,,,,,,,,,,,
6213,1645651692.58993,48.0,0.0,3609.743652,4661.025879,4230.769043,4264.615234000001,4242.563965,0.0,3.0,55.0,,,,0.0,4.0,0.0,4.0,0.0,4.0,33.333332,,,,,,,,24.0,0.0,0.452505,0.523682,0.256836,-0.674561,0.944839,-0.12842,-0.334478,-0.018164,-0.048326,-0.030514999999999997,,,,,,,,,,,,,,,,,,,,,,,,,,,,,,,,,,,11.0,0.0,64.0,0.329963,1.0,0.0,,,,,,,,,,,,,,,,,,,,,,,,,
6214,1645651692.597744,49.0,0.0,3614.8718259999996,4621.025879,4227.692383,4263.589844,4231.794922,0.0,3.0,55.0,,,,0.0,4.0,0.0,4.0,0.0,4.0,33.333332,,,,,,,,,,,,,,,,,,,,,,,,,,,,,,,,,,,,,,,,,,,,,,,,,,,,,,,,,,,,,,,,,,,,,,,,,,,,,,,,,,,,
6215,1645651692.6055589,50.0,0.0,3587.6923829999996,4580.512695,4203.077147999999,4264.102539,4201.538574,0.0,3.0,55.0,,,,0.0,4.0,0.0,4.0,0.0,4.0,33.333332,,,,,,,,25.0,0.0,0.452505,0.523682,0.256836,-0.674561,0.9663229999999999,-0.12842,-0.323735,-0.016396,-0.04823,-0.033226,,,,,,,,,,,,,,,,,,,,,,,,,,,,,,,,,,,,,,,,,,,,,,,,,,,,,,,,,,,,,,,,,
6216,1645651692.613374,51.0,0.0,3602.5642090000006,4613.846191,4201.025879,4265.128418,4209.743652,0.0,3.0,55.0,,,,0.0,4.0,0.0,4.0,0.0,4.0,33.333332,,,,,,,,,,,,,,,,,,,,,,,,,,,,,,,,,,,,,,,,,,,,,,,,,,,,,,,,,,,,,,,,,,,,,,,,,,,,,,,,,,,,
6217,1645651692.621089,52.0,0.0,3642.5642090000006,4673.846191,4212.820313,4264.102539,4245.128418,0.0,3.0,55.0,,,,0.0,4.0,0.0,4.0,0.0,4.0,33.333332,0.972656,0.0,0.0,0.0,3.0,0.0,4.0,26.0,0.0,0.45286899999999997,0.523682,0.256836,-0.674316,0.9399559999999999,-0.139651,-0.321294,-0.017051,-0.048241,-0.035616,1.0,0.0,0.0,,,,,,,,,,,,,,,,,,,,,,,,,,,,,,,,11.0,0.0,1.0,0.0,512.0,0.804342,7102.182617,1388.748291,351.032532,32.251453000000005,3.067308,53.398586,26.746712,32.723372999999995,23.677959,18.810852,36.636086,7.373838,0.913488,2.311155,1.768128,7.142228,1.3267,0.147702,0.016998,0.020518,19.310184,7.479188000000001,1.444089,1.536246,2.0546290000000003
6218,1645651692.628903,53.0,0.0,3641.025635,4635.897461,4196.410156,4263.589844,4236.410156,0.0,3.0,55.0,,,,0.0,4.0,0.0,4.0,0.0,4.0,33.333332,,,,,,,,,,,,,,,,,,,,,,,,,,,,,,,,,,,,,,,,,,,,,,,,,,,,,,,,,,,,,,,,,,,,,,,,,,,,,,,,,,,,
6219,1645651692.636718,54.0,0.0,3623.076904,4606.153809,4178.461426,4264.615234000001,4205.641113000001,0.0,3.0,55.0,,,,0.0,4.0,0.0,4.0,0.0,4.0,33.333332,,,,,,,,27.0,0.0,0.45286899999999997,0.523682,0.256836,-0.674316,0.9506979999999999,-0.140139,-0.3252,-0.01769,-0.0483,-0.031566000000000004,,,,,,,,,,,,,,,,,,,,,,,,,,,,,,,,,,,,,,,,,,,,,,,,,,,,,,,,,,,,,,,,,
6220,1645651692.644533,55.0,0.0,3628.205078,4651.282227000001,4164.615234000001,4265.128418,4209.743652,0.0,3.0,55.0,,,,0.0,4.0,0.0,4.0,0.0,4.0,33.333332,,,,,,,,,,,,,,,,,,,,,,,,,,,,,,,,,,,,,,,,,,,,,,,,,,,,,,,,,,,,,,,,,,,,,,,,,,,,,,,,,,,,
6221,1645651692.652348,56.0,0.0,3658.461426,4705.641113000001,4166.153809,4265.128418,4228.205078,0.0,3.0,55.0,,,,0.0,4.0,0.0,4.0,0.0,4.0,33.333332,,,,,,,,28.0,0.0,0.453007,0.523682,0.256592,-0.674316,0.9511860000000001,-0.138674,-0.333013,-0.016653,-0.048402,-0.034171,,,,,,,,,,,,,,,,,,,,,,,,,,,,,,,,,,,11.0,0.0,1.0,0.0,512.0,0.804342,,,,,,,,,,,,,,,,,,,,,,,,,
6222,1645651692.6601632,57.0,0.0,3686.6667479999996,4724.615234000001,4160.512695,4264.102539,4232.307617,0.0,3.0,55.0,,,,0.0,4.0,0.0,4.0,0.0,4.0,33.333332,,,,,,,,,,,,,,,,,,,,,,,,,,,,,,,,,,,,,,,,,,,,,,,,,,,,,,,,,,,,,,,,,,,,,,,,,,,,,,,,,,,,
6223,1645651692.667978,58.0,0.0,3683.076904,4666.666504,4160.512695,4263.589844,4225.128418,0.0,3.0,55.0,,,,0.0,4.0,0.0,4.0,0.0,4.0,33.333332,,,,,,,,29.0,0.0,0.453007,0.523682,0.256592,-0.674316,0.952651,-0.126467,-0.318364,-0.01743,-0.048444,-0.036467,,,,,,,,,,,,,,,,,,,,,,,,,,,,,,,,,,,,,,,,,,,,,,,,,,,,,,,,,,,,,,,,,
6224,1645651692.675793,59.0,0.0,3678.461426,4605.128418,4154.871582,4264.102539,4227.692383,0.0,3.0,55.0,,,,0.0,4.0,0.0,4.0,0.0,4.0,33.333332,,,,,,,,,,,,,,,,,,,,,,,,,,,,,,,,,,,,,,,,,,,,,,,,,,,,,,,,,,,,,,,,,,,,,,,,,,,,,,,,,,,,
6225,1645651692.683608,60.0,0.0,3687.179443,4610.256348,4140.0,4264.615234000001,4220.512695,0.0,3.0,55.0,,,,0.0,4.0,0.0,4.0,0.0,4.0,33.333332,,,,,,,,30.0,0.0,0.453007,0.523682,0.256592,-0.674316,0.949722,-0.134768,-0.330083,-0.018078999999999998,-0.048434,-0.038485000000000005,,,,,,,,,,,,,,,,,,,,,,,,,,,,,,,,,,,11.0,0.0,1.0,0.0,512.0,0.804342,,,,,,,,,,,,,,,,,,,,,,,,,
6226,1645651692.691423,61.0,0.0,3689.2307130000004,4650.769043,4123.589844,4264.615234000001,4210.256348,0.0,3.0,55.0,,,,0.0,4.0,0.0,4.0,0.0,4.0,33.333332,,,,,,,,,,,,,,,,,,,,,,,,,,,,,,,,,,,,,,,,,,,,,,,,,,,,,,,,,,,,,,,,,,,,,,,,,,,,,,,,,,,,
6227,1645651692.699137,62.0,0.0,3701.025635,4642.563965,4137.94873,4265.641113000001,4226.153809,0.0,3.0,55.0,,,,0.0,4.0,0.0,4.0,0.0,4.0,33.333332,,,,,,,,31.0,0.0,0.452725,0.523926,0.256592,-0.674316,0.957534,-0.141604,-0.330083,-0.018615,-0.048474,-0.040398,,,,,,,,,,,,,,,,,,,,,,,,,,,,,,,,,,,,,,,,,,,,,,,,,,,,,,,,,,,,,,,,,
6228,1645651692.7069519,63.0,0.0,3746.1538090000004,4593.846191,4168.717772999999,4265.128418,4262.05127,0.0,3.0,55.0,,,,0.0,4.0,0.0,4.0,0.0,4.0,33.333332,,,,,,,,,,,,,,,,,,,,,,,,,,,,,,,,,,,,,,,,,,,,,,,,,,,,,,,,,,,,,,,,,,,,,,,,,,,,,,,,,,,,
6229,1645651692.714767,64.0,0.0,3745.641113,4619.487305,4147.179688,4264.102539,4256.922852000001,450.0,3.0,55.0,,,,0.0,4.0,0.0,4.0,0.0,4.0,33.333332,,,,,,,,32.0,0.0,0.452725,0.523926,0.256592,-0.674316,0.945815,-0.13281500000000002,-0.32422399999999996,-0.019146,-0.04846,-0.042218,,,,,,,,,,,,,,,,,,,,,,,,,,,,,,,,,,,11.0,0.0,1.0,0.0,512.0,0.804342,,,,,,,,,,,,,,,,,,,,,,,,,
6230,1645651692.7225811,65.0,0.0,3721.025635,4685.128418,4119.487305,4264.102539,4231.794922,450.0,3.0,55.0,,,,0.0,4.0,0.0,4.0,0.0,4.0,33.333332,,,,,,,,,,,,,,,,,,,,,,,,,,,,,,,,,,,,,,,,,,,,,,,,,,,,,,,,,,,,,,,,,,,,,,,,,,,,,,,,,,,,
6231,1645651692.730396,66.0,0.0,3732.820557,4656.410156,4129.230957,4263.589844,4234.871582,16236.0,3.0,55.0,,,,0.0,4.0,0.0,4.0,0.0,4.0,33.333332,,,,,,,,33.0,0.0,0.45264399999999994,0.523682,0.256592,-0.674561,0.945815,-0.13916199999999998,-0.334966,-0.019673,-0.048497000000000005,-0.037508,,,,,,,,,,,,,,,,,,,,,,,,,,,,,,,,,,,,,,,,,,,,,,,,,,,,,,,,,,,,,,,,,
6232,1645651692.73821,67.0,0.0,3748.205078,4608.205078,4150.256348,4263.077147999999,4257.436035,450.0,3.0,55.0,,,,0.0,4.0,0.0,4.0,0.0,4.0,33.333332,,,,,,,,,,,,,,,,,,,,,,,,,,,,,,,,,,,,,,,,,,,,,,,,,,,,,,,,,,,,,,,,,,,,,,,,,,,,,,,,,,,,
6233,1645651692.746025,68.0,0.0,3740.0,4653.333496,4131.282227000001,4264.102539,4248.205078,0.0,3.0,55.0,,,,0.0,4.0,0.0,4.0,0.0,4.0,33.333332,,,,,,,,34.0,0.0,0.45264399999999994,0.523682,0.256592,-0.674561,0.9331200000000001,-0.137697,-0.325689,-0.020146999999999998,-0.048481,-0.039421,1.0,0.0,0.0,,,,,,,,,,,,,,,,,,,,,,,,,,,,,,,,11.0,0.0,1.0,0.0,512.0,0.25963400000000003,6288.59375,1145.929932,294.126099,26.673428,2.855543,54.391998,23.211344,25.929012,23.549303,19.573923,41.204147,7.551363,1.2774969999999999,2.703377,1.8309279999999999,6.184033,1.095707,0.126799,0.01856,0.02104,20.823824,5.961278,1.515993,1.599168,2.1846509999999997
6234,1645651692.75384,69.0,0.0,3737.4357909999994,4689.743652,4122.563965,4265.128418,4219.487305,450.0,3.0,55.0,,,,0.0,4.0,0.0,4.0,0.0,4.0,33.333332,,,,,,,,,,,,,,,,,,,,,,,,,,,,,,,,,,,,,,,,,,,,,,,,,,,,,,,,,,,,,,,,,,,,,,,,,,,,,,,,,,,,
6235,1645651692.761654,70.0,0.0,3749.2307130000004,4632.307617,4139.487305,4264.615234000001,4220.0,16228.0,3.0,55.0,,,,0.0,4.0,0.0,4.0,0.0,4.0,33.333332,,,,,,,,35.0,0.0,0.45264399999999994,0.523682,0.256592,-0.674561,0.949233,-0.11572400000000001,-0.325689,-0.020475999999999998,-0.048369999999999996,-0.034942,,,,,,,,,,,,,,,,,,,,,,,,,,,,,,,,,,,,,,,,,,,,,,,,,,,,,,,,,,,,,,,,,
6236,1645651692.769369,71.0,0.0,3775.897461,4605.128418,4164.102539,4264.102539,4247.692383,450.0,3.0,55.0,,,,0.0,4.0,0.0,4.0,0.0,4.0,33.333332,,,,,,,,,,,,,,,,,,,,,,,,,,,,,,,,,,,,,,,,,,,,,,,,,,,,,,,,,,,,,,,,,,,,,,,,,,,,,,,,,,,,
6237,1645651692.777184,72.0,0.0,3788.205078,4662.05127,4153.846191,4264.615234000001,4244.615234000001,450.0,3.0,55.0,,,,0.0,4.0,0.0,4.0,0.0,4.0,33.333332,,,,,,,,36.0,0.0,0.452505,0.523682,0.256836,-0.674561,0.972183,-0.11914200000000001,-0.33350100000000005,-0.020772,-0.048367,-0.030910000000000003,,,,,,,,,,,,,,,,,,,,,,,,,,,,,,,,,,,0.0,0.0,1.0,0.0,512.0,0.25963400000000003,,,,,,,,,,,,,,,,,,,,,,,,,
6238,1645651692.7849991,73.0,0.0,3768.205078,4680.0,4155.384765999999,4264.615234000001,4211.794922,0.0,3.0,55.0,,,,0.0,4.0,0.0,4.0,0.0,4.0,33.333332,,,,,,,,,,,,,,,,,,,,,,,,,,,,,,,,,,,,,,,,,,,,,,,,,,,,,,,,,,,,,,,,,,,,,,,,,,,,,,,,,,,,
6239,1645651692.792814,74.0,0.0,3764.102539,4664.102539,4160.0,4264.615234000001,4216.922852000001,450.0,3.0,55.0,,,,0.0,4.0,0.0,4.0,0.0,4.0,33.333332,,,,,,,,37.0,0.0,0.452586,0.523926,0.256836,-0.674316,0.9677879999999999,-0.13086099999999998,-0.327153,-0.021039,-0.048413,-0.033532,,,,,,,,,,,,,,,,,,,,,,,,,,,,,,,,,,,,,,,,,,,,,,,,,,,,,,,,,,,,,,,,,
6240,1645651692.800629,75.0,0.0,3782.5642090000006,4629.230957,4164.102539,4264.615234000001,4234.871582,16229.0,3.0,55.0,,,,0.0,4.0,0.0,4.0,0.0,4.0,33.333332,,,,,,,,,,,,,,,,,,,,,,,,,,,,,,,,,,,,,,,,,,,,,,,,,,,,,,,,,,,,,,,,,,,,,,,,,,,,,,,,,,,,
6241,1645651692.808444,76.0,0.0,3787.6923829999996,4613.333496,4175.384765999999,4265.128418,4225.641113000001,450.0,3.0,55.0,,,,0.0,4.0,0.0,4.0,0.0,4.0,33.333332,,,,,,,,38.0,0.0,0.452725,0.523926,0.256592,-0.674316,0.9550930000000001,-0.135256,-0.335454,-0.019082,-0.048601,-0.035843,,,,,,,,,,,,,,,,,,,,,,,,,,,,,,,,,,,0.0,0.0,1.0,0.0,512.0,0.25963400000000003,,,,,,,,,,,,,,,,,,,,,,,,,
6242,1645651692.816259,77.0,0.0,3766.6667479999996,4670.256348,4174.358886999999,4265.641113000001,4200.512695,450.0,3.0,55.0,,,,0.0,4.0,0.0,4.0,0.0,4.0,33.333332,,,,,,,,,,,,,,,,,,,,,,,,,,,,,,,,,,,,,,,,,,,,,,,,,,,,,,,,,,,,,,,,,,,,,,,,,,,,,,,,,,,,
6243,1645651692.824074,78.0,0.0,3765.1281740000004,4697.436035,4165.641113000001,4264.615234000001,4203.589844,450.0,3.0,55.0,,,,0.0,4.0,0.0,4.0,0.0,4.0,33.333332,,,,,,,,39.0,0.0,0.452505,0.523682,0.256836,-0.674561,0.972183,-0.11914200000000001,-0.33350100000000005,-0.017955000000000002,-0.048673,-0.03182,,,,,,,,,,,,,,,,,,,,,,,,,,,,,,,,,,,,,,,,,,,,,,,,,,,,,,,,,,,,,,,,,
6244,1645651692.8318882,79.0,0.0,3775.897461,4663.077147999999,4168.205078,4264.102539,4207.692383,16229.0,3.0,55.0,,,,0.0,4.0,0.0,4.0,0.0,4.0,33.333332,,,,,,,,,,,,,,,,,,,,,,,,,,,,,,,,,,,,,,,,,,,,,,,,,,,,,,,,,,,,,,,,,,,,,,,,,,,,,,,,,,,,
6245,1645651692.839603,80.0,0.0,3790.7692869999996,4643.077147999999,4177.94873,4264.102539,4199.487305,450.0,3.0,55.0,,,,0.0,4.0,0.0,4.0,0.0,4.0,33.333332,,,,,,,,40.0,0.0,0.452725,0.523926,0.256592,-0.674316,0.9550930000000001,-0.135256,-0.335454,-0.016306,-0.048835,-0.034302,,,,,,,,,,,,,,,,,,,,,,,,,,,,,,,,,,,0.0,0.0,1.0,0.0,512.0,0.25963400000000003,,,,,,,,,,,,,,,,,,,,,,,,,
6246,1645651692.847418,81.0,0.0,3801.538574,4631.794922,4184.615234000001,4264.615234000001,4202.05127,450.0,3.0,55.0,,,,0.0,4.0,0.0,4.0,0.0,4.0,33.333332,,,,,,,,,,,,,,,,,,,,,,,,,,,,,,,,,,,,,,,,,,,,,,,,,,,,,,,,,,,,,,,,,,,,,,,,,,,,,,,,,,,,
6247,1645651692.855233,82.0,0.0,3807.6923829999996,4600.0,4207.692383,4265.641113000001,4224.615234000001,450.0,3.0,55.0,,,,0.0,4.0,0.0,4.0,0.0,4.0,33.333332,,,,,,,,41.0,0.0,0.452725,0.523926,0.256592,-0.674316,0.9585110000000001,-0.133303,-0.327153,-0.015456000000000001,-0.048882999999999996,-0.030432,,,,,,,,,,,,,,,,,,,,,,,,,,,,,,,,,,,,,,,,,,,,,,,,,,,,,,,,,,,,,,,,,
6248,1645651692.863048,83.0,0.0,3810.256348,4612.307617,4209.743652,4265.641113000001,4224.102539,16229.0,3.0,55.0,,,,0.0,4.0,0.0,4.0,0.0,4.0,33.333332,,,,,,,,,,,,,,,,,,,,,,,,,,,,,,,,,,,,,,,,,,,,,,,,,,,,,,,,,,,,,,,,,,,,,,,,,,,,,,,,,,,,
6249,1645651692.8708632,84.0,0.0,3824.102539,4593.846191,4215.384765999999,4265.128418,4215.897461,450.0,3.0,55.0,,,,0.0,4.0,0.0,4.0,0.0,4.0,33.333332,,,,,,,,42.0,0.0,0.452725,0.523926,0.256592,-0.674316,0.945815,-0.12842,-0.326177,-0.016206,-0.048878,-0.0332,1.0,0.0,0.0,,,,,,,,,,,,,,,,,,,,,,,,,,,,,,,,0.0,0.0,1.0,0.0,512.0,0.1369,4840.001465,806.841187,209.608627,19.031360999999997,2.588352,50.739445,20.476734,21.117285,23.24456,20.131757999999998,42.545479,7.275508,1.826098,3.019133,1.819294,4.597961,0.763911,0.094359,0.018741,0.019694,20.328163,4.3255870000000005,1.536018,1.707514,2.246659
6250,1645651692.8786778,85.0,0.0,3830.256348,4536.410156,4226.666504,4265.641113000001,4215.897461,450.0,3.0,55.0,,,,0.0,4.0,0.0,4.0,0.0,4.0,33.333332,,,,,,,,,,,,,,,,,,,,,,,,,,,,,,,,,,,,,,,,,,,,,,,,,,,,,,,,,,,,,,,,,,,,,,,,,,,,,,,,,,,,
6251,1645651692.886493,86.0,0.0,3816.4101560000004,4574.358886999999,4221.538574,4266.153809,4205.641113000001,450.0,3.0,55.0,,,,0.0,4.0,0.0,4.0,0.0,4.0,33.333332,,,,,,,,43.0,0.0,0.452586,0.523926,0.256836,-0.674316,0.962417,-0.129885,-0.31787600000000005,-0.016929,-0.048922,-0.035641,,,,,,,,,,,,,,,,,,,,,,,,,,,,,,,,,,,,,,,,,,,,,,,,,,,,,,,,,,,,,,,,,
6252,1645651692.894308,87.0,0.0,3815.384521,4642.563965,4197.94873,4264.615234000001,4191.794922,16229.0,3.0,55.0,,,,0.0,4.0,0.0,4.0,0.0,4.0,33.333332,,,,,,,,,,,,,,,,,,,,,,,,,,,,,,,,,,,,,,,,,,,,,,,,,,,,,,,,,,,,,,,,,,,,,,,,,,,,,,,,,,,,
6253,1645651692.902023,88.0,0.0,3822.0512700000004,4646.153809,4201.025879,4263.589844,4185.128418,450.0,3.0,55.0,,,,0.0,4.0,0.0,4.0,0.0,4.0,33.333332,,,,,,,,44.0,0.0,0.452586,0.523926,0.256836,-0.674316,0.9560690000000001,-0.140627,-0.31787600000000005,-0.016017,-0.049010000000000005,-0.03779,,,,,,,,,,,,,,,,,,,,,,,,,,,,,,,,,,,0.0,0.0,1.0,0.0,512.0,0.1369,,,,,,,,,,,,,,,,,,,,,,,,,
6254,1645651692.9098382,89.0,0.0,3818.461426,4641.025879,4197.94873,4264.615234000001,4184.615234000001,450.0,3.0,55.0,,,,0.0,4.0,0.0,4.0,0.0,4.0,33.333332,,,,,,,,,,,,,,,,,,,,,,,,,,,,,,,,,,,,,,,,,,,,,,,,,,,,,,,,,,,,,,,,,,,,,,,,,,,,,,,,,,,,
6255,1645651692.9176528,90.0,0.0,3827.6923829999996,4640.0,4219.487305,4265.128418,4198.461426,450.0,3.0,55.0,,,,0.0,4.0,0.0,4.0,0.0,4.0,33.333332,,,,,,,,45.0,0.0,0.452586,0.523926,0.256836,-0.674316,0.931167,-0.138186,-0.32910700000000004,-0.016808,-0.049089999999999995,-0.039626999999999996,,,,,,,,,,,,,,,,,,,,,,,,,,,,,,,,,,,,,,,,,,,,,,,,,,,,,,,,,,,,,,,,,
6256,1645651692.925468,91.0,0.0,3861.025635,4633.333496,4260.512695,4264.615234000001,4222.05127,16229.0,3.0,55.0,,,,0.0,4.0,0.0,4.0,0.0,4.0,33.333332,,,,,,,,,,,,,,,,,,,,,,,,,,,,,,,,,,,,,,,,,,,,,,,,,,,,,,,,,,,,,,,,,,,,,,,,,,,,,,,,,,,,
6257,1645651692.933283,92.0,0.0,3870.256348,4633.333496,4268.205078,4264.102539,4219.487305,450.0,3.0,55.0,,,,0.0,4.0,0.0,4.0,0.0,4.0,33.333332,,,,,,,,46.0,0.0,0.45286899999999997,0.523682,0.256836,-0.674316,0.944839,-0.11816600000000001,-0.319341,-0.017569,-0.049112,-0.035176,,,,,,,,,,,,,,,,,,,,,,,,,,,,,,,,,,,0.0,0.0,1.0,0.0,512.0,0.1369,,,,,,,,,,,,,,,,,,,,,,,,,
6258,1645651692.941099,93.0,0.0,3855.384521,4610.769043,4236.410156,4265.641113000001,4202.563965,450.0,3.0,55.0,,,,0.0,4.0,0.0,4.0,0.0,4.0,33.333332,,,,,,,,,,,,,,,,,,,,,,,,,,,,,,,,,,,,,,,,,,,,,,,,,,,,,,,,,,,,,,,,,,,,,,,,,,,,,,,,,,,,
6259,1645651692.948914,94.0,0.0,3849.2307130000004,4607.179688,4217.436035,4265.641113000001,4196.410156,450.0,3.0,55.0,,,,0.0,4.0,0.0,4.0,0.0,4.0,33.333332,,,,,,,,47.0,0.0,0.45273,0.523682,0.25708000000000003,-0.674316,0.946792,-0.132326,-0.32227100000000003,-0.018106999999999998,-0.049083999999999996,-0.037370999999999995,,,,,,,,,,,,,,,,,,,,,,,,,,,,,,,,,,,,,,,,,,,,,,,,,,,,,,,,,,,,,,,,,
6260,1645651692.956729,95.0,0.0,3873.8461909999996,4709.230957,4237.436035,4265.128418,4219.487305,16229.0,3.0,55.0,,,,0.0,4.0,0.0,4.0,0.0,4.0,33.333332,,,,,,,,,,,,,,,,,,,,,,,,,,,,,,,,,,,,,,,,,,,,,,,,,,,,,,,,,,,,,,,,,,,,,,,,,,,,,,,,,,,,
6261,1645651692.964544,96.0,0.0,3889.743652,4784.615234000001,4240.0,4266.153809,4235.897461,450.0,3.0,55.0,,,,0.0,4.0,0.0,4.0,0.0,4.0,33.333332,,,,,,,,48.0,0.0,0.45273,0.523682,0.25708000000000003,-0.674316,0.9629049999999999,-0.129885,-0.319341,-0.018591,-0.049107,-0.039347,,,,,,,,,,,,,,,,,,,,,,,,,,,,,,,,,,,0.0,0.0,1.0,0.0,512.0,0.1369,,,,,,,,,,,,,,,,,,,,,,,,,
6262,1645651692.972359,97.0,0.0,3887.6923829999996,4745.128418,4209.743652,4266.666504,4221.025879,450.0,3.0,55.0,,,,0.0,4.0,0.0,4.0,0.0,4.0,33.333332,,,,,,,,,,,,,,,,,,,,,,,,,,,,,,,,,,,,,,,,,,,,,,,,,,,,,,,,,,,,,,,,,,,,,,,,,,,,,,,,,,,,
6263,1645651692.980074,98.0,0.0,3892.3076170000004,4669.743652,4191.794922,4265.641113000001,4208.717772999999,450.0,3.0,55.0,,,,0.0,4.0,0.0,4.0,0.0,4.0,33.333332,,,,,,,,49.0,0.0,0.45273,0.523682,0.25708000000000003,-0.674316,0.9463030000000001,-0.125978,-0.319829,-0.019076,-0.049177,-0.041174,,,,,,,,,,,,,,,,,,,,,,,,,,,,,,,,,,,,,,,,,,,,,,,,,,,,,,,,,,,,,,,,,
6264,1645651692.987888,99.0,0.0,3915.384521,4637.94873,4217.436035,4265.128418,4230.256348,16229.0,3.0,55.0,,,,0.0,4.0,0.0,4.0,0.0,4.0,33.333332,,,,,,,,,,,,,,,,,,,,,,,,,,,,,,,,,,,,,,,,,,,,,,,,,,,,,,,,,,,,,,,,,,,,,,,,,,,,,,,,,,,,
6265,1645651692.995703,100.0,0.0,3929.2307130000004,4692.820313,4217.436035,4266.153809,4234.871582,450.0,3.0,55.0,,,,0.0,4.0,0.0,4.0,0.0,4.0,33.333332,,,,,,,,50.0,0.0,0.452955,0.523682,0.257324,-0.674072,0.956558,-0.12695499999999998,-0.321782,-0.019413999999999997,-0.048996,-0.036470999999999996,1.0,0.0,0.0,,,,,,,,,,,,,,,,,,,,,,,,,,,,,,,,0.0,0.0,1.0,0.0,512.0,0.349962,3219.8439940000003,474.142761,124.195656,11.650148,2.359411,43.818515999999995,18.358189000000003,19.266237,23.070486,20.751755,40.199459000000004,6.559095,2.5488880000000003,3.178994,1.742994,2.906567,0.435608,0.060872,0.017741999999999997,0.016937,18.146883,2.948543,1.518766,1.796978,2.252294
6266,1645651693.0035179,101.0,0.0,3927.179443,4752.307617,4195.384765999999,4264.615234000001,4228.205078,450.0,3.0,55.0,,,,0.0,4.0,0.0,4.0,0.0,4.0,33.333332,,,,,,,,,,,,,,,,,,,,,,,,,,,,,,,,,,,,,,,,,,,,,,,,,,,,,,,,,,,,,,,,,,,,,,,,,,,,,,,,,,,,
6267,1645651693.011332,102.0,0.0,3923.076904,4697.436035,4184.102539,4264.615234000001,4235.384765999999,450.0,3.0,55.0,,,,0.0,4.0,0.0,4.0,0.0,4.0,33.333332,,,,,,,,51.0,0.0,0.45309399999999994,0.523682,0.25708000000000003,-0.674072,0.9580219999999999,-0.137697,-0.323247,-0.018254,-0.04893,-0.032335,,,,,,,,,,,,,,,,,,,,,,,,,,,,,,,,,,,,,,,,,,,,,,,,,,,,,,,,,,,,,,,,,
6268,1645651693.0191472,103.0,0.0,3950.256348,4606.666504,4207.692383,4267.179688,4245.641113000001,16229.0,3.0,55.0,,,,0.0,4.0,0.0,4.0,0.0,4.0,33.333332,,,,,,,,,,,,,,,,,,,,,,,,,,,,,,,,,,,,,,,,,,,,,,,,,,,,,,,,,,,,,,,,,,,,,,,,,,,,,,,,,,,,
6269,1645651693.0269618,104.0,0.0,3967.6923829999996,4590.769043,4212.307617,4266.153809,4241.025879,450.0,3.0,55.0,,,,0.0,4.0,0.0,4.0,0.0,4.0,33.333332,,,,,,,,52.0,0.0,0.45309399999999994,0.523682,0.25708000000000003,-0.674072,0.9487450000000001,-0.13916199999999998,-0.320317,-0.016526,-0.049018,-0.034815,,,,,,,,,,,,,,,,,,,,,,,,,,,,,,,,,,,0.0,0.0,1.0,0.0,512.0,0.349962,,,,,,,,,,,,,,,,,,,,,,,,,
6270,1645651693.034776,105.0,0.0,3929.743652,4637.436035,4177.436035,4265.128418,4210.769043,450.0,3.0,55.0,,,,0.0,4.0,0.0,4.0,0.0,4.0,33.333332,,,,,,,,,,,,,,,,,,,,,,,,,,,,,,,,,,,,,,,,,,,,,,,,,,,,,,,,,,,,,,,,,,,,,,,,,,,,,,,,,,,,
6271,1645651693.042591,106.0,0.0,3924.615479,4728.717772999999,4138.461426,4266.153809,4207.179688,450.0,3.0,55.0,,,,0.0,4.0,0.0,4.0,0.0,4.0,33.333332,,,,,,,,53.0,0.0,0.45309399999999994,0.523682,0.25708000000000003,-0.674072,0.948257,-0.129885,-0.31104,-0.015068999999999999,-0.048999,-0.037143999999999996,,,,,,,,,,,,,,,,,,,,,,,,,,,,,,,,,,,,,,,,,,,,,,,,,,,,,,,,,,,,,,,,,
6272,1645651693.050306,107.0,0.0,3960.512939,4737.94873,4157.94873,4266.153809,4235.897461,16229.0,3.0,55.0,,,,0.0,4.0,0.0,4.0,0.0,4.0,33.333332,,,,,,,,,,,,,,,,,,,,,,,,,,,,,,,,,,,,,,,,,,,,,,,,,,,,,,,,,,,,,,,,,,,,,,,,,,,,,,,,,,,,
6273,1645651693.0581212,108.0,0.0,3964.102539,4631.282227000001,4169.743652,4265.128418,4237.94873,450.0,3.0,55.0,,,,0.0,4.0,0.0,4.0,0.0,4.0,33.333332,,,,,,,,54.0,0.0,0.453175,0.523926,0.25708000000000003,-0.673828,0.9550930000000001,-0.134768,-0.335454,-0.014872,-0.048967000000000004,-0.034828,,,,,,,,,,,,,,,,,,,,,,,,,,,,,,,,,,,0.0,0.0,1.0,0.0,512.0,0.349962,,,,,,,,,,,,,,,,,,,,,,,,,
6274,1645651693.0659359,109.0,0.0,3964.615479,4601.025879,4155.384765999999,4266.153809,4228.205078,450.0,3.0,55.0,,,,0.0,4.0,0.0,4.0,0.0,4.0,33.333332,,,,,,,,,,,,,,,,,,,,,,,,,,,,,,,,,,,,,,,,,,,,,,,,,,,,,,,,,,,,,,,,,,,,,,,,,,,,,,,,,,,,
6275,1645651693.073751,110.0,0.0,4010.7692869999996,4660.512695,4162.05127,4266.153809,4265.128418,450.0,3.0,55.0,,,,0.0,4.0,0.0,4.0,0.0,4.0,33.333332,,,,,,,,55.0,0.0,0.453175,0.523926,0.25708000000000003,-0.673828,0.9663229999999999,-0.140139,-0.319829,-0.014117,-0.048855,-0.036912,,,,,,,,,,,,,,,,,,,,,,,,,,,,,,,,,,,,,,,,,,,,,,,,,,,,,,,,,,,,,,,,,
6276,1645651693.081567,111.0,0.0,4014.8718259999996,4681.025879,4152.820313,4264.615234000001,4269.743652,16229.0,3.0,55.0,,,,0.0,4.0,0.0,4.0,0.0,4.0,33.333332,,,,,,,,,,,,,,,,,,,,,,,,,,,,,,,,,,,,,,,,,,,,,,,,,,,,,,,,,,,,,,,,,,,,,,,,,,,,,,,,,,,,
6277,1645651693.089382,112.0,0.0,3987.6923829999996,4635.384765999999,4135.384765999999,4265.641113000001,4231.794922,450.0,3.0,55.0,,,,0.0,4.0,0.0,4.0,0.0,4.0,33.333332,,,,,,,,56.0,0.0,0.453313,0.523926,0.256836,-0.673828,0.948257,-0.136233,-0.330083,-0.015,-0.048999,-0.032732,,,,,,,,,,,,,,,,,,,,,,,,,,,,,,,,,,,0.0,0.0,1.0,0.0,512.0,0.349962,,,,,,,,,,,,,,,,,,,,,,,,,
6278,1645651693.097197,113.0,0.0,3993.3332520000004,4610.256348,4134.871582,4266.153809,4226.666504,450.0,3.0,55.0,,,,0.0,4.0,0.0,4.0,0.0,4.0,33.333332,,,,,,,,,,,,,,,,,,,,,,,,,,,,,,,,,,,,,,,,,,,,,,,,,,,,,,,,,,,,,,,,,,,,,,,,,,,,,,,,,,,,
6279,1645651693.105012,114.0,0.0,4011.281982,4634.358886999999,4148.717772999999,4266.666504,4249.230957,450.0,3.0,55.0,,,,0.0,4.0,0.0,4.0,0.0,4.0,33.333332,,,,,,,,57.0,0.0,0.453313,0.523926,0.256836,-0.673828,0.9511860000000001,-0.13086099999999998,-0.320806,-0.015893,-0.04908,-0.035172,,,,,,,,,,,,,,,,,,,,,,,,,,,,,,,,,,,,,,,,,,,,,,,,,,,,,,,,,,,,,,,,,
6280,1645651693.1127279,115.0,0.0,4005.1281740000004,4637.94873,4143.589844,4266.666504,4245.128418,16229.0,3.0,55.0,,,,0.0,4.0,0.0,4.0,0.0,4.0,33.333332,,,,,,,,,,,,,,,,,,,,,,,,,,,,,,,,,,,,,,,,,,,,,,,,,,,,,,,,,,,,,,,,,,,,,,,,,,,,,,,,,,,,
6281,1645651693.120544,116.0,0.0,4007.6923829999996,4640.0,4135.384765999999,4265.641113000001,4234.358886999999,450.0,3.0,55.0,,,,0.0,4.0,0.0,4.0,0.0,4.0,33.333332,0.972656,0.0,0.0,0.0,3.0,0.0,4.0,58.0,0.0,0.453313,0.523926,0.256836,-0.673828,0.94435,-0.131838,-0.326177,-0.016599000000000003,-0.049055,-0.037465,1.0,0.0,0.0,,,,,,,,,,,,,,,,,,,,,,,,,,,,,,,,0.0,0.0,1.0,0.0,512.0,0.506359,1810.0875239999998,225.00975,59.012657,6.223618,2.239937,35.170055,16.403984,19.854988,22.921476000000002,21.424559,34.695675,5.522448000000001,3.357501,3.141384,1.6420009999999998,1.50736,0.191342,0.034629,0.016016,0.013584,14.917409,2.04267,1.5131430000000001,1.8079509999999999,2.2376139999999998
6282,1645651693.12836,117.0,0.0,4016.4101560000004,4666.666504,4114.358886999999,4264.615234000001,4228.717772999999,450.0,3.0,55.0,,,,0.0,4.0,0.0,4.0,0.0,4.0,33.333332,,,,,,,,,,,,,,,,,,,,,,,,,,,,,,,,,,,,,,,,,,,,,,,,,,,,,,,,,,,,,,,,,,,,,,,,,,,,,,,,,,,,
6283,1645651693.136175,118.0,0.0,4017.4357909999994,4637.94873,4128.717772999999,4267.692383,4234.871582,450.0,3.0,55.0,,,,0.0,4.0,0.0,4.0,0.0,4.0,33.333332,,,,,,,,59.0,0.0,0.45345100000000005,0.523926,0.256592,-0.673828,0.952651,-0.145998,-0.321782,-0.017234,-0.049081,-0.033132999999999996,,,,,,,,,,,,,,,,,,,,,,,,,,,,,,,,,,,,,,,,,,,,,,,,,,,,,,,,,,,,,,,,,
6284,1645651693.143991,119.0,0.0,4032.3076170000004,4582.05127,4167.179688,4269.230957,4257.94873,16229.0,3.0,55.0,,,,0.0,4.0,0.0,4.0,0.0,4.0,33.333332,,,,,,,,,,,,,,,,,,,,,,,,,,,,,,,,,,,,,,,,,,,,,,,,,,,,,,,,,,,,,,,,,,,,,,,,,,,,,,,,,,,,
6285,1645651693.151807,120.0,0.0,4036.4101560000004,4680.512695,4162.563965,4268.717772999999,4250.769043,450.0,3.0,55.0,,,,0.0,4.0,0.0,4.0,0.0,4.0,33.333332,,,,,,,,60.0,0.0,0.45345100000000005,0.523926,0.256592,-0.673828,0.9472799999999999,-0.140139,-0.333013,-0.017952000000000003,-0.049007,-0.029331,,,,,,,,,,,,,,,,,,,,,,,,,,,,,,,,,,,0.0,0.0,1.0,0.0,512.0,0.506359,,,,,,,,,,,,,,,,,,,,,,,,,
6286,1645651693.1596231,121.0,0.0,4012.820557,4764.615234000001,4118.461426,4267.692383,4213.846191,450.0,3.0,55.0,,,,0.0,4.0,0.0,4.0,0.0,4.0,33.333332,,,,,,,,,,,,,,,,,,,,,,,,,,,,,,,,,,,,,,,,,,,,,,,,,,,,,,,,,,,,,,,,,,,,,,,,,,,,,,,,,,,,
6287,1645651693.167439,122.0,0.0,4007.179443,4610.256348,4132.307617,4267.179688,4210.769043,450.0,3.0,55.0,,,,0.0,4.0,0.0,4.0,0.0,4.0,33.333332,,,,,,,,61.0,0.0,0.453088,0.523926,0.256592,-0.674072,0.9585110000000001,-0.138674,-0.335943,-0.016253999999999998,-0.048989,-0.032111,,,,,,,,,,,,,,,,,,,,,,,,,,,,,,,,,,,,,,,,,,,,,,,,,,,,,,,,,,,,,,,,,
6288,1645651693.175255,123.0,0.0,4050.256348,4526.153809,4169.230957,4267.179688,4257.94873,16229.0,3.0,55.0,,,,0.0,4.0,0.0,4.0,0.0,4.0,33.333332,,,,,,,,,,,,,,,,,,,,,,,,,,,,,,,,,,,,,,,,,,,,,,,,,,,,,,,,,,,,,,,,,,,,,,,,,,,,,,,,,,,,
6289,1645651693.18307,124.0,0.0,4060.512939,4671.794922,4162.563965,4266.153809,4266.153809,450.0,3.0,55.0,,,,0.0,4.0,0.0,4.0,0.0,4.0,33.333332,,,,,,,,62.0,0.0,0.453088,0.523926,0.256592,-0.674072,0.9423969999999999,-0.124025,-0.322759,-0.017022,-0.048973,-0.034662,,,,,,,,,,,,,,,,,,,,,,,,,,,,,,,,,,,0.0,0.0,1.0,0.0,512.0,0.506359,,,,,,,,,,,,,,,,,,,,,,,,,
6290,1645651693.190786,125.0,0.0,4032.3076170000004,4700.0,4141.025879,4265.641113000001,4223.077147999999,450.0,3.0,55.0,,,,0.0,4.0,0.0,4.0,0.0,4.0,33.333332,,,,,,,,,,,,,,,,,,,,,,,,,,,,,,,,,,,,,,,,,,,,,,,,,,,,,,,,,,,,,,,,,,,,,,,,,,,,,,,,,,,,
6291,1645651693.198601,126.0,0.0,4027.6923829999996,4558.461426,4150.769043,4267.179688,4212.307617,450.0,3.0,55.0,,,,0.0,4.0,0.0,4.0,0.0,4.0,33.333332,,,,,,,,63.0,0.0,0.45345100000000005,0.523926,0.256592,-0.673828,0.9472799999999999,-0.140139,-0.333013,-0.017761000000000002,-0.04891,-0.030706999999999998,,,,,,,,,,,,,,,,,,,,,,,,,,,,,,,,,,,,,,,,,,,,,,,,,,,,,,,,,,,,,,,,,
6292,1645651693.2064161,127.0,0.0,4052.820557,4606.666504,4160.512695,4268.205078,4247.692383,234.0,3.0,55.0,,,,0.0,4.0,0.0,4.0,0.0,4.0,33.333332,,,,,,,,,,,,,,,,,,,,,,,,,,,,,,,,,,,,,,,,,,,,,,,,,,,,,,,,,,,,,,,,,,,,,,,,,,,,,,,,,,,,
6293,1645651693.214231,0.0,0.0,4058.461426,4761.538574,4150.769043,4265.641113000001,4255.384765999999,450.0,3.0,55.0,,,,0.0,4.0,0.0,4.0,0.0,4.0,33.333332,,,,,,,,0.0,0.0,0.453088,0.523926,0.256592,-0.674072,0.952651,-0.13135,-0.321294,-0.018328999999999998,-0.048902,-0.027148000000000002,,,,,,,,,,,,,,,,,,,,,,,,,,,,,,,,,,,0.0,0.0,1.0,0.0,512.0,0.506359,,,,,,,,,,,,,,,,,,,,,,,,,
6294,1645651693.2220461,1.0,0.0,4038.974365,4709.743652,4148.205078,4265.128418,4229.743652,450.0,3.0,55.0,,,,0.0,4.0,0.0,4.0,0.0,4.0,33.333332,,,,,,,,,,,,,,,,,,,,,,,,,,,,,,,,,,,,,,,,,,,,,,,,,,,,,,,,,,,,,,,,,,,,,,,,,,,,,,,,,,,,
6295,1645651693.229861,2.0,0.0,4015.897461,4610.769043,4138.974121,4268.717772999999,4197.436035,16254.0,3.0,55.0,,,,0.0,4.0,0.0,4.0,0.0,4.0,33.333332,,,,,,,,1.0,0.0,0.452863,0.523926,0.256348,-0.674316,0.95021,-0.127932,-0.333013,-0.016544,-0.048846,-0.030146,,,,,,,,,,,,,,,,,,,,,,,,,,,,,,,,,,,,,,,,,,,,,,,,,,,,,,,,,,,,,,,,,
6296,1645651693.237676,3.0,0.0,4031.794922,4612.820313,4161.538574,4266.666504,4202.05127,450.0,3.0,55.0,,,,0.0,4.0,0.0,4.0,0.0,4.0,33.333332,,,,,,,,,,,,,,,,,,,,,,,,,,,,,,,,,,,,,,,,,,,,,,,,,,,,,,,,,,,,,,,,,,,,,,,,,,,,,,,,,,,,
6297,1645651693.245492,4.0,0.0,4062.5642090000006,4599.487305,4192.820313,4264.102539,4232.307617,1.0,3.0,55.0,,,,0.0,4.0,0.0,4.0,0.0,4.0,33.333332,,,,,,,,2.0,0.0,0.452863,0.523926,0.256348,-0.674316,0.9463030000000001,-0.131838,-0.31396999999999997,-0.014939,-0.048795,-0.032894,1.0,0.0,0.0,,,,,,,,,,,,,,,,,,,,,,,,,,,,,,,,0.0,0.0,1.0,0.0,512.0,0.412807,847.031616,83.65880600000001,21.830395000000003,3.2457130000000003,2.238037,27.235468,14.234637,21.585995,22.507454,21.8825,27.242708,4.3861099999999995,4.153773,2.936036,1.572281,0.630246,0.058453,0.018928,0.014009,0.01045,11.549464,1.629031,1.568519,1.7257360000000002,2.237311
6298,1645651693.253207,5.0,0.0,4065.1281740000004,4592.307617,4194.871582,4266.666504,4254.358886999999,450.0,3.0,55.0,,,,0.0,4.0,0.0,4.0,0.0,4.0,33.333332,,,,,,,,,,,,,,,,,,,,,,,,,,,,,,,,,,,,,,,,,,,,,,,,,,,,,,,,,,,,,,,,,,,,,,,,,,,,,,,,,,,,
6299,1645651693.261023,6.0,0.0,4054.358887,4687.179688,4168.205078,4269.230957,4248.205078,16166.0,3.0,55.0,,,,0.0,4.0,0.0,4.0,0.0,4.0,33.333332,,,,,,,,3.0,0.0,0.452863,0.523926,0.256348,-0.674316,0.95314,-0.138674,-0.333989,-0.015837999999999998,-0.048798,-0.035366,,,,,,,,,,,,,,,,,,,,,,,,,,,,,,,,,,,,,,,,,,,,,,,,,,,,,,,,,,,,,,,,,
6300,1645651693.2688391,7.0,0.0,4067.6923829999996,4749.743652,4169.230957,4267.692383,4234.871582,450.0,3.0,55.0,,,,0.0,4.0,0.0,4.0,0.0,4.0,33.333332,,,,,,,,,,,,,,,,,,,,,,,,,,,,,,,,,,,,,,,,,,,,,,,,,,,,,,,,,,,,,,,,,,,,,,,,,,,,,,,,,,,,
6301,1645651693.2766552,8.0,0.0,4072.3076170000004,4673.333496,4158.461426,4264.615234000001,4223.077147999999,450.0,3.0,55.0,,,,0.0,4.0,0.0,4.0,0.0,4.0,33.333332,,,,,,,,4.0,0.0,0.453007,0.523682,0.256592,-0.674316,0.952651,-0.137209,-0.314458,-0.016646,-0.04885,-0.031195,,,,,,,,,,,,,,,,,,,,,,,,,,,,,,,,,,,0.0,0.0,1.0,0.0,512.0,0.412807,,,,,,,,,,,,,,,,,,,,,,,,,
6302,1645651693.284471,9.0,0.0,4052.820557,4623.589844,4149.230957,4266.666504,4209.230957,0.0,3.0,55.0,,,,0.0,4.0,0.0,4.0,0.0,4.0,33.333332,,,,,,,,,,,,,,,,,,,,,,,,,,,,,,,,,,,,,,,,,,,,,,,,,,,,,,,,,,,,,,,,,,,,,,,,,,,,,,,,,,,,
6303,1645651693.2922869,10.0,0.0,4048.205078,4662.563965,4143.589844,4270.256348,4195.897461,450.0,3.0,55.0,,,,0.0,4.0,0.0,4.0,0.0,4.0,33.333332,,,,,,,,5.0,0.0,0.453007,0.523682,0.256592,-0.674316,0.9560690000000001,-0.125002,-0.323735,-0.017228,-0.048897,-0.033788,,,,,,,,,,,,,,,,,,,,,,,,,,,,,,,,,,,,,,,,,,,,,,,,,,,,,,,,,,,,,,,,,
6304,1645651693.300103,11.0,0.0,4052.820557,4662.05127,4145.128418,4267.179688,4183.077147999999,16260.0,3.0,55.0,,,,0.0,4.0,0.0,4.0,0.0,4.0,33.333332,,,,,,,,,,,,,,,,,,,,,,,,,,,,,,,,,,,,,,,,,,,,,,,,,,,,,,,,,,,,,,,,,,,,,,,,,,,,,,,,,,,,
6305,1645651693.307918,12.0,0.0,4064.615479,4631.794922,4154.358886999999,4264.102539,4207.692383,450.0,3.0,55.0,,,,0.0,4.0,0.0,4.0,0.0,4.0,33.333332,,,,,,,,6.0,0.0,0.453007,0.523682,0.256592,-0.674316,0.957534,-0.122072,-0.323735,-0.0178,-0.048889999999999996,-0.029872000000000003,,,,,,,,,,,,,,,,,,,,,,,,,,,,,,,,,,,0.0,0.0,1.0,0.0,512.0,0.412807,,,,,,,,,,,,,,,,,,,,,,,,,
6306,1645651693.315634,13.0,0.0,4066.6667479999996,4688.717772999999,4158.974121,4266.666504,4231.794922,450.0,3.0,55.0,,,,0.0,4.0,0.0,4.0,0.0,4.0,33.333332,,,,,,,,,,,,,,,,,,,,,,,,,,,,,,,,,,,,,,,,,,,,,,,,,,,,,,,,,,,,,,,,,,,,,,,,,,,,,,,,,,,,
6307,1645651693.32345,14.0,0.0,4083.076904,4730.769043,4168.205078,4267.179688,4230.769043,450.0,3.0,55.0,,,,0.0,4.0,0.0,4.0,0.0,4.0,33.333332,,,,,,,,7.0,0.0,0.452926,0.523438,0.256592,-0.674561,0.928725,-0.138186,-0.32861799999999997,-0.018462,-0.048835,-0.032549,,,,,,,,,,,,,,,,,,,,,,,,,,,,,,,,,,,,,,,,,,,,,,,,,,,,,,,,,,,,,,,,,
6308,1645651693.331266,15.0,0.0,4108.717772999999,4646.666504,4191.282227000001,4265.128418,4231.794922,16260.0,3.0,55.0,,,,0.0,4.0,0.0,4.0,0.0,4.0,33.333332,,,,,,,,,,,,,,,,,,,,,,,,,,,,,,,,,,,,,,,,,,,,,,,,,,,,,,,,,,,,,,,,,,,,,,,,,,,,,,,,,,,,
6309,1645651693.339082,16.0,0.0,4116.410156,4608.717772999999,4195.384765999999,4268.717772999999,4241.538574,0.0,3.0,55.0,,,,0.0,4.0,0.0,4.0,0.0,4.0,33.333332,,,,,,,,8.0,0.0,0.453064,0.523438,0.256348,-0.674561,0.939467,-0.13281500000000002,-0.315923,-0.019008,-0.048786,-0.028806000000000002,,,,,,,,,,,,,,,,,,,,,,,,,,,,,,,,,,,0.0,0.0,1.0,0.0,512.0,0.412807,,,,,,,,,,,,,,,,,,,,,,,,,
6310,1645651693.346898,17.0,0.0,4106.666504,4671.282227000001,4168.205078,4271.282227000001,4232.307617,0.0,3.0,55.0,,,,0.0,4.0,0.0,4.0,0.0,4.0,33.333332,,,,,,,,,,,,,,,,,,,,,,,,,,,,,,,,,,,,,,,,,,,,,,,,,,,,,,,,,,,,,,,,,,,,,,,,,,,,,,,,,,,,
6311,1645651693.3547132,18.0,0.0,4097.94873,4660.512695,4164.615234000001,4266.666504,4223.589844,0.0,3.0,55.0,,,,0.0,4.0,0.0,4.0,0.0,4.0,33.333332,,,,,,,,9.0,0.0,0.453346,0.523193,0.256348,-0.674561,0.9511860000000001,-0.137209,-0.339361,-0.017254,-0.048644,-0.025338999999999997,,,,,,,,,,,,,,,,,,,,,,,,,,,,,,,,,,,,,,,,,,,,,,,,,,,,,,,,,,,,,,,,,
6312,1645651693.3625288,19.0,0.0,4088.205078,4623.589844,4161.538574,4264.615234000001,4228.717772999999,0.0,3.0,55.0,,,,0.0,4.0,0.0,4.0,0.0,4.0,33.333332,,,,,,,,,,,,,,,,,,,,,,,,,,,,,,,,,,,,,,,,,,,,,,,,,,,,,,,,,,,,,,,,,,,,,,,,,,,,,,,,,,,,
6313,1645651693.3703449,20.0,0.0,4103.589844,4677.436035,4157.94873,4268.717772999999,4238.974121,0.0,3.0,55.0,,,,0.0,4.0,0.0,4.0,0.0,4.0,33.333332,,,,,,,,10.0,0.0,0.453208,0.523193,0.256592,-0.674561,0.95021,-0.135744,-0.316411,-0.01797,-0.048662000000000004,-0.022268,1.0,0.0,0.0,,,,,,,,,,,,,,,,,,,,,,,,,,,,,,,,0.0,0.0,1.0,0.0,512.0,0.386194,316.301514,25.426794,7.175382000000001,2.093814,2.302764,21.907089000000003,11.948186999999999,23.523912,21.624994,21.864552,19.173687,3.3562510000000003,4.8512949999999995,2.635098,1.576003,0.20356300000000002,0.012436,0.011828,0.011982,0.008062,8.685417,1.569108,1.731313,1.584742,2.268855
6314,1645651693.378161,21.0,0.0,4129.743652,4707.692383,4154.358886999999,4270.256348,4224.615234000001,0.0,3.0,55.0,,,,0.0,4.0,0.0,4.0,0.0,4.0,33.333332,,,,,,,,,,,,,,,,,,,,,,,,,,,,,,,,,,,,,,,,,,,,,,,,,,,,,,,,,,,,,,,,,,,,,,,,,,,,,,,,,,,,
6315,1645651693.385877,22.0,0.0,4112.820313,4633.846191,4151.282227000001,4267.179688,4198.461426,0.0,3.0,55.0,,,,0.0,4.0,0.0,4.0,0.0,4.0,33.333332,,,,,,,,11.0,0.0,0.45312600000000003,0.522949,0.256592,-0.674805,0.949233,-0.13379100000000002,-0.327153,-0.018663,-0.048581,-0.025755,,,,,,,,,,,,,,,,,,,,,,,,,,,,,,,,,,,,,,,,,,,,,,,,,,,,,,,,,,,,,,,,,
6316,1645651693.393692,23.0,0.0,4098.974121,4552.820313,4155.384765999999,4264.102539,4212.307617,0.0,3.0,55.0,,,,0.0,4.0,0.0,4.0,0.0,4.0,33.333332,,,,,,,,,,,,,,,,,,,,,,,,,,,,,,,,,,,,,,,,,,,,,,,,,,,,,,,,,,,,,,,,,,,,,,,,,,,,,,,,,,,,
6317,1645651693.401409,24.0,0.0,4129.230957,4567.692383,4183.589844,4268.205078,4238.974121,0.0,3.0,55.0,,,,0.0,4.0,0.0,4.0,0.0,4.0,33.333332,,,,,,,,12.0,0.0,0.45312600000000003,0.522949,0.256592,-0.674805,0.9463030000000001,-0.120119,-0.33105999999999997,-0.019141,-0.048704000000000004,-0.022642,,,,,,,,,,,,,,,,,,,,,,,,,,,,,,,,,,,0.0,0.0,1.0,0.0,512.0,0.386194,,,,,,,,,,,,,,,,,,,,,,,,,
6318,1645651693.409225,25.0,0.0,4134.358886999999,4662.05127,4171.794922,4272.307617,4228.205078,0.0,3.0,55.0,,,,0.0,4.0,0.0,4.0,0.0,4.0,33.333332,,,,,,,,,,,,,,,,,,,,,,,,,,,,,,,,,,,,,,,,,,,,,,,,,,,,,,,,,,,,,,,,,,,,,,,,,,,,,,,,,,,,
6319,1645651693.417041,26.0,0.0,4111.794922,4745.641113000001,4143.077147999999,4268.717772999999,4214.358886999999,0.0,3.0,55.0,,,,0.0,4.0,0.0,4.0,0.0,4.0,33.333332,,,,,,,,13.0,0.0,0.45304399999999995,0.522705,0.256592,-0.675049,0.9438620000000001,-0.126467,-0.340826,-0.01957,-0.04857,-0.025993000000000002,,,,,,,,,,,,,,,,,,,,,,,,,,,,,,,,,,,,,,,,,,,,,,,,,,,,,,,,,,,,,,,,,
6320,1645651693.424858,27.0,0.0,4124.615234000001,4734.358886999999,4143.077147999999,4265.128418,4231.282227000001,0.0,3.0,55.0,,,,0.0,4.0,0.0,4.0,0.0,4.0,33.333332,,,,,,,,,,,,,,,,,,,,,,,,,,,,,,,,,,,,,,,,,,,,,,,,,,,,,,,,,,,,,,,,,,,,,,,,,,,,,,,,,,,,
6321,1645651693.432674,28.0,0.0,4130.256348,4657.94873,4169.743652,4267.692383,4230.769043,0.0,3.0,55.0,,,,0.0,4.0,0.0,4.0,0.0,4.0,33.333332,,,,,,,,14.0,0.0,0.45304399999999995,0.522705,0.256592,-0.675049,0.947768,-0.13135,-0.32813000000000003,-0.017759999999999998,-0.048547,-0.029156,,,,,,,,,,,,,,,,,,,,,,,,,,,,,,,,,,,0.0,0.0,1.0,0.0,512.0,0.386194,,,,,,,,,,,,,,,,,,,,,,,,,
6322,1645651693.44039,29.0,0.0,4110.769043,4630.769043,4180.0,4269.743652,4207.179688,0.0,3.0,55.0,,,,0.0,4.0,0.0,4.0,0.0,4.0,33.333332,,,,,,,,,,,,,,,,,,,,,,,,,,,,,,,,,,,,,,,,,,,,,,,,,,,,,,,,,,,,,,,,,,,,,,,,,,,,,,,,,,,,
6323,1645651693.448205,30.0,0.0,4103.077147999999,4675.897461,4176.922852000001,4267.692383,4195.384765999999,0.0,3.0,55.0,,,,0.0,4.0,0.0,4.0,0.0,4.0,33.333332,,,,,,,,15.0,0.0,0.452962,0.522461,0.256592,-0.675293,0.9560690000000001,-0.123049,-0.330083,-0.016765000000000002,-0.048428,-0.031952999999999995,,,,,,,,,,,,,,,,,,,,,,,,,,,,,,,,,,,,,,,,,,,,,,,,,,,,,,,,,,,,,,,,,
6324,1645651693.456021,31.0,0.0,4124.615234000001,4708.205078,4193.846191,4267.692383,4215.897461,0.0,3.0,55.0,,,,0.0,4.0,0.0,4.0,0.0,4.0,33.333332,,,,,,,,,,,,,,,,,,,,,,,,,,,,,,,,,,,,,,,,,,,,,,,,,,,,,,,,,,,,,,,,,,,,,,,,,,,,,,,,,,,,
6325,1645651693.463836,32.0,0.0,4135.897461,4670.769043,4203.589844,4269.230957,4231.794922,0.0,3.0,55.0,,,,0.0,4.0,0.0,4.0,0.0,4.0,33.333332,,,,,,,,16.0,0.0,0.45318800000000004,0.522461,0.256836,-0.675049,0.9663229999999999,-0.12549000000000002,-0.331548,-0.017481,-0.048468000000000004,-0.034617,,,,,,,,,,,,,,,,,,,,,,,,,,,,,,,,,,,0.0,0.0,1.0,0.0,512.0,0.386194,,,,,,,,,,,,,,,,,,,,,,,,,
6326,1645651693.471652,33.0,0.0,4136.922852000001,4621.025879,4198.974121,4269.230957,4229.230957,0.0,3.0,55.0,,,,0.0,4.0,0.0,4.0,0.0,4.0,33.333332,,,,,,,,,,,,,,,,,,,,,,,,,,,,,,,,,,,,,,,,,,,,,,,,,,,,,,,,,,,,,,,,,,,,,,,,,,,,,,,,,,,,
6327,1645651693.4794679,34.0,0.0,4134.358886999999,4602.05127,4186.666504,4268.717772999999,4223.077147999999,0.0,3.0,55.0,,,,0.0,4.0,0.0,4.0,0.0,4.0,33.333332,,,,,,,,17.0,0.0,0.45304399999999995,0.522705,0.256592,-0.675049,0.947768,-0.13135,-0.32813000000000003,-0.018223,-0.048553,-0.030667000000000003,,,,,,,,,,,,,,,,,,,,,,,,,,,,,,,,,,,,,,,,,,,,,,,,,,,,,,,,,,,,,,,,,
6328,1645651693.487283,35.0,0.0,4139.487305,4639.487305,4185.641113000001,4268.717772999999,4226.153809,0.0,3.0,55.0,,,,0.0,4.0,0.0,4.0,0.0,4.0,33.333332,,,,,,,,,,,,,,,,,,,,,,,,,,,,,,,,,,,,,,,,,,,,,,,,,,,,,,,,,,,,,,,,,,,,,,,,,,,,,,,,,,,,
6329,1645651693.495099,36.0,0.0,4141.538574,4691.282227000001,4167.179688,4267.692383,4208.717772999999,0.0,3.0,55.0,,,,0.0,4.0,0.0,4.0,0.0,4.0,33.333332,,,,,,,,18.0,0.0,0.45318800000000004,0.522461,0.256836,-0.675049,0.9663229999999999,-0.12549000000000002,-0.331548,-0.018793999999999998,-0.048581,-0.033460000000000004,1.0,0.0,0.0,,,,,,,,,,,,,,,,,,,,,,,,,,,,,,,,0.0,0.0,1.0,0.0,512.0,1.0,83.08228299999999,6.899953,3.670228,1.735641,2.360905,19.574589000000003,9.816597,24.988138,20.347063000000002,21.420525,11.664669,2.539141,5.3649949999999995,2.311626,1.6628189999999998,0.051387,0.005848,0.00907,0.010085,0.006686,6.4896650000000005,1.6328610000000001,2.005534,1.433236,2.325213
6330,1645651693.502914,37.0,0.0,4127.692383,4624.615234000001,4156.410156,4267.179688,4200.0,0.0,3.0,55.0,,,,0.0,4.0,0.0,4.0,0.0,4.0,33.333332,,,,,,,,,,,,,,,,,,,,,,,,,,,,,,,,,,,,,,,,,,,,,,,,,,,,,,,,,,,,,,,,,,,,,,,,,,,,,,,,,,,,
6331,1645651693.5106301,38.0,0.0,4125.128418,4526.666504,4163.589844,4267.179688,4220.512695,0.0,3.0,55.0,,,,0.0,4.0,0.0,4.0,0.0,4.0,33.333332,,,,,,,,19.0,0.0,0.45318800000000004,0.522461,0.256836,-0.675049,0.968277,-0.125978,-0.333013,-0.017012,-0.048606,-0.035876,,,,,,,,,,,,,,,,,,,,,,,,,,,,,,,,,,,,,,,,,,,,,,,,,,,,,,,,,,,,,,,,,
6332,1645651693.5184462,39.0,0.0,4159.487305,4587.179688,4189.743652,4270.769043,4236.410156,0.0,3.0,55.0,,,,0.0,4.0,0.0,4.0,0.0,4.0,33.333332,,,,,,,,,,,,,,,,,,,,,,,,,,,,,,,,,,,,,,,,,,,,,,,,,,,,,,,,,,,,,,,,,,,,,,,,,,,,,,,,,,,,
6333,1645651693.5262618,40.0,0.0,4203.589844,4702.05127,4196.410156,4272.307617,4242.563965,0.0,3.0,55.0,,,,0.0,4.0,0.0,4.0,0.0,4.0,33.333332,,,,,,,,20.0,0.0,0.45318800000000004,0.522461,0.256836,-0.675049,0.956558,-0.136233,-0.326665,-0.017654,-0.048677,-0.037952,,,,,,,,,,,,,,,,,,,,,,,,,,,,,,,,,,,0.0,0.0,1.0,0.0,512.0,1.0,,,,,,,,,,,,,,,,,,,,,,,,,
6334,1645651693.534078,41.0,0.0,4199.487305,4668.205078,4192.820313,4270.769043,4240.0,0.0,3.0,55.0,,,,0.0,4.0,0.0,4.0,0.0,4.0,33.333332,,,,,,,,,,,,,,,,,,,,,,,,,,,,,,,,,,,,,,,,,,,,,,,,,,,,,,,,,,,,,,,,,,,,,,,,,,,,,,,,,,,,
6335,1645651693.541894,42.0,0.0,4160.512695,4582.05127,4181.025879,4270.256348,4220.512695,0.0,3.0,55.0,,,,0.0,4.0,0.0,4.0,0.0,4.0,33.333332,,,,,,,,21.0,0.0,0.452824,0.522461,0.256836,-0.675293,0.952651,-0.119631,-0.336919,-0.018233000000000003,-0.048692,-0.033522,,,,,,,,,,,,,,,,,,,,,,,,,,,,,,,,,,,,,,,,,,,,,,,,,,,,,,,,,,,,,,,,,
6336,1645651693.54971,43.0,0.0,4162.563965,4608.205078,4183.589844,4270.769043,4225.641113000001,0.0,3.0,55.0,,,,0.0,4.0,0.0,4.0,0.0,4.0,33.333332,,,,,,,,,,,,,,,,,,,,,,,,,,,,,,,,,,,,,,,,,,,,,,,,,,,,,,,,,,,,,,,,,,,,,,,,,,,,,,,,,,,,
6337,1645651693.557525,44.0,0.0,4212.820313,4655.384765999999,4195.897461,4270.769043,4271.794922,0.0,3.0,55.0,,,,0.0,4.0,0.0,4.0,0.0,4.0,33.333332,,,,,,,,22.0,0.0,0.452824,0.522461,0.256836,-0.675293,0.961929,-0.136233,-0.317388,-0.018851,-0.048657,-0.035834,,,,,,,,,,,,,,,,,,,,,,,,,,,,,,,,,,,0.0,0.0,1.0,0.0,512.0,1.0,,,,,,,,,,,,,,,,,,,,,,,,,
6338,1645651693.565341,45.0,0.0,4208.205078,4636.410156,4190.769043,4271.282227000001,4267.692383,0.0,3.0,55.0,,,,0.0,4.0,0.0,4.0,0.0,4.0,33.333332,,,,,,,,,,,,,,,,,,,,,,,,,,,,,,,,,,,,,,,,,,,,,,,,,,,,,,,,,,,,,,,,,,,,,,,,,,,,,,,,,,,,
6339,1645651693.573057,46.0,0.0,4180.0,4646.666504,4161.538574,4269.743652,4234.358886999999,0.0,3.0,55.0,,,,0.0,4.0,0.0,4.0,0.0,4.0,33.333332,,,,,,,,23.0,0.0,0.452824,0.522461,0.256836,-0.675293,0.9438620000000001,-0.133303,-0.319341,-0.019261,-0.048723,-0.037964,,,,,,,,,,,,,,,,,,,,,,,,,,,,,,,,,,,,,,,,,,,,,,,,,,,,,,,,,,,,,,,,,
6340,1645651693.580873,47.0,0.0,4205.641113000001,4709.743652,4158.974121,4269.743652,4249.743652,0.0,3.0,55.0,,,,0.0,4.0,0.0,4.0,0.0,4.0,33.333332,,,,,,,,,,,,,,,,,,,,,,,,,,,,,,,,,,,,,,,,,,,,,,,,,,,,,,,,,,,,,,,,,,,,,,,,,,,,,,,,,,,,
6341,1645651693.5886881,48.0,0.0,4243.589844,4685.128418,4190.769043,4274.358886999999,4278.461426,0.0,3.0,55.0,,,,0.0,4.0,0.0,4.0,0.0,4.0,33.333332,,,,,,,,24.0,0.0,0.45268500000000006,0.522461,0.25708000000000003,-0.675293,0.952651,-0.12549000000000002,-0.343267,-0.017432,-0.048636,-0.039978,,,,,,,,,,,,,,,,,,,,,,,,,,,,,,,,,,,0.0,0.0,1.0,0.0,512.0,1.0,,,,,,,,,,,,,,,,,,,,,,,,,
6342,1645651693.596504,49.0,0.0,4237.94873,4573.333496,4185.641113000001,4274.358886999999,4273.333496,0.0,3.0,55.0,,,,0.0,4.0,0.0,4.0,0.0,4.0,33.333332,,,,,,,,,,,,,,,,,,,,,,,,,,,,,,,,,,,,,,,,,,,,,,,,,,,,,,,,,,,,,,,,,,,,,,,,,,,,,,,,,,,,
6343,1645651693.6043189,50.0,0.0,4233.333496,4536.922852000001,4175.384765999999,4271.282227000001,4279.487305,0.0,3.0,55.0,,,,0.0,4.0,0.0,4.0,0.0,4.0,33.333332,,,,,,,,25.0,0.0,0.452403,0.522705,0.25708000000000003,-0.675293,0.9340959999999999,-0.12255999999999999,-0.32959499999999997,-0.018179,-0.048655000000000004,-0.035248,,,,,,,,,,,,,,,,,,,,,,,,,,,,,,,,,,,,,,,,,,,,,,,,,,,,,,,,,,,,,,,,,
6344,1645651693.612135,51.0,0.0,4243.589844,4608.205078,4186.666504,4272.307617,4286.153809,0.0,3.0,55.0,,,,0.0,4.0,0.0,4.0,0.0,4.0,33.333332,,,,,,,,,,,,,,,,,,,,,,,,,,,,,,,,,,,,,,,,,,,,,,,,,,,,,,,,,,,,,,,,,,,,,,,,,,,,,,,,,,,,
6345,1645651693.619951,52.0,0.0,4256.922852000001,4655.897461,4209.230957,4273.846191,4302.05127,0.0,3.0,55.0,,,,0.0,4.0,0.0,4.0,0.0,4.0,33.333332,0.972656,0.0,0.0,0.0,3.0,0.0,4.0,26.0,0.0,0.452542,0.522705,0.256836,-0.675293,0.9511860000000001,-0.11523599999999999,-0.330571,-0.018754,-0.048624,-0.037534,1.0,0.0,0.0,1.0,0.5192,0.75472,-0.55724,2.004753,1.0,0.6682779999999999,7.598053,1.293427,11.183946,0.671446,1.0,0.373112,-0.123149,-0.28841,0.107205,1.0,0.291164,0.203593,-0.706072,2.021792,1.0,0.528717,11.01679,-93.991501,105.86063100000001,1.0,0.4671,0.590642,0.492187,0.70417,0.0,0.0,1.0,0.0,512.0,1.0,11.242719000000001,2.032884,3.243694,1.532519,2.3669540000000002,19.444682999999998,8.025072,25.578492999999998,19.207195000000002,20.957066,5.969429,1.997507,5.679187000000001,2.007343,1.805675,0.009584,0.00609,0.007475,0.008389,0.006633,4.831597,1.6727740000000002,2.39547,1.324296,2.3883669999999997
6346,1645651693.6277661,53.0,0.0,4278.461426,4618.461426,4222.563965,4271.282227000001,4329.230957,0.0,3.0,55.0,,,,0.0,4.0,0.0,4.0,0.0,4.0,33.333332,,,,,,,,,,,,,,,,,,,,,,,,,,,,,,,,,,,,,,,,,,,,,,,,,,,,,,,,,,,,,,,,,,,,,,,,,,,,,,,,,,,,
6347,1645651693.635582,54.0,0.0,4305.128418,4562.05127,4251.794922,4272.820313,4346.666504,0.0,3.0,55.0,,,,0.0,4.0,0.0,4.0,0.0,4.0,33.333332,,,,,,,,27.0,0.0,0.452542,0.522705,0.256836,-0.675293,0.956558,-0.125978,-0.326177,-0.019076,-0.048644,-0.033243,,,,,,,,,,,,,,,,,,,,,,,,,,,,,,,,,,,,,,,,,,,,,,,,,,,,,,,,,,,,,,,,,
6348,1645651693.6432981,55.0,0.0,4321.025879,4598.974121,4244.102539,4275.384765999999,4347.692383,0.0,3.0,55.0,,,,0.0,4.0,0.0,4.0,0.0,4.0,33.333332,,,,,,,,,,,,,,,,,,,,,,,,,,,,,,,,,,,,,,,,,,,,,,,,,,,,,,,,,,,,,,,,,,,,,,,,,,,,,,,,,,,,
6349,1645651693.651114,56.0,0.0,4325.641113000001,4658.461426,4233.333496,4272.820313,4354.871582,0.0,3.0,55.0,,,,0.0,4.0,0.0,4.0,0.0,4.0,33.333332,,,,,,,,28.0,0.0,0.45239799999999997,0.522949,0.256592,-0.675293,0.951675,-0.131838,-0.32910700000000004,-0.019561000000000002,-0.048663,-0.035632,,,,,,,,,,,,,,,,,,,,,,,,,,,,,,,,,,,0.0,0.0,1.0,0.0,512.0,1.0,,,,,,,,,,,,,,,,,,,,,,,,,
6350,1645651693.6589289,57.0,0.0,4350.256348,4635.897461,4262.563965,4273.846191,4383.077147999999,0.0,3.0,55.0,,,,0.0,4.0,0.0,4.0,0.0,4.0,33.333332,,,,,,,,,,,,,,,,,,,,,,,,,,,,,,,,,,,,,,,,,,,,,,,,,,,,,,,,,,,,,,,,,,,,,,,,,,,,,,,,,,,,
6351,1645651693.666745,58.0,0.0,4413.846191,4612.820313,4316.410156,4277.94873,4424.615234000001,0.0,3.0,55.0,,,,0.0,4.0,0.0,4.0,0.0,4.0,33.333332,,,,,,,,29.0,0.0,0.45253699999999997,0.522949,0.256348,-0.675293,0.9506979999999999,-0.121584,-0.323735,-0.019998,-0.048728,-0.031483,,,,,,,,,,,,,,,,,,,,,,,,,,,,,,,,,,,,,,,,,,,,,,,,,,,,,,,,,,,,,,,,,
6352,1645651693.674561,59.0,0.0,4438.461426,4639.487305,4306.666504,4277.94873,4439.487305,0.0,3.0,55.0,,,,0.0,4.0,0.0,4.0,0.0,4.0,33.333332,,,,,,,,,,,,,,,,,,,,,,,,,,,,,,,,,,,,,,,,,,,,,,,,,,,,,,,,,,,,,,,,,,,,,,,,,,,,,,,,,,,,
6353,1645651693.6823769,60.0,0.0,4372.820313,4665.641113000001,4242.563965,4272.307617,4384.615234000001,0.0,3.0,55.0,,,,0.0,4.0,0.0,4.0,0.0,4.0,33.333332,,,,,,,,30.0,0.0,0.452172,0.522949,0.256348,-0.6755369999999999,0.956558,-0.12842,-0.33105999999999997,-0.020342,-0.048738,-0.034096,,,,,,,,,,,,,,,,,,,,,,,,,,,,,,,,,,,0.0,0.0,1.0,0.0,512.0,1.0,,,,,,,,,,,,,,,,,,,,,,,,,
6354,1645651693.690193,61.0,0.0,4349.743652,4670.256348,4220.512695,4273.333496,4358.461426,0.0,3.0,55.0,,,,0.0,4.0,0.0,4.0,0.0,4.0,33.333332,,,,,,,,,,,,,,,,,,,,,,,,,,,,,,,,,,,,,,,,,,,,,,,,,,,,,,,,,,,,,,,,,,,,,,,,,,,,,,,,,,,,
6355,1645651693.698009,62.0,0.0,4372.307617,4660.512695,4225.641113000001,4277.94873,4374.871582,0.0,3.0,55.0,,,,0.0,4.0,0.0,4.0,0.0,4.0,33.333332,,,,,,,,31.0,0.0,0.45188999999999996,0.523193,0.256348,-0.6755369999999999,0.9433739999999999,-0.14941600000000002,-0.325689,-0.020554,-0.048845,-0.0364,,,,,,,,,,,,,,,,,,,,,,,,,,,,,,,,,,,,,,,,,,,,,,,,,,,,,,,,,,,,,,,,,
6356,1645651693.7058241,63.0,0.0,4355.384765999999,4647.179688,4203.077147999999,4278.974121,4366.666504,0.0,3.0,55.0,,,,0.0,4.0,0.0,4.0,0.0,4.0,33.333332,,,,,,,,,,,,,,,,,,,,,,,,,,,,,,,,,,,,,,,,,,,,,,,,,,,,,,,,,,,,,,,,,,,,,,,,,,,,,,,,,,,,
6357,1645651693.71354,64.0,0.0,4333.846191,4682.05127,4181.538574,4275.897461,4350.256348,450.0,3.0,55.0,,,,0.0,4.0,0.0,4.0,0.0,4.0,33.333332,,,,,,,,32.0,0.0,0.452028,0.523193,0.256104,-0.6755369999999999,0.949233,-0.127443,-0.32227100000000003,-0.020842,-0.048794,-0.038473,,,,,,,,,,,,,,,,,,,,,,,,,,,,,,,,,,,0.0,0.0,1.0,0.0,512.0,1.0,,,,,,,,,,,,,,,,,,,,,,,,,
6358,1645651693.7213562,65.0,0.0,4344.615234000001,4682.05127,4185.128418,4274.358886999999,4356.922852000001,450.0,3.0,55.0,,,,0.0,4.0,0.0,4.0,0.0,4.0,33.333332,,,,,,,,,,,,,,,,,,,,,,,,,,,,,,,,,,,,,,,,,,,,,,,,,,,,,,,,,,,,,,,,,,,,,,,,,,,,,,,,,,,,
6359,1645651693.729172,66.0,0.0,4341.025879,4632.307617,4157.436035,4276.410156,4356.922852000001,16233.0,3.0,55.0,,,,0.0,4.0,0.0,4.0,0.0,4.0,33.333332,,,,,,,,33.0,0.0,0.452166,0.523193,0.255859,-0.6755369999999999,0.940932,-0.136233,-0.32910700000000004,-0.021053,-0.048798,-0.034088,,,,,,,,,,,,,,,,,,,,,,,,,,,,,,,,,,,,,,,,,,,,,,,,,,,,,,,,,,,,,,,,,
6360,1645651693.736988,67.0,0.0,4353.333496,4632.307617,4151.794922,4277.436035,4377.94873,450.0,3.0,55.0,,,,0.0,4.0,0.0,4.0,0.0,4.0,33.333332,,,,,,,,,,,,,,,,,,,,,,,,,,,,,,,,,,,,,,,,,,,,,,,,,,,,,,,,,,,,,,,,,,,,,,,,,,,,,,,,,,,,
6361,1645651693.744804,68.0,0.0,4394.358886999999,4654.871582,4169.743652,4277.436035,4412.820313,0.0,3.0,55.0,,,,0.0,4.0,0.0,4.0,0.0,4.0,33.333332,,,,,,,,34.0,0.0,0.452166,0.523193,0.255859,-0.6755369999999999,0.9580219999999999,-0.122072,-0.33350100000000005,-0.019143,-0.048801,-0.036392,1.0,0.0,0.0,,,,,,,,,,,,,,,,,,,,,,,,,,,,,,,,0.0,0.0,1.0,0.0,512.0,1.0,3.258187,1.337697,3.3426480000000005,1.346774,2.317069,20.354559,6.851081,25.066467000000003,18.931210999999998,21.072023,2.58754,1.760361,5.825133999999999,1.731972,1.957603,0.006603,0.006428,0.006518,0.007198,0.008343999999999999,3.357125,1.658812,2.872155,1.284987,2.4396970000000002
6362,1645651693.75262,69.0,0.0,4394.358886999999,4648.205078,4148.205078,4274.871582,4404.615234000001,450.0,3.0,55.0,,,,0.0,4.0,0.0,4.0,0.0,4.0,33.333332,,,,,,,,,,,,,,,,,,,,,,,,,,,,,,,,,,,,,,,,,,,,,,,,,,,,,,,,,,,,,,,,,,,,,,,,,,,,,,,,,,,,
6363,1645651693.7604349,70.0,0.0,4365.641113000001,4653.333496,4093.3332520000004,4274.871582,4370.769043,16216.0,3.0,55.0,,,,0.0,4.0,0.0,4.0,0.0,4.0,33.333332,,,,,,,,35.0,0.0,0.451801,0.523193,0.255859,-0.6757810000000001,0.9521629999999999,-0.12109600000000001,-0.32910700000000004,-0.019621,-0.048804,-0.038368,,,,,,,,,,,,,,,,,,,,,,,,,,,,,,,,,,,,,,,,,,,,,,,,,,,,,,,,,,,,,,,,,
6364,1645651693.768251,71.0,0.0,4368.205078,4687.179688,4082.0512700000004,4277.436035,4364.615234000001,450.0,3.0,55.0,,,,0.0,4.0,0.0,4.0,0.0,4.0,33.333332,,,,,,,,,,,,,,,,,,,,,,,,,,,,,,,,,,,,,,,,,,,,,,,,,,,,,,,,,,,,,,,,,,,,,,,,,,,,,,,,,,,,
6365,1645651693.776067,72.0,0.0,4375.897461,4680.512695,4074.8718259999996,4277.436035,4365.128418,450.0,3.0,55.0,,,,0.0,4.0,0.0,4.0,0.0,4.0,33.333332,,,,,,,,36.0,0.0,0.451801,0.523193,0.255859,-0.6757810000000001,0.9472799999999999,-0.119631,-0.327153,-0.017708,-0.048757,-0.034043000000000004,,,,,,,,,,,,,,,,,,,,,,,,,,,,,,,,,,,10.0,0.0,1.0,0.0,512.0,1.0,,,,,,,,,,,,,,,,,,,,,,,,,
6366,1645651693.783783,73.0,0.0,4362.05127,4670.256348,4050.256348,4276.922852000001,4344.102539,0.0,3.0,55.0,,,,0.0,4.0,0.0,4.0,0.0,4.0,33.333332,,,,,,,,,,,,,,,,,,,,,,,,,,,,,,,,,,,,,,,,,,,,,,,,,,,,,,,,,,,,,,,,,,,,,,,,,,,,,,,,,,,,
6367,1645651693.791599,74.0,0.0,4338.461426,4642.05127,4020.0,4276.922852000001,4322.05127,450.0,3.0,55.0,,,,0.0,4.0,0.0,4.0,0.0,4.0,33.333332,,,,,,,,37.0,0.0,0.45166300000000004,0.523193,0.256104,-0.6757810000000001,0.946792,-0.12451400000000001,-0.31787600000000005,-0.015986,-0.048764999999999996,-0.036400999999999996,,,,,,,,,,,,,,,,,,,,,,,,,,,,,,,,,,,,,,,,,,,,,,,,,,,,,,,,,,,,,,,,,
6368,1645651693.799415,75.0,0.0,4305.641113000001,4555.384765999999,4002.0512700000004,4274.358886999999,4295.384765999999,16251.0,3.0,55.0,,,,0.0,4.0,0.0,4.0,0.0,4.0,33.333332,,,,,,,,,,,,,,,,,,,,,,,,,,,,,,,,,,,,,,,,,,,,,,,,,,,,,,,,,,,,,,,,,,,,,,,,,,,,,,,,,,,,
6369,1645651693.807231,76.0,0.0,4282.563965,4548.717772999999,3984.615479,4271.794922,4275.384765999999,450.0,3.0,55.0,,,,0.0,4.0,0.0,4.0,0.0,4.0,33.333332,,,,,,,,38.0,0.0,0.451801,0.523193,0.255859,-0.6757810000000001,0.938003,-0.130373,-0.326665,-0.016731,-0.04882,-0.038474,,,,,,,,,,,,,,,,,,,,,,,,,,,,,,,,,,,10.0,0.0,1.0,0.0,512.0,1.0,,,,,,,,,,,,,,,,,,,,,,,,,
6370,1645651693.815048,77.0,0.0,4263.077147999999,4658.974121,3985.1281740000004,4275.897461,4263.589844,450.0,3.0,55.0,,,,0.0,4.0,0.0,4.0,0.0,4.0,33.333332,,,,,,,,,,,,,,,,,,,,,,,,,,,,,,,,,,,,,,,,,,,,,,,,,,,,,,,,,,,,,,,,,,,,,,,,,,,,,,,,,,,,
6371,1645651693.822864,78.0,0.0,4248.717772999999,4694.871582,4003.5898439999996,4276.922852000001,4252.307617,450.0,3.0,55.0,,,,0.0,4.0,0.0,4.0,0.0,4.0,33.333332,,,,,,,,39.0,0.0,0.451801,0.523193,0.255859,-0.6757810000000001,0.954116,-0.133303,-0.315923,-0.015156000000000001,-0.048772,-0.040339,,,,,,,,,,,,,,,,,,,,,,,,,,,,,,,,,,,,,,,,,,,,,,,,,,,,,,,,,,,,,,,,,
6372,1645651693.8306801,79.0,0.0,4254.871582,4623.589844,4029.743652,4271.794922,4252.307617,16251.0,3.0,55.0,,,,0.0,4.0,0.0,4.0,0.0,4.0,33.333332,,,,,,,,,,,,,,,,,,,,,,,,,,,,,,,,,,,,,,,,,,,,,,,,,,,,,,,,,,,,,,,,,,,,,,,,,,,,,,,,,,,,
