,Timestamp,EEG.Counter,EEG.Interpolated,EEG.AF3,EEG.T7,EEG.Pz,EEG.T8,EEG.AF4,EEG.RawCq,EEG.Battery,EEG.BatteryPercent,MarkerIndex,MarkerType,MarkerValueInt,EEG.MarkerHardware,CQ.AF3,CQ.T7,CQ.Pz,CQ.T8,CQ.AF4,CQ.Overall,EQ.SampleRateQuality,EQ.OVERALL,EQ.AF3,EQ.T7,EQ.Pz,EQ.T8,EQ.AF4,MOT.CounterMems,MOT.InterpolatedMems,MOT.Q0,MOT.Q1,MOT.Q2,MOT.Q3,MOT.AccX,MOT.AccY,MOT.AccZ,MOT.MagX,MOT.MagY,MOT.MagZ,MC.Action,MC.ActionPower,MC.IsActive,PM.Engagement.IsActive,PM.Engagement.Scaled,PM.Engagement.Raw,PM.Engagement.Min,PM.Engagement.Max,PM.Excitement.IsActive,PM.Excitement.Scaled,PM.Excitement.Raw,PM.Excitement.Min,PM.Excitement.Max,PM.LongTermExcitement,PM.Stress.IsActive,PM.Stress.Scaled,PM.Stress.Raw,PM.Stress.Min,PM.Stress.Max,PM.Relaxation.IsActive,PM.Relaxation.Scaled,PM.Relaxation.Raw,PM.Relaxation.Min,PM.Relaxation.Max,PM.Interest.IsActive,PM.Interest.Scaled,PM.Interest.Raw,PM.Interest.Min,PM.Interest.Max,PM.Focus.IsActive,PM.Focus.Scaled,PM.Focus.Raw,PM.Focus.Min,PM.Focus.Max,FE.BlinkWink,FE.HorizontalEyesDirection,FE.UpperFaceAction,FE.UpperFaceActionPower,FE.LowerFaceAction,FE.LowerFaceActionPower,POW.AF3.Theta,POW.AF3.Alpha,POW.AF3.BetaL,POW.AF3.BetaH,POW.AF3.Gamma,POW.T7.Theta,POW.T7.Alpha,POW.T7.BetaL,POW.T7.BetaH,POW.T7.Gamma,POW.Pz.Theta,POW.Pz.Alpha,POW.Pz.BetaL,POW.Pz.BetaH,POW.Pz.Gamma,POW.T8.Theta,POW.T8.Alpha,POW.T8.BetaL,POW.T8.BetaH,POW.T8.Gamma,POW.AF4.Theta,POW.AF4.Alpha,POW.AF4.BetaL,POW.AF4.BetaH,POW.AF4.Gamma
34188,1645651556.570581,17.0,0.0,4336.410156,4826.153809,4223.077147999999,4281.025879,4298.974121,0.0,3.0,55.0,,,,0.0,4.0,0.0,1.0,0.0,4.0,8.333333,,,,,,,,,,,,,,,,,,,,,,,,,,,,,,,,,,,,,,,,,,,,,,,,,,,,,,,,,,,,,,,,,,,,,,,,,,,,,,,,,,,,
34189,1645651556.578399,18.0,0.0,4350.256348,4836.922852000001,4225.641113000001,4280.512695,4293.333496,0.0,3.0,55.0,,,,0.0,4.0,0.0,1.0,0.0,4.0,8.333333,,,,,,,,9.0,0.0,0.43460699999999997,0.5410159999999999,0.213135,-0.6877439999999999,0.937514,-0.183597,-0.334966,-0.016072,-0.049658999999999995,-0.040645,,,,,,,,,,,,,,,,,,,,,,,,,,,,,,,,,,,,,,,,,,,,,,,,,,,,,,,,,,,,,,,,,
34190,1645651556.586318,19.0,0.0,4347.692383,4847.692383,4232.820313,4280.512695,4297.94873,0.0,3.0,55.0,,,,0.0,4.0,0.0,1.0,0.0,4.0,8.333333,,,,,,,,,,,,,,,,,,,,,,,,,,,,,,,,,,,,,,,,,,,,,,,,,,,,,,,,,,,,,,,,,,,,,,,,,,,,,,,,,,,,
34191,1645651556.594137,20.0,0.0,4328.717772999999,4822.05127,4250.256348,4282.05127,4304.615234000001,0.0,3.0,55.0,,,,0.0,4.0,0.0,1.0,0.0,4.0,8.333333,,,,,,,,10.0,0.0,0.43460699999999997,0.5410159999999999,0.213135,-0.6877439999999999,0.951675,-0.171389,-0.320806,-0.016808,-0.049674,-0.042294,,,,,,,,,,,,,,,,,,,,,,,,,,,,,,,,,,,0.0,0.0,1.0,0.0,512.0,0.787157,,,,,,,,,,,,,,,,,,,,,,,,,
34192,1645651556.6019561,21.0,0.0,4337.436035,4732.820313,4311.282227000001,4282.563965,4298.974121,0.0,3.0,55.0,,,,0.0,4.0,0.0,1.0,0.0,4.0,8.333333,,,,,,,,,,,,,,,,,,,,,,,,,,,,,,,,,,,,,,,,,,,,,,,,,,,,,,,,,,,,,,,,,,,,,,,,,,,,,,,,,,,,
34193,1645651556.609775,22.0,0.0,4329.230957,4812.820313,4315.384765999999,4277.94873,4271.794922,0.0,3.0,55.0,,,,0.0,4.0,0.0,1.0,0.0,4.0,8.333333,,,,,,,,11.0,0.0,0.434303,0.5412600000000001,0.213135,-0.6877439999999999,0.938003,-0.175784,-0.330571,-0.017471,-0.049638,-0.043776999999999996,,,,,,,,,,,,,,,,,,,,,,,,,,,,,,,,,,,,,,,,,,,,,,,,,,,,,,,,,,,,,,,,,
34194,1645651556.617594,23.0,0.0,4314.871582,4863.077147999999,4319.487305,4277.94873,4269.743652,0.0,3.0,55.0,,,,0.0,4.0,0.0,1.0,0.0,4.0,8.333333,,,,,,,,,,,,,,,,,,,,,,,,,,,,,,,,,,,,,,,,,,,,,,,,,,,,,,,,,,,,,,,,,,,,,,,,,,,,,,,,,,,,
34195,1645651556.6254132,24.0,0.0,4323.589844,4684.615234000001,4317.436035,4279.487305,4271.794922,0.0,3.0,55.0,,,,0.0,4.0,0.0,1.0,0.0,4.0,8.333333,,,,,,,,12.0,0.0,0.434303,0.5412600000000001,0.213135,-0.6877439999999999,0.9340959999999999,-0.178714,-0.323735,-0.017921,-0.049557,-0.038813,1.0,0.0,0.0,,,,,,,,,,,,,,,,,,,,,,,,,,,,,,,,0.0,0.0,1.0,0.0,512.0,1.0,41.641449,38.678833000000004,8.195267,3.204886,1.311533,355.08432,285.139679,111.23978400000001,60.239254,40.517941,227.82052599999997,178.427841,12.094864999999999,3.706043,1.536176,0.143493,0.106466,0.031101999999999998,0.026595999999999998,0.023906,28.323589000000002,16.667402,6.665953999999999,2.3249310000000003,1.660439
34196,1645651556.633232,25.0,0.0,4341.538574,4605.641113000001,4322.05127,4277.94873,4273.846191,0.0,3.0,55.0,,,,0.0,4.0,0.0,1.0,0.0,4.0,8.333333,,,,,,,,,,,,,,,,,,,,,,,,,,,,,,,,,,,,,,,,,,,,,,,,,,,,,,,,,,,,,,,,,,,,,,,,,,,,,,,,,,,,
34197,1645651556.641051,26.0,0.0,4357.436035,4618.461426,4289.230957,4278.461426,4266.153809,0.0,3.0,55.0,,,,0.0,4.0,0.0,1.0,0.0,4.0,8.333333,,,,,,,,13.0,0.0,0.434303,0.5412600000000001,0.213135,-0.6877439999999999,0.9428850000000001,-0.188968,-0.32959499999999997,-0.018375,-0.049485,-0.040694,,,,,,,,,,,,,,,,,,,,,,,,,,,,,,,,,,,,,,,,,,,,,,,,,,,,,,,,,,,,,,,,,
34198,1645651556.64887,27.0,0.0,4337.436035,4613.846191,4260.0,4281.025879,4242.05127,0.0,3.0,55.0,,,,0.0,4.0,0.0,1.0,0.0,4.0,8.333333,,,,,,,,,,,,,,,,,,,,,,,,,,,,,,,,,,,,,,,,,,,,,,,,,,,,,,,,,,,,,,,,,,,,,,,,,,,,,,,,,,,,
34199,1645651556.656789,28.0,0.0,4356.410156,4584.615234000001,4242.05127,4280.0,4240.512695,0.0,3.0,55.0,,,,0.0,4.0,0.0,1.0,0.0,4.0,8.333333,,,,,,,,14.0,0.0,0.43460699999999997,0.5410159999999999,0.213135,-0.6877439999999999,0.945327,-0.170901,-0.32422399999999996,-0.018734999999999998,-0.049468,-0.042386,,,,,,,,,,,,,,,,,,,,,,,,,,,,,,,,,,,0.0,0.0,1.0,0.0,512.0,1.0,,,,,,,,,,,,,,,,,,,,,,,,,
34200,1645651556.664608,29.0,0.0,4390.769043,4622.05127,4218.974121,4277.94873,4264.102539,0.0,3.0,55.0,,,,0.0,4.0,0.0,1.0,0.0,4.0,8.333333,,,,,,,,,,,,,,,,,,,,,,,,,,,,,,,,,,,,,,,,,,,,,,,,,,,,,,,,,,,,,,,,,,,,,,,,,,,,,,,,,,,,
34201,1645651556.672427,30.0,0.0,4400.0,4585.641113000001,4202.563965,4282.05127,4275.384765999999,0.0,3.0,55.0,,,,0.0,4.0,0.0,1.0,0.0,4.0,8.333333,,,,,,,,15.0,0.0,0.434488,0.5410159999999999,0.21337899999999999,-0.6877439999999999,0.944839,-0.172854,-0.323735,-0.019157,-0.049453,-0.043910000000000005,,,,,,,,,,,,,,,,,,,,,,,,,,,,,,,,,,,,,,,,,,,,,,,,,,,,,,,,,,,,,,,,,
34202,1645651556.680246,31.0,0.0,4387.692383,4593.333496,4197.94873,4283.589844,4268.205078,0.0,3.0,55.0,,,,0.0,4.0,0.0,1.0,0.0,4.0,8.333333,,,,,,,,,,,,,,,,,,,,,,,,,,,,,,,,,,,,,,,,,,,,,,,,,,,,,,,,,,,,,,,,,,,,,,,,,,,,,,,,,,,,
34203,1645651556.688066,32.0,0.0,4400.0,4574.358886999999,4203.077147999999,4282.563965,4276.922852000001,0.0,3.0,55.0,,,,0.0,4.0,0.0,1.0,0.0,4.0,8.333333,,,,,,,,16.0,0.0,0.434488,0.5410159999999999,0.21337899999999999,-0.6877439999999999,0.945327,-0.188479,-0.32813000000000003,-0.019584999999999998,-0.049488,-0.038981,,,,,,,,,,,,,,,,,,,,,,,,,,,,,,,,,,,0.0,0.0,1.0,0.0,512.0,1.0,,,,,,,,,,,,,,,,,,,,,,,,,
34204,1645651556.695885,33.0,0.0,4390.256348,4467.692383,4217.94873,4280.0,4266.666504,0.0,3.0,55.0,,,,0.0,4.0,0.0,1.0,0.0,4.0,8.333333,,,,,,,,,,,,,,,,,,,,,,,,,,,,,,,,,,,,,,,,,,,,,,,,,,,,,,,,,,,,,,,,,,,,,,,,,,,,,,,,,,,,
34205,1645651556.7037039,34.0,0.0,4385.128418,4486.666504,4242.05127,4281.025879,4272.820313,0.0,3.0,55.0,,,,0.0,4.0,0.0,1.0,0.0,4.0,8.333333,,,,,,,,17.0,0.0,0.434488,0.5410159999999999,0.21337899999999999,-0.6877439999999999,0.95314,-0.180179,-0.334966,-0.019921,-0.049471,-0.040845,,,,,,,,,,,,,,,,,,,,,,,,,,,,,,,,,,,,,,,,,,,,,,,,,,,,,,,,,,,,,,,,,
34206,1645651556.711523,35.0,0.0,4392.307617,4529.230957,4267.179688,4282.563965,4252.820313,0.0,3.0,55.0,,,,0.0,4.0,0.0,1.0,0.0,4.0,8.333333,,,,,,,,,,,,,,,,,,,,,,,,,,,,,,,,,,,,,,,,,,,,,,,,,,,,,,,,,,,,,,,,,,,,,,,,,,,,,,,,,,,,
34207,1645651556.719342,36.0,0.0,4379.487305,4570.769043,4301.538574,4282.05127,4246.666504,0.0,3.0,55.0,,,,0.0,4.0,0.0,1.0,0.0,4.0,8.333333,,,,,,,,18.0,0.0,0.434488,0.5410159999999999,0.21337899999999999,-0.6877439999999999,0.932143,-0.182132,-0.320806,-0.020224000000000002,-0.049504,-0.036175,,,,,,,,,,,,,,,,,,,,,,,,,,,,,,,,,,,0.0,0.0,1.0,0.0,512.0,1.0,,,,,,,,,,,,,,,,,,,,,,,,,
34208,1645651556.727061,37.0,0.0,4332.307617,4624.615234000001,4304.102539,4283.589844,4220.512695,0.0,3.0,55.0,,,,0.0,4.0,0.0,1.0,0.0,4.0,8.333333,,,,,,,,,,,,,,,,,,,,,,,,,,,,,,,,,,,,,,,,,,,,,,,,,,,,,,,,,,,,,,,,,,,,,,,,,,,,,,,,,,,,
34209,1645651556.73488,38.0,0.0,4326.153809,4685.641113000001,4333.846191,4283.077147999999,4215.384765999999,0.0,3.0,55.0,,,,0.0,4.0,0.0,1.0,0.0,4.0,8.333333,,,,,,,,19.0,0.0,0.434488,0.5410159999999999,0.21337899999999999,-0.6877439999999999,0.9399559999999999,-0.18115499999999998,-0.32813000000000003,-0.018934,-0.049486,-0.038368,,,,,,,,,,,,,,,,,,,,,,,,,,,,,,,,,,,,,,,,,,,,,,,,,,,,,,,,,,,,,,,,,
34210,1645651556.742698,39.0,0.0,4321.538574,4690.256348,4320.0,4279.487305,4215.897461,0.0,3.0,55.0,,,,0.0,4.0,0.0,1.0,0.0,4.0,8.333333,,,,,,,,,,,,,,,,,,,,,,,,,,,,,,,,,,,,,,,,,,,,,,,,,,,,,,,,,,,,,,,,,,,,,,,,,,,,,,,,,,,,
34211,1645651556.750517,40.0,0.0,4313.846191,4629.743652,4313.333496,4278.461426,4211.282227000001,0.0,3.0,55.0,,,,0.0,4.0,0.0,1.0,0.0,4.0,8.333333,,,,,,,,20.0,0.0,0.434488,0.5410159999999999,0.21337899999999999,-0.6877439999999999,0.947768,-0.176761,-0.33105999999999997,-0.019287000000000002,-0.049518,-0.033993999999999996,1.0,0.0,0.0,,,,,,,,,,,,,,,,,,,,,,,,,,,,,,,,0.0,0.0,1.0,0.0,512.0,1.0,42.04763,29.427761,7.000022,3.0707310000000003,1.32444,408.263214,219.09245299999998,111.54131299999999,54.414124,42.914660999999995,237.307816,156.97081,12.605041,3.164876,1.5416219999999998,0.153319,0.077326,0.030136000000000003,0.030887,0.026936,38.168045,17.598015,7.321795,2.30152,1.553009
34212,1645651556.7583358,41.0,0.0,4297.436035,4572.307617,4301.025879,4282.563965,4210.769043,0.0,3.0,55.0,,,,0.0,4.0,0.0,1.0,0.0,4.0,8.333333,,,,,,,,,,,,,,,,,,,,,,,,,,,,,,,,,,,,,,,,,,,,,,,,,,,,,,,,,,,,,,,,,,,,,,,,,,,,,,,,,,,,
34213,1645651556.766155,42.0,0.0,4288.717772999999,4595.897461,4316.410156,4284.615234000001,4208.205078,0.0,3.0,55.0,,,,0.0,4.0,0.0,1.0,0.0,4.0,8.333333,,,,,,,,21.0,0.0,0.434488,0.5410159999999999,0.21337899999999999,-0.6877439999999999,0.9560690000000001,-0.175296,-0.331548,-0.017456,-0.049498,-0.036405,,,,,,,,,,,,,,,,,,,,,,,,,,,,,,,,,,,,,,,,,,,,,,,,,,,,,,,,,,,,,,,,,
34214,1645651556.773973,43.0,0.0,4315.897461,4710.256348,4284.102539,4283.589844,4228.205078,0.0,3.0,55.0,,,,0.0,4.0,0.0,1.0,0.0,4.0,8.333333,,,,,,,,,,,,,,,,,,,,,,,,,,,,,,,,,,,,,,,,,,,,,,,,,,,,,,,,,,,,,,,,,,,,,,,,,,,,,,,,,,,,
34215,1645651556.781792,44.0,0.0,4325.641113000001,4730.256348,4265.641113000001,4282.563965,4237.436035,0.0,3.0,55.0,,,,0.0,4.0,0.0,1.0,0.0,4.0,8.333333,,,,,,,,22.0,0.0,0.434101,0.5410159999999999,0.21337899999999999,-0.687988,0.9546040000000001,-0.189944,-0.335454,-0.016491,-0.049576999999999996,-0.038575,,,,,,,,,,,,,,,,,,,,,,,,,,,,,,,,,,,0.0,0.0,1.0,0.0,512.0,1.0,,,,,,,,,,,,,,,,,,,,,,,,,
34216,1645651556.7896109,45.0,0.0,4335.897461,4732.307617,4231.282227000001,4284.102539,4250.769043,0.0,3.0,55.0,,,,0.0,4.0,0.0,1.0,0.0,4.0,8.333333,,,,,,,,,,,,,,,,,,,,,,,,,,,,,,,,,,,,,,,,,,,,,,,,,,,,,,,,,,,,,,,,,,,,,,,,,,,,,,,,,,,,
34217,1645651556.7975302,46.0,0.0,4327.179688,4742.05127,4186.666504,4285.641113000001,4243.077147999999,0.0,3.0,55.0,,,,0.0,4.0,0.0,1.0,0.0,4.0,8.333333,,,,,,,,23.0,0.0,0.43436800000000003,0.5410159999999999,0.213623,-0.6877439999999999,0.9399559999999999,-0.176272,-0.32861799999999997,-0.017137,-0.049502,-0.040431,,,,,,,,,,,,,,,,,,,,,,,,,,,,,,,,,,,,,,,,,,,,,,,,,,,,,,,,,,,,,,,,,
34218,1645651556.805349,47.0,0.0,4341.025879,4775.897461,4187.692383,4285.641113000001,4266.666504,0.0,3.0,55.0,,,,0.0,4.0,0.0,1.0,0.0,4.0,8.333333,,,,,,,,,,,,,,,,,,,,,,,,,,,,,,,,,,,,,,,,,,,,,,,,,,,,,,,,,,,,,,,,,,,,,,,,,,,,,,,,,,,,
34219,1645651556.813168,48.0,0.0,4330.256348,4812.820313,4203.077147999999,4282.05127,4293.333496,0.0,3.0,55.0,,,,0.0,4.0,0.0,1.0,0.0,4.0,8.333333,,,,,,,,24.0,0.0,0.434488,0.5410159999999999,0.21337899999999999,-0.6877439999999999,0.9560690000000001,-0.175296,-0.331548,-0.017621,-0.049533,-0.035802,,,,,,,,,,,,,,,,,,,,,,,,,,,,,,,,,,,0.0,0.0,1.0,0.0,512.0,1.0,,,,,,,,,,,,,,,,,,,,,,,,,
34220,1645651556.820987,49.0,0.0,4323.077147999999,4881.538574,4201.538574,4282.563965,4281.538574,0.0,3.0,55.0,,,,0.0,4.0,0.0,1.0,0.0,4.0,8.333333,,,,,,,,,,,,,,,,,,,,,,,,,,,,,,,,,,,,,,,,,,,,,,,,,,,,,,,,,,,,,,,,,,,,,,,,,,,,,,,,,,,,
34221,1645651556.8288062,50.0,0.0,4307.692383,4800.0,4209.230957,4284.102539,4261.538574,0.0,3.0,55.0,,,,0.0,4.0,0.0,1.0,0.0,4.0,8.333333,,,,,,,,25.0,0.0,0.43436800000000003,0.5410159999999999,0.213623,-0.6877439999999999,0.9399559999999999,-0.176272,-0.32861799999999997,-0.018154,-0.049462,-0.037935,,,,,,,,,,,,,,,,,,,,,,,,,,,,,,,,,,,,,,,,,,,,,,,,,,,,,,,,,,,,,,,,,
34222,1645651556.836626,51.0,0.0,4314.871582,4710.769043,4245.128418,4283.589844,4297.436035,0.0,3.0,55.0,,,,0.0,4.0,0.0,1.0,0.0,4.0,8.333333,,,,,,,,,,,,,,,,,,,,,,,,,,,,,,,,,,,,,,,,,,,,,,,,,,,,,,,,,,,,,,,,,,,,,,,,,,,,,,,,,,,,
34223,1645651556.844445,52.0,0.0,4329.230957,4815.384765999999,4253.333496,4283.589844,4297.436035,0.0,3.0,55.0,,,,0.0,4.0,0.0,1.0,0.0,4.0,8.333333,,,,,,,,26.0,0.0,0.43436800000000003,0.5410159999999999,0.213623,-0.6877439999999999,0.932143,-0.179202,-0.324712,-0.018536,-0.049497,-0.033555,,,,,,,,,,,,,,,,,,,,,,,,,,,,,,,,,,,0.0,0.0,1.0,0.0,512.0,1.0,,,,,,,,,,,,,,,,,,,,,,,,,
34224,1645651556.8522642,53.0,0.0,4329.230957,4818.974121,4281.538574,4284.615234000001,4303.077147999999,0.0,3.0,55.0,,,,0.0,4.0,0.0,1.0,0.0,4.0,8.333333,,,,,,,,,,,,,,,,,,,,,,,,,,,,,,,,,,,,,,,,,,,,,,,,,,,,,,,,,,,,,,,,,,,,,,,,,,,,,,,,,,,,
34225,1645651556.860184,54.0,0.0,4317.94873,4814.358886999999,4275.897461,4283.077147999999,4305.128418,0.0,3.0,55.0,,,,0.0,4.0,0.0,1.0,0.0,4.0,8.333333,,,,,,,,27.0,0.0,0.43436800000000003,0.5410159999999999,0.213623,-0.6877439999999999,0.947768,-0.18115499999999998,-0.34229,-0.018879,-0.049527,-0.035961,,,,,,,,,,,,,,,,,,,,,,,,,,,,,,,,,,,,,,,,,,,,,,,,,,,,,,,,,,,,,,,,,
34226,1645651556.8680038,55.0,0.0,4344.102539,4803.589844,4256.922852000001,4282.05127,4283.077147999999,0.0,3.0,55.0,,,,0.0,4.0,0.0,1.0,0.0,4.0,8.333333,,,,,,,,,,,,,,,,,,,,,,,,,,,,,,,,,,,,,,,,,,,,,,,,,,,,,,,,,,,,,,,,,,,,,,,,,,,,,,,,,,,,
34227,1645651556.875824,56.0,0.0,4346.666504,4750.769043,4237.436035,4279.487305,4262.563965,0.0,3.0,55.0,,,,0.0,4.0,0.0,1.0,0.0,4.0,8.333333,,,,,,,,28.0,0.0,0.43436800000000003,0.5410159999999999,0.213623,-0.6877439999999999,0.947768,-0.177249,-0.327153,-0.017675,-0.049604,-0.038078,1.0,0.0,0.0,,,,,,,,,,,,,,,,,,,,,,,,,,,,,,,,0.0,0.0,1.0,0.0,128.0,0.788588,39.966507,21.295348999999998,5.374837,2.985904,1.418811,435.658142,152.61312900000001,103.447701,49.067646,45.376446,239.56562799999998,147.980072,12.121872999999999,2.5698819999999998,1.530341,0.15695599999999998,0.059387999999999996,0.029063,0.034422,0.030769,46.394329,18.964037,7.18463,2.266484,1.4957639999999999
34228,1645651556.883643,57.0,0.0,4328.717772999999,4660.0,4255.384765999999,4275.384765999999,4250.256348,0.0,3.0,55.0,,,,0.0,4.0,0.0,1.0,0.0,4.0,8.333333,,,,,,,,,,,,,,,,,,,,,,,,,,,,,,,,,,,,,,,,,,,,,,,,,,,,,,,,,,,,,,,,,,,,,,,,,,,,,,,,,,,,
34229,1645651556.891362,58.0,0.0,4327.179688,4675.384765999999,4229.743652,4276.922852000001,4243.589844,0.0,3.0,55.0,,,,0.0,4.0,0.0,1.0,0.0,4.0,8.333333,,,,,,,,29.0,0.0,0.434754,0.5410159999999999,0.213623,-0.6875,0.953628,-0.170901,-0.327153,-0.018154,-0.049575,-0.04013,,,,,,,,,,,,,,,,,,,,,,,,,,,,,,,,,,,,,,,,,,,,,,,,,,,,,,,,,,,,,,,,,
34230,1645651556.8991802,59.0,0.0,4340.512695,4725.128418,4237.436035,4281.025879,4251.794922,0.0,3.0,55.0,,,,0.0,4.0,0.0,1.0,0.0,4.0,8.333333,,,,,,,,,,,,,,,,,,,,,,,,,,,,,,,,,,,,,,,,,,,,,,,,,,,,,,,,,,,,,,,,,,,,,,,,,,,,,,,,,,,,
34231,1645651556.9069982,60.0,0.0,4380.0,4651.282227000001,4224.102539,4278.974121,4266.153809,0.0,3.0,55.0,,,,0.0,4.0,0.0,1.0,0.0,4.0,8.333333,,,,,,,,30.0,0.0,0.43513999999999997,0.5410159999999999,0.213623,-0.6872560000000001,0.938003,-0.193851,-0.322759,-0.018584,-0.049500999999999996,-0.041928,,,,,,,,,,,,,,,,,,,,,,,,,,,,,,,,,,,0.0,0.0,1.0,0.0,128.0,0.788588,,,,,,,,,,,,,,,,,,,,,,,,,
34232,1645651556.914816,61.0,0.0,4371.794922,4682.05127,4187.179688,4276.922852000001,4233.333496,0.0,3.0,55.0,,,,0.0,4.0,0.0,1.0,0.0,4.0,8.333333,,,,,,,,,,,,,,,,,,,,,,,,,,,,,,,,,,,,,,,,,,,,,,,,,,,,,,,,,,,,,,,,,,,,,,,,,,,,,,,,,,,,
34233,1645651556.922635,62.0,0.0,4368.717772999999,4594.358886999999,4200.0,4277.94873,4227.692383,0.0,3.0,55.0,,,,0.0,4.0,0.0,1.0,0.0,4.0,8.333333,,,,,,,,31.0,0.0,0.43513999999999997,0.5410159999999999,0.213623,-0.6872560000000001,0.9282370000000001,-0.175784,-0.310552,-0.016775,-0.04958,-0.043448,,,,,,,,,,,,,,,,,,,,,,,,,,,,,,,,,,,,,,,,,,,,,,,,,,,,,,,,,,,,,,,,,
34234,1645651556.9304528,63.0,0.0,4370.256348,4505.128418,4233.333496,4277.436035,4241.538574,0.0,3.0,55.0,,,,0.0,4.0,0.0,1.0,0.0,4.0,8.333333,,,,,,,,,,,,,,,,,,,,,,,,,,,,,,,,,,,,,,,,,,,,,,,,,,,,,,,,,,,,,,,,,,,,,,,,,,,,,,,,,,,,
34235,1645651556.938271,64.0,0.0,4374.358886999999,4489.743652,4252.307617,4279.487305,4248.717772999999,450.0,3.0,55.0,,,,0.0,4.0,0.0,1.0,0.0,4.0,8.333333,,,,,,,,32.0,0.0,0.43483599999999994,0.5412600000000001,0.213623,-0.6872560000000001,0.9423969999999999,-0.184085,-0.32910700000000004,-0.017343,-0.049749,-0.044913999999999996,,,,,,,,,,,,,,,,,,,,,,,,,,,,,,,,,,,0.0,0.0,1.0,0.0,128.0,0.788588,,,,,,,,,,,,,,,,,,,,,,,,,
34236,1645651556.94599,65.0,0.0,4344.102539,4440.0,4259.487305,4277.94873,4247.179688,450.0,3.0,55.0,,,,0.0,4.0,2.0,2.0,0.0,4.0,33.333332,,,,,,,,,,,,,,,,,,,,,,,,,,,,,,,,,,,,,,,,,,,,,,,,,,,,,,,,,,,,,,,,,,,,,,,,,,,,,,,,,,,,
34237,1645651556.953809,66.0,0.0,4325.128418,4498.461426,4265.128418,4276.410156,4241.538574,16219.0,3.0,55.0,,,,0.0,4.0,2.0,2.0,0.0,4.0,33.333332,,,,,,,,33.0,0.0,0.43513999999999997,0.5410159999999999,0.213623,-0.6872560000000001,0.94435,-0.179202,-0.325689,-0.016244,-0.049706,-0.046135,,,,,,,,,,,,,,,,,,,,,,,,,,,,,,,,,,,,,,,,,,,,,,,,,,,,,,,,,,,,,,,,,
34238,1645651556.961627,67.0,0.0,4320.512695,4608.717772999999,4257.94873,4280.0,4236.922852000001,450.0,3.0,55.0,,,,0.0,4.0,2.0,2.0,0.0,4.0,33.333332,,,,,,,,,,,,,,,,,,,,,,,,,,,,,,,,,,,,,,,,,,,,,,,,,,,,,,,,,,,,,,,,,,,,,,,,,,,,,,,,,,,,
34239,1645651556.9694462,68.0,0.0,4328.717772999999,4717.94873,4292.820313,4284.102539,4282.563965,178.0,3.0,55.0,,,,0.0,4.0,2.0,2.0,0.0,4.0,33.333332,,,,,,,,34.0,0.0,0.43483599999999994,0.5412600000000001,0.213623,-0.6872560000000001,0.936049,-0.184085,-0.314946,-0.017012,-0.049667,-0.047284,,,,,,,,,,,,,,,,,,,,,,,,,,,,,,,,,,,0.0,0.0,1.0,0.0,128.0,0.788588,,,,,,,,,,,,,,,,,,,,,,,,,
34240,1645651556.9772651,69.0,0.0,4325.128418,4668.717772999999,4304.615234000001,4283.077147999999,4265.128418,450.0,3.0,55.0,,,,0.0,4.0,2.0,2.0,0.0,4.0,33.333332,,,,,,,,,,,,,,,,,,,,,,,,,,,,,,,,,,,,,,,,,,,,,,,,,,,,,,,,,,,,,,,,,,,,,,,,,,,,,,,,,,,,
34241,1645651556.985083,70.0,0.0,4294.358886999999,4704.102539,4309.230957,4281.025879,4260.512695,223.0,3.0,55.0,,,,0.0,4.0,2.0,2.0,0.0,4.0,33.333332,,,,,,,,35.0,0.0,0.43483599999999994,0.5412600000000001,0.213623,-0.6872560000000001,0.9399559999999999,-0.174319,-0.325689,-0.016092,-0.049582999999999995,-0.042018,,,,,,,,,,,,,,,,,,,,,,,,,,,,,,,,,,,,,,,,,,,,,,,,,,,,,,,,,,,,,,,,,
34242,1645651556.992902,71.0,0.0,4273.333496,4864.102539,4288.205078,4284.102539,4273.333496,450.0,3.0,55.0,,,,0.0,4.0,2.0,2.0,0.0,4.0,33.333332,,,,,,,,,,,,,,,,,,,,,,,,,,,,,,,,,,,,,,,,,,,,,,,,,,,,,,,,,,,,,,,,,,,,,,,,,,,,,,,,,,,,
34243,1645651557.000721,72.0,0.0,4328.205078,4786.666504,4258.974121,4287.179688,4257.94873,450.0,3.0,55.0,,,,0.0,4.0,2.0,2.0,0.0,4.0,33.333332,0.96875,8.333333,2.0,0.0,1.0,0.0,2.0,36.0,0.0,0.43483599999999994,0.5412600000000001,0.213623,-0.6872560000000001,0.945815,-0.166506,-0.33105999999999997,-0.015118000000000001,-0.049654000000000004,-0.043627,1.0,0.0,0.0,,,,,,,,,,,,,,,,,,,,,,,,,,,,,,,,0.0,0.0,1.0,0.0,128.0,0.709088,35.865967,15.516566000000001,3.767124,2.962486,1.5656860000000001,443.83721900000006,103.309784,90.586166,45.198986,46.859035,233.134308,149.088165,10.73382,2.062455,1.48869,0.153588,0.051834000000000005,0.028387,0.036816,0.034364,50.91814,20.511260999999998,6.325901999999999,2.194195,1.475322
34244,1645651557.008539,73.0,0.0,4359.487305,4600.0,4231.794922,4282.563965,4249.743652,0.0,3.0,55.0,,,,0.0,4.0,2.0,2.0,0.0,4.0,33.333332,,,,,,,,,,,,,,,,,,,,,,,,,,,,,,,,,,,,,,,,,,,,,,,,,,,,,,,,,,,,,,,,,,,,,,,,,,,,,,,,,,,,
34245,1645651557.016458,74.0,0.0,4360.512695,4540.0,4251.794922,4278.461426,4265.641113000001,450.0,3.0,55.0,,,,0.0,4.0,2.0,2.0,0.0,4.0,33.333332,,,,,,,,37.0,0.0,0.43503800000000004,0.541504,0.21337899999999999,-0.687012,0.9404440000000001,-0.170413,-0.325689,-0.015901,-0.049572000000000005,-0.044927999999999996,,,,,,,,,,,,,,,,,,,,,,,,,,,,,,,,,,,,,,,,,,,,,,,,,,,,,,,,,,,,,,,,,
34246,1645651557.024277,75.0,0.0,4358.974121,4718.461426,4216.922852000001,4278.461426,4270.769043,16191.0,3.0,55.0,,,,0.0,4.0,2.0,2.0,0.0,4.0,33.333332,,,,,,,,,,,,,,,,,,,,,,,,,,,,,,,,,,,,,,,,,,,,,,,,,,,,,,,,,,,,,,,,,,,,,,,,,,,,,,,,,,,,
34247,1645651557.0320961,76.0,0.0,4340.0,4760.0,4197.436035,4280.0,4251.794922,450.0,3.0,55.0,,,,0.0,4.0,2.0,2.0,0.0,4.0,33.333332,,,,,,,,38.0,0.0,0.43523900000000004,0.541748,0.213135,-0.686768,0.947768,-0.18262,-0.32959499999999997,-0.016557,-0.049497,-0.039898,,,,,,,,,,,,,,,,,,,,,,,,,,,,,,,,,,,0.0,0.0,1.0,0.0,128.0,0.709088,,,,,,,,,,,,,,,,,,,,,,,,,
34248,1645651557.039915,77.0,0.0,4351.282227000001,4688.717772999999,4174.871582,4279.487305,4289.230957,450.0,3.0,55.0,,,,0.0,4.0,2.0,2.0,0.0,4.0,33.333332,,,,,,,,,,,,,,,,,,,,,,,,,,,,,,,,,,,,,,,,,,,,,,,,,,,,,,,,,,,,,,,,,,,,,,,,,,,,,,,,,,,,
34249,1645651557.047734,78.0,0.0,4380.0,4724.102539,4150.256348,4278.461426,4315.384765999999,450.0,3.0,55.0,,,,0.0,4.0,2.0,2.0,0.0,4.0,33.333332,,,,,,,,39.0,0.0,0.43555900000000003,0.541992,0.212646,-0.686523,0.9399559999999999,-0.184085,-0.344244,-0.015634000000000002,-0.049527999999999996,-0.04167,,,,,,,,,,,,,,,,,,,,,,,,,,,,,,,,,,,,,,,,,,,,,,,,,,,,,,,,,,,,,,,,,
34250,1645651557.055553,79.0,0.0,4446.666504,4724.102539,4164.615234000001,4279.487305,4352.307617,16191.0,3.0,55.0,,,,0.0,4.0,2.0,2.0,0.0,4.0,33.333332,,,,,,,,,,,,,,,,,,,,,,,,,,,,,,,,,,,,,,,,,,,,,,,,,,,,,,,,,,,,,,,,,,,,,,,,,,,,,,,,,,,,
34251,1645651557.0633721,80.0,0.0,4491.282227000001,4778.974121,4172.307617,4284.615234000001,4412.307617,450.0,3.0,55.0,,,,0.0,4.0,2.0,2.0,0.0,4.0,33.333332,,,,,,,,40.0,0.0,0.43557399999999996,0.5424800000000001,0.21215799999999999,-0.686279,0.949233,-0.191409,-0.323247,-0.016316,-0.049556,-0.043216000000000004,,,,,,,,,,,,,,,,,,,,,,,,,,,,,,,,,,,0.0,0.0,1.0,0.0,128.0,0.709088,,,,,,,,,,,,,,,,,,,,,,,,,
34252,1645651557.071191,81.0,0.0,4623.589844,4784.102539,4165.641113000001,4290.256348,4451.282227000001,450.0,3.0,55.0,,,,0.0,4.0,2.0,2.0,0.0,4.0,33.333332,,,,,,,,,,,,,,,,,,,,,,,,,,,,,,,,,,,,,,,,,,,,,,,,,,,,,,,,,,,,,,,,,,,,,,,,,,,,,,,,,,,,
34253,1645651557.07911,82.0,0.0,4762.05127,4628.205078,4201.538574,4288.717772999999,4446.666504,450.0,3.0,55.0,,,,0.0,4.0,2.0,2.0,0.0,4.0,33.333332,,,,,,,,41.0,0.0,0.43577299999999997,0.542725,0.211914,-0.6860350000000001,0.948257,-0.191897,-0.333989,-0.015271000000000002,-0.049581,-0.038357999999999996,,,,,,,,,,,,,,,,,,,,,,,,,,,,,,,,,,,,,,,,,,,,,,,,,,,,,,,,,,,,,,,,,
34254,1645651557.08693,83.0,0.0,5118.461426,4481.538574,4289.743652,4294.871582,4473.333496,16191.0,3.0,55.0,,,,0.0,4.0,2.0,2.0,0.0,4.0,33.333332,,,,,,,,,,,,,,,,,,,,,,,,,,,,,,,,,,,,,,,,,,,,,,,,,,,,,,,,,,,,,,,,,,,,,,,,,,,,,,,,,,,,
34255,1645651557.09475,84.0,0.0,5631.794922,4577.94873,4307.179688,4311.794922,4532.820313,450.0,3.0,55.0,,,,0.0,4.0,2.0,2.0,0.0,4.0,33.333332,,,,,,,,42.0,0.0,0.43569300000000005,0.5424800000000001,0.211914,-0.686279,0.9272600000000001,-0.198734,-0.326177,-0.01599,-0.049602999999999994,-0.033985,,,,,,,,,,,,,,,,,,,,,,,,,,,,,,,,,,,0.0,0.0,1.0,0.0,128.0,0.709088,,,,,,,,,,,,,,,,,,,,,,,,,
34256,1645651557.1025689,85.0,0.0,6106.153809,4756.922852000001,4314.871582,4321.538574,4630.769043,450.0,3.0,55.0,,,,0.0,4.0,2.0,2.0,0.0,4.0,33.333332,,,,,,,,,,,,,,,,,,,,,,,,,,,,,,,,,,,,,,,,,,,,,,,,,,,,,,,,,,,,,,,,,,,,,,,,,,,,,,,,,,,,
34257,1645651557.110389,86.0,0.0,6657.94873,4667.179688,4333.846191,4333.333496,4666.666504,450.0,3.0,55.0,,,,0.0,4.0,2.0,2.0,0.0,4.0,33.333332,,,,,,,,43.0,0.0,0.435612,0.5422359999999999,0.211914,-0.686523,0.9316549999999999,-0.190921,-0.309575,-0.016637,-0.049624,-0.03,,,,,,,,,,,,,,,,,,,,,,,,,,,,,,,,,,,,,,,,,,,,,,,,,,,,,,,,,,,,,,,,,
34258,1645651557.118209,87.0,0.0,6971.794922,4539.487305,4367.179688,4350.769043,4640.512695,16191.0,3.0,55.0,,,,0.0,4.0,2.0,2.0,0.0,4.0,33.333332,,,,,,,,,,,,,,,,,,,,,,,,,,,,,,,,,,,,,,,,,,,,,,,,,,,,,,,,,,,,,,,,,,,,,,,,,,,,,,,,,,,,
34259,1645651557.1260278,88.0,0.0,7201.538573999999,4550.769043,4353.333496,4361.538574,4613.846191,450.0,3.0,55.0,,,,0.0,4.0,2.0,2.0,0.0,4.0,33.333332,,,,,,,,44.0,0.0,0.435108,0.5422359999999999,0.21215799999999999,-0.686768,0.949233,-0.164553,-0.326665,-0.015657,-0.049739,-0.032811,1.0,0.0,0.0,,,,,,,,,,,,,,,,,,,,,,,,,,,,,,,,0.0,0.0,1.0,0.0,128.0,0.353077,31.087439,12.309216000000001,2.554503,2.9434139999999998,1.71915,448.557709,79.046059,76.35112,43.045254,46.537727000000004,217.728958,153.974319,8.808072,1.746259,1.415374,0.144761,0.049966,0.028426999999999997,0.037916000000000005,0.036594,51.039371,21.813357999999997,5.023071,2.074664,1.465357
34260,1645651557.133848,89.0,0.0,7285.128418000001,4689.743652,4348.717772999999,4361.538574,4643.077147999999,450.0,3.0,55.0,,,,0.0,4.0,2.0,2.0,0.0,4.0,33.333332,,,,,,,,,,,,,,,,,,,,,,,,,,,,,,,,,,,,,,,,,,,,,,,,,,,,,,,,,,,,,,,,,,,,,,,,,,,,,,,,,,,,
34261,1645651557.141668,90.0,0.0,7257.436035,4756.410156,4314.358886999999,4362.05127,4642.05127,450.0,3.0,55.0,,,,0.0,4.0,2.0,2.0,0.0,4.0,33.333332,,,,,,,,45.0,0.0,0.434788,0.541992,0.212646,-0.687012,0.941421,-0.17383099999999999,-0.322759,-0.01624,-0.049795,-0.035243000000000003,,,,,,,,,,,,,,,,,,,,,,,,,,,,,,,,,,,,,,,,,,,,,,,,,,,,,,,,,,,,,,,,,
34262,1645651557.149587,91.0,0.0,7108.717773,4610.256348,4278.461426,4359.487305,4569.230957,16191.0,3.0,55.0,,,,0.0,4.0,2.0,2.0,0.0,4.0,33.333332,,,,,,,,,,,,,,,,,,,,,,,,,,,,,,,,,,,,,,,,,,,,,,,,,,,,,,,,,,,,,,,,,,,,,,,,,,,,,,,,,,,,
34263,1645651557.157407,92.0,0.0,6960.0,4510.769043,4217.436035,4349.230957,4527.692383,450.0,3.0,55.0,,,,0.0,4.0,2.0,2.0,0.0,4.0,33.333332,,,,,,,,46.0,0.0,0.434853,0.541748,0.213135,-0.687012,0.948257,-0.180667,-0.334478,-0.016862000000000002,-0.049796,-0.03748,,,,,,,,,,,,,,,,,,,,,,,,,,,,,,,,,,,0.0,0.0,1.0,0.0,128.0,0.353077,,,,,,,,,,,,,,,,,,,,,,,,,
34264,1645651557.165227,93.0,0.0,6796.922852,4655.897461,4168.717772999999,4343.589844,4490.769043,450.0,3.0,55.0,,,,0.0,4.0,2.0,2.0,0.0,4.0,33.333332,,,,,,,,,,,,,,,,,,,,,,,,,,,,,,,,,,,,,,,,,,,,,,,,,,,,,,,,,,,,,,,,,,,,,,,,,,,,,,,,,,,,
34265,1645651557.173047,94.0,0.0,6501.025879,4708.205078,4113.333496,4337.436035,4465.641113000001,450.0,3.0,55.0,,,,0.0,4.0,2.0,2.0,0.0,4.0,33.333332,,,,,,,,47.0,0.0,0.43465200000000004,0.541504,0.21337899999999999,-0.6872560000000001,0.937514,-0.176272,-0.3252,-0.015762,-0.049748,-0.039494,,,,,,,,,,,,,,,,,,,,,,,,,,,,,,,,,,,,,,,,,,,,,,,,,,,,,,,,,,,,,,,,,
34266,1645651557.180867,95.0,0.0,6261.025879,4555.384765999999,4133.846191,4325.128418,4447.179688,16191.0,3.0,55.0,,,,0.0,4.0,2.0,2.0,0.0,4.0,33.333332,,,,,,,,,,,,,,,,,,,,,,,,,,,,,,,,,,,,,,,,,,,,,,,,,,,,,,,,,,,,,,,,,,,,,,,,,,,,,,,,,,,,
34267,1645651557.1886868,96.0,0.0,5945.128418,4530.256348,4238.974121,4316.922852000001,4418.461426,450.0,3.0,55.0,,,,0.0,4.0,2.0,2.0,0.0,4.0,33.333332,,,,,,,,48.0,0.0,0.434532,0.541504,0.213623,-0.6872560000000001,0.937514,-0.172854,-0.3252,-0.014234,-0.049705,-0.041355,,,,,,,,,,,,,,,,,,,,,,,,,,,,,,,,,,,0.0,0.0,1.0,0.0,128.0,0.353077,,,,,,,,,,,,,,,,,,,,,,,,,
34268,1645651557.196507,97.0,0.0,5661.538574,4614.871582,4257.94873,4313.333496,4352.820313,450.0,3.0,55.0,,,,0.0,4.0,2.0,2.0,0.0,4.0,33.333332,,,,,,,,,,,,,,,,,,,,,,,,,,,,,,,,,,,,,,,,,,,,,,,,,,,,,,,,,,,,,,,,,,,,,,,,,,,,,,,,,,,,
34269,1645651557.2043269,98.0,0.0,5398.461426,4614.358886999999,4251.282227000001,4309.230957,4338.461426,450.0,3.0,55.0,,,,0.0,4.0,2.0,2.0,0.0,4.0,33.333332,,,,,,,,49.0,0.0,0.434716,0.5412600000000001,0.213867,-0.6872560000000001,0.939467,-0.17969000000000002,-0.32227100000000003,-0.015106,-0.049569,-0.043079,,,,,,,,,,,,,,,,,,,,,,,,,,,,,,,,,,,,,,,,,,,,,,,,,,,,,,,,,,,,,,,,,
34270,1645651557.212147,99.0,0.0,5110.256348,4584.615234000001,4287.692383,4298.974121,4346.666504,16191.0,3.0,55.0,,,,0.0,4.0,2.0,2.0,0.0,4.0,33.333332,,,,,,,,,,,,,,,,,,,,,,,,,,,,,,,,,,,,,,,,,,,,,,,,,,,,,,,,,,,,,,,,,,,,,,,,,,,,,,,,,,,,
34271,1645651557.219966,100.0,0.0,4974.358886999999,4600.0,4290.769043,4295.384765999999,4324.615234000001,450.0,3.0,55.0,,,,0.0,4.0,2.0,2.0,0.0,4.0,33.333332,,,,,,,,50.0,0.0,0.434596,0.5412600000000001,0.21411100000000002,-0.6872560000000001,0.941421,-0.177249,-0.333989,-0.015792,-0.049446,-0.044532999999999996,,,,,,,,,,,,,,,,,,,,,,,,,,,,,,,,,,,0.0,0.0,1.0,0.0,128.0,0.353077,,,,,,,,,,,,,,,,,,,,,,,,,
34272,1645651557.2277858,101.0,0.0,4730.769043,4681.538574,4231.794922,4293.846191,4295.384765999999,450.0,3.0,55.0,,,,0.0,4.0,2.0,2.0,0.0,4.0,33.333332,,,,,,,,,,,,,,,,,,,,,,,,,,,,,,,,,,,,,,,,,,,,,,,,,,,,,,,,,,,,,,,,,,,,,,,,,,,,,,,,,,,,
34273,1645651557.235505,102.0,0.0,4569.230957,4654.358886999999,4284.102539,4294.871582,4306.666504,450.0,3.0,55.0,,,,0.0,4.0,2.0,2.0,0.0,4.0,33.333332,,,,,,,,51.0,0.0,0.434596,0.5412600000000001,0.21411100000000002,-0.6872560000000001,0.939467,-0.174807,-0.327153,-0.016508000000000002,-0.049482,-0.039592,,,,,,,,,,,,,,,,,,,,,,,,,,,,,,,,,,,,,,,,,,,,,,,,,,,,,,,,,,,,,,,,,
34274,1645651557.243324,103.0,0.0,4471.794922,4536.410156,4339.487305,4292.307617,4266.153809,16191.0,3.0,55.0,,,,0.0,4.0,2.0,2.0,0.0,4.0,33.333332,,,,,,,,,,,,,,,,,,,,,,,,,,,,,,,,,,,,,,,,,,,,,,,,,,,,,,,,,,,,,,,,,,,,,,,,,,,,,,,,,,,,
34275,1645651557.251143,104.0,0.0,4416.410156,4571.794922,4346.666504,4287.179688,4247.179688,450.0,3.0,55.0,,,,0.0,4.0,2.0,2.0,0.0,4.0,33.333332,,,,,,,,52.0,0.0,0.434716,0.5412600000000001,0.213867,-0.6872560000000001,0.939467,-0.17969000000000002,-0.32227100000000003,-0.015639,-0.049416,-0.041394,1.0,0.0,0.0,,,,,,,,,,,,,,,,,,,,,,,,,,,,,,,,0.0,0.0,1.0,0.0,128.0,0.255384,45.903209999999994,12.499005,2.080775,2.891941,1.835284,463.153992,76.51778399999999,64.115913,42.262966,44.309643,195.916672,157.76556399999998,6.797121000000001,1.6499709999999999,1.321192,0.136704,0.047592,0.030194,0.037594999999999996,0.036925,48.483719,22.393484,3.624965,1.931301,1.4460110000000002
34276,1645651557.258961,105.0,0.0,4308.205078,4514.358886999999,4351.282227000001,4286.666504,4251.794922,450.0,3.0,55.0,,,,0.0,4.0,2.0,2.0,0.0,4.0,33.333332,,,,,,,,,,,,,,,,,,,,,,,,,,,,,,,,,,,,,,,,,,,,,,,,,,,,,,,,,,,,,,,,,,,,,,,,,,,,,,,,,,,,
34277,1645651557.2667801,106.0,0.0,4253.846191,4421.538574,4340.0,4286.153809,4236.922852000001,450.0,3.0,55.0,,,,0.0,4.0,2.0,2.0,0.0,4.0,33.333332,,,,,,,,53.0,0.0,0.434596,0.5412600000000001,0.21411100000000002,-0.6872560000000001,0.939467,-0.174807,-0.327153,-0.01637,-0.049455,-0.036766,,,,,,,,,,,,,,,,,,,,,,,,,,,,,,,,,,,,,,,,,,,,,,,,,,,,,,,,,,,,,,,,,
34278,1645651557.274599,107.0,0.0,4214.358886999999,4668.205078,4246.666504,4285.641113000001,4206.153809,16191.0,3.0,55.0,,,,0.0,4.0,2.0,2.0,0.0,4.0,33.333332,,,,,,,,,,,,,,,,,,,,,,,,,,,,,,,,,,,,,,,,,,,,,,,,,,,,,,,,,,,,,,,,,,,,,,,,,,,,,,,,,,,,
34279,1645651557.282417,108.0,0.0,4157.436035,4720.512695,4218.461426,4286.153809,4161.025879,450.0,3.0,55.0,,,,0.0,4.0,2.0,2.0,0.0,4.0,33.333332,,,,,,,,54.0,0.0,0.434716,0.5412600000000001,0.213867,-0.6872560000000001,0.9463030000000001,-0.160159,-0.332525,-0.016978999999999998,-0.049393,-0.032699,,,,,,,,,,,,,,,,,,,,,,,,,,,,,,,,,,,0.0,0.0,1.0,0.0,128.0,0.255384,,,,,,,,,,,,,,,,,,,,,,,,,
34280,1645651557.290236,109.0,0.0,4167.179688,4490.256348,4210.256348,4283.589844,4190.769043,450.0,3.0,55.0,,,,0.0,4.0,2.0,2.0,0.0,4.0,33.333332,,,,,,,,,,,,,,,,,,,,,,,,,,,,,,,,,,,,,,,,,,,,,,,,,,,,,,,,,,,,,,,,,,,,,,,,,,,,,,,,,,,,
34281,1645651557.298156,110.0,0.0,4096.922852000001,4725.128418,4192.820313,4281.538574,4246.666504,450.0,3.0,55.0,,,,0.0,4.0,2.0,2.0,0.0,4.0,33.333332,,,,,,,,55.0,0.0,0.43441199999999996,0.541504,0.213867,-0.6872560000000001,0.9423969999999999,-0.16894800000000001,-0.33105999999999997,-0.015965,-0.049532,-0.03524,,,,,,,,,,,,,,,,,,,,,,,,,,,,,,,,,,,,,,,,,,,,,,,,,,,,,,,,,,,,,,,,,
34282,1645651557.305975,111.0,0.0,4050.256348,4866.153809,4233.333496,4284.615234000001,4237.436035,16191.0,3.0,55.0,,,,0.0,4.0,2.0,2.0,0.0,4.0,33.333332,,,,,,,,,,,,,,,,,,,,,,,,,,,,,,,,,,,,,,,,,,,,,,,,,,,,,,,,,,,,,,,,,,,,,,,,,,,,,,,,,,,,
34283,1645651557.3137949,112.0,0.0,4115.897461,4465.128418,4279.487305,4279.487305,4196.410156,450.0,3.0,55.0,,,,0.0,4.0,2.0,2.0,0.0,4.0,33.333332,,,,,,,,56.0,0.0,0.434918,0.541504,0.213623,-0.687012,0.9389790000000001,-0.170901,-0.33105999999999997,-0.016565,-0.049510000000000005,-0.031276,,,,,,,,,,,,,,,,,,,,,,,,,,,,,,,,,,,0.0,0.0,1.0,0.0,128.0,0.255384,,,,,,,,,,,,,,,,,,,,,,,,,
34284,1645651557.321615,113.0,0.0,4147.179688,4591.282227000001,4233.846191,4273.846191,4260.0,450.0,3.0,55.0,,,,0.0,4.0,2.0,2.0,0.0,4.0,33.333332,,,,,,,,,,,,,,,,,,,,,,,,,,,,,,,,,,,,,,,,,,,,,,,,,,,,,,,,,,,,,,,,,,,,,,,,,,,,,,,,,,,,
34285,1645651557.329434,114.0,0.0,4017.4357909999994,4981.025879,4178.461426,4284.102539,4252.307617,450.0,3.0,55.0,,,,0.0,4.0,2.0,2.0,0.0,4.0,33.333332,,,,,,,,57.0,0.0,0.435119,0.541748,0.21337899999999999,-0.686768,0.949722,-0.17383099999999999,-0.332036,-0.017204,-0.049589,-0.027612,,,,,,,,,,,,,,,,,,,,,,,,,,,,,,,,,,,,,,,,,,,,,,,,,,,,,,,,,,,,,,,,,
34286,1645651557.3372538,115.0,0.0,4013.3332520000004,4668.205078,4218.974121,4290.256348,4194.871582,16191.0,3.0,55.0,,,,0.0,4.0,2.0,2.0,0.0,4.0,33.333332,,,,,,,,,,,,,,,,,,,,,,,,,,,,,,,,,,,,,,,,,,,,,,,,,,,,,,,,,,,,,,,,,,,,,,,,,,,,,,,,,,,,
34287,1645651557.345074,116.0,0.0,4138.461426,4466.666504,4242.05127,4280.0,4241.538574,450.0,3.0,55.0,,,,0.0,4.0,2.0,2.0,0.0,4.0,33.333332,,,,,,,,58.0,0.0,0.435504,0.541748,0.21337899999999999,-0.686523,0.945815,-0.178714,-0.331548,-0.017778,-0.049513,-0.024313,,,,,,,,,,,,,,,,,,,,,,,,,,,,,,,,,,,0.0,0.0,1.0,0.0,128.0,0.255384,,,,,,,,,,,,,,,,,,,,,,,,,
34288,1645651557.3528929,117.0,0.0,4121.025879,4848.717772999999,4278.974121,4275.897461,4275.384765999999,450.0,3.0,55.0,,,,0.0,4.0,2.0,2.0,0.0,4.0,33.333332,,,,,,,,,,,,,,,,,,,,,,,,,,,,,,,,,,,,,,,,,,,,,,,,,,,,,,,,,,,,,,,,,,,,,,,,,,,,,,,,,,,,
34289,1645651557.360713,118.0,0.0,4019.487061,4831.282227000001,4320.512695,4284.102539,4201.025879,450.0,3.0,55.0,,,,0.0,4.0,2.0,2.0,0.0,4.0,33.333332,,,,,,,,59.0,0.0,0.435705,0.541992,0.213135,-0.686279,0.949722,-0.186038,-0.3252,-0.016684,-0.049542,-0.027742000000000003,,,,,,,,,,,,,,,,,,,,,,,,,,,,,,,,,,,,,,,,,,,,,,,,,,,,,,,,,,,,,,,,,
34290,1645651557.368532,119.0,0.0,4065.641113,4490.769043,4332.820313,4286.153809,4214.871582,16191.0,3.0,55.0,,,,0.0,4.0,2.0,2.0,0.0,4.0,33.333332,,,,,,,,,,,,,,,,,,,,,,,,,,,,,,,,,,,,,,,,,,,,,,,,,,,,,,,,,,,,,,,,,,,,,,,,,,,,,,,,,,,,
34291,1645651557.376451,120.0,0.0,4189.230957,4706.153809,4265.128418,4281.538574,4287.179688,450.0,3.0,55.0,,,,0.0,4.0,2.0,2.0,0.0,4.0,33.333332,,,,,,,,60.0,0.0,0.43551999999999996,0.5422359999999999,0.212891,-0.686279,0.937026,-0.189944,-0.32422399999999996,-0.017164,-0.049617,-0.030826999999999997,1.0,0.0,0.0,,,,,,,,,,,,,,,,,,,,,,,,,,,,,,,,0.0,0.0,1.0,0.0,512.0,0.451003,289.626556,34.278835,4.848698000000001,3.071428,1.8960970000000001,490.10400400000003,84.410744,57.255424,42.348372999999995,41.146542,173.02153,158.056061,5.068251999999999,1.754833,1.234534,0.26873600000000003,0.054499,0.035882,0.036101,0.035913,48.585978999999995,21.638248,2.476633,1.829967,1.429818
34292,1645651557.384371,121.0,0.0,4283.589844,4915.384765999999,4245.641113000001,4282.563965,4319.487305,450.0,3.0,55.0,,,,0.0,4.0,2.0,2.0,0.0,4.0,33.333332,,,,,,,,,,,,,,,,,,,,,,,,,,,,,,,,,,,,,,,,,,,,,,,,,,,,,,,,,,,,,,,,,,,,,,,,,,,,,,,,,,,,
34293,1645651557.392191,122.0,0.0,4407.179688,4645.128418,4229.230957,4289.743652,4350.769043,450.0,3.0,55.0,,,,0.0,4.0,2.0,2.0,0.0,4.0,33.333332,,,,,,,,61.0,0.0,0.43551999999999996,0.5422359999999999,0.212891,-0.686279,0.9389790000000001,-0.20068699999999998,-0.331548,-0.017644999999999997,-0.049538,-0.033506,,,,,,,,,,,,,,,,,,,,,,,,,,,,,,,,,,,,,,,,,,,,,,,,,,,,,,,,,,,,,,,,,
34294,1645651557.4000108,123.0,0.0,4590.769043,4576.922852000001,4225.641113000001,4291.794922,4404.102539,16191.0,3.0,55.0,,,,0.0,4.0,2.0,2.0,0.0,4.0,33.333332,,,,,,,,,,,,,,,,,,,,,,,,,,,,,,,,,,,,,,,,,,,,,,,,,,,,,,,,,,,,,,,,,,,,,,,,,,,,,,,,,,,,
34295,1645651557.407831,124.0,0.0,4807.692383,4761.025879,4246.666504,4293.846191,4465.641113000001,450.0,3.0,55.0,,,,0.0,4.0,2.0,2.0,0.0,4.0,33.333332,,,,,,,,62.0,0.0,0.43551999999999996,0.5422359999999999,0.212891,-0.686279,0.9629049999999999,-0.206546,-0.318364,-0.018127,-0.049418000000000004,-0.029716000000000003,,,,,,,,,,,,,,,,,,,,,,,,,,,,,,,,,,,0.0,0.0,1.0,0.0,512.0,0.451003,,,,,,,,,,,,,,,,,,,,,,,,,
34296,1645651557.415651,125.0,0.0,4996.922852000001,4699.487305,4257.436035,4300.0,4491.282227000001,450.0,3.0,55.0,,,,0.0,4.0,2.0,2.0,0.0,4.0,33.333332,,,,,,,,,,,,,,,,,,,,,,,,,,,,,,,,,,,,,,,,,,,,,,,,,,,,,,,,,,,,,,,,,,,,,,,,,,,,,,,,,,,,
34297,1645651557.4234712,126.0,0.0,5178.974121,4626.153809,4193.846191,4304.102539,4514.871582,450.0,3.0,55.0,,,,0.0,4.0,2.0,2.0,0.0,4.0,33.333332,,,,,,,,63.0,0.0,0.435097,0.5424800000000001,0.213135,-0.686279,0.946792,-0.189944,-0.319341,-0.016850999999999998,-0.049457,-0.032555,,,,,,,,,,,,,,,,,,,,,,,,,,,,,,,,,,,,,,,,,,,,,,,,,,,,,,,,,,,,,,,,,
34298,1645651557.4312901,127.0,0.0,5313.846191,4747.179688,4188.717772999999,4303.077147999999,4544.102539,234.0,3.0,55.0,,,,0.0,4.0,2.0,2.0,0.0,4.0,33.333332,,,,,,,,,,,,,,,,,,,,,,,,,,,,,,,,,,,,,,,,,,,,,,,,,,,,,,,,,,,,,,,,,,,,,,,,,,,,,,,,,,,,
34299,1645651557.43911,0.0,0.0,5418.461426,4766.666504,4236.922852000001,4304.615234000001,4578.461426,450.0,3.0,55.0,,,,0.0,4.0,2.0,2.0,0.0,4.0,33.333332,,,,,,,,0.0,0.0,0.43471099999999996,0.5424800000000001,0.213135,-0.686523,0.947768,-0.188968,-0.321294,-0.017461,-0.049492,-0.035061,,,,,,,,,,,,,,,,,,,,,,,,,,,,,,,,,,,0.0,0.0,1.0,0.0,512.0,0.451003,,,,,,,,,,,,,,,,,,,,,,,,,
34300,1645651557.4469302,1.0,0.0,5433.846191,4697.436035,4221.025879,4311.282227000001,4552.820313,450.0,3.0,55.0,,,,0.0,4.0,2.0,2.0,0.0,4.0,33.333332,,,,,,,,,,,,,,,,,,,,,,,,,,,,,,,,,,,,,,,,,,,,,,,,,,,,,,,,,,,,,,,,,,,,,,,,,,,,,,,,,,,,
34301,1645651557.45485,2.0,0.0,5421.538574,4633.333496,4238.461426,4312.820313,4531.282227000001,16203.0,3.0,55.0,,,,0.0,4.0,2.0,1.0,0.0,4.0,25.0,,,,,,,,1.0,0.0,0.43459200000000003,0.5424800000000001,0.21337899999999999,-0.686523,0.944839,-0.18262,-0.325689,-0.018009999999999998,-0.049475,-0.037415,,,,,,,,,,,,,,,,,,,,,,,,,,,,,,,,,,,,,,,,,,,,,,,,,,,,,,,,,,,,,,,,,
34302,1645651557.462669,3.0,0.0,5393.846191,4550.769043,4288.205078,4307.179688,4511.282227000001,450.0,3.0,55.0,,,,0.0,4.0,2.0,1.0,0.0,4.0,25.0,,,,,,,,,,,,,,,,,,,,,,,,,,,,,,,,,,,,,,,,,,,,,,,,,,,,,,,,,,,,,,,,,,,,,,,,,,,,,,,,,,,,
34303,1645651557.470488,4.0,0.0,5359.487305,4592.307617,4336.410156,4304.615234000001,4517.436035,198.0,3.0,55.0,,,,0.0,4.0,2.0,1.0,0.0,4.0,25.0,,,,,,,,2.0,0.0,0.434472,0.5424800000000001,0.213623,-0.686523,0.9472799999999999,-0.194339,-0.327153,-0.018455000000000003,-0.049507999999999996,-0.033136,,,,,,,,,,,,,,,,,,,,,,,,,,,,,,,,,,,0.0,0.0,1.0,0.0,512.0,0.451003,,,,,,,,,,,,,,,,,,,,,,,,,
34304,1645651557.478308,5.0,0.0,5305.641113000001,4710.256348,4356.410156,4306.666504,4538.974121,450.0,3.0,55.0,,,,0.0,4.0,2.0,1.0,0.0,4.0,25.0,,,,,,,,,,,,,,,,,,,,,,,,,,,,,,,,,,,,,,,,,,,,,,,,,,,,,,,,,,,,,,,,,,,,,,,,,,,,,,,,,,,,
34305,1645651557.486127,6.0,0.0,5190.769043,4661.025879,4361.025879,4306.153809,4538.974121,139.0,3.0,55.0,,,,0.0,4.0,2.0,1.0,0.0,4.0,25.0,,,,,,,,3.0,0.0,0.434271,0.5422359999999999,0.213867,-0.686768,0.944839,-0.18115499999999998,-0.323247,-0.018904,-0.049586,-0.029432,,,,,,,,,,,,,,,,,,,,,,,,,,,,,,,,,,,,,,,,,,,,,,,,,,,,,,,,,,,,,,,,,
34306,1645651557.493947,7.0,0.0,5087.692383,4553.333496,4290.256348,4301.538574,4505.641113000001,450.0,3.0,55.0,,,,0.0,4.0,2.0,1.0,0.0,4.0,25.0,,,,,,,,,,,,,,,,,,,,,,,,,,,,,,,,,,,,,,,,,,,,,,,,,,,,,,,,,,,,,,,,,,,,,,,,,,,,,,,,,,,,
34307,1645651557.501766,8.0,0.0,5058.461426,4616.410156,4287.179688,4301.025879,4473.846191,450.0,3.0,55.0,,,,0.0,4.0,2.0,1.0,0.0,4.0,25.0,1.0,0.0,0.0,0.0,1.0,0.0,3.0,4.0,0.0,0.434069,0.541992,0.21411100000000002,-0.687012,0.933608,-0.186038,-0.323735,-0.019358,-0.049657,-0.032202,1.0,0.0,0.0,,,,,,,,,,,,,,,,,,,,,,,,,,,,,,,,0.0,0.0,1.0,0.0,512.0,0.466063,1191.0151369999999,107.48816699999999,14.485204999999999,3.975446,1.9411900000000002,519.01355,90.732063,57.446507,42.841057,39.030704,155.215134,154.47773700000002,3.909933,2.175601,1.204393,0.8768299999999999,0.101979,0.048032,0.033972,0.035013999999999997,58.557877000000005,19.768964999999998,1.765351,1.8576150000000002,1.4696120000000001
34308,1645651557.509585,9.0,0.0,5004.102539,4744.102539,4306.153809,4302.563965,4405.128418,0.0,3.0,55.0,,,,0.0,4.0,2.0,1.0,0.0,4.0,25.0,,,,,,,,,,,,,,,,,,,,,,,,,,,,,,,,,,,,,,,,,,,,,,,,,,,,,,,,,,,,,,,,,,,,,,,,,,,,,,,,,,,,
34309,1645651557.517405,10.0,0.0,4901.025879,4785.641113000001,4291.282227000001,4300.0,4380.512695,450.0,3.0,55.0,,,,0.0,4.0,2.0,1.0,0.0,4.0,25.0,,,,,,,,5.0,0.0,0.433867,0.541748,0.21435500000000002,-0.6872560000000001,0.936049,-0.165042,-0.322759,-0.019717,-0.049672,-0.028444,,,,,,,,,,,,,,,,,,,,,,,,,,,,,,,,,,,,,,,,,,,,,,,,,,,,,,,,,,,,,,,,,
34310,1645651557.525325,11.0,0.0,4794.871582,4717.94873,4260.512695,4297.436035,4417.436035,16178.0,3.0,55.0,,,,0.0,4.0,2.0,1.0,0.0,4.0,25.0,,,,,,,,,,,,,,,,,,,,,,,,,,,,,,,,,,,,,,,,,,,,,,,,,,,,,,,,,,,,,,,,,,,,,,,,,,,,,,,,,,,,
34311,1645651557.533145,12.0,0.0,4695.897461,4553.333496,4289.743652,4294.871582,4383.589844,450.0,3.0,55.0,,,,0.0,4.0,2.0,1.0,0.0,4.0,25.0,,,,,,,,6.0,0.0,0.434051,0.541504,0.2146,-0.6872560000000001,0.9487450000000001,-0.15820599999999999,-0.33350100000000005,-0.019991,-0.049636,-0.025063,,,,,,,,,,,,,,,,,,,,,,,,,,,,,,,,,,,11.0,0.0,1.0,0.0,512.0,0.466063,,,,,,,,,,,,,,,,,,,,,,,,,
34312,1645651557.5409641,13.0,0.0,4575.384765999999,4557.436035,4286.666504,4290.256348,4342.05127,450.0,3.0,55.0,,,,0.0,4.0,2.0,1.0,0.0,4.0,25.0,,,,,,,,,,,,,,,,,,,,,,,,,,,,,,,,,,,,,,,,,,,,,,,,,,,,,,,,,,,,,,,,,,,,,,,,,,,,,,,,,,,,
34313,1645651557.548784,14.0,0.0,4462.05127,4780.0,4266.153809,4288.205078,4334.358886999999,450.0,3.0,55.0,,,,0.0,4.0,2.0,1.0,0.0,4.0,25.0,,,,,,,,7.0,0.0,0.43366400000000005,0.541504,0.2146,-0.6875,0.944839,-0.181643,-0.32959499999999997,-0.020287,-0.049556,-0.028367000000000003,,,,,,,,,,,,,,,,,,,,,,,,,,,,,,,,,,,,,,,,,,,,,,,,,,,,,,,,,,,,,,,,,
34314,1645651557.556604,15.0,0.0,4403.589844,4731.794922,4271.282227000001,4288.717772999999,4318.974121,16178.0,3.0,55.0,,,,0.0,4.0,2.0,1.0,0.0,4.0,25.0,,,,,,,,,,,,,,,,,,,,,,,,,,,,,,,,,,,,,,,,,,,,,,,,,,,,,,,,,,,,,,,,,,,,,,,,,,,,,,,,,,,,
34315,1645651557.564424,16.0,0.0,4314.358886999999,4683.589844,4247.179688,4283.589844,4286.666504,0.0,3.0,55.0,,,,0.0,4.0,2.0,1.0,0.0,4.0,25.0,,,,,,,,8.0,0.0,0.433968,0.5412600000000001,0.2146,-0.6875,0.9423969999999999,-0.18555,-0.322759,-0.018941999999999997,-0.049629,-0.031341,,,,,,,,,,,,,,,,,,,,,,,,,,,,,,,,,,,11.0,0.0,1.0,0.0,512.0,0.466063,,,,,,,,,,,,,,,,,,,,,,,,,
34316,1645651557.572244,17.0,0.0,4221.538574,4852.820313,4230.256348,4281.538574,4301.538574,0.0,3.0,55.0,,,,0.0,4.0,2.0,1.0,0.0,4.0,25.0,,,,,,,,,,,,,,,,,,,,,,,,,,,,,,,,,,,,,,,,,,,,,,,,,,,,,,,,,,,,,,,,,,,,,,,,,,,,,,,,,,,,
34317,1645651557.580064,18.0,0.0,4097.436035,4561.538574,4289.743652,4284.615234000001,4262.05127,0.0,3.0,55.0,,,,0.0,4.0,2.0,1.0,0.0,4.0,25.0,,,,,,,,9.0,0.0,0.433968,0.5412600000000001,0.2146,-0.6875,0.9428850000000001,-0.170413,-0.333013,-0.019392,-0.049549,-0.027767,,,,,,,,,,,,,,,,,,,,,,,,,,,,,,,,,,,,,,,,,,,,,,,,,,,,,,,,,,,,,,,,,
34318,1645651557.587884,19.0,0.0,4016.4101560000004,4260.512695,4302.05127,4282.05127,4245.128418,0.0,3.0,55.0,,,,0.0,4.0,2.0,1.0,0.0,4.0,25.0,,,,,,,,,,,,,,,,,,,,,,,,,,,,,,,,,,,,,,,,,,,,,,,,,,,,,,,,,,,,,,,,,,,,,,,,,,,,,,,,,,,,
34319,1645651557.595803,20.0,0.0,3976.923096,4681.538574,4194.358886999999,4275.897461,4303.589844,0.0,3.0,55.0,,,,0.0,4.0,2.0,1.0,0.0,4.0,25.0,,,,,,,,10.0,0.0,0.433968,0.5412600000000001,0.2146,-0.6875,0.9511860000000001,-0.175784,-0.32910700000000004,-0.019699,-0.049575,-0.030606,,,,,,,,,,,,,,,,,,,,,,,,,,,,,,,,,,,11.0,0.0,1.0,0.0,512.0,0.466063,,,,,,,,,,,,,,,,,,,,,,,,,
34320,1645651557.6036232,21.0,0.0,3906.6667479999996,4953.333496,4230.256348,4275.897461,4299.487305,0.0,3.0,55.0,,,,0.0,4.0,2.0,1.0,0.0,4.0,25.0,,,,,,,,,,,,,,,,,,,,,,,,,,,,,,,,,,,,,,,,,,,,,,,,,,,,,,,,,,,,,,,,,,,,,,,,,,,,,,,,,,,,
34321,1645651557.611443,22.0,0.0,3789.2307130000004,4696.410156,4328.205078,4278.461426,4187.692383,0.0,3.0,55.0,,,,0.0,4.0,2.0,1.0,0.0,4.0,25.0,,,,,,,,11.0,0.0,0.43378500000000003,0.541504,0.21435500000000002,-0.6875,0.9663229999999999,-0.170901,-0.337407,-0.018412,-0.049647000000000004,-0.033356,,,,,,,,,,,,,,,,,,,,,,,,,,,,,,,,,,,,,,,,,,,,,,,,,,,,,,,,,,,,,,,,,
34322,1645651557.619262,23.0,0.0,3787.6923829999996,4663.077147999999,4317.94873,4279.487305,4164.102539,0.0,3.0,55.0,,,,0.0,4.0,2.0,1.0,0.0,4.0,25.0,,,,,,,,,,,,,,,,,,,,,,,,,,,,,,,,,,,,,,,,,,,,,,,,,,,,,,,,,,,,,,,,,,,,,,,,,,,,,,,,,,,,
34323,1645651557.627082,24.0,0.0,3863.076904,4624.615234000001,4273.846191,4278.974121,4184.615234000001,0.0,3.0,55.0,,,,0.0,4.0,2.0,1.0,0.0,4.0,25.0,,,,,,,,12.0,0.0,0.434253,0.541748,0.21435500000000002,-0.687012,0.9487450000000001,-0.171878,-0.32910700000000004,-0.018915,-0.049712,-0.035831,1.0,0.0,0.0,,,,,,,,,,,,,,,,,,,,,,,,,,,,,,,,11.0,0.0,1.0,0.0,512.0,0.403389,3055.467773,241.89006,33.55851,5.976925,2.1319779999999997,529.750183,88.90151999999999,64.5522,43.028362,41.08596,146.158508,148.632706,3.505361,3.22795,1.2924799999999999,2.211998,0.216437,0.067621,0.031972,0.036294,80.300064,17.702618,1.522665,2.063573,1.644038
34324,1645651557.634902,25.0,0.0,3825.641113,4372.820313,4329.743652,4275.897461,4145.128418,0.0,3.0,55.0,,,,0.0,4.0,2.0,1.0,0.0,4.0,25.0,,,,,,,,,,,,,,,,,,,,,,,,,,,,,,,,,,,,,,,,,,,,,,,,,,,,,,,,,,,,,,,,,,,,,,,,,,,,,,,,,,,,
34325,1645651557.6427212,26.0,0.0,3757.9487299999996,4418.974121,4325.641113000001,4271.282227000001,4112.820313,0.0,3.0,55.0,,,,0.0,4.0,2.0,1.0,0.0,4.0,25.0,,,,,,,,13.0,0.0,0.434069,0.541992,0.21411100000000002,-0.687012,0.951675,-0.190433,-0.336431,-0.01927,-0.049623,-0.038058999999999996,,,,,,,,,,,,,,,,,,,,,,,,,,,,,,,,,,,,,,,,,,,,,,,,,,,,,,,,,,,,,,,,,
34326,1645651557.650541,27.0,0.0,3790.7692869999996,4595.897461,4260.512695,4269.230957,4147.692383,0.0,3.0,55.0,,,,0.0,4.0,2.0,1.0,0.0,4.0,25.0,,,,,,,,,,,,,,,,,,,,,,,,,,,,,,,,,,,,,,,,,,,,,,,,,,,,,,,,,,,,,,,,,,,,,,,,,,,,,,,,,,,,
34327,1645651557.658361,28.0,0.0,3828.718018,4593.333496,4209.743652,4270.769043,4174.871582,0.0,3.0,55.0,,,,0.0,4.0,2.0,1.0,0.0,4.0,25.0,,,,,,,,14.0,0.0,0.43418900000000005,0.541992,0.213867,-0.687012,0.947768,-0.20361600000000002,-0.325689,-0.019686000000000002,-0.049641000000000005,-0.040063,,,,,,,,,,,,,,,,,,,,,,,,,,,,,,,,,,,11.0,0.0,1.0,0.0,512.0,0.403389,,,,,,,,,,,,,,,,,,,,,,,,,
34328,1645651557.66628,29.0,0.0,3811.794922,4516.922852000001,4227.692383,4270.256348,4174.358886999999,0.0,3.0,55.0,,,,0.0,4.0,2.0,1.0,0.0,4.0,25.0,,,,,,,,,,,,,,,,,,,,,,,,,,,,,,,,,,,,,,,,,,,,,,,,,,,,,,,,,,,,,,,,,,,,,,,,,,,,,,,,,,,,
34329,1645651557.6741,30.0,0.0,3858.974365,4491.282227000001,4192.307617,4269.743652,4254.358886999999,0.0,3.0,55.0,,,,0.0,4.0,2.0,1.0,0.0,4.0,25.0,,,,,,,,15.0,0.0,0.434253,0.541748,0.21435500000000002,-0.687012,0.9487450000000001,-0.171878,-0.32910700000000004,-0.020013,-0.049658,-0.041819,,,,,,,,,,,,,,,,,,,,,,,,,,,,,,,,,,,,,,,,,,,,,,,,,,,,,,,,,,,,,,,,,
34330,1645651557.6819198,31.0,0.0,3973.8461909999996,4735.897461,4129.743652,4275.384765999999,4323.589844,0.0,3.0,55.0,,,,0.0,4.0,2.0,1.0,0.0,4.0,25.0,,,,,,,,,,,,,,,,,,,,,,,,,,,,,,,,,,,,,,,,,,,,,,,,,,,,,,,,,,,,,,,,,,,,,,,,,,,,,,,,,,,,
34331,1645651557.68974,32.0,0.0,4153.333496,4806.153809,4180.512695,4282.563965,4334.871582,0.0,3.0,55.0,,,,0.0,4.0,2.0,1.0,0.0,4.0,25.0,,,,,,,,16.0,0.0,0.43418900000000005,0.541992,0.213867,-0.687012,0.947768,-0.20361600000000002,-0.325689,-0.020355,-0.049673,-0.043448,,,,,,,,,,,,,,,,,,,,,,,,,,,,,,,,,,,11.0,0.0,1.0,0.0,512.0,0.403389,,,,,,,,,,,,,,,,,,,,,,,,,
34332,1645651557.69756,33.0,0.0,4351.794922,4382.563965,4264.615234000001,4286.153809,4334.871582,0.0,3.0,55.0,,,,0.0,4.0,2.0,1.0,0.0,4.0,25.0,,,,,,,,,,,,,,,,,,,,,,,,,,,,,,,,,,,,,,,,,,,,,,,,,,,,,,,,,,,,,,,,,,,,,,,,,,,,,,,,,,,,
34333,1645651557.70538,34.0,0.0,4581.538574,4288.717772999999,4276.922852000001,4290.256348,4411.282227000001,0.0,3.0,55.0,,,,0.0,4.0,2.0,1.0,0.0,4.0,25.0,,,,,,,,17.0,0.0,0.43418900000000005,0.541992,0.213867,-0.687012,0.95021,-0.192874,-0.334478,-0.020615,-0.049686,-0.044864999999999995,,,,,,,,,,,,,,,,,,,,,,,,,,,,,,,,,,,,,,,,,,,,,,,,,,,,,,,,,,,,,,,,,
34334,1645651557.7132,35.0,0.0,4758.974121,4709.230957,4258.974121,4292.820313,4474.358886999999,0.0,3.0,55.0,,,,0.0,4.0,2.0,1.0,0.0,4.0,25.0,,,,,,,,,,,,,,,,,,,,,,,,,,,,,,,,,,,,,,,,,,,,,,,,,,,,,,,,,,,,,,,,,,,,,,,,,,,,,,,,,,,,
34335,1645651557.72102,36.0,0.0,4855.384765999999,4800.512695,4257.94873,4291.282227000001,4474.871582,0.0,3.0,55.0,,,,0.0,4.0,2.0,1.0,0.0,4.0,25.0,,,,,,,,18.0,0.0,0.433884,0.5422359999999999,0.213867,-0.687012,0.9428850000000001,-0.180179,-0.31787600000000005,-0.020897,-0.049747,-0.046091,,,,,,,,,,,,,,,,,,,,,,,,,,,,,,,,,,,11.0,0.0,1.0,0.0,512.0,0.403389,,,,,,,,,,,,,,,,,,,,,,,,,
34336,1645651557.7288392,37.0,0.0,4862.05127,4586.666504,4234.871582,4294.358886999999,4442.563965,0.0,3.0,55.0,,,,0.0,4.0,2.0,1.0,0.0,4.0,25.0,,,,,,,,,,,,,,,,,,,,,,,,,,,,,,,,,,,,,,,,,,,,,,,,,,,,,,,,,,,,,,,,,,,,,,,,,,,,,,,,,,,,
34337,1645651557.736659,38.0,0.0,4841.538574,4525.128418,4288.205078,4300.0,4463.077147999999,0.0,3.0,55.0,,,,0.0,4.0,2.0,1.0,0.0,4.0,25.0,,,,,,,,19.0,0.0,0.43337700000000007,0.5422359999999999,0.21411100000000002,-0.6872560000000001,0.945815,-0.180667,-0.317388,-0.021005000000000003,-0.049655,-0.041043,,,,,,,,,,,,,,,,,,,,,,,,,,,,,,,,,,,,,,,,,,,,,,,,,,,,,,,,,,,,,,,,,
34338,1645651557.7445788,39.0,0.0,4807.692383,4473.333496,4340.512695,4297.436035,4452.820313,0.0,3.0,55.0,,,,0.0,4.0,2.0,1.0,0.0,4.0,25.0,,,,,,,,,,,,,,,,,,,,,,,,,,,,,,,,,,,,,,,,,,,,,,,,,,,,,,,,,,,,,,,,,,,,,,,,,,,,,,,,,,,,
34339,1645651557.752399,40.0,0.0,4728.717772999999,4602.563965,4350.256348,4290.256348,4368.717772999999,0.0,3.0,55.0,,,,0.0,4.0,2.0,1.0,0.0,4.0,25.0,,,,,,,,20.0,0.0,0.433174,0.541992,0.21435500000000002,-0.6875,0.944839,-0.171878,-0.318364,-0.021199000000000003,-0.049572000000000005,-0.036499000000000004,1.0,0.0,0.0,,,,,,,,,,,,,,,,,,,,,,,,,,,,,,,,11.0,0.0,1.0,0.0,512.0,0.5897399999999999,5728.697265999999,418.500458,60.881176,8.922571000000001,2.683447,504.693665,79.670242,76.986633,42.590427000000005,50.417685999999996,145.128326,142.357224,3.8152169999999996,5.215355000000001,1.554716,4.1855459999999995,0.395932,0.092681,0.030770999999999996,0.041432,108.77790800000001,16.410566,1.6563009999999998,2.465928,2.01222
34340,1645651557.760218,41.0,0.0,4592.307617,4889.743652,4299.487305,4289.230957,4286.666504,0.0,3.0,55.0,,,,0.0,4.0,2.0,1.0,0.0,4.0,25.0,,,,,,,,,,,,,,,,,,,,,,,,,,,,,,,,,,,,,,,,,,,,,,,,,,,,,,,,,,,,,,,,,,,,,,,,,,,,,,,,,,,,
34341,1645651557.768038,42.0,0.0,4465.128418,4805.641113000001,4296.410156,4289.743652,4267.179688,0.0,3.0,55.0,,,,0.0,4.0,2.0,1.0,0.0,4.0,25.0,,,,,,,,21.0,0.0,0.433359,0.541748,0.2146,-0.6875,0.9404440000000001,-0.18115499999999998,-0.319341,-0.019812,-0.049498,-0.032458,,,,,,,,,,,,,,,,,,,,,,,,,,,,,,,,,,,,,,,,,,,,,,,,,,,,,,,,,,,,,,,,,
34342,1645651557.775857,43.0,0.0,4366.153809,4731.794922,4261.538574,4286.666504,4252.820313,0.0,3.0,55.0,,,,0.0,4.0,2.0,1.0,0.0,4.0,25.0,,,,,,,,,,,,,,,,,,,,,,,,,,,,,,,,,,,,,,,,,,,,,,,,,,,,,,,,,,,,,,,,,,,,,,,,,,,,,,,,,,,,
34343,1645651557.7836769,44.0,0.0,4253.333496,4911.794922,4217.436035,4286.153809,4234.358886999999,0.0,3.0,55.0,,,,0.0,4.0,2.0,1.0,0.0,4.0,25.0,,,,,,,,22.0,0.0,0.43285,0.541748,0.214844,-0.6877439999999999,0.947768,-0.174319,-0.332036,-0.018514,-0.04948,-0.034877,,,,,,,,,,,,,,,,,,,,,,,,,,,,,,,,,,,11.0,0.0,1.0,0.0,512.0,0.5897399999999999,,,,,,,,,,,,,,,,,,,,,,,,,
34344,1645651557.791497,45.0,0.0,4160.512695,4775.897461,4225.641113000001,4286.666504,4220.0,0.0,3.0,55.0,,,,0.0,4.0,2.0,1.0,0.0,4.0,25.0,,,,,,,,,,,,,,,,,,,,,,,,,,,,,,,,,,,,,,,,,,,,,,,,,,,,,,,,,,,,,,,,,,,,,,,,,,,,,,,,,,,,
34345,1645651557.799316,46.0,0.0,4116.410156,4533.846191,4246.153809,4279.487305,4207.692383,0.0,3.0,55.0,,,,0.0,4.0,2.0,1.0,0.0,4.0,25.0,,,,,,,,23.0,0.0,0.43303400000000003,0.541504,0.215088,-0.6877439999999999,0.953628,-0.172854,-0.330083,-0.017444,-0.049464,-0.0372,,,,,,,,,,,,,,,,,,,,,,,,,,,,,,,,,,,,,,,,,,,,,,,,,,,,,,,,,,,,,,,,,
34346,1645651557.807236,47.0,0.0,4057.9487299999996,4758.461426,4170.256348,4273.846191,4242.563965,0.0,3.0,55.0,,,,0.0,4.0,2.0,1.0,0.0,4.0,25.0,,,,,,,,,,,,,,,,,,,,,,,,,,,,,,,,,,,,,,,,,,,,,,,,,,,,,,,,,,,,,,,,,,,,,,,,,,,,,,,,,,,,
34347,1645651557.815056,48.0,0.0,3916.923096,4964.102539,4120.0,4280.512695,4208.205078,0.0,3.0,55.0,,,,0.0,4.0,2.0,1.0,0.0,4.0,25.0,,,,,,,,24.0,0.0,0.432913,0.541504,0.21533200000000002,-0.6877439999999999,0.949722,-0.169436,-0.336919,-0.017946,-0.049449,-0.032943,,,,,,,,,,,,,,,,,,,,,,,,,,,,,,,,,,,0.0,0.0,1.0,0.0,512.0,0.5897399999999999,,,,,,,,,,,,,,,,,,,,,,,,,
34348,1645651557.822876,49.0,0.0,3874.8718259999996,4615.384765999999,4225.128418,4285.641113000001,4139.487305,0.0,3.0,55.0,,,,0.0,4.0,2.0,1.0,0.0,4.0,25.0,,,,,,,,,,,,,,,,,,,,,,,,,,,,,,,,,,,,,,,,,,,,,,,,,,,,,,,,,,,,,,,,,,,,,,,,,,,,,,,,,,,,
34349,1645651557.830696,50.0,0.0,3882.5642090000006,4289.230957,4304.615234000001,4275.897461,4134.358886999999,0.0,3.0,55.0,,,,0.0,4.0,2.0,1.0,0.0,4.0,25.0,,,,,,,,25.0,0.0,0.432913,0.541504,0.21533200000000002,-0.6877439999999999,0.939467,-0.1626,-0.330083,-0.018494999999999998,-0.049436,-0.035361000000000004,,,,,,,,,,,,,,,,,,,,,,,,,,,,,,,,,,,,,,,,,,,,,,,,,,,,,,,,,,,,,,,,,
34350,1645651557.838516,51.0,0.0,3859.487061,4236.922852000001,4287.692383,4270.256348,4184.615234000001,0.0,3.0,55.0,,,,0.0,4.0,2.0,1.0,0.0,4.0,25.0,,,,,,,,,,,,,,,,,,,,,,,,,,,,,,,,,,,,,,,,,,,,,,,,,,,,,,,,,,,,,,,,,,,,,,,,,,,,,,,,,,,,
34351,1645651557.846336,52.0,0.0,3815.897461,4326.666504,4233.846191,4272.307617,4188.717772999999,0.0,3.0,55.0,,,,0.0,4.0,2.0,1.0,0.0,4.0,25.0,,,,,,,,26.0,0.0,0.43321800000000005,0.5412600000000001,0.21533200000000002,-0.6877439999999999,0.949233,-0.161624,-0.323247,-0.019038,-0.049424,-0.037587,,,,,,,,,,,,,,,,,,,,,,,,,,,,,,,,,,,0.0,0.0,1.0,0.0,512.0,0.5897399999999999,,,,,,,,,,,,,,,,,,,,,,,,,
34352,1645651557.854156,53.0,0.0,3763.076904,4409.743652,4273.846191,4271.282227000001,4182.05127,0.0,3.0,55.0,,,,0.0,4.0,2.0,1.0,0.0,4.0,25.0,,,,,,,,,,,,,,,,,,,,,,,,,,,,,,,,,,,,,,,,,,,,,,,,,,,,,,,,,,,,,,,,,,,,,,,,,,,,,,,,,,,,
34353,1645651557.861975,54.0,0.0,3698.974365,4289.230957,4327.692383,4268.205078,4136.410156,0.0,3.0,55.0,,,,0.0,4.0,2.0,1.0,0.0,4.0,25.0,,,,,,,,27.0,0.0,0.43321800000000005,0.5412600000000001,0.21533200000000002,-0.6877439999999999,0.9365379999999999,-0.18115499999999998,-0.327153,-0.017915,-0.049364,-0.039639,,,,,,,,,,,,,,,,,,,,,,,,,,,,,,,,,,,,,,,,,,,,,,,,,,,,,,,,,,,,,,,,,
34354,1645651557.8697948,55.0,0.0,3687.179443,4322.563965,4348.205078,4270.256348,4096.410156,0.0,3.0,55.0,,,,0.0,4.0,2.0,1.0,0.0,4.0,25.0,,,,,,,,,,,,,,,,,,,,,,,,,,,,,,,,,,,,,,,,,,,,,,,,,,,,,,,,,,,,,,,,,,,,,,,,,,,,,,,,,,,,
34355,1645651557.877715,56.0,0.0,3689.743652,4412.820313,4344.102539,4273.846191,4103.589844,0.0,3.0,55.0,,,,0.0,4.0,2.0,1.0,0.0,4.0,25.0,,,,,,,,28.0,0.0,0.43333900000000003,0.5412600000000001,0.215088,-0.6877439999999999,0.941421,-0.174807,-0.330083,-0.018468000000000002,-0.04936,-0.041388,1.0,0.0,0.0,,,,,,,,,,,,,,,,,,,,,,,,,,,,,,,,0.0,0.0,1.0,0.0,512.0,0.485241,8570.582031,592.749695,90.069328,12.074147,3.734079,439.709869,65.561584,88.881126,43.634987,68.57764399999999,148.70031699999998,136.894485,4.644636,8.105089999999999,2.0516970000000003,6.334614,0.6054229999999999,0.118101,0.031002999999999996,0.050561,135.095718,17.06119,2.0290049999999997,3.053238,2.592163
34356,1645651557.885536,57.0,0.0,3645.641113,4449.743652,4336.922852000001,4273.333496,4102.05127,0.0,3.0,55.0,,,,0.0,4.0,2.0,1.0,0.0,4.0,25.0,,,,,,,,,,,,,,,,,,,,,,,,,,,,,,,,,,,,,,,,,,,,,,,,,,,,,,,,,,,,,,,,,,,,,,,,,,,,,,,,,,,,
34357,1645651557.893356,58.0,0.0,3631.281982,4448.717772999999,4294.358886999999,4271.794922,4047.6923829999996,0.0,3.0,55.0,,,,0.0,4.0,2.0,1.0,0.0,4.0,25.0,,,,,,,,29.0,0.0,0.43333900000000003,0.5412600000000001,0.215088,-0.6877439999999999,0.94435,-0.175784,-0.334966,-0.018867,-0.049453,-0.03681,,,,,,,,,,,,,,,,,,,,,,,,,,,,,,,,,,,,,,,,,,,,,,,,,,,,,,,,,,,,,,,,,
34358,1645651557.901176,59.0,0.0,3649.743652,4493.333496,4285.641113000001,4272.820313,4061.025635,0.0,3.0,55.0,,,,0.0,4.0,2.0,1.0,0.0,4.0,25.0,,,,,,,,,,,,,,,,,,,,,,,,,,,,,,,,,,,,,,,,,,,,,,,,,,,,,,,,,,,,,,,,,,,,,,,,,,,,,,,,,,,,
34359,1645651557.908996,60.0,0.0,3661.538574,4507.179688,4253.333496,4275.384765999999,4122.563965,0.0,3.0,55.0,,,,0.0,4.0,2.0,1.0,0.0,4.0,25.0,,,,,,,,30.0,0.0,0.433543,0.541504,0.214844,-0.6875,0.937514,-0.18555,-0.325689,-0.019226,-0.049391000000000004,-0.032543,,,,,,,,,,,,,,,,,,,,,,,,,,,,,,,,,,,0.0,0.0,1.0,0.0,512.0,0.485241,,,,,,,,,,,,,,,,,,,,,,,,,
34360,1645651557.916816,61.0,0.0,3670.7692869999996,4395.897461,4242.05127,4272.820313,4123.077147999999,0.0,3.0,55.0,,,,0.0,4.0,2.0,1.0,0.0,4.0,25.0,,,,,,,,,,,,,,,,,,,,,,,,,,,,,,,,,,,,,,,,,,,,,,,,,,,,,,,,,,,,,,,,,,,,,,,,,,,,,,,,,,,,
34361,1645651557.924636,62.0,0.0,3652.3076170000004,4314.871582,4272.820313,4272.307617,4117.94873,0.0,3.0,55.0,,,,0.0,4.0,2.0,1.0,0.0,4.0,25.0,,,,,,,,31.0,0.0,0.433543,0.541504,0.214844,-0.6875,0.9423969999999999,-0.1626,-0.32959499999999997,-0.018085,-0.049382999999999996,-0.03505,,,,,,,,,,,,,,,,,,,,,,,,,,,,,,,,,,,,,,,,,,,,,,,,,,,,,,,,,,,,,,,,,
34362,1645651557.932456,63.0,0.0,3627.179443,4339.487305,4258.461426,4274.358886999999,4087.6923829999996,0.0,3.0,55.0,,,,0.0,4.0,2.0,1.0,0.0,4.0,25.0,,,,,,,,,,,,,,,,,,,,,,,,,,,,,,,,,,,,,,,,,,,,,,,,,,,,,,,,,,,,,,,,,,,,,,,,,,,,,,,,,,,,
34363,1645651557.940377,64.0,0.0,3656.4101560000004,4466.153809,4205.128418,4272.307617,4076.4101560000004,450.0,3.0,55.0,,,,0.0,4.0,4.0,4.0,0.0,4.0,66.666664,,,,,,,,32.0,0.0,0.433543,0.541504,0.214844,-0.6875,0.945327,-0.166506,-0.335454,-0.018522999999999998,-0.049474000000000004,-0.031106,,,,,,,,,,,,,,,,,,,,,,,,,,,,,,,,,,,0.0,0.0,1.0,0.0,512.0,0.485241,,,,,,,,,,,,,,,,,,,,,,,,,
34364,1645651557.948198,65.0,0.0,3661.025635,4483.077147999999,4241.025879,4269.743652,4096.922852000001,450.0,3.0,55.0,,,,0.0,4.0,4.0,4.0,0.0,4.0,66.666664,,,,,,,,,,,,,,,,,,,,,,,,,,,,,,,,,,,,,,,,,,,,,,,,,,,,,,,,,,,,,,,,,,,,,,,,,,,,,,,,,,,,
34365,1645651557.956019,66.0,0.0,3689.2307130000004,4465.128418,4278.974121,4271.794922,4123.589844,16121.0,3.0,55.0,,,,0.0,4.0,4.0,4.0,0.0,4.0,66.666664,,,,,,,,33.0,0.0,0.43393000000000004,0.541504,0.214844,-0.6872560000000001,0.947768,-0.175296,-0.334478,-0.018917,-0.049556,-0.033708,,,,,,,,,,,,,,,,,,,,,,,,,,,,,,,,,,,,,,,,,,,,,,,,,,,,,,,,,,,,,,,,,
34366,1645651557.96384,67.0,0.0,3700.512939,4473.333496,4227.179688,4273.846191,4120.0,450.0,3.0,55.0,,,,0.0,4.0,4.0,4.0,0.0,4.0,66.666664,,,,,,,,,,,,,,,,,,,,,,,,,,,,,,,,,,,,,,,,,,,,,,,,,,,,,,,,,,,,,,,,,,,,,,,,,,,,,,,,,,,,
34367,1645651557.97166,68.0,0.0,3682.5642090000006,4276.410156,4260.0,4271.794922,4161.538574,16227.0,3.0,55.0,,,,0.0,4.0,4.0,4.0,0.0,4.0,66.666664,,,,,,,,34.0,0.0,0.43393000000000004,0.541504,0.214844,-0.6872560000000001,0.954116,-0.186038,-0.326665,-0.017757,-0.049581,-0.036002,,,,,,,,,,,,,,,,,,,,,,,,,,,,,,,,,,,0.0,0.0,1.0,0.0,512.0,0.485241,,,,,,,,,,,,,,,,,,,,,,,,,
34368,1645651557.979481,69.0,0.0,3648.718018,4142.05127,4320.512695,4269.230957,4144.102539,450.0,3.0,55.0,,,,0.0,4.0,4.0,4.0,0.0,4.0,66.666664,,,,,,,,,,,,,,,,,,,,,,,,,,,,,,,,,,,,,,,,,,,,,,,,,,,,,,,,,,,,,,,,,,,,,,,,,,,,,,,,,,,,
34369,1645651557.987302,70.0,0.0,3645.641113,4303.077147999999,4356.922852000001,4269.743652,4085.641113,16171.0,3.0,55.0,,,,0.0,4.0,4.0,4.0,0.0,4.0,66.666664,,,,,,,,35.0,0.0,0.43393000000000004,0.541504,0.214844,-0.6872560000000001,0.939467,-0.181643,-0.324712,-0.016030000000000003,-0.049555,-0.038163,,,,,,,,,,,,,,,,,,,,,,,,,,,,,,,,,,,,,,,,,,,,,,,,,,,,,,,,,,,,,,,,,
34370,1645651557.9951231,71.0,0.0,3636.4101560000004,4411.282227000001,4353.333496,4270.256348,4085.641113,450.0,3.0,55.0,,,,0.0,4.0,4.0,4.0,0.0,4.0,66.666664,,,,,,,,,,,,,,,,,,,,,,,,,,,,,,,,,,,,,,,,,,,,,,,,,,,,,,,,,,,,,,,,,,,,,,,,,,,,,,,,,,,,
34371,1645651558.002944,72.0,0.0,3629.2307130000004,4413.333496,4344.615234000001,4269.743652,4092.820557,450.0,3.0,55.0,,,,0.0,4.0,4.0,4.0,0.0,4.0,66.666664,1.0,0.0,0.0,0.0,1.0,0.0,3.0,36.0,0.0,0.43393000000000004,0.541504,0.214844,-0.6872560000000001,0.9546040000000001,-0.175784,-0.332036,-0.016674,-0.049482,-0.039962,1.0,0.0,0.0,,,,,,,,,,,,,,,,,,,,,,,,,,,,,,,,0.0,0.0,1.0,0.0,512.0,0.483354,10724.745117,714.72406,112.947144,14.476025,5.222903,349.277649,51.980965000000005,95.15451800000001,50.667614,94.824051,152.10321000000002,131.829376,5.838694,11.46062,2.830667,7.983661,0.78504,0.136399,0.033375999999999996,0.061933,153.861191,20.017811,2.573233,3.766496,3.357535
34372,1645651558.010765,73.0,0.0,3644.615479,4537.436035,4288.717772999999,4269.743652,4064.615479,0.0,3.0,55.0,,,,0.0,4.0,4.0,4.0,0.0,4.0,66.666664,,,,,,,,,,,,,,,,,,,,,,,,,,,,,,,,,,,,,,,,,,,,,,,,,,,,,,,,,,,,,,,,,,,,,,,,,,,,,,,,,,,,
34373,1645651558.018585,74.0,0.0,3670.7692869999996,4651.794922,4274.871582,4273.846191,4101.025879,450.0,3.0,55.0,,,,0.0,4.0,4.0,4.0,0.0,4.0,66.666664,,,,,,,,37.0,0.0,0.433809,0.541504,0.215088,-0.6872560000000001,0.948257,-0.17969000000000002,-0.327642,-0.015055,-0.049514999999999997,-0.041679,,,,,,,,,,,,,,,,,,,,,,,,,,,,,,,,,,,,,,,,,,,,,,,,,,,,,,,,,,,,,,,,,
34374,1645651558.026505,75.0,0.0,3700.512939,4534.871582,4258.461426,4274.871582,4136.922852000001,16225.0,3.0,55.0,,,,0.0,4.0,4.0,4.0,0.0,4.0,66.666664,,,,,,,,,,,,,,,,,,,,,,,,,,,,,,,,,,,,,,,,,,,,,,,,,,,,,,,,,,,,,,,,,,,,,,,,,,,,,,,,,,,,
34375,1645651558.034325,76.0,0.0,3695.384521,4337.436035,4273.846191,4268.717772999999,4111.794922,450.0,3.0,55.0,,,,0.0,4.0,4.0,4.0,0.0,4.0,66.666664,,,,,,,,38.0,0.0,0.433688,0.541504,0.21533200000000002,-0.6872560000000001,0.937514,-0.176272,-0.32813000000000003,-0.015747,-0.049495,-0.036925,,,,,,,,,,,,,,,,,,,,,,,,,,,,,,,,,,,0.0,0.0,1.0,0.0,512.0,0.483354,,,,,,,,,,,,,,,,,,,,,,,,,
34376,1645651558.042144,77.0,0.0,3673.3332520000004,4307.179688,4296.410156,4267.692383,4112.307617,450.0,3.0,55.0,,,,0.0,4.0,4.0,4.0,0.0,4.0,66.666664,,,,,,,,,,,,,,,,,,,,,,,,,,,,,,,,,,,,,,,,,,,,,,,,,,,,,,,,,,,,,,,,,,,,,,,,,,,,,,,,,,,,
34377,1645651558.049964,78.0,0.0,3670.7692869999996,4378.974121,4241.538574,4271.794922,4094.8718259999996,450.0,3.0,55.0,,,,0.0,4.0,4.0,4.0,0.0,4.0,66.666664,,,,,,,,39.0,0.0,0.433688,0.541504,0.21533200000000002,-0.6872560000000001,0.9487450000000001,-0.17383099999999999,-0.32422399999999996,-0.016418000000000002,-0.049428,-0.032695,,,,,,,,,,,,,,,,,,,,,,,,,,,,,,,,,,,,,,,,,,,,,,,,,,,,,,,,,,,,,,,,,
34378,1645651558.057784,79.0,0.0,3734.8718259999996,4501.025879,4174.358886999999,4271.794922,4088.718018,16225.0,3.0,55.0,,,,0.0,4.0,4.0,4.0,0.0,4.0,66.666664,,,,,,,,,,,,,,,,,,,,,,,,,,,,,,,,,,,,,,,,,,,,,,,,,,,,,,,,,,,,,,,,,,,,,,,,,,,,,,,,,,,,
34379,1645651558.065603,80.0,0.0,3772.820557,4571.282227000001,4218.461426,4268.717772999999,4121.025879,450.0,3.0,55.0,,,,0.0,4.0,4.0,4.0,0.0,4.0,66.666664,,,,,,,,40.0,0.0,0.433688,0.541504,0.21533200000000002,-0.6872560000000001,0.9428850000000001,-0.178714,-0.324712,-0.01712,-0.049417,-0.035139,,,,,,,,,,,,,,,,,,,,,,,,,,,,,,,,,,,0.0,0.0,1.0,0.0,512.0,0.483354,,,,,,,,,,,,,,,,,,,,,,,,,
34380,1645651558.0734231,81.0,0.0,3774.8718259999996,4382.563965,4228.205078,4268.717772999999,4182.563965,450.0,3.0,55.0,,,,0.0,4.0,4.0,4.0,0.0,4.0,66.666664,,,,,,,,,,,,,,,,,,,,,,,,,,,,,,,,,,,,,,,,,,,,,,,,,,,,,,,,,,,,,,,,,,,,,,,,,,,,,,,,,,,,
34381,1645651558.081243,82.0,0.0,3757.9487299999996,4162.05127,4174.358886999999,4267.692383,4187.179688,450.0,3.0,55.0,,,,0.0,4.0,4.0,4.0,0.0,4.0,66.666664,,,,,,,,41.0,0.0,0.433566,0.541504,0.21557600000000002,-0.6872560000000001,0.9463030000000001,-0.1626,-0.326665,-0.017752,-0.049456,-0.031233999999999998,,,,,,,,,,,,,,,,,,,,,,,,,,,,,,,,,,,,,,,,,,,,,,,,,,,,,,,,,,,,,,,,,
34382,1645651558.089163,83.0,0.0,3771.794922,4171.282227000001,4240.512695,4265.128418,4192.820313,16225.0,3.0,55.0,,,,0.0,4.0,4.0,4.0,0.0,4.0,66.666664,,,,,,,,,,,,,,,,,,,,,,,,,,,,,,,,,,,,,,,,,,,,,,,,,,,,,,,,,,,,,,,,,,,,,,,,,,,,,,,,,,,,
34383,1645651558.096983,84.0,0.0,3763.5898439999996,4362.563965,4297.436035,4265.128418,4171.794922,450.0,3.0,55.0,,,,0.0,4.0,4.0,4.0,0.0,4.0,66.666664,,,,,,,,42.0,0.0,0.433871,0.5412600000000001,0.21557600000000002,-0.6872560000000001,0.9428850000000001,-0.174807,-0.32813000000000003,-0.016758000000000002,-0.049442,-0.027574,,,,,,,,,,,,,,,,,,,,,,,,,,,,,,,,,,,0.0,0.0,1.0,0.0,512.0,0.483354,,,,,,,,,,,,,,,,,,,,,,,,,
34384,1645651558.104904,85.0,1.0,3769.5512700000004,4386.922852000001,4294.807617,4265.44873,4163.269043,450.0,3.0,55.0,,,,0.0,4.0,4.0,4.0,0.0,4.0,66.666664,,,,,,,,,,,,,,,,,,,,,,,,,,,,,,,,,,,,,,,,,,,,,,,,,,,,,,,,,,,,,,,,,,,,,,,,,,,,,,,,,,,,
34385,1645651558.112725,86.0,1.0,3775.512939,4411.282227000001,4292.179688,4265.769043,4154.743652,450.0,3.0,55.0,,,,0.0,4.0,4.0,4.0,0.0,4.0,66.666664,,,,,,,,43.0,1.0,0.433871,0.5412600000000001,0.21557600000000002,-0.6872560000000001,0.942031,-0.176394,-0.325933,-0.016962,-0.049439,-0.028312999999999998,,,,,,,,,,,,,,,,,,,,,,,,,,,,,,,,,,,,,,,,,,,,,,,,,,,,,,,,,,,,,,,,,
34386,1645651558.120546,87.0,1.0,3781.474365,4435.641113000001,4289.55127,4266.089844,4146.217772999999,450.0,3.0,55.0,,,,0.0,4.0,4.0,4.0,0.0,4.0,66.666664,,,,,,,,,,,,,,,,,,,,,,,,,,,,,,,,,,,,,,,,,,,,,,,,,,,,,,,,,,,,,,,,,,,,,,,,,,,,,,,,,,,,
34387,1645651558.128367,88.0,1.0,3787.4357909999994,4460.0,4286.922852000001,4266.410156,4137.692383,450.0,3.0,55.0,,,,0.0,4.0,4.0,4.0,0.0,4.0,66.666664,,,,,,,,44.0,1.0,0.433871,0.5412600000000001,0.21557600000000002,-0.6872560000000001,0.941176,-0.177981,-0.323735,-0.017165,-0.049436,-0.029051999999999998,1.0,0.0,0.0,,,,,,,,,,,,,,,,,,,,,,,,,,,,,,,,0.0,0.0,1.0,0.0,512.0,0.502879,11528.036133,749.39209,123.16138500000001,15.377998000000002,6.865721000000001,266.73870800000003,46.345932,93.704636,68.342628,125.756584,151.670303,125.94735,7.273488,14.638203,3.8993339999999996,8.593336,0.879659,0.141206,0.038428,0.0729,166.861649,25.17473,3.2700150000000003,4.561553,4.232849
34388,1645651558.136189,89.0,1.0,3793.397461,4484.358886999999,4284.294922,4266.730957,4129.166504,450.0,3.0,55.0,,,,0.0,4.0,4.0,4.0,0.0,4.0,66.666664,,,,,,,,,,,,,,,,,,,,,,,,,,,,,,,,,,,,,,,,,,,,,,,,,,,,,,,,,,,,,,,,,,,,,,,,,,,,,,,,,,,,
34389,1645651558.14401,90.0,1.0,3799.358887,4508.717772999999,4281.666504,4267.05127,4120.641113000001,450.0,3.0,55.0,,,,0.0,4.0,4.0,4.0,0.0,4.0,66.666664,,,,,,,,45.0,1.0,0.433871,0.5412600000000001,0.21557600000000002,-0.6872560000000001,0.9403219999999999,-0.179568,-0.321538,-0.017369,-0.049433,-0.029791,,,,,,,,,,,,,,,,,,,,,,,,,,,,,,,,,,,,,,,,,,,,,,,,,,,,,,,,,,,,,,,,,
34390,1645651558.1518312,91.0,1.0,3805.320557,4533.077147999999,4279.038574,4267.371582,4112.115234000001,450.0,3.0,55.0,,,,0.0,4.0,4.0,4.0,0.0,4.0,66.666664,,,,,,,,,,,,,,,,,,,,,,,,,,,,,,,,,,,,,,,,,,,,,,,,,,,,,,,,,,,,,,,,,,,,,,,,,,,,,,,,,,,,
34391,1645651558.159652,92.0,0.0,3811.281982,4557.436035,4276.410156,4267.692383,4103.589844,450.0,3.0,55.0,,,,0.0,4.0,4.0,4.0,0.0,4.0,66.666664,,,,,,,,46.0,0.0,0.433871,0.5412600000000001,0.21557600000000002,-0.6872560000000001,0.939467,-0.18115499999999998,-0.319341,-0.017573,-0.04943,-0.030529,,,,,,,,,,,,,,,,,,,,,,,,,,,,,,,,,,,0.0,0.0,1.0,0.0,512.0,0.502879,,,,,,,,,,,,,,,,,,,,,,,,,
34392,1645651558.167473,93.0,0.0,3825.1281740000004,4538.974121,4244.615234000001,4267.179688,4133.333496,450.0,3.0,55.0,,,,0.0,4.0,4.0,4.0,0.0,4.0,66.666664,,,,,,,,,,,,,,,,,,,,,,,,,,,,,,,,,,,,,,,,,,,,,,,,,,,,,,,,,,,,,,,,,,,,,,,,,,,,,,,,,,,,
34393,1645651558.175294,94.0,0.0,3864.102539,4577.436035,4186.666504,4269.743652,4219.487305,450.0,3.0,55.0,,,,0.0,4.0,4.0,4.0,0.0,4.0,66.666664,,,,,,,,47.0,0.0,0.433992,0.5412600000000001,0.21533200000000002,-0.6872560000000001,0.9399559999999999,-0.186526,-0.33105999999999997,-0.01811,-0.049418000000000004,-0.033287,,,,,,,,,,,,,,,,,,,,,,,,,,,,,,,,,,,,,,,,,,,,,,,,,,,,,,,,,,,,,,,,,
34394,1645651558.183115,95.0,0.0,3873.3332520000004,4791.794922,4181.538574,4266.666504,4230.769043,16225.0,3.0,55.0,,,,0.0,4.0,4.0,4.0,0.0,4.0,66.666664,,,,,,,,,,,,,,,,,,,,,,,,,,,,,,,,,,,,,,,,,,,,,,,,,,,,,,,,,,,,,,,,,,,,,,,,,,,,,,,,,,,,
34395,1645651558.1908321,96.0,0.0,3820.0,4891.282227000001,4161.538574,4261.025879,4230.769043,450.0,3.0,55.0,,,,0.0,4.0,4.0,4.0,0.0,4.0,66.666664,,,,,,,,48.0,0.0,0.433566,0.541504,0.21557600000000002,-0.6872560000000001,0.9423969999999999,-0.174807,-0.321782,-0.018448,-0.049457,-0.03572,,,,,,,,,,,,,,,,,,,,,,,,,,,,,,,,,,,0.0,0.0,1.0,0.0,512.0,0.502879,,,,,,,,,,,,,,,,,,,,,,,,,
34396,1645651558.198648,97.0,0.0,3827.6923829999996,4805.128418,4133.333496,4264.615234000001,4226.153809,450.0,3.0,55.0,,,,0.0,4.0,4.0,4.0,0.0,4.0,66.666664,,,,,,,,,,,,,,,,,,,,,,,,,,,,,,,,,,,,,,,,,,,,,,,,,,,,,,,,,,,,,,,,,,,,,,,,,,,,,,,,,,,,
34397,1645651558.206465,98.0,0.0,3875.384521,4872.307617,4195.897461,4271.282227000001,4228.717772999999,450.0,3.0,55.0,,,,0.0,4.0,4.0,4.0,0.0,4.0,66.666664,,,,,,,,49.0,0.0,0.43407399999999996,0.541504,0.21533200000000002,-0.687012,0.939467,-0.178225,-0.31201599999999996,-0.018996000000000002,-0.049492,-0.031758,,,,,,,,,,,,,,,,,,,,,,,,,,,,,,,,,,,,,,,,,,,,,,,,,,,,,,,,,,,,,,,,,
34398,1645651558.214281,99.0,0.0,3807.179443,4987.692383,4229.230957,4270.256348,4224.102539,16225.0,3.0,55.0,,,,0.0,4.0,4.0,4.0,0.0,4.0,66.666664,,,,,,,,,,,,,,,,,,,,,,,,,,,,,,,,,,,,,,,,,,,,,,,,,,,,,,,,,,,,,,,,,,,,,,,,,,,,,,,,,,,,
34399,1645651558.222098,100.0,0.0,3793.3332520000004,4913.846191,4211.282227000001,4270.769043,4233.333496,450.0,3.0,55.0,,,,0.0,4.0,4.0,4.0,0.0,4.0,66.666664,,,,,,,,50.0,0.0,0.43407399999999996,0.541504,0.21533200000000002,-0.687012,0.945815,-0.175784,-0.326177,-0.017877,-0.049474000000000004,-0.034295,,,,,,,,,,,,,,,,,,,,,,,,,,,,,,,,,,,0.0,0.0,1.0,0.0,512.0,0.502879,,,,,,,,,,,,,,,,,,,,,,,,,
34400,1645651558.229914,101.0,0.0,3810.256348,4754.358886999999,4226.153809,4277.94873,4181.025879,450.0,3.0,55.0,,,,0.0,4.0,4.0,4.0,0.0,4.0,66.666664,,,,,,,,,,,,,,,,,,,,,,,,,,,,,,,,,,,,,,,,,,,,,,,,,,,,,,,,,,,,,,,,,,,,,,,,,,,,,,,,,,,,
34401,1645651558.237731,102.0,0.0,3792.3076170000004,4617.94873,4311.282227000001,4278.461426,4127.692383,450.0,3.0,55.0,,,,0.0,4.0,4.0,4.0,0.0,4.0,66.666664,,,,,,,,51.0,0.0,0.43407399999999996,0.541504,0.21533200000000002,-0.687012,0.960464,-0.167483,-0.318853,-0.017575999999999998,-0.049395999999999995,-0.032335,,,,,,,,,,,,,,,,,,,,,,,,,,,,,,,,,,,,,,,,,,,,,,,,,,,,,,,,,,,,,,,,,
34402,1645651558.245548,103.0,0.0,3822.0512700000004,4480.512695,4352.820313,4271.282227000001,4151.794922,16225.0,3.0,55.0,,,,0.0,4.0,4.0,4.0,0.0,4.0,66.666664,,,,,,,,,,,,,,,,,,,,,,,,,,,,,,,,,,,,,,,,,,,,,,,,,,,,,,,,,,,,,,,,,,,,,,,,,,,,,,,,,,,,
34403,1645651558.2532651,104.0,0.0,3895.384521,4385.641113000001,4360.0,4267.692383,4206.666504,450.0,3.0,55.0,,,,0.0,4.0,4.0,4.0,0.0,4.0,66.666664,,,,,,,,52.0,0.0,0.434195,0.541504,0.215088,-0.687012,0.940932,-0.17236600000000002,-0.326665,-0.018162,-0.049486,-0.034912,1.0,0.0,0.0,,,,,,,,,,,,,,,,,,,,,,,,,,,,,,,,0.0,0.0,1.0,0.0,512.0,0.8196200000000001,10883.241211,694.084167,118.565048,14.637639000000002,8.245407,219.299316,55.506317,87.243538,98.44144399999999,155.32527199999998,146.05148300000002,119.048988,8.682076,17.023651,5.1812260000000006,8.017461,0.864658,0.131043,0.045687,0.080832,181.552216,31.835817,4.036319000000001,5.451894,5.095105
34404,1645651558.2610831,105.0,0.0,3889.743652,4580.512695,4269.230957,4268.205078,4232.307617,450.0,3.0,55.0,,,,0.0,4.0,4.0,4.0,0.0,4.0,66.666664,,,,,,,,,,,,,,,,,,,,,,,,,,,,,,,,,,,,,,,,,,,,,,,,,,,,,,,,,,,,,,,,,,,,,,,,,,,,,,,,,,,,
34405,1645651558.2689,106.0,0.0,3841.538574,4914.358886999999,4231.794922,4267.692383,4216.922852000001,450.0,3.0,55.0,,,,0.0,4.0,4.0,4.0,0.0,4.0,66.666664,,,,,,,,53.0,0.0,0.434195,0.541504,0.215088,-0.687012,0.9428850000000001,-0.166995,-0.318853,-0.018544,-0.049518,-0.030882999999999997,,,,,,,,,,,,,,,,,,,,,,,,,,,,,,,,,,,,,,,,,,,,,,,,,,,,,,,,,,,,,,,,,
34406,1645651558.276718,107.0,0.0,3812.3076170000004,5013.333496,4252.820313,4269.743652,4182.563965,16225.0,3.0,55.0,,,,0.0,4.0,4.0,4.0,0.0,4.0,66.666664,,,,,,,,,,,,,,,,,,,,,,,,,,,,,,,,,,,,,,,,,,,,,,,,,,,,,,,,,,,,,,,,,,,,,,,,,,,,,,,,,,,,
34407,1645651558.284535,108.0,0.0,3813.8461909999996,4884.102539,4243.077147999999,4270.256348,4210.256348,450.0,3.0,55.0,,,,0.0,4.0,4.0,4.0,0.0,4.0,66.666664,,,,,,,,54.0,0.0,0.434316,0.541504,0.214844,-0.687012,0.945327,-0.174807,-0.315923,-0.018886,-0.049497,-0.033507999999999996,,,,,,,,,,,,,,,,,,,,,,,,,,,,,,,,,,,0.0,0.0,1.0,0.0,512.0,0.8196200000000001,,,,,,,,,,,,,,,,,,,,,,,,,
34408,1645651558.292353,109.0,0.0,3853.3332520000004,4749.743652,4192.820313,4269.743652,4234.871582,450.0,3.0,55.0,,,,0.0,4.0,4.0,4.0,0.0,4.0,66.666664,,,,,,,,,,,,,,,,,,,,,,,,,,,,,,,,,,,,,,,,,,,,,,,,,,,,,,,,,,,,,,,,,,,,,,,,,,,,,,,,,,,,
34409,1645651558.30017,110.0,0.0,3838.461426,4784.615234000001,4192.820313,4275.897461,4182.563965,450.0,3.0,55.0,,,,0.0,4.0,4.0,4.0,0.0,4.0,66.666664,,,,,,,,55.0,0.0,0.43393000000000004,0.541504,0.214844,-0.6872560000000001,0.952651,-0.196292,-0.326665,-0.019341999999999998,-0.049382,-0.029669,,,,,,,,,,,,,,,,,,,,,,,,,,,,,,,,,,,,,,,,,,,,,,,,,,,,,,,,,,,,,,,,,
34410,1645651558.3079882,111.0,0.0,3841.538574,4682.05127,4227.179688,4276.922852000001,4170.769043,16225.0,3.0,55.0,,,,0.0,4.0,4.0,4.0,0.0,4.0,66.666664,,,,,,,,,,,,,,,,,,,,,,,,,,,,,,,,,,,,,,,,,,,,,,,,,,,,,,,,,,,,,,,,,,,,,,,,,,,,,,,,,,,,
34411,1645651558.315706,112.0,0.0,3895.897461,4285.128418,4240.512695,4272.307617,4170.769043,450.0,3.0,55.0,,,,0.0,4.0,4.0,4.0,0.0,4.0,66.666664,,,,,,,,56.0,0.0,0.434195,0.541504,0.215088,-0.687012,0.957046,-0.171878,-0.333013,-0.019653999999999998,-0.049473,-0.026213999999999998,,,,,,,,,,,,,,,,,,,,,,,,,,,,,,,,,,,0.0,0.0,1.0,0.0,512.0,0.8196200000000001,,,,,,,,,,,,,,,,,,,,,,,,,
34412,1645651558.323525,113.0,0.0,3947.6923829999996,4273.846191,4220.512695,4271.794922,4194.871582,450.0,3.0,55.0,,,,0.0,4.0,4.0,4.0,0.0,4.0,66.666664,,,,,,,,,,,,,,,,,,,,,,,,,,,,,,,,,,,,,,,,,,,,,,,,,,,,,,,,,,,,,,,,,,,,,,,,,,,,,,,,,,,,
34413,1645651558.331343,114.0,0.0,3978.461426,4759.487305,4213.333496,4268.205078,4233.333496,450.0,3.0,55.0,,,,0.0,4.0,4.0,4.0,0.0,4.0,66.666664,,,,,,,,57.0,0.0,0.434195,0.541504,0.215088,-0.687012,0.9555809999999999,-0.176272,-0.332036,-0.018469,-0.049555,-0.029403,,,,,,,,,,,,,,,,,,,,,,,,,,,,,,,,,,,,,,,,,,,,,,,,,,,,,,,,,,,,,,,,,
34414,1645651558.339061,115.0,0.0,3985.1281740000004,4981.538574,4245.641113000001,4266.666504,4276.922852000001,16225.0,3.0,55.0,,,,0.0,4.0,4.0,4.0,0.0,4.0,66.666664,,,,,,,,,,,,,,,,,,,,,,,,,,,,,,,,,,,,,,,,,,,,,,,,,,,,,,,,,,,,,,,,,,,,,,,,,,,,,,,,,,,,
34415,1645651558.346879,116.0,0.0,3889.743652,4958.974121,4235.897461,4275.897461,4250.256348,450.0,3.0,55.0,,,,0.0,4.0,4.0,4.0,0.0,4.0,66.666664,,,,,,,,58.0,0.0,0.434195,0.541504,0.215088,-0.687012,0.9463030000000001,-0.175784,-0.325689,-0.018869,-0.049678,-0.032273,,,,,,,,,,,,,,,,,,,,,,,,,,,,,,,,,,,0.0,0.0,1.0,0.0,512.0,0.8196200000000001,,,,,,,,,,,,,,,,,,,,,,,,,
34416,1645651558.354697,117.0,0.0,3883.076904,4862.563965,4261.025879,4280.0,4216.410156,450.0,3.0,55.0,,,,0.0,4.0,4.0,4.0,0.0,4.0,66.666664,,,,,,,,,,,,,,,,,,,,,,,,,,,,,,,,,,,,,,,,,,,,,,,,,,,,,,,,,,,,,,,,,,,,,,,,,,,,,,,,,,,,
34417,1645651558.362515,118.0,0.0,3970.7692869999996,4411.282227000001,4306.666504,4272.820313,4194.358886999999,450.0,3.0,55.0,,,,0.0,4.0,4.0,4.0,0.0,4.0,66.666664,,,,,,,,59.0,0.0,0.43389099999999997,0.541748,0.215088,-0.687012,0.938491,-0.169436,-0.317388,-0.019178999999999998,-0.049642,-0.034710000000000005,,,,,,,,,,,,,,,,,,,,,,,,,,,,,,,,,,,,,,,,,,,,,,,,,,,,,,,,,,,,,,,,,
34418,1645651558.370333,119.0,0.0,3960.512939,4266.153809,4334.871582,4268.717772999999,4200.512695,16225.0,3.0,55.0,,,,0.0,4.0,4.0,4.0,0.0,4.0,66.666664,,,,,,,,,,,,,,,,,,,,,,,,,,,,,,,,,,,,,,,,,,,,,,,,,,,,,,,,,,,,,,,,,,,,,,,,,,,,,,,,,,,,
34419,1645651558.378151,120.0,0.0,3903.5898439999996,4768.205078,4304.615234000001,4268.205078,4214.358886999999,450.0,3.0,55.0,,,,0.0,4.0,4.0,4.0,0.0,4.0,66.666664,,,,,,,,60.0,0.0,0.434195,0.541504,0.215088,-0.687012,0.949233,-0.160647,-0.323735,-0.019507,-0.04956,-0.030701999999999997,1.0,0.0,0.0,,,,,,,,,,,,,,,,,,,,,,,,,,,,,,,,0.0,0.0,1.0,0.0,512.0,1.0,9113.095703,577.4530639999999,101.86507399999999,12.803144,8.969608000000001,222.33340499999997,81.370758,82.190498,137.704147,176.469238,136.60923799999998,111.940491,9.651012,18.271929,6.49482,6.517180000000001,0.753981,0.109829,0.053605999999999994,0.08405499999999999,199.605804,39.016327000000004,4.691508,6.4763720000000005,5.7899400000000005
34420,1645651558.385969,121.0,0.0,3942.5642090000006,4968.717772999999,4304.102539,4267.692383,4214.871582,450.0,3.0,55.0,,,,0.0,4.0,4.0,4.0,0.0,4.0,66.666664,,,,,,,,,,,,,,,,,,,,,,,,,,,,,,,,,,,,,,,,,,,,,,,,,,,,,,,,,,,,,,,,,,,,,,,,,,,,,,,,,,,,
34421,1645651558.393687,122.0,0.0,3942.0512700000004,4749.230957,4288.205078,4270.256348,4228.205078,450.0,3.0,55.0,,,,0.0,4.0,4.0,4.0,0.0,4.0,66.666664,,,,,,,,61.0,0.0,0.434195,0.541504,0.215088,-0.687012,0.95021,-0.174807,-0.316411,-0.019754,-0.049487,-0.033345,,,,,,,,,,,,,,,,,,,,,,,,,,,,,,,,,,,,,,,,,,,,,,,,,,,,,,,,,,,,,,,,,
34422,1645651558.401505,123.0,0.0,3873.3332520000004,4751.282227000001,4268.717772999999,4270.256348,4236.410156,16225.0,3.0,55.0,,,,0.0,4.0,4.0,4.0,0.0,4.0,66.666664,,,,,,,,,,,,,,,,,,,,,,,,,,,,,,,,,,,,,,,,,,,,,,,,,,,,,,,,,,,,,,,,,,,,,,,,,,,,,,,,,,,,
34423,1645651558.409224,124.0,0.0,3891.281982,4977.94873,4202.05127,4270.769043,4237.94873,450.0,3.0,55.0,,,,0.0,4.0,4.0,4.0,0.0,4.0,66.666664,,,,,,,,62.0,0.0,0.434277,0.541748,0.215088,-0.686768,0.95021,-0.180667,-0.336919,-0.018462,-0.049519,-0.035919,,,,,,,,,,,,,,,,,,,,,,,,,,,,,,,,,,,0.0,0.0,1.0,0.0,512.0,1.0,,,,,,,,,,,,,,,,,,,,,,,,,
34424,1645651558.417042,125.0,0.0,3906.1538090000004,5006.666504,4175.384765999999,4272.307617,4249.743652,450.0,3.0,55.0,,,,0.0,4.0,4.0,4.0,0.0,4.0,66.666664,,,,,,,,,,,,,,,,,,,,,,,,,,,,,,,,,,,,,,,,,,,,,,,,,,,,,,,,,,,,,,,,,,,,,,,,,,,,,,,,,,,,
34425,1645651558.42486,126.0,0.0,3894.8718259999996,4724.102539,4222.563965,4273.846191,4216.410156,450.0,3.0,55.0,,,,0.0,4.0,4.0,4.0,0.0,4.0,66.666664,,,,,,,,63.0,0.0,0.43439799999999995,0.541748,0.214844,-0.686768,0.9472799999999999,-0.190921,-0.33105999999999997,-0.019008,-0.049597,-0.03804,,,,,,,,,,,,,,,,,,,,,,,,,,,,,,,,,,,,,,,,,,,,,,,,,,,,,,,,,,,,,,,,,
34426,1645651558.432678,127.0,0.0,3923.5898439999996,4472.820313,4259.487305,4276.922852000001,4171.282227000001,234.0,3.0,55.0,,,,0.0,4.0,4.0,4.0,0.0,4.0,66.666664,,,,,,,,,,,,,,,,,,,,,,,,,,,,,,,,,,,,,,,,,,,,,,,,,,,,,,,,,,,,,,,,,,,,,,,,,,,,,,,,,,,,
34427,1645651558.4404962,0.0,0.0,3985.1281740000004,4459.487305,4201.538574,4276.410156,4214.871582,450.0,3.0,55.0,,,,0.0,4.0,4.0,4.0,0.0,4.0,66.666664,,,,,,,,0.0,0.0,0.43451899999999993,0.541748,0.2146,-0.686768,0.94435,-0.192874,-0.32227100000000003,-0.019403,-0.049569,-0.033796,,,,,,,,,,,,,,,,,,,,,,,,,,,,,,,,,,,0.0,0.0,1.0,0.0,512.0,1.0,,,,,,,,,,,,,,,,,,,,,,,,,
34428,1645651558.4483151,1.0,0.0,4023.076904,4470.769043,4163.589844,4269.743652,4209.743652,450.0,3.0,55.0,,,,0.0,4.0,4.0,4.0,0.0,4.0,66.666664,,,,,,,,,,,,,,,,,,,,,,,,,,,,,,,,,,,,,,,,,,,,,,,,,,,,,,,,,,,,,,,,,,,,,,,,,,,,,,,,,,,,
34429,1645651558.456235,2.0,0.0,4035.897461,4575.384765999999,4240.0,4268.717772999999,4206.153809,16236.0,3.0,55.0,,,,0.0,4.0,4.0,1.0,0.0,4.0,41.666668,,,,,,,,1.0,0.0,0.43421400000000004,0.541992,0.2146,-0.686768,0.944839,-0.177249,-0.32959499999999997,-0.018146000000000002,-0.049641000000000005,-0.036177999999999995,,,,,,,,,,,,,,,,,,,,,,,,,,,,,,,,,,,,,,,,,,,,,,,,,,,,,,,,,,,,,,,,,
34430,1645651558.464055,3.0,0.0,3988.718018,4924.102539,4256.922852000001,4271.282227000001,4257.94873,450.0,3.0,55.0,,,,0.0,4.0,4.0,1.0,0.0,4.0,41.666668,,,,,,,,,,,,,,,,,,,,,,,,,,,,,,,,,,,,,,,,,,,,,,,,,,,,,,,,,,,,,,,,,,,,,,,,,,,,,,,,,,,,
34431,1645651558.471875,4.0,0.0,3969.743652,5026.666504,4212.307617,4272.820313,4273.846191,16103.0,3.0,55.0,,,,0.0,4.0,4.0,1.0,0.0,4.0,41.666668,,,,,,,,2.0,0.0,0.43439799999999995,0.541748,0.214844,-0.686768,0.9472799999999999,-0.190921,-0.33105999999999997,-0.018724,-0.049706,-0.038274,,,,,,,,,,,,,,,,,,,,,,,,,,,,,,,,,,,0.0,0.0,1.0,0.0,512.0,1.0,,,,,,,,,,,,,,,,,,,,,,,,,
34432,1645651558.4796948,5.0,0.0,3946.1538090000004,4782.05127,4211.282227000001,4274.871582,4184.615234000001,450.0,3.0,55.0,,,,0.0,4.0,4.0,1.0,0.0,4.0,41.666668,,,,,,,,,,,,,,,,,,,,,,,,,,,,,,,,,,,,,,,,,,,,,,,,,,,,,,,,,,,,,,,,,,,,,,,,,,,,,,,,,,,,
34433,1645651558.487515,6.0,0.0,3942.5642090000006,4603.077147999999,4293.333496,4274.871582,4157.94873,65.0,3.0,55.0,,,,0.0,4.0,4.0,1.0,0.0,4.0,41.666668,,,,,,,,3.0,0.0,0.43421400000000004,0.541992,0.2146,-0.686768,0.939467,-0.192386,-0.321294,-0.019147,-0.049618999999999996,-0.033908999999999995,,,,,,,,,,,,,,,,,,,,,,,,,,,,,,,,,,,,,,,,,,,,,,,,,,,,,,,,,,,,,,,,,
34434,1645651558.4953349,7.0,0.0,4001.025635,4420.0,4354.871582,4270.769043,4189.743652,450.0,3.0,55.0,,,,0.0,4.0,4.0,1.0,0.0,4.0,41.666668,,,,,,,,,,,,,,,,,,,,,,,,,,,,,,,,,,,,,,,,,,,,,,,,,,,,,,,,,,,,,,,,,,,,,,,,,,,,,,,,,,,,
34435,1645651558.503156,8.0,0.0,4048.718018,4252.820313,4383.077147999999,4270.256348,4211.794922,450.0,3.0,55.0,,,,0.0,4.0,4.0,1.0,0.0,4.0,41.666668,0.972656,0.0,0.0,0.0,1.0,0.0,3.0,4.0,0.0,0.4346,0.541992,0.2146,-0.686523,0.9404440000000001,-0.174807,-0.320806,-0.017915,-0.04954,-0.036231,1.0,0.0,0.0,,,,,,,,,,,,,,,,,,,,,,,,,,,,,,,,0.0,0.0,1.0,0.0,512.0,1.0,6940.833495999999,442.878021,79.21021999999999,10.778107,8.858389,275.57379199999997,121.82046499999998,90.114006,178.499588,183.794876,126.488991,105.620544,10.03527,18.392212,7.604647,4.679464,0.5912390000000001,0.085989,0.060160000000000005,0.082342,219.25637799999998,45.72971,5.142575,7.643045,6.183784999999999
34436,1645651558.510976,9.0,0.0,4046.6667479999996,4309.230957,4291.282227000001,4267.692383,4238.461426,0.0,3.0,55.0,,,,0.0,4.0,4.0,1.0,0.0,4.0,41.666668,,,,,,,,,,,,,,,,,,,,,,,,,,,,,,,,,,,,,,,,,,,,,,,,,,,,,,,,,,,,,,,,,,,,,,,,,,,,,,,,,,,,
34437,1645651558.5187962,10.0,0.0,4030.256348,4564.102539,4244.615234000001,4265.128418,4227.692383,450.0,3.0,55.0,,,,0.0,4.0,4.0,1.0,0.0,4.0,41.666668,,,,,,,,5.0,0.0,0.4346,0.541992,0.2146,-0.686523,0.9433739999999999,-0.17773699999999998,-0.32422399999999996,-0.016808,-0.049615,-0.03837,,,,,,,,,,,,,,,,,,,,,,,,,,,,,,,,,,,,,,,,,,,,,,,,,,,,,,,,,,,,,,,,,
34438,1645651558.526616,11.0,0.0,3986.1538090000004,4847.179688,4273.333496,4270.769043,4198.974121,16301.0,3.0,55.0,,,,0.0,4.0,4.0,1.0,0.0,4.0,41.666668,,,,,,,,,,,,,,,,,,,,,,,,,,,,,,,,,,,,,,,,,,,,,,,,,,,,,,,,,,,,,,,,,,,,,,,,,,,,,,,,,,,,
34439,1645651558.534535,12.0,0.0,3945.641113,4973.846191,4244.102539,4272.820313,4224.615234000001,450.0,3.0,55.0,,,,0.0,4.0,4.0,1.0,0.0,4.0,41.666668,,,,,,,,6.0,0.0,0.4346,0.541992,0.2146,-0.686523,0.940932,-0.18115499999999998,-0.315923,-0.017422,-0.049585000000000004,-0.034045,,,,,,,,,,,,,,,,,,,,,,,,,,,,,,,,,,,0.0,0.0,1.0,0.0,512.0,1.0,,,,,,,,,,,,,,,,,,,,,,,,,
34440,1645651558.542355,13.0,0.0,3988.718018,4784.102539,4170.769043,4271.794922,4235.897461,450.0,3.0,55.0,,,,0.0,4.0,4.0,1.0,0.0,4.0,41.666668,,,,,,,,,,,,,,,,,,,,,,,,,,,,,,,,,,,,,,,,,,,,,,,,,,,,,,,,,,,,,,,,,,,,,,,,,,,,,,,,,,,,
34441,1645651558.550174,14.0,0.0,4009.2307130000004,4480.0,4209.230957,4275.384765999999,4174.871582,450.0,3.0,55.0,,,,0.0,4.0,4.0,1.0,0.0,4.0,41.666668,,,,,,,,7.0,0.0,0.4346,0.541992,0.2146,-0.686523,0.9365379999999999,-0.181643,-0.323735,-0.016363,-0.049656,-0.036451,,,,,,,,,,,,,,,,,,,,,,,,,,,,,,,,,,,,,,,,,,,,,,,,,,,,,,,,,,,,,,,,,
34442,1645651558.557993,15.0,0.0,4032.3076170000004,4515.897461,4249.230957,4275.384765999999,4153.846191,16301.0,3.0,55.0,,,,0.0,4.0,4.0,1.0,0.0,4.0,41.666668,,,,,,,,,,,,,,,,,,,,,,,,,,,,,,,,,,,,,,,,,,,,,,,,,,,,,,,,,,,,,,,,,,,,,,,,,,,,,,,,,,,,
34443,1645651558.565813,16.0,0.0,4065.641113,4631.794922,4215.384765999999,4267.179688,4190.256348,0.0,3.0,55.0,,,,0.0,4.0,4.0,1.0,0.0,4.0,41.666668,,,,,,,,8.0,0.0,0.4346,0.541992,0.2146,-0.686523,0.941909,-0.17969000000000002,-0.326177,-0.016924,-0.049573,-0.03847,,,,,,,,,,,,,,,,,,,,,,,,,,,,,,,,,,,0.0,0.0,1.0,0.0,512.0,1.0,,,,,,,,,,,,,,,,,,,,,,,,,
34444,1645651558.573632,17.0,0.0,4079.487061,4575.384765999999,4186.666504,4265.641113000001,4279.487305,0.0,3.0,55.0,,,,0.0,4.0,4.0,1.0,0.0,4.0,41.666668,,,,,,,,,,,,,,,,,,,,,,,,,,,,,,,,,,,,,,,,,,,,,,,,,,,,,,,,,,,,,,,,,,,,,,,,,,,,,,,,,,,,
34445,1645651558.581452,18.0,0.0,4069.743652,4711.282227000001,4176.410156,4269.743652,4329.743652,0.0,3.0,55.0,,,,0.0,4.0,4.0,1.0,0.0,4.0,41.666668,,,,,,,,9.0,0.0,0.4346,0.541992,0.2146,-0.686523,0.945815,-0.17773699999999998,-0.33105999999999997,-0.017429,-0.049548,-0.034183,,,,,,,,,,,,,,,,,,,,,,,,,,,,,,,,,,,,,,,,,,,,,,,,,,,,,,,,,,,,,,,,,
34446,1645651558.589271,19.0,0.0,4062.0512700000004,4831.282227000001,4234.358886999999,4273.333496,4293.333496,0.0,3.0,55.0,,,,0.0,4.0,4.0,1.0,0.0,4.0,41.666668,,,,,,,,,,,,,,,,,,,,,,,,,,,,,,,,,,,,,,,,,,,,,,,,,,,,,,,,,,,,,,,,,,,,,,,,,,,,,,,,,,,,
34447,1645651558.597091,20.0,0.0,4041.538574,4543.589844,4336.922852000001,4274.871582,4209.230957,0.0,3.0,55.0,,,,0.0,4.0,4.0,1.0,0.0,4.0,41.666668,,,,,,,,10.0,0.0,0.4346,0.541992,0.2146,-0.686523,0.931167,-0.181643,-0.32861799999999997,-0.016419,-0.049622,-0.036478,,,,,,,,,,,,,,,,,,,,,,,,,,,,,,,,,,,0.0,0.0,1.0,0.0,512.0,1.0,,,,,,,,,,,,,,,,,,,,,,,,,
34448,1645651558.60501,21.0,0.0,4077.9487299999996,4252.820313,4348.717772999999,4273.333496,4243.589844,0.0,3.0,55.0,,,,0.0,4.0,4.0,1.0,0.0,4.0,41.666668,,,,,,,,,,,,,,,,,,,,,,,,,,,,,,,,,,,,,,,,,,,,,,,,,,,,,,,,,,,,,,,,,,,,,,,,,,,,,,,,,,,,
34449,1645651558.612829,22.0,0.0,4105.641113000001,4240.512695,4261.538574,4269.230957,4281.025879,0.0,3.0,55.0,,,,0.0,4.0,4.0,1.0,0.0,4.0,41.666668,,,,,,,,11.0,0.0,0.4346,0.541992,0.2146,-0.686523,0.9404440000000001,-0.17773699999999998,-0.321782,-0.017169,-0.04969,-0.032488,,,,,,,,,,,,,,,,,,,,,,,,,,,,,,,,,,,,,,,,,,,,,,,,,,,,,,,,,,,,,,,,,
34450,1645651558.620649,23.0,0.0,4085.1281740000004,4402.05127,4309.743652,4268.717772999999,4236.410156,0.0,3.0,55.0,,,,0.0,4.0,4.0,1.0,0.0,4.0,41.666668,,,,,,,,,,,,,,,,,,,,,,,,,,,,,,,,,,,,,,,,,,,,,,,,,,,,,,,,,,,,,,,,,,,,,,,,,,,,,,,,,,,,
34451,1645651558.628468,24.0,0.0,4056.923096,4828.717772999999,4343.077147999999,4273.333496,4227.179688,0.0,3.0,55.0,,,,0.0,4.0,4.0,1.0,0.0,4.0,41.666668,,,,,,,,12.0,0.0,0.4346,0.541992,0.2146,-0.686523,0.947768,-0.180667,-0.330083,-0.016038,-0.04975,-0.035001,1.0,0.0,0.0,,,,,,,,,,,,,,,,,,,,,,,,,,,,,,,,0.0,0.0,1.0,0.0,512.0,1.0,4965.082031,327.746552,57.362579000000004,9.379149,8.059517999999999,361.218323,170.65335100000001,127.84403200000001,214.89248700000002,177.176376,118.879051,101.791016,10.007924000000001,17.631851,8.330442999999999,3.054157,0.42895900000000003,0.06957100000000001,0.064338,0.07703099999999999,230.39637799999997,50.960419,5.62833,8.891843,6.217144
34452,1645651558.636287,25.0,0.0,4068.718018,5056.410156,4297.436035,4277.94873,4289.743652,0.0,3.0,55.0,,,,0.0,4.0,4.0,1.0,0.0,4.0,41.666668,,,,,,,,,,,,,,,,,,,,,,,,,,,,,,,,,,,,,,,,,,,,,,,,,,,,,,,,,,,,,,,,,,,,,,,,,,,,,,,,,,,,
34453,1645651558.644107,26.0,0.0,4090.7692869999996,4608.717772999999,4286.153809,4276.410156,4276.922852000001,0.0,3.0,55.0,,,,0.0,4.0,4.0,1.0,0.0,4.0,41.666668,,,,,,,,13.0,0.0,0.4346,0.541992,0.2146,-0.686523,0.9511860000000001,-0.181643,-0.318853,-0.016632,-0.049658,-0.037165,,,,,,,,,,,,,,,,,,,,,,,,,,,,,,,,,,,,,,,,,,,,,,,,,,,,,,,,,,,,,,,,,
34454,1645651558.651926,27.0,0.0,4081.025635,4214.358886999999,4340.0,4271.794922,4175.897461,0.0,3.0,55.0,,,,0.0,4.0,4.0,1.0,0.0,4.0,41.666668,,,,,,,,,,,,,,,,,,,,,,,,,,,,,,,,,,,,,,,,,,,,,,,,,,,,,,,,,,,,,,,,,,,,,,,,,,,,,,,,,,,,
34455,1645651558.6597462,28.0,0.0,4086.6667479999996,4434.871582,4286.666504,4269.230957,4157.94873,0.0,3.0,55.0,,,,0.0,4.0,4.0,1.0,0.0,4.0,41.666668,,,,,,,,14.0,0.0,0.434985,0.541992,0.2146,-0.686279,0.9472799999999999,-0.17383099999999999,-0.32959499999999997,-0.017312,-0.049673,-0.039307999999999996,,,,,,,,,,,,,,,,,,,,,,,,,,,,,,,,,,,0.0,0.0,1.0,0.0,512.0,1.0,,,,,,,,,,,,,,,,,,,,,,,,,
34456,1645651558.667565,29.0,0.0,4094.358887,4919.487305,4199.487305,4269.743652,4246.153809,0.0,3.0,55.0,,,,0.0,4.0,4.0,1.0,0.0,4.0,41.666668,,,,,,,,,,,,,,,,,,,,,,,,,,,,,,,,,,,,,,,,,,,,,,,,,,,,,,,,,,,,,,,,,,,,,,,,,,,,,,,,,,,,
34457,1645651558.675485,30.0,0.0,4076.923096,4949.230957,4196.410156,4271.794922,4284.615234000001,0.0,3.0,55.0,,,,0.0,4.0,4.0,1.0,0.0,4.0,41.666668,,,,,,,,15.0,0.0,0.434985,0.541992,0.2146,-0.686279,0.956558,-0.185061,-0.332525,-0.016314,-0.049637,-0.041237,,,,,,,,,,,,,,,,,,,,,,,,,,,,,,,,,,,,,,,,,,,,,,,,,,,,,,,,,,,,,,,,,
34458,1645651558.683305,31.0,0.0,4064.102539,4416.922852000001,4237.94873,4274.871582,4213.846191,0.0,3.0,55.0,,,,0.0,4.0,4.0,1.0,0.0,4.0,41.666668,,,,,,,,,,,,,,,,,,,,,,,,,,,,,,,,,,,,,,,,,,,,,,,,,,,,,,,,,,,,,,,,,,,,,,,,,,,,,,,,,,,,
34459,1645651558.691125,32.0,0.0,4132.820313,4251.282227000001,4212.307617,4275.384765999999,4219.487305,0.0,3.0,55.0,,,,0.0,4.0,4.0,1.0,0.0,4.0,41.666668,,,,,,,,16.0,0.0,0.434985,0.541992,0.2146,-0.686279,0.933608,-0.177249,-0.32861799999999997,-0.016880000000000003,-0.049654000000000004,-0.036576,,,,,,,,,,,,,,,,,,,,,,,,,,,,,,,,,,,0.0,0.0,1.0,0.0,512.0,1.0,,,,,,,,,,,,,,,,,,,,,,,,,
34460,1645651558.6989448,33.0,0.0,4167.179688,4731.282227000001,4156.410156,4269.743652,4306.666504,0.0,3.0,55.0,,,,0.0,4.0,4.0,1.0,0.0,4.0,41.666668,,,,,,,,,,,,,,,,,,,,,,,,,,,,,,,,,,,,,,,,,,,,,,,,,,,,,,,,,,,,,,,,,,,,,,,,,,,,,,,,,,,,
34461,1645651558.706765,34.0,0.0,4122.05127,4938.461426,4211.794922,4269.743652,4329.743652,0.0,3.0,55.0,,,,0.0,4.0,4.0,1.0,0.0,4.0,41.666668,,,,,,,,17.0,0.0,0.43537,0.541992,0.2146,-0.6860350000000001,0.9463030000000001,-0.18555,-0.326177,-0.015875,-0.049767,-0.03868,,,,,,,,,,,,,,,,,,,,,,,,,,,,,,,,,,,,,,,,,,,,,,,,,,,,,,,,,,,,,,,,,
34462,1645651558.7145839,35.0,0.0,4070.256348,4646.153809,4306.666504,4278.461426,4242.563965,0.0,3.0,55.0,,,,0.0,4.0,4.0,1.0,0.0,4.0,41.666668,,,,,,,,,,,,,,,,,,,,,,,,,,,,,,,,,,,,,,,,,,,,,,,,,,,,,,,,,,,,,,,,,,,,,,,,,,,,,,,,,,,,
34463,1645651558.722404,36.0,0.0,4123.077147999999,4450.256348,4286.153809,4280.0,4257.94873,0.0,3.0,55.0,,,,0.0,4.0,4.0,1.0,0.0,4.0,41.666668,,,,,,,,18.0,0.0,0.43537,0.541992,0.2146,-0.6860350000000001,0.9472799999999999,-0.185061,-0.336431,-0.016631,-0.049770999999999996,-0.034324,,,,,,,,,,,,,,,,,,,,,,,,,,,,,,,,,,,0.0,0.0,1.0,0.0,512.0,1.0,,,,,,,,,,,,,,,,,,,,,,,,,
34464,1645651558.7302241,37.0,0.0,4196.922852000001,4417.436035,4228.717772999999,4270.256348,4310.256348,0.0,3.0,55.0,,,,0.0,4.0,4.0,1.0,0.0,4.0,41.666668,,,,,,,,,,,,,,,,,,,,,,,,,,,,,,,,,,,,,,,,,,,,,,,,,,,,,,,,,,,,,,,,,,,,,,,,,,,,,,,,,,,,
34465,1645651558.738044,38.0,0.0,4174.871582,4473.333496,4320.512695,4267.179688,4273.846191,0.0,3.0,55.0,,,,0.0,4.0,4.0,1.0,0.0,4.0,41.666668,,,,,,,,19.0,0.0,0.43537,0.541992,0.2146,-0.6860350000000001,0.9511860000000001,-0.184085,-0.3252,-0.015603,-0.049676,-0.036702,,,,,,,,,,,,,,,,,,,,,,,,,,,,,,,,,,,,,,,,,,,,,,,,,,,,,,,,,,,,,,,,,
34466,1645651558.745963,39.0,0.0,4087.6923829999996,4783.589844,4361.538574,4275.384765999999,4235.897461,0.0,3.0,55.0,,,,0.0,4.0,4.0,1.0,0.0,4.0,41.666668,,,,,,,,,,,,,,,,,,,,,,,,,,,,,,,,,,,,,,,,,,,,,,,,,,,,,,,,,,,,,,,,,,,,,,,,,,,,,,,,,,,,
34467,1645651558.753783,40.0,0.0,4095.384521,4910.256348,4321.025879,4278.461426,4293.846191,0.0,3.0,55.0,,,,0.0,4.0,4.0,1.0,0.0,4.0,41.666668,,,,,,,,20.0,0.0,0.43537,0.541992,0.2146,-0.6860350000000001,0.95314,-0.191897,-0.3252,-0.014726,-0.049738,-0.038696,1.0,0.0,0.0,,,,,,,,,,,,,,,,,,,,,,,,,,,,,,,,0.0,0.0,1.0,0.0,512.0,1.0,3528.407227,247.653244,40.822639,9.023143,6.96443,450.547852,220.478806,213.581039,249.30725099999998,161.903946,115.32298999999999,101.405624,9.944782,16.335569,8.636749,1.9648900000000002,0.305541,0.069276,0.067678,0.070143,223.433929,53.714645,6.531569999999999,10.139617,5.9321269999999995
34468,1645651558.761602,41.0,0.0,4131.282227000001,4487.692383,4309.230957,4274.871582,4286.153809,0.0,3.0,55.0,,,,0.0,4.0,4.0,1.0,0.0,4.0,41.666668,,,,,,,,,,,,,,,,,,,,,,,,,,,,,,,,,,,,,,,,,,,,,,,,,,,,,,,,,,,,,,,,,,,,,,,,,,,,,,,,,,,,
34469,1645651558.769422,42.0,0.0,4115.384765999999,4207.692383,4361.538574,4274.871582,4184.102539,0.0,3.0,55.0,,,,0.0,4.0,4.0,1.0,0.0,4.0,41.666668,,,,,,,,21.0,0.0,0.43537,0.541992,0.2146,-0.6860350000000001,0.9472799999999999,-0.185061,-0.336431,-0.015549,-0.049745,-0.034436,,,,,,,,,,,,,,,,,,,,,,,,,,,,,,,,,,,,,,,,,,,,,,,,,,,,,,,,,,,,,,,,,
34470,1645651558.777241,43.0,0.0,4126.666504,4572.820313,4296.410156,4274.358886999999,4185.128418,0.0,3.0,55.0,,,,0.0,4.0,4.0,1.0,0.0,4.0,41.666668,,,,,,,,,,,,,,,,,,,,,,,,,,,,,,,,,,,,,,,,,,,,,,,,,,,,,,,,,,,,,,,,,,,,,,,,,,,,,,,,,,,,
34471,1645651558.78506,44.0,0.0,4134.358886999999,5011.794922,4226.153809,4268.205078,4282.563965,0.0,3.0,55.0,,,,0.0,4.0,4.0,1.0,0.0,4.0,41.666668,,,,,,,,22.0,0.0,0.43537,0.541992,0.2146,-0.6860350000000001,0.95314,-0.191897,-0.3252,-0.014677,-0.0498,-0.036656,,,,,,,,,,,,,,,,,,,,,,,,,,,,,,,,,,,0.0,0.0,1.0,0.0,512.0,1.0,,,,,,,,,,,,,,,,,,,,,,,,,
34472,1645651558.79288,45.0,0.0,4095.384521,4911.794922,4242.05127,4272.820313,4293.846191,0.0,3.0,55.0,,,,0.0,4.0,4.0,1.0,0.0,4.0,41.666668,,,,,,,,,,,,,,,,,,,,,,,,,,,,,,,,,,,,,,,,,,,,,,,,,,,,,,,,,,,,,,,,,,,,,,,,,,,,,,,,,,,,
34473,1645651558.800699,46.0,0.0,4076.4101560000004,4523.077147999999,4247.179688,4283.077147999999,4210.256348,0.0,3.0,55.0,,,,0.0,4.0,4.0,1.0,0.0,4.0,41.666668,,,,,,,,23.0,0.0,0.43537,0.541992,0.2146,-0.6860350000000001,0.9506979999999999,-0.18457300000000001,-0.336431,-0.015456000000000001,-0.049751,-0.038752999999999996,,,,,,,,,,,,,,,,,,,,,,,,,,,,,,,,,,,,,,,,,,,,,,,,,,,,,,,,,,,,,,,,,
34474,1645651558.808619,47.0,0.0,4172.820313,4422.05127,4187.692383,4278.461426,4222.05127,0.0,3.0,55.0,,,,0.0,4.0,4.0,1.0,0.0,4.0,41.666668,,,,,,,,,,,,,,,,,,,,,,,,,,,,,,,,,,,,,,,,,,,,,,,,,,,,,,,,,,,,,,,,,,,,,,,,,,,,,,,,,,,,
34475,1645651558.8164392,48.0,0.0,4237.94873,4692.307617,4157.436035,4267.179688,4308.205078,0.0,3.0,55.0,,,,0.0,4.0,4.0,1.0,0.0,4.0,41.666668,,,,,,,,24.0,0.0,0.435755,0.541992,0.2146,-0.685791,0.940932,-0.180667,-0.324712,-0.013959000000000001,-0.049757,-0.034487000000000004,,,,,,,,,,,,,,,,,,,,,,,,,,,,,,,,,,,0.0,0.0,1.0,0.0,512.0,1.0,,,,,,,,,,,,,,,,,,,,,,,,,
34476,1645651558.824259,49.0,0.0,4198.974121,4889.230957,4215.897461,4271.794922,4314.871582,0.0,3.0,55.0,,,,0.0,4.0,4.0,1.0,0.0,4.0,41.666668,,,,,,,,,,,,,,,,,,,,,,,,,,,,,,,,,,,,,,,,,,,,,,,,,,,,,,,,,,,,,,,,,,,,,,,,,,,,,,,,,,,,
34477,1645651558.832079,50.0,0.0,4122.05127,4654.871582,4289.743652,4282.563965,4247.179688,0.0,3.0,55.0,,,,0.0,4.0,4.0,1.0,0.0,4.0,41.666668,,,,,,,,25.0,0.0,0.435755,0.541992,0.2146,-0.685791,0.937514,-0.18115499999999998,-0.321782,-0.013247,-0.049762,-0.036751,,,,,,,,,,,,,,,,,,,,,,,,,,,,,,,,,,,,,,,,,,,,,,,,,,,,,,,,,,,,,,,,,
34478,1645651558.839899,51.0,0.0,4143.589844,4350.769043,4274.358886999999,4278.974121,4291.282227000001,0.0,3.0,55.0,,,,0.0,4.0,4.0,1.0,0.0,4.0,41.666668,,,,,,,,,,,,,,,,,,,,,,,,,,,,,,,,,,,,,,,,,,,,,,,,,,,,,,,,,,,,,,,,,,,,,,,,,,,,,,,,,,,,
34479,1645651558.847719,52.0,0.0,4212.820313,4462.05127,4217.94873,4267.692383,4344.615234000001,0.0,3.0,55.0,,,,0.0,4.0,4.0,1.0,0.0,4.0,41.666668,,,,,,,,26.0,0.0,0.43545100000000003,0.5422359999999999,0.2146,-0.685791,0.9487450000000001,-0.178225,-0.321782,-0.014216999999999999,-0.049864,-0.032685000000000006,,,,,,,,,,,,,,,,,,,,,,,,,,,,,,,,,,,0.0,0.0,1.0,0.0,512.0,1.0,,,,,,,,,,,,,,,,,,,,,,,,,
34480,1645651558.8555381,53.0,0.0,4214.358886999999,4772.820313,4269.230957,4267.692383,4313.846191,0.0,3.0,55.0,,,,0.0,4.0,4.0,1.0,0.0,4.0,41.666668,,,,,,,,,,,,,,,,,,,,,,,,,,,,,,,,,,,,,,,,,,,,,,,,,,,,,,,,,,,,,,,,,,,,,,,,,,,,,,,,,,,,
34481,1645651558.863358,54.0,0.0,4121.538574,4721.025879,4316.410156,4277.94873,4241.025879,0.0,3.0,55.0,,,,0.0,4.0,4.0,1.0,0.0,4.0,41.666668,,,,,,,,27.0,0.0,0.43545100000000003,0.5422359999999999,0.2146,-0.685791,0.936049,-0.176272,-0.320806,-0.015090000000000001,-0.049809,-0.035325,,,,,,,,,,,,,,,,,,,,,,,,,,,,,,,,,,,,,,,,,,,,,,,,,,,,,,,,,,,,,,,,,
34482,1645651558.871178,55.0,0.0,4109.743652,4432.820313,4332.820313,4280.512695,4222.05127,0.0,3.0,55.0,,,,0.0,4.0,4.0,1.0,0.0,4.0,41.666668,,,,,,,,,,,,,,,,,,,,,,,,,,,,,,,,,,,,,,,,,,,,,,,,,,,,,,,,,,,,,,,,,,,,,,,,,,,,,,,,,,,,
34483,1645651558.878998,56.0,0.0,4171.282227000001,4576.922852000001,4316.410156,4270.769043,4243.077147999999,0.0,3.0,55.0,,,,0.0,4.0,4.0,1.0,0.0,4.0,41.666668,,,,,,,,28.0,0.0,0.435755,0.541992,0.2146,-0.685791,0.9389790000000001,-0.17969000000000002,-0.319829,-0.015827,-0.049760000000000006,-0.037603,1.0,0.0,0.0,,,,,,,,,,,,,,,,,,,,,,,,,,,,,,,,0.0,0.0,1.0,0.0,512.0,1.0,2572.482178,195.280624,30.543976,9.648677000000001,5.996824,514.656921,263.034882,352.571747,296.79751600000003,146.455017,115.289978,104.272766,10.177973,14.843604999999998,8.695433999999999,1.3744100000000001,0.23019499999999998,0.087291,0.07413099999999999,0.063516,194.29611200000002,53.3638,8.110299000000001,11.385062,5.525078
34484,1645651558.8869169,57.0,0.0,4165.128418,4993.333496,4313.846191,4269.743652,4286.153809,0.0,3.0,55.0,,,,0.0,4.0,4.0,1.0,0.0,4.0,41.666668,,,,,,,,,,,,,,,,,,,,,,,,,,,,,,,,,,,,,,,,,,,,,,,,,,,,,,,,,,,,,,,,,,,,,,,,,,,,,,,,,,,,
34485,1645651558.894736,58.0,0.0,4125.128418,4855.384765999999,4304.615234000001,4278.974121,4275.897461,0.0,3.0,55.0,,,,0.0,4.0,4.0,1.0,0.0,4.0,41.666668,,,,,,,,29.0,0.0,0.435755,0.541992,0.2146,-0.685791,0.9433739999999999,-0.183597,-0.318853,-0.014928,-0.049716,-0.039556,,,,,,,,,,,,,,,,,,,,,,,,,,,,,,,,,,,,,,,,,,,,,,,,,,,,,,,,,,,,,,,,,
34486,1645651558.902556,59.0,0.0,4173.333496,4360.512695,4348.717772999999,4279.487305,4207.692383,0.0,3.0,55.0,,,,0.0,4.0,4.0,1.0,0.0,4.0,41.666668,,,,,,,,,,,,,,,,,,,,,,,,,,,,,,,,,,,,,,,,,,,,,,,,,,,,,,,,,,,,,,,,,,,,,,,,,,,,,,,,,,,,
34487,1645651558.910375,60.0,0.0,4217.436035,4455.384765999999,4292.307617,4272.307617,4220.512695,0.0,3.0,55.0,,,,0.0,4.0,4.0,1.0,0.0,4.0,41.666668,,,,,,,,30.0,0.0,0.435755,0.541992,0.2146,-0.685791,0.939467,-0.18555,-0.313481,-0.015778999999999998,-0.049725,-0.035063,,,,,,,,,,,,,,,,,,,,,,,,,,,,,,,,,,,0.0,0.0,1.0,0.0,512.0,1.0,,,,,,,,,,,,,,,,,,,,,,,,,
34488,1645651558.918194,61.0,0.0,4138.461426,4914.358886999999,4203.589844,4274.871582,4274.358886999999,0.0,3.0,55.0,,,,0.0,4.0,4.0,1.0,0.0,4.0,41.666668,,,,,,,,,,,,,,,,,,,,,,,,,,,,,,,,,,,,,,,,,,,,,,,,,,,,,,,,,,,,,,,,,,,,,,,,,,,,,,,,,,,,
34489,1645651558.926013,62.0,0.0,4101.025879,4738.461426,4246.666504,4278.461426,4254.358886999999,0.0,3.0,55.0,,,,0.0,4.0,4.0,1.0,0.0,4.0,41.666668,,,,,,,,31.0,0.0,0.435875,0.541992,0.21435500000000002,-0.685791,0.9340959999999999,-0.180667,-0.323735,-0.016496,-0.049928,-0.037123,,,,,,,,,,,,,,,,,,,,,,,,,,,,,,,,,,,,,,,,,,,,,,,,,,,,,,,,,,,,,,,,,
34490,1645651558.933832,63.0,0.0,4166.153809,4197.94873,4279.487305,4272.307617,4214.871582,0.0,3.0,55.0,,,,0.0,4.0,4.0,1.0,0.0,4.0,41.666668,,,,,,,,,,,,,,,,,,,,,,,,,,,,,,,,,,,,,,,,,,,,,,,,,,,,,,,,,,,,,,,,,,,,,,,,,,,,,,,,,,,,
34491,1645651558.9416509,64.0,0.0,4225.641113000001,4326.153809,4181.538574,4269.743652,4293.846191,450.0,3.0,55.0,,,,0.0,4.0,4.0,1.0,0.0,4.0,41.666668,,,,,,,,32.0,0.0,0.435875,0.541992,0.21435500000000002,-0.685791,0.949722,-0.194339,-0.33350100000000005,-0.017093,-0.049867,-0.032825,,,,,,,,,,,,,,,,,,,,,,,,,,,,,,,,,,,0.0,0.0,1.0,0.0,512.0,1.0,,,,,,,,,,,,,,,,,,,,,,,,,
34492,1645651558.9495711,65.0,0.0,4181.538574,4851.794922,4117.436035,4275.384765999999,4352.820313,450.0,3.0,55.0,,,,0.0,4.0,4.0,1.0,0.0,4.0,41.666668,,,,,,,,,,,,,,,,,,,,,,,,,,,,,,,,,,,,,,,,,,,,,,,,,,,,,,,,,,,,,,,,,,,,,,,,,,,,,,,,,,,,
34493,1645651558.957392,66.0,0.0,4202.05127,4769.230957,4186.666504,4277.94873,4309.743652,16354.0,3.0,55.0,,,,0.0,4.0,4.0,1.0,0.0,4.0,41.666668,,,,,,,,33.0,0.0,0.435875,0.541992,0.21435500000000002,-0.685791,0.941421,-0.190921,-0.311528,-0.01763,-0.049861,-0.029200999999999998,,,,,,,,,,,,,,,,,,,,,,,,,,,,,,,,,,,,,,,,,,,,,,,,,,,,,,,,,,,,,,,,,
34494,1645651558.9652119,67.0,0.0,4281.538574,4429.743652,4246.666504,4271.282227000001,4253.333496,450.0,3.0,55.0,,,,0.0,4.0,4.0,1.0,0.0,4.0,41.666668,,,,,,,,,,,,,,,,,,,,,,,,,,,,,,,,,,,,,,,,,,,,,,,,,,,,,,,,,,,,,,,,,,,,,,,,,,,,,,,,,,,,
34495,1645651558.973032,68.0,1.0,4264.615234000001,4497.436035,4244.444336,4271.794922,4255.099609000001,16103.0,3.0,55.0,,,,0.0,4.0,4.0,1.0,0.0,4.0,41.666668,,,,,,,,34.0,1.0,0.43582200000000004,0.541992,0.21430700000000003,-0.68584,0.9406389999999999,-0.185745,-0.31553200000000003,-0.017756,-0.04985,-0.029758999999999997,,,,,,,,,,,,,,,,,,,,,,,,,,,,,,,,,,,0.0,0.0,1.0,0.0,512.0,1.0,,,,,,,,,,,,,,,,,,,,,,,,,
34496,1645651558.980852,69.0,1.0,4247.692383,4565.128418,4242.222168,4272.307617,4256.866211,450.0,3.0,55.0,,,,0.0,4.0,4.0,1.0,0.0,4.0,41.666668,,,,,,,,,,,,,,,,,,,,,,,,,,,,,,,,,,,,,,,,,,,,,,,,,,,,,,,,,,,,,,,,,,,,,,,,,,,,,,,,,,,,
34497,1645651558.988672,70.0,1.0,4230.769043,4632.820313,4240.0,4272.820313,4258.632324,65.0,3.0,55.0,,,,0.0,4.0,4.0,1.0,0.0,4.0,41.666668,,,,,,,,35.0,1.0,0.43576899999999996,0.541992,0.214258,-0.6858890000000001,0.939858,-0.180569,-0.319536,-0.017881,-0.049839,-0.030318,,,,,,,,,,,,,,,,,,,,,,,,,,,,,,,,,,,,,,,,,,,,,,,,,,,,,,,,,,,,,,,,,
34498,1645651558.996492,71.0,1.0,4213.846191,4700.512695,4237.777832,4273.333496,4260.398926,450.0,3.0,55.0,,,,0.0,4.0,4.0,1.0,0.0,4.0,41.666668,,,,,,,,,,,,,,,,,,,,,,,,,,,,,,,,,,,,,,,,,,,,,,,,,,,,,,,,,,,,,,,,,,,,,,,,,,,,,,,,,,,,
34499,1645651559.0043118,72.0,1.0,4196.922852000001,4768.205078,4235.555664,4273.846191,4262.165039,450.0,3.0,55.0,,,,0.0,4.0,4.0,1.0,0.0,4.0,41.666668,0.953125,0.0,0.0,0.0,1.0,0.0,1.0,36.0,1.0,0.435716,0.541992,0.214209,-0.685938,0.939077,-0.175393,-0.32354,-0.018007,-0.049828,-0.030876,1.0,0.0,0.0,1.0,0.179812,-0.171468,-0.5767760000000001,2.028163,1.0,0.35117800000000005,4.8442300000000005,1.231269,11.037092,0.47007600000000005,1.0,0.434567,-0.121563,-0.289883,0.10645,1.0,0.484658,0.642267,-0.7259439999999999,2.049886,1.0,0.548772,15.354223000000001,-95.21157,107.37105700000001,1.0,0.137128,0.506009,0.490623,0.7044739999999999,0.0,0.0,1.0,0.0,512.0,1.0,1837.116089,152.781326,24.759878,10.946049,5.4812080000000005,532.804504,292.74377400000003,525.875366,375.14151,142.524109,117.10741399999999,109.380127,10.814094,13.383834,8.844041,1.031758,0.187727,0.11775999999999999,0.08769,0.05924,147.708694,49.710602,10.263532000000001,12.671435,5.355725
34500,1645651559.012132,73.0,1.0,4180.0,4835.897461,4233.333496,4274.358886999999,4263.931640999999,0.0,3.0,55.0,,,,0.0,4.0,4.0,1.0,0.0,4.0,41.666668,,,,,,,,,,,,,,,,,,,,,,,,,,,,,,,,,,,,,,,,,,,,,,,,,,,,,,,,,,,,,,,,,,,,,,,,,,,,,,,,,,,,
34501,1645651559.019953,74.0,1.0,4163.077147999999,4903.589844,4231.111328,4274.871582,4265.698242,450.0,3.0,55.0,,,,0.0,4.0,4.0,1.0,0.0,4.0,41.666668,,,,,,,,37.0,1.0,0.435663,0.541992,0.21416,-0.685986,0.9382959999999999,-0.170217,-0.327544,-0.018133,-0.049817,-0.031435000000000005,,,,,,,,,,,,,,,,,,,,,,,,,,,,,,,,,,,,,,,,,,,,,,,,,,,,,,,,,,,,,,,,,
34502,1645651559.0277731,75.0,1.0,4146.153809,4971.282227000001,4228.888672,4275.384765999999,4267.464355,16301.0,3.0,55.0,,,,0.0,4.0,4.0,1.0,0.0,4.0,41.666668,,,,,,,,,,,,,,,,,,,,,,,,,,,,,,,,,,,,,,,,,,,,,,,,,,,,,,,,,,,,,,,,,,,,,,,,,,,,,,,,,,,,
34503,1645651559.035593,76.0,0.0,4129.230957,5038.974121,4226.666504,4275.897461,4269.230957,450.0,3.0,55.0,,,,0.0,4.0,4.0,1.0,0.0,4.0,41.666668,,,,,,,,38.0,0.0,0.43561099999999997,0.541992,0.21411100000000002,-0.6860350000000001,0.937514,-0.165042,-0.331548,-0.018259,-0.049806,-0.031994,,,,,,,,,,,,,,,,,,,,,,,,,,,,,,,,,,,0.0,0.0,1.0,0.0,512.0,1.0,,,,,,,,,,,,,,,,,,,,,,,,,
34504,1645651559.0434132,77.0,0.0,4150.256348,4730.256348,4212.307617,4278.974121,4286.153809,450.0,3.0,55.0,,,,0.0,4.0,4.0,1.0,0.0,4.0,41.666668,,,,,,,,,,,,,,,,,,,,,,,,,,,,,,,,,,,,,,,,,,,,,,,,,,,,,,,,,,,,,,,,,,,,,,,,,,,,,,,,,,,,
34505,1645651559.051233,78.0,0.0,4237.94873,4430.769043,4251.794922,4271.794922,4260.512695,450.0,3.0,55.0,,,,0.0,4.0,4.0,1.0,0.0,4.0,41.666668,,,,,,,,39.0,0.0,0.43561099999999997,0.541992,0.21411100000000002,-0.6860350000000001,0.9521629999999999,-0.18262,-0.32422399999999996,-0.017117,-0.049757,-0.034457999999999996,,,,,,,,,,,,,,,,,,,,,,,,,,,,,,,,,,,,,,,,,,,,,,,,,,,,,,,,,,,,,,,,,
34506,1645651559.059053,79.0,0.0,4256.410156,4627.692383,4226.666504,4270.256348,4253.333496,16329.0,3.0,55.0,,,,0.0,4.0,4.0,1.0,0.0,4.0,41.666668,,,,,,,,,,,,,,,,,,,,,,,,,,,,,,,,,,,,,,,,,,,,,,,,,,,,,,,,,,,,,,,,,,,,,,,,,,,,,,,,,,,,
34507,1645651559.066768,80.0,0.0,4171.282227000001,4796.410156,4182.563965,4278.974121,4287.179688,450.0,3.0,55.0,,,,0.0,4.0,4.0,1.0,0.0,4.0,41.666668,,,,,,,,40.0,0.0,0.43561099999999997,0.541992,0.21411100000000002,-0.6860350000000001,0.9438620000000001,-0.181643,-0.318853,-0.017603,-0.049713,-0.036823,,,,,,,,,,,,,,,,,,,,,,,,,,,,,,,,,,,0.0,0.0,1.0,0.0,512.0,1.0,,,,,,,,,,,,,,,,,,,,,,,,,
34508,1645651559.074584,81.0,0.0,4177.94873,4581.538574,4235.384765999999,4280.0,4288.717772999999,450.0,3.0,55.0,,,,0.0,4.0,4.0,1.0,0.0,4.0,41.666668,,,,,,,,,,,,,,,,,,,,,,,,,,,,,,,,,,,,,,,,,,,,,,,,,,,,,,,,,,,,,,,,,,,,,,,,,,,,,,,,,,,,
34509,1645651559.0823991,82.0,0.0,4253.333496,4230.769043,4275.897461,4271.282227000001,4248.717772999999,450.0,3.0,55.0,,,,0.0,4.0,4.0,1.0,0.0,4.0,41.666668,,,,,,,,41.0,0.0,0.43573,0.541992,0.213867,-0.6860350000000001,0.9404440000000001,-0.180179,-0.316411,-0.018234999999999998,-0.049625,-0.032604,,,,,,,,,,,,,,,,,,,,,,,,,,,,,,,,,,,,,,,,,,,,,,,,,,,,,,,,,,,,,,,,,
34510,1645651559.090214,83.0,0.0,4270.256348,4292.307617,4235.384765999999,4269.743652,4311.282227000001,16329.0,3.0,55.0,,,,0.0,4.0,4.0,1.0,0.0,4.0,41.666668,,,,,,,,,,,,,,,,,,,,,,,,,,,,,,,,,,,,,,,,,,,,,,,,,,,,,,,,,,,,,,,,,,,,,,,,,,,,,,,,,,,,
34511,1645651559.098029,84.0,0.0,4198.974121,4774.358886999999,4184.102539,4274.871582,4355.384765999999,450.0,3.0,55.0,,,,0.0,4.0,4.0,1.0,0.0,4.0,41.666668,,,,,,,,42.0,0.0,0.435346,0.541992,0.213867,-0.686279,0.9433739999999999,-0.192386,-0.320317,-0.018706,-0.049643,-0.034959,,,,,,,,,,,,,,,,,,,,,,,,,,,,,,,,,,,0.0,0.0,1.0,0.0,512.0,1.0,,,,,,,,,,,,,,,,,,,,,,,,,
34512,1645651559.105844,85.0,0.0,4188.205078,4857.94873,4245.641113000001,4277.94873,4305.641113000001,450.0,3.0,55.0,,,,0.0,4.0,4.0,1.0,0.0,4.0,41.666668,,,,,,,,,,,,,,,,,,,,,,,,,,,,,,,,,,,,,,,,,,,,,,,,,,,,,,,,,,,,,,,,,,,,,,,,,,,,,,,,,,,,
34513,1645651559.1135619,86.0,0.0,4261.538574,4486.153809,4329.230957,4273.846191,4238.974121,450.0,3.0,55.0,,,,0.0,4.0,4.0,1.0,0.0,4.0,41.666668,,,,,,,,43.0,0.0,0.435226,0.541992,0.21411100000000002,-0.686279,0.9511860000000001,-0.191897,-0.324712,-0.019033,-0.04961,-0.037273,,,,,,,,,,,,,,,,,,,,,,,,,,,,,,,,,,,,,,,,,,,,,,,,,,,,,,,,,,,,,,,,,
34514,1645651559.12138,87.0,0.0,4274.358886999999,4562.05127,4349.743652,4268.717772999999,4267.179688,16329.0,3.0,55.0,,,,0.0,4.0,4.0,1.0,0.0,4.0,41.666668,,,,,,,,,,,,,,,,,,,,,,,,,,,,,,,,,,,,,,,,,,,,,,,,,,,,,,,,,,,,,,,,,,,,,,,,,,,,,,,,,,,,
34515,1645651559.1291971,88.0,0.0,4171.282227000001,4901.538574,4328.717772999999,4276.410156,4274.871582,450.0,3.0,55.0,,,,0.0,4.0,4.0,1.0,0.0,4.0,41.666668,,,,,,,,44.0,0.0,0.43561099999999997,0.541992,0.21411100000000002,-0.6860350000000001,0.956558,-0.17969000000000002,-0.32422399999999996,-0.017813,-0.049581,-0.039356999999999996,1.0,0.0,0.0,,,,,,,,,,,,,,,,,,,,,,,,,,,,,,,,0.0,0.0,1.0,0.0,512.0,1.0,1132.701294,109.29866000000001,21.17523,12.592926,5.588946,500.204529,308.513916,691.282104,490.335236,161.489777,119.64346299999998,115.03913100000001,11.587659,12.014528,9.410081,0.701759,0.156193,0.14865899999999999,0.109373,0.060632000000000005,95.966759,43.500622,12.408482000000001,13.991466,5.833876
34516,1645651559.137015,89.0,0.0,4172.307617,4686.666504,4340.512695,4284.615234000001,4226.666504,450.0,3.0,55.0,,,,0.0,4.0,4.0,1.0,0.0,4.0,41.666668,,,,,,,,,,,,,,,,,,,,,,,,,,,,,,,,,,,,,,,,,,,,,,,,,,,,,,,,,,,,,,,,,,,,,,,,,,,,,,,,,,,,
34517,1645651559.144833,90.0,0.0,4256.922852000001,4476.410156,4255.384765999999,4274.358886999999,4245.641113000001,450.0,3.0,55.0,,,,0.0,4.0,4.0,1.0,0.0,4.0,41.666668,,,,,,,,45.0,0.0,0.43573,0.541992,0.213867,-0.6860350000000001,0.946792,-0.175296,-0.320317,-0.01818,-0.049604,-0.034884,,,,,,,,,,,,,,,,,,,,,,,,,,,,,,,,,,,,,,,,,,,,,,,,,,,,,,,,,,,,,,,,,
34518,1645651559.1527538,91.0,1.0,4261.424316,4493.959961,4248.717772999999,4274.473145,4251.453125,2214.333252,3.0,55.0,,,,0.0,4.0,4.0,1.0,0.0,4.0,41.666668,,,,,,,,,,,,,,,,,,,,,,,,,,,,,,,,,,,,,,,,,,,,,,,,,,,,,,,,,,,,,,,,,,,,,,,,,,,,,,,,,,,,
34519,1645651559.160575,92.0,1.0,4265.925781,4511.509765999999,4242.05127,4274.586914,4257.265136999999,3978.6667479999996,3.0,55.0,,,,0.0,4.0,4.0,1.0,0.0,4.0,41.666668,,,,,,,,46.0,1.0,0.435654,0.541992,0.213867,-0.686084,0.945132,-0.172757,-0.319829,-0.018256,-0.049627,-0.035319,,,,,,,,,,,,,,,,,,,,,,,,,,,,,,,,,,,0.0,0.0,1.0,0.0,512.0,1.0,,,,,,,,,,,,,,,,,,,,,,,,,
34520,1645651559.1683972,93.0,1.0,4270.427246,4529.060059,4235.384765999999,4274.700684,4263.077147999999,5743.0,3.0,55.0,,,,0.0,4.0,4.0,1.0,0.0,4.0,41.666668,,,,,,,,,,,,,,,,,,,,,,,,,,,,,,,,,,,,,,,,,,,,,,,,,,,,,,,,,,,,,,,,,,,,,,,,,,,,,,,,,,,,
34521,1645651559.176218,94.0,1.0,4274.928711,4546.609863000001,4228.717772999999,4274.814941,4268.888672,7507.333495999999,3.0,55.0,,,,0.0,4.0,4.0,1.0,0.0,4.0,41.666668,,,,,,,,47.0,1.0,0.43557700000000005,0.541992,0.213867,-0.686133,0.943471,-0.170217,-0.319341,-0.018331999999999998,-0.049651,-0.035754,,,,,,,,,,,,,,,,,,,,,,,,,,,,,,,,,,,,,,,,,,,,,,,,,,,,,,,,,,,,,,,,,
34522,1645651559.184039,95.0,1.0,4279.430176,4564.159668,4222.05127,4274.928711,4274.700684,9271.666992,3.0,55.0,,,,0.0,4.0,4.0,1.0,0.0,4.0,41.666668,,,,,,,,,,,,,,,,,,,,,,,,,,,,,,,,,,,,,,,,,,,,,,,,,,,,,,,,,,,,,,,,,,,,,,,,,,,,,,,,,,,,
34523,1645651559.191861,96.0,1.0,4283.931640999999,4581.709473,4215.384765999999,4275.042969,4280.512695,11036.0,3.0,55.0,,,,0.0,4.0,4.0,1.0,0.0,4.0,41.666668,,,,,,,,48.0,1.0,0.4355,0.541992,0.213867,-0.686182,0.9418110000000001,-0.167678,-0.318853,-0.018408,-0.049674,-0.036189,,,,,,,,,,,,,,,,,,,,,,,,,,,,,,,,,,,0.0,0.0,1.0,0.0,512.0,1.0,,,,,,,,,,,,,,,,,,,,,,,,,
34524,1645651559.199682,97.0,1.0,4288.433105,4599.259277,4208.717772999999,4275.156738000001,4286.324707,12800.333008,3.0,55.0,,,,0.0,4.0,4.0,1.0,0.0,4.0,41.666668,,,,,,,,,,,,,,,,,,,,,,,,,,,,,,,,,,,,,,,,,,,,,,,,,,,,,,,,,,,,,,,,,,,,,,,,,,,,,,,,,,,,
34525,1645651559.2075028,98.0,1.0,4292.93457,4616.809082,4202.05127,4275.270508,4292.136719,14564.666991999999,3.0,55.0,,,,0.0,4.0,4.0,1.0,0.0,4.0,41.666668,,,,,,,,49.0,1.0,0.43542299999999995,0.541992,0.213867,-0.68623,0.9401510000000001,-0.165139,-0.318364,-0.018484,-0.049698,-0.036625,,,,,,,,,,,,,,,,,,,,,,,,,,,,,,,,,,,,,,,,,,,,,,,,,,,,,,,,,,,,,,,,,
34526,1645651559.215325,99.0,0.0,4297.436035,4634.358886999999,4195.384765999999,4275.384765999999,4297.94873,16329.0,3.0,55.0,,,,0.0,4.0,4.0,1.0,0.0,4.0,41.666668,,,,,,,,,,,,,,,,,,,,,,,,,,,,,,,,,,,,,,,,,,,,,,,,,,,,,,,,,,,,,,,,,,,,,,,,,,,,,,,,,,,,
34527,1645651559.2231462,100.0,0.0,4288.205078,4512.820313,4242.563965,4272.820313,4289.743652,450.0,3.0,55.0,,,,0.0,4.0,4.0,1.0,0.0,4.0,41.666668,,,,,,,,50.0,0.0,0.435346,0.541992,0.213867,-0.686279,0.938491,-0.1626,-0.31787600000000005,-0.01856,-0.049721,-0.03706,,,,,,,,,,,,,,,,,,,,,,,,,,,,,,,,,,,0.0,0.0,1.0,0.0,512.0,1.0,,,,,,,,,,,,,,,,,,,,,,,,,
34528,1645651559.230967,101.0,0.0,4295.897461,4572.307617,4277.94873,4276.922852000001,4250.769043,450.0,3.0,55.0,,,,0.0,4.0,4.0,1.0,0.0,4.0,41.666668,,,,,,,,,,,,,,,,,,,,,,,,,,,,,,,,,,,,,,,,,,,,,,,,,,,,,,,,,,,,,,,,,,,,,,,,,,,,,,,,,,,,
34529,1645651559.238789,102.0,0.0,4293.846191,4506.153809,4332.820313,4278.974121,4231.794922,450.0,3.0,55.0,,,,0.0,4.0,4.0,1.0,0.0,4.0,41.666668,,,,,,,,51.0,0.0,0.434961,0.541992,0.213867,-0.686523,0.937514,-0.166995,-0.332525,-0.018900999999999998,-0.049681,-0.032817,,,,,,,,,,,,,,,,,,,,,,,,,,,,,,,,,,,,,,,,,,,,,,,,,,,,,,,,,,,,,,,,,
34530,1645651559.24661,103.0,0.0,4228.205078,4565.641113000001,4320.512695,4276.410156,4227.179688,16329.0,3.0,55.0,,,,0.0,4.0,4.0,1.0,0.0,4.0,41.666668,,,,,,,,,,,,,,,,,,,,,,,,,,,,,,,,,,,,,,,,,,,,,,,,,,,,,,,,,,,,,,,,,,,,,,,,,,,,,,,,,,,,
34531,1645651559.254431,104.0,0.0,4232.307617,4687.179688,4313.333496,4278.461426,4234.871582,450.0,3.0,55.0,,,,0.0,4.0,4.0,1.0,0.0,4.0,41.666668,,,,,,,,52.0,0.0,0.435346,0.541992,0.213867,-0.686279,0.933608,-0.17969000000000002,-0.335943,-0.019257,-0.049645,-0.035297,1.0,0.0,0.0,,,,,,,,,,,,,,,,,,,,,,,,,,,,,,,,0.0,0.0,1.0,0.0,512.0,1.0,528.61731,66.742561,19.517944,14.341882,6.339008,427.608093,312.21002200000004,801.250671,624.6724849999999,210.220657,122.350822,118.826622,12.107877,10.786999,10.550635,0.374079,0.12626300000000001,0.167246,0.13525299999999998,0.07115,53.959637,35.975437,13.921759,15.197026999999999,7.197722
34532,1645651559.262253,105.0,0.0,4264.102539,4736.410156,4322.05127,4281.025879,4255.897461,450.0,3.0,55.0,,,,0.0,4.0,4.0,1.0,0.0,4.0,41.666668,,,,,,,,,,,,,,,,,,,,,,,,,,,,,,,,,,,,,,,,,,,,,,,,,,,,,,,,,,,,,,,,,,,,,,,,,,,,,,,,,,,,
34533,1645651559.2700741,106.0,0.0,4225.641113000001,4749.230957,4336.410156,4276.922852000001,4252.820313,450.0,3.0,55.0,,,,0.0,4.0,4.0,1.0,0.0,4.0,41.666668,,,,,,,,53.0,0.0,0.435346,0.541992,0.213867,-0.686279,0.946792,-0.170413,-0.323735,-0.01948,-0.049513999999999996,-0.03748,,,,,,,,,,,,,,,,,,,,,,,,,,,,,,,,,,,,,,,,,,,,,,,,,,,,,,,,,,,,,,,,,
34534,1645651559.277791,107.0,0.0,4208.205078,4755.897461,4273.333496,4274.358886999999,4232.820313,16329.0,3.0,55.0,,,,0.0,4.0,4.0,1.0,0.0,4.0,41.666668,,,,,,,,,,,,,,,,,,,,,,,,,,,,,,,,,,,,,,,,,,,,,,,,,,,,,,,,,,,,,,,,,,,,,,,,,,,,,,,,,,,,
34535,1645651559.285607,108.0,0.0,4246.153809,4829.230957,4238.461426,4277.94873,4266.153809,450.0,3.0,55.0,,,,0.0,4.0,4.0,1.0,0.0,4.0,41.666668,,,,,,,,54.0,0.0,0.435226,0.541992,0.21411100000000002,-0.686279,0.949722,-0.176272,-0.323247,-0.018264,-0.049446,-0.039445,,,,,,,,,,,,,,,,,,,,,,,,,,,,,,,,,,,0.0,0.0,1.0,0.0,512.0,1.0,,,,,,,,,,,,,,,,,,,,,,,,,
34536,1645651559.2934241,109.0,0.0,4279.487305,4774.871582,4249.743652,4278.461426,4326.153809,450.0,3.0,55.0,,,,0.0,4.0,4.0,1.0,0.0,4.0,41.666668,,,,,,,,,,,,,,,,,,,,,,,,,,,,,,,,,,,,,,,,,,,,,,,,,,,,,,,,,,,,,,,,,,,,,,,,,,,,,,,,,,,,
34537,1645651559.30124,110.0,0.0,4281.025879,4662.05127,4237.94873,4272.820313,4322.05127,450.0,3.0,55.0,,,,0.0,4.0,4.0,1.0,0.0,4.0,41.666668,,,,,,,,55.0,0.0,0.43553000000000003,0.541748,0.21411100000000002,-0.686279,0.9521629999999999,-0.17383099999999999,-0.32813000000000003,-0.018684,-0.049482,-0.03511,,,,,,,,,,,,,,,,,,,,,,,,,,,,,,,,,,,,,,,,,,,,,,,,,,,,,,,,,,,,,,,,,
34538,1645651559.309057,111.0,0.0,4296.410156,4690.256348,4198.461426,4274.871582,4295.897461,16329.0,3.0,55.0,,,,0.0,4.0,4.0,1.0,0.0,4.0,41.666668,,,,,,,,,,,,,,,,,,,,,,,,,,,,,,,,,,,,,,,,,,,,,,,,,,,,,,,,,,,,,,,,,,,,,,,,,,,,,,,,,,,,
34539,1645651559.316976,112.0,0.0,4302.05127,4601.538574,4209.743652,4280.0,4265.641113000001,450.0,3.0,55.0,,,,0.0,4.0,4.0,1.0,0.0,4.0,41.666668,,,,,,,,56.0,0.0,0.43553000000000003,0.541748,0.21411100000000002,-0.686279,0.953628,-0.181643,-0.323247,-0.017499,-0.049464999999999995,-0.031111,,,,,,,,,,,,,,,,,,,,,,,,,,,,,,,,,,,0.0,0.0,1.0,0.0,512.0,1.0,,,,,,,,,,,,,,,,,,,,,,,,,
34540,1645651559.3247962,113.0,1.0,4300.456055,4568.262207,4228.091309,4279.543945,4265.754883,450.0,3.0,55.0,,,,0.0,4.0,4.0,1.0,0.0,4.0,41.666668,,,,,,,,,,,,,,,,,,,,,,,,,,,,,,,,,,,,,,,,,,,,,,,,,,,,,,,,,,,,,,,,,,,,,,,,,,,,,,,,,,,,
34541,1645651559.332616,114.0,1.0,4298.860352000001,4534.98584,4246.438965,4279.088379,4265.869140999999,450.0,3.0,55.0,,,,0.0,4.0,4.0,1.0,0.0,4.0,41.666668,,,,,,,,57.0,1.0,0.43550600000000006,0.541748,0.21416,-0.686279,0.951577,-0.180374,-0.32354,-0.017286000000000003,-0.049472,-0.031620999999999996,,,,,,,,,,,,,,,,,,,,,,,,,,,,,,,,,,,,,,,,,,,,,,,,,,,,,,,,,,,,,,,,,
34542,1645651559.340435,115.0,1.0,4297.265136999999,4501.709473,4264.786133,4278.632324,4265.98291,450.0,3.0,55.0,,,,0.0,4.0,4.0,1.0,0.0,4.0,41.666668,,,,,,,,,,,,,,,,,,,,,,,,,,,,,,,,,,,,,,,,,,,,,,,,,,,,,,,,,,,,,,,,,,,,,,,,,,,,,,,,,,,,
34543,1645651559.3482552,116.0,1.0,4295.669434,4468.433105,4283.133789,4278.176758,4266.09668,450.0,3.0,55.0,,,,0.0,4.0,4.0,1.0,0.0,4.0,41.666668,,,,,,,,58.0,1.0,0.435482,0.541748,0.214209,-0.686279,0.949526,-0.17910399999999999,-0.323833,-0.017072999999999998,-0.049479,-0.032132,,,,,,,,,,,,,,,,,,,,,,,,,,,,,,,,,,,0.0,0.0,1.0,0.0,512.0,1.0,,,,,,,,,,,,,,,,,,,,,,,,,
34544,1645651559.356075,117.0,1.0,4294.074219,4435.156738000001,4301.481445,4277.720703,4266.210938,450.0,3.0,55.0,,,,0.0,4.0,4.0,1.0,0.0,4.0,41.666668,,,,,,,,,,,,,,,,,,,,,,,,,,,,,,,,,,,,,,,,,,,,,,,,,,,,,,,,,,,,,,,,,,,,,,,,,,,,,,,,,,,,
34545,1645651559.363894,118.0,1.0,4292.478515999999,4401.880371,4319.829102000001,4277.265136999999,4266.324707,450.0,3.0,55.0,,,,0.0,4.0,4.0,1.0,0.0,4.0,41.666668,,,,,,,,59.0,1.0,0.435458,0.541748,0.214258,-0.686279,0.947475,-0.177835,-0.324126,-0.016859,-0.049486,-0.032642000000000004,,,,,,,,,,,,,,,,,,,,,,,,,,,,,,,,,,,,,,,,,,,,,,,,,,,,,,,,,,,,,,,,,
34546,1645651559.371714,119.0,1.0,4290.883301,4368.604004,4338.176758,4276.809082,4266.438965,450.0,3.0,55.0,,,,0.0,4.0,4.0,1.0,0.0,4.0,41.666668,,,,,,,,,,,,,,,,,,,,,,,,,,,,,,,,,,,,,,,,,,,,,,,,,,,,,,,,,,,,,,,,,,,,,,,,,,,,,,,,,,,,
34547,1645651559.379534,120.0,1.0,4289.287598,4335.327636999999,4356.524414,4276.353515999999,4266.552734000001,450.0,3.0,55.0,,,,0.0,4.0,4.0,1.0,0.0,4.0,41.666668,,,,,,,,60.0,1.0,0.435434,0.541748,0.21430700000000003,-0.686279,0.945425,-0.176565,-0.324419,-0.016646,-0.049492,-0.033152999999999995,1.0,0.0,0.0,,,,,,,,,,,,,,,,,,,,,,,,,,,,,,,,0.0,0.0,1.0,0.0,512.0,1.0,189.674881,38.039993,18.99399,15.667492000000001,7.6266,338.753571,309.311188,820.693359,739.131653,285.562073,125.01179499999999,119.347366,12.147667,9.807808999999999,12.110130999999999,0.16831300000000002,0.10107200000000001,0.165203,0.15698900000000002,0.092061,29.827198,29.526009000000002,14.334994,15.952348,9.305000999999999
34548,1645651559.387353,121.0,0.0,4287.692383,4302.05127,4374.871582,4275.897461,4266.666504,450.0,3.0,55.0,,,,0.0,4.0,4.0,1.0,0.0,4.0,41.666668,,,,,,,,,,,,,,,,,,,,,,,,,,,,,,,,,,,,,,,,,,,,,,,,,,,,,,,,,,,,,,,,,,,,,,,,,,,,,,,,,,,,
34549,1645651559.395173,122.0,0.0,4307.179688,4604.102539,4308.205078,4275.897461,4272.820313,450.0,3.0,55.0,,,,0.0,4.0,4.0,1.0,0.0,4.0,41.666668,,,,,,,,61.0,0.0,0.43541,0.541748,0.21435500000000002,-0.686279,0.9433739999999999,-0.175296,-0.324712,-0.016433,-0.049499,-0.033664,,,,,,,,,,,,,,,,,,,,,,,,,,,,,,,,,,,,,,,,,,,,,,,,,,,,,,,,,,,,,,,,,
34550,1645651559.402993,123.0,0.0,4284.102539,4768.205078,4253.333496,4280.512695,4242.05127,16329.0,3.0,55.0,,,,0.0,4.0,4.0,1.0,0.0,4.0,41.666668,,,,,,,,,,,,,,,,,,,,,,,,,,,,,,,,,,,,,,,,,,,,,,,,,,,,,,,,,,,,,,,,,,,,,,,,,,,,,,,,,,,,
34551,1645651559.410812,124.0,0.0,4306.666504,4600.512695,4233.333496,4277.94873,4224.615234000001,450.0,3.0,55.0,,,,0.0,4.0,4.0,1.0,0.0,4.0,41.666668,,,,,,,,62.0,0.0,0.43541,0.541748,0.21435500000000002,-0.686279,0.9472799999999999,-0.182132,-0.320806,-0.015472999999999999,-0.049481,-0.03601,,,,,,,,,,,,,,,,,,,,,,,,,,,,,,,,,,,0.0,0.0,1.0,0.0,512.0,1.0,,,,,,,,,,,,,,,,,,,,,,,,,
34552,1645651559.418632,125.0,0.0,4285.641113000001,4624.102539,4227.692383,4277.436035,4232.307617,450.0,3.0,55.0,,,,0.0,4.0,4.0,1.0,0.0,4.0,41.666668,,,,,,,,,,,,,,,,,,,,,,,,,,,,,,,,,,,,,,,,,,,,,,,,,,,,,,,,,,,,,,,,,,,,,,,,,,,,,,,,,,,,
34553,1645651559.426348,126.0,0.0,4261.538574,4776.922852000001,4201.538574,4281.025879,4253.846191,450.0,3.0,55.0,,,,0.0,4.0,4.0,1.0,0.0,4.0,41.666668,,,,,,,,63.0,0.0,0.435713,0.541504,0.21435500000000002,-0.686279,0.9546040000000001,-0.177249,-0.320806,-0.01627,-0.049416,-0.038122,,,,,,,,,,,,,,,,,,,,,,,,,,,,,,,,,,,,,,,,,,,,,,,,,,,,,,,,,,,,,,,,,
34554,1645651559.434164,127.0,0.0,4265.128418,4797.436035,4199.487305,4281.025879,4270.769043,234.0,3.0,55.0,,,,0.0,4.0,4.0,1.0,0.0,4.0,41.666668,,,,,,,,,,,,,,,,,,,,,,,,,,,,,,,,,,,,,,,,,,,,,,,,,,,,,,,,,,,,,,,,,,,,,,,,,,,,,,,,,,,,
34555,1645651559.441979,0.0,0.0,4309.230957,4664.102539,4224.102539,4275.384765999999,4289.743652,450.0,3.0,55.0,,,,0.0,4.0,4.0,1.0,0.0,4.0,41.666668,,,,,,,,0.0,0.0,0.435713,0.541504,0.21435500000000002,-0.686279,0.948257,-0.18262,-0.32813000000000003,-0.016986,-0.049552,-0.033871,,,,,,,,,,,,,,,,,,,,,,,,,,,,,,,,,,,0.0,0.0,1.0,0.0,512.0,1.0,,,,,,,,,,,,,,,,,,,,,,,,,
34556,1645651559.4496949,1.0,0.0,4338.974121,4756.410156,4217.94873,4271.794922,4280.0,450.0,3.0,55.0,,,,0.0,4.0,1.0,1.0,0.0,4.0,16.666666,,,,,,,,,,,,,,,,,,,,,,,,,,,,,,,,,,,,,,,,,,,,,,,,,,,,,,,,,,,,,,,,,,,,,,,,,,,,,,,,,,,,
