,Timestamp,OriginalTimestamp,EEG.Counter,EEG.Interpolated,EEG.AF3,EEG.T7,EEG.Pz,EEG.T8,EEG.AF4,EEG.RawCq,EEG.Battery,EEG.BatteryPercent,MarkerIndex,MarkerType,MarkerValueInt,EEG.MarkerHardware,CQ.AF3,CQ.T7,CQ.Pz,CQ.T8,CQ.AF4,CQ.Overall,EQ.SampleRateQuality,EQ.OVERALL,EQ.AF3,EQ.T7,EQ.Pz,EQ.T8,EQ.AF4,MOT.CounterMems,MOT.InterpolatedMems,MOT.Q0,MOT.Q1,MOT.Q2,MOT.Q3,MOT.AccX,MOT.AccY,MOT.AccZ,MOT.MagX,MOT.MagY,MOT.MagZ,MC.Action,MC.ActionPower,MC.IsActive,PM.Engagement.IsActive,PM.Engagement.Scaled,PM.Engagement.Raw,PM.Engagement.Min,PM.Engagement.Max,PM.Excitement.IsActive,PM.Excitement.Scaled,PM.Excitement.Raw,PM.Excitement.Min,PM.Excitement.Max,PM.LongTermExcitement,PM.Stress.IsActive,PM.Stress.Scaled,PM.Stress.Raw,PM.Stress.Min,PM.Stress.Max,PM.Relaxation.IsActive,PM.Relaxation.Scaled,PM.Relaxation.Raw,PM.Relaxation.Min,PM.Relaxation.Max,PM.Interest.IsActive,PM.Interest.Scaled,PM.Interest.Raw,PM.Interest.Min,PM.Interest.Max,PM.Focus.IsActive,PM.Focus.Scaled,PM.Focus.Raw,PM.Focus.Min,PM.Focus.Max,FE.BlinkWink,FE.HorizontalEyesDirection,FE.UpperFaceAction,FE.UpperFaceActionPower,FE.LowerFaceAction,FE.LowerFaceActionPower,POW.AF3.Theta,POW.AF3.Alpha,POW.AF3.BetaL,POW.AF3.BetaH,POW.AF3.Gamma,POW.T7.Theta,POW.T7.Alpha,POW.T7.BetaL,POW.T7.BetaH,POW.T7.Gamma,POW.Pz.Theta,POW.Pz.Alpha,POW.Pz.BetaL,POW.Pz.BetaH,POW.Pz.Gamma,POW.T8.Theta,POW.T8.Alpha,POW.T8.BetaL,POW.T8.BetaH,POW.T8.Gamma,POW.AF4.Theta,POW.AF4.Alpha,POW.AF4.BetaL,POW.AF4.BetaH,POW.AF4.Gamma
26797,1645818887.923609,1645818887.939788,106.0,0.0,4351.282227000001,4564.102539,4197.94873,4227.179688,4287.692383,450.0,1.0,15.0,39.0,1.0,4.0,0.0,4.0,0.0,4.0,2.0,4.0,50.0,,,,,,,,53.0,0.0,0.21435900000000002,0.632813,-0.036133,-0.743164,0.94435,-0.31787600000000005,-0.188968,-0.014379,-0.019327,-0.030451,,,,,,,,,,,,,,,,,,,,,,,,,,,,,,,,,,,,,,,,,,,,,,,,,,,,,,,,,,,,,,,,,
26798,1645818887.9314241,1645818887.947603,107.0,0.0,4364.615234000001,4580.0,4190.256348,4197.436035,4305.641113000001,16172.0,1.0,15.0,,,,0.0,4.0,0.0,4.0,2.0,4.0,50.0,,,,,,,,,,,,,,,,,,,,,,,,,,,,,,,,,,,,,,,,,,,,,,,,,,,,,,0.0,0.0,1.0,0.0,512.0,1.0,,,,,,,,,,,,,,,,,,,,,,,,,
26799,1645818887.939239,1645818887.955417,108.0,0.0,4389.230957,4579.487305,4184.102539,4198.974121,4314.358886999999,450.0,1.0,15.0,,,,0.0,4.0,0.0,4.0,2.0,4.0,50.0,,,,,,,,54.0,0.0,0.215079,0.632568,-0.036133,-0.743164,0.940932,-0.324712,-0.198734,-0.013576,-0.019397,-0.033411,,,,,,,,,,,,,,,,,,,,,,,,,,,,,,,,,,,,,,,,,,,,,,,,,,,,,,,,,,,,,,,,,
26800,1645818887.947054,1645818887.963332,109.0,0.0,4360.512695,4547.692383,4159.487305,4217.94873,4277.94873,450.0,1.0,15.0,,,,0.0,4.0,0.0,4.0,2.0,4.0,50.0,,,,,,,,,,,,,,,,,,,,,,,,,,,,,,,,,,,,,,,,,,,,,,,,,,,,,,,,,,,,,,,,,,,,,,,,,,,,,,,,,,,,
26801,1645818887.954869,1645818887.971147,110.0,0.0,4338.461426,4522.563965,4163.077147999999,4222.05127,4270.256348,450.0,1.0,15.0,,,,0.0,4.0,0.0,4.0,2.0,4.0,50.0,,,,,,,,55.0,0.0,0.215038,0.632568,-0.036377,-0.743164,0.9355610000000001,-0.31543499999999997,-0.19531500000000002,-0.012804,-0.019459,-0.036076,,,,,,,,,,,,,,,,,,,,,,,,,,,,,,,,,,,,,,,,,,,,,,,,,,,,,,,,,,,,,,,,,
26802,1645818887.962684,1645818887.979061,111.0,0.0,4352.820313,4569.743652,4176.410156,4206.666504,4287.179688,16172.0,1.0,15.0,,,,0.0,4.0,0.0,4.0,2.0,4.0,50.0,,,,,,,,,,,,,,,,,,,,1.0,0.0,0.0,,,,,,,,,,,,,,,,,,,,,,,,,,,,,,,,0.0,0.0,1.0,0.0,512.0,1.0,4.5458940000000005,2.334324,1.577692,1.789934,2.657797,25.254284,19.379267000000002,21.126238,16.44335,11.014805,3.366999,1.284892,3.3811370000000003,1.6660270000000001,3.18572,5.490228,5.56382,2.531477,1.924346,3.3017980000000002,6.49094,1.628694,2.261127,3.039587,2.6213330000000004
26803,1645818887.970499,1645818887.986876,112.0,0.0,4354.358886999999,4595.384765999999,4159.487305,4210.769043,4272.307617,450.0,1.0,15.0,,,,0.0,4.0,0.0,4.0,2.0,4.0,50.0,,,,,,,,56.0,0.0,0.214912,0.632324,-0.036377,-0.743408,0.939467,-0.331548,-0.198245,-0.013623,-0.019466,-0.032224,,,,,,,,,,,,,,,,,,,,,,,,,,,,,,,,,,,,,,,,,,,,,,,,,,,,,,,,,,,,,,,,,
26804,1645818887.9783142,1645818887.99469,113.0,0.0,4349.743652,4551.282227000001,4151.794922,4230.769043,4262.05127,450.0,1.0,15.0,,,,0.0,4.0,0.0,4.0,2.0,4.0,50.0,,,,,,,,,,,,,,,,,,,,,,,,,,,,,,,,,,,,,,,,,,,,,,,,,,,,,,,,,,,,,,,,,,,,,,,,,,,,,,,,,,,,
26805,1645818887.9861288,1645818888.002505,114.0,0.0,4352.307617,4543.589844,4169.743652,4237.94873,4274.871582,450.0,1.0,15.0,,,,0.0,4.0,0.0,4.0,2.0,4.0,50.0,,,,,,,,57.0,0.0,0.21486999999999998,0.632324,-0.036621,-0.743408,0.9316549999999999,-0.333989,-0.194339,-0.01441,-0.019522,-0.028709,,,,,,,,,,,,,,,,,,,,,,,,,,,,,,,,,,,,,,,,,,,,,,,,,,,,,,,,,,,,,,,,,
26806,1645818887.993944,1645818888.01032,115.0,0.0,4351.282227000001,4587.179688,4178.461426,4233.333496,4274.358886999999,16172.0,1.0,15.0,,,,0.0,4.0,0.0,4.0,2.0,4.0,50.0,,,,,,,,,,,,,,,,,,,,,,,,,,,,,,,,,,,,,,,,,,,,,,,,,,,,,,0.0,0.0,1.0,0.0,512.0,1.0,,,,,,,,,,,,,,,,,,,,,,,,,
26807,1645818888.001759,1645818888.0181339,116.0,0.0,4361.025879,4588.717772999999,4180.512695,4255.897461,4269.230957,450.0,1.0,15.0,,,,0.0,4.0,0.0,4.0,2.0,4.0,50.0,,,,,,,,58.0,0.0,0.21474400000000002,0.63208,-0.036621,-0.7436520000000001,0.9340959999999999,-0.332036,-0.20556999999999997,-0.015068000000000002,-0.019523,-0.031745999999999996,,,,,,,,,,,,,,,,,,,,,,,,,,,,,,,,,,,,,,,,,,,,,,,,,,,,,,,,,,,,,,,,,
26808,1645818888.009574,1645818888.025949,117.0,0.0,4374.871582,4581.538574,4188.205078,4269.743652,4283.589844,450.0,1.0,15.0,,,,0.0,4.0,0.0,4.0,2.0,4.0,50.0,,,,,,,,,,,,,,,,,,,,,,,,,,,,,,,,,,,,,,,,,,,,,,,,,,,,,,,,,,,,,,,,,,,,,,,,,,,,,,,,,,,,
26809,1645818888.017389,1645818888.0337641,118.0,0.0,4355.897461,4609.230957,4187.179688,4266.153809,4285.128418,450.0,1.0,15.0,,,,0.0,4.0,0.0,4.0,2.0,4.0,50.0,,,,,,,,59.0,0.0,0.214912,0.632324,-0.036377,-0.743408,0.939467,-0.331548,-0.198245,-0.015661,-0.019523,-0.028327999999999996,,,,,,,,,,,,,,,,,,,,,,,,,,,,,,,,,,,,,,,,,,,,,,,,,,,,,,,,,,,,,,,,,
26810,1645818888.025204,1645818888.041678,119.0,0.0,4328.717772999999,4661.025879,4170.256348,4265.128418,4266.153809,16172.0,1.0,15.0,,,,0.0,4.0,0.0,4.0,2.0,4.0,50.0,,,,,,,,,,,,,,,,,,,,,,,,,,,,,,,,,,,,,,,,,,,,,,,,,,,,,,0.0,0.0,1.0,0.0,512.0,1.0,,,,,,,,,,,,,,,,,,,,,,,,,
26811,1645818888.0330188,1645818888.049493,120.0,0.0,4324.615234000001,4665.641113000001,4156.922852000001,4250.769043,4247.692383,450.0,1.0,15.0,,,,0.0,4.0,0.0,4.0,2.0,4.0,50.0,,,,,,,,60.0,0.0,0.21474400000000002,0.63208,-0.036621,-0.7436520000000001,0.9316549999999999,-0.319829,-0.20361600000000002,-0.016194999999999998,-0.019524,-0.025251,,,,,,,,,,,,,,,,,,,,,,,,,,,,,,,,,,,,,,,,,,,,,,,,,,,,,,,,,,,,,,,,,
26812,1645818888.040834,1645818888.057308,121.0,0.0,4327.179688,4597.94873,4165.128418,4246.666504,4248.717772999999,450.0,1.0,15.0,,,,0.0,4.0,0.0,4.0,2.0,4.0,50.0,,,,,,,,,,,,,,,,,,,,,,,,,,,,,,,,,,,,,,,,,,,,,,,,,,,,,,,,,,,,,,,,,,,,,,,,,,,,,,,,,,,,
26813,1645818888.048649,1645818888.0651221,122.0,0.0,4333.846191,4550.256348,4184.102539,4278.974121,4267.692383,450.0,1.0,15.0,,,,0.0,4.0,0.0,4.0,2.0,4.0,50.0,,,,,,,,61.0,0.0,0.213896,0.63208,-0.036621,-0.743896,0.9267719999999999,-0.326177,-0.186038,-0.016724,-0.019525,-0.028877999999999997,,,,,,,,,,,,,,,,,,,,,,,,,,,,,,,,,,,,,,,,,,,,,,,,,,,,,,,,,,,,,,,,,
26814,1645818888.056464,1645818888.072937,123.0,0.0,4352.307617,4561.025879,4193.846191,4292.307617,4292.820313,16172.0,1.0,15.0,,,,0.0,4.0,0.0,4.0,2.0,4.0,50.0,,,,,,,,,,,,,,,,,,,,,,,,,,,,,,,,,,,,,,,,,,,,,,,,,,,,,,0.0,0.0,1.0,0.0,512.0,1.0,,,,,,,,,,,,,,,,,,,,,,,,,
26815,1645818888.0642788,1645818888.080751,124.0,0.0,4347.692383,4587.179688,4185.641113000001,4248.717772999999,4292.307617,450.0,1.0,15.0,,,,0.0,4.0,0.0,4.0,2.0,4.0,50.0,,,,,,,,62.0,0.0,0.214617,0.631836,-0.036621,-0.743896,0.940932,-0.321782,-0.20068699999999998,-0.0172,-0.019477,-0.025649,,,,,,,,,,,,,,,,,,,,,,,,,,,,,,,,,,,,,,,,,,,,,,,,,,,,,,,,,,,,,,,,,
26816,1645818888.072095,1645818888.088566,125.0,0.0,4313.846191,4607.692383,4163.589844,4224.615234000001,4264.615234000001,450.0,1.0,15.0,,,,0.0,4.0,0.0,4.0,2.0,4.0,50.0,,,,,,,,,,,,,,,,,,,,,,,,,,,,,,,,,,,,,,,,,,,,,,,,,,,,,,,,,,,,,,,,,,,,,,,,,,,,,,,,,,,,
26817,1645818888.07991,1645818888.096381,126.0,0.0,4294.358886999999,4643.589844,4149.743652,4256.410156,4247.179688,450.0,1.0,15.0,,,,0.0,4.0,0.0,4.0,2.0,4.0,50.0,,,,,,,,63.0,0.0,0.214575,0.631836,-0.036864999999999995,-0.743896,0.947768,-0.31396999999999997,-0.192386,-0.016066,-0.019433000000000002,-0.029089999999999998,,,,,,,,,,,,,,,,,,,,,,,,,,,,,,,,,,,,,,,,,,,,,,,,,,,,,,,,,,,,,,,,,
26818,1645818888.087725,1645818888.1041949,127.0,0.0,4324.102539,4628.717772999999,4167.692383,4283.589844,4271.282227000001,232.0,1.0,15.0,,,,0.0,4.0,0.0,4.0,2.0,4.0,50.0,1.0,33.333332,3.0,0.0,4.0,1.0,4.0,,,,,,,,,,,,,1.0,0.0,0.0,1.0,0.45498299999999997,1.101486,0.185891,2.220734,1.0,0.261899,5.461284,2.984093,10.927358,0.406321,1.0,0.38561100000000004,-0.069177,-0.24996100000000002,0.209321,1.0,0.303097,1.011578,0.058637,2.917463,1.0,0.5025069999999999,3.657078,-66.317735,72.484562,1.0,0.438217,0.612372,0.486023,0.764165,0.0,0.0,1.0,0.0,512.0,1.0,2.091943,1.671675,1.670004,1.901427,3.066432,29.995471999999996,20.921276000000002,22.805182000000002,16.409439000000003,11.771633999999999,2.8173939999999997,1.364348,3.3297830000000004,1.673456,3.483538,6.1882790000000005,5.118964,2.702934,2.14491,3.7185599999999996,4.378116,1.523201,2.496148,3.1557009999999996,2.891096
26819,1645818888.09554,1645818888.11211,0.0,0.0,4364.102539,4592.820313,4191.794922,4272.307617,4311.794922,450.0,1.0,15.0,,,,0.0,4.0,0.0,4.0,2.0,4.0,50.0,,,,,,,,0.0,0.0,0.214575,0.631836,-0.036864999999999995,-0.743896,0.941909,-0.317388,-0.20508099999999999,-0.016559,-0.019492,-0.025936,,,,,,,,,,,,,,,,,,,,,,,,,,,,,,,,,,,,,,,,,,,,,,,,,,,,,,,,,,,,,,,,,
26820,1645818888.1033552,1645818888.119925,1.0,0.0,4345.128418,4605.128418,4174.358886999999,4246.153809,4301.538574,450.0,1.0,15.0,,,,0.0,4.0,0.0,4.0,2.0,4.0,50.0,,,,,,,,,,,,,,,,,,,,,,,,,,,,,,,,,,,,,,,,,,,,,,,,,,,,,,,,,,,,,,,,,,,,,,,,,,,,,,,,,,,,
26821,1645818888.1111698,1645818888.127739,2.0,0.0,4304.615234000001,4581.538574,4140.0,4232.820313,4262.563965,16176.0,1.0,15.0,,,,0.0,4.0,0.0,4.0,2.0,4.0,50.0,,,,,,,,1.0,0.0,0.214617,0.631836,-0.036621,-0.743896,0.9428850000000001,-0.309575,-0.20264000000000001,-0.015341999999999998,-0.019398,-0.0293,,,,,,,,,,,,,,,,,,,,,,,,,,,,,,,,,,,,,,,,,,,,,,,,,,,,,,,,,,,,,,,,,
26822,1645818888.118985,1645818888.1355538,3.0,0.0,4321.025879,4602.563965,4162.05127,4231.794922,4284.102539,450.0,1.0,15.0,,,,0.0,4.0,0.0,4.0,2.0,4.0,50.0,,,,,,,,,,,,,,,,,,,,,,,,,,,,,,,,,,,,,,,,,,,,,,,,,,,,,,0.0,0.0,1.0,0.0,512.0,1.0,,,,,,,,,,,,,,,,,,,,,,,,,
26823,1645818888.1268,1645818888.143369,4.0,0.0,4354.358886999999,4656.922852000001,4202.563965,4233.333496,4326.666504,35.0,1.0,15.0,,,,0.0,4.0,0.0,4.0,2.0,4.0,50.0,,,,,,,,2.0,0.0,0.214617,0.631836,-0.036621,-0.743896,0.938003,-0.323247,-0.20361600000000002,-0.015908000000000002,-0.019363,-0.026272000000000004,,,,,,,,,,,,,,,,,,,,,,,,,,,,,,,,,,,,,,,,,,,,,,,,,,,,,,,,,,,,,,,,,
26824,1645818888.134615,1645818888.151183,5.0,0.0,4353.846191,4573.846191,4196.410156,4258.974121,4308.717772999999,450.0,1.0,15.0,,,,0.0,4.0,0.0,4.0,2.0,4.0,50.0,,,,,,,,,,,,,,,,,,,,,,,,,,,,,,,,,,,,,,,,,,,,,,,,,,,,,,,,,,,,,,,,,,,,,,,,,,,,,,,,,,,,
26825,1645818888.14243,1645818888.158998,6.0,0.0,4342.05127,4510.769043,4171.282227000001,4268.205078,4272.820313,16135.0,1.0,15.0,,,,0.0,4.0,0.0,4.0,2.0,4.0,50.0,,,,,,,,3.0,0.0,0.214617,0.631836,-0.036621,-0.743896,0.938003,-0.330083,-0.189944,-0.014854,-0.019282,-0.029552999999999996,,,,,,,,,,,,,,,,,,,,,,,,,,,,,,,,,,,,,,,,,,,,,,,,,,,,,,,,,,,,,,,,,
26826,1645818888.150245,1645818888.166812,7.0,0.0,4328.717772999999,4596.922852000001,4163.589844,4245.128418,4270.769043,450.0,1.0,15.0,,,,0.0,4.0,0.0,4.0,2.0,4.0,50.0,,,,,,,,,,,,,,,,,,,,,,,,,,,,,,,,,,,,,,,,,,,,,,,,,,,,,,0.0,0.0,1.0,0.0,512.0,1.0,,,,,,,,,,,,,,,,,,,,,,,,,
26827,1645818888.15806,1645818888.174627,8.0,0.0,4323.077147999999,4617.94873,4163.589844,4239.487305,4280.512695,450.0,1.0,15.0,,,,0.0,4.0,0.0,4.0,2.0,4.0,50.0,,,,,,,,4.0,0.0,0.214785,0.63208,-0.036377,-0.7436520000000001,0.95314,-0.317388,-0.206546,-0.014003,-0.019161,-0.032555,,,,,,,,,,,,,,,,,,,,,,,,,,,,,,,,,,,,,,,,,,,,,,,,,,,,,,,,,,,,,,,,,
26828,1645818888.165875,1645818888.182442,9.0,0.0,4343.589844,4561.025879,4173.846191,4264.615234000001,4292.820313,117.0,1.0,15.0,,,,0.0,4.0,0.0,4.0,2.0,4.0,50.0,,,,,,,,,,,,,,,,,,,,,,,,,,,,,,,,,,,,,,,,,,,,,,,,,,,,,,,,,,,,,,,,,,,,,,,,,,,,,,,,,,,,
26829,1645818888.17369,1645818888.190356,10.0,0.0,4347.692383,4589.230957,4174.358886999999,4253.846191,4303.589844,450.0,1.0,15.0,,,,0.0,4.0,0.0,4.0,2.0,4.0,50.0,,,,,,,,5.0,0.0,0.214785,0.63208,-0.036377,-0.7436520000000001,0.947768,-0.327642,-0.190921,-0.014703,-0.019246,-0.035306,,,,,,,,,,,,,,,,,,,,,,,,,,,,,,,,,,,,,,,,,,,,,,,,,,,,,,,,,,,,,,,,,
26830,1645818888.181505,1645818888.1981711,11.0,0.0,4342.05127,4611.282227000001,4175.897461,4226.666504,4307.179688,16196.0,1.0,15.0,,,,0.0,4.0,0.0,4.0,2.0,4.0,50.0,,,,,,,,,,,,,,,,,,,,,,,,,,,,,,,,,,,,,,,,,,,,,,,,,,,,,,0.0,0.0,1.0,0.0,512.0,1.0,,,,,,,,,,,,,,,,,,,,,,,,,
26831,1645818888.1893198,1645818888.205986,12.0,0.0,4369.743652,4578.974121,4201.538574,4237.94873,4314.871582,450.0,1.0,15.0,,,,0.0,4.0,0.0,4.0,2.0,4.0,50.0,,,,,,,,6.0,0.0,0.214912,0.632324,-0.036377,-0.743408,0.945815,-0.333013,-0.19971,-0.015479,-0.019177,-0.031432999999999996,,,,,,,,,,,,,,,,,,,,,,,,,,,,,,,,,,,,,,,,,,,,,,,,,,,,,,,,,,,,,,,,,
26832,1645818888.197135,1645818888.2138,13.0,0.0,4370.256348,4554.871582,4195.897461,4249.743652,4310.769043,450.0,1.0,15.0,,,,0.0,4.0,0.0,4.0,2.0,4.0,50.0,,,,,,,,,,,,,,,,,,,,,,,,,,,,,,,,,,,,,,,,,,,,,,,,,,,,,,,,,,,,,,,,,,,,,,,,,,,,,,,,,,,,
26833,1645818888.20495,1645818888.221615,14.0,0.0,4334.358886999999,4541.538574,4166.153809,4236.410156,4291.794922,450.0,1.0,15.0,,,,0.0,4.0,0.0,4.0,2.0,4.0,50.0,,,,,,,,7.0,0.0,0.21495300000000003,0.632324,-0.036133,-0.743408,0.934585,-0.334478,-0.191409,-0.015982,-0.019163999999999997,-0.027997,,,,,,,,,,,,,,,,,,,,,,,,,,,,,,,,,,,,,,,,,,,,,,,,,,,,,,,,,,,,,,,,,
26834,1645818888.212765,1645818888.22943,15.0,0.0,4315.897461,4564.615234000001,4163.589844,4236.922852000001,4275.384765999999,16196.0,1.0,15.0,,,,0.0,4.0,0.0,4.0,2.0,4.0,50.0,,,,,,,,,,,,,,,,,,,,1.0,0.0,0.0,,,,,,,,,,,,,,,,,,,,,,,,,,,,,,,,0.0,0.0,1.0,0.0,512.0,1.0,1.543864,1.7610830000000002,1.792678,2.097213,3.3869629999999997,33.854240000000004,20.83507,22.631649,15.859719,12.662821000000001,2.39487,1.538342,3.211024,1.6516330000000001,3.6439239999999997,6.720434,4.447811,2.748885,2.2843880000000003,4.098023,3.487592,1.7084869999999999,2.6143520000000002,3.120654,3.1262830000000004
26835,1645818888.22058,1645818888.237244,16.0,0.0,4331.282227000001,4597.94873,4186.153809,4261.538574,4288.205078,0.0,1.0,15.0,,,,0.0,4.0,0.0,4.0,2.0,4.0,50.0,,,,,,,,8.0,0.0,0.21495300000000003,0.632324,-0.036133,-0.743408,0.928725,-0.323735,-0.196292,-0.016434,-0.019152000000000002,-0.031056999999999998,,,,,,,,,,,,,,,,,,,,,,,,,,,,,,,,,,,,,,,,,,,,,,,,,,,,,,,,,,,,,,,,,
26836,1645818888.2283962,1645818888.245059,17.0,0.0,4355.897461,4605.641113000001,4201.538574,4264.102539,4320.0,0.0,1.0,15.0,,,,0.0,4.0,0.0,4.0,2.0,4.0,50.0,,,,,,,,,,,,,,,,,,,,,,,,,,,,,,,,,,,,,,,,,,,,,,,,,,,,,,,,,,,,,,,,,,,,,,,,,,,,,,,,,,,,
26837,1645818888.2362099,1645818888.252873,18.0,0.0,4361.025879,4625.641113000001,4204.615234000001,4238.974121,4327.179688,0.0,1.0,15.0,,,,0.0,4.0,0.0,4.0,2.0,4.0,50.0,,,,,,,,9.0,0.0,0.21511999999999998,0.632568,-0.035889,-0.743164,0.932631,-0.32959499999999997,-0.199222,-0.016939,-0.019091999999999998,-0.027756,,,,,,,,,,,,,,,,,,,,,,,,,,,,,,,,,,,,,,,,,,,,,,,,,,,,,,,,,,,,,,,,,
26838,1645818888.244026,1645818888.2607882,19.0,0.0,4322.563965,4604.102539,4178.461426,4220.0,4285.128418,0.0,1.0,15.0,,,,0.0,4.0,0.0,4.0,2.0,4.0,50.0,,,,,,,,,,,,,,,,,,,,,,,,,,,,,,,,,,,,,,,,,,,,,,,,,,,,,,0.0,0.0,1.0,0.0,512.0,1.0,,,,,,,,,,,,,,,,,,,,,,,,,
26839,1645818888.251841,1645818888.2686028,20.0,0.0,4297.436035,4497.94873,4167.179688,4246.666504,4263.077147999999,0.0,1.0,15.0,,,,0.0,4.0,0.0,4.0,2.0,4.0,50.0,,,,,,,,10.0,0.0,0.21511999999999998,0.632568,-0.035889,-0.743164,0.940932,-0.32959499999999997,-0.179202,-0.017247,-0.019038,-0.030888,,,,,,,,,,,,,,,,,,,,,,,,,,,,,,,,,,,,,,,,,,,,,,,,,,,,,,,,,,,,,,,,,
26840,1645818888.259656,1645818888.276417,21.0,0.0,4354.871582,4473.333496,4213.333496,4295.384765999999,4320.0,0.0,1.0,15.0,,,,0.0,4.0,0.0,4.0,2.0,4.0,50.0,,,,,,,,,,,,,,,,,,,,,,,,,,,,,,,,,,,,,,,,,,,,,,,,,,,,,,,,,,,,,,,,,,,,,,,,,,,,,,,,,,,,
26841,1645818888.267471,1645818888.2842321,22.0,0.0,4395.897461,4576.410156,4241.538574,4287.692383,4355.897461,0.0,1.0,15.0,,,,0.0,4.0,0.0,4.0,2.0,4.0,50.0,,,,,,,,11.0,0.0,0.21511999999999998,0.632568,-0.035889,-0.743164,0.9404440000000001,-0.320806,-0.190921,-0.017818,-0.019088,-0.027604000000000004,,,,,,,,,,,,,,,,,,,,,,,,,,,,,,,,,,,,,,,,,,,,,,,,,,,,,,,,,,,,,,,,,
26842,1645818888.275286,1645818888.292047,23.0,0.0,4354.871582,4589.230957,4208.717772999999,4249.230957,4317.94873,0.0,1.0,15.0,,,,0.0,4.0,0.0,4.0,2.0,4.0,50.0,,,,,,,,,,,,,,,,,,,,,,,,,,,,,,,,,,,,,,,,,,,,,,,,,,,,,,0.0,0.0,1.0,0.0,512.0,1.0,,,,,,,,,,,,,,,,,,,,,,,,,
26843,1645818888.283101,1645818888.299861,24.0,0.0,4313.846191,4534.871582,4167.692383,4257.94873,4283.589844,0.0,1.0,15.0,,,,0.0,4.0,0.0,4.0,2.0,4.0,50.0,,,,,,,,12.0,0.0,0.215245,0.632813,-0.035889,-0.74292,0.9355610000000001,-0.334478,-0.199222,-0.016622,-0.019083000000000003,-0.030801,,,,,,,,,,,,,,,,,,,,,,,,,,,,,,,,,,,,,,,,,,,,,,,,,,,,,,,,,,,,,,,,,
26844,1645818888.290916,1645818888.307676,25.0,0.0,4335.384765999999,4607.179688,4181.025879,4291.282227000001,4294.871582,0.0,1.0,15.0,,,,0.0,4.0,0.0,4.0,2.0,4.0,50.0,,,,,,,,,,,,,,,,,,,,,,,,,,,,,,,,,,,,,,,,,,,,,,,,,,,,,,,,,,,,,,,,,,,,,,,,,,,,,,,,,,,,
26845,1645818888.298731,1645818888.315491,26.0,0.0,4373.846191,4669.743652,4223.077147999999,4295.897461,4320.0,0.0,1.0,15.0,,,,0.0,4.0,0.0,4.0,2.0,4.0,50.0,,,,,,,,13.0,0.0,0.21511999999999998,0.632568,-0.035889,-0.743164,0.940932,-0.32959499999999997,-0.179202,-0.015594,-0.019128,-0.027427999999999998,,,,,,,,,,,,,,,,,,,,,,,,,,,,,,,,,,,,,,,,,,,,,,,,,,,,,,,,,,,,,,,,,
26846,1645818888.3065462,1645818888.3233051,27.0,0.0,4370.769043,4597.436035,4215.384765999999,4271.282227000001,4321.538574,0.0,1.0,15.0,,,,0.0,4.0,0.0,4.0,2.0,4.0,50.0,,,,,,,,,,,,,,,,,,,,,,,,,,,,,,,,,,,,,,,,,,,,,,,,,,,,,,0.0,0.0,1.0,0.0,512.0,1.0,,,,,,,,,,,,,,,,,,,,,,,,,
26847,1645818888.3143609,1645818888.33122,28.0,0.0,4342.563965,4581.025879,4180.512695,4237.436035,4300.512695,0.0,1.0,15.0,,,,0.0,4.0,0.0,4.0,2.0,4.0,50.0,,,,,,,,14.0,0.0,0.215245,0.632813,-0.035889,-0.74292,0.9355610000000001,-0.334478,-0.199222,-0.014621,-0.019119999999999998,-0.030642000000000003,,,,,,,,,,,,,,,,,,,,,,,,,,,,,,,,,,,,,,,,,,,,,,,,,,,,,,,,,,,,,,,,,
26848,1645818888.322176,1645818888.339034,29.0,0.0,4349.230957,4641.538574,4192.820313,4253.846191,4311.282227000001,0.0,1.0,15.0,,,,0.0,4.0,0.0,4.0,2.0,4.0,50.0,,,,,,,,,,,,,,,,,,,,,,,,,,,,,,,,,,,,,,,,,,,,,,,,,,,,,,,,,,,,,,,,,,,,,,,,,,,,,,,,,,,,
26849,1645818888.329991,1645818888.346849,30.0,0.0,4373.846191,4616.922852000001,4209.230957,4294.358886999999,4332.307617,0.0,1.0,15.0,,,,0.0,4.0,0.0,4.0,2.0,4.0,50.0,,,,,,,,15.0,0.0,0.215245,0.632813,-0.035889,-0.74292,0.940932,-0.326665,-0.180667,-0.01521,-0.019112,-0.027236,,,,,,,,,,,,,,,,,,,,,,,,,,,,,,,,,,,,,,,,,,,,,,,,,,,,,,,,,,,,,,,,,
26850,1645818888.337806,1645818888.354664,31.0,0.0,4352.820313,4575.897461,4184.102539,4272.307617,4304.615234000001,0.0,1.0,15.0,,,,0.0,4.0,0.0,4.0,2.0,4.0,50.0,,,,,,,,,,,,,,,,,,,,1.0,0.0,0.0,,,,,,,,,,,,,,,,,,,,,,,,,,,,,,,,0.0,0.0,1.0,0.0,512.0,1.0,1.995724,1.8352259999999998,1.8867909999999999,2.324622,3.5031589999999997,34.661026,18.912764000000003,20.396069,15.501173000000001,13.619557,2.121033,1.8563169999999998,2.998089,1.656916,3.6092230000000005,7.0497440000000005,3.7195709999999997,2.63974,2.3676630000000003,4.361708999999999,3.542722,1.838845,2.490314,2.959641,3.2126770000000002
26851,1645818888.345621,1645818888.362478,32.0,0.0,4329.743652,4587.179688,4183.589844,4238.974121,4284.615234000001,0.0,1.0,15.0,,,,0.0,4.0,0.0,4.0,2.0,4.0,50.0,,,,,,,,16.0,0.0,0.215245,0.632813,-0.035889,-0.74292,0.9306780000000001,-0.33350100000000005,-0.190433,-0.014275,-0.019154,-0.030664999999999998,,,,,,,,,,,,,,,,,,,,,,,,,,,,,,,,,,,,,,,,,,,,,,,,,,,,,,,,,,,,,,,,,
26852,1645818888.353436,1645818888.370293,33.0,0.0,4363.077147999999,4564.102539,4220.512695,4252.307617,4330.769043,0.0,1.0,15.0,,,,0.0,4.0,0.0,4.0,2.0,4.0,50.0,,,,,,,,,,,,,,,,,,,,,,,,,,,,,,,,,,,,,,,,,,,,,,,,,,,,,,,,,,,,,,,,,,,,,,,,,,,,,,,,,,,,
26853,1645818888.3612509,1645818888.378108,34.0,0.0,4363.077147999999,4516.410156,4203.077147999999,4255.384765999999,4333.846191,0.0,1.0,15.0,,,,0.0,4.0,0.0,4.0,2.0,4.0,50.0,,,,,,,,17.0,0.0,0.215245,0.632813,-0.035889,-0.74292,0.929213,-0.31396999999999997,-0.18555,-0.014947,-0.019045,-0.027354000000000003,,,,,,,,,,,,,,,,,,,,,,,,,,,,,,,,,,,,,,,,,,,,,,,,,,,,,,,,,,,,,,,,,
26854,1645818888.369066,1645818888.385922,35.0,0.0,4323.077147999999,4479.487305,4167.692383,4270.256348,4281.025879,0.0,1.0,15.0,,,,0.0,4.0,0.0,4.0,2.0,4.0,50.0,,,,,,,,,,,,,,,,,,,,,,,,,,,,,,,,,,,,,,,,,,,,,,,,,,,,,,0.0,0.0,1.0,0.0,512.0,1.0,,,,,,,,,,,,,,,,,,,,,,,,,
26855,1645818888.3768811,1645818888.3937368,36.0,0.0,4342.563965,4461.025879,4188.717772999999,4314.358886999999,4287.692383,0.0,1.0,15.0,,,,0.0,4.0,0.0,4.0,2.0,4.0,50.0,,,,,,,,18.0,0.0,0.215245,0.632813,-0.035889,-0.74292,0.932631,-0.32861799999999997,-0.196292,-0.013988999999999998,-0.019191999999999997,-0.030625,,,,,,,,,,,,,,,,,,,,,,,,,,,,,,,,,,,,,,,,,,,,,,,,,,,,,,,,,,,,,,,,,
26856,1645818888.384696,1645818888.401552,37.0,0.0,4375.384765999999,4511.794922,4212.307617,4307.692383,4318.461426,0.0,1.0,15.0,,,,0.0,4.0,0.0,4.0,2.0,4.0,50.0,,,,,,,,,,,,,,,,,,,,,,,,,,,,,,,,,,,,,,,,,,,,,,,,,,,,,,,,,,,,,,,,,,,,,,,,,,,,,,,,,,,,
26857,1645818888.392511,1645818888.409466,38.0,0.0,4353.846191,4595.384765999999,4191.794922,4270.769043,4306.666504,0.0,1.0,15.0,,,,0.0,4.0,0.0,4.0,2.0,4.0,50.0,,,,,,,,19.0,0.0,0.215204,0.632813,-0.036133,-0.74292,0.9355610000000001,-0.325689,-0.191409,-0.013323,-0.019177,-0.033617,,,,,,,,,,,,,,,,,,,,,,,,,,,,,,,,,,,,,,,,,,,,,,,,,,,,,,,,,,,,,,,,,
26858,1645818888.400327,1645818888.4172812,39.0,0.0,4336.410156,4595.384765999999,4182.05127,4264.102539,4292.820313,0.0,1.0,15.0,,,,0.0,4.0,0.0,4.0,2.0,4.0,50.0,,,,,,,,,,,,,,,,,,,,,,,,,,,,,,,,,,,,,,,,,,,,,,,,,,,,,,0.0,0.0,1.0,0.0,512.0,1.0,,,,,,,,,,,,,,,,,,,,,,,,,
26859,1645818888.408142,1645818888.4250948,40.0,0.0,4344.102539,4494.871582,4185.128418,4245.641113000001,4292.307617,0.0,1.0,15.0,,,,0.0,4.0,0.0,4.0,2.0,4.0,50.0,,,,,,,,20.0,0.0,0.215204,0.632813,-0.036133,-0.74292,0.9355610000000001,-0.316411,-0.186526,-0.014188,-0.018968000000000002,-0.03631,,,,,,,,,,,,,,,,,,,,,,,,,,,,,,,,,,,,,,,,,,,,,,,,,,,,,,,,,,,,,,,,,
26860,1645818888.415957,1645818888.43291,41.0,0.0,4333.333496,4407.692383,4171.282227000001,4240.0,4282.563965,0.0,1.0,15.0,,,,0.0,4.0,0.0,4.0,2.0,4.0,50.0,,,,,,,,,,,,,,,,,,,,,,,,,,,,,,,,,,,,,,,,,,,,,,,,,,,,,,,,,,,,,,,,,,,,,,,,,,,,,,,,,,,,
26861,1645818888.423772,1645818888.440725,42.0,0.0,4320.0,4383.077147999999,4168.717772999999,4278.461426,4278.974121,0.0,1.0,15.0,,,,0.0,4.0,0.0,4.0,2.0,4.0,50.0,,,,,,,,21.0,0.0,0.215204,0.632813,-0.036133,-0.74292,0.9404440000000001,-0.319341,-0.191897,-0.014869,-0.018976,-0.032435000000000005,,,,,,,,,,,,,,,,,,,,,,,,,,,,,,,,,,,,,,,,,,,,,,,,,,,,,,,,,,,,,,,,,
26862,1645818888.431587,1645818888.448539,43.0,0.0,4333.846191,4403.077147999999,4191.794922,4307.179688,4294.871582,0.0,1.0,15.0,,,,0.0,4.0,0.0,4.0,2.0,4.0,50.0,,,,,,,,,,,,,,,,,,,,,,,,,,,,,,,,,,,,,,,,,,,,,,,,,,,,,,0.0,0.0,1.0,0.0,512.0,1.0,,,,,,,,,,,,,,,,,,,,,,,,,
26863,1645818888.4394019,1645818888.456354,44.0,0.0,4360.512695,4452.820313,4212.307617,4302.05127,4314.871582,0.0,1.0,15.0,,,,0.0,4.0,0.0,4.0,2.0,4.0,50.0,,,,,,,,22.0,0.0,0.21435900000000002,0.632813,-0.036133,-0.743164,0.933608,-0.337407,-0.20068699999999998,-0.015433,-0.018933000000000002,-0.035246,,,,,,,,,,,,,,,,,,,,,,,,,,,,,,,,,,,,,,,,,,,,,,,,,,,,,,,,,,,,,,,,,
26864,1645818888.447217,1645818888.464169,45.0,0.0,4358.461426,4425.641113000001,4201.538574,4293.846191,4313.846191,0.0,1.0,15.0,,,,0.0,4.0,0.0,4.0,2.0,4.0,50.0,,,,,,,,,,,,,,,,,,,,,,,,,,,,,,,,,,,,,,,,,,,,,,,,,,,,,,,,,,,,,,,,,,,,,,,,,,,,,,,,,,,,
26865,1645818888.455032,1645818888.471983,46.0,0.0,4321.025879,4348.205078,4161.025879,4293.846191,4278.974121,0.0,1.0,15.0,,,,0.0,4.0,0.0,4.0,2.0,4.0,50.0,,,,,,,,23.0,0.0,0.21435900000000002,0.632813,-0.036133,-0.743164,0.9282370000000001,-0.317388,-0.187503,-0.016038,-0.018993,-0.037679000000000004,,,,,,,,,,,,,,,,,,,,,,,,,,,,,,,,,,,,,,,,,,,,,,,,,,,,,,,,,,,,,,,,,
26866,1645818888.462847,1645818888.479898,47.0,0.0,4306.666504,4343.077147999999,4137.436035,4292.820313,4256.410156,0.0,1.0,15.0,,,,0.0,4.0,0.0,4.0,2.0,4.0,50.0,,,,,,,,,,,,,,,,,,,,1.0,0.0,0.0,,,,,,,,,,,,,,,,,,,,,,,,,,,,,,,,0.0,0.0,1.0,0.0,512.0,1.0,2.638635,1.7418669999999998,1.9451470000000002,2.555345,3.380529,31.862169,15.654212,16.830545,15.932402,14.528716000000001,1.954793,2.328848,2.709605,1.744416,3.387635,7.146122,3.083566,2.382404,2.436511,4.450735,4.09556,1.8885169999999998,2.176483,2.772207,3.114468
26867,1645818888.4706619,1645818888.487712,48.0,0.0,4340.0,4350.256348,4172.820313,4308.717772999999,4288.205078,0.0,1.0,15.0,,,,0.0,4.0,0.0,4.0,2.0,4.0,50.0,,,,,,,,24.0,0.0,0.21431799999999998,0.632813,-0.036377,-0.743164,0.934585,-0.330571,-0.188968,-0.016534,-0.019047,-0.039917,,,,,,,,,,,,,,,,,,,,,,,,,,,,,,,,,,,,,,,,,,,,,,,,,,,,,,,,,,,,,,,,,
26868,1645818888.478477,1645818888.495527,49.0,0.0,4353.846191,4318.974121,4196.922852000001,4317.94873,4301.538574,0.0,1.0,15.0,,,,0.0,4.0,0.0,4.0,2.0,4.0,50.0,,,,,,,,,,,,,,,,,,,,,,,,,,,,,,,,,,,,,,,,,,,,,,,,,,,,,,,,,,,,,,,,,,,,,,,,,,,,,,,,,,,,
26869,1645818888.486292,1645818888.503342,50.0,0.0,4364.102539,4346.666504,4201.025879,4316.410156,4304.615234000001,0.0,1.0,15.0,,,,0.0,4.0,0.0,4.0,2.0,4.0,50.0,,,,,,,,25.0,0.0,0.21431799999999998,0.632813,-0.036377,-0.743164,0.9350729999999999,-0.32910700000000004,-0.192386,-0.016980000000000002,-0.019144,-0.035583,,,,,,,,,,,,,,,,,,,,,,,,,,,,,,,,,,,,,,,,,,,,,,,,,,,,,,,,,,,,,,,,,
26870,1645818888.494107,1645818888.511156,51.0,0.0,4374.358886999999,4408.205078,4209.230957,4303.589844,4320.0,0.0,1.0,15.0,,,,0.0,4.0,0.0,4.0,2.0,4.0,50.0,,,,,,,,,,,,,,,,,,,,,,,,,,,,,,,,,,,,,,,,,,,,,,,,,,,,,,0.0,0.0,1.0,0.0,512.0,1.0,,,,,,,,,,,,,,,,,,,,,,,,,
26871,1645818888.5019221,1645818888.5189712,52.0,0.0,4336.922852000001,4369.230957,4189.743652,4288.717772999999,4301.025879,0.0,1.0,15.0,,,,0.0,4.0,0.0,4.0,2.0,4.0,50.0,,,,,,,,26.0,0.0,0.21431799999999998,0.632813,-0.036377,-0.743164,0.938003,-0.313481,-0.193851,-0.015868,-0.019183000000000002,-0.038031,,,,,,,,,,,,,,,,,,,,,,,,,,,,,,,,,,,,,,,,,,,,,,,,,,,,,,,,,,,,,,,,,
26872,1645818888.509737,1645818888.5267859,53.0,0.0,4304.615234000001,4321.538574,4164.615234000001,4289.230957,4279.487305,0.0,1.0,15.0,,,,0.0,4.0,0.0,4.0,2.0,4.0,50.0,,,,,,,,,,,,,,,,,,,,,,,,,,,,,,,,,,,,,,,,,,,,,,,,,,,,,,,,,,,,,,,,,,,,,,,,,,,,,,,,,,,,
26873,1645818888.517552,1645818888.5346,54.0,0.0,4326.666504,4348.205078,4180.0,4305.641113000001,4301.025879,0.0,1.0,15.0,,,,0.0,4.0,0.0,4.0,2.0,4.0,50.0,,,,,,,,27.0,0.0,0.214996,0.632568,-0.036621,-0.743164,0.9350729999999999,-0.327642,-0.194827,-0.014866999999999998,-0.019119999999999998,-0.040136,,,,,,,,,,,,,,,,,,,,,,,,,,,,,,,,,,,,,,,,,,,,,,,,,,,,,,,,,,,,,,,,,
26874,1645818888.525367,1645818888.5424151,55.0,0.0,4341.538574,4343.077147999999,4192.820313,4313.846191,4324.102539,0.0,1.0,15.0,,,,0.0,4.0,0.0,4.0,2.0,4.0,50.0,,,,,,,,,,,,,,,,,,,,,,,,,,,,,,,,,,,,,,,,,,,,,,,,,,,,,,0.0,0.0,1.0,0.0,512.0,1.0,,,,,,,,,,,,,,,,,,,,,,,,,
26875,1645818888.533183,1645818888.55023,56.0,0.0,4311.794922,4280.512695,4165.641113000001,4311.282227000001,4297.94873,0.0,1.0,15.0,,,,0.0,4.0,0.0,4.0,2.0,4.0,50.0,,,,,,,,28.0,0.0,0.21415,0.632568,-0.036621,-0.743408,0.940932,-0.32861799999999997,-0.194827,-0.01548,-0.019161,-0.035878,,,,,,,,,,,,,,,,,,,,,,,,,,,,,,,,,,,,,,,,,,,,,,,,,,,,,,,,,,,,,,,,,
26876,1645818888.540997,1645818888.5581439,57.0,0.0,4304.615234000001,4315.897461,4153.333496,4302.05127,4282.563965,0.0,1.0,15.0,,,,0.0,4.0,0.0,4.0,2.0,4.0,50.0,,,,,,,,,,,,,,,,,,,,,,,,,,,,,,,,,,,,,,,,,,,,,,,,,,,,,,,,,,,,,,,,,,,,,,,,,,,,,,,,,,,,
26877,1645818888.548813,1645818888.565959,58.0,0.0,4330.769043,4444.615234000001,4174.358886999999,4298.974121,4305.128418,0.0,1.0,15.0,,,,0.0,4.0,0.0,4.0,2.0,4.0,50.0,,,,,,,,29.0,0.0,0.21415,0.632568,-0.036621,-0.743408,0.9404440000000001,-0.3252,-0.19336199999999998,-0.014566999999999998,-0.019198,-0.038297000000000005,,,,,,,,,,,,,,,,,,,,,,,,,,,,,,,,,,,,,,,,,,,,,,,,,,,,,,,,,,,,,,,,,
26878,1645818888.556628,1645818888.5737731,59.0,0.0,4349.230957,4460.512695,4182.05127,4293.333496,4322.05127,0.0,1.0,15.0,,,,0.0,4.0,0.0,4.0,2.0,4.0,50.0,,,,,,,,,,,,,,,,,,,,,,,,,,,,,,,,,,,,,,,,,,,,,,,,,,,,,,0.0,0.0,1.0,0.0,512.0,1.0,,,,,,,,,,,,,,,,,,,,,,,,,
26879,1645818888.5644429,1645818888.581588,60.0,0.0,4339.487305,4417.94873,4170.769043,4283.589844,4311.794922,0.0,1.0,15.0,,,,0.0,4.0,0.0,4.0,2.0,4.0,50.0,,,,,,,,30.0,0.0,0.214192,0.632568,-0.036377,-0.743408,0.938003,-0.314946,-0.194827,-0.01521,-0.019232,-0.040522,,,,,,,,,,,,,,,,,,,,,,,,,,,,,,,,,,,,,,,,,,,,,,,,,,,,,,,,,,,,,,,,,
26880,1645818888.572258,1645818888.589403,61.0,0.0,4341.538574,4408.205078,4169.743652,4292.820313,4313.846191,0.0,1.0,15.0,,,,0.0,4.0,0.0,4.0,2.0,4.0,50.0,,,,,,,,,,,,,,,,,,,,,,,,,,,,,,,,,,,,,,,,,,,,,,,,,,,,,,,,,,,,,,,,,,,,,,,,,,,,,,,,,,,,
26881,1645818888.580073,1645818888.597217,62.0,0.0,4362.563965,4363.077147999999,4176.922852000001,4308.205078,4333.846191,0.0,1.0,15.0,,,,0.0,4.0,0.0,4.0,2.0,4.0,50.0,,,,,,,,31.0,0.0,0.214065,0.632324,-0.036377,-0.7436520000000001,0.923842,-0.324712,-0.20068699999999998,-0.014225999999999999,-0.019262,-0.042524,,,,,,,,,,,,,,,,,,,,,,,,,,,,,,,,,,,,,,,,,,,,,,,,,,,,,,,,,,,,,,,,,
26882,1645818888.587888,1645818888.605032,63.0,0.0,4362.563965,4348.205078,4174.358886999999,4298.461426,4328.205078,0.0,1.0,15.0,,,,0.0,4.0,0.0,4.0,2.0,4.0,50.0,1.0,41.666668,4.0,0.0,4.0,1.0,4.0,,,,,,,,,,,,,1.0,0.0,0.0,,,,,,,,,,,,,,,,,,,,,,,,,,,,,,,,0.0,0.0,1.0,0.0,512.0,1.0,3.2576259999999997,1.511519,1.955368,2.7844849999999997,3.108666,26.8111,12.541282,13.279114000000002,17.271097,15.240198999999999,1.831702,2.869104,2.408782,1.931244,3.057793,7.141424000000001,2.5991009999999997,2.0324560000000003,2.5576950000000003,4.360784,4.821167,1.876134,1.819307,2.659357,2.8997040000000003
26883,1645818888.595703,1645818888.612847,64.0,0.0,4350.256348,4402.563965,4167.179688,4278.461426,4310.256348,450.0,1.0,15.0,,,,0.0,4.0,0.0,4.0,2.0,4.0,50.0,,,,,,,,32.0,0.0,0.214065,0.632324,-0.036377,-0.7436520000000001,0.9350729999999999,-0.320806,-0.18555,-0.014903,-0.01924,-0.037979,,,,,,,,,,,,,,,,,,,,,,,,,,,,,,,,,,,,,,,,,,,,,,,,,,,,,,,,,,,,,,,,,
26884,1645818888.603518,1645818888.620661,65.0,0.0,4345.641113000001,4371.794922,4157.436035,4295.897461,4306.153809,450.0,1.0,15.0,,,,0.0,4.0,0.0,4.0,2.0,4.0,50.0,,,,,,,,,,,,,,,,,,,,,,,,,,,,,,,,,,,,,,,,,,,,,,,,,,,,,,,,,,,,,,,,,,,,,,,,,,,,,,,,,,,,
26885,1645818888.611333,1645818888.628576,66.0,0.0,4325.641113000001,4313.333496,4136.410156,4314.358886999999,4286.153809,16168.0,1.0,15.0,,,,0.0,4.0,2.0,4.0,4.0,4.0,83.333336,,,,,,,,33.0,0.0,0.214065,0.632324,-0.036377,-0.7436520000000001,0.944839,-0.323735,-0.197269,-0.015609999999999999,-0.019171,-0.033888,,,,,,,,,,,,,,,,,,,,,,,,,,,,,,,,,,,,,,,,,,,,,,,,,,,,,,,,,,,,,,,,,
26886,1645818888.619148,1645818888.63639,67.0,0.0,4309.743652,4341.538574,4139.487305,4310.769043,4273.333496,450.0,1.0,15.0,,,,0.0,4.0,2.0,4.0,4.0,4.0,83.333336,,,,,,,,,,,,,,,,,,,,,,,,,,,,,,,,,,,,,,,,,,,,,,,,,,,,,,0.0,0.0,1.0,0.0,512.0,1.0,,,,,,,,,,,,,,,,,,,,,,,,,
26887,1645818888.6269631,1645818888.644205,68.0,0.0,4334.871582,4361.538574,4170.256348,4312.820313,4304.615234000001,278.0,1.0,15.0,,,,0.0,4.0,2.0,4.0,4.0,4.0,83.333336,,,,,,,,34.0,0.0,0.21321500000000002,0.632324,-0.036377,-0.743896,0.9365379999999999,-0.322759,-0.20068699999999998,-0.016149,-0.019207,-0.036358999999999995,,,,,,,,,,,,,,,,,,,,,,,,,,,,,,,,,,,,,,,,,,,,,,,,,,,,,,,,,,,,,,,,,
26888,1645818888.634778,1645818888.65202,69.0,0.0,4365.128418,4358.974121,4186.666504,4307.692383,4341.538574,450.0,1.0,15.0,,,,0.0,4.0,2.0,4.0,4.0,4.0,83.333336,,,,,,,,,,,,,,,,,,,,,,,,,,,,,,,,,,,,,,,,,,,,,,,,,,,,,,,,,,,,,,,,,,,,,,,,,,,,,,,,,,,,
26889,1645818888.642593,1645818888.659834,70.0,0.0,4350.256348,4374.358886999999,4167.692383,4281.538574,4323.589844,16290.0,1.0,15.0,,,,0.0,4.0,2.0,4.0,4.0,4.0,83.333336,,,,,,,,35.0,0.0,0.21321500000000002,0.632324,-0.036377,-0.743896,0.941909,-0.32959499999999997,-0.19531500000000002,-0.016731,-0.019386,-0.038729,,,,,,,,,,,,,,,,,,,,,,,,,,,,,,,,,,,,,,,,,,,,,,,,,,,,,,,,,,,,,,,,,
26890,1645818888.650408,1645818888.667649,71.0,0.0,4320.512695,4384.102539,4157.94873,4270.769043,4286.666504,450.0,1.0,15.0,,,,0.0,4.0,2.0,4.0,4.0,4.0,83.333336,,,,,,,,,,,,,,,,,,,,,,,,,,,,,,,,,,,,,,,,,,,,,,,,,,,,,,0.0,0.0,1.0,0.0,512.0,1.0,,,,,,,,,,,,,,,,,,,,,,,,,
26891,1645818888.6582232,1645818888.6754642,72.0,0.0,4331.282227000001,4350.256348,4178.974121,4286.666504,4295.897461,450.0,1.0,15.0,,,,0.0,4.0,2.0,4.0,4.0,4.0,83.333336,,,,,,,,36.0,0.0,0.21334299999999998,0.632568,-0.036377,-0.7436520000000001,0.937514,-0.323735,-0.204593,-0.017206,-0.019352,-0.034612000000000004,,,,,,,,,,,,,,,,,,,,,,,,,,,,,,,,,,,,,,,,,,,,,,,,,,,,,,,,,,,,,,,,,
26892,1645818888.666038,1645818888.6832778,73.0,0.0,4352.307617,4352.307617,4187.692383,4300.512695,4314.358886999999,280.0,1.0,15.0,,,,0.0,4.0,2.0,4.0,4.0,4.0,83.333336,,,,,,,,,,,,,,,,,,,,,,,,,,,,,,,,,,,,,,,,,,,,,,,,,,,,,,,,,,,,,,,,,,,,,,,,,,,,,,,,,,,,
26893,1645818888.673853,1645818888.691093,74.0,0.0,4350.256348,4427.692383,4168.717772999999,4290.769043,4308.205078,450.0,1.0,15.0,,,,0.0,4.0,2.0,4.0,4.0,4.0,83.333336,,,,,,,,37.0,0.0,0.21334299999999998,0.632568,-0.036377,-0.7436520000000001,0.9487450000000001,-0.320806,-0.203128,-0.017537,-0.01937,-0.037254,,,,,,,,,,,,,,,,,,,,,,,,,,,,,,,,,,,,,,,,,,,,,,,,,,,,,,,,,,,,,,,,,
26894,1645818888.681668,1645818888.699008,75.0,0.0,4336.922852000001,4437.436035,4155.897461,4289.230957,4294.871582,16317.0,1.0,15.0,,,,0.0,4.0,2.0,4.0,4.0,4.0,83.333336,,,,,,,,,,,,,,,,,,,,,,,,,,,,,,,,,,,,,,,,,,,,,,,,,,,,,,0.0,0.0,1.0,0.0,512.0,1.0,,,,,,,,,,,,,,,,,,,,,,,,,
26895,1645818888.689483,1645818888.7068222,76.0,0.0,4338.461426,4387.179688,4172.820313,4296.922852000001,4305.128418,450.0,1.0,15.0,,,,0.0,4.0,2.0,4.0,4.0,4.0,83.333336,,,,,,,,38.0,0.0,0.21330100000000002,0.632568,-0.036621,-0.7436520000000001,0.93019,-0.330571,-0.199222,-0.017931,-0.019288,-0.033187,,,,,,,,,,,,,,,,,,,,,,,,,,,,,,,,,,,,,,,,,,,,,,,,,,,,,,,,,,,,,,,,,
26896,1645818888.697298,1645818888.7146368,77.0,0.0,4354.358886999999,4414.871582,4187.692383,4286.153809,4324.615234000001,450.0,1.0,15.0,,,,0.0,4.0,2.0,4.0,4.0,4.0,83.333336,,,,,,,,,,,,,,,,,,,,,,,,,,,,,,,,,,,,,,,,,,,,,,,,,,,,,,,,,,,,,,,,,,,,,,,,,,,,,,,,,,,,
26897,1645818888.7051141,1645818888.722451,78.0,0.0,4375.384765999999,4463.077147999999,4180.0,4275.384765999999,4331.282227000001,450.0,1.0,15.0,,,,0.0,4.0,2.0,4.0,4.0,4.0,83.333336,,,,,,,,39.0,0.0,0.21415,0.632568,-0.036621,-0.743408,0.921889,-0.32422399999999996,-0.208988,-0.016773,-0.019313,-0.035874,,,,,,,,,,,,,,,,,,,,,,,,,,,,,,,,,,,,,,,,,,,,,,,,,,,,,,,,,,,,,,,,,
26898,1645818888.7129278,1645818888.730266,79.0,0.0,4420.0,4422.05127,4185.128418,4287.179688,4358.461426,16317.0,1.0,15.0,,,,0.0,4.0,2.0,4.0,4.0,4.0,83.333336,,,,,,,,,,,,,,,,,,,,1.0,0.0,0.0,,,,,,,,,,,,,,,,,,,,,,,,,,,,,,,,0.0,0.0,1.0,0.0,512.0,1.0,3.680562,1.208703,1.923238,3.033225,2.8509919999999997,20.985449,10.812526,11.011448,19.262466,15.584838000000001,1.627238,3.3123,2.187654,2.221004,2.734464,7.107196000000001,2.254587,1.706659,2.794864,4.135618,5.327542,1.8112130000000002,1.5757940000000001,2.698107,2.700217
26899,1645818888.720744,1645818888.738081,80.0,0.0,4479.487305,4386.666504,4200.0,4292.820313,4392.820313,450.0,1.0,15.0,,,,0.0,4.0,2.0,4.0,4.0,4.0,83.333336,,,,,,,,40.0,0.0,0.21330100000000002,0.632568,-0.036621,-0.7436520000000001,0.932143,-0.326177,-0.198245,-0.017195,-0.019334999999999998,-0.038439,,,,,,,,,,,,,,,,,,,,,,,,,,,,,,,,,,,,,,,,,,,,,,,,,,,,,,,,,,,,,,,,,
26900,1645818888.728559,1645818888.745895,81.0,0.0,4532.307617,4410.769043,4187.692383,4292.820313,4406.153809,450.0,1.0,15.0,,,,0.0,4.0,2.0,4.0,4.0,4.0,83.333336,,,,,,,,,,,,,,,,,,,,,,,,,,,,,,,,,,,,,,,,,,,,,,,,,,,,,,,,,,,,,,,,,,,,,,,,,,,,,,,,,,,,
26901,1645818888.7363741,1645818888.75371,82.0,0.0,4601.538574,4423.589844,4181.025879,4302.563965,4438.974121,450.0,1.0,15.0,,,,0.0,4.0,2.0,4.0,4.0,4.0,83.333336,,,,,,,,41.0,0.0,0.21330100000000002,0.632568,-0.036621,-0.7436520000000001,0.93019,-0.330571,-0.199222,-0.017527,-0.019306,-0.040699,,,,,,,,,,,,,,,,,,,,,,,,,,,,,,,,,,,,,,,,,,,,,,,,,,,,,,,,,,,,,,,,,
26902,1645818888.744189,1645818888.761525,83.0,0.0,4678.461426,4476.410156,4197.436035,4277.94873,4489.743652,16317.0,1.0,15.0,,,,0.0,4.0,2.0,4.0,4.0,4.0,83.333336,,,,,,,,,,,,,,,,,,,,,,,,,,,,,,,,,,,,,,,,,,,,,,,,,,,,,,0.0,0.0,1.0,0.0,512.0,1.0,,,,,,,,,,,,,,,,,,,,,,,,,
26903,1645818888.752004,1645818888.769339,84.0,0.0,4715.897461,4550.256348,4204.102539,4268.205078,4502.563965,450.0,1.0,15.0,,,,0.0,4.0,2.0,4.0,4.0,4.0,83.333336,,,,,,,,42.0,0.0,0.21330100000000002,0.632568,-0.036621,-0.7436520000000001,0.932143,-0.326177,-0.198245,-0.017874,-0.019328,-0.042781,,,,,,,,,,,,,,,,,,,,,,,,,,,,,,,,,,,,,,,,,,,,,,,,,,,,,,,,,,,,,,,,,
26904,1645818888.759819,1645818888.777154,85.0,0.0,4723.589844,4514.358886999999,4197.436035,4304.615234000001,4495.384765999999,450.0,1.0,15.0,,,,0.0,4.0,2.0,4.0,4.0,4.0,83.333336,,,,,,,,,,,,,,,,,,,,,,,,,,,,,,,,,,,,,,,,,,,,,,,,,,,,,,,,,,,,,,,,,,,,,,,,,,,,,,,,,,,,
26905,1645818888.767634,1645818888.784869,86.0,0.0,4745.641113000001,4443.077147999999,4203.077147999999,4301.025879,4524.102539,450.0,1.0,15.0,,,,0.0,4.0,2.0,4.0,4.0,4.0,83.333336,,,,,,,,43.0,0.0,0.213259,0.632568,-0.036864999999999995,-0.7436520000000001,0.932631,-0.330571,-0.193851,-0.018234999999999998,-0.019397,-0.044509,,,,,,,,,,,,,,,,,,,,,,,,,,,,,,,,,,,,,,,,,,,,,,,,,,,,,,,,,,,,,,,,,
26906,1645818888.775449,1645818888.7926831,87.0,0.0,4759.487305,4468.205078,4205.641113000001,4259.487305,4541.025879,16317.0,1.0,15.0,,,,0.0,4.0,2.0,4.0,4.0,4.0,83.333336,,,,,,,,,,,,,,,,,,,,,,,,,,,,,,,,,,,,,,,,,,,,,,,,,,,,,,0.0,0.0,1.0,0.0,512.0,1.0,,,,,,,,,,,,,,,,,,,,,,,,,
26907,1645818888.7832642,1645818888.800498,88.0,0.0,4724.615234000001,4474.358886999999,4186.666504,4261.025879,4503.589844,450.0,1.0,15.0,,,,0.0,4.0,2.0,4.0,4.0,4.0,83.333336,,,,,,,,44.0,0.0,0.21410900000000002,0.632568,-0.036864999999999995,-0.743408,0.9365379999999999,-0.32422399999999996,-0.19336199999999998,-0.017046000000000002,-0.019459999999999998,-0.046113,,,,,,,,,,,,,,,,,,,,,,,,,,,,,,,,,,,,,,,,,,,,,,,,,,,,,,,,,,,,,,,,,
26908,1645818888.7910788,1645818888.8083131,89.0,0.0,4673.846191,4413.846191,4170.769043,4285.128418,4465.128418,450.0,1.0,15.0,,,,0.0,4.0,2.0,4.0,4.0,4.0,83.333336,,,,,,,,,,,,,,,,,,,,,,,,,,,,,,,,,,,,,,,,,,,,,,,,,,,,,,,,,,,,,,,,,,,,,,,,,,,,,,,,,,,,
26909,1645818888.798894,1645818888.816127,90.0,0.0,4646.153809,4417.94873,4178.974121,4279.487305,4459.487305,450.0,1.0,15.0,,,,0.0,4.0,2.0,4.0,4.0,4.0,83.333336,,,,,,,,45.0,0.0,0.21410900000000002,0.632568,-0.036864999999999995,-0.743408,0.945327,-0.320806,-0.192874,-0.017440999999999998,-0.019418,-0.041208999999999996,,,,,,,,,,,,,,,,,,,,,,,,,,,,,,,,,,,,,,,,,,,,,,,,,,,,,,,,,,,,,,,,,
26910,1645818888.806709,1645818888.823942,91.0,0.0,4629.230957,4452.820313,4202.05127,4265.128418,4470.769043,16317.0,1.0,15.0,,,,0.0,4.0,2.0,4.0,4.0,4.0,83.333336,,,,,,,,,,,,,,,,,,,,,,,,,,,,,,,,,,,,,,,,,,,,,,,,,,,,,,0.0,0.0,1.0,0.0,512.0,1.0,,,,,,,,,,,,,,,,,,,,,,,,,
26911,1645818888.814524,1645818888.831757,92.0,0.0,4574.358886999999,4456.922852000001,4200.0,4283.077147999999,4456.922852000001,450.0,1.0,15.0,,,,0.0,4.0,2.0,4.0,4.0,4.0,83.333336,,,,,,,,46.0,0.0,0.21410900000000002,0.632568,-0.036864999999999995,-0.743408,0.937514,-0.3252,-0.207523,-0.017894,-0.019527000000000003,-0.043094,,,,,,,,,,,,,,,,,,,,,,,,,,,,,,,,,,,,,,,,,,,,,,,,,,,,,,,,,,,,,,,,,
26912,1645818888.822339,1645818888.839571,93.0,0.0,4513.846191,4469.743652,4182.563965,4301.538574,4420.0,450.0,1.0,15.0,,,,0.0,4.0,2.0,4.0,4.0,4.0,83.333336,,,,,,,,,,,,,,,,,,,,,,,,,,,,,,,,,,,,,,,,,,,,,,,,,,,,,,,,,,,,,,,,,,,,,,,,,,,,,,,,,,,,
26913,1645818888.830154,1645818888.847386,94.0,0.0,4468.717772999999,4438.974121,4181.538574,4288.717772999999,4384.615234000001,450.0,1.0,15.0,,,,0.0,4.0,2.0,4.0,4.0,4.0,83.333336,,,,,,,,47.0,0.0,0.21406599999999998,0.632568,-0.037108999999999996,-0.743408,0.9355610000000001,-0.326177,-0.19971,-0.018253,-0.019381,-0.044742000000000004,,,,,,,,,,,,,,,,,,,,,,,,,,,,,,,,,,,,,,,,,,,,,,,,,,,,,,,,,,,,,,,,,
26914,1645818888.8379688,1645818888.8553,95.0,0.0,4449.743652,4426.666504,4205.641113000001,4287.692383,4388.205078,16317.0,1.0,15.0,,,,0.0,4.0,2.0,4.0,4.0,4.0,83.333336,,,,,,,,,,,,,,,,,,,,1.0,0.0,0.0,,,,,,,,,,,,,,,,,,,,,,,,,,,,,,,,10.0,0.0,1.0,0.0,512.0,0.9787170000000001,3.9332589999999996,0.958644,1.8822729999999999,3.317309,2.746279,16.998426000000002,11.212415,10.573374000000001,21.486767,15.441775,1.395852,3.482106,2.1297580000000003,2.599221,2.514307,7.149439,2.046278,1.507776,3.17365,3.8299239999999997,5.406811,1.6877060000000002,1.5600690000000002,2.898763,2.62928
26915,1645818888.845784,1645818888.863115,96.0,0.0,4450.769043,4496.922852000001,4217.94873,4296.922852000001,4405.641113000001,450.0,1.0,15.0,,,,0.0,4.0,2.0,4.0,4.0,4.0,83.333336,,,,,,,,48.0,0.0,0.21406599999999998,0.632568,-0.037108999999999996,-0.743408,0.929213,-0.31396999999999997,-0.192874,-0.018625,-0.019347,-0.039974,,,,,,,,,,,,,,,,,,,,,,,,,,,,,,,,,,,,,,,,,,,,,,,,,,,,,,,,,,,,,,,,,
26916,1645818888.853599,1645818888.8709302,97.0,0.0,4414.871582,4502.563965,4189.743652,4274.871582,4373.333496,450.0,1.0,15.0,,,,0.0,4.0,2.0,4.0,4.0,4.0,83.333336,,,,,,,,,,,,,,,,,,,,,,,,,,,,,,,,,,,,,,,,,,,,,,,,,,,,,,,,,,,,,,,,,,,,,,,,,,,,,,,,,,,,
26917,1645818888.8614151,1645818888.878645,98.0,0.0,4342.05127,4451.282227000001,4160.512695,4251.794922,4325.641113000001,450.0,1.0,15.0,,,,0.0,4.0,2.0,4.0,4.0,4.0,83.333336,,,,,,,,49.0,0.0,0.21406599999999998,0.632568,-0.037108999999999996,-0.743408,0.9282370000000001,-0.326177,-0.19531500000000002,-0.018911,-0.019413999999999997,-0.035782,,,,,,,,,,,,,,,,,,,,,,,,,,,,,,,,,,,,,,,,,,,,,,,,,,,,,,,,,,,,,,,,,
26918,1645818888.8692288,1645818888.8864589,99.0,0.0,4312.820313,4444.615234000001,4163.589844,4252.820313,4325.128418,16317.0,1.0,15.0,,,,0.0,4.0,2.0,4.0,4.0,4.0,83.333336,,,,,,,,,,,,,,,,,,,,,,,,,,,,,,,,,,,,,,,,,,,,,,,,,,,,,,10.0,0.0,1.0,0.0,512.0,0.9787170000000001,,,,,,,,,,,,,,,,,,,,,,,,,
26919,1645818888.877045,1645818888.894274,100.0,0.0,4330.769043,4433.333496,4187.692383,4257.436035,4341.025879,450.0,1.0,15.0,,,,0.0,4.0,2.0,4.0,4.0,4.0,83.333336,,,,,,,,50.0,0.0,0.213259,0.632568,-0.036864999999999995,-0.7436520000000001,0.9404440000000001,-0.32861799999999997,-0.202152,-0.019022,-0.019426,-0.038258,,,,,,,,,,,,,,,,,,,,,,,,,,,,,,,,,,,,,,,,,,,,,,,,,,,,,,,,,,,,,,,,,
26920,1645818888.88486,1645818888.9020882,101.0,0.0,4332.820313,4469.743652,4211.794922,4273.846191,4340.0,450.0,1.0,15.0,,,,0.0,4.0,2.0,4.0,4.0,4.0,83.333336,,,,,,,,,,,,,,,,,,,,,,,,,,,,,,,,,,,,,,,,,,,,,,,,,,,,,,,,,,,,,,,,,,,,,,,,,,,,,,,,,,,,
26921,1645818888.892675,1645818888.9099028,102.0,0.0,4305.641113000001,4551.282227000001,4198.974121,4275.897461,4325.128418,450.0,1.0,15.0,,,,0.0,4.0,2.0,4.0,4.0,4.0,83.333336,,,,,,,,51.0,0.0,0.213259,0.632568,-0.036864999999999995,-0.7436520000000001,0.9438620000000001,-0.32422399999999996,-0.193851,-0.019316999999999997,-0.019388,-0.03414,,,,,,,,,,,,,,,,,,,,,,,,,,,,,,,,,,,,,,,,,,,,,,,,,,,,,,,,,,,,,,,,,
26922,1645818888.90049,1645818888.917718,103.0,0.0,4283.589844,4515.897461,4171.794922,4271.282227000001,4309.743652,16317.0,1.0,15.0,,,,0.0,4.0,2.0,4.0,4.0,4.0,83.333336,,,,,,,,,,,,,,,,,,,,,,,,,,,,,,,,,,,,,,,,,,,,,,,,,,,,,,10.0,0.0,1.0,0.0,512.0,0.9787170000000001,,,,,,,,,,,,,,,,,,,,,,,,,
26923,1645818888.9083052,1645818888.925632,104.0,0.0,4285.641113000001,4422.563965,4184.102539,4288.717772999999,4302.563965,450.0,1.0,15.0,,,,0.0,4.0,2.0,4.0,4.0,4.0,83.333336,,,,,,,,52.0,0.0,0.21330100000000002,0.632568,-0.036621,-0.7436520000000001,0.941421,-0.31299299999999997,-0.199222,-0.019534,-0.019402000000000003,-0.036732,,,,,,,,,,,,,,,,,,,,,,,,,,,,,,,,,,,,,,,,,,,,,,,,,,,,,,,,,,,,,,,,,
26924,1645818888.9161198,1645818888.9334471,105.0,0.0,4287.179688,4411.282227000001,4207.179688,4298.974121,4301.025879,450.0,1.0,15.0,,,,0.0,4.0,2.0,4.0,4.0,4.0,83.333336,,,,,,,,,,,,,,,,,,,,,,,,,,,,,,,,,,,,,,,,,,,,,,,,,,,,,,,,,,,,,,,,,,,,,,,,,,,,,,,,,,,,
26925,1645818888.923935,1645818888.941262,106.0,0.0,4278.974121,4435.897461,4200.512695,4288.205078,4294.358886999999,450.0,1.0,15.0,,,,0.0,4.0,2.0,4.0,4.0,4.0,83.333336,,,,,,,,53.0,0.0,0.21330100000000002,0.632568,-0.036621,-0.7436520000000001,0.923842,-0.31250500000000003,-0.188968,-0.019778,-0.019316999999999997,-0.032764999999999996,,,,,,,,,,,,,,,,,,,,,,,,,,,,,,,,,,,,,,,,,,,,,,,,,,,,,,,,,,,,,,,,,
26926,1645818888.93175,1645818888.949076,107.0,0.0,4290.256348,4438.461426,4207.692383,4280.0,4298.974121,16317.0,1.0,15.0,,,,0.0,4.0,2.0,4.0,4.0,4.0,83.333336,,,,,,,,,,,,,,,,,,,,,,,,,,,,,,,,,,,,,,,,,,,,,,,,,,,,,,10.0,0.0,1.0,0.0,512.0,0.9787170000000001,,,,,,,,,,,,,,,,,,,,,,,,,
26927,1645818888.939565,1645818888.956891,108.0,0.0,4306.153809,4426.153809,4222.05127,4281.538574,4320.512695,450.0,1.0,15.0,,,,0.0,4.0,2.0,4.0,4.0,4.0,83.333336,,,,,,,,54.0,0.0,0.21330100000000002,0.632568,-0.036621,-0.7436520000000001,0.938003,-0.325689,-0.186038,-0.018435,-0.019339,-0.035544,,,,,,,,,,,,,,,,,,,,,,,,,,,,,,,,,,,,,,,,,,,,,,,,,,,,,,,,,,,,,,,,,
26928,1645818888.94738,1645818888.964706,109.0,0.0,4268.717772999999,4427.179688,4187.692383,4280.512695,4289.230957,450.0,1.0,15.0,,,,0.0,4.0,2.0,4.0,4.0,4.0,83.333336,,,,,,,,,,,,,,,,,,,,,,,,,,,,,,,,,,,,,,,,,,,,,,,,,,,,,,,,,,,,,,,,,,,,,,,,,,,,,,,,,,,,
26929,1645818888.955195,1645818888.9725199,110.0,0.0,4232.307617,4486.666504,4168.205078,4267.692383,4248.205078,450.0,1.0,15.0,,,,0.0,4.0,2.0,4.0,4.0,4.0,83.333336,,,,,,,,55.0,0.0,0.212448,0.632568,-0.036621,-0.743896,0.9399559999999999,-0.32227100000000003,-0.203128,-0.01874,-0.019212,-0.037995,,,,,,,,,,,,,,,,,,,,,,,,,,,,,,,,,,,,,,,,,,,,,,,,,,,,,,,,,,,,,,,,,
26930,1645818888.96301,1645818888.980335,111.0,0.0,4232.820313,4553.333496,4176.410156,4250.256348,4253.846191,16317.0,1.0,15.0,,,,0.0,4.0,2.0,4.0,4.0,4.0,83.333336,,,,,,,,,,,,,,,,,,,,1.0,0.0,0.0,,,,,,,,,,,,,,,,,,,,,,,,,,,,,,,,10.0,0.0,1.0,0.0,512.0,0.771324,6.329019000000001,1.136636,1.898279,3.628746,2.838531,16.348192,13.556129,11.594577000000001,23.57085,14.850776000000002,1.221678,3.2986370000000003,2.253493,3.0223419999999996,2.4351220000000002,7.138432000000001,1.988657,1.488821,3.65845,3.4853690000000004,5.625642,1.548491,1.7975400000000001,3.214408,2.7220779999999998
26931,1645818888.970825,1645818888.988149,112.0,0.0,4241.025879,4515.897461,4168.717772999999,4259.487305,4264.615234000001,450.0,1.0,15.0,,,,0.0,4.0,2.0,4.0,4.0,4.0,83.333336,,,,,,,,56.0,0.0,0.212448,0.632568,-0.036621,-0.743896,0.93019,-0.332036,-0.186038,-0.018965,-0.019195,-0.040202,,,,,,,,,,,,,,,,,,,,,,,,,,,,,,,,,,,,,,,,,,,,,,,,,,,,,,,,,,,,,,,,,
26932,1645818888.97864,1645818888.995964,113.0,0.0,4269.743652,4469.230957,4192.307617,4271.282227000001,4284.615234000001,450.0,1.0,15.0,,,,0.0,4.0,2.0,4.0,4.0,4.0,83.333336,,,,,,,,,,,,,,,,,,,,,,,,,,,,,,,,,,,,,,,,,,,,,,,,,,,,,,,,,,,,,,,,,,,,,,,,,,,,,,,,,,,,
26933,1645818888.986455,1645818889.0038788,114.0,0.0,4296.922852000001,4491.794922,4239.487305,4257.94873,4316.410156,450.0,1.0,15.0,,,,0.0,4.0,2.0,4.0,4.0,4.0,83.333336,,,,,,,,57.0,0.0,0.212448,0.632568,-0.036621,-0.743896,0.9272600000000001,-0.311528,-0.193851,-0.019266,-0.019082,-0.035937000000000004,,,,,,,,,,,,,,,,,,,,,,,,,,,,,,,,,,,,,,,,,,,,,,,,,,,,,,,,,,,,,,,,,
26934,1645818888.9942698,1645818889.011693,115.0,0.0,4273.846191,4512.307617,4222.563965,4235.384765999999,4294.871582,16317.0,1.0,15.0,,,,0.0,4.0,2.0,4.0,4.0,4.0,83.333336,,,,,,,,,,,,,,,,,,,,,,,,,,,,,,,,,,,,,,,,,,,,,,,,,,,,,,0.0,0.0,1.0,0.0,512.0,0.771324,,,,,,,,,,,,,,,,,,,,,,,,,
26935,1645818889.002085,1645818889.0195081,116.0,0.0,4238.974121,4548.205078,4184.615234000001,4222.05127,4243.077147999999,450.0,1.0,15.0,,,,0.0,4.0,2.0,4.0,4.0,4.0,83.333336,,,,,,,,58.0,0.0,0.212448,0.632568,-0.036621,-0.743896,0.9248190000000001,-0.330083,-0.203128,-0.017877,-0.019127,-0.038398,,,,,,,,,,,,,,,,,,,,,,,,,,,,,,,,,,,,,,,,,,,,,,,,,,,,,,,,,,,,,,,,,
26936,1645818889.0099,1645818889.027323,117.0,0.0,4247.692383,4572.307617,4189.230957,4228.717772999999,4244.615234000001,450.0,1.0,15.0,,,,0.0,4.0,2.0,4.0,4.0,4.0,83.333336,,,,,,,,,,,,,,,,,,,,,,,,,,,,,,,,,,,,,,,,,,,,,,,,,,,,,,,,,,,,,,,,,,,,,,,,,,,,,,,,,,,,
26937,1645818889.017715,1645818889.035137,118.0,0.0,4267.179688,4529.230957,4201.538574,4246.666504,4264.102539,450.0,1.0,15.0,,,,0.0,4.0,2.0,4.0,4.0,4.0,83.333336,,,,,,,,59.0,0.0,0.21240599999999998,0.632568,-0.036864999999999995,-0.743896,0.941421,-0.321294,-0.199222,-0.018238,-0.019119,-0.040418,,,,,,,,,,,,,,,,,,,,,,,,,,,,,,,,,,,,,,,,,,,,,,,,,,,,,,,,,,,,,,,,,
26938,1645818889.02553,1645818889.042952,119.0,0.0,4266.153809,4467.179688,4195.897461,4245.128418,4260.512695,16317.0,1.0,15.0,,,,0.0,4.0,2.0,4.0,4.0,4.0,83.333336,,,,,,,,,,,,,,,,,,,,,,,,,,,,,,,,,,,,,,,,,,,,,,,,,,,,,,0.0,0.0,1.0,0.0,512.0,0.771324,,,,,,,,,,,,,,,,,,,,,,,,,
26939,1645818889.0333462,1645818889.050767,120.0,0.0,4263.589844,4478.461426,4191.282227000001,4234.871582,4257.94873,450.0,1.0,15.0,,,,0.0,4.0,2.0,4.0,4.0,4.0,83.333336,,,,,,,,60.0,0.0,0.21240599999999998,0.632568,-0.036864999999999995,-0.743896,0.9350729999999999,-0.322759,-0.194827,-0.018611000000000003,-0.01916,-0.042431,,,,,,,,,,,,,,,,,,,,,,,,,,,,,,,,,,,,,,,,,,,,,,,,,,,,,,,,,,,,,,,,,
26940,1645818889.0411599,1645818889.058581,121.0,0.0,4283.077147999999,4510.256348,4197.94873,4240.512695,4270.769043,450.0,1.0,15.0,,,,0.0,4.0,2.0,4.0,4.0,4.0,83.333336,,,,,,,,,,,,,,,,,,,,,,,,,,,,,,,,,,,,,,,,,,,,,,,,,,,,,,,,,,,,,,,,,,,,,,,,,,,,,,,,,,,,
26941,1645818889.048976,1645818889.066396,122.0,0.0,4315.384765999999,4494.871582,4202.05127,4250.769043,4302.05127,450.0,1.0,15.0,,,,0.0,4.0,2.0,4.0,4.0,4.0,83.333336,,,,,,,,61.0,0.0,0.21240599999999998,0.632568,-0.036864999999999995,-0.743896,0.9355610000000001,-0.31543499999999997,-0.19336199999999998,-0.017385,-0.019051,-0.03809,,,,,,,,,,,,,,,,,,,,,,,,,,,,,,,,,,,,,,,,,,,,,,,,,,,,,,,,,,,,,,,,,
26942,1645818889.056791,1645818889.07431,123.0,0.0,4342.05127,4495.897461,4193.846191,4239.487305,4329.230957,16317.0,1.0,15.0,,,,0.0,4.0,2.0,4.0,4.0,4.0,83.333336,,,,,,,,,,,,,,,,,,,,,,,,,,,,,,,,,,,,,,,,,,,,,,,,,,,,,,0.0,0.0,1.0,0.0,512.0,0.771324,,,,,,,,,,,,,,,,,,,,,,,,,
26943,1645818889.064606,1645818889.082125,124.0,0.0,4373.846191,4519.487305,4186.153809,4228.205078,4336.922852000001,450.0,1.0,15.0,,,,0.0,4.0,2.0,4.0,4.0,4.0,83.333336,,,,,,,,62.0,0.0,0.21313200000000002,0.632324,-0.036864999999999995,-0.743896,0.9331200000000001,-0.321782,-0.191897,-0.017746,-0.01905,-0.040385000000000004,,,,,,,,,,,,,,,,,,,,,,,,,,,,,,,,,,,,,,,,,,,,,,,,,,,,,,,,,,,,,,,,,
26944,1645818889.072421,1645818889.08994,125.0,0.0,4447.179688,4533.846191,4196.410156,4221.538574,4355.897461,450.0,1.0,15.0,,,,0.0,4.0,2.0,4.0,4.0,4.0,83.333336,,,,,,,,,,,,,,,,,,,,,,,,,,,,,,,,,,,,,,,,,,,,,,,,,,,,,,,,,,,,,,,,,,,,,,,,,,,,,,,,,,,,
26945,1645818889.080236,1645818889.097754,126.0,0.0,4538.461426,4525.128418,4206.153809,4208.717772999999,4387.692383,450.0,1.0,15.0,,,,0.0,4.0,2.0,4.0,4.0,4.0,83.333336,,,,,,,,63.0,0.0,0.21236300000000002,0.632568,-0.037108999999999996,-0.743896,0.9399559999999999,-0.31104,-0.190921,-0.018119999999999997,-0.019,-0.042352,,,,,,,,,,,,,,,,,,,,,,,,,,,,,,,,,,,,,,,,,,,,,,,,,,,,,,,,,,,,,,,,,
26946,1645818889.088051,1645818889.105569,127.0,0.0,4618.974121,4498.974121,4211.282227000001,4214.358886999999,4426.666504,232.0,1.0,15.0,,,,0.0,4.0,2.0,4.0,4.0,4.0,83.333336,1.0,41.666668,3.0,0.0,4.0,2.0,4.0,,,,,,,,,,,,,1.0,0.0,0.0,,,,,,,,,,,,,,,,,,,,,,,,,,,,,,,,0.0,0.0,1.0,0.0,512.0,0.8653870000000001,18.46203,2.283698,2.000326,3.9100339999999996,3.055153,19.168125,16.777535999999998,13.329747,25.292776,13.986204999999998,1.179358,2.819689,2.491444,3.41744,2.458772,6.846533999999999,2.059645,1.6217139999999999,4.131262,3.1200810000000003,7.893807000000001,1.527884,2.191294,3.5444410000000004,2.91903
26947,1645818889.095866,1645818889.113384,0.0,0.0,4674.871582,4468.717772999999,4199.487305,4225.128418,4457.436035,450.0,1.0,15.0,,,,0.0,4.0,2.0,4.0,4.0,4.0,83.333336,,,,,,,,0.0,0.0,0.21236300000000002,0.632568,-0.037108999999999996,-0.743896,0.9306780000000001,-0.327642,-0.204105,-0.018261000000000003,-0.019053,-0.037922000000000004,,,,,,,,,,,,,,,,,,,,,,,,,,,,,,,,,,,,,,,,,,,,,,,,,,,,,,,,,,,,,,,,,
26948,1645818889.103681,1645818889.121198,1.0,0.0,4712.820313,4478.461426,4178.974121,4196.410156,4469.743652,450.0,1.0,15.0,,,,0.0,4.0,2.0,4.0,4.0,4.0,83.333336,,,,,,,,,,,,,,,,,,,,,,,,,,,,,,,,,,,,,,,,,,,,,,,,,,,,,,,,,,,,,,,,,,,,,,,,,,,,,,,,,,,,
26949,1645818889.1114962,1645818889.1291132,2.0,0.0,4745.641113000001,4532.820313,4192.307617,4162.05127,4478.461426,16094.0,1.0,15.0,,,,0.0,4.0,0.0,4.0,2.0,4.0,50.0,,,,,,,,1.0,0.0,0.213089,0.632324,-0.037108999999999996,-0.743896,0.9355610000000001,-0.319341,-0.197757,-0.018632,-0.018906,-0.040282,,,,,,,,,,,,,,,,,,,,,,,,,,,,,,,,,,,,,,,,,,,,,,,,,,,,,,,,,,,,,,,,,
26950,1645818889.1193109,1645818889.136927,3.0,0.0,4761.538574,4510.256348,4203.589844,4168.717772999999,4487.179688,450.0,1.0,15.0,,,,0.0,4.0,0.0,4.0,2.0,4.0,50.0,,,,,,,,,,,,,,,,,,,,,,,,,,,,,,,,,,,,,,,,,,,,,,,,,,,,,,0.0,0.0,1.0,0.0,512.0,0.8653870000000001,,,,,,,,,,,,,,,,,,,,,,,,,
26951,1645818889.127126,1645818889.144742,4.0,0.0,4749.230957,4455.897461,4163.589844,4177.436035,4475.897461,0.0,1.0,15.0,,,,0.0,4.0,0.0,4.0,2.0,4.0,50.0,,,,,,,,2.0,0.0,0.213089,0.632324,-0.037108999999999996,-0.743896,0.94435,-0.327153,-0.20703400000000002,-0.018917,-0.018871000000000002,-0.04226,,,,,,,,,,,,,,,,,,,,,,,,,,,,,,,,,,,,,,,,,,,,,,,,,,,,,,,,,,,,,,,,,
26952,1645818889.134941,1645818889.1525571,5.0,0.0,4734.358886999999,4503.077147999999,4152.307617,4183.077147999999,4477.436035,450.0,1.0,15.0,,,,0.0,4.0,0.0,4.0,2.0,4.0,50.0,,,,,,,,,,,,,,,,,,,,,,,,,,,,,,,,,,,,,,,,,,,,,,,,,,,,,,,,,,,,,,,,,,,,,,,,,,,,,,,,,,,,
26953,1645818889.142756,1645818889.160371,6.0,0.0,4757.436035,4558.461426,4214.871582,4197.436035,4520.0,16128.0,1.0,15.0,,,,0.0,4.0,0.0,4.0,2.0,4.0,50.0,,,,,,,,3.0,0.0,0.213089,0.632324,-0.037108999999999996,-0.743896,0.9404440000000001,-0.32959499999999997,-0.190433,-0.01766,-0.018937,-0.044039999999999996,,,,,,,,,,,,,,,,,,,,,,,,,,,,,,,,,,,,,,,,,,,,,,,,,,,,,,,,,,,,,,,,,
26954,1645818889.150571,1645818889.168186,7.0,0.0,4761.025879,4549.743652,4246.153809,4171.794922,4522.05127,450.0,1.0,15.0,,,,0.0,4.0,0.0,4.0,2.0,4.0,50.0,,,,,,,,,,,,,,,,,,,,,,,,,,,,,,,,,,,,,,,,,,,,,,,,,,,,,,0.0,0.0,1.0,0.0,512.0,0.8653870000000001,,,,,,,,,,,,,,,,,,,,,,,,,
26955,1645818889.158386,1645818889.176001,8.0,0.0,4693.846191,4502.563965,4201.025879,4133.846191,4462.05127,450.0,1.0,15.0,,,,0.0,4.0,0.0,4.0,2.0,4.0,50.0,,,,,,,,4.0,0.0,0.213047,0.632324,-0.037354000000000005,-0.743896,0.941421,-0.32813000000000003,-0.191897,-0.017945,-0.018899000000000003,-0.045642,,,,,,,,,,,,,,,,,,,,,,,,,,,,,,,,,,,,,,,,,,,,,,,,,,,,,,,,,,,,,,,,,
26956,1645818889.1662009,1645818889.183815,9.0,0.0,4634.358886999999,4453.333496,4178.974121,4138.974121,4435.384765999999,132.0,1.0,15.0,,,,0.0,4.0,0.0,4.0,2.0,4.0,50.0,,,,,,,,,,,,,,,,,,,,,,,,,,,,,,,,,,,,,,,,,,,,,,,,,,,,,,,,,,,,,,,,,,,,,,,,,,,,,,,,,,,,
26957,1645818889.174016,1645818889.1916301,10.0,0.0,4608.205078,4436.410156,4176.410156,4148.205078,4429.743652,450.0,1.0,15.0,,,,0.0,4.0,0.0,4.0,2.0,4.0,50.0,,,,,,,,5.0,0.0,0.213089,0.632324,-0.037108999999999996,-0.743896,0.94435,-0.327153,-0.20703400000000002,-0.01825,-0.018962,-0.040833,,,,,,,,,,,,,,,,,,,,,,,,,,,,,,,,,,,,,,,,,,,,,,,,,,,,,,,,,,,,,,,,,
26958,1645818889.1818311,1645818889.199544,11.0,0.0,4582.05127,4420.512695,4171.794922,4160.512695,4404.102539,16159.0,1.0,15.0,,,,0.0,4.0,0.0,4.0,2.0,4.0,50.0,,,,,,,,,,,,,,,,,,,,,,,,,,,,,,,,,,,,,,,,,,,,,,,,,,,,,,0.0,0.0,1.0,0.0,512.0,0.8653870000000001,,,,,,,,,,,,,,,,,,,,,,,,,
26959,1645818889.189647,1645818889.207359,12.0,0.0,4566.666504,4430.256348,4198.974121,4164.615234000001,4411.794922,450.0,1.0,15.0,,,,0.0,4.0,0.0,4.0,2.0,4.0,50.0,,,,,,,,6.0,0.0,0.213047,0.632324,-0.037354000000000005,-0.743896,0.941421,-0.32813000000000003,-0.191897,-0.018476,-0.018921,-0.042756,,,,,,,,,,,,,,,,,,,,,,,,,,,,,,,,,,,,,,,,,,,,,,,,,,,,,,,,,,,,,,,,,
26960,1645818889.197461,1645818889.215174,13.0,0.0,4531.282227000001,4487.179688,4188.717772999999,4133.846191,4407.692383,450.0,1.0,15.0,,,,0.0,4.0,0.0,4.0,2.0,4.0,50.0,,,,,,,,,,,,,,,,,,,,,,,,,,,,,,,,,,,,,,,,,,,,,,,,,,,,,,,,,,,,,,,,,,,,,,,,,,,,,,,,,,,,
26961,1645818889.205277,1645818889.2229881,14.0,0.0,4478.461426,4513.846191,4148.717772999999,4136.922852000001,4358.974121,450.0,1.0,15.0,,,,0.0,4.0,0.0,4.0,2.0,4.0,50.0,,,,,,,,7.0,0.0,0.213089,0.632324,-0.037108999999999996,-0.743896,0.945815,-0.333013,-0.20068699999999998,-0.018777000000000002,-0.018885,-0.044438,,,,,,,,,,,,,,,,,,,,,,,,,,,,,,,,,,,,,,,,,,,,,,,,,,,,,,,,,,,,,,,,,
26962,1645818889.213092,1645818889.230803,15.0,0.0,4466.153809,4458.974121,4171.794922,4181.538574,4346.153809,16159.0,1.0,15.0,,,,0.0,4.0,0.0,4.0,2.0,4.0,50.0,,,,,,,,,,,,,,,,,,,,1.0,0.0,0.0,,,,,,,,,,,,,,,,,,,,,,,,,,,,,,,,10.0,0.0,1.0,0.0,512.0,0.770706,47.554142,4.965896,2.167021,4.087827,3.254766,24.149437,19.735820999999998,15.150379999999998,26.297501,13.098188,1.274576,2.223822,2.733151,3.7105080000000004,2.499391,6.06738,2.2080029999999997,1.842108,4.43853,2.745731,14.158385999999998,1.817277,2.577882,3.786088,3.105448
26963,1645818889.220907,1645818889.238618,16.0,0.0,4465.128418,4423.589844,4202.563965,4171.282227000001,4368.717772999999,0.0,1.0,15.0,,,,0.0,4.0,0.0,4.0,2.0,4.0,50.0,,,,,,,,8.0,0.0,0.21223499999999998,0.632324,-0.037108999999999996,-0.7441409999999999,0.946792,-0.32422399999999996,-0.20361600000000002,-0.017534,-0.018949,-0.046,,,,,,,,,,,,,,,,,,,,,,,,,,,,,,,,,,,,,,,,,,,,,,,,,,,,,,,,,,,,,,,,,
26964,1645818889.228722,1645818889.246432,17.0,0.0,4436.922852000001,4474.358886999999,4180.0,4142.563965,4354.358886999999,0.0,1.0,15.0,,,,0.0,4.0,0.0,4.0,2.0,4.0,50.0,,,,,,,,,,,,,,,,,,,,,,,,,,,,,,,,,,,,,,,,,,,,,,,,,,,,,,,,,,,,,,,,,,,,,,,,,,,,,,,,,,,,
26965,1645818889.236537,1645818889.2542472,18.0,0.0,4423.589844,4532.820313,4183.077147999999,4173.846191,4331.794922,0.0,1.0,15.0,,,,0.0,4.0,0.0,4.0,2.0,4.0,50.0,,,,,,,,9.0,0.0,0.211506,0.632568,-0.037108999999999996,-0.7441409999999999,0.945815,-0.332525,-0.176761,-0.017929,-0.018959,-0.047258999999999995,,,,,,,,,,,,,,,,,,,,,,,,,,,,,,,,,,,,,,,,,,,,,,,,,,,,,,,,,,,,,,,,,
26966,1645818889.2443519,1645818889.2620618,19.0,0.0,4402.563965,4493.846191,4205.128418,4187.179688,4327.179688,0.0,1.0,15.0,,,,0.0,4.0,0.0,4.0,2.0,4.0,50.0,,,,,,,,,,,,,,,,,,,,,,,,,,,,,,,,,,,,,,,,,,,,,,,,,,,,,,10.0,0.0,1.0,0.0,512.0,0.770706,,,,,,,,,,,,,,,,,,,,,,,,,
26967,1645818889.252167,1645818889.269876,20.0,0.0,4354.871582,4423.077147999999,4190.256348,4169.743652,4311.282227000001,0.0,1.0,15.0,,,,0.0,4.0,0.0,4.0,2.0,4.0,50.0,,,,,,,,10.0,0.0,0.211506,0.632568,-0.037108999999999996,-0.7441409999999999,0.9277489999999999,-0.323247,-0.201663,-0.018285,-0.018869999999999998,-0.042289,,,,,,,,,,,,,,,,,,,,,,,,,,,,,,,,,,,,,,,,,,,,,,,,,,,,,,,,,,,,,,,,,
26968,1645818889.259982,1645818889.277791,21.0,0.0,4322.05127,4415.384765999999,4174.871582,4180.0,4284.102539,0.0,1.0,15.0,,,,0.0,4.0,0.0,4.0,2.0,4.0,50.0,,,,,,,,,,,,,,,,,,,,,,,,,,,,,,,,,,,,,,,,,,,,,,,,,,,,,,,,,,,,,,,,,,,,,,,,,,,,,,,,,,,,
26969,1645818889.267797,1645818889.2856052,22.0,0.0,4318.974121,4430.769043,4187.179688,4202.563965,4274.871582,0.0,1.0,15.0,,,,0.0,4.0,0.0,4.0,2.0,4.0,50.0,,,,,,,,11.0,0.0,0.211506,0.632568,-0.037108999999999996,-0.7441409999999999,0.9438620000000001,-0.314946,-0.203128,-0.018507,-0.018936,-0.037816,,,,,,,,,,,,,,,,,,,,,,,,,,,,,,,,,,,,,,,,,,,,,,,,,,,,,,,,,,,,,,,,,
26970,1645818889.2756119,1645818889.2934198,23.0,0.0,4331.282227000001,4493.333496,4205.128418,4178.974121,4295.897461,0.0,1.0,15.0,,,,0.0,4.0,0.0,4.0,2.0,4.0,50.0,,,,,,,,,,,,,,,,,,,,,,,,,,,,,,,,,,,,,,,,,,,,,,,,,,,,,,10.0,0.0,1.0,0.0,512.0,0.770706,,,,,,,,,,,,,,,,,,,,,,,,,
26971,1645818889.283427,1645818889.301235,24.0,0.0,4349.230957,4550.769043,4228.717772999999,4160.0,4330.769043,0.0,1.0,15.0,,,,0.0,4.0,0.0,4.0,2.0,4.0,50.0,,,,,,,,12.0,0.0,0.211506,0.632568,-0.037108999999999996,-0.7441409999999999,0.938003,-0.3252,-0.194827,-0.017193,-0.018946,-0.03379,,,,,,,,,,,,,,,,,,,,,,,,,,,,,,,,,,,,,,,,,,,,,,,,,,,,,,,,,,,,,,,,,
26972,1645818889.291242,1645818889.3090491,25.0,0.0,4349.743652,4526.666504,4231.794922,4181.538574,4334.871582,0.0,1.0,15.0,,,,0.0,4.0,0.0,4.0,2.0,4.0,50.0,,,,,,,,,,,,,,,,,,,,,,,,,,,,,,,,,,,,,,,,,,,,,,,,,,,,,,,,,,,,,,,,,,,,,,,,,,,,,,,,,,,,
26973,1645818889.299057,1645818889.316864,26.0,0.0,4318.974121,4466.666504,4203.589844,4180.512695,4293.333496,0.0,1.0,15.0,,,,0.0,4.0,0.0,4.0,2.0,4.0,50.0,,,,,,,,13.0,0.0,0.211506,0.632568,-0.037108999999999996,-0.7441409999999999,0.946792,-0.310552,-0.189944,-0.017671,-0.018956,-0.036368,,,,,,,,,,,,,,,,,,,,,,,,,,,,,,,,,,,,,,,,,,,,,,,,,,,,,,,,,,,,,,,,,
26974,1645818889.3068721,1645818889.324679,27.0,0.0,4284.102539,4441.538574,4175.384765999999,4150.769043,4251.794922,0.0,1.0,15.0,,,,0.0,4.0,0.0,4.0,2.0,4.0,50.0,,,,,,,,,,,,,,,,,,,,,,,,,,,,,,,,,,,,,,,,,,,,,,,,,,,,,,10.0,0.0,1.0,0.0,512.0,0.770706,,,,,,,,,,,,,,,,,,,,,,,,,
26975,1645818889.314687,1645818889.332493,28.0,0.0,4258.974121,4462.563965,4161.025879,4156.922852000001,4224.615234000001,0.0,1.0,15.0,,,,0.0,4.0,0.0,4.0,2.0,4.0,50.0,,,,,,,,14.0,0.0,0.21227800000000002,0.632324,-0.036864999999999995,-0.7441409999999999,0.934585,-0.320806,-0.197757,-0.017955000000000002,-0.019063,-0.032585,,,,,,,,,,,,,,,,,,,,,,,,,,,,,,,,,,,,,,,,,,,,,,,,,,,,,,,,,,,,,,,,,
26976,1645818889.322502,1645818889.340308,29.0,0.0,4253.333496,4491.794922,4165.128418,4177.436035,4205.128418,0.0,1.0,15.0,,,,0.0,4.0,0.0,4.0,2.0,4.0,50.0,,,,,,,,,,,,,,,,,,,,,,,,,,,,,,,,,,,,,,,,,,,,,,,,,,,,,,,,,,,,,,,,,,,,,,,,,,,,,,,,,,,,
26977,1645818889.330317,1645818889.348223,30.0,0.0,4245.128418,4486.666504,4166.153809,4167.692383,4187.692383,0.0,1.0,15.0,,,,0.0,4.0,0.0,4.0,2.0,4.0,50.0,,,,,,,,15.0,0.0,0.21223499999999998,0.632324,-0.037108999999999996,-0.7441409999999999,0.9331200000000001,-0.326177,-0.19336199999999998,-0.018308,-0.019207,-0.028985000000000004,,,,,,,,,,,,,,,,,,,,,,,,,,,,,,,,,,,,,,,,,,,,,,,,,,,,,,,,,,,,,,,,,
26978,1645818889.338133,1645818889.356037,31.0,0.0,4258.974121,4472.307617,4182.05127,4167.692383,4203.077147999999,0.0,1.0,15.0,,,,0.0,4.0,0.0,4.0,2.0,4.0,50.0,,,,,,,,,,,,,,,,,,,,1.0,0.0,0.0,,,,,,,,,,,,,,,,,,,,,,,,,,,,,,,,10.0,0.0,1.0,0.0,512.0,0.750842,92.735229,9.743126,2.338521,4.13863,3.3199129999999997,29.256256,21.685516,16.824657000000002,26.220552,12.389821000000001,1.4227450000000001,1.73452,2.897123,3.845508,2.493191,4.930484,2.387566,2.06783,4.457835,2.384087,24.044394,2.570863,2.812176,3.8881050000000004,3.183046
26979,1645818889.345947,1645818889.363852,32.0,0.0,4297.436035,4502.05127,4214.358886999999,4159.487305,4244.615234000001,0.0,1.0,15.0,,,,0.0,4.0,0.0,4.0,2.0,4.0,50.0,,,,,,,,16.0,0.0,0.21223499999999998,0.632324,-0.037108999999999996,-0.7441409999999999,0.93019,-0.330571,-0.20019800000000001,-0.018626,-0.019288,-0.032043,,,,,,,,,,,,,,,,,,,,,,,,,,,,,,,,,,,,,,,,,,,,,,,,,,,,,,,,,,,,,,,,,
26980,1645818889.353763,1645818889.371666,33.0,0.0,4296.410156,4504.102539,4217.436035,4132.820313,4255.384765999999,0.0,1.0,15.0,,,,0.0,4.0,0.0,4.0,2.0,4.0,50.0,,,,,,,,,,,,,,,,,,,,,,,,,,,,,,,,,,,,,,,,,,,,,,,,,,,,,,,,,,,,,,,,,,,,,,,,,,,,,,,,,,,,
26981,1645818889.361578,1645818889.379481,34.0,0.0,4272.820313,4459.487305,4183.077147999999,4140.0,4227.692383,0.0,1.0,15.0,,,,0.0,4.0,0.0,4.0,2.0,4.0,50.0,,,,,,,,17.0,0.0,0.21219200000000002,0.632324,-0.037354000000000005,-0.7441409999999999,0.937026,-0.31543499999999997,-0.197269,-0.017398,-0.019264,-0.034796,,,,,,,,,,,,,,,,,,,,,,,,,,,,,,,,,,,,,,,,,,,,,,,,,,,,,,,,,,,,,,,,,
26982,1645818889.3693929,1645818889.3872962,35.0,0.0,4276.922852000001,4448.717772999999,4172.307617,4164.615234000001,4212.307617,0.0,1.0,15.0,,,,0.0,4.0,0.0,4.0,2.0,4.0,50.0,,,,,,,,,,,,,,,,,,,,,,,,,,,,,,,,,,,,,,,,,,,,,,,,,,,,,,0.0,0.0,1.0,0.0,512.0,0.750842,,,,,,,,,,,,,,,,,,,,,,,,,
26983,1645818889.377208,1645818889.39511,36.0,0.0,4297.436035,4477.94873,4198.461426,4153.333496,4235.384765999999,0.0,1.0,15.0,,,,0.0,4.0,0.0,4.0,2.0,4.0,50.0,,,,,,,,18.0,0.0,0.212321,0.632568,-0.037354000000000005,-0.743896,0.953628,-0.318853,-0.192386,-0.017758000000000003,-0.019242,-0.037370999999999995,,,,,,,,,,,,,,,,,,,,,,,,,,,,,,,,,,,,,,,,,,,,,,,,,,,,,,,,,,,,,,,,,
26984,1645818889.385023,1645818889.403025,37.0,0.0,4293.846191,4508.717772999999,4197.436035,4122.563965,4245.128418,0.0,1.0,15.0,,,,0.0,4.0,0.0,4.0,2.0,4.0,50.0,,,,,,,,,,,,,,,,,,,,,,,,,,,,,,,,,,,,,,,,,,,,,,,,,,,,,,,,,,,,,,,,,,,,,,,,,,,,,,,,,,,,
26985,1645818889.392838,1645818889.41084,38.0,0.0,4280.0,4477.436035,4178.974121,4121.538574,4224.102539,0.0,1.0,15.0,,,,0.0,4.0,0.0,4.0,2.0,4.0,50.0,,,,,,,,19.0,0.0,0.212277,0.632568,-0.037598,-0.743896,0.963882,-0.304204,-0.201663,-0.018179,-0.019124000000000002,-0.033341,,,,,,,,,,,,,,,,,,,,,,,,,,,,,,,,,,,,,,,,,,,,,,,,,,,,,,,,,,,,,,,,,
26986,1645818889.400653,1645818889.418654,39.0,0.0,4292.307617,4435.897461,4193.333496,4141.025879,4228.205078,0.0,1.0,15.0,,,,0.0,4.0,0.0,4.0,2.0,4.0,50.0,,,,,,,,,,,,,,,,,,,,,,,,,,,,,,,,,,,,,,,,,,,,,,,,,,,,,,0.0,0.0,1.0,0.0,512.0,0.750842,,,,,,,,,,,,,,,,,,,,,,,,,
26987,1645818889.408468,1645818889.4264688,40.0,0.0,4323.077147999999,4476.922852000001,4208.205078,4138.461426,4254.358886999999,0.0,1.0,15.0,,,,0.0,4.0,0.0,4.0,2.0,4.0,50.0,,,,,,,,20.0,0.0,0.213088,0.632568,-0.037842,-0.7436520000000001,0.944839,-0.326177,-0.18799100000000002,-0.018559,-0.019165,-0.036012999999999996,,,,,,,,,,,,,,,,,,,,,,,,,,,,,,,,,,,,,,,,,,,,,,,,,,,,,,,,,,,,,,,,,
26988,1645818889.416283,1645818889.434284,41.0,0.0,4333.333496,4545.641113000001,4204.615234000001,4132.820313,4255.897461,0.0,1.0,15.0,,,,0.0,4.0,0.0,4.0,2.0,4.0,50.0,,,,,,,,,,,,,,,,,,,,,,,,,,,,,,,,,,,,,,,,,,,,,,,,,,,,,,,,,,,,,,,,,,,,,,,,,,,,,,,,,,,,
26989,1645818889.424098,1645818889.4420981,42.0,0.0,4338.461426,4555.897461,4194.871582,4150.256348,4247.179688,0.0,1.0,15.0,,,,0.0,4.0,0.0,4.0,2.0,4.0,50.0,,,,,,,,21.0,0.0,0.213171,0.632813,-0.038086,-0.743408,0.9316549999999999,-0.327642,-0.184085,-0.018802000000000003,-0.019104,-0.032264999999999995,,,,,,,,,,,,,,,,,,,,,,,,,,,,,,,,,,,,,,,,,,,,,,,,,,,,,,,,,,,,,,,,,
26990,1645818889.4319131,1645818889.449913,43.0,0.0,4425.128418,4509.230957,4203.589844,4184.102539,4290.256348,0.0,1.0,15.0,,,,0.0,4.0,0.0,4.0,2.0,4.0,50.0,,,,,,,,,,,,,,,,,,,,,,,,,,,,,,,,,,,,,,,,,,,,,,,,,,,,,,0.0,0.0,1.0,0.0,512.0,0.750842,,,,,,,,,,,,,,,,,,,,,,,,,
26991,1645818889.439728,1645818889.457727,44.0,0.0,4554.871582,4481.025879,4215.897461,4206.666504,4357.94873,0.0,1.0,15.0,,,,0.0,4.0,0.0,4.0,2.0,4.0,50.0,,,,,,,,22.0,0.0,0.213171,0.632813,-0.038086,-0.743408,0.9399559999999999,-0.33350100000000005,-0.192874,-0.019071,-0.019,-0.034947000000000006,,,,,,,,,,,,,,,,,,,,,,,,,,,,,,,,,,,,,,,,,,,,,,,,,,,,,,,,,,,,,,,,,
26992,1645818889.447543,1645818889.465542,45.0,0.0,4614.871582,4519.487305,4214.358886999999,4203.589844,4383.589844,0.0,1.0,15.0,,,,0.0,4.0,0.0,4.0,2.0,4.0,50.0,,,,,,,,,,,,,,,,,,,,,,,,,,,,,,,,,,,,,,,,,,,,,,,,,,,,,,,,,,,,,,,,,,,,,,,,,,,,,,,,,,,,
26993,1645818889.455358,1645818889.473457,46.0,0.0,4646.666504,4575.384765999999,4216.922852000001,4198.461426,4405.641113000001,0.0,1.0,15.0,,,,0.0,4.0,0.0,4.0,2.0,4.0,50.0,,,,,,,,23.0,0.0,0.213128,0.632813,-0.03833,-0.743408,0.9428850000000001,-0.33105999999999997,-0.176761,-0.019214,-0.019005,-0.031159,,,,,,,,,,,,,,,,,,,,,,,,,,,,,,,,,,,,,,,,,,,,,,,,,,,,,,,,,,,,,,,,,
26994,1645818889.4631732,1645818889.481271,47.0,0.0,4688.205078,4585.128418,4213.333496,4191.794922,4430.769043,0.0,1.0,15.0,,,,0.0,4.0,0.0,4.0,2.0,4.0,50.0,,,,,,,,,,,,,,,,,,,,1.0,0.0,0.0,,,,,,,,,,,,,,,,,,,,,,,,,,,,,,,,0.0,0.0,1.0,0.0,512.0,0.520207,150.268951,16.417386999999998,2.490745,4.136132,3.206178,32.536053,22.208855,18.469172,24.970917,11.906371,1.577582,1.4988219999999999,2.965535,3.8369230000000005,2.435791,3.784096,2.5679380000000003,2.2258259999999996,4.159076,2.060173,36.644259999999996,3.7201400000000002,2.8649169999999997,3.9125419999999997,3.1139930000000002
26995,1645818889.470988,1645818889.489086,48.0,0.0,4718.974121,4566.153809,4216.922852000001,4178.461426,4440.512695,0.0,1.0,15.0,,,,0.0,4.0,0.0,4.0,2.0,4.0,50.0,,,,,,,,24.0,0.0,0.213851,0.632568,-0.03833,-0.743408,0.936049,-0.324712,-0.19336199999999998,-0.019393,-0.019008,-0.027701999999999997,,,,,,,,,,,,,,,,,,,,,,,,,,,,,,,,,,,,,,,,,,,,,,,,,,,,,,,,,,,,,,,,,
26996,1645818889.478803,1645818889.496901,49.0,0.0,4733.846191,4596.922852000001,4239.487305,4181.025879,4447.692383,0.0,1.0,15.0,,,,0.0,4.0,0.0,4.0,2.0,4.0,50.0,,,,,,,,,,,,,,,,,,,,,,,,,,,,,,,,,,,,,,,,,,,,,,,,,,,,,,,,,,,,,,,,,,,,,,,,,,,,,,,,,,,,
26997,1645818889.486618,1645818889.504715,50.0,0.0,4716.410156,4646.153809,4237.94873,4202.563965,4442.05127,0.0,1.0,15.0,,,,0.0,4.0,0.0,4.0,2.0,4.0,50.0,,,,,,,,25.0,0.0,0.213851,0.632568,-0.03833,-0.743408,0.9389790000000001,-0.339361,-0.20361600000000002,-0.01799,-0.019012,-0.030889,,,,,,,,,,,,,,,,,,,,,,,,,,,,,,,,,,,,,,,,,,,,,,,,,,,,,,,,,,,,,,,,,
26998,1645818889.4944339,1645818889.51253,51.0,0.0,4677.94873,4613.333496,4201.025879,4201.538574,4425.641113000001,0.0,1.0,15.0,,,,0.0,4.0,0.0,4.0,2.0,4.0,50.0,,,,,,,,,,,,,,,,,,,,,,,,,,,,,,,,,,,,,,,,,,,,,,,,,,,,,,0.0,0.0,1.0,0.0,512.0,0.520207,,,,,,,,,,,,,,,,,,,,,,,,,
26999,1645818889.502248,1645818889.520345,52.0,0.0,4665.641113000001,4570.256348,4205.128418,4197.436035,4425.641113000001,0.0,1.0,15.0,,,,0.0,4.0,0.0,4.0,2.0,4.0,50.0,,,,,,,,26.0,0.0,0.21380700000000002,0.632568,-0.038574000000000004,-0.743408,0.939467,-0.342779,-0.195804,-0.018389,-0.019015,-0.033757,,,,,,,,,,,,,,,,,,,,,,,,,,,,,,,,,,,,,,,,,,,,,,,,,,,,,,,,,,,,,,,,,
27000,1645818889.5100641,1645818889.528159,53.0,0.0,4655.384765999999,4608.205078,4233.846191,4209.743652,4410.256348,0.0,1.0,15.0,,,,0.0,4.0,0.0,4.0,2.0,4.0,50.0,,,,,,,,,,,,,,,,,,,,,,,,,,,,,,,,,,,,,,,,,,,,,,,,,,,,,,,,,,,,,,,,,,,,,,,,,,,,,,,,,,,,
27001,1645818889.517879,1645818889.535974,54.0,0.0,4620.0,4640.512695,4214.358886999999,4201.025879,4378.974121,0.0,1.0,15.0,,,,0.0,4.0,0.0,4.0,2.0,4.0,50.0,,,,,,,,27.0,0.0,0.21380700000000002,0.632568,-0.038574000000000004,-0.743408,0.941909,-0.33350100000000005,-0.190921,-0.018698,-0.018969,-0.030137,,,,,,,,,,,,,,,,,,,,,,,,,,,,,,,,,,,,,,,,,,,,,,,,,,,,,,,,,,,,,,,,,
27002,1645818889.525694,1645818889.5437882,55.0,0.0,4587.692383,4568.717772999999,4189.230957,4180.512695,4373.333496,0.0,1.0,15.0,,,,0.0,4.0,0.0,4.0,2.0,4.0,50.0,,,,,,,,,,,,,,,,,,,,,,,,,,,,,,,,,,,,,,,,,,,,,,,,,,,,,,0.0,0.0,1.0,0.0,512.0,0.520207,,,,,,,,,,,,,,,,,,,,,,,,,
27003,1645818889.533509,1645818889.551703,56.0,0.0,4566.153809,4477.94873,4209.230957,4191.794922,4376.410156,0.0,1.0,15.0,,,,0.0,4.0,0.0,4.0,2.0,4.0,50.0,,,,,,,,28.0,0.0,0.21303899999999998,0.632813,-0.038818,-0.743408,0.929213,-0.330083,-0.195804,-0.019025999999999998,-0.019025,-0.033129,,,,,,,,,,,,,,,,,,,,,,,,,,,,,,,,,,,,,,,,,,,,,,,,,,,,,,,,,,,,,,,,,
27004,1645818889.5413241,1645818889.5595179,57.0,0.0,4544.615234000001,4505.128418,4231.282227000001,4201.025879,4366.666504,0.0,1.0,15.0,,,,0.0,4.0,0.0,4.0,2.0,4.0,50.0,,,,,,,,,,,,,,,,,,,,,,,,,,,,,,,,,,,,,,,,,,,,,,,,,,,,,,,,,,,,,,,,,,,,,,,,,,,,,,,,,,,,
27005,1645818889.549139,1645818889.567332,58.0,0.0,4534.871582,4586.153809,4238.974121,4193.846191,4368.205078,0.0,1.0,15.0,,,,0.0,4.0,0.0,4.0,2.0,4.0,50.0,,,,,,,,29.0,0.0,0.21303899999999998,0.632813,-0.038818,-0.743408,0.938003,-0.321782,-0.193851,-0.019418,-0.019076,-0.029523,,,,,,,,,,,,,,,,,,,,,,,,,,,,,,,,,,,,,,,,,,,,,,,,,,,,,,,,,,,,,,,,,
27006,1645818889.556954,1645818889.5751472,59.0,0.0,4513.333496,4588.717772999999,4235.897461,4190.769043,4361.025879,0.0,1.0,15.0,,,,0.0,4.0,0.0,4.0,2.0,4.0,50.0,,,,,,,,,,,,,,,,,,,,,,,,,,,,,,,,,,,,,,,,,,,,,,,,,,,,,,11.0,0.0,1.0,0.0,512.0,0.520207,,,,,,,,,,,,,,,,,,,,,,,,,
27007,1645818889.564769,1645818889.583062,60.0,0.0,4463.589844,4547.179688,4229.230957,4205.641113000001,4329.743652,0.0,1.0,15.0,,,,0.0,4.0,1.0,4.0,2.0,4.0,58.33333199999999,,,,,,,,30.0,0.0,0.21218499999999998,0.632813,-0.038818,-0.7436520000000001,0.931167,-0.332036,-0.20556999999999997,-0.017965000000000002,-0.01917,-0.032576999999999995,,,,,,,,,,,,,,,,,,,,,,,,,,,,,,,,,,,,,,,,,,,,,,,,,,,,,,,,,,,,,,,,,
27008,1645818889.572584,1645818889.5908759,61.0,0.0,4432.820313,4534.871582,4241.025879,4218.461426,4312.307617,0.0,1.0,15.0,,,,0.0,4.0,1.0,4.0,2.0,4.0,58.33333199999999,,,,,,,,,,,,,,,,,,,,,,,,,,,,,,,,,,,,,,,,,,,,,,,,,,,,,,,,,,,,,,,,,,,,,,,,,,,,,,,,,,,,
27009,1645818889.580399,1645818889.598691,62.0,0.0,4390.769043,4546.153809,4235.384765999999,4200.512695,4276.410156,0.0,1.0,15.0,,,,0.0,4.0,1.0,4.0,2.0,4.0,58.33333199999999,,,,,,,,31.0,0.0,0.21218499999999998,0.632813,-0.038818,-0.7436520000000001,0.9350729999999999,-0.319341,-0.19971,-0.018317,-0.019158,-0.035276,,,,,,,,,,,,,,,,,,,,,,,,,,,,,,,,,,,,,,,,,,,,,,,,,,,,,,,,,,,,,,,,,
27010,1645818889.5882142,1645818889.6065052,63.0,0.0,4349.743652,4519.487305,4215.384765999999,4196.410156,4245.128418,0.0,1.0,15.0,,,,0.0,4.0,1.0,4.0,2.0,4.0,58.33333199999999,1.0,41.666668,3.0,0.0,4.0,2.0,3.0,,,,,,,,,,,,,1.0,0.0,0.0,,,,,,,,,,,,,,,,,,,,,,,,,,,,,,,,11.0,0.0,1.0,0.0,512.0,0.397046,209.7789,23.963352,2.603845,4.219567,2.945109,32.495670000000004,21.334278,20.240799,22.739063,11.556567999999999,1.6789180000000001,1.545233,2.996283,3.760812,2.368423,3.1221389999999998,2.735466,2.26784,3.623365,1.804527,49.121821999999995,4.999809,2.876974,4.005682,2.924657
27011,1645818889.5960288,1645818889.61432,64.0,0.0,4348.205078,4494.358886999999,4223.077147999999,4213.846191,4257.94873,450.0,1.0,15.0,,,,0.0,4.0,1.0,4.0,2.0,4.0,58.33333199999999,,,,,,,,32.0,0.0,0.21218499999999998,0.632813,-0.038818,-0.7436520000000001,0.941909,-0.325689,-0.188968,-0.018633,-0.019244,-0.031505,,,,,,,,,,,,,,,,,,,,,,,,,,,,,,,,,,,,,,,,,,,,,,,,,,,,,,,,,,,,,,,,,
27012,1645818889.603844,1645818889.622135,65.0,0.0,4347.179688,4516.410156,4238.461426,4218.461426,4272.307617,450.0,1.0,15.0,,,,0.0,4.0,1.0,4.0,2.0,4.0,58.33333199999999,,,,,,,,,,,,,,,,,,,,,,,,,,,,,,,,,,,,,,,,,,,,,,,,,,,,,,,,,,,,,,,,,,,,,,,,,,,,,,,,,,,,
27013,1645818889.611659,1645818889.629949,66.0,0.0,4314.358886999999,4531.282227000001,4219.487305,4218.461426,4248.205078,16156.0,1.0,15.0,,,,0.0,4.0,1.0,4.0,2.0,4.0,58.33333199999999,,,,,,,,33.0,0.0,0.21218499999999998,0.632813,-0.038818,-0.7436520000000001,0.931167,-0.332036,-0.20556999999999997,-0.018772,-0.019273,-0.028110000000000003,,,,,,,,,,,,,,,,,,,,,,,,,,,,,,,,,,,,,,,,,,,,,,,,,,,,,,,,,,,,,,,,,
27014,1645818889.619474,1645818889.637764,67.0,0.0,4298.974121,4503.077147999999,4208.205078,4238.461426,4227.692383,450.0,1.0,15.0,,,,0.0,4.0,1.0,4.0,2.0,4.0,58.33333199999999,,,,,,,,,,,,,,,,,,,,,,,,,,,,,,,,,,,,,,,,,,,,,,,,,,,,,,11.0,0.0,1.0,0.0,512.0,0.397046,,,,,,,,,,,,,,,,,,,,,,,,,
27015,1645818889.627289,1645818889.6455789,68.0,0.0,4309.230957,4482.05127,4219.487305,4243.589844,4237.94873,139.0,1.0,15.0,,,,0.0,4.0,1.0,4.0,2.0,4.0,58.33333199999999,,,,,,,,34.0,0.0,0.21218499999999998,0.632813,-0.038818,-0.7436520000000001,0.941909,-0.325689,-0.188968,-0.019043,-0.019347,-0.025055,,,,,,,,,,,,,,,,,,,,,,,,,,,,,,,,,,,,,,,,,,,,,,,,,,,,,,,,,,,,,,,,,
27016,1645818889.635104,1645818889.653493,69.0,0.0,4287.692383,4494.358886999999,4204.615234000001,4232.307617,4222.05127,450.0,1.0,15.0,,,,0.0,4.0,1.0,4.0,2.0,4.0,58.33333199999999,,,,,,,,,,,,,,,,,,,,,,,,,,,,,,,,,,,,,,,,,,,,,,,,,,,,,,,,,,,,,,,,,,,,,,,,,,,,,,,,,,,,
27017,1645818889.642919,1645818889.661308,70.0,0.0,4258.461426,4508.717772999999,4188.205078,4224.102539,4194.871582,16191.0,1.0,15.0,,,,0.0,4.0,1.0,4.0,2.0,4.0,58.33333199999999,,,,,,,,35.0,0.0,0.21303899999999998,0.632813,-0.038818,-0.743408,0.938003,-0.3252,-0.188968,-0.019336000000000002,-0.019316999999999997,-0.028506999999999998,,,,,,,,,,,,,,,,,,,,,,,,,,,,,,,,,,,,,,,,,,,,,,,,,,,,,,,,,,,,,,,,,
27018,1645818889.650734,1645818889.669123,71.0,0.0,4250.256348,4486.153809,4200.0,4212.820313,4194.358886999999,450.0,1.0,15.0,,,,0.0,4.0,1.0,4.0,2.0,4.0,58.33333199999999,,,,,,,,,,,,,,,,,,,,,,,,,,,,,,,,,,,,,,,,,,,,,,,,,,,,,,11.0,0.0,1.0,0.0,512.0,0.397046,,,,,,,,,,,,,,,,,,,,,,,,,
27019,1645818889.658549,1645818889.6769369,72.0,0.0,4242.563965,4446.666504,4207.179688,4218.461426,4197.436035,450.0,1.0,15.0,,,,0.0,4.0,1.0,4.0,2.0,4.0,58.33333199999999,,,,,,,,36.0,0.0,0.21308400000000002,0.632813,-0.038574000000000004,-0.743408,0.944839,-0.333013,-0.191897,-0.019502000000000002,-0.01929,-0.025314,,,,,,,,,,,,,,,,,,,,,,,,,,,,,,,,,,,,,,,,,,,,,,,,,,,,,,,,,,,,,,,,,
27020,1645818889.6663651,1645818889.684752,73.0,0.0,4235.384765999999,4510.256348,4206.666504,4213.846191,4196.922852000001,136.0,1.0,15.0,,,,0.0,4.0,1.0,4.0,2.0,4.0,58.33333199999999,,,,,,,,,,,,,,,,,,,,,,,,,,,,,,,,,,,,,,,,,,,,,,,,,,,,,,,,,,,,,,,,,,,,,,,,,,,,,,,,,,,,
27021,1645818889.6741788,1645818889.692566,74.0,0.0,4245.641113000001,4625.641113000001,4222.563965,4183.589844,4213.846191,450.0,1.0,15.0,,,,0.0,4.0,1.0,4.0,2.0,4.0,58.33333199999999,,,,,,,,37.0,0.0,0.21235700000000002,0.633057,-0.038574000000000004,-0.743408,0.925795,-0.330083,-0.198245,-0.019701,-0.019363,-0.028789,,,,,,,,,,,,,,,,,,,,,,,,,,,,,,,,,,,,,,,,,,,,,,,,,,,,,,,,,,,,,,,,,
27022,1645818889.681995,1645818889.700381,75.0,0.0,4258.974121,4595.897461,4239.487305,4199.487305,4226.666504,16270.0,1.0,15.0,,,,0.0,4.0,1.0,4.0,2.0,4.0,58.33333199999999,,,,,,,,,,,,,,,,,,,,,,,,,,,,,,,,,,,,,,,,,,,,,,,,,,,,,,11.0,0.0,1.0,0.0,512.0,0.397046,,,,,,,,,,,,,,,,,,,,,,,,,
27023,1645818889.68981,1645818889.7081962,76.0,0.0,4231.282227000001,4493.846191,4217.436035,4223.077147999999,4193.846191,450.0,1.0,15.0,,,,0.0,4.0,1.0,4.0,2.0,4.0,58.33333199999999,,,,,,,,38.0,0.0,0.21240100000000003,0.633057,-0.03833,-0.743408,0.925307,-0.321294,-0.190921,-0.01983,-0.019331,-0.031867,,,,,,,,,,,,,,,,,,,,,,,,,,,,,,,,,,,,,,,,,,,,,,,,,,,,,,,,,,,,,,,,,
27024,1645818889.697625,1645818889.7160099,77.0,0.0,4194.871582,4505.641113000001,4192.307617,4202.563965,4157.94873,450.0,1.0,15.0,,,,0.0,4.0,1.0,4.0,2.0,4.0,58.33333199999999,,,,,,,,,,,,,,,,,,,,,,,,,,,,,,,,,,,,,,,,,,,,,,,,,,,,,,,,,,,,,,,,,,,,,,,,,,,,,,,,,,,,
27025,1645818889.70544,1645818889.723925,78.0,0.0,4208.205078,4539.487305,4203.077147999999,4191.282227000001,4178.461426,450.0,1.0,15.0,,,,0.0,4.0,1.0,4.0,2.0,4.0,58.33333199999999,,,,,,,,39.0,0.0,0.21240100000000003,0.633057,-0.03833,-0.743408,0.936049,-0.323735,-0.194827,-0.01844,-0.019374000000000002,-0.030978,,,,,,,,,,,,,,,,,,,,,,,,,,,,,,,,,,,,,,,,,,,,,,,,,,,,,,,,,,,,,,,,,
27026,1645818889.7132552,1645818889.73174,79.0,0.0,4233.846191,4495.384765999999,4221.025879,4205.641113000001,4210.769043,16270.0,1.0,15.0,,,,0.0,4.0,1.0,4.0,2.0,4.0,58.33333199999999,,,,,,,,,,,,,,,,,,,,1.0,0.0,0.0,,,,,,,,,,,,,,,,,,,,,,,,,,,,,,,,11.0,0.0,64.0,0.830139,1.0,0.0,259.626099,31.555138,2.8014189999999997,4.488746,2.625914,29.567314,19.36167,21.959660999999997,20.075115,11.214488000000001,1.724836,1.7800790000000002,3.093476,3.7083190000000004,2.340102,3.3972019999999996,2.873348,2.168673,3.0178279999999997,1.6514509999999998,58.79250699999999,6.250588,3.099151,4.273783,2.6789709999999998
27027,1645818889.7210698,1645818889.739554,80.0,0.0,4234.871582,4522.05127,4223.077147999999,4196.410156,4210.769043,450.0,1.0,15.0,,,,0.0,4.0,1.0,4.0,2.0,4.0,58.33333199999999,,,,,,,,40.0,0.0,0.212445,0.633057,-0.038086,-0.743408,0.931167,-0.32813000000000003,-0.190921,-0.01728,-0.019389,-0.033838,,,,,,,,,,,,,,,,,,,,,,,,,,,,,,,,,,,,,,,,,,,,,,,,,,,,,,,,,,,,,,,,,
27028,1645818889.728885,1645818889.747369,81.0,0.0,4230.769043,4632.307617,4220.512695,4178.461426,4196.410156,450.0,1.0,15.0,,,,0.0,4.0,1.0,4.0,2.0,4.0,58.33333199999999,,,,,,,,,,,,,,,,,,,,,,,,,,,,,,,,,,,,,,,,,,,,,,,,,,,,,,,,,,,,,,,,,,,,,,,,,,,,,,,,,,,,
27029,1645818889.7367,1645818889.755184,82.0,0.0,4226.666504,4645.641113000001,4223.589844,4180.512695,4191.282227000001,450.0,1.0,15.0,,,,0.0,4.0,1.0,4.0,2.0,4.0,58.33333199999999,,,,,,,,41.0,0.0,0.212445,0.633057,-0.038086,-0.743408,0.9487450000000001,-0.330083,-0.190921,-0.0177,-0.019355,-0.036606,,,,,,,,,,,,,,,,,,,,,,,,,,,,,,,,,,,,,,,,,,,,,,,,,,,,,,,,,,,,,,,,,
27030,1645818889.744515,1645818889.762998,83.0,0.0,4212.820313,4566.666504,4213.333496,4187.179688,4186.153809,16270.0,1.0,15.0,,,,0.0,4.0,1.0,4.0,2.0,4.0,58.33333199999999,,,,,,,,,,,,,,,,,,,,,,,,,,,,,,,,,,,,,,,,,,,,,,,,,,,,,,11.0,0.0,64.0,0.830139,1.0,0.0,,,,,,,,,,,,,,,,,,,,,,,,,
27031,1645818889.75233,1645818889.770813,84.0,0.0,4209.230957,4573.846191,4197.436035,4203.077147999999,4181.025879,450.0,1.0,15.0,,,,0.0,4.0,1.0,4.0,2.0,4.0,58.33333199999999,,,,,,,,42.0,0.0,0.212445,0.633057,-0.038086,-0.743408,0.941909,-0.32813000000000003,-0.192386,-0.018128000000000002,-0.019226,-0.03275,,,,,,,,,,,,,,,,,,,,,,,,,,,,,,,,,,,,,,,,,,,,,,,,,,,,,,,,,,,,,,,,,
27032,1645818889.760145,1645818889.778627,85.0,0.0,4211.282227000001,4620.0,4185.128418,4199.487305,4180.0,450.0,1.0,15.0,,,,0.0,4.0,1.0,4.0,2.0,4.0,58.33333199999999,,,,,,,,,,,,,,,,,,,,,,,,,,,,,,,,,,,,,,,,,,,,,,,,,,,,,,,,,,,,,,,,,,,,,,,,,,,,,,,,,,,,
27033,1645818889.76796,1645818889.786442,86.0,0.0,4207.692383,4566.666504,4185.128418,4184.615234000001,4172.820313,450.0,1.0,15.0,,,,0.0,4.0,1.0,4.0,2.0,4.0,58.33333199999999,,,,,,,,43.0,0.0,0.21248899999999998,0.633057,-0.037842,-0.743408,0.9316549999999999,-0.320806,-0.20068699999999998,-0.018463,-0.019208000000000003,-0.03553,,,,,,,,,,,,,,,,,,,,,,,,,,,,,,,,,,,,,,,,,,,,,,,,,,,,,,,,,,,,,,,,,
27034,1645818889.775775,1645818889.794257,87.0,0.0,4227.179688,4506.153809,4203.589844,4203.077147999999,4180.0,16270.0,1.0,15.0,,,,0.0,4.0,1.0,4.0,2.0,4.0,58.33333199999999,,,,,,,,,,,,,,,,,,,,,,,,,,,,,,,,,,,,,,,,,,,,,,,,,,,,,,11.0,0.0,64.0,0.830139,1.0,0.0,,,,,,,,,,,,,,,,,,,,,,,,,
27035,1645818889.78359,1645818889.802171,88.0,0.0,4264.615234000001,4528.205078,4234.871582,4236.922852000001,4220.512695,450.0,1.0,15.0,,,,0.0,4.0,1.0,4.0,2.0,4.0,58.33333199999999,,,,,,,,44.0,0.0,0.21253200000000003,0.633057,-0.037598,-0.743408,0.941909,-0.321782,-0.18457300000000001,-0.018716999999999998,-0.019191,-0.031782,,,,,,,,,,,,,,,,,,,,,,,,,,,,,,,,,,,,,,,,,,,,,,,,,,,,,,,,,,,,,,,,,
27036,1645818889.791405,1645818889.8099859,89.0,0.0,4266.153809,4567.692383,4234.358886999999,4222.563965,4232.307617,450.0,1.0,15.0,,,,0.0,4.0,1.0,4.0,2.0,4.0,58.33333199999999,,,,,,,,,,,,,,,,,,,,,,,,,,,,,,,,,,,,,,,,,,,,,,,,,,,,,,,,,,,,,,,,,,,,,,,,,,,,,,,,,,,,
27037,1645818889.7992198,1645818889.817801,90.0,0.0,4227.692383,4549.743652,4203.077147999999,4197.94873,4190.256348,450.0,1.0,15.0,,,,0.0,4.0,1.0,4.0,2.0,4.0,58.33333199999999,,,,,,,,45.0,0.0,0.21265900000000001,0.633301,-0.037598,-0.743164,0.9272600000000001,-0.325689,-0.197269,-0.017431,-0.019225,-0.034658,,,,,,,,,,,,,,,,,,,,,,,,,,,,,,,,,,,,,,,,,,,,,,,,,,,,,,,,,,,,,,,,,
27038,1645818889.807035,1645818889.825615,91.0,0.0,4225.641113000001,4516.410156,4211.794922,4225.641113000001,4184.102539,16270.0,1.0,15.0,,,,0.0,4.0,1.0,4.0,2.0,4.0,58.33333199999999,,,,,,,,,,,,,,,,,,,,,,,,,,,,,,,,,,,,,,,,,,,,,,,,,,,,,,11.0,0.0,64.0,0.830139,1.0,0.0,,,,,,,,,,,,,,,,,,,,,,,,,
27039,1645818889.81485,1645818889.83343,92.0,0.0,4240.0,4543.077147999999,4237.94873,4228.205078,4208.205078,450.0,1.0,15.0,,,,0.0,4.0,1.0,4.0,2.0,4.0,58.33333199999999,,,,,,,,46.0,0.0,0.212575,0.633057,-0.037354000000000005,-0.743408,0.933608,-0.31787600000000005,-0.184085,-0.017934000000000002,-0.019256,-0.037198,,,,,,,,,,,,,,,,,,,,,,,,,,,,,,,,,,,,,,,,,,,,,,,,,,,,,,,,,,,,,,,,,
27040,1645818889.822666,1645818889.841245,93.0,0.0,4228.205078,4600.512695,4227.179688,4181.538574,4200.512695,450.0,1.0,15.0,,,,0.0,4.0,1.0,4.0,2.0,4.0,58.33333199999999,,,,,,,,,,,,,,,,,,,,,,,,,,,,,,,,,,,,,,,,,,,,,,,,,,,,,,,,,,,,,,,,,,,,,,,,,,,,,,,,,,,,
27041,1645818889.83048,1645818889.8490589,94.0,0.0,4230.769043,4614.358886999999,4210.769043,4181.025879,4192.307617,450.0,1.0,15.0,,,,0.0,4.0,1.0,4.0,2.0,4.0,58.33333199999999,,,,,,,,47.0,0.0,0.212575,0.633057,-0.037354000000000005,-0.743408,0.928725,-0.327153,-0.20019800000000001,-0.018289,-0.019332,-0.039485,,,,,,,,,,,,,,,,,,,,,,,,,,,,,,,,,,,,,,,,,,,,,,,,,,,,,,,,,,,,,,,,,
27042,1645818889.8382962,1645818889.856874,95.0,0.0,4256.410156,4572.307617,4223.589844,4206.153809,4208.717772999999,16270.0,1.0,15.0,,,,0.0,4.0,1.0,4.0,2.0,4.0,58.33333199999999,,,,,,,,,,,,,,,,,,,,1.0,0.0,0.0,,,,,,,,,,,,,,,,,,,,,,,,,,,,,,,,11.0,0.0,64.0,0.94704,1.0,0.0,291.291962,38.417187,3.288982,4.924078,2.343898,25.596659,16.848646,23.133303,17.662205,10.849758,1.7318330000000002,2.0781959999999997,3.3339239999999997,3.720758,2.3715740000000003,4.679521,2.960049,1.963442,2.510033,1.61266,64.283524,7.478747,3.74871,4.707777,2.43698
27043,1645818889.8461108,1645818889.864788,96.0,0.0,4258.974121,4570.769043,4234.871582,4192.307617,4204.102539,450.0,1.0,15.0,,,,0.0,4.0,1.0,4.0,2.0,4.0,58.33333199999999,,,,,,,,48.0,0.0,0.212575,0.633057,-0.037354000000000005,-0.743408,0.933608,-0.32910700000000004,-0.191897,-0.01856,-0.019400999999999998,-0.035243000000000003,,,,,,,,,,,,,,,,,,,,,,,,,,,,,,,,,,,,,,,,,,,,,,,,,,,,,,,,,,,,,,,,,
27044,1645818889.853926,1645818889.872603,97.0,0.0,4250.769043,4631.794922,4226.666504,4181.025879,4202.05127,450.0,1.0,15.0,,,,0.0,4.0,1.0,4.0,2.0,4.0,58.33333199999999,,,,,,,,,,,,,,,,,,,,,,,,,,,,,,,,,,,,,,,,,,,,,,,,,,,,,,,,,,,,,,,,,,,,,,,,,,,,,,,,,,,,
27045,1645818889.861741,1645818889.880518,98.0,0.0,4254.358886999999,4634.871582,4221.538574,4192.307617,4216.922852000001,450.0,1.0,15.0,,,,0.0,4.0,1.0,4.0,2.0,4.0,58.33333199999999,,,,,,,,49.0,0.0,0.212575,0.633057,-0.037354000000000005,-0.743408,0.928725,-0.317388,-0.194339,-0.017339,-0.019365,-0.037676,,,,,,,,,,,,,,,,,,,,,,,,,,,,,,,,,,,,,,,,,,,,,,,,,,,,,,,,,,,,,,,,,
27046,1645818889.869556,1645818889.8883321,99.0,0.0,4264.615234000001,4579.487305,4229.743652,4191.282227000001,4221.538574,16270.0,1.0,15.0,,,,0.0,4.0,1.0,4.0,2.0,4.0,58.33333199999999,,,,,,,,,,,,,,,,,,,,,,,,,,,,,,,,,,,,,,,,,,,,,,,,,,,,,,11.0,0.0,64.0,0.94704,1.0,0.0,,,,,,,,,,,,,,,,,,,,,,,,,
27047,1645818889.877371,1645818889.896147,100.0,0.0,4262.05127,4605.128418,4227.692383,4193.333496,4212.307617,450.0,1.0,15.0,,,,0.0,4.0,1.0,4.0,2.0,4.0,58.33333199999999,,,,,,,,50.0,0.0,0.212448,0.632813,-0.037354000000000005,-0.7436520000000001,0.9350729999999999,-0.32861799999999997,-0.190433,-0.017753,-0.019235,-0.039817,,,,,,,,,,,,,,,,,,,,,,,,,,,,,,,,,,,,,,,,,,,,,,,,,,,,,,,,,,,,,,,,,
27048,1645818889.885186,1645818889.903961,101.0,0.0,4239.487305,4651.282227000001,4215.897461,4202.563965,4202.05127,450.0,1.0,15.0,,,,0.0,4.0,1.0,4.0,2.0,4.0,58.33333199999999,,,,,,,,,,,,,,,,,,,,,,,,,,,,,,,,,,,,,,,,,,,,,,,,,,,,,,,,,,,,,,,,,,,,,,,,,,,,,,,,,,,,
27049,1645818889.893001,1645818889.911776,102.0,0.0,4245.128418,4565.641113000001,4223.077147999999,4198.461426,4213.846191,450.0,1.0,15.0,,,,0.0,4.0,1.0,4.0,2.0,4.0,58.33333199999999,,,,,,,,51.0,0.0,0.212405,0.632813,-0.037598,-0.7436520000000001,0.920424,-0.317388,-0.19531500000000002,-0.018175,-0.019119,-0.035786,,,,,,,,,,,,,,,,,,,,,,,,,,,,,,,,,,,,,,,,,,,,,,,,,,,,,,,,,,,,,,,,,
27050,1645818889.900816,1645818889.919591,103.0,0.0,4271.794922,4494.871582,4240.0,4208.205078,4235.384765999999,16270.0,1.0,15.0,,,,0.0,4.0,1.0,4.0,2.0,4.0,58.33333199999999,,,,,,,,,,,,,,,,,,,,,,,,,,,,,,,,,,,,,,,,,,,,,,,,,,,,,,0.0,0.0,64.0,0.94704,1.0,0.0,,,,,,,,,,,,,,,,,,,,,,,,,
27051,1645818889.908631,1645818889.927405,104.0,0.0,4257.436035,4562.563965,4228.205078,4217.94873,4232.307617,450.0,1.0,15.0,,,,0.0,4.0,1.0,4.0,2.0,4.0,58.33333199999999,,,,,,,,52.0,0.0,0.212405,0.632813,-0.037598,-0.7436520000000001,0.944839,-0.314946,-0.185061,-0.018456999999999998,-0.019209,-0.038165,,,,,,,,,,,,,,,,,,,,,,,,,,,,,,,,,,,,,,,,,,,,,,,,,,,,,,,,,,,,,,,,,
27052,1645818889.9164462,1645818889.93532,105.0,0.0,4254.358886999999,4616.922852000001,4221.025879,4212.820313,4232.820313,450.0,1.0,15.0,,,,0.0,4.0,1.0,4.0,2.0,4.0,58.33333199999999,,,,,,,,,,,,,,,,,,,,,,,,,,,,,,,,,,,,,,,,,,,,,,,,,,,,,,,,,,,,,,,,,,,,,,,,,,,,,,,,,,,,
27053,1645818889.9242609,1645818889.943135,106.0,0.0,4289.743652,4578.974121,4238.974121,4208.717772999999,4250.256348,450.0,1.0,15.0,,,,0.0,4.0,1.0,4.0,2.0,4.0,58.33333199999999,,,,,,,,53.0,0.0,0.21253200000000003,0.633057,-0.037598,-0.743408,0.946792,-0.317388,-0.189944,-0.017197999999999998,-0.019241,-0.040354,,,,,,,,,,,,,,,,,,,,,,,,,,,,,,,,,,,,,,,,,,,,,,,,,,,,,,,,,,,,,,,,,
27054,1645818889.932076,1645818889.950949,107.0,0.0,4270.256348,4502.563965,4230.769043,4231.282227000001,4233.333496,16270.0,1.0,15.0,,,,0.0,4.0,1.0,4.0,2.0,4.0,58.33333199999999,,,,,,,,,,,,,,,,,,,,,,,,,,,,,,,,,,,,,,,,,,,,,,,,,,,,,,0.0,0.0,64.0,0.94704,1.0,0.0,,,,,,,,,,,,,,,,,,,,,,,,,
27055,1645818889.939891,1645818889.958764,108.0,0.0,4238.974121,4465.128418,4208.717772999999,4251.282227000001,4215.897461,450.0,1.0,15.0,,,,0.0,4.0,1.0,4.0,2.0,4.0,58.33333199999999,,,,,,,,54.0,0.0,0.21248899999999998,0.633057,-0.037842,-0.743408,0.940932,-0.316411,-0.195804,-0.015966,-0.01927,-0.042325,,,,,,,,,,,,,,,,,,,,,,,,,,,,,,,,,,,,,,,,,,,,,,,,,,,,,,,,,,,,,,,,,
27056,1645818889.947706,1645818889.966579,109.0,0.0,4258.974121,4512.307617,4215.384765999999,4231.282227000001,4236.922852000001,450.0,1.0,15.0,,,,0.0,4.0,1.0,4.0,2.0,4.0,58.33333199999999,,,,,,,,,,,,,,,,,,,,,,,,,,,,,,,,,,,,,,,,,,,,,,,,,,,,,,,,,,,,,,,,,,,,,,,,,,,,,,,,,,,,
27057,1645818889.955521,1645818889.974393,110.0,0.0,4275.384765999999,4578.974121,4234.871582,4223.077147999999,4257.436035,450.0,1.0,15.0,,,,0.0,4.0,1.0,4.0,2.0,4.0,58.33333199999999,,,,,,,,55.0,0.0,0.21248899999999998,0.633057,-0.037842,-0.743408,0.9506979999999999,-0.317388,-0.191897,-0.016518,-0.019296,-0.037897,,,,,,,,,,,,,,,,,,,,,,,,,,,,,,,,,,,,,,,,,,,,,,,,,,,,,,,,,,,,,,,,,
27058,1645818889.963336,1645818889.982208,111.0,0.0,4272.307617,4585.641113000001,4239.487305,4244.615234000001,4258.461426,16270.0,1.0,15.0,,,,0.0,4.0,1.0,4.0,2.0,4.0,58.33333199999999,,,,,,,,,,,,,,,,,,,,1.0,0.0,0.0,,,,,,,,,,,,,,,,,,,,,,,,,,,,,,,,0.0,0.0,64.0,0.981865,1.0,0.0,301.413696,43.860081,4.194542,5.389307,2.1532720000000003,23.050684,14.538870999999999,23.334148000000003,16.088631,10.546965,1.784516,2.341673,3.6900510000000004,3.75613,2.4348509999999997,6.591921000000001,2.9740580000000003,1.727948,2.185905,1.663315,65.512726,8.758156,4.845441,5.189038,2.2319459999999998
27059,1645818889.9711509,1645818889.9900222,112.0,0.0,4266.666504,4555.897461,4229.743652,4252.820313,4248.717772999999,450.0,1.0,15.0,,,,0.0,4.0,1.0,4.0,2.0,4.0,58.33333199999999,,,,,,,,56.0,0.0,0.21248899999999998,0.633057,-0.037842,-0.743408,0.93019,-0.307622,-0.180179,-0.017015,-0.019369,-0.040063999999999995,,,,,,,,,,,,,,,,,,,,,,,,,,,,,,,,,,,,,,,,,,,,,,,,,,,,,,,,,,,,,,,,,
27060,1645818889.978966,1645818889.9978368,113.0,0.0,4255.384765999999,4570.769043,4220.512695,4242.563965,4235.384765999999,450.0,1.0,15.0,,,,0.0,4.0,1.0,4.0,2.0,4.0,58.33333199999999,,,,,,,,,,,,,,,,,,,,,,,,,,,,,,,,,,,,,,,,,,,,,,,,,,,,,,,,,,,,,,,,,,,,,,,,,,,,,,,,,,,,
27061,1645818889.9867811,1645818890.005652,114.0,0.0,4265.641113000001,4602.563965,4224.615234000001,4258.974121,4247.179688,450.0,1.0,15.0,,,,0.0,4.0,1.0,4.0,2.0,4.0,58.33333199999999,,,,,,,,57.0,0.0,0.212445,0.633057,-0.038086,-0.743408,0.9340959999999999,-0.3252,-0.186526,-0.01585,-0.019385,-0.042064,,,,,,,,,,,,,,,,,,,,,,,,,,,,,,,,,,,,,,,,,,,,,,,,,,,,,,,,,,,,,,,,,
27062,1645818889.994597,1645818890.013566,115.0,0.0,4280.0,4565.128418,4224.102539,4253.333496,4254.358886999999,16270.0,1.0,15.0,,,,0.0,4.0,1.0,4.0,2.0,4.0,58.33333199999999,,,,,,,,,,,,,,,,,,,,,,,,,,,,,,,,,,,,,,,,,,,,,,,,,,,,,,0.0,0.0,64.0,0.981865,1.0,0.0,,,,,,,,,,,,,,,,,,,,,,,,,
27063,1645818890.002411,1645818890.0213811,116.0,0.0,4269.230957,4501.025879,4223.589844,4234.358886999999,4236.922852000001,450.0,1.0,15.0,,,,0.0,4.0,1.0,4.0,2.0,4.0,58.33333199999999,,,,,,,,58.0,0.0,0.212445,0.633057,-0.038086,-0.743408,0.9404440000000001,-0.330083,-0.193851,-0.016463,-0.0194,-0.043961,,,,,,,,,,,,,,,,,,,,,,,,,,,,,,,,,,,,,,,,,,,,,,,,,,,,,,,,,,,,,,,,,
27064,1645818890.010227,1645818890.029196,117.0,0.0,4267.692383,4542.05127,4235.897461,4252.307617,4241.025879,450.0,1.0,15.0,,,,0.0,4.0,1.0,4.0,2.0,4.0,58.33333199999999,,,,,,,,,,,,,,,,,,,,,,,,,,,,,,,,,,,,,,,,,,,,,,,,,,,,,,,,,,,,,,,,,,,,,,,,,,,,,,,,,,,,
27065,1645818890.018042,1645818890.03701,118.0,0.0,4272.820313,4606.153809,4234.871582,4252.307617,4249.743652,450.0,1.0,15.0,,,,0.0,4.0,1.0,4.0,2.0,4.0,58.33333199999999,,,,,,,,59.0,0.0,0.21240100000000003,0.633057,-0.03833,-0.743408,0.9365379999999999,-0.332036,-0.203128,-0.017013999999999998,-0.019413,-0.039272,,,,,,,,,,,,,,,,,,,,,,,,,,,,,,,,,,,,,,,,,,,,,,,,,,,,,,,,,,,,,,,,,
27066,1645818890.025857,1645818890.044825,119.0,0.0,4265.128418,4559.487305,4215.897461,4233.846191,4233.333496,16270.0,1.0,15.0,,,,0.0,4.0,1.0,4.0,2.0,4.0,58.33333199999999,,,,,,,,,,,,,,,,,,,,,,,,,,,,,,,,,,,,,,,,,,,,,,,,,,,,,,0.0,0.0,64.0,0.981865,1.0,0.0,,,,,,,,,,,,,,,,,,,,,,,,,
27067,1645818890.033672,1645818890.05264,120.0,0.0,4269.230957,4558.461426,4218.461426,4244.615234000001,4229.230957,450.0,1.0,15.0,,,,0.0,4.0,1.0,4.0,2.0,4.0,58.33333199999999,,,,,,,,60.0,0.0,0.212445,0.633057,-0.038086,-0.743408,0.9340959999999999,-0.3252,-0.186526,-0.015849000000000002,-0.019425,-0.041351,,,,,,,,,,,,,,,,,,,,,,,,,,,,,,,,,,,,,,,,,,,,,,,,,,,,,,,,,,,,,,,,,
27068,1645818890.041487,1645818890.060454,121.0,0.0,4283.589844,4635.897461,4232.307617,4244.102539,4247.179688,450.0,1.0,15.0,,,,0.0,4.0,1.0,4.0,2.0,4.0,58.33333199999999,,,,,,,,,,,,,,,,,,,,,,,,,,,,,,,,,,,,,,,,,,,,,,,,,,,,,,,,,,,,,,,,,,,,,,,,,,,,,,,,,,,,
27069,1645818890.0493019,1645818890.068269,122.0,0.0,4292.307617,4622.05127,4241.538574,4217.436035,4254.358886999999,450.0,1.0,15.0,,,,0.0,4.0,1.0,4.0,2.0,4.0,58.33333199999999,,,,,,,,61.0,0.0,0.21240100000000003,0.633057,-0.03833,-0.743408,0.9365379999999999,-0.332036,-0.203128,-0.016462,-0.019435,-0.036923000000000004,,,,,,,,,,,,,,,,,,,,,,,,,,,,,,,,,,,,,,,,,,,,,,,,,,,,,,,,,,,,,,,,,
27070,1645818890.057117,1645818890.076183,123.0,0.0,4293.846191,4553.846191,4248.205078,4213.846191,4255.897461,16270.0,1.0,15.0,,,,0.0,0.0,2.0,4.0,2.0,4.0,33.333332,,,,,,,,,,,,,,,,,,,,,,,,,,,,,,,,,,,,,,,,,,,,,,,,,,,,,,0.0,0.0,64.0,0.981865,1.0,0.0,,,,,,,,,,,,,,,,,,,,,,,,,
27071,1645818890.064932,1645818890.083998,124.0,0.0,4294.871582,4558.974121,4243.589844,4238.461426,4269.230957,450.0,1.0,15.0,,,,0.0,0.0,2.0,4.0,2.0,4.0,33.333332,,,,,,,,62.0,0.0,0.21240100000000003,0.633057,-0.03833,-0.743408,0.9184709999999999,-0.32813000000000003,-0.197757,-0.016964,-0.019494,-0.039236,,,,,,,,,,,,,,,,,,,,,,,,,,,,,,,,,,,,,,,,,,,,,,,,,,,,,,,,,,,,,,,,,
27072,1645818890.072747,1645818890.091813,125.0,0.0,4295.384765999999,4587.179688,4236.410156,4236.922852000001,4272.820313,450.0,1.0,15.0,,,,0.0,0.0,2.0,4.0,2.0,4.0,33.333332,,,,,,,,,,,,,,,,,,,,,,,,,,,,,,,,,,,,,,,,,,,,,,,,,,,,,,,,,,,,,,,,,,,,,,,,,,,,,,,,,,,,
27073,1645818890.0805619,1645818890.099627,126.0,0.0,4270.769043,4537.436035,4218.974121,4233.846191,4244.615234000001,450.0,1.0,15.0,,,,0.0,0.0,2.0,4.0,2.0,4.0,33.333332,,,,,,,,63.0,0.0,0.21320999999999998,0.633057,-0.038574000000000004,-0.743164,0.932631,-0.325689,-0.198245,-0.017269999999999997,-0.019497999999999998,-0.035069,,,,,,,,,,,,,,,,,,,,,,,,,,,,,,,,,,,,,,,,,,,,,,,,,,,,,,,,,,,,,,,,,
27074,1645818890.088377,1645818890.107442,127.0,0.0,4266.666504,4506.666504,4217.94873,4255.897461,4242.05127,232.0,1.0,15.0,,,,0.0,0.0,2.0,4.0,2.0,4.0,33.333332,1.0,16.666666,0.0,0.0,4.0,2.0,3.0,,,,,,,,,,,,,1.0,0.0,0.0,,,,,,,,,,,,,,,,,,,,,,,,,,,,,,,,0.0,0.0,64.0,0.22618200000000002,1.0,0.0,292.363037,47.202103,5.460064,5.703239,2.054967,23.253973000000002,13.051766,22.368026999999998,15.559535999999998,10.4856,1.8617029999999999,2.534911,4.045623,3.729746,2.469373,8.723033000000001,2.919341,1.53906,2.026457,1.751811,63.526566,10.098327000000001,6.158615,5.545403,2.073602
27075,1645818890.096192,1645818890.115257,0.0,0.0,4309.743652,4528.205078,4248.205078,4274.358886999999,4283.077147999999,450.0,1.0,15.0,,,,0.0,0.0,2.0,4.0,2.0,4.0,33.333332,,,,,,,,0.0,0.0,0.212313,0.633057,-0.038818,-0.743408,0.938491,-0.332525,-0.208988,-0.016177,-0.019500999999999998,-0.037568,,,,,,,,,,,,,,,,,,,,,,,,,,,,,,,,,,,,,,,,,,,,,,,,,,,,,,,,,,,,,,,,,
27076,1645818890.104007,1645818890.1230712,1.0,0.0,4324.615234000001,4567.179688,4257.436035,4269.230957,4289.230957,450.0,1.0,15.0,,,,0.0,0.0,2.0,4.0,2.0,4.0,33.333332,,,,,,,,,,,,,,,,,,,,,,,,,,,,,,,,,,,,,,,,,,,,,,,,,,,,,,,,,,,,,,,,,,,,,,,,,,,,,,,,,,,,
27077,1645818890.1118221,1645818890.1308858,2.0,0.0,4306.666504,4609.743652,4243.589844,4260.512695,4263.077147999999,21.0,1.0,15.0,,,,0.0,0.0,2.0,4.0,2.0,4.0,33.333332,,,,,,,,1.0,0.0,0.213166,0.633057,-0.038818,-0.743164,0.938491,-0.32422399999999996,-0.191897,-0.016708,-0.019455,-0.039817,,,,,,,,,,,,,,,,,,,,,,,,,,,,,,,,,,,,,,,,,,,,,,,,,,,,,,,,,,,,,,,,,
27078,1645818890.119637,1645818890.138701,3.0,0.0,4314.871582,4603.589844,4250.256348,4267.179688,4276.410156,450.0,1.0,15.0,,,,0.0,0.0,2.0,4.0,2.0,4.0,33.333332,,,,,,,,,,,,,,,,,,,,,,,,,,,,,,,,,,,,,,,,,,,,,,,,,,,,,,0.0,0.0,64.0,0.22618200000000002,1.0,0.0,,,,,,,,,,,,,,,,,,,,,,,,,
27079,1645818890.127452,1645818890.1465151,4.0,0.0,4295.897461,4567.179688,4226.153809,4256.922852000001,4275.384765999999,249.0,1.0,15.0,,,,0.0,0.0,2.0,4.0,2.0,4.0,33.333332,,,,,,,,2.0,0.0,0.213166,0.633057,-0.038818,-0.743164,0.947768,-0.321294,-0.189944,-0.015623,-0.019413999999999997,-0.035689,,,,,,,,,,,,,,,,,,,,,,,,,,,,,,,,,,,,,,,,,,,,,,,,,,,,,,,,,,,,,,,,,
27080,1645818890.135267,1645818890.1544302,5.0,0.0,4255.384765999999,4547.179688,4183.077147999999,4250.256348,4243.077147999999,450.0,1.0,15.0,,,,0.0,0.0,2.0,2.0,0.0,4.0,16.666666,,,,,,,,,,,,,,,,,,,,,,,,,,,,,,,,,,,,,,,,,,,,,,,,,,,,,,,,,,,,,,,,,,,,,,,,,,,,,,,,,,,,
27081,1645818890.143083,1645818890.1622438,6.0,0.0,4285.128418,4542.563965,4215.384765999999,4261.538574,4253.846191,309.0,1.0,15.0,,,,0.0,0.0,2.0,2.0,0.0,4.0,16.666666,,,,,,,,3.0,0.0,0.21329099999999998,0.633301,-0.038818,-0.74292,0.9585110000000001,-0.32959499999999997,-0.208988,-0.014647,-0.019278999999999998,-0.038175,,,,,,,,,,,,,,,,,,,,,,,,,,,,,,,,,,,,,,,,,,,,,,,,,,,,,,,,,,,,,,,,,
27082,1645818890.150898,1645818890.170059,7.0,0.0,4332.820313,4530.769043,4269.230957,4263.077147999999,4284.615234000001,450.0,1.0,15.0,,,,0.0,0.0,2.0,2.0,0.0,4.0,16.666666,,,,,,,,,,,,,,,,,,,,,,,,,,,,,,,,,,,,,,,,,,,,,,,,,,,,,,0.0,0.0,64.0,0.22618200000000002,1.0,0.0,,,,,,,,,,,,,,,,,,,,,,,,,
27083,1645818890.158713,1645818890.177874,8.0,0.0,4309.743652,4534.358886999999,4236.922852000001,4237.94873,4264.615234000001,450.0,1.0,15.0,,,,0.0,0.0,2.0,2.0,0.0,4.0,16.666666,,,,,,,,4.0,0.0,0.213247,0.633301,-0.039063,-0.74292,0.9282370000000001,-0.314458,-0.18457300000000001,-0.015331000000000001,-0.019353,-0.040313999999999996,,,,,,,,,,,,,,,,,,,,,,,,,,,,,,,,,,,,,,,,,,,,,,,,,,,,,,,,,,,,,,,,,
27084,1645818890.166528,1645818890.185688,9.0,0.0,4275.897461,4555.897461,4201.538574,4213.333496,4232.307617,0.0,1.0,15.0,,,,0.0,0.0,2.0,2.0,0.0,4.0,16.666666,,,,,,,,,,,,,,,,,,,,,,,,,,,,,,,,,,,,,,,,,,,,,,,,,,,,,,,,,,,,,,,,,,,,,,,,,,,,,,,,,,,,
27085,1645818890.1743429,1645818890.193503,10.0,0.0,4284.102539,4600.0,4224.102539,4206.666504,4241.025879,450.0,1.0,15.0,,,,0.0,0.0,2.0,2.0,0.0,4.0,16.666666,,,,,,,,5.0,0.0,0.214096,0.633301,-0.039063,-0.742676,0.928725,-0.327642,-0.182132,-0.015995,-0.01942,-0.035941,,,,,,,,,,,,,,,,,,,,,,,,,,,,,,,,,,,,,,,,,,,,,,,,,,,,,,,,,,,,,,,,,
27086,1645818890.182158,1645818890.201318,11.0,0.0,4300.0,4642.563965,4240.0,4214.358886999999,4253.333496,16240.0,1.0,15.0,,,,0.0,0.0,2.0,2.0,0.0,4.0,16.666666,,,,,,,,,,,,,,,,,,,,,,,,,,,,,,,,,,,,,,,,,,,,,,,,,,,,,,0.0,0.0,64.0,0.22618200000000002,1.0,0.0,,,,,,,,,,,,,,,,,,,,,,,,,
27087,1645818890.189973,1645818890.209132,12.0,0.0,4315.384765999999,4610.769043,4239.487305,4235.384765999999,4260.512695,450.0,1.0,15.0,,,,0.0,0.0,2.0,2.0,0.0,4.0,16.666666,,,,,,,,6.0,0.0,0.213247,0.633301,-0.039063,-0.74292,0.9340959999999999,-0.334966,-0.20508099999999999,-0.016495,-0.019431,-0.038206,,,,,,,,,,,,,,,,,,,,,,,,,,,,,,,,,,,,,,,,,,,,,,,,,,,,,,,,,,,,,,,,,
27088,1645818890.197788,1645818890.216947,13.0,0.0,4327.692383,4598.974121,4250.256348,4230.769043,4274.871582,450.0,1.0,15.0,,,,0.0,0.0,2.0,2.0,0.0,4.0,16.666666,,,,,,,,,,,,,,,,,,,,,,,,,,,,,,,,,,,,,,,,,,,,,,,,,,,,,,,,,,,,,,,,,,,,,,,,,,,,,,,,,,,,
27089,1645818890.205603,1645818890.224861,14.0,0.0,4307.692383,4644.615234000001,4242.05127,4217.94873,4272.307617,450.0,1.0,15.0,,,,0.0,0.0,2.0,2.0,0.0,4.0,16.666666,,,,,,,,7.0,0.0,0.213202,0.633301,-0.039307,-0.74292,0.9355610000000001,-0.32861799999999997,-0.189944,-0.016896,-0.019441,-0.040392000000000004,,,,,,,,,,,,,,,,,,,,,,,,,,,,,,,,,,,,,,,,,,,,,,,,,,,,,,,,,,,,,,,,,
27090,1645818890.213418,1645818890.232676,15.0,0.0,4278.461426,4627.692383,4221.538574,4248.717772999999,4251.282227000001,16240.0,1.0,15.0,,,,0.0,0.0,2.0,2.0,0.0,4.0,16.666666,,,,,,,,,,,,,,,,,,,,1.0,0.0,0.0,,,,,,,,,,,,,,,,,,,,,,,,,,,,,,,,0.0,0.0,1.0,0.0,512.0,1.0,269.444672,47.73431,6.8181199999999995,5.728527,2.015894,25.885842999999998,12.552414,20.602678,15.760669,10.8068,1.9939220000000002,2.6409130000000003,4.25854,3.573204,2.4183689999999998,10.530696,2.810752,1.442318,1.9268060000000002,1.820543,59.583611,11.273772,7.283572,5.6308370000000005,1.9590330000000002
27091,1645818890.221233,1645818890.240491,16.0,0.0,4286.666504,4612.820313,4226.153809,4272.307617,4250.769043,0.0,1.0,15.0,,,,0.0,0.0,2.0,2.0,0.0,4.0,16.666666,,,,,,,,8.0,0.0,0.213881,0.633057,-0.039550999999999996,-0.74292,0.9365379999999999,-0.32910700000000004,-0.198245,-0.015841,-0.019548,-0.042407,,,,,,,,,,,,,,,,,,,,,,,,,,,,,,,,,,,,,,,,,,,,,,,,,,,,,,,,,,,,,,,,,
27092,1645818890.229048,1645818890.248305,17.0,0.0,4305.128418,4685.641113000001,4235.384765999999,4251.794922,4263.589844,0.0,1.0,15.0,,,,0.0,0.0,2.0,2.0,0.0,4.0,16.666666,,,,,,,,,,,,,,,,,,,,,,,,,,,,,,,,,,,,,,,,,,,,,,,,,,,,,,,,,,,,,,,,,,,,,,,,,,,,,,,,,,,,
27093,1645818890.2368631,1645818890.25612,18.0,0.0,4311.794922,4682.05127,4252.820313,4247.692383,4273.333496,0.0,1.0,15.0,,,,0.0,0.0,2.0,2.0,0.0,4.0,16.666666,,,,,,,,9.0,0.0,0.213881,0.633057,-0.039550999999999996,-0.74292,0.9433739999999999,-0.340337,-0.196292,-0.016406,-0.019546,-0.044124000000000003,,,,,,,,,,,,,,,,,,,,,,,,,,,,,,,,,,,,,,,,,,,,,,,,,,,,,,,,,,,,,,,,,
27094,1645818890.244678,1645818890.2639349,19.0,0.0,4298.974121,4598.974121,4254.871582,4260.512695,4270.256348,0.0,1.0,15.0,,,,0.0,0.0,2.0,2.0,0.0,4.0,16.666666,,,,,,,,,,,,,,,,,,,,,,,,,,,,,,,,,,,,,,,,,,,,,,,,,,,,,,0.0,0.0,1.0,0.0,512.0,1.0,,,,,,,,,,,,,,,,,,,,,,,,,
27095,1645818890.252493,1645818890.271749,20.0,0.0,4282.563965,4627.179688,4225.641113000001,4254.871582,4254.871582,0.0,1.0,15.0,,,,0.0,0.0,2.0,2.0,0.0,4.0,16.666666,,,,,,,,10.0,0.0,0.213881,0.633057,-0.039550999999999996,-0.74292,0.946792,-0.327153,-0.194827,-0.016963,-0.019594,-0.039418,,,,,,,,,,,,,,,,,,,,,,,,,,,,,,,,,,,,,,,,,,,,,,,,,,,,,,,,,,,,,,,,,
27096,1645818890.260308,1645818890.2795641,21.0,0.0,4301.538574,4677.94873,4228.205078,4248.205078,4263.077147999999,0.0,1.0,15.0,,,,0.0,0.0,2.0,2.0,0.0,4.0,16.666666,,,,,,,,,,,,,,,,,,,,,,,,,,,,,,,,,,,,,,,,,,,,,,,,,,,,,,,,,,,,,,,,,,,,,,,,,,,,,,,,,,,,
27097,1645818890.2681231,1645818890.2873788,22.0,0.0,4306.666504,4623.077147999999,4245.128418,4235.384765999999,4269.230957,0.0,1.0,15.0,,,,0.0,0.0,2.0,2.0,0.0,4.0,16.666666,,,,,,,,11.0,0.0,0.21383600000000003,0.633057,-0.039795,-0.74292,0.941421,-0.330083,-0.190921,-0.017415,-0.019587,-0.041434,,,,,,,,,,,,,,,,,,,,,,,,,,,,,,,,,,,,,,,,,,,,,,,,,,,,,,,,,,,,,,,,,
27098,1645818890.275938,1645818890.295193,23.0,0.0,4278.974121,4607.692383,4225.128418,4212.820313,4241.025879,0.0,1.0,15.0,,,,0.0,0.0,2.0,2.0,0.0,4.0,16.666666,,,,,,,,,,,,,,,,,,,,,,,,,,,,,,,,,,,,,,,,,,,,,,,,,,,,,,0.0,0.0,1.0,0.0,512.0,1.0,,,,,,,,,,,,,,,,,,,,,,,,,
27099,1645818890.283753,1645818890.303108,24.0,0.0,4306.153809,4683.077147999999,4238.461426,4220.512695,4257.436035,0.0,1.0,15.0,,,,0.0,0.0,2.0,2.0,0.0,4.0,16.666666,,,,,,,,12.0,0.0,0.214682,0.633057,-0.039795,-0.742676,0.9316549999999999,-0.326665,-0.194827,-0.01621,-0.019679,-0.043247,,,,,,,,,,,,,,,,,,,,,,,,,,,,,,,,,,,,,,,,,,,,,,,,,,,,,,,,,,,,,,,,,
27100,1645818890.291568,1645818890.3109221,25.0,0.0,4331.282227000001,4701.025879,4247.179688,4225.128418,4289.743652,0.0,1.0,15.0,,,,0.0,0.0,2.0,2.0,0.0,4.0,16.666666,,,,,,,,,,,,,,,,,,,,,,,,,,,,,,,,,,,,,,,,,,,,,,,,,,,,,,,,,,,,,,,,,,,,,,,,,,,,,,,,,,,,
27101,1645818890.2993839,1645818890.318737,26.0,0.0,4288.717772999999,4627.692383,4210.256348,4216.922852000001,4251.794922,0.0,1.0,15.0,,,,0.0,0.0,2.0,2.0,0.0,4.0,16.666666,,,,,,,,13.0,0.0,0.21391500000000002,0.633301,-0.040039,-0.742676,0.9399559999999999,-0.324712,-0.191409,-0.016787,-0.019665000000000002,-0.044831,,,,,,,,,,,,,,,,,,,,,,,,,,,,,,,,,,,,,,,,,,,,,,,,,,,,,,,,,,,,,,,,,
27102,1645818890.307198,1645818890.326552,27.0,0.0,4281.025879,4592.820313,4209.230957,4225.641113000001,4227.692383,0.0,1.0,15.0,,,,0.0,0.0,2.0,2.0,0.0,4.0,16.666666,,,,,,,,,,,,,,,,,,,,,,,,,,,,,,,,,,,,,,,,,,,,,,,,,,,,,,0.0,0.0,1.0,0.0,512.0,1.0,,,,,,,,,,,,,,,,,,,,,,,,,
27103,1645818890.3150141,1645818890.334366,28.0,0.0,4303.589844,4638.974121,4224.102539,4226.666504,4244.102539,0.0,1.0,15.0,,,,0.0,0.0,2.0,2.0,0.0,4.0,16.666666,,,,,,,,14.0,0.0,0.214682,0.633057,-0.039795,-0.742676,0.9233540000000001,-0.319341,-0.197269,-0.017353999999999998,-0.019554,-0.040104,,,,,,,,,,,,,,,,,,,,,,,,,,,,,,,,,,,,,,,,,,,,,,,,,,,,,,,,,,,,,,,,,
27104,1645818890.322829,1645818890.342181,29.0,0.0,4296.922852000001,4670.256348,4220.0,4215.384765999999,4242.05127,0.0,1.0,15.0,,,,0.0,0.0,2.0,2.0,0.0,4.0,16.666666,,,,,,,,,,,,,,,,,,,,,,,,,,,,,,,,,,,,,,,,,,,,,,,,,,,,,,,,,,,,,,,,,,,,,,,,,,,,,,,,,,,,
27105,1645818890.330644,1645818890.349996,30.0,0.0,4292.307617,4651.794922,4233.846191,4230.769043,4239.487305,0.0,1.0,15.0,,,,0.0,0.0,2.0,2.0,0.0,4.0,16.666666,,,,,,,,15.0,0.0,0.214682,0.633057,-0.039795,-0.742676,0.928725,-0.323735,-0.189944,-0.016156,-0.019551,-0.041953,,,,,,,,,,,,,,,,,,,,,,,,,,,,,,,,,,,,,,,,,,,,,,,,,,,,,,,,,,,,,,,,,
27106,1645818890.338459,1645818890.35781,31.0,0.0,4295.384765999999,4633.333496,4246.666504,4261.025879,4248.717772999999,0.0,1.0,15.0,,,,0.0,0.0,2.0,2.0,0.0,4.0,16.666666,,,,,,,,,,,,,,,,,,,,1.0,0.0,0.0,,,,,,,,,,,,,,,,,,,,,,,,,,,,,,,,0.0,0.0,1.0,0.0,512.0,1.0,237.575272,45.024409999999996,7.86602,5.439417,2.003821,29.587181,12.651100999999999,18.810909,16.153055,11.556764,2.085887,2.643386,4.213979,3.297439,2.267025,11.611199000000001,2.685531,1.4346079999999999,1.7850099999999998,1.8353599999999999,54.34863299999999,11.883904,7.7918270000000005,5.392906,1.885572
27107,1645818890.3462741,1645818890.365625,32.0,0.0,4296.922852000001,4647.179688,4244.102539,4268.717772999999,4247.179688,0.0,1.0,15.0,,,,0.0,0.0,2.0,2.0,0.0,4.0,16.666666,,,,,,,,16.0,0.0,0.214637,0.633057,-0.040039,-0.742676,0.9399559999999999,-0.340337,-0.18799100000000002,-0.015028999999999999,-0.019452,-0.043910000000000005,,,,,,,,,,,,,,,,,,,,,,,,,,,,,,,,,,,,,,,,,,,,,,,,,,,,,,,,,,,,,,,,,
27108,1645818890.354089,1645818890.373539,33.0,0.0,4328.205078,4634.871582,4268.717772999999,4262.05127,4264.102539,0.0,1.0,15.0,,,,0.0,0.0,2.0,2.0,0.0,4.0,16.666666,,,,,,,,,,,,,,,,,,,,,,,,,,,,,,,,,,,,,,,,,,,,,,,,,,,,,,,,,,,,,,,,,,,,,,,,,,,,,,,,,,,,
27109,1645818890.361904,1645818890.3813539,34.0,0.0,4332.307617,4582.05127,4263.589844,4248.205078,4271.794922,0.0,1.0,15.0,,,,0.0,0.0,2.0,2.0,0.0,4.0,16.666666,,,,,,,,17.0,0.0,0.214637,0.633057,-0.040039,-0.742676,0.937514,-0.3252,-0.182132,-0.015625,-0.019362,-0.045574,,,,,,,,,,,,,,,,,,,,,,,,,,,,,,,,,,,,,,,,,,,,,,,,,,,,,,,,,,,,,,,,,
27110,1645818890.369719,1645818890.389169,35.0,0.0,4311.794922,4591.282227000001,4234.358886999999,4240.0,4257.436035,0.0,1.0,15.0,,,,0.0,0.0,2.0,2.0,0.0,4.0,16.666666,,,,,,,,,,,,,,,,,,,,,,,,,,,,,,,,,,,,,,,,,,,,,,,,,,,,,,0.0,0.0,1.0,0.0,512.0,1.0,,,,,,,,,,,,,,,,,,,,,,,,,
27111,1645818890.377534,1645818890.396983,36.0,0.0,4322.05127,4655.897461,4237.436035,4236.410156,4261.538574,0.0,1.0,15.0,,,,0.0,0.0,2.0,2.0,0.0,4.0,16.666666,,,,,,,,18.0,0.0,0.214761,0.633301,-0.040039,-0.742432,0.939467,-0.32861799999999997,-0.191897,-0.014551,-0.019281,-0.047022,,,,,,,,,,,,,,,,,,,,,,,,,,,,,,,,,,,,,,,,,,,,,,,,,,,,,,,,,,,,,,,,,
27112,1645818890.385349,1645818890.404798,37.0,0.0,4320.0,4664.615234000001,4243.589844,4224.102539,4265.641113000001,0.0,1.0,15.0,,,,0.0,0.0,2.0,2.0,0.0,4.0,16.666666,,,,,,,,,,,,,,,,,,,,,,,,,,,,,,,,,,,,,,,,,,,,,,,,,,,,,,,,,,,,,,,,,,,,,,,,,,,,,,,,,,,,
27113,1645818890.3931642,1645818890.4126132,38.0,0.0,4307.179688,4646.153809,4244.615234000001,4217.436035,4259.487305,0.0,1.0,15.0,,,,0.0,0.0,2.0,2.0,0.0,4.0,16.666666,,,,,,,,19.0,0.0,0.21471500000000002,0.633301,-0.040283,-0.742432,0.937514,-0.333013,-0.182132,-0.015244,-0.019306,-0.048326,,,,,,,,,,,,,,,,,,,,,,,,,,,,,,,,,,,,,,,,,,,,,,,,,,,,,,,,,,,,,,,,,
27114,1645818890.4009788,1645818890.4204268,39.0,0.0,4323.077147999999,4702.563965,4258.974121,4220.512695,4275.897461,0.0,1.0,15.0,,,,0.0,0.0,2.0,2.0,0.0,4.0,16.666666,,,,,,,,,,,,,,,,,,,,,,,,,,,,,,,,,,,,,,,,,,,,,,,,,,,,,,0.0,0.0,1.0,0.0,512.0,1.0,,,,,,,,,,,,,,,,,,,,,,,,,
27115,1645818890.408794,1645818890.428242,40.0,0.0,4343.589844,4717.94873,4265.128418,4228.717772999999,4296.410156,0.0,1.0,15.0,,,,0.0,0.0,2.0,2.0,0.0,4.0,16.666666,,,,,,,,20.0,0.0,0.21471500000000002,0.633301,-0.040283,-0.742432,0.944839,-0.336919,-0.191409,-0.015868,-0.019329,-0.043151999999999996,,,,,,,,,,,,,,,,,,,,,,,,,,,,,,,,,,,,,,,,,,,,,,,,,,,,,,,,,,,,,,,,,
27116,1645818890.416609,1645818890.436057,41.0,0.0,4332.307617,4623.589844,4260.0,4257.436035,4282.05127,0.0,1.0,15.0,,,,0.0,0.0,2.0,2.0,0.0,4.0,16.666666,,,,,,,,,,,,,,,,,,,,,,,,,,,,,,,,,,,,,,,,,,,,,,,,,,,,,,,,,,,,,,,,,,,,,,,,,,,,,,,,,,,,
27117,1645818890.424424,1645818890.443871,42.0,0.0,4304.102539,4577.436035,4238.974121,4271.282227000001,4253.846191,0.0,1.0,15.0,,,,0.0,0.0,2.0,2.0,0.0,4.0,16.666666,,,,,,,,21.0,0.0,0.215558,0.633301,-0.040283,-0.742188,0.9423969999999999,-0.332525,-0.18799100000000002,-0.016332,-0.019447,-0.044842,,,,,,,,,,,,,,,,,,,,,,,,,,,,,,,,,,,,,,,,,,,,,,,,,,,,,,,,,,,,,,,,,
27118,1645818890.432239,1645818890.451786,43.0,0.0,4292.820313,4592.820313,4216.922852000001,4248.717772999999,4250.256348,0.0,1.0,15.0,,,,0.0,0.0,2.0,2.0,0.0,4.0,16.666666,,,,,,,,,,,,,,,,,,,,,,,,,,,,,,,,,,,,,,,,,,,,,,,,,,,,,,0.0,0.0,1.0,0.0,512.0,1.0,,,,,,,,,,,,,,,,,,,,,,,,,
27119,1645818890.440054,1645818890.4596,44.0,0.0,4325.128418,4625.128418,4243.589844,4230.769043,4278.461426,0.0,1.0,15.0,,,,0.0,0.0,2.0,2.0,0.0,4.0,16.666666,,,,,,,,22.0,0.0,0.21543400000000001,0.633057,-0.040283,-0.742432,0.9331200000000001,-0.339361,-0.208011,-0.016799,-0.019455,-0.046363999999999995,,,,,,,,,,,,,,,,,,,,,,,,,,,,,,,,,,,,,,,,,,,,,,,,,,,,,,,,,,,,,,,,,
27120,1645818890.447869,1645818890.467415,45.0,0.0,4348.717772999999,4692.307617,4269.230957,4248.205078,4283.589844,0.0,1.0,15.0,,,,0.0,0.0,2.0,2.0,0.0,4.0,16.666666,,,,,,,,,,,,,,,,,,,,,,,,,,,,,,,,,,,,,,,,,,,,,,,,,,,,,,,,,,,,,,,,,,,,,,,,,,,,,,,,,,,,
27121,1645818890.455684,1645818890.47523,46.0,0.0,4328.205078,4706.666504,4243.589844,4246.153809,4264.615234000001,0.0,1.0,15.0,,,,0.0,0.0,2.0,2.0,0.0,4.0,16.666666,,,,,,,,23.0,0.0,0.21543400000000001,0.633057,-0.040283,-0.742432,0.918959,-0.32813000000000003,-0.19531500000000002,-0.017266999999999998,-0.019463,-0.041532,,,,,,,,,,,,,,,,,,,,,,,,,,,,,,,,,,,,,,,,,,,,,,,,,,,,,,,,,,,,,,,,,
27122,1645818890.463499,1645818890.483044,47.0,0.0,4324.615234000001,4618.461426,4232.820313,4237.436035,4270.256348,0.0,1.0,15.0,,,,0.0,0.0,2.0,2.0,0.0,4.0,16.666666,,,,,,,,,,,,,,,,,,,,1.0,0.0,0.0,,,,,,,,,,,,,,,,,,,,,,,,,,,,,,,,0.0,0.0,1.0,0.0,512.0,1.0,199.916031,39.15535,8.247139,4.950387999999999,2.002312,32.883942,12.947113,17.707601999999998,16.289782000000002,12.60892,2.1095189999999997,2.516983,3.8653440000000003,2.993017,2.052736,11.791758999999999,2.657454,1.4585489999999999,1.561441,1.798411,47.783413,11.532602,7.464996000000001,4.899858,1.8453060000000001
27123,1645818890.4713151,1645818890.490859,48.0,0.0,4344.102539,4592.307617,4251.282227000001,4257.436035,4285.128418,0.0,1.0,15.0,,,,0.0,0.0,2.0,2.0,0.0,4.0,16.666666,,,,,,,,24.0,0.0,0.215558,0.633301,-0.040283,-0.742188,0.9423969999999999,-0.332525,-0.18799100000000002,-0.017738,-0.019421,-0.037135,,,,,,,,,,,,,,,,,,,,,,,,,,,,,,,,,,,,,,,,,,,,,,,,,,,,,,,,,,,,,,,,,
27124,1645818890.47913,1645818890.498674,49.0,0.0,4316.922852000001,4660.0,4233.333496,4261.538574,4264.615234000001,0.0,1.0,15.0,,,,0.0,0.0,2.0,2.0,0.0,4.0,16.666666,,,,,,,,,,,,,,,,,,,,,,,,,,,,,,,,,,,,,,,,,,,,,,,,,,,,,,,,,,,,,,,,,,,,,,,,,,,,,,,,,,,,
27125,1645818890.486945,1645818890.506488,50.0,0.0,4289.743652,4678.974121,4205.641113000001,4243.077147999999,4250.769043,0.0,1.0,15.0,,,,0.0,0.0,2.0,2.0,0.0,4.0,16.666666,,,,,,,,25.0,0.0,0.21543400000000001,0.633057,-0.040283,-0.742432,0.918959,-0.32813000000000003,-0.19531500000000002,-0.018113,-0.019431999999999998,-0.033226,,,,,,,,,,,,,,,,,,,,,,,,,,,,,,,,,,,,,,,,,,,,,,,,,,,,,,,,,,,,,,,,,
27126,1645818890.49476,1645818890.514303,51.0,0.0,4308.717772999999,4673.333496,4209.230957,4226.153809,4260.512695,0.0,1.0,15.0,,,,0.0,0.0,2.0,2.0,0.0,4.0,16.666666,,,,,,,,,,,,,,,,,,,,,,,,,,,,,,,,,,,,,,,,,,,,,,,,,,,,,,0.0,0.0,1.0,0.0,512.0,1.0,,,,,,,,,,,,,,,,,,,,,,,,,
27127,1645818890.502575,1645818890.522218,52.0,0.0,4333.846191,4653.846191,4234.358886999999,4234.871582,4274.358886999999,0.0,1.0,15.0,,,,0.0,0.0,2.0,2.0,0.0,4.0,16.666666,,,,,,,,26.0,0.0,0.21538800000000002,0.633057,-0.040527,-0.742432,0.93019,-0.333013,-0.191897,-0.018499,-0.019393,-0.029658999999999998,,,,,,,,,,,,,,,,,,,,,,,,,,,,,,,,,,,,,,,,,,,,,,,,,,,,,,,,,,,,,,,,,
27128,1645818890.51039,1645818890.530032,53.0,0.0,4342.05127,4612.820313,4257.436035,4247.692383,4295.384765999999,0.0,1.0,15.0,,,,0.0,0.0,2.0,2.0,0.0,4.0,16.666666,,,,,,,,,,,,,,,,,,,,,,,,,,,,,,,,,,,,,,,,,,,,,,,,,,,,,,,,,,,,,,,,,,,,,,,,,,,,,,,,,,,,
27129,1645818890.5182052,1645818890.537847,54.0,0.0,4330.769043,4595.897461,4252.307617,4246.153809,4296.410156,0.0,1.0,15.0,,,,0.0,0.0,2.0,2.0,0.0,4.0,16.666666,,,,,,,,27.0,0.0,0.21543400000000001,0.633057,-0.040283,-0.742432,0.9423969999999999,-0.318364,-0.185061,-0.018846,-0.019456,-0.026351999999999997,,,,,,,,,,,,,,,,,,,,,,,,,,,,,,,,,,,,,,,,,,,,,,,,,,,,,,,,,,,,,,,,,
27130,1645818890.5260198,1645818890.545661,55.0,0.0,4308.205078,4583.589844,4229.743652,4240.512695,4272.307617,0.0,1.0,15.0,,,,0.0,0.0,2.0,2.0,0.0,4.0,16.666666,,,,,,,,,,,,,,,,,,,,,,,,,,,,,,,,,,,,,,,,,,,,,,,,,,,,,,0.0,0.0,1.0,0.0,512.0,1.0,,,,,,,,,,,,,,,,,,,,,,,,,
27131,1645818890.533835,1645818890.553476,56.0,0.0,4313.333496,4598.461426,4233.333496,4261.025879,4271.794922,0.0,1.0,15.0,,,,0.0,0.0,2.0,2.0,0.0,4.0,16.666666,,,,,,,,28.0,0.0,0.21543400000000001,0.633057,-0.040283,-0.742432,0.945327,-0.323247,-0.19531500000000002,-0.017596,-0.019366,-0.029722000000000002,,,,,,,,,,,,,,,,,,,,,,,,,,,,,,,,,,,,,,,,,,,,,,,,,,,,,,,,,,,,,,,,,
27132,1645818890.54165,1645818890.561291,57.0,0.0,4323.077147999999,4640.512695,4225.641113000001,4267.692383,4283.077147999999,0.0,1.0,15.0,,,,0.0,0.0,2.0,2.0,0.0,4.0,16.666666,,,,,,,,,,,,,,,,,,,,,,,,,,,,,,,,,,,,,,,,,,,,,,,,,,,,,,,,,,,,,,,,,,,,,,,,,,,,,,,,,,,,
27133,1645818890.549465,1645818890.5691051,58.0,0.0,4306.153809,4608.205078,4204.615234000001,4255.897461,4275.384765999999,0.0,1.0,15.0,,,,0.0,0.0,2.0,2.0,0.0,4.0,16.666666,,,,,,,,29.0,0.0,0.21538800000000002,0.633057,-0.040527,-0.742432,0.936049,-0.336919,-0.194339,-0.018034,-0.019382,-0.026456999999999998,,,,,,,,,,,,,,,,,,,,,,,,,,,,,,,,,,,,,,,,,,,,,,,,,,,,,,,,,,,,,,,,,
27134,1645818890.55728,1645818890.57692,59.0,0.0,4319.487305,4564.102539,4233.846191,4281.025879,4289.230957,0.0,1.0,15.0,,,,0.0,0.0,2.0,2.0,0.0,4.0,16.666666,,,,,,,,,,,,,,,,,,,,,,,,,,,,,,,,,,,,,,,,,,,,,,,,,,,,,,0.0,0.0,1.0,0.0,512.0,1.0,,,,,,,,,,,,,,,,,,,,,,,,,
27135,1645818890.565095,1645818890.584735,60.0,0.0,4337.94873,4636.410156,4254.871582,4273.846191,4298.974121,0.0,1.0,15.0,,,,0.0,0.0,2.0,2.0,0.0,4.0,16.666666,,,,,,,,30.0,0.0,0.21622800000000003,0.633057,-0.040527,-0.742188,0.9433739999999999,-0.32959499999999997,-0.203128,-0.016768,-0.019397,-0.029817000000000003,,,,,,,,,,,,,,,,,,,,,,,,,,,,,,,,,,,,,,,,,,,,,,,,,,,,,,,,,,,,,,,,,
27136,1645818890.57291,1645818890.592549,61.0,0.0,4316.922852000001,4688.205078,4230.256348,4236.922852000001,4279.487305,0.0,1.0,15.0,,,,0.0,0.0,2.0,2.0,0.0,4.0,16.666666,,,,,,,,,,,,,,,,,,,,,,,,,,,,,,,,,,,,,,,,,,,,,,,,,,,,,,,,,,,,,,,,,,,,,,,,,,,,,,,,,,,,
27137,1645818890.580725,1645818890.600464,62.0,0.0,4303.077147999999,4653.333496,4224.615234000001,4251.282227000001,4272.820313,0.0,1.0,15.0,,,,0.0,4.0,1.0,4.0,0.0,4.0,41.666668,,,,,,,,31.0,0.0,0.21622800000000003,0.633057,-0.040527,-0.742188,0.9365379999999999,-0.334478,-0.183597,-0.017238999999999997,-0.019556999999999998,-0.026445,,,,,,,,,,,,,,,,,,,,,,,,,,,,,,,,,,,,,,,,,,,,,,,,,,,,,,,,,,,,,,,,,
27138,1645818890.58854,1645818890.608279,63.0,0.0,4314.871582,4652.307617,4238.461426,4264.102539,4282.563965,0.0,1.0,15.0,,,,0.0,4.0,1.0,4.0,0.0,4.0,41.666668,1.0,0.0,0.0,0.0,2.0,0.0,4.0,,,,,,,,,,,,,1.0,0.0,0.0,,,,,,,,,,,,,,,,,,,,,,,,,,,,,,,,0.0,0.0,1.0,0.0,512.0,1.0,158.544373,30.864075,7.8025649999999995,4.447333,2.003307,34.126545,13.048368,17.541868,15.967198000000002,13.657073,2.03205,2.256232,3.269659,2.795368,1.837114,11.298110000000001,2.8968979999999998,1.444186,1.293211,1.7292889999999999,39.888484999999996,10.046396000000001,6.369655000000001,4.293454,1.823545
27139,1645818890.596355,1645818890.616093,64.0,0.0,4334.358886999999,4654.358886999999,4251.794922,4251.794922,4304.615234000001,450.0,1.0,15.0,,,,0.0,4.0,1.0,4.0,0.0,4.0,41.666668,,,,,,,,32.0,0.0,0.21622800000000003,0.633057,-0.040527,-0.742188,0.932631,-0.326665,-0.197757,-0.017615000000000002,-0.019603,-0.029758,,,,,,,,,,,,,,,,,,,,,,,,,,,,,,,,,,,,,,,,,,,,,,,,,,,,,,,,,,,,,,,,,
27140,1645818890.6041698,1645818890.623908,65.0,0.0,4357.436035,4600.0,4273.846191,4253.333496,4331.794922,450.0,1.0,15.0,,,,0.0,4.0,1.0,4.0,0.0,4.0,41.666668,,,,,,,,,,,,,,,,,,,,,,,,,,,,,,,,,,,,,,,,,,,,,,,,,,,,,,,,,,,,,,,,,,,,,,,,,,,,,,,,,,,,
27141,1645818890.611985,1645818890.631722,66.0,0.0,4344.102539,4544.102539,4264.102539,4243.077147999999,4312.820313,16263.0,1.0,15.0,,,,0.0,4.0,1.0,4.0,0.0,4.0,41.666668,,,,,,,,33.0,0.0,0.21622800000000003,0.633057,-0.040527,-0.742188,0.925795,-0.333013,-0.195804,-0.017953,-0.019547,-0.026489,,,,,,,,,,,,,,,,,,,,,,,,,,,,,,,,,,,,,,,,,,,,,,,,,,,,,,,,,,,,,,,,,
27142,1645818890.6198,1645818890.6395369,67.0,0.0,4301.538574,4540.512695,4215.897461,4222.05127,4263.077147999999,450.0,1.0,15.0,,,,0.0,4.0,1.0,4.0,0.0,4.0,41.666668,,,,,,,,,,,,,,,,,,,,,,,,,,,,,,,,,,,,,,,,,,,,,,,,,,,,,,0.0,0.0,1.0,0.0,512.0,1.0,,,,,,,,,,,,,,,,,,,,,,,,,
27143,1645818890.627616,1645818890.647352,68.0,0.0,4293.333496,4566.666504,4206.666504,4223.589844,4248.717772999999,135.0,1.0,15.0,,,,0.0,4.0,1.0,4.0,0.0,4.0,41.666668,,,,,,,,34.0,0.0,0.21622800000000003,0.633057,-0.040527,-0.742188,0.9350729999999999,-0.332525,-0.196292,-0.018404,-0.019546,-0.029748,,,,,,,,,,,,,,,,,,,,,,,,,,,,,,,,,,,,,,,,,,,,,,,,,,,,,,,,,,,,,,,,,
27144,1645818890.63543,1645818890.655166,69.0,0.0,4311.794922,4592.307617,4231.282227000001,4227.692383,4266.153809,450.0,1.0,15.0,,,,0.0,4.0,1.0,4.0,0.0,4.0,41.666668,,,,,,,,,,,,,,,,,,,,,,,,,,,,,,,,,,,,,,,,,,,,,,,,,,,,,,,,,,,,,,,,,,,,,,,,,,,,,,,,,,,,
27145,1645818890.6432462,1645818890.662981,70.0,0.0,4317.436035,4589.743652,4227.179688,4229.743652,4286.666504,16096.0,1.0,15.0,,,,0.0,4.0,1.0,4.0,0.0,4.0,41.666668,,,,,,,,35.0,0.0,0.21706399999999998,0.633057,-0.040527,-0.741943,0.9233540000000001,-0.333989,-0.191409,-0.018663,-0.019496,-0.026481,,,,,,,,,,,,,,,,,,,,,,,,,,,,,,,,,,,,,,,,,,,,,,,,,,,,,,,,,,,,,,,,,
27146,1645818890.6510608,1645818890.6707962,71.0,0.0,4323.077147999999,4590.256348,4216.410156,4245.641113000001,4305.641113000001,450.0,1.0,15.0,,,,0.0,4.0,1.0,4.0,0.0,4.0,41.666668,,,,,,,,,,,,,,,,,,,,,,,,,,,,,,,,,,,,,,,,,,,,,,,,,,,,,,0.0,0.0,1.0,0.0,512.0,1.0,,,,,,,,,,,,,,,,,,,,,,,,,
