,Timestamp,EEG.Counter,EEG.Interpolated,EEG.AF3,EEG.T7,EEG.Pz,EEG.T8,EEG.AF4,EEG.RawCq,EEG.Battery,EEG.BatteryPercent,MarkerIndex,MarkerType,MarkerValueInt,EEG.MarkerHardware,CQ.AF3,CQ.T7,CQ.Pz,CQ.T8,CQ.AF4,CQ.Overall,EQ.SampleRateQuality,EQ.OVERALL,EQ.AF3,EQ.T7,EQ.Pz,EQ.T8,EQ.AF4,MOT.CounterMems,MOT.InterpolatedMems,MOT.Q0,MOT.Q1,MOT.Q2,MOT.Q3,MOT.AccX,MOT.AccY,MOT.AccZ,MOT.MagX,MOT.MagY,MOT.MagZ,MC.Action,MC.ActionPower,MC.IsActive,PM.Engagement.IsActive,PM.Engagement.Scaled,PM.Engagement.Raw,PM.Engagement.Min,PM.Engagement.Max,PM.Excitement.IsActive,PM.Excitement.Scaled,PM.Excitement.Raw,PM.Excitement.Min,PM.Excitement.Max,PM.LongTermExcitement,PM.Stress.IsActive,PM.Stress.Scaled,PM.Stress.Raw,PM.Stress.Min,PM.Stress.Max,PM.Relaxation.IsActive,PM.Relaxation.Scaled,PM.Relaxation.Raw,PM.Relaxation.Min,PM.Relaxation.Max,PM.Interest.IsActive,PM.Interest.Scaled,PM.Interest.Raw,PM.Interest.Min,PM.Interest.Max,PM.Focus.IsActive,PM.Focus.Scaled,PM.Focus.Raw,PM.Focus.Min,PM.Focus.Max,FE.BlinkWink,FE.HorizontalEyesDirection,FE.UpperFaceAction,FE.UpperFaceActionPower,FE.LowerFaceAction,FE.LowerFaceActionPower,POW.AF3.Theta,POW.AF3.Alpha,POW.AF3.BetaL,POW.AF3.BetaH,POW.AF3.Gamma,POW.T7.Theta,POW.T7.Alpha,POW.T7.BetaL,POW.T7.BetaH,POW.T7.Gamma,POW.Pz.Theta,POW.Pz.Alpha,POW.Pz.BetaL,POW.Pz.BetaH,POW.Pz.Gamma,POW.T8.Theta,POW.T8.Alpha,POW.T8.BetaL,POW.T8.BetaH,POW.T8.Gamma,POW.AF4.Theta,POW.AF4.Alpha,POW.AF4.BetaL,POW.AF4.BetaH,POW.AF4.Gamma
64079,1645583146.917356,7.0,0.0,4416.410156,2918.4614260000003,4273.846191,4280.512695,4318.974121,450.0,4.0,95.0,51.0,1.0,4.0,0.0,4.0,2.0,4.0,0.0,4.0,50.0,,,,,,,,,,,,,,,,,,,,,,,,,,,,,,,,,,,,,,,,,,,,,,,,,,,,,,0.0,0.0,1.0,0.0,128.0,1.0,,,,,,,,,,,,,,,,,,,,,,,,,
64080,1645583146.9251711,8.0,0.0,4382.563965,2929.743652,4249.743652,4280.512695,4335.897461,450.0,4.0,95.0,,,,0.0,4.0,2.0,4.0,0.0,4.0,50.0,,,,,,,,4.0,0.0,0.476886,-0.287598,0.581299,0.593262,0.9111469999999999,-0.41895200000000005,-0.17773699999999998,-0.034008,-0.035669,-0.025312,,,,,,,,,,,,,,,,,,,,,,,,,,,,,,,,,,,,,,,,,,,,,,,,,,,,,,,,,,,,,,,,,
64081,1645583146.932986,9.0,0.0,4332.820313,2898.974365,4242.05127,4280.512695,4341.025879,0.0,4.0,95.0,,,,0.0,4.0,2.0,4.0,0.0,4.0,50.0,,,,,,,,,,,,,,,,,,,,,,,,,,,,,,,,,,,,,,,,,,,,,,,,,,,,,,,,,,,,,,,,,,,,,,,,,,,,,,,,,,,,
64082,1645583146.9408,10.0,0.0,4355.897461,2881.5385739999997,4259.487305,4280.512695,4341.538574,450.0,4.0,95.0,,,,0.0,4.0,2.0,4.0,0.0,4.0,50.0,,,,,,,,5.0,0.0,0.477042,-0.287842,0.581299,0.593018,0.914076,-0.40381500000000004,-0.181643,-0.033927,-0.035667000000000004,-0.027761,,,,,,,,,,,,,,,,,,,,,,,,,,,,,,,,,,,,,,,,,,,,,,,,,,,,,,,,,,,,,,,,,
64083,1645583146.948615,11.0,0.0,4386.666504,2892.820557,4265.641113000001,4280.512695,4351.794922,16213.0,4.0,95.0,,,,0.0,4.0,2.0,4.0,0.0,4.0,50.0,,,,,,,,,,,,,,,,,,,,,,,,,,,,,,,,,,,,,,,,,,,,,,,,,,,,,,0.0,0.0,1.0,0.0,128.0,1.0,,,,,,,,,,,,,,,,,,,,,,,,,
64084,1645583146.9564302,12.0,0.0,4354.871582,2878.4614260000003,4235.897461,4280.512695,4350.769043,450.0,4.0,95.0,,,,0.0,4.0,2.0,4.0,0.0,4.0,50.0,,,,,,,,6.0,0.0,0.477042,-0.287842,0.581299,0.593018,0.9072399999999999,-0.40235,-0.155276,-0.033953,-0.035713,-0.030112,,,,,,,,,,,,,,,,,,,,,,,,,,,,,,,,,,,,,,,,,,,,,,,,,,,,,,,,,,,,,,,,,
64085,1645583146.964144,13.0,0.0,4311.282227000001,2817.94873,4228.717772999999,4280.512695,4335.384765999999,450.0,4.0,95.0,,,,0.0,4.0,2.0,4.0,0.0,4.0,50.0,,,,,,,,,,,,,,,,,,,,,,,,,,,,,,,,,,,,,,,,,,,,,,,,,,,,,,,,,,,,,,,,,,,,,,,,,,,,,,,,,,,,
64086,1645583146.9719589,14.0,0.0,4322.05127,2818.974365,4262.563965,4280.512695,4324.615234000001,450.0,4.0,95.0,,,,0.0,4.0,2.0,4.0,0.0,4.0,50.0,,,,,,,,7.0,0.0,0.47674399999999995,-0.287842,0.581543,0.593018,0.901869,-0.408209,-0.160647,-0.033975,-0.035657999999999995,-0.025831,,,,,,,,,,,,,,,,,,,,,,,,,,,,,,,,,,,,,,,,,,,,,,,,,,,,,,,,,,,,,,,,,
64087,1645583146.979774,15.0,0.0,4355.897461,2899.487061,4262.563965,4280.512695,4318.461426,16213.0,4.0,95.0,,,,0.0,4.0,2.0,4.0,0.0,4.0,50.0,,,,,,,,,,,,,,,,,,,,1.0,0.0,0.0,,,,,,,,,,,,,,,,,,,,,,,,,,,,,,,,0.0,0.0,1.0,0.0,128.0,1.0,6.0035419999999995,3.5294199999999996,3.071069,3.183602,3.175494,812.0322269999999,157.366089,45.465477,35.724018,16.604944,1.437724,1.423576,1.538707,0.5832229999999999,1.145673,0.003795,0.002451,0.001018,0.002106,0.001541,1.7745799999999998,2.585711,2.60615,1.184949,2.576245
64088,1645583146.987488,16.0,0.0,4366.153809,2966.153809,4222.563965,4280.512695,4341.538574,0.0,4.0,95.0,,,,0.0,4.0,2.0,4.0,0.0,4.0,50.0,,,,,,,,8.0,0.0,0.47659700000000005,-0.288086,0.581543,0.593018,0.902358,-0.410163,-0.161135,-0.033996,-0.035608,-0.022027,,,,,,,,,,,,,,,,,,,,,,,,,,,,,,,,,,,,,,,,,,,,,,,,,,,,,,,,,,,,,,,,,
64089,1645583146.995303,17.0,0.0,4355.897461,2956.923096,4226.153809,4280.512695,4364.102539,0.0,4.0,95.0,,,,0.0,4.0,2.0,4.0,0.0,4.0,50.0,,,,,,,,,,,,,,,,,,,,,,,,,,,,,,,,,,,,,,,,,,,,,,,,,,,,,,,,,,,,,,,,,,,,,,,,,,,,,,,,,,,,
64090,1645583147.003118,18.0,0.0,4333.333496,2914.3588870000003,4264.615234000001,4280.512695,4334.358886999999,0.0,4.0,95.0,,,,0.0,4.0,2.0,4.0,0.0,4.0,50.0,,,,,,,,9.0,0.0,0.47659700000000005,-0.288086,0.581543,0.593018,0.9004040000000001,-0.408209,-0.15820599999999999,-0.034063,-0.035709,-0.025001,,,,,,,,,,,,,,,,,,,,,,,,,,,,,,,,,,,,,,,,,,,,,,,,,,,,,,,,,,,,,,,,,
64091,1645583147.010932,19.0,0.0,4335.897461,2966.666748,4255.384765999999,4280.512695,4312.307617,0.0,4.0,95.0,,,,0.0,4.0,2.0,4.0,0.0,4.0,50.0,,,,,,,,,,,,,,,,,,,,,,,,,,,,,,,,,,,,,,,,,,,,,,,,,,,,,,0.0,0.0,1.0,0.0,128.0,1.0,,,,,,,,,,,,,,,,,,,,,,,,,
64092,1645583147.018747,20.0,0.0,4363.589844,3035.384521,4232.820313,4280.512695,4331.794922,0.0,4.0,95.0,,,,0.0,4.0,2.0,4.0,0.0,4.0,50.0,,,,,,,,10.0,0.0,0.476446,-0.287842,0.5817869999999999,0.593018,0.9087049999999999,-0.415045,-0.166995,-0.034124,-0.035654000000000005,-0.027530000000000002,,,,,,,,,,,,,,,,,,,,,,,,,,,,,,,,,,,,,,,,,,,,,,,,,,,,,,,,,,,,,,,,,
64093,1645583147.0264618,21.0,0.0,4357.94873,2966.666748,4261.025879,4280.512695,4326.666504,0.0,4.0,95.0,,,,0.0,4.0,2.0,4.0,0.0,4.0,50.0,,,,,,,,,,,,,,,,,,,,,,,,,,,,,,,,,,,,,,,,,,,,,,,,,,,,,,,,,,,,,,,,,,,,,,,,,,,,,,,,,,,,
64094,1645583147.034276,22.0,0.0,4342.563965,2953.846191,4275.384765999999,4280.512695,4311.282227000001,0.0,4.0,95.0,,,,0.0,4.0,2.0,4.0,0.0,4.0,50.0,,,,,,,,11.0,0.0,0.476446,-0.287842,0.5817869999999999,0.593018,0.9091940000000001,-0.42188100000000006,-0.16211199999999998,-0.034129,-0.035604000000000004,-0.029855,,,,,,,,,,,,,,,,,,,,,,,,,,,,,,,,,,,,,,,,,,,,,,,,,,,,,,,,,,,,,,,,,
64095,1645583147.0420911,23.0,0.0,4360.0,3133.333252,4241.538574,4280.512695,4332.307617,0.0,4.0,95.0,,,,0.0,4.0,2.0,4.0,0.0,4.0,50.0,,,,,,,,,,,,,,,,,,,,,,,,,,,,,,,,,,,,,,,,,,,,,,,,,,,,,,0.0,0.0,1.0,0.0,128.0,1.0,,,,,,,,,,,,,,,,,,,,,,,,,
64096,1645583147.049906,24.0,0.0,4369.743652,3242.564209,4236.922852000001,4280.512695,4342.563965,0.0,4.0,95.0,,,,0.0,4.0,2.0,4.0,0.0,4.0,50.0,,,,,,,,12.0,0.0,0.47614799999999996,-0.287842,0.5820310000000001,0.593018,0.9028459999999999,-0.41260399999999997,-0.163577,-0.034134,-0.035608,-0.025745999999999998,,,,,,,,,,,,,,,,,,,,,,,,,,,,,,,,,,,,,,,,,,,,,,,,,,,,,,,,,,,,,,,,,
64097,1645583147.05772,25.0,0.0,4356.922852000001,3191.281982,4256.922852000001,4280.512695,4322.05127,0.0,4.0,95.0,,,,0.0,4.0,2.0,4.0,0.0,4.0,50.0,,,,,,,,,,,,,,,,,,,,,,,,,,,,,,,,,,,,,,,,,,,,,,,,,,,,,,,,,,,,,,,,,,,,,,,,,,,,,,,,,,,,
64098,1645583147.065535,26.0,0.0,4350.769043,3172.820557,4240.0,4280.512695,4321.025879,0.0,4.0,95.0,,,,0.0,4.0,2.0,4.0,0.0,4.0,50.0,,,,,,,,13.0,0.0,0.47584899999999997,-0.287842,0.582275,0.593018,0.8921030000000001,-0.42627600000000004,-0.16211199999999998,-0.034138999999999996,-0.035563,-0.02825,,,,,,,,,,,,,,,,,,,,,,,,,,,,,,,,,,,,,,,,,,,,,,,,,,,,,,,,,,,,,,,,,
64099,1645583147.07335,27.0,0.0,4352.820313,3198.974365,4222.05127,4280.512695,4337.94873,0.0,4.0,95.0,,,,0.0,4.0,2.0,4.0,0.0,4.0,50.0,,,,,,,,,,,,,,,,,,,,,,,,,,,,,,,,,,,,,,,,,,,,,,,,,,,,,,0.0,0.0,1.0,0.0,128.0,1.0,,,,,,,,,,,,,,,,,,,,,,,,,
64100,1645583147.0811641,28.0,0.0,4348.717772999999,3214.3588870000003,4230.256348,4280.512695,4338.974121,0.0,4.0,95.0,,,,0.0,4.0,2.0,4.0,0.0,4.0,50.0,,,,,,,,14.0,0.0,0.47600200000000004,-0.287598,0.5825199999999999,0.592773,0.894545,-0.411627,-0.160647,-0.034143,-0.035669,-0.024253,,,,,,,,,,,,,,,,,,,,,,,,,,,,,,,,,,,,,,,,,,,,,,,,,,,,,,,,,,,,,,,,,
64101,1645583147.088979,29.0,0.0,4327.179688,3238.4614260000003,4229.743652,4280.512695,4317.94873,0.0,4.0,95.0,,,,0.0,4.0,2.0,4.0,0.0,4.0,50.0,,,,,,,,,,,,,,,,,,,,,,,,,,,,,,,,,,,,,,,,,,,,,,,,,,,,,,,,,,,,,,,,,,,,,,,,,,,,,,,,,,,,
64102,1645583147.096694,30.0,0.0,4310.769043,3246.153809,4223.077147999999,4280.512695,4316.922852000001,0.0,4.0,95.0,,,,0.0,4.0,2.0,4.0,0.0,4.0,50.0,,,,,,,,15.0,0.0,0.475703,-0.287598,0.5827640000000001,0.592773,0.890639,-0.427253,-0.154299,-0.034245,-0.035715,-0.026906,,,,,,,,,,,,,,,,,,,,,,,,,,,,,,,,,,,,,,,,,,,,,,,,,,,,,,,,,,,,,,,,,
64103,1645583147.104508,31.0,0.0,4337.94873,3235.384521,4226.666504,4280.512695,4344.102539,0.0,4.0,95.0,,,,0.0,4.0,2.0,4.0,0.0,4.0,50.0,,,,,,,,,,,,,,,,,,,,1.0,0.0,0.0,,,,,,,,,,,,,,,,,,,,,,,,,,,,,,,,0.0,0.0,1.0,0.0,512.0,1.0,6.443182,3.798594,2.710251,3.1595009999999997,3.607276,925.062134,169.494278,48.069942,33.034157,17.908104,1.451417,1.411582,1.57006,0.629803,1.47453,0.0037070000000000002,0.00186,0.000985,0.002045,0.001235,1.768498,2.107871,2.4715689999999997,1.072692,2.839101
64104,1645583147.112323,32.0,0.0,4359.487305,3246.666748,4213.333496,4280.512695,4338.974121,0.0,4.0,95.0,,,,0.0,4.0,2.0,4.0,0.0,4.0,50.0,,,,,,,,16.0,0.0,0.47600699999999996,-0.287598,0.5827640000000001,0.592529,0.910658,-0.41358100000000003,-0.155276,-0.034238,-0.035660000000000004,-0.029294,,,,,,,,,,,,,,,,,,,,,,,,,,,,,,,,,,,,,,,,,,,,,,,,,,,,,,,,,,,,,,,,,
64105,1645583147.1201382,33.0,0.0,4334.871582,3301.5385739999997,4190.256348,4280.512695,4320.0,0.0,4.0,95.0,,,,0.0,4.0,2.0,4.0,0.0,4.0,50.0,,,,,,,,,,,,,,,,,,,,,,,,,,,,,,,,,,,,,,,,,,,,,,,,,,,,,,,,,,,,,,,,,,,,,,,,,,,,,,,,,,,,
64106,1645583147.1279519,34.0,0.0,4309.230957,3332.3076170000004,4197.94873,4280.512695,4334.358886999999,0.0,4.0,95.0,,,,0.0,4.0,2.0,4.0,0.0,4.0,50.0,,,,,,,,17.0,0.0,0.47600200000000004,-0.287598,0.5825199999999999,0.592773,0.9038219999999999,-0.423835,-0.151858,-0.034232,-0.035707,-0.031296,,,,,,,,,,,,,,,,,,,,,,,,,,,,,,,,,,,,,,,,,,,,,,,,,,,,,,,,,,,,,,,,,
64107,1645583147.135767,35.0,0.0,4314.358886999999,3281.5385739999997,4224.102539,4280.512695,4336.922852000001,0.0,4.0,95.0,,,,0.0,4.0,2.0,4.0,0.0,4.0,50.0,,,,,,,,,,,,,,,,,,,,,,,,,,,,,,,,,,,,,,,,,,,,,,,,,,,,,,0.0,0.0,1.0,0.0,512.0,1.0,,,,,,,,,,,,,,,,,,,,,,,,,
64108,1645583147.1435812,36.0,0.0,4331.794922,3309.230713,4225.641113000001,4280.512695,4311.282227000001,0.0,4.0,95.0,,,,0.0,4.0,2.0,4.0,0.0,4.0,50.0,,,,,,,,18.0,0.0,0.476159,-0.287842,0.5825199999999999,0.592529,0.8999159999999999,-0.41651000000000005,-0.16552999999999998,-0.034178,-0.035701,-0.033245,,,,,,,,,,,,,,,,,,,,,,,,,,,,,,,,,,,,,,,,,,,,,,,,,,,,,,,,,,,,,,,,,
64109,1645583147.151396,37.0,0.0,4327.692383,3457.4357909999994,4215.897461,4280.512695,4318.461426,0.0,4.0,95.0,,,,0.0,4.0,2.0,4.0,0.0,4.0,50.0,,,,,,,,,,,,,,,,,,,,,,,,,,,,,,,,,,,,,,,,,,,,,,,,,,,,,,,,,,,,,,,,,,,,,,,,,,,,,,,,,,,,
64110,1645583147.159211,38.0,0.0,4310.256348,3459.487061,4229.230957,4280.512695,4344.102539,0.0,4.0,95.0,,,,0.0,4.0,2.0,4.0,0.0,4.0,50.0,,,,,,,,19.0,0.0,0.47600699999999996,-0.287598,0.5827640000000001,0.592529,0.910658,-0.41358100000000003,-0.155276,-0.034276,-0.035744,-0.028651,,,,,,,,,,,,,,,,,,,,,,,,,,,,,,,,,,,,,,,,,,,,,,,,,,,,,,,,,,,,,,,,,
64111,1645583147.167025,39.0,0.0,4312.307617,3296.410156,4250.256348,4280.512695,4324.615234000001,0.0,4.0,95.0,,,,0.0,4.0,2.0,4.0,0.0,4.0,50.0,,,,,,,,,,,,,,,,,,,,,,,,,,,,,,,,,,,,,,,,,,,,,,,,,,,,,,0.0,0.0,1.0,0.0,512.0,1.0,,,,,,,,,,,,,,,,,,,,,,,,,
64112,1645583147.17474,40.0,0.0,4333.846191,3263.589844,4247.692383,4280.512695,4289.230957,0.0,4.0,95.0,,,,0.0,4.0,2.0,4.0,0.0,4.0,50.0,,,,,,,,20.0,0.0,0.476159,-0.287842,0.5825199999999999,0.592529,0.8999159999999999,-0.41651000000000005,-0.16552999999999998,-0.034218,-0.035733999999999995,-0.030864,,,,,,,,,,,,,,,,,,,,,,,,,,,,,,,,,,,,,,,,,,,,,,,,,,,,,,,,,,,,,,,,,
64113,1645583147.182555,41.0,0.0,4355.384765999999,3365.1281740000004,4231.282227000001,4280.512695,4295.384765999999,0.0,4.0,95.0,,,,0.0,4.0,2.0,4.0,0.0,4.0,50.0,,,,,,,,,,,,,,,,,,,,,,,,,,,,,,,,,,,,,,,,,,,,,,,,,,,,,,,,,,,,,,,,,,,,,,,,,,,,,,,,,,,,
64114,1645583147.190369,42.0,0.0,4349.743652,3349.230713,4229.743652,4280.512695,4322.05127,0.0,4.0,95.0,,,,0.0,4.0,2.0,4.0,0.0,4.0,50.0,,,,,,,,21.0,0.0,0.476159,-0.287842,0.5825199999999999,0.592529,0.894545,-0.42090500000000003,-0.1626,-0.034165,-0.035774,-0.032757999999999995,,,,,,,,,,,,,,,,,,,,,,,,,,,,,,,,,,,,,,,,,,,,,,,,,,,,,,,,,,,,,,,,,
64115,1645583147.198184,43.0,0.0,4321.025879,3247.179443,4241.538574,4280.512695,4318.461426,0.0,4.0,95.0,,,,0.0,4.0,2.0,4.0,0.0,4.0,50.0,,,,,,,,,,,,,,,,,,,,,,,,,,,,,,,,,,,,,,,,,,,,,,,,,,,,,,0.0,0.0,1.0,0.0,512.0,1.0,,,,,,,,,,,,,,,,,,,,,,,,,
64116,1645583147.2059991,44.0,0.0,4314.871582,3302.05127,4247.179688,4280.512695,4303.077147999999,0.0,4.0,95.0,,,,0.0,4.0,2.0,4.0,0.0,4.0,50.0,,,,,,,,22.0,0.0,0.47631,-0.288086,0.582275,0.592529,0.904799,-0.425299,-0.15332300000000001,-0.034118,-0.035761,-0.028310000000000002,,,,,,,,,,,,,,,,,,,,,,,,,,,,,,,,,,,,,,,,,,,,,,,,,,,,,,,,,,,,,,,,,
64117,1645583147.213813,45.0,0.0,4346.153809,3461.538574,4239.487305,4280.512695,4316.922852000001,0.0,4.0,95.0,,,,0.0,4.0,2.0,4.0,0.0,4.0,50.0,,,,,,,,,,,,,,,,,,,,,,,,,,,,,,,,,,,,,,,,,,,,,,,,,,,,,,,,,,,,,,,,,,,,,,,,,,,,,,,,,,,,
64118,1645583147.221628,46.0,0.0,4346.666504,3490.256348,4222.563965,4280.512695,4326.666504,0.0,4.0,95.0,,,,0.0,4.0,2.0,4.0,0.0,4.0,50.0,,,,,,,,23.0,0.0,0.476466,-0.28833000000000003,0.582275,0.5922850000000001,0.9111469999999999,-0.41406899999999996,-0.163577,-0.034124,-0.035701,-0.030606,,,,,,,,,,,,,,,,,,,,,,,,,,,,,,,,,,,,,,,,,,,,,,,,,,,,,,,,,,,,,,,,,
64119,1645583147.229443,47.0,0.0,4313.333496,3438.974365,4217.94873,4280.512695,4310.256348,0.0,4.0,95.0,,,,0.0,4.0,2.0,4.0,0.0,4.0,50.0,1.0,33.333332,4.0,0.0,4.0,0.0,4.0,,,,,,,,,,,,,1.0,0.0,0.0,,,,,,,,,,,,,,,,,,,,,,,,,,,,,,,,0.0,0.0,1.0,0.0,512.0,1.0,6.713058,3.7565980000000003,2.410699,2.994971,3.9197050000000004,973.398315,168.989838,49.5965,31.174927,19.197733,1.6088200000000001,1.315655,1.518685,0.673876,1.8156450000000002,0.0035600000000000002,0.0013650000000000001,0.001004,0.0019420000000000001,0.000936,1.908686,1.859604,2.276406,1.120195,3.116951
64120,1645583147.237257,48.0,0.0,4312.820313,3461.025635,4237.94873,4280.512695,4289.230957,0.0,4.0,95.0,,,,0.0,4.0,2.0,4.0,0.0,4.0,50.0,,,,,,,,24.0,0.0,0.476466,-0.28833000000000003,0.582275,0.5922850000000001,0.9052870000000001,-0.42236999999999997,-0.15674100000000002,-0.03413,-0.035695,-0.026470999999999998,,,,,,,,,,,,,,,,,,,,,,,,,,,,,,,,,,,,,,,,,,,,,,,,,,,,,,,,,,,,,,,,,
64121,1645583147.2450721,49.0,0.0,4340.512695,3518.461426,4248.717772999999,4280.512695,4292.820313,0.0,4.0,95.0,,,,0.0,4.0,2.0,4.0,0.0,4.0,50.0,,,,,,,,,,,,,,,,,,,,,,,,,,,,,,,,,,,,,,,,,,,,,,,,,,,,,,,,,,,,,,,,,,,,,,,,,,,,,,,,,,,,
64122,1645583147.2527869,50.0,0.0,4350.769043,3540.512939,4223.589844,4280.512695,4316.410156,0.0,4.0,95.0,,,,0.0,4.0,2.0,4.0,0.0,4.0,50.0,,,,,,,,25.0,0.0,0.476621,-0.288574,0.582275,0.592041,0.9043110000000001,-0.41455699999999995,-0.154788,-0.034135000000000006,-0.03569,-0.028901999999999997,,,,,,,,,,,,,,,,,,,,,,,,,,,,,,,,,,,,,,,,,,,,,,,,,,,,,,,,,,,,,,,,,
64123,1645583147.260601,51.0,0.0,4342.563965,3502.5642090000006,4212.307617,4280.512695,4322.05127,0.0,4.0,95.0,,,,0.0,4.0,2.0,4.0,0.0,4.0,50.0,,,,,,,,,,,,,,,,,,,,,,,,,,,,,,,,,,,,,,,,,,,,,,,,,,,,,,0.0,0.0,1.0,0.0,512.0,1.0,,,,,,,,,,,,,,,,,,,,,,,,,
64124,1645583147.268416,52.0,0.0,4337.436035,3464.615479,4235.897461,4280.512695,4300.0,0.0,4.0,95.0,,,,0.0,4.0,2.0,4.0,0.0,4.0,50.0,,,,,,,,26.0,0.0,0.476621,-0.288574,0.582275,0.592041,0.903334,-0.410163,-0.16406500000000002,-0.034042,-0.035686,-0.031089999999999996,,,,,,,,,,,,,,,,,,,,,,,,,,,,,,,,,,,,,,,,,,,,,,,,,,,,,,,,,,,,,,,,,
64125,1645583147.276231,53.0,0.0,4331.794922,3546.6667479999996,4237.436035,4280.512695,4294.871582,0.0,4.0,95.0,,,,0.0,4.0,2.0,4.0,0.0,4.0,50.0,,,,,,,,,,,,,,,,,,,,,,,,,,,,,,,,,,,,,,,,,,,,,,,,,,,,,,,,,,,,,,,,,,,,,,,,,,,,,,,,,,,,
64126,1645583147.284045,54.0,0.0,4316.922852000001,3633.3332520000004,4218.974121,4280.512695,4314.871582,0.0,4.0,95.0,,,,0.0,4.0,2.0,4.0,0.0,4.0,50.0,,,,,,,,27.0,0.0,0.476621,-0.288574,0.582275,0.592041,0.904799,-0.41651000000000005,-0.166506,-0.034007,-0.035633,-0.033011,,,,,,,,,,,,,,,,,,,,,,,,,,,,,,,,,,,,,,,,,,,,,,,,,,,,,,,,,,,,,,,,,
64127,1645583147.2918599,55.0,0.0,4318.974121,3514.8718259999996,4241.025879,4280.512695,4330.256348,0.0,4.0,95.0,,,,0.0,4.0,2.0,4.0,0.0,4.0,50.0,,,,,,,,,,,,,,,,,,,,,,,,,,,,,,,,,,,,,,,,,,,,,,,,,,,,,,0.0,0.0,1.0,0.0,512.0,1.0,,,,,,,,,,,,,,,,,,,,,,,,,
64128,1645583147.299675,56.0,0.0,4338.974121,3344.615479,4271.794922,4280.512695,4331.794922,0.0,4.0,95.0,,,,0.0,4.0,2.0,4.0,0.0,4.0,50.0,,,,,,,,28.0,0.0,0.476621,-0.288574,0.582275,0.592041,0.8994280000000001,-0.415534,-0.161135,-0.034024,-0.035683,-0.034739,,,,,,,,,,,,,,,,,,,,,,,,,,,,,,,,,,,,,,,,,,,,,,,,,,,,,,,,,,,,,,,,,
64129,1645583147.3074892,57.0,0.0,4324.102539,3326.666748,4245.128418,4280.512695,4305.641113000001,0.0,4.0,95.0,,,,0.0,4.0,2.0,4.0,0.0,4.0,50.0,,,,,,,,,,,,,,,,,,,,,,,,,,,,,,,,,,,,,,,,,,,,,,,,,,,,,,,,,,,,,,,,,,,,,,,,,,,,,,,,,,,,
64130,1645583147.3153038,58.0,0.0,4289.743652,3400.0,4207.692383,4280.512695,4288.717772999999,0.0,4.0,95.0,,,,0.0,4.0,2.0,4.0,0.0,4.0,50.0,,,,,,,,29.0,0.0,0.476621,-0.288574,0.582275,0.592041,0.901869,-0.416022,-0.1626,-0.033942,-0.03563,-0.030142000000000002,,,,,,,,,,,,,,,,,,,,,,,,,,,,,,,,,,,,,,,,,,,,,,,,,,,,,,,,,,,,,,,,,
64131,1645583147.323019,59.0,0.0,4309.743652,3481.025635,4218.461426,4280.512695,4316.922852000001,0.0,4.0,95.0,,,,0.0,4.0,2.0,4.0,0.0,4.0,50.0,,,,,,,,,,,,,,,,,,,,,,,,,,,,,,,,,,,,,,,,,,,,,,,,,,,,,,0.0,0.0,1.0,0.0,512.0,1.0,,,,,,,,,,,,,,,,,,,,,,,,,
64132,1645583147.330833,60.0,0.0,4343.077147999999,3510.256348,4243.077147999999,4281.025879,4320.0,0.0,4.0,95.0,,,,0.0,4.0,2.0,4.0,0.0,4.0,50.0,,,,,,,,30.0,0.0,0.47692399999999996,-0.288574,0.582275,0.591797,0.901381,-0.408698,-0.161135,-0.033917,-0.035632,-0.032255,,,,,,,,,,,,,,,,,,,,,,,,,,,,,,,,,,,,,,,,,,,,,,,,,,,,,,,,,,,,,,,,,
64133,1645583147.338648,61.0,0.0,4318.461426,3485.641113,4235.897461,4280.512695,4293.333496,0.0,4.0,95.0,,,,0.0,4.0,2.0,4.0,0.0,4.0,50.0,,,,,,,,,,,,,,,,,,,,,,,,,,,,,,,,,,,,,,,,,,,,,,,,,,,,,,,,,,,,,,,,,,,,,,,,,,,,,,,,,,,,
64134,1645583147.3464632,62.0,0.0,4290.256348,3514.358887,4209.230957,4279.487305,4306.153809,0.0,4.0,95.0,,,,0.0,4.0,2.0,4.0,0.0,4.0,50.0,,,,,,,,31.0,0.0,0.47692399999999996,-0.288574,0.582275,0.591797,0.9087049999999999,-0.408698,-0.166018,-0.033943,-0.035682,-0.034059,,,,,,,,,,,,,,,,,,,,,,,,,,,,,,,,,,,,,,,,,,,,,,,,,,,,,,,,,,,,,,,,,
64135,1645583147.354277,63.0,0.0,4313.333496,3586.6667479999996,4203.589844,4279.487305,4331.794922,0.0,4.0,95.0,,,,0.0,4.0,2.0,4.0,0.0,4.0,50.0,,,,,,,,,,,,,,,,,,,,1.0,0.0,0.0,,,,,,,,,,,,,,,,,,,,,,,,,,,,,,,,0.0,0.0,1.0,0.0,512.0,1.0,6.752287,3.458337,2.195034,2.74232,4.103321,909.230713,153.25241100000002,48.009071,29.963482,19.903244,1.84743,1.1569559999999999,1.376106,0.706573,2.113437,0.003322,0.0011710000000000002,0.0011220000000000002,0.001797,0.0007099999999999999,2.122601,1.7911740000000003,2.090233,1.325869,3.388211
64136,1645583147.362092,64.0,0.0,4316.922852000001,3579.487061,4225.641113000001,4281.538574,4317.436035,450.0,4.0,95.0,,,,0.0,4.0,2.0,4.0,0.0,4.0,50.0,,,,,,,,32.0,0.0,0.47692399999999996,-0.288574,0.582275,0.591797,0.890639,-0.40528000000000003,-0.154299,-0.033868999999999996,-0.035629,-0.035829,,,,,,,,,,,,,,,,,,,,,,,,,,,,,,,,,,,,,,,,,,,,,,,,,,,,,,,,,,,,,,,,,
64137,1645583147.369906,65.0,0.0,4299.487305,3513.8461909999996,4250.769043,4283.077147999999,4301.538574,450.0,4.0,95.0,,,,0.0,4.0,2.0,4.0,0.0,4.0,50.0,,,,,,,,,,,,,,,,,,,,,,,,,,,,,,,,,,,,,,,,,,,,,,,,,,,,,,,,,,,,,,,,,,,,,,,,,,,,,,,,,,,,
64138,1645583147.377721,66.0,0.0,4335.384765999999,3485.1281740000004,4253.333496,4281.538574,4325.128418,16216.0,4.0,95.0,,,,0.0,4.0,2.0,4.0,0.0,4.0,50.0,,,,,,,,33.0,0.0,0.47722700000000007,-0.288574,0.582275,0.591553,0.906752,-0.407233,-0.153811,-0.033949,-0.035582,-0.037324,,,,,,,,,,,,,,,,,,,,,,,,,,,,,,,,,,,,,,,,,,,,,,,,,,,,,,,,,,,,,,,,,
64139,1645583147.385536,67.0,0.0,4357.436035,3491.794922,4225.641113000001,4280.0,4352.307617,450.0,4.0,95.0,,,,0.0,4.0,2.0,4.0,0.0,4.0,50.0,,,,,,,,,,,,,,,,,,,,,,,,,,,,,,,,,,,,,,,,,,,,,,,,,,,,,,0.0,0.0,1.0,0.0,512.0,1.0,,,,,,,,,,,,,,,,,,,,,,,,,
64140,1645583147.39335,68.0,0.0,4311.282227000001,3509.2307130000004,4203.589844,4279.487305,4346.153809,205.0,4.0,95.0,,,,0.0,4.0,2.0,4.0,0.0,4.0,50.0,,,,,,,,34.0,0.0,0.47722700000000007,-0.288574,0.582275,0.591553,0.8930799999999999,-0.41406899999999996,-0.167971,-0.033972,-0.035637,-0.038669999999999996,,,,,,,,,,,,,,,,,,,,,,,,,,,,,,,,,,,,,,,,,,,,,,,,,,,,,,,,,,,,,,,,,
64141,1645583147.401065,69.0,0.0,4285.641113000001,3535.384521,4222.563965,4279.487305,4317.94873,450.0,4.0,95.0,,,,0.0,4.0,2.0,4.0,0.0,4.0,50.0,,,,,,,,,,,,,,,,,,,,,,,,,,,,,,,,,,,,,,,,,,,,,,,,,,,,,,,,,,,,,,,,,,,,,,,,,,,,,,,,,,,,
64142,1645583147.40888,70.0,0.0,4312.820313,3577.4357909999994,4248.717772999999,4279.487305,4301.538574,16221.0,4.0,95.0,,,,0.0,4.0,2.0,4.0,0.0,4.0,50.0,,,,,,,,35.0,0.0,0.47722700000000007,-0.288574,0.582275,0.591553,0.901869,-0.42676400000000003,-0.166506,-0.033944,-0.035638,-0.033729,,,,,,,,,,,,,,,,,,,,,,,,,,,,,,,,,,,,,,,,,,,,,,,,,,,,,,,,,,,,,,,,,
64143,1645583147.416694,71.0,0.0,4334.358886999999,3639.487061,4237.436035,4278.974121,4326.153809,450.0,4.0,95.0,,,,0.0,4.0,2.0,4.0,0.0,4.0,50.0,,,,,,,,,,,,,,,,,,,,,,,,,,,,,,,,,,,,,,,,,,,,,,,,,,,,,,0.0,0.0,1.0,0.0,512.0,1.0,,,,,,,,,,,,,,,,,,,,,,,,,
64144,1645583147.424509,72.0,0.0,4329.743652,3656.923096,4220.0,4278.974121,4356.410156,450.0,4.0,95.0,,,,0.0,4.0,2.0,4.0,0.0,4.0,50.0,,,,,,,,36.0,0.0,0.47737700000000005,-0.28881799999999996,0.5820310000000001,0.591553,0.921401,-0.41113900000000003,-0.16406500000000002,-0.033919,-0.035541,-0.035385,,,,,,,,,,,,,,,,,,,,,,,,,,,,,,,,,,,,,,,,,,,,,,,,,,,,,,,,,,,,,,,,,
64145,1645583147.432324,73.0,0.0,4308.205078,3648.718018,4228.205078,4279.487305,4343.589844,0.0,4.0,95.0,,,,0.0,4.0,2.0,4.0,0.0,4.0,50.0,,,,,,,,,,,,,,,,,,,,,,,,,,,,,,,,,,,,,,,,,,,,,,,,,,,,,,,,,,,,,,,,,,,,,,,,,,,,,,,,,,,,
64146,1645583147.440138,74.0,0.0,4307.179688,3710.256348,4238.974121,4279.487305,4313.333496,450.0,4.0,95.0,,,,0.0,4.0,2.0,4.0,0.0,4.0,50.0,,,,,,,,37.0,0.0,0.47768,-0.28881799999999996,0.5820310000000001,0.591309,0.895033,-0.40283800000000003,-0.154788,-0.033895999999999996,-0.035503,-0.030626,,,,,,,,,,,,,,,,,,,,,,,,,,,,,,,,,,,,,,,,,,,,,,,,,,,,,,,,,,,,,,,,,
64147,1645583147.447953,75.0,0.0,4352.820313,3758.461426,4228.717772999999,4278.974121,4313.333496,16213.0,4.0,95.0,,,,0.0,4.0,2.0,4.0,0.0,4.0,50.0,,,,,,,,,,,,,,,,,,,,,,,,,,,,,,,,,,,,,,,,,,,,,,,,,,,,,,0.0,0.0,1.0,0.0,512.0,1.0,,,,,,,,,,,,,,,,,,,,,,,,,
64148,1645583147.4557679,76.0,0.0,4351.794922,3691.794922,4223.589844,4279.487305,4315.384765999999,450.0,4.0,95.0,,,,0.0,4.0,2.0,4.0,0.0,4.0,50.0,,,,,,,,38.0,0.0,0.47753199999999996,-0.289063,0.5820310000000001,0.591309,0.9043110000000001,-0.41651000000000005,-0.17236600000000002,-0.033974000000000004,-0.035517,-0.032642000000000004,,,,,,,,,,,,,,,,,,,,,,,,,,,,,,,,,,,,,,,,,,,,,,,,,,,,,,,,,,,,,,,,,
64149,1645583147.463582,77.0,0.0,4309.743652,3607.179443,4249.743652,4281.538574,4295.897461,450.0,4.0,95.0,,,,0.0,4.0,2.0,4.0,0.0,4.0,50.0,,,,,,,,,,,,,,,,,,,,,,,,,,,,,,,,,,,,,,,,,,,,,,,,,,,,,,,,,,,,,,,,,,,,,,,,,,,,,,,,,,,,
64150,1645583147.471297,78.0,0.0,4334.358886999999,3640.512939,4260.512695,4281.538574,4295.384765999999,450.0,4.0,95.0,,,,0.0,4.0,2.0,4.0,0.0,4.0,50.0,,,,,,,,39.0,0.0,0.47783400000000004,-0.289063,0.5820310000000001,0.591064,0.9111469999999999,-0.40528000000000003,-0.15820599999999999,-0.033993999999999996,-0.03553,-0.028205,,,,,,,,,,,,,,,,,,,,,,,,,,,,,,,,,,,,,,,,,,,,,,,,,,,,,,,,,,,,,,,,,
64151,1645583147.479112,79.0,0.0,4376.410156,3755.897461,4224.615234000001,4279.487305,4318.974121,16213.0,4.0,95.0,,,,0.0,4.0,2.0,4.0,0.0,4.0,50.0,,,,,,,,,,,,,,,,,,,,1.0,0.0,0.0,,,,,,,,,,,,,,,,,,,,,,,,,,,,,,,,0.0,0.0,1.0,0.0,128.0,1.0,6.5766919999999995,3.080108,2.0687279999999997,2.46837,4.174004,755.836731,125.469048,43.545193,28.926047999999998,20.052523,2.157326,1.0103739999999999,1.173657,0.7262810000000001,2.331085,0.002963,0.001314,0.00133,0.001598,0.000572,2.3159959999999997,1.8152,1.945857,1.6489,3.618514
64152,1645583147.486926,80.0,0.0,4344.615234000001,3758.974365,4207.692383,4278.974121,4328.717772999999,450.0,4.0,95.0,,,,0.0,4.0,2.0,4.0,0.0,4.0,50.0,,,,,,,,40.0,0.0,0.47783400000000004,-0.289063,0.5820310000000001,0.591064,0.9052870000000001,-0.40576799999999996,-0.17236600000000002,-0.034013,-0.035541,-0.030364999999999996,,,,,,,,,,,,,,,,,,,,,,,,,,,,,,,,,,,,,,,,,,,,,,,,,,,,,,,,,,,,,,,,,
64153,1645583147.494741,81.0,0.0,4297.436035,3640.0,4237.436035,4279.487305,4309.743652,450.0,4.0,95.0,,,,0.0,4.0,2.0,4.0,0.0,4.0,50.0,,,,,,,,,,,,,,,,,,,,,,,,,,,,,,,,,,,,,,,,,,,,,,,,,,,,,,,,,,,,,,,,,,,,,,,,,,,,,,,,,,,,
64154,1645583147.502556,82.0,0.0,4318.461426,3609.2307130000004,4251.282227000001,4279.487305,4294.358886999999,450.0,4.0,95.0,,,,0.0,4.0,2.0,4.0,0.0,4.0,50.0,,,,,,,,41.0,0.0,0.477984,-0.28930700000000004,0.5817869999999999,0.591064,0.9043110000000001,-0.408698,-0.157717,-0.034078,-0.035503,-0.026108,,,,,,,,,,,,,,,,,,,,,,,,,,,,,,,,,,,,,,,,,,,,,,,,,,,,,,,,,,,,,,,,,
64155,1645583147.51037,83.0,0.0,4364.615234000001,3634.8718259999996,4229.743652,4279.487305,4317.436035,16213.0,4.0,95.0,,,,0.0,4.0,2.0,4.0,0.0,4.0,50.0,,,,,,,,,,,,,,,,,,,,,,,,,,,,,,,,,,,,,,,,,,,,,,,,,,,,,,0.0,0.0,1.0,0.0,128.0,1.0,,,,,,,,,,,,,,,,,,,,,,,,,
64156,1645583147.518185,84.0,0.0,4351.794922,3585.641113,4221.025879,4279.487305,4340.512695,450.0,4.0,95.0,,,,0.0,4.0,2.0,4.0,0.0,4.0,50.0,,,,,,,,42.0,0.0,0.477836,-0.289551,0.5817869999999999,0.591064,0.9087049999999999,-0.409674,-0.163088,-0.03404,-0.035468,-0.028624,,,,,,,,,,,,,,,,,,,,,,,,,,,,,,,,,,,,,,,,,,,,,,,,,,,,,,,,,,,,,,,,,
64157,1645583147.526,85.0,0.0,4296.410156,3632.820557,4235.897461,4279.487305,4318.974121,450.0,4.0,95.0,,,,0.0,4.0,2.0,4.0,0.0,4.0,50.0,,,,,,,,,,,,,,,,,,,,,,,,,,,,,,,,,,,,,,,,,,,,,,,,,,,,,,,,,,,,,,,,,,,,,,,,,,,,,,,,,,,,
64158,1645583147.533814,86.0,0.0,4284.615234000001,3769.743652,4234.358886999999,4279.487305,4284.102539,450.0,4.0,95.0,,,,0.0,4.0,2.0,4.0,0.0,4.0,50.0,,,,,,,,43.0,0.0,0.478133,-0.289551,0.581543,0.591064,0.9121229999999999,-0.409674,-0.164553,-0.034005,-0.035486000000000004,-0.030743,,,,,,,,,,,,,,,,,,,,,,,,,,,,,,,,,,,,,,,,,,,,,,,,,,,,,,,,,,,,,,,,,
64159,1645583147.541529,87.0,0.0,4299.487305,3766.1538090000004,4207.179688,4279.487305,4282.05127,16213.0,4.0,95.0,,,,0.0,4.0,2.0,4.0,0.0,4.0,50.0,,,,,,,,,,,,,,,,,,,,,,,,,,,,,,,,,,,,,,,,,,,,,,,,,,,,,,0.0,0.0,1.0,0.0,128.0,1.0,,,,,,,,,,,,,,,,,,,,,,,,,
64160,1645583147.549344,88.0,0.0,4282.05127,3677.4357909999994,4202.05127,4279.487305,4293.333496,450.0,4.0,95.0,,,,0.0,4.0,2.0,4.0,0.0,4.0,50.0,,,,,,,,44.0,0.0,0.47798500000000005,-0.28979499999999997,0.581543,0.591064,0.909682,-0.413092,-0.164553,-0.033925,-0.035502,-0.026496,,,,,,,,,,,,,,,,,,,,,,,,,,,,,,,,,,,,,,,,,,,,,,,,,,,,,,,,,,,,,,,,,
64161,1645583147.557158,89.0,0.0,4270.769043,3650.7692869999996,4231.794922,4279.487305,4283.589844,450.0,4.0,95.0,,,,0.0,4.0,2.0,4.0,0.0,4.0,50.0,,,,,,,,,,,,,,,,,,,,,,,,,,,,,,,,,,,,,,,,,,,,,,,,,,,,,,,,,,,,,,,,,,,,,,,,,,,,,,,,,,,,
64162,1645583147.564973,90.0,0.0,4298.461426,3675.897461,4249.230957,4279.487305,4261.538574,450.0,4.0,95.0,,,,0.0,4.0,2.0,4.0,0.0,4.0,50.0,,,,,,,,45.0,0.0,0.478282,-0.28979499999999997,0.581299,0.591064,0.902358,-0.41992799999999997,-0.16552999999999998,-0.03395,-0.035614,-0.028876,,,,,,,,,,,,,,,,,,,,,,,,,,,,,,,,,,,,,,,,,,,,,,,,,,,,,,,,,,,,,,,,,
64163,1645583147.572688,91.0,0.0,4331.794922,3705.1281740000004,4245.128418,4278.974121,4260.512695,16213.0,4.0,95.0,,,,0.0,4.0,2.0,4.0,0.0,4.0,50.0,,,,,,,,,,,,,,,,,,,,,,,,,,,,,,,,,,,,,,,,,,,,,,,,,,,,,,0.0,0.0,1.0,0.0,128.0,1.0,,,,,,,,,,,,,,,,,,,,,,,,,
64164,1645583147.580502,92.0,0.0,4334.358886999999,3726.1538090000004,4249.743652,4279.487305,4292.307617,450.0,4.0,95.0,,,,0.0,4.0,2.0,4.0,0.0,4.0,50.0,,,,,,,,46.0,0.0,0.478583,-0.28979499999999997,0.581299,0.59082,0.9160299999999999,-0.41406899999999996,-0.160159,-0.033973,-0.035617,-0.031018,,,,,,,,,,,,,,,,,,,,,,,,,,,,,,,,,,,,,,,,,,,,,,,,,,,,,,,,,,,,,,,,,
64165,1645583147.588317,93.0,0.0,4314.358886999999,3812.3076170000004,4263.077147999999,4281.538574,4305.128418,450.0,4.0,95.0,,,,0.0,4.0,2.0,4.0,0.0,4.0,50.0,,,,,,,,,,,,,,,,,,,,,,,,,,,,,,,,,,,,,,,,,,,,,,,,,,,,,,,,,,,,,,,,,,,,,,,,,,,,,,,,,,,,
64166,1645583147.596132,94.0,0.0,4306.666504,3960.512939,4264.102539,4282.05127,4289.230957,450.0,4.0,95.0,,,,0.0,4.0,2.0,4.0,0.0,4.0,50.0,,,,,,,,47.0,0.0,0.47798500000000005,-0.28979499999999997,0.581543,0.591064,0.909682,-0.413092,-0.164553,-0.033895999999999996,-0.035571,-0.026842,,,,,,,,,,,,,,,,,,,,,,,,,,,,,,,,,,,,,,,,,,,,,,,,,,,,,,,,,,,,,,,,,
64167,1645583147.6039462,95.0,0.0,4302.563965,3987.6923829999996,4241.025879,4281.025879,4284.615234000001,16213.0,4.0,95.0,,,,0.0,4.0,2.0,4.0,0.0,4.0,50.0,,,,,,,,,,,,,,,,,,,,1.0,0.0,0.0,,,,,,,,,,,,,,,,,,,,,,,,,,,,,,,,0.0,0.0,1.0,0.0,128.0,1.0,6.265328,2.7802689999999997,2.024009,2.2183490000000003,4.173287999999999,533.183228,94.460876,37.882278,27.795639,20.160431,2.567245,0.9577469999999999,0.968783,0.7479,2.464827,0.00244,0.001709,0.0015949999999999998,0.001377,0.000508,2.4555130000000003,1.83903,1.844208,2.00851,3.76606
64168,1645583147.6117609,96.0,0.0,4288.717772999999,3834.8718259999996,4224.102539,4282.05127,4288.205078,450.0,4.0,95.0,,,,0.0,4.0,2.0,4.0,0.0,4.0,50.0,,,,,,,,48.0,0.0,0.478583,-0.28979499999999997,0.581299,0.59082,0.9160299999999999,-0.41406899999999996,-0.160159,-0.033925,-0.035578,-0.029187,,,,,,,,,,,,,,,,,,,,,,,,,,,,,,,,,,,,,,,,,,,,,,,,,,,,,,,,,,,,,,,,,
64169,1645583147.619576,97.0,0.0,4300.0,3704.615479,4248.205078,4283.077147999999,4295.384765999999,450.0,4.0,95.0,,,,0.0,4.0,2.0,4.0,0.0,4.0,50.0,,,,,,,,,,,,,,,,,,,,,,,,,,,,,,,,,,,,,,,,,,,,,,,,,,,,,,,,,,,,,,,,,,,,,,,,,,,,,,,,,,,,
64170,1645583147.6273901,98.0,0.0,4321.025879,3711.794922,4266.153809,4280.512695,4304.102539,450.0,4.0,95.0,,,,0.0,4.0,2.0,4.0,0.0,4.0,50.0,,,,,,,,49.0,0.0,0.47843500000000005,-0.290039,0.581299,0.59082,0.9043110000000001,-0.406256,-0.1626,-0.033901,-0.035585000000000006,-0.031395,,,,,,,,,,,,,,,,,,,,,,,,,,,,,,,,,,,,,,,,,,,,,,,,,,,,,,,,,,,,,,,,,
64171,1645583147.635205,99.0,0.0,4322.563965,3758.461426,4240.512695,4278.461426,4299.487305,16213.0,4.0,95.0,,,,0.0,4.0,2.0,4.0,0.0,4.0,50.0,,,,,,,,,,,,,,,,,,,,,,,,,,,,,,,,,,,,,,,,,,,,,,,,,,,,,,0.0,0.0,1.0,0.0,128.0,1.0,,,,,,,,,,,,,,,,,,,,,,,,,
64172,1645583147.643019,100.0,0.0,4333.333496,3758.461426,4228.717772999999,4280.0,4304.102539,450.0,4.0,95.0,,,,0.0,4.0,2.0,4.0,0.0,4.0,50.0,,,,,,,,50.0,0.0,0.47873699999999997,-0.290039,0.581299,0.590576,0.903334,-0.400885,-0.175784,-0.033977999999999994,-0.035737,-0.027035000000000003,,,,,,,,,,,,,,,,,,,,,,,,,,,,,,,,,,,,,,,,,,,,,,,,,,,,,,,,,,,,,,,,,
64173,1645583147.650734,101.0,0.0,4335.897461,3777.4357909999994,4254.358886999999,4282.563965,4323.589844,450.0,4.0,95.0,,,,0.0,4.0,2.0,4.0,0.0,4.0,50.0,,,,,,,,,,,,,,,,,,,,,,,,,,,,,,,,,,,,,,,,,,,,,,,,,,,,,,,,,,,,,,,,,,,,,,,,,,,,,,,,,,,,
64174,1645583147.658549,102.0,0.0,4303.077147999999,3855.897461,4257.436035,4282.563965,4311.282227000001,450.0,4.0,95.0,,,,0.0,4.0,2.0,4.0,0.0,4.0,50.0,,,,,,,,51.0,0.0,0.47889,-0.290283,0.581299,0.590332,0.916518,-0.386236,-0.16846,-0.033998,-0.035631,-0.029410000000000002,,,,,,,,,,,,,,,,,,,,,,,,,,,,,,,,,,,,,,,,,,,,,,,,,,,,,,,,,,,,,,,,,
64175,1645583147.666364,103.0,0.0,4294.358886999999,3916.923096,4222.563965,4280.0,4296.922852000001,16213.0,4.0,95.0,,,,0.0,4.0,2.0,4.0,0.0,4.0,50.0,,,,,,,,,,,,,,,,,,,,,,,,,,,,,,,,,,,,,,,,,,,,,,,,,,,,,,0.0,0.0,1.0,0.0,128.0,1.0,,,,,,,,,,,,,,,,,,,,,,,,,
64176,1645583147.674178,104.0,0.0,4323.589844,3893.3332520000004,4211.282227000001,4278.974121,4310.769043,450.0,4.0,95.0,,,,0.0,4.0,2.0,4.0,0.0,4.0,50.0,,,,,,,,52.0,0.0,0.478742,-0.290527,0.581299,0.590332,0.9160299999999999,-0.40283800000000003,-0.17383099999999999,-0.033968,-0.035632,-0.031596,,,,,,,,,,,,,,,,,,,,,,,,,,,,,,,,,,,,,,,,,,,,,,,,,,,,,,,,,,,,,,,,,
64177,1645583147.681993,105.0,0.0,4329.743652,3868.718018,4235.384765999999,4280.0,4313.846191,450.0,4.0,95.0,,,,0.0,4.0,2.0,4.0,0.0,4.0,50.0,,,,,,,,,,,,,,,,,,,,,,,,,,,,,,,,,,,,,,,,,,,,,,,,,,,,,,,,,,,,,,,,,,,,,,,,,,,,,,,,,,,,
64178,1645583147.689807,106.0,0.0,4308.717772999999,3853.3332520000004,4231.794922,4281.025879,4317.436035,450.0,4.0,95.0,,,,0.0,4.0,2.0,4.0,0.0,4.0,50.0,,,,,,,,53.0,0.0,0.478742,-0.290527,0.581299,0.590332,0.9072399999999999,-0.407233,-0.166018,-0.03394,-0.035487,-0.027313,,,,,,,,,,,,,,,,,,,,,,,,,,,,,,,,,,,,,,,,,,,,,,,,,,,,,,,,,,,,,,,,,
64179,1645583147.697622,107.0,0.0,4299.487305,3781.025635,4200.512695,4280.512695,4332.307617,16213.0,4.0,95.0,,,,0.0,4.0,2.0,4.0,0.0,4.0,50.0,,,,,,,,,,,,,,,,,,,,,,,,,,,,,,,,,,,,,,,,,,,,,,,,,,,,,,0.0,0.0,1.0,0.0,128.0,1.0,,,,,,,,,,,,,,,,,,,,,,,,,
64180,1645583147.705437,108.0,0.0,4307.692383,3687.179443,4213.333496,4280.512695,4326.666504,450.0,4.0,95.0,,,,0.0,4.0,2.0,4.0,0.0,4.0,50.0,,,,,,,,54.0,0.0,0.478742,-0.290527,0.581299,0.590332,0.906752,-0.397467,-0.160647,-0.033964,-0.0356,-0.023508,,,,,,,,,,,,,,,,,,,,,,,,,,,,,,,,,,,,,,,,,,,,,,,,,,,,,,,,,,,,,,,,,
64181,1645583147.7132509,109.0,0.0,4316.410156,3642.0512700000004,4253.846191,4280.512695,4320.0,450.0,4.0,95.0,,,,0.0,4.0,2.0,4.0,0.0,4.0,50.0,,,,,,,,,,,,,,,,,,,,,,,,,,,,,,,,,,,,,,,,,,,,,,,,,,,,,,,,,,,,,,,,,,,,,,,,,,,,,,,,,,,,
64182,1645583147.720966,110.0,0.0,4337.436035,3646.6667479999996,4246.666504,4280.512695,4336.922852000001,450.0,4.0,95.0,,,,0.0,4.0,2.0,4.0,0.0,4.0,50.0,,,,,,,,55.0,0.0,0.478742,-0.290527,0.581299,0.590332,0.901869,-0.41651000000000005,-0.163577,-0.033937,-0.035556,-0.026382,,,,,,,,,,,,,,,,,,,,,,,,,,,,,,,,,,,,,,,,,,,,,,,,,,,,,,,,,,,,,,,,,
64183,1645583147.728781,111.0,0.0,4346.666504,3622.5642090000006,4211.794922,4280.512695,4348.717772999999,16213.0,4.0,95.0,,,,0.0,4.0,2.0,4.0,0.0,4.0,50.0,1.0,25.0,3.0,0.0,4.0,0.0,4.0,,,,,,,,,,,,,1.0,0.0,0.0,,,,,,,,,,,,,,,,,,,,,,,,,,,,,,,,0.0,0.0,1.0,0.0,128.0,1.0,5.929899,2.630441,2.03735,2.014637,4.156667,319.22042799999997,70.675095,33.541866,26.719725,20.836842,3.072542,1.0230860000000002,0.815348,0.797628,2.538132,0.001893,0.0022660000000000002,0.0019039999999999999,0.001251,0.000515,2.490108,1.7922759999999998,1.7583380000000002,2.3140080000000003,3.793158
64184,1645583147.736595,112.0,0.0,4310.256348,3616.4101560000004,4203.077147999999,4280.512695,4325.641113000001,450.0,4.0,95.0,,,,0.0,4.0,2.0,4.0,0.0,4.0,50.0,,,,,,,,56.0,0.0,0.478742,-0.290527,0.581299,0.590332,0.8999159999999999,-0.404791,-0.166018,-0.033961,-0.035614,-0.022572,,,,,,,,,,,,,,,,,,,,,,,,,,,,,,,,,,,,,,,,,,,,,,,,,,,,,,,,,,,,,,,,,
64185,1645583147.74441,113.0,0.0,4302.05127,3772.3076170000004,4211.282227000001,4280.512695,4307.692383,450.0,4.0,95.0,,,,0.0,4.0,2.0,4.0,0.0,4.0,50.0,,,,,,,,,,,,,,,,,,,,,,,,,,,,,,,,,,,,,,,,,,,,,,,,,,,,,,,,,,,,,,,,,,,,,,,,,,,,,,,,,,,,
64186,1645583147.752225,114.0,0.0,4371.282227000001,3982.5642090000006,4206.153809,4281.538574,4339.487305,450.0,4.0,95.0,,,,0.0,4.0,2.0,4.0,0.0,4.0,50.0,,,,,,,,57.0,0.0,0.47859300000000005,-0.290283,0.581543,0.590332,0.900893,-0.385748,-0.16211199999999998,-0.034081,-0.035568,-0.025441,,,,,,,,,,,,,,,,,,,,,,,,,,,,,,,,,,,,,,,,,,,,,,,,,,,,,,,,,,,,,,,,,
64187,1645583147.760039,115.0,0.0,4436.410156,3970.7692869999996,4205.128418,4282.05127,4374.358886999999,16213.0,4.0,95.0,,,,0.0,4.0,2.0,4.0,0.0,4.0,50.0,,,,,,,,,,,,,,,,,,,,,,,,,,,,,,,,,,,,,,,,,,,,,,,,,,,,,,0.0,0.0,1.0,0.0,128.0,1.0,,,,,,,,,,,,,,,,,,,,,,,,,
64188,1645583147.767854,116.0,0.0,4471.282227000001,3869.743652,4220.0,4281.025879,4388.205078,450.0,4.0,95.0,,,,0.0,4.0,2.0,4.0,0.0,4.0,50.0,,,,,,,,58.0,0.0,0.478296,-0.290283,0.5817869999999999,0.590332,0.9052870000000001,-0.393561,-0.171878,-0.034091,-0.035526999999999996,-0.021823,,,,,,,,,,,,,,,,,,,,,,,,,,,,,,,,,,,,,,,,,,,,,,,,,,,,,,,,,,,,,,,,,
64189,1645583147.7756689,117.0,0.0,4529.230957,3972.820557,4212.820313,4280.512695,4442.05127,450.0,4.0,95.0,,,,0.0,4.0,2.0,4.0,0.0,4.0,50.0,,,,,,,,,,,,,,,,,,,,,,,,,,,,,,,,,,,,,,,,,,,,,,,,,,,,,,,,,,,,,,,,,,,,,,,,,,,,,,,,,,,,
64190,1645583147.783483,118.0,0.0,4627.179688,4101.025879,4202.05127,4284.615234000001,4534.871582,450.0,4.0,95.0,,,,0.0,4.0,2.0,4.0,0.0,4.0,50.0,,,,,,,,59.0,0.0,0.477846,-0.290039,0.5820310000000001,0.590576,0.9077290000000001,-0.404303,-0.156252,-0.034149,-0.03549,-0.024621,,,,,,,,,,,,,,,,,,,,,,,,,,,,,,,,,,,,,,,,,,,,,,,,,,,,,,,,,,,,,,,,,
64191,1645583147.7912982,119.0,0.0,4744.615234000001,4091.794922,4232.307617,4288.205078,4589.743652,16213.0,4.0,95.0,,,,0.0,4.0,2.0,4.0,0.0,4.0,50.0,,,,,,,,,,,,,,,,,,,,,,,,,,,,,,,,,,,,,,,,,,,,,,,,,,,,,,0.0,0.0,1.0,0.0,128.0,1.0,,,,,,,,,,,,,,,,,,,,,,,,,
64192,1645583147.799113,120.0,0.0,4846.666504,4030.256348,4262.05127,4287.179688,4619.487305,450.0,4.0,95.0,,,,0.0,4.0,2.0,4.0,0.0,4.0,50.0,,,,,,,,60.0,0.0,0.477692,-0.28979499999999997,0.5820310000000001,0.59082,0.893568,-0.40576799999999996,-0.161624,-0.034102999999999994,-0.035358999999999995,-0.027188999999999998,,,,,,,,,,,,,,,,,,,,,,,,,,,,,,,,,,,,,,,,,,,,,,,,,,,,,,,,,,,,,,,,,
64193,1645583147.806827,121.0,0.0,4915.384765999999,3983.076904,4252.307617,4287.692383,4663.077147999999,450.0,4.0,95.0,,,,0.0,4.0,2.0,4.0,0.0,4.0,50.0,,,,,,,,,,,,,,,,,,,,,,,,,,,,,,,,,,,,,,,,,,,,,,,,,,,,,,,,,,,,,,,,,,,,,,,,,,,,,,,,,,,,
64194,1645583147.814642,122.0,0.0,4936.410156,3984.102539,4245.641113000001,4289.230957,4685.641113000001,450.0,4.0,95.0,,,,0.0,4.0,2.0,4.0,0.0,4.0,50.0,,,,,,,,61.0,0.0,0.47724099999999997,-0.289551,0.582275,0.591064,0.9038219999999999,-0.423346,-0.164553,-0.034111,-0.035338999999999995,-0.029548,,,,,,,,,,,,,,,,,,,,,,,,,,,,,,,,,,,,,,,,,,,,,,,,,,,,,,,,,,,,,,,,,
64195,1645583147.822357,123.0,0.0,4926.666504,4037.4357909999994,4243.077147999999,4287.179688,4668.205078,16213.0,4.0,95.0,,,,0.0,4.0,2.0,4.0,0.0,4.0,50.0,,,,,,,,,,,,,,,,,,,,,,,,,,,,,,,,,,,,,,,,,,,,,,,,,,,,,,0.0,0.0,1.0,0.0,128.0,1.0,,,,,,,,,,,,,,,,,,,,,,,,,
64196,1645583147.830171,124.0,0.0,4950.769043,4100.512695,4240.512695,4286.666504,4651.794922,450.0,4.0,95.0,,,,0.0,4.0,2.0,4.0,0.0,4.0,50.0,,,,,,,,62.0,0.0,0.47693800000000003,-0.289551,0.582275,0.591309,0.9150530000000001,-0.409186,-0.164553,-0.034118,-0.035369,-0.03172,,,,,,,,,,,,,,,,,,,,,,,,,,,,,,,,,,,,,,,,,,,,,,,,,,,,,,,,,,,,,,,,,
64197,1645583147.837986,125.0,0.0,4988.717772999999,4096.922852000001,4257.94873,4288.717772999999,4674.358886999999,450.0,4.0,95.0,,,,0.0,4.0,2.0,4.0,0.0,4.0,50.0,,,,,,,,,,,,,,,,,,,,,,,,,,,,,,,,,,,,,,,,,,,,,,,,,,,,,,,,,,,,,,,,,,,,,,,,,,,,,,,,,,,,
64198,1645583147.8458009,126.0,0.0,4966.666504,4070.256348,4261.025879,4288.205078,4690.769043,450.0,4.0,95.0,,,,0.0,4.0,2.0,4.0,0.0,4.0,50.0,,,,,,,,63.0,0.0,0.47708599999999995,-0.28930700000000004,0.582275,0.591309,0.8994280000000001,-0.431647,-0.167971,-0.034173,-0.035348000000000004,-0.027474000000000002,,,,,,,,,,,,,,,,,,,,,,,,,,,,,,,,,,,,,,,,,,,,,,,,,,,,,,,,,,,,,,,,,
64199,1645583147.853615,127.0,0.0,4926.153809,4151.282227000001,4240.0,4288.205078,4647.179688,243.0,4.0,95.0,,,,0.0,4.0,2.0,4.0,0.0,4.0,50.0,,,,,,,,,,,,,,,,,,,,1.0,0.0,0.0,,,,,,,,,,,,,,,,,,,,,,,,,,,,,,,,0.0,0.0,1.0,0.0,512.0,0.6869270000000001,5.694979,2.620161,2.118246,1.855563,4.169789,167.80043,59.830154,32.913761,26.150785,22.371607,3.5130980000000003,1.166466,0.74964,0.8976709999999999,2.585203,0.001611,0.002951,0.00235,0.001408,0.00065,2.405662,1.69125,1.6635080000000002,2.492232,3.684567
64200,1645583147.8614302,0.0,0.0,4893.846191,4227.692383,4232.307617,4288.205078,4608.717772999999,450.0,4.0,95.0,,,,0.0,4.0,2.0,4.0,0.0,4.0,50.0,,,,,,,,0.0,0.0,0.47724099999999997,-0.289551,0.582275,0.591064,0.8989389999999999,-0.41406899999999996,-0.164553,-0.034125,-0.035329,-0.029854000000000002,,,,,,,,,,,,,,,,,,,,,,,,,,,,,,,,,,,,,,,,,,,,,,,,,,,,,,,,,,,,,,,,,
64201,1645583147.8692448,1.0,0.0,4821.025879,4165.128418,4232.820313,4288.717772999999,4601.538574,450.0,4.0,95.0,,,,0.0,4.0,2.0,4.0,0.0,4.0,50.0,,,,,,,,,,,,,,,,,,,,,,,,,,,,,,,,,,,,,,,,,,,,,,,,,,,,,,,,,,,,,,,,,,,,,,,,,,,,,,,,,,,,
64202,1645583147.877059,2.0,0.0,4757.94873,4173.333496,4228.717772999999,4288.205078,4567.692383,16205.0,4.0,95.0,,,,0.0,4.0,2.0,4.0,0.0,4.0,50.0,,,,,,,,1.0,0.0,0.47739,-0.28979499999999997,0.5820310000000001,0.591064,0.889174,-0.42236999999999997,-0.16552999999999998,-0.034227999999999995,-0.035361000000000004,-0.031849,,,,,,,,,,,,,,,,,,,,,,,,,,,,,,,,,,,,,,,,,,,,,,,,,,,,,,,,,,,,,,,,,
64203,1645583147.884874,3.0,0.0,4702.563965,4312.820313,4234.358886999999,4288.205078,4507.692383,450.0,4.0,95.0,,,,0.0,4.0,2.0,4.0,0.0,4.0,50.0,,,,,,,,,,,,,,,,,,,,,,,,,,,,,,,,,,,,,,,,,,,,,,,,,,,,,,0.0,0.0,1.0,0.0,512.0,0.6869270000000001,,,,,,,,,,,,,,,,,,,,,,,,,
64204,1645583147.892689,4.0,0.0,4630.769043,4300.0,4236.922852000001,4287.179688,4485.641113000001,253.0,4.0,95.0,,,,0.0,4.0,2.0,4.0,0.0,4.0,50.0,,,,,,,,2.0,0.0,0.477692,-0.28979499999999997,0.5820310000000001,0.59082,0.909682,-0.411627,-0.15967,-0.034321,-0.035339999999999996,-0.027492000000000003,,,,,,,,,,,,,,,,,,,,,,,,,,,,,,,,,,,,,,,,,,,,,,,,,,,,,,,,,,,,,,,,,
64205,1645583147.900403,5.0,0.0,4614.871582,4112.820313,4229.743652,4284.615234000001,4488.205078,450.0,4.0,95.0,,,,0.0,4.0,2.0,4.0,0.0,4.0,50.0,,,,,,,,,,,,,,,,,,,,,,,,,,,,,,,,,,,,,,,,,,,,,,,,,,,,,,,,,,,,,,,,,,,,,,,,,,,,,,,,,,,,
64206,1645583147.908218,6.0,0.0,4597.94873,4036.923096,4224.102539,4282.563965,4462.05127,16214.0,4.0,95.0,,,,0.0,4.0,2.0,4.0,0.0,4.0,50.0,,,,,,,,3.0,0.0,0.47784099999999996,-0.290039,0.5817869999999999,0.59082,0.8994280000000001,-0.406256,-0.16552999999999998,-0.034258,-0.035468,-0.029869999999999997,,,,,,,,,,,,,,,,,,,,,,,,,,,,,,,,,,,,,,,,,,,,,,,,,,,,,,,,,,,,,,,,,
64207,1645583147.916033,7.0,0.0,4517.94873,4140.0,4224.102539,4282.05127,4431.282227000001,450.0,4.0,95.0,,,,0.0,4.0,2.0,4.0,0.0,4.0,50.0,,,,,,,,,,,,,,,,,,,,,,,,,,,,,,,,,,,,,,,,,,,,,,,,,,,,,,10.0,0.0,1.0,0.0,512.0,0.6869270000000001,,,,,,,,,,,,,,,,,,,,,,,,,
64208,1645583147.923847,8.0,0.0,4484.102539,4180.512695,4228.717772999999,4282.05127,4417.94873,450.0,4.0,95.0,,,,0.0,4.0,2.0,4.0,0.0,4.0,50.0,,,,,,,,4.0,0.0,0.47784099999999996,-0.290039,0.5817869999999999,0.59082,0.9121229999999999,-0.392584,-0.158694,-0.03425,-0.035584,-0.031961,,,,,,,,,,,,,,,,,,,,,,,,,,,,,,,,,,,,,,,,,,,,,,,,,,,,,,,,,,,,,,,,,
64209,1645583147.9316618,9.0,0.0,4504.102539,4004.615479,4225.128418,4281.538574,4407.179688,0.0,4.0,95.0,,,,0.0,4.0,2.0,4.0,0.0,4.0,50.0,,,,,,,,,,,,,,,,,,,,,,,,,,,,,,,,,,,,,,,,,,,,,,,,,,,,,,,,,,,,,,,,,,,,,,,,,,,,,,,,,,,,
64210,1645583147.939477,10.0,0.0,4442.563965,3844.615479,4225.641113000001,4282.05127,4389.230957,450.0,4.0,95.0,,,,0.0,4.0,2.0,4.0,0.0,4.0,50.0,,,,,,,,5.0,0.0,0.47784099999999996,-0.290039,0.5817869999999999,0.59082,0.9087049999999999,-0.401862,-0.15674100000000002,-0.034194,-0.035541,-0.027544,,,,,,,,,,,,,,,,,,,,,,,,,,,,,,,,,,,,,,,,,,,,,,,,,,,,,,,,,,,,,,,,,
64211,1645583147.947291,11.0,0.0,4370.769043,3905.1281740000004,4251.794922,4282.563965,4366.666504,16189.0,4.0,95.0,,,,0.0,4.0,2.0,4.0,0.0,4.0,50.0,,,,,,,,,,,,,,,,,,,,,,,,,,,,,,,,,,,,,,,,,,,,,,,,,,,,,,10.0,0.0,1.0,0.0,512.0,0.6869270000000001,,,,,,,,,,,,,,,,,,,,,,,,,
64212,1645583147.955106,12.0,0.0,4382.05127,3991.794922,4248.717772999999,4282.05127,4340.0,450.0,4.0,95.0,,,,0.0,4.0,2.0,4.0,0.0,4.0,50.0,,,,,,,,6.0,0.0,0.477538,-0.289551,0.5820310000000001,0.591064,0.91017,-0.393561,-0.157717,-0.034193,-0.035503,-0.029966000000000003,,,,,,,,,,,,,,,,,,,,,,,,,,,,,,,,,,,,,,,,,,,,,,,,,,,,,,,,,,,,,,,,,
64213,1645583147.96292,13.0,0.0,4385.128418,3990.256348,4204.102539,4282.563965,4321.538574,450.0,4.0,95.0,,,,0.0,4.0,2.0,4.0,0.0,4.0,50.0,,,,,,,,,,,,,,,,,,,,,,,,,,,,,,,,,,,,,,,,,,,,,,,,,,,,,,,,,,,,,,,,,,,,,,,,,,,,,,,,,,,,
64214,1645583147.970635,14.0,0.0,4349.743652,4034.8718259999996,4206.153809,4282.05127,4320.0,450.0,4.0,95.0,,,,0.0,4.0,2.0,4.0,0.0,4.0,50.0,,,,,,,,7.0,0.0,0.47693599999999997,-0.289063,0.5825199999999999,0.591309,0.9077290000000001,-0.407233,-0.171389,-0.034094,-0.035468,-0.025748000000000004,,,,,,,,,,,,,,,,,,,,,,,,,,,,,,,,,,,,,,,,,,,,,,,,,,,,,,,,,,,,,,,,,
64215,1645583147.97845,15.0,0.0,4338.461426,4144.102539,4237.94873,4282.05127,4321.025879,16189.0,4.0,95.0,,,,0.0,4.0,2.0,4.0,0.0,4.0,50.0,,,,,,,,,,,,,,,,,,,,1.0,0.0,0.0,,,,,,,,,,,,,,,,,,,,,,,,,,,,,,,,10.0,0.0,1.0,0.0,512.0,0.736705,7.48655,2.7673360000000002,2.355654,1.7593419999999997,4.222542,87.54476899999999,63.248615,37.938751,26.785145,24.575832000000002,3.833471,1.315092,0.805687,1.0451469999999998,2.632358,0.002431,0.003941,0.0031190000000000002,0.002025,0.001025,2.906432,1.7012080000000003,1.581867,2.511818,3.455667
64216,1645583147.986265,16.0,0.0,4369.230957,4158.974121,4231.282227000001,4282.563965,4335.384765999999,0.0,4.0,95.0,,,,0.0,4.0,2.0,4.0,0.0,4.0,50.0,,,,,,,,8.0,0.0,0.476934,-0.288574,0.5827640000000001,0.591309,0.9111469999999999,-0.408209,-0.15820599999999999,-0.034102999999999994,-0.035535000000000004,-0.028301,,,,,,,,,,,,,,,,,,,,,,,,,,,,,,,,,,,,,,,,,,,,,,,,,,,,,,,,,,,,,,,,,
64217,1645583147.9940789,17.0,0.0,4405.641113000001,4074.8718259999996,4232.307617,4282.05127,4353.333496,0.0,4.0,95.0,,,,0.0,4.0,2.0,4.0,0.0,4.0,50.0,,,,,,,,,,,,,,,,,,,,,,,,,,,,,,,,,,,,,,,,,,,,,,,,,,,,,,,,,,,,,,,,,,,,,,,,,,,,,,,,,,,,
64218,1645583148.001894,18.0,0.0,4450.769043,4045.1281740000004,4251.282227000001,4281.538574,4376.922852000001,0.0,4.0,95.0,,,,0.0,4.0,2.0,4.0,0.0,4.0,50.0,,,,,,,,9.0,0.0,0.476783,-0.28833000000000003,0.583008,0.591309,0.893568,-0.431159,-0.152834,-0.034061,-0.035546,-0.030549,,,,,,,,,,,,,,,,,,,,,,,,,,,,,,,,,,,,,,,,,,,,,,,,,,,,,,,,,,,,,,,,,
64219,1645583148.009708,19.0,0.0,4547.692383,4077.4357909999994,4244.102539,4284.615234000001,4448.205078,0.0,4.0,95.0,,,,0.0,4.0,2.0,4.0,0.0,4.0,50.0,,,,,,,,,,,,,,,,,,,,,,,,,,,,,,,,,,,,,,,,,,,,,,,,,,,,,,10.0,0.0,1.0,0.0,512.0,0.736705,,,,,,,,,,,,,,,,,,,,,,,,,
64220,1645583148.017523,20.0,0.0,4679.487305,4029.743652,4238.974121,4287.179688,4542.563965,0.0,4.0,95.0,,,,0.0,4.0,2.0,4.0,0.0,4.0,50.0,,,,,,,,10.0,0.0,0.47663199999999994,-0.288086,0.583252,0.591309,0.902358,-0.41358100000000003,-0.159182,-0.033927,-0.035457999999999996,-0.026273,,,,,,,,,,,,,,,,,,,,,,,,,,,,,,,,,,,,,,,,,,,,,,,,,,,,,,,,,,,,,,,,,
64221,1645583148.0253382,21.0,0.0,4778.974121,3971.281982,4257.436035,4287.692383,4586.153809,0.0,4.0,95.0,,,,0.0,4.0,2.0,4.0,0.0,4.0,50.0,,,,,,,,,,,,,,,,,,,,,,,,,,,,,,,,,,,,,,,,,,,,,,,,,,,,,,,,,,,,,,,,,,,,,,,,,,,,,,,,,,,,
64222,1645583148.0331519,22.0,0.0,4800.512695,4139.487305,4258.974121,4288.205078,4594.358886999999,0.0,4.0,95.0,,,,0.0,4.0,2.0,4.0,0.0,4.0,50.0,,,,,,,,11.0,0.0,0.476934,-0.288574,0.5827640000000001,0.591309,0.9111469999999999,-0.408209,-0.15820599999999999,-0.033951999999999996,-0.035525,-0.028773000000000003,,,,,,,,,,,,,,,,,,,,,,,,,,,,,,,,,,,,,,,,,,,,,,,,,,,,,,,,,,,,,,,,,
64223,1645583148.040867,23.0,0.0,4773.846191,4363.589844,4244.615234000001,4289.743652,4595.384765999999,0.0,4.0,95.0,,,,0.0,4.0,2.0,4.0,0.0,4.0,50.0,,,,,,,,,,,,,,,,,,,,,,,,,,,,,,,,,,,,,,,,,,,,,,,,,,,,,,10.0,0.0,1.0,0.0,512.0,0.736705,,,,,,,,,,,,,,,,,,,,,,,,,
64224,1645583148.048682,24.0,0.0,4770.769043,4382.563965,4237.94873,4291.282227000001,4585.641113000001,0.0,4.0,95.0,,,,0.0,4.0,2.0,4.0,0.0,4.0,50.0,,,,,,,,12.0,0.0,0.47663199999999994,-0.288086,0.583252,0.591309,0.902358,-0.41358100000000003,-0.159182,-0.033829000000000005,-0.03544,-0.024675,,,,,,,,,,,,,,,,,,,,,,,,,,,,,,,,,,,,,,,,,,,,,,,,,,,,,,,,,,,,,,,,,
64225,1645583148.0564961,25.0,0.0,4771.282227000001,4288.717772999999,4237.94873,4290.769043,4565.128418,0.0,4.0,95.0,,,,0.0,4.0,2.0,4.0,0.0,4.0,50.0,,,,,,,,,,,,,,,,,,,,,,,,,,,,,,,,,,,,,,,,,,,,,,,,,,,,,,,,,,,,,,,,,,,,,,,,,,,,,,,,,,,,
64226,1645583148.064311,26.0,0.0,4703.589844,4233.846191,4246.153809,4287.692383,4524.102539,0.0,4.0,95.0,,,,0.0,4.0,2.0,4.0,0.0,4.0,50.0,,,,,,,,13.0,0.0,0.47708500000000004,-0.28833000000000003,0.583008,0.591064,0.894545,-0.42188100000000006,-0.147463,-0.033913,-0.035460000000000005,-0.021084000000000002,,,,,,,,,,,,,,,,,,,,,,,,,,,,,,,,,,,,,,,,,,,,,,,,,,,,,,,,,,,,,,,,,
64227,1645583148.072126,27.0,0.0,4629.743652,4216.922852000001,4243.589844,4286.666504,4495.384765999999,0.0,4.0,95.0,,,,0.0,4.0,2.0,4.0,0.0,4.0,50.0,,,,,,,,,,,,,,,,,,,,,,,,,,,,,,,,,,,,,,,,,,,,,,,,,,,,,,0.0,0.0,1.0,0.0,512.0,0.736705,,,,,,,,,,,,,,,,,,,,,,,,,
64228,1645583148.07994,28.0,0.0,4622.05127,4213.333496,4237.94873,4289.230957,4502.05127,0.0,4.0,95.0,,,,0.0,4.0,2.0,4.0,0.0,4.0,50.0,,,,,,,,14.0,0.0,0.477236,-0.288574,0.5827640000000001,0.591064,0.8989389999999999,-0.408698,-0.155764,-0.033889999999999997,-0.035479000000000004,-0.024201,,,,,,,,,,,,,,,,,,,,,,,,,,,,,,,,,,,,,,,,,,,,,,,,,,,,,,,,,,,,,,,,,
64229,1645583148.087755,29.0,0.0,4595.897461,4207.179688,4238.461426,4287.179688,4482.563965,0.0,4.0,95.0,,,,0.0,4.0,2.0,4.0,0.0,4.0,50.0,,,,,,,,,,,,,,,,,,,,,,,,,,,,,,,,,,,,,,,,,,,,,,,,,,,,,,,,,,,,,,,,,,,,,,,,,,,,,,,,,,,,
64230,1645583148.0955698,30.0,0.0,4510.769043,4187.179688,4229.230957,4282.05127,4416.410156,0.0,4.0,95.0,,,,0.0,4.0,2.0,4.0,0.0,4.0,50.0,,,,,,,,15.0,0.0,0.477386,-0.28881799999999996,0.5825199999999999,0.591064,0.8994280000000001,-0.41406899999999996,-0.15332300000000001,-0.033822000000000005,-0.035447,-0.026810000000000004,,,,,,,,,,,,,,,,,,,,,,,,,,,,,,,,,,,,,,,,,,,,,,,,,,,,,,,,,,,,,,,,,
64231,1645583148.103384,31.0,0.0,4451.794922,4244.102539,4225.641113000001,4282.563965,4365.128418,0.0,4.0,95.0,,,,0.0,4.0,2.0,4.0,0.0,4.0,50.0,,,,,,,,,,,,,,,,,,,,1.0,0.0,0.0,,,,,,,,,,,,,,,,,,,,,,,,,,,,,,,,0.0,0.0,1.0,0.0,512.0,0.852439,22.856256,3.709793,2.840217,1.7921349999999998,4.28913,80.563873,79.603218,49.638515000000005,29.260113,26.962203999999996,4.000401999999999,1.4374200000000001,0.995077,1.216908,2.6785400000000004,0.007115000000000001,0.005528,0.004522,0.003164,0.001749,7.904161,2.202123,1.643932,2.394886,3.155818
64232,1645583148.1111991,32.0,0.0,4422.05127,4325.641113000001,4224.615234000001,4283.589844,4347.692383,0.0,4.0,95.0,,,,0.0,4.0,2.0,4.0,0.0,4.0,50.0,,,,,,,,16.0,0.0,0.477838,-0.289063,0.582275,0.59082,0.9116350000000001,-0.411627,-0.15820599999999999,-0.033858,-0.035515,-0.029256,,,,,,,,,,,,,,,,,,,,,,,,,,,,,,,,,,,,,,,,,,,,,,,,,,,,,,,,,,,,,,,,,
64233,1645583148.1189141,33.0,0.0,4375.384765999999,4285.128418,4225.128418,4281.538574,4331.794922,0.0,4.0,95.0,,,,0.0,4.0,2.0,4.0,0.0,4.0,50.0,,,,,,,,,,,,,,,,,,,,,,,,,,,,,,,,,,,,,,,,,,,,,,,,,,,,,,,,,,,,,,,,,,,,,,,,,,,,,,,,,,,,
64234,1645583148.1267278,34.0,0.0,4337.94873,4216.410156,4239.487305,4280.512695,4314.871582,0.0,4.0,95.0,,,,0.0,4.0,2.0,4.0,0.0,4.0,50.0,,,,,,,,17.0,0.0,0.477691,-0.28930700000000004,0.582275,0.59082,0.909682,-0.413092,-0.160159,-0.033988,-0.035479000000000004,-0.031457,,,,,,,,,,,,,,,,,,,,,,,,,,,,,,,,,,,,,,,,,,,,,,,,,,,,,,,,,,,,,,,,,
64235,1645583148.134543,35.0,0.0,4322.05127,4253.846191,4242.563965,4282.05127,4308.717772999999,0.0,4.0,95.0,,,,0.0,4.0,2.0,4.0,0.0,4.0,50.0,,,,,,,,,,,,,,,,,,,,,,,,,,,,,,,,,,,,,,,,,,,,,,,,,,,,,,10.0,0.0,1.0,0.0,512.0,0.852439,,,,,,,,,,,,,,,,,,,,,,,,,
64236,1645583148.142358,36.0,0.0,4298.461426,4274.871582,4223.077147999999,4283.077147999999,4310.769043,0.0,4.0,95.0,,,,0.0,4.0,2.0,4.0,0.0,4.0,50.0,,,,,,,,18.0,0.0,0.47753599999999996,-0.289063,0.582275,0.591064,0.913588,-0.42188100000000006,-0.166506,-0.033957999999999995,-0.035496,-0.033487,,,,,,,,,,,,,,,,,,,,,,,,,,,,,,,,,,,,,,,,,,,,,,,,,,,,,,,,,,,,,,,,,
64237,1645583148.150172,37.0,0.0,4283.077147999999,4204.615234000001,4226.666504,4281.538574,4293.846191,0.0,4.0,95.0,,,,0.0,4.0,2.0,4.0,0.0,4.0,50.0,,,,,,,,,,,,,,,,,,,,,,,,,,,,,,,,,,,,,,,,,,,,,,,,,,,,,,,,,,,,,,,,,,,,,,,,,,,,,,,,,,,,
64238,1645583148.1579869,38.0,0.0,4278.461426,4222.563965,4245.128418,4281.025879,4270.256348,0.0,4.0,95.0,,,,0.0,4.0,2.0,4.0,0.0,4.0,50.0,,,,,,,,19.0,0.0,0.477684,-0.28881799999999996,0.582275,0.591064,0.9052870000000001,-0.403326,-0.165042,-0.033882999999999996,-0.035511,-0.035266000000000006,,,,,,,,,,,,,,,,,,,,,,,,,,,,,,,,,,,,,,,,,,,,,,,,,,,,,,,,,,,,,,,,,
64239,1645583148.165802,39.0,0.0,4245.128418,4286.153809,4230.256348,4281.538574,4276.410156,0.0,4.0,95.0,,,,0.0,4.0,2.0,4.0,0.0,4.0,50.0,,,,,,,,,,,,,,,,,,,,,,,,,,,,,,,,,,,,,,,,,,,,,,,,,,,,,,10.0,0.0,1.0,0.0,512.0,0.852439,,,,,,,,,,,,,,,,,,,,,,,,,
64240,1645583148.173516,40.0,0.0,4209.230957,4200.0,4223.077147999999,4281.538574,4263.077147999999,0.0,4.0,95.0,,,,0.0,4.0,2.0,4.0,0.0,4.0,50.0,,,,,,,,20.0,0.0,0.477379,-0.28833000000000003,0.5825199999999999,0.591309,0.906752,-0.406744,-0.166995,-0.033961,-0.035475,-0.030567,,,,,,,,,,,,,,,,,,,,,,,,,,,,,,,,,,,,,,,,,,,,,,,,,,,,,,,,,,,,,,,,,
64241,1645583148.1813312,41.0,0.0,4213.333496,4103.589844,4242.563965,4280.512695,4224.615234000001,0.0,4.0,95.0,,,,0.0,4.0,2.0,4.0,0.0,4.0,50.0,,,,,,,,,,,,,,,,,,,,,,,,,,,,,,,,,,,,,,,,,,,,,,,,,,,,,,,,,,,,,,,,,,,,,,,,,,,,,,,,,,,,
64242,1645583148.189146,42.0,0.0,4221.025879,4135.897461,4231.794922,4280.0,4223.077147999999,0.0,4.0,95.0,,,,0.0,4.0,2.0,4.0,0.0,4.0,50.0,,,,,,,,21.0,0.0,0.477221,-0.287598,0.5827640000000001,0.591553,0.900893,-0.399908,-0.169436,-0.033983,-0.035443999999999996,-0.03254,,,,,,,,,,,,,,,,,,,,,,,,,,,,,,,,,,,,,,,,,,,,,,,,,,,,,,,,,,,,,,,,,
64243,1645583148.19696,43.0,0.0,4222.563965,4141.538574,4206.666504,4280.0,4257.94873,0.0,4.0,95.0,,,,0.0,4.0,2.0,4.0,0.0,4.0,50.0,,,,,,,,,,,,,,,,,,,,,,,,,,,,,,,,,,,,,,,,,,,,,,,,,,,,,,10.0,0.0,1.0,0.0,512.0,0.852439,,,,,,,,,,,,,,,,,,,,,,,,,
64244,1645583148.204775,44.0,0.0,4265.128418,4149.743652,4224.615234000001,4282.05127,4268.717772999999,0.0,4.0,95.0,,,,0.0,4.0,2.0,4.0,0.0,4.0,50.0,,,,,,,,22.0,0.0,0.47661499999999996,-0.287109,0.583252,0.591797,0.9077290000000001,-0.404791,-0.164553,-0.033954000000000005,-0.035414999999999995,-0.028016000000000003,,,,,,,,,,,,,,,,,,,,,,,,,,,,,,,,,,,,,,,,,,,,,,,,,,,,,,,,,,,,,,,,,
64245,1645583148.21259,45.0,0.0,4337.436035,4211.794922,4252.820313,4282.05127,4281.538574,0.0,4.0,95.0,,,,0.0,4.0,2.0,4.0,0.0,4.0,50.0,,,,,,,,,,,,,,,,,,,,,,,,,,,,,,,,,,,,,,,,,,,,,,,,,,,,,,,,,,,,,,,,,,,,,,,,,,,,,,,,,,,,
64246,1645583148.220404,46.0,0.0,4419.487305,4212.820313,4251.282227000001,4280.512695,4351.794922,0.0,4.0,95.0,,,,0.0,4.0,2.0,4.0,0.0,4.0,50.0,,,,,,,,23.0,0.0,0.47660600000000003,-0.286621,0.583252,0.592041,0.894545,-0.415534,-0.158694,-0.034025,-0.035438,-0.030293,,,,,,,,,,,,,,,,,,,,,,,,,,,,,,,,,,,,,,,,,,,,,,,,,,,,,,,,,,,,,,,,,
64247,1645583148.228219,47.0,0.0,4529.743652,4262.05127,4248.717772999999,4283.589844,4435.897461,0.0,4.0,95.0,,,,0.0,4.0,2.0,4.0,0.0,4.0,50.0,1.0,25.0,3.0,0.0,4.0,0.0,3.0,,,,,,,,,,,,,1.0,0.0,0.0,,,,,,,,,,,,,,,,,,,,,,,,,,,,,,,,10.0,0.0,1.0,0.0,512.0,1.0,79.946007,7.458164,3.6836510000000002,2.040172,4.325933,111.704498,105.63073700000001,66.575645,33.574295,29.127083000000002,4.177269,1.5506950000000002,1.278846,1.3789360000000002,2.697905,0.021689,0.007965,0.006984000000000001,0.004705,0.0028469999999999997,26.182961,4.087606,2.034176,2.209965,2.850333
64248,1645583148.236033,48.0,0.0,4628.717772999999,4346.666504,4260.512695,4287.692383,4482.05127,0.0,4.0,95.0,,,,0.0,4.0,2.0,4.0,0.0,4.0,50.0,,,,,,,,24.0,0.0,0.47630200000000006,-0.286621,0.583252,0.5922850000000001,0.9126120000000001,-0.43018199999999995,-0.15674100000000002,-0.034138999999999996,-0.035410000000000004,-0.032342,,,,,,,,,,,,,,,,,,,,,,,,,,,,,,,,,,,,,,,,,,,,,,,,,,,,,,,,,,,,,,,,,
64249,1645583148.243848,49.0,0.0,4696.410156,4282.563965,4271.282227000001,4287.179688,4525.641113000001,0.0,4.0,95.0,,,,0.0,4.0,2.0,4.0,0.0,4.0,50.0,,,,,,,,,,,,,,,,,,,,,,,,,,,,,,,,,,,,,,,,,,,,,,,,,,,,,,,,,,,,,,,,,,,,,,,,,,,,,,,,,,,,
64250,1645583148.251563,50.0,0.0,4749.230957,4254.358886999999,4271.794922,4287.692383,4577.94873,0.0,4.0,95.0,,,,0.0,4.0,2.0,4.0,0.0,4.0,50.0,,,,,,,,25.0,0.0,0.476297,-0.286621,0.583008,0.592529,0.8921030000000001,-0.4336,-0.166995,-0.034143,-0.035385,-0.027985000000000003,,,,,,,,,,,,,,,,,,,,,,,,,,,,,,,,,,,,,,,,,,,,,,,,,,,,,,,,,,,,,,,,,
64251,1645583148.259378,51.0,0.0,4749.230957,4414.871582,4249.230957,4289.743652,4565.128418,0.0,4.0,95.0,,,,0.0,4.0,2.0,4.0,0.0,4.0,50.0,,,,,,,,,,,,,,,,,,,,,,,,,,,,,,,,,,,,,,,,,,,,,,,,,,,,,,10.0,0.0,1.0,0.0,512.0,1.0,,,,,,,,,,,,,,,,,,,,,,,,,
64252,1645583148.267192,52.0,0.0,4703.589844,4439.487305,4232.307617,4289.743652,4509.743652,0.0,4.0,95.0,,,,0.0,4.0,2.0,4.0,0.0,4.0,50.0,,,,,,,,26.0,0.0,0.47644899999999996,-0.28686500000000004,0.5827640000000001,0.592529,0.903334,-0.42090500000000003,-0.158694,-0.034145999999999996,-0.035508,-0.030264,,,,,,,,,,,,,,,,,,,,,,,,,,,,,,,,,,,,,,,,,,,,,,,,,,,,,,,,,,,,,,,,,
64253,1645583148.275007,53.0,0.0,4687.179688,4301.538574,4246.153809,4289.230957,4494.871582,0.0,4.0,95.0,,,,0.0,4.0,2.0,4.0,0.0,4.0,50.0,,,,,,,,,,,,,,,,,,,,,,,,,,,,,,,,,,,,,,,,,,,,,,,,,,,,,,,,,,,,,,,,,,,,,,,,,,,,,,,,,,,,
64254,1645583148.2828212,54.0,0.0,4686.666504,4328.205078,4243.589844,4288.205078,4491.282227000001,0.0,4.0,95.0,,,,0.0,4.0,2.0,4.0,0.0,4.0,50.0,,,,,,,,27.0,0.0,0.47689899999999996,-0.287109,0.582275,0.592529,0.8999159999999999,-0.42969399999999996,-0.171878,-0.03415,-0.035473000000000005,-0.032218000000000004,,,,,,,,,,,,,,,,,,,,,,,,,,,,,,,,,,,,,,,,,,,,,,,,,,,,,,,,,,,,,,,,,
64255,1645583148.2906358,55.0,0.0,4615.897461,4374.871582,4216.922852000001,4284.615234000001,4457.436035,0.0,4.0,95.0,,,,0.0,4.0,2.0,4.0,0.0,4.0,50.0,,,,,,,,,,,,,,,,,,,,,,,,,,,,,,,,,,,,,,,,,,,,,,,,,,,,,,0.0,0.0,1.0,0.0,512.0,1.0,,,,,,,,,,,,,,,,,,,,,,,,,
64256,1645583148.298451,56.0,0.0,4530.256348,4287.179688,4220.0,4282.563965,4410.256348,0.0,4.0,95.0,,,,0.0,4.0,2.0,4.0,0.0,4.0,50.0,,,,,,,,28.0,0.0,0.47719700000000004,-0.287109,0.5820310000000001,0.592529,0.9052870000000001,-0.433112,-0.16894800000000001,-0.034251,-0.035539,-0.027726999999999998,,,,,,,,,,,,,,,,,,,,,,,,,,,,,,,,,,,,,,,,,,,,,,,,,,,,,,,,,,,,,,,,,
64257,1645583148.306265,57.0,0.0,4492.820313,4248.717772999999,4232.820313,4282.05127,4376.922852000001,0.0,4.0,95.0,,,,0.0,4.0,2.0,4.0,0.0,4.0,50.0,,,,,,,,,,,,,,,,,,,,,,,,,,,,,,,,,,,,,,,,,,,,,,,,,,,,,,,,,,,,,,,,,,,,,,,,,,,,,,,,,,,,
64258,1645583148.31408,58.0,0.0,4467.692383,4285.641113000001,4238.974121,4282.05127,4368.205078,0.0,4.0,95.0,,,,0.0,4.0,2.0,4.0,0.0,4.0,50.0,,,,,,,,29.0,0.0,0.47765100000000005,-0.287354,0.5817869999999999,0.5922850000000001,0.901381,-0.437507,-0.167483,-0.034292,-0.035501,-0.030032999999999997,,,,,,,,,,,,,,,,,,,,,,,,,,,,,,,,,,,,,,,,,,,,,,,,,,,,,,,,,,,,,,,,,
64259,1645583148.321795,59.0,0.0,4445.128418,4255.897461,4254.358886999999,4282.05127,4370.256348,0.0,4.0,95.0,,,,0.0,4.0,2.0,4.0,0.0,4.0,50.0,,,,,,,,,,,,,,,,,,,,,,,,,,,,,,,,,,,,,,,,,,,,,,,,,,,,,,0.0,0.0,1.0,0.0,512.0,1.0,,,,,,,,,,,,,,,,,,,,,,,,,
64260,1645583148.329609,60.0,0.0,4406.153809,4179.487305,4251.794922,4283.077147999999,4359.487305,0.0,4.0,95.0,,,,0.0,4.0,2.0,4.0,0.0,4.0,50.0,,,,,,,,30.0,0.0,0.478103,-0.287598,0.581543,0.592041,0.9091940000000001,-0.422858,-0.166506,-0.034281,-0.035466000000000004,-0.025809,,,,,,,,,,,,,,,,,,,,,,,,,,,,,,,,,,,,,,,,,,,,,,,,,,,,,,,,,,,,,,,,,
64261,1645583148.337424,61.0,0.0,4353.333496,4214.871582,4243.589844,4283.589844,4335.897461,0.0,4.0,95.0,,,,0.0,4.0,2.0,4.0,0.0,4.0,50.0,,,,,,,,,,,,,,,,,,,,,,,,,,,,,,,,,,,,,,,,,,,,,,,,,,,,,,,,,,,,,,,,,,,,,,,,,,,,,,,,,,,,
64262,1645583148.3452392,62.0,0.0,4320.512695,4360.512695,4244.102539,4284.102539,4311.794922,0.0,4.0,95.0,,,,0.0,4.0,2.0,4.0,0.0,4.0,50.0,,,,,,,,31.0,0.0,0.47795600000000005,-0.287842,0.581543,0.592041,0.897475,-0.41358100000000003,-0.170901,-0.034270999999999996,-0.035483999999999995,-0.028207999999999997,,,,,,,,,,,,,,,,,,,,,,,,,,,,,,,,,,,,,,,,,,,,,,,,,,,,,,,,,,,,,,,,,
64263,1645583148.3530529,63.0,0.0,4297.94873,4406.666504,4220.512695,4283.077147999999,4290.256348,0.0,4.0,95.0,,,,0.0,4.0,2.0,4.0,0.0,4.0,50.0,,,,,,,,,,,,,,,,,,,,1.0,0.0,0.0,,,,,,,,,,,,,,,,,,,,,,,,,,,,,,,,10.0,0.0,1.0,0.0,512.0,1.0,216.419388,16.102329,5.030897,2.581347,4.308689,149.754669,137.601196,86.832619,39.076316999999996,30.961879999999997,4.4526,1.675932,1.576594,1.502895,2.659393,0.054913,0.011742,0.010518000000000001,0.0063479999999999995,0.00427,69.80860899999999,8.476204,2.845957,2.0567509999999998,2.5884869999999998
64264,1645583148.360868,64.0,0.0,4254.871582,4342.05127,4200.0,4280.0,4272.820313,450.0,4.0,95.0,,,,0.0,4.0,2.0,4.0,0.0,4.0,50.0,,,,,,,,32.0,0.0,0.478857,-0.287842,0.581299,0.591553,0.91017,-0.42090500000000003,-0.18262,-0.034311,-0.035354000000000003,-0.024118,,,,,,,,,,,,,,,,,,,,,,,,,,,,,,,,,,,,,,,,,,,,,,,,,,,,,,,,,,,,,,,,,
64265,1645583148.368683,65.0,0.0,4209.743652,4285.128418,4224.102539,4280.512695,4257.94873,450.0,4.0,95.0,,,,0.0,4.0,2.0,4.0,0.0,4.0,50.0,,,,,,,,,,,,,,,,,,,,,,,,,,,,,,,,,,,,,,,,,,,,,,,,,,,,,,,,,,,,,,,,,,,,,,,,,,,,,,,,,,,,
64266,1645583148.376497,66.0,0.0,4202.05127,4237.94873,4244.102539,4282.05127,4244.615234000001,16222.0,4.0,95.0,,,,0.0,4.0,2.0,4.0,0.0,4.0,50.0,,,,,,,,33.0,0.0,0.47871,-0.288086,0.581299,0.591553,0.917494,-0.415045,-0.167971,-0.034298,-0.035285000000000004,-0.020485,,,,,,,,,,,,,,,,,,,,,,,,,,,,,,,,,,,,,,,,,,,,,,,,,,,,,,,,,,,,,,,,,
64267,1645583148.384212,67.0,0.0,4198.974121,4232.820313,4224.615234000001,4280.0,4222.563965,450.0,4.0,95.0,,,,0.0,4.0,2.0,4.0,0.0,4.0,50.0,,,,,,,,,,,,,,,,,,,,,,,,,,,,,,,,,,,,,,,,,,,,,,,,,,,,,,10.0,0.0,1.0,0.0,512.0,1.0,,,,,,,,,,,,,,,,,,,,,,,,,
64268,1645583148.392027,68.0,0.0,4175.897461,4260.0,4207.179688,4278.461426,4195.897461,248.0,4.0,95.0,,,,0.0,4.0,2.0,4.0,0.0,4.0,50.0,,,,,,,,34.0,0.0,0.478865,-0.28833000000000003,0.581299,0.591309,0.9194479999999999,-0.407233,-0.180179,-0.034286000000000004,-0.035273,-0.023515,,,,,,,,,,,,,,,,,,,,,,,,,,,,,,,,,,,,,,,,,,,,,,,,,,,,,,,,,,,,,,,,,
64269,1645583148.399841,69.0,0.0,4148.717772999999,4217.436035,4211.794922,4281.025879,4195.384765999999,450.0,4.0,95.0,,,,0.0,4.0,2.0,4.0,0.0,4.0,50.0,,,,,,,,,,,,,,,,,,,,,,,,,,,,,,,,,,,,,,,,,,,,,,,,,,,,,,,,,,,,,,,,,,,,,,,,,,,,,,,,,,,,
64270,1645583148.407656,70.0,0.0,4143.077147999999,4167.179688,4222.563965,4283.077147999999,4190.769043,16210.0,4.0,95.0,,,,0.0,4.0,2.0,4.0,0.0,4.0,50.0,,,,,,,,35.0,0.0,0.479019,-0.288574,0.581299,0.591064,0.8999159999999999,-0.401373,-0.171878,-0.034373,-0.03531,-0.026242,,,,,,,,,,,,,,,,,,,,,,,,,,,,,,,,,,,,,,,,,,,,,,,,,,,,,,,,,,,,,,,,,
64271,1645583148.415471,71.0,0.0,4146.153809,4175.384765999999,4223.589844,4282.05127,4156.410156,450.0,4.0,95.0,,,,0.0,4.0,2.0,4.0,0.0,4.0,50.0,,,,,,,,,,,,,,,,,,,,,,,,,,,,,,,,,,,,,,,,,,,,,,,,,,,,,,10.0,0.0,1.0,0.0,512.0,1.0,,,,,,,,,,,,,,,,,,,,,,,,,
64272,1645583148.423285,72.0,0.0,4128.717772999999,4092.3076170000004,4219.487305,4281.538574,4153.846191,450.0,4.0,95.0,,,,0.0,4.0,2.0,4.0,0.0,4.0,50.0,,,,,,,,36.0,0.0,0.478872,-0.28881799999999996,0.581299,0.591064,0.8989389999999999,-0.417487,-0.14941600000000002,-0.034354,-0.035294,-0.028696,,,,,,,,,,,,,,,,,,,,,,,,,,,,,,,,,,,,,,,,,,,,,,,,,,,,,,,,,,,,,,,,,
64273,1645583148.4311,73.0,0.0,4117.436035,3994.358887,4225.128418,4280.0,4176.410156,0.0,4.0,95.0,,,,0.0,4.0,2.0,4.0,0.0,4.0,50.0,,,,,,,,,,,,,,,,,,,,,,,,,,,,,,,,,,,,,,,,,,,,,,,,,,,,,,,,,,,,,,,,,,,,,,,,,,,,,,,,,,,,
64274,1645583148.438815,74.0,0.0,4121.538574,4100.0,4208.717772999999,4278.461426,4164.102539,450.0,4.0,95.0,,,,0.0,4.0,2.0,4.0,0.0,4.0,50.0,,,,,,,,37.0,0.0,0.478725,-0.289063,0.581299,0.591064,0.914565,-0.394049,-0.1626,-0.034336,-0.035232,-0.024605000000000002,,,,,,,,,,,,,,,,,,,,,,,,,,,,,,,,,,,,,,,,,,,,,,,,,,,,,,,,,,,,,,,,,
64275,1645583148.4466288,75.0,0.0,4104.615234000001,4238.974121,4173.846191,4279.487305,4164.615234000001,16198.0,4.0,95.0,,,,0.0,4.0,2.0,4.0,0.0,4.0,50.0,,,,,,,,,,,,,,,,,,,,,,,,,,,,,,,,,,,,,,,,,,,,,,,,,,,,,,10.0,0.0,1.0,0.0,512.0,1.0,,,,,,,,,,,,,,,,,,,,,,,,,
64276,1645583148.454444,76.0,0.0,4072.3076170000004,4222.05127,4178.974121,4280.512695,4186.666504,450.0,4.0,95.0,,,,0.0,4.0,2.0,4.0,0.0,4.0,50.0,,,,,,,,38.0,0.0,0.479026,-0.289063,0.581299,0.59082,0.900893,-0.404303,-0.154299,-0.034272000000000004,-0.035176,-0.020973,,,,,,,,,,,,,,,,,,,,,,,,,,,,,,,,,,,,,,,,,,,,,,,,,,,,,,,,,,,,,,,,,
64277,1645583148.462259,77.0,0.0,4062.0512700000004,4168.717772999999,4213.333496,4278.974121,4170.769043,450.0,4.0,95.0,,,,0.0,4.0,2.0,4.0,0.0,4.0,50.0,,,,,,,,,,,,,,,,,,,,,,,,,,,,,,,,,,,,,,,,,,,,,,,,,,,,,,,,,,,,,,,,,,,,,,,,,,,,,,,,,,,,
64278,1645583148.470073,78.0,0.0,4085.1281740000004,4221.538574,4229.743652,4279.487305,4151.794922,450.0,4.0,95.0,,,,0.0,4.0,2.0,4.0,0.0,4.0,50.0,,,,,,,,39.0,0.0,0.478872,-0.28881799999999996,0.581299,0.591064,0.8989389999999999,-0.417487,-0.14941600000000002,-0.034214,-0.035174000000000004,-0.023954,,,,,,,,,,,,,,,,,,,,,,,,,,,,,,,,,,,,,,,,,,,,,,,,,,,,,,,,,,,,,,,,,
64279,1645583148.477888,79.0,0.0,4108.205078,4323.077147999999,4222.05127,4281.025879,4160.512695,16198.0,4.0,95.0,,,,0.0,4.0,2.0,4.0,0.0,4.0,50.0,,,,,,,,,,,,,,,,,,,,1.0,0.0,0.0,,,,,,,,,,,,,,,,,,,,,,,,,,,,,,,,10.0,0.0,1.0,0.0,512.0,0.793573,465.053558,31.930236999999998,6.972269,3.390743,4.241514,197.975845,170.890121,106.98141499999998,44.608376,32.582634000000006,4.87524,1.837875,1.795871,1.56892,2.543616,0.114284,0.017764,0.014591999999999999,0.007693000000000001,0.005936,149.475601,16.451206,4.101007,2.015831,2.390273
64280,1645583148.485703,80.0,0.0,4096.410156,4348.205078,4204.615234000001,4280.0,4137.94873,450.0,4.0,95.0,,,,0.0,4.0,2.0,4.0,0.0,4.0,50.0,,,,,,,,40.0,0.0,0.479026,-0.289063,0.581299,0.59082,0.900893,-0.404303,-0.154299,-0.034162,-0.035123,-0.020387,,,,,,,,,,,,,,,,,,,,,,,,,,,,,,,,,,,,,,,,,,,,,,,,,,,,,,,,,,,,,,,,,
64281,1645583148.493517,81.0,0.0,4070.7692869999996,4298.461426,4188.205078,4278.974121,4105.128418,450.0,4.0,95.0,,,,0.0,4.0,2.0,4.0,0.0,4.0,50.0,,,,,,,,,,,,,,,,,,,,,,,,,,,,,,,,,,,,,,,,,,,,,,,,,,,,,,,,,,,,,,,,,,,,,,,,,,,,,,,,,,,,
64282,1645583148.501332,82.0,0.0,4069.743652,4208.717772999999,4190.256348,4279.487305,4126.666504,450.0,4.0,95.0,,,,0.0,4.0,2.0,4.0,0.0,4.0,50.0,,,,,,,,41.0,0.0,0.479322,-0.289063,0.581055,0.59082,0.908217,-0.407233,-0.171389,-0.034115,-0.034980000000000004,-0.017176,,,,,,,,,,,,,,,,,,,,,,,,,,,,,,,,,,,,,,,,,,,,,,,,,,,,,,,,,,,,,,,,,
64283,1645583148.5091472,83.0,0.0,4074.8718259999996,4152.307617,4201.025879,4279.487305,4148.717772999999,16198.0,4.0,95.0,,,,0.0,4.0,2.0,4.0,0.0,4.0,50.0,,,,,,,,,,,,,,,,,,,,,,,,,,,,,,,,,,,,,,,,,,,,,,,,,,,,,,0.0,0.0,1.0,0.0,512.0,0.793573,,,,,,,,,,,,,,,,,,,,,,,,,
64284,1645583148.516861,84.0,0.0,4071.794922,4167.692383,4202.05127,4279.487305,4129.743652,450.0,4.0,95.0,,,,0.0,4.0,2.0,4.0,0.0,4.0,50.0,,,,,,,,42.0,0.0,0.479322,-0.289063,0.581055,0.59082,0.9077290000000001,-0.421393,-0.1626,-0.034072000000000005,-0.035047,-0.020537,,,,,,,,,,,,,,,,,,,,,,,,,,,,,,,,,,,,,,,,,,,,,,,,,,,,,,,,,,,,,,,,,
64285,1645583148.524676,85.0,0.0,4081.025635,4225.641113000001,4213.333496,4279.487305,4106.153809,450.0,4.0,95.0,,,,0.0,4.0,2.0,4.0,0.0,4.0,50.0,,,,,,,,,,,,,,,,,,,,,,,,,,,,,,,,,,,,,,,,,,,,,,,,,,,,,,,,,,,,,,,,,,,,,,,,,,,,,,,,,,,,
64286,1645583148.532491,86.0,0.0,4086.6667479999996,4337.436035,4221.025879,4279.487305,4113.333496,450.0,4.0,95.0,,,,0.0,4.0,2.0,4.0,0.0,4.0,50.0,,,,,,,,43.0,0.0,0.479469,-0.28881799999999996,0.581055,0.59082,0.91017,-0.416022,-0.165042,-0.034082999999999995,-0.035058,-0.017311,,,,,,,,,,,,,,,,,,,,,,,,,,,,,,,,,,,,,,,,,,,,,,,,,,,,,,,,,,,,,,,,,
64287,1645583148.5403051,87.0,0.0,4070.256348,4376.922852000001,4188.205078,4279.487305,4142.05127,16198.0,4.0,95.0,,,,0.0,4.0,2.0,4.0,0.0,4.0,50.0,,,,,,,,,,,,,,,,,,,,,,,,,,,,,,,,,,,,,,,,,,,,,,,,,,,,,,0.0,0.0,1.0,0.0,512.0,0.793573,,,,,,,,,,,,,,,,,,,,,,,,,
64288,1645583148.54812,88.0,0.0,4062.0512700000004,4293.846191,4159.487305,4279.487305,4153.846191,450.0,4.0,95.0,,,,0.0,4.0,2.0,4.0,0.0,4.0,50.0,,,,,,,,44.0,0.0,0.479469,-0.28881799999999996,0.581055,0.59082,0.903334,-0.398444,-0.17773699999999998,-0.034093,-0.035164999999999995,-0.020707,,,,,,,,,,,,,,,,,,,,,,,,,,,,,,,,,,,,,,,,,,,,,,,,,,,,,,,,,,,,,,,,,
64289,1645583148.555934,89.0,0.0,4059.487061,4253.846191,4178.461426,4279.487305,4148.205078,450.0,4.0,95.0,,,,0.0,4.0,2.0,4.0,0.0,4.0,50.0,,,,,,,,,,,,,,,,,,,,,,,,,,,,,,,,,,,,,,,,,,,,,,,,,,,,,,,,,,,,,,,,,,,,,,,,,,,,,,,,,,,,
64290,1645583148.563749,90.0,0.0,4046.1538090000004,4284.615234000001,4201.025879,4280.0,4148.205078,450.0,4.0,95.0,,,,0.0,4.0,2.0,4.0,0.0,4.0,50.0,,,,,,,,45.0,0.0,0.479469,-0.28881799999999996,0.581055,0.59082,0.897963,-0.408209,-0.163577,-0.034102,-0.035262,-0.017464,,,,,,,,,,,,,,,,,,,,,,,,,,,,,,,,,,,,,,,,,,,,,,,,,,,,,,,,,,,,,,,,,
64291,1645583148.571564,91.0,0.0,4049.2307130000004,4268.205078,4193.333496,4278.461426,4140.0,16198.0,4.0,95.0,,,,0.0,4.0,2.0,4.0,0.0,4.0,50.0,,,,,,,,,,,,,,,,,,,,,,,,,,,,,,,,,,,,,,,,,,,,,,,,,,,,,,0.0,0.0,1.0,0.0,512.0,0.793573,,,,,,,,,,,,,,,,,,,,,,,,,
64292,1645583148.579279,92.0,0.0,4072.3076170000004,4249.230957,4192.820313,4278.974121,4110.256348,450.0,4.0,95.0,,,,0.0,4.0,2.0,4.0,0.0,4.0,50.0,,,,,,,,46.0,0.0,0.479469,-0.28881799999999996,0.581055,0.59082,0.9043110000000001,-0.40381500000000004,-0.163577,-0.034158,-0.0353,-0.020747,,,,,,,,,,,,,,,,,,,,,,,,,,,,,,,,,,,,,,,,,,,,,,,,,,,,,,,,,,,,,,,,,
64293,1645583148.5870929,93.0,0.0,4082.0512700000004,4331.282227000001,4203.589844,4278.974121,4103.077147999999,450.0,4.0,95.0,,,,0.0,4.0,2.0,4.0,0.0,4.0,50.0,,,,,,,,,,,,,,,,,,,,,,,,,,,,,,,,,,,,,,,,,,,,,,,,,,,,,,,,,,,,,,,,,,,,,,,,,,,,,,,,,,,,
64294,1645583148.594908,94.0,0.0,4085.641113,4398.461426,4192.820313,4273.333496,4144.102539,450.0,4.0,95.0,,,,0.0,4.0,2.0,4.0,0.0,4.0,50.0,,,,,,,,47.0,0.0,0.479616,-0.288574,0.581055,0.59082,0.905776,-0.40576799999999996,-0.18555,-0.034013999999999996,-0.035335000000000005,-0.01755,,,,,,,,,,,,,,,,,,,,,,,,,,,,,,,,,,,,,,,,,,,,,,,,,,,,,,,,,,,,,,,,,
64295,1645583148.6027222,95.0,0.0,4111.282227000001,4369.743652,4183.589844,4270.256348,4177.94873,16198.0,4.0,95.0,,,,0.0,4.0,2.0,4.0,0.0,4.0,50.0,,,,,,,,,,,,,,,,,,,,1.0,0.0,0.0,,,,,,,,,,,,,,,,,,,,,,,,,,,,,,,,0.0,0.0,1.0,0.0,512.0,0.789049,826.9101559999999,55.511008999999994,9.435792999999999,4.289063,4.141222,254.056976,198.590652,122.07070900000001,49.143276,34.101203999999996,5.397730999999999,2.0622700000000003,1.8990509999999998,1.5664360000000002,2.349952,0.19977899999999998,0.027408999999999996,0.01864,0.008422,0.0077209999999999996,266.262878,28.258051000000002,5.713862000000001,2.114345,2.254531
64296,1645583148.6105368,96.0,0.0,4125.641113000001,4364.102539,4191.282227000001,4276.922852000001,4170.769043,450.0,4.0,95.0,,,,0.0,4.0,2.0,4.0,0.0,4.0,50.0,,,,,,,,48.0,0.0,0.479616,-0.288574,0.581055,0.59082,0.9150530000000001,-0.410163,-0.183597,-0.034031,-0.035268,-0.020873,,,,,,,,,,,,,,,,,,,,,,,,,,,,,,,,,,,,,,,,,,,,,,,,,,,,,,,,,,,,,,,,,
64297,1645583148.618352,97.0,0.0,4094.358887,4395.897461,4198.461426,4282.05127,4147.692383,450.0,4.0,95.0,,,,0.0,4.0,2.0,4.0,0.0,4.0,50.0,,,,,,,,,,,,,,,,,,,,,,,,,,,,,,,,,,,,,,,,,,,,,,,,,,,,,,,,,,,,,,,,,,,,,,,,,,,,,,,,,,,,
64298,1645583148.626166,98.0,0.0,4078.461426,4388.717772999999,4202.05127,4280.0,4135.384765999999,450.0,4.0,95.0,,,,0.0,4.0,2.0,4.0,0.0,4.0,50.0,,,,,,,,49.0,0.0,0.479616,-0.288574,0.581055,0.59082,0.8994280000000001,-0.40576799999999996,-0.170901,-0.034046,-0.035207999999999996,-0.023864,,,,,,,,,,,,,,,,,,,,,,,,,,,,,,,,,,,,,,,,,,,,,,,,,,,,,,,,,,,,,,,,,
64299,1645583148.633981,99.0,0.0,4111.794922,4348.205078,4206.153809,4277.94873,4141.538574,16198.0,4.0,95.0,,,,0.0,4.0,2.0,4.0,0.0,4.0,50.0,,,,,,,,,,,,,,,,,,,,,,,,,,,,,,,,,,,,,,,,,,,,,,,,,,,,,,0.0,0.0,1.0,0.0,512.0,0.789049,,,,,,,,,,,,,,,,,,,,,,,,,
64300,1645583148.641796,100.0,0.0,4123.589844,4324.102539,4192.820313,4277.436035,4156.922852000001,450.0,4.0,95.0,,,,0.0,4.0,2.0,4.0,0.0,4.0,50.0,,,,,,,,50.0,0.0,0.479469,-0.28881799999999996,0.581055,0.59082,0.9194479999999999,-0.408698,-0.174807,-0.034059,-0.035057,-0.026604000000000003,,,,,,,,,,,,,,,,,,,,,,,,,,,,,,,,,,,,,,,,,,,,,,,,,,,,,,,,,,,,,,,,,
64301,1645583148.64951,101.0,0.0,4104.615234000001,4300.512695,4176.410156,4276.410156,4167.179688,450.0,4.0,95.0,,,,0.0,4.0,2.0,4.0,0.0,4.0,50.0,,,,,,,,,,,,,,,,,,,,,,,,,,,,,,,,,,,,,,,,,,,,,,,,,,,,,,,,,,,,,,,,,,,,,,,,,,,,,,,,,,,,
64302,1645583148.657325,102.0,0.0,4104.615234000001,4314.358886999999,4189.743652,4277.94873,4175.384765999999,450.0,4.0,95.0,,,,0.0,4.0,2.0,4.0,0.0,4.0,50.0,,,,,,,,51.0,0.0,0.479469,-0.28881799999999996,0.581055,0.59082,0.9111469999999999,-0.408698,-0.163577,-0.033925,-0.035067,-0.029022000000000003,,,,,,,,,,,,,,,,,,,,,,,,,,,,,,,,,,,,,,,,,,,,,,,,,,,,,,,,,,,,,,,,,
64303,1645583148.6651402,103.0,0.0,4112.307617,4334.871582,4213.333496,4280.512695,4174.871582,16198.0,4.0,95.0,,,,0.0,4.0,2.0,4.0,0.0,4.0,50.0,,,,,,,,,,,,,,,,,,,,,,,,,,,,,,,,,,,,,,,,,,,,,,,,,,,,,,0.0,0.0,1.0,0.0,512.0,0.789049,,,,,,,,,,,,,,,,,,,,,,,,,
64304,1645583148.6729538,104.0,0.0,4103.589844,4300.512695,4219.487305,4280.512695,4146.666504,450.0,4.0,95.0,,,,0.0,4.0,2.0,4.0,0.0,4.0,50.0,,,,,,,,52.0,0.0,0.47962299999999997,-0.289063,0.581055,0.590576,0.9131,-0.397467,-0.174319,-0.033901,-0.035124,-0.031247000000000004,,,,,,,,,,,,,,,,,,,,,,,,,,,,,,,,,,,,,,,,,,,,,,,,,,,,,,,,,,,,,,,,,
64305,1645583148.680769,105.0,0.0,4104.615234000001,4326.153809,4209.230957,4278.974121,4134.871582,450.0,4.0,95.0,,,,0.0,4.0,2.0,4.0,0.0,4.0,50.0,,,,,,,,,,,,,,,,,,,,,,,,,,,,,,,,,,,,,,,,,,,,,,,,,,,,,,,,,,,,,,,,,,,,,,,,,,,,,,,,,,,,
64306,1645583148.688584,106.0,0.0,4126.153809,4385.128418,4197.94873,4276.922852000001,4165.641113000001,450.0,4.0,95.0,,,,0.0,4.0,2.0,4.0,0.0,4.0,50.0,,,,,,,,53.0,0.0,0.47962299999999997,-0.289063,0.581055,0.590576,0.909682,-0.39649,-0.160159,-0.034076,-0.035323,-0.033249,,,,,,,,,,,,,,,,,,,,,,,,,,,,,,,,,,,,,,,,,,,,,,,,,,,,,,,,,,,,,,,,,
64307,1645583148.696398,107.0,0.0,4132.307617,4366.153809,4195.384765999999,4277.436035,4185.641113000001,16198.0,4.0,95.0,,,,0.0,4.0,2.0,4.0,0.0,4.0,50.0,,,,,,,,,,,,,,,,,,,,,,,,,,,,,,,,,,,,,,,,,,,,,,,,,,,,,,0.0,0.0,1.0,0.0,512.0,0.789049,,,,,,,,,,,,,,,,,,,,,,,,,
64308,1645583148.7042131,108.0,0.0,4106.666504,4319.487305,4187.692383,4278.974121,4175.897461,450.0,4.0,95.0,,,,0.0,4.0,2.0,4.0,0.0,4.0,50.0,,,,,,,,54.0,0.0,0.479476,-0.28930700000000004,0.581055,0.590576,0.908217,-0.406744,-0.16894800000000001,-0.033989,-0.035404000000000005,-0.028704,,,,,,,,,,,,,,,,,,,,,,,,,,,,,,,,,,,,,,,,,,,,,,,,,,,,,,,,,,,,,,,,,
64309,1645583148.712028,109.0,0.0,4087.179443,4342.05127,4184.102539,4279.487305,4164.102539,450.0,4.0,95.0,,,,0.0,4.0,2.0,4.0,0.0,4.0,50.0,,,,,,,,,,,,,,,,,,,,,,,,,,,,,,,,,,,,,,,,,,,,,,,,,,,,,,,,,,,,,,,,,,,,,,,,,,,,,,,,,,,,
64310,1645583148.719742,110.0,0.0,4098.974121,4399.487305,4194.871582,4279.487305,4161.538574,450.0,4.0,95.0,,,,0.0,4.0,2.0,4.0,0.0,4.0,50.0,,,,,,,,55.0,0.0,0.479476,-0.28930700000000004,0.581055,0.590576,0.9004040000000001,-0.408698,-0.166018,-0.034008,-0.035379,-0.030764999999999997,,,,,,,,,,,,,,,,,,,,,,,,,,,,,,,,,,,,,,,,,,,,,,,,,,,,,,,,,,,,,,,,,
64311,1645583148.727557,111.0,0.0,4110.256348,4390.256348,4196.922852000001,4275.897461,4165.641113000001,16198.0,4.0,95.0,,,,0.0,4.0,2.0,4.0,0.0,4.0,50.0,1.0,25.0,3.0,0.0,4.0,0.0,3.0,,,,,,,,,,,,,1.0,0.0,0.0,,,,,,,,,,,,,,,,,,,,,,,,,,,,,,,,0.0,0.0,1.0,0.0,512.0,0.974875,1243.3808589999999,83.847847,12.090797,5.025666999999999,4.005632,300.984344,214.804657,128.706161,52.32523,35.321628999999994,5.804525,2.3417529999999998,1.906716,1.531448,2.099662,0.298273,0.041091,0.0225,0.008445999999999999,0.009469,401.43856800000003,42.575924,7.415086,2.3107130000000002,2.164181
64312,1645583148.735372,112.0,0.0,4124.102539,4361.538574,4187.179688,4271.794922,4166.666504,450.0,4.0,95.0,,,,0.0,4.0,2.0,4.0,0.0,4.0,50.0,,,,,,,,56.0,0.0,0.479771,-0.28930700000000004,0.580811,0.590576,0.9072399999999999,-0.40283800000000003,-0.163088,-0.034025,-0.035504,-0.026565,,,,,,,,,,,,,,,,,,,,,,,,,,,,,,,,,,,,,,,,,,,,,,,,,,,,,,,,,,,,,,,,,
64313,1645583148.743186,113.0,0.0,4145.128418,4410.769043,4191.794922,4276.922852000001,4166.153809,450.0,4.0,95.0,,,,0.0,4.0,2.0,4.0,0.0,4.0,50.0,,,,,,,,,,,,,,,,,,,,,,,,,,,,,,,,,,,,,,,,,,,,,,,,,,,,,,,,,,,,,,,,,,,,,,,,,,,,,,,,,,,,
64314,1645583148.751001,114.0,0.0,4129.230957,4506.153809,4202.563965,4281.538574,4167.692383,450.0,4.0,95.0,,,,0.0,4.0,2.0,4.0,0.0,4.0,50.0,,,,,,,,57.0,0.0,0.479771,-0.28930700000000004,0.580811,0.590576,0.906264,-0.400397,-0.150393,-0.033992,-0.035615,-0.022835,,,,,,,,,,,,,,,,,,,,,,,,,,,,,,,,,,,,,,,,,,,,,,,,,,,,,,,,,,,,,,,,,
64315,1645583148.758816,115.0,0.0,4100.0,4507.692383,4204.615234000001,4278.974121,4157.94873,16198.0,4.0,95.0,,,,0.0,4.0,2.0,4.0,0.0,4.0,50.0,,,,,,,,,,,,,,,,,,,,,,,,,,,,,,,,,,,,,,,,,,,,,,,,,,,,,,0.0,0.0,1.0,0.0,512.0,0.974875,,,,,,,,,,,,,,,,,,,,,,,,,
64316,1645583148.7666302,116.0,0.0,4117.436035,4446.153809,4206.153809,4277.94873,4151.282227000001,450.0,4.0,95.0,,,,0.0,4.0,2.0,4.0,0.0,4.0,50.0,,,,,,,,58.0,0.0,0.479471,-0.28930700000000004,0.580811,0.59082,0.9077290000000001,-0.407233,-0.169924,-0.034059,-0.035618000000000004,-0.025776,,,,,,,,,,,,,,,,,,,,,,,,,,,,,,,,,,,,,,,,,,,,,,,,,,,,,,,,,,,,,,,,,
64317,1645583148.7744448,117.0,0.0,4158.461426,4415.897461,4198.461426,4275.897461,4169.743652,450.0,4.0,95.0,,,,0.0,4.0,2.0,4.0,0.0,4.0,50.0,,,,,,,,,,,,,,,,,,,,,,,,,,,,,,,,,,,,,,,,,,,,,,,,,,,,,,,,,,,,,,,,,,,,,,,,,,,,,,,,,,,,
64318,1645583148.78226,118.0,0.0,4155.384765999999,4425.128418,4184.102539,4274.358886999999,4185.641113000001,450.0,4.0,95.0,,,,0.0,4.0,2.0,4.0,0.0,4.0,50.0,,,,,,,,59.0,0.0,0.47962299999999997,-0.289063,0.581055,0.590576,0.900893,-0.401862,-0.17236600000000002,-0.034169,-0.035474,-0.028130000000000002,,,,,,,,,,,,,,,,,,,,,,,,,,,,,,,,,,,,,,,,,,,,,,,,,,,,,,,,,,,,,,,,,
64319,1645583148.789974,119.0,0.0,4112.820313,4446.153809,4181.025879,4280.0,4171.282227000001,16198.0,4.0,95.0,,,,0.0,4.0,2.0,4.0,0.0,4.0,50.0,,,,,,,,,,,,,,,,,,,,,,,,,,,,,,,,,,,,,,,,,,,,,,,,,,,,,,0.0,0.0,1.0,0.0,512.0,0.974875,,,,,,,,,,,,,,,,,,,,,,,,,
64320,1645583148.797689,120.0,0.0,4095.897461,4446.153809,4193.333496,4283.077147999999,4160.512695,450.0,4.0,95.0,,,,0.0,4.0,2.0,4.0,0.0,4.0,50.0,,,,,,,,60.0,0.0,0.47962299999999997,-0.289063,0.581055,0.590576,0.9077290000000001,-0.406744,-0.164553,-0.034268,-0.035539999999999995,-0.030395,,,,,,,,,,,,,,,,,,,,,,,,,,,,,,,,,,,,,,,,,,,,,,,,,,,,,,,,,,,,,,,,,
64321,1645583148.8055038,121.0,0.0,4122.563965,4438.461426,4205.128418,4277.94873,4166.666504,450.0,4.0,95.0,,,,0.0,4.0,2.0,4.0,0.0,4.0,50.0,,,,,,,,,,,,,,,,,,,,,,,,,,,,,,,,,,,,,,,,,,,,,,,,,,,,,,,,,,,,,,,,,,,,,,,,,,,,,,,,,,,,
64322,1645583148.813318,122.0,0.0,4147.179688,4424.615234000001,4204.102539,4276.922852000001,4178.974121,450.0,4.0,95.0,,,,0.0,4.0,2.0,4.0,0.0,4.0,50.0,,,,,,,,61.0,0.0,0.47932700000000006,-0.289063,0.581299,0.590576,0.906264,-0.409186,-0.166995,-0.034259,-0.035453,-0.03258,,,,,,,,,,,,,,,,,,,,,,,,,,,,,,,,,,,,,,,,,,,,,,,,,,,,,,,,,,,,,,,,,
64323,1645583148.821133,123.0,0.0,4152.307617,4385.128418,4193.333496,4277.94873,4202.563965,16198.0,4.0,95.0,,,,0.0,4.0,2.0,4.0,0.0,4.0,50.0,,,,,,,,,,,,,,,,,,,,,,,,,,,,,,,,,,,,,,,,,,,,,,,,,,,,,,0.0,0.0,1.0,0.0,512.0,0.974875,,,,,,,,,,,,,,,,,,,,,,,,,
64324,1645583148.828948,124.0,0.0,4149.230957,4368.205078,4196.922852000001,4277.94873,4209.743652,450.0,4.0,95.0,,,,0.0,4.0,2.0,4.0,0.0,4.0,50.0,,,,,,,,62.0,0.0,0.47917299999999996,-0.28881799999999996,0.581299,0.59082,0.908217,-0.398444,-0.161135,-0.034201999999999996,-0.035325999999999996,-0.028199000000000002,,,,,,,,,,,,,,,,,,,,,,,,,,,,,,,,,,,,,,,,,,,,,,,,,,,,,,,,,,,,,,,,,
64325,1645583148.836762,125.0,0.0,4131.794922,4447.179688,4204.615234000001,4278.974121,4179.487305,450.0,4.0,95.0,,,,0.0,4.0,2.0,4.0,0.0,4.0,50.0,,,,,,,,,,,,,,,,,,,,,,,,,,,,,,,,,,,,,,,,,,,,,,,,,,,,,,,,,,,,,,,,,,,,,,,,,,,,,,,,,,,,
64326,1645583148.844477,126.0,0.0,4123.589844,4475.897461,4197.436035,4280.0,4150.256348,450.0,4.0,95.0,,,,0.0,4.0,2.0,4.0,0.0,4.0,50.0,,,,,,,,63.0,0.0,0.47917299999999996,-0.28881799999999996,0.581299,0.59082,0.906264,-0.404303,-0.16894800000000001,-0.0342,-0.035407,-0.030506000000000002,,,,,,,,,,,,,,,,,,,,,,,,,,,,,,,,,,,,,,,,,,,,,,,,,,,,,,,,,,,,,,,,,
64327,1645583148.852292,127.0,0.0,4130.256348,4351.282227000001,4187.692383,4278.974121,4165.128418,243.0,4.0,95.0,,,,0.0,4.0,2.0,4.0,0.0,4.0,50.0,,,,,,,,,,,,,,,,,,,,1.0,0.0,0.0,,,,,,,,,,,,,,,,,,,,,,,,,,,,,,,,0.0,0.0,1.0,0.0,512.0,1.0,1614.1523439999999,110.67946599999999,14.357709,5.391401999999999,3.807377,332.912872,217.20280499999998,126.592804,54.259845999999996,35.732944,5.876057,2.635977,1.8544610000000001,1.5408620000000002,1.8279560000000001,0.387171,0.057028999999999996,0.026292000000000003,0.008277,0.011047,522.460999,56.439861,8.806524000000001,2.5527599999999997,2.097441
64328,1645583148.860106,0.0,0.0,4134.358886999999,4313.333496,4191.794922,4278.461426,4192.307617,450.0,4.0,95.0,,,,0.0,4.0,2.0,4.0,0.0,4.0,50.0,,,,,,,,0.0,0.0,0.479322,-0.289063,0.581055,0.59082,0.9087049999999999,-0.408209,-0.170901,-0.034149,-0.035479000000000004,-0.032632,,,,,,,,,,,,,,,,,,,,,,,,,,,,,,,,,,,,,,,,,,,,,,,,,,,,,,,,,,,,,,,,,
64329,1645583148.867921,1.0,0.0,4129.230957,4405.641113000001,4203.077147999999,4277.94873,4182.563965,450.0,4.0,95.0,,,,0.0,4.0,2.0,4.0,0.0,4.0,50.0,,,,,,,,,,,,,,,,,,,,,,,,,,,,,,,,,,,,,,,,,,,,,,,,,,,,,,,,,,,,,,,,,,,,,,,,,,,,,,,,,,,,
64330,1645583148.875736,2.0,0.0,4110.769043,4428.205078,4208.717772999999,4278.974121,4148.205078,16226.0,4.0,95.0,,,,0.0,4.0,2.0,4.0,0.0,4.0,50.0,,,,,,,,1.0,0.0,0.47902100000000003,-0.289063,0.581055,0.591064,0.909682,-0.410163,-0.1626,-0.034151999999999995,-0.035447,-0.034398000000000005,,,,,,,,,,,,,,,,,,,,,,,,,,,,,,,,,,,,,,,,,,,,,,,,,,,,,,,,,,,,,,,,,
64331,1645583148.88355,3.0,0.0,4117.436035,4402.05127,4204.102539,4278.974121,4150.769043,450.0,4.0,95.0,,,,0.0,4.0,2.0,4.0,0.0,4.0,50.0,,,,,,,,,,,,,,,,,,,,,,,,,,,,,,,,,,,,,,,,,,,,,,,,,,,,,,0.0,0.0,1.0,0.0,512.0,1.0,,,,,,,,,,,,,,,,,,,,,,,,,
64332,1645583148.891365,4.0,0.0,4161.025879,4424.102539,4193.846191,4275.384765999999,4188.717772999999,208.0,4.0,95.0,,,,0.0,4.0,2.0,4.0,0.0,4.0,50.0,,,,,,,,2.0,0.0,0.47917299999999996,-0.28881799999999996,0.581299,0.59082,0.906264,-0.404303,-0.16894800000000001,-0.034009,-0.035467,-0.029835000000000004,,,,,,,,,,,,,,,,,,,,,,,,,,,,,,,,,,,,,,,,,,,,,,,,,,,,,,,,,,,,,,,,,
64333,1645583148.8991802,5.0,0.0,4174.871582,4420.512695,4193.333496,4275.897461,4190.256348,450.0,4.0,95.0,,,,0.0,4.0,2.0,4.0,0.0,4.0,50.0,,,,,,,,,,,,,,,,,,,,,,,,,,,,,,,,,,,,,,,,,,,,,,,,,,,,,,,,,,,,,,,,,,,,,,,,,,,,,,,,,,,,
64334,1645583148.9069939,6.0,0.0,4156.922852000001,4442.05127,4214.871582,4281.025879,4167.179688,16235.0,4.0,95.0,,,,0.0,4.0,2.0,4.0,0.0,4.0,50.0,,,,,,,,3.0,0.0,0.47902100000000003,-0.289063,0.581055,0.591064,0.909682,-0.410163,-0.1626,-0.034026,-0.035436,-0.031881,,,,,,,,,,,,,,,,,,,,,,,,,,,,,,,,,,,,,,,,,,,,,,,,,,,,,,,,,,,,,,,,,
64335,1645583148.914709,7.0,0.0,4169.230957,4525.641113000001,4230.256348,4280.512695,4170.256348,450.0,4.0,95.0,,,,0.0,4.0,2.0,4.0,0.0,4.0,50.0,,,,,,,,,,,,,,,,,,,,,,,,,,,,,,,,,,,,,,,,,,,,,,,,,,,,,,0.0,0.0,1.0,0.0,512.0,1.0,,,,,,,,,,,,,,,,,,,,,,,,,
64336,1645583148.922524,8.0,0.0,4180.512695,4568.205078,4205.128418,4277.436035,4185.128418,450.0,4.0,95.0,,,,0.0,4.0,2.0,4.0,0.0,4.0,50.0,,,,,,,,4.0,0.0,0.47902100000000003,-0.289063,0.581055,0.591064,0.9043110000000001,-0.407721,-0.161135,-0.033895,-0.035457,-0.027569999999999997,,,,,,,,,,,,,,,,,,,,,,,,,,,,,,,,,,,,,,,,,,,,,,,,,,,,,,,,,,,,,,,,,
64337,1645583148.9303381,9.0,0.0,4170.769043,4546.666504,4181.025879,4277.94873,4190.769043,0.0,4.0,95.0,,,,0.0,4.0,2.0,4.0,0.0,4.0,50.0,,,,,,,,,,,,,,,,,,,,,,,,,,,,,,,,,,,,,,,,,,,,,,,,,,,,,,,,,,,,,,,,,,,,,,,,,,,,,,,,,,,,
64338,1645583148.938153,10.0,0.0,4167.692383,4454.358886999999,4207.179688,4280.512695,4180.512695,450.0,4.0,95.0,,,,0.0,4.0,2.0,4.0,0.0,4.0,50.0,,,,,,,,5.0,0.0,0.47916800000000004,-0.28881799999999996,0.581055,0.591064,0.8989389999999999,-0.41358100000000003,-0.165042,-0.033875,-0.035476,-0.02369,,,,,,,,,,,,,,,,,,,,,,,,,,,,,,,,,,,,,,,,,,,,,,,,,,,,,,,,,,,,,,,,,
64339,1645583148.945967,11.0,0.0,4176.410156,4364.102539,4237.94873,4281.538574,4168.717772999999,16189.0,4.0,95.0,,,,0.0,4.0,2.0,4.0,0.0,4.0,50.0,,,,,,,,,,,,,,,,,,,,,,,,,,,,,,,,,,,,,,,,,,,,,,,,,,,,,,0.0,0.0,1.0,0.0,512.0,1.0,,,,,,,,,,,,,,,,,,,,,,,,,
64340,1645583148.953782,12.0,0.0,4190.769043,4391.282227000001,4218.461426,4279.487305,4187.179688,450.0,4.0,95.0,,,,0.0,4.0,2.0,4.0,0.0,4.0,50.0,,,,,,,,6.0,0.0,0.478872,-0.28881799999999996,0.581299,0.591064,0.8999159999999999,-0.416022,-0.171878,-0.033856,-0.035394999999999996,-0.026399000000000002,,,,,,,,,,,,,,,,,,,,,,,,,,,,,,,,,,,,,,,,,,,,,,,,,,,,,,,,,,,,,,,,,
64341,1645583148.961597,13.0,0.0,4180.512695,4435.384765999999,4186.666504,4276.410156,4213.333496,450.0,4.0,95.0,,,,0.0,4.0,2.0,4.0,0.0,4.0,50.0,,,,,,,,,,,,,,,,,,,,,,,,,,,,,,,,,,,,,,,,,,,,,,,,,,,,,,,,,,,,,,,,,,,,,,,,,,,,,,,,,,,,
64342,1645583148.969411,14.0,0.0,4138.461426,4337.436035,4188.205078,4278.974121,4196.922852000001,450.0,4.0,95.0,,,,0.0,4.0,2.0,4.0,0.0,4.0,50.0,,,,,,,,7.0,0.0,0.479019,-0.288574,0.581299,0.591064,0.9038219999999999,-0.415045,-0.183108,-0.033839999999999995,-0.03542,-0.022587,,,,,,,,,,,,,,,,,,,,,,,,,,,,,,,,,,,,,,,,,,,,,,,,,,,,,,,,,,,,,,,,,
64343,1645583148.977226,15.0,0.0,4115.897461,4286.153809,4207.692383,4281.538574,4159.487305,16189.0,4.0,95.0,,,,0.0,4.0,2.0,4.0,0.0,4.0,50.0,,,,,,,,,,,,,,,,,,,,1.0,0.0,0.0,,,,,,,,,,,,,,,,,,,,,,,,,,,,,,,,0.0,0.0,1.0,0.0,512.0,1.0,1827.1521,128.554947,15.614220000000001,5.313715,3.5207949999999997,336.174438,206.874832,117.472504,54.932671,34.817745,5.457069000000001,2.886587,1.79256,1.675246,1.572157,0.44146199999999997,0.071426,0.030179,0.009477,0.012449,592.254944,66.142403,9.493917,2.8161959999999997,2.036213
64344,1645583148.985041,16.0,0.0,4142.05127,4398.461426,4217.94873,4279.487305,4157.94873,0.0,4.0,95.0,,,,0.0,4.0,2.0,4.0,0.0,4.0,50.0,,,,,,,,8.0,0.0,0.479019,-0.288574,0.581299,0.591064,0.910658,-0.41651000000000005,-0.157229,-0.033874,-0.035394,-0.019303,,,,,,,,,,,,,,,,,,,,,,,,,,,,,,,,,,,,,,,,,,,,,,,,,,,,,,,,,,,,,,,,,
64345,1645583148.9927552,17.0,0.0,4172.307617,4447.692383,4206.153809,4278.461426,4182.05127,0.0,4.0,95.0,,,,0.0,4.0,2.0,4.0,0.0,4.0,50.0,,,,,,,,,,,,,,,,,,,,,,,,,,,,,,,,,,,,,,,,,,,,,,,,,,,,,,,,,,,,,,,,,,,,,,,,,,,,,,,,,,,,
64346,1645583149.0005698,18.0,0.0,4161.538574,4417.94873,4193.333496,4278.974121,4182.563965,0.0,4.0,95.0,,,,0.0,4.0,2.0,4.0,0.0,4.0,50.0,,,,,,,,9.0,0.0,0.479166,-0.28833000000000003,0.581299,0.591064,0.9116350000000001,-0.407233,-0.158694,-0.033856,-0.03537,-0.016201,,,,,,,,,,,,,,,,,,,,,,,,,,,,,,,,,,,,,,,,,,,,,,,,,,,,,,,,,,,,,,,,,
64347,1645583149.008385,19.0,0.0,4144.615234000001,4397.436035,4202.563965,4280.512695,4160.512695,0.0,4.0,95.0,,,,0.0,4.0,2.0,4.0,0.0,4.0,50.0,,,,,,,,,,,,,,,,,,,,,,,,,,,,,,,,,,,,,,,,,,,,,,,,,,,,,,0.0,0.0,1.0,0.0,512.0,1.0,,,,,,,,,,,,,,,,,,,,,,,,,
64348,1645583149.016199,20.0,0.0,4171.282227000001,4368.717772999999,4220.512695,4280.0,4159.487305,0.0,4.0,95.0,,,,0.0,4.0,2.0,4.0,0.0,4.0,50.0,,,,,,,,10.0,0.0,0.478865,-0.28833000000000003,0.581299,0.591309,0.91017,-0.41065100000000004,-0.16894800000000001,-0.033888,-0.035349,-0.019561000000000002,,,,,,,,,,,,,,,,,,,,,,,,,,,,,,,,,,,,,,,,,,,,,,,,,,,,,,,,,,,,,,,,,
64349,1645583149.024014,21.0,0.0,4201.025879,4376.922852000001,4214.871582,4273.846191,4187.692383,0.0,4.0,95.0,,,,0.0,4.0,2.0,4.0,0.0,4.0,50.0,,,,,,,,,,,,,,,,,,,,,,,,,,,,,,,,,,,,,,,,,,,,,,,,,,,,,,,,,,,,,,,,,,,,,,,,,,,,,,,,,,,,
64350,1645583149.0318289,22.0,0.0,4186.153809,4417.94873,4198.974121,4273.333496,4204.102539,0.0,4.0,95.0,,,,0.0,4.0,2.0,4.0,0.0,4.0,50.0,,,,,,,,11.0,0.0,0.47871800000000003,-0.288574,0.581299,0.591309,0.898451,-0.423346,-0.172854,-0.033868999999999996,-0.035329,-0.016384,,,,,,,,,,,,,,,,,,,,,,,,,,,,,,,,,,,,,,,,,,,,,,,,,,,,,,,,,,,,,,,,,
64351,1645583149.039643,23.0,0.0,4177.94873,4360.0,4213.846191,4280.512695,4191.282227000001,0.0,4.0,95.0,,,,0.0,4.0,2.0,4.0,0.0,4.0,50.0,,,,,,,,,,,,,,,,,,,,,,,,,,,,,,,,,,,,,,,,,,,,,,,,,,,,,,0.0,0.0,1.0,0.0,512.0,1.0,,,,,,,,,,,,,,,,,,,,,,,,,
64352,1645583149.047458,24.0,0.0,4199.487305,4250.769043,4232.307617,4281.538574,4188.205078,0.0,4.0,95.0,,,,0.0,4.0,2.0,4.0,0.0,4.0,50.0,,,,,,,,12.0,0.0,0.478421,-0.288574,0.581543,0.591309,0.9043110000000001,-0.41260399999999997,-0.17383099999999999,-0.0339,-0.035361000000000004,-0.019824,,,,,,,,,,,,,,,,,,,,,,,,,,,,,,,,,,,,,,,,,,,,,,,,,,,,,,,,,,,,,,,,,
64353,1645583149.055273,25.0,0.0,4193.333496,4246.153809,4205.128418,4274.871582,4208.717772999999,0.0,4.0,95.0,,,,0.0,4.0,2.0,4.0,0.0,4.0,50.0,,,,,,,,,,,,,,,,,,,,,,,,,,,,,,,,,,,,,,,,,,,,,,,,,,,,,,,,,,,,,,,,,,,,,,,,,,,,,,,,,,,,
64354,1645583149.0629869,26.0,0.0,4165.641113000001,4289.230957,4171.282227000001,4274.358886999999,4222.563965,0.0,4.0,95.0,,,,0.0,4.0,2.0,4.0,0.0,4.0,50.0,,,,,,,,13.0,0.0,0.478421,-0.288574,0.581543,0.591309,0.908217,-0.42188100000000006,-0.160159,-0.033928,-0.035341000000000004,-0.022822,,,,,,,,,,,,,,,,,,,,,,,,,,,,,,,,,,,,,,,,,,,,,,,,,,,,,,,,,,,,,,,,,
64355,1645583149.070802,27.0,0.0,4159.487305,4268.717772999999,4195.384765999999,4280.0,4200.512695,0.0,4.0,95.0,,,,0.0,4.0,2.0,4.0,0.0,4.0,50.0,,,,,,,,,,,,,,,,,,,,,,,,,,,,,,,,,,,,,,,,,,,,,,,,,,,,,,0.0,0.0,1.0,0.0,512.0,1.0,,,,,,,,,,,,,,,,,,,,,,,,,
64356,1645583149.078617,28.0,0.0,4180.0,4217.94873,4240.512695,4282.05127,4166.666504,0.0,4.0,95.0,,,,0.0,4.0,2.0,4.0,0.0,4.0,50.0,,,,,,,,14.0,0.0,0.478421,-0.288574,0.581543,0.591309,0.9052870000000001,-0.415045,-0.16894800000000001,-0.033855,-0.035322000000000006,-0.025618000000000002,,,,,,,,,,,,,,,,,,,,,,,,,,,,,,,,,,,,,,,,,,,,,,,,,,,,,,,,,,,,,,,,,
64357,1645583149.086431,29.0,0.0,4206.153809,4269.230957,4241.538574,4280.512695,4175.897461,0.0,4.0,95.0,,,,0.0,4.0,2.0,4.0,0.0,4.0,50.0,,,,,,,,,,,,,,,,,,,,,,,,,,,,,,,,,,,,,,,,,,,,,,,,,,,,,,,,,,,,,,,,,,,,,,,,,,,,,,,,,,,,
64358,1645583149.0942461,30.0,0.0,4215.384765999999,4377.436035,4215.897461,4277.94873,4220.512695,0.0,4.0,95.0,,,,0.0,4.0,2.0,4.0,0.0,4.0,50.0,,,,,,,,15.0,0.0,0.478421,-0.288574,0.581543,0.591309,0.8999159999999999,-0.416022,-0.167483,-0.033888,-0.035306,-0.028086,,,,,,,,,,,,,,,,,,,,,,,,,,,,,,,,,,,,,,,,,,,,,,,,,,,,,,,,,,,,,,,,,
64359,1645583149.102061,31.0,0.0,4195.897461,4331.282227000001,4206.666504,4278.974121,4225.641113000001,0.0,4.0,95.0,,,,0.0,4.0,2.0,4.0,0.0,4.0,50.0,,,,,,,,,,,,,,,,,,,,1.0,0.0,0.0,,,,,,,,,,,,,,,,,,,,,,,,,,,,,,,,0.0,0.0,1.0,0.0,512.0,1.0,1816.7244870000002,131.88826,15.46454,4.900546,3.153149,314.332886,186.092529,104.63205,54.120360999999995,32.374928000000004,4.579955,3.01701,1.750898,1.9536360000000002,1.362183,0.44488599999999995,0.07976699999999999,0.033948,0.014096000000000001,0.013855000000000001,589.269287,68.728127,9.265933,3.1078349999999997,1.969139
64360,1645583149.109875,32.0,0.0,4181.025879,4246.666504,4222.05127,4280.512695,4192.820313,0.0,4.0,95.0,,,,0.0,4.0,2.0,4.0,0.0,4.0,50.0,,,,,,,,16.0,0.0,0.478576,-0.28881799999999996,0.581543,0.591064,0.908217,-0.408698,-0.163088,-0.033819,-0.035193,-0.024105,,,,,,,,,,,,,,,,,,,,,,,,,,,,,,,,,,,,,,,,,,,,,,,,,,,,,,,,,,,,,,,,,
64361,1645583149.11769,33.0,0.0,4201.538574,4338.461426,4236.410156,4280.0,4194.871582,0.0,4.0,95.0,,,,0.0,4.0,2.0,4.0,0.0,4.0,50.0,,,,,,,,,,,,,,,,,,,,,,,,,,,,,,,,,,,,,,,,,,,,,,,,,,,,,,,,,,,,,,,,,,,,,,,,,,,,,,,,,,,,
64362,1645583149.125505,34.0,0.0,4214.871582,4398.461426,4225.128418,4278.461426,4216.922852000001,0.0,4.0,95.0,,,,0.0,4.0,2.0,4.0,0.0,4.0,50.0,,,,,,,,17.0,0.0,0.478279,-0.28881799999999996,0.5817869999999999,0.591064,0.91017,-0.41846300000000003,-0.165042,-0.033855,-0.035189,-0.020523,,,,,,,,,,,,,,,,,,,,,,,,,,,,,,,,,,,,,,,,,,,,,,,,,,,,,,,,,,,,,,,,,
64363,1645583149.133219,35.0,0.0,4194.358886999999,4264.102539,4202.05127,4279.487305,4217.94873,0.0,4.0,95.0,,,,0.0,4.0,2.0,4.0,0.0,4.0,50.0,,,,,,,,,,,,,,,,,,,,,,,,,,,,,,,,,,,,,,,,,,,,,,,,,,,,,,0.0,0.0,1.0,0.0,512.0,1.0,,,,,,,,,,,,,,,,,,,,,,,,,
64364,1645583149.141034,36.0,0.0,4177.94873,4178.974121,4198.974121,4280.512695,4210.256348,0.0,4.0,95.0,,,,0.0,4.0,2.0,4.0,0.0,4.0,50.0,,,,,,,,18.0,0.0,0.478279,-0.28881799999999996,0.5817869999999999,0.591064,0.917983,-0.393072,-0.1626,-0.033839,-0.035186,-0.023451,,,,,,,,,,,,,,,,,,,,,,,,,,,,,,,,,,,,,,,,,,,,,,,,,,,,,,,,,,,,,,,,,
64365,1645583149.148849,37.0,0.0,4189.743652,4252.820313,4221.025879,4279.487305,4199.487305,0.0,4.0,95.0,,,,0.0,4.0,2.0,4.0,0.0,4.0,50.0,,,,,,,,,,,,,,,,,,,,,,,,,,,,,,,,,,,,,,,,,,,,,,,,,,,,,,,,,,,,,,,,,,,,,,,,,,,,,,,,,,,,
64366,1645583149.1566632,38.0,0.0,4215.384765999999,4327.179688,4229.230957,4279.487305,4186.153809,0.0,4.0,95.0,,,,0.0,4.0,2.0,4.0,0.0,4.0,50.0,,,,,,,,19.0,0.0,0.47798199999999996,-0.28881799999999996,0.5820310000000001,0.591064,0.914076,-0.398932,-0.16552999999999998,-0.033873,-0.03533,-0.020031999999999998,,,,,,,,,,,,,,,,,,,,,,,,,,,,,,,,,,,,,,,,,,,,,,,,,,,,,,,,,,,,,,,,,
64367,1645583149.1644778,39.0,0.0,4221.538574,4291.282227000001,4207.179688,4279.487305,4195.384765999999,0.0,4.0,95.0,,,,0.0,4.0,2.0,4.0,0.0,4.0,50.0,,,,,,,,,,,,,,,,,,,,,,,,,,,,,,,,,,,,,,,,,,,,,,,,,,,,,,0.0,0.0,1.0,0.0,512.0,1.0,,,,,,,,,,,,,,,,,,,,,,,,,
64368,1645583149.172293,40.0,0.0,4197.436035,4207.692383,4200.0,4279.487305,4214.358886999999,0.0,4.0,95.0,,,,0.0,4.0,2.0,4.0,0.0,4.0,50.0,,,,,,,,20.0,0.0,0.47768,-0.28881799999999996,0.5820310000000001,0.591309,0.9077290000000001,-0.417975,-0.169436,-0.033757,-0.035312,-0.016906,,,,,,,,,,,,,,,,,,,,,,,,,,,,,,,,,,,,,,,,,,,,,,,,,,,,,,,,,,,,,,,,,
64369,1645583149.180107,41.0,0.0,4180.0,4206.666504,4224.615234000001,4279.487305,4206.153809,0.0,4.0,95.0,,,,0.0,4.0,2.0,4.0,0.0,4.0,50.0,,,,,,,,,,,,,,,,,,,,,,,,,,,,,,,,,,,,,,,,,,,,,,,,,,,,,,,,,,,,,,,,,,,,,,,,,,,,,,,,,,,,
64370,1645583149.187922,42.0,0.0,4202.05127,4311.794922,4223.589844,4279.487305,4187.179688,0.0,4.0,95.0,,,,0.0,4.0,2.0,4.0,0.0,4.0,50.0,,,,,,,,21.0,0.0,0.47768,-0.28881799999999996,0.5820310000000001,0.591309,0.906752,-0.416022,-0.1626,-0.033701999999999996,-0.035248,-0.020342,,,,,,,,,,,,,,,,,,,,,,,,,,,,,,,,,,,,,,,,,,,,,,,,,,,,,,,,,,,,,,,,,
64371,1645583149.195637,43.0,0.0,4218.974121,4375.384765999999,4196.922852000001,4279.487305,4187.692383,0.0,4.0,95.0,,,,0.0,4.0,2.0,4.0,0.0,4.0,50.0,,,,,,,,,,,,,,,,,,,,,,,,,,,,,,,,,,,,,,,,,,,,,,,,,,,,,,0.0,0.0,1.0,0.0,512.0,1.0,,,,,,,,,,,,,,,,,,,,,,,,,
64372,1645583149.203451,44.0,0.0,4187.692383,4327.692383,4202.05127,4279.487305,4193.333496,0.0,4.0,95.0,,,,0.0,4.0,2.0,4.0,0.0,4.0,50.0,,,,,,,,22.0,0.0,0.47782700000000006,-0.288574,0.5820310000000001,0.591309,0.8896620000000001,-0.410163,-0.171389,-0.033652,-0.035337,-0.023386,,,,,,,,,,,,,,,,,,,,,,,,,,,,,,,,,,,,,,,,,,,,,,,,,,,,,,,,,,,,,,,,,
64373,1645583149.211266,45.0,0.0,4171.794922,4326.666504,4225.128418,4279.487305,4194.871582,0.0,4.0,95.0,,,,0.0,4.0,2.0,4.0,0.0,4.0,50.0,,,,,,,,,,,,,,,,,,,,,,,,,,,,,,,,,,,,,,,,,,,,,,,,,,,,,,,,,,,,,,,,,,,,,,,,,,,,,,,,,,,,
64374,1645583149.21908,46.0,0.0,4200.0,4422.05127,4214.871582,4279.487305,4193.846191,0.0,4.0,95.0,,,,0.0,4.0,2.0,4.0,0.0,4.0,50.0,,,,,,,,23.0,0.0,0.47782700000000006,-0.288574,0.5820310000000001,0.591309,0.8999159999999999,-0.417487,-0.161135,-0.033705,-0.035367,-0.026126,,,,,,,,,,,,,,,,,,,,,,,,,,,,,,,,,,,,,,,,,,,,,,,,,,,,,,,,,,,,,,,,,
64375,1645583149.2268949,47.0,0.0,4217.94873,4480.512695,4187.692383,4279.487305,4197.436035,0.0,4.0,95.0,,,,0.0,4.0,2.0,4.0,0.0,4.0,50.0,1.0,25.0,3.0,0.0,4.0,0.0,3.0,,,,,,,,,,,,,1.0,0.0,0.0,,,,,,,,,,,,,,,,,,,,,,,,,,,,,,,,0.0,0.0,1.0,0.0,512.0,1.0,1584.653931,119.512482,13.901588,4.378814,2.745443,266.2771,158.989136,90.907799,51.516857,28.776909000000003,3.478012,2.968868,1.720732,2.309804,1.217822,0.396624,0.07885199999999999,0.036985000000000004,0.023214,0.015671,513.49115,63.307593999999995,8.169106,3.420286,1.896707
64376,1645583149.23471,48.0,0.0,4206.666504,4417.94873,4193.846191,4279.487305,4221.538574,0.0,4.0,95.0,,,,0.0,4.0,2.0,4.0,0.0,4.0,50.0,,,,,,,,24.0,0.0,0.47797399999999995,-0.28833000000000003,0.5820310000000001,0.591309,0.898451,-0.41113900000000003,-0.161624,-0.033753,-0.035345999999999995,-0.022341,,,,,,,,,,,,,,,,,,,,,,,,,,,,,,,,,,,,,,,,,,,,,,,,,,,,,,,,,,,,,,,,,
64377,1645583149.242524,49.0,0.0,4205.641113000001,4317.94873,4222.563965,4279.487305,4240.0,0.0,4.0,95.0,,,,0.0,4.0,2.0,4.0,0.0,4.0,50.0,,,,,,,,,,,,,,,,,,,,,,,,,,,,,,,,,,,,,,,,,,,,,,,,,,,,,,,,,,,,,,,,,,,,,,,,,,,,,,,,,,,,
64378,1645583149.250339,50.0,0.0,4232.307617,4269.230957,4222.563965,4280.0,4220.512695,0.0,4.0,95.0,,,,0.0,4.0,2.0,4.0,0.0,4.0,50.0,,,,,,,,25.0,0.0,0.47797399999999995,-0.28833000000000003,0.5820310000000001,0.591309,0.902358,-0.423835,-0.15820599999999999,-0.033746,-0.035425,-0.025185,,,,,,,,,,,,,,,,,,,,,,,,,,,,,,,,,,,,,,,,,,,,,,,,,,,,,,,,,,,,,,,,,
64379,1645583149.258154,51.0,0.0,4257.436035,4231.794922,4192.820313,4278.974121,4215.897461,0.0,4.0,95.0,,,,0.0,4.0,2.0,4.0,0.0,4.0,50.0,,,,,,,,,,,,,,,,,,,,,,,,,,,,,,,,,,,,,,,,,,,,,,,,,,,,,,0.0,0.0,1.0,0.0,512.0,1.0,,,,,,,,,,,,,,,,,,,,,,,,,
64380,1645583149.265968,52.0,0.0,4249.743652,4208.205078,4183.589844,4279.487305,4238.461426,0.0,4.0,95.0,,,,0.0,4.0,2.0,4.0,0.0,4.0,50.0,,,,,,,,26.0,0.0,0.47812200000000005,-0.288086,0.5820310000000001,0.591309,0.9091940000000001,-0.411627,-0.166995,-0.03379,-0.035447,-0.027745,,,,,,,,,,,,,,,,,,,,,,,,,,,,,,,,,,,,,,,,,,,,,,,,,,,,,,,,,,,,,,,,,
64381,1645583149.273783,53.0,0.0,4205.641113000001,4247.179688,4201.025879,4282.05127,4226.153809,0.0,4.0,95.0,,,,0.0,4.0,2.0,4.0,0.0,4.0,50.0,,,,,,,,,,,,,,,,,,,,,,,,,,,,,,,,,,,,,,,,,,,,,,,,,,,,,,,,,,,,,,,,,,,,,,,,,,,,,,,,,,,,
64382,1645583149.281498,54.0,0.0,4200.512695,4261.025879,4208.717772999999,4281.025879,4215.897461,0.0,4.0,95.0,,,,0.0,4.0,2.0,4.0,0.0,4.0,50.0,,,,,,,,27.0,0.0,0.47826899999999994,-0.287842,0.5820310000000001,0.591309,0.9004040000000001,-0.416022,-0.16406500000000002,-0.033878,-0.035467,-0.030049,,,,,,,,,,,,,,,,,,,,,,,,,,,,,,,,,,,,,,,,,,,,,,,,,,,,,,,,,,,,,,,,,
64383,1645583149.289312,55.0,0.0,4241.538574,4201.538574,4183.077147999999,4277.94873,4244.615234000001,0.0,4.0,95.0,,,,0.0,4.0,2.0,4.0,0.0,4.0,50.0,,,,,,,,,,,,,,,,,,,,,,,,,,,,,,,,,,,,,,,,,,,,,,,,,,,,,,0.0,0.0,1.0,0.0,512.0,1.0,,,,,,,,,,,,,,,,,,,,,,,,,
64384,1645583149.297127,56.0,0.0,4238.974121,4201.538574,4165.128418,4278.461426,4255.897461,0.0,4.0,95.0,,,,0.0,4.0,2.0,4.0,0.0,4.0,50.0,,,,,,,,28.0,0.0,0.47826899999999994,-0.287842,0.5820310000000001,0.591309,0.906264,-0.42236999999999997,-0.1626,-0.03381,-0.035387,-0.025823000000000002,,,,,,,,,,,,,,,,,,,,,,,,,,,,,,,,,,,,,,,,,,,,,,,,,,,,,,,,,,,,,,,,,
64385,1645583149.304942,57.0,0.0,4213.333496,4319.487305,4192.820313,4280.512695,4241.538574,0.0,4.0,95.0,,,,0.0,4.0,2.0,4.0,0.0,4.0,50.0,,,,,,,,,,,,,,,,,,,,,,,,,,,,,,,,,,,,,,,,,,,,,,,,,,,,,,,,,,,,,,,,,,,,,,,,,,,,,,,,,,,,
64386,1645583149.312756,58.0,0.0,4221.538574,4452.820313,4212.307617,4278.974121,4229.230957,0.0,4.0,95.0,,,,0.0,4.0,2.0,4.0,0.0,4.0,50.0,,,,,,,,29.0,0.0,0.47811400000000004,-0.287598,0.5820310000000001,0.591553,0.906264,-0.401373,-0.167971,-0.033895999999999996,-0.035413,-0.022069,,,,,,,,,,,,,,,,,,,,,,,,,,,,,,,,,,,,,,,,,,,,,,,,,,,,,,,,,,,,,,,,,
64387,1645583149.3205712,59.0,0.0,4227.692383,4514.871582,4182.563965,4277.436035,4213.846191,0.0,4.0,95.0,,,,0.0,4.0,2.0,4.0,0.0,4.0,50.0,,,,,,,,,,,,,,,,,,,,,,,,,,,,,,,,,,,,,,,,,,,,,,,,,,,,,,0.0,0.0,1.0,0.0,512.0,1.0,,,,,,,,,,,,,,,,,,,,,,,,,
64388,1645583149.3283858,60.0,0.0,4218.461426,4432.307617,4167.179688,4278.974121,4204.615234000001,0.0,4.0,95.0,,,,0.0,4.0,2.0,4.0,0.0,4.0,50.0,,,,,,,,30.0,0.0,0.47826899999999994,-0.287842,0.5820310000000001,0.591309,0.9004040000000001,-0.416022,-0.16406500000000002,-0.034071,-0.035387,-0.018690000000000002,,,,,,,,,,,,,,,,,,,,,,,,,,,,,,,,,,,,,,,,,,,,,,,,,,,,,,,,,,,,,,,,,
64389,1645583149.3362,61.0,0.0,4234.871582,4276.410156,4203.589844,4279.487305,4217.436035,0.0,4.0,95.0,,,,0.0,4.0,2.0,4.0,0.0,4.0,50.0,,,,,,,,,,,,,,,,,,,,,,,,,,,,,,,,,,,,,,,,,,,,,,,,,,,,,,,,,,,,,,,,,,,,,,,,,,,,,,,,,,,,
64390,1645583149.3440151,62.0,0.0,4258.974121,4238.461426,4226.666504,4279.487305,4234.358886999999,0.0,4.0,95.0,,,,0.0,4.0,2.0,4.0,0.0,4.0,50.0,,,,,,,,31.0,0.0,0.47811400000000004,-0.287598,0.5820310000000001,0.591553,0.906264,-0.401373,-0.167971,-0.034131,-0.035413,-0.015649,,,,,,,,,,,,,,,,,,,,,,,,,,,,,,,,,,,,,,,,,,,,,,,,,,,,,,,,,,,,,,,,,
64391,1645583149.35173,63.0,0.0,4244.102539,4231.282227000001,4202.05127,4279.487305,4232.820313,0.0,4.0,95.0,,,,0.0,4.0,2.0,4.0,0.0,4.0,50.0,,,,,,,,,,,,,,,,,,,,1.0,0.0,0.0,,,,,,,,,,,,,,,,,,,,,,,,,,,,,,,,0.0,0.0,1.0,0.0,512.0,1.0,1205.4488529999999,95.308006,11.365642,3.957033,2.367181,210.656906,130.483597,77.993492,47.172726000000004,24.994619,2.422156,2.727314,1.6686580000000002,2.624055,1.154428,0.312759,0.06858,0.038445,0.035835000000000006,0.018498,389.342102,51.493118,6.49204,3.699579,1.8468740000000001
64392,1645583149.359544,64.0,0.0,4216.410156,4143.589844,4186.153809,4280.0,4221.025879,450.0,4.0,95.0,,,,0.0,4.0,2.0,4.0,0.0,4.0,50.0,,,,,,,,32.0,0.0,0.47811400000000004,-0.287598,0.5820310000000001,0.591553,0.9087049999999999,-0.41406899999999996,-0.1626,-0.034087,-0.035338999999999995,-0.012912,,,,,,,,,,,,,,,,,,,,,,,,,,,,,,,,,,,,,,,,,,,,,,,,,,,,,,,,,,,,,,,,,
64393,1645583149.367259,65.0,0.0,4225.641113000001,4125.128418,4215.384765999999,4279.487305,4225.128418,450.0,4.0,95.0,,,,0.0,4.0,2.0,4.0,0.0,4.0,50.0,,,,,,,,,,,,,,,,,,,,,,,,,,,,,,,,,,,,,,,,,,,,,,,,,,,,,,,,,,,,,,,,,,,,,,,,,,,,,,,,,,,,
64394,1645583149.375074,66.0,0.0,4250.769043,4229.743652,4234.871582,4279.487305,4241.025879,16216.0,4.0,95.0,,,,0.0,4.0,2.0,4.0,0.0,4.0,50.0,,,,,,,,33.0,0.0,0.47811400000000004,-0.287598,0.5820310000000001,0.591553,0.906264,-0.420417,-0.172854,-0.034096,-0.035369,-0.016699000000000002,,,,,,,,,,,,,,,,,,,,,,,,,,,,,,,,,,,,,,,,,,,,,,,,,,,,,,,,,,,,,,,,,
64395,1645583149.3827882,67.0,0.0,4251.282227000001,4271.282227000001,4209.230957,4279.487305,4245.128418,450.0,4.0,95.0,,,,0.0,4.0,2.0,4.0,0.0,4.0,50.0,,,,,,,,,,,,,,,,,,,,,,,,,,,,,,,,,,,,,,,,,,,,,,,,,,,,,,0.0,0.0,1.0,0.0,512.0,1.0,,,,,,,,,,,,,,,,,,,,,,,,,
64396,1645583149.3906028,68.0,0.0,4251.794922,4208.205078,4195.897461,4280.0,4251.794922,277.0,4.0,95.0,,,,0.0,4.0,2.0,4.0,0.0,4.0,50.0,,,,,,,,34.0,0.0,0.47811400000000004,-0.287598,0.5820310000000001,0.591553,0.903334,-0.412116,-0.16846,-0.034056,-0.035200999999999996,-0.013858,,,,,,,,,,,,,,,,,,,,,,,,,,,,,,,,,,,,,,,,,,,,,,,,,,,,,,,,,,,,,,,,,
64397,1645583149.398418,69.0,0.0,4263.589844,4212.820313,4214.871582,4279.487305,4250.256348,450.0,4.0,95.0,,,,0.0,4.0,2.0,4.0,0.0,4.0,50.0,,,,,,,,,,,,,,,,,,,,,,,,,,,,,,,,,,,,,,,,,,,,,,,,,,,,,,,,,,,,,,,,,,,,,,,,,,,,,,,,,,,,
64398,1645583149.406232,70.0,0.0,4256.922852000001,4304.615234000001,4220.0,4278.974121,4224.615234000001,16198.0,4.0,95.0,,,,0.0,4.0,2.0,4.0,0.0,4.0,50.0,,,,,,,,35.0,0.0,0.47826,-0.287354,0.5820310000000001,0.591553,0.909682,-0.415045,-0.166995,-0.034117,-0.035099,-0.017599,,,,,,,,,,,,,,,,,,,,,,,,,,,,,,,,,,,,,,,,,,,,,,,,,,,,,,,,,,,,,,,,,
64399,1645583149.413947,71.0,0.0,4250.256348,4317.94873,4200.512695,4278.461426,4226.666504,450.0,4.0,95.0,,,,0.0,4.0,2.0,4.0,0.0,4.0,50.0,,,,,,,,,,,,,,,,,,,,,,,,,,,,,,,,,,,,,,,,,,,,,,,,,,,,,,0.0,0.0,1.0,0.0,512.0,1.0,,,,,,,,,,,,,,,,,,,,,,,,,
64400,1645583149.421762,72.0,0.0,4257.94873,4222.05127,4187.179688,4278.974121,4246.666504,450.0,4.0,95.0,,,,0.0,4.0,2.0,4.0,0.0,4.0,50.0,,,,,,,,36.0,0.0,0.47871199999999997,-0.287598,0.5817869999999999,0.591309,0.9052870000000001,-0.408698,-0.17773699999999998,-0.034123,-0.035154000000000005,-0.020966,,,,,,,,,,,,,,,,,,,,,,,,,,,,,,,,,,,,,,,,,,,,,,,,,,,,,,,,,,,,,,,,,
64401,1645583149.429576,73.0,0.0,4242.05127,4155.384765999999,4200.0,4278.974121,4237.94873,0.0,4.0,95.0,,,,0.0,4.0,2.0,4.0,0.0,4.0,50.0,,,,,,,,,,,,,,,,,,,,,,,,,,,,,,,,,,,,,,,,,,,,,,,,,,,,,,,,,,,,,,,,,,,,,,,,,,,,,,,,,,,,
64402,1645583149.437391,74.0,0.0,4226.666504,4163.589844,4223.589844,4278.461426,4220.0,450.0,4.0,95.0,,,,0.0,4.0,2.0,4.0,0.0,4.0,50.0,,,,,,,,37.0,0.0,0.478411,-0.287598,0.5817869999999999,0.591553,0.905776,-0.41699899999999995,-0.159182,-0.03408,-0.035057,-0.024094,,,,,,,,,,,,,,,,,,,,,,,,,,,,,,,,,,,,,,,,,,,,,,,,,,,,,,,,,,,,,,,,,
64403,1645583149.4452062,75.0,0.0,4255.897461,4223.077147999999,4225.641113000001,4278.974121,4224.102539,16213.0,4.0,95.0,,,,0.0,4.0,2.0,4.0,0.0,4.0,50.0,,,,,,,,,,,,,,,,,,,,,,,,,,,,,,,,,,,,,,,,,,,,,,,,,,,,,,0.0,0.0,1.0,0.0,512.0,1.0,,,,,,,,,,,,,,,,,,,,,,,,,
64404,1645583149.4530199,76.0,0.0,4279.487305,4216.410156,4202.05127,4278.974121,4249.743652,450.0,4.0,95.0,,,,0.0,4.0,2.0,4.0,0.0,4.0,50.0,,,,,,,,38.0,0.0,0.478411,-0.287598,0.5817869999999999,0.591553,0.914076,-0.411627,-0.15674100000000002,-0.033993,-0.035213,-0.026616,,,,,,,,,,,,,,,,,,,,,,,,,,,,,,,,,,,,,,,,,,,,,,,,,,,,,,,,,,,,,,,,,
64405,1645583149.460835,77.0,0.0,4269.230957,4154.358886999999,4195.897461,4278.461426,4277.436035,450.0,4.0,95.0,,,,0.0,4.0,2.0,4.0,0.0,4.0,50.0,,,,,,,,,,,,,,,,,,,,,,,,,,,,,,,,,,,,,,,,,,,,,,,,,,,,,,,,,,,,,,,,,,,,,,,,,,,,,,,,,,,,
64406,1645583149.46865,78.0,0.0,4250.769043,4260.512695,4224.102539,4279.487305,4273.846191,450.0,4.0,95.0,,,,0.0,4.0,2.0,4.0,0.0,4.0,50.0,,,,,,,,39.0,0.0,0.478264,-0.287842,0.5817869999999999,0.591553,0.9077290000000001,-0.41651000000000005,-0.16894800000000001,-0.034011,-0.035354000000000003,-0.029082,,,,,,,,,,,,,,,,,,,,,,,,,,,,,,,,,,,,,,,,,,,,,,,,,,,,,,,,,,,,,,,,,
64407,1645583149.476464,79.0,0.0,4252.820313,4421.538574,4246.153809,4280.0,4254.358886999999,16213.0,4.0,95.0,,,,0.0,4.0,2.0,4.0,0.0,4.0,50.0,,,,,,,,,,,,,,,,,,,,1.0,0.0,0.0,,,,,,,,,,,,,,,,,,,,,,,,,,,,,,,,0.0,0.0,1.0,0.0,512.0,1.0,789.49707,66.444473,8.544694,3.724686,2.0961849999999997,154.77203400000002,105.573349,66.12152900000001,41.351143,22.153769,1.605917,2.337148,1.575248,2.78508,1.1924700000000001,0.21834099999999998,0.052096,0.037524,0.048858,0.022706999999999998,253.164505,36.725739000000004,4.6769,3.8619260000000004,1.856485
64408,1645583149.484179,80.0,0.0,4265.128418,4392.820313,4231.282227000001,4278.974121,4260.512695,450.0,4.0,95.0,,,,0.0,4.0,2.0,4.0,0.0,4.0,50.0,,,,,,,,40.0,0.0,0.478264,-0.287842,0.5817869999999999,0.591553,0.917006,-0.413092,-0.171389,-0.033832999999999995,-0.035334,-0.031251999999999995,,,,,,,,,,,,,,,,,,,,,,,,,,,,,,,,,,,,,,,,,,,,,,,,,,,,,,,,,,,,,,,,,
64409,1645583149.491994,81.0,0.0,4258.974121,4271.794922,4204.102539,4278.974121,4263.077147999999,450.0,4.0,95.0,,,,0.0,4.0,2.0,4.0,0.0,4.0,50.0,,,,,,,,,,,,,,,,,,,,,,,,,,,,,,,,,,,,,,,,,,,,,,,,,,,,,,,,,,,,,,,,,,,,,,,,,,,,,,,,,,,,
64410,1645583149.499808,82.0,0.0,4243.077147999999,4217.94873,4203.077147999999,4281.025879,4226.666504,450.0,4.0,95.0,,,,0.0,4.0,2.0,4.0,0.0,4.0,50.0,,,,,,,,41.0,0.0,0.478411,-0.287598,0.5817869999999999,0.591553,0.9209129999999999,-0.41406899999999996,-0.16211199999999998,-0.033819,-0.035268,-0.026906,,,,,,,,,,,,,,,,,,,,,,,,,,,,,,,,,,,,,,,,,,,,,,,,,,,,,,,,,,,,,,,,,
64411,1645583149.507623,83.0,0.0,4255.897461,4191.794922,4225.641113000001,4281.025879,4201.025879,16213.0,4.0,95.0,,,,0.0,4.0,2.0,4.0,0.0,4.0,50.0,,,,,,,,,,,,,,,,,,,,,,,,,,,,,,,,,,,,,,,,,,,,,,,,,,,,,,0.0,0.0,1.0,0.0,512.0,1.0,,,,,,,,,,,,,,,,,,,,,,,,,
64412,1645583149.515438,84.0,0.0,4291.794922,4179.487305,4220.0,4279.487305,4222.05127,450.0,4.0,95.0,,,,0.0,4.0,2.0,4.0,0.0,4.0,50.0,,,,,,,,42.0,0.0,0.47855699999999995,-0.287354,0.5817869999999999,0.591553,0.903334,-0.41065100000000004,-0.167483,-0.033855,-0.035354000000000003,-0.029245,,,,,,,,,,,,,,,,,,,,,,,,,,,,,,,,,,,,,,,,,,,,,,,,,,,,,,,,,,,,,,,,,
64413,1645583149.523252,85.0,0.0,4278.974121,4177.94873,4177.436035,4278.461426,4252.307617,450.0,4.0,95.0,,,,0.0,4.0,2.0,4.0,0.0,4.0,50.0,,,,,,,,,,,,,,,,,,,,,,,,,,,,,,,,,,,,,,,,,,,,,,,,,,,,,,,,,,,,,,,,,,,,,,,,,,,,,,,,,,,,
64414,1645583149.531067,86.0,0.0,4232.820313,4165.128418,4176.410156,4278.974121,4261.538574,450.0,4.0,95.0,,,,0.0,4.0,2.0,4.0,0.0,4.0,50.0,,,,,,,,43.0,0.0,0.47855699999999995,-0.287354,0.5817869999999999,0.591553,0.9087049999999999,-0.410163,-0.167971,-0.033839,-0.035383,-0.025148,,,,,,,,,,,,,,,,,,,,,,,,,,,,,,,,,,,,,,,,,,,,,,,,,,,,,,,,,,,,,,,,,
64415,1645583149.538882,87.0,0.0,4238.974121,4233.333496,4221.025879,4278.974121,4258.461426,16213.0,4.0,95.0,,,,0.0,4.0,2.0,4.0,0.0,4.0,50.0,,,,,,,,,,,,,,,,,,,,,,,,,,,,,,,,,,,,,,,,,,,,,,,,,,,,,,0.0,0.0,1.0,0.0,512.0,1.0,,,,,,,,,,,,,,,,,,,,,,,,,
64416,1645583149.5466962,88.0,0.0,4281.538574,4352.820313,4222.05127,4278.461426,4261.025879,450.0,4.0,95.0,,,,0.0,4.0,2.0,4.0,0.0,4.0,50.0,,,,,,,,44.0,0.0,0.47840200000000005,-0.287109,0.5817869999999999,0.591797,0.9077290000000001,-0.417487,-0.166995,-0.033873,-0.035457999999999996,-0.021462000000000002,,,,,,,,,,,,,,,,,,,,,,,,,,,,,,,,,,,,,,,,,,,,,,,,,,,,,,,,,,,,,,,,,
64417,1645583149.5545108,89.0,0.0,4294.871582,4321.025879,4205.128418,4279.487305,4271.282227000001,450.0,4.0,95.0,,,,0.0,4.0,2.0,4.0,0.0,4.0,50.0,,,,,,,,,,,,,,,,,,,,,,,,,,,,,,,,,,,,,,,,,,,,,,,,,,,,,,,,,,,,,,,,,,,,,,,,,,,,,,,,,,,,
64418,1645583149.562226,90.0,0.0,4283.077147999999,4237.94873,4229.743652,4281.025879,4266.666504,450.0,4.0,95.0,,,,0.0,4.0,2.0,4.0,0.0,4.0,50.0,,,,,,,,45.0,0.0,0.47840200000000005,-0.287109,0.5817869999999999,0.591797,0.903334,-0.408698,-0.160647,-0.033904000000000004,-0.035427999999999994,-0.018144,,,,,,,,,,,,,,,,,,,,,,,,,,,,,,,,,,,,,,,,,,,,,,,,,,,,,,,,,,,,,,,,,
64419,1645583149.57004,91.0,0.0,4282.05127,4363.077147999999,4236.410156,4280.0,4253.846191,16213.0,4.0,95.0,,,,0.0,4.0,2.0,4.0,0.0,4.0,50.0,,,,,,,,,,,,,,,,,,,,,,,,,,,,,,,,,,,,,,,,,,,,,,,,,,,,,,0.0,0.0,1.0,0.0,512.0,1.0,,,,,,,,,,,,,,,,,,,,,,,,,
64420,1645583149.577855,92.0,0.0,4277.436035,4500.512695,4196.922852000001,4279.487305,4271.794922,450.0,4.0,95.0,,,,0.0,4.0,2.0,4.0,0.0,4.0,50.0,,,,,,,,46.0,0.0,0.47840200000000005,-0.287109,0.5817869999999999,0.591797,0.9052870000000001,-0.412116,-0.159182,-0.034029000000000004,-0.035352,-0.021407,,,,,,,,,,,,,,,,,,,,,,,,,,,,,,,,,,,,,,,,,,,,,,,,,,,,,,,,,,,,,,,,,
64421,1645583149.58567,93.0,0.0,4267.179688,4468.717772999999,4190.256348,4280.512695,4291.282227000001,450.0,4.0,95.0,,,,0.0,4.0,2.0,4.0,0.0,4.0,50.0,,,,,,,,,,,,,,,,,,,,,,,,,,,,,,,,,,,,,,,,,,,,,,,,,,,,,,,,,,,,,,,,,,,,,,,,,,,,,,,,,,,,
64422,1645583149.593484,94.0,0.0,4280.0,4491.282227000001,4219.487305,4279.487305,4269.230957,450.0,4.0,95.0,,,,0.0,4.0,2.0,4.0,0.0,4.0,50.0,,,,,,,,47.0,0.0,0.47825500000000004,-0.287354,0.5817869999999999,0.591797,0.893568,-0.406744,-0.15820599999999999,-0.034044,-0.03543,-0.018095,,,,,,,,,,,,,,,,,,,,,,,,,,,,,,,,,,,,,,,,,,,,,,,,,,,,,,,,,,,,,,,,,
64423,1645583149.601299,95.0,0.0,4280.0,4534.871582,4209.743652,4276.922852000001,4259.487305,16213.0,4.0,95.0,,,,0.0,4.0,2.0,4.0,0.0,4.0,50.0,,,,,,,,,,,,,,,,,,,,1.0,0.0,0.0,,,,,,,,,,,,,,,,,,,,,,,,,,,,,,,,0.0,0.0,1.0,0.0,512.0,1.0,435.889771,40.254963000000004,6.113830999999999,3.6355720000000002,1.998277,113.11649299999999,89.925179,56.151436,35.116997,20.994263,1.0965260000000001,1.879372,1.4303290000000002,2.731001,1.355917,0.136517,0.034385,0.033983,0.058203,0.027961,137.911972,22.774427,3.136488,3.841929,1.9434619999999998
64424,1645583149.6091142,96.0,0.0,4242.05127,4397.94873,4174.871582,4277.436035,4293.846191,450.0,4.0,95.0,,,,0.0,4.0,2.0,4.0,0.0,4.0,50.0,,,,,,,,48.0,0.0,0.47825500000000004,-0.287354,0.5817869999999999,0.591797,0.9077290000000001,-0.407233,-0.174807,-0.034009,-0.035403,-0.021315,,,,,,,,,,,,,,,,,,,,,,,,,,,,,,,,,,,,,,,,,,,,,,,,,,,,,,,,,,,,,,,,,
64425,1645583149.6169279,97.0,0.0,4228.205078,4334.871582,4183.589844,4280.0,4306.666504,450.0,4.0,95.0,,,,0.0,4.0,2.0,4.0,0.0,4.0,50.0,,,,,,,,,,,,,,,,,,,,,,,,,,,,,,,,,,,,,,,,,,,,,,,,,,,,,,,,,,,,,,,,,,,,,,,,,,,,,,,,,,,,
64426,1645583149.624743,98.0,0.0,4255.897461,4471.794922,4216.410156,4280.512695,4256.410156,450.0,4.0,95.0,,,,0.0,4.0,2.0,4.0,0.0,4.0,50.0,,,,,,,,49.0,0.0,0.47825500000000004,-0.287354,0.5817869999999999,0.591797,0.895033,-0.415045,-0.164553,-0.034075,-0.03533,-0.024261,,,,,,,,,,,,,,,,,,,,,,,,,,,,,,,,,,,,,,,,,,,,,,,,,,,,,,,,,,,,,,,,,
64427,1645583149.632458,99.0,0.0,4270.256348,4497.436035,4211.282227000001,4279.487305,4234.358886999999,16213.0,4.0,95.0,,,,0.0,4.0,2.0,4.0,0.0,4.0,50.0,,,,,,,,,,,,,,,,,,,,,,,,,,,,,,,,,,,,,,,,,,,,,,,,,,,,,,0.0,0.0,1.0,0.0,512.0,1.0,,,,,,,,,,,,,,,,,,,,,,,,,
64428,1645583149.6402721,100.0,0.0,4267.179688,4348.717772999999,4200.0,4279.487305,4283.589844,450.0,4.0,95.0,,,,0.0,4.0,2.0,4.0,0.0,4.0,50.0,,,,,,,,50.0,0.0,0.47840200000000005,-0.287109,0.5817869999999999,0.591797,0.9160299999999999,-0.413092,-0.16894800000000001,-0.034085000000000004,-0.035361000000000004,-0.027011,,,,,,,,,,,,,,,,,,,,,,,,,,,,,,,,,,,,,,,,,,,,,,,,,,,,,,,,,,,,,,,,,
64429,1645583149.648087,101.0,0.0,4273.333496,4335.384765999999,4215.384765999999,4281.025879,4289.230957,450.0,4.0,95.0,,,,0.0,4.0,2.0,4.0,0.0,4.0,50.0,,,,,,,,,,,,,,,,,,,,,,,,,,,,,,,,,,,,,,,,,,,,,,,,,,,,,,,,,,,,,,,,,,,,,,,,,,,,,,,,,,,,
64430,1645583149.655901,102.0,0.0,4272.820313,4520.0,4220.0,4281.025879,4227.692383,450.0,4.0,95.0,,,,0.0,4.0,2.0,4.0,0.0,4.0,50.0,,,,,,,,51.0,0.0,0.478704,-0.287109,0.5817869999999999,0.591553,0.906752,-0.417487,-0.170901,-0.034241,-0.035389,-0.02304,,,,,,,,,,,,,,,,,,,,,,,,,,,,,,,,,,,,,,,,,,,,,,,,,,,,,,,,,,,,,,,,,
64431,1645583149.663716,103.0,0.0,4263.589844,4555.897461,4207.692383,4280.0,4221.538574,16213.0,4.0,95.0,,,,0.0,4.0,2.0,4.0,0.0,4.0,50.0,,,,,,,,,,,,,,,,,,,,,,,,,,,,,,,,,,,,,,,,,,,,,,,,,,,,,,0.0,0.0,1.0,0.0,512.0,1.0,,,,,,,,,,,,,,,,,,,,,,,,,
64432,1645583149.671531,104.0,0.0,4253.333496,4427.179688,4212.820313,4280.512695,4263.589844,450.0,4.0,95.0,,,,0.0,4.0,2.0,4.0,0.0,4.0,50.0,,,,,,,,52.0,0.0,0.47885,-0.28686500000000004,0.5817869999999999,0.591553,0.9028459999999999,-0.41358100000000003,-0.171878,-0.034235,-0.035414999999999995,-0.025863,,,,,,,,,,,,,,,,,,,,,,,,,,,,,,,,,,,,,,,,,,,,,,,,,,,,,,,,,,,,,,,,,
64433,1645583149.679345,105.0,0.0,4261.025879,4414.358886999999,4232.307617,4281.025879,4267.179688,450.0,4.0,95.0,,,,0.0,4.0,2.0,4.0,0.0,4.0,50.0,,,,,,,,,,,,,,,,,,,,,,,,,,,,,,,,,,,,,,,,,,,,,,,,,,,,,,,,,,,,,,,,,,,,,,,,,,,,,,,,,,,,
64434,1645583149.68716,106.0,0.0,4296.922852000001,4494.871582,4227.179688,4279.487305,4267.692383,450.0,4.0,95.0,,,,0.0,4.0,2.0,4.0,0.0,4.0,50.0,,,,,,,,53.0,0.0,0.478996,-0.286621,0.5817869999999999,0.591553,0.9038219999999999,-0.416022,-0.16552999999999998,-0.034230000000000003,-0.035389,-0.022105,,,,,,,,,,,,,,,,,,,,,,,,,,,,,,,,,,,,,,,,,,,,,,,,,,,,,,,,,,,,,,,,,
64435,1645583149.694975,107.0,0.0,4306.153809,4470.769043,4205.641113000001,4278.461426,4281.538574,16213.0,4.0,95.0,,,,0.0,4.0,2.0,4.0,0.0,4.0,50.0,,,,,,,,,,,,,,,,,,,,,,,,,,,,,,,,,,,,,,,,,,,,,,,,,,,,,,0.0,0.0,1.0,0.0,512.0,1.0,,,,,,,,,,,,,,,,,,,,,,,,,
64436,1645583149.7026892,108.0,0.0,4273.846191,4308.205078,4208.717772999999,4279.487305,4250.769043,450.0,4.0,95.0,,,,0.0,4.0,2.0,4.0,0.0,4.0,50.0,,,,,,,,54.0,0.0,0.478704,-0.287109,0.5817869999999999,0.591553,0.906752,-0.417487,-0.170901,-0.034371,-0.035414999999999995,-0.018625,,,,,,,,,,,,,,,,,,,,,,,,,,,,,,,,,,,,,,,,,,,,,,,,,,,,,,,,,,,,,,,,,
64437,1645583149.7105038,109.0,0.0,4272.307617,4224.102539,4227.179688,4279.487305,4226.666504,450.0,4.0,95.0,,,,0.0,4.0,2.0,4.0,0.0,4.0,50.0,,,,,,,,,,,,,,,,,,,,,,,,,,,,,,,,,,,,,,,,,,,,,,,,,,,,,,,,,,,,,,,,,,,,,,,,,,,,,,,,,,,,
64438,1645583149.718319,110.0,0.0,4292.820313,4352.307617,4216.922852000001,4278.974121,4261.538574,450.0,4.0,95.0,,,,0.0,4.0,2.0,4.0,0.0,4.0,50.0,,,,,,,,55.0,0.0,0.478695,-0.286621,0.5817869999999999,0.591797,0.9077290000000001,-0.41992799999999997,-0.165042,-0.034352,-0.035487,-0.021841,,,,,,,,,,,,,,,,,,,,,,,,,,,,,,,,,,,,,,,,,,,,,,,,,,,,,,,,,,,,,,,,,
64439,1645583149.726133,111.0,0.0,4274.871582,4435.897461,4202.05127,4280.512695,4278.461426,16213.0,4.0,95.0,,,,0.0,4.0,2.0,4.0,0.0,4.0,50.0,1.0,25.0,3.0,0.0,4.0,0.0,3.0,,,,,,,,,,,,,1.0,0.0,0.0,,,,,,,,,,,,,,,,,,,,,,,,,,,,,,,,0.0,0.0,1.0,0.0,512.0,1.0,197.06368999999998,21.342234,4.431973999999999,3.561847,2.0797369999999997,84.744522,88.198738,49.318455,29.916481,21.658195000000003,0.876559,1.458108,1.242051,2.470777,1.6574970000000002,0.07978500000000001,0.020028,0.028395999999999998,0.060612,0.033099,61.246426,12.316403999999999,2.122751,3.617001,2.0894150000000002
64440,1645583149.733948,112.0,0.0,4249.743652,4328.205078,4212.307617,4281.025879,4258.974121,450.0,4.0,95.0,,,,0.0,4.0,2.0,4.0,0.0,4.0,50.0,,,,,,,,56.0,0.0,0.47884099999999996,-0.286377,0.5817869999999999,0.591797,0.9043110000000001,-0.438483,-0.15820599999999999,-0.034237000000000004,-0.035454,-0.024833,,,,,,,,,,,,,,,,,,,,,,,,,,,,,,,,,,,,,,,,,,,,,,,,,,,,,,,,,,,,,,,,,
64441,1645583149.741763,113.0,0.0,4256.410156,4316.410156,4207.692383,4279.487305,4272.307617,450.0,4.0,95.0,,,,0.0,4.0,2.0,4.0,0.0,4.0,50.0,,,,,,,,,,,,,,,,,,,,,,,,,,,,,,,,,,,,,,,,,,,,,,,,,,,,,,,,,,,,,,,,,,,,,,,,,,,,,,,,,,,,
64442,1645583149.749577,114.0,0.0,4253.846191,4447.179688,4195.384765999999,4278.974121,4281.538574,450.0,4.0,95.0,,,,0.0,4.0,2.0,4.0,0.0,4.0,50.0,,,,,,,,57.0,0.0,0.47884099999999996,-0.286377,0.5817869999999999,0.591797,0.8964979999999999,-0.41260399999999997,-0.172854,-0.034232,-0.035473000000000005,-0.021275,,,,,,,,,,,,,,,,,,,,,,,,,,,,,,,,,,,,,,,,,,,,,,,,,,,,,,,,,,,,,,,,,
64443,1645583149.757392,115.0,0.0,4229.230957,4415.897461,4216.410156,4280.0,4242.05127,16213.0,4.0,95.0,,,,0.0,4.0,2.0,4.0,0.0,4.0,50.0,,,,,,,,,,,,,,,,,,,,,,,,,,,,,,,,,,,,,,,,,,,,,,,,,,,,,,0.0,0.0,1.0,0.0,512.0,1.0,,,,,,,,,,,,,,,,,,,,,,,,,
64444,1645583149.765207,116.0,0.0,4244.102539,4267.179688,4235.897461,4281.025879,4235.384765999999,450.0,4.0,95.0,,,,0.0,4.0,2.0,4.0,0.0,4.0,50.0,,,,,,,,58.0,0.0,0.47853900000000005,-0.286377,0.5817869999999999,0.592041,0.906752,-0.41358100000000003,-0.167971,-0.034226,-0.035588,-0.024225999999999998,,,,,,,,,,,,,,,,,,,,,,,,,,,,,,,,,,,,,,,,,,,,,,,,,,,,,,,,,,,,,,,,,
64445,1645583149.773021,117.0,0.0,4292.820313,4256.922852000001,4212.307617,4280.0,4266.153809,450.0,4.0,95.0,,,,0.0,4.0,2.0,4.0,0.0,4.0,50.0,,,,,,,,,,,,,,,,,,,,,,,,,,,,,,,,,,,,,,,,,,,,,,,,,,,,,,,,,,,,,,,,,,,,,,,,,,,,,,,,,,,,
64446,1645583149.780736,118.0,0.0,4286.153809,4330.769043,4188.205078,4279.487305,4253.333496,450.0,4.0,95.0,,,,0.0,4.0,2.0,4.0,0.0,4.0,50.0,,,,,,,,59.0,0.0,0.47884099999999996,-0.286377,0.5817869999999999,0.591797,0.902358,-0.41260399999999997,-0.165042,-0.034319,-0.035496,-0.020631,,,,,,,,,,,,,,,,,,,,,,,,,,,,,,,,,,,,,,,,,,,,,,,,,,,,,,,,,,,,,,,,,
64447,1645583149.788551,119.0,0.0,4233.333496,4358.974121,4203.077147999999,4280.0,4218.461426,16213.0,4.0,95.0,,,,0.0,4.0,2.0,4.0,0.0,4.0,50.0,,,,,,,,,,,,,,,,,,,,,,,,,,,,,,,,,,,,,,,,,,,,,,,,,,,,,,0.0,0.0,1.0,0.0,512.0,1.0,,,,,,,,,,,,,,,,,,,,,,,,,
64448,1645583149.7962651,120.0,0.0,4245.128418,4387.692383,4216.922852000001,4279.487305,4234.358886999999,450.0,4.0,95.0,,,,0.0,4.0,2.0,4.0,0.0,4.0,50.0,,,,,,,,60.0,0.0,0.47884099999999996,-0.286377,0.5817869999999999,0.591797,0.906752,-0.415534,-0.171878,-0.034306,-0.035413,-0.023694999999999997,,,,,,,,,,,,,,,,,,,,,,,,,,,,,,,,,,,,,,,,,,,,,,,,,,,,,,,,,,,,,,,,,
64449,1645583149.80408,121.0,0.0,4300.512695,4460.0,4205.128418,4278.974121,4276.410156,450.0,4.0,95.0,,,,0.0,4.0,2.0,4.0,0.0,4.0,50.0,,,,,,,,,,,,,,,,,,,,,,,,,,,,,,,,,,,,,,,,,,,,,,,,,,,,,,,,,,,,,,,,,,,,,,,,,,,,,,,,,,,,
64450,1645583149.811895,122.0,0.0,4292.307617,4504.615234000001,4202.563965,4280.512695,4273.333496,450.0,4.0,95.0,,,,0.0,4.0,2.0,4.0,0.0,4.0,50.0,,,,,,,,61.0,0.0,0.47884099999999996,-0.286377,0.5817869999999999,0.591797,0.9028459999999999,-0.401373,-0.173342,-0.034244,-0.035485,-0.020007,,,,,,,,,,,,,,,,,,,,,,,,,,,,,,,,,,,,,,,,,,,,,,,,,,,,,,,,,,,,,,,,,
64451,1645583149.819709,123.0,0.0,4276.922852000001,4461.025879,4221.538574,4280.512695,4255.384765999999,16213.0,4.0,95.0,,,,0.0,4.0,2.0,4.0,0.0,4.0,50.0,,,,,,,,,,,,,,,,,,,,,,,,,,,,,,,,,,,,,,,,,,,,,,,,,,,,,,0.0,0.0,1.0,0.0,512.0,1.0,,,,,,,,,,,,,,,,,,,,,,,,,
64452,1645583149.827524,124.0,0.0,4306.666504,4369.230957,4222.05127,4280.0,4284.615234000001,450.0,4.0,95.0,,,,0.0,4.0,2.0,4.0,0.0,4.0,50.0,,,,,,,,62.0,0.0,0.479137,-0.286377,0.581543,0.591797,0.9043110000000001,-0.416022,-0.177249,-0.034189,-0.035452,-0.023084999999999998,,,,,,,,,,,,,,,,,,,,,,,,,,,,,,,,,,,,,,,,,,,,,,,,,,,,,,,,,,,,,,,,,
64453,1645583149.835339,125.0,0.0,4302.05127,4267.692383,4212.307617,4281.025879,4297.94873,450.0,4.0,95.0,,,,0.0,4.0,2.0,4.0,0.0,4.0,50.0,,,,,,,,,,,,,,,,,,,,,,,,,,,,,,,,,,,,,,,,,,,,,,,,,,,,,,,,,,,,,,,,,,,,,,,,,,,,,,,,,,,,
64454,1645583149.843153,126.0,0.0,4272.307617,4242.05127,4222.563965,4282.05127,4274.358886999999,450.0,4.0,95.0,,,,0.0,4.0,2.0,4.0,0.0,4.0,50.0,,,,,,,,63.0,0.0,0.479137,-0.286377,0.581543,0.591797,0.900893,-0.406744,-0.16846,-0.034187999999999996,-0.035374,-0.025903,,,,,,,,,,,,,,,,,,,,,,,,,,,,,,,,,,,,,,,,,,,,,,,,,,,,,,,,,,,,,,,,,
