,Timestamp,OriginalTimestamp,EEG.Counter,EEG.Interpolated,EEG.AF3,EEG.T7,EEG.Pz,EEG.T8,EEG.AF4,EEG.RawCq,EEG.Battery,EEG.BatteryPercent,MarkerIndex,MarkerType,MarkerValueInt,EEG.MarkerHardware,CQ.AF3,CQ.T7,CQ.Pz,CQ.T8,CQ.AF4,CQ.Overall,EQ.SampleRateQuality,EQ.OVERALL,EQ.AF3,EQ.T7,EQ.Pz,EQ.T8,EQ.AF4,MOT.CounterMems,MOT.InterpolatedMems,MOT.Q0,MOT.Q1,MOT.Q2,MOT.Q3,MOT.AccX,MOT.AccY,MOT.AccZ,MOT.MagX,MOT.MagY,MOT.MagZ,MC.Action,MC.ActionPower,MC.IsActive,PM.Engagement.IsActive,PM.Engagement.Scaled,PM.Engagement.Raw,PM.Engagement.Min,PM.Engagement.Max,PM.Excitement.IsActive,PM.Excitement.Scaled,PM.Excitement.Raw,PM.Excitement.Min,PM.Excitement.Max,PM.LongTermExcitement,PM.Stress.IsActive,PM.Stress.Scaled,PM.Stress.Raw,PM.Stress.Min,PM.Stress.Max,PM.Relaxation.IsActive,PM.Relaxation.Scaled,PM.Relaxation.Raw,PM.Relaxation.Min,PM.Relaxation.Max,PM.Interest.IsActive,PM.Interest.Scaled,PM.Interest.Raw,PM.Interest.Min,PM.Interest.Max,PM.Focus.IsActive,PM.Focus.Scaled,PM.Focus.Raw,PM.Focus.Min,PM.Focus.Max,FE.BlinkWink,FE.HorizontalEyesDirection,FE.UpperFaceAction,FE.UpperFaceActionPower,FE.LowerFaceAction,FE.LowerFaceActionPower,POW.AF3.Theta,POW.AF3.Alpha,POW.AF3.BetaL,POW.AF3.BetaH,POW.AF3.Gamma,POW.T7.Theta,POW.T7.Alpha,POW.T7.BetaL,POW.T7.BetaH,POW.T7.Gamma,POW.Pz.Theta,POW.Pz.Alpha,POW.Pz.BetaL,POW.Pz.BetaH,POW.Pz.Gamma,POW.T8.Theta,POW.T8.Alpha,POW.T8.BetaL,POW.T8.BetaH,POW.T8.Gamma,POW.AF4.Theta,POW.AF4.Alpha,POW.AF4.BetaL,POW.AF4.BetaH,POW.AF4.Gamma
12592,1650413961.695219,1650413961.712747,3.0,0.0,4321.538574,4644.615234000001,4197.94873,4280.512695,4299.487305,450.0,3.0,73.0,,,,0.0,4.0,0.0,4.0,0.0,4.0,33.333332,,,,,,,,,,,,,,,,,,,,,,,,,,,,,,,,,,,,,,,,,,,,,,,,,,,,,,,,,,,,,,,,,,,,,,,,,,,,,,,,,,,,
12593,1650413961.703033,1650413961.720461,4.0,0.0,4330.769043,4643.077147999999,4205.641113000001,4280.512695,4307.179688,0.0,3.0,73.0,,,,0.0,4.0,0.0,4.0,0.0,4.0,33.333332,,,,,,,,2.0,0.0,0.275952,-0.45605500000000004,0.464355,0.707275,0.917006,-0.41699899999999995,-0.154299,-0.045461,-0.053811000000000005,-0.014478,,,,,,,,,,,,,,,,,,,,,,,,,,,,,,,,,,,,,,,,,,,,,,,,,,,,,,,,,,,,,,,,,
12594,1650413961.710848,1650413961.728276,5.0,0.0,4353.846191,4600.512695,4229.230957,4280.512695,4306.153809,450.0,3.0,73.0,,,,0.0,4.0,0.0,4.0,0.0,4.0,33.333332,,,,,,,,,,,,,,,,,,,,,,,,,,,,,,,,,,,,,,,,,,,,,,,,,,,,,,0.0,0.0,1.0,0.0,512.0,1.0,,,,,,,,,,,,,,,,,,,,,,,,,
12595,1650413961.718662,1650413961.736091,6.0,0.0,4346.666504,4590.769043,4237.94873,4280.512695,4314.358886999999,16149.0,3.0,73.0,,,,0.0,4.0,0.0,4.0,0.0,4.0,33.333332,,,,,,,,3.0,0.0,0.275952,-0.45605500000000004,0.464355,0.707275,0.9272600000000001,-0.406256,-0.166506,-0.046042,-0.053801,-0.012933000000000002,,,,,,,,,,,,,,,,,,,,,,,,,,,,,,,,,,,,,,,,,,,,,,,,,,,,,,,,,,,,,,,,,
12596,1650413961.726477,1650413961.7438052,7.0,0.0,4337.436035,4637.436035,4222.563965,4280.512695,4305.641113000001,450.0,3.0,73.0,,,,0.0,4.0,0.0,4.0,0.0,4.0,33.333332,,,,,,,,,,,,,,,,,,,,,,,,,,,,,,,,,,,,,,,,,,,,,,,,,,,,,,,,,,,,,,,,,,,,,,,,,,,,,,,,,,,,
12597,1650413961.734292,1650413961.7516198,8.0,0.0,4341.538574,4618.974121,4218.461426,4280.512695,4286.153809,450.0,3.0,73.0,,,,0.0,4.0,0.0,4.0,0.0,4.0,33.333332,,,,,,,,4.0,0.0,0.275952,-0.45605500000000004,0.464355,0.707275,0.917006,-0.41699899999999995,-0.154299,-0.046321,-0.05379199999999999,-0.011493000000000001,,,,,,,,,,,,,,,,,,,,,,,,,,,,,,,,,,,,,,,,,,,,,,,,,,,,,,,,,,,,,,,,,
12598,1650413961.742106,1650413961.759335,9.0,0.0,4342.05127,4595.897461,4234.871582,4280.512695,4301.025879,0.0,3.0,73.0,,,,0.0,4.0,0.0,4.0,0.0,4.0,33.333332,0.972656,33.333332,4.0,0.0,4.0,0.0,4.0,,,,,,,,,,,,,1.0,0.0,0.0,,,,,,,,,,,,,,,,,,,,,,,,,,,,,,,,0.0,0.0,1.0,0.0,512.0,1.0,2.823177,2.5332209999999997,1.049042,1.411309,1.275034,22.130974,3.8907220000000002,13.278474,7.3381050000000005,11.935006,3.700019,1.232666,0.5990260000000001,1.080547,0.547955,0.000593,0.000319,0.00022400000000000002,0.000122,6.8e-05,3.128066,2.492327,0.909993,1.826239,1.463624
12599,1650413961.749921,1650413961.76705,10.0,0.0,4347.692383,4626.153809,4241.025879,4280.512695,4316.922852000001,450.0,3.0,73.0,,,,0.0,4.0,0.0,4.0,0.0,4.0,33.333332,,,,,,,,5.0,0.0,0.275952,-0.45605500000000004,0.464355,0.707275,0.9131,-0.412116,-0.166995,-0.046669,-0.053784000000000005,-0.013663999999999999,,,,,,,,,,,,,,,,,,,,,,,,,,,,,,,,,,,,,,,,,,,,,,,,,,,,,,,,,,,,,,,,,
12600,1650413961.757735,1650413961.774864,11.0,0.0,4356.922852000001,4606.153809,4226.153809,4280.512695,4297.94873,16221.0,3.0,73.0,,,,0.0,4.0,0.0,4.0,0.0,4.0,33.333332,,,,,,,,,,,,,,,,,,,,,,,,,,,,,,,,,,,,,,,,,,,,,,,,,,,,,,,,,,,,,,,,,,,,,,,,,,,,,,,,,,,,
12601,1650413961.76555,1650413961.7826788,12.0,0.0,4346.666504,4596.922852000001,4218.974121,4280.512695,4290.256348,450.0,3.0,73.0,,,,0.0,4.0,0.0,4.0,0.0,4.0,33.333332,,,,,,,,6.0,0.0,0.276167,-0.45605500000000004,0.4646,0.7070310000000001,0.906752,-0.416022,-0.158694,-0.047032,-0.053825,-0.009368000000000001,,,,,,,,,,,,,,,,,,,,,,,,,,,,,,,,,,,,,,,,,,,,,,,,,,,,,,,,,,,,,,,,,
12602,1650413961.773364,1650413961.7903938,13.0,0.0,4341.025879,4646.153809,4241.538574,4280.512695,4312.820313,450.0,3.0,73.0,,,,0.0,4.0,0.0,4.0,0.0,4.0,33.333332,,,,,,,,,,,,,,,,,,,,,,,,,,,,,,,,,,,,,,,,,,,,,,,,,,,,,,0.0,0.0,1.0,0.0,512.0,1.0,,,,,,,,,,,,,,,,,,,,,,,,,
12603,1650413961.781179,1650413961.798108,14.0,0.0,4343.589844,4643.077147999999,4245.641113000001,4280.512695,4310.769043,450.0,3.0,73.0,,,,0.0,4.0,0.0,4.0,0.0,4.0,33.333332,,,,,,,,7.0,0.0,0.276167,-0.45605500000000004,0.4646,0.7070310000000001,0.902358,-0.409186,-0.167483,-0.047309,-0.053765,-0.011849,,,,,,,,,,,,,,,,,,,,,,,,,,,,,,,,,,,,,,,,,,,,,,,,,,,,,,,,,,,,,,,,,
12604,1650413961.7889938,1650413961.805923,15.0,0.0,4332.307617,4609.230957,4218.974121,4280.512695,4288.205078,16221.0,3.0,73.0,,,,0.0,4.0,0.0,4.0,0.0,4.0,33.333332,,,,,,,,,,,,,,,,,,,,,,,,,,,,,,,,,,,,,,,,,,,,,,,,,,,,,,,,,,,,,,,,,,,,,,,,,,,,,,,,,,,,
12605,1650413961.796808,1650413961.813638,16.0,0.0,4322.563965,4612.307617,4217.94873,4280.512695,4290.769043,0.0,3.0,73.0,,,,0.0,4.0,0.0,4.0,0.0,4.0,33.333332,,,,,,,,8.0,0.0,0.276791,-0.45605500000000004,0.4646,0.7067869999999999,0.9077290000000001,-0.400885,-0.156252,-0.047559,-0.053809,-0.010469,,,,,,,,,,,,,,,,,,,,,,,,,,,,,,,,,,,,,,,,,,,,,,,,,,,,,,,,,,,,,,,,,
12606,1650413961.8046231,1650413961.821452,17.0,0.0,4334.871582,4596.410156,4234.358886999999,4280.512695,4296.922852000001,0.0,3.0,73.0,,,,0.0,4.0,0.0,4.0,0.0,4.0,33.333332,,,,,,,,,,,,,,,,,,,,,,,,,,,,,,,,,,,,,,,,,,,,,,,,,,,,,,0.0,0.0,1.0,0.0,512.0,1.0,,,,,,,,,,,,,,,,,,,,,,,,,
12607,1650413961.8124368,1650413961.829167,18.0,0.0,4346.666504,4610.256348,4237.436035,4280.512695,4291.794922,0.0,3.0,73.0,,,,0.0,4.0,0.0,4.0,0.0,4.0,33.333332,,,,,,,,9.0,0.0,0.27719299999999997,-0.45581099999999997,0.4646,0.7067869999999999,0.908217,-0.413092,-0.154788,-0.047686,-0.053897,-0.012694,,,,,,,,,,,,,,,,,,,,,,,,,,,,,,,,,,,,,,,,,,,,,,,,,,,,,,,,,,,,,,,,,
12608,1650413961.820252,1650413961.836982,19.0,0.0,4341.538574,4683.077147999999,4238.974121,4280.512695,4303.589844,0.0,3.0,73.0,,,,0.0,4.0,0.0,4.0,0.0,4.0,33.333332,,,,,,,,,,,,,,,,,,,,,,,,,,,,,,,,,,,,,,,,,,,,,,,,,,,,,,,,,,,,,,,,,,,,,,,,,,,,,,,,,,,,
12609,1650413961.828066,1650413961.844697,20.0,0.0,4345.128418,4660.0,4235.384765999999,4280.512695,4313.846191,0.0,3.0,73.0,,,,0.0,4.0,0.0,4.0,0.0,4.0,33.333332,,,,,,,,10.0,0.0,0.276791,-0.45605500000000004,0.4646,0.7067869999999999,0.903334,-0.400397,-0.14551,-0.047947000000000004,-0.053877999999999995,-0.014647,,,,,,,,,,,,,,,,,,,,,,,,,,,,,,,,,,,,,,,,,,,,,,,,,,,,,,,,,,,,,,,,,
12610,1650413961.835881,1650413961.852511,21.0,0.0,4346.153809,4610.256348,4221.538574,4280.512695,4294.358886999999,0.0,3.0,73.0,,,,0.0,4.0,0.0,4.0,0.0,4.0,33.333332,,,,,,,,,,,,,,,,,,,,,,,,,,,,,,,,,,,,,,,,,,,,,,,,,,,,,,0.0,0.0,1.0,0.0,512.0,1.0,,,,,,,,,,,,,,,,,,,,,,,,,
12611,1650413961.843696,1650413961.860226,22.0,0.0,4320.512695,4683.589844,4214.871582,4280.512695,4279.487305,0.0,3.0,73.0,,,,0.0,4.0,0.0,4.0,0.0,4.0,33.333332,,,,,,,,11.0,0.0,0.276791,-0.45605500000000004,0.4646,0.7067869999999999,0.905776,-0.396002,-0.142092,-0.048132999999999995,-0.053764,-0.010204000000000001,,,,,,,,,,,,,,,,,,,,,,,,,,,,,,,,,,,,,,,,,,,,,,,,,,,,,,,,,,,,,,,,,
12612,1650413961.85151,1650413961.868041,23.0,0.0,4309.743652,4720.0,4214.358886999999,4280.512695,4276.922852000001,0.0,3.0,73.0,,,,0.0,4.0,0.0,4.0,0.0,4.0,33.333332,,,,,,,,,,,,,,,,,,,,,,,,,,,,,,,,,,,,,,,,,,,,,,,,,,,,,,,,,,,,,,,,,,,,,,,,,,,,,,,,,,,,
12613,1650413961.859325,1650413961.875755,24.0,0.0,4327.692383,4651.282227000001,4215.897461,4280.512695,4266.666504,0.0,3.0,73.0,,,,0.0,4.0,0.0,4.0,0.0,4.0,33.333332,,,,,,,,12.0,0.0,0.27719299999999997,-0.45581099999999997,0.4646,0.7067869999999999,0.9194479999999999,-0.39697899999999997,-0.14990499999999998,-0.048349,-0.053661,-0.012454999999999999,,,,,,,,,,,,,,,,,,,,,,,,,,,,,,,,,,,,,,,,,,,,,,,,,,,,,,,,,,,,,,,,,
12614,1650413961.867139,1650413961.88357,25.0,0.0,4320.0,4577.436035,4221.025879,4280.512695,4274.871582,0.0,3.0,73.0,,,,0.0,4.0,0.0,4.0,0.0,4.0,33.333332,,,,,,,,,,,,,,,,,,,,1.0,0.0,0.0,,,,,,,,,,,,,,,,,,,,,,,,,,,,,,,,0.0,0.0,1.0,0.0,512.0,1.0,2.5369669999999998,2.130995,1.182707,1.3862450000000002,1.2521209999999998,23.273281,4.466939,12.533942999999999,7.7940570000000005,12.21572,3.287339,1.246634,0.666864,1.0747950000000002,0.639524,0.000299,0.00015900000000000002,0.00011100000000000001,5.9999999999999995e-05,3.3e-05,3.064212,2.242846,1.021414,1.8672549999999999,1.5109629999999998
12615,1650413961.874954,1650413961.891285,26.0,0.0,4301.025879,4575.384765999999,4206.153809,4280.512695,4286.153809,0.0,3.0,73.0,,,,0.0,4.0,0.0,4.0,0.0,4.0,33.333332,,,,,,,,13.0,0.0,0.27657,-0.45581099999999997,0.4646,0.7070310000000001,0.920424,-0.401373,-0.148928,-0.048494,-0.053715,-0.011161,,,,,,,,,,,,,,,,,,,,,,,,,,,,,,,,,,,,,,,,,,,,,,,,,,,,,,,,,,,,,,,,,
12616,1650413961.8827689,1650413961.899099,27.0,0.0,4321.025879,4629.230957,4195.897461,4280.512695,4274.358886999999,0.0,3.0,73.0,,,,0.0,4.0,0.0,4.0,0.0,4.0,33.333332,,,,,,,,,,,,,,,,,,,,,,,,,,,,,,,,,,,,,,,,,,,,,,,,,,,,,,,,,,,,,,,,,,,,,,,,,,,,,,,,,,,,
12617,1650413961.890583,1650413961.906814,28.0,0.0,4344.102539,4623.589844,4222.563965,4280.512695,4291.282227000001,0.0,3.0,73.0,,,,0.0,4.0,0.0,4.0,0.0,4.0,33.333332,,,,,,,,14.0,0.0,0.276979,-0.45581099999999997,0.464355,0.7070310000000001,0.9077290000000001,-0.400885,-0.14844000000000002,-0.047112,-0.053715,-0.013267,,,,,,,,,,,,,,,,,,,,,,,,,,,,,,,,,,,,,,,,,,,,,,,,,,,,,,,,,,,,,,,,,
12618,1650413961.8983982,1650413961.914629,29.0,0.0,4336.922852000001,4558.461426,4233.846191,4280.512695,4315.384765999999,0.0,3.0,73.0,,,,0.0,4.0,0.0,4.0,0.0,4.0,33.333332,,,,,,,,,,,,,,,,,,,,,,,,,,,,,,,,,,,,,,,,,,,,,,,,,,,,,,0.0,0.0,1.0,0.0,512.0,1.0,,,,,,,,,,,,,,,,,,,,,,,,,
12619,1650413961.9062119,1650413961.922443,30.0,0.0,4330.256348,4567.179688,4204.615234000001,4280.512695,4281.025879,0.0,3.0,73.0,,,,0.0,4.0,0.0,4.0,0.0,4.0,33.333332,,,,,,,,15.0,0.0,0.276758,-0.45556599999999997,0.464355,0.707275,0.901869,-0.41358100000000003,-0.166995,-0.047283,-0.053714,-0.008962000000000001,,,,,,,,,,,,,,,,,,,,,,,,,,,,,,,,,,,,,,,,,,,,,,,,,,,,,,,,,,,,,,,,,
12620,1650413961.914027,1650413961.930258,31.0,0.0,4333.333496,4630.769043,4197.94873,4280.512695,4263.077147999999,0.0,3.0,73.0,,,,0.0,4.0,0.0,4.0,0.0,4.0,33.333332,,,,,,,,,,,,,,,,,,,,,,,,,,,,,,,,,,,,,,,,,,,,,,,,,,,,,,,,,,,,,,,,,,,,,,,,,,,,,,,,,,,,
12621,1650413961.921842,1650413961.937973,32.0,0.0,4333.846191,4644.615234000001,4221.025879,4280.512695,4298.974121,0.0,3.0,73.0,,,,0.0,4.0,0.0,4.0,0.0,4.0,33.333332,,,,,,,,16.0,0.0,0.277381,-0.45556599999999997,0.464355,0.7070310000000001,0.9121229999999999,-0.41065100000000004,-0.150393,-0.047633,-0.053714,-0.00787,,,,,,,,,,,,,,,,,,,,,,,,,,,,,,,,,,,,,,,,,,,,,,,,,,,,,,,,,,,,,,,,,
12622,1650413961.929656,1650413961.945787,33.0,0.0,4345.641113000001,4675.384765999999,4226.153809,4280.512695,4305.641113000001,0.0,3.0,73.0,,,,0.0,4.0,0.0,4.0,0.0,4.0,33.333332,,,,,,,,,,,,,,,,,,,,,,,,,,,,,,,,,,,,,,,,,,,,,,,,,,,,,,0.0,0.0,1.0,0.0,512.0,1.0,,,,,,,,,,,,,,,,,,,,,,,,,
12623,1650413961.9374712,1650413961.953502,34.0,0.0,4353.846191,4682.05127,4228.205078,4280.512695,4290.256348,0.0,3.0,73.0,,,,0.0,4.0,0.0,4.0,0.0,4.0,33.333332,,,,,,,,17.0,0.0,0.27657,-0.45581099999999997,0.4646,0.7070310000000001,0.921401,-0.41699899999999995,-0.1626,-0.046337,-0.053763,-0.013187,,,,,,,,,,,,,,,,,,,,,,,,,,,,,,,,,,,,,,,,,,,,,,,,,,,,,,,,,,,,,,,,,
12624,1650413961.9452848,1650413961.961317,35.0,0.0,4338.461426,4615.897461,4235.384765999999,4280.512695,4295.384765999999,0.0,3.0,73.0,,,,0.0,4.0,0.0,4.0,0.0,4.0,33.333332,,,,,,,,,,,,,,,,,,,,,,,,,,,,,,,,,,,,,,,,,,,,,,,,,,,,,,,,,,,,,,,,,,,,,,,,,,,,,,,,,,,,
12625,1650413961.9531,1650413961.969032,36.0,0.0,4334.871582,4638.974121,4224.102539,4280.512695,4298.974121,0.0,3.0,73.0,,,,0.0,4.0,0.0,4.0,0.0,4.0,33.333332,,,,,,,,18.0,0.0,0.27657,-0.45581099999999997,0.4646,0.7070310000000001,0.917983,-0.392584,-0.157717,-0.046635,-0.05385499999999999,-0.01514,,,,,,,,,,,,,,,,,,,,,,,,,,,,,,,,,,,,,,,,,,,,,,,,,,,,,,,,,,,,,,,,,
12626,1650413961.9609141,1650413961.976746,37.0,0.0,4355.384765999999,4670.769043,4223.077147999999,4280.512695,4308.717772999999,0.0,3.0,73.0,,,,0.0,4.0,0.0,4.0,0.0,4.0,33.333332,,,,,,,,,,,,,,,,,,,,,,,,,,,,,,,,,,,,,,,,,,,,,,,,,,,,,,0.0,0.0,1.0,0.0,512.0,1.0,,,,,,,,,,,,,,,,,,,,,,,,,
12627,1650413961.968729,1650413961.984561,38.0,0.0,4348.205078,4585.128418,4231.282227000001,4280.512695,4313.846191,0.0,3.0,73.0,,,,0.0,4.0,0.0,4.0,0.0,4.0,33.333332,,,,,,,,19.0,0.0,0.276972,-0.45556599999999997,0.4646,0.7070310000000001,0.902358,-0.403326,-0.157229,-0.04705,-0.053841,-0.013431,,,,,,,,,,,,,,,,,,,,,,,,,,,,,,,,,,,,,,,,,,,,,,,,,,,,,,,,,,,,,,,,,
12628,1650413961.976544,1650413961.992276,39.0,0.0,4325.641113000001,4586.153809,4214.871582,4280.512695,4290.769043,0.0,3.0,73.0,,,,0.0,4.0,0.0,4.0,0.0,4.0,33.333332,,,,,,,,,,,,,,,,,,,,,,,,,,,,,,,,,,,,,,,,,,,,,,,,,,,,,,,,,,,,,,,,,,,,,,,,,,,,,,,,,,,,
12629,1650413961.984358,1650413962.0000901,40.0,0.0,4332.820313,4668.717772999999,4206.666504,4280.512695,4275.897461,0.0,3.0,73.0,,,,0.0,4.0,0.0,4.0,0.0,4.0,33.333332,,,,,,,,20.0,0.0,0.276972,-0.45556599999999997,0.4646,0.7070310000000001,0.9194479999999999,-0.39697899999999997,-0.16211199999999998,-0.047325,-0.053877,-0.015359000000000001,,,,,,,,,,,,,,,,,,,,,,,,,,,,,,,,,,,,,,,,,,,,,,,,,,,,,,,,,,,,,,,,,
12630,1650413961.992173,1650413962.007805,41.0,0.0,4336.410156,4621.025879,4217.436035,4280.512695,4275.897461,0.0,3.0,73.0,,,,0.0,4.0,0.0,4.0,0.0,4.0,33.333332,,,,,,,,,,,,,,,,,,,,1.0,0.0,0.0,,,,,,,,,,,,,,,,,,,,,,,,,,,,,,,,0.0,0.0,1.0,0.0,512.0,1.0,2.228493,1.7432310000000002,1.3417430000000001,1.332436,1.191519,23.680452,5.722589,12.110253,8.40221,12.896591,3.0282,1.2868,0.772475,1.054908,0.751186,0.000105,5.6000000000000006e-05,3.9e-05,2.1e-05,1.2e-05,2.8731400000000002,2.073488,1.200579,1.8264209999999999,1.5236299999999998
12631,1650413961.999987,1650413962.01562,42.0,0.0,4324.615234000001,4585.641113000001,4212.820313,4280.512695,4269.230957,0.0,3.0,73.0,,,,0.0,4.0,0.0,4.0,0.0,4.0,33.333332,,,,,,,,21.0,0.0,0.277381,-0.45556599999999997,0.464355,0.7070310000000001,0.917983,-0.400885,-0.159182,-0.047573000000000004,-0.053958000000000006,-0.010796,,,,,,,,,,,,,,,,,,,,,,,,,,,,,,,,,,,,,,,,,,,,,,,,,,,,,,,,,,,,,,,,,
12632,1650413962.007802,1650413962.023335,43.0,0.0,4333.333496,4638.461426,4218.974121,4280.512695,4280.0,0.0,3.0,73.0,,,,0.0,4.0,0.0,4.0,0.0,4.0,33.333332,,,,,,,,,,,,,,,,,,,,,,,,,,,,,,,,,,,,,,,,,,,,,,,,,,,,,,,,,,,,,,,,,,,,,,,,,,,,,,,,,,,,
12633,1650413962.015616,1650413962.031149,44.0,0.0,4349.230957,4617.436035,4244.615234000001,4280.512695,4305.641113000001,0.0,3.0,73.0,,,,0.0,4.0,0.0,4.0,0.0,4.0,33.333332,,,,,,,,22.0,0.0,0.277381,-0.45556599999999997,0.464355,0.7070310000000001,0.910658,-0.404791,-0.153811,-0.046234,-0.053787,-0.013037,,,,,,,,,,,,,,,,,,,,,,,,,,,,,,,,,,,,,,,,,,,,,,,,,,,,,,,,,,,,,,,,,
12634,1650413962.023431,1650413962.0388641,45.0,0.0,4350.769043,4580.512695,4239.487305,4280.512695,4302.563965,0.0,3.0,73.0,,,,0.0,4.0,0.0,4.0,0.0,4.0,33.333332,,,,,,,,,,,,,,,,,,,,,,,,,,,,,,,,,,,,,,,,,,,,,,,,,,,,,,0.0,0.0,1.0,0.0,512.0,1.0,,,,,,,,,,,,,,,,,,,,,,,,,
12635,1650413962.0312462,1650413962.046579,46.0,0.0,4343.077147999999,4609.743652,4225.128418,4280.512695,4287.179688,0.0,3.0,73.0,,,,0.0,4.0,0.0,4.0,0.0,4.0,33.333332,,,,,,,,23.0,0.0,0.277381,-0.45556599999999997,0.464355,0.7070310000000001,0.9116350000000001,-0.407233,-0.161135,-0.046493,-0.053827999999999994,-0.015053,,,,,,,,,,,,,,,,,,,,,,,,,,,,,,,,,,,,,,,,,,,,,,,,,,,,,,,,,,,,,,,,,
12636,1650413962.0390599,1650413962.054393,47.0,0.0,4336.410156,4618.974121,4232.820313,4280.512695,4292.307617,0.0,3.0,73.0,,,,0.0,4.0,0.0,4.0,0.0,4.0,33.333332,,,,,,,,,,,,,,,,,,,,,,,,,,,,,,,,,,,,,,,,,,,,,,,,,,,,,,,,,,,,,,,,,,,,,,,,,,,,,,,,,,,,
12637,1650413962.046875,1650413962.062208,48.0,0.0,4342.05127,4606.153809,4230.256348,4280.512695,4302.05127,0.0,3.0,73.0,,,,0.0,4.0,0.0,4.0,0.0,4.0,33.333332,,,,,,,,24.0,0.0,0.27719299999999997,-0.45581099999999997,0.4646,0.7067869999999999,0.917983,-0.40528000000000003,-0.155276,-0.046727,-0.053719,-0.010716,,,,,,,,,,,,,,,,,,,,,,,,,,,,,,,,,,,,,,,,,,,,,,,,,,,,,,,,,,,,,,,,,
12638,1650413962.0546892,1650413962.0699232,49.0,0.0,4359.487305,4633.846191,4225.128418,4280.512695,4313.333496,0.0,3.0,73.0,,,,0.0,4.0,0.0,4.0,0.0,4.0,33.333332,,,,,,,,,,,,,,,,,,,,,,,,,,,,,,,,,,,,,,,,,,,,,,,,,,,,,,0.0,0.0,1.0,0.0,512.0,1.0,,,,,,,,,,,,,,,,,,,,,,,,,
12639,1650413962.0625038,1650413962.0777369,50.0,0.0,4366.153809,4629.230957,4241.538574,4280.512695,4323.077147999999,0.0,3.0,73.0,,,,0.0,4.0,0.0,4.0,0.0,4.0,33.333332,,,,,,,,25.0,0.0,0.27719299999999997,-0.45581099999999997,0.4646,0.7067869999999999,0.914076,-0.397955,-0.156252,-0.047035,-0.05362000000000001,-0.006666,,,,,,,,,,,,,,,,,,,,,,,,,,,,,,,,,,,,,,,,,,,,,,,,,,,,,,,,,,,,,,,,,
12640,1650413962.070318,1650413962.0854518,51.0,0.0,4364.102539,4586.153809,4242.563965,4281.025879,4318.461426,0.0,3.0,73.0,,,,0.0,4.0,0.0,4.0,0.0,4.0,33.333332,,,,,,,,,,,,,,,,,,,,,,,,,,,,,,,,,,,,,,,,,,,,,,,,,,,,,,,,,,,,,,,,,,,,,,,,,,,,,,,,,,,,
12641,1650413962.078133,1650413962.093267,52.0,0.0,4365.641113000001,4581.025879,4225.128418,4281.538574,4313.846191,0.0,3.0,73.0,,,,0.0,4.0,0.0,4.0,0.0,4.0,33.333332,,,,,,,,26.0,0.0,0.276972,-0.45556599999999997,0.4646,0.7070310000000001,0.913588,-0.403326,-0.160159,-0.047361,-0.05363,-0.009173,,,,,,,,,,,,,,,,,,,,,,,,,,,,,,,,,,,,,,,,,,,,,,,,,,,,,,,,,,,,,,,,,
12642,1650413962.085948,1650413962.100982,53.0,0.0,4353.333496,4610.769043,4225.128418,4281.025879,4314.358886999999,0.0,3.0,73.0,,,,0.0,4.0,0.0,4.0,0.0,4.0,33.333332,,,,,,,,,,,,,,,,,,,,,,,,,,,,,,,,,,,,,,,,,,,,,,,,,,,,,,0.0,0.0,1.0,0.0,512.0,1.0,,,,,,,,,,,,,,,,,,,,,,,,,
12643,1650413962.093762,1650413962.108696,54.0,0.0,4338.461426,4629.743652,4235.384765999999,4281.538574,4315.384765999999,0.0,3.0,73.0,,,,0.0,4.0,0.0,4.0,0.0,4.0,33.333332,,,,,,,,27.0,0.0,0.276972,-0.45556599999999997,0.4646,0.7070310000000001,0.9072399999999999,-0.406744,-0.144045,-0.047605,-0.053687,-0.011478,,,,,,,,,,,,,,,,,,,,,,,,,,,,,,,,,,,,,,,,,,,,,,,,,,,,,,,,,,,,,,,,,
12644,1650413962.101577,1650413962.1165109,55.0,0.0,4351.794922,4664.102539,4230.769043,4282.563965,4315.897461,0.0,3.0,73.0,,,,0.0,4.0,0.0,4.0,0.0,4.0,33.333332,,,,,,,,,,,,,,,,,,,,,,,,,,,,,,,,,,,,,,,,,,,,,,,,,,,,,,,,,,,,,,,,,,,,,,,,,,,,,,,,,,,,
12645,1650413962.109391,1650413962.124226,56.0,0.0,4369.230957,4690.769043,4225.128418,4282.563965,4304.102539,0.0,3.0,73.0,,,,0.0,4.0,0.0,4.0,0.0,4.0,33.333332,,,,,,,,28.0,0.0,0.276562,-0.45556599999999997,0.464844,0.7070310000000001,0.913588,-0.397467,-0.151369,-0.047874,-0.053787,-0.007352,,,,,,,,,,,,,,,,,,,,,,,,,,,,,,,,,,,,,,,,,,,,,,,,,,,,,,,,,,,,,,,,,
12646,1650413962.117206,1650413962.13204,57.0,0.0,4363.077147999999,4606.153809,4238.461426,4282.05127,4299.487305,0.0,3.0,73.0,,,,0.0,4.0,0.0,4.0,0.0,4.0,33.333332,,,,,,,,,,,,,,,,,,,,1.0,0.0,0.0,,,,,,,,,,,,,,,,,,,,,,,,,,,,,,,,0.0,0.0,1.0,0.0,512.0,1.0,1.989841,1.4747430000000001,1.505331,1.282666,1.110609,22.782852,7.320487,11.832419999999999,9.028943,13.805852,2.902767,1.3004200000000001,0.863699,1.018677,0.8657469999999999,2.2e-05,1.1e-05,8e-06,4e-06,2e-06,2.605654,1.995583,1.4154579999999999,1.7213319999999999,1.507577
12647,1650413962.12502,1650413962.139755,58.0,0.0,4339.487305,4567.179688,4246.666504,4282.563965,4308.205078,0.0,3.0,73.0,,,,0.0,4.0,0.0,4.0,0.0,4.0,33.333332,,,,,,,,29.0,0.0,0.27615100000000004,-0.45556599999999997,0.465088,0.7070310000000001,0.8989389999999999,-0.39014299999999996,-0.144045,-0.046407,-0.053778999999999993,-0.006421,,,,,,,,,,,,,,,,,,,,,,,,,,,,,,,,,,,,,,,,,,,,,,,,,,,,,,,,,,,,,,,,,
12648,1650413962.132835,1650413962.14757,59.0,0.0,4329.743652,4660.0,4232.307617,4282.05127,4297.94873,0.0,3.0,73.0,,,,0.0,4.0,0.0,4.0,0.0,4.0,33.333332,,,,,,,,,,,,,,,,,,,,,,,,,,,,,,,,,,,,,,,,,,,,,,,,,,,,,,,,,,,,,,,,,,,,,,,,,,,,,,,,,,,,
12649,1650413962.140649,1650413962.155284,60.0,0.0,4351.282227000001,4662.563965,4226.666504,4282.05127,4286.666504,0.0,3.0,73.0,,,,0.0,4.0,0.0,4.0,0.0,4.0,33.333332,,,,,,,,30.0,0.0,0.276553,-0.455322,0.465088,0.7070310000000001,0.9087049999999999,-0.420417,-0.15967,-0.045281999999999996,-0.053821,-0.009149,,,,,,,,,,,,,,,,,,,,,,,,,,,,,,,,,,,,,,,,,,,,,,,,,,,,,,,,,,,,,,,,,
12650,1650413962.148464,1650413962.163099,61.0,0.0,4346.153809,4579.487305,4242.563965,4282.05127,4301.538574,0.0,3.0,73.0,,,,0.0,4.0,0.0,4.0,0.0,4.0,33.333332,,,,,,,,,,,,,,,,,,,,,,,,,,,,,,,,,,,,,,,,,,,,,,,,,,,,,,0.0,0.0,1.0,0.0,512.0,1.0,,,,,,,,,,,,,,,,,,,,,,,,,
12651,1650413962.1562788,1650413962.1709142,62.0,0.0,4347.179688,4564.615234000001,4250.256348,4282.05127,4324.615234000001,0.0,3.0,73.0,,,,0.0,4.0,0.0,4.0,0.0,4.0,33.333332,,,,,,,,31.0,0.0,0.276562,-0.45556599999999997,0.464844,0.7070310000000001,0.913588,-0.397467,-0.151369,-0.045734,-0.053859000000000004,-0.008136,,,,,,,,,,,,,,,,,,,,,,,,,,,,,,,,,,,,,,,,,,,,,,,,,,,,,,,,,,,,,,,,,
12652,1650413962.164093,1650413962.178628,63.0,0.0,4456.410156,4596.410156,4244.102539,4281.538574,4369.743652,0.0,3.0,73.0,,,,0.0,4.0,0.0,4.0,0.0,4.0,33.333332,,,,,,,,,,,,,,,,,,,,,,,,,,,,,,,,,,,,,,,,,,,,,,,,,,,,,,,,,,,,,,,,,,,,,,,,,,,,,,,,,,,,
12653,1650413962.171908,1650413962.1864429,64.0,0.0,4557.436035,4630.256348,4235.384765999999,4281.538574,4447.179688,450.0,3.0,73.0,,,,0.0,4.0,0.0,4.0,0.0,4.0,33.333332,,,,,,,,32.0,0.0,0.276553,-0.455322,0.465088,0.7070310000000001,0.9087049999999999,-0.420417,-0.15967,-0.044677,-0.053892999999999996,-0.010692,,,,,,,,,,,,,,,,,,,,,,,,,,,,,,,,,,,,,,,,,,,,,,,,,,,,,,,,,,,,,,,,,
12654,1650413962.179722,1650413962.194158,65.0,0.0,4611.794922,4686.666504,4220.512695,4284.102539,4525.128418,450.0,3.0,73.0,,,,0.0,4.0,0.0,4.0,0.0,4.0,33.333332,,,,,,,,,,,,,,,,,,,,,,,,,,,,,,,,,,,,,,,,,,,,,,,,,,,,,,0.0,0.0,1.0,0.0,512.0,1.0,,,,,,,,,,,,,,,,,,,,,,,,,
12655,1650413962.187537,1650413962.201973,66.0,0.0,4793.333496,4651.794922,4233.333496,4288.717772999999,4636.410156,16197.0,3.0,73.0,,,,0.0,4.0,0.0,4.0,0.0,4.0,33.333332,,,,,,,,33.0,0.0,0.276553,-0.455322,0.465088,0.7070310000000001,0.901381,-0.425299,-0.154788,-0.045238,-0.053875,-0.013088999999999998,,,,,,,,,,,,,,,,,,,,,,,,,,,,,,,,,,,,,,,,,,,,,,,,,,,,,,,,,,,,,,,,,
12656,1650413962.195351,1650413962.209687,67.0,0.0,5037.436035,4545.641113000001,4254.358886999999,4293.333496,4763.589844,450.0,3.0,73.0,,,,0.0,4.0,0.0,4.0,0.0,4.0,33.333332,,,,,,,,,,,,,,,,,,,,,,,,,,,,,,,,,,,,,,,,,,,,,,,,,,,,,,,,,,,,,,,,,,,,,,,,,,,,,,,,,,,,
12657,1650413962.203166,1650413962.217402,68.0,0.0,5162.05127,4603.589844,4229.743652,4298.461426,4813.846191,127.0,3.0,73.0,,,,0.0,4.0,1.0,4.0,0.0,4.0,41.666668,,,,,,,,34.0,0.0,0.276142,-0.455322,0.46533199999999997,0.7070310000000001,0.903334,-0.425788,-0.153811,-0.045793,-0.053908000000000005,-0.008801999999999999,,,,,,,,,,,,,,,,,,,,,,,,,,,,,,,,,,,,,,,,,,,,,,,,,,,,,,,,,,,,,,,,,
12658,1650413962.2109811,1650413962.225217,69.0,0.0,5211.794922,4671.794922,4218.461426,4300.0,4832.820313,450.0,3.0,73.0,,,,0.0,4.0,1.0,4.0,0.0,4.0,41.666668,,,,,,,,,,,,,,,,,,,,,,,,,,,,,,,,,,,,,,,,,,,,,,,,,,,,,,0.0,0.0,1.0,0.0,512.0,1.0,,,,,,,,,,,,,,,,,,,,,,,,,
12659,1650413962.2187948,1650413962.2329311,70.0,0.0,5245.641113000001,4528.717772999999,4257.436035,4298.461426,4887.692383,16098.0,3.0,73.0,,,,0.0,4.0,1.0,4.0,0.0,4.0,41.666668,,,,,,,,35.0,0.0,0.276553,-0.455322,0.465088,0.7070310000000001,0.8994280000000001,-0.41895200000000005,-0.140627,-0.046292,-0.053888,-0.011290999999999999,,,,,,,,,,,,,,,,,,,,,,,,,,,,,,,,,,,,,,,,,,,,,,,,,,,,,,,,,,,,,,,,,
12660,1650413962.22661,1650413962.2406461,71.0,0.0,5270.256348,4495.897461,4258.974121,4298.461426,4905.641113000001,450.0,3.0,73.0,,,,0.0,4.0,1.0,4.0,0.0,4.0,41.666668,,,,,,,,,,,,,,,,,,,,,,,,,,,,,,,,,,,,,,,,,,,,,,,,,,,,,,,,,,,,,,,,,,,,,,,,,,,,,,,,,,,,
12661,1650413962.234424,1650413962.248461,72.0,0.0,5313.333496,4718.974121,4225.128418,4298.974121,4851.794922,450.0,3.0,73.0,,,,0.0,4.0,1.0,4.0,0.0,4.0,41.666668,,,,,,,,36.0,0.0,0.276544,-0.455078,0.46533199999999997,0.7070310000000001,0.922377,-0.41699899999999995,-0.157717,-0.046692000000000004,-0.05387,-0.013628999999999999,,,,,,,,,,,,,,,,,,,,,,,,,,,,,,,,,,,,,,,,,,,,,,,,,,,,,,,,,,,,,,,,,
12662,1650413962.242239,1650413962.256176,73.0,0.0,5296.410156,4758.974121,4255.384765999999,4297.94873,4837.94873,0.0,3.0,73.0,,,,0.0,4.0,1.0,4.0,0.0,4.0,41.666668,0.972656,25.0,3.0,0.0,4.0,0.0,3.0,,,,,,,,,,,,,1.0,0.0,0.0,,,,,,,,,,,,,,,,,,,,,,,,,,,,,,,,0.0,0.0,1.0,0.0,512.0,0.497259,1.943386,1.372315,1.624372,1.2621280000000001,1.040008,20.517292,8.861114,11.461858,9.528634,14.681394000000001,2.804887,1.302438,0.907083,0.9709409999999999,0.967399,4e-06,1.2e-05,2e-06,1e-06,1e-06,2.4451509999999996,1.9718259999999999,1.602673,1.5999450000000002,1.476002
12663,1650413962.250054,1650413962.26399,74.0,0.0,5199.487305,4568.717772999999,4297.94873,4298.461426,4863.077147999999,450.0,3.0,73.0,,,,0.0,4.0,1.0,4.0,0.0,4.0,41.666668,,,,,,,,37.0,0.0,0.276544,-0.455078,0.46533199999999997,0.7070310000000001,0.9091940000000001,-0.40576799999999996,-0.153811,-0.045441,-0.053903,-0.015537,,,,,,,,,,,,,,,,,,,,,,,,,,,,,,,,,,,,,,,,,,,,,,,,,,,,,,,,,,,,,,,,,
12664,1650413962.257868,1650413962.271805,75.0,0.0,5104.615234000001,4543.077147999999,4270.256348,4297.94873,4810.769043,16240.0,3.0,73.0,,,,0.0,4.0,1.0,4.0,0.0,4.0,41.666668,,,,,,,,,,,,,,,,,,,,,,,,,,,,,,,,,,,,,,,,,,,,,,,,,,,,,,,,,,,,,,,,,,,,,,,,,,,,,,,,,,,,
12665,1650413962.265683,1650413962.27952,76.0,0.0,5003.077147999999,4621.538574,4237.436035,4296.922852000001,4713.846191,450.0,3.0,73.0,,,,0.0,4.0,1.0,4.0,0.0,4.0,41.666668,,,,,,,,38.0,0.0,0.276946,-0.454834,0.46533199999999997,0.7070310000000001,0.9072399999999999,-0.407721,-0.160647,-0.045877,-0.053933,-0.017353,,,,,,,,,,,,,,,,,,,,,,,,,,,,,,,,,,,,,,,,,,,,,,,,,,,,,,,,,,,,,,,,,
12666,1650413962.273497,1650413962.287234,77.0,0.0,4876.922852000001,4609.743652,4245.641113000001,4294.358886999999,4654.358886999999,450.0,3.0,73.0,,,,0.0,4.0,1.0,4.0,0.0,4.0,41.666668,,,,,,,,,,,,,,,,,,,,,,,,,,,,,,,,,,,,,,,,,,,,,,,,,,,,,,0.0,0.0,1.0,0.0,512.0,0.497259,,,,,,,,,,,,,,,,,,,,,,,,,
12667,1650413962.281312,1650413962.295049,78.0,0.0,4763.077147999999,4611.282227000001,4254.871582,4289.743652,4614.871582,450.0,3.0,73.0,,,,0.0,4.0,1.0,4.0,0.0,4.0,41.666668,,,,,,,,39.0,0.0,0.276946,-0.454834,0.46533199999999997,0.7070310000000001,0.9209129999999999,-0.410163,-0.150393,-0.044805000000000005,-0.053911,-0.018987,,,,,,,,,,,,,,,,,,,,,,,,,,,,,,,,,,,,,,,,,,,,,,,,,,,,,,,,,,,,,,,,,
12668,1650413962.2891269,1650413962.302864,79.0,0.0,4699.487305,4689.743652,4252.820313,4286.666504,4583.589844,16240.0,3.0,73.0,,,,0.0,4.0,1.0,4.0,0.0,4.0,41.666668,,,,,,,,,,,,,,,,,,,,,,,,,,,,,,,,,,,,,,,,,,,,,,,,,,,,,,,,,,,,,,,,,,,,,,,,,,,,,,,,,,,,
12669,1650413962.296941,1650413962.3105779,80.0,0.0,4647.179688,4705.641113000001,4248.717772999999,4286.666504,4553.846191,450.0,3.0,73.0,,,,0.0,4.0,1.0,4.0,0.0,4.0,41.666668,,,,,,,,40.0,0.0,0.277356,-0.454834,0.465088,0.7070310000000001,0.9116350000000001,-0.391608,-0.159182,-0.045305,-0.053939999999999995,-0.017039,,,,,,,,,,,,,,,,,,,,,,,,,,,,,,,,,,,,,,,,,,,,,,,,,,,,,,,,,,,,,,,,,
12670,1650413962.3047562,1650413962.318393,81.0,0.0,4549.743652,4633.846191,4240.0,4284.102539,4477.436035,450.0,3.0,73.0,,,,0.0,4.0,1.0,4.0,0.0,4.0,41.666668,,,,,,,,,,,,,,,,,,,,,,,,,,,,,,,,,,,,,,,,,,,,,,,,,,,,,,0.0,0.0,1.0,0.0,512.0,0.497259,,,,,,,,,,,,,,,,,,,,,,,,,
12671,1650413962.3125699,1650413962.326108,82.0,0.0,4459.487305,4600.512695,4233.846191,4280.512695,4405.128418,450.0,3.0,73.0,,,,0.0,4.0,1.0,4.0,0.0,4.0,41.666668,,,,,,,,41.0,0.0,0.277356,-0.454834,0.465088,0.7070310000000001,0.921889,-0.407721,-0.159182,-0.045755000000000004,-0.05391699999999999,-0.018753,,,,,,,,,,,,,,,,,,,,,,,,,,,,,,,,,,,,,,,,,,,,,,,,,,,,,,,,,,,,,,,,,
12672,1650413962.320385,1650413962.333823,83.0,0.0,4421.025879,4576.410156,4233.333496,4281.538574,4397.436035,16240.0,3.0,73.0,,,,0.0,4.0,1.0,4.0,0.0,4.0,41.666668,,,,,,,,,,,,,,,,,,,,,,,,,,,,,,,,,,,,,,,,,,,,,,,,,,,,,,,,,,,,,,,,,,,,,,,,,,,,,,,,,,,,
12673,1650413962.328199,1650413962.341637,84.0,0.0,4393.333496,4566.666504,4233.846191,4282.563965,4377.436035,450.0,3.0,73.0,,,,0.0,4.0,1.0,4.0,0.0,4.0,41.666668,,,,,,,,42.0,0.0,0.277756,-0.45458999999999994,0.465088,0.7070310000000001,0.9038219999999999,-0.407721,-0.151369,-0.046111,-0.053848,-0.016731,,,,,,,,,,,,,,,,,,,,,,,,,,,,,,,,,,,,,,,,,,,,,,,,,,,,,,,,,,,,,,,,,
12674,1650413962.336014,1650413962.349452,85.0,0.0,4353.333496,4648.205078,4230.256348,4282.05127,4316.410156,450.0,3.0,73.0,,,,0.0,4.0,1.0,4.0,0.0,4.0,41.666668,,,,,,,,,,,,,,,,,,,,,,,,,,,,,,,,,,,,,,,,,,,,,,,,,,,,,,0.0,0.0,1.0,0.0,512.0,0.497259,,,,,,,,,,,,,,,,,,,,,,,,,
12675,1650413962.343829,1650413962.357167,86.0,0.0,4313.333496,4696.922852000001,4215.384765999999,4282.05127,4281.538574,450.0,3.0,73.0,,,,0.0,4.0,1.0,4.0,0.0,4.0,41.666668,,,,,,,,43.0,0.0,0.277133,-0.45458999999999994,0.465088,0.707275,0.901869,-0.411627,-0.144045,-0.046481,-0.053785,-0.015009,,,,,,,,,,,,,,,,,,,,,,,,,,,,,,,,,,,,,,,,,,,,,,,,,,,,,,,,,,,,,,,,,
12676,1650413962.351643,1650413962.364881,87.0,0.0,4278.461426,4636.410156,4208.205078,4282.563965,4280.0,16240.0,3.0,73.0,,,,0.0,4.0,1.0,4.0,0.0,4.0,41.666668,,,,,,,,,,,,,,,,,,,,,,,,,,,,,,,,,,,,,,,,,,,,,,,,,,,,,,,,,,,,,,,,,,,,,,,,,,,,,,,,,,,,
12677,1650413962.359458,1650413962.3726962,88.0,0.0,4260.512695,4606.666504,4215.384765999999,4282.05127,4263.077147999999,450.0,3.0,73.0,,,,0.0,4.0,1.0,4.0,0.0,4.0,41.666668,,,,,,,,44.0,0.0,0.277533,-0.454346,0.465088,0.707275,0.906752,-0.400397,-0.155764,-0.045348,-0.053778,-0.01971,,,,,,,,,,,,,,,,,,,,,,,,,,,,,,,,,,,,,,,,,,,,,,,,,,,,,,,,,,,,,,,,,
12678,1650413962.3672721,1650413962.380411,89.0,0.0,4253.333496,4628.205078,4217.94873,4282.05127,4243.077147999999,450.0,3.0,73.0,,,,0.0,4.0,1.0,4.0,0.0,4.0,41.666668,,,,,,,,,,,,,,,,,,,,1.0,0.0,0.0,,,,,,,,,,,,,,,,,,,,,,,,,,,,,,,,0.0,0.0,1.0,0.0,512.0,0.549886,6.829758,1.9254669999999998,1.6829919999999998,1.296238,1.017677,17.448097,10.122805,10.941261,9.808511,15.303656,2.635366,1.329677,0.89665,0.9223030000000001,1.045067,0.001281,0.00055,0.00014199999999999998,5.5e-05,7.000000000000001e-06,4.390672,2.098044,1.7360959999999999,1.516475,1.439565
12679,1650413962.375087,1650413962.388225,90.0,0.0,4246.666504,4616.922852000001,4213.846191,4282.05127,4240.0,450.0,3.0,73.0,,,,0.0,4.0,1.0,4.0,0.0,4.0,41.666668,,,,,,,,45.0,0.0,0.277533,-0.454346,0.465088,0.707275,0.93019,-0.41651000000000005,-0.169436,-0.044134,-0.053771000000000006,-0.02101,,,,,,,,,,,,,,,,,,,,,,,,,,,,,,,,,,,,,,,,,,,,,,,,,,,,,,,,,,,,,,,,,
12680,1650413962.382901,1650413962.39594,91.0,0.0,4251.282227000001,4610.256348,4223.077147999999,4282.05127,4240.0,16240.0,3.0,73.0,,,,0.0,4.0,1.0,4.0,0.0,4.0,41.666668,,,,,,,,,,,,,,,,,,,,,,,,,,,,,,,,,,,,,,,,,,,,,,,,,,,,,,,,,,,,,,,,,,,,,,,,,,,,,,,,,,,,
12681,1650413962.390716,1650413962.4037552,92.0,0.0,4248.717772999999,4630.256348,4235.384765999999,4282.05127,4237.94873,450.0,3.0,73.0,,,,0.0,4.0,1.0,4.0,0.0,4.0,41.666668,,,,,,,,46.0,0.0,0.277124,-0.454346,0.46533199999999997,0.707275,0.917494,-0.404791,-0.166995,-0.044603,-0.053765,-0.01886,,,,,,,,,,,,,,,,,,,,,,,,,,,,,,,,,,,,,,,,,,,,,,,,,,,,,,,,,,,,,,,,,
12682,1650413962.398531,1650413962.41147,93.0,0.0,4264.102539,4637.436035,4229.230957,4282.05127,4243.077147999999,450.0,3.0,73.0,,,,0.0,4.0,1.0,4.0,0.0,4.0,41.666668,,,,,,,,,,,,,,,,,,,,,,,,,,,,,,,,,,,,,,,,,,,,,,,,,,,,,,0.0,0.0,1.0,0.0,512.0,0.549886,,,,,,,,,,,,,,,,,,,,,,,,,
12683,1650413962.406345,1650413962.4192839,94.0,0.0,4320.0,4636.922852000001,4212.307617,4282.05127,4275.384765999999,450.0,3.0,73.0,,,,0.0,4.0,1.0,4.0,0.0,4.0,41.666668,,,,,,,,47.0,0.0,0.276713,-0.454346,0.46557600000000005,0.707275,0.9121229999999999,-0.41992799999999997,-0.16211199999999998,-0.043561,-0.053809,-0.020197,,,,,,,,,,,,,,,,,,,,,,,,,,,,,,,,,,,,,,,,,,,,,,,,,,,,,,,,,,,,,,,,,
12684,1650413962.41416,1650413962.426999,95.0,0.0,4387.692383,4640.0,4217.436035,4281.538574,4347.179688,16240.0,3.0,73.0,,,,0.0,4.0,1.0,4.0,0.0,4.0,41.666668,,,,,,,,,,,,,,,,,,,,,,,,,,,,,,,,,,,,,,,,,,,,,,,,,,,,,,,,,,,,,,,,,,,,,,,,,,,,,,,,,,,,
12685,1650413962.421974,1650413962.434814,96.0,0.0,4485.641113000001,4626.666504,4233.846191,4282.563965,4451.794922,450.0,3.0,73.0,,,,0.0,4.0,1.0,4.0,0.0,4.0,41.666668,,,,,,,,48.0,0.0,0.276713,-0.454346,0.46557600000000005,0.707275,0.9155409999999999,-0.40235,-0.1626,-0.044282999999999996,-0.053946,-0.021547,,,,,,,,,,,,,,,,,,,,,,,,,,,,,,,,,,,,,,,,,,,,,,,,,,,,,,,,,,,,,,,,,
12686,1650413962.429789,1650413962.442528,97.0,0.0,4629.230957,4622.563965,4227.179688,4284.615234000001,4556.410156,450.0,3.0,73.0,,,,0.0,4.0,1.0,4.0,0.0,4.0,41.666668,,,,,,,,,,,,,,,,,,,,,,,,,,,,,,,,,,,,,,,,,,,,,,,,,,,,,,0.0,0.0,1.0,0.0,512.0,0.549886,,,,,,,,,,,,,,,,,,,,,,,,,
12687,1650413962.437603,1650413962.450343,98.0,0.0,4772.307617,4660.0,4212.820313,4287.692383,4632.307617,450.0,3.0,73.0,,,,0.0,4.0,1.0,4.0,0.0,4.0,41.666668,,,,,,,,49.0,0.0,0.276713,-0.454346,0.46557600000000005,0.707275,0.906752,-0.413092,-0.14990499999999998,-0.043419,-0.054020000000000006,-0.022712,,,,,,,,,,,,,,,,,,,,,,,,,,,,,,,,,,,,,,,,,,,,,,,,,,,,,,,,,,,,,,,,,
12688,1650413962.445418,1650413962.458058,99.0,0.0,4892.307617,4641.025879,4216.922852000001,4293.333496,4688.205078,16240.0,3.0,73.0,,,,0.0,4.0,1.0,4.0,0.0,4.0,41.666668,,,,,,,,,,,,,,,,,,,,,,,,,,,,,,,,,,,,,,,,,,,,,,,,,,,,,,,,,,,,,,,,,,,,,,,,,,,,,,,,,,,,
12689,1650413962.453233,1650413962.465872,100.0,0.0,4989.743652,4577.436035,4234.358886999999,4297.94873,4727.692383,450.0,3.0,73.0,,,,0.0,4.0,1.0,4.0,0.0,4.0,41.666668,,,,,,,,50.0,0.0,0.277337,-0.454346,0.46557600000000005,0.7070310000000001,0.9116350000000001,-0.41358100000000003,-0.14111500000000002,-0.044009,-0.053988999999999995,-0.023761,,,,,,,,,,,,,,,,,,,,,,,,,,,,,,,,,,,,,,,,,,,,,,,,,,,,,,,,,,,,,,,,,
12690,1650413962.4610472,1650413962.4735868,101.0,0.0,5021.538574,4607.692383,4233.333496,4296.410156,4728.717772999999,450.0,3.0,73.0,,,,0.0,4.0,1.0,4.0,0.0,4.0,41.666668,,,,,,,,,,,,,,,,,,,,,,,,,,,,,,,,,,,,,,,,,,,,,,,,,,,,,,0.0,0.0,1.0,0.0,512.0,0.549886,,,,,,,,,,,,,,,,,,,,,,,,,
12691,1650413962.4688618,1650413962.481302,102.0,0.0,5000.0,4627.692383,4218.461426,4295.897461,4706.153809,450.0,3.0,73.0,,,,0.0,4.0,1.0,4.0,0.0,4.0,41.666668,,,,,,,,51.0,0.0,0.276936,-0.45458999999999994,0.46557600000000005,0.7070310000000001,0.917006,-0.41260399999999997,-0.148928,-0.044539999999999996,-0.053961,-0.018309,,,,,,,,,,,,,,,,,,,,,,,,,,,,,,,,,,,,,,,,,,,,,,,,,,,,,,,,,,,,,,,,,
12692,1650413962.476676,1650413962.489116,103.0,0.0,4971.282227000001,4547.179688,4225.128418,4297.94873,4682.05127,16240.0,3.0,73.0,,,,0.0,4.0,1.0,4.0,0.0,4.0,41.666668,,,,,,,,,,,,,,,,,,,,,,,,,,,,,,,,,,,,,,,,,,,,,,,,,,,,,,,,,,,,,,,,,,,,,,,,,,,,,,,,,,,,
12693,1650413962.484491,1650413962.496931,104.0,0.0,4917.436035,4533.846191,4241.538574,4294.358886999999,4641.538574,450.0,3.0,73.0,,,,0.0,4.0,1.0,4.0,0.0,4.0,41.666668,,,,,,,,52.0,0.0,0.276936,-0.45458999999999994,0.46557600000000005,0.7070310000000001,0.9121229999999999,-0.410163,-0.16406500000000002,-0.045114999999999995,-0.053936000000000005,-0.01975,,,,,,,,,,,,,,,,,,,,,,,,,,,,,,,,,,,,,,,,,,,,,,,,,,,,,,,,,,,,,,,,,
12694,1650413962.492305,1650413962.504646,105.0,0.0,4829.743652,4601.538574,4232.307617,4291.282227000001,4590.256348,450.0,3.0,73.0,,,,0.0,4.0,1.0,4.0,0.0,4.0,41.666668,,,,,,,,,,,,,,,,,,,,1.0,0.0,0.0,,,,,,,,,,,,,,,,,,,,,,,,,,,,,,,,0.0,0.0,1.0,0.0,512.0,0.5173180000000001,48.022705,5.259925,1.8632790000000001,1.4698129999999998,1.0925049999999998,14.352495000000001,11.004653999999999,10.361717,9.963051,15.725754,2.415713,1.398198,0.844259,0.881661,1.102869,0.015358000000000002,0.0032719999999999997,0.00118,0.00042199999999999996,4.7e-05,19.928581,3.000839,1.910236,1.514536,1.414618
12695,1650413962.50012,1650413962.512461,106.0,0.0,4729.230957,4583.077147999999,4225.641113000001,4293.333496,4542.05127,450.0,3.0,73.0,,,,0.0,4.0,1.0,4.0,0.0,4.0,41.666668,,,,,,,,53.0,0.0,0.277337,-0.454346,0.46557600000000005,0.7070310000000001,0.9116350000000001,-0.41358100000000003,-0.14111500000000002,-0.045536,-0.053914,-0.021095,,,,,,,,,,,,,,,,,,,,,,,,,,,,,,,,,,,,,,,,,,,,,,,,,,,,,,,,,,,,,,,,,
12696,1650413962.507935,1650413962.520175,107.0,0.0,4631.794922,4539.487305,4237.94873,4288.717772999999,4487.179688,16240.0,3.0,73.0,,,,0.0,4.0,1.0,4.0,0.0,4.0,41.666668,,,,,,,,,,,,,,,,,,,,,,,,,,,,,,,,,,,,,,,,,,,,,,,,,,,,,,,,,,,,,,,,,,,,,,,,,,,,,,,,,,,,
12697,1650413962.515749,1650413962.52799,108.0,0.0,4532.307617,4570.256348,4223.589844,4281.538574,4440.0,450.0,3.0,73.0,,,,0.0,4.0,1.0,4.0,0.0,4.0,41.666668,,,,,,,,54.0,0.0,0.277346,-0.45458999999999994,0.46533199999999997,0.7070310000000001,0.9038219999999999,-0.403326,-0.155764,-0.045913999999999996,-0.053894000000000004,-0.016007,,,,,,,,,,,,,,,,,,,,,,,,,,,,,,,,,,,,,,,,,,,,,,,,,,,,,,,,,,,,,,,,,
12698,1650413962.523564,1650413962.535705,109.0,0.0,4445.641113000001,4629.230957,4196.922852000001,4282.05127,4388.205078,450.0,3.0,73.0,,,,0.0,4.0,1.0,4.0,0.0,4.0,41.666668,,,,,,,,,,,,,,,,,,,,,,,,,,,,,,,,,,,,,,,,,,,,,,,,,,,,,,0.0,0.0,1.0,0.0,512.0,0.5173180000000001,,,,,,,,,,,,,,,,,,,,,,,,,
12699,1650413962.531378,1650413962.543519,110.0,0.0,4381.538574,4652.307617,4191.794922,4283.077147999999,4317.436035,450.0,3.0,73.0,,,,0.0,4.0,1.0,4.0,0.0,4.0,41.666668,,,,,,,,55.0,0.0,0.277346,-0.45458999999999994,0.46533199999999997,0.7070310000000001,0.9160299999999999,-0.41358100000000003,-0.145998,-0.046205,-0.053875,-0.017531,,,,,,,,,,,,,,,,,,,,,,,,,,,,,,,,,,,,,,,,,,,,,,,,,,,,,,,,,,,,,,,,,
12700,1650413962.539193,1650413962.551234,111.0,0.0,4327.179688,4612.307617,4197.436035,4280.512695,4282.563965,16240.0,3.0,73.0,,,,0.0,4.0,1.0,4.0,0.0,4.0,41.666668,,,,,,,,,,,,,,,,,,,,,,,,,,,,,,,,,,,,,,,,,,,,,,,,,,,,,,,,,,,,,,,,,,,,,,,,,,,,,,,,,,,,
12701,1650413962.547007,1650413962.5590491,112.0,0.0,4296.922852000001,4589.743652,4209.743652,4280.512695,4287.179688,450.0,3.0,73.0,,,,0.0,4.0,1.0,4.0,0.0,4.0,41.666668,,,,,,,,56.0,0.0,0.277346,-0.45458999999999994,0.46533199999999997,0.7070310000000001,0.9038219999999999,-0.420417,-0.154788,-0.045002999999999994,-0.053810000000000004,-0.015729,,,,,,,,,,,,,,,,,,,,,,,,,,,,,,,,,,,,,,,,,,,,,,,,,,,,,,,,,,,,,,,,,
12702,1650413962.554822,1650413962.5667632,113.0,0.0,4280.0,4596.922852000001,4219.487305,4281.538574,4275.384765999999,450.0,3.0,73.0,,,,0.0,4.0,1.0,4.0,0.0,4.0,41.666668,,,,,,,,,,,,,,,,,,,,,,,,,,,,,,,,,,,,,,,,,,,,,,,,,,,,,,10.0,0.0,1.0,0.0,512.0,0.5173180000000001,,,,,,,,,,,,,,,,,,,,,,,,,
12703,1650413962.5626369,1650413962.574578,114.0,0.0,4244.615234000001,4598.461426,4217.94873,4280.512695,4250.769043,450.0,3.0,73.0,,,,0.0,4.0,1.0,4.0,0.0,4.0,41.666668,,,,,,,,57.0,0.0,0.277346,-0.45458999999999994,0.46533199999999997,0.7070310000000001,0.9160299999999999,-0.40576799999999996,-0.14551,-0.04392,-0.053849,-0.014059,,,,,,,,,,,,,,,,,,,,,,,,,,,,,,,,,,,,,,,,,,,,,,,,,,,,,,,,,,,,,,,,,
12704,1650413962.570451,1650413962.582393,115.0,0.0,4202.563965,4610.256348,4215.384765999999,4280.512695,4228.717772999999,16240.0,3.0,73.0,,,,0.0,4.0,1.0,4.0,0.0,4.0,41.666668,,,,,,,,,,,,,,,,,,,,,,,,,,,,,,,,,,,,,,,,,,,,,,,,,,,,,,,,,,,,,,,,,,,,,,,,,,,,,,,,,,,,
12705,1650413962.578266,1650413962.590107,116.0,0.0,4177.94873,4613.333496,4217.436035,4281.025879,4190.769043,450.0,3.0,73.0,,,,0.0,4.0,1.0,4.0,0.0,4.0,41.666668,,,,,,,,58.0,0.0,0.277346,-0.45458999999999994,0.46533199999999997,0.7070310000000001,0.8955209999999999,-0.409186,-0.152346,-0.042946,-0.053933,-0.015924,,,,,,,,,,,,,,,,,,,,,,,,,,,,,,,,,,,,,,,,,,,,,,,,,,,,,,,,,,,,,,,,,
12706,1650413962.58608,1650413962.5978222,117.0,0.0,4158.974121,4607.692383,4210.256348,4280.512695,4156.922852000001,450.0,3.0,73.0,,,,0.0,4.0,1.0,4.0,0.0,4.0,41.666668,,,,,,,,,,,,,,,,,,,,,,,,,,,,,,,,,,,,,,,,,,,,,,,,,,,,,,10.0,0.0,1.0,0.0,512.0,0.5173180000000001,,,,,,,,,,,,,,,,,,,,,,,,,
12707,1650413962.593895,1650413962.6056368,118.0,0.0,4134.358886999999,4627.179688,4201.538574,4279.487305,4148.717772999999,450.0,3.0,73.0,,,,0.0,4.0,1.0,4.0,0.0,4.0,41.666668,,,,,,,,59.0,0.0,0.277346,-0.45458999999999994,0.46533199999999997,0.7070310000000001,0.923842,-0.409674,-0.151369,-0.043681,-0.053911,-0.017555,,,,,,,,,,,,,,,,,,,,,,,,,,,,,,,,,,,,,,,,,,,,,,,,,,,,,,,,,,,,,,,,,
12708,1650413962.601709,1650413962.613352,119.0,0.0,4113.333496,4645.128418,4197.436035,4277.94873,4134.871582,16240.0,3.0,73.0,,,,0.0,4.0,1.0,4.0,0.0,4.0,41.666668,,,,,,,,,,,,,,,,,,,,,,,,,,,,,,,,,,,,,,,,,,,,,,,,,,,,,,,,,,,,,,,,,,,,,,,,,,,,,,,,,,,,
12709,1650413962.609524,1650413962.621166,120.0,0.0,4110.256348,4638.461426,4194.871582,4278.461426,4116.410156,450.0,3.0,73.0,,,,0.0,4.0,1.0,4.0,0.0,4.0,41.666668,,,,,,,,60.0,0.0,0.277346,-0.45458999999999994,0.46533199999999997,0.7070310000000001,0.9111469999999999,-0.40576799999999996,-0.15820599999999999,-0.044294,-0.053841999999999994,-0.012918,,,,,,,,,,,,,,,,,,,,,,,,,,,,,,,,,,,,,,,,,,,,,,,,,,,,,,,,,,,,,,,,,
12710,1650413962.6173391,1650413962.628881,121.0,0.0,4110.769043,4638.974121,4197.436035,4278.974121,4120.0,450.0,3.0,73.0,,,,0.0,4.0,1.0,4.0,0.0,4.0,41.666668,,,,,,,,,,,,,,,,,,,,1.0,0.0,0.0,,,,,,,,,,,,,,,,,,,,,,,,,,,,,,,,10.0,0.0,1.0,0.0,512.0,0.5644319999999999,194.132141,17.19524,2.483428,1.9148619999999998,1.301393,11.90008,11.581517,9.881557,10.37963,16.249115,2.253673,1.489128,0.776794,0.857441,1.157979,0.068756,0.012182,0.004308,0.001518,0.00020099999999999998,74.346085,6.639297,2.320534,1.633435,1.4324620000000001
12711,1650413962.6251528,1650413962.636796,122.0,0.0,4109.743652,4632.820313,4206.666504,4278.461426,4132.307617,450.0,3.0,73.0,,,,0.0,4.0,1.0,4.0,0.0,4.0,41.666668,,,,,,,,61.0,0.0,0.276936,-0.45458999999999994,0.46557600000000005,0.7070310000000001,0.9243309999999999,-0.406744,-0.15674100000000002,-0.043233,-0.053877999999999995,-0.014898,,,,,,,,,,,,,,,,,,,,,,,,,,,,,,,,,,,,,,,,,,,,,,,,,,,,,,,,,,,,,,,,,
12712,1650413962.632968,1650413962.64461,123.0,0.0,4132.820313,4599.487305,4215.897461,4278.461426,4138.974121,16240.0,3.0,73.0,,,,0.0,4.0,1.0,4.0,0.0,4.0,41.666668,,,,,,,,,,,,,,,,,,,,,,,,,,,,,,,,,,,,,,,,,,,,,,,,,,,,,,,,,,,,,,,,,,,,,,,,,,,,,,,,,,,,
12713,1650413962.640782,1650413962.652525,124.0,0.0,4145.128418,4574.871582,4221.538574,4280.0,4140.512695,450.0,3.0,73.0,,,,0.0,4.0,1.0,4.0,0.0,4.0,41.666668,,,,,,,,62.0,0.0,0.276936,-0.45458999999999994,0.46557600000000005,0.7070310000000001,0.910658,-0.404791,-0.150881,-0.043891,-0.05391,-0.013212999999999999,,,,,,,,,,,,,,,,,,,,,,,,,,,,,,,,,,,,,,,,,,,,,,,,,,,,,,,,,,,,,,,,,
12714,1650413962.648597,1650413962.660339,125.0,0.0,4158.974121,4584.615234000001,4217.436035,4279.487305,4146.666504,450.0,3.0,73.0,,,,0.0,4.0,1.0,4.0,0.0,4.0,41.666668,,,,,,,,,,,,,,,,,,,,,,,,,,,,,,,,,,,,,,,,,,,,,,,,,,,,,,10.0,0.0,1.0,0.0,512.0,0.5644319999999999,,,,,,,,,,,,,,,,,,,,,,,,,
12715,1650413962.656412,1650413962.668254,126.0,0.0,4221.538574,4610.256348,4205.128418,4278.974121,4169.743652,450.0,3.0,73.0,,,,0.0,4.0,1.0,4.0,0.0,4.0,41.666668,,,,,,,,63.0,0.0,0.277149,-0.45458999999999994,0.46581999999999996,0.7067869999999999,0.9087049999999999,-0.42188100000000006,-0.163088,-0.044384,-0.053988,-0.015113999999999999,,,,,,,,,,,,,,,,,,,,,,,,,,,,,,,,,,,,,,,,,,,,,,,,,,,,,,,,,,,,,,,,,
12716,1650413962.664226,1650413962.676069,127.0,0.0,4311.282227000001,4584.102539,4208.205078,4280.512695,4251.282227000001,238.0,3.0,73.0,,,,0.0,4.0,1.0,4.0,0.0,4.0,41.666668,,,,,,,,,,,,,,,,,,,,,,,,,,,,,,,,,,,,,,,,,,,,,,,,,,,,,,,,,,,,,,,,,,,,,,,,,,,,,,,,,,,,
12717,1650413962.672041,1650413962.683883,0.0,0.0,4482.05127,4576.922852000001,4226.666504,4282.563965,4389.230957,450.0,3.0,73.0,,,,0.0,4.0,1.0,4.0,0.0,4.0,41.666668,,,,,,,,0.0,0.0,0.276525,-0.45458999999999994,0.46581999999999996,0.7070310000000001,0.917494,-0.42090500000000003,-0.14551,-0.044829,-0.054009,-0.016874,,,,,,,,,,,,,,,,,,,,,,,,,,,,,,,,,,,,,,,,,,,,,,,,,,,,,,,,,,,,,,,,,
12718,1650413962.679855,1650413962.691598,1.0,0.0,4759.487305,4681.025879,4233.846191,4286.153809,4508.205078,450.0,3.0,73.0,,,,0.0,4.0,1.0,4.0,0.0,4.0,41.666668,,,,,,,,,,,,,,,,,,,,,,,,,,,,,,,,,,,,,,,,,,,,,,,,,,,,,,10.0,0.0,1.0,0.0,512.0,0.5644319999999999,,,,,,,,,,,,,,,,,,,,,,,,,
12719,1650413962.68767,1650413962.699413,2.0,0.0,4984.615234000001,4648.717772999999,4240.0,4292.820313,4585.641113000001,16173.0,3.0,73.0,,,,0.0,4.0,1.0,4.0,0.0,4.0,41.666668,,,,,,,,1.0,0.0,0.276936,-0.45458999999999994,0.46557600000000005,0.7070310000000001,0.9131,-0.409186,-0.14111500000000002,-0.045278,-0.054028,-0.015137999999999999,,,,,,,,,,,,,,,,,,,,,,,,,,,,,,,,,,,,,,,,,,,,,,,,,,,,,,,,,,,,,,,,,
12720,1650413962.695484,1650413962.7071269,3.0,0.0,5138.974121,4546.666504,4235.897461,4297.94873,4635.897461,450.0,3.0,73.0,,,,0.0,4.0,1.0,4.0,0.0,4.0,41.666668,,,,,,,,,,,,,,,,,,,,,,,,,,,,,,,,,,,,,,,,,,,,,,,,,,,,,,,,,,,,,,,,,,,,,,,,,,,,,,,,,,,,
12721,1650413962.703299,1650413962.714842,4.0,0.0,5319.487305,4688.205078,4207.692383,4300.0,4659.487305,41.0,3.0,73.0,,,,0.0,4.0,0.0,4.0,0.0,4.0,33.333332,,,,,,,,2.0,0.0,0.276936,-0.45458999999999994,0.46557600000000005,0.7070310000000001,0.906752,-0.415045,-0.161624,-0.04573,-0.054046000000000004,-0.016944999999999998,,,,,,,,,,,,,,,,,,,,,,,,,,,,,,,,,,,,,,,,,,,,,,,,,,,,,,,,,,,,,,,,,
12722,1650413962.7111142,1650413962.722657,5.0,0.0,5386.153809,4725.641113000001,4226.153809,4298.461426,4687.692383,450.0,3.0,73.0,,,,0.0,4.0,0.0,4.0,0.0,4.0,33.333332,,,,,,,,,,,,,,,,,,,,,,,,,,,,,,,,,,,,,,,,,,,,,,,,,,,,,,0.0,0.0,1.0,0.0,512.0,0.5644319999999999,,,,,,,,,,,,,,,,,,,,,,,,,
12723,1650413962.7189279,1650413962.7304711,6.0,0.0,5306.153809,4446.666504,4278.461426,4297.436035,4708.717772999999,16106.0,3.0,73.0,,,,0.0,4.0,0.0,4.0,0.0,4.0,33.333332,,,,,,,,3.0,0.0,0.276936,-0.45458999999999994,0.46557600000000005,0.7070310000000001,0.9072399999999999,-0.416022,-0.155276,-0.044575,-0.054061,-0.018424,,,,,,,,,,,,,,,,,,,,,,,,,,,,,,,,,,,,,,,,,,,,,,,,,,,,,,,,,,,,,,,,,
12724,1650413962.726743,1650413962.738186,7.0,0.0,5288.717772999999,4415.897461,4251.794922,4302.05127,4660.0,450.0,3.0,73.0,,,,0.0,4.0,0.0,4.0,0.0,4.0,33.333332,,,,,,,,,,,,,,,,,,,,,,,,,,,,,,,,,,,,,,,,,,,,,,,,,,,,,,,,,,,,,,,,,,,,,,,,,,,,,,,,,,,,
12725,1650413962.734557,1650413962.7459009,8.0,0.0,5312.820313,4644.615234000001,4218.461426,4303.077147999999,4620.0,450.0,3.0,73.0,,,,0.0,4.0,0.0,4.0,0.0,4.0,33.333332,,,,,,,,4.0,0.0,0.276936,-0.45458999999999994,0.46557600000000005,0.7070310000000001,0.9077290000000001,-0.415534,-0.16846,-0.045001,-0.053977,-0.02,,,,,,,,,,,,,,,,,,,,,,,,,,,,,,,,,,,,,,,,,,,,,,,,,,,,,,,,,,,,,,,,,
12726,1650413962.742372,1650413962.753716,9.0,0.0,5227.179688,4619.487305,4257.436035,4298.461426,4634.871582,0.0,3.0,73.0,,,,0.0,4.0,0.0,4.0,0.0,4.0,33.333332,1.0,8.333333,1.0,0.0,4.0,0.0,3.0,,,,,,,,,,,,,1.0,0.0,0.0,,,,,,,,,,,,,,,,,,,,,,,,,,,,,,,,0.0,0.0,64.0,1.0,1.0,0.0,535.136292,45.263702,3.910082,2.728462,1.635943,10.354308,11.899582,9.576541,11.491624,17.164454,2.295788,1.57007,0.725597,0.8532120000000001,1.224709,0.195856,0.034194999999999996,0.010145999999999999,0.003757,0.000646,202.429245,15.68896,3.2492400000000004,1.9065150000000002,1.5163280000000001
12727,1650413962.750186,1650413962.7615302,10.0,0.0,5076.410156,4505.128418,4268.717772999999,4295.384765999999,4584.102539,450.0,3.0,73.0,,,,0.0,4.0,0.0,4.0,0.0,4.0,33.333332,,,,,,,,5.0,0.0,0.276936,-0.45458999999999994,0.46557600000000005,0.7070310000000001,0.906752,-0.415045,-0.161624,-0.045481,-0.053999,-0.02132,,,,,,,,,,,,,,,,,,,,,,,,,,,,,,,,,,,,,,,,,,,,,,,,,,,,,,,,,,,,,,,,,
12728,1650413962.758001,1650413962.769245,11.0,0.0,4962.05127,4598.461426,4232.820313,4297.436035,4489.743652,16226.0,3.0,73.0,,,,0.0,4.0,0.0,4.0,0.0,4.0,33.333332,,,,,,,,,,,,,,,,,,,,,,,,,,,,,,,,,,,,,,,,,,,,,,,,,,,,,,,,,,,,,,,,,,,,,,,,,,,,,,,,,,,,
12729,1650413962.765816,1650413962.77696,12.0,0.0,4838.974121,4648.717772999999,4218.974121,4295.384765999999,4447.692383,450.0,3.0,73.0,,,,0.0,4.0,0.0,4.0,0.0,4.0,33.333332,,,,,,,,6.0,0.0,0.277559,-0.45458999999999994,0.46557600000000005,0.7067869999999999,0.916518,-0.41406899999999996,-0.135256,-0.045913999999999996,-0.054020000000000006,-0.01621,,,,,,,,,,,,,,,,,,,,,,,,,,,,,,,,,,,,,,,,,,,,,,,,,,,,,,,,,,,,,,,,,
12730,1650413962.7736301,1650413962.784874,13.0,0.0,4681.538574,4545.128418,4215.897461,4287.179688,4398.461426,450.0,3.0,73.0,,,,0.0,4.0,0.0,4.0,0.0,4.0,33.333332,,,,,,,,,,,,,,,,,,,,,,,,,,,,,,,,,,,,,,,,,,,,,,,,,,,,,,0.0,0.0,64.0,1.0,1.0,0.0,,,,,,,,,,,,,,,,,,,,,,,,,
12731,1650413962.781445,1650413962.792689,14.0,0.0,4581.025879,4505.128418,4215.897461,4281.025879,4349.743652,450.0,3.0,73.0,,,,0.0,4.0,0.0,4.0,0.0,4.0,33.333332,,,,,,,,7.0,0.0,0.277346,-0.45458999999999994,0.46533199999999997,0.7070310000000001,0.914076,-0.412116,-0.147463,-0.044739999999999995,-0.054086,-0.020643,,,,,,,,,,,,,,,,,,,,,,,,,,,,,,,,,,,,,,,,,,,,,,,,,,,,,,,,,,,,,,,,,
12732,1650413962.789259,1650413962.800504,15.0,0.0,4526.153809,4609.230957,4215.897461,4281.025879,4340.512695,16226.0,3.0,73.0,,,,0.0,4.0,0.0,4.0,0.0,4.0,33.333332,,,,,,,,,,,,,,,,,,,,,,,,,,,,,,,,,,,,,,,,,,,,,,,,,,,,,,,,,,,,,,,,,,,,,,,,,,,,,,,,,,,,
12733,1650413962.797074,1650413962.808218,16.0,0.0,4427.692383,4662.563965,4195.897461,4282.563965,4301.025879,0.0,3.0,73.0,,,,0.0,4.0,0.0,4.0,0.0,4.0,33.333332,,,,,,,,8.0,0.0,0.277346,-0.45458999999999994,0.46533199999999997,0.7070310000000001,0.922377,-0.41651000000000005,-0.15820599999999999,-0.045198,-0.054147,-0.0156,,,,,,,,,,,,,,,,,,,,,,,,,,,,,,,,,,,,,,,,,,,,,,,,,,,,,,,,,,,,,,,,,
12734,1650413962.804888,1650413962.8160331,17.0,0.0,4335.384765999999,4561.538574,4195.384765999999,4282.563965,4244.102539,0.0,3.0,73.0,,,,0.0,4.0,0.0,4.0,0.0,4.0,33.333332,,,,,,,,,,,,,,,,,,,,,,,,,,,,,,,,,,,,,,,,,,,,,,,,,,,,,,0.0,0.0,64.0,1.0,1.0,0.0,,,,,,,,,,,,,,,,,,,,,,,,,
12735,1650413962.812703,1650413962.823748,18.0,0.0,4315.897461,4544.615234000001,4221.538574,4283.077147999999,4236.410156,0.0,3.0,73.0,,,,0.0,4.0,0.0,4.0,0.0,4.0,33.333332,,,,,,,,9.0,0.0,0.277346,-0.45458999999999994,0.46533199999999997,0.7070310000000001,0.9209129999999999,-0.41699899999999995,-0.145022,-0.045708,-0.054005,-0.017361,,,,,,,,,,,,,,,,,,,,,,,,,,,,,,,,,,,,,,,,,,,,,,,,,,,,,,,,,,,,,,,,,
12736,1650413962.820518,1650413962.8315618,19.0,0.0,4284.615234000001,4638.974121,4222.05127,4282.563965,4232.820313,0.0,3.0,73.0,,,,0.0,4.0,0.0,4.0,0.0,4.0,33.333332,,,,,,,,,,,,,,,,,,,,,,,,,,,,,,,,,,,,,,,,,,,,,,,,,,,,,,,,,,,,,,,,,,,,,,,,,,,,,,,,,,,,
12737,1650413962.828332,1650413962.839277,20.0,0.0,4220.0,4622.563965,4213.846191,4282.05127,4190.769043,0.0,3.0,73.0,,,,0.0,4.0,0.0,4.0,0.0,4.0,33.333332,,,,,,,,10.0,0.0,0.277346,-0.45458999999999994,0.46533199999999997,0.7070310000000001,0.9126120000000001,-0.41260399999999997,-0.163088,-0.046166000000000006,-0.054074000000000004,-0.012597,,,,,,,,,,,,,,,,,,,,,,,,,,,,,,,,,,,,,,,,,,,,,,,,,,,,,,,,,,,,,,,,,
12738,1650413962.836147,1650413962.847192,21.0,0.0,4192.307617,4610.769043,4216.922852000001,4282.05127,4158.974121,0.0,3.0,73.0,,,,0.0,4.0,0.0,4.0,0.0,4.0,33.333332,,,,,,,,,,,,,,,,,,,,,,,,,,,,,,,,,,,,,,,,,,,,,,,,,,,,,,0.0,0.0,64.0,1.0,1.0,0.0,,,,,,,,,,,,,,,,,,,,,,,,,
12739,1650413962.843961,1650413962.855006,22.0,0.0,4177.94873,4704.615234000001,4216.922852000001,4280.512695,4160.512695,0.0,3.0,73.0,,,,0.0,4.0,0.0,4.0,0.0,4.0,33.333332,,,,,,,,11.0,0.0,0.277346,-0.45458999999999994,0.46533199999999997,0.7070310000000001,0.9194479999999999,-0.42188100000000006,-0.150393,-0.044919,-0.054038,-0.014658000000000001,,,,,,,,,,,,,,,,,,,,,,,,,,,,,,,,,,,,,,,,,,,,,,,,,,,,,,,,,,,,,,,,,
12740,1650413962.851776,1650413962.8627212,23.0,0.0,4145.128418,4693.846191,4215.897461,4280.512695,4155.897461,0.0,3.0,73.0,,,,0.0,4.0,0.0,4.0,0.0,4.0,33.333332,,,,,,,,,,,,,,,,,,,,,,,,,,,,,,,,,,,,,,,,,,,,,,,,,,,,,,,,,,,,,,,,,,,,,,,,,,,,,,,,,,,,
12741,1650413962.85959,1650413962.8705359,24.0,0.0,4121.538574,4598.974121,4221.538574,4281.025879,4132.820313,0.0,3.0,73.0,,,,0.0,4.0,0.0,4.0,0.0,4.0,33.333332,,,,,,,,12.0,0.0,0.277746,-0.454346,0.46533199999999997,0.7070310000000001,0.910658,-0.400885,-0.15332300000000001,-0.045456,-0.053907000000000004,-0.016513,,,,,,,,,,,,,,,,,,,,,,,,,,,,,,,,,,,,,,,,,,,,,,,,,,,,,,,,,,,,,,,,,
12742,1650413962.8674052,1650413962.87835,25.0,0.0,4114.871582,4638.974121,4211.794922,4280.512695,4112.307617,0.0,3.0,73.0,,,,0.0,4.0,0.0,4.0,0.0,4.0,33.333332,,,,,,,,,,,,,,,,,,,,1.0,0.0,0.0,,,,,,,,,,,,,,,,,,,,,,,,,,,,,,,,0.0,0.0,64.0,1.0,1.0,0.0,1152.911133,99.931793,6.859850999999999,3.929161,2.036036,9.706923,12.067121,9.61107,13.400545999999999,18.508663000000002,2.606621,1.6131149999999999,0.7326739999999999,0.8645450000000001,1.300625,0.425515,0.07796900000000001,0.018406,0.007388,0.001639,433.23321500000003,33.350712,4.965403,2.375978,1.662091
12743,1650413962.8752198,1650413962.886065,26.0,0.0,4101.538574,4665.641113000001,4196.922852000001,4280.512695,4107.179688,0.0,3.0,73.0,,,,0.0,4.0,0.0,4.0,0.0,4.0,33.333332,,,,,,,,13.0,0.0,0.277746,-0.454346,0.46533199999999997,0.7070310000000001,0.910658,-0.404791,-0.14990499999999998,-0.045989,-0.053888,-0.018182,,,,,,,,,,,,,,,,,,,,,,,,,,,,,,,,,,,,,,,,,,,,,,,,,,,,,,,,,,,,,,,,,
12744,1650413962.883034,1650413962.8938801,27.0,0.0,4083.5898439999996,4609.743652,4201.538574,4281.025879,4096.922852000001,0.0,3.0,73.0,,,,0.0,4.0,0.0,4.0,0.0,4.0,33.333332,,,,,,,,,,,,,,,,,,,,,,,,,,,,,,,,,,,,,,,,,,,,,,,,,,,,,,,,,,,,,,,,,,,,,,,,,,,,,,,,,,,,
12745,1650413962.890849,1650413962.901594,28.0,0.0,4070.7692869999996,4617.94873,4209.230957,4277.94873,4080.512939,0.0,3.0,73.0,,,,0.0,4.0,0.0,4.0,0.0,4.0,33.333332,,,,,,,,14.0,0.0,0.277746,-0.454346,0.46533199999999997,0.7070310000000001,0.894545,-0.410163,-0.151858,-0.046322,-0.053821,-0.013385,,,,,,,,,,,,,,,,,,,,,,,,,,,,,,,,,,,,,,,,,,,,,,,,,,,,,,,,,,,,,,,,,
12746,1650413962.898663,1650413962.909309,29.0,0.0,4065.1281740000004,4628.717772999999,4210.256348,4276.410156,4078.974365,0.0,3.0,73.0,,,,0.0,4.0,0.0,4.0,0.0,4.0,33.333332,,,,,,,,,,,,,,,,,,,,,,,,,,,,,,,,,,,,,,,,,,,,,,,,,,,,,,0.0,0.0,64.0,1.0,1.0,0.0,,,,,,,,,,,,,,,,,,,,,,,,,
12747,1650413962.906478,1650413962.917124,30.0,0.0,4062.5642090000006,4604.102539,4211.794922,4278.974121,4082.5642090000006,0.0,3.0,73.0,,,,0.0,4.0,0.0,4.0,0.0,4.0,33.333332,,,,,,,,15.0,0.0,0.277746,-0.454346,0.46533199999999997,0.7070310000000001,0.9155409999999999,-0.40528000000000003,-0.161624,-0.045107999999999995,-0.053762,-0.011998,,,,,,,,,,,,,,,,,,,,,,,,,,,,,,,,,,,,,,,,,,,,,,,,,,,,,,,,,,,,,,,,,
12748,1650413962.914292,1650413962.924839,31.0,0.0,4060.512939,4619.487305,4217.94873,4280.512695,4090.256348,0.0,3.0,73.0,,,,0.0,4.0,0.0,4.0,0.0,4.0,33.333332,,,,,,,,,,,,,,,,,,,,,,,,,,,,,,,,,,,,,,,,,,,,,,,,,,,,,,,,,,,,,,,,,,,,,,,,,,,,,,,,,,,,
12749,1650413962.922107,1650413962.932653,32.0,0.0,4067.6923829999996,4634.358886999999,4224.615234000001,4279.487305,4104.102539,0.0,3.0,73.0,,,,0.0,4.0,0.0,4.0,0.0,4.0,33.333332,,,,,,,,16.0,0.0,0.277746,-0.454346,0.46533199999999997,0.7070310000000001,0.917006,-0.412116,-0.14844000000000002,-0.045528,-0.053805,-0.010749,,,,,,,,,,,,,,,,,,,,,,,,,,,,,,,,,,,,,,,,,,,,,,,,,,,,,,,,,,,,,,,,,
12750,1650413962.929922,1650413962.940368,33.0,0.0,4066.6667479999996,4596.410156,4226.666504,4280.0,4098.461426,0.0,3.0,73.0,,,,0.0,4.0,0.0,4.0,0.0,4.0,33.333332,,,,,,,,,,,,,,,,,,,,,,,,,,,,,,,,,,,,,,,,,,,,,,,,,,,,,,0.0,0.0,64.0,1.0,1.0,0.0,,,,,,,,,,,,,,,,,,,,,,,,,
12751,1650413962.937736,1650413962.948183,34.0,0.0,4049.2307130000004,4606.153809,4220.512695,4280.512695,4081.025635,0.0,3.0,73.0,,,,0.0,4.0,0.0,4.0,0.0,4.0,33.333332,,,,,,,,17.0,0.0,0.277746,-0.454346,0.46533199999999997,0.7070310000000001,0.9087049999999999,-0.411627,-0.16406500000000002,-0.044491,-0.053796000000000004,-0.012994,,,,,,,,,,,,,,,,,,,,,,,,,,,,,,,,,,,,,,,,,,,,,,,,,,,,,,,,,,,,,,,,,
12752,1650413962.945551,1650413962.955897,35.0,0.0,4044.615479,4655.897461,4214.358886999999,4277.94873,4093.3332520000004,0.0,3.0,73.0,,,,0.0,4.0,0.0,4.0,0.0,4.0,33.333332,,,,,,,,,,,,,,,,,,,,,,,,,,,,,,,,,,,,,,,,,,,,,,,,,,,,,,,,,,,,,,,,,,,,,,,,,,,,,,,,,,,,
12753,1650413962.953365,1650413962.963712,36.0,0.0,4052.820557,4626.666504,4220.512695,4277.94873,4105.128418,0.0,3.0,73.0,,,,0.0,4.0,0.0,4.0,0.0,4.0,33.333332,,,,,,,,18.0,0.0,0.277746,-0.454346,0.46533199999999997,0.7070310000000001,0.908217,-0.40283800000000003,-0.15674100000000002,-0.045072,-0.053836,-0.011597,,,,,,,,,,,,,,,,,,,,,,,,,,,,,,,,,,,,,,,,,,,,,,,,,,,,,,,,,,,,,,,,,
12754,1650413962.96118,1650413962.971427,37.0,0.0,4048.718018,4602.05127,4211.282227000001,4281.538574,4071.281982,0.0,3.0,73.0,,,,0.0,4.0,0.0,4.0,0.0,4.0,33.333332,,,,,,,,,,,,,,,,,,,,,,,,,,,,,,,,,,,,,,,,,,,,,,,,,,,,,,0.0,0.0,64.0,1.0,1.0,0.0,,,,,,,,,,,,,,,,,,,,,,,,,
12755,1650413962.9689949,1650413962.9792411,38.0,0.0,4031.794922,4651.794922,4184.102539,4275.384765999999,4040.512939,0.0,3.0,73.0,,,,0.0,4.0,0.0,4.0,0.0,4.0,33.333332,,,,,,,,19.0,0.0,0.27815500000000004,-0.454346,0.465088,0.7070310000000001,0.9087049999999999,-0.400397,-0.15967,-0.043836,-0.053922000000000005,-0.010242,,,,,,,,,,,,,,,,,,,,,,,,,,,,,,,,,,,,,,,,,,,,,,,,,,,,,,,,,,,,,,,,,
12756,1650413962.976809,1650413962.9869561,39.0,0.0,4015.897461,4646.666504,4177.94873,4265.641113000001,4049.2307130000004,0.0,3.0,73.0,,,,0.0,4.0,0.0,4.0,0.0,4.0,33.333332,,,,,,,,,,,,,,,,,,,,,,,,,,,,,,,,,,,,,,,,,,,,,,,,,,,,,,,,,,,,,,,,,,,,,,,,,,,,,,,,,,,,
12757,1650413962.984624,1650413962.994771,40.0,0.0,4021.025635,4570.769043,4198.461426,4273.333496,4071.281982,0.0,3.0,73.0,,,,0.0,4.0,0.0,4.0,0.0,4.0,33.333332,,,,,,,,20.0,0.0,0.27815500000000004,-0.454346,0.465088,0.7070310000000001,0.9126120000000001,-0.41944,-0.15332300000000001,-0.042919,-0.053949000000000004,-0.015322,,,,,,,,,,,,,,,,,,,,,,,,,,,,,,,,,,,,,,,,,,,,,,,,,,,,,,,,,,,,,,,,,
12758,1650413962.992438,1650413963.002486,41.0,0.0,4040.0,4573.333496,4208.717772999999,4281.538574,4076.923096,0.0,3.0,73.0,,,,0.0,4.0,0.0,4.0,0.0,4.0,33.333332,,,,,,,,,,,,,,,,,,,,1.0,0.0,0.0,,,,,,,,,,,,,,,,,,,,,,,,,,,,,,,,0.0,0.0,64.0,1.0,1.0,0.0,2089.438477,184.61969,12.028896000000001,5.485451,2.430157,9.849832000000001,12.174133,10.244495,15.760644000000001,20.223038,3.178482,1.633294,0.8194520000000001,0.8900100000000001,1.376666,0.769315,0.146392,0.027472000000000003,0.012415,0.0035020000000000003,771.3740230000001,59.809437,7.545903999999999,3.076061,1.844887
12759,1650413963.000253,1650413963.0103,42.0,0.0,4033.8461909999996,4632.307617,4195.897461,4272.307617,4066.1538090000004,0.0,3.0,73.0,,,,0.0,4.0,0.0,4.0,0.0,4.0,33.333332,,,,,,,,21.0,0.0,0.27815500000000004,-0.454346,0.465088,0.7070310000000001,0.9150530000000001,-0.413092,-0.157229,-0.042045,-0.053975,-0.017061,,,,,,,,,,,,,,,,,,,,,,,,,,,,,,,,,,,,,,,,,,,,,,,,,,,,,,,,,,,,,,,,,
12760,1650413963.008067,1650413963.0180151,43.0,0.0,4013.8461909999996,4642.05127,4185.128418,4266.153809,4064.615479,0.0,3.0,73.0,,,,0.0,4.0,0.0,4.0,0.0,4.0,33.333332,,,,,,,,,,,,,,,,,,,,,,,,,,,,,,,,,,,,,,,,,,,,,,,,,,,,,,,,,,,,,,,,,,,,,,,,,,,,,,,,,,,,
12761,1650413963.015882,1650413963.02583,44.0,0.0,4027.179443,4604.615234000001,4193.846191,4272.307617,4080.0,0.0,3.0,73.0,,,,0.0,4.0,0.0,4.0,0.0,4.0,33.333332,,,,,,,,22.0,0.0,0.278553,-0.45410200000000006,0.465088,0.7070310000000001,0.901869,-0.423346,-0.154788,-0.042821,-0.054046000000000004,-0.018675,,,,,,,,,,,,,,,,,,,,,,,,,,,,,,,,,,,,,,,,,,,,,,,,,,,,,,,,,,,,,,,,,
12762,1650413963.0236971,1650413963.033544,45.0,0.0,4053.3332520000004,4565.128418,4217.436035,4272.820313,4091.794922,0.0,3.0,73.0,,,,0.0,4.0,0.0,4.0,0.0,4.0,33.333332,,,,,,,,,,,,,,,,,,,,,,,,,,,,,,,,,,,,,,,,,,,,,,,,,,,,,,0.0,0.0,64.0,1.0,1.0,0.0,,,,,,,,,,,,,,,,,,,,,,,,,
12763,1650413963.0315108,1650413963.041359,46.0,0.0,4043.076904,4600.0,4219.487305,4271.282227000001,4077.4357909999994,0.0,3.0,73.0,,,,0.0,4.0,0.0,4.0,0.0,4.0,33.333332,,,,,,,,23.0,0.0,0.27815500000000004,-0.454346,0.465088,0.7070310000000001,0.9126120000000001,-0.41944,-0.15332300000000001,-0.042006,-0.054061,-0.022911,,,,,,,,,,,,,,,,,,,,,,,,,,,,,,,,,,,,,,,,,,,,,,,,,,,,,,,,,,,,,,,,,
12764,1650413963.039326,1650413963.049074,47.0,0.0,4023.5898439999996,4676.922852000001,4201.538574,4272.820313,4058.461426,0.0,3.0,73.0,,,,0.0,4.0,0.0,4.0,0.0,4.0,33.333332,,,,,,,,,,,,,,,,,,,,,,,,,,,,,,,,,,,,,,,,,,,,,,,,,,,,,,,,,,,,,,,,,,,,,,,,,,,,,,,,,,,,
12765,1650413963.0471401,1650413963.056888,48.0,0.0,4035.897461,4667.692383,4205.641113000001,4271.282227000001,4066.6667479999996,0.0,3.0,73.0,,,,0.0,4.0,0.0,4.0,0.0,4.0,33.333332,,,,,,,,24.0,0.0,0.278553,-0.45410200000000006,0.465088,0.7070310000000001,0.901869,-0.423346,-0.154788,-0.042786000000000005,-0.054124,-0.023941,,,,,,,,,,,,,,,,,,,,,,,,,,,,,,,,,,,,,,,,,,,,,,,,,,,,,,,,,,,,,,,,,
12766,1650413963.054955,1650413963.0646029,49.0,0.0,4063.076904,4630.769043,4222.563965,4275.897461,4089.2307130000004,0.0,3.0,73.0,,,,0.0,4.0,0.0,4.0,0.0,4.0,33.333332,,,,,,,,,,,,,,,,,,,,,,,,,,,,,,,,,,,,,,,,,,,,,,,,,,,,,,0.0,0.0,64.0,1.0,1.0,0.0,,,,,,,,,,,,,,,,,,,,,,,,,
12767,1650413963.062769,1650413963.0725179,50.0,0.0,4066.1538090000004,4649.230957,4223.077147999999,4282.563965,4094.358887,0.0,3.0,73.0,,,,0.0,4.0,0.0,4.0,0.0,4.0,33.333332,,,,,,,,25.0,0.0,0.278145,-0.45410200000000006,0.46533199999999997,0.7070310000000001,0.8930799999999999,-0.406744,-0.16894800000000001,-0.043488,-0.054034000000000006,-0.021498,,,,,,,,,,,,,,,,,,,,,,,,,,,,,,,,,,,,,,,,,,,,,,,,,,,,,,,,,,,,,,,,,
12768,1650413963.070584,1650413963.080332,51.0,0.0,4047.6923829999996,4617.436035,4212.820313,4273.846191,4085.641113,0.0,3.0,73.0,,,,0.0,4.0,0.0,4.0,0.0,4.0,33.333332,,,,,,,,,,,,,,,,,,,,,,,,,,,,,,,,,,,,,,,,,,,,,,,,,,,,,,,,,,,,,,,,,,,,,,,,,,,,,,,,,,,,
12769,1650413963.078399,1650413963.088047,52.0,0.0,4050.256348,4562.05127,4213.846191,4264.102539,4092.3076170000004,0.0,3.0,73.0,,,,0.0,4.0,0.0,4.0,0.0,4.0,33.333332,,,,,,,,26.0,0.0,0.278543,-0.45385699999999995,0.46533199999999997,0.7070310000000001,0.9160299999999999,-0.400885,-0.154788,-0.042606,-0.053952999999999994,-0.022619,,,,,,,,,,,,,,,,,,,,,,,,,,,,,,,,,,,,,,,,,,,,,,,,,,,,,,,,,,,,,,,,,
12770,1650413963.086213,1650413963.095862,53.0,0.0,4073.3332520000004,4610.769043,4223.077147999999,4272.307617,4103.077147999999,0.0,3.0,73.0,,,,0.0,4.0,0.0,4.0,0.0,4.0,33.333332,,,,,,,,,,,,,,,,,,,,,,,,,,,,,,,,,,,,,,,,,,,,,,,,,,,,,,0.0,0.0,64.0,1.0,1.0,0.0,,,,,,,,,,,,,,,,,,,,,,,,,
12771,1650413963.094028,1650413963.103576,54.0,0.0,4078.461426,4676.410156,4224.615234000001,4282.05127,4101.538574,0.0,3.0,73.0,,,,0.0,4.0,0.0,4.0,0.0,4.0,33.333332,,,,,,,,27.0,0.0,0.278543,-0.45385699999999995,0.46533199999999997,0.7070310000000001,0.9150530000000001,-0.409674,-0.157229,-0.043325999999999996,-0.05388,-0.020309,,,,,,,,,,,,,,,,,,,,,,,,,,,,,,,,,,,,,,,,,,,,,,,,,,,,,,,,,,,,,,,,,
12772,1650413963.101842,1650413963.111391,55.0,0.0,4065.641113,4668.717772999999,4216.922852000001,4276.410156,4104.102539,0.0,3.0,73.0,,,,0.0,4.0,0.0,4.0,0.0,4.0,33.333332,,,,,,,,,,,,,,,,,,,,,,,,,,,,,,,,,,,,,,,,,,,,,,,,,,,,,,,,,,,,,,,,,,,,,,,,,,,,,,,,,,,,
12773,1650413963.109657,1650413963.119106,56.0,0.0,4063.5898439999996,4655.384765999999,4213.846191,4271.282227000001,4103.589844,0.0,3.0,73.0,,,,0.0,4.0,0.0,4.0,0.0,4.0,33.333332,,,,,,,,28.0,0.0,0.278553,-0.45410200000000006,0.465088,0.7070310000000001,0.9209129999999999,-0.406744,-0.163088,-0.043974,-0.053814,-0.021549000000000002,,,,,,,,,,,,,,,,,,,,,,,,,,,,,,,,,,,,,,,,,,,,,,,,,,,,,,,,,,,,,,,,,
12774,1650413963.117471,1650413963.1269212,57.0,0.0,4067.179443,4676.922852000001,4220.0,4272.820313,4090.256348,0.0,3.0,73.0,,,,0.0,4.0,0.0,4.0,0.0,4.0,33.333332,,,,,,,,,,,,,,,,,,,,1.0,0.0,0.0,,,,,,,,,,,,,,,,,,,,,,,,,,,,,,,,0.0,0.0,1.0,0.0,512.0,0.599128,3264.813477,291.615082,19.511909,7.272327000000001,2.7673669999999997,10.749350999999999,12.118484,11.47673,17.925259,22.261135,3.924325,1.702146,0.9661629999999999,0.925745,1.4445370000000002,1.195737,0.232652,0.035454,0.018506,0.006567,1170.372559,91.423859,10.707467,3.9658010000000004,2.0257330000000002
12775,1650413963.1252859,1650413963.1347349,58.0,0.0,4066.6667479999996,4672.820313,4230.769043,4272.820313,4097.94873,0.0,3.0,73.0,,,,0.0,4.0,0.0,4.0,0.0,4.0,33.333332,,,,,,,,29.0,0.0,0.278553,-0.45410200000000006,0.465088,0.7070310000000001,0.9160299999999999,-0.41699899999999995,-0.154299,-0.043043,-0.053755,-0.022666,,,,,,,,,,,,,,,,,,,,,,,,,,,,,,,,,,,,,,,,,,,,,,,,,,,,,,,,,,,,,,,,,
12776,1650413963.133101,1650413963.14245,59.0,0.0,4069.743652,4641.025879,4235.897461,4271.794922,4119.487305,0.0,3.0,73.0,,,,0.0,4.0,0.0,4.0,0.0,4.0,33.333332,,,,,,,,,,,,,,,,,,,,,,,,,,,,,,,,,,,,,,,,,,,,,,,,,,,,,,,,,,,,,,,,,,,,,,,,,,,,,,,,,,,,
12777,1650413963.1409152,1650413963.150165,60.0,0.0,4066.1538090000004,4630.769043,4222.563965,4271.794922,4094.8718259999996,0.0,3.0,73.0,,,,0.0,4.0,0.0,4.0,0.0,4.0,33.333332,,,,,,,,30.0,0.0,0.278553,-0.45410200000000006,0.465088,0.7070310000000001,0.901381,-0.410163,-0.15332300000000001,-0.042108,-0.053653,-0.026601,,,,,,,,,,,,,,,,,,,,,,,,,,,,,,,,,,,,,,,,,,,,,,,,,,,,,,,,,,,,,,,,,
12778,1650413963.14873,1650413963.157979,61.0,0.0,4055.897461,4629.230957,4211.794922,4272.307617,4058.974365,0.0,3.0,73.0,,,,0.0,4.0,0.0,4.0,0.0,4.0,33.333332,,,,,,,,,,,,,,,,,,,,,,,,,,,,,,,,,,,,,,,,,,,,,,,,,,,,,,0.0,0.0,1.0,0.0,512.0,0.599128,,,,,,,,,,,,,,,,,,,,,,,,,
12779,1650413963.156544,1650413963.165694,62.0,0.0,4045.641113,4634.358886999999,4210.769043,4272.820313,4064.102539,0.0,3.0,73.0,,,,0.0,4.0,0.0,4.0,0.0,4.0,33.333332,,,,,,,,31.0,0.0,0.279172,-0.45410200000000006,0.465088,0.7067869999999999,0.9087049999999999,-0.41113900000000003,-0.161135,-0.042829,-0.053659000000000005,-0.023794,,,,,,,,,,,,,,,,,,,,,,,,,,,,,,,,,,,,,,,,,,,,,,,,,,,,,,,,,,,,,,,,,
12780,1650413963.164359,1650413963.173509,63.0,0.0,4046.6667479999996,4637.436035,4209.230957,4273.333496,4081.025635,0.0,3.0,73.0,,,,0.0,4.0,0.0,4.0,0.0,4.0,33.333332,,,,,,,,,,,,,,,,,,,,,,,,,,,,,,,,,,,,,,,,,,,,,,,,,,,,,,,,,,,,,,,,,,,,,,,,,,,,,,,,,,,,
12781,1650413963.172173,1650413963.1812232,64.0,0.0,4077.4357909999994,4609.743652,4218.461426,4272.820313,4097.94873,450.0,3.0,73.0,,,,0.0,4.0,0.0,4.0,0.0,4.0,33.333332,,,,,,,,32.0,0.0,0.278553,-0.45410200000000006,0.465088,0.7070310000000001,0.9155409999999999,-0.40235,-0.163577,-0.042013,-0.053517999999999996,-0.024686000000000003,,,,,,,,,,,,,,,,,,,,,,,,,,,,,,,,,,,,,,,,,,,,,,,,,,,,,,,,,,,,,,,,,
12782,1650413963.1799881,1650413963.189038,65.0,0.0,4103.589844,4567.692383,4235.897461,4271.794922,4108.205078,450.0,3.0,73.0,,,,0.0,4.0,0.0,4.0,0.0,4.0,33.333332,,,,,,,,,,,,,,,,,,,,,,,,,,,,,,,,,,,,,,,,,,,,,,,,,,,,,,0.0,0.0,1.0,0.0,512.0,0.599128,,,,,,,,,,,,,,,,,,,,,,,,,
12783,1650413963.187803,1650413963.196753,66.0,0.0,4087.179443,4580.0,4233.333496,4272.307617,4090.256348,16201.0,3.0,73.0,,,,0.0,4.0,0.0,4.0,0.0,4.0,33.333332,,,,,,,,33.0,0.0,0.279578,-0.45410200000000006,0.464844,0.7067869999999999,0.917983,-0.39502600000000004,-0.150393,-0.042792000000000004,-0.053537,-0.022071,,,,,,,,,,,,,,,,,,,,,,,,,,,,,,,,,,,,,,,,,,,,,,,,,,,,,,,,,,,,,,,,,
12784,1650413963.195617,1650413963.204567,67.0,0.0,4069.2307130000004,4596.410156,4225.128418,4272.820313,4083.076904,450.0,3.0,73.0,,,,0.0,4.0,0.0,4.0,0.0,4.0,33.333332,,,,,,,,,,,,,,,,,,,,,,,,,,,,,,,,,,,,,,,,,,,,,,,,,,,,,,,,,,,,,,,,,,,,,,,,,,,,,,,,,,,,
12785,1650413963.203432,1650413963.212282,68.0,0.0,4088.205078,4579.487305,4236.410156,4272.820313,4114.358886999999,2.0,3.0,73.0,,,,0.0,4.0,0.0,4.0,0.0,4.0,33.333332,,,,,,,,34.0,0.0,0.279172,-0.45410200000000006,0.465088,0.7067869999999999,0.903334,-0.41846300000000003,-0.143069,-0.043494,-0.053555,-0.023087,,,,,,,,,,,,,,,,,,,,,,,,,,,,,,,,,,,,,,,,,,,,,,,,,,,,,,,,,,,,,,,,,
12786,1650413963.211246,1650413963.220197,69.0,0.0,4100.0,4609.743652,4240.0,4271.282227000001,4122.563965,450.0,3.0,73.0,,,,0.0,4.0,0.0,4.0,0.0,4.0,33.333332,,,,,,,,,,,,,,,,,,,,,,,,,,,,,,,,,,,,,,,,,,,,,,,,,,,,,,0.0,0.0,1.0,0.0,512.0,0.599128,,,,,,,,,,,,,,,,,,,,,,,,,
12787,1650413963.219061,1650413963.228011,70.0,0.0,4086.1538090000004,4638.974121,4226.153809,4276.410156,4097.94873,16114.0,3.0,73.0,,,,0.0,4.0,0.0,4.0,0.0,4.0,33.333332,,,,,,,,35.0,0.0,0.279172,-0.45410200000000006,0.465088,0.7067869999999999,0.9116350000000001,-0.39453699999999997,-0.157717,-0.042562,-0.053570000000000007,-0.02405,,,,,,,,,,,,,,,,,,,,,,,,,,,,,,,,,,,,,,,,,,,,,,,,,,,,,,,,,,,,,,,,,
12788,1650413963.226875,1650413963.235826,71.0,0.0,4085.641113,4608.205078,4223.077147999999,4283.077147999999,4106.153809,450.0,3.0,73.0,,,,0.0,4.0,0.0,4.0,0.0,4.0,33.333332,,,,,,,,,,,,,,,,,,,,,,,,,,,,,,,,,,,,,,,,,,,,,,,,,,,,,,,,,,,,,,,,,,,,,,,,,,,,,,,,,,,,
12789,1650413963.23469,1650413963.243541,72.0,0.0,4100.512695,4592.307617,4233.333496,4275.384765999999,4129.743652,450.0,3.0,73.0,,,,0.0,4.0,0.0,4.0,0.0,4.0,33.333332,,,,,,,,36.0,0.0,0.279578,-0.45410200000000006,0.464844,0.7067869999999999,0.8969860000000001,-0.39014299999999996,-0.151369,-0.041724000000000004,-0.05368200000000001,-0.024916,,,,,,,,,,,,,,,,,,,,,,,,,,,,,,,,,,,,,,,,,,,,,,,,,,,,,,,,,,,,,,,,,
12790,1650413963.242505,1650413963.251455,73.0,0.0,4108.717772999999,4595.384765999999,4234.358886999999,4264.615234000001,4121.538574,0.0,3.0,73.0,,,,0.0,4.0,0.0,4.0,0.0,4.0,33.333332,1.0,8.333333,1.0,0.0,4.0,0.0,3.0,,,,,,,,,,,,,1.0,0.0,0.0,1.0,0.47420200000000007,0.9203459999999999,-0.03635,1.968954,1.0,0.313014,5.801748,2.3410900000000003,13.197935999999999,0.397171,1.0,0.355606,-0.121994,-0.286673,0.14560499999999998,1.0,0.28976599999999997,0.242425,-0.665864,2.249987,1.0,0.496433,1.7114349999999998,-44.720321999999996,49.93183,1.0,0.44058500000000006,0.596325,0.496162,0.718746,0.0,0.0,1.0,0.0,512.0,0.7086319999999999,4466.616699,400.03421000000003,28.251865000000002,9.015989,3.0205509999999998,12.503877000000001,11.949341,13.137848000000002,19.210442999999998,24.481258,4.700008,1.8867919999999998,1.121112,0.96159,1.498245,1.629925,0.321196,0.040359,0.025135,0.011628,1541.3397220000002,120.971375,13.818401000000001,4.894401,2.166672
12791,1650413963.250319,1650413963.25927,74.0,0.0,4107.179688,4610.769043,4222.563965,4269.230957,4112.820313,450.0,3.0,73.0,,,,0.0,4.0,0.0,4.0,0.0,4.0,33.333332,,,,,,,,37.0,0.0,0.279172,-0.45410200000000006,0.465088,0.7067869999999999,0.9111469999999999,-0.398444,-0.163088,-0.042532,-0.053685000000000004,-0.019495,,,,,,,,,,,,,,,,,,,,,,,,,,,,,,,,,,,,,,,,,,,,,,,,,,,,,,,,,,,,,,,,,
12792,1650413963.258134,1650413963.267085,75.0,0.0,4100.512695,4650.769043,4215.384765999999,4274.871582,4124.102539,16213.0,3.0,73.0,,,,0.0,4.0,0.0,4.0,0.0,4.0,33.333332,,,,,,,,,,,,,,,,,,,,,,,,,,,,,,,,,,,,,,,,,,,,,,,,,,,,,,,,,,,,,,,,,,,,,,,,,,,,,,,,,,,,
12793,1650413963.265948,1650413963.274799,76.0,0.0,4100.512695,4635.384765999999,4221.538574,4271.282227000001,4126.666504,450.0,3.0,73.0,,,,0.0,4.0,0.0,4.0,0.0,4.0,33.333332,,,,,,,,38.0,0.0,0.279172,-0.45410200000000006,0.465088,0.7067869999999999,0.9194479999999999,-0.399908,-0.169436,-0.041795,-0.053785,-0.020866,,,,,,,,,,,,,,,,,,,,,,,,,,,,,,,,,,,,,,,,,,,,,,,,,,,,,,,,,,,,,,,,,
12794,1650413963.2737632,1650413963.2827141,77.0,0.0,4109.230957,4587.692383,4232.820313,4270.256348,4122.563965,450.0,3.0,73.0,,,,0.0,4.0,0.0,4.0,0.0,4.0,33.333332,,,,,,,,,,,,,,,,,,,,,,,,,,,,,,,,,,,,,,,,,,,,,,,,,,,,,,0.0,0.0,1.0,0.0,512.0,0.7086319999999999,,,,,,,,,,,,,,,,,,,,,,,,,
12795,1650413963.2815769,1650413963.290529,78.0,0.0,4105.128418,4619.487305,4230.769043,4273.333496,4125.641113000001,450.0,3.0,73.0,,,,0.0,4.0,0.0,4.0,0.0,4.0,33.333332,,,,,,,,39.0,0.0,0.279172,-0.45410200000000006,0.465088,0.7067869999999999,0.914565,-0.404791,-0.169924,-0.0424,-0.053729,-0.018681,,,,,,,,,,,,,,,,,,,,,,,,,,,,,,,,,,,,,,,,,,,,,,,,,,,,,,,,,,,,,,,,,
12796,1650413963.289392,1650413963.298443,79.0,0.0,4090.256348,4636.922852000001,4217.436035,4273.333496,4116.922852000001,16213.0,3.0,73.0,,,,0.0,4.0,0.0,4.0,0.0,4.0,33.333332,,,,,,,,,,,,,,,,,,,,,,,,,,,,,,,,,,,,,,,,,,,,,,,,,,,,,,,,,,,,,,,,,,,,,,,,,,,,,,,,,,,,
12797,1650413963.297207,1650413963.306258,80.0,0.0,4085.1281740000004,4614.871582,4210.769043,4271.794922,4098.461426,450.0,3.0,73.0,,,,0.0,4.0,0.0,4.0,0.0,4.0,33.333332,,,,,,,,40.0,0.0,0.279172,-0.45410200000000006,0.465088,0.7067869999999999,0.9028459999999999,-0.411627,-0.154788,-0.04319,-0.05363,-0.016715999999999998,,,,,,,,,,,,,,,,,,,,,,,,,,,,,,,,,,,,,,,,,,,,,,,,,,,,,,,,,,,,,,,,,
12798,1650413963.305021,1650413963.3140721,81.0,0.0,4090.256348,4616.922852000001,4213.846191,4271.282227000001,4103.589844,450.0,3.0,73.0,,,,0.0,4.0,0.0,4.0,0.0,4.0,33.333332,,,,,,,,,,,,,,,,,,,,,,,,,,,,,,,,,,,,,,,,,,,,,,,,,,,,,,0.0,0.0,1.0,0.0,512.0,0.7086319999999999,,,,,,,,,,,,,,,,,,,,,,,,,
12799,1650413963.312836,1650413963.3217869,82.0,0.0,4098.974121,4600.0,4217.436035,4271.794922,4121.538574,450.0,3.0,73.0,,,,0.0,4.0,0.0,4.0,0.0,4.0,33.333332,,,,,,,,41.0,0.0,0.279172,-0.45410200000000006,0.465088,0.7067869999999999,0.8960100000000001,-0.409186,-0.14844000000000002,-0.0439,-0.053589,-0.012114,,,,,,,,,,,,,,,,,,,,,,,,,,,,,,,,,,,,,,,,,,,,,,,,,,,,,,,,,,,,,,,,,
12800,1650413963.32065,1650413963.3295019,83.0,0.0,4102.05127,4600.512695,4213.846191,4271.794922,4122.563965,16213.0,3.0,73.0,,,,0.0,4.0,0.0,4.0,0.0,4.0,33.333332,,,,,,,,,,,,,,,,,,,,,,,,,,,,,,,,,,,,,,,,,,,,,,,,,,,,,,,,,,,,,,,,,,,,,,,,,,,,,,,,,,,,
12801,1650413963.328465,1650413963.337317,84.0,0.0,4103.589844,4622.563965,4214.871582,4271.794922,4127.179688,450.0,3.0,73.0,,,,0.0,4.0,0.0,4.0,0.0,4.0,33.333332,,,,,,,,42.0,0.0,0.27877399999999997,-0.454346,0.465088,0.7067869999999999,0.920424,-0.408209,-0.157717,-0.044539999999999996,-0.05365,-0.010854,,,,,,,,,,,,,,,,,,,,,,,,,,,,,,,,,,,,,,,,,,,,,,,,,,,,,,,,,,,,,,,,,
12802,1650413963.33628,1650413963.345031,85.0,0.0,4118.974121,4605.128418,4218.974121,4271.794922,4144.615234000001,450.0,3.0,73.0,,,,0.0,4.0,0.0,4.0,0.0,4.0,33.333332,,,,,,,,,,,,,,,,,,,,,,,,,,,,,,,,,,,,,,,,,,,,,,,,,,,,,,0.0,0.0,1.0,0.0,512.0,0.7086319999999999,,,,,,,,,,,,,,,,,,,,,,,,,
12803,1650413963.344094,1650413963.3528461,86.0,0.0,4131.794922,4628.205078,4208.205078,4271.794922,4143.589844,450.0,3.0,73.0,,,,0.0,4.0,0.0,4.0,0.0,4.0,33.333332,,,,,,,,43.0,0.0,0.279181,-0.454346,0.464844,0.7067869999999999,0.9116350000000001,-0.400885,-0.156252,-0.043552,-0.053608,-0.013088999999999998,,,,,,,,,,,,,,,,,,,,,,,,,,,,,,,,,,,,,,,,,,,,,,,,,,,,,,,,,,,,,,,,,
12804,1650413963.351909,1650413963.360561,87.0,0.0,4128.205078,4670.256348,4203.589844,4271.282227000001,4132.820313,16213.0,3.0,73.0,,,,0.0,4.0,0.0,4.0,0.0,4.0,33.333332,,,,,,,,,,,,,,,,,,,,,,,,,,,,,,,,,,,,,,,,,,,,,,,,,,,,,,,,,,,,,,,,,,,,,,,,,,,,,,,,,,,,
12805,1650413963.359723,1650413963.368375,88.0,0.0,4120.512695,4624.102539,4215.897461,4271.794922,4135.384765999999,450.0,3.0,73.0,,,,0.0,4.0,0.0,4.0,0.0,4.0,33.333332,,,,,,,,44.0,0.0,0.279181,-0.454346,0.464844,0.7067869999999999,0.917983,-0.410163,-0.155764,-0.04408,-0.05366699999999999,-0.011585,,,,,,,,,,,,,,,,,,,,,,,,,,,,,,,,,,,,,,,,,,,,,,,,,,,,,,,,,,,,,,,,,
12806,1650413963.367538,1650413963.37609,89.0,0.0,4125.128418,4602.05127,4218.461426,4272.307617,4141.025879,450.0,3.0,73.0,,,,0.0,4.0,0.0,4.0,0.0,4.0,33.333332,,,,,,,,,,,,,,,,,,,,1.0,0.0,0.0,,,,,,,,,,,,,,,,,,,,,,,,,,,,,,,,0.0,0.0,1.0,0.0,512.0,1.0,5405.84082,481.772736,36.142497999999996,10.355077,3.1846360000000002,15.094094,11.843736999999999,14.762832999999999,19.193977,26.535040000000002,5.348185,2.199379,1.222509,0.9808479999999999,1.532704,1.971955,0.39164699999999997,0.041052,0.031974,0.020408000000000003,1784.0378420000002,140.153976,16.096325,5.627406,2.246643
12807,1650413963.3753529,1650413963.3839052,90.0,0.0,4132.820313,4674.358886999999,4211.282227000001,4269.743652,4151.282227000001,450.0,3.0,73.0,,,,0.0,4.0,0.0,4.0,0.0,4.0,33.333332,,,,,,,,45.0,0.0,0.27877399999999997,-0.454346,0.465088,0.7067869999999999,0.905776,-0.40576799999999996,-0.160159,-0.044701,-0.053623000000000004,-0.013747,,,,,,,,,,,,,,,,,,,,,,,,,,,,,,,,,,,,,,,,,,,,,,,,,,,,,,,,,,,,,,,,,
12808,1650413963.383167,1650413963.391619,91.0,0.0,4135.897461,4690.769043,4217.436035,4273.333496,4152.820313,16213.0,3.0,73.0,,,,0.0,4.0,0.0,4.0,0.0,4.0,33.333332,,,,,,,,,,,,,,,,,,,,,,,,,,,,,,,,,,,,,,,,,,,,,,,,,,,,,,,,,,,,,,,,,,,,,,,,,,,,,,,,,,,,
12809,1650413963.390982,1650413963.399434,92.0,0.0,4132.307617,4621.025879,4216.922852000001,4280.512695,4131.282227000001,450.0,3.0,73.0,,,,0.0,4.0,0.0,4.0,0.0,4.0,33.333332,,,,,,,,46.0,0.0,0.279181,-0.454346,0.464844,0.7067869999999999,0.9116350000000001,-0.400885,-0.156252,-0.043698,-0.053583000000000006,-0.015691999999999998,,,,,,,,,,,,,,,,,,,,,,,,,,,,,,,,,,,,,,,,,,,,,,,,,,,,,,,,,,,,,,,,,
12810,1650413963.398796,1650413963.407149,93.0,0.0,4132.307617,4600.512695,4209.743652,4276.410156,4138.974121,450.0,3.0,73.0,,,,0.0,4.0,0.0,4.0,0.0,4.0,33.333332,,,,,,,,,,,,,,,,,,,,,,,,,,,,,,,,,,,,,,,,,,,,,,,,,,,,,,0.0,0.0,1.0,0.0,512.0,1.0,,,,,,,,,,,,,,,,,,,,,,,,,
12811,1650413963.406611,1650413963.414964,94.0,0.0,4144.615234000001,4638.974121,4226.153809,4272.307617,4175.384765999999,450.0,3.0,73.0,,,,0.0,4.0,0.0,4.0,0.0,4.0,33.333332,,,,,,,,47.0,0.0,0.279172,-0.45410200000000006,0.465088,0.7067869999999999,0.9052870000000001,-0.416022,-0.163088,-0.044308999999999994,-0.053644000000000004,-0.011193,,,,,,,,,,,,,,,,,,,,,,,,,,,,,,,,,,,,,,,,,,,,,,,,,,,,,,,,,,,,,,,,,
12812,1650413963.414425,1650413963.422678,95.0,0.0,4158.461426,4639.487305,4238.974121,4281.538574,4172.307617,16213.0,3.0,73.0,,,,0.0,4.0,0.0,4.0,0.0,4.0,33.333332,,,,,,,,,,,,,,,,,,,,,,,,,,,,,,,,,,,,,,,,,,,,,,,,,,,,,,,,,,,,,,,,,,,,,,,,,,,,,,,,,,,,
12813,1650413963.42224,1650413963.4304929,96.0,0.0,4164.102539,4626.666504,4233.333496,4281.538574,4158.974121,450.0,3.0,73.0,,,,0.0,4.0,0.0,4.0,0.0,4.0,33.333332,,,,,,,,48.0,0.0,0.279172,-0.45410200000000006,0.465088,0.7067869999999999,0.9111469999999999,-0.417487,-0.152834,-0.044907,-0.0537,-0.013346,,,,,,,,,,,,,,,,,,,,,,,,,,,,,,,,,,,,,,,,,,,,,,,,,,,,,,,,,,,,,,,,,
12814,1650413963.4300551,1650413963.438208,97.0,0.0,4164.102539,4661.538574,4231.794922,4269.743652,4181.538574,450.0,3.0,73.0,,,,0.0,4.0,0.0,4.0,0.0,4.0,33.333332,,,,,,,,,,,,,,,,,,,,,,,,,,,,,,,,,,,,,,,,,,,,,,,,,,,,,,0.0,0.0,1.0,0.0,512.0,1.0,,,,,,,,,,,,,,,,,,,,,,,,,
12815,1650413963.4378688,1650413963.4461222,98.0,0.0,4165.128418,4650.769043,4235.897461,4270.256348,4188.205078,450.0,3.0,73.0,,,,0.0,4.0,0.0,4.0,0.0,4.0,33.333332,,,,,,,,49.0,0.0,0.279172,-0.45410200000000006,0.465088,0.7067869999999999,0.9150530000000001,-0.408698,-0.146975,-0.045251,-0.053701,-0.011816,,,,,,,,,,,,,,,,,,,,,,,,,,,,,,,,,,,,,,,,,,,,,,,,,,,,,,,,,,,,,,,,,
12816,1650413963.445684,1650413963.4539368,99.0,0.0,4167.179688,4584.615234000001,4236.410156,4274.358886999999,4166.153809,16213.0,3.0,73.0,,,,0.0,4.0,0.0,4.0,0.0,4.0,33.333332,,,,,,,,,,,,,,,,,,,,,,,,,,,,,,,,,,,,,,,,,,,,,,,,,,,,,,,,,,,,,,,,,,,,,,,,,,,,,,,,,,,,
12817,1650413963.4534981,1650413963.461851,100.0,0.0,4169.230957,4597.94873,4240.512695,4271.282227000001,4170.769043,450.0,3.0,73.0,,,,0.0,4.0,0.0,4.0,0.0,4.0,33.333332,,,,,,,,50.0,0.0,0.279172,-0.45410200000000006,0.465088,0.7067869999999999,0.909682,-0.41260399999999997,-0.142092,-0.045755000000000004,-0.053653,-0.013955,,,,,,,,,,,,,,,,,,,,,,,,,,,,,,,,,,,,,,,,,,,,,,,,,,,,,,,,,,,,,,,,,
12818,1650413963.461313,1650413963.469666,101.0,0.0,4171.282227000001,4660.512695,4258.461426,4275.384765999999,4190.256348,450.0,3.0,73.0,,,,0.0,4.0,0.0,4.0,0.0,4.0,33.333332,,,,,,,,,,,,,,,,,,,,,,,,,,,,,,,,,,,,,,,,,,,,,,,,,,,,,,0.0,0.0,1.0,0.0,512.0,1.0,,,,,,,,,,,,,,,,,,,,,,,,,
12819,1650413963.469127,1650413963.477381,102.0,0.0,4173.846191,4657.436035,4264.615234000001,4280.512695,4189.230957,450.0,3.0,73.0,,,,0.0,4.0,0.0,4.0,0.0,4.0,33.333332,,,,,,,,51.0,0.0,0.279172,-0.45410200000000006,0.465088,0.7067869999999999,0.922866,-0.412116,-0.150393,-0.046209,-0.053610000000000005,-0.018663,,,,,,,,,,,,,,,,,,,,,,,,,,,,,,,,,,,,,,,,,,,,,,,,,,,,,,,,,,,,,,,,,
12820,1650413963.476942,1650413963.485195,103.0,0.0,4183.589844,4606.666504,4251.794922,4278.974121,4186.153809,16213.0,3.0,73.0,,,,0.0,4.0,0.0,4.0,0.0,4.0,33.333332,,,,,,,,,,,,,,,,,,,,,,,,,,,,,,,,,,,,,,,,,,,,,,,,,,,,,,,,,,,,,,,,,,,,,,,,,,,,,,,,,,,,
12821,1650413963.484756,1650413963.49291,104.0,0.0,4205.641113000001,4585.128418,4251.794922,4276.922852000001,4215.384765999999,450.0,3.0,73.0,,,,0.0,4.0,0.0,4.0,0.0,4.0,33.333332,,,,,,,,52.0,0.0,0.279172,-0.45410200000000006,0.465088,0.7067869999999999,0.9126120000000001,-0.420417,-0.161624,-0.044957,-0.053572,-0.020166,,,,,,,,,,,,,,,,,,,,,,,,,,,,,,,,,,,,,,,,,,,,,,,,,,,,,,,,,,,,,,,,,
12822,1650413963.492571,1650413963.500725,105.0,0.0,4224.102539,4601.025879,4272.307617,4280.0,4250.256348,450.0,3.0,73.0,,,,0.0,4.0,0.0,4.0,0.0,4.0,33.333332,,,,,,,,,,,,,,,,,,,,1.0,0.0,0.0,,,,,,,,,,,,,,,,,,,,,,,,,,,,,,,,0.0,0.0,64.0,0.972606,1.0,0.0,5816.466797,512.539612,40.820675,10.939078,3.258557,18.155276999999998,11.945378,15.865095000000002,17.933994000000002,27.908603999999997,5.750961,2.580501,1.226707,0.966146,1.541174,2.13052,0.425201,0.037793,0.039320999999999995,0.034642,1824.437988,143.053879,16.889278,5.921618,2.2701130000000003
12823,1650413963.500386,1650413963.50844,106.0,0.0,4216.410156,4628.717772999999,4264.102539,4279.487305,4235.897461,450.0,3.0,73.0,,,,0.0,4.0,0.0,4.0,0.0,4.0,33.333332,,,,,,,,53.0,0.0,0.279172,-0.45410200000000006,0.465088,0.7067869999999999,0.897475,-0.401373,-0.157717,-0.043976999999999995,-0.053586,-0.017953999999999998,,,,,,,,,,,,,,,,,,,,,,,,,,,,,,,,,,,,,,,,,,,,,,,,,,,,,,,,,,,,,,,,,
12824,1650413963.5082,1650413963.516254,107.0,0.0,4187.692383,4631.282227000001,4235.897461,4275.384765999999,4189.743652,16213.0,3.0,73.0,,,,0.0,4.0,0.0,4.0,0.0,4.0,33.333332,,,,,,,,,,,,,,,,,,,,,,,,,,,,,,,,,,,,,,,,,,,,,,,,,,,,,,,,,,,,,,,,,,,,,,,,,,,,,,,,,,,,
12825,1650413963.516015,1650413963.523969,108.0,0.0,4175.897461,4644.102539,4234.871582,4275.897461,4176.410156,450.0,3.0,73.0,,,,0.0,4.0,0.0,4.0,0.0,4.0,33.333332,,,,,,,,54.0,0.0,0.279172,-0.45410200000000006,0.465088,0.7067869999999999,0.922866,-0.40235,-0.161135,-0.044511,-0.053647,-0.019381,,,,,,,,,,,,,,,,,,,,,,,,,,,,,,,,,,,,,,,,,,,,,,,,,,,,,,,,,,,,,,,,,
12826,1650413963.523829,1650413963.531784,109.0,0.0,4195.897461,4685.641113000001,4241.025879,4280.0,4201.025879,450.0,3.0,73.0,,,,0.0,4.0,0.0,4.0,0.0,4.0,33.333332,,,,,,,,,,,,,,,,,,,,,,,,,,,,,,,,,,,,,,,,,,,,,,,,,,,,,,0.0,0.0,64.0,0.972606,1.0,0.0,,,,,,,,,,,,,,,,,,,,,,,,,
12827,1650413963.5316439,1650413963.539498,110.0,0.0,4198.461426,4683.589844,4236.922852000001,4280.0,4215.897461,450.0,3.0,73.0,,,,0.0,4.0,0.0,4.0,0.0,4.0,33.333332,,,,,,,,55.0,0.0,0.27877399999999997,-0.454346,0.465088,0.7067869999999999,0.905776,-0.406256,-0.16552999999999998,-0.044893999999999996,-0.05365399999999999,-0.020714,,,,,,,,,,,,,,,,,,,,,,,,,,,,,,,,,,,,,,,,,,,,,,,,,,,,,,,,,,,,,,,,,
12828,1650413963.539458,1650413963.547313,111.0,0.0,4185.128418,4622.563965,4243.589844,4278.974121,4213.333496,16213.0,3.0,73.0,,,,0.0,4.0,0.0,4.0,0.0,4.0,33.333332,,,,,,,,,,,,,,,,,,,,,,,,,,,,,,,,,,,,,,,,,,,,,,,,,,,,,,,,,,,,,,,,,,,,,,,,,,,,,,,,,,,,
12829,1650413963.5472732,1650413963.555028,112.0,0.0,4190.256348,4561.538574,4247.179688,4281.538574,4201.025879,450.0,3.0,73.0,,,,0.0,4.0,0.0,4.0,0.0,4.0,33.333332,,,,,,,,56.0,0.0,0.279181,-0.454346,0.464844,0.7067869999999999,0.9131,-0.39453699999999997,-0.150393,-0.043725,-0.053708000000000006,-0.018594,,,,,,,,,,,,,,,,,,,,,,,,,,,,,,,,,,,,,,,,,,,,,,,,,,,,,,,,,,,,,,,,,
12830,1650413963.555088,1650413963.562842,113.0,0.0,4192.307617,4572.820313,4239.487305,4278.461426,4191.794922,450.0,3.0,73.0,,,,0.0,4.0,0.0,4.0,0.0,4.0,33.333332,,,,,,,,,,,,,,,,,,,,,,,,,,,,,,,,,,,,,,,,,,,,,,,,,,,,,,0.0,0.0,64.0,0.972606,1.0,0.0,,,,,,,,,,,,,,,,,,,,,,,,,
12831,1650413963.562902,1650413963.570557,114.0,0.0,4183.077147999999,4627.179688,4231.282227000001,4271.794922,4195.897461,450.0,3.0,73.0,,,,0.0,4.0,0.0,4.0,0.0,4.0,33.333332,,,,,,,,57.0,0.0,0.279181,-0.454346,0.464844,0.7067869999999999,0.903334,-0.417487,-0.163088,-0.042722,-0.053757000000000006,-0.020006,,,,,,,,,,,,,,,,,,,,,,,,,,,,,,,,,,,,,,,,,,,,,,,,,,,,,,,,,,,,,,,,,
12832,1650413963.570717,1650413963.578372,115.0,0.0,4187.179688,4636.410156,4227.692383,4274.871582,4198.974121,16213.0,3.0,73.0,,,,0.0,4.0,0.0,4.0,0.0,4.0,33.333332,,,,,,,,,,,,,,,,,,,,,,,,,,,,,,,,,,,,,,,,,,,,,,,,,,,,,,,,,,,,,,,,,,,,,,,,,,,,,,,,,,,,
12833,1650413963.578531,1650413963.586087,116.0,0.0,4208.717772999999,4609.230957,4237.436035,4280.512695,4208.717772999999,450.0,3.0,73.0,,,,0.0,4.0,0.0,4.0,0.0,4.0,33.333332,,,,,,,,58.0,0.0,0.27877399999999997,-0.454346,0.465088,0.7067869999999999,0.904799,-0.39942,-0.144533,-0.043528,-0.053899,-0.021277,,,,,,,,,,,,,,,,,,,,,,,,,,,,,,,,,,,,,,,,,,,,,,,,,,,,,,,,,,,,,,,,,
12834,1650413963.5863461,1650413963.593901,117.0,0.0,4225.641113000001,4618.461426,4256.922852000001,4279.487305,4229.230957,450.0,3.0,73.0,,,,0.0,4.0,0.0,4.0,0.0,4.0,33.333332,,,,,,,,,,,,,,,,,,,,,,,,,,,,,,,,,,,,,,,,,,,,,,,,,,,,,,10.0,0.0,64.0,0.972606,1.0,0.0,,,,,,,,,,,,,,,,,,,,,,,,,
12835,1650413963.59416,1650413963.601616,118.0,0.0,4226.153809,4651.794922,4255.897461,4277.94873,4242.05127,450.0,3.0,73.0,,,,0.0,4.0,0.0,4.0,0.0,4.0,33.333332,,,,,,,,59.0,0.0,0.27877399999999997,-0.454346,0.465088,0.7067869999999999,0.9150530000000001,-0.401862,-0.152834,-0.044156,-0.053929,-0.022323,,,,,,,,,,,,,,,,,,,,,,,,,,,,,,,,,,,,,,,,,,,,,,,,,,,,,,,,,,,,,,,,,
12836,1650413963.601975,1650413963.60953,119.0,0.0,4207.692383,4642.563965,4238.461426,4280.0,4230.256348,16213.0,3.0,73.0,,,,0.0,4.0,0.0,4.0,0.0,4.0,33.333332,,,,,,,,,,,,,,,,,,,,,,,,,,,,,,,,,,,,,,,,,,,,,,,,,,,,,,,,,,,,,,,,,,,,,,,,,,,,,,,,,,,,
12837,1650413963.60979,1650413963.6173449,120.0,0.0,4193.846191,4617.436035,4228.717772999999,4278.974121,4216.410156,450.0,3.0,73.0,,,,0.0,4.0,0.0,4.0,0.0,4.0,33.333332,,,,,,,,60.0,0.0,0.27877399999999997,-0.454346,0.465088,0.7067869999999999,0.9116350000000001,-0.41455699999999995,-0.157229,-0.044721,-0.053956,-0.019896,,,,,,,,,,,,,,,,,,,,,,,,,,,,,,,,,,,,,,,,,,,,,,,,,,,,,,,,,,,,,,,,,
12838,1650413963.617604,1650413963.6252599,121.0,0.0,4206.153809,4614.871582,4230.256348,4278.461426,4225.128418,450.0,3.0,73.0,,,,0.0,4.0,0.0,4.0,0.0,4.0,33.333332,,,,,,,,,,,,,,,,,,,,1.0,0.0,0.0,,,,,,,,,,,,,,,,,,,,,,,,,,,,,,,,10.0,0.0,64.0,0.920265,1.0,0.0,5579.458496,482.472626,40.653603000000004,10.573993,3.230327,21.023653,12.141376,15.94498,15.917017999999999,28.059540000000002,5.859954,2.91053,1.126515,0.9096569999999999,1.5130569999999999,2.0648020000000002,0.412757,0.031779,0.047659,0.05466,1654.9454349999999,128.860916,15.968669,5.660227,2.25256
12839,1650413963.625419,1650413963.633074,122.0,0.0,4220.0,4603.589844,4236.410156,4280.512695,4231.794922,450.0,3.0,73.0,,,,0.0,4.0,0.0,4.0,0.0,4.0,33.333332,,,,,,,,61.0,0.0,0.279181,-0.454346,0.464844,0.7067869999999999,0.9111469999999999,-0.399908,-0.152834,-0.043715,-0.054029999999999995,-0.021324,,,,,,,,,,,,,,,,,,,,,,,,,,,,,,,,,,,,,,,,,,,,,,,,,,,,,,,,,,,,,,,,,
12840,1650413963.633233,1650413963.640989,123.0,0.0,4216.922852000001,4588.717772999999,4237.94873,4280.0,4226.153809,16213.0,3.0,73.0,,,,0.0,4.0,0.0,4.0,0.0,4.0,33.333332,,,,,,,,,,,,,,,,,,,,,,,,,,,,,,,,,,,,,,,,,,,,,,,,,,,,,,,,,,,,,,,,,,,,,,,,,,,,,,,,,,,,
12841,1650413963.641048,1650413963.648804,124.0,0.0,4209.230957,4627.179688,4223.589844,4277.94873,4223.589844,450.0,3.0,73.0,,,,0.0,4.0,0.0,4.0,0.0,4.0,33.333332,,,,,,,,62.0,0.0,0.27878400000000003,-0.45458999999999994,0.464844,0.7067869999999999,0.9091940000000001,-0.412116,-0.141604,-0.044324,-0.054096000000000005,-0.022512,,,,,,,,,,,,,,,,,,,,,,,,,,,,,,,,,,,,,,,,,,,,,,,,,,,,,,,,,,,,,,,,,
12842,1650413963.648862,1650413963.656718,125.0,0.0,4220.512695,4667.179688,4221.538574,4278.461426,4235.384765999999,450.0,3.0,73.0,,,,0.0,4.0,0.0,4.0,0.0,4.0,33.333332,,,,,,,,,,,,,,,,,,,,,,,,,,,,,,,,,,,,,,,,,,,,,,,,,,,,,,10.0,0.0,64.0,0.920265,1.0,0.0,,,,,,,,,,,,,,,,,,,,,,,,,
12843,1650413963.656677,1650413963.664533,126.0,0.0,4238.461426,4630.769043,4234.358886999999,4280.0,4245.128418,450.0,3.0,73.0,,,,0.0,4.0,0.0,4.0,0.0,4.0,33.333332,,,,,,,,63.0,0.0,0.27878400000000003,-0.45458999999999994,0.464844,0.7067869999999999,0.908217,-0.397955,-0.15820599999999999,-0.044872,-0.053959,-0.017331,,,,,,,,,,,,,,,,,,,,,,,,,,,,,,,,,,,,,,,,,,,,,,,,,,,,,,,,,,,,,,,,,
12844,1650413963.664492,1650413963.672447,127.0,0.0,4227.692383,4596.410156,4232.820313,4275.384765999999,4240.512695,238.0,3.0,73.0,,,,0.0,4.0,0.0,4.0,0.0,4.0,33.333332,,,,,,,,,,,,,,,,,,,,,,,,,,,,,,,,,,,,,,,,,,,,,,,,,,,,,,,,,,,,,,,,,,,,,,,,,,,,,,,,,,,,
12845,1650413963.672306,1650413963.6802619,0.0,0.0,4206.666504,4617.94873,4220.512695,4270.256348,4223.589844,450.0,3.0,73.0,,,,0.0,4.0,0.0,4.0,0.0,4.0,33.333332,,,,,,,,0.0,0.0,0.279181,-0.454346,0.464844,0.7067869999999999,0.9111469999999999,-0.399908,-0.152834,-0.045366000000000004,-0.053935000000000004,-0.012717000000000001,,,,,,,,,,,,,,,,,,,,,,,,,,,,,,,,,,,,,,,,,,,,,,,,,,,,,,,,,,,,,,,,,
12846,1650413963.6801212,1650413963.688077,1.0,0.0,4214.871582,4608.205078,4232.820313,4273.846191,4221.025879,450.0,3.0,73.0,,,,0.0,4.0,0.0,4.0,0.0,4.0,33.333332,,,,,,,,,,,,,,,,,,,,,,,,,,,,,,,,,,,,,,,,,,,,,,,,,,,,,,10.0,0.0,64.0,0.920265,1.0,0.0,,,,,,,,,,,,,,,,,,,,,,,,,
12847,1650413963.6879349,1650413963.695791,2.0,0.0,4230.769043,4569.743652,4245.641113000001,4280.512695,4238.461426,16204.0,3.0,73.0,,,,0.0,4.0,0.0,4.0,0.0,4.0,33.333332,,,,,,,,1.0,0.0,0.27878400000000003,-0.45458999999999994,0.464844,0.7067869999999999,0.908217,-0.397955,-0.15820599999999999,-0.045810000000000003,-0.053814999999999995,-0.008516,,,,,,,,,,,,,,,,,,,,,,,,,,,,,,,,,,,,,,,,,,,,,,,,,,,,,,,,,,,,,,,,,
12848,1650413963.69575,1650413963.703506,3.0,0.0,4221.025879,4589.230957,4221.538574,4279.487305,4238.974121,450.0,3.0,73.0,,,,0.0,4.0,0.0,4.0,0.0,4.0,33.333332,,,,,,,,,,,,,,,,,,,,,,,,,,,,,,,,,,,,,,,,,,,,,,,,,,,,,,,,,,,,,,,,,,,,,,,,,,,,,,,,,,,,
12849,1650413963.7035651,1650413963.711321,4.0,0.0,4206.666504,4656.410156,4195.384765999999,4276.410156,4232.820313,0.0,3.0,73.0,,,,0.0,4.0,0.0,4.0,0.0,4.0,33.333332,,,,,,,,2.0,0.0,0.27816399999999997,-0.45458999999999994,0.464844,0.7070310000000001,0.898451,-0.404303,-0.14941600000000002,-0.046209,-0.053853,-0.004686,,,,,,,,,,,,,,,,,,,,,,,,,,,,,,,,,,,,,,,,,,,,,,,,,,,,,,,,,,,,,,,,,
12850,1650413963.7113788,1650413963.719035,5.0,0.0,4211.282227000001,4665.128418,4202.05127,4278.461426,4224.102539,450.0,3.0,73.0,,,,0.0,4.0,0.0,4.0,0.0,4.0,33.333332,,,,,,,,,,,,,,,,,,,,,,,,,,,,,,,,,,,,,,,,,,,,,,,,,,,,,,10.0,0.0,64.0,0.920265,1.0,0.0,,,,,,,,,,,,,,,,,,,,,,,,,
12851,1650413963.719194,1650413963.72685,6.0,0.0,4221.025879,4637.436035,4223.589844,4281.025879,4218.461426,16125.0,3.0,73.0,,,,0.0,4.0,0.0,4.0,0.0,4.0,33.333332,,,,,,,,3.0,0.0,0.27816399999999997,-0.45458999999999994,0.464844,0.7070310000000001,0.921401,-0.41260399999999997,-0.160647,-0.046569,-0.053839,-0.007537,,,,,,,,,,,,,,,,,,,,,,,,,,,,,,,,,,,,,,,,,,,,,,,,,,,,,,,,,,,,,,,,,
12852,1650413963.727008,1650413963.734565,7.0,0.0,4231.282227000001,4677.94873,4230.769043,4279.487305,4245.641113000001,450.0,3.0,73.0,,,,0.0,4.0,0.0,4.0,0.0,4.0,33.333332,,,,,,,,,,,,,,,,,,,,,,,,,,,,,,,,,,,,,,,,,,,,,,,,,,,,,,,,,,,,,,,,,,,,,,,,,,,,,,,,,,,,
12853,1650413963.734823,1650413963.742379,8.0,0.0,4241.538574,4687.179688,4228.717772999999,4278.461426,4273.846191,450.0,3.0,73.0,,,,0.0,4.0,0.0,4.0,0.0,4.0,33.333332,,,,,,,,4.0,0.0,0.27878400000000003,-0.45458999999999994,0.464844,0.7067869999999999,0.9121229999999999,-0.409674,-0.165042,-0.046893000000000004,-0.053729,-0.003854,,,,,,,,,,,,,,,,,,,,,,,,,,,,,,,,,,,,,,,,,,,,,,,,,,,,,,,,,,,,,,,,,
12854,1650413963.742638,1650413963.750094,9.0,0.0,4238.974121,4594.871582,4222.563965,4279.487305,4256.922852000001,0.0,3.0,73.0,,,,0.0,4.0,0.0,4.0,0.0,4.0,33.333332,1.0,8.333333,1.0,0.0,4.0,0.0,3.0,,,,,,,,,,,,,1.0,0.0,0.0,,,,,,,,,,,,,,,,,,,,,,,,,,,,,,,,0.0,0.0,1.0,0.0,512.0,1.0,4753.22998,400.813965,35.551704,9.312689,3.078561,22.827032,12.151503,14.899899,13.825245,26.604740000000003,5.655715,3.062626,0.9493590000000001,0.820048,1.436949,1.79122,0.36075999999999997,0.026254000000000003,0.057106,0.078555,1324.254395,102.188835,13.581176000000001,4.895022,2.207045
12855,1650413963.750452,1650413963.758009,10.0,0.0,4235.384765999999,4562.05127,4213.846191,4278.974121,4237.94873,450.0,3.0,73.0,,,,0.0,4.0,0.0,4.0,0.0,4.0,33.333332,,,,,,,,5.0,0.0,0.27878400000000003,-0.45458999999999994,0.464844,0.7067869999999999,0.901869,-0.41406899999999996,-0.155276,-0.04567,-0.053727,-0.006789,,,,,,,,,,,,,,,,,,,,,,,,,,,,,,,,,,,,,,,,,,,,,,,,,,,,,,,,,,,,,,,,,
12856,1650413963.758267,1650413963.7658231,11.0,0.0,4243.589844,4617.94873,4223.589844,4277.94873,4256.410156,16201.0,3.0,73.0,,,,0.0,4.0,0.0,4.0,0.0,4.0,33.333332,,,,,,,,,,,,,,,,,,,,,,,,,,,,,,,,,,,,,,,,,,,,,,,,,,,,,,,,,,,,,,,,,,,,,,,,,,,,,,,,,,,,
12857,1650413963.766081,1650413963.773638,12.0,0.0,4257.436035,4641.025879,4238.461426,4280.512695,4279.487305,450.0,3.0,73.0,,,,0.0,4.0,0.0,4.0,0.0,4.0,33.333332,,,,,,,,6.0,0.0,0.27878400000000003,-0.45458999999999994,0.464844,0.7067869999999999,0.910658,-0.40235,-0.151369,-0.046084,-0.053774,-0.006012,,,,,,,,,,,,,,,,,,,,,,,,,,,,,,,,,,,,,,,,,,,,,,,,,,,,,,,,,,,,,,,,,
12858,1650413963.773896,1650413963.781353,13.0,0.0,4263.589844,4647.692383,4231.794922,4282.563965,4282.05127,450.0,3.0,73.0,,,,0.0,4.0,0.0,4.0,0.0,4.0,33.333332,,,,,,,,,,,,,,,,,,,,,,,,,,,,,,,,,,,,,,,,,,,,,,,,,,,,,,0.0,0.0,1.0,0.0,512.0,1.0,,,,,,,,,,,,,,,,,,,,,,,,,
12859,1650413963.78171,1650413963.789167,14.0,0.0,4243.077147999999,4660.0,4218.974121,4278.461426,4265.128418,450.0,3.0,73.0,,,,0.0,4.0,0.0,4.0,0.0,4.0,33.333332,,,,,,,,7.0,0.0,0.27878400000000003,-0.45458999999999994,0.464844,0.7067869999999999,0.922377,-0.406744,-0.14844000000000002,-0.044844999999999996,-0.053817,-0.011515000000000001,,,,,,,,,,,,,,,,,,,,,,,,,,,,,,,,,,,,,,,,,,,,,,,,,,,,,,,,,,,,,,,,,
12860,1650413963.789525,1650413963.796882,15.0,0.0,4221.025879,4651.282227000001,4226.153809,4276.922852000001,4251.282227000001,16201.0,3.0,73.0,,,,0.0,4.0,0.0,4.0,0.0,4.0,33.333332,,,,,,,,,,,,,,,,,,,,,,,,,,,,,,,,,,,,,,,,,,,,,,,,,,,,,,,,,,,,,,,,,,,,,,,,,,,,,,,,,,,,
12861,1650413963.7973402,1650413963.804697,16.0,0.0,4237.436035,4637.436035,4243.077147999999,4280.512695,4260.512695,0.0,3.0,73.0,,,,0.0,4.0,0.0,4.0,0.0,4.0,33.333332,,,,,,,,8.0,0.0,0.278385,-0.454834,0.464844,0.7067869999999999,0.9243309999999999,-0.41651000000000005,-0.154299,-0.043778,-0.05375800000000001,-0.013635,,,,,,,,,,,,,,,,,,,,,,,,,,,,,,,,,,,,,,,,,,,,,,,,,,,,,,,,,,,,,,,,,
12862,1650413963.8051538,1650413963.812412,17.0,0.0,4264.615234000001,4622.563965,4250.256348,4281.025879,4284.615234000001,0.0,3.0,73.0,,,,0.0,4.0,0.0,4.0,0.0,4.0,33.333332,,,,,,,,,,,,,,,,,,,,,,,,,,,,,,,,,,,,,,,,,,,,,,,,,,,,,,0.0,0.0,1.0,0.0,512.0,1.0,,,,,,,,,,,,,,,,,,,,,,,,,
12863,1650413963.812969,1650413963.820226,18.0,0.0,4266.153809,4625.128418,4250.256348,4278.974121,4304.102539,0.0,3.0,73.0,,,,0.0,4.0,0.0,4.0,0.0,4.0,33.333332,,,,,,,,9.0,0.0,0.278385,-0.454834,0.464844,0.7067869999999999,0.917494,-0.40528000000000003,-0.167971,-0.042867,-0.053654999999999994,-0.015591999999999998,,,,,,,,,,,,,,,,,,,,,,,,,,,,,,,,,,,,,,,,,,,,,,,,,,,,,,,,,,,,,,,,,
12864,1650413963.820783,1650413963.827941,19.0,0.0,4266.666504,4626.666504,4247.179688,4278.974121,4294.871582,0.0,3.0,73.0,,,,0.0,4.0,0.0,4.0,0.0,4.0,33.333332,,,,,,,,,,,,,,,,,,,,,,,,,,,,,,,,,,,,,,,,,,,,,,,,,,,,,,,,,,,,,,,,,,,,,,,,,,,,,,,,,,,,
12865,1650413963.828598,1650413963.835856,20.0,0.0,4280.0,4581.025879,4252.307617,4278.974121,4282.05127,0.0,3.0,73.0,,,,0.0,4.0,0.0,4.0,0.0,4.0,33.333332,,,,,,,,10.0,0.0,0.277977,-0.454834,0.465088,0.7067869999999999,0.902358,-0.406256,-0.151858,-0.043561,-0.053661,-0.013886,,,,,,,,,,,,,,,,,,,,,,,,,,,,,,,,,,,,,,,,,,,,,,,,,,,,,,,,,,,,,,,,,
12866,1650413963.836412,1650413963.84367,21.0,0.0,4286.666504,4533.846191,4270.769043,4276.922852000001,4299.487305,0.0,3.0,73.0,,,,0.0,4.0,0.0,4.0,0.0,4.0,33.333332,,,,,,,,,,,,,,,,,,,,,,,,,,,,,,,,,,,,,,,,,,,,,,,,,,,,,,0.0,0.0,1.0,0.0,512.0,1.0,,,,,,,,,,,,,,,,,,,,,,,,,
12867,1650413963.8442268,1650413963.851585,22.0,0.0,4284.615234000001,4557.94873,4274.358886999999,4278.974121,4308.205078,0.0,3.0,73.0,,,,0.0,4.0,0.0,4.0,0.0,4.0,33.333332,,,,,,,,11.0,0.0,0.277977,-0.454834,0.465088,0.7067869999999999,0.917494,-0.400885,-0.152346,-0.044331999999999996,-0.053715,-0.015671,,,,,,,,,,,,,,,,,,,,,,,,,,,,,,,,,,,,,,,,,,,,,,,,,,,,,,,,,,,,,,,,,
12868,1650413963.852042,1650413963.859399,23.0,0.0,4277.94873,4601.025879,4251.282227000001,4281.025879,4286.153809,0.0,3.0,73.0,,,,0.0,4.0,0.0,4.0,0.0,4.0,33.333332,,,,,,,,,,,,,,,,,,,,,,,,,,,,,,,,,,,,,,,,,,,,,,,,,,,,,,,,,,,,,,,,,,,,,,,,,,,,,,,,,,,,
12869,1650413963.8598561,1650413963.867314,24.0,0.0,4278.974121,4585.128418,4243.077147999999,4279.487305,4277.94873,0.0,3.0,73.0,,,,0.0,4.0,0.0,4.0,0.0,4.0,33.333332,,,,,,,,12.0,0.0,0.278597,-0.454834,0.465088,0.706543,0.9072399999999999,-0.408698,-0.161624,-0.043317,-0.053617,-0.017376,,,,,,,,,,,,,,,,,,,,,,,,,,,,,,,,,,,,,,,,,,,,,,,,,,,,,,,,,,,,,,,,,
12870,1650413963.867671,1650413963.875129,25.0,0.0,4284.102539,4530.256348,4255.897461,4277.436035,4284.615234000001,0.0,3.0,73.0,,,,0.0,4.0,0.0,4.0,0.0,4.0,33.333332,,,,,,,,,,,,,,,,,,,,1.0,0.0,0.0,,,,,,,,,,,,,,,,,,,,,,,,,,,,,,,,0.0,0.0,1.0,0.0,512.0,1.0,3576.406738,291.555542,27.120483,7.448115,2.7928580000000003,22.892004,11.623705000000001,13.041974,12.189043,23.531643,5.150014,2.957446,0.7552479999999999,0.729376,1.307776,1.387722,0.287557,0.025224,0.067035,0.102254,929.793152,70.815536,10.437717999999998,3.8730809999999996,2.136951
12871,1650413963.875485,1650413963.883043,26.0,0.0,4283.589844,4516.922852000001,4254.358886999999,4278.461426,4277.94873,0.0,3.0,73.0,,,,0.0,4.0,0.0,4.0,0.0,4.0,33.333332,,,,,,,,13.0,0.0,0.278597,-0.454834,0.465088,0.706543,0.9121229999999999,-0.420417,-0.151858,-0.043966000000000005,-0.053773,-0.018861000000000003,,,,,,,,,,,,,,,,,,,,,,,,,,,,,,,,,,,,,,,,,,,,,,,,,,,,,,,,,,,,,,,,,
12872,1650413963.8833,1650413963.890858,27.0,0.0,4289.230957,4551.794922,4250.769043,4278.974121,4284.615234000001,0.0,3.0,73.0,,,,0.0,4.0,0.0,4.0,0.0,4.0,33.333332,,,,,,,,,,,,,,,,,,,,,,,,,,,,,,,,,,,,,,,,,,,,,,,,,,,,,,,,,,,,,,,,,,,,,,,,,,,,,,,,,,,,
12873,1650413963.891114,1650413963.898572,28.0,0.0,4300.0,4581.025879,4264.615234000001,4277.94873,4301.538574,0.0,3.0,73.0,,,,0.0,4.0,0.0,4.0,0.0,4.0,33.333332,,,,,,,,14.0,0.0,0.278597,-0.454834,0.465088,0.706543,0.8994280000000001,-0.401373,-0.156252,-0.044598,-0.05362000000000001,-0.016779,,,,,,,,,,,,,,,,,,,,,,,,,,,,,,,,,,,,,,,,,,,,,,,,,,,,,,,,,,,,,,,,,
12874,1650413963.8989289,1650413963.9063869,29.0,0.0,4298.974121,4588.205078,4267.692383,4278.974121,4289.230957,0.0,3.0,73.0,,,,0.0,4.0,0.0,4.0,0.0,4.0,33.333332,,,,,,,,,,,,,,,,,,,,,,,,,,,,,,,,,,,,,,,,,,,,,,,,,,,,,,0.0,0.0,1.0,0.0,512.0,1.0,,,,,,,,,,,,,,,,,,,,,,,,,
12875,1650413963.906743,1650413963.9141018,30.0,0.0,4295.897461,4565.641113000001,4259.487305,4278.461426,4276.410156,0.0,3.0,73.0,,,,0.0,4.0,0.0,4.0,0.0,4.0,33.333332,,,,,,,,15.0,0.0,0.278597,-0.454834,0.465088,0.706543,0.91017,-0.407721,-0.154788,-0.045168,-0.053727,-0.018373,,,,,,,,,,,,,,,,,,,,,,,,,,,,,,,,,,,,,,,,,,,,,,,,,,,,,,,,,,,,,,,,,
12876,1650413963.914558,1650413963.921917,31.0,0.0,4293.846191,4535.897461,4260.0,4277.436035,4289.230957,0.0,3.0,73.0,,,,0.0,4.0,0.0,4.0,0.0,4.0,33.333332,,,,,,,,,,,,,,,,,,,,,,,,,,,,,,,,,,,,,,,,,,,,,,,,,,,,,,,,,,,,,,,,,,,,,,,,,,,,,,,,,,,,
12877,1650413963.922373,1650413963.929631,32.0,0.0,4287.692383,4535.897461,4265.128418,4278.974121,4302.05127,0.0,3.0,73.0,,,,0.0,4.0,0.0,4.0,0.0,4.0,33.333332,,,,,,,,16.0,0.0,0.278597,-0.454834,0.465088,0.706543,0.9150530000000001,-0.395514,-0.15674100000000002,-0.045681,-0.053676999999999996,-0.019856,,,,,,,,,,,,,,,,,,,,,,,,,,,,,,,,,,,,,,,,,,,,,,,,,,,,,,,,,,,,,,,,,
12878,1650413963.930187,1650413963.937446,33.0,0.0,4281.025879,4536.922852000001,4270.256348,4282.05127,4297.436035,0.0,3.0,73.0,,,,0.0,4.0,0.0,4.0,0.0,4.0,33.333332,,,,,,,,,,,,,,,,,,,,,,,,,,,,,,,,,,,,,,,,,,,,,,,,,,,,,,0.0,0.0,1.0,0.0,512.0,1.0,,,,,,,,,,,,,,,,,,,,,,,,,
12879,1650413963.9380019,1650413963.9451609,34.0,0.0,4275.384765999999,4531.282227000001,4264.615234000001,4281.025879,4284.102539,0.0,3.0,73.0,,,,0.0,4.0,0.0,4.0,0.0,4.0,33.333332,,,,,,,,17.0,0.0,0.278198,-0.455078,0.465088,0.706543,0.916518,-0.40235,-0.155276,-0.046142,-0.05363099999999999,-0.017822,,,,,,,,,,,,,,,,,,,,,,,,,,,,,,,,,,,,,,,,,,,,,,,,,,,,,,,,,,,,,,,,,
12880,1650413963.945816,1650413963.952975,35.0,0.0,4279.487305,4578.974121,4250.769043,4278.461426,4276.922852000001,0.0,3.0,73.0,,,,0.0,4.0,0.0,4.0,0.0,4.0,33.333332,,,,,,,,,,,,,,,,,,,,,,,,,,,,,,,,,,,,,,,,,,,,,,,,,,,,,,,,,,,,,,,,,,,,,,,,,,,,,,,,,,,,
12881,1650413963.9536312,1650413963.96069,36.0,0.0,4289.743652,4621.025879,4249.230957,4278.461426,4280.0,0.0,3.0,73.0,,,,0.0,4.0,0.0,4.0,0.0,4.0,33.333332,,,,,,,,18.0,0.0,0.278198,-0.455078,0.465088,0.706543,0.9111469999999999,-0.407721,-0.152834,-0.045043,-0.053639,-0.019213,,,,,,,,,,,,,,,,,,,,,,,,,,,,,,,,,,,,,,,,,,,,,,,,,,,,,,,,,,,,,,,,,
12882,1650413963.9614449,1650413963.9685051,37.0,0.0,4285.641113000001,4569.743652,4252.307617,4279.487305,4284.102539,0.0,3.0,73.0,,,,0.0,4.0,0.0,4.0,0.0,4.0,33.333332,,,,,,,,,,,,,,,,,,,,,,,,,,,,,,,,,,,,,,,,,,,,,,,,,,,,,,0.0,0.0,1.0,0.0,512.0,1.0,,,,,,,,,,,,,,,,,,,,,,,,,
12883,1650413963.96926,1650413963.976219,38.0,0.0,4282.05127,4523.077147999999,4248.717772999999,4280.0,4288.717772999999,0.0,3.0,73.0,,,,0.0,4.0,0.0,4.0,0.0,4.0,33.333332,,,,,,,,19.0,0.0,0.278198,-0.455078,0.465088,0.706543,0.9248190000000001,-0.409186,-0.16211199999999998,-0.044006,-0.05369500000000001,-0.017146,,,,,,,,,,,,,,,,,,,,,,,,,,,,,,,,,,,,,,,,,,,,,,,,,,,,,,,,,,,,,,,,,
12884,1650413963.977075,1650413963.984034,39.0,0.0,4293.846191,4553.846191,4248.717772999999,4280.512695,4302.563965,0.0,3.0,73.0,,,,0.0,4.0,0.0,4.0,0.0,4.0,33.333332,,,,,,,,,,,,,,,,,,,,,,,,,,,,,,,,,,,,,,,,,,,,,,,,,,,,,,,,,,,,,,,,,,,,,,,,,,,,,,,,,,,,
12885,1650413963.984889,1650413963.991749,40.0,0.0,4297.436035,4587.179688,4256.922852000001,4278.974121,4311.794922,0.0,3.0,73.0,,,,0.0,4.0,0.0,4.0,0.0,4.0,33.333332,,,,,,,,20.0,0.0,0.278198,-0.455078,0.465088,0.706543,0.917983,-0.416022,-0.150881,-0.043023,-0.053599,-0.018751,,,,,,,,,,,,,,,,,,,,,,,,,,,,,,,,,,,,,,,,,,,,,,,,,,,,,,,,,,,,,,,,,
12886,1650413963.992704,1650413963.999663,41.0,0.0,4285.641113000001,4601.538574,4254.358886999999,4276.922852000001,4307.692383,0.0,3.0,73.0,,,,0.0,4.0,0.0,4.0,0.0,4.0,33.333332,,,,,,,,,,,,,,,,,,,,1.0,0.0,0.0,,,,,,,,,,,,,,,,,,,,,,,,,,,,,,,,0.0,0.0,1.0,0.0,512.0,1.0,2341.240234,183.223648,17.884911,5.396026999999999,2.391525,20.947182,10.489953,11.148579,11.161823,19.310701,4.4385069999999995,2.609355,0.602442,0.6743979999999999,1.138957,0.952205,0.213854,0.030593000000000002,0.075718,0.120724,564.379578,42.467628000000005,7.353583,2.910929,2.046583
12887,1650413964.000518,1650413964.007478,42.0,0.0,4284.102539,4606.666504,4246.153809,4278.461426,4308.205078,0.0,3.0,73.0,,,,0.0,4.0,0.0,4.0,0.0,4.0,33.333332,,,,,,,,21.0,0.0,0.278198,-0.455078,0.465088,0.706543,0.9028459999999999,-0.398932,-0.155764,-0.042041,-0.053611,-0.020197,,,,,,,,,,,,,,,,,,,,,,,,,,,,,,,,,,,,,,,,,,,,,,,,,,,,,,,,,,,,,,,,,
12888,1650413964.008333,1650413964.015293,43.0,0.0,4278.974121,4545.641113000001,4246.666504,4280.0,4308.717772999999,0.0,3.0,73.0,,,,0.0,4.0,0.0,4.0,0.0,4.0,33.333332,,,,,,,,,,,,,,,,,,,,,,,,,,,,,,,,,,,,,,,,,,,,,,,,,,,,,,,,,,,,,,,,,,,,,,,,,,,,,,,,,,,,
12889,1650413964.016148,1650413964.023007,44.0,0.0,4277.94873,4518.974121,4251.282227000001,4278.974121,4293.333496,0.0,3.0,73.0,,,,0.0,4.0,0.0,4.0,0.0,4.0,33.333332,,,,,,,,22.0,0.0,0.278198,-0.455078,0.465088,0.706543,0.906264,-0.393072,-0.14648699999999998,-0.041255,-0.05367,-0.0214,,,,,,,,,,,,,,,,,,,,,,,,,,,,,,,,,,,,,,,,,,,,,,,,,,,,,,,,,,,,,,,,,
12890,1650413964.023962,1650413964.0309222,45.0,0.0,4303.589844,4622.05127,4247.179688,4279.487305,4282.563965,0.0,3.0,73.0,,,,0.0,4.0,0.0,4.0,0.0,4.0,33.333332,,,,,,,,,,,,,,,,,,,,,,,,,,,,,,,,,,,,,,,,,,,,,,,,,,,,,,0.0,0.0,1.0,0.0,512.0,1.0,,,,,,,,,,,,,,,,,,,,,,,,,
12891,1650413964.031777,1650413964.0387368,46.0,0.0,4315.897461,4635.384765999999,4254.871582,4280.512695,4301.538574,0.0,3.0,73.0,,,,0.0,4.0,0.0,4.0,0.0,4.0,33.333332,,,,,,,,23.0,0.0,0.278198,-0.455078,0.465088,0.706543,0.917983,-0.416022,-0.150881,-0.040548,-0.053576,-0.022580000000000003,,,,,,,,,,,,,,,,,,,,,,,,,,,,,,,,,,,,,,,,,,,,,,,,,,,,,,,,,,,,,,,,,
12892,1650413964.039591,1650413964.046651,47.0,0.0,4309.230957,4512.307617,4277.436035,4280.512695,4322.05127,0.0,3.0,73.0,,,,0.0,4.0,0.0,4.0,0.0,4.0,33.333332,,,,,,,,,,,,,,,,,,,,,,,,,,,,,,,,,,,,,,,,,,,,,,,,,,,,,,,,,,,,,,,,,,,,,,,,,,,,,,,,,,,,
12893,1650413964.047406,1650413964.054466,48.0,0.0,4323.589844,4526.153809,4279.487305,4280.512695,4328.205078,0.0,3.0,73.0,,,,0.0,4.0,0.0,4.0,0.0,4.0,33.333332,,,,,,,,24.0,0.0,0.278198,-0.455078,0.465088,0.706543,0.9155409999999999,-0.409186,-0.14551,-0.041522,-0.053541,-0.017391999999999998,,,,,,,,,,,,,,,,,,,,,,,,,,,,,,,,,,,,,,,,,,,,,,,,,,,,,,,,,,,,,,,,,
12894,1650413964.05522,1650413964.06238,49.0,0.0,4329.743652,4628.205078,4264.102539,4280.512695,4332.820313,0.0,3.0,73.0,,,,0.0,4.0,0.0,4.0,0.0,4.0,33.333332,,,,,,,,,,,,,,,,,,,,,,,,,,,,,,,,,,,,,,,,,,,,,,,,,,,,,,0.0,0.0,1.0,0.0,512.0,1.0,,,,,,,,,,,,,,,,,,,,,,,,,
12895,1650413964.063035,1650413964.070195,50.0,0.0,4308.205078,4615.384765999999,4259.487305,4280.512695,4322.563965,0.0,3.0,73.0,,,,0.0,4.0,0.0,4.0,0.0,4.0,33.333332,,,,,,,,25.0,0.0,0.277798,-0.455322,0.465088,0.706543,0.9184709999999999,-0.415045,-0.145022,-0.042351,-0.053655999999999995,-0.018973,,,,,,,,,,,,,,,,,,,,,,,,,,,,,,,,,,,,,,,,,,,,,,,,,,,,,,,,,,,,,,,,,
12896,1650413964.07085,1650413964.07811,51.0,0.0,4312.820313,4565.128418,4270.256348,4280.512695,4313.846191,0.0,3.0,73.0,,,,0.0,4.0,0.0,4.0,0.0,4.0,33.333332,,,,,,,,,,,,,,,,,,,,,,,,,,,,,,,,,,,,,,,,,,,,,,,,,,,,,,,,,,,,,,,,,,,,,,,,,,,,,,,,,,,,
12897,1650413964.078664,1650413964.085924,52.0,0.0,4329.743652,4565.641113000001,4273.333496,4280.512695,4324.615234000001,0.0,3.0,73.0,,,,0.0,4.0,0.0,4.0,0.0,4.0,33.333332,,,,,,,,26.0,0.0,0.277389,-0.455322,0.46533199999999997,0.706543,0.9004040000000001,-0.41358100000000003,-0.154299,-0.043047,-0.05371,-0.017027,,,,,,,,,,,,,,,,,,,,,,,,,,,,,,,,,,,,,,,,,,,,,,,,,,,,,,,,,,,,,,,,,
12898,1650413964.086479,1650413964.0938392,53.0,0.0,4305.128418,4591.794922,4254.358886999999,4279.487305,4317.436035,0.0,3.0,73.0,,,,0.0,4.0,0.0,4.0,0.0,4.0,33.333332,,,,,,,,,,,,,,,,,,,,,,,,,,,,,,,,,,,,,,,,,,,,,,,,,,,,,,0.0,0.0,1.0,0.0,512.0,1.0,,,,,,,,,,,,,,,,,,,,,,,,,
12899,1650413964.0942929,1650413964.1016529,54.0,0.0,4287.692383,4638.974121,4243.077147999999,4278.461426,4302.05127,0.0,3.0,73.0,,,,0.0,4.0,0.0,4.0,0.0,4.0,33.333332,,,,,,,,27.0,0.0,0.277389,-0.455322,0.46533199999999997,0.706543,0.9087049999999999,-0.406256,-0.154299,-0.043772000000000005,-0.05371,-0.018596,,,,,,,,,,,,,,,,,,,,,,,,,,,,,,,,,,,,,,,,,,,,,,,,,,,,,,,,,,,,,,,,,
12900,1650413964.102108,1650413964.109368,55.0,0.0,4306.153809,4641.025879,4253.333496,4278.974121,4309.230957,0.0,3.0,73.0,,,,0.0,4.0,0.0,4.0,0.0,4.0,33.333332,,,,,,,,,,,,,,,,,,,,,,,,,,,,,,,,,,,,,,,,,,,,,,,,,,,,,,,,,,,,,,,,,,,,,,,,,,,,,,,,,,,,
12901,1650413964.1099231,1650413964.117183,56.0,0.0,4305.641113000001,4562.563965,4260.0,4280.0,4305.128418,0.0,3.0,73.0,,,,0.0,4.0,0.0,4.0,0.0,4.0,33.333332,,,,,,,,28.0,0.0,0.277389,-0.455322,0.46533199999999997,0.706543,0.917006,-0.409186,-0.15674100000000002,-0.044424,-0.05371,-0.022791,,,,,,,,,,,,,,,,,,,,,,,,,,,,,,,,,,,,,,,,,,,,,,,,,,,,,,,,,,,,,,,,,
12902,1650413964.1177368,1650413964.124898,57.0,0.0,4294.358886999999,4526.666504,4253.846191,4281.025879,4294.871582,0.0,3.0,73.0,,,,0.0,4.0,0.0,4.0,0.0,4.0,33.333332,,,,,,,,,,,,,,,,,,,,1.0,0.0,0.0,,,,,,,,,,,,,,,,,,,,,,,,,,,,,,,,0.0,0.0,1.0,0.0,128.0,1.0,1304.817505,97.379593,10.173824,3.557132,1.9301110000000001,17.5485,9.082005,10.060508,10.608874,14.781845,3.662605,2.116648,0.529587,0.6801470000000001,0.96101,0.573395,0.155154,0.041354,0.080917,0.129775,290.903137,21.881109,4.943226999999999,2.254982,1.94711
12903,1650413964.125552,1650413964.132712,58.0,0.0,4305.128418,4574.358886999999,4249.743652,4282.05127,4304.615234000001,0.0,3.0,73.0,,,,0.0,4.0,0.0,4.0,0.0,4.0,33.333332,,,,,,,,29.0,0.0,0.277798,-0.455322,0.465088,0.706543,0.91017,-0.404303,-0.165042,-0.043497,-0.053759,-0.023979,,,,,,,,,,,,,,,,,,,,,,,,,,,,,,,,,,,,,,,,,,,,,,,,,,,,,,,,,,,,,,,,,
12904,1650413964.133366,1650413964.1404269,59.0,0.0,4317.436035,4627.179688,4251.794922,4281.025879,4318.974121,0.0,3.0,73.0,,,,0.0,4.0,0.0,4.0,0.0,4.0,33.333332,,,,,,,,,,,,,,,,,,,,,,,,,,,,,,,,,,,,,,,,,,,,,,,,,,,,,,,,,,,,,,,,,,,,,,,,,,,,,,,,,,,,
12905,1650413964.141181,1650413964.148242,60.0,0.0,4314.358886999999,4637.94873,4252.820313,4280.512695,4327.692383,0.0,3.0,73.0,,,,0.0,4.0,0.0,4.0,0.0,4.0,33.333332,,,,,,,,30.0,0.0,0.277798,-0.455322,0.465088,0.706543,0.9111469999999999,-0.408209,-0.146975,-0.044323,-0.053755,-0.021483000000000002,,,,,,,,,,,,,,,,,,,,,,,,,,,,,,,,,,,,,,,,,,,,,,,,,,,,,,,,,,,,,,,,,
12906,1650413964.148995,1650413964.155956,61.0,0.0,4311.794922,4574.871582,4251.282227000001,4280.512695,4323.077147999999,0.0,3.0,73.0,,,,0.0,4.0,0.0,4.0,0.0,4.0,33.333332,,,,,,,,,,,,,,,,,,,,,,,,,,,,,,,,,,,,,,,,,,,,,,,,,,,,,,0.0,0.0,1.0,0.0,128.0,1.0,,,,,,,,,,,,,,,,,,,,,,,,,
12907,1650413964.15681,1650413964.163871,62.0,0.0,4304.615234000001,4517.436035,4248.205078,4279.487305,4304.615234000001,0.0,3.0,73.0,,,,0.0,4.0,0.0,4.0,0.0,4.0,33.333332,,,,,,,,31.0,0.0,0.277798,-0.455322,0.465088,0.706543,0.9091940000000001,-0.406256,-0.160159,-0.043358,-0.053799,-0.022655,,,,,,,,,,,,,,,,,,,,,,,,,,,,,,,,,,,,,,,,,,,,,,,,,,,,,,,,,,,,,,,,,
12908,1650413964.164625,1650413964.171686,63.0,0.0,4295.384765999999,4592.307617,4247.179688,4280.0,4305.641113000001,0.0,3.0,73.0,,,,0.0,4.0,0.0,4.0,0.0,4.0,33.333332,,,,,,,,,,,,,,,,,,,,,,,,,,,,,,,,,,,,,,,,,,,,,,,,,,,,,,,,,,,,,,,,,,,,,,,,,,,,,,,,,,,,
12909,1650413964.172439,1650413964.1796,64.0,0.0,4296.410156,4667.179688,4245.641113000001,4281.025879,4320.0,450.0,3.0,73.0,,,,0.0,4.0,0.0,4.0,0.0,4.0,33.333332,,,,,,,,32.0,0.0,0.277798,-0.455322,0.465088,0.706543,0.9111469999999999,-0.40576799999999996,-0.15674100000000002,-0.044052,-0.05379,-0.023857,,,,,,,,,,,,,,,,,,,,,,,,,,,,,,,,,,,,,,,,,,,,,,,,,,,,,,,,,,,,,,,,,
12910,1650413964.180254,1650413964.1874151,65.0,0.0,4297.436035,4607.179688,4252.820313,4281.025879,4307.179688,450.0,3.0,73.0,,,,0.0,4.0,0.0,4.0,0.0,4.0,33.333332,,,,,,,,,,,,,,,,,,,,,,,,,,,,,,,,,,,,,,,,,,,,,,,,,,,,,,0.0,0.0,1.0,0.0,128.0,1.0,,,,,,,,,,,,,,,,,,,,,,,,,
12911,1650413964.188068,1650413964.195329,66.0,0.0,4304.102539,4554.871582,4264.615234000001,4280.0,4297.94873,16202.0,3.0,73.0,,,,0.0,4.0,0.0,4.0,0.0,4.0,33.333332,,,,,,,,33.0,0.0,0.277798,-0.455322,0.465088,0.706543,0.914076,-0.41358100000000003,-0.157717,-0.043064,-0.053831,-0.027672000000000002,,,,,,,,,,,,,,,,,,,,,,,,,,,,,,,,,,,,,,,,,,,,,,,,,,,,,,,,,,,,,,,,,
12912,1650413964.195883,1650413964.2031438,67.0,0.0,4311.282227000001,4572.307617,4257.436035,4280.512695,4315.384765999999,450.0,3.0,73.0,,,,0.0,4.0,0.0,4.0,0.0,4.0,33.333332,,,,,,,,,,,,,,,,,,,,,,,,,,,,,,,,,,,,,,,,,,,,,,,,,,,,,,,,,,,,,,,,,,,,,,,,,,,,,,,,,,,,
12913,1650413964.203697,1650413964.211058,68.0,0.0,4307.692383,4565.128418,4252.307617,4280.512695,4330.256348,0.0,3.0,73.0,,,,0.0,4.0,0.0,4.0,0.0,4.0,33.333332,,,,,,,,34.0,0.0,0.277798,-0.455322,0.465088,0.706543,0.917494,-0.41455699999999995,-0.154299,-0.042078,-0.053722000000000006,-0.028127999999999997,,,,,,,,,,,,,,,,,,,,,,,,,,,,,,,,,,,,,,,,,,,,,,,,,,,,,,,,,,,,,,,,,
12914,1650413964.2115119,1650413964.218873,69.0,0.0,4318.974121,4569.230957,4264.615234000001,4279.487305,4340.0,450.0,3.0,73.0,,,,0.0,4.0,0.0,4.0,0.0,4.0,33.333332,,,,,,,,,,,,,,,,,,,,,,,,,,,,,,,,,,,,,,,,,,,,,,,,,,,,,,0.0,0.0,1.0,0.0,128.0,1.0,,,,,,,,,,,,,,,,,,,,,,,,,
12915,1650413964.219327,1650413964.2266881,70.0,0.0,4345.128418,4598.461426,4269.743652,4278.974121,4348.717772999999,16120.0,3.0,73.0,,,,0.0,4.0,0.0,4.0,0.0,4.0,33.333332,,,,,,,,35.0,0.0,0.27820700000000004,-0.455322,0.464844,0.706543,0.9116350000000001,-0.409674,-0.14941600000000002,-0.042851,-0.053818,-0.028538,,,,,,,,,,,,,,,,,,,,,,,,,,,,,,,,,,,,,,,,,,,,,,,,,,,,,,,,,,,,,,,,,
12916,1650413964.227141,1650413964.234402,71.0,0.0,4329.230957,4575.384765999999,4253.846191,4280.0,4332.307617,450.0,3.0,73.0,,,,0.0,4.0,0.0,4.0,0.0,4.0,33.333332,,,,,,,,,,,,,,,,,,,,,,,,,,,,,,,,,,,,,,,,,,,,,,,,,,,,,,,,,,,,,,,,,,,,,,,,,,,,,,,,,,,,
12917,1650413964.234956,1650413964.242317,72.0,0.0,4293.846191,4547.179688,4243.077147999999,4280.512695,4305.641113000001,450.0,3.0,73.0,,,,0.0,4.0,0.0,4.0,0.0,4.0,33.333332,,,,,,,,36.0,0.0,0.27820700000000004,-0.455322,0.464844,0.706543,0.910658,-0.407233,-0.14990499999999998,-0.041935,-0.05371,-0.028955,,,,,,,,,,,,,,,,,,,,,,,,,,,,,,,,,,,,,,,,,,,,,,,,,,,,,,,,,,,,,,,,,
12918,1650413964.24277,1650413964.250132,73.0,0.0,4307.179688,4562.05127,4249.230957,4280.512695,4313.333496,0.0,3.0,73.0,,,,0.0,4.0,0.0,4.0,0.0,4.0,33.333332,1.0,8.333333,1.0,0.0,4.0,0.0,3.0,,,,,,,,,,,,,1.0,0.0,0.0,,,,,,,,,,,,,,,,,,,,,,,,,,,,,,,,0.0,0.0,1.0,0.0,512.0,1.0,592.974915,42.596759999999996,5.260416,2.208568,1.494708,13.884288,7.840610000000001,10.247024,10.387005,10.896247,2.990774,1.62162,0.5415300000000001,0.746478,0.810739,0.298951,0.116948,0.054011,0.08088200000000001,0.12756800000000001,123.714661,9.855203,3.4324410000000003,1.982961,1.851982
12919,1650413964.250585,1650413964.2580462,74.0,0.0,4324.615234000001,4575.897461,4245.641113000001,4280.0,4321.538574,450.0,3.0,73.0,,,,0.0,4.0,0.0,4.0,0.0,4.0,33.333332,,,,,,,,37.0,0.0,0.27820700000000004,-0.455322,0.464844,0.706543,0.9150530000000001,-0.40283800000000003,-0.143557,-0.042722,-0.053661,-0.025865,,,,,,,,,,,,,,,,,,,,,,,,,,,,,,,,,,,,,,,,,,,,,,,,,,,,,,,,,,,,,,,,,
12920,1650413964.258399,1650413964.265861,75.0,0.0,4310.256348,4607.179688,4235.897461,4280.512695,4303.077147999999,16202.0,3.0,73.0,,,,0.0,4.0,0.0,4.0,0.0,4.0,33.333332,,,,,,,,,,,,,,,,,,,,,,,,,,,,,,,,,,,,,,,,,,,,,,,,,,,,,,,,,,,,,,,,,,,,,,,,,,,,,,,,,,,,
12921,1650413964.2662141,1650413964.273576,76.0,0.0,4308.717772999999,4635.897461,4250.256348,4280.512695,4302.05127,450.0,3.0,73.0,,,,0.0,4.0,0.0,4.0,0.0,4.0,33.333332,,,,,,,,38.0,0.0,0.27820700000000004,-0.455322,0.464844,0.706543,0.9111469999999999,-0.407721,-0.15332300000000001,-0.043382,-0.05361799999999999,-0.026501,,,,,,,,,,,,,,,,,,,,,,,,,,,,,,,,,,,,,,,,,,,,,,,,,,,,,,,,,,,,,,,,,
12922,1650413964.274029,1650413964.28149,77.0,0.0,4318.974121,4587.692383,4264.615234000001,4280.512695,4317.94873,450.0,3.0,73.0,,,,0.0,4.0,0.0,4.0,0.0,4.0,33.333332,,,,,,,,,,,,,,,,,,,,,,,,,,,,,,,,,,,,,,,,,,,,,,,,,,,,,,0.0,0.0,1.0,0.0,512.0,1.0,,,,,,,,,,,,,,,,,,,,,,,,,
12923,1650413964.281843,1650413964.289305,78.0,0.0,4316.410156,4552.820313,4251.794922,4280.512695,4326.153809,450.0,3.0,73.0,,,,0.0,4.0,0.0,4.0,0.0,4.0,33.333332,,,,,,,,39.0,0.0,0.278614,-0.455322,0.4646,0.706543,0.906264,-0.407721,-0.14551,-0.043926,-0.053627,-0.027170999999999997,,,,,,,,,,,,,,,,,,,,,,,,,,,,,,,,,,,,,,,,,,,,,,,,,,,,,,,,,,,,,,,,,
12924,1650413964.289658,1650413964.297219,79.0,0.0,4314.871582,4625.128418,4244.102539,4280.512695,4324.615234000001,16202.0,3.0,73.0,,,,0.0,4.0,0.0,4.0,0.0,4.0,33.333332,,,,,,,,,,,,,,,,,,,,,,,,,,,,,,,,,,,,,,,,,,,,,,,,,,,,,,,,,,,,,,,,,,,,,,,,,,,,,,,,,,,,
12925,1650413964.297472,1650413964.305034,80.0,0.0,4319.487305,4645.128418,4252.820313,4280.512695,4317.94873,450.0,3.0,73.0,,,,0.0,4.0,0.0,4.0,0.0,4.0,33.333332,,,,,,,,40.0,0.0,0.278614,-0.455322,0.4646,0.706543,0.9116350000000001,-0.404791,-0.155764,-0.044417,-0.053684,-0.021524,,,,,,,,,,,,,,,,,,,,,,,,,,,,,,,,,,,,,,,,,,,,,,,,,,,,,,,,,,,,,,,,,
12926,1650413964.305287,1650413964.312849,81.0,0.0,4316.922852000001,4573.333496,4252.307617,4280.512695,4323.589844,450.0,3.0,73.0,,,,0.0,4.0,0.0,4.0,0.0,4.0,33.333332,,,,,,,,,,,,,,,,,,,,,,,,,,,,,,,,,,,,,,,,,,,,,,,,,,,,,,0.0,0.0,1.0,0.0,512.0,1.0,,,,,,,,,,,,,,,,,,,,,,,,,
12927,1650413964.313101,1650413964.320563,82.0,0.0,4315.897461,4576.922852000001,4243.589844,4280.512695,4320.0,450.0,3.0,73.0,,,,0.0,4.0,0.0,4.0,0.0,4.0,33.333332,,,,,,,,41.0,0.0,0.278614,-0.455322,0.4646,0.706543,0.914076,-0.41113900000000003,-0.161624,-0.043344,-0.053589,-0.019323,,,,,,,,,,,,,,,,,,,,,,,,,,,,,,,,,,,,,,,,,,,,,,,,,,,,,,,,,,,,,,,,,
12928,1650413964.320916,1650413964.328378,83.0,0.0,4308.205078,4620.512695,4245.641113000001,4280.512695,4294.358886999999,16202.0,3.0,73.0,,,,0.0,4.0,0.0,4.0,0.0,4.0,33.333332,,,,,,,,,,,,,,,,,,,,,,,,,,,,,,,,,,,,,,,,,,,,,,,,,,,,,,,,,,,,,,,,,,,,,,,,,,,,,,,,,,,,
12929,1650413964.32873,1650413964.336093,84.0,0.0,4298.461426,4621.025879,4251.794922,4280.512695,4298.461426,450.0,3.0,73.0,,,,0.0,4.0,0.0,4.0,0.0,4.0,33.333332,,,,,,,,42.0,0.0,0.278614,-0.455322,0.4646,0.706543,0.906264,-0.407721,-0.14551,-0.043893,-0.05365,-0.017244,,,,,,,,,,,,,,,,,,,,,,,,,,,,,,,,,,,,,,,,,,,,,,,,,,,,,,,,,,,,,,,,,
12930,1650413964.336545,1650413964.343907,85.0,0.0,4303.589844,4616.922852000001,4246.153809,4280.512695,4323.077147999999,450.0,3.0,73.0,,,,0.0,4.0,0.0,4.0,0.0,4.0,33.333332,,,,,,,,,,,,,,,,,,,,,,,,,,,,,,,,,,,,,,,,,,,,,,,,,,,,,,0.0,0.0,1.0,0.0,512.0,1.0,,,,,,,,,,,,,,,,,,,,,,,,,
12931,1650413964.3443599,1650413964.351622,86.0,0.0,4304.102539,4600.512695,4234.358886999999,4280.512695,4306.666504,450.0,3.0,73.0,,,,0.0,4.0,0.0,4.0,0.0,4.0,33.333332,,,,,,,,43.0,0.0,0.278614,-0.455322,0.4646,0.706543,0.914076,-0.41113900000000003,-0.161624,-0.042873,-0.053559,-0.015471,,,,,,,,,,,,,,,,,,,,,,,,,,,,,,,,,,,,,,,,,,,,,,,,,,,,,,,,,,,,,,,,,
12932,1650413964.352174,1650413964.359437,87.0,0.0,4295.897461,4575.384765999999,4233.846191,4280.512695,4283.589844,16202.0,3.0,73.0,,,,0.0,4.0,0.0,4.0,0.0,4.0,33.333332,,,,,,,,,,,,,,,,,,,,,,,,,,,,,,,,,,,,,,,,,,,,,,,,,,,,,,,,,,,,,,,,,,,,,,,,,,,,,,,,,,,,
12933,1650413964.3599892,1650413964.367152,88.0,0.0,4293.846191,4591.794922,4233.333496,4280.512695,4293.333496,450.0,3.0,73.0,,,,0.0,4.0,0.0,4.0,0.0,4.0,33.333332,,,,,,,,44.0,0.0,0.27839400000000003,-0.455078,0.4646,0.7067869999999999,0.9160299999999999,-0.398444,-0.157717,-0.043517,-0.053574000000000004,-0.017195,,,,,,,,,,,,,,,,,,,,,,,,,,,,,,,,,,,,,,,,,,,,,,,,,,,,,,,,,,,,,,,,,
12934,1650413964.3678029,1650413964.374966,89.0,0.0,4297.436035,4578.974121,4231.282227000001,4280.512695,4296.922852000001,450.0,3.0,73.0,,,,0.0,4.0,0.0,4.0,0.0,4.0,33.333332,,,,,,,,,,,,,,,,,,,,1.0,0.0,0.0,,,,,,,,,,,,,,,,,,,,,,,,,,,,,,,,0.0,0.0,1.0,0.0,512.0,1.0,203.780777,14.2733,3.030153,1.4464059999999999,1.171525,10.812156,7.009789,11.531212,10.491966,8.481599000000001,2.5016529999999997,1.24801,0.6136739999999999,0.843543,0.717141,0.135551,0.09455,0.063824,0.075165,0.115227,42.127720000000004,4.008669,2.7212560000000003,1.9947080000000001,1.7728869999999999
12935,1650413964.375618,1650413964.3826811,90.0,0.0,4302.05127,4520.512695,4242.05127,4280.512695,4301.025879,450.0,3.0,73.0,,,,0.0,4.0,0.0,4.0,0.0,4.0,33.333332,,,,,,,,45.0,0.0,0.279013,-0.455078,0.4646,0.706543,0.9126120000000001,-0.407233,-0.16552999999999998,-0.044048000000000004,-0.053637,-0.012546,,,,,,,,,,,,,,,,,,,,,,,,,,,,,,,,,,,,,,,,,,,,,,,,,,,,,,,,,,,,,,,,,
12936,1650413964.383433,1650413964.390595,91.0,0.0,4310.769043,4559.487305,4251.794922,4280.512695,4323.589844,16202.0,3.0,73.0,,,,0.0,4.0,0.0,4.0,0.0,4.0,33.333332,,,,,,,,,,,,,,,,,,,,,,,,,,,,,,,,,,,,,,,,,,,,,,,,,,,,,,,,,,,,,,,,,,,,,,,,,,,,,,,,,,,,
12937,1650413964.391247,1650413964.3984098,92.0,0.0,4319.487305,4633.846191,4251.282227000001,4280.512695,4333.333496,450.0,3.0,73.0,,,,0.0,4.0,0.0,4.0,0.0,4.0,33.333332,,,,,,,,46.0,0.0,0.27839400000000003,-0.455078,0.4646,0.7067869999999999,0.906264,-0.41895200000000005,-0.166995,-0.043061,-0.053547000000000004,-0.014661000000000002,,,,,,,,,,,,,,,,,,,,,,,,,,,,,,,,,,,,,,,,,,,,,,,,,,,,,,,,,,,,,,,,,
12938,1650413964.399062,1650413964.406225,93.0,0.0,4311.282227000001,4602.563965,4249.743652,4280.512695,4307.179688,450.0,3.0,73.0,,,,0.0,4.0,0.0,4.0,0.0,4.0,33.333332,,,,,,,,,,,,,,,,,,,,,,,,,,,,,,,,,,,,,,,,,,,,,,,,,,,,,,0.0,0.0,1.0,0.0,512.0,1.0,,,,,,,,,,,,,,,,,,,,,,,,,
