,Timestamp,OriginalTimestamp,EEG.Counter,EEG.Interpolated,EEG.AF3,EEG.T7,EEG.Pz,EEG.T8,EEG.AF4,EEG.RawCq,EEG.Battery,EEG.BatteryPercent,MarkerIndex,MarkerType,MarkerValueInt,EEG.MarkerHardware,CQ.AF3,CQ.T7,CQ.Pz,CQ.T8,CQ.AF4,CQ.Overall,EQ.SampleRateQuality,EQ.OVERALL,EQ.AF3,EQ.T7,EQ.Pz,EQ.T8,EQ.AF4,MOT.CounterMems,MOT.InterpolatedMems,MOT.Q0,MOT.Q1,MOT.Q2,MOT.Q3,MOT.AccX,MOT.AccY,MOT.AccZ,MOT.MagX,MOT.MagY,MOT.MagZ,MC.Action,MC.ActionPower,MC.IsActive,PM.Engagement.IsActive,PM.Engagement.Scaled,PM.Engagement.Raw,PM.Engagement.Min,PM.Engagement.Max,PM.Excitement.IsActive,PM.Excitement.Scaled,PM.Excitement.Raw,PM.Excitement.Min,PM.Excitement.Max,PM.LongTermExcitement,PM.Stress.IsActive,PM.Stress.Scaled,PM.Stress.Raw,PM.Stress.Min,PM.Stress.Max,PM.Relaxation.IsActive,PM.Relaxation.Scaled,PM.Relaxation.Raw,PM.Relaxation.Min,PM.Relaxation.Max,PM.Interest.IsActive,PM.Interest.Scaled,PM.Interest.Raw,PM.Interest.Min,PM.Interest.Max,PM.Focus.IsActive,PM.Focus.Scaled,PM.Focus.Raw,PM.Focus.Min,PM.Focus.Max,FE.BlinkWink,FE.HorizontalEyesDirection,FE.UpperFaceAction,FE.UpperFaceActionPower,FE.LowerFaceAction,FE.LowerFaceActionPower,POW.AF3.Theta,POW.AF3.Alpha,POW.AF3.BetaL,POW.AF3.BetaH,POW.AF3.Gamma,POW.T7.Theta,POW.T7.Alpha,POW.T7.BetaL,POW.T7.BetaH,POW.T7.Gamma,POW.Pz.Theta,POW.Pz.Alpha,POW.Pz.BetaL,POW.Pz.BetaH,POW.Pz.Gamma,POW.T8.Theta,POW.T8.Alpha,POW.T8.BetaL,POW.T8.BetaH,POW.T8.Gamma,POW.AF4.Theta,POW.AF4.Alpha,POW.AF4.BetaL,POW.AF4.BetaH,POW.AF4.Gamma
6828,1645901821.167155,1645901821.193257,85.0,0.0,4388.717772999999,4449.230957,4188.717772999999,4206.666504,4312.307617,450.0,1.0,15.0,,,,0.0,4.0,1.0,4.0,4.0,4.0,75.0,,,,,,,,,,,,,,,,,,,,,,,,,,,,,,,,,,,,,,,,,,,,,,,,,,,,,,,,,,,,,,,,,,,,,,,,,,,,,,,,,,,,
6829,1645901821.17497,1645901821.201072,86.0,0.0,4395.384765999999,4454.871582,4231.282227000001,4215.897461,4328.717772999999,450.0,1.0,15.0,,,,0.0,4.0,1.0,4.0,4.0,4.0,75.0,1.0,16.666666,4.0,0.0,0.0,2.0,2.0,43.0,0.0,0.717512,0.122314,0.662354,0.17749,0.9282370000000001,-0.40381500000000004,-0.102052,-0.026836000000000002,-0.033427,-0.008914,1.0,0.0,0.0,,,,,,,,,,,,,,,,,,,,,,,,,,,,,,,,0.0,0.0,1.0,0.0,512.0,1.0,7.4347,8.050694,1.71075,1.334159,1.3324799999999999,37.143603999999996,48.278599,58.043812,9.574437,21.161749,40.053638,50.163555,3.212489,6.471317,3.838998,5.862701,3.845195,7.095994,4.461176999999999,2.105378,2.355718,2.859163,2.214944,1.5545129999999998,1.510198
6830,1645901821.182785,1645901821.2088869,87.0,0.0,4374.871582,4458.974121,4271.282227000001,4229.230957,4328.717772999999,16105.0,1.0,15.0,,,,0.0,4.0,1.0,4.0,4.0,4.0,75.0,,,,,,,,,,,,,,,,,,,,,,,,,,,,,,,,,,,,,,,,,,,,,,,,,,,,,,,,,,,,,,,,,,,,,,,,,,,,,,,,,,,,
6831,1645901821.1906009,1645901821.216701,88.0,0.0,4375.897461,4415.384765999999,4245.128418,4210.256348,4326.666504,450.0,1.0,15.0,,,,0.0,4.0,1.0,4.0,4.0,4.0,75.0,,,,,,,,44.0,0.0,0.717512,0.122314,0.662354,0.17749,0.9209129999999999,-0.409186,-0.097169,-0.027375,-0.0336,-0.010317,,,,,,,,,,,,,,,,,,,,,,,,,,,,,,,,,,,,,,,,,,,,,,,,,,,,,,,,,,,,,,,,,
6832,1645901821.198416,1645901821.224516,89.0,0.0,4386.153809,4398.974121,4285.128418,4203.077147999999,4321.025879,450.0,1.0,15.0,,,,0.0,4.0,1.0,4.0,4.0,4.0,75.0,,,,,,,,,,,,,,,,,,,,,,,,,,,,,,,,,,,,,,,,,,,,,,,,,,,,,,,,,,,,,,,,,,,,,,,,,,,,,,,,,,,,
6833,1645901821.206231,1645901821.232331,90.0,0.0,4386.153809,4457.94873,4289.230957,4221.025879,4318.461426,450.0,1.0,15.0,,,,0.0,4.0,1.0,4.0,4.0,4.0,75.0,,,,,,,,45.0,0.0,0.717696,0.12255899999999999,0.6621090000000001,0.17749,0.923842,-0.407233,-0.090822,-0.027860000000000003,-0.033561,-0.008553,,,,,,,,,,,,,,,,,,,,,,,,,,,,,,,,,,,0.0,0.0,1.0,0.0,512.0,1.0,,,,,,,,,,,,,,,,,,,,,,,,,
6834,1645901821.214046,1645901821.240145,91.0,0.0,4373.333496,4445.128418,4282.563965,4187.179688,4327.692383,16105.0,1.0,15.0,,,,0.0,4.0,1.0,4.0,4.0,4.0,75.0,,,,,,,,,,,,,,,,,,,,,,,,,,,,,,,,,,,,,,,,,,,,,,,,,,,,,,,,,,,,,,,,,,,,,,,,,,,,,,,,,,,,
6835,1645901821.221861,1645901821.24806,92.0,0.0,4381.025879,4366.153809,4258.974121,4153.333496,4353.846191,450.0,1.0,15.0,,,,0.0,4.0,1.0,4.0,4.0,4.0,75.0,,,,,,,,46.0,0.0,0.717654,0.122803,0.6621090000000001,0.17749,0.9116350000000001,-0.396002,-0.09033300000000001,-0.028346,-0.033574,-0.006965000000000001,,,,,,,,,,,,,,,,,,,,,,,,,,,,,,,,,,,,,,,,,,,,,,,,,,,,,,,,,,,,,,,,,
6836,1645901821.229676,1645901821.255874,93.0,0.0,4392.820313,4377.436035,4216.922852000001,4194.871582,4345.128418,450.0,1.0,15.0,,,,0.0,4.0,1.0,4.0,4.0,4.0,75.0,,,,,,,,,,,,,,,,,,,,,,,,,,,,,,,,,,,,,,,,,,,,,,,,,,,,,,,,,,,,,,,,,,,,,,,,,,,,,,,,,,,,
6837,1645901821.2374911,1645901821.263689,94.0,0.0,4398.974121,4473.846191,4174.871582,4226.666504,4324.615234000001,450.0,1.0,15.0,,,,0.0,4.0,1.0,4.0,4.0,4.0,75.0,,,,,,,,47.0,0.0,0.717715,0.122803,0.6621090000000001,0.17724600000000001,0.917983,-0.39697899999999997,-0.10254100000000001,-0.028783,-0.033586000000000005,-0.005536,,,,,,,,,,,,,,,,,,,,,,,,,,,,,,,,,,,0.0,0.0,1.0,0.0,512.0,1.0,,,,,,,,,,,,,,,,,,,,,,,,,
6838,1645901821.245307,1645901821.271504,95.0,0.0,4386.153809,4486.153809,4222.563965,4201.025879,4323.589844,16105.0,1.0,15.0,,,,0.0,4.0,1.0,4.0,4.0,4.0,75.0,,,,,,,,,,,,,,,,,,,,,,,,,,,,,,,,,,,,,,,,,,,,,,,,,,,,,,,,,,,,,,,,,,,,,,,,,,,,,,,,,,,,
6839,1645901821.253122,1645901821.2793179,96.0,0.0,4378.461426,4404.615234000001,4240.512695,4201.538574,4355.384765999999,450.0,1.0,15.0,,,,0.0,4.0,1.0,4.0,4.0,4.0,75.0,,,,,,,,48.0,0.0,0.717654,0.122803,0.6621090000000001,0.17749,0.929213,-0.39942,-0.096193,-0.029029000000000003,-0.033547,-0.007375,,,,,,,,,,,,,,,,,,,,,,,,,,,,,,,,,,,,,,,,,,,,,,,,,,,,,,,,,,,,,,,,,
6840,1645901821.260937,1645901821.287133,97.0,0.0,4378.974121,4447.179688,4202.05127,4216.922852000001,4363.589844,450.0,1.0,15.0,,,,0.0,4.0,1.0,4.0,4.0,4.0,75.0,,,,,,,,,,,,,,,,,,,,,,,,,,,,,,,,,,,,,,,,,,,,,,,,,,,,,,,,,,,,,,,,,,,,,,,,,,,,,,,,,,,,
6841,1645901821.2687519,1645901821.294948,98.0,0.0,4408.717772999999,4534.871582,4193.846191,4198.461426,4366.153809,450.0,1.0,15.0,,,,0.0,4.0,1.0,4.0,4.0,4.0,75.0,,,,,,,,49.0,0.0,0.717696,0.12255899999999999,0.6621090000000001,0.17749,0.9267719999999999,-0.40528000000000003,-0.09424,-0.029398,-0.033562,-0.005905,,,,,,,,,,,,,,,,,,,,,,,,,,,,,,,,,,,0.0,0.0,1.0,0.0,512.0,1.0,,,,,,,,,,,,,,,,,,,,,,,,,
6842,1645901821.276567,1645901821.302762,99.0,0.0,4406.666504,4386.153809,4192.307617,4183.077147999999,4369.743652,16105.0,1.0,15.0,,,,0.0,4.0,1.0,4.0,4.0,4.0,75.0,,,,,,,,,,,,,,,,,,,,,,,,,,,,,,,,,,,,,,,,,,,,,,,,,,,,,,,,,,,,,,,,,,,,,,,,,,,,,,,,,,,,
6843,1645901821.284383,1645901821.310577,100.0,0.0,4391.282227000001,4275.384765999999,4198.461426,4216.410156,4355.384765999999,450.0,1.0,15.0,,,,0.0,4.0,1.0,4.0,4.0,4.0,75.0,,,,,,,,50.0,0.0,0.7176359999999999,0.12255899999999999,0.6621090000000001,0.177734,0.923842,-0.415045,-0.09472799999999999,-0.029632,-0.033575,-0.007708,,,,,,,,,,,,,,,,,,,,,,,,,,,,,,,,,,,,,,,,,,,,,,,,,,,,,,,,,,,,,,,,,
6844,1645901821.292198,1645901821.318492,101.0,0.0,4400.0,4408.717772999999,4208.717772999999,4215.897461,4338.461426,450.0,1.0,15.0,,,,0.0,4.0,1.0,4.0,4.0,4.0,75.0,,,,,,,,,,,,,,,,,,,,,,,,,,,,,,,,,,,,,,,,,,,,,,,,,,,,,,,,,,,,,,,,,,,,,,,,,,,,,,,,,,,,
6845,1645901821.300013,1645901821.326306,102.0,0.0,4390.256348,4443.077147999999,4256.922852000001,4202.563965,4345.128418,450.0,1.0,15.0,,,,0.0,4.0,1.0,4.0,4.0,4.0,75.0,,,,,,,,51.0,0.0,0.7176359999999999,0.12255899999999999,0.6621090000000001,0.177734,0.9111469999999999,-0.41455699999999995,-0.099611,-0.029892000000000002,-0.033489,-0.009183,1.0,0.0,0.0,,,,,,,,,,,,,,,,,,,,,,,,,,,,,,,,0.0,0.0,1.0,0.0,512.0,1.0,6.677346000000001,6.978239,1.628056,1.434657,1.374809,40.984446999999996,46.695244,60.479836,8.990515,20.214226,36.853695,49.327606,3.524522,6.395261,4.040769,5.855212,3.188289,6.7557979999999995,4.5918209999999995,1.9993029999999998,2.722226,3.075883,2.198049,1.6086340000000001,1.5373709999999998
6846,1645901821.307828,1645901821.334121,103.0,0.0,4365.128418,4336.410156,4271.282227000001,4211.282227000001,4347.179688,16105.0,1.0,15.0,,,,0.0,4.0,1.0,4.0,4.0,4.0,75.0,,,,,,,,,,,,,,,,,,,,,,,,,,,,,,,,,,,,,,,,,,,,,,,,,,,,,,,,,,,,,,,,,,,,,,,,,,,,,,,,,,,,
6847,1645901821.315643,1645901821.341935,104.0,0.0,4378.974121,4386.666504,4280.0,4212.820313,4330.256348,450.0,1.0,15.0,,,,0.0,4.0,1.0,4.0,4.0,4.0,75.0,,,,,,,,52.0,0.0,0.7176359999999999,0.12255899999999999,0.6621090000000001,0.177734,0.9243309999999999,-0.406744,-0.098146,-0.026951,-0.033460000000000004,-0.010657,,,,,,,,,,,,,,,,,,,,,,,,,,,,,,,,,,,,,,,,,,,,,,,,,,,,,,,,,,,,,,,,,
6848,1645901821.323459,1645901821.34975,105.0,0.0,4416.922852000001,4476.922852000001,4264.615234000001,4207.179688,4334.358886999999,450.0,1.0,15.0,,,,0.0,4.0,1.0,4.0,4.0,4.0,75.0,,,,,,,,,,,,,,,,,,,,,,,,,,,,,,,,,,,,,,,,,,,,,,,,,,,,,,,,,,,,,,,,,,,,,,,,,,,,,,,,,,,,
6849,1645901821.331274,1645901821.357565,106.0,0.0,4400.0,4410.769043,4276.410156,4185.128418,4345.641113000001,450.0,1.0,15.0,,,,0.0,4.0,1.0,4.0,4.0,4.0,75.0,,,,,,,,53.0,0.0,0.717471,0.12255899999999999,0.662354,0.17749,0.9243309999999999,-0.411627,-0.096193,-0.027479000000000003,-0.033484,-0.00881,,,,,,,,,,,,,,,,,,,,,,,,,,,,,,,,,,,0.0,0.0,1.0,0.0,512.0,1.0,,,,,,,,,,,,,,,,,,,,,,,,,
6850,1645901821.3390892,1645901821.3653789,107.0,0.0,4373.333496,4327.179688,4244.615234000001,4156.410156,4322.563965,16105.0,1.0,15.0,,,,0.0,4.0,1.0,4.0,4.0,4.0,75.0,,,,,,,,,,,,,,,,,,,,,,,,,,,,,,,,,,,,,,,,,,,,,,,,,,,,,,,,,,,,,,,,,,,,,,,,,,,,,,,,,,,,
6851,1645901821.3469038,1645901821.373194,108.0,0.0,4384.102539,4344.615234000001,4242.563965,4174.871582,4295.897461,450.0,1.0,15.0,,,,0.0,4.0,1.0,4.0,4.0,4.0,75.0,,,,,,,,54.0,0.0,0.717471,0.12255899999999999,0.662354,0.17749,0.922866,-0.390631,-0.098146,-0.027856,-0.033407,-0.010322,,,,,,,,,,,,,,,,,,,,,,,,,,,,,,,,,,,,,,,,,,,,,,,,,,,,,,,,,,,,,,,,,
6852,1645901821.354719,1645901821.381009,109.0,0.0,4395.384765999999,4397.436035,4252.820313,4214.871582,4295.384765999999,450.0,1.0,15.0,,,,0.0,4.0,1.0,4.0,4.0,4.0,75.0,,,,,,,,,,,,,,,,,,,,,,,,,,,,,,,,,,,,,,,,,,,,,,,,,,,,,,,,,,,,,,,,,,,,,,,,,,,,,,,,,,,,
6853,1645901821.362534,1645901821.388823,110.0,0.0,4381.538574,4354.871582,4228.717772999999,4185.641113000001,4300.0,450.0,1.0,15.0,,,,0.0,4.0,1.0,4.0,4.0,4.0,75.0,,,,,,,,55.0,0.0,0.717471,0.12255899999999999,0.662354,0.17749,0.916518,-0.39942,-0.092287,-0.028293000000000002,-0.033435,-0.008556999999999999,,,,,,,,,,,,,,,,,,,,,,,,,,,,,,,,,,,0.0,0.0,1.0,0.0,512.0,1.0,,,,,,,,,,,,,,,,,,,,,,,,,
6854,1645901821.37035,1645901821.396738,111.0,0.0,4394.871582,4239.487305,4186.153809,4201.538574,4315.897461,16105.0,1.0,15.0,,,,0.0,4.0,1.0,4.0,4.0,4.0,75.0,,,,,,,,,,,,,,,,,,,,,,,,,,,,,,,,,,,,,,,,,,,,,,,,,,,,,,,,,,,,,,,,,,,,,,,,,,,,,,,,,,,,
6855,1645901821.378165,1645901821.404553,112.0,0.0,4406.153809,4250.256348,4203.077147999999,4237.94873,4323.077147999999,450.0,1.0,15.0,,,,0.0,4.0,1.0,4.0,4.0,4.0,75.0,,,,,,,,56.0,0.0,0.717245,0.12255899999999999,0.6625979999999999,0.17749,0.917006,-0.406256,-0.08105599999999999,-0.02854,-0.033461000000000005,-0.00692,,,,,,,,,,,,,,,,,,,,,,,,,,,,,,,,,,,,,,,,,,,,,,,,,,,,,,,,,,,,,,,,,
6856,1645901821.3859801,1645901821.412367,113.0,0.0,4376.410156,4309.230957,4220.0,4198.974121,4319.487305,450.0,1.0,15.0,,,,0.0,4.0,1.0,4.0,4.0,4.0,75.0,,,,,,,,,,,,,,,,,,,,,,,,,,,,,,,,,,,,,,,,,,,,,,,,,,,,,,,,,,,,,,,,,,,,,,,,,,,,,,,,,,,,
6857,1645901821.393795,1645901821.420182,114.0,0.0,4352.820313,4242.05127,4210.769043,4167.692383,4292.820313,450.0,1.0,15.0,,,,0.0,4.0,1.0,4.0,4.0,4.0,75.0,,,,,,,,57.0,0.0,0.717245,0.12255899999999999,0.6625979999999999,0.17749,0.9233540000000001,-0.401373,-0.10547000000000001,-0.028811,-0.033435,-0.00867,,,,,,,,,,,,,,,,,,,,,,,,,,,,,,,,,,,0.0,0.0,1.0,0.0,512.0,1.0,,,,,,,,,,,,,,,,,,,,,,,,,
6858,1645901821.40161,1645901821.4279962,115.0,0.0,4376.410156,4191.794922,4224.615234000001,4196.922852000001,4304.615234000001,16105.0,1.0,15.0,,,,0.0,4.0,1.0,4.0,4.0,4.0,75.0,,,,,,,,,,,,,,,,,,,,,,,,,,,,,,,,,,,,,,,,,,,,,,,,,,,,,,,,,,,,,,,,,,,,,,,,,,,,,,,,,,,,
6859,1645901821.409425,1645901821.435811,116.0,0.0,4376.410156,4199.487305,4209.230957,4207.179688,4325.641113000001,450.0,1.0,15.0,,,,0.0,4.0,1.0,4.0,4.0,4.0,75.0,,,,,,,,58.0,0.0,0.717245,0.12255899999999999,0.6625979999999999,0.17749,0.9272600000000001,-0.398932,-0.087404,-0.029153,-0.033510000000000005,-0.006973,,,,,,,,,,,,,,,,,,,,,,,,,,,,,,,,,,,,,,,,,,,,,,,,,,,,,,,,,,,,,,,,,
6860,1645901821.417241,1645901821.443626,117.0,0.0,4376.922852000001,4211.794922,4204.615234000001,4204.102539,4314.358886999999,450.0,1.0,15.0,,,,0.0,4.0,1.0,4.0,4.0,4.0,75.0,,,,,,,,,,,,,,,,,,,,,,,,,,,,,,,,,,,,,,,,,,,,,,,,,,,,,,,,,,,,,,,,,,,,,,,,,,,,,,,,,,,,
6861,1645901821.425056,1645901821.45144,118.0,0.0,4394.358886999999,4236.922852000001,4227.179688,4200.0,4308.717772999999,450.0,1.0,15.0,,,,0.0,4.0,1.0,4.0,4.0,4.0,75.0,,,,,,,,59.0,0.0,0.717287,0.122314,0.6625979999999999,0.17749,0.914076,-0.406744,-0.086427,-0.026286,-0.033479,-0.008619,1.0,0.0,0.0,,,,,,,,,,,,,,,,,,,,,,,,,,,,,,,,0.0,0.0,1.0,0.0,512.0,1.0,5.617312,5.664992,1.665244,1.608886,1.383059,42.519753,41.220394,61.017677,8.650925,18.940964,33.699696,47.400372,3.985013,6.1235040000000005,4.379118,5.470403,2.555182,6.082312,4.606594,1.885329,3.190182,3.5713190000000004,2.0187310000000003,1.7823490000000002,1.539908
6862,1645901821.432871,1645901821.459255,119.0,0.0,4390.256348,4298.974121,4248.717772999999,4207.179688,4347.179688,16105.0,1.0,15.0,,,,0.0,4.0,1.0,4.0,4.0,4.0,75.0,,,,,,,,,,,,,,,,,,,,,,,,,,,,,,,,,,,,,,,,,,,,,,,,,,,,,,,,,,,,,,,,,,,,,,,,,,,,,,,,,,,,
6863,1645901821.440686,1645901821.46717,120.0,0.0,4391.794922,4388.717772999999,4244.615234000001,4220.0,4365.641113000001,450.0,1.0,15.0,,,,0.0,4.0,1.0,4.0,4.0,4.0,75.0,,,,,,,,60.0,0.0,0.717245,0.12255899999999999,0.6625979999999999,0.17749,0.9233540000000001,-0.401373,-0.10547000000000001,-0.026782999999999998,-0.033549,-0.007025,,,,,,,,,,,,,,,,,,,,,,,,,,,,,,,,,,,,,,,,,,,,,,,,,,,,,,,,,,,,,,,,,
6864,1645901821.4485009,1645901821.474984,121.0,0.0,4409.743652,4408.717772999999,4277.94873,4194.358886999999,4318.974121,450.0,1.0,15.0,,,,0.0,4.0,1.0,4.0,4.0,4.0,75.0,,,,,,,,,,,,,,,,,,,,,,,,,,,,,,,,,,,,,,,,,,,,,,,,,,,,,,,,,,,,,,,,,,,,,,,,,,,,,,,,,,,,
6865,1645901821.456316,1645901821.482799,122.0,0.0,4407.692383,4321.025879,4248.717772999999,4154.358886999999,4303.077147999999,450.0,1.0,15.0,,,,0.0,4.0,1.0,4.0,4.0,4.0,75.0,,,,,,,,61.0,0.0,0.717287,0.122314,0.6625979999999999,0.17749,0.914076,-0.406744,-0.086427,-0.024153,-0.033514999999999996,-0.008666,,,,,,,,,,,,,,,,,,,,,,,,,,,,,,,,,,,0.0,0.0,1.0,0.0,512.0,1.0,,,,,,,,,,,,,,,,,,,,,,,,,
6866,1645901821.464131,1645901821.4906142,123.0,0.0,4383.589844,4264.615234000001,4253.333496,4168.205078,4330.256348,16105.0,1.0,15.0,,,,0.0,4.0,1.0,4.0,4.0,4.0,75.0,,,,,,,,,,,,,,,,,,,,,,,,,,,,,,,,,,,,,,,,,,,,,,,,,,,,,,,,,,,,,,,,,,,,,,,,,,,,,,,,,,,,
6867,1645901821.471947,1645901821.4984279,124.0,0.0,4395.897461,4300.512695,4265.128418,4177.436035,4344.615234000001,450.0,1.0,15.0,,,,0.0,4.0,1.0,4.0,4.0,4.0,75.0,,,,,,,,62.0,0.0,0.7171029999999999,0.12207,0.662842,0.17749,0.9199360000000001,-0.39453699999999997,-0.080568,-0.024863,-0.033532,-0.010094,,,,,,,,,,,,,,,,,,,,,,,,,,,,,,,,,,,,,,,,,,,,,,,,,,,,,,,,,,,,,,,,,
6868,1645901821.4797618,1645901821.506243,125.0,0.0,4403.077147999999,4313.846191,4253.846191,4153.846191,4332.307617,450.0,1.0,15.0,,,,0.0,4.0,1.0,4.0,4.0,4.0,75.0,,,,,,,,,,,,,,,,,,,,,,,,,,,,,,,,,,,,,,,,,,,,,,,,,,,,,,,,,,,,,,,,,,,,,,,,,,,,,,,,,,,,
6869,1645901821.487577,1645901821.514057,126.0,0.0,4405.128418,4311.794922,4220.0,4167.179688,4338.974121,450.0,1.0,15.0,,,,0.0,4.0,1.0,4.0,4.0,4.0,75.0,,,,,,,,63.0,0.0,0.717043,0.12207,0.662842,0.177734,0.9248190000000001,-0.408698,-0.095216,-0.025404,-0.033548,-0.011331,,,,,,,,,,,,,,,,,,,,,,,,,,,,,,,,,,,0.0,0.0,1.0,0.0,512.0,1.0,,,,,,,,,,,,,,,,,,,,,,,,,
6870,1645901821.495392,1645901821.521872,127.0,0.0,4402.563965,4311.794922,4239.487305,4173.846191,4341.025879,232.0,1.0,15.0,,,,0.0,4.0,1.0,4.0,4.0,4.0,75.0,,,,,,,,,,,,,,,,,,,,,,,,,,,,,,,,,,,,,,,,,,,,,,,,,,,,,,,,,,,,,,,,,,,,,,,,,,,,,,,,,,,,
6871,1645901821.503207,1645901821.529687,0.0,0.0,4425.128418,4273.846191,4216.922852000001,4165.128418,4340.512695,450.0,1.0,15.0,,,,0.0,4.0,1.0,4.0,4.0,4.0,75.0,,,,,,,,0.0,0.0,0.717001,0.122314,0.662842,0.177734,0.901869,-0.40235,-0.09472799999999999,-0.026086,-0.033563,-0.009417,,,,,,,,,,,,,,,,,,,,,,,,,,,,,,,,,,,,,,,,,,,,,,,,,,,,,,,,,,,,,,,,,
6872,1645901821.511022,1645901821.537601,1.0,0.0,4432.307617,4292.307617,4213.333496,4184.615234000001,4353.333496,450.0,1.0,15.0,,,,0.0,2.0,1.0,4.0,4.0,4.0,58.33333199999999,,,,,,,,,,,,,,,,,,,,,,,,,,,,,,,,,,,,,,,,,,,,,,,,,,,,,,,,,,,,,,,,,,,,,,,,,,,,,,,,,,,,
6873,1645901821.5188382,1645901821.545416,2.0,0.0,4417.436035,4318.461426,4243.077147999999,4218.974121,4361.025879,300.0,1.0,15.0,,,,0.0,2.0,1.0,4.0,4.0,4.0,58.33333199999999,,,,,,,,1.0,0.0,0.717001,0.122314,0.662842,0.177734,0.9267719999999999,-0.406256,-0.10888800000000001,-0.0267,-0.033576,-0.010721,,,,,,,,,,,,,,,,,,,,,,,,,,,,,,,,,,,0.0,0.0,1.0,0.0,512.0,1.0,,,,,,,,,,,,,,,,,,,,,,,,,
6874,1645901821.5266528,1645901821.553231,3.0,0.0,4409.230957,4223.589844,4209.743652,4193.333496,4336.410156,450.0,1.0,15.0,,,,0.0,2.0,1.0,4.0,4.0,4.0,58.33333199999999,,,,,,,,,,,,,,,,,,,,,,,,,,,,,,,,,,,,,,,,,,,,,,,,,,,,,,,,,,,,,,,,,,,,,,,,,,,,,,,,,,,,
6875,1645901821.534468,1645901821.561045,4.0,0.0,4408.205078,4157.436035,4202.05127,4181.538574,4330.256348,65.0,1.0,15.0,,,,0.0,2.0,1.0,4.0,4.0,4.0,58.33333199999999,,,,,,,,2.0,0.0,0.717001,0.122314,0.662842,0.177734,0.914076,-0.40235,-0.098146,-0.027058,-0.033587,-0.011895000000000001,,,,,,,,,,,,,,,,,,,,,,,,,,,,,,,,,,,,,,,,,,,,,,,,,,,,,,,,,,,,,,,,,
6876,1645901821.542283,1645901821.56886,5.0,0.0,4389.230957,4210.256348,4234.358886999999,4203.077147999999,4342.563965,450.0,1.0,15.0,,,,0.0,2.0,1.0,4.0,4.0,4.0,58.33333199999999,,,,,,,,,,,,,,,,,,,,,,,,,,,,,,,,,,,,,,,,,,,,,,,,,,,,,,,,,,,,,,,,,,,,,,,,,,,,,,,,,,,,
6877,1645901821.550098,1645901821.576675,6.0,0.0,4394.871582,4255.384765999999,4235.384765999999,4195.897461,4349.743652,16143.0,1.0,15.0,,,,0.0,2.0,1.0,4.0,4.0,4.0,58.33333199999999,,,,,,,,3.0,0.0,0.717001,0.122314,0.662842,0.177734,0.918959,-0.400397,-0.092287,-0.027624,-0.033549,-0.013000999999999999,1.0,0.0,0.0,,,,,,,,,,,,,,,,,,,,,,,,,,,,,,,,0.0,0.0,1.0,0.0,512.0,1.0,4.686038,4.433964,1.736103,1.7502520000000001,1.348157,41.367435,33.73373,60.38626899999999,8.743583000000001,17.975676,31.825335,44.236855,4.5486379999999995,5.695809,4.777711,5.103765,2.030302,5.255766,4.451219,1.7680799999999999,3.7822440000000004,4.161519,1.7308869999999998,2.017894,1.513131
6878,1645901821.557914,1645901821.584489,7.0,0.0,4418.974121,4290.256348,4224.102539,4165.641113000001,4338.461426,450.0,1.0,15.0,,,,0.0,2.0,1.0,4.0,4.0,4.0,58.33333199999999,,,,,,,,,,,,,,,,,,,,,,,,,,,,,,,,,,,,,,,,,,,,,,,,,,,,,,,,,,,,,,,,,,,,,,,,,,,,,,,,,,,,
6879,1645901821.565729,1645901821.592304,8.0,0.0,4404.615234000001,4338.461426,4289.230957,4158.461426,4337.436035,450.0,1.0,15.0,,,,0.0,2.0,1.0,4.0,4.0,4.0,58.33333199999999,,,,,,,,4.0,0.0,0.716899,0.12255899999999999,0.662842,0.177979,0.928725,-0.409674,-0.08447400000000001,-0.028083999999999998,-0.033563,-0.010919,,,,,,,,,,,,,,,,,,,,,,,,,,,,,,,,,,,,,,,,,,,,,,,,,,,,,,,,,,,,,,,,,
6880,1645901821.573544,1645901821.600118,9.0,0.0,4391.794922,4323.589844,4278.461426,4175.384765999999,4354.871582,16298.0,1.0,15.0,,,,0.0,2.0,1.0,4.0,4.0,4.0,58.33333199999999,,,,,,,,,,,,,,,,,,,,,,,,,,,,,,,,,,,,,,,,,,,,,,,,,,,,,,,,,,,,,,,,,,,,,,,,,,,,,,,,,,,,
6881,1645901821.581359,1645901821.607933,10.0,0.0,4407.692383,4300.512695,4226.666504,4192.820313,4341.025879,450.0,1.0,15.0,,,,0.0,2.0,1.0,4.0,4.0,4.0,58.33333199999999,,,,,,,,5.0,0.0,0.716899,0.12255899999999999,0.662842,0.177979,0.9150530000000001,-0.397955,-0.098146,-0.028547000000000003,-0.033770999999999995,-0.012074,,,,,,,,,,,,,,,,,,,,,,,,,,,,,,,,,,,0.0,0.0,1.0,0.0,512.0,1.0,,,,,,,,,,,,,,,,,,,,,,,,,
6882,1645901821.589174,1645901821.615848,11.0,0.0,4397.436035,4334.871582,4209.230957,4206.666504,4308.205078,16075.0,1.0,15.0,,,,0.0,2.0,1.0,4.0,4.0,4.0,58.33333199999999,,,,,,,,,,,,,,,,,,,,,,,,,,,,,,,,,,,,,,,,,,,,,,,,,,,,,,,,,,,,,,,,,,,,,,,,,,,,,,,,,,,,
6883,1645901821.59699,1645901821.623662,12.0,0.0,4375.897461,4329.230957,4239.487305,4209.230957,4311.794922,450.0,1.0,15.0,,,,0.0,2.0,1.0,4.0,4.0,4.0,58.33333199999999,,,,,,,,6.0,0.0,0.716899,0.12255899999999999,0.662842,0.177979,0.929213,-0.41651000000000005,-0.099123,-0.028817000000000002,-0.033861,-0.010036,,,,,,,,,,,,,,,,,,,,,,,,,,,,,,,,,,,,,,,,,,,,,,,,,,,,,,,,,,,,,,,,,
6884,1645901821.604805,1645901821.6314769,13.0,0.0,4384.615234000001,4293.333496,4234.871582,4202.563965,4358.974121,450.0,1.0,15.0,,,,0.0,2.0,1.0,4.0,4.0,4.0,58.33333199999999,,,,,,,,,,,,,,,,,,,,,,,,,,,,,,,,,,,,,,,,,,,,,,,,,,,,,,,,,,,,,,,,,,,,,,,,,,,,,,,,,,,,
6885,1645901821.6126199,1645901821.639292,14.0,0.0,4385.641113000001,4251.282227000001,4218.974121,4191.794922,4352.820313,450.0,1.0,15.0,,,,0.0,2.0,1.0,4.0,4.0,4.0,58.33333199999999,,,,,,,,7.0,0.0,0.716959,0.12255899999999999,0.662842,0.177734,0.9184709999999999,-0.40576799999999996,-0.083986,-0.028963,-0.033893,-0.01123,,,,,,,,,,,,,,,,,,,,,,,,,,,,,,,,,,,0.0,0.0,1.0,0.0,512.0,1.0,,,,,,,,,,,,,,,,,,,,,,,,,
6886,1645901821.620435,1645901821.6471062,15.0,0.0,4389.743652,4147.179688,4185.128418,4176.922852000001,4343.589844,16075.0,1.0,15.0,,,,0.0,2.0,1.0,4.0,4.0,4.0,58.33333199999999,,,,,,,,,,,,,,,,,,,,,,,,,,,,,,,,,,,,,,,,,,,,,,,,,,,,,,,,,,,,,,,,,,,,,,,,,,,,,,,,,,,,
6887,1645901821.62825,1645901821.654921,16.0,0.0,4386.153809,4111.794922,4203.589844,4158.974121,4340.512695,0.0,1.0,15.0,,,,0.0,2.0,1.0,4.0,4.0,4.0,58.33333199999999,,,,,,,,8.0,0.0,0.716959,0.12255899999999999,0.662842,0.177734,0.916518,-0.408698,-0.09765800000000001,-0.029192000000000003,-0.033971,-0.009276999999999999,,,,,,,,,,,,,,,,,,,,,,,,,,,,,,,,,,,,,,,,,,,,,,,,,,,,,,,,,,,,,,,,,
6888,1645901821.636065,1645901821.662736,17.0,0.0,4388.717772999999,4261.538574,4231.282227000001,4145.641113000001,4332.307617,0.0,1.0,15.0,,,,0.0,2.0,1.0,4.0,4.0,4.0,58.33333199999999,,,,,,,,,,,,,,,,,,,,,,,,,,,,,,,,,,,,,,,,,,,,,,,,,,,,,,,,,,,,,,,,,,,,,,,,,,,,,,,,,,,,
6889,1645901821.6438801,1645901821.67055,18.0,0.0,4384.102539,4320.0,4203.589844,4158.974121,4337.94873,0.0,1.0,15.0,,,,0.0,2.0,1.0,4.0,4.0,4.0,58.33333199999999,,,,,,,,9.0,0.0,0.716959,0.12255899999999999,0.662842,0.177734,0.9282370000000001,-0.408698,-0.082521,-0.026320999999999997,-0.033894,-0.007568000000000001,,,,,,,,,,,,,,,,,,,,,,,,,,,,,,,,,,,0.0,0.0,1.0,0.0,512.0,1.0,,,,,,,,,,,,,,,,,,,,,,,,,
6890,1645901821.6516962,1645901821.678365,19.0,0.0,4400.0,4244.102539,4186.666504,4206.666504,4370.769043,0.0,1.0,15.0,,,,0.0,2.0,1.0,4.0,4.0,4.0,58.33333199999999,,,,,,,,,,,,,,,,,,,,,,,,,,,,,,,,,,,,,,,,,,,,,,,,,,,,,,,,,,,,,,,,,,,,,,,,,,,,,,,,,,,,
6891,1645901821.6595109,1645901821.686179,20.0,0.0,4408.205078,4252.820313,4197.94873,4207.179688,4374.358886999999,0.0,1.0,15.0,,,,0.0,2.0,1.0,4.0,4.0,4.0,58.33333199999999,,,,,,,,10.0,0.0,0.716899,0.12255899999999999,0.662842,0.177979,0.9199360000000001,-0.40235,-0.092287,-0.023738,-0.033971,-0.009155,,,,,,,,,,,,,,,,,,,,,,,,,,,,,,,,,,,,,,,,,,,,,,,,,,,,,,,,,,,,,,,,,
6892,1645901821.667326,1645901821.693994,21.0,0.0,4381.538574,4285.128418,4227.692383,4191.282227000001,4340.0,0.0,1.0,15.0,,,,0.0,2.0,1.0,4.0,4.0,4.0,58.33333199999999,,,,,,,,,,,,,,,,,,,,,,,,,,,,,,,,,,,,,,,,,,,,,,,,,,,,,,,,,,,,,,,,,,,,,,,,,,,,,,,,,,,,
6893,1645901821.675141,1645901821.701909,22.0,0.0,4347.692383,4215.897461,4251.794922,4175.897461,4322.05127,0.0,1.0,15.0,,,,0.0,2.0,1.0,4.0,4.0,4.0,58.33333199999999,1.0,16.666666,2.0,0.0,0.0,2.0,2.0,11.0,0.0,0.716899,0.12255899999999999,0.662842,0.177979,0.9184709999999999,-0.395514,-0.095705,-0.024636,-0.033943,-0.010631999999999999,1.0,0.0,0.0,,,,,,,,,,,,,,,,,,,,,,,,,,,,,,,,0.0,0.0,1.0,0.0,512.0,1.0,4.155941,3.499142,1.771047,1.7988380000000002,1.282992,38.343895,26.721008,59.04805,9.315316000000001,17.879118,32.057140000000004,40.309452,5.11704,5.212636,5.153708999999999,5.125828,1.6441430000000001,4.459388,4.137123,1.6699060000000001,4.621393,4.623408,1.416364,2.238336,1.464474
6894,1645901821.682956,1645901821.709723,23.0,0.0,4361.025879,4211.282227000001,4299.487305,4149.743652,4326.153809,0.0,1.0,15.0,,,,0.0,2.0,1.0,4.0,4.0,4.0,58.33333199999999,,,,,,,,,,,,,,,,,,,,,,,,,,,,,,,,,,,,,,,,,,,,,,,,,,,,,,,,,,,,,,,,,,,,,,,,,,,,,,,,,,,,
6895,1645901821.690771,1645901821.717538,24.0,0.0,4400.512695,4267.179688,4269.230957,4137.436035,4328.717772999999,0.0,1.0,15.0,,,,0.0,2.0,1.0,4.0,4.0,4.0,58.33333199999999,,,,,,,,12.0,0.0,0.716857,0.122803,0.662842,0.177979,0.926284,-0.41065100000000004,-0.098634,-0.025444,-0.033918000000000004,-0.01201,,,,,,,,,,,,,,,,,,,,,,,,,,,,,,,,,,,,,,,,,,,,,,,,,,,,,,,,,,,,,,,,,
6896,1645901821.698587,1645901821.725353,25.0,0.0,4408.205078,4236.922852000001,4242.563965,4162.563965,4345.641113000001,0.0,1.0,15.0,,,,0.0,2.0,1.0,4.0,4.0,4.0,58.33333199999999,,,,,,,,,,,,,,,,,,,,,,,,,,,,,,,,,,,,,,,,,,,,,,,,,,,,,,,,,,,,,,,,,,,,,,,,,,,,,,,,,,,,
6897,1645901821.706402,1645901821.733167,26.0,0.0,4496.922852000001,4189.743652,4235.384765999999,4174.358886999999,4404.102539,0.0,1.0,15.0,,,,0.0,2.0,1.0,4.0,4.0,4.0,58.33333199999999,,,,,,,,13.0,0.0,0.716796,0.122803,0.662842,0.178223,0.923842,-0.41113900000000003,-0.091798,-0.026073000000000002,-0.033847,-0.009979,,,,,,,,,,,,,,,,,,,,,,,,,,,,,,,,,,,0.0,0.0,1.0,0.0,512.0,1.0,,,,,,,,,,,,,,,,,,,,,,,,,
6898,1645901821.714217,1645901821.740982,27.0,0.0,4670.256348,4214.358886999999,4273.846191,4146.153809,4497.436035,0.0,1.0,15.0,,,,0.0,2.0,1.0,4.0,4.0,4.0,58.33333199999999,,,,,,,,,,,,,,,,,,,,,,,,,,,,,,,,,,,,,,,,,,,,,,,,,,,,,,,,,,,,,,,,,,,,,,,,,,,,,,,,,,,,
6899,1645901821.722032,1645901821.7487972,28.0,0.0,4778.974121,4232.307617,4269.230957,4149.743652,4585.641113000001,0.0,1.0,15.0,,,,0.0,2.0,1.0,4.0,4.0,4.0,58.33333199999999,,,,,,,,14.0,0.0,0.7165699999999999,0.122803,0.663086,0.178223,0.9199360000000001,-0.407721,-0.083009,-0.023515,-0.033929,-0.011373999999999999,,,,,,,,,,,,,,,,,,,,,,,,,,,,,,,,,,,,,,,,,,,,,,,,,,,,,,,,,,,,,,,,,
6900,1645901821.729847,1645901821.756711,29.0,0.0,4833.846191,4229.743652,4247.179688,4178.974121,4624.102539,0.0,1.0,15.0,,,,0.0,2.0,1.0,4.0,4.0,4.0,58.33333199999999,,,,,,,,,,,,,,,,,,,,,,,,,,,,,,,,,,,,,,,,,,,,,,,,,,,,,,,,,,,,,,,,,,,,,,,,,,,,,,,,,,,,
6901,1645901821.7376618,1645901821.764526,30.0,0.0,4945.641113000001,4288.717772999999,4202.05127,4180.512695,4644.615234000001,0.0,1.0,15.0,,,,0.0,2.0,1.0,4.0,4.0,4.0,58.33333199999999,,,,,,,,15.0,0.0,0.716529,0.123047,0.663086,0.178223,0.9155409999999999,-0.396002,-0.085451,-0.024191,-0.033905000000000005,-0.01258,,,,,,,,,,,,,,,,,,,,,,,,,,,,,,,,,,,0.0,0.0,1.0,0.0,512.0,1.0,,,,,,,,,,,,,,,,,,,,,,,,,
6902,1645901821.745478,1645901821.77234,31.0,0.0,4973.333496,4375.384765999999,4197.436035,4141.538574,4664.615234000001,0.0,1.0,15.0,,,,0.0,2.0,1.0,4.0,4.0,4.0,58.33333199999999,,,,,,,,,,,,,,,,,,,,,,,,,,,,,,,,,,,,,,,,,,,,,,,,,,,,,,,,,,,,,,,,,,,,,,,,,,,,,,,,,,,,
6903,1645901821.753293,1645901821.7801552,32.0,0.0,4910.256348,4337.94873,4213.846191,4169.743652,4691.794922,0.0,1.0,15.0,,,,0.0,2.0,1.0,4.0,4.0,4.0,58.33333199999999,,,,,,,,16.0,0.0,0.7165100000000001,0.122803,0.663086,0.17846700000000001,0.917983,-0.387701,-0.084962,-0.024945,-0.033933,-0.013616999999999999,,,,,,,,,,,,,,,,,,,,,,,,,,,,,,,,,,,,,,,,,,,,,,,,,,,,,,,,,,,,,,,,,
6904,1645901821.761108,1645901821.7879698,33.0,0.0,4921.538574,4225.128418,4214.358886999999,4247.692383,4688.205078,0.0,1.0,15.0,,,,0.0,2.0,1.0,4.0,4.0,4.0,58.33333199999999,,,,,,,,,,,,,,,,,,,,,,,,,,,,,,,,,,,,,,,,,,,,,,,,,,,,,,,,,,,,,,,,,,,,,,,,,,,,,,,,,,,,
6905,1645901821.768923,1645901821.795784,34.0,0.0,4962.05127,4245.128418,4190.256348,4248.205078,4682.563965,0.0,1.0,15.0,,,,0.0,2.0,1.0,4.0,4.0,4.0,58.33333199999999,,,,,,,,17.0,0.0,0.7165699999999999,0.122803,0.663086,0.178223,0.9199360000000001,-0.407721,-0.083009,-0.0225,-0.034006,-0.014648,,,,,,,,,,,,,,,,,,,,,,,,,,,,,,,,,,,0.0,0.0,1.0,0.0,512.0,1.0,,,,,,,,,,,,,,,,,,,,,,,,,
6906,1645901821.7767382,1645901821.803599,35.0,0.0,4932.307617,4310.256348,4196.410156,4196.922852000001,4694.358886999999,0.0,1.0,15.0,,,,0.0,2.0,1.0,4.0,4.0,4.0,58.33333199999999,,,,,,,,,,,,,,,,,,,,,,,,,,,,,,,,,,,,,,,,,,,,,,,,,,,,,,,,,,,,,,,,,,,,,,,,,,,,,,,,,,,,
6907,1645901821.784554,1645901821.811414,36.0,0.0,4922.05127,4288.717772999999,4261.025879,4205.641113000001,4694.358886999999,0.0,1.0,15.0,,,,0.0,2.0,1.0,4.0,4.0,4.0,58.33333199999999,,,,,,,,18.0,0.0,0.7165100000000001,0.122803,0.663086,0.17846700000000001,0.926284,-0.407233,-0.099123,-0.023424,-0.033877,-0.015527000000000001,,,,,,,,,,,,,,,,,,,,,,,,,,,,,,,,,,,,,,,,,,,,,,,,,,,,,,,,,,,,,,,,,
6908,1645901821.792369,1645901821.819228,37.0,0.0,4913.846191,4295.897461,4267.692383,4201.538574,4660.0,0.0,1.0,15.0,,,,0.0,2.0,1.0,4.0,4.0,4.0,58.33333199999999,,,,,,,,,,,,,,,,,,,,,,,,,,,,,,,,,,,,,,,,,,,,,,,,,,,,,,,,,,,,,,,,,,,,,,,,,,,,,,,,,,,,
6909,1645901821.800184,1645901821.827043,38.0,0.0,4851.282227000001,4333.333496,4242.563965,4175.384765999999,4643.077147999999,0.0,1.0,15.0,,,,0.0,2.0,1.0,4.0,4.0,4.0,58.33333199999999,,,,,,,,19.0,0.0,0.7165100000000001,0.122803,0.663086,0.17846700000000001,0.921889,-0.41944,-0.090822,-0.024158000000000002,-0.033761,-0.016318,1.0,0.0,0.0,,,,,,,,,,,,,,,,,,,,,,,,,,,,,,,,0.0,0.0,1.0,0.0,512.0,0.516098,4.200628,2.887905,1.7582419999999999,1.7496610000000001,1.2111459999999998,35.325462,22.497938,57.286015,10.331946,18.82799,34.17514,36.592426,5.5182970000000005,4.775129,5.421532,5.799508,1.395419,3.833735,3.719962,1.6256190000000001,5.797994999999999,4.7886940000000005,1.128141,2.3756909999999998,1.41664
6910,1645901821.8079991,1645901821.8349571,39.0,0.0,4796.410156,4286.153809,4207.179688,4185.641113000001,4639.487305,0.0,1.0,15.0,,,,0.0,2.0,1.0,4.0,4.0,4.0,58.33333199999999,,,,,,,,,,,,,,,,,,,,,,,,,,,,,,,,,,,,,,,,,,,,,,,,,,,,,,,,,,,,,,,,,,,,,,,,,,,,,,,,,,,,
6911,1645901821.815814,1645901821.842772,40.0,0.0,4756.410156,4230.256348,4243.077147999999,4201.538574,4590.256348,0.0,1.0,15.0,,,,0.0,2.0,1.0,4.0,4.0,4.0,58.33333199999999,,,,,,,,20.0,0.0,0.716796,0.122803,0.662842,0.178223,0.9150530000000001,-0.404791,-0.10009900000000001,-0.025013,-0.033656,-0.013856,,,,,,,,,,,,,,,,,,,,,,,,,,,,,,,,,,,,,,,,,,,,,,,,,,,,,,,,,,,,,,,,,
6912,1645901821.82363,1645901821.850587,41.0,0.0,4700.512695,4257.94873,4277.94873,4209.230957,4534.358886999999,0.0,1.0,15.0,,,,0.0,2.0,1.0,4.0,4.0,4.0,58.33333199999999,,,,,,,,,,,,,,,,,,,,,,,,,,,,,,,,,,,,,,,,,,,,,,,,,,,,,,,,,,,,,,,,,,,,,,,,,,,,,,,,,,,,
6913,1645901821.831445,1645901821.858501,42.0,0.0,4655.384765999999,4286.666504,4273.333496,4204.102539,4522.05127,0.0,1.0,15.0,,,,0.0,2.0,1.0,4.0,4.0,4.0,58.33333199999999,,,,,,,,21.0,0.0,0.716796,0.122803,0.662842,0.178223,0.91017,-0.393561,-0.09033300000000001,-0.025735,-0.03366,-0.014766,,,,,,,,,,,,,,,,,,,,,,,,,,,,,,,,,,,0.0,0.0,1.0,0.0,512.0,0.516098,,,,,,,,,,,,,,,,,,,,,,,,,
6914,1645901821.8392599,1645901821.866316,43.0,0.0,4606.666504,4254.358886999999,4243.077147999999,4172.307617,4500.512695,0.0,1.0,15.0,,,,0.0,2.0,1.0,4.0,4.0,4.0,58.33333199999999,,,,,,,,,,,,,,,,,,,,,,,,,,,,,,,,,,,,,,,,,,,,,,,,,,,,,,,,,,,,,,,,,,,,,,,,,,,,,,,,,,,,
6915,1645901821.847075,1645901821.874131,44.0,0.0,4546.666504,4272.820313,4296.922852000001,4156.410156,4460.0,0.0,1.0,15.0,,,,0.0,2.0,1.0,4.0,4.0,4.0,58.33333199999999,,,,,,,,22.0,0.0,0.716857,0.122803,0.662842,0.177979,0.9248190000000001,-0.399908,-0.098634,-0.026383999999999998,-0.03381,-0.012556999999999999,,,,,,,,,,,,,,,,,,,,,,,,,,,,,,,,,,,,,,,,,,,,,,,,,,,,,,,,,,,,,,,,,
6916,1645901821.85489,1645901821.881945,45.0,0.0,4511.794922,4371.794922,4313.333496,4203.077147999999,4449.743652,0.0,1.0,15.0,,,,0.0,2.0,1.0,4.0,4.0,4.0,58.33333199999999,,,,,,,,,,,,,,,,,,,,,,,,,,,,,,,,,,,,,,,,,,,,,,,,,,,,,,,,,,,,,,,,,,,,,,,,,,,,,,,,,,,,
6917,1645901821.862705,1645901821.88976,46.0,0.0,4482.05127,4375.897461,4246.153809,4221.025879,4423.589844,0.0,1.0,15.0,,,,0.0,2.0,1.0,4.0,4.0,4.0,58.33333199999999,,,,,,,,23.0,0.0,0.716959,0.12255899999999999,0.662842,0.177734,0.9209129999999999,-0.389166,-0.092775,-0.023794,-0.033798,-0.013741999999999999,,,,,,,,,,,,,,,,,,,,,,,,,,,,,,,,,,,0.0,0.0,1.0,0.0,512.0,0.516098,,,,,,,,,,,,,,,,,,,,,,,,,
6918,1645901821.8705199,1645901821.897574,47.0,0.0,4446.153809,4231.794922,4180.0,4204.615234000001,4386.153809,0.0,1.0,15.0,,,,0.0,2.0,1.0,4.0,4.0,4.0,58.33333199999999,,,,,,,,,,,,,,,,,,,,,,,,,,,,,,,,,,,,,,,,,,,,,,,,,,,,,,,,,,,,,,,,,,,,,,,,,,,,,,,,,,,,
6919,1645901821.878336,1645901821.905389,48.0,0.0,4404.615234000001,4153.846191,4190.769043,4207.179688,4345.641113000001,0.0,1.0,15.0,,,,0.0,2.0,1.0,4.0,4.0,4.0,58.33333199999999,,,,,,,,24.0,0.0,0.716959,0.12255899999999999,0.662842,0.177734,0.938491,-0.397955,-0.10009900000000001,-0.024589,-0.033738,-0.014712000000000001,,,,,,,,,,,,,,,,,,,,,,,,,,,,,,,,,,,,,,,,,,,,,,,,,,,,,,,,,,,,,,,,,
6920,1645901821.886151,1645901821.913204,49.0,0.0,4374.358886999999,4221.025879,4210.256348,4207.692383,4325.128418,0.0,1.0,15.0,,,,0.0,2.0,1.0,4.0,4.0,4.0,58.33333199999999,,,,,,,,,,,,,,,,,,,,,,,,,,,,,,,,,,,,,,,,,,,,,,,,,,,,,,,,,,,,,,,,,,,,,,,,,,,,,,,,,,,,
6921,1645901821.893966,1645901821.921018,50.0,0.0,4337.436035,4235.384765999999,4195.384765999999,4197.94873,4305.128418,0.0,1.0,15.0,,,,0.0,2.0,1.0,4.0,4.0,4.0,58.33333199999999,,,,,,,,25.0,0.0,0.716959,0.12255899999999999,0.662842,0.177734,0.9340959999999999,-0.397467,-0.097169,-0.02545,-0.033734,-0.015633,,,,,,,,,,,,,,,,,,,,,,,,,,,,,,,,,,,0.0,0.0,1.0,0.0,512.0,0.516098,,,,,,,,,,,,,,,,,,,,,,,,,
6922,1645901821.901781,1645901821.928933,51.0,0.0,4319.487305,4194.358886999999,4193.846191,4195.384765999999,4304.102539,0.0,1.0,15.0,,,,0.0,2.0,1.0,4.0,4.0,4.0,58.33333199999999,,,,,,,,,,,,,,,,,,,,,,,,,,,,,,,,,,,,,,,,,,,,,,,,,,,,,,,,,,,,,,,,,,,,,,,,,,,,,,,,,,,,
6923,1645901821.9095962,1645901821.936748,52.0,0.0,4296.922852000001,4170.769043,4214.871582,4174.358886999999,4295.897461,0.0,1.0,15.0,,,,0.0,2.0,1.0,4.0,4.0,4.0,58.33333199999999,,,,,,,,26.0,0.0,0.716857,0.122803,0.662842,0.177979,0.9194479999999999,-0.41358100000000003,-0.087404,-0.026128,-0.033681,-0.013191,,,,,,,,,,,,,,,,,,,,,,,,,,,,,,,,,,,,,,,,,,,,,,,,,,,,,,,,,,,,,,,,,
6924,1645901821.9174109,1645901821.944562,53.0,0.0,4289.230957,4236.922852000001,4245.128418,4177.94873,4277.436035,0.0,1.0,15.0,,,,0.0,2.0,1.0,4.0,4.0,4.0,58.33333199999999,,,,,,,,,,,,,,,,,,,,,,,,,,,,,,,,,,,,,,,,,,,,,,,,,,,,,,,,,,,,,,,,,,,,,,,,,,,,,,,,,,,,
6925,1645901821.925227,1645901821.9523768,54.0,0.0,4291.794922,4353.846191,4230.256348,4199.487305,4275.897461,0.0,1.0,15.0,,,,0.0,2.0,1.0,4.0,4.0,4.0,58.33333199999999,,,,,,,,27.0,0.0,0.716857,0.122803,0.662842,0.177979,0.921401,-0.40576799999999996,-0.09033300000000001,-0.026639999999999997,-0.033682,-0.014265,1.0,0.0,0.0,,,,,,,,,,,,,,,,,,,,,,,,,,,,,,,,0.0,0.0,1.0,0.0,512.0,0.438964,8.257003,3.0472919999999997,1.9320549999999999,1.658032,1.165893,34.276157,22.278322,55.012192000000006,11.741091,20.468731,37.201691,33.931072,5.562268,4.443395,5.501501,6.98953,1.341677,3.5159629999999997,3.3080879999999997,1.666345,8.626586,4.885623000000001,0.959155,2.42472,1.3996
6926,1645901821.933042,1645901821.960192,55.0,0.0,4267.179688,4354.871582,4224.102539,4211.282227000001,4283.077147999999,0.0,1.0,15.0,,,,0.0,2.0,1.0,4.0,4.0,4.0,58.33333199999999,,,,,,,,,,,,,,,,,,,,,,,,,,,,,,,,,,,,,,,,,,,,,,,,,,,,,,,,,,,,,,,,,,,,,,,,,,,,,,,,,,,,
6927,1645901821.940857,1645901821.9680061,56.0,0.0,4245.128418,4269.230957,4234.871582,4215.384765999999,4278.974121,0.0,1.0,15.0,,,,0.0,2.0,1.0,4.0,4.0,4.0,58.33333199999999,,,,,,,,28.0,0.0,0.716857,0.122803,0.662842,0.177979,0.905776,-0.408209,-0.080079,-0.027297000000000002,-0.033683,-0.015133,,,,,,,,,,,,,,,,,,,,,,,,,,,,,,,,,,,,,,,,,,,,,,,,,,,,,,,,,,,,,,,,,
6928,1645901821.948672,1645901821.975821,57.0,0.0,4255.384765999999,4275.384765999999,4276.410156,4228.717772999999,4278.974121,0.0,1.0,15.0,,,,0.0,2.0,1.0,4.0,4.0,4.0,58.33333199999999,,,,,,,,,,,,,,,,,,,,,,,,,,,,,,,,,,,,,,,,,,,,,,,,,,,,,,,,,,,,,,,,,,,,,,,,,,,,,,,,,,,,
6929,1645901821.956487,1645901821.983635,58.0,0.0,4263.589844,4295.897461,4288.205078,4233.333496,4292.307617,0.0,1.0,15.0,,,,0.0,2.0,1.0,4.0,4.0,4.0,58.33333199999999,,,,,,,,29.0,0.0,0.716796,0.122803,0.662842,0.178223,0.923842,-0.406256,-0.098634,-0.027837999999999998,-0.033586000000000005,-0.015964,,,,,,,,,,,,,,,,,,,,,,,,,,,,,,,,,,,0.0,0.0,1.0,0.0,512.0,0.438964,,,,,,,,,,,,,,,,,,,,,,,,,
6930,1645901821.964302,1645901821.99145,59.0,0.0,4250.256348,4230.769043,4304.102539,4225.641113000001,4273.846191,0.0,1.0,15.0,,,,0.0,2.0,1.0,4.0,4.0,4.0,58.33333199999999,,,,,,,,,,,,,,,,,,,,,,,,,,,,,,,,,,,,,,,,,,,,,,,,,,,,,,,,,,,,,,,,,,,,,,,,,,,,,,,,,,,,
6931,1645901821.972118,1645901821.999365,60.0,0.0,4271.794922,4227.692383,4252.820313,4214.871582,4287.179688,0.0,1.0,15.0,,,,0.0,2.0,1.0,4.0,4.0,4.0,58.33333199999999,,,,,,,,30.0,0.0,0.716796,0.122803,0.662842,0.178223,0.9209129999999999,-0.41065100000000004,-0.099123,-0.02818,-0.033645999999999995,-0.016711,,,,,,,,,,,,,,,,,,,,,,,,,,,,,,,,,,,,,,,,,,,,,,,,,,,,,,,,,,,,,,,,,
6932,1645901821.979933,1645901822.007179,61.0,0.0,4275.897461,4277.436035,4248.717772999999,4213.333496,4328.205078,0.0,1.0,15.0,,,,0.0,2.0,1.0,4.0,4.0,4.0,58.33333199999999,,,,,,,,,,,,,,,,,,,,,,,,,,,,,,,,,,,,,,,,,,,,,,,,,,,,,,,,,,,,,,,,,,,,,,,,,,,,,,,,,,,,
6933,1645901821.9877481,1645901822.014994,62.0,0.0,4290.769043,4230.256348,4221.538574,4214.871582,4322.563965,0.0,1.0,15.0,,,,0.0,2.0,1.0,4.0,4.0,4.0,58.33333199999999,,,,,,,,31.0,0.0,0.716838,0.12255899999999999,0.662842,0.178223,0.926284,-0.401373,-0.09033300000000001,-0.028487000000000002,-0.033553,-0.014259,,,,,,,,,,,,,,,,,,,,,,,,,,,,,,,,,,,0.0,0.0,1.0,0.0,512.0,0.438964,,,,,,,,,,,,,,,,,,,,,,,,,
6934,1645901821.995563,1645901822.022809,63.0,0.0,4316.922852000001,4205.128418,4173.333496,4186.153809,4292.307617,0.0,1.0,15.0,,,,0.0,2.0,1.0,4.0,4.0,4.0,58.33333199999999,,,,,,,,,,,,,,,,,,,,,,,,,,,,,,,,,,,,,,,,,,,,,,,,,,,,,,,,,,,,,,,,,,,,,,,,,,,,,,,,,,,,
6935,1645901822.003378,1645901822.030623,64.0,0.0,4309.743652,4283.077147999999,4174.871582,4197.436035,4297.94873,450.0,1.0,15.0,,,,0.0,2.0,1.0,4.0,4.0,4.0,58.33333199999999,,,,,,,,32.0,0.0,0.716838,0.12255899999999999,0.662842,0.178223,0.929213,-0.406256,-0.07715,-0.028763,-0.033566000000000006,-0.015323,,,,,,,,,,,,,,,,,,,,,,,,,,,,,,,,,,,,,,,,,,,,,,,,,,,,,,,,,,,,,,,,,
6936,1645901822.011193,1645901822.038438,65.0,0.0,4277.436035,4247.692383,4205.128418,4227.179688,4277.94873,450.0,1.0,15.0,,,,0.0,2.0,1.0,4.0,4.0,4.0,58.33333199999999,,,,,,,,,,,,,,,,,,,,,,,,,,,,,,,,,,,,,,,,,,,,,,,,,,,,,,,,,,,,,,,,,,,,,,,,,,,,,,,,,,,,
6937,1645901822.0190089,1645901822.046253,66.0,0.0,4288.205078,4072.3076170000004,4170.256348,4208.205078,4264.615234000001,323.0,1.0,15.0,,,,0.0,2.0,1.0,4.0,4.0,4.0,58.33333199999999,,,,,,,,33.0,0.0,0.716796,0.122803,0.662842,0.178223,0.9209129999999999,-0.41065100000000004,-0.099123,-0.029012,-0.033628,-0.016135,,,,,,,,,,,,,,,,,,,,,,,,,,,,,,,,,,,0.0,0.0,1.0,0.0,512.0,0.438964,,,,,,,,,,,,,,,,,,,,,,,,,
6938,1645901822.026824,1645901822.054067,67.0,0.0,4298.461426,3928.205078,4148.205078,4158.461426,4296.410156,450.0,1.0,15.0,,,,0.0,2.0,1.0,4.0,4.0,4.0,58.33333199999999,,,,,,,,,,,,,,,,,,,,,,,,,,,,,,,,,,,,,,,,,,,,,,,,,,,,,,,,,,,,,,,,,,,,,,,,,,,,,,,,,,,,
6939,1645901822.0346391,1645901822.061982,68.0,0.0,4271.282227000001,3912.820557,4255.897461,4164.615234000001,4308.205078,85.0,1.0,15.0,,,,0.0,2.0,1.0,4.0,4.0,4.0,58.33333199999999,,,,,,,,34.0,0.0,0.716838,0.12255899999999999,0.662842,0.178223,0.9111469999999999,-0.413092,-0.09472799999999999,-0.029285000000000002,-0.033585000000000004,-0.01374,,,,,,,,,,,,,,,,,,,,,,,,,,,,,,,,,,,,,,,,,,,,,,,,,,,,,,,,,,,,,,,,,
6940,1645901822.042454,1645901822.069796,69.0,0.0,4250.256348,4018.974365,4284.615234000001,4206.153809,4276.410156,450.0,1.0,15.0,,,,0.0,2.0,1.0,4.0,4.0,4.0,58.33333199999999,,,,,,,,,,,,,,,,,,,,,,,,,,,,,,,,,,,,,,,,,,,,,,,,,,,,,,,,,,,,,,,,,,,,,,,,,,,,,,,,,,,,
6941,1645901822.050269,1645901822.077611,70.0,0.0,4265.128418,4171.282227000001,4256.922852000001,4235.897461,4271.282227000001,16240.0,1.0,15.0,,,,0.0,2.0,1.0,4.0,4.0,4.0,58.33333199999999,,,,,,,,35.0,0.0,0.716899,0.12255899999999999,0.662842,0.177979,0.9243309999999999,-0.40283800000000003,-0.101076,-0.029627999999999998,-0.033743,-0.014758000000000002,1.0,0.0,0.0,,,,,,,,,,,,,,,,,,,,,,,,,,,,,,,,0.0,0.0,1.0,0.0,512.0,0.465426,28.924164,5.075969000000001,2.888659,1.635977,1.1952180000000001,36.101639,26.132692000000002,52.108719,13.495358,22.095078,39.91193,32.574005,5.169192,4.23589,5.371246,8.276611,1.584093,3.586527,3.037905,1.809577,17.454226000000002,5.429023,1.132223,2.466653,1.435437
6942,1645901822.058085,1645901822.085426,71.0,0.0,4285.641113000001,4257.436035,4255.384765999999,4231.282227000001,4280.512695,450.0,1.0,15.0,,,,0.0,2.0,1.0,4.0,4.0,4.0,58.33333199999999,,,,,,,,,,,,,,,,,,,,,,,,,,,,,,,,,,,,,,,,,,,,,,,,,,,,,,,,,,,,,,,,,,,,,,,,,,,,,,,,,,,,
6943,1645901822.0659,1645901822.09324,72.0,0.0,4276.410156,4222.05127,4299.487305,4208.205078,4274.358886999999,450.0,1.0,15.0,,,,0.0,2.0,1.0,4.0,4.0,4.0,58.33333199999999,,,,,,,,36.0,0.0,0.716857,0.122803,0.662842,0.177979,0.9267719999999999,-0.40576799999999996,-0.093751,-0.026713999999999998,-0.033786000000000004,-0.012501,,,,,,,,,,,,,,,,,,,,,,,,,,,,,,,,,,,,,,,,,,,,,,,,,,,,,,,,,,,,,,,,,
6944,1645901822.073715,1645901822.1010551,73.0,0.0,4270.256348,4185.128418,4282.563965,4201.538574,4271.282227000001,16151.0,1.0,15.0,,,,0.0,2.0,1.0,4.0,4.0,4.0,58.33333199999999,,,,,,,,,,,,,,,,,,,,,,,,,,,,,,,,,,,,,,,,,,,,,,,,,,,,,,,,,,,,,,,,,,,,,,,,,,,,,,,,,,,,
6945,1645901822.08153,1645901822.10887,74.0,0.0,4299.487305,4313.846191,4267.179688,4204.102539,4279.487305,450.0,1.0,15.0,,,,0.0,2.0,1.0,4.0,4.0,4.0,58.33333199999999,,,,,,,,37.0,0.0,0.716796,0.122803,0.662842,0.178223,0.933608,-0.408209,-0.104005,-0.027216000000000004,-0.033875,-0.013644,,,,,,,,,,,,,,,,,,,,,,,,,,,,,,,,,,,0.0,0.0,1.0,0.0,512.0,0.465426,,,,,,,,,,,,,,,,,,,,,,,,,
6946,1645901822.089345,1645901822.116684,75.0,0.0,4331.794922,4402.563965,4293.333496,4207.692383,4289.230957,16094.0,1.0,15.0,,,,0.0,2.0,1.0,4.0,4.0,4.0,58.33333199999999,,,,,,,,,,,,,,,,,,,,,,,,,,,,,,,,,,,,,,,,,,,,,,,,,,,,,,,,,,,,,,,,,,,,,,,,,,,,,,,,,,,,
6947,1645901822.0971599,1645901822.124499,76.0,0.0,4360.512695,4325.641113000001,4304.615234000001,4187.179688,4303.077147999999,450.0,1.0,15.0,,,,0.0,2.0,1.0,4.0,4.0,4.0,58.33333199999999,,,,,,,,38.0,0.0,0.7166939999999999,0.123047,0.662842,0.17846700000000001,0.921889,-0.393561,-0.09472799999999999,-0.024543000000000002,-0.033856,-0.014574,,,,,,,,,,,,,,,,,,,,,,,,,,,,,,,,,,,,,,,,,,,,,,,,,,,,,,,,,,,,,,,,,
6948,1645901822.104976,1645901822.132314,77.0,0.0,4453.333496,4296.922852000001,4246.153809,4188.205078,4367.179688,450.0,1.0,15.0,,,,0.0,2.0,1.0,4.0,4.0,4.0,58.33333199999999,,,,,,,,,,,,,,,,,,,,,,,,,,,,,,,,,,,,,,,,,,,,,,,,,,,,,,,,,,,,,,,,,,,,,,,,,,,,,,,,,,,,
6949,1645901822.112791,1645901822.140228,78.0,0.0,4601.025879,4308.717772999999,4240.0,4230.769043,4450.769043,450.0,1.0,15.0,,,,0.0,2.0,1.0,4.0,4.0,4.0,58.33333199999999,,,,,,,,39.0,0.0,0.7166939999999999,0.123047,0.662842,0.17846700000000001,0.917006,-0.399908,-0.085939,-0.022137999999999998,-0.033742,-0.015412,,,,,,,,,,,,,,,,,,,,,,,,,,,,,,,,,,,0.0,0.0,1.0,0.0,512.0,0.465426,,,,,,,,,,,,,,,,,,,,,,,,,
6950,1645901822.120606,1645901822.148043,79.0,0.0,4737.94873,4262.05127,4229.743652,4237.436035,4535.897461,16094.0,1.0,15.0,,,,0.0,2.0,1.0,4.0,4.0,4.0,58.33333199999999,,,,,,,,,,,,,,,,,,,,,,,,,,,,,,,,,,,,,,,,,,,,,,,,,,,,,,,,,,,,,,,,,,,,,,,,,,,,,,,,,,,,
6951,1645901822.128421,1645901822.155857,80.0,0.0,4770.769043,4352.307617,4206.153809,4178.974121,4585.128418,450.0,1.0,15.0,,,,0.0,2.0,1.0,4.0,4.0,4.0,58.33333199999999,,,,,,,,40.0,0.0,0.7166939999999999,0.123047,0.662842,0.17846700000000001,0.917983,-0.411627,-0.07422000000000001,-0.023098,-0.033835000000000004,-0.016263,,,,,,,,,,,,,,,,,,,,,,,,,,,,,,,,,,,,,,,,,,,,,,,,,,,,,,,,,,,,,,,,,
6952,1645901822.136236,1645901822.163772,81.0,0.0,4768.717772999999,4494.871582,4189.230957,4192.307617,4618.974121,450.0,1.0,15.0,,,,0.0,2.0,1.0,4.0,4.0,4.0,58.33333199999999,,,,,,,,,,,,,,,,,,,,,,,,,,,,,,,,,,,,,,,,,,,,,,,,,,,,,,,,,,,,,,,,,,,,,,,,,,,,,,,,,,,,
6953,1645901822.144051,1645901822.171587,82.0,0.0,4826.666504,4414.358886999999,4221.025879,4257.94873,4646.153809,450.0,1.0,15.0,,,,0.0,2.0,1.0,4.0,4.0,4.0,58.33333199999999,,,,,,,,41.0,0.0,0.7166939999999999,0.123047,0.662842,0.17846700000000001,0.921401,-0.39649,-0.093751,-0.024059999999999998,-0.033821,-0.016932,,,,,,,,,,,,,,,,,,,,,,,,,,,,,,,,,,,0.0,0.0,1.0,0.0,512.0,0.465426,,,,,,,,,,,,,,,,,,,,,,,,,
6954,1645901822.151867,1645901822.179401,83.0,0.0,4896.922852000001,4339.487305,4253.846191,4265.641113000001,4662.05127,16094.0,1.0,15.0,,,,0.0,2.0,1.0,4.0,4.0,4.0,58.33333199999999,,,,,,,,,,,,,,,,,,,,,,,,,,,,,,,,,,,,,,,,,,,,,,,,,,,,,,,,,,,,,,,,,,,,,,,,,,,,,,,,,,,,
6955,1645901822.159682,1645901822.187216,84.0,0.0,4870.769043,4401.025879,4238.461426,4244.615234000001,4650.769043,450.0,1.0,15.0,,,,0.0,2.0,1.0,4.0,4.0,4.0,58.33333199999999,,,,,,,,42.0,0.0,0.7167359999999999,0.122803,0.662842,0.17846700000000001,0.917006,-0.40235,-0.102052,-0.024925,-0.033954000000000005,-0.014409,,,,,,,,,,,,,,,,,,,,,,,,,,,,,,,,,,,,,,,,,,,,,,,,,,,,,,,,,,,,,,,,,
6956,1645901822.1674972,1645901822.19503,85.0,0.0,4809.743652,4417.436035,4225.128418,4264.615234000001,4644.615234000001,450.0,1.0,15.0,,,,0.0,2.0,1.0,4.0,4.0,4.0,58.33333199999999,,,,,,,,,,,,,,,,,,,,,,,,,,,,,,,,,,,,,,,,,,,,,,,,,,,,,,,,,,,,,,,,,,,,,,,,,,,,,,,,,,,,
6957,1645901822.1753118,1645901822.2028449,86.0,0.0,4790.256348,4374.871582,4212.820313,4237.436035,4633.333496,450.0,1.0,15.0,,,,0.0,2.0,1.0,4.0,4.0,4.0,58.33333199999999,1.0,25.0,2.0,0.0,1.0,2.0,3.0,43.0,0.0,0.7167359999999999,0.122803,0.662842,0.17846700000000001,0.906752,-0.40283800000000003,-0.099123,-0.025558,-0.033879,-0.015409,1.0,0.0,0.0,,,,,,,,,,,,,,,,,,,,,,,,,,,,,,,,0.0,0.0,1.0,0.0,512.0,0.338082,81.97174100000001,10.367519,5.191868,1.7698169999999998,1.332922,40.428219,33.583412,49.677258,15.725323999999999,23.089109,41.539809999999996,32.440104999999996,4.4963940000000004,4.161105,5.100764,9.095572,2.19213,3.968638,3.024517,2.046336,38.078606,7.101807000000001,1.881155,2.579533,1.5202950000000002
6958,1645901822.183127,1645901822.21066,87.0,0.0,4756.410156,4346.153809,4246.153809,4182.563965,4586.153809,16094.0,1.0,15.0,,,,0.0,2.0,1.0,4.0,4.0,4.0,58.33333199999999,,,,,,,,,,,,,,,,,,,,,,,,,,,,,,,,,,,,,,,,,,,,,,,,,,,,,,,,,,,,,,,,,,,,,,,,,,,,,,,,,,,,
6959,1645901822.190942,1645901822.218474,88.0,0.0,4712.307617,4358.974121,4253.846191,4199.487305,4550.256348,450.0,1.0,15.0,,,,0.0,2.0,1.0,4.0,4.0,4.0,58.33333199999999,,,,,,,,44.0,0.0,0.716838,0.12255899999999999,0.662842,0.178223,0.917494,-0.394049,-0.093263,-0.026126999999999997,-0.033812,-0.013087,,,,,,,,,,,,,,,,,,,,,,,,,,,,,,,,,,,,,,,,,,,,,,,,,,,,,,,,,,,,,,,,,
6960,1645901822.1987581,1645901822.2263892,89.0,0.0,4692.820313,4392.307617,4284.102539,4225.128418,4538.461426,450.0,1.0,15.0,,,,0.0,2.0,1.0,4.0,4.0,4.0,58.33333199999999,,,,,,,,,,,,,,,,,,,,,,,,,,,,,,,,,,,,,,,,,,,,,,,,,,,,,,,,,,,,,,,,,,,,,,,,,,,,,,,,,,,,
6961,1645901822.206573,1645901822.2342038,90.0,0.0,4661.538574,4392.307617,4253.846191,4205.128418,4507.179688,450.0,1.0,15.0,,,,0.0,2.0,1.0,4.0,4.0,4.0,58.33333199999999,,,,,,,,45.0,0.0,0.717124,0.12255899999999999,0.6625979999999999,0.177979,0.93019,-0.41406899999999996,-0.095216,-0.026737,-0.0338,-0.014219999999999998,,,,,,,,,,,,,,,,,,,,,,,,,,,,,,,,,,,0.0,0.0,1.0,0.0,512.0,0.338082,,,,,,,,,,,,,,,,,,,,,,,,,
6962,1645901822.2143881,1645901822.242018,91.0,0.0,4605.128418,4391.282227000001,4246.666504,4207.179688,4466.153809,16094.0,1.0,15.0,,,,0.0,2.0,1.0,4.0,4.0,4.0,58.33333199999999,,,,,,,,,,,,,,,,,,,,,,,,,,,,,,,,,,,,,,,,,,,,,,,,,,,,,,,,,,,,,,,,,,,,,,,,,,,,,,,,,,,,
6963,1645901822.222203,1645901822.249833,92.0,0.0,4575.384765999999,4387.179688,4262.563965,4229.230957,4454.358886999999,450.0,1.0,15.0,,,,0.0,2.0,1.0,4.0,4.0,4.0,58.33333199999999,,,,,,,,46.0,0.0,0.7171850000000001,0.12255899999999999,0.6625979999999999,0.177734,0.921401,-0.400885,-0.096193,-0.027188,-0.033789,-0.012017,,,,,,,,,,,,,,,,,,,,,,,,,,,,,,,,,,,,,,,,,,,,,,,,,,,,,,,,,,,,,,,,,
6964,1645901822.230018,1645901822.257648,93.0,0.0,4542.563965,4316.922852000001,4254.358886999999,4218.974121,4438.974121,450.0,1.0,15.0,,,,0.0,2.0,1.0,4.0,4.0,4.0,58.33333199999999,,,,,,,,,,,,,,,,,,,,,,,,,,,,,,,,,,,,,,,,,,,,,,,,,,,,,,,,,,,,,,,,,,,,,,,,,,,,,,,,,,,,
6965,1645901822.237833,1645901822.265462,94.0,0.0,4500.512695,4289.230957,4212.820313,4193.846191,4428.205078,450.0,1.0,15.0,,,,0.0,2.0,1.0,4.0,4.0,4.0,58.33333199999999,,,,,,,,47.0,0.0,0.716838,0.12255899999999999,0.662842,0.178223,0.917494,-0.394049,-0.093263,-0.027594999999999998,-0.03373,-0.010034,,,,,,,,,,,,,,,,,,,,,,,,,,,,,,,,,,,10.0,0.0,1.0,0.0,512.0,0.338082,,,,,,,,,,,,,,,,,,,,,,,,,
6966,1645901822.245649,1645901822.273277,95.0,0.0,4467.179688,4373.333496,4229.230957,4182.05127,4412.307617,16094.0,1.0,15.0,,,,0.0,2.0,1.0,4.0,4.0,4.0,58.33333199999999,,,,,,,,,,,,,,,,,,,,,,,,,,,,,,,,,,,,,,,,,,,,,,,,,,,,,,,,,,,,,,,,,,,,,,,,,,,,,,,,,,,,
6967,1645901822.253464,1645901822.281092,96.0,0.0,4456.410156,4401.025879,4226.666504,4197.94873,4390.256348,450.0,1.0,15.0,,,,0.0,2.0,1.0,4.0,4.0,4.0,58.33333199999999,,,,,,,,48.0,0.0,0.717245,0.12255899999999999,0.6625979999999999,0.17749,0.922866,-0.404791,-0.09765800000000001,-0.028009,-0.033726,-0.0082,,,,,,,,,,,,,,,,,,,,,,,,,,,,,,,,,,,,,,,,,,,,,,,,,,,,,,,,,,,,,,,,,
6968,1645901822.2612789,1645901822.288906,97.0,0.0,4414.358886999999,4361.025879,4225.128418,4197.94873,4370.256348,450.0,1.0,15.0,,,,0.0,2.0,1.0,4.0,4.0,4.0,58.33333199999999,,,,,,,,,,,,,,,,,,,,,,,,,,,,,,,,,,,,,,,,,,,,,,,,,,,,,,,,,,,,,,,,,,,,,,,,,,,,,,,,,,,,
6969,1645901822.269094,1645901822.296821,98.0,0.0,4375.897461,4366.153809,4253.846191,4196.410156,4359.487305,450.0,1.0,15.0,,,,0.0,2.0,1.0,4.0,4.0,4.0,58.33333199999999,,,,,,,,49.0,0.0,0.717306,0.12255899999999999,0.6625979999999999,0.17724600000000001,0.9233540000000001,-0.39942,-0.100587,-0.028431,-0.033674,-0.009675,,,,,,,,,,,,,,,,,,,,,,,,,,,,,,,,,,,10.0,0.0,1.0,0.0,512.0,0.338082,,,,,,,,,,,,,,,,,,,,,,,,,
6970,1645901822.2769089,1645901822.304635,99.0,0.0,4367.179688,4342.05127,4215.897461,4200.512695,4336.922852000001,16094.0,1.0,15.0,,,,0.0,2.0,1.0,4.0,4.0,4.0,58.33333199999999,,,,,,,,,,,,,,,,,,,,,,,,,,,,,,,,,,,,,,,,,,,,,,,,,,,,,,,,,,,,,,,,,,,,,,,,,,,,,,,,,,,,
6971,1645901822.284724,1645901822.31245,100.0,0.0,4348.205078,4258.974121,4204.615234000001,4214.871582,4323.077147999999,450.0,1.0,15.0,,,,0.0,2.0,1.0,4.0,4.0,4.0,58.33333199999999,,,,,,,,50.0,0.0,0.717306,0.12255899999999999,0.6625979999999999,0.17724600000000001,0.9272600000000001,-0.398444,-0.10009900000000001,-0.025637,-0.033725,-0.011051,,,,,,,,,,,,,,,,,,,,,,,,,,,,,,,,,,,,,,,,,,,,,,,,,,,,,,,,,,,,,,,,,
6972,1645901822.29254,1645901822.320265,101.0,0.0,4293.846191,4197.94873,4253.333496,4200.0,4298.974121,450.0,1.0,15.0,,,,0.0,2.0,1.0,4.0,4.0,4.0,58.33333199999999,,,,,,,,,,,,,,,,,,,,,,,,,,,,,,,,,,,,,,,,,,,,,,,,,,,,,,,,,,,,,,,,,,,,,,,,,,,,,,,,,,,,
6973,1645901822.3003552,1645901822.328079,102.0,0.0,4273.333496,4207.179688,4258.461426,4175.384765999999,4288.717772999999,450.0,1.0,15.0,,,,0.0,2.0,1.0,4.0,4.0,4.0,58.33333199999999,,,,,,,,51.0,0.0,0.71708,0.12255899999999999,0.662842,0.17724600000000001,0.9209129999999999,-0.38819000000000004,-0.08984500000000001,-0.026344,-0.033673,-0.012339,1.0,0.0,0.0,,,,,,,,,,,,,,,,,,,,,,,,,,,,,,,,10.0,0.0,1.0,0.0,512.0,0.401908,171.047455,19.282631,9.097083,2.067387,1.579782,47.194939,43.298637,50.30336,18.694248,23.247728,42.020309000000005,33.332176000000004,3.801851,4.221299,4.834065,9.244291,3.155091,4.410373,3.2885660000000003,2.338767,71.853706,10.223695,3.347174,2.7745509999999998,1.6204450000000001
6974,1645901822.3081698,1645901822.3358939,103.0,0.0,4291.794922,4222.563965,4226.666504,4170.769043,4301.025879,16094.0,1.0,15.0,,,,0.0,2.0,1.0,4.0,4.0,4.0,58.33333199999999,,,,,,,,,,,,,,,,,,,,,,,,,,,,,,,,,,,,,,,,,,,,,,,,,,,,,,,,,,,,,,,,,,,,,,,,,,,,,,,,,,,,
6975,1645901822.315985,1645901822.343709,104.0,0.0,4277.94873,4228.717772999999,4294.871582,4179.487305,4290.769043,450.0,1.0,15.0,,,,0.0,2.0,1.0,4.0,4.0,4.0,58.33333199999999,,,,,,,,52.0,0.0,0.71708,0.12255899999999999,0.662842,0.17724600000000001,0.9306780000000001,-0.401862,-0.098146,-0.026883999999999998,-0.033675,-0.013449000000000001,,,,,,,,,,,,,,,,,,,,,,,,,,,,,,,,,,,,,,,,,,,,,,,,,,,,,,,,,,,,,,,,,
6976,1645901822.3238,1645901822.3515232,105.0,0.0,4255.897461,4244.102539,4287.692383,4162.563965,4260.512695,450.0,1.0,15.0,,,,0.0,2.0,1.0,4.0,4.0,4.0,58.33333199999999,,,,,,,,,,,,,,,,,,,,,,,,,,,,,,,,,,,,,,,,,,,,,,,,,,,,,,,,,,,,,,,,,,,,,,,,,,,,,,,,,,,,
6977,1645901822.331616,1645901822.359338,106.0,0.0,4264.615234000001,4268.717772999999,4231.794922,4125.641113000001,4257.436035,450.0,1.0,15.0,,,,0.0,2.0,1.0,4.0,4.0,4.0,58.33333199999999,,,,,,,,53.0,0.0,0.7168359999999999,0.122314,0.663086,0.17749,0.9243309999999999,-0.39649,-0.093263,-0.027369,-0.033725,-0.014497,,,,,,,,,,,,,,,,,,,,,,,,,,,,,,,,,,,10.0,0.0,1.0,0.0,512.0,0.401908,,,,,,,,,,,,,,,,,,,,,,,,,
6978,1645901822.339431,1645901822.367153,107.0,0.0,4263.077147999999,4277.94873,4265.128418,4154.871582,4270.769043,16094.0,1.0,15.0,,,,0.0,2.0,1.0,4.0,4.0,4.0,58.33333199999999,,,,,,,,,,,,,,,,,,,,,,,,,,,,,,,,,,,,,,,,,,,,,,,,,,,,,,,,,,,,,,,,,,,,,,,,,,,,,,,,,,,,
6979,1645901822.3472462,1645901822.375067,108.0,0.0,4250.256348,4255.897461,4321.025879,4200.0,4253.333496,450.0,1.0,15.0,,,,0.0,2.0,1.0,4.0,4.0,4.0,58.33333199999999,,,,,,,,54.0,0.0,0.716775,0.122314,0.663086,0.177734,0.9199360000000001,-0.386725,-0.09424,-0.027855,-0.033722,-0.012217,,,,,,,,,,,,,,,,,,,,,,,,,,,,,,,,,,,,,,,,,,,,,,,,,,,,,,,,,,,,,,,,,
6980,1645901822.355061,1645901822.382882,109.0,0.0,4257.94873,4274.871582,4233.846191,4185.128418,4274.358886999999,450.0,1.0,15.0,,,,0.0,2.0,1.0,4.0,4.0,4.0,58.33333199999999,,,,,,,,,,,,,,,,,,,,,,,,,,,,,,,,,,,,,,,,,,,,,,,,,,,,,,,,,,,,,,,,,,,,,,,,,,,,,,,,,,,,
6981,1645901822.362876,1645901822.390696,110.0,0.0,4263.077147999999,4340.0,4178.461426,4172.307617,4294.358886999999,450.0,1.0,15.0,,,,0.0,2.0,1.0,4.0,4.0,4.0,58.33333199999999,,,,,,,,55.0,0.0,0.716715,0.122314,0.663086,0.177979,0.921401,-0.41113900000000003,-0.093751,-0.028292,-0.033817,-0.013387999999999999,,,,,,,,,,,,,,,,,,,,,,,,,,,,,,,,,,,10.0,0.0,1.0,0.0,512.0,0.401908,,,,,,,,,,,,,,,,,,,,,,,,,
6982,1645901822.370691,1645901822.398511,111.0,0.0,4296.410156,4410.256348,4200.512695,4176.410156,4296.410156,16094.0,1.0,15.0,,,,0.0,2.0,1.0,4.0,4.0,4.0,58.33333199999999,,,,,,,,,,,,,,,,,,,,,,,,,,,,,,,,,,,,,,,,,,,,,,,,,,,,,,,,,,,,,,,,,,,,,,,,,,,,,,,,,,,,
6983,1645901822.3785071,1645901822.406326,112.0,0.0,4334.871582,4409.230957,4208.717772999999,4154.871582,4307.692383,450.0,1.0,15.0,,,,0.0,2.0,1.0,4.0,4.0,4.0,58.33333199999999,,,,,,,,56.0,0.0,0.716386,0.12255899999999999,0.66333,0.178223,0.913588,-0.404791,-0.09765800000000001,-0.028588,-0.033804,-0.011268,,,,,,,,,,,,,,,,,,,,,,,,,,,,,,,,,,,,,,,,,,,,,,,,,,,,,,,,,,,,,,,,,
6984,1645901822.386322,1645901822.41414,113.0,0.0,4398.461426,4338.974121,4180.0,4153.333496,4370.769043,450.0,1.0,15.0,,,,0.0,2.0,1.0,4.0,4.0,4.0,58.33333199999999,,,,,,,,,,,,,,,,,,,,,,,,,,,,,,,,,,,,,,,,,,,,,,,,,,,,,,,,,,,,,,,,,,,,,,,,,,,,,,,,,,,,
6985,1645901822.394137,1645901822.421955,114.0,0.0,4517.94873,4333.846191,4198.974121,4167.179688,4453.846191,450.0,1.0,15.0,,,,0.0,2.0,1.0,4.0,4.0,4.0,58.33333199999999,,,,,,,,57.0,0.0,0.716386,0.12255899999999999,0.66333,0.178223,0.9155409999999999,-0.39942,-0.092287,-0.028854,-0.033842000000000004,-0.009408,,,,,,,,,,,,,,,,,,,,,,,,,,,,,,,,,,,0.0,0.0,1.0,0.0,512.0,0.401908,,,,,,,,,,,,,,,,,,,,,,,,,
6986,1645901822.401952,1645901822.42977,115.0,0.0,4682.05127,4457.94873,4231.282227000001,4160.0,4516.922852000001,16094.0,1.0,15.0,,,,0.0,2.0,1.0,4.0,4.0,4.0,58.33333199999999,,,,,,,,,,,,,,,,,,,,,,,,,,,,,,,,,,,,,,,,,,,,,,,,,,,,,,,,,,,,,,,,,,,,,,,,,,,,,,,,,,,,
6987,1645901822.409767,1645901822.437584,116.0,0.0,4781.025879,4475.384765999999,4222.563965,4144.615234000001,4555.897461,450.0,1.0,15.0,,,,0.0,2.0,1.0,4.0,4.0,4.0,58.33333199999999,,,,,,,,58.0,0.0,0.716284,0.122803,0.66333,0.17846700000000001,0.921889,-0.42188100000000006,-0.086427,-0.029192000000000003,-0.033924,-0.007540000000000001,,,,,,,,,,,,,,,,,,,,,,,,,,,,,,,,,,,,,,,,,,,,,,,,,,,,,,,,,,,,,,,,,
6988,1645901822.417582,1645901822.445499,117.0,0.0,4814.871582,4402.563965,4240.0,4200.512695,4602.05127,450.0,1.0,15.0,,,,0.0,2.0,1.0,4.0,4.0,4.0,58.33333199999999,,,,,,,,,,,,,,,,,,,,,,,,,,,,,,,,,,,,,,,,,,,,,,,,,,,,,,,,,,,,,,,,,,,,,,,,,,,,,,,,,,,,
6989,1645901822.425398,1645901822.453313,118.0,0.0,4855.897461,4474.358886999999,4265.128418,4256.922852000001,4655.384765999999,450.0,1.0,15.0,,,,0.0,2.0,1.0,4.0,4.0,4.0,58.33333199999999,,,,,,,,59.0,0.0,0.716284,0.122803,0.66333,0.17846700000000001,0.921401,-0.398444,-0.095705,-0.029495,-0.033901,-0.009032,1.0,0.0,0.0,,,,,,,,,,,,,,,,,,,,,,,,,,,,,,,,0.0,0.0,1.0,0.0,512.0,0.35823,288.226746,30.994296999999996,14.129929999999998,2.490605,1.9109919999999998,57.969151000000004,53.650089,56.263027,22.480169,22.833294,41.926815000000005,35.091263,3.300816,4.397406,4.720789,8.804312,4.367382,4.6458010000000005,3.752326,2.640552,116.85720800000001,14.620589,5.423797,2.996634,1.687741
6990,1645901822.433213,1645901822.461128,119.0,0.0,4868.205078,4532.820313,4288.205078,4214.871582,4662.563965,16094.0,1.0,15.0,,,,0.0,2.0,1.0,4.0,4.0,4.0,58.33333199999999,,,,,,,,,,,,,,,,,,,,,,,,,,,,,,,,,,,,,,,,,,,,,,,,,,,,,,,,,,,,,,,,,,,,,,,,,,,,,,,,,,,,
6991,1645901822.4410279,1645901822.4689429,120.0,0.0,4847.692383,4432.820313,4247.179688,4160.0,4629.230957,450.0,1.0,15.0,,,,0.0,2.0,1.0,4.0,4.0,4.0,58.33333199999999,,,,,,,,60.0,0.0,0.716284,0.122803,0.66333,0.17846700000000001,0.9116350000000001,-0.400397,-0.092775,-0.029768,-0.034026999999999995,-0.007298999999999999,,,,,,,,,,,,,,,,,,,,,,,,,,,,,,,,,,,,,,,,,,,,,,,,,,,,,,,,,,,,,,,,,
6992,1645901822.448843,1645901822.476757,121.0,0.0,4816.922852000001,4411.794922,4245.641113000001,4199.487305,4606.666504,450.0,1.0,15.0,,,,0.0,2.0,1.0,4.0,4.0,4.0,58.33333199999999,,,,,,,,,,,,,,,,,,,,,,,,,,,,,,,,,,,,,,,,,,,,,,,,,,,,,,,,,,,,,,,,,,,,,,,,,,,,,,,,,,,,
6993,1645901822.4566581,1645901822.4845722,122.0,0.0,4787.179688,4461.538574,4260.512695,4226.153809,4585.128418,450.0,1.0,15.0,,,,0.0,2.0,1.0,4.0,4.0,4.0,58.33333199999999,,,,,,,,61.0,0.0,0.716344,0.122803,0.66333,0.178223,0.9267719999999999,-0.407721,-0.101564,-0.030063,-0.034042,-0.008912999999999999,,,,,,,,,,,,,,,,,,,,,,,,,,,,,,,,,,,0.0,0.0,1.0,0.0,512.0,0.35823,,,,,,,,,,,,,,,,,,,,,,,,,
6994,1645901822.464473,1645901822.4923868,123.0,0.0,4744.615234000001,4453.846191,4290.256348,4182.563965,4556.410156,16094.0,1.0,15.0,,,,0.0,2.0,1.0,4.0,4.0,4.0,58.33333199999999,,,,,,,,,,,,,,,,,,,,,,,,,,,,,,,,,,,,,,,,,,,,,,,,,,,,,,,,,,,,,,,,,,,,,,,,,,,,,,,,,,,,
6995,1645901822.4722881,1645901822.500201,124.0,0.0,4696.922852000001,4479.487305,4278.974121,4200.512695,4531.794922,450.0,1.0,15.0,,,,0.0,2.0,1.0,4.0,4.0,4.0,58.33333199999999,,,,,,,,62.0,0.0,0.7165699999999999,0.122803,0.663086,0.178223,0.9087049999999999,-0.409674,-0.08838,-0.030231,-0.034007,-0.007240000000000001,,,,,,,,,,,,,,,,,,,,,,,,,,,,,,,,,,,,,,,,,,,,,,,,,,,,,,,,,,,,,,,,,
6996,1645901822.480104,1645901822.508016,125.0,0.0,4645.641113000001,4475.897461,4262.563965,4224.615234000001,4494.358886999999,450.0,1.0,15.0,,,,0.0,2.0,1.0,4.0,4.0,4.0,58.33333199999999,,,,,,,,,,,,,,,,,,,,,,,,,,,,,,,,,,,,,,,,,,,,,,,,,,,,,,,,,,,,,,,,,,,,,,,,,,,,,,,,,,,,
6997,1645901822.4879189,1645901822.5159302,126.0,0.0,4605.641113000001,4384.615234000001,4224.102539,4196.922852000001,4465.128418,450.0,1.0,15.0,,,,0.0,4.0,1.0,0.0,4.0,4.0,41.666668,,,,,,,,63.0,0.0,0.7165699999999999,0.122803,0.663086,0.178223,0.921889,-0.411627,-0.095216,-0.027256,-0.033976,-0.008762,,,,,,,,,,,,,,,,,,,,,,,,,,,,,,,,,,,0.0,0.0,1.0,0.0,512.0,0.35823,,,,,,,,,,,,,,,,,,,,,,,,,
6998,1645901822.495734,1645901822.5237448,127.0,0.0,4557.436035,4337.94873,4245.641113000001,4200.0,4425.641113000001,232.0,1.0,15.0,,,,0.0,4.0,1.0,0.0,4.0,4.0,41.666668,,,,,,,,,,,,,,,,,,,,,,,,,,,,,,,,,,,,,,,,,,,,,,,,,,,,,,,,,,,,,,,,,,,,,,,,,,,,,,,,,,,,
6999,1645901822.503549,1645901822.53156,0.0,0.0,4520.0,4310.256348,4268.717772999999,4227.179688,4411.282227000001,450.0,1.0,15.0,,,,0.0,4.0,1.0,0.0,4.0,4.0,41.666668,,,,,,,,0.0,0.0,0.716631,0.122803,0.663086,0.177979,0.9267719999999999,-0.415045,-0.087892,-0.02458,-0.033898000000000005,-0.01023,,,,,,,,,,,,,,,,,,,,,,,,,,,,,,,,,,,,,,,,,,,,,,,,,,,,,,,,,,,,,,,,,
7000,1645901822.511364,1645901822.539374,1.0,0.0,4486.153809,4296.410156,4215.897461,4216.922852000001,4414.871582,450.0,1.0,15.0,,,,0.0,4.0,1.0,0.0,4.0,4.0,41.666668,,,,,,,,,,,,,,,,,,,,,,,,,,,,,,,,,,,,,,,,,,,,,,,,,,,,,,,,,,,,,,,,,,,,,,,,,,,,,,,,,,,,
7001,1645901822.5191789,1645901822.547189,2.0,0.0,4454.871582,4385.128418,4161.538574,4189.230957,4402.563965,16076.0,1.0,15.0,,,,0.0,4.0,1.0,0.0,4.0,4.0,41.666668,,,,,,,,1.0,0.0,0.716631,0.122803,0.663086,0.177979,0.93019,-0.40381500000000004,-0.089357,-0.025296000000000003,-0.033975,-0.008473999999999999,,,,,,,,,,,,,,,,,,,,,,,,,,,,,,,,,,,10.0,0.0,1.0,0.0,512.0,0.35823,,,,,,,,,,,,,,,,,,,,,,,,,
7002,1645901822.526995,1645901822.555004,3.0,0.0,4401.025879,4389.230957,4206.153809,4146.153809,4358.974121,450.0,1.0,15.0,,,,0.0,4.0,1.0,0.0,4.0,4.0,41.666668,,,,,,,,,,,,,,,,,,,,,,,,,,,,,,,,,,,,,,,,,,,,,,,,,,,,,,,,,,,,,,,,,,,,,,,,,,,,,,,,,,,,
7003,1645901822.53481,1645901822.562818,4.0,0.0,4356.410156,4301.025879,4258.974121,4155.384765999999,4338.461426,108.0,1.0,15.0,,,,0.0,4.0,1.0,0.0,4.0,4.0,41.666668,,,,,,,,2.0,0.0,0.7165699999999999,0.122803,0.663086,0.178223,0.921889,-0.411627,-0.095216,-0.025842,-0.033947000000000005,-0.006895,,,,,,,,,,,,,,,,,,,,,,,,,,,,,,,,,,,,,,,,,,,,,,,,,,,,,,,,,,,,,,,,,
7004,1645901822.542625,1645901822.570633,5.0,0.0,4318.461426,4321.025879,4236.922852000001,4198.461426,4325.128418,450.0,1.0,15.0,,,,0.0,4.0,1.0,0.0,4.0,4.0,41.666668,,,,,,,,,,,,,,,,,,,,,,,,,,,,,,,,,,,,,,,,,,,,,,,,,,,,,,,,,,,,,,,,,,,,,,,,,,,,,,,,,,,,
7005,1645901822.55044,1645901822.578448,6.0,0.0,4283.589844,4346.153809,4251.794922,4196.922852000001,4287.692383,4.0,1.0,15.0,,,,0.0,4.0,1.0,0.0,4.0,4.0,41.666668,,,,,,,,3.0,0.0,0.716631,0.122803,0.663086,0.177979,0.93019,-0.40381500000000004,-0.089357,-0.026432,-0.034019,-0.005473,1.0,0.0,0.0,,,,,,,,,,,,,,,,,,,,,,,,,,,,,,,,10.0,0.0,1.0,0.0,512.0,0.238931,417.569366,42.899848999999996,19.129517,2.995286,2.283992,75.009125,62.399947999999995,67.39846,26.787415000000003,22.298616,42.055603000000005,37.694728999999995,3.115704,4.6375459999999995,4.8416440000000005,8.038526,5.656328,4.5904300000000005,4.2755279999999996,2.912614,169.04122900000002,19.574279999999998,7.684471,3.16265,1.6871759999999998
7006,1645901822.5582552,1645901822.586262,7.0,0.0,4264.102539,4259.487305,4238.974121,4161.538574,4257.94873,450.0,1.0,15.0,,,,0.0,4.0,1.0,0.0,4.0,4.0,41.666668,,,,,,,,,,,,,,,,,,,,,,,,,,,,,,,,,,,,,,,,,,,,,,,,,,,,,,,,,,,,,,,,,,,,,,,,,,,,,,,,,,,,
7007,1645901822.566071,1645901822.594177,8.0,0.0,4241.538574,4207.179688,4265.128418,4172.820313,4249.743652,450.0,1.0,15.0,,,,0.0,4.0,1.0,0.0,4.0,4.0,41.666668,,,,,,,,4.0,0.0,0.716589,0.123047,0.663086,0.177979,0.908217,-0.41406899999999996,-0.08447400000000001,-0.023837,-0.033938,-0.00722,,,,,,,,,,,,,,,,,,,,,,,,,,,,,,,,,,,,,,,,,,,,,,,,,,,,,,,,,,,,,,,,,
7008,1645901822.573886,1645901822.601991,9.0,0.0,4217.436035,4250.769043,4283.077147999999,4191.794922,4250.769043,16164.0,1.0,15.0,,,,0.0,4.0,1.0,0.0,4.0,4.0,41.666668,,,,,,,,,,,,,,,,,,,,,,,,,,,,,,,,,,,,,,,,,,,,,,,,,,,,,,,,,,,,,,,,,,,,,,,,,,,,,,,,,,,,
7009,1645901822.581701,1645901822.609806,10.0,0.0,4213.846191,4252.307617,4268.205078,4160.512695,4269.230957,450.0,1.0,15.0,,,,0.0,4.0,1.0,0.0,4.0,4.0,41.666668,,,,,,,,5.0,0.0,0.716589,0.123047,0.663086,0.177979,0.9126120000000001,-0.383307,-0.08447400000000001,-0.024481,-0.033913,-0.005668,,,,,,,,,,,,,,,,,,,,,,,,,,,,,,,,,,,10.0,0.0,1.0,0.0,512.0,0.238931,,,,,,,,,,,,,,,,,,,,,,,,,
7010,1645901822.589516,1645901822.6176212,11.0,0.0,4217.94873,4165.641113000001,4271.282227000001,4148.205078,4274.358886999999,16137.0,1.0,15.0,,,,0.0,4.0,1.0,0.0,4.0,4.0,41.666668,,,,,,,,,,,,,,,,,,,,,,,,,,,,,,,,,,,,,,,,,,,,,,,,,,,,,,,,,,,,,,,,,,,,,,,,,,,,,,,,,,,,
7011,1645901822.597331,1645901822.6254349,12.0,0.0,4200.512695,4046.1538090000004,4293.846191,4174.358886999999,4220.512695,450.0,1.0,15.0,,,,0.0,4.0,1.0,0.0,4.0,4.0,41.666668,,,,,,,,6.0,0.0,0.716589,0.123047,0.663086,0.177979,0.926284,-0.393561,-0.093263,-0.025305,-0.033842000000000004,-0.007445,,,,,,,,,,,,,,,,,,,,,,,,,,,,,,,,,,,,,,,,,,,,,,,,,,,,,,,,,,,,,,,,,
7012,1645901822.6051471,1645901822.63325,13.0,0.0,4193.333496,4077.9487299999996,4177.94873,4157.94873,4198.974121,450.0,1.0,15.0,,,,0.0,4.0,1.0,0.0,4.0,4.0,41.666668,,,,,,,,,,,,,,,,,,,,,,,,,,,,,,,,,,,,,,,,,,,,,,,,,,,,,,,,,,,,,,,,,,,,,,,,,,,,,,,,,,,,
7013,1645901822.612962,1645901822.6410651,14.0,0.0,4188.717772999999,4246.666504,4145.641113000001,4111.794922,4232.307617,450.0,1.0,15.0,,,,0.0,4.0,1.0,0.0,4.0,4.0,41.666668,,,,,,,,7.0,0.0,0.716529,0.123047,0.663086,0.178223,0.913588,-0.406744,-0.09131,-0.025997000000000003,-0.033826999999999996,-0.009142,,,,,,,,,,,,,,,,,,,,,,,,,,,,,,,,,,,10.0,0.0,1.0,0.0,512.0,0.238931,,,,,,,,,,,,,,,,,,,,,,,,,
7014,1645901822.620777,1645901822.6488788,15.0,0.0,4195.384765999999,4252.820313,4229.743652,4157.436035,4243.589844,16137.0,1.0,15.0,,,,0.0,4.0,1.0,0.0,4.0,4.0,41.666668,,,,,,,,,,,,,,,,,,,,,,,,,,,,,,,,,,,,,,,,,,,,,,,,,,,,,,,,,,,,,,,,,,,,,,,,,,,,,,,,,,,,
7015,1645901822.628592,1645901822.656694,16.0,0.0,4216.410156,4154.871582,4195.897461,4178.461426,4229.230957,0.0,1.0,15.0,,,,0.0,4.0,1.0,0.0,4.0,4.0,41.666668,,,,,,,,8.0,0.0,0.716529,0.123047,0.663086,0.178223,0.9126120000000001,-0.407721,-0.09472799999999999,-0.026522000000000004,-0.033814,-0.007495,,,,,,,,,,,,,,,,,,,,,,,,,,,,,,,,,,,,,,,,,,,,,,,,,,,,,,,,,,,,,,,,,
7016,1645901822.6364071,1645901822.664609,17.0,0.0,4210.256348,4133.333496,4165.128418,4134.358886999999,4238.461426,0.0,1.0,15.0,,,,0.0,4.0,1.0,0.0,4.0,4.0,41.666668,,,,,,,,,,,,,,,,,,,,,,,,,,,,,,,,,,,,,,,,,,,,,,,,,,,,,,,,,,,,,,,,,,,,,,,,,,,,,,,,,,,,
7017,1645901822.644222,1645901822.6724231,18.0,0.0,4167.692383,4115.384765999999,4236.922852000001,4172.307617,4196.410156,0.0,1.0,15.0,,,,0.0,4.0,1.0,0.0,4.0,4.0,41.666668,,,,,,,,9.0,0.0,0.716529,0.123047,0.663086,0.178223,0.913588,-0.407721,-0.099611,-0.027093,-0.033801,-0.005915999999999999,,,,,,,,,,,,,,,,,,,,,,,,,,,,,,,,,,,10.0,0.0,1.0,0.0,512.0,0.238931,,,,,,,,,,,,,,,,,,,,,,,,,
7018,1645901822.652038,1645901822.6803381,19.0,0.0,4182.05127,4262.563965,4236.410156,4220.512695,4177.436035,0.0,1.0,15.0,,,,0.0,4.0,1.0,0.0,4.0,4.0,41.666668,,,,,,,,,,,,,,,,,,,,,,,,,,,,,,,,,,,,,,,,,,,,,,,,,,,,,,,,,,,,,,,,,,,,,,,,,,,,,,,,,,,,
7019,1645901822.659853,1645901822.6881518,20.0,0.0,4187.179688,4580.512695,4196.922852000001,4165.641113000001,4233.333496,0.0,1.0,15.0,,,,0.0,4.0,1.0,0.0,4.0,4.0,41.666668,,,,,,,,10.0,0.0,0.716529,0.123047,0.663086,0.178223,0.9199360000000001,-0.40381500000000004,-0.09668099999999999,-0.027556999999999998,-0.033693,-0.007668,,,,,,,,,,,,,,,,,,,,,,,,,,,,,,,,,,,,,,,,,,,,,,,,,,,,,,,,,,,,,,,,,
7020,1645901822.6676679,1645901822.695967,21.0,0.0,4156.410156,4730.769043,4200.512695,4156.410156,4244.615234000001,0.0,1.0,15.0,,,,0.0,4.0,1.0,0.0,4.0,4.0,41.666668,,,,,,,,,,,,,,,,,,,,,,,,,,,,,,,,,,,,,,,,,,,,,,,,,,,,,,,,,,,,,,,,,,,,,,,,,,,,,,,,,,,,
7021,1645901822.675483,1645901822.703782,22.0,0.0,4170.256348,4666.666504,4200.512695,4173.333496,4203.077147999999,0.0,1.0,15.0,,,,0.0,4.0,1.0,0.0,4.0,4.0,41.666668,1.0,8.333333,1.0,0.0,0.0,2.0,3.0,11.0,0.0,0.716426,0.12329100000000001,0.663086,0.17846700000000001,0.906264,-0.41260399999999997,-0.081544,-0.027926999999999997,-0.033693,-0.006169,1.0,0.0,0.0,,,,,,,,,,,,,,,,,,,,,,,,,,,,,,,,0.0,0.0,1.0,0.0,512.0,0.571716,543.960449,52.35334,22.693741,3.536182,2.643176,100.04203000000001,67.672699,80.510651,30.911276,21.996826000000002,42.844894000000004,40.823929,3.261307,4.850169999999999,5.1713059999999995,7.195394,6.729858,4.346101999999999,4.703117,3.151109,224.17353799999998,24.066359,9.450099,3.2034700000000003,1.615769
7022,1645901822.683298,1645901822.711596,23.0,0.0,4187.692383,4682.05127,4286.666504,4133.333496,4205.128418,0.0,1.0,15.0,,,,0.0,4.0,1.0,0.0,4.0,4.0,41.666668,,,,,,,,,,,,,,,,,,,,,,,,,,,,,,,,,,,,,,,,,,,,,,,,,,,,,,,,,,,,,,,,,,,,,,,,,,,,,,,,,,,,
7023,1645901822.691113,1645901822.719411,24.0,0.0,4171.794922,4765.128418,4296.410156,4127.179688,4217.436035,0.0,1.0,15.0,,,,0.0,4.0,1.0,0.0,4.0,4.0,41.666668,,,,,,,,12.0,0.0,0.716426,0.12329100000000001,0.663086,0.17846700000000001,0.9111469999999999,-0.409186,-0.098146,-0.028357,-0.033741,-0.007847,,,,,,,,,,,,,,,,,,,,,,,,,,,,,,,,,,,,,,,,,,,,,,,,,,,,,,,,,,,,,,,,,
7024,1645901822.6989279,1645901822.727226,25.0,0.0,4181.025879,4747.179688,4252.307617,4182.05127,4208.717772999999,0.0,1.0,15.0,,,,0.0,4.0,1.0,0.0,4.0,4.0,41.666668,,,,,,,,,,,,,,,,,,,,,,,,,,,,,,,,,,,,,,,,,,,,,,,,,,,,,,,,,,,,,,,,,,,,,,,,,,,,,,,,,,,,
7025,1645901822.706744,1645901822.73504,26.0,0.0,4208.717772999999,4705.641113000001,4259.487305,4205.128418,4215.384765999999,0.0,1.0,15.0,,,,0.0,4.0,1.0,0.0,4.0,4.0,41.666668,,,,,,,,13.0,0.0,0.716426,0.12329100000000001,0.663086,0.17846700000000001,0.933608,-0.396002,-0.095705,-0.028645999999999998,-0.033638999999999995,-0.009356999999999999,,,,,,,,,,,,,,,,,,,,,,,,,,,,,,,,,,,0.0,0.0,1.0,0.0,512.0,0.571716,,,,,,,,,,,,,,,,,,,,,,,,,
7026,1645901822.714559,1645901822.742855,27.0,0.0,4211.282227000001,4713.846191,4272.307617,4177.94873,4222.563965,0.0,1.0,15.0,,,,0.0,4.0,1.0,0.0,4.0,4.0,41.666668,,,,,,,,,,,,,,,,,,,,,,,,,,,,,,,,,,,,,,,,,,,,,,,,,,,,,,,,,,,,,,,,,,,,,,,,,,,,,,,,,,,,
7027,1645901822.722374,1645901822.750769,28.0,0.0,4211.282227000001,4714.871582,4236.410156,4184.102539,4221.025879,0.0,1.0,15.0,,,,0.0,4.0,1.0,0.0,4.0,4.0,41.666668,,,,,,,,14.0,0.0,0.716426,0.12329100000000001,0.663086,0.17846700000000001,0.917494,-0.39502600000000004,-0.089357,-0.029004000000000002,-0.033644,-0.010814,,,,,,,,,,,,,,,,,,,,,,,,,,,,,,,,,,,,,,,,,,,,,,,,,,,,,,,,,,,,,,,,,
7028,1645901822.730189,1645901822.758584,29.0,0.0,4216.410156,4704.615234000001,4258.974121,4213.333496,4212.820313,0.0,1.0,15.0,,,,0.0,4.0,1.0,0.0,4.0,4.0,41.666668,,,,,,,,,,,,,,,,,,,,,,,,,,,,,,,,,,,,,,,,,,,,,,,,,,,,,,,,,,,,,,,,,,,,,,,,,,,,,,,,,,,,
7029,1645901822.738004,1645901822.766399,30.0,0.0,4213.846191,4693.846191,4221.538574,4193.333496,4234.358886999999,0.0,1.0,15.0,,,,0.0,4.0,1.0,0.0,4.0,4.0,41.666668,,,,,,,,15.0,0.0,0.716426,0.12329100000000001,0.663086,0.17846700000000001,0.9160299999999999,-0.39453699999999997,-0.09033300000000001,-0.029278,-0.0336,-0.012028,,,,,,,,,,,,,,,,,,,,,,,,,,,,,,,,,,,0.0,0.0,1.0,0.0,512.0,0.571716,,,,,,,,,,,,,,,,,,,,,,,,,
7030,1645901822.7458189,1645901822.774213,31.0,0.0,4176.410156,4643.589844,4182.05127,4159.487305,4241.538574,0.0,1.0,15.0,,,,0.0,4.0,1.0,0.0,4.0,4.0,41.666668,,,,,,,,,,,,,,,,,,,,,,,,,,,,,,,,,,,,,,,,,,,,,,,,,,,,,,,,,,,,,,,,,,,,,,,,,,,,,,,,,,,,
7031,1645901822.753635,1645901822.782028,32.0,0.0,4181.025879,4644.615234000001,4202.563965,4169.230957,4230.256348,0.0,1.0,15.0,,,,0.0,4.0,1.0,0.0,4.0,4.0,41.666668,,,,,,,,16.0,0.0,0.7163649999999999,0.12329100000000001,0.663086,0.17871099999999998,0.904799,-0.407721,-0.097169,-0.029426,-0.033512,-0.010140999999999999,,,,,,,,,,,,,,,,,,,,,,,,,,,,,,,,,,,,,,,,,,,,,,,,,,,,,,,,,,,,,,,,,
7032,1645901822.76145,1645901822.789843,33.0,0.0,4208.717772999999,4731.794922,4224.102539,4147.692383,4228.205078,0.0,1.0,15.0,,,,0.0,4.0,1.0,0.0,4.0,4.0,41.666668,,,,,,,,,,,,,,,,,,,,,,,,,,,,,,,,,,,,,,,,,,,,,,,,,,,,,,,,,,,,,,,,,,,,,,,,,,,,,,,,,,,,
7033,1645901822.769265,1645901822.797657,34.0,0.0,4214.358886999999,4730.769043,4228.717772999999,4136.410156,4241.025879,0.0,1.0,15.0,,,,0.0,4.0,1.0,0.0,4.0,4.0,41.666668,,,,,,,,17.0,0.0,0.7163649999999999,0.12329100000000001,0.663086,0.17871099999999998,0.9155409999999999,-0.41260399999999997,-0.085451,-0.029560000000000003,-0.033530000000000004,-0.008395,,,,,,,,,,,,,,,,,,,,,,,,,,,,,,,,,,,0.0,0.0,1.0,0.0,512.0,0.571716,,,,,,,,,,,,,,,,,,,,,,,,,
7034,1645901822.77708,1645901822.8054721,35.0,0.0,4203.077147999999,4766.153809,4244.615234000001,4168.717772999999,4211.794922,0.0,1.0,15.0,,,,0.0,4.0,1.0,0.0,4.0,4.0,41.666668,,,,,,,,,,,,,,,,,,,,,,,,,,,,,,,,,,,,,,,,,,,,,,,,,,,,,,,,,,,,,,,,,,,,,,,,,,,,,,,,,,,,
7035,1645901822.784895,1645901822.813287,36.0,0.0,4201.538574,5004.615234000001,4242.05127,4186.666504,4171.794922,0.0,1.0,15.0,,,,0.0,4.0,1.0,0.0,4.0,4.0,41.666668,,,,,,,,18.0,0.0,0.7163649999999999,0.12329100000000001,0.663086,0.17871099999999998,0.926284,-0.397955,-0.091798,-0.029826,-0.033546,-0.00985,,,,,,,,,,,,,,,,,,,,,,,,,,,,,,,,,,,,,,,,,,,,,,,,,,,,,,,,,,,,,,,,,
7036,1645901822.79271,1645901822.821201,37.0,0.0,4186.153809,5153.333496,4225.641113000001,4172.307617,4169.743652,0.0,1.0,15.0,,,,0.0,4.0,1.0,0.0,4.0,4.0,41.666668,,,,,,,,,,,,,,,,,,,,,,,,,,,,,,,,,,,,,,,,,,,,,,,,,,,,,,,,,,,,,,,,,,,,,,,,,,,,,,,,,,,,
7037,1645901822.800526,1645901822.829016,38.0,0.0,4180.0,5122.05127,4266.153809,4168.205078,4200.0,0.0,1.0,15.0,,,,0.0,4.0,1.0,0.0,4.0,4.0,41.666668,,,,,,,,19.0,0.0,0.7161390000000001,0.12329100000000001,0.66333,0.17871099999999998,0.932631,-0.397467,-0.09131,-0.029969,-0.03356,-0.011111,1.0,0.0,0.0,,,,,,,,,,,,,,,,,,,,,,,,,,,,,,,,0.0,0.0,1.0,0.0,512.0,1.0,662.098694,58.86131999999999,23.932318,4.044423,2.925016,129.755478,68.692268,91.099648,34.271782,21.991953,44.14922,43.973392,3.6282389999999998,4.953397,5.609116,6.483587,7.3116460000000005,4.189316000000001,4.906769000000001,3.3923400000000004,279.626556,27.738559999999996,10.148385000000001,3.091075,1.504945
7038,1645901822.808341,1645901822.8368301,39.0,0.0,4191.794922,5083.589844,4248.205078,4151.282227000001,4216.922852000001,0.0,1.0,15.0,,,,0.0,4.0,1.0,0.0,4.0,4.0,41.666668,,,,,,,,,,,,,,,,,,,,,,,,,,,,,,,,,,,,,,,,,,,,,,,,,,,,,,,,,,,,,,,,,,,,,,,,,,,,,,,,,,,,
7039,1645901822.8161561,1645901822.844645,40.0,0.0,4186.666504,5034.358886999999,4244.102539,4144.615234000001,4210.256348,0.0,1.0,15.0,,,,0.0,4.0,1.0,0.0,4.0,4.0,41.666668,,,,,,,,20.0,0.0,0.716097,0.12353499999999999,0.66333,0.17871099999999998,0.917006,-0.398932,-0.08691499999999999,-0.030195,-0.033574,-0.012295,,,,,,,,,,,,,,,,,,,,,,,,,,,,,,,,,,,,,,,,,,,,,,,,,,,,,,,,,,,,,,,,,
7040,1645901822.823971,1645901822.85246,41.0,0.0,4200.0,4961.538574,4267.179688,4150.769043,4200.512695,0.0,1.0,15.0,,,,0.0,4.0,1.0,0.0,4.0,4.0,41.666668,,,,,,,,,,,,,,,,,,,,,,,,,,,,,,,,,,,,,,,,,,,,,,,,,,,,,,,,,,,,,,,,,,,,,,,,,,,,,,,,,,,,
7041,1645901822.831786,1645901822.860274,42.0,0.0,4214.358886999999,4927.692383,4288.717772999999,4142.563965,4206.153809,0.0,1.0,15.0,,,,0.0,4.0,1.0,0.0,4.0,4.0,41.666668,,,,,,,,21.0,0.0,0.716036,0.12353499999999999,0.66333,0.178955,0.920424,-0.40576799999999996,-0.09033300000000001,-0.030447000000000002,-0.033585000000000004,-0.010381999999999999,,,,,,,,,,,,,,,,,,,,,,,,,,,,,,,,,,,0.0,0.0,1.0,0.0,512.0,1.0,,,,,,,,,,,,,,,,,,,,,,,,,
7042,1645901822.839602,1645901822.868089,43.0,0.0,4208.205078,4994.358886999999,4237.436035,4170.769043,4200.512695,0.0,1.0,15.0,,,,0.0,4.0,1.0,0.0,4.0,4.0,41.666668,,,,,,,,,,,,,,,,,,,,,,,,,,,,,,,,,,,,,,,,,,,,,,,,,,,,,,,,,,,,,,,,,,,,,,,,,,,,,,,,,,,,
7043,1645901822.8474169,1645901822.8759038,44.0,0.0,4212.820313,5101.538574,4223.589844,4191.794922,4178.461426,0.0,1.0,15.0,,,,0.0,4.0,1.0,0.0,4.0,4.0,41.666668,,,,,,,,22.0,0.0,0.7159939999999999,0.123779,0.66333,0.178955,0.9160299999999999,-0.398932,-0.085939,-0.030674,-0.033694,-0.011687999999999999,,,,,,,,,,,,,,,,,,,,,,,,,,,,,,,,,,,,,,,,,,,,,,,,,,,,,,,,,,,,,,,,,
7044,1645901822.855232,1645901822.883718,45.0,0.0,4221.538574,5112.307617,4232.307617,4177.436035,4204.615234000001,0.0,1.0,15.0,,,,0.0,4.0,1.0,0.0,4.0,4.0,41.666668,,,,,,,,,,,,,,,,,,,,,,,,,,,,,,,,,,,,,,,,,,,,,,,,,,,,,,,,,,,,,,,,,,,,,,,,,,,,,,,,,,,,
7045,1645901822.8630471,1645901822.891533,46.0,0.0,4212.820313,5006.666504,4225.641113000001,4190.256348,4235.384765999999,0.0,1.0,15.0,,,,0.0,4.0,1.0,0.0,4.0,4.0,41.666668,,,,,,,,23.0,0.0,0.7159939999999999,0.123779,0.66333,0.178955,0.91017,-0.413092,-0.095216,-0.030829000000000002,-0.033596,-0.012863,,,,,,,,,,,,,,,,,,,,,,,,,,,,,,,,,,,0.0,0.0,1.0,0.0,512.0,1.0,,,,,,,,,,,,,,,,,,,,,,,,,
7046,1645901822.870862,1645901822.899447,47.0,0.0,4230.769043,4947.692383,4198.461426,4221.538574,4255.384765999999,0.0,1.0,15.0,,,,0.0,4.0,1.0,0.0,4.0,4.0,41.666668,,,,,,,,,,,,,,,,,,,,,,,,,,,,,,,,,,,,,,,,,,,,,,,,,,,,,,,,,,,,,,,,,,,,,,,,,,,,,,,,,,,,
7047,1645901822.878677,1645901822.9072618,48.0,0.0,4236.922852000001,5004.615234000001,4212.820313,4228.205078,4244.615234000001,0.0,1.0,15.0,,,,0.0,4.0,1.0,0.0,4.0,4.0,41.666668,,,,,,,,24.0,0.0,0.7159939999999999,0.123779,0.66333,0.178955,0.917006,-0.39697899999999997,-0.093751,-0.03092,-0.033557,-0.010795,,,,,,,,,,,,,,,,,,,,,,,,,,,,,,,,,,,,,,,,,,,,,,,,,,,,,,,,,,,,,,,,,
7048,1645901822.886493,1645901822.915077,49.0,0.0,4243.077147999999,5072.307617,4214.871582,4217.94873,4230.769043,0.0,1.0,15.0,,,,0.0,4.0,1.0,0.0,4.0,4.0,41.666668,,,,,,,,,,,,,,,,,,,,,,,,,,,,,,,,,,,,,,,,,,,,,,,,,,,,,,,,,,,,,,,,,,,,,,,,,,,,,,,,,,,,
7049,1645901822.894308,1645901822.922891,50.0,0.0,4244.615234000001,5028.205078,4214.871582,4176.922852000001,4237.436035,0.0,1.0,15.0,,,,0.0,4.0,1.0,0.0,4.0,4.0,41.666668,,,,,,,,25.0,0.0,0.71622,0.123779,0.663086,0.178955,0.9150530000000001,-0.404791,-0.09033300000000001,-0.031002,-0.033569999999999996,-0.012059,,,,,,,,,,,,,,,,,,,,,,,,,,,,,,,,,,,0.0,0.0,1.0,0.0,512.0,1.0,,,,,,,,,,,,,,,,,,,,,,,,,
7050,1645901822.902123,1645901822.930706,51.0,0.0,4250.256348,4874.358886999999,4233.846191,4163.589844,4244.615234000001,0.0,1.0,15.0,,,,0.0,4.0,1.0,0.0,4.0,4.0,41.666668,,,,,,,,,,,,,,,,,,,,,,,,,,,,,,,,,,,,,,,,,,,,,,,,,,,,,,,,,,,,,,,,,,,,,,,,,,,,,,,,,,,,
7051,1645901822.909938,1645901822.9385211,52.0,0.0,4262.05127,4811.794922,4241.025879,4181.538574,4221.538574,0.0,1.0,15.0,,,,0.0,4.0,1.0,0.0,4.0,4.0,41.666668,,,,,,,,26.0,0.0,0.71622,0.123779,0.663086,0.178955,0.9155409999999999,-0.40283800000000003,-0.09472799999999999,-0.02795,-0.033582,-0.013246,,,,,,,,,,,,,,,,,,,,,,,,,,,,,,,,,,,,,,,,,,,,,,,,,,,,,,,,,,,,,,,,,
7052,1645901822.917753,1645901822.946335,53.0,0.0,4262.563965,4840.512695,4220.512695,4188.717772999999,4204.615234000001,0.0,1.0,15.0,,,,0.0,4.0,1.0,0.0,4.0,4.0,41.666668,,,,,,,,,,,,,,,,,,,,,,,,,,,,,,,,,,,,,,,,,,,,,,,,,,,,,,,,,,,,,,,,,,,,,,,,,,,,,,,,,,,,
7053,1645901822.9255679,1645901822.95415,54.0,0.0,4236.922852000001,4777.436035,4190.769043,4185.128418,4213.333496,0.0,1.0,15.0,,,,0.0,4.0,1.0,0.0,4.0,4.0,41.666668,,,,,,,,27.0,0.0,0.7162810000000001,0.123779,0.663086,0.17871099999999998,0.909682,-0.40235,-0.085939,-0.025204,-0.033593,-0.014216,1.0,0.0,0.0,,,,,,,,,,,,,,,,,,,,,,,,,,,,,,,,0.0,0.0,1.0,0.0,512.0,1.0,766.955444,62.908756000000004,22.79162,4.427372,3.071237,162.26263400000002,67.211792,94.761032,37.081115999999994,22.1908,45.304435999999995,46.442017,4.041796,4.910648,6.069751999999999,6.020497,7.217648,4.435757,4.832618,3.6826790000000003,330.153992,30.464003,9.598918,2.873822,1.412779
7054,1645901822.933384,1645901822.961965,55.0,0.0,4232.307617,4773.333496,4262.05127,4212.307617,4216.410156,0.0,1.0,15.0,,,,0.0,4.0,1.0,0.0,4.0,4.0,41.666668,,,,,,,,,,,,,,,,,,,,,,,,,,,,,,,,,,,,,,,,,,,,,,,,,,,,,,,,,,,,,,,,,,,,,,,,,,,,,,,,,,,,
7055,1645901822.941199,1645901822.969879,56.0,0.0,4264.615234000001,4820.512695,4258.974121,4209.230957,4223.589844,0.0,1.0,15.0,,,,0.0,4.0,1.0,0.0,4.0,4.0,41.666668,,,,,,,,28.0,0.0,0.7163229999999999,0.12353499999999999,0.663086,0.17871099999999998,0.9121229999999999,-0.40283800000000003,-0.085939,-0.025907,-0.033652,-0.015090000000000001,,,,,,,,,,,,,,,,,,,,,,,,,,,,,,,,,,,,,,,,,,,,,,,,,,,,,,,,,,,,,,,,,
7056,1645901822.949014,1645901822.977694,57.0,0.0,4261.025879,4782.05127,4242.563965,4191.794922,4229.743652,0.0,1.0,15.0,,,,0.0,4.0,1.0,0.0,4.0,4.0,41.666668,,,,,,,,,,,,,,,,,,,,,,,,,,,,,,,,,,,,,,,,,,,,,,,,,,,,,,,,,,,,,,,,,,,,,,,,,,,,,,,,,,,,
7057,1645901822.9568288,1645901822.985508,58.0,0.0,4250.769043,4807.179688,4253.846191,4206.666504,4207.692383,0.0,1.0,15.0,,,,0.0,4.0,1.0,0.0,4.0,4.0,41.666668,,,,,,,,29.0,0.0,0.716342,0.123779,0.663086,0.17846700000000001,0.9184709999999999,-0.408209,-0.10009900000000001,-0.026489999999999996,-0.033607,-0.012799,,,,,,,,,,,,,,,,,,,,,,,,,,,,,,,,,,,0.0,0.0,1.0,0.0,512.0,1.0,,,,,,,,,,,,,,,,,,,,,,,,,
7058,1645901822.964644,1645901822.993323,59.0,0.0,4259.487305,4924.102539,4261.538574,4190.256348,4204.615234000001,0.0,1.0,15.0,,,,0.0,4.0,1.0,0.0,4.0,4.0,41.666668,,,,,,,,,,,,,,,,,,,,,,,,,,,,,,,,,,,,,,,,,,,,,,,,,,,,,,,,,,,,,,,,,,,,,,,,,,,,,,,,,,,,
7059,1645901822.972459,1645901823.001138,60.0,0.0,4262.05127,4871.794922,4226.666504,4187.692383,4227.692383,0.0,1.0,15.0,,,,0.0,4.0,1.0,0.0,4.0,4.0,41.666668,,,,,,,,30.0,0.0,0.7162810000000001,0.123779,0.663086,0.17871099999999998,0.909682,-0.40235,-0.085939,-0.02389,-0.033713,-0.013863,,,,,,,,,,,,,,,,,,,,,,,,,,,,,,,,,,,,,,,,,,,,,,,,,,,,,,,,,,,,,,,,,
7060,1645901822.980275,1645901823.008952,61.0,0.0,4265.641113000001,4813.846191,4250.256348,4201.538574,4228.717772999999,0.0,1.0,15.0,,,,0.0,4.0,1.0,0.0,4.0,4.0,41.666668,,,,,,,,,,,,,,,,,,,,,,,,,,,,,,,,,,,,,,,,,,,,,,,,,,,,,,,,,,,,,,,,,,,,,,,,,,,,,,,,,,,,
7061,1645901822.98809,1645901823.016767,62.0,0.0,4270.256348,4898.461426,4270.769043,4183.077147999999,4209.743652,0.0,1.0,15.0,,,,0.0,4.0,1.0,0.0,4.0,4.0,41.666668,,,,,,,,31.0,0.0,0.716342,0.123779,0.663086,0.17846700000000001,0.9184709999999999,-0.408209,-0.10009900000000001,-0.024675,-0.033662,-0.011696,,,,,,,,,,,,,,,,,,,,,,,,,,,,,,,,,,,0.0,0.0,1.0,0.0,512.0,1.0,,,,,,,,,,,,,,,,,,,,,,,,,
7062,1645901822.9959052,1645901823.0245821,63.0,0.0,4251.794922,4848.717772999999,4246.153809,4174.358886999999,4181.538574,0.0,1.0,15.0,,,,0.0,4.0,1.0,0.0,4.0,4.0,41.666668,,,,,,,,,,,,,,,,,,,,,,,,,,,,,,,,,,,,,,,,,,,,,,,,,,,,,,,,,,,,,,,,,,,,,,,,,,,,,,,,,,,,
7063,1645901823.0037198,1645901823.032396,64.0,0.0,4249.743652,4814.871582,4233.333496,4224.102539,4196.922852000001,450.0,1.0,15.0,,,,0.0,4.0,1.0,0.0,4.0,4.0,41.666668,,,,,,,,32.0,0.0,0.716342,0.123779,0.663086,0.17846700000000001,0.9126120000000001,-0.39697899999999997,-0.088869,-0.022256,-0.033763,-0.01287,,,,,,,,,,,,,,,,,,,,,,,,,,,,,,,,,,,,,,,,,,,,,,,,,,,,,,,,,,,,,,,,,
7064,1645901823.011535,1645901823.0403109,65.0,0.0,4259.487305,4940.512695,4224.615234000001,4251.282227000001,4214.358886999999,450.0,1.0,15.0,,,,0.0,4.0,1.0,0.0,4.0,4.0,41.666668,,,,,,,,,,,,,,,,,,,,,,,,,,,,,,,,,,,,,,,,,,,,,,,,,,,,,,,,,,,,,,,,,,,,,,,,,,,,,,,,,,,,
7065,1645901823.01935,1645901823.048126,66.0,0.0,4274.358886999999,4950.256348,4208.717772999999,4237.94873,4235.897461,16222.0,1.0,15.0,,,,0.0,4.0,1.0,0.0,4.0,4.0,41.666668,,,,,,,,33.0,0.0,0.7164020000000001,0.123779,0.663086,0.178223,0.9184709999999999,-0.417975,-0.09472799999999999,-0.023107,-0.033707,-0.013878,,,,,,,,,,,,,,,,,,,,,,,,,,,,,,,,,,,0.0,0.0,1.0,0.0,512.0,1.0,,,,,,,,,,,,,,,,,,,,,,,,,
7066,1645901823.0271661,1645901823.0559402,67.0,0.0,4273.846191,4865.128418,4208.205078,4227.179688,4253.846191,450.0,1.0,15.0,,,,0.0,4.0,1.0,0.0,4.0,4.0,41.666668,,,,,,,,,,,,,,,,,,,,,,,,,,,,,,,,,,,,,,,,,,,,,,,,,,,,,,,,,,,,,,,,,,,,,,,,,,,,,,,,,,,,
7067,1645901823.034981,1645901823.063755,68.0,0.0,4284.102539,4849.743652,4216.922852000001,4222.05127,4260.512695,118.0,1.0,15.0,,,,0.0,4.0,1.0,0.0,4.0,4.0,41.666668,,,,,,,,34.0,0.0,0.7164020000000001,0.123779,0.663086,0.178223,0.925307,-0.39502600000000004,-0.090822,-0.023774,-0.033706,-0.01166,,,,,,,,,,,,,,,,,,,,,,,,,,,,,,,,,,,,,,,,,,,,,,,,,,,,,,,,,,,,,,,,,
7068,1645901823.0427961,1645901823.071569,69.0,0.0,4286.666504,4820.0,4227.179688,4202.563965,4251.282227000001,450.0,1.0,15.0,,,,0.0,4.0,1.0,0.0,4.0,4.0,41.666668,,,,,,,,,,,,,,,,,,,,,,,,,,,,,,,,,,,,,,,,,,,,,,,,,,,,,,,,,,,,,,,,,,,,,,,,,,,,,,,,,,,,
7069,1645901823.050611,1645901823.079384,70.0,0.0,4270.769043,4788.205078,4275.897461,4184.102539,4258.461426,0.0,1.0,15.0,,,,0.0,4.0,1.0,0.0,4.0,4.0,41.666668,,,,,,,,35.0,0.0,0.716445,0.12353499999999999,0.663086,0.178223,0.91017,-0.408209,-0.08838,-0.02462,-0.033802,-0.013033000000000001,1.0,0.0,0.0,,,,,,,,,,,,,,,,,,,,,,,,,,,,,,,,0.0,0.0,1.0,0.0,512.0,1.0,850.244141,65.308563,19.970619,4.601173,3.0448869999999997,197.962357,68.74263,90.126305,40.365501,22.491144,45.505356,47.580086,4.380585,4.76786,6.508374,5.925104,6.484089,5.314272,4.50559,4.032971,368.3685,32.258236,8.083558,2.651263,1.402339
7070,1645901823.058426,1645901823.087199,71.0,0.0,4272.307617,4728.205078,4269.230957,4178.461426,4267.179688,450.0,1.0,15.0,,,,0.0,4.0,1.0,0.0,4.0,4.0,41.666668,,,,,,,,,,,,,,,,,,,,,,,,,,,,,,,,,,,,,,,,,,,,,,,,,,,,,,,,,,,,,,,,,,,,,,,,,,,,,,,,,,,,
7071,1645901823.066241,1645901823.0950131,72.0,0.0,4294.871582,4552.307617,4270.256348,4200.0,4246.666504,450.0,1.0,15.0,,,,0.0,4.0,1.0,0.0,4.0,4.0,41.666668,,,,,,,,36.0,0.0,0.716384,0.12353499999999999,0.663086,0.17846700000000001,0.925307,-0.404791,-0.091798,-0.02538,-0.033644,-0.010948999999999999,,,,,,,,,,,,,,,,,,,,,,,,,,,,,,,,,,,,,,,,,,,,,,,,,,,,,,,,,,,,,,,,,
7072,1645901823.074057,1645901823.102828,73.0,0.0,4300.0,4490.256348,4283.589844,4210.769043,4237.436035,317.0,1.0,15.0,,,,0.0,4.0,1.0,0.0,4.0,4.0,41.666668,,,,,,,,,,,,,,,,,,,,,,,,,,,,,,,,,,,,,,,,,,,,,,,,,,,,,,,,,,,,,,,,,,,,,,,,,,,,,,,,,,,,
7073,1645901823.081872,1645901823.110643,74.0,0.0,4284.102539,4573.846191,4271.282227000001,4200.0,4246.153809,450.0,1.0,15.0,,,,0.0,4.0,1.0,0.0,4.0,4.0,41.666668,,,,,,,,37.0,0.0,0.716384,0.12353499999999999,0.663086,0.17846700000000001,0.917494,-0.409674,-0.098146,-0.026016,-0.033649,-0.012197,,,,,,,,,,,,,,,,,,,,,,,,,,,,,,,,,,,0.0,0.0,1.0,0.0,512.0,1.0,,,,,,,,,,,,,,,,,,,,,,,,,
7074,1645901823.0896869,1645901823.118557,75.0,0.0,4286.666504,4568.717772999999,4236.410156,4203.589844,4251.282227000001,16170.0,1.0,15.0,,,,0.0,4.0,1.0,0.0,4.0,4.0,41.666668,,,,,,,,,,,,,,,,,,,,,,,,,,,,,,,,,,,,,,,,,,,,,,,,,,,,,,,,,,,,,,,,,,,,,,,,,,,,,,,,,,,,
7075,1645901823.097502,1645901823.126372,76.0,0.0,4289.743652,4587.179688,4260.512695,4221.538574,4225.641113000001,450.0,1.0,15.0,,,,0.0,4.0,1.0,0.0,4.0,4.0,41.666668,,,,,,,,38.0,0.0,0.716384,0.12353499999999999,0.663086,0.17846700000000001,0.9121229999999999,-0.406744,-0.092775,-0.026686,-0.033701999999999996,-0.013419,,,,,,,,,,,,,,,,,,,,,,,,,,,,,,,,,,,,,,,,,,,,,,,,,,,,,,,,,,,,,,,,,
7076,1645901823.1053169,1645901823.134187,77.0,0.0,4275.897461,4708.717772999999,4222.563965,4217.94873,4230.256348,450.0,1.0,15.0,,,,0.0,4.0,1.0,0.0,4.0,4.0,41.666668,,,,,,,,,,,,,,,,,,,,,,,,,,,,,,,,,,,,,,,,,,,,,,,,,,,,,,,,,,,,,,,,,,,,,,,,,,,,,,,,,,,,
7077,1645901823.113133,1645901823.142001,78.0,0.0,4253.333496,4740.512695,4190.256348,4190.769043,4248.717772999999,450.0,1.0,15.0,,,,0.0,4.0,1.0,0.0,4.0,4.0,41.666668,,,,,,,,39.0,0.0,0.716426,0.12329100000000001,0.663086,0.17846700000000001,0.9150530000000001,-0.39942,-0.09131,-0.027191000000000003,-0.033701,-0.014421000000000002,,,,,,,,,,,,,,,,,,,,,,,,,,,,,,,,,,,0.0,0.0,1.0,0.0,512.0,1.0,,,,,,,,,,,,,,,,,,,,,,,,,
7078,1645901823.120948,1645901823.149816,79.0,0.0,4273.846191,4710.256348,4205.128418,4172.307617,4264.615234000001,16170.0,1.0,15.0,,,,0.0,4.0,1.0,0.0,4.0,4.0,41.666668,,,,,,,,,,,,,,,,,,,,,,,,,,,,,,,,,,,,,,,,,,,,,,,,,,,,,,,,,,,,,,,,,,,,,,,,,,,,,,,,,,,,
7079,1645901823.1287632,1645901823.15763,80.0,0.0,4282.05127,4677.94873,4240.0,4182.563965,4264.615234000001,450.0,1.0,15.0,,,,0.0,4.0,1.0,0.0,4.0,4.0,41.666668,,,,,,,,40.0,0.0,0.716426,0.12329100000000001,0.663086,0.17846700000000001,0.917494,-0.41113900000000003,-0.101076,-0.027597000000000003,-0.033749,-0.015372,,,,,,,,,,,,,,,,,,,,,,,,,,,,,,,,,,,,,,,,,,,,,,,,,,,,,,,,,,,,,,,,,
7080,1645901823.1365778,1645901823.1654449,81.0,0.0,4284.102539,4664.102539,4224.615234000001,4208.717772999999,4262.05127,450.0,1.0,15.0,,,,0.0,4.0,1.0,0.0,4.0,4.0,41.666668,,,,,,,,,,,,,,,,,,,,,,,,,,,,,,,,,,,,,,,,,,,,,,,,,,,,,,,,,,,,,,,,,,,,,,,,,,,,,,,,,,,,
7081,1645901823.144393,1645901823.17326,82.0,0.0,4288.205078,4728.205078,4226.666504,4193.846191,4265.641113000001,450.0,1.0,15.0,,,,0.0,4.0,1.0,0.0,4.0,4.0,41.666668,,,,,,,,41.0,0.0,0.716426,0.12329100000000001,0.663086,0.17846700000000001,0.9277489999999999,-0.397955,-0.090822,-0.028109,-0.033792,-0.016081,,,,,,,,,,,,,,,,,,,,,,,,,,,,,,,,,,,0.0,0.0,1.0,0.0,512.0,1.0,,,,,,,,,,,,,,,,,,,,,,,,,
7082,1645901823.152208,1645901823.1810741,83.0,0.0,4301.025879,4775.384765999999,4272.307617,4185.128418,4276.410156,16170.0,1.0,15.0,,,,0.0,4.0,1.0,0.0,4.0,4.0,41.666668,,,,,,,,,,,,,,,,,,,,,,,,,,,,,,,,,,,,,,,,,,,,,,,,,,,,,,,,,,,,,,,,,,,,,,,,,,,,,,,,,,,,
7083,1645901823.160024,1645901823.188889,84.0,0.0,4302.05127,4758.974121,4271.282227000001,4192.820313,4279.487305,450.0,1.0,15.0,,,,0.0,4.0,1.0,0.0,4.0,4.0,41.666668,,,,,,,,42.0,0.0,0.716468,0.123047,0.663086,0.17846700000000001,0.9121229999999999,-0.400885,-0.09424,-0.028569999999999998,-0.033782,-0.016865,,,,,,,,,,,,,,,,,,,,,,,,,,,,,,,,,,,,,,,,,,,,,,,,,,,,,,,,,,,,,,,,,
7084,1645901823.167839,1645901823.1968038,85.0,0.0,4315.897461,4813.846191,4234.871582,4191.282227000001,4276.922852000001,450.0,1.0,15.0,,,,0.0,4.0,1.0,0.0,4.0,4.0,41.666668,,,,,,,,,,,,,,,,,,,,,,,,,,,,,,,,,,,,,,,,,,,,,,,,,,,,,,,,,,,,,,,,,,,,,,,,,,,,,,,,,,,,
7085,1645901823.175654,1645901823.204618,86.0,0.0,4330.256348,4837.436035,4241.025879,4168.205078,4275.384765999999,450.0,1.0,15.0,,,,0.0,4.0,1.0,0.0,4.0,4.0,41.666668,1.0,8.333333,1.0,0.0,0.0,3.0,3.0,43.0,0.0,0.716468,0.123047,0.663086,0.17846700000000001,0.925795,-0.396002,-0.093751,-0.028887,-0.033822000000000005,-0.017571,1.0,0.0,0.0,,,,,,,,,,,,,,,,,,,,,,,,,,,,,,,,0.0,0.0,1.0,0.0,512.0,1.0,896.353394,66.088684,16.506067,4.517284,2.845004,239.341492,78.987656,79.624535,45.30492,22.825813,44.289501,47.056984,4.602936,4.604065,6.892917,6.267562,5.321902,6.830528,4.013221,4.390322,385.397644,32.895691,6.195524,2.528289,1.5061790000000002
7086,1645901823.183469,1645901823.212433,87.0,0.0,4316.410156,4744.102539,4287.692383,4184.102539,4288.717772999999,16170.0,1.0,15.0,,,,0.0,4.0,1.0,0.0,4.0,4.0,41.666668,,,,,,,,,,,,,,,,,,,,,,,,,,,,,,,,,,,,,,,,,,,,,,,,,,,,,,,,,,,,,,,,,,,,,,,,,,,,,,,,,,,,
7087,1645901823.191284,1645901823.220248,88.0,0.0,4316.922852000001,4702.05127,4257.94873,4196.410156,4304.615234000001,450.0,1.0,15.0,,,,0.0,4.0,1.0,0.0,4.0,4.0,41.666668,,,,,,,,44.0,0.0,0.7165100000000001,0.122803,0.663086,0.17846700000000001,0.928725,-0.411627,-0.092775,-0.029172000000000003,-0.033858,-0.018256,,,,,,,,,,,,,,,,,,,,,,,,,,,,,,,,,,,,,,,,,,,,,,,,,,,,,,,,,,,,,,,,,
7088,1645901823.199099,1645901823.228062,89.0,0.0,4301.538574,4697.436035,4266.666504,4168.205078,4280.0,450.0,1.0,15.0,,,,0.0,4.0,1.0,0.0,4.0,4.0,41.666668,,,,,,,,,,,,,,,,,,,,,,,,,,,,,,,,,,,,,,,,,,,,,,,,,,,,,,,,,,,,,,,,,,,,,,,,,,,,,,,,,,,,
7089,1645901823.2069151,1645901823.235877,90.0,0.0,4265.128418,4653.846191,4252.307617,4161.538574,4238.461426,450.0,1.0,15.0,,,,0.0,4.0,1.0,0.0,4.0,4.0,41.666668,,,,,,,,45.0,0.0,0.7165100000000001,0.122803,0.663086,0.17846700000000001,0.917983,-0.39649,-0.097169,-0.02938,-0.033841,-0.015649,,,,,,,,,,,,,,,,,,,,,,,,,,,,,,,,,,,0.0,0.0,1.0,0.0,512.0,1.0,,,,,,,,,,,,,,,,,,,,,,,,,
7090,1645901823.21473,1645901823.243691,91.0,0.0,4258.461426,4674.358886999999,4255.897461,4172.307617,4243.077147999999,16170.0,1.0,15.0,,,,0.0,4.0,1.0,0.0,4.0,4.0,41.666668,,,,,,,,,,,,,,,,,,,,,,,,,,,,,,,,,,,,,,,,,,,,,,,,,,,,,,,,,,,,,,,,,,,,,,,,,,,,,,,,,,,,
7091,1645901823.222545,1645901823.251506,92.0,0.0,4296.410156,4753.333496,4235.384765999999,4164.102539,4275.384765999999,450.0,1.0,15.0,,,,0.0,4.0,1.0,0.0,4.0,4.0,41.666668,,,,,,,,46.0,0.0,0.716325,0.12255899999999999,0.66333,0.17846700000000001,0.9184709999999999,-0.39014299999999996,-0.098146,-0.029664,-0.033826,-0.016475999999999998,,,,,,,,,,,,,,,,,,,,,,,,,,,,,,,,,,,,,,,,,,,,,,,,,,,,,,,,,,,,,,,,,
7092,1645901823.23036,1645901823.259421,93.0,0.0,4300.0,4778.974121,4211.282227000001,4165.128418,4272.307617,450.0,1.0,15.0,,,,0.0,4.0,1.0,0.0,4.0,4.0,41.666668,,,,,,,,,,,,,,,,,,,,,,,,,,,,,,,,,,,,,,,,,,,,,,,,,,,,,,,,,,,,,,,,,,,,,,,,,,,,,,,,,,,,
7093,1645901823.238175,1645901823.267235,94.0,0.0,4283.077147999999,4726.153809,4192.820313,4190.769043,4257.436035,450.0,1.0,15.0,,,,0.0,4.0,1.0,0.0,4.0,4.0,41.666668,,,,,,,,47.0,0.0,0.716367,0.122314,0.66333,0.17846700000000001,0.921889,-0.404791,-0.102052,-0.029872000000000003,-0.033862,-0.017269999999999997,,,,,,,,,,,,,,,,,,,,,,,,,,,,,,,,,,,0.0,0.0,1.0,0.0,512.0,1.0,,,,,,,,,,,,,,,,,,,,,,,,,
7094,1645901823.24599,1645901823.27505,95.0,0.0,4284.102539,4683.589844,4225.641113000001,4159.487305,4245.128418,16170.0,1.0,15.0,,,,0.0,4.0,1.0,0.0,4.0,4.0,41.666668,,,,,,,,,,,,,,,,,,,,,,,,,,,,,,,,,,,,,,,,,,,,,,,,,,,,,,,,,,,,,,,,,,,,,,,,,,,,,,,,,,,,
7095,1645901823.253806,1645901823.282865,96.0,0.0,4275.897461,4720.512695,4230.256348,4152.820313,4240.512695,450.0,1.0,15.0,,,,0.0,4.0,1.0,0.0,4.0,4.0,41.666668,,,,,,,,48.0,0.0,0.716409,0.12207,0.66333,0.17846700000000001,0.9243309999999999,-0.404791,-0.085939,-0.030010000000000002,-0.033894,-0.014811000000000001,,,,,,,,,,,,,,,,,,,,,,,,,,,,,,,,,,,,,,,,,,,,,,,,,,,,,,,,,,,,,,,,,
7096,1645901823.261621,1645901823.290679,97.0,0.0,4251.282227000001,4745.641113000001,4224.615234000001,4200.512695,4211.282227000001,450.0,1.0,15.0,,,,0.0,4.0,1.0,0.0,4.0,4.0,41.666668,,,,,,,,,,,,,,,,,,,,,,,,,,,,,,,,,,,,,,,,,,,,,,,,,,,,,,,,,,,,,,,,,,,,,,,,,,,,,,,,,,,,
7097,1645901823.269436,1645901823.2984939,98.0,0.0,4252.307617,4728.205078,4255.897461,4207.179688,4201.538574,450.0,1.0,15.0,,,,0.0,4.0,1.0,0.0,4.0,4.0,41.666668,,,,,,,,49.0,0.0,0.71645,0.121826,0.66333,0.17846700000000001,0.9150530000000001,-0.406256,-0.083986,-0.030231,-0.033873,-0.015722,,,,,,,,,,,,,,,,,,,,,,,,,,,,,,,,,,,0.0,0.0,1.0,0.0,512.0,1.0,,,,,,,,,,,,,,,,,,,,,,,,,
7098,1645901823.277251,1645901823.306309,99.0,0.0,4246.666504,4690.256348,4211.794922,4174.871582,4210.256348,16170.0,1.0,15.0,,,,0.0,4.0,1.0,0.0,4.0,4.0,41.666668,,,,,,,,,,,,,,,,,,,,,,,,,,,,,,,,,,,,,,,,,,,,,,,,,,,,,,,,,,,,,,,,,,,,,,,,,,,,,,,,,,,,
7099,1645901823.2850661,1645901823.3141232,100.0,0.0,4251.282227000001,4649.743652,4190.769043,4196.410156,4230.769043,450.0,1.0,15.0,,,,0.0,4.0,1.0,0.0,4.0,4.0,41.666668,,,,,,,,50.0,0.0,0.71645,0.121826,0.66333,0.17846700000000001,0.8994280000000001,-0.400885,-0.087404,-0.030382,-0.033953,-0.016592,,,,,,,,,,,,,,,,,,,,,,,,,,,,,,,,,,,,,,,,,,,,,,,,,,,,,,,,,,,,,,,,,
7100,1645901823.292881,1645901823.321938,101.0,0.0,4258.461426,4693.333496,4228.205078,4213.333496,4249.230957,450.0,1.0,15.0,,,,0.0,4.0,1.0,0.0,4.0,4.0,41.666668,,,,,,,,,,,,,,,,,,,,,,,,,,,,,,,,,,,,,,,,,,,,,,,,,,,,,,,,,,,,,,,,,,,,,,,,,,,,,,,,,,,,
7101,1645901823.3006961,1645901823.329752,102.0,0.0,4243.077147999999,4789.743652,4273.846191,4176.410156,4256.410156,450.0,1.0,15.0,,,,0.0,4.0,1.0,0.0,4.0,4.0,41.666668,,,,,,,,51.0,0.0,0.716492,0.121582,0.66333,0.17846700000000001,0.920424,-0.40381500000000004,-0.097169,-0.030371,-0.033927,-0.0142,1.0,0.0,0.0,,,,,,,,,,,,,,,,,,,,,,,,,,,,,,,,0.0,0.0,1.0,0.0,512.0,1.0,888.78717,64.452003,13.254892000000002,4.179475,2.5094060000000002,285.35736099999997,101.13887,68.56768000000001,52.224384,23.199751000000003,41.743996,44.926586,4.740704,4.4993050000000006,7.164585000000001,6.952881,4.019864,8.747148,3.4840430000000002,4.651226,375.112366,32.041022999999996,4.586663,2.559854,1.7019400000000002
7102,1645901823.308512,1645901823.337567,103.0,0.0,4230.256348,4741.538574,4257.94873,4158.974121,4244.102539,16170.0,1.0,15.0,,,,0.0,4.0,1.0,0.0,4.0,4.0,41.666668,,,,,,,,,,,,,,,,,,,,,,,,,,,,,,,,,,,,,,,,,,,,,,,,,,,,,,,,,,,,,,,,,,,,,,,,,,,,,,,,,,,,
7103,1645901823.3163269,1645901823.345482,104.0,0.0,4240.0,4661.025879,4233.333496,4183.077147999999,4229.743652,450.0,1.0,15.0,,,,0.0,4.0,1.0,0.0,4.0,4.0,41.666668,,,,,,,,52.0,0.0,0.716553,0.121582,0.66333,0.178223,0.917494,-0.404791,-0.085451,-0.030557,-0.033902999999999996,-0.015124,,,,,,,,,,,,,,,,,,,,,,,,,,,,,,,,,,,,,,,,,,,,,,,,,,,,,,,,,,,,,,,,,
7104,1645901823.324142,1645901823.353296,105.0,0.0,4244.102539,4727.692383,4246.153809,4190.769043,4232.307617,450.0,1.0,15.0,,,,0.0,4.0,1.0,0.0,4.0,4.0,41.666668,,,,,,,,,,,,,,,,,,,,,,,,,,,,,,,,,,,,,,,,,,,,,,,,,,,,,,,,,,,,,,,,,,,,,,,,,,,,,,,,,,,,
7105,1645901823.331957,1645901823.361111,106.0,0.0,4238.461426,4764.102539,4269.743652,4174.871582,4244.615234000001,450.0,1.0,15.0,,,,0.0,4.0,1.0,0.0,4.0,4.0,41.666668,,,,,,,,53.0,0.0,0.716553,0.121582,0.66333,0.178223,0.918959,-0.389166,-0.098146,-0.030675,-0.033882,-0.012731999999999999,,,,,,,,,,,,,,,,,,,,,,,,,,,,,,,,,,,0.0,0.0,1.0,0.0,512.0,1.0,,,,,,,,,,,,,,,,,,,,,,,,,
7106,1645901823.339772,1645901823.368926,107.0,0.0,4251.282227000001,4690.256348,4243.589844,4167.179688,4265.128418,16170.0,1.0,15.0,,,,0.0,4.0,1.0,0.0,4.0,4.0,41.666668,,,,,,,,,,,,,,,,,,,,,,,,,,,,,,,,,,,,,,,,,,,,,,,,,,,,,,,,,,,,,,,,,,,,,,,,,,,,,,,,,,,,
7107,1645901823.347588,1645901823.37674,108.0,0.0,4262.05127,4662.563965,4279.487305,4172.307617,4260.0,450.0,1.0,15.0,,,,0.0,4.0,1.0,0.0,4.0,4.0,41.666668,,,,,,,,54.0,0.0,0.716553,0.121582,0.66333,0.178223,0.9116350000000001,-0.40283800000000003,-0.093263,-0.027656,-0.033863,-0.013852000000000001,,,,,,,,,,,,,,,,,,,,,,,,,,,,,,,,,,,,,,,,,,,,,,,,,,,,,,,,,,,,,,,,,
7108,1645901823.355403,1645901823.384555,109.0,0.0,4271.794922,4739.487305,4263.077147999999,4173.333496,4260.512695,450.0,1.0,15.0,,,,0.0,4.0,1.0,0.0,4.0,4.0,41.666668,,,,,,,,,,,,,,,,,,,,,,,,,,,,,,,,,,,,,,,,,,,,,,,,,,,,,,,,,,,,,,,,,,,,,,,,,,,,,,,,,,,,
7109,1645901823.363218,1645901823.39237,110.0,0.0,4256.922852000001,4788.205078,4247.692383,4164.615234000001,4266.153809,450.0,1.0,15.0,,,,0.0,4.0,1.0,0.0,4.0,4.0,41.666668,,,,,,,,55.0,0.0,0.716553,0.121582,0.66333,0.178223,0.925795,-0.408698,-0.08447400000000001,-0.028064999999999996,-0.033846,-0.014908000000000001,,,,,,,,,,,,,,,,,,,,,,,,,,,,,,,,,,,0.0,0.0,1.0,0.0,512.0,1.0,,,,,,,,,,,,,,,,,,,,,,,,,
7110,1645901823.371033,1645901823.400184,111.0,0.0,4268.205078,4717.436035,4233.846191,4156.410156,4260.0,16170.0,1.0,15.0,,,,0.0,4.0,1.0,0.0,4.0,4.0,41.666668,,,,,,,,,,,,,,,,,,,,,,,,,,,,,,,,,,,,,,,,,,,,,,,,,,,,,,,,,,,,,,,,,,,,,,,,,,,,,,,,,,,,
7111,1645901823.378848,1645901823.407999,112.0,0.0,4284.615234000001,4636.410156,4197.436035,4142.05127,4245.128418,450.0,1.0,15.0,,,,0.0,4.0,1.0,0.0,4.0,4.0,41.666668,,,,,,,,56.0,0.0,0.716553,0.121582,0.66333,0.178223,0.917983,-0.387701,-0.097169,-0.028481,-0.033782,-0.012685,,,,,,,,,,,,,,,,,,,,,,,,,,,,,,,,,,,,,,,,,,,,,,,,,,,,,,,,,,,,,,,,,
7112,1645901823.3866642,1645901823.415913,113.0,0.0,4283.077147999999,4632.820313,4184.102539,4176.922852000001,4238.974121,450.0,1.0,15.0,,,,0.0,4.0,1.0,0.0,4.0,4.0,41.666668,,,,,,,,,,,,,,,,,,,,,,,,,,,,,,,,,,,,,,,,,,,,,,,,,,,,,,,,,,,,,,,,,,,,,,,,,,,,,,,,,,,,
7113,1645901823.3944788,1645901823.423728,114.0,0.0,4275.384765999999,4645.641113000001,4231.794922,4218.461426,4237.94873,450.0,1.0,15.0,,,,0.0,4.0,1.0,0.0,4.0,4.0,41.666668,,,,,,,,57.0,0.0,0.716553,0.121582,0.66333,0.178223,0.9116350000000001,-0.40283800000000003,-0.093263,-0.028709,-0.033625999999999996,-0.010684,,,,,,,,,,,,,,,,,,,,,,,,,,,,,,,,,,,0.0,0.0,1.0,0.0,512.0,1.0,,,,,,,,,,,,,,,,,,,,,,,,,
7114,1645901823.402294,1645901823.4315429,115.0,0.0,4269.743652,4656.922852000001,4225.128418,4219.487305,4246.666504,16170.0,1.0,15.0,,,,0.0,4.0,1.0,0.0,4.0,4.0,41.666668,,,,,,,,,,,,,,,,,,,,,,,,,,,,,,,,,,,,,,,,,,,,,,,,,,,,,,,,,,,,,,,,,,,,,,,,,,,,,,,,,,,,
7115,1645901823.410109,1645901823.439357,116.0,0.0,4255.384765999999,4665.641113000001,4174.871582,4199.487305,4217.436035,450.0,1.0,15.0,,,,0.0,4.0,1.0,0.0,4.0,4.0,41.666668,,,,,,,,58.0,0.0,0.716553,0.121582,0.66333,0.178223,0.917983,-0.387701,-0.097169,-0.029061,-0.033583999999999996,-0.008883,,,,,,,,,,,,,,,,,,,,,,,,,,,,,,,,,,,,,,,,,,,,,,,,,,,,,,,,,,,,,,,,,
7116,1645901823.417924,1645901823.4471722,117.0,0.0,4263.077147999999,4653.846191,4243.077147999999,4197.94873,4204.615234000001,450.0,1.0,15.0,,,,0.0,4.0,1.0,0.0,4.0,4.0,41.666668,,,,,,,,,,,,,,,,,,,,,,,,,,,,,,,,,,,,,,,,,,,,,,,,,,,,,,,,,,,,,,,,,,,,,,,,,,,,,,,,,,,,
7117,1645901823.425739,1645901823.4549868,118.0,0.0,4279.487305,4642.563965,4236.410156,4188.717772999999,4245.641113000001,450.0,1.0,15.0,,,,0.0,4.0,1.0,0.0,4.0,4.0,41.666668,,,,,,,,59.0,0.0,0.7167789999999999,0.121582,0.663086,0.178223,0.9199360000000001,-0.391119,-0.099611,-0.029475,-0.033595,-0.010339,1.0,0.0,0.0,,,,,,,,,,,,,,,,,,,,,,,,,,,,,,,,0.0,0.0,1.0,0.0,128.0,0.9882129999999999,815.012878,59.15221,10.594401,3.645426,2.1038580000000002,338.96826200000004,132.976761,62.670520999999994,60.093826,23.655579,38.137695,41.713875,4.838739,4.478889,7.221164,7.666655,2.835142,10.670899,3.027837,4.708483,335.704956,29.177095,3.661345,2.721741,1.919009
7118,1645901823.4335551,1645901823.462801,119.0,0.0,4270.769043,4674.358886999999,4224.102539,4165.641113000001,4267.179688,16170.0,1.0,15.0,,,,0.0,4.0,1.0,0.0,4.0,4.0,41.666668,,,,,,,,,,,,,,,,,,,,,,,,,,,,,,,,,,,,,,,,,,,,,,,,,,,,,,,,,,,,,,,,,,,,,,,,,,,,,,,,,,,,
7119,1645901823.44137,1645901823.470616,120.0,0.0,4265.641113000001,4692.820313,4273.333496,4162.05127,4231.282227000001,450.0,1.0,15.0,,,,0.0,4.0,1.0,0.0,4.0,4.0,41.666668,,,,,,,,60.0,0.0,0.7167789999999999,0.121582,0.663086,0.178223,0.922377,-0.407721,-0.09033300000000001,-0.029700999999999998,-0.033605,-0.008426000000000001,,,,,,,,,,,,,,,,,,,,,,,,,,,,,,,,,,,,,,,,,,,,,,,,,,,,,,,,,,,,,,,,,
7120,1645901823.449185,1645901823.478431,121.0,0.0,4283.077147999999,4683.077147999999,4280.512695,4179.487305,4223.077147999999,450.0,1.0,15.0,,,,0.0,4.0,1.0,0.0,4.0,4.0,41.666668,,,,,,,,,,,,,,,,,,,,,,,,,,,,,,,,,,,,,,,,,,,,,,,,,,,,,,,,,,,,,,,,,,,,,,,,,,,,,,,,,,,,
7121,1645901823.457,1645901823.4863448,122.0,0.0,4286.666504,4637.94873,4245.128418,4208.717772999999,4249.743652,450.0,1.0,15.0,,,,0.0,4.0,1.0,0.0,4.0,4.0,41.666668,,,,,,,,61.0,0.0,0.71682,0.12133800000000002,0.663086,0.178223,0.9248190000000001,-0.404303,-0.09765800000000001,-0.029954,-0.033662,-0.009927,,,,,,,,,,,,,,,,,,,,,,,,,,,,,,,,,,,0.0,0.0,1.0,0.0,128.0,0.9882129999999999,,,,,,,,,,,,,,,,,,,,,,,,,
7122,1645901823.4648151,1645901823.49416,123.0,0.0,4276.922852000001,4647.692383,4249.743652,4212.307617,4231.794922,16170.0,1.0,15.0,,,,0.0,4.0,1.0,0.0,4.0,4.0,41.666668,,,,,,,,,,,,,,,,,,,,,,,,,,,,,,,,,,,,,,,,,,,,,,,,,,,,,,,,,,,,,,,,,,,,,,,,,,,,,,,,,,,,
7123,1645901823.47263,1645901823.501974,124.0,0.0,4272.820313,4720.512695,4200.512695,4175.384765999999,4229.743652,450.0,1.0,15.0,,,,0.0,4.0,1.0,0.0,4.0,4.0,41.666668,,,,,,,,62.0,0.0,0.7167789999999999,0.121582,0.663086,0.178223,0.925307,-0.41065100000000004,-0.092775,-0.030083999999999996,-0.033519,-0.008104,,,,,,,,,,,,,,,,,,,,,,,,,,,,,,,,,,,,,,,,,,,,,,,,,,,,,,,,,,,,,,,,,
7124,1645901823.480446,1645901823.509789,125.0,0.0,4250.256348,4694.871582,4195.384765999999,4164.615234000001,4241.538574,450.0,1.0,15.0,,,,0.0,4.0,1.0,0.0,4.0,4.0,41.666668,,,,,,,,,,,,,,,,,,,,,,,,,,,,,,,,,,,,,,,,,,,,,,,,,,,,,,,,,,,,,,,,,,,,,,,,,,,,,,,,,,,,
7125,1645901823.488261,1645901823.5176039,126.0,0.0,4263.589844,4620.0,4212.307617,4164.102539,4243.077147999999,450.0,1.0,15.0,,,,0.0,4.0,1.0,0.0,4.0,4.0,41.666668,,,,,,,,63.0,0.0,0.71682,0.12133800000000002,0.663086,0.178223,0.920424,-0.404303,-0.10009900000000001,-0.030347000000000002,-0.033487,-0.006464,,,,,,,,,,,,,,,,,,,,,,,,,,,,,,,,,,,0.0,0.0,1.0,0.0,128.0,0.9882129999999999,,,,,,,,,,,,,,,,,,,,,,,,,
7126,1645901823.4960759,1645901823.525418,127.0,0.0,4290.256348,4660.512695,4220.0,4131.282227000001,4239.487305,232.0,1.0,15.0,,,,0.0,4.0,1.0,0.0,4.0,4.0,41.666668,,,,,,,,,,,,,,,,,,,,,,,,,,,,,,,,,,,,,,,,,,,,,,,,,,,,,,,,,,,,,,,,,,,,,,,,,,,,,,,,,,,,
7127,1645901823.503891,1645901823.533233,0.0,0.0,4301.538574,4728.205078,4211.282227000001,4152.820313,4235.384765999999,450.0,1.0,15.0,,,,0.0,4.0,1.0,0.0,4.0,4.0,41.666668,,,,,,,,0.0,0.0,0.717046,0.12133800000000002,0.662842,0.178223,0.9038219999999999,-0.39453699999999997,-0.100587,-0.030486000000000003,-0.033605,-0.008161,,,,,,,,,,,,,,,,,,,,,,,,,,,,,,,,,,,,,,,,,,,,,,,,,,,,,,,,,,,,,,,,,
7128,1645901823.511706,1645901823.541048,1.0,0.0,4294.871582,4684.102539,4221.538574,4200.0,4222.563965,450.0,1.0,15.0,,,,0.0,4.0,1.0,0.0,4.0,4.0,41.666668,,,,,,,,,,,,,,,,,,,,,,,,,,,,,,,,,,,,,,,,,,,,,,,,,,,,,,,,,,,,,,,,,,,,,,,,,,,,,,,,,,,,
7129,1645901823.519521,1645901823.548862,2.0,0.0,4305.641113000001,4643.589844,4215.897461,4210.769043,4240.512695,16145.0,1.0,15.0,,,,0.0,4.0,1.0,0.0,4.0,4.0,41.666668,,,,,,,,1.0,0.0,0.717087,0.12109400000000001,0.662842,0.178223,0.9209129999999999,-0.408698,-0.085939,-0.030660000000000003,-0.033614,-0.009738,,,,,,,,,,,,,,,,,,,,,,,,,,,,,,,,,,,0.0,0.0,1.0,0.0,128.0,0.9882129999999999,,,,,,,,,,,,,,,,,,,,,,,,,
7130,1645901823.527336,1645901823.556777,3.0,0.0,4291.282227000001,4659.487305,4186.666504,4192.820313,4240.0,450.0,1.0,15.0,,,,0.0,4.0,2.0,4.0,4.0,4.0,83.333336,,,,,,,,,,,,,,,,,,,,,,,,,,,,,,,,,,,,,,,,,,,,,,,,,,,,,,,,,,,,,,,,,,,,,,,,,,,,,,,,,,,,
7131,1645901823.535152,1645901823.564591,4.0,0.0,4264.615234000001,4664.615234000001,4206.153809,4193.846191,4212.820313,235.0,1.0,15.0,,,,0.0,4.0,2.0,4.0,4.0,4.0,83.333336,,,,,,,,2.0,0.0,0.717087,0.12109400000000001,0.662842,0.178223,0.929702,-0.397467,-0.08984500000000001,-0.030866,-0.033573,-0.007934,,,,,,,,,,,,,,,,,,,,,,,,,,,,,,,,,,,,,,,,,,,,,,,,,,,,,,,,,,,,,,,,,
7132,1645901823.542967,1645901823.572406,5.0,0.0,4270.769043,4680.0,4237.94873,4201.025879,4229.743652,450.0,1.0,15.0,,,,0.0,4.0,2.0,4.0,4.0,4.0,83.333336,,,,,,,,,,,,,,,,,,,,,,,,,,,,,,,,,,,,,,,,,,,,,,,,,,,,,,,,,,,,,,,,,,,,,,,,,,,,,,,,,,,,
7133,1645901823.550782,1645901823.5802212,6.0,0.0,4283.077147999999,4725.128418,4260.0,4220.512695,4271.794922,16169.0,1.0,15.0,,,,0.0,4.0,2.0,4.0,4.0,4.0,83.333336,,,,,,,,3.0,0.0,0.717046,0.12133800000000002,0.662842,0.178223,0.916518,-0.399908,-0.09131,-0.031099,-0.033536,-0.009434999999999999,1.0,0.0,0.0,,,,,,,,,,,,,,,,,,,,,,,,,,,,,,,,0.0,0.0,1.0,0.0,128.0,0.662894,681.006226,49.666,8.400779,3.017564,1.701945,386.773071,165.999023,64.858925,66.74361400000001,24.105938000000002,34.037445,38.091941999999996,4.86458,4.482515,6.9649600000000005,8.119898,1.9365569999999999,12.192352,2.687591,4.505517,273.46096800000004,24.230581,3.391634,2.92587,2.07538
7134,1645901823.558597,1645901823.5880349,7.0,0.0,4286.153809,4709.230957,4230.256348,4198.461426,4264.102539,450.0,1.0,15.0,,,,0.0,4.0,2.0,4.0,4.0,4.0,83.333336,,,,,,,,,,,,,,,,,,,,,,,,,,,,,,,,,,,,,,,,,,,,,,,,,,,,,,,,,,,,,,,,,,,,,,,,,,,,,,,,,,,,
7135,1645901823.566412,1645901823.59585,8.0,0.0,4292.307617,4630.256348,4278.461426,4148.717772999999,4252.307617,450.0,1.0,15.0,,,,0.0,4.0,2.0,4.0,4.0,4.0,83.333336,,,,,,,,4.0,0.0,0.716985,0.12133800000000002,0.662842,0.17846700000000001,0.929702,-0.39942,-0.099123,-0.031163,-0.033552,-0.007711,,,,,,,,,,,,,,,,,,,,,,,,,,,,,,,,,,,,,,,,,,,,,,,,,,,,,,,,,,,,,,,,,
7136,1645901823.5742269,1645901823.603665,9.0,0.0,4300.512695,4615.384765999999,4295.897461,4162.05127,4260.0,16237.0,1.0,15.0,,,,0.0,4.0,2.0,4.0,4.0,4.0,83.333336,,,,,,,,,,,,,,,,,,,,,,,,,,,,,,,,,,,,,,,,,,,,,,,,,,,,,,,,,,,,,,,,,,,,,,,,,,,,,,,,,,,,
7137,1645901823.582043,1645901823.6114788,10.0,0.0,4309.230957,4652.307617,4264.615234000001,4182.563965,4260.0,450.0,1.0,15.0,,,,0.0,4.0,2.0,4.0,4.0,4.0,83.333336,,,,,,,,5.0,0.0,0.7172109999999999,0.12133800000000002,0.6625979999999999,0.17846700000000001,0.9248190000000001,-0.391608,-0.089357,-0.031221,-0.033566000000000006,-0.009283,,,,,,,,,,,,,,,,,,,,,,,,,,,,,,,,,,,0.0,0.0,1.0,0.0,128.0,0.662894,,,,,,,,,,,,,,,,,,,,,,,,,
7138,1645901823.589858,1645901823.619294,11.0,0.0,4321.538574,4685.128418,4246.666504,4167.692383,4261.025879,16222.0,1.0,15.0,,,,0.0,4.0,2.0,4.0,4.0,4.0,83.333336,,,,,,,,,,,,,,,,,,,,,,,,,,,,,,,,,,,,,,,,,,,,,,,,,,,,,,,,,,,,,,,,,,,,,,,,,,,,,,,,,,,,
7139,1645901823.597673,1645901823.627109,12.0,0.0,4312.307617,4716.922852000001,4257.94873,4158.974121,4252.307617,450.0,1.0,15.0,,,,0.0,4.0,2.0,4.0,4.0,4.0,83.333336,,,,,,,,6.0,0.0,0.7172109999999999,0.12133800000000002,0.6625979999999999,0.17846700000000001,0.9160299999999999,-0.401862,-0.106447,-0.031224000000000002,-0.033529,-0.010699,,,,,,,,,,,,,,,,,,,,,,,,,,,,,,,,,,,,,,,,,,,,,,,,,,,,,,,,,,,,,,,,,
7140,1645901823.605488,1645901823.635023,13.0,0.0,4293.846191,4702.05127,4243.077147999999,4188.205078,4239.487305,450.0,1.0,15.0,,,,0.0,4.0,2.0,4.0,4.0,4.0,83.333336,,,,,,,,,,,,,,,,,,,,,,,,,,,,,,,,,,,,,,,,,,,,,,,,,,,,,,,,,,,,,,,,,,,,,,,,,,,,,,,,,,,,
7141,1645901823.613303,1645901823.642838,14.0,0.0,4293.846191,4621.538574,4260.0,4204.102539,4230.769043,450.0,1.0,15.0,,,,0.0,4.0,2.0,4.0,4.0,4.0,83.333336,,,,,,,,7.0,0.0,0.7172109999999999,0.12133800000000002,0.6625979999999999,0.17846700000000001,0.921401,-0.397955,-0.093751,-0.031275,-0.033546,-0.008848,,,,,,,,,,,,,,,,,,,,,,,,,,,,,,,,,,,0.0,0.0,1.0,0.0,128.0,0.662894,,,,,,,,,,,,,,,,,,,,,,,,,
7142,1645901823.621119,1645901823.650752,15.0,0.0,4314.358886999999,4563.589844,4236.922852000001,4189.230957,4253.846191,16222.0,1.0,15.0,,,,0.0,4.0,2.0,4.0,4.0,4.0,83.333336,,,,,,,,,,,,,,,,,,,,,,,,,,,,,,,,,,,,,,,,,,,,,,,,,,,,,,,,,,,,,,,,,,,,,,,,,,,,,,,,,,,,
7143,1645901823.628934,1645901823.658567,16.0,0.0,4311.282227000001,4559.487305,4215.897461,4190.769043,4258.461426,0.0,1.0,15.0,,,,0.0,4.0,2.0,4.0,4.0,4.0,83.333336,,,,,,,,8.0,0.0,0.717436,0.12133800000000002,0.662354,0.17846700000000001,0.932631,-0.404303,-0.098634,-0.031273,-0.03356,-0.010306999999999998,,,,,,,,,,,,,,,,,,,,,,,,,,,,,,,,,,,,,,,,,,,,,,,,,,,,,,,,,,,,,,,,,
7144,1645901823.636749,1645901823.666382,17.0,0.0,4298.461426,4590.769043,4242.05127,4228.717772999999,4249.743652,0.0,1.0,15.0,,,,0.0,4.0,2.0,4.0,4.0,4.0,83.333336,,,,,,,,,,,,,,,,,,,,,,,,,,,,,,,,,,,,,,,,,,,,,,,,,,,,,,,,,,,,,,,,,,,,,,,,,,,,,,,,,,,,
7145,1645901823.6445642,1645901823.674196,18.0,0.0,4278.461426,4647.179688,4221.025879,4224.615234000001,4244.615234000001,0.0,1.0,15.0,,,,0.0,4.0,2.0,4.0,4.0,4.0,83.333336,,,,,,,,9.0,0.0,0.717375,0.12133800000000002,0.662354,0.17871099999999998,0.895033,-0.39453699999999997,-0.09033300000000001,-0.031319,-0.033622000000000006,-0.011669,,,,,,,,,,,,,,,,,,,,,,,,,,,,,,,,,,,0.0,0.0,1.0,0.0,128.0,0.662894,,,,,,,,,,,,,,,,,,,,,,,,,
7146,1645901823.6523788,1645901823.682011,19.0,0.0,4283.077147999999,4685.128418,4166.153809,4192.307617,4247.179688,0.0,1.0,15.0,,,,0.0,4.0,2.0,4.0,4.0,4.0,83.333336,,,,,,,,,,,,,,,,,,,,,,,,,,,,,,,,,,,,,,,,,,,,,,,,,,,,,,,,,,,,,,,,,,,,,,,,,,,,,,,,,,,,
7147,1645901823.6601949,1645901823.689826,20.0,0.0,4291.282227000001,4667.692383,4193.333496,4193.846191,4237.436035,0.0,1.0,15.0,,,,0.0,4.0,2.0,4.0,4.0,4.0,83.333336,,,,,,,,10.0,0.0,0.717661,0.12133800000000002,0.6621090000000001,0.17846700000000001,0.9194479999999999,-0.391119,-0.101564,-0.03141,-0.03358,-0.012748,,,,,,,,,,,,,,,,,,,,,,,,,,,,,,,,,,,,,,,,,,,,,,,,,,,,,,,,,,,,,,,,,
7148,1645901823.66801,1645901823.69764,21.0,0.0,4291.794922,4687.179688,4252.307617,4199.487305,4244.615234000001,0.0,1.0,15.0,,,,0.0,4.0,2.0,4.0,4.0,4.0,83.333336,,,,,,,,,,,,,,,,,,,,,,,,,,,,,,,,,,,,,,,,,,,,,,,,,,,,,,,,,,,,,,,,,,,,,,,,,,,,,,,,,,,,
7149,1645901823.675825,1645901823.705455,22.0,0.0,4295.897461,4711.794922,4241.025879,4168.717772999999,4263.077147999999,0.0,1.0,15.0,,,,0.0,4.0,2.0,4.0,4.0,4.0,83.333336,1.0,8.333333,1.0,0.0,0.0,3.0,3.0,11.0,0.0,0.717661,0.12133800000000002,0.6621090000000001,0.17846700000000001,0.921889,-0.401862,-0.093263,-0.031492,-0.033592000000000004,-0.010643000000000001,1.0,0.0,0.0,,,,,,,,,,,,,,,,,,,,,,,,,,,,,,,,0.0,0.0,1.0,0.0,512.0,0.948785,505.44680800000003,36.952728,6.438286,2.417957,1.3632090000000001,421.514862,188.65473899999998,73.715164,69.717781,24.260223,30.038176,34.592846,4.737028,4.43228,6.381886,8.124594,1.408741,13.050450999999999,2.4611509999999996,4.068022,198.578918,17.992248999999997,3.480897,3.079227,2.1163369999999997
7150,1645901823.68364,1645901823.713369,23.0,0.0,4310.769043,4660.512695,4264.615234000001,4152.307617,4250.256348,0.0,1.0,15.0,,,,0.0,4.0,2.0,4.0,4.0,4.0,83.333336,,,,,,,,,,,,,,,,,,,,,,,,,,,,,,,,,,,,,,,,,,,,,,,,,,,,,,,,,,,,,,,,,,,,,,,,,,,,,,,,,,,,
7151,1645901823.6914551,1645901823.721184,24.0,0.0,4313.846191,4626.666504,4253.846191,4151.794922,4224.615234000001,0.0,1.0,15.0,,,,0.0,4.0,2.0,4.0,4.0,4.0,83.333336,,,,,,,,12.0,0.0,0.717722,0.12133800000000002,0.6621090000000001,0.178223,0.9209129999999999,-0.394049,-0.102052,-0.031564999999999996,-0.033602,-0.011922,,,,,,,,,,,,,,,,,,,,,,,,,,,,,,,,,,,,,,,,,,,,,,,,,,,,,,,,,,,,,,,,,
7152,1645901823.69927,1645901823.7289991,25.0,0.0,4302.563965,4687.692383,4243.077147999999,4166.153809,4220.0,0.0,1.0,15.0,,,,0.0,4.0,2.0,4.0,4.0,4.0,83.333336,,,,,,,,,,,,,,,,,,,,,,,,,,,,,,,,,,,,,,,,,,,,,,,,,,,,,,,,,,,,,,,,,,,,,,,,,,,,,,,,,,,,
7153,1645901823.707085,1645901823.736813,26.0,0.0,4303.077147999999,4691.282227000001,4245.128418,4175.384765999999,4244.102539,0.0,1.0,15.0,,,,0.0,4.0,2.0,4.0,4.0,4.0,83.333336,,,,,,,,13.0,0.0,0.717763,0.12109400000000001,0.6621090000000001,0.178223,0.921401,-0.392096,-0.101076,-0.031632,-0.033562,-0.013025,,,,,,,,,,,,,,,,,,,,,,,,,,,,,,,,,,,0.0,0.0,1.0,0.0,512.0,0.948785,,,,,,,,,,,,,,,,,,,,,,,,,
7154,1645901823.714901,1645901823.744628,27.0,0.0,4300.512695,4586.666504,4269.743652,4168.205078,4270.256348,0.0,1.0,15.0,,,,0.0,4.0,2.0,4.0,4.0,4.0,83.333336,,,,,,,,,,,,,,,,,,,,,,,,,,,,,,,,,,,,,,,,,,,,,,,,,,,,,,,,,,,,,,,,,,,,,,,,,,,,,,,,,,,,
7155,1645901823.722716,1645901823.752443,28.0,0.0,4323.589844,4599.487305,4241.025879,4168.205078,4287.179688,0.0,1.0,15.0,,,,0.0,4.0,2.0,4.0,4.0,4.0,83.333336,,,,,,,,14.0,0.0,0.717722,0.12133800000000002,0.6621090000000001,0.178223,0.925307,-0.39453699999999997,-0.091798,-0.031642,-0.033477,-0.014066,,,,,,,,,,,,,,,,,,,,,,,,,,,,,,,,,,,,,,,,,,,,,,,,,,,,,,,,,,,,,,,,,
7156,1645901823.730531,1645901823.760257,29.0,0.0,4345.128418,4698.974121,4244.615234000001,4169.230957,4280.0,0.0,1.0,15.0,,,,0.0,4.0,2.0,4.0,4.0,4.0,83.333336,,,,,,,,,,,,,,,,,,,,,,,,,,,,,,,,,,,,,,,,,,,,,,,,,,,,,,,,,,,,,,,,,,,,,,,,,,,,,,,,,,,,
7157,1645901823.738346,1645901823.7680721,30.0,0.0,4342.563965,4675.897461,4245.641113000001,4172.820313,4278.461426,0.0,1.0,15.0,,,,0.0,4.0,2.0,4.0,4.0,4.0,83.333336,,,,,,,,15.0,0.0,0.7178869999999999,0.12133800000000002,0.6618649999999999,0.17846700000000001,0.9209129999999999,-0.408209,-0.09668099999999999,-0.031652,-0.033499,-0.011927,,,,,,,,,,,,,,,,,,,,,,,,,,,,,,,,,,,0.0,0.0,1.0,0.0,512.0,0.948785,,,,,,,,,,,,,,,,,,,,,,,,,
7158,1645901823.746161,1645901823.775887,31.0,0.0,4317.436035,4657.436035,4232.820313,4170.256348,4265.128418,0.0,1.0,15.0,,,,0.0,4.0,2.0,4.0,4.0,4.0,83.333336,,,,,,,,,,,,,,,,,,,,,,,,,,,,,,,,,,,,,,,,,,,,,,,,,,,,,,,,,,,,,,,,,,,,,,,,,,,,,,,,,,,,
7159,1645901823.7539759,1645901823.783801,32.0,0.0,4308.205078,4724.102539,4206.666504,4182.05127,4242.05127,0.0,1.0,15.0,,,,0.0,4.0,2.0,4.0,4.0,4.0,83.333336,,,,,,,,16.0,0.0,0.7178869999999999,0.12133800000000002,0.6618649999999999,0.17846700000000001,0.917494,-0.416022,-0.091798,-0.031708999999999994,-0.033323,-0.013127000000000002,,,,,,,,,,,,,,,,,,,,,,,,,,,,,,,,,,,,,,,,,,,,,,,,,,,,,,,,,,,,,,,,,
7160,1645901823.761792,1645901823.791616,33.0,0.0,4304.615234000001,4642.05127,4166.153809,4210.256348,4236.922852000001,0.0,1.0,15.0,,,,0.0,4.0,2.0,4.0,4.0,4.0,83.333336,,,,,,,,,,,,,,,,,,,,,,,,,,,,,,,,,,,,,,,,,,,,,,,,,,,,,,,,,,,,,,,,,,,,,,,,,,,,,,,,,,,,
7161,1645901823.769607,1645901823.7994301,34.0,0.0,4311.282227000001,4562.05127,4160.512695,4248.717772999999,4258.974121,0.0,1.0,15.0,,,,0.0,4.0,2.0,4.0,4.0,4.0,83.333336,,,,,,,,17.0,0.0,0.7178869999999999,0.12133800000000002,0.6618649999999999,0.17846700000000001,0.916518,-0.400397,-0.09765800000000001,-0.031712,-0.033262,-0.014158,,,,,,,,,,,,,,,,,,,,,,,,,,,,,,,,,,,0.0,0.0,1.0,0.0,512.0,0.948785,,,,,,,,,,,,,,,,,,,,,,,,,
7162,1645901823.777422,1645901823.807245,35.0,0.0,4312.820313,4757.94873,4204.615234000001,4229.743652,4251.282227000001,0.0,1.0,15.0,,,,0.0,4.0,2.0,4.0,4.0,4.0,83.333336,,,,,,,,,,,,,,,,,,,,,,,,,,,,,,,,,,,,,,,,,,,,,,,,,,,,,,,,,,,,,,,,,,,,,,,,,,,,,,,,,,,,
7163,1645901823.7852368,1645901823.81506,36.0,0.0,4309.230957,4840.512695,4211.282227000001,4197.94873,4255.384765999999,0.0,1.0,15.0,,,,0.0,4.0,2.0,4.0,4.0,4.0,83.333336,,,,,,,,18.0,0.0,0.717947,0.12133800000000002,0.6618649999999999,0.178223,0.9091940000000001,-0.404303,-0.09472799999999999,-0.031666,-0.033354,-0.014988999999999999,,,,,,,,,,,,,,,,,,,,,,,,,,,,,,,,,,,,,,,,,,,,,,,,,,,,,,,,,,,,,,,,,
7164,1645901823.793052,1645901823.822874,37.0,0.0,4312.820313,4578.461426,4188.717772999999,4211.794922,4266.666504,0.0,1.0,15.0,,,,0.0,4.0,2.0,4.0,4.0,4.0,83.333336,,,,,,,,,,,,,,,,,,,,,,,,,,,,,,,,,,,,,,,,,,,,,,,,,,,,,,,,,,,,,,,,,,,,,,,,,,,,,,,,,,,,
7165,1645901823.800867,1645901823.830689,38.0,0.0,4327.179688,4451.794922,4241.538574,4215.897461,4245.128418,0.0,1.0,15.0,,,,0.0,4.0,2.0,4.0,4.0,4.0,83.333336,,,,,,,,19.0,0.0,0.717947,0.12133800000000002,0.6618649999999999,0.178223,0.917494,-0.407233,-0.09472799999999999,-0.031722,-0.033339,-0.012806,1.0,0.0,0.0,,,,,,,,,,,,,,,,,,,,,,,,,,,,,,,,0.0,0.0,1.0,0.0,512.0,1.0,326.30514500000004,23.748926,4.697528,1.950445,1.122934,424.40783700000003,191.659882,84.10341600000001,67.541801,23.794104,26.600009999999997,31.429968,4.410757,4.307091000000001,5.575171,7.688746000000001,1.328741,13.150167000000001,2.350609,3.5030040000000002,127.00913200000001,11.861350999999999,3.615325,3.139733,2.0404619999999998
7166,1645901823.808683,1645901823.8385038,39.0,0.0,4320.0,4529.230957,4240.512695,4198.461426,4234.358886999999,0.0,1.0,15.0,,,,0.0,4.0,2.0,4.0,4.0,4.0,83.333336,,,,,,,,,,,,,,,,,,,,,,,,,,,,,,,,,,,,,,,,,,,,,,,,,,,,,,,,,,,,,,,,,,,,,,,,,,,,,,,,,,,,
7167,1645901823.816498,1645901823.846318,40.0,0.0,4305.128418,4565.128418,4236.410156,4219.487305,4264.615234000001,0.0,1.0,15.0,,,,0.0,4.0,2.0,4.0,4.0,4.0,83.333336,,,,,,,,20.0,0.0,0.718172,0.12133800000000002,0.661621,0.178223,0.917006,-0.40576799999999996,-0.101564,-0.031724,-0.033472,-0.010793,,,,,,,,,,,,,,,,,,,,,,,,,,,,,,,,,,,,,,,,,,,,,,,,,,,,,,,,,,,,,,,,,
7168,1645901823.8243132,1645901823.854133,41.0,0.0,4310.256348,4581.538574,4250.256348,4233.846191,4283.077147999999,0.0,1.0,15.0,,,,0.0,4.0,2.0,4.0,4.0,4.0,83.333336,,,,,,,,,,,,,,,,,,,,,,,,,,,,,,,,,,,,,,,,,,,,,,,,,,,,,,,,,,,,,,,,,,,,,,,,,,,,,,,,,,,,
7169,1645901823.832128,1645901823.862047,42.0,0.0,4309.230957,4576.410156,4252.820313,4211.282227000001,4270.769043,0.0,1.0,15.0,,,,0.0,4.0,2.0,4.0,4.0,4.0,83.333336,,,,,,,,21.0,0.0,0.717947,0.12133800000000002,0.6618649999999999,0.178223,0.9091940000000001,-0.404303,-0.09472799999999999,-0.031677,-0.033543,-0.008933,,,,,,,,,,,,,,,,,,,,,,,,,,,,,,,,,,,0.0,0.0,1.0,0.0,512.0,1.0,,,,,,,,,,,,,,,,,,,,,,,,,
7170,1645901823.839943,1645901823.8698618,43.0,0.0,4313.333496,4545.641113000001,4225.641113000001,4202.563965,4267.179688,0.0,1.0,15.0,,,,0.0,4.0,2.0,4.0,4.0,4.0,83.333336,,,,,,,,,,,,,,,,,,,,,,,,,,,,,,,,,,,,,,,,,,,,,,,,,,,,,,,,,,,,,,,,,,,,,,,,,,,,,,,,,,,,
7171,1645901823.847758,1645901823.877677,44.0,0.0,4323.077147999999,4576.922852000001,4268.717772999999,4203.077147999999,4252.820313,0.0,1.0,15.0,,,,0.0,4.0,2.0,4.0,4.0,4.0,83.333336,,,,,,,,22.0,0.0,0.718172,0.12133800000000002,0.661621,0.178223,0.917006,-0.40576799999999996,-0.101564,-0.031682999999999996,-0.033655000000000004,-0.007306999999999999,,,,,,,,,,,,,,,,,,,,,,,,,,,,,,,,,,,,,,,,,,,,,,,,,,,,,,,,,,,,,,,,,
7172,1645901823.8555741,1645901823.8854911,45.0,0.0,4337.94873,4624.102539,4260.0,4193.846191,4262.563965,0.0,1.0,15.0,,,,0.0,4.0,2.0,4.0,4.0,4.0,83.333336,,,,,,,,,,,,,,,,,,,,,,,,,,,,,,,,,,,,,,,,,,,,,,,,,,,,,,,,,,,,,,,,,,,,,,,,,,,,,,,,,,,,
7173,1645901823.863389,1645901823.893306,46.0,0.0,4341.025879,4654.358886999999,4225.128418,4207.179688,4287.692383,0.0,1.0,15.0,,,,0.0,4.0,2.0,4.0,4.0,4.0,83.333336,,,,,,,,23.0,0.0,0.718172,0.12133800000000002,0.661621,0.178223,0.921889,-0.403326,-0.106447,-0.031639999999999995,-0.033708,-0.005795000000000001,,,,,,,,,,,,,,,,,,,,,,,,,,,,,,,,,,,0.0,0.0,1.0,0.0,512.0,1.0,,,,,,,,,,,,,,,,,,,,,,,,,
7174,1645901823.871204,1645901823.9011211,47.0,0.0,4360.0,4703.589844,4209.230957,4231.282227000001,4298.461426,0.0,1.0,15.0,,,,0.0,4.0,2.0,4.0,4.0,4.0,83.333336,,,,,,,,,,,,,,,,,,,,,,,,,,,,,,,,,,,,,,,,,,,,,,,,,,,,,,,,,,,,,,,,,,,,,,,,,,,,,,,,,,,,
7175,1645901823.879019,1645901823.908935,48.0,0.0,4359.487305,4650.256348,4190.256348,4210.769043,4285.128418,0.0,1.0,15.0,,,,0.0,4.0,2.0,4.0,4.0,4.0,83.333336,,,,,,,,24.0,0.0,0.718233,0.12133800000000002,0.661621,0.177979,0.9248190000000001,-0.39697899999999997,-0.11621300000000001,-0.031747000000000004,-0.033706,-0.007657,,,,,,,,,,,,,,,,,,,,,,,,,,,,,,,,,,,,,,,,,,,,,,,,,,,,,,,,,,,,,,,,,
