,Timestamp,EEG.Counter,EEG.Interpolated,EEG.AF3,EEG.T7,EEG.Pz,EEG.T8,EEG.AF4,EEG.RawCq,EEG.Battery,EEG.BatteryPercent,MarkerIndex,MarkerType,MarkerValueInt,EEG.MarkerHardware,CQ.AF3,CQ.T7,CQ.Pz,CQ.T8,CQ.AF4,CQ.Overall,EQ.SampleRateQuality,EQ.OVERALL,EQ.AF3,EQ.T7,EQ.Pz,EQ.T8,EQ.AF4,MOT.CounterMems,MOT.InterpolatedMems,MOT.Q0,MOT.Q1,MOT.Q2,MOT.Q3,MOT.AccX,MOT.AccY,MOT.AccZ,MOT.MagX,MOT.MagY,MOT.MagZ,MC.Action,MC.ActionPower,MC.IsActive,PM.Engagement.IsActive,PM.Engagement.Scaled,PM.Engagement.Raw,PM.Engagement.Min,PM.Engagement.Max,PM.Excitement.IsActive,PM.Excitement.Scaled,PM.Excitement.Raw,PM.Excitement.Min,PM.Excitement.Max,PM.LongTermExcitement,PM.Stress.IsActive,PM.Stress.Scaled,PM.Stress.Raw,PM.Stress.Min,PM.Stress.Max,PM.Relaxation.IsActive,PM.Relaxation.Scaled,PM.Relaxation.Raw,PM.Relaxation.Min,PM.Relaxation.Max,PM.Interest.IsActive,PM.Interest.Scaled,PM.Interest.Raw,PM.Interest.Min,PM.Interest.Max,PM.Focus.IsActive,PM.Focus.Scaled,PM.Focus.Raw,PM.Focus.Min,PM.Focus.Max,FE.BlinkWink,FE.HorizontalEyesDirection,FE.UpperFaceAction,FE.UpperFaceActionPower,FE.LowerFaceAction,FE.LowerFaceActionPower,POW.AF3.Theta,POW.AF3.Alpha,POW.AF3.BetaL,POW.AF3.BetaH,POW.AF3.Gamma,POW.T7.Theta,POW.T7.Alpha,POW.T7.BetaL,POW.T7.BetaH,POW.T7.Gamma,POW.Pz.Theta,POW.Pz.Alpha,POW.Pz.BetaL,POW.Pz.BetaH,POW.Pz.Gamma,POW.T8.Theta,POW.T8.Alpha,POW.T8.BetaL,POW.T8.BetaH,POW.T8.Gamma,POW.AF4.Theta,POW.AF4.Alpha,POW.AF4.BetaL,POW.AF4.BetaH,POW.AF4.Gamma
14804,1645582761.848956,12.0,0.0,4403.077147999999,4498.461426,4243.589844,4353.846191,4323.589844,450.0,4.0,95.0,,,,0.0,4.0,2.0,4.0,4.0,4.0,83.333336,,,,,,,,6.0,0.0,0.46518999999999994,-0.283447,0.5827640000000001,0.6030270000000001,0.8833139999999999,-0.431159,-0.153811,-0.033717000000000004,-0.037469,-0.032931,,,,,,,,,,,,,,,,,,,,,,,,,,,,,,,,,,,,,,,,,,,,,,,,,,,,,,,,,,,,,,,,,
14805,1645582761.8568711,13.0,0.0,4368.717772999999,4428.717772999999,4190.256348,4323.589844,4328.717772999999,450.0,4.0,95.0,,,,0.0,4.0,2.0,4.0,4.0,4.0,83.333336,,,,,,,,,,,,,,,,,,,,,,,,,,,,,,,,,,,,,,,,,,,,,,,,,,,,,,,,,,,,,,,,,,,,,,,,,,,,,,,,,,,,
14806,1645582761.864687,14.0,0.0,4374.871582,4321.025879,4190.256348,4306.153809,4312.820313,450.0,4.0,95.0,,,,0.0,4.0,2.0,4.0,4.0,4.0,83.333336,,,,,,,,7.0,0.0,0.46550699999999995,-0.283447,0.5827640000000001,0.602783,0.8960100000000001,-0.436042,-0.160159,-0.033665,-0.037482,-0.034716000000000004,,,,,,,,,,,,,,,,,,,,,,,,,,,,,,,,,,,,,,,,,,,,,,,,,,,,,,,,,,,,,,,,,
14807,1645582761.8725019,15.0,0.0,4405.641113000001,4343.077147999999,4216.410156,4321.538574,4316.410156,16233.0,4.0,95.0,,,,0.0,4.0,2.0,4.0,4.0,4.0,83.333336,,,,,,,,,,,,,,,,,,,,1.0,0.0,0.0,,,,,,,,,,,,,,,,,,,,,,,,,,,,,,,,0.0,0.0,1.0,0.0,512.0,0.9775940000000001,72.743629,83.632164,96.64795699999999,64.897842,8.503451,353.114227,330.48584,371.24560499999995,243.025848,91.087181,120.697227,210.35835299999997,161.158508,73.141548,7.936355000000001,74.68602800000001,65.62084200000001,99.384445,46.809235,6.605575,20.744873000000002,57.127613000000004,67.21646899999999,51.948246000000005,13.229795000000001
14808,1645582761.880317,16.0,0.0,4407.692383,4420.0,4211.794922,4318.461426,4342.563965,0.0,4.0,95.0,,,,0.0,4.0,2.0,4.0,4.0,4.0,83.333336,,,,,,,,8.0,0.0,0.465488,-0.282959,0.5827640000000001,0.6030270000000001,0.8833139999999999,-0.45606199999999997,-0.159182,-0.033619,-0.037445,-0.036322,,,,,,,,,,,,,,,,,,,,,,,,,,,,,,,,,,,,,,,,,,,,,,,,,,,,,,,,,,,,,,,,,
14809,1645582761.888133,17.0,0.0,4400.0,4342.563965,4223.077147999999,4309.230957,4350.769043,0.0,4.0,95.0,,,,0.0,4.0,2.0,4.0,4.0,4.0,83.333336,,,,,,,,,,,,,,,,,,,,,,,,,,,,,,,,,,,,,,,,,,,,,,,,,,,,,,,,,,,,,,,,,,,,,,,,,,,,,,,,,,,,
14810,1645582761.895948,18.0,0.0,4392.820313,4391.282227000001,4271.794922,4305.641113000001,4333.846191,0.0,4.0,95.0,,,,0.0,4.0,2.0,4.0,4.0,4.0,83.333336,,,,,,,,9.0,0.0,0.465488,-0.282959,0.5827640000000001,0.6030270000000001,0.890639,-0.44238999999999995,-0.160647,-0.033675,-0.037411,-0.031616000000000005,,,,,,,,,,,,,,,,,,,,,,,,,,,,,,,,,,,,,,,,,,,,,,,,,,,,,,,,,,,,,,,,,
14811,1645582761.903763,19.0,0.0,4381.538574,4711.282227000001,4251.794922,4299.487305,4313.333496,0.0,4.0,95.0,,,,0.0,4.0,2.0,4.0,4.0,4.0,83.333336,,,,,,,,,,,,,,,,,,,,,,,,,,,,,,,,,,,,,,,,,,,,,,,,,,,,,,0.0,0.0,1.0,0.0,512.0,0.9775940000000001,,,,,,,,,,,,,,,,,,,,,,,,,
14812,1645582761.911579,20.0,0.0,4396.922852000001,4791.282227000001,4140.0,4303.589844,4334.871582,0.0,4.0,95.0,,,,0.0,4.0,2.0,4.0,4.0,4.0,83.333336,,,,,,,,10.0,0.0,0.465646,-0.282715,0.583008,0.602783,0.8808729999999999,-0.445808,-0.166995,-0.033775,-0.037527,-0.02738,,,,,,,,,,,,,,,,,,,,,,,,,,,,,,,,,,,,,,,,,,,,,,,,,,,,,,,,,,,,,,,,,
14813,1645582761.919394,21.0,0.0,4411.282227000001,4528.717772999999,4057.9487299999996,4318.974121,4384.615234000001,0.0,4.0,95.0,,,,0.0,4.0,2.0,4.0,4.0,4.0,83.333336,,,,,,,,,,,,,,,,,,,,,,,,,,,,,,,,,,,,,,,,,,,,,,,,,,,,,,,,,,,,,,,,,,,,,,,,,,,,,,,,,,,,
14814,1645582761.92731,22.0,0.0,4365.128418,4373.333496,4067.179443,4332.820313,4405.128418,0.0,4.0,95.0,,,,0.0,4.0,2.0,4.0,4.0,4.0,83.333336,,,,,,,,11.0,0.0,0.465646,-0.282715,0.583008,0.602783,0.8916149999999999,-0.43457700000000005,-0.174807,-0.033815,-0.037486,-0.02972,,,,,,,,,,,,,,,,,,,,,,,,,,,,,,,,,,,,,,,,,,,,,,,,,,,,,,,,,,,,,,,,,
14815,1645582761.935125,23.0,0.0,4274.871582,4361.538574,4097.94873,4338.974121,4435.384765999999,0.0,4.0,95.0,,,,0.0,4.0,2.0,4.0,4.0,4.0,83.333336,,,,,,,,,,,,,,,,,,,,,,,,,,,,,,,,,,,,,,,,,,,,,,,,,,,,,,0.0,0.0,1.0,0.0,512.0,0.9775940000000001,,,,,,,,,,,,,,,,,,,,,,,,,
14816,1645582761.943041,24.0,0.0,4213.846191,4332.307617,4141.025879,4375.897461,4440.512695,0.0,4.0,95.0,,,,0.0,4.0,2.0,4.0,4.0,4.0,83.333336,,,,,,,,12.0,0.0,0.465646,-0.282715,0.583008,0.602783,0.894057,-0.43018199999999995,-0.158694,-0.033852,-0.037497,-0.031924,,,,,,,,,,,,,,,,,,,,,,,,,,,,,,,,,,,,,,,,,,,,,,,,,,,,,,,,,,,,,,,,,
14817,1645582761.950856,25.0,0.0,4236.410156,4376.410156,4226.666504,4452.820313,4342.563965,0.0,4.0,95.0,,,,0.0,4.0,2.0,4.0,4.0,4.0,83.333336,,,,,,,,,,,,,,,,,,,,,,,,,,,,,,,,,,,,,,,,,,,,,,,,,,,,,,,,,,,,,,,,,,,,,,,,,,,,,,,,,,,,
14818,1645582761.9587722,26.0,0.0,4288.205078,4406.666504,4298.461426,4500.0,4255.384765999999,0.0,4.0,95.0,,,,0.0,4.0,2.0,4.0,4.0,4.0,83.333336,,,,,,,,13.0,0.0,0.465646,-0.282715,0.583008,0.602783,0.901381,-0.446296,-0.165042,-0.033884,-0.037556,-0.033859,,,,,,,,,,,,,,,,,,,,,,,,,,,,,,,,,,,,,,,,,,,,,,,,,,,,,,,,,,,,,,,,,
14819,1645582761.9665868,27.0,0.0,4296.410156,4284.102539,4320.512695,4477.94873,4256.410156,0.0,4.0,95.0,,,,0.0,4.0,2.0,4.0,4.0,4.0,83.333336,,,,,,,,,,,,,,,,,,,,,,,,,,,,,,,,,,,,,,,,,,,,,,,,,,,,,,0.0,0.0,1.0,0.0,512.0,0.9775940000000001,,,,,,,,,,,,,,,,,,,,,,,,,
14820,1645582761.974403,28.0,0.0,4308.205078,4288.205078,4321.538574,4416.922852000001,4253.846191,0.0,4.0,95.0,,,,0.0,4.0,2.0,4.0,4.0,4.0,83.333336,,,,,,,,14.0,0.0,0.465962,-0.282715,0.583008,0.602539,0.8960100000000001,-0.42920600000000003,-0.16211199999999998,-0.033963,-0.03756,-0.029301,,,,,,,,,,,,,,,,,,,,,,,,,,,,,,,,,,,,,,,,,,,,,,,,,,,,,,,,,,,,,,,,,
14821,1645582761.982219,29.0,0.0,4370.769043,4464.615234000001,4309.230957,4354.871582,4248.205078,0.0,4.0,95.0,,,,0.0,4.0,2.0,4.0,4.0,4.0,83.333336,,,,,,,,,,,,,,,,,,,,,,,,,,,,,,,,,,,,,,,,,,,,,,,,,,,,,,,,,,,,,,,,,,,,,,,,,,,,,,,,,,,,
14822,1645582761.990034,30.0,0.0,4405.641113000001,4514.358886999999,4292.820313,4329.230957,4304.102539,0.0,4.0,95.0,,,,0.0,4.0,2.0,4.0,4.0,4.0,83.333336,,,,,,,,15.0,0.0,0.465814,-0.282959,0.583008,0.602539,0.887709,-0.425788,-0.165042,-0.033985,-0.037613,-0.031498000000000005,,,,,,,,,,,,,,,,,,,,,,,,,,,,,,,,,,,,,,,,,,,,,,,,,,,,,,,,,,,,,,,,,
14823,1645582761.99785,31.0,0.0,4399.487305,4541.025879,4252.307617,4324.615234000001,4357.436035,0.0,4.0,95.0,,,,0.0,4.0,2.0,4.0,4.0,4.0,83.333336,,,,,,,,,,,,,,,,,,,,1.0,0.0,0.0,,,,,,,,,,,,,,,,,,,,,,,,,,,,,,,,0.0,0.0,1.0,0.0,512.0,1.0,69.972229,95.573502,86.314758,44.570640999999995,6.319299,318.568268,308.816315,305.735199,183.437576,89.870743,127.97766899999999,254.533417,164.42009,48.250031,5.716867,81.377121,81.488495,92.02035500000001,30.340466999999997,5.472021,20.194779999999998,68.532944,65.506348,41.494015000000005,10.797585
14824,1645582762.005665,32.0,0.0,4412.307617,4682.05127,4143.077147999999,4285.128418,4362.05127,0.0,4.0,95.0,,,,0.0,4.0,2.0,4.0,4.0,4.0,83.333336,,,,,,,,16.0,0.0,0.465814,-0.282959,0.583008,0.602539,0.8886850000000001,-0.43994799999999995,-0.16846,-0.034053,-0.037465,-0.033524,,,,,,,,,,,,,,,,,,,,,,,,,,,,,,,,,,,,,,,,,,,,,,,,,,,,,,,,,,,,,,,,,
14825,1645582762.013581,33.0,0.0,4381.025879,4718.461426,4064.102539,4274.871582,4381.025879,0.0,4.0,95.0,,,,0.0,4.0,2.0,4.0,4.0,4.0,83.333336,,,,,,,,,,,,,,,,,,,,,,,,,,,,,,,,,,,,,,,,,,,,,,,,,,,,,,,,,,,,,,,,,,,,,,,,,,,,,,,,,,,,
14826,1645582762.0213962,34.0,0.0,4287.692383,4579.487305,4125.641113000001,4372.820313,4433.846191,0.0,4.0,95.0,,,,0.0,4.0,2.0,4.0,4.0,4.0,83.333336,,,,,,,,17.0,0.0,0.46566599999999997,-0.28320300000000004,0.583008,0.602539,0.891127,-0.442878,-0.15967,-0.034115,-0.037429000000000004,-0.035347,,,,,,,,,,,,,,,,,,,,,,,,,,,,,,,,,,,,,,,,,,,,,,,,,,,,,,,,,,,,,,,,,
14827,1645582762.029212,35.0,0.0,4248.205078,4446.153809,4223.589844,4472.820313,4417.94873,0.0,4.0,95.0,,,,0.0,4.0,2.0,4.0,4.0,4.0,83.333336,,,,,,,,,,,,,,,,,,,,,,,,,,,,,,,,,,,,,,,,,,,,,,,,,,,,,,0.0,0.0,1.0,0.0,512.0,1.0,,,,,,,,,,,,,,,,,,,,,,,,,
14828,1645582762.0370278,36.0,0.0,4276.922852000001,4376.922852000001,4252.307617,4477.436035,4287.179688,0.0,4.0,95.0,,,,0.0,4.0,2.0,4.0,4.0,4.0,83.333336,,,,,,,,18.0,0.0,0.465517,-0.283447,0.583008,0.602539,0.906752,-0.43946,-0.166995,-0.034072000000000005,-0.037397,-0.030641,,,,,,,,,,,,,,,,,,,,,,,,,,,,,,,,,,,,,,,,,,,,,,,,,,,,,,,,,,,,,,,,,
14829,1645582762.044843,37.0,0.0,4298.461426,4312.307617,4266.153809,4455.897461,4211.794922,0.0,4.0,95.0,,,,0.0,4.0,2.0,4.0,4.0,4.0,83.333336,,,,,,,,,,,,,,,,,,,,,,,,,,,,,,,,,,,,,,,,,,,,,,,,,,,,,,,,,,,,,,,,,,,,,,,,,,,,,,,,,,,,
14830,1645582762.052659,38.0,0.0,4308.205078,4277.94873,4291.794922,4482.563965,4268.717772999999,0.0,4.0,95.0,,,,0.0,4.0,2.0,4.0,4.0,4.0,83.333336,,,,,,,,19.0,0.0,0.465062,-0.28369099999999997,0.583252,0.602539,0.895033,-0.423346,-0.14551,-0.034132,-0.037417,-0.032655,,,,,,,,,,,,,,,,,,,,,,,,,,,,,,,,,,,,,,,,,,,,,,,,,,,,,,,,,,,,,,,,,
14831,1645582762.060474,39.0,0.0,4334.358886999999,4287.692383,4323.077147999999,4504.102539,4294.871582,0.0,4.0,95.0,,,,0.0,4.0,2.0,4.0,4.0,4.0,83.333336,,,,,,,,,,,,,,,,,,,,,,,,,,,,,,,,,,,,,,,,,,,,,,,,,,,,,,0.0,0.0,1.0,0.0,512.0,1.0,,,,,,,,,,,,,,,,,,,,,,,,,
14832,1645582762.06829,40.0,0.0,4345.128418,4338.461426,4338.461426,4448.717772999999,4253.846191,0.0,4.0,95.0,,,,0.0,4.0,2.0,4.0,4.0,4.0,83.333336,,,,,,,,20.0,0.0,0.465062,-0.28369099999999997,0.583252,0.602539,0.8921030000000001,-0.447272,-0.152346,-0.034137,-0.037387000000000004,-0.028266000000000003,,,,,,,,,,,,,,,,,,,,,,,,,,,,,,,,,,,,,,,,,,,,,,,,,,,,,,,,,,,,,,,,,
14833,1645582762.076106,41.0,0.0,4327.692383,4353.333496,4328.717772999999,4369.230957,4254.358886999999,0.0,4.0,95.0,,,,0.0,4.0,2.0,4.0,4.0,4.0,83.333336,,,,,,,,,,,,,,,,,,,,,,,,,,,,,,,,,,,,,,,,,,,,,,,,,,,,,,,,,,,,,,,,,,,,,,,,,,,,,,,,,,,,
14834,1645582762.0839212,42.0,0.0,4342.563965,4315.897461,4335.384765999999,4357.436035,4291.794922,0.0,4.0,95.0,,,,0.0,4.0,2.0,4.0,4.0,4.0,83.333336,,,,,,,,21.0,0.0,0.46459700000000004,-0.283936,0.583252,0.602783,0.8989389999999999,-0.44385399999999997,-0.138674,-0.034141000000000005,-0.037506,-0.030518,,,,,,,,,,,,,,,,,,,,,,,,,,,,,,,,,,,,,,,,,,,,,,,,,,,,,,,,,,,,,,,,,
14835,1645582762.091837,43.0,0.0,4411.282227000001,4369.230957,4313.333496,4368.205078,4338.974121,0.0,4.0,95.0,,,,0.0,4.0,2.0,4.0,4.0,4.0,83.333336,,,,,,,,,,,,,,,,,,,,,,,,,,,,,,,,,,,,,,,,,,,,,,,,,,,,,,0.0,0.0,1.0,0.0,512.0,1.0,,,,,,,,,,,,,,,,,,,,,,,,,
14836,1645582762.099652,44.0,0.0,4430.256348,4526.666504,4233.846191,4327.692383,4369.230957,0.0,4.0,95.0,,,,0.0,4.0,2.0,4.0,4.0,4.0,83.333336,,,,,,,,22.0,0.0,0.46459700000000004,-0.283936,0.583252,0.602783,0.8960100000000001,-0.45948,-0.142092,-0.034047,-0.037564,-0.026441000000000003,,,,,,,,,,,,,,,,,,,,,,,,,,,,,,,,,,,,,,,,,,,,,,,,,,,,,,,,,,,,,,,,,
14837,1645582762.107467,45.0,0.0,4374.358886999999,4577.94873,4201.025879,4286.666504,4329.743652,0.0,4.0,95.0,,,,0.0,4.0,2.0,4.0,4.0,4.0,83.333336,,,,,,,,,,,,,,,,,,,,,,,,,,,,,,,,,,,,,,,,,,,,,,,,,,,,,,,,,,,,,,,,,,,,,,,,,,,,,,,,,,,,
14838,1645582762.115283,46.0,0.0,4369.743652,4489.230957,4244.615234000001,4291.794922,4295.897461,0.0,4.0,95.0,,,,0.0,4.0,2.0,4.0,4.0,4.0,83.333336,,,,,,,,23.0,0.0,0.46490299999999996,-0.283936,0.583008,0.602783,0.891127,-0.44971400000000006,-0.15332300000000001,-0.034061,-0.037469,-0.022674,,,,,,,,,,,,,,,,,,,,,,,,,,,,,,,,,,,,,,,,,,,,,,,,,,,,,,,,,,,,,,,,,
14839,1645582762.1230981,47.0,0.0,4411.282227000001,4550.769043,4236.922852000001,4305.128418,4340.512695,0.0,4.0,95.0,,,,0.0,4.0,2.0,4.0,4.0,4.0,83.333336,1.0,8.333333,1.0,0.0,0.0,1.0,1.0,,,,,,,,,,,,,1.0,0.0,0.0,,,,,,,,,,,,,,,,,,,,,,,,,,,,,,,,0.0,0.0,1.0,0.0,512.0,1.0,64.167778,109.203926,73.80160500000001,29.382498,5.326744000000001,272.772217,295.979248,252.754044,136.416077,90.36592900000001,122.877571,294.683807,166.188522,29.606215999999996,5.047664,80.175087,101.226028,85.022186,17.843639000000003,5.004967,18.825283,81.863564,63.128361,33.694839,9.058686999999999
14840,1645582762.130913,48.0,0.0,4430.769043,4662.563965,4162.05127,4294.358886999999,4393.846191,0.0,4.0,95.0,,,,0.0,4.0,2.0,4.0,4.0,4.0,83.333336,,,,,,,,24.0,0.0,0.465052,-0.28369099999999997,0.583008,0.602783,0.8842909999999999,-0.44483100000000003,-0.157229,-0.034024,-0.037433,-0.025533,,,,,,,,,,,,,,,,,,,,,,,,,,,,,,,,,,,,,,,,,,,,,,,,,,,,,,,,,,,,,,,,,
14841,1645582762.1387289,49.0,0.0,4436.922852000001,4515.897461,4158.461426,4269.230957,4397.436035,0.0,4.0,95.0,,,,0.0,4.0,2.0,4.0,4.0,4.0,83.333336,,,,,,,,,,,,,,,,,,,,,,,,,,,,,,,,,,,,,,,,,,,,,,,,,,,,,,,,,,,,,,,,,,,,,,,,,,,,,,,,,,,,
14842,1645582762.146544,50.0,0.0,4422.05127,4393.846191,4207.692383,4267.179688,4385.128418,0.0,4.0,95.0,,,,0.0,4.0,2.0,4.0,4.0,4.0,83.333336,,,,,,,,25.0,0.0,0.46459700000000004,-0.283936,0.583252,0.602783,0.8960100000000001,-0.45948,-0.142092,-0.033942,-0.037499,-0.021955000000000002,,,,,,,,,,,,,,,,,,,,,,,,,,,,,,,,,,,,,,,,,,,,,,,,,,,,,,,,,,,,,,,,,
14843,1645582762.154359,51.0,0.0,4432.820313,4576.410156,4183.589844,4285.128418,4358.461426,0.0,4.0,95.0,,,,0.0,4.0,2.0,4.0,4.0,4.0,83.333336,,,,,,,,,,,,,,,,,,,,,,,,,,,,,,,,,,,,,,,,,,,,,,,,,,,,,,0.0,0.0,1.0,0.0,512.0,1.0,,,,,,,,,,,,,,,,,,,,,,,,,
14844,1645582762.162275,52.0,0.0,4437.94873,4693.846191,4102.05127,4308.717772999999,4373.846191,0.0,4.0,95.0,,,,0.0,4.0,2.0,4.0,4.0,4.0,83.333336,,,,,,,,26.0,0.0,0.465052,-0.28369099999999997,0.583008,0.602783,0.8842909999999999,-0.44483100000000003,-0.157229,-0.033917,-0.03746,-0.024886000000000002,,,,,,,,,,,,,,,,,,,,,,,,,,,,,,,,,,,,,,,,,,,,,,,,,,,,,,,,,,,,,,,,,
14845,1645582762.17009,53.0,0.0,4329.743652,4493.846191,4089.2307130000004,4352.820313,4441.538574,0.0,4.0,95.0,,,,0.0,4.0,2.0,4.0,4.0,4.0,83.333336,,,,,,,,,,,,,,,,,,,,,,,,,,,,,,,,,,,,,,,,,,,,,,,,,,,,,,,,,,,,,,,,,,,,,,,,,,,,,,,,,,,,
14846,1645582762.177906,54.0,0.0,4223.077147999999,4243.077147999999,4170.256348,4406.666504,4417.94873,0.0,4.0,95.0,,,,0.0,4.0,2.0,4.0,4.0,4.0,83.333336,,,,,,,,27.0,0.0,0.46520100000000003,-0.283447,0.583008,0.602783,0.8916149999999999,-0.441413,-0.154788,-0.033894,-0.037425,-0.027525,,,,,,,,,,,,,,,,,,,,,,,,,,,,,,,,,,,,,,,,,,,,,,,,,,,,,,,,,,,,,,,,,
14847,1645582762.185722,55.0,0.0,4243.077147999999,4135.897461,4241.025879,4453.846191,4320.512695,0.0,4.0,95.0,,,,0.0,4.0,2.0,4.0,4.0,4.0,83.333336,,,,,,,,,,,,,,,,,,,,,,,,,,,,,,,,,,,,,,,,,,,,,,,,,,,,,,0.0,0.0,1.0,0.0,512.0,1.0,,,,,,,,,,,,,,,,,,,,,,,,,
14848,1645582762.193537,56.0,0.0,4275.897461,4254.358886999999,4274.358886999999,4482.563965,4286.666504,0.0,4.0,95.0,,,,0.0,4.0,2.0,4.0,4.0,4.0,83.333336,,,,,,,,28.0,0.0,0.46520100000000003,-0.283447,0.583008,0.602783,0.886732,-0.447272,-0.14648699999999998,-0.033972,-0.037442,-0.0236,,,,,,,,,,,,,,,,,,,,,,,,,,,,,,,,,,,,,,,,,,,,,,,,,,,,,,,,,,,,,,,,,
14849,1645582762.2013528,57.0,0.0,4270.769043,4477.94873,4308.205078,4469.743652,4286.666504,0.0,4.0,95.0,,,,0.0,4.0,2.0,4.0,4.0,4.0,83.333336,,,,,,,,,,,,,,,,,,,,,,,,,,,,,,,,,,,,,,,,,,,,,,,,,,,,,,,,,,,,,,,,,,,,,,,,,,,,,,,,,,,,
14850,1645582762.209168,58.0,0.0,4324.102539,4594.358886999999,4347.179688,4453.846191,4265.128418,0.0,4.0,95.0,,,,0.0,4.0,2.0,4.0,4.0,4.0,83.333336,,,,,,,,29.0,0.0,0.46535,-0.28320300000000004,0.583008,0.602783,0.892592,-0.451179,-0.153811,-0.033993,-0.037507,-0.026318,,,,,,,,,,,,,,,,,,,,,,,,,,,,,,,,,,,,,,,,,,,,,,,,,,,,,,,,,,,,,,,,,
14851,1645582762.216984,59.0,0.0,4373.333496,4669.230957,4347.692383,4427.179688,4267.179688,0.0,4.0,95.0,,,,0.0,4.0,2.0,4.0,4.0,4.0,83.333336,,,,,,,,,,,,,,,,,,,,,,,,,,,,,,,,,,,,,,,,,,,,,,,,,,,,,,0.0,0.0,1.0,0.0,512.0,1.0,,,,,,,,,,,,,,,,,,,,,,,,,
14852,1645582762.2248,60.0,0.0,4366.153809,4824.615234000001,4293.333496,4324.102539,4286.153809,0.0,4.0,95.0,,,,0.0,4.0,2.0,4.0,4.0,4.0,83.333336,,,,,,,,30.0,0.0,0.46535,-0.28320300000000004,0.583008,0.602783,0.882826,-0.44238999999999995,-0.1626,-0.034011,-0.037565,-0.028862,,,,,,,,,,,,,,,,,,,,,,,,,,,,,,,,,,,,,,,,,,,,,,,,,,,,,,,,,,,,,,,,,
14853,1645582762.2327151,61.0,0.0,4386.153809,4985.641113000001,4193.846191,4243.077147999999,4315.384765999999,0.0,4.0,95.0,,,,0.0,4.0,2.0,4.0,4.0,4.0,83.333336,,,,,,,,,,,,,,,,,,,,,,,,,,,,,,,,,,,,,,,,,,,,,,,,,,,,,,,,,,,,,,,,,,,,,,,,,,,,,,,,,,,,
14854,1645582762.240531,62.0,0.0,4404.615234000001,4904.102539,4087.6923829999996,4290.256348,4391.282227000001,0.0,4.0,95.0,,,,0.0,4.0,2.0,4.0,4.0,4.0,83.333336,,,,,,,,31.0,0.0,0.46565500000000004,-0.28320300000000004,0.5827640000000001,0.602783,0.885267,-0.448737,-0.16406500000000002,-0.034027999999999996,-0.037519,-0.031201,,,,,,,,,,,,,,,,,,,,,,,,,,,,,,,,,,,,,,,,,,,,,,,,,,,,,,,,,,,,,,,,,
14855,1645582762.248346,63.0,0.0,4329.230957,4570.256348,4072.3076170000004,4347.179688,4455.897461,0.0,4.0,95.0,,,,0.0,4.0,2.0,4.0,4.0,4.0,83.333336,,,,,,,,,,,,,,,,,,,,1.0,0.0,0.0,,,,,,,,,,,,,,,,,,,,,,,,,,,,,,,,0.0,0.0,1.0,0.0,512.0,1.0,53.454918000000006,121.695549,62.696906999999996,20.863951,5.136652,222.544891,296.03045699999996,219.964737,110.01633500000001,91.059227,108.303474,322.850098,167.217514,19.24547,5.569791,71.264107,121.469353,81.129761,10.574108,4.799347,16.191116,94.107437,61.445496,29.302021000000003,8.118143
14856,1645582762.256162,64.0,0.0,4223.589844,4364.102539,4141.025879,4342.563965,4435.384765999999,450.0,4.0,95.0,,,,0.0,4.0,2.0,4.0,4.0,4.0,83.333336,,,,,,,,32.0,0.0,0.465971,-0.28320300000000004,0.5827640000000001,0.602539,0.892592,-0.44190100000000004,-0.161135,-0.034141000000000005,-0.037478,-0.026909,,,,,,,,,,,,,,,,,,,,,,,,,,,,,,,,,,,,,,,,,,,,,,,,,,,,,,,,,,,,,,,,,
14857,1645582762.263978,65.0,0.0,4235.897461,4398.974121,4212.820313,4389.743652,4354.871582,450.0,4.0,95.0,,,,0.0,4.0,2.0,4.0,4.0,4.0,83.333336,,,,,,,,,,,,,,,,,,,,,,,,,,,,,,,,,,,,,,,,,,,,,,,,,,,,,,,,,,,,,,,,,,,,,,,,,,,,,,,,,,,,
14858,1645582762.271793,66.0,0.0,4311.282227000001,4444.615234000001,4283.077147999999,4477.94873,4302.563965,16219.0,4.0,95.0,,,,0.0,4.0,2.0,4.0,4.0,4.0,83.333336,,,,,,,,33.0,0.0,0.466276,-0.28320300000000004,0.5825199999999999,0.602539,0.8930799999999999,-0.43994799999999995,-0.165042,-0.034145,-0.037489999999999996,-0.029491000000000003,,,,,,,,,,,,,,,,,,,,,,,,,,,,,,,,,,,,,,,,,,,,,,,,,,,,,,,,,,,,,,,,,
14859,1645582762.279708,67.0,0.0,4340.0,4553.846191,4340.512695,4472.307617,4314.358886999999,450.0,4.0,95.0,,,,0.0,4.0,2.0,4.0,4.0,4.0,83.333336,,,,,,,,,,,,,,,,,,,,,,,,,,,,,,,,,,,,,,,,,,,,,,,,,,,,,,0.0,0.0,1.0,0.0,512.0,1.0,,,,,,,,,,,,,,,,,,,,,,,,,
14860,1645582762.287524,68.0,0.0,4363.589844,4754.871582,4321.538574,4350.256348,4321.538574,225.0,4.0,95.0,,,,0.0,4.0,2.0,4.0,4.0,4.0,83.333336,,,,,,,,34.0,0.0,0.466128,-0.283447,0.5825199999999999,0.602539,0.8916149999999999,-0.44385399999999997,-0.167971,-0.034149,-0.037403,-0.031767000000000004,,,,,,,,,,,,,,,,,,,,,,,,,,,,,,,,,,,,,,,,,,,,,,,,,,,,,,,,,,,,,,,,,
14861,1645582762.295339,69.0,0.0,4412.307617,4727.692383,4215.897461,4256.410156,4314.871582,450.0,4.0,95.0,,,,0.0,4.0,2.0,4.0,4.0,4.0,83.333336,,,,,,,,,,,,,,,,,,,,,,,,,,,,,,,,,,,,,,,,,,,,,,,,,,,,,,,,,,,,,,,,,,,,,,,,,,,,,,,,,,,,
14862,1645582762.3031552,70.0,0.0,4425.641113000001,4448.717772999999,4100.0,4293.846191,4374.871582,16189.0,4.0,95.0,,,,0.0,4.0,2.0,4.0,4.0,4.0,83.333336,,,,,,,,35.0,0.0,0.46674799999999994,-0.283447,0.582275,0.602295,0.895033,-0.45215500000000003,-0.166995,-0.034151999999999995,-0.037472000000000005,-0.027565,,,,,,,,,,,,,,,,,,,,,,,,,,,,,,,,,,,,,,,,,,,,,,,,,,,,,,,,,,,,,,,,,
14863,1645582762.3109698,71.0,0.0,4348.205078,4281.538574,4064.102539,4358.461426,4451.282227000001,450.0,4.0,95.0,,,,0.0,4.0,2.0,4.0,4.0,4.0,83.333336,,,,,,,,,,,,,,,,,,,,,,,,,,,,,,,,,,,,,,,,,,,,,,,,,,,,,,0.0,0.0,1.0,0.0,512.0,1.0,,,,,,,,,,,,,,,,,,,,,,,,,
14864,1645582762.318785,72.0,0.0,4227.692383,4217.436035,4115.897461,4350.769043,4436.922852000001,450.0,4.0,95.0,,,,0.0,4.0,2.0,4.0,4.0,4.0,83.333336,,,,,,,,36.0,0.0,0.46691499999999997,-0.28369099999999997,0.582275,0.602051,0.889174,-0.437018,-0.16552999999999998,-0.034155,-0.037533,-0.029887,,,,,,,,,,,,,,,,,,,,,,,,,,,,,,,,,,,,,,,,,,,,,,,,,,,,,,,,,,,,,,,,,
14865,1645582762.326601,73.0,0.0,4188.205078,4044.102539,4186.666504,4353.846191,4367.179688,16190.0,4.0,95.0,,,,0.0,4.0,2.0,4.0,4.0,4.0,83.333336,,,,,,,,,,,,,,,,,,,,,,,,,,,,,,,,,,,,,,,,,,,,,,,,,,,,,,,,,,,,,,,,,,,,,,,,,,,,,,,,,,,,
14866,1645582762.334416,74.0,0.0,4247.692383,3971.794922,4223.589844,4428.205078,4320.0,450.0,4.0,95.0,,,,0.0,4.0,2.0,4.0,4.0,4.0,83.333336,,,,,,,,37.0,0.0,0.46676599999999996,-0.283936,0.582275,0.602051,0.897963,-0.428717,-0.171389,-0.034206,-0.037491000000000003,-0.025824,,,,,,,,,,,,,,,,,,,,,,,,,,,,,,,,,,,,,,,,,,,,,,,,,,,,,,,,,,,,,,,,,
14867,1645582762.342231,75.0,0.0,4291.794922,4137.436035,4240.512695,4467.692383,4296.922852000001,16227.0,4.0,95.0,,,,0.0,4.0,2.0,4.0,4.0,4.0,83.333336,,,,,,,,,,,,,,,,,,,,,,,,,,,,,,,,,,,,,,,,,,,,,,,,,,,,,,0.0,0.0,1.0,0.0,512.0,1.0,,,,,,,,,,,,,,,,,,,,,,,,,
14868,1645582762.350147,76.0,0.0,4280.512695,4227.692383,4265.641113000001,4436.922852000001,4258.974121,450.0,4.0,95.0,,,,0.0,4.0,2.0,4.0,4.0,4.0,83.333336,,,,,,,,38.0,0.0,0.46676599999999996,-0.283936,0.582275,0.602051,0.894545,-0.41651000000000005,-0.181643,-0.034203,-0.037453,-0.022167,,,,,,,,,,,,,,,,,,,,,,,,,,,,,,,,,,,,,,,,,,,,,,,,,,,,,,,,,,,,,,,,,
14869,1645582762.357962,77.0,0.0,4272.820313,4037.9487299999996,4300.0,4451.282227000001,4231.282227000001,450.0,4.0,95.0,,,,0.0,4.0,2.0,4.0,4.0,4.0,83.333336,,,,,,,,,,,,,,,,,,,,,,,,,,,,,,,,,,,,,,,,,,,,,,,,,,,,,,,,,,,,,,,,,,,,,,,,,,,,,,,,,,,,
14870,1645582762.365777,78.0,0.0,4296.922852000001,3895.384521,4326.666504,4502.05127,4240.512695,450.0,4.0,95.0,,,,0.0,4.0,2.0,4.0,4.0,4.0,83.333336,,,,,,,,39.0,0.0,0.46676599999999996,-0.283936,0.582275,0.602051,0.8886850000000001,-0.43018199999999995,-0.158694,-0.034102999999999994,-0.037516,-0.025029,,,,,,,,,,,,,,,,,,,,,,,,,,,,,,,,,,,,,,,,,,,,,,,,,,,,,,,,,,,,,,,,,
14871,1645582762.3735929,79.0,0.0,4327.179688,4003.5898439999996,4325.128418,4488.717772999999,4255.897461,16227.0,4.0,95.0,,,,0.0,4.0,2.0,4.0,4.0,4.0,83.333336,,,,,,,,,,,,,,,,,,,,1.0,0.0,0.0,,,,,,,,,,,,,,,,,,,,,,,,,,,,,,,,0.0,0.0,1.0,0.0,512.0,1.0,39.709990999999995,131.37442,56.135952,17.515923,5.343036,181.453949,315.13671899999997,208.838165,102.128395,90.77964,91.525101,336.068512,167.391418,15.824091000000001,6.7980979999999995,57.997364000000005,139.541534,81.21736899999999,7.4729779999999995,4.602165,13.587388,104.004936,61.474368999999996,27.045672999999997,7.811599
14872,1645582762.381408,80.0,0.0,4343.077147999999,4070.7692869999996,4329.743652,4448.717772999999,4262.05127,450.0,4.0,95.0,,,,0.0,4.0,2.0,4.0,4.0,4.0,83.333336,,,,,,,,40.0,0.0,0.46676599999999996,-0.283936,0.582275,0.602051,0.8808729999999999,-0.437018,-0.155764,-0.033964999999999995,-0.037426999999999995,-0.027604000000000004,,,,,,,,,,,,,,,,,,,,,,,,,,,,,,,,,,,,,,,,,,,,,,,,,,,,,,,,,,,,,,,,,
14873,1645582762.389223,81.0,0.0,4355.897461,4057.9487299999996,4360.0,4444.102539,4301.538574,450.0,4.0,95.0,,,,0.0,4.0,2.0,4.0,4.0,4.0,83.333336,,,,,,,,,,,,,,,,,,,,,,,,,,,,,,,,,,,,,,,,,,,,,,,,,,,,,,,,,,,,,,,,,,,,,,,,,,,,,,,,,,,,
14874,1645582762.3970392,82.0,0.0,4369.743652,4203.589844,4349.743652,4406.153809,4336.410156,450.0,4.0,95.0,,,,0.0,4.0,2.0,4.0,4.0,4.0,83.333336,,,,,,,,41.0,0.0,0.46676599999999996,-0.283936,0.582275,0.602051,0.879408,-0.43262399999999995,-0.15332300000000001,-0.033986,-0.037395,-0.023672,,,,,,,,,,,,,,,,,,,,,,,,,,,,,,,,,,,,,,,,,,,,,,,,,,,,,,,,,,,,,,,,,
14875,1645582762.4048538,83.0,0.0,4356.922852000001,4380.0,4301.025879,4322.563965,4301.538574,16227.0,4.0,95.0,,,,0.0,4.0,2.0,4.0,4.0,4.0,83.333336,,,,,,,,,,,,,,,,,,,,,,,,,,,,,,,,,,,,,,,,,,,,,,,,,,,,,,0.0,0.0,1.0,0.0,512.0,1.0,,,,,,,,,,,,,,,,,,,,,,,,,
14876,1645582762.412669,84.0,0.0,4351.794922,4305.128418,4294.871582,4290.769043,4282.563965,450.0,4.0,95.0,,,,0.0,4.0,2.0,4.0,4.0,4.0,83.333336,,,,,,,,42.0,0.0,0.46676599999999996,-0.283936,0.582275,0.602051,0.886244,-0.443366,-0.171389,-0.033957,-0.037367000000000004,-0.026432,,,,,,,,,,,,,,,,,,,,,,,,,,,,,,,,,,,,,,,,,,,,,,,,,,,,,,,,,,,,,,,,,
14877,1645582762.420585,85.0,0.0,4382.563965,4146.153809,4309.230957,4326.153809,4316.922852000001,450.0,4.0,95.0,,,,0.0,4.0,2.0,4.0,4.0,4.0,83.333336,,,,,,,,,,,,,,,,,,,,,,,,,,,,,,,,,,,,,,,,,,,,,,,,,,,,,,,,,,,,,,,,,,,,,,,,,,,,,,,,,,,,
14878,1645582762.428401,86.0,0.0,4395.897461,4112.820313,4250.769043,4316.410156,4341.538574,450.0,4.0,95.0,,,,0.0,4.0,2.0,4.0,4.0,4.0,83.333336,,,,,,,,43.0,0.0,0.46676599999999996,-0.283936,0.582275,0.602051,0.889174,-0.43799499999999997,-0.157229,-0.03393,-0.037341,-0.028914999999999996,,,,,,,,,,,,,,,,,,,,,,,,,,,,,,,,,,,,,,,,,,,,,,,,,,,,,,,,,,,,,,,,,
14879,1645582762.436216,87.0,0.0,4376.922852000001,4107.179688,4178.461426,4245.128418,4354.358886999999,16227.0,4.0,95.0,,,,0.0,4.0,2.0,4.0,4.0,4.0,83.333336,,,,,,,,,,,,,,,,,,,,,,,,,,,,,,,,,,,,,,,,,,,,,,,,,,,,,,0.0,0.0,1.0,0.0,512.0,1.0,,,,,,,,,,,,,,,,,,,,,,,,,
14880,1645582762.444032,88.0,0.0,4383.589844,4191.282227000001,4161.538574,4226.666504,4364.615234000001,450.0,4.0,95.0,,,,0.0,4.0,2.0,4.0,4.0,4.0,83.333336,,,,,,,,44.0,0.0,0.46676599999999996,-0.283936,0.582275,0.602051,0.8872209999999999,-0.44190100000000004,-0.151858,-0.034004,-0.037318000000000004,-0.031101999999999998,,,,,,,,,,,,,,,,,,,,,,,,,,,,,,,,,,,,,,,,,,,,,,,,,,,,,,,,,,,,,,,,,
14881,1645582762.451847,89.0,0.0,4435.897461,4314.871582,4124.102539,4260.512695,4374.358886999999,450.0,4.0,95.0,,,,0.0,4.0,2.0,4.0,4.0,4.0,83.333336,,,,,,,,,,,,,,,,,,,,,,,,,,,,,,,,,,,,,,,,,,,,,,,,,,,,,,,,,,,,,,,,,,,,,,,,,,,,,,,,,,,,
14882,1645582762.459763,90.0,0.0,4429.230957,4274.358886999999,4073.8461909999996,4278.461426,4412.820313,450.0,4.0,95.0,,,,0.0,4.0,2.0,4.0,4.0,4.0,83.333336,,,,,,,,45.0,0.0,0.466451,-0.283936,0.582275,0.602295,0.8955209999999999,-0.43018199999999995,-0.144533,-0.034022000000000004,-0.037395,-0.03307,,,,,,,,,,,,,,,,,,,,,,,,,,,,,,,,,,,,,,,,,,,,,,,,,,,,,,,,,,,,,,,,,
14883,1645582762.467578,91.0,0.0,4290.769043,4168.205078,4081.025635,4306.666504,4467.179688,16227.0,4.0,95.0,,,,0.0,4.0,2.0,4.0,4.0,4.0,83.333336,,,,,,,,,,,,,,,,,,,,,,,,,,,,,,,,,,,,,,,,,,,,,,,,,,,,,,0.0,0.0,1.0,0.0,512.0,1.0,,,,,,,,,,,,,,,,,,,,,,,,,
14884,1645582762.475394,92.0,0.0,4180.0,4109.230957,4142.05127,4357.436035,4438.974121,450.0,4.0,95.0,,,,0.0,4.0,2.0,4.0,4.0,4.0,83.333336,,,,,,,,46.0,0.0,0.466451,-0.283936,0.582275,0.602295,0.8842909999999999,-0.42676400000000003,-0.158694,-0.034038,-0.037366,-0.034841000000000004,,,,,,,,,,,,,,,,,,,,,,,,,,,,,,,,,,,,,,,,,,,,,,,,,,,,,,,,,,,,,,,,,
14885,1645582762.4832098,93.0,0.0,4227.692383,4093.8461909999996,4231.282227000001,4397.94873,4342.563965,450.0,4.0,95.0,,,,0.0,4.0,2.0,4.0,4.0,4.0,83.333336,,,,,,,,,,,,,,,,,,,,,,,,,,,,,,,,,,,,,,,,,,,,,,,,,,,,,,,,,,,,,,,,,,,,,,,,,,,,,,,,,,,,
14886,1645582762.491025,94.0,0.0,4316.922852000001,4058.974365,4313.846191,4426.153809,4298.461426,450.0,4.0,95.0,,,,0.0,4.0,2.0,4.0,4.0,4.0,83.333336,,,,,,,,47.0,0.0,0.46676599999999996,-0.283936,0.582275,0.602051,0.8930799999999999,-0.43799499999999997,-0.142092,-0.034052,-0.037389,-0.036532999999999996,,,,,,,,,,,,,,,,,,,,,,,,,,,,,,,,,,,,,,,,,,,,,,,,,,,,,,,,,,,,,,,,,
14887,1645582762.498841,95.0,0.0,4351.794922,4032.3076170000004,4359.487305,4418.461426,4321.025879,16227.0,4.0,95.0,,,,0.0,4.0,2.0,4.0,4.0,4.0,83.333336,,,,,,,,,,,,,,,,,,,,1.0,0.0,0.0,,,,,,,,,,,,,,,,,,,,,,,,,,,,,,,,0.0,0.0,1.0,0.0,512.0,1.0,27.691323999999998,136.128525,55.25148000000001,16.614770999999998,5.700057,165.320923,353.715485,217.922302,105.39031200000001,89.501228,80.070625,333.408813,166.403641,16.311134,8.36483,47.216789,153.556503,84.5047,6.482323,4.473451,13.026255,110.27037,63.698696,25.008779999999998,7.9192990000000005
14888,1645582762.5066562,96.0,0.0,4382.05127,4055.897461,4359.487305,4353.846191,4352.307617,450.0,4.0,95.0,,,,0.0,4.0,2.0,4.0,4.0,4.0,83.333336,,,,,,,,48.0,0.0,0.466451,-0.283936,0.582275,0.602295,0.8886850000000001,-0.449226,-0.163577,-0.033967000000000004,-0.03741,-0.031805,,,,,,,,,,,,,,,,,,,,,,,,,,,,,,,,,,,,,,,,,,,,,,,,,,,,,,,,,,,,,,,,,
14889,1645582762.514472,97.0,0.0,4400.0,4083.5898439999996,4316.410156,4284.615234000001,4349.743652,450.0,4.0,95.0,,,,0.0,4.0,2.0,4.0,4.0,4.0,83.333336,,,,,,,,,,,,,,,,,,,,,,,,,,,,,,,,,,,,,,,,,,,,,,,,,,,,,,,,,,,,,,,,,,,,,,,,,,,,,,,,,,,,
14890,1645582762.522288,98.0,0.0,4390.256348,4179.487305,4241.025879,4248.717772999999,4325.128418,450.0,4.0,95.0,,,,0.0,4.0,2.0,4.0,4.0,4.0,83.333336,,,,,,,,49.0,0.0,0.46661800000000003,-0.28418000000000004,0.582275,0.602051,0.8960100000000001,-0.44483100000000003,-0.165042,-0.033891000000000004,-0.037429000000000004,-0.033801,,,,,,,,,,,,,,,,,,,,,,,,,,,,,,,,,,,,,,,,,,,,,,,,,,,,,,,,,,,,,,,,,
14891,1645582762.5302029,99.0,0.0,4392.307617,4382.05127,4173.846191,4240.0,4342.05127,16227.0,4.0,95.0,,,,0.0,4.0,2.0,4.0,4.0,4.0,83.333336,,,,,,,,,,,,,,,,,,,,,,,,,,,,,,,,,,,,,,,,,,,,,,,,,,,,,,0.0,0.0,1.0,0.0,512.0,1.0,,,,,,,,,,,,,,,,,,,,,,,,,
14892,1645582762.538019,100.0,0.0,4415.384765999999,4505.128418,4109.743652,4237.94873,4400.512695,450.0,4.0,95.0,,,,0.0,4.0,2.0,4.0,4.0,4.0,83.333336,,,,,,,,50.0,0.0,0.466922,-0.28418000000000004,0.5820310000000001,0.602051,0.8833139999999999,-0.424811,-0.161624,-0.033968,-0.037397,-0.029298,,,,,,,,,,,,,,,,,,,,,,,,,,,,,,,,,,,,,,,,,,,,,,,,,,,,,,,,,,,,,,,,,
14893,1645582762.545834,101.0,0.0,4436.410156,4417.436035,4050.7692869999996,4237.436035,4430.256348,450.0,4.0,95.0,,,,0.0,4.0,2.0,4.0,4.0,4.0,83.333336,,,,,,,,,,,,,,,,,,,,,,,,,,,,,,,,,,,,,,,,,,,,,,,,,,,,,,,,,,,,,,,,,,,,,,,,,,,,,,,,,,,,
14894,1645582762.55365,102.0,0.0,4412.307617,4302.563965,4061.025635,4263.589844,4446.666504,450.0,4.0,95.0,,,,0.0,4.0,2.0,4.0,4.0,4.0,83.333336,,,,,,,,51.0,0.0,0.466922,-0.28418000000000004,0.5820310000000001,0.602051,0.8838030000000001,-0.43213500000000005,-0.147951,-0.033892,-0.03732,-0.031593,,,,,,,,,,,,,,,,,,,,,,,,,,,,,,,,,,,,,,,,,,,,,,,,,,,,,,,,,,,,,,,,,
14895,1645582762.561466,103.0,0.0,4309.743652,4202.563965,4107.692383,4312.307617,4505.641113000001,16227.0,4.0,95.0,,,,0.0,4.0,2.0,4.0,4.0,4.0,83.333336,,,,,,,,,,,,,,,,,,,,,,,,,,,,,,,,,,,,,,,,,,,,,,,,,,,,,,0.0,0.0,1.0,0.0,512.0,1.0,,,,,,,,,,,,,,,,,,,,,,,,,
14896,1645582762.569281,104.0,0.0,4195.384765999999,4092.3076170000004,4129.230957,4346.153809,4500.0,450.0,4.0,95.0,,,,0.0,4.0,2.0,4.0,4.0,4.0,83.333336,,,,,,,,52.0,0.0,0.466922,-0.28418000000000004,0.5820310000000001,0.602051,0.9052870000000001,-0.430671,-0.1626,-0.03397,-0.037347000000000005,-0.033658,,,,,,,,,,,,,,,,,,,,,,,,,,,,,,,,,,,,,,,,,,,,,,,,,,,,,,,,,,,,,,,,,
14897,1645582762.5770972,105.0,0.0,4189.743652,4126.666504,4169.230957,4354.358886999999,4362.05127,450.0,4.0,95.0,,,,0.0,4.0,2.0,4.0,4.0,4.0,83.333336,,,,,,,,,,,,,,,,,,,,,,,,,,,,,,,,,,,,,,,,,,,,,,,,,,,,,,,,,,,,,,,,,,,,,,,,,,,,,,,,,,,,
14898,1645582762.5849118,106.0,0.0,4259.487305,4209.230957,4230.256348,4361.538574,4251.282227000001,450.0,4.0,95.0,,,,0.0,4.0,2.0,4.0,4.0,4.0,83.333336,,,,,,,,53.0,0.0,0.466922,-0.28418000000000004,0.5820310000000001,0.602051,0.8833139999999999,-0.424811,-0.161624,-0.033942,-0.037373,-0.029218,,,,,,,,,,,,,,,,,,,,,,,,,,,,,,,,,,,,,,,,,,,,,,,,,,,,,,,,,,,,,,,,,
14899,1645582762.592728,107.0,0.0,4289.230957,4259.487305,4274.358886999999,4397.436035,4265.641113000001,16227.0,4.0,95.0,,,,0.0,4.0,2.0,4.0,4.0,4.0,83.333336,,,,,,,,,,,,,,,,,,,,,,,,,,,,,,,,,,,,,,,,,,,,,,,,,,,,,,0.0,0.0,1.0,0.0,512.0,1.0,,,,,,,,,,,,,,,,,,,,,,,,,
14900,1645582762.600544,108.0,0.0,4297.436035,4403.589844,4312.307617,4412.307617,4284.615234000001,450.0,4.0,95.0,,,,0.0,4.0,2.0,4.0,4.0,4.0,83.333336,,,,,,,,54.0,0.0,0.466922,-0.28418000000000004,0.5820310000000001,0.602051,0.9052870000000001,-0.430671,-0.1626,-0.034015,-0.037395,-0.031521,,,,,,,,,,,,,,,,,,,,,,,,,,,,,,,,,,,,,,,,,,,,,,,,,,,,,,,,,,,,,,,,,
14901,1645582762.608459,109.0,0.0,4339.487305,4524.615234000001,4338.461426,4392.820313,4259.487305,450.0,4.0,95.0,,,,0.0,4.0,2.0,4.0,4.0,4.0,83.333336,,,,,,,,,,,,,,,,,,,,,,,,,,,,,,,,,,,,,,,,,,,,,,,,,,,,,,,,,,,,,,,,,,,,,,,,,,,,,,,,,,,,
14902,1645582762.616275,110.0,0.0,4357.94873,4439.487305,4329.743652,4388.205078,4278.974121,450.0,4.0,95.0,,,,0.0,4.0,2.0,4.0,4.0,4.0,83.333336,,,,,,,,55.0,0.0,0.467071,-0.283936,0.5820310000000001,0.602051,0.895033,-0.437507,-0.166995,-0.033933,-0.037415,-0.033496,,,,,,,,,,,,,,,,,,,,,,,,,,,,,,,,,,,,,,,,,,,,,,,,,,,,,,,,,,,,,,,,,
14903,1645582762.62409,111.0,0.0,4349.230957,4408.205078,4302.05127,4360.512695,4326.153809,16227.0,4.0,95.0,,,,0.0,4.0,2.0,4.0,4.0,4.0,83.333336,1.0,16.666666,1.0,0.0,1.0,1.0,1.0,,,,,,,,,,,,,1.0,0.0,0.0,,,,,,,,,,,,,,,,,,,,,,,,,,,,,,,,0.0,0.0,1.0,0.0,512.0,1.0,22.173597,133.318268,59.079406999999996,16.124126,6.081999,184.157623,404.927063,247.93141200000002,115.26313,87.561211,78.140114,314.030029,163.840271,18.453337,9.847511,44.569679,161.157104,88.498604,6.21119,4.591261,16.159069,110.776367,68.061501,22.17387,8.244977
14904,1645582762.631906,112.0,0.0,4428.205078,4597.436035,4232.820313,4282.05127,4355.897461,450.0,4.0,95.0,,,,0.0,4.0,2.0,4.0,4.0,4.0,83.333336,,,,,,,,56.0,0.0,0.467071,-0.283936,0.5820310000000001,0.602051,0.8994280000000001,-0.431159,-0.164553,-0.03386,-0.037336,-0.035371,,,,,,,,,,,,,,,,,,,,,,,,,,,,,,,,,,,,,,,,,,,,,,,,,,,,,,,,,,,,,,,,,
14905,1645582762.6397212,113.0,0.0,4518.461426,4631.794922,4109.743652,4238.974121,4458.974121,450.0,4.0,95.0,,,,0.0,4.0,2.0,4.0,4.0,4.0,83.333336,,,,,,,,,,,,,,,,,,,,,,,,,,,,,,,,,,,,,,,,,,,,,,,,,,,,,,,,,,,,,,,,,,,,,,,,,,,,,,,,,,,,
14906,1645582762.647537,114.0,0.0,4476.410156,4382.05127,4100.512695,4310.769043,4561.538574,450.0,4.0,95.0,,,,0.0,4.0,2.0,4.0,4.0,4.0,83.333336,,,,,,,,57.0,0.0,0.46676599999999996,-0.283936,0.582275,0.602051,0.9038219999999999,-0.435554,-0.167971,-0.033844,-0.03746,-0.037058999999999995,,,,,,,,,,,,,,,,,,,,,,,,,,,,,,,,,,,,,,,,,,,,,,,,,,,,,,,,,,,,,,,,,
14907,1645582762.6553528,115.0,0.0,4511.794922,4255.384765999999,4262.05127,4389.230957,4514.358886999999,16227.0,4.0,95.0,,,,0.0,4.0,2.0,4.0,4.0,4.0,83.333336,,,,,,,,,,,,,,,,,,,,,,,,,,,,,,,,,,,,,,,,,,,,,,,,,,,,,,0.0,0.0,1.0,0.0,512.0,1.0,,,,,,,,,,,,,,,,,,,,,,,,,
14908,1645582762.663168,116.0,0.0,4718.461426,4369.230957,4303.589844,4358.461426,4534.871582,450.0,4.0,95.0,,,,0.0,4.0,2.0,4.0,4.0,4.0,83.333336,,,,,,,,58.0,0.0,0.46691499999999997,-0.28369099999999997,0.582275,0.602051,0.891127,-0.44190100000000004,-0.163088,-0.033877,-0.037523,-0.03223,,,,,,,,,,,,,,,,,,,,,,,,,,,,,,,,,,,,,,,,,,,,,,,,,,,,,,,,,,,,,,,,,
14909,1645582762.670984,117.0,0.0,4795.897461,4397.94873,4204.615234000001,4336.922852000001,4696.922852000001,450.0,4.0,95.0,,,,0.0,4.0,2.0,4.0,4.0,4.0,83.333336,,,,,,,,,,,,,,,,,,,,,,,,,,,,,,,,,,,,,,,,,,,,,,,,,,,,,,,,,,,,,,,,,,,,,,,,,,,,,,,,,,,,
14910,1645582762.678899,118.0,0.0,4769.743652,4353.333496,4208.205078,4364.615234000001,4750.256348,450.0,4.0,95.0,,,,0.0,4.0,2.0,4.0,4.0,4.0,83.333336,,,,,,,,59.0,0.0,0.46721899999999994,-0.28369099999999997,0.5820310000000001,0.602051,0.895033,-0.441413,-0.160647,-0.033859,-0.037432,-0.034134,,,,,,,,,,,,,,,,,,,,,,,,,,,,,,,,,,,,,,,,,,,,,,,,,,,,,,,,,,,,,,,,,
14911,1645582762.6867151,119.0,0.0,4863.589844,4402.563965,4273.846191,4353.846191,4706.153809,16227.0,4.0,95.0,,,,0.0,4.0,2.0,4.0,4.0,4.0,83.333336,,,,,,,,,,,,,,,,,,,,,,,,,,,,,,,,,,,,,,,,,,,,,,,,,,,,,,0.0,0.0,1.0,0.0,512.0,1.0,,,,,,,,,,,,,,,,,,,,,,,,,
14912,1645582762.694531,120.0,0.0,4964.615234000001,4485.641113000001,4261.538574,4326.153809,4751.794922,450.0,4.0,95.0,,,,0.0,4.0,2.0,4.0,4.0,4.0,83.333336,,,,,,,,60.0,0.0,0.46721899999999994,-0.28369099999999997,0.5820310000000001,0.602051,0.8886850000000001,-0.45410900000000004,-0.15820599999999999,-0.033989,-0.0374,-0.029548,,,,,,,,,,,,,,,,,,,,,,,,,,,,,,,,,,,,,,,,,,,,,,,,,,,,,,,,,,,,,,,,,
14913,1645582762.702346,121.0,0.0,4972.820313,4489.230957,4235.897461,4341.025879,4811.794922,450.0,4.0,95.0,,,,0.0,4.0,2.0,4.0,4.0,4.0,83.333336,,,,,,,,,,,,,,,,,,,,,,,,,,,,,,,,,,,,,,,,,,,,,,,,,,,,,,,,,,,,,,,,,,,,,,,,,,,,,,,,,,,,
14914,1645582762.710162,122.0,0.0,4983.077147999999,4449.230957,4242.563965,4335.384765999999,4793.333496,450.0,4.0,95.0,,,,0.0,4.0,2.0,4.0,4.0,4.0,83.333336,,,,,,,,61.0,0.0,0.467375,-0.283936,0.5817869999999999,0.602051,0.8955209999999999,-0.45215500000000003,-0.15820599999999999,-0.034008,-0.037370999999999995,-0.031818,,,,,,,,,,,,,,,,,,,,,,,,,,,,,,,,,,,,,,,,,,,,,,,,,,,,,,,,,,,,,,,,,
14915,1645582762.717977,123.0,0.0,4992.307617,4518.461426,4236.410156,4314.358886999999,4806.666504,16227.0,4.0,95.0,,,,0.0,4.0,2.0,4.0,4.0,4.0,83.333336,,,,,,,,,,,,,,,,,,,,,,,,,,,,,,,,,,,,,,,,,,,,,,,,,,,,,,0.0,0.0,1.0,0.0,512.0,1.0,,,,,,,,,,,,,,,,,,,,,,,,,
14916,1645582762.725793,124.0,0.0,4986.153809,4604.102539,4234.871582,4330.769043,4853.846191,450.0,4.0,95.0,,,,0.0,4.0,2.0,4.0,4.0,4.0,83.333336,,,,,,,,62.0,0.0,0.467375,-0.283936,0.5817869999999999,0.602051,0.8842909999999999,-0.44483100000000003,-0.157717,-0.033976,-0.037492000000000004,-0.033812,,,,,,,,,,,,,,,,,,,,,,,,,,,,,,,,,,,,,,,,,,,,,,,,,,,,,,,,,,,,,,,,,
14917,1645582762.733609,125.0,0.0,4972.307617,4537.94873,4253.846191,4337.94873,4830.256348,450.0,4.0,95.0,,,,0.0,4.0,2.0,4.0,4.0,4.0,83.333336,,,,,,,,,,,,,,,,,,,,,,,,,,,,,,,,,,,,,,,,,,,,,,,,,,,,,,,,,,,,,,,,,,,,,,,,,,,,,,,,,,,,
14918,1645582762.741424,126.0,0.0,4919.487305,4491.794922,4253.846191,4320.0,4782.05127,450.0,4.0,95.0,,,,0.0,4.0,2.0,4.0,4.0,4.0,83.333336,,,,,,,,63.0,0.0,0.467679,-0.283936,0.581543,0.602051,0.894057,-0.44971400000000006,-0.169924,-0.034094,-0.037453,-0.029356999999999998,,,,,,,,,,,,,,,,,,,,,,,,,,,,,,,,,,,,,,,,,,,,,,,,,,,,,,,,,,,,,,,,,
14919,1645582762.749339,127.0,0.0,4871.282227000001,4551.282227000001,4242.05127,4323.077147999999,4778.461426,243.0,4.0,95.0,,,,0.0,4.0,2.0,4.0,4.0,4.0,83.333336,,,,,,,,,,,,,,,,,,,,1.0,0.0,0.0,,,,,,,,,,,,,,,,,,,,,,,,,,,,,,,,0.0,0.0,1.0,0.0,512.0,0.731708,25.293262,121.446312,66.16107199999999,15.741951,6.457143,242.5737,452.61453200000005,297.572815,131.843353,85.06822199999999,86.749092,279.652283,160.331009,21.273981,10.812907000000001,53.150870999999995,160.353714,90.755325,6.425333,5.0632470000000005,24.294544000000002,103.996719,73.97753900000001,18.676268,8.610499
14920,1645582762.7571552,0.0,0.0,4878.461426,4553.846191,4254.871582,4367.692383,4755.384765999999,450.0,4.0,95.0,,,,0.0,4.0,2.0,4.0,4.0,4.0,83.333336,,,,,,,,0.0,0.0,0.467844,-0.28418000000000004,0.581543,0.601807,0.89015,-0.45264399999999994,-0.161624,-0.034005,-0.037419,-0.031597,,,,,,,,,,,,,,,,,,,,,,,,,,,,,,,,,,,,,,,,,,,,,,,,,,,,,,,,,,,,,,,,,
14921,1645582762.76507,1.0,0.0,4888.205078,4453.846191,4231.282227000001,4365.128418,4733.846191,450.0,4.0,95.0,,,,0.0,4.0,2.0,4.0,4.0,4.0,83.333336,,,,,,,,,,,,,,,,,,,,,,,,,,,,,,,,,,,,,,,,,,,,,,,,,,,,,,,,,,,,,,,,,,,,,,,,,,,,,,,,,,,,
14922,1645582762.772886,2.0,0.0,4797.94873,4362.563965,4198.461426,4326.666504,4745.641113000001,16355.0,4.0,95.0,,,,0.0,4.0,2.0,4.0,4.0,4.0,83.333336,,,,,,,,1.0,0.0,0.467999,-0.28442399999999995,0.581299,0.601807,0.8930799999999999,-0.43262399999999995,-0.17383099999999999,-0.034023000000000005,-0.037437,-0.027313999999999998,,,,,,,,,,,,,,,,,,,,,,,,,,,,,,,,,,,,,,,,,,,,,,,,,,,,,,,,,,,,,,,,,
14923,1645582762.780701,3.0,0.0,4689.743652,4437.94873,4260.512695,4333.333496,4676.410156,450.0,4.0,95.0,,,,0.0,4.0,2.0,4.0,4.0,4.0,83.333336,,,,,,,,,,,,,,,,,,,,,,,,,,,,,,,,,,,,,,,,,,,,,,,,,,,,,,0.0,0.0,1.0,0.0,512.0,0.731708,,,,,,,,,,,,,,,,,,,,,,,,,
14924,1645582762.788617,4.0,0.0,4694.358886999999,4614.358886999999,4233.333496,4281.538574,4619.487305,16245.0,4.0,95.0,,,,0.0,4.0,4.0,2.0,4.0,4.0,83.333336,,,,,,,,2.0,0.0,0.46831300000000003,-0.28442399999999995,0.581299,0.601563,0.890639,-0.427741,-0.166506,-0.03399,-0.037404,-0.029710000000000004,,,,,,,,,,,,,,,,,,,,,,,,,,,,,,,,,,,,,,,,,,,,,,,,,,,,,,,,,,,,,,,,,
14925,1645582762.796432,5.0,0.0,4671.282227000001,4555.384765999999,4115.897461,4251.282227000001,4647.179688,450.0,4.0,95.0,,,,0.0,4.0,4.0,2.0,4.0,4.0,83.333336,,,,,,,,,,,,,,,,,,,,,,,,,,,,,,,,,,,,,,,,,,,,,,,,,,,,,,,,,,,,,,,,,,,,,,,,,,,,,,,,,,,,
14926,1645582762.8042471,6.0,0.0,4562.05127,4425.128418,4204.615234000001,4368.717772999999,4589.743652,247.0,4.0,95.0,,,,0.0,4.0,4.0,2.0,4.0,4.0,83.333336,,,,,,,,3.0,0.0,0.46816499999999994,-0.284668,0.581299,0.601563,0.895033,-0.43018199999999995,-0.166018,-0.033960000000000004,-0.037277,-0.032061,,,,,,,,,,,,,,,,,,,,,,,,,,,,,,,,,,,,,,,,,,,,,,,,,,,,,,,,,,,,,,,,,
14927,1645582762.812063,7.0,0.0,4568.717772999999,4556.922852000001,4341.025879,4407.692383,4493.333496,450.0,4.0,95.0,,,,0.0,4.0,4.0,2.0,4.0,4.0,83.333336,,,,,,,,,,,,,,,,,,,,,,,,,,,,,,,,,,,,,,,,,,,,,,,,,,,,,,0.0,0.0,1.0,0.0,512.0,0.731708,,,,,,,,,,,,,,,,,,,,,,,,,
14928,1645582762.8198779,8.0,0.0,4628.717772999999,4625.128418,4200.512695,4264.615234000001,4555.384765999999,450.0,4.0,95.0,,,,0.0,4.0,4.0,2.0,4.0,4.0,83.333336,,,,,,,,4.0,0.0,0.46816499999999994,-0.284668,0.581299,0.601563,0.9091940000000001,-0.42432299999999995,-0.15674100000000002,-0.033933,-0.03726,-0.03408,,,,,,,,,,,,,,,,,,,,,,,,,,,,,,,,,,,,,,,,,,,,,,,,,,,,,,,,,,,,,,,,,
14929,1645582762.827694,9.0,0.0,4521.025879,4493.333496,4075.897461,4245.641113000001,4623.077147999999,281.0,4.0,95.0,,,,0.0,4.0,4.0,2.0,4.0,4.0,83.333336,,,,,,,,,,,,,,,,,,,,,,,,,,,,,,,,,,,,,,,,,,,,,,,,,,,,,,,,,,,,,,,,,,,,,,,,,,,,,,,,,,,,
14930,1645582762.835609,10.0,0.0,4407.179688,4521.025879,4228.205078,4392.820313,4524.615234000001,450.0,4.0,95.0,,,,0.0,4.0,4.0,2.0,4.0,4.0,83.333336,,,,,,,,5.0,0.0,0.46816499999999994,-0.284668,0.581299,0.601563,0.8838030000000001,-0.43653000000000003,-0.165042,-0.033957999999999995,-0.037197,-0.029549000000000002,,,,,,,,,,,,,,,,,,,,,,,,,,,,,,,,,,,,,,,,,,,,,,,,,,,,,,,,,,,,,,,,,
14931,1645582762.843424,11.0,0.0,4444.615234000001,4661.025879,4357.436035,4414.871582,4435.384765999999,16216.0,4.0,95.0,,,,0.0,4.0,4.0,2.0,4.0,4.0,83.333336,,,,,,,,,,,,,,,,,,,,,,,,,,,,,,,,,,,,,,,,,,,,,,,,,,,,,,0.0,0.0,1.0,0.0,512.0,0.731708,,,,,,,,,,,,,,,,,,,,,,,,,
14932,1645582762.851239,12.0,0.0,4512.307617,4635.384765999999,4234.358886999999,4291.282227000001,4454.358886999999,450.0,4.0,95.0,,,,0.0,4.0,4.0,2.0,4.0,4.0,83.333336,,,,,,,,6.0,0.0,0.46831300000000003,-0.28442399999999995,0.581299,0.601563,0.895033,-0.43262399999999995,-0.171389,-0.033931,-0.037334,-0.031623000000000005,,,,,,,,,,,,,,,,,,,,,,,,,,,,,,,,,,,,,,,,,,,,,,,,,,,,,,,,,,,,,,,,,
14933,1645582762.859055,13.0,0.0,4484.615234000001,4479.487305,4065.1281740000004,4225.128418,4485.128418,450.0,4.0,95.0,,,,0.0,4.0,4.0,2.0,4.0,4.0,83.333336,,,,,,,,,,,,,,,,,,,,,,,,,,,,,,,,,,,,,,,,,,,,,,,,,,,,,,,,,,,,,,,,,,,,,,,,,,,,,,,,,,,,
14934,1645582762.86687,14.0,0.0,4367.692383,4272.820313,4080.512939,4277.94873,4490.769043,450.0,4.0,95.0,,,,0.0,4.0,4.0,2.0,4.0,4.0,83.333336,,,,,,,,7.0,0.0,0.467999,-0.28442399999999995,0.581299,0.601807,0.8847790000000001,-0.42676400000000003,-0.16552999999999998,-0.033907,-0.037361,-0.027338,,,,,,,,,,,,,,,,,,,,,,,,,,,,,,,,,,,,,,,,,,,,,,,,,,,,,,,,,,,,,,,,,
14935,1645582762.874686,15.0,0.0,4276.922852000001,4209.743652,4184.615234000001,4363.589844,4472.820313,16216.0,4.0,95.0,,,,0.0,4.0,4.0,2.0,4.0,4.0,83.333336,,,,,,,,,,,,,,,,,,,,1.0,0.0,0.0,,,,,,,,,,,,,,,,,,,,,,,,,,,,,,,,0.0,0.0,1.0,0.0,512.0,0.568738,38.045547,101.96515699999999,75.764397,16.032723999999998,6.8763,333.027802,483.884766,366.76266499999997,154.345535,81.78115799999999,102.085091,239.96632400000001,158.891556,23.959719,10.98443,70.458221,152.330292,90.716011,7.153026,5.830561,40.05291,91.547729,81.21803299999999,15.360642000000002,8.932802
14936,1645582762.882501,16.0,0.0,4296.922852000001,4444.102539,4265.128418,4405.128418,4409.743652,0.0,4.0,95.0,,,,0.0,4.0,4.0,2.0,4.0,4.0,83.333336,,,,,,,,8.0,0.0,0.467844,-0.28418000000000004,0.581543,0.601807,0.894057,-0.42090500000000003,-0.163088,-0.033935,-0.037385,-0.029731,,,,,,,,,,,,,,,,,,,,,,,,,,,,,,,,,,,,,,,,,,,,,,,,,,,,,,,,,,,,,,,,,
14937,1645582762.890316,17.0,0.0,4368.205078,4668.717772999999,4341.025879,4367.179688,4351.282227000001,0.0,4.0,95.0,,,,0.0,4.0,4.0,2.0,4.0,4.0,83.333336,,,,,,,,,,,,,,,,,,,,,,,,,,,,,,,,,,,,,,,,,,,,,,,,,,,,,,,,,,,,,,,,,,,,,,,,,,,,,,,,,,,,
14938,1645582762.898232,18.0,0.0,4415.897461,4748.205078,4305.641113000001,4291.282227000001,4387.179688,0.0,4.0,95.0,,,,0.0,4.0,4.0,2.0,4.0,4.0,83.333336,,,,,,,,9.0,0.0,0.467679,-0.283936,0.581543,0.602051,0.8916149999999999,-0.44971400000000006,-0.14941600000000002,-0.033958999999999996,-0.037259,-0.031934,,,,,,,,,,,,,,,,,,,,,,,,,,,,,,,,,,,,,,,,,,,,,,,,,,,,,,,,,,,,,,,,,
14939,1645582762.906047,19.0,0.0,4420.0,4761.025879,4124.102539,4250.769043,4493.846191,0.0,4.0,95.0,,,,0.0,4.0,4.0,2.0,4.0,4.0,83.333336,,,,,,,,,,,,,,,,,,,,,,,,,,,,,,,,,,,,,,,,,,,,,,,,,,,,,,0.0,0.0,1.0,0.0,512.0,0.568738,,,,,,,,,,,,,,,,,,,,,,,,,
14940,1645582762.9138632,20.0,0.0,4352.307617,4566.153809,4054.358887,4287.692383,4548.205078,0.0,4.0,95.0,,,,0.0,4.0,4.0,2.0,4.0,4.0,83.333336,,,,,,,,10.0,0.0,0.467679,-0.283936,0.581543,0.602051,0.891127,-0.435554,-0.165042,-0.033981,-0.037391,-0.033867,,,,,,,,,,,,,,,,,,,,,,,,,,,,,,,,,,,,,,,,,,,,,,,,,,,,,,,,,,,,,,,,,
14941,1645582762.921679,21.0,0.0,4336.410156,4369.743652,4236.410156,4399.487305,4469.230957,0.0,4.0,95.0,,,,0.0,4.0,4.0,2.0,4.0,4.0,83.333336,,,,,,,,,,,,,,,,,,,,,,,,,,,,,,,,,,,,,,,,,,,,,,,,,,,,,,,,,,,,,,,,,,,,,,,,,,,,,,,,,,,,
14942,1645582762.929494,22.0,0.0,4540.0,4498.461426,4350.256348,4406.153809,4444.615234000001,0.0,4.0,95.0,,,,0.0,4.0,4.0,2.0,4.0,4.0,83.333336,,,,,,,,11.0,0.0,0.467679,-0.283936,0.581543,0.602051,0.885267,-0.447272,-0.15967,-0.033951999999999996,-0.037314,-0.029407,,,,,,,,,,,,,,,,,,,,,,,,,,,,,,,,,,,,,,,,,,,,,,,,,,,,,,,,,,,,,,,,,
14943,1645582762.93731,23.0,0.0,4733.333496,4531.282227000001,4201.025879,4266.153809,4614.871582,0.0,4.0,95.0,,,,0.0,4.0,4.0,2.0,4.0,4.0,83.333336,,,,,,,,,,,,,,,,,,,,,,,,,,,,,,,,,,,,,,,,,,,,,,,,,,,,,,0.0,0.0,1.0,0.0,512.0,0.568738,,,,,,,,,,,,,,,,,,,,,,,,,
14944,1645582762.945125,24.0,0.0,4730.769043,4368.717772999999,4155.897461,4271.282227000001,4688.205078,0.0,4.0,95.0,,,,0.0,4.0,4.0,2.0,4.0,4.0,83.333336,,,,,,,,12.0,0.0,0.467679,-0.283936,0.581543,0.602051,0.8916149999999999,-0.44971400000000006,-0.14941600000000002,-0.033975,-0.037196,-0.031642,,,,,,,,,,,,,,,,,,,,,,,,,,,,,,,,,,,,,,,,,,,,,,,,,,,,,,,,,,,,,,,,,
14945,1645582762.952941,25.0,0.0,4742.563965,4551.282227000001,4257.94873,4364.102539,4629.743652,0.0,4.0,95.0,,,,0.0,4.0,4.0,2.0,4.0,4.0,83.333336,,,,,,,,,,,,,,,,,,,,,,,,,,,,,,,,,,,,,,,,,,,,,,,,,,,,,,,,,,,,,,,,,,,,,,,,,,,,,,,,,,,,
14946,1645582762.960757,26.0,0.0,4790.769043,4682.563965,4240.512695,4344.615234000001,4677.94873,0.0,4.0,95.0,,,,0.0,4.0,4.0,2.0,4.0,4.0,83.333336,,,,,,,,13.0,0.0,0.467679,-0.283936,0.581543,0.602051,0.89015,-0.449226,-0.152346,-0.033996,-0.037187,-0.027402999999999997,,,,,,,,,,,,,,,,,,,,,,,,,,,,,,,,,,,,,,,,,,,,,,,,,,,,,,,,,,,,,,,,,
14947,1645582762.968672,27.0,0.0,4786.666504,4455.897461,4214.871582,4353.333496,4717.436035,0.0,4.0,95.0,,,,0.0,4.0,4.0,2.0,4.0,4.0,83.333336,,,,,,,,,,,,,,,,,,,,,,,,,,,,,,,,,,,,,,,,,,,,,,,,,,,,,,0.0,0.0,1.0,0.0,512.0,0.568738,,,,,,,,,,,,,,,,,,,,,,,,,
14948,1645582762.976488,28.0,0.0,4788.205078,4424.615234000001,4231.282227000001,4396.922852000001,4692.820313,0.0,4.0,95.0,,,,0.0,4.0,4.0,2.0,4.0,4.0,83.333336,,,,,,,,14.0,0.0,0.46782700000000005,-0.28369099999999997,0.581543,0.602051,0.892592,-0.44531899999999996,-0.159182,-0.034013999999999996,-0.03718,-0.029838999999999997,,,,,,,,,,,,,,,,,,,,,,,,,,,,,,,,,,,,,,,,,,,,,,,,,,,,,,,,,,,,,,,,,
14949,1645582762.984303,29.0,0.0,4758.974121,4564.102539,4204.615234000001,4361.025879,4709.230957,0.0,4.0,95.0,,,,0.0,4.0,4.0,2.0,4.0,4.0,83.333336,,,,,,,,,,,,,,,,,,,,,,,,,,,,,,,,,,,,,,,,,,,,,,,,,,,,,,,,,,,,,,,,,,,,,,,,,,,,,,,,,,,,
14950,1645582762.9921188,30.0,0.0,4690.769043,4524.615234000001,4258.461426,4335.897461,4665.641113000001,0.0,4.0,95.0,,,,0.0,4.0,4.0,2.0,4.0,4.0,83.333336,,,,,,,,15.0,0.0,0.46798199999999995,-0.283936,0.581299,0.602051,0.8994280000000001,-0.442878,-0.167483,-0.033933,-0.037173000000000005,-0.025633999999999997,,,,,,,,,,,,,,,,,,,,,,,,,,,,,,,,,,,,,,,,,,,,,,,,,,,,,,,,,,,,,,,,,
14951,1645582762.999934,31.0,0.0,4682.05127,4480.0,4337.436035,4317.436035,4562.05127,0.0,4.0,95.0,,,,0.0,4.0,4.0,2.0,4.0,4.0,83.333336,,,,,,,,,,,,,,,,,,,,1.0,0.0,0.0,,,,,,,,,,,,,,,,,,,,,,,,,,,,,,,,0.0,0.0,1.0,0.0,512.0,0.653749,67.508728,79.971252,86.579903,17.441734,7.477162,434.806488,492.65682999999996,447.207062,179.93219,77.430649,118.391655,209.284286,161.218536,25.949368,10.526628,90.75565300000001,141.413803,88.638885,8.297839999999999,6.741332000000001,69.27507800000001,78.36395300000001,88.69915,13.155004000000002,9.226502
14952,1645582763.00775,32.0,0.0,4697.436035,4438.974121,4270.769043,4250.769043,4562.05127,0.0,4.0,95.0,,,,0.0,4.0,4.0,2.0,4.0,4.0,83.333336,,,,,,,,16.0,0.0,0.468296,-0.283936,0.581299,0.601807,0.8930799999999999,-0.446296,-0.160159,-0.033762,-0.037118,-0.028198,,,,,,,,,,,,,,,,,,,,,,,,,,,,,,,,,,,,,,,,,,,,,,,,,,,,,,,,,,,,,,,,,
14953,1645582763.015566,33.0,0.0,4670.769043,4303.589844,4244.102539,4246.666504,4582.563965,0.0,4.0,95.0,,,,0.0,4.0,4.0,2.0,4.0,4.0,83.333336,,,,,,,,,,,,,,,,,,,,,,,,,,,,,,,,,,,,,,,,,,,,,,,,,,,,,,,,,,,,,,,,,,,,,,,,,,,,,,,,,,,,
14954,1645582763.023381,34.0,0.0,4632.820313,4283.077147999999,4305.641113000001,4292.307617,4529.743652,0.0,4.0,95.0,,,,0.0,4.0,4.0,2.0,4.0,4.0,83.333336,,,,,,,,17.0,0.0,0.468599,-0.283936,0.581055,0.601807,0.886244,-0.435554,-0.163088,-0.033804,-0.037117000000000004,-0.030505,,,,,,,,,,,,,,,,,,,,,,,,,,,,,,,,,,,,,,,,,,,,,,,,,,,,,,,,,,,,,,,,,
14955,1645582763.031197,35.0,0.0,4572.820313,4363.077147999999,4294.358886999999,4298.461426,4497.94873,0.0,4.0,95.0,,,,0.0,4.0,4.0,2.0,4.0,4.0,83.333336,,,,,,,,,,,,,,,,,,,,,,,,,,,,,,,,,,,,,,,,,,,,,,,,,,,,,,0.0,0.0,1.0,0.0,512.0,0.653749,,,,,,,,,,,,,,,,,,,,,,,,,
14956,1645582763.0391119,36.0,0.0,4518.461426,4309.743652,4290.769043,4291.282227000001,4480.512695,0.0,4.0,95.0,,,,0.0,4.0,4.0,2.0,4.0,4.0,83.333336,,,,,,,,18.0,0.0,0.468451,-0.28418000000000004,0.581055,0.601807,0.8964979999999999,-0.427253,-0.167483,-0.033793000000000004,-0.037165,-0.032582,,,,,,,,,,,,,,,,,,,,,,,,,,,,,,,,,,,,,,,,,,,,,,,,,,,,,,,,,,,,,,,,,
14957,1645582763.046928,37.0,0.0,4477.436035,4200.512695,4324.615234000001,4316.922852000001,4421.025879,0.0,4.0,95.0,,,,0.0,4.0,4.0,2.0,4.0,4.0,83.333336,,,,,,,,,,,,,,,,,,,,,,,,,,,,,,,,,,,,,,,,,,,,,,,,,,,,,,,,,,,,,,,,,,,,,,,,,,,,,,,,,,,,
14958,1645582763.054744,38.0,0.0,4385.641113000001,4136.410156,4317.94873,4385.641113000001,4335.384765999999,0.0,4.0,95.0,,,,0.0,4.0,4.0,2.0,4.0,4.0,83.333336,,,,,,,,19.0,0.0,0.468599,-0.283936,0.581055,0.601807,0.890639,-0.437018,-0.15967,-0.033734,-0.037159,-0.028298,,,,,,,,,,,,,,,,,,,,,,,,,,,,,,,,,,,,,,,,,,,,,,,,,,,,,,,,,,,,,,,,,
14959,1645582763.062559,39.0,0.0,4320.512695,4137.94873,4294.871582,4432.307617,4296.410156,0.0,4.0,95.0,,,,0.0,4.0,4.0,2.0,4.0,4.0,83.333336,,,,,,,,,,,,,,,,,,,,,,,,,,,,,,,,,,,,,,,,,,,,,,,,,,,,,,10.0,0.0,1.0,0.0,512.0,0.653749,,,,,,,,,,,,,,,,,,,,,,,,,
14960,1645582763.070375,40.0,0.0,4338.461426,4287.179688,4311.794922,4434.358886999999,4315.384765999999,0.0,4.0,95.0,,,,0.0,4.0,4.0,2.0,4.0,4.0,83.333336,,,,,,,,20.0,0.0,0.468747,-0.28369099999999997,0.581055,0.601807,0.890639,-0.42090500000000003,-0.1626,-0.033779,-0.037154,-0.030545999999999997,,,,,,,,,,,,,,,,,,,,,,,,,,,,,,,,,,,,,,,,,,,,,,,,,,,,,,,,,,,,,,,,,
14961,1645582763.07819,41.0,0.0,4379.487305,4481.025879,4341.538574,4417.94873,4345.128418,0.0,4.0,95.0,,,,0.0,4.0,4.0,2.0,4.0,4.0,83.333336,,,,,,,,,,,,,,,,,,,,,,,,,,,,,,,,,,,,,,,,,,,,,,,,,,,,,,,,,,,,,,,,,,,,,,,,,,,,,,,,,,,,
14962,1645582763.0860062,42.0,0.0,4404.615234000001,4593.846191,4317.94873,4337.436035,4382.05127,0.0,4.0,95.0,,,,0.0,4.0,4.0,2.0,4.0,4.0,83.333336,,,,,,,,21.0,0.0,0.46827799999999997,-0.283447,0.581299,0.602051,0.894545,-0.422858,-0.163088,-0.03377,-0.037101,-0.026466000000000003,,,,,,,,,,,,,,,,,,,,,,,,,,,,,,,,,,,,,,,,,,,,,,,,,,,,,,,,,,,,,,,,,
14963,1645582763.093822,43.0,0.0,4400.0,4628.717772999999,4243.077147999999,4221.538574,4402.563965,0.0,4.0,95.0,,,,0.0,4.0,4.0,2.0,4.0,4.0,83.333336,,,,,,,,,,,,,,,,,,,,,,,,,,,,,,,,,,,,,,,,,,,,,,,,,,,,,,10.0,0.0,1.0,0.0,512.0,0.653749,,,,,,,,,,,,,,,,,,,,,,,,,
14964,1645582763.101637,44.0,0.0,4375.897461,4565.641113000001,4169.743652,4205.128418,4389.230957,0.0,4.0,95.0,,,,0.0,4.0,4.0,2.0,4.0,4.0,83.333336,,,,,,,,22.0,0.0,0.4678,-0.282715,0.5817869999999999,0.602295,0.8833139999999999,-0.42822899999999997,-0.16211199999999998,-0.033762,-0.037101999999999996,-0.028947000000000004,,,,,,,,,,,,,,,,,,,,,,,,,,,,,,,,,,,,,,,,,,,,,,,,,,,,,,,,,,,,,,,,,
14965,1645582763.1095529,45.0,0.0,4386.666504,4454.358886999999,4136.922852000001,4261.538574,4382.563965,0.0,4.0,95.0,,,,0.0,4.0,4.0,2.0,4.0,4.0,83.333336,,,,,,,,,,,,,,,,,,,,,,,,,,,,,,,,,,,,,,,,,,,,,,,,,,,,,,,,,,,,,,,,,,,,,,,,,,,,,,,,,,,,
14966,1645582763.117368,46.0,0.0,4454.871582,4405.641113000001,4108.717772999999,4269.743652,4425.641113000001,0.0,4.0,95.0,,,,0.0,4.0,4.0,2.0,4.0,4.0,83.333336,,,,,,,,23.0,0.0,0.46747700000000003,-0.282227,0.5820310000000001,0.602539,0.8881969999999999,-0.437507,-0.158694,-0.033706,-0.037152,-0.025027,,,,,,,,,,,,,,,,,,,,,,,,,,,,,,,,,,,,,,,,,,,,,,,,,,,,,,,,,,,,,,,,,
14967,1645582763.125184,47.0,0.0,4485.641113000001,4414.358886999999,4072.3076170000004,4277.94873,4510.256348,0.0,4.0,95.0,,,,0.0,4.0,4.0,2.0,4.0,4.0,83.333336,1.0,8.333333,1.0,0.0,0.0,1.0,1.0,,,,,,,,,,,,,1.0,0.0,0.0,,,,,,,,,,,,,,,,,,,,,,,,,,,,,,,,10.0,0.0,1.0,0.0,512.0,0.747602,126.95603899999999,60.535393000000006,95.322289,19.977604,8.468917999999999,517.890198,482.564178,516.451416,203.536392,72.12849399999999,129.943329,197.257462,164.149994,27.116621000000002,10.274652,106.751579,131.966064,84.263603,9.696750999999999,7.7774149999999995,119.86956799999999,68.786163,93.322296,12.462873,9.630085000000001
14968,1645582763.132999,48.0,0.0,4464.102539,4285.128418,4166.666504,4374.871582,4549.743652,0.0,4.0,95.0,,,,0.0,4.0,4.0,2.0,4.0,4.0,83.333336,,,,,,,,24.0,0.0,0.467467,-0.281738,0.582275,0.602539,0.902358,-0.45361999999999997,-0.1626,-0.033754,-0.037245,-0.027651,,,,,,,,,,,,,,,,,,,,,,,,,,,,,,,,,,,,,,,,,,,,,,,,,,,,,,,,,,,,,,,,,
14969,1645582763.140815,49.0,0.0,4583.077147999999,4166.666504,4325.641113000001,4421.538574,4553.333496,0.0,4.0,95.0,,,,0.0,4.0,4.0,2.0,4.0,4.0,83.333336,,,,,,,,,,,,,,,,,,,,,,,,,,,,,,,,,,,,,,,,,,,,,,,,,,,,,,,,,,,,,,,,,,,,,,,,,,,,,,,,,,,,
14970,1645582763.148631,50.0,0.0,4772.820313,4223.589844,4267.179688,4326.153809,4629.743652,0.0,4.0,95.0,,,,0.0,4.0,4.0,2.0,4.0,4.0,83.333336,,,,,,,,25.0,0.0,0.46731000000000006,-0.281494,0.5825199999999999,0.602539,0.9087049999999999,-0.45215500000000003,-0.15820599999999999,-0.03365,-0.037377999999999995,-0.023861,,,,,,,,,,,,,,,,,,,,,,,,,,,,,,,,,,,,,,,,,,,,,,,,,,,,,,,,,,,,,,,,,
14971,1645582763.156446,51.0,0.0,4757.94873,4310.256348,4182.05127,4297.94873,4692.307617,0.0,4.0,95.0,,,,0.0,4.0,4.0,2.0,4.0,4.0,83.333336,,,,,,,,,,,,,,,,,,,,,,,,,,,,,,,,,,,,,,,,,,,,,,,,,,,,,,10.0,0.0,1.0,0.0,512.0,0.747602,,,,,,,,,,,,,,,,,,,,,,,,,
14972,1645582763.1642618,52.0,0.0,4708.205078,4441.538574,4269.230957,4335.384765999999,4665.128418,0.0,4.0,95.0,,,,0.0,4.0,4.0,2.0,4.0,4.0,83.333336,,,,,,,,26.0,0.0,0.467625,-0.281494,0.5825199999999999,0.602295,0.8813610000000001,-0.45948,-0.167971,-0.033703,-0.037449,-0.02665,,,,,,,,,,,,,,,,,,,,,,,,,,,,,,,,,,,,,,,,,,,,,,,,,,,,,,,,,,,,,,,,,
14973,1645582763.172077,53.0,0.0,4774.871582,4550.256348,4256.410156,4306.153809,4675.897461,0.0,4.0,95.0,,,,0.0,4.0,4.0,2.0,4.0,4.0,83.333336,,,,,,,,,,,,,,,,,,,,,,,,,,,,,,,,,,,,,,,,,,,,,,,,,,,,,,,,,,,,,,,,,,,,,,,,,,,,,,,,,,,,
14974,1645582763.179893,54.0,0.0,4779.487305,4551.282227000001,4195.897461,4310.256348,4701.538574,0.0,4.0,95.0,,,,0.0,4.0,4.0,2.0,4.0,4.0,83.333336,,,,,,,,27.0,0.0,0.468096,-0.281738,0.582275,0.602051,0.882826,-0.440925,-0.15332300000000001,-0.033750999999999996,-0.037415,-0.029161000000000003,,,,,,,,,,,,,,,,,,,,,,,,,,,,,,,,,,,,,,,,,,,,,,,,,,,,,,,,,,,,,,,,,
14975,1645582763.187809,55.0,0.0,4769.230957,4540.0,4236.922852000001,4333.846191,4690.256348,0.0,4.0,95.0,,,,0.0,4.0,4.0,2.0,4.0,4.0,83.333336,,,,,,,,,,,,,,,,,,,,,,,,,,,,,,,,,,,,,,,,,,,,,,,,,,,,,,10.0,0.0,1.0,0.0,512.0,0.747602,,,,,,,,,,,,,,,,,,,,,,,,,
14976,1645582763.195624,56.0,0.0,4784.615234000001,4535.384765999999,4220.512695,4326.666504,4725.641113000001,0.0,4.0,95.0,,,,0.0,4.0,4.0,2.0,4.0,4.0,83.333336,,,,,,,,28.0,0.0,0.46841000000000005,-0.281738,0.582275,0.601807,0.885267,-0.45606199999999997,-0.163577,-0.033598,-0.037433,-0.025122,,,,,,,,,,,,,,,,,,,,,,,,,,,,,,,,,,,,,,,,,,,,,,,,,,,,,,,,,,,,,,,,,
14977,1645582763.20344,57.0,0.0,4711.282227000001,4520.512695,4221.025879,4337.94873,4728.717772999999,0.0,4.0,95.0,,,,0.0,4.0,4.0,2.0,4.0,4.0,83.333336,,,,,,,,,,,,,,,,,,,,,,,,,,,,,,,,,,,,,,,,,,,,,,,,,,,,,,,,,,,,,,,,,,,,,,,,,,,,,,,,,,,,
14978,1645582763.211255,58.0,0.0,4657.436035,4571.794922,4283.589844,4293.333496,4661.025879,0.0,4.0,95.0,,,,0.0,4.0,4.0,2.0,4.0,4.0,83.333336,,,,,,,,29.0,0.0,0.468566,-0.281982,0.5820310000000001,0.601807,0.8916149999999999,-0.45020200000000005,-0.16552999999999998,-0.033559,-0.03745,-0.027688,,,,,,,,,,,,,,,,,,,,,,,,,,,,,,,,,,,,,,,,,,,,,,,,,,,,,,,,,,,,,,,,,
14979,1645582763.2190711,59.0,0.0,4636.410156,4551.282227000001,4203.589844,4225.641113000001,4660.512695,0.0,4.0,95.0,,,,0.0,4.0,4.0,2.0,4.0,4.0,83.333336,,,,,,,,,,,,,,,,,,,,,,,,,,,,,,,,,,,,,,,,,,,,,,,,,,,,,,0.0,0.0,1.0,0.0,512.0,0.747602,,,,,,,,,,,,,,,,,,,,,,,,,
14980,1645582763.226887,60.0,0.0,4535.897461,4421.025879,4155.384765999999,4328.717772999999,4656.410156,0.0,4.0,95.0,,,,0.0,4.0,4.0,2.0,4.0,4.0,83.333336,,,,,,,,30.0,0.0,0.468722,-0.282227,0.5817869999999999,0.601807,0.891127,-0.43018199999999995,-0.16406500000000002,-0.033572000000000005,-0.037465,-0.030045999999999996,,,,,,,,,,,,,,,,,,,,,,,,,,,,,,,,,,,,,,,,,,,,,,,,,,,,,,,,,,,,,,,,,
14981,1645582763.2347019,61.0,0.0,4480.512695,4571.282227000001,4289.230957,4434.358886999999,4566.153809,0.0,4.0,95.0,,,,0.0,4.0,4.0,2.0,4.0,4.0,83.333336,,,,,,,,,,,,,,,,,,,,,,,,,,,,,,,,,,,,,,,,,,,,,,,,,,,,,,,,,,,,,,,,,,,,,,,,,,,,,,,,,,,,
14982,1645582763.242518,62.0,0.0,4500.0,4772.307617,4309.230957,4318.974121,4511.282227000001,0.0,4.0,95.0,,,,0.0,4.0,4.0,2.0,4.0,4.0,83.333336,,,,,,,,31.0,0.0,0.46841000000000005,-0.281738,0.582275,0.601807,0.885267,-0.45606199999999997,-0.163577,-0.033535,-0.037478,-0.025967,,,,,,,,,,,,,,,,,,,,,,,,,,,,,,,,,,,,,,,,,,,,,,,,,,,,,,,,,,,,,,,,,
14983,1645582763.250333,63.0,0.0,4499.487305,4590.769043,4180.0,4192.820313,4514.358886999999,0.0,4.0,95.0,,,,0.0,4.0,4.0,2.0,4.0,4.0,83.333336,,,,,,,,,,,,,,,,,,,,1.0,0.0,0.0,,,,,,,,,,,,,,,,,,,,,,,,,,,,,,,,10.0,0.0,1.0,0.0,512.0,0.889157,235.319412,47.764767,98.703857,23.193716000000002,10.019542,553.315796,457.615387,549.278015,219.82980299999997,66.68010699999999,131.93275500000001,200.57571399999998,162.44134499999998,28.074785,11.451174,112.316635,125.107918,77.01429,11.331923,9.10567,198.973251,64.655289,92.04454799999999,12.884443,10.364797
14984,1645582763.258149,64.0,0.0,4494.358886999999,4400.0,4087.6923829999996,4185.641113000001,4541.025879,450.0,4.0,95.0,,,,0.0,4.0,4.0,2.0,4.0,4.0,83.333336,,,,,,,,32.0,0.0,0.468722,-0.282227,0.5817869999999999,0.601807,0.891127,-0.43018199999999995,-0.16406500000000002,-0.033551,-0.037489999999999996,-0.028498000000000002,,,,,,,,,,,,,,,,,,,,,,,,,,,,,,,,,,,,,,,,,,,,,,,,,,,,,,,,,,,,,,,,,
14985,1645582763.2660642,65.0,0.0,4413.846191,4398.461426,4069.743652,4236.922852000001,4588.205078,450.0,4.0,95.0,,,,0.0,4.0,2.0,4.0,4.0,4.0,83.333336,,,,,,,,,,,,,,,,,,,,,,,,,,,,,,,,,,,,,,,,,,,,,,,,,,,,,,,,,,,,,,,,,,,,,,,,,,,,,,,,,,,,
14986,1645582763.27388,66.0,0.0,4278.974121,4284.615234000001,4137.436035,4309.743652,4561.538574,16254.0,4.0,95.0,,,,0.0,4.0,2.0,4.0,4.0,4.0,83.333336,,,,,,,,33.0,0.0,0.469025,-0.282227,0.581543,0.601807,0.8842909999999999,-0.437018,-0.157229,-0.033565,-0.03755,-0.030775,,,,,,,,,,,,,,,,,,,,,,,,,,,,,,,,,,,,,,,,,,,,,,,,,,,,,,,,,,,,,,,,,
14987,1645582763.281695,67.0,0.0,4236.922852000001,4155.384765999999,4226.153809,4355.897461,4446.666504,450.0,4.0,95.0,,,,0.0,4.0,2.0,4.0,4.0,4.0,83.333336,,,,,,,,,,,,,,,,,,,,,,,,,,,,,,,,,,,,,,,,,,,,,,,,,,,,,,10.0,0.0,1.0,0.0,512.0,0.889157,,,,,,,,,,,,,,,,,,,,,,,,,
14988,1645582763.28951,68.0,0.0,4224.615234000001,4261.025879,4261.538574,4383.077147999999,4362.05127,278.0,4.0,95.0,,,,0.0,4.0,2.0,4.0,4.0,4.0,83.333336,,,,,,,,34.0,0.0,0.46919099999999997,-0.282471,0.581543,0.601563,0.906752,-0.44971400000000006,-0.157717,-0.033578,-0.037555,-0.026672,,,,,,,,,,,,,,,,,,,,,,,,,,,,,,,,,,,,,,,,,,,,,,,,,,,,,,,,,,,,,,,,,
14989,1645582763.297326,69.0,0.0,4188.205078,4335.384765999999,4275.897461,4409.743652,4335.897461,450.0,4.0,95.0,,,,0.0,4.0,2.0,4.0,4.0,4.0,83.333336,,,,,,,,,,,,,,,,,,,,,,,,,,,,,,,,,,,,,,,,,,,,,,,,,,,,,,,,,,,,,,,,,,,,,,,,,,,,,,,,,,,,
14990,1645582763.305141,70.0,0.0,4204.615234000001,4277.94873,4293.333496,4418.461426,4311.282227000001,16150.0,4.0,95.0,,,,0.0,4.0,2.0,4.0,4.0,4.0,83.333336,,,,,,,,35.0,0.0,0.46949399999999997,-0.282471,0.581299,0.601563,0.897963,-0.446784,-0.175784,-0.033443,-0.037558999999999995,-0.029181,,,,,,,,,,,,,,,,,,,,,,,,,,,,,,,,,,,,,,,,,,,,,,,,,,,,,,,,,,,,,,,,,
14991,1645582763.312956,71.0,0.0,4223.077147999999,4355.384765999999,4304.102539,4406.666504,4302.05127,450.0,4.0,95.0,,,,0.0,4.0,2.0,4.0,4.0,4.0,83.333336,,,,,,,,,,,,,,,,,,,,,,,,,,,,,,,,,,,,,,,,,,,,,,,,,,,,,,10.0,0.0,1.0,0.0,512.0,0.889157,,,,,,,,,,,,,,,,,,,,,,,,,
14992,1645582763.3207722,72.0,0.0,4194.358886999999,4450.769043,4303.589844,4380.512695,4314.358886999999,450.0,4.0,95.0,,,,0.0,4.0,2.0,4.0,4.0,4.0,83.333336,,,,,,,,36.0,0.0,0.469347,-0.282715,0.581299,0.601563,0.9038219999999999,-0.437507,-0.160159,-0.03337,-0.037563,-0.025237,,,,,,,,,,,,,,,,,,,,,,,,,,,,,,,,,,,,,,,,,,,,,,,,,,,,,,,,,,,,,,,,,
14993,1645582763.3285868,73.0,0.0,4183.589844,4374.358886999999,4294.358886999999,4341.538574,4304.615234000001,16152.0,4.0,95.0,,,,0.0,4.0,2.0,4.0,4.0,4.0,83.333336,,,,,,,,,,,,,,,,,,,,,,,,,,,,,,,,,,,,,,,,,,,,,,,,,,,,,,,,,,,,,,,,,,,,,,,,,,,,,,,,,,,,
14994,1645582763.336503,74.0,0.0,4194.871582,4365.128418,4294.871582,4346.666504,4280.512695,450.0,4.0,95.0,,,,0.0,4.0,2.0,4.0,4.0,4.0,83.333336,,,,,,,,37.0,0.0,0.469347,-0.282715,0.581299,0.601563,0.8916149999999999,-0.447272,-0.167971,-0.033451,-0.037663999999999996,-0.021542,,,,,,,,,,,,,,,,,,,,,,,,,,,,,,,,,,,,,,,,,,,,,,,,,,,,,,,,,,,,,,,,,
14995,1645582763.344318,75.0,0.0,4191.794922,4488.205078,4310.769043,4381.538574,4288.205078,16213.0,4.0,95.0,,,,0.0,4.0,2.0,4.0,4.0,4.0,83.333336,,,,,,,,,,,,,,,,,,,,,,,,,,,,,,,,,,,,,,,,,,,,,,,,,,,,,,10.0,0.0,1.0,0.0,512.0,0.889157,,,,,,,,,,,,,,,,,,,,,,,,,
14996,1645582763.352134,76.0,0.0,4212.307617,4497.94873,4320.0,4345.128418,4308.205078,450.0,4.0,95.0,,,,0.0,4.0,2.0,4.0,4.0,4.0,83.333336,,,,,,,,38.0,0.0,0.469347,-0.282715,0.581299,0.601563,0.9087049999999999,-0.448737,-0.160647,-0.033475,-0.03756,-0.018264,,,,,,,,,,,,,,,,,,,,,,,,,,,,,,,,,,,,,,,,,,,,,,,,,,,,,,,,,,,,,,,,,
14997,1645582763.359949,77.0,0.0,4238.974121,4415.384765999999,4316.922852000001,4291.282227000001,4304.615234000001,450.0,4.0,95.0,,,,0.0,4.0,2.0,4.0,4.0,4.0,83.333336,,,,,,,,,,,,,,,,,,,,,,,,,,,,,,,,,,,,,,,,,,,,,,,,,,,,,,,,,,,,,,,,,,,,,,,,,,,,,,,,,,,,
14998,1645582763.367765,78.0,0.0,4212.307617,4481.538574,4324.615234000001,4305.641113000001,4293.333496,450.0,4.0,95.0,,,,0.0,4.0,2.0,4.0,4.0,4.0,83.333336,,,,,,,,39.0,0.0,0.4692,-0.282959,0.581299,0.601563,0.897475,-0.43799499999999997,-0.159182,-0.033497000000000006,-0.037515,-0.021565,,,,,,,,,,,,,,,,,,,,,,,,,,,,,,,,,,,,,,,,,,,,,,,,,,,,,,,,,,,,,,,,,
14999,1645582763.375581,79.0,0.0,4188.205078,4649.230957,4331.794922,4312.307617,4284.615234000001,16213.0,4.0,95.0,,,,0.0,4.0,2.0,4.0,4.0,4.0,83.333336,,,,,,,,,,,,,,,,,,,,1.0,0.0,0.0,,,,,,,,,,,,,,,,,,,,,,,,,,,,,,,,10.0,0.0,1.0,0.0,512.0,0.6831659999999999,418.111084,42.301826,94.731987,26.410971000000004,12.111238,527.4200440000001,426.447235,530.970215,225.03836099999998,62.183781,123.029602,206.512482,151.22065700000002,29.578457,14.940451000000001,104.712311,119.063927,67.107529,13.279335999999999,10.903468,314.570007,64.54271700000001,83.21169300000001,13.80345,11.567943
15000,1645582763.3833961,80.0,0.0,4203.589844,4528.717772999999,4325.641113000001,4287.692383,4281.538574,450.0,4.0,95.0,,,,0.0,4.0,2.0,4.0,4.0,4.0,83.333336,,,,,,,,40.0,0.0,0.4692,-0.282959,0.581299,0.601563,0.8847790000000001,-0.431647,-0.161624,-0.033516000000000004,-0.037523,-0.024633000000000002,,,,,,,,,,,,,,,,,,,,,,,,,,,,,,,,,,,,,,,,,,,,,,,,,,,,,,,,,,,,,,,,,
15001,1645582763.391212,81.0,0.0,4213.333496,4276.922852000001,4336.922852000001,4311.282227000001,4293.333496,450.0,4.0,95.0,,,,0.0,4.0,2.0,4.0,4.0,4.0,83.333336,,,,,,,,,,,,,,,,,,,,,,,,,,,,,,,,,,,,,,,,,,,,,,,,,,,,,,,,,,,,,,,,,,,,,,,,,,,,,,,,,,,,
15002,1645582763.3990269,82.0,0.0,4208.205078,4261.538574,4348.205078,4371.794922,4285.128418,450.0,4.0,95.0,,,,0.0,4.0,2.0,4.0,4.0,4.0,83.333336,,,,,,,,41.0,0.0,0.4692,-0.282959,0.581299,0.601563,0.8921030000000001,-0.435065,-0.158694,-0.033583,-0.037531,-0.027297000000000002,,,,,,,,,,,,,,,,,,,,,,,,,,,,,,,,,,,,,,,,,,,,,,,,,,,,,,,,,,,,,,,,,
15003,1645582763.406943,83.0,0.0,4184.102539,4235.897461,4319.487305,4404.102539,4237.94873,16213.0,4.0,95.0,,,,0.0,4.0,2.0,4.0,4.0,4.0,83.333336,,,,,,,,,,,,,,,,,,,,,,,,,,,,,,,,,,,,,,,,,,,,,,,,,,,,,,0.0,0.0,1.0,0.0,512.0,0.6831659999999999,,,,,,,,,,,,,,,,,,,,,,,,,
15004,1645582763.414758,84.0,0.0,4141.025879,4144.102539,4297.436035,4402.563965,4228.205078,450.0,4.0,95.0,,,,0.0,4.0,2.0,4.0,4.0,4.0,83.333336,,,,,,,,42.0,0.0,0.4692,-0.282959,0.581299,0.601563,0.8994280000000001,-0.43653000000000003,-0.158694,-0.033642,-0.03744,-0.023493,,,,,,,,,,,,,,,,,,,,,,,,,,,,,,,,,,,,,,,,,,,,,,,,,,,,,,,,,,,,,,,,,
15005,1645582763.422574,85.0,0.0,4142.05127,4309.230957,4323.077147999999,4384.615234000001,4265.128418,450.0,4.0,95.0,,,,0.0,4.0,2.0,4.0,4.0,4.0,83.333336,,,,,,,,,,,,,,,,,,,,,,,,,,,,,,,,,,,,,,,,,,,,,,,,,,,,,,,,,,,,,,,,,,,,,,,,,,,,,,,,,,,,
15006,1645582763.4303901,86.0,0.0,4176.410156,4516.922852000001,4342.05127,4343.077147999999,4256.922852000001,450.0,4.0,95.0,,,,0.0,4.0,2.0,4.0,4.0,4.0,83.333336,,,,,,,,43.0,0.0,0.4692,-0.282959,0.581299,0.601563,0.897475,-0.448737,-0.156252,-0.03355,-0.037407,-0.02632,,,,,,,,,,,,,,,,,,,,,,,,,,,,,,,,,,,,,,,,,,,,,,,,,,,,,,,,,,,,,,,,,
15007,1645582763.438205,87.0,0.0,4179.487305,4462.05127,4335.897461,4298.461426,4226.666504,16213.0,4.0,95.0,,,,0.0,4.0,2.0,4.0,4.0,4.0,83.333336,,,,,,,,,,,,,,,,,,,,,,,,,,,,,,,,,,,,,,,,,,,,,,,,,,,,,,0.0,0.0,1.0,0.0,512.0,0.6831659999999999,,,,,,,,,,,,,,,,,,,,,,,,,
15008,1645582763.446021,88.0,0.0,4184.615234000001,4429.230957,4342.05127,4311.282227000001,4238.461426,450.0,4.0,95.0,,,,0.0,4.0,2.0,4.0,4.0,4.0,83.333336,,,,,,,,44.0,0.0,0.4692,-0.282959,0.581299,0.601563,0.882826,-0.436042,-0.174319,-0.033662,-0.037426,-0.028814999999999997,,,,,,,,,,,,,,,,,,,,,,,,,,,,,,,,,,,,,,,,,,,,,,,,,,,,,,,,,,,,,,,,,
15009,1645582763.453836,89.0,0.0,4191.794922,4528.205078,4333.333496,4352.820313,4265.128418,450.0,4.0,95.0,,,,0.0,4.0,2.0,4.0,4.0,4.0,83.333336,,,,,,,,,,,,,,,,,,,,,,,,,,,,,,,,,,,,,,,,,,,,,,,,,,,,,,,,,,,,,,,,,,,,,,,,,,,,,,,,,,,,
15010,1645582763.461652,90.0,0.0,4162.05127,4628.717772999999,4305.128418,4314.358886999999,4261.025879,450.0,4.0,95.0,,,,0.0,4.0,2.0,4.0,4.0,4.0,83.333336,,,,,,,,45.0,0.0,0.4692,-0.282959,0.581299,0.601563,0.8872209999999999,-0.442878,-0.16894800000000001,-0.033762,-0.037297000000000004,-0.031108999999999998,,,,,,,,,,,,,,,,,,,,,,,,,,,,,,,,,,,,,,,,,,,,,,,,,,,,,,,,,,,,,,,,,
15011,1645582763.4694679,91.0,0.0,4151.282227000001,4671.794922,4309.743652,4259.487305,4227.692383,16213.0,4.0,95.0,,,,0.0,4.0,2.0,4.0,4.0,4.0,83.333336,,,,,,,,,,,,,,,,,,,,,,,,,,,,,,,,,,,,,,,,,,,,,,,,,,,,,,0.0,0.0,1.0,0.0,512.0,0.6831659999999999,,,,,,,,,,,,,,,,,,,,,,,,,
15012,1645582763.477383,92.0,0.0,4185.641113000001,4577.436035,4332.307617,4305.641113000001,4216.410156,450.0,4.0,95.0,,,,0.0,4.0,2.0,4.0,4.0,4.0,83.333336,,,,,,,,46.0,0.0,0.469347,-0.282715,0.581299,0.601563,0.8930799999999999,-0.43994799999999995,-0.16406500000000002,-0.033804,-0.037327,-0.033223,,,,,,,,,,,,,,,,,,,,,,,,,,,,,,,,,,,,,,,,,,,,,,,,,,,,,,,,,,,,,,,,,
15013,1645582763.485199,93.0,0.0,4203.589844,4545.128418,4328.717772999999,4344.615234000001,4224.102539,450.0,4.0,95.0,,,,0.0,4.0,2.0,4.0,4.0,4.0,83.333336,,,,,,,,,,,,,,,,,,,,,,,,,,,,,,,,,,,,,,,,,,,,,,,,,,,,,,,,,,,,,,,,,,,,,,,,,,,,,,,,,,,,
15014,1645582763.493014,94.0,0.0,4189.743652,4665.128418,4325.641113000001,4305.128418,4210.769043,450.0,4.0,95.0,,,,0.0,4.0,2.0,4.0,4.0,4.0,83.333336,,,,,,,,47.0,0.0,0.469347,-0.282715,0.581299,0.601563,0.894545,-0.441413,-0.15674100000000002,-0.033744,-0.037354000000000005,-0.028924000000000002,,,,,,,,,,,,,,,,,,,,,,,,,,,,,,,,,,,,,,,,,,,,,,,,,,,,,,,,,,,,,,,,,
15015,1645582763.5008302,95.0,0.0,4191.794922,4755.384765999999,4332.307617,4296.410156,4217.94873,16213.0,4.0,95.0,,,,0.0,4.0,2.0,4.0,4.0,4.0,83.333336,,,,,,,,,,,,,,,,,,,,1.0,0.0,0.0,,,,,,,,,,,,,,,,,,,,,,,,,,,,,,,,0.0,0.0,1.0,0.0,512.0,0.706685,684.399841,41.580795,84.243584,29.124989000000003,14.468043,453.075867,400.814758,467.967804,217.911407,59.357265000000005,105.86716499999999,201.36801100000002,130.23779299999998,32.054359000000005,20.649698,85.959877,110.85933700000001,56.769436,15.70399,13.173169,464.610779,64.037529,68.01445799999999,14.836267000000001,13.124614000000001
15016,1645582763.508646,96.0,0.0,4206.153809,4792.307617,4322.563965,4333.333496,4256.922852000001,450.0,4.0,95.0,,,,0.0,4.0,2.0,4.0,4.0,4.0,83.333336,,,,,,,,48.0,0.0,0.46949399999999997,-0.282471,0.581299,0.601563,0.898451,-0.43018199999999995,-0.166018,-0.033739,-0.03733,-0.031207,,,,,,,,,,,,,,,,,,,,,,,,,,,,,,,,,,,,,,,,,,,,,,,,,,,,,,,,,,,,,,,,,
15017,1645582763.516461,97.0,0.0,4193.846191,4832.820313,4317.436035,4331.794922,4242.563965,450.0,4.0,95.0,,,,0.0,4.0,2.0,4.0,4.0,4.0,83.333336,,,,,,,,,,,,,,,,,,,,,,,,,,,,,,,,,,,,,,,,,,,,,,,,,,,,,,,,,,,,,,,,,,,,,,,,,,,,,,,,,,,,
15018,1645582763.524277,98.0,0.0,4174.358886999999,4750.256348,4322.563965,4300.0,4194.871582,450.0,4.0,95.0,,,,0.0,4.0,2.0,4.0,4.0,4.0,83.333336,,,,,,,,49.0,0.0,0.46949399999999997,-0.282471,0.581299,0.601563,0.897475,-0.43799499999999997,-0.169436,-0.033832,-0.037308,-0.033263,,,,,,,,,,,,,,,,,,,,,,,,,,,,,,,,,,,,,,,,,,,,,,,,,,,,,,,,,,,,,,,,,
15019,1645582763.532092,99.0,0.0,4185.641113000001,4608.205078,4304.615234000001,4272.820313,4215.384765999999,16213.0,4.0,95.0,,,,0.0,4.0,2.0,4.0,4.0,4.0,83.333336,,,,,,,,,,,,,,,,,,,,,,,,,,,,,,,,,,,,,,,,,,,,,,,,,,,,,,0.0,0.0,1.0,0.0,512.0,0.706685,,,,,,,,,,,,,,,,,,,,,,,,,
15020,1645582763.539908,100.0,0.0,4202.05127,4642.563965,4298.974121,4265.641113000001,4242.563965,450.0,4.0,95.0,,,,0.0,4.0,2.0,4.0,4.0,4.0,83.333336,,,,,,,,50.0,0.0,0.46994300000000006,-0.282227,0.581055,0.601563,0.901869,-0.44190100000000004,-0.167971,-0.033769,-0.037433999999999995,-0.028911000000000003,,,,,,,,,,,,,,,,,,,,,,,,,,,,,,,,,,,,,,,,,,,,,,,,,,,,,,,,,,,,,,,,,
15021,1645582763.547724,101.0,0.0,4200.0,4741.538574,4331.794922,4310.256348,4210.769043,450.0,4.0,95.0,,,,0.0,4.0,2.0,4.0,4.0,4.0,83.333336,,,,,,,,,,,,,,,,,,,,,,,,,,,,,,,,,,,,,,,,,,,,,,,,,,,,,,,,,,,,,,,,,,,,,,,,,,,,,,,,,,,,
15022,1645582763.555639,102.0,0.0,4187.692383,4720.0,4343.589844,4348.205078,4192.820313,450.0,4.0,95.0,,,,0.0,4.0,2.0,4.0,4.0,4.0,83.333336,,,,,,,,51.0,0.0,0.46994300000000006,-0.282227,0.581055,0.601563,0.904799,-0.448737,-0.169436,-0.033761,-0.037451,-0.024946,,,,,,,,,,,,,,,,,,,,,,,,,,,,,,,,,,,,,,,,,,,,,,,,,,,,,,,,,,,,,,,,,
15023,1645582763.563455,103.0,0.0,4173.846191,4668.205078,4330.256348,4354.871582,4208.205078,16213.0,4.0,95.0,,,,0.0,4.0,2.0,4.0,4.0,4.0,83.333336,,,,,,,,,,,,,,,,,,,,,,,,,,,,,,,,,,,,,,,,,,,,,,,,,,,,,,0.0,0.0,1.0,0.0,512.0,0.706685,,,,,,,,,,,,,,,,,,,,,,,,,
15024,1645582763.57127,104.0,0.0,4174.871582,4739.487305,4326.153809,4368.717772999999,4210.256348,450.0,4.0,95.0,,,,0.0,4.0,2.0,4.0,4.0,4.0,83.333336,,,,,,,,52.0,0.0,0.46994300000000006,-0.282227,0.581055,0.601563,0.897475,-0.44971400000000006,-0.17236600000000002,-0.033705,-0.037417,-0.027676,,,,,,,,,,,,,,,,,,,,,,,,,,,,,,,,,,,,,,,,,,,,,,,,,,,,,,,,,,,,,,,,,
15025,1645582763.5790858,105.0,0.0,4190.769043,4917.94873,4316.922852000001,4353.333496,4214.871582,450.0,4.0,95.0,,,,0.0,4.0,2.0,4.0,4.0,4.0,83.333336,,,,,,,,,,,,,,,,,,,,,,,,,,,,,,,,,,,,,,,,,,,,,,,,,,,,,,,,,,,,,,,,,,,,,,,,,,,,,,,,,,,,
15026,1645582763.586901,106.0,0.0,4211.282227000001,4973.333496,4303.589844,4300.0,4242.563965,450.0,4.0,95.0,,,,0.0,4.0,2.0,4.0,4.0,4.0,83.333336,,,,,,,,53.0,0.0,0.469641,-0.282227,0.581299,0.601563,0.889174,-0.4336,-0.165042,-0.033655000000000004,-0.037531999999999996,-0.023883,,,,,,,,,,,,,,,,,,,,,,,,,,,,,,,,,,,,,,,,,,,,,,,,,,,,,,,,,,,,,,,,,
15027,1645582763.594717,107.0,0.0,4230.769043,4841.538574,4312.820313,4276.922852000001,4244.102539,16213.0,4.0,95.0,,,,0.0,4.0,2.0,4.0,4.0,4.0,83.333336,,,,,,,,,,,,,,,,,,,,,,,,,,,,,,,,,,,,,,,,,,,,,,,,,,,,,,0.0,0.0,1.0,0.0,512.0,0.706685,,,,,,,,,,,,,,,,,,,,,,,,,
15028,1645582763.602533,108.0,0.0,4227.179688,4770.256348,4329.743652,4270.769043,4197.94873,450.0,4.0,95.0,,,,0.0,4.0,2.0,4.0,4.0,4.0,83.333336,,,,,,,,54.0,0.0,0.469641,-0.282227,0.581299,0.601563,0.8896620000000001,-0.44531899999999996,-0.166018,-0.033757,-0.037441,-0.026719,,,,,,,,,,,,,,,,,,,,,,,,,,,,,,,,,,,,,,,,,,,,,,,,,,,,,,,,,,,,,,,,,
15029,1645582763.610348,109.0,0.0,4206.153809,4768.205078,4338.461426,4264.615234000001,4167.692383,450.0,4.0,95.0,,,,0.0,4.0,2.0,4.0,4.0,4.0,83.333336,,,,,,,,,,,,,,,,,,,,,,,,,,,,,,,,,,,,,,,,,,,,,,,,,,,,,,,,,,,,,,,,,,,,,,,,,,,,,,,,,,,,
15030,1645582763.618164,110.0,0.0,4208.205078,4615.897461,4339.487305,4315.384765999999,4196.410156,450.0,4.0,95.0,,,,0.0,4.0,2.0,4.0,4.0,4.0,83.333336,,,,,,,,55.0,0.0,0.46995299999999995,-0.282227,0.581299,0.601318,0.8886850000000001,-0.441413,-0.14648699999999998,-0.033701,-0.037457,-0.022973,,,,,,,,,,,,,,,,,,,,,,,,,,,,,,,,,,,,,,,,,,,,,,,,,,,,,,,,,,,,,,,,,
15031,1645582763.6260788,111.0,0.0,4223.589844,4485.128418,4329.743652,4351.282227000001,4242.563965,16213.0,4.0,95.0,,,,0.0,4.0,2.0,4.0,4.0,4.0,83.333336,1.0,16.666666,1.0,0.0,1.0,1.0,1.0,,,,,,,,,,,,,1.0,0.0,0.0,,,,,,,,,,,,,,,,,,,,,,,,,,,,,,,,0.0,0.0,1.0,0.0,512.0,1.0,1004.157898,43.091384999999995,70.53933,31.033018,16.563702,363.722443,390.941315,383.287079,199.887451,57.987774,85.76469399999999,178.87841799999998,104.801735,35.189259,27.293739000000002,61.99306899999999,100.13401,49.117439000000005,18.713982,15.632501000000001,627.589355,59.740448,50.193882,16.019112,14.613670999999998
15032,1645582763.633895,112.0,0.0,4211.794922,4496.410156,4330.256348,4323.589844,4219.487305,450.0,4.0,95.0,,,,0.0,4.0,2.0,4.0,4.0,4.0,83.333336,,,,,,,,56.0,0.0,0.46995299999999995,-0.282227,0.581299,0.601318,0.890639,-0.43897200000000003,-0.157229,-0.033602999999999994,-0.037374,-0.0259,,,,,,,,,,,,,,,,,,,,,,,,,,,,,,,,,,,,,,,,,,,,,,,,,,,,,,,,,,,,,,,,,
15033,1645582763.641711,113.0,0.0,4177.436035,4420.512695,4331.794922,4331.794922,4163.077147999999,450.0,4.0,95.0,,,,0.0,4.0,2.0,4.0,4.0,4.0,83.333336,,,,,,,,,,,,,,,,,,,,,,,,,,,,,,,,,,,,,,,,,,,,,,,,,,,,,,,,,,,,,,,,,,,,,,,,,,,,,,,,,,,,
15034,1645582763.649526,114.0,0.0,4169.743652,4408.205078,4323.077147999999,4377.94873,4175.384765999999,450.0,4.0,95.0,,,,0.0,4.0,2.0,4.0,4.0,4.0,83.333336,,,,,,,,57.0,0.0,0.469807,-0.282471,0.581299,0.601318,0.8896620000000001,-0.43653000000000003,-0.161135,-0.033563,-0.037396,-0.028535,,,,,,,,,,,,,,,,,,,,,,,,,,,,,,,,,,,,,,,,,,,,,,,,,,,,,,,,,,,,,,,,,
15035,1645582763.657342,115.0,0.0,4206.666504,4572.307617,4328.205078,4396.922852000001,4201.025879,16213.0,4.0,95.0,,,,0.0,4.0,2.0,4.0,4.0,4.0,83.333336,,,,,,,,,,,,,,,,,,,,,,,,,,,,,,,,,,,,,,,,,,,,,,,,,,,,,,0.0,0.0,1.0,0.0,512.0,1.0,,,,,,,,,,,,,,,,,,,,,,,,,
15036,1645582763.665157,116.0,0.0,4232.307617,4600.0,4342.05127,4384.615234000001,4202.563965,450.0,4.0,95.0,,,,0.0,4.0,2.0,4.0,4.0,4.0,83.333336,,,,,,,,58.0,0.0,0.46995299999999995,-0.282227,0.581299,0.601318,0.8955209999999999,-0.431647,-0.170413,-0.033625,-0.037416000000000005,-0.024656,,,,,,,,,,,,,,,,,,,,,,,,,,,,,,,,,,,,,,,,,,,,,,,,,,,,,,,,,,,,,,,,,
15037,1645582763.6729732,117.0,0.0,4222.05127,4507.179688,4347.179688,4348.717772999999,4231.794922,450.0,4.0,95.0,,,,0.0,4.0,2.0,4.0,4.0,4.0,83.333336,,,,,,,,,,,,,,,,,,,,,,,,,,,,,,,,,,,,,,,,,,,,,,,,,,,,,,,,,,,,,,,,,,,,,,,,,,,,,,,,,,,,
15038,1645582763.680789,118.0,0.0,4227.692383,4467.692383,4353.333496,4334.358886999999,4247.692383,450.0,4.0,95.0,,,,0.0,4.0,2.0,4.0,4.0,4.0,83.333336,,,,,,,,59.0,0.0,0.46995299999999995,-0.282227,0.581299,0.601318,0.890639,-0.43897200000000003,-0.157229,-0.033777999999999996,-0.037482999999999995,-0.021067,,,,,,,,,,,,,,,,,,,,,,,,,,,,,,,,,,,,,,,,,,,,,,,,,,,,,,,,,,,,,,,,,
15039,1645582763.6886039,119.0,0.0,4232.820313,4406.666504,4339.487305,4373.846191,4209.743652,16213.0,4.0,95.0,,,,0.0,4.0,2.0,4.0,4.0,4.0,83.333336,,,,,,,,,,,,,,,,,,,,,,,,,,,,,,,,,,,,,,,,,,,,,,,,,,,,,,0.0,0.0,1.0,0.0,512.0,1.0,,,,,,,,,,,,,,,,,,,,,,,,,
15040,1645582763.6965199,120.0,0.0,4202.05127,4417.436035,4314.358886999999,4394.871582,4193.846191,450.0,4.0,95.0,,,,0.0,4.0,2.0,4.0,4.0,4.0,83.333336,,,,,,,,60.0,0.0,0.46995299999999995,-0.282227,0.581299,0.601318,0.8955209999999999,-0.431647,-0.170413,-0.033818,-0.037495,-0.017935,,,,,,,,,,,,,,,,,,,,,,,,,,,,,,,,,,,,,,,,,,,,,,,,,,,,,,,,,,,,,,,,,
15041,1645582763.704335,121.0,0.0,4178.974121,4514.358886999999,4322.563965,4381.025879,4210.256348,450.0,4.0,95.0,,,,0.0,4.0,2.0,4.0,4.0,4.0,83.333336,,,,,,,,,,,,,,,,,,,,,,,,,,,,,,,,,,,,,,,,,,,,,,,,,,,,,,,,,,,,,,,,,,,,,,,,,,,,,,,,,,,,
15042,1645582763.712151,122.0,0.0,4190.256348,4458.461426,4336.410156,4398.974121,4202.563965,450.0,4.0,95.0,,,,0.0,4.0,2.0,4.0,4.0,4.0,83.333336,,,,,,,,61.0,0.0,0.47025500000000003,-0.282227,0.581055,0.601318,0.8896620000000001,-0.43946,-0.169436,-0.033951999999999996,-0.037554000000000004,-0.015019,,,,,,,,,,,,,,,,,,,,,,,,,,,,,,,,,,,,,,,,,,,,,,,,,,,,,,,,,,,,,,,,,
15043,1645582763.719966,123.0,0.0,4212.307617,4413.846191,4329.743652,4415.897461,4195.384765999999,16213.0,4.0,95.0,,,,0.0,4.0,2.0,4.0,4.0,4.0,83.333336,,,,,,,,,,,,,,,,,,,,,,,,,,,,,,,,,,,,,,,,,,,,,,,,,,,,,,0.0,0.0,1.0,0.0,512.0,1.0,,,,,,,,,,,,,,,,,,,,,,,,,
15044,1645582763.727782,124.0,0.0,4219.487305,4535.384765999999,4335.384765999999,4370.769043,4201.538574,450.0,4.0,95.0,,,,0.0,4.0,2.0,4.0,4.0,4.0,83.333336,,,,,,,,62.0,0.0,0.47025500000000003,-0.282227,0.581055,0.601318,0.890639,-0.43946,-0.15820599999999999,-0.033926,-0.037607,-0.012443000000000001,,,,,,,,,,,,,,,,,,,,,,,,,,,,,,,,,,,,,,,,,,,,,,,,,,,,,,,,,,,,,,,,,
15045,1645582763.735598,125.0,0.0,4218.461426,4619.487305,4347.692383,4306.666504,4211.282227000001,450.0,4.0,95.0,,,,0.0,4.0,2.0,4.0,4.0,4.0,83.333336,,,,,,,,,,,,,,,,,,,,,,,,,,,,,,,,,,,,,,,,,,,,,,,,,,,,,,,,,,,,,,,,,,,,,,,,,,,,,,,,,,,,
15046,1645582763.743413,126.0,0.0,4225.128418,4611.794922,4348.205078,4304.102539,4236.922852000001,450.0,4.0,95.0,,,,0.0,4.0,2.0,4.0,4.0,4.0,83.333336,,,,,,,,63.0,0.0,0.47025500000000003,-0.282227,0.581055,0.601318,0.882826,-0.435065,-0.161624,-0.033951,-0.037655,-0.016374,,,,,,,,,,,,,,,,,,,,,,,,,,,,,,,,,,,,,,,,,,,,,,,,,,,,,,,,,,,,,,,,,
15047,1645582763.7512288,127.0,0.0,4218.974121,4581.538574,4347.692383,4371.282227000001,4225.128418,243.0,4.0,95.0,,,,0.0,4.0,2.0,4.0,4.0,4.0,83.333336,,,,,,,,,,,,,,,,,,,,1.0,0.0,0.0,,,,,,,,,,,,,,,,,,,,,,,,,,,,,,,,0.0,0.0,1.0,0.0,512.0,1.0,1308.5233150000001,44.622143,57.5061,31.844994,17.802629,296.22226,400.335327,306.403687,175.950439,57.252196999999995,68.775711,142.691284,82.008156,37.899178000000006,32.830059000000006,40.215610999999996,89.68219,46.452721000000004,22.100365,17.733604,767.413879,51.001175,34.165524,17.33853,15.493042
15048,1645582763.759044,0.0,0.0,4187.692383,4634.871582,4335.384765999999,4400.512695,4175.897461,450.0,4.0,95.0,,,,0.0,4.0,2.0,4.0,4.0,4.0,83.333336,,,,,,,,0.0,0.0,0.47040200000000004,-0.281982,0.581055,0.601318,0.8964979999999999,-0.43018199999999995,-0.161135,-0.033877,-0.037551999999999995,-0.019913,,,,,,,,,,,,,,,,,,,,,,,,,,,,,,,,,,,,,,,,,,,,,,,,,,,,,,,,,,,,,,,,,
15049,1645582763.76696,1.0,0.0,4173.846191,4741.538574,4323.077147999999,4344.102539,4177.436035,450.0,4.0,95.0,,,,0.0,4.0,2.0,4.0,4.0,4.0,83.333336,,,,,,,,,,,,,,,,,,,,,,,,,,,,,,,,,,,,,,,,,,,,,,,,,,,,,,,,,,,,,,,,,,,,,,,,,,,,,,,,,,,,
15050,1645582763.774776,2.0,0.0,4204.615234000001,4668.205078,4343.077147999999,4320.512695,4225.128418,16242.0,4.0,95.0,,,,0.0,4.0,2.0,4.0,4.0,4.0,83.333336,,,,,,,,1.0,0.0,0.47040200000000004,-0.281982,0.581055,0.601318,0.8989389999999999,-0.43653000000000003,-0.176272,-0.033858,-0.037508,-0.023048,,,,,,,,,,,,,,,,,,,,,,,,,,,,,,,,,,,,,,,,,,,,,,,,,,,,,,,,,,,,,,,,,
15051,1645582763.782591,3.0,0.0,4247.179688,4483.077147999999,4357.94873,4333.846191,4247.179688,450.0,4.0,95.0,,,,0.0,4.0,2.0,4.0,4.0,4.0,83.333336,,,,,,,,,,,,,,,,,,,,,,,,,,,,,,,,,,,,,,,,,,,,,,,,,,,,,,0.0,0.0,1.0,0.0,512.0,1.0,,,,,,,,,,,,,,,,,,,,,,,,,
15052,1645582763.790507,4.0,0.0,4273.846191,4425.128418,4333.333496,4271.794922,4240.0,276.0,4.0,95.0,,,,0.0,4.0,2.0,4.0,4.0,4.0,83.333336,,,,,,,,2.0,0.0,0.470246,-0.281738,0.581299,0.601318,0.89015,-0.43897200000000003,-0.165042,-0.033988,-0.037614,-0.019718,,,,,,,,,,,,,,,,,,,,,,,,,,,,,,,,,,,,,,,,,,,,,,,,,,,,,,,,,,,,,,,,,
15053,1645582763.798322,5.0,0.0,4291.794922,4410.256348,4302.563965,4227.179688,4249.230957,450.0,4.0,95.0,,,,0.0,4.0,2.0,4.0,4.0,4.0,83.333336,,,,,,,,,,,,,,,,,,,,,,,,,,,,,,,,,,,,,,,,,,,,,,,,,,,,,,,,,,,,,,,,,,,,,,,,,,,,,,,,,,,,
15054,1645582763.8062382,6.0,0.0,4284.615234000001,4337.94873,4303.077147999999,4275.897461,4275.897461,16167.0,4.0,95.0,,,,0.0,4.0,2.0,4.0,4.0,4.0,83.333336,,,,,,,,3.0,0.0,0.470246,-0.281738,0.581299,0.601318,0.895033,-0.433112,-0.166995,-0.03391,-0.037662,-0.02302,,,,,,,,,,,,,,,,,,,,,,,,,,,,,,,,,,,,,,,,,,,,,,,,,,,,,,,,,,,,,,,,,
15055,1645582763.8140528,7.0,0.0,4247.179688,4340.0,4314.358886999999,4292.307617,4270.769043,450.0,4.0,95.0,,,,0.0,4.0,2.0,4.0,4.0,4.0,83.333336,,,,,,,,,,,,,,,,,,,,,,,,,,,,,,,,,,,,,,,,,,,,,,,,,,,,,,0.0,0.0,1.0,0.0,512.0,1.0,,,,,,,,,,,,,,,,,,,,,,,,,
15056,1645582763.821869,8.0,0.0,4228.205078,4489.743652,4310.256348,4270.256348,4223.589844,450.0,4.0,95.0,,,,0.0,4.0,2.0,4.0,4.0,4.0,83.333336,,,,,,,,4.0,0.0,0.469934,-0.281738,0.581299,0.601563,0.8847790000000001,-0.437018,-0.160159,-0.033985,-0.037655,-0.019644,,,,,,,,,,,,,,,,,,,,,,,,,,,,,,,,,,,,,,,,,,,,,,,,,,,,,,,,,,,,,,,,,
15057,1645582763.829685,9.0,0.0,4253.333496,4619.487305,4300.512695,4285.128418,4212.820313,16168.0,4.0,95.0,,,,0.0,4.0,2.0,4.0,4.0,4.0,83.333336,,,,,,,,,,,,,,,,,,,,,,,,,,,,,,,,,,,,,,,,,,,,,,,,,,,,,,,,,,,,,,,,,,,,,,,,,,,,,,,,,,,,
15058,1645582763.8375,10.0,0.0,4272.820313,4529.743652,4302.563965,4260.0,4236.922852000001,450.0,4.0,95.0,,,,0.0,4.0,2.0,4.0,4.0,4.0,83.333336,,,,,,,,5.0,0.0,0.470236,-0.281738,0.581055,0.601563,0.890639,-0.436042,-0.163577,-0.034005,-0.03765,-0.022855,,,,,,,,,,,,,,,,,,,,,,,,,,,,,,,,,,,,,,,,,,,,,,,,,,,,,,,,,,,,,,,,,
15059,1645582763.845316,11.0,0.0,4255.897461,4366.666504,4304.615234000001,4222.05127,4216.922852000001,16232.0,4.0,95.0,,,,0.0,4.0,2.0,4.0,4.0,4.0,83.333336,,,,,,,,,,,,,,,,,,,,,,,,,,,,,,,,,,,,,,,,,,,,,,,,,,,,,,0.0,0.0,1.0,0.0,512.0,1.0,,,,,,,,,,,,,,,,,,,,,,,,,
15060,1645582763.853131,12.0,0.0,4265.128418,4378.461426,4309.230957,4269.230957,4214.871582,450.0,4.0,95.0,,,,0.0,4.0,2.0,4.0,4.0,4.0,83.333336,,,,,,,,6.0,0.0,0.470236,-0.281738,0.581055,0.601563,0.886732,-0.446784,-0.169436,-0.033974000000000004,-0.037693,-0.019642,,,,,,,,,,,,,,,,,,,,,,,,,,,,,,,,,,,,,,,,,,,,,,,,,,,,,,,,,,,,,,,,,
15061,1645582763.8609471,13.0,0.0,4303.077147999999,4537.436035,4315.897461,4307.692383,4263.589844,450.0,4.0,95.0,,,,0.0,4.0,2.0,4.0,4.0,4.0,83.333336,,,,,,,,,,,,,,,,,,,,,,,,,,,,,,,,,,,,,,,,,,,,,,,,,,,,,,,,,,,,,,,,,,,,,,,,,,,,,,,,,,,,
15062,1645582763.868763,14.0,0.0,4286.153809,4638.461426,4290.769043,4271.794922,4275.897461,450.0,4.0,95.0,,,,0.0,4.0,2.0,4.0,4.0,4.0,83.333336,,,,,,,,7.0,0.0,0.470236,-0.281738,0.581055,0.601563,0.885756,-0.451179,-0.171389,-0.033944999999999996,-0.037781,-0.022951,,,,,,,,,,,,,,,,,,,,,,,,,,,,,,,,,,,,,,,,,,,,,,,,,,,,,,,,,,,,,,,,,
15063,1645582763.876678,15.0,0.0,4249.230957,4551.794922,4264.102539,4243.589844,4256.410156,16232.0,4.0,95.0,,,,0.0,4.0,2.0,4.0,4.0,4.0,83.333336,,,,,,,,,,,,,,,,,,,,1.0,0.0,0.0,,,,,,,,,,,,,,,,,,,,,,,,,,,,,,,,0.0,0.0,1.0,0.0,512.0,1.0,1508.37793,44.139038,47.114403,31.279118,17.73251,274.186523,423.28091399999994,260.036652,150.935684,56.415703,58.6101,101.223152,66.037346,38.788464000000005,35.349945,25.666817,82.178787,48.169403,25.256687,18.857982999999997,843.7241210000001,39.301235,22.786213,18.552870000000002,15.326557000000001
15064,1645582763.8844929,16.0,0.0,4273.333496,4443.077147999999,4276.410156,4233.333496,4247.692383,0.0,4.0,95.0,,,,0.0,4.0,2.0,4.0,4.0,4.0,83.333336,,,,,,,,8.0,0.0,0.470537,-0.281738,0.580811,0.601563,0.897475,-0.451667,-0.171878,-0.03392,-0.037714,-0.02593,,,,,,,,,,,,,,,,,,,,,,,,,,,,,,,,,,,,,,,,,,,,,,,,,,,,,,,,,,,,,,,,,
15065,1645582763.892309,17.0,0.0,4293.333496,4516.410156,4266.666504,4205.641113000001,4237.436035,0.0,4.0,95.0,,,,0.0,4.0,2.0,4.0,4.0,4.0,83.333336,,,,,,,,,,,,,,,,,,,,,,,,,,,,,,,,,,,,,,,,,,,,,,,,,,,,,,,,,,,,,,,,,,,,,,,,,,,,,,,,,,,,
15066,1645582763.900124,18.0,0.0,4284.615234000001,4557.436035,4235.384765999999,4208.205078,4232.820313,0.0,4.0,95.0,,,,0.0,4.0,2.0,4.0,4.0,4.0,83.333336,,,,,,,,9.0,0.0,0.470537,-0.281738,0.580811,0.601563,0.897963,-0.446784,-0.176761,-0.033897000000000004,-0.037703,-0.022213999999999998,,,,,,,,,,,,,,,,,,,,,,,,,,,,,,,,,,,,,,,,,,,,,,,,,,,,,,,,,,,,,,,,,
15067,1645582763.907939,19.0,0.0,4324.102539,4442.563965,4253.846191,4247.179688,4265.128418,0.0,4.0,95.0,,,,0.0,4.0,2.0,4.0,4.0,4.0,83.333336,,,,,,,,,,,,,,,,,,,,,,,,,,,,,,,,,,,,,,,,,,,,,,,,,,,,,,0.0,0.0,1.0,0.0,512.0,1.0,,,,,,,,,,,,,,,,,,,,,,,,,
15068,1645582763.915755,20.0,0.0,4340.512695,4440.512695,4277.436035,4260.512695,4290.256348,0.0,4.0,95.0,,,,0.0,4.0,2.0,4.0,4.0,4.0,83.333336,,,,,,,,10.0,0.0,0.47040200000000004,-0.281982,0.581055,0.601318,0.8994280000000001,-0.435065,-0.18262,-0.033877,-0.037643,-0.018966999999999998,,,,,,,,,,,,,,,,,,,,,,,,,,,,,,,,,,,,,,,,,,,,,,,,,,,,,,,,,,,,,,,,,
15069,1645582763.92357,21.0,0.0,4281.538574,4511.282227000001,4260.0,4243.077147999999,4257.94873,0.0,4.0,95.0,,,,0.0,4.0,2.0,4.0,4.0,4.0,83.333336,,,,,,,,,,,,,,,,,,,,,,,,,,,,,,,,,,,,,,,,,,,,,,,,,,,,,,,,,,,,,,,,,,,,,,,,,,,,,,,,,,,,
15070,1645582763.931385,22.0,0.0,4258.974121,4429.230957,4258.974121,4230.256348,4211.282227000001,0.0,4.0,95.0,,,,0.0,4.0,2.0,4.0,4.0,4.0,83.333336,,,,,,,,11.0,0.0,0.470713,-0.281982,0.581055,0.601074,0.905776,-0.42432299999999995,-0.175784,-0.033907,-0.037541000000000005,-0.022246000000000002,,,,,,,,,,,,,,,,,,,,,,,,,,,,,,,,,,,,,,,,,,,,,,,,,,,,,,,,,,,,,,,,,
15071,1645582763.9392009,23.0,0.0,4273.333496,4383.589844,4274.871582,4232.307617,4209.743652,0.0,4.0,95.0,,,,0.0,4.0,2.0,4.0,4.0,4.0,83.333336,,,,,,,,,,,,,,,,,,,,,,,,,,,,,,,,,,,,,,,,,,,,,,,,,,,,,,0.0,0.0,1.0,0.0,512.0,1.0,,,,,,,,,,,,,,,,,,,,,,,,,
15072,1645582763.947116,24.0,0.0,4275.384765999999,4406.666504,4268.717772999999,4234.871582,4235.384765999999,0.0,4.0,95.0,,,,0.0,4.0,2.0,4.0,4.0,4.0,83.333336,,,,,,,,12.0,0.0,0.470412,-0.281982,0.581299,0.601074,0.885267,-0.431647,-0.16846,-0.033886,-0.037547000000000004,-0.025246,,,,,,,,,,,,,,,,,,,,,,,,,,,,,,,,,,,,,,,,,,,,,,,,,,,,,,,,,,,,,,,,,
15073,1645582763.954932,25.0,0.0,4297.94873,4292.307617,4277.436035,4240.512695,4232.307617,0.0,4.0,95.0,,,,0.0,4.0,2.0,4.0,4.0,4.0,83.333336,,,,,,,,,,,,,,,,,,,,,,,,,,,,,,,,,,,,,,,,,,,,,,,,,,,,,,,,,,,,,,,,,,,,,,,,,,,,,,,,,,,,
15074,1645582763.962747,26.0,0.0,4315.897461,4259.487305,4310.256348,4261.538574,4219.487305,0.0,4.0,95.0,,,,0.0,4.0,2.0,4.0,4.0,4.0,83.333336,,,,,,,,13.0,0.0,0.470577,-0.282227,0.581299,0.60083,0.9052870000000001,-0.43018199999999995,-0.16894800000000001,-0.033964,-0.03765,-0.027897,,,,,,,,,,,,,,,,,,,,,,,,,,,,,,,,,,,,,,,,,,,,,,,,,,,,,,,,,,,,,,,,,
15075,1645582763.9705632,27.0,0.0,4283.589844,4421.025879,4301.025879,4267.692383,4204.615234000001,0.0,4.0,95.0,,,,0.0,4.0,2.0,4.0,4.0,4.0,83.333336,,,,,,,,,,,,,,,,,,,,,,,,,,,,,,,,,,,,,,,,,,,,,,,,,,,,,,0.0,0.0,1.0,0.0,512.0,1.0,,,,,,,,,,,,,,,,,,,,,,,,,
15076,1645582763.978379,28.0,0.0,4260.512695,4396.922852000001,4272.307617,4245.128418,4183.077147999999,0.0,4.0,95.0,,,,0.0,4.0,2.0,4.0,4.0,4.0,83.333336,,,,,,,,14.0,0.0,0.47011899999999995,-0.282471,0.581299,0.601074,0.890639,-0.42676400000000003,-0.14844000000000002,-0.033937,-0.037596,-0.024082,,,,,,,,,,,,,,,,,,,,,,,,,,,,,,,,,,,,,,,,,,,,,,,,,,,,,,,,,,,,,,,,,
15077,1645582763.986194,29.0,0.0,4290.256348,4223.589844,4289.230957,4246.153809,4196.410156,0.0,4.0,95.0,,,,0.0,4.0,2.0,4.0,4.0,4.0,83.333336,,,,,,,,,,,,,,,,,,,,,,,,,,,,,,,,,,,,,,,,,,,,,,,,,,,,,,,,,,,,,,,,,,,,,,,,,,,,,,,,,,,,
15078,1645582763.99401,30.0,0.0,4309.230957,4231.282227000001,4316.410156,4286.153809,4232.307617,0.0,4.0,95.0,,,,0.0,4.0,2.0,4.0,4.0,4.0,83.333336,,,,,,,,15.0,0.0,0.47011899999999995,-0.282471,0.581299,0.601074,0.893568,-0.42822899999999997,-0.161135,-0.033961,-0.037547000000000004,-0.026899,,,,,,,,,,,,,,,,,,,,,,,,,,,,,,,,,,,,,,,,,,,,,,,,,,,,,,,,,,,,,,,,,
15079,1645582764.001825,31.0,0.0,4289.230957,4214.358886999999,4316.922852000001,4294.871582,4235.897461,0.0,4.0,95.0,,,,0.0,4.0,2.0,4.0,4.0,4.0,83.333336,,,,,,,,,,,,,,,,,,,,1.0,0.0,0.0,,,,,,,,,,,,,,,,,,,,,,,,,,,,,,,,0.0,0.0,1.0,0.0,512.0,1.0,1539.2579349999999,40.602955,39.069843,29.192938,16.224134,301.878235,445.75909400000006,250.130524,127.23889199999999,55.148148,54.854198,63.961468,56.718277,36.80122,33.877753999999996,19.685710999999998,78.066788,51.278542,27.322021000000003,18.586544,830.789124,27.589039,16.479698000000003,19.186467999999998,13.996537
15080,1645582764.009641,32.0,0.0,4271.794922,4134.871582,4327.692383,4277.436035,4214.358886999999,0.0,4.0,95.0,,,,0.0,4.0,2.0,4.0,4.0,4.0,83.333336,,,,,,,,16.0,0.0,0.47011899999999995,-0.282471,0.581299,0.601074,0.8798959999999999,-0.43457700000000005,-0.147951,-0.033983,-0.037551999999999995,-0.029385,,,,,,,,,,,,,,,,,,,,,,,,,,,,,,,,,,,,,,,,,,,,,,,,,,,,,,,,,,,,,,,,,
15081,1645582764.017457,33.0,0.0,4263.589844,4261.538574,4335.384765999999,4287.179688,4192.820313,0.0,4.0,95.0,,,,0.0,4.0,2.0,4.0,4.0,4.0,83.333336,,,,,,,,,,,,,,,,,,,,,,,,,,,,,,,,,,,,,,,,,,,,,,,,,,,,,,,,,,,,,,,,,,,,,,,,,,,,,,,,,,,,
15082,1645582764.025372,34.0,0.0,4240.0,4269.743652,4317.94873,4282.563965,4164.102539,0.0,4.0,95.0,,,,0.0,4.0,2.0,4.0,4.0,4.0,83.333336,,,,,,,,17.0,0.0,0.47011899999999995,-0.282471,0.581299,0.601074,0.895033,-0.433112,-0.161135,-0.033905000000000005,-0.037557,-0.025372,,,,,,,,,,,,,,,,,,,,,,,,,,,,,,,,,,,,,,,,,,,,,,,,,,,,,,,,,,,,,,,,,
15083,1645582764.033187,35.0,0.0,4242.05127,4134.871582,4320.512695,4259.487305,4148.717772999999,0.0,4.0,95.0,,,,0.0,4.0,2.0,4.0,4.0,4.0,83.333336,,,,,,,,,,,,,,,,,,,,,,,,,,,,,,,,,,,,,,,,,,,,,,,,,,,,,,0.0,0.0,1.0,0.0,512.0,1.0,,,,,,,,,,,,,,,,,,,,,,,,,
15084,1645582764.041003,36.0,0.0,4288.205078,4328.205078,4342.563965,4287.179688,4162.05127,0.0,4.0,95.0,,,,0.0,4.0,2.0,4.0,4.0,4.0,83.333336,,,,,,,,18.0,0.0,0.469807,-0.282471,0.581299,0.601318,0.891127,-0.441413,-0.176761,-0.033884,-0.037659,-0.028058999999999997,,,,,,,,,,,,,,,,,,,,,,,,,,,,,,,,,,,,,,,,,,,,,,,,,,,,,,,,,,,,,,,,,
15085,1645582764.0488179,37.0,0.0,4304.102539,4518.461426,4339.487305,4311.794922,4186.666504,0.0,4.0,95.0,,,,0.0,4.0,2.0,4.0,4.0,4.0,83.333336,,,,,,,,,,,,,,,,,,,,,,,,,,,,,,,,,,,,,,,,,,,,,,,,,,,,,,,,,,,,,,,,,,,,,,,,,,,,,,,,,,,,
15086,1645582764.056633,38.0,0.0,4298.461426,4308.717772999999,4318.461426,4265.641113000001,4209.743652,0.0,4.0,95.0,,,,0.0,4.0,2.0,4.0,4.0,4.0,83.333336,,,,,,,,19.0,0.0,0.47011899999999995,-0.282471,0.581299,0.601074,0.897475,-0.438483,-0.174319,-0.033865,-0.037604000000000005,-0.024228,,,,,,,,,,,,,,,,,,,,,,,,,,,,,,,,,,,,,,,,,,,,,,,,,,,,,,,,,,,,,,,,,
15087,1645582764.064449,39.0,0.0,4314.358886999999,4197.94873,4327.179688,4258.461426,4216.410156,0.0,4.0,95.0,,,,0.0,4.0,2.0,4.0,4.0,4.0,83.333336,,,,,,,,,,,,,,,,,,,,,,,,,,,,,,,,,,,,,,,,,,,,,,,,,,,,,,0.0,0.0,1.0,0.0,512.0,1.0,,,,,,,,,,,,,,,,,,,,,,,,,
15088,1645582764.072264,40.0,0.0,4310.256348,4428.205078,4328.717772999999,4290.769043,4204.102539,0.0,4.0,95.0,,,,0.0,4.0,2.0,4.0,4.0,4.0,83.333336,,,,,,,,20.0,0.0,0.469817,-0.282471,0.581543,0.601074,0.892592,-0.43994799999999995,-0.166995,-0.033798,-0.037701,-0.026931999999999998,,,,,,,,,,,,,,,,,,,,,,,,,,,,,,,,,,,,,,,,,,,,,,,,,,,,,,,,,,,,,,,,,
15089,1645582764.0800788,41.0,0.0,4298.461426,4501.538574,4258.974121,4236.410156,4214.358886999999,0.0,4.0,95.0,,,,0.0,4.0,2.0,4.0,4.0,4.0,83.333336,,,,,,,,,,,,,,,,,,,,,,,,,,,,,,,,,,,,,,,,,,,,,,,,,,,,,,,,,,,,,,,,,,,,,,,,,,,,,,,,,,,,
15090,1645582764.087895,42.0,0.0,4315.897461,4307.179688,4201.538574,4181.025879,4241.538574,0.0,4.0,95.0,,,,0.0,4.0,2.0,4.0,4.0,4.0,83.333336,,,,,,,,21.0,0.0,0.46996400000000005,-0.282227,0.581543,0.601074,0.8921030000000001,-0.45410900000000004,-0.17236600000000002,-0.033837,-0.037739,-0.029366000000000003,,,,,,,,,,,,,,,,,,,,,,,,,,,,,,,,,,,,,,,,,,,,,,,,,,,,,,,,,,,,,,,,,
15091,1645582764.09581,43.0,0.0,4308.205078,4153.846191,4250.769043,4214.358886999999,4224.102539,0.0,4.0,95.0,,,,0.0,4.0,2.0,4.0,4.0,4.0,83.333336,,,,,,,,,,,,,,,,,,,,,,,,,,,,,,,,,,,,,,,,,,,,,,,,,,,,,,0.0,0.0,1.0,0.0,512.0,1.0,,,,,,,,,,,,,,,,,,,,,,,,,
15092,1645582764.103625,44.0,0.0,4280.0,4189.743652,4318.974121,4227.179688,4194.358886999999,0.0,4.0,95.0,,,,0.0,4.0,2.0,4.0,4.0,4.0,83.333336,,,,,,,,22.0,0.0,0.470276,-0.282227,0.581543,0.60083,0.8916149999999999,-0.443366,-0.158694,-0.033871,-0.037676,-0.031654,,,,,,,,,,,,,,,,,,,,,,,,,,,,,,,,,,,,,,,,,,,,,,,,,,,,,,,,,,,,,,,,,
15093,1645582764.111441,45.0,0.0,4305.128418,4347.692383,4313.333496,4204.102539,4208.717772999999,0.0,4.0,95.0,,,,0.0,4.0,2.0,4.0,4.0,4.0,83.333336,,,,,,,,,,,,,,,,,,,,,,,,,,,,,,,,,,,,,,,,,,,,,,,,,,,,,,,,,,,,,,,,,,,,,,,,,,,,,,,,,,,,
15094,1645582764.119256,46.0,0.0,4323.077147999999,4396.410156,4282.563965,4207.692383,4210.769043,0.0,4.0,95.0,,,,0.0,4.0,2.0,4.0,4.0,4.0,83.333336,,,,,,,,23.0,0.0,0.469817,-0.282471,0.581543,0.601074,0.892592,-0.43994799999999995,-0.166995,-0.033755,-0.037571,-0.033665,,,,,,,,,,,,,,,,,,,,,,,,,,,,,,,,,,,,,,,,,,,,,,,,,,,,,,,,,,,,,,,,,
15095,1645582764.1270711,47.0,0.0,4284.102539,4323.589844,4291.282227000001,4218.461426,4187.179688,0.0,4.0,95.0,,,,0.0,4.0,2.0,4.0,4.0,4.0,83.333336,1.0,16.666666,1.0,0.0,1.0,1.0,1.0,,,,,,,,,,,,,1.0,0.0,0.0,,,,,,,,,,,,,,,,,,,,,,,,,,,,,,,,0.0,0.0,1.0,0.0,512.0,1.0,1388.966797,34.736549,32.124424,25.79166,13.566879,358.70745800000003,453.58313,264.28476,105.94423700000002,53.514481,53.668076,37.843601,50.832081,31.892390999999996,28.809202000000003,19.717420999999998,75.81665799999999,52.219555,27.635586,16.928747,728.395874,18.760317,13.905663,18.851416,11.805984
15096,1645582764.134887,48.0,0.0,4296.410156,4358.461426,4303.077147999999,4227.179688,4204.102539,0.0,4.0,95.0,,,,0.0,4.0,2.0,4.0,4.0,4.0,83.333336,,,,,,,,24.0,0.0,0.470276,-0.282227,0.581543,0.60083,0.8916149999999999,-0.443366,-0.158694,-0.033798,-0.037525,-0.035523,,,,,,,,,,,,,,,,,,,,,,,,,,,,,,,,,,,,,,,,,,,,,,,,,,,,,,,,,,,,,,,,,
15097,1645582764.1427019,49.0,0.0,4344.615234000001,4488.717772999999,4252.820313,4223.077147999999,4233.333496,0.0,4.0,95.0,,,,0.0,4.0,2.0,4.0,4.0,4.0,83.333336,,,,,,,,,,,,,,,,,,,,,,,,,,,,,,,,,,,,,,,,,,,,,,,,,,,,,,,,,,,,,,,,,,,,,,,,,,,,,,,,,,,,
15098,1645582764.150518,50.0,0.0,4337.436035,4540.0,4192.820313,4192.820313,4236.922852000001,0.0,4.0,95.0,,,,0.0,4.0,2.0,4.0,4.0,4.0,83.333336,,,,,,,,25.0,0.0,0.470276,-0.282227,0.581543,0.60083,0.8999159999999999,-0.433112,-0.161624,-0.033836,-0.037482999999999995,-0.030994,,,,,,,,,,,,,,,,,,,,,,,,,,,,,,,,,,,,,,,,,,,,,,,,,,,,,,,,,,,,,,,,,
15099,1645582764.158333,51.0,0.0,4329.743652,4540.512695,4202.563965,4170.256348,4254.358886999999,0.0,4.0,95.0,,,,0.0,4.0,2.0,4.0,4.0,4.0,83.333336,,,,,,,,,,,,,,,,,,,,,,,,,,,,,,,,,,,,,,,,,,,,,,,,,,,,,,0.0,0.0,1.0,0.0,512.0,1.0,,,,,,,,,,,,,,,,,,,,,,,,,
15100,1645582764.166248,52.0,0.0,4340.512695,4552.820313,4219.487305,4149.230957,4255.384765999999,0.0,4.0,95.0,,,,0.0,4.0,2.0,4.0,4.0,4.0,83.333336,,,,,,,,26.0,0.0,0.470276,-0.282227,0.581543,0.60083,0.9043110000000001,-0.443366,-0.166506,-0.033773000000000004,-0.037446,-0.032973,,,,,,,,,,,,,,,,,,,,,,,,,,,,,,,,,,,,,,,,,,,,,,,,,,,,,,,,,,,,,,,,,
15101,1645582764.1740642,53.0,0.0,4303.077147999999,4498.974121,4219.487305,4141.025879,4193.333496,0.0,4.0,95.0,,,,0.0,4.0,2.0,4.0,4.0,4.0,83.333336,,,,,,,,,,,,,,,,,,,,,,,,,,,,,,,,,,,,,,,,,,,,,,,,,,,,,,,,,,,,,,,,,,,,,,,,,,,,,,,,,,,,
15102,1645582764.18188,54.0,0.0,4269.230957,4469.743652,4269.230957,4177.94873,4143.589844,0.0,4.0,95.0,,,,0.0,4.0,2.0,4.0,4.0,4.0,83.333336,,,,,,,,27.0,0.0,0.470276,-0.282227,0.581543,0.60083,0.8916149999999999,-0.443366,-0.170901,-0.033764999999999996,-0.037364,-0.0349,,,,,,,,,,,,,,,,,,,,,,,,,,,,,,,,,,,,,,,,,,,,,,,,,,,,,,,,,,,,,,,,,
15103,1645582764.189695,55.0,0.0,4295.384765999999,4561.025879,4295.897461,4189.230957,4171.282227000001,0.0,4.0,95.0,,,,0.0,4.0,2.0,4.0,4.0,4.0,83.333336,,,,,,,,,,,,,,,,,,,,,,,,,,,,,,,,,,,,,,,,,,,,,,,,,,,,,,0.0,0.0,1.0,0.0,512.0,1.0,,,,,,,,,,,,,,,,,,,,,,,,,
15104,1645582764.197511,56.0,0.0,4325.641113000001,4643.077147999999,4223.077147999999,4160.0,4235.897461,0.0,4.0,95.0,,,,0.0,4.0,2.0,4.0,4.0,4.0,83.333336,,,,,,,,28.0,0.0,0.470276,-0.282227,0.581543,0.60083,0.889174,-0.44531899999999996,-0.166506,-0.033855,-0.037337999999999996,-0.036635,,,,,,,,,,,,,,,,,,,,,,,,,,,,,,,,,,,,,,,,,,,,,,,,,,,,,,,,,,,,,,,,,
15105,1645582764.205326,57.0,0.0,4338.974121,4583.589844,4156.922852000001,4165.128418,4268.717772999999,0.0,4.0,95.0,,,,0.0,4.0,2.0,4.0,4.0,4.0,83.333336,,,,,,,,,,,,,,,,,,,,,,,,,,,,,,,,,,,,,,,,,,,,,,,,,,,,,,,,,,,,,,,,,,,,,,,,,,,,,,,,,,,,
15106,1645582764.213142,58.0,0.0,4358.461426,4455.384765999999,4168.205078,4183.589844,4262.563965,0.0,4.0,95.0,,,,0.0,4.0,2.0,4.0,4.0,4.0,83.333336,,,,,,,,29.0,0.0,0.470129,-0.282471,0.581543,0.60083,0.8969860000000001,-0.4336,-0.174807,-0.033839,-0.037413,-0.038147,,,,,,,,,,,,,,,,,,,,,,,,,,,,,,,,,,,,,,,,,,,,,,,,,,,,,,,,,,,,,,,,,
15107,1645582764.220958,59.0,0.0,4356.922852000001,4437.94873,4206.153809,4184.615234000001,4248.717772999999,0.0,4.0,95.0,,,,0.0,4.0,2.0,4.0,4.0,4.0,83.333336,,,,,,,,,,,,,,,,,,,,,,,,,,,,,,,,,,,,,,,,,,,,,,,,,,,,,,0.0,0.0,1.0,0.0,512.0,1.0,,,,,,,,,,,,,,,,,,,,,,,,,
15108,1645582764.228773,60.0,0.0,4329.230957,4506.666504,4222.563965,4205.128418,4238.461426,0.0,4.0,95.0,,,,0.0,4.0,2.0,4.0,4.0,4.0,83.333336,,,,,,,,30.0,0.0,0.47043100000000004,-0.282471,0.581299,0.60083,0.8955209999999999,-0.440925,-0.169436,-0.033824,-0.037383,-0.039411,,,,,,,,,,,,,,,,,,,,,,,,,,,,,,,,,,,,,,,,,,,,,,,,,,,,,,,,,,,,,,,,,
15109,1645582764.236689,61.0,0.0,4313.846191,4550.769043,4222.563965,4205.128418,4233.333496,0.0,4.0,95.0,,,,0.0,4.0,2.0,4.0,4.0,4.0,83.333336,,,,,,,,,,,,,,,,,,,,,,,,,,,,,,,,,,,,,,,,,,,,,,,,,,,,,,,,,,,,,,,,,,,,,,,,,,,,,,,,,,,,
15110,1645582764.244504,62.0,0.0,4322.563965,4629.743652,4224.615234000001,4161.538574,4232.307617,0.0,4.0,95.0,,,,0.0,4.0,2.0,4.0,4.0,4.0,83.333336,,,,,,,,31.0,0.0,0.470129,-0.282471,0.581543,0.60083,0.897475,-0.436042,-0.157717,-0.03386,-0.037355,-0.040743,,,,,,,,,,,,,,,,,,,,,,,,,,,,,,,,,,,,,,,,,,,,,,,,,,,,,,,,,,,,,,,,,
15111,1645582764.2523198,63.0,0.0,4340.0,4684.102539,4190.256348,4146.666504,4266.153809,0.0,4.0,95.0,,,,0.0,4.0,2.0,4.0,4.0,4.0,83.333336,,,,,,,,,,,,,,,,,,,,1.0,0.0,0.0,,,,,,,,,,,,,,,,,,,,,,,,,,,,,,,,0.0,0.0,1.0,0.0,512.0,1.0,1101.78772,27.566227,25.058956,21.599325,10.361215,413.036865,435.346588,280.595856,87.268967,51.97979,50.466910999999996,23.512426,44.347713,24.962214000000003,21.675579,21.884307999999997,71.95683299999999,48.742290000000004,26.057039000000003,14.327476999999998,563.693542,13.873820000000002,12.799524,17.381895,9.317982
15112,1645582764.260135,64.0,0.0,4349.230957,4624.615234000001,4106.153809,4163.589844,4303.589844,450.0,4.0,95.0,,,,0.0,4.0,2.0,4.0,4.0,4.0,83.333336,,,,,,,,32.0,0.0,0.470276,-0.282227,0.581543,0.60083,0.89015,-0.440436,-0.156252,-0.033843,-0.037331,-0.035595,,,,,,,,,,,,,,,,,,,,,,,,,,,,,,,,,,,,,,,,,,,,,,,,,,,,,,,,,,,,,,,,,
15113,1645582764.267951,65.0,0.0,4342.05127,4562.563965,4088.718018,4167.179688,4264.102539,450.0,4.0,95.0,,,,0.0,4.0,2.0,4.0,4.0,4.0,83.333336,,,,,,,,,,,,,,,,,,,,,,,,,,,,,,,,,,,,,,,,,,,,,,,,,,,,,,,,,,,,,,,,,,,,,,,,,,,,,,,,,,,,
15114,1645582764.275767,66.0,0.0,4324.615234000001,4556.410156,4159.487305,4163.077147999999,4206.666504,16190.0,4.0,95.0,,,,0.0,4.0,2.0,4.0,4.0,4.0,83.333336,,,,,,,,33.0,0.0,0.470587,-0.282227,0.581543,0.600586,0.885756,-0.43994799999999995,-0.155764,-0.033779,-0.037357999999999995,-0.037211,,,,,,,,,,,,,,,,,,,,,,,,,,,,,,,,,,,,,,,,,,,,,,,,,,,,,,,,,,,,,,,,,
15115,1645582764.283682,67.0,0.0,4342.05127,4529.743652,4168.205078,4170.769043,4234.871582,450.0,4.0,95.0,,,,0.0,4.0,2.0,4.0,4.0,4.0,83.333336,,,,,,,,,,,,,,,,,,,,,,,,,,,,,,,,,,,,,,,,,,,,,,,,,,,,,,0.0,0.0,1.0,0.0,512.0,1.0,,,,,,,,,,,,,,,,,,,,,,,,,
15116,1645582764.291498,68.0,0.0,4371.794922,4530.769043,4127.179688,4178.974121,4266.153809,220.0,4.0,95.0,,,,0.0,4.0,2.0,4.0,4.0,4.0,83.333336,,,,,,,,34.0,0.0,0.470587,-0.282227,0.581543,0.600586,0.8930799999999999,-0.43018199999999995,-0.15967,-0.033819,-0.037333,-0.038568,,,,,,,,,,,,,,,,,,,,,,,,,,,,,,,,,,,,,,,,,,,,,,,,,,,,,,,,,,,,,,,,,
15117,1645582764.299313,69.0,0.0,4350.769043,4589.230957,4171.794922,4176.410156,4225.128418,450.0,4.0,95.0,,,,0.0,4.0,2.0,4.0,4.0,4.0,83.333336,,,,,,,,,,,,,,,,,,,,,,,,,,,,,,,,,,,,,,,,,,,,,,,,,,,,,,,,,,,,,,,,,,,,,,,,,,,,,,,,,,,,
15118,1645582764.307129,70.0,0.0,4324.102539,4550.769043,4249.230957,4173.333496,4220.0,16133.0,4.0,95.0,,,,0.0,4.0,2.0,4.0,4.0,4.0,83.333336,,,,,,,,35.0,0.0,0.470587,-0.282227,0.581543,0.600586,0.8969860000000001,-0.43994799999999995,-0.157717,-0.033806,-0.037212999999999996,-0.039887,,,,,,,,,,,,,,,,,,,,,,,,,,,,,,,,,,,,,,,,,,,,,,,,,,,,,,,,,,,,,,,,,
15119,1645582764.314945,71.0,0.0,4340.512695,4438.461426,4256.922852000001,4175.384765999999,4260.0,450.0,4.0,95.0,,,,0.0,4.0,2.0,4.0,4.0,4.0,83.333336,,,,,,,,,,,,,,,,,,,,,,,,,,,,,,,,,,,,,,,,,,,,,,,,,,,,,,0.0,0.0,1.0,0.0,512.0,1.0,,,,,,,,,,,,,,,,,,,,,,,,,
15120,1645582764.3227599,72.0,0.0,4342.05127,4430.256348,4243.589844,4175.897461,4232.307617,450.0,4.0,95.0,,,,0.0,4.0,2.0,4.0,4.0,4.0,83.333336,,,,,,,,36.0,0.0,0.470587,-0.282227,0.581543,0.600586,0.894057,-0.435554,-0.17236600000000002,-0.033697000000000005,-0.037251,-0.041074,,,,,,,,,,,,,,,,,,,,,,,,,,,,,,,,,,,,,,,,,,,,,,,,,,,,,,,,,,,,,,,,,
15121,1645582764.330576,73.0,0.0,4309.743652,4571.282227000001,4237.94873,4166.666504,4192.307617,16153.0,4.0,95.0,,,,0.0,4.0,2.0,4.0,4.0,4.0,83.333336,,,,,,,,,,,,,,,,,,,,,,,,,,,,,,,,,,,,,,,,,,,,,,,,,,,,,,,,,,,,,,,,,,,,,,,,,,,,,,,,,,,,
15122,1645582764.338391,74.0,0.0,4303.589844,4734.358886999999,4216.922852000001,4183.077147999999,4215.897461,450.0,4.0,95.0,,,,0.0,4.0,2.0,4.0,4.0,4.0,83.333336,,,,,,,,37.0,0.0,0.470587,-0.282227,0.581543,0.600586,0.892592,-0.43946,-0.15967,-0.033697000000000005,-0.037335,-0.035941,,,,,,,,,,,,,,,,,,,,,,,,,,,,,,,,,,,,,,,,,,,,,,,,,,,,,,,,,,,,,,,,,
15123,1645582764.3462071,75.0,0.0,4324.102539,4700.0,4216.922852000001,4204.615234000001,4235.897461,16235.0,4.0,95.0,,,,0.0,4.0,2.0,4.0,4.0,4.0,83.333336,,,,,,,,,,,,,,,,,,,,,,,,,,,,,,,,,,,,,,,,,,,,,,,,,,,,,,0.0,0.0,1.0,0.0,512.0,1.0,,,,,,,,,,,,,,,,,,,,,,,,,
15124,1645582764.354023,76.0,0.0,4323.077147999999,4476.922852000001,4250.256348,4172.307617,4208.717772999999,450.0,4.0,95.0,,,,0.0,4.0,2.0,4.0,4.0,4.0,83.333336,,,,,,,,38.0,0.0,0.470286,-0.282227,0.5817869999999999,0.600586,0.8994280000000001,-0.43408900000000006,-0.163577,-0.033843,-0.037361,-0.037523,,,,,,,,,,,,,,,,,,,,,,,,,,,,,,,,,,,,,,,,,,,,,,,,,,,,,,,,,,,,,,,,,
15125,1645582764.361938,77.0,0.0,4311.282227000001,4345.641113000001,4281.025879,4153.333496,4187.692383,450.0,4.0,95.0,,,,0.0,4.0,2.0,4.0,4.0,4.0,83.333336,,,,,,,,,,,,,,,,,,,,,,,,,,,,,,,,,,,,,,,,,,,,,,,,,,,,,,,,,,,,,,,,,,,,,,,,,,,,,,,,,,,,
15126,1645582764.3697538,78.0,0.0,4319.487305,4409.743652,4281.538574,4205.128418,4203.077147999999,450.0,4.0,95.0,,,,0.0,4.0,2.0,4.0,4.0,4.0,83.333336,,,,,,,,39.0,0.0,0.470286,-0.282227,0.5817869999999999,0.600586,0.8896620000000001,-0.43653000000000003,-0.166995,-0.033828,-0.037336,-0.038995999999999996,,,,,,,,,,,,,,,,,,,,,,,,,,,,,,,,,,,,,,,,,,,,,,,,,,,,,,,,,,,,,,,,,
15127,1645582764.377569,79.0,0.0,4329.743652,4454.358886999999,4259.487305,4226.666504,4225.641113000001,16235.0,4.0,95.0,,,,0.0,4.0,2.0,4.0,4.0,4.0,83.333336,,,,,,,,,,,,,,,,,,,,1.0,0.0,0.0,,,,,,,,,,,,,,,,,,,,,,,,,,,,,,,,0.0,0.0,1.0,0.0,512.0,1.0,760.913635,20.386164,18.126642,17.366091,7.312461999999999,438.650604,387.46707200000003,282.26825,71.95734399999999,51.56963,42.865246,16.781868,35.594848999999996,17.646963,14.455134,22.403637,63.508556000000006,41.531136,22.974005,11.451738,381.020081,11.753047,11.682025,15.137534,7.075775
15128,1645582764.385385,80.0,0.0,4310.769043,4396.922852000001,4261.025879,4189.230957,4209.230957,450.0,4.0,95.0,,,,0.0,4.0,2.0,4.0,4.0,4.0,83.333336,,,,,,,,40.0,0.0,0.47043199999999996,-0.281982,0.5817869999999999,0.600586,0.894545,-0.4336,-0.15967,-0.033863,-0.037314,-0.033826,,,,,,,,,,,,,,,,,,,,,,,,,,,,,,,,,,,,,,,,,,,,,,,,,,,,,,,,,,,,,,,,,
15129,1645582764.3932,81.0,0.0,4283.077147999999,4364.615234000001,4301.025879,4211.282227000001,4176.410156,450.0,4.0,95.0,,,,0.0,4.0,2.0,4.0,4.0,4.0,83.333336,,,,,,,,,,,,,,,,,,,,,,,,,,,,,,,,,,,,,,,,,,,,,,,,,,,,,,,,,,,,,,,,,,,,,,,,,,,,,,,,,,,,
15130,1645582764.401016,82.0,0.0,4309.230957,4414.871582,4318.461426,4251.794922,4195.897461,450.0,4.0,95.0,,,,0.0,4.0,2.0,4.0,4.0,4.0,83.333336,,,,,,,,41.0,0.0,0.470286,-0.282227,0.5817869999999999,0.600586,0.892592,-0.42676400000000003,-0.17383099999999999,-0.033895,-0.037342,-0.035571,,,,,,,,,,,,,,,,,,,,,,,,,,,,,,,,,,,,,,,,,,,,,,,,,,,,,,,,,,,,,,,,,
15131,1645582764.408832,83.0,0.0,4356.410156,4523.589844,4285.128418,4204.102539,4227.179688,16235.0,4.0,95.0,,,,0.0,4.0,2.0,4.0,4.0,4.0,83.333336,,,,,,,,,,,,,,,,,,,,,,,,,,,,,,,,,,,,,,,,,,,,,,,,,,,,,,0.0,0.0,1.0,0.0,512.0,1.0,,,,,,,,,,,,,,,,,,,,,,,,,
15132,1645582764.416647,84.0,0.0,4354.871582,4698.461426,4225.128418,4156.922852000001,4230.256348,450.0,4.0,95.0,,,,0.0,4.0,2.0,4.0,4.0,4.0,83.333336,,,,,,,,42.0,0.0,0.470286,-0.282227,0.5817869999999999,0.600586,0.8916149999999999,-0.43994799999999995,-0.155276,-0.033923,-0.037319,-0.030987999999999998,,,,,,,,,,,,,,,,,,,,,,,,,,,,,,,,,,,,,,,,,,,,,,,,,,,,,,,,,,,,,,,,,
15133,1645582764.424463,85.0,0.0,4355.384765999999,4791.794922,4143.589844,4165.128418,4273.846191,450.0,4.0,95.0,,,,0.0,4.0,2.0,4.0,4.0,4.0,83.333336,,,,,,,,,,,,,,,,,,,,,,,,,,,,,,,,,,,,,,,,,,,,,,,,,,,,,,,,,,,,,,,,,,,,,,,,,,,,,,,,,,,,
15134,1645582764.4323778,86.0,0.0,4379.487305,4647.179688,4096.410156,4169.230957,4298.974121,450.0,4.0,95.0,,,,0.0,4.0,2.0,4.0,4.0,4.0,83.333336,,,,,,,,43.0,0.0,0.469983,-0.282227,0.5820310000000001,0.600586,0.8989389999999999,-0.44238999999999995,-0.16211199999999998,-0.033998,-0.037249000000000004,-0.032968,,,,,,,,,,,,,,,,,,,,,,,,,,,,,,,,,,,,,,,,,,,,,,,,,,,,,,,,,,,,,,,,,
15135,1645582764.440194,87.0,0.0,4371.794922,4518.461426,4105.641113000001,4150.769043,4235.897461,16235.0,4.0,95.0,,,,0.0,4.0,2.0,4.0,4.0,4.0,83.333336,,,,,,,,,,,,,,,,,,,,,,,,,,,,,,,,,,,,,,,,,,,,,,,,,,,,,,0.0,0.0,1.0,0.0,512.0,1.0,,,,,,,,,,,,,,,,,,,,,,,,,
15136,1645582764.44801,88.0,0.0,4370.256348,4550.769043,4116.922852000001,4140.512695,4212.820313,450.0,4.0,95.0,,,,0.0,4.0,2.0,4.0,4.0,4.0,83.333336,,,,,,,,44.0,0.0,0.47013,-0.281982,0.5820310000000001,0.600586,0.881849,-0.436042,-0.157717,-0.034016000000000005,-0.037382,-0.034847,,,,,,,,,,,,,,,,,,,,,,,,,,,,,,,,,,,,,,,,,,,,,,,,,,,,,,,,,,,,,,,,,
15137,1645582764.455825,89.0,0.0,4392.307617,4517.94873,4149.743652,4176.922852000001,4255.384765999999,450.0,4.0,95.0,,,,0.0,4.0,2.0,4.0,4.0,4.0,83.333336,,,,,,,,,,,,,,,,,,,,,,,,,,,,,,,,,,,,,,,,,,,,,,,,,,,,,,,,,,,,,,,,,,,,,,,,,,,,,,,,,,,,
15138,1645582764.463641,90.0,0.0,4355.384765999999,4487.692383,4216.410156,4215.897461,4250.256348,450.0,4.0,95.0,,,,0.0,4.0,2.0,4.0,4.0,4.0,83.333336,,,,,,,,45.0,0.0,0.469818,-0.281982,0.5820310000000001,0.60083,0.889174,-0.44971400000000006,-0.169924,-0.034032,-0.037257,-0.030239,,,,,,,,,,,,,,,,,,,,,,,,,,,,,,,,,,,,,,,,,,,,,,,,,,,,,,,,,,,,,,,,,
15139,1645582764.471456,91.0,0.0,4324.102539,4652.307617,4229.743652,4166.666504,4229.743652,16235.0,4.0,95.0,,,,0.0,4.0,2.0,4.0,4.0,4.0,83.333336,,,,,,,,,,,,,,,,,,,,,,,,,,,,,,,,,,,,,,,,,,,,,,,,,,,,,,0.0,0.0,1.0,0.0,512.0,1.0,,,,,,,,,,,,,,,,,,,,,,,,,
15140,1645582764.4792721,92.0,0.0,4376.410156,4765.128418,4167.179688,4114.358886999999,4242.05127,450.0,4.0,95.0,,,,0.0,4.0,2.0,4.0,4.0,4.0,83.333336,,,,,,,,46.0,0.0,0.469818,-0.281982,0.5820310000000001,0.60083,0.900893,-0.446296,-0.173342,-0.033852,-0.037242000000000004,-0.032342,,,,,,,,,,,,,,,,,,,,,,,,,,,,,,,,,,,,,,,,,,,,,,,,,,,,,,,,,,,,,,,,,
15141,1645582764.4870882,93.0,0.0,4383.589844,4609.743652,4097.436035,4150.769043,4242.05127,450.0,4.0,95.0,,,,0.0,4.0,2.0,4.0,4.0,4.0,83.333336,,,,,,,,,,,,,,,,,,,,,,,,,,,,,,,,,,,,,,,,,,,,,,,,,,,,,,,,,,,,,,,,,,,,,,,,,,,,,,,,,,,,
15142,1645582764.4949028,94.0,0.0,4342.563965,4450.256348,4065.1281740000004,4165.128418,4233.846191,450.0,4.0,95.0,,,,0.0,4.0,2.0,4.0,4.0,4.0,83.333336,,,,,,,,47.0,0.0,0.46996400000000005,-0.281738,0.5820310000000001,0.60083,0.894057,-0.44434300000000004,-0.176272,-0.033934,-0.037278,-0.034283999999999995,,,,,,,,,,,,,,,,,,,,,,,,,,,,,,,,,,,,,,,,,,,,,,,,,,,,,,,,,,,,,,,,,
15143,1645582764.502819,95.0,0.0,4368.205078,4444.102539,4064.102539,4154.358886999999,4254.871582,16235.0,4.0,95.0,,,,0.0,4.0,2.0,4.0,4.0,4.0,83.333336,,,,,,,,,,,,,,,,,,,,1.0,0.0,0.0,,,,,,,,,,,,,,,,,,,,,,,,,,,,,,,,0.0,0.0,1.0,0.0,512.0,0.938795,448.806946,14.192523999999999,12.441047,13.785832000000001,4.9345669999999995,426.741943,320.793274,264.092377,61.845848,53.121646999999996,32.05616,12.687142999999999,26.091358,11.750339,8.738483,20.469620000000003,50.325947,32.86824,19.173361,8.907404,220.340225,10.38157,10.388583,12.729553999999998,5.382354
15144,1645582764.510634,96.0,0.0,4348.717772999999,4468.717772999999,4070.7692869999996,4203.589844,4293.333496,450.0,4.0,95.0,,,,0.0,4.0,2.0,4.0,4.0,4.0,83.333336,,,,,,,,48.0,0.0,0.46996400000000005,-0.281738,0.5820310000000001,0.60083,0.8955209999999999,-0.451667,-0.15967,-0.033957999999999995,-0.03731,-0.035982,,,,,,,,,,,,,,,,,,,,,,,,,,,,,,,,,,,,,,,,,,,,,,,,,,,,,,,,,,,,,,,,,
15145,1645582764.51845,97.0,0.0,4215.384765999999,4470.769043,4088.718018,4240.0,4324.615234000001,450.0,4.0,95.0,,,,0.0,4.0,2.0,4.0,4.0,4.0,83.333336,,,,,,,,,,,,,,,,,,,,,,,,,,,,,,,,,,,,,,,,,,,,,,,,,,,,,,,,,,,,,,,,,,,,,,,,,,,,,,,,,,,,
15146,1645582764.5262651,98.0,0.0,4142.563965,4423.077147999999,4155.384765999999,4250.769043,4334.358886999999,450.0,4.0,95.0,,,,0.0,4.0,2.0,4.0,4.0,4.0,83.333336,,,,,,,,49.0,0.0,0.47011099999999995,-0.281494,0.5820310000000001,0.60083,0.878431,-0.445808,-0.15332300000000001,-0.03398,-0.037339,-0.03756,,,,,,,,,,,,,,,,,,,,,,,,,,,,,,,,,,,,,,,,,,,,,,,,,,,,,,,,,,,,,,,,,
15147,1645582764.534081,99.0,0.0,4175.897461,4278.461426,4226.666504,4286.666504,4276.410156,16235.0,4.0,95.0,,,,0.0,4.0,2.0,4.0,4.0,4.0,83.333336,,,,,,,,,,,,,,,,,,,,,,,,,,,,,,,,,,,,,,,,,,,,,,,,,,,,,,0.0,0.0,1.0,0.0,512.0,0.938795,,,,,,,,,,,,,,,,,,,,,,,,,
15148,1645582764.541897,100.0,0.0,4180.512695,4170.256348,4232.307617,4304.615234000001,4171.282227000001,450.0,4.0,95.0,,,,0.0,4.0,2.0,4.0,4.0,4.0,83.333336,,,,,,,,50.0,0.0,0.47011099999999995,-0.281494,0.5820310000000001,0.60083,0.8916149999999999,-0.437018,-0.164553,-0.033951999999999996,-0.037267,-0.032779,,,,,,,,,,,,,,,,,,,,,,,,,,,,,,,,,,,,,,,,,,,,,,,,,,,,,,,,,,,,,,,,,
15149,1645582764.549712,101.0,0.0,4182.563965,4288.205078,4245.641113000001,4321.538574,4117.94873,450.0,4.0,95.0,,,,0.0,4.0,2.0,4.0,4.0,4.0,83.333336,,,,,,,,,,,,,,,,,,,,,,,,,,,,,,,,,,,,,,,,,,,,,,,,,,,,,,,,,,,,,,,,,,,,,,,,,,,,,,,,,,,,
15150,1645582764.557528,102.0,0.0,4247.179688,4462.05127,4299.487305,4372.820313,4133.333496,450.0,4.0,95.0,,,,0.0,4.0,2.0,4.0,4.0,4.0,83.333336,,,,,,,,51.0,0.0,0.46996400000000005,-0.281738,0.5820310000000001,0.60083,0.8955209999999999,-0.451667,-0.15967,-0.033926,-0.037251,-0.034774,,,,,,,,,,,,,,,,,,,,,,,,,,,,,,,,,,,,,,,,,,,,,,,,,,,,,,,,,,,,,,,,,
15151,1645582764.565343,103.0,0.0,4295.897461,4539.487305,4327.692383,4379.487305,4159.487305,16235.0,4.0,95.0,,,,0.0,4.0,2.0,4.0,4.0,4.0,83.333336,,,,,,,,,,,,,,,,,,,,,,,,,,,,,,,,,,,,,,,,,,,,,,,,,,,,,,0.0,0.0,1.0,0.0,512.0,0.938795,,,,,,,,,,,,,,,,,,,,,,,,,
15152,1645582764.5732589,104.0,0.0,4298.461426,4553.846191,4338.974121,4309.743652,4173.846191,450.0,4.0,95.0,,,,0.0,4.0,2.0,4.0,4.0,4.0,83.333336,,,,,,,,52.0,0.0,0.47011099999999995,-0.281494,0.5820310000000001,0.60083,0.8916149999999999,-0.437018,-0.164553,-0.033902,-0.037188,-0.030271,,,,,,,,,,,,,,,,,,,,,,,,,,,,,,,,,,,,,,,,,,,,,,,,,,,,,,,,,,,,,,,,,
15153,1645582764.581075,105.0,0.0,4298.974121,4513.333496,4353.846191,4247.179688,4182.05127,450.0,4.0,95.0,,,,0.0,4.0,2.0,4.0,4.0,4.0,83.333336,,,,,,,,,,,,,,,,,,,,,,,,,,,,,,,,,,,,,,,,,,,,,,,,,,,,,,,,,,,,,,,,,,,,,,,,,,,,,,,,,,,,
15154,1645582764.58889,106.0,0.0,4318.461426,4523.077147999999,4338.974121,4229.230957,4172.307617,450.0,4.0,95.0,,,,0.0,4.0,2.0,4.0,4.0,4.0,83.333336,,,,,,,,53.0,0.0,0.47011099999999995,-0.281494,0.5820310000000001,0.60083,0.8803850000000001,-0.44190100000000004,-0.167483,-0.03393,-0.03718,-0.026121,,,,,,,,,,,,,,,,,,,,,,,,,,,,,,,,,,,,,,,,,,,,,,,,,,,,,,,,,,,,,,,,,
15155,1645582764.5967062,107.0,0.0,4354.358886999999,4577.436035,4304.615234000001,4221.538574,4181.538574,16235.0,4.0,95.0,,,,0.0,4.0,2.0,4.0,4.0,4.0,83.333336,,,,,,,,,,,,,,,,,,,,,,,,,,,,,,,,,,,,,,,,,,,,,,,,,,,,,,0.0,0.0,1.0,0.0,512.0,0.938795,,,,,,,,,,,,,,,,,,,,,,,,,
15156,1645582764.604521,108.0,0.0,4354.871582,4611.282227000001,4268.717772999999,4205.641113000001,4208.717772999999,450.0,4.0,95.0,,,,0.0,4.0,2.0,4.0,4.0,4.0,83.333336,,,,,,,,54.0,0.0,0.47011099999999995,-0.281494,0.5820310000000001,0.60083,0.889174,-0.44483100000000003,-0.161624,-0.033955,-0.037125,-0.028636,,,,,,,,,,,,,,,,,,,,,,,,,,,,,,,,,,,,,,,,,,,,,,,,,,,,,,,,,,,,,,,,,
15157,1645582764.6123369,109.0,0.0,4326.666504,4708.717772999999,4224.102539,4184.102539,4205.641113000001,450.0,4.0,95.0,,,,0.0,4.0,2.0,4.0,4.0,4.0,83.333336,,,,,,,,,,,,,,,,,,,,,,,,,,,,,,,,,,,,,,,,,,,,,,,,,,,,,,,,,,,,,,,,,,,,,,,,,,,,,,,,,,,,
15158,1645582764.620153,110.0,0.0,4331.794922,4721.538574,4217.436035,4169.230957,4204.615234000001,450.0,4.0,95.0,,,,0.0,4.0,2.0,4.0,4.0,4.0,83.333336,,,,,,,,55.0,0.0,0.470413,-0.281494,0.5817869999999999,0.60083,0.886244,-0.44238999999999995,-0.173342,-0.033929,-0.037172000000000004,-0.024796000000000002,,,,,,,,,,,,,,,,,,,,,,,,,,,,,,,,,,,,,,,,,,,,,,,,,,,,,,,,,,,,,,,,,
15159,1645582764.627968,111.0,0.0,4344.615234000001,4557.436035,4241.538574,4169.743652,4215.897461,16235.0,4.0,95.0,,,,0.0,4.0,2.0,4.0,4.0,4.0,83.333336,1.0,16.666666,1.0,0.0,1.0,1.0,1.0,,,,,,,,,,,,,1.0,0.0,0.0,,,,,,,,,,,,,,,,,,,,,,,,,,,,,,,,0.0,0.0,1.0,0.0,512.0,0.763789,220.104584,9.696404,8.797025999999999,11.233452,3.4103730000000003,381.57955899999996,252.579697,228.494476,57.801414,56.392849,21.867275,9.601105,18.024973000000003,8.414496,5.218481,17.018185,35.2342,24.460453,15.424735,6.993274,106.45010400000001,8.886832,9.31697,10.784924,4.267812999999999
15160,1645582764.635784,112.0,0.0,4331.282227000001,4546.666504,4238.974121,4178.461426,4220.0,450.0,4.0,95.0,,,,0.0,4.0,2.0,4.0,4.0,4.0,83.333336,,,,,,,,56.0,0.0,0.470413,-0.281494,0.5817869999999999,0.60083,0.8896620000000001,-0.445808,-0.17236600000000002,-0.033807,-0.037263,-0.027395,,,,,,,,,,,,,,,,,,,,,,,,,,,,,,,,,,,,,,,,,,,,,,,,,,,,,,,,,,,,,,,,,
15161,1645582764.643599,113.0,0.0,4350.256348,4661.025879,4239.487305,4188.205078,4230.769043,450.0,4.0,95.0,,,,0.0,4.0,2.0,4.0,4.0,4.0,83.333336,,,,,,,,,,,,,,,,,,,,,,,,,,,,,,,,,,,,,,,,,,,,,,,,,,,,,,,,,,,,,,,,,,,,,,,,,,,,,,,,,,,,
15162,1645582764.651515,114.0,0.0,4375.897461,4661.025879,4227.179688,4184.615234000001,4229.743652,450.0,4.0,95.0,,,,0.0,4.0,2.0,4.0,4.0,4.0,83.333336,,,,,,,,57.0,0.0,0.470413,-0.281494,0.5817869999999999,0.60083,0.8916149999999999,-0.43262399999999995,-0.165042,-0.033747000000000006,-0.037248,-0.023581,,,,,,,,,,,,,,,,,,,,,,,,,,,,,,,,,,,,,,,,,,,,,,,,,,,,,,,,,,,,,,,,,
15163,1645582764.6593301,115.0,0.0,4345.128418,4688.717772999999,4166.153809,4170.769043,4205.128418,16235.0,4.0,95.0,,,,0.0,4.0,2.0,4.0,4.0,4.0,83.333336,,,,,,,,,,,,,,,,,,,,,,,,,,,,,,,,,,,,,,,,,,,,,,,,,,,,,,0.0,0.0,1.0,0.0,512.0,0.763789,,,,,,,,,,,,,,,,,,,,,,,,,
15164,1645582764.667145,116.0,0.0,4343.589844,4780.512695,4142.05127,4168.205078,4209.230957,450.0,4.0,95.0,,,,0.0,4.0,2.0,4.0,4.0,4.0,83.333336,,,,,,,,58.0,0.0,0.470413,-0.281494,0.5817869999999999,0.60083,0.903334,-0.43457700000000005,-0.158694,-0.033693,-0.037233999999999996,-0.026399000000000002,,,,,,,,,,,,,,,,,,,,,,,,,,,,,,,,,,,,,,,,,,,,,,,,,,,,,,,,,,,,,,,,,
15165,1645582764.6749609,117.0,0.0,4394.358886999999,4788.205078,4165.128418,4184.615234000001,4251.282227000001,450.0,4.0,95.0,,,,0.0,4.0,2.0,4.0,4.0,4.0,83.333336,,,,,,,,,,,,,,,,,,,,,,,,,,,,,,,,,,,,,,,,,,,,,,,,,,,,,,,,,,,,,,,,,,,,,,,,,,,,,,,,,,,,
15166,1645582764.682776,118.0,0.0,4402.05127,4742.05127,4140.0,4202.05127,4281.025879,450.0,4.0,95.0,,,,0.0,4.0,2.0,4.0,4.0,4.0,83.333336,,,,,,,,59.0,0.0,0.470714,-0.281494,0.581543,0.60083,0.8930799999999999,-0.431647,-0.17236600000000002,-0.033693,-0.037222000000000005,-0.022636,,,,,,,,,,,,,,,,,,,,,,,,,,,,,,,,,,,,,,,,,,,,,,,,,,,,,,,,,,,,,,,,,
15167,1645582764.690591,119.0,0.0,4368.205078,4649.743652,4083.5898439999996,4181.025879,4296.410156,16235.0,4.0,95.0,,,,0.0,4.0,2.0,4.0,4.0,4.0,83.333336,,,,,,,,,,,,,,,,,,,,,,,,,,,,,,,,,,,,,,,,,,,,,,,,,,,,,,0.0,0.0,1.0,0.0,512.0,0.763789,,,,,,,,,,,,,,,,,,,,,,,,,
15168,1645582764.698407,120.0,0.0,4294.871582,4487.179688,4084.102539,4172.820313,4301.025879,450.0,4.0,95.0,,,,0.0,4.0,2.0,4.0,4.0,4.0,83.333336,,,,,,,,60.0,0.0,0.470724,-0.281494,0.5817869999999999,0.600586,0.8989389999999999,-0.43946,-0.15820599999999999,-0.033644,-0.037162,-0.025499,,,,,,,,,,,,,,,,,,,,,,,,,,,,,,,,,,,,,,,,,,,,,,,,,,,,,,,,,,,,,,,,,
15169,1645582764.706222,121.0,0.0,4198.461426,4279.487305,4136.922852000001,4237.94873,4287.692383,450.0,4.0,95.0,,,,0.0,4.0,2.0,4.0,4.0,4.0,83.333336,,,,,,,,,,,,,,,,,,,,,,,,,,,,,,,,,,,,,,,,,,,,,,,,,,,,,,,,,,,,,,,,,,,,,,,,,,,,,,,,,,,,
15170,1645582764.714037,122.0,0.0,4164.615234000001,4046.6667479999996,4188.717772999999,4321.538574,4262.563965,450.0,4.0,95.0,,,,0.0,4.0,2.0,4.0,4.0,4.0,83.333336,,,,,,,,61.0,0.0,0.470724,-0.281494,0.5817869999999999,0.600586,0.8930799999999999,-0.42676400000000003,-0.16552999999999998,-0.033649,-0.037254,-0.028174,,,,,,,,,,,,,,,,,,,,,,,,,,,,,,,,,,,,,,,,,,,,,,,,,,,,,,,,,,,,,,,,,
15171,1645582764.721853,123.0,0.0,4187.179688,4034.358887,4223.077147999999,4360.512695,4208.205078,16235.0,4.0,95.0,,,,0.0,4.0,2.0,4.0,4.0,4.0,83.333336,,,,,,,,,,,,,,,,,,,,,,,,,,,,,,,,,,,,,,,,,,,,,,,,,,,,,,0.0,0.0,1.0,0.0,512.0,0.763789,,,,,,,,,,,,,,,,,,,,,,,,,
15172,1645582764.729768,124.0,0.0,4192.820313,4197.94873,4262.05127,4376.410156,4136.410156,450.0,4.0,95.0,,,,0.0,4.0,2.0,4.0,4.0,4.0,83.333336,,,,,,,,62.0,0.0,0.470724,-0.281494,0.5817869999999999,0.600586,0.9091940000000001,-0.4336,-0.164553,-0.033604,-0.037239999999999995,-0.030532,,,,,,,,,,,,,,,,,,,,,,,,,,,,,,,,,,,,,,,,,,,,,,,,,,,,,,,,,,,,,,,,,
15173,1645582764.737583,125.0,0.0,4204.102539,4121.025879,4300.0,4385.641113000001,4110.256348,450.0,4.0,95.0,,,,0.0,4.0,2.0,4.0,4.0,4.0,83.333336,,,,,,,,,,,,,,,,,,,,,,,,,,,,,,,,,,,,,,,,,,,,,,,,,,,,,,,,,,,,,,,,,,,,,,,,,,,,,,,,,,,,
