,Timestamp,OriginalTimestamp,EEG.Counter,EEG.Interpolated,EEG.AF3,EEG.T7,EEG.Pz,EEG.T8,EEG.AF4,EEG.RawCq,EEG.Battery,EEG.BatteryPercent,MarkerIndex,MarkerType,MarkerValueInt,EEG.MarkerHardware,CQ.AF3,CQ.T7,CQ.Pz,CQ.T8,CQ.AF4,CQ.Overall,EQ.SampleRateQuality,EQ.OVERALL,EQ.AF3,EQ.T7,EQ.Pz,EQ.T8,EQ.AF4,MOT.CounterMems,MOT.InterpolatedMems,MOT.Q0,MOT.Q1,MOT.Q2,MOT.Q3,MOT.AccX,MOT.AccY,MOT.AccZ,MOT.MagX,MOT.MagY,MOT.MagZ,MC.Action,MC.ActionPower,MC.IsActive,PM.Engagement.IsActive,PM.Engagement.Scaled,PM.Engagement.Raw,PM.Engagement.Min,PM.Engagement.Max,PM.Excitement.IsActive,PM.Excitement.Scaled,PM.Excitement.Raw,PM.Excitement.Min,PM.Excitement.Max,PM.LongTermExcitement,PM.Stress.IsActive,PM.Stress.Scaled,PM.Stress.Raw,PM.Stress.Min,PM.Stress.Max,PM.Relaxation.IsActive,PM.Relaxation.Scaled,PM.Relaxation.Raw,PM.Relaxation.Min,PM.Relaxation.Max,PM.Interest.IsActive,PM.Interest.Scaled,PM.Interest.Raw,PM.Interest.Min,PM.Interest.Max,PM.Focus.IsActive,PM.Focus.Scaled,PM.Focus.Raw,PM.Focus.Min,PM.Focus.Max,FE.BlinkWink,FE.HorizontalEyesDirection,FE.UpperFaceAction,FE.UpperFaceActionPower,FE.LowerFaceAction,FE.LowerFaceActionPower,POW.AF3.Theta,POW.AF3.Alpha,POW.AF3.BetaL,POW.AF3.BetaH,POW.AF3.Gamma,POW.T7.Theta,POW.T7.Alpha,POW.T7.BetaL,POW.T7.BetaH,POW.T7.Gamma,POW.Pz.Theta,POW.Pz.Alpha,POW.Pz.BetaL,POW.Pz.BetaH,POW.Pz.Gamma,POW.T8.Theta,POW.T8.Alpha,POW.T8.BetaL,POW.T8.BetaH,POW.T8.Gamma,POW.AF4.Theta,POW.AF4.Alpha,POW.AF4.BetaL,POW.AF4.BetaH,POW.AF4.Gamma
11781,1645901859.875694,1645901859.908821,46.0,0.0,4327.179688,4449.743652,4221.025879,4211.794922,4287.692383,0.0,1.0,15.0,,,,0.0,2.0,0.0,1.0,2.0,2.0,25.0,,,,,,,,23.0,0.0,0.718586,0.11792000000000001,0.663086,0.17334000000000002,0.914565,-0.40381500000000004,-0.100587,-0.027632999999999998,-0.033562,-0.015643999999999998,,,,,,,,,,,,,,,,,,,,,,,,,,,,,,,,,,,0.0,0.0,1.0,0.0,512.0,1.0,,,,,,,,,,,,,,,,,,,,,,,,,
11782,1645901859.883509,1645901859.916636,47.0,0.0,4351.282227000001,4368.717772999999,4194.358886999999,4213.846191,4312.820313,0.0,1.0,15.0,,,,0.0,2.0,0.0,1.0,2.0,2.0,25.0,,,,,,,,,,,,,,,,,,,,,,,,,,,,,,,,,,,,,,,,,,,,,,,,,,,,,,,,,,,,,,,,,,,,,,,,,,,,,,,,,,,,
11783,1645901859.891324,1645901859.9244509,48.0,0.0,4357.94873,4437.436035,4186.153809,4208.717772999999,4334.358886999999,0.0,1.0,15.0,,,,0.0,2.0,0.0,1.0,2.0,2.0,25.0,,,,,,,,24.0,0.0,0.71887,0.11792000000000001,0.662842,0.173096,0.9091940000000001,-0.407721,-0.089357,-0.028044,-0.033575,-0.013297999999999999,,,,,,,,,,,,,,,,,,,,,,,,,,,,,,,,,,,,,,,,,,,,,,,,,,,,,,,,,,,,,,,,,
11784,1645901859.8991401,1645901859.932265,49.0,0.0,4343.077147999999,4451.282227000001,4234.358886999999,4191.794922,4322.563965,0.0,1.0,15.0,,,,0.0,2.0,0.0,1.0,2.0,2.0,25.0,,,,,,,,,,,,,,,,,,,,,,,,,,,,,,,,,,,,,,,,,,,,,,,,,,,,,,,,,,,,,,,,,,,,,,,,,,,,,,,,,,,,
11785,1645901859.906955,1645901859.9400802,50.0,0.0,4334.358886999999,4395.897461,4207.692383,4176.922852000001,4288.205078,0.0,1.0,15.0,,,,0.0,2.0,0.0,1.0,2.0,2.0,25.0,,,,,,,,25.0,0.0,0.71887,0.11792000000000001,0.662842,0.173096,0.925307,-0.39697899999999997,-0.095216,-0.028560000000000002,-0.033587,-0.01441,,,,,,,,,,,,,,,,,,,,,,,,,,,,,,,,,,,0.0,0.0,1.0,0.0,512.0,1.0,,,,,,,,,,,,,,,,,,,,,,,,,
11786,1645901859.91477,1645901859.9478948,51.0,0.0,4335.384765999999,4382.05127,4228.205078,4183.077147999999,4273.333496,0.0,1.0,15.0,,,,0.0,2.0,0.0,1.0,2.0,2.0,25.0,,,,,,,,,,,,,,,,,,,,,,,,,,,,,,,,,,,,,,,,,,,,,,,,,,,,,,,,,,,,,,,,,,,,,,,,,,,,,,,,,,,,
11787,1645901859.922585,1645901859.955709,52.0,0.0,4329.230957,4372.820313,4275.897461,4174.871582,4273.846191,0.0,1.0,15.0,,,,0.0,2.0,0.0,1.0,2.0,2.0,25.0,,,,,,,,26.0,0.0,0.7190949999999999,0.11792000000000001,0.6625979999999999,0.173096,0.9184709999999999,-0.397955,-0.087404,-0.028926999999999998,-0.033548,-0.01209,,,,,,,,,,,,,,,,,,,,,,,,,,,,,,,,,,,,,,,,,,,,,,,,,,,,,,,,,,,,,,,,,
11788,1645901859.9304,1645901859.963524,53.0,0.0,4326.153809,4391.282227000001,4302.563965,4163.589844,4260.512695,0.0,1.0,15.0,,,,0.0,2.0,0.0,1.0,2.0,2.0,25.0,,,,,,,,,,,,,,,,,,,,,,,,,,,,,,,,,,,,,,,,,,,,,,,,,,,,,,,,,,,,,,,,,,,,,,,,,,,,,,,,,,,,
11789,1645901859.938216,1645901859.971339,54.0,0.0,4340.512695,4409.743652,4283.077147999999,4191.794922,4258.974121,0.0,1.0,15.0,,,,0.0,2.0,0.0,1.0,2.0,2.0,25.0,,,,,,,,27.0,0.0,0.719055,0.118164,0.6625979999999999,0.173096,0.9316549999999999,-0.393072,-0.099611,-0.029305,-0.033416,-0.0101,1.0,0.0,0.0,,,,,,,,,,,,,,,,,,,,,,,,,,,,,,,,0.0,0.0,1.0,0.0,512.0,0.773446,18.511042,8.815918,2.006554,2.408057,1.740936,72.679626,59.098473,30.053156,21.379192,22.643562,48.577732,32.453594,1.599534,5.090234,5.82724,3.762259,7.738094,5.276382,3.839928,2.5646240000000002,7.854384,3.949646,1.163877,2.5482139999999998,1.5612780000000002
11790,1645901859.946031,1645901859.9792528,55.0,0.0,4347.179688,4374.358886999999,4267.692383,4228.205078,4280.0,0.0,1.0,15.0,,,,0.0,2.0,0.0,1.0,2.0,2.0,25.0,,,,,,,,,,,,,,,,,,,,,,,,,,,,,,,,,,,,,,,,,,,,,,,,,,,,,,,,,,,,,,,,,,,,,,,,,,,,,,,,,,,,
11791,1645901859.953846,1645901859.987068,56.0,0.0,4354.358886999999,4366.153809,4224.615234000001,4224.615234000001,4301.025879,0.0,1.0,15.0,,,,0.0,2.0,0.0,1.0,2.0,2.0,25.0,,,,,,,,28.0,0.0,0.719113,0.118164,0.6625979999999999,0.172852,0.9126120000000001,-0.380865,-0.095705,-0.029549000000000002,-0.033444,-0.011433,,,,,,,,,,,,,,,,,,,,,,,,,,,,,,,,,,,,,,,,,,,,,,,,,,,,,,,,,,,,,,,,,
11792,1645901859.9616609,1645901859.994882,57.0,0.0,4338.461426,4360.512695,4238.974121,4192.820313,4293.333496,0.0,1.0,15.0,,,,0.0,2.0,0.0,1.0,2.0,2.0,25.0,,,,,,,,,,,,,,,,,,,,,,,,,,,,,,,,,,,,,,,,,,,,,,,,,,,,,,,,,,,,,,,,,,,,,,,,,,,,,,,,,,,,
11793,1645901859.969476,1645901860.002697,58.0,0.0,4328.717772999999,4311.794922,4226.153809,4175.384765999999,4305.641113000001,0.0,1.0,15.0,,,,0.0,2.0,0.0,1.0,2.0,2.0,25.0,,,,,,,,29.0,0.0,0.719113,0.118164,0.6625979999999999,0.172852,0.9248190000000001,-0.398932,-0.07910299999999999,-0.026643,-0.033518,-0.012683,,,,,,,,,,,,,,,,,,,,,,,,,,,,,,,,,,,0.0,0.0,1.0,0.0,512.0,0.773446,,,,,,,,,,,,,,,,,,,,,,,,,
11794,1645901859.977291,1645901860.0105119,59.0,0.0,4337.436035,4357.436035,4179.487305,4177.436035,4321.025879,0.0,1.0,15.0,,,,0.0,2.0,0.0,1.0,2.0,2.0,25.0,,,,,,,,,,,,,,,,,,,,,,,,,,,,,,,,,,,,,,,,,,,,,,,,,,,,,,,,,,,,,,,,,,,,,,,,,,,,,,,,,,,,
11795,1645901859.985107,1645901860.018326,60.0,0.0,4350.256348,4457.436035,4175.384765999999,4200.0,4317.94873,0.0,1.0,15.0,,,,0.0,2.0,0.0,1.0,2.0,2.0,25.0,,,,,,,,30.0,0.0,0.719113,0.118164,0.6625979999999999,0.172852,0.93019,-0.38233,-0.099611,-0.027201,-0.033486,-0.013807,,,,,,,,,,,,,,,,,,,,,,,,,,,,,,,,,,,,,,,,,,,,,,,,,,,,,,,,,,,,,,,,,
11796,1645901859.992922,1645901860.026141,61.0,0.0,4350.769043,4438.974121,4216.922852000001,4201.025879,4312.307617,0.0,1.0,15.0,,,,0.0,2.0,0.0,1.0,2.0,2.0,25.0,,,,,,,,,,,,,,,,,,,,,,,,,,,,,,,,,,,,,,,,,,,,,,,,,,,,,,,,,,,,,,,,,,,,,,,,,,,,,,,,,,,,
11797,1645901860.000737,1645901860.033956,62.0,0.0,4364.615234000001,4432.820313,4222.05127,4195.384765999999,4336.922852000001,0.0,1.0,15.0,,,,0.0,2.0,0.0,1.0,2.0,2.0,25.0,,,,,,,,31.0,0.0,0.719338,0.118164,0.662354,0.172852,0.9282370000000001,-0.401862,-0.092287,-0.027655000000000002,-0.033458,-0.014769999999999998,,,,,,,,,,,,,,,,,,,,,,,,,,,,,,,,,,,0.0,0.0,1.0,0.0,512.0,0.773446,,,,,,,,,,,,,,,,,,,,,,,,,
11798,1645901860.0085518,1645901860.04177,63.0,0.0,4358.461426,4440.512695,4209.230957,4209.230957,4316.922852000001,0.0,1.0,15.0,,,,0.0,2.0,0.0,1.0,2.0,2.0,25.0,,,,,,,,,,,,,,,,,,,,,,,,,,,,,,,,,,,,,,,,,,,,,,,,,,,,,,,,,,,,,,,,,,,,,,,,,,,,,,,,,,,,
11799,1645901860.016367,1645901860.049685,64.0,0.0,4349.743652,4389.743652,4195.897461,4205.641113000001,4292.820313,450.0,1.0,15.0,,,,0.0,4.0,1.0,0.0,2.0,2.0,25.0,,,,,,,,32.0,0.0,0.719437,0.11792000000000001,0.662354,0.17260699999999998,0.926284,-0.385748,-0.098634,-0.028063,-0.033481,-0.012707,,,,,,,,,,,,,,,,,,,,,,,,,,,,,,,,,,,,,,,,,,,,,,,,,,,,,,,,,,,,,,,,,
11800,1645901860.024182,1645901860.057499,65.0,0.0,4351.794922,4353.333496,4170.256348,4155.384765999999,4318.974121,450.0,1.0,15.0,,,,0.0,4.0,1.0,0.0,2.0,2.0,25.0,,,,,,,,,,,,,,,,,,,,,,,,,,,,,,,,,,,,,,,,,,,,,,,,,,,,,,,,,,,,,,,,,,,,,,,,,,,,,,,,,,,,
11801,1645901860.0319982,1645901860.065314,66.0,0.0,4345.128418,4332.307617,4207.179688,4158.974121,4323.077147999999,16156.0,1.0,15.0,,,,0.0,4.0,1.0,0.0,2.0,2.0,25.0,,,,,,,,33.0,0.0,0.719437,0.11792000000000001,0.662354,0.17260699999999998,0.9184709999999999,-0.39502600000000004,-0.1084,-0.028480000000000002,-0.0336,-0.013731,,,,,,,,,,,,,,,,,,,,,,,,,,,,,,,,,,,0.0,0.0,1.0,0.0,512.0,0.773446,,,,,,,,,,,,,,,,,,,,,,,,,
11802,1645901860.039813,1645901860.073129,67.0,0.0,4337.94873,4366.666504,4231.794922,4198.461426,4295.897461,450.0,1.0,15.0,,,,0.0,4.0,1.0,0.0,2.0,2.0,25.0,,,,,,,,,,,,,,,,,,,,,,,,,,,,,,,,,,,,,,,,,,,,,,,,,,,,,,,,,,,,,,,,,,,,,,,,,,,,,,,,,,,,
11803,1645901860.047628,1645901860.0809429,68.0,0.0,4352.307617,4472.820313,4252.820313,4189.230957,4300.0,109.0,1.0,15.0,,,,0.0,4.0,1.0,0.0,2.0,2.0,25.0,,,,,,,,34.0,0.0,0.719662,0.11792000000000001,0.6621090000000001,0.17260699999999998,0.923842,-0.397467,-0.09472799999999999,-0.028756999999999998,-0.03356,-0.014750999999999998,,,,,,,,,,,,,,,,,,,,,,,,,,,,,,,,,,,,,,,,,,,,,,,,,,,,,,,,,,,,,,,,,
11804,1645901860.055443,1645901860.088758,69.0,0.0,4353.846191,4487.179688,4271.282227000001,4150.256348,4313.846191,450.0,1.0,15.0,,,,0.0,4.0,1.0,0.0,2.0,2.0,25.0,,,,,,,,,,,,,,,,,,,,,,,,,,,,,,,,,,,,,,,,,,,,,,,,,,,,,,,,,,,,,,,,,,,,,,,,,,,,,,,,,,,,
11805,1645901860.063258,1645901860.096573,70.0,0.0,4336.922852000001,4419.487305,4292.820313,4154.358886999999,4296.922852000001,0.0,1.0,15.0,,,,0.0,4.0,1.0,0.0,2.0,2.0,25.0,,,,,,,,35.0,0.0,0.719662,0.11792000000000001,0.6621090000000001,0.17260699999999998,0.922377,-0.394049,-0.097169,-0.028957,-0.033525,-0.012543,1.0,0.0,0.0,,,,,,,,,,,,,,,,,,,,,,,,,,,,,,,,0.0,0.0,1.0,0.0,512.0,0.57271,14.357895999999998,7.781826,2.238147,2.496653,1.652868,76.758965,65.608536,27.471785999999998,19.496983,23.889576,44.12011,31.601885,1.317623,4.846116,5.544693,4.358638,8.763492999999999,5.674567,3.736367,2.5438169999999998,6.710261,4.247486,1.2374319999999999,2.298752,1.488951
11806,1645901860.071073,1645901860.1043868,71.0,0.0,4355.897461,4421.025879,4245.641113000001,4187.179688,4293.333496,450.0,1.0,15.0,,,,0.0,4.0,1.0,0.0,2.0,2.0,25.0,,,,,,,,,,,,,,,,,,,,,,,,,,,,,,,,,,,,,,,,,,,,,,,,,,,,,,,,,,,,,,,,,,,,,,,,,,,,,,,,,,,,
11807,1645901860.0788891,1645901860.112202,72.0,0.0,4358.974121,4386.666504,4229.230957,4202.563965,4311.794922,450.0,1.0,15.0,,,,0.0,4.0,1.0,0.0,2.0,2.0,25.0,,,,,,,,36.0,0.0,0.71968,0.118164,0.6621090000000001,0.17236300000000002,0.91017,-0.39649,-0.089357,-0.029187,-0.033541,-0.010508,,,,,,,,,,,,,,,,,,,,,,,,,,,,,,,,,,,,,,,,,,,,,,,,,,,,,,,,,,,,,,,,,
11808,1645901860.086704,1645901860.120117,73.0,0.0,4330.769043,4334.871582,4220.512695,4198.461426,4315.897461,16091.0,1.0,15.0,,,,0.0,4.0,1.0,0.0,4.0,4.0,41.666668,,,,,,,,,,,,,,,,,,,,,,,,,,,,,,,,,,,,,,,,,,,,,,,,,,,,,,,,,,,,,,,,,,,,,,,,,,,,,,,,,,,,
11809,1645901860.094519,1645901860.127931,74.0,0.0,4316.922852000001,4410.769043,4205.128418,4175.384765999999,4292.820313,450.0,1.0,15.0,,,,0.0,4.0,1.0,0.0,4.0,4.0,41.666668,,,,,,,,37.0,0.0,0.71968,0.118164,0.6621090000000001,0.17236300000000002,0.9350729999999999,-0.396002,-0.09472799999999999,-0.029442000000000003,-0.033605,-0.008725,,,,,,,,,,,,,,,,,,,,,,,,,,,,,,,,,,,0.0,0.0,1.0,0.0,512.0,0.57271,,,,,,,,,,,,,,,,,,,,,,,,,
11810,1645901860.102334,1645901860.135746,75.0,0.0,4342.563965,4468.205078,4183.077147999999,4176.922852000001,4297.94873,16173.0,1.0,15.0,,,,0.0,4.0,1.0,0.0,4.0,4.0,41.666668,,,,,,,,,,,,,,,,,,,,,,,,,,,,,,,,,,,,,,,,,,,,,,,,,,,,,,,,,,,,,,,,,,,,,,,,,,,,,,,,,,,,
11811,1645901860.110149,1645901860.14356,76.0,0.0,4355.384765999999,4453.333496,4210.769043,4196.410156,4309.230957,450.0,1.0,15.0,,,,0.0,4.0,1.0,0.0,4.0,4.0,41.666668,,,,,,,,38.0,0.0,0.71968,0.118164,0.6621090000000001,0.17236300000000002,0.929213,-0.391608,-0.095705,-0.026545999999999997,-0.033663,-0.010098000000000001,,,,,,,,,,,,,,,,,,,,,,,,,,,,,,,,,,,,,,,,,,,,,,,,,,,,,,,,,,,,,,,,,
11812,1645901860.117964,1645901860.151375,77.0,0.0,4357.436035,4445.641113000001,4220.512695,4190.256348,4312.307617,450.0,1.0,15.0,,,,0.0,4.0,1.0,0.0,4.0,4.0,41.666668,,,,,,,,,,,,,,,,,,,,,,,,,,,,,,,,,,,,,,,,,,,,,,,,,,,,,,,,,,,,,,,,,,,,,,,,,,,,,,,,,,,,
11813,1645901860.12578,1645901860.15919,78.0,0.0,4341.025879,4415.897461,4208.205078,4147.692383,4312.307617,450.0,1.0,15.0,,,,0.0,4.0,1.0,0.0,4.0,4.0,41.666668,,,,,,,,39.0,0.0,0.71968,0.118164,0.6621090000000001,0.17236300000000002,0.925307,-0.398932,-0.090822,-0.027066000000000003,-0.033519,-0.008209000000000001,,,,,,,,,,,,,,,,,,,,,,,,,,,,,,,,,,,0.0,0.0,1.0,0.0,512.0,0.57271,,,,,,,,,,,,,,,,,,,,,,,,,
11814,1645901860.133595,1645901860.1670039,79.0,0.0,4342.05127,4421.025879,4206.153809,4138.461426,4318.974121,16173.0,1.0,15.0,,,,0.0,4.0,1.0,0.0,4.0,4.0,41.666668,,,,,,,,,,,,,,,,,,,,,,,,,,,,,,,,,,,,,,,,,,,,,,,,,,,,,,,,,,,,,,,,,,,,,,,,,,,,,,,,,,,,
11815,1645901860.1414099,1645901860.174819,80.0,0.0,4347.692383,4450.256348,4198.974121,4155.897461,4296.922852000001,450.0,1.0,15.0,,,,0.0,4.0,1.0,0.0,4.0,4.0,41.666668,,,,,,,,40.0,0.0,0.719905,0.118164,0.6618649999999999,0.17236300000000002,0.937026,-0.389166,-0.090822,-0.024408000000000003,-0.033488,-0.006606999999999999,,,,,,,,,,,,,,,,,,,,,,,,,,,,,,,,,,,,,,,,,,,,,,,,,,,,,,,,,,,,,,,,,
11816,1645901860.149225,1645901860.1826339,81.0,0.0,4339.487305,4437.436035,4199.487305,4162.563965,4282.563965,450.0,1.0,15.0,,,,0.0,4.0,1.0,0.0,4.0,4.0,41.666668,,,,,,,,,,,,,,,,,,,,,,,,,,,,,,,,,,,,,,,,,,,,,,,,,,,,,,,,,,,,,,,,,,,,,,,,,,,,,,,,,,,,
11817,1645901860.15704,1645901860.190448,82.0,0.0,4321.538574,4445.641113000001,4236.922852000001,4141.025879,4286.153809,450.0,1.0,15.0,,,,0.0,4.0,1.0,0.0,4.0,4.0,41.666668,,,,,,,,41.0,0.0,0.719905,0.118164,0.6618649999999999,0.17236300000000002,0.9248190000000001,-0.395514,-0.101076,-0.02519,-0.033606,-0.005263,,,,,,,,,,,,,,,,,,,,,,,,,,,,,,,,,,,0.0,0.0,1.0,0.0,512.0,0.57271,,,,,,,,,,,,,,,,,,,,,,,,,
11818,1645901860.164855,1645901860.198363,83.0,0.0,4316.922852000001,4458.461426,4278.461426,4133.333496,4269.743652,16173.0,1.0,15.0,,,,0.0,4.0,1.0,0.0,4.0,4.0,41.666668,,,,,,,,,,,,,,,,,,,,,,,,,,,,,,,,,,,,,,,,,,,,,,,,,,,,,,,,,,,,,,,,,,,,,,,,,,,,,,,,,,,,
11819,1645901860.172671,1645901860.206178,84.0,0.0,4321.538574,4377.436035,4221.538574,4153.846191,4261.538574,450.0,1.0,15.0,,,,0.0,4.0,1.0,0.0,4.0,4.0,41.666668,,,,,,,,42.0,0.0,0.719846,0.118164,0.6618649999999999,0.17260699999999998,0.920424,-0.391608,-0.101564,-0.022769,-0.033614,-0.006934,,,,,,,,,,,,,,,,,,,,,,,,,,,,,,,,,,,,,,,,,,,,,,,,,,,,,,,,,,,,,,,,,
11820,1645901860.180486,1645901860.2139919,85.0,0.0,4308.205078,4298.974121,4267.179688,4174.871582,4270.769043,450.0,1.0,15.0,,,,0.0,4.0,1.0,0.0,4.0,4.0,41.666668,,,,,,,,,,,,,,,,,,,,,,,,,,,,,,,,,,,,,,,,,,,,,,,,,,,,,,,,,,,,,,,,,,,,,,,,,,,,,,,,,,,,
11821,1645901860.188301,1645901860.221807,86.0,0.0,4307.692383,4302.563965,4303.589844,4132.820313,4275.897461,450.0,1.0,15.0,,,,0.0,4.0,1.0,0.0,4.0,4.0,41.666668,1.0,16.666666,2.0,0.0,0.0,2.0,2.0,43.0,0.0,0.719905,0.118164,0.6618649999999999,0.17236300000000002,0.937026,-0.389166,-0.090822,-0.023812,-0.033769,-0.008633,1.0,0.0,0.0,,,,,,,,,,,,,,,,,,,,,,,,,,,,,,,,0.0,0.0,1.0,0.0,512.0,0.5256430000000001,9.85975,6.4192,2.501486,2.489697,1.482499,80.368088,69.955811,27.125811,18.408934,25.475746,39.986889,31.645128000000003,1.283556,4.43809,5.0144470000000005,4.897458,9.251247,6.103984,3.61105,2.462831,5.944594,4.427983,1.281298,2.1095599999999997,1.4145940000000001
11822,1645901860.196116,1645901860.2296212,87.0,0.0,4312.820313,4333.333496,4271.794922,4090.256348,4274.871582,16173.0,1.0,15.0,,,,0.0,4.0,1.0,0.0,4.0,4.0,41.666668,,,,,,,,,,,,,,,,,,,,,,,,,,,,,,,,,,,,,,,,,,,,,,,,,,,,,,,,,,,,,,,,,,,,,,,,,,,,,,,,,,,,
11823,1645901860.203931,1645901860.237436,88.0,0.0,4332.307617,4389.743652,4242.05127,4126.153809,4267.179688,450.0,1.0,15.0,,,,0.0,4.0,1.0,0.0,4.0,4.0,41.666668,,,,,,,,44.0,0.0,0.719846,0.118164,0.6618649999999999,0.17260699999999998,0.920424,-0.391608,-0.101564,-0.022374,-0.033886,-0.011344,,,,,,,,,,,,,,,,,,,,,,,,,,,,,,,,,,,,,,,,,,,,,,,,,,,,,,,,,,,,,,,,,
11824,1645901860.2117472,1645901860.245251,89.0,0.0,4338.461426,4402.563965,4275.897461,4147.179688,4267.179688,450.0,1.0,15.0,,,,0.0,4.0,1.0,0.0,4.0,4.0,41.666668,,,,,,,,,,,,,,,,,,,,,,,,,,,,,,,,,,,,,,,,,,,,,,,,,,,,,,,,,,,,,,,,,,,,,,,,,,,,,,,,,,,,
11825,1645901860.2195618,1645901860.253065,90.0,0.0,4330.256348,4354.358886999999,4250.256348,4146.153809,4271.282227000001,450.0,1.0,15.0,,,,0.0,4.0,1.0,0.0,4.0,4.0,41.666668,,,,,,,,45.0,0.0,0.7198640000000001,0.118408,0.6618649999999999,0.17236300000000002,0.931167,-0.40235,-0.09668099999999999,-0.023213,-0.033866,-0.012602,,,,,,,,,,,,,,,,,,,,,,,,,,,,,,,,,,,0.0,0.0,1.0,0.0,512.0,0.5256430000000001,,,,,,,,,,,,,,,,,,,,,,,,,
11826,1645901860.227377,1645901860.26088,91.0,0.0,4328.205078,4394.358886999999,4240.0,4142.05127,4251.282227000001,16173.0,1.0,15.0,,,,0.0,4.0,1.0,0.0,4.0,4.0,41.666668,,,,,,,,,,,,,,,,,,,,,,,,,,,,,,,,,,,,,,,,,,,,,,,,,,,,,,,,,,,,,,,,,,,,,,,,,,,,,,,,,,,,
11827,1645901860.235192,1645901860.268795,92.0,0.0,4327.179688,4464.102539,4247.179688,4154.871582,4240.0,450.0,1.0,15.0,,,,0.0,4.0,1.0,0.0,4.0,4.0,41.666668,,,,,,,,46.0,0.0,0.71999,0.118652,0.661621,0.17260699999999998,0.921401,-0.396002,-0.099123,-0.024065,-0.033898000000000005,-0.013685,,,,,,,,,,,,,,,,,,,,,,,,,,,,,,,,,,,,,,,,,,,,,,,,,,,,,,,,,,,,,,,,,
11828,1645901860.243007,1645901860.276609,93.0,0.0,4327.692383,4422.563965,4209.743652,4177.436035,4238.461426,450.0,1.0,15.0,,,,0.0,4.0,1.0,0.0,4.0,4.0,41.666668,,,,,,,,,,,,,,,,,,,,,,,,,,,,,,,,,,,,,,,,,,,,,,,,,,,,,,,,,,,,,,,,,,,,,,,,,,,,,,,,,,,,
11829,1645901860.250822,1645901860.284424,94.0,0.0,4333.333496,4360.512695,4209.743652,4183.589844,4260.512695,450.0,1.0,15.0,,,,0.0,4.0,1.0,0.0,4.0,4.0,41.666668,,,,,,,,47.0,0.0,0.71999,0.118652,0.661621,0.17260699999999998,0.9243309999999999,-0.390631,-0.098634,-0.021756,-0.033877,-0.014513999999999999,,,,,,,,,,,,,,,,,,,,,,,,,,,,,,,,,,,0.0,0.0,1.0,0.0,512.0,0.5256430000000001,,,,,,,,,,,,,,,,,,,,,,,,,
11830,1645901860.2586381,1645901860.292239,95.0,0.0,4320.512695,4327.692383,4214.871582,4162.05127,4258.974121,16173.0,1.0,15.0,,,,0.0,4.0,1.0,0.0,4.0,4.0,41.666668,,,,,,,,,,,,,,,,,,,,,,,,,,,,,,,,,,,,,,,,,,,,,,,,,,,,,,,,,,,,,,,,,,,,,,,,,,,,,,,,,,,,
11831,1645901860.266453,1645901860.300053,96.0,0.0,4323.589844,4346.666504,4193.846191,4158.974121,4266.153809,450.0,1.0,15.0,,,,0.0,4.0,1.0,0.0,4.0,4.0,41.666668,,,,,,,,48.0,0.0,0.71995,0.118896,0.661621,0.17260699999999998,0.914076,-0.399908,-0.097169,-0.022706,-0.033956,-0.015309,,,,,,,,,,,,,,,,,,,,,,,,,,,,,,,,,,,,,,,,,,,,,,,,,,,,,,,,,,,,,,,,,
11832,1645901860.274268,1645901860.307868,97.0,0.0,4326.153809,4421.025879,4198.974121,4174.871582,4278.461426,450.0,1.0,15.0,,,,0.0,4.0,1.0,0.0,4.0,4.0,41.666668,,,,,,,,,,,,,,,,,,,,,,,,,,,,,,,,,,,,,,,,,,,,,,,,,,,,,,,,,,,,,,,,,,,,,,,,,,,,,,,,,,,,
11833,1645901860.282083,1645901860.315682,98.0,0.0,4313.846191,4432.307617,4239.487305,4164.615234000001,4285.641113000001,450.0,1.0,15.0,,,,0.0,4.0,1.0,0.0,4.0,4.0,41.666668,,,,,,,,49.0,0.0,0.720174,0.118896,0.661377,0.17260699999999998,0.921401,-0.404791,-0.09668099999999999,-0.023658000000000002,-0.033783,-0.016171,,,,,,,,,,,,,,,,,,,,,,,,,,,,,,,,,,,0.0,0.0,1.0,0.0,512.0,0.5256430000000001,,,,,,,,,,,,,,,,,,,,,,,,,
11834,1645901860.2898982,1645901860.323497,99.0,0.0,4302.563965,4333.333496,4237.94873,4139.487305,4276.922852000001,16173.0,1.0,15.0,,,,0.0,4.0,1.0,0.0,4.0,4.0,41.666668,,,,,,,,,,,,,,,,,,,,,,,,,,,,,,,,,,,,,,,,,,,,,,,,,,,,,,,,,,,,,,,,,,,,,,,,,,,,,,,,,,,,
11835,1645901860.297713,1645901860.331312,100.0,0.0,4305.641113000001,4318.461426,4240.512695,4131.794922,4253.846191,450.0,1.0,15.0,,,,0.0,4.0,1.0,0.0,4.0,4.0,41.666668,,,,,,,,50.0,0.0,0.720233,0.118896,0.661377,0.17236300000000002,0.9243309999999999,-0.401862,-0.10254100000000001,-0.024465999999999998,-0.033725,-0.013869999999999999,,,,,,,,,,,,,,,,,,,,,,,,,,,,,,,,,,,,,,,,,,,,,,,,,,,,,,,,,,,,,,,,,
11836,1645901860.3055289,1645901860.339226,101.0,0.0,4307.179688,4406.153809,4252.307617,4134.871582,4265.641113000001,450.0,1.0,15.0,,,,0.0,4.0,1.0,0.0,4.0,4.0,41.666668,,,,,,,,,,,,,,,,,,,,,,,,,,,,,,,,,,,,,,,,,,,,,,,,,,,,,,,,,,,,,,,,,,,,,,,,,,,,,,,,,,,,
11837,1645901860.313344,1645901860.3470411,102.0,0.0,4309.743652,4385.128418,4268.205078,4157.94873,4289.230957,450.0,1.0,15.0,,,,0.0,4.0,1.0,0.0,4.0,4.0,41.666668,,,,,,,,51.0,0.0,0.7203579999999999,0.11914100000000001,0.661133,0.17260699999999998,0.928725,-0.39649,-0.102052,-0.025291,-0.033722,-0.011798999999999999,1.0,0.0,0.0,,,,,,,,,,,,,,,,,,,,,,,,,,,,,,,,0.0,0.0,1.0,0.0,512.0,0.43143000000000004,6.178824,4.979825,2.671193,2.428107,1.2813700000000001,81.58709,69.412308,28.134176,18.057365,26.806927,37.567268,33.220535,1.478872,4.029815,4.410403,5.2248410000000005,9.19675,6.325051,3.4768230000000004,2.3217659999999998,5.516623,4.455511,1.294466,2.059094,1.355197
11838,1645901860.321159,1645901860.354856,103.0,0.0,4325.641113000001,4324.102539,4226.666504,4192.820313,4304.102539,16173.0,1.0,15.0,,,,0.0,4.0,1.0,0.0,4.0,4.0,41.666668,,,,,,,,,,,,,,,,,,,,,,,,,,,,,,,,,,,,,,,,,,,,,,,,,,,,,,,,,,,,,,,,,,,,,,,,,,,,,,,,,,,,
11839,1645901860.328974,1645901860.36267,104.0,0.0,4335.384765999999,4417.436035,4221.025879,4198.974121,4291.282227000001,450.0,1.0,15.0,,,,0.0,4.0,1.0,0.0,4.0,4.0,41.666668,,,,,,,,52.0,0.0,0.7203579999999999,0.11914100000000001,0.661133,0.17260699999999998,0.9277489999999999,-0.390631,-0.088869,-0.025887,-0.033719,-0.013012000000000001,,,,,,,,,,,,,,,,,,,,,,,,,,,,,,,,,,,,,,,,,,,,,,,,,,,,,,,,,,,,,,,,,
11840,1645901860.3367891,1645901860.370485,105.0,0.0,4355.384765999999,4521.025879,4218.974121,4162.05127,4301.538574,450.0,1.0,15.0,,,,0.0,4.0,1.0,0.0,4.0,4.0,41.666668,,,,,,,,,,,,,,,,,,,,,,,,,,,,,,,,,,,,,,,,,,,,,,,,,,,,,,,,,,,,,,,,,,,,,,,,,,,,,,,,,,,,
11841,1645901860.344604,1645901860.3783,106.0,0.0,4343.077147999999,4409.230957,4217.94873,4164.102539,4321.538574,450.0,1.0,15.0,,,,0.0,4.0,1.0,0.0,4.0,4.0,41.666668,,,,,,,,53.0,0.0,0.720318,0.11938499999999999,0.661133,0.17260699999999998,0.914076,-0.394049,-0.09668099999999999,-0.026423000000000002,-0.033668000000000003,-0.014103000000000001,,,,,,,,,,,,,,,,,,,,,,,,,,,,,,,,,,,0.0,0.0,1.0,0.0,512.0,0.43143000000000004,,,,,,,,,,,,,,,,,,,,,,,,,
11842,1645901860.3524199,1645901860.3861141,107.0,0.0,4329.743652,4338.461426,4190.769043,4202.05127,4313.333496,16173.0,1.0,15.0,,,,0.0,4.0,1.0,0.0,4.0,4.0,41.666668,,,,,,,,,,,,,,,,,,,,,,,,,,,,,,,,,,,,,,,,,,,,,,,,,,,,,,,,,,,,,,,,,,,,,,,,,,,,,,,,,,,,
11843,1645901860.360235,1645901860.393929,108.0,0.0,4323.077147999999,4485.128418,4189.743652,4179.487305,4301.538574,450.0,1.0,15.0,,,,0.0,4.0,1.0,0.0,4.0,4.0,41.666668,,,,,,,,54.0,0.0,0.720318,0.11938499999999999,0.661133,0.17260699999999998,0.925795,-0.390631,-0.092775,-0.027004000000000004,-0.03367,-0.011961,,,,,,,,,,,,,,,,,,,,,,,,,,,,,,,,,,,,,,,,,,,,,,,,,,,,,,,,,,,,,,,,,
11844,1645901860.36805,1645901860.401743,109.0,0.0,4331.794922,4535.897461,4182.563965,4145.128418,4322.563965,450.0,1.0,15.0,,,,0.0,4.0,1.0,0.0,4.0,4.0,41.666668,,,,,,,,,,,,,,,,,,,,,,,,,,,,,,,,,,,,,,,,,,,,,,,,,,,,,,,,,,,,,,,,,,,,,,,,,,,,,,,,,,,,
11845,1645901860.375865,1645901860.409558,110.0,0.0,4337.94873,4403.589844,4221.025879,4130.769043,4318.974121,450.0,1.0,15.0,,,,0.0,4.0,1.0,0.0,4.0,4.0,41.666668,,,,,,,,55.0,0.0,0.720318,0.11938499999999999,0.661133,0.17260699999999998,0.920424,-0.38819000000000004,-0.097169,-0.027575,-0.033575,-0.013108000000000002,,,,,,,,,,,,,,,,,,,,,,,,,,,,,,,,,,,0.0,0.0,1.0,0.0,512.0,0.43143000000000004,,,,,,,,,,,,,,,,,,,,,,,,,
11846,1645901860.38368,1645901860.417473,111.0,0.0,4345.128418,4337.94873,4252.307617,4143.589844,4289.743652,16173.0,1.0,15.0,,,,0.0,4.0,1.0,0.0,4.0,4.0,41.666668,,,,,,,,,,,,,,,,,,,,,,,,,,,,,,,,,,,,,,,,,,,,,,,,,,,,,,,,,,,,,,,,,,,,,,,,,,,,,,,,,,,,
11847,1645901860.391495,1645901860.425287,112.0,0.0,4342.563965,4407.692383,4223.077147999999,4158.974121,4287.179688,450.0,1.0,15.0,,,,0.0,4.0,1.0,0.0,4.0,4.0,41.666668,,,,,,,,56.0,0.0,0.720542,0.11938499999999999,0.6608890000000001,0.17260699999999998,0.921889,-0.400885,-0.09131,-0.02804,-0.033586000000000005,-0.014044,,,,,,,,,,,,,,,,,,,,,,,,,,,,,,,,,,,,,,,,,,,,,,,,,,,,,,,,,,,,,,,,,
11848,1645901860.3993099,1645901860.433102,113.0,0.0,4343.077147999999,4483.589844,4255.897461,4163.589844,4303.589844,450.0,1.0,15.0,,,,0.0,4.0,1.0,0.0,4.0,4.0,41.666668,,,,,,,,,,,,,,,,,,,,,,,,,,,,,,,,,,,,,,,,,,,,,,,,,,,,,,,,,,,,,,,,,,,,,,,,,,,,,,,,,,,,
11849,1645901860.407126,1645901860.440917,114.0,0.0,4343.589844,4476.410156,4282.563965,4145.128418,4289.743652,450.0,1.0,15.0,,,,0.0,4.0,1.0,0.0,4.0,4.0,41.666668,,,,,,,,57.0,0.0,0.720542,0.11938499999999999,0.6608890000000001,0.17260699999999998,0.9199360000000001,-0.390631,-0.098146,-0.028556,-0.033597,-0.014983000000000002,,,,,,,,,,,,,,,,,,,,,,,,,,,,,,,,,,,0.0,0.0,1.0,0.0,512.0,0.43143000000000004,,,,,,,,,,,,,,,,,,,,,,,,,
11850,1645901860.414941,1645901860.448731,115.0,0.0,4342.563965,4430.769043,4257.94873,4146.666504,4280.0,16173.0,1.0,15.0,,,,0.0,4.0,1.0,0.0,4.0,4.0,41.666668,,,,,,,,,,,,,,,,,,,,,,,,,,,,,,,,,,,,,,,,,,,,,,,,,,,,,,,,,,,,,,,,,,,,,,,,,,,,,,,,,,,,
11851,1645901860.422756,1645901860.456546,116.0,0.0,4336.922852000001,4397.94873,4230.769043,4165.128418,4289.743652,450.0,1.0,15.0,,,,0.0,4.0,1.0,0.0,4.0,4.0,41.666668,,,,,,,,58.0,0.0,0.720542,0.11938499999999999,0.6608890000000001,0.17260699999999998,0.9267719999999999,-0.393561,-0.099611,-0.028923,-0.033558,-0.012752,,,,,,,,,,,,,,,,,,,,,,,,,,,,,,,,,,,,,,,,,,,,,,,,,,,,,,,,,,,,,,,,,
11852,1645901860.430571,1645901860.464361,117.0,0.0,4324.615234000001,4413.846191,4276.922852000001,4164.102539,4278.974121,450.0,1.0,15.0,,,,0.0,4.0,1.0,0.0,4.0,4.0,41.666668,,,,,,,,,,,,,,,,,,,,,,,,,,,,,,,,,,,,,,,,,,,,,,,,,,,,,,,,,,,,,,,,,,,,,,,,,,,,,,,,,,,,
11853,1645901860.438386,1645901860.472175,118.0,0.0,4328.205078,4436.922852000001,4272.307617,4141.025879,4277.94873,450.0,1.0,15.0,,,,0.0,4.0,1.0,0.0,4.0,4.0,41.666668,,,,,,,,59.0,0.0,0.720483,0.11938499999999999,0.6608890000000001,0.172852,0.9404440000000001,-0.391608,-0.097169,-0.029205000000000002,-0.033522,-0.013821,1.0,0.0,0.0,,,,,,,,,,,,,,,,,,,,,,,,,,,,,,,,0.0,0.0,1.0,0.0,512.0,0.5778409999999999,3.881479,3.719756,2.657507,2.354075,1.09849,78.058075,62.650318000000006,29.773766,18.474653,27.143457,37.574192,36.292023,1.865434,3.795845,3.8974269999999995,5.327788,8.743999,6.237957,3.347546,2.169936,5.280365,4.417954,1.303121,2.153989,1.3288719999999998
11854,1645901860.446202,1645901860.47999,119.0,0.0,4321.025879,4431.282227000001,4294.871582,4132.307617,4298.461426,16173.0,1.0,15.0,,,,0.0,4.0,1.0,0.0,4.0,4.0,41.666668,,,,,,,,,,,,,,,,,,,,,,,,,,,,,,,,,,,,,,,,,,,,,,,,,,,,,,,,,,,,,,,,,,,,,,,,,,,,,,,,,,,,
11855,1645901860.454017,1645901860.4879038,120.0,0.0,4322.05127,4443.077147999999,4263.589844,4148.205078,4302.563965,450.0,1.0,15.0,,,,0.0,4.0,1.0,0.0,4.0,4.0,41.666668,,,,,,,,60.0,0.0,0.7204430000000001,0.119629,0.6608890000000001,0.172852,0.916518,-0.39502600000000004,-0.10254100000000001,-0.029457999999999998,-0.033539,-0.011609,,,,,,,,,,,,,,,,,,,,,,,,,,,,,,,,,,,,,,,,,,,,,,,,,,,,,,,,,,,,,,,,,
11856,1645901860.461832,1645901860.495719,121.0,0.0,4335.897461,4458.461426,4239.487305,4153.846191,4290.256348,450.0,1.0,15.0,,,,0.0,4.0,1.0,0.0,4.0,4.0,41.666668,,,,,,,,,,,,,,,,,,,,,,,,,,,,,,,,,,,,,,,,,,,,,,,,,,,,,,,,,,,,,,,,,,,,,,,,,,,,,,,,,,,,
11857,1645901860.4696472,1645901860.503534,122.0,0.0,4349.230957,4427.692383,4247.179688,4157.94873,4296.922852000001,450.0,1.0,15.0,,,,0.0,4.0,1.0,0.0,4.0,4.0,41.666668,,,,,,,,61.0,0.0,0.7204430000000001,0.119629,0.6608890000000001,0.172852,0.9131,-0.39649,-0.10009900000000001,-0.029686,-0.033408,-0.012694,,,,,,,,,,,,,,,,,,,,,,,,,,,,,,,,,,,0.0,0.0,1.0,0.0,512.0,0.5778409999999999,,,,,,,,,,,,,,,,,,,,,,,,,
11858,1645901860.4774618,1645901860.511348,123.0,0.0,4349.743652,4432.307617,4220.512695,4145.128418,4302.563965,16173.0,1.0,15.0,,,,0.0,4.0,1.0,0.0,4.0,4.0,41.666668,,,,,,,,,,,,,,,,,,,,,,,,,,,,,,,,,,,,,,,,,,,,,,,,,,,,,,,,,,,,,,,,,,,,,,,,,,,,,,,,,,,,
11859,1645901860.485278,1645901860.5191631,124.0,0.0,4360.0,4488.205078,4174.871582,4146.153809,4302.05127,450.0,1.0,15.0,,,,0.0,4.0,1.0,0.0,4.0,4.0,41.666668,,,,,,,,62.0,0.0,0.7204430000000001,0.119629,0.6608890000000001,0.172852,0.922866,-0.401862,-0.104494,-0.029892000000000002,-0.033436,-0.010692,,,,,,,,,,,,,,,,,,,,,,,,,,,,,,,,,,,,,,,,,,,,,,,,,,,,,,,,,,,,,,,,,
11860,1645901860.493093,1645901860.526978,125.0,0.0,4363.077147999999,4461.538574,4215.897461,4170.256348,4295.384765999999,450.0,1.0,15.0,,,,0.0,4.0,1.0,0.0,4.0,4.0,41.666668,,,,,,,,,,,,,,,,,,,,,,,,,,,,,,,,,,,,,,,,,,,,,,,,,,,,,,,,,,,,,,,,,,,,,,,,,,,,,,,,,,,,
11861,1645901860.500908,1645901860.534792,126.0,0.0,4373.846191,4410.769043,4250.256348,4203.077147999999,4304.615234000001,450.0,1.0,15.0,,,,0.0,4.0,1.0,0.0,4.0,4.0,41.666668,,,,,,,,63.0,0.0,0.7204430000000001,0.119629,0.6608890000000001,0.172852,0.9248190000000001,-0.387701,-0.09765800000000001,-0.030076,-0.033462,-0.008744,,,,,,,,,,,,,,,,,,,,,,,,,,,,,,,,,,,0.0,0.0,1.0,0.0,512.0,0.5778409999999999,,,,,,,,,,,,,,,,,,,,,,,,,
11862,1645901860.508723,1645901860.542607,127.0,0.0,4376.410156,4447.179688,4226.666504,4197.94873,4303.077147999999,232.0,1.0,15.0,,,,0.0,4.0,1.0,0.0,4.0,4.0,41.666668,,,,,,,,,,,,,,,,,,,,,,,,,,,,,,,,,,,,,,,,,,,,,,,,,,,,,,,,,,,,,,,,,,,,,,,,,,,,,,,,,,,,
11863,1645901860.5165381,1645901860.550422,0.0,0.0,4353.333496,4527.692383,4236.410156,4173.333496,4292.307617,450.0,1.0,15.0,,,,0.0,4.0,1.0,0.0,4.0,4.0,41.666668,,,,,,,,0.0,0.0,0.7204430000000001,0.119629,0.6608890000000001,0.172852,0.928725,-0.38526,-0.111818,-0.030095999999999998,-0.033436,-0.00704,,,,,,,,,,,,,,,,,,,,,,,,,,,,,,,,,,,,,,,,,,,,,,,,,,,,,,,,,,,,,,,,,
11864,1645901860.524353,1645901860.558336,1.0,0.0,4349.230957,4582.05127,4217.94873,4167.692383,4289.743652,450.0,1.0,15.0,,,,0.0,4.0,1.0,2.0,4.0,4.0,58.33333199999999,,,,,,,,,,,,,,,,,,,,,,,,,,,,,,,,,,,,,,,,,,,,,,,,,,,,,,,,,,,,,,,,,,,,,,,,,,,,,,,,,,,,
11865,1645901860.5321689,1645901860.566151,2.0,0.0,4369.743652,4532.820313,4207.179688,4182.05127,4306.666504,16087.0,1.0,15.0,,,,0.0,4.0,1.0,2.0,4.0,4.0,58.33333199999999,,,,,,,,1.0,0.0,0.720384,0.119629,0.6608890000000001,0.173096,0.9316549999999999,-0.385748,-0.107912,-0.030309,-0.033462,-0.008631,,,,,,,,,,,,,,,,,,,,,,,,,,,,,,,,,,,0.0,0.0,1.0,0.0,512.0,0.5778409999999999,,,,,,,,,,,,,,,,,,,,,,,,,
11866,1645901860.539984,1645901860.573965,3.0,0.0,4351.794922,4428.205078,4218.461426,4169.743652,4286.666504,450.0,1.0,15.0,,,,0.0,4.0,1.0,2.0,4.0,4.0,58.33333199999999,,,,,,,,,,,,,,,,,,,,,,,,,,,,,,,,,,,,,,,,,,,,,,,,,,,,,,,,,,,,,,,,,,,,,,,,,,,,,,,,,,,,
11867,1645901860.547799,1645901860.5817802,4.0,0.0,4334.871582,4479.487305,4240.512695,4137.94873,4251.282227000001,110.0,1.0,15.0,,,,0.0,4.0,1.0,2.0,4.0,4.0,58.33333199999999,,,,,,,,2.0,0.0,0.720384,0.119629,0.6608890000000001,0.173096,0.929702,-0.401373,-0.100587,-0.030452,-0.033387,-0.007035,,,,,,,,,,,,,,,,,,,,,,,,,,,,,,,,,,,,,,,,,,,,,,,,,,,,,,,,,,,,,,,,,
11868,1645901860.555614,1645901860.5895948,5.0,0.0,4347.692383,4610.769043,4261.538574,4132.820313,4276.922852000001,450.0,1.0,15.0,,,,0.0,4.0,1.0,2.0,4.0,4.0,58.33333199999999,,,,,,,,,,,,,,,,,,,,,,,,,,,,,,,,,,,,,,,,,,,,,,,,,,,,,,,,,,,,,,,,,,,,,,,,,,,,,,,,,,,,
11869,1645901860.5634289,1645901860.597409,6.0,0.0,4338.461426,4598.461426,4313.846191,4138.974121,4317.94873,281.0,1.0,15.0,,,,0.0,4.0,1.0,2.0,4.0,4.0,58.33333199999999,,,,,,,,3.0,0.0,0.7202850000000001,0.11987300000000001,0.6608890000000001,0.17334000000000002,0.9072399999999999,-0.404791,-0.11621300000000001,-0.030726999999999997,-0.033417,-0.008626,1.0,0.0,0.0,,,,,,,,,,,,,,,,,,,,,,,,,,,,,,,,0.0,0.0,1.0,0.0,512.0,0.795323,2.870277,2.832615,2.4628639999999997,2.289263,0.960051,68.664284,50.946613,30.901778999999998,19.700979,26.063229,39.585926,40.219390999999995,2.396074,3.834717,3.566926,5.245312,8.071234,5.926927,3.202685,2.084804,5.181191,4.40373,1.3788340000000001,2.311583,1.332127
11870,1645901860.571244,1645901860.6052241,7.0,0.0,4322.05127,4495.897461,4275.384765999999,4146.153809,4326.153809,450.0,1.0,15.0,,,,0.0,4.0,1.0,2.0,4.0,4.0,58.33333199999999,,,,,,,,,,,,,,,,,,,,,,,,,,,,,,,,,,,,,,,,,,,,,,,,,,,,,,,,,,,,,,,,,,,,,,,,,,,,,,,,,,,,
11871,1645901860.579059,1645901860.613039,8.0,0.0,4333.846191,4509.743652,4244.102539,4169.743652,4308.205078,450.0,1.0,15.0,,,,0.0,4.0,1.0,2.0,4.0,4.0,58.33333199999999,,,,,,,,4.0,0.0,0.720325,0.119629,0.6608890000000001,0.17334000000000002,0.917494,-0.391119,-0.088869,-0.027703,-0.033543,-0.010205,,,,,,,,,,,,,,,,,,,,,,,,,,,,,,,,,,,,,,,,,,,,,,,,,,,,,,,,,,,,,,,,,
11872,1645901860.586875,1645901860.620853,9.0,0.0,4361.538574,4573.846191,4248.717772999999,4173.846191,4312.307617,16172.0,1.0,15.0,,,,0.0,4.0,1.0,2.0,4.0,4.0,58.33333199999999,,,,,,,,,,,,,,,,,,,,,,,,,,,,,,,,,,,,,,,,,,,,,,,,,,,,,,,,,,,,,,,,,,,,,,,,,,,,,,,,,,,,
11873,1645901860.59469,1645901860.628768,10.0,0.0,4353.846191,4544.102539,4233.333496,4160.0,4317.436035,450.0,1.0,15.0,,,,0.0,4.0,1.0,2.0,4.0,4.0,58.33333199999999,,,,,,,,5.0,0.0,0.720325,0.119629,0.6608890000000001,0.17334000000000002,0.921889,-0.388678,-0.106447,-0.028156,-0.033558,-0.011576999999999999,,,,,,,,,,,,,,,,,,,,,,,,,,,,,,,,,,,0.0,0.0,1.0,0.0,512.0,0.795323,,,,,,,,,,,,,,,,,,,,,,,,,
11874,1645901860.602505,1645901860.6365821,11.0,0.0,4336.410156,4521.538574,4177.94873,4161.025879,4322.05127,16229.0,1.0,15.0,,,,0.0,4.0,1.0,2.0,4.0,4.0,58.33333199999999,,,,,,,,,,,,,,,,,,,,,,,,,,,,,,,,,,,,,,,,,,,,,,,,,,,,,,,,,,,,,,,,,,,,,,,,,,,,,,,,,,,,
11875,1645901860.6103199,1645901860.644397,12.0,0.0,4330.769043,4527.179688,4203.589844,4165.641113000001,4315.384765999999,450.0,1.0,15.0,,,,0.0,4.0,1.0,2.0,4.0,4.0,58.33333199999999,,,,,,,,6.0,0.0,0.720266,0.119629,0.6608890000000001,0.173584,0.9199360000000001,-0.401373,-0.095216,-0.028562999999999998,-0.033571,-0.012763,,,,,,,,,,,,,,,,,,,,,,,,,,,,,,,,,,,,,,,,,,,,,,,,,,,,,,,,,,,,,,,,,
11876,1645901860.618135,1645901860.6523118,13.0,0.0,4363.589844,4518.461426,4256.410156,4178.974121,4318.461426,450.0,1.0,15.0,,,,0.0,4.0,1.0,2.0,4.0,4.0,58.33333199999999,,,,,,,,,,,,,,,,,,,,,,,,,,,,,,,,,,,,,,,,,,,,,,,,,,,,,,,,,,,,,,,,,,,,,,,,,,,,,,,,,,,,
11877,1645901860.62595,1645901860.660126,14.0,0.0,4396.410156,4525.128418,4230.769043,4173.846191,4324.615234000001,450.0,1.0,15.0,,,,0.0,4.0,1.0,2.0,4.0,4.0,58.33333199999999,,,,,,,,7.0,0.0,0.720325,0.119629,0.6608890000000001,0.17334000000000002,0.917494,-0.391119,-0.088869,-0.028929000000000003,-0.033583,-0.010803,,,,,,,,,,,,,,,,,,,,,,,,,,,,,,,,,,,0.0,0.0,1.0,0.0,512.0,0.795323,,,,,,,,,,,,,,,,,,,,,,,,,
11878,1645901860.633766,1645901860.667941,15.0,0.0,4458.461426,4556.922852000001,4177.436035,4165.128418,4353.333496,16229.0,1.0,15.0,,,,0.0,4.0,1.0,2.0,4.0,4.0,58.33333199999999,,,,,,,,,,,,,,,,,,,,,,,,,,,,,,,,,,,,,,,,,,,,,,,,,,,,,,,,,,,,,,,,,,,,,,,,,,,,,,,,,,,,
11879,1645901860.641581,1645901860.675756,16.0,0.0,4578.461426,4547.692383,4196.410156,4167.692383,4404.615234000001,0.0,1.0,15.0,,,,0.0,4.0,1.0,2.0,4.0,4.0,58.33333199999999,,,,,,,,8.0,0.0,0.720266,0.119629,0.6608890000000001,0.173584,0.9199360000000001,-0.401373,-0.095216,-0.029258999999999997,-0.033594,-0.012067,,,,,,,,,,,,,,,,,,,,,,,,,,,,,,,,,,,,,,,,,,,,,,,,,,,,,,,,,,,,,,,,,
11880,1645901860.6493962,1645901860.68357,17.0,0.0,4702.563965,4555.384765999999,4274.871582,4184.615234000001,4496.922852000001,0.0,1.0,15.0,,,,0.0,4.0,1.0,2.0,4.0,4.0,58.33333199999999,,,,,,,,,,,,,,,,,,,,,,,,,,,,,,,,,,,,,,,,,,,,,,,,,,,,,,,,,,,,,,,,,,,,,,,,,,,,,,,,,,,,
11881,1645901860.6572108,1645901860.691385,18.0,0.0,4788.205078,4586.666504,4260.512695,4190.769043,4589.743652,0.0,1.0,15.0,,,,0.0,4.0,1.0,2.0,4.0,4.0,58.33333199999999,,,,,,,,9.0,0.0,0.720266,0.119629,0.6608890000000001,0.173584,0.9087049999999999,-0.408209,-0.095705,-0.029408999999999998,-0.033604,-0.013058000000000002,,,,,,,,,,,,,,,,,,,,,,,,,,,,,,,,,,,0.0,0.0,1.0,0.0,512.0,0.795323,,,,,,,,,,,,,,,,,,,,,,,,,
11882,1645901860.665026,1645901860.699199,19.0,0.0,4850.256348,4562.563965,4217.94873,4187.179688,4625.641113000001,0.0,1.0,15.0,,,,0.0,4.0,1.0,2.0,4.0,4.0,58.33333199999999,,,,,,,,,,,,,,,,,,,,,,,,,,,,,,,,,,,,,,,,,,,,,,,,,,,,,,,,,,,,,,,,,,,,,,,,,,,,,,,,,,,,
11883,1645901860.672841,1645901860.707014,20.0,0.0,4904.615234000001,4567.692383,4202.05127,4180.0,4638.974121,0.0,1.0,15.0,,,,0.0,4.0,1.0,2.0,4.0,4.0,58.33333199999999,,,,,,,,10.0,0.0,0.7203069999999999,0.11938499999999999,0.6608890000000001,0.173584,0.922377,-0.40528000000000003,-0.096193,-0.029691000000000002,-0.033564,-0.014144,,,,,,,,,,,,,,,,,,,,,,,,,,,,,,,,,,,,,,,,,,,,,,,,,,,,,,,,,,,,,,,,,
11884,1645901860.6806571,1645901860.714829,21.0,0.0,4935.384765999999,4670.256348,4246.666504,4203.077147999999,4675.384765999999,0.0,1.0,15.0,,,,0.0,4.0,1.0,2.0,4.0,4.0,58.33333199999999,,,,,,,,,,,,,,,,,,,,,,,,,,,,,,,,,,,,,,,,,,,,,,,,,,,,,,,,,,,,,,,,,,,,,,,,,,,,,,,,,,,,
11885,1645901860.688472,1645901860.722743,22.0,0.0,4948.205078,4681.025879,4224.615234000001,4250.769043,4700.512695,0.0,1.0,15.0,,,,0.0,4.0,1.0,2.0,4.0,4.0,58.33333199999999,1.0,16.666666,2.0,0.0,0.0,2.0,2.0,11.0,0.0,0.720366,0.11938499999999999,0.6608890000000001,0.17334000000000002,0.9248190000000001,-0.398444,-0.09131,-0.029994,-0.033527999999999995,-0.011949,1.0,0.0,0.0,,,,,,,,,,,,,,,,,,,,,,,,,,,,,,,,0.0,0.0,1.0,0.0,512.0,0.314188,2.646564,2.349684,2.1651119999999997,2.214142,0.8633149999999999,55.200153,37.978596,30.440727000000003,21.689557999999998,23.862198,42.334793,43.923046,3.036597,4.097295,3.414737,5.208623,7.394589999999999,5.591026,3.016181,2.131096,5.196073999999999,4.467772,1.5744770000000001,2.414447,1.3442020000000001
11886,1645901860.696287,1645901860.730558,23.0,0.0,4953.333496,4580.0,4218.461426,4246.666504,4682.563965,0.0,1.0,15.0,,,,0.0,4.0,1.0,2.0,4.0,4.0,58.33333199999999,,,,,,,,,,,,,,,,,,,,,,,,,,,,,,,,,,,,,,,,,,,,,,,,,,,,,,,,,,,,,,,,,,,,,,,,,,,,,,,,,,,,
11887,1645901860.704102,1645901860.738373,24.0,0.0,4966.666504,4584.615234000001,4211.794922,4187.179688,4678.461426,0.0,1.0,15.0,,,,0.0,4.0,1.0,2.0,4.0,4.0,58.33333199999999,,,,,,,,12.0,0.0,0.720366,0.11938499999999999,0.6608890000000001,0.17334000000000002,0.922866,-0.404791,-0.091798,-0.030266,-0.033495,-0.009973000000000001,,,,,,,,,,,,,,,,,,,,,,,,,,,,,,,,,,,,,,,,,,,,,,,,,,,,,,,,,,,,,,,,,
11888,1645901860.711917,1645901860.746187,25.0,0.0,4931.282227000001,4607.179688,4211.282227000001,4171.794922,4668.717772999999,0.0,1.0,15.0,,,,0.0,4.0,1.0,2.0,4.0,4.0,58.33333199999999,,,,,,,,,,,,,,,,,,,,,,,,,,,,,,,,,,,,,,,,,,,,,,,,,,,,,,,,,,,,,,,,,,,,,,,,,,,,,,,,,,,,
11889,1645901860.719733,1645901860.7540019,26.0,0.0,4856.922852000001,4507.692383,4233.333496,4210.256348,4636.922852000001,0.0,1.0,15.0,,,,0.0,4.0,1.0,2.0,4.0,4.0,58.33333199999999,,,,,,,,13.0,0.0,0.720366,0.11938499999999999,0.6608890000000001,0.17334000000000002,0.9087049999999999,-0.40283800000000003,-0.09668099999999999,-0.030511,-0.033417,-0.008243,,,,,,,,,,,,,,,,,,,,,,,,,,,,,,,,,,,0.0,0.0,1.0,0.0,512.0,0.314188,,,,,,,,,,,,,,,,,,,,,,,,,
11890,1645901860.7275481,1645901860.761817,27.0,0.0,4815.384765999999,4505.641113000001,4277.94873,4195.897461,4609.743652,0.0,1.0,15.0,,,,0.0,4.0,1.0,2.0,4.0,4.0,58.33333199999999,,,,,,,,,,,,,,,,,,,,,,,,,,,,,,,,,,,,,,,,,,,,,,,,,,,,,,,,,,,,,,,,,,,,,,,,,,,,,,,,,,,,
11891,1645901860.735363,1645901860.7696311,28.0,0.0,4790.256348,4596.922852000001,4221.538574,4192.307617,4601.025879,0.0,1.0,15.0,,,,0.0,4.0,1.0,2.0,4.0,4.0,58.33333199999999,,,,,,,,14.0,0.0,0.720384,0.119629,0.6608890000000001,0.173096,0.9194479999999999,-0.39942,-0.103029,-0.030682,-0.033444999999999996,-0.009567,,,,,,,,,,,,,,,,,,,,,,,,,,,,,,,,,,,,,,,,,,,,,,,,,,,,,,,,,,,,,,,,,
11892,1645901860.743178,1645901860.777446,29.0,0.0,4711.794922,4537.436035,4147.179688,4237.436035,4559.487305,0.0,1.0,15.0,,,,0.0,4.0,1.0,2.0,4.0,4.0,58.33333199999999,,,,,,,,,,,,,,,,,,,,,,,,,,,,,,,,,,,,,,,,,,,,,,,,,,,,,,,,,,,,,,,,,,,,,,,,,,,,,,,,,,,,
11893,1645901860.750993,1645901860.78526,30.0,0.0,4647.179688,4460.512695,4194.358886999999,4238.974121,4496.922852000001,0.0,1.0,15.0,,,,0.0,4.0,1.0,2.0,4.0,4.0,58.33333199999999,,,,,,,,15.0,0.0,0.720424,0.11938499999999999,0.6608890000000001,0.173096,0.906264,-0.386725,-0.099123,-0.030739,-0.033421,-0.011052,,,,,,,,,,,,,,,,,,,,,,,,,,,,,,,,,,,0.0,0.0,1.0,0.0,512.0,0.314188,,,,,,,,,,,,,,,,,,,,,,,,,
11894,1645901860.758808,1645901860.793175,31.0,0.0,4605.128418,4468.205078,4230.769043,4176.922852000001,4459.487305,0.0,1.0,15.0,,,,0.0,4.0,1.0,2.0,4.0,4.0,58.33333199999999,,,,,,,,,,,,,,,,,,,,,,,,,,,,,,,,,,,,,,,,,,,,,,,,,,,,,,,,,,,,,,,,,,,,,,,,,,,,,,,,,,,,
11895,1645901860.766624,1645901860.80099,32.0,0.0,4557.94873,4461.025879,4212.307617,4161.538574,4445.641113000001,0.0,1.0,15.0,,,,0.0,4.0,1.0,2.0,4.0,4.0,58.33333199999999,,,,,,,,16.0,0.0,0.720483,0.11938499999999999,0.6608890000000001,0.172852,0.922866,-0.393561,-0.099611,-0.030937,-0.033497000000000006,-0.01229,,,,,,,,,,,,,,,,,,,,,,,,,,,,,,,,,,,,,,,,,,,,,,,,,,,,,,,,,,,,,,,,,
11896,1645901860.774439,1645901860.8088038,33.0,0.0,4504.102539,4489.230957,4247.692383,4186.666504,4407.692383,0.0,1.0,15.0,,,,0.0,4.0,1.0,2.0,4.0,4.0,58.33333199999999,,,,,,,,,,,,,,,,,,,,,,,,,,,,,,,,,,,,,,,,,,,,,,,,,,,,,,,,,,,,,,,,,,,,,,,,,,,,,,,,,,,,
11897,1645901860.782254,1645901860.816619,34.0,0.0,4459.487305,4513.333496,4319.487305,4211.282227000001,4388.717772999999,0.0,1.0,15.0,,,,0.0,4.0,1.0,2.0,4.0,4.0,58.33333199999999,,,,,,,,17.0,0.0,0.720483,0.11938499999999999,0.6608890000000001,0.172852,0.929702,-0.38721300000000003,-0.097169,-0.031017000000000003,-0.033516000000000004,-0.01028,,,,,,,,,,,,,,,,,,,,,,,,,,,,,,,,,,,10.0,0.0,1.0,0.0,512.0,0.314188,,,,,,,,,,,,,,,,,,,,,,,,,
11898,1645901860.7900689,1645901860.824434,35.0,0.0,4420.0,4425.128418,4280.0,4213.333496,4384.102539,0.0,1.0,15.0,,,,0.0,4.0,1.0,2.0,4.0,4.0,58.33333199999999,,,,,,,,,,,,,,,,,,,,,,,,,,,,,,,,,,,,,,,,,,,,,,,,,,,,,,,,,,,,,,,,,,,,,,,,,,,,,,,,,,,,
11899,1645901860.797884,1645901860.832248,36.0,0.0,4403.589844,4474.871582,4246.153809,4176.410156,4350.769043,0.0,1.0,15.0,,,,0.0,4.0,1.0,2.0,4.0,4.0,58.33333199999999,,,,,,,,18.0,0.0,0.720483,0.11938499999999999,0.6608890000000001,0.172852,0.921401,-0.401862,-0.10009900000000001,-0.031187,-0.033533999999999994,-0.011645,,,,,,,,,,,,,,,,,,,,,,,,,,,,,,,,,,,,,,,,,,,,,,,,,,,,,,,,,,,,,,,,,
11900,1645901860.805699,1645901860.840063,37.0,0.0,4374.871582,4594.871582,4255.897461,4141.025879,4322.563965,0.0,1.0,15.0,,,,0.0,4.0,1.0,2.0,4.0,4.0,58.33333199999999,,,,,,,,,,,,,,,,,,,,,,,,,,,,,,,,,,,,,,,,,,,,,,,,,,,,,,,,,,,,,,,,,,,,,,,,,,,,,,,,,,,,
11901,1645901860.813515,1645901860.847878,38.0,0.0,4327.692383,4469.743652,4238.974121,4154.358886999999,4322.563965,0.0,1.0,15.0,,,,0.0,4.0,1.0,2.0,4.0,4.0,58.33333199999999,,,,,,,,19.0,0.0,0.720483,0.11938499999999999,0.6608890000000001,0.172852,0.929213,-0.400397,-0.093263,-0.03134,-0.033451999999999996,-0.009699,1.0,0.0,0.0,,,,,,,,,,,,,,,,,,,,,,,,,,,,,,,,10.0,0.0,1.0,0.0,512.0,0.23060799999999998,3.687095,2.072857,1.961913,2.0926709999999997,0.789675,41.058029,27.526115,27.966697999999997,24.101252,21.493473,44.261234,46.057808,3.716616,4.431356,3.381812,5.362844,6.855811999999999,5.356222,2.774807,2.314685,5.185654,4.567737,1.922557,2.373212,1.343787
11902,1645901860.82133,1645901860.855692,39.0,0.0,4303.077147999999,4375.384765999999,4203.077147999999,4169.743652,4320.512695,0.0,1.0,15.0,,,,0.0,4.0,1.0,2.0,4.0,4.0,58.33333199999999,,,,,,,,,,,,,,,,,,,,,,,,,,,,,,,,,,,,,,,,,,,,,,,,,,,,,,,,,,,,,,,,,,,,,,,,,,,,,,,,,,,,
11903,1645901860.829145,1645901860.863607,40.0,0.0,4282.563965,4480.0,4232.307617,4163.077147999999,4307.179688,0.0,1.0,15.0,,,,0.0,4.0,1.0,2.0,4.0,4.0,58.33333199999999,,,,,,,,20.0,0.0,0.7205229999999999,0.11914100000000001,0.6608890000000001,0.172852,0.917006,-0.393561,-0.101076,-0.031331,-0.033525,-0.011122,,,,,,,,,,,,,,,,,,,,,,,,,,,,,,,,,,,,,,,,,,,,,,,,,,,,,,,,,,,,,,,,,
11904,1645901860.83696,1645901860.871421,41.0,0.0,4282.563965,4467.692383,4212.307617,4162.05127,4324.102539,0.0,1.0,15.0,,,,0.0,4.0,1.0,2.0,4.0,4.0,58.33333199999999,,,,,,,,,,,,,,,,,,,,,,,,,,,,,,,,,,,,,,,,,,,,,,,,,,,,,,,,,,,,,,,,,,,,,,,,,,,,,,,,,,,,
11905,1645901860.844775,1645901860.879236,42.0,0.0,4284.102539,4395.384765999999,4232.820313,4167.692383,4329.230957,0.0,1.0,15.0,,,,0.0,4.0,1.0,2.0,4.0,4.0,58.33333199999999,,,,,,,,21.0,0.0,0.720648,0.11938499999999999,0.6606449999999999,0.173096,0.922866,-0.404303,-0.09765800000000001,-0.03142,-0.033541,-0.012304,,,,,,,,,,,,,,,,,,,,,,,,,,,,,,,,,,,10.0,0.0,1.0,0.0,512.0,0.23060799999999998,,,,,,,,,,,,,,,,,,,,,,,,,
11906,1645901860.85259,1645901860.8870509,43.0,0.0,4286.153809,4513.846191,4230.256348,4153.333496,4315.384765999999,0.0,1.0,15.0,,,,0.0,4.0,1.0,2.0,4.0,4.0,58.33333199999999,,,,,,,,,,,,,,,,,,,,,,,,,,,,,,,,,,,,,,,,,,,,,,,,,,,,,,,,,,,,,,,,,,,,,,,,,,,,,,,,,,,,
11907,1645901860.8604062,1645901860.894865,44.0,0.0,4272.307617,4577.94873,4206.153809,4134.358886999999,4304.615234000001,0.0,1.0,15.0,,,,0.0,4.0,1.0,2.0,4.0,4.0,58.33333199999999,,,,,,,,22.0,0.0,0.720648,0.11938499999999999,0.6606449999999999,0.173096,0.9194479999999999,-0.400397,-0.091798,-0.031501,-0.033507999999999996,-0.013515000000000001,,,,,,,,,,,,,,,,,,,,,,,,,,,,,,,,,,,,,,,,,,,,,,,,,,,,,,,,,,,,,,,,,
11908,1645901860.868221,1645901860.9026802,45.0,0.0,4261.538574,4514.358886999999,4216.410156,4180.0,4290.769043,0.0,1.0,15.0,,,,0.0,4.0,1.0,2.0,4.0,4.0,58.33333199999999,,,,,,,,,,,,,,,,,,,,,,,,,,,,,,,,,,,,,,,,,,,,,,,,,,,,,,,,,,,,,,,,,,,,,,,,,,,,,,,,,,,,
11909,1645901860.876036,1645901860.9104948,46.0,0.0,4262.05127,4478.461426,4192.307617,4193.333496,4260.512695,0.0,1.0,15.0,,,,0.0,4.0,1.0,2.0,4.0,4.0,58.33333199999999,,,,,,,,23.0,0.0,0.720648,0.11938499999999999,0.6606449999999999,0.173096,0.93019,-0.396002,-0.093751,-0.031476,-0.033477,-0.011382999999999999,,,,,,,,,,,,,,,,,,,,,,,,,,,,,,,,,,,10.0,0.0,1.0,0.0,512.0,0.23060799999999998,,,,,,,,,,,,,,,,,,,,,,,,,
11910,1645901860.883851,1645901860.918309,47.0,0.0,4264.102539,4385.128418,4154.871582,4166.666504,4271.282227000001,0.0,1.0,15.0,,,,0.0,4.0,1.0,2.0,4.0,4.0,58.33333199999999,,,,,,,,,,,,,,,,,,,,,,,,,,,,,,,,,,,,,,,,,,,,,,,,,,,,,,,,,,,,,,,,,,,,,,,,,,,,,,,,,,,,
11911,1645901860.891666,1645901860.926124,48.0,0.0,4231.282227000001,4294.358886999999,4220.0,4182.05127,4269.743652,0.0,1.0,15.0,,,,0.0,4.0,1.0,2.0,4.0,4.0,58.33333199999999,,,,,,,,24.0,0.0,0.720384,0.119629,0.6608890000000001,0.173096,0.931167,-0.41358100000000003,-0.102052,-0.031550999999999996,-0.033499,-0.012637,,,,,,,,,,,,,,,,,,,,,,,,,,,,,,,,,,,,,,,,,,,,,,,,,,,,,,,,,,,,,,,,,
11912,1645901860.899481,1645901860.933939,49.0,0.0,4212.820313,4381.025879,4289.743652,4190.256348,4249.230957,0.0,1.0,15.0,,,,0.0,4.0,1.0,2.0,4.0,4.0,58.33333199999999,,,,,,,,,,,,,,,,,,,,,,,,,,,,,,,,,,,,,,,,,,,,,,,,,,,,,,,,,,,,,,,,,,,,,,,,,,,,,,,,,,,,
11913,1645901860.9072971,1645901860.941853,50.0,0.0,4244.102539,4455.897461,4207.692383,4140.0,4253.333496,0.0,1.0,15.0,,,,0.0,4.0,1.0,2.0,4.0,4.0,58.33333199999999,,,,,,,,25.0,0.0,0.720384,0.119629,0.6608890000000001,0.173096,0.923842,-0.403326,-0.10009900000000001,-0.031716,-0.03342,-0.013766,,,,,,,,,,,,,,,,,,,,,,,,,,,,,,,,,,,10.0,0.0,1.0,0.0,512.0,0.23060799999999998,,,,,,,,,,,,,,,,,,,,,,,,,
11914,1645901860.915112,1645901860.949668,51.0,0.0,4273.846191,4369.743652,4232.307617,4131.794922,4268.205078,0.0,1.0,15.0,,,,0.0,4.0,1.0,2.0,4.0,4.0,58.33333199999999,,,,,,,,,,,,,,,,,,,,,,,,,,,,,,,,,,,,,,,,,,,,,,,,,,,,,,,,,,,,,,,,,,,,,,,,,,,,,,,,,,,,
11915,1645901860.922927,1645901860.957482,52.0,0.0,4284.615234000001,4375.384765999999,4297.436035,4150.769043,4277.94873,0.0,1.0,15.0,,,,0.0,4.0,1.0,2.0,4.0,4.0,58.33333199999999,,,,,,,,26.0,0.0,0.720325,0.119629,0.6608890000000001,0.17334000000000002,0.920424,-0.39014299999999996,-0.084962,-0.031767000000000004,-0.033448,-0.011706,,,,,,,,,,,,,,,,,,,,,,,,,,,,,,,,,,,,,,,,,,,,,,,,,,,,,,,,,,,,,,,,,
11916,1645901860.930742,1645901860.965297,53.0,0.0,4341.538574,4538.974121,4298.461426,4130.769043,4318.974121,0.0,1.0,15.0,,,,0.0,4.0,1.0,2.0,4.0,4.0,58.33333199999999,,,,,,,,,,,,,,,,,,,,,,,,,,,,,,,,,,,,,,,,,,,,,,,,,,,,,,,,,,,,,,,,,,,,,,,,,,,,,,,,,,,,
11917,1645901860.9385571,1645901860.9731119,54.0,0.0,4472.820313,4527.179688,4271.282227000001,4129.230957,4389.743652,0.0,1.0,15.0,,,,0.0,4.0,1.0,2.0,4.0,4.0,58.33333199999999,,,,,,,,27.0,0.0,0.720325,0.119629,0.6608890000000001,0.17334000000000002,0.918959,-0.401373,-0.098634,-0.031862,-0.033472,-0.012830000000000001,1.0,0.0,0.0,,,,,,,,,,,,,,,,,,,,,,,,,,,,,,,,0.0,0.0,1.0,0.0,512.0,0.233977,15.893172,2.6246419999999997,2.081867,1.9249479999999999,0.729798,29.017235,21.351336,23.725889000000002,26.221546000000004,20.009808,44.255257,45.726616,4.397575,4.668151,3.439821,5.779972,6.559183,5.212342,2.49262,2.578361,7.540951,4.927496,2.474923,2.185651,1.320749
11918,1645901860.946372,1645901860.980926,55.0,0.0,4610.256348,4404.615234000001,4263.589844,4129.743652,4453.846191,0.0,1.0,15.0,,,,0.0,4.0,1.0,2.0,4.0,4.0,58.33333199999999,,,,,,,,,,,,,,,,,,,,,,,,,,,,,,,,,,,,,,,,,,,,,,,,,,,,,,,,,,,,,,,,,,,,,,,,,,,,,,,,,,,,
11919,1645901860.954188,1645901860.988741,56.0,0.0,4700.512695,4467.692383,4236.922852000001,4108.205078,4530.769043,0.0,1.0,15.0,,,,0.0,4.0,1.0,2.0,4.0,4.0,58.33333199999999,,,,,,,,28.0,0.0,0.720325,0.119629,0.6608890000000001,0.17334000000000002,0.9243309999999999,-0.389654,-0.104494,-0.03185,-0.033494,-0.013940000000000001,,,,,,,,,,,,,,,,,,,,,,,,,,,,,,,,,,,,,,,,,,,,,,,,,,,,,,,,,,,,,,,,,
11920,1645901860.962003,1645901860.996556,57.0,0.0,4743.077147999999,4570.256348,4232.307617,4134.871582,4580.0,0.0,1.0,15.0,,,,0.0,4.0,1.0,2.0,4.0,4.0,58.33333199999999,,,,,,,,,,,,,,,,,,,,,,,,,,,,,,,,,,,,,,,,,,,,,,,,,,,,,,,,,,,,,,,,,,,,,,,,,,,,,,,,,,,,
11921,1645901860.9698179,1645901861.00437,58.0,0.0,4793.333496,4520.0,4224.615234000001,4191.794922,4606.153809,0.0,1.0,15.0,,,,0.0,4.0,1.0,2.0,4.0,4.0,58.33333199999999,,,,,,,,29.0,0.0,0.720325,0.119629,0.6608890000000001,0.17334000000000002,0.9209129999999999,-0.393561,-0.09424,-0.031888,-0.033513999999999995,-0.015036,,,,,,,,,,,,,,,,,,,,,,,,,,,,,,,,,,,0.0,0.0,1.0,0.0,512.0,0.233977,,,,,,,,,,,,,,,,,,,,,,,,,
11922,1645901860.977633,1645901861.012285,59.0,0.0,4838.461426,4507.179688,4247.179688,4175.897461,4630.769043,0.0,1.0,15.0,,,,0.0,4.0,4.0,2.0,4.0,4.0,83.333336,,,,,,,,,,,,,,,,,,,,,,,,,,,,,,,,,,,,,,,,,,,,,,,,,,,,,,,,,,,,,,,,,,,,,,,,,,,,,,,,,,,,
11923,1645901860.9854481,1645901861.020099,60.0,0.0,4864.615234000001,4592.307617,4250.769043,4132.307617,4647.692383,0.0,1.0,15.0,,,,0.0,4.0,4.0,2.0,4.0,4.0,83.333336,,,,,,,,30.0,0.0,0.720325,0.119629,0.6608890000000001,0.17334000000000002,0.9160299999999999,-0.39942,-0.095705,-0.031873,-0.03358,-0.012653,,,,,,,,,,,,,,,,,,,,,,,,,,,,,,,,,,,,,,,,,,,,,,,,,,,,,,,,,,,,,,,,,
11924,1645901860.993264,1645901861.027914,61.0,0.0,4853.333496,4582.563965,4239.487305,4159.487305,4646.153809,0.0,1.0,15.0,,,,0.0,4.0,4.0,2.0,4.0,4.0,83.333336,,,,,,,,,,,,,,,,,,,,,,,,,,,,,,,,,,,,,,,,,,,,,,,,,,,,,,,,,,,,,,,,,,,,,,,,,,,,,,,,,,,,
11925,1645901861.0010788,1645901861.035729,62.0,0.0,4845.128418,4519.487305,4221.538574,4231.282227000001,4662.05127,0.0,1.0,15.0,,,,0.0,4.0,4.0,2.0,4.0,4.0,83.333336,,,,,,,,31.0,0.0,0.720549,0.119629,0.6606449999999999,0.17334000000000002,0.9121229999999999,-0.401862,-0.095705,-0.031908,-0.033639999999999996,-0.013732,,,,,,,,,,,,,,,,,,,,,,,,,,,,,,,,,,,0.0,0.0,1.0,0.0,512.0,0.233977,,,,,,,,,,,,,,,,,,,,,,,,,
11926,1645901861.008894,1645901861.0435429,63.0,0.0,4863.077147999999,4529.230957,4221.538574,4228.205078,4665.128418,0.0,1.0,15.0,,,,0.0,4.0,4.0,2.0,4.0,4.0,83.333336,,,,,,,,,,,,,,,,,,,,,,,,,,,,,,,,,,,,,,,,,,,,,,,,,,,,,,,,,,,,,,,,,,,,,,,,,,,,,,,,,,,,
11927,1645901861.016709,1645901861.051358,64.0,0.0,4866.153809,4597.94873,4232.820313,4192.307617,4650.256348,450.0,1.0,15.0,,,,0.0,4.0,4.0,2.0,4.0,4.0,83.333336,,,,,,,,32.0,0.0,0.720549,0.119629,0.6606449999999999,0.17334000000000002,0.917494,-0.390631,-0.101564,-0.031939999999999996,-0.033645999999999995,-0.014849000000000001,,,,,,,,,,,,,,,,,,,,,,,,,,,,,,,,,,,,,,,,,,,,,,,,,,,,,,,,,,,,,,,,,
11928,1645901861.024524,1645901861.059173,65.0,0.0,4834.358886999999,4623.077147999999,4229.743652,4196.922852000001,4635.384765999999,450.0,1.0,15.0,,,,0.0,4.0,4.0,2.0,4.0,4.0,83.333336,,,,,,,,,,,,,,,,,,,,,,,,,,,,,,,,,,,,,,,,,,,,,,,,,,,,,,,,,,,,,,,,,,,,,,,,,,,,,,,,,,,,
11929,1645901861.032339,1645901861.0669868,66.0,0.0,4828.205078,4568.717772999999,4247.692383,4204.102539,4609.743652,16226.0,1.0,15.0,,,,0.0,4.0,4.0,2.0,4.0,4.0,83.333336,,,,,,,,33.0,0.0,0.720608,0.119629,0.6606449999999999,0.173096,0.921401,-0.39942,-0.101564,-0.032018,-0.033553,-0.012729,,,,,,,,,,,,,,,,,,,,,,,,,,,,,,,,,,,0.0,0.0,1.0,0.0,512.0,0.233977,,,,,,,,,,,,,,,,,,,,,,,,,
11930,1645901861.0401552,1645901861.074802,67.0,0.0,4820.0,4510.769043,4218.974121,4156.922852000001,4569.743652,450.0,1.0,15.0,,,,0.0,4.0,4.0,2.0,4.0,4.0,83.333336,,,,,,,,,,,,,,,,,,,,,,,,,,,,,,,,,,,,,,,,,,,,,,,,,,,,,,,,,,,,,,,,,,,,,,,,,,,,,,,,,,,,
11931,1645901861.0479698,1645901861.082617,68.0,0.0,4738.974121,4545.128418,4215.897461,4124.615234000001,4554.358886999999,16070.0,1.0,15.0,,,,0.0,4.0,4.0,2.0,4.0,4.0,83.333336,,,,,,,,34.0,0.0,0.720666,0.119629,0.6606449999999999,0.172852,0.928725,-0.409186,-0.104005,-0.032087,-0.033615,-0.010626,,,,,,,,,,,,,,,,,,,,,,,,,,,,,,,,,,,,,,,,,,,,,,,,,,,,,,,,,,,,,,,,,
11932,1645901861.055785,1645901861.090531,69.0,0.0,4639.487305,4565.128418,4248.717772999999,4158.974121,4530.769043,450.0,1.0,15.0,,,,0.0,4.0,4.0,0.0,4.0,4.0,66.666664,,,,,,,,,,,,,,,,,,,,,,,,,,,,,,,,,,,,,,,,,,,,,,,,,,,,,,,,,,,,,,,,,,,,,,,,,,,,,,,,,,,,
11933,1645901861.0636,1645901861.098346,70.0,0.0,4592.820313,4462.563965,4308.205078,4203.589844,4467.692383,0.0,1.0,15.0,,,,0.0,4.0,4.0,0.0,4.0,4.0,66.666664,,,,,,,,35.0,0.0,0.720549,0.119629,0.6606449999999999,0.17334000000000002,0.917494,-0.390631,-0.101564,-0.032101,-0.033623,-0.008831,1.0,0.0,0.0,,,,,,,,,,,,,,,,,,,,,,,,,,,,,,,,0.0,0.0,1.0,0.0,512.0,0.239092,58.355202,4.711305,2.646782,1.7595310000000002,0.693242,21.635471,18.615791,18.722555,27.324621,20.054184,42.102672999999996,43.109589,5.108924,4.736026,3.6260339999999998,6.523669,6.554583,5.04502,2.256989,2.839497,18.989048,6.022831,3.275512,1.9460279999999999,1.282511
11934,1645901861.071415,1645901861.10616,71.0,0.0,4550.769043,4435.897461,4268.717772999999,4188.717772999999,4435.897461,450.0,1.0,15.0,,,,0.0,4.0,4.0,0.0,4.0,4.0,66.666664,,,,,,,,,,,,,,,,,,,,,,,,,,,,,,,,,,,,,,,,,,,,,,,,,,,,,,,,,,,,,,,,,,,,,,,,,,,,,,,,,,,,
11935,1645901861.07923,1645901861.113975,72.0,0.0,4475.897461,4534.358886999999,4227.179688,4144.102539,4420.512695,450.0,1.0,15.0,,,,0.0,4.0,4.0,0.0,4.0,4.0,66.666664,,,,,,,,36.0,0.0,0.720666,0.119629,0.6606449999999999,0.172852,0.928725,-0.409186,-0.104005,-0.032163,-0.033679,-0.007118000000000001,,,,,,,,,,,,,,,,,,,,,,,,,,,,,,,,,,,,,,,,,,,,,,,,,,,,,,,,,,,,,,,,,
11936,1645901861.0870461,1645901861.12179,73.0,0.0,4428.717772999999,4535.897461,4210.256348,4152.307617,4396.410156,16098.0,1.0,15.0,,,,0.0,4.0,4.0,0.0,4.0,4.0,66.666664,,,,,,,,,,,,,,,,,,,,,,,,,,,,,,,,,,,,,,,,,,,,,,,,,,,,,,,,,,,,,,,,,,,,,,,,,,,,,,,,,,,,
11937,1645901861.094861,1645901861.1296039,74.0,0.0,4408.205078,4494.871582,4211.282227000001,4174.358886999999,4381.025879,450.0,1.0,15.0,,,,0.0,4.0,4.0,0.0,4.0,4.0,66.666664,,,,,,,,37.0,0.0,0.720725,0.119629,0.6606449999999999,0.17260699999999998,0.916518,-0.39453699999999997,-0.10009900000000001,-0.032169,-0.03368,-0.008604,,,,,,,,,,,,,,,,,,,,,,,,,,,,,,,,,,,10.0,0.0,1.0,0.0,512.0,0.239092,,,,,,,,,,,,,,,,,,,,,,,,,
11938,1645901861.102676,1645901861.137419,75.0,0.0,4374.358886999999,4545.641113000001,4215.384765999999,4166.666504,4359.487305,16341.0,1.0,15.0,,,,0.0,4.0,4.0,0.0,4.0,4.0,66.666664,,,,,,,,,,,,,,,,,,,,,,,,,,,,,,,,,,,,,,,,,,,,,,,,,,,,,,,,,,,,,,,,,,,,,,,,,,,,,,,,,,,,
11939,1645901861.110491,1645901861.1452339,76.0,0.0,4325.641113000001,4532.307617,4216.410156,4161.538574,4297.94873,450.0,1.0,15.0,,,,0.0,4.0,4.0,0.0,4.0,4.0,66.666664,,,,,,,,38.0,0.0,0.720725,0.119629,0.6606449999999999,0.17260699999999998,0.925795,-0.392584,-0.091798,-0.032224,-0.033583999999999996,-0.007108,,,,,,,,,,,,,,,,,,,,,,,,,,,,,,,,,,,,,,,,,,,,,,,,,,,,,,,,,,,,,,,,,
11940,1645901861.1183062,1645901861.153048,77.0,0.0,4307.179688,4436.922852000001,4206.153809,4186.666504,4288.717772999999,450.0,1.0,15.0,,,,0.0,4.0,4.0,0.0,4.0,4.0,66.666664,,,,,,,,,,,,,,,,,,,,,,,,,,,,,,,,,,,,,,,,,,,,,,,,,,,,,,,,,,,,,,,,,,,,,,,,,,,,,,,,,,,,
11941,1645901861.126121,1645901861.160963,78.0,0.0,4277.94873,4404.102539,4218.461426,4193.333496,4295.384765999999,450.0,1.0,15.0,,,,0.0,4.0,4.0,0.0,4.0,4.0,66.666664,,,,,,,,39.0,0.0,0.720783,0.119629,0.6606449999999999,0.17236300000000002,0.9248190000000001,-0.406744,-0.086427,-0.032175,-0.033594,-0.008839,,,,,,,,,,,,,,,,,,,,,,,,,,,,,,,,,,,10.0,0.0,1.0,0.0,512.0,0.239092,,,,,,,,,,,,,,,,,,,,,,,,,
11942,1645901861.133937,1645901861.168778,79.0,0.0,4250.769043,4405.128418,4205.128418,4166.666504,4266.666504,16341.0,1.0,15.0,,,,0.0,4.0,4.0,0.0,4.0,4.0,66.666664,,,,,,,,,,,,,,,,,,,,,,,,,,,,,,,,,,,,,,,,,,,,,,,,,,,,,,,,,,,,,,,,,,,,,,,,,,,,,,,,,,,,
11943,1645901861.141752,1645901861.1765919,80.0,0.0,4228.717772999999,4405.641113000001,4169.230957,4127.179688,4248.717772999999,450.0,1.0,15.0,,,,0.0,4.0,4.0,0.0,4.0,4.0,66.666664,,,,,,,,40.0,0.0,0.720783,0.119629,0.6606449999999999,0.17236300000000002,0.921889,-0.395514,-0.10693499999999999,-0.032132,-0.033701999999999996,-0.007223,,,,,,,,,,,,,,,,,,,,,,,,,,,,,,,,,,,,,,,,,,,,,,,,,,,,,,,,,,,,,,,,,
11944,1645901861.149567,1645901861.184407,81.0,0.0,4213.333496,4432.820313,4197.94873,4135.384765999999,4246.666504,450.0,1.0,15.0,,,,0.0,4.0,4.0,0.0,4.0,4.0,66.666664,,,,,,,,,,,,,,,,,,,,,,,,,,,,,,,,,,,,,,,,,,,,,,,,,,,,,,,,,,,,,,,,,,,,,,,,,,,,,,,,,,,,
11945,1645901861.157382,1645901861.1922212,82.0,0.0,4197.436035,4467.692383,4252.307617,4162.563965,4212.307617,450.0,1.0,15.0,,,,0.0,4.0,4.0,0.0,4.0,4.0,66.666664,,,,,,,,41.0,0.0,0.720949,0.119629,0.6604,0.17260699999999998,0.922377,-0.396002,-0.10498199999999999,-0.032141,-0.03375,-0.005719,,,,,,,,,,,,,,,,,,,,,,,,,,,,,,,,,,,10.0,0.0,1.0,0.0,512.0,0.239092,,,,,,,,,,,,,,,,,,,,,,,,,
11946,1645901861.1651971,1645901861.200036,83.0,0.0,4194.358886999999,4501.025879,4286.666504,4151.282227000001,4207.692383,16341.0,1.0,15.0,,,,0.0,4.0,4.0,0.0,4.0,4.0,66.666664,,,,,,,,,,,,,,,,,,,,,,,,,,,,,,,,,,,,,,,,,,,,,,,,,,,,,,,,,,,,,,,,,,,,,,,,,,,,,,,,,,,,
11947,1645901861.173012,1645901861.207851,84.0,0.0,4201.538574,4493.333496,4265.128418,4126.666504,4244.615234000001,450.0,1.0,15.0,,,,0.0,4.0,4.0,0.0,4.0,4.0,66.666664,,,,,,,,42.0,0.0,0.720725,0.119629,0.6606449999999999,0.17260699999999998,0.917006,-0.394049,-0.09033300000000001,-0.032101,-0.033744,-0.007442,,,,,,,,,,,,,,,,,,,,,,,,,,,,,,,,,,,,,,,,,,,,,,,,,,,,,,,,,,,,,,,,,
11948,1645901861.1808279,1645901861.215665,85.0,0.0,4227.179688,4451.282227000001,4282.563965,4144.102539,4260.0,450.0,1.0,15.0,,,,0.0,4.0,4.0,0.0,4.0,4.0,66.666664,,,,,,,,,,,,,,,,,,,,,,,,,,,,,,,,,,,,,,,,,,,,,,,,,,,,,,,,,,,,,,,,,,,,,,,,,,,,,,,,,,,,
11949,1645901861.188643,1645901861.22348,86.0,0.0,4322.563965,4426.666504,4283.077147999999,4156.922852000001,4305.128418,450.0,1.0,15.0,,,,0.0,4.0,4.0,0.0,4.0,4.0,66.666664,1.0,16.666666,2.0,0.0,0.0,2.0,2.0,43.0,0.0,0.720684,0.11987300000000001,0.6606449999999999,0.17260699999999998,0.923842,-0.397467,-0.104494,-0.032114,-0.033739,-0.008993000000000001,1.0,0.0,0.0,,,,,,,,,,,,,,,,,,,,,,,,,,,,,,,,10.0,0.0,1.0,0.0,512.0,0.235907,145.399475,8.668535,3.700943,1.686882,0.705338,19.198276999999997,17.529529999999998,14.397039999999999,27.165201,21.561506,38.324622999999995,38.756371,6.010113,4.70286,3.997929,7.427575,6.849245,4.778647,2.2010680000000002,3.038182,45.31004,8.214005,4.253921,1.7888680000000001,1.24279
11950,1645901861.196458,1645901861.231395,87.0,0.0,4450.769043,4423.589844,4289.743652,4128.717772999999,4390.256348,16341.0,1.0,15.0,,,,0.0,4.0,4.0,0.0,4.0,4.0,66.666664,,,,,,,,,,,,,,,,,,,,,,,,,,,,,,,,,,,,,,,,,,,,,,,,,,,,,,,,,,,,,,,,,,,,,,,,,,,,,,,,,,,,
11951,1645901861.204273,1645901861.239209,88.0,0.0,4574.871582,4463.589844,4251.794922,4108.717772999999,4455.384765999999,450.0,1.0,15.0,,,,0.0,4.0,4.0,0.0,4.0,4.0,66.666664,,,,,,,,44.0,0.0,0.720626,0.11987300000000001,0.6606449999999999,0.172852,0.9072399999999999,-0.395514,-0.10693499999999999,-0.032125,-0.033783,-0.007312000000000001,,,,,,,,,,,,,,,,,,,,,,,,,,,,,,,,,,,,,,,,,,,,,,,,,,,,,,,,,,,,,,,,,
11952,1645901861.212088,1645901861.247024,89.0,0.0,4657.436035,4512.820313,4234.871582,4125.128418,4492.820313,450.0,1.0,15.0,,,,0.0,4.0,4.0,0.0,4.0,4.0,66.666664,,,,,,,,,,,,,,,,,,,,,,,,,,,,,,,,,,,,,,,,,,,,,,,,,,,,,,,,,,,,,,,,,,,,,,,,,,,,,,,,,,,,
11953,1645901861.219903,1645901861.254839,90.0,0.0,4745.128418,4506.153809,4208.205078,4148.717772999999,4533.846191,450.0,1.0,15.0,,,,0.0,4.0,4.0,0.0,4.0,4.0,66.666664,,,,,,,,45.0,0.0,0.720527,0.120117,0.6606449999999999,0.173096,0.916518,-0.392584,-0.10547000000000001,-0.032037,-0.03392,-0.005849,,,,,,,,,,,,,,,,,,,,,,,,,,,,,,,,,,,10.0,0.0,1.0,0.0,512.0,0.235907,,,,,,,,,,,,,,,,,,,,,,,,,
11954,1645901861.2277188,1645901861.2626529,91.0,0.0,4808.205078,4510.256348,4206.666504,4141.025879,4581.538574,16341.0,1.0,15.0,,,,0.0,4.0,4.0,0.0,4.0,4.0,66.666664,,,,,,,,,,,,,,,,,,,,,,,,,,,,,,,,,,,,,,,,,,,,,,,,,,,,,,,,,,,,,,,,,,,,,,,,,,,,,,,,,,,,
11955,1645901861.235534,1645901861.270468,92.0,0.0,4812.307617,4550.769043,4203.077147999999,4169.230957,4641.025879,450.0,1.0,15.0,,,,0.0,4.0,4.0,0.0,4.0,4.0,66.666664,,,,,,,,46.0,0.0,0.720626,0.11987300000000001,0.6606449999999999,0.172852,0.9248190000000001,-0.389166,-0.10009900000000001,-0.032056,-0.033750999999999996,-0.007705,,,,,,,,,,,,,,,,,,,,,,,,,,,,,,,,,,,,,,,,,,,,,,,,,,,,,,,,,,,,,,,,,
11956,1645901861.243349,1645901861.278282,93.0,0.0,4814.871582,4531.794922,4202.563965,4190.769043,4642.563965,450.0,1.0,15.0,,,,0.0,4.0,4.0,0.0,4.0,4.0,66.666664,,,,,,,,,,,,,,,,,,,,,,,,,,,,,,,,,,,,,,,,,,,,,,,,,,,,,,,,,,,,,,,,,,,,,,,,,,,,,,,,,,,,
11957,1645901861.251164,1645901861.286097,94.0,0.0,4850.256348,4523.077147999999,4230.769043,4152.820313,4614.871582,450.0,1.0,15.0,,,,0.0,4.0,4.0,0.0,4.0,4.0,66.666664,,,,,,,,47.0,0.0,0.720626,0.11987300000000001,0.6606449999999999,0.172852,0.9355610000000001,-0.399908,-0.09472799999999999,-0.032073000000000004,-0.033794,-0.009425,,,,,,,,,,,,,,,,,,,,,,,,,,,,,,,,,,,0.0,0.0,1.0,0.0,512.0,0.235907,,,,,,,,,,,,,,,,,,,,,,,,,
11958,1645901861.2589788,1645901861.293912,95.0,0.0,4851.794922,4549.743652,4221.025879,4135.897461,4609.743652,16341.0,1.0,15.0,,,,0.0,4.0,4.0,0.0,4.0,4.0,66.666664,,,,,,,,,,,,,,,,,,,,,,,,,,,,,,,,,,,,,,,,,,,,,,,,,,,,,,,,,,,,,,,,,,,,,,,,,,,,,,,,,,,,
11959,1645901861.266795,1645901861.3017259,96.0,0.0,4834.871582,4553.333496,4210.256348,4172.307617,4630.769043,450.0,1.0,15.0,,,,0.0,4.0,4.0,0.0,4.0,4.0,66.666664,,,,,,,,48.0,0.0,0.720626,0.11987300000000001,0.6606449999999999,0.172852,0.9248190000000001,-0.408698,-0.093263,-0.031991000000000006,-0.033783999999999995,-0.00775,,,,,,,,,,,,,,,,,,,,,,,,,,,,,,,,,,,,,,,,,,,,,,,,,,,,,,,,,,,,,,,,,
11960,1645901861.27461,1645901861.3096411,97.0,0.0,4844.615234000001,4543.077147999999,4229.230957,4173.333496,4643.077147999999,450.0,1.0,15.0,,,,0.0,4.0,4.0,0.0,4.0,4.0,66.666664,,,,,,,,,,,,,,,,,,,,,,,,,,,,,,,,,,,,,,,,,,,,,,,,,,,,,,,,,,,,,,,,,,,,,,,,,,,,,,,,,,,,
11961,1645901861.282425,1645901861.317456,98.0,0.0,4844.615234000001,4525.641113000001,4248.717772999999,4187.692383,4643.589844,450.0,1.0,15.0,,,,0.0,4.0,4.0,0.0,4.0,4.0,66.666664,,,,,,,,49.0,0.0,0.720626,0.11987300000000001,0.6606449999999999,0.172852,0.917006,-0.40528000000000003,-0.098146,-0.031917,-0.033726,-0.006194,,,,,,,,,,,,,,,,,,,,,,,,,,,,,,,,,,,0.0,0.0,1.0,0.0,512.0,0.235907,,,,,,,,,,,,,,,,,,,,,,,,,
11962,1645901861.29024,1645901861.32527,99.0,0.0,4811.282227000001,4487.179688,4224.102539,4221.025879,4613.846191,16341.0,1.0,15.0,,,,0.0,4.0,4.0,0.0,4.0,4.0,66.666664,,,,,,,,,,,,,,,,,,,,,,,,,,,,,,,,,,,,,,,,,,,,,,,,,,,,,,,,,,,,,,,,,,,,,,,,,,,,,,,,,,,,
11963,1645901861.2980552,1645901861.333085,100.0,0.0,4786.666504,4497.94873,4273.333496,4187.692383,4560.0,450.0,1.0,15.0,,,,0.0,4.0,4.0,0.0,4.0,4.0,66.666664,,,,,,,,50.0,0.0,0.720585,0.120117,0.6606449999999999,0.172852,0.9248190000000001,-0.408209,-0.093751,-0.028774,-0.033770999999999995,-0.007821,,,,,,,,,,,,,,,,,,,,,,,,,,,,,,,,,,,,,,,,,,,,,,,,,,,,,,,,,,,,,,,,,
11964,1645901861.3058698,1645901861.3409,101.0,0.0,4751.282227000001,4498.461426,4327.179688,4162.563965,4534.871582,450.0,1.0,15.0,,,,0.0,4.0,4.0,0.0,4.0,4.0,66.666664,,,,,,,,,,,,,,,,,,,,,,,,,,,,,,,,,,,,,,,,,,,,,,,,,,,,,,,,,,,,,,,,,,,,,,,,,,,,,,,,,,,,
11965,1645901861.313686,1645901861.348714,102.0,0.0,4685.128418,4432.307617,4310.256348,4215.897461,4515.384765999999,450.0,1.0,15.0,,,,0.0,4.0,4.0,0.0,4.0,4.0,66.666664,,,,,,,,51.0,0.0,0.720585,0.120117,0.6606449999999999,0.172852,0.9233540000000001,-0.39942,-0.104005,-0.02912,-0.033714,-0.006306,1.0,0.0,0.0,,,,,,,,,,,,,,,,,,,,,,,,,,,,,,,,0.0,0.0,1.0,0.0,512.0,0.26731,278.147125,14.487345000000001,5.320907,1.796661,0.797492,21.721678,16.655545999999998,12.031447,25.990137,23.903381,34.191681,33.773064,7.2596419999999995,4.715593,4.562942,8.307508,7.396033,4.3979,2.440419,3.178255,89.124886,11.505811,5.212718,1.815663,1.2130049999999999
11966,1645901861.321501,1645901861.356529,103.0,0.0,4608.205078,4406.666504,4251.282227000001,4216.410156,4477.436035,16341.0,1.0,15.0,,,,0.0,4.0,4.0,0.0,4.0,4.0,66.666664,,,,,,,,,,,,,,,,,,,,,,,,,,,,,,,,,,,,,,,,,,,,,,,,,,,,,,,,,,,,,,,,,,,,,,,,,,,,,,,,,,,,
11967,1645901861.329316,1645901861.364343,104.0,0.0,4530.256348,4413.846191,4293.846191,4155.384765999999,4432.820313,450.0,1.0,15.0,,,,0.0,4.0,4.0,0.0,4.0,4.0,66.666664,,,,,,,,52.0,0.0,0.720644,0.120117,0.6606449999999999,0.17260699999999998,0.922866,-0.401862,-0.093751,-0.029381,-0.033761,-0.008019,,,,,,,,,,,,,,,,,,,,,,,,,,,,,,,,,,,,,,,,,,,,,,,,,,,,,,,,,,,,,,,,,
11968,1645901861.337131,1645901861.372158,105.0,0.0,4474.358886999999,4399.487305,4295.897461,4171.794922,4406.666504,450.0,1.0,15.0,,,,0.0,4.0,4.0,0.0,4.0,4.0,66.666664,,,,,,,,,,,,,,,,,,,,,,,,,,,,,,,,,,,,,,,,,,,,,,,,,,,,,,,,,,,,,,,,,,,,,,,,,,,,,,,,,,,,
11969,1645901861.3449461,1645901861.380073,106.0,0.0,4425.128418,4397.94873,4217.94873,4216.922852000001,4377.436035,450.0,1.0,15.0,,,,0.0,4.0,4.0,0.0,4.0,4.0,66.666664,,,,,,,,53.0,0.0,0.720644,0.120117,0.6606449999999999,0.17260699999999998,0.9199360000000001,-0.409186,-0.089357,-0.029666,-0.033705,-0.009561,,,,,,,,,,,,,,,,,,,,,,,,,,,,,,,,,,,10.0,0.0,1.0,0.0,512.0,0.26731,,,,,,,,,,,,,,,,,,,,,,,,,
11970,1645901861.352761,1645901861.387887,107.0,0.0,4376.410156,4427.692383,4173.333496,4199.487305,4360.0,16341.0,1.0,15.0,,,,0.0,4.0,4.0,0.0,4.0,4.0,66.666664,,,,,,,,,,,,,,,,,,,,,,,,,,,,,,,,,,,,,,,,,,,,,,,,,,,,,,,,,,,,,,,,,,,,,,,,,,,,,,,,,,,,
11971,1645901861.3605769,1645901861.395702,108.0,0.0,4305.641113000001,4449.230957,4224.102539,4172.820313,4342.563965,450.0,1.0,15.0,,,,0.0,4.0,4.0,0.0,4.0,4.0,66.666664,,,,,,,,54.0,0.0,0.720644,0.120117,0.6606449999999999,0.17260699999999998,0.9028459999999999,-0.40235,-0.088869,-0.029873,-0.033753,-0.010801999999999999,,,,,,,,,,,,,,,,,,,,,,,,,,,,,,,,,,,,,,,,,,,,,,,,,,,,,,,,,,,,,,,,,
11972,1645901861.368392,1645901861.403517,109.0,0.0,4273.846191,4428.205078,4203.077147999999,4188.205078,4310.256348,450.0,1.0,15.0,,,,0.0,4.0,4.0,0.0,4.0,4.0,66.666664,,,,,,,,,,,,,,,,,,,,,,,,,,,,,,,,,,,,,,,,,,,,,,,,,,,,,,,,,,,,,,,,,,,,,,,,,,,,,,,,,,,,
11973,1645901861.376207,1645901861.411331,110.0,0.0,4260.0,4411.282227000001,4174.871582,4151.794922,4282.05127,450.0,1.0,15.0,,,,0.0,4.0,4.0,0.0,4.0,4.0,66.666664,,,,,,,,55.0,0.0,0.720684,0.11987300000000001,0.6606449999999999,0.17260699999999998,0.917983,-0.401862,-0.098634,-0.026935,-0.033747000000000006,-0.012164,,,,,,,,,,,,,,,,,,,,,,,,,,,,,,,,,,,10.0,0.0,1.0,0.0,512.0,0.26731,,,,,,,,,,,,,,,,,,,,,,,,,
11974,1645901861.384022,1645901861.419146,111.0,0.0,4217.94873,4406.666504,4249.230957,4124.615234000001,4267.179688,16341.0,1.0,15.0,,,,0.0,4.0,4.0,0.0,4.0,4.0,66.666664,,,,,,,,,,,,,,,,,,,,,,,,,,,,,,,,,,,,,,,,,,,,,,,,,,,,,,,,,,,,,,,,,,,,,,,,,,,,,,,,,,,,
11975,1645901861.391837,1645901861.426961,112.0,0.0,4165.128418,4353.333496,4248.717772999999,4179.487305,4199.487305,450.0,1.0,15.0,,,,0.0,4.0,4.0,0.0,4.0,4.0,66.666664,,,,,,,,56.0,0.0,0.720725,0.119629,0.6606449999999999,0.17260699999999998,0.917006,-0.39649,-0.105959,-0.027415,-0.033497000000000006,-0.013241999999999999,,,,,,,,,,,,,,,,,,,,,,,,,,,,,,,,,,,,,,,,,,,,,,,,,,,,,,,,,,,,,,,,,
11976,1645901861.399652,1645901861.434775,113.0,0.0,4151.794922,4311.282227000001,4197.436035,4210.769043,4152.820313,450.0,1.0,15.0,,,,0.0,4.0,4.0,0.0,4.0,4.0,66.666664,,,,,,,,,,,,,,,,,,,,,,,,,,,,,,,,,,,,,,,,,,,,,,,,,,,,,,,,,,,,,,,,,,,,,,,,,,,,,,,,,,,,
11977,1645901861.407467,1645901861.44259,114.0,0.0,4116.922852000001,4316.410156,4237.436035,4176.410156,4160.512695,450.0,1.0,15.0,,,,0.0,4.0,4.0,0.0,4.0,4.0,66.666664,,,,,,,,57.0,0.0,0.720725,0.119629,0.6606449999999999,0.17260699999999998,0.922866,-0.404303,-0.10693499999999999,-0.027799,-0.033517,-0.014262,,,,,,,,,,,,,,,,,,,,,,,,,,,,,,,,,,,10.0,0.0,1.0,0.0,512.0,0.26731,,,,,,,,,,,,,,,,,,,,,,,,,
11978,1645901861.415283,1645901861.4505038,115.0,0.0,4058.974365,4317.94873,4288.717772999999,4185.641113000001,4151.794922,16341.0,1.0,15.0,,,,0.0,4.0,4.0,0.0,4.0,4.0,66.666664,,,,,,,,,,,,,,,,,,,,,,,,,,,,,,,,,,,,,,,,,,,,,,,,,,,,,,,,,,,,,,,,,,,,,,,,,,,,,,,,,,,,
11979,1645901861.423098,1645901861.458319,116.0,0.0,4058.461426,4334.871582,4223.077147999999,4202.05127,4122.563965,450.0,1.0,15.0,,,,0.0,4.0,4.0,0.0,4.0,4.0,66.666664,,,,,,,,58.0,0.0,0.720725,0.119629,0.6606449999999999,0.17260699999999998,0.9306780000000001,-0.397467,-0.097169,-0.028095,-0.033436,-0.015228,,,,,,,,,,,,,,,,,,,,,,,,,,,,,,,,,,,,,,,,,,,,,,,,,,,,,,,,,,,,,,,,,
11980,1645901861.430913,1645901861.466134,117.0,0.0,4072.820557,4373.333496,4264.615234000001,4177.94873,4133.846191,450.0,1.0,15.0,,,,0.0,4.0,4.0,0.0,4.0,4.0,66.666664,,,,,,,,,,,,,,,,,,,,,,,,,,,,,,,,,,,,,,,,,,,,,,,,,,,,,,,,,,,,,,,,,,,,,,,,,,,,,,,,,,,,
11981,1645901861.4387279,1645901861.473948,118.0,0.0,4065.1281740000004,4327.179688,4310.769043,4190.256348,4162.563965,450.0,1.0,15.0,,,,0.0,4.0,4.0,0.0,4.0,4.0,66.666664,,,,,,,,59.0,0.0,0.720725,0.119629,0.6606449999999999,0.17260699999999998,0.929213,-0.397467,-0.109377,-0.028557,-0.033413,-0.015951,1.0,0.0,0.0,,,,,,,,,,,,,,,,,,,,,,,,,,,,,,,,10.0,0.0,1.0,0.0,512.0,0.23395,452.19586200000003,21.945610000000002,7.617128,2.108562,0.983541,27.780245,15.537297,12.441867,24.465277,26.216482,30.858307,29.245835999999997,8.81707,4.875749,5.222123000000001,9.074281,8.037706,3.8704440000000004,3.00553,3.3145519999999995,151.77626,15.346716,5.937108,2.030686,1.2002469999999998
11982,1645901861.446543,1645901861.4817631,119.0,0.0,4083.076904,4316.410156,4264.615234000001,4228.717772999999,4161.538574,16341.0,1.0,15.0,,,,0.0,4.0,4.0,0.0,4.0,4.0,66.666664,,,,,,,,,,,,,,,,,,,,,,,,,,,,,,,,,,,,,,,,,,,,,,,,,,,,,,,,,,,,,,,,,,,,,,,,,,,,,,,,,,,,
11983,1645901861.454358,1645901861.489578,120.0,0.0,4117.436035,4393.333496,4226.666504,4223.077147999999,4173.846191,450.0,1.0,15.0,,,,0.0,4.0,4.0,0.0,4.0,4.0,66.666664,,,,,,,,60.0,0.0,0.720684,0.11987300000000001,0.6606449999999999,0.17260699999999998,0.929213,-0.38526,-0.096193,-0.028875,-0.033441000000000005,-0.016602000000000002,,,,,,,,,,,,,,,,,,,,,,,,,,,,,,,,,,,,,,,,,,,,,,,,,,,,,,,,,,,,,,,,,
11984,1645901861.462174,1645901861.497392,121.0,0.0,4092.820557,4348.205078,4302.05127,4189.743652,4200.0,450.0,1.0,15.0,,,,0.0,4.0,4.0,0.0,4.0,4.0,66.666664,,,,,,,,,,,,,,,,,,,,,,,,,,,,,,,,,,,,,,,,,,,,,,,,,,,,,,,,,,,,,,,,,,,,,,,,,,,,,,,,,,,,
11985,1645901861.469989,1645901861.505207,122.0,0.0,4061.025635,4267.179688,4307.692383,4183.589844,4196.922852000001,450.0,1.0,15.0,,,,0.0,4.0,4.0,0.0,4.0,4.0,66.666664,,,,,,,,61.0,0.0,0.720684,0.11987300000000001,0.6606449999999999,0.17260699999999998,0.9199360000000001,-0.401862,-0.09472799999999999,-0.029258999999999997,-0.033514999999999996,-0.014161000000000002,,,,,,,,,,,,,,,,,,,,,,,,,,,,,,,,,,,10.0,0.0,1.0,0.0,512.0,0.23395,,,,,,,,,,,,,,,,,,,,,,,,,
11986,1645901861.477804,1645901861.5130222,123.0,0.0,4085.641113,4301.538574,4218.974121,4189.743652,4138.461426,16341.0,1.0,15.0,,,,0.0,4.0,4.0,0.0,4.0,4.0,66.666664,,,,,,,,,,,,,,,,,,,,,,,,,,,,,,,,,,,,,,,,,,,,,,,,,,,,,,,,,,,,,,,,,,,,,,,,,,,,,,,,,,,,
11987,1645901861.4856188,1645901861.5208359,124.0,0.0,4114.871582,4374.871582,4168.717772999999,4174.358886999999,4118.974121,450.0,1.0,15.0,,,,0.0,4.0,4.0,0.0,4.0,4.0,66.666664,,,,,,,,62.0,0.0,0.720725,0.119629,0.6606449999999999,0.17260699999999998,0.929213,-0.397467,-0.109377,-0.029605000000000003,-0.033484,-0.014990999999999999,,,,,,,,,,,,,,,,,,,,,,,,,,,,,,,,,,,,,,,,,,,,,,,,,,,,,,,,,,,,,,,,,
11988,1645901861.493434,1645901861.528751,125.0,0.0,4056.923096,4360.0,4253.333496,4139.487305,4155.384765999999,450.0,1.0,15.0,,,,0.0,4.0,2.0,0.0,4.0,4.0,50.0,,,,,,,,,,,,,,,,,,,,,,,,,,,,,,,,,,,,,,,,,,,,,,,,,,,,,,,,,,,,,,,,,,,,,,,,,,,,,,,,,,,,
11989,1645901861.50125,1645901861.536565,126.0,0.0,4009.2307130000004,4311.794922,4330.769043,4155.897461,4158.461426,450.0,1.0,15.0,,,,0.0,4.0,2.0,0.0,4.0,4.0,50.0,,,,,,,,63.0,0.0,0.720684,0.11987300000000001,0.6606449999999999,0.17260699999999998,0.9199360000000001,-0.401862,-0.09472799999999999,-0.029916,-0.033553,-0.012711,,,,,,,,,,,,,,,,,,,,,,,,,,,,,,,,,,,0.0,0.0,1.0,0.0,512.0,0.23395,,,,,,,,,,,,,,,,,,,,,,,,,
11990,1645901861.5090652,1645901861.5443802,127.0,0.0,4033.8461909999996,4320.512695,4242.563965,4189.230957,4091.794922,232.0,1.0,15.0,,,,0.0,4.0,2.0,0.0,4.0,4.0,50.0,,,,,,,,,,,,,,,,,,,,,,,,,,,,,,,,,,,,,,,,,,,,,,,,,,,,,,,,,,,,,,,,,,,,,,,,,,,,,,,,,,,,
11991,1645901861.51688,1645901861.5521948,0.0,0.0,4065.641113,4350.256348,4151.794922,4170.256348,4071.794922,450.0,1.0,15.0,,,,0.0,4.0,2.0,0.0,4.0,4.0,50.0,,,,,,,,0.0,0.0,0.720684,0.11987300000000001,0.6606449999999999,0.17260699999999998,0.922377,-0.404791,-0.101076,-0.030147000000000004,-0.033567,-0.013686000000000002,,,,,,,,,,,,,,,,,,,,,,,,,,,,,,,,,,,,,,,,,,,,,,,,,,,,,,,,,,,,,,,,,
11992,1645901861.524695,1645901861.560009,1.0,0.0,4056.4101560000004,4328.205078,4231.794922,4114.358886999999,4117.436035,450.0,1.0,15.0,,,,0.0,4.0,2.0,0.0,4.0,4.0,50.0,,,,,,,,,,,,,,,,,,,,,,,,,,,,,,,,,,,,,,,,,,,,,,,,,,,,,,,,,,,,,,,,,,,,,,,,,,,,,,,,,,,,
11993,1645901861.53251,1645901861.5678241,2.0,0.0,4051.281982,4322.05127,4354.358886999999,4110.769043,4152.307617,16199.0,1.0,15.0,,,,0.0,4.0,2.0,0.0,4.0,4.0,50.0,,,,,,,,1.0,0.0,0.720626,0.11987300000000001,0.6606449999999999,0.172852,0.923842,-0.394049,-0.09668099999999999,-0.030404,-0.033629,-0.014759,,,,,,,,,,,,,,,,,,,,,,,,,,,,,,,,,,,0.0,0.0,1.0,0.0,512.0,0.23395,,,,,,,,,,,,,,,,,,,,,,,,,
11994,1645901861.5403259,1645901861.575639,3.0,0.0,4052.820557,4376.410156,4283.589844,4150.256348,4131.282227000001,450.0,1.0,15.0,,,,0.0,4.0,2.0,0.0,4.0,4.0,50.0,,,,,,,,,,,,,,,,,,,,,,,,,,,,,,,,,,,,,,,,,,,,,,,,,,,,,,,,,,,,,,,,,,,,,,,,,,,,,,,,,,,,
11995,1645901861.548141,1645901861.583453,4.0,0.0,4069.743652,4401.538574,4232.307617,4166.153809,4111.282227000001,256.0,1.0,15.0,,,,0.0,4.0,2.0,0.0,4.0,4.0,50.0,,,,,,,,2.0,0.0,0.720626,0.11987300000000001,0.6606449999999999,0.172852,0.9194479999999999,-0.40235,-0.101076,-0.030537,-0.033635000000000005,-0.012598999999999999,,,,,,,,,,,,,,,,,,,,,,,,,,,,,,,,,,,,,,,,,,,,,,,,,,,,,,,,,,,,,,,,,
11996,1645901861.5559561,1645901861.591268,5.0,0.0,4098.974121,4364.102539,4316.922852000001,4152.820313,4145.128418,450.0,1.0,15.0,,,,0.0,4.0,2.0,0.0,4.0,4.0,50.0,,,,,,,,,,,,,,,,,,,,,,,,,,,,,,,,,,,,,,,,,,,,,,,,,,,,,,,,,,,,,,,,,,,,,,,,,,,,,,,,,,,,
11997,1645901861.563771,1645901861.599083,6.0,0.0,4087.6923829999996,4300.512695,4341.538574,4164.102539,4173.846191,31.0,1.0,15.0,,,,0.0,4.0,2.0,0.0,4.0,4.0,50.0,,,,,,,,3.0,0.0,0.720567,0.11987300000000001,0.6606449999999999,0.173096,0.923842,-0.400885,-0.095705,-0.030560000000000004,-0.033641000000000004,-0.013732,1.0,0.0,0.0,,,,,,,,,,,,,,,,,,,,,,,,,,,,,,,,0.0,0.0,1.0,0.0,512.0,0.20411500000000002,653.4627690000001,31.340734,10.66731,2.550282,1.241819,36.74041,14.289842000000002,15.655319,23.146994,27.718054,29.170753,26.031670000000002,10.447979,5.159629,5.8081309999999995,9.701816,8.525788,3.22822,3.807213,3.507214,230.05831899999998,19.245668,6.334268,2.34037,1.207935
11998,1645901861.571586,1645901861.606997,7.0,0.0,4093.8461909999996,4282.05127,4207.179688,4184.615234000001,4168.205078,450.0,1.0,15.0,,,,0.0,4.0,2.0,0.0,4.0,4.0,50.0,,,,,,,,,,,,,,,,,,,,,,,,,,,,,,,,,,,,,,,,,,,,,,,,,,,,,,,,,,,,,,,,,,,,,,,,,,,,,,,,,,,,
11999,1645901861.579401,1645901861.614812,8.0,0.0,4126.666504,4382.05127,4229.230957,4165.641113000001,4171.282227000001,450.0,1.0,15.0,,,,0.0,4.0,2.0,0.0,4.0,4.0,50.0,,,,,,,,4.0,0.0,0.720626,0.11987300000000001,0.6606449999999999,0.172852,0.925307,-0.401373,-0.095705,-0.030629000000000003,-0.033499,-0.011529000000000001,,,,,,,,,,,,,,,,,,,,,,,,,,,,,,,,,,,,,,,,,,,,,,,,,,,,,,,,,,,,,,,,,
12000,1645901861.587217,1645901861.622626,9.0,0.0,4128.717772999999,4381.538574,4315.897461,4162.563965,4176.410156,16228.0,1.0,15.0,,,,0.0,4.0,2.0,0.0,4.0,4.0,50.0,,,,,,,,,,,,,,,,,,,,,,,,,,,,,,,,,,,,,,,,,,,,,,,,,,,,,,,,,,,,,,,,,,,,,,,,,,,,,,,,,,,,
12001,1645901861.595032,1645901861.630441,10.0,0.0,4111.282227000001,4249.743652,4267.179688,4189.230957,4127.179688,450.0,1.0,15.0,,,,0.0,4.0,2.0,0.0,4.0,4.0,50.0,,,,,,,,5.0,0.0,0.720626,0.11987300000000001,0.6606449999999999,0.172852,0.9282370000000001,-0.39453699999999997,-0.100587,-0.030739999999999996,-0.03347,-0.012816999999999999,,,,,,,,,,,,,,,,,,,,,,,,,,,,,,,,,,,0.0,0.0,1.0,0.0,512.0,0.20411500000000002,,,,,,,,,,,,,,,,,,,,,,,,,
12002,1645901861.602847,1645901861.638256,11.0,0.0,4130.769043,4307.179688,4206.153809,4186.666504,4136.922852000001,16248.0,1.0,15.0,,,,0.0,4.0,2.0,0.0,4.0,4.0,50.0,,,,,,,,,,,,,,,,,,,,,,,,,,,,,,,,,,,,,,,,,,,,,,,,,,,,,,,,,,,,,,,,,,,,,,,,,,,,,,,,,,,,
12003,1645901861.610662,1645901861.64607,12.0,0.0,4103.077147999999,4481.538574,4285.641113000001,4171.282227000001,4196.410156,450.0,1.0,15.0,,,,0.0,4.0,2.0,0.0,4.0,4.0,50.0,,,,,,,,6.0,0.0,0.720626,0.11987300000000001,0.6606449999999999,0.172852,0.922866,-0.407233,-0.100587,-0.030889,-0.033345,-0.013928,,,,,,,,,,,,,,,,,,,,,,,,,,,,,,,,,,,,,,,,,,,,,,,,,,,,,,,,,,,,,,,,,
12004,1645901861.6184769,1645901861.653885,13.0,0.0,4073.8461909999996,4458.974121,4259.487305,4196.410156,4178.974121,450.0,1.0,15.0,,,,0.0,4.0,2.0,0.0,4.0,4.0,50.0,,,,,,,,,,,,,,,,,,,,,,,,,,,,,,,,,,,,,,,,,,,,,,,,,,,,,,,,,,,,,,,,,,,,,,,,,,,,,,,,,,,,
12005,1645901861.626292,1645901861.6617,14.0,0.0,4132.820313,4371.794922,4140.512695,4177.94873,4144.615234000001,450.0,1.0,15.0,,,,0.0,4.0,2.0,0.0,4.0,4.0,50.0,,,,,,,,7.0,0.0,0.72046,0.11987300000000001,0.6608890000000001,0.17260699999999998,0.9248190000000001,-0.397467,-0.106447,-0.031070999999999998,-0.033477999999999994,-0.014928,,,,,,,,,,,,,,,,,,,,,,,,,,,,,,,,,,,0.0,0.0,1.0,0.0,512.0,0.20411500000000002,,,,,,,,,,,,,,,,,,,,,,,,,
12006,1645901861.634107,1645901861.669614,15.0,0.0,4176.922852000001,4400.512695,4181.025879,4136.410156,4193.333496,16248.0,1.0,15.0,,,,0.0,4.0,2.0,0.0,4.0,4.0,50.0,,,,,,,,,,,,,,,,,,,,,,,,,,,,,,,,,,,,,,,,,,,,,,,,,,,,,,,,,,,,,,,,,,,,,,,,,,,,,,,,,,,,
12007,1645901861.641923,1645901861.677429,16.0,0.0,4114.871582,4404.102539,4240.0,4164.615234000001,4189.743652,0.0,1.0,15.0,,,,0.0,4.0,2.0,0.0,4.0,4.0,50.0,,,,,,,,8.0,0.0,0.7204020000000001,0.11987300000000001,0.6608890000000001,0.172852,0.922377,-0.398932,-0.109865,-0.031089,-0.033499,-0.012703,,,,,,,,,,,,,,,,,,,,,,,,,,,,,,,,,,,,,,,,,,,,,,,,,,,,,,,,,,,,,,,,,
12008,1645901861.649738,1645901861.685343,17.0,0.0,4083.5898439999996,4412.820313,4194.871582,4207.179688,4129.230957,0.0,1.0,15.0,,,,0.0,4.0,2.0,0.0,4.0,4.0,50.0,,,,,,,,,,,,,,,,,,,,,,,,,,,,,,,,,,,,,,,,,,,,,,,,,,,,,,,,,,,,,,,,,,,,,,,,,,,,,,,,,,,,
12009,1645901861.657553,1645901861.693158,18.0,0.0,4113.333496,4454.871582,4209.743652,4152.307617,4133.333496,0.0,1.0,15.0,,,,0.0,4.0,2.0,0.0,4.0,4.0,50.0,,,,,,,,9.0,0.0,0.72046,0.11987300000000001,0.6608890000000001,0.17260699999999998,0.920424,-0.401373,-0.099611,-0.031105,-0.033616,-0.013775999999999998,,,,,,,,,,,,,,,,,,,,,,,,,,,,,,,,,,,0.0,0.0,1.0,0.0,512.0,0.20411500000000002,,,,,,,,,,,,,,,,,,,,,,,,,
12010,1645901861.665368,1645901861.700973,19.0,0.0,4119.487305,4430.769043,4308.717772999999,4096.922852000001,4166.666504,0.0,1.0,15.0,,,,0.0,4.0,2.0,0.0,4.0,4.0,50.0,,,,,,,,,,,,,,,,,,,,,,,,,,,,,,,,,,,,,,,,,,,,,,,,,,,,,,,,,,,,,,,,,,,,,,,,,,,,,,,,,,,,
12011,1645901861.673183,1645901861.708787,20.0,0.0,4104.615234000001,4411.794922,4240.512695,4134.358886999999,4146.666504,0.0,1.0,15.0,,,,0.0,4.0,2.0,0.0,4.0,4.0,50.0,,,,,,,,10.0,0.0,0.720178,0.11987300000000001,0.661133,0.172852,0.932631,-0.398932,-0.10009900000000001,-0.031217,-0.033526,-0.01152,,,,,,,,,,,,,,,,,,,,,,,,,,,,,,,,,,,,,,,,,,,,,,,,,,,,,,,,,,,,,,,,,
12012,1645901861.680998,1645901861.7166018,21.0,0.0,4086.1538090000004,4438.461426,4211.794922,4185.128418,4123.077147999999,0.0,1.0,15.0,,,,0.0,4.0,2.0,0.0,4.0,4.0,50.0,,,,,,,,,,,,,,,,,,,,,,,,,,,,,,,,,,,,,,,,,,,,,,,,,,,,,,,,,,,,,,,,,,,,,,,,,,,,,,,,,,,,
12013,1645901861.6888142,1645901861.724516,22.0,0.0,4077.9487299999996,4387.692383,4303.077147999999,4181.025879,4130.769043,0.0,1.0,15.0,,,,0.0,4.0,2.0,0.0,4.0,4.0,50.0,1.0,8.333333,1.0,0.0,0.0,2.0,2.0,11.0,0.0,0.720218,0.119629,0.661133,0.172852,0.922866,-0.40528000000000003,-0.09131,-0.031367,-0.033543,-0.012711,1.0,0.0,0.0,,,,,,,,,,,,,,,,,,,,,,,,,,,,,,,,0.0,0.0,1.0,0.0,512.0,0.203469,863.263367,42.634514,14.440952,3.007998,1.5278,47.571766,13.449388,20.890261,22.126232,27.874853,29.541159000000004,24.491575,11.778407000000001,5.438643,6.241453,10.200702,8.6693,2.529879,4.667758999999999,3.787821,317.30722000000003,22.991503,6.4930650000000005,2.629475,1.246715
12014,1645901861.6966288,1645901861.732331,23.0,0.0,4093.8461909999996,4363.589844,4320.512695,4168.717772999999,4121.025879,0.0,1.0,15.0,,,,0.0,4.0,2.0,0.0,4.0,4.0,50.0,,,,,,,,,,,,,,,,,,,,,,,,,,,,,,,,,,,,,,,,,,,,,,,,,,,,,,,,,,,,,,,,,,,,,,,,,,,,,,,,,,,,
12015,1645901861.704444,1645901861.7401462,24.0,0.0,4111.282227000001,4434.871582,4190.256348,4159.487305,4121.025879,0.0,1.0,15.0,,,,0.0,4.0,2.0,0.0,4.0,4.0,50.0,,,,,,,,12.0,0.0,0.720218,0.119629,0.661133,0.172852,0.929213,-0.39453699999999997,-0.09472799999999999,-0.031550999999999996,-0.033606,-0.013734999999999999,,,,,,,,,,,,,,,,,,,,,,,,,,,,,,,,,,,,,,,,,,,,,,,,,,,,,,,,,,,,,,,,,
12016,1645901861.712259,1645901861.7479599,25.0,0.0,4078.974365,4397.436035,4211.794922,4134.358886999999,4152.820313,0.0,1.0,15.0,,,,0.0,4.0,2.0,0.0,4.0,4.0,50.0,,,,,,,,,,,,,,,,,,,,,,,,,,,,,,,,,,,,,,,,,,,,,,,,,,,,,,,,,,,,,,,,,,,,,,,,,,,,,,,,,,,,
12017,1645901861.720074,1645901861.755775,26.0,0.0,4067.6923829999996,4324.615234000001,4315.384765999999,4148.205078,4158.461426,0.0,1.0,15.0,,,,0.0,4.0,2.0,0.0,4.0,4.0,50.0,,,,,,,,13.0,0.0,0.7200350000000001,0.11938499999999999,0.661377,0.172852,0.9199360000000001,-0.40283800000000003,-0.083986,-0.031716,-0.033566000000000006,-0.014754,,,,,,,,,,,,,,,,,,,,,,,,,,,,,,,,,,,0.0,0.0,1.0,0.0,512.0,0.203469,,,,,,,,,,,,,,,,,,,,,,,,,
12018,1645901861.72789,1645901861.76359,27.0,0.0,4113.846191,4348.717772999999,4252.820313,4150.769043,4117.94873,0.0,1.0,15.0,,,,0.0,4.0,2.0,0.0,4.0,4.0,50.0,,,,,,,,,,,,,,,,,,,,,,,,,,,,,,,,,,,,,,,,,,,,,,,,,,,,,,,,,,,,,,,,,,,,,,,,,,,,,,,,,,,,
12019,1645901861.7357051,1645901861.7714038,28.0,0.0,4138.461426,4389.743652,4153.333496,4113.846191,4129.743652,0.0,1.0,15.0,,,,0.0,4.0,2.0,0.0,4.0,4.0,50.0,,,,,,,,14.0,0.0,0.7200350000000001,0.11938499999999999,0.661377,0.172852,0.9126120000000001,-0.404791,-0.095705,-0.031620999999999996,-0.033628,-0.015672,,,,,,,,,,,,,,,,,,,,,,,,,,,,,,,,,,,,,,,,,,,,,,,,,,,,,,,,,,,,,,,,,
12020,1645901861.74352,1645901861.779219,29.0,0.0,4080.0,4410.769043,4231.282227000001,4123.589844,4156.410156,0.0,1.0,15.0,,,,0.0,4.0,2.0,0.0,4.0,4.0,50.0,,,,,,,,,,,,,,,,,,,,,,,,,,,,,,,,,,,,,,,,,,,,,,,,,,,,,,,,,,,,,,,,,,,,,,,,,,,,,,,,,,,,
12021,1645901861.751335,1645901861.787034,30.0,0.0,4074.358887,4414.358886999999,4266.153809,4184.102539,4138.461426,0.0,1.0,15.0,,,,0.0,4.0,2.0,0.0,4.0,4.0,50.0,,,,,,,,15.0,0.0,0.7198100000000001,0.11938499999999999,0.661621,0.172852,0.9277489999999999,-0.398444,-0.104494,-0.031633,-0.033634,-0.016447999999999997,,,,,,,,,,,,,,,,,,,,,,,,,,,,,,,,,,,0.0,0.0,1.0,0.0,512.0,0.203469,,,,,,,,,,,,,,,,,,,,,,,,,
12022,1645901861.75915,1645901861.794848,31.0,0.0,4148.205078,4355.384765999999,4166.153809,4170.256348,4123.077147999999,0.0,1.0,15.0,,,,0.0,4.0,2.0,0.0,4.0,4.0,50.0,,,,,,,,,,,,,,,,,,,,,,,,,,,,,,,,,,,,,,,,,,,,,,,,,,,,,,,,,,,,,,,,,,,,,,,,,,,,,,,,,,,,
12023,1645901861.766966,1645901861.802763,32.0,0.0,4155.897461,4376.410156,4190.769043,4140.512695,4155.384765999999,0.0,1.0,15.0,,,,0.0,4.0,2.0,0.0,4.0,4.0,50.0,,,,,,,,16.0,0.0,0.7198100000000001,0.11938499999999999,0.661621,0.172852,0.931167,-0.401862,-0.102052,-0.031692000000000005,-0.033639999999999996,-0.017245,,,,,,,,,,,,,,,,,,,,,,,,,,,,,,,,,,,,,,,,,,,,,,,,,,,,,,,,,,,,,,,,,
12024,1645901861.774781,1645901861.810577,33.0,0.0,4082.5642090000006,4457.436035,4274.358886999999,4171.282227000001,4153.846191,0.0,1.0,15.0,,,,0.0,4.0,2.0,0.0,4.0,4.0,50.0,,,,,,,,,,,,,,,,,,,,,,,,,,,,,,,,,,,,,,,,,,,,,,,,,,,,,,,,,,,,,,,,,,,,,,,,,,,,,,,,,,,,
12025,1645901861.782596,1645901861.818392,34.0,0.0,4084.615479,4426.666504,4270.769043,4168.717772999999,4125.641113000001,0.0,1.0,15.0,,,,0.0,4.0,2.0,0.0,4.0,4.0,50.0,,,,,,,,17.0,0.0,0.7198100000000001,0.11938499999999999,0.661621,0.172852,0.9272600000000001,-0.395514,-0.091798,-0.031697,-0.03345,-0.018011000000000003,,,,,,,,,,,,,,,,,,,,,,,,,,,,,,,,,,,0.0,0.0,1.0,0.0,512.0,0.203469,,,,,,,,,,,,,,,,,,,,,,,,,
12026,1645901861.790411,1645901861.826207,35.0,0.0,4120.0,4404.615234000001,4263.077147999999,4108.717772999999,4122.05127,0.0,1.0,15.0,,,,0.0,4.0,2.0,0.0,4.0,4.0,50.0,,,,,,,,,,,,,,,,,,,,,,,,,,,,,,,,,,,,,,,,,,,,,,,,,,,,,,,,,,,,,,,,,,,,,,,,,,,,,,,,,,,,
12027,1645901861.7982259,1645901861.834021,36.0,0.0,4103.077147999999,4476.410156,4265.128418,4118.461426,4130.256348,0.0,1.0,15.0,,,,0.0,4.0,2.0,0.0,4.0,4.0,50.0,,,,,,,,18.0,0.0,0.7198100000000001,0.11938499999999999,0.661621,0.172852,0.9199360000000001,-0.404791,-0.09668099999999999,-0.031847,-0.033375999999999996,-0.0187,,,,,,,,,,,,,,,,,,,,,,,,,,,,,,,,,,,,,,,,,,,,,,,,,,,,,,,,,,,,,,,,,
12028,1645901861.806041,1645901861.841836,37.0,0.0,4100.512695,4488.717772999999,4210.256348,4155.384765999999,4146.153809,0.0,1.0,15.0,,,,0.0,4.0,2.0,0.0,4.0,4.0,50.0,,,,,,,,,,,,,,,,,,,,,,,,,,,,,,,,,,,,,,,,,,,,,,,,,,,,,,,,,,,,,,,,,,,,,,,,,,,,,,,,,,,,
12029,1645901861.8138561,1645901861.8496509,38.0,0.0,4114.871582,4429.743652,4286.666504,4156.922852000001,4166.153809,0.0,1.0,15.0,,,,0.0,4.0,2.0,0.0,4.0,4.0,50.0,,,,,,,,19.0,0.0,0.7198100000000001,0.11938499999999999,0.661621,0.172852,0.9209129999999999,-0.39649,-0.097169,-0.031885000000000004,-0.033359,-0.019222,1.0,0.0,0.0,,,,,,,,,,,,,,,,,,,,,,,,,,,,,,,,0.0,0.0,1.0,0.0,512.0,0.315946,1058.444702,54.64103299999999,18.509649,3.362707,1.8130810000000002,58.218745999999996,13.399201000000001,26.609369,21.031645,26.531765000000004,31.747412,24.687986,12.456797,5.578451,6.740978,10.611511,8.401455,1.9061029999999999,5.39027,4.139474,401.47467,26.555752000000002,6.599291,2.813375,1.3562319999999999
12030,1645901861.821672,1645901861.857465,39.0,0.0,4123.589844,4406.153809,4325.128418,4172.820313,4170.256348,0.0,1.0,15.0,,,,0.0,4.0,2.0,0.0,4.0,4.0,50.0,,,,,,,,,,,,,,,,,,,,,,,,,,,,,,,,,,,,,,,,,,,,,,,,,,,,,,,,,,,,,,,,,,,,,,,,,,,,,,,,,,,,
12031,1645901861.8294868,1645901861.8652802,40.0,0.0,4136.410156,4426.153809,4257.94873,4171.282227000001,4143.077147999999,0.0,1.0,15.0,,,,0.0,4.0,2.0,0.0,4.0,4.0,50.0,,,,,,,,20.0,0.0,0.7198100000000001,0.11938499999999999,0.661621,0.172852,0.916518,-0.387701,-0.106447,-0.03192,-0.033343,-0.019742,,,,,,,,,,,,,,,,,,,,,,,,,,,,,,,,,,,,,,,,,,,,,,,,,,,,,,,,,,,,,,,,,
12032,1645901861.837302,1645901861.873195,41.0,0.0,4140.0,4409.743652,4258.974121,4141.025879,4136.922852000001,0.0,1.0,15.0,,,,0.0,4.0,2.0,0.0,4.0,4.0,50.0,,,,,,,,,,,,,,,,,,,,,,,,,,,,,,,,,,,,,,,,,,,,,,,,,,,,,,,,,,,,,,,,,,,,,,,,,,,,,,,,,,,,
12033,1645901861.845117,1645901861.881009,42.0,0.0,4103.589844,4351.282227000001,4324.615234000001,4158.461426,4136.922852000001,0.0,1.0,15.0,,,,0.0,4.0,2.0,0.0,4.0,4.0,50.0,,,,,,,,21.0,0.0,0.719869,0.11938499999999999,0.661621,0.17260699999999998,0.929213,-0.401373,-0.090822,-0.031999,-0.033378,-0.016937,,,,,,,,,,,,,,,,,,,,,,,,,,,,,,,,,,,0.0,0.0,1.0,0.0,512.0,0.315946,,,,,,,,,,,,,,,,,,,,,,,,,
12034,1645901861.852932,1645901861.888824,43.0,0.0,4117.94873,4367.179688,4211.794922,4168.717772999999,4140.0,0.0,1.0,15.0,,,,0.0,4.0,2.0,0.0,4.0,4.0,50.0,,,,,,,,,,,,,,,,,,,,,,,,,,,,,,,,,,,,,,,,,,,,,,,,,,,,,,,,,,,,,,,,,,,,,,,,,,,,,,,,,,,,
12035,1645901861.860747,1645901861.8966382,44.0,0.0,4160.0,4475.384765999999,4159.487305,4094.8718259999996,4166.153809,0.0,1.0,15.0,,,,0.0,4.0,2.0,0.0,4.0,4.0,50.0,,,,,,,,22.0,0.0,0.719869,0.11938499999999999,0.661621,0.17260699999999998,0.9194479999999999,-0.39014299999999996,-0.081544,-0.032070999999999995,-0.03341,-0.017587000000000002,,,,,,,,,,,,,,,,,,,,,,,,,,,,,,,,,,,,,,,,,,,,,,,,,,,,,,,,,,,,,,,,,
12036,1645901861.8685632,1645901861.904453,45.0,0.0,4154.871582,4512.307617,4261.538574,4101.025879,4186.153809,0.0,1.0,15.0,,,,0.0,4.0,2.0,0.0,4.0,4.0,50.0,,,,,,,,,,,,,,,,,,,,,,,,,,,,,,,,,,,,,,,,,,,,,,,,,,,,,,,,,,,,,,,,,,,,,,,,,,,,,,,,,,,,
12037,1645901861.8763778,1645901861.912268,46.0,0.0,4146.153809,4420.512695,4252.307617,4166.153809,4141.025879,0.0,1.0,15.0,,,,0.0,4.0,2.0,0.0,4.0,4.0,50.0,,,,,,,,23.0,0.0,0.7198100000000001,0.11938499999999999,0.661621,0.172852,0.921889,-0.39502600000000004,-0.101564,-0.031939999999999996,-0.033339999999999995,-0.018172,,,,,,,,,,,,,,,,,,,,,,,,,,,,,,,,,,,0.0,0.0,1.0,0.0,512.0,0.315946,,,,,,,,,,,,,,,,,,,,,,,,,
12038,1645901861.884193,1645901861.920082,47.0,0.0,4171.282227000001,4378.974121,4181.025879,4143.077147999999,4138.974121,0.0,1.0,15.0,,,,0.0,4.0,2.0,0.0,4.0,4.0,50.0,,,,,,,,,,,,,,,,,,,,,,,,,,,,,,,,,,,,,,,,,,,,,,,,,,,,,,,,,,,,,,,,,,,,,,,,,,,,,,,,,,,,
12039,1645901861.892008,1645901861.927897,48.0,0.0,4131.282227000001,4407.692383,4223.589844,4105.128418,4177.94873,0.0,1.0,15.0,,,,0.0,4.0,2.0,0.0,4.0,4.0,50.0,,,,,,,,24.0,0.0,0.719851,0.11914100000000001,0.661621,0.172852,0.923842,-0.39942,-0.081544,-0.03192,-0.033473,-0.018747999999999997,,,,,,,,,,,,,,,,,,,,,,,,,,,,,,,,,,,,,,,,,,,,,,,,,,,,,,,,,,,,,,,,,
12040,1645901861.899823,1645901861.9357119,49.0,0.0,4093.8461909999996,4383.077147999999,4262.05127,4164.615234000001,4154.871582,0.0,1.0,15.0,,,,0.0,4.0,2.0,0.0,4.0,4.0,50.0,,,,,,,,,,,,,,,,,,,,,,,,,,,,,,,,,,,,,,,,,,,,,,,,,,,,,,,,,,,,,,,,,,,,,,,,,,,,,,,,,,,,
12041,1645901861.907638,1645901861.943526,50.0,0.0,4149.230957,4350.769043,4212.820313,4177.94873,4120.512695,0.0,1.0,15.0,,,,0.0,4.0,2.0,0.0,4.0,4.0,50.0,,,,,,,,25.0,0.0,0.719851,0.11914100000000001,0.661621,0.172852,0.9272600000000001,-0.397467,-0.09131,-0.031999,-0.033495,-0.016141,,,,,,,,,,,,,,,,,,,,,,,,,,,,,,,,,,,0.0,0.0,1.0,0.0,512.0,0.315946,,,,,,,,,,,,,,,,,,,,,,,,,
12042,1645901861.915454,1645901861.951341,51.0,0.0,4177.436035,4374.871582,4275.897461,4107.692383,4158.974121,0.0,1.0,15.0,,,,0.0,4.0,2.0,0.0,4.0,4.0,50.0,,,,,,,,,,,,,,,,,,,,,,,,,,,,,,,,,,,,,,,,,,,,,,,,,,,,,,,,,,,,,,,,,,,,,,,,,,,,,,,,,,,,
12043,1645901861.923269,1645901861.9592562,52.0,0.0,4132.820313,4389.230957,4291.282227000001,4101.538574,4180.512695,0.0,1.0,15.0,,,,0.0,4.0,2.0,0.0,4.0,4.0,50.0,,,,,,,,26.0,0.0,0.7198100000000001,0.11938499999999999,0.661621,0.172852,0.921889,-0.39502600000000004,-0.101564,-0.031876,-0.033514999999999996,-0.013696000000000002,,,,,,,,,,,,,,,,,,,,,,,,,,,,,,,,,,,,,,,,,,,,,,,,,,,,,,,,,,,,,,,,,
12044,1645901861.931084,1645901861.9670699,53.0,0.0,4130.256348,4373.333496,4232.820313,4156.410156,4147.692383,0.0,1.0,15.0,,,,0.0,4.0,2.0,0.0,4.0,4.0,50.0,,,,,,,,,,,,,,,,,,,,,,,,,,,,,,,,,,,,,,,,,,,,,,,,,,,,,,,,,,,,,,,,,,,,,,,,,,,,,,,,,,,,
12045,1645901861.938899,1645901861.974885,54.0,0.0,4169.230957,4393.846191,4249.743652,4160.0,4153.846191,0.0,1.0,15.0,,,,0.0,4.0,2.0,0.0,4.0,4.0,50.0,,,,,,,,27.0,0.0,0.719851,0.11914100000000001,0.661621,0.172852,0.9272600000000001,-0.397467,-0.09131,-0.03196,-0.033532,-0.011594,1.0,0.0,0.0,,,,,,,,,,,,,,,,,,,,,,,,,,,,,,,,0.0,0.0,1.0,0.0,512.0,0.426034,1194.928955,64.869652,21.940901,3.531693,2.1148029999999998,65.341484,14.01639,31.060831,19.523149,24.057487,35.106918,26.343221999999997,12.308050999999999,5.531611,7.813471000000001,10.99883,7.723197,1.460421,5.8405,4.510448,462.025238,29.866867,6.775955000000001,2.867536,1.600075
12046,1645901861.9467142,1645901861.982699,55.0,0.0,4175.384765999999,4405.128418,4295.384765999999,4131.794922,4180.512695,0.0,1.0,15.0,,,,0.0,4.0,2.0,0.0,4.0,4.0,50.0,,,,,,,,,,,,,,,,,,,,,,,,,,,,,,,,,,,,,,,,,,,,,,,,,,,,,,,,,,,,,,,,,,,,,,,,,,,,,,,,,,,,
12047,1645901861.9545288,1645901861.990514,56.0,0.0,4172.820313,4389.230957,4205.641113000001,4132.820313,4180.512695,0.0,1.0,15.0,,,,0.0,4.0,2.0,0.0,4.0,4.0,50.0,,,,,,,,28.0,0.0,0.719851,0.11914100000000001,0.661621,0.172852,0.929702,-0.401373,-0.08691499999999999,-0.031889,-0.033402,-0.01273,,,,,,,,,,,,,,,,,,,,,,,,,,,,,,,,,,,,,,,,,,,,,,,,,,,,,,,,,,,,,,,,,
12048,1645901861.962345,1645901861.998329,57.0,0.0,4152.820313,4423.077147999999,4218.461426,4162.05127,4169.743652,0.0,1.0,15.0,,,,0.0,4.0,2.0,0.0,4.0,4.0,50.0,,,,,,,,,,,,,,,,,,,,,,,,,,,,,,,,,,,,,,,,,,,,,,,,,,,,,,,,,,,,,,,,,,,,,,,,,,,,,,,,,,,,
12049,1645901861.97016,1645901862.0061429,58.0,0.0,4166.153809,4422.05127,4265.641113000001,4171.794922,4183.589844,0.0,1.0,15.0,,,,0.0,4.0,2.0,0.0,4.0,4.0,50.0,,,,,,,,29.0,0.0,0.71991,0.11914100000000001,0.661621,0.17260699999999998,0.9072399999999999,-0.388678,-0.091798,-0.031874,-0.033527999999999995,-0.01385,,,,,,,,,,,,,,,,,,,,,,,,,,,,,,,,,,,0.0,0.0,1.0,0.0,512.0,0.426034,,,,,,,,,,,,,,,,,,,,,,,,,
12050,1645901861.977975,1645901862.013958,59.0,0.0,4216.410156,4361.538574,4199.487305,4109.743652,4200.0,0.0,1.0,15.0,,,,0.0,4.0,2.0,0.0,4.0,4.0,50.0,,,,,,,,,,,,,,,,,,,,,,,,,,,,,,,,,,,,,,,,,,,,,,,,,,,,,,,,,,,,,,,,,,,,,,,,,,,,,,,,,,,,
12051,1645901861.98579,1645901862.021873,60.0,0.0,4206.153809,4384.615234000001,4182.563965,4095.384521,4194.358886999999,0.0,1.0,15.0,,,,0.0,4.0,2.0,0.0,4.0,4.0,50.0,,,,,,,,30.0,0.0,0.71991,0.11914100000000001,0.661621,0.17260699999999998,0.934585,-0.400885,-0.098146,-0.031909,-0.033545,-0.014759999999999999,,,,,,,,,,,,,,,,,,,,,,,,,,,,,,,,,,,,,,,,,,,,,,,,,,,,,,,,,,,,,,,,,
12052,1645901861.9936051,1645901862.029687,61.0,0.0,4158.974121,4441.538574,4248.717772999999,4161.538574,4157.94873,0.0,1.0,15.0,,,,0.0,4.0,2.0,0.0,4.0,4.0,50.0,,,,,,,,,,,,,,,,,,,,,,,,,,,,,,,,,,,,,,,,,,,,,,,,,,,,,,,,,,,,,,,,,,,,,,,,,,,,,,,,,,,,
12053,1645901862.001421,1645901862.037502,62.0,0.0,4184.615234000001,4456.922852000001,4237.436035,4181.538574,4172.820313,0.0,1.0,15.0,,,,0.0,4.0,2.0,0.0,4.0,4.0,50.0,,,,,,,,31.0,0.0,0.71991,0.11914100000000001,0.661621,0.17260699999999998,0.926284,-0.40235,-0.100587,-0.031892000000000004,-0.033364,-0.0126,,,,,,,,,,,,,,,,,,,,,,,,,,,,,,,,,,,0.0,0.0,1.0,0.0,512.0,0.426034,,,,,,,,,,,,,,,,,,,,,,,,,
12054,1645901862.0092359,1645901862.045317,63.0,0.0,4186.153809,4439.487305,4205.128418,4156.410156,4202.05127,0.0,1.0,15.0,,,,0.0,4.0,2.0,0.0,4.0,4.0,50.0,,,,,,,,,,,,,,,,,,,,,,,,,,,,,,,,,,,,,,,,,,,,,,,,,,,,,,,,,,,,,,,,,,,,,,,,,,,,,,,,,,,,
12055,1645901862.017051,1645901862.053131,64.0,1.0,4185.44873,4438.333496,4213.461426,4157.436035,4199.679688,450.0,1.0,15.0,,,,0.0,4.0,2.0,0.0,4.0,4.0,50.0,,,,,,,,32.0,1.0,0.719865,0.11914100000000001,0.66167,0.17260699999999998,0.925795,-0.402643,-0.098732,-0.031908,-0.033371,-0.012192,,,,,,,,,,,,,,,,,,,,,,,,,,,,,,,,,,,,,,,,,,,,,,,,,,,,,,,,,,,,,,,,,
12056,1645901862.024866,1645901862.060946,65.0,1.0,4184.743652,4437.179688,4221.794922,4158.461426,4197.307617,450.0,1.0,15.0,,,,0.0,4.0,2.0,0.0,4.0,4.0,50.0,,,,,,,,,,,,,,,,,,,,,,,,,,,,,,,,,,,,,,,,,,,,,,,,,,,,,,,,,,,,,,,,,,,,,,,,,,,,,,,,,,,,
12057,1645901862.032681,1645901862.06876,66.0,1.0,4184.038574,4436.025879,4230.128418,4159.487305,4194.936035,16199.0,1.0,15.0,,,,0.0,4.0,2.0,0.0,4.0,4.0,50.0,,,,,,,,33.0,1.0,0.71982,0.11914100000000001,0.661719,0.17260699999999998,0.925307,-0.402936,-0.096876,-0.031925,-0.033377,-0.011783,,,,,,,,,,,,,,,,,,,,,,,,,,,,,,,,,,,0.0,0.0,1.0,0.0,512.0,0.426034,,,,,,,,,,,,,,,,,,,,,,,,,
12058,1645901862.040496,1645901862.076575,67.0,1.0,4183.333496,4434.871582,4238.461426,4160.512695,4192.563965,450.0,1.0,15.0,,,,0.0,4.0,2.0,0.0,4.0,4.0,50.0,,,,,,,,,,,,,,,,,,,,,,,,,,,,,,,,,,,,,,,,,,,,,,,,,,,,,,,,,,,,,,,,,,,,,,,,,,,,,,,,,,,,
12059,1645901862.048312,1645901862.08439,68.0,1.0,4182.628418,4433.717772999999,4246.794922,4161.538574,4190.192383,256.0,1.0,15.0,,,,0.0,4.0,2.0,0.0,4.0,4.0,50.0,,,,,,,,34.0,1.0,0.719775,0.11914100000000001,0.661768,0.17260699999999998,0.9248190000000001,-0.403229,-0.09502100000000001,-0.031941000000000004,-0.033384,-0.011375,,,,,,,,,,,,,,,,,,,,,,,,,,,,,,,,,,,,,,,,,,,,,,,,,,,,,,,,,,,,,,,,,
12060,1645901862.056127,1645901862.0922039,69.0,1.0,4181.922852000001,4432.563965,4255.128418,4162.563965,4187.820313,450.0,1.0,15.0,,,,0.0,4.0,2.0,0.0,4.0,4.0,50.0,,,,,,,,,,,,,,,,,,,,,,,,,,,,,,,,,,,,,,,,,,,,,,,,,,,,,,,,,,,,,,,,,,,,,,,,,,,,,,,,,,,,
12061,1645901862.063942,1645901862.100019,70.0,1.0,4181.217772999999,4431.410156,4263.461426,4163.589844,4185.44873,31.0,1.0,15.0,,,,0.0,4.0,2.0,0.0,4.0,4.0,50.0,,,,,,,,35.0,1.0,0.71973,0.11914100000000001,0.661816,0.17260699999999998,0.9243309999999999,-0.403522,-0.093165,-0.031958,-0.033389999999999996,-0.010967,1.0,0.0,0.0,,,,,,,,,,,,,,,,,,,,,,,,,,,,,,,,0.0,0.0,1.0,0.0,512.0,0.409514,1246.013916,70.452721,23.740714999999998,3.50205,2.505743,67.016968,14.952397,33.038403,17.556585000000002,21.181309,38.580326,28.817534999999996,11.358787,5.369148,9.99801,11.441783000000001,6.708164,1.288616,5.979978,4.851868,485.886383,32.469383,7.012014999999999,2.826157,2.019432
12062,1645901862.071757,1645901862.107834,71.0,0.0,4180.512695,4430.256348,4271.794922,4164.615234000001,4183.077147999999,450.0,1.0,15.0,,,,0.0,4.0,2.0,0.0,4.0,4.0,50.0,,,,,,,,,,,,,,,,,,,,,,,,,,,,,,,,,,,,,,,,,,,,,,,,,,,,,,,,,,,,,,,,,,,,,,,,,,,,,,,,,,,,
12063,1645901862.079572,1645901862.115648,72.0,0.0,4205.641113000001,4407.179688,4286.153809,4171.282227000001,4175.897461,450.0,1.0,15.0,,,,0.0,4.0,2.0,0.0,4.0,4.0,50.0,,,,,,,,36.0,0.0,0.719685,0.11914100000000001,0.6618649999999999,0.17260699999999998,0.923842,-0.40381500000000004,-0.09131,-0.031974,-0.033397,-0.010559,,,,,,,,,,,,,,,,,,,,,,,,,,,,,,,,,,,,,,,,,,,,,,,,,,,,,,,,,,,,,,,,,
12064,1645901862.0873868,1645901862.1234632,73.0,0.0,4202.05127,4352.820313,4239.487305,4189.743652,4184.615234000001,16127.0,1.0,15.0,,,,0.0,4.0,2.0,0.0,4.0,4.0,50.0,,,,,,,,,,,,,,,,,,,,,,,,,,,,,,,,,,,,,,,,,,,,,,,,,,,,,,,,,,,,,,,,,,,,,,,,,,,,,,,,,,,,
12065,1645901862.095203,1645901862.131278,74.0,0.0,4182.563965,4345.641113000001,4246.666504,4232.307617,4197.436035,450.0,1.0,15.0,,,,0.0,4.0,2.0,0.0,4.0,4.0,50.0,,,,,,,,37.0,0.0,0.719626,0.11914100000000001,0.6618649999999999,0.172852,0.921401,-0.39014299999999996,-0.102052,-0.031951,-0.033378,-0.011895000000000001,,,,,,,,,,,,,,,,,,,,,,,,,,,,,,,,,,,0.0,0.0,1.0,0.0,512.0,0.409514,,,,,,,,,,,,,,,,,,,,,,,,,
12066,1645901862.103018,1645901862.139092,75.0,0.0,4206.153809,4357.94873,4226.666504,4220.512695,4209.230957,16140.0,1.0,15.0,,,,0.0,4.0,2.0,0.0,4.0,4.0,50.0,,,,,,,,,,,,,,,,,,,,,,,,,,,,,,,,,,,,,,,,,,,,,,,,,,,,,,,,,,,,,,,,,,,,,,,,,,,,,,,,,,,,
12067,1645901862.110833,1645901862.146807,76.0,0.0,4216.922852000001,4373.333496,4193.846191,4147.179688,4230.256348,450.0,1.0,15.0,,,,0.0,4.0,2.0,0.0,4.0,4.0,50.0,,,,,,,,38.0,0.0,0.719626,0.11914100000000001,0.6618649999999999,0.172852,0.9199360000000001,-0.40283800000000003,-0.099123,-0.031881,-0.033408999999999994,-0.013000999999999999,,,,,,,,,,,,,,,,,,,,,,,,,,,,,,,,,,,,,,,,,,,,,,,,,,,,,,,,,,,,,,,,,
12068,1645901862.118648,1645901862.154622,77.0,0.0,4205.641113000001,4426.666504,4232.307617,4140.0,4238.461426,450.0,1.0,15.0,,,,0.0,4.0,2.0,0.0,4.0,4.0,50.0,,,,,,,,,,,,,,,,,,,,,,,,,,,,,,,,,,,,,,,,,,,,,,,,,,,,,,,,,,,,,,,,,,,,,,,,,,,,,,,,,,,,
12069,1645901862.1264632,1645901862.162436,78.0,0.0,4229.230957,4470.256348,4246.153809,4163.589844,4203.589844,450.0,1.0,15.0,,,,0.0,4.0,2.0,0.0,4.0,4.0,50.0,,,,,,,,39.0,0.0,0.7196670000000001,0.118896,0.6618649999999999,0.172852,0.9233540000000001,-0.397467,-0.085451,-0.031867,-0.033389,-0.010920000000000001,,,,,,,,,,,,,,,,,,,,,,,,,,,,,,,,,,,0.0,0.0,1.0,0.0,512.0,0.409514,,,,,,,,,,,,,,,,,,,,,,,,,
12070,1645901862.1342778,1645901862.170251,79.0,0.0,4253.333496,4418.974121,4220.512695,4164.102539,4200.0,16140.0,1.0,15.0,,,,0.0,4.0,2.0,0.0,4.0,4.0,50.0,,,,,,,,,,,,,,,,,,,,,,,,,,,,,,,,,,,,,,,,,,,,,,,,,,,,,,,,,,,,,,,,,,,,,,,,,,,,,,,,,,,,
12071,1645901862.142094,1645901862.178066,80.0,0.0,4223.589844,4354.358886999999,4237.94873,4181.025879,4203.077147999999,450.0,1.0,15.0,,,,0.0,4.0,2.0,0.0,4.0,4.0,50.0,,,,,,,,40.0,0.0,0.719608,0.118896,0.6618649999999999,0.173096,0.9194479999999999,-0.39942,-0.085451,-0.031902999999999994,-0.033419,-0.012318,,,,,,,,,,,,,,,,,,,,,,,,,,,,,,,,,,,,,,,,,,,,,,,,,,,,,,,,,,,,,,,,,
12072,1645901862.149909,1645901862.1858802,81.0,0.0,4217.94873,4393.333496,4261.538574,4207.692383,4197.436035,450.0,1.0,15.0,,,,0.0,4.0,2.0,0.0,4.0,4.0,50.0,,,,,,,,,,,,,,,,,,,,,,,,,,,,,,,,,,,,,,,,,,,,,,,,,,,,,,,,,,,,,,,,,,,,,,,,,,,,,,,,,,,,
12073,1645901862.1577241,1645901862.1936948,82.0,0.0,4229.230957,4418.974121,4224.615234000001,4202.05127,4204.102539,450.0,1.0,15.0,,,,0.0,4.0,2.0,0.0,4.0,4.0,50.0,,,,,,,,41.0,0.0,0.719442,0.118896,0.6621090000000001,0.172852,0.9243309999999999,-0.401862,-0.106447,-0.031984,-0.033397,-0.013381,,,,,,,,,,,,,,,,,,,,,,,,,,,,,,,,,,,0.0,0.0,1.0,0.0,512.0,0.409514,,,,,,,,,,,,,,,,,,,,,,,,,
12074,1645901862.165539,1645901862.20151,83.0,0.0,4226.153809,4415.384765999999,4236.410156,4191.794922,4208.717772999999,16140.0,1.0,15.0,,,,0.0,4.0,2.0,0.0,4.0,4.0,50.0,,,,,,,,,,,,,,,,,,,,,,,,,,,,,,,,,,,,,,,,,,,,,,,,,,,,,,,,,,,,,,,,,,,,,,,,,,,,,,,,,,,,
12075,1645901862.173354,1645901862.2093241,84.0,0.0,4229.743652,4425.641113000001,4259.487305,4171.282227000001,4198.461426,450.0,1.0,15.0,,,,0.0,4.0,2.0,0.0,4.0,4.0,50.0,,,,,,,,42.0,0.0,0.719442,0.118896,0.6621090000000001,0.172852,0.922377,-0.392096,-0.091798,-0.032008,-0.033427,-0.011262000000000001,,,,,,,,,,,,,,,,,,,,,,,,,,,,,,,,,,,,,,,,,,,,,,,,,,,,,,,,,,,,,,,,,
12076,1645901862.181169,1645901862.217139,85.0,0.0,4227.179688,4431.282227000001,4278.461426,4161.538574,4198.974121,450.0,1.0,15.0,,,,0.0,4.0,2.0,0.0,4.0,4.0,50.0,,,,,,,,,,,,,,,,,,,,,,,,,,,,,,,,,,,,,,,,,,,,,,,,,,,,,,,,,,,,,,,,,,,,,,,,,,,,,,,,,,,,
12077,1645901862.1889849,1645901862.224853,86.0,0.0,4213.333496,4449.743652,4257.94873,4181.025879,4208.717772999999,450.0,1.0,15.0,,,,0.0,4.0,2.0,0.0,4.0,4.0,50.0,0.972656,16.666666,1.0,1.0,0.0,3.0,3.0,43.0,0.0,0.719442,0.118896,0.6621090000000001,0.172852,0.9121229999999999,-0.408698,-0.097169,-0.03203,-0.033502,-0.01243,1.0,0.0,0.0,,,,,,,,,,,,,,,,,,,,,,,,,,,,,,,,0.0,0.0,1.0,0.0,512.0,0.380986,1182.308716,69.341324,23.226553,3.332075,3.0637220000000003,63.274021,15.852227,32.211731,15.354601999999998,18.612566,41.1101,31.275999,9.849537,5.216121,13.467182999999999,11.902493,5.49779,1.523487,5.857181,5.163328,460.89892599999996,33.501186,7.175992,2.763139,2.5933490000000003
12078,1645901862.1968,1645901862.232668,87.0,0.0,4205.128418,4483.077147999999,4243.077147999999,4181.538574,4178.461426,16140.0,1.0,15.0,,,,0.0,4.0,2.0,0.0,4.0,4.0,50.0,,,,,,,,,,,,,,,,,,,,,,,,,,,,,,,,,,,,,,,,,,,,,,,,,,,,,,,,,,,,,,,,,,,,,,,,,,,,,,,,,,,,
12079,1645901862.204615,1645901862.240482,88.0,0.0,4195.897461,4463.077147999999,4236.922852000001,4175.384765999999,4173.333496,450.0,1.0,15.0,,,,0.0,4.0,2.0,0.0,4.0,4.0,50.0,,,,,,,,44.0,0.0,0.7195010000000001,0.118896,0.6621090000000001,0.17260699999999998,0.9209129999999999,-0.389654,-0.092287,-0.03205,-0.033472,-0.010454999999999999,,,,,,,,,,,,,,,,,,,,,,,,,,,,,,,,,,,,,,,,,,,,,,,,,,,,,,,,,,,,,,,,,
12080,1645901862.21243,1645901862.248297,89.0,0.0,4182.05127,4391.282227000001,4275.897461,4198.461426,4213.333496,450.0,1.0,15.0,,,,0.0,4.0,2.0,0.0,4.0,4.0,50.0,,,,,,,,,,,,,,,,,,,,,,,,,,,,,,,,,,,,,,,,,,,,,,,,,,,,,,,,,,,,,,,,,,,,,,,,,,,,,,,,,,,,
12081,1645901862.220245,1645901862.256111,90.0,0.0,4226.666504,4378.461426,4245.128418,4185.128418,4238.974121,450.0,1.0,15.0,,,,0.0,4.0,2.0,0.0,4.0,4.0,50.0,,,,,,,,45.0,0.0,0.7195010000000001,0.118896,0.6621090000000001,0.17260699999999998,0.917006,-0.388678,-0.100587,-0.028894,-0.033494,-0.011802,,,,,,,,,,,,,,,,,,,,,,,,,,,,,,,,,,,0.0,0.0,1.0,0.0,512.0,0.380986,,,,,,,,,,,,,,,,,,,,,,,,,
12082,1645901862.22806,1645901862.263925,91.0,0.0,4257.94873,4429.230957,4230.769043,4138.461426,4235.384765999999,16140.0,1.0,15.0,,,,0.0,4.0,2.0,0.0,4.0,4.0,50.0,,,,,,,,,,,,,,,,,,,,,,,,,,,,,,,,,,,,,,,,,,,,,,,,,,,,,,,,,,,,,,,,,,,,,,,,,,,,,,,,,,,,
12083,1645901862.235876,1645901862.27174,92.0,0.0,4257.436035,4451.282227000001,4248.717772999999,4158.974121,4240.512695,450.0,1.0,15.0,,,,0.0,4.0,2.0,0.0,4.0,4.0,50.0,,,,,,,,46.0,0.0,0.719725,0.118896,0.6618649999999999,0.17260699999999998,0.918959,-0.39453699999999997,-0.093751,-0.029177999999999996,-0.033513999999999995,-0.012966,,,,,,,,,,,,,,,,,,,,,,,,,,,,,,,,,,,,,,,,,,,,,,,,,,,,,,,,,,,,,,,,,
12084,1645901862.243691,1645901862.279554,93.0,0.0,4270.256348,4413.846191,4235.384765999999,4165.128418,4226.153809,450.0,1.0,15.0,,,,0.0,4.0,2.0,0.0,4.0,4.0,50.0,,,,,,,,,,,,,,,,,,,,,,,,,,,,,,,,,,,,,,,,,,,,,,,,,,,,,,,,,,,,,,,,,,,,,,,,,,,,,,,,,,,,
12085,1645901862.251506,1645901862.287369,94.0,0.0,4274.358886999999,4375.384765999999,4212.307617,4146.666504,4215.897461,450.0,1.0,15.0,,,,0.0,4.0,2.0,0.0,4.0,4.0,50.0,,,,,,,,47.0,0.0,0.719725,0.118896,0.6618649999999999,0.17260699999999998,0.931167,-0.391608,-0.087892,-0.029434,-0.033629,-0.010888,,,,,,,,,,,,,,,,,,,,,,,,,,,,,,,,,,,0.0,0.0,1.0,0.0,512.0,0.380986,,,,,,,,,,,,,,,,,,,,,,,,,
12086,1645901862.2593212,1645901862.295083,95.0,0.0,4238.461426,4343.589844,4212.820313,4169.743652,4202.563965,16140.0,1.0,15.0,,,,0.0,4.0,2.0,0.0,4.0,4.0,50.0,,,,,,,,,,,,,,,,,,,,,,,,,,,,,,,,,,,,,,,,,,,,,,,,,,,,,,,,,,,,,,,,,,,,,,,,,,,,,,,,,,,,
12087,1645901862.2671359,1645901862.302898,96.0,0.0,4238.974121,4364.615234000001,4208.717772999999,4176.410156,4178.461426,450.0,1.0,15.0,,,,0.0,4.0,2.0,0.0,4.0,4.0,50.0,,,,,,,,48.0,0.0,0.719766,0.118652,0.6618649999999999,0.17260699999999998,0.917494,-0.391119,-0.099611,-0.029567000000000003,-0.033489,-0.009067,,,,,,,,,,,,,,,,,,,,,,,,,,,,,,,,,,,,,,,,,,,,,,,,,,,,,,,,,,,,,,,,,
12088,1645901862.274952,1645901862.310713,97.0,0.0,4243.589844,4428.717772999999,4216.922852000001,4136.922852000001,4187.179688,450.0,1.0,15.0,,,,0.0,4.0,2.0,0.0,4.0,4.0,50.0,,,,,,,,,,,,,,,,,,,,,,,,,,,,,,,,,,,,,,,,,,,,,,,,,,,,,,,,,,,,,,,,,,,,,,,,,,,,,,,,,,,,
12089,1645901862.282767,1645901862.318527,98.0,0.0,4222.05127,4413.846191,4274.871582,4160.0,4229.743652,450.0,1.0,15.0,,,,0.0,4.0,2.0,0.0,4.0,4.0,50.0,,,,,,,,49.0,0.0,0.719766,0.118652,0.6618649999999999,0.17260699999999998,0.9233540000000001,-0.38721300000000003,-0.085939,-0.029833,-0.033461000000000005,-0.010454999999999999,,,,,,,,,,,,,,,,,,,,,,,,,,,,,,,,,,,0.0,0.0,1.0,0.0,512.0,0.380986,,,,,,,,,,,,,,,,,,,,,,,,,
12090,1645901862.290582,1645901862.326342,99.0,0.0,4231.794922,4322.563965,4246.666504,4188.717772999999,4230.256348,16140.0,1.0,15.0,,,,0.0,4.0,2.0,0.0,4.0,4.0,50.0,,,,,,,,,,,,,,,,,,,,,,,,,,,,,,,,,,,,,,,,,,,,,,,,,,,,,,,,,,,,,,,,,,,,,,,,,,,,,,,,,,,,
12091,1645901862.298397,1645901862.334157,100.0,0.0,4250.256348,4370.769043,4245.641113000001,4161.025879,4222.563965,450.0,1.0,15.0,,,,0.0,4.0,2.0,0.0,4.0,4.0,50.0,,,,,,,,50.0,0.0,0.719824,0.118652,0.6618649999999999,0.17236300000000002,0.925307,-0.401373,-0.099611,-0.030219,-0.033533,-0.011753,,,,,,,,,,,,,,,,,,,,,,,,,,,,,,,,,,,,,,,,,,,,,,,,,,,,,,,,,,,,,,,,,
12092,1645901862.306212,1645901862.3419712,101.0,0.0,4236.922852000001,4462.05127,4286.153809,4152.307617,4235.384765999999,450.0,1.0,15.0,,,,0.0,4.0,2.0,0.0,4.0,4.0,50.0,,,,,,,,,,,,,,,,,,,,,,,,,,,,,,,,,,,,,,,,,,,,,,,,,,,,,,,,,,,,,,,,,,,,,,,,,,,,,,,,,,,,
12093,1645901862.314027,1645901862.349786,102.0,0.0,4241.538574,4364.615234000001,4277.436035,4165.128418,4225.641113000001,450.0,1.0,15.0,,,,0.0,4.0,2.0,0.0,4.0,4.0,50.0,,,,,,,,51.0,0.0,0.719784,0.118896,0.6618649999999999,0.17236300000000002,0.9282370000000001,-0.406744,-0.098146,-0.030322,-0.0335,-0.009748,1.0,0.0,0.0,,,,,,,,,,,,,,,,,,,,,,,,,,,,,,,,0.0,0.0,1.0,0.0,512.0,0.536732,1013.132874,61.144512,20.326612,3.088835,3.797007,55.934574,16.446972,29.347002000000003,13.324345000000001,16.747566,41.84127,32.88752,8.120258999999999,5.1432519999999995,17.741505,12.061102,4.2856760000000005,2.29225,5.556354,5.48067,392.571594,32.129215,7.030457000000001,2.728179,3.217204
12094,1645901862.321843,1645901862.3576,103.0,0.0,4257.94873,4295.384765999999,4222.05127,4158.974121,4228.205078,16140.0,1.0,15.0,,,,0.0,4.0,2.0,0.0,4.0,4.0,50.0,,,,,,,,,,,,,,,,,,,,,,,,,,,,,,,,,,,,,,,,,,,,,,,,,,,,,,,,,,,,,,,,,,,,,,,,,,,,,,,,,,,,
12095,1645901862.329658,1645901862.365315,104.0,0.0,4242.05127,4382.563965,4251.282227000001,4144.615234000001,4243.589844,450.0,1.0,15.0,,,,0.0,4.0,2.0,0.0,4.0,4.0,50.0,,,,,,,,52.0,0.0,0.719784,0.118896,0.6618649999999999,0.17236300000000002,0.925307,-0.39502600000000004,-0.09472799999999999,-0.030513,-0.03347,-0.008041,,,,,,,,,,,,,,,,,,,,,,,,,,,,,,,,,,,,,,,,,,,,,,,,,,,,,,,,,,,,,,,,,
12096,1645901862.3374732,1645901862.37313,105.0,0.0,4261.538574,4448.717772999999,4223.589844,4109.230957,4257.436035,450.0,1.0,15.0,,,,0.0,4.0,2.0,0.0,4.0,4.0,50.0,,,,,,,,,,,,,,,,,,,,,,,,,,,,,,,,,,,,,,,,,,,,,,,,,,,,,,,,,,,,,,,,,,,,,,,,,,,,,,,,,,,,
12097,1645901862.345288,1645901862.380945,106.0,0.0,4280.512695,4395.897461,4209.230957,4098.461426,4267.692383,450.0,1.0,15.0,,,,0.0,4.0,2.0,0.0,4.0,4.0,50.0,,,,,,,,53.0,0.0,0.719842,0.118896,0.6618649999999999,0.172119,0.921401,-0.388678,-0.079591,-0.030683999999999996,-0.033443,-0.00958,,,,,,,,,,,,,,,,,,,,,,,,,,,,,,,,,,,0.0,0.0,1.0,0.0,512.0,0.536732,,,,,,,,,,,,,,,,,,,,,,,,,
12098,1645901862.353103,1645901862.388759,107.0,0.0,4288.205078,4336.410156,4222.05127,4151.282227000001,4266.153809,16140.0,1.0,15.0,,,,0.0,4.0,2.0,0.0,4.0,4.0,50.0,,,,,,,,,,,,,,,,,,,,,,,,,,,,,,,,,,,,,,,,,,,,,,,,,,,,,,,,,,,,,,,,,,,,,,,,,,,,,,,,,,,,
12099,1645901862.360918,1645901862.396574,108.0,0.0,4297.94873,4364.615234000001,4202.05127,4140.0,4251.282227000001,450.0,1.0,15.0,,,,0.0,4.0,2.0,0.0,4.0,4.0,50.0,,,,,,,,54.0,0.0,0.719784,0.118896,0.6618649999999999,0.17236300000000002,0.9282370000000001,-0.406744,-0.098146,-0.030692,-0.033322000000000004,-0.007792,,,,,,,,,,,,,,,,,,,,,,,,,,,,,,,,,,,,,,,,,,,,,,,,,,,,,,,,,,,,,,,,,
12100,1645901862.368734,1645901862.4043882,109.0,0.0,4287.179688,4394.358886999999,4166.666504,4122.05127,4240.0,450.0,1.0,15.0,,,,0.0,4.0,2.0,0.0,4.0,4.0,50.0,,,,,,,,,,,,,,,,,,,,,,,,,,,,,,,,,,,,,,,,,,,,,,,,,,,,,,,,,,,,,,,,,,,,,,,,,,,,,,,,,,,,
12101,1645901862.376549,1645901862.4122028,110.0,0.0,4263.589844,4346.666504,4203.077147999999,4173.333496,4203.077147999999,450.0,1.0,15.0,,,,0.0,4.0,2.0,0.0,4.0,4.0,50.0,,,,,,,,55.0,0.0,0.719842,0.118896,0.6618649999999999,0.172119,0.921401,-0.388678,-0.079591,-0.030844999999999997,-0.03331,-0.009356999999999999,,,,,,,,,,,,,,,,,,,,,,,,,,,,,,,,,,,0.0,0.0,1.0,0.0,512.0,0.536732,,,,,,,,,,,,,,,,,,,,,,,,,
12102,1645901862.3843641,1645901862.420018,111.0,0.0,4267.179688,4248.717772999999,4242.563965,4208.205078,4205.641113000001,16140.0,1.0,15.0,,,,0.0,4.0,2.0,0.0,4.0,4.0,50.0,,,,,,,,,,,,,,,,,,,,,,,,,,,,,,,,,,,,,,,,,,,,,,,,,,,,,,,,,,,,,,,,,,,,,,,,,,,,,,,,,,,,
12103,1645901862.392179,1645901862.4278321,112.0,0.0,4259.487305,4244.615234000001,4202.563965,4184.615234000001,4237.436035,450.0,1.0,15.0,,,,0.0,4.0,2.0,0.0,4.0,4.0,50.0,,,,,,,,56.0,0.0,0.720008,0.118896,0.661621,0.17236300000000002,0.9194479999999999,-0.386236,-0.103029,-0.030886,-0.033348,-0.010814,,,,,,,,,,,,,,,,,,,,,,,,,,,,,,,,,,,,,,,,,,,,,,,,,,,,,,,,,,,,,,,,,
12104,1645901862.399994,1645901862.435647,113.0,0.0,4253.333496,4350.256348,4240.0,4171.794922,4244.615234000001,450.0,1.0,15.0,,,,0.0,4.0,2.0,0.0,4.0,4.0,50.0,,,,,,,,,,,,,,,,,,,,,,,,,,,,,,,,,,,,,,,,,,,,,,,,,,,,,,,,,,,,,,,,,,,,,,,,,,,,,,,,,,,,
12105,1645901862.407809,1645901862.443362,114.0,0.0,4257.436035,4412.307617,4284.102539,4149.230957,4225.128418,450.0,1.0,15.0,,,,0.0,4.0,2.0,0.0,4.0,4.0,50.0,,,,,,,,57.0,0.0,0.719824,0.118652,0.6618649999999999,0.17236300000000002,0.920424,-0.40576799999999996,-0.093751,-0.031118,-0.033285,-0.008951,,,,,,,,,,,,,,,,,,,,,,,,,,,,,,,,,,,0.0,0.0,1.0,0.0,512.0,0.536732,,,,,,,,,,,,,,,,,,,,,,,,,
12106,1645901862.415625,1645901862.451176,115.0,0.0,4252.820313,4386.666504,4290.256348,4125.128418,4225.128418,16140.0,1.0,15.0,,,,0.0,4.0,2.0,0.0,4.0,4.0,50.0,,,,,,,,,,,,,,,,,,,,,,,,,,,,,,,,,,,,,,,,,,,,,,,,,,,,,,,,,,,,,,,,,,,,,,,,,,,,,,,,,,,,
12107,1645901862.42344,1645901862.458991,116.0,0.0,4280.512695,4337.94873,4286.666504,4138.461426,4243.077147999999,450.0,1.0,15.0,,,,0.0,4.0,2.0,0.0,4.0,4.0,50.0,,,,,,,,58.0,0.0,0.7198640000000001,0.118408,0.6618649999999999,0.17236300000000002,0.9399559999999999,-0.392584,-0.090822,-0.031032999999999998,-0.033326,-0.010449,,,,,,,,,,,,,,,,,,,,,,,,,,,,,,,,,,,,,,,,,,,,,,,,,,,,,,,,,,,,,,,,,
12108,1645901862.431255,1645901862.4668062,117.0,0.0,4343.589844,4386.153809,4299.487305,4133.846191,4268.717772999999,450.0,1.0,15.0,,,,0.0,4.0,2.0,0.0,4.0,4.0,50.0,,,,,,,,,,,,,,,,,,,,,,,,,,,,,,,,,,,,,,,,,,,,,,,,,,,,,,,,,,,,,,,,,,,,,,,,,,,,,,,,,,,,
12109,1645901862.43907,1645901862.4746199,118.0,0.0,4356.922852000001,4432.307617,4253.846191,4121.538574,4288.205078,450.0,1.0,15.0,,,,0.0,4.0,2.0,0.0,4.0,4.0,50.0,,,,,,,,59.0,0.0,0.720089,0.118408,0.661621,0.17236300000000002,0.9194479999999999,-0.389654,-0.092287,-0.031152999999999997,-0.033411,-0.011796,1.0,0.0,0.0,,,,,,,,,,,,,,,,,,,,,,,,,,,,,,,,0.0,0.0,1.0,0.0,512.0,1.0,769.169556,47.695637,15.634146,2.825354,4.596176,47.522048999999996,16.466038,25.935389,11.889793,15.619748000000001,40.429961999999996,33.208973,6.499994999999999,5.115143,21.730087,11.563692,3.285257,3.621748,5.185808,5.816726999999999,295.690063,28.155359000000004,6.386057,2.730277,3.733056
12110,1645901862.4468849,1645901862.482435,119.0,0.0,4332.820313,4387.692383,4250.769043,4157.436035,4275.384765999999,16140.0,1.0,15.0,,,,0.0,4.0,2.0,0.0,4.0,4.0,50.0,,,,,,,,,,,,,,,,,,,,,,,,,,,,,,,,,,,,,,,,,,,,,,,,,,,,,,,,,,,,,,,,,,,,,,,,,,,,,,,,,,,,
12111,1645901862.4547,1645901862.49025,120.0,0.0,4341.538574,4329.230957,4282.563965,4195.897461,4277.94873,450.0,1.0,15.0,,,,0.0,4.0,2.0,0.0,4.0,4.0,50.0,,,,,,,,60.0,0.0,0.720089,0.118408,0.661621,0.17236300000000002,0.9282370000000001,-0.407233,-0.089357,-0.031211000000000003,-0.033342000000000004,-0.012863,,,,,,,,,,,,,,,,,,,,,,,,,,,,,,,,,,,,,,,,,,,,,,,,,,,,,,,,,,,,,,,,,
12112,1645901862.462515,1645901862.498064,121.0,0.0,4348.205078,4327.179688,4275.897461,4178.461426,4268.717772999999,450.0,1.0,15.0,,,,0.0,4.0,2.0,0.0,4.0,4.0,50.0,,,,,,,,,,,,,,,,,,,,,,,,,,,,,,,,,,,,,,,,,,,,,,,,,,,,,,,,,,,,,,,,,,,,,,,,,,,,,,,,,,,,
12113,1645901862.470331,1645901862.505879,122.0,0.0,4348.205078,4360.0,4242.563965,4145.641113000001,4274.358886999999,450.0,1.0,15.0,,,,0.0,4.0,2.0,0.0,4.0,4.0,50.0,,,,,,,,61.0,0.0,0.7198640000000001,0.118408,0.6618649999999999,0.17236300000000002,0.9282370000000001,-0.410163,-0.101564,-0.031313,-0.033377,-0.013822999999999998,,,,,,,,,,,,,,,,,,,,,,,,,,,,,,,,,,,0.0,0.0,1.0,0.0,512.0,1.0,,,,,,,,,,,,,,,,,,,,,,,,,
12114,1645901862.478146,1645901862.513694,123.0,0.0,4335.897461,4334.358886999999,4260.512695,4148.717772999999,4295.384765999999,16140.0,1.0,15.0,,,,0.0,4.0,2.0,0.0,4.0,4.0,50.0,,,,,,,,,,,,,,,,,,,,,,,,,,,,,,,,,,,,,,,,,,,,,,,,,,,,,,,,,,,,,,,,,,,,,,,,,,,,,,,,,,,,
12115,1645901862.485961,1645901862.521408,124.0,0.0,4332.307617,4334.871582,4224.615234000001,4154.871582,4300.0,450.0,1.0,15.0,,,,0.0,4.0,2.0,0.0,4.0,4.0,50.0,,,,,,,,62.0,0.0,0.7198640000000001,0.118408,0.6618649999999999,0.17236300000000002,0.9052870000000001,-0.39502600000000004,-0.083986,-0.031452999999999995,-0.033457,-0.011806,,,,,,,,,,,,,,,,,,,,,,,,,,,,,,,,,,,,,,,,,,,,,,,,,,,,,,,,,,,,,,,,,
12116,1645901862.493776,1645901862.529223,125.0,0.0,4324.615234000001,4427.179688,4186.153809,4127.692383,4279.487305,450.0,1.0,15.0,,,,0.0,4.0,2.0,0.0,4.0,4.0,50.0,,,,,,,,,,,,,,,,,,,,,,,,,,,,,,,,,,,,,,,,,,,,,,,,,,,,,,,,,,,,,,,,,,,,,,,,,,,,,,,,,,,,
12117,1645901862.501591,1645901862.537037,126.0,0.0,4324.615234000001,4476.922852000001,4188.717772999999,4131.794922,4278.461426,450.0,1.0,15.0,,,,0.0,4.0,2.0,0.0,4.0,4.0,50.0,,,,,,,,63.0,0.0,0.7198640000000001,0.118408,0.6618649999999999,0.17236300000000002,0.931167,-0.381842,-0.099611,-0.031383999999999995,-0.033431999999999996,-0.009893,,,,,,,,,,,,,,,,,,,,,,,,,,,,,,,,,,,0.0,0.0,1.0,0.0,512.0,1.0,,,,,,,,,,,,,,,,,,,,,,,,,
12118,1645901862.509407,1645901862.544851,127.0,0.0,4323.077147999999,4378.461426,4209.230957,4151.794922,4280.512695,232.0,1.0,15.0,,,,0.0,4.0,2.0,0.0,4.0,4.0,50.0,,,,,,,,,,,,,,,,,,,,,,,,,,,,,,,,,,,,,,,,,,,,,,,,,,,,,,,,,,,,,,,,,,,,,,,,,,,,,,,,,,,,
12119,1645901862.5172222,1645901862.552666,0.0,0.0,4327.692383,4361.025879,4236.922852000001,4145.641113000001,4282.05127,450.0,1.0,15.0,,,,0.0,4.0,2.0,0.0,4.0,4.0,50.0,,,,,,,,0.0,0.0,0.7198640000000001,0.118408,0.6618649999999999,0.17236300000000002,0.9184709999999999,-0.392584,-0.089357,-0.031419,-0.033458,-0.011247,,,,,,,,,,,,,,,,,,,,,,,,,,,,,,,,,,,,,,,,,,,,,,,,,,,,,,,,,,,,,,,,,
12120,1645901862.5250368,1645901862.56048,1.0,0.0,4326.153809,4468.205078,4222.563965,4129.230957,4291.794922,450.0,1.0,15.0,,,,0.0,4.0,2.0,0.0,4.0,4.0,50.0,,,,,,,,,,,,,,,,,,,,,,,,,,,,,,,,,,,,,,,,,,,,,,,,,,,,,,,,,,,,,,,,,,,,,,,,,,,,,,,,,,,,
12121,1645901862.532852,1645901862.568295,2.0,0.0,4333.846191,4452.820313,4236.922852000001,4145.641113000001,4297.436035,16059.0,1.0,15.0,,,,0.0,4.0,2.0,0.0,4.0,4.0,50.0,,,,,,,,1.0,0.0,0.719923,0.118408,0.6618649999999999,0.172119,0.922866,-0.389166,-0.08838,-0.031451,-0.033431999999999996,-0.009292,,,,,,,,,,,,,,,,,,,,,,,,,,,,,,,,,,,0.0,0.0,1.0,0.0,512.0,1.0,,,,,,,,,,,,,,,,,,,,,,,,,
12122,1645901862.540667,1645901862.576109,3.0,0.0,4344.615234000001,4403.589844,4284.615234000001,4146.153809,4284.102539,450.0,1.0,15.0,,,,0.0,4.0,2.0,0.0,4.0,4.0,50.0,,,,,,,,,,,,,,,,,,,,,,,,,,,,,,,,,,,,,,,,,,,,,,,,,,,,,,,,,,,,,,,,,,,,,,,,,,,,,,,,,,,,
12123,1645901862.548483,1645901862.583824,4.0,0.0,4329.743652,4462.563965,4306.153809,4131.282227000001,4269.743652,116.0,1.0,15.0,,,,0.0,4.0,1.0,0.0,4.0,4.0,41.666668,,,,,,,,2.0,0.0,0.719923,0.118408,0.6618649999999999,0.172119,0.926284,-0.397955,-0.092775,-0.03148,-0.033458,-0.010707,,,,,,,,,,,,,,,,,,,,,,,,,,,,,,,,,,,,,,,,,,,,,,,,,,,,,,,,,,,,,,,,,
12124,1645901862.556298,1645901862.591638,5.0,0.0,4312.307617,4470.256348,4247.179688,4130.256348,4267.179688,450.0,1.0,15.0,,,,0.0,4.0,1.0,0.0,4.0,4.0,41.666668,,,,,,,,,,,,,,,,,,,,,,,,,,,,,,,,,,,,,,,,,,,,,,,,,,,,,,,,,,,,,,,,,,,,,,,,,,,,,,,,,,,,
12125,1645901862.5641131,1645901862.599453,6.0,0.0,4311.794922,4376.410156,4232.307617,4157.94873,4267.692383,38.0,1.0,15.0,,,,0.0,4.0,1.0,0.0,4.0,4.0,41.666668,,,,,,,,3.0,0.0,0.719963,0.118164,0.6618649999999999,0.172119,0.9340959999999999,-0.39453699999999997,-0.105959,-0.031604,-0.033384,-0.008855,1.0,0.0,0.0,,,,,,,,,,,,,,,,,,,,,,,,,,,,,,,,0.0,0.0,1.0,0.0,512.0,1.0,503.278137,32.558094,10.363469,2.591197,5.254181,40.545914,15.568093,23.153872,11.307012,15.014435999999998,37.205433,32.382422999999996,5.214856,5.026782,24.162832,10.226833000000001,2.638138,5.305454,4.86375,6.1187190000000005,192.53590400000002,22.143724,5.296969,2.754692,3.988586
12126,1645901862.571928,1645901862.6072679,7.0,0.0,4318.974121,4343.589844,4231.794922,4200.0,4277.94873,450.0,1.0,15.0,,,,0.0,4.0,1.0,0.0,4.0,4.0,41.666668,,,,,,,,,,,,,,,,,,,,,,,,,,,,,,,,,,,,,,,,,,,,,,,,,,,,,,,,,,,,,,,,,,,,,,,,,,,,,,,,,,,,
12127,1645901862.579743,1645901862.615082,8.0,0.0,4312.307617,4370.256348,4245.128418,4203.589844,4279.487305,450.0,1.0,15.0,,,,0.0,4.0,1.0,0.0,4.0,4.0,41.666668,,,,,,,,4.0,0.0,0.719963,0.118164,0.6618649999999999,0.172119,0.921401,-0.38721300000000003,-0.096193,-0.031666,-0.033415,-0.010411,,,,,,,,,,,,,,,,,,,,,,,,,,,,,,,,,,,,,,,,,,,,,,,,,,,,,,,,,,,,,,,,,
12128,1645901862.587558,1645901862.6228971,9.0,0.0,4315.897461,4355.384765999999,4215.897461,4161.538574,4279.487305,16173.0,1.0,15.0,,,,0.0,4.0,1.0,0.0,4.0,4.0,41.666668,,,,,,,,,,,,,,,,,,,,,,,,,,,,,,,,,,,,,,,,,,,,,,,,,,,,,,,,,,,,,,,,,,,,,,,,,,,,,,,,,,,,
