,Timestamp,OriginalTimestamp,EEG.Counter,EEG.Interpolated,EEG.AF3,EEG.T7,EEG.Pz,EEG.T8,EEG.AF4,EEG.RawCq,EEG.Battery,EEG.BatteryPercent,MarkerIndex,MarkerType,MarkerValueInt,EEG.MarkerHardware,CQ.AF3,CQ.T7,CQ.Pz,CQ.T8,CQ.AF4,CQ.Overall,EQ.SampleRateQuality,EQ.OVERALL,EQ.AF3,EQ.T7,EQ.Pz,EQ.T8,EQ.AF4,MOT.CounterMems,MOT.InterpolatedMems,MOT.Q0,MOT.Q1,MOT.Q2,MOT.Q3,MOT.AccX,MOT.AccY,MOT.AccZ,MOT.MagX,MOT.MagY,MOT.MagZ,MC.Action,MC.ActionPower,MC.IsActive,PM.Engagement.IsActive,PM.Engagement.Scaled,PM.Engagement.Raw,PM.Engagement.Min,PM.Engagement.Max,PM.Excitement.IsActive,PM.Excitement.Scaled,PM.Excitement.Raw,PM.Excitement.Min,PM.Excitement.Max,PM.LongTermExcitement,PM.Stress.IsActive,PM.Stress.Scaled,PM.Stress.Raw,PM.Stress.Min,PM.Stress.Max,PM.Relaxation.IsActive,PM.Relaxation.Scaled,PM.Relaxation.Raw,PM.Relaxation.Min,PM.Relaxation.Max,PM.Interest.IsActive,PM.Interest.Scaled,PM.Interest.Raw,PM.Interest.Min,PM.Interest.Max,PM.Focus.IsActive,PM.Focus.Scaled,PM.Focus.Raw,PM.Focus.Min,PM.Focus.Max,FE.BlinkWink,FE.HorizontalEyesDirection,FE.UpperFaceAction,FE.UpperFaceActionPower,FE.LowerFaceAction,FE.LowerFaceActionPower,POW.AF3.Theta,POW.AF3.Alpha,POW.AF3.BetaL,POW.AF3.BetaH,POW.AF3.Gamma,POW.T7.Theta,POW.T7.Alpha,POW.T7.BetaL,POW.T7.BetaH,POW.T7.Gamma,POW.Pz.Theta,POW.Pz.Alpha,POW.Pz.BetaL,POW.Pz.BetaH,POW.Pz.Gamma,POW.T8.Theta,POW.T8.Alpha,POW.T8.BetaL,POW.T8.BetaH,POW.T8.Gamma,POW.AF4.Theta,POW.AF4.Alpha,POW.AF4.BetaL,POW.AF4.BetaH,POW.AF4.Gamma
12760,1650415180.143534,1650415180.159217,20.0,0.0,4383.589844,4334.871582,4247.179688,4306.666504,4321.025879,0.0,3.0,68.0,,,,0.0,4.0,2.0,1.0,0.0,4.0,25.0,,,,,,,,10.0,0.0,0.09690499999999999,-0.546875,0.36377,0.747803,0.8921030000000001,-0.441413,-0.136721,-0.045522,-0.056143,-0.013522999999999999,,,,,,,,,,,,,,,,,,,,,,,,,,,,,,,,,,,,,,,,,,,,,,,,,,,,,,,,,,,,,,,,,
12761,1650415180.151348,1650415180.167032,21.0,0.0,4406.153809,4424.615234000001,4264.102539,4308.717772999999,4323.077147999999,0.0,3.0,68.0,,,,0.0,4.0,2.0,1.0,0.0,4.0,25.0,,,,,,,,,,,,,,,,,,,,,,,,,,,,,,,,,,,,,,,,,,,,,,,,,,,,,,10.0,0.0,1.0,0.0,512.0,1.0,,,,,,,,,,,,,,,,,,,,,,,,,
12762,1650415180.159163,1650415180.174946,22.0,0.0,4410.769043,4437.436035,4299.487305,4307.692383,4304.615234000001,0.0,3.0,68.0,,,,0.0,4.0,2.0,1.0,0.0,4.0,25.0,,,,,,,,11.0,0.0,0.09690499999999999,-0.546875,0.36377,0.747803,0.903334,-0.431159,-0.133303,-0.045511,-0.056095000000000006,-0.015394,,,,,,,,,,,,,,,,,,,,,,,,,,,,,,,,,,,,,,,,,,,,,,,,,,,,,,,,,,,,,,,,,
12763,1650415180.166977,1650415180.182761,23.0,0.0,4397.94873,4408.717772999999,4298.461426,4308.205078,4293.333496,0.0,3.0,68.0,,,,0.0,4.0,2.0,1.0,0.0,4.0,25.0,,,,,,,,,,,,,,,,,,,,,,,,,,,,,,,,,,,,,,,,,,,,,,,,,,,,,,,,,,,,,,,,,,,,,,,,,,,,,,,,,,,,
12764,1650415180.174791,1650415180.190575,24.0,0.0,4393.846191,4433.846191,4286.153809,4312.307617,4294.871582,0.0,3.0,68.0,,,,0.0,4.0,2.0,1.0,0.0,4.0,25.0,,,,,,,,12.0,0.0,0.09690499999999999,-0.546875,0.36377,0.747803,0.9091940000000001,-0.44483100000000003,-0.129397,-0.045501,-0.056101,-0.017175,,,,,,,,,,,,,,,,,,,,,,,,,,,,,,,,,,,,,,,,,,,,,,,,,,,,,,,,,,,,,,,,,
12765,1650415180.182606,1650415180.19829,25.0,0.0,4398.461426,4444.615234000001,4288.205078,4311.794922,4292.820313,0.0,3.0,68.0,,,,0.0,4.0,2.0,1.0,0.0,4.0,25.0,,,,,,,,,,,,,,,,,,,,1.0,0.0,0.0,,,,,,,,,,,,,,,,,,,,,,,,,,,,,,,,10.0,0.0,1.0,0.0,512.0,1.0,5.433107,3.423132,4.145721,1.7710650000000001,3.7838830000000003,15.403342000000002,20.977587,7.818515,8.275249,4.48888,3.571444,1.265652,1.489124,1.314083,1.375752,46.860465999999995,75.187958,74.765724,50.636677,16.788485,4.567494,3.5445919999999997,3.509889,3.178893,4.6847
12766,1650415180.190421,1650415180.206105,26.0,0.0,4391.282227000001,4411.282227000001,4280.512695,4305.641113000001,4309.743652,0.0,3.0,68.0,,,,0.0,4.0,2.0,1.0,0.0,4.0,25.0,,,,,,,,13.0,0.0,0.09690499999999999,-0.546875,0.36377,0.747803,0.9038219999999999,-0.425299,-0.13135,-0.045541000000000005,-0.056105999999999996,-0.018631,,,,,,,,,,,,,,,,,,,,,,,,,,,,,,,,,,,,,,,,,,,,,,,,,,,,,,,,,,,,,,,,,
12767,1650415180.198235,1650415180.21382,27.0,0.0,4383.077147999999,4396.410156,4272.307617,4306.153809,4327.692383,0.0,3.0,68.0,,,,0.0,4.0,2.0,1.0,0.0,4.0,25.0,,,,,,,,,,,,,,,,,,,,,,,,,,,,,,,,,,,,,,,,,,,,,,,,,,,,,,,,,,,,,,,,,,,,,,,,,,,,,,,,,,,,
12768,1650415180.206049,1650415180.221634,28.0,0.0,4390.256348,4381.538574,4277.436035,4309.230957,4310.769043,0.0,3.0,68.0,,,,0.0,4.0,2.0,1.0,0.0,4.0,25.0,,,,,,,,14.0,0.0,0.098273,-0.5466310000000001,0.36377,0.747803,0.886244,-0.436042,-0.134279,-0.045577,-0.056208,-0.019844,,,,,,,,,,,,,,,,,,,,,,,,,,,,,,,,,,,,,,,,,,,,,,,,,,,,,,,,,,,,,,,,,
12769,1650415180.213864,1650415180.229449,29.0,0.0,4398.461426,4362.563965,4276.410156,4308.717772999999,4303.589844,0.0,3.0,68.0,,,,0.0,4.0,2.0,1.0,0.0,4.0,25.0,,,,,,,,,,,,,,,,,,,,,,,,,,,,,,,,,,,,,,,,,,,,,,,,,,,,,,0.0,0.0,1.0,0.0,512.0,1.0,,,,,,,,,,,,,,,,,,,,,,,,,
12770,1650415180.221678,1650415180.237164,30.0,0.0,4391.794922,4384.102539,4283.589844,4308.717772999999,4313.333496,0.0,3.0,68.0,,,,0.0,4.0,2.0,1.0,0.0,4.0,25.0,,,,,,,,15.0,0.0,0.097771,-0.546387,0.36377,0.748047,0.9028459999999999,-0.435065,-0.145998,-0.045511,-0.056153999999999996,-0.017811,,,,,,,,,,,,,,,,,,,,,,,,,,,,,,,,,,,,,,,,,,,,,,,,,,,,,,,,,,,,,,,,,
12771,1650415180.229493,1650415180.244978,31.0,0.0,4376.922852000001,4391.282227000001,4300.0,4307.179688,4297.94873,0.0,3.0,68.0,,,,0.0,4.0,2.0,1.0,0.0,4.0,25.0,,,,,,,,,,,,,,,,,,,,,,,,,,,,,,,,,,,,,,,,,,,,,,,,,,,,,,,,,,,,,,,,,,,,,,,,,,,,,,,,,,,,
12772,1650415180.237307,1650415180.252893,32.0,0.0,4378.461426,4372.820313,4285.641113000001,4303.077147999999,4295.897461,0.0,3.0,68.0,,,,0.0,4.0,2.0,1.0,0.0,4.0,25.0,,,,,,,,16.0,0.0,0.097771,-0.546387,0.36377,0.748047,0.8930799999999999,-0.441413,-0.139651,-0.045599,-0.056251999999999996,-0.019253,,,,,,,,,,,,,,,,,,,,,,,,,,,,,,,,,,,,,,,,,,,,,,,,,,,,,,,,,,,,,,,,,
12773,1650415180.245122,1650415180.2607071,33.0,0.0,4395.384765999999,4408.205078,4256.410156,4302.563965,4329.743652,0.0,3.0,68.0,,,,0.0,4.0,2.0,1.0,0.0,4.0,25.0,,,,,,,,,,,,,,,,,,,,,,,,,,,,,,,,,,,,,,,,,,,,,,,,,,,,,,0.0,0.0,1.0,0.0,512.0,1.0,,,,,,,,,,,,,,,,,,,,,,,,,
12774,1650415180.252936,1650415180.2684221,34.0,0.0,4398.974121,4457.436035,4257.94873,4304.615234000001,4343.589844,0.0,3.0,68.0,,,,0.0,4.0,2.0,1.0,0.0,4.0,25.0,,,,,,,,17.0,0.0,0.097771,-0.546387,0.36377,0.748047,0.905776,-0.435065,-0.147951,-0.045775,-0.05624199999999999,-0.017278,,,,,,,,,,,,,,,,,,,,,,,,,,,,,,,,,,,,,,,,,,,,,,,,,,,,,,,,,,,,,,,,,
12775,1650415180.260751,1650415180.276237,35.0,0.0,4401.025879,4443.077147999999,4285.128418,4303.589844,4332.307617,0.0,3.0,68.0,,,,0.0,4.0,2.0,1.0,0.0,4.0,25.0,,,,,,,,,,,,,,,,,,,,,,,,,,,,,,,,,,,,,,,,,,,,,,,,,,,,,,,,,,,,,,,,,,,,,,,,,,,,,,,,,,,,
12776,1650415180.268565,1650415180.283952,36.0,0.0,4421.538574,4418.974121,4299.487305,4304.102539,4335.897461,0.0,3.0,68.0,,,,0.0,4.0,2.0,1.0,0.0,4.0,25.0,,,,,,,,18.0,0.0,0.097771,-0.546387,0.36377,0.748047,0.893568,-0.42920600000000003,-0.136721,-0.045837,-0.056282000000000006,-0.018675999999999998,,,,,,,,,,,,,,,,,,,,,,,,,,,,,,,,,,,,,,,,,,,,,,,,,,,,,,,,,,,,,,,,,
12777,1650415180.2763789,1650415180.291766,37.0,0.0,4433.333496,4450.769043,4282.05127,4305.128418,4346.666504,0.0,3.0,68.0,,,,0.0,4.0,2.0,1.0,0.0,4.0,25.0,,,,,,,,,,,,,,,,,,,,,,,,,,,,,,,,,,,,,,,,,,,,,,,,,,,,,,0.0,0.0,1.0,0.0,512.0,1.0,,,,,,,,,,,,,,,,,,,,,,,,,
12778,1650415180.284194,1650415180.2994812,38.0,0.0,4427.692383,4471.794922,4271.794922,4304.615234000001,4344.102539,0.0,3.0,68.0,,,,0.0,4.0,2.0,1.0,0.0,4.0,25.0,,,,,,,,19.0,0.0,0.097771,-0.546387,0.36377,0.748047,0.900893,-0.443366,-0.136721,-0.045745,-0.056269000000000007,-0.01671,,,,,,,,,,,,,,,,,,,,,,,,,,,,,,,,,,,,,,,,,,,,,,,,,,,,,,,,,,,,,,,,,
12779,1650415180.2920089,1650415180.307296,39.0,0.0,4427.179688,4430.256348,4293.846191,4304.615234000001,4334.871582,0.0,3.0,68.0,,,,0.0,4.0,2.0,1.0,0.0,4.0,25.0,,,,,,,,,,,,,,,,,,,,,,,,,,,,,,,,,,,,,,,,,,,,,,,,,,,,,,,,,,,,,,,,,,,,,,,,,,,,,,,,,,,,
12780,1650415180.299823,1650415180.31501,40.0,0.0,4408.717772999999,4407.692383,4303.077147999999,4304.615234000001,4322.563965,0.0,3.0,68.0,,,,0.0,4.0,2.0,1.0,0.0,4.0,25.0,,,,,,,,20.0,0.0,0.097771,-0.546387,0.36377,0.748047,0.905776,-0.435065,-0.147951,-0.045712,-0.056305999999999995,-0.014990999999999999,,,,,,,,,,,,,,,,,,,,,,,,,,,,,,,,,,,,,,,,,,,,,,,,,,,,,,,,,,,,,,,,,
12781,1650415180.307637,1650415180.322825,41.0,0.0,4392.307617,4432.820313,4289.743652,4304.615234000001,4330.769043,0.0,3.0,68.0,,,,0.0,4.0,2.0,1.0,0.0,4.0,25.0,,,,,,,,,,,,,,,,,,,,1.0,0.0,0.0,,,,,,,,,,,,,,,,,,,,,,,,,,,,,,,,0.0,0.0,64.0,0.46535699999999997,1.0,0.0,7.450372,4.932216,4.681481,1.504697,3.803719,16.344378,17.68877,8.522227,8.022675999999999,4.528139,3.3687980000000004,1.420079,1.783133,1.327089,1.443935,41.10284,58.743767000000005,60.574993000000006,42.465927,13.843454000000001,4.323207,3.7530129999999997,4.644523,2.683059,4.303824
12782,1650415180.3154519,1650415180.33064,42.0,0.0,4412.307617,4439.487305,4284.102539,4304.615234000001,4355.384765999999,0.0,3.0,68.0,,,,0.0,4.0,2.0,1.0,0.0,4.0,25.0,,,,,,,,21.0,0.0,0.097771,-0.546387,0.36377,0.748047,0.900893,-0.443366,-0.136721,-0.045633,-0.056290999999999994,-0.013394,,,,,,,,,,,,,,,,,,,,,,,,,,,,,,,,,,,,,,,,,,,,,,,,,,,,,,,,,,,,,,,,,
12783,1650415180.323266,1650415180.3383539,43.0,0.0,4409.743652,4431.282227000001,4287.179688,4304.615234000001,4342.563965,0.0,3.0,68.0,,,,0.0,4.0,2.0,1.0,0.0,4.0,25.0,,,,,,,,,,,,,,,,,,,,,,,,,,,,,,,,,,,,,,,,,,,,,,,,,,,,,,,,,,,,,,,,,,,,,,,,,,,,,,,,,,,,
12784,1650415180.3310812,1650415180.3460689,44.0,0.0,4397.436035,4444.102539,4294.358886999999,4304.615234000001,4332.307617,0.0,3.0,68.0,,,,0.0,4.0,2.0,1.0,0.0,4.0,25.0,,,,,,,,22.0,0.0,0.096858,-0.546387,0.364014,0.748047,0.9087049999999999,-0.428717,-0.144045,-0.045708,-0.056179,-0.015326,,,,,,,,,,,,,,,,,,,,,,,,,,,,,,,,,,,,,,,,,,,,,,,,,,,,,,,,,,,,,,,,,
12785,1650415180.3388948,1650415180.353884,45.0,0.0,4444.102539,4465.128418,4298.461426,4304.615234000001,4388.205078,0.0,3.0,68.0,,,,0.0,4.0,2.0,1.0,0.0,4.0,25.0,,,,,,,,,,,,,,,,,,,,,,,,,,,,,,,,,,,,,,,,,,,,,,,,,,,,,,0.0,0.0,64.0,0.46535699999999997,1.0,0.0,,,,,,,,,,,,,,,,,,,,,,,,,
12786,1650415180.34671,1650415180.3616982,46.0,0.0,4469.230957,4464.615234000001,4300.512695,4304.615234000001,4410.769043,0.0,3.0,68.0,,,,0.0,4.0,2.0,1.0,0.0,4.0,25.0,,,,,,,,23.0,0.0,0.096858,-0.546387,0.364014,0.748047,0.9155409999999999,-0.45410900000000004,-0.146975,-0.045727,-0.056226,-0.017065,,,,,,,,,,,,,,,,,,,,,,,,,,,,,,,,,,,,,,,,,,,,,,,,,,,,,,,,,,,,,,,,,
12787,1650415180.3545241,1650415180.369513,47.0,0.0,4425.641113000001,4407.692383,4300.0,4304.615234000001,4361.025879,0.0,3.0,68.0,,,,0.0,4.0,2.0,1.0,0.0,4.0,25.0,,,,,,,,,,,,,,,,,,,,,,,,,,,,,,,,,,,,,,,,,,,,,,,,,,,,,,,,,,,,,,,,,,,,,,,,,,,,,,,,,,,,
12788,1650415180.362339,1650415180.377328,48.0,0.0,4426.666504,4345.641113000001,4295.897461,4304.615234000001,4364.102539,0.0,3.0,68.0,,,,0.0,4.0,2.0,1.0,0.0,4.0,25.0,,,,,,,,24.0,0.0,0.096858,-0.546387,0.364014,0.748047,0.91017,-0.43262399999999995,-0.142092,-0.045696,-0.056218,-0.012331,,,,,,,,,,,,,,,,,,,,,,,,,,,,,,,,,,,,,,,,,,,,,,,,,,,,,,,,,,,,,,,,,
12789,1650415180.370153,1650415180.385142,49.0,0.0,4456.410156,4360.0,4302.563965,4304.615234000001,4385.641113000001,0.0,3.0,68.0,,,,0.0,4.0,2.0,1.0,0.0,4.0,25.0,,,,,,,,,,,,,,,,,,,,,,,,,,,,,,,,,,,,,,,,,,,,,,,,,,,,,,0.0,0.0,64.0,0.46535699999999997,1.0,0.0,,,,,,,,,,,,,,,,,,,,,,,,,
12790,1650415180.377967,1650415180.392957,50.0,0.0,4427.179688,4385.128418,4310.256348,4304.615234000001,4345.128418,0.0,3.0,68.0,,,,0.0,4.0,2.0,1.0,0.0,4.0,25.0,,,,,,,,25.0,0.0,0.096858,-0.546387,0.364014,0.748047,0.902358,-0.453132,-0.150393,-0.045716,-0.056261,-0.014223,,,,,,,,,,,,,,,,,,,,,,,,,,,,,,,,,,,,,,,,,,,,,,,,,,,,,,,,,,,,,,,,,
12791,1650415180.385782,1650415180.400772,51.0,0.0,4407.692383,4381.025879,4294.871582,4304.615234000001,4340.512695,0.0,3.0,68.0,,,,0.0,4.0,2.0,1.0,0.0,4.0,25.0,,,,,,,,,,,,,,,,,,,,,,,,,,,,,,,,,,,,,,,,,,,,,,,,,,,,,,,,,,,,,,,,,,,,,,,,,,,,,,,,,,,,
12792,1650415180.3935971,1650415180.408586,52.0,0.0,4425.641113000001,4402.05127,4289.230957,4304.615234000001,4377.94873,0.0,3.0,68.0,,,,0.0,4.0,2.0,1.0,0.0,4.0,25.0,,,,,,,,26.0,0.0,0.097316,-0.546143,0.36425799999999997,0.748047,0.8994280000000001,-0.43897200000000003,-0.14990499999999998,-0.045686000000000004,-0.056201,-0.019002,,,,,,,,,,,,,,,,,,,,,,,,,,,,,,,,,,,,,,,,,,,,,,,,,,,,,,,,,,,,,,,,,
12793,1650415180.401411,1650415180.416301,53.0,0.0,4422.05127,4420.0,4301.538574,4304.615234000001,4369.230957,0.0,3.0,68.0,,,,0.0,4.0,2.0,1.0,0.0,4.0,25.0,,,,,,,,,,,,,,,,,,,,,,,,,,,,,,,,,,,,,,,,,,,,,,,,,,,,,,0.0,0.0,64.0,0.46535699999999997,1.0,0.0,,,,,,,,,,,,,,,,,,,,,,,,,
12794,1650415180.409225,1650415180.4241161,54.0,0.0,4405.641113000001,4391.794922,4284.615234000001,4304.615234000001,4336.922852000001,0.0,3.0,68.0,,,,0.0,4.0,2.0,1.0,0.0,4.0,25.0,,,,,,,,27.0,0.0,0.097316,-0.546143,0.36425799999999997,0.748047,0.8969860000000001,-0.44190100000000004,-0.14111500000000002,-0.04556,-0.056196,-0.020324000000000002,,,,,,,,,,,,,,,,,,,,,,,,,,,,,,,,,,,,,,,,,,,,,,,,,,,,,,,,,,,,,,,,,
12795,1650415180.41704,1650415180.4318302,55.0,0.0,4421.025879,4378.461426,4275.897461,4304.615234000001,4332.820313,0.0,3.0,68.0,,,,0.0,4.0,2.0,1.0,0.0,4.0,25.0,,,,,,,,,,,,,,,,,,,,,,,,,,,,,,,,,,,,,,,,,,,,,,,,,,,,,,,,,,,,,,,,,,,,,,,,,,,,,,,,,,,,
12796,1650415180.4248538,1650415180.4396448,56.0,0.0,4444.615234000001,4398.974121,4285.641113000001,4304.615234000001,4357.94873,0.0,3.0,68.0,,,,0.0,4.0,2.0,1.0,0.0,4.0,25.0,,,,,,,,28.0,0.0,0.097316,-0.546143,0.36425799999999997,0.748047,0.8881969999999999,-0.437018,-0.137209,-0.045643,-0.056192,-0.021466,,,,,,,,,,,,,,,,,,,,,,,,,,,,,,,,,,,,,,,,,,,,,,,,,,,,,,,,,,,,,,,,,
12797,1650415180.432669,1650415180.44736,57.0,0.0,4425.128418,4420.512695,4266.153809,4304.615234000001,4384.102539,0.0,3.0,68.0,,,,0.0,4.0,2.0,1.0,0.0,4.0,25.0,,,,,,,,,,,,,,,,,,,,1.0,0.0,0.0,,,,,,,,,,,,,,,,,,,,,,,,,,,,,,,,0.0,0.0,64.0,0.35110399999999997,1.0,0.0,11.009291000000001,7.501241,5.212687,1.466666,4.03036,17.436569,15.929568,8.695964,7.332312,4.457407,3.064132,1.605599,2.098376,1.325926,1.612932,37.109539,43.908165000000004,43.044422,30.764071,10.234903,4.2102010000000005,4.280141,6.423996,2.463987,3.9144419999999998
12798,1650415180.440483,1650415180.455174,58.0,0.0,4403.589844,4428.717772999999,4257.94873,4304.615234000001,4373.333496,0.0,3.0,68.0,,,,0.0,4.0,2.0,1.0,0.0,4.0,25.0,,,,,,,,29.0,0.0,0.097316,-0.546143,0.36425799999999997,0.748047,0.8994280000000001,-0.436042,-0.136721,-0.04562,-0.056188,-0.022493,,,,,,,,,,,,,,,,,,,,,,,,,,,,,,,,,,,,,,,,,,,,,,,,,,,,,,,,,,,,,,,,,
12799,1650415180.448298,1650415180.462889,59.0,0.0,4433.333496,4421.025879,4284.102539,4304.615234000001,4367.179688,0.0,3.0,68.0,,,,0.0,4.0,2.0,1.0,0.0,4.0,25.0,,,,,,,,,,,,,,,,,,,,,,,,,,,,,,,,,,,,,,,,,,,,,,,,,,,,,,,,,,,,,,,,,,,,,,,,,,,,,,,,,,,,
12800,1650415180.456112,1650415180.4707038,60.0,0.0,4454.871582,4411.794922,4300.0,4304.615234000001,4381.538574,0.0,3.0,68.0,,,,0.0,4.0,2.0,1.0,0.0,4.0,25.0,,,,,,,,30.0,0.0,0.096398,-0.546143,0.364502,0.748047,0.8964979999999999,-0.44824899999999995,-0.13086099999999998,-0.045648,-0.056087,-0.020146,,,,,,,,,,,,,,,,,,,,,,,,,,,,,,,,,,,,,,,,,,,,,,,,,,,,,,,,,,,,,,,,,
12801,1650415180.463927,1650415180.4784188,61.0,0.0,4427.692383,4405.641113000001,4296.410156,4304.615234000001,4371.794922,0.0,3.0,68.0,,,,0.0,4.0,2.0,1.0,0.0,4.0,25.0,,,,,,,,,,,,,,,,,,,,,,,,,,,,,,,,,,,,,,,,,,,,,,,,,,,,,,0.0,0.0,64.0,0.35110399999999997,1.0,0.0,,,,,,,,,,,,,,,,,,,,,,,,,
12802,1650415180.471741,1650415180.486233,62.0,0.0,4423.077147999999,4407.179688,4272.307617,4304.615234000001,4370.256348,0.0,3.0,68.0,,,,0.0,4.0,2.0,1.0,0.0,4.0,25.0,,,,,,,,31.0,0.0,0.096398,-0.546143,0.364502,0.748047,0.903334,-0.45557299999999995,-0.127443,-0.045575,-0.055996000000000004,-0.021256999999999998,,,,,,,,,,,,,,,,,,,,,,,,,,,,,,,,,,,,,,,,,,,,,,,,,,,,,,,,,,,,,,,,,
12803,1650415180.479556,1650415180.493948,63.0,0.0,4431.282227000001,4425.128418,4250.256348,4304.615234000001,4378.461426,0.0,3.0,68.0,,,,0.0,4.0,2.0,1.0,0.0,4.0,25.0,,,,,,,,,,,,,,,,,,,,,,,,,,,,,,,,,,,,,,,,,,,,,,,,,,,,,,,,,,,,,,,,,,,,,,,,,,,,,,,,,,,,
12804,1650415180.48737,1650415180.501763,64.0,0.0,4404.102539,4433.333496,4266.153809,4304.615234000001,4347.179688,450.0,3.0,68.0,,,,0.0,4.0,2.0,1.0,0.0,4.0,25.0,,,,,,,,32.0,0.0,0.096398,-0.546143,0.364502,0.748047,0.902358,-0.451667,-0.143557,-0.045656999999999996,-0.055963,-0.019033,,,,,,,,,,,,,,,,,,,,,,,,,,,,,,,,,,,,,,,,,,,,,,,,,,,,,,,,,,,,,,,,,
12805,1650415180.495185,1650415180.509477,65.0,0.0,4408.205078,4410.256348,4286.666504,4304.615234000001,4331.794922,450.0,3.0,68.0,,,,0.0,4.0,2.0,1.0,0.0,4.0,25.0,,,,,,,,,,,,,,,,,,,,,,,,,,,,,,,,,,,,,,,,,,,,,,,,,,,,,,0.0,0.0,64.0,0.35110399999999997,1.0,0.0,,,,,,,,,,,,,,,,,,,,,,,,,
12806,1650415180.502999,1650415180.517392,66.0,0.0,4437.94873,4395.897461,4298.974121,4305.128418,4353.333496,16226.0,3.0,68.0,,,,0.0,4.0,2.0,1.0,0.0,4.0,25.0,,,,,,,,33.0,0.0,0.096398,-0.546143,0.364502,0.748047,0.8921030000000001,-0.431159,-0.134768,-0.045778,-0.055884,-0.017032,,,,,,,,,,,,,,,,,,,,,,,,,,,,,,,,,,,,,,,,,,,,,,,,,,,,,,,,,,,,,,,,,
12807,1650415180.510814,1650415180.525307,67.0,0.0,4417.436035,4396.410156,4306.666504,4304.615234000001,4349.743652,450.0,3.0,68.0,,,,0.0,4.0,2.0,1.0,0.0,4.0,25.0,,,,,,,,,,,,,,,,,,,,,,,,,,,,,,,,,,,,,,,,,,,,,,,,,,,,,,,,,,,,,,,,,,,,,,,,,,,,,,,,,,,,
12808,1650415180.518628,1650415180.533121,68.0,0.0,4385.128418,4383.077147999999,4280.512695,4304.615234000001,4341.025879,216.0,3.0,68.0,,,,0.0,4.0,2.0,1.0,0.0,4.0,25.0,,,,,,,,34.0,0.0,0.09547,-0.546143,0.364746,0.748047,0.8960100000000001,-0.44531899999999996,-0.13281500000000002,-0.045791000000000005,-0.055911,-0.02153,,,,,,,,,,,,,,,,,,,,,,,,,,,,,,,,,,,,,,,,,,,,,,,,,,,,,,,,,,,,,,,,,
12809,1650415180.526442,1650415180.541036,69.0,0.0,4402.05127,4393.333496,4269.230957,4305.128418,4361.538574,450.0,3.0,68.0,,,,0.0,4.0,2.0,1.0,0.0,4.0,25.0,,,,,,,,,,,,,,,,,,,,,,,,,,,,,,,,,,,,,,,,,,,,,,,,,,,,,,0.0,0.0,64.0,0.35110399999999997,1.0,0.0,,,,,,,,,,,,,,,,,,,,,,,,,
12810,1650415180.534257,1650415180.54885,70.0,0.0,4422.05127,4418.974121,4296.410156,4303.077147999999,4372.820313,102.0,3.0,68.0,,,,0.0,4.0,2.0,1.0,0.0,4.0,25.0,,,,,,,,35.0,0.0,0.09547,-0.546143,0.364746,0.748047,0.894545,-0.440436,-0.138186,-0.045752999999999995,-0.055984000000000006,-0.022502,,,,,,,,,,,,,,,,,,,,,,,,,,,,,,,,,,,,,,,,,,,,,,,,,,,,,,,,,,,,,,,,,
12811,1650415180.542071,1650415180.556765,71.0,0.0,4405.641113000001,4413.333496,4291.794922,4301.538574,4358.461426,450.0,3.0,68.0,,,,0.0,4.0,2.0,1.0,0.0,4.0,25.0,,,,,,,,,,,,,,,,,,,,,,,,,,,,,,,,,,,,,,,,,,,,,,,,,,,,,,,,,,,,,,,,,,,,,,,,,,,,,,,,,,,,
12812,1650415180.549886,1650415180.56458,72.0,0.0,4388.205078,4404.615234000001,4281.538574,4302.05127,4327.692383,450.0,3.0,68.0,,,,0.0,4.0,2.0,1.0,0.0,4.0,25.0,,,,,,,,36.0,0.0,0.09547,-0.546143,0.364746,0.748047,0.892592,-0.440436,-0.129885,-0.045767,-0.05605,-0.020106,,,,,,,,,,,,,,,,,,,,,,,,,,,,,,,,,,,,,,,,,,,,,,,,,,,,,,,,,,,,,,,,,
12813,1650415180.5577,1650415180.572494,73.0,0.0,4393.846191,4402.563965,4302.563965,4303.077147999999,4314.871582,0.0,3.0,68.0,,,,0.0,4.0,2.0,1.0,0.0,4.0,25.0,1.0,16.666666,3.0,2.0,0.0,0.0,3.0,,,,,,,,,,,,,1.0,0.0,0.0,,,,,,,,,,,,,,,,,,,,,,,,,,,,,,,,0.0,0.0,64.0,0.22754000000000002,1.0,0.0,15.784543,10.798182,5.572709,1.609134,4.409082,18.696426000000002,16.957629999999998,8.225964999999999,6.452147,4.409617,2.8347900000000004,1.9715470000000002,2.402905,1.3357649999999999,1.8569200000000001,33.572346,32.042805,26.606537,18.848646,6.74275,4.449193,5.053294,8.419133,2.422336,3.5831839999999997
12814,1650415180.565515,1650415180.580309,74.0,0.0,4392.307617,4388.205078,4289.743652,4303.077147999999,4338.461426,450.0,3.0,68.0,,,,0.0,4.0,2.0,1.0,0.0,4.0,25.0,,,,,,,,37.0,0.0,0.095932,-0.545898,0.36499000000000004,0.748047,0.900893,-0.44971400000000006,-0.134279,-0.045732,-0.056011,-0.021318,,,,,,,,,,,,,,,,,,,,,,,,,,,,,,,,,,,,,,,,,,,,,,,,,,,,,,,,,,,,,,,,,
12815,1650415180.573329,1650415180.588223,75.0,0.0,4381.025879,4397.436035,4262.05127,4302.563965,4367.179688,16251.0,3.0,68.0,,,,0.0,4.0,2.0,1.0,0.0,4.0,25.0,,,,,,,,,,,,,,,,,,,,,,,,,,,,,,,,,,,,,,,,,,,,,,,,,,,,,,,,,,,,,,,,,,,,,,,,,,,,,,,,,,,,
12816,1650415180.5811439,1650415180.596038,76.0,0.0,4390.256348,4409.743652,4278.461426,4303.077147999999,4352.820313,450.0,3.0,68.0,,,,0.0,4.0,2.0,1.0,0.0,4.0,25.0,,,,,,,,38.0,0.0,0.095932,-0.545898,0.36499000000000004,0.748047,0.9072399999999999,-0.44385399999999997,-0.14551,-0.045699000000000004,-0.056026,-0.022359999999999998,,,,,,,,,,,,,,,,,,,,,,,,,,,,,,,,,,,,,,,,,,,,,,,,,,,,,,,,,,,,,,,,,
12817,1650415180.588958,1650415180.603952,77.0,0.0,4403.077147999999,4372.820313,4297.94873,4303.077147999999,4304.615234000001,450.0,3.0,68.0,,,,0.0,4.0,2.0,1.0,0.0,4.0,25.0,,,,,,,,,,,,,,,,,,,,,,,,,,,,,,,,,,,,,,,,,,,,,,,,,,,,,,0.0,0.0,64.0,0.22754000000000002,1.0,0.0,,,,,,,,,,,,,,,,,,,,,,,,,
12818,1650415180.5967731,1650415180.611767,78.0,0.0,4401.538574,4343.589844,4297.436035,4303.589844,4296.922852000001,450.0,3.0,68.0,,,,0.0,4.0,2.0,1.0,0.0,4.0,25.0,,,,,,,,39.0,0.0,0.095932,-0.545898,0.36499000000000004,0.748047,0.894057,-0.451667,-0.152346,-0.045719,-0.056038,-0.023298,,,,,,,,,,,,,,,,,,,,,,,,,,,,,,,,,,,,,,,,,,,,,,,,,,,,,,,,,,,,,,,,,
12819,1650415180.6045868,1650415180.619582,79.0,0.0,4396.922852000001,4364.102539,4295.897461,4302.563965,4330.769043,16251.0,3.0,68.0,,,,0.0,4.0,2.0,1.0,0.0,4.0,25.0,,,,,,,,,,,,,,,,,,,,,,,,,,,,,,,,,,,,,,,,,,,,,,,,,,,,,,,,,,,,,,,,,,,,,,,,,,,,,,,,,,,,
12820,1650415180.612402,1650415180.6272962,80.0,0.0,4386.666504,4379.487305,4297.436035,4303.077147999999,4341.538574,450.0,3.0,68.0,,,,0.0,4.0,2.0,1.0,0.0,4.0,25.0,,,,,,,,40.0,0.0,0.094998,-0.545898,0.365234,0.748047,0.906264,-0.45264399999999994,-0.14648699999999998,-0.045786,-0.05605,-0.024191,,,,,,,,,,,,,,,,,,,,,,,,,,,,,,,,,,,,,,,,,,,,,,,,,,,,,,,,,,,,,,,,,
12821,1650415180.6202161,1650415180.635211,81.0,0.0,4369.230957,4385.128418,4290.256348,4303.589844,4317.436035,450.0,3.0,68.0,,,,0.0,4.0,2.0,1.0,0.0,4.0,25.0,,,,,,,,,,,,,,,,,,,,,,,,,,,,,,,,,,,,,,,,,,,,,,,,,,,,,,0.0,0.0,64.0,0.22754000000000002,1.0,0.0,,,,,,,,,,,,,,,,,,,,,,,,,
12822,1650415180.62803,1650415180.6430259,82.0,0.0,4346.153809,4395.897461,4270.769043,4300.512695,4283.077147999999,450.0,3.0,68.0,,,,0.0,4.0,2.0,1.0,0.0,4.0,25.0,,,,,,,,41.0,0.0,0.094054,-0.545898,0.365479,0.748047,0.898451,-0.451179,-0.142092,-0.045798,-0.056109000000000006,-0.018744,,,,,,,,,,,,,,,,,,,,,,,,,,,,,,,,,,,,,,,,,,,,,,,,,,,,,,,,,,,,,,,,,
12823,1650415180.635845,1650415180.65094,83.0,0.0,4332.307617,4383.589844,4274.358886999999,4295.897461,4269.230957,16251.0,3.0,68.0,,,,0.0,4.0,2.0,1.0,0.0,4.0,25.0,,,,,,,,,,,,,,,,,,,,,,,,,,,,,,,,,,,,,,,,,,,,,,,,,,,,,,,,,,,,,,,,,,,,,,,,,,,,,,,,,,,,
12824,1650415180.6436589,1650415180.658855,84.0,0.0,4354.358886999999,4364.615234000001,4305.128418,4296.410156,4305.128418,450.0,3.0,68.0,,,,0.0,4.0,2.0,1.0,0.0,4.0,25.0,,,,,,,,42.0,0.0,0.094054,-0.545898,0.365479,0.748047,0.898451,-0.44483100000000003,-0.145998,-0.045905,-0.056260000000000004,-0.019995,,,,,,,,,,,,,,,,,,,,,,,,,,,,,,,,,,,,,,,,,,,,,,,,,,,,,,,,,,,,,,,,,
12825,1650415180.651474,1650415180.666669,85.0,0.0,4396.410156,4371.282227000001,4305.128418,4297.436035,4351.794922,450.0,3.0,68.0,,,,0.0,4.0,2.0,1.0,0.0,4.0,25.0,,,,,,,,,,,,,,,,,,,,,,,,,,,,,,,,,,,,,,,,,,,,,,,,,,,,,,0.0,0.0,64.0,0.22754000000000002,1.0,0.0,,,,,,,,,,,,,,,,,,,,,,,,,
12826,1650415180.6592882,1650415180.674484,86.0,0.0,4406.153809,4368.205078,4280.0,4296.922852000001,4349.743652,450.0,3.0,68.0,,,,0.0,4.0,2.0,1.0,0.0,4.0,25.0,,,,,,,,43.0,0.0,0.094054,-0.545898,0.365479,0.748047,0.8842909999999999,-0.45557299999999995,-0.14257999999999998,-0.045807,-0.056249,-0.01487,,,,,,,,,,,,,,,,,,,,,,,,,,,,,,,,,,,,,,,,,,,,,,,,,,,,,,,,,,,,,,,,,
12827,1650415180.6671028,1650415180.682399,87.0,0.0,4394.871582,4335.897461,4278.974121,4296.922852000001,4332.820313,16251.0,3.0,68.0,,,,0.0,4.0,2.0,1.0,0.0,4.0,25.0,,,,,,,,,,,,,,,,,,,,,,,,,,,,,,,,,,,,,,,,,,,,,,,,,,,,,,,,,,,,,,,,,,,,,,,,,,,,,,,,,,,,
12828,1650415180.674917,1650415180.690313,88.0,0.0,4396.922852000001,4338.461426,4286.666504,4297.436035,4331.282227000001,450.0,3.0,68.0,,,,0.0,4.0,2.0,1.0,0.0,4.0,25.0,,,,,,,,44.0,0.0,0.094054,-0.545898,0.365479,0.748047,0.8999159999999999,-0.43994799999999995,-0.148928,-0.045816,-0.056288,-0.016557,,,,,,,,,,,,,,,,,,,,,,,,,,,,,,,,,,,,,,,,,,,,,,,,,,,,,,,,,,,,,,,,,
12829,1650415180.682732,1650415180.698128,89.0,0.0,4398.461426,4387.692383,4288.205078,4296.922852000001,4330.256348,450.0,3.0,68.0,,,,0.0,4.0,2.0,1.0,0.0,4.0,25.0,,,,,,,,,,,,,,,,,,,,1.0,0.0,0.0,,,,,,,,,,,,,,,,,,,,,,,,,,,,,,,,0.0,0.0,64.0,0.247971,1.0,0.0,20.885109,14.058815,5.663365,1.8315869999999999,4.792861,19.858513000000002,20.794588,7.349809,5.689541999999999,4.505678,2.85127,2.592446,2.6216939999999997,1.379904,2.119532,28.970373,23.086308,14.27542,9.509647,3.953732,5.159882,5.870368,10.070961,2.415682,3.3365
12830,1650415180.690546,1650415180.706042,90.0,0.0,4390.769043,4385.641113000001,4293.846191,4295.384765999999,4332.820313,450.0,3.0,68.0,,,,0.0,4.0,2.0,1.0,0.0,4.0,25.0,,,,,,,,45.0,0.0,0.095976,-0.545898,0.365479,0.747803,0.897963,-0.446296,-0.14111500000000002,-0.045922000000000004,-0.056421000000000006,-0.018027,,,,,,,,,,,,,,,,,,,,,,,,,,,,,,,,,,,,,,,,,,,,,,,,,,,,,,,,,,,,,,,,,
12831,1650415180.698361,1650415180.713857,91.0,0.0,4375.897461,4343.077147999999,4286.666504,4295.384765999999,4339.487305,16251.0,3.0,68.0,,,,0.0,4.0,2.0,1.0,0.0,4.0,25.0,,,,,,,,,,,,,,,,,,,,,,,,,,,,,,,,,,,,,,,,,,,,,,,,,,,,,,,,,,,,,,,,,,,,,,,,,,,,,,,,,,,,
12832,1650415180.706175,1650415180.721672,92.0,0.0,4375.897461,4378.974121,4272.307617,4295.384765999999,4343.077147999999,450.0,3.0,68.0,,,,0.0,4.0,2.0,1.0,0.0,4.0,25.0,,,,,,,,46.0,0.0,0.095976,-0.545898,0.365479,0.747803,0.897963,-0.45655,-0.138186,-0.045969,-0.05639500000000001,-0.019495,,,,,,,,,,,,,,,,,,,,,,,,,,,,,,,,,,,,,,,,,,,,,,,,,,,,,,,,,,,,,,,,,
12833,1650415180.71399,1650415180.7293859,93.0,0.0,4403.589844,4426.666504,4259.487305,4295.384765999999,4338.461426,450.0,3.0,68.0,,,,0.0,4.0,2.0,1.0,0.0,4.0,25.0,,,,,,,,,,,,,,,,,,,,,,,,,,,,,,,,,,,,,,,,,,,,,,,,,,,,,,0.0,0.0,64.0,0.247971,1.0,0.0,,,,,,,,,,,,,,,,,,,,,,,,,
12834,1650415180.721804,1650415180.7373009,94.0,0.0,4402.05127,4370.256348,4253.846191,4295.384765999999,4322.563965,450.0,3.0,68.0,,,,0.0,4.0,2.0,1.0,0.0,4.0,25.0,,,,,,,,47.0,0.0,0.094577,-0.546143,0.365479,0.747803,0.900893,-0.437018,-0.137697,-0.046058999999999996,-0.05637,-0.020769,,,,,,,,,,,,,,,,,,,,,,,,,,,,,,,,,,,,,,,,,,,,,,,,,,,,,,,,,,,,,,,,,
12835,1650415180.729618,1650415180.745116,95.0,0.0,4364.102539,4313.846191,4273.846191,4294.871582,4313.846191,16251.0,3.0,68.0,,,,0.0,4.0,2.0,1.0,0.0,4.0,25.0,,,,,,,,,,,,,,,,,,,,,,,,,,,,,,,,,,,,,,,,,,,,,,,,,,,,,,,,,,,,,,,,,,,,,,,,,,,,,,,,,,,,
12836,1650415180.737433,1650415180.75303,96.0,0.0,4372.820313,4343.077147999999,4294.358886999999,4295.897461,4337.94873,450.0,3.0,68.0,,,,0.0,4.0,2.0,1.0,0.0,4.0,25.0,,,,,,,,48.0,0.0,0.095976,-0.545898,0.365479,0.747803,0.897963,-0.446296,-0.14111500000000002,-0.046141,-0.056495000000000004,-0.021817,,,,,,,,,,,,,,,,,,,,,,,,,,,,,,,,,,,,,,,,,,,,,,,,,,,,,,,,,,,,,,,,,
12837,1650415180.7452471,1650415180.760845,97.0,0.0,4402.05127,4367.179688,4278.974121,4296.922852000001,4364.615234000001,450.0,3.0,68.0,,,,0.0,4.0,2.0,1.0,0.0,4.0,25.0,,,,,,,,,,,,,,,,,,,,,,,,,,,,,,,,,,,,,,,,,,,,,,,,,,,,,,0.0,0.0,64.0,0.247971,1.0,0.0,,,,,,,,,,,,,,,,,,,,,,,,,
12838,1650415180.753062,1650415180.768759,98.0,0.0,4399.487305,4356.410156,4269.230957,4295.384765999999,4357.94873,450.0,3.0,68.0,,,,0.0,4.0,2.0,1.0,0.0,4.0,25.0,,,,,,,,49.0,0.0,0.094577,-0.546143,0.365479,0.747803,0.900893,-0.437018,-0.137697,-0.046215,-0.056461000000000004,-0.022858,,,,,,,,,,,,,,,,,,,,,,,,,,,,,,,,,,,,,,,,,,,,,,,,,,,,,,,,,,,,,,,,,
12839,1650415180.760876,1650415180.7765741,99.0,0.0,4415.897461,4383.077147999999,4300.0,4294.871582,4339.487305,16251.0,3.0,68.0,,,,0.0,4.0,2.0,1.0,0.0,4.0,25.0,,,,,,,,,,,,,,,,,,,,,,,,,,,,,,,,,,,,,,,,,,,,,,,,,,,,,,,,,,,,,,,,,,,,,,,,,,,,,,,,,,,,
12840,1650415180.768691,1650415180.7844882,100.0,0.0,4435.384765999999,4411.282227000001,4311.794922,4296.922852000001,4334.358886999999,450.0,3.0,68.0,,,,0.0,4.0,2.0,1.0,0.0,4.0,25.0,,,,,,,,50.0,0.0,0.094577,-0.546143,0.365479,0.747803,0.8989389999999999,-0.44531899999999996,-0.143557,-0.046085,-0.056429999999999994,-0.023844,,,,,,,,,,,,,,,,,,,,,,,,,,,,,,,,,,,,,,,,,,,,,,,,,,,,,,,,,,,,,,,,,
12841,1650415180.776505,1650415180.7923028,101.0,0.0,4409.743652,4377.94873,4290.769043,4298.461426,4337.436035,450.0,3.0,68.0,,,,0.0,4.0,2.0,1.0,0.0,4.0,25.0,,,,,,,,,,,,,,,,,,,,,,,,,,,,,,,,,,,,,,,,,,,,,,,,,,,,,,0.0,0.0,64.0,0.247971,1.0,0.0,,,,,,,,,,,,,,,,,,,,,,,,,
12842,1650415180.7843199,1650415180.8002179,102.0,0.0,4385.128418,4367.692383,4277.94873,4297.436035,4336.922852000001,450.0,3.0,68.0,,,,0.0,4.0,2.0,1.0,0.0,4.0,25.0,,,,,,,,51.0,0.0,0.094577,-0.546143,0.365479,0.747803,0.8886850000000001,-0.455085,-0.134768,-0.045919999999999996,-0.056402999999999995,-0.02141,,,,,,,,,,,,,,,,,,,,,,,,,,,,,,,,,,,,,,,,,,,,,,,,,,,,,,,,,,,,,,,,,
12843,1650415180.792134,1650415180.808132,103.0,0.0,4396.410156,4434.871582,4281.025879,4295.897461,4336.922852000001,16251.0,3.0,68.0,,,,0.0,4.0,2.0,1.0,0.0,4.0,25.0,,,,,,,,,,,,,,,,,,,,,,,,,,,,,,,,,,,,,,,,,,,,,,,,,,,,,,,,,,,,,,,,,,,,,,,,,,,,,,,,,,,,
12844,1650415180.799949,1650415180.815947,104.0,0.0,4414.871582,4468.205078,4280.512695,4299.487305,4333.333496,450.0,3.0,68.0,,,,0.0,4.0,2.0,1.0,0.0,4.0,25.0,,,,,,,,52.0,0.0,0.094577,-0.546143,0.365479,0.747803,0.891127,-0.44190100000000004,-0.136721,-0.045918,-0.056426,-0.022443,,,,,,,,,,,,,,,,,,,,,,,,,,,,,,,,,,,,,,,,,,,,,,,,,,,,,,,,,,,,,,,,,
12845,1650415180.807763,1650415180.823762,105.0,0.0,4408.205078,4409.743652,4257.436035,4303.589844,4318.461426,450.0,3.0,68.0,,,,0.0,4.0,2.0,1.0,0.0,4.0,25.0,,,,,,,,,,,,,,,,,,,,1.0,0.0,0.0,,,,,,,,,,,,,,,,,,,,,,,,,,,,,,,,0.0,0.0,64.0,0.221939,1.0,0.0,24.684361,16.324901999999998,5.444617,2.025431,4.9950019999999995,20.860628,26.016809,6.517498000000001,5.245501,4.754436,3.1730959999999997,3.365473,2.673349,1.4848729999999999,2.328661,23.022062,16.366894,6.918696000000001,3.875262,2.086531,5.965444000000001,6.493608,10.900699000000001,2.363096,3.1530139999999998
12846,1650415180.815578,1650415180.831676,106.0,0.0,4385.641113000001,4362.05127,4251.794922,4305.128418,4318.461426,450.0,3.0,68.0,,,,0.0,4.0,2.0,1.0,0.0,4.0,25.0,,,,,,,,53.0,0.0,0.094152,-0.546387,0.365723,0.747559,0.8999159999999999,-0.45069,-0.146975,-0.045916000000000005,-0.056448000000000005,-0.017171000000000002,,,,,,,,,,,,,,,,,,,,,,,,,,,,,,,,,,,,,,,,,,,,,,,,,,,,,,,,,,,,,,,,,
12847,1650415180.823392,1650415180.8394911,107.0,0.0,4371.282227000001,4376.922852000001,4293.846191,4309.230957,4325.641113000001,16251.0,3.0,68.0,,,,0.0,4.0,2.0,1.0,0.0,4.0,25.0,,,,,,,,,,,,,,,,,,,,,,,,,,,,,,,,,,,,,,,,,,,,,,,,,,,,,,,,,,,,,,,,,,,,,,,,,,,,,,,,,,,,
12848,1650415180.831206,1650415180.8474052,108.0,0.0,4372.820313,4400.512695,4314.358886999999,4311.794922,4315.897461,450.0,3.0,68.0,,,,0.0,4.0,2.0,1.0,0.0,4.0,25.0,,,,,,,,54.0,0.0,0.094152,-0.546387,0.365723,0.747559,0.9087049999999999,-0.44531899999999996,-0.150881,-0.045963,-0.056466999999999996,-0.018726,,,,,,,,,,,,,,,,,,,,,,,,,,,,,,,,,,,,,,,,,,,,,,,,,,,,,,,,,,,,,,,,,
12849,1650415180.8390212,1650415180.8552198,109.0,0.0,4390.256348,4421.025879,4281.025879,4308.205078,4319.487305,450.0,3.0,68.0,,,,0.0,4.0,2.0,1.0,0.0,4.0,25.0,,,,,,,,,,,,,,,,,,,,,,,,,,,,,,,,,,,,,,,,,,,,,,,,,,,,,,0.0,0.0,64.0,0.221939,1.0,0.0,,,,,,,,,,,,,,,,,,,,,,,,,
12850,1650415180.846835,1650415180.863134,110.0,0.0,4437.436035,4425.128418,4272.307617,4307.179688,4341.538574,450.0,3.0,68.0,,,,0.0,4.0,2.0,1.0,0.0,4.0,25.0,,,,,,,,55.0,0.0,0.094672,-0.5466310000000001,0.365723,0.747314,0.909682,-0.441413,-0.144533,-0.045908,-0.05658200000000001,-0.020076,,,,,,,,,,,,,,,,,,,,,,,,,,,,,,,,,,,,,,,,,,,,,,,,,,,,,,,,,,,,,,,,,
12851,1650415180.85465,1650415180.870949,111.0,0.0,4494.358886999999,4413.333496,4305.128418,4312.820313,4356.410156,16251.0,3.0,68.0,,,,0.0,4.0,2.0,1.0,0.0,4.0,25.0,,,,,,,,,,,,,,,,,,,,,,,,,,,,,,,,,,,,,,,,,,,,,,,,,,,,,,,,,,,,,,,,,,,,,,,,,,,,,,,,,,,,
12852,1650415180.862464,1650415180.878864,112.0,0.0,4533.846191,4427.179688,4311.794922,4315.384765999999,4369.743652,450.0,3.0,68.0,,,,0.0,4.0,2.0,1.0,0.0,4.0,25.0,,,,,,,,56.0,0.0,0.094672,-0.5466310000000001,0.365723,0.747314,0.897475,-0.44824899999999995,-0.133303,-0.045906999999999996,-0.056588,-0.02134,,,,,,,,,,,,,,,,,,,,,,,,,,,,,,,,,,,,,,,,,,,,,,,,,,,,,,,,,,,,,,,,,
12853,1650415180.8702788,1650415180.886678,113.0,0.0,4574.358886999999,4454.871582,4273.846191,4309.743652,4383.077147999999,450.0,3.0,68.0,,,,0.0,4.0,2.0,1.0,0.0,4.0,25.0,,,,,,,,,,,,,,,,,,,,,,,,,,,,,,,,,,,,,,,,,,,,,,,,,,,,,,0.0,0.0,64.0,0.221939,1.0,0.0,,,,,,,,,,,,,,,,,,,,,,,,,
12854,1650415180.878093,1650415180.894393,114.0,0.0,4607.179688,4482.563965,4245.128418,4306.666504,4394.871582,450.0,3.0,68.0,,,,0.0,4.0,2.0,1.0,0.0,4.0,25.0,,,,,,,,57.0,0.0,0.093724,-0.5466310000000001,0.365967,0.747314,0.8964979999999999,-0.45655,-0.13916199999999998,-0.045955,-0.056545000000000005,-0.019108,,,,,,,,,,,,,,,,,,,,,,,,,,,,,,,,,,,,,,,,,,,,,,,,,,,,,,,,,,,,,,,,,
12855,1650415180.8859081,1650415180.902208,115.0,0.0,4661.538574,4485.128418,4256.410156,4314.358886999999,4423.589844,16251.0,3.0,68.0,,,,0.0,4.0,2.0,1.0,0.0,4.0,25.0,,,,,,,,,,,,,,,,,,,,,,,,,,,,,,,,,,,,,,,,,,,,,,,,,,,,,,,,,,,,,,,,,,,,,,,,,,,,,,,,,,,,
12856,1650415180.893722,1650415180.9099221,116.0,0.0,4736.410156,4512.820313,4267.692383,4317.436035,4468.205078,450.0,3.0,68.0,,,,0.0,4.0,2.0,1.0,0.0,4.0,25.0,,,,,,,,58.0,0.0,0.093724,-0.5466310000000001,0.365967,0.747314,0.8921030000000001,-0.45020200000000005,-0.14551,-0.045901,-0.05645700000000001,-0.020371,,,,,,,,,,,,,,,,,,,,,,,,,,,,,,,,,,,,,,,,,,,,,,,,,,,,,,,,,,,,,,,,,
12857,1650415180.901537,1650415180.917737,117.0,0.0,4758.461426,4608.717772999999,4289.743652,4308.205078,4502.563965,450.0,3.0,68.0,,,,0.0,4.0,2.0,1.0,0.0,4.0,25.0,,,,,,,,,,,,,,,,,,,,,,,,,,,,,,,,,,,,,,,,,,,,,,,,,,,,,,0.0,0.0,64.0,0.221939,1.0,0.0,,,,,,,,,,,,,,,,,,,,,,,,,
12858,1650415180.9093509,1650415180.925452,118.0,0.0,4767.179688,4633.846191,4320.0,4308.205078,4510.256348,450.0,3.0,68.0,,,,0.0,4.0,2.0,1.0,0.0,4.0,25.0,,,,,,,,59.0,0.0,0.093724,-0.5466310000000001,0.365967,0.747314,0.890639,-0.44190100000000004,-0.138186,-0.045949000000000004,-0.056378,-0.021557,,,,,,,,,,,,,,,,,,,,,,,,,,,,,,,,,,,,,,,,,,,,,,,,,,,,,,,,,,,,,,,,,
12859,1650415180.917166,1650415180.933366,119.0,0.0,4792.820313,4556.410156,4295.897461,4318.974121,4515.897461,16251.0,3.0,68.0,,,,0.0,4.0,2.0,1.0,0.0,4.0,25.0,,,,,,,,,,,,,,,,,,,,,,,,,,,,,,,,,,,,,,,,,,,,,,,,,,,,,,,,,,,,,,,,,,,,,,,,,,,,,,,,,,,,
12860,1650415180.9249802,1650415180.941181,120.0,0.0,4778.974121,4537.436035,4305.128418,4320.512695,4529.230957,450.0,3.0,68.0,,,,0.0,4.0,2.0,1.0,0.0,4.0,25.0,,,,,,,,60.0,0.0,0.09424400000000001,-0.546875,0.365967,0.74707,0.8964979999999999,-0.45264399999999994,-0.12842,-0.045993,-0.056354999999999995,-0.016471,,,,,,,,,,,,,,,,,,,,,,,,,,,,,,,,,,,,,,,,,,,,,,,,,,,,,,,,,,,,,,,,,
12861,1650415180.9327948,1650415180.948996,121.0,0.0,4767.179688,4573.846191,4352.307617,4316.410156,4510.256348,450.0,3.0,68.0,,,,0.0,4.0,2.0,1.0,0.0,4.0,25.0,,,,,,,,,,,,,,,,,,,,1.0,0.0,0.0,,,,,,,,,,,,,,,,,,,,,,,,,,,,,,,,0.0,0.0,64.0,0.45375200000000004,1.0,0.0,25.818573,16.857662,5.040673,2.122364,4.882315,21.651566,30.298284999999996,6.053948,5.169151,5.03811,3.7068980000000002,4.055745,2.530713,1.6640439999999999,2.4226229999999997,16.382978,11.122601,3.4860269999999995,1.371828,1.01691,6.580547,6.786347999999999,10.714327,2.296359,2.992701
12862,1650415180.940609,1650415180.9567099,122.0,0.0,4780.512695,4524.615234000001,4323.077147999999,4317.436035,4499.487305,450.0,3.0,68.0,,,,0.0,4.0,2.0,1.0,0.0,4.0,25.0,,,,,,,,61.0,0.0,0.09424400000000001,-0.546875,0.365967,0.74707,0.8808729999999999,-0.443366,-0.129397,-0.045935000000000004,-0.056335,-0.021026,,,,,,,,,,,,,,,,,,,,,,,,,,,,,,,,,,,,,,,,,,,,,,,,,,,,,,,,,,,,,,,,,
12863,1650415180.948424,1650415180.964625,123.0,0.0,4767.692383,4460.0,4276.922852000001,4319.487305,4509.743652,16251.0,3.0,68.0,,,,0.0,4.0,2.0,1.0,0.0,4.0,25.0,,,,,,,,,,,,,,,,,,,,,,,,,,,,,,,,,,,,,,,,,,,,,,,,,,,,,,,,,,,,,,,,,,,,,,,,,,,,,,,,,,,,
12864,1650415180.956238,1650415180.97244,124.0,0.0,4747.692383,4492.820313,4296.410156,4321.538574,4487.179688,450.0,3.0,68.0,,,,0.0,4.0,2.0,1.0,0.0,4.0,25.0,,,,,,,,62.0,0.0,0.09424400000000001,-0.546875,0.365967,0.74707,0.892592,-0.45020200000000005,-0.140139,-0.045687,-0.056317,-0.022047999999999998,,,,,,,,,,,,,,,,,,,,,,,,,,,,,,,,,,,,,,,,,,,,,,,,,,,,,,,,,,,,,,,,,
12865,1650415180.964053,1650415180.9803538,125.0,0.0,4760.512695,4542.563965,4327.692383,4322.05127,4495.384765999999,450.0,3.0,68.0,,,,0.0,4.0,2.0,1.0,0.0,4.0,25.0,,,,,,,,,,,,,,,,,,,,,,,,,,,,,,,,,,,,,,,,,,,,,,,,,,,,,,0.0,0.0,64.0,0.45375200000000004,1.0,0.0,,,,,,,,,,,,,,,,,,,,,,,,,
12866,1650415180.971867,1650415180.988169,126.0,0.0,4756.410156,4545.641113000001,4323.589844,4318.974121,4525.641113000001,450.0,3.0,68.0,,,,0.0,4.0,2.0,1.0,0.0,4.0,25.0,,,,,,,,63.0,0.0,0.09424400000000001,-0.546875,0.365967,0.74707,0.878431,-0.458503,-0.14648699999999998,-0.045708,-0.056251999999999996,-0.022968000000000002,,,,,,,,,,,,,,,,,,,,,,,,,,,,,,,,,,,,,,,,,,,,,,,,,,,,,,,,,,,,,,,,,
12867,1650415180.979681,1650415180.996083,127.0,0.0,4708.717772999999,4528.717772999999,4307.179688,4317.94873,4489.230957,237.0,3.0,68.0,,,,0.0,4.0,2.0,1.0,0.0,4.0,25.0,,,,,,,,,,,,,,,,,,,,,,,,,,,,,,,,,,,,,,,,,,,,,,,,,,,,,,,,,,,,,,,,,,,,,,,,,,,,,,,,,,,,
12868,1650415180.9874961,1650415181.0038981,0.0,0.0,4669.743652,4535.897461,4294.871582,4320.0,4444.102539,450.0,3.0,68.0,,,,0.0,4.0,2.0,1.0,0.0,4.0,25.0,,,,,,,,0.0,0.0,0.092816,-0.5471189999999999,0.365967,0.74707,0.901381,-0.441413,-0.139651,-0.045581,-0.056290999999999994,-0.023844999999999998,,,,,,,,,,,,,,,,,,,,,,,,,,,,,,,,,,,,,,,,,,,,,,,,,,,,,,,,,,,,,,,,,
12869,1650415180.99531,1650415181.011812,1.0,0.0,4662.05127,4553.333496,4295.897461,4320.0,4459.487305,450.0,3.0,68.0,,,,0.0,4.0,2.0,1.0,0.0,4.0,25.0,,,,,,,,,,,,,,,,,,,,,,,,,,,,,,,,,,,,,,,,,,,,,,,,,,,,,,10.0,0.0,64.0,0.45375200000000004,1.0,0.0,,,,,,,,,,,,,,,,,,,,,,,,,
12870,1650415181.003125,1650415181.0196269,2.0,0.0,4647.692383,4538.461426,4282.05127,4319.487305,4458.974121,16180.0,3.0,68.0,,,,0.0,4.0,2.0,1.0,0.0,4.0,25.0,,,,,,,,1.0,0.0,0.092816,-0.5471189999999999,0.365967,0.74707,0.894545,-0.43408900000000006,-0.133303,-0.045711,-0.05612999999999999,-0.024732,,,,,,,,,,,,,,,,,,,,,,,,,,,,,,,,,,,,,,,,,,,,,,,,,,,,,,,,,,,,,,,,,
12871,1650415181.0109391,1650415181.0275419,3.0,0.0,4593.333496,4552.820313,4274.358886999999,4316.922852000001,4424.102539,450.0,3.0,68.0,,,,0.0,4.0,2.0,1.0,0.0,4.0,25.0,,,,,,,,,,,,,,,,,,,,,,,,,,,,,,,,,,,,,,,,,,,,,,,,,,,,,,,,,,,,,,,,,,,,,,,,,,,,,,,,,,,,
12872,1650415181.018754,1650415181.035356,4.0,0.0,4551.794922,4571.282227000001,4296.410156,4309.743652,4398.461426,192.0,3.0,68.0,,,,0.0,4.0,2.0,1.0,0.0,4.0,25.0,,,,,,,,2.0,0.0,0.093774,-0.5471189999999999,0.365723,0.74707,0.9087049999999999,-0.43994799999999995,-0.129397,-0.045827,-0.056180999999999995,-0.025531,,,,,,,,,,,,,,,,,,,,,,,,,,,,,,,,,,,,,,,,,,,,,,,,,,,,,,,,,,,,,,,,,
12873,1650415181.026568,1650415181.043271,5.0,0.0,4542.05127,4534.871582,4289.743652,4307.179688,4390.256348,450.0,3.0,68.0,,,,0.0,4.0,2.0,1.0,0.0,4.0,25.0,,,,,,,,,,,,,,,,,,,,,,,,,,,,,,,,,,,,,,,,,,,,,,,,,,,,,,10.0,0.0,64.0,0.45375200000000004,1.0,0.0,,,,,,,,,,,,,,,,,,,,,,,,,
12874,1650415181.034383,1650415181.051185,6.0,0.0,4509.230957,4506.666504,4281.025879,4312.307617,4384.102539,0.0,3.0,68.0,,,,0.0,4.0,2.0,0.0,0.0,4.0,16.666666,,,,,,,,3.0,0.0,0.093774,-0.5471189999999999,0.365723,0.74707,0.8989389999999999,-0.448737,-0.128908,-0.045883,-0.056227,-0.026249,,,,,,,,,,,,,,,,,,,,,,,,,,,,,,,,,,,,,,,,,,,,,,,,,,,,,,,,,,,,,,,,,
12875,1650415181.042197,1650415181.059,7.0,0.0,4471.794922,4520.0,4290.256348,4313.333496,4341.025879,450.0,3.0,68.0,,,,0.0,4.0,2.0,0.0,0.0,4.0,16.666666,,,,,,,,,,,,,,,,,,,,,,,,,,,,,,,,,,,,,,,,,,,,,,,,,,,,,,,,,,,,,,,,,,,,,,,,,,,,,,,,,,,,
12876,1650415181.0500119,1650415181.0668151,8.0,0.0,4450.256348,4515.384765999999,4282.563965,4311.794922,4322.563965,450.0,3.0,68.0,,,,0.0,4.0,2.0,0.0,0.0,4.0,16.666666,,,,,,,,4.0,0.0,0.095187,-0.546875,0.365723,0.74707,0.875502,-0.44238999999999995,-0.132326,-0.045933999999999996,-0.056171000000000006,-0.020597,,,,,,,,,,,,,,,,,,,,,,,,,,,,,,,,,,,,,,,,,,,,,,,,,,,,,,,,,,,,,,,,,
12877,1650415181.057826,1650415181.074529,9.0,0.0,4426.666504,4473.846191,4275.897461,4312.307617,4336.922852000001,0.0,3.0,68.0,,,,0.0,4.0,2.0,0.0,0.0,4.0,16.666666,1.0,16.666666,3.0,2.0,0.0,0.0,4.0,,,,,,,,,,,,,1.0,0.0,0.0,,,,,,,,,,,,,,,,,,,,,,,,,,,,,,,,10.0,0.0,64.0,0.488979,1.0,0.0,23.726246,15.439247,4.611132,2.133644,4.444219,21.915487,31.813076000000002,6.159965000000001,5.36394,5.212966000000001,4.197411,4.4261989999999996,2.283545,1.902855,2.3758369999999998,10.013326,6.644164,1.9352220000000002,0.544345,0.46269899999999997,6.674105,6.654936999999999,9.597545,2.312426,2.834113
12878,1650415181.065641,1650415181.082444,10.0,0.0,4412.820313,4451.794922,4280.512695,4310.769043,4317.94873,450.0,3.0,68.0,,,,0.0,4.0,2.0,0.0,0.0,4.0,16.666666,,,,,,,,5.0,0.0,0.093774,-0.5471189999999999,0.365723,0.74707,0.893568,-0.448737,-0.13086099999999998,-0.045979,-0.056072000000000004,-0.021711,,,,,,,,,,,,,,,,,,,,,,,,,,,,,,,,,,,,,,,,,,,,,,,,,,,,,,,,,,,,,,,,,
12879,1650415181.073455,1650415181.090259,11.0,0.0,4404.102539,4460.0,4287.692383,4310.769043,4310.256348,16203.0,3.0,68.0,,,,0.0,4.0,2.0,0.0,0.0,4.0,16.666666,,,,,,,,,,,,,,,,,,,,,,,,,,,,,,,,,,,,,,,,,,,,,,,,,,,,,,,,,,,,,,,,,,,,,,,,,,,,,,,,,,,,
12880,1650415181.081269,1650415181.098073,12.0,0.0,4382.05127,4470.256348,4284.615234000001,4314.871582,4320.512695,450.0,3.0,68.0,,,,0.0,4.0,2.0,0.0,0.0,4.0,16.666666,,,,,,,,6.0,0.0,0.093774,-0.5471189999999999,0.365723,0.74707,0.8989389999999999,-0.448737,-0.128908,-0.04602,-0.056129,-0.022811,,,,,,,,,,,,,,,,,,,,,,,,,,,,,,,,,,,,,,,,,,,,,,,,,,,,,,,,,,,,,,,,,
12881,1650415181.089084,1650415181.105788,13.0,0.0,4357.94873,4460.0,4284.102539,4312.307617,4294.871582,450.0,3.0,68.0,,,,0.0,4.0,2.0,0.0,0.0,4.0,16.666666,,,,,,,,,,,,,,,,,,,,,,,,,,,,,,,,,,,,,,,,,,,,,,,,,,,,,,10.0,0.0,64.0,0.488979,1.0,0.0,,,,,,,,,,,,,,,,,,,,,,,,,
12882,1650415181.096898,1650415181.113703,14.0,0.0,4360.512695,4422.563965,4290.769043,4307.179688,4278.974121,450.0,3.0,68.0,,,,0.0,4.0,2.0,0.0,0.0,4.0,16.666666,,,,,,,,7.0,0.0,0.095187,-0.546875,0.365723,0.74707,0.8999159999999999,-0.448737,-0.148928,-0.045959,-0.05613099999999999,-0.017405,,,,,,,,,,,,,,,,,,,,,,,,,,,,,,,,,,,,,,,,,,,,,,,,,,,,,,,,,,,,,,,,,
12883,1650415181.1047132,1650415181.121517,15.0,0.0,4380.512695,4411.282227000001,4298.461426,4311.282227000001,4318.974121,16203.0,3.0,68.0,,,,0.0,4.0,2.0,0.0,0.0,4.0,16.666666,,,,,,,,,,,,,,,,,,,,,,,,,,,,,,,,,,,,,,,,,,,,,,,,,,,,,,,,,,,,,,,,,,,,,,,,,,,,,,,,,,,,
12884,1650415181.112527,1650415181.129332,16.0,0.0,4374.358886999999,4421.538574,4301.538574,4314.358886999999,4306.153809,0.0,3.0,68.0,,,,0.0,4.0,2.0,0.0,0.0,4.0,16.666666,,,,,,,,8.0,0.0,0.09424400000000001,-0.546875,0.365967,0.74707,0.8921030000000001,-0.446784,-0.14941600000000002,-0.045904,-0.056036,-0.018936,,,,,,,,,,,,,,,,,,,,,,,,,,,,,,,,,,,,,,,,,,,,,,,,,,,,,,,,,,,,,,,,,
12885,1650415181.120342,1650415181.1372461,17.0,0.0,4340.512695,4424.615234000001,4304.102539,4305.128418,4255.897461,0.0,3.0,68.0,,,,0.0,4.0,2.0,0.0,0.0,4.0,16.666666,,,,,,,,,,,,,,,,,,,,,,,,,,,,,,,,,,,,,,,,,,,,,,,,,,,,,,10.0,0.0,64.0,0.488979,1.0,0.0,,,,,,,,,,,,,,,,,,,,,,,,,
12886,1650415181.128156,1650415181.145161,18.0,0.0,4323.077147999999,4443.589844,4285.128418,4299.487305,4293.333496,0.0,3.0,68.0,,,,0.0,4.0,2.0,0.0,0.0,4.0,16.666666,,,,,,,,9.0,0.0,0.092816,-0.5471189999999999,0.365967,0.74707,0.9116350000000001,-0.435554,-0.135256,-0.045855,-0.056047,-0.014063999999999998,,,,,,,,,,,,,,,,,,,,,,,,,,,,,,,,,,,,,,,,,,,,,,,,,,,,,,,,,,,,,,,,,
12887,1650415181.135971,1650415181.152976,19.0,0.0,4315.897461,4453.333496,4257.94873,4303.589844,4331.282227000001,0.0,3.0,68.0,,,,0.0,4.0,2.0,0.0,0.0,4.0,16.666666,,,,,,,,,,,,,,,,,,,,,,,,,,,,,,,,,,,,,,,,,,,,,,,,,,,,,,,,,,,,,,,,,,,,,,,,,,,,,,,,,,,,
12888,1650415181.143785,1650415181.16089,20.0,0.0,4295.384765999999,4441.538574,4274.871582,4306.153809,4270.769043,0.0,3.0,68.0,,,,0.0,4.0,2.0,0.0,0.0,4.0,16.666666,,,,,,,,10.0,0.0,0.09424400000000001,-0.546875,0.365967,0.74707,0.885267,-0.42969399999999996,-0.126467,-0.045713,-0.056058000000000004,-0.012609,,,,,,,,,,,,,,,,,,,,,,,,,,,,,,,,,,,,,,,,,,,,,,,,,,,,,,,,,,,,,,,,,
12889,1650415181.1516,1650415181.168705,21.0,0.0,4297.94873,4449.743652,4292.307617,4304.615234000001,4243.589844,0.0,3.0,68.0,,,,0.0,4.0,2.0,0.0,0.0,4.0,16.666666,,,,,,,,,,,,,,,,,,,,,,,,,,,,,,,,,,,,,,,,,,,,,,,,,,,,,,0.0,0.0,64.0,0.488979,1.0,0.0,,,,,,,,,,,,,,,,,,,,,,,,,
12890,1650415181.159414,1650415181.176619,22.0,0.0,4331.794922,4435.384765999999,4271.794922,4303.589844,4300.0,0.0,3.0,68.0,,,,0.0,4.0,2.0,0.0,0.0,4.0,16.666666,,,,,,,,11.0,0.0,0.093291,-0.546875,0.366211,0.74707,0.8969860000000001,-0.44434300000000004,-0.131838,-0.045683,-0.056019000000000006,-0.017549000000000002,,,,,,,,,,,,,,,,,,,,,,,,,,,,,,,,,,,,,,,,,,,,,,,,,,,,,,,,,,,,,,,,,
12891,1650415181.167229,1650415181.184534,23.0,0.0,4350.769043,4366.153809,4267.692383,4308.205078,4313.846191,0.0,3.0,68.0,,,,0.0,4.0,2.0,0.0,0.0,4.0,16.666666,,,,,,,,,,,,,,,,,,,,,,,,,,,,,,,,,,,,,,,,,,,,,,,,,,,,,,,,,,,,,,,,,,,,,,,,,,,,,,,,,,,,
12892,1650415181.1750429,1650415181.192349,24.0,0.0,4336.922852000001,4329.743652,4285.128418,4313.846191,4277.436035,0.0,3.0,68.0,,,,0.0,4.0,2.0,0.0,0.0,4.0,16.666666,,,,,,,,12.0,0.0,0.091848,-0.5471189999999999,0.366211,0.74707,0.8989389999999999,-0.45655,-0.137209,-0.045655,-0.056032000000000005,-0.019066,,,,,,,,,,,,,,,,,,,,,,,,,,,,,,,,,,,,,,,,,,,,,,,,,,,,,,,,,,,,,,,,,
12893,1650415181.182857,1650415181.2001631,25.0,0.0,4317.436035,4364.102539,4281.538574,4306.666504,4267.692383,0.0,3.0,68.0,,,,0.0,4.0,2.0,0.0,0.0,4.0,16.666666,,,,,,,,,,,,,,,,,,,,1.0,0.0,0.0,,,,,,,,,,,,,,,,,,,,,,,,,,,,,,,,0.0,0.0,64.0,0.589078,1.0,0.0,23.020546,13.101728999999999,4.313807,2.137793,3.7980120000000004,20.877956,30.268387,6.758183,5.643343,5.221604,4.397792,4.348599,2.102602,2.1588220000000002,2.227698,4.891479,3.14322,0.9422520000000001,0.23398200000000002,0.190644,7.4615800000000005,6.224872,7.928236,2.490319,2.6859040000000003
12894,1650415181.1906722,1650415181.208078,26.0,0.0,4315.897461,4373.846191,4272.307617,4294.871582,4282.563965,0.0,3.0,68.0,,,,0.0,4.0,2.0,0.0,0.0,4.0,16.666666,,,,,,,,13.0,0.0,0.091848,-0.5471189999999999,0.366211,0.74707,0.9087049999999999,-0.446296,-0.123537,-0.045729,-0.056142,-0.01711,,,,,,,,,,,,,,,,,,,,,,,,,,,,,,,,,,,,,,,,,,,,,,,,,,,,,,,,,,,,,,,,,
12895,1650415181.1984859,1650415181.215892,27.0,0.0,4315.384765999999,4369.743652,4279.487305,4294.871582,4284.615234000001,0.0,3.0,68.0,,,,0.0,4.0,2.0,0.0,0.0,4.0,16.666666,,,,,,,,,,,,,,,,,,,,,,,,,,,,,,,,,,,,,,,,,,,,,,,,,,,,,,,,,,,,,,,,,,,,,,,,,,,,,,,,,,,,
12896,1650415181.206301,1650415181.223807,28.0,0.0,4310.256348,4395.897461,4279.487305,4297.94873,4282.563965,0.0,3.0,68.0,,,,0.0,4.0,2.0,0.0,0.0,4.0,16.666666,,,,,,,,14.0,0.0,0.091848,-0.5471189999999999,0.366211,0.74707,0.8994280000000001,-0.45801499999999995,-0.136233,-0.045648,-0.056094000000000005,-0.018573,,,,,,,,,,,,,,,,,,,,,,,,,,,,,,,,,,,,,,,,,,,,,,,,,,,,,,,,,,,,,,,,,
12897,1650415181.2141151,1650415181.2317212,29.0,0.0,4329.743652,4383.589844,4289.230957,4296.922852000001,4300.0,0.0,3.0,68.0,,,,0.0,4.0,2.0,0.0,0.0,4.0,16.666666,,,,,,,,,,,,,,,,,,,,,,,,,,,,,,,,,,,,,,,,,,,,,,,,,,,,,,0.0,0.0,64.0,0.589078,1.0,0.0,,,,,,,,,,,,,,,,,,,,,,,,,
12898,1650415181.22193,1650415181.239536,30.0,0.0,4369.230957,4356.410156,4305.641113000001,4304.615234000001,4318.461426,0.0,3.0,68.0,,,,0.0,4.0,2.0,0.0,0.0,4.0,16.666666,,,,,,,,15.0,0.0,0.093291,-0.546875,0.366211,0.74707,0.893568,-0.447272,-0.132326,-0.045771,-0.056051,-0.01989,,,,,,,,,,,,,,,,,,,,,,,,,,,,,,,,,,,,,,,,,,,,,,,,,,,,,,,,,,,,,,,,,
12899,1650415181.229744,1650415181.247451,31.0,0.0,4406.153809,4385.128418,4295.384765999999,4313.846191,4326.153809,0.0,3.0,68.0,,,,0.0,4.0,2.0,0.0,0.0,4.0,16.666666,,,,,,,,,,,,,,,,,,,,,,,,,,,,,,,,,,,,,,,,,,,,,,,,,,,,,,,,,,,,,,,,,,,,,,,,,,,,,,,,,,,,
12900,1650415181.237559,1650415181.255265,32.0,0.0,4456.410156,4416.410156,4277.436035,4310.769043,4347.179688,0.0,3.0,68.0,,,,0.0,4.0,2.0,0.0,0.0,4.0,16.666666,,,,,,,,16.0,0.0,0.09232699999999999,-0.546875,0.36645500000000003,0.74707,0.8833139999999999,-0.44971400000000006,-0.11914200000000001,-0.045735000000000005,-0.056061,-0.021026,,,,,,,,,,,,,,,,,,,,,,,,,,,,,,,,,,,,,,,,,,,,,,,,,,,,,,,,,,,,,,,,,
12901,1650415181.245373,1650415181.2630801,33.0,0.0,4518.974121,4408.717772999999,4277.94873,4307.179688,4382.05127,0.0,3.0,68.0,,,,0.0,4.0,2.0,0.0,0.0,4.0,16.666666,,,,,,,,,,,,,,,,,,,,,,,,,,,,,,,,,,,,,,,,,,,,,,,,,,,,,,0.0,0.0,64.0,0.589078,1.0,0.0,,,,,,,,,,,,,,,,,,,,,,,,,
12902,1650415181.2531881,1650415181.2707949,34.0,0.0,4580.512695,4431.794922,4291.794922,4314.871582,4406.153809,0.0,3.0,68.0,,,,0.0,4.0,2.0,0.0,0.0,4.0,16.666666,,,,,,,,17.0,0.0,0.09232699999999999,-0.546875,0.36645500000000003,0.74707,0.886732,-0.45069,-0.141604,-0.045654,-0.055973,-0.022097,,,,,,,,,,,,,,,,,,,,,,,,,,,,,,,,,,,,,,,,,,,,,,,,,,,,,,,,,,,,,,,,,
12903,1650415181.261002,1650415181.278609,35.0,0.0,4629.230957,4458.974121,4291.794922,4322.563965,4428.717772999999,0.0,3.0,68.0,,,,0.0,4.0,2.0,0.0,0.0,4.0,16.666666,,,,,,,,,,,,,,,,,,,,,,,,,,,,,,,,,,,,,,,,,,,,,,,,,,,,,,,,,,,,,,,,,,,,,,,,,,,,,,,,,,,,
12904,1650415181.268817,1650415181.286324,36.0,0.0,4641.538574,4432.307617,4284.615234000001,4313.846191,4438.974121,0.0,3.0,68.0,,,,0.0,4.0,2.0,0.0,0.0,4.0,16.666666,,,,,,,,18.0,0.0,0.091848,-0.5471189999999999,0.366211,0.74707,0.8813610000000001,-0.44238999999999995,-0.14844000000000002,-0.045629,-0.055942,-0.019839,,,,,,,,,,,,,,,,,,,,,,,,,,,,,,,,,,,,,,,,,,,,,,,,,,,,,,,,,,,,,,,,,
12905,1650415181.276631,1650415181.294239,37.0,0.0,4652.307617,4441.025879,4290.769043,4310.769043,4430.769043,0.0,3.0,68.0,,,,0.0,4.0,2.0,0.0,0.0,4.0,16.666666,,,,,,,,,,,,,,,,,,,,,,,,,,,,,,,,,,,,,,,,,,,,,,,,,,,,,,0.0,0.0,64.0,0.589078,1.0,0.0,,,,,,,,,,,,,,,,,,,,,,,,,
12906,1650415181.2844448,1650415181.302053,38.0,0.0,4662.05127,4473.846191,4301.025879,4319.487305,4432.820313,0.0,3.0,68.0,,,,0.0,4.0,2.0,0.0,0.0,4.0,16.666666,,,,,,,,19.0,0.0,0.09087,-0.5471189999999999,0.36645500000000003,0.74707,0.8808729999999999,-0.45557299999999995,-0.141604,-0.045558999999999995,-0.055914,-0.020980000000000002,,,,,,,,,,,,,,,,,,,,,,,,,,,,,,,,,,,,,,,,,,,,,,,,,,,,,,,,,,,,,,,,,
12907,1650415181.29226,1650415181.309968,39.0,0.0,4628.205078,4461.538574,4308.717772999999,4302.05127,4434.358886999999,0.0,3.0,68.0,,,,0.0,4.0,2.0,0.0,0.0,4.0,16.666666,,,,,,,,,,,,,,,,,,,,,,,,,,,,,,,,,,,,,,,,,,,,,,,,,,,,,,,,,,,,,,,,,,,,,,,,,,,,,,,,,,,,
12908,1650415181.300074,1650415181.317782,40.0,0.0,4596.922852000001,4467.692383,4297.436035,4298.974121,4418.461426,0.0,3.0,68.0,,,,0.0,4.0,2.0,0.0,0.0,4.0,16.666666,,,,,,,,20.0,0.0,0.09087,-0.5471189999999999,0.36645500000000003,0.74707,0.886732,-0.435554,-0.141604,-0.045641,-0.055889999999999995,-0.018784,,,,,,,,,,,,,,,,,,,,,,,,,,,,,,,,,,,,,,,,,,,,,,,,,,,,,,,,,,,,,,,,,
12909,1650415181.307889,1650415181.3256972,41.0,0.0,4587.179688,4480.512695,4285.128418,4324.102539,4392.820313,0.0,3.0,68.0,,,,0.0,4.0,2.0,0.0,0.0,4.0,16.666666,,,,,,,,,,,,,,,,,,,,1.0,0.0,0.0,,,,,,,,,,,,,,,,,,,,,,,,,,,,,,,,0.0,0.0,64.0,0.64359,1.0,0.0,29.922579,11.217086,4.198054,2.213966,3.119957,18.819906,26.913915999999997,7.571941000000001,5.8496120000000005,5.131402,4.261821,3.909098,2.1474279999999997,2.374398,2.0637119999999998,1.741889,1.099006,0.364194,0.093418,0.07285,10.632589,5.737129,6.187479,2.8241709999999998,2.5629869999999997
12910,1650415181.315703,1650415181.3335118,42.0,0.0,4537.436035,4432.820313,4293.333496,4278.461426,4366.153809,0.0,3.0,68.0,,,,0.0,4.0,2.0,0.0,0.0,4.0,16.666666,,,,,,,,21.0,0.0,0.09232699999999999,-0.546875,0.36645500000000003,0.74707,0.900893,-0.453132,-0.143557,-0.045667,-0.055915999999999993,-0.020225999999999997,,,,,,,,,,,,,,,,,,,,,,,,,,,,,,,,,,,,,,,,,,,,,,,,,,,,,,,,,,,,,,,,,
12911,1650415181.323518,1650415181.341426,43.0,0.0,4469.230957,4419.487305,4293.846191,4204.102539,4343.589844,0.0,3.0,68.0,,,,0.0,4.0,2.0,0.0,0.0,4.0,16.666666,,,,,,,,,,,,,,,,,,,,,,,,,,,,,,,,,,,,,,,,,,,,,,,,,,,,,,,,,,,,,,,,,,,,,,,,,,,,,,,,,,,,
12912,1650415181.331332,1650415181.349241,44.0,0.0,4450.769043,4465.128418,4276.922852000001,4223.077147999999,4338.461426,0.0,3.0,68.0,,,,0.0,4.0,2.0,0.0,0.0,4.0,16.666666,,,,,,,,22.0,0.0,0.09232699999999999,-0.546875,0.36645500000000003,0.74707,0.885267,-0.446784,-0.135256,-0.045593,-0.055987999999999996,-0.018155,,,,,,,,,,,,,,,,,,,,,,,,,,,,,,,,,,,,,,,,,,,,,,,,,,,,,,,,,,,,,,,,,
12913,1650415181.339147,1650415181.357155,45.0,0.0,4454.871582,4450.769043,4276.922852000001,4285.128418,4341.025879,0.0,3.0,68.0,,,,0.0,4.0,2.0,0.0,0.0,4.0,16.666666,,,,,,,,,,,,,,,,,,,,,,,,,,,,,,,,,,,,,,,,,,,,,,,,,,,,,,0.0,0.0,64.0,0.64359,1.0,0.0,,,,,,,,,,,,,,,,,,,,,,,,,
12914,1650415181.346961,1650415181.3650699,46.0,0.0,4440.512695,4395.384765999999,4290.769043,4315.897461,4332.307617,0.0,3.0,68.0,,,,0.0,4.0,2.0,0.0,0.0,4.0,16.666666,,,,,,,,23.0,0.0,0.09232699999999999,-0.546875,0.36645500000000003,0.74707,0.895033,-0.43946,-0.136233,-0.045672000000000004,-0.05600499999999999,-0.02254,,,,,,,,,,,,,,,,,,,,,,,,,,,,,,,,,,,,,,,,,,,,,,,,,,,,,,,,,,,,,,,,,
12915,1650415181.354776,1650415181.372885,47.0,0.0,4410.769043,4401.025879,4296.410156,4292.820313,4315.897461,0.0,3.0,68.0,,,,0.0,4.0,2.0,0.0,0.0,4.0,16.666666,,,,,,,,,,,,,,,,,,,,,,,,,,,,,,,,,,,,,,,,,,,,,,,,,,,,,,,,,,,,,,,,,,,,,,,,,,,,,,,,,,,,
12916,1650415181.36259,1650415181.380699,48.0,0.0,4371.794922,4412.307617,4293.333496,4227.179688,4303.077147999999,0.0,3.0,68.0,,,,0.0,4.0,2.0,0.0,0.0,4.0,16.666666,,,,,,,,24.0,0.0,0.093291,-0.546875,0.366211,0.74707,0.8842909999999999,-0.44483100000000003,-0.13086099999999998,-0.045646,-0.055922,-0.023558000000000003,,,,,,,,,,,,,,,,,,,,,,,,,,,,,,,,,,,,,,,,,,,,,,,,,,,,,,,,,,,,,,,,,
12917,1650415181.3704052,1650415181.3886142,49.0,0.0,4342.05127,4370.769043,4279.487305,4218.974121,4290.769043,0.0,3.0,68.0,,,,0.0,4.0,2.0,0.0,0.0,4.0,16.666666,,,,,,,,,,,,,,,,,,,,,,,,,,,,,,,,,,,,,,,,,,,,,,,,,,,,,,10.0,0.0,64.0,0.64359,1.0,0.0,,,,,,,,,,,,,,,,,,,,,,,,,
12918,1650415181.378219,1650415181.3964279,50.0,0.0,4340.0,4353.846191,4276.922852000001,4286.666504,4293.333496,0.0,3.0,68.0,,,,0.0,4.0,2.0,0.0,0.0,4.0,16.666666,,,,,,,,25.0,0.0,0.093291,-0.546875,0.366211,0.74707,0.897475,-0.45069,-0.138674,-0.04572,-0.055896,-0.024376,,,,,,,,,,,,,,,,,,,,,,,,,,,,,,,,,,,,,,,,,,,,,,,,,,,,,,,,,,,,,,,,,
12919,1650415181.386034,1650415181.4041429,51.0,0.0,4354.871582,4357.94873,4285.128418,4310.769043,4312.820313,0.0,3.0,68.0,,,,0.0,4.0,2.0,0.0,0.0,4.0,16.666666,,,,,,,,,,,,,,,,,,,,,,,,,,,,,,,,,,,,,,,,,,,,,,,,,,,,,,,,,,,,,,,,,,,,,,,,,,,,,,,,,,,,
12920,1650415181.393848,1650415181.411958,52.0,0.0,4342.563965,4329.230957,4291.794922,4292.820313,4301.025879,0.0,3.0,68.0,,,,0.0,4.0,2.0,0.0,0.0,4.0,16.666666,,,,,,,,26.0,0.0,0.09232699999999999,-0.546875,0.36645500000000003,0.74707,0.895033,-0.43946,-0.136233,-0.045592,-0.05597100000000001,-0.02814,,,,,,,,,,,,,,,,,,,,,,,,,,,,,,,,,,,,,,,,,,,,,,,,,,,,,,,,,,,,,,,,,
12921,1650415181.4016619,1650415181.419673,53.0,0.0,4319.487305,4324.102539,4307.179688,4305.128418,4273.333496,0.0,3.0,68.0,,,,0.0,4.0,2.0,0.0,0.0,4.0,16.666666,,,,,,,,,,,,,,,,,,,,,,,,,,,,,,,,,,,,,,,,,,,,,,,,,,,,,,10.0,0.0,64.0,0.64359,1.0,0.0,,,,,,,,,,,,,,,,,,,,,,,,,
12922,1650415181.409477,1650415181.427487,54.0,0.0,4322.05127,4368.205078,4302.05127,4317.94873,4285.641113000001,0.0,3.0,68.0,,,,0.0,4.0,2.0,0.0,0.0,4.0,16.666666,,,,,,,,27.0,0.0,0.093291,-0.546875,0.366211,0.74707,0.897475,-0.45069,-0.138674,-0.045670999999999996,-0.05594,-0.0285,,,,,,,,,,,,,,,,,,,,,,,,,,,,,,,,,,,,,,,,,,,,,,,,,,,,,,,,,,,,,,,,,
12923,1650415181.4172919,1650415181.435202,55.0,0.0,4328.205078,4367.179688,4278.974121,4314.358886999999,4311.282227000001,0.0,3.0,68.0,,,,0.0,4.0,2.0,0.0,0.0,4.0,16.666666,,,,,,,,,,,,,,,,,,,,,,,,,,,,,,,,,,,,,,,,,,,,,,,,,,,,,,,,,,,,,,,,,,,,,,,,,,,,,,,,,,,,
12924,1650415181.425106,1650415181.443116,56.0,0.0,4321.025879,4313.846191,4305.641113000001,4313.333496,4296.922852000001,0.0,3.0,68.0,,,,0.0,4.0,2.0,0.0,0.0,4.0,16.666666,,,,,,,,28.0,0.0,0.091315,-0.546875,0.366211,0.747314,0.898451,-0.45069,-0.125002,-0.045743,-0.055913,-0.022622,,,,,,,,,,,,,,,,,,,,,,,,,,,,,,,,,,,,,,,,,,,,,,,,,,,,,,,,,,,,,,,,,
12925,1650415181.43292,1650415181.450931,57.0,0.0,4301.025879,4284.102539,4324.102539,4298.974121,4256.410156,0.0,3.0,68.0,,,,0.0,4.0,2.0,0.0,0.0,4.0,16.666666,,,,,,,,,,,,,,,,,,,,1.0,0.0,0.0,,,,,,,,,,,,,,,,,,,,,,,,,,,,,,,,10.0,0.0,64.0,0.55232,1.0,0.0,47.021747999999995,11.002342,4.230193,2.39078,2.546586,16.421709,23.812845000000003,8.328374,5.924958999999999,5.075099,3.917477,3.350024,2.459579,2.497072,1.966366,0.387129,0.26401199999999997,0.12204300000000001,0.042499,0.038219,17.011925,5.4660150000000005,4.738282,3.194292,2.481185
12926,1650415181.4407349,1650415181.4587462,58.0,0.0,4280.0,4285.128418,4276.410156,4254.871582,4251.794922,0.0,3.0,68.0,,,,0.0,4.0,2.0,0.0,0.0,4.0,16.666666,,,,,,,,29.0,0.0,0.091315,-0.546875,0.366211,0.747314,0.908217,-0.47168699999999997,-0.13135,-0.045661,-0.055986,-0.023534,,,,,,,,,,,,,,,,,,,,,,,,,,,,,,,,,,,,,,,,,,,,,,,,,,,,,,,,,,,,,,,,,
12927,1650415181.448549,1650415181.466461,59.0,0.0,4270.256348,4307.692383,4257.94873,4242.563965,4270.769043,0.0,3.0,68.0,,,,0.0,4.0,2.0,0.0,0.0,4.0,16.666666,,,,,,,,,,,,,,,,,,,,,,,,,,,,,,,,,,,,,,,,,,,,,,,,,,,,,,,,,,,,,,,,,,,,,,,,,,,,,,,,,,,,
12928,1650415181.4563642,1650415181.474375,60.0,0.0,4282.563965,4323.589844,4285.641113000001,4283.077147999999,4283.077147999999,0.0,3.0,68.0,,,,0.0,4.0,2.0,0.0,0.0,4.0,16.666666,,,,,,,,30.0,0.0,0.091315,-0.546875,0.366211,0.747314,0.894057,-0.448737,-0.134768,-0.045685,-0.055954,-0.018055,,,,,,,,,,,,,,,,,,,,,,,,,,,,,,,,,,,,,,,,,,,,,,,,,,,,,,,,,,,,,,,,,
12929,1650415181.4641778,1650415181.4821901,61.0,0.0,4280.0,4310.256348,4284.615234000001,4172.820313,4260.512695,0.0,3.0,68.0,,,,0.0,4.0,2.0,0.0,0.0,4.0,16.666666,,,,,,,,,,,,,,,,,,,,,,,,,,,,,,,,,,,,,,,,,,,,,,,,,,,,,,10.0,0.0,64.0,0.55232,1.0,0.0,,,,,,,,,,,,,,,,,,,,,,,,,
12930,1650415181.471993,1650415181.490104,62.0,0.0,4261.025879,4294.871582,4260.512695,3965.641113,4249.743652,0.0,3.0,68.0,,,,0.0,4.0,2.0,0.0,0.0,4.0,16.666666,,,,,,,,31.0,0.0,0.091315,-0.546875,0.366211,0.747314,0.9004040000000001,-0.457038,-0.132326,-0.045607999999999996,-0.055876,-0.019521,,,,,,,,,,,,,,,,,,,,,,,,,,,,,,,,,,,,,,,,,,,,,,,,,,,,,,,,,,,,,,,,,
12931,1650415181.4798071,1650415181.4979188,63.0,0.0,4273.333496,4289.230957,4265.128418,3946.6667479999996,4297.94873,0.0,3.0,68.0,,,,0.0,4.0,2.0,0.0,0.0,4.0,16.666666,,,,,,,,,,,,,,,,,,,,,,,,,,,,,,,,,,,,,,,,,,,,,,,,,,,,,,,,,,,,,,,,,,,,,,,,,,,,,,,,,,,,
12932,1650415181.487622,1650415181.505833,64.0,0.0,4279.487305,4294.358886999999,4285.128418,4055.897461,4320.512695,450.0,3.0,68.0,,,,0.0,4.0,2.0,0.0,0.0,4.0,16.666666,,,,,,,,32.0,0.0,0.091796,-0.5466310000000001,0.36645500000000003,0.747314,0.8881969999999999,-0.45557299999999995,-0.13379100000000002,-0.045638,-0.055854999999999995,-0.017519999999999997,,,,,,,,,,,,,,,,,,,,,,,,,,,,,,,,,,,,,,,,,,,,,,,,,,,,,,,,,,,,,,,,,
12933,1650415181.495436,1650415181.513648,65.0,0.0,4260.0,4316.410156,4280.0,4110.256348,4297.94873,450.0,3.0,68.0,,,,0.0,4.0,2.0,0.0,0.0,4.0,16.666666,,,,,,,,,,,,,,,,,,,,,,,,,,,,,,,,,,,,,,,,,,,,,,,,,,,,,,10.0,0.0,64.0,0.55232,1.0,0.0,,,,,,,,,,,,,,,,,,,,,,,,,
12934,1650415181.50325,1650415181.521563,66.0,0.0,4274.871582,4320.0,4270.256348,4157.94873,4296.922852000001,16191.0,3.0,68.0,,,,0.0,4.0,2.0,0.0,0.0,4.0,16.666666,,,,,,,,33.0,0.0,0.091796,-0.5466310000000001,0.36645500000000003,0.747314,0.8847790000000001,-0.46533900000000006,-0.13281500000000002,-0.045614999999999996,-0.055836000000000004,-0.015671,,,,,,,,,,,,,,,,,,,,,,,,,,,,,,,,,,,,,,,,,,,,,,,,,,,,,,,,,,,,,,,,,
12935,1650415181.511065,1650415181.529377,67.0,0.0,4303.077147999999,4301.538574,4286.666504,4212.307617,4306.153809,450.0,3.0,68.0,,,,0.0,4.0,2.0,0.0,0.0,4.0,16.666666,,,,,,,,,,,,,,,,,,,,,,,,,,,,,,,,,,,,,,,,,,,,,,,,,,,,,,,,,,,,,,,,,,,,,,,,,,,,,,,,,,,,
12936,1650415181.5188801,1650415181.537292,68.0,0.0,4276.922852000001,4320.512695,4302.563965,4185.641113000001,4284.102539,270.0,3.0,68.0,,,,0.0,4.0,2.0,0.0,0.0,4.0,16.666666,,,,,,,,34.0,0.0,0.092235,-0.546387,0.366211,0.747559,0.891127,-0.458503,-0.139651,-0.045545999999999996,-0.056014,-0.014006000000000001,,,,,,,,,,,,,,,,,,,,,,,,,,,,,,,,,,,,,,,,,,,,,,,,,,,,,,,,,,,,,,,,,
12937,1650415181.526694,1650415181.5451062,69.0,0.0,4243.589844,4335.897461,4284.615234000001,4175.384765999999,4267.179688,450.0,3.0,68.0,,,,0.0,4.0,2.0,0.0,0.0,4.0,16.666666,,,,,,,,,,,,,,,,,,,,,,,,,,,,,,,,,,,,,,,,,,,,,,,,,,,,,,0.0,0.0,64.0,0.55232,1.0,0.0,,,,,,,,,,,,,,,,,,,,,,,,,
12938,1650415181.534508,1650415181.5530212,70.0,0.0,4259.487305,4320.0,4277.94873,4243.077147999999,4276.410156,1.0,3.0,68.0,,,,0.0,4.0,2.0,0.0,0.0,4.0,16.666666,,,,,,,,35.0,0.0,0.092235,-0.546387,0.366211,0.747559,0.8916149999999999,-0.45606199999999997,-0.135744,-0.045531999999999996,-0.056126,-0.015877000000000002,,,,,,,,,,,,,,,,,,,,,,,,,,,,,,,,,,,,,,,,,,,,,,,,,,,,,,,,,,,,,,,,,
12939,1650415181.542323,1650415181.5608358,71.0,0.0,4272.307617,4328.717772999999,4299.487305,4254.358886999999,4265.641113000001,450.0,3.0,68.0,,,,0.0,4.0,2.0,0.0,0.0,4.0,16.666666,,,,,,,,,,,,,,,,,,,,,,,,,,,,,,,,,,,,,,,,,,,,,,,,,,,,,,,,,,,,,,,,,,,,,,,,,,,,,,,,,,,,
12940,1650415181.5501368,1650415181.56875,72.0,0.0,4264.102539,4334.871582,4304.615234000001,4161.025879,4243.077147999999,450.0,3.0,68.0,,,,0.0,4.0,2.0,0.0,0.0,4.0,16.666666,,,,,,,,36.0,0.0,0.09126000000000001,-0.546387,0.36645500000000003,0.747559,0.900893,-0.45410900000000004,-0.133303,-0.045422000000000004,-0.056128,-0.017463,,,,,,,,,,,,,,,,,,,,,,,,,,,,,,,,,,,,,,,,,,,,,,,,,,,,,,,,,,,,,,,,,
12941,1650415181.557952,1650415181.576565,73.0,0.0,4268.717772999999,4314.871582,4294.358886999999,4116.410156,4248.205078,0.0,3.0,68.0,,,,0.0,4.0,2.0,0.0,0.0,4.0,16.666666,1.0,16.666666,3.0,2.0,0.0,0.0,4.0,,,,,,,,,,,,,1.0,0.0,0.0,,,,,,,,,,,,,,,,,,,,,,,,,,,,,,,,0.0,0.0,64.0,0.265704,1.0,0.0,72.221626,13.181598000000001,4.348972,2.634301,2.126148,14.781294,22.61175,8.850508999999999,5.921839,5.142456,3.570932,2.919196,2.933511,2.494652,1.963554,0.2211,0.116353,0.068173,0.083597,0.06500700000000001,25.676146,5.585749,3.7057230000000003,3.4411709999999998,2.4527900000000002
12942,1650415181.565766,1650415181.58428,74.0,0.0,4288.717772999999,4321.538574,4292.820313,4198.461426,4289.743652,450.0,3.0,68.0,,,,0.0,4.0,2.0,0.0,0.0,4.0,16.666666,,,,,,,,37.0,0.0,0.09367,-0.546143,0.366211,0.747559,0.906752,-0.45410900000000004,-0.127443,-0.045519,-0.056179999999999994,-0.015619,,,,,,,,,,,,,,,,,,,,,,,,,,,,,,,,,,,,,,,,,,,,,,,,,,,,,,,,,,,,,,,,,
12943,1650415181.573581,1650415181.592094,75.0,0.0,4288.717772999999,4347.179688,4298.461426,4239.487305,4309.743652,16234.0,3.0,68.0,,,,0.0,4.0,2.0,0.0,0.0,4.0,16.666666,,,,,,,,,,,,,,,,,,,,,,,,,,,,,,,,,,,,,,,,,,,,,,,,,,,,,,,,,,,,,,,,,,,,,,,,,,,,,,,,,,,,
12944,1650415181.581395,1650415181.599809,76.0,0.0,4265.128418,4328.205078,4300.512695,4187.692383,4278.461426,450.0,3.0,68.0,,,,0.0,4.0,2.0,0.0,0.0,4.0,16.666666,,,,,,,,38.0,0.0,0.09072000000000001,-0.546143,0.36645500000000003,0.747803,0.8960100000000001,-0.447272,-0.132326,-0.045557,-0.056128,-0.020259,,,,,,,,,,,,,,,,,,,,,,,,,,,,,,,,,,,,,,,,,,,,,,,,,,,,,,,,,,,,,,,,,
12945,1650415181.58921,1650415181.607624,77.0,0.0,4251.794922,4295.384765999999,4294.358886999999,4171.282227000001,4254.871582,450.0,3.0,68.0,,,,0.0,4.0,2.0,0.0,0.0,4.0,16.666666,,,,,,,,,,,,,,,,,,,,,,,,,,,,,,,,,,,,,,,,,,,,,,,,,,,,,,0.0,0.0,64.0,0.265704,1.0,0.0,,,,,,,,,,,,,,,,,,,,,,,,,
12946,1650415181.597024,1650415181.615338,78.0,0.0,4265.641113000001,4303.077147999999,4300.0,4201.538574,4263.077147999999,450.0,3.0,68.0,,,,0.0,4.0,2.0,0.0,0.0,4.0,16.666666,,,,,,,,39.0,0.0,0.092177,-0.545898,0.36645500000000003,0.747803,0.8886850000000001,-0.45410900000000004,-0.137209,-0.045445,-0.05613099999999999,-0.021407,,,,,,,,,,,,,,,,,,,,,,,,,,,,,,,,,,,,,,,,,,,,,,,,,,,,,,,,,,,,,,,,,
12947,1650415181.6048381,1650415181.6232529,79.0,0.0,4293.846191,4311.282227000001,4308.205078,4210.256348,4270.769043,16234.0,3.0,68.0,,,,0.0,4.0,2.0,0.0,0.0,4.0,16.666666,,,,,,,,,,,,,,,,,,,,,,,,,,,,,,,,,,,,,,,,,,,,,,,,,,,,,,,,,,,,,,,,,,,,,,,,,,,,,,,,,,,,
12948,1650415181.612653,1650415181.631068,80.0,0.0,4326.153809,4296.922852000001,4293.333496,4203.589844,4293.333496,450.0,3.0,68.0,,,,0.0,4.0,2.0,0.0,0.0,4.0,16.666666,,,,,,,,40.0,0.0,0.092177,-0.545898,0.36645500000000003,0.747803,0.902358,-0.45069,-0.138674,-0.045538999999999996,-0.056133,-0.022586000000000002,,,,,,,,,,,,,,,,,,,,,,,,,,,,,,,,,,,,,,,,,,,,,,,,,,,,,,,,,,,,,,,,,
12949,1650415181.620468,1650415181.638882,81.0,0.0,4386.666504,4285.128418,4263.077147999999,4223.077147999999,4335.384765999999,450.0,3.0,68.0,,,,0.0,4.0,2.0,0.0,0.0,4.0,16.666666,,,,,,,,,,,,,,,,,,,,,,,,,,,,,,,,,,,,,,,,,,,,,,,,,,,,,,0.0,0.0,64.0,0.265704,1.0,0.0,,,,,,,,,,,,,,,,,,,,,,,,,
12950,1650415181.628282,1650415181.6465971,82.0,0.0,4476.410156,4326.666504,4256.922852000001,4242.563965,4374.871582,450.0,3.0,68.0,,,,0.0,4.0,2.0,0.0,0.0,4.0,16.666666,,,,,,,,41.0,0.0,0.092651,-0.545654,0.366699,0.747803,0.901869,-0.44824899999999995,-0.141604,-0.045526,-0.056135000000000004,-0.020279,,,,,,,,,,,,,,,,,,,,,,,,,,,,,,,,,,,,,,,,,,,,,,,,,,,,,,,,,,,,,,,,,
12951,1650415181.636096,1650415181.654512,83.0,0.0,4553.846191,4374.358886999999,4292.307617,4216.410156,4409.230957,16234.0,3.0,68.0,,,,0.0,4.0,2.0,0.0,0.0,4.0,16.666666,,,,,,,,,,,,,,,,,,,,,,,,,,,,,,,,,,,,,,,,,,,,,,,,,,,,,,,,,,,,,,,,,,,,,,,,,,,,,,,,,,,,
12952,1650415181.643911,1650415181.6623259,84.0,0.0,4611.282227000001,4376.410156,4333.846191,4193.846191,4429.230957,450.0,3.0,68.0,,,,0.0,4.0,2.0,0.0,0.0,4.0,16.666666,,,,,,,,42.0,0.0,0.091201,-0.545898,0.366699,0.747803,0.906752,-0.449226,-0.138674,-0.045563,-0.056137,-0.021474,,,,,,,,,,,,,,,,,,,,,,,,,,,,,,,,,,,,,,,,,,,,,,,,,,,,,,,,,,,,,,,,,
12953,1650415181.651725,1650415181.670241,85.0,0.0,4666.153809,4374.358886999999,4333.333496,4215.897461,4449.743652,450.0,3.0,68.0,,,,0.0,4.0,2.0,0.0,0.0,4.0,16.666666,,,,,,,,,,,,,,,,,,,,,,,,,,,,,,,,,,,,,,,,,,,,,,,,,,,,,,0.0,0.0,64.0,0.265704,1.0,0.0,,,,,,,,,,,,,,,,,,,,,,,,,
12954,1650415181.65954,1650415181.678055,86.0,0.0,4687.179688,4358.461426,4280.0,4222.05127,4473.333496,450.0,3.0,68.0,,,,0.0,4.0,2.0,0.0,0.0,4.0,16.666666,,,,,,,,43.0,0.0,0.092651,-0.545654,0.366699,0.747803,0.9052870000000001,-0.43994799999999995,-0.12695499999999998,-0.045499,-0.05609,-0.016299,,,,,,,,,,,,,,,,,,,,,,,,,,,,,,,,,,,,,,,,,,,,,,,,,,,,,,,,,,,,,,,,,
12955,1650415181.6673539,1650415181.6859698,87.0,0.0,4668.717772999999,4350.769043,4273.846191,4203.589844,4483.589844,16234.0,3.0,68.0,,,,0.0,4.0,2.0,0.0,0.0,4.0,16.666666,,,,,,,,,,,,,,,,,,,,,,,,,,,,,,,,,,,,,,,,,,,,,,,,,,,,,,,,,,,,,,,,,,,,,,,,,,,,,,,,,,,,
12956,1650415181.675169,1650415181.693785,88.0,0.0,4678.461426,4369.743652,4313.846191,4235.384765999999,4490.256348,450.0,3.0,68.0,,,,0.0,4.0,2.0,0.0,0.0,4.0,16.666666,,,,,,,,44.0,0.0,0.092651,-0.545654,0.366699,0.747803,0.886732,-0.46387399999999995,-0.13916199999999998,-0.045442,-0.05619400000000001,-0.017941,,,,,,,,,,,,,,,,,,,,,,,,,,,,,,,,,,,,,,,,,,,,,,,,,,,,,,,,,,,,,,,,,
12957,1650415181.682983,1650415181.7015991,89.0,0.0,4698.974121,4386.666504,4287.692383,4278.461426,4497.94873,450.0,3.0,68.0,,,,0.0,4.0,2.0,0.0,0.0,4.0,16.666666,,,,,,,,,,,,,,,,,,,,1.0,0.0,0.0,,,,,,,,,,,,,,,,,,,,,,,,,,,,,,,,0.0,0.0,64.0,0.375897,1.0,0.0,102.016823,17.643747,4.505071,2.855453,1.8398150000000002,15.033623,23.540748999999998,9.028687,5.93763,5.313855,3.382251,2.744088,3.374289,2.357477,2.0217709999999998,1.5192649999999999,0.659144,0.24637399999999998,0.37846599999999997,0.245008,35.098704999999995,6.188346,3.030758,3.444919,2.4908490000000003
12958,1650415181.690798,1650415181.709314,90.0,0.0,4670.769043,4407.692383,4252.307617,4277.436035,4478.974121,450.0,3.0,68.0,,,,0.0,4.0,2.0,0.0,0.0,4.0,16.666666,,,,,,,,45.0,0.0,0.092651,-0.545654,0.366699,0.747803,0.894057,-0.458503,-0.128908,-0.045487,-0.056237999999999996,-0.013021000000000001,,,,,,,,,,,,,,,,,,,,,,,,,,,,,,,,,,,,,,,,,,,,,,,,,,,,,,,,,,,,,,,,,
12959,1650415181.698612,1650415181.717228,91.0,0.0,4631.794922,4444.102539,4290.256348,4255.897461,4444.102539,16234.0,3.0,68.0,,,,0.0,4.0,2.0,0.0,0.0,4.0,16.666666,,,,,,,,,,,,,,,,,,,,,,,,,,,,,,,,,,,,,,,,,,,,,,,,,,,,,,,,,,,,,,,,,,,,,,,,,,,,,,,,,,,,
12960,1650415181.7064269,1650415181.725043,92.0,0.0,4613.333496,4462.05127,4323.077147999999,4245.128418,4446.153809,450.0,3.0,68.0,,,,0.0,4.0,2.0,0.0,0.0,4.0,16.666666,,,,,,,,46.0,0.0,0.092651,-0.545654,0.366699,0.747803,0.8896620000000001,-0.45215500000000003,-0.13916199999999998,-0.045626,-0.056083,-0.011524,,,,,,,,,,,,,,,,,,,,,,,,,,,,,,,,,,,,,,,,,,,,,,,,,,,,,,,,,,,,,,,,,
12961,1650415181.714241,1650415181.732958,93.0,0.0,4602.05127,4434.871582,4307.179688,4278.461426,4453.846191,450.0,3.0,68.0,,,,0.0,4.0,2.0,0.0,0.0,4.0,16.666666,,,,,,,,,,,,,,,,,,,,,,,,,,,,,,,,,,,,,,,,,,,,,,,,,,,,,,0.0,0.0,64.0,0.375897,1.0,0.0,,,,,,,,,,,,,,,,,,,,,,,,,
12962,1650415181.7220562,1650415181.740772,94.0,0.0,4575.384765999999,4414.358886999999,4294.358886999999,4292.820313,4425.641113000001,450.0,3.0,68.0,,,,0.0,4.0,2.0,0.0,0.0,4.0,16.666666,,,,,,,,47.0,0.0,0.092651,-0.545654,0.366699,0.747803,0.8886850000000001,-0.44824899999999995,-0.134279,-0.045654,-0.056139,-0.013594,,,,,,,,,,,,,,,,,,,,,,,,,,,,,,,,,,,,,,,,,,,,,,,,,,,,,,,,,,,,,,,,,
12963,1650415181.7298698,1650415181.748687,95.0,0.0,4551.282227000001,4383.077147999999,4297.436035,4240.0,4409.230957,16234.0,3.0,68.0,,,,0.0,4.0,2.0,0.0,0.0,4.0,16.666666,,,,,,,,,,,,,,,,,,,,,,,,,,,,,,,,,,,,,,,,,,,,,,,,,,,,,,,,,,,,,,,,,,,,,,,,,,,,,,,,,,,,
12964,1650415181.737685,1650415181.756501,96.0,0.0,4520.512695,4328.717772999999,4311.794922,4226.666504,4408.717772999999,450.0,3.0,68.0,,,,0.0,4.0,2.0,0.0,0.0,4.0,16.666666,,,,,,,,48.0,0.0,0.094077,-0.5454100000000001,0.366699,0.747803,0.885267,-0.45020200000000005,-0.145022,-0.045727,-0.055945,-0.015458000000000001,,,,,,,,,,,,,,,,,,,,,,,,,,,,,,,,,,,,,,,,,,,,,,,,,,,,,,,,,,,,,,,,,
12965,1650415181.7454991,1650415181.764216,97.0,0.0,4472.307617,4317.94873,4333.333496,4308.205078,4375.384765999999,450.0,3.0,68.0,,,,0.0,4.0,2.0,0.0,0.0,4.0,16.666666,,,,,,,,,,,,,,,,,,,,,,,,,,,,,,,,,,,,,,,,,,,,,,,,,,,,,,10.0,0.0,64.0,0.375897,1.0,0.0,,,,,,,,,,,,,,,,,,,,,,,,,
12966,1650415181.753313,1650415181.772131,98.0,0.0,4440.512695,4317.94873,4317.94873,4345.128418,4332.820313,450.0,3.0,68.0,,,,0.0,4.0,2.0,0.0,0.0,4.0,16.666666,,,,,,,,49.0,0.0,0.092116,-0.5454100000000001,0.366699,0.748047,0.8969860000000001,-0.46924499999999997,-0.138674,-0.045842,-0.056014999999999995,-0.013715999999999999,,,,,,,,,,,,,,,,,,,,,,,,,,,,,,,,,,,,,,,,,,,,,,,,,,,,,,,,,,,,,,,,,
12967,1650415181.761128,1650415181.779945,99.0,0.0,4430.256348,4296.410156,4291.794922,4262.563965,4329.743652,16234.0,3.0,68.0,,,,0.0,4.0,2.0,0.0,0.0,4.0,16.666666,,,,,,,,,,,,,,,,,,,,,,,,,,,,,,,,,,,,,,,,,,,,,,,,,,,,,,,,,,,,,,,,,,,,,,,,,,,,,,,,,,,,
12968,1650415181.7689419,1650415181.78786,100.0,0.0,4412.820313,4295.384765999999,4294.871582,4203.077147999999,4345.641113000001,450.0,3.0,68.0,,,,0.0,4.0,2.0,0.0,0.0,4.0,16.666666,,,,,,,,50.0,0.0,0.093082,-0.5454100000000001,0.36645500000000003,0.748047,0.8886850000000001,-0.447272,-0.140627,-0.045848,-0.055930999999999995,-0.015616,,,,,,,,,,,,,,,,,,,,,,,,,,,,,,,,,,,,,,,,,,,,,,,,,,,,,,,,,,,,,,,,,
12969,1650415181.776757,1650415181.795675,101.0,0.0,4381.025879,4302.563965,4297.436035,4260.0,4338.974121,450.0,3.0,68.0,,,,0.0,4.0,2.0,0.0,0.0,4.0,16.666666,,,,,,,,,,,,,,,,,,,,,,,,,,,,,,,,,,,,,,,,,,,,,,,,,,,,,,10.0,0.0,64.0,0.375897,1.0,0.0,,,,,,,,,,,,,,,,,,,,,,,,,
12970,1650415181.7845712,1650415181.803589,102.0,0.0,4362.05127,4294.871582,4276.922852000001,4298.974121,4314.871582,450.0,3.0,68.0,,,,0.0,4.0,2.0,0.0,0.0,4.0,16.666666,,,,,,,,51.0,0.0,0.093612,-0.545654,0.36645500000000003,0.747803,0.895033,-0.451179,-0.13379100000000002,-0.045755000000000004,-0.055855999999999996,-0.017375,,,,,,,,,,,,,,,,,,,,,,,,,,,,,,,,,,,,,,,,,,,,,,,,,,,,,,,,,,,,,,,,,
12971,1650415181.792386,1650415181.811404,103.0,0.0,4344.102539,4309.230957,4263.077147999999,4247.692383,4294.871582,16234.0,3.0,68.0,,,,0.0,4.0,2.0,0.0,0.0,4.0,16.666666,,,,,,,,,,,,,,,,,,,,,,,,,,,,,,,,,,,,,,,,,,,,,,,,,,,,,,,,,,,,,,,,,,,,,,,,,,,,,,,,,,,,
12972,1650415181.8002,1650415181.819218,104.0,0.0,4315.897461,4314.358886999999,4277.436035,4258.974121,4297.436035,450.0,3.0,68.0,,,,0.0,4.0,2.0,0.0,0.0,4.0,16.666666,,,,,,,,52.0,0.0,0.09164,-0.545654,0.36645500000000003,0.748047,0.894057,-0.43799499999999997,-0.143069,-0.045769,-0.055837,-0.01886,,,,,,,,,,,,,,,,,,,,,,,,,,,,,,,,,,,,,,,,,,,,,,,,,,,,,,,,,,,,,,,,,
12973,1650415181.808015,1650415181.826933,105.0,0.0,4312.307617,4296.410156,4287.692383,4302.05127,4314.358886999999,450.0,3.0,68.0,,,,0.0,4.0,2.0,0.0,0.0,4.0,16.666666,,,,,,,,,,,,,,,,,,,,1.0,0.0,0.0,,,,,,,,,,,,,,,,,,,,,,,,,,,,,,,,10.0,0.0,1.0,0.0,512.0,0.392897,134.27203400000002,23.475296,4.736066,2.965728,1.6495669999999998,17.59584,25.293613,8.83993,6.0108120000000005,5.461293,3.374449,2.751554,3.576553,2.1143110000000003,2.075026,6.350866000000001,3.187383,1.146808,1.292819,0.81219,44.087902,7.191688,2.6320919999999997,3.174676,2.601532
12974,1650415181.8158288,1650415181.834748,106.0,0.0,4318.461426,4314.358886999999,4277.94873,4221.538574,4308.205078,450.0,3.0,68.0,,,,0.0,4.0,2.0,0.0,0.0,4.0,16.666666,,,,,,,,53.0,0.0,0.092611,-0.545654,0.366211,0.748047,0.8916149999999999,-0.43946,-0.14111500000000002,-0.045831000000000004,-0.055771,-0.013947,,,,,,,,,,,,,,,,,,,,,,,,,,,,,,,,,,,,,,,,,,,,,,,,,,,,,,,,,,,,,,,,,
12975,1650415181.823644,1650415181.842463,107.0,0.0,4300.512695,4305.641113000001,4285.128418,4173.333496,4275.897461,16234.0,3.0,68.0,,,,0.0,4.0,2.0,0.0,0.0,4.0,16.666666,,,,,,,,,,,,,,,,,,,,,,,,,,,,,,,,,,,,,,,,,,,,,,,,,,,,,,,,,,,,,,,,,,,,,,,,,,,,,,,,,,,,
12976,1650415181.831458,1650415181.8503768,108.0,0.0,4264.615234000001,4251.794922,4293.333496,4249.230957,4247.692383,450.0,3.0,68.0,,,,0.0,4.0,2.0,0.0,0.0,4.0,16.666666,,,,,,,,54.0,0.0,0.093612,-0.545654,0.36645500000000003,0.747803,0.895033,-0.451179,-0.13379100000000002,-0.045739999999999996,-0.055711000000000004,-0.015872999999999998,,,,,,,,,,,,,,,,,,,,,,,,,,,,,,,,,,,,,,,,,,,,,,,,,,,,,,,,,,,,,,,,,
12977,1650415181.839273,1650415181.858192,109.0,0.0,4241.025879,4269.743652,4269.230957,4268.717772999999,4256.922852000001,450.0,3.0,68.0,,,,0.0,4.0,2.0,0.0,0.0,4.0,16.666666,,,,,,,,,,,,,,,,,,,,,,,,,,,,,,,,,,,,,,,,,,,,,,,,,,,,,,10.0,0.0,1.0,0.0,512.0,0.392897,,,,,,,,,,,,,,,,,,,,,,,,,
12978,1650415181.847087,1650415181.866106,110.0,0.0,4232.307617,4315.384765999999,4253.333496,4217.436035,4269.743652,450.0,3.0,68.0,,,,0.0,4.0,2.0,0.0,0.0,4.0,16.666666,,,,,,,,55.0,0.0,0.092611,-0.545654,0.366211,0.748047,0.8916149999999999,-0.43946,-0.14111500000000002,-0.045805,-0.055658000000000006,-0.011258,,,,,,,,,,,,,,,,,,,,,,,,,,,,,,,,,,,,,,,,,,,,,,,,,,,,,,,,,,,,,,,,,
12979,1650415181.854901,1650415181.8739212,111.0,0.0,4232.307617,4307.179688,4281.025879,4221.025879,4250.256348,16234.0,3.0,68.0,,,,0.0,4.0,2.0,0.0,0.0,4.0,16.666666,,,,,,,,,,,,,,,,,,,,,,,,,,,,,,,,,,,,,,,,,,,,,,,,,,,,,,,,,,,,,,,,,,,,,,,,,,,,,,,,,,,,
12980,1650415181.862716,1650415181.881836,112.0,0.0,4251.794922,4303.589844,4302.05127,4264.615234000001,4243.077147999999,450.0,3.0,68.0,,,,0.0,4.0,2.0,0.0,0.0,4.0,16.666666,,,,,,,,56.0,0.0,0.094038,-0.5454100000000001,0.366211,0.748047,0.8896620000000001,-0.44531899999999996,-0.13135,-0.045766,-0.055804999999999993,-0.010083,,,,,,,,,,,,,,,,,,,,,,,,,,,,,,,,,,,,,,,,,,,,,,,,,,,,,,,,,,,,,,,,,
12981,1650415181.8705301,1650415181.88965,113.0,0.0,4262.563965,4311.282227000001,4284.102539,4270.256348,4265.128418,450.0,3.0,68.0,,,,0.0,4.0,2.0,0.0,0.0,4.0,16.666666,,,,,,,,,,,,,,,,,,,,,,,,,,,,,,,,,,,,,,,,,,,,,,,,,,,,,,10.0,0.0,1.0,0.0,512.0,0.392897,,,,,,,,,,,,,,,,,,,,,,,,,
12982,1650415181.878345,1650415181.8975651,114.0,0.0,4251.794922,4320.512695,4275.384765999999,4240.512695,4278.461426,450.0,3.0,68.0,,,,0.0,4.0,2.0,0.0,0.0,4.0,16.666666,,,,,,,,57.0,0.0,0.094038,-0.5454100000000001,0.366211,0.748047,0.8872209999999999,-0.445808,-0.141604,-0.04573,-0.05579099999999999,-0.0122,,,,,,,,,,,,,,,,,,,,,,,,,,,,,,,,,,,,,,,,,,,,,,,,,,,,,,,,,,,,,,,,,
12983,1650415181.886159,1650415181.905479,115.0,0.0,4231.282227000001,4342.563965,4287.692383,4249.230957,4258.461426,16234.0,3.0,68.0,,,,0.0,4.0,2.0,0.0,0.0,4.0,16.666666,,,,,,,,,,,,,,,,,,,,,,,,,,,,,,,,,,,,,,,,,,,,,,,,,,,,,,,,,,,,,,,,,,,,,,,,,,,,,,,,,,,,
12984,1650415181.893974,1650415181.9132938,116.0,0.0,4213.333496,4341.025879,4292.820313,4281.025879,4231.794922,450.0,3.0,68.0,,,,0.0,4.0,2.0,0.0,0.0,4.0,16.666666,,,,,,,,58.0,0.0,0.094038,-0.5454100000000001,0.366211,0.748047,0.901869,-0.437018,-0.136721,-0.045649,-0.055827,-0.010931,,,,,,,,,,,,,,,,,,,,,,,,,,,,,,,,,,,,,,,,,,,,,,,,,,,,,,,,,,,,,,,,,
12985,1650415181.901788,1650415181.921109,117.0,0.0,4220.0,4337.436035,4288.717772999999,4243.077147999999,4241.025879,450.0,3.0,68.0,,,,0.0,4.0,2.0,0.0,0.0,4.0,16.666666,,,,,,,,,,,,,,,,,,,,,,,,,,,,,,,,,,,,,,,,,,,,,,,,,,,,,,0.0,0.0,1.0,0.0,512.0,0.392897,,,,,,,,,,,,,,,,,,,,,,,,,
12986,1650415181.9096029,1650415181.928823,118.0,0.0,4235.897461,4357.94873,4287.179688,4186.666504,4267.179688,450.0,3.0,68.0,,,,0.0,4.0,2.0,0.0,0.0,4.0,16.666666,,,,,,,,59.0,0.0,0.093041,-0.5454100000000001,0.365967,0.748291,0.9028459999999999,-0.437018,-0.151858,-0.045577,-0.05595700000000001,-0.013012000000000001,,,,,,,,,,,,,,,,,,,,,,,,,,,,,,,,,,,,,,,,,,,,,,,,,,,,,,,,,,,,,,,,,
12987,1650415181.917417,1650415181.936638,119.0,0.0,4233.333496,4329.230957,4289.230957,4208.717772999999,4267.692383,16234.0,3.0,68.0,,,,0.0,4.0,2.0,0.0,0.0,4.0,16.666666,,,,,,,,,,,,,,,,,,,,,,,,,,,,,,,,,,,,,,,,,,,,,,,,,,,,,,,,,,,,,,,,,,,,,,,,,,,,,,,,,,,,
12988,1650415181.925232,1650415181.944552,120.0,0.0,4227.692383,4267.179688,4301.025879,4263.589844,4256.410156,450.0,3.0,68.0,,,,0.0,4.0,2.0,0.0,0.0,4.0,16.666666,,,,,,,,60.0,0.0,0.093041,-0.5454100000000001,0.365967,0.748291,0.9072399999999999,-0.455085,-0.141604,-0.045707,-0.056026,-0.011662,,,,,,,,,,,,,,,,,,,,,,,,,,,,,,,,,,,,,,,,,,,,,,,,,,,,,,,,,,,,,,,,,
12989,1650415181.933046,1650415181.952367,121.0,0.0,4232.307617,4271.282227000001,4291.794922,4293.333496,4265.128418,450.0,3.0,68.0,,,,0.0,4.0,2.0,0.0,0.0,4.0,16.666666,,,,,,,,,,,,,,,,,,,,1.0,0.0,0.0,,,,,,,,,,,,,,,,,,,,,,,,,,,,,,,,0.0,0.0,1.0,0.0,512.0,0.37057199999999996,170.598373,29.320215,5.224661,2.931997,1.521269,21.583902,25.676519,8.47531,6.104836,5.415801999999999,3.435164,2.74934,3.4482980000000003,1.8427650000000002,2.083908,16.7027,9.274672,3.3307260000000003,3.179399,1.9965009999999999,53.507389,8.3054,2.49891,2.719953,2.756567
12990,1650415181.940861,1650415181.960082,122.0,0.0,4231.282227000001,4304.102539,4258.974121,4304.102539,4275.384765999999,450.0,3.0,68.0,,,,0.0,4.0,2.0,0.0,0.0,4.0,16.666666,,,,,,,,61.0,0.0,0.093041,-0.5454100000000001,0.365967,0.748291,0.893568,-0.44483100000000003,-0.155764,-0.045676999999999995,-0.056136,-0.013669999999999998,,,,,,,,,,,,,,,,,,,,,,,,,,,,,,,,,,,,,,,,,,,,,,,,,,,,,,,,,,,,,,,,,
12991,1650415181.948675,1650415181.9678972,123.0,0.0,4234.358886999999,4316.410156,4261.025879,4311.794922,4282.563965,16234.0,3.0,68.0,,,,0.0,4.0,2.0,0.0,0.0,4.0,16.666666,,,,,,,,,,,,,,,,,,,,,,,,,,,,,,,,,,,,,,,,,,,,,,,,,,,,,,,,,,,,,,,,,,,,,,,,,,,,,,,,,,,,
12992,1650415181.956489,1650415181.975611,124.0,0.0,4240.512695,4301.025879,4280.0,4288.205078,4284.102539,450.0,3.0,68.0,,,,0.0,4.0,2.0,0.0,0.0,4.0,16.666666,,,,,,,,62.0,0.0,0.092075,-0.5454100000000001,0.366211,0.748291,0.906264,-0.449226,-0.13916199999999998,-0.045748000000000004,-0.056089,-0.009275,,,,,,,,,,,,,,,,,,,,,,,,,,,,,,,,,,,,,,,,,,,,,,,,,,,,,,,,,,,,,,,,,
12993,1650415181.964304,1650415181.983426,125.0,0.0,4232.820313,4249.743652,4286.153809,4222.563965,4269.743652,450.0,3.0,68.0,,,,0.0,4.0,2.0,0.0,0.0,4.0,16.666666,,,,,,,,,,,,,,,,,,,,,,,,,,,,,,,,,,,,,,,,,,,,,,,,,,,,,,0.0,0.0,1.0,0.0,512.0,0.37057199999999996,,,,,,,,,,,,,,,,,,,,,,,,,
12994,1650415181.9721189,1650415181.991141,126.0,0.0,4232.307617,4244.102539,4287.179688,4202.563965,4275.384765999999,450.0,3.0,68.0,,,,0.0,4.0,2.0,0.0,0.0,4.0,16.666666,,,,,,,,63.0,0.0,0.092075,-0.5454100000000001,0.366211,0.748291,0.898451,-0.44385399999999997,-0.144533,-0.045714,-0.056095000000000006,-0.011522,,,,,,,,,,,,,,,,,,,,,,,,,,,,,,,,,,,,,,,,,,,,,,,,,,,,,,,,,,,,,,,,,
12995,1650415181.979933,1650415181.998955,127.0,0.0,4233.333496,4293.333496,4267.179688,4250.256348,4289.743652,237.0,3.0,68.0,,,,0.0,4.0,2.0,0.0,0.0,4.0,16.666666,,,,,,,,,,,,,,,,,,,,,,,,,,,,,,,,,,,,,,,,,,,,,,,,,,,,,,,,,,,,,,,,,,,,,,,,,,,,,,,,,,,,
12996,1650415181.987747,1650415182.00667,0.0,0.0,4213.333496,4291.282227000001,4257.94873,4271.794922,4269.230957,450.0,3.0,68.0,,,,0.0,4.0,2.0,0.0,0.0,4.0,16.666666,,,,,,,,0.0,0.0,0.093041,-0.5454100000000001,0.365967,0.748291,0.894545,-0.44190100000000004,-0.140139,-0.045683999999999995,-0.056199,-0.013543000000000001,,,,,,,,,,,,,,,,,,,,,,,,,,,,,,,,,,,,,,,,,,,,,,,,,,,,,,,,,,,,,,,,,
12997,1650415181.9955618,1650415182.014585,1.0,0.0,4208.205078,4272.307617,4303.077147999999,4275.384765999999,4256.410156,450.0,3.0,68.0,,,,0.0,4.0,2.0,0.0,0.0,4.0,16.666666,,,,,,,,,,,,,,,,,,,,,,,,,,,,,,,,,,,,,,,,,,,,,,,,,,,,,,0.0,0.0,1.0,0.0,512.0,0.37057199999999996,,,,,,,,,,,,,,,,,,,,,,,,,
12998,1650415182.003376,1650415182.022399,2.0,0.0,4232.307617,4322.05127,4326.666504,4309.743652,4292.820313,16180.0,3.0,68.0,,,,0.0,4.0,2.0,0.0,0.0,4.0,16.666666,,,,,,,,1.0,0.0,0.093041,-0.5454100000000001,0.365967,0.748291,0.894057,-0.45410900000000004,-0.129885,-0.045558999999999995,-0.056146,-0.015412,,,,,,,,,,,,,,,,,,,,,,,,,,,,,,,,,,,,,,,,,,,,,,,,,,,,,,,,,,,,,,,,,
12999,1650415182.0111911,1650415182.030314,3.0,0.0,4199.487305,4345.128418,4278.974121,4322.05127,4276.410156,450.0,3.0,68.0,,,,0.0,4.0,2.0,0.0,0.0,4.0,16.666666,,,,,,,,,,,,,,,,,,,,,,,,,,,,,,,,,,,,,,,,,,,,,,,,,,,,,,,,,,,,,,,,,,,,,,,,,,,,,,,,,,,,
13000,1650415182.019005,1650415182.038128,4.0,0.0,4150.256348,4310.769043,4262.05127,4262.05127,4213.846191,187.0,3.0,68.0,,,,0.0,4.0,2.0,0.0,0.0,4.0,16.666666,,,,,,,,2.0,0.0,0.093041,-0.5454100000000001,0.365967,0.748291,0.903334,-0.446784,-0.135744,-0.045544,-0.056049,-0.017093,,,,,,,,,,,,,,,,,,,,,,,,,,,,,,,,,,,,,,,,,,,,,,,,,,,,,,,,,,,,,,,,,
13001,1650415182.02682,1650415182.046043,5.0,0.0,4198.461426,4314.871582,4294.358886999999,4165.641113000001,4236.922852000001,450.0,3.0,68.0,,,,0.0,4.0,2.0,1.0,0.0,4.0,25.0,,,,,,,,,,,,,,,,,,,,,,,,,,,,,,,,,,,,,,,,,,,,,,,,,,,,,,0.0,0.0,1.0,0.0,512.0,0.37057199999999996,,,,,,,,,,,,,,,,,,,,,,,,,
13002,1650415182.0346339,1650415182.053858,6.0,0.0,4260.512695,4331.282227000001,4289.230957,4134.871582,4297.436035,94.0,3.0,68.0,,,,0.0,4.0,2.0,1.0,0.0,4.0,25.0,,,,,,,,3.0,0.0,0.09399600000000001,-0.5454100000000001,0.365723,0.748291,0.897963,-0.44824899999999995,-0.140139,-0.04558,-0.055961000000000004,-0.012405,,,,,,,,,,,,,,,,,,,,,,,,,,,,,,,,,,,,,,,,,,,,,,,,,,,,,,,,,,,,,,,,,
13003,1650415182.042449,1650415182.061772,7.0,0.0,4238.974121,4301.538574,4262.563965,4234.871582,4299.487305,450.0,3.0,68.0,,,,0.0,4.0,2.0,1.0,0.0,4.0,25.0,,,,,,,,,,,,,,,,,,,,,,,,,,,,,,,,,,,,,,,,,,,,,,,,,,,,,,,,,,,,,,,,,,,,,,,,,,,,,,,,,,,,
13004,1650415182.0502632,1650415182.069587,8.0,0.0,4216.922852000001,4276.922852000001,4273.846191,4317.436035,4274.358886999999,450.0,3.0,68.0,,,,0.0,4.0,2.0,1.0,0.0,4.0,25.0,,,,,,,,4.0,0.0,0.09399600000000001,-0.5454100000000001,0.365723,0.748291,0.902358,-0.45557299999999995,-0.139651,-0.04566,-0.055932,-0.010969,,,,,,,,,,,,,,,,,,,,,,,,,,,,,,,,,,,,,,,,,,,,,,,,,,,,,,,,,,,,,,,,,
13005,1650415182.0580769,1650415182.077501,9.0,0.0,4244.102539,4278.461426,4290.256348,4267.179688,4276.922852000001,0.0,3.0,68.0,,,,0.0,4.0,2.0,1.0,0.0,4.0,25.0,1.0,16.666666,3.0,2.0,0.0,0.0,3.0,,,,,,,,,,,,,1.0,0.0,0.0,,,,,,,,,,,,,,,,,,,,,,,,,,,,,,,,0.0,0.0,1.0,0.0,512.0,0.374313,211.08770800000002,34.203381,6.073622,2.780766,1.4391610000000001,26.179115,23.452755,8.2227,6.124801000000001,5.075073000000001,3.422154,2.606386,3.052489,1.628747,2.062771,32.128391,19.313001999999997,6.917358,6.085644,3.881539,63.906841,9.210941,2.700629,2.2412099999999997,2.894653
13006,1650415182.065892,1650415182.085316,10.0,0.0,4255.384765999999,4278.974121,4265.128418,4233.846191,4301.538574,450.0,3.0,68.0,,,,0.0,4.0,2.0,1.0,0.0,4.0,25.0,,,,,,,,5.0,0.0,0.09399600000000001,-0.5454100000000001,0.365723,0.748291,0.8969860000000001,-0.44483100000000003,-0.136721,-0.045587,-0.0561,-0.013094999999999999,,,,,,,,,,,,,,,,,,,,,,,,,,,,,,,,,,,,,,,,,,,,,,,,,,,,,,,,,,,,,,,,,
13007,1650415182.073707,1650415182.093231,11.0,0.0,4243.077147999999,4316.922852000001,4257.94873,4270.769043,4307.692383,16210.0,3.0,68.0,,,,0.0,4.0,2.0,1.0,0.0,4.0,25.0,,,,,,,,,,,,,,,,,,,,,,,,,,,,,,,,,,,,,,,,,,,,,,,,,,,,,,,,,,,,,,,,,,,,,,,,,,,,,,,,,,,,
13008,1650415182.081521,1650415182.101045,12.0,0.0,4242.05127,4353.846191,4292.820313,4277.94873,4286.153809,450.0,3.0,68.0,,,,0.0,4.0,2.0,1.0,0.0,4.0,25.0,,,,,,,,6.0,0.0,0.094941,-0.5454100000000001,0.365479,0.748291,0.8930799999999999,-0.45557299999999995,-0.140627,-0.045618,-0.056057,-0.011737000000000001,,,,,,,,,,,,,,,,,,,,,,,,,,,,,,,,,,,,,,,,,,,,,,,,,,,,,,,,,,,,,,,,,
13009,1650415182.089335,1650415182.10896,13.0,0.0,4239.487305,4326.153809,4294.871582,4235.897461,4271.282227000001,450.0,3.0,68.0,,,,0.0,4.0,2.0,1.0,0.0,4.0,25.0,,,,,,,,,,,,,,,,,,,,,,,,,,,,,,,,,,,,,,,,,,,,,,,,,,,,,,0.0,0.0,1.0,0.0,512.0,0.374313,,,,,,,,,,,,,,,,,,,,,,,,,
13010,1650415182.09715,1650415182.116774,14.0,0.0,4223.077147999999,4311.794922,4258.461426,4234.871582,4267.179688,450.0,3.0,68.0,,,,0.0,4.0,2.0,1.0,0.0,4.0,25.0,,,,,,,,7.0,0.0,0.094941,-0.5454100000000001,0.365479,0.748291,0.8960100000000001,-0.43897200000000003,-0.14648699999999998,-0.045597000000000006,-0.056066,-0.010514,,,,,,,,,,,,,,,,,,,,,,,,,,,,,,,,,,,,,,,,,,,,,,,,,,,,,,,,,,,,,,,,,
13011,1650415182.104964,1650415182.124489,15.0,0.0,4204.102539,4344.615234000001,4255.897461,4294.871582,4257.94873,16210.0,3.0,68.0,,,,0.0,4.0,2.0,1.0,0.0,4.0,25.0,,,,,,,,,,,,,,,,,,,,,,,,,,,,,,,,,,,,,,,,,,,,,,,,,,,,,,,,,,,,,,,,,,,,,,,,,,,,,,,,,,,,
13012,1650415182.112779,1650415182.132304,16.0,0.0,4218.974121,4352.307617,4292.820313,4302.05127,4264.102539,0.0,3.0,68.0,,,,0.0,4.0,2.0,1.0,0.0,4.0,25.0,,,,,,,,8.0,0.0,0.094941,-0.5454100000000001,0.365479,0.748291,0.8999159999999999,-0.44385399999999997,-0.137209,-0.045579,-0.056075,-0.012686,,,,,,,,,,,,,,,,,,,,,,,,,,,,,,,,,,,,,,,,,,,,,,,,,,,,,,,,,,,,,,,,,
13013,1650415182.120593,1650415182.140118,17.0,0.0,4251.282227000001,4330.256348,4293.846191,4252.820313,4276.922852000001,0.0,3.0,68.0,,,,0.0,4.0,2.0,1.0,0.0,4.0,25.0,,,,,,,,,,,,,,,,,,,,,,,,,,,,,,,,,,,,,,,,,,,,,,,,,,,,,,0.0,0.0,1.0,0.0,512.0,0.374313,,,,,,,,,,,,,,,,,,,,,,,,,
13014,1650415182.128408,1650415182.147833,18.0,0.0,4252.820313,4315.384765999999,4263.077147999999,4247.179688,4293.333496,0.0,3.0,68.0,,,,0.0,4.0,2.0,1.0,0.0,4.0,25.0,,,,,,,,9.0,0.0,0.094941,-0.5454100000000001,0.365479,0.748291,0.890639,-0.453132,-0.138674,-0.045659,-0.055936,-0.011368000000000001,,,,,,,,,,,,,,,,,,,,,,,,,,,,,,,,,,,,,,,,,,,,,,,,,,,,,,,,,,,,,,,,,
13015,1650415182.1362221,1650415182.155548,19.0,0.0,4211.282227000001,4300.0,4255.384765999999,4256.410156,4286.666504,0.0,3.0,68.0,,,,0.0,4.0,2.0,1.0,0.0,4.0,25.0,,,,,,,,,,,,,,,,,,,,,,,,,,,,,,,,,,,,,,,,,,,,,,,,,,,,,,,,,,,,,,,,,,,,,,,,,,,,,,,,,,,,
13016,1650415182.144037,1650415182.163363,20.0,0.0,4201.025879,4291.282227000001,4267.692383,4213.333496,4251.794922,0.0,3.0,68.0,,,,0.0,4.0,2.0,1.0,0.0,4.0,25.0,,,,,,,,10.0,0.0,0.09299600000000001,-0.5454100000000001,0.365479,0.7485350000000001,0.893568,-0.44531899999999996,-0.144045,-0.045586,-0.055958,-0.013356,,,,,,,,,,,,,,,,,,,,,,,,,,,,,,,,,,,,,,,,,,,,,,,,,,,,,,,,,,,,,,,,,
13017,1650415182.151851,1650415182.171077,21.0,0.0,4247.692383,4303.589844,4296.410156,4221.025879,4249.743652,0.0,3.0,68.0,,,,0.0,4.0,2.0,1.0,0.0,4.0,25.0,,,,,,,,,,,,,,,,,,,,,,,,,,,,,,,,,,,,,,,,,,,,,,,,,,,,,,0.0,0.0,1.0,0.0,512.0,0.374313,,,,,,,,,,,,,,,,,,,,,,,,,
13018,1650415182.159666,1650415182.178892,22.0,0.0,4253.846191,4331.282227000001,4314.358886999999,4306.666504,4282.563965,0.0,3.0,68.0,,,,0.0,4.0,2.0,1.0,0.0,4.0,25.0,,,,,,,,11.0,0.0,0.094941,-0.5454100000000001,0.365479,0.748291,0.8969860000000001,-0.453132,-0.13916199999999998,-0.045666000000000005,-0.056026,-0.015244,,,,,,,,,,,,,,,,,,,,,,,,,,,,,,,,,,,,,,,,,,,,,,,,,,,,,,,,,,,,,,,,,
13019,1650415182.16748,1650415182.1866071,23.0,0.0,4215.897461,4342.05127,4291.794922,4333.846191,4292.307617,0.0,3.0,68.0,,,,0.0,4.0,2.0,1.0,0.0,4.0,25.0,,,,,,,,,,,,,,,,,,,,,,,,,,,,,,,,,,,,,,,,,,,,,,,,,,,,,,,,,,,,,,,,,,,,,,,,,,,,,,,,,,,,
13020,1650415182.1752949,1650415182.1945212,24.0,0.0,4224.615234000001,4319.487305,4280.0,4312.307617,4290.769043,0.0,3.0,68.0,,,,0.0,4.0,2.0,1.0,0.0,4.0,25.0,,,,,,,,12.0,0.0,0.094417,-0.545166,0.365479,0.7485350000000001,0.900893,-0.458991,-0.13379100000000002,-0.045689,-0.056039,-0.016893000000000002,,,,,,,,,,,,,,,,,,,,,,,,,,,,,,,,,,,,,,,,,,,,,,,,,,,,,,,,,,,,,,,,,
13021,1650415182.183109,1650415182.2023358,25.0,0.0,4261.538574,4315.384765999999,4295.897461,4317.436035,4294.358886999999,0.0,3.0,68.0,,,,0.0,4.0,2.0,1.0,0.0,4.0,25.0,,,,,,,,,,,,,,,,,,,,1.0,0.0,0.0,,,,,,,,,,,,,,,,,,,,,,,,,,,,,,,,0.0,0.0,1.0,0.0,512.0,0.425965,251.022614,37.39291,7.234445,2.604202,1.397018,31.226184999999997,19.20159,8.204436,6.02569,4.491346,3.282939,2.368827,2.553191,1.534447,2.062767,49.486275,31.547462,11.510102999999999,9.665832,6.304374,74.55043,9.575452,3.255502,1.89313,2.952316
13022,1650415182.190924,1650415182.21025,26.0,0.0,4253.333496,4342.05127,4287.179688,4325.641113000001,4276.922852000001,0.0,3.0,68.0,,,,0.0,4.0,2.0,1.0,0.0,4.0,25.0,,,,,,,,13.0,0.0,0.094417,-0.545166,0.365479,0.7485350000000001,0.881849,-0.44776099999999996,-0.133303,-0.045661,-0.055903999999999995,-0.015155000000000002,,,,,,,,,,,,,,,,,,,,,,,,,,,,,,,,,,,,,,,,,,,,,,,,,,,,,,,,,,,,,,,,,
13023,1650415182.198738,1650415182.218065,27.0,0.0,4226.153809,4349.230957,4261.538574,4325.641113000001,4271.794922,0.0,3.0,68.0,,,,0.0,4.0,2.0,1.0,0.0,4.0,25.0,,,,,,,,,,,,,,,,,,,,,,,,,,,,,,,,,,,,,,,,,,,,,,,,,,,,,,,,,,,,,,,,,,,,,,,,,,,,,,,,,,,,
13024,1650415182.206552,1650415182.22598,28.0,0.0,4231.794922,4354.871582,4267.179688,4317.436035,4307.692383,0.0,3.0,68.0,,,,0.0,4.0,2.0,1.0,0.0,4.0,25.0,,,,,,,,14.0,0.0,0.094417,-0.545166,0.365479,0.7485350000000001,0.8896620000000001,-0.449226,-0.134768,-0.045685,-0.05583099999999999,-0.016763999999999998,,,,,,,,,,,,,,,,,,,,,,,,,,,,,,,,,,,,,,,,,,,,,,,,,,,,,,,,,,,,,,,,,
13025,1650415182.214367,1650415182.233794,29.0,0.0,4250.256348,4383.077147999999,4291.282227000001,4275.897461,4316.922852000001,0.0,3.0,68.0,,,,0.0,4.0,2.0,1.0,0.0,4.0,25.0,,,,,,,,,,,,,,,,,,,,,,,,,,,,,,,,,,,,,,,,,,,,,,,,,,,,,,0.0,0.0,1.0,0.0,512.0,0.425965,,,,,,,,,,,,,,,,,,,,,,,,,
13026,1650415182.222181,1650415182.241709,30.0,0.0,4250.256348,4373.846191,4292.307617,4238.974121,4275.897461,0.0,3.0,68.0,,,,0.0,4.0,2.0,1.0,0.0,4.0,25.0,,,,,,,,15.0,0.0,0.094417,-0.545166,0.365479,0.7485350000000001,0.8916149999999999,-0.461433,-0.129397,-0.045707,-0.055864,-0.018262,,,,,,,,,,,,,,,,,,,,,,,,,,,,,,,,,,,,,,,,,,,,,,,,,,,,,,,,,,,,,,,,,
13027,1650415182.2299962,1650415182.2495232,31.0,0.0,4245.641113000001,4353.846191,4285.641113000001,4279.487305,4261.025879,0.0,3.0,68.0,,,,0.0,4.0,2.0,1.0,0.0,4.0,25.0,,,,,,,,,,,,,,,,,,,,,,,,,,,,,,,,,,,,,,,,,,,,,,,,,,,,,,,,,,,,,,,,,,,,,,,,,,,,,,,,,,,,
13028,1650415182.23781,1650415182.257338,32.0,0.0,4235.384765999999,4360.512695,4294.871582,4337.94873,4285.128418,0.0,3.0,68.0,,,,0.0,4.0,2.0,1.0,0.0,4.0,25.0,,,,,,,,16.0,0.0,0.094417,-0.545166,0.365479,0.7485350000000001,0.8989389999999999,-0.45410900000000004,-0.136721,-0.045824000000000004,-0.055844000000000005,-0.013456999999999998,,,,,,,,,,,,,,,,,,,,,,,,,,,,,,,,,,,,,,,,,,,,,,,,,,,,,,,,,,,,,,,,,
13029,1650415182.245625,1650415182.265053,33.0,0.0,4210.769043,4347.179688,4292.820313,4296.922852000001,4276.410156,0.0,3.0,68.0,,,,0.0,4.0,2.0,1.0,0.0,4.0,25.0,,,,,,,,,,,,,,,,,,,,,,,,,,,,,,,,,,,,,,,,,,,,,,,,,,,,,,0.0,0.0,1.0,0.0,512.0,0.425965,,,,,,,,,,,,,,,,,,,,,,,,,
13030,1650415182.253439,1650415182.272967,34.0,0.0,4230.256348,4305.128418,4277.94873,4247.179688,4277.436035,0.0,3.0,68.0,,,,0.0,4.0,2.0,1.0,0.0,4.0,25.0,,,,,,,,17.0,0.0,0.094417,-0.545166,0.365479,0.7485350000000001,0.8896620000000001,-0.449226,-0.134768,-0.045831000000000004,-0.055875,-0.012014,,,,,,,,,,,,,,,,,,,,,,,,,,,,,,,,,,,,,,,,,,,,,,,,,,,,,,,,,,,,,,,,,
13031,1650415182.2612538,1650415182.280782,35.0,0.0,4265.128418,4267.692383,4290.769043,4267.179688,4292.820313,0.0,3.0,68.0,,,,0.0,4.0,2.0,1.0,0.0,4.0,25.0,,,,,,,,,,,,,,,,,,,,,,,,,,,,,,,,,,,,,,,,,,,,,,,,,,,,,,,,,,,,,,,,,,,,,,,,,,,,,,,,,,,,
13032,1650415182.269068,1650415182.288497,36.0,0.0,4252.307617,4277.436035,4302.563965,4256.410156,4269.230957,0.0,3.0,68.0,,,,0.0,4.0,2.0,1.0,0.0,4.0,25.0,,,,,,,,18.0,0.0,0.094417,-0.545166,0.365479,0.7485350000000001,0.8989389999999999,-0.45410900000000004,-0.136721,-0.045936000000000005,-0.055853999999999994,-0.007834,,,,,,,,,,,,,,,,,,,,,,,,,,,,,,,,,,,,,,,,,,,,,,,,,,,,,,,,,,,,,,,,,
13033,1650415182.2768831,1650415182.296311,37.0,0.0,4249.230957,4329.230957,4273.846191,4234.871582,4276.922852000001,0.0,3.0,68.0,,,,0.0,4.0,2.0,1.0,0.0,4.0,25.0,,,,,,,,,,,,,,,,,,,,,,,,,,,,,,,,,,,,,,,,,,,,,,,,,,,,,,0.0,0.0,1.0,0.0,512.0,0.425965,,,,,,,,,,,,,,,,,,,,,,,,,
13034,1650415182.284697,1650415182.304026,38.0,0.0,4257.94873,4367.179688,4255.897461,4277.94873,4307.692383,0.0,3.0,68.0,,,,0.0,4.0,2.0,1.0,0.0,4.0,25.0,,,,,,,,19.0,0.0,0.094417,-0.545166,0.365479,0.7485350000000001,0.8969860000000001,-0.44190100000000004,-0.129885,-0.045932,-0.055932,-0.0070019999999999995,,,,,,,,,,,,,,,,,,,,,,,,,,,,,,,,,,,,,,,,,,,,,,,,,,,,,,,,,,,,,,,,,
13035,1650415182.292512,1650415182.311841,39.0,0.0,4241.025879,4372.820313,4262.05127,4312.307617,4292.307617,0.0,3.0,68.0,,,,0.0,4.0,2.0,1.0,0.0,4.0,25.0,,,,,,,,,,,,,,,,,,,,,,,,,,,,,,,,,,,,,,,,,,,,,,,,,,,,,,,,,,,,,,,,,,,,,,,,,,,,,,,,,,,,
13036,1650415182.3003259,1650415182.319755,40.0,0.0,4249.743652,4376.922852000001,4274.358886999999,4302.563965,4287.692383,0.0,3.0,68.0,,,,0.0,4.0,2.0,1.0,0.0,4.0,25.0,,,,,,,,20.0,0.0,0.094417,-0.545166,0.365479,0.7485350000000001,0.898451,-0.440925,-0.14844000000000002,-0.045880000000000004,-0.055857000000000004,-0.009524,,,,,,,,,,,,,,,,,,,,,,,,,,,,,,,,,,,,,,,,,,,,,,,,,,,,,,,,,,,,,,,,,
13037,1650415182.30814,1650415182.3276699,41.0,0.0,4270.769043,4363.589844,4290.256348,4307.179688,4308.205078,0.0,3.0,68.0,,,,0.0,4.0,2.0,1.0,0.0,4.0,25.0,,,,,,,,,,,,,,,,,,,,1.0,0.0,0.0,,,,,,,,,,,,,,,,,,,,,,,,,,,,,,,,0.0,0.0,1.0,0.0,512.0,0.704685,284.7164,38.227505,8.432108,2.502353,1.386871,36.19894,14.543369,8.491113,5.826105,3.843957,3.091986,2.1769580000000004,2.113059,1.573287,2.1436290000000002,63.745529000000005,42.606705,16.357254,13.375831,8.8612,83.987564,9.168306,4.023957,1.750277,2.908003
13038,1650415182.3159552,1650415182.335485,42.0,0.0,4245.128418,4313.333496,4291.794922,4307.179688,4286.153809,0.0,3.0,68.0,,,,0.0,4.0,2.0,1.0,0.0,4.0,25.0,,,,,,,,21.0,0.0,0.094417,-0.545166,0.365479,0.7485350000000001,0.887709,-0.441413,-0.12842,-0.045979,-0.055838,-0.005593,,,,,,,,,,,,,,,,,,,,,,,,,,,,,,,,,,,,,,,,,,,,,,,,,,,,,,,,,,,,,,,,,
13039,1650415182.3237689,1650415182.343399,43.0,0.0,4244.102539,4287.692383,4299.487305,4299.487305,4268.205078,0.0,3.0,68.0,,,,0.0,4.0,2.0,1.0,0.0,4.0,25.0,,,,,,,,,,,,,,,,,,,,,,,,,,,,,,,,,,,,,,,,,,,,,,,,,,,,,,,,,,,,,,,,,,,,,,,,,,,,,,,,,,,,
13040,1650415182.331584,1650415182.3512142,44.0,0.0,4279.487305,4319.487305,4314.871582,4327.692383,4288.717772999999,0.0,3.0,68.0,,,,0.0,4.0,2.0,1.0,0.0,4.0,25.0,,,,,,,,22.0,0.0,0.09535700000000001,-0.545166,0.365234,0.7485350000000001,0.8930799999999999,-0.44971400000000006,-0.150881,-0.045971,-0.055869,-0.008354,,,,,,,,,,,,,,,,,,,,,,,,,,,,,,,,,,,,,,,,,,,,,,,,,,,,,,,,,,,,,,,,,
13041,1650415182.3393981,1650415182.3590279,45.0,0.0,4263.077147999999,4350.769043,4290.256348,4332.820313,4282.05127,0.0,3.0,68.0,,,,0.0,4.0,2.0,1.0,0.0,4.0,25.0,,,,,,,,,,,,,,,,,,,,,,,,,,,,,,,,,,,,,,,,,,,,,,,,,,,,,,0.0,0.0,1.0,0.0,512.0,0.704685,,,,,,,,,,,,,,,,,,,,,,,,,
13042,1650415182.347213,1650415182.366743,46.0,0.0,4240.0,4337.94873,4269.743652,4310.769043,4276.922852000001,0.0,3.0,68.0,,,,0.0,4.0,2.0,1.0,0.0,4.0,25.0,,,,,,,,23.0,0.0,0.093421,-0.545166,0.365234,0.748779,0.8960100000000001,-0.443366,-0.140139,-0.045915,-0.0558,-0.0073230000000000005,,,,,,,,,,,,,,,,,,,,,,,,,,,,,,,,,,,,,,,,,,,,,,,,,,,,,,,,,,,,,,,,,
13043,1650415182.355027,1650415182.374558,47.0,0.0,4250.256348,4313.846191,4296.410156,4311.794922,4278.974121,0.0,3.0,68.0,,,,0.0,4.0,2.0,1.0,0.0,4.0,25.0,,,,,,,,,,,,,,,,,,,,,,,,,,,,,,,,,,,,,,,,,,,,,,,,,,,,,,,,,,,,,,,,,,,,,,,,,,,,,,,,,,,,
13044,1650415182.362842,1650415182.382273,48.0,0.0,4242.563965,4321.025879,4296.410156,4322.05127,4256.922852000001,0.0,3.0,68.0,,,,0.0,4.0,2.0,1.0,0.0,4.0,25.0,,,,,,,,24.0,0.0,0.093421,-0.545166,0.365234,0.748779,0.898451,-0.445808,-0.14111500000000002,-0.046011,-0.055835,-0.012792,,,,,,,,,,,,,,,,,,,,,,,,,,,,,,,,,,,,,,,,,,,,,,,,,,,,,,,,,,,,,,,,,
13045,1650415182.370656,1650415182.390087,49.0,0.0,4231.282227000001,4348.717772999999,4265.641113000001,4314.358886999999,4255.897461,0.0,3.0,68.0,,,,0.0,4.0,2.0,1.0,0.0,4.0,25.0,,,,,,,,,,,,,,,,,,,,,,,,,,,,,,,,,,,,,,,,,,,,,,,,,,,,,,0.0,0.0,1.0,0.0,512.0,0.704685,,,,,,,,,,,,,,,,,,,,,,,,,
13046,1650415182.3784711,1650415182.3978019,50.0,0.0,4256.922852000001,4374.871582,4272.820313,4306.666504,4280.0,0.0,3.0,68.0,,,,0.0,4.0,2.0,1.0,0.0,4.0,25.0,,,,,,,,25.0,0.0,0.096287,-0.545166,0.36499000000000004,0.7485350000000001,0.897475,-0.45069,-0.137209,-0.045951,-0.055769000000000006,-0.014638,,,,,,,,,,,,,,,,,,,,,,,,,,,,,,,,,,,,,,,,,,,,,,,,,,,,,,,,,,,,,,,,,
13047,1650415182.386285,1650415182.405716,51.0,0.0,4273.333496,4350.769043,4275.384765999999,4322.05127,4285.128418,0.0,3.0,68.0,,,,0.0,4.0,2.0,1.0,0.0,4.0,25.0,,,,,,,,,,,,,,,,,,,,,,,,,,,,,,,,,,,,,,,,,,,,,,,,,,,,,,,,,,,,,,,,,,,,,,,,,,,,,,,,,,,,
13048,1650415182.3941,1650415182.413531,52.0,0.0,4263.077147999999,4296.922852000001,4268.205078,4326.153809,4280.0,0.0,3.0,68.0,,,,0.0,4.0,2.0,1.0,0.0,4.0,25.0,,,,,,,,26.0,0.0,0.096287,-0.545166,0.36499000000000004,0.7485350000000001,0.891127,-0.4336,-0.137209,-0.045995,-0.055904999999999996,-0.016347999999999998,,,,,,,,,,,,,,,,,,,,,,,,,,,,,,,,,,,,,,,,,,,,,,,,,,,,,,,,,,,,,,,,,
13049,1650415182.4019141,1650415182.4213462,53.0,0.0,4270.769043,4314.871582,4307.179688,4311.794922,4280.512695,0.0,3.0,68.0,,,,0.0,4.0,2.0,1.0,0.0,4.0,25.0,,,,,,,,,,,,,,,,,,,,,,,,,,,,,,,,,,,,,,,,,,,,,,,,,,,,,,0.0,0.0,1.0,0.0,512.0,0.704685,,,,,,,,,,,,,,,,,,,,,,,,,
13050,1650415182.4097278,1650415182.429061,54.0,0.0,4278.461426,4356.410156,4325.641113000001,4313.333496,4273.333496,0.0,3.0,68.0,,,,0.0,4.0,2.0,1.0,0.0,4.0,25.0,,,,,,,,27.0,0.0,0.095309,-0.545166,0.364746,0.748779,0.897963,-0.44238999999999995,-0.138186,-0.046034,-0.055784,-0.011588,,,,,,,,,,,,,,,,,,,,,,,,,,,,,,,,,,,,,,,,,,,,,,,,,,,,,,,,,,,,,,,,,
13051,1650415182.417543,1650415182.436975,55.0,0.0,4261.025879,4346.153809,4283.589844,4322.563965,4271.282227000001,0.0,3.0,68.0,,,,0.0,4.0,2.0,1.0,0.0,4.0,25.0,,,,,,,,,,,,,,,,,,,,,,,,,,,,,,,,,,,,,,,,,,,,,,,,,,,,,,,,,,,,,,,,,,,,,,,,,,,,,,,,,,,,
13052,1650415182.425357,1650415182.4447901,56.0,0.0,4252.307617,4347.692383,4269.743652,4320.512695,4279.487305,0.0,3.0,68.0,,,,0.0,4.0,2.0,1.0,0.0,4.0,25.0,,,,,,,,28.0,0.0,0.095309,-0.545166,0.364746,0.748779,0.891127,-0.438483,-0.14111500000000002,-0.045923,-0.055772,-0.010332,,,,,,,,,,,,,,,,,,,,,,,,,,,,,,,,,,,,,,,,,,,,,,,,,,,,,,,,,,,,,,,,,
13053,1650415182.433172,1650415182.452704,57.0,0.0,4263.589844,4376.410156,4292.307617,4316.922852000001,4274.358886999999,0.0,3.0,68.0,,,,0.0,4.0,2.0,1.0,0.0,4.0,25.0,,,,,,,,,,,,,,,,,,,,1.0,0.0,0.0,,,,,,,,,,,,,,,,,,,,,,,,,,,,,,,,0.0,0.0,1.0,0.0,512.0,0.6356689999999999,301.418152,36.393002,9.275658,2.526224,1.423812,40.089981,11.235527000000001,9.117922,5.558485,3.3108449999999996,2.936471,2.150069,1.8322330000000002,1.6972900000000002,2.331964,70.409103,48.968876,20.497581,16.712784,11.051945,89.352272,8.031367,4.746422,1.8083099999999999,2.797193
13054,1650415182.440986,1650415182.4605188,58.0,0.0,4271.794922,4394.871582,4280.512695,4319.487305,4277.436035,0.0,3.0,68.0,,,,0.0,4.0,2.0,1.0,0.0,4.0,25.0,,,,,,,,29.0,0.0,0.095309,-0.545166,0.364746,0.748779,0.895033,-0.4336,-0.140627,-0.045872,-0.055810000000000005,-0.01257,,,,,,,,,,,,,,,,,,,,,,,,,,,,,,,,,,,,,,,,,,,,,,,,,,,,,,,,,,,,,,,,,
13055,1650415182.448801,1650415182.468433,59.0,0.0,4260.0,4398.974121,4255.897461,4319.487305,4287.692383,0.0,3.0,68.0,,,,0.0,4.0,2.0,1.0,0.0,4.0,25.0,,,,,,,,,,,,,,,,,,,,,,,,,,,,,,,,,,,,,,,,,,,,,,,,,,,,,,,,,,,,,,,,,,,,,,,,,,,,,,,,,,,,
13056,1650415182.456615,1650415182.476248,60.0,0.0,4250.256348,4385.128418,4264.102539,4317.436035,4286.666504,0.0,3.0,68.0,,,,0.0,4.0,2.0,1.0,0.0,4.0,25.0,,,,,,,,30.0,0.0,0.095309,-0.545166,0.364746,0.748779,0.9121229999999999,-0.446296,-0.140139,-0.045923,-0.055698000000000004,-0.014438,,,,,,,,,,,,,,,,,,,,,,,,,,,,,,,,,,,,,,,,,,,,,,,,,,,,,,,,,,,,,,,,,
13057,1650415182.46443,1650415182.483963,61.0,0.0,4265.128418,4362.563965,4285.641113000001,4317.94873,4288.205078,0.0,3.0,68.0,,,,0.0,4.0,2.0,1.0,0.0,4.0,25.0,,,,,,,,,,,,,,,,,,,,,,,,,,,,,,,,,,,,,,,,,,,,,,,,,,,,,,0.0,0.0,1.0,0.0,512.0,0.6356689999999999,,,,,,,,,,,,,,,,,,,,,,,,,
13058,1650415182.472244,1650415182.491777,62.0,0.0,4285.128418,4342.05127,4292.820313,4329.230957,4294.871582,0.0,3.0,68.0,,,,0.0,4.0,2.0,1.0,0.0,4.0,25.0,,,,,,,,31.0,0.0,0.095309,-0.545166,0.364746,0.748779,0.9126120000000001,-0.43994799999999995,-0.14844000000000002,-0.045872,-0.055695,-0.009967,,,,,,,,,,,,,,,,,,,,,,,,,,,,,,,,,,,,,,,,,,,,,,,,,,,,,,,,,,,,,,,,,
13059,1650415182.480059,1650415182.499692,63.0,0.0,4276.922852000001,4311.282227000001,4295.897461,4327.179688,4277.94873,0.0,3.0,68.0,,,,0.0,4.0,2.0,1.0,0.0,4.0,25.0,,,,,,,,,,,,,,,,,,,,,,,,,,,,,,,,,,,,,,,,,,,,,,,,,,,,,,,,,,,,,,,,,,,,,,,,,,,,,,,,,,,,
13060,1650415182.487873,1650415182.507507,64.0,0.0,4279.487305,4298.974121,4303.589844,4311.282227000001,4274.358886999999,450.0,3.0,68.0,,,,0.0,4.0,2.0,1.0,0.0,4.0,25.0,,,,,,,,32.0,0.0,0.095309,-0.545166,0.364746,0.748779,0.8921030000000001,-0.431159,-0.137209,-0.045924,-0.05574,-0.008922,,,,,,,,,,,,,,,,,,,,,,,,,,,,,,,,,,,,,,,,,,,,,,,,,,,,,,,,,,,,,,,,,
13061,1650415182.4956882,1650415182.515221,65.0,0.0,4297.94873,4319.487305,4298.461426,4320.0,4299.487305,450.0,3.0,68.0,,,,0.0,4.0,2.0,1.0,0.0,4.0,25.0,,,,,,,,,,,,,,,,,,,,,,,,,,,,,,,,,,,,,,,,,,,,,,,,,,,,,,0.0,0.0,1.0,0.0,512.0,0.6356689999999999,,,,,,,,,,,,,,,,,,,,,,,,,
13062,1650415182.503502,1650415182.523036,66.0,0.0,4268.205078,4336.410156,4287.179688,4306.153809,4267.692383,16201.0,3.0,68.0,,,,0.0,4.0,2.0,1.0,0.0,4.0,25.0,,,,,,,,33.0,0.0,0.095309,-0.545166,0.364746,0.748779,0.895033,-0.446296,-0.137697,-0.045872,-0.055879,-0.01135,,,,,,,,,,,,,,,,,,,,,,,,,,,,,,,,,,,,,,,,,,,,,,,,,,,,,,,,,,,,,,,,,
13063,1650415182.511316,1650415182.530751,67.0,0.0,4263.077147999999,4363.589844,4293.846191,4269.743652,4256.410156,450.0,3.0,68.0,,,,0.0,4.0,2.0,1.0,0.0,4.0,25.0,,,,,,,,,,,,,,,,,,,,,,,,,,,,,,,,,,,,,,,,,,,,,,,,,,,,,,,,,,,,,,,,,,,,,,,,,,,,,,,,,,,,
13064,1650415182.519131,1650415182.538565,68.0,0.0,4297.94873,4392.307617,4295.897461,4266.153809,4293.333496,190.0,3.0,68.0,,,,0.0,4.0,2.0,1.0,0.0,4.0,25.0,,,,,,,,34.0,0.0,0.09437000000000001,-0.545166,0.36499000000000004,0.748779,0.894057,-0.443366,-0.148928,-0.045777,-0.055858000000000005,-0.010117000000000001,,,,,,,,,,,,,,,,,,,,,,,,,,,,,,,,,,,,,,,,,,,,,,,,,,,,,,,,,,,,,,,,,
13065,1650415182.5269449,1650415182.5462801,69.0,0.0,4273.846191,4394.871582,4280.512695,4256.922852000001,4252.307617,450.0,3.0,68.0,,,,0.0,4.0,2.0,1.0,0.0,4.0,25.0,,,,,,,,,,,,,,,,,,,,,,,,,,,,,,,,,,,,,,,,,,,,,,,,,,,,,,0.0,0.0,1.0,0.0,512.0,0.6356689999999999,,,,,,,,,,,,,,,,,,,,,,,,,
13066,1650415182.53476,1650415182.554095,70.0,0.0,4262.563965,4420.0,4290.769043,4223.589844,4231.282227000001,52.0,3.0,68.0,,,,0.0,4.0,2.0,1.0,0.0,4.0,25.0,,,,,,,,35.0,0.0,0.09437000000000001,-0.545166,0.36499000000000004,0.748779,0.8916149999999999,-0.44190100000000004,-0.137697,-0.04579,-0.05579,-0.012328,,,,,,,,,,,,,,,,,,,,,,,,,,,,,,,,,,,,,,,,,,,,,,,,,,,,,,,,,,,,,,,,,
13067,1650415182.542574,1650415182.56181,71.0,0.0,4310.256348,4449.743652,4314.871582,4220.0,4308.205078,450.0,3.0,68.0,,,,0.0,4.0,2.0,1.0,0.0,4.0,25.0,,,,,,,,,,,,,,,,,,,,,,,,,,,,,,,,,,,,,,,,,,,,,,,,,,,,,,,,,,,,,,,,,,,,,,,,,,,,,,,,,,,,
13068,1650415182.550389,1650415182.569624,72.0,0.0,4300.0,4421.025879,4301.025879,4241.025879,4314.358886999999,450.0,3.0,68.0,,,,0.0,4.0,2.0,1.0,0.0,4.0,25.0,,,,,,,,36.0,0.0,0.096287,-0.545166,0.36499000000000004,0.7485350000000001,0.8881969999999999,-0.447272,-0.137209,-0.045752,-0.055924,-0.014416,,,,,,,,,,,,,,,,,,,,,,,,,,,,,,,,,,,,,,,,,,,,,,,,,,,,,,,,,,,,,,,,,
13069,1650415182.558203,1650415182.5773392,73.0,0.0,4266.666504,4396.410156,4304.102539,4264.102539,4250.769043,0.0,3.0,68.0,,,,0.0,4.0,2.0,1.0,0.0,4.0,25.0,1.0,16.666666,3.0,2.0,0.0,0.0,3.0,,,,,,,,,,,,,1.0,0.0,0.0,,,,,,,,,,,,,,,,,,,,,,,,,,,,,,,,0.0,0.0,1.0,0.0,512.0,0.9613440000000001,294.901672,32.272861,9.443627000000001,2.642979,1.544011,41.899384000000005,10.363192999999999,9.977736,5.286166000000001,2.9799900000000004,2.859848,2.311791,1.757275,1.8348959999999999,2.595269,67.593719,48.650791,23.122515,19.317695999999998,12.459584,88.428009,6.585507000000001,5.1697239999999995,2.002176,2.6826830000000004
13070,1650415182.5660179,1650415182.585254,74.0,0.0,4301.538574,4434.358886999999,4349.230957,4300.0,4257.436035,450.0,3.0,68.0,,,,0.0,4.0,2.0,1.0,0.0,4.0,25.0,,,,,,,,37.0,0.0,0.096287,-0.545166,0.36499000000000004,0.7485350000000001,0.902358,-0.45069,-0.142092,-0.045766,-0.055947000000000004,-0.016099000000000002,,,,,,,,,,,,,,,,,,,,,,,,,,,,,,,,,,,,,,,,,,,,,,,,,,,,,,,,,,,,,,,,,
13071,1650415182.573832,1650415182.593068,75.0,0.0,4313.846191,4449.743652,4360.0,4332.820313,4271.282227000001,16256.0,3.0,68.0,,,,0.0,4.0,2.0,1.0,0.0,4.0,25.0,,,,,,,,,,,,,,,,,,,,,,,,,,,,,,,,,,,,,,,,,,,,,,,,,,,,,,,,,,,,,,,,,,,,,,,,,,,,,,,,,,,,
13072,1650415182.5816472,1650415182.600983,76.0,0.0,4290.769043,4410.769043,4321.538574,4323.589844,4265.128418,450.0,3.0,68.0,,,,0.0,4.0,2.0,1.0,0.0,4.0,25.0,,,,,,,,38.0,0.0,0.096287,-0.545166,0.36499000000000004,0.7485350000000001,0.8916149999999999,-0.43946,-0.146975,-0.045877,-0.055966999999999996,-0.017712000000000002,,,,,,,,,,,,,,,,,,,,,,,,,,,,,,,,,,,,,,,,,,,,,,,,,,,,,,,,,,,,,,,,,
13073,1650415182.5894608,1650415182.608797,77.0,0.0,4287.692383,4390.256348,4293.333496,4243.589844,4270.769043,450.0,3.0,68.0,,,,0.0,4.0,2.0,1.0,0.0,4.0,25.0,,,,,,,,,,,,,,,,,,,,,,,,,,,,,,,,,,,,,,,,,,,,,,,,,,,,,,0.0,0.0,1.0,0.0,512.0,0.9613440000000001,,,,,,,,,,,,,,,,,,,,,,,,,
13074,1650415182.597276,1650415182.6167119,78.0,0.0,4283.077147999999,4407.692383,4302.05127,4177.436035,4254.358886999999,450.0,3.0,68.0,,,,0.0,4.0,2.0,1.0,0.0,4.0,25.0,,,,,,,,39.0,0.0,0.096287,-0.545166,0.36499000000000004,0.7485350000000001,0.8964979999999999,-0.44776099999999996,-0.151369,-0.045831000000000004,-0.056084,-0.019066,,,,,,,,,,,,,,,,,,,,,,,,,,,,,,,,,,,,,,,,,,,,,,,,,,,,,,,,,,,,,,,,,
13075,1650415182.6050901,1650415182.624527,79.0,0.0,4276.410156,4428.205078,4310.256348,4227.692383,4249.230957,16256.0,3.0,68.0,,,,0.0,4.0,2.0,1.0,0.0,4.0,25.0,,,,,,,,,,,,,,,,,,,,,,,,,,,,,,,,,,,,,,,,,,,,,,,,,,,,,,,,,,,,,,,,,,,,,,,,,,,,,,,,,,,,
13076,1650415182.612905,1650415182.632441,80.0,0.0,4270.256348,4430.769043,4282.05127,4260.512695,4263.589844,450.0,3.0,68.0,,,,0.0,4.0,2.0,1.0,0.0,4.0,25.0,,,,,,,,40.0,0.0,0.096287,-0.545166,0.36499000000000004,0.7485350000000001,0.901381,-0.447272,-0.147463,-0.045935000000000004,-0.056041999999999995,-0.01711,,,,,,,,,,,,,,,,,,,,,,,,,,,,,,,,,,,,,,,,,,,,,,,,,,,,,,,,,,,,,,,,,
13077,1650415182.620719,1650415182.6402562,81.0,0.0,4285.128418,4432.307617,4263.077147999999,4230.256348,4282.05127,450.0,3.0,68.0,,,,0.0,4.0,2.0,1.0,0.0,4.0,25.0,,,,,,,,,,,,,,,,,,,,,,,,,,,,,,,,,,,,,,,,,,,,,,,,,,,,,,0.0,0.0,1.0,0.0,512.0,0.9613440000000001,,,,,,,,,,,,,,,,,,,,,,,,,
13078,1650415182.6285331,1650415182.64817,82.0,0.0,4314.871582,4422.563965,4295.897461,4273.846191,4301.025879,450.0,3.0,68.0,,,,0.0,4.0,2.0,1.0,0.0,4.0,25.0,,,,,,,,41.0,0.0,0.09489500000000001,-0.5454100000000001,0.36499000000000004,0.7485350000000001,0.893568,-0.458503,-0.12842,-0.044516,-0.056004,-0.018671,,,,,,,,,,,,,,,,,,,,,,,,,,,,,,,,,,,,,,,,,,,,,,,,,,,,,,,,,,,,,,,,,
13079,1650415182.636348,1650415182.6559849,83.0,0.0,4306.153809,4388.717772999999,4314.358886999999,4329.230957,4283.589844,16256.0,3.0,68.0,,,,0.0,4.0,2.0,1.0,0.0,4.0,25.0,,,,,,,,,,,,,,,,,,,,,,,,,,,,,,,,,,,,,,,,,,,,,,,,,,,,,,,,,,,,,,,,,,,,,,,,,,,,,,,,,,,,
13080,1650415182.6441631,1650415182.663899,84.0,0.0,4292.307617,4384.102539,4298.461426,4307.179688,4257.94873,450.0,3.0,68.0,,,,0.0,4.0,2.0,1.0,0.0,4.0,25.0,,,,,,,,42.0,0.0,0.096287,-0.545166,0.36499000000000004,0.7485350000000001,0.897963,-0.441413,-0.155764,-0.044654,-0.056019000000000006,-0.016755000000000003,,,,,,,,,,,,,,,,,,,,,,,,,,,,,,,,,,,,,,,,,,,,,,,,,,,,,,,,,,,,,,,,,
13081,1650415182.651977,1650415182.671714,85.0,0.0,4320.512695,4421.538574,4298.461426,4306.153809,4275.384765999999,450.0,3.0,68.0,,,,0.0,4.0,2.0,1.0,0.0,4.0,25.0,,,,,,,,,,,,,,,,,,,,,,,,,,,,,,,,,,,,,,,,,,,,,,,,,,,,,,0.0,0.0,1.0,0.0,512.0,0.9613440000000001,,,,,,,,,,,,,,,,,,,,,,,,,
13082,1650415182.659791,1650415182.6794288,86.0,0.0,4333.333496,4434.358886999999,4290.769043,4331.794922,4289.743652,450.0,3.0,68.0,,,,0.0,4.0,2.0,1.0,0.0,4.0,25.0,,,,,,,,43.0,0.0,0.097208,-0.545166,0.364746,0.7485350000000001,0.8999159999999999,-0.44385399999999997,-0.13135,-0.044778,-0.056032000000000005,-0.018302000000000002,,,,,,,,,,,,,,,,,,,,,,,,,,,,,,,,,,,,,,,,,,,,,,,,,,,,,,,,,,,,,,,,,
13083,1650415182.667606,1650415182.687244,87.0,0.0,4328.717772999999,4426.153809,4285.641113000001,4314.358886999999,4284.615234000001,16256.0,3.0,68.0,,,,0.0,4.0,2.0,1.0,0.0,4.0,25.0,,,,,,,,,,,,,,,,,,,,,,,,,,,,,,,,,,,,,,,,,,,,,,,,,,,,,,,,,,,,,,,,,,,,,,,,,,,,,,,,,,,,
13084,1650415182.6754198,1650415182.694958,88.0,0.0,4346.666504,4446.153809,4294.871582,4309.743652,4301.538574,450.0,3.0,68.0,,,,0.0,4.0,2.0,1.0,0.0,4.0,25.0,,,,,,,,44.0,0.0,0.096287,-0.545166,0.36499000000000004,0.7485350000000001,0.89015,-0.45801499999999995,-0.139651,-0.044939,-0.056044000000000004,-0.016423,,,,,,,,,,,,,,,,,,,,,,,,,,,,,,,,,,,,,,,,,,,,,,,,,,,,,,,,,,,,,,,,,
13085,1650415182.683235,1650415182.702873,89.0,0.0,4338.974121,4462.563965,4283.077147999999,4329.743652,4303.589844,450.0,3.0,68.0,,,,0.0,4.0,2.0,1.0,0.0,4.0,25.0,,,,,,,,,,,,,,,,,,,,1.0,0.0,0.0,,,,,,,,,,,,,,,,,,,,,,,,,,,,,,,,0.0,0.0,1.0,0.0,512.0,1.0,261.54614300000003,26.677165999999996,8.815077,2.763604,1.7683490000000002,40.967079,11.859653999999999,11.129252000000001,5.120586,2.832143,2.80408,2.586067,1.9102689999999998,1.9259220000000001,2.8558689999999998,56.974934,42.007061,23.862223,20.967274,12.865506,79.473801,5.284857,5.141543,2.245274,2.605683
13086,1650415182.691049,1650415182.710687,90.0,0.0,4301.538574,4456.410156,4278.461426,4307.179688,4280.512695,450.0,3.0,68.0,,,,0.0,4.0,2.0,1.0,0.0,4.0,25.0,,,,,,,,45.0,0.0,0.096287,-0.545166,0.36499000000000004,0.7485350000000001,0.897963,-0.441413,-0.155764,-0.045035000000000006,-0.056054999999999994,-0.014731999999999999,,,,,,,,,,,,,,,,,,,,,,,,,,,,,,,,,,,,,,,,,,,,,,,,,,,,,,,,,,,,,,,,,
13087,1650415182.698864,1650415182.718502,91.0,0.0,4297.94873,4452.820313,4300.0,4281.538574,4283.589844,16256.0,3.0,68.0,,,,0.0,4.0,2.0,1.0,0.0,4.0,25.0,,,,,,,,,,,,,,,,,,,,,,,,,,,,,,,,,,,,,,,,,,,,,,,,,,,,,,,,,,,,,,,,,,,,,,,,,,,,,,,,,,,,
13088,1650415182.706678,1650415182.726217,92.0,0.0,4318.974121,4438.461426,4297.94873,4298.974121,4302.05127,450.0,3.0,68.0,,,,0.0,4.0,2.0,1.0,0.0,4.0,25.0,,,,,,,,46.0,0.0,0.096287,-0.545166,0.36499000000000004,0.7485350000000001,0.89015,-0.45801499999999995,-0.139651,-0.045170999999999996,-0.056065,-0.01321,,,,,,,,,,,,,,,,,,,,,,,,,,,,,,,,,,,,,,,,,,,,,,,,,,,,,,,,,,,,,,,,,
13089,1650415182.714493,1650415182.734131,93.0,0.0,4323.589844,4415.897461,4271.282227000001,4336.410156,4295.384765999999,450.0,3.0,68.0,,,,0.0,4.0,2.0,1.0,0.0,4.0,25.0,,,,,,,,,,,,,,,,,,,,,,,,,,,,,,,,,,,,,,,,,,,,,,,,,,,,,,0.0,0.0,1.0,0.0,512.0,1.0,,,,,,,,,,,,,,,,,,,,,,,,,
13090,1650415182.722307,1650415182.741946,94.0,0.0,4302.563965,4400.512695,4275.384765999999,4343.077147999999,4271.282227000001,450.0,3.0,68.0,,,,0.0,4.0,2.0,1.0,0.0,4.0,25.0,,,,,,,,47.0,0.0,0.096287,-0.545166,0.36499000000000004,0.7485350000000001,0.9004040000000001,-0.448737,-0.134768,-0.045292,-0.056074,-0.015112,,,,,,,,,,,,,,,,,,,,,,,,,,,,,,,,,,,,,,,,,,,,,,,,,,,,,,,,,,,,,,,,,
13091,1650415182.7301211,1650415182.749861,95.0,0.0,4284.102539,4402.05127,4290.256348,4310.256348,4257.436035,16256.0,3.0,68.0,,,,0.0,4.0,2.0,1.0,0.0,4.0,25.0,,,,,,,,,,,,,,,,,,,,,,,,,,,,,,,,,,,,,,,,,,,,,,,,,,,,,,,,,,,,,,,,,,,,,,,,,,,,,,,,,,,,
13092,1650415182.737936,1650415182.757675,96.0,0.0,4305.128418,4419.487305,4284.102539,4288.205078,4273.333496,450.0,3.0,68.0,,,,0.0,4.0,2.0,1.0,0.0,4.0,25.0,,,,,,,,48.0,0.0,0.096287,-0.545166,0.36499000000000004,0.7485350000000001,0.8994280000000001,-0.438483,-0.145022,-0.045353,-0.05608200000000001,-0.016822999999999998,,,,,,,,,,,,,,,,,,,,,,,,,,,,,,,,,,,,,,,,,,,,,,,,,,,,,,,,,,,,,,,,,
13093,1650415182.745751,1650415182.76559,97.0,0.0,4336.410156,4423.589844,4284.615234000001,4294.871582,4298.461426,450.0,3.0,68.0,,,,0.0,4.0,2.0,1.0,0.0,4.0,25.0,,,,,,,,,,,,,,,,,,,,,,,,,,,,,,,,,,,,,,,,,,,,,,,,,,,,,,0.0,0.0,1.0,0.0,512.0,1.0,,,,,,,,,,,,,,,,,,,,,,,,,
13094,1650415182.753565,1650415182.773404,98.0,0.0,4334.358886999999,4389.230957,4287.179688,4321.025879,4300.0,450.0,3.0,68.0,,,,0.0,4.0,2.0,1.0,0.0,4.0,25.0,,,,,,,,49.0,0.0,0.09489500000000001,-0.5454100000000001,0.36499000000000004,0.7485350000000001,0.897475,-0.45020200000000005,-0.14551,-0.045359,-0.056089,-0.015092,,,,,,,,,,,,,,,,,,,,,,,,,,,,,,,,,,,,,,,,,,,,,,,,,,,,,,,,,,,,,,,,,
13095,1650415182.761379,1650415182.781319,99.0,0.0,4315.897461,4348.205078,4281.538574,4327.692383,4285.641113000001,16256.0,3.0,68.0,,,,0.0,4.0,2.0,1.0,0.0,4.0,25.0,,,,,,,,,,,,,,,,,,,,,,,,,,,,,,,,,,,,,,,,,,,,,,,,,,,,,,,,,,,,,,,,,,,,,,,,,,,,,,,,,,,,
13096,1650415182.769194,1650415182.789134,100.0,0.0,4325.641113000001,4356.922852000001,4285.128418,4305.641113000001,4276.410156,450.0,3.0,68.0,,,,0.0,4.0,2.0,1.0,0.0,4.0,25.0,,,,,,,,50.0,0.0,0.096801,-0.5454100000000001,0.36499000000000004,0.748291,0.882826,-0.43994799999999995,-0.14844000000000002,-0.045364,-0.056095000000000006,-0.016756999999999998,,,,,,,,,,,,,,,,,,,,,,,,,,,,,,,,,,,,,,,,,,,,,,,,,,,,,,,,,,,,,,,,,
13097,1650415182.777008,1650415182.796948,101.0,0.0,4343.589844,4371.282227000001,4298.461426,4289.230957,4273.333496,450.0,3.0,68.0,,,,0.0,4.0,2.0,1.0,0.0,4.0,25.0,,,,,,,,,,,,,,,,,,,,,,,,,,,,,,,,,,,,,,,,,,,,,,,,,,,,,,0.0,0.0,1.0,0.0,512.0,1.0,,,,,,,,,,,,,,,,,,,,,,,,,
13098,1650415182.784823,1650415182.8046632,102.0,0.0,4332.820313,4352.820313,4295.897461,4291.282227000001,4273.846191,450.0,3.0,68.0,,,,0.0,4.0,2.0,1.0,0.0,4.0,25.0,,,,,,,,51.0,0.0,0.095829,-0.5454100000000001,0.364746,0.7485350000000001,0.8916149999999999,-0.43994799999999995,-0.139651,-0.045417,-0.05615,-0.021282,,,,,,,,,,,,,,,,,,,,,,,,,,,,,,,,,,,,,,,,,,,,,,,,,,,,,,,,,,,,,,,,,
13099,1650415182.7926369,1650415182.8124778,103.0,0.0,4315.897461,4356.410156,4282.05127,4296.922852000001,4277.436035,16256.0,3.0,68.0,,,,0.0,4.0,2.0,1.0,0.0,4.0,25.0,,,,,,,,,,,,,,,,,,,,,,,,,,,,,,,,,,,,,,,,,,,,,,,,,,,,,,,,,,,,,,,,,,,,,,,,,,,,,,,,,,,,
13100,1650415182.800452,1650415182.820192,104.0,0.0,4319.487305,4406.153809,4291.794922,4300.0,4278.974121,450.0,3.0,68.0,,,,0.0,4.0,2.0,1.0,0.0,4.0,25.0,,,,,,,,52.0,0.0,0.095829,-0.5454100000000001,0.364746,0.7485350000000001,0.897475,-0.44434300000000004,-0.145022,-0.045514,-0.05615,-0.022377,,,,,,,,,,,,,,,,,,,,,,,,,,,,,,,,,,,,,,,,,,,,,,,,,,,,,,,,,,,,,,,,,
13101,1650415182.808266,1650415182.828007,105.0,0.0,4330.256348,4422.05127,4307.692383,4306.153809,4285.641113000001,450.0,3.0,68.0,,,,0.0,4.0,2.0,1.0,0.0,4.0,25.0,,,,,,,,,,,,,,,,,,,,1.0,0.0,0.0,,,,,,,,,,,,,,,,,,,,,,,,,,,,,,,,0.0,0.0,1.0,0.0,512.0,1.0,208.149536,20.640423000000002,7.542852000000001,2.792796,2.077865,37.207504,14.701972,12.618601,5.094048,2.795213,2.6688669999999997,2.871465,2.3220650000000003,1.9323990000000002,3.0289080000000004,42.987716999999996,31.799318,23.035196,21.508675,12.300218,64.09934200000001,4.401928,4.679524,2.458581,2.571919
13102,1650415182.816081,1650415182.835822,106.0,0.0,4336.922852000001,4397.436035,4296.922852000001,4307.692383,4307.179688,450.0,3.0,68.0,,,,0.0,4.0,2.0,1.0,0.0,4.0,25.0,,,,,,,,53.0,0.0,0.097717,-0.5454100000000001,0.364746,0.748291,0.8964979999999999,-0.45459700000000003,-0.12695499999999998,-0.045504,-0.056199,-0.023215,,,,,,,,,,,,,,,,,,,,,,,,,,,,,,,,,,,,,,,,,,,,,,,,,,,,,,,,,,,,,,,,,
13103,1650415182.823895,1650415182.843536,107.0,0.0,4342.05127,4432.820313,4278.461426,4322.563965,4315.897461,16256.0,3.0,68.0,,,,0.0,4.0,2.0,1.0,0.0,4.0,25.0,,,,,,,,,,,,,,,,,,,,,,,,,,,,,,,,,,,,,,,,,,,,,,,,,,,,,,,,,,,,,,,,,,,,,,,,,,,,,,,,,,,,
13104,1650415182.8317099,1650415182.851351,108.0,0.0,4319.487305,4470.769043,4286.153809,4324.615234000001,4289.230957,450.0,3.0,68.0,,,,0.0,4.0,2.0,1.0,0.0,4.0,25.0,,,,,,,,54.0,0.0,0.095829,-0.5454100000000001,0.364746,0.7485350000000001,0.8916149999999999,-0.442878,-0.136233,-0.045641,-0.056146,-0.024117,,,,,,,,,,,,,,,,,,,,,,,,,,,,,,,,,,,,,,,,,,,,,,,,,,,,,,,,,,,,,,,,,
13105,1650415182.839524,1650415182.859266,109.0,0.0,4300.512695,4436.410156,4296.410156,4285.128418,4273.846191,450.0,3.0,68.0,,,,0.0,4.0,2.0,1.0,0.0,4.0,25.0,,,,,,,,,,,,,,,,,,,,,,,,,,,,,,,,,,,,,,,,,,,,,,,,,,,,,,0.0,0.0,1.0,0.0,512.0,1.0,,,,,,,,,,,,,,,,,,,,,,,,,
13106,1650415182.8473392,1650415182.86708,110.0,0.0,4318.974121,4393.846191,4275.897461,4274.871582,4283.077147999999,450.0,3.0,68.0,,,,0.0,4.0,2.0,1.0,0.0,4.0,25.0,,,,,,,,55.0,0.0,0.097717,-0.5454100000000001,0.364746,0.748291,0.900893,-0.43994799999999995,-0.129885,-0.045716,-0.056147,-0.024928,,,,,,,,,,,,,,,,,,,,,,,,,,,,,,,,,,,,,,,,,,,,,,,,,,,,,,,,,,,,,,,,,
13107,1650415182.8551528,1650415182.874795,111.0,0.0,4335.384765999999,4386.153809,4269.230957,4293.846191,4279.487305,16256.0,3.0,68.0,,,,0.0,4.0,2.0,1.0,0.0,4.0,25.0,,,,,,,,,,,,,,,,,,,,,,,,,,,,,,,,,,,,,,,,,,,,,,,,,,,,,,,,,,,,,,,,,,,,,,,,,,,,,,,,,,,,
13108,1650415182.862967,1650415182.88271,112.0,0.0,4331.282227000001,4388.205078,4296.410156,4292.820313,4283.589844,450.0,3.0,68.0,,,,0.0,4.0,2.0,1.0,0.0,4.0,25.0,,,,,,,,56.0,0.0,0.097717,-0.5454100000000001,0.364746,0.748291,0.8964979999999999,-0.451179,-0.136721,-0.045734,-0.056099,-0.025706,,,,,,,,,,,,,,,,,,,,,,,,,,,,,,,,,,,,,,,,,,,,,,,,,,,,,,,,,,,,,,,,,
13109,1650415182.8707821,1650415182.890524,113.0,0.0,4324.615234000001,4401.025879,4295.897461,4290.769043,4305.641113000001,450.0,3.0,68.0,,,,0.0,4.0,2.0,1.0,0.0,4.0,25.0,,,,,,,,,,,,,,,,,,,,,,,,,,,,,,,,,,,,,,,,,,,,,,,,,,,,,,0.0,0.0,1.0,0.0,512.0,1.0,,,,,,,,,,,,,,,,,,,,,,,,,
13110,1650415182.878596,1650415182.898339,114.0,0.0,4320.0,4404.615234000001,4271.794922,4307.692383,4292.820313,450.0,3.0,68.0,,,,0.0,4.0,2.0,1.0,0.0,4.0,25.0,,,,,,,,57.0,0.0,0.096344,-0.545654,0.364746,0.748291,0.8969860000000001,-0.446784,-0.139651,-0.045897,-0.056103999999999994,-0.020206000000000002,,,,,,,,,,,,,,,,,,,,,,,,,,,,,,,,,,,,,,,,,,,,,,,,,,,,,,,,,,,,,,,,,
13111,1650415182.886411,1650415182.906054,115.0,0.0,4309.230957,4368.717772999999,4270.769043,4311.282227000001,4257.436035,16256.0,3.0,68.0,,,,0.0,4.0,2.0,1.0,0.0,4.0,25.0,,,,,,,,,,,,,,,,,,,,,,,,,,,,,,,,,,,,,,,,,,,,,,,,,,,,,,,,,,,,,,,,,,,,,,,,,,,,,,,,,,,,
13112,1650415182.894225,1650415182.913868,116.0,0.0,4316.410156,4369.230957,4296.410156,4297.436035,4258.461426,450.0,3.0,68.0,,,,0.0,4.0,2.0,1.0,0.0,4.0,25.0,,,,,,,,58.0,0.0,0.096344,-0.545654,0.364746,0.748291,0.903334,-0.44483100000000003,-0.137209,-0.045946,-0.056109000000000006,-0.021555,,,,,,,,,,,,,,,,,,,,,,,,,,,,,,,,,,,,,,,,,,,,,,,,,,,,,,,,,,,,,,,,,
