,Timestamp,OriginalTimestamp,EEG.Counter,EEG.Interpolated,EEG.AF3,EEG.T7,EEG.Pz,EEG.T8,EEG.AF4,EEG.RawCq,EEG.Battery,EEG.BatteryPercent,MarkerIndex,MarkerType,MarkerValueInt,EEG.MarkerHardware,CQ.AF3,CQ.T7,CQ.Pz,CQ.T8,CQ.AF4,CQ.Overall,EQ.SampleRateQuality,EQ.OVERALL,EQ.AF3,EQ.T7,EQ.Pz,EQ.T8,EQ.AF4,MOT.CounterMems,MOT.InterpolatedMems,MOT.Q0,MOT.Q1,MOT.Q2,MOT.Q3,MOT.AccX,MOT.AccY,MOT.AccZ,MOT.MagX,MOT.MagY,MOT.MagZ,MC.Action,MC.ActionPower,MC.IsActive,PM.Engagement.IsActive,PM.Engagement.Scaled,PM.Engagement.Raw,PM.Engagement.Min,PM.Engagement.Max,PM.Excitement.IsActive,PM.Excitement.Scaled,PM.Excitement.Raw,PM.Excitement.Min,PM.Excitement.Max,PM.LongTermExcitement,PM.Stress.IsActive,PM.Stress.Scaled,PM.Stress.Raw,PM.Stress.Min,PM.Stress.Max,PM.Relaxation.IsActive,PM.Relaxation.Scaled,PM.Relaxation.Raw,PM.Relaxation.Min,PM.Relaxation.Max,PM.Interest.IsActive,PM.Interest.Scaled,PM.Interest.Raw,PM.Interest.Min,PM.Interest.Max,PM.Focus.IsActive,PM.Focus.Scaled,PM.Focus.Raw,PM.Focus.Min,PM.Focus.Max,FE.BlinkWink,FE.HorizontalEyesDirection,FE.UpperFaceAction,FE.UpperFaceActionPower,FE.LowerFaceAction,FE.LowerFaceActionPower,POW.AF3.Theta,POW.AF3.Alpha,POW.AF3.BetaL,POW.AF3.BetaH,POW.AF3.Gamma,POW.T7.Theta,POW.T7.Alpha,POW.T7.BetaL,POW.T7.BetaH,POW.T7.Gamma,POW.Pz.Theta,POW.Pz.Alpha,POW.Pz.BetaL,POW.Pz.BetaH,POW.Pz.Gamma,POW.T8.Theta,POW.T8.Alpha,POW.T8.BetaL,POW.T8.BetaH,POW.T8.Gamma,POW.AF4.Theta,POW.AF4.Alpha,POW.AF4.BetaL,POW.AF4.BetaH,POW.AF4.Gamma
9631,1645901843.073078,1645901843.112488,72.0,0.0,4344.615234000001,4340.512695,4249.230957,4175.897461,4271.282227000001,450.0,1.0,15.0,12.0,1.0,4.0,0.0,4.0,2.0,0.0,4.0,4.0,50.0,,,,,,,,36.0,0.0,0.7176520000000001,0.115479,0.663818,0.176025,0.9116350000000001,-0.391119,-0.102052,-0.029511000000000003,-0.034178,-0.009893,,,,,,,,,,,,,,,,,,,,,,,,,,,,,,,,,,,,,,,,,,,,,,,,,,,,,,,,,,,,,,,,,
9632,1645901843.080893,1645901843.120303,73.0,0.0,4358.461426,4392.307617,4252.820313,4153.333496,4285.641113000001,16244.0,1.0,15.0,,,,0.0,4.0,2.0,0.0,4.0,4.0,50.0,,,,,,,,,,,,,,,,,,,,,,,,,,,,,,,,,,,,,,,,,,,,,,,,,,,,,,,,,,,,,,,,,,,,,,,,,,,,,,,,,,,,
9633,1645901843.088708,1645901843.128118,74.0,0.0,4331.282227000001,4390.256348,4306.153809,4130.769043,4277.94873,450.0,1.0,15.0,,,,0.0,4.0,2.0,0.0,4.0,4.0,50.0,,,,,,,,37.0,0.0,0.7176520000000001,0.115479,0.663818,0.176025,0.9116350000000001,-0.411627,-0.087892,-0.029831,-0.03408,-0.008171,,,,,,,,,,,,,,,,,,,,,,,,,,,,,,,,,,,0.0,0.0,1.0,0.0,512.0,1.0,,,,,,,,,,,,,,,,,,,,,,,,,
9634,1645901843.096523,1645901843.135932,75.0,0.0,4328.205078,4352.820313,4258.974121,4156.922852000001,4255.384765999999,16264.0,1.0,15.0,,,,0.0,4.0,2.0,0.0,4.0,4.0,50.0,,,,,,,,,,,,,,,,,,,,,,,,,,,,,,,,,,,,,,,,,,,,,,,,,,,,,,,,,,,,,,,,,,,,,,,,,,,,,,,,,,,,
9635,1645901843.1043391,1645901843.143747,76.0,0.0,4357.94873,4400.512695,4259.487305,4158.461426,4267.179688,450.0,1.0,15.0,,,,0.0,4.0,2.0,0.0,4.0,4.0,50.0,,,,,,,,38.0,0.0,0.717592,0.115479,0.663818,0.17627,0.9155409999999999,-0.39942,-0.096193,-0.030168,-0.034187999999999996,-0.006523999999999999,,,,,,,,,,,,,,,,,,,,,,,,,,,,,,,,,,,,,,,,,,,,,,,,,,,,,,,,,,,,,,,,,
9636,1645901843.112154,1645901843.151562,77.0,0.0,4367.179688,4472.307617,4295.897461,4163.077147999999,4287.179688,450.0,1.0,15.0,,,,0.0,4.0,2.0,0.0,4.0,4.0,50.0,,,,,,,,,,,,,,,,,,,,,,,,,,,,,,,,,,,,,,,,,,,,,,,,,,,,,,,,,,,,,,,,,,,,,,,,,,,,,,,,,,,,
9637,1645901843.119969,1645901843.159376,78.0,0.0,4368.205078,4437.436035,4254.871582,4174.871582,4271.794922,450.0,1.0,15.0,,,,0.0,4.0,2.0,0.0,4.0,4.0,50.0,,,,,,,,39.0,0.0,0.717592,0.115479,0.663818,0.17627,0.926284,-0.404791,-0.099123,-0.030325,-0.034138,-0.008264,,,,,,,,,,,,,,,,,,,,,,,,,,,,,,,,,,,0.0,0.0,1.0,0.0,512.0,1.0,,,,,,,,,,,,,,,,,,,,,,,,,
9638,1645901843.127784,1645901843.167191,79.0,0.0,4358.461426,4363.077147999999,4216.922852000001,4166.666504,4271.282227000001,16264.0,1.0,15.0,,,,0.0,4.0,2.0,0.0,4.0,4.0,50.0,,,,,,,,,,,,,,,,,,,,,,,,,,,,,,,,,,,,,,,,,,,,,,,,,,,,,,,,,,,,,,,,,,,,,,,,,,,,,,,,,,,,
9639,1645901843.1355991,1645901843.174906,80.0,0.0,4315.384765999999,4330.769043,4251.282227000001,4171.282227000001,4255.384765999999,450.0,1.0,15.0,,,,0.0,4.0,2.0,0.0,4.0,4.0,50.0,,,,,,,,40.0,0.0,0.7178180000000001,0.115479,0.663574,0.17627,0.9272600000000001,-0.408209,-0.10693499999999999,-0.030418,-0.034143,-0.009879,,,,,,,,,,,,,,,,,,,,,,,,,,,,,,,,,,,,,,,,,,,,,,,,,,,,,,,,,,,,,,,,,
9640,1645901843.143414,1645901843.18272,81.0,0.0,4315.897461,4369.230957,4230.769043,4180.512695,4245.128418,450.0,1.0,15.0,,,,0.0,4.0,2.0,0.0,4.0,4.0,50.0,,,,,,,,,,,,,,,,,,,,,,,,,,,,,,,,,,,,,,,,,,,,,,,,,,,,,,,,,,,,,,,,,,,,,,,,,,,,,,,,,,,,
9641,1645901843.15123,1645901843.190535,82.0,0.0,4326.666504,4445.641113000001,4181.538574,4144.102539,4269.743652,450.0,1.0,15.0,,,,0.0,4.0,2.0,0.0,4.0,4.0,50.0,,,,,,,,41.0,0.0,0.717878,0.115479,0.663574,0.176025,0.9072399999999999,-0.410163,-0.086427,-0.027425,-0.034145999999999996,-0.007964,,,,,,,,,,,,,,,,,,,,,,,,,,,,,,,,,,,0.0,0.0,1.0,0.0,512.0,1.0,,,,,,,,,,,,,,,,,,,,,,,,,
9642,1645901843.159045,1645901843.19835,83.0,0.0,4322.05127,4437.94873,4185.128418,4143.589844,4289.230957,16264.0,1.0,15.0,,,,0.0,4.0,2.0,0.0,4.0,4.0,50.0,,,,,,,,,,,,,,,,,,,,,,,,,,,,,,,,,,,,,,,,,,,,,,,,,,,,,,,,,,,,,,,,,,,,,,,,,,,,,,,,,,,,
9643,1645901843.1668599,1645901843.2061641,84.0,0.0,4336.410156,4391.282227000001,4203.589844,4164.615234000001,4266.666504,450.0,1.0,15.0,,,,0.0,4.0,2.0,0.0,4.0,4.0,50.0,,,,,,,,42.0,0.0,0.717878,0.115479,0.663574,0.176025,0.9243309999999999,-0.398932,-0.10498199999999999,-0.024731,-0.034003,-0.009462,,,,,,,,,,,,,,,,,,,,,,,,,,,,,,,,,,,,,,,,,,,,,,,,,,,,,,,,,,,,,,,,,
9644,1645901843.174675,1645901843.213979,85.0,0.0,4353.333496,4395.897461,4212.820313,4145.641113000001,4254.871582,450.0,1.0,15.0,,,,0.0,4.0,2.0,0.0,4.0,4.0,50.0,,,,,,,,,,,,,,,,,,,,,,,,,,,,,,,,,,,,,,,,,,,,,,,,,,,,,,,,,,,,,,,,,,,,,,,,,,,,,,,,,,,,
9645,1645901843.18249,1645901843.221793,86.0,0.0,4333.333496,4417.94873,4230.256348,4140.512695,4248.205078,450.0,1.0,15.0,,,,0.0,4.0,2.0,0.0,4.0,4.0,50.0,0.972656,33.333332,4.0,0.0,0.0,4.0,4.0,43.0,0.0,0.717878,0.115479,0.663574,0.176025,0.922866,-0.38721300000000003,-0.100587,-0.025334,-0.033923,-0.010762,1.0,0.0,0.0,,,,,,,,,,,,,,,,,,,,,,,,,,,,,,,,0.0,0.0,1.0,0.0,512.0,1.0,2.071343,3.247877,0.568159,0.725264,1.0513350000000001,694.643005,143.905441,132.892151,35.593399,15.848099,33.720348,39.149269,2.232327,2.7466049999999997,4.718634,7.689075,2.777184,3.079943,4.983748,2.482127,2.328831,2.243649,3.098207,2.237284,1.263525
9646,1645901843.190305,1645901843.229608,87.0,0.0,4326.666504,4453.333496,4265.128418,4173.333496,4244.615234000001,16264.0,1.0,15.0,,,,0.0,4.0,2.0,0.0,4.0,4.0,50.0,,,,,,,,,,,,,,,,,,,,,,,,,,,,,,,,,,,,,,,,,,,,,,,,,,,,,,,,,,,,,,,,,,,,,,,,,,,,,,,,,,,,
9647,1645901843.1981199,1645901843.237423,88.0,0.0,4340.512695,4445.641113000001,4243.077147999999,4157.94873,4258.461426,450.0,1.0,15.0,,,,0.0,4.0,2.0,0.0,4.0,4.0,50.0,,,,,,,,44.0,0.0,0.7176520000000001,0.115479,0.663818,0.176025,0.925795,-0.390631,-0.09765800000000001,-0.025975,-0.033851,-0.008856000000000001,,,,,,,,,,,,,,,,,,,,,,,,,,,,,,,,,,,,,,,,,,,,,,,,,,,,,,,,,,,,,,,,,
9648,1645901843.205936,1645901843.2451382,89.0,0.0,4337.94873,4402.563965,4261.538574,4125.128418,4256.922852000001,450.0,1.0,15.0,,,,0.0,4.0,2.0,0.0,4.0,4.0,50.0,,,,,,,,,,,,,,,,,,,,,,,,,,,,,,,,,,,,,,,,,,,,,,,,,,,,,,,,,,,,,,,,,,,,,,,,,,,,,,,,,,,,
9649,1645901843.213751,1645901843.2529519,90.0,0.0,4333.846191,4395.384765999999,4257.94873,4135.384765999999,4245.128418,450.0,1.0,15.0,,,,0.0,4.0,2.0,0.0,4.0,4.0,50.0,,,,,,,,45.0,0.0,0.717878,0.115479,0.663574,0.176025,0.9243309999999999,-0.398932,-0.10498199999999999,-0.026454000000000002,-0.033933,-0.010216,,,,,,,,,,,,,,,,,,,,,,,,,,,,,,,,,,,0.0,0.0,1.0,0.0,512.0,1.0,,,,,,,,,,,,,,,,,,,,,,,,,
9650,1645901843.221566,1645901843.260767,91.0,0.0,4337.94873,4427.179688,4248.717772999999,4146.153809,4256.410156,16264.0,1.0,15.0,,,,0.0,4.0,2.0,0.0,4.0,4.0,50.0,,,,,,,,,,,,,,,,,,,,,,,,,,,,,,,,,,,,,,,,,,,,,,,,,,,,,,,,,,,,,,,,,,,,,,,,,,,,,,,,,,,,
9651,1645901843.229381,1645901843.2685812,92.0,0.0,4348.205078,4406.666504,4247.179688,4148.205078,4277.436035,450.0,1.0,15.0,,,,0.0,4.0,2.0,0.0,4.0,4.0,50.0,,,,,,,,46.0,0.0,0.7176520000000001,0.115479,0.663818,0.176025,0.925795,-0.390631,-0.09765800000000001,-0.026982,-0.03386,-0.008365000000000001,,,,,,,,,,,,,,,,,,,,,,,,,,,,,,,,,,,,,,,,,,,,,,,,,,,,,,,,,,,,,,,,,
9652,1645901843.2371962,1645901843.276396,93.0,0.0,4345.128418,4394.871582,4274.871582,4161.538574,4265.641113000001,450.0,1.0,15.0,,,,0.0,4.0,2.0,0.0,4.0,4.0,50.0,,,,,,,,,,,,,,,,,,,,,,,,,,,,,,,,,,,,,,,,,,,,,,,,,,,,,,,,,,,,,,,,,,,,,,,,,,,,,,,,,,,,
9653,1645901843.2450109,1645901843.284211,94.0,0.0,4331.282227000001,4437.436035,4228.205078,4174.358886999999,4272.307617,450.0,1.0,15.0,,,,0.0,4.0,2.0,0.0,4.0,4.0,50.0,,,,,,,,47.0,0.0,0.717899,0.115723,0.663574,0.175781,0.9272600000000001,-0.393561,-0.114748,-0.027507,-0.033843,-0.0067469999999999995,,,,,,,,,,,,,,,,,,,,,,,,,,,,,,,,,,,0.0,0.0,1.0,0.0,512.0,1.0,,,,,,,,,,,,,,,,,,,,,,,,,
9654,1645901843.252827,1645901843.292025,95.0,0.0,4305.641113000001,4432.307617,4186.666504,4175.384765999999,4276.922852000001,16264.0,1.0,15.0,,,,0.0,4.0,2.0,0.0,4.0,4.0,50.0,,,,,,,,,,,,,,,,,,,,,,,,,,,,,,,,,,,,,,,,,,,,,,,,,,,,,,,,,,,,,,,,,,,,,,,,,,,,,,,,,,,,
9655,1645901843.260642,1645901843.29984,96.0,0.0,4312.820313,4465.641113000001,4190.256348,4164.615234000001,4267.179688,450.0,1.0,15.0,,,,0.0,4.0,2.0,0.0,4.0,4.0,50.0,,,,,,,,48.0,0.0,0.717799,0.115967,0.663574,0.176025,0.9131,-0.398444,-0.089357,-0.027881,-0.033828,-0.008465,,,,,,,,,,,,,,,,,,,,,,,,,,,,,,,,,,,,,,,,,,,,,,,,,,,,,,,,,,,,,,,,,
9656,1645901843.268457,1645901843.307655,97.0,0.0,4307.692383,4538.461426,4205.641113000001,4128.205078,4259.487305,450.0,1.0,15.0,,,,0.0,4.0,2.0,0.0,4.0,4.0,50.0,,,,,,,,,,,,,,,,,,,,,,,,,,,,,,,,,,,,,,,,,,,,,,,,,,,,,,,,,,,,,,,,,,,,,,,,,,,,,,,,,,,,
9657,1645901843.276272,1645901843.315469,98.0,0.0,4289.230957,4515.897461,4218.461426,4124.615234000001,4256.922852000001,450.0,1.0,15.0,,,,0.0,4.0,2.0,0.0,4.0,4.0,50.0,,,,,,,,49.0,0.0,0.717799,0.115967,0.663574,0.176025,0.9194479999999999,-0.40235,-0.084962,-0.028218,-0.033863,-0.006886,,,,,,,,,,,,,,,,,,,,,,,,,,,,,,,,,,,0.0,0.0,1.0,0.0,512.0,1.0,,,,,,,,,,,,,,,,,,,,,,,,,
9658,1645901843.284087,1645901843.323184,99.0,0.0,4280.512695,4460.0,4268.717772999999,4135.897461,4230.256348,16264.0,1.0,15.0,,,,0.0,4.0,2.0,0.0,4.0,4.0,50.0,,,,,,,,,,,,,,,,,,,,,,,,,,,,,,,,,,,,,,,,,,,,,,,,,,,,,,,,,,,,,,,,,,,,,,,,,,,,,,,,,,,,
9659,1645901843.291902,1645901843.3309991,100.0,0.0,4292.307617,4482.563965,4287.692383,4137.436035,4210.769043,450.0,1.0,15.0,,,,0.0,4.0,2.0,0.0,4.0,4.0,50.0,,,,,,,,50.0,0.0,0.717474,0.116211,0.663818,0.17627,0.917494,-0.397467,-0.086427,-0.028619,-0.033846,-0.00859,,,,,,,,,,,,,,,,,,,,,,,,,,,,,,,,,,,,,,,,,,,,,,,,,,,,,,,,,,,,,,,,,
9660,1645901843.299718,1645901843.338813,101.0,0.0,4290.769043,4510.769043,4256.410156,4147.692383,4207.692383,450.0,1.0,15.0,,,,0.0,4.0,2.0,0.0,4.0,4.0,50.0,,,,,,,,,,,,,,,,,,,,,,,,,,,,,,,,,,,,,,,,,,,,,,,,,,,,,,,,,,,,,,,,,,,,,,,,,,,,,,,,,,,,
9661,1645901843.307533,1645901843.3465278,102.0,0.0,4281.025879,4507.692383,4270.769043,4176.922852000001,4207.692383,450.0,1.0,15.0,,,,0.0,4.0,2.0,0.0,4.0,4.0,50.0,,,,,,,,51.0,0.0,0.717474,0.116211,0.663818,0.17627,0.905776,-0.392584,-0.09033300000000001,-0.028931000000000002,-0.033831,-0.006998999999999999,1.0,0.0,0.0,,,,,,,,,,,,,,,,,,,,,,,,,,,,,,,,0.0,0.0,1.0,0.0,512.0,1.0,1.678985,3.480889,0.692307,0.931105,0.9677399999999999,783.186096,148.682999,133.664597,39.353626,18.399754,31.333763,35.127956,2.377889,2.8084290000000003,5.114592,7.645695,3.242642,4.096768,4.364814,2.476327,2.1536869999999997,2.01903,3.2597150000000004,2.56767,1.390076
9662,1645901843.3153481,1645901843.354343,103.0,0.0,4284.615234000001,4500.0,4266.153809,4178.461426,4215.897461,16264.0,1.0,15.0,,,,0.0,4.0,2.0,0.0,4.0,4.0,50.0,,,,,,,,,,,,,,,,,,,,,,,,,,,,,,,,,,,,,,,,,,,,,,,,,,,,,,,,,,,,,,,,,,,,,,,,,,,,,,,,,,,,
9663,1645901843.323163,1645901843.362157,104.0,0.0,4286.666504,4502.05127,4273.846191,4172.820313,4232.307617,450.0,1.0,15.0,,,,0.0,4.0,2.0,0.0,4.0,4.0,50.0,,,,,,,,52.0,0.0,0.717474,0.116211,0.663818,0.17627,0.9150530000000001,-0.394049,-0.092287,-0.02926,-0.033915,-0.008545,,,,,,,,,,,,,,,,,,,,,,,,,,,,,,,,,,,,,,,,,,,,,,,,,,,,,,,,,,,,,,,,,
9664,1645901843.330978,1645901843.369972,105.0,0.0,4290.769043,4562.563965,4273.846191,4165.128418,4237.436035,450.0,1.0,15.0,,,,0.0,4.0,2.0,0.0,4.0,4.0,50.0,,,,,,,,,,,,,,,,,,,,,,,,,,,,,,,,,,,,,,,,,,,,,,,,,,,,,,,,,,,,,,,,,,,,,,,,,,,,,,,,,,,,
9665,1645901843.338794,1645901843.377687,106.0,0.0,4302.05127,4584.102539,4303.589844,4150.769043,4248.717772999999,450.0,1.0,15.0,,,,0.0,4.0,2.0,0.0,4.0,4.0,50.0,,,,,,,,53.0,0.0,0.717414,0.116211,0.663818,0.176514,0.897963,-0.397467,-0.093263,-0.029459,-0.03399,-0.006909,,,,,,,,,,,,,,,,,,,,,,,,,,,,,,,,,,,0.0,0.0,1.0,0.0,512.0,1.0,,,,,,,,,,,,,,,,,,,,,,,,,
9666,1645901843.3466089,1645901843.385501,107.0,0.0,4332.307617,4485.641113000001,4247.179688,4153.846191,4265.128418,16264.0,1.0,15.0,,,,0.0,4.0,2.0,0.0,4.0,4.0,50.0,,,,,,,,,,,,,,,,,,,,,,,,,,,,,,,,,,,,,,,,,,,,,,,,,,,,,,,,,,,,,,,,,,,,,,,,,,,,,,,,,,,,
9667,1645901843.354424,1645901843.393316,108.0,0.0,4335.897461,4460.0,4232.820313,4157.94873,4247.179688,450.0,1.0,15.0,,,,0.0,4.0,2.0,0.0,4.0,4.0,50.0,,,,,,,,54.0,0.0,0.717414,0.116211,0.663818,0.176514,0.9150530000000001,-0.409186,-0.090822,-0.029736000000000002,-0.034058,-0.008562,,,,,,,,,,,,,,,,,,,,,,,,,,,,,,,,,,,,,,,,,,,,,,,,,,,,,,,,,,,,,,,,,
9668,1645901843.3622391,1645901843.4011312,109.0,0.0,4314.871582,4507.692383,4258.461426,4166.153809,4234.358886999999,450.0,1.0,15.0,,,,0.0,4.0,2.0,0.0,4.0,4.0,50.0,,,,,,,,,,,,,,,,,,,,,,,,,,,,,,,,,,,,,,,,,,,,,,,,,,,,,,,,,,,,,,,,,,,,,,,,,,,,,,,,,,,,
9669,1645901843.370054,1645901843.4089448,110.0,0.0,4329.230957,4452.820313,4240.0,4182.563965,4246.153809,450.0,1.0,15.0,,,,0.0,4.0,2.0,0.0,4.0,4.0,50.0,,,,,,,,55.0,0.0,0.717414,0.116211,0.663818,0.176514,0.917006,-0.406744,-0.103029,-0.029936,-0.034119,-0.006973,,,,,,,,,,,,,,,,,,,,,,,,,,,,,,,,,,,0.0,0.0,1.0,0.0,512.0,1.0,,,,,,,,,,,,,,,,,,,,,,,,,
9670,1645901843.377869,1645901843.41676,111.0,0.0,4361.025879,4398.974121,4209.743652,4211.794922,4252.820313,16264.0,1.0,15.0,,,,0.0,4.0,2.0,0.0,4.0,4.0,50.0,,,,,,,,,,,,,,,,,,,,,,,,,,,,,,,,,,,,,,,,,,,,,,,,,,,,,,,,,,,,,,,,,,,,,,,,,,,,,,,,,,,,
9671,1645901843.385685,1645901843.424575,112.0,0.0,4341.025879,4430.256348,4217.94873,4210.769043,4244.102539,450.0,1.0,15.0,,,,0.0,4.0,2.0,0.0,4.0,4.0,50.0,,,,,,,,56.0,0.0,0.717414,0.116211,0.663818,0.176514,0.9150530000000001,-0.40528000000000003,-0.102052,-0.030166000000000002,-0.034026999999999995,-0.008570999999999999,,,,,,,,,,,,,,,,,,,,,,,,,,,,,,,,,,,,,,,,,,,,,,,,,,,,,,,,,,,,,,,,,
9672,1645901843.3935,1645901843.432389,113.0,0.0,4320.512695,4452.307617,4212.307617,4182.05127,4250.256348,450.0,1.0,15.0,,,,0.0,4.0,2.0,0.0,4.0,4.0,50.0,,,,,,,,,,,,,,,,,,,,,,,,,,,,,,,,,,,,,,,,,,,,,,,,,,,,,,,,,,,,,,,,,,,,,,,,,,,,,,,,,,,,
9673,1645901843.401315,1645901843.440204,114.0,0.0,4321.538574,4431.282227000001,4208.717772999999,4160.0,4230.256348,450.0,1.0,15.0,,,,0.0,4.0,2.0,0.0,4.0,4.0,50.0,,,,,,,,57.0,0.0,0.717414,0.116211,0.663818,0.176514,0.906752,-0.39942,-0.092287,-0.030372000000000003,-0.034043000000000004,-0.010154999999999999,,,,,,,,,,,,,,,,,,,,,,,,,,,,,,,,,,,0.0,0.0,1.0,0.0,512.0,1.0,,,,,,,,,,,,,,,,,,,,,,,,,
9674,1645901843.40913,1645901843.447919,115.0,0.0,4323.077147999999,4428.717772999999,4227.179688,4179.487305,4229.743652,16264.0,1.0,15.0,,,,0.0,4.0,2.0,0.0,4.0,4.0,50.0,,,,,,,,,,,,,,,,,,,,,,,,,,,,,,,,,,,,,,,,,,,,,,,,,,,,,,,,,,,,,,,,,,,,,,,,,,,,,,,,,,,,
9675,1645901843.416945,1645901843.455733,116.0,0.0,4307.179688,4423.589844,4208.205078,4186.666504,4250.256348,450.0,1.0,15.0,,,,0.0,4.0,2.0,0.0,4.0,4.0,50.0,,,,,,,,58.0,0.0,0.717474,0.116211,0.663818,0.17627,0.9111469999999999,-0.39649,-0.09131,-0.03046,-0.034105,-0.011434999999999999,,,,,,,,,,,,,,,,,,,,,,,,,,,,,,,,,,,,,,,,,,,,,,,,,,,,,,,,,,,,,,,,,
9676,1645901843.4247599,1645901843.463548,117.0,0.0,4308.717772999999,4436.922852000001,4211.282227000001,4169.743652,4258.974121,450.0,1.0,15.0,,,,0.0,4.0,2.0,0.0,4.0,4.0,50.0,,,,,,,,,,,,,,,,,,,,,,,,,,,,,,,,,,,,,,,,,,,,,,,,,,,,,,,,,,,,,,,,,,,,,,,,,,,,,,,,,,,,
9677,1645901843.432576,1645901843.471363,118.0,0.0,4317.94873,4471.794922,4229.743652,4169.230957,4264.615234000001,450.0,1.0,15.0,,,,0.0,4.0,2.0,0.0,4.0,4.0,50.0,,,,,,,,59.0,0.0,0.717435,0.11645499999999999,0.663818,0.17627,0.9155409999999999,-0.41260399999999997,-0.087892,-0.030587,-0.034113,-0.009559,1.0,0.0,0.0,,,,,,,,,,,,,,,,,,,,,,,,,,,,,,,,0.0,0.0,1.0,0.0,512.0,1.0,1.4639959999999999,3.6389940000000003,0.873909,1.160328,0.943334,772.525696,144.001709,119.878532,40.755363,20.772333,29.830637,31.350939,2.620315,2.74592,5.506858,7.528248,3.8814040000000003,5.348147,3.887772,2.4802779999999998,2.091061,1.761159,3.156459,2.94576,1.492997
9678,1645901843.440391,1645901843.479177,119.0,0.0,4328.717772999999,4471.282227000001,4244.615234000001,4178.461426,4284.102539,16264.0,1.0,15.0,,,,0.0,4.0,2.0,0.0,4.0,4.0,50.0,,,,,,,,,,,,,,,,,,,,,,,,,,,,,,,,,,,,,,,,,,,,,,,,,,,,,,,,,,,,,,,,,,,,,,,,,,,,,,,,,,,,
9679,1645901843.448206,1645901843.486992,120.0,0.0,4330.769043,4437.94873,4254.871582,4180.0,4275.384765999999,450.0,1.0,15.0,,,,0.0,4.0,2.0,0.0,4.0,4.0,50.0,,,,,,,,60.0,0.0,0.717375,0.11645499999999999,0.663818,0.176514,0.9404440000000001,-0.397955,-0.090822,-0.0308,-0.034217000000000004,-0.007821999999999999,,,,,,,,,,,,,,,,,,,,,,,,,,,,,,,,,,,,,,,,,,,,,,,,,,,,,,,,,,,,,,,,,
9680,1645901843.456021,1645901843.494807,121.0,0.0,4314.358886999999,4404.615234000001,4298.461426,4193.333496,4253.846191,450.0,1.0,15.0,,,,0.0,4.0,2.0,0.0,4.0,4.0,50.0,,,,,,,,,,,,,,,,,,,,,,,,,,,,,,,,,,,,,,,,,,,,,,,,,,,,,,,,,,,,,,,,,,,,,,,,,,,,,,,,,,,,
9681,1645901843.463836,1645901843.5026212,122.0,0.0,4314.871582,4377.436035,4269.743652,4195.384765999999,4258.974121,450.0,1.0,15.0,,,,0.0,4.0,2.0,0.0,4.0,4.0,50.0,,,,,,,,61.0,0.0,0.717375,0.11645499999999999,0.663818,0.176514,0.917006,-0.387701,-0.089357,-0.030943000000000002,-0.034165,-0.009382999999999999,,,,,,,,,,,,,,,,,,,,,,,,,,,,,,,,,,,0.0,0.0,1.0,0.0,512.0,1.0,,,,,,,,,,,,,,,,,,,,,,,,,
9682,1645901843.471651,1645901843.5104358,123.0,0.0,4334.871582,4348.717772999999,4271.282227000001,4169.230957,4256.410156,16264.0,1.0,15.0,,,,0.0,4.0,2.0,0.0,4.0,4.0,50.0,,,,,,,,,,,,,,,,,,,,,,,,,,,,,,,,,,,,,,,,,,,,,,,,,,,,,,,,,,,,,,,,,,,,,,,,,,,,,,,,,,,,
9683,1645901843.479467,1645901843.518251,124.0,0.0,4337.436035,4338.461426,4304.102539,4158.461426,4252.307617,450.0,1.0,15.0,,,,0.0,4.0,2.0,0.0,4.0,4.0,50.0,,,,,,,,62.0,0.0,0.717375,0.11645499999999999,0.663818,0.176514,0.920424,-0.407721,-0.098634,-0.031070999999999998,-0.034214999999999995,-0.007664,,,,,,,,,,,,,,,,,,,,,,,,,,,,,,,,,,,,,,,,,,,,,,,,,,,,,,,,,,,,,,,,,
9684,1645901843.487282,1645901843.525965,125.0,0.0,4316.922852000001,4381.538574,4300.0,4168.717772999999,4252.307617,450.0,1.0,15.0,,,,0.0,4.0,2.0,0.0,4.0,4.0,50.0,,,,,,,,,,,,,,,,,,,,,,,,,,,,,,,,,,,,,,,,,,,,,,,,,,,,,,,,,,,,,,,,,,,,,,,,,,,,,,,,,,,,
9685,1645901843.4950972,1645901843.53378,126.0,0.0,4325.128418,4452.820313,4236.410156,4171.794922,4273.333496,450.0,1.0,15.0,,,,0.0,4.0,2.0,0.0,4.0,4.0,50.0,,,,,,,,63.0,0.0,0.717375,0.11645499999999999,0.663818,0.176514,0.929702,-0.412116,-0.098146,-0.031138,-0.034309,-0.009290000000000001,,,,,,,,,,,,,,,,,,,,,,,,,,,,,,,,,,,0.0,0.0,1.0,0.0,512.0,1.0,,,,,,,,,,,,,,,,,,,,,,,,,
9686,1645901843.5029118,1645901843.541595,127.0,0.0,4324.615234000001,4448.717772999999,4228.717772999999,4176.410156,4264.102539,232.0,1.0,15.0,,,,0.0,4.0,2.0,0.0,4.0,4.0,50.0,,,,,,,,,,,,,,,,,,,,,,,,,,,,,,,,,,,,,,,,,,,,,,,,,,,,,,,,,,,,,,,,,,,,,,,,,,,,,,,,,,,,
9687,1645901843.510727,1645901843.549409,0.0,0.0,4323.589844,4413.846191,4225.641113000001,4167.692383,4253.846191,450.0,1.0,15.0,,,,0.0,4.0,2.0,0.0,4.0,4.0,50.0,,,,,,,,0.0,0.0,0.7171489999999999,0.11645499999999999,0.664063,0.176514,0.917006,-0.41260399999999997,-0.090822,-0.031149,-0.034296,-0.010801999999999999,,,,,,,,,,,,,,,,,,,,,,,,,,,,,,,,,,,,,,,,,,,,,,,,,,,,,,,,,,,,,,,,,
9688,1645901843.518542,1645901843.557224,1.0,0.0,4316.922852000001,4453.333496,4193.333496,4134.871582,4264.615234000001,450.0,1.0,15.0,,,,0.0,4.0,2.0,0.0,4.0,4.0,50.0,,,,,,,,,,,,,,,,,,,,,,,,,,,,,,,,,,,,,,,,,,,,,,,,,,,,,,,,,,,,,,,,,,,,,,,,,,,,,,,,,,,,
9689,1645901843.526358,1645901843.5650382,2.0,0.0,4318.974121,4483.589844,4165.128418,4133.846191,4281.538574,16205.0,1.0,15.0,,,,0.0,4.0,2.0,0.0,4.0,4.0,50.0,,,,,,,,1.0,0.0,0.7171489999999999,0.11645499999999999,0.664063,0.176514,0.922866,-0.401373,-0.090822,-0.031257,-0.034187,-0.012115,,,,,,,,,,,,,,,,,,,,,,,,,,,,,,,,,,,0.0,0.0,1.0,0.0,512.0,1.0,,,,,,,,,,,,,,,,,,,,,,,,,
9690,1645901843.534173,1645901843.5728528,3.0,0.0,4328.717772999999,4430.256348,4193.333496,4153.846191,4287.179688,450.0,1.0,15.0,,,,0.0,4.0,2.0,0.0,4.0,4.0,50.0,,,,,,,,,,,,,,,,,,,,,,,,,,,,,,,,,,,,,,,,,,,,,,,,,,,,,,,,,,,,,,,,,,,,,,,,,,,,,,,,,,,,
9691,1645901843.5419881,1645901843.580668,4.0,0.0,4351.794922,4378.974121,4217.94873,4173.333496,4294.871582,279.0,1.0,15.0,,,,0.0,4.0,2.0,0.0,4.0,4.0,50.0,,,,,,,,2.0,0.0,0.717375,0.11645499999999999,0.663818,0.176514,0.929702,-0.412116,-0.098146,-0.031305,-0.034235,-0.013296,,,,,,,,,,,,,,,,,,,,,,,,,,,,,,,,,,,,,,,,,,,,,,,,,,,,,,,,,,,,,,,,,
9692,1645901843.549803,1645901843.5884821,5.0,0.0,4353.846191,4397.436035,4227.692383,4162.563965,4278.974121,450.0,1.0,15.0,,,,0.0,4.0,2.0,0.0,4.0,4.0,50.0,,,,,,,,,,,,,,,,,,,,,,,,,,,,,,,,,,,,,,,,,,,,,,,,,,,,,,,,,,,,,,,,,,,,,,,,,,,,,,,,,,,,
9693,1645901843.557618,1645901843.5961971,6.0,0.0,4341.025879,4448.717772999999,4269.743652,4154.871582,4271.282227000001,231.0,1.0,15.0,,,,0.0,4.0,2.0,2.0,4.0,4.0,66.666664,,,,,,,,3.0,0.0,0.717375,0.11645499999999999,0.663818,0.176514,0.9350729999999999,-0.413092,-0.102052,-0.031397,-0.034181,-0.011234000000000001,1.0,0.0,0.0,,,,,,,,,,,,,,,,,,,,,,,,,,,,,,,,0.0,0.0,1.0,0.0,512.0,0.8490110000000001,1.45403,3.7177550000000004,1.055416,1.387502,0.9661280000000001,659.216858,127.07571399999999,95.88533000000001,39.049042,22.266312,29.180706,28.634285,2.856486,2.601815,5.777153,7.1525289999999995,4.579592,6.59203,3.6195410000000003,2.501116,2.141106,1.597589,2.796589,3.294653,1.5530700000000002
9694,1645901843.565433,1645901843.604012,7.0,0.0,4335.897461,4407.692383,4268.205078,4172.307617,4286.666504,450.0,1.0,15.0,,,,0.0,4.0,2.0,2.0,4.0,4.0,66.666664,,,,,,,,,,,,,,,,,,,,,,,,,,,,,,,,,,,,,,,,,,,,,,,,,,,,,,,,,,,,,,,,,,,,,,,,,,,,,,,,,,,,
9695,1645901843.573249,1645901843.611826,8.0,0.0,4340.512695,4353.846191,4280.0,4180.0,4275.384765999999,450.0,1.0,15.0,,,,0.0,4.0,2.0,2.0,4.0,4.0,66.666664,,,,,,,,4.0,0.0,0.717169,0.116699,0.664063,0.17627,0.9184709999999999,-0.41651000000000005,-0.092775,-0.031383,-0.034132,-0.012357,,,,,,,,,,,,,,,,,,,,,,,,,,,,,,,,,,,,,,,,,,,,,,,,,,,,,,,,,,,,,,,,,
9696,1645901843.581064,1645901843.619641,9.0,0.0,4354.358886999999,4423.077147999999,4281.538574,4154.871582,4264.102539,16291.0,1.0,15.0,,,,0.0,4.0,2.0,2.0,4.0,4.0,66.666664,,,,,,,,,,,,,,,,,,,,,,,,,,,,,,,,,,,,,,,,,,,,,,,,,,,,,,,,,,,,,,,,,,,,,,,,,,,,,,,,,,,,
9697,1645901843.5888789,1645901843.627456,10.0,0.0,4354.871582,4503.077147999999,4253.846191,4163.589844,4281.538574,450.0,1.0,15.0,,,,0.0,4.0,2.0,2.0,4.0,4.0,66.666664,,,,,,,,5.0,0.0,0.717169,0.116699,0.664063,0.17627,0.916518,-0.40381500000000004,-0.09472799999999999,-0.031467,-0.034039,-0.013513999999999998,,,,,,,,,,,,,,,,,,,,,,,,,,,,,,,,,,,0.0,0.0,1.0,0.0,512.0,0.8490110000000001,,,,,,,,,,,,,,,,,,,,,,,,,
9698,1645901843.596694,1645901843.6352699,11.0,0.0,4344.102539,4478.974121,4203.589844,4172.307617,4292.307617,16232.0,1.0,15.0,,,,0.0,4.0,2.0,2.0,4.0,4.0,66.666664,,,,,,,,,,,,,,,,,,,,,,,,,,,,,,,,,,,,,,,,,,,,,,,,,,,,,,,,,,,,,,,,,,,,,,,,,,,,,,,,,,,,
9699,1645901843.6045089,1645901843.643085,12.0,0.0,4323.589844,4423.589844,4262.563965,4134.358886999999,4290.769043,450.0,1.0,15.0,,,,0.0,4.0,2.0,2.0,4.0,4.0,66.666664,,,,,,,,6.0,0.0,0.717209,0.11645499999999999,0.664063,0.17627,0.916518,-0.392096,-0.089357,-0.031445999999999995,-0.034053,-0.014408,,,,,,,,,,,,,,,,,,,,,,,,,,,,,,,,,,,,,,,,,,,,,,,,,,,,,,,,,,,,,,,,,
9700,1645901843.612325,1645901843.6509,13.0,0.0,4321.538574,4421.538574,4248.205078,4142.05127,4307.179688,450.0,1.0,15.0,,,,0.0,4.0,2.0,2.0,4.0,4.0,66.666664,,,,,,,,,,,,,,,,,,,,,,,,,,,,,,,,,,,,,,,,,,,,,,,,,,,,,,,,,,,,,,,,,,,,,,,,,,,,,,,,,,,,
9701,1645901843.62014,1645901843.658714,14.0,0.0,4326.153809,4447.179688,4188.205078,4182.563965,4288.205078,450.0,1.0,15.0,,,,0.0,4.0,2.0,2.0,4.0,4.0,66.666664,,,,,,,,7.0,0.0,0.717209,0.11645499999999999,0.664063,0.17627,0.908217,-0.40283800000000003,-0.087404,-0.028447000000000004,-0.033919,-0.015311000000000002,,,,,,,,,,,,,,,,,,,,,,,,,,,,,,,,,,,0.0,0.0,1.0,0.0,512.0,0.8490110000000001,,,,,,,,,,,,,,,,,,,,,,,,,
9702,1645901843.627955,1645901843.6664288,15.0,0.0,4343.077147999999,4485.128418,4194.358886999999,4200.0,4274.358886999999,16232.0,1.0,15.0,,,,0.0,4.0,2.0,2.0,4.0,4.0,66.666664,,,,,,,,,,,,,,,,,,,,,,,,,,,,,,,,,,,,,,,,,,,,,,,,,,,,,,,,,,,,,,,,,,,,,,,,,,,,,,,,,,,,
9703,1645901843.6357698,1645901843.674144,16.0,0.0,4357.94873,4518.461426,4213.333496,4191.794922,4296.922852000001,0.0,1.0,15.0,,,,0.0,4.0,2.0,2.0,4.0,4.0,66.666664,,,,,,,,8.0,0.0,0.717209,0.11645499999999999,0.664063,0.17627,0.9194479999999999,-0.400397,-0.083009,-0.028776999999999997,-0.033993999999999996,-0.016124,,,,,,,,,,,,,,,,,,,,,,,,,,,,,,,,,,,,,,,,,,,,,,,,,,,,,,,,,,,,,,,,,
9704,1645901843.643585,1645901843.681958,17.0,0.0,4354.871582,4507.179688,4176.410156,4173.333496,4321.025879,0.0,1.0,15.0,,,,0.0,4.0,2.0,2.0,4.0,4.0,66.666664,,,,,,,,,,,,,,,,,,,,,,,,,,,,,,,,,,,,,,,,,,,,,,,,,,,,,,,,,,,,,,,,,,,,,,,,,,,,,,,,,,,,
9705,1645901843.6514,1645901843.689773,18.0,0.0,4328.717772999999,4449.743652,4178.974121,4153.333496,4301.025879,0.0,1.0,15.0,,,,0.0,4.0,2.0,2.0,4.0,4.0,66.666664,,,,,,,,9.0,0.0,0.717209,0.11645499999999999,0.664063,0.17627,0.921889,-0.392584,-0.09424,-0.029219,-0.034062,-0.016855000000000002,,,,,,,,,,,,,,,,,,,,,,,,,,,,,,,,,,,0.0,0.0,1.0,0.0,512.0,0.8490110000000001,,,,,,,,,,,,,,,,,,,,,,,,,
9706,1645901843.659216,1645901843.697588,19.0,0.0,4335.384765999999,4462.563965,4216.410156,4151.794922,4286.666504,0.0,1.0,15.0,,,,0.0,4.0,2.0,2.0,4.0,4.0,66.666664,,,,,,,,,,,,,,,,,,,,,,,,,,,,,,,,,,,,,,,,,,,,,,,,,,,,,,,,,,,,,,,,,,,,,,,,,,,,,,,,,,,,
9707,1645901843.667031,1645901843.705402,20.0,0.0,4341.538574,4516.410156,4222.05127,4149.230957,4285.128418,0.0,1.0,15.0,,,,0.0,4.0,2.0,2.0,4.0,4.0,66.666664,,,,,,,,10.0,0.0,0.7171489999999999,0.11645499999999999,0.664063,0.176514,0.9131,-0.407233,-0.091798,-0.029422000000000004,-0.034122,-0.017465,,,,,,,,,,,,,,,,,,,,,,,,,,,,,,,,,,,,,,,,,,,,,,,,,,,,,,,,,,,,,,,,,
9708,1645901843.6748462,1645901843.713217,21.0,0.0,4331.282227000001,4409.230957,4247.179688,4172.307617,4287.692383,0.0,1.0,15.0,,,,0.0,4.0,2.0,2.0,4.0,4.0,66.666664,,,,,,,,,,,,,,,,,,,,,,,,,,,,,,,,,,,,,,,,,,,,,,,,,,,,,,,,,,,,,,,,,,,,,,,,,,,,,,,,,,,,
9709,1645901843.682661,1645901843.7210321,22.0,0.0,4330.256348,4328.205078,4248.205078,4198.461426,4275.384765999999,0.0,1.0,15.0,,,,0.0,4.0,2.0,2.0,4.0,4.0,66.666664,1.0,33.333332,4.0,0.0,0.0,4.0,4.0,11.0,0.0,0.716862,0.11645499999999999,0.664307,0.176758,0.921889,-0.408698,-0.08447400000000001,-0.029751999999999997,-0.034079000000000005,-0.014986000000000001,1.0,0.0,0.0,,,,,,,,,,,,,,,,,,,,,,,,,,,,,,,,0.0,0.0,1.0,0.0,128.0,0.346939,1.8247229999999999,3.7283470000000003,1.186495,1.579731,1.016075,477.988312,100.91900600000001,68.4422,34.51569,22.544970000000003,29.265783000000003,27.593449,3.000818,2.478469,5.833141,6.466189,5.1207199999999995,7.605967999999999,3.555197,2.522655,2.237149,1.707961,2.269504,3.5049120000000005,1.561372
9710,1645901843.690476,1645901843.728846,23.0,0.0,4338.974121,4523.589844,4247.179688,4170.256348,4260.0,0.0,1.0,15.0,,,,0.0,4.0,2.0,2.0,4.0,4.0,66.666664,,,,,,,,,,,,,,,,,,,,,,,,,,,,,,,,,,,,,,,,,,,,,,,,,,,,,,,,,,,,,,,,,,,,,,,,,,,,,,,,,,,,
9711,1645901843.698291,1645901843.736661,24.0,0.0,4339.487305,4552.307617,4239.487305,4113.846191,4263.077147999999,0.0,1.0,15.0,,,,0.0,4.0,2.0,2.0,4.0,4.0,66.666664,,,,,,,,12.0,0.0,0.716862,0.11645499999999999,0.664307,0.176758,0.929213,-0.41113900000000003,-0.087892,-0.029999,-0.034089,-0.012657,,,,,,,,,,,,,,,,,,,,,,,,,,,,,,,,,,,,,,,,,,,,,,,,,,,,,,,,,,,,,,,,,
9712,1645901843.7061071,1645901843.744376,25.0,0.0,4346.153809,4304.102539,4261.025879,4123.589844,4254.871582,0.0,1.0,15.0,,,,0.0,4.0,2.0,2.0,4.0,4.0,66.666664,,,,,,,,,,,,,,,,,,,,,,,,,,,,,,,,,,,,,,,,,,,,,,,,,,,,,,,,,,,,,,,,,,,,,,,,,,,,,,,,,,,,
9713,1645901843.713922,1645901843.75219,26.0,0.0,4367.179688,4302.563965,4271.282227000001,4149.743652,4245.128418,0.0,1.0,15.0,,,,0.0,4.0,2.0,2.0,4.0,4.0,66.666664,,,,,,,,13.0,0.0,0.716862,0.11645499999999999,0.664307,0.176758,0.908217,-0.400885,-0.092775,-0.030173000000000002,-0.034196,-0.010659,,,,,,,,,,,,,,,,,,,,,,,,,,,,,,,,,,,0.0,0.0,1.0,0.0,128.0,0.346939,,,,,,,,,,,,,,,,,,,,,,,,,
9714,1645901843.721737,1645901843.760005,27.0,0.0,4325.641113000001,4477.436035,4296.922852000001,4135.897461,4256.410156,0.0,1.0,15.0,,,,0.0,4.0,2.0,2.0,4.0,4.0,66.666664,,,,,,,,,,,,,,,,,,,,,,,,,,,,,,,,,,,,,,,,,,,,,,,,,,,,,,,,,,,,,,,,,,,,,,,,,,,,,,,,,,,,
9715,1645901843.729552,1645901843.76782,28.0,0.0,4284.102539,4443.077147999999,4262.563965,4144.102539,4276.410156,0.0,1.0,15.0,,,,0.0,4.0,2.0,2.0,4.0,4.0,66.666664,,,,,,,,14.0,0.0,0.716823,0.116699,0.664307,0.176758,0.9160299999999999,-0.407721,-0.092287,-0.027205,-0.034097,-0.012083,,,,,,,,,,,,,,,,,,,,,,,,,,,,,,,,,,,,,,,,,,,,,,,,,,,,,,,,,,,,,,,,,
9716,1645901843.737367,1645901843.775634,29.0,0.0,4310.769043,4386.666504,4264.102539,4171.794922,4285.641113000001,0.0,1.0,15.0,,,,0.0,4.0,2.0,2.0,4.0,4.0,66.666664,,,,,,,,,,,,,,,,,,,,,,,,,,,,,,,,,,,,,,,,,,,,,,,,,,,,,,,,,,,,,,,,,,,,,,,,,,,,,,,,,,,,
9717,1645901843.745182,1645901843.783449,30.0,0.0,4346.666504,4467.692383,4234.358886999999,4159.487305,4293.846191,0.0,1.0,15.0,,,,0.0,4.0,2.0,2.0,4.0,4.0,66.666664,,,,,,,,15.0,0.0,0.716823,0.116699,0.664307,0.176758,0.9116350000000001,-0.409186,-0.095705,-0.027658,-0.034105,-0.01317,,,,,,,,,,,,,,,,,,,,,,,,,,,,,,,,,,,0.0,0.0,1.0,0.0,128.0,0.346939,,,,,,,,,,,,,,,,,,,,,,,,,
9718,1645901843.752998,1645901843.791264,31.0,0.0,4316.922852000001,4476.922852000001,4206.666504,4119.487305,4284.615234000001,0.0,1.0,15.0,,,,0.0,4.0,2.0,2.0,4.0,4.0,66.666664,,,,,,,,,,,,,,,,,,,,,,,,,,,,,,,,,,,,,,,,,,,,,,,,,,,,,,,,,,,,,,,,,,,,,,,,,,,,,,,,,,,,
9719,1645901843.760813,1645901843.799078,32.0,0.0,4307.179688,4456.410156,4204.102539,4118.974121,4278.974121,0.0,1.0,15.0,,,,0.0,4.0,2.0,2.0,4.0,4.0,66.666664,,,,,,,,16.0,0.0,0.716823,0.116699,0.664307,0.176758,0.9194479999999999,-0.404791,-0.09131,-0.028114999999999998,-0.034162,-0.011120999999999999,,,,,,,,,,,,,,,,,,,,,,,,,,,,,,,,,,,,,,,,,,,,,,,,,,,,,,,,,,,,,,,,,
9720,1645901843.768628,1645901843.8068929,33.0,0.0,4325.128418,4491.794922,4195.897461,4122.563965,4276.922852000001,0.0,1.0,15.0,,,,0.0,4.0,2.0,2.0,4.0,4.0,66.666664,,,,,,,,,,,,,,,,,,,,,,,,,,,,,,,,,,,,,,,,,,,,,,,,,,,,,,,,,,,,,,,,,,,,,,,,,,,,,,,,,,,,
9721,1645901843.776443,1645901843.814708,34.0,0.0,4325.641113000001,4503.589844,4189.743652,4129.230957,4269.743652,0.0,1.0,15.0,,,,0.0,4.0,2.0,2.0,4.0,4.0,66.666664,,,,,,,,17.0,0.0,0.716823,0.116699,0.664307,0.176758,0.925307,-0.41455699999999995,-0.08447400000000001,-0.028575,-0.034163,-0.012352,,,,,,,,,,,,,,,,,,,,,,,,,,,,,,,,,,,0.0,0.0,1.0,0.0,128.0,0.346939,,,,,,,,,,,,,,,,,,,,,,,,,
9722,1645901843.784258,1645901843.822422,35.0,0.0,4314.871582,4473.846191,4248.717772999999,4130.256348,4251.794922,0.0,1.0,15.0,,,,0.0,4.0,2.0,2.0,4.0,4.0,66.666664,,,,,,,,,,,,,,,,,,,,,,,,,,,,,,,,,,,,,,,,,,,,,,,,,,,,,,,,,,,,,,,,,,,,,,,,,,,,,,,,,,,,
9723,1645901843.792073,1645901843.830237,36.0,0.0,4312.820313,4471.794922,4272.307617,4136.410156,4251.794922,0.0,1.0,15.0,,,,0.0,4.0,2.0,2.0,4.0,4.0,66.666664,,,,,,,,18.0,0.0,0.716762,0.116699,0.664307,0.177002,0.9121229999999999,-0.407721,-0.099611,-0.028843,-0.034067,-0.010189,,,,,,,,,,,,,,,,,,,,,,,,,,,,,,,,,,,,,,,,,,,,,,,,,,,,,,,,,,,,,,,,,
9724,1645901843.7998881,1645901843.838052,37.0,0.0,4305.128418,4472.820313,4210.769043,4149.230957,4252.307617,0.0,1.0,15.0,,,,0.0,4.0,2.0,2.0,4.0,4.0,66.666664,,,,,,,,,,,,,,,,,,,,,,,,,,,,,,,,,,,,,,,,,,,,,,,,,,,,,,,,,,,,,,,,,,,,,,,,,,,,,,,,,,,,
9725,1645901843.807704,1645901843.845866,38.0,0.0,4303.077147999999,4436.410156,4259.487305,4156.922852000001,4251.282227000001,0.0,1.0,15.0,,,,0.0,4.0,2.0,2.0,4.0,4.0,66.666664,,,,,,,,19.0,0.0,0.716802,0.11645499999999999,0.664307,0.177002,0.9150530000000001,-0.409674,-0.095216,-0.029181,-0.034128,-0.011465000000000001,1.0,0.0,0.0,,,,,,,,,,,,,,,,,,,,,,,,,,,,,,,,0.0,0.0,1.0,0.0,128.0,0.40167800000000004,2.725998,3.7022839999999997,1.243857,1.7080220000000002,1.071512,296.13736,72.608887,44.575676,28.339336,21.656015,29.988089000000002,28.580685,3.008118,2.468841,5.638674,5.613258,5.316091,8.18638,3.6500510000000004,2.505271,2.395175,2.211255,1.734345,3.490019,1.514053
9726,1645901843.8155189,1645901843.853681,39.0,0.0,4302.563965,4434.871582,4287.692383,4154.358886999999,4250.769043,0.0,1.0,15.0,,,,0.0,4.0,2.0,2.0,4.0,4.0,66.666664,,,,,,,,,,,,,,,,,,,,,,,,,,,,,,,,,,,,,,,,,,,,,,,,,,,,,,,,,,,,,,,,,,,,,,,,,,,,,,,,,,,,
9727,1645901843.823334,1645901843.8614962,40.0,0.0,4302.05127,4466.153809,4245.128418,4165.641113000001,4254.871582,0.0,1.0,15.0,,,,0.0,4.0,2.0,2.0,4.0,4.0,66.666664,,,,,,,,20.0,0.0,0.716802,0.11645499999999999,0.664307,0.177002,0.917983,-0.409674,-0.08447400000000001,-0.029486000000000002,-0.034133,-0.009489000000000001,,,,,,,,,,,,,,,,,,,,,,,,,,,,,,,,,,,,,,,,,,,,,,,,,,,,,,,,,,,,,,,,,
9728,1645901843.831149,1645901843.86931,41.0,0.0,4295.384765999999,4437.436035,4246.153809,4155.384765999999,4250.256348,0.0,1.0,15.0,,,,0.0,4.0,2.0,2.0,4.0,4.0,66.666664,,,,,,,,,,,,,,,,,,,,,,,,,,,,,,,,,,,,,,,,,,,,,,,,,,,,,,,,,,,,,,,,,,,,,,,,,,,,,,,,,,,,
9729,1645901843.838964,1645901843.877125,42.0,0.0,4284.102539,4406.666504,4311.794922,4115.897461,4235.384765999999,0.0,1.0,15.0,,,,0.0,4.0,2.0,2.0,4.0,4.0,66.666664,,,,,,,,21.0,0.0,0.716802,0.11645499999999999,0.664307,0.177002,0.9194479999999999,-0.400885,-0.092775,-0.029613,-0.03404,-0.010884,,,,,,,,,,,,,,,,,,,,,,,,,,,,,,,,,,,0.0,0.0,1.0,0.0,128.0,0.40167800000000004,,,,,,,,,,,,,,,,,,,,,,,,,
9730,1645901843.84678,1645901843.884939,43.0,0.0,4287.179688,4410.769043,4291.794922,4110.256348,4248.205078,0.0,1.0,15.0,,,,0.0,4.0,2.0,2.0,4.0,4.0,66.666664,,,,,,,,,,,,,,,,,,,,,,,,,,,,,,,,,,,,,,,,,,,,,,,,,,,,,,,,,,,,,,,,,,,,,,,,,,,,,,,,,,,,
9731,1645901843.854595,1645901843.892654,44.0,0.0,4277.436035,4426.666504,4294.871582,4118.461426,4253.333496,0.0,1.0,15.0,,,,0.0,4.0,2.0,2.0,4.0,4.0,66.666664,,,,,,,,22.0,0.0,0.716802,0.11645499999999999,0.664307,0.177002,0.9150530000000001,-0.409674,-0.095216,-0.029826,-0.034102999999999994,-0.009014,,,,,,,,,,,,,,,,,,,,,,,,,,,,,,,,,,,,,,,,,,,,,,,,,,,,,,,,,,,,,,,,,
9732,1645901843.86241,1645901843.9004688,45.0,0.0,4271.282227000001,4485.641113000001,4270.769043,4117.94873,4243.077147999999,0.0,1.0,15.0,,,,0.0,4.0,2.0,2.0,4.0,4.0,66.666664,,,,,,,,,,,,,,,,,,,,,,,,,,,,,,,,,,,,,,,,,,,,,,,,,,,,,,,,,,,,,,,,,,,,,,,,,,,,,,,,,,,,
9733,1645901843.870225,1645901843.908284,46.0,0.0,4273.846191,4478.974121,4247.179688,4130.769043,4238.461426,0.0,1.0,15.0,,,,0.0,4.0,2.0,2.0,4.0,4.0,66.666664,,,,,,,,23.0,0.0,0.716802,0.11645499999999999,0.664307,0.177002,0.9194479999999999,-0.400885,-0.092775,-0.029919,-0.034013,-0.010456,,,,,,,,,,,,,,,,,,,,,,,,,,,,,,,,,,,0.0,0.0,1.0,0.0,128.0,0.40167800000000004,,,,,,,,,,,,,,,,,,,,,,,,,
9734,1645901843.87804,1645901843.916098,47.0,0.0,4289.743652,4353.846191,4254.871582,4150.769043,4241.538574,0.0,1.0,15.0,,,,0.0,4.0,2.0,2.0,4.0,4.0,66.666664,,,,,,,,,,,,,,,,,,,,,,,,,,,,,,,,,,,,,,,,,,,,,,,,,,,,,,,,,,,,,,,,,,,,,,,,,,,,,,,,,,,,
9735,1645901843.8858562,1645901843.923913,48.0,0.0,4296.410156,4347.179688,4235.897461,4132.307617,4231.794922,0.0,1.0,15.0,,,,0.0,4.0,2.0,2.0,4.0,4.0,66.666664,,,,,,,,24.0,0.0,0.716802,0.11645499999999999,0.664307,0.177002,0.9277489999999999,-0.40576799999999996,-0.088869,-0.029955000000000002,-0.03403,-0.008581,,,,,,,,,,,,,,,,,,,,,,,,,,,,,,,,,,,,,,,,,,,,,,,,,,,,,,,,,,,,,,,,,
9736,1645901843.893671,1645901843.931727,49.0,0.0,4292.820313,4438.974121,4175.897461,4124.615234000001,4241.025879,0.0,1.0,15.0,,,,0.0,4.0,2.0,2.0,4.0,4.0,66.666664,,,,,,,,,,,,,,,,,,,,,,,,,,,,,,,,,,,,,,,,,,,,,,,,,,,,,,,,,,,,,,,,,,,,,,,,,,,,,,,,,,,,
9737,1645901843.901486,1645901843.939542,50.0,0.0,4280.0,4416.922852000001,4198.974121,4122.563965,4246.153809,0.0,1.0,15.0,,,,0.0,4.0,2.0,2.0,4.0,4.0,66.666664,,,,,,,,25.0,0.0,0.716842,0.116211,0.664307,0.177002,0.9306780000000001,-0.406744,-0.092287,-0.030329000000000002,-0.034093,-0.009969,,,,,,,,,,,,,,,,,,,,,,,,,,,,,,,,,,,0.0,0.0,1.0,0.0,128.0,0.40167800000000004,,,,,,,,,,,,,,,,,,,,,,,,,
9738,1645901843.909301,1645901843.947357,51.0,0.0,4287.179688,4353.846191,4264.102539,4132.820313,4238.974121,0.0,1.0,15.0,,,,0.0,4.0,2.0,2.0,4.0,4.0,66.666664,,,,,,,,,,,,,,,,,,,,,,,,,,,,,,,,,,,,,,,,,,,,,,,,,,,,,,,,,,,,,,,,,,,,,,,,,,,,,,,,,,,,
9739,1645901843.917116,1645901843.955171,52.0,0.0,4300.0,4410.769043,4241.025879,4162.563965,4225.641113000001,0.0,1.0,15.0,,,,0.0,4.0,2.0,2.0,4.0,4.0,66.666664,,,,,,,,26.0,0.0,0.716842,0.116211,0.664307,0.177002,0.925307,-0.401862,-0.08838,-0.030420999999999997,-0.034102,-0.008142,,,,,,,,,,,,,,,,,,,,,,,,,,,,,,,,,,,,,,,,,,,,,,,,,,,,,,,,,,,,,,,,,
9740,1645901843.924931,1645901843.9628859,53.0,0.0,4293.333496,4466.153809,4245.128418,4169.230957,4232.820313,0.0,1.0,15.0,,,,0.0,4.0,2.0,2.0,4.0,4.0,66.666664,,,,,,,,,,,,,,,,,,,,,,,,,,,,,,,,,,,,,,,,,,,,,,,,,,,,,,,,,,,,,,,,,,,,,,,,,,,,,,,,,,,,
9741,1645901843.9327471,1645901843.970701,54.0,0.0,4275.897461,4386.666504,4241.025879,4151.282227000001,4240.512695,0.0,1.0,15.0,,,,0.0,4.0,2.0,2.0,4.0,4.0,66.666664,,,,,,,,27.0,0.0,0.716842,0.116211,0.664307,0.177002,0.913588,-0.404303,-0.093751,-0.030552999999999997,-0.034061,-0.009623,1.0,0.0,0.0,,,,,,,,,,,,,,,,,,,,,,,,,,,,,,,,0.0,0.0,1.0,0.0,512.0,0.567384,4.164927,3.672222,1.24489,1.761053,1.118175,153.73774699999998,48.885715000000005,28.599657,22.012566,20.082335,31.402437,31.592228000000002,2.8992,2.5937259999999998,5.231515,4.845561,5.083622,8.249117,3.85106,2.407928,2.6452310000000003,3.0811479999999998,1.337589,3.229781,1.41409
9742,1645901843.940562,1645901843.9785151,55.0,0.0,4275.384765999999,4362.05127,4242.563965,4163.589844,4245.128418,0.0,1.0,15.0,,,,0.0,4.0,2.0,2.0,4.0,4.0,66.666664,,,,,,,,,,,,,,,,,,,,,,,,,,,,,,,,,,,,,,,,,,,,,,,,,,,,,,,,,,,,,,,,,,,,,,,,,,,,,,,,,,,,
9743,1645901843.948377,1645901843.98633,56.0,0.0,4281.025879,4439.487305,4270.256348,4171.282227000001,4237.94873,0.0,1.0,15.0,,,,0.0,4.0,2.0,2.0,4.0,4.0,66.666664,,,,,,,,28.0,0.0,0.716842,0.116211,0.664307,0.177002,0.9199360000000001,-0.406256,-0.091798,-0.030670999999999997,-0.034073,-0.00783,,,,,,,,,,,,,,,,,,,,,,,,,,,,,,,,,,,,,,,,,,,,,,,,,,,,,,,,,,,,,,,,,
9744,1645901843.956192,1645901843.994145,57.0,0.0,4275.897461,4459.487305,4300.0,4128.205078,4225.128418,0.0,1.0,15.0,,,,0.0,4.0,2.0,2.0,4.0,4.0,66.666664,,,,,,,,,,,,,,,,,,,,,,,,,,,,,,,,,,,,,,,,,,,,,,,,,,,,,,,,,,,,,,,,,,,,,,,,,,,,,,,,,,,,
9745,1645901843.9640071,1645901844.001959,58.0,0.0,4275.384765999999,4403.077147999999,4255.897461,4093.3332520000004,4225.128418,0.0,1.0,15.0,,,,0.0,4.0,2.0,2.0,4.0,4.0,66.666664,,,,,,,,29.0,0.0,0.716842,0.116211,0.664307,0.177002,0.9155409999999999,-0.394049,-0.098634,-0.030973,-0.034083999999999996,-0.009293000000000001,,,,,,,,,,,,,,,,,,,,,,,,,,,,,,,,,,,0.0,0.0,1.0,0.0,512.0,0.567384,,,,,,,,,,,,,,,,,,,,,,,,,
9746,1645901843.971822,1645901844.009774,59.0,0.0,4287.692383,4391.794922,4278.461426,4113.333496,4221.538574,0.0,1.0,15.0,,,,0.0,4.0,2.0,2.0,4.0,4.0,66.666664,,,,,,,,,,,,,,,,,,,,,,,,,,,,,,,,,,,,,,,,,,,,,,,,,,,,,,,,,,,,,,,,,,,,,,,,,,,,,,,,,,,,
9747,1645901843.979638,1645901844.017589,60.0,0.0,4303.077147999999,4395.897461,4295.384765999999,4174.358886999999,4227.179688,0.0,1.0,15.0,,,,0.0,4.0,2.0,2.0,4.0,4.0,66.666664,,,,,,,,30.0,0.0,0.716842,0.116211,0.664307,0.177002,0.9272600000000001,-0.406744,-0.091798,-0.027925,-0.034045,-0.01061,,,,,,,,,,,,,,,,,,,,,,,,,,,,,,,,,,,,,,,,,,,,,,,,,,,,,,,,,,,,,,,,,
9748,1645901843.987453,1645901844.025403,61.0,0.0,4297.436035,4377.436035,4247.179688,4162.05127,4237.436035,0.0,1.0,15.0,,,,0.0,4.0,2.0,2.0,4.0,4.0,66.666664,,,,,,,,,,,,,,,,,,,,,,,,,,,,,,,,,,,,,,,,,,,,,,,,,,,,,,,,,,,,,,,,,,,,,,,,,,,,,,,,,,,,
9749,1645901843.9952679,1645901844.033118,62.0,0.0,4277.94873,4363.077147999999,4216.410156,4061.025635,4243.077147999999,0.0,1.0,15.0,,,,0.0,4.0,2.0,4.0,4.0,4.0,83.333336,,,,,,,,31.0,0.0,0.716742,0.11645499999999999,0.664307,0.17724600000000001,0.9091940000000001,-0.406744,-0.08838,-0.028355,-0.034058,-0.011942,,,,,,,,,,,,,,,,,,,,,,,,,,,,,,,,,,,0.0,0.0,1.0,0.0,512.0,0.567384,,,,,,,,,,,,,,,,,,,,,,,,,
9750,1645901844.003083,1645901844.040933,63.0,0.0,4260.0,4320.512695,4240.0,4042.5642090000006,4219.487305,0.0,1.0,15.0,,,,0.0,4.0,2.0,4.0,4.0,4.0,83.333336,,,,,,,,,,,,,,,,,,,,,,,,,,,,,,,,,,,,,,,,,,,,,,,,,,,,,,,,,,,,,,,,,,,,,,,,,,,,,,,,,,,,
9751,1645901844.010898,1645901844.048747,64.0,0.0,4302.563965,4361.538574,4216.410156,4120.512695,4229.743652,450.0,1.0,15.0,,,,0.0,4.0,2.0,4.0,4.0,4.0,83.333336,,,,,,,,32.0,0.0,0.716742,0.11645499999999999,0.664307,0.17724600000000001,0.9277489999999999,-0.41113900000000003,-0.09472799999999999,-0.028742,-0.034069999999999996,-0.01314,,,,,,,,,,,,,,,,,,,,,,,,,,,,,,,,,,,,,,,,,,,,,,,,,,,,,,,,,,,,,,,,,
9752,1645901844.018713,1645901844.056562,65.0,0.0,4360.512695,4418.974121,4207.692383,4123.589844,4285.128418,450.0,1.0,15.0,,,,0.0,4.0,2.0,4.0,4.0,4.0,83.333336,,,,,,,,,,,,,,,,,,,,,,,,,,,,,,,,,,,,,,,,,,,,,,,,,,,,,,,,,,,,,,,,,,,,,,,,,,,,,,,,,,,,
9753,1645901844.026528,1645901844.064377,66.0,0.0,4447.179688,4376.922852000001,4208.717772999999,4102.563965,4353.846191,16172.0,1.0,15.0,,,,0.0,4.0,2.0,4.0,4.0,4.0,83.333336,,,,,,,,33.0,0.0,0.716642,0.116699,0.664307,0.17749,0.918959,-0.40576799999999996,-0.087892,-0.028944,-0.034033,-0.014218999999999999,,,,,,,,,,,,,,,,,,,,,,,,,,,,,,,,,,,0.0,0.0,1.0,0.0,512.0,0.567384,,,,,,,,,,,,,,,,,,,,,,,,,
9754,1645901844.034344,1645901844.072191,67.0,0.0,4592.820313,4375.897461,4201.538574,4130.256348,4408.717772999999,450.0,1.0,15.0,,,,0.0,4.0,2.0,4.0,4.0,4.0,83.333336,,,,,,,,,,,,,,,,,,,,,,,,,,,,,,,,,,,,,,,,,,,,,,,,,,,,,,,,,,,,,,,,,,,,,,,,,,,,,,,,,,,,
9755,1645901844.042159,1645901844.0800061,68.0,0.0,4731.282227000001,4475.384765999999,4239.487305,4153.333496,4496.922852000001,173.0,1.0,15.0,,,,0.0,4.0,2.0,4.0,4.0,4.0,83.333336,,,,,,,,34.0,0.0,0.7168680000000001,0.116699,0.664063,0.17749,0.9052870000000001,-0.384283,-0.084962,-0.026099,-0.033998,-0.015141,,,,,,,,,,,,,,,,,,,,,,,,,,,,,,,,,,,,,,,,,,,,,,,,,,,,,,,,,,,,,,,,,
9756,1645901844.049974,1645901844.087821,69.0,0.0,4806.666504,4512.820313,4258.461426,4140.0,4572.820313,450.0,1.0,15.0,,,,0.0,4.0,2.0,4.0,4.0,4.0,83.333336,,,,,,,,,,,,,,,,,,,,,,,,,,,,,,,,,,,,,,,,,,,,,,,,,,,,,,,,,,,,,,,,,,,,,,,,,,,,,,,,,,,,
9757,1645901844.057789,1645901844.095635,70.0,0.0,4888.717772999999,4494.871582,4221.025879,4116.922852000001,4594.358886999999,16072.0,1.0,15.0,,,,0.0,4.0,2.0,4.0,4.0,4.0,83.333336,,,,,,,,35.0,0.0,0.716807,0.116699,0.664063,0.177734,0.91017,-0.407721,-0.078126,-0.026711000000000002,-0.033968,-0.016019,1.0,0.0,0.0,,,,,,,,,,,,,,,,,,,,,,,,,,,,,,,,0.0,0.0,1.0,0.0,512.0,0.398735,5.722158,3.642704,1.220392,1.7475740000000002,1.15605,74.286118,33.794121000000004,21.060108,16.763071,18.656986,33.597713,36.033081,2.786861,2.812193,4.718525,4.3082400000000005,4.511998999999999,7.897182000000001,4.123851999999999,2.2196860000000003,2.970295,4.178687,1.13764,2.783939,1.273954
9758,1645901844.065604,1645901844.10335,71.0,0.0,4975.384765999999,4556.922852000001,4182.05127,4128.717772999999,4621.538574,450.0,1.0,15.0,,,,0.0,4.0,2.0,4.0,4.0,4.0,83.333336,,,,,,,,,,,,,,,,,,,,,,,,,,,,,,,,,,,,,,,,,,,,,,,,,,,,,,,,,,,,,,,,,,,,,,,,,,,,,,,,,,,,
9759,1645901844.0734189,1645901844.111165,72.0,0.0,4997.436035,4635.897461,4220.0,4231.282227000001,4663.077147999999,450.0,1.0,15.0,,,,0.0,4.0,2.0,4.0,4.0,4.0,83.333336,,,,,,,,36.0,0.0,0.717033,0.116699,0.663818,0.177734,0.917983,-0.395514,-0.080079,-0.027711000000000003,-0.033867,-0.014299000000000001,,,,,,,,,,,,,,,,,,,,,,,,,,,,,,,,,,,,,,,,,,,,,,,,,,,,,,,,,,,,,,,,,
9760,1645901844.081235,1645901844.118979,73.0,0.0,5010.769043,4612.820313,4221.025879,4286.666504,4673.333496,16127.0,1.0,15.0,,,,0.0,4.0,2.0,4.0,4.0,4.0,83.333336,,,,,,,,,,,,,,,,,,,,,,,,,,,,,,,,,,,,,,,,,,,,,,,,,,,,,,,,,,,,,,,,,,,,,,,,,,,,,,,,,,,,
9761,1645901844.08905,1645901844.1267939,74.0,0.0,5031.282227000001,4575.897461,4250.256348,4217.94873,4657.436035,450.0,1.0,15.0,,,,0.0,4.0,2.0,4.0,4.0,4.0,83.333336,,,,,,,,37.0,0.0,0.717033,0.116699,0.663818,0.177734,0.917983,-0.400885,-0.095216,-0.028064999999999996,-0.033849000000000004,-0.015163999999999999,,,,,,,,,,,,,,,,,,,,,,,,,,,,,,,,,,,0.0,0.0,1.0,0.0,512.0,0.398735,,,,,,,,,,,,,,,,,,,,,,,,,
9762,1645901844.096865,1645901844.134609,75.0,0.0,5014.871582,4645.641113000001,4230.769043,4174.871582,4670.256348,16170.0,1.0,15.0,,,,0.0,4.0,2.0,4.0,4.0,4.0,83.333336,,,,,,,,,,,,,,,,,,,,,,,,,,,,,,,,,,,,,,,,,,,,,,,,,,,,,,,,,,,,,,,,,,,,,,,,,,,,,,,,,,,,
9763,1645901844.10468,1645901844.1424232,76.0,0.0,4974.358886999999,4698.461426,4202.05127,4204.102539,4643.077147999999,450.0,1.0,15.0,,,,0.0,4.0,2.0,4.0,4.0,4.0,83.333336,,,,,,,,38.0,0.0,0.717033,0.116699,0.663818,0.177734,0.9184709999999999,-0.40576799999999996,-0.080079,-0.028383,-0.033785,-0.015991,,,,,,,,,,,,,,,,,,,,,,,,,,,,,,,,,,,,,,,,,,,,,,,,,,,,,,,,,,,,,,,,,
9764,1645901844.112495,1645901844.150238,77.0,0.0,4951.282227000001,4656.922852000001,4177.436035,4207.692383,4584.615234000001,450.0,1.0,15.0,,,,0.0,4.0,2.0,4.0,4.0,4.0,83.333336,,,,,,,,,,,,,,,,,,,,,,,,,,,,,,,,,,,,,,,,,,,,,,,,,,,,,,,,,,,,,,,,,,,,,,,,,,,,,,,,,,,,
9765,1645901844.120311,1645901844.158052,78.0,0.0,4873.333496,4614.871582,4210.256348,4176.410156,4564.102539,450.0,1.0,15.0,,,,0.0,4.0,2.0,4.0,4.0,4.0,83.333336,,,,,,,,39.0,0.0,0.717033,0.116699,0.663818,0.177734,0.925795,-0.412116,-0.095216,-0.028768000000000002,-0.033824,-0.013611000000000002,,,,,,,,,,,,,,,,,,,,,,,,,,,,,,,,,,,0.0,0.0,1.0,0.0,512.0,0.398735,,,,,,,,,,,,,,,,,,,,,,,,,
9766,1645901844.128126,1645901844.165867,79.0,0.0,4767.179688,4563.077147999999,4237.436035,4178.461426,4539.487305,16170.0,1.0,15.0,,,,0.0,4.0,2.0,4.0,4.0,4.0,83.333336,,,,,,,,,,,,,,,,,,,,,,,,,,,,,,,,,,,,,,,,,,,,,,,,,,,,,,,,,,,,,,,,,,,,,,,,,,,,,,,,,,,,
9767,1645901844.135941,1645901844.173682,80.0,0.0,4716.922852000001,4519.487305,4258.974121,4189.743652,4467.179688,450.0,1.0,15.0,,,,0.0,4.0,2.0,4.0,4.0,4.0,83.333336,,,,,,,,40.0,0.0,0.717094,0.116699,0.663818,0.17749,0.9209129999999999,-0.406744,-0.087404,-0.029064999999999997,-0.033811,-0.014641999999999999,,,,,,,,,,,,,,,,,,,,,,,,,,,,,,,,,,,,,,,,,,,,,,,,,,,,,,,,,,,,,,,,,
9768,1645901844.1437562,1645901844.181397,81.0,0.0,4686.153809,4532.820313,4256.922852000001,4186.666504,4448.205078,450.0,1.0,15.0,,,,0.0,4.0,2.0,4.0,4.0,4.0,83.333336,,,,,,,,,,,,,,,,,,,,,,,,,,,,,,,,,,,,,,,,,,,,,,,,,,,,,,,,,,,,,,,,,,,,,,,,,,,,,,,,,,,,
9769,1645901844.151571,1645901844.189211,82.0,0.0,4606.153809,4523.589844,4205.641113000001,4153.333496,4460.512695,450.0,1.0,15.0,,,,0.0,4.0,2.0,4.0,4.0,4.0,83.333336,,,,,,,,41.0,0.0,0.71722,0.116943,0.663574,0.177734,0.9199360000000001,-0.408209,-0.080568,-0.029283,-0.033799,-0.012445999999999999,,,,,,,,,,,,,,,,,,,,,,,,,,,,,,,,,,,10.0,0.0,1.0,0.0,512.0,0.398735,,,,,,,,,,,,,,,,,,,,,,,,,
9770,1645901844.1593869,1645901844.197026,83.0,0.0,4534.871582,4493.846191,4201.025879,4149.743652,4426.666504,16170.0,1.0,15.0,,,,0.0,4.0,2.0,4.0,4.0,4.0,83.333336,,,,,,,,,,,,,,,,,,,,,,,,,,,,,,,,,,,,,,,,,,,,,,,,,,,,,,,,,,,,,,,,,,,,,,,,,,,,,,,,,,,,
9771,1645901844.167202,1645901844.20484,84.0,0.0,4479.487305,4501.025879,4209.743652,4207.692383,4373.846191,450.0,1.0,15.0,,,,0.0,4.0,2.0,4.0,4.0,4.0,83.333336,,,,,,,,42.0,0.0,0.71722,0.116943,0.663574,0.177734,0.91017,-0.41113900000000003,-0.09424,-0.026404,-0.033935,-0.013496000000000001,,,,,,,,,,,,,,,,,,,,,,,,,,,,,,,,,,,,,,,,,,,,,,,,,,,,,,,,,,,,,,,,,
9772,1645901844.1750169,1645901844.212655,85.0,0.0,4436.922852000001,4508.717772999999,4206.666504,4181.025879,4345.128418,450.0,1.0,15.0,,,,0.0,4.0,2.0,4.0,4.0,4.0,83.333336,,,,,,,,,,,,,,,,,,,,,,,,,,,,,,,,,,,,,,,,,,,,,,,,,,,,,,,,,,,,,,,,,,,,,,,,,,,,,,,,,,,,
9773,1645901844.182832,1645901844.22047,86.0,0.0,4401.538574,4493.333496,4222.05127,4077.4357909999994,4316.922852000001,450.0,1.0,15.0,,,,0.0,4.0,2.0,4.0,4.0,4.0,83.333336,1.0,25.0,3.0,0.0,0.0,3.0,4.0,43.0,0.0,0.71722,0.116943,0.663574,0.177734,0.922866,-0.409186,-0.093263,-0.026937,-0.034008,-0.014538999999999998,1.0,0.0,0.0,,,,,,,,,,,,,,,,,,,,,,,,,,,,,,,,10.0,0.0,1.0,0.0,512.0,0.138228,7.385219,3.682411,1.2442469999999999,1.696186,1.191872,43.560116,27.134335999999998,18.731684,13.239889999999999,18.17103,36.419113,40.704246999999995,2.8191200000000003,3.063733,4.248964,4.161443,3.8316169999999996,7.291714,4.455778,1.9939310000000001,3.557225,5.200627,1.0849309999999999,2.267553,1.1134030000000001
9774,1645901844.1906471,1645901844.228284,87.0,0.0,4373.333496,4464.615234000001,4269.743652,4166.666504,4322.563965,16170.0,1.0,15.0,,,,0.0,4.0,2.0,4.0,4.0,4.0,83.333336,,,,,,,,,,,,,,,,,,,,,,,,,,,,,,,,,,,,,,,,,,,,,,,,,,,,,,,,,,,,,,,,,,,,,,,,,,,,,,,,,,,,
9775,1645901844.198462,1645901844.236099,88.0,0.0,4341.538574,4403.077147999999,4257.94873,4307.692383,4325.128418,450.0,1.0,15.0,,,,0.0,4.0,2.0,4.0,4.0,4.0,83.333336,,,,,,,,44.0,0.0,0.71722,0.116943,0.663574,0.177734,0.9209129999999999,-0.41406899999999996,-0.08691499999999999,-0.027466,-0.034025,-0.015331000000000001,,,,,,,,,,,,,,,,,,,,,,,,,,,,,,,,,,,,,,,,,,,,,,,,,,,,,,,,,,,,,,,,,
9776,1645901844.206277,1645901844.2439141,89.0,0.0,4315.897461,4400.0,4286.666504,4335.384765999999,4275.897461,450.0,1.0,15.0,,,,0.0,4.0,2.0,4.0,4.0,4.0,83.333336,,,,,,,,,,,,,,,,,,,,,,,,,,,,,,,,,,,,,,,,,,,,,,,,,,,,,,,,,,,,,,,,,,,,,,,,,,,,,,,,,,,,
9777,1645901844.214093,1645901844.251628,90.0,0.0,4306.666504,4417.436035,4287.692383,4473.846191,4241.538574,450.0,1.0,15.0,,,,0.0,4.0,2.0,4.0,4.0,4.0,83.333336,,,,,,,,45.0,0.0,0.71728,0.116943,0.663574,0.17749,0.9038219999999999,-0.404303,-0.082521,-0.027893,-0.034089999999999995,-0.016044,,,,,,,,,,,,,,,,,,,,,,,,,,,,,,,,,,,10.0,0.0,1.0,0.0,512.0,0.138228,,,,,,,,,,,,,,,,,,,,,,,,,
9778,1645901844.221908,1645901844.259443,91.0,0.0,4300.512695,4366.666504,4257.94873,4697.94873,4244.102539,16170.0,1.0,15.0,,,,0.0,4.0,2.0,4.0,4.0,4.0,83.333336,,,,,,,,,,,,,,,,,,,,,,,,,,,,,,,,,,,,,,,,,,,,,,,,,,,,,,,,,,,,,,,,,,,,,,,,,,,,,,,,,,,,
9779,1645901844.229723,1645901844.267258,92.0,0.0,4310.256348,4376.922852000001,4250.769043,4776.922852000001,4253.333496,450.0,1.0,15.0,,,,0.0,4.0,2.0,4.0,4.0,4.0,83.333336,,,,,,,,46.0,0.0,0.71728,0.116943,0.663574,0.17749,0.9248190000000001,-0.403326,-0.095705,-0.028229,-0.034099000000000004,-0.016784,,,,,,,,,,,,,,,,,,,,,,,,,,,,,,,,,,,,,,,,,,,,,,,,,,,,,,,,,,,,,,,,,
9780,1645901844.237538,1645901844.275072,93.0,0.0,4303.077147999999,4452.820313,4276.410156,4756.922852000001,4259.487305,450.0,1.0,15.0,,,,0.0,4.0,2.0,4.0,4.0,4.0,83.333336,,,,,,,,,,,,,,,,,,,,,,,,,,,,,,,,,,,,,,,,,,,,,,,,,,,,,,,,,,,,,,,,,,,,,,,,,,,,,,,,,,,,
9781,1645901844.245353,1645901844.282887,94.0,0.0,4270.769043,4422.563965,4234.358886999999,4770.256348,4244.102539,450.0,1.0,15.0,,,,0.0,4.0,2.0,4.0,4.0,4.0,83.333336,,,,,,,,47.0,0.0,0.71732,0.116699,0.663574,0.17749,0.9272600000000001,-0.401862,-0.09424,-0.028727,-0.034205,-0.017449,,,,,,,,,,,,,,,,,,,,,,,,,,,,,,,,,,,10.0,0.0,1.0,0.0,512.0,0.138228,,,,,,,,,,,,,,,,,,,,,,,,,
9782,1645901844.2531679,1645901844.2907019,95.0,0.0,4266.153809,4357.94873,4237.94873,4848.205078,4212.307617,16170.0,1.0,15.0,,,,0.0,4.0,2.0,4.0,4.0,4.0,83.333336,,,,,,,,,,,,,,,,,,,,,,,,,,,,,,,,,,,,,,,,,,,,,,,,,,,,,,,,,,,,,,,,,,,,,,,,,,,,,,,,,,,,
9783,1645901844.260984,1645901844.298516,96.0,0.0,4287.692383,4393.333496,4269.743652,4936.410156,4228.205078,450.0,1.0,15.0,,,,0.0,4.0,2.0,4.0,4.0,4.0,83.333336,,,,,,,,48.0,0.0,0.717546,0.116699,0.66333,0.17749,0.916518,-0.398444,-0.090822,-0.029174000000000002,-0.034251,-0.018097,,,,,,,,,,,,,,,,,,,,,,,,,,,,,,,,,,,,,,,,,,,,,,,,,,,,,,,,,,,,,,,,,
9784,1645901844.268799,1645901844.3063312,97.0,0.0,4237.94873,4433.846191,4237.436035,4742.05127,4218.974121,450.0,1.0,15.0,,,,0.0,4.0,2.0,4.0,4.0,4.0,83.333336,,,,,,,,,,,,,,,,,,,,,,,,,,,,,,,,,,,,,,,,,,,,,,,,,,,,,,,,,,,,,,,,,,,,,,,,,,,,,,,,,,,,
9785,1645901844.276614,1645901844.314146,98.0,0.0,4197.436035,4479.487305,4205.128418,4375.384765999999,4198.461426,450.0,1.0,15.0,,,,0.0,4.0,2.0,4.0,4.0,4.0,83.333336,,,,,,,,49.0,0.0,0.71728,0.116943,0.663574,0.17749,0.914565,-0.404791,-0.092287,-0.029528,-0.034244,-0.018581999999999998,,,,,,,,,,,,,,,,,,,,,,,,,,,,,,,,,,,10.0,0.0,1.0,0.0,512.0,0.138228,,,,,,,,,,,,,,,,,,,,,,,,,
9786,1645901844.2844288,1645901844.3220599,99.0,0.0,4201.025879,4626.153809,4228.717772999999,4229.743652,4206.666504,16170.0,1.0,15.0,,,,0.0,4.0,2.0,4.0,4.0,4.0,83.333336,,,,,,,,,,,,,,,,,,,,,,,,,,,,,,,,,,,,,,,,,,,,,,,,,,,,,,,,,,,,,,,,,,,,,,,,,,,,,,,,,,,,
9787,1645901844.292244,1645901844.329875,100.0,0.0,4201.538574,4813.846191,4233.333496,4253.333496,4213.846191,450.0,1.0,15.0,,,,0.0,4.0,2.0,4.0,4.0,4.0,83.333336,,,,,,,,50.0,0.0,0.71732,0.116699,0.663574,0.17749,0.9272600000000001,-0.401862,-0.09424,-0.029798,-0.034237000000000004,-0.016040000000000002,,,,,,,,,,,,,,,,,,,,,,,,,,,,,,,,,,,,,,,,,,,,,,,,,,,,,,,,,,,,,,,,,
9788,1645901844.300059,1645901844.3376892,101.0,0.0,4198.974121,4778.461426,4225.128418,4210.256348,4196.410156,450.0,1.0,15.0,,,,0.0,4.0,2.0,4.0,4.0,4.0,83.333336,,,,,,,,,,,,,,,,,,,,,,,,,,,,,,,,,,,,,,,,,,,,,,,,,,,,,,,,,,,,,,,,,,,,,,,,,,,,,,,,,,,,
9789,1645901844.307875,1645901844.3455038,102.0,0.0,4229.743652,4560.0,4274.358886999999,4153.333496,4204.615234000001,450.0,1.0,15.0,,,,0.0,4.0,2.0,4.0,4.0,4.0,83.333336,,,,,,,,51.0,0.0,0.71728,0.116943,0.663574,0.17749,0.914565,-0.404791,-0.092287,-0.03009,-0.034232,-0.016731,1.0,0.0,0.0,,,,,,,,,,,,,,,,,,,,,,,,,,,,,,,,0.0,0.0,1.0,0.0,512.0,0.643703,20.144575,4.636252,1.563636,1.671166,1.235651,37.592873,25.743803,18.215231,11.340755,18.956738,39.238827,44.169086,3.0998080000000003,3.317362,3.9584010000000003,4.8352580000000005,3.3542349999999996,6.611878999999999,4.87948,1.873219,8.116634,6.163883,1.1479139999999999,1.823682,0.960514
9790,1645901844.31569,1645901844.353319,103.0,0.0,4263.077147999999,4482.563965,4268.205078,4151.794922,4222.05127,16170.0,1.0,15.0,,,,0.0,4.0,2.0,4.0,4.0,4.0,83.333336,,,,,,,,,,,,,,,,,,,,,,,,,,,,,,,,,,,,,,,,,,,,,,,,,,,,,,,,,,,,,,,,,,,,,,,,,,,,,,,,,,,,
9791,1645901844.3235052,1645901844.361133,104.0,0.0,4331.282227000001,4599.487305,4234.358886999999,4164.102539,4248.205078,450.0,1.0,15.0,,,,0.0,4.0,2.0,4.0,4.0,4.0,83.333336,,,,,,,,52.0,0.0,0.7174659999999999,0.11718800000000001,0.66333,0.17749,0.9209129999999999,-0.411627,-0.09472799999999999,-0.030400999999999997,-0.034178,-0.017353,,,,,,,,,,,,,,,,,,,,,,,,,,,,,,,,,,,,,,,,,,,,,,,,,,,,,,,,,,,,,,,,,
9792,1645901844.3313198,1645901844.368948,105.0,0.0,4479.487305,4651.794922,4212.307617,4153.333496,4351.282227000001,450.0,1.0,15.0,,,,0.0,4.0,2.0,4.0,4.0,4.0,83.333336,,,,,,,,,,,,,,,,,,,,,,,,,,,,,,,,,,,,,,,,,,,,,,,,,,,,,,,,,,,,,,,,,,,,,,,,,,,,,,,,,,,,
9793,1645901844.339135,1645901844.376763,106.0,0.0,4631.282227000001,4650.769043,4246.153809,4154.871582,4451.282227000001,450.0,1.0,15.0,,,,0.0,4.0,2.0,4.0,4.0,4.0,83.333336,,,,,,,,53.0,0.0,0.717366,0.117432,0.66333,0.177734,0.932143,-0.404303,-0.093263,-0.030535000000000003,-0.034129,-0.018059,,,,,,,,,,,,,,,,,,,,,,,,,,,,,,,,,,,0.0,0.0,1.0,0.0,512.0,0.643703,,,,,,,,,,,,,,,,,,,,,,,,,
9794,1645901844.34695,1645901844.384577,107.0,0.0,4743.589844,4742.05127,4255.384765999999,4167.179688,4501.538574,16170.0,1.0,15.0,,,,0.0,4.0,2.0,4.0,4.0,4.0,83.333336,,,,,,,,,,,,,,,,,,,,,,,,,,,,,,,,,,,,,,,,,,,,,,,,,,,,,,,,,,,,,,,,,,,,,,,,,,,,,,,,,,,,
9795,1645901844.3547661,1645901844.392392,108.0,0.0,4783.589844,4885.641113000001,4278.461426,4165.128418,4543.589844,450.0,1.0,15.0,,,,0.0,4.0,2.0,4.0,4.0,4.0,83.333336,,,,,,,,54.0,0.0,0.717366,0.117432,0.66333,0.177734,0.914076,-0.39697899999999997,-0.087404,-0.030558,-0.034085000000000004,-0.015521,,,,,,,,,,,,,,,,,,,,,,,,,,,,,,,,,,,,,,,,,,,,,,,,,,,,,,,,,,,,,,,,,
9796,1645901844.362581,1645901844.4001071,109.0,0.0,4839.487305,4998.974121,4266.153809,4170.256348,4597.436035,450.0,1.0,15.0,,,,0.0,4.0,2.0,4.0,4.0,4.0,83.333336,,,,,,,,,,,,,,,,,,,,,,,,,,,,,,,,,,,,,,,,,,,,,,,,,,,,,,,,,,,,,,,,,,,,,,,,,,,,,,,,,,,,
9797,1645901844.3703961,1645901844.407921,110.0,0.0,4896.410156,4837.94873,4245.128418,4178.974121,4627.179688,450.0,1.0,15.0,,,,0.0,4.0,2.0,4.0,4.0,4.0,83.333336,,,,,,,,55.0,0.0,0.717366,0.117432,0.66333,0.177734,0.918959,-0.406744,-0.08691499999999999,-0.030725,-0.034193,-0.016215,,,,,,,,,,,,,,,,,,,,,,,,,,,,,,,,,,,0.0,0.0,1.0,0.0,512.0,0.643703,,,,,,,,,,,,,,,,,,,,,,,,,
9798,1645901844.378211,1645901844.415736,111.0,0.0,4905.641113000001,4565.641113000001,4208.205078,4205.128418,4629.230957,16170.0,1.0,15.0,,,,0.0,4.0,2.0,4.0,4.0,4.0,83.333336,,,,,,,,,,,,,,,,,,,,,,,,,,,,,,,,,,,,,,,,,,,,,,,,,,,,,,,,,,,,,,,,,,,,,,,,,,,,,,,,,,,,
9799,1645901844.386026,1645901844.423551,112.0,0.0,4895.384765999999,4587.179688,4205.128418,4217.436035,4610.256348,450.0,1.0,15.0,,,,0.0,4.0,2.0,4.0,4.0,4.0,83.333336,,,,,,,,56.0,0.0,0.7174659999999999,0.11718800000000001,0.66333,0.17749,0.9389790000000001,-0.408209,-0.107424,-0.027701,-0.034094,-0.016937,,,,,,,,,,,,,,,,,,,,,,,,,,,,,,,,,,,,,,,,,,,,,,,,,,,,,,,,,,,,,,,,,
9800,1645901844.393842,1645901844.431365,113.0,0.0,4896.410156,4728.717772999999,4200.512695,4206.153809,4608.205078,450.0,1.0,15.0,,,,0.0,4.0,2.0,4.0,4.0,4.0,83.333336,,,,,,,,,,,,,,,,,,,,,,,,,,,,,,,,,,,,,,,,,,,,,,,,,,,,,,,,,,,,,,,,,,,,,,,,,,,,,,,,,,,,
9801,1645901844.401657,1645901844.4391801,114.0,0.0,4872.307617,4704.102539,4179.487305,4179.487305,4582.05127,450.0,1.0,15.0,,,,0.0,4.0,2.0,4.0,4.0,4.0,83.333336,,,,,,,,57.0,0.0,0.717631,0.11718800000000001,0.663086,0.177734,0.9091940000000001,-0.406744,-0.095705,-0.028154000000000002,-0.034054,-0.017537999999999998,,,,,,,,,,,,,,,,,,,,,,,,,,,,,,,,,,,0.0,0.0,1.0,0.0,512.0,0.643703,,,,,,,,,,,,,,,,,,,,,,,,,
9802,1645901844.409472,1645901844.446995,115.0,0.0,4809.743652,4669.743652,4190.769043,4173.846191,4528.717772999999,16170.0,1.0,15.0,,,,0.0,4.0,2.0,4.0,4.0,4.0,83.333336,,,,,,,,,,,,,,,,,,,,,,,,,,,,,,,,,,,,,,,,,,,,,,,,,,,,,,,,,,,,,,,,,,,,,,,,,,,,,,,,,,,,
9803,1645901844.4172869,1645901844.454809,116.0,0.0,4741.538574,4741.538574,4218.461426,4176.922852000001,4489.230957,450.0,1.0,15.0,,,,0.0,4.0,2.0,4.0,4.0,4.0,83.333336,,,,,,,,58.0,0.0,0.7176710000000001,0.116943,0.663086,0.177734,0.932143,-0.409186,-0.10009900000000001,-0.028561000000000003,-0.034017,-0.018177000000000002,,,,,,,,,,,,,,,,,,,,,,,,,,,,,,,,,,,,,,,,,,,,,,,,,,,,,,,,,,,,,,,,,
9804,1645901844.425102,1645901844.462624,117.0,0.0,4697.94873,4814.871582,4238.974121,4192.820313,4475.897461,450.0,1.0,15.0,,,,0.0,4.0,2.0,4.0,4.0,4.0,83.333336,,,,,,,,,,,,,,,,,,,,,,,,,,,,,,,,,,,,,,,,,,,,,,,,,,,,,,,,,,,,,,,,,,,,,,,,,,,,,,,,,,,,
9805,1645901844.4329169,1645901844.470339,118.0,0.0,4638.461426,4833.333496,4248.717772999999,4197.436035,4425.641113000001,450.0,1.0,15.0,,,,0.0,4.0,2.0,4.0,4.0,4.0,83.333336,,,,,,,,59.0,0.0,0.717731,0.116943,0.663086,0.17749,0.918959,-0.410163,-0.091798,-0.028976,-0.033936,-0.018703,1.0,0.0,0.0,,,,,,,,,,,,,,,,,,,,,,,,,,,,,,,,0.0,0.0,1.0,0.0,512.0,0.791775,69.793755,7.5182080000000004,2.374739,1.7359080000000002,1.300607,42.584663,26.329811,17.163933,10.521621000000001,20.710064000000003,41.303082,45.341316,3.614576,3.6023059999999996,3.892274,12.674769,4.794251,6.352580000000001,5.613414,2.1152729999999997,24.636969,7.397676,1.317212,1.569495,0.851504
9806,1645901844.440733,1645901844.478153,119.0,0.0,4555.897461,4808.717772999999,4275.384765999999,4180.512695,4372.307617,16170.0,1.0,15.0,,,,0.0,4.0,2.0,4.0,4.0,4.0,83.333336,,,,,,,,,,,,,,,,,,,,,,,,,,,,,,,,,,,,,,,,,,,,,,,,,,,,,,,,,,,,,,,,,,,,,,,,,,,,,,,,,,,,
9807,1645901844.448548,1645901844.4859679,120.0,0.0,4486.153809,4775.384765999999,4240.0,4162.563965,4354.871582,450.0,1.0,15.0,,,,0.0,4.0,2.0,4.0,4.0,4.0,83.333336,,,,,,,,60.0,0.0,0.717731,0.116943,0.663086,0.17749,0.925307,-0.421393,-0.098146,-0.029301999999999998,-0.033912,-0.019128,,,,,,,,,,,,,,,,,,,,,,,,,,,,,,,,,,,,,,,,,,,,,,,,,,,,,,,,,,,,,,,,,
9808,1645901844.4563632,1645901844.493783,121.0,0.0,4438.974121,4749.743652,4244.102539,4142.563965,4318.974121,450.0,1.0,15.0,,,,0.0,4.0,2.0,4.0,4.0,4.0,83.333336,,,,,,,,,,,,,,,,,,,,,,,,,,,,,,,,,,,,,,,,,,,,,,,,,,,,,,,,,,,,,,,,,,,,,,,,,,,,,,,,,,,,
9809,1645901844.4641778,1645901844.5015972,122.0,0.0,4380.512695,4683.077147999999,4261.025879,4136.922852000001,4275.897461,450.0,1.0,15.0,,,,0.0,4.0,2.0,4.0,4.0,4.0,83.333336,,,,,,,,61.0,0.0,0.7177520000000001,0.11718800000000001,0.663086,0.17724600000000001,0.9243309999999999,-0.410163,-0.08984500000000001,-0.029594,-0.033889999999999997,-0.019559,,,,,,,,,,,,,,,,,,,,,,,,,,,,,,,,,,,0.0,0.0,1.0,0.0,512.0,0.791775,,,,,,,,,,,,,,,,,,,,,,,,,
9810,1645901844.471993,1645901844.5094118,123.0,0.0,4329.230957,4637.436035,4236.922852000001,4149.743652,4266.153809,16170.0,1.0,15.0,,,,0.0,4.0,2.0,4.0,4.0,4.0,83.333336,,,,,,,,,,,,,,,,,,,,,,,,,,,,,,,,,,,,,,,,,,,,,,,,,,,,,,,,,,,,,,,,,,,,,,,,,,,,,,,,,,,,
9811,1645901844.479808,1645901844.517227,124.0,0.0,4302.05127,4663.077147999999,4194.358886999999,4158.974121,4283.077147999999,450.0,1.0,15.0,,,,0.0,4.0,2.0,4.0,4.0,4.0,83.333336,,,,,,,,62.0,0.0,0.7177520000000001,0.11718800000000001,0.663086,0.17724600000000001,0.9111469999999999,-0.412116,-0.098146,-0.029711,-0.033968,-0.016822,,,,,,,,,,,,,,,,,,,,,,,,,,,,,,,,,,,,,,,,,,,,,,,,,,,,,,,,,,,,,,,,,
9812,1645901844.487624,1645901844.525041,125.0,0.0,4264.615234000001,4681.538574,4238.974121,4169.230957,4273.846191,450.0,1.0,15.0,,,,0.0,4.0,2.0,4.0,4.0,4.0,83.333336,,,,,,,,,,,,,,,,,,,,,,,,,,,,,,,,,,,,,,,,,,,,,,,,,,,,,,,,,,,,,,,,,,,,,,,,,,,,,,,,,,,,
9813,1645901844.495439,1645901844.532856,126.0,0.0,4249.743652,4655.384765999999,4226.666504,4162.05127,4257.436035,450.0,1.0,15.0,,,,0.0,4.0,2.0,4.0,4.0,4.0,83.333336,,,,,,,,63.0,0.0,0.717852,0.116943,0.663086,0.177002,0.9150530000000001,-0.40528000000000003,-0.093751,-0.030060000000000003,-0.033891000000000004,-0.014261000000000001,,,,,,,,,,,,,,,,,,,,,,,,,,,,,,,,,,,0.0,0.0,1.0,0.0,512.0,0.791775,,,,,,,,,,,,,,,,,,,,,,,,,
9814,1645901844.503254,1645901844.5405712,127.0,0.0,4232.820313,4613.333496,4224.615234000001,4136.410156,4248.717772999999,232.0,1.0,15.0,,,,0.0,4.0,1.0,2.0,4.0,4.0,58.33333199999999,,,,,,,,,,,,,,,,,,,,,,,,,,,,,,,,,,,,,,,,,,,,,,,,,,,,,,,,,,,,,,,,,,,,,,,,,,,,,,,,,,,,
9815,1645901844.511069,1645901844.548385,0.0,0.0,4230.769043,4655.897461,4231.794922,4148.717772999999,4247.179688,450.0,1.0,15.0,,,,0.0,4.0,1.0,2.0,4.0,4.0,58.33333199999999,,,,,,,,0.0,0.0,0.717812,0.11718800000000001,0.663086,0.177002,0.9131,-0.401373,-0.080568,-0.027103,-0.033871,-0.012102,,,,,,,,,,,,,,,,,,,,,,,,,,,,,,,,,,,,,,,,,,,,,,,,,,,,,,,,,,,,,,,,,
9816,1645901844.518884,1645901844.5562,1.0,0.0,4237.94873,4728.205078,4196.410156,4141.025879,4240.0,450.0,1.0,15.0,,,,0.0,4.0,1.0,2.0,4.0,4.0,58.33333199999999,,,,,,,,,,,,,,,,,,,,,,,,,,,,,,,,,,,,,,,,,,,,,,,,,,,,,,,,,,,,,,,,,,,,,,,,,,,,,,,,,,,,
9817,1645901844.526699,1645901844.564014,2.0,0.0,4215.897461,4620.512695,4212.307617,4114.871582,4231.282227000001,16099.0,1.0,15.0,,,,0.0,4.0,1.0,2.0,4.0,4.0,58.33333199999999,,,,,,,,1.0,0.0,0.7177520000000001,0.11718800000000001,0.663086,0.17724600000000001,0.923842,-0.39697899999999997,-0.09424,-0.027567,-0.033902,-0.013285,,,,,,,,,,,,,,,,,,,,,,,,,,,,,,,,,,,0.0,0.0,1.0,0.0,512.0,0.791775,,,,,,,,,,,,,,,,,,,,,,,,,
9818,1645901844.5345151,1645901844.5718288,3.0,0.0,4158.974121,4485.641113000001,4246.666504,4140.512695,4194.871582,450.0,1.0,15.0,,,,0.0,4.0,1.0,2.0,4.0,4.0,58.33333199999999,,,,,,,,,,,,,,,,,,,,,,,,,,,,,,,,,,,,,,,,,,,,,,,,,,,,,,,,,,,,,,,,,,,,,,,,,,,,,,,,,,,,
9819,1645901844.54233,1645901844.579644,4.0,0.0,4156.410156,4601.025879,4220.0,4176.410156,4177.94873,104.0,1.0,15.0,,,,0.0,4.0,1.0,2.0,4.0,4.0,58.33333199999999,,,,,,,,2.0,0.0,0.7177520000000001,0.11718800000000001,0.663086,0.17724600000000001,0.913588,-0.39649,-0.09765800000000001,-0.027935,-0.03393,-0.011126,,,,,,,,,,,,,,,,,,,,,,,,,,,,,,,,,,,,,,,,,,,,,,,,,,,,,,,,,,,,,,,,,
9820,1645901844.550145,1645901844.587458,5.0,0.0,4184.615234000001,4736.922852000001,4207.692383,4152.307617,4200.0,450.0,1.0,15.0,,,,0.0,4.0,1.0,2.0,4.0,4.0,58.33333199999999,,,,,,,,,,,,,,,,,,,,,,,,,,,,,,,,,,,,,,,,,,,,,,,,,,,,,,,,,,,,,,,,,,,,,,,,,,,,,,,,,,,,
9821,1645901844.55796,1645901844.595273,6.0,0.0,4205.641113000001,4668.717772999999,4273.333496,4144.102539,4237.436035,308.0,1.0,15.0,,,,0.0,4.0,1.0,2.0,4.0,4.0,58.33333199999999,,,,,,,,3.0,0.0,0.717692,0.11718800000000001,0.663086,0.17749,0.917494,-0.404791,-0.087892,-0.028314999999999996,-0.033857,-0.009086,1.0,0.0,0.0,,,,,,,,,,,,,,,,,,,,,,,,,,,,,,,,0.0,0.0,1.0,0.0,512.0,0.995865,180.65995800000002,12.409596,3.752557,1.935847,1.401151,60.744263000000004,27.604799,16.427351,10.888838,22.809317,41.83168,43.782364,4.238654,4.000506,3.9830980000000005,53.545902000000005,14.389535999999998,7.203258,7.203111,3.118823,60.682331000000005,9.162088,1.579218,1.564139,0.8213870000000001
9822,1645901844.565775,1645901844.6030881,7.0,0.0,4296.922852000001,4601.025879,4259.487305,4144.615234000001,4289.230957,450.0,1.0,15.0,,,,0.0,4.0,1.0,2.0,4.0,4.0,58.33333199999999,,,,,,,,,,,,,,,,,,,,,,,,,,,,,,,,,,,,,,,,,,,,,,,,,,,,,,,,,,,,,,,,,,,,,,,,,,,,,,,,,,,,
9823,1645901844.57359,1645901844.610902,8.0,0.0,4475.897461,4725.641113000001,4269.743652,4132.820313,4369.230957,450.0,1.0,15.0,,,,0.0,4.0,1.0,2.0,4.0,4.0,58.33333199999999,,,,,,,,4.0,0.0,0.717591,0.117432,0.663086,0.177734,0.917006,-0.407233,-0.087404,-0.028609,-0.033889999999999997,-0.010423,,,,,,,,,,,,,,,,,,,,,,,,,,,,,,,,,,,,,,,,,,,,,,,,,,,,,,,,,,,,,,,,,
9824,1645901844.581406,1645901844.618617,9.0,0.0,4633.846191,4842.05127,4275.384765999999,4127.179688,4462.563965,16120.0,1.0,15.0,,,,0.0,4.0,1.0,2.0,4.0,4.0,58.33333199999999,,,,,,,,,,,,,,,,,,,,,,,,,,,,,,,,,,,,,,,,,,,,,,,,,,,,,,,,,,,,,,,,,,,,,,,,,,,,,,,,,,,,
9825,1645901844.589221,1645901844.626432,10.0,0.0,4673.333496,4755.384765999999,4240.0,4128.717772999999,4523.077147999999,450.0,1.0,15.0,,,,0.0,4.0,1.0,2.0,4.0,4.0,58.33333199999999,,,,,,,,5.0,0.0,0.717591,0.117432,0.663086,0.177734,0.921401,-0.404791,-0.09131,-0.029019,-0.03387,-0.011627,,,,,,,,,,,,,,,,,,,,,,,,,,,,,,,,,,,0.0,0.0,1.0,0.0,512.0,0.995865,,,,,,,,,,,,,,,,,,,,,,,,,
9826,1645901844.597036,1645901844.634246,11.0,0.0,4688.205078,4644.615234000001,4208.205078,4140.512695,4531.282227000001,16135.0,1.0,15.0,,,,0.0,4.0,1.0,2.0,4.0,4.0,58.33333199999999,,,,,,,,,,,,,,,,,,,,,,,,,,,,,,,,,,,,,,,,,,,,,,,,,,,,,,,,,,,,,,,,,,,,,,,,,,,,,,,,,,,,
9827,1645901844.604851,1645901844.642061,12.0,0.0,4757.94873,4632.307617,4267.179688,4136.922852000001,4534.871582,450.0,1.0,15.0,,,,0.0,4.0,1.0,2.0,4.0,4.0,58.33333199999999,,,,,,,,6.0,0.0,0.717817,0.117432,0.662842,0.177734,0.9116350000000001,-0.41846300000000003,-0.092775,-0.029339999999999998,-0.033852,-0.012808000000000002,,,,,,,,,,,,,,,,,,,,,,,,,,,,,,,,,,,,,,,,,,,,,,,,,,,,,,,,,,,,,,,,,
9828,1645901844.6126661,1645901844.6498759,13.0,0.0,4811.794922,4566.153809,4277.94873,4135.384765999999,4584.615234000001,450.0,1.0,15.0,,,,0.0,4.0,1.0,2.0,4.0,4.0,58.33333199999999,,,,,,,,,,,,,,,,,,,,,,,,,,,,,,,,,,,,,,,,,,,,,,,,,,,,,,,,,,,,,,,,,,,,,,,,,,,,,,,,,,,,
9829,1645901844.620482,1645901844.65769,14.0,0.0,4803.589844,4476.410156,4216.410156,4162.05127,4590.769043,450.0,1.0,15.0,,,,0.0,4.0,1.0,2.0,4.0,4.0,58.33333199999999,,,,,,,,7.0,0.0,0.717817,0.117432,0.662842,0.177734,0.918959,-0.413092,-0.092287,-0.029481999999999998,-0.033738,-0.010745999999999999,,,,,,,,,,,,,,,,,,,,,,,,,,,,,,,,,,,0.0,0.0,1.0,0.0,512.0,0.995865,,,,,,,,,,,,,,,,,,,,,,,,,
9830,1645901844.628297,1645901844.6655052,15.0,0.0,4840.512695,4535.897461,4167.692383,4176.410156,4557.94873,16135.0,1.0,15.0,,,,0.0,4.0,1.0,2.0,4.0,4.0,58.33333199999999,,,,,,,,,,,,,,,,,,,,,,,,,,,,,,,,,,,,,,,,,,,,,,,,,,,,,,,,,,,,,,,,,,,,,,,,,,,,,,,,,,,,
9831,1645901844.636112,1645901844.6733198,16.0,0.0,4873.333496,4600.512695,4214.358886999999,4145.128418,4557.436035,0.0,1.0,15.0,,,,0.0,4.0,1.0,2.0,4.0,4.0,58.33333199999999,,,,,,,,8.0,0.0,0.718002,0.117676,0.6625979999999999,0.177734,0.9043110000000001,-0.400885,-0.09131,-0.026583,-0.033685,-0.011918000000000002,,,,,,,,,,,,,,,,,,,,,,,,,,,,,,,,,,,,,,,,,,,,,,,,,,,,,,,,,,,,,,,,,
9832,1645901844.6439269,1645901844.681134,17.0,0.0,4823.589844,4549.743652,4230.769043,4142.05127,4571.282227000001,0.0,1.0,15.0,,,,0.0,4.0,1.0,2.0,4.0,4.0,58.33333199999999,,,,,,,,,,,,,,,,,,,,,,,,,,,,,,,,,,,,,,,,,,,,,,,,,,,,,,,,,,,,,,,,,,,,,,,,,,,,,,,,,,,,
9833,1645901844.651742,1645901844.688849,18.0,0.0,4758.461426,4455.897461,4209.743652,4166.153809,4516.922852000001,0.0,1.0,15.0,,,,0.0,4.0,1.0,2.0,4.0,4.0,58.33333199999999,,,,,,,,9.0,0.0,0.718063,0.117676,0.6625979999999999,0.17749,0.917494,-0.410163,-0.083497,-0.027195999999999998,-0.033686,-0.009895999999999999,,,,,,,,,,,,,,,,,,,,,,,,,,,,,,,,,,,0.0,0.0,1.0,0.0,512.0,0.995865,,,,,,,,,,,,,,,,,,,,,,,,,
9834,1645901844.659557,1645901844.696664,19.0,0.0,4737.436035,4349.743652,4225.641113000001,4183.589844,4454.358886999999,0.0,1.0,15.0,,,,0.0,4.0,1.0,2.0,4.0,4.0,58.33333199999999,,,,,,,,,,,,,,,,,,,,,,,,,,,,,,,,,,,,,,,,,,,,,,,,,,,,,,,,,,,,,,,,,,,,,,,,,,,,,,,,,,,,
9835,1645901844.667373,1645901844.704378,20.0,0.0,4695.897461,4284.102539,4249.230957,4197.436035,4440.512695,0.0,1.0,15.0,,,,0.0,4.0,1.0,2.0,4.0,4.0,58.33333199999999,,,,,,,,10.0,0.0,0.718123,0.117676,0.6625979999999999,0.17724600000000001,0.9199360000000001,-0.40283800000000003,-0.098634,-0.027748000000000002,-0.033686,-0.01125,,,,,,,,,,,,,,,,,,,,,,,,,,,,,,,,,,,,,,,,,,,,,,,,,,,,,,,,,,,,,,,,,
9836,1645901844.675188,1645901844.712193,21.0,0.0,4632.820313,4245.128418,4274.871582,4213.333496,4452.820313,0.0,1.0,15.0,,,,0.0,4.0,1.0,2.0,4.0,4.0,58.33333199999999,,,,,,,,,,,,,,,,,,,,,,,,,,,,,,,,,,,,,,,,,,,,,,,,,,,,,,,,,,,,,,,,,,,,,,,,,,,,,,,,,,,,
9837,1645901844.683003,1645901844.720008,22.0,0.0,4573.846191,4211.282227000001,4250.769043,4185.641113000001,4432.307617,0.0,1.0,15.0,,,,0.0,4.0,1.0,2.0,4.0,4.0,58.33333199999999,1.0,8.333333,1.0,0.0,0.0,1.0,3.0,11.0,0.0,0.718123,0.117676,0.6625979999999999,0.17724600000000001,0.9209129999999999,-0.411627,-0.097169,-0.025022,-0.033638,-0.012371,1.0,0.0,0.0,,,,,,,,,,,,,,,,,,,,,,,,,,,,,,,,0.0,0.0,32.0,0.34119099999999997,1.0,0.0,364.993347,19.391359,5.494651999999999,2.301797,1.542614,91.484489,29.781435,20.840908,13.124704999999999,24.729157999999998,40.204865000000005,39.855598,4.779375,4.557082,4.098653,160.588806,40.080566,9.963281,10.229678999999999,5.173501,121.166145,11.838436,1.956638,1.7869830000000002,0.8891530000000001
9838,1645901844.690818,1645901844.727822,23.0,0.0,4529.230957,4298.974121,4247.692383,4148.205078,4375.384765999999,0.0,1.0,15.0,,,,0.0,4.0,1.0,2.0,4.0,4.0,58.33333199999999,,,,,,,,,,,,,,,,,,,,,,,,,,,,,,,,,,,,,,,,,,,,,,,,,,,,,,,,,,,,,,,,,,,,,,,,,,,,,,,,,,,,
9839,1645901844.698633,1645901844.735637,24.0,0.0,4473.333496,4375.897461,4251.282227000001,4158.974121,4321.025879,0.0,1.0,15.0,,,,0.0,4.0,1.0,2.0,4.0,4.0,58.33333199999999,,,,,,,,12.0,0.0,0.718408,0.117676,0.662354,0.177002,0.921401,-0.41455699999999995,-0.095705,-0.025743000000000002,-0.03379,-0.013478,,,,,,,,,,,,,,,,,,,,,,,,,,,,,,,,,,,,,,,,,,,,,,,,,,,,,,,,,,,,,,,,,
9840,1645901844.706448,1645901844.743452,25.0,0.0,4396.410156,4330.769043,4245.641113000001,4197.436035,4287.692383,0.0,1.0,15.0,,,,0.0,4.0,1.0,2.0,4.0,4.0,58.33333199999999,,,,,,,,,,,,,,,,,,,,,,,,,,,,,,,,,,,,,,,,,,,,,,,,,,,,,,,,,,,,,,,,,,,,,,,,,,,,,,,,,,,,
9841,1645901844.7142642,1645901844.751266,26.0,0.0,4329.743652,4290.769043,4217.94873,4196.410156,4263.589844,0.0,1.0,15.0,,,,0.0,4.0,1.0,2.0,4.0,4.0,58.33333199999999,,,,,,,,13.0,0.0,0.718468,0.117676,0.662354,0.176758,0.9277489999999999,-0.404303,-0.09033300000000001,-0.023216999999999998,-0.033780000000000004,-0.014523,,,,,,,,,,,,,,,,,,,,,,,,,,,,,,,,,,,10.0,0.0,32.0,0.34119099999999997,1.0,0.0,,,,,,,,,,,,,,,,,,,,,,,,,
9842,1645901844.7220788,1645901844.7590811,27.0,0.0,4283.077147999999,4300.0,4253.333496,4161.025879,4236.922852000001,0.0,1.0,15.0,,,,0.0,4.0,1.0,2.0,4.0,4.0,58.33333199999999,,,,,,,,,,,,,,,,,,,,,,,,,,,,,,,,,,,,,,,,,,,,,,,,,,,,,,,,,,,,,,,,,,,,,,,,,,,,,,,,,,,,
9843,1645901844.729894,1645901844.766896,28.0,0.0,4242.05127,4321.538574,4262.05127,4151.794922,4235.384765999999,0.0,1.0,15.0,,,,0.0,4.0,1.0,2.0,4.0,4.0,58.33333199999999,,,,,,,,14.0,0.0,0.718123,0.117676,0.6625979999999999,0.17724600000000001,0.9209129999999999,-0.411627,-0.097169,-0.024069,-0.033819999999999996,-0.012240000000000001,,,,,,,,,,,,,,,,,,,,,,,,,,,,,,,,,,,,,,,,,,,,,,,,,,,,,,,,,,,,,,,,,
9844,1645901844.737709,1645901844.77461,29.0,0.0,4198.461426,4322.563965,4253.846191,4151.282227000001,4221.538574,0.0,1.0,15.0,,,,0.0,4.0,1.0,2.0,4.0,4.0,58.33333199999999,,,,,,,,,,,,,,,,,,,,,,,,,,,,,,,,,,,,,,,,,,,,,,,,,,,,,,,,,,,,,,,,,,,,,,,,,,,,,,,,,,,,
9845,1645901844.745524,1645901844.782425,30.0,0.0,4189.230957,4362.563965,4183.077147999999,4134.871582,4194.358886999999,0.0,1.0,15.0,,,,0.0,4.0,1.0,2.0,4.0,4.0,58.33333199999999,,,,,,,,15.0,0.0,0.718468,0.117676,0.662354,0.176758,0.9277489999999999,-0.404303,-0.09033300000000001,-0.021711,-0.033807,-0.013409,,,,,,,,,,,,,,,,,,,,,,,,,,,,,,,,,,,10.0,0.0,32.0,0.34119099999999997,1.0,0.0,,,,,,,,,,,,,,,,,,,,,,,,,
9846,1645901844.753339,1645901844.79024,31.0,0.0,4171.794922,4438.461426,4190.256348,4129.743652,4193.846191,0.0,1.0,15.0,,,,0.0,4.0,1.0,2.0,4.0,4.0,58.33333199999999,,,,,,,,,,,,,,,,,,,,,,,,,,,,,,,,,,,,,,,,,,,,,,,,,,,,,,,,,,,,,,,,,,,,,,,,,,,,,,,,,,,,
9847,1645901844.7611551,1645901844.798054,32.0,0.0,4139.487305,4429.743652,4259.487305,4168.205078,4201.025879,0.0,1.0,15.0,,,,0.0,4.0,1.0,2.0,4.0,4.0,58.33333199999999,,,,,,,,16.0,0.0,0.718468,0.117676,0.662354,0.176758,0.918959,-0.40283800000000003,-0.098634,-0.022812,-0.033893,-0.014412000000000001,,,,,,,,,,,,,,,,,,,,,,,,,,,,,,,,,,,,,,,,,,,,,,,,,,,,,,,,,,,,,,,,,
9848,1645901844.76897,1645901844.8058689,33.0,0.0,4132.820313,4327.179688,4215.897461,4165.128418,4163.077147999999,0.0,1.0,15.0,,,,0.0,4.0,1.0,2.0,4.0,4.0,58.33333199999999,,,,,,,,,,,,,,,,,,,,,,,,,,,,,,,,,,,,,,,,,,,,,,,,,,,,,,,,,,,,,,,,,,,,,,,,,,,,,,,,,,,,
9849,1645901844.776785,1645901844.813684,34.0,0.0,4148.205078,4293.846191,4146.153809,4131.282227000001,4175.897461,0.0,1.0,15.0,,,,0.0,4.0,1.0,2.0,4.0,4.0,58.33333199999999,,,,,,,,17.0,0.0,0.718568,0.117432,0.662354,0.176514,0.9155409999999999,-0.391119,-0.093263,-0.023753,-0.033824,-0.012237999999999999,,,,,,,,,,,,,,,,,,,,,,,,,,,,,,,,,,,10.0,0.0,32.0,0.34119099999999997,1.0,0.0,,,,,,,,,,,,,,,,,,,,,,,,,
9850,1645901844.7846,1645901844.8214982,35.0,0.0,4096.922852000001,4320.512695,4225.641113000001,4144.102539,4203.589844,0.0,1.0,15.0,,,,0.0,4.0,1.0,2.0,4.0,4.0,58.33333199999999,,,,,,,,,,,,,,,,,,,,,,,,,,,,,,,,,,,,,,,,,,,,,,,,,,,,,,,,,,,,,,,,,,,,,,,,,,,,,,,,,,,,
9851,1645901844.7924151,1645901844.829313,36.0,0.0,4073.3332520000004,4334.871582,4265.128418,4171.282227000001,4164.615234000001,0.0,1.0,15.0,,,,0.0,4.0,1.0,2.0,4.0,4.0,58.33333199999999,,,,,,,,18.0,0.0,0.718568,0.117432,0.662354,0.176514,0.9184709999999999,-0.409674,-0.083986,-0.024503,-0.033811,-0.013309,,,,,,,,,,,,,,,,,,,,,,,,,,,,,,,,,,,,,,,,,,,,,,,,,,,,,,,,,,,,,,,,,
9852,1645901844.80023,1645901844.837127,37.0,0.0,4138.461426,4375.384765999999,4168.205078,4144.615234000001,4145.128418,0.0,1.0,15.0,,,,0.0,4.0,1.0,2.0,4.0,4.0,58.33333199999999,,,,,,,,,,,,,,,,,,,,,,,,,,,,,,,,,,,,,,,,,,,,,,,,,,,,,,,,,,,,,,,,,,,,,,,,,,,,,,,,,,,,
9853,1645901844.808046,1645901844.844842,38.0,0.0,4147.692383,4435.384765999999,4242.563965,4143.077147999999,4191.794922,0.0,1.0,15.0,,,,0.0,4.0,1.0,2.0,4.0,4.0,58.33333199999999,,,,,,,,19.0,0.0,0.718568,0.117432,0.662354,0.176514,0.9160299999999999,-0.400397,-0.093751,-0.025178,-0.033897000000000004,-0.014224,1.0,0.0,0.0,,,,,,,,,,,,,,,,,,,,,,,,,,,,,,,,10.0,0.0,1.0,0.0,512.0,0.792385,630.489441,28.578530999999998,7.51353,2.899347,1.7271889999999999,136.631134,33.233971000000004,35.409523,17.788088000000002,26.408171000000003,36.427147,34.629768,5.195905000000001,5.225047,4.130223,346.16299399999997,84.696884,14.938889000000001,14.783473,8.157752,210.662125,16.147047,2.5697259999999997,2.163103,1.048451
9854,1645901844.815861,1645901844.852657,39.0,0.0,4071.281982,4456.922852000001,4315.897461,4169.743652,4183.077147999999,0.0,1.0,15.0,,,,0.0,4.0,1.0,2.0,4.0,4.0,58.33333199999999,,,,,,,,,,,,,,,,,,,,,,,,,,,,,,,,,,,,,,,,,,,,,,,,,,,,,,,,,,,,,,,,,,,,,,,,,,,,,,,,,,,,
9855,1645901844.8236759,1645901844.860472,40.0,0.0,4054.8718259999996,4408.205078,4244.102539,4164.615234000001,4129.743652,0.0,1.0,15.0,,,,0.0,4.0,1.0,2.0,4.0,4.0,58.33333199999999,,,,,,,,20.0,0.0,0.7186279999999999,0.117432,0.662354,0.17627,0.914076,-0.408698,-0.092775,-0.025833999999999996,-0.033875999999999996,-0.015097,,,,,,,,,,,,,,,,,,,,,,,,,,,,,,,,,,,,,,,,,,,,,,,,,,,,,,,,,,,,,,,,,
9856,1645901844.831491,1645901844.868286,41.0,0.0,4086.6667479999996,4310.256348,4209.743652,4141.538574,4134.358886999999,0.0,1.0,15.0,,,,0.0,4.0,1.0,2.0,4.0,4.0,58.33333199999999,,,,,,,,,,,,,,,,,,,,,,,,,,,,,,,,,,,,,,,,,,,,,,,,,,,,,,,,,,,,,,,,,,,,,,,,,,,,,,,,,,,,
9857,1645901844.839306,1645901844.876101,42.0,0.0,4066.1538090000004,4267.692383,4306.666504,4119.487305,4142.563965,0.0,1.0,15.0,,,,0.0,4.0,1.0,2.0,4.0,4.0,58.33333199999999,,,,,,,,21.0,0.0,0.718893,0.11718800000000001,0.6621090000000001,0.17627,0.9160299999999999,-0.404791,-0.106447,-0.026424,-0.033907,-0.01598,,,,,,,,,,,,,,,,,,,,,,,,,,,,,,,,,,,10.0,0.0,1.0,0.0,512.0,0.792385,,,,,,,,,,,,,,,,,,,,,,,,,
9858,1645901844.847121,1645901844.883915,43.0,0.0,4065.1281740000004,4323.077147999999,4265.128418,4089.2307130000004,4124.615234000001,0.0,1.0,15.0,,,,0.0,4.0,1.0,2.0,4.0,4.0,58.33333199999999,,,,,,,,,,,,,,,,,,,,,,,,,,,,,,,,,,,,,,,,,,,,,,,,,,,,,,,,,,,,,,,,,,,,,,,,,,,,,,,,,,,,
9859,1645901844.8549368,1645901844.89173,44.0,0.0,4087.6923829999996,4354.358886999999,4190.256348,4083.5898439999996,4151.282227000001,0.0,1.0,15.0,,,,0.0,4.0,1.0,2.0,4.0,4.0,58.33333199999999,,,,,,,,22.0,0.0,0.718893,0.11718800000000001,0.6621090000000001,0.17627,0.9272600000000001,-0.400397,-0.096193,-0.026907,-0.033836,-0.013649000000000001,,,,,,,,,,,,,,,,,,,,,,,,,,,,,,,,,,,,,,,,,,,,,,,,,,,,,,,,,,,,,,,,,
9860,1645901844.862752,1645901844.899545,45.0,0.0,4070.256348,4338.974121,4251.282227000001,4145.128418,4174.871582,0.0,1.0,15.0,,,,0.0,4.0,1.0,2.0,4.0,4.0,58.33333199999999,,,,,,,,,,,,,,,,,,,,,,,,,,,,,,,,,,,,,,,,,,,,,,,,,,,,,,,,,,,,,,,,,,,,,,,,,,,,,,,,,,,,
9861,1645901844.870567,1645901844.907359,46.0,0.0,4060.0,4375.897461,4303.589844,4188.717772999999,4115.384765999999,0.0,1.0,15.0,,,,0.0,4.0,1.0,2.0,4.0,4.0,58.33333199999999,,,,,,,,23.0,0.0,0.718853,0.117432,0.6621090000000001,0.17627,0.921401,-0.40528000000000003,-0.104005,-0.027488,-0.033871,-0.014628,,,,,,,,,,,,,,,,,,,,,,,,,,,,,,,,,,,0.0,0.0,1.0,0.0,512.0,0.792385,,,,,,,,,,,,,,,,,,,,,,,,,
9862,1645901844.878382,1645901844.915174,47.0,0.0,4099.487305,4420.512695,4202.05127,4163.077147999999,4122.05127,0.0,1.0,15.0,,,,0.0,4.0,1.0,2.0,4.0,4.0,58.33333199999999,,,,,,,,,,,,,,,,,,,,,,,,,,,,,,,,,,,,,,,,,,,,,,,,,,,,,,,,,,,,,,,,,,,,,,,,,,,,,,,,,,,,
9863,1645901844.886197,1645901844.922889,48.0,0.0,4068.718018,4438.461426,4188.717772999999,4134.871582,4193.846191,0.0,1.0,15.0,,,,0.0,4.0,1.0,2.0,4.0,4.0,58.33333199999999,,,,,,,,24.0,0.0,0.718853,0.117432,0.6621090000000001,0.17627,0.934585,-0.411627,-0.09033300000000001,-0.027913,-0.033951,-0.012384000000000001,,,,,,,,,,,,,,,,,,,,,,,,,,,,,,,,,,,,,,,,,,,,,,,,,,,,,,,,,,,,,,,,,
9864,1645901844.8940132,1645901844.930703,49.0,0.0,4031.794922,4443.077147999999,4245.128418,4149.743652,4168.717772999999,0.0,1.0,15.0,,,,0.0,4.0,1.0,2.0,4.0,4.0,58.33333199999999,,,,,,,,,,,,,,,,,,,,,,,,,,,,,,,,,,,,,,,,,,,,,,,,,,,,,,,,,,,,,,,,,,,,,,,,,,,,,,,,,,,,
9865,1645901844.9018278,1645901844.938518,50.0,0.0,4097.436035,4430.256348,4203.077147999999,4141.538574,4108.205078,0.0,1.0,15.0,,,,0.0,4.0,1.0,2.0,4.0,4.0,58.33333199999999,,,,,,,,25.0,0.0,0.719078,0.117432,0.6618649999999999,0.17627,0.913588,-0.41260399999999997,-0.08838,-0.028294999999999997,-0.034071,-0.013538,,,,,,,,,,,,,,,,,,,,,,,,,,,,,,,,,,,0.0,0.0,1.0,0.0,512.0,0.792385,,,,,,,,,,,,,,,,,,,,,,,,,
9866,1645901844.909643,1645901844.946333,51.0,0.0,4155.384765999999,4400.0,4200.0,4145.128418,4169.230957,0.0,1.0,15.0,,,,0.0,4.0,1.0,2.0,4.0,4.0,58.33333199999999,,,,,,,,,,,,,,,,,,,,,,,,,,,,,,,,,,,,,,,,,,,,,,,,,,,,,,,,,,,,,,,,,,,,,,,,,,,,,,,,,,,,
9867,1645901844.917458,1645901844.954147,52.0,0.0,4094.8718259999996,4355.384765999999,4259.487305,4192.307617,4187.179688,0.0,1.0,15.0,,,,0.0,4.0,1.0,2.0,4.0,4.0,58.33333199999999,,,,,,,,26.0,0.0,0.719078,0.117432,0.6618649999999999,0.17627,0.9111469999999999,-0.41260399999999997,-0.099611,-0.02864,-0.034131,-0.014577000000000001,,,,,,,,,,,,,,,,,,,,,,,,,,,,,,,,,,,,,,,,,,,,,,,,,,,,,,,,,,,,,,,,,
9868,1645901844.925273,1645901844.961962,53.0,0.0,4066.1538090000004,4346.666504,4246.666504,4205.128418,4127.179688,0.0,1.0,15.0,,,,0.0,4.0,1.0,2.0,4.0,4.0,58.33333199999999,,,,,,,,,,,,,,,,,,,,,,,,,,,,,,,,,,,,,,,,,,,,,,,,,,,,,,,,,,,,,,,,,,,,,,,,,,,,,,,,,,,,
9869,1645901844.933088,1645901844.9697769,54.0,0.0,4110.256348,4388.717772999999,4227.179688,4151.794922,4155.384765999999,0.0,1.0,15.0,,,,0.0,4.0,1.0,2.0,4.0,4.0,58.33333199999999,,,,,,,,27.0,0.0,0.719138,0.117432,0.6618649999999999,0.176025,0.9155409999999999,-0.39649,-0.098634,-0.02895,-0.034038,-0.012436,1.0,0.0,0.0,,,,,,,,,,,,,,,,,,,,,,,,,,,,,,,,0.0,0.0,1.0,0.0,512.0,0.830407,967.8186039999999,40.461708,9.945997,3.823021,1.961055,190.02711499999998,37.639519,62.022167,24.677313,28.201529999999998,31.144888,29.425646,5.539887,5.845882,4.066066999999999,583.797058,141.516205,21.437298000000002,20.179005,11.448407000000001,327.21337900000003,22.798265,3.573544,2.613906,1.277726
9870,1645901844.940904,1645901844.977591,55.0,0.0,4106.666504,4436.922852000001,4289.743652,4114.358886999999,4202.563965,0.0,1.0,15.0,,,,0.0,4.0,1.0,2.0,4.0,4.0,58.33333199999999,,,,,,,,,,,,,,,,,,,,,,,,,,,,,,,,,,,,,,,,,,,,,,,,,,,,,,,,,,,,,,,,,,,,,,,,,,,,,,,,,,,,
9871,1645901844.948719,1645901844.9854062,56.0,0.0,4083.5898439999996,4434.358886999999,4258.974121,4102.563965,4164.102539,0.0,1.0,15.0,,,,0.0,4.0,1.0,2.0,4.0,4.0,58.33333199999999,,,,,,,,28.0,0.0,0.719138,0.117432,0.6618649999999999,0.176025,0.917983,-0.406744,-0.101076,-0.029325999999999998,-0.034052,-0.013585,,,,,,,,,,,,,,,,,,,,,,,,,,,,,,,,,,,,,,,,,,,,,,,,,,,,,,,,,,,,,,,,,
9872,1645901844.956534,1645901844.9931211,57.0,0.0,4102.563965,4493.846191,4250.256348,4107.692383,4138.974121,0.0,1.0,15.0,,,,0.0,4.0,1.0,2.0,4.0,4.0,58.33333199999999,,,,,,,,,,,,,,,,,,,,,,,,,,,,,,,,,,,,,,,,,,,,,,,,,,,,,,,,,,,,,,,,,,,,,,,,,,,,,,,,,,,,
9873,1645901844.964349,1645901845.000935,58.0,0.0,4122.05127,4523.589844,4263.077147999999,4120.512695,4156.410156,0.0,1.0,15.0,,,,0.0,4.0,1.0,2.0,4.0,4.0,58.33333199999999,,,,,,,,29.0,0.0,0.719138,0.117432,0.6618649999999999,0.176025,0.9306780000000001,-0.404303,-0.099611,-0.029519,-0.034163,-0.014619,,,,,,,,,,,,,,,,,,,,,,,,,,,,,,,,,,,0.0,0.0,1.0,0.0,512.0,0.830407,,,,,,,,,,,,,,,,,,,,,,,,,
9874,1645901844.9721642,1645901845.00875,59.0,0.0,4122.563965,4407.179688,4235.897461,4108.205078,4146.153809,0.0,1.0,15.0,,,,0.0,4.0,1.0,2.0,4.0,4.0,58.33333199999999,,,,,,,,,,,,,,,,,,,,,,,,,,,,,,,,,,,,,,,,,,,,,,,,,,,,,,,,,,,,,,,,,,,,,,,,,,,,,,,,,,,,
9875,1645901844.9799788,1645901845.016565,60.0,0.0,4130.769043,4377.436035,4218.974121,4110.769043,4162.05127,0.0,1.0,15.0,,,,0.0,4.0,1.0,2.0,4.0,4.0,58.33333199999999,,,,,,,,30.0,0.0,0.719138,0.117432,0.6618649999999999,0.176025,0.932631,-0.398932,-0.101564,-0.029838,-0.034165,-0.012376,,,,,,,,,,,,,,,,,,,,,,,,,,,,,,,,,,,,,,,,,,,,,,,,,,,,,,,,,,,,,,,,,
9876,1645901844.9877949,1645901845.024379,61.0,0.0,4099.487305,4458.974121,4289.743652,4154.871582,4173.846191,0.0,1.0,15.0,,,,0.0,4.0,1.0,2.0,4.0,4.0,58.33333199999999,,,,,,,,,,,,,,,,,,,,,,,,,,,,,,,,,,,,,,,,,,,,,,,,,,,,,,,,,,,,,,,,,,,,,,,,,,,,,,,,,,,,
9877,1645901844.99561,1645901845.032194,62.0,0.0,4100.512695,4466.153809,4214.358886999999,4157.436035,4151.282227000001,0.0,1.0,15.0,,,,0.0,4.0,1.0,2.0,4.0,4.0,58.33333199999999,,,,,,,,31.0,0.0,0.719362,0.117432,0.661621,0.176025,0.9209129999999999,-0.40381500000000004,-0.109865,-0.030077,-0.034166,-0.013384,,,,,,,,,,,,,,,,,,,,,,,,,,,,,,,,,,,0.0,0.0,1.0,0.0,512.0,0.830407,,,,,,,,,,,,,,,,,,,,,,,,,
9878,1645901845.003425,1645901845.040009,63.0,0.0,4154.871582,4454.871582,4135.384765999999,4075.384521,4151.794922,0.0,1.0,15.0,,,,0.0,4.0,1.0,2.0,4.0,4.0,58.33333199999999,,,,,,,,,,,,,,,,,,,,,,,,,,,,,,,,,,,,,,,,,,,,,,,,,,,,,,,,,,,,,,,,,,,,,,,,,,,,,,,,,,,,
9879,1645901845.01124,1645901845.047823,64.0,0.0,4143.077147999999,4502.05127,4227.692383,4087.179443,4174.871582,450.0,1.0,15.0,,,,0.0,4.0,1.0,2.0,4.0,4.0,58.33333199999999,,,,,,,,32.0,0.0,0.719362,0.117432,0.661621,0.176025,0.9126120000000001,-0.41455699999999995,-0.097169,-0.030195,-0.034216,-0.011167,,,,,,,,,,,,,,,,,,,,,,,,,,,,,,,,,,,,,,,,,,,,,,,,,,,,,,,,,,,,,,,,,
9880,1645901845.0190551,1645901845.055638,65.0,0.0,4087.179443,4471.282227000001,4262.05127,4192.820313,4138.461426,450.0,1.0,15.0,,,,0.0,4.0,1.0,2.0,4.0,4.0,58.33333199999999,,,,,,,,,,,,,,,,,,,,,,,,,,,,,,,,,,,,,,,,,,,,,,,,,,,,,,,,,,,,,,,,,,,,,,,,,,,,,,,,,,,,
9881,1645901845.02687,1645901845.0633528,66.0,0.0,4126.153809,4391.794922,4174.871582,4212.820313,4134.358886999999,16198.0,1.0,15.0,,,,0.0,4.0,2.0,0.0,4.0,4.0,50.0,,,,,,,,33.0,0.0,0.719422,0.117432,0.661621,0.175781,0.9184709999999999,-0.391608,-0.107912,-0.030349,-0.034213,-0.012394,,,,,,,,,,,,,,,,,,,,,,,,,,,,,,,,,,,0.0,0.0,1.0,0.0,512.0,0.830407,,,,,,,,,,,,,,,,,,,,,,,,,
9882,1645901845.034685,1645901845.071167,67.0,0.0,4140.512695,4390.256348,4217.436035,4157.94873,4184.102539,450.0,1.0,15.0,,,,0.0,4.0,2.0,0.0,4.0,4.0,50.0,,,,,,,,,,,,,,,,,,,,,,,,,,,,,,,,,,,,,,,,,,,,,,,,,,,,,,,,,,,,,,,,,,,,,,,,,,,,,,,,,,,,
9883,1645901845.042501,1645901845.078982,68.0,0.0,4098.974121,4357.436035,4303.589844,4187.692383,4175.897461,220.0,1.0,15.0,,,,0.0,4.0,2.0,0.0,4.0,4.0,50.0,,,,,,,,34.0,0.0,0.719422,0.117432,0.661621,0.175781,0.9116350000000001,-0.397467,-0.09765800000000001,-0.030537,-0.034210000000000004,-0.010325,,,,,,,,,,,,,,,,,,,,,,,,,,,,,,,,,,,,,,,,,,,,,,,,,,,,,,,,,,,,,,,,,
9884,1645901845.050316,1645901845.086797,69.0,0.0,4132.307617,4294.358886999999,4199.487305,4211.794922,4131.794922,450.0,1.0,15.0,,,,0.0,4.0,2.0,0.0,4.0,4.0,50.0,,,,,,,,,,,,,,,,,,,,,,,,,,,,,,,,,,,,,,,,,,,,,,,,,,,,,,,,,,,,,,,,,,,,,,,,,,,,,,,,,,,,
9885,1645901845.058131,1645901845.094611,70.0,0.0,4182.563965,4352.820313,4184.102539,4162.563965,4160.512695,0.0,1.0,15.0,,,,0.0,4.0,2.0,0.0,4.0,4.0,50.0,,,,,,,,35.0,0.0,0.719422,0.117432,0.661621,0.175781,0.9087049999999999,-0.399908,-0.101564,-0.030657,-0.034207,-0.011587,1.0,0.0,0.0,,,,,,,,,,,,,,,,,,,,,,,,,,,,,,,,0.0,0.0,1.0,0.0,512.0,0.513943,1340.342041,54.550934,12.833246,5.0968480000000005,2.261348,245.20573399999998,41.573437,96.725105,32.817840999999994,30.369996999999998,25.464098,25.257065,5.836698,6.208105000000001,4.056433,811.113342,195.196274,27.732978999999997,25.122519,14.107885000000001,457.997101,31.561846000000003,4.976542,3.0609900000000003,1.5579020000000001
9886,1645901845.065946,1645901845.102426,71.0,0.0,4149.230957,4405.641113000001,4277.436035,4150.769043,4194.871582,450.0,1.0,15.0,,,,0.0,4.0,2.0,0.0,4.0,4.0,50.0,,,,,,,,,,,,,,,,,,,,,,,,,,,,,,,,,,,,,,,,,,,,,,,,,,,,,,,,,,,,,,,,,,,,,,,,,,,,,,,,,,,,
9887,1645901845.073761,1645901845.110241,72.0,0.0,4128.205078,4428.205078,4280.512695,4181.025879,4174.358886999999,450.0,1.0,15.0,,,,0.0,4.0,2.0,0.0,4.0,4.0,50.0,,,,,,,,36.0,0.0,0.719422,0.117432,0.661621,0.175781,0.914565,-0.406256,-0.083986,-0.030716000000000004,-0.034204000000000005,-0.009647,,,,,,,,,,,,,,,,,,,,,,,,,,,,,,,,,,,,,,,,,,,,,,,,,,,,,,,,,,,,,,,,,
9888,1645901845.0815759,1645901845.118055,73.0,0.0,4149.230957,4464.615234000001,4229.230957,4180.0,4162.563965,16167.0,1.0,15.0,,,,0.0,4.0,2.0,0.0,4.0,4.0,50.0,,,,,,,,,,,,,,,,,,,,,,,,,,,,,,,,,,,,,,,,,,,,,,,,,,,,,,,,,,,,,,,,,,,,,,,,,,,,,,,,,,,,
9889,1645901845.089392,1645901845.12587,74.0,0.0,4152.820313,4455.897461,4244.102539,4171.282227000001,4169.230957,450.0,1.0,15.0,,,,0.0,4.0,2.0,0.0,4.0,4.0,50.0,,,,,,,,37.0,0.0,0.719422,0.117432,0.661621,0.175781,0.9160299999999999,-0.40235,-0.098146,-0.030867000000000002,-0.034104,-0.011075,,,,,,,,,,,,,,,,,,,,,,,,,,,,,,,,,,,0.0,0.0,1.0,0.0,512.0,0.513943,,,,,,,,,,,,,,,,,,,,,,,,,
9890,1645901845.097207,1645901845.133784,75.0,0.0,4166.666504,4402.563965,4184.102539,4159.487305,4186.666504,16206.0,1.0,15.0,,,,0.0,4.0,2.0,0.0,4.0,4.0,50.0,,,,,,,,,,,,,,,,,,,,,,,,,,,,,,,,,,,,,,,,,,,,,,,,,,,,,,,,,,,,,,,,,,,,,,,,,,,,,,,,,,,,
9891,1645901845.105022,1645901845.141599,76.0,0.0,4165.641113000001,4381.025879,4194.358886999999,4163.589844,4212.307617,450.0,1.0,15.0,,,,0.0,4.0,2.0,0.0,4.0,4.0,50.0,,,,,,,,38.0,0.0,0.7194619999999999,0.11718800000000001,0.661621,0.175781,0.922377,-0.41406899999999996,-0.107424,-0.030906,-0.034112,-0.012311,,,,,,,,,,,,,,,,,,,,,,,,,,,,,,,,,,,,,,,,,,,,,,,,,,,,,,,,,,,,,,,,,
9892,1645901845.1128368,1645901845.149414,77.0,0.0,4169.230957,4416.922852000001,4250.256348,4206.153809,4211.794922,450.0,1.0,15.0,,,,0.0,4.0,2.0,0.0,4.0,4.0,50.0,,,,,,,,,,,,,,,,,,,,,,,,,,,,,,,,,,,,,,,,,,,,,,,,,,,,,,,,,,,,,,,,,,,,,,,,,,,,,,,,,,,,
9893,1645901845.120652,1645901845.157228,78.0,0.0,4210.769043,4424.102539,4233.333496,4188.205078,4195.897461,450.0,1.0,15.0,,,,0.0,4.0,2.0,0.0,4.0,4.0,50.0,,,,,,,,39.0,0.0,0.719422,0.117432,0.661621,0.175781,0.9131,-0.409186,-0.10009900000000001,-0.031087,-0.034167,-0.010152,,,,,,,,,,,,,,,,,,,,,,,,,,,,,,,,,,,0.0,0.0,1.0,0.0,512.0,0.513943,,,,,,,,,,,,,,,,,,,,,,,,,
9894,1645901845.128468,1645901845.1650429,79.0,0.0,4222.05127,4391.282227000001,4214.358886999999,4150.256348,4209.230957,16206.0,1.0,15.0,,,,0.0,4.0,2.0,0.0,4.0,4.0,50.0,,,,,,,,,,,,,,,,,,,,,,,,,,,,,,,,,,,,,,,,,,,,,,,,,,,,,,,,,,,,,,,,,,,,,,,,,,,,,,,,,,,,
9895,1645901845.136283,1645901845.172858,80.0,0.0,4172.820313,4352.820313,4247.179688,4188.717772999999,4183.589844,450.0,1.0,15.0,,,,0.0,4.0,2.0,0.0,4.0,4.0,50.0,,,,,,,,40.0,0.0,0.719482,0.117432,0.661621,0.175537,0.9209129999999999,-0.395514,-0.1084,-0.028027,-0.034217000000000004,-0.011481,,,,,,,,,,,,,,,,,,,,,,,,,,,,,,,,,,,,,,,,,,,,,,,,,,,,,,,,,,,,,,,,,
9896,1645901845.144098,1645901845.1806722,81.0,0.0,4182.05127,4392.307617,4236.922852000001,4204.102539,4180.0,450.0,1.0,15.0,,,,0.0,4.0,2.0,0.0,4.0,4.0,50.0,,,,,,,,,,,,,,,,,,,,,,,,,,,,,,,,,,,,,,,,,,,,,,,,,,,,,,,,,,,,,,,,,,,,,,,,,,,,,,,,,,,,
9897,1645901845.1519132,1645901845.1884868,82.0,0.0,4198.974121,4456.410156,4231.794922,4156.410156,4225.128418,450.0,1.0,15.0,,,,0.0,4.0,2.0,0.0,4.0,4.0,50.0,,,,,,,,41.0,0.0,0.719482,0.117432,0.661621,0.175537,0.9282370000000001,-0.39649,-0.10693499999999999,-0.028398000000000003,-0.034116,-0.012725,,,,,,,,,,,,,,,,,,,,,,,,,,,,,,,,,,,0.0,0.0,1.0,0.0,512.0,0.513943,,,,,,,,,,,,,,,,,,,,,,,,,
9898,1645901845.1597278,1645901845.196302,83.0,0.0,4187.692383,4441.538574,4212.307617,4179.487305,4228.205078,16206.0,1.0,15.0,,,,0.0,4.0,2.0,0.0,4.0,4.0,50.0,,,,,,,,,,,,,,,,,,,,,,,,,,,,,,,,,,,,,,,,,,,,,,,,,,,,,,,,,,,,,,,,,,,,,,,,,,,,,,,,,,,,
9899,1645901845.167544,1645901845.204216,84.0,0.0,4190.256348,4437.436035,4205.641113000001,4193.846191,4190.256348,450.0,1.0,15.0,,,,0.0,4.0,2.0,0.0,4.0,4.0,50.0,,,,,,,,42.0,0.0,0.719422,0.117432,0.661621,0.175781,0.9131,-0.409186,-0.10009900000000001,-0.028781,-0.033976,-0.010672,,,,,,,,,,,,,,,,,,,,,,,,,,,,,,,,,,,,,,,,,,,,,,,,,,,,,,,,,,,,,,,,,
9900,1645901845.175359,1645901845.2120311,85.0,0.0,4201.025879,4461.025879,4276.922852000001,4172.307617,4197.94873,450.0,1.0,15.0,,,,0.0,4.0,2.0,0.0,4.0,4.0,50.0,,,,,,,,,,,,,,,,,,,,,,,,,,,,,,,,,,,,,,,,,,,,,,,,,,,,,,,,,,,,,,,,,,,,,,,,,,,,,,,,,,,,
9901,1645901845.1831741,1645901845.2198448,86.0,0.0,4201.025879,4446.153809,4244.102539,4185.641113000001,4201.538574,450.0,1.0,15.0,,,,0.0,4.0,2.0,0.0,4.0,4.0,50.0,1.0,8.333333,1.0,0.0,0.0,1.0,3.0,43.0,0.0,0.719482,0.117432,0.661621,0.175537,0.9282370000000001,-0.39649,-0.10693499999999999,-0.029077,-0.033899,-0.011997,1.0,0.0,0.0,,,,,,,,,,,,,,,,,,,,,,,,,,,,,,,,0.0,0.0,1.0,0.0,512.0,0.773065,1688.120972,68.621605,15.872656,6.5686990000000005,2.6625650000000003,290.250183,43.602257,130.812759,40.664394,32.632214000000005,20.499495,22.491484,6.041043,6.147566,4.402169000000001,954.203369,227.90660099999997,31.549774,28.198984000000003,15.296301999999999,580.405945,40.901569,6.5768949999999995,3.4321080000000004,1.903268
9902,1645901845.190989,1645901845.22766,87.0,0.0,4204.615234000001,4391.794922,4228.717772999999,4186.153809,4184.615234000001,16206.0,1.0,15.0,,,,0.0,4.0,2.0,0.0,4.0,4.0,50.0,,,,,,,,,,,,,,,,,,,,,,,,,,,,,,,,,,,,,,,,,,,,,,,,,,,,,,,,,,,,,,,,,,,,,,,,,,,,,,,,,,,,
9903,1645901845.198804,1645901845.235475,88.0,0.0,4203.077147999999,4348.717772999999,4292.307617,4151.282227000001,4206.666504,450.0,1.0,15.0,,,,0.0,4.0,2.0,0.0,4.0,4.0,50.0,,,,,,,,44.0,0.0,0.719482,0.117432,0.661621,0.175537,0.9087049999999999,-0.406256,-0.100587,-0.026218,-0.033927,-0.01319,,,,,,,,,,,,,,,,,,,,,,,,,,,,,,,,,,,,,,,,,,,,,,,,,,,,,,,,,,,,,,,,,
9904,1645901845.206619,1645901845.243289,89.0,0.0,4187.179688,4326.666504,4302.563965,4153.846191,4223.589844,450.0,1.0,15.0,,,,0.0,4.0,2.0,0.0,4.0,4.0,50.0,,,,,,,,,,,,,,,,,,,,,,,,,,,,,,,,,,,,,,,,,,,,,,,,,,,,,,,,,,,,,,,,,,,,,,,,,,,,,,,,,,,,
9905,1645901845.2144349,1645901845.2511039,90.0,0.0,4197.436035,4316.410156,4248.717772999999,4181.025879,4201.538574,450.0,1.0,15.0,,,,0.0,4.0,2.0,0.0,4.0,4.0,50.0,,,,,,,,45.0,0.0,0.719422,0.117432,0.661621,0.175781,0.918959,-0.400885,-0.096193,-0.026623,-0.033902999999999996,-0.011139,,,,,,,,,,,,,,,,,,,,,,,,,,,,,,,,,,,0.0,0.0,1.0,0.0,512.0,0.773065,,,,,,,,,,,,,,,,,,,,,,,,,
9906,1645901845.22225,1645901845.258919,91.0,0.0,4209.743652,4353.846191,4264.102539,4187.179688,4187.179688,16206.0,1.0,15.0,,,,0.0,4.0,2.0,0.0,4.0,4.0,50.0,,,,,,,,,,,,,,,,,,,,,,,,,,,,,,,,,,,,,,,,,,,,,,,,,,,,,,,,,,,,,,,,,,,,,,,,,,,,,,,,,,,,
9907,1645901845.230065,1645901845.266733,92.0,0.0,4196.922852000001,4415.384765999999,4236.922852000001,4195.897461,4205.128418,450.0,1.0,15.0,,,,0.0,4.0,2.0,0.0,4.0,4.0,50.0,,,,,,,,46.0,0.0,0.719422,0.117432,0.661621,0.175781,0.923842,-0.407721,-0.09131,-0.027183999999999996,-0.033832999999999995,-0.012417000000000001,,,,,,,,,,,,,,,,,,,,,,,,,,,,,,,,,,,,,,,,,,,,,,,,,,,,,,,,,,,,,,,,,
9908,1645901845.23788,1645901845.274548,93.0,0.0,4179.487305,4424.102539,4222.05127,4197.436035,4195.384765999999,450.0,1.0,15.0,,,,0.0,4.0,2.0,0.0,4.0,4.0,50.0,,,,,,,,,,,,,,,,,,,,,,,,,,,,,,,,,,,,,,,,,,,,,,,,,,,,,,,,,,,,,,,,,,,,,,,,,,,,,,,,,,,,
9909,1645901845.2456949,1645901845.282263,94.0,0.0,4196.922852000001,4437.436035,4214.358886999999,4170.256348,4196.410156,450.0,1.0,15.0,,,,0.0,4.0,2.0,0.0,4.0,4.0,50.0,,,,,,,,47.0,0.0,0.719422,0.117432,0.661621,0.175781,0.932631,-0.407233,-0.095705,-0.027638999999999997,-0.033966,-0.013471,,,,,,,,,,,,,,,,,,,,,,,,,,,,,,,,,,,0.0,0.0,1.0,0.0,512.0,0.773065,,,,,,,,,,,,,,,,,,,,,,,,,
9910,1645901845.25351,1645901845.290077,95.0,0.0,4198.974121,4479.487305,4220.512695,4131.794922,4223.077147999999,16206.0,1.0,15.0,,,,0.0,4.0,2.0,0.0,4.0,4.0,50.0,,,,,,,,,,,,,,,,,,,,,,,,,,,,,,,,,,,,,,,,,,,,,,,,,,,,,,,,,,,,,,,,,,,,,,,,,,,,,,,,,,,,
9911,1645901845.261325,1645901845.297892,96.0,0.0,4196.922852000001,4491.794922,4207.692383,4126.153809,4226.153809,450.0,1.0,15.0,,,,0.0,4.0,2.0,0.0,4.0,4.0,50.0,,,,,,,,48.0,0.0,0.719422,0.117432,0.661621,0.175781,0.9184709999999999,-0.408698,-0.092775,-0.028049,-0.033987,-0.014516,,,,,,,,,,,,,,,,,,,,,,,,,,,,,,,,,,,,,,,,,,,,,,,,,,,,,,,,,,,,,,,,,
9912,1645901845.269141,1645901845.305707,97.0,0.0,4210.256348,4467.692383,4208.717772999999,4124.615234000001,4191.282227000001,450.0,1.0,15.0,,,,0.0,4.0,2.0,0.0,4.0,4.0,50.0,,,,,,,,,,,,,,,,,,,,,,,,,,,,,,,,,,,,,,,,,,,,,,,,,,,,,,,,,,,,,,,,,,,,,,,,,,,,,,,,,,,,
9913,1645901845.276956,1645901845.3135211,98.0,0.0,4222.563965,4446.666504,4243.589844,4115.897461,4186.153809,450.0,1.0,15.0,,,,0.0,4.0,2.0,0.0,4.0,4.0,50.0,,,,,,,,49.0,0.0,0.719422,0.117432,0.661621,0.175781,0.920424,-0.41651000000000005,-0.092775,-0.028516000000000003,-0.033957999999999995,-0.012381,,,,,,,,,,,,,,,,,,,,,,,,,,,,,,,,,,,0.0,0.0,1.0,0.0,512.0,0.773065,,,,,,,,,,,,,,,,,,,,,,,,,
9914,1645901845.2847712,1645901845.321336,99.0,0.0,4213.846191,4433.846191,4249.230957,4126.666504,4185.641113000001,16206.0,1.0,15.0,,,,0.0,4.0,2.0,0.0,4.0,4.0,50.0,,,,,,,,,,,,,,,,,,,,,,,,,,,,,,,,,,,,,,,,,,,,,,,,,,,,,,,,,,,,,,,,,,,,,,,,,,,,,,,,,,,,
9915,1645901845.2925858,1645901845.32915,100.0,0.0,4206.666504,4421.538574,4233.333496,4171.794922,4191.794922,450.0,1.0,15.0,,,,0.0,4.0,2.0,0.0,4.0,4.0,50.0,,,,,,,,50.0,0.0,0.719422,0.117432,0.661621,0.175781,0.9306780000000001,-0.394049,-0.10498199999999999,-0.028887,-0.033832999999999995,-0.013487,,,,,,,,,,,,,,,,,,,,,,,,,,,,,,,,,,,,,,,,,,,,,,,,,,,,,,,,,,,,,,,,,
9916,1645901845.300401,1645901845.336965,101.0,0.0,4184.102539,4403.589844,4237.436035,4197.436035,4202.563965,450.0,1.0,15.0,,,,0.0,4.0,2.0,0.0,4.0,4.0,50.0,,,,,,,,,,,,,,,,,,,,,,,,,,,,,,,,,,,,,,,,,,,,,,,,,,,,,,,,,,,,,,,,,,,,,,,,,,,,,,,,,,,,
9917,1645901845.308216,1645901845.34478,102.0,0.0,4190.769043,4363.077147999999,4260.0,4194.358886999999,4204.102539,450.0,1.0,15.0,,,,0.0,4.0,2.0,0.0,4.0,4.0,50.0,,,,,,,,51.0,0.0,0.719422,0.117432,0.661621,0.175781,0.9184709999999999,-0.408698,-0.11230599999999999,-0.029172000000000003,-0.033868,-0.014531,1.0,0.0,0.0,,,,,,,,,,,,,,,,,,,,,,,,,,,,,,,,0.0,0.0,1.0,0.0,512.0,0.611982,1925.714722,78.992012,18.348253,7.926322,3.2025330000000003,315.298157,42.621082,154.646973,46.638535,34.111126,16.974283,20.99288,6.040743,5.653498,5.424119,962.43396,227.94635,31.330378999999997,28.521732,14.686681,663.504089,48.340263,7.962535000000001,3.671845,2.352114
9918,1645901845.316032,1645901845.352694,103.0,0.0,4235.384765999999,4341.538574,4233.846191,4158.461426,4220.0,16206.0,1.0,15.0,,,,0.0,4.0,2.0,0.0,4.0,4.0,50.0,,,,,,,,,,,,,,,,,,,,,,,,,,,,,,,,,,,,,,,,,,,,,,,,,,,,,,,,,,,,,,,,,,,,,,,,,,,,,,,,,,,,
9919,1645901845.323847,1645901845.360509,104.0,0.0,4230.256348,4392.307617,4246.153809,4143.589844,4239.487305,450.0,1.0,15.0,,,,0.0,4.0,2.0,0.0,4.0,4.0,50.0,,,,,,,,52.0,0.0,0.719522,0.11718800000000001,0.661621,0.175537,0.922377,-0.401862,-0.10254100000000001,-0.029429000000000004,-0.033899,-0.01547,,,,,,,,,,,,,,,,,,,,,,,,,,,,,,,,,,,,,,,,,,,,,,,,,,,,,,,,,,,,,,,,,
9920,1645901845.331662,1645901845.368324,105.0,0.0,4207.692383,4418.461426,4220.512695,4169.743652,4226.153809,450.0,1.0,15.0,,,,0.0,4.0,2.0,0.0,4.0,4.0,50.0,,,,,,,,,,,,,,,,,,,,,,,,,,,,,,,,,,,,,,,,,,,,,,,,,,,,,,,,,,,,,,,,,,,,,,,,,,,,,,,,,,,,
9921,1645901845.339477,1645901845.376138,106.0,0.0,4222.05127,4420.0,4232.307617,4171.794922,4203.589844,450.0,1.0,15.0,,,,0.0,4.0,2.0,0.0,4.0,4.0,50.0,,,,,,,,53.0,0.0,0.719522,0.11718800000000001,0.661621,0.175537,0.913588,-0.399908,-0.10693499999999999,-0.029757,-0.033879,-0.013142,,,,,,,,,,,,,,,,,,,,,,,,,,,,,,,,,,,0.0,0.0,1.0,0.0,512.0,0.611982,,,,,,,,,,,,,,,,,,,,,,,,,
9922,1645901845.347292,1645901845.3839529,107.0,0.0,4245.641113000001,4432.307617,4254.871582,4149.743652,4216.922852000001,16206.0,1.0,15.0,,,,0.0,4.0,2.0,0.0,4.0,4.0,50.0,,,,,,,,,,,,,,,,,,,,,,,,,,,,,,,,,,,,,,,,,,,,,,,,,,,,,,,,,,,,,,,,,,,,,,,,,,,,,,,,,,,,
9923,1645901845.355107,1645901845.391768,108.0,0.0,4238.974121,4439.487305,4276.922852000001,4152.820313,4222.05127,450.0,1.0,15.0,,,,0.0,4.0,2.0,0.0,4.0,4.0,50.0,,,,,,,,54.0,0.0,0.719581,0.11718800000000001,0.661621,0.175293,0.928725,-0.41260399999999997,-0.097169,-0.029907,-0.034006,-0.010948999999999999,,,,,,,,,,,,,,,,,,,,,,,,,,,,,,,,,,,,,,,,,,,,,,,,,,,,,,,,,,,,,,,,,
9924,1645901845.3629231,1645901845.3995821,109.0,0.0,4234.358886999999,4444.615234000001,4261.025879,4184.615234000001,4202.563965,450.0,1.0,15.0,,,,0.0,4.0,2.0,0.0,4.0,4.0,50.0,,,,,,,,,,,,,,,,,,,,,,,,,,,,,,,,,,,,,,,,,,,,,,,,,,,,,,,,,,,,,,,,,,,,,,,,,,,,,,,,,,,,
9925,1645901845.370738,1645901845.407397,110.0,0.0,4243.589844,4447.692383,4238.974121,4162.563965,4188.717772999999,450.0,1.0,15.0,,,,0.0,4.0,2.0,0.0,4.0,4.0,50.0,,,,,,,,55.0,0.0,0.719581,0.11718800000000001,0.661621,0.175293,0.929213,-0.40235,-0.097169,-0.030041,-0.034024,-0.0121,,,,,,,,,,,,,,,,,,,,,,,,,,,,,,,,,,,0.0,0.0,1.0,0.0,512.0,0.611982,,,,,,,,,,,,,,,,,,,,,,,,,
9926,1645901845.378553,1645901845.415211,111.0,0.0,4252.820313,4422.563965,4232.307617,4142.563965,4217.436035,16206.0,1.0,15.0,,,,0.0,4.0,2.0,0.0,4.0,4.0,50.0,,,,,,,,,,,,,,,,,,,,,,,,,,,,,,,,,,,,,,,,,,,,,,,,,,,,,,,,,,,,,,,,,,,,,,,,,,,,,,,,,,,,
9927,1645901845.386368,1645901845.423026,112.0,0.0,4244.102539,4396.410156,4236.410156,4181.025879,4224.102539,450.0,1.0,15.0,,,,0.0,4.0,2.0,0.0,4.0,4.0,50.0,,,,,,,,56.0,0.0,0.719396,0.116943,0.6618649999999999,0.175293,0.9131,-0.391608,-0.088869,-0.030211000000000002,-0.033991,-0.013136000000000002,,,,,,,,,,,,,,,,,,,,,,,,,,,,,,,,,,,,,,,,,,,,,,,,,,,,,,,,,,,,,,,,,
9928,1645901845.394183,1645901845.430741,113.0,0.0,4244.102539,4404.102539,4196.922852000001,4195.897461,4216.922852000001,450.0,1.0,15.0,,,,0.0,4.0,2.0,0.0,4.0,4.0,50.0,,,,,,,,,,,,,,,,,,,,,,,,,,,,,,,,,,,,,,,,,,,,,,,,,,,,,,,,,,,,,,,,,,,,,,,,,,,,,,,,,,,,
9929,1645901845.401999,1645901845.438556,114.0,0.0,4230.769043,4418.461426,4186.153809,4155.384765999999,4217.94873,450.0,1.0,15.0,,,,0.0,4.0,2.0,0.0,4.0,4.0,50.0,,,,,,,,57.0,0.0,0.7194560000000001,0.116943,0.6618649999999999,0.175049,0.926284,-0.391119,-0.09424,-0.030461000000000002,-0.033961,-0.011090000000000001,,,,,,,,,,,,,,,,,,,,,,,,,,,,,,,,,,,0.0,0.0,1.0,0.0,512.0,0.611982,,,,,,,,,,,,,,,,,,,,,,,,,
9930,1645901845.4098141,1645901845.44637,115.0,0.0,4226.153809,4501.538574,4220.0,4151.794922,4220.512695,16206.0,1.0,15.0,,,,0.0,4.0,2.0,0.0,4.0,4.0,50.0,,,,,,,,,,,,,,,,,,,,,,,,,,,,,,,,,,,,,,,,,,,,,,,,,,,,,,,,,,,,,,,,,,,,,,,,,,,,,,,,,,,,
9931,1645901845.417629,1645901845.454185,116.0,0.0,4223.589844,4564.615234000001,4190.769043,4166.666504,4214.358886999999,450.0,1.0,15.0,,,,0.0,4.0,2.0,0.0,4.0,4.0,50.0,,,,,,,,58.0,0.0,0.719436,0.116699,0.6618649999999999,0.175293,0.9355610000000001,-0.40576799999999996,-0.093263,-0.030638,-0.033836,-0.009249,,,,,,,,,,,,,,,,,,,,,,,,,,,,,,,,,,,,,,,,,,,,,,,,,,,,,,,,,,,,,,,,,
9932,1645901845.425444,1645901845.461999,117.0,0.0,4220.512695,4508.205078,4197.94873,4167.692383,4213.333496,450.0,1.0,15.0,,,,0.0,4.0,2.0,0.0,4.0,4.0,50.0,,,,,,,,,,,,,,,,,,,,,,,,,,,,,,,,,,,,,,,,,,,,,,,,,,,,,,,,,,,,,,,,,,,,,,,,,,,,,,,,,,,,
9933,1645901845.433259,1645901845.469814,118.0,0.0,4228.205078,4478.974121,4252.307617,4153.846191,4203.077147999999,450.0,1.0,15.0,,,,0.0,4.0,2.0,0.0,4.0,4.0,50.0,,,,,,,,59.0,0.0,0.719436,0.116699,0.6618649999999999,0.175293,0.925307,-0.40381500000000004,-0.092775,-0.030797,-0.033773000000000004,-0.010668,1.0,0.0,0.0,,,,,,,,,,,,,,,,,,,,,,,,,,,,,,,,0.0,0.0,1.0,0.0,512.0,0.747576,1992.639648,81.993332,19.459906,8.792624,3.871403,314.66449,38.820957,161.978668,49.61937,33.743759000000004,15.062935000000001,20.388481,5.757639,4.897348,7.2370600000000005,832.984863,195.388519,26.988125,26.113678,12.630169,684.8613889999999,51.307953000000005,8.655643,3.7580419999999997,2.9184349999999997
9934,1645901845.4410741,1645901845.477629,119.0,0.0,4233.333496,4512.820313,4268.205078,4142.563965,4209.743652,16206.0,1.0,15.0,,,,0.0,4.0,2.0,0.0,4.0,4.0,50.0,,,,,,,,,,,,,,,,,,,,,,,,,,,,,,,,,,,,,,,,,,,,,,,,,,,,,,,,,,,,,,,,,,,,,,,,,,,,,,,,,,,,
9935,1645901845.44889,1645901845.4854429,120.0,0.0,4225.641113000001,4521.025879,4249.743652,4138.461426,4225.128418,450.0,1.0,15.0,,,,0.0,4.0,2.0,0.0,4.0,4.0,50.0,,,,,,,,60.0,0.0,0.7192109999999999,0.116699,0.6621090000000001,0.175293,0.9233540000000001,-0.41113900000000003,-0.09424,-0.03094,-0.033764999999999996,-0.011993,,,,,,,,,,,,,,,,,,,,,,,,,,,,,,,,,,,,,,,,,,,,,,,,,,,,,,,,,,,,,,,,,
9936,1645901845.456705,1645901845.493258,121.0,0.0,4240.512695,4533.846191,4269.743652,4139.487305,4215.384765999999,450.0,1.0,15.0,,,,0.0,4.0,2.0,0.0,4.0,4.0,50.0,,,,,,,,,,,,,,,,,,,,,,,,,,,,,,,,,,,,,,,,,,,,,,,,,,,,,,,,,,,,,,,,,,,,,,,,,,,,,,,,,,,,
9937,1645901845.46452,1645901845.500973,122.0,0.0,4260.0,4516.410156,4240.0,4144.615234000001,4214.871582,450.0,1.0,15.0,,,,0.0,4.0,2.0,0.0,4.0,4.0,50.0,,,,,,,,61.0,0.0,0.7192109999999999,0.116699,0.6621090000000001,0.175293,0.9233540000000001,-0.411627,-0.09668099999999999,-0.03102,-0.033757999999999996,-0.013187,,,,,,,,,,,,,,,,,,,,,,,,,,,,,,,,,,,0.0,0.0,1.0,0.0,512.0,0.747576,,,,,,,,,,,,,,,,,,,,,,,,,
9938,1645901845.4723349,1645901845.508787,123.0,0.0,4236.410156,4465.128418,4257.436035,4175.897461,4229.230957,16206.0,1.0,15.0,,,,0.0,4.0,2.0,0.0,4.0,4.0,50.0,,,,,,,,,,,,,,,,,,,,,,,,,,,,,,,,,,,,,,,,,,,,,,,,,,,,,,,,,,,,,,,,,,,,,,,,,,,,,,,,,,,,
9939,1645901845.48015,1645901845.516602,124.0,0.0,4244.102539,4500.512695,4240.512695,4182.05127,4243.589844,450.0,1.0,15.0,,,,0.0,4.0,2.0,0.0,4.0,4.0,50.0,,,,,,,,62.0,0.0,0.719172,0.116943,0.6621090000000001,0.175293,0.917006,-0.410163,-0.088869,-0.031092,-0.033750999999999996,-0.011087,,,,,,,,,,,,,,,,,,,,,,,,,,,,,,,,,,,,,,,,,,,,,,,,,,,,,,,,,,,,,,,,,
9940,1645901845.487965,1645901845.524417,125.0,0.0,4254.358886999999,4530.256348,4232.820313,4137.94873,4237.94873,450.0,1.0,15.0,,,,0.0,4.0,2.0,0.0,4.0,4.0,50.0,,,,,,,,,,,,,,,,,,,,,,,,,,,,,,,,,,,,,,,,,,,,,,,,,,,,,,,,,,,,,,,,,,,,,,,,,,,,,,,,,,,,
9941,1645901845.495781,1645901845.532231,126.0,0.0,4252.307617,4424.615234000001,4237.436035,4134.358886999999,4226.153809,450.0,1.0,15.0,,,,0.0,4.0,2.0,0.0,4.0,4.0,50.0,,,,,,,,63.0,0.0,0.719172,0.116943,0.6621090000000001,0.175293,0.9199360000000001,-0.397955,-0.10009900000000001,-0.031156,-0.033843,-0.012175,,,,,,,,,,,,,,,,,,,,,,,,,,,,,,,,,,,0.0,0.0,1.0,0.0,512.0,0.747576,,,,,,,,,,,,,,,,,,,,,,,,,
9942,1645901845.503596,1645901845.540046,127.0,0.0,4274.871582,4380.0,4241.538574,4146.153809,4223.589844,232.0,1.0,15.0,,,,0.0,4.0,2.0,0.0,4.0,4.0,50.0,,,,,,,,,,,,,,,,,,,,,,,,,,,,,,,,,,,,,,,,,,,,,,,,,,,,,,,,,,,,,,,,,,,,,,,,,,,,,,,,,,,,
9943,1645901845.511411,1645901845.5478609,0.0,0.0,4287.179688,4408.717772999999,4214.358886999999,4150.769043,4237.436035,450.0,1.0,15.0,,,,0.0,4.0,2.0,0.0,4.0,4.0,50.0,,,,,,,,0.0,0.0,0.719172,0.116943,0.6621090000000001,0.175293,0.917983,-0.415534,-0.08691499999999999,-0.031263,-0.033875999999999996,-0.013253000000000001,,,,,,,,,,,,,,,,,,,,,,,,,,,,,,,,,,,,,,,,,,,,,,,,,,,,,,,,,,,,,,,,,
9944,1645901845.519226,1645901845.555675,1.0,0.0,4250.769043,4378.461426,4231.794922,4164.102539,4228.205078,450.0,1.0,15.0,,,,0.0,4.0,2.0,0.0,4.0,4.0,50.0,,,,,,,,,,,,,,,,,,,,,,,,,,,,,,,,,,,,,,,,,,,,,,,,,,,,,,,,,,,,,,,,,,,,,,,,,,,,,,,,,,,,
9945,1645901845.527041,1645901845.5634902,2.0,0.0,4245.128418,4418.974121,4259.487305,4188.717772999999,4232.820313,16165.0,1.0,15.0,,,,0.0,4.0,2.0,0.0,4.0,4.0,50.0,,,,,,,,1.0,0.0,0.7192310000000001,0.116943,0.6621090000000001,0.175049,0.9248190000000001,-0.41944,-0.10547000000000001,-0.031409,-0.033858,-0.014222,,,,,,,,,,,,,,,,,,,,,,,,,,,,,,,,,,,0.0,0.0,1.0,0.0,512.0,0.747576,,,,,,,,,,,,,,,,,,,,,,,,,
9946,1645901845.534856,1645901845.5714052,3.0,0.0,4262.05127,4497.436035,4173.333496,4195.897461,4233.846191,450.0,1.0,15.0,,,,0.0,4.0,2.0,4.0,4.0,4.0,83.333336,,,,,,,,,,,,,,,,,,,,,,,,,,,,,,,,,,,,,,,,,,,,,,,,,,,,,,,,,,,,,,,,,,,,,,,,,,,,,,,,,,,,
9947,1645901845.5426722,1645901845.5792189,4.0,0.0,4266.153809,4487.179688,4158.461426,4186.153809,4227.692383,218.0,1.0,15.0,,,,0.0,4.0,2.0,4.0,4.0,4.0,83.333336,,,,,,,,2.0,0.0,0.7192310000000001,0.116943,0.6621090000000001,0.175049,0.913588,-0.417487,-0.101564,-0.031442000000000005,-0.033939,-0.014998,,,,,,,,,,,,,,,,,,,,,,,,,,,,,,,,,,,,,,,,,,,,,,,,,,,,,,,,,,,,,,,,,
9948,1645901845.5504868,1645901845.587034,5.0,0.0,4252.820313,4463.589844,4240.512695,4155.897461,4236.410156,450.0,1.0,15.0,,,,0.0,4.0,2.0,4.0,4.0,4.0,83.333336,,,,,,,,,,,,,,,,,,,,,,,,,,,,,,,,,,,,,,,,,,,,,,,,,,,,,,,,,,,,,,,,,,,,,,,,,,,,,,,,,,,,
9949,1645901845.558302,1645901845.5948482,6.0,0.0,4243.589844,4474.358886999999,4288.205078,4147.179688,4248.717772999999,16240.0,1.0,15.0,,,,0.0,4.0,2.0,4.0,4.0,4.0,83.333336,,,,,,,,3.0,0.0,0.719271,0.116699,0.6621090000000001,0.175049,0.918959,-0.401862,-0.11133,-0.031471,-0.033817,-0.015939,1.0,0.0,0.0,,,,,,,,,,,,,,,,,,,,,,,,,,,,,,,,0.0,0.0,1.0,0.0,512.0,0.7634310000000001,1856.6307370000002,75.915817,18.676765,8.878464,4.5742199999999995,287.102509,34.418625,152.24649,49.08876,30.885047999999998,14.560661999999999,20.048693,5.287116999999999,4.129323,9.579718,612.252258,142.12799099999998,20.108725,21.867736999999998,9.955304,634.309875,48.384009999999996,8.362341,3.705606,3.548264
9950,1645901845.566117,1645901845.602663,7.0,0.0,4250.769043,4442.05127,4246.153809,4152.820313,4223.589844,450.0,1.0,15.0,,,,0.0,4.0,2.0,4.0,4.0,4.0,83.333336,,,,,,,,,,,,,,,,,,,,,,,,,,,,,,,,,,,,,,,,,,,,,,,,,,,,,,,,,,,,,,,,,,,,,,,,,,,,,,,,,,,,
9951,1645901845.573932,1645901845.610478,8.0,0.0,4258.974121,4495.384765999999,4226.153809,4134.358886999999,4196.922852000001,450.0,1.0,15.0,,,,0.0,4.0,2.0,4.0,4.0,4.0,83.333336,,,,,,,,4.0,0.0,0.7192310000000001,0.116943,0.6621090000000001,0.175049,0.9155409999999999,-0.412116,-0.104005,-0.028373000000000002,-0.033804,-0.016590999999999998,,,,,,,,,,,,,,,,,,,,,,,,,,,,,,,,,,,,,,,,,,,,,,,,,,,,,,,,,,,,,,,,,
9952,1645901845.581747,1645901845.618292,9.0,0.0,4254.871582,4573.846191,4245.641113000001,4133.333496,4218.974121,16241.0,1.0,15.0,,,,0.0,4.0,2.0,4.0,4.0,4.0,83.333336,,,,,,,,,,,,,,,,,,,,,,,,,,,,,,,,,,,,,,,,,,,,,,,,,,,,,,,,,,,,,,,,,,,,,,,,,,,,,,,,,,,,
9953,1645901845.5895631,1645901845.626107,10.0,0.0,4255.384765999999,4504.102539,4261.538574,4167.179688,4243.589844,450.0,1.0,15.0,,,,0.0,4.0,2.0,4.0,4.0,4.0,83.333336,,,,,,,,5.0,0.0,0.71929,0.116943,0.6621090000000001,0.174805,0.9043110000000001,-0.410163,-0.085451,-0.028758,-0.033891000000000004,-0.017227000000000003,,,,,,,,,,,,,,,,,,,,,,,,,,,,,,,,,,,0.0,0.0,1.0,0.0,512.0,0.7634310000000001,,,,,,,,,,,,,,,,,,,,,,,,,
9954,1645901845.597378,1645901845.633922,11.0,0.0,4256.410156,4469.230957,4236.922852000001,4157.436035,4256.922852000001,16219.0,1.0,15.0,,,,0.0,4.0,2.0,4.0,4.0,4.0,83.333336,,,,,,,,,,,,,,,,,,,,,,,,,,,,,,,,,,,,,,,,,,,,,,,,,,,,,,,,,,,,,,,,,,,,,,,,,,,,,,,,,,,,
9955,1645901845.605193,1645901845.641736,12.0,0.0,4240.0,4512.820313,4265.641113000001,4133.333496,4246.153809,450.0,1.0,15.0,,,,0.0,4.0,2.0,4.0,4.0,4.0,83.333336,,,,,,,,6.0,0.0,0.719271,0.116699,0.6621090000000001,0.175049,0.918959,-0.401862,-0.11133,-0.029008,-0.033968,-0.01487,,,,,,,,,,,,,,,,,,,,,,,,,,,,,,,,,,,,,,,,,,,,,,,,,,,,,,,,,,,,,,,,,
9956,1645901845.613008,1645901845.649451,13.0,0.0,4256.922852000001,4517.436035,4231.282227000001,4151.794922,4246.666504,450.0,1.0,15.0,,,,0.0,4.0,2.0,4.0,4.0,4.0,83.333336,,,,,,,,,,,,,,,,,,,,,,,,,,,,,,,,,,,,,,,,,,,,,,,,,,,,,,,,,,,,,,,,,,,,,,,,,,,,,,,,,,,,
9957,1645901845.6208231,1645901845.657266,14.0,0.0,4261.538574,4491.794922,4216.922852000001,4158.461426,4245.128418,450.0,1.0,15.0,,,,0.0,4.0,2.0,4.0,4.0,4.0,83.333336,,,,,,,,7.0,0.0,0.71929,0.116943,0.6621090000000001,0.174805,0.9043110000000001,-0.410163,-0.085451,-0.029330000000000002,-0.034038,-0.015678,,,,,,,,,,,,,,,,,,,,,,,,,,,,,,,,,,,0.0,0.0,1.0,0.0,512.0,0.7634310000000001,,,,,,,,,,,,,,,,,,,,,,,,,
9958,1645901845.628638,1645901845.6649802,15.0,0.0,4272.307617,4492.820313,4205.641113000001,4139.487305,4246.666504,16219.0,1.0,15.0,,,,0.0,4.0,2.0,4.0,4.0,4.0,83.333336,,,,,,,,,,,,,,,,,,,,,,,,,,,,,,,,,,,,,,,,,,,,,,,,,,,,,,,,,,,,,,,,,,,,,,,,,,,,,,,,,,,,
9959,1645901845.6364539,1645901845.6727948,16.0,0.0,4288.205078,4481.025879,4190.256348,4124.615234000001,4263.077147999999,0.0,1.0,15.0,,,,0.0,4.0,2.0,4.0,4.0,4.0,83.333336,,,,,,,,8.0,0.0,0.71933,0.116699,0.6621090000000001,0.174805,0.904799,-0.39014299999999996,-0.10351700000000001,-0.029522000000000003,-0.034101,-0.013475,,,,,,,,,,,,,,,,,,,,,,,,,,,,,,,,,,,,,,,,,,,,,,,,,,,,,,,,,,,,,,,,,
9960,1645901845.644269,1645901845.68061,17.0,0.0,4290.256348,4411.794922,4184.615234000001,4141.538574,4270.769043,0.0,1.0,15.0,,,,0.0,4.0,2.0,4.0,4.0,4.0,83.333336,,,,,,,,,,,,,,,,,,,,,,,,,,,,,,,,,,,,,,,,,,,,,,,,,,,,,,,,,,,,,,,,,,,,,,,,,,,,,,,,,,,,
9961,1645901845.6520839,1645901845.688424,18.0,0.0,4290.769043,4379.487305,4205.128418,4140.512695,4257.436035,0.0,1.0,15.0,,,,0.0,4.0,2.0,4.0,4.0,4.0,83.333336,,,,,,,,9.0,0.0,0.719105,0.116699,0.662354,0.174805,0.9233540000000001,-0.392584,-0.10693499999999999,-0.029939,-0.03406,-0.014519999999999998,,,,,,,,,,,,,,,,,,,,,,,,,,,,,,,,,,,0.0,0.0,1.0,0.0,512.0,0.7634310000000001,,,,,,,,,,,,,,,,,,,,,,,,,
9962,1645901845.659899,1645901845.696239,19.0,0.0,4284.615234000001,4426.666504,4208.205078,4143.077147999999,4249.230957,0.0,1.0,15.0,,,,0.0,4.0,2.0,4.0,4.0,4.0,83.333336,,,,,,,,,,,,,,,,,,,,,,,,,,,,,,,,,,,,,,,,,,,,,,,,,,,,,,,,,,,,,,,,,,,,,,,,,,,,,,,,,,,,
9963,1645901845.667714,1645901845.7040539,20.0,0.0,4256.922852000001,4417.436035,4191.282227000001,4156.410156,4223.077147999999,0.0,1.0,15.0,,,,0.0,4.0,2.0,4.0,4.0,4.0,83.333336,,,,,,,,10.0,0.0,0.719145,0.11645499999999999,0.662354,0.174805,0.9126120000000001,-0.39697899999999997,-0.101076,-0.030119,-0.03417,-0.012287000000000001,,,,,,,,,,,,,,,,,,,,,,,,,,,,,,,,,,,,,,,,,,,,,,,,,,,,,,,,,,,,,,,,,
9964,1645901845.6755302,1645901845.711868,21.0,0.0,4259.487305,4384.102539,4245.641113000001,4177.436035,4208.205078,0.0,1.0,15.0,,,,0.0,4.0,2.0,4.0,4.0,4.0,83.333336,,,,,,,,,,,,,,,,,,,,,,,,,,,,,,,,,,,,,,,,,,,,,,,,,,,,,,,,,,,,,,,,,,,,,,,,,,,,,,,,,,,,
9965,1645901845.6833448,1645901845.719583,22.0,0.0,4274.871582,4420.0,4220.0,4176.410156,4220.512695,0.0,1.0,15.0,,,,0.0,4.0,2.0,4.0,4.0,4.0,83.333336,1.0,8.333333,1.0,0.0,0.0,1.0,3.0,11.0,0.0,0.719145,0.11645499999999999,0.662354,0.174805,0.9121229999999999,-0.398444,-0.09765800000000001,-0.030281,-0.034122,-0.0135,1.0,0.0,0.0,,,,,,,,,,,,,,,,,,,,,,,,,,,,,,,,0.0,0.0,1.0,0.0,512.0,0.8494860000000001,1547.389771,62.01710500000001,16.051497,8.12219,5.143743,239.516785,32.441795,130.162033,45.180698,25.789125,14.932047,19.517744,4.891787,3.540393,11.849378999999999,373.052643,86.079086,13.05578,17.121513,7.5463,523.953674,40.162025,7.156714999999999,3.545096,4.111708999999999
9966,1645901845.69116,1645901845.7273982,23.0,0.0,4253.333496,4410.769043,4225.641113000001,4149.743652,4220.0,0.0,1.0,15.0,,,,0.0,4.0,2.0,4.0,4.0,4.0,83.333336,,,,,,,,,,,,,,,,,,,,,,,,,,,,,,,,,,,,,,,,,,,,,,,,,,,,,,,,,,,,,,,,,,,,,,,,,,,,,,,,,,,,
9967,1645901845.698975,1645901845.7352118,24.0,0.0,4253.333496,4375.897461,4256.410156,4122.563965,4202.05127,0.0,1.0,15.0,,,,0.0,4.0,2.0,4.0,4.0,4.0,83.333336,,,,,,,,12.0,0.0,0.719204,0.11645499999999999,0.662354,0.174561,0.9355610000000001,-0.388678,-0.08838,-0.030427,-0.034128,-0.014494,,,,,,,,,,,,,,,,,,,,,,,,,,,,,,,,,,,,,,,,,,,,,,,,,,,,,,,,,,,,,,,,,
9968,1645901845.70679,1645901845.743027,25.0,0.0,4283.589844,4455.897461,4253.846191,4123.077147999999,4222.05127,0.0,1.0,15.0,,,,0.0,4.0,2.0,4.0,4.0,4.0,83.333336,,,,,,,,,,,,,,,,,,,,,,,,,,,,,,,,,,,,,,,,,,,,,,,,,,,,,,,,,,,,,,,,,,,,,,,,,,,,,,,,,,,,
9969,1645901845.714605,1645901845.750842,26.0,0.0,4289.230957,4447.692383,4241.538574,4157.94873,4243.077147999999,0.0,1.0,15.0,,,,0.0,4.0,2.0,4.0,4.0,4.0,83.333336,,,,,,,,13.0,0.0,0.719263,0.11645499999999999,0.662354,0.174316,0.937514,-0.395514,-0.10254100000000001,-0.030607,-0.033938,-0.012214000000000001,,,,,,,,,,,,,,,,,,,,,,,,,,,,,,,,,,,0.0,0.0,1.0,0.0,512.0,0.8494860000000001,,,,,,,,,,,,,,,,,,,,,,,,,
9970,1645901845.7224212,1645901845.758656,27.0,0.0,4279.487305,4305.128418,4267.692383,4166.153809,4238.974121,0.0,1.0,15.0,,,,0.0,4.0,2.0,4.0,4.0,4.0,83.333336,,,,,,,,,,,,,,,,,,,,,,,,,,,,,,,,,,,,,,,,,,,,,,,,,,,,,,,,,,,,,,,,,,,,,,,,,,,,,,,,,,,,
9971,1645901845.730236,1645901845.7664711,28.0,0.0,4264.615234000001,4316.922852000001,4227.179688,4164.615234000001,4248.205078,0.0,1.0,15.0,,,,0.0,4.0,2.0,4.0,4.0,4.0,83.333336,,,,,,,,14.0,0.0,0.7190380000000001,0.11645499999999999,0.6625979999999999,0.174316,0.934585,-0.40576799999999996,-0.103029,-0.030719999999999997,-0.033913,-0.013385,,,,,,,,,,,,,,,,,,,,,,,,,,,,,,,,,,,,,,,,,,,,,,,,,,,,,,,,,,,,,,,,,
9972,1645901845.738051,1645901845.774286,29.0,0.0,4242.563965,4478.461426,4201.538574,4170.256348,4234.871582,0.0,1.0,15.0,,,,0.0,4.0,2.0,4.0,4.0,4.0,83.333336,,,,,,,,,,,,,,,,,,,,,,,,,,,,,,,,,,,,,,,,,,,,,,,,,,,,,,,,,,,,,,,,,,,,,,,,,,,,,,,,,,,,
9973,1645901845.745866,1645901845.7821,30.0,0.0,4263.589844,4564.102539,4230.769043,4147.179688,4227.692383,0.0,1.0,15.0,,,,0.0,4.0,2.0,4.0,4.0,4.0,83.333336,,,,,,,,15.0,0.0,0.719019,0.116211,0.6625979999999999,0.174561,0.940932,-0.396002,-0.092287,-0.030773000000000002,-0.033891000000000004,-0.011363,,,,,,,,,,,,,,,,,,,,,,,,,,,,,,,,,,,0.0,0.0,1.0,0.0,512.0,0.8494860000000001,,,,,,,,,,,,,,,,,,,,,,,,,
9974,1645901845.753681,1645901845.790015,31.0,0.0,4301.538574,4533.846191,4245.128418,4130.769043,4242.05127,0.0,1.0,15.0,,,,0.0,4.0,2.0,4.0,4.0,4.0,83.333336,,,,,,,,,,,,,,,,,,,,,,,,,,,,,,,,,,,,,,,,,,,,,,,,,,,,,,,,,,,,,,,,,,,,,,,,,,,,,,,,,,,,
9975,1645901845.761496,1645901845.797829,32.0,0.0,4346.666504,4512.307617,4217.94873,4173.333496,4266.666504,0.0,1.0,15.0,,,,0.0,4.0,2.0,4.0,4.0,4.0,83.333336,,,,,,,,16.0,0.0,0.718979,0.11645499999999999,0.6625979999999999,0.174561,0.9160299999999999,-0.392584,-0.101564,-0.030918,-0.033822000000000005,-0.012522,,,,,,,,,,,,,,,,,,,,,,,,,,,,,,,,,,,,,,,,,,,,,,,,,,,,,,,,,,,,,,,,,
9976,1645901845.769312,1645901845.805644,33.0,0.0,4360.512695,4514.871582,4224.102539,4184.615234000001,4265.128418,0.0,1.0,15.0,,,,0.0,4.0,2.0,4.0,4.0,4.0,83.333336,,,,,,,,,,,,,,,,,,,,,,,,,,,,,,,,,,,,,,,,,,,,,,,,,,,,,,,,,,,,,,,,,,,,,,,,,,,,,,,,,,,,
9977,1645901845.777127,1645901845.813459,34.0,0.0,4358.974121,4489.743652,4224.615234000001,4151.282227000001,4276.922852000001,0.0,1.0,15.0,,,,0.0,4.0,2.0,4.0,4.0,4.0,83.333336,,,,,,,,17.0,0.0,0.718979,0.11645499999999999,0.6625979999999999,0.174561,0.9184709999999999,-0.406256,-0.102052,-0.030902999999999996,-0.033907,-0.010391,,,,,,,,,,,,,,,,,,,,,,,,,,,,,,,,,,,0.0,0.0,1.0,0.0,512.0,0.8494860000000001,,,,,,,,,,,,,,,,,,,,,,,,,
9978,1645901845.784942,1645901845.821273,35.0,0.0,4367.692383,4481.538574,4223.589844,4162.05127,4298.461426,0.0,1.0,15.0,,,,0.0,4.0,2.0,4.0,4.0,4.0,83.333336,,,,,,,,,,,,,,,,,,,,,,,,,,,,,,,,,,,,,,,,,,,,,,,,,,,,,,,,,,,,,,,,,,,,,,,,,,,,,,,,,,,,
9979,1645901845.792757,1645901845.829088,36.0,0.0,4383.589844,4545.128418,4236.922852000001,4201.025879,4288.717772999999,0.0,1.0,15.0,,,,0.0,4.0,2.0,4.0,4.0,4.0,83.333336,,,,,,,,18.0,0.0,0.71892,0.11645499999999999,0.6625979999999999,0.174805,0.917006,-0.389166,-0.104494,-0.027861,-0.033934,-0.011695,,,,,,,,,,,,,,,,,,,,,,,,,,,,,,,,,,,,,,,,,,,,,,,,,,,,,,,,,,,,,,,,,
9980,1645901845.8005722,1645901845.8369029,37.0,0.0,4370.769043,4502.05127,4223.077147999999,4184.615234000001,4260.0,0.0,1.0,15.0,,,,0.0,4.0,2.0,4.0,4.0,4.0,83.333336,,,,,,,,,,,,,,,,,,,,,,,,,,,,,,,,,,,,,,,,,,,,,,,,,,,,,,,,,,,,,,,,,,,,,,,,,,,,,,,,,,,,
9981,1645901845.8083868,1645901845.844717,38.0,0.0,4331.794922,4369.230957,4258.974121,4170.256348,4267.692383,0.0,1.0,15.0,,,,0.0,4.0,2.0,4.0,4.0,4.0,83.333336,,,,,,,,19.0,0.0,0.71892,0.11645499999999999,0.6625979999999999,0.174805,0.9233540000000001,-0.41113900000000003,-0.104494,-0.028298,-0.033861,-0.012772,1.0,0.0,0.0,,,,,,,,,,,,,,,,,,,,,,,,,,,,,,,,0.0,0.0,1.0,0.0,512.0,0.910083,1136.956177,43.944382,12.204692,6.717928,5.400215,183.841736,34.625851000000004,103.002243,38.852665,19.664169,15.630691,18.657204,4.855045,3.2203630000000003,13.351313000000001,180.773422,42.503040000000006,7.948914,13.060396,5.94006,380.363983,28.9034,5.448501,3.3002519999999995,4.442607
9982,1645901845.8162029,1645901845.8525321,39.0,0.0,4311.282227000001,4382.563965,4288.205078,4177.94873,4273.846191,0.0,1.0,15.0,,,,0.0,4.0,2.0,4.0,4.0,4.0,83.333336,,,,,,,,,,,,,,,,,,,,,,,,,,,,,,,,,,,,,,,,,,,,,,,,,,,,,,,,,,,,,,,,,,,,,,,,,,,,,,,,,,,,
9983,1645901845.824018,1645901845.8604472,40.0,0.0,4324.102539,4399.487305,4297.94873,4174.871582,4258.974121,0.0,1.0,15.0,,,,0.0,4.0,2.0,4.0,4.0,4.0,83.333336,,,,,,,,20.0,0.0,0.718635,0.11645499999999999,0.662842,0.175049,0.9160299999999999,-0.40528000000000003,-0.099611,-0.028739999999999998,-0.033942,-0.013887,,,,,,,,,,,,,,,,,,,,,,,,,,,,,,,,,,,,,,,,,,,,,,,,,,,,,,,,,,,,,,,,,
