,Timestamp,EEG.Counter,EEG.Interpolated,EEG.AF3,EEG.T7,EEG.Pz,EEG.T8,EEG.AF4,EEG.RawCq,EEG.Battery,EEG.BatteryPercent,MarkerIndex,MarkerType,MarkerValueInt,EEG.MarkerHardware,CQ.AF3,CQ.T7,CQ.Pz,CQ.T8,CQ.AF4,CQ.Overall,EQ.SampleRateQuality,EQ.OVERALL,EQ.AF3,EQ.T7,EQ.Pz,EQ.T8,EQ.AF4,MOT.CounterMems,MOT.InterpolatedMems,MOT.Q0,MOT.Q1,MOT.Q2,MOT.Q3,MOT.AccX,MOT.AccY,MOT.AccZ,MOT.MagX,MOT.MagY,MOT.MagZ,MC.Action,MC.ActionPower,MC.IsActive,PM.Engagement.IsActive,PM.Engagement.Scaled,PM.Engagement.Raw,PM.Engagement.Min,PM.Engagement.Max,PM.Excitement.IsActive,PM.Excitement.Scaled,PM.Excitement.Raw,PM.Excitement.Min,PM.Excitement.Max,PM.LongTermExcitement,PM.Stress.IsActive,PM.Stress.Scaled,PM.Stress.Raw,PM.Stress.Min,PM.Stress.Max,PM.Relaxation.IsActive,PM.Relaxation.Scaled,PM.Relaxation.Raw,PM.Relaxation.Min,PM.Relaxation.Max,PM.Interest.IsActive,PM.Interest.Scaled,PM.Interest.Raw,PM.Interest.Min,PM.Interest.Max,PM.Focus.IsActive,PM.Focus.Scaled,PM.Focus.Raw,PM.Focus.Min,PM.Focus.Max,FE.BlinkWink,FE.HorizontalEyesDirection,FE.UpperFaceAction,FE.UpperFaceActionPower,FE.LowerFaceAction,FE.LowerFaceActionPower,POW.AF3.Theta,POW.AF3.Alpha,POW.AF3.BetaL,POW.AF3.BetaH,POW.AF3.Gamma,POW.T7.Theta,POW.T7.Alpha,POW.T7.BetaL,POW.T7.BetaH,POW.T7.Gamma,POW.Pz.Theta,POW.Pz.Alpha,POW.Pz.BetaL,POW.Pz.BetaH,POW.Pz.Gamma,POW.T8.Theta,POW.T8.Alpha,POW.T8.BetaL,POW.T8.BetaH,POW.T8.Gamma,POW.AF4.Theta,POW.AF4.Alpha,POW.AF4.BetaL,POW.AF4.BetaH,POW.AF4.Gamma
63146,1645583139.63199,98.0,0.0,4332.307617,4395.897461,4190.769043,4280.512695,4274.358886999999,450.0,4.0,95.0,,,,0.0,4.0,2.0,4.0,0.0,4.0,50.0,,,,,,,,49.0,0.0,0.47711499999999996,-0.291748,0.5825199999999999,0.5898439999999999,0.891127,-0.41651000000000005,-0.15332300000000001,-0.034694,-0.035528,-0.022452,,,,,,,,,,,,,,,,,,,,,,,,,,,,,,,,,,,,,,,,,,,,,,,,,,,,,,,,,,,,,,,,,
63147,1645583139.639805,99.0,0.0,4322.05127,4363.589844,4217.94873,4281.538574,4286.666504,16202.0,4.0,95.0,,,,0.0,4.0,2.0,4.0,0.0,4.0,50.0,,,,,,,,,,,,,,,,,,,,,,,,,,,,,,,,,,,,,,,,,,,,,,,,,,,,,,0.0,0.0,1.0,0.0,512.0,1.0,,,,,,,,,,,,,,,,,,,,,,,,,
63148,1645583139.64762,100.0,0.0,4337.94873,4373.846191,4230.769043,4283.077147999999,4273.846191,450.0,4.0,95.0,,,,0.0,4.0,2.0,4.0,0.0,4.0,50.0,,,,,,,,50.0,0.0,0.47681599999999996,-0.291748,0.5827640000000001,0.5898439999999999,0.9043110000000001,-0.410163,-0.147951,-0.034594,-0.035491,-0.025285,,,,,,,,,,,,,,,,,,,,,,,,,,,,,,,,,,,,,,,,,,,,,,,,,,,,,,,,,,,,,,,,,
63149,1645583139.6554348,101.0,0.0,4326.666504,4396.922852000001,4204.102539,4282.05127,4266.666504,450.0,4.0,95.0,,,,0.0,4.0,2.0,4.0,0.0,4.0,50.0,,,,,,,,,,,,,,,,,,,,,,,,,,,,,,,,,,,,,,,,,,,,,,,,,,,,,,,,,,,,,,,,,,,,,,,,,,,,,,,,,,,,
63150,1645583139.66335,102.0,0.0,4305.641113000001,4431.794922,4216.922852000001,4281.025879,4277.436035,450.0,4.0,95.0,,,,0.0,4.0,2.0,4.0,0.0,4.0,50.0,,,,,,,,51.0,0.0,0.476969,-0.29199200000000003,0.5827640000000001,0.5896,0.9004040000000001,-0.41651000000000005,-0.166995,-0.03465,-0.035604000000000004,-0.027884,,,,,,,,,,,,,,,,,,,,,,,,,,,,,,,,,,,,,,,,,,,,,,,,,,,,,,,,,,,,,,,,,
63151,1645583139.671165,103.0,0.0,4311.794922,4477.436035,4236.410156,4282.05127,4289.230957,16202.0,4.0,95.0,,,,0.0,4.0,2.0,4.0,0.0,4.0,50.0,,,,,,,,,,,,,,,,,,,,,,,,,,,,,,,,,,,,,,,,,,,,,,,,,,,,,,0.0,0.0,1.0,0.0,512.0,1.0,,,,,,,,,,,,,,,,,,,,,,,,,
63152,1645583139.67898,104.0,0.0,4337.436035,4452.820313,4226.666504,4282.563965,4302.05127,450.0,4.0,95.0,,,,0.0,4.0,2.0,4.0,0.0,4.0,50.0,,,,,,,,52.0,0.0,0.477267,-0.29199200000000003,0.5825199999999999,0.5896,0.905776,-0.407233,-0.15820599999999999,-0.034554,-0.035608,-0.023826,,,,,,,,,,,,,,,,,,,,,,,,,,,,,,,,,,,,,,,,,,,,,,,,,,,,,,,,,,,,,,,,,
63153,1645583139.686795,105.0,0.0,4365.128418,4423.077147999999,4242.563965,4282.05127,4297.94873,450.0,4.0,95.0,,,,0.0,4.0,2.0,4.0,0.0,4.0,50.0,,,,,,,,,,,,,,,,,,,,,,,,,,,,,,,,,,,,,,,,,,,,,,,,,,,,,,,,,,,,,,,,,,,,,,,,,,,,,,,,,,,,
63154,1645583139.6946099,106.0,0.0,4364.102539,4456.410156,4253.333496,4282.05127,4291.282227000001,450.0,4.0,95.0,,,,0.0,4.0,2.0,4.0,0.0,4.0,50.0,,,,,,,,53.0,0.0,0.477267,-0.29199200000000003,0.5825199999999999,0.5896,0.906264,-0.40381500000000004,-0.16211199999999998,-0.034566,-0.035612,-0.026424,,,,,,,,,,,,,,,,,,,,,,,,,,,,,,,,,,,,,,,,,,,,,,,,,,,,,,,,,,,,,,,,,
63155,1645583139.702425,107.0,0.0,4324.615234000001,4414.871582,4223.589844,4282.563965,4314.358886999999,16202.0,4.0,95.0,,,,0.0,4.0,2.0,4.0,0.0,4.0,50.0,,,,,,,,,,,,,,,,,,,,,,,,,,,,,,,,,,,,,,,,,,,,,,,,,,,,,,0.0,0.0,1.0,0.0,512.0,1.0,,,,,,,,,,,,,,,,,,,,,,,,,
63156,1645583139.7102392,108.0,0.0,4314.358886999999,4305.641113000001,4224.615234000001,4282.05127,4327.179688,450.0,4.0,95.0,,,,0.0,4.0,2.0,4.0,0.0,4.0,50.0,,,,,,,,54.0,0.0,0.477267,-0.29199200000000003,0.5825199999999999,0.5896,0.9091940000000001,-0.404791,-0.143557,-0.03443,-0.035567,-0.022609999999999998,,,,,,,,,,,,,,,,,,,,,,,,,,,,,,,,,,,,,,,,,,,,,,,,,,,,,,,,,,,,,,,,,
63157,1645583139.7180538,109.0,0.0,4346.153809,4290.769043,4245.641113000001,4282.05127,4313.333496,450.0,4.0,95.0,,,,0.0,4.0,2.0,4.0,0.0,4.0,50.0,,,,,,,,,,,,,,,,,,,,,,,,,,,,,,,,,,,,,,,,,,,,,,,,,,,,,,,,,,,,,,,,,,,,,,,,,,,,,,,,,,,,
63158,1645583139.725869,110.0,0.0,4343.589844,4322.563965,4230.256348,4282.05127,4315.384765999999,450.0,4.0,95.0,,,,0.0,4.0,2.0,4.0,0.0,4.0,50.0,,,,,,,,55.0,0.0,0.477267,-0.29199200000000003,0.5825199999999999,0.5896,0.9116350000000001,-0.41651000000000005,-0.1626,-0.034405,-0.035526,-0.02528,,,,,,,,,,,,,,,,,,,,,,,,,,,,,,,,,,,,,,,,,,,,,,,,,,,,,,,,,,,,,,,,,
63159,1645583139.733784,111.0,0.0,4305.128418,4298.461426,4228.205078,4282.05127,4304.615234000001,16202.0,4.0,95.0,,,,0.0,4.0,2.0,4.0,0.0,4.0,50.0,1.0,33.333332,4.0,0.0,4.0,0.0,4.0,,,,,,,,,,,,,1.0,0.0,0.0,,,,,,,,,,,,,,,,,,,,,,,,,,,,,,,,0.0,0.0,1.0,0.0,512.0,1.0,2.652991,2.678856,1.8892520000000002,1.581542,2.8499470000000002,146.733322,94.737762,72.345261,57.100601,48.616623,0.802837,0.7358140000000001,0.975282,0.800941,1.8870060000000002,0.007739,0.012811000000000001,0.007902,0.0011,0.001141,2.3099369999999997,2.816872,2.790728,2.433135,2.144485
63160,1645583139.741599,112.0,0.0,4295.897461,4301.538574,4244.615234000001,4282.05127,4280.0,450.0,4.0,95.0,,,,0.0,4.0,2.0,4.0,0.0,4.0,50.0,,,,,,,,56.0,0.0,0.477267,-0.29199200000000003,0.5825199999999999,0.5896,0.9038219999999999,-0.401862,-0.166995,-0.034431,-0.035538,-0.027732999999999997,,,,,,,,,,,,,,,,,,,,,,,,,,,,,,,,,,,,,,,,,,,,,,,,,,,,,,,,,,,,,,,,,
63161,1645583139.749514,113.0,0.0,4308.205078,4269.743652,4231.794922,4282.05127,4283.589844,450.0,4.0,95.0,,,,0.0,4.0,2.0,4.0,0.0,4.0,50.0,,,,,,,,,,,,,,,,,,,,,,,,,,,,,,,,,,,,,,,,,,,,,,,,,,,,,,,,,,,,,,,,,,,,,,,,,,,,,,,,,,,,
63162,1645583139.7573302,114.0,0.0,4310.256348,4246.666504,4226.666504,4282.05127,4284.615234000001,450.0,4.0,95.0,,,,0.0,4.0,2.0,4.0,0.0,4.0,50.0,,,,,,,,57.0,0.0,0.476969,-0.29199200000000003,0.5827640000000001,0.5896,0.917494,-0.406256,-0.166018,-0.034455,-0.035450999999999996,-0.023788,,,,,,,,,,,,,,,,,,,,,,,,,,,,,,,,,,,,,,,,,,,,,,,,,,,,,,,,,,,,,,,,,
63163,1645583139.7651448,115.0,0.0,4326.153809,4333.333496,4249.230957,4282.05127,4286.666504,16202.0,4.0,95.0,,,,0.0,4.0,2.0,4.0,0.0,4.0,50.0,,,,,,,,,,,,,,,,,,,,,,,,,,,,,,,,,,,,,,,,,,,,,,,,,,,,,,0.0,0.0,1.0,0.0,512.0,1.0,,,,,,,,,,,,,,,,,,,,,,,,,
63164,1645583139.77296,116.0,0.0,4338.974121,4316.922852000001,4250.256348,4282.05127,4318.461426,450.0,4.0,95.0,,,,0.0,4.0,2.0,4.0,0.0,4.0,50.0,,,,,,,,58.0,0.0,0.476969,-0.29199200000000003,0.5827640000000001,0.5896,0.917494,-0.403326,-0.16211199999999998,-0.034378,-0.03547,-0.020286000000000002,,,,,,,,,,,,,,,,,,,,,,,,,,,,,,,,,,,,,,,,,,,,,,,,,,,,,,,,,,,,,,,,,
63165,1645583139.780775,117.0,0.0,4323.589844,4197.94873,4232.820313,4282.05127,4324.615234000001,450.0,4.0,95.0,,,,0.0,4.0,2.0,4.0,0.0,4.0,50.0,,,,,,,,,,,,,,,,,,,,,,,,,,,,,,,,,,,,,,,,,,,,,,,,,,,,,,,,,,,,,,,,,,,,,,,,,,,,,,,,,,,,
63166,1645583139.78859,118.0,0.0,4305.128418,4255.897461,4237.436035,4282.05127,4285.641113000001,450.0,4.0,95.0,,,,0.0,4.0,2.0,4.0,0.0,4.0,50.0,,,,,,,,59.0,0.0,0.476969,-0.29199200000000003,0.5827640000000001,0.5896,0.916518,-0.404303,-0.15332300000000001,-0.034359,-0.035536,-0.023287000000000002,,,,,,,,,,,,,,,,,,,,,,,,,,,,,,,,,,,,,,,,,,,,,,,,,,,,,,,,,,,,,,,,,
63167,1645583139.796405,119.0,0.0,4310.256348,4415.384765999999,4244.102539,4282.05127,4281.025879,16202.0,4.0,95.0,,,,0.0,4.0,2.0,4.0,0.0,4.0,50.0,,,,,,,,,,,,,,,,,,,,,,,,,,,,,,,,,,,,,,,,,,,,,,,,,,,,,,0.0,0.0,1.0,0.0,512.0,1.0,,,,,,,,,,,,,,,,,,,,,,,,,
63168,1645583139.80422,120.0,0.0,4329.743652,4414.871582,4241.538574,4282.05127,4320.512695,450.0,4.0,95.0,,,,0.0,4.0,2.0,4.0,0.0,4.0,50.0,,,,,,,,60.0,0.0,0.47652100000000003,-0.292236,0.583008,0.5896,0.9150530000000001,-0.393072,-0.155276,-0.034292,-0.035644999999999996,-0.019786,,,,,,,,,,,,,,,,,,,,,,,,,,,,,,,,,,,,,,,,,,,,,,,,,,,,,,,,,,,,,,,,,
63169,1645583139.812135,121.0,0.0,4336.410156,4326.153809,4247.179688,4282.05127,4324.102539,450.0,4.0,95.0,,,,0.0,4.0,2.0,4.0,0.0,4.0,50.0,,,,,,,,,,,,,,,,,,,,,,,,,,,,,,,,,,,,,,,,,,,,,,,,,,,,,,,,,,,,,,,,,,,,,,,,,,,,,,,,,,,,
63170,1645583139.81995,122.0,0.0,4314.358886999999,4270.769043,4239.487305,4282.05127,4293.333496,450.0,4.0,95.0,,,,0.0,4.0,2.0,4.0,0.0,4.0,50.0,,,,,,,,61.0,0.0,0.47652100000000003,-0.292236,0.583008,0.5896,0.9091940000000001,-0.41651000000000005,-0.151858,-0.034378,-0.035547,-0.022886,,,,,,,,,,,,,,,,,,,,,,,,,,,,,,,,,,,,,,,,,,,,,,,,,,,,,,,,,,,,,,,,,
63171,1645583139.827766,123.0,0.0,4291.794922,4218.461426,4223.589844,4282.05127,4287.692383,16202.0,4.0,95.0,,,,0.0,4.0,2.0,4.0,0.0,4.0,50.0,,,,,,,,,,,,,,,,,,,,,,,,,,,,,,,,,,,,,,,,,,,,,,,,,,,,,,0.0,0.0,1.0,0.0,512.0,1.0,,,,,,,,,,,,,,,,,,,,,,,,,
63172,1645583139.835581,124.0,0.0,4312.820313,4206.666504,4237.436035,4282.05127,4283.077147999999,450.0,4.0,95.0,,,,0.0,4.0,2.0,4.0,0.0,4.0,50.0,,,,,,,,62.0,0.0,0.476517,-0.292236,0.5827640000000001,0.5898439999999999,0.894057,-0.408209,-0.140139,-0.034505,-0.035508,-0.025773,,,,,,,,,,,,,,,,,,,,,,,,,,,,,,,,,,,,,,,,,,,,,,,,,,,,,,,,,,,,,,,,,
63173,1645583139.8433962,125.0,0.0,4335.897461,4239.487305,4238.974121,4282.05127,4265.128418,450.0,4.0,95.0,,,,0.0,4.0,2.0,4.0,0.0,4.0,50.0,,,,,,,,,,,,,,,,,,,,,,,,,,,,,,,,,,,,,,,,,,,,,,,,,,,,,,,,,,,,,,,,,,,,,,,,,,,,,,,,,,,,
63174,1645583139.8512108,126.0,0.0,4298.461426,4244.615234000001,4198.974121,4282.05127,4272.307617,450.0,4.0,95.0,,,,0.0,4.0,2.0,4.0,0.0,4.0,50.0,,,,,,,,63.0,0.0,0.476368,-0.29248,0.5827640000000001,0.5898439999999999,0.9043110000000001,-0.417487,-0.148928,-0.034375,-0.035473000000000005,-0.028225,,,,,,,,,,,,,,,,,,,,,,,,,,,,,,,,,,,,,,,,,,,,,,,,,,,,,,,,,,,,,,,,,
63175,1645583139.859026,127.0,0.0,4268.205078,4280.0,4199.487305,4282.05127,4289.743652,243.0,4.0,95.0,,,,0.0,4.0,2.0,4.0,0.0,4.0,50.0,,,,,,,,,,,,,,,,,,,,1.0,0.0,0.0,,,,,,,,,,,,,,,,,,,,,,,,,,,,,,,,0.0,0.0,1.0,0.0,512.0,1.0,2.885406,2.5161,2.112262,1.6497970000000002,2.745669,130.363632,99.973007,73.982201,62.771866,44.646027000000004,1.1193389999999999,0.7393350000000001,0.689331,0.889407,2.009316,0.005954999999999999,0.0089,0.005121,0.000753,0.000676,2.16243,2.952842,2.727631,2.4362209999999997,2.063546
63176,1645583139.866841,0.0,0.0,4307.179688,4360.0,4231.794922,4282.05127,4292.820313,450.0,4.0,95.0,,,,0.0,4.0,2.0,4.0,0.0,4.0,50.0,,,,,,,,0.0,0.0,0.476368,-0.29248,0.5827640000000001,0.5898439999999999,0.9004040000000001,-0.415045,-0.158694,-0.034453,-0.035393,-0.030481,,,,,,,,,,,,,,,,,,,,,,,,,,,,,,,,,,,,,,,,,,,,,,,,,,,,,,,,,,,,,,,,,
63177,1645583139.874656,1.0,0.0,4341.025879,4390.256348,4220.0,4282.05127,4304.615234000001,450.0,4.0,95.0,,,,0.0,4.0,2.0,4.0,0.0,4.0,50.0,,,,,,,,,,,,,,,,,,,,,,,,,,,,,,,,,,,,,,,,,,,,,,,,,,,,,,,,,,,,,,,,,,,,,,,,,,,,,,,,,,,,
63178,1645583139.882571,2.0,0.0,4330.256348,4364.102539,4214.871582,4282.05127,4314.358886999999,16194.0,4.0,95.0,,,,0.0,4.0,2.0,4.0,0.0,4.0,50.0,,,,,,,,1.0,0.0,0.47667,-0.29248,0.5827640000000001,0.5896,0.905776,-0.41895200000000005,-0.15332300000000001,-0.034426,-0.035418,-0.032511,,,,,,,,,,,,,,,,,,,,,,,,,,,,,,,,,,,,,,,,,,,,,,,,,,,,,,,,,,,,,,,,,
63179,1645583139.8903859,3.0,0.0,4332.307617,4302.05127,4255.897461,4282.05127,4307.179688,450.0,4.0,95.0,,,,0.0,4.0,2.0,4.0,0.0,4.0,50.0,,,,,,,,,,,,,,,,,,,,,,,,,,,,,,,,,,,,,,,,,,,,,,,,,,,,,,0.0,0.0,1.0,0.0,512.0,1.0,,,,,,,,,,,,,,,,,,,,,,,,,
63180,1645583139.898202,4.0,0.0,4343.589844,4292.820313,4252.307617,4282.05127,4302.563965,276.0,4.0,95.0,,,,0.0,4.0,2.0,4.0,0.0,4.0,50.0,,,,,,,,2.0,0.0,0.47667,-0.29248,0.5827640000000001,0.5896,0.914565,-0.42676400000000003,-0.152346,-0.034401,-0.035343,-0.034338,,,,,,,,,,,,,,,,,,,,,,,,,,,,,,,,,,,,,,,,,,,,,,,,,,,,,,,,,,,,,,,,,
63181,1645583139.906117,5.0,0.0,4324.615234000001,4361.025879,4211.794922,4282.05127,4301.538574,450.0,4.0,95.0,,,,0.0,4.0,2.0,4.0,0.0,4.0,50.0,,,,,,,,,,,,,,,,,,,,,,,,,,,,,,,,,,,,,,,,,,,,,,,,,,,,,,,,,,,,,,,,,,,,,,,,,,,,,,,,,,,,
63182,1645583139.914032,6.0,0.0,4308.717772999999,4369.743652,4223.589844,4282.05127,4291.794922,16193.0,4.0,95.0,,,,0.0,4.0,2.0,4.0,0.0,4.0,50.0,,,,,,,,3.0,0.0,0.476368,-0.29248,0.5827640000000001,0.5898439999999999,0.9004040000000001,-0.415045,-0.158694,-0.034477,-0.035275,-0.035982,,,,,,,,,,,,,,,,,,,,,,,,,,,,,,,,,,,,,,,,,,,,,,,,,,,,,,,,,,,,,,,,,
63183,1645583139.921847,7.0,0.0,4321.025879,4328.205078,4245.641113000001,4282.05127,4285.641113000001,450.0,4.0,95.0,,,,0.0,4.0,2.0,4.0,0.0,4.0,50.0,,,,,,,,,,,,,,,,,,,,,,,,,,,,,,,,,,,,,,,,,,,,,,,,,,,,,,0.0,0.0,1.0,0.0,512.0,1.0,,,,,,,,,,,,,,,,,,,,,,,,,
63184,1645583139.929662,8.0,0.0,4319.487305,4365.128418,4223.589844,4282.05127,4298.974121,450.0,4.0,95.0,,,,0.0,4.0,2.0,4.0,0.0,4.0,50.0,,,,,,,,4.0,0.0,0.476972,-0.29248,0.5827640000000001,0.5893550000000001,0.9116350000000001,-0.404791,-0.152834,-0.034447000000000005,-0.035166,-0.031114999999999997,,,,,,,,,,,,,,,,,,,,,,,,,,,,,,,,,,,,,,,,,,,,,,,,,,,,,,,,,,,,,,,,,
63185,1645583139.937577,9.0,0.0,4303.077147999999,4372.820313,4208.205078,4282.05127,4306.153809,0.0,4.0,95.0,,,,0.0,4.0,2.0,4.0,0.0,4.0,50.0,,,,,,,,,,,,,,,,,,,,,,,,,,,,,,,,,,,,,,,,,,,,,,,,,,,,,,,,,,,,,,,,,,,,,,,,,,,,,,,,,,,,
63186,1645583139.945392,10.0,0.0,4314.358886999999,4314.358886999999,4228.717772999999,4282.05127,4274.358886999999,450.0,4.0,95.0,,,,0.0,4.0,2.0,4.0,0.0,4.0,50.0,,,,,,,,5.0,0.0,0.47727299999999995,-0.29248,0.5827640000000001,0.5891109999999999,0.9043110000000001,-0.409674,-0.16846,-0.03442,-0.035164999999999995,-0.032984,,,,,,,,,,,,,,,,,,,,,,,,,,,,,,,,,,,,,,,,,,,,,,,,,,,,,,,,,,,,,,,,,
63187,1645583139.953207,11.0,0.0,4350.256348,4340.0,4235.897461,4282.05127,4254.871582,16195.0,4.0,95.0,,,,0.0,4.0,2.0,4.0,0.0,4.0,50.0,,,,,,,,,,,,,,,,,,,,,,,,,,,,,,,,,,,,,,,,,,,,,,,,,,,,,,0.0,0.0,1.0,0.0,512.0,1.0,,,,,,,,,,,,,,,,,,,,,,,,,
63188,1645583139.9610221,12.0,0.0,4343.589844,4380.512695,4226.153809,4282.05127,4268.717772999999,450.0,4.0,95.0,,,,0.0,4.0,2.0,4.0,0.0,4.0,50.0,,,,,,,,6.0,0.0,0.476975,-0.29248,0.583008,0.5891109999999999,0.917006,-0.39502600000000004,-0.150881,-0.034444999999999996,-0.035115,-0.034763999999999996,,,,,,,,,,,,,,,,,,,,,,,,,,,,,,,,,,,,,,,,,,,,,,,,,,,,,,,,,,,,,,,,,
63189,1645583139.968837,13.0,0.0,4316.922852000001,4342.05127,4235.384765999999,4282.05127,4270.256348,450.0,4.0,95.0,,,,0.0,4.0,2.0,4.0,0.0,4.0,50.0,,,,,,,,,,,,,,,,,,,,,,,,,,,,,,,,,,,,,,,,,,,,,,,,,,,,,,,,,,,,,,,,,,,,,,,,,,,,,,,,,,,,
63190,1645583139.976652,14.0,0.0,4337.94873,4330.769043,4237.94873,4282.05127,4280.512695,450.0,4.0,95.0,,,,0.0,4.0,2.0,4.0,0.0,4.0,50.0,,,,,,,,7.0,0.0,0.476975,-0.29248,0.583008,0.5891109999999999,0.904799,-0.39697899999999997,-0.163577,-0.034565,-0.035071,-0.030066000000000002,,,,,,,,,,,,,,,,,,,,,,,,,,,,,,,,,,,,,,,,,,,,,,,,,,,,,,,,,,,,,,,,,
63191,1645583139.984567,15.0,0.0,4343.077147999999,4337.436035,4218.461426,4282.05127,4303.589844,16195.0,4.0,95.0,,,,0.0,4.0,2.0,4.0,0.0,4.0,50.0,,,,,,,,,,,,,,,,,,,,1.0,0.0,0.0,,,,,,,,,,,,,,,,,,,,,,,,,,,,,,,,0.0,0.0,1.0,0.0,512.0,1.0,3.096282,2.3584419999999997,2.373974,1.7787439999999999,2.618804,126.61948400000001,108.223694,74.981796,67.960342,38.475487,1.4763700000000002,0.768378,0.512798,0.940883,2.133736,0.004217,0.005314,0.0029059999999999997,0.000543,0.00040899999999999997,2.149807,3.154876,2.851198,2.54976,1.9774029999999998
63192,1645583139.992383,16.0,0.0,4315.384765999999,4230.769043,4221.538574,4282.05127,4293.846191,0.0,4.0,95.0,,,,0.0,4.0,2.0,4.0,0.0,4.0,50.0,,,,,,,,8.0,0.0,0.47727299999999995,-0.29248,0.5827640000000001,0.5891109999999999,0.893568,-0.40381500000000004,-0.146975,-0.034673,-0.035128,-0.025789999999999997,,,,,,,,,,,,,,,,,,,,,,,,,,,,,,,,,,,,,,,,,,,,,,,,,,,,,,,,,,,,,,,,,
63193,1645583140.0001981,17.0,0.0,4325.128418,4137.94873,4235.897461,4282.05127,4283.077147999999,0.0,4.0,95.0,,,,0.0,4.0,2.0,4.0,0.0,4.0,50.0,,,,,,,,,,,,,,,,,,,,,,,,,,,,,,,,,,,,,,,,,,,,,,,,,,,,,,,,,,,,,,,,,,,,,,,,,,,,,,,,,,,,
63194,1645583140.008013,18.0,0.0,4345.128418,4240.512695,4216.922852000001,4282.05127,4305.128418,0.0,4.0,95.0,,,,0.0,4.0,2.0,4.0,0.0,4.0,50.0,,,,,,,,9.0,0.0,0.47727299999999995,-0.29248,0.5827640000000001,0.5891109999999999,0.9043110000000001,-0.404791,-0.15674100000000002,-0.034526,-0.035276999999999996,-0.028143,,,,,,,,,,,,,,,,,,,,,,,,,,,,,,,,,,,,,,,,,,,,,,,,,,,,,,,,,,,,,,,,,
63195,1645583140.015828,19.0,0.0,4320.0,4394.358886999999,4208.717772999999,4282.05127,4306.153809,0.0,4.0,95.0,,,,0.0,4.0,2.0,4.0,0.0,4.0,50.0,,,,,,,,,,,,,,,,,,,,,,,,,,,,,,,,,,,,,,,,,,,,,,,,,,,,,,0.0,0.0,1.0,0.0,512.0,1.0,,,,,,,,,,,,,,,,,,,,,,,,,
63196,1645583140.023643,20.0,0.0,4301.025879,4404.615234000001,4232.820313,4282.05127,4272.820313,0.0,4.0,95.0,,,,0.0,4.0,2.0,4.0,0.0,4.0,50.0,,,,,,,,10.0,0.0,0.47712299999999996,-0.292725,0.5827640000000001,0.5891109999999999,0.914565,-0.40283800000000003,-0.152346,-0.034492,-0.035265,-0.02401,,,,,,,,,,,,,,,,,,,,,,,,,,,,,,,,,,,,,,,,,,,,,,,,,,,,,,,,,,,,,,,,,
63197,1645583140.031458,21.0,0.0,4321.538574,4360.0,4220.0,4282.05127,4259.487305,0.0,4.0,95.0,,,,0.0,4.0,2.0,4.0,0.0,4.0,50.0,,,,,,,,,,,,,,,,,,,,,,,,,,,,,,,,,,,,,,,,,,,,,,,,,,,,,,,,,,,,,,,,,,,,,,,,,,,,,,,,,,,,
63198,1645583140.039273,22.0,0.0,4326.153809,4407.179688,4194.358886999999,4282.05127,4267.692383,0.0,4.0,95.0,,,,0.0,4.0,2.0,4.0,0.0,4.0,50.0,,,,,,,,11.0,0.0,0.47712299999999996,-0.292725,0.5827640000000001,0.5891109999999999,0.9121229999999999,-0.407233,-0.161624,-0.034412,-0.035255,-0.026687,,,,,,,,,,,,,,,,,,,,,,,,,,,,,,,,,,,,,,,,,,,,,,,,,,,,,,,,,,,,,,,,,
63199,1645583140.0470881,23.0,0.0,4323.077147999999,4436.410156,4208.717772999999,4282.05127,4270.769043,0.0,4.0,95.0,,,,0.0,4.0,2.0,4.0,0.0,4.0,50.0,,,,,,,,,,,,,,,,,,,,,,,,,,,,,,,,,,,,,,,,,,,,,,,,,,,,,,0.0,0.0,1.0,0.0,512.0,1.0,,,,,,,,,,,,,,,,,,,,,,,,,
63200,1645583140.055003,24.0,0.0,4340.512695,4347.692383,4210.256348,4282.05127,4276.410156,0.0,4.0,95.0,,,,0.0,4.0,2.0,4.0,0.0,4.0,50.0,,,,,,,,12.0,0.0,0.47712299999999996,-0.292725,0.5827640000000001,0.5891109999999999,0.916518,-0.41065100000000004,-0.15674100000000002,-0.034437,-0.035342,-0.022896,,,,,,,,,,,,,,,,,,,,,,,,,,,,,,,,,,,,,,,,,,,,,,,,,,,,,,,,,,,,,,,,,
63201,1645583140.062819,25.0,0.0,4332.307617,4266.666504,4189.230957,4282.05127,4273.846191,0.0,4.0,95.0,,,,0.0,4.0,2.0,4.0,0.0,4.0,50.0,,,,,,,,,,,,,,,,,,,,,,,,,,,,,,,,,,,,,,,,,,,,,,,,,,,,,,,,,,,,,,,,,,,,,,,,,,,,,,,,,,,,
63202,1645583140.070634,26.0,0.0,4299.487305,4294.358886999999,4192.820313,4282.05127,4255.897461,0.0,4.0,95.0,,,,0.0,4.0,2.0,4.0,0.0,4.0,50.0,,,,,,,,13.0,0.0,0.47712299999999996,-0.292725,0.5827640000000001,0.5891109999999999,0.901381,-0.412116,-0.15967,-0.034460000000000005,-0.035324,-0.025587000000000002,,,,,,,,,,,,,,,,,,,,,,,,,,,,,,,,,,,,,,,,,,,,,,,,,,,,,,,,,,,,,,,,,
63203,1645583140.078449,27.0,0.0,4304.615234000001,4285.641113000001,4198.974121,4282.05127,4270.256348,0.0,4.0,95.0,,,,0.0,4.0,2.0,4.0,0.0,4.0,50.0,,,,,,,,,,,,,,,,,,,,,,,,,,,,,,,,,,,,,,,,,,,,,,,,,,,,,,0.0,0.0,1.0,0.0,512.0,1.0,,,,,,,,,,,,,,,,,,,,,,,,,
63204,1645583140.0862641,28.0,0.0,4326.153809,4211.282227000001,4198.461426,4282.05127,4294.358886999999,0.0,4.0,95.0,,,,0.0,4.0,2.0,4.0,0.0,4.0,50.0,,,,,,,,14.0,0.0,0.477425,-0.292725,0.5827640000000001,0.588867,0.9111469999999999,-0.41699899999999995,-0.146975,-0.034481,-0.035405,-0.021758,,,,,,,,,,,,,,,,,,,,,,,,,,,,,,,,,,,,,,,,,,,,,,,,,,,,,,,,,,,,,,,,,
63205,1645583140.094079,29.0,0.0,4317.436035,4213.846191,4222.05127,4282.05127,4280.0,0.0,4.0,95.0,,,,0.0,4.0,2.0,4.0,0.0,4.0,50.0,,,,,,,,,,,,,,,,,,,,,,,,,,,,,,,,,,,,,,,,,,,,,,,,,,,,,,,,,,,,,,,,,,,,,,,,,,,,,,,,,,,,
63206,1645583140.101894,30.0,0.0,4313.333496,4245.641113000001,4222.563965,4282.05127,4276.410156,0.0,4.0,95.0,,,,0.0,4.0,2.0,4.0,0.0,4.0,50.0,,,,,,,,15.0,0.0,0.477425,-0.292725,0.5827640000000001,0.588867,0.9155409999999999,-0.403326,-0.153811,-0.034401999999999995,-0.035282,-0.02471,,,,,,,,,,,,,,,,,,,,,,,,,,,,,,,,,,,,,,,,,,,,,,,,,,,,,,,,,,,,,,,,,
63207,1645583140.109709,31.0,0.0,4334.871582,4230.769043,4202.05127,4282.05127,4302.563965,0.0,4.0,95.0,,,,0.0,4.0,2.0,4.0,0.0,4.0,50.0,,,,,,,,,,,,,,,,,,,,1.0,0.0,0.0,,,,,,,,,,,,,,,,,,,,,,,,,,,,,,,,0.0,0.0,1.0,0.0,512.0,1.0,3.170328,2.249444,2.6817889999999998,1.949471,2.4859419999999997,134.223801,117.437996,72.688866,70.582893,31.782628999999996,1.8037860000000001,0.8030430000000001,0.446009,0.931958,2.221448,0.003029,0.0028239999999999997,0.0015539999999999998,0.000479,0.000321,2.2781759999999998,3.4099230000000005,3.063859,2.71175,1.9059549999999998
63208,1645583140.117524,32.0,0.0,4348.205078,4185.641113000001,4227.179688,4282.05127,4292.820313,0.0,4.0,95.0,,,,0.0,4.0,2.0,4.0,0.0,4.0,50.0,,,,,,,,16.0,0.0,0.47772600000000004,-0.292725,0.5827640000000001,0.588623,0.910658,-0.40576799999999996,-0.154299,-0.03438,-0.035220999999999995,-0.021018000000000002,,,,,,,,,,,,,,,,,,,,,,,,,,,,,,,,,,,,,,,,,,,,,,,,,,,,,,,,,,,,,,,,,
63209,1645583140.1254392,33.0,0.0,4340.512695,4143.077147999999,4243.589844,4282.05127,4277.94873,0.0,4.0,95.0,,,,0.0,4.0,2.0,4.0,0.0,4.0,50.0,,,,,,,,,,,,,,,,,,,,,,,,,,,,,,,,,,,,,,,,,,,,,,,,,,,,,,,,,,,,,,,,,,,,,,,,,,,,,,,,,,,,
63210,1645583140.133255,34.0,0.0,4333.333496,4164.102539,4206.153809,4282.05127,4291.794922,0.0,4.0,95.0,,,,0.0,4.0,2.0,4.0,0.0,4.0,50.0,,,,,,,,17.0,0.0,0.47772600000000004,-0.292725,0.5827640000000001,0.588623,0.9184709999999999,-0.39942,-0.156252,-0.034457999999999996,-0.035166,-0.023994,,,,,,,,,,,,,,,,,,,,,,,,,,,,,,,,,,,,,,,,,,,,,,,,,,,,,,,,,,,,,,,,,
63211,1645583140.14107,35.0,0.0,4335.897461,4238.974121,4199.487305,4282.05127,4277.436035,0.0,4.0,95.0,,,,0.0,4.0,2.0,4.0,0.0,4.0,50.0,,,,,,,,,,,,,,,,,,,,,,,,,,,,,,,,,,,,,,,,,,,,,,,,,,,,,,0.0,0.0,1.0,0.0,512.0,1.0,,,,,,,,,,,,,,,,,,,,,,,,,
63212,1645583140.148885,36.0,0.0,4334.871582,4269.743652,4224.615234000001,4282.05127,4263.077147999999,0.0,4.0,95.0,,,,0.0,4.0,2.0,4.0,0.0,4.0,50.0,,,,,,,,18.0,0.0,0.477875,-0.29248,0.5827640000000001,0.588623,0.909682,-0.413092,-0.154788,-0.034381,-0.035164999999999995,-0.026575,,,,,,,,,,,,,,,,,,,,,,,,,,,,,,,,,,,,,,,,,,,,,,,,,,,,,,,,,,,,,,,,,
63213,1645583140.1567,37.0,0.0,4333.333496,4318.974121,4212.307617,4282.05127,4305.641113000001,0.0,4.0,95.0,,,,0.0,4.0,2.0,4.0,0.0,4.0,50.0,,,,,,,,,,,,,,,,,,,,,,,,,,,,,,,,,,,,,,,,,,,,,,,,,,,,,,,,,,,,,,,,,,,,,,,,,,,,,,,,,,,,
63214,1645583140.164515,38.0,0.0,4330.256348,4355.384765999999,4201.025879,4282.05127,4320.0,0.0,4.0,95.0,,,,0.0,4.0,2.0,4.0,0.0,4.0,50.0,,,,,,,,19.0,0.0,0.477875,-0.29248,0.5827640000000001,0.588623,0.903334,-0.40576799999999996,-0.160159,-0.034299,-0.035163,-0.024837,,,,,,,,,,,,,,,,,,,,,,,,,,,,,,,,,,,,,,,,,,,,,,,,,,,,,,,,,,,,,,,,,
63215,1645583140.1723301,39.0,0.0,4313.846191,4242.05127,4226.666504,4282.05127,4279.487305,0.0,4.0,95.0,,,,0.0,4.0,2.0,4.0,0.0,4.0,50.0,,,,,,,,,,,,,,,,,,,,,,,,,,,,,,,,,,,,,,,,,,,,,,,,,,,,,,0.0,0.0,1.0,0.0,512.0,1.0,,,,,,,,,,,,,,,,,,,,,,,,,
63216,1645583140.180145,40.0,0.0,4326.153809,4178.974121,4227.692383,4282.05127,4289.230957,0.0,4.0,95.0,,,,0.0,4.0,2.0,4.0,0.0,4.0,50.0,,,,,,,,20.0,0.0,0.478473,-0.29248,0.5825199999999999,0.588379,0.901381,-0.406256,-0.166018,-0.034336,-0.03526,-0.027431,,,,,,,,,,,,,,,,,,,,,,,,,,,,,,,,,,,,,,,,,,,,,,,,,,,,,,,,,,,,,,,,,
63217,1645583140.18806,41.0,0.0,4360.0,4234.358886999999,4207.179688,4282.05127,4324.615234000001,0.0,4.0,95.0,,,,0.0,4.0,2.0,4.0,0.0,4.0,50.0,,,,,,,,,,,,,,,,,,,,,,,,,,,,,,,,,,,,,,,,,,,,,,,,,,,,,,,,,,,,,,,,,,,,,,,,,,,,,,,,,,,,
63218,1645583140.195875,42.0,0.0,4354.871582,4188.205078,4218.974121,4282.05127,4302.05127,0.0,4.0,95.0,,,,0.0,4.0,2.0,4.0,0.0,4.0,50.0,,,,,,,,21.0,0.0,0.477875,-0.29248,0.5827640000000001,0.588623,0.909682,-0.413092,-0.154788,-0.034369,-0.035396,-0.023565,,,,,,,,,,,,,,,,,,,,,,,,,,,,,,,,,,,,,,,,,,,,,,,,,,,,,,,,,,,,,,,,,
63219,1645583140.203691,43.0,0.0,4348.205078,4114.358886999999,4227.692383,4282.05127,4301.538574,0.0,4.0,95.0,,,,0.0,4.0,2.0,4.0,0.0,4.0,50.0,,,,,,,,,,,,,,,,,,,,,,,,,,,,,,,,,,,,,,,,,,,,,,,,,,,,,,0.0,0.0,1.0,0.0,512.0,1.0,,,,,,,,,,,,,,,,,,,,,,,,,
63220,1645583140.2115061,44.0,0.0,4380.0,4220.0,4215.897461,4282.05127,4347.692383,0.0,4.0,95.0,,,,0.0,4.0,2.0,4.0,0.0,4.0,50.0,,,,,,,,22.0,0.0,0.478473,-0.29248,0.5825199999999999,0.588379,0.901381,-0.406256,-0.166018,-0.034399,-0.03547,-0.026287,,,,,,,,,,,,,,,,,,,,,,,,,,,,,,,,,,,,,,,,,,,,,,,,,,,,,,,,,,,,,,,,,
63221,1645583140.219321,45.0,0.0,4413.846191,4407.692383,4226.666504,4282.563965,4353.846191,0.0,4.0,95.0,,,,0.0,4.0,2.0,4.0,0.0,4.0,50.0,,,,,,,,,,,,,,,,,,,,,,,,,,,,,,,,,,,,,,,,,,,,,,,,,,,,,,,,,,,,,,,,,,,,,,,,,,,,,,,,,,,,
63222,1645583140.227136,46.0,0.0,4435.897461,4443.077147999999,4235.384765999999,4281.538574,4348.717772999999,0.0,4.0,95.0,,,,0.0,4.0,2.0,4.0,0.0,4.0,50.0,,,,,,,,23.0,0.0,0.478473,-0.29248,0.5825199999999999,0.588379,0.9194479999999999,-0.403326,-0.16846,-0.034426,-0.035439,-0.028638999999999998,,,,,,,,,,,,,,,,,,,,,,,,,,,,,,,,,,,,,,,,,,,,,,,,,,,,,,,,,,,,,,,,,
63223,1645583140.234951,47.0,0.0,4473.333496,4328.717772999999,4217.94873,4281.538574,4382.05127,0.0,4.0,95.0,,,,0.0,4.0,2.0,4.0,0.0,4.0,50.0,1.0,33.333332,4.0,0.0,4.0,0.0,4.0,,,,,,,,,,,,,1.0,0.0,0.0,,,,,,,,,,,,,,,,,,,,,,,,,,,,,,,,0.0,0.0,1.0,0.0,512.0,1.0,3.008475,2.229709,3.027982,2.140479,2.377684,147.104218,126.99295,66.360374,69.230354,26.046247,2.018727,0.858123,0.481516,0.858332,2.249816,0.002506,0.001568,0.0009519999999999999,0.000522,0.000357,2.5000259999999996,3.71475,3.196231,2.84602,1.8555709999999999
63224,1645583140.242766,48.0,0.0,4511.794922,4278.974121,4213.333496,4284.615234000001,4424.102539,0.0,4.0,95.0,,,,0.0,4.0,2.0,4.0,0.0,4.0,50.0,,,,,,,,24.0,0.0,0.478473,-0.29248,0.5825199999999999,0.588379,0.9091940000000001,-0.393072,-0.150881,-0.03445,-0.035411,-0.030853,,,,,,,,,,,,,,,,,,,,,,,,,,,,,,,,,,,,,,,,,,,,,,,,,,,,,,,,,,,,,,,,,
63225,1645583140.250581,49.0,0.0,4566.153809,4328.717772999999,4221.025879,4284.615234000001,4473.333496,0.0,4.0,95.0,,,,0.0,4.0,2.0,4.0,0.0,4.0,50.0,,,,,,,,,,,,,,,,,,,,,,,,,,,,,,,,,,,,,,,,,,,,,,,,,,,,,,,,,,,,,,,,,,,,,,,,,,,,,,,,,,,,
63226,1645583140.258496,50.0,0.0,4682.05127,4328.717772999999,4225.128418,4283.077147999999,4553.333496,0.0,4.0,95.0,,,,0.0,4.0,2.0,4.0,0.0,4.0,50.0,,,,,,,,25.0,0.0,0.47817600000000005,-0.29248,0.5827640000000001,0.588379,0.918959,-0.380865,-0.160647,-0.034472,-0.035385,-0.026547,,,,,,,,,,,,,,,,,,,,,,,,,,,,,,,,,,,,,,,,,,,,,,,,,,,,,,,,,,,,,,,,,
63227,1645583140.266311,51.0,0.0,4821.025879,4295.897461,4237.94873,4286.153809,4627.692383,0.0,4.0,95.0,,,,0.0,4.0,2.0,4.0,0.0,4.0,50.0,,,,,,,,,,,,,,,,,,,,,,,,,,,,,,,,,,,,,,,,,,,,,,,,,,,,,,0.0,0.0,1.0,0.0,512.0,1.0,,,,,,,,,,,,,,,,,,,,,,,,,
63228,1645583140.274127,52.0,0.0,4906.666504,4293.333496,4241.025879,4289.230957,4671.282227000001,0.0,4.0,95.0,,,,0.0,4.0,2.0,4.0,0.0,4.0,50.0,,,,,,,,26.0,0.0,0.477875,-0.29248,0.5827640000000001,0.588623,0.917494,-0.39014299999999996,-0.151858,-0.034443,-0.035314,-0.02897,,,,,,,,,,,,,,,,,,,,,,,,,,,,,,,,,,,,,,,,,,,,,,,,,,,,,,,,,,,,,,,,,
63229,1645583140.281942,53.0,0.0,4934.358886999999,4298.974121,4240.0,4287.179688,4703.077147999999,0.0,4.0,95.0,,,,0.0,4.0,2.0,4.0,0.0,4.0,50.0,,,,,,,,,,,,,,,,,,,,,,,,,,,,,,,,,,,,,,,,,,,,,,,,,,,,,,,,,,,,,,,,,,,,,,,,,,,,,,,,,,,,
63230,1645583140.289757,54.0,0.0,4969.743652,4295.384765999999,4262.563965,4285.641113000001,4706.153809,0.0,4.0,95.0,,,,0.0,4.0,2.0,4.0,0.0,4.0,50.0,,,,,,,,27.0,0.0,0.478024,-0.292236,0.5827640000000001,0.588623,0.901869,-0.396002,-0.160647,-0.034417,-0.035298,-0.031152,,,,,,,,,,,,,,,,,,,,,,,,,,,,,,,,,,,,,,,,,,,,,,,,,,,,,,,,,,,,,,,,,
63231,1645583140.2975721,55.0,0.0,5005.641113000001,4225.128418,4283.077147999999,4289.230957,4693.846191,0.0,4.0,95.0,,,,0.0,4.0,2.0,4.0,0.0,4.0,50.0,,,,,,,,,,,,,,,,,,,,,,,,,,,,,,,,,,,,,,,,,,,,,,,,,,,,,,0.0,0.0,1.0,0.0,512.0,1.0,,,,,,,,,,,,,,,,,,,,,,,,,
63232,1645583140.305387,56.0,0.0,4988.205078,4143.077147999999,4289.743652,4294.358886999999,4702.05127,0.0,4.0,95.0,,,,0.0,4.0,2.0,4.0,0.0,4.0,50.0,,,,,,,,28.0,0.0,0.478174,-0.29199200000000003,0.5827640000000001,0.588623,0.902358,-0.422858,-0.147463,-0.034491,-0.035332999999999996,-0.033115,,,,,,,,,,,,,,,,,,,,,,,,,,,,,,,,,,,,,,,,,,,,,,,,,,,,,,,,,,,,,,,,,
63233,1645583140.313202,57.0,0.0,4952.307617,4146.666504,4286.153809,4297.94873,4702.05127,0.0,4.0,95.0,,,,0.0,4.0,2.0,4.0,0.0,4.0,50.0,,,,,,,,,,,,,,,,,,,,,,,,,,,,,,,,,,,,,,,,,,,,,,,,,,,,,,,,,,,,,,,,,,,,,,,,,,,,,,,,,,,,
63234,1645583140.321017,58.0,0.0,4957.436035,4158.974121,4271.794922,4296.922852000001,4676.922852000001,0.0,4.0,95.0,,,,0.0,4.0,2.0,4.0,0.0,4.0,50.0,,,,,,,,29.0,0.0,0.47787299999999994,-0.29199200000000003,0.5827640000000001,0.588867,0.905776,-0.407233,-0.157229,-0.034411000000000004,-0.035315,-0.028631,,,,,,,,,,,,,,,,,,,,,,,,,,,,,,,,,,,,,,,,,,,,,,,,,,,,,,,,,,,,,,,,,
63235,1645583140.328932,59.0,0.0,4974.358886999999,4167.179688,4270.769043,4298.974121,4673.846191,0.0,4.0,95.0,,,,0.0,4.0,2.0,4.0,0.0,4.0,50.0,,,,,,,,,,,,,,,,,,,,,,,,,,,,,,,,,,,,,,,,,,,,,,,,,,,,,,0.0,0.0,1.0,0.0,512.0,1.0,,,,,,,,,,,,,,,,,,,,,,,,,
63236,1645583140.3367472,60.0,0.0,4932.307617,4216.922852000001,4272.820313,4296.410156,4680.512695,0.0,4.0,95.0,,,,0.0,4.0,2.0,4.0,0.0,4.0,50.0,,,,,,,,30.0,0.0,0.478022,-0.291748,0.5827640000000001,0.588867,0.917983,-0.41113900000000003,-0.155276,-0.034339,-0.035348000000000004,-0.030895,,,,,,,,,,,,,,,,,,,,,,,,,,,,,,,,,,,,,,,,,,,,,,,,,,,,,,,,,,,,,,,,,
63237,1645583140.344563,61.0,0.0,4860.512695,4234.358886999999,4255.384765999999,4286.666504,4648.717772999999,0.0,4.0,95.0,,,,0.0,4.0,2.0,4.0,0.0,4.0,50.0,,,,,,,,,,,,,,,,,,,,,,,,,,,,,,,,,,,,,,,,,,,,,,,,,,,,,,,,,,,,,,,,,,,,,,,,,,,,,,,,,,,,
63238,1645583140.352378,62.0,0.0,4826.153809,4246.153809,4245.641113000001,4285.641113000001,4622.563965,0.0,4.0,95.0,,,,0.0,4.0,2.0,4.0,0.0,4.0,50.0,,,,,,,,31.0,0.0,0.47831899999999994,-0.291748,0.5825199999999999,0.588867,0.914076,-0.411627,-0.15674100000000002,-0.034421,-0.035378,-0.032884,,,,,,,,,,,,,,,,,,,,,,,,,,,,,,,,,,,,,,,,,,,,,,,,,,,,,,,,,,,,,,,,,
63239,1645583140.360193,63.0,0.0,4777.94873,4286.153809,4253.333496,4289.743652,4590.769043,0.0,4.0,95.0,,,,0.0,4.0,2.0,4.0,0.0,4.0,50.0,,,,,,,,,,,,,,,,,,,,1.0,0.0,0.0,,,,,,,,,,,,,,,,,,,,,,,,,,,,,,,,0.0,0.0,1.0,0.0,512.0,1.0,2.666034,2.301757,3.3979480000000004,2.320748,2.329457,156.827042,136.412216,57.576653,63.851108999999994,22.060778,2.091255,0.957958,0.603669,0.7342029999999999,2.2189259999999997,0.002464,0.001163,0.0007559999999999999,0.00061,0.00045,2.806489,4.0852010000000005,3.111002,2.891239,1.817778
63240,1645583140.368008,64.0,0.0,4674.871582,4263.589844,4243.589844,4287.692383,4522.563965,450.0,4.0,95.0,,,,0.0,4.0,2.0,4.0,0.0,4.0,50.0,,,,,,,,32.0,0.0,0.47831899999999994,-0.291748,0.5825199999999999,0.588867,0.916518,-0.415045,-0.152346,-0.034446,-0.035356,-0.034674,,,,,,,,,,,,,,,,,,,,,,,,,,,,,,,,,,,,,,,,,,,,,,,,,,,,,,,,,,,,,,,,,
63241,1645583140.375823,65.0,0.0,4618.974121,4190.256348,4235.384765999999,4286.666504,4494.871582,450.0,4.0,95.0,,,,0.0,4.0,2.0,4.0,0.0,4.0,50.0,,,,,,,,,,,,,,,,,,,,,,,,,,,,,,,,,,,,,,,,,,,,,,,,,,,,,,,,,,,,,,,,,,,,,,,,,,,,,,,,,,,,
63242,1645583140.3836381,66.0,0.0,4632.307617,4144.615234000001,4250.256348,4288.717772999999,4489.230957,16208.0,4.0,95.0,,,,0.0,4.0,2.0,4.0,0.0,4.0,50.0,,,,,,,,33.0,0.0,0.47862,-0.291748,0.5825199999999999,0.588623,0.9004040000000001,-0.408209,-0.167971,-0.034419,-0.035531,-0.029887999999999998,,,,,,,,,,,,,,,,,,,,,,,,,,,,,,,,,,,,,,,,,,,,,,,,,,,,,,,,,,,,,,,,,
63243,1645583140.391453,67.0,0.0,4586.153809,4165.641113000001,4252.307617,4284.615234000001,4439.487305,450.0,4.0,95.0,,,,0.0,4.0,2.0,4.0,0.0,4.0,50.0,,,,,,,,,,,,,,,,,,,,,,,,,,,,,,,,,,,,,,,,,,,,,,,,,,,,,,10.0,0.0,1.0,0.0,512.0,1.0,,,,,,,,,,,,,,,,,,,,,,,,,
63244,1645583140.399268,68.0,0.0,4511.282227000001,4232.307617,4247.179688,4281.025879,4417.94873,267.0,4.0,95.0,,,,0.0,4.0,2.0,4.0,0.0,4.0,50.0,,,,,,,,34.0,0.0,0.478771,-0.29199200000000003,0.5825199999999999,0.588379,0.917983,-0.41895200000000005,-0.164553,-0.034444,-0.035542000000000004,-0.025727,,,,,,,,,,,,,,,,,,,,,,,,,,,,,,,,,,,,,,,,,,,,,,,,,,,,,,,,,,,,,,,,,
63245,1645583140.407183,69.0,0.0,4513.846191,4215.897461,4250.769043,4283.077147999999,4446.153809,450.0,4.0,95.0,,,,0.0,4.0,2.0,4.0,0.0,4.0,50.0,,,,,,,,,,,,,,,,,,,,,,,,,,,,,,,,,,,,,,,,,,,,,,,,,,,,,,,,,,,,,,,,,,,,,,,,,,,,,,,,,,,,
63246,1645583140.414999,70.0,0.0,4504.615234000001,4126.666504,4244.102539,4283.589844,4413.333496,16193.0,4.0,95.0,,,,0.0,4.0,2.0,4.0,0.0,4.0,50.0,,,,,,,,35.0,0.0,0.478771,-0.29199200000000003,0.5825199999999999,0.588379,0.9184709999999999,-0.401373,-0.1626,-0.034515,-0.035552999999999994,-0.028135000000000004,,,,,,,,,,,,,,,,,,,,,,,,,,,,,,,,,,,,,,,,,,,,,,,,,,,,,,,,,,,,,,,,,
63247,1645583140.4228141,71.0,0.0,4434.871582,4104.615234000001,4226.153809,4282.05127,4346.153809,450.0,4.0,95.0,,,,0.0,4.0,2.0,4.0,0.0,4.0,50.0,,,,,,,,,,,,,,,,,,,,,,,,,,,,,,,,,,,,,,,,,,,,,,,,,,,,,,10.0,0.0,1.0,0.0,512.0,1.0,,,,,,,,,,,,,,,,,,,,,,,,,
63248,1645583140.430629,72.0,0.0,4391.794922,4081.538574,4222.05127,4282.05127,4342.05127,450.0,4.0,95.0,,,,0.0,4.0,2.0,4.0,0.0,4.0,50.0,,,,,,,,36.0,0.0,0.47921899999999995,-0.292236,0.582275,0.5881350000000001,0.91017,-0.393561,-0.15820599999999999,-0.034433,-0.035660000000000004,-0.030302,,,,,,,,,,,,,,,,,,,,,,,,,,,,,,,,,,,,,,,,,,,,,,,,,,,,,,,,,,,,,,,,,
63249,1645583140.438444,73.0,0.0,4385.128418,4021.025635,4236.922852000001,4282.563965,4350.769043,0.0,4.0,95.0,,,,0.0,4.0,2.0,4.0,0.0,4.0,50.0,,,,,,,,,,,,,,,,,,,,,,,,,,,,,,,,,,,,,,,,,,,,,,,,,,,,,,,,,,,,,,,,,,,,,,,,,,,,,,,,,,,,
63250,1645583140.446259,74.0,0.0,4371.282227000001,4054.358887,4225.128418,4282.563965,4323.077147999999,450.0,4.0,95.0,,,,0.0,4.0,2.0,4.0,0.0,4.0,50.0,,,,,,,,37.0,0.0,0.47921899999999995,-0.292236,0.582275,0.5881350000000001,0.9087049999999999,-0.401862,-0.150393,-0.034359,-0.035707,-0.0261,,,,,,,,,,,,,,,,,,,,,,,,,,,,,,,,,,,,,,,,,,,,,,,,,,,,,,,,,,,,,,,,,
63251,1645583140.454074,75.0,0.0,4343.077147999999,4052.3076170000004,4203.077147999999,4282.563965,4288.717772999999,16197.0,4.0,95.0,,,,0.0,4.0,2.0,4.0,0.0,4.0,50.0,,,,,,,,,,,,,,,,,,,,,,,,,,,,,,,,,,,,,,,,,,,,,,,,,,,,,,10.0,0.0,1.0,0.0,512.0,1.0,,,,,,,,,,,,,,,,,,,,,,,,,
63252,1645583140.461889,76.0,0.0,4312.820313,3970.7692869999996,4223.589844,4282.05127,4278.461426,450.0,4.0,95.0,,,,0.0,4.0,2.0,4.0,0.0,4.0,50.0,,,,,,,,38.0,0.0,0.478922,-0.292236,0.5825199999999999,0.5881350000000001,0.9131,-0.39697899999999997,-0.166995,-0.03439,-0.035602999999999996,-0.022269,,,,,,,,,,,,,,,,,,,,,,,,,,,,,,,,,,,,,,,,,,,,,,,,,,,,,,,,,,,,,,,,,
63253,1645583140.469704,77.0,0.0,4307.179688,4016.4101560000004,4240.0,4281.538574,4281.538574,450.0,4.0,95.0,,,,0.0,4.0,2.0,4.0,0.0,4.0,50.0,,,,,,,,,,,,,,,,,,,,,,,,,,,,,,,,,,,,,,,,,,,,,,,,,,,,,,,,,,,,,,,,,,,,,,,,,,,,,,,,,,,,
63254,1645583140.477619,78.0,0.0,4312.820313,4089.743652,4208.205078,4281.538574,4287.692383,450.0,4.0,95.0,,,,0.0,4.0,2.0,4.0,0.0,4.0,50.0,,,,,,,,39.0,0.0,0.478771,-0.29199200000000003,0.5825199999999999,0.588379,0.9028459999999999,-0.39649,-0.16211199999999998,-0.034515,-0.035559,-0.025023,,,,,,,,,,,,,,,,,,,,,,,,,,,,,,,,,,,,,,,,,,,,,,,,,,,,,,,,,,,,,,,,,
63255,1645583140.485435,79.0,0.0,4289.743652,4038.461426,4202.05127,4281.538574,4288.205078,16197.0,4.0,95.0,,,,0.0,4.0,2.0,4.0,0.0,4.0,50.0,,,,,,,,,,,,,,,,,,,,1.0,0.0,0.0,,,,,,,,,,,,,,,,,,,,,,,,,,,,,,,,10.0,0.0,1.0,0.0,512.0,1.0,5.67812,2.7608610000000002,3.8842480000000004,2.4463060000000003,2.354866,156.71051,143.09561200000002,49.330944,55.930965,19.873423000000003,2.062993,1.129884,0.782999,0.588328,2.148904,0.003476,0.001288,0.000857,0.000814,0.000601,4.567623,4.608151,2.811672,2.819618,1.784359
63256,1645583140.49325,80.0,0.0,4271.282227000001,4101.538574,4228.205078,4280.512695,4272.307617,450.0,4.0,95.0,,,,0.0,4.0,2.0,4.0,0.0,4.0,50.0,,,,,,,,40.0,0.0,0.47832299999999994,-0.291748,0.5827640000000001,0.588623,0.900893,-0.391119,-0.14990499999999998,-0.034482,-0.03547,-0.027451999999999997,,,,,,,,,,,,,,,,,,,,,,,,,,,,,,,,,,,,,,,,,,,,,,,,,,,,,,,,,,,,,,,,,
63257,1645583140.501065,81.0,0.0,4270.769043,4220.0,4200.0,4280.512695,4260.512695,450.0,4.0,95.0,,,,0.0,4.0,2.0,4.0,0.0,4.0,50.0,,,,,,,,,,,,,,,,,,,,,,,,,,,,,,,,,,,,,,,,,,,,,,,,,,,,,,,,,,,,,,,,,,,,,,,,,,,,,,,,,,,,
63258,1645583140.5088801,82.0,0.0,4264.615234000001,4162.05127,4178.974121,4280.512695,4263.589844,450.0,4.0,95.0,,,,0.0,4.0,2.0,4.0,0.0,4.0,50.0,,,,,,,,41.0,0.0,0.478471,-0.291504,0.5827640000000001,0.588623,0.901869,-0.40528000000000003,-0.160647,-0.034402999999999996,-0.035389,-0.029736000000000002,,,,,,,,,,,,,,,,,,,,,,,,,,,,,,,,,,,,,,,,,,,,,,,,,,,,,,,,,,,,,,,,,
63259,1645583140.516695,83.0,0.0,4302.563965,4207.692383,4220.0,4280.0,4275.897461,16197.0,4.0,95.0,,,,0.0,4.0,2.0,4.0,0.0,4.0,50.0,,,,,,,,,,,,,,,,,,,,,,,,,,,,,,,,,,,,,,,,,,,,,,,,,,,,,,10.0,0.0,1.0,0.0,512.0,1.0,,,,,,,,,,,,,,,,,,,,,,,,,
63260,1645583140.52451,84.0,0.0,4395.897461,4406.153809,4238.974121,4281.025879,4303.589844,450.0,4.0,95.0,,,,0.0,4.0,2.0,4.0,0.0,4.0,50.0,,,,,,,,42.0,0.0,0.47831999999999997,-0.29125999999999996,0.5827640000000001,0.588867,0.9116350000000001,-0.407233,-0.163577,-0.034283,-0.035317,-0.025542,,,,,,,,,,,,,,,,,,,,,,,,,,,,,,,,,,,,,,,,,,,,,,,,,,,,,,,,,,,,,,,,,
63261,1645583140.532325,85.0,0.0,4483.589844,4367.179688,4229.230957,4282.563965,4361.538574,450.0,4.0,95.0,,,,0.0,4.0,2.0,4.0,0.0,4.0,50.0,,,,,,,,,,,,,,,,,,,,,,,,,,,,,,,,,,,,,,,,,,,,,,,,,,,,,,,,,,,,,,,,,,,,,,,,,,,,,,,,,,,,
63262,1645583140.5401402,86.0,0.0,4571.794922,4196.922852000001,4245.128418,4284.102539,4447.179688,450.0,4.0,95.0,,,,0.0,4.0,2.0,4.0,0.0,4.0,50.0,,,,,,,,43.0,0.0,0.478171,-0.291016,0.583008,0.588867,0.8886850000000001,-0.409186,-0.14844000000000002,-0.034321,-0.035301,-0.028066000000000004,,,,,,,,,,,,,,,,,,,,,,,,,,,,,,,,,,,,,,,,,,,,,,,,,,,,,,,,,,,,,,,,,
63263,1645583140.5480552,87.0,0.0,4667.692383,4210.256348,4255.384765999999,4286.666504,4507.179688,16197.0,4.0,95.0,,,,0.0,4.0,2.0,4.0,0.0,4.0,50.0,,,,,,,,,,,,,,,,,,,,,,,,,,,,,,,,,,,,,,,,,,,,,,,,,,,,,,0.0,0.0,1.0,0.0,512.0,1.0,,,,,,,,,,,,,,,,,,,,,,,,,
63264,1645583140.555871,88.0,0.0,4745.128418,4212.307617,4238.461426,4288.717772999999,4516.410156,450.0,4.0,95.0,,,,0.0,4.0,2.0,4.0,0.0,4.0,50.0,,,,,,,,44.0,0.0,0.478468,-0.291016,0.5827640000000001,0.588867,0.906752,-0.41944,-0.151858,-0.034258,-0.035238,-0.030289,,,,,,,,,,,,,,,,,,,,,,,,,,,,,,,,,,,,,,,,,,,,,,,,,,,,,,,,,,,,,,,,,
63265,1645583140.563686,89.0,0.0,4773.846191,4088.205078,4248.205078,4288.205078,4522.563965,450.0,4.0,95.0,,,,0.0,4.0,2.0,4.0,0.0,4.0,50.0,,,,,,,,,,,,,,,,,,,,,,,,,,,,,,,,,,,,,,,,,,,,,,,,,,,,,,,,,,,,,,,,,,,,,,,,,,,,,,,,,,,,
63266,1645583140.571501,90.0,0.0,4741.025879,4102.05127,4272.307617,4287.692383,4544.102539,450.0,4.0,95.0,,,,0.0,4.0,2.0,4.0,0.0,4.0,50.0,,,,,,,,45.0,0.0,0.478617,-0.29125999999999996,0.5825199999999999,0.588867,0.904799,-0.404791,-0.15820599999999999,-0.034251,-0.035181,-0.032289,,,,,,,,,,,,,,,,,,,,,,,,,,,,,,,,,,,,,,,,,,,,,,,,,,,,,,,,,,,,,,,,,
63267,1645583140.579316,91.0,0.0,4718.461426,4234.358886999999,4264.615234000001,4288.205078,4528.205078,16197.0,4.0,95.0,,,,0.0,4.0,2.0,4.0,0.0,4.0,50.0,,,,,,,,,,,,,,,,,,,,,,,,,,,,,,,,,,,,,,,,,,,,,,,,,,,,,,0.0,0.0,1.0,0.0,512.0,1.0,,,,,,,,,,,,,,,,,,,,,,,,,
63268,1645583140.587131,92.0,0.0,4735.897461,4242.563965,4249.743652,4287.179688,4493.333496,450.0,4.0,95.0,,,,0.0,4.0,2.0,4.0,0.0,4.0,50.0,,,,,,,,46.0,0.0,0.47876499999999994,-0.291504,0.582275,0.588867,0.9155409999999999,-0.409186,-0.152834,-0.034244,-0.035179,-0.027888999999999997,,,,,,,,,,,,,,,,,,,,,,,,,,,,,,,,,,,,,,,,,,,,,,,,,,,,,,,,,,,,,,,,,
63269,1645583140.5949461,93.0,0.0,4705.128418,4210.769043,4245.641113000001,4286.666504,4493.846191,450.0,4.0,95.0,,,,0.0,4.0,2.0,4.0,0.0,4.0,50.0,,,,,,,,,,,,,,,,,,,,,,,,,,,,,,,,,,,,,,,,,,,,,,,,,,,,,,,,,,,,,,,,,,,,,,,,,,,,,,,,,,,,
63270,1645583140.602761,94.0,0.0,4587.179688,4278.974121,4242.05127,4288.205078,4465.128418,450.0,4.0,95.0,,,,0.0,4.0,2.0,4.0,0.0,4.0,50.0,,,,,,,,47.0,0.0,0.479062,-0.291504,0.5820310000000001,0.588867,0.913588,-0.408698,-0.160159,-0.034237000000000004,-0.035176,-0.023928,,,,,,,,,,,,,,,,,,,,,,,,,,,,,,,,,,,,,,,,,,,,,,,,,,,,,,,,,,,,,,,,,
63271,1645583140.610576,95.0,0.0,4500.0,4305.128418,4232.307617,4286.666504,4413.333496,16197.0,4.0,95.0,,,,0.0,4.0,2.0,4.0,0.0,4.0,50.0,,,,,,,,,,,,,,,,,,,,1.0,0.0,0.0,,,,,,,,,,,,,,,,,,,,,,,,,,,,,,,,0.0,0.0,1.0,0.0,512.0,0.959254,23.651728,3.8997050000000004,4.670205,2.501656,2.443723,144.643814,144.63064599999998,44.608173,47.830566,19.044855,2.0745299999999998,1.3967379999999998,0.9776290000000001,0.454189,2.0626580000000003,0.011223,0.002583,0.0021579999999999998,0.001772,0.001031,11.888621,5.483115,2.530514,2.650408,1.7597470000000002
63272,1645583140.618491,96.0,0.0,4493.846191,4215.384765999999,4219.487305,4282.05127,4423.589844,450.0,4.0,95.0,,,,0.0,4.0,2.0,4.0,0.0,4.0,50.0,,,,,,,,48.0,0.0,0.47891000000000006,-0.291748,0.5817869999999999,0.5891109999999999,0.9306780000000001,-0.403326,-0.159182,-0.034183,-0.035174000000000004,-0.026563999999999997,,,,,,,,,,,,,,,,,,,,,,,,,,,,,,,,,,,,,,,,,,,,,,,,,,,,,,,,,,,,,,,,,
63273,1645583140.626307,97.0,0.0,4491.282227000001,4173.846191,4221.025879,4280.0,4430.256348,450.0,4.0,95.0,,,,0.0,4.0,2.0,4.0,0.0,4.0,50.0,,,,,,,,,,,,,,,,,,,,,,,,,,,,,,,,,,,,,,,,,,,,,,,,,,,,,,,,,,,,,,,,,,,,,,,,,,,,,,,,,,,,
63274,1645583140.6341221,98.0,0.0,4420.512695,4211.794922,4222.05127,4281.538574,4363.077147999999,450.0,4.0,95.0,,,,0.0,4.0,2.0,4.0,0.0,4.0,50.0,,,,,,,,49.0,0.0,0.47876499999999994,-0.291504,0.582275,0.588867,0.9155409999999999,-0.409186,-0.152834,-0.034182,-0.035124,-0.022687,,,,,,,,,,,,,,,,,,,,,,,,,,,,,,,,,,,,,,,,,,,,,,,,,,,,,,,,,,,,,,,,,
63275,1645583140.641937,99.0,0.0,4312.307617,4154.871582,4197.94873,4281.025879,4308.205078,16197.0,4.0,95.0,,,,0.0,4.0,2.0,4.0,0.0,4.0,50.0,,,,,,,,,,,,,,,,,,,,,,,,,,,,,,,,,,,,,,,,,,,,,,,,,,,,,,10.0,0.0,1.0,0.0,512.0,0.959254,,,,,,,,,,,,,,,,,,,,,,,,,
63276,1645583140.649752,100.0,0.0,4275.384765999999,4098.974121,4188.205078,4281.538574,4300.512695,450.0,4.0,95.0,,,,0.0,4.0,2.0,4.0,0.0,4.0,50.0,,,,,,,,50.0,0.0,0.47891000000000006,-0.291748,0.5817869999999999,0.5891109999999999,0.9306780000000001,-0.403326,-0.159182,-0.034133,-0.035127,-0.025448,,,,,,,,,,,,,,,,,,,,,,,,,,,,,,,,,,,,,,,,,,,,,,,,,,,,,,,,,,,,,,,,,
63277,1645583140.657567,101.0,0.0,4303.077147999999,4158.461426,4213.846191,4283.077147999999,4272.307617,450.0,4.0,95.0,,,,0.0,4.0,2.0,4.0,0.0,4.0,50.0,,,,,,,,,,,,,,,,,,,,,,,,,,,,,,,,,,,,,,,,,,,,,,,,,,,,,,,,,,,,,,,,,,,,,,,,,,,,,,,,,,,,
63278,1645583140.6653821,102.0,0.0,4311.282227000001,4177.94873,4212.820313,4281.538574,4263.077147999999,450.0,4.0,95.0,,,,0.0,4.0,2.0,4.0,0.0,4.0,50.0,,,,,,,,51.0,0.0,0.479059,-0.291504,0.5817869999999999,0.5891109999999999,0.9038219999999999,-0.41260399999999997,-0.166995,-0.034089,-0.035276999999999996,-0.028030000000000003,,,,,,,,,,,,,,,,,,,,,,,,,,,,,,,,,,,,,,,,,,,,,,,,,,,,,,,,,,,,,,,,,
63279,1645583140.673197,103.0,0.0,4278.974121,4068.718018,4188.205078,4280.512695,4299.487305,16197.0,4.0,95.0,,,,0.0,4.0,2.0,4.0,0.0,4.0,50.0,,,,,,,,,,,,,,,,,,,,,,,,,,,,,,,,,,,,,,,,,,,,,,,,,,,,,,10.0,0.0,1.0,0.0,512.0,0.959254,,,,,,,,,,,,,,,,,,,,,,,,,
63280,1645583140.681012,104.0,0.0,4242.563965,3934.358887,4204.102539,4283.077147999999,4292.307617,450.0,4.0,95.0,,,,0.0,4.0,2.0,4.0,0.0,4.0,50.0,,,,,,,,52.0,0.0,0.47890699999999997,-0.29125999999999996,0.5817869999999999,0.5893550000000001,0.903334,-0.40528000000000003,-0.167483,-0.034098,-0.035313,-0.024055,,,,,,,,,,,,,,,,,,,,,,,,,,,,,,,,,,,,,,,,,,,,,,,,,,,,,,,,,,,,,,,,,
63281,1645583140.688828,105.0,0.0,4224.102539,3884.102539,4230.769043,4282.563965,4239.487305,450.0,4.0,95.0,,,,0.0,4.0,2.0,4.0,0.0,4.0,50.0,,,,,,,,,,,,,,,,,,,,,,,,,,,,,,,,,,,,,,,,,,,,,,,,,,,,,,,,,,,,,,,,,,,,,,,,,,,,,,,,,,,,
63282,1645583140.696743,106.0,0.0,4218.974121,3950.7692869999996,4219.487305,4280.0,4224.102539,450.0,4.0,95.0,,,,0.0,4.0,2.0,4.0,0.0,4.0,50.0,,,,,,,,53.0,0.0,0.478758,-0.291016,0.5820310000000001,0.5893550000000001,0.9126120000000001,-0.406744,-0.172854,-0.034058,-0.035347,-0.026777,,,,,,,,,,,,,,,,,,,,,,,,,,,,,,,,,,,,,,,,,,,,,,,,,,,,,,,,,,,,,,,,,
63283,1645583140.704558,107.0,0.0,4222.05127,4070.7692869999996,4204.615234000001,4280.512695,4251.794922,16197.0,4.0,95.0,,,,0.0,4.0,2.0,4.0,0.0,4.0,50.0,,,,,,,,,,,,,,,,,,,,,,,,,,,,,,,,,,,,,,,,,,,,,,,,,,,,,,10.0,0.0,1.0,0.0,512.0,0.959254,,,,,,,,,,,,,,,,,,,,,,,,,
63284,1645583140.712373,108.0,0.0,4196.410156,4093.8461909999996,4207.692383,4282.05127,4255.384765999999,450.0,4.0,95.0,,,,0.0,4.0,2.0,4.0,0.0,4.0,50.0,,,,,,,,54.0,0.0,0.47845699999999997,-0.290527,0.582275,0.5896,0.9028459999999999,-0.404791,-0.172854,-0.034069999999999996,-0.035328,-0.029176999999999998,,,,,,,,,,,,,,,,,,,,,,,,,,,,,,,,,,,,,,,,,,,,,,,,,,,,,,,,,,,,,,,,,
63285,1645583140.7201881,109.0,0.0,4157.436035,4057.9487299999996,4212.820313,4280.512695,4207.179688,450.0,4.0,95.0,,,,0.0,4.0,2.0,4.0,0.0,4.0,50.0,,,,,,,,,,,,,,,,,,,,,,,,,,,,,,,,,,,,,,,,,,,,,,,,,,,,,,,,,,,,,,,,,,,,,,,,,,,,,,,,,,,,
63286,1645583140.728003,110.0,0.0,4175.384765999999,4132.307617,4211.794922,4280.0,4169.230957,450.0,4.0,95.0,,,,0.0,4.0,2.0,4.0,0.0,4.0,50.0,,,,,,,,55.0,0.0,0.47800699999999996,-0.290283,0.5825199999999999,0.5898439999999999,0.903334,-0.399908,-0.16406500000000002,-0.034081,-0.035407999999999995,-0.031338,,,,,,,,,,,,,,,,,,,,,,,,,,,,,,,,,,,,,,,,,,,,,,,,,,,,,,,,,,,,,,,,,
63287,1645583140.735818,111.0,0.0,4220.512695,4262.563965,4198.461426,4280.512695,4187.692383,16197.0,4.0,95.0,,,,0.0,4.0,2.0,4.0,0.0,4.0,50.0,1.0,25.0,3.0,0.0,4.0,0.0,3.0,,,,,,,,,,,,,1.0,0.0,0.0,,,,,,,,,,,,,,,,,,,,,,,,,,,,,,,,10.0,0.0,1.0,0.0,512.0,0.644678,75.907471,6.215607,5.951411,2.48929,2.579231,124.20496399999999,141.11303700000002,44.119869,41.698059,19.11743,2.306447,1.780038,1.1452309999999999,0.359904,1.976609,0.035823,0.006812,0.006147,0.004524,0.002105,31.187546,6.726108,2.629709,2.432676,1.7641080000000002
63288,1645583140.743633,112.0,0.0,4221.025879,4255.897461,4185.641113000001,4280.512695,4218.974121,450.0,4.0,95.0,,,,0.0,4.0,2.0,4.0,0.0,4.0,50.0,,,,,,,,56.0,0.0,0.47800600000000004,-0.28979499999999997,0.5827640000000001,0.5898439999999999,0.925795,-0.398932,-0.163577,-0.034091,-0.035334,-0.033282,,,,,,,,,,,,,,,,,,,,,,,,,,,,,,,,,,,,,,,,,,,,,,,,,,,,,,,,,,,,,,,,,
63289,1645583140.751548,113.0,0.0,4228.205078,4172.307617,4201.538574,4280.512695,4232.820313,450.0,4.0,95.0,,,,0.0,4.0,2.0,4.0,0.0,4.0,50.0,,,,,,,,,,,,,,,,,,,,,,,,,,,,,,,,,,,,,,,,,,,,,,,,,,,,,,,,,,,,,,,,,,,,,,,,,,,,,,,,,,,,
63290,1645583140.7593632,114.0,0.0,4286.153809,4171.794922,4225.128418,4280.0,4254.871582,450.0,4.0,95.0,,,,0.0,4.0,2.0,4.0,0.0,4.0,50.0,,,,,,,,57.0,0.0,0.477558,-0.289551,0.583252,0.5898439999999999,0.923842,-0.41065100000000004,-0.15820599999999999,-0.034198,-0.035365,-0.035032,,,,,,,,,,,,,,,,,,,,,,,,,,,,,,,,,,,,,,,,,,,,,,,,,,,,,,,,,,,,,,,,,
63291,1645583140.767179,115.0,0.0,4339.487305,4141.025879,4225.128418,4280.512695,4297.436035,16197.0,4.0,95.0,,,,0.0,4.0,2.0,4.0,0.0,4.0,50.0,,,,,,,,,,,,,,,,,,,,,,,,,,,,,,,,,,,,,,,,,,,,,,,,,,,,,,10.0,0.0,1.0,0.0,512.0,0.644678,,,,,,,,,,,,,,,,,,,,,,,,,
63292,1645583140.774994,116.0,0.0,4422.563965,4015.897461,4225.128418,4281.538574,4347.692383,450.0,4.0,95.0,,,,0.0,4.0,2.0,4.0,0.0,4.0,50.0,,,,,,,,58.0,0.0,0.477558,-0.289551,0.583252,0.5898439999999999,0.916518,-0.40528000000000003,-0.16211199999999998,-0.034489,-0.035344,-0.036558,,,,,,,,,,,,,,,,,,,,,,,,,,,,,,,,,,,,,,,,,,,,,,,,,,,,,,,,,,,,,,,,,
63293,1645583140.782809,117.0,0.0,4564.102539,3984.615479,4232.307617,4283.077147999999,4412.307617,450.0,4.0,95.0,,,,0.0,4.0,2.0,4.0,0.0,4.0,50.0,,,,,,,,,,,,,,,,,,,,,,,,,,,,,,,,,,,,,,,,,,,,,,,,,,,,,,,,,,,,,,,,,,,,,,,,,,,,,,,,,,,,
63294,1645583140.7906241,118.0,0.0,4660.0,4102.563965,4237.436035,4285.641113000001,4484.615234000001,450.0,4.0,95.0,,,,0.0,4.0,2.0,4.0,0.0,4.0,50.0,,,,,,,,59.0,0.0,0.477706,-0.28930700000000004,0.583252,0.5898439999999999,0.8964979999999999,-0.41358100000000003,-0.153811,-0.034408999999999995,-0.035521,-0.031876999999999996,,,,,,,,,,,,,,,,,,,,,,,,,,,,,,,,,,,,,,,,,,,,,,,,,,,,,,,,,,,,,,,,,
63295,1645583140.798439,119.0,0.0,4675.897461,4175.897461,4241.025879,4286.666504,4511.282227000001,16197.0,4.0,95.0,,,,0.0,4.0,2.0,4.0,0.0,4.0,50.0,,,,,,,,,,,,,,,,,,,,,,,,,,,,,,,,,,,,,,,,,,,,,,,,,,,,,,0.0,0.0,1.0,0.0,512.0,0.644678,,,,,,,,,,,,,,,,,,,,,,,,,
63296,1645583140.806254,120.0,0.0,4678.461426,4153.333496,4240.512695,4287.179688,4496.410156,450.0,4.0,95.0,,,,0.0,4.0,2.0,4.0,0.0,4.0,50.0,,,,,,,,60.0,0.0,0.477703,-0.28930700000000004,0.583008,0.5900880000000001,0.8955209999999999,-0.41065100000000004,-0.157717,-0.034386,-0.035338,-0.033768,,,,,,,,,,,,,,,,,,,,,,,,,,,,,,,,,,,,,,,,,,,,,,,,,,,,,,,,,,,,,,,,,
63297,1645583140.814069,121.0,0.0,4688.205078,4146.666504,4239.487305,4288.717772999999,4504.615234000001,450.0,4.0,95.0,,,,0.0,4.0,2.0,4.0,0.0,4.0,50.0,,,,,,,,,,,,,,,,,,,,,,,,,,,,,,,,,,,,,,,,,,,,,,,,,,,,,,,,,,,,,,,,,,,,,,,,,,,,,,,,,,,,
63298,1645583140.821984,122.0,0.0,4685.641113000001,4203.077147999999,4238.974121,4288.205078,4527.692383,450.0,4.0,95.0,,,,0.0,4.0,2.0,4.0,0.0,4.0,50.0,,,,,,,,61.0,0.0,0.47785299999999997,-0.289551,0.5827640000000001,0.5900880000000001,0.8969860000000001,-0.41260399999999997,-0.15674100000000002,-0.034366,-0.03532,-0.029219,,,,,,,,,,,,,,,,,,,,,,,,,,,,,,,,,,,,,,,,,,,,,,,,,,,,,,,,,,,,,,,,,
63299,1645583140.829799,123.0,0.0,4636.410156,4250.769043,4231.794922,4286.666504,4499.487305,16197.0,4.0,95.0,,,,0.0,4.0,2.0,4.0,0.0,4.0,50.0,,,,,,,,,,,,,,,,,,,,,,,,,,,,,,,,,,,,,,,,,,,,,,,,,,,,,,0.0,0.0,1.0,0.0,512.0,0.644678,,,,,,,,,,,,,,,,,,,,,,,,,
63300,1645583140.837615,124.0,0.0,4540.512695,4245.128418,4228.205078,4288.717772999999,4434.871582,450.0,4.0,95.0,,,,0.0,4.0,2.0,4.0,0.0,4.0,50.0,,,,,,,,62.0,0.0,0.47815,-0.289551,0.5825199999999999,0.5900880000000001,0.9155409999999999,-0.41651000000000005,-0.157717,-0.034395999999999996,-0.03545,-0.031375,,,,,,,,,,,,,,,,,,,,,,,,,,,,,,,,,,,,,,,,,,,,,,,,,,,,,,,,,,,,,,,,,
63301,1645583140.8454301,125.0,0.0,4493.846191,4238.974121,4222.563965,4288.205078,4396.922852000001,450.0,4.0,95.0,,,,0.0,4.0,2.0,4.0,0.0,4.0,50.0,,,,,,,,,,,,,,,,,,,,,,,,,,,,,,,,,,,,,,,,,,,,,,,,,,,,,,,,,,,,,,,,,,,,,,,,,,,,,,,,,,,,
63302,1645583140.853245,126.0,0.0,4508.717772999999,4288.717772999999,4205.128418,4283.077147999999,4382.05127,450.0,4.0,95.0,,,,0.0,4.0,2.0,4.0,0.0,4.0,50.0,,,,,,,,63.0,0.0,0.47815,-0.289551,0.5825199999999999,0.5900880000000001,0.8989389999999999,-0.41895200000000005,-0.15820599999999999,-0.034374,-0.035421,-0.033414,,,,,,,,,,,,,,,,,,,,,,,,,,,,,,,,,,,,,,,,,,,,,,,,,,,,,,,,,,,,,,,,,
63303,1645583140.86106,127.0,0.0,4495.897461,4370.256348,4196.410156,4281.538574,4378.461426,243.0,4.0,95.0,,,,0.0,4.0,2.0,4.0,0.0,4.0,50.0,,,,,,,,,,,,,,,,,,,,1.0,0.0,0.0,,,,,,,,,,,,,,,,,,,,,,,,,,,,,,,,0.0,0.0,1.0,0.0,512.0,0.988851,183.49856599999998,10.904492,7.911182000000001,2.438168,2.767419,104.667534,135.077026,47.502602,38.489964,19.734811999999998,3.005916,2.248653,1.2584819999999999,0.322307,1.897198,0.086171,0.016127000000000002,0.013459,0.009792,0.004072,68.399315,8.447554,3.4352699999999996,2.225094,1.819663
63304,1645583140.868875,0.0,0.0,4433.333496,4346.666504,4188.205078,4283.589844,4362.563965,450.0,4.0,95.0,,,,0.0,4.0,2.0,4.0,0.0,4.0,50.0,,,,,,,,0.0,0.0,0.47874799999999995,-0.289551,0.582275,0.5898439999999999,0.902358,-0.41651000000000005,-0.160647,-0.034453,-0.035394,-0.03515,,,,,,,,,,,,,,,,,,,,,,,,,,,,,,,,,,,,,,,,,,,,,,,,,,,,,,,,,,,,,,,,,
63305,1645583140.8766901,1.0,0.0,4362.05127,4273.846191,4181.025879,4283.077147999999,4328.205078,450.0,4.0,95.0,,,,0.0,4.0,2.0,4.0,0.0,4.0,50.0,,,,,,,,,,,,,,,,,,,,,,,,,,,,,,,,,,,,,,,,,,,,,,,,,,,,,,,,,,,,,,,,,,,,,,,,,,,,,,,,,,,,
63306,1645583140.884505,2.0,0.0,4324.102539,4282.563965,4193.333496,4281.538574,4312.820313,16224.0,4.0,95.0,,,,0.0,4.0,2.0,4.0,0.0,4.0,50.0,,,,,,,,1.0,0.0,0.47874799999999995,-0.289551,0.582275,0.5898439999999999,0.9116350000000001,-0.42090500000000003,-0.171389,-0.034425,-0.035322000000000006,-0.030414999999999998,,,,,,,,,,,,,,,,,,,,,,,,,,,,,,,,,,,,,,,,,,,,,,,,,,,,,,,,,,,,,,,,,
63307,1645583140.89232,3.0,0.0,4322.563965,4256.410156,4188.205078,4282.05127,4322.563965,450.0,4.0,95.0,,,,0.0,4.0,2.0,4.0,0.0,4.0,50.0,,,,,,,,,,,,,,,,,,,,,,,,,,,,,,,,,,,,,,,,,,,,,,,,,,,,,,10.0,0.0,1.0,0.0,512.0,0.988851,,,,,,,,,,,,,,,,,,,,,,,,,
63308,1645583140.900235,4.0,0.0,4309.743652,4205.641113000001,4162.05127,4283.589844,4329.743652,278.0,4.0,95.0,,,,0.0,4.0,2.0,4.0,0.0,4.0,50.0,,,,,,,,2.0,0.0,0.479049,-0.289551,0.582275,0.5896,0.910658,-0.41358100000000003,-0.161624,-0.034303,-0.035256,-0.032451,,,,,,,,,,,,,,,,,,,,,,,,,,,,,,,,,,,,,,,,,,,,,,,,,,,,,,,,,,,,,,,,,
63309,1645583140.908051,5.0,0.0,4250.769043,4275.384765999999,4172.820313,4283.589844,4287.692383,450.0,4.0,95.0,,,,0.0,4.0,2.0,4.0,0.0,4.0,50.0,,,,,,,,,,,,,,,,,,,,,,,,,,,,,,,,,,,,,,,,,,,,,,,,,,,,,,,,,,,,,,,,,,,,,,,,,,,,,,,,,,,,
63310,1645583140.915866,6.0,0.0,4212.820313,4318.461426,4205.128418,4283.589844,4239.487305,16250.0,4.0,95.0,,,,0.0,4.0,2.0,4.0,0.0,4.0,50.0,,,,,,,,3.0,0.0,0.479049,-0.289551,0.582275,0.5896,0.9077290000000001,-0.41846300000000003,-0.166506,-0.034291,-0.035247,-0.028033999999999996,,,,,,,,,,,,,,,,,,,,,,,,,,,,,,,,,,,,,,,,,,,,,,,,,,,,,,,,,,,,,,,,,
63311,1645583140.923681,7.0,0.0,4231.282227000001,4201.025879,4192.307617,4283.589844,4263.589844,450.0,4.0,95.0,,,,0.0,4.0,2.0,4.0,0.0,4.0,50.0,,,,,,,,,,,,,,,,,,,,,,,,,,,,,,,,,,,,,,,,,,,,,,,,,,,,,,10.0,0.0,1.0,0.0,512.0,0.988851,,,,,,,,,,,,,,,,,,,,,,,,,
63312,1645583140.9314961,8.0,0.0,4232.820313,4138.461426,4165.128418,4283.589844,4290.256348,450.0,4.0,95.0,,,,0.0,4.0,2.0,4.0,0.0,4.0,50.0,,,,,,,,4.0,0.0,0.479202,-0.28979499999999997,0.582275,0.5893550000000001,0.901381,-0.408698,-0.158694,-0.03428,-0.035238,-0.030309,,,,,,,,,,,,,,,,,,,,,,,,,,,,,,,,,,,,,,,,,,,,,,,,,,,,,,,,,,,,,,,,,
63313,1645583140.939311,9.0,0.0,4180.512695,4222.563965,4174.358886999999,4284.102539,4236.410156,0.0,4.0,95.0,,,,0.0,4.0,2.0,4.0,0.0,4.0,50.0,,,,,,,,,,,,,,,,,,,,,,,,,,,,,,,,,,,,,,,,,,,,,,,,,,,,,,,,,,,,,,,,,,,,,,,,,,,,,,,,,,,,
63314,1645583140.947126,10.0,0.0,4142.563965,4303.589844,4196.922852000001,4283.077147999999,4181.538574,450.0,4.0,95.0,,,,0.0,4.0,2.0,4.0,0.0,4.0,50.0,,,,,,,,5.0,0.0,0.479351,-0.290039,0.5820310000000001,0.5893550000000001,0.9091940000000001,-0.41699899999999995,-0.169436,-0.03427,-0.035278,-0.026155,,,,,,,,,,,,,,,,,,,,,,,,,,,,,,,,,,,,,,,,,,,,,,,,,,,,,,,,,,,,,,,,,
63315,1645583140.954941,11.0,0.0,4160.512695,4335.384765999999,4194.871582,4280.512695,4203.077147999999,16251.0,4.0,95.0,,,,0.0,4.0,2.0,4.0,0.0,4.0,50.0,,,,,,,,,,,,,,,,,,,,,,,,,,,,,,,,,,,,,,,,,,,,,,,,,,,,,,10.0,0.0,1.0,0.0,512.0,0.988851,,,,,,,,,,,,,,,,,,,,,,,,,
63316,1645583140.9627562,12.0,0.0,4160.0,4323.589844,4177.94873,4279.487305,4232.307617,450.0,4.0,95.0,,,,0.0,4.0,2.0,4.0,0.0,4.0,50.0,,,,,,,,6.0,0.0,0.47935500000000003,-0.290527,0.5820310000000001,0.5891109999999999,0.9155409999999999,-0.41699899999999995,-0.161135,-0.034359,-0.035217,-0.028618,,,,,,,,,,,,,,,,,,,,,,,,,,,,,,,,,,,,,,,,,,,,,,,,,,,,,,,,,,,,,,,,,
63317,1645583140.9706712,13.0,0.0,4121.538574,4252.820313,4179.487305,4281.025879,4225.128418,450.0,4.0,95.0,,,,0.0,4.0,2.0,4.0,0.0,4.0,50.0,,,,,,,,,,,,,,,,,,,,,,,,,,,,,,,,,,,,,,,,,,,,,,,,,,,,,,,,,,,,,,,,,,,,,,,,,,,,,,,,,,,,
63318,1645583140.978487,14.0,0.0,4110.256348,4185.641113000001,4204.102539,4281.025879,4200.512695,450.0,4.0,95.0,,,,0.0,4.0,2.0,4.0,0.0,4.0,50.0,,,,,,,,7.0,0.0,0.47950299999999996,-0.290771,0.5817869999999999,0.5891109999999999,0.898451,-0.407233,-0.152346,-0.034437999999999996,-0.035065,-0.024584,,,,,,,,,,,,,,,,,,,,,,,,,,,,,,,,,,,,,,,,,,,,,,,,,,,,,,,,,,,,,,,,,
63319,1645583140.986302,15.0,0.0,4130.256348,4192.820313,4220.512695,4279.487305,4164.102539,16251.0,4.0,95.0,,,,0.0,4.0,2.0,4.0,0.0,4.0,50.0,,,,,,,,,,,,,,,,,,,,1.0,0.0,0.0,,,,,,,,,,,,,,,,,,,,,,,,,,,,,,,,10.0,0.0,1.0,0.0,512.0,1.0,367.408386,21.083,10.614944,2.409405,3.0623549999999997,93.462151,131.360031,53.761677,37.685638,20.654170999999998,4.443385,2.768839,1.304676,0.340091,1.8188080000000002,0.165251,0.032497000000000005,0.023326,0.017279,0.006848999999999999,129.31778,11.271511,5.111397,2.083272,1.944379
63320,1645583140.994117,16.0,0.0,4131.794922,4248.205078,4206.666504,4278.974121,4150.256348,0.0,4.0,95.0,,,,0.0,4.0,2.0,4.0,0.0,4.0,50.0,,,,,,,,8.0,0.0,0.479351,-0.290039,0.5820310000000001,0.5893550000000001,0.9091940000000001,-0.41699899999999995,-0.169436,-0.034413,-0.035123,-0.021003,,,,,,,,,,,,,,,,,,,,,,,,,,,,,,,,,,,,,,,,,,,,,,,,,,,,,,,,,,,,,,,,,
63321,1645583141.0019321,17.0,0.0,4117.436035,4292.820313,4185.641113000001,4278.461426,4165.641113000001,0.0,4.0,95.0,,,,0.0,4.0,2.0,4.0,0.0,4.0,50.0,,,,,,,,,,,,,,,,,,,,,,,,,,,,,,,,,,,,,,,,,,,,,,,,,,,,,,,,,,,,,,,,,,,,,,,,,,,,,,,,,,,,
63322,1645583141.009747,18.0,0.0,4112.820313,4311.794922,4184.615234000001,4278.461426,4171.282227000001,0.0,4.0,95.0,,,,0.0,4.0,2.0,4.0,0.0,4.0,50.0,,,,,,,,9.0,0.0,0.479207,-0.29125999999999996,0.5817869999999999,0.5891109999999999,0.897475,-0.41406899999999996,-0.166995,-0.034388999999999996,-0.035126,-0.017731,,,,,,,,,,,,,,,,,,,,,,,,,,,,,,,,,,,,,,,,,,,,,,,,,,,,,,,,,,,,,,,,,
63323,1645583141.017562,19.0,0.0,4095.384521,4340.512695,4189.743652,4280.0,4147.692383,0.0,4.0,95.0,,,,0.0,4.0,2.0,4.0,0.0,4.0,50.0,,,,,,,,,,,,,,,,,,,,,,,,,,,,,,,,,,,,,,,,,,,,,,,,,,,,,,10.0,0.0,1.0,0.0,512.0,1.0,,,,,,,,,,,,,,,,,,,,,,,,,
63324,1645583141.025377,20.0,0.0,4078.461426,4398.461426,4196.922852000001,4282.05127,4126.153809,0.0,4.0,95.0,,,,0.0,4.0,2.0,4.0,0.0,4.0,50.0,,,,,,,,10.0,0.0,0.479655,-0.291504,0.581543,0.588867,0.9121229999999999,-0.393072,-0.16846,-0.034319999999999996,-0.035177999999999994,-0.020987000000000002,,,,,,,,,,,,,,,,,,,,,,,,,,,,,,,,,,,,,,,,,,,,,,,,,,,,,,,,,,,,,,,,,
63325,1645583141.033192,21.0,0.0,4087.6923829999996,4399.487305,4211.794922,4281.538574,4128.717772999999,0.0,4.0,95.0,,,,0.0,4.0,2.0,4.0,0.0,4.0,50.0,,,,,,,,,,,,,,,,,,,,,,,,,,,,,,,,,,,,,,,,,,,,,,,,,,,,,,,,,,,,,,,,,,,,,,,,,,,,,,,,,,,,
63326,1645583141.041107,22.0,0.0,4104.102539,4346.153809,4207.692383,4279.487305,4146.153809,0.0,4.0,95.0,,,,0.0,4.0,2.0,4.0,0.0,4.0,50.0,,,,,,,,11.0,0.0,0.47980200000000006,-0.291748,0.581299,0.588867,0.9126120000000001,-0.39453699999999997,-0.159182,-0.034306,-0.035225,-0.017716,,,,,,,,,,,,,,,,,,,,,,,,,,,,,,,,,,,,,,,,,,,,,,,,,,,,,,,,,,,,,,,,,
63327,1645583141.048923,23.0,0.0,4109.743652,4385.641113000001,4193.333496,4279.487305,4161.538574,0.0,4.0,95.0,,,,0.0,4.0,2.0,4.0,0.0,4.0,50.0,,,,,,,,,,,,,,,,,,,,,,,,,,,,,,,,,,,,,,,,,,,,,,,,,,,,,,0.0,0.0,1.0,0.0,512.0,1.0,,,,,,,,,,,,,,,,,,,,,,,,,
63328,1645583141.0567381,24.0,0.0,4112.307617,4412.307617,4198.461426,4281.538574,4163.589844,0.0,4.0,95.0,,,,0.0,4.0,2.0,4.0,0.0,4.0,50.0,,,,,,,,12.0,0.0,0.47980200000000006,-0.291748,0.581299,0.588867,0.9150530000000001,-0.39942,-0.166018,-0.03444,-0.035169,-0.02112,,,,,,,,,,,,,,,,,,,,,,,,,,,,,,,,,,,,,,,,,,,,,,,,,,,,,,,,,,,,,,,,,
63329,1645583141.064553,25.0,0.0,4096.410156,4207.692383,4207.692383,4282.05127,4143.589844,0.0,4.0,95.0,,,,0.0,4.0,2.0,4.0,0.0,4.0,50.0,,,,,,,,,,,,,,,,,,,,,,,,,,,,,,,,,,,,,,,,,,,,,,,,,,,,,,,,,,,,,,,,,,,,,,,,,,,,,,,,,,,,
63330,1645583141.072368,26.0,0.0,4072.820557,4086.6667479999996,4202.05127,4281.025879,4122.563965,0.0,4.0,95.0,,,,0.0,4.0,2.0,4.0,0.0,4.0,50.0,,,,,,,,13.0,0.0,0.47980200000000006,-0.291748,0.581299,0.588867,0.9072399999999999,-0.39697899999999997,-0.163577,-0.034414,-0.035217,-0.024087,,,,,,,,,,,,,,,,,,,,,,,,,,,,,,,,,,,,,,,,,,,,,,,,,,,,,,,,,,,,,,,,,
63331,1645583141.080183,27.0,0.0,4088.718018,4289.743652,4198.974121,4279.487305,4116.922852000001,0.0,4.0,95.0,,,,0.0,4.0,2.0,4.0,0.0,4.0,50.0,,,,,,,,,,,,,,,,,,,,,,,,,,,,,,,,,,,,,,,,,,,,,,,,,,,,,,0.0,0.0,1.0,0.0,512.0,1.0,,,,,,,,,,,,,,,,,,,,,,,,,
63332,1645583141.0879982,28.0,0.0,4112.820313,4450.256348,4202.05127,4277.436035,4111.794922,0.0,4.0,95.0,,,,0.0,4.0,2.0,4.0,0.0,4.0,50.0,,,,,,,,14.0,0.0,0.47965399999999997,-0.29199200000000003,0.581299,0.588867,0.916518,-0.393072,-0.160647,-0.034488,-0.035211,-0.026706999999999998,,,,,,,,,,,,,,,,,,,,,,,,,,,,,,,,,,,,,,,,,,,,,,,,,,,,,,,,,,,,,,,,,
63333,1645583141.095813,29.0,0.0,4107.179688,4389.230957,4191.794922,4276.410156,4118.461426,0.0,4.0,95.0,,,,0.0,4.0,2.0,4.0,0.0,4.0,50.0,,,,,,,,,,,,,,,,,,,,,,,,,,,,,,,,,,,,,,,,,,,,,,,,,,,,,,,,,,,,,,,,,,,,,,,,,,,,,,,,,,,,
63334,1645583141.103628,30.0,0.0,4096.410156,4381.025879,4169.743652,4276.922852000001,4138.974121,0.0,4.0,95.0,,,,0.0,4.0,2.0,4.0,0.0,4.0,50.0,,,,,,,,15.0,0.0,0.47965399999999997,-0.29199200000000003,0.581299,0.588867,0.9199360000000001,-0.398932,-0.169436,-0.034506,-0.035254,-0.022914,,,,,,,,,,,,,,,,,,,,,,,,,,,,,,,,,,,,,,,,,,,,,,,,,,,,,,,,,,,,,,,,,
63335,1645583141.111543,31.0,0.0,4095.897461,4472.307617,4164.615234000001,4278.461426,4147.179688,0.0,4.0,95.0,,,,0.0,4.0,2.0,4.0,0.0,4.0,50.0,,,,,,,,,,,,,,,,,,,,1.0,0.0,0.0,,,,,,,,,,,,,,,,,,,,,,,,,,,,,,,,0.0,0.0,1.0,0.0,512.0,1.0,630.255371,39.269954999999996,13.830531,2.496978,3.543619,96.78319499999999,136.058258,61.649128000000005,37.923386,21.699009,6.824147,3.2861580000000004,1.2874700000000001,0.391552,1.7329759999999998,0.263146,0.056412000000000004,0.033333999999999996,0.025431,0.009982,213.950607,16.242979000000002,7.4253789999999995,2.032449,2.157907
63336,1645583141.119359,32.0,0.0,4076.923096,4481.538574,4184.102539,4280.0,4143.589844,0.0,4.0,95.0,,,,0.0,4.0,2.0,4.0,0.0,4.0,50.0,,,,,,,,16.0,0.0,0.47965699999999994,-0.29199200000000003,0.581543,0.588623,0.9087049999999999,-0.39014299999999996,-0.155276,-0.034522000000000004,-0.035244,-0.025651999999999998,,,,,,,,,,,,,,,,,,,,,,,,,,,,,,,,,,,,,,,,,,,,,,,,,,,,,,,,,,,,,,,,,
63337,1645583141.1271741,33.0,0.0,4061.538574,4432.307617,4202.05127,4280.0,4137.94873,0.0,4.0,95.0,,,,0.0,4.0,2.0,4.0,0.0,4.0,50.0,,,,,,,,,,,,,,,,,,,,,,,,,,,,,,,,,,,,,,,,,,,,,,,,,,,,,,,,,,,,,,,,,,,,,,,,,,,,,,,,,,,,
63338,1645583141.134989,34.0,0.0,4092.820557,4338.974121,4205.641113000001,4276.922852000001,4141.025879,0.0,4.0,95.0,,,,0.0,4.0,2.0,4.0,0.0,4.0,50.0,,,,,,,,17.0,0.0,0.47965699999999994,-0.29199200000000003,0.581543,0.588623,0.9111469999999999,-0.396002,-0.160159,-0.034586,-0.035236,-0.028116000000000002,,,,,,,,,,,,,,,,,,,,,,,,,,,,,,,,,,,,,,,,,,,,,,,,,,,,,,,,,,,,,,,,,
63339,1645583141.142804,35.0,0.0,4109.743652,4210.769043,4201.025879,4276.410156,4146.153809,0.0,4.0,95.0,,,,0.0,4.0,2.0,4.0,0.0,4.0,50.0,,,,,,,,,,,,,,,,,,,,,,,,,,,,,,,,,,,,,,,,,,,,,,,,,,,,,,0.0,0.0,1.0,0.0,512.0,1.0,,,,,,,,,,,,,,,,,,,,,,,,,
63340,1645583141.150619,36.0,0.0,4083.076904,4214.358886999999,4187.692383,4279.487305,4136.410156,0.0,4.0,95.0,,,,0.0,4.0,2.0,4.0,0.0,4.0,50.0,,,,,,,,18.0,0.0,0.47921199999999997,-0.292236,0.5817869999999999,0.588623,0.918959,-0.400885,-0.150393,-0.034545,-0.035179,-0.030333999999999996,,,,,,,,,,,,,,,,,,,,,,,,,,,,,,,,,,,,,,,,,,,,,,,,,,,,,,,,,,,,,,,,,
63341,1645583141.158434,37.0,0.0,4073.3332520000004,4301.025879,4173.846191,4280.512695,4125.128418,0.0,4.0,95.0,,,,0.0,4.0,2.0,4.0,0.0,4.0,50.0,,,,,,,,,,,,,,,,,,,,,,,,,,,,,,,,,,,,,,,,,,,,,,,,,,,,,,,,,,,,,,,,,,,,,,,,,,,,,,,,,,,,
63342,1645583141.166249,38.0,0.0,4085.641113,4271.282227000001,4177.94873,4279.487305,4141.538574,0.0,4.0,95.0,,,,0.0,4.0,2.0,4.0,0.0,4.0,50.0,,,,,,,,19.0,0.0,0.478912,-0.292236,0.5817869999999999,0.588867,0.905776,-0.394049,-0.155276,-0.034411000000000004,-0.035274,-0.026031,,,,,,,,,,,,,,,,,,,,,,,,,,,,,,,,,,,,,,,,,,,,,,,,,,,,,,,,,,,,,,,,,
63343,1645583141.1740642,39.0,0.0,4085.641113,4245.641113000001,4200.512695,4280.0,4155.384765999999,0.0,4.0,95.0,,,,0.0,4.0,2.0,4.0,0.0,4.0,50.0,,,,,,,,,,,,,,,,,,,,,,,,,,,,,,,,,,,,,,,,,,,,,,,,,,,,,,0.0,0.0,1.0,0.0,512.0,1.0,,,,,,,,,,,,,,,,,,,,,,,,,
63344,1645583141.18188,40.0,0.0,4085.641113,4294.871582,4210.256348,4281.025879,4144.102539,0.0,4.0,95.0,,,,0.0,4.0,2.0,4.0,0.0,4.0,50.0,,,,,,,,20.0,0.0,0.47906400000000005,-0.29248,0.5817869999999999,0.588623,0.9155409999999999,-0.41113900000000003,-0.154299,-0.034388,-0.035213999999999995,-0.028457,,,,,,,,,,,,,,,,,,,,,,,,,,,,,,,,,,,,,,,,,,,,,,,,,,,,,,,,,,,,,,,,,
63345,1645583141.189795,41.0,0.0,4087.6923829999996,4282.05127,4190.256348,4279.487305,4143.589844,0.0,4.0,95.0,,,,0.0,4.0,2.0,4.0,0.0,4.0,50.0,,,,,,,,,,,,,,,,,,,,,,,,,,,,,,,,,,,,,,,,,,,,,,,,,,,,,,,,,,,,,,,,,,,,,,,,,,,,,,,,,,,,
63346,1645583141.19761,42.0,0.0,4083.5898439999996,4274.358886999999,4162.563965,4277.94873,4158.461426,0.0,4.0,95.0,,,,0.0,4.0,2.0,4.0,0.0,4.0,50.0,,,,,,,,21.0,0.0,0.478763,-0.29248,0.5817869999999999,0.588867,0.901381,-0.40283800000000003,-0.155276,-0.034367,-0.035207999999999996,-0.024488,,,,,,,,,,,,,,,,,,,,,,,,,,,,,,,,,,,,,,,,,,,,,,,,,,,,,,,,,,,,,,,,,
63347,1645583141.205425,43.0,0.0,4087.179443,4254.358886999999,4156.410156,4278.974121,4164.615234000001,0.0,4.0,95.0,,,,0.0,4.0,2.0,4.0,0.0,4.0,50.0,,,,,,,,,,,,,,,,,,,,,,,,,,,,,,,,,,,,,,,,,,,,,,,,,,,,,,0.0,0.0,1.0,0.0,512.0,1.0,,,,,,,,,,,,,,,,,,,,,,,,,
63348,1645583141.2132401,44.0,0.0,4105.641113000001,4135.384765999999,4178.461426,4279.487305,4164.615234000001,0.0,4.0,95.0,,,,0.0,4.0,2.0,4.0,0.0,4.0,50.0,,,,,,,,22.0,0.0,0.47861400000000004,-0.292725,0.5817869999999999,0.588867,0.902358,-0.409674,-0.161135,-0.034251,-0.035203,-0.027118,,,,,,,,,,,,,,,,,,,,,,,,,,,,,,,,,,,,,,,,,,,,,,,,,,,,,,,,,,,,,,,,,
63349,1645583141.221055,45.0,0.0,4126.153809,4147.179688,4207.179688,4280.512695,4167.692383,0.0,4.0,95.0,,,,0.0,4.0,2.0,4.0,0.0,4.0,50.0,,,,,,,,,,,,,,,,,,,,,,,,,,,,,,,,,,,,,,,,,,,,,,,,,,,,,,,,,,,,,,,,,,,,,,,,,,,,,,,,,,,,
63350,1645583141.22887,46.0,0.0,4122.05127,4369.230957,4203.589844,4278.974121,4163.077147999999,0.0,4.0,95.0,,,,0.0,4.0,2.0,4.0,0.0,4.0,50.0,,,,,,,,23.0,0.0,0.47861400000000004,-0.292725,0.5817869999999999,0.588867,0.9131,-0.41846300000000003,-0.155764,-0.034341,-0.035247,-0.023136,,,,,,,,,,,,,,,,,,,,,,,,,,,,,,,,,,,,,,,,,,,,,,,,,,,,,,,,,,,,,,,,,
63351,1645583141.236685,47.0,0.0,4107.179688,4441.025879,4174.358886999999,4276.922852000001,4145.128418,0.0,4.0,95.0,,,,0.0,4.0,2.0,4.0,0.0,4.0,50.0,1.0,25.0,3.0,0.0,4.0,0.0,3.0,,,,,,,,,,,,,1.0,0.0,0.0,,,,,,,,,,,,,,,,,,,,,,,,,,,,,,,,0.0,0.0,1.0,0.0,512.0,1.0,936.848999,65.174126,17.038876000000002,2.7607049999999997,4.237628,113.470078,150.926208,70.074387,38.129719,22.718439,9.988593,3.7373480000000003,1.227761,0.449956,1.643478,0.358526,0.085992,0.040548,0.032018,0.012795,310.116302,23.925959,9.830679,2.076495,2.468589
63352,1645583141.2445,48.0,0.0,4118.974121,4275.897461,4174.358886999999,4277.436035,4144.102539,0.0,4.0,95.0,,,,0.0,4.0,2.0,4.0,0.0,4.0,50.0,,,,,,,,24.0,0.0,0.47861400000000004,-0.292725,0.5817869999999999,0.588867,0.9028459999999999,-0.41113900000000003,-0.14941600000000002,-0.034276,-0.035287,-0.019553,,,,,,,,,,,,,,,,,,,,,,,,,,,,,,,,,,,,,,,,,,,,,,,,,,,,,,,,,,,,,,,,,
63353,1645583141.252316,49.0,0.0,4118.461426,4204.615234000001,4189.230957,4277.94873,4160.512695,0.0,4.0,95.0,,,,0.0,4.0,2.0,4.0,0.0,4.0,50.0,,,,,,,,,,,,,,,,,,,,,,,,,,,,,,,,,,,,,,,,,,,,,,,,,,,,,,,,,,,,,,,,,,,,,,,,,,,,,,,,,,,,
63354,1645583141.2601311,50.0,0.0,4095.897461,4318.974121,4195.897461,4277.436035,4165.641113000001,0.0,4.0,95.0,,,,0.0,4.0,2.0,4.0,0.0,4.0,50.0,,,,,,,,25.0,0.0,0.47861400000000004,-0.292725,0.5817869999999999,0.588867,0.903334,-0.415534,-0.148928,-0.034267,-0.03542,-0.022675999999999998,,,,,,,,,,,,,,,,,,,,,,,,,,,,,,,,,,,,,,,,,,,,,,,,,,,,,,,,,,,,,,,,,
63355,1645583141.2680461,51.0,0.0,4130.256348,4396.922852000001,4209.230957,4280.0,4164.102539,0.0,4.0,95.0,,,,0.0,4.0,2.0,4.0,0.0,4.0,50.0,,,,,,,,,,,,,,,,,,,,,,,,,,,,,,,,,,,,,,,,,,,,,,,,,,,,,,0.0,0.0,1.0,0.0,512.0,1.0,,,,,,,,,,,,,,,,,,,,,,,,,
63356,1645583141.275861,52.0,0.0,4191.794922,4316.922852000001,4214.358886999999,4282.563965,4172.820313,0.0,4.0,95.0,,,,0.0,4.0,2.0,4.0,0.0,4.0,50.0,,,,,,,,26.0,0.0,0.47861400000000004,-0.292725,0.5817869999999999,0.588867,0.9043110000000001,-0.407233,-0.15820599999999999,-0.034258,-0.035296,-0.025487,,,,,,,,,,,,,,,,,,,,,,,,,,,,,,,,,,,,,,,,,,,,,,,,,,,,,,,,,,,,,,,,,
63357,1645583141.283676,53.0,0.0,4184.102539,4262.05127,4199.487305,4277.436035,4184.102539,0.0,4.0,95.0,,,,0.0,4.0,2.0,4.0,0.0,4.0,50.0,,,,,,,,,,,,,,,,,,,,,,,,,,,,,,,,,,,,,,,,,,,,,,,,,,,,,,,,,,,,,,,,,,,,,,,,,,,,,,,,,,,,
63358,1645583141.291491,54.0,0.0,4135.897461,4302.05127,4182.563965,4273.333496,4188.205078,0.0,4.0,95.0,,,,0.0,4.0,2.0,4.0,0.0,4.0,50.0,,,,,,,,27.0,0.0,0.47861400000000004,-0.292725,0.5817869999999999,0.588867,0.9028459999999999,-0.41113900000000003,-0.14941600000000002,-0.034201999999999996,-0.035331,-0.021668,,,,,,,,,,,,,,,,,,,,,,,,,,,,,,,,,,,,,,,,,,,,,,,,,,,,,,,,,,,,,,,,,
63359,1645583141.2993062,55.0,0.0,4123.077147999999,4301.538574,4182.05127,4277.436035,4185.128418,0.0,4.0,95.0,,,,0.0,4.0,2.0,4.0,0.0,4.0,50.0,,,,,,,,,,,,,,,,,,,,,,,,,,,,,,,,,,,,,,,,,,,,,,,,,,,,,,0.0,0.0,1.0,0.0,512.0,1.0,,,,,,,,,,,,,,,,,,,,,,,,,
63360,1645583141.307121,56.0,0.0,4147.179688,4247.692383,4201.025879,4280.512695,4180.512695,0.0,4.0,95.0,,,,0.0,4.0,2.0,4.0,0.0,4.0,50.0,,,,,,,,28.0,0.0,0.47861400000000004,-0.292725,0.5817869999999999,0.588867,0.9043110000000001,-0.407233,-0.15820599999999999,-0.034199,-0.035216000000000004,-0.02458,,,,,,,,,,,,,,,,,,,,,,,,,,,,,,,,,,,,,,,,,,,,,,,,,,,,,,,,,,,,,,,,,
63361,1645583141.314936,57.0,0.0,4152.820313,4225.641113000001,4216.922852000001,4278.461426,4166.153809,0.0,4.0,95.0,,,,0.0,4.0,2.0,4.0,0.0,4.0,50.0,,,,,,,,,,,,,,,,,,,,,,,,,,,,,,,,,,,,,,,,,,,,,,,,,,,,,,,,,,,,,,,,,,,,,,,,,,,,,,,,,,,,
63362,1645583141.322752,58.0,0.0,4131.282227000001,4257.94873,4198.461426,4278.461426,4138.974121,0.0,4.0,95.0,,,,0.0,4.0,2.0,4.0,0.0,4.0,50.0,,,,,,,,29.0,0.0,0.478763,-0.29248,0.5817869999999999,0.588867,0.906264,-0.404303,-0.15967,-0.034197000000000005,-0.035210000000000005,-0.027150999999999998,,,,,,,,,,,,,,,,,,,,,,,,,,,,,,,,,,,,,,,,,,,,,,,,,,,,,,,,,,,,,,,,,
63363,1645583141.330567,59.0,0.0,4129.230957,4249.230957,4166.666504,4278.461426,4137.94873,0.0,4.0,95.0,,,,0.0,4.0,2.0,4.0,0.0,4.0,50.0,,,,,,,,,,,,,,,,,,,,,,,,,,,,,,,,,,,,,,,,,,,,,,,,,,,,,,0.0,0.0,1.0,0.0,512.0,1.0,,,,,,,,,,,,,,,,,,,,,,,,,
63364,1645583141.3384821,60.0,0.0,4131.282227000001,4182.563965,4168.205078,4276.922852000001,4157.436035,0.0,4.0,95.0,,,,0.0,4.0,2.0,4.0,0.0,4.0,50.0,,,,,,,,30.0,0.0,0.478763,-0.29248,0.5817869999999999,0.588867,0.9091940000000001,-0.407721,-0.157717,-0.034245,-0.035156,-0.023215,,,,,,,,,,,,,,,,,,,,,,,,,,,,,,,,,,,,,,,,,,,,,,,,,,,,,,,,,,,,,,,,,
63365,1645583141.346297,61.0,0.0,4138.461426,4215.384765999999,4198.461426,4278.974121,4152.820313,0.0,4.0,95.0,,,,0.0,4.0,2.0,4.0,0.0,4.0,50.0,,,,,,,,,,,,,,,,,,,,,,,,,,,,,,,,,,,,,,,,,,,,,,,,,,,,,,,,,,,,,,,,,,,,,,,,,,,,,,,,,,,,
63366,1645583141.354112,62.0,0.0,4174.358886999999,4331.794922,4217.436035,4280.512695,4146.666504,0.0,4.0,95.0,,,,0.0,4.0,2.0,4.0,0.0,4.0,50.0,,,,,,,,31.0,0.0,0.478763,-0.29248,0.5817869999999999,0.588867,0.9043110000000001,-0.409674,-0.152834,-0.034189,-0.035254,-0.025923,,,,,,,,,,,,,,,,,,,,,,,,,,,,,,,,,,,,,,,,,,,,,,,,,,,,,,,,,,,,,,,,,
63367,1645583141.361927,63.0,0.0,4184.615234000001,4347.179688,4206.153809,4278.461426,4175.384765999999,0.0,4.0,95.0,,,,0.0,4.0,2.0,4.0,0.0,4.0,50.0,,,,,,,,,,,,,,,,,,,,1.0,0.0,0.0,,,,,,,,,,,,,,,,,,,,,,,,,,,,,,,,0.0,0.0,1.0,0.0,512.0,1.0,1224.668091,94.153313,19.529415,3.193514,5.057314,136.54873700000002,172.220886,78.774582,37.918346,23.71763,13.427075,4.0382,1.149738,0.508495,1.566719,0.42564700000000005,0.116646,0.04267,0.035242,0.014657,397.683258,33.579445,11.702097,2.200048,2.8555029999999997
63368,1645583141.369742,64.0,1.0,4177.692383,4328.717772999999,4207.307617,4278.653809,4172.692383,450.0,4.0,95.0,,,,0.0,4.0,2.0,4.0,0.0,4.0,50.0,,,,,,,,32.0,1.0,0.478763,-0.29248,0.5817869999999999,0.588867,0.904018,-0.40928400000000004,-0.154397,-0.034199,-0.035271,-0.025151,,,,,,,,,,,,,,,,,,,,,,,,,,,,,,,,,,,,,,,,,,,,,,,,,,,,,,,,,,,,,,,,,
63369,1645583141.377557,65.0,1.0,4170.769043,4310.256348,4208.461426,4278.846191,4170.0,450.0,4.0,95.0,,,,0.0,4.0,2.0,4.0,0.0,4.0,50.0,,,,,,,,,,,,,,,,,,,,,,,,,,,,,,,,,,,,,,,,,,,,,,,,,,,,,,,,,,,,,,,,,,,,,,,,,,,,,,,,,,,,
63370,1645583141.3853722,66.0,1.0,4163.846191,4291.794922,4209.615234000001,4279.038574,4167.307617,16224.0,4.0,95.0,,,,0.0,4.0,2.0,4.0,0.0,4.0,50.0,,,,,,,,33.0,1.0,0.478763,-0.29248,0.5817869999999999,0.588867,0.903725,-0.408893,-0.155959,-0.034207999999999995,-0.035289,-0.024378,,,,,,,,,,,,,,,,,,,,,,,,,,,,,,,,,,,,,,,,,,,,,,,,,,,,,,,,,,,,,,,,,
63371,1645583141.393188,67.0,1.0,4156.922852000001,4273.333496,4210.769043,4279.230957,4164.615234000001,450.0,4.0,95.0,,,,0.0,4.0,2.0,4.0,0.0,4.0,50.0,,,,,,,,,,,,,,,,,,,,,,,,,,,,,,,,,,,,,,,,,,,,,,,,,,,,,,0.0,0.0,1.0,0.0,512.0,1.0,,,,,,,,,,,,,,,,,,,,,,,,,
63372,1645583141.401003,68.0,1.0,4150.0,4254.871582,4211.922852000001,4279.422852000001,4161.922852000001,278.0,4.0,95.0,,,,0.0,4.0,2.0,4.0,0.0,4.0,50.0,,,,,,,,34.0,1.0,0.478763,-0.29248,0.5817869999999999,0.588867,0.903432,-0.408502,-0.157522,-0.034218,-0.035307,-0.023606,,,,,,,,,,,,,,,,,,,,,,,,,,,,,,,,,,,,,,,,,,,,,,,,,,,,,,,,,,,,,,,,,
63373,1645583141.408818,69.0,1.0,4143.077147999999,4236.410156,4213.077147999999,4279.615234000001,4159.230957,450.0,4.0,95.0,,,,0.0,4.0,2.0,4.0,0.0,4.0,50.0,,,,,,,,,,,,,,,,,,,,,,,,,,,,,,,,,,,,,,,,,,,,,,,,,,,,,,,,,,,,,,,,,,,,,,,,,,,,,,,,,,,,
63374,1645583141.416633,70.0,1.0,4136.153809,4217.94873,4214.230957,4279.807617,4156.538574,16250.0,4.0,95.0,,,,0.0,4.0,2.0,4.0,0.0,4.0,50.0,,,,,,,,35.0,1.0,0.478763,-0.29248,0.5817869999999999,0.588867,0.9031389999999999,-0.408112,-0.159084,-0.034227999999999995,-0.035324,-0.022834,,,,,,,,,,,,,,,,,,,,,,,,,,,,,,,,,,,,,,,,,,,,,,,,,,,,,,,,,,,,,,,,,
63375,1645583141.424448,71.0,0.0,4129.230957,4199.487305,4215.384765999999,4280.0,4153.846191,450.0,4.0,95.0,,,,0.0,4.0,2.0,4.0,0.0,4.0,50.0,,,,,,,,,,,,,,,,,,,,,,,,,,,,,,,,,,,,,,,,,,,,,,,,,,,,,,0.0,0.0,1.0,0.0,512.0,1.0,,,,,,,,,,,,,,,,,,,,,,,,,
63376,1645583141.4322631,72.0,0.0,4156.922852000001,4246.153809,4210.769043,4278.974121,4170.256348,450.0,4.0,95.0,,,,0.0,4.0,2.0,4.0,0.0,4.0,50.0,,,,,,,,36.0,0.0,0.478763,-0.29248,0.5817869999999999,0.588867,0.9028459999999999,-0.407721,-0.160647,-0.034237000000000004,-0.035342,-0.022061,,,,,,,,,,,,,,,,,,,,,,,,,,,,,,,,,,,,,,,,,,,,,,,,,,,,,,,,,,,,,,,,,
63377,1645583141.440078,73.0,0.0,4178.461426,4241.025879,4189.230957,4277.436035,4199.487305,0.0,4.0,95.0,,,,0.0,4.0,2.0,4.0,0.0,4.0,50.0,,,,,,,,,,,,,,,,,,,,,,,,,,,,,,,,,,,,,,,,,,,,,,,,,,,,,,,,,,,,,,,,,,,,,,,,,,,,,,,,,,,,
63378,1645583141.447893,74.0,0.0,4151.794922,4164.615234000001,4183.589844,4278.461426,4201.538574,450.0,4.0,95.0,,,,0.0,4.0,2.0,4.0,0.0,4.0,50.0,,,,,,,,37.0,0.0,0.479209,-0.292236,0.581543,0.588867,0.8994280000000001,-0.40528000000000003,-0.154788,-0.034232,-0.035421,-0.024885,,,,,,,,,,,,,,,,,,,,,,,,,,,,,,,,,,,,,,,,,,,,,,,,,,,,,,,,,,,,,,,,,
63379,1645583141.455709,75.0,0.0,4130.769043,4224.615234000001,4193.333496,4281.025879,4182.563965,16220.0,4.0,95.0,,,,0.0,4.0,2.0,4.0,0.0,4.0,50.0,,,,,,,,,,,,,,,,,,,,,,,,,,,,,,,,,,,,,,,,,,,,,,,,,,,,,,0.0,0.0,1.0,0.0,512.0,1.0,,,,,,,,,,,,,,,,,,,,,,,,,
63380,1645583141.463423,76.0,0.0,4163.589844,4366.153809,4207.179688,4281.025879,4176.922852000001,450.0,4.0,95.0,,,,0.0,4.0,2.0,4.0,0.0,4.0,50.0,,,,,,,,38.0,0.0,0.479209,-0.292236,0.581543,0.588867,0.921401,-0.41260399999999997,-0.156252,-0.034324,-0.035394999999999996,-0.021273,,,,,,,,,,,,,,,,,,,,,,,,,,,,,,,,,,,,,,,,,,,,,,,,,,,,,,,,,,,,,,,,,
63381,1645583141.471237,77.0,0.0,4187.692383,4371.282227000001,4222.05127,4278.974121,4190.769043,450.0,4.0,95.0,,,,0.0,4.0,2.0,4.0,0.0,4.0,50.0,,,,,,,,,,,,,,,,,,,,,,,,,,,,,,,,,,,,,,,,,,,,,,,,,,,,,,,,,,,,,,,,,,,,,,,,,,,,,,,,,,,,
63382,1645583141.479052,78.0,0.0,4173.333496,4302.563965,4215.384765999999,4277.436035,4203.077147999999,450.0,4.0,95.0,,,,0.0,4.0,2.0,4.0,0.0,4.0,50.0,,,,,,,,39.0,0.0,0.479209,-0.292236,0.581543,0.588867,0.906264,-0.41651000000000005,-0.164553,-0.034359,-0.035224,-0.024175,,,,,,,,,,,,,,,,,,,,,,,,,,,,,,,,,,,,,,,,,,,,,,,,,,,,,,,,,,,,,,,,,
63383,1645583141.486866,79.0,0.0,4145.641113000001,4225.128418,4184.102539,4278.974121,4181.025879,16220.0,4.0,95.0,,,,0.0,4.0,2.0,4.0,0.0,4.0,50.0,,,,,,,,,,,,,,,,,,,,1.0,0.0,0.0,,,,,,,,,,,,,,,,,,,,,,,,,,,,,,,,0.0,0.0,1.0,0.0,512.0,1.0,1414.5269779999999,118.428459,20.699734,3.714596,5.795241000000001,157.4104,192.79620400000002,87.879448,37.514198,24.918105999999998,16.221731,4.116837,1.073962,0.609708,1.510146,0.44463199999999997,0.141674,0.039172000000000005,0.034743,0.015280000000000002,452.11666900000006,43.044342,12.61174,2.361699,3.252825
63384,1645583141.4946811,80.0,0.0,4128.205078,4177.94873,4186.666504,4281.538574,4138.461426,450.0,4.0,95.0,,,,0.0,4.0,2.0,4.0,0.0,4.0,50.0,,,,,,,,40.0,0.0,0.479209,-0.292236,0.581543,0.588867,0.9150530000000001,-0.39697899999999997,-0.161135,-0.034341,-0.035217,-0.026836000000000002,,,,,,,,,,,,,,,,,,,,,,,,,,,,,,,,,,,,,,,,,,,,,,,,,,,,,,,,,,,,,,,,,
63385,1645583141.5024948,81.0,0.0,4147.179688,4225.128418,4217.436035,4280.0,4139.487305,450.0,4.0,95.0,,,,0.0,4.0,2.0,4.0,0.0,4.0,50.0,,,,,,,,,,,,,,,,,,,,,,,,,,,,,,,,,,,,,,,,,,,,,,,,,,,,,,,,,,,,,,,,,,,,,,,,,,,,,,,,,,,,
63386,1645583141.51031,82.0,0.0,4188.205078,4253.333496,4211.282227000001,4277.436035,4176.922852000001,450.0,4.0,95.0,,,,0.0,4.0,2.0,4.0,0.0,4.0,50.0,,,,,,,,41.0,0.0,0.479209,-0.292236,0.581543,0.588867,0.9111469999999999,-0.391119,-0.16894800000000001,-0.034422,-0.03526,-0.029230000000000003,,,,,,,,,,,,,,,,,,,,,,,,,,,,,,,,,,,,,,,,,,,,,,,,,,,,,,,,,,,,,,,,,
63387,1645583141.518124,83.0,0.0,4193.333496,4169.743652,4183.077147999999,4279.487305,4186.666504,16220.0,4.0,95.0,,,,0.0,4.0,2.0,4.0,0.0,4.0,50.0,,,,,,,,,,,,,,,,,,,,,,,,,,,,,,,,,,,,,,,,,,,,,,,,,,,,,,0.0,0.0,1.0,0.0,512.0,1.0,,,,,,,,,,,,,,,,,,,,,,,,,
63388,1645583141.525938,84.0,0.0,4177.436035,4142.05127,4185.128418,4281.538574,4181.538574,450.0,4.0,95.0,,,,0.0,4.0,2.0,4.0,0.0,4.0,50.0,,,,,,,,42.0,0.0,0.478912,-0.292236,0.5817869999999999,0.588867,0.9306780000000001,-0.404791,-0.164553,-0.034447000000000005,-0.03525,-0.025038,,,,,,,,,,,,,,,,,,,,,,,,,,,,,,,,,,,,,,,,,,,,,,,,,,,,,,,,,,,,,,,,,
63389,1645583141.533653,85.0,0.0,4167.692383,4234.358886999999,4205.128418,4280.512695,4178.974121,450.0,4.0,95.0,,,,0.0,4.0,2.0,4.0,0.0,4.0,50.0,,,,,,,,,,,,,,,,,,,,,,,,,,,,,,,,,,,,,,,,,,,,,,,,,,,,,,,,,,,,,,,,,,,,,,,,,,,,,,,,,,,,
63390,1645583141.541467,86.0,0.0,4168.205078,4265.641113000001,4214.871582,4279.487305,4178.461426,450.0,4.0,95.0,,,,0.0,4.0,2.0,4.0,0.0,4.0,50.0,,,,,,,,43.0,0.0,0.478612,-0.292236,0.5817869999999999,0.5891109999999999,0.9209129999999999,-0.398444,-0.165042,-0.03442,-0.035241,-0.027417,,,,,,,,,,,,,,,,,,,,,,,,,,,,,,,,,,,,,,,,,,,,,,,,,,,,,,,,,,,,,,,,,
63391,1645583141.549282,87.0,0.0,4189.743652,4240.0,4216.410156,4277.94873,4201.538574,16220.0,4.0,95.0,,,,0.0,4.0,2.0,4.0,0.0,4.0,50.0,,,,,,,,,,,,,,,,,,,,,,,,,,,,,,,,,,,,,,,,,,,,,,,,,,,,,,0.0,0.0,1.0,0.0,512.0,1.0,,,,,,,,,,,,,,,,,,,,,,,,,
63392,1645583141.557096,88.0,0.0,4203.589844,4261.538574,4207.179688,4276.410156,4220.0,450.0,4.0,95.0,,,,0.0,4.0,2.0,4.0,0.0,4.0,50.0,,,,,,,,44.0,0.0,0.478612,-0.292236,0.5817869999999999,0.5891109999999999,0.8999159999999999,-0.410163,-0.161624,-0.034395999999999996,-0.035281,-0.029705000000000002,,,,,,,,,,,,,,,,,,,,,,,,,,,,,,,,,,,,,,,,,,,,,,,,,,,,,,,,,,,,,,,,,
63393,1645583141.56491,89.0,0.0,4180.0,4250.769043,4194.358886999999,4279.487305,4204.615234000001,450.0,4.0,95.0,,,,0.0,4.0,2.0,4.0,0.0,4.0,50.0,,,,,,,,,,,,,,,,,,,,,,,,,,,,,,,,,,,,,,,,,,,,,,,,,,,,,,,,,,,,,,,,,,,,,,,,,,,,,,,,,,,,
63394,1645583141.572725,90.0,0.0,4149.230957,4167.179688,4205.128418,4281.538574,4191.794922,450.0,4.0,95.0,,,,0.0,4.0,2.0,4.0,0.0,4.0,50.0,,,,,,,,45.0,0.0,0.478761,-0.29199200000000003,0.5817869999999999,0.5891109999999999,0.906752,-0.40235,-0.148928,-0.034326,-0.035269,-0.031764,,,,,,,,,,,,,,,,,,,,,,,,,,,,,,,,,,,,,,,,,,,,,,,,,,,,,,,,,,,,,,,,,
63395,1645583141.580539,91.0,0.0,4165.128418,4145.128418,4216.922852000001,4278.461426,4183.589844,16220.0,4.0,95.0,,,,0.0,4.0,2.0,4.0,0.0,4.0,50.0,,,,,,,,,,,,,,,,,,,,,,,,,,,,,,,,,,,,,,,,,,,,,,,,,,,,,,0.0,0.0,1.0,0.0,512.0,1.0,,,,,,,,,,,,,,,,,,,,,,,,,
63396,1645583141.5883539,92.0,0.0,4208.205078,4130.256348,4197.436035,4276.922852000001,4164.615234000001,450.0,4.0,95.0,,,,0.0,4.0,2.0,4.0,0.0,4.0,50.0,,,,,,,,46.0,0.0,0.478761,-0.29199200000000003,0.5817869999999999,0.5891109999999999,0.917983,-0.397955,-0.152834,-0.034311,-0.035257,-0.033568,,,,,,,,,,,,,,,,,,,,,,,,,,,,,,,,,,,,,,,,,,,,,,,,,,,,,,,,,,,,,,,,,
63397,1645583141.596068,93.0,0.0,4209.230957,4032.3076170000004,4183.589844,4278.974121,4175.897461,450.0,4.0,95.0,,,,0.0,4.0,2.0,4.0,0.0,4.0,50.0,,,,,,,,,,,,,,,,,,,,,,,,,,,,,,,,,,,,,,,,,,,,,,,,,,,,,,,,,,,,,,,,,,,,,,,,,,,,,,,,,,,,
63398,1645583141.603883,94.0,0.0,4171.794922,4015.897461,4193.846191,4280.0,4201.025879,450.0,4.0,95.0,,,,0.0,4.0,2.0,4.0,0.0,4.0,50.0,,,,,,,,47.0,0.0,0.478163,-0.29199200000000003,0.5820310000000001,0.5893550000000001,0.8960100000000001,-0.39942,-0.15674100000000002,-0.034395999999999996,-0.035247,-0.029039,,,,,,,,,,,,,,,,,,,,,,,,,,,,,,,,,,,,,,,,,,,,,,,,,,,,,,,,,,,,,,,,,
63399,1645583141.6116982,95.0,0.0,4175.897461,4115.384765999999,4208.205078,4279.487305,4188.717772999999,16220.0,4.0,95.0,,,,0.0,4.0,2.0,4.0,0.0,4.0,50.0,,,,,,,,,,,,,,,,,,,,1.0,0.0,0.0,,,,,,,,,,,,,,,,,,,,,,,,,,,,,,,,0.0,0.0,1.0,0.0,512.0,1.0,1451.494751,130.102264,20.243662,4.190134,6.207596,170.845062,204.97593700000002,97.106369,37.193295,26.646472999999997,17.478579,3.965557,1.009627,0.8354729999999999,1.4630729999999998,0.410683,0.154695,0.031483,0.031779,0.01493,457.589325,49.470924,12.453505999999999,2.496746,3.552611
63400,1645583141.6195118,96.0,0.0,4229.230957,4158.974121,4221.025879,4278.461426,4175.897461,450.0,4.0,95.0,,,,0.0,4.0,2.0,4.0,0.0,4.0,50.0,,,,,,,,48.0,0.0,0.478163,-0.29199200000000003,0.5820310000000001,0.5893550000000001,0.886732,-0.413092,-0.157717,-0.034423,-0.035238,-0.031262,,,,,,,,,,,,,,,,,,,,,,,,,,,,,,,,,,,,,,,,,,,,,,,,,,,,,,,,,,,,,,,,,
63401,1645583141.627327,97.0,0.0,4251.794922,4191.282227000001,4212.820313,4278.461426,4195.384765999999,450.0,4.0,95.0,,,,0.0,4.0,2.0,4.0,0.0,4.0,50.0,,,,,,,,,,,,,,,,,,,,,,,,,,,,,,,,,,,,,,,,,,,,,,,,,,,,,,,,,,,,,,,,,,,,,,,,,,,,,,,,,,,,
63402,1645583141.635142,98.0,0.0,4222.05127,4266.666504,4184.102539,4278.974121,4213.333496,450.0,4.0,95.0,,,,0.0,4.0,2.0,4.0,0.0,4.0,50.0,,,,,,,,49.0,0.0,0.478163,-0.29199200000000003,0.5820310000000001,0.5893550000000001,0.8999159999999999,-0.417487,-0.159182,-0.034399,-0.035181,-0.026964,,,,,,,,,,,,,,,,,,,,,,,,,,,,,,,,,,,,,,,,,,,,,,,,,,,,,,,,,,,,,,,,,
63403,1645583141.642956,99.0,0.0,4188.205078,4270.256348,4176.410156,4278.461426,4204.102539,16220.0,4.0,95.0,,,,0.0,4.0,2.0,4.0,0.0,4.0,50.0,,,,,,,,,,,,,,,,,,,,,,,,,,,,,,,,,,,,,,,,,,,,,,,,,,,,,,0.0,0.0,1.0,0.0,512.0,1.0,,,,,,,,,,,,,,,,,,,,,,,,,
63404,1645583141.6507711,100.0,0.0,4194.358886999999,4249.743652,4198.974121,4279.487305,4188.205078,450.0,4.0,95.0,,,,0.0,4.0,2.0,4.0,0.0,4.0,50.0,,,,,,,,50.0,0.0,0.478163,-0.29199200000000003,0.5820310000000001,0.5893550000000001,0.9043110000000001,-0.41113900000000003,-0.154299,-0.034475,-0.035227999999999995,-0.029444,,,,,,,,,,,,,,,,,,,,,,,,,,,,,,,,,,,,,,,,,,,,,,,,,,,,,,,,,,,,,,,,,
63405,1645583141.658586,101.0,0.0,4218.974121,4249.743652,4210.769043,4280.512695,4186.153809,450.0,4.0,95.0,,,,0.0,4.0,2.0,4.0,0.0,4.0,50.0,,,,,,,,,,,,,,,,,,,,,,,,,,,,,,,,,,,,,,,,,,,,,,,,,,,,,,,,,,,,,,,,,,,,,,,,,,,,,,,,,,,,
63406,1645583141.6664,102.0,0.0,4206.666504,4264.102539,4186.153809,4278.461426,4186.666504,450.0,4.0,95.0,,,,0.0,4.0,2.0,4.0,0.0,4.0,50.0,,,,,,,,51.0,0.0,0.478163,-0.29199200000000003,0.5820310000000001,0.5893550000000001,0.9028459999999999,-0.395514,-0.159182,-0.034494,-0.035220999999999995,-0.031626,,,,,,,,,,,,,,,,,,,,,,,,,,,,,,,,,,,,,,,,,,,,,,,,,,,,,,,,,,,,,,,,,
63407,1645583141.674115,103.0,0.0,4181.025879,4302.05127,4148.205078,4277.436035,4195.897461,16220.0,4.0,95.0,,,,0.0,4.0,2.0,4.0,0.0,4.0,50.0,,,,,,,,,,,,,,,,,,,,,,,,,,,,,,,,,,,,,,,,,,,,,,,,,,,,,,0.0,0.0,1.0,0.0,512.0,1.0,,,,,,,,,,,,,,,,,,,,,,,,,
63408,1645583141.6819289,104.0,0.0,4183.077147999999,4274.871582,4150.769043,4280.0,4212.307617,450.0,4.0,95.0,,,,0.0,4.0,2.0,4.0,0.0,4.0,50.0,,,,,,,,52.0,0.0,0.47846000000000005,-0.29199200000000003,0.5817869999999999,0.5893550000000001,0.901869,-0.40528000000000003,-0.161135,-0.034463,-0.035213999999999995,-0.033542,,,,,,,,,,,,,,,,,,,,,,,,,,,,,,,,,,,,,,,,,,,,,,,,,,,,,,,,,,,,,,,,,
63409,1645583141.689744,105.0,0.0,4189.230957,4272.820313,4189.230957,4281.025879,4207.179688,450.0,4.0,95.0,,,,0.0,4.0,2.0,4.0,0.0,4.0,50.0,,,,,,,,,,,,,,,,,,,,,,,,,,,,,,,,,,,,,,,,,,,,,,,,,,,,,,,,,,,,,,,,,,,,,,,,,,,,,,,,,,,,
63410,1645583141.697558,106.0,0.0,4214.358886999999,4449.743652,4186.666504,4279.487305,4214.358886999999,450.0,4.0,95.0,,,,0.0,4.0,2.0,4.0,0.0,4.0,50.0,,,,,,,,53.0,0.0,0.47846000000000005,-0.29199200000000003,0.5817869999999999,0.5893550000000001,0.910658,-0.406744,-0.163088,-0.034483,-0.035062,-0.035315,,,,,,,,,,,,,,,,,,,,,,,,,,,,,,,,,,,,,,,,,,,,,,,,,,,,,,,,,,,,,,,,,
63411,1645583141.705372,107.0,0.0,4249.230957,4550.256348,4156.410156,4278.461426,4254.871582,16220.0,4.0,95.0,,,,0.0,4.0,2.0,4.0,0.0,4.0,50.0,,,,,,,,,,,,,,,,,,,,,,,,,,,,,,,,,,,,,,,,,,,,,,,,,,,,,,0.0,0.0,1.0,0.0,512.0,1.0,,,,,,,,,,,,,,,,,,,,,,,,,
63412,1645583141.713187,108.0,0.0,4225.641113000001,4364.102539,4174.358886999999,4280.512695,4256.922852000001,450.0,4.0,95.0,,,,0.0,4.0,2.0,4.0,0.0,4.0,50.0,,,,,,,,54.0,0.0,0.478311,-0.292236,0.5817869999999999,0.5893550000000001,0.914076,-0.406256,-0.157229,-0.034404000000000004,-0.035071,-0.030562,,,,,,,,,,,,,,,,,,,,,,,,,,,,,,,,,,,,,,,,,,,,,,,,,,,,,,,,,,,,,,,,,
63413,1645583141.721001,109.0,0.0,4191.794922,4354.871582,4205.128418,4281.025879,4221.538574,450.0,4.0,95.0,,,,0.0,4.0,2.0,4.0,0.0,4.0,50.0,,,,,,,,,,,,,,,,,,,,,,,,,,,,,,,,,,,,,,,,,,,,,,,,,,,,,,,,,,,,,,,,,,,,,,,,,,,,,,,,,,,,
63414,1645583141.728816,110.0,0.0,4207.179688,4615.897461,4187.692383,4278.461426,4221.538574,450.0,4.0,95.0,,,,0.0,4.0,2.0,4.0,0.0,4.0,50.0,,,,,,,,55.0,0.0,0.47846000000000005,-0.29199200000000003,0.5817869999999999,0.5893550000000001,0.901869,-0.40528000000000003,-0.161135,-0.034283999999999995,-0.035129,-0.026333999999999996,,,,,,,,,,,,,,,,,,,,,,,,,,,,,,,,,,,,,,,,,,,,,,,,,,,,,,,,,,,,,,,,,
63415,1645583141.73663,111.0,0.0,4211.794922,4529.230957,4174.871582,4277.436035,4240.512695,16220.0,4.0,95.0,,,,0.0,4.0,2.0,4.0,0.0,4.0,50.0,0.972656,25.0,3.0,0.0,4.0,0.0,3.0,,,,,,,,,,,,,1.0,0.0,0.0,,,,,,,,,,,,,,,,,,,,,,,,,,,,,,,,0.0,0.0,1.0,0.0,512.0,1.0,1321.096436,124.93885,18.269619,4.52391,6.146658,171.36570700000001,204.05496200000002,104.61551700000001,36.914879,29.033372999999997,16.742538,3.620651,0.955836,1.244907,1.4117600000000001,0.335503,0.152042,0.022274000000000002,0.028414,0.014294999999999999,411.378082,50.587151,11.493269999999999,2.541065,3.6485230000000004
63416,1645583141.744444,112.0,0.0,4195.897461,4202.563965,4198.974121,4280.512695,4235.384765999999,450.0,4.0,95.0,,,,0.0,4.0,2.0,4.0,0.0,4.0,50.0,,,,,,,,56.0,0.0,0.478311,-0.292236,0.5817869999999999,0.5893550000000001,0.914076,-0.406256,-0.157229,-0.034225,-0.035132,-0.02248,,,,,,,,,,,,,,,,,,,,,,,,,,,,,,,,,,,,,,,,,,,,,,,,,,,,,,,,,,,,,,,,,
63417,1645583141.7521589,113.0,0.0,4203.589844,4234.871582,4198.461426,4281.025879,4205.641113000001,450.0,4.0,95.0,,,,0.0,4.0,2.0,4.0,0.0,4.0,50.0,,,,,,,,,,,,,,,,,,,,,,,,,,,,,,,,,,,,,,,,,,,,,,,,,,,,,,,,,,,,,,,,,,,,,,,,,,,,,,,,,,,,
63418,1645583141.759973,114.0,0.0,4216.410156,4472.820313,4169.230957,4279.487305,4183.589844,450.0,4.0,95.0,,,,0.0,4.0,2.0,4.0,0.0,4.0,50.0,,,,,,,,57.0,0.0,0.478311,-0.292236,0.5817869999999999,0.5893550000000001,0.9194479999999999,-0.41406899999999996,-0.163088,-0.034123,-0.035183,-0.01906,,,,,,,,,,,,,,,,,,,,,,,,,,,,,,,,,,,,,,,,,,,,,,,,,,,,,,,,,,,,,,,,,
63419,1645583141.7677882,115.0,0.0,4217.94873,4485.641113000001,4167.179688,4280.0,4197.94873,16220.0,4.0,95.0,,,,0.0,4.0,2.0,4.0,0.0,4.0,50.0,,,,,,,,,,,,,,,,,,,,,,,,,,,,,,,,,,,,,,,,,,,,,,,,,,,,,,0.0,0.0,1.0,0.0,512.0,1.0,,,,,,,,,,,,,,,,,,,,,,,,,
63420,1645583141.7756019,116.0,0.0,4216.410156,4440.0,4190.769043,4281.538574,4211.282227000001,450.0,4.0,95.0,,,,0.0,4.0,2.0,4.0,0.0,4.0,50.0,,,,,,,,58.0,0.0,0.47846000000000005,-0.29199200000000003,0.5817869999999999,0.5893550000000001,0.894057,-0.409186,-0.15967,-0.034128,-0.035278,-0.022281,,,,,,,,,,,,,,,,,,,,,,,,,,,,,,,,,,,,,,,,,,,,,,,,,,,,,,,,,,,,,,,,,
63421,1645583141.783417,117.0,0.0,4221.538574,4488.205078,4194.871582,4280.0,4212.307617,450.0,4.0,95.0,,,,0.0,4.0,2.0,4.0,0.0,4.0,50.0,,,,,,,,,,,,,,,,,,,,,,,,,,,,,,,,,,,,,,,,,,,,,,,,,,,,,,,,,,,,,,,,,,,,,,,,,,,,,,,,,,,,
63422,1645583141.7912312,118.0,0.0,4225.128418,4457.436035,4173.846191,4278.461426,4226.666504,450.0,4.0,95.0,,,,0.0,4.0,2.0,4.0,0.0,4.0,50.0,,,,,,,,59.0,0.0,0.47846000000000005,-0.29199200000000003,0.5817869999999999,0.5893550000000001,0.913588,-0.401862,-0.166018,-0.034134,-0.035266000000000006,-0.018930000000000002,,,,,,,,,,,,,,,,,,,,,,,,,,,,,,,,,,,,,,,,,,,,,,,,,,,,,,,,,,,,,,,,,
63423,1645583141.7990448,119.0,0.0,4207.179688,4367.179688,4160.0,4280.0,4225.128418,16220.0,4.0,95.0,,,,0.0,4.0,2.0,4.0,0.0,4.0,50.0,,,,,,,,,,,,,,,,,,,,,,,,,,,,,,,,,,,,,,,,,,,,,,,,,,,,,,0.0,0.0,1.0,0.0,512.0,1.0,,,,,,,,,,,,,,,,,,,,,,,,,
63424,1645583141.80686,120.0,0.0,4201.025879,4316.410156,4173.846191,4282.563965,4192.820313,450.0,4.0,95.0,,,,0.0,4.0,2.0,4.0,0.0,4.0,50.0,,,,,,,,60.0,0.0,0.478311,-0.292236,0.5817869999999999,0.5893550000000001,0.910658,-0.400885,-0.155276,-0.034187,-0.035255,-0.015768,,,,,,,,,,,,,,,,,,,,,,,,,,,,,,,,,,,,,,,,,,,,,,,,,,,,,,,,,,,,,,,,,
63425,1645583141.814574,121.0,0.0,4221.538574,4290.256348,4200.512695,4280.0,4184.615234000001,450.0,4.0,95.0,,,,0.0,4.0,2.0,4.0,0.0,4.0,50.0,,,,,,,,,,,,,,,,,,,,,,,,,,,,,,,,,,,,,,,,,,,,,,,,,,,,,,,,,,,,,,,,,,,,,,,,,,,,,,,,,,,,
63426,1645583141.8223891,122.0,0.0,4234.358886999999,4236.410156,4199.487305,4276.922852000001,4211.794922,450.0,4.0,95.0,,,,0.0,4.0,2.0,4.0,0.0,4.0,50.0,,,,,,,,61.0,0.0,0.478612,-0.292236,0.5817869999999999,0.5891109999999999,0.9126120000000001,-0.40283800000000003,-0.155764,-0.034235,-0.035245,-0.013116999999999998,,,,,,,,,,,,,,,,,,,,,,,,,,,,,,,,,,,,,,,,,,,,,,,,,,,,,,,,,,,,,,,,,
63427,1645583141.8302028,123.0,0.0,4218.461426,4198.461426,4176.922852000001,4279.487305,4230.769043,16220.0,4.0,95.0,,,,0.0,4.0,2.0,4.0,0.0,4.0,50.0,,,,,,,,,,,,,,,,,,,,,,,,,,,,,,,,,,,,,,,,,,,,,,,,,,,,,,0.0,0.0,1.0,0.0,512.0,1.0,,,,,,,,,,,,,,,,,,,,,,,,,
63428,1645583141.838018,124.0,0.0,4194.871582,4245.641113000001,4179.487305,4282.05127,4226.153809,450.0,4.0,95.0,,,,0.0,4.0,2.0,4.0,0.0,4.0,50.0,,,,,,,,62.0,0.0,0.478311,-0.292236,0.5817869999999999,0.5893550000000001,0.9111469999999999,-0.40283800000000003,-0.155276,-0.034181,-0.035187,-0.016834000000000002,,,,,,,,,,,,,,,,,,,,,,,,,,,,,,,,,,,,,,,,,,,,,,,,,,,,,,,,,,,,,,,,,
63429,1645583141.845832,125.0,0.0,4205.641113000001,4273.333496,4206.153809,4278.974121,4212.820313,450.0,4.0,95.0,,,,0.0,4.0,2.0,4.0,0.0,4.0,50.0,,,,,,,,,,,,,,,,,,,,,,,,,,,,,,,,,,,,,,,,,,,,,,,,,,,,,,,,,,,,,,,,,,,,,,,,,,,,,,,,,,,,
63430,1645583141.853646,126.0,0.0,4236.410156,4220.512695,4198.974121,4276.410156,4222.05127,450.0,4.0,95.0,,,,0.0,4.0,2.0,4.0,0.0,4.0,50.0,,,,,,,,63.0,0.0,0.478311,-0.292236,0.5817869999999999,0.5893550000000001,0.914076,-0.40528000000000003,-0.160647,-0.034181,-0.035233,-0.020278,,,,,,,,,,,,,,,,,,,,,,,,,,,,,,,,,,,,,,,,,,,,,,,,,,,,,,,,,,,,,,,,,
63431,1645583141.861461,127.0,0.0,4230.256348,4198.461426,4175.384765999999,4280.0,4239.487305,243.0,4.0,95.0,,,,0.0,4.0,2.0,4.0,0.0,4.0,50.0,,,,,,,,,,,,,,,,,,,,1.0,0.0,0.0,,,,,,,,,,,,,,,,,,,,,,,,,,,,,,,,0.0,0.0,1.0,0.0,512.0,1.0,1061.326538,104.399513,15.269193,4.660858999999999,5.655691,157.745483,190.531601,108.09771699999999,36.204689,31.801464000000003,14.293370000000001,3.148288,0.919167,1.8124939999999998,1.36066,0.24238600000000002,0.13439,0.014232,0.026311,0.014144,326.320129,45.81134,10.159161,2.4681610000000003,3.4871309999999998
63432,1645583141.869275,0.0,0.0,4213.333496,4221.538574,4192.307617,4282.563965,4232.307617,450.0,4.0,95.0,,,,0.0,4.0,2.0,4.0,0.0,4.0,50.0,,,,,,,,0.0,0.0,0.478311,-0.292236,0.5817869999999999,0.5893550000000001,0.905776,-0.390631,-0.14551,-0.034326999999999996,-0.035164999999999995,-0.019916,,,,,,,,,,,,,,,,,,,,,,,,,,,,,,,,,,,,,,,,,,,,,,,,,,,,,,,,,,,,,,,,,
63433,1645583141.87699,1.0,0.0,4237.436035,4183.077147999999,4217.94873,4280.512695,4228.205078,450.0,4.0,95.0,,,,0.0,4.0,2.0,4.0,0.0,4.0,50.0,,,,,,,,,,,,,,,,,,,,,,,,,,,,,,,,,,,,,,,,,,,,,,,,,,,,,,,,,,,,,,,,,,,,,,,,,,,,,,,,,,,,
63434,1645583141.884804,2.0,0.0,4245.641113000001,4175.384765999999,4193.846191,4278.974121,4237.94873,16202.0,4.0,95.0,,,,0.0,4.0,2.0,4.0,0.0,4.0,50.0,,,,,,,,1.0,0.0,0.47846000000000005,-0.29199200000000003,0.5817869999999999,0.5893550000000001,0.903334,-0.41895200000000005,-0.157717,-0.034361,-0.035213,-0.022954,,,,,,,,,,,,,,,,,,,,,,,,,,,,,,,,,,,,,,,,,,,,,,,,,,,,,,,,,,,,,,,,,
63435,1645583141.892618,3.0,0.0,4211.794922,4256.410156,4162.563965,4280.0,4249.230957,450.0,4.0,95.0,,,,0.0,4.0,2.0,4.0,0.0,4.0,50.0,,,,,,,,,,,,,,,,,,,,,,,,,,,,,,,,,,,,,,,,,,,,,,,,,,,,,,0.0,0.0,1.0,0.0,512.0,1.0,,,,,,,,,,,,,,,,,,,,,,,,,
63436,1645583141.900433,4.0,0.0,4211.794922,4256.410156,4187.692383,4279.487305,4245.641113000001,254.0,4.0,95.0,,,,0.0,4.0,2.0,4.0,0.0,4.0,50.0,,,,,,,,2.0,0.0,0.47846000000000005,-0.29199200000000003,0.5817869999999999,0.5893550000000001,0.906264,-0.407721,-0.158694,-0.034441,-0.035256,-0.025737,,,,,,,,,,,,,,,,,,,,,,,,,,,,,,,,,,,,,,,,,,,,,,,,,,,,,,,,,,,,,,,,,
63437,1645583141.908247,5.0,0.0,4237.94873,4203.077147999999,4211.794922,4278.461426,4227.692383,450.0,4.0,95.0,,,,0.0,4.0,2.0,4.0,0.0,4.0,50.0,,,,,,,,,,,,,,,,,,,,,,,,,,,,,,,,,,,,,,,,,,,,,,,,,,,,,,,,,,,,,,,,,,,,,,,,,,,,,,,,,,,,
63438,1645583141.9160619,6.0,0.0,4240.0,4161.538574,4183.589844,4278.461426,4237.436035,16193.0,4.0,95.0,,,,0.0,4.0,2.0,4.0,0.0,4.0,50.0,,,,,,,,3.0,0.0,0.47846000000000005,-0.29199200000000003,0.5817869999999999,0.5893550000000001,0.904799,-0.398444,-0.169924,-0.034464,-0.035197000000000006,-0.028241000000000002,,,,,,,,,,,,,,,,,,,,,,,,,,,,,,,,,,,,,,,,,,,,,,,,,,,,,,,,,,,,,,,,,
63439,1645583141.923876,7.0,0.0,4235.384765999999,4044.102539,4172.820313,4279.487305,4267.692383,450.0,4.0,95.0,,,,0.0,4.0,2.0,4.0,0.0,4.0,50.0,,,,,,,,,,,,,,,,,,,,,,,,,,,,,,,,,,,,,,,,,,,,,,,,,,,,,,0.0,0.0,1.0,0.0,512.0,1.0,,,,,,,,,,,,,,,,,,,,,,,,,
63440,1645583141.931691,8.0,0.0,4233.333496,3943.076904,4201.025879,4280.512695,4255.897461,450.0,4.0,95.0,,,,0.0,4.0,2.0,4.0,0.0,4.0,50.0,,,,,,,,4.0,0.0,0.478312,-0.291748,0.5820310000000001,0.5893550000000001,0.914565,-0.410163,-0.151369,-0.034435,-0.035242,-0.030494999999999998,,,,,,,,,,,,,,,,,,,,,,,,,,,,,,,,,,,,,,,,,,,,,,,,,,,,,,,,,,,,,,,,,
63441,1645583141.939505,9.0,0.0,4225.641113000001,3956.923096,4201.538574,4279.487305,4226.666504,0.0,4.0,95.0,,,,0.0,4.0,2.0,4.0,0.0,4.0,50.0,,,,,,,,,,,,,,,,,,,,,,,,,,,,,,,,,,,,,,,,,,,,,,,,,,,,,,,,,,,,,,,,,,,,,,,,,,,,,,,,,,,,
63442,1645583141.9472198,10.0,0.0,4246.666504,3996.4101560000004,4182.05127,4278.461426,4248.717772999999,450.0,4.0,95.0,,,,0.0,4.0,2.0,4.0,0.0,4.0,50.0,,,,,,,,5.0,0.0,0.478613,-0.291748,0.5820310000000001,0.5891109999999999,0.905776,-0.413092,-0.163088,-0.034459,-0.035283,-0.026372000000000003,,,,,,,,,,,,,,,,,,,,,,,,,,,,,,,,,,,,,,,,,,,,,,,,,,,,,,,,,,,,,,,,,
63443,1645583141.955034,11.0,0.0,4267.179688,4028.205078,4183.589844,4279.487305,4272.820313,16225.0,4.0,95.0,,,,0.0,4.0,2.0,4.0,0.0,4.0,50.0,,,,,,,,,,,,,,,,,,,,,,,,,,,,,,,,,,,,,,,,,,,,,,,,,,,,,,0.0,0.0,1.0,0.0,512.0,1.0,,,,,,,,,,,,,,,,,,,,,,,,,
63444,1645583141.9628491,12.0,0.0,4229.230957,4044.102539,4189.743652,4280.0,4244.102539,450.0,4.0,95.0,,,,0.0,4.0,2.0,4.0,0.0,4.0,50.0,,,,,,,,6.0,0.0,0.478312,-0.291748,0.5820310000000001,0.5893550000000001,0.9043110000000001,-0.413092,-0.16552999999999998,-0.034381999999999996,-0.035269999999999996,-0.022465,,,,,,,,,,,,,,,,,,,,,,,,,,,,,,,,,,,,,,,,,,,,,,,,,,,,,,,,,,,,,,,,,
63445,1645583141.970664,13.0,0.0,4203.589844,3979.487061,4196.410156,4280.512695,4218.974121,450.0,4.0,95.0,,,,0.0,4.0,2.0,4.0,0.0,4.0,50.0,,,,,,,,,,,,,,,,,,,,,,,,,,,,,,,,,,,,,,,,,,,,,,,,,,,,,,,,,,,,,,,,,,,,,,,,,,,,,,,,,,,,
63446,1645583141.978478,14.0,0.0,4242.563965,4003.5898439999996,4201.025879,4277.94873,4245.641113000001,450.0,4.0,95.0,,,,0.0,4.0,2.0,4.0,0.0,4.0,50.0,,,,,,,,7.0,0.0,0.478312,-0.291748,0.5820310000000001,0.5893550000000001,0.9028459999999999,-0.39697899999999997,-0.159182,-0.034411000000000004,-0.035259,-0.025248,,,,,,,,,,,,,,,,,,,,,,,,,,,,,,,,,,,,,,,,,,,,,,,,,,,,,,,,,,,,,,,,,
63447,1645583141.986293,15.0,0.0,4257.436035,4157.436035,4188.717772999999,4274.358886999999,4271.282227000001,16225.0,4.0,95.0,,,,0.0,4.0,2.0,4.0,0.0,4.0,50.0,,,,,,,,,,,,,,,,,,,,1.0,0.0,0.0,,,,,,,,,,,,,,,,,,,,,,,,,,,,,,,,0.0,0.0,1.0,0.0,512.0,1.0,745.1522219999999,75.233124,11.924493,4.573957,4.950227,135.622131,169.238098,107.19718200000001,34.604366,34.648632,10.819646,2.674881,0.892655,2.418724,1.3446790000000002,0.155253,0.106493,0.008864,0.025844,0.014953,226.061798,36.608928999999996,8.810151,2.294848,3.102704
63448,1645583141.994108,16.0,0.0,4225.128418,4195.897461,4183.589844,4277.94873,4251.282227000001,0.0,4.0,95.0,,,,0.0,4.0,2.0,4.0,0.0,4.0,50.0,,,,,,,,8.0,0.0,0.478312,-0.291748,0.5820310000000001,0.5893550000000001,0.904799,-0.40528000000000003,-0.154788,-0.034388,-0.035248,-0.021551,,,,,,,,,,,,,,,,,,,,,,,,,,,,,,,,,,,,,,,,,,,,,,,,,,,,,,,,,,,,,,,,,
63449,1645583142.0019221,17.0,0.0,4209.230957,4187.179688,4201.538574,4283.077147999999,4230.769043,0.0,4.0,95.0,,,,0.0,4.0,2.0,4.0,0.0,4.0,50.0,,,,,,,,,,,,,,,,,,,,,,,,,,,,,,,,,,,,,,,,,,,,,,,,,,,,,,,,,,,,,,,,,,,,,,,,,,,,,,,,,,,,
63450,1645583142.009737,18.0,0.0,4224.102539,4249.743652,4202.563965,4279.487305,4240.512695,0.0,4.0,95.0,,,,0.0,4.0,2.0,4.0,0.0,4.0,50.0,,,,,,,,9.0,0.0,0.47816000000000003,-0.291504,0.5820310000000001,0.5896,0.897475,-0.41260399999999997,-0.156252,-0.034269,-0.03519,-0.024425,,,,,,,,,,,,,,,,,,,,,,,,,,,,,,,,,,,,,,,,,,,,,,,,,,,,,,,,,,,,,,,,,
63451,1645583142.017452,19.0,0.0,4234.358886999999,4196.922852000001,4182.563965,4276.922852000001,4247.179688,0.0,4.0,95.0,,,,0.0,4.0,2.0,4.0,0.0,4.0,50.0,,,,,,,,,,,,,,,,,,,,,,,,,,,,,,,,,,,,,,,,,,,,,,,,,,,,,,0.0,0.0,1.0,0.0,512.0,1.0,,,,,,,,,,,,,,,,,,,,,,,,,
63452,1645583142.025266,20.0,0.0,4229.230957,4101.025879,4191.282227000001,4280.512695,4246.153809,0.0,4.0,95.0,,,,0.0,4.0,2.0,4.0,0.0,4.0,50.0,,,,,,,,10.0,0.0,0.47816000000000003,-0.291504,0.5820310000000001,0.5896,0.906752,-0.41113900000000003,-0.158694,-0.034309,-0.035187,-0.020811,,,,,,,,,,,,,,,,,,,,,,,,,,,,,,,,,,,,,,,,,,,,,,,,,,,,,,,,,,,,,,,,,
63453,1645583142.033081,21.0,0.0,4250.256348,4171.282227000001,4214.871582,4281.025879,4261.025879,0.0,4.0,95.0,,,,0.0,4.0,2.0,4.0,0.0,4.0,50.0,,,,,,,,,,,,,,,,,,,,,,,,,,,,,,,,,,,,,,,,,,,,,,,,,,,,,,,,,,,,,,,,,,,,,,,,,,,,,,,,,,,,
63454,1645583142.0408962,22.0,0.0,4284.615234000001,4275.897461,4201.025879,4278.974121,4276.922852000001,0.0,4.0,95.0,,,,0.0,4.0,2.0,4.0,0.0,4.0,50.0,,,,,,,,11.0,0.0,0.47816000000000003,-0.291504,0.5820310000000001,0.5896,0.9184709999999999,-0.41065100000000004,-0.15967,-0.034247,-0.035184,-0.023759,,,,,,,,,,,,,,,,,,,,,,,,,,,,,,,,,,,,,,,,,,,,,,,,,,,,,,,,,,,,,,,,,
63455,1645583142.0487099,23.0,0.0,4262.05127,4272.307617,4170.256348,4280.0,4267.179688,0.0,4.0,95.0,,,,0.0,4.0,2.0,4.0,0.0,4.0,50.0,,,,,,,,,,,,,,,,,,,,,,,,,,,,,,,,,,,,,,,,,,,,,,,,,,,,,,0.0,0.0,1.0,0.0,512.0,1.0,,,,,,,,,,,,,,,,,,,,,,,,,
63456,1645583142.056525,24.0,0.0,4217.94873,4264.102539,4187.692383,4280.512695,4236.922852000001,0.0,4.0,95.0,,,,0.0,4.0,2.0,4.0,0.0,4.0,50.0,,,,,,,,12.0,0.0,0.47830900000000004,-0.29125999999999996,0.5820310000000001,0.5896,0.9072399999999999,-0.41944,-0.161135,-0.034241,-0.035230000000000004,-0.020163,,,,,,,,,,,,,,,,,,,,,,,,,,,,,,,,,,,,,,,,,,,,,,,,,,,,,,,,,,,,,,,,,
63457,1645583142.0643392,25.0,0.0,4230.769043,4278.461426,4217.436035,4280.512695,4225.128418,0.0,4.0,95.0,,,,0.0,4.0,2.0,4.0,0.0,4.0,50.0,,,,,,,,,,,,,,,,,,,,,,,,,,,,,,,,,,,,,,,,,,,,,,,,,,,,,,,,,,,,,,,,,,,,,,,,,,,,,,,,,,,,
63458,1645583142.0721538,26.0,0.0,4269.230957,4240.512695,4200.0,4280.512695,4243.077147999999,0.0,4.0,95.0,,,,0.0,4.0,2.0,4.0,0.0,4.0,50.0,,,,,,,,13.0,0.0,0.47845699999999997,-0.291504,0.5817869999999999,0.5896,0.910658,-0.407721,-0.15674100000000002,-0.034235,-0.035272000000000005,-0.023176,,,,,,,,,,,,,,,,,,,,,,,,,,,,,,,,,,,,,,,,,,,,,,,,,,,,,,,,,,,,,,,,,
63459,1645583142.079969,27.0,0.0,4256.922852000001,4182.05127,4181.538574,4280.512695,4249.230957,0.0,4.0,95.0,,,,0.0,4.0,2.0,4.0,0.0,4.0,50.0,,,,,,,,,,,,,,,,,,,,,,,,,,,,,,,,,,,,,,,,,,,,,,,,,,,,,,0.0,0.0,1.0,0.0,512.0,1.0,,,,,,,,,,,,,,,,,,,,,,,,,
63460,1645583142.087683,28.0,0.0,4227.692383,4164.615234000001,4204.615234000001,4279.487305,4227.179688,0.0,4.0,95.0,,,,0.0,4.0,2.0,4.0,0.0,4.0,50.0,,,,,,,,14.0,0.0,0.47860600000000003,-0.29125999999999996,0.5817869999999999,0.5896,0.906264,-0.409674,-0.153811,-0.034229,-0.035358,-0.025985,,,,,,,,,,,,,,,,,,,,,,,,,,,,,,,,,,,,,,,,,,,,,,,,,,,,,,,,,,,,,,,,,
63461,1645583142.095498,29.0,0.0,4253.846191,4168.205078,4218.974121,4278.974121,4221.538574,0.0,4.0,95.0,,,,0.0,4.0,2.0,4.0,0.0,4.0,50.0,,,,,,,,,,,,,,,,,,,,,,,,,,,,,,,,,,,,,,,,,,,,,,,,,,,,,,,,,,,,,,,,,,,,,,,,,,,,,,,,,,,,
63462,1645583142.103313,30.0,0.0,4287.179688,4202.563965,4198.461426,4279.487305,4236.410156,0.0,4.0,95.0,,,,0.0,4.0,2.0,4.0,0.0,4.0,50.0,,,,,,,,15.0,0.0,0.47860600000000003,-0.29125999999999996,0.5817869999999999,0.5896,0.910658,-0.406256,-0.155764,-0.034273000000000005,-0.035338,-0.028416000000000004,,,,,,,,,,,,,,,,,,,,,,,,,,,,,,,,,,,,,,,,,,,,,,,,,,,,,,,,,,,,,,,,,
63463,1645583142.111127,31.0,0.0,4262.05127,4284.102539,4198.974121,4280.512695,4231.794922,0.0,4.0,95.0,,,,0.0,4.0,2.0,4.0,0.0,4.0,50.0,,,,,,,,,,,,,,,,,,,,1.0,0.0,0.0,,,,,,,,,,,,,,,,,,,,,,,,,,,,,,,,0.0,0.0,1.0,0.0,512.0,1.0,448.22525,46.193726,8.896503,4.273527,4.299181,114.457146,147.298035,102.583176,31.987616999999997,37.475296,7.275751,2.3076529999999997,0.8723360000000001,2.894531,1.4151690000000001,0.088786,0.075335,0.006097999999999999,0.026018,0.016758000000000002,133.738464,25.884848,7.647895,2.061898,2.610048
63464,1645583142.118942,32.0,0.0,4253.333496,4350.769043,4224.102539,4280.0,4225.641113000001,0.0,4.0,95.0,,,,0.0,4.0,2.0,4.0,0.0,4.0,50.0,,,,,,,,16.0,0.0,0.47860600000000003,-0.29125999999999996,0.5817869999999999,0.5896,0.9160299999999999,-0.412116,-0.175784,-0.034166,-0.035368000000000004,-0.030555000000000002,,,,,,,,,,,,,,,,,,,,,,,,,,,,,,,,,,,,,,,,,,,,,,,,,,,,,,,,,,,,,,,,,
63465,1645583142.1267571,33.0,0.0,4284.615234000001,4332.820313,4221.538574,4278.974121,4249.230957,0.0,4.0,95.0,,,,0.0,4.0,2.0,4.0,0.0,4.0,50.0,,,,,,,,,,,,,,,,,,,,,,,,,,,,,,,,,,,,,,,,,,,,,,,,,,,,,,,,,,,,,,,,,,,,,,,,,,,,,,,,,,,,
63466,1645583142.134571,34.0,0.0,4264.615234000001,4310.769043,4204.615234000001,4280.512695,4249.230957,0.0,4.0,95.0,,,,0.0,4.0,2.0,4.0,0.0,4.0,50.0,,,,,,,,17.0,0.0,0.47860600000000003,-0.29125999999999996,0.5817869999999999,0.5896,0.9160299999999999,-0.41065100000000004,-0.157717,-0.034168000000000004,-0.035445,-0.032626999999999996,,,,,,,,,,,,,,,,,,,,,,,,,,,,,,,,,,,,,,,,,,,,,,,,,,,,,,,,,,,,,,,,,
63467,1645583142.142386,35.0,0.0,4244.615234000001,4312.820313,4217.436035,4282.05127,4220.0,0.0,4.0,95.0,,,,0.0,4.0,2.0,4.0,0.0,4.0,50.0,,,,,,,,,,,,,,,,,,,,,,,,,,,,,,,,,,,,,,,,,,,,,,,,,,,,,,0.0,0.0,1.0,0.0,512.0,1.0,,,,,,,,,,,,,,,,,,,,,,,,,
63468,1645583142.150201,36.0,0.0,4276.410156,4299.487305,4229.230957,4280.512695,4228.717772999999,0.0,4.0,95.0,,,,0.0,4.0,2.0,4.0,0.0,4.0,50.0,,,,,,,,18.0,0.0,0.47860600000000003,-0.29125999999999996,0.5817869999999999,0.5896,0.910658,-0.406256,-0.155764,-0.034218,-0.035416,-0.028192000000000002,,,,,,,,,,,,,,,,,,,,,,,,,,,,,,,,,,,,,,,,,,,,,,,,,,,,,,,,,,,,,,,,,
63469,1645583142.157915,37.0,0.0,4278.974121,4256.922852000001,4209.230957,4279.487305,4262.05127,0.0,4.0,95.0,,,,0.0,4.0,2.0,4.0,0.0,4.0,50.0,,,,,,,,,,,,,,,,,,,,,,,,,,,,,,,,,,,,,,,,,,,,,,,,,,,,,,,,,,,,,,,,,,,,,,,,,,,,,,,,,,,,
63470,1645583142.16573,38.0,0.0,4255.384765999999,4164.615234000001,4201.025879,4280.512695,4263.589844,0.0,4.0,95.0,,,,0.0,4.0,2.0,4.0,0.0,4.0,50.0,,,,,,,,19.0,0.0,0.47860600000000003,-0.29125999999999996,0.5817869999999999,0.5896,0.9160299999999999,-0.41065100000000004,-0.157717,-0.034214,-0.035488,-0.0305,,,,,,,,,,,,,,,,,,,,,,,,,,,,,,,,,,,,,,,,,,,,,,,,,,,,,,,,,,,,,,,,,
63471,1645583142.173545,39.0,0.0,4255.384765999999,4106.153809,4225.128418,4282.05127,4243.589844,0.0,4.0,95.0,,,,0.0,4.0,2.0,4.0,0.0,4.0,50.0,,,,,,,,,,,,,,,,,,,,,,,,,,,,,,,,,,,,,,,,,,,,,,,,,,,,,,0.0,0.0,1.0,0.0,512.0,1.0,,,,,,,,,,,,,,,,,,,,,,,,,
63472,1645583142.181359,40.0,0.0,4271.794922,4153.333496,4231.282227000001,4280.512695,4240.512695,0.0,4.0,95.0,,,,0.0,4.0,2.0,4.0,0.0,4.0,50.0,,,,,,,,20.0,0.0,0.47860600000000003,-0.29125999999999996,0.5817869999999999,0.5896,0.9131,-0.415534,-0.166018,-0.034259,-0.035552,-0.032576999999999995,,,,,,,,,,,,,,,,,,,,,,,,,,,,,,,,,,,,,,,,,,,,,,,,,,,,,,,,,,,,,,,,,
63473,1645583142.189174,41.0,0.0,4290.256348,4192.307617,4205.128418,4278.974121,4257.94873,0.0,4.0,95.0,,,,0.0,4.0,2.0,4.0,0.0,4.0,50.0,,,,,,,,,,,,,,,,,,,,,,,,,,,,,,,,,,,,,,,,,,,,,,,,,,,,,,,,,,,,,,,,,,,,,,,,,,,,,,,,,,,,
63474,1645583142.196989,42.0,0.0,4277.436035,4141.538574,4201.025879,4279.487305,4271.794922,0.0,4.0,95.0,,,,0.0,4.0,2.0,4.0,0.0,4.0,50.0,,,,,,,,21.0,0.0,0.47860600000000003,-0.29125999999999996,0.5817869999999999,0.5896,0.914565,-0.424811,-0.156252,-0.034251,-0.035463999999999996,-0.028098,,,,,,,,,,,,,,,,,,,,,,,,,,,,,,,,,,,,,,,,,,,,,,,,,,,,,,,,,,,,,,,,,
63475,1645583142.204803,43.0,0.0,4237.94873,4122.05127,4225.641113000001,4279.487305,4263.589844,0.0,4.0,95.0,,,,0.0,4.0,2.0,4.0,0.0,4.0,50.0,,,,,,,,,,,,,,,,,,,,,,,,,,,,,,,,,,,,,,,,,,,,,,,,,,,,,,0.0,0.0,1.0,0.0,512.0,1.0,,,,,,,,,,,,,,,,,,,,,,,,,
63476,1645583142.2126179,44.0,0.0,4241.538574,4169.230957,4220.512695,4280.0,4261.025879,0.0,4.0,95.0,,,,0.0,4.0,2.0,4.0,0.0,4.0,50.0,,,,,,,,22.0,0.0,0.47845699999999997,-0.291504,0.5817869999999999,0.5896,0.918959,-0.41358100000000003,-0.152834,-0.034293000000000004,-0.035482,-0.030318,,,,,,,,,,,,,,,,,,,,,,,,,,,,,,,,,,,,,,,,,,,,,,,,,,,,,,,,,,,,,,,,,
63477,1645583142.220433,45.0,0.0,4256.922852000001,4179.487305,4199.487305,4280.0,4272.820313,0.0,4.0,95.0,,,,0.0,4.0,2.0,4.0,0.0,4.0,50.0,,,,,,,,,,,,,,,,,,,,,,,,,,,,,,,,,,,,,,,,,,,,,,,,,,,,,,,,,,,,,,,,,,,,,,,,,,,,,,,,,,,,
63478,1645583142.2282472,46.0,0.0,4250.256348,4184.102539,4223.077147999999,4279.487305,4272.820313,0.0,4.0,95.0,,,,0.0,4.0,2.0,4.0,0.0,4.0,50.0,,,,,,,,23.0,0.0,0.47845699999999997,-0.291504,0.5817869999999999,0.5896,0.9087049999999999,-0.415534,-0.15820599999999999,-0.034184,-0.03545,-0.026163,,,,,,,,,,,,,,,,,,,,,,,,,,,,,,,,,,,,,,,,,,,,,,,,,,,,,,,,,,,,,,,,,
63479,1645583142.235962,47.0,0.0,4278.461426,4188.205078,4246.153809,4280.0,4282.05127,0.0,4.0,95.0,,,,0.0,4.0,2.0,4.0,0.0,4.0,50.0,0.972656,25.0,3.0,0.0,4.0,0.0,3.0,,,,,,,,,,,,,1.0,0.0,0.0,,,,,,,,,,,,,,,,,,,,,,,,,,,,,,,,0.0,0.0,1.0,0.0,512.0,1.0,224.617538,24.093185000000002,6.642964,3.81561,3.893257,100.777039,131.12695300000001,96.47378499999999,28.889404,40.174049,4.483515000000001,2.0956080000000004,0.8550530000000001,3.092676,1.606012,0.046682999999999995,0.04749,0.004953,0.025330000000000002,0.019264,65.779495,16.552389,6.719513,1.8322630000000002,2.161086
63480,1645583142.243777,48.0,0.0,4302.563965,4109.743652,4223.077147999999,4281.538574,4292.307617,0.0,4.0,95.0,,,,0.0,4.0,2.0,4.0,0.0,4.0,50.0,,,,,,,,24.0,0.0,0.47845699999999997,-0.291504,0.5817869999999999,0.5896,0.910658,-0.406256,-0.166506,-0.034281,-0.03542,-0.022521,,,,,,,,,,,,,,,,,,,,,,,,,,,,,,,,,,,,,,,,,,,,,,,,,,,,,,,,,,,,,,,,,
63481,1645583142.251591,49.0,0.0,4264.102539,4050.256348,4222.563965,4281.538574,4260.0,0.0,4.0,95.0,,,,0.0,4.0,2.0,4.0,0.0,4.0,50.0,,,,,,,,,,,,,,,,,,,,,,,,,,,,,,,,,,,,,,,,,,,,,,,,,,,,,,,,,,,,,,,,,,,,,,,,,,,,,,,,,,,,
63482,1645583142.259406,50.0,0.0,4244.615234000001,4142.05127,4249.230957,4280.512695,4235.897461,0.0,4.0,95.0,,,,0.0,4.0,2.0,4.0,0.0,4.0,50.0,,,,,,,,25.0,0.0,0.47845699999999997,-0.291504,0.5817869999999999,0.5896,0.906264,-0.396002,-0.167483,-0.034319999999999996,-0.035394,-0.019097,,,,,,,,,,,,,,,,,,,,,,,,,,,,,,,,,,,,,,,,,,,,,,,,,,,,,,,,,,,,,,,,,
63483,1645583142.2672212,51.0,0.0,4286.153809,4167.692383,4230.769043,4280.0,4274.871582,0.0,4.0,95.0,,,,0.0,4.0,2.0,4.0,0.0,4.0,50.0,,,,,,,,,,,,,,,,,,,,,,,,,,,,,,,,,,,,,,,,,,,,,,,,,,,,,,0.0,0.0,1.0,0.0,512.0,1.0,,,,,,,,,,,,,,,,,,,,,,,,,
63484,1645583142.275035,52.0,0.0,4311.794922,4055.384521,4205.641113000001,4280.0,4303.077147999999,0.0,4.0,95.0,,,,0.0,4.0,2.0,4.0,0.0,4.0,50.0,,,,,,,,26.0,0.0,0.478758,-0.291504,0.5817869999999999,0.5893550000000001,0.8989389999999999,-0.413092,-0.164553,-0.034355000000000004,-0.035468,-0.022216999999999997,,,,,,,,,,,,,,,,,,,,,,,,,,,,,,,,,,,,,,,,,,,,,,,,,,,,,,,,,,,,,,,,,
63485,1645583142.28285,53.0,0.0,4292.820313,4121.538574,4229.230957,4281.025879,4273.846191,0.0,4.0,95.0,,,,0.0,4.0,2.0,4.0,0.0,4.0,50.0,,,,,,,,,,,,,,,,,,,,,,,,,,,,,,,,,,,,,,,,,,,,,,,,,,,,,,,,,,,,,,,,,,,,,,,,,,,,,,,,,,,,
63486,1645583142.290664,54.0,0.0,4285.641113000001,4271.282227000001,4240.0,4281.025879,4263.589844,0.0,4.0,95.0,,,,0.0,4.0,2.0,4.0,0.0,4.0,50.0,,,,,,,,27.0,0.0,0.478609,-0.291748,0.5817869999999999,0.5893550000000001,0.916518,-0.397467,-0.175296,-0.034484,-0.035437,-0.018872,,,,,,,,,,,,,,,,,,,,,,,,,,,,,,,,,,,,,,,,,,,,,,,,,,,,,,,,,,,,,,,,,
63487,1645583142.2984788,55.0,0.0,4301.538574,4259.487305,4207.179688,4280.0,4278.974121,0.0,4.0,95.0,,,,0.0,4.0,2.0,4.0,0.0,4.0,50.0,,,,,,,,,,,,,,,,,,,,,,,,,,,,,,,,,,,,,,,,,,,,,,,,,,,,,,0.0,0.0,1.0,0.0,512.0,1.0,,,,,,,,,,,,,,,,,,,,,,,,,
63488,1645583142.3061938,56.0,0.0,4299.487305,4272.820313,4200.0,4279.487305,4274.358886999999,0.0,4.0,95.0,,,,0.0,4.0,2.0,4.0,0.0,4.0,50.0,,,,,,,,28.0,0.0,0.478609,-0.291748,0.5817869999999999,0.5893550000000001,0.913588,-0.40528000000000003,-0.160159,-0.034405,-0.035457999999999996,-0.022014,,,,,,,,,,,,,,,,,,,,,,,,,,,,,,,,,,,,,,,,,,,,,,,,,,,,,,,,,,,,,,,,,
63489,1645583142.314008,57.0,0.0,4291.282227000001,4337.436035,4227.692383,4279.487305,4267.179688,0.0,4.0,95.0,,,,0.0,4.0,2.0,4.0,0.0,4.0,50.0,,,,,,,,,,,,,,,,,,,,,,,,,,,,,,,,,,,,,,,,,,,,,,,,,,,,,,,,,,,,,,,,,,,,,,,,,,,,,,,,,,,,
63490,1645583142.3218222,58.0,0.0,4301.538574,4266.666504,4222.563965,4278.461426,4275.897461,0.0,4.0,95.0,,,,0.0,4.0,2.0,4.0,0.0,4.0,50.0,,,,,,,,29.0,0.0,0.478312,-0.291748,0.5820310000000001,0.5893550000000001,0.917983,-0.387701,-0.166995,-0.034381999999999996,-0.035525,-0.018591999999999997,,,,,,,,,,,,,,,,,,,,,,,,,,,,,,,,,,,,,,,,,,,,,,,,,,,,,,,,,,,,,,,,,
63491,1645583142.3296368,59.0,0.0,4292.820313,4176.922852000001,4192.820313,4278.974121,4294.871582,0.0,4.0,95.0,,,,0.0,4.0,2.0,4.0,0.0,4.0,50.0,,,,,,,,,,,,,,,,,,,,,,,,,,,,,,,,,,,,,,,,,,,,,,,,,,,,,,0.0,0.0,1.0,0.0,512.0,1.0,,,,,,,,,,,,,,,,,,,,,,,,,
63492,1645583142.337451,60.0,0.0,4272.820313,4192.307617,4205.641113000001,4278.461426,4288.717772999999,0.0,4.0,95.0,,,,0.0,4.0,2.0,4.0,0.0,4.0,50.0,,,,,,,,30.0,0.0,0.478312,-0.291748,0.5820310000000001,0.5893550000000001,0.897963,-0.388678,-0.155764,-0.034312999999999996,-0.035586,-0.021762,,,,,,,,,,,,,,,,,,,,,,,,,,,,,,,,,,,,,,,,,,,,,,,,,,,,,,,,,,,,,,,,,
63493,1645583142.345266,61.0,0.0,4289.743652,4212.307617,4235.384765999999,4278.461426,4245.641113000001,0.0,4.0,95.0,,,,0.0,4.0,2.0,4.0,0.0,4.0,50.0,,,,,,,,,,,,,,,,,,,,,,,,,,,,,,,,,,,,,,,,,,,,,,,,,,,,,,,,,,,,,,,,,,,,,,,,,,,,,,,,,,,,
63494,1645583142.35308,62.0,0.0,4301.025879,4225.128418,4221.538574,4278.974121,4233.846191,0.0,4.0,95.0,,,,0.0,4.0,2.0,4.0,0.0,4.0,50.0,,,,,,,,31.0,0.0,0.478312,-0.291748,0.5820310000000001,0.5893550000000001,0.900893,-0.384283,-0.145998,-0.034251,-0.035494,-0.024664,,,,,,,,,,,,,,,,,,,,,,,,,,,,,,,,,,,,,,,,,,,,,,,,,,,,,,,,,,,,,,,,,
63495,1645583142.360894,63.0,0.0,4284.615234000001,4221.025879,4212.307617,4278.461426,4282.563965,0.0,4.0,95.0,,,,0.0,4.0,2.0,4.0,0.0,4.0,50.0,,,,,,,,,,,,,,,,,,,,1.0,0.0,0.0,,,,,,,,,,,,,,,,,,,,,,,,,,,,,,,,0.0,0.0,1.0,0.0,512.0,1.0,89.73028599999999,11.446216,5.269238,3.323815,3.7727730000000004,95.22734799999999,124.211823,92.353462,26.353661,42.416733,2.740395,2.00667,0.8204370000000001,2.952191,1.905761,0.023015,0.026931,0.0045,0.022931,0.022057,26.212007999999997,10.359057,5.9300239999999995,1.681196,1.8775279999999999
63496,1645583142.368709,64.0,0.0,4277.94873,4212.307617,4243.589844,4278.974121,4297.436035,450.0,4.0,95.0,,,,0.0,4.0,2.0,4.0,0.0,4.0,50.0,,,,,,,,32.0,0.0,0.478012,-0.291748,0.5820310000000001,0.5896,0.89015,-0.399908,-0.166995,-0.034244,-0.035461,-0.021026,,,,,,,,,,,,,,,,,,,,,,,,,,,,,,,,,,,,,,,,,,,,,,,,,,,,,,,,,,,,,,,,,
63497,1645583142.376424,65.0,0.0,4297.436035,4277.94873,4246.153809,4281.025879,4257.94873,450.0,4.0,95.0,,,,0.0,4.0,2.0,4.0,0.0,4.0,50.0,,,,,,,,,,,,,,,,,,,,,,,,,,,,,,,,,,,,,,,,,,,,,,,,,,,,,,,,,,,,,,,,,,,,,,,,,,,,,,,,,,,,
63498,1645583142.384238,66.0,0.0,4318.974121,4287.179688,4210.769043,4282.05127,4256.922852000001,16210.0,4.0,95.0,,,,0.0,4.0,2.0,4.0,0.0,4.0,50.0,,,,,,,,33.0,0.0,0.47816000000000003,-0.291504,0.5820310000000001,0.5896,0.898451,-0.410163,-0.150881,-0.034287,-0.035528,-0.024099000000000002,,,,,,,,,,,,,,,,,,,,,,,,,,,,,,,,,,,,,,,,,,,,,,,,,,,,,,,,,,,,,,,,,
63499,1645583142.392053,67.0,0.0,4313.846191,4204.615234000001,4207.692383,4281.025879,4281.538574,450.0,4.0,95.0,,,,0.0,4.0,2.0,4.0,0.0,4.0,50.0,,,,,,,,,,,,,,,,,,,,,,,,,,,,,,,,,,,,,,,,,,,,,,,,,,,,,,0.0,0.0,1.0,0.0,512.0,1.0,,,,,,,,,,,,,,,,,,,,,,,,,
63500,1645583142.399868,68.0,0.0,4301.538574,4246.666504,4215.384765999999,4280.512695,4278.461426,262.0,4.0,95.0,,,,0.0,4.0,2.0,4.0,0.0,4.0,50.0,,,,,,,,34.0,0.0,0.47816000000000003,-0.291504,0.5820310000000001,0.5896,0.903334,-0.40576799999999996,-0.156252,-0.034276,-0.035491,-0.02667,,,,,,,,,,,,,,,,,,,,,,,,,,,,,,,,,,,,,,,,,,,,,,,,,,,,,,,,,,,,,,,,,
63501,1645583142.407682,69.0,0.0,4298.461426,4382.563965,4185.128418,4280.0,4271.282227000001,450.0,4.0,95.0,,,,0.0,4.0,2.0,4.0,0.0,4.0,50.0,,,,,,,,,,,,,,,,,,,,,,,,,,,,,,,,,,,,,,,,,,,,,,,,,,,,,,,,,,,,,,,,,,,,,,,,,,,,,,,,,,,,
63502,1645583142.415497,70.0,0.0,4287.692383,4413.333496,4175.897461,4280.512695,4277.436035,16198.0,4.0,95.0,,,,0.0,4.0,2.0,4.0,0.0,4.0,50.0,,,,,,,,35.0,0.0,0.47786300000000004,-0.291504,0.582275,0.5896,0.9150530000000001,-0.41113900000000003,-0.166506,-0.034266000000000005,-0.035457,-0.028935000000000002,,,,,,,,,,,,,,,,,,,,,,,,,,,,,,,,,,,,,,,,,,,,,,,,,,,,,,,,,,,,,,,,,
63503,1645583142.423312,71.0,0.0,4281.538574,4413.333496,4199.487305,4281.025879,4282.05127,450.0,4.0,95.0,,,,0.0,4.0,2.0,4.0,0.0,4.0,50.0,,,,,,,,,,,,,,,,,,,,,,,,,,,,,,,,,,,,,,,,,,,,,,,,,,,,,,0.0,0.0,1.0,0.0,512.0,1.0,,,,,,,,,,,,,,,,,,,,,,,,,
63504,1645583142.4311259,72.0,0.0,4291.794922,4442.05127,4187.692383,4281.025879,4263.077147999999,450.0,4.0,95.0,,,,0.0,4.0,2.0,4.0,0.0,4.0,50.0,,,,,,,,36.0,0.0,0.47786300000000004,-0.291504,0.582275,0.5896,0.8969860000000001,-0.424811,-0.15674100000000002,-0.034258,-0.035525,-0.031168,,,,,,,,,,,,,,,,,,,,,,,,,,,,,,,,,,,,,,,,,,,,,,,,,,,,,,,,,,,,,,,,,
63505,1645583142.438941,73.0,0.0,4292.307617,4361.025879,4174.871582,4281.538574,4239.487305,0.0,4.0,95.0,,,,0.0,4.0,2.0,4.0,0.0,4.0,50.0,,,,,,,,,,,,,,,,,,,,,,,,,,,,,,,,,,,,,,,,,,,,,,,,,,,,,,,,,,,,,,,,,,,,,,,,,,,,,,,,,,,,
63506,1645583142.446656,74.0,0.0,4291.794922,4267.692383,4207.692383,4281.538574,4250.256348,450.0,4.0,95.0,,,,0.0,4.0,2.0,4.0,0.0,4.0,50.0,,,,,,,,37.0,0.0,0.478313,-0.29125999999999996,0.582275,0.5893550000000001,0.893568,-0.416022,-0.155764,-0.034201,-0.035537,-0.026879000000000004,,,,,,,,,,,,,,,,,,,,,,,,,,,,,,,,,,,,,,,,,,,,,,,,,,,,,,,,,,,,,,,,,
63507,1645583142.45447,75.0,0.0,4298.461426,4288.205078,4211.794922,4280.0,4285.641113000001,16202.0,4.0,95.0,,,,0.0,4.0,2.0,4.0,0.0,4.0,50.0,,,,,,,,,,,,,,,,,,,,,,,,,,,,,,,,,,,,,,,,,,,,,,,,,,,,,,0.0,0.0,1.0,0.0,512.0,1.0,,,,,,,,,,,,,,,,,,,,,,,,,
63508,1645583142.462285,76.0,0.0,4279.487305,4287.179688,4181.025879,4280.0,4294.871582,450.0,4.0,95.0,,,,0.0,4.0,2.0,4.0,0.0,4.0,50.0,,,,,,,,38.0,0.0,0.478313,-0.29125999999999996,0.582275,0.5893550000000001,0.897475,-0.41944,-0.155276,-0.034297,-0.035548,-0.022971000000000002,,,,,,,,,,,,,,,,,,,,,,,,,,,,,,,,,,,,,,,,,,,,,,,,,,,,,,,,,,,,,,,,,
63509,1645583142.470099,77.0,0.0,4278.974121,4265.128418,4196.922852000001,4281.538574,4282.563965,450.0,4.0,95.0,,,,0.0,4.0,2.0,4.0,0.0,4.0,50.0,,,,,,,,,,,,,,,,,,,,,,,,,,,,,,,,,,,,,,,,,,,,,,,,,,,,,,,,,,,,,,,,,,,,,,,,,,,,,,,,,,,,
63510,1645583142.477914,78.0,0.0,4305.641113000001,4293.846191,4208.717772999999,4281.025879,4285.641113000001,450.0,4.0,95.0,,,,0.0,4.0,2.0,4.0,0.0,4.0,50.0,,,,,,,,39.0,0.0,0.478462,-0.291016,0.582275,0.5893550000000001,0.906752,-0.411627,-0.151858,-0.034285,-0.035362,-0.025751999999999997,,,,,,,,,,,,,,,,,,,,,,,,,,,,,,,,,,,,,,,,,,,,,,,,,,,,,,,,,,,,,,,,,
63511,1645583142.485729,79.0,0.0,4285.641113000001,4337.94873,4168.205078,4281.538574,4290.769043,16202.0,4.0,95.0,,,,0.0,4.0,2.0,4.0,0.0,4.0,50.0,,,,,,,,,,,,,,,,,,,,1.0,0.0,0.0,,,,,,,,,,,,,,,,,,,,,,,,,,,,,,,,0.0,0.0,1.0,0.0,512.0,1.0,28.135128,6.175148,4.516872,2.933904,3.844343,94.300652,124.61421200000001,91.780952,25.3423,43.620449,1.8834790000000001,1.966115,0.742454,2.519968,2.254912,0.01154,0.014299000000000001,0.004431,0.019223,0.024678,9.944819,7.0855559999999995,5.150955000000001,1.661018,1.7985240000000002
63512,1645583142.493543,80.0,0.0,4264.615234000001,4404.615234000001,4163.589844,4282.05127,4291.794922,450.0,4.0,95.0,,,,0.0,4.0,2.0,4.0,0.0,4.0,50.0,,,,,,,,40.0,0.0,0.478462,-0.291016,0.582275,0.5893550000000001,0.8999159999999999,-0.412116,-0.159182,-0.034275,-0.035342,-0.022054,,,,,,,,,,,,,,,,,,,,,,,,,,,,,,,,,,,,,,,,,,,,,,,,,,,,,,,,,,,,,,,,,
63513,1645583142.501358,81.0,0.0,4291.282227000001,4428.205078,4187.179688,4280.0,4293.333496,450.0,4.0,95.0,,,,0.0,4.0,2.0,4.0,0.0,4.0,50.0,,,,,,,,,,,,,,,,,,,,,,,,,,,,,,,,,,,,,,,,,,,,,,,,,,,,,,,,,,,,,,,,,,,,,,,,,,,,,,,,,,,,
63514,1645583142.5091732,82.0,0.0,4296.922852000001,4335.384765999999,4174.358886999999,4280.0,4291.282227000001,450.0,4.0,95.0,,,,0.0,4.0,2.0,4.0,0.0,4.0,50.0,,,,,,,,41.0,0.0,0.478462,-0.291016,0.582275,0.5893550000000001,0.9160299999999999,-0.416022,-0.175296,-0.034265,-0.035421,-0.024829,,,,,,,,,,,,,,,,,,,,,,,,,,,,,,,,,,,,,,,,,,,,,,,,,,,,,,,,,,,,,,,,,
63515,1645583142.516887,83.0,0.0,4277.94873,4234.358886999999,4172.820313,4281.025879,4289.743652,16202.0,4.0,95.0,,,,0.0,4.0,2.0,4.0,0.0,4.0,50.0,,,,,,,,,,,,,,,,,,,,,,,,,,,,,,,,,,,,,,,,,,,,,,,,,,,,,,0.0,0.0,1.0,0.0,512.0,1.0,,,,,,,,,,,,,,,,,,,,,,,,,
63516,1645583142.524702,84.0,0.0,4286.666504,4204.615234000001,4198.461426,4280.0,4286.153809,450.0,4.0,95.0,,,,0.0,4.0,2.0,4.0,0.0,4.0,50.0,,,,,,,,42.0,0.0,0.478462,-0.291016,0.582275,0.5893550000000001,0.909682,-0.41944,-0.163577,-0.034257,-0.035443,-0.021174000000000002,,,,,,,,,,,,,,,,,,,,,,,,,,,,,,,,,,,,,,,,,,,,,,,,,,,,,,,,,,,,,,,,,
63517,1645583142.532517,85.0,0.0,4289.743652,4196.410156,4192.307617,4278.974121,4286.153809,450.0,4.0,95.0,,,,0.0,4.0,2.0,4.0,0.0,4.0,50.0,,,,,,,,,,,,,,,,,,,,,,,,,,,,,,,,,,,,,,,,,,,,,,,,,,,,,,,,,,,,,,,,,,,,,,,,,,,,,,,,,,,,
63518,1645583142.5403311,86.0,0.0,4264.615234000001,4196.410156,4181.538574,4280.512695,4279.487305,450.0,4.0,95.0,,,,0.0,4.0,2.0,4.0,0.0,4.0,50.0,,,,,,,,43.0,0.0,0.478462,-0.291016,0.582275,0.5893550000000001,0.9184709999999999,-0.408698,-0.15820599999999999,-0.034395,-0.035414999999999995,-0.023988,,,,,,,,,,,,,,,,,,,,,,,,,,,,,,,,,,,,,,,,,,,,,,,,,,,,,,,,,,,,,,,,,
63519,1645583142.548146,87.0,0.0,4269.230957,4171.794922,4204.615234000001,4281.025879,4269.743652,16202.0,4.0,95.0,,,,0.0,4.0,2.0,4.0,0.0,4.0,50.0,,,,,,,,,,,,,,,,,,,,,,,,,,,,,,,,,,,,,,,,,,,,,,,,,,,,,,0.0,0.0,1.0,0.0,512.0,1.0,,,,,,,,,,,,,,,,,,,,,,,,,
63520,1645583142.555961,88.0,0.0,4287.179688,4167.179688,4205.641113000001,4279.487305,4281.538574,450.0,4.0,95.0,,,,0.0,4.0,2.0,4.0,0.0,4.0,50.0,,,,,,,,44.0,0.0,0.47891000000000006,-0.29125999999999996,0.5820310000000001,0.5891109999999999,0.9121229999999999,-0.409674,-0.15967,-0.034325,-0.035389,-0.026668,,,,,,,,,,,,,,,,,,,,,,,,,,,,,,,,,,,,,,,,,,,,,,,,,,,,,,,,,,,,,,,,,
