,Timestamp,EEG.Counter,EEG.Interpolated,EEG.AF3,EEG.T7,EEG.Pz,EEG.T8,EEG.AF4,EEG.RawCq,EEG.Battery,EEG.BatteryPercent,MarkerIndex,MarkerType,MarkerValueInt,EEG.MarkerHardware,CQ.AF3,CQ.T7,CQ.Pz,CQ.T8,CQ.AF4,CQ.Overall,EQ.SampleRateQuality,EQ.OVERALL,EQ.AF3,EQ.T7,EQ.Pz,EQ.T8,EQ.AF4,MOT.CounterMems,MOT.InterpolatedMems,MOT.Q0,MOT.Q1,MOT.Q2,MOT.Q3,MOT.AccX,MOT.AccY,MOT.AccZ,MOT.MagX,MOT.MagY,MOT.MagZ,MC.Action,MC.ActionPower,MC.IsActive,PM.Engagement.IsActive,PM.Engagement.Scaled,PM.Engagement.Raw,PM.Engagement.Min,PM.Engagement.Max,PM.Excitement.IsActive,PM.Excitement.Scaled,PM.Excitement.Raw,PM.Excitement.Min,PM.Excitement.Max,PM.LongTermExcitement,PM.Stress.IsActive,PM.Stress.Scaled,PM.Stress.Raw,PM.Stress.Min,PM.Stress.Max,PM.Relaxation.IsActive,PM.Relaxation.Scaled,PM.Relaxation.Raw,PM.Relaxation.Min,PM.Relaxation.Max,PM.Interest.IsActive,PM.Interest.Scaled,PM.Interest.Raw,PM.Interest.Min,PM.Interest.Max,PM.Focus.IsActive,PM.Focus.Scaled,PM.Focus.Raw,PM.Focus.Min,PM.Focus.Max,FE.BlinkWink,FE.HorizontalEyesDirection,FE.UpperFaceAction,FE.UpperFaceActionPower,FE.LowerFaceAction,FE.LowerFaceActionPower,POW.AF3.Theta,POW.AF3.Alpha,POW.AF3.BetaL,POW.AF3.BetaH,POW.AF3.Gamma,POW.T7.Theta,POW.T7.Alpha,POW.T7.BetaL,POW.T7.BetaH,POW.T7.Gamma,POW.Pz.Theta,POW.Pz.Alpha,POW.Pz.BetaL,POW.Pz.BetaH,POW.Pz.Gamma,POW.T8.Theta,POW.T8.Alpha,POW.T8.BetaL,POW.T8.BetaH,POW.T8.Gamma,POW.AF4.Theta,POW.AF4.Alpha,POW.AF4.BetaL,POW.AF4.BetaH,POW.AF4.Gamma
80683,1645583276.67419,99.0,0.0,4313.333496,4473.333496,4220.512695,4280.512695,4305.641113000001,16202.0,4.0,95.0,68.0,1.0,4.0,0.0,4.0,2.0,4.0,0.0,4.0,50.0,,,,,,,,,,,,,,,,,,,,,,,,,,,,,,,,,,,,,,,,,,,,,,,,,,,,,,0.0,0.0,1.0,0.0,512.0,1.0,,,,,,,,,,,,,,,,,,,,,,,,,
80684,1645583276.6820052,100.0,0.0,4302.563965,4464.102539,4208.205078,4280.512695,4296.922852000001,450.0,4.0,95.0,,,,0.0,4.0,2.0,4.0,0.0,4.0,50.0,,,,,,,,50.0,0.0,0.489509,-0.270996,0.588379,0.5837399999999999,0.9087049999999999,-0.41992799999999997,-0.157229,-0.034249,-0.035483999999999995,-0.034242,,,,,,,,,,,,,,,,,,,,,,,,,,,,,,,,,,,,,,,,,,,,,,,,,,,,,,,,,,,,,,,,,
80685,1645583276.6898198,101.0,0.0,4308.717772999999,4462.05127,4202.563965,4280.512695,4301.025879,450.0,4.0,95.0,,,,0.0,4.0,2.0,4.0,0.0,4.0,50.0,,,,,,,,,,,,,,,,,,,,,,,,,,,,,,,,,,,,,,,,,,,,,,,,,,,,,,,,,,,,,,,,,,,,,,,,,,,,,,,,,,,,
80686,1645583276.697634,102.0,0.0,4305.128418,4421.538574,4203.589844,4280.512695,4294.871582,450.0,4.0,95.0,,,,0.0,4.0,2.0,4.0,0.0,4.0,50.0,,,,,,,,51.0,0.0,0.489509,-0.270996,0.588379,0.5837399999999999,0.903334,-0.404791,-0.15967,-0.034242,-0.035403,-0.029548,,,,,,,,,,,,,,,,,,,,,,,,,,,,,,,,,,,,,,,,,,,,,,,,,,,,,,,,,,,,,,,,,
80687,1645583276.705449,103.0,0.0,4296.410156,4383.589844,4211.282227000001,4281.025879,4265.641113000001,16202.0,4.0,95.0,,,,0.0,4.0,2.0,4.0,0.0,4.0,50.0,,,,,,,,,,,,,,,,,,,,,,,,,,,,,,,,,,,,,,,,,,,,,,,,,,,,,,0.0,0.0,1.0,0.0,512.0,1.0,,,,,,,,,,,,,,,,,,,,,,,,,
80688,1645583276.713264,104.0,0.0,4311.794922,4419.487305,4216.922852000001,4281.025879,4272.307617,450.0,4.0,95.0,,,,0.0,4.0,2.0,4.0,0.0,4.0,50.0,,,,,,,,52.0,0.0,0.489958,-0.27124000000000004,0.5881350000000001,0.583496,0.917983,-0.406744,-0.158694,-0.034187,-0.035427,-0.031671,,,,,,,,,,,,,,,,,,,,,,,,,,,,,,,,,,,,,,,,,,,,,,,,,,,,,,,,,,,,,,,,,
80689,1645583276.721078,105.0,0.0,4330.769043,4386.666504,4209.743652,4278.974121,4308.205078,450.0,4.0,95.0,,,,0.0,4.0,2.0,4.0,0.0,4.0,50.0,,,,,,,,,,,,,,,,,,,,,,,,,,,,,,,,,,,,,,,,,,,,,,,,,,,,,,,,,,,,,,,,,,,,,,,,,,,,,,,,,,,,
80690,1645583276.728893,106.0,0.0,4322.563965,4233.333496,4202.563965,4279.487305,4301.538574,450.0,4.0,95.0,,,,0.0,4.0,2.0,4.0,0.0,4.0,50.0,,,,,,,,53.0,0.0,0.48982200000000004,-0.271484,0.5881350000000001,0.583496,0.9126120000000001,-0.413092,-0.158694,-0.034235,-0.035595,-0.027186000000000002,,,,,,,,,,,,,,,,,,,,,,,,,,,,,,,,,,,,,,,,,,,,,,,,,,,,,,,,,,,,,,,,,
80691,1645583276.736707,107.0,0.0,4303.077147999999,4185.641113000001,4207.179688,4281.538574,4267.179688,16202.0,4.0,95.0,,,,0.0,4.0,2.0,4.0,0.0,4.0,50.0,,,,,,,,,,,,,,,,,,,,,,,,,,,,,,,,,,,,,,,,,,,,,,,,,,,,,,0.0,0.0,1.0,0.0,512.0,1.0,,,,,,,,,,,,,,,,,,,,,,,,,
80692,1645583276.744422,108.0,0.0,4298.974121,4286.666504,4207.692383,4282.05127,4265.641113000001,450.0,4.0,95.0,,,,0.0,4.0,2.0,4.0,0.0,4.0,50.0,,,,,,,,54.0,0.0,0.48953100000000005,-0.271484,0.5881350000000001,0.5837399999999999,0.9116350000000001,-0.415534,-0.140627,-0.034230000000000003,-0.035649,-0.029545,,,,,,,,,,,,,,,,,,,,,,,,,,,,,,,,,,,,,,,,,,,,,,,,,,,,,,,,,,,,,,,,,
80693,1645583276.7522368,109.0,0.0,4312.820313,4303.077147999999,4210.256348,4280.512695,4292.307617,450.0,4.0,95.0,,,,0.0,4.0,2.0,4.0,0.0,4.0,50.0,,,,,,,,,,,,,,,,,,,,,,,,,,,,,,,,,,,,,,,,,,,,,,,,,,,,,,,,,,,,,,,,,,,,,,,,,,,,,,,,,,,,
80694,1645583276.760052,110.0,0.0,4315.384765999999,4280.0,4222.563965,4280.512695,4297.436035,450.0,4.0,95.0,,,,0.0,4.0,2.0,4.0,0.0,4.0,50.0,,,,,,,,55.0,0.0,0.489396,-0.271729,0.5881350000000001,0.5837399999999999,0.9052870000000001,-0.41406899999999996,-0.151858,-0.034225,-0.035698,-0.031570999999999995,,,,,,,,,,,,,,,,,,,,,,,,,,,,,,,,,,,,,,,,,,,,,,,,,,,,,,,,,,,,,,,,,
80695,1645583276.7678661,111.0,0.0,4289.230957,4356.922852000001,4215.897461,4281.025879,4276.410156,16202.0,4.0,95.0,,,,0.0,4.0,2.0,4.0,0.0,4.0,50.0,0.972656,41.666668,4.0,1.0,4.0,0.0,4.0,,,,,,,,,,,,,1.0,0.0,0.0,,,,,,,,,,,,,,,,,,,,,,,,,,,,,,,,0.0,0.0,1.0,0.0,512.0,1.0,3.810422,2.703694,3.046467,1.107626,1.70278,156.965439,95.941124,81.424934,22.867449,16.336702,3.186482,1.8540259999999997,0.734915,0.9136719999999999,0.587658,0.002055,0.000698,0.0009050000000000001,0.000785,0.000755,2.1867520000000003,0.975614,1.9360810000000002,1.509627,1.236953
80696,1645583276.7755811,112.0,0.0,4283.589844,4413.333496,4196.922852000001,4280.512695,4274.358886999999,450.0,4.0,95.0,,,,0.0,4.0,2.0,4.0,0.0,4.0,50.0,,,,,,,,56.0,0.0,0.489396,-0.271729,0.5881350000000001,0.5837399999999999,0.9150530000000001,-0.411627,-0.15674100000000002,-0.034269,-0.035643,-0.027291000000000003,,,,,,,,,,,,,,,,,,,,,,,,,,,,,,,,,,,,,,,,,,,,,,,,,,,,,,,,,,,,,,,,,
80697,1645583276.7833948,113.0,0.0,4312.307617,4375.384765999999,4200.0,4280.512695,4290.769043,450.0,4.0,95.0,,,,0.0,4.0,2.0,4.0,0.0,4.0,50.0,,,,,,,,,,,,,,,,,,,,,,,,,,,,,,,,,,,,,,,,,,,,,,,,,,,,,,,,,,,,,,,,,,,,,,,,,,,,,,,,,,,,
80698,1645583276.79121,114.0,0.0,4327.692383,4347.692383,4212.820313,4280.512695,4293.846191,450.0,4.0,95.0,,,,0.0,4.0,2.0,4.0,0.0,4.0,50.0,,,,,,,,57.0,0.0,0.48910200000000004,-0.271729,0.588379,0.5837399999999999,0.901381,-0.41113900000000003,-0.157229,-0.034163,-0.035595,-0.029543,,,,,,,,,,,,,,,,,,,,,,,,,,,,,,,,,,,,,,,,,,,,,,,,,,,,,,,,,,,,,,,,,
80699,1645583276.799024,115.0,0.0,4333.333496,4332.820313,4211.794922,4280.512695,4297.94873,16202.0,4.0,95.0,,,,0.0,4.0,2.0,4.0,0.0,4.0,50.0,,,,,,,,,,,,,,,,,,,,,,,,,,,,,,,,,,,,,,,,,,,,,,,,,,,,,,0.0,0.0,1.0,0.0,512.0,1.0,,,,,,,,,,,,,,,,,,,,,,,,,
80700,1645583276.806838,116.0,0.0,4345.128418,4289.230957,4211.794922,4280.512695,4306.153809,450.0,4.0,95.0,,,,0.0,4.0,2.0,4.0,0.0,4.0,50.0,,,,,,,,58.0,0.0,0.48939399999999994,-0.271729,0.588379,0.583496,0.897475,-0.409674,-0.165042,-0.034262,-0.035649,-0.031715,,,,,,,,,,,,,,,,,,,,,,,,,,,,,,,,,,,,,,,,,,,,,,,,,,,,,,,,,,,,,,,,,
80701,1645583276.814653,117.0,0.0,4339.487305,4324.102539,4210.256348,4280.512695,4296.922852000001,450.0,4.0,95.0,,,,0.0,4.0,2.0,4.0,0.0,4.0,50.0,,,,,,,,,,,,,,,,,,,,,,,,,,,,,,,,,,,,,,,,,,,,,,,,,,,,,,,,,,,,,,,,,,,,,,,,,,,,,,,,,,,,
80702,1645583276.822467,118.0,0.0,4320.512695,4426.153809,4204.615234000001,4281.025879,4289.230957,450.0,4.0,95.0,,,,0.0,4.0,2.0,4.0,0.0,4.0,50.0,,,,,,,,59.0,0.0,0.48923599999999995,-0.271484,0.588623,0.583496,0.890639,-0.411627,-0.166018,-0.034303,-0.035599,-0.027225,,,,,,,,,,,,,,,,,,,,,,,,,,,,,,,,,,,,,,,,,,,,,,,,,,,,,,,,,,,,,,,,,
80703,1645583276.830182,119.0,0.0,4318.974121,4418.461426,4208.205078,4280.512695,4302.563965,16202.0,4.0,95.0,,,,0.0,4.0,2.0,4.0,0.0,4.0,50.0,,,,,,,,,,,,,,,,,,,,,,,,,,,,,,,,,,,,,,,,,,,,,,,,,,,,,,0.0,0.0,1.0,0.0,512.0,1.0,,,,,,,,,,,,,,,,,,,,,,,,,
80704,1645583276.837997,120.0,0.0,4332.307617,4311.794922,4222.563965,4279.487305,4317.436035,450.0,4.0,95.0,,,,0.0,4.0,2.0,4.0,0.0,4.0,50.0,,,,,,,,60.0,0.0,0.48923599999999995,-0.271484,0.588623,0.583496,0.8964979999999999,-0.412116,-0.157717,-0.034242,-0.035457999999999996,-0.02963,,,,,,,,,,,,,,,,,,,,,,,,,,,,,,,,,,,,,,,,,,,,,,,,,,,,,,,,,,,,,,,,,
80705,1645583276.845811,121.0,0.0,4324.615234000001,4261.538574,4227.692383,4281.025879,4308.205078,450.0,4.0,95.0,,,,0.0,4.0,2.0,4.0,0.0,4.0,50.0,,,,,,,,,,,,,,,,,,,,,,,,,,,,,,,,,,,,,,,,,,,,,,,,,,,,,,,,,,,,,,,,,,,,,,,,,,,,,,,,,,,,
80706,1645583276.853626,122.0,0.0,4297.94873,4258.461426,4221.538574,4282.05127,4272.820313,450.0,4.0,95.0,,,,0.0,4.0,2.0,4.0,0.0,4.0,50.0,,,,,,,,61.0,0.0,0.48923599999999995,-0.271484,0.588623,0.583496,0.909682,-0.41895200000000005,-0.148928,-0.034332999999999995,-0.035525,-0.031794,,,,,,,,,,,,,,,,,,,,,,,,,,,,,,,,,,,,,,,,,,,,,,,,,,,,,,,,,,,,,,,,,
80707,1645583276.86144,123.0,0.0,4296.922852000001,4262.563965,4215.897461,4280.512695,4256.922852000001,16202.0,4.0,95.0,,,,0.0,4.0,2.0,4.0,0.0,4.0,50.0,,,,,,,,,,,,,,,,,,,,,,,,,,,,,,,,,,,,,,,,,,,,,,,,,,,,,,0.0,0.0,1.0,0.0,512.0,1.0,,,,,,,,,,,,,,,,,,,,,,,,,
80708,1645583276.869255,124.0,0.0,4325.128418,4288.205078,4211.282227000001,4279.487305,4279.487305,450.0,4.0,95.0,,,,0.0,4.0,2.0,4.0,0.0,4.0,50.0,,,,,,,,62.0,0.0,0.48923599999999995,-0.271484,0.588623,0.583496,0.902358,-0.41944,-0.140627,-0.034269,-0.035391000000000006,-0.033644,,,,,,,,,,,,,,,,,,,,,,,,,,,,,,,,,,,,,,,,,,,,,,,,,,,,,,,,,,,,,,,,,
80709,1645583276.87707,125.0,0.0,4331.794922,4285.641113000001,4205.641113000001,4280.0,4284.615234000001,450.0,4.0,95.0,,,,0.0,4.0,2.0,4.0,0.0,4.0,50.0,,,,,,,,,,,,,,,,,,,,,,,,,,,,,,,,,,,,,,,,,,,,,,,,,,,,,,,,,,,,,,,,,,,,,,,,,,,,,,,,,,,,
80710,1645583276.8848839,126.0,0.0,4321.538574,4273.333496,4207.179688,4279.487305,4270.769043,450.0,4.0,95.0,,,,0.0,4.0,2.0,4.0,0.0,4.0,50.0,,,,,,,,63.0,0.0,0.489529,-0.271484,0.588379,0.583496,0.9199360000000001,-0.399908,-0.156252,-0.034260000000000006,-0.035464999999999997,-0.035309,,,,,,,,,,,,,,,,,,,,,,,,,,,,,,,,,,,,,,,,,,,,,,,,,,,,,,,,,,,,,,,,,
80711,1645583276.892699,127.0,0.0,4321.538574,4333.846191,4220.0,4278.974121,4277.436035,243.0,4.0,95.0,,,,0.0,4.0,2.0,4.0,0.0,4.0,50.0,,,,,,,,,,,,,,,,,,,,1.0,0.0,0.0,,,,,,,,,,,,,,,,,,,,,,,,,,,,,,,,0.0,0.0,1.0,0.0,512.0,1.0,2.985392,2.295772,2.923162,1.053431,1.8682029999999998,168.398438,85.08764599999999,96.793701,24.260141,17.325291,2.955561,1.999021,0.76331,0.98174,0.592041,0.001471,0.000352,0.0008089999999999999,0.000785,0.000797,2.487114,1.16015,2.48273,1.576096,1.227457
80712,1645583276.9005141,0.0,0.0,4322.563965,4401.025879,4227.692383,4280.0,4284.615234000001,450.0,4.0,95.0,,,,0.0,4.0,2.0,4.0,0.0,4.0,50.0,,,,,,,,0.0,0.0,0.489529,-0.271484,0.588379,0.583496,0.901869,-0.411627,-0.17236600000000002,-0.034399,-0.035483,-0.03046,,,,,,,,,,,,,,,,,,,,,,,,,,,,,,,,,,,,,,,,,,,,,,,,,,,,,,,,,,,,,,,,,
80713,1645583276.908228,1.0,0.0,4325.641113000001,4389.743652,4234.358886999999,4280.512695,4281.025879,450.0,4.0,95.0,,,,0.0,4.0,2.0,4.0,0.0,4.0,50.0,,,,,,,,,,,,,,,,,,,,,,,,,,,,,,,,,,,,,,,,,,,,,,,,,,,,,,,,,,,,,,,,,,,,,,,,,,,,,,,,,,,,
80714,1645583276.916043,2.0,0.0,4324.615234000001,4362.563965,4244.615234000001,4280.512695,4280.0,16233.0,4.0,95.0,,,,0.0,4.0,2.0,4.0,0.0,4.0,50.0,,,,,,,,1.0,0.0,0.48923599999999995,-0.271484,0.588623,0.583496,0.902358,-0.41944,-0.140627,-0.034279000000000004,-0.035548,-0.026193,,,,,,,,,,,,,,,,,,,,,,,,,,,,,,,,,,,,,,,,,,,,,,,,,,,,,,,,,,,,,,,,,
80715,1645583276.923858,3.0,0.0,4313.846191,4371.282227000001,4236.410156,4280.512695,4275.897461,450.0,4.0,95.0,,,,0.0,4.0,2.0,4.0,0.0,4.0,50.0,,,,,,,,,,,,,,,,,,,,,,,,,,,,,,,,,,,,,,,,,,,,,,,,,,,,,,0.0,0.0,1.0,0.0,512.0,1.0,,,,,,,,,,,,,,,,,,,,,,,,,
80716,1645583276.931572,4.0,0.0,4305.641113000001,4302.563965,4214.871582,4280.512695,4256.410156,204.0,4.0,95.0,,,,0.0,4.0,2.0,4.0,0.0,4.0,50.0,,,,,,,,2.0,0.0,0.489529,-0.271484,0.588379,0.583496,0.901869,-0.411627,-0.17236600000000002,-0.034416,-0.035558,-0.022255,,,,,,,,,,,,,,,,,,,,,,,,,,,,,,,,,,,,,,,,,,,,,,,,,,,,,,,,,,,,,,,,,
80717,1645583276.9393868,5.0,0.0,4302.563965,4181.025879,4211.282227000001,4280.512695,4241.025879,450.0,4.0,95.0,,,,0.0,4.0,2.0,4.0,0.0,4.0,50.0,,,,,,,,,,,,,,,,,,,,,,,,,,,,,,,,,,,,,,,,,,,,,,,,,,,,,,,,,,,,,,,,,,,,,,,,,,,,,,,,,,,,
80718,1645583276.947202,6.0,0.0,4300.512695,4176.922852000001,4217.436035,4280.512695,4261.025879,16202.0,4.0,95.0,,,,0.0,4.0,2.0,4.0,0.0,4.0,50.0,,,,,,,,3.0,0.0,0.48966400000000004,-0.27124000000000004,0.588379,0.583496,0.9184709999999999,-0.401373,-0.15674100000000002,-0.034294,-0.035615,-0.018809,,,,,,,,,,,,,,,,,,,,,,,,,,,,,,,,,,,,,,,,,,,,,,,,,,,,,,,,,,,,,,,,,
80719,1645583276.954917,7.0,0.0,4295.384765999999,4259.487305,4210.769043,4280.512695,4290.256348,450.0,4.0,95.0,,,,0.0,4.0,2.0,4.0,0.0,4.0,50.0,,,,,,,,,,,,,,,,,,,,,,,,,,,,,,,,,,,,,,,,,,,,,,,,,,,,,,0.0,0.0,1.0,0.0,512.0,1.0,,,,,,,,,,,,,,,,,,,,,,,,,
80720,1645583276.9627311,8.0,0.0,4294.358886999999,4283.589844,4209.230957,4280.512695,4276.410156,450.0,4.0,95.0,,,,0.0,4.0,2.0,4.0,0.0,4.0,50.0,,,,,,,,4.0,0.0,0.489958,-0.27124000000000004,0.5881350000000001,0.583496,0.909682,-0.406744,-0.153811,-0.034332,-0.035618000000000004,-0.021958000000000002,,,,,,,,,,,,,,,,,,,,,,,,,,,,,,,,,,,,,,,,,,,,,,,,,,,,,,,,,,,,,,,,,
80721,1645583276.970546,9.0,0.0,4307.692383,4232.307617,4216.922852000001,4280.512695,4246.153809,0.0,4.0,95.0,,,,0.0,4.0,2.0,4.0,0.0,4.0,50.0,,,,,,,,,,,,,,,,,,,,,,,,,,,,,,,,,,,,,,,,,,,,,,,,,,,,,,,,,,,,,,,,,,,,,,,,,,,,,,,,,,,,
80722,1645583276.97836,10.0,0.0,4325.128418,4212.820313,4219.487305,4280.512695,4252.307617,450.0,4.0,95.0,,,,0.0,4.0,2.0,4.0,0.0,4.0,50.0,,,,,,,,5.0,0.0,0.489958,-0.27124000000000004,0.5881350000000001,0.583496,0.908217,-0.411627,-0.171878,-0.034414,-0.03567,-0.01859,,,,,,,,,,,,,,,,,,,,,,,,,,,,,,,,,,,,,,,,,,,,,,,,,,,,,,,,,,,,,,,,,
80723,1645583276.986175,11.0,0.0,4315.897461,4291.794922,4218.974121,4280.512695,4260.512695,16201.0,4.0,95.0,,,,0.0,4.0,2.0,4.0,0.0,4.0,50.0,,,,,,,,,,,,,,,,,,,,,,,,,,,,,,,,,,,,,,,,,,,,,,,,,,,,,,0.0,0.0,1.0,0.0,512.0,1.0,,,,,,,,,,,,,,,,,,,,,,,,,
80724,1645583276.99399,12.0,0.0,4295.897461,4357.94873,4223.589844,4280.512695,4252.820313,450.0,4.0,95.0,,,,0.0,4.0,2.0,4.0,0.0,4.0,50.0,,,,,,,,6.0,0.0,0.489958,-0.27124000000000004,0.5881350000000001,0.583496,0.920424,-0.422858,-0.159182,-0.034293000000000004,-0.035667000000000004,-0.015559,,,,,,,,,,,,,,,,,,,,,,,,,,,,,,,,,,,,,,,,,,,,,,,,,,,,,,,,,,,,,,,,,
80725,1645583277.0018039,13.0,0.0,4318.974121,4315.897461,4227.179688,4280.512695,4266.666504,450.0,4.0,95.0,,,,0.0,4.0,2.0,4.0,0.0,4.0,50.0,,,,,,,,,,,,,,,,,,,,,,,,,,,,,,,,,,,,,,,,,,,,,,,,,,,,,,,,,,,,,,,,,,,,,,,,,,,,,,,,,,,,
80726,1645583277.009619,14.0,0.0,4338.461426,4272.307617,4221.538574,4280.512695,4274.358886999999,450.0,4.0,95.0,,,,0.0,4.0,2.0,4.0,0.0,4.0,50.0,,,,,,,,7.0,0.0,0.48980200000000007,-0.270996,0.5881350000000001,0.5837399999999999,0.906752,-0.41944,-0.152834,-0.034233,-0.035616,-0.012831,,,,,,,,,,,,,,,,,,,,,,,,,,,,,,,,,,,,,,,,,,,,,,,,,,,,,,,,,,,,,,,,,
80727,1645583277.017334,15.0,0.0,4301.025879,4293.846191,4217.94873,4280.512695,4245.641113000001,16201.0,4.0,95.0,,,,0.0,4.0,2.0,4.0,0.0,4.0,50.0,,,,,,,,,,,,,,,,,,,,1.0,0.0,0.0,,,,,,,,,,,,,,,,,,,,,,,,,,,,,,,,0.0,0.0,1.0,0.0,512.0,1.0,2.302078,1.901977,2.740596,1.076827,1.9777529999999999,168.336548,73.908325,107.76026200000001,26.10272,18.580395000000003,2.61227,2.016973,0.793917,1.018053,0.575023,0.001172,0.00022799999999999999,0.000875,0.0008789999999999999,0.0009109999999999999,3.4018839999999995,1.6388459999999998,2.871281,1.517421,1.223907
80728,1645583277.0251482,16.0,0.0,4282.563965,4284.102539,4225.128418,4281.025879,4231.282227000001,0.0,4.0,95.0,,,,0.0,4.0,2.0,4.0,0.0,4.0,50.0,,,,,,,,8.0,0.0,0.48980200000000007,-0.270996,0.5881350000000001,0.5837399999999999,0.9052870000000001,-0.425299,-0.152346,-0.034374,-0.035619,-0.016626,,,,,,,,,,,,,,,,,,,,,,,,,,,,,,,,,,,,,,,,,,,,,,,,,,,,,,,,,,,,,,,,,
80729,1645583277.032963,17.0,0.0,4314.871582,4286.666504,4227.179688,4279.487305,4250.256348,0.0,4.0,95.0,,,,0.0,4.0,2.0,4.0,0.0,4.0,50.0,,,,,,,,,,,,,,,,,,,,,,,,,,,,,,,,,,,,,,,,,,,,,,,,,,,,,,,,,,,,,,,,,,,,,,,,,,,,,,,,,,,,
80730,1645583277.040778,18.0,0.0,4325.641113000001,4307.179688,4225.641113000001,4279.487305,4268.205078,0.0,4.0,95.0,,,,0.0,4.0,2.0,4.0,0.0,4.0,50.0,,,,,,,,9.0,0.0,0.489937,-0.270752,0.5881350000000001,0.5837399999999999,0.894057,-0.42627600000000004,-0.154299,-0.034306,-0.035475,-0.020091,,,,,,,,,,,,,,,,,,,,,,,,,,,,,,,,,,,,,,,,,,,,,,,,,,,,,,,,,,,,,,,,,
80731,1645583277.048592,19.0,0.0,4307.692383,4240.512695,4225.641113000001,4281.538574,4265.641113000001,0.0,4.0,95.0,,,,0.0,4.0,2.0,4.0,0.0,4.0,50.0,,,,,,,,,,,,,,,,,,,,,,,,,,,,,,,,,,,,,,,,,,,,,,,,,,,,,,0.0,0.0,1.0,0.0,512.0,1.0,,,,,,,,,,,,,,,,,,,,,,,,,
80732,1645583277.056407,20.0,0.0,4317.436035,4204.102539,4223.589844,4282.05127,4259.487305,0.0,4.0,95.0,,,,0.0,4.0,2.0,4.0,0.0,4.0,50.0,,,,,,,,10.0,0.0,0.490228,-0.270752,0.5881350000000001,0.583496,0.9111469999999999,-0.415045,-0.157229,-0.034245,-0.035394999999999996,-0.017006999999999998,,,,,,,,,,,,,,,,,,,,,,,,,,,,,,,,,,,,,,,,,,,,,,,,,,,,,,,,,,,,,,,,,
80733,1645583277.064222,21.0,0.0,4329.230957,4270.769043,4226.153809,4280.512695,4257.94873,0.0,4.0,95.0,,,,0.0,4.0,2.0,4.0,0.0,4.0,50.0,,,,,,,,,,,,,,,,,,,,,,,,,,,,,,,,,,,,,,,,,,,,,,,,,,,,,,,,,,,,,,,,,,,,,,,,,,,,,,,,,,,,
80734,1645583277.072036,22.0,0.0,4311.794922,4274.871582,4235.384765999999,4280.512695,4258.461426,0.0,4.0,95.0,,,,0.0,4.0,2.0,4.0,0.0,4.0,50.0,,,,,,,,11.0,0.0,0.49009300000000006,-0.270996,0.5881350000000001,0.583496,0.9160299999999999,-0.425788,-0.165042,-0.034189,-0.03542,-0.020238,,,,,,,,,,,,,,,,,,,,,,,,,,,,,,,,,,,,,,,,,,,,,,,,,,,,,,,,,,,,,,,,,
80735,1645583277.079851,23.0,0.0,4308.717772999999,4187.179688,4230.769043,4281.025879,4271.282227000001,0.0,4.0,95.0,,,,0.0,4.0,2.0,4.0,0.0,4.0,50.0,,,,,,,,,,,,,,,,,,,,,,,,,,,,,,,,,,,,,,,,,,,,,,,,,,,,,,0.0,0.0,1.0,0.0,512.0,1.0,,,,,,,,,,,,,,,,,,,,,,,,,
80736,1645583277.087566,24.0,0.0,4320.512695,4184.615234000001,4220.512695,4280.512695,4288.205078,0.0,4.0,95.0,,,,0.0,4.0,2.0,4.0,0.0,4.0,50.0,,,,,,,,12.0,0.0,0.49009300000000006,-0.270996,0.5881350000000001,0.583496,0.9043110000000001,-0.412116,-0.16894800000000001,-0.034237000000000004,-0.035344,-0.023341999999999998,,,,,,,,,,,,,,,,,,,,,,,,,,,,,,,,,,,,,,,,,,,,,,,,,,,,,,,,,,,,,,,,,
80737,1645583277.09538,25.0,0.0,4304.615234000001,4266.666504,4221.025879,4280.512695,4286.666504,0.0,4.0,95.0,,,,0.0,4.0,2.0,4.0,0.0,4.0,50.0,,,,,,,,,,,,,,,,,,,,,,,,,,,,,,,,,,,,,,,,,,,,,,,,,,,,,,,,,,,,,,,,,,,,,,,,,,,,,,,,,,,,
80738,1645583277.103195,26.0,0.0,4276.922852000001,4311.794922,4214.358886999999,4280.0,4266.153809,0.0,4.0,95.0,,,,0.0,4.0,2.0,4.0,0.0,4.0,50.0,,,,,,,,13.0,0.0,0.490383,-0.270996,0.5881350000000001,0.583252,0.9131,-0.417975,-0.172854,-0.034134,-0.035472000000000004,-0.025988,,,,,,,,,,,,,,,,,,,,,,,,,,,,,,,,,,,,,,,,,,,,,,,,,,,,,,,,,,,,,,,,,
80739,1645583277.11101,27.0,0.0,4286.666504,4344.102539,4206.153809,4279.487305,4259.487305,0.0,4.0,95.0,,,,0.0,4.0,2.0,4.0,0.0,4.0,50.0,,,,,,,,,,,,,,,,,,,,,,,,,,,,,,,,,,,,,,,,,,,,,,,,,,,,,,0.0,0.0,1.0,0.0,512.0,1.0,,,,,,,,,,,,,,,,,,,,,,,,,
80740,1645583277.118824,28.0,0.0,4316.410156,4355.897461,4216.922852000001,4279.487305,4281.025879,0.0,4.0,95.0,,,,0.0,4.0,2.0,4.0,0.0,4.0,50.0,,,,,,,,14.0,0.0,0.49038100000000007,-0.270996,0.588379,0.583008,0.9091940000000001,-0.410163,-0.163088,-0.034138999999999996,-0.035441,-0.028467000000000003,,,,,,,,,,,,,,,,,,,,,,,,,,,,,,,,,,,,,,,,,,,,,,,,,,,,,,,,,,,,,,,,,
80741,1645583277.1266391,29.0,0.0,4309.230957,4327.692383,4226.666504,4281.025879,4286.666504,0.0,4.0,95.0,,,,0.0,4.0,2.0,4.0,0.0,4.0,50.0,,,,,,,,,,,,,,,,,,,,,,,,,,,,,,,,,,,,,,,,,,,,,,,,,,,,,,,,,,,,,,,,,,,,,,,,,,,,,,,,,,,,
80742,1645583277.134454,30.0,0.0,4281.538574,4300.512695,4221.025879,4282.05127,4256.410156,0.0,4.0,95.0,,,,0.0,4.0,2.0,4.0,0.0,4.0,50.0,,,,,,,,15.0,0.0,0.490246,-0.27124000000000004,0.588379,0.583008,0.916518,-0.411627,-0.17236600000000002,-0.034045,-0.035412,-0.024449000000000002,,,,,,,,,,,,,,,,,,,,,,,,,,,,,,,,,,,,,,,,,,,,,,,,,,,,,,,,,,,,,,,,,
80743,1645583277.142268,31.0,0.0,4281.538574,4273.333496,4216.410156,4281.025879,4248.717772999999,0.0,4.0,95.0,,,,0.0,4.0,2.0,4.0,0.0,4.0,50.0,,,,,,,,,,,,,,,,,,,,1.0,0.0,0.0,,,,,,,,,,,,,,,,,,,,,,,,,,,,,,,,0.0,0.0,1.0,0.0,512.0,1.0,1.8512220000000001,1.6149120000000001,2.593326,1.188421,2.000084,155.822174,66.101097,112.75495900000001,27.823985999999998,19.613874,2.278381,1.889574,0.8282879999999999,1.0316459999999998,0.5444479999999999,0.001026,0.000248,0.0009539999999999999,0.001013,0.001056,4.8039760000000005,2.414312,2.93745,1.3585969999999998,1.2357120000000001
80744,1645583277.150083,32.0,0.0,4294.358886999999,4243.589844,4215.384765999999,4279.487305,4261.025879,0.0,4.0,95.0,,,,0.0,4.0,2.0,4.0,0.0,4.0,50.0,,,,,,,,16.0,0.0,0.490246,-0.27124000000000004,0.588379,0.583008,0.9087049999999999,-0.41358100000000003,-0.160159,-0.034010000000000006,-0.035289,-0.020832,,,,,,,,,,,,,,,,,,,,,,,,,,,,,,,,,,,,,,,,,,,,,,,,,,,,,,,,,,,,,,,,,
80745,1645583277.157898,33.0,0.0,4288.205078,4241.538574,4211.794922,4279.487305,4251.282227000001,0.0,4.0,95.0,,,,0.0,4.0,2.0,4.0,0.0,4.0,50.0,,,,,,,,,,,,,,,,,,,,,,,,,,,,,,,,,,,,,,,,,,,,,,,,,,,,,,,,,,,,,,,,,,,,,,,,,,,,,,,,,,,,
80746,1645583277.165612,34.0,0.0,4289.230957,4237.436035,4208.205078,4280.0,4262.05127,0.0,4.0,95.0,,,,0.0,4.0,2.0,4.0,0.0,4.0,50.0,,,,,,,,17.0,0.0,0.49011099999999996,-0.271484,0.588379,0.583008,0.8964979999999999,-0.407233,-0.148928,-0.034026999999999995,-0.035325,-0.023778,,,,,,,,,,,,,,,,,,,,,,,,,,,,,,,,,,,,,,,,,,,,,,,,,,,,,,,,,,,,,,,,,
80747,1645583277.1734269,35.0,0.0,4296.922852000001,4234.358886999999,4202.05127,4280.0,4284.102539,0.0,4.0,95.0,,,,0.0,4.0,2.0,4.0,0.0,4.0,50.0,,,,,,,,,,,,,,,,,,,,,,,,,,,,,,,,,,,,,,,,,,,,,,,,,,,,,,0.0,0.0,1.0,0.0,512.0,1.0,,,,,,,,,,,,,,,,,,,,,,,,,
80748,1645583277.181242,36.0,0.0,4278.461426,4285.128418,4192.307617,4278.974121,4264.102539,0.0,4.0,95.0,,,,0.0,4.0,2.0,4.0,0.0,4.0,50.0,,,,,,,,18.0,0.0,0.49011099999999996,-0.271484,0.588379,0.583008,0.9004040000000001,-0.421393,-0.160647,-0.033993,-0.035308,-0.020228,,,,,,,,,,,,,,,,,,,,,,,,,,,,,,,,,,,,,,,,,,,,,,,,,,,,,,,,,,,,,,,,,
80749,1645583277.1890562,37.0,0.0,4266.666504,4312.307617,4195.384765999999,4279.487305,4246.153809,0.0,4.0,95.0,,,,0.0,4.0,2.0,4.0,0.0,4.0,50.0,,,,,,,,,,,,,,,,,,,,,,,,,,,,,,,,,,,,,,,,,,,,,,,,,,,,,,,,,,,,,,,,,,,,,,,,,,,,,,,,,,,,
80750,1645583277.196871,38.0,0.0,4286.666504,4323.077147999999,4209.743652,4281.538574,4265.128418,0.0,4.0,95.0,,,,0.0,4.0,2.0,4.0,0.0,4.0,50.0,,,,,,,,19.0,0.0,0.49040100000000003,-0.271484,0.588379,0.5827640000000001,0.9052870000000001,-0.41260399999999997,-0.16406500000000002,-0.033914,-0.035293,-0.016985,,,,,,,,,,,,,,,,,,,,,,,,,,,,,,,,,,,,,,,,,,,,,,,,,,,,,,,,,,,,,,,,,
80751,1645583277.204685,39.0,0.0,4307.692383,4378.461426,4205.641113000001,4282.05127,4277.94873,0.0,4.0,95.0,,,,0.0,4.0,2.0,4.0,0.0,4.0,50.0,,,,,,,,,,,,,,,,,,,,,,,,,,,,,,,,,,,,,,,,,,,,,,,,,,,,,,0.0,0.0,1.0,0.0,512.0,1.0,,,,,,,,,,,,,,,,,,,,,,,,,
80752,1645583277.2125,40.0,0.0,4307.179688,4355.384765999999,4189.230957,4281.025879,4259.487305,0.0,4.0,95.0,,,,0.0,4.0,2.0,4.0,0.0,4.0,50.0,,,,,,,,20.0,0.0,0.49040100000000003,-0.271484,0.588379,0.5827640000000001,0.898451,-0.409674,-0.158694,-0.033941000000000006,-0.035279000000000005,-0.014016999999999998,,,,,,,,,,,,,,,,,,,,,,,,,,,,,,,,,,,,,,,,,,,,,,,,,,,,,,,,,,,,,,,,,
80753,1645583277.220315,41.0,0.0,4284.615234000001,4198.461426,4184.102539,4281.538574,4249.230957,0.0,4.0,95.0,,,,0.0,4.0,2.0,4.0,0.0,4.0,50.0,,,,,,,,,,,,,,,,,,,,,,,,,,,,,,,,,,,,,,,,,,,,,,,,,,,,,,,,,,,,,,,,,,,,,,,,,,,,,,,,,,,,
80754,1645583277.228129,42.0,0.0,4286.153809,4182.05127,4185.641113000001,4281.538574,4260.0,0.0,4.0,95.0,,,,0.0,4.0,2.0,4.0,0.0,4.0,50.0,,,,,,,,21.0,0.0,0.490691,-0.271484,0.588379,0.5825199999999999,0.904799,-0.408209,-0.161624,-0.033964999999999995,-0.035267,-0.017547,,,,,,,,,,,,,,,,,,,,,,,,,,,,,,,,,,,,,,,,,,,,,,,,,,,,,,,,,,,,,,,,,
80755,1645583277.235844,43.0,0.0,4336.410156,4358.461426,4187.692383,4281.538574,4272.307617,0.0,4.0,95.0,,,,0.0,4.0,2.0,4.0,0.0,4.0,50.0,,,,,,,,,,,,,,,,,,,,,,,,,,,,,,,,,,,,,,,,,,,,,,,,,,,,,,0.0,0.0,1.0,0.0,512.0,1.0,,,,,,,,,,,,,,,,,,,,,,,,,
80756,1645583277.243659,44.0,0.0,4320.512695,4351.282227000001,4188.205078,4282.05127,4255.384765999999,0.0,4.0,95.0,,,,0.0,4.0,2.0,4.0,0.0,4.0,50.0,,,,,,,,22.0,0.0,0.49055600000000005,-0.271729,0.588379,0.5825199999999999,0.910658,-0.416022,-0.158694,-0.033938,-0.035256,-0.014523,,,,,,,,,,,,,,,,,,,,,,,,,,,,,,,,,,,,,,,,,,,,,,,,,,,,,,,,,,,,,,,,,
80757,1645583277.251473,45.0,0.0,4244.615234000001,4153.846191,4168.205078,4281.025879,4237.436035,0.0,4.0,95.0,,,,0.0,4.0,2.0,4.0,0.0,4.0,50.0,,,,,,,,,,,,,,,,,,,,,,,,,,,,,,,,,,,,,,,,,,,,,,,,,,,,,,,,,,,,,,,,,,,,,,,,,,,,,,,,,,,,
80758,1645583277.259288,46.0,0.0,4264.102539,4128.717772999999,4153.333496,4279.487305,4250.256348,0.0,4.0,95.0,,,,0.0,4.0,2.0,4.0,0.0,4.0,50.0,,,,,,,,23.0,0.0,0.490845,-0.271729,0.588379,0.582275,0.9184709999999999,-0.41406899999999996,-0.163577,-0.033962,-0.035246,-0.0181,,,,,,,,,,,,,,,,,,,,,,,,,,,,,,,,,,,,,,,,,,,,,,,,,,,,,,,,,,,,,,,,,
80759,1645583277.267103,47.0,0.0,4321.538574,4272.307617,4170.256348,4280.0,4268.717772999999,0.0,4.0,95.0,,,,0.0,4.0,2.0,4.0,0.0,4.0,50.0,0.972656,41.666668,4.0,1.0,4.0,0.0,4.0,,,,,,,,,,,,,1.0,0.0,0.0,,,,,,,,,,,,,,,,,,,,,,,,,,,,,,,,0.0,0.0,1.0,0.0,512.0,1.0,1.6900580000000003,1.4969290000000002,2.5630040000000003,1.3628770000000001,1.9350759999999998,133.41568,63.727989,110.878075,28.881306,20.07114,2.040406,1.6453950000000002,0.892092,1.036253,0.509811,0.000935,0.00037400000000000004,0.001023,0.001161,0.0012380000000000002,6.318881,3.342226,2.657422,1.191668,1.269695
80760,1645583277.274917,48.0,0.0,4315.384765999999,4335.897461,4182.05127,4280.512695,4281.538574,0.0,4.0,95.0,,,,0.0,4.0,2.0,4.0,0.0,4.0,50.0,,,,,,,,24.0,0.0,0.490688,-0.271484,0.588623,0.582275,0.9043110000000001,-0.392096,-0.158694,-0.034033,-0.035237,-0.021368,,,,,,,,,,,,,,,,,,,,,,,,,,,,,,,,,,,,,,,,,,,,,,,,,,,,,,,,,,,,,,,,,
80761,1645583277.282732,49.0,0.0,4308.205078,4314.358886999999,4172.307617,4280.512695,4281.538574,0.0,4.0,95.0,,,,0.0,4.0,2.0,4.0,0.0,4.0,50.0,,,,,,,,,,,,,,,,,,,,,,,,,,,,,,,,,,,,,,,,,,,,,,,,,,,,,,,,,,,,,,,,,,,,,,,,,,,,,,,,,,,,
80762,1645583277.2905471,50.0,0.0,4322.05127,4271.794922,4169.230957,4280.0,4281.538574,0.0,4.0,95.0,,,,0.0,4.0,2.0,4.0,0.0,4.0,50.0,,,,,,,,25.0,0.0,0.490688,-0.271484,0.588623,0.582275,0.918959,-0.38526,-0.14844000000000002,-0.03395,-0.035229,-0.024309,,,,,,,,,,,,,,,,,,,,,,,,,,,,,,,,,,,,,,,,,,,,,,,,,,,,,,,,,,,,,,,,,
80763,1645583277.298261,51.0,0.0,4311.794922,4200.0,4177.94873,4278.974121,4284.615234000001,0.0,4.0,95.0,,,,0.0,4.0,2.0,4.0,0.0,4.0,50.0,,,,,,,,,,,,,,,,,,,,,,,,,,,,,,,,,,,,,,,,,,,,,,,,,,,,,,0.0,0.0,1.0,0.0,512.0,1.0,,,,,,,,,,,,,,,,,,,,,,,,,
80764,1645583277.306076,52.0,0.0,4335.384765999999,4187.179688,4188.717772999999,4278.974121,4296.410156,0.0,4.0,95.0,,,,0.0,4.0,2.0,4.0,0.0,4.0,50.0,,,,,,,,26.0,0.0,0.49082299999999995,-0.27124000000000004,0.588623,0.582275,0.914565,-0.40528000000000003,-0.159182,-0.034022000000000004,-0.035222,-0.026957,,,,,,,,,,,,,,,,,,,,,,,,,,,,,,,,,,,,,,,,,,,,,,,,,,,,,,,,,,,,,,,,,
80765,1645583277.313891,53.0,0.0,4401.538574,4222.05127,4191.282227000001,4281.538574,4331.794922,0.0,4.0,95.0,,,,0.0,4.0,2.0,4.0,0.0,4.0,50.0,,,,,,,,,,,,,,,,,,,,,,,,,,,,,,,,,,,,,,,,,,,,,,,,,,,,,,,,,,,,,,,,,,,,,,,,,,,,,,,,,,,,
80766,1645583277.321705,54.0,0.0,4472.820313,4208.205078,4191.282227000001,4282.05127,4384.615234000001,0.0,4.0,95.0,,,,0.0,4.0,2.0,4.0,0.0,4.0,50.0,,,,,,,,27.0,0.0,0.490375,-0.270996,0.588867,0.5825199999999999,0.9194479999999999,-0.394049,-0.14648699999999998,-0.03394,-0.035166,-0.029338999999999997,,,,,,,,,,,,,,,,,,,,,,,,,,,,,,,,,,,,,,,,,,,,,,,,,,,,,,,,,,,,,,,,,
80767,1645583277.32952,55.0,0.0,4575.897461,4143.077147999999,4197.436035,4282.05127,4454.358886999999,0.0,4.0,95.0,,,,0.0,4.0,2.0,4.0,0.0,4.0,50.0,,,,,,,,,,,,,,,,,,,,,,,,,,,,,,,,,,,,,,,,,,,,,,,,,,,,,,0.0,0.0,1.0,0.0,512.0,1.0,,,,,,,,,,,,,,,,,,,,,,,,,
80768,1645583277.3373349,56.0,0.0,4706.153809,4133.846191,4203.077147999999,4285.641113000001,4541.025879,0.0,4.0,95.0,,,,0.0,4.0,2.0,4.0,0.0,4.0,50.0,,,,,,,,28.0,0.0,0.490688,-0.271484,0.588623,0.582275,0.918959,-0.38526,-0.14844000000000002,-0.033866,-0.035166,-0.031483,,,,,,,,,,,,,,,,,,,,,,,,,,,,,,,,,,,,,,,,,,,,,,,,,,,,,,,,,,,,,,,,,
80769,1645583277.345149,57.0,0.0,4834.358886999999,4208.717772999999,4215.897461,4288.717772999999,4617.94873,0.0,4.0,95.0,,,,0.0,4.0,2.0,4.0,0.0,4.0,50.0,,,,,,,,,,,,,,,,,,,,,,,,,,,,,,,,,,,,,,,,,,,,,,,,,,,,,,,,,,,,,,,,,,,,,,,,,,,,,,,,,,,,
80770,1645583277.3529642,58.0,0.0,4935.384765999999,4242.05127,4240.512695,4290.256348,4660.512695,0.0,4.0,95.0,,,,0.0,4.0,2.0,4.0,0.0,4.0,50.0,,,,,,,,29.0,0.0,0.490375,-0.270996,0.588867,0.5825199999999999,0.9194479999999999,-0.394049,-0.14648699999999998,-0.0338,-0.035116,-0.033413,,,,,,,,,,,,,,,,,,,,,,,,,,,,,,,,,,,,,,,,,,,,,,,,,,,,,,,,,,,,,,,,,
80771,1645583277.3607788,59.0,0.0,4994.871582,4251.282227000001,4253.846191,4291.794922,4680.512695,0.0,4.0,95.0,,,,0.0,4.0,2.0,4.0,0.0,4.0,50.0,,,,,,,,,,,,,,,,,,,,,,,,,,,,,,,,,,,,,,,,,,,,,,,,,,,,,,0.0,0.0,1.0,0.0,512.0,1.0,,,,,,,,,,,,,,,,,,,,,,,,,
80772,1645583277.368593,60.0,0.0,5013.846191,4293.333496,4251.794922,4292.307617,4694.358886999999,0.0,4.0,95.0,,,,0.0,4.0,2.0,4.0,0.0,4.0,50.0,,,,,,,,30.0,0.0,0.49022,-0.270752,0.588867,0.5827640000000001,0.906752,-0.401373,-0.160159,-0.033789,-0.03512,-0.035101,,,,,,,,,,,,,,,,,,,,,,,,,,,,,,,,,,,,,,,,,,,,,,,,,,,,,,,,,,,,,,,,,
80773,1645583277.376408,61.0,0.0,5017.436035,4253.846191,4247.179688,4292.307617,4715.897461,0.0,4.0,95.0,,,,0.0,4.0,2.0,4.0,0.0,4.0,50.0,,,,,,,,,,,,,,,,,,,,,,,,,,,,,,,,,,,,,,,,,,,,,,,,,,,,,,,,,,,,,,,,,,,,,,,,,,,,,,,,,,,,
80774,1645583277.3841221,62.0,0.0,5027.692383,4148.205078,4234.871582,4293.333496,4728.717772999999,0.0,4.0,95.0,,,,0.0,4.0,2.0,4.0,0.0,4.0,50.0,,,,,,,,31.0,0.0,0.490354,-0.27050799999999997,0.588867,0.5827640000000001,0.9087049999999999,-0.427741,-0.157717,-0.033731,-0.035075,-0.036572,,,,,,,,,,,,,,,,,,,,,,,,,,,,,,,,,,,,,,,,,,,,,,,,,,,,,,,,,,,,,,,,,
80775,1645583277.391937,63.0,0.0,5026.666504,4142.563965,4235.897461,4291.794922,4717.94873,0.0,4.0,95.0,,,,0.0,4.0,2.0,4.0,0.0,4.0,50.0,,,,,,,,,,,,,,,,,,,,1.0,0.0,0.0,,,,,,,,,,,,,,,,,,,,,,,,,,,,,,,,0.0,0.0,1.0,0.0,512.0,1.0,1.7918150000000002,1.566873,2.676445,1.56479,1.828843,107.322441,67.485725,102.92351500000001,28.973906,19.88133,1.8937099999999998,1.345132,1.0116459999999998,1.0405389999999999,0.477411,0.000915,0.000603,0.001192,0.001324,0.001507,7.520353999999999,4.149158,2.136822,1.127799,1.324994
80776,1645583277.399751,64.0,0.0,5017.436035,4226.153809,4254.358886999999,4290.769043,4726.666504,450.0,4.0,95.0,,,,0.0,4.0,2.0,4.0,0.0,4.0,50.0,,,,,,,,32.0,0.0,0.490354,-0.27050799999999997,0.588867,0.5827640000000001,0.908217,-0.41992799999999997,-0.16406500000000002,-0.033775,-0.035033999999999996,-0.038042,,,,,,,,,,,,,,,,,,,,,,,,,,,,,,,,,,,,,,,,,,,,,,,,,,,,,,,,,,,,,,,,,
80777,1645583277.407566,65.0,0.0,5012.820313,4303.589844,4253.846191,4292.820313,4742.563965,450.0,4.0,95.0,,,,0.0,4.0,2.0,4.0,0.0,4.0,50.0,,,,,,,,,,,,,,,,,,,,,,,,,,,,,,,,,,,,,,,,,,,,,,,,,,,,,,,,,,,,,,,,,,,,,,,,,,,,,,,,,,,,
80778,1645583277.41538,66.0,0.0,4972.307617,4321.025879,4237.94873,4293.333496,4692.820313,16189.0,4.0,95.0,,,,0.0,4.0,2.0,4.0,0.0,4.0,50.0,,,,,,,,33.0,0.0,0.490354,-0.27050799999999997,0.588867,0.5827640000000001,0.901869,-0.41113900000000003,-0.152834,-0.033767,-0.035046,-0.033066000000000005,,,,,,,,,,,,,,,,,,,,,,,,,,,,,,,,,,,,,,,,,,,,,,,,,,,,,,,,,,,,,,,,,
80779,1645583277.423194,67.0,0.0,4884.102539,4265.128418,4241.538574,4290.769043,4617.94873,450.0,4.0,95.0,,,,0.0,4.0,2.0,4.0,0.0,4.0,50.0,,,,,,,,,,,,,,,,,,,,,,,,,,,,,,,,,,,,,,,,,,,,,,,,,,,,,,0.0,0.0,1.0,0.0,512.0,1.0,,,,,,,,,,,,,,,,,,,,,,,,,
80780,1645583277.431009,68.0,0.0,4827.692383,4206.666504,4247.179688,4288.205078,4594.358886999999,189.0,4.0,95.0,,,,0.0,4.0,2.0,4.0,0.0,4.0,50.0,,,,,,,,34.0,0.0,0.49066800000000005,-0.270996,0.588623,0.5825199999999999,0.905776,-0.41455699999999995,-0.154299,-0.033711,-0.035155,-0.028636,,,,,,,,,,,,,,,,,,,,,,,,,,,,,,,,,,,,,,,,,,,,,,,,,,,,,,,,,,,,,,,,,
80781,1645583277.438823,69.0,0.0,4820.0,4162.05127,4233.846191,4287.692383,4583.077147999999,450.0,4.0,95.0,,,,0.0,4.0,2.0,4.0,0.0,4.0,50.0,,,,,,,,,,,,,,,,,,,,,,,,,,,,,,,,,,,,,,,,,,,,,,,,,,,,,,,,,,,,,,,,,,,,,,,,,,,,,,,,,,,,
80782,1645583277.446638,70.0,0.0,4767.692383,4129.230957,4225.641113000001,4287.179688,4553.333496,16225.0,4.0,95.0,,,,0.0,4.0,2.0,4.0,0.0,4.0,50.0,,,,,,,,35.0,0.0,0.49082299999999995,-0.27124000000000004,0.588623,0.582275,0.918959,-0.40381500000000004,-0.15820599999999999,-0.033708999999999996,-0.035155,-0.030851,,,,,,,,,,,,,,,,,,,,,,,,,,,,,,,,,,,,,,,,,,,,,,,,,,,,,,,,,,,,,,,,,
80783,1645583277.454352,71.0,0.0,4665.641113000001,4158.974121,4237.436035,4286.666504,4525.128418,450.0,4.0,95.0,,,,0.0,4.0,2.0,4.0,0.0,4.0,50.0,,,,,,,,,,,,,,,,,,,,,,,,,,,,,,,,,,,,,,,,,,,,,,,,,,,,,,10.0,0.0,1.0,0.0,512.0,1.0,,,,,,,,,,,,,,,,,,,,,,,,,
80784,1645583277.462167,72.0,0.0,4602.05127,4221.025879,4242.563965,4287.692383,4488.205078,450.0,4.0,95.0,,,,0.0,4.0,2.0,4.0,0.0,4.0,50.0,,,,,,,,36.0,0.0,0.49111499999999997,-0.27124000000000004,0.588379,0.582275,0.906264,-0.41992799999999997,-0.155276,-0.033756,-0.035107,-0.032844,,,,,,,,,,,,,,,,,,,,,,,,,,,,,,,,,,,,,,,,,,,,,,,,,,,,,,,,,,,,,,,,,
80785,1645583277.4699821,73.0,0.0,4578.461426,4193.846191,4231.794922,4286.666504,4441.538574,0.0,4.0,95.0,,,,0.0,4.0,2.0,4.0,0.0,4.0,50.0,,,,,,,,,,,,,,,,,,,,,,,,,,,,,,,,,,,,,,,,,,,,,,,,,,,,,,,,,,,,,,,,,,,,,,,,,,,,,,,,,,,,
80786,1645583277.477796,74.0,0.0,4534.871582,4115.897461,4226.666504,4282.563965,4418.461426,450.0,4.0,95.0,,,,0.0,4.0,2.0,4.0,0.0,4.0,50.0,,,,,,,,37.0,0.0,0.49111499999999997,-0.27124000000000004,0.588379,0.582275,0.9131,-0.41065100000000004,-0.158694,-0.033798,-0.035112,-0.034638,,,,,,,,,,,,,,,,,,,,,,,,,,,,,,,,,,,,,,,,,,,,,,,,,,,,,,,,,,,,,,,,,
80787,1645583277.485611,75.0,0.0,4475.384765999999,4125.128418,4234.358886999999,4282.05127,4417.436035,16183.0,4.0,95.0,,,,0.0,4.0,2.0,4.0,0.0,4.0,50.0,,,,,,,,,,,,,,,,,,,,,,,,,,,,,,,,,,,,,,,,,,,,,,,,,,,,,,10.0,0.0,1.0,0.0,512.0,1.0,,,,,,,,,,,,,,,,,,,,,,,,,
80788,1645583277.493426,76.0,0.0,4438.461426,4181.538574,4232.820313,4282.563965,4397.436035,450.0,4.0,95.0,,,,0.0,4.0,2.0,4.0,0.0,4.0,50.0,,,,,,,,38.0,0.0,0.491112,-0.27124000000000004,0.588623,0.5820310000000001,0.9087049999999999,-0.409674,-0.1626,-0.033885000000000005,-0.035067,-0.036203,,,,,,,,,,,,,,,,,,,,,,,,,,,,,,,,,,,,,,,,,,,,,,,,,,,,,,,,,,,,,,,,,
80789,1645583277.50124,77.0,0.0,4418.461426,4185.641113000001,4222.563965,4281.025879,4346.153809,450.0,4.0,95.0,,,,0.0,4.0,2.0,4.0,0.0,4.0,50.0,,,,,,,,,,,,,,,,,,,,,,,,,,,,,,,,,,,,,,,,,,,,,,,,,,,,,,,,,,,,,,,,,,,,,,,,,,,,,,,,,,,,
80790,1645583277.5090551,78.0,0.0,4394.358886999999,4130.256348,4218.974121,4281.025879,4309.230957,450.0,4.0,95.0,,,,0.0,4.0,2.0,4.0,0.0,4.0,50.0,,,,,,,,39.0,0.0,0.490954,-0.270996,0.588867,0.5820310000000001,0.9209129999999999,-0.398932,-0.165042,-0.034013,-0.035174000000000004,-0.03146,,,,,,,,,,,,,,,,,,,,,,,,,,,,,,,,,,,,,,,,,,,,,,,,,,,,,,,,,,,,,,,,,
80791,1645583277.51687,79.0,0.0,4370.256348,4146.666504,4219.487305,4282.563965,4311.794922,16183.0,4.0,95.0,,,,0.0,4.0,2.0,4.0,0.0,4.0,50.0,,,,,,,,,,,,,,,,,,,,1.0,0.0,0.0,,,,,,,,,,,,,,,,,,,,,,,,,,,,,,,,10.0,0.0,1.0,0.0,512.0,1.0,3.865522,1.990148,2.871552,1.768344,1.763166,82.643372,76.177948,90.94560200000001,28.079123,19.284523,1.8140470000000002,1.068373,1.180505,1.041513,0.44951599999999997,0.0017989999999999998,0.0010199999999999999,0.001643,0.001506,0.0019190000000000001,8.959194,4.563924,1.571588,1.2335200000000002,1.392232
80792,1645583277.524584,80.0,0.0,4358.461426,4232.307617,4220.0,4282.05127,4315.897461,450.0,4.0,95.0,,,,0.0,4.0,2.0,4.0,0.0,4.0,50.0,,,,,,,,40.0,0.0,0.4908,-0.270752,0.588867,0.582275,0.910658,-0.41406899999999996,-0.159182,-0.034029000000000004,-0.035269999999999996,-0.033343,,,,,,,,,,,,,,,,,,,,,,,,,,,,,,,,,,,,,,,,,,,,,,,,,,,,,,,,,,,,,,,,,
80793,1645583277.532399,81.0,0.0,4350.769043,4162.05127,4223.077147999999,4282.05127,4295.384765999999,450.0,4.0,95.0,,,,0.0,4.0,2.0,4.0,0.0,4.0,50.0,,,,,,,,,,,,,,,,,,,,,,,,,,,,,,,,,,,,,,,,,,,,,,,,,,,,,,,,,,,,,,,,,,,,,,,,,,,,,,,,,,,,
80794,1645583277.540214,82.0,0.0,4329.230957,4040.0,4217.94873,4282.563965,4271.282227000001,450.0,4.0,95.0,,,,0.0,4.0,2.0,4.0,0.0,4.0,50.0,,,,,,,,41.0,0.0,0.490641,-0.27050799999999997,0.5891109999999999,0.582275,0.8989389999999999,-0.409674,-0.154788,-0.034093,-0.035356,-0.035038,,,,,,,,,,,,,,,,,,,,,,,,,,,,,,,,,,,,,,,,,,,,,,,,,,,,,,,,,,,,,,,,,
80795,1645583277.548028,83.0,0.0,4313.333496,4096.922852000001,4206.666504,4282.05127,4271.794922,16183.0,4.0,95.0,,,,0.0,4.0,2.0,4.0,0.0,4.0,50.0,,,,,,,,,,,,,,,,,,,,,,,,,,,,,,,,,,,,,,,,,,,,,,,,,,,,,,10.0,0.0,1.0,0.0,512.0,1.0,,,,,,,,,,,,,,,,,,,,,,,,,
80796,1645583277.5558429,84.0,0.0,4324.102539,4217.436035,4213.333496,4282.05127,4300.512695,450.0,4.0,95.0,,,,0.0,4.0,2.0,4.0,0.0,4.0,50.0,,,,,,,,42.0,0.0,0.490192,-0.270264,0.5893550000000001,0.5825199999999999,0.9004040000000001,-0.39453699999999997,-0.157717,-0.034053,-0.035385,-0.036661,,,,,,,,,,,,,,,,,,,,,,,,,,,,,,,,,,,,,,,,,,,,,,,,,,,,,,,,,,,,,,,,,
80797,1645583277.563658,85.0,0.0,4344.102539,4201.538574,4227.692383,4282.563965,4323.077147999999,450.0,4.0,95.0,,,,0.0,4.0,2.0,4.0,0.0,4.0,50.0,,,,,,,,,,,,,,,,,,,,,,,,,,,,,,,,,,,,,,,,,,,,,,,,,,,,,,,,,,,,,,,,,,,,,,,,,,,,,,,,,,,,
80798,1645583277.5714722,86.0,0.0,4397.436035,4127.692383,4229.743652,4282.05127,4341.538574,450.0,4.0,95.0,,,,0.0,4.0,2.0,4.0,0.0,4.0,50.0,,,,,,,,43.0,0.0,0.49032700000000007,-0.27002,0.5893550000000001,0.5825199999999999,0.9126120000000001,-0.41846300000000003,-0.146975,-0.034212,-0.035411,-0.031726,,,,,,,,,,,,,,,,,,,,,,,,,,,,,,,,,,,,,,,,,,,,,,,,,,,,,,,,,,,,,,,,,
80799,1645583277.5792868,87.0,0.0,4507.692383,4113.846191,4228.717772999999,4281.538574,4393.846191,16183.0,4.0,95.0,,,,0.0,4.0,2.0,4.0,0.0,4.0,50.0,,,,,,,,,,,,,,,,,,,,,,,,,,,,,,,,,,,,,,,,,,,,,,,,,,,,,,10.0,0.0,1.0,0.0,512.0,1.0,,,,,,,,,,,,,,,,,,,,,,,,,
80800,1645583277.587102,88.0,0.0,4626.153809,4120.0,4235.897461,4285.641113000001,4462.563965,450.0,4.0,95.0,,,,0.0,4.0,2.0,4.0,0.0,4.0,50.0,,,,,,,,44.0,0.0,0.489878,-0.269775,0.5896,0.5827640000000001,0.9077290000000001,-0.417487,-0.144533,-0.034307,-0.035483,-0.027479000000000003,,,,,,,,,,,,,,,,,,,,,,,,,,,,,,,,,,,,,,,,,,,,,,,,,,,,,,,,,,,,,,,,,
80801,1645583277.594916,89.0,0.0,4701.538574,4140.512695,4247.692383,4289.230957,4507.692383,450.0,4.0,95.0,,,,0.0,4.0,2.0,4.0,0.0,4.0,50.0,,,,,,,,,,,,,,,,,,,,,,,,,,,,,,,,,,,,,,,,,,,,,,,,,,,,,,,,,,,,,,,,,,,,,,,,,,,,,,,,,,,,
80802,1645583277.602631,90.0,0.0,4766.666504,4236.410156,4252.820313,4288.717772999999,4538.974121,450.0,4.0,95.0,,,,0.0,4.0,2.0,4.0,0.0,4.0,50.0,,,,,,,,45.0,0.0,0.489878,-0.269775,0.5896,0.5827640000000001,0.904799,-0.437018,-0.14941600000000002,-0.034196,-0.035450999999999996,-0.029809,,,,,,,,,,,,,,,,,,,,,,,,,,,,,,,,,,,,,,,,,,,,,,,,,,,,,,,,,,,,,,,,,
80803,1645583277.610446,91.0,0.0,4821.025879,4378.461426,4245.128418,4288.205078,4564.615234000001,16183.0,4.0,95.0,,,,0.0,4.0,2.0,4.0,0.0,4.0,50.0,,,,,,,,,,,,,,,,,,,,,,,,,,,,,,,,,,,,,,,,,,,,,,,,,,,,,,0.0,0.0,1.0,0.0,512.0,1.0,,,,,,,,,,,,,,,,,,,,,,,,,
80804,1645583277.61826,92.0,0.0,4810.769043,4375.384765999999,4238.461426,4288.205078,4563.077147999999,450.0,4.0,95.0,,,,0.0,4.0,2.0,4.0,0.0,4.0,50.0,,,,,,,,46.0,0.0,0.490461,-0.269775,0.5893550000000001,0.5825199999999999,0.9043110000000001,-0.435065,-0.143069,-0.034292,-0.035519,-0.025559000000000002,,,,,,,,,,,,,,,,,,,,,,,,,,,,,,,,,,,,,,,,,,,,,,,,,,,,,,,,,,,,,,,,,
80805,1645583277.626075,93.0,0.0,4774.871582,4296.922852000001,4251.282227000001,4287.692383,4546.666504,450.0,4.0,95.0,,,,0.0,4.0,2.0,4.0,0.0,4.0,50.0,,,,,,,,,,,,,,,,,,,,,,,,,,,,,,,,,,,,,,,,,,,,,,,,,,,,,,,,,,,,,,,,,,,,,,,,,,,,,,,,,,,,
80806,1645583277.633889,94.0,0.0,4762.05127,4391.794922,4261.025879,4288.205078,4528.205078,450.0,4.0,95.0,,,,0.0,4.0,2.0,4.0,0.0,4.0,50.0,,,,,,,,47.0,0.0,0.490461,-0.269775,0.5893550000000001,0.5825199999999999,0.904799,-0.42090500000000003,-0.159182,-0.034281,-0.035434,-0.021782,,,,,,,,,,,,,,,,,,,,,,,,,,,,,,,,,,,,,,,,,,,,,,,,,,,,,,,,,,,,,,,,,
80807,1645583277.6417038,95.0,0.0,4740.512695,4457.94873,4249.230957,4288.205078,4520.0,16183.0,4.0,95.0,,,,0.0,4.0,2.0,4.0,0.0,4.0,50.0,,,,,,,,,,,,,,,,,,,,1.0,0.0,0.0,,,,,,,,,,,,,,,,,,,,,,,,,,,,,,,,0.0,0.0,1.0,0.0,512.0,0.9223790000000001,20.90411,3.5415449999999997,3.263407,1.9774479999999999,1.807243,63.553703000000006,86.691971,77.728516,26.866314000000003,18.700592,1.87526,0.8529450000000001,1.368963,1.029111,0.42627600000000004,0.008614,0.001998,0.0025800000000000003,0.0017530000000000002,0.00251,15.544939000000001,4.678732,1.236617,1.531072,1.452988
80808,1645583277.649519,96.0,0.0,4672.820313,4313.333496,4235.384765999999,4288.717772999999,4518.974121,450.0,4.0,95.0,,,,0.0,4.0,2.0,4.0,0.0,4.0,50.0,,,,,,,,48.0,0.0,0.491044,-0.269775,0.5891109999999999,0.582275,0.900893,-0.413092,-0.150881,-0.034270999999999996,-0.035455,-0.024584,,,,,,,,,,,,,,,,,,,,,,,,,,,,,,,,,,,,,,,,,,,,,,,,,,,,,,,,,,,,,,,,,
80809,1645583277.657333,97.0,0.0,4588.205078,4244.615234000001,4234.358886999999,4288.717772999999,4492.307617,450.0,4.0,95.0,,,,0.0,4.0,2.0,4.0,0.0,4.0,50.0,,,,,,,,,,,,,,,,,,,,,,,,,,,,,,,,,,,,,,,,,,,,,,,,,,,,,,,,,,,,,,,,,,,,,,,,,,,,,,,,,,,,
80810,1645583277.665148,98.0,0.0,4533.846191,4348.717772999999,4240.512695,4285.641113000001,4436.922852000001,450.0,4.0,95.0,,,,0.0,4.0,2.0,4.0,0.0,4.0,50.0,,,,,,,,49.0,0.0,0.491044,-0.269775,0.5891109999999999,0.582275,0.9121229999999999,-0.42188100000000006,-0.158694,-0.034311,-0.035425,-0.027107,,,,,,,,,,,,,,,,,,,,,,,,,,,,,,,,,,,,,,,,,,,,,,,,,,,,,,,,,,,,,,,,,
80811,1645583277.672863,99.0,0.0,4508.205078,4396.922852000001,4236.922852000001,4282.563965,4399.487305,16183.0,4.0,95.0,,,,0.0,4.0,2.0,4.0,0.0,4.0,50.0,,,,,,,,,,,,,,,,,,,,,,,,,,,,,,,,,,,,,,,,,,,,,,,,,,,,,,0.0,0.0,1.0,0.0,512.0,0.9223790000000001,,,,,,,,,,,,,,,,,,,,,,,,,
80812,1645583277.680677,100.0,0.0,4472.307617,4380.512695,4224.615234000001,4282.05127,4393.333496,450.0,4.0,95.0,,,,0.0,4.0,2.0,4.0,0.0,4.0,50.0,,,,,,,,50.0,0.0,0.491044,-0.269775,0.5891109999999999,0.582275,0.902358,-0.40576799999999996,-0.16211199999999998,-0.034347,-0.035398,-0.023224,,,,,,,,,,,,,,,,,,,,,,,,,,,,,,,,,,,,,,,,,,,,,,,,,,,,,,,,,,,,,,,,,
80813,1645583277.688492,101.0,0.0,4422.05127,4382.563965,4227.692383,4282.05127,4384.615234000001,450.0,4.0,95.0,,,,0.0,4.0,2.0,4.0,0.0,4.0,50.0,,,,,,,,,,,,,,,,,,,,,,,,,,,,,,,,,,,,,,,,,,,,,,,,,,,,,,,,,,,,,,,,,,,,,,,,,,,,,,,,,,,,
80814,1645583277.696307,102.0,0.0,4380.512695,4326.666504,4233.333496,4281.025879,4348.717772999999,450.0,4.0,95.0,,,,0.0,4.0,2.0,4.0,0.0,4.0,50.0,,,,,,,,51.0,0.0,0.491471,-0.269531,0.588867,0.582275,0.9121229999999999,-0.411627,-0.163088,-0.034281,-0.035423,-0.02598,,,,,,,,,,,,,,,,,,,,,,,,,,,,,,,,,,,,,,,,,,,,,,,,,,,,,,,,,,,,,,,,,
80815,1645583277.704121,103.0,0.0,4329.743652,4250.256348,4223.077147999999,4281.538574,4309.743652,16183.0,4.0,95.0,,,,0.0,4.0,2.0,4.0,0.0,4.0,50.0,,,,,,,,,,,,,,,,,,,,,,,,,,,,,,,,,,,,,,,,,,,,,,,,,,,,,,10.0,0.0,1.0,0.0,512.0,0.9223790000000001,,,,,,,,,,,,,,,,,,,,,,,,,
80816,1645583277.711936,104.0,0.0,4297.436035,4238.974121,4218.974121,4281.538574,4297.94873,450.0,4.0,95.0,,,,0.0,4.0,2.0,4.0,0.0,4.0,50.0,,,,,,,,52.0,0.0,0.49102299999999993,-0.269287,0.5891109999999999,0.5825199999999999,0.9091940000000001,-0.417487,-0.157717,-0.034319999999999996,-0.035396,-0.028362000000000002,,,,,,,,,,,,,,,,,,,,,,,,,,,,,,,,,,,,,,,,,,,,,,,,,,,,,,,,,,,,,,,,,
80817,1645583277.719751,105.0,0.0,4301.025879,4252.820313,4224.615234000001,4281.025879,4285.128418,450.0,4.0,95.0,,,,0.0,4.0,2.0,4.0,0.0,4.0,50.0,,,,,,,,,,,,,,,,,,,,,,,,,,,,,,,,,,,,,,,,,,,,,,,,,,,,,,,,,,,,,,,,,,,,,,,,,,,,,,,,,,,,
80818,1645583277.727565,106.0,0.0,4277.436035,4275.897461,4219.487305,4281.538574,4268.205078,450.0,4.0,95.0,,,,0.0,4.0,2.0,4.0,0.0,4.0,50.0,,,,,,,,53.0,0.0,0.491001,-0.26879899999999995,0.5891109999999999,0.5827640000000001,0.906264,-0.41113900000000003,-0.1626,-0.034207999999999995,-0.035372,-0.030409,,,,,,,,,,,,,,,,,,,,,,,,,,,,,,,,,,,,,,,,,,,,,,,,,,,,,,,,,,,,,,,,,
80819,1645583277.7353802,107.0,0.0,4237.94873,4264.615234000001,4214.871582,4281.025879,4264.615234000001,16183.0,4.0,95.0,,,,0.0,4.0,2.0,4.0,0.0,4.0,50.0,,,,,,,,,,,,,,,,,,,,,,,,,,,,,,,,,,,,,,,,,,,,,,,,,,,,,,10.0,0.0,1.0,0.0,512.0,0.9223790000000001,,,,,,,,,,,,,,,,,,,,,,,,,
80820,1645583277.7431948,108.0,0.0,4241.025879,4215.384765999999,4223.077147999999,4281.025879,4252.307617,450.0,4.0,95.0,,,,0.0,4.0,2.0,4.0,0.0,4.0,50.0,,,,,,,,54.0,0.0,0.49068500000000004,-0.268311,0.5893550000000001,0.583008,0.904799,-0.398444,-0.160647,-0.034108,-0.0354,-0.032349,,,,,,,,,,,,,,,,,,,,,,,,,,,,,,,,,,,,,,,,,,,,,,,,,,,,,,,,,,,,,,,,,
80821,1645583277.750909,109.0,0.0,4266.153809,4252.307617,4227.692383,4281.025879,4242.05127,450.0,4.0,95.0,,,,0.0,4.0,2.0,4.0,0.0,4.0,50.0,,,,,,,,,,,,,,,,,,,,,,,,,,,,,,,,,,,,,,,,,,,,,,,,,,,,,,,,,,,,,,,,,,,,,,,,,,,,,,,,,,,,
80822,1645583277.758724,110.0,0.0,4281.538574,4285.641113000001,4227.179688,4281.025879,4251.794922,450.0,4.0,95.0,,,,0.0,4.0,2.0,4.0,0.0,4.0,50.0,,,,,,,,55.0,0.0,0.490795,-0.26757800000000004,0.5893550000000001,0.583252,0.9131,-0.42432299999999995,-0.15674100000000002,-0.034115,-0.035522000000000005,-0.027942,,,,,,,,,,,,,,,,,,,,,,,,,,,,,,,,,,,,,,,,,,,,,,,,,,,,,,,,,,,,,,,,,
80823,1645583277.766439,111.0,0.0,4301.538574,4212.820313,4229.230957,4281.538574,4274.871582,16183.0,4.0,95.0,,,,0.0,4.0,2.0,4.0,0.0,4.0,50.0,1.0,25.0,3.0,0.0,4.0,0.0,4.0,,,,,,,,,,,,,1.0,0.0,0.0,,,,,,,,,,,,,,,,,,,,,,,,,,,,,,,,10.0,0.0,1.0,0.0,512.0,0.779054,81.83062,7.893713000000001,4.1287400000000005,2.239328,1.9875610000000001,50.796303,94.60672,65.918541,26.459715000000003,18.527344,2.245229,0.705766,1.517482,0.993258,0.40857899999999997,0.031531,0.004044,0.004173,0.002212,0.003275,37.733154,5.0005690000000005,1.365669,1.9914880000000001,1.496243
80824,1645583277.774253,112.0,0.0,4361.538574,4163.589844,4239.487305,4280.512695,4325.128418,450.0,4.0,95.0,,,,0.0,4.0,2.0,4.0,0.0,4.0,50.0,,,,,,,,56.0,0.0,0.491001,-0.26879899999999995,0.5891109999999999,0.5827640000000001,0.906264,-0.41113900000000003,-0.1626,-0.034122,-0.035533999999999996,-0.024025,,,,,,,,,,,,,,,,,,,,,,,,,,,,,,,,,,,,,,,,,,,,,,,,,,,,,,,,,,,,,,,,,
80825,1645583277.782068,113.0,0.0,4465.128418,4152.820313,4249.230957,4281.538574,4389.230957,450.0,4.0,95.0,,,,0.0,4.0,2.0,4.0,0.0,4.0,50.0,,,,,,,,,,,,,,,,,,,,,,,,,,,,,,,,,,,,,,,,,,,,,,,,,,,,,,,,,,,,,,,,,,,,,,,,,,,,,,,,,,,,
80826,1645583277.789883,114.0,0.0,4586.153809,4119.487305,4254.358886999999,4286.666504,4435.897461,450.0,4.0,95.0,,,,0.0,4.0,2.0,4.0,0.0,4.0,50.0,,,,,,,,57.0,0.0,0.490795,-0.26757800000000004,0.5893550000000001,0.583252,0.9131,-0.42432299999999995,-0.15674100000000002,-0.034127,-0.035643,-0.02045,,,,,,,,,,,,,,,,,,,,,,,,,,,,,,,,,,,,,,,,,,,,,,,,,,,,,,,,,,,,,,,,,
80827,1645583277.797697,115.0,0.0,4685.128418,4169.230957,4266.153809,4289.230957,4494.358886999999,16183.0,4.0,95.0,,,,0.0,4.0,2.0,4.0,0.0,4.0,50.0,,,,,,,,,,,,,,,,,,,,,,,,,,,,,,,,,,,,,,,,,,,,,,,,,,,,,,10.0,0.0,1.0,0.0,512.0,0.779054,,,,,,,,,,,,,,,,,,,,,,,,,
80828,1645583277.805512,116.0,0.0,4725.128418,4266.153809,4273.846191,4287.179688,4552.307617,450.0,4.0,95.0,,,,0.0,4.0,2.0,4.0,0.0,4.0,50.0,,,,,,,,58.0,0.0,0.490634,-0.267334,0.5896,0.583252,0.9072399999999999,-0.415534,-0.157229,-0.034133,-0.035643,-0.017282,,,,,,,,,,,,,,,,,,,,,,,,,,,,,,,,,,,,,,,,,,,,,,,,,,,,,,,,,,,,,,,,,
80829,1645583277.8133268,117.0,0.0,4711.282227000001,4176.410156,4266.666504,4287.179688,4546.153809,450.0,4.0,95.0,,,,0.0,4.0,2.0,4.0,0.0,4.0,50.0,,,,,,,,,,,,,,,,,,,,,,,,,,,,,,,,,,,,,,,,,,,,,,,,,,,,,,,,,,,,,,,,,,,,,,,,,,,,,,,,,,,,
80830,1645583277.821141,118.0,0.0,4678.974121,4052.3076170000004,4260.0,4289.230957,4494.358886999999,450.0,4.0,95.0,,,,0.0,4.0,2.0,4.0,0.0,4.0,50.0,,,,,,,,59.0,0.0,0.49047700000000005,-0.26709,0.5896,0.583496,0.906264,-0.410163,-0.167483,-0.033991,-0.035595,-0.020583,,,,,,,,,,,,,,,,,,,,,,,,,,,,,,,,,,,,,,,,,,,,,,,,,,,,,,,,,,,,,,,,,
80831,1645583277.8289561,119.0,0.0,4638.461426,4165.128418,4255.384765999999,4288.205078,4466.153809,16183.0,4.0,95.0,,,,0.0,4.0,2.0,4.0,0.0,4.0,50.0,,,,,,,,,,,,,,,,,,,,,,,,,,,,,,,,,,,,,,,,,,,,,,,,,,,,,,10.0,0.0,1.0,0.0,512.0,0.779054,,,,,,,,,,,,,,,,,,,,,,,,,
80832,1645583277.836671,120.0,0.0,4578.974121,4291.794922,4242.05127,4288.717772999999,4463.077147999999,450.0,4.0,95.0,,,,0.0,4.0,2.0,4.0,0.0,4.0,50.0,,,,,,,,60.0,0.0,0.490637,-0.267334,0.5893550000000001,0.583496,0.8964979999999999,-0.415045,-0.157717,-0.034010000000000006,-0.035648,-0.017255,,,,,,,,,,,,,,,,,,,,,,,,,,,,,,,,,,,,,,,,,,,,,,,,,,,,,,,,,,,,,,,,,
80833,1645583277.844485,121.0,0.0,4533.333496,4292.307617,4240.512695,4288.717772999999,4443.589844,450.0,4.0,95.0,,,,0.0,4.0,2.0,4.0,0.0,4.0,50.0,,,,,,,,,,,,,,,,,,,,,,,,,,,,,,,,,,,,,,,,,,,,,,,,,,,,,,,,,,,,,,,,,,,,,,,,,,,,,,,,,,,,
80834,1645583277.8523,122.0,0.0,4514.358886999999,4350.256348,4256.410156,4285.128418,4415.384765999999,450.0,4.0,95.0,,,,0.0,4.0,2.0,4.0,0.0,4.0,50.0,,,,,,,,61.0,0.0,0.49079700000000004,-0.26757800000000004,0.5891109999999999,0.583496,0.903334,-0.423346,-0.15820599999999999,-0.033977999999999994,-0.035648,-0.014309,,,,,,,,,,,,,,,,,,,,,,,,,,,,,,,,,,,,,,,,,,,,,,,,,,,,,,,,,,,,,,,,,
80835,1645583277.860115,123.0,0.0,4462.563965,4419.487305,4248.717772999999,4281.538574,4389.743652,16183.0,4.0,95.0,,,,0.0,4.0,2.0,4.0,0.0,4.0,50.0,,,,,,,,,,,,,,,,,,,,,,,,,,,,,,,,,,,,,,,,,,,,,,,,,,,,,,0.0,0.0,1.0,0.0,512.0,0.779054,,,,,,,,,,,,,,,,,,,,,,,,,
80836,1645583277.867929,124.0,0.0,4395.384765999999,4392.820313,4235.897461,4281.538574,4349.743652,450.0,4.0,95.0,,,,0.0,4.0,2.0,4.0,0.0,4.0,50.0,,,,,,,,62.0,0.0,0.49124700000000004,-0.267822,0.588867,0.583252,0.9072399999999999,-0.427741,-0.169924,-0.033949,-0.035648,-0.017908,,,,,,,,,,,,,,,,,,,,,,,,,,,,,,,,,,,,,,,,,,,,,,,,,,,,,,,,,,,,,,,,,
80837,1645583277.8757439,125.0,0.0,4367.692383,4340.512695,4243.077147999999,4281.538574,4313.333496,450.0,4.0,95.0,,,,0.0,4.0,2.0,4.0,0.0,4.0,50.0,,,,,,,,,,,,,,,,,,,,,,,,,,,,,,,,,,,,,,,,,,,,,,,,,,,,,,,,,,,,,,,,,,,,,,,,,,,,,,,,,,,,
80838,1645583277.883559,126.0,0.0,4346.153809,4239.487305,4231.794922,4281.025879,4305.641113000001,450.0,4.0,95.0,,,,0.0,4.0,2.0,4.0,0.0,4.0,50.0,,,,,,,,63.0,0.0,0.49127299999999996,-0.268311,0.588623,0.583252,0.902358,-0.406256,-0.174319,-0.034020999999999996,-0.035696,-0.021146,,,,,,,,,,,,,,,,,,,,,,,,,,,,,,,,,,,,,,,,,,,,,,,,,,,,,,,,,,,,,,,,,
80839,1645583277.8913732,127.0,0.0,4305.128418,4168.205078,4215.897461,4281.025879,4306.153809,243.0,4.0,95.0,,,,0.0,4.0,2.0,4.0,0.0,4.0,50.0,,,,,,,,,,,,,,,,,,,,1.0,0.0,0.0,,,,,,,,,,,,,,,,,,,,,,,,,,,,,,,,0.0,0.0,1.0,0.0,512.0,0.9263129999999999,226.65144300000003,16.901766000000002,5.8022800000000005,2.6128150000000003,2.276082,44.372772,96.336212,57.196709,27.770565,19.020975,3.156192,0.615801,1.559566,0.933464,0.39979699999999996,0.082528,0.007456,0.006495,0.003167,0.004158,89.468338,6.406159,2.034057,2.536213,1.52027
80840,1645583277.899188,0.0,0.0,4283.077147999999,4246.153809,4235.384765999999,4281.538574,4301.538574,450.0,4.0,95.0,,,,0.0,4.0,2.0,4.0,0.0,4.0,50.0,,,,,,,,0.0,0.0,0.491432,-0.26855500000000004,0.588379,0.583252,0.9043110000000001,-0.41260399999999997,-0.175296,-0.034037,-0.035691,-0.024159,,,,,,,,,,,,,,,,,,,,,,,,,,,,,,,,,,,,,,,,,,,,,,,,,,,,,,,,,,,,,,,,,
80841,1645583277.906903,1.0,0.0,4270.769043,4290.769043,4251.794922,4281.538574,4285.641113000001,450.0,4.0,95.0,,,,0.0,4.0,2.0,4.0,0.0,4.0,50.0,,,,,,,,,,,,,,,,,,,,,,,,,,,,,,,,,,,,,,,,,,,,,,,,,,,,,,,,,,,,,,,,,,,,,,,,,,,,,,,,,,,,
80842,1645583277.914717,2.0,0.0,4225.128418,4242.05127,4230.256348,4281.025879,4247.179688,16212.0,4.0,95.0,,,,0.0,4.0,2.0,4.0,0.0,4.0,50.0,,,,,,,,1.0,0.0,0.49145500000000003,-0.269043,0.588379,0.583008,0.9116350000000001,-0.41065100000000004,-0.16894800000000001,-0.0341,-0.035687,-0.026820999999999998,,,,,,,,,,,,,,,,,,,,,,,,,,,,,,,,,,,,,,,,,,,,,,,,,,,,,,,,,,,,,,,,,
80843,1645583277.922532,3.0,0.0,4183.077147999999,4217.436035,4209.230957,4280.512695,4232.307617,450.0,4.0,95.0,,,,0.0,4.0,2.0,4.0,0.0,4.0,50.0,,,,,,,,,,,,,,,,,,,,,,,,,,,,,,,,,,,,,,,,,,,,,,,,,,,,,,0.0,0.0,1.0,0.0,512.0,0.9263129999999999,,,,,,,,,,,,,,,,,,,,,,,,,
80844,1645583277.930347,4.0,0.0,4188.717772999999,4222.563965,4210.256348,4280.512695,4243.589844,228.0,4.0,95.0,,,,0.0,4.0,2.0,4.0,0.0,4.0,50.0,,,,,,,,2.0,0.0,0.491903,-0.269287,0.5881350000000001,0.5827640000000001,0.9199360000000001,-0.41113900000000003,-0.16894800000000001,-0.034108,-0.035731,-0.029217,,,,,,,,,,,,,,,,,,,,,,,,,,,,,,,,,,,,,,,,,,,,,,,,,,,,,,,,,,,,,,,,,
80845,1645583277.938161,5.0,0.0,4198.974121,4267.179688,4212.820313,4280.512695,4234.871582,450.0,4.0,95.0,,,,0.0,4.0,2.0,4.0,0.0,4.0,50.0,,,,,,,,,,,,,,,,,,,,,,,,,,,,,,,,,,,,,,,,,,,,,,,,,,,,,,,,,,,,,,,,,,,,,,,,,,,,,,,,,,,,
80846,1645583277.945976,6.0,0.0,4158.974121,4277.436035,4203.077147999999,4280.512695,4220.0,16203.0,4.0,95.0,,,,0.0,4.0,2.0,4.0,0.0,4.0,50.0,,,,,,,,3.0,0.0,0.492058,-0.269531,0.5881350000000001,0.5825199999999999,0.921401,-0.41260399999999997,-0.16211199999999998,-0.034116,-0.035723000000000005,-0.031422000000000005,,,,,,,,,,,,,,,,,,,,,,,,,,,,,,,,,,,,,,,,,,,,,,,,,,,,,,,,,,,,,,,,,
80847,1645583277.95379,7.0,0.0,4112.820313,4185.128418,4186.666504,4280.0,4221.538574,450.0,4.0,95.0,,,,0.0,4.0,2.0,4.0,0.0,4.0,50.0,,,,,,,,,,,,,,,,,,,,,,,,,,,,,,,,,,,,,,,,,,,,,,,,,,,,,,0.0,0.0,1.0,0.0,512.0,0.9263129999999999,,,,,,,,,,,,,,,,,,,,,,,,,
80848,1645583277.961605,8.0,0.0,4117.94873,4103.077147999999,4196.410156,4279.487305,4216.922852000001,450.0,4.0,95.0,,,,0.0,4.0,2.0,4.0,0.0,4.0,50.0,,,,,,,,4.0,0.0,0.492213,-0.269775,0.5881350000000001,0.582275,0.9121229999999999,-0.408698,-0.15674100000000002,-0.034073,-0.035764,-0.033261,,,,,,,,,,,,,,,,,,,,,,,,,,,,,,,,,,,,,,,,,,,,,,,,,,,,,,,,,,,,,,,,,
80849,1645583277.96942,9.0,0.0,4120.0,4118.974121,4209.743652,4279.487305,4196.410156,0.0,4.0,95.0,,,,0.0,4.0,2.0,4.0,0.0,4.0,50.0,,,,,,,,,,,,,,,,,,,,,,,,,,,,,,,,,,,,,,,,,,,,,,,,,,,,,,,,,,,,,,,,,,,,,,,,,,,,,,,,,,,,
80850,1645583277.977135,10.0,0.0,4103.589844,4173.333496,4198.974121,4280.0,4186.153809,450.0,4.0,95.0,,,,0.0,4.0,2.0,4.0,0.0,4.0,50.0,,,,,,,,5.0,0.0,0.49208,-0.27002,0.5881350000000001,0.582275,0.9004040000000001,-0.40283800000000003,-0.150881,-0.034083999999999996,-0.035703,-0.028812,,,,,,,,,,,,,,,,,,,,,,,,,,,,,,,,,,,,,,,,,,,,,,,,,,,,,,,,,,,,,,,,,
80851,1645583277.984949,11.0,0.0,4110.769043,4194.358886999999,4192.820313,4280.0,4188.205078,16194.0,4.0,95.0,,,,0.0,4.0,2.0,4.0,0.0,4.0,50.0,,,,,,,,,,,,,,,,,,,,,,,,,,,,,,,,,,,,,,,,,,,,,,,,,,,,,,0.0,0.0,1.0,0.0,512.0,0.9263129999999999,,,,,,,,,,,,,,,,,,,,,,,,,
80852,1645583277.992764,12.0,0.0,4096.922852000001,4176.410156,4198.974121,4278.974121,4174.358886999999,450.0,4.0,95.0,,,,0.0,4.0,2.0,4.0,0.0,4.0,50.0,,,,,,,,6.0,0.0,0.491946,-0.270264,0.5881350000000001,0.582275,0.909682,-0.41406899999999996,-0.14648699999999998,-0.034094,-0.0356,-0.024759,,,,,,,,,,,,,,,,,,,,,,,,,,,,,,,,,,,,,,,,,,,,,,,,,,,,,,,,,,,,,,,,,
80853,1645583278.000578,13.0,0.0,4061.538574,4201.025879,4198.461426,4278.974121,4143.589844,450.0,4.0,95.0,,,,0.0,4.0,2.0,4.0,0.0,4.0,50.0,,,,,,,,,,,,,,,,,,,,,,,,,,,,,,,,,,,,,,,,,,,,,,,,,,,,,,,,,,,,,,,,,,,,,,,,,,,,,,,,,,,,
80854,1645583278.008393,14.0,0.0,4075.384521,4254.358886999999,4187.692383,4276.922852000001,4145.641113000001,450.0,4.0,95.0,,,,0.0,4.0,2.0,4.0,0.0,4.0,50.0,,,,,,,,7.0,0.0,0.4921,-0.27050799999999997,0.5881350000000001,0.5820310000000001,0.904799,-0.407233,-0.152834,-0.034102,-0.035555,-0.027410000000000004,,,,,,,,,,,,,,,,,,,,,,,,,,,,,,,,,,,,,,,,,,,,,,,,,,,,,,,,,,,,,,,,,
80855,1645583278.016208,15.0,0.0,4103.589844,4249.743652,4187.692383,4272.820313,4174.358886999999,16194.0,4.0,95.0,,,,0.0,4.0,2.0,4.0,0.0,4.0,50.0,,,,,,,,,,,,,,,,,,,,1.0,0.0,0.0,,,,,,,,,,,,,,,,,,,,,,,,,,,,,,,,0.0,0.0,1.0,0.0,512.0,0.92632,489.37823499999996,31.787155,8.330063,3.106912,2.594969,45.234165000000004,90.800331,52.199036,31.105622999999998,20.175245,4.739721,0.567179,1.465188,0.859351,0.404301,0.16907,0.012395999999999999,0.00942,0.00492,0.005077,181.647522,9.625344,3.1052,3.059485,1.5289
80856,1645583278.024022,16.0,0.0,4093.8461909999996,4268.205078,4192.820313,4270.256348,4174.358886999999,0.0,4.0,95.0,,,,0.0,4.0,2.0,4.0,0.0,4.0,50.0,,,,,,,,8.0,0.0,0.4921,-0.27050799999999997,0.5881350000000001,0.5820310000000001,0.908217,-0.41260399999999997,-0.155276,-0.034061,-0.035515,-0.029796,,,,,,,,,,,,,,,,,,,,,,,,,,,,,,,,,,,,,,,,,,,,,,,,,,,,,,,,,,,,,,,,,
80857,1645583278.031837,17.0,0.0,4063.5898439999996,4285.128418,4183.077147999999,4271.282227000001,4149.230957,0.0,4.0,95.0,,,,0.0,4.0,2.0,4.0,0.0,4.0,50.0,,,,,,,,,,,,,,,,,,,,,,,,,,,,,,,,,,,,,,,,,,,,,,,,,,,,,,,,,,,,,,,,,,,,,,,,,,,,,,,,,,,,
80858,1645583278.0396519,18.0,0.0,4051.281982,4206.666504,4165.641113000001,4276.922852000001,4138.461426,0.0,4.0,95.0,,,,0.0,4.0,2.0,4.0,0.0,4.0,50.0,,,,,,,,9.0,0.0,0.4921,-0.27050799999999997,0.5881350000000001,0.5820310000000001,0.906752,-0.41065100000000004,-0.16406500000000002,-0.034122,-0.035431,-0.025595,,,,,,,,,,,,,,,,,,,,,,,,,,,,,,,,,,,,,,,,,,,,,,,,,,,,,,,,,,,,,,,,,
80859,1645583278.047366,19.0,0.0,4068.718018,4136.922852000001,4162.563965,4277.436035,4146.153809,0.0,4.0,95.0,,,,0.0,4.0,2.0,4.0,0.0,4.0,50.0,,,,,,,,,,,,,,,,,,,,,,,,,,,,,,,,,,,,,,,,,,,,,,,,,,,,,,0.0,0.0,1.0,0.0,512.0,0.92632,,,,,,,,,,,,,,,,,,,,,,,,,
80860,1645583278.055181,20.0,0.0,4085.1281740000004,4192.307617,4185.641113000001,4271.794922,4149.743652,0.0,4.0,95.0,,,,0.0,4.0,2.0,4.0,0.0,4.0,50.0,,,,,,,,10.0,0.0,0.4921,-0.27050799999999997,0.5881350000000001,0.5820310000000001,0.898451,-0.421393,-0.15967,-0.034128,-0.035306,-0.028064999999999996,,,,,,,,,,,,,,,,,,,,,,,,,,,,,,,,,,,,,,,,,,,,,,,,,,,,,,,,,,,,,,,,,
80861,1645583278.0629961,21.0,0.0,4073.8461909999996,4305.641113000001,4186.666504,4269.230957,4154.358886999999,0.0,4.0,95.0,,,,0.0,4.0,2.0,4.0,0.0,4.0,50.0,,,,,,,,,,,,,,,,,,,,,,,,,,,,,,,,,,,,,,,,,,,,,,,,,,,,,,,,,,,,,,,,,,,,,,,,,,,,,,,,,,,,
80862,1645583278.07081,22.0,0.0,4049.2307130000004,4308.717772999999,4169.230957,4276.922852000001,4153.333496,0.0,4.0,95.0,,,,0.0,4.0,2.0,4.0,0.0,4.0,50.0,,,,,,,,11.0,0.0,0.49196599999999996,-0.270752,0.5881350000000001,0.5820310000000001,0.8916149999999999,-0.403326,-0.158694,-0.034133,-0.035339999999999996,-0.030435000000000004,,,,,,,,,,,,,,,,,,,,,,,,,,,,,,,,,,,,,,,,,,,,,,,,,,,,,,,,,,,,,,,,,
80863,1645583278.078625,23.0,0.0,4042.5642090000006,4250.256348,4176.410156,4283.077147999999,4131.794922,0.0,4.0,95.0,,,,0.0,4.0,2.0,4.0,0.0,4.0,50.0,,,,,,,,,,,,,,,,,,,,,,,,,,,,,,,,,,,,,,,,,,,,,,,,,,,,,,0.0,0.0,1.0,0.0,512.0,0.92632,,,,,,,,,,,,,,,,,,,,,,,,,
80864,1645583278.08644,24.0,0.0,4041.025635,4306.153809,4179.487305,4276.410156,4115.897461,0.0,4.0,95.0,,,,0.0,4.0,2.0,4.0,0.0,4.0,50.0,,,,,,,,12.0,0.0,0.49196599999999996,-0.270752,0.5881350000000001,0.5820310000000001,0.9043110000000001,-0.408209,-0.167483,-0.034089,-0.035419,-0.032421,,,,,,,,,,,,,,,,,,,,,,,,,,,,,,,,,,,,,,,,,,,,,,,,,,,,,,,,,,,,,,,,,
80865,1645583278.094254,25.0,0.0,4051.281982,4376.410156,4167.179688,4269.230957,4134.871582,0.0,4.0,95.0,,,,0.0,4.0,2.0,4.0,0.0,4.0,50.0,,,,,,,,,,,,,,,,,,,,,,,,,,,,,,,,,,,,,,,,,,,,,,,,,,,,,,,,,,,,,,,,,,,,,,,,,,,,,,,,,,,,
80866,1645583278.102069,26.0,0.0,4083.076904,4295.384765999999,4174.871582,4270.769043,4178.974121,0.0,4.0,95.0,,,,0.0,4.0,2.0,4.0,0.0,4.0,50.0,,,,,,,,13.0,0.0,0.49196599999999996,-0.270752,0.5881350000000001,0.5820310000000001,0.903334,-0.40528000000000003,-0.163088,-0.034098,-0.035539,-0.028152999999999997,,,,,,,,,,,,,,,,,,,,,,,,,,,,,,,,,,,,,,,,,,,,,,,,,,,,,,,,,,,,,,,,,
80867,1645583278.109884,27.0,0.0,4086.6667479999996,4267.692383,4184.615234000001,4274.871582,4181.538574,0.0,4.0,95.0,,,,0.0,4.0,2.0,4.0,0.0,4.0,50.0,,,,,,,,,,,,,,,,,,,,,,,,,,,,,,,,,,,,,,,,,,,,,,,,,,,,,,0.0,0.0,1.0,0.0,512.0,0.92632,,,,,,,,,,,,,,,,,,,,,,,,,
80868,1645583278.117598,28.0,0.0,4058.974365,4350.769043,4168.717772999999,4272.307617,4147.692383,0.0,4.0,95.0,,,,0.0,4.0,2.0,4.0,0.0,4.0,50.0,,,,,,,,14.0,0.0,0.49196599999999996,-0.270752,0.5881350000000001,0.5820310000000001,0.916518,-0.409674,-0.165042,-0.034106,-0.035501,-0.030465,,,,,,,,,,,,,,,,,,,,,,,,,,,,,,,,,,,,,,,,,,,,,,,,,,,,,,,,,,,,,,,,,
80869,1645583278.1254132,29.0,0.0,4059.487061,4334.358886999999,4168.205078,4270.256348,4148.717772999999,0.0,4.0,95.0,,,,0.0,4.0,2.0,4.0,0.0,4.0,50.0,,,,,,,,,,,,,,,,,,,,,,,,,,,,,,,,,,,,,,,,,,,,,,,,,,,,,,,,,,,,,,,,,,,,,,,,,,,,,,,,,,,,
80870,1645583278.1332278,30.0,0.0,4095.897461,4274.358886999999,4187.692383,4276.410156,4166.153809,0.0,4.0,95.0,,,,0.0,4.0,2.0,4.0,0.0,4.0,50.0,,,,,,,,15.0,0.0,0.49196599999999996,-0.270752,0.5881350000000001,0.5820310000000001,0.9131,-0.421393,-0.164553,-0.034114,-0.035369,-0.032545,,,,,,,,,,,,,,,,,,,,,,,,,,,,,,,,,,,,,,,,,,,,,,,,,,,,,,,,,,,,,,,,,
80871,1645583278.141042,31.0,0.0,4096.410156,4277.94873,4177.436035,4280.0,4162.563965,0.0,4.0,95.0,,,,0.0,4.0,2.0,4.0,0.0,4.0,50.0,,,,,,,,,,,,,,,,,,,,1.0,0.0,0.0,,,,,,,,,,,,,,,,,,,,,,,,,,,,,,,,0.0,0.0,1.0,0.0,512.0,1.0,872.470764,52.340351,11.484769,3.688911,2.843036,56.756907999999996,80.64954399999999,51.022987,35.903694,21.751873,6.92178,0.567955,1.265077,0.783489,0.422076,0.287595,0.019141,0.012614,0.007620999999999999,0.005967,313.779419,14.904469,4.345811,3.4918709999999997,1.5198770000000001
80872,1645583278.148857,32.0,0.0,4063.076904,4371.282227000001,4171.282227000001,4275.897461,4161.538574,0.0,4.0,95.0,,,,0.0,4.0,2.0,4.0,0.0,4.0,50.0,,,,,,,,16.0,0.0,0.49196599999999996,-0.270752,0.5881350000000001,0.5820310000000001,0.913588,-0.41358100000000003,-0.166995,-0.034071,-0.035397000000000005,-0.028118999999999998,,,,,,,,,,,,,,,,,,,,,,,,,,,,,,,,,,,,,,,,,,,,,,,,,,,,,,,,,,,,,,,,,
80873,1645583278.156672,33.0,0.0,4063.5898439999996,4465.128418,4190.256348,4269.230957,4172.820313,0.0,4.0,95.0,,,,0.0,4.0,2.0,4.0,0.0,4.0,50.0,,,,,,,,,,,,,,,,,,,,,,,,,,,,,,,,,,,,,,,,,,,,,,,,,,,,,,,,,,,,,,,,,,,,,,,,,,,,,,,,,,,,
80874,1645583278.164486,34.0,0.0,4076.4101560000004,4400.512695,4190.769043,4271.282227000001,4168.205078,0.0,4.0,95.0,,,,0.0,4.0,2.0,4.0,0.0,4.0,50.0,,,,,,,,17.0,0.0,0.49196599999999996,-0.270752,0.5881350000000001,0.5820310000000001,0.9116350000000001,-0.409186,-0.167483,-0.034131,-0.035373,-0.030385000000000002,,,,,,,,,,,,,,,,,,,,,,,,,,,,,,,,,,,,,,,,,,,,,,,,,,,,,,,,,,,,,,,,,
80875,1645583278.172301,35.0,0.0,4074.358887,4367.692383,4172.307617,4277.436035,4157.94873,0.0,4.0,95.0,,,,0.0,4.0,2.0,4.0,0.0,4.0,50.0,,,,,,,,,,,,,,,,,,,,,,,,,,,,,,,,,,,,,,,,,,,,,,,,,,,,,,0.0,0.0,1.0,0.0,512.0,1.0,,,,,,,,,,,,,,,,,,,,,,,,,
80876,1645583278.180116,36.0,0.0,4087.6923829999996,4541.538574,4178.974121,4275.897461,4169.230957,0.0,4.0,95.0,,,,0.0,4.0,2.0,4.0,0.0,4.0,50.0,,,,,,,,18.0,0.0,0.49196599999999996,-0.270752,0.5881350000000001,0.5820310000000001,0.91017,-0.41944,-0.155276,-0.034087,-0.0354,-0.026224,,,,,,,,,,,,,,,,,,,,,,,,,,,,,,,,,,,,,,,,,,,,,,,,,,,,,,,,,,,,,,,,,
80877,1645583278.18783,37.0,0.0,4118.974121,4629.230957,4203.589844,4270.256348,4180.0,0.0,4.0,95.0,,,,0.0,4.0,2.0,4.0,0.0,4.0,50.0,,,,,,,,,,,,,,,,,,,,,,,,,,,,,,,,,,,,,,,,,,,,,,,,,,,,,,,,,,,,,,,,,,,,,,,,,,,,,,,,,,,,
80878,1645583278.1956449,38.0,0.0,4102.563965,4455.384765999999,4192.820313,4269.743652,4174.358886999999,0.0,4.0,95.0,,,,0.0,4.0,2.0,4.0,0.0,4.0,50.0,,,,,,,,19.0,0.0,0.492255,-0.270752,0.5881350000000001,0.5817869999999999,0.9072399999999999,-0.409186,-0.157229,-0.034048,-0.035376,-0.028776999999999997,,,,,,,,,,,,,,,,,,,,,,,,,,,,,,,,,,,,,,,,,,,,,,,,,,,,,,,,,,,,,,,,,
80879,1645583278.20346,39.0,0.0,4053.8461909999996,4302.563965,4175.384765999999,4276.410156,4154.871582,0.0,4.0,95.0,,,,0.0,4.0,2.0,4.0,0.0,4.0,50.0,,,,,,,,,,,,,,,,,,,,,,,,,,,,,,,,,,,,,,,,,,,,,,,,,,,,,,0.0,0.0,1.0,0.0,512.0,1.0,,,,,,,,,,,,,,,,,,,,,,,,,
80880,1645583278.211274,40.0,0.0,4063.5898439999996,4277.436035,4180.0,4277.94873,4153.846191,0.0,4.0,95.0,,,,0.0,4.0,2.0,4.0,0.0,4.0,50.0,,,,,,,,20.0,0.0,0.49196599999999996,-0.270752,0.5881350000000001,0.5820310000000001,0.9116350000000001,-0.409186,-0.167483,-0.034061,-0.035450999999999996,-0.024728,,,,,,,,,,,,,,,,,,,,,,,,,,,,,,,,,,,,,,,,,,,,,,,,,,,,,,,,,,,,,,,,,
80881,1645583278.219089,41.0,0.0,4091.794922,4255.897461,4192.820313,4276.410156,4168.717772999999,0.0,4.0,95.0,,,,0.0,4.0,2.0,4.0,0.0,4.0,50.0,,,,,,,,,,,,,,,,,,,,,,,,,,,,,,,,,,,,,,,,,,,,,,,,,,,,,,,,,,,,,,,,,,,,,,,,,,,,,,,,,,,,
80882,1645583278.226903,42.0,0.0,4086.6667479999996,4252.307617,4203.077147999999,4277.436035,4166.666504,0.0,4.0,95.0,,,,0.0,4.0,2.0,4.0,0.0,4.0,50.0,,,,,,,,21.0,0.0,0.492255,-0.270752,0.5881350000000001,0.5817869999999999,0.9072399999999999,-0.409186,-0.157229,-0.034024,-0.035422,-0.027431,,,,,,,,,,,,,,,,,,,,,,,,,,,,,,,,,,,,,,,,,,,,,,,,,,,,,,,,,,,,,,,,,
80883,1645583278.234718,43.0,0.0,4093.3332520000004,4285.641113000001,4200.512695,4277.94873,4163.077147999999,0.0,4.0,95.0,,,,0.0,4.0,2.0,4.0,0.0,4.0,50.0,,,,,,,,,,,,,,,,,,,,,,,,,,,,,,,,,,,,,,,,,,,,,,,,,,,,,,0.0,0.0,1.0,0.0,512.0,1.0,,,,,,,,,,,,,,,,,,,,,,,,,
80884,1645583278.242533,44.0,0.0,4124.615234000001,4292.820313,4202.05127,4277.94873,4157.94873,0.0,4.0,95.0,,,,0.0,4.0,2.0,4.0,0.0,4.0,50.0,,,,,,,,22.0,0.0,0.49212,-0.270996,0.5881350000000001,0.5817869999999999,0.9243309999999999,-0.398444,-0.151858,-0.03404,-0.035298,-0.023369,,,,,,,,,,,,,,,,,,,,,,,,,,,,,,,,,,,,,,,,,,,,,,,,,,,,,,,,,,,,,,,,,
80885,1645583278.2503471,45.0,0.0,4134.871582,4262.563965,4210.256348,4278.461426,4153.333496,0.0,4.0,95.0,,,,0.0,4.0,2.0,4.0,0.0,4.0,50.0,,,,,,,,,,,,,,,,,,,,,,,,,,,,,,,,,,,,,,,,,,,,,,,,,,,,,,,,,,,,,,,,,,,,,,,,,,,,,,,,,,,,
80886,1645583278.258062,46.0,0.0,4121.025879,4291.794922,4205.128418,4277.94873,4154.358886999999,0.0,4.0,95.0,,,,0.0,4.0,2.0,4.0,0.0,4.0,50.0,,,,,,,,23.0,0.0,0.49212,-0.270996,0.5881350000000001,0.5817869999999999,0.913588,-0.392096,-0.14648699999999998,-0.034005,-0.035235,-0.026158999999999998,,,,,,,,,,,,,,,,,,,,,,,,,,,,,,,,,,,,,,,,,,,,,,,,,,,,,,,,,,,,,,,,,
80887,1645583278.265877,47.0,0.0,4117.94873,4334.358886999999,4189.230957,4276.410156,4161.538574,0.0,4.0,95.0,,,,0.0,4.0,2.0,4.0,0.0,4.0,50.0,1.0,25.0,3.0,0.0,4.0,0.0,3.0,,,,,,,,,,,,,1.0,0.0,0.0,,,,,,,,,,,,,,,,,,,,,,,,,,,,,,,,0.0,0.0,1.0,0.0,512.0,1.0,1317.836914,75.858002,14.672417000000001,4.258187,2.939699,81.170822,69.697144,53.299576,40.727436,23.407635,9.238978,0.6278699999999999,1.008875,0.713733,0.44989300000000004,0.417242,0.027787,0.015776,0.011304999999999999,0.0070030000000000005,464.7560730000001,21.638426000000003,5.514805,3.8096669999999997,1.490788
80888,1645583278.273691,48.0,0.0,4129.230957,4303.077147999999,4196.922852000001,4277.436035,4168.205078,0.0,4.0,95.0,,,,0.0,4.0,2.0,4.0,0.0,4.0,50.0,,,,,,,,24.0,0.0,0.49212,-0.270996,0.5881350000000001,0.5817869999999999,0.913588,-0.39649,-0.160159,-0.034022000000000004,-0.035276,-0.022274000000000002,,,,,,,,,,,,,,,,,,,,,,,,,,,,,,,,,,,,,,,,,,,,,,,,,,,,,,,,,,,,,,,,,
80889,1645583278.281506,49.0,0.0,4130.256348,4268.205078,4210.769043,4278.461426,4164.102539,0.0,4.0,95.0,,,,0.0,4.0,2.0,4.0,0.0,4.0,50.0,,,,,,,,,,,,,,,,,,,,,,,,,,,,,,,,,,,,,,,,,,,,,,,,,,,,,,,,,,,,,,,,,,,,,,,,,,,,,,,,,,,,
80890,1645583278.2893212,50.0,0.0,4117.94873,4238.974121,4208.205078,4278.461426,4168.717772999999,0.0,4.0,95.0,,,,0.0,4.0,2.0,4.0,0.0,4.0,50.0,,,,,,,,25.0,0.0,0.49212,-0.270996,0.5881350000000001,0.5817869999999999,0.917494,-0.404303,-0.15820599999999999,-0.034185,-0.035264,-0.025271000000000002,,,,,,,,,,,,,,,,,,,,,,,,,,,,,,,,,,,,,,,,,,,,,,,,,,,,,,,,,,,,,,,,,
80891,1645583278.2971349,51.0,0.0,4127.179688,4289.230957,4202.05127,4278.974121,4194.871582,0.0,4.0,95.0,,,,0.0,4.0,2.0,4.0,0.0,4.0,50.0,,,,,,,,,,,,,,,,,,,,,,,,,,,,,,,,,,,,,,,,,,,,,,,,,,,,,,0.0,0.0,1.0,0.0,512.0,1.0,,,,,,,,,,,,,,,,,,,,,,,,,
80892,1645583278.30495,52.0,0.0,4155.384765999999,4454.358886999999,4205.128418,4280.0,4207.179688,0.0,4.0,95.0,,,,0.0,4.0,2.0,4.0,0.0,4.0,50.0,,,,,,,,26.0,0.0,0.49212,-0.270996,0.5881350000000001,0.5817869999999999,0.9126120000000001,-0.401373,-0.155276,-0.034135000000000006,-0.035302,-0.021572,,,,,,,,,,,,,,,,,,,,,,,,,,,,,,,,,,,,,,,,,,,,,,,,,,,,,,,,,,,,,,,,,
80893,1645583278.3127651,53.0,0.0,4162.05127,4529.230957,4217.94873,4276.410156,4191.282227000001,0.0,4.0,95.0,,,,0.0,4.0,2.0,4.0,0.0,4.0,50.0,,,,,,,,,,,,,,,,,,,,,,,,,,,,,,,,,,,,,,,,,,,,,,,,,,,,,,,,,,,,,,,,,,,,,,,,,,,,,,,,,,,,
80894,1645583278.3205788,54.0,0.0,4155.897461,4474.871582,4215.384765999999,4274.871582,4196.410156,0.0,4.0,95.0,,,,0.0,4.0,2.0,4.0,0.0,4.0,50.0,,,,,,,,27.0,0.0,0.491674,-0.270752,0.588379,0.5820310000000001,0.9150530000000001,-0.392096,-0.1626,-0.034042,-0.035385,-0.024395,,,,,,,,,,,,,,,,,,,,,,,,,,,,,,,,,,,,,,,,,,,,,,,,,,,,,,,,,,,,,,,,,
80895,1645583278.328294,55.0,0.0,4154.358886999999,4455.897461,4196.410156,4278.461426,4209.743652,0.0,4.0,95.0,,,,0.0,4.0,2.0,4.0,0.0,4.0,50.0,,,,,,,,,,,,,,,,,,,,,,,,,,,,,,,,,,,,,,,,,,,,,,,,,,,,,,0.0,0.0,1.0,0.0,512.0,1.0,,,,,,,,,,,,,,,,,,,,,,,,,
80896,1645583278.336109,56.0,0.0,4135.384765999999,4472.307617,4182.05127,4278.461426,4190.769043,0.0,4.0,95.0,,,,0.0,4.0,2.0,4.0,0.0,4.0,50.0,,,,,,,,28.0,0.0,0.49180799999999997,-0.27050799999999997,0.588379,0.5820310000000001,0.9126120000000001,-0.415045,-0.163088,-0.034056,-0.035411,-0.020686000000000003,,,,,,,,,,,,,,,,,,,,,,,,,,,,,,,,,,,,,,,,,,,,,,,,,,,,,,,,,,,,,,,,,
80897,1645583278.343923,57.0,0.0,4124.102539,4492.820313,4194.871582,4278.461426,4176.922852000001,0.0,4.0,95.0,,,,0.0,4.0,2.0,4.0,0.0,4.0,50.0,,,,,,,,,,,,,,,,,,,,,,,,,,,,,,,,,,,,,,,,,,,,,,,,,,,,,,,,,,,,,,,,,,,,,,,,,,,,,,,,,,,,
80898,1645583278.351738,58.0,0.0,4155.384765999999,4596.922852000001,4219.487305,4274.871582,4196.922852000001,0.0,4.0,95.0,,,,0.0,4.0,2.0,4.0,0.0,4.0,50.0,,,,,,,,29.0,0.0,0.491516,-0.27050799999999997,0.588623,0.5820310000000001,0.906264,-0.406744,-0.14990499999999998,-0.034117,-0.035483,-0.023696000000000002,,,,,,,,,,,,,,,,,,,,,,,,,,,,,,,,,,,,,,,,,,,,,,,,,,,,,,,,,,,,,,,,,
80899,1645583278.3595529,59.0,0.0,4170.769043,4706.153809,4208.205078,4268.717772999999,4196.922852000001,0.0,4.0,95.0,,,,0.0,4.0,2.0,4.0,0.0,4.0,50.0,,,,,,,,,,,,,,,,,,,,,,,,,,,,,,,,,,,,,,,,,,,,,,,,,,,,,,0.0,0.0,1.0,0.0,512.0,1.0,,,,,,,,,,,,,,,,,,,,,,,,,
80900,1645583278.367367,60.0,0.0,4145.128418,4630.256348,4168.717772999999,4266.153809,4165.128418,0.0,4.0,95.0,,,,0.0,4.0,2.0,4.0,0.0,4.0,50.0,,,,,,,,30.0,0.0,0.491516,-0.27050799999999997,0.588623,0.5820310000000001,0.9043110000000001,-0.407721,-0.159182,-0.034172,-0.035450999999999996,-0.020203,,,,,,,,,,,,,,,,,,,,,,,,,,,,,,,,,,,,,,,,,,,,,,,,,,,,,,,,,,,,,,,,,
80901,1645583278.375182,61.0,0.0,4131.282227000001,4514.358886999999,4164.615234000001,4266.153809,4166.153809,0.0,4.0,95.0,,,,0.0,4.0,2.0,4.0,0.0,4.0,50.0,,,,,,,,,,,,,,,,,,,,,,,,,,,,,,,,,,,,,,,,,,,,,,,,,,,,,,,,,,,,,,,,,,,,,,,,,,,,,,,,,,,,
80902,1645583278.382997,62.0,0.0,4141.025879,4605.641113000001,4186.666504,4268.205078,4193.846191,0.0,4.0,95.0,,,,0.0,4.0,2.0,4.0,0.0,4.0,50.0,,,,,,,,31.0,0.0,0.491516,-0.27050799999999997,0.588623,0.5820310000000001,0.917983,-0.41065100000000004,-0.15967,-0.034173,-0.035421,-0.023212,,,,,,,,,,,,,,,,,,,,,,,,,,,,,,,,,,,,,,,,,,,,,,,,,,,,,,,,,,,,,,,,,
80903,1645583278.390811,63.0,0.0,4152.820313,4767.692383,4191.794922,4276.922852000001,4197.436035,0.0,4.0,95.0,,,,0.0,4.0,2.0,4.0,0.0,4.0,50.0,,,,,,,,,,,,,,,,,,,,1.0,0.0,0.0,,,,,,,,,,,,,,,,,,,,,,,,,,,,,,,,0.0,0.0,1.0,0.0,512.0,1.0,1717.687988,97.298233,17.149601,4.689389,2.864304,116.202324,61.277820999999996,58.479896999999994,43.847294,24.845083,10.991122,0.748541,0.749575,0.654406,0.486404,0.5252060000000001,0.037968,0.019566999999999998,0.016181,0.009108,597.506409,28.310469,6.385948,4.020043,1.439574
80904,1645583278.398526,64.0,0.0,4171.282227000001,4790.256348,4204.615234000001,4282.563965,4190.256348,450.0,4.0,95.0,,,,0.0,4.0,2.0,4.0,0.0,4.0,50.0,,,,,,,,32.0,0.0,0.49165,-0.270264,0.588623,0.5820310000000001,0.8999159999999999,-0.404303,-0.163088,-0.034174,-0.035443999999999996,-0.025872000000000003,,,,,,,,,,,,,,,,,,,,,,,,,,,,,,,,,,,,,,,,,,,,,,,,,,,,,,,,,,,,,,,,,
80905,1645583278.406341,65.0,0.0,4190.256348,4776.922852000001,4219.487305,4277.436035,4192.820313,450.0,4.0,95.0,,,,0.0,4.0,2.0,4.0,0.0,4.0,50.0,,,,,,,,,,,,,,,,,,,,,,,,,,,,,,,,,,,,,,,,,,,,,,,,,,,,,,,,,,,,,,,,,,,,,,,,,,,,,,,,,,,,
80906,1645583278.414155,66.0,0.0,4179.487305,4814.871582,4211.794922,4275.897461,4195.897461,16242.0,4.0,95.0,,,,0.0,4.0,2.0,4.0,0.0,4.0,50.0,,,,,,,,33.0,0.0,0.491784,-0.27002,0.588623,0.5820310000000001,0.9121229999999999,-0.406744,-0.170901,-0.034223,-0.035463999999999996,-0.022015,,,,,,,,,,,,,,,,,,,,,,,,,,,,,,,,,,,,,,,,,,,,,,,,,,,,,,,,,,,,,,,,,
80907,1645583278.42197,67.0,0.0,4150.769043,4812.820313,4200.512695,4278.461426,4205.128418,450.0,4.0,95.0,,,,0.0,4.0,2.0,4.0,0.0,4.0,50.0,,,,,,,,,,,,,,,,,,,,,,,,,,,,,,,,,,,,,,,,,,,,,,,,,,,,,,0.0,0.0,1.0,0.0,512.0,1.0,,,,,,,,,,,,,,,,,,,,,,,,,
80908,1645583278.429785,68.0,0.0,4148.717772999999,4776.922852000001,4194.358886999999,4274.871582,4207.179688,271.0,4.0,95.0,,,,0.0,4.0,2.0,4.0,0.0,4.0,50.0,,,,,,,,34.0,0.0,0.491629,-0.269775,0.588623,0.582275,0.8999159999999999,-0.40576799999999996,-0.144533,-0.034219,-0.035433,-0.02494,,,,,,,,,,,,,,,,,,,,,,,,,,,,,,,,,,,,,,,,,,,,,,,,,,,,,,,,,,,,,,,,,
80909,1645583278.437599,69.0,0.0,4173.846191,4733.333496,4193.333496,4275.384765999999,4196.922852000001,450.0,4.0,95.0,,,,0.0,4.0,2.0,4.0,0.0,4.0,50.0,,,,,,,,,,,,,,,,,,,,,,,,,,,,,,,,,,,,,,,,,,,,,,,,,,,,,,,,,,,,,,,,,,,,,,,,,,,,,,,,,,,,
80910,1645583278.445414,70.0,0.0,4166.666504,4693.333496,4182.563965,4278.974121,4193.333496,16191.0,4.0,95.0,,,,0.0,4.0,2.0,4.0,0.0,4.0,50.0,,,,,,,,35.0,0.0,0.491763,-0.269531,0.588623,0.582275,0.9184709999999999,-0.41455699999999995,-0.174319,-0.034166,-0.035503,-0.027476,,,,,,,,,,,,,,,,,,,,,,,,,,,,,,,,,,,,,,,,,,,,,,,,,,,,,,,,,,,,,,,,,
80911,1645583278.453229,71.0,0.0,4135.384765999999,4701.025879,4161.538574,4272.820313,4192.820313,450.0,4.0,95.0,,,,0.0,4.0,2.0,4.0,0.0,4.0,50.0,,,,,,,,,,,,,,,,,,,,,,,,,,,,,,,,,,,,,,,,,,,,,,,,,,,,,,0.0,0.0,1.0,0.0,512.0,1.0,,,,,,,,,,,,,,,,,,,,,,,,,
80912,1645583278.461043,72.0,0.0,4142.05127,4708.205078,4158.461426,4265.128418,4187.692383,450.0,4.0,95.0,,,,0.0,4.0,2.0,4.0,0.0,4.0,50.0,,,,,,,,36.0,0.0,0.491763,-0.269531,0.588623,0.582275,0.901381,-0.411627,-0.159182,-0.034265,-0.035566,-0.029708999999999996,,,,,,,,,,,,,,,,,,,,,,,,,,,,,,,,,,,,,,,,,,,,,,,,,,,,,,,,,,,,,,,,,
80913,1645583278.468858,73.0,0.0,4145.128418,4729.743652,4185.128418,4267.179688,4181.025879,0.0,4.0,95.0,,,,0.0,4.0,2.0,4.0,0.0,4.0,50.0,,,,,,,,,,,,,,,,,,,,,,,,,,,,,,,,,,,,,,,,,,,,,,,,,,,,,,,,,,,,,,,,,,,,,,,,,,,,,,,,,,,,
80914,1645583278.476573,74.0,0.0,4124.615234000001,4761.025879,4195.384765999999,4269.230957,4179.487305,450.0,4.0,95.0,,,,0.0,4.0,2.0,4.0,0.0,4.0,50.0,,,,,,,,37.0,0.0,0.49189700000000003,-0.269287,0.588623,0.582275,0.9111469999999999,-0.42627600000000004,-0.152346,-0.034207999999999995,-0.035476,-0.025516999999999998,,,,,,,,,,,,,,,,,,,,,,,,,,,,,,,,,,,,,,,,,,,,,,,,,,,,,,,,,,,,,,,,,
80915,1645583278.484387,75.0,0.0,4135.897461,4748.205078,4182.05127,4266.666504,4185.128418,16197.0,4.0,95.0,,,,0.0,4.0,2.0,4.0,0.0,4.0,50.0,,,,,,,,,,,,,,,,,,,,,,,,,,,,,,,,,,,,,,,,,,,,,,,,,,,,,,0.0,0.0,1.0,0.0,512.0,1.0,,,,,,,,,,,,,,,,,,,,,,,,,
80916,1645583278.492202,76.0,0.0,4149.230957,4816.922852000001,4167.179688,4267.179688,4178.461426,450.0,4.0,95.0,,,,0.0,4.0,2.0,4.0,0.0,4.0,50.0,,,,,,,,38.0,0.0,0.49144899999999997,-0.269043,0.588867,0.5825199999999999,0.9038219999999999,-0.431647,-0.161624,-0.034254,-0.035443999999999996,-0.028092000000000002,,,,,,,,,,,,,,,,,,,,,,,,,,,,,,,,,,,,,,,,,,,,,,,,,,,,,,,,,,,,,,,,,
80917,1645583278.500016,77.0,0.0,4126.666504,4982.563965,4160.0,4268.717772999999,4160.512695,450.0,4.0,95.0,,,,0.0,4.0,2.0,4.0,0.0,4.0,50.0,,,,,,,,,,,,,,,,,,,,,,,,,,,,,,,,,,,,,,,,,,,,,,,,,,,,,,,,,,,,,,,,,,,,,,,,,,,,,,,,,,,,
80918,1645583278.507831,78.0,0.0,4124.102539,4996.922852000001,4170.769043,4266.153809,4166.153809,450.0,4.0,95.0,,,,0.0,4.0,2.0,4.0,0.0,4.0,50.0,,,,,,,,39.0,0.0,0.491738,-0.269043,0.588867,0.582275,0.905776,-0.41992799999999997,-0.15674100000000002,-0.034344,-0.035513,-0.030264,,,,,,,,,,,,,,,,,,,,,,,,,,,,,,,,,,,,,,,,,,,,,,,,,,,,,,,,,,,,,,,,,
80919,1645583278.515646,79.0,0.0,4144.615234000001,4874.871582,4176.922852000001,4266.666504,4178.461426,16197.0,4.0,95.0,,,,0.0,4.0,2.0,4.0,0.0,4.0,50.0,,,,,,,,,,,,,,,,,,,,1.0,0.0,0.0,,,,,,,,,,,,,,,,,,,,,,,,,,,,,,,,0.0,0.0,1.0,0.0,512.0,1.0,1956.530396,110.951958,18.244516,4.928388,2.666839,156.932404,56.883556000000006,65.93611899999999,44.540024,25.91078,11.635858,0.907877,0.5320560000000001,0.6153810000000001,0.533817,0.5798979999999999,0.048973,0.02528,0.022572,0.013659000000000001,673.332825,33.067307,6.783192999999999,4.133078,1.364096
80920,1645583278.52346,80.0,0.0,4144.102539,4825.128418,4168.717772999999,4272.820313,4171.282227000001,450.0,4.0,95.0,,,,0.0,4.0,2.0,4.0,0.0,4.0,50.0,,,,,,,,40.0,0.0,0.49187200000000003,-0.26879899999999995,0.588867,0.582275,0.917006,-0.42627600000000004,-0.15820599999999999,-0.034181,-0.035477999999999996,-0.032267000000000004,,,,,,,,,,,,,,,,,,,,,,,,,,,,,,,,,,,,,,,,,,,,,,,,,,,,,,,,,,,,,,,,,
80921,1645583278.531275,81.0,0.0,4125.641113000001,4790.256348,4168.717772999999,4277.436035,4167.179688,450.0,4.0,95.0,,,,0.0,4.0,2.0,4.0,0.0,4.0,50.0,,,,,,,,,,,,,,,,,,,,,,,,,,,,,,,,,,,,,,,,,,,,,,,,,,,,,,,,,,,,,,,,,,,,,,,,,,,,,,,,,,,,
80922,1645583278.5390902,82.0,0.0,4108.717772999999,4749.230957,4175.897461,4277.94873,4167.179688,450.0,4.0,95.0,,,,0.0,4.0,2.0,4.0,0.0,4.0,50.0,,,,,,,,41.0,0.0,0.49216400000000005,-0.26879899999999995,0.588623,0.582275,0.903334,-0.397955,-0.164553,-0.034083999999999996,-0.035446,-0.027819,,,,,,,,,,,,,,,,,,,,,,,,,,,,,,,,,,,,,,,,,,,,,,,,,,,,,,,,,,,,,,,,,
80923,1645583278.546804,83.0,0.0,4126.153809,4786.666504,4175.384765999999,4276.922852000001,4157.436035,16197.0,4.0,95.0,,,,0.0,4.0,2.0,4.0,0.0,4.0,50.0,,,,,,,,,,,,,,,,,,,,,,,,,,,,,,,,,,,,,,,,,,,,,,,,,,,,,,0.0,0.0,1.0,0.0,512.0,1.0,,,,,,,,,,,,,,,,,,,,,,,,,
80924,1645583278.5546188,84.0,0.0,4170.256348,4793.846191,4180.512695,4272.820313,4156.922852000001,450.0,4.0,95.0,,,,0.0,4.0,2.0,4.0,0.0,4.0,50.0,,,,,,,,42.0,0.0,0.49216400000000005,-0.26879899999999995,0.588623,0.582275,0.914076,-0.409674,-0.17383099999999999,-0.034044,-0.035466000000000004,-0.030116000000000004,,,,,,,,,,,,,,,,,,,,,,,,,,,,,,,,,,,,,,,,,,,,,,,,,,,,,,,,,,,,,,,,,
80925,1645583278.562434,85.0,0.0,4174.358886999999,4763.077147999999,4190.769043,4270.769043,4174.871582,450.0,4.0,95.0,,,,0.0,4.0,2.0,4.0,0.0,4.0,50.0,,,,,,,,,,,,,,,,,,,,,,,,,,,,,,,,,,,,,,,,,,,,,,,,,,,,,,,,,,,,,,,,,,,,,,,,,,,,,,,,,,,,
80926,1645583278.5702481,86.0,0.0,4141.538574,4785.128418,4181.025879,4271.794922,4175.384765999999,450.0,4.0,95.0,,,,0.0,4.0,2.0,4.0,0.0,4.0,50.0,,,,,,,,43.0,0.0,0.49231899999999995,-0.269043,0.588623,0.5820310000000001,0.9004040000000001,-0.412116,-0.169436,-0.033912,-0.035435,-0.032133,,,,,,,,,,,,,,,,,,,,,,,,,,,,,,,,,,,,,,,,,,,,,,,,,,,,,,,,,,,,,,,,,
80927,1645583278.578063,87.0,0.0,4120.0,4787.692383,4167.179688,4271.794922,4149.743652,16197.0,4.0,95.0,,,,0.0,4.0,2.0,4.0,0.0,4.0,50.0,,,,,,,,,,,,,,,,,,,,,,,,,,,,,,,,,,,,,,,,,,,,,,,,,,,,,,0.0,0.0,1.0,0.0,512.0,1.0,,,,,,,,,,,,,,,,,,,,,,,,,
80928,1645583278.585878,88.0,0.0,4135.897461,4755.384765999999,4182.05127,4274.871582,4141.025879,450.0,4.0,95.0,,,,0.0,4.0,2.0,4.0,0.0,4.0,50.0,,,,,,,,44.0,0.0,0.49247799999999997,-0.269287,0.588379,0.5820310000000001,0.897475,-0.409674,-0.172854,-0.033987,-0.035358,-0.033998,,,,,,,,,,,,,,,,,,,,,,,,,,,,,,,,,,,,,,,,,,,,,,,,,,,,,,,,,,,,,,,,,
80929,1645583278.593692,89.0,0.0,4152.307617,4752.307617,4193.333496,4280.0,4149.743652,450.0,4.0,95.0,,,,0.0,4.0,2.0,4.0,0.0,4.0,50.0,,,,,,,,,,,,,,,,,,,,,,,,,,,,,,,,,,,,,,,,,,,,,,,,,,,,,,,,,,,,,,,,,,,,,,,,,,,,,,,,,,,,
80930,1645583278.601507,90.0,0.0,4129.230957,4762.563965,4183.589844,4280.512695,4143.589844,450.0,4.0,95.0,,,,0.0,4.0,2.0,4.0,0.0,4.0,50.0,,,,,,,,45.0,0.0,0.492633,-0.269531,0.588379,0.5817869999999999,0.9150530000000001,-0.408209,-0.16406500000000002,-0.034007,-0.035436,-0.029329,,,,,,,,,,,,,,,,,,,,,,,,,,,,,,,,,,,,,,,,,,,,,,,,,,,,,,,,,,,,,,,,,
80931,1645583278.609322,91.0,0.0,4125.128418,4749.743652,4189.743652,4275.384765999999,4144.615234000001,16197.0,4.0,95.0,,,,0.0,4.0,2.0,4.0,0.0,4.0,50.0,,,,,,,,,,,,,,,,,,,,,,,,,,,,,,,,,,,,,,,,,,,,,,,,,,,,,,0.0,0.0,1.0,0.0,512.0,1.0,,,,,,,,,,,,,,,,,,,,,,,,,
80932,1645583278.6170359,92.0,0.0,4161.025879,4725.128418,4200.0,4270.256348,4155.384765999999,450.0,4.0,95.0,,,,0.0,4.0,2.0,4.0,0.0,4.0,50.0,,,,,,,,46.0,0.0,0.493079,-0.269775,0.5881350000000001,0.581543,0.906752,-0.400885,-0.155276,-0.034024,-0.035407999999999995,-0.031425,,,,,,,,,,,,,,,,,,,,,,,,,,,,,,,,,,,,,,,,,,,,,,,,,,,,,,,,,,,,,,,,,
80933,1645583278.624851,93.0,0.0,4168.205078,4748.205078,4190.256348,4269.743652,4155.897461,450.0,4.0,95.0,,,,0.0,4.0,2.0,4.0,0.0,4.0,50.0,,,,,,,,,,,,,,,,,,,,,,,,,,,,,,,,,,,,,,,,,,,,,,,,,,,,,,,,,,,,,,,,,,,,,,,,,,,,,,,,,,,,
80934,1645583278.632666,94.0,0.0,4140.512695,4782.05127,4180.512695,4272.820313,4154.358886999999,450.0,4.0,95.0,,,,0.0,4.0,2.0,4.0,0.0,4.0,50.0,,,,,,,,47.0,0.0,0.49310200000000004,-0.270264,0.5878909999999999,0.581543,0.9126120000000001,-0.41260399999999997,-0.159182,-0.03404,-0.035480000000000005,-0.033458999999999996,,,,,,,,,,,,,,,,,,,,,,,,,,,,,,,,,,,,,,,,,,,,,,,,,,,,,,,,,,,,,,,,,
80935,1645583278.64048,95.0,0.0,4138.461426,4702.05127,4189.743652,4272.307617,4144.102539,16197.0,4.0,95.0,,,,0.0,4.0,2.0,4.0,0.0,4.0,50.0,,,,,,,,,,,,,,,,,,,,1.0,0.0,0.0,,,,,,,,,,,,,,,,,,,,,,,,,,,,,,,,0.0,0.0,1.0,0.0,512.0,1.0,1957.4892579999998,112.76604499999999,17.698729,4.9950589999999995,2.427977,196.95898400000002,56.297249,75.428596,43.566269,26.544918,10.990357000000001,1.069768,0.39179899999999995,0.617993,0.595427,0.567713,0.062605,0.034066,0.031228,0.021502,667.429932,34.572994,6.644831,4.145391,1.270713
80936,1645583278.648295,96.0,0.0,4165.641113000001,4542.563965,4194.871582,4271.794922,4156.922852000001,450.0,4.0,95.0,,,,0.0,4.0,2.0,4.0,0.0,4.0,50.0,,,,,,,,48.0,0.0,0.492633,-0.269531,0.588379,0.5817869999999999,0.9150530000000001,-0.408209,-0.16406500000000002,-0.034054,-0.035546,-0.028843,,,,,,,,,,,,,,,,,,,,,,,,,,,,,,,,,,,,,,,,,,,,,,,,,,,,,,,,,,,,,,,,,
80937,1645583278.65611,97.0,0.0,4175.384765999999,4511.794922,4187.692383,4275.384765999999,4196.410156,450.0,4.0,95.0,,,,0.0,4.0,2.0,4.0,0.0,4.0,50.0,,,,,,,,,,,,,,,,,,,,,,,,,,,,,,,,,,,,,,,,,,,,,,,,,,,,,,,,,,,,,,,,,,,,,,,,,,,,,,,,,,,,
80938,1645583278.663924,98.0,0.0,4147.692383,4575.897461,4182.563965,4275.384765999999,4193.846191,450.0,4.0,95.0,,,,0.0,4.0,2.0,4.0,0.0,4.0,50.0,,,,,,,,49.0,0.0,0.49310200000000004,-0.270264,0.5878909999999999,0.581543,0.9126120000000001,-0.41260399999999997,-0.159182,-0.034066,-0.035604000000000004,-0.031135000000000003,,,,,,,,,,,,,,,,,,,,,,,,,,,,,,,,,,,,,,,,,,,,,,,,,,,,,,,,,,,,,,,,,
80939,1645583278.671739,99.0,0.0,4124.615234000001,4545.128418,4178.461426,4274.358886999999,4164.102539,16197.0,4.0,95.0,,,,0.0,4.0,2.0,4.0,0.0,4.0,50.0,,,,,,,,,,,,,,,,,,,,,,,,,,,,,,,,,,,,,,,,,,,,,,,,,,,,,,0.0,0.0,1.0,0.0,512.0,1.0,,,,,,,,,,,,,,,,,,,,,,,,,
80940,1645583278.679554,100.0,0.0,4143.077147999999,4416.922852000001,4176.922852000001,4274.871582,4173.846191,450.0,4.0,95.0,,,,0.0,4.0,2.0,4.0,0.0,4.0,50.0,,,,,,,,50.0,0.0,0.493547,-0.27050799999999997,0.587646,0.581299,0.913588,-0.40528000000000003,-0.156252,-0.034078,-0.035511,-0.0331,,,,,,,,,,,,,,,,,,,,,,,,,,,,,,,,,,,,,,,,,,,,,,,,,,,,,,,,,,,,,,,,,
80941,1645583278.687268,101.0,0.0,4141.025879,4289.230957,4171.794922,4274.871582,4175.384765999999,450.0,4.0,95.0,,,,0.0,4.0,2.0,4.0,0.0,4.0,50.0,,,,,,,,,,,,,,,,,,,,,,,,,,,,,,,,,,,,,,,,,,,,,,,,,,,,,,,,,,,,,,,,,,,,,,,,,,,,,,,,,,,,
80942,1645583278.695083,102.0,0.0,4139.487305,4223.589844,4166.666504,4274.358886999999,4157.436035,450.0,4.0,95.0,,,,0.0,4.0,2.0,4.0,0.0,4.0,50.0,,,,,,,,51.0,0.0,0.49357,-0.270996,0.5874020000000001,0.581299,0.906752,-0.38233,-0.163088,-0.034137,-0.035475,-0.03477,,,,,,,,,,,,,,,,,,,,,,,,,,,,,,,,,,,,,,,,,,,,,,,,,,,,,,,,,,,,,,,,,
80943,1645583278.7027981,103.0,0.0,4181.538574,4192.307617,4175.897461,4275.384765999999,4179.487305,16197.0,4.0,95.0,,,,0.0,4.0,2.0,4.0,0.0,4.0,50.0,,,,,,,,,,,,,,,,,,,,,,,,,,,,,,,,,,,,,,,,,,,,,,,,,,,,,,0.0,0.0,1.0,0.0,512.0,1.0,,,,,,,,,,,,,,,,,,,,,,,,,
80944,1645583278.7106118,104.0,0.0,4183.077147999999,4171.282227000001,4187.179688,4274.871582,4191.282227000001,450.0,4.0,95.0,,,,0.0,4.0,2.0,4.0,0.0,4.0,50.0,,,,,,,,52.0,0.0,0.493726,-0.27124000000000004,0.587158,0.581299,0.8955209999999999,-0.409186,-0.157229,-0.034092000000000004,-0.035394999999999996,-0.030121,,,,,,,,,,,,,,,,,,,,,,,,,,,,,,,,,,,,,,,,,,,,,,,,,,,,,,,,,,,,,,,,,
80945,1645583278.718427,105.0,0.0,4145.641113000001,4177.94873,4180.512695,4273.846191,4178.974121,450.0,4.0,95.0,,,,0.0,4.0,2.0,4.0,0.0,4.0,50.0,,,,,,,,,,,,,,,,,,,,,,,,,,,,,,,,,,,,,,,,,,,,,,,,,,,,,,,,,,,,,,,,,,,,,,,,,,,,,,,,,,,,
80946,1645583278.726242,106.0,0.0,4156.922852000001,4186.153809,4181.538574,4277.436035,4186.666504,450.0,4.0,95.0,,,,0.0,4.0,2.0,4.0,0.0,4.0,50.0,,,,,,,,53.0,0.0,0.49374799999999996,-0.271729,0.586914,0.581299,0.913588,-0.380865,-0.156252,-0.034052,-0.035371,-0.032187,,,,,,,,,,,,,,,,,,,,,,,,,,,,,,,,,,,,,,,,,,,,,,,,,,,,,,,,,,,,,,,,,
80947,1645583278.734056,107.0,0.0,4184.615234000001,4138.461426,4201.538574,4276.922852000001,4205.641113000001,16197.0,4.0,95.0,,,,0.0,4.0,2.0,4.0,0.0,4.0,50.0,,,,,,,,,,,,,,,,,,,,,,,,,,,,,,,,,,,,,,,,,,,,,,,,,,,,,,0.0,0.0,1.0,0.0,512.0,1.0,,,,,,,,,,,,,,,,,,,,,,,,,
80948,1645583278.741871,108.0,0.0,4162.05127,4121.025879,4206.153809,4270.256348,4192.307617,450.0,4.0,95.0,,,,0.0,4.0,2.0,4.0,0.0,4.0,50.0,,,,,,,,54.0,0.0,0.494191,-0.271973,0.58667,0.581055,0.931167,-0.388678,-0.161624,-0.034114,-0.035447,-0.034047,,,,,,,,,,,,,,,,,,,,,,,,,,,,,,,,,,,,,,,,,,,,,,,,,,,,,,,,,,,,,,,,,
80949,1645583278.749686,109.0,0.0,4137.436035,4194.871582,4187.179688,4269.230957,4162.05127,450.0,4.0,95.0,,,,0.0,4.0,2.0,4.0,0.0,4.0,50.0,,,,,,,,,,,,,,,,,,,,,,,,,,,,,,,,,,,,,,,,,,,,,,,,,,,,,,,,,,,,,,,,,,,,,,,,,,,,,,,,,,,,
80950,1645583278.7575,110.0,0.0,4138.974121,4175.384765999999,4178.461426,4273.846191,4160.512695,450.0,4.0,95.0,,,,0.0,4.0,2.0,4.0,0.0,4.0,50.0,,,,,,,,55.0,0.0,0.494346,-0.272217,0.586426,0.581055,0.917983,-0.396002,-0.167971,-0.03412,-0.035467,-0.035769,,,,,,,,,,,,,,,,,,,,,,,,,,,,,,,,,,,,,,,,,,,,,,,,,,,,,,,,,,,,,,,,,
80951,1645583278.765215,111.0,0.0,4146.153809,4134.358886999999,4188.205078,4272.820313,4163.589844,16197.0,4.0,95.0,,,,0.0,4.0,2.0,4.0,0.0,4.0,50.0,1.0,25.0,3.0,0.0,4.0,0.0,3.0,,,,,,,,,,,,,1.0,0.0,0.0,,,,,,,,,,,,,,,,,,,,,,,,,,,,,,,,0.0,0.0,1.0,0.0,512.0,1.0,1721.174927,102.118813,15.756998000000001,4.941534,2.2214669999999996,225.22241200000002,59.552738,86.150681,42.499241,26.832579,9.287523,1.21327,0.370131,0.6846909999999999,0.672247,0.502125,0.083887,0.04674,0.043247,0.032186,581.8388669999999,32.476368,6.011538,4.031642,1.174172
80952,1645583278.77303,112.0,0.0,4149.743652,4215.384765999999,4196.922852000001,4270.769043,4165.128418,450.0,4.0,95.0,,,,0.0,4.0,2.0,4.0,0.0,4.0,50.0,,,,,,,,56.0,0.0,0.494212,-0.272461,0.586426,0.581055,0.9126120000000001,-0.41651000000000005,-0.167971,-0.034078,-0.035436,-0.030923000000000003,,,,,,,,,,,,,,,,,,,,,,,,,,,,,,,,,,,,,,,,,,,,,,,,,,,,,,,,,,,,,,,,,
80953,1645583278.780844,113.0,0.0,4139.487305,4230.769043,4185.641113000001,4273.333496,4179.487305,450.0,4.0,95.0,,,,0.0,4.0,2.0,4.0,0.0,4.0,50.0,,,,,,,,,,,,,,,,,,,,,,,,,,,,,,,,,,,,,,,,,,,,,,,,,,,,,,,,,,,,,,,,,,,,,,,,,,,,,,,,,,,,
80954,1645583278.788559,114.0,0.0,4134.871582,4141.538574,4171.794922,4272.820313,4189.743652,450.0,4.0,95.0,,,,0.0,4.0,2.0,4.0,0.0,4.0,50.0,,,,,,,,57.0,0.0,0.49407700000000004,-0.27270500000000003,0.586426,0.581055,0.910658,-0.39649,-0.161624,-0.03399,-0.035358999999999995,-0.03286,,,,,,,,,,,,,,,,,,,,,,,,,,,,,,,,,,,,,,,,,,,,,,,,,,,,,,,,,,,,,,,,,
80955,1645583278.796374,115.0,0.0,4149.230957,4161.025879,4181.025879,4271.794922,4185.128418,16197.0,4.0,95.0,,,,0.0,4.0,2.0,4.0,0.0,4.0,50.0,,,,,,,,,,,,,,,,,,,,,,,,,,,,,,,,,,,,,,,,,,,,,,,,,,,,,,0.0,0.0,1.0,0.0,512.0,1.0,,,,,,,,,,,,,,,,,,,,,,,,,
80956,1645583278.804188,116.0,0.0,4162.563965,4232.307617,4187.692383,4271.282227000001,4194.871582,450.0,4.0,95.0,,,,0.0,4.0,2.0,4.0,0.0,4.0,50.0,,,,,,,,58.0,0.0,0.494367,-0.27270500000000003,0.586182,0.581055,0.8955209999999999,-0.404791,-0.169924,-0.033912,-0.035289999999999995,-0.028401999999999997,,,,,,,,,,,,,,,,,,,,,,,,,,,,,,,,,,,,,,,,,,,,,,,,,,,,,,,,,,,,,,,,,
80957,1645583278.812003,117.0,0.0,4157.94873,4224.102539,4185.128418,4271.794922,4191.282227000001,450.0,4.0,95.0,,,,0.0,4.0,2.0,4.0,0.0,4.0,50.0,,,,,,,,,,,,,,,,,,,,,,,,,,,,,,,,,,,,,,,,,,,,,,,,,,,,,,,,,,,,,,,,,,,,,,,,,,,,,,,,,,,,
80958,1645583278.819818,118.0,0.0,4164.102539,4193.333496,4182.05127,4271.794922,4168.717772999999,450.0,4.0,95.0,,,,0.0,4.0,2.0,4.0,0.0,4.0,50.0,,,,,,,,59.0,0.0,0.49423199999999995,-0.272949,0.586182,0.581055,0.901869,-0.40381500000000004,-0.164553,-0.033889999999999997,-0.035276999999999996,-0.030591000000000004,,,,,,,,,,,,,,,,,,,,,,,,,,,,,,,,,,,,,,,,,,,,,,,,,,,,,,,,,,,,,,,,,
80959,1645583278.827632,119.0,0.0,4174.358886999999,4141.538574,4176.922852000001,4271.282227000001,4169.743652,16197.0,4.0,95.0,,,,0.0,4.0,2.0,4.0,0.0,4.0,50.0,,,,,,,,,,,,,,,,,,,,,,,,,,,,,,,,,,,,,,,,,,,,,,,,,,,,,,0.0,0.0,1.0,0.0,512.0,1.0,,,,,,,,,,,,,,,,,,,,,,,,,
80960,1645583278.835447,120.0,0.0,4157.94873,4143.077147999999,4177.436035,4271.282227000001,4173.333496,450.0,4.0,95.0,,,,0.0,4.0,2.0,4.0,0.0,4.0,50.0,,,,,,,,60.0,0.0,0.49423199999999995,-0.272949,0.586182,0.581055,0.9072399999999999,-0.41699899999999995,-0.167483,-0.033967000000000004,-0.035265,-0.02636,,,,,,,,,,,,,,,,,,,,,,,,,,,,,,,,,,,,,,,,,,,,,,,,,,,,,,,,,,,,,,,,,
80961,1645583278.8431618,121.0,0.0,4150.769043,4195.897461,4176.922852000001,4272.307617,4167.692383,450.0,4.0,95.0,,,,0.0,4.0,2.0,4.0,0.0,4.0,50.0,,,,,,,,,,,,,,,,,,,,,,,,,,,,,,,,,,,,,,,,,,,,,,,,,,,,,,,,,,,,,,,,,,,,,,,,,,,,,,,,,,,,
80962,1645583278.850976,122.0,0.0,4185.128418,4148.717772999999,4174.871582,4271.282227000001,4178.461426,450.0,4.0,95.0,,,,0.0,4.0,2.0,4.0,0.0,4.0,50.0,,,,,,,,61.0,0.0,0.494097,-0.27319299999999996,0.586182,0.581055,0.904799,-0.40235,-0.163088,-0.033989,-0.035254,-0.028801999999999998,,,,,,,,,,,,,,,,,,,,,,,,,,,,,,,,,,,,,,,,,,,,,,,,,,,,,,,,,,,,,,,,,
80963,1645583278.858791,123.0,0.0,4196.410156,4085.641113,4175.384765999999,4270.769043,4183.077147999999,16197.0,4.0,95.0,,,,0.0,4.0,2.0,4.0,0.0,4.0,50.0,,,,,,,,,,,,,,,,,,,,,,,,,,,,,,,,,,,,,,,,,,,,,,,,,,,,,,0.0,0.0,1.0,0.0,512.0,1.0,,,,,,,,,,,,,,,,,,,,,,,,,
80964,1645583278.866606,124.0,0.0,4174.358886999999,4161.538574,4178.461426,4274.871582,4177.436035,450.0,4.0,95.0,,,,0.0,4.0,2.0,4.0,0.0,4.0,50.0,,,,,,,,62.0,0.0,0.494097,-0.27319299999999996,0.586182,0.581055,0.895033,-0.42432299999999995,-0.169924,-0.034008,-0.035147000000000005,-0.031049,,,,,,,,,,,,,,,,,,,,,,,,,,,,,,,,,,,,,,,,,,,,,,,,,,,,,,,,,,,,,,,,,
80965,1645583278.87442,125.0,0.0,4189.230957,4242.563965,4178.974121,4275.897461,4202.05127,450.0,4.0,95.0,,,,0.0,4.0,2.0,4.0,0.0,4.0,50.0,,,,,,,,,,,,,,,,,,,,,,,,,,,,,,,,,,,,,,,,,,,,,,,,,,,,,,,,,,,,,,,,,,,,,,,,,,,,,,,,,,,,
80966,1645583278.882235,126.0,0.0,4200.512695,4193.333496,4180.0,4274.358886999999,4214.358886999999,450.0,4.0,95.0,,,,0.0,4.0,2.0,4.0,0.0,4.0,50.0,,,,,,,,63.0,0.0,0.494097,-0.27319299999999996,0.586182,0.581055,0.897475,-0.41065100000000004,-0.152834,-0.034074,-0.035099,-0.033022,,,,,,,,,,,,,,,,,,,,,,,,,,,,,,,,,,,,,,,,,,,,,,,,,,,,,,,,,,,,,,,,,
80967,1645583278.89005,127.0,0.0,4190.769043,4146.153809,4179.487305,4276.922852000001,4194.871582,243.0,4.0,95.0,,,,0.0,4.0,2.0,4.0,0.0,4.0,50.0,,,,,,,,,,,,,,,,,,,,1.0,0.0,0.0,,,,,,,,,,,,,,,,,,,,,,,,,,,,,,,,0.0,0.0,1.0,0.0,512.0,1.0,1319.712158,82.11999499999999,13.074594,4.80984,2.091847,243.472275,66.52265200000001,96.187057,42.847359000000004,26.881413000000002,7.017342,1.338071,0.493799,0.823051,0.757704,0.41251000000000004,0.116435,0.06375399999999999,0.059322,0.043781,442.00060999999994,27.471961999999998,5.043038,3.7660519999999997,1.0922
80968,1645583278.897864,0.0,0.0,4216.410156,4212.307617,4184.102539,4281.538574,4194.871582,450.0,4.0,95.0,,,,0.0,4.0,2.0,4.0,0.0,4.0,50.0,,,,,,,,0.0,0.0,0.49394499999999997,-0.272949,0.586182,0.581299,0.9282370000000001,-0.41065100000000004,-0.163088,-0.034036000000000004,-0.035006999999999996,-0.028548,,,,,,,,,,,,,,,,,,,,,,,,,,,,,,,,,,,,,,,,,,,,,,,,,,,,,,,,,,,,,,,,,
80969,1645583278.905679,1.0,0.0,4230.256348,4290.769043,4188.717772999999,4276.410156,4205.641113000001,450.0,4.0,95.0,,,,0.0,4.0,2.0,4.0,0.0,4.0,50.0,,,,,,,,,,,,,,,,,,,,,,,,,,,,,,,,,,,,,,,,,,,,,,,,,,,,,,,,,,,,,,,,,,,,,,,,,,,,,,,,,,,,
80970,1645583278.913394,2.0,0.0,4187.692383,4277.94873,4181.538574,4268.205078,4197.436035,16234.0,4.0,95.0,,,,0.0,4.0,2.0,4.0,0.0,4.0,50.0,,,,,,,,1.0,0.0,0.49394499999999997,-0.272949,0.586182,0.581299,0.9150530000000001,-0.39697899999999997,-0.15820599999999999,-0.03405,-0.035071,-0.030772000000000004,,,,,,,,,,,,,,,,,,,,,,,,,,,,,,,,,,,,,,,,,,,,,,,,,,,,,,,,,,,,,,,,,
80971,1645583278.921208,3.0,0.0,4181.025879,4212.307617,4185.128418,4268.717772999999,4191.794922,450.0,4.0,95.0,,,,0.0,4.0,2.0,4.0,0.0,4.0,50.0,,,,,,,,,,,,,,,,,,,,,,,,,,,,,,,,,,,,,,,,,,,,,,,,,,,,,,0.0,0.0,1.0,0.0,512.0,1.0,,,,,,,,,,,,,,,,,,,,,,,,,
80972,1645583278.929023,4.0,0.0,4220.512695,4189.743652,4196.410156,4272.820313,4208.205078,231.0,4.0,95.0,,,,0.0,4.0,2.0,4.0,0.0,4.0,50.0,,,,,,,,2.0,0.0,0.49394499999999997,-0.272949,0.586182,0.581299,0.913588,-0.41358100000000003,-0.154299,-0.034013999999999996,-0.035128,-0.032724,,,,,,,,,,,,,,,,,,,,,,,,,,,,,,,,,,,,,,,,,,,,,,,,,,,,,,,,,,,,,,,,,
80973,1645583278.936837,5.0,0.0,4217.436035,4288.205078,4194.358886999999,4272.820313,4203.077147999999,450.0,4.0,95.0,,,,0.0,4.0,2.0,4.0,0.0,4.0,50.0,,,,,,,,,,,,,,,,,,,,,,,,,,,,,,,,,,,,,,,,,,,,,,,,,,,,,,,,,,,,,,,,,,,,,,,,,,,,,,,,,,,,
80974,1645583278.9446518,6.0,0.0,4199.487305,4401.025879,4189.743652,4270.769043,4197.436035,16204.0,4.0,95.0,,,,0.0,4.0,2.0,4.0,0.0,4.0,50.0,,,,,,,,3.0,0.0,0.49394499999999997,-0.272949,0.586182,0.581299,0.920424,-0.40528000000000003,-0.164553,-0.033933,-0.035131,-0.034432,,,,,,,,,,,,,,,,,,,,,,,,,,,,,,,,,,,,,,,,,,,,,,,,,,,,,,,,,,,,,,,,,
80975,1645583278.952467,7.0,0.0,4224.102539,4374.871582,4198.461426,4275.384765999999,4228.717772999999,450.0,4.0,95.0,,,,0.0,4.0,2.0,4.0,0.0,4.0,50.0,,,,,,,,,,,,,,,,,,,,,,,,,,,,,,,,,,,,,,,,,,,,,,,,,,,,,,0.0,0.0,1.0,0.0,512.0,1.0,,,,,,,,,,,,,,,,,,,,,,,,,
80976,1645583278.9602811,8.0,0.0,4249.230957,4264.102539,4208.205078,4278.974121,4241.025879,450.0,4.0,95.0,,,,0.0,4.0,2.0,4.0,0.0,4.0,50.0,,,,,,,,4.0,0.0,0.49394499999999997,-0.272949,0.586182,0.581299,0.9091940000000001,-0.40528000000000003,-0.154299,-0.033812,-0.035036000000000005,-0.036067,,,,,,,,,,,,,,,,,,,,,,,,,,,,,,,,,,,,,,,,,,,,,,,,,,,,,,,,,,,,,,,,,
80977,1645583278.968096,9.0,0.0,4239.487305,4184.102539,4211.794922,4272.820313,4228.717772999999,0.0,4.0,95.0,,,,0.0,4.0,2.0,4.0,0.0,4.0,50.0,,,,,,,,,,,,,,,,,,,,,,,,,,,,,,,,,,,,,,,,,,,,,,,,,,,,,,,,,,,,,,,,,,,,,,,,,,,,,,,,,,,,
80978,1645583278.975911,10.0,0.0,4238.461426,4207.692383,4209.230957,4269.743652,4238.461426,450.0,4.0,95.0,,,,0.0,4.0,2.0,4.0,0.0,4.0,50.0,,,,,,,,5.0,0.0,0.49394499999999997,-0.272949,0.586182,0.581299,0.898451,-0.401862,-0.161135,-0.033750999999999996,-0.035048,-0.037538999999999996,,,,,,,,,,,,,,,,,,,,,,,,,,,,,,,,,,,,,,,,,,,,,,,,,,,,,,,,,,,,,,,,,
80979,1645583278.983725,11.0,0.0,4245.128418,4286.666504,4199.487305,4275.384765999999,4247.692383,16181.0,4.0,95.0,,,,0.0,4.0,2.0,4.0,0.0,4.0,50.0,,,,,,,,,,,,,,,,,,,,,,,,,,,,,,,,,,,,,,,,,,,,,,,,,,,,,,0.0,0.0,1.0,0.0,512.0,1.0,,,,,,,,,,,,,,,,,,,,,,,,,
80980,1645583278.99144,12.0,0.0,4221.538574,4313.333496,4187.179688,4278.974121,4230.769043,450.0,4.0,95.0,,,,0.0,4.0,2.0,4.0,0.0,4.0,50.0,,,,,,,,6.0,0.0,0.49365699999999996,-0.272949,0.586182,0.581543,0.913588,-0.382818,-0.164553,-0.033745,-0.03501,-0.038814,,,,,,,,,,,,,,,,,,,,,,,,,,,,,,,,,,,,,,,,,,,,,,,,,,,,,,,,,,,,,,,,,
80981,1645583278.9992552,13.0,0.0,4194.871582,4347.692383,4183.077147999999,4275.384765999999,4224.615234000001,450.0,4.0,95.0,,,,0.0,4.0,2.0,4.0,0.0,4.0,50.0,,,,,,,,,,,,,,,,,,,,,,,,,,,,,,,,,,,,,,,,,,,,,,,,,,,,,,,,,,,,,,,,,,,,,,,,,,,,,,,,,,,,
80982,1645583279.0070689,14.0,0.0,4213.846191,4418.461426,4193.333496,4276.410156,4239.487305,450.0,4.0,95.0,,,,0.0,4.0,2.0,4.0,0.0,4.0,50.0,,,,,,,,7.0,0.0,0.49365699999999996,-0.272949,0.586182,0.581543,0.9126120000000001,-0.401373,-0.151858,-0.03374,-0.035025,-0.033712,,,,,,,,,,,,,,,,,,,,,,,,,,,,,,,,,,,,,,,,,,,,,,,,,,,,,,,,,,,,,,,,,
80983,1645583279.014884,15.0,0.0,4254.871582,4484.615234000001,4202.563965,4280.0,4245.128418,16181.0,4.0,95.0,,,,0.0,4.0,2.0,4.0,0.0,4.0,50.0,,,,,,,,,,,,,,,,,,,,1.0,0.0,0.0,,,,,,,,,,,,,,,,,,,,,,,,,,,,,,,,0.0,0.0,1.0,0.0,512.0,1.0,872.55426,58.239433,10.305223,4.607557,2.049714,254.81402599999998,76.27352900000001,103.075211,45.191662,26.658329,4.818982,1.4476440000000002,0.751293,1.0093290000000001,0.8362870000000001,0.333729,0.157949,0.08429500000000001,0.07863099999999999,0.05349500000000001,289.51705899999996,20.984287,3.978946,3.3474519999999997,1.038892
80984,1645583279.022699,16.0,0.0,4253.846191,4514.871582,4201.025879,4279.487305,4232.820313,0.0,4.0,95.0,,,,0.0,4.0,2.0,4.0,0.0,4.0,50.0,,,,,,,,8.0,0.0,0.49337,-0.272949,0.586182,0.5817869999999999,0.926284,-0.401373,-0.163088,-0.033881,-0.035087,-0.03537,,,,,,,,,,,,,,,,,,,,,,,,,,,,,,,,,,,,,,,,,,,,,,,,,,,,,,,,,,,,,,,,,
80985,1645583279.030513,17.0,0.0,4217.94873,4465.128418,4192.820313,4278.974121,4216.410156,0.0,4.0,95.0,,,,0.0,4.0,2.0,4.0,0.0,4.0,50.0,,,,,,,,,,,,,,,,,,,,,,,,,,,,,,,,,,,,,,,,,,,,,,,,,,,,,,,,,,,,,,,,,,,,,,,,,,,,,,,,,,,,
80986,1645583279.038328,18.0,0.0,4217.94873,4396.922852000001,4197.94873,4280.512695,4225.641113000001,0.0,4.0,95.0,,,,0.0,4.0,2.0,4.0,0.0,4.0,50.0,,,,,,,,9.0,0.0,0.49337,-0.272949,0.586182,0.5817869999999999,0.908217,-0.40576799999999996,-0.174807,-0.033977,-0.035095,-0.038206,,,,,,,,,,,,,,,,,,,,,,,,,,,,,,,,,,,,,,,,,,,,,,,,,,,,,,,,,,,,,,,,,
80987,1645583279.046143,19.0,0.0,4265.128418,4423.077147999999,4217.94873,4279.487305,4246.153809,0.0,4.0,95.0,,,,0.0,4.0,2.0,4.0,0.0,4.0,50.0,,,,,,,,,,,,,,,,,,,,,,,,,,,,,,,,,,,,,,,,,,,,,,,,,,,,,,0.0,0.0,1.0,0.0,512.0,1.0,,,,,,,,,,,,,,,,,,,,,,,,,
80988,1645583279.053857,20.0,0.0,4283.077147999999,4443.589844,4224.615234000001,4277.94873,4245.128418,0.0,4.0,95.0,,,,0.0,4.0,2.0,4.0,0.0,4.0,50.0,,,,,,,,10.0,0.0,0.493234,-0.27319299999999996,0.586182,0.5817869999999999,0.900893,-0.397467,-0.160159,-0.034046,-0.035052999999999994,-0.039414,,,,,,,,,,,,,,,,,,,,,,,,,,,,,,,,,,,,,,,,,,,,,,,,,,,,,,,,,,,,,,,,,
80989,1645583279.061672,21.0,0.0,4256.922852000001,4346.153809,4209.743652,4276.922852000001,4251.794922,0.0,4.0,95.0,,,,0.0,4.0,2.0,4.0,0.0,4.0,50.0,,,,,,,,,,,,,,,,,,,,,,,,,,,,,,,,,,,,,,,,,,,,,,,,,,,,,,,,,,,,,,,,,,,,,,,,,,,,,,,,,,,,
80990,1645583279.0694869,22.0,0.0,4234.358886999999,4284.102539,4198.461426,4277.436035,4267.179688,0.0,4.0,95.0,,,,0.0,4.0,2.0,4.0,0.0,4.0,50.0,,,,,,,,11.0,0.0,0.493234,-0.27319299999999996,0.586182,0.5817869999999999,0.904799,-0.40381500000000004,-0.167971,-0.034011,-0.035063,-0.040454000000000004,,,,,,,,,,,,,,,,,,,,,,,,,,,,,,,,,,,,,,,,,,,,,,,,,,,,,,,,,,,,,,,,,
80991,1645583279.077301,23.0,0.0,4226.153809,4302.563965,4198.974121,4277.94873,4252.307617,0.0,4.0,95.0,,,,0.0,4.0,2.0,4.0,0.0,4.0,50.0,,,,,,,,,,,,,,,,,,,,,,,,,,,,,,,,,,,,,,,,,,,,,,,,,,,,,,0.0,0.0,1.0,0.0,512.0,1.0,,,,,,,,,,,,,,,,,,,,,,,,,
80992,1645583279.085116,24.0,0.0,4232.820313,4339.487305,4195.384765999999,4276.922852000001,4231.794922,0.0,4.0,95.0,,,,0.0,4.0,2.0,4.0,0.0,4.0,50.0,,,,,,,,12.0,0.0,0.49337,-0.272949,0.586182,0.5817869999999999,0.908217,-0.40576799999999996,-0.174807,-0.034027999999999996,-0.035024,-0.035236,,,,,,,,,,,,,,,,,,,,,,,,,,,,,,,,,,,,,,,,,,,,,,,,,,,,,,,,,,,,,,,,,
80993,1645583279.092931,25.0,0.0,4255.384765999999,4324.615234000001,4196.922852000001,4278.461426,4249.743652,0.0,4.0,95.0,,,,0.0,4.0,2.0,4.0,0.0,4.0,50.0,,,,,,,,,,,,,,,,,,,,,,,,,,,,,,,,,,,,,,,,,,,,,,,,,,,,,,,,,,,,,,,,,,,,,,,,,,,,,,,,,,,,
80994,1645583279.100745,26.0,0.0,4263.589844,4202.05127,4203.077147999999,4281.025879,4274.871582,0.0,4.0,95.0,,,,0.0,4.0,2.0,4.0,0.0,4.0,50.0,,,,,,,,13.0,0.0,0.493234,-0.27319299999999996,0.586182,0.5817869999999999,0.904799,-0.40381500000000004,-0.167971,-0.033993999999999996,-0.035037,-0.036693,,,,,,,,,,,,,,,,,,,,,,,,,,,,,,,,,,,,,,,,,,,,,,,,,,,,,,,,,,,,,,,,,
80995,1645583279.1085598,27.0,0.0,4245.128418,4185.641113000001,4199.487305,4276.922852000001,4256.922852000001,0.0,4.0,95.0,,,,0.0,4.0,2.0,4.0,0.0,4.0,50.0,,,,,,,,,,,,,,,,,,,,,,,,,,,,,,,,,,,,,,,,,,,,,,,,,,,,,,0.0,0.0,1.0,0.0,512.0,1.0,,,,,,,,,,,,,,,,,,,,,,,,,
80996,1645583279.116375,28.0,0.0,4235.897461,4316.410156,4197.436035,4274.358886999999,4223.077147999999,0.0,4.0,95.0,,,,0.0,4.0,2.0,4.0,0.0,4.0,50.0,,,,,,,,14.0,0.0,0.492946,-0.27319299999999996,0.586182,0.5820310000000001,0.9121229999999999,-0.40576799999999996,-0.14990499999999998,-0.03411,-0.034901999999999996,-0.038053,,,,,,,,,,,,,,,,,,,,,,,,,,,,,,,,,,,,,,,,,,,,,,,,,,,,,,,,,,,,,,,,,
80997,1645583279.124089,29.0,0.0,4243.589844,4336.410156,4198.461426,4277.94873,4223.077147999999,0.0,4.0,95.0,,,,0.0,4.0,2.0,4.0,0.0,4.0,50.0,,,,,,,,,,,,,,,,,,,,,,,,,,,,,,,,,,,,,,,,,,,,,,,,,,,,,,,,,,,,,,,,,,,,,,,,,,,,,,,,,,,,
80998,1645583279.131904,30.0,0.0,4244.102539,4272.307617,4190.769043,4280.0,4247.179688,0.0,4.0,95.0,,,,0.0,4.0,2.0,4.0,0.0,4.0,50.0,,,,,,,,15.0,0.0,0.492522,-0.273438,0.586182,0.582275,0.921889,-0.400397,-0.167483,-0.034069,-0.035025,-0.033125,,,,,,,,,,,,,,,,,,,,,,,,,,,,,,,,,,,,,,,,,,,,,,,,,,,,,,,,,,,,,,,,,
80999,1645583279.139719,31.0,0.0,4244.615234000001,4374.871582,4191.794922,4278.461426,4257.436035,0.0,4.0,95.0,,,,0.0,4.0,2.0,4.0,0.0,4.0,50.0,,,,,,,,,,,,,,,,,,,,1.0,0.0,0.0,,,,,,,,,,,,,,,,,,,,,,,,,,,,,,,,0.0,0.0,1.0,0.0,512.0,1.0,485.25408899999996,35.997124,7.917414999999999,4.302489,2.0797790000000003,262.23645,87.164291,104.139809,48.473484,26.122145,3.127927,1.518523,1.078474,1.1869969999999999,0.886717,0.282482,0.19935,0.104875,0.09864099999999999,0.05897,159.307816,14.533875,3.0634900000000003,2.8148720000000003,1.013841
81000,1645583279.147533,32.0,0.0,4251.794922,4530.256348,4202.05127,4278.974121,4244.102539,0.0,4.0,95.0,,,,0.0,4.0,2.0,4.0,0.0,4.0,50.0,,,,,,,,16.0,0.0,0.492658,-0.27319299999999996,0.586182,0.582275,0.903334,-0.409186,-0.157717,-0.034129,-0.035039,-0.034939,,,,,,,,,,,,,,,,,,,,,,,,,,,,,,,,,,,,,,,,,,,,,,,,,,,,,,,,,,,,,,,,,
81001,1645583279.155348,33.0,0.0,4249.743652,4451.794922,4208.205078,4281.025879,4228.205078,0.0,4.0,95.0,,,,0.0,4.0,2.0,4.0,0.0,4.0,50.0,,,,,,,,,,,,,,,,,,,,,,,,,,,,,,,,,,,,,,,,,,,,,,,,,,,,,,,,,,,,,,,,,,,,,,,,,,,,,,,,,,,,
81002,1645583279.1631632,34.0,0.0,4250.769043,4328.205078,4215.384765999999,4278.461426,4233.846191,0.0,4.0,95.0,,,,0.0,4.0,2.0,4.0,0.0,4.0,50.0,,,,,,,,17.0,0.0,0.492522,-0.273438,0.586182,0.582275,0.9150530000000001,-0.40235,-0.1626,-0.034134,-0.035002,-0.030371,,,,,,,,,,,,,,,,,,,,,,,,,,,,,,,,,,,,,,,,,,,,,,,,,,,,,,,,,,,,,,,,,
81003,1645583279.1709769,35.0,0.0,4268.205078,4404.615234000001,4213.846191,4276.410156,4250.256348,0.0,4.0,95.0,,,,0.0,4.0,2.0,4.0,0.0,4.0,50.0,,,,,,,,,,,,,,,,,,,,,,,,,,,,,,,,,,,,,,,,,,,,,,,,,,,,,,0.0,0.0,1.0,0.0,512.0,1.0,,,,,,,,,,,,,,,,,,,,,,,,,
81004,1645583279.178792,36.0,0.0,4271.282227000001,4475.384765999999,4204.615234000001,4279.487305,4253.333496,0.0,4.0,95.0,,,,0.0,4.0,2.0,4.0,0.0,4.0,50.0,,,,,,,,18.0,0.0,0.492522,-0.273438,0.586182,0.582275,0.909682,-0.40283800000000003,-0.16211199999999998,-0.034236,-0.034919,-0.032510000000000004,,,,,,,,,,,,,,,,,,,,,,,,,,,,,,,,,,,,,,,,,,,,,,,,,,,,,,,,,,,,,,,,,
81005,1645583279.1866062,37.0,0.0,4268.205078,4400.512695,4212.820313,4281.025879,4254.358886999999,0.0,4.0,95.0,,,,0.0,4.0,2.0,4.0,0.0,4.0,50.0,,,,,,,,,,,,,,,,,,,,,,,,,,,,,,,,,,,,,,,,,,,,,,,,,,,,,,,,,,,,,,,,,,,,,,,,,,,,,,,,,,,,
81006,1645583279.194421,38.0,0.0,4287.692383,4365.641113000001,4214.358886999999,4278.974121,4266.153809,0.0,4.0,95.0,,,,0.0,4.0,2.0,4.0,0.0,4.0,50.0,,,,,,,,19.0,0.0,0.49223199999999995,-0.273438,0.586426,0.582275,0.901381,-0.403326,-0.159182,-0.034230000000000003,-0.034943,-0.028038,,,,,,,,,,,,,,,,,,,,,,,,,,,,,,,,,,,,,,,,,,,,,,,,,,,,,,,,,,,,,,,,,
81007,1645583279.202136,39.0,0.0,4304.102539,4422.563965,4201.538574,4278.461426,4271.282227000001,0.0,4.0,95.0,,,,0.0,4.0,2.0,4.0,0.0,4.0,50.0,,,,,,,,,,,,,,,,,,,,,,,,,,,,,,,,,,,,,,,,,,,,,,,,,,,,,,0.0,0.0,1.0,0.0,512.0,1.0,,,,,,,,,,,,,,,,,,,,,,,,,
81008,1645583279.20995,40.0,0.0,4293.846191,4444.102539,4207.692383,4280.0,4268.205078,0.0,4.0,95.0,,,,0.0,4.0,2.0,4.0,0.0,4.0,50.0,,,,,,,,20.0,0.0,0.492367,-0.27319299999999996,0.586426,0.582275,0.906752,-0.396002,-0.144045,-0.034225,-0.034916,-0.030361000000000003,,,,,,,,,,,,,,,,,,,,,,,,,,,,,,,,,,,,,,,,,,,,,,,,,,,,,,,,,,,,,,,,,
81009,1645583279.217765,41.0,0.0,4285.641113000001,4461.025879,4217.436035,4280.0,4264.615234000001,0.0,4.0,95.0,,,,0.0,4.0,2.0,4.0,0.0,4.0,50.0,,,,,,,,,,,,,,,,,,,,,,,,,,,,,,,,,,,,,,,,,,,,,,,,,,,,,,,,,,,,,,,,,,,,,,,,,,,,,,,,,,,,
81010,1645583279.22558,42.0,0.0,4303.589844,4499.487305,4217.436035,4280.512695,4258.974121,0.0,4.0,95.0,,,,0.0,4.0,2.0,4.0,0.0,4.0,50.0,,,,,,,,21.0,0.0,0.49207799999999996,-0.27319299999999996,0.586426,0.5825199999999999,0.906752,-0.40235,-0.163088,-0.034221,-0.035037,-0.026202,,,,,,,,,,,,,,,,,,,,,,,,,,,,,,,,,,,,,,,,,,,,,,,,,,,,,,,,,,,,,,,,,
81011,1645583279.233394,43.0,0.0,4307.179688,4467.179688,4217.436035,4280.512695,4263.077147999999,0.0,4.0,95.0,,,,0.0,4.0,2.0,4.0,0.0,4.0,50.0,,,,,,,,,,,,,,,,,,,,,,,,,,,,,,,,,,,,,,,,,,,,,,,,,,,,,,0.0,0.0,1.0,0.0,512.0,1.0,,,,,,,,,,,,,,,,,,,,,,,,,
81012,1645583279.241209,44.0,0.0,4273.846191,4394.358886999999,4209.230957,4280.0,4270.256348,0.0,4.0,95.0,,,,0.0,4.0,2.0,4.0,0.0,4.0,50.0,,,,,,,,22.0,0.0,0.49207799999999996,-0.27319299999999996,0.586426,0.5825199999999999,0.900893,-0.407721,-0.15332300000000001,-0.034315,-0.035001,-0.028611,,,,,,,,,,,,,,,,,,,,,,,,,,,,,,,,,,,,,,,,,,,,,,,,,,,,,,,,,,,,,,,,,
81013,1645583279.249024,45.0,0.0,4250.769043,4397.94873,4195.897461,4280.512695,4267.692383,0.0,4.0,95.0,,,,0.0,4.0,2.0,4.0,0.0,4.0,50.0,,,,,,,,,,,,,,,,,,,,,,,,,,,,,,,,,,,,,,,,,,,,,,,,,,,,,,,,,,,,,,,,,,,,,,,,,,,,,,,,,,,,
81014,1645583279.256838,46.0,0.0,4275.384765999999,4416.922852000001,4204.615234000001,4280.512695,4272.307617,0.0,4.0,95.0,,,,0.0,4.0,2.0,4.0,0.0,4.0,50.0,,,,,,,,23.0,0.0,0.49221400000000004,-0.272949,0.586426,0.5825199999999999,0.906264,-0.410163,-0.150881,-0.034301,-0.035114,-0.030827999999999998,,,,,,,,,,,,,,,,,,,,,,,,,,,,,,,,,,,,,,,,,,,,,,,,,,,,,,,,,,,,,,,,,
81015,1645583279.264653,47.0,0.0,4309.230957,4330.769043,4223.589844,4278.974121,4280.0,0.0,4.0,95.0,,,,0.0,4.0,2.0,4.0,0.0,4.0,50.0,1.0,25.0,3.0,0.0,4.0,0.0,3.0,,,,,,,,,,,,,1.0,0.0,0.0,,,,,,,,,,,,,,,,,,,,,,,,,,,,,,,,0.0,0.0,1.0,0.0,512.0,1.0,219.601425,19.107679,6.046026,3.8778599999999996,2.164831,267.34954799999997,96.344254,97.770775,50.596581,25.297455,2.1471810000000002,1.5334290000000002,1.390781,1.295977,0.891444,0.260368,0.228615,0.121307,0.115494,0.05954500000000001,71.30184200000001,9.259074,2.451311,2.244929,1.008139
81016,1645583279.272368,48.0,0.0,4296.410156,4281.538574,4215.384765999999,4278.461426,4272.307617,0.0,4.0,95.0,,,,0.0,4.0,2.0,4.0,0.0,4.0,50.0,,,,,,,,24.0,0.0,0.49221400000000004,-0.272949,0.586426,0.5825199999999999,0.9116350000000001,-0.40576799999999996,-0.161135,-0.034191,-0.035019999999999996,-0.026525,,,,,,,,,,,,,,,,,,,,,,,,,,,,,,,,,,,,,,,,,,,,,,,,,,,,,,,,,,,,,,,,,
81017,1645583279.2801821,49.0,0.0,4268.717772999999,4335.897461,4190.769043,4279.487305,4269.230957,0.0,4.0,95.0,,,,0.0,4.0,2.0,4.0,0.0,4.0,50.0,,,,,,,,,,,,,,,,,,,,,,,,,,,,,,,,,,,,,,,,,,,,,,,,,,,,,,,,,,,,,,,,,,,,,,,,,,,,,,,,,,,,
81018,1645583279.287997,50.0,0.0,4271.282227000001,4332.307617,4188.205078,4279.487305,4282.563965,0.0,4.0,95.0,,,,0.0,4.0,2.0,4.0,0.0,4.0,50.0,,,,,,,,25.0,0.0,0.49221400000000004,-0.272949,0.586426,0.5825199999999999,0.906752,-0.408209,-0.166506,-0.034337,-0.035082999999999996,-0.028901999999999997,,,,,,,,,,,,,,,,,,,,,,,,,,,,,,,,,,,,,,,,,,,,,,,,,,,,,,,,,,,,,,,,,
81019,1645583279.295812,51.0,0.0,4272.820313,4322.05127,4211.282227000001,4280.0,4269.230957,0.0,4.0,95.0,,,,0.0,4.0,2.0,4.0,0.0,4.0,50.0,,,,,,,,,,,,,,,,,,,,,,,,,,,,,,,,,,,,,,,,,,,,,,,,,,,,,,0.0,0.0,1.0,0.0,512.0,1.0,,,,,,,,,,,,,,,,,,,,,,,,,
81020,1645583279.303626,52.0,0.0,4264.615234000001,4362.563965,4226.153809,4278.974121,4242.05127,0.0,4.0,95.0,,,,0.0,4.0,2.0,4.0,0.0,4.0,50.0,,,,,,,,26.0,0.0,0.492349,-0.27270500000000003,0.586426,0.5825199999999999,0.906264,-0.406256,-0.156252,-0.034321,-0.035042000000000004,-0.031041000000000003,,,,,,,,,,,,,,,,,,,,,,,,,,,,,,,,,,,,,,,,,,,,,,,,,,,,,,,,,,,,,,,,,
81021,1645583279.311441,53.0,0.0,4276.410156,4294.871582,4226.153809,4276.922852000001,4258.974121,0.0,4.0,95.0,,,,0.0,4.0,2.0,4.0,0.0,4.0,50.0,,,,,,,,,,,,,,,,,,,,,,,,,,,,,,,,,,,,,,,,,,,,,,,,,,,,,,,,,,,,,,,,,,,,,,,,,,,,,,,,,,,,
81022,1645583279.319256,54.0,0.0,4289.743652,4232.307617,4223.077147999999,4277.436035,4291.282227000001,0.0,4.0,95.0,,,,0.0,4.0,2.0,4.0,0.0,4.0,50.0,,,,,,,,27.0,0.0,0.49263999999999997,-0.27270500000000003,0.586182,0.5825199999999999,0.9091940000000001,-0.398444,-0.160159,-0.034258,-0.034955,-0.032966,,,,,,,,,,,,,,,,,,,,,,,,,,,,,,,,,,,,,,,,,,,,,,,,,,,,,,,,,,,,,,,,,
81023,1645583279.32707,55.0,0.0,4272.307617,4306.153809,4218.974121,4280.512695,4277.436035,0.0,4.0,95.0,,,,0.0,4.0,2.0,4.0,0.0,4.0,50.0,,,,,,,,,,,,,,,,,,,,,,,,,,,,,,,,,,,,,,,,,,,,,,,,,,,,,,0.0,0.0,1.0,0.0,512.0,1.0,,,,,,,,,,,,,,,,,,,,,,,,,
81024,1645583279.334885,56.0,0.0,4258.974121,4355.897461,4224.102539,4280.512695,4248.205078,0.0,4.0,95.0,,,,0.0,4.0,2.0,4.0,0.0,4.0,50.0,,,,,,,,28.0,0.0,0.492775,-0.272461,0.586182,0.5825199999999999,0.9087049999999999,-0.409186,-0.1626,-0.03425,-0.034976,-0.028498000000000002,,,,,,,,,,,,,,,,,,,,,,,,,,,,,,,,,,,,,,,,,,,,,,,,,,,,,,,,,,,,,,,,,
81025,1645583279.3427,57.0,0.0,4271.282227000001,4287.692383,4223.077147999999,4280.0,4252.820313,0.0,4.0,95.0,,,,0.0,4.0,2.0,4.0,0.0,4.0,50.0,,,,,,,,,,,,,,,,,,,,,,,,,,,,,,,,,,,,,,,,,,,,,,,,,,,,,,,,,,,,,,,,,,,,,,,,,,,,,,,,,,,,
81026,1645583279.350414,58.0,0.0,4283.589844,4234.358886999999,4210.256348,4280.512695,4267.179688,0.0,4.0,95.0,,,,0.0,4.0,2.0,4.0,0.0,4.0,50.0,,,,,,,,29.0,0.0,0.492775,-0.272461,0.586182,0.5825199999999999,0.917006,-0.40576799999999996,-0.174807,-0.034243,-0.034847,-0.030775,,,,,,,,,,,,,,,,,,,,,,,,,,,,,,,,,,,,,,,,,,,,,,,,,,,,,,,,,,,,,,,,,
81027,1645583279.358229,59.0,0.0,4280.512695,4300.512695,4215.384765999999,4280.0,4250.256348,0.0,4.0,95.0,,,,0.0,4.0,2.0,4.0,0.0,4.0,50.0,,,,,,,,,,,,,,,,,,,,,,,,,,,,,,,,,,,,,,,,,,,,,,,,,,,,,,0.0,0.0,1.0,0.0,512.0,1.0,,,,,,,,,,,,,,,,,,,,,,,,,
81028,1645583279.366044,60.0,0.0,4272.307617,4369.743652,4230.769043,4279.487305,4223.589844,0.0,4.0,95.0,,,,0.0,4.0,2.0,4.0,0.0,4.0,50.0,,,,,,,,30.0,0.0,0.492775,-0.272461,0.586182,0.5825199999999999,0.9091940000000001,-0.41065100000000004,-0.151858,-0.034138999999999996,-0.034878,-0.026574,,,,,,,,,,,,,,,,,,,,,,,,,,,,,,,,,,,,,,,,,,,,,,,,,,,,,,,,,,,,,,,,,
81029,1645583279.373858,61.0,0.0,4282.05127,4362.563965,4233.846191,4280.0,4223.589844,0.0,4.0,95.0,,,,0.0,4.0,2.0,4.0,0.0,4.0,50.0,,,,,,,,,,,,,,,,,,,,,,,,,,,,,,,,,,,,,,,,,,,,,,,,,,,,,,,,,,,,,,,,,,,,,,,,,,,,,,,,,,,,
81030,1645583279.381673,62.0,0.0,4302.05127,4380.0,4237.436035,4280.0,4247.179688,0.0,4.0,95.0,,,,0.0,4.0,2.0,4.0,0.0,4.0,50.0,,,,,,,,31.0,0.0,0.49291,-0.272217,0.586182,0.5825199999999999,0.9077290000000001,-0.410163,-0.171389,-0.034046,-0.034955,-0.028995,,,,,,,,,,,,,,,,,,,,,,,,,,,,,,,,,,,,,,,,,,,,,,,,,,,,,,,,,,,,,,,,,
81031,1645583279.389488,63.0,0.0,4302.563965,4403.077147999999,4240.512695,4278.974121,4258.974121,0.0,4.0,95.0,,,,0.0,4.0,2.0,4.0,0.0,4.0,50.0,,,,,,,,,,,,,,,,,,,,1.0,0.0,0.0,,,,,,,,,,,,,,,,,,,,,,,,,,,,,,,,0.0,0.0,1.0,0.0,512.0,1.0,76.60695600000001,8.607745,4.688321,3.38239,2.2900669999999996,271.47522000000004,101.458237,85.373726,49.816486,24.454351000000003,1.738227,1.491673,1.607501,1.298577,0.8456389999999999,0.252751,0.23607399999999998,0.130314,0.12501800000000002,0.056430999999999995,24.784159,5.61762,2.181913,1.737254,1.0114450000000001
81032,1645583279.397302,64.0,0.0,4304.102539,4312.820313,4234.871582,4278.461426,4249.230957,450.0,4.0,95.0,,,,0.0,4.0,2.0,4.0,0.0,4.0,50.0,,,,,,,,32.0,0.0,0.49291,-0.272217,0.586182,0.5825199999999999,0.9121229999999999,-0.401862,-0.166018,-0.034059,-0.035024,-0.024924,,,,,,,,,,,,,,,,,,,,,,,,,,,,,,,,,,,,,,,,,,,,,,,,,,,,,,,,,,,,,,,,,
81033,1645583279.405117,65.0,0.0,4303.077147999999,4312.307617,4227.179688,4278.974121,4238.461426,450.0,4.0,95.0,,,,0.0,4.0,2.0,4.0,0.0,4.0,50.0,,,,,,,,,,,,,,,,,,,,,,,,,,,,,,,,,,,,,,,,,,,,,,,,,,,,,,,,,,,,,,,,,,,,,,,,,,,,,,,,,,,,
81034,1645583279.412931,66.0,0.0,4266.666504,4445.128418,4205.128418,4278.974121,4237.94873,16249.0,4.0,95.0,,,,0.0,4.0,2.0,4.0,0.0,4.0,50.0,,,,,,,,33.0,0.0,0.49291,-0.272217,0.586182,0.5825199999999999,0.917983,-0.401862,-0.16552999999999998,-0.034218,-0.035086,-0.027510000000000003,,,,,,,,,,,,,,,,,,,,,,,,,,,,,,,,,,,,,,,,,,,,,,,,,,,,,,,,,,,,,,,,,
81035,1645583279.4206462,67.0,0.0,4247.692383,4412.820313,4185.128418,4278.461426,4247.692383,450.0,4.0,95.0,,,,0.0,4.0,2.0,4.0,0.0,4.0,50.0,,,,,,,,,,,,,,,,,,,,,,,,,,,,,,,,,,,,,,,,,,,,,,,,,,,,,,0.0,0.0,1.0,0.0,512.0,1.0,,,,,,,,,,,,,,,,,,,,,,,,,
81036,1645583279.4284608,68.0,0.0,4278.461426,4311.794922,4197.436035,4278.461426,4267.692383,278.0,4.0,95.0,,,,0.0,4.0,2.0,4.0,0.0,4.0,50.0,,,,,,,,34.0,0.0,0.49304499999999996,-0.271973,0.586182,0.5825199999999999,0.9126120000000001,-0.401862,-0.157717,-0.034116,-0.035142,-0.029837,,,,,,,,,,,,,,,,,,,,,,,,,,,,,,,,,,,,,,,,,,,,,,,,,,,,,,,,,,,,,,,,,
81037,1645583279.436276,69.0,0.0,4290.256348,4360.512695,4211.794922,4278.974121,4286.666504,450.0,4.0,95.0,,,,0.0,4.0,2.0,4.0,0.0,4.0,50.0,,,,,,,,,,,,,,,,,,,,,,,,,,,,,,,,,,,,,,,,,,,,,,,,,,,,,,,,,,,,,,,,,,,,,,,,,,,,,,,,,,,,
81038,1645583279.4440901,70.0,0.0,4282.05127,4405.128418,4214.871582,4280.0,4277.94873,16221.0,4.0,95.0,,,,0.0,4.0,2.0,4.0,0.0,4.0,50.0,,,,,,,,35.0,0.0,0.49304499999999996,-0.271973,0.586182,0.5825199999999999,0.925307,-0.392584,-0.163088,-0.034074,-0.035143,-0.031883,,,,,,,,,,,,,,,,,,,,,,,,,,,,,,,,,,,,,,,,,,,,,,,,,,,,,,,,,,,,,,,,,
81039,1645583279.451905,71.0,0.0,4310.256348,4323.589844,4225.641113000001,4280.512695,4257.436035,450.0,4.0,95.0,,,,0.0,4.0,2.0,4.0,0.0,4.0,50.0,,,,,,,,,,,,,,,,,,,,,,,,,,,,,,,,,,,,,,,,,,,,,,,,,,,,,,0.0,0.0,1.0,0.0,512.0,1.0,,,,,,,,,,,,,,,,,,,,,,,,,
81040,1645583279.459719,72.0,0.0,4328.205078,4256.410156,4227.179688,4280.0,4259.487305,450.0,4.0,95.0,,,,0.0,4.0,2.0,4.0,0.0,4.0,50.0,,,,,,,,36.0,0.0,0.493179,-0.271729,0.586182,0.5825199999999999,0.914565,-0.409674,-0.161624,-0.033987,-0.035194,-0.027474000000000002,,,,,,,,,,,,,,,,,,,,,,,,,,,,,,,,,,,,,,,,,,,,,,,,,,,,,,,,,,,,,,,,,
81041,1645583279.467534,73.0,0.0,4298.974121,4243.077147999999,4211.794922,4281.025879,4262.05127,0.0,4.0,95.0,,,,0.0,4.0,2.0,4.0,0.0,4.0,50.0,,,,,,,,,,,,,,,,,,,,,,,,,,,,,,,,,,,,,,,,,,,,,,,,,,,,,,,,,,,,,,,,,,,,,,,,,,,,,,,,,,,,
81042,1645583279.475349,74.0,0.0,4284.615234000001,4193.333496,4207.179688,4280.0,4259.487305,450.0,4.0,95.0,,,,0.0,4.0,2.0,4.0,0.0,4.0,50.0,,,,,,,,37.0,0.0,0.49317700000000003,-0.271729,0.586426,0.582275,0.8999159999999999,-0.400885,-0.161135,-0.033957,-0.035043,-0.029756,,,,,,,,,,,,,,,,,,,,,,,,,,,,,,,,,,,,,,,,,,,,,,,,,,,,,,,,,,,,,,,,,
81043,1645583279.483163,75.0,0.0,4300.0,4195.897461,4219.487305,4277.94873,4272.307617,16227.0,4.0,95.0,,,,0.0,4.0,2.0,4.0,0.0,4.0,50.0,,,,,,,,,,,,,,,,,,,,,,,,,,,,,,,,,,,,,,,,,,,,,,,,,,,,,,0.0,0.0,1.0,0.0,512.0,1.0,,,,,,,,,,,,,,,,,,,,,,,,,
81044,1645583279.4908779,76.0,0.0,4291.794922,4295.897461,4224.102539,4279.487305,4267.179688,450.0,4.0,95.0,,,,0.0,4.0,2.0,4.0,0.0,4.0,50.0,,,,,,,,38.0,0.0,0.49317700000000003,-0.271729,0.586426,0.582275,0.920424,-0.39942,-0.180179,-0.034076999999999996,-0.035006,-0.031858,,,,,,,,,,,,,,,,,,,,,,,,,,,,,,,,,,,,,,,,,,,,,,,,,,,,,,,,,,,,,,,,,
81045,1645583279.498693,77.0,0.0,4271.794922,4383.589844,4207.179688,4281.025879,4244.615234000001,450.0,4.0,95.0,,,,0.0,4.0,2.0,4.0,0.0,4.0,50.0,,,,,,,,,,,,,,,,,,,,,,,,,,,,,,,,,,,,,,,,,,,,,,,,,,,,,,,,,,,,,,,,,,,,,,,,,,,,,,,,,,,,
81046,1645583279.506507,78.0,0.0,4285.641113000001,4375.384765999999,4192.307617,4280.0,4253.333496,450.0,4.0,95.0,,,,0.0,4.0,2.0,4.0,0.0,4.0,50.0,,,,,,,,39.0,0.0,0.493465,-0.271729,0.586426,0.5820310000000001,0.925307,-0.392584,-0.158694,-0.033941000000000006,-0.034972,-0.033701999999999996,,,,,,,,,,,,,,,,,,,,,,,,,,,,,,,,,,,,,,,,,,,,,,,,,,,,,,,,,,,,,,,,,
81047,1645583279.514322,79.0,0.0,4304.615234000001,4272.820313,4202.563965,4280.0,4261.538574,16227.0,4.0,95.0,,,,0.0,4.0,2.0,4.0,0.0,4.0,50.0,,,,,,,,,,,,,,,,,,,,1.0,0.0,0.0,,,,,,,,,,,,,,,,,,,,,,,,,,,,,,,,0.0,0.0,1.0,0.0,512.0,1.0,19.336486999999998,3.637996,3.8886010000000004,2.9352,2.42658,272.315033,101.735252,70.60483599999999,45.590346999999994,23.968177999999998,1.6724700000000001,1.4177899999999999,1.6723729999999999,1.194038,0.758934,0.24284,0.21926700000000002,0.130307,0.124517,0.051875,6.916169,3.6629379999999996,2.2127779999999997,1.3678540000000001,1.0208979999999999
81048,1645583279.522137,80.0,0.0,4302.05127,4163.077147999999,4213.333496,4282.05127,4242.563965,450.0,4.0,95.0,,,,0.0,4.0,2.0,4.0,0.0,4.0,50.0,,,,,,,,40.0,0.0,0.49317700000000003,-0.271729,0.586426,0.582275,0.8999159999999999,-0.400885,-0.161135,-0.033964999999999995,-0.034991,-0.029111,,,,,,,,,,,,,,,,,,,,,,,,,,,,,,,,,,,,,,,,,,,,,,,,,,,,,,,,,,,,,,,,,
81049,1645583279.529951,81.0,0.0,4302.563965,4170.256348,4211.794922,4282.05127,4242.563965,450.0,4.0,95.0,,,,0.0,4.0,2.0,4.0,0.0,4.0,50.0,,,,,,,,,,,,,,,,,,,,,,,,,,,,,,,,,,,,,,,,,,,,,,,,,,,,,,,,,,,,,,,,,,,,,,,,,,,,,,,,,,,,
81050,1645583279.537766,82.0,0.0,4313.846191,4277.436035,4217.436035,4281.538574,4255.897461,450.0,4.0,95.0,,,,0.0,4.0,2.0,4.0,0.0,4.0,50.0,,,,,,,,41.0,0.0,0.493465,-0.271729,0.586426,0.5820310000000001,0.925307,-0.392584,-0.158694,-0.033839999999999995,-0.034957999999999996,-0.031229000000000003,,,,,,,,,,,,,,,,,,,,,,,,,,,,,,,,,,,,,,,,,,,,,,,,,,,,,,,,,,,,,,,,,
81051,1645583279.545581,83.0,0.0,4311.282227000001,4340.0,4216.410156,4281.538574,4246.666504,16227.0,4.0,95.0,,,,0.0,4.0,2.0,4.0,0.0,4.0,50.0,,,,,,,,,,,,,,,,,,,,,,,,,,,,,,,,,,,,,,,,,,,,,,,,,,,,,,0.0,0.0,1.0,0.0,512.0,1.0,,,,,,,,,,,,,,,,,,,,,,,,,
81052,1645583279.553395,84.0,0.0,4289.230957,4302.563965,4205.641113000001,4281.538574,4242.563965,450.0,4.0,95.0,,,,0.0,4.0,2.0,4.0,0.0,4.0,50.0,,,,,,,,42.0,0.0,0.493465,-0.271729,0.586426,0.5820310000000001,0.9160299999999999,-0.39453699999999997,-0.15332300000000001,-0.033874,-0.034977999999999995,-0.026886,,,,,,,,,,,,,,,,,,,,,,,,,,,,,,,,,,,,,,,,,,,,,,,,,,,,,,,,,,,,,,,,,
81053,1645583279.56111,85.0,0.0,4289.230957,4258.974121,4209.230957,4281.538574,4253.333496,450.0,4.0,95.0,,,,0.0,4.0,2.0,4.0,0.0,4.0,50.0,,,,,,,,,,,,,,,,,,,,,,,,,,,,,,,,,,,,,,,,,,,,,,,,,,,,,,,,,,,,,,,,,,,,,,,,,,,,,,,,,,,,
81054,1645583279.568925,86.0,0.0,4309.743652,4291.282227000001,4213.846191,4281.538574,4258.461426,450.0,4.0,95.0,,,,0.0,4.0,2.0,4.0,0.0,4.0,50.0,,,,,,,,43.0,0.0,0.493465,-0.271729,0.586426,0.5820310000000001,0.9111469999999999,-0.39453699999999997,-0.166018,-0.033807,-0.034947000000000006,-0.023025,,,,,,,,,,,,,,,,,,,,,,,,,,,,,,,,,,,,,,,,,,,,,,,,,,,,,,,,,,,,,,,,,
81055,1645583279.576739,87.0,0.0,4289.230957,4327.692383,4208.205078,4281.538574,4255.384765999999,16227.0,4.0,95.0,,,,0.0,4.0,2.0,4.0,0.0,4.0,50.0,,,,,,,,,,,,,,,,,,,,,,,,,,,,,,,,,,,,,,,,,,,,,,,,,,,,,,0.0,0.0,1.0,0.0,512.0,1.0,,,,,,,,,,,,,,,,,,,,,,,,,
81056,1645583279.584554,88.0,0.0,4251.794922,4306.153809,4199.487305,4281.538574,4254.358886999999,450.0,4.0,95.0,,,,0.0,4.0,2.0,4.0,0.0,4.0,50.0,,,,,,,,44.0,0.0,0.493021,-0.271484,0.58667,0.582275,0.894057,-0.400397,-0.159182,-0.033796,-0.034968,-0.025751999999999997,,,,,,,,,,,,,,,,,,,,,,,,,,,,,,,,,,,,,,,,,,,,,,,,,,,,,,,,,,,,,,,,,
81057,1645583279.5923688,89.0,0.0,4270.256348,4334.358886999999,4198.974121,4282.05127,4253.333496,450.0,4.0,95.0,,,,0.0,4.0,2.0,4.0,0.0,4.0,50.0,,,,,,,,,,,,,,,,,,,,,,,,,,,,,,,,,,,,,,,,,,,,,,,,,,,,,,,,,,,,,,,,,,,,,,,,,,,,,,,,,,,,
