,Timestamp,OriginalTimestamp,EEG.Counter,EEG.Interpolated,EEG.AF3,EEG.T7,EEG.Pz,EEG.T8,EEG.AF4,EEG.RawCq,EEG.Battery,EEG.BatteryPercent,MarkerIndex,MarkerType,MarkerValueInt,EEG.MarkerHardware,CQ.AF3,CQ.T7,CQ.Pz,CQ.T8,CQ.AF4,CQ.Overall,EQ.SampleRateQuality,EQ.OVERALL,EQ.AF3,EQ.T7,EQ.Pz,EQ.T8,EQ.AF4,MOT.CounterMems,MOT.InterpolatedMems,MOT.Q0,MOT.Q1,MOT.Q2,MOT.Q3,MOT.AccX,MOT.AccY,MOT.AccZ,MOT.MagX,MOT.MagY,MOT.MagZ,MC.Action,MC.ActionPower,MC.IsActive,PM.Engagement.IsActive,PM.Engagement.Scaled,PM.Engagement.Raw,PM.Engagement.Min,PM.Engagement.Max,PM.Excitement.IsActive,PM.Excitement.Scaled,PM.Excitement.Raw,PM.Excitement.Min,PM.Excitement.Max,PM.LongTermExcitement,PM.Stress.IsActive,PM.Stress.Scaled,PM.Stress.Raw,PM.Stress.Min,PM.Stress.Max,PM.Relaxation.IsActive,PM.Relaxation.Scaled,PM.Relaxation.Raw,PM.Relaxation.Min,PM.Relaxation.Max,PM.Interest.IsActive,PM.Interest.Scaled,PM.Interest.Raw,PM.Interest.Min,PM.Interest.Max,PM.Focus.IsActive,PM.Focus.Scaled,PM.Focus.Raw,PM.Focus.Min,PM.Focus.Max,FE.BlinkWink,FE.HorizontalEyesDirection,FE.UpperFaceAction,FE.UpperFaceActionPower,FE.LowerFaceAction,FE.LowerFaceActionPower,POW.AF3.Theta,POW.AF3.Alpha,POW.AF3.BetaL,POW.AF3.BetaH,POW.AF3.Gamma,POW.T7.Theta,POW.T7.Alpha,POW.T7.BetaL,POW.T7.BetaH,POW.T7.Gamma,POW.Pz.Theta,POW.Pz.Alpha,POW.Pz.BetaL,POW.Pz.BetaH,POW.Pz.Gamma,POW.T8.Theta,POW.T8.Alpha,POW.T8.BetaL,POW.T8.BetaH,POW.T8.Gamma,POW.AF4.Theta,POW.AF4.Alpha,POW.AF4.BetaL,POW.AF4.BetaH,POW.AF4.Gamma
33912,1645901617.801672,1645901617.847509,44.0,0.0,4334.358886999999,4313.846191,4276.922852000001,4124.102539,4285.641113000001,0.0,1.0,15.0,48.0,1.0,3.0,0.0,4.0,0.0,1.0,4.0,4.0,41.666668,,,,,,,,22.0,0.0,0.7250949999999999,0.127441,0.657471,0.1604,0.926284,-0.404791,-0.093263,-0.031729,-0.03329,-0.011408,,,,,,,,,,,,,,,,,,,,,,,,,,,,,,,,,,,,,,,,,,,,,,,,,,,,,,,,,,,,,,,,,
33913,1645901617.809486,1645901617.855323,45.0,0.0,4331.282227000001,4413.846191,4238.974121,4129.230957,4278.461426,0.0,1.0,15.0,,,,0.0,4.0,0.0,1.0,4.0,4.0,41.666668,,,,,,,,,,,,,,,,,,,,,,,,,,,,,,,,,,,,,,,,,,,,,,,,,,,,,,,,,,,,,,,,,,,,,,,,,,,,,,,,,,,,
33914,1645901617.8173,1645901617.8631382,46.0,0.0,4315.384765999999,4492.820313,4222.563965,4140.512695,4282.05127,0.0,1.0,15.0,,,,0.0,4.0,0.0,1.0,4.0,4.0,41.666668,,,,,,,,23.0,0.0,0.725273,0.127686,0.657227,0.1604,0.910658,-0.395514,-0.111818,-0.031925,-0.033379,-0.009486,,,,,,,,,,,,,,,,,,,,,,,,,,,,,,,,,,,0.0,0.0,1.0,0.0,512.0,1.0,,,,,,,,,,,,,,,,,,,,,,,,,
33915,1645901617.825114,1645901617.8709528,47.0,0.0,4303.077147999999,4368.205078,4257.436035,4152.820313,4281.538574,0.0,1.0,15.0,,,,0.0,4.0,0.0,1.0,4.0,4.0,41.666668,,,,,,,,,,,,,,,,,,,,,,,,,,,,,,,,,,,,,,,,,,,,,,,,,,,,,,,,,,,,,,,,,,,,,,,,,,,,,,,,,,,,
33916,1645901617.832927,1645901617.878767,48.0,0.0,4298.974121,4316.922852000001,4253.846191,4148.717772999999,4286.153809,0.0,1.0,15.0,,,,0.0,4.0,0.0,1.0,4.0,4.0,41.666668,,,,,,,,24.0,0.0,0.725273,0.127686,0.657227,0.1604,0.913588,-0.40381500000000004,-0.098634,-0.031955000000000004,-0.033411,-0.0078049999999999994,,,,,,,,,,,,,,,,,,,,,,,,,,,,,,,,,,,,,,,,,,,,,,,,,,,,,,,,,,,,,,,,,
33917,1645901617.840741,1645901617.8865821,49.0,0.0,4298.974121,4411.794922,4255.897461,4142.563965,4279.487305,0.0,1.0,15.0,,,,0.0,4.0,0.0,1.0,4.0,4.0,41.666668,,,,,,,,,,,,,,,,,,,,,,,,,,,,,,,,,,,,,,,,,,,,,,,,,,,,,,,,,,,,,,,,,,,,,,,,,,,,,,,,,,,,
33918,1645901617.848555,1645901617.8944962,50.0,0.0,4313.846191,4405.128418,4241.025879,4148.205078,4282.563965,0.0,1.0,15.0,,,,0.0,4.0,0.0,1.0,4.0,4.0,41.666668,,,,,,,,25.0,0.0,0.725327,0.127686,0.657227,0.160156,0.9277489999999999,-0.397955,-0.11523599999999999,-0.031934,-0.033438999999999997,-0.009417,,,,,,,,,,,,,,,,,,,,,,,,,,,,,,,,,,,0.0,0.0,1.0,0.0,512.0,1.0,,,,,,,,,,,,,,,,,,,,,,,,,
33919,1645901617.856368,1645901617.9023108,51.0,0.0,4302.05127,4354.358886999999,4247.179688,4154.358886999999,4283.077147999999,0.0,1.0,15.0,,,,0.0,4.0,0.0,1.0,4.0,4.0,41.666668,,,,,,,,,,,,,,,,,,,,,,,,,,,,,,,,,,,,,,,,,,,,,,,,,,,,,,,,,,,,,,,,,,,,,,,,,,,,,,,,,,,,
33920,1645901617.864182,1645901617.910126,52.0,0.0,4314.358886999999,4397.436035,4203.589844,4146.666504,4283.077147999999,0.0,1.0,15.0,,,,0.0,4.0,0.0,1.0,4.0,4.0,41.666668,,,,,,,,26.0,0.0,0.7255050000000001,0.12793,0.656982,0.160156,0.922377,-0.392096,-0.1084,-0.032061,-0.033464,-0.011015,,,,,,,,,,,,,,,,,,,,,,,,,,,,,,,,,,,,,,,,,,,,,,,,,,,,,,,,,,,,,,,,,
33921,1645901617.8719962,1645901617.9179401,53.0,0.0,4335.384765999999,4397.94873,4175.384765999999,4118.974121,4289.743652,0.0,1.0,15.0,,,,0.0,4.0,0.0,1.0,4.0,4.0,41.666668,,,,,,,,,,,,,,,,,,,,,,,,,,,,,,,,,,,,,,,,,,,,,,,,,,,,,,,,,,,,,,,,,,,,,,,,,,,,,,,,,,,,
33922,1645901617.8798099,1645901617.925755,54.0,0.0,4347.179688,4358.974121,4178.974121,4118.461426,4304.615234000001,0.0,1.0,15.0,,,,0.0,4.0,0.0,1.0,4.0,4.0,41.666668,,,,,,,,27.0,0.0,0.7255050000000001,0.12793,0.656982,0.160156,0.9209129999999999,-0.392584,-0.11230599999999999,-0.032077,-0.033536,-0.00923,1.0,0.0,0.0,,,,,,,,,,,,,,,,,,,,,,,,,,,,,,,,0.0,0.0,1.0,0.0,512.0,0.819852,9.916296,6.4853,1.749064,1.246341,1.03047,31.164539,35.054089000000005,32.019329,44.239521,17.203979,33.304184,39.807846000000005,8.789131,7.022639,5.326989,2.87776,5.050873,11.423539,1.7466400000000002,1.437352,5.565104,5.399066,4.250822,1.994793,1.561839
33923,1645901617.887623,1645901617.93357,55.0,0.0,4335.897461,4397.436035,4202.563965,4125.128418,4292.307617,0.0,1.0,15.0,,,,0.0,4.0,0.0,1.0,4.0,4.0,41.666668,,,,,,,,,,,,,,,,,,,,,,,,,,,,,,,,,,,,,,,,,,,,,,,,,,,,,,,,,,,,,,,,,,,,,,,,,,,,,,,,,,,,
33924,1645901617.895437,1645901617.941384,56.0,0.0,4333.333496,4451.794922,4223.589844,4146.666504,4276.410156,0.0,1.0,15.0,,,,0.0,4.0,0.0,1.0,4.0,4.0,41.666668,,,,,,,,28.0,0.0,0.7255590000000001,0.12793,0.656982,0.159912,0.931167,-0.392584,-0.11523599999999999,-0.032043,-0.033551,-0.01065,,,,,,,,,,,,,,,,,,,,,,,,,,,,,,,,,,,,,,,,,,,,,,,,,,,,,,,,,,,,,,,,,
33925,1645901617.903251,1645901617.949199,57.0,0.0,4334.871582,4458.461426,4221.025879,4146.666504,4275.897461,0.0,1.0,15.0,,,,0.0,4.0,0.0,1.0,4.0,4.0,41.666668,,,,,,,,,,,,,,,,,,,,,,,,,,,,,,,,,,,,,,,,,,,,,,,,,,,,,,,,,,,,,,,,,,,,,,,,,,,,,,,,,,,,
33926,1645901617.911065,1645901617.957014,58.0,0.0,4323.077147999999,4418.461426,4246.666504,4142.563965,4294.871582,0.0,1.0,15.0,,,,0.0,4.0,0.0,1.0,4.0,4.0,41.666668,,,,,,,,29.0,0.0,0.7255590000000001,0.12793,0.656982,0.159912,0.917006,-0.40235,-0.11035299999999999,-0.032111,-0.033565,-0.008804000000000001,,,,,,,,,,,,,,,,,,,,,,,,,,,,,,,,,,,0.0,0.0,1.0,0.0,512.0,0.819852,,,,,,,,,,,,,,,,,,,,,,,,,
33927,1645901617.9188778,1645901617.964828,59.0,0.0,4309.743652,4369.230957,4239.487305,4140.512695,4299.487305,0.0,1.0,15.0,,,,0.0,4.0,0.0,1.0,4.0,4.0,41.666668,,,,,,,,,,,,,,,,,,,,,,,,,,,,,,,,,,,,,,,,,,,,,,,,,,,,,,,,,,,,,,,,,,,,,,,,,,,,,,,,,,,,
33928,1645901617.926692,1645901617.972743,60.0,0.0,4326.153809,4429.230957,4257.94873,4118.461426,4281.025879,0.0,1.0,15.0,,,,0.0,4.0,1.0,1.0,4.0,4.0,50.0,,,,,,,,30.0,0.0,0.7255590000000001,0.12793,0.656982,0.159912,0.920424,-0.400885,-0.10254100000000001,-0.032122000000000005,-0.033578,-0.010316,,,,,,,,,,,,,,,,,,,,,,,,,,,,,,,,,,,,,,,,,,,,,,,,,,,,,,,,,,,,,,,,,
33929,1645901617.934506,1645901617.980557,61.0,0.0,4351.794922,4480.0,4267.692383,4100.512695,4274.871582,0.0,1.0,15.0,,,,0.0,4.0,1.0,1.0,4.0,4.0,50.0,,,,,,,,,,,,,,,,,,,,,,,,,,,,,,,,,,,,,,,,,,,,,,,,,,,,,,,,,,,,,,,,,,,,,,,,,,,,,,,,,,,,
33930,1645901617.9423199,1645901617.988372,62.0,0.0,4333.846191,4422.563965,4265.641113000001,4128.717772999999,4286.153809,0.0,1.0,15.0,,,,0.0,4.0,1.0,1.0,4.0,4.0,50.0,,,,,,,,31.0,0.0,0.7255590000000001,0.12793,0.656982,0.159912,0.925307,-0.391608,-0.105959,-0.032035,-0.033394,-0.011628,,,,,,,,,,,,,,,,,,,,,,,,,,,,,,,,,,,0.0,0.0,1.0,0.0,512.0,0.819852,,,,,,,,,,,,,,,,,,,,,,,,,
33931,1645901617.950133,1645901617.996187,63.0,0.0,4318.974121,4401.025879,4251.282227000001,4151.794922,4278.461426,0.0,1.0,15.0,,,,0.0,4.0,1.0,1.0,4.0,4.0,50.0,,,,,,,,,,,,,,,,,,,,,,,,,,,,,,,,,,,,,,,,,,,,,,,,,,,,,,,,,,,,,,,,,,,,,,,,,,,,,,,,,,,,
33932,1645901617.957947,1645901618.004001,64.0,0.0,4324.615234000001,4406.153809,4294.358886999999,4133.333496,4272.307617,450.0,1.0,15.0,,,,0.0,4.0,1.0,1.0,4.0,4.0,50.0,,,,,,,,32.0,0.0,0.7255590000000001,0.12793,0.656982,0.159912,0.9072399999999999,-0.38526,-0.104005,-0.032054,-0.033375,-0.012907,,,,,,,,,,,,,,,,,,,,,,,,,,,,,,,,,,,,,,,,,,,,,,,,,,,,,,,,,,,,,,,,,
33933,1645901617.965761,1645901618.011816,65.0,0.0,4332.307617,4355.897461,4251.794922,4146.153809,4304.102539,450.0,1.0,15.0,,,,0.0,4.0,1.0,1.0,4.0,4.0,50.0,,,,,,,,,,,,,,,,,,,,,,,,,,,,,,,,,,,,,,,,,,,,,,,,,,,,,,,,,,,,,,,,,,,,,,,,,,,,,,,,,,,,
33934,1645901617.973575,1645901618.0196311,66.0,0.0,4314.871582,4343.589844,4220.0,4153.333496,4311.282227000001,16088.0,1.0,15.0,,,,0.0,4.0,1.0,1.0,4.0,4.0,50.0,,,,,,,,33.0,0.0,0.7255590000000001,0.12793,0.656982,0.159912,0.9131,-0.392584,-0.114748,-0.032169,-0.033407,-0.010933,,,,,,,,,,,,,,,,,,,,,,,,,,,,,,,,,,,0.0,0.0,1.0,0.0,512.0,0.819852,,,,,,,,,,,,,,,,,,,,,,,,,
33935,1645901617.981388,1645901618.0274448,67.0,0.0,4321.538574,4327.692383,4199.487305,4121.025879,4291.282227000001,450.0,1.0,15.0,,,,0.0,4.0,1.0,1.0,4.0,4.0,50.0,,,,,,,,,,,,,,,,,,,,,,,,,,,,,,,,,,,,,,,,,,,,,,,,,,,,,,,,,,,,,,,,,,,,,,,,,,,,,,,,,,,,
33936,1645901617.989202,1645901618.03526,68.0,0.0,4342.563965,4278.461426,4156.410156,4094.8718259999996,4284.615234000001,75.0,1.0,15.0,,,,0.0,4.0,1.0,1.0,4.0,4.0,50.0,,,,,,,,34.0,0.0,0.7256020000000001,0.127686,0.656982,0.159912,0.913588,-0.393561,-0.101564,-0.032077,-0.033386,-0.012232,,,,,,,,,,,,,,,,,,,,,,,,,,,,,,,,,,,,,,,,,,,,,,,,,,,,,,,,,,,,,,,,,
33937,1645901617.997016,1645901618.043175,69.0,0.0,4344.102539,4295.897461,4161.538574,4122.05127,4299.487305,450.0,1.0,15.0,,,,0.0,4.0,1.0,4.0,4.0,4.0,75.0,,,,,,,,,,,,,,,,,,,,,,,,,,,,,,,,,,,,,,,,,,,,,,,,,,,,,,,,,,,,,,,,,,,,,,,,,,,,,,,,,,,,
33938,1645901618.0048301,1645901618.0509892,70.0,0.0,4326.153809,4300.512695,4204.615234000001,4133.333496,4285.641113000001,16129.0,1.0,15.0,,,,0.0,4.0,1.0,4.0,4.0,4.0,75.0,,,,,,,,35.0,0.0,0.7256020000000001,0.127686,0.656982,0.159912,0.931167,-0.401862,-0.10888800000000001,-0.032043,-0.033368,-0.013548,1.0,0.0,0.0,,,,,,,,,,,,,,,,,,,,,,,,,,,,,,,,0.0,0.0,1.0,0.0,512.0,0.930298,11.174349000000001,8.198072999999999,2.483145,1.22556,0.9570879999999999,25.527248,38.000023,25.453476000000002,45.948387,17.421192,34.422356,41.629021,8.872005999999999,7.257761,4.955808,2.539561,5.133155,11.52515,1.836943,1.4557579999999999,6.288671,5.534598,3.94504,1.8192130000000002,1.390131
33939,1645901618.0126429,1645901618.0588038,71.0,0.0,4328.717772999999,4269.743652,4183.077147999999,4145.641113000001,4283.077147999999,450.0,1.0,15.0,,,,0.0,4.0,1.0,4.0,4.0,4.0,75.0,,,,,,,,,,,,,,,,,,,,,,,,,,,,,,,,,,,,,,,,,,,,,,,,,,,,,,,,,,,,,,,,,,,,,,,,,,,,,,,,,,,,
33940,1645901618.020457,1645901618.066618,72.0,0.0,4336.922852000001,4297.94873,4172.307617,4172.820313,4275.897461,450.0,1.0,15.0,,,,0.0,4.0,1.0,4.0,4.0,4.0,75.0,,,,,,,,36.0,0.0,0.725823,0.127686,0.656738,0.159912,0.9150530000000001,-0.397467,-0.103029,-0.031964,-0.033303,-0.01151,,,,,,,,,,,,,,,,,,,,,,,,,,,,,,,,,,,,,,,,,,,,,,,,,,,,,,,,,,,,,,,,,
33941,1645901618.0282712,1645901618.074433,73.0,0.0,4341.538574,4320.512695,4234.358886999999,4178.461426,4258.974121,16165.0,1.0,15.0,,,,0.0,4.0,1.0,4.0,4.0,4.0,75.0,,,,,,,,,,,,,,,,,,,,,,,,,,,,,,,,,,,,,,,,,,,,,,,,,,,,,,,,,,,,,,,,,,,,,,,,,,,,,,,,,,,,
33942,1645901618.036084,1645901618.082248,74.0,0.0,4330.769043,4279.487305,4186.666504,4151.282227000001,4254.358886999999,450.0,1.0,15.0,,,,0.0,4.0,1.0,4.0,4.0,4.0,75.0,,,,,,,,37.0,0.0,0.72578,0.12793,0.656738,0.159912,0.922866,-0.396002,-0.11084200000000001,-0.028817000000000002,-0.033293,-0.0128,,,,,,,,,,,,,,,,,,,,,,,,,,,,,,,,,,,0.0,0.0,1.0,0.0,512.0,0.930298,,,,,,,,,,,,,,,,,,,,,,,,,
33943,1645901618.043898,1645901618.090062,75.0,0.0,4315.384765999999,4356.410156,4192.307617,4164.102539,4257.436035,16116.0,1.0,15.0,,,,0.0,4.0,1.0,4.0,4.0,4.0,75.0,,,,,,,,,,,,,,,,,,,,,,,,,,,,,,,,,,,,,,,,,,,,,,,,,,,,,,,,,,,,,,,,,,,,,,,,,,,,,,,,,,,,
33944,1645901618.0517118,1645901618.097877,76.0,0.0,4322.05127,4424.102539,4240.0,4187.692383,4251.794922,450.0,1.0,15.0,,,,0.0,4.0,1.0,4.0,4.0,4.0,75.0,,,,,,,,38.0,0.0,0.726055,0.12793,0.6564939999999999,0.159668,0.898451,-0.39502600000000004,-0.11767799999999999,-0.029304000000000004,-0.033283999999999994,-0.01401,,,,,,,,,,,,,,,,,,,,,,,,,,,,,,,,,,,,,,,,,,,,,,,,,,,,,,,,,,,,,,,,,
33945,1645901618.059526,1645901618.105692,77.0,0.0,4329.743652,4298.974121,4232.307617,4160.0,4273.846191,450.0,1.0,15.0,,,,0.0,4.0,1.0,4.0,4.0,4.0,75.0,,,,,,,,,,,,,,,,,,,,,,,,,,,,,,,,,,,,,,,,,,,,,,,,,,,,,,,,,,,,,,,,,,,,,,,,,,,,,,,,,,,,
33946,1645901618.067339,1645901618.113506,78.0,0.0,4312.820313,4216.922852000001,4234.871582,4145.128418,4286.666504,450.0,1.0,15.0,,,,0.0,4.0,1.0,4.0,4.0,4.0,75.0,,,,,,,,39.0,0.0,0.725834,0.12793,0.656738,0.159668,0.932631,-0.39453699999999997,-0.125002,-0.029595999999999997,-0.033276,-0.015002000000000001,,,,,,,,,,,,,,,,,,,,,,,,,,,,,,,,,,,0.0,0.0,1.0,0.0,512.0,0.930298,,,,,,,,,,,,,,,,,,,,,,,,,
33947,1645901618.0751529,1645901618.121421,79.0,0.0,4301.025879,4285.128418,4275.897461,4135.897461,4270.256348,16116.0,1.0,15.0,,,,0.0,4.0,1.0,4.0,4.0,4.0,75.0,,,,,,,,,,,,,,,,,,,,,,,,,,,,,,,,,,,,,,,,,,,,,,,,,,,,,,,,,,,,,,,,,,,,,,,,,,,,,,,,,,,,
33948,1645901618.082967,1645901618.129236,80.0,0.0,4297.436035,4285.641113000001,4221.025879,4132.307617,4276.410156,450.0,1.0,15.0,,,,0.0,4.0,1.0,4.0,4.0,4.0,75.0,,,,,,,,40.0,0.0,0.726012,0.128174,0.6564939999999999,0.159668,0.9350729999999999,-0.406744,-0.10693499999999999,-0.029858999999999997,-0.033318,-0.01272,,,,,,,,,,,,,,,,,,,,,,,,,,,,,,,,,,,,,,,,,,,,,,,,,,,,,,,,,,,,,,,,,
33949,1645901618.090781,1645901618.13705,81.0,0.0,4293.333496,4202.05127,4206.666504,4158.461426,4269.743652,450.0,1.0,15.0,,,,0.0,4.0,1.0,4.0,4.0,4.0,75.0,,,,,,,,,,,,,,,,,,,,,,,,,,,,,,,,,,,,,,,,,,,,,,,,,,,,,,,,,,,,,,,,,,,,,,,,,,,,,,,,,,,,
33950,1645901618.098594,1645901618.144865,82.0,0.0,4298.974121,4254.871582,4242.563965,4173.333496,4268.717772999999,450.0,1.0,15.0,,,,0.0,4.0,1.0,4.0,4.0,4.0,75.0,,,,,,,,41.0,0.0,0.725969,0.128418,0.6564939999999999,0.159668,0.9267719999999999,-0.390631,-0.099123,-0.030095999999999998,-0.033306,-0.013841,,,,,,,,,,,,,,,,,,,,,,,,,,,,,,,,,,,0.0,0.0,1.0,0.0,512.0,0.930298,,,,,,,,,,,,,,,,,,,,,,,,,
33951,1645901618.106408,1645901618.152679,83.0,0.0,4287.692383,4388.205078,4221.538574,4168.205078,4249.743652,16116.0,1.0,15.0,,,,0.0,4.0,1.0,4.0,4.0,4.0,75.0,,,,,,,,,,,,,,,,,,,,,,,,,,,,,,,,,,,,,,,,,,,,,,,,,,,,,,,,,,,,,,,,,,,,,,,,,,,,,,,,,,,,
33952,1645901618.114222,1645901618.1604939,84.0,0.0,4295.384765999999,4401.538574,4180.0,4157.94873,4248.205078,450.0,1.0,15.0,,,,0.0,4.0,1.0,4.0,4.0,4.0,75.0,,,,,,,,42.0,0.0,0.725969,0.128418,0.6564939999999999,0.159668,0.914076,-0.406744,-0.10693499999999999,-0.030309,-0.033296,-0.01485,,,,,,,,,,,,,,,,,,,,,,,,,,,,,,,,,,,,,,,,,,,,,,,,,,,,,,,,,,,,,,,,,
33953,1645901618.122035,1645901618.168309,85.0,0.0,4302.563965,4356.410156,4239.487305,4151.282227000001,4276.922852000001,450.0,1.0,15.0,,,,0.0,4.0,1.0,4.0,4.0,4.0,75.0,,,,,,,,,,,,,,,,,,,,,,,,,,,,,,,,,,,,,,,,,,,,,,,,,,,,,,,,,,,,,,,,,,,,,,,,,,,,,,,,,,,,
33954,1645901618.129849,1645901618.1761231,86.0,0.0,4332.820313,4395.897461,4253.846191,4158.461426,4311.794922,450.0,1.0,15.0,,,,0.0,4.0,1.0,4.0,4.0,4.0,75.0,1.0,16.666666,2.0,0.0,0.0,3.0,2.0,43.0,0.0,0.725969,0.128418,0.6564939999999999,0.159668,0.913588,-0.40576799999999996,-0.11035299999999999,-0.027326999999999997,-0.033287,-0.015806,1.0,0.0,0.0,,,,,,,,,,,,,,,,,,,,,,,,,,,,,,,,0.0,0.0,1.0,0.0,512.0,0.9234129999999999,11.867556,9.709779,3.5731550000000003,1.153931,0.932174,21.09861,40.363419,19.657207,45.197731,18.361385000000002,36.067368,44.663445,8.670896,7.047403999999999,4.820036,2.646773,6.1873059999999995,12.5633,1.943357,1.5277,6.683364,5.776547,3.6314940000000004,1.621864,1.22157
33955,1645901618.1376631,1645901618.183938,87.0,0.0,4340.0,4436.410156,4222.563965,4146.666504,4301.538574,16116.0,1.0,15.0,,,,0.0,4.0,1.0,4.0,4.0,4.0,75.0,,,,,,,,,,,,,,,,,,,,,,,,,,,,,,,,,,,,,,,,,,,,,,,,,,,,,,,,,,,,,,,,,,,,,,,,,,,,,,,,,,,,
33956,1645901618.145477,1645901618.191853,88.0,0.0,4330.769043,4386.666504,4223.077147999999,4147.179688,4282.05127,450.0,1.0,15.0,,,,0.0,4.0,1.0,4.0,4.0,4.0,75.0,,,,,,,,44.0,0.0,0.7258720000000001,0.128662,0.6564939999999999,0.159912,0.923842,-0.404791,-0.10351700000000001,-0.027817,-0.033277999999999995,-0.013493000000000002,,,,,,,,,,,,,,,,,,,,,,,,,,,,,,,,,,,,,,,,,,,,,,,,,,,,,,,,,,,,,,,,,
33957,1645901618.15329,1645901618.199667,89.0,0.0,4336.922852000001,4338.461426,4229.743652,4160.0,4286.153809,450.0,1.0,15.0,,,,0.0,4.0,1.0,4.0,4.0,4.0,75.0,,,,,,,,,,,,,,,,,,,,,,,,,,,,,,,,,,,,,,,,,,,,,,,,,,,,,,,,,,,,,,,,,,,,,,,,,,,,,,,,,,,,
33958,1645901618.161104,1645901618.207482,90.0,0.0,4352.307617,4326.666504,4242.563965,4171.794922,4288.205078,450.0,1.0,15.0,,,,0.0,4.0,1.0,4.0,4.0,4.0,75.0,,,,,,,,45.0,0.0,0.725969,0.128418,0.6564939999999999,0.159668,0.914076,-0.406744,-0.10693499999999999,-0.028258,-0.033173,-0.01146,,,,,,,,,,,,,,,,,,,,,,,,,,,,,,,,,,,0.0,0.0,1.0,0.0,512.0,0.9234129999999999,,,,,,,,,,,,,,,,,,,,,,,,,
33959,1645901618.168918,1645901618.215297,91.0,0.0,4338.461426,4294.358886999999,4270.769043,4162.563965,4274.871582,16116.0,1.0,15.0,,,,0.0,4.0,1.0,4.0,4.0,4.0,75.0,,,,,,,,,,,,,,,,,,,,,,,,,,,,,,,,,,,,,,,,,,,,,,,,,,,,,,,,,,,,,,,,,,,,,,,,,,,,,,,,,,,,
33960,1645901618.176732,1645901618.223111,92.0,0.0,4315.897461,4304.102539,4316.410156,4182.563965,4262.05127,450.0,1.0,15.0,,,,0.0,4.0,1.0,4.0,4.0,4.0,75.0,,,,,,,,46.0,0.0,0.7258720000000001,0.128662,0.6564939999999999,0.159912,0.923842,-0.404791,-0.10351700000000001,-0.028655,-0.033176,-0.009581999999999999,,,,,,,,,,,,,,,,,,,,,,,,,,,,,,,,,,,,,,,,,,,,,,,,,,,,,,,,,,,,,,,,,
33961,1645901618.184545,1645901618.230926,93.0,0.0,4329.230957,4333.846191,4266.666504,4185.128418,4277.94873,450.0,1.0,15.0,,,,0.0,4.0,1.0,4.0,4.0,4.0,75.0,,,,,,,,,,,,,,,,,,,,,,,,,,,,,,,,,,,,,,,,,,,,,,,,,,,,,,,,,,,,,,,,,,,,,,,,,,,,,,,,,,,,
33962,1645901618.192359,1645901618.23874,94.0,0.0,4315.897461,4276.410156,4271.794922,4157.94873,4291.794922,450.0,1.0,15.0,,,,0.0,4.0,1.0,4.0,4.0,4.0,75.0,,,,,,,,47.0,0.0,0.7258720000000001,0.128662,0.6564939999999999,0.159912,0.9116350000000001,-0.398932,-0.105959,-0.029061,-0.03313,-0.011065,,,,,,,,,,,,,,,,,,,,,,,,,,,,,,,,,,,0.0,0.0,1.0,0.0,512.0,0.9234129999999999,,,,,,,,,,,,,,,,,,,,,,,,,
33963,1645901618.2001731,1645901618.246555,95.0,0.0,4301.538574,4183.077147999999,4264.102539,4163.077147999999,4273.846191,16116.0,1.0,15.0,,,,0.0,4.0,1.0,4.0,4.0,4.0,75.0,,,,,,,,,,,,,,,,,,,,,,,,,,,,,,,,,,,,,,,,,,,,,,,,,,,,,,,,,,,,,,,,,,,,,,,,,,,,,,,,,,,,
33964,1645901618.2079859,1645901618.25437,96.0,0.0,4312.820313,4198.461426,4244.102539,4164.615234000001,4278.974121,450.0,1.0,15.0,,,,0.0,4.0,1.0,4.0,4.0,4.0,75.0,,,,,,,,48.0,0.0,0.725969,0.128418,0.6564939999999999,0.159668,0.937026,-0.39502600000000004,-0.09668099999999999,-0.029475,-0.033138,-0.012449,,,,,,,,,,,,,,,,,,,,,,,,,,,,,,,,,,,,,,,,,,,,,,,,,,,,,,,,,,,,,,,,,
33965,1645901618.2158,1645901618.262284,97.0,0.0,4333.846191,4266.153809,4240.512695,4164.102539,4303.077147999999,450.0,1.0,15.0,,,,0.0,4.0,1.0,4.0,4.0,4.0,75.0,,,,,,,,,,,,,,,,,,,,,,,,,,,,,,,,,,,,,,,,,,,,,,,,,,,,,,,,,,,,,,,,,,,,,,,,,,,,,,,,,,,,
33966,1645901618.223614,1645901618.270099,98.0,0.0,4332.307617,4293.333496,4280.0,4153.333496,4283.077147999999,450.0,1.0,15.0,,,,0.0,4.0,1.0,4.0,4.0,4.0,75.0,,,,,,,,49.0,0.0,0.7261890000000001,0.128418,0.65625,0.159668,0.921889,-0.397467,-0.109377,-0.029653,-0.033144,-0.013645,,,,,,,,,,,,,,,,,,,,,,,,,,,,,,,,,,,0.0,0.0,1.0,0.0,512.0,0.9234129999999999,,,,,,,,,,,,,,,,,,,,,,,,,
33967,1645901618.231428,1645901618.277914,99.0,0.0,4322.563965,4335.384765999999,4252.820313,4168.717772999999,4256.922852000001,16116.0,1.0,15.0,,,,0.0,4.0,1.0,4.0,4.0,4.0,75.0,,,,,,,,,,,,,,,,,,,,,,,,,,,,,,,,,,,,,,,,,,,,,,,,,,,,,,,,,,,,,,,,,,,,,,,,,,,,,,,,,,,,
33968,1645901618.2392411,1645901618.285728,100.0,0.0,4327.692383,4356.922852000001,4213.333496,4180.512695,4240.512695,450.0,1.0,15.0,,,,0.0,4.0,1.0,4.0,4.0,4.0,75.0,,,,,,,,50.0,0.0,0.7261890000000001,0.128418,0.65625,0.159668,0.925795,-0.407721,-0.101564,-0.029910000000000003,-0.033199,-0.011695,,,,,,,,,,,,,,,,,,,,,,,,,,,,,,,,,,,,,,,,,,,,,,,,,,,,,,,,,,,,,,,,,
33969,1645901618.247055,1645901618.2935429,101.0,0.0,4329.743652,4249.230957,4217.436035,4189.230957,4250.256348,450.0,1.0,15.0,,,,0.0,4.0,1.0,4.0,4.0,4.0,75.0,,,,,,,,,,,,,,,,,,,,,,,,,,,,,,,,,,,,,,,,,,,,,,,,,,,,,,,,,,,,,,,,,,,,,,,,,,,,,,,,,,,,
33970,1645901618.254869,1645901618.301358,102.0,0.0,4312.820313,4192.820313,4195.897461,4207.179688,4257.436035,450.0,1.0,15.0,,,,0.0,4.0,1.0,4.0,4.0,4.0,75.0,,,,,,,,51.0,0.0,0.7262430000000001,0.128418,0.65625,0.159424,0.929213,-0.401373,-0.12060699999999999,-0.030044,-0.033248,-0.009939,1.0,0.0,0.0,,,,,,,,,,,,,,,,,,,,,,,,,,,,,,,,0.0,0.0,1.0,0.0,512.0,1.0,11.746797,10.566847000000001,4.674035,1.036259,0.916273,18.075443,41.596272,15.060735000000001,42.459140999999995,19.850498,37.955719,47.708884999999995,8.145097,6.509444,4.804757,3.067366,7.82562,14.175258,2.091928,1.6139780000000001,6.584424,6.078757,3.2812349999999997,1.441697,1.076682
33971,1645901618.262683,1645901618.3091722,103.0,0.0,4320.512695,4333.333496,4191.282227000001,4206.153809,4267.179688,16116.0,1.0,15.0,,,,0.0,4.0,1.0,4.0,4.0,4.0,75.0,,,,,,,,,,,,,,,,,,,,,,,,,,,,,,,,,,,,,,,,,,,,,,,,,,,,,,,,,,,,,,,,,,,,,,,,,,,,,,,,,,,,
33972,1645901618.2704961,1645901618.3169868,104.0,0.0,4316.410156,4376.922852000001,4201.538574,4191.282227000001,4250.769043,450.0,1.0,15.0,,,,0.0,4.0,1.0,4.0,4.0,4.0,75.0,,,,,,,,52.0,0.0,0.72642,0.128662,0.6560060000000001,0.159424,0.914076,-0.41065100000000004,-0.107912,-0.030262999999999998,-0.033145999999999995,-0.011387000000000001,,,,,,,,,,,,,,,,,,,,,,,,,,,,,,,,,,,,,,,,,,,,,,,,,,,,,,,,,,,,,,,,,
33973,1645901618.27831,1645901618.324801,105.0,0.0,4307.692383,4292.820313,4203.077147999999,4207.179688,4254.871582,450.0,1.0,15.0,,,,0.0,4.0,1.0,4.0,4.0,4.0,75.0,,,,,,,,,,,,,,,,,,,,,,,,,,,,,,,,,,,,,,,,,,,,,,,,,,,,,,,,,,,,,,,,,,,,,,,,,,,,,,,,,,,,
33974,1645901618.286124,1645901618.332616,106.0,0.0,4296.922852000001,4282.563965,4208.717772999999,4206.666504,4280.512695,450.0,1.0,15.0,,,,0.0,4.0,1.0,4.0,4.0,4.0,75.0,,,,,,,,53.0,0.0,0.72642,0.128662,0.6560060000000001,0.159424,0.933608,-0.397467,-0.120119,-0.030458999999999996,-0.033103,-0.01269,,,,,,,,,,,,,,,,,,,,,,,,,,,,,,,,,,,0.0,0.0,1.0,0.0,512.0,1.0,,,,,,,,,,,,,,,,,,,,,,,,,
33975,1645901618.2939382,1645901618.340531,107.0,0.0,4281.538574,4315.384765999999,4241.025879,4169.743652,4292.820313,16116.0,1.0,15.0,,,,0.0,4.0,1.0,4.0,4.0,4.0,75.0,,,,,,,,,,,,,,,,,,,,,,,,,,,,,,,,,,,,,,,,,,,,,,,,,,,,,,,,,,,,,,,,,,,,,,,,,,,,,,,,,,,,
33976,1645901618.301751,1645901618.3483448,108.0,0.0,4269.230957,4303.077147999999,4229.230957,4160.0,4291.794922,450.0,1.0,15.0,,,,0.0,4.0,1.0,4.0,4.0,4.0,75.0,,,,,,,,54.0,0.0,0.72642,0.128662,0.6560060000000001,0.159424,0.9233540000000001,-0.392584,-0.105959,-0.030636,-0.033113,-0.013763999999999998,,,,,,,,,,,,,,,,,,,,,,,,,,,,,,,,,,,,,,,,,,,,,,,,,,,,,,,,,,,,,,,,,
33977,1645901618.309565,1645901618.35616,109.0,0.0,4284.615234000001,4308.205078,4236.410156,4168.205078,4283.077147999999,450.0,1.0,15.0,,,,0.0,4.0,1.0,4.0,4.0,4.0,75.0,,,,,,,,,,,,,,,,,,,,,,,,,,,,,,,,,,,,,,,,,,,,,,,,,,,,,,,,,,,,,,,,,,,,,,,,,,,,,,,,,,,,
33978,1645901618.317379,1645901618.363975,110.0,0.0,4302.05127,4324.102539,4280.0,4146.666504,4272.820313,450.0,1.0,15.0,,,,0.0,4.0,1.0,4.0,4.0,4.0,75.0,,,,,,,,55.0,0.0,0.726597,0.128906,0.655762,0.159424,0.9184709999999999,-0.39502600000000004,-0.107912,-0.030697000000000002,-0.033122000000000006,-0.011704,,,,,,,,,,,,,,,,,,,,,,,,,,,,,,,,,,,0.0,0.0,1.0,0.0,512.0,1.0,,,,,,,,,,,,,,,,,,,,,,,,,
33979,1645901618.325193,1645901618.371789,111.0,0.0,4310.769043,4317.436035,4309.743652,4132.307617,4256.922852000001,16116.0,1.0,15.0,,,,0.0,4.0,1.0,4.0,4.0,4.0,75.0,,,,,,,,,,,,,,,,,,,,,,,,,,,,,,,,,,,,,,,,,,,,,,,,,,,,,,,,,,,,,,,,,,,,,,,,,,,,,,,,,,,,
33980,1645901618.3330061,1645901618.3796039,112.0,0.0,4328.205078,4342.05127,4262.05127,4143.589844,4277.94873,450.0,1.0,15.0,,,,0.0,4.0,1.0,4.0,4.0,4.0,75.0,,,,,,,,56.0,0.0,0.726641,0.128662,0.655762,0.159424,0.929702,-0.38819000000000004,-0.101564,-0.030801,-0.03313,-0.012927000000000001,,,,,,,,,,,,,,,,,,,,,,,,,,,,,,,,,,,,,,,,,,,,,,,,,,,,,,,,,,,,,,,,,
33981,1645901618.3408198,1645901618.387419,113.0,0.0,4311.794922,4341.538574,4268.717772999999,4184.615234000001,4285.128418,450.0,1.0,15.0,,,,0.0,4.0,1.0,4.0,4.0,4.0,75.0,,,,,,,,,,,,,,,,,,,,,,,,,,,,,,,,,,,,,,,,,,,,,,,,,,,,,,,,,,,,,,,,,,,,,,,,,,,,,,,,,,,,
33982,1645901618.348634,1645901618.395233,114.0,0.0,4331.794922,4313.333496,4213.333496,4198.461426,4285.641113000001,450.0,1.0,15.0,,,,0.0,4.0,1.0,4.0,4.0,4.0,75.0,,,,,,,,57.0,0.0,0.726641,0.128662,0.655762,0.159424,0.9277489999999999,-0.409674,-0.11133,-0.030895,-0.033186,-0.014027000000000001,,,,,,,,,,,,,,,,,,,,,,,,,,,,,,,,,,,0.0,0.0,1.0,0.0,512.0,1.0,,,,,,,,,,,,,,,,,,,,,,,,,
33983,1645901618.356448,1645901618.403048,115.0,0.0,4360.512695,4289.743652,4167.179688,4152.307617,4312.307617,16116.0,1.0,15.0,,,,0.0,4.0,1.0,4.0,4.0,4.0,75.0,,,,,,,,,,,,,,,,,,,,,,,,,,,,,,,,,,,,,,,,,,,,,,,,,,,,,,,,,,,,,,,,,,,,,,,,,,,,,,,,,,,,
33984,1645901618.364261,1645901618.4109619,116.0,0.0,4358.461426,4282.563965,4192.307617,4140.512695,4336.922852000001,450.0,1.0,15.0,,,,0.0,4.0,1.0,4.0,4.0,4.0,75.0,,,,,,,,58.0,0.0,0.726641,0.128662,0.655762,0.159424,0.9350729999999999,-0.413092,-0.11084200000000001,-0.03098,-0.033188,-0.015065,,,,,,,,,,,,,,,,,,,,,,,,,,,,,,,,,,,,,,,,,,,,,,,,,,,,,,,,,,,,,,,,,
33985,1645901618.372075,1645901618.418777,117.0,0.0,4353.333496,4340.512695,4220.0,4141.538574,4317.94873,450.0,1.0,15.0,,,,0.0,4.0,1.0,4.0,4.0,4.0,75.0,,,,,,,,,,,,,,,,,,,,,,,,,,,,,,,,,,,,,,,,,,,,,,,,,,,,,,,,,,,,,,,,,,,,,,,,,,,,,,,,,,,,
33986,1645901618.379889,1645901618.4265919,118.0,0.0,4378.461426,4402.563965,4180.512695,4141.025879,4301.025879,450.0,1.0,15.0,,,,0.0,4.0,1.0,4.0,4.0,4.0,75.0,,,,,,,,59.0,0.0,0.726641,0.128662,0.655762,0.159424,0.9267719999999999,-0.398932,-0.11572400000000001,-0.031055000000000003,-0.033287,-0.012924000000000001,1.0,0.0,0.0,,,,,,,,,,,,,,,,,,,,,,,,,,,,,,,,0.0,0.0,1.0,0.0,512.0,0.941908,10.870444,10.578239,5.421207,0.900118,0.893459,17.594635,42.160872999999995,12.230145,38.471722,21.359852,39.987320000000004,49.558453,7.296207000000001,5.8689160000000005,4.800391,3.589432,9.408241,15.511344,2.298579,1.679429,5.946023,6.250717,2.88852,1.3028030000000002,0.9693579999999999
33987,1645901618.387702,1645901618.434406,119.0,0.0,4367.692383,4436.922852000001,4191.282227000001,4151.282227000001,4293.846191,16116.0,1.0,15.0,,,,0.0,4.0,1.0,4.0,4.0,4.0,75.0,,,,,,,,,,,,,,,,,,,,,,,,,,,,,,,,,,,,,,,,,,,,,,,,,,,,,,,,,,,,,,,,,,,,,,,,,,,,,,,,,,,,
33988,1645901618.395516,1645901618.4422212,120.0,0.0,4343.077147999999,4524.615234000001,4233.333496,4171.794922,4282.563965,450.0,1.0,15.0,,,,0.0,4.0,1.0,4.0,4.0,4.0,75.0,,,,,,,,60.0,0.0,0.726597,0.128906,0.655762,0.159424,0.926284,-0.406744,-0.119631,-0.031124000000000002,-0.03323,-0.014072999999999999,,,,,,,,,,,,,,,,,,,,,,,,,,,,,,,,,,,,,,,,,,,,,,,,,,,,,,,,,,,,,,,,,
33989,1645901618.40333,1645901618.450036,121.0,0.0,4341.538574,4600.512695,4212.307617,4148.205078,4273.333496,450.0,1.0,15.0,,,,0.0,4.0,1.0,4.0,4.0,4.0,75.0,,,,,,,,,,,,,,,,,,,,,,,,,,,,,,,,,,,,,,,,,,,,,,,,,,,,,,,,,,,,,,,,,,,,,,,,,,,,,,,,,,,,
33990,1645901618.411144,1645901618.45785,122.0,0.0,4325.128418,4593.846191,4240.512695,4144.102539,4283.589844,450.0,1.0,15.0,,,,0.0,4.0,1.0,4.0,4.0,4.0,75.0,,,,,,,,61.0,0.0,0.726597,0.128906,0.655762,0.159424,0.9248190000000001,-0.41651000000000005,-0.123537,-0.031136,-0.033374,-0.012129000000000001,,,,,,,,,,,,,,,,,,,,,,,,,,,,,,,,,,,0.0,0.0,1.0,0.0,512.0,0.941908,,,,,,,,,,,,,,,,,,,,,,,,,
33991,1645901618.418957,1645901618.465665,123.0,0.0,4307.692383,4593.846191,4239.487305,4163.077147999999,4278.461426,16116.0,1.0,15.0,,,,0.0,4.0,1.0,4.0,4.0,4.0,75.0,,,,,,,,,,,,,,,,,,,,,,,,,,,,,,,,,,,,,,,,,,,,,,,,,,,,,,,,,,,,,,,,,,,,,,,,,,,,,,,,,,,,
33992,1645901618.4267712,1645901618.47348,124.0,0.0,4320.512695,4606.666504,4217.94873,4146.153809,4274.358886999999,450.0,1.0,15.0,,,,0.0,4.0,1.0,4.0,4.0,4.0,75.0,,,,,,,,62.0,0.0,0.726554,0.12915,0.655762,0.159424,0.9155409999999999,-0.40381500000000004,-0.11523599999999999,-0.031148000000000002,-0.033259,-0.01326,,,,,,,,,,,,,,,,,,,,,,,,,,,,,,,,,,,,,,,,,,,,,,,,,,,,,,,,,,,,,,,,,
33993,1645901618.4345849,1645901618.481294,125.0,0.0,4329.230957,4556.922852000001,4231.282227000001,4122.563965,4278.974121,450.0,1.0,15.0,,,,0.0,4.0,1.0,4.0,4.0,4.0,75.0,,,,,,,,,,,,,,,,,,,,,,,,,,,,,,,,,,,,,,,,,,,,,,,,,,,,,,,,,,,,,,,,,,,,,,,,,,,,,,,,,,,,
33994,1645901618.442399,1645901618.489209,126.0,0.0,4321.538574,4591.282227000001,4301.538574,4140.0,4273.846191,450.0,1.0,15.0,,,,0.0,4.0,1.0,0.0,4.0,4.0,41.666668,,,,,,,,63.0,0.0,0.726597,0.128906,0.655762,0.159424,0.921401,-0.38526,-0.119631,-0.031353,-0.033254,-0.01125,,,,,,,,,,,,,,,,,,,,,,,,,,,,,,,,,,,0.0,0.0,1.0,0.0,512.0,0.941908,,,,,,,,,,,,,,,,,,,,,,,,,
33995,1645901618.450212,1645901618.497023,127.0,0.0,4336.922852000001,4688.205078,4252.820313,4174.358886999999,4270.769043,232.0,1.0,15.0,,,,0.0,4.0,1.0,0.0,4.0,4.0,41.666668,,,,,,,,,,,,,,,,,,,,,,,,,,,,,,,,,,,,,,,,,,,,,,,,,,,,,,,,,,,,,,,,,,,,,,,,,,,,,,,,,,,,
33996,1645901618.458026,1645901618.504838,0.0,0.0,4352.307617,4676.410156,4209.230957,4156.922852000001,4276.922852000001,450.0,1.0,15.0,,,,0.0,4.0,1.0,0.0,4.0,4.0,41.666668,,,,,,,,0.0,0.0,0.726651,0.128906,0.655762,0.15918,0.9331200000000001,-0.400397,-0.11425999999999999,-0.031441000000000004,-0.033249,-0.00949,,,,,,,,,,,,,,,,,,,,,,,,,,,,,,,,,,,,,,,,,,,,,,,,,,,,,,,,,,,,,,,,,
33997,1645901618.46584,1645901618.5126529,1.0,0.0,4348.717772999999,4607.179688,4235.384765999999,4140.512695,4292.307617,450.0,1.0,15.0,,,,0.0,4.0,1.0,0.0,4.0,4.0,41.666668,,,,,,,,,,,,,,,,,,,,,,,,,,,,,,,,,,,,,,,,,,,,,,,,,,,,,,,,,,,,,,,,,,,,,,,,,,,,,,,,,,,,
33998,1645901618.4736528,1645901618.520467,2.0,0.0,4337.436035,4598.461426,4240.0,4157.436035,4292.307617,16222.0,1.0,15.0,,,,0.0,4.0,1.0,0.0,4.0,4.0,41.666668,,,,,,,,1.0,0.0,0.726431,0.128906,0.6560060000000001,0.15918,0.9199360000000001,-0.39649,-0.114748,-0.031471,-0.033195,-0.010983,,,,,,,,,,,,,,,,,,,,,,,,,,,,,,,,,,,0.0,0.0,1.0,0.0,512.0,0.941908,,,,,,,,,,,,,,,,,,,,,,,,,
33999,1645901618.481467,1645901618.528282,3.0,0.0,4339.487305,4658.461426,4202.563965,4176.922852000001,4302.563965,450.0,1.0,15.0,,,,0.0,4.0,1.0,0.0,4.0,4.0,41.666668,,,,,,,,,,,,,,,,,,,,,,,,,,,,,,,,,,,,,,,,,,,,,,,,,,,,,,,,,,,,,,,,,,,,,,,,,,,,,,,,,,,,
34000,1645901618.489281,1645901618.536097,4.0,0.0,4351.282227000001,4676.410156,4222.05127,4162.563965,4300.512695,159.0,1.0,15.0,,,,0.0,4.0,1.0,0.0,4.0,4.0,41.666668,,,,,,,,2.0,0.0,0.726597,0.128906,0.655762,0.159424,0.9184709999999999,-0.381842,-0.113771,-0.031644,-0.033147,-0.012326,,,,,,,,,,,,,,,,,,,,,,,,,,,,,,,,,,,,,,,,,,,,,,,,,,,,,,,,,,,,,,,,,
34001,1645901618.4970949,1645901618.543911,5.0,0.0,4405.128418,4606.666504,4221.025879,4156.410156,4321.538574,450.0,1.0,15.0,,,,0.0,4.0,1.0,0.0,4.0,4.0,41.666668,,,,,,,,,,,,,,,,,,,,,,,,,,,,,,,,,,,,,,,,,,,,,,,,,,,,,,,,,,,,,,,,,,,,,,,,,,,,,,,,,,,,
34002,1645901618.504908,1645901618.5517259,6.0,0.0,4450.769043,4579.487305,4205.128418,4172.820313,4353.333496,14.0,1.0,15.0,,,,0.0,4.0,1.0,0.0,4.0,4.0,41.666668,,,,,,,,3.0,0.0,0.726377,0.128906,0.6560060000000001,0.159424,0.9184709999999999,-0.38721300000000003,-0.109377,-0.031605,-0.033201999999999995,-0.010361,1.0,0.0,0.0,,,,,,,,,,,,,,,,,,,,,,,,,,,,,,,,0.0,0.0,1.0,0.0,512.0,1.0,9.607339999999999,9.950772,5.594349,0.78167,0.8687809999999999,20.181475,43.031727000000004,10.913144,34.083763,22.298607,41.921227,49.435028,6.210572,5.352329,4.74638,4.0142940000000005,10.34649,15.777752,2.5302830000000003,1.699671,5.0461849999999995,6.113651,2.575612,1.224548,0.906523
34003,1645901618.512722,1645901618.55964,7.0,0.0,4545.641113000001,4695.897461,4223.589844,4175.897461,4394.871582,450.0,1.0,15.0,,,,0.0,4.0,1.0,0.0,4.0,4.0,41.666668,,,,,,,,,,,,,,,,,,,,,,,,,,,,,,,,,,,,,,,,,,,,,,,,,,,,,,,,,,,,,,,,,,,,,,,,,,,,,,,,,,,,
34004,1645901618.520536,1645901618.567455,8.0,0.0,4683.589844,4773.846191,4226.153809,4126.153809,4475.384765999999,450.0,1.0,15.0,,,,0.0,4.0,1.0,0.0,4.0,4.0,41.666668,,,,,,,,4.0,0.0,0.726334,0.12915,0.6560060000000001,0.159424,0.934585,-0.397955,-0.10888800000000001,-0.031618,-0.033201999999999995,-0.011815,,,,,,,,,,,,,,,,,,,,,,,,,,,,,,,,,,,,,,,,,,,,,,,,,,,,,,,,,,,,,,,,,
34005,1645901618.52835,1645901618.57527,9.0,0.0,4758.974121,4773.333496,4224.615234000001,4122.563965,4582.563965,16212.0,1.0,15.0,,,,0.0,4.0,1.0,0.0,4.0,4.0,41.666668,,,,,,,,,,,,,,,,,,,,,,,,,,,,,,,,,,,,,,,,,,,,,,,,,,,,,,,,,,,,,,,,,,,,,,,,,,,,,,,,,,,,
34006,1645901618.536163,1645901618.5830839,10.0,0.0,4789.230957,4793.333496,4228.205078,4168.205078,4617.436035,450.0,1.0,15.0,,,,0.0,4.0,1.0,0.0,4.0,4.0,41.666668,,,,,,,,5.0,0.0,0.726059,0.12915,0.65625,0.159668,0.913588,-0.40235,-0.099611,-0.031581,-0.033201999999999995,-0.013075,,,,,,,,,,,,,,,,,,,,,,,,,,,,,,,,,,,0.0,0.0,1.0,0.0,512.0,1.0,,,,,,,,,,,,,,,,,,,,,,,,,
34007,1645901618.543977,1645901618.590899,11.0,0.0,4855.897461,4835.897461,4235.897461,4162.563965,4611.282227000001,16173.0,1.0,15.0,,,,0.0,4.0,1.0,0.0,4.0,4.0,41.666668,,,,,,,,,,,,,,,,,,,,,,,,,,,,,,,,,,,,,,,,,,,,,,,,,,,,,,,,,,,,,,,,,,,,,,,,,,,,,,,,,,,,
34008,1645901618.551791,1645901618.598714,12.0,0.0,4916.922852000001,4858.461426,4238.461426,4124.615234000001,4648.717772999999,450.0,1.0,15.0,,,,0.0,4.0,1.0,0.0,4.0,4.0,41.666668,,,,,,,,6.0,0.0,0.726059,0.12915,0.65625,0.159668,0.917494,-0.40283800000000003,-0.097169,-0.031597,-0.033250999999999996,-0.014111000000000002,,,,,,,,,,,,,,,,,,,,,,,,,,,,,,,,,,,,,,,,,,,,,,,,,,,,,,,,,,,,,,,,,
34009,1645901618.5596051,1645901618.606528,13.0,0.0,4924.615234000001,4860.512695,4282.05127,4134.358886999999,4682.563965,450.0,1.0,15.0,,,,0.0,4.0,1.0,0.0,4.0,4.0,41.666668,,,,,,,,,,,,,,,,,,,,,,,,,,,,,,,,,,,,,,,,,,,,,,,,,,,,,,,,,,,,,,,,,,,,,,,,,,,,,,,,,,,,
34010,1645901618.5674179,1645901618.614343,14.0,0.0,4938.974121,4827.179688,4259.487305,4145.128418,4686.666504,450.0,1.0,15.0,,,,0.0,4.0,1.0,0.0,4.0,4.0,41.666668,,,,,,,,7.0,0.0,0.726059,0.12915,0.65625,0.159668,0.917006,-0.407721,-0.11816600000000001,-0.03166,-0.033246,-0.01519,,,,,,,,,,,,,,,,,,,,,,,,,,,,,,,,,,,0.0,0.0,1.0,0.0,512.0,1.0,,,,,,,,,,,,,,,,,,,,,,,,,
34011,1645901618.575232,1645901618.622158,15.0,0.0,4938.974121,4790.769043,4256.922852000001,4117.436035,4683.077147999999,16173.0,1.0,15.0,,,,0.0,4.0,1.0,0.0,4.0,4.0,41.666668,,,,,,,,,,,,,,,,,,,,,,,,,,,,,,,,,,,,,,,,,,,,,,,,,,,,,,,,,,,,,,,,,,,,,,,,,,,,,,,,,,,,
34012,1645901618.5830462,1645901618.629972,16.0,0.0,4922.563965,4797.436035,4243.589844,4133.333496,4682.05127,0.0,1.0,15.0,,,,0.0,4.0,1.0,0.0,4.0,4.0,41.666668,,,,,,,,8.0,0.0,0.726059,0.12915,0.65625,0.159668,0.909682,-0.400885,-0.10009900000000001,-0.031619,-0.033242,-0.016113,,,,,,,,,,,,,,,,,,,,,,,,,,,,,,,,,,,,,,,,,,,,,,,,,,,,,,,,,,,,,,,,,
34013,1645901618.59086,1645901618.637887,17.0,0.0,4916.922852000001,4785.641113000001,4248.717772999999,4180.512695,4657.94873,0.0,1.0,15.0,,,,0.0,4.0,1.0,0.0,4.0,4.0,41.666668,,,,,,,,,,,,,,,,,,,,,,,,,,,,,,,,,,,,,,,,,,,,,,,,,,,,,,,,,,,,,,,,,,,,,,,,,,,,,,,,,,,,
34014,1645901618.598673,1645901618.645701,18.0,0.0,4905.128418,4770.769043,4234.871582,4173.846191,4648.717772999999,0.0,1.0,15.0,,,,0.0,4.0,1.0,0.0,4.0,4.0,41.666668,,,,,,,,9.0,0.0,0.726059,0.12915,0.65625,0.159668,0.917494,-0.40283800000000003,-0.097169,-0.031582,-0.033188999999999996,-0.017041,,,,,,,,,,,,,,,,,,,,,,,,,,,,,,,,,,,0.0,0.0,1.0,0.0,512.0,1.0,,,,,,,,,,,,,,,,,,,,,,,,,
34015,1645901618.6064868,1645901618.653516,19.0,0.0,4870.256348,4791.794922,4213.333496,4145.641113000001,4631.794922,0.0,1.0,15.0,,,,0.0,4.0,1.0,0.0,4.0,4.0,41.666668,,,,,,,,,,,,,,,,,,,,,,,,,,,,,,,,,,,,,,,,,,,,,,,,,,,,,,,,,,,,,,,,,,,,,,,,,,,,,,,,,,,,
34016,1645901618.614301,1645901618.661431,20.0,0.0,4848.717772999999,4788.205078,4181.025879,4162.563965,4606.153809,0.0,1.0,15.0,,,,0.0,4.0,1.0,0.0,4.0,4.0,41.666668,,,,,,,,10.0,0.0,0.726059,0.12915,0.65625,0.159668,0.909682,-0.400885,-0.10009900000000001,-0.031549,-0.033191000000000005,-0.017778,,,,,,,,,,,,,,,,,,,,,,,,,,,,,,,,,,,,,,,,,,,,,,,,,,,,,,,,,,,,,,,,,
34017,1645901618.6221151,1645901618.669245,21.0,0.0,4825.641113000001,4724.102539,4186.153809,4159.487305,4589.230957,0.0,1.0,15.0,,,,0.0,4.0,1.0,0.0,4.0,4.0,41.666668,,,,,,,,,,,,,,,,,,,,,,,,,,,,,,,,,,,,,,,,,,,,,,,,,,,,,,,,,,,,,,,,,,,,,,,,,,,,,,,,,,,,
34018,1645901618.6299279,1645901618.67706,22.0,0.0,4769.743652,4732.307617,4197.436035,4157.94873,4583.589844,0.0,1.0,15.0,,,,0.0,4.0,1.0,0.0,4.0,4.0,41.666668,1.0,16.666666,2.0,0.0,0.0,3.0,2.0,11.0,0.0,0.726334,0.12915,0.6560060000000001,0.159424,0.9131,-0.389654,-0.107912,-0.031617,-0.033241,-0.01849,1.0,0.0,0.0,,,,,,,,,,,,,,,,,,,,,,,,,,,,,,,,0.0,0.0,1.0,0.0,512.0,0.68134,8.415306,9.0285,5.199515,0.7074,0.8513440000000001,26.417915,44.980827000000005,10.626536,30.050882,22.300554,43.442454999999995,47.292683000000004,5.040682,5.0791949999999995,4.6363080000000005,4.294413,10.346502000000001,14.737517,2.732811,1.6690060000000002,4.4196860000000004,5.524877,2.547349,1.210344,0.886763
34019,1645901618.637742,1645901618.684875,23.0,0.0,4676.410156,4798.974121,4172.307617,4171.282227000001,4548.717772999999,0.0,1.0,15.0,,,,0.0,4.0,1.0,0.0,4.0,4.0,41.666668,,,,,,,,,,,,,,,,,,,,,,,,,,,,,,,,,,,,,,,,,,,,,,,,,,,,,,,,,,,,,,,,,,,,,,,,,,,,,,,,,,,,
34020,1645901618.645556,1645901618.6926892,24.0,0.0,4632.307617,4753.846191,4177.436035,4169.743652,4502.563965,0.0,1.0,15.0,,,,0.0,4.0,1.0,0.0,4.0,4.0,41.666668,,,,,,,,12.0,0.0,0.726334,0.12915,0.6560060000000001,0.159424,0.9209129999999999,-0.403326,-0.104494,-0.031678,-0.033433,-0.015909,,,,,,,,,,,,,,,,,,,,,,,,,,,,,,,,,,,,,,,,,,,,,,,,,,,,,,,,,,,,,,,,,
34021,1645901618.653369,1645901618.7005038,25.0,0.0,4607.179688,4679.487305,4198.974121,4162.563965,4449.230957,0.0,1.0,15.0,,,,0.0,4.0,1.0,0.0,4.0,4.0,41.666668,,,,,,,,,,,,,,,,,,,,,,,,,,,,,,,,,,,,,,,,,,,,,,,,,,,,,,,,,,,,,,,,,,,,,,,,,,,,,,,,,,,,
34022,1645901618.661183,1645901618.708319,26.0,0.0,4563.077147999999,4673.846191,4184.102539,4173.846191,4422.563965,0.0,1.0,15.0,,,,0.0,4.0,1.0,0.0,4.0,4.0,41.666668,,,,,,,,13.0,0.0,0.72629,0.129395,0.6560060000000001,0.159424,0.9077290000000001,-0.391119,-0.10498199999999999,-0.028558999999999998,-0.033507,-0.016808,,,,,,,,,,,,,,,,,,,,,,,,,,,,,,,,,,,10.0,0.0,1.0,0.0,512.0,0.68134,,,,,,,,,,,,,,,,,,,,,,,,,
34023,1645901618.668997,1645901618.716133,27.0,0.0,4509.743652,4675.384765999999,4183.077147999999,4153.333496,4419.487305,0.0,1.0,15.0,,,,0.0,4.0,1.0,0.0,4.0,4.0,41.666668,,,,,,,,,,,,,,,,,,,,,,,,,,,,,,,,,,,,,,,,,,,,,,,,,,,,,,,,,,,,,,,,,,,,,,,,,,,,,,,,,,,,
34024,1645901618.676811,1645901618.723948,28.0,0.0,4467.179688,4684.102539,4281.538574,4113.333496,4406.153809,0.0,1.0,15.0,,,,0.0,4.0,1.0,0.0,4.0,4.0,41.666668,,,,,,,,14.0,0.0,0.72629,0.129395,0.6560060000000001,0.159424,0.9194479999999999,-0.40528000000000003,-0.10254100000000001,-0.028827999999999996,-0.033477,-0.014394999999999998,,,,,,,,,,,,,,,,,,,,,,,,,,,,,,,,,,,,,,,,,,,,,,,,,,,,,,,,,,,,,,,,,
34025,1645901618.684624,1645901618.731762,29.0,0.0,4421.538574,4712.820313,4299.487305,4101.538574,4372.820313,0.0,1.0,15.0,,,,0.0,4.0,1.0,0.0,4.0,4.0,41.666668,,,,,,,,,,,,,,,,,,,,,,,,,,,,,,,,,,,,,,,,,,,,,,,,,,,,,,,,,,,,,,,,,,,,,,,,,,,,,,,,,,,,
34026,1645901618.6924381,1645901618.739677,30.0,0.0,4390.256348,4752.307617,4235.897461,4118.461426,4353.846191,0.0,1.0,15.0,,,,0.0,4.0,1.0,0.0,4.0,4.0,41.666668,,,,,,,,15.0,0.0,0.72629,0.129395,0.6560060000000001,0.159424,0.928725,-0.401862,-0.10351700000000001,-0.025994,-0.033547,-0.015446000000000001,,,,,,,,,,,,,,,,,,,,,,,,,,,,,,,,,,,10.0,0.0,1.0,0.0,512.0,0.68134,,,,,,,,,,,,,,,,,,,,,,,,,
34027,1645901618.700252,1645901618.747492,31.0,0.0,4387.692383,4814.358886999999,4192.307617,4146.153809,4349.230957,0.0,1.0,15.0,,,,0.0,4.0,1.0,0.0,4.0,4.0,41.666668,,,,,,,,,,,,,,,,,,,,,,,,,,,,,,,,,,,,,,,,,,,,,,,,,,,,,,,,,,,,,,,,,,,,,,,,,,,,,,,,,,,,
34028,1645901618.708065,1645901618.755306,32.0,0.0,4372.820313,4881.538574,4243.077147999999,4173.333496,4308.717772999999,0.0,1.0,15.0,,,,0.0,4.0,1.0,0.0,4.0,4.0,41.666668,,,,,,,,16.0,0.0,0.726123,0.129395,0.65625,0.15918,0.925307,-0.40576799999999996,-0.11425999999999999,-0.026569,-0.033562,-0.016392,,,,,,,,,,,,,,,,,,,,,,,,,,,,,,,,,,,,,,,,,,,,,,,,,,,,,,,,,,,,,,,,,
34029,1645901618.715879,1645901618.7631211,33.0,0.0,4363.589844,4949.743652,4215.384765999999,4169.230957,4277.94873,0.0,1.0,15.0,,,,0.0,4.0,1.0,0.0,4.0,4.0,41.666668,,,,,,,,,,,,,,,,,,,,,,,,,,,,,,,,,,,,,,,,,,,,,,,,,,,,,,,,,,,,,,,,,,,,,,,,,,,,,,,,,,,,
34030,1645901618.723693,1645901618.770936,34.0,0.0,4329.743652,4962.563965,4199.487305,4138.974121,4291.794922,0.0,1.0,15.0,,,,0.0,4.0,1.0,0.0,4.0,4.0,41.666668,,,,,,,,17.0,0.0,0.726123,0.129395,0.65625,0.15918,0.9340959999999999,-0.41455699999999995,-0.113771,-0.027037000000000002,-0.033575,-0.017194,,,,,,,,,,,,,,,,,,,,,,,,,,,,,,,,,,,10.0,0.0,1.0,0.0,512.0,0.68134,,,,,,,,,,,,,,,,,,,,,,,,,
34031,1645901618.731507,1645901618.77875,35.0,0.0,4312.820313,4862.563965,4208.205078,4132.307617,4314.871582,0.0,1.0,15.0,,,,0.0,4.0,1.0,0.0,4.0,4.0,41.666668,,,,,,,,,,,,,,,,,,,,,,,,,,,,,,,,,,,,,,,,,,,,,,,,,,,,,,,,,,,,,,,,,,,,,,,,,,,,,,,,,,,,
34032,1645901618.73932,1645901618.786565,36.0,0.0,4328.717772999999,4769.743652,4181.025879,4116.410156,4302.05127,0.0,1.0,15.0,,,,0.0,4.0,1.0,0.0,4.0,4.0,41.666668,,,,,,,,18.0,0.0,0.72607,0.129395,0.65625,0.159424,0.9233540000000001,-0.388678,-0.10254100000000001,-0.027507,-0.033538,-0.014693000000000001,,,,,,,,,,,,,,,,,,,,,,,,,,,,,,,,,,,,,,,,,,,,,,,,,,,,,,,,,,,,,,,,,
34033,1645901618.747134,1645901618.7943802,37.0,0.0,4329.230957,4688.205078,4151.794922,4137.436035,4303.589844,0.0,1.0,15.0,,,,0.0,4.0,1.0,0.0,4.0,4.0,41.666668,,,,,,,,,,,,,,,,,,,,,,,,,,,,,,,,,,,,,,,,,,,,,,,,,,,,,,,,,,,,,,,,,,,,,,,,,,,,,,,,,,,,
34034,1645901618.7549481,1645901618.8021939,38.0,0.0,4301.025879,4547.692383,4192.820313,4181.025879,4296.410156,0.0,1.0,15.0,,,,0.0,4.0,1.0,0.0,4.0,4.0,41.666668,,,,,,,,19.0,0.0,0.72607,0.129395,0.65625,0.159424,0.929213,-0.404303,-0.11425999999999999,-0.027979,-0.033407,-0.015568,1.0,0.0,0.0,,,,,,,,,,,,,,,,,,,,,,,,,,,,,,,,10.0,0.0,1.0,0.0,512.0,0.80937,11.57288,8.158017,4.607515,0.682866,0.8489469999999999,36.150391,48.1465,10.989509,26.686490999999997,21.380292999999998,44.285713,43.926735,3.968632,5.024091,4.511806,4.5228589999999995,9.552599,12.777654,2.863891,1.611329,6.635046000000001,4.565759,2.990627,1.269588,0.9045719999999999
34035,1645901618.7627618,1645901618.810109,39.0,0.0,4310.769043,4528.717772999999,4219.487305,4183.589844,4276.922852000001,0.0,1.0,15.0,,,,0.0,4.0,1.0,0.0,4.0,4.0,41.666668,,,,,,,,,,,,,,,,,,,,,,,,,,,,,,,,,,,,,,,,,,,,,,,,,,,,,,,,,,,,,,,,,,,,,,,,,,,,,,,,,,,,
34036,1645901618.770575,1645901618.817923,40.0,0.0,4322.05127,4645.128418,4191.794922,4154.358886999999,4276.410156,0.0,1.0,15.0,,,,0.0,4.0,1.0,0.0,4.0,4.0,41.666668,,,,,,,,20.0,0.0,0.7259720000000001,0.129639,0.65625,0.159668,0.913588,-0.385748,-0.11084200000000001,-0.028452999999999996,-0.033484,-0.013375999999999999,,,,,,,,,,,,,,,,,,,,,,,,,,,,,,,,,,,,,,,,,,,,,,,,,,,,,,,,,,,,,,,,,
34037,1645901618.778389,1645901618.8257382,41.0,0.0,4345.641113000001,4677.436035,4226.666504,4161.538574,4314.871582,0.0,1.0,15.0,,,,0.0,4.0,1.0,0.0,4.0,4.0,41.666668,,,,,,,,,,,,,,,,,,,,,,,,,,,,,,,,,,,,,,,,,,,,,,,,,,,,,,,,,,,,,,,,,,,,,,,,,,,,,,,,,,,,
34038,1645901618.786203,1645901618.8335528,42.0,0.0,4452.307617,4675.384765999999,4236.410156,4144.102539,4369.743652,0.0,1.0,15.0,,,,0.0,4.0,1.0,0.0,4.0,4.0,41.666668,,,,,,,,21.0,0.0,0.725919,0.129639,0.65625,0.159912,0.93019,-0.39502600000000004,-0.10254100000000001,-0.028879000000000002,-0.033456,-0.014625999999999998,,,,,,,,,,,,,,,,,,,,,,,,,,,,,,,,,,,10.0,0.0,1.0,0.0,512.0,0.80937,,,,,,,,,,,,,,,,,,,,,,,,,
34039,1645901618.7940161,1645901618.841367,43.0,0.0,4591.282227000001,4744.615234000001,4227.179688,4124.102539,4465.128418,0.0,1.0,15.0,,,,0.0,4.0,1.0,0.0,4.0,4.0,41.666668,,,,,,,,,,,,,,,,,,,,,,,,,,,,,,,,,,,,,,,,,,,,,,,,,,,,,,,,,,,,,,,,,,,,,,,,,,,,,,,,,,,,
34040,1645901618.80183,1645901618.8491821,44.0,0.0,4695.384765999999,4781.025879,4243.589844,4156.410156,4560.0,0.0,1.0,15.0,,,,0.0,4.0,1.0,0.0,4.0,4.0,41.666668,,,,,,,,22.0,0.0,0.725821,0.129883,0.65625,0.160156,0.9126120000000001,-0.400885,-0.103029,-0.029263,-0.033431,-0.01541,,,,,,,,,,,,,,,,,,,,,,,,,,,,,,,,,,,,,,,,,,,,,,,,,,,,,,,,,,,,,,,,,
34041,1645901618.809644,1645901618.856997,45.0,0.0,4767.179688,4751.794922,4276.922852000001,4136.410156,4585.641113000001,0.0,1.0,15.0,,,,0.0,4.0,1.0,0.0,4.0,4.0,41.666668,,,,,,,,,,,,,,,,,,,,,,,,,,,,,,,,,,,,,,,,,,,,,,,,,,,,,,,,,,,,,,,,,,,,,,,,,,,,,,,,,,,,
34042,1645901618.817458,1645901618.864811,46.0,0.0,4810.769043,4702.563965,4238.974121,4095.897461,4588.205078,0.0,1.0,15.0,,,,0.0,4.0,1.0,0.0,4.0,4.0,41.666668,,,,,,,,23.0,0.0,0.725767,0.129883,0.65625,0.1604,0.921401,-0.389166,-0.112795,-0.02951,-0.033359,-0.013234000000000001,,,,,,,,,,,,,,,,,,,,,,,,,,,,,,,,,,,0.0,0.0,1.0,0.0,512.0,0.80937,,,,,,,,,,,,,,,,,,,,,,,,,
34043,1645901618.8252711,1645901618.872626,47.0,0.0,4853.846191,4677.94873,4225.641113000001,4127.692383,4610.256348,0.0,1.0,15.0,,,,0.0,4.0,1.0,0.0,4.0,4.0,41.666668,,,,,,,,,,,,,,,,,,,,,,,,,,,,,,,,,,,,,,,,,,,,,,,,,,,,,,,,,,,,,,,,,,,,,,,,,,,,,,,,,,,,
34044,1645901618.833085,1645901618.8805401,48.0,0.0,4929.230957,4676.410156,4239.487305,4135.384765999999,4651.282227000001,0.0,1.0,15.0,,,,0.0,4.0,1.0,0.0,4.0,4.0,41.666668,,,,,,,,24.0,0.0,0.725767,0.129883,0.65625,0.1604,0.910658,-0.41358100000000003,-0.09424,-0.029782,-0.033441000000000005,-0.011227,,,,,,,,,,,,,,,,,,,,,,,,,,,,,,,,,,,,,,,,,,,,,,,,,,,,,,,,,,,,,,,,,
34045,1645901618.840899,1645901618.888355,49.0,0.0,4966.153809,4632.820313,4280.512695,4097.94873,4662.05127,0.0,1.0,15.0,,,,0.0,4.0,1.0,0.0,4.0,4.0,41.666668,,,,,,,,,,,,,,,,,,,,,,,,,,,,,,,,,,,,,,,,,,,,,,,,,,,,,,,,,,,,,,,,,,,,,,,,,,,,,,,,,,,,
34046,1645901618.8487132,1645901618.89617,50.0,0.0,5003.077147999999,4514.358886999999,4262.05127,4102.563965,4674.871582,0.0,1.0,15.0,,,,0.0,4.0,1.0,0.0,4.0,4.0,41.666668,,,,,,,,25.0,0.0,0.725767,0.129883,0.65625,0.1604,0.905776,-0.39942,-0.104494,-0.029929,-0.033417,-0.009420999999999999,,,,,,,,,,,,,,,,,,,,,,,,,,,,,,,,,,,0.0,0.0,1.0,0.0,512.0,0.80937,,,,,,,,,,,,,,,,,,,,,,,,,
34047,1645901618.856526,1645901618.903984,51.0,0.0,5028.717772999999,4387.179688,4235.897461,4105.641113000001,4691.282227000001,0.0,1.0,15.0,,,,0.0,4.0,1.0,0.0,4.0,4.0,41.666668,,,,,,,,,,,,,,,,,,,,,,,,,,,,,,,,,,,,,,,,,,,,,,,,,,,,,,,,,,,,,,,,,,,,,,,,,,,,,,,,,,,,
34048,1645901618.86434,1645901618.911799,52.0,0.0,5000.512695,4326.666504,4223.077147999999,4111.794922,4692.820313,0.0,1.0,15.0,,,,0.0,4.0,1.0,0.0,4.0,4.0,41.666668,,,,,,,,26.0,0.0,0.725767,0.129883,0.65625,0.1604,0.9004040000000001,-0.39942,-0.098634,-0.030206999999999998,-0.033298,-0.010920000000000001,,,,,,,,,,,,,,,,,,,,,,,,,,,,,,,,,,,,,,,,,,,,,,,,,,,,,,,,,,,,,,,,,
34049,1645901618.872154,1645901618.919614,53.0,0.0,4971.282227000001,4296.922852000001,4223.077147999999,4148.205078,4667.179688,0.0,1.0,15.0,,,,0.0,4.0,1.0,0.0,4.0,4.0,41.666668,,,,,,,,,,,,,,,,,,,,,,,,,,,,,,,,,,,,,,,,,,,,,,,,,,,,,,,,,,,,,,,,,,,,,,,,,,,,,,,,,,,,
34050,1645901618.879968,1645901618.927428,54.0,0.0,4974.871582,4299.487305,4222.05127,4173.846191,4652.820313,0.0,1.0,15.0,,,,0.0,4.0,1.0,0.0,4.0,4.0,41.666668,,,,,,,,27.0,0.0,0.725865,0.129639,0.65625,0.160156,0.9277489999999999,-0.392096,-0.097169,-0.030409,-0.033142000000000005,-0.009145,1.0,0.0,0.0,,,,,,,,,,,,,,,,,,,,,,,,,,,,,,,,0.0,0.0,64.0,0.904119,1.0,0.0,32.079685,8.231341,4.37549,0.7082470000000001,0.870448,50.283821,51.780563,12.620082,24.040910999999998,19.895864000000003,44.226719,40.569691,3.139426,5.0545800000000005,4.429589,4.747855,8.355557000000001,10.533118,2.9402630000000003,1.571975,17.30414,3.868181,3.9460589999999995,1.417137,0.95249
34051,1645901618.8877811,1645901618.935243,55.0,0.0,4928.205078,4365.128418,4217.436035,4157.436035,4617.94873,0.0,1.0,15.0,,,,0.0,4.0,1.0,0.0,4.0,4.0,41.666668,,,,,,,,,,,,,,,,,,,,,,,,,,,,,,,,,,,,,,,,,,,,,,,,,,,,,,,,,,,,,,,,,,,,,,,,,,,,,,,,,,,,
34052,1645901618.8955948,1645901618.943058,56.0,0.0,4874.871582,4433.333496,4200.512695,4161.025879,4566.153809,0.0,1.0,15.0,,,,0.0,4.0,1.0,0.0,4.0,4.0,41.666668,,,,,,,,28.0,0.0,0.725821,0.129883,0.65625,0.160156,0.929213,-0.403326,-0.10254100000000001,-0.027417,-0.033149,-0.010672,,,,,,,,,,,,,,,,,,,,,,,,,,,,,,,,,,,,,,,,,,,,,,,,,,,,,,,,,,,,,,,,,
34053,1645901618.903409,1645901618.950972,57.0,0.0,4838.461426,4376.410156,4197.94873,4142.563965,4534.871582,0.0,1.0,15.0,,,,0.0,4.0,1.0,0.0,4.0,4.0,41.666668,,,,,,,,,,,,,,,,,,,,,,,,,,,,,,,,,,,,,,,,,,,,,,,,,,,,,,,,,,,,,,,,,,,,,,,,,,,,,,,,,,,,
34054,1645901618.911223,1645901618.958787,58.0,0.0,4770.256348,4288.205078,4258.461426,4119.487305,4517.436035,0.0,1.0,15.0,,,,0.0,4.0,1.0,0.0,4.0,4.0,41.666668,,,,,,,,29.0,0.0,0.725875,0.129883,0.65625,0.159912,0.9194479999999999,-0.400885,-0.11718900000000002,-0.027947000000000003,-0.033301,-0.012143000000000001,,,,,,,,,,,,,,,,,,,,,,,,,,,,,,,,,,,0.0,0.0,64.0,0.904119,1.0,0.0,,,,,,,,,,,,,,,,,,,,,,,,,
34055,1645901618.919036,1645901618.966601,59.0,0.0,4672.307617,4310.769043,4290.256348,4141.538574,4464.615234000001,0.0,1.0,15.0,,,,0.0,4.0,1.0,0.0,4.0,4.0,41.666668,,,,,,,,,,,,,,,,,,,,,,,,,,,,,,,,,,,,,,,,,,,,,,,,,,,,,,,,,,,,,,,,,,,,,,,,,,,,,,,,,,,,
34056,1645901618.92685,1645901618.974416,60.0,0.0,4588.717772999999,4365.128418,4289.743652,4154.358886999999,4407.179688,0.0,1.0,15.0,,,,0.0,4.0,1.0,0.0,4.0,4.0,41.666668,,,,,,,,30.0,0.0,0.726052,0.130127,0.6560060000000001,0.159912,0.9160299999999999,-0.400397,-0.10009900000000001,-0.028375,-0.033389,-0.010148,,,,,,,,,,,,,,,,,,,,,,,,,,,,,,,,,,,,,,,,,,,,,,,,,,,,,,,,,,,,,,,,,
34057,1645901618.934664,1645901618.9822311,61.0,0.0,4516.410156,4352.820313,4240.512695,4149.230957,4377.94873,0.0,1.0,15.0,,,,0.0,4.0,1.0,0.0,4.0,4.0,41.666668,,,,,,,,,,,,,,,,,,,,,,,,,,,,,,,,,,,,,,,,,,,,,,,,,,,,,,,,,,,,,,,,,,,,,,,,,,,,,,,,,,,,
34058,1645901618.942478,1645901618.9900448,62.0,0.0,4461.025879,4316.410156,4283.589844,4171.794922,4355.384765999999,0.0,1.0,15.0,,,,0.0,4.0,1.0,0.0,4.0,4.0,41.666668,,,,,,,,31.0,0.0,0.726052,0.130127,0.6560060000000001,0.159912,0.9199360000000001,-0.406744,-0.10498199999999999,-0.02876,-0.033419,-0.011623,,,,,,,,,,,,,,,,,,,,,,,,,,,,,,,,,,,10.0,0.0,64.0,0.904119,1.0,0.0,,,,,,,,,,,,,,,,,,,,,,,,,
34059,1645901618.950291,1645901618.99786,63.0,0.0,4416.410156,4278.974121,4296.410156,4167.179688,4333.333496,0.0,1.0,15.0,,,,0.0,4.0,1.0,0.0,4.0,4.0,41.666668,,,,,,,,,,,,,,,,,,,,,,,,,,,,,,,,,,,,,,,,,,,,,,,,,,,,,,,,,,,,,,,,,,,,,,,,,,,,,,,,,,,,
34060,1645901618.958105,1645901619.005675,64.0,0.0,4360.512695,4253.333496,4257.94873,4120.0,4314.358886999999,450.0,1.0,15.0,,,,0.0,4.0,1.0,0.0,4.0,4.0,41.666668,,,,,,,,32.0,0.0,0.726052,0.130127,0.6560060000000001,0.159912,0.9199360000000001,-0.40283800000000003,-0.103029,-0.029107,-0.033446,-0.012805,,,,,,,,,,,,,,,,,,,,,,,,,,,,,,,,,,,,,,,,,,,,,,,,,,,,,,,,,,,,,,,,,
34061,1645901618.965919,1645901619.013489,65.0,0.0,4313.846191,4265.128418,4244.615234000001,4130.769043,4297.436035,450.0,1.0,15.0,,,,0.0,4.0,1.0,0.0,4.0,4.0,41.666668,,,,,,,,,,,,,,,,,,,,,,,,,,,,,,,,,,,,,,,,,,,,,,,,,,,,,,,,,,,,,,,,,,,,,,,,,,,,,,,,,,,,
34062,1645901618.973732,1645901619.021304,66.0,0.0,4287.692383,4284.102539,4258.461426,4160.0,4267.179688,16070.0,1.0,15.0,,,,0.0,4.0,1.0,0.0,4.0,4.0,41.666668,,,,,,,,33.0,0.0,0.726052,0.130127,0.6560060000000001,0.159912,0.9160299999999999,-0.400397,-0.10009900000000001,-0.029419,-0.03352,-0.010743,,,,,,,,,,,,,,,,,,,,,,,,,,,,,,,,,,,10.0,0.0,64.0,0.904119,1.0,0.0,,,,,,,,,,,,,,,,,,,,,,,,,
34063,1645901618.9815462,1645901619.029218,67.0,0.0,4251.282227000001,4272.307617,4199.487305,4143.589844,4251.282227000001,450.0,1.0,15.0,,,,0.0,4.0,2.0,4.0,4.0,4.0,83.333336,,,,,,,,,,,,,,,,,,,,,,,,,,,,,,,,,,,,,,,,,,,,,,,,,,,,,,,,,,,,,,,,,,,,,,,,,,,,,,,,,,,,
34064,1645901618.9893599,1645901619.037033,68.0,0.0,4140.512695,4146.153809,4228.205078,4163.077147999999,4217.436035,218.0,1.0,15.0,,,,0.0,4.0,2.0,4.0,4.0,4.0,83.333336,,,,,,,,34.0,0.0,0.726052,0.130127,0.6560060000000001,0.159912,0.9233540000000001,-0.41358100000000003,-0.099611,-0.0297,-0.033586000000000005,-0.008888,,,,,,,,,,,,,,,,,,,,,,,,,,,,,,,,,,,,,,,,,,,,,,,,,,,,,,,,,,,,,,,,,
34065,1645901618.997174,1645901619.044848,69.0,0.0,4097.94873,4059.487061,4260.512695,4215.897461,4172.307617,450.0,1.0,15.0,,,,0.0,4.0,2.0,4.0,4.0,4.0,83.333336,,,,,,,,,,,,,,,,,,,,,,,,,,,,,,,,,,,,,,,,,,,,,,,,,,,,,,,,,,,,,,,,,,,,,,,,,,,,,,,,,,,,
34066,1645901619.004987,1645901619.052662,70.0,0.0,4170.769043,4195.384765999999,4137.94873,4156.410156,4158.461426,16073.0,1.0,15.0,,,,0.0,4.0,2.0,4.0,4.0,4.0,83.333336,,,,,,,,35.0,0.0,0.726052,0.130127,0.6560060000000001,0.159912,0.923842,-0.39942,-0.10888800000000001,-0.029904000000000003,-0.033596,-0.010391,1.0,0.0,0.0,,,,,,,,,,,,,,,,,,,,,,,,,,,,,,,,10.0,0.0,1.0,0.0,512.0,1.0,89.18248,9.710716,4.818423,0.817901,0.924218,67.822243,56.923279,16.679205,22.017456,18.296522,43.0704,38.188007,2.589266,5.025189,4.423535,5.053877,7.176392,8.502185,3.047508,1.5922,44.650738,4.124934,5.252507,1.682871,1.023095
34067,1645901619.012801,1645901619.060477,71.0,0.0,4184.102539,4307.179688,4114.358886999999,4106.153809,4193.846191,450.0,1.0,15.0,,,,0.0,4.0,2.0,4.0,4.0,4.0,83.333336,,,,,,,,,,,,,,,,,,,,,,,,,,,,,,,,,,,,,,,,,,,,,,,,,,,,,,,,,,,,,,,,,,,,,,,,,,,,,,,,,,,,
34068,1645901619.020615,1645901619.068292,72.0,0.0,4076.4101560000004,4151.282227000001,4260.0,4181.538574,4186.153809,450.0,1.0,15.0,,,,0.0,4.0,2.0,4.0,4.0,4.0,83.333336,,,,,,,,36.0,0.0,0.7261489999999999,0.129883,0.6560060000000001,0.159668,0.926284,-0.394049,-0.112795,-0.030136000000000003,-0.033606,-0.008620000000000001,,,,,,,,,,,,,,,,,,,,,,,,,,,,,,,,,,,,,,,,,,,,,,,,,,,,,,,,,,,,,,,,,
34069,1645901619.0284288,1645901619.076106,73.0,0.0,4059.487061,4043.076904,4294.871582,4247.692383,4149.230957,16333.0,1.0,15.0,,,,0.0,4.0,2.0,4.0,4.0,4.0,83.333336,,,,,,,,,,,,,,,,,,,,,,,,,,,,,,,,,,,,,,,,,,,,,,,,,,,,,,,,,,,,,,,,,,,,,,,,,,,,,,,,,,,,
34070,1645901619.036242,1645901619.0839212,74.0,0.0,4138.974121,4146.153809,4182.563965,4195.897461,4155.384765999999,450.0,1.0,15.0,,,,0.0,4.0,2.0,4.0,4.0,4.0,83.333336,,,,,,,,37.0,0.0,0.726139,0.129639,0.6560060000000001,0.159912,0.9272600000000001,-0.397955,-0.105959,-0.030443,-0.033566000000000006,-0.010053,,,,,,,,,,,,,,,,,,,,,,,,,,,,,,,,,,,10.0,0.0,1.0,0.0,512.0,1.0,,,,,,,,,,,,,,,,,,,,,,,,,
34071,1645901619.044056,1645901619.091836,75.0,1.0,4133.461426,4154.102539,4179.230957,4192.692383,4150.512695,16173.0,1.0,15.0,,,,0.0,4.0,2.0,4.0,4.0,4.0,83.333336,,,,,,,,,,,,,,,,,,,,,,,,,,,,,,,,,,,,,,,,,,,,,,,,,,,,,,,,,,,,,,,,,,,,,,,,,,,,,,,,,,,,
34072,1645901619.0518699,1645901619.09965,76.0,1.0,4127.94873,4162.05127,4175.897461,4189.487305,4145.641113000001,450.0,1.0,15.0,,,,0.0,4.0,2.0,4.0,4.0,4.0,83.333336,,,,,,,,38.0,1.0,0.726142,0.1297,0.6560060000000001,0.159851,0.9243309999999999,-0.39881,-0.105592,-0.030475,-0.033557,-0.009655,,,,,,,,,,,,,,,,,,,,,,,,,,,,,,,,,,,,,,,,,,,,,,,,,,,,,,,,,,,,,,,,,
34073,1645901619.059683,1645901619.107465,77.0,1.0,4122.436035,4170.0,4172.563965,4186.282227000001,4140.769043,450.0,1.0,15.0,,,,0.0,4.0,2.0,4.0,4.0,4.0,83.333336,,,,,,,,,,,,,,,,,,,,,,,,,,,,,,,,,,,,,,,,,,,,,,,,,,,,,,,,,,,,,,,,,,,,,,,,,,,,,,,,,,,,
34074,1645901619.067497,1645901619.115279,78.0,1.0,4116.922852000001,4177.94873,4169.230957,4183.077147999999,4135.897461,450.0,1.0,15.0,,,,0.0,4.0,2.0,4.0,4.0,4.0,83.333336,,,,,,,,39.0,1.0,0.726144,0.129761,0.6560060000000001,0.15979000000000002,0.921401,-0.39966399999999996,-0.105226,-0.030507999999999997,-0.033548,-0.009257,,,,,,,,,,,,,,,,,,,,,,,,,,,,,,,,,,,10.0,0.0,1.0,0.0,512.0,1.0,,,,,,,,,,,,,,,,,,,,,,,,,
34075,1645901619.075311,1645901619.1230938,79.0,1.0,4111.410156,4185.897461,4165.897461,4179.871582,4131.025879,16173.0,1.0,15.0,,,,0.0,4.0,2.0,4.0,4.0,4.0,83.333336,,,,,,,,,,,,,,,,,,,,,,,,,,,,,,,,,,,,,,,,,,,,,,,,,,,,,,,,,,,,,,,,,,,,,,,,,,,,,,,,,,,,
34076,1645901619.083125,1645901619.130909,80.0,1.0,4105.897461,4193.846191,4162.563965,4176.666504,4126.153809,450.0,1.0,15.0,,,,0.0,4.0,2.0,4.0,4.0,4.0,83.333336,,,,,,,,40.0,1.0,0.726147,0.129822,0.6560060000000001,0.159729,0.9184709999999999,-0.400519,-0.10486,-0.030539999999999998,-0.033538,-0.008859,,,,,,,,,,,,,,,,,,,,,,,,,,,,,,,,,,,,,,,,,,,,,,,,,,,,,,,,,,,,,,,,,
34077,1645901619.090938,1645901619.1387231,81.0,1.0,4100.384765999999,4201.794922,4159.230957,4173.461426,4121.282227000001,450.0,1.0,15.0,,,,0.0,4.0,2.0,4.0,4.0,4.0,83.333336,,,,,,,,,,,,,,,,,,,,,,,,,,,,,,,,,,,,,,,,,,,,,,,,,,,,,,,,,,,,,,,,,,,,,,,,,,,,,,,,,,,,
34078,1645901619.098752,1645901619.146538,82.0,0.0,4094.8718259999996,4209.743652,4155.897461,4170.256348,4116.410156,450.0,1.0,15.0,,,,0.0,4.0,2.0,4.0,4.0,4.0,83.333336,,,,,,,,41.0,0.0,0.7261489999999999,0.129883,0.6560060000000001,0.159668,0.9155409999999999,-0.401373,-0.104494,-0.030572000000000002,-0.033529,-0.008462,,,,,,,,,,,,,,,,,,,,,,,,,,,,,,,,,,,0.0,0.0,1.0,0.0,512.0,1.0,,,,,,,,,,,,,,,,,,,,,,,,,
34079,1645901619.106566,1645901619.154353,83.0,0.0,4107.692383,4248.717772999999,4130.769043,4149.743652,4182.563965,16225.0,1.0,15.0,,,,0.0,4.0,2.0,4.0,4.0,4.0,83.333336,,,,,,,,,,,,,,,,,,,,,,,,,,,,,,,,,,,,,,,,,,,,,,,,,,,,,,,,,,,,,,,,,,,,,,,,,,,,,,,,,,,,
34080,1645901619.1143801,1645901619.162167,84.0,0.0,4072.820557,4239.487305,4269.743652,4143.077147999999,4203.077147999999,450.0,1.0,15.0,,,,0.0,4.0,2.0,4.0,4.0,4.0,83.333336,,,,,,,,42.0,0.0,0.726193,0.129639,0.6560060000000001,0.159668,0.9052870000000001,-0.394049,-0.10009900000000001,-0.030787000000000002,-0.033595,-0.010008,,,,,,,,,,,,,,,,,,,,,,,,,,,,,,,,,,,,,,,,,,,,,,,,,,,,,,,,,,,,,,,,,
34081,1645901619.1221929,1645901619.169982,85.0,0.0,4048.205078,4173.846191,4300.0,4198.461426,4131.794922,450.0,1.0,15.0,,,,0.0,4.0,2.0,4.0,4.0,4.0,83.333336,,,,,,,,,,,,,,,,,,,,,,,,,,,,,,,,,,,,,,,,,,,,,,,,,,,,,,,,,,,,,,,,,,,,,,,,,,,,,,,,,,,,
34082,1645901619.130007,1645901619.177797,86.0,0.0,4112.820313,4172.820313,4164.102539,4223.077147999999,4132.820313,450.0,1.0,15.0,,,,0.0,4.0,2.0,4.0,4.0,4.0,83.333336,0.972656,25.0,3.0,0.0,0.0,3.0,3.0,43.0,0.0,0.726139,0.129639,0.6560060000000001,0.159912,0.917494,-0.391119,-0.100587,-0.030931,-0.033604,-0.011497,1.0,0.0,0.0,,,,,,,,,,,,,,,,,,,,,,,,,,,,,,,,0.0,0.0,64.0,0.48905200000000004,1.0,0.0,200.2556,13.130891,5.94219,1.1149440000000002,1.0164440000000001,88.782738,68.25943000000001,23.932135,20.699942,16.857104999999997,41.094574,37.146190999999995,2.254155,4.849055,4.496844,5.579078,6.262283,6.872264,3.296136,1.691195,94.779045,5.7967260000000005,6.682956,2.121539,1.109424
34083,1645901619.1378212,1645901619.185611,87.0,0.0,4153.333496,4243.589844,4156.410156,4163.589844,4231.794922,16225.0,1.0,15.0,,,,0.0,4.0,2.0,4.0,4.0,4.0,83.333336,,,,,,,,,,,,,,,,,,,,,,,,,,,,,,,,,,,,,,,,,,,,,,,,,,,,,,,,,,,,,,,,,,,,,,,,,,,,,,,,,,,,
34084,1645901619.145635,1645901619.193426,88.0,0.0,4096.922852000001,4225.128418,4303.077147999999,4158.974121,4265.128418,450.0,1.0,15.0,,,,0.0,4.0,2.0,4.0,4.0,4.0,83.333336,,,,,,,,44.0,0.0,0.726139,0.129639,0.6560060000000001,0.159912,0.925307,-0.392584,-0.104494,-0.030963,-0.033613,-0.009615,,,,,,,,,,,,,,,,,,,,,,,,,,,,,,,,,,,,,,,,,,,,,,,,,,,,,,,,,,,,,,,,,
34085,1645901619.153448,1645901619.201241,89.0,0.0,4082.0512700000004,4134.871582,4271.794922,4207.179688,4178.974121,450.0,1.0,15.0,,,,0.0,4.0,2.0,4.0,4.0,4.0,83.333336,,,,,,,,,,,,,,,,,,,,,,,,,,,,,,,,,,,,,,,,,,,,,,,,,,,,,,,,,,,,,,,,,,,,,,,,,,,,,,,,,,,,
34086,1645901619.1612618,1645901619.2090552,90.0,0.0,4160.512695,4168.205078,4153.846191,4220.512695,4161.538574,450.0,1.0,15.0,,,,0.0,4.0,2.0,4.0,4.0,4.0,83.333336,,,,,,,,45.0,0.0,0.726139,0.129639,0.6560060000000001,0.159912,0.914565,-0.401373,-0.107424,-0.030991,-0.033474000000000004,-0.00797,,,,,,,,,,,,,,,,,,,,,,,,,,,,,,,,,,,0.0,0.0,64.0,0.48905200000000004,1.0,0.0,,,,,,,,,,,,,,,,,,,,,,,,,
34087,1645901619.169076,1645901619.2168698,91.0,0.0,4158.974121,4261.025879,4207.179688,4203.077147999999,4232.307617,16225.0,1.0,15.0,,,,0.0,4.0,2.0,4.0,4.0,4.0,83.333336,,,,,,,,,,,,,,,,,,,,,,,,,,,,,,,,,,,,,,,,,,,,,,,,,,,,,,,,,,,,,,,,,,,,,,,,,,,,,,,,,,,,
34088,1645901619.1768901,1645901619.224585,92.0,0.0,4101.538574,4314.358886999999,4324.102539,4181.538574,4218.461426,450.0,1.0,15.0,,,,0.0,4.0,2.0,4.0,4.0,4.0,83.333336,,,,,,,,46.0,0.0,0.726139,0.129639,0.6560060000000001,0.159912,0.929702,-0.389654,-0.10351700000000001,-0.031066000000000003,-0.033447000000000005,-0.009663,,,,,,,,,,,,,,,,,,,,,,,,,,,,,,,,,,,,,,,,,,,,,,,,,,,,,,,,,,,,,,,,,
34089,1645901619.1847029,1645901619.232399,93.0,0.0,4118.974121,4308.205078,4226.666504,4152.820313,4142.563965,450.0,1.0,15.0,,,,0.0,4.0,2.0,4.0,4.0,4.0,83.333336,,,,,,,,,,,,,,,,,,,,,,,,,,,,,,,,,,,,,,,,,,,,,,,,,,,,,,,,,,,,,,,,,,,,,,,,,,,,,,,,,,,,
34090,1645901619.192517,1645901619.240214,94.0,0.0,4141.538574,4264.615234000001,4170.769043,4153.846191,4153.333496,450.0,1.0,15.0,,,,0.0,4.0,2.0,4.0,4.0,4.0,83.333336,,,,,,,,47.0,0.0,0.726139,0.129639,0.6560060000000001,0.159912,0.925307,-0.392584,-0.104494,-0.031085,-0.033472,-0.007965,,,,,,,,,,,,,,,,,,,,,,,,,,,,,,,,,,,0.0,0.0,64.0,0.48905200000000004,1.0,0.0,,,,,,,,,,,,,,,,,,,,,,,,,
34091,1645901619.200331,1645901619.248029,95.0,0.0,4116.410156,4251.282227000001,4274.358886999999,4174.871582,4205.128418,16225.0,1.0,15.0,,,,0.0,4.0,2.0,4.0,4.0,4.0,83.333336,,,,,,,,,,,,,,,,,,,,,,,,,,,,,,,,,,,,,,,,,,,,,,,,,,,,,,,,,,,,,,,,,,,,,,,,,,,,,,,,,,,,
34092,1645901619.208145,1645901619.255843,96.0,0.0,4098.461426,4245.128418,4326.666504,4173.333496,4161.538574,450.0,1.0,15.0,,,,0.0,4.0,2.0,4.0,4.0,4.0,83.333336,,,,,,,,48.0,0.0,0.7260850000000001,0.129639,0.6560060000000001,0.160156,0.929702,-0.397955,-0.10009900000000001,-0.031248,-0.033347,-0.0064849999999999994,,,,,,,,,,,,,,,,,,,,,,,,,,,,,,,,,,,,,,,,,,,,,,,,,,,,,,,,,,,,,,,,,
34093,1645901619.215958,1645901619.263658,97.0,0.0,4131.794922,4197.436035,4194.871582,4162.563965,4127.179688,450.0,1.0,15.0,,,,0.0,4.0,2.0,4.0,4.0,4.0,83.333336,,,,,,,,,,,,,,,,,,,,,,,,,,,,,,,,,,,,,,,,,,,,,,,,,,,,,,,,,,,,,,,,,,,,,,,,,,,,,,,,,,,,
34094,1645901619.223772,1645901619.271473,98.0,0.0,4153.333496,4237.436035,4156.410156,4128.717772999999,4191.282227000001,450.0,1.0,15.0,,,,0.0,4.0,2.0,4.0,4.0,4.0,83.333336,,,,,,,,49.0,0.0,0.726042,0.129883,0.6560060000000001,0.160156,0.9277489999999999,-0.409186,-0.113771,-0.031297000000000005,-0.033333,-0.00525,,,,,,,,,,,,,,,,,,,,,,,,,,,,,,,,,,,0.0,0.0,64.0,0.48905200000000004,1.0,0.0,,,,,,,,,,,,,,,,,,,,,,,,,
34095,1645901619.231586,1645901619.2792869,99.0,0.0,4130.769043,4289.230957,4251.794922,4133.846191,4235.384765999999,16225.0,1.0,15.0,,,,0.0,4.0,2.0,4.0,4.0,4.0,83.333336,,,,,,,,,,,,,,,,,,,,,,,,,,,,,,,,,,,,,,,,,,,,,,,,,,,,,,,,,,,,,,,,,,,,,,,,,,,,,,,,,,,,
34096,1645901619.239399,1645901619.287102,100.0,0.0,4069.2307130000004,4141.025879,4298.974121,4210.769043,4167.179688,450.0,1.0,15.0,,,,0.0,4.0,2.0,4.0,4.0,4.0,83.333336,,,,,,,,50.0,0.0,0.726042,0.129883,0.6560060000000001,0.160156,0.9316549999999999,-0.397955,-0.11523599999999999,-0.031292,-0.033222,-0.003993,,,,,,,,,,,,,,,,,,,,,,,,,,,,,,,,,,,,,,,,,,,,,,,,,,,,,,,,,,,,,,,,,
34097,1645901619.2472131,1645901619.294916,101.0,0.0,4111.794922,4085.641113,4209.743652,4246.153809,4140.512695,450.0,1.0,15.0,,,,0.0,4.0,2.0,4.0,4.0,4.0,83.333336,,,,,,,,,,,,,,,,,,,,,,,,,,,,,,,,,,,,,,,,,,,,,,,,,,,,,,,,,,,,,,,,,,,,,,,,,,,,,,,,,,,,
34098,1645901619.255027,1645901619.3026311,102.0,0.0,4196.922852000001,4302.05127,4152.820313,4155.897461,4195.384765999999,450.0,1.0,15.0,,,,0.0,4.0,2.0,4.0,4.0,4.0,83.333336,,,,,,,,51.0,0.0,0.7259979999999999,0.130127,0.6560060000000001,0.160156,0.9116350000000001,-0.403326,-0.12060699999999999,-0.028212,-0.03322,-0.006084,1.0,0.0,0.0,,,,,,,,,,,,,,,,,,,,,,,,,,,,,,,,0.0,0.0,1.0,0.0,512.0,0.6132770000000001,371.972229,18.112645999999998,7.435962,1.7196490000000002,1.176474,111.81219499999999,90.6651,33.634327,20.408945000000003,15.638491,38.4921,36.803989,2.045849,4.550999,4.7140379999999995,6.401299,5.603528,5.526155,3.798456,1.876498,167.016602,8.553453,8.044963000000001,2.7668630000000003,1.2086709999999998
34099,1645901619.262841,1645901619.3104448,103.0,0.0,4145.641113000001,4396.410156,4222.05127,4127.692383,4231.282227000001,16225.0,1.0,15.0,,,,0.0,4.0,2.0,4.0,4.0,4.0,83.333336,,,,,,,,,,,,,,,,,,,,,,,,,,,,,,,,,,,,,,,,,,,,,,,,,,,,,,,,,,,,,,,,,,,,,,,,,,,,,,,,,,,,
34100,1645901619.270654,1645901619.31826,104.0,0.0,4063.5898439999996,4248.205078,4248.205078,4225.128418,4193.333496,450.0,1.0,15.0,,,,0.0,4.0,2.0,4.0,4.0,4.0,83.333336,,,,,,,,52.0,0.0,0.7259979999999999,0.130127,0.6560060000000001,0.160156,0.901381,-0.403326,-0.104494,-0.028564,-0.033268,-0.004792,,,,,,,,,,,,,,,,,,,,,,,,,,,,,,,,,,,,,,,,,,,,,,,,,,,,,,,,,,,,,,,,,
34101,1645901619.278468,1645901619.3260741,105.0,0.0,4126.153809,4224.102539,4172.820313,4260.0,4169.743652,450.0,1.0,15.0,,,,0.0,4.0,2.0,4.0,4.0,4.0,83.333336,,,,,,,,,,,,,,,,,,,,,,,,,,,,,,,,,,,,,,,,,,,,,,,,,,,,,,,,,,,,,,,,,,,,,,,,,,,,,,,,,,,,
34102,1645901619.286282,1645901619.333889,106.0,0.0,4178.461426,4326.666504,4166.153809,4150.256348,4187.692383,450.0,1.0,15.0,,,,0.0,4.0,2.0,4.0,4.0,4.0,83.333336,,,,,,,,53.0,0.0,0.7259979999999999,0.130127,0.6560060000000001,0.160156,0.9116350000000001,-0.397955,-0.099611,-0.028980000000000002,-0.033212,-0.006803,,,,,,,,,,,,,,,,,,,,,,,,,,,,,,,,,,,0.0,0.0,1.0,0.0,512.0,0.6132770000000001,,,,,,,,,,,,,,,,,,,,,,,,,
34103,1645901619.294095,1645901619.341703,107.0,0.0,4106.666504,4296.410156,4308.717772999999,4087.179443,4209.743652,16225.0,1.0,15.0,,,,0.0,4.0,2.0,4.0,4.0,4.0,83.333336,,,,,,,,,,,,,,,,,,,,,,,,,,,,,,,,,,,,,,,,,,,,,,,,,,,,,,,,,,,,,,,,,,,,,,,,,,,,,,,,,,,,
34104,1645901619.301909,1645901619.349517,108.0,0.0,4071.281982,4189.230957,4301.538574,4151.794922,4194.358886999999,450.0,1.0,15.0,,,,0.0,4.0,2.0,4.0,4.0,4.0,83.333336,,,,,,,,54.0,0.0,0.7259439999999999,0.130127,0.6560060000000001,0.1604,0.9233540000000001,-0.386725,-0.107424,-0.029158,-0.033309,-0.00539,,,,,,,,,,,,,,,,,,,,,,,,,,,,,,,,,,,,,,,,,,,,,,,,,,,,,,,,,,,,,,,,,
34105,1645901619.3097231,1645901619.357332,109.0,0.0,4134.871582,4225.641113000001,4204.615234000001,4190.256348,4158.461426,450.0,1.0,15.0,,,,0.0,4.0,2.0,4.0,4.0,4.0,83.333336,,,,,,,,,,,,,,,,,,,,,,,,,,,,,,,,,,,,,,,,,,,,,,,,,,,,,,,,,,,,,,,,,,,,,,,,,,,,,,,,,,,,
34106,1645901619.3175368,1645901619.3651462,110.0,0.0,4150.769043,4322.563965,4231.794922,4149.230957,4161.025879,450.0,1.0,15.0,,,,0.0,4.0,2.0,4.0,4.0,4.0,83.333336,,,,,,,,55.0,0.0,0.7259439999999999,0.130127,0.6560060000000001,0.1604,0.923842,-0.395514,-0.10498199999999999,-0.029464999999999998,-0.033395999999999995,-0.007390000000000001,,,,,,,,,,,,,,,,,,,,,,,,,,,,,,,,,,,0.0,0.0,1.0,0.0,512.0,0.6132770000000001,,,,,,,,,,,,,,,,,,,,,,,,,
34107,1645901619.32535,1645901619.372861,111.0,0.0,4093.8461909999996,4293.846191,4356.410156,4149.230957,4168.717772999999,16225.0,1.0,15.0,,,,0.0,4.0,2.0,4.0,4.0,4.0,83.333336,,,,,,,,,,,,,,,,,,,,,,,,,,,,,,,,,,,,,,,,,,,,,,,,,,,,,,,,,,,,,,,,,,,,,,,,,,,,,,,,,,,,
34108,1645901619.333164,1645901619.380676,112.0,0.0,4104.615234000001,4231.282227000001,4272.820313,4185.641113000001,4168.717772999999,450.0,1.0,15.0,,,,0.0,4.0,2.0,4.0,4.0,4.0,83.333336,,,,,,,,56.0,0.0,0.7259439999999999,0.130127,0.6560060000000001,0.1604,0.9131,-0.403326,-0.111818,-0.029692000000000003,-0.033426,-0.009044,,,,,,,,,,,,,,,,,,,,,,,,,,,,,,,,,,,,,,,,,,,,,,,,,,,,,,,,,,,,,,,,,
34109,1645901619.340978,1645901619.38849,113.0,0.0,4171.794922,4272.307617,4138.461426,4146.666504,4189.230957,450.0,1.0,15.0,,,,0.0,4.0,2.0,4.0,4.0,4.0,83.333336,,,,,,,,,,,,,,,,,,,,,,,,,,,,,,,,,,,,,,,,,,,,,,,,,,,,,,,,,,,,,,,,,,,,,,,,,,,,,,,,,,,,
34110,1645901619.348792,1645901619.396305,114.0,0.0,4169.743652,4317.436035,4199.487305,4126.666504,4215.897461,450.0,1.0,15.0,,,,0.0,4.0,2.0,4.0,4.0,4.0,83.333336,,,,,,,,57.0,0.0,0.7259439999999999,0.130127,0.6560060000000001,0.1604,0.925795,-0.407233,-0.11621300000000001,-0.030043,-0.03355,-0.010581,,,,,,,,,,,,,,,,,,,,,,,,,,,,,,,,,,,0.0,0.0,1.0,0.0,512.0,0.6132770000000001,,,,,,,,,,,,,,,,,,,,,,,,,
34111,1645901619.356605,1645901619.40412,115.0,0.0,4106.153809,4256.410156,4331.794922,4205.641113000001,4169.743652,16225.0,1.0,15.0,,,,0.0,4.0,2.0,4.0,4.0,4.0,83.333336,,,,,,,,,,,,,,,,,,,,,,,,,,,,,,,,,,,,,,,,,,,,,,,,,,,,,,,,,,,,,,,,,,,,,,,,,,,,,,,,,,,,
34112,1645901619.364419,1645901619.411934,116.0,0.0,4143.589844,4273.846191,4241.538574,4237.436035,4139.487305,450.0,1.0,15.0,,,,0.0,4.0,2.0,4.0,4.0,4.0,83.333336,,,,,,,,58.0,0.0,0.7259,0.13037100000000001,0.6560060000000001,0.1604,0.934585,-0.392584,-0.113283,-0.030358999999999997,-0.033467000000000004,-0.008790000000000001,,,,,,,,,,,,,,,,,,,,,,,,,,,,,,,,,,,,,,,,,,,,,,,,,,,,,,,,,,,,,,,,,
34113,1645901619.372233,1645901619.419749,117.0,0.0,4207.179688,4381.025879,4127.692383,4134.358886999999,4198.974121,450.0,1.0,15.0,,,,0.0,4.0,2.0,4.0,4.0,4.0,83.333336,,,,,,,,,,,,,,,,,,,,,,,,,,,,,,,,,,,,,,,,,,,,,,,,,,,,,,,,,,,,,,,,,,,,,,,,,,,,,,,,,,,,
34114,1645901619.3800461,1645901619.4275632,118.0,0.0,4172.820313,4347.692383,4222.05127,4106.153809,4248.205078,450.0,1.0,15.0,,,,0.0,4.0,2.0,4.0,4.0,4.0,83.333336,,,,,,,,59.0,0.0,0.7259,0.13037100000000001,0.6560060000000001,0.1604,0.921401,-0.392096,-0.11816600000000001,-0.030545999999999997,-0.03344,-0.010353,1.0,0.0,0.0,,,,,,,,,,,,,,,,,,,,,,,,,,,,,,,,0.0,0.0,1.0,0.0,512.0,0.40833200000000003,586.9902950000001,23.725897,8.836578,2.682862,1.488958,134.08421299999998,124.72872199999999,43.378502000000005,21.580868,14.682946,35.615749,36.503139000000004,1.8770900000000001,4.301672,5.3231150000000005,7.4751199999999995,5.107876,4.297583,4.6020129999999995,2.151869,250.26649500000002,11.487434,9.114199000000001,3.5742269999999996,1.367246
34115,1645901619.38786,1645901619.4353778,119.0,0.0,4122.563965,4242.05127,4282.563965,4189.743652,4174.358886999999,16225.0,1.0,15.0,,,,0.0,4.0,2.0,4.0,4.0,4.0,83.333336,,,,,,,,,,,,,,,,,,,,,,,,,,,,,,,,,,,,,,,,,,,,,,,,,,,,,,,,,,,,,,,,,,,,,,,,,,,,,,,,,,,,
34116,1645901619.395674,1645901619.443193,120.0,0.0,4162.05127,4322.563965,4172.820313,4211.794922,4124.102539,450.0,1.0,15.0,,,,0.0,4.0,2.0,4.0,4.0,4.0,83.333336,,,,,,,,60.0,0.0,0.7259439999999999,0.130127,0.6560060000000001,0.1604,0.906752,-0.39942,-0.088869,-0.030812,-0.033417,-0.011904999999999999,,,,,,,,,,,,,,,,,,,,,,,,,,,,,,,,,,,,,,,,,,,,,,,,,,,,,,,,,,,,,,,,,
34117,1645901619.4034882,1645901619.450907,121.0,0.0,4159.487305,4422.563965,4170.256348,4148.205078,4171.282227000001,450.0,1.0,15.0,,,,0.0,4.0,2.0,4.0,4.0,4.0,83.333336,,,,,,,,,,,,,,,,,,,,,,,,,,,,,,,,,,,,,,,,,,,,,,,,,,,,,,,,,,,,,,,,,,,,,,,,,,,,,,,,,,,,
34118,1645901619.411301,1645901619.458722,122.0,0.0,4104.102539,4292.307617,4301.538574,4129.743652,4183.589844,450.0,1.0,15.0,,,,0.0,4.0,2.0,4.0,4.0,4.0,83.333336,,,,,,,,61.0,0.0,0.7259,0.13037100000000001,0.6560060000000001,0.1604,0.934585,-0.392584,-0.113283,-0.031051,-0.033347,-0.009982,,,,,,,,,,,,,,,,,,,,,,,,,,,,,,,,,,,0.0,0.0,1.0,0.0,512.0,0.40833200000000003,,,,,,,,,,,,,,,,,,,,,,,,,
34119,1645901619.419115,1645901619.466536,123.0,0.0,4132.307617,4184.615234000001,4230.769043,4129.743652,4131.282227000001,16225.0,1.0,15.0,,,,0.0,4.0,2.0,4.0,4.0,4.0,83.333336,,,,,,,,,,,,,,,,,,,,,,,,,,,,,,,,,,,,,,,,,,,,,,,,,,,,,,,,,,,,,,,,,,,,,,,,,,,,,,,,,,,,
34120,1645901619.426929,1645901619.474351,124.0,0.0,4177.436035,4310.769043,4168.717772999999,4099.487305,4142.563965,450.0,1.0,15.0,,,,0.0,4.0,2.0,4.0,4.0,4.0,83.333336,,,,,,,,62.0,0.0,0.7259439999999999,0.130127,0.6560060000000001,0.1604,0.918959,-0.404791,-0.098634,-0.031217,-0.033332,-0.008251999999999999,,,,,,,,,,,,,,,,,,,,,,,,,,,,,,,,,,,,,,,,,,,,,,,,,,,,,,,,,,,,,,,,,
34121,1645901619.434743,1645901619.482165,125.0,0.0,4135.897461,4378.974121,4271.794922,4106.153809,4178.974121,450.0,1.0,15.0,,,,0.0,4.0,2.0,4.0,4.0,4.0,83.333336,,,,,,,,,,,,,,,,,,,,,,,,,,,,,,,,,,,,,,,,,,,,,,,,,,,,,,,,,,,,,,,,,,,,,,,,,,,,,,,,,,,,
34122,1645901619.442557,1645901619.4899788,126.0,0.0,4122.563965,4311.282227000001,4298.974121,4154.871582,4156.410156,450.0,1.0,15.0,,,,0.0,4.0,2.0,4.0,4.0,4.0,83.333336,,,,,,,,63.0,0.0,0.725988,0.129883,0.6560060000000001,0.1604,0.9121229999999999,-0.410163,-0.101076,-0.031221,-0.033319,-0.006693999999999999,,,,,,,,,,,,,,,,,,,,,,,,,,,,,,,,,,,0.0,0.0,1.0,0.0,512.0,0.40833200000000003,,,,,,,,,,,,,,,,,,,,,,,,,
34123,1645901619.4503698,1645901619.497794,127.0,0.0,4167.692383,4363.077147999999,4194.358886999999,4167.179688,4172.820313,232.0,1.0,15.0,,,,0.0,4.0,2.0,4.0,4.0,4.0,83.333336,,,,,,,,,,,,,,,,,,,,,,,,,,,,,,,,,,,,,,,,,,,,,,,,,,,,,,,,,,,,,,,,,,,,,,,,,,,,,,,,,,,,
34124,1645901619.458184,1645901619.505608,0.0,0.0,4143.589844,4427.692383,4247.179688,4167.179688,4202.563965,450.0,1.0,15.0,,,,0.0,4.0,2.0,4.0,4.0,4.0,83.333336,,,,,,,,0.0,0.0,0.725934,0.129883,0.6560060000000001,0.160645,0.9199360000000001,-0.39697899999999997,-0.099611,-0.028148000000000003,-0.033308,-0.005340999999999999,,,,,,,,,,,,,,,,,,,,,,,,,,,,,,,,,,,,,,,,,,,,,,,,,,,,,,,,,,,,,,,,,
34125,1645901619.465998,1645901619.513423,1.0,0.0,4140.0,4321.025879,4245.128418,4169.230957,4172.307617,450.0,1.0,15.0,,,,0.0,4.0,2.0,4.0,4.0,4.0,83.333336,,,,,,,,,,,,,,,,,,,,,,,,,,,,,,,,,,,,,,,,,,,,,,,,,,,,,,,,,,,,,,,,,,,,,,,,,,,,,,,,,,,,
34126,1645901619.473811,1645901619.521237,2.0,0.0,4196.922852000001,4327.179688,4142.05127,4108.205078,4165.641113000001,16164.0,1.0,15.0,,,,0.0,4.0,2.0,4.0,4.0,4.0,83.333336,,,,,,,,1.0,0.0,0.725934,0.129883,0.6560060000000001,0.160645,0.922866,-0.412116,-0.11621300000000001,-0.028506999999999998,-0.033346,-0.007297,,,,,,,,,,,,,,,,,,,,,,,,,,,,,,,,,,,0.0,0.0,1.0,0.0,512.0,0.40833200000000003,,,,,,,,,,,,,,,,,,,,,,,,,
34127,1645901619.481625,1645901619.528951,3.0,0.0,4200.0,4425.641113000001,4178.461426,4094.8718259999996,4208.205078,450.0,1.0,15.0,,,,0.0,4.0,1.0,0.0,4.0,4.0,41.666668,,,,,,,,,,,,,,,,,,,,,,,,,,,,,,,,,,,,,,,,,,,,,,,,,,,,,,,,,,,,,,,,,,,,,,,,,,,,,,,,,,,,
34128,1645901619.489439,1645901619.536766,4.0,0.0,4143.589844,4298.974121,4281.025879,4176.410156,4162.05127,139.0,1.0,15.0,,,,0.0,4.0,1.0,0.0,4.0,4.0,41.666668,,,,,,,,2.0,0.0,0.725934,0.129883,0.6560060000000001,0.160645,0.9282370000000001,-0.39649,-0.10547000000000001,-0.028928,-0.033381,-0.005835,,,,,,,,,,,,,,,,,,,,,,,,,,,,,,,,,,,,,,,,,,,,,,,,,,,,,,,,,,,,,,,,,
34129,1645901619.497253,1645901619.54458,5.0,0.0,4166.153809,4202.05127,4206.153809,4207.692383,4142.563965,450.0,1.0,15.0,,,,0.0,4.0,1.0,0.0,4.0,4.0,41.666668,,,,,,,,,,,,,,,,,,,,,,,,,,,,,,,,,,,,,,,,,,,,,,,,,,,,,,,,,,,,,,,,,,,,,,,,,,,,,,,,,,,,
34130,1645901619.505066,1645901619.5523949,6.0,0.0,4188.717772999999,4361.538574,4176.410156,4156.922852000001,4229.230957,0.0,1.0,15.0,,,,0.0,4.0,1.0,0.0,4.0,4.0,41.666668,,,,,,,,3.0,0.0,0.725988,0.129883,0.6560060000000001,0.1604,0.925795,-0.399908,-0.113771,-0.029257,-0.033412,-0.007693000000000001,1.0,0.0,0.0,,,,,,,,,,,,,,,,,,,,,,,,,,,,,,,,0.0,0.0,1.0,0.0,512.0,0.59012,800.122192,28.483269,9.765437,3.907225,2.103997,150.829498,164.849854,50.296611999999996,24.358276,14.266623000000001,33.021824,35.764874,1.7603209999999998,4.332046,6.819071000000001,8.637816,4.847315,3.1480580000000002,5.6315029999999995,2.592237,324.748901,13.536729000000001,9.725213,4.401512,1.7298229999999999
34131,1645901619.51288,1645901619.560209,7.0,0.0,4168.205078,4474.871582,4265.641113000001,4174.358886999999,4257.94873,450.0,1.0,15.0,,,,0.0,4.0,1.0,0.0,4.0,4.0,41.666668,,,,,,,,,,,,,,,,,,,,,,,,,,,,,,,,,,,,,,,,,,,,,,,,,,,,,,,,,,,,,,,,,,,,,,,,,,,,,,,,,,,,
34132,1645901619.520694,1645901619.568023,8.0,0.0,4187.179688,4469.230957,4271.794922,4177.94873,4189.230957,450.0,1.0,15.0,,,,0.0,4.0,1.0,0.0,4.0,4.0,41.666668,,,,,,,,4.0,0.0,0.725988,0.129883,0.6560060000000001,0.1604,0.933608,-0.39014299999999996,-0.113283,-0.029457,-0.033342000000000004,-0.00624,,,,,,,,,,,,,,,,,,,,,,,,,,,,,,,,,,,,,,,,,,,,,,,,,,,,,,,,,,,,,,,,,
34133,1645901619.528508,1645901619.575838,9.0,0.0,4216.922852000001,4484.615234000001,4234.358886999999,4143.589844,4191.794922,16158.0,1.0,15.0,,,,0.0,4.0,1.0,0.0,4.0,4.0,41.666668,,,,,,,,,,,,,,,,,,,,,,,,,,,,,,,,,,,,,,,,,,,,,,,,,,,,,,,,,,,,,,,,,,,,,,,,,,,,,,,,,,,,
34134,1645901619.5363212,1645901619.583652,10.0,0.0,4203.589844,4456.410156,4215.384765999999,4166.666504,4215.897461,450.0,1.0,15.0,,,,0.0,4.0,1.0,0.0,4.0,4.0,41.666668,,,,,,,,5.0,0.0,0.725988,0.129883,0.6560060000000001,0.1604,0.914565,-0.392096,-0.10693499999999999,-0.029782999999999997,-0.033327999999999997,-0.008058,,,,,,,,,,,,,,,,,,,,,,,,,,,,,,,,,,,0.0,0.0,1.0,0.0,512.0,0.59012,,,,,,,,,,,,,,,,,,,,,,,,,
34135,1645901619.5441349,1645901619.591467,11.0,0.0,4196.922852000001,4439.487305,4250.256348,4186.153809,4188.717772999999,16210.0,1.0,15.0,,,,0.0,4.0,1.0,0.0,4.0,4.0,41.666668,,,,,,,,,,,,,,,,,,,,,,,,,,,,,,,,,,,,,,,,,,,,,,,,,,,,,,,,,,,,,,,,,,,,,,,,,,,,,,,,,,,,
34136,1645901619.551949,1645901619.599181,12.0,0.0,4195.384765999999,4427.179688,4255.384765999999,4158.974121,4175.897461,450.0,1.0,15.0,,,,0.0,4.0,1.0,0.0,4.0,4.0,41.666668,,,,,,,,6.0,0.0,0.726032,0.129639,0.6560060000000001,0.1604,0.921889,-0.404791,-0.098634,-0.029881,-0.033365,-0.006519,,,,,,,,,,,,,,,,,,,,,,,,,,,,,,,,,,,,,,,,,,,,,,,,,,,,,,,,,,,,,,,,,
34137,1645901619.559762,1645901619.606996,13.0,0.0,4202.563965,4358.461426,4250.769043,4154.871582,4185.641113000001,450.0,1.0,15.0,,,,0.0,4.0,1.0,0.0,4.0,4.0,41.666668,,,,,,,,,,,,,,,,,,,,,,,,,,,,,,,,,,,,,,,,,,,,,,,,,,,,,,,,,,,,,,,,,,,,,,,,,,,,,,,,,,,,
34138,1645901619.567576,1645901619.614811,14.0,0.0,4222.05127,4346.666504,4254.871582,4163.077147999999,4196.922852000001,450.0,1.0,15.0,,,,0.0,4.0,1.0,0.0,4.0,4.0,41.666668,,,,,,,,7.0,0.0,0.7260850000000001,0.129639,0.6560060000000001,0.160156,0.9272600000000001,-0.40235,-0.1084,-0.030115,-0.033397,-0.008407,,,,,,,,,,,,,,,,,,,,,,,,,,,,,,,,,,,0.0,0.0,1.0,0.0,512.0,0.59012,,,,,,,,,,,,,,,,,,,,,,,,,
34139,1645901619.57539,1645901619.622625,15.0,0.0,4195.384765999999,4320.512695,4329.743652,4158.974121,4188.717772999999,16210.0,1.0,15.0,,,,0.0,4.0,1.0,0.0,4.0,4.0,41.666668,,,,,,,,,,,,,,,,,,,,,,,,,,,,,,,,,,,,,,,,,,,,,,,,,,,,,,,,,,,,,,,,,,,,,,,,,,,,,,,,,,,,
34140,1645901619.5832038,1645901619.63044,16.0,0.0,4189.230957,4216.410156,4253.333496,4145.128418,4187.692383,0.0,1.0,15.0,,,,0.0,4.0,1.0,0.0,4.0,4.0,41.666668,,,,,,,,8.0,0.0,0.726075,0.129395,0.6560060000000001,0.1604,0.921401,-0.399908,-0.10498199999999999,-0.030277999999999996,-0.033427,-0.0069310000000000005,,,,,,,,,,,,,,,,,,,,,,,,,,,,,,,,,,,,,,,,,,,,,,,,,,,,,,,,,,,,,,,,,
34141,1645901619.591017,1645901619.6382551,17.0,0.0,4224.102539,4227.179688,4150.769043,4096.410156,4226.153809,0.0,1.0,15.0,,,,0.0,4.0,1.0,0.0,4.0,4.0,41.666668,,,,,,,,,,,,,,,,,,,,,,,,,,,,,,,,,,,,,,,,,,,,,,,,,,,,,,,,,,,,,,,,,,,,,,,,,,,,,,,,,,,,
34142,1645901619.598831,1645901619.646069,18.0,0.0,4215.384765999999,4272.307617,4225.641113000001,4116.922852000001,4260.0,0.0,1.0,15.0,,,,0.0,4.0,1.0,0.0,4.0,4.0,41.666668,,,,,,,,9.0,0.0,0.726075,0.129395,0.6560060000000001,0.1604,0.9150530000000001,-0.391608,-0.114748,-0.030473,-0.033405000000000004,-0.008631,,,,,,,,,,,,,,,,,,,,,,,,,,,,,,,,,,,0.0,0.0,1.0,0.0,512.0,0.59012,,,,,,,,,,,,,,,,,,,,,,,,,
34143,1645901619.6066449,1645901619.653884,19.0,0.0,4198.461426,4179.487305,4265.641113000001,4197.436035,4207.179688,0.0,1.0,15.0,,,,0.0,4.0,1.0,0.0,4.0,4.0,41.666668,,,,,,,,,,,,,,,,,,,,,,,,,,,,,,,,,,,,,,,,,,,,,,,,,,,,,,,,,,,,,,,,,,,,,,,,,,,,,,,,,,,,
34144,1645901619.614459,1645901619.661699,20.0,0.0,4244.102539,4177.436035,4152.820313,4191.282227000001,4198.974121,0.0,1.0,15.0,,,,0.0,4.0,1.0,0.0,4.0,4.0,41.666668,,,,,,,,10.0,0.0,0.725952,0.12915,0.65625,0.160156,0.920424,-0.401373,-0.101076,-0.030746,-0.033384,-0.007035,,,,,,,,,,,,,,,,,,,,,,,,,,,,,,,,,,,,,,,,,,,,,,,,,,,,,,,,,,,,,,,,,
34145,1645901619.622272,1645901619.669513,21.0,0.0,4207.179688,4286.153809,4166.666504,4158.974121,4243.077147999999,0.0,1.0,15.0,,,,0.0,4.0,1.0,0.0,4.0,4.0,41.666668,,,,,,,,,,,,,,,,,,,,,,,,,,,,,,,,,,,,,,,,,,,,,,,,,,,,,,,,,,,,,,,,,,,,,,,,,,,,,,,,,,,,
34146,1645901619.630086,1645901619.677228,22.0,0.0,4175.384765999999,4323.589844,4235.897461,4204.102539,4231.282227000001,0.0,1.0,15.0,,,,0.0,4.0,1.0,0.0,4.0,4.0,41.666668,0.972656,25.0,3.0,0.0,0.0,3.0,3.0,11.0,0.0,0.725952,0.12915,0.65625,0.160156,0.9248190000000001,-0.39942,-0.101564,-0.027719999999999998,-0.033366,-0.008723999999999999,1.0,0.0,0.0,,,,,,,,,,,,,,,,,,,,,,,,,,,,,,,,0.0,0.0,1.0,0.0,512.0,0.651315,955.926575,30.875914,9.932883,5.139762999999999,3.1957430000000002,156.7061,199.766495,52.307018,28.098315999999997,15.023979999999998,30.927845,34.197021,1.7874970000000001,4.787489,9.824542999999998,9.514263,5.056126,2.221389,6.742832000000001,3.3781550000000005,370.353882,14.085579999999998,9.763380999999999,5.04354,2.483735
34147,1645901619.6379,1645901619.685042,23.0,0.0,4251.282227000001,4282.05127,4174.871582,4174.358886999999,4215.897461,0.0,1.0,15.0,,,,0.0,4.0,1.0,0.0,4.0,4.0,41.666668,,,,,,,,,,,,,,,,,,,,,,,,,,,,,,,,,,,,,,,,,,,,,,,,,,,,,,,,,,,,,,,,,,,,,,,,,,,,,,,,,,,,
34148,1645901619.645713,1645901619.692857,24.0,0.0,4273.333496,4204.615234000001,4149.743652,4116.922852000001,4249.230957,0.0,1.0,15.0,,,,0.0,4.0,1.0,0.0,4.0,4.0,41.666668,,,,,,,,12.0,0.0,0.725952,0.12915,0.65625,0.160156,0.9111469999999999,-0.39697899999999997,-0.102052,-0.028219,-0.03335,-0.007168000000000001,,,,,,,,,,,,,,,,,,,,,,,,,,,,,,,,,,,,,,,,,,,,,,,,,,,,,,,,,,,,,,,,,
34149,1645901619.653527,1645901619.7006712,25.0,0.0,4206.666504,4169.230957,4191.794922,4146.153809,4215.897461,0.0,1.0,15.0,,,,0.0,4.0,1.0,0.0,4.0,4.0,41.666668,,,,,,,,,,,,,,,,,,,,,,,,,,,,,,,,,,,,,,,,,,,,,,,,,,,,,,,,,,,,,,,,,,,,,,,,,,,,,,,,,,,,
34150,1645901619.661341,1645901619.708485,26.0,0.0,4203.589844,4266.153809,4214.358886999999,4168.205078,4178.974121,0.0,1.0,15.0,,,,0.0,4.0,1.0,0.0,4.0,4.0,41.666668,,,,,,,,13.0,0.0,0.725995,0.128906,0.65625,0.160156,0.9272600000000001,-0.391608,-0.107912,-0.028718,-0.033287,-0.008942,,,,,,,,,,,,,,,,,,,,,,,,,,,,,,,,,,,0.0,0.0,1.0,0.0,512.0,0.651315,,,,,,,,,,,,,,,,,,,,,,,,,
34151,1645901619.6691551,1645901619.7163,27.0,0.0,4226.153809,4277.436035,4204.102539,4143.077147999999,4209.743652,0.0,1.0,15.0,,,,0.0,4.0,1.0,0.0,4.0,4.0,41.666668,,,,,,,,,,,,,,,,,,,,,,,,,,,,,,,,,,,,,,,,,,,,,,,,,,,,,,,,,,,,,,,,,,,,,,,,,,,,,,,,,,,,
34152,1645901619.6769679,1645901619.7241142,28.0,0.0,4209.743652,4150.256348,4243.077147999999,4155.897461,4223.589844,0.0,1.0,15.0,,,,0.0,4.0,1.0,0.0,4.0,4.0,41.666668,,,,,,,,14.0,0.0,0.725731,0.12915,0.6564939999999999,0.160156,0.9350729999999999,-0.415045,-0.11133,-0.028970999999999997,-0.033277999999999995,-0.010489,,,,,,,,,,,,,,,,,,,,,,,,,,,,,,,,,,,,,,,,,,,,,,,,,,,,,,,,,,,,,,,,,
34153,1645901619.684782,1645901619.7319288,29.0,0.0,4200.0,4184.102539,4266.153809,4184.615234000001,4209.743652,0.0,1.0,15.0,,,,0.0,4.0,1.0,0.0,4.0,4.0,41.666668,,,,,,,,,,,,,,,,,,,,,,,,,,,,,,,,,,,,,,,,,,,,,,,,,,,,,,,,,,,,,,,,,,,,,,,,,,,,,,,,,,,,
34154,1645901619.6925962,1645901619.739743,30.0,0.0,4203.077147999999,4359.487305,4276.410156,4169.230957,4201.538574,0.0,1.0,15.0,,,,0.0,4.0,1.0,0.0,4.0,4.0,41.666668,,,,,,,,15.0,0.0,0.725952,0.12915,0.65625,0.160156,0.9111469999999999,-0.39697899999999997,-0.102052,-0.029199,-0.033417,-0.008805,,,,,,,,,,,,,,,,,,,,,,,,,,,,,,,,,,,0.0,0.0,1.0,0.0,512.0,0.651315,,,,,,,,,,,,,,,,,,,,,,,,,
34155,1645901619.70041,1645901619.747458,31.0,0.0,4213.846191,4375.897461,4235.897461,4134.871582,4211.794922,0.0,1.0,15.0,,,,0.0,4.0,1.0,0.0,4.0,4.0,41.666668,,,,,,,,,,,,,,,,,,,,,,,,,,,,,,,,,,,,,,,,,,,,,,,,,,,,,,,,,,,,,,,,,,,,,,,,,,,,,,,,,,,,
34156,1645901619.708223,1645901619.7552722,32.0,0.0,4197.436035,4159.487305,4282.563965,4132.307617,4220.0,0.0,1.0,15.0,,,,0.0,4.0,1.0,0.0,4.0,4.0,41.666668,,,,,,,,16.0,0.0,0.725731,0.12915,0.6564939999999999,0.160156,0.9350729999999999,-0.415045,-0.11133,-0.029404000000000003,-0.033395999999999995,-0.010366,,,,,,,,,,,,,,,,,,,,,,,,,,,,,,,,,,,,,,,,,,,,,,,,,,,,,,,,,,,,,,,,,
34157,1645901619.7160368,1645901619.762986,33.0,0.0,4190.769043,3962.5642090000006,4287.692383,4158.974121,4213.846191,0.0,1.0,15.0,,,,0.0,4.0,1.0,0.0,4.0,4.0,41.666668,,,,,,,,,,,,,,,,,,,,,,,,,,,,,,,,,,,,,,,,,,,,,,,,,,,,,,,,,,,,,,,,,,,,,,,,,,,,,,,,,,,,
34158,1645901619.723851,1645901619.770801,34.0,0.0,4238.461426,4010.7692869999996,4193.846191,4142.05127,4208.205078,0.0,1.0,15.0,,,,0.0,4.0,1.0,0.0,4.0,4.0,41.666668,,,,,,,,17.0,0.0,0.725731,0.12915,0.6564939999999999,0.160156,0.921401,-0.38819000000000004,-0.113283,-0.029638,-0.033377,-0.011771,,,,,,,,,,,,,,,,,,,,,,,,,,,,,,,,,,,0.0,0.0,1.0,0.0,512.0,0.651315,,,,,,,,,,,,,,,,,,,,,,,,,
34159,1645901619.7316651,1645901619.778615,35.0,0.0,4256.922852000001,4097.94873,4183.077147999999,4144.615234000001,4232.307617,0.0,1.0,15.0,,,,0.0,4.0,1.0,0.0,4.0,4.0,41.666668,,,,,,,,,,,,,,,,,,,,,,,,,,,,,,,,,,,,,,,,,,,,,,,,,,,,,,,,,,,,,,,,,,,,,,,,,,,,,,,,,,,,
34160,1645901619.7394779,1645901619.7864301,36.0,0.0,4196.410156,3968.718018,4273.333496,4207.179688,4192.307617,0.0,1.0,15.0,,,,0.0,4.0,1.0,0.0,4.0,4.0,41.666668,,,,,,,,18.0,0.0,0.725677,0.12915,0.6564939999999999,0.1604,0.914565,-0.395514,-0.11523599999999999,-0.029897000000000003,-0.033311,-0.013035,,,,,,,,,,,,,,,,,,,,,,,,,,,,,,,,,,,,,,,,,,,,,,,,,,,,,,,,,,,,,,,,,
34161,1645901619.747292,1645901619.794244,37.0,0.0,4214.358886999999,3946.6667479999996,4219.487305,4226.153809,4171.794922,0.0,1.0,15.0,,,,0.0,4.0,1.0,0.0,4.0,4.0,41.666668,,,,,,,,,,,,,,,,,,,,,,,,,,,,,,,,,,,,,,,,,,,,,,,,,,,,,,,,,,,,,,,,,,,,,,,,,,,,,,,,,,,,
34162,1645901619.755106,1645901619.802059,38.0,0.0,4240.512695,4148.205078,4175.384765999999,4180.0,4242.563965,0.0,1.0,15.0,,,,0.0,4.0,1.0,0.0,4.0,4.0,41.666668,,,,,,,,19.0,0.0,0.725721,0.128906,0.6564939999999999,0.1604,0.9155409999999999,-0.39453699999999997,-0.104005,-0.030177999999999996,-0.0333,-0.010951,1.0,0.0,0.0,,,,,,,,,,,,,,,,,,,,,,,,,,,,,,,,0.0,0.0,1.0,0.0,512.0,1.0,1006.00177,30.106388,9.270078,6.061579,4.829597,149.170303,217.641098,49.241795,31.641277000000002,17.528254,29.317159999999998,31.895184999999998,2.077917,5.613357,14.711564000000001,9.828147,5.943226,1.636816,7.823361,4.660858999999999,372.89163199999996,13.141919,9.218655,5.340409999999999,3.7407800000000004
34163,1645901619.76292,1645901619.809873,39.0,0.0,4211.282227000001,4148.205078,4252.820313,4193.333496,4264.102539,0.0,1.0,15.0,,,,0.0,4.0,1.0,0.0,4.0,4.0,41.666668,,,,,,,,,,,,,,,,,,,,,,,,,,,,,,,,,,,,,,,,,,,,,,,,,,,,,,,,,,,,,,,,,,,,,,,,,,,,,,,,,,,,
34164,1645901619.770733,1645901619.817588,40.0,0.0,4240.512695,4047.179443,4229.230957,4194.871582,4205.641113000001,0.0,1.0,15.0,,,,0.0,4.0,1.0,0.0,4.0,4.0,41.666668,,,,,,,,20.0,0.0,0.7256670000000001,0.128906,0.6564939999999999,0.160645,0.9365379999999999,-0.40381500000000004,-0.100587,-0.030382999999999997,-0.033339,-0.012297,,,,,,,,,,,,,,,,,,,,,,,,,,,,,,,,,,,,,,,,,,,,,,,,,,,,,,,,,,,,,,,,,
34165,1645901619.778547,1645901619.825402,41.0,0.0,4288.717772999999,4097.436035,4190.256348,4162.05127,4230.769043,0.0,1.0,15.0,,,,0.0,4.0,1.0,0.0,4.0,4.0,41.666668,,,,,,,,,,,,,,,,,,,,,,,,,,,,,,,,,,,,,,,,,,,,,,,,,,,,,,,,,,,,,,,,,,,,,,,,,,,,,,,,,,,,
34166,1645901619.786361,1645901619.833217,42.0,0.0,4246.153809,4027.6923829999996,4246.153809,4190.769043,4255.897461,0.0,1.0,15.0,,,,0.0,4.0,1.0,0.0,4.0,4.0,41.666668,,,,,,,,21.0,0.0,0.725446,0.128906,0.656738,0.160645,0.9077290000000001,-0.41065100000000004,-0.116701,-0.030617000000000002,-0.033374,-0.010334999999999999,,,,,,,,,,,,,,,,,,,,,,,,,,,,,,,,,,,0.0,0.0,1.0,0.0,512.0,1.0,,,,,,,,,,,,,,,,,,,,,,,,,
34167,1645901619.794175,1645901619.841032,43.0,0.0,4212.307617,3915.897461,4285.128418,4225.128418,4209.230957,0.0,1.0,15.0,,,,0.0,4.0,1.0,0.0,4.0,4.0,41.666668,,,,,,,,,,,,,,,,,,,,,,,,,,,,,,,,,,,,,,,,,,,,,,,,,,,,,,,,,,,,,,,,,,,,,,,,,,,,,,,,,,,,
34168,1645901619.8019881,1645901619.8488462,44.0,0.0,4216.922852000001,4014.8718259999996,4236.410156,4181.538574,4197.436035,0.0,1.0,15.0,,,,0.0,4.0,1.0,0.0,4.0,4.0,41.666668,,,,,,,,22.0,0.0,0.725489,0.128662,0.656738,0.160645,0.926284,-0.41065100000000004,-0.09472799999999999,-0.030777999999999996,-0.033455,-0.011792,,,,,,,,,,,,,,,,,,,,,,,,,,,,,,,,,,,,,,,,,,,,,,,,,,,,,,,,,,,,,,,,,
34169,1645901619.809802,1645901619.8566608,45.0,0.0,4204.102539,4106.666504,4239.487305,4154.358886999999,4226.666504,0.0,1.0,15.0,,,,0.0,4.0,1.0,0.0,4.0,4.0,41.666668,,,,,,,,,,,,,,,,,,,,,,,,,,,,,,,,,,,,,,,,,,,,,,,,,,,,,,,,,,,,,,,,,,,,,,,,,,,,,,,,,,,,
34170,1645901619.817616,1645901619.864476,46.0,0.0,4222.05127,4087.179443,4248.205078,4184.615234000001,4245.128418,0.0,1.0,15.0,,,,0.0,4.0,1.0,0.0,4.0,4.0,41.666668,,,,,,,,23.0,0.0,0.7255,0.128906,0.656738,0.1604,0.916518,-0.41358100000000003,-0.09765800000000001,-0.030775999999999998,-0.033479,-0.009831,,,,,,,,,,,,,,,,,,,,,,,,,,,,,,,,,,,0.0,0.0,1.0,0.0,512.0,1.0,,,,,,,,,,,,,,,,,,,,,,,,,
34171,1645901619.825429,1645901619.8722901,47.0,0.0,4223.589844,4116.922852000001,4287.692383,4207.692383,4226.666504,0.0,1.0,15.0,,,,0.0,4.0,1.0,0.0,4.0,4.0,41.666668,,,,,,,,,,,,,,,,,,,,,,,,,,,,,,,,,,,,,,,,,,,,,,,,,,,,,,,,,,,,,,,,,,,,,,,,,,,,,,,,,,,,
34172,1645901619.833243,1645901619.880105,48.0,0.0,4206.153809,4131.794922,4251.282227000001,4179.487305,4203.077147999999,0.0,1.0,15.0,,,,0.0,4.0,1.0,0.0,4.0,4.0,41.666668,,,,,,,,24.0,0.0,0.7255,0.128906,0.656738,0.1604,0.910658,-0.40576799999999996,-0.107424,-0.030872000000000004,-0.033549,-0.011192,,,,,,,,,,,,,,,,,,,,,,,,,,,,,,,,,,,,,,,,,,,,,,,,,,,,,,,,,,,,,,,,,
34173,1645901619.841057,1645901619.887919,49.0,0.0,4224.102539,4127.179688,4219.487305,4125.641113000001,4211.282227000001,0.0,1.0,15.0,,,,0.0,4.0,1.0,0.0,4.0,4.0,41.666668,,,,,,,,,,,,,,,,,,,,,,,,,,,,,,,,,,,,,,,,,,,,,,,,,,,,,,,,,,,,,,,,,,,,,,,,,,,,,,,,,,,,
34174,1645901619.848871,1645901619.895634,50.0,0.0,4256.922852000001,4158.461426,4254.871582,4148.205078,4224.102539,0.0,1.0,15.0,,,,0.0,4.0,1.0,0.0,4.0,4.0,41.666668,,,,,,,,25.0,0.0,0.7255,0.128906,0.656738,0.1604,0.93019,-0.404791,-0.1084,-0.030958999999999997,-0.033464999999999995,-0.009389,,,,,,,,,,,,,,,,,,,,,,,,,,,,,,,,,,,0.0,0.0,1.0,0.0,512.0,1.0,,,,,,,,,,,,,,,,,,,,,,,,,
34175,1645901619.856684,1645901619.903448,51.0,0.0,4270.769043,4121.025879,4259.487305,4193.333496,4203.077147999999,0.0,1.0,15.0,,,,0.0,4.0,1.0,0.0,4.0,4.0,41.666668,,,,,,,,,,,,,,,,,,,,,,,,,,,,,,,,,,,,,,,,,,,,,,,,,,,,,,,,,,,,,,,,,,,,,,,,,,,,,,,,,,,,
34176,1645901619.8644981,1645901619.911263,52.0,0.0,4274.358886999999,4082.0512700000004,4202.563965,4185.641113000001,4230.256348,0.0,1.0,15.0,,,,0.0,4.0,1.0,0.0,4.0,4.0,41.666668,,,,,,,,26.0,0.0,0.725554,0.128906,0.656738,0.160156,0.921889,-0.393072,-0.104005,-0.031037000000000002,-0.033389999999999996,-0.010794,,,,,,,,,,,,,,,,,,,,,,,,,,,,,,,,,,,,,,,,,,,,,,,,,,,,,,,,,,,,,,,,,
34177,1645901619.8723118,1645901619.919077,53.0,0.0,4237.94873,4073.3332520000004,4222.05127,4181.025879,4228.717772999999,0.0,1.0,15.0,,,,0.0,4.0,1.0,0.0,4.0,4.0,41.666668,,,,,,,,,,,,,,,,,,,,,,,,,,,,,,,,,,,,,,,,,,,,,,,,,,,,,,,,,,,,,,,,,,,,,,,,,,,,,,,,,,,,
34178,1645901619.880125,1645901619.926892,54.0,0.0,4250.769043,3995.384521,4218.461426,4210.769043,4203.077147999999,0.0,1.0,15.0,,,,0.0,4.0,1.0,0.0,4.0,4.0,41.666668,,,,,,,,27.0,0.0,0.725554,0.128906,0.656738,0.160156,0.9199360000000001,-0.388678,-0.11133,-0.031156,-0.033421,-0.00908,1.0,0.0,0.0,,,,,,,,,,,,,,,,,,,,,,,,,,,,,,,,0.0,0.0,1.0,0.0,512.0,1.0,934.4420779999999,26.327681,7.886796,6.426431,6.8484039999999995,130.01207,211.91125499999998,42.790276,33.84816,21.889112,28.156004,29.175234000000003,2.6790580000000004,6.553723,21.176586,9.515429,7.444227000000001,1.364894,8.813492,6.417379,331.91992200000004,11.267013,8.181291,5.252813,5.420819
34179,1645901619.887939,1645901619.934706,55.0,0.0,4275.384765999999,3922.5642090000006,4197.94873,4189.743652,4250.256348,0.0,1.0,15.0,,,,0.0,4.0,1.0,0.0,4.0,4.0,41.666668,,,,,,,,,,,,,,,,,,,,,,,,,,,,,,,,,,,,,,,,,,,,,,,,,,,,,,,,,,,,,,,,,,,,,,,,,,,,,,,,,,,,
34180,1645901619.895753,1645901619.94252,56.0,0.0,4232.307617,3911.281982,4266.153809,4168.717772999999,4261.025879,0.0,1.0,15.0,,,,0.0,4.0,1.0,0.0,4.0,4.0,41.666668,,,,,,,,28.0,0.0,0.7255,0.128906,0.656738,0.1604,0.918959,-0.387701,-0.092775,-0.03141,-0.033399,-0.010564,,,,,,,,,,,,,,,,,,,,,,,,,,,,,,,,,,,,,,,,,,,,,,,,,,,,,,,,,,,,,,,,,
34181,1645901619.903567,1645901619.950335,57.0,0.0,4223.077147999999,3867.6923829999996,4233.846191,4166.153809,4182.563965,0.0,1.0,15.0,,,,0.0,4.0,1.0,0.0,4.0,4.0,41.666668,,,,,,,,,,,,,,,,,,,,,,,,,,,,,,,,,,,,,,,,,,,,,,,,,,,,,,,,,,,,,,,,,,,,,,,,,,,,,,,,,,,,
34182,1645901619.91138,1645901619.958149,58.0,0.0,4278.461426,3876.923096,4191.794922,4140.512695,4206.666504,0.0,1.0,15.0,,,,0.0,4.0,1.0,0.0,4.0,4.0,41.666668,,,,,,,,29.0,0.0,0.7255,0.128906,0.656738,0.1604,0.9277489999999999,-0.401862,-0.097169,-0.031442000000000005,-0.033428,-0.011949,,,,,,,,,,,,,,,,,,,,,,,,,,,,,,,,,,,0.0,0.0,1.0,0.0,512.0,1.0,,,,,,,,,,,,,,,,,,,,,,,,,
34183,1645901619.919194,1645901619.9658642,59.0,0.0,4250.256348,3927.179443,4258.974121,4133.333496,4263.589844,0.0,1.0,15.0,,,,0.0,4.0,1.0,0.0,4.0,4.0,41.666668,,,,,,,,,,,,,,,,,,,,,,,,,,,,,,,,,,,,,,,,,,,,,,,,,,,,,,,,,,,,,,,,,,,,,,,,,,,,,,,,,,,,
34184,1645901619.927008,1645901619.9736788,60.0,0.0,4202.563965,3881.025635,4289.230957,4166.666504,4231.794922,0.0,1.0,15.0,,,,0.0,4.0,1.0,0.0,4.0,4.0,41.666668,,,,,,,,30.0,0.0,0.7255,0.128906,0.656738,0.1604,0.9043110000000001,-0.390631,-0.096193,-0.031472,-0.033455,-0.013097999999999999,,,,,,,,,,,,,,,,,,,,,,,,,,,,,,,,,,,,,,,,,,,,,,,,,,,,,,,,,,,,,,,,,
34185,1645901619.934822,1645901619.981493,61.0,0.0,4223.077147999999,3895.897461,4218.974121,4188.205078,4218.974121,0.0,1.0,15.0,,,,0.0,4.0,1.0,0.0,4.0,4.0,41.666668,,,,,,,,,,,,,,,,,,,,,,,,,,,,,,,,,,,,,,,,,,,,,,,,,,,,,,,,,,,,,,,,,,,,,,,,,,,,,,,,,,,,
34186,1645901619.942635,1645901619.989208,62.0,0.0,4233.846191,4049.743652,4228.717772999999,4183.589844,4231.282227000001,0.0,1.0,15.0,,,,0.0,4.0,1.0,0.0,4.0,4.0,41.666668,,,,,,,,31.0,0.0,0.7255,0.128906,0.656738,0.1604,0.914565,-0.401373,-0.106447,-0.03145,-0.033477999999999994,-0.011154,,,,,,,,,,,,,,,,,,,,,,,,,,,,,,,,,,,0.0,0.0,1.0,0.0,512.0,1.0,,,,,,,,,,,,,,,,,,,,,,,,,
34187,1645901619.950449,1645901619.9970222,63.0,0.0,4236.410156,4088.205078,4243.589844,4176.410156,4243.077147999999,0.0,1.0,15.0,,,,0.0,4.0,1.0,0.0,4.0,4.0,41.666668,,,,,,,,,,,,,,,,,,,,,,,,,,,,,,,,,,,,,,,,,,,,,,,,,,,,,,,,,,,,,,,,,,,,,,,,,,,,,,,,,,,,
34188,1645901619.9582632,1645901620.0048368,64.0,0.0,4230.256348,3988.718018,4272.307617,4195.897461,4247.179688,450.0,1.0,15.0,,,,0.0,4.0,1.0,0.0,4.0,4.0,41.666668,,,,,,,,32.0,0.0,0.7255,0.128906,0.656738,0.1604,0.9350729999999999,-0.400885,-0.10888800000000001,-0.031528,-0.033451,-0.009355,,,,,,,,,,,,,,,,,,,,,,,,,,,,,,,,,,,,,,,,,,,,,,,,,,,,,,,,,,,,,,,,,
34189,1645901619.966076,1645901620.012651,65.0,0.0,4243.589844,4028.205078,4245.641113000001,4193.846191,4232.820313,450.0,1.0,15.0,,,,0.0,4.0,1.0,0.0,4.0,4.0,41.666668,,,,,,,,,,,,,,,,,,,,,,,,,,,,,,,,,,,,,,,,,,,,,,,,,,,,,,,,,,,,,,,,,,,,,,,,,,,,,,,,,,,,
34190,1645901619.97389,1645901620.0204651,66.0,0.0,4257.94873,4128.205078,4232.820313,4135.897461,4232.307617,16198.0,1.0,15.0,,,,0.0,4.0,1.0,0.0,4.0,4.0,41.666668,,,,,,,,33.0,0.0,0.725597,0.128662,0.656738,0.160156,0.929213,-0.400885,-0.10498199999999999,-0.0315,-0.033524,-0.011007,,,,,,,,,,,,,,,,,,,,,,,,,,,,,,,,,,,0.0,0.0,1.0,0.0,512.0,1.0,,,,,,,,,,,,,,,,,,,,,,,,,
34191,1645901619.981704,1645901620.0281801,67.0,0.0,4253.846191,4094.8718259999996,4258.974121,4143.077147999999,4240.0,450.0,1.0,15.0,,,,0.0,4.0,1.0,0.0,4.0,4.0,41.666668,,,,,,,,,,,,,,,,,,,,,,,,,,,,,,,,,,,,,,,,,,,,,,,,,,,,,,,,,,,,,,,,,,,,,,,,,,,,,,,,,,,,
34192,1645901619.989518,1645901620.035995,68.0,0.0,4270.256348,4031.794922,4240.0,4175.384765999999,4210.256348,95.0,1.0,15.0,,,,0.0,4.0,1.0,0.0,4.0,4.0,41.666668,,,,,,,,34.0,0.0,0.7255,0.128906,0.656738,0.1604,0.908217,-0.40235,-0.109865,-0.031573000000000004,-0.033541,-0.012445999999999999,,,,,,,,,,,,,,,,,,,,,,,,,,,,,,,,,,,,,,,,,,,,,,,,,,,,,,,,,,,,,,,,,
34193,1645901619.997332,1645901620.043809,69.0,0.0,4297.436035,4039.487061,4184.102539,4170.769043,4219.487305,450.0,1.0,15.0,,,,0.0,4.0,1.0,0.0,4.0,4.0,41.666668,,,,,,,,,,,,,,,,,,,,,,,,,,,,,,,,,,,,,,,,,,,,,,,,,,,,,,,,,,,,,,,,,,,,,,,,,,,,,,,,,,,,
34194,1645901620.0051448,1645901620.051624,70.0,0.0,4257.94873,4035.897461,4195.897461,4181.025879,4224.615234000001,0.0,1.0,15.0,,,,0.0,4.0,1.0,0.0,4.0,4.0,41.666668,,,,,,,,35.0,0.0,0.725554,0.128906,0.656738,0.160156,0.9199360000000001,-0.392584,-0.109865,-0.031687,-0.033507,-0.010517,1.0,0.0,0.0,,,,,,,,,,,,,,,,,,,,,,,,,,,,,,,,0.0,0.0,1.0,0.0,512.0,1.0,763.996704,20.617153,6.102689,6.188589,8.86909,105.899529,184.364716,37.229084,34.147273999999996,27.766096,27.451866,26.337296999999996,3.4950330000000003,7.264558,28.098646000000002,8.840665,9.165955,1.380292,9.68464,8.376936,260.215637,9.239614,6.848666000000001,4.873805,7.226819
34195,1645901620.012959,1645901620.059439,71.0,0.0,4261.025879,4028.205078,4207.179688,4210.256348,4226.153809,450.0,1.0,15.0,,,,0.0,4.0,1.0,0.0,4.0,4.0,41.666668,,,,,,,,,,,,,,,,,,,,,,,,,,,,,,,,,,,,,,,,,,,,,,,,,,,,,,,,,,,,,,,,,,,,,,,,,,,,,,,,,,,,
34196,1645901620.020773,1645901620.0672529,72.0,0.0,4315.384765999999,4049.2307130000004,4194.358886999999,4184.615234000001,4263.077147999999,450.0,1.0,15.0,,,,0.0,4.0,1.0,0.0,4.0,4.0,41.666668,,,,,,,,36.0,0.0,0.725597,0.128662,0.656738,0.160156,0.929213,-0.400885,-0.10498199999999999,-0.031643,-0.033574,-0.012054,,,,,,,,,,,,,,,,,,,,,,,,,,,,,,,,,,,,,,,,,,,,,,,,,,,,,,,,,,,,,,,,,
34197,1645901620.0285869,1645901620.075068,73.0,0.0,4341.538574,4055.384521,4234.358886999999,4164.102539,4287.692383,16091.0,1.0,15.0,,,,0.0,4.0,1.0,0.0,4.0,4.0,41.666668,,,,,,,,,,,,,,,,,,,,,,,,,,,,,,,,,,,,,,,,,,,,,,,,,,,,,,,,,,,,,,,,,,,,,,,,,,,,,,,,,,,,
34198,1645901620.0364,1645901620.0828831,74.0,0.0,4354.871582,4045.641113,4231.794922,4163.589844,4258.974121,450.0,1.0,15.0,,,,0.0,4.0,1.0,0.0,4.0,4.0,41.666668,,,,,,,,37.0,0.0,0.725554,0.128906,0.656738,0.160156,0.926284,-0.406256,-0.11425999999999999,-0.031702,-0.033537,-0.013338,,,,,,,,,,,,,,,,,,,,,,,,,,,,,,,,,,,0.0,0.0,1.0,0.0,512.0,1.0,,,,,,,,,,,,,,,,,,,,,,,,,
34199,1645901620.044214,1645901620.090697,75.0,0.0,4376.410156,4073.8461909999996,4225.641113000001,4146.153809,4247.692383,16159.0,1.0,15.0,,,,0.0,4.0,1.0,0.0,4.0,4.0,41.666668,,,,,,,,,,,,,,,,,,,,,,,,,,,,,,,,,,,,,,,,,,,,,,,,,,,,,,,,,,,,,,,,,,,,,,,,,,,,,,,,,,,,
34200,1645901620.052028,1645901620.098512,76.0,0.0,4360.0,4120.0,4264.102539,4147.179688,4265.641113000001,450.0,1.0,15.0,,,,0.0,4.0,1.0,0.0,4.0,4.0,41.666668,,,,,,,,38.0,0.0,0.72551,0.12915,0.656738,0.160156,0.9184709999999999,-0.41113900000000003,-0.101564,-0.031705000000000004,-0.033455,-0.014544,,,,,,,,,,,,,,,,,,,,,,,,,,,,,,,,,,,,,,,,,,,,,,,,,,,,,,,,,,,,,,,,,
34201,1645901620.059841,1645901620.106327,77.0,0.0,4331.794922,4150.769043,4304.615234000001,4166.153809,4266.153809,450.0,1.0,15.0,,,,0.0,4.0,1.0,0.0,4.0,4.0,41.666668,,,,,,,,,,,,,,,,,,,,,,,,,,,,,,,,,,,,,,,,,,,,,,,,,,,,,,,,,,,,,,,,,,,,,,,,,,,,,,,,,,,,
34202,1645901620.067655,1645901620.114041,78.0,0.0,4332.820313,4140.512695,4262.563965,4150.256348,4275.384765999999,450.0,1.0,15.0,,,,0.0,4.0,1.0,0.0,4.0,4.0,41.666668,,,,,,,,39.0,0.0,0.72551,0.12915,0.656738,0.160156,0.917494,-0.403326,-0.100587,-0.03166,-0.033527999999999995,-0.012406,,,,,,,,,,,,,,,,,,,,,,,,,,,,,,,,,,,0.0,0.0,1.0,0.0,512.0,1.0,,,,,,,,,,,,,,,,,,,,,,,,,
34203,1645901620.075469,1645901620.121756,79.0,0.0,4321.025879,4122.05127,4307.692383,4133.333496,4275.897461,16159.0,1.0,15.0,,,,0.0,4.0,1.0,0.0,4.0,4.0,41.666668,,,,,,,,,,,,,,,,,,,,,,,,,,,,,,,,,,,,,,,,,,,,,,,,,,,,,,,,,,,,,,,,,,,,,,,,,,,,,,,,,,,,
34204,1645901620.083283,1645901620.1295712,80.0,0.0,4326.153809,4136.410156,4295.384765999999,4115.384765999999,4273.333496,450.0,1.0,15.0,,,,0.0,4.0,1.0,0.0,4.0,4.0,41.666668,,,,,,,,40.0,0.0,0.725456,0.12915,0.656738,0.1604,0.923842,-0.39502600000000004,-0.1084,-0.03157,-0.033544,-0.013509,,,,,,,,,,,,,,,,,,,,,,,,,,,,,,,,,,,,,,,,,,,,,,,,,,,,,,,,,,,,,,,,,
34205,1645901620.0910962,1645901620.137385,81.0,0.0,4323.589844,4146.666504,4217.436035,4077.4357909999994,4279.487305,450.0,1.0,15.0,,,,0.0,4.0,1.0,0.0,4.0,4.0,41.666668,,,,,,,,,,,,,,,,,,,,,,,,,,,,,,,,,,,,,,,,,,,,,,,,,,,,,,,,,,,,,,,,,,,,,,,,,,,,,,,,,,,,
34206,1645901620.0989099,1645901620.1452,82.0,0.0,4327.179688,4091.281982,4208.205078,4111.282227000001,4275.897461,450.0,1.0,15.0,,,,0.0,4.0,1.0,0.0,4.0,4.0,41.666668,,,,,,,,41.0,0.0,0.7252350000000001,0.12915,0.656982,0.1604,0.921889,-0.392584,-0.113283,-0.031636000000000004,-0.033559,-0.011523,,,,,,,,,,,,,,,,,,,,,,,,,,,,,,,,,,,0.0,0.0,1.0,0.0,512.0,1.0,,,,,,,,,,,,,,,,,,,,,,,,,
34207,1645901620.106724,1645901620.153014,83.0,0.0,4350.769043,4060.512939,4253.333496,4171.794922,4260.512695,16159.0,1.0,15.0,,,,0.0,4.0,1.0,0.0,4.0,4.0,41.666668,,,,,,,,,,,,,,,,,,,,,,,,,,,,,,,,,,,,,,,,,,,,,,,,,,,,,,,,,,,,,,,,,,,,,,,,,,,,,,,,,,,,
34208,1645901620.1145382,1645901620.1608288,84.0,0.0,4355.897461,4086.1538090000004,4215.897461,4172.820313,4271.282227000001,450.0,1.0,15.0,,,,0.0,4.0,1.0,0.0,4.0,4.0,41.666668,,,,,,,,42.0,0.0,0.7252350000000001,0.12915,0.656982,0.1604,0.929702,-0.394049,-0.104494,-0.031744,-0.03367,-0.012715,,,,,,,,,,,,,,,,,,,,,,,,,,,,,,,,,,,,,,,,,,,,,,,,,,,,,,,,,,,,,,,,,
34209,1645901620.122351,1645901620.168644,85.0,0.0,4321.538574,4046.6667479999996,4209.230957,4158.461426,4267.692383,450.0,1.0,15.0,,,,0.0,4.0,1.0,0.0,4.0,4.0,41.666668,,,,,,,,,,,,,,,,,,,,,,,,,,,,,,,,,,,,,,,,,,,,,,,,,,,,,,,,,,,,,,,,,,,,,,,,,,,,,,,,,,,,
34210,1645901620.130165,1645901620.1764581,86.0,0.0,4304.102539,4052.3076170000004,4237.436035,4188.205078,4263.589844,450.0,1.0,15.0,,,,0.0,4.0,1.0,0.0,4.0,4.0,41.666668,0.972656,25.0,3.0,0.0,0.0,3.0,3.0,43.0,0.0,0.7252350000000001,0.12915,0.656982,0.1604,0.922866,-0.403326,-0.098634,-0.031792,-0.03377,-0.013885,1.0,0.0,0.0,,,,,,,,,,,,,,,,,,,,,,,,,,,,,,,,0.0,0.0,1.0,0.0,512.0,1.0,543.411926,14.6106,4.386322,5.504054,10.407727000000001,87.907913,145.03388999999999,37.241440000000004,32.741421,34.341251,27.219995,23.671357999999998,4.275059,7.4767589999999995,33.838692,8.138057,10.532409,1.7613900000000002,10.379124000000001,10.083,177.925201,7.674646000000001,5.487457,4.379891000000001,8.743521000000001
34211,1645901620.1379788,1645901620.184173,87.0,0.0,4291.282227000001,4112.820313,4172.820313,4197.94873,4264.102539,16159.0,1.0,15.0,,,,0.0,4.0,1.0,0.0,4.0,4.0,41.666668,,,,,,,,,,,,,,,,,,,,,,,,,,,,,,,,,,,,,,,,,,,,,,,,,,,,,,,,,,,,,,,,,,,,,,,,,,,,,,,,,,,,
34212,1645901620.145792,1645901620.191988,88.0,0.0,4283.589844,4095.384521,4163.077147999999,4175.897461,4279.487305,450.0,1.0,15.0,,,,0.0,4.0,1.0,0.0,4.0,4.0,41.666668,,,,,,,,44.0,0.0,0.7251810000000001,0.12915,0.656982,0.160645,0.922377,-0.401373,-0.10693499999999999,-0.028662,-0.033811,-0.01484,,,,,,,,,,,,,,,,,,,,,,,,,,,,,,,,,,,,,,,,,,,,,,,,,,,,,,,,,,,,,,,,,
34213,1645901620.153606,1645901620.199802,89.0,0.0,4286.666504,4074.8718259999996,4235.384765999999,4138.974121,4276.410156,450.0,1.0,15.0,,,,0.0,4.0,1.0,0.0,4.0,4.0,41.666668,,,,,,,,,,,,,,,,,,,,,,,,,,,,,,,,,,,,,,,,,,,,,,,,,,,,,,,,,,,,,,,,,,,,,,,,,,,,,,,,,,,,
34214,1645901620.1614199,1645901620.207617,90.0,0.0,4296.410156,4109.230957,4261.025879,4127.692383,4275.384765999999,450.0,1.0,15.0,,,,0.0,4.0,1.0,0.0,4.0,4.0,41.666668,,,,,,,,45.0,0.0,0.7251810000000001,0.12915,0.656982,0.160645,0.925795,-0.398444,-0.095705,-0.029067000000000003,-0.033848,-0.012672,,,,,,,,,,,,,,,,,,,,,,,,,,,,,,,,,,,0.0,0.0,1.0,0.0,512.0,1.0,,,,,,,,,,,,,,,,,,,,,,,,,
34215,1645901620.169234,1645901620.215432,91.0,0.0,4302.05127,4097.94873,4243.077147999999,4141.025879,4277.94873,16159.0,1.0,15.0,,,,0.0,4.0,1.0,0.0,4.0,4.0,41.666668,,,,,,,,,,,,,,,,,,,,,,,,,,,,,,,,,,,,,,,,,,,,,,,,,,,,,,,,,,,,,,,,,,,,,,,,,,,,,,,,,,,,
34216,1645901620.177047,1645901620.223246,92.0,0.0,4323.077147999999,4121.025879,4271.794922,4124.615234000001,4270.256348,450.0,1.0,15.0,,,,0.0,4.0,1.0,0.0,4.0,4.0,41.666668,,,,,,,,46.0,0.0,0.7251270000000001,0.12915,0.656982,0.160889,0.9194479999999999,-0.396002,-0.111818,-0.029383,-0.033832,-0.013798,,,,,,,,,,,,,,,,,,,,,,,,,,,,,,,,,,,,,,,,,,,,,,,,,,,,,,,,,,,,,,,,,
34217,1645901620.184861,1645901620.231061,93.0,0.0,4329.230957,4203.077147999999,4284.615234000001,4110.256348,4271.794922,450.0,1.0,15.0,,,,0.0,4.0,1.0,0.0,4.0,4.0,41.666668,,,,,,,,,,,,,,,,,,,,,,,,,,,,,,,,,,,,,,,,,,,,,,,,,,,,,,,,,,,,,,,,,,,,,,,,,,,,,,,,,,,,
34218,1645901620.192675,1645901620.2388759,94.0,0.0,4317.94873,4206.153809,4288.717772999999,4146.666504,4255.897461,450.0,1.0,15.0,,,,0.0,4.0,1.0,0.0,4.0,4.0,41.666668,,,,,,,,47.0,0.0,0.725083,0.129395,0.656982,0.160889,0.9121229999999999,-0.408209,-0.10547000000000001,-0.029716000000000003,-0.033623,-0.014859,,,,,,,,,,,,,,,,,,,,,,,,,,,,,,,,,,,0.0,0.0,1.0,0.0,512.0,1.0,,,,,,,,,,,,,,,,,,,,,,,,,
34219,1645901620.200489,1645901620.24669,95.0,0.0,4339.487305,4198.974121,4227.692383,4155.384765999999,4258.461426,16159.0,1.0,15.0,,,,0.0,4.0,1.0,0.0,4.0,4.0,41.666668,,,,,,,,,,,,,,,,,,,,,,,,,,,,,,,,,,,,,,,,,,,,,,,,,,,,,,,,,,,,,,,,,,,,,,,,,,,,,,,,,,,,
34220,1645901620.208302,1645901620.2545052,96.0,0.0,4329.230957,4213.846191,4244.615234000001,4147.179688,4271.282227000001,450.0,1.0,15.0,,,,0.0,4.0,1.0,0.0,4.0,4.0,41.666668,,,,,,,,48.0,0.0,0.7251380000000001,0.129395,0.656982,0.160645,0.9233540000000001,-0.397955,-0.10351700000000001,-0.029919,-0.03363,-0.015815,,,,,,,,,,,,,,,,,,,,,,,,,,,,,,,,,,,,,,,,,,,,,,,,,,,,,,,,,,,,,,,,,
34221,1645901620.216116,1645901620.262219,97.0,0.0,4321.538574,4170.256348,4259.487305,4154.358886999999,4273.333496,450.0,1.0,15.0,,,,0.0,4.0,1.0,0.0,4.0,4.0,41.666668,,,,,,,,,,,,,,,,,,,,,,,,,,,,,,,,,,,,,,,,,,,,,,,,,,,,,,,,,,,,,,,,,,,,,,,,,,,,,,,,,,,,
34222,1645901620.2239301,1645901620.270034,98.0,0.0,4334.358886999999,4154.358886999999,4255.384765999999,4126.666504,4275.897461,450.0,1.0,15.0,,,,0.0,4.0,1.0,0.0,4.0,4.0,41.666668,,,,,,,,49.0,0.0,0.725083,0.129395,0.656982,0.160889,0.920424,-0.40576799999999996,-0.101076,-0.030149000000000002,-0.033538,-0.013500999999999999,,,,,,,,,,,,,,,,,,,,,,,,,,,,,,,,,,,0.0,0.0,1.0,0.0,512.0,1.0,,,,,,,,,,,,,,,,,,,,,,,,,
34223,1645901620.2317429,1645901620.277848,99.0,0.0,4344.102539,4179.487305,4224.615234000001,4127.692383,4276.922852000001,16159.0,1.0,15.0,,,,0.0,4.0,1.0,0.0,4.0,4.0,41.666668,,,,,,,,,,,,,,,,,,,,,,,,,,,,,,,,,,,,,,,,,,,,,,,,,,,,,,,,,,,,,,,,,,,,,,,,,,,,,,,,,,,,
34224,1645901620.239557,1645901620.2856631,100.0,0.0,4346.153809,4186.666504,4210.769043,4133.333496,4269.743652,450.0,1.0,15.0,,,,0.0,4.0,1.0,0.0,4.0,4.0,41.666668,,,,,,,,50.0,0.0,0.725083,0.129395,0.656982,0.160889,0.93019,-0.400397,-0.103029,-0.030260000000000002,-0.033554,-0.014544,,,,,,,,,,,,,,,,,,,,,,,,,,,,,,,,,,,,,,,,,,,,,,,,,,,,,,,,,,,,,,,,,
34225,1645901620.2473712,1645901620.293477,101.0,0.0,4338.461426,4151.794922,4216.922852000001,4137.94873,4275.897461,450.0,1.0,15.0,,,,0.0,4.0,1.0,0.0,4.0,4.0,41.666668,,,,,,,,,,,,,,,,,,,,,,,,,,,,,,,,,,,,,,,,,,,,,,,,,,,,,,,,,,,,,,,,,,,,,,,,,,,,,,,,,,,,
34226,1645901620.255185,1645901620.301292,102.0,0.0,4313.333496,4124.615234000001,4188.717772999999,4150.769043,4252.307617,450.0,1.0,15.0,,,,0.0,4.0,1.0,0.0,4.0,4.0,41.666668,,,,,,,,51.0,0.0,0.725305,0.129395,0.656738,0.160889,0.917983,-0.409674,-0.103029,-0.030358999999999997,-0.033421,-0.015628,1.0,0.0,0.0,,,,,,,,,,,,,,,,,,,,,,,,,,,,,,,,0.0,0.0,1.0,0.0,512.0,1.0,331.27441400000004,9.801703,3.12459,4.647785,11.071964,84.379829,107.331207,44.744049,30.490849,40.434959,27.542562,21.606920000000002,4.764675,7.103405,36.864014000000005,7.838996000000001,11.142242,2.686525,10.777136,11.073773,105.258347,6.697267,4.384834,3.9344019999999995,9.604597
34227,1645901620.262998,1645901620.309106,103.0,0.0,4308.205078,4176.410156,4185.128418,4155.384765999999,4242.563965,16159.0,1.0,15.0,,,,0.0,4.0,1.0,0.0,4.0,4.0,41.666668,,,,,,,,,,,,,,,,,,,,,,,,,,,,,,,,,,,,,,,,,,,,,,,,,,,,,,,,,,,,,,,,,,,,,,,,,,,,,,,,,,,,
34228,1645901620.2708118,1645901620.3169198,104.0,0.0,4297.436035,4173.846191,4216.410156,4160.0,4248.205078,450.0,1.0,15.0,,,,0.0,4.0,1.0,0.0,4.0,4.0,41.666668,,,,,,,,52.0,0.0,0.7252609999999999,0.129639,0.656738,0.160889,0.9111469999999999,-0.404791,-0.109865,-0.030497000000000003,-0.033253,-0.013333000000000001,,,,,,,,,,,,,,,,,,,,,,,,,,,,,,,,,,,,,,,,,,,,,,,,,,,,,,,,,,,,,,,,,
34229,1645901620.278626,1645901620.324735,105.0,0.0,4291.794922,4127.179688,4240.0,4187.179688,4263.077147999999,450.0,1.0,15.0,,,,0.0,4.0,1.0,0.0,4.0,4.0,41.666668,,,,,,,,,,,,,,,,,,,,,,,,,,,,,,,,,,,,,,,,,,,,,,,,,,,,,,,,,,,,,,,,,,,,,,,,,,,,,,,,,,,,
34230,1645901620.2864401,1645901620.332449,106.0,0.0,4310.256348,4168.205078,4198.974121,4172.820313,4280.0,450.0,1.0,15.0,,,,0.0,4.0,1.0,0.0,4.0,4.0,41.666668,,,,,,,,53.0,0.0,0.7252609999999999,0.129639,0.656738,0.160889,0.921401,-0.39942,-0.10888800000000001,-0.027496,-0.033345,-0.014391999999999999,,,,,,,,,,,,,,,,,,,,,,,,,,,,,,,,,,,0.0,0.0,1.0,0.0,512.0,1.0,,,,,,,,,,,,,,,,,,,,,,,,,
34231,1645901620.2942529,1645901620.340264,107.0,0.0,4304.615234000001,4231.282227000001,4213.846191,4135.897461,4286.153809,16159.0,1.0,15.0,,,,0.0,4.0,1.0,0.0,4.0,4.0,41.666668,,,,,,,,,,,,,,,,,,,,,,,,,,,,,,,,,,,,,,,,,,,,,,,,,,,,,,,,,,,,,,,,,,,,,,,,,,,,,,,,,,,,
34232,1645901620.302067,1645901620.348078,108.0,0.0,4281.538574,4251.282227000001,4267.692383,4129.230957,4270.769043,450.0,1.0,15.0,,,,0.0,4.0,1.0,0.0,4.0,4.0,41.666668,,,,,,,,54.0,0.0,0.7253149999999999,0.129639,0.656738,0.160645,0.917494,-0.41406899999999996,-0.102052,-0.028018,-0.03338,-0.015394999999999999,,,,,,,,,,,,,,,,,,,,,,,,,,,,,,,,,,,,,,,,,,,,,,,,,,,,,,,,,,,,,,,,,
34233,1645901620.309881,1645901620.355892,109.0,0.0,4303.589844,4300.512695,4269.230957,4118.974121,4261.538574,450.0,1.0,15.0,,,,0.0,4.0,1.0,0.0,4.0,4.0,41.666668,,,,,,,,,,,,,,,,,,,,,,,,,,,,,,,,,,,,,,,,,,,,,,,,,,,,,,,,,,,,,,,,,,,,,,,,,,,,,,,,,,,,
34234,1645901620.317695,1645901620.363707,110.0,0.0,4312.820313,4272.820313,4236.410156,4117.94873,4280.512695,450.0,1.0,15.0,,,,0.0,4.0,1.0,0.0,4.0,4.0,41.666668,,,,,,,,55.0,0.0,0.7250939999999999,0.129639,0.656982,0.160645,0.9233540000000001,-0.397467,-0.11035299999999999,-0.025265,-0.033362,-0.016297,,,,,,,,,,,,,,,,,,,,,,,,,,,,,,,,,,,0.0,0.0,1.0,0.0,512.0,1.0,,,,,,,,,,,,,,,,,,,,,,,,,
34235,1645901620.325508,1645901620.371521,111.0,0.0,4287.692383,4165.128418,4277.436035,4141.538574,4270.256348,16159.0,1.0,15.0,,,,0.0,4.0,1.0,0.0,4.0,4.0,41.666668,,,,,,,,,,,,,,,,,,,,,,,,,,,,,,,,,,,,,,,,,,,,,,,,,,,,,,,,,,,,,,,,,,,,,,,,,,,,,,,,,,,,
34236,1645901620.333322,1645901620.3793359,112.0,0.0,4309.230957,4225.641113000001,4257.436035,4131.794922,4269.230957,450.0,1.0,15.0,,,,0.0,4.0,1.0,0.0,4.0,4.0,41.666668,,,,,,,,56.0,0.0,0.7250939999999999,0.129639,0.656982,0.160645,0.9277489999999999,-0.395514,-0.114748,-0.025863,-0.033395,-0.017157,,,,,,,,,,,,,,,,,,,,,,,,,,,,,,,,,,,,,,,,,,,,,,,,,,,,,,,,,,,,,,,,,
34237,1645901620.341136,1645901620.38715,113.0,0.0,4331.794922,4334.358886999999,4238.974121,4127.692383,4270.769043,450.0,1.0,15.0,,,,0.0,4.0,1.0,0.0,4.0,4.0,41.666668,,,,,,,,,,,,,,,,,,,,,,,,,,,,,,,,,,,,,,,,,,,,,,,,,,,,,,,,,,,,,,,,,,,,,,,,,,,,,,,,,,,,
34238,1645901620.34895,1645901620.394965,114.0,0.0,4351.794922,4319.487305,4210.769043,4144.102539,4282.05127,450.0,1.0,15.0,,,,0.0,4.0,1.0,0.0,4.0,4.0,41.666668,,,,,,,,57.0,0.0,0.7253149999999999,0.129639,0.656738,0.160645,0.917494,-0.41406899999999996,-0.102052,-0.0265,-0.033425,-0.01466,,,,,,,,,,,,,,,,,,,,,,,,,,,,,,,,,,,0.0,0.0,1.0,0.0,512.0,1.0,,,,,,,,,,,,,,,,,,,,,,,,,
34239,1645901620.3567631,1645901620.402679,115.0,0.0,4347.692383,4280.512695,4202.05127,4120.0,4304.615234000001,16159.0,1.0,15.0,,,,0.0,4.0,1.0,0.0,4.0,4.0,41.666668,,,,,,,,,,,,,,,,,,,,,,,,,,,,,,,,,,,,,,,,,,,,,,,,,,,,,,,,,,,,,,,,,,,,,,,,,,,,,,,,,,,,
34240,1645901620.364577,1645901620.4104939,116.0,0.0,4338.461426,4307.692383,4189.743652,4123.077147999999,4301.025879,450.0,1.0,15.0,,,,0.0,4.0,1.0,0.0,4.0,4.0,41.666668,,,,,,,,58.0,0.0,0.7250939999999999,0.129639,0.656982,0.160645,0.9277489999999999,-0.395514,-0.114748,-0.026975,-0.033451999999999996,-0.015684,,,,,,,,,,,,,,,,,,,,,,,,,,,,,,,,,,,,,,,,,,,,,,,,,,,,,,,,,,,,,,,,,
34241,1645901620.372391,1645901620.418309,117.0,0.0,4332.820313,4392.307617,4213.333496,4137.436035,4272.307617,450.0,1.0,15.0,,,,0.0,4.0,1.0,0.0,4.0,4.0,41.666668,,,,,,,,,,,,,,,,,,,,,,,,,,,,,,,,,,,,,,,,,,,,,,,,,,,,,,,,,,,,,,,,,,,,,,,,,,,,,,,,,,,,
34242,1645901620.3802052,1645901620.4261231,118.0,0.0,4331.282227000001,4371.794922,4229.743652,4149.230957,4263.077147999999,450.0,1.0,15.0,,,,0.0,4.0,1.0,0.0,4.0,4.0,41.666668,,,,,,,,59.0,0.0,0.7250939999999999,0.129639,0.656982,0.160645,0.9209129999999999,-0.388678,-0.11084200000000001,-0.0275,-0.033476,-0.016509,1.0,0.0,0.0,,,,,,,,,,,,,,,,,,,,,,,,,,,,,,,,0.0,0.0,1.0,0.0,512.0,1.0,167.963989,6.868506,2.6144939999999997,3.883088,10.717001,98.62505300000001,82.140541,57.393809999999995,28.327409999999997,44.71183,28.425005,20.573906,4.844919,6.258896,36.368679,8.093966,10.975849,4.261865,10.719255,11.076385,52.945137,6.032737,3.707235,3.591908,9.627049000000001
34243,1645901620.388018,1645901620.433938,119.0,0.0,4321.538574,4247.692383,4216.922852000001,4153.333496,4244.615234000001,16159.0,1.0,15.0,,,,0.0,4.0,1.0,0.0,4.0,4.0,41.666668,,,,,,,,,,,,,,,,,,,,,,,,,,,,,,,,,,,,,,,,,,,,,,,,,,,,,,,,,,,,,,,,,,,,,,,,,,,,,,,,,,,,
34244,1645901620.395832,1645901620.441752,120.0,0.0,4320.0,4265.128418,4237.436035,4146.666504,4231.794922,450.0,1.0,15.0,,,,0.0,4.0,1.0,0.0,4.0,4.0,41.666668,,,,,,,,60.0,0.0,0.7250939999999999,0.129639,0.656982,0.160645,0.9233540000000001,-0.40576799999999996,-0.11230599999999999,-0.027973,-0.033546,-0.014223,,,,,,,,,,,,,,,,,,,,,,,,,,,,,,,,,,,,,,,,,,,,,,,,,,,,,,,,,,,,,,,,,
34245,1645901620.403646,1645901620.449567,121.0,0.0,4309.743652,4318.461426,4205.128418,4127.692383,4232.307617,450.0,1.0,15.0,,,,0.0,4.0,1.0,0.0,4.0,4.0,41.666668,,,,,,,,,,,,,,,,,,,,,,,,,,,,,,,,,,,,,,,,,,,,,,,,,,,,,,,,,,,,,,,,,,,,,,,,,,,,,,,,,,,,
34246,1645901620.411459,1645901620.457382,122.0,0.0,4309.230957,4252.820313,4209.743652,4135.897461,4247.179688,450.0,1.0,15.0,,,,0.0,4.0,1.0,0.0,4.0,4.0,41.666668,,,,,,,,61.0,0.0,0.7251380000000001,0.129395,0.656982,0.160645,0.9248190000000001,-0.39697899999999997,-0.10009900000000001,-0.025224,-0.033561,-0.015290999999999999,,,,,,,,,,,,,,,,,,,,,,,,,,,,,,,,,,,0.0,0.0,1.0,0.0,512.0,1.0,,,,,,,,,,,,,,,,,,,,,,,,,
34247,1645901620.4192731,1645901620.4651961,123.0,0.0,4320.0,4256.922852000001,4250.256348,4141.538574,4258.974121,16159.0,1.0,15.0,,,,0.0,4.0,1.0,0.0,4.0,4.0,41.666668,,,,,,,,,,,,,,,,,,,,,,,,,,,,,,,,,,,,,,,,,,,,,,,,,,,,,,,,,,,,,,,,,,,,,,,,,,,,,,,,,,,,
34248,1645901620.4270868,1645901620.473011,124.0,0.0,4303.077147999999,4324.102539,4287.692383,4126.666504,4275.384765999999,450.0,1.0,15.0,,,,0.0,4.0,1.0,0.0,4.0,4.0,41.666668,,,,,,,,62.0,0.0,0.72504,0.129639,0.656982,0.160889,0.917494,-0.39502600000000004,-0.099123,-0.025827,-0.033623,-0.013127000000000002,,,,,,,,,,,,,,,,,,,,,,,,,,,,,,,,,,,,,,,,,,,,,,,,,,,,,,,,,,,,,,,,,
34249,1645901620.434901,1645901620.480726,125.0,0.0,4299.487305,4221.538574,4257.436035,4122.05127,4277.94873,450.0,1.0,15.0,,,,0.0,2.0,0.0,0.0,4.0,4.0,16.666666,,,,,,,,,,,,,,,,,,,,,,,,,,,,,,,,,,,,,,,,,,,,,,,,,,,,,,,,,,,,,,,,,,,,,,,,,,,,,,,,,,,,
34250,1645901620.442714,1645901620.48854,126.0,0.0,4317.436035,4124.102539,4274.871582,4101.538574,4265.641113000001,450.0,1.0,15.0,,,,0.0,2.0,0.0,0.0,4.0,4.0,16.666666,,,,,,,,63.0,0.0,0.724862,0.129395,0.657227,0.160889,0.921401,-0.398444,-0.11133,-0.026565,-0.033483,-0.011131,,,,,,,,,,,,,,,,,,,,,,,,,,,,,,,,,,,0.0,0.0,1.0,0.0,512.0,1.0,,,,,,,,,,,,,,,,,,,,,,,,,
34251,1645901620.450528,1645901620.4963539,127.0,0.0,4309.230957,4189.230957,4297.436035,4107.179688,4256.922852000001,232.0,1.0,15.0,,,,0.0,2.0,0.0,0.0,4.0,4.0,16.666666,,,,,,,,,,,,,,,,,,,,,,,,,,,,,,,,,,,,,,,,,,,,,,,,,,,,,,,,,,,,,,,,,,,,,,,,,,,,,,,,,,,,
34252,1645901620.458342,1645901620.504169,0.0,0.0,4305.128418,4242.563965,4266.153809,4151.282227000001,4252.820313,450.0,1.0,15.0,,,,0.0,2.0,0.0,0.0,4.0,4.0,16.666666,,,,,,,,0.0,0.0,0.724862,0.129395,0.657227,0.160889,0.922377,-0.387701,-0.102052,-0.027082,-0.033406,-0.009285,,,,,,,,,,,,,,,,,,,,,,,,,,,,,,,,,,,,,,,,,,,,,,,,,,,,,,,,,,,,,,,,,
34253,1645901620.466155,1645901620.511983,1.0,0.0,4322.05127,4221.538574,4224.102539,4175.897461,4277.94873,450.0,1.0,15.0,,,,0.0,2.0,0.0,0.0,4.0,4.0,16.666666,,,,,,,,,,,,,,,,,,,,,,,,,,,,,,,,,,,,,,,,,,,,,,,,,,,,,,,,,,,,,,,,,,,,,,,,,,,,,,,,,,,,
34254,1645901620.473969,1645901620.519798,2.0,0.0,4311.282227000001,4204.615234000001,4236.922852000001,4167.179688,4253.333496,322.0,1.0,15.0,,,,0.0,2.0,0.0,0.0,4.0,4.0,16.666666,,,,,,,,1.0,0.0,0.724862,0.129395,0.657227,0.160889,0.925795,-0.40283800000000003,-0.095216,-0.027597000000000003,-0.033581,-0.010652,,,,,,,,,,,,,,,,,,,,,,,,,,,,,,,,,,,0.0,0.0,1.0,0.0,512.0,1.0,,,,,,,,,,,,,,,,,,,,,,,,,
34255,1645901620.481783,1645901620.527612,3.0,0.0,4311.794922,4269.743652,4209.230957,4150.256348,4238.974121,450.0,1.0,15.0,,,,0.0,2.0,0.0,0.0,4.0,4.0,16.666666,,,,,,,,,,,,,,,,,,,,,,,,,,,,,,,,,,,,,,,,,,,,,,,,,,,,,,,,,,,,,,,,,,,,,,,,,,,,,,,,,,,,
34256,1645901620.489597,1645901620.535426,4.0,0.0,4307.692383,4300.0,4206.153809,4141.538574,4272.307617,0.0,1.0,15.0,,,,0.0,2.0,0.0,0.0,4.0,4.0,16.666666,,,,,,,,2.0,0.0,0.724862,0.129395,0.657227,0.160889,0.9194479999999999,-0.411627,-0.107912,-0.028156999999999998,-0.033544,-0.008952,,,,,,,,,,,,,,,,,,,,,,,,,,,,,,,,,,,,,,,,,,,,,,,,,,,,,,,,,,,,,,,,,
34257,1645901620.49741,1645901620.543241,5.0,0.0,4314.871582,4225.641113000001,4211.794922,4140.512695,4283.077147999999,450.0,1.0,15.0,,,,0.0,2.0,0.0,0.0,4.0,4.0,16.666666,,,,,,,,,,,,,,,,,,,,,,,,,,,,,,,,,,,,,,,,,,,,,,,,,,,,,,,,,,,,,,,,,,,,,,,,,,,,,,,,,,,,
34258,1645901620.505224,1645901620.550956,6.0,0.0,4331.794922,4257.436035,4192.820313,4097.436035,4254.358886999999,0.0,1.0,15.0,,,,0.0,2.0,0.0,0.0,2.0,2.0,16.666666,,,,,,,,3.0,0.0,0.724862,0.129395,0.657227,0.160889,0.905776,-0.39697899999999997,-0.11133,-0.028515,-0.033461000000000005,-0.010449,1.0,0.0,0.0,,,,,,,,,,,,,,,,,,,,,,,,,,,,,,,,0.0,0.0,1.0,0.0,512.0,1.0,68.478493,5.5266660000000005,3.034227,3.3602790000000002,9.492726,123.719086,72.670113,69.449043,26.589659,46.075542,29.692989,20.958387,4.568183,5.208443,32.600658,8.733774,10.387011,6.420433,10.080594,10.127423,22.292348999999998,5.290513,3.433143,3.29385,8.866201
34259,1645901620.5130382,1645901620.55877,7.0,0.0,4336.922852000001,4336.410156,4185.641113000001,4093.8461909999996,4260.512695,450.0,1.0,15.0,,,,0.0,2.0,0.0,0.0,2.0,2.0,16.666666,,,,,,,,,,,,,,,,,,,,,,,,,,,,,,,,,,,,,,,,,,,,,,,,,,,,,,,,,,,,,,,,,,,,,,,,,,,,,,,,,,,,
34260,1645901620.5208519,1645901620.566585,8.0,0.0,4327.179688,4202.563965,4192.307617,4132.820313,4258.974121,450.0,1.0,15.0,,,,0.0,2.0,0.0,0.0,2.0,2.0,16.666666,,,,,,,,4.0,0.0,0.724862,0.129395,0.657227,0.160889,0.920424,-0.398932,-0.113283,-0.028887,-0.033484,-0.011943,,,,,,,,,,,,,,,,,,,,,,,,,,,,,,,,,,,,,,,,,,,,,,,,,,,,,,,,,,,,,,,,,
34261,1645901620.528665,1645901620.5744,9.0,0.0,4338.974121,4107.179688,4173.846191,4142.05127,4255.897461,175.0,1.0,15.0,,,,0.0,2.0,0.0,0.0,2.0,2.0,16.666666,,,,,,,,,,,,,,,,,,,,,,,,,,,,,,,,,,,,,,,,,,,,,,,,,,,,,,,,,,,,,,,,,,,,,,,,,,,,,,,,,,,,
34262,1645901620.536479,1645901620.582214,10.0,0.0,4334.358886999999,4238.974121,4167.179688,4129.743652,4283.077147999999,450.0,1.0,15.0,,,,0.0,2.0,0.0,0.0,2.0,2.0,16.666666,,,,,,,,5.0,0.0,0.724819,0.129639,0.657227,0.160889,0.934585,-0.407721,-0.105959,-0.029172000000000003,-0.033554,-0.013238999999999999,,,,,,,,,,,,,,,,,,,,,,,,,,,,,,,,,,,0.0,0.0,1.0,0.0,512.0,1.0,,,,,,,,,,,,,,,,,,,,,,,,,
34263,1645901620.544293,1645901620.590029,11.0,0.0,4318.974121,4295.384765999999,4257.436035,4154.358886999999,4267.692383,295.0,1.0,15.0,,,,0.0,2.0,0.0,0.0,2.0,2.0,16.666666,,,,,,,,,,,,,,,,,,,,,,,,,,,,,,,,,,,,,,,,,,,,,,,,,,,,,,,,,,,,,,,,,,,,,,,,,,,,,,,,,,,,
34264,1645901620.552107,1645901620.597843,12.0,0.0,4329.743652,4200.0,4238.974121,4158.974121,4225.128418,450.0,1.0,15.0,,,,0.0,2.0,0.0,0.0,2.0,2.0,16.666666,,,,,,,,6.0,0.0,0.724543,0.129639,0.657471,0.161133,0.9267719999999999,-0.393072,-0.101564,-0.029526,-0.033567,-0.014308000000000001,,,,,,,,,,,,,,,,,,,,,,,,,,,,,,,,,,,,,,,,,,,,,,,,,,,,,,,,,,,,,,,,,
34265,1645901620.5599198,1645901620.605658,13.0,0.0,4332.820313,4154.871582,4213.333496,4138.974121,4239.487305,450.0,1.0,15.0,,,,0.0,2.0,0.0,0.0,2.0,2.0,16.666666,,,,,,,,,,,,,,,,,,,,,,,,,,,,,,,,,,,,,,,,,,,,,,,,,,,,,,,,,,,,,,,,,,,,,,,,,,,,,,,,,,,,
