,Timestamp,OriginalTimestamp,EEG.Counter,EEG.Interpolated,EEG.AF3,EEG.T7,EEG.Pz,EEG.T8,EEG.AF4,EEG.RawCq,EEG.Battery,EEG.BatteryPercent,MarkerIndex,MarkerType,MarkerValueInt,EEG.MarkerHardware,CQ.AF3,CQ.T7,CQ.Pz,CQ.T8,CQ.AF4,CQ.Overall,EQ.SampleRateQuality,EQ.OVERALL,EQ.AF3,EQ.T7,EQ.Pz,EQ.T8,EQ.AF4,MOT.CounterMems,MOT.InterpolatedMems,MOT.Q0,MOT.Q1,MOT.Q2,MOT.Q3,MOT.AccX,MOT.AccY,MOT.AccZ,MOT.MagX,MOT.MagY,MOT.MagZ,MC.Action,MC.ActionPower,MC.IsActive,PM.Engagement.IsActive,PM.Engagement.Scaled,PM.Engagement.Raw,PM.Engagement.Min,PM.Engagement.Max,PM.Excitement.IsActive,PM.Excitement.Scaled,PM.Excitement.Raw,PM.Excitement.Min,PM.Excitement.Max,PM.LongTermExcitement,PM.Stress.IsActive,PM.Stress.Scaled,PM.Stress.Raw,PM.Stress.Min,PM.Stress.Max,PM.Relaxation.IsActive,PM.Relaxation.Scaled,PM.Relaxation.Raw,PM.Relaxation.Min,PM.Relaxation.Max,PM.Interest.IsActive,PM.Interest.Scaled,PM.Interest.Raw,PM.Interest.Min,PM.Interest.Max,PM.Focus.IsActive,PM.Focus.Scaled,PM.Focus.Raw,PM.Focus.Min,PM.Focus.Max,FE.BlinkWink,FE.HorizontalEyesDirection,FE.UpperFaceAction,FE.UpperFaceActionPower,FE.LowerFaceAction,FE.LowerFaceActionPower,POW.AF3.Theta,POW.AF3.Alpha,POW.AF3.BetaL,POW.AF3.BetaH,POW.AF3.Gamma,POW.T7.Theta,POW.T7.Alpha,POW.T7.BetaL,POW.T7.BetaH,POW.T7.Gamma,POW.Pz.Theta,POW.Pz.Alpha,POW.Pz.BetaL,POW.Pz.BetaH,POW.Pz.Gamma,POW.T8.Theta,POW.T8.Alpha,POW.T8.BetaL,POW.T8.BetaH,POW.T8.Gamma,POW.AF4.Theta,POW.AF4.Alpha,POW.AF4.BetaL,POW.AF4.BetaH,POW.AF4.Gamma
16341,1650413817.75801,1650413817.773301,16.0,0.0,4305.641113000001,4645.128418,4191.282227000001,4281.025879,4244.102539,0.0,3.0,73.0,29.0,1.0,3.0,0.0,4.0,0.0,4.0,0.0,4.0,33.333332,,,,,,,,8.0,0.0,0.23871199999999998,-0.45458999999999994,0.460449,0.724121,0.892592,-0.46338599999999996,-0.171389,-0.042578,-0.056458,-0.017818,,,,,,,,,,,,,,,,,,,,,,,,,,,,,,,,,,,,,,,,,,,,,,,,,,,,,,,,,,,,,,,,,
16342,1650413817.765824,1650413817.781016,17.0,0.0,4307.179688,4594.871582,4212.307617,4281.025879,4242.563965,0.0,3.0,73.0,,,,0.0,4.0,0.0,4.0,0.0,4.0,33.333332,,,,,,,,,,,,,,,,,,,,,,,,,,,,,,,,,,,,,,,,,,,,,,,,,,,,,,0.0,0.0,1.0,0.0,512.0,1.0,,,,,,,,,,,,,,,,,,,,,,,,,
16343,1650413817.773639,1650413817.788831,18.0,0.0,4304.615234000001,4601.538574,4205.128418,4281.025879,4245.641113000001,0.0,3.0,73.0,,,,0.0,4.0,0.0,4.0,0.0,4.0,33.333332,,,,,,,,9.0,0.0,0.239182,-0.45458999999999994,0.46020500000000003,0.724121,0.89015,-0.45948,-0.171389,-0.0433,-0.056526,-0.013203999999999999,,,,,,,,,,,,,,,,,,,,,,,,,,,,,,,,,,,,,,,,,,,,,,,,,,,,,,,,,,,,,,,,,
16344,1650413817.7814538,1650413817.796545,19.0,0.0,4302.05127,4578.974121,4192.820313,4281.025879,4245.641113000001,0.0,3.0,73.0,,,,0.0,4.0,0.0,4.0,0.0,4.0,33.333332,,,,,,,,,,,,,,,,,,,,,,,,,,,,,,,,,,,,,,,,,,,,,,,,,,,,,,,,,,,,,,,,,,,,,,,,,,,,,,,,,,,,
16345,1650413817.789268,1650413817.80436,20.0,0.0,4320.0,4570.769043,4204.615234000001,4281.025879,4252.820313,0.0,3.0,73.0,,,,0.0,4.0,0.0,4.0,0.0,4.0,33.333332,,,,,,,,10.0,0.0,0.239182,-0.45458999999999994,0.46020500000000003,0.724121,0.877943,-0.45459700000000003,-0.160647,-0.042193,-0.056586000000000004,-0.017987,,,,,,,,,,,,,,,,,,,,,,,,,,,,,,,,,,,,,,,,,,,,,,,,,,,,,,,,,,,,,,,,,
16346,1650413817.797083,1650413817.812075,21.0,0.0,4331.794922,4595.897461,4206.666504,4281.025879,4261.538574,0.0,3.0,73.0,,,,0.0,4.0,0.0,4.0,0.0,4.0,33.333332,,,,,,,,,,,,,,,,,,,,,,,,,,,,,,,,,,,,,,,,,,,,,,,,,,,,,,0.0,0.0,1.0,0.0,512.0,1.0,,,,,,,,,,,,,,,,,,,,,,,,,
16347,1650413817.804897,1650413817.819989,22.0,0.0,4310.769043,4585.128418,4187.179688,4281.025879,4265.128418,0.0,3.0,73.0,,,,0.0,4.0,0.0,4.0,0.0,4.0,33.333332,,,,,,,,11.0,0.0,0.239457,-0.454834,0.46020500000000003,0.723877,0.8886850000000001,-0.46338599999999996,-0.171878,-0.042906,-0.056639999999999996,-0.01321,,,,,,,,,,,,,,,,,,,,,,,,,,,,,,,,,,,,,,,,,,,,,,,,,,,,,,,,,,,,,,,,,
16348,1650413817.812712,1650413817.8278039,23.0,0.0,4312.820313,4551.794922,4188.717772999999,4281.025879,4263.077147999999,0.0,3.0,73.0,,,,0.0,4.0,0.0,4.0,0.0,4.0,33.333332,,,,,,,,,,,,,,,,,,,,,,,,,,,,,,,,,,,,,,,,,,,,,,,,,,,,,,,,,,,,,,,,,,,,,,,,,,,,,,,,,,,,
16349,1650413817.8205268,1650413817.835718,24.0,0.0,4342.05127,4582.563965,4201.025879,4281.025879,4260.512695,0.0,3.0,73.0,,,,0.0,4.0,0.0,4.0,0.0,4.0,33.333332,,,,,,,,12.0,0.0,0.23898699999999998,-0.454834,0.460449,0.723877,0.893568,-0.447272,-0.155276,-0.043449,-0.056688999999999996,-0.015258,,,,,,,,,,,,,,,,,,,,,,,,,,,,,,,,,,,,,,,,,,,,,,,,,,,,,,,,,,,,,,,,,
16350,1650413817.828341,1650413817.843533,25.0,0.0,4337.436035,4619.487305,4200.512695,4281.025879,4264.615234000001,0.0,3.0,73.0,,,,0.0,4.0,0.0,4.0,0.0,4.0,33.333332,,,,,,,,,,,,,,,,,,,,1.0,0.0,0.0,,,,,,,,,,,,,,,,,,,,,,,,,,,,,,,,0.0,0.0,1.0,0.0,512.0,1.0,3.927746,2.0108,1.5880290000000001,0.9367280000000001,1.1675719999999998,11.595998,7.649961,5.939712,12.924739,15.505327,2.26654,2.90257,1.033101,1.2214209999999999,0.775098,0.0,0.0,0.0,0.0,0.0,6.855469,4.1790199999999995,1.999067,0.991714,1.378647
16351,1650413817.8361561,1650413817.851448,26.0,0.0,4313.846191,4613.846191,4196.922852000001,4281.025879,4270.256348,0.0,3.0,73.0,,,,0.0,4.0,0.0,4.0,0.0,4.0,33.333332,,,,,,,,13.0,0.0,0.23898699999999998,-0.454834,0.460449,0.723877,0.8881969999999999,-0.457527,-0.169436,-0.043938,-0.056636,-0.010851000000000001,,,,,,,,,,,,,,,,,,,,,,,,,,,,,,,,,,,,,,,,,,,,,,,,,,,,,,,,,,,,,,,,,
16352,1650413817.8439698,1650413817.859262,27.0,0.0,4320.512695,4630.769043,4199.487305,4281.025879,4265.128418,0.0,3.0,73.0,,,,0.0,4.0,0.0,4.0,0.0,4.0,33.333332,,,,,,,,,,,,,,,,,,,,,,,,,,,,,,,,,,,,,,,,,,,,,,,,,,,,,,,,,,,,,,,,,,,,,,,,,,,,,,,,,,,,
16353,1650413817.851785,1650413817.867177,28.0,0.0,4338.461426,4619.487305,4207.692383,4281.025879,4257.436035,0.0,3.0,73.0,,,,0.0,4.0,0.0,4.0,0.0,4.0,33.333332,,,,,,,,14.0,0.0,0.23898699999999998,-0.454834,0.460449,0.723877,0.882338,-0.45264399999999994,-0.163088,-0.04433,-0.056685,-0.013134999999999999,,,,,,,,,,,,,,,,,,,,,,,,,,,,,,,,,,,,,,,,,,,,,,,,,,,,,,,,,,,,,,,,,
16354,1650413817.8596,1650413817.874991,29.0,0.0,4330.256348,4574.871582,4207.179688,4281.025879,4251.282227000001,0.0,3.0,73.0,,,,0.0,4.0,0.0,4.0,0.0,4.0,33.333332,,,,,,,,,,,,,,,,,,,,,,,,,,,,,,,,,,,,,,,,,,,,,,,,,,,,,,0.0,0.0,1.0,0.0,512.0,1.0,,,,,,,,,,,,,,,,,,,,,,,,,
16355,1650413817.867414,1650413817.882906,30.0,0.0,4310.769043,4614.871582,4189.230957,4281.025879,4245.641113000001,0.0,3.0,73.0,,,,0.0,4.0,0.0,4.0,0.0,4.0,33.333332,,,,,,,,15.0,0.0,0.239725,-0.454834,0.460449,0.723633,0.885756,-0.44531899999999996,-0.14551,-0.043315,-0.056680999999999995,-0.017974,,,,,,,,,,,,,,,,,,,,,,,,,,,,,,,,,,,,,,,,,,,,,,,,,,,,,,,,,,,,,,,,,
16356,1650413817.875229,1650413817.890721,31.0,0.0,4306.666504,4659.487305,4180.512695,4281.025879,4254.358886999999,0.0,3.0,73.0,,,,0.0,4.0,0.0,4.0,0.0,4.0,33.333332,,,,,,,,,,,,,,,,,,,,,,,,,,,,,,,,,,,,,,,,,,,,,,,,,,,,,,,,,,,,,,,,,,,,,,,,,,,,,,,,,,,,
16357,1650413817.883043,1650413817.898635,32.0,0.0,4307.692383,4598.461426,4200.512695,4281.025879,4268.205078,0.0,3.0,73.0,,,,0.0,4.0,0.0,4.0,0.0,4.0,33.333332,,,,,,,,16.0,0.0,0.23898699999999998,-0.454834,0.460449,0.723877,0.8964979999999999,-0.446784,-0.157229,-0.043670999999999995,-0.056726,-0.0194,,,,,,,,,,,,,,,,,,,,,,,,,,,,,,,,,,,,,,,,,,,,,,,,,,,,,,,,,,,,,,,,,
16358,1650413817.890858,1650413817.90645,33.0,0.0,4302.563965,4558.974121,4208.717772999999,4281.025879,4258.974121,0.0,3.0,73.0,,,,0.0,4.0,0.0,4.0,0.0,4.0,33.333332,,,,,,,,,,,,,,,,,,,,,,,,,,,,,,,,,,,,,,,,,,,,,,,,,,,,,,0.0,0.0,1.0,0.0,512.0,1.0,,,,,,,,,,,,,,,,,,,,,,,,,
16359,1650413817.898673,1650413817.914364,34.0,0.0,4295.897461,4617.94873,4187.179688,4281.025879,4243.077147999999,0.0,3.0,73.0,,,,0.0,4.0,0.0,4.0,0.0,4.0,33.333332,,,,,,,,17.0,0.0,0.239457,-0.454834,0.46020500000000003,0.723877,0.887709,-0.455085,-0.167483,-0.044138,-0.056667999999999996,-0.02078,,,,,,,,,,,,,,,,,,,,,,,,,,,,,,,,,,,,,,,,,,,,,,,,,,,,,,,,,,,,,,,,,
16360,1650413817.906487,1650413817.922179,35.0,0.0,4293.333496,4653.846191,4183.077147999999,4281.025879,4236.410156,0.0,3.0,73.0,,,,0.0,4.0,0.0,4.0,0.0,4.0,33.333332,,,,,,,,,,,,,,,,,,,,,,,,,,,,,,,,,,,,,,,,,,,,,,,,,,,,,,,,,,,,,,,,,,,,,,,,,,,,,,,,,,,,
16361,1650413817.9143019,1650413817.929894,36.0,0.0,4298.974121,4649.743652,4200.0,4281.025879,4230.256348,0.0,3.0,73.0,,,,0.0,4.0,0.0,4.0,0.0,4.0,33.333332,,,,,,,,18.0,0.0,0.239725,-0.454834,0.460449,0.723633,0.885756,-0.44531899999999996,-0.14551,-0.044705,-0.056665999999999994,-0.018507,,,,,,,,,,,,,,,,,,,,,,,,,,,,,,,,,,,,,,,,,,,,,,,,,,,,,,,,,,,,,,,,,
16362,1650413817.922117,1650413817.937708,37.0,0.0,4307.692383,4643.589844,4206.666504,4281.025879,4246.666504,0.0,3.0,73.0,,,,0.0,4.0,0.0,4.0,0.0,4.0,33.333332,,,,,,,,,,,,,,,,,,,,,,,,,,,,,,,,,,,,,,,,,,,,,,,,,,,,,,0.0,0.0,1.0,0.0,512.0,1.0,,,,,,,,,,,,,,,,,,,,,,,,,
16363,1650413817.9299312,1650413817.9454231,38.0,0.0,4309.230957,4655.384765999999,4209.230957,4281.025879,4277.436035,0.0,3.0,73.0,,,,0.0,4.0,0.0,4.0,0.0,4.0,33.333332,,,,,,,,19.0,0.0,0.239457,-0.454834,0.46020500000000003,0.723877,0.887709,-0.455085,-0.167483,-0.045068000000000004,-0.056614,-0.019976,,,,,,,,,,,,,,,,,,,,,,,,,,,,,,,,,,,,,,,,,,,,,,,,,,,,,,,,,,,,,,,,,
16364,1650413817.937746,1650413817.953238,39.0,0.0,4310.769043,4698.461426,4206.666504,4281.025879,4268.205078,0.0,3.0,73.0,,,,0.0,4.0,0.0,4.0,0.0,4.0,33.333332,,,,,,,,,,,,,,,,,,,,,,,,,,,,,,,,,,,,,,,,,,,,,,,,,,,,,,,,,,,,,,,,,,,,,,,,,,,,,,,,,,,,
16365,1650413817.94556,1650413817.960953,40.0,0.0,4320.512695,4667.179688,4194.358886999999,4281.025879,4249.743652,0.0,3.0,73.0,,,,0.0,4.0,0.0,4.0,0.0,4.0,33.333332,,,,,,,,20.0,0.0,0.239457,-0.454834,0.46020500000000003,0.723877,0.886244,-0.447272,-0.161624,-0.045347000000000005,-0.05651900000000001,-0.021299000000000002,,,,,,,,,,,,,,,,,,,,,,,,,,,,,,,,,,,,,,,,,,,,,,,,,,,,,,,,,,,,,,,,,
16366,1650413817.953375,1650413817.968767,41.0,0.0,4324.102539,4610.769043,4191.794922,4281.025879,4260.0,0.0,3.0,73.0,,,,0.0,4.0,0.0,4.0,0.0,4.0,33.333332,,,,,,,,,,,,,,,,,,,,1.0,0.0,0.0,,,,,,,,,,,,,,,,,,,,,,,,,,,,,,,,0.0,0.0,1.0,0.0,512.0,1.0,3.9533669999999996,1.9535099999999999,1.633163,0.962836,1.187152,10.837161,9.603508,7.521714,11.691192,15.168613,1.897874,2.147513,1.025249,1.367682,0.758618,0.0,0.0,0.0,0.0,0.0,5.502829,3.6878349999999998,1.684993,0.9293549999999999,1.273111
16367,1650413817.96119,1650413817.976482,42.0,0.0,4313.846191,4680.512695,4183.589844,4281.025879,4252.307617,0.0,3.0,73.0,,,,0.0,4.0,0.0,4.0,0.0,4.0,33.333332,,,,,,,,21.0,0.0,0.239457,-0.454834,0.46020500000000003,0.723877,0.8872209999999999,-0.45801499999999995,-0.166018,-0.045646,-0.056434000000000005,-0.019022999999999998,,,,,,,,,,,,,,,,,,,,,,,,,,,,,,,,,,,,,,,,,,,,,,,,,,,,,,,,,,,,,,,,,
16368,1650413817.969004,1650413817.9843972,43.0,0.0,4303.589844,4711.794922,4164.615234000001,4281.025879,4224.102539,0.0,3.0,73.0,,,,0.0,4.0,0.0,4.0,0.0,4.0,33.333332,,,,,,,,,,,,,,,,,,,,,,,,,,,,,,,,,,,,,,,,,,,,,,,,,,,,,,,,,,,,,,,,,,,,,,,,,,,,,,,,,,,,
16369,1650413817.976819,1650413817.9922109,44.0,0.0,4305.641113000001,4620.512695,4171.282227000001,4281.025879,4228.717772999999,0.0,3.0,73.0,,,,0.0,4.0,0.0,4.0,0.0,4.0,33.333332,,,,,,,,22.0,0.0,0.23992,-0.45458999999999994,0.46020500000000003,0.723877,0.874525,-0.46387399999999995,-0.174319,-0.045818,-0.056504,-0.017023,,,,,,,,,,,,,,,,,,,,,,,,,,,,,,,,,,,,,,,,,,,,,,,,,,,,,,,,,,,,,,,,,
16370,1650413817.984633,1650413818.000026,45.0,0.0,4312.307617,4625.641113000001,4184.102539,4281.025879,4245.128418,0.0,3.0,73.0,,,,0.0,4.0,0.0,4.0,0.0,4.0,33.333332,,,,,,,,,,,,,,,,,,,,,,,,,,,,,,,,,,,,,,,,,,,,,,,,,,,,,,0.0,0.0,1.0,0.0,512.0,1.0,,,,,,,,,,,,,,,,,,,,,,,,,
16371,1650413817.992448,1650413818.007741,46.0,0.0,4304.615234000001,4680.512695,4166.153809,4281.025879,4230.769043,0.0,3.0,73.0,,,,0.0,4.0,0.0,4.0,0.0,4.0,33.333332,,,,,,,,23.0,0.0,0.23992,-0.45458999999999994,0.46020500000000003,0.723877,0.8833139999999999,-0.45459700000000003,-0.156252,-0.045972000000000006,-0.056469000000000005,-0.018690000000000002,,,,,,,,,,,,,,,,,,,,,,,,,,,,,,,,,,,,,,,,,,,,,,,,,,,,,,,,,,,,,,,,,
16372,1650413818.000263,1650413818.0155551,47.0,0.0,4306.153809,4594.358886999999,4167.692383,4281.025879,4219.487305,0.0,3.0,73.0,,,,0.0,4.0,0.0,4.0,0.0,4.0,33.333332,,,,,,,,,,,,,,,,,,,,,,,,,,,,,,,,,,,,,,,,,,,,,,,,,,,,,,,,,,,,,,,,,,,,,,,,,,,,,,,,,,,,
16373,1650413818.008077,1650413818.02327,48.0,0.0,4321.538574,4548.205078,4198.974121,4281.025879,4239.487305,0.0,3.0,73.0,,,,0.0,4.0,0.0,4.0,0.0,4.0,33.333332,,,,,,,,24.0,0.0,0.23992,-0.45458999999999994,0.46020500000000003,0.723877,0.8964979999999999,-0.45410900000000004,-0.16552999999999998,-0.046209,-0.056584,-0.013940000000000001,,,,,,,,,,,,,,,,,,,,,,,,,,,,,,,,,,,,,,,,,,,,,,,,,,,,,,,,,,,,,,,,,
16374,1650413818.015892,1650413818.031085,49.0,0.0,4307.692383,4637.436035,4194.358886999999,4281.025879,4245.641113000001,0.0,3.0,73.0,,,,0.0,4.0,0.0,4.0,0.0,4.0,33.333332,,,,,,,,,,,,,,,,,,,,,,,,,,,,,,,,,,,,,,,,,,,,,,,,,,,,,,0.0,0.0,1.0,0.0,512.0,1.0,,,,,,,,,,,,,,,,,,,,,,,,,
16375,1650413818.023706,1650413818.038799,50.0,0.0,4295.384765999999,4648.717772999999,4179.487305,4281.025879,4228.205078,0.0,3.0,73.0,,,,0.0,4.0,0.0,4.0,0.0,4.0,33.333332,,,,,,,,25.0,0.0,0.23945100000000002,-0.45458999999999994,0.460449,0.723877,0.8808729999999999,-0.451179,-0.160159,-0.044957,-0.05654,-0.018747,,,,,,,,,,,,,,,,,,,,,,,,,,,,,,,,,,,,,,,,,,,,,,,,,,,,,,,,,,,,,,,,,
16376,1650413818.031521,1650413818.0466142,51.0,0.0,4321.025879,4586.153809,4200.512695,4281.025879,4244.615234000001,0.0,3.0,73.0,,,,0.0,4.0,0.0,4.0,0.0,4.0,33.333332,,,,,,,,,,,,,,,,,,,,,,,,,,,,,,,,,,,,,,,,,,,,,,,,,,,,,,,,,,,,,,,,,,,,,,,,,,,,,,,,,,,,
16377,1650413818.039336,1650413818.054329,52.0,0.0,4326.666504,4618.974121,4202.563965,4281.025879,4260.512695,0.0,3.0,73.0,,,,0.0,4.0,0.0,4.0,0.0,4.0,33.333332,,,,,,,,26.0,0.0,0.23945100000000002,-0.45458999999999994,0.460449,0.723877,0.8833139999999999,-0.458503,-0.165042,-0.045344999999999996,-0.056599000000000003,-0.020242,,,,,,,,,,,,,,,,,,,,,,,,,,,,,,,,,,,,,,,,,,,,,,,,,,,,,,,,,,,,,,,,,
16378,1650413818.04715,1650413818.062243,53.0,0.0,4315.384765999999,4683.077147999999,4181.538574,4281.025879,4236.410156,0.0,3.0,73.0,,,,0.0,4.0,0.0,4.0,0.0,4.0,33.333332,,,,,,,,,,,,,,,,,,,,,,,,,,,,,,,,,,,,,,,,,,,,,,,,,,,,,,0.0,0.0,1.0,0.0,512.0,1.0,,,,,,,,,,,,,,,,,,,,,,,,,
16379,1650413818.054965,1650413818.070058,54.0,0.0,4334.358886999999,4635.384765999999,4189.743652,4281.025879,4230.256348,0.0,3.0,73.0,,,,0.0,4.0,0.0,4.0,0.0,4.0,33.333332,,,,,,,,27.0,0.0,0.23945100000000002,-0.45458999999999994,0.460449,0.723877,0.879408,-0.451179,-0.16211199999999998,-0.044179,-0.056603999999999995,-0.021537999999999998,,,,,,,,,,,,,,,,,,,,,,,,,,,,,,,,,,,,,,,,,,,,,,,,,,,,,,,,,,,,,,,,,
16380,1650413818.062779,1650413818.0779722,55.0,0.0,4348.717772999999,4598.974121,4204.102539,4281.025879,4255.897461,0.0,3.0,73.0,,,,0.0,4.0,0.0,4.0,0.0,4.0,33.333332,,,,,,,,,,,,,,,,,,,,,,,,,,,,,,,,,,,,,,,,,,,,,,,,,,,,,,,,,,,,,,,,,,,,,,,,,,,,,,,,,,,,
16381,1650413818.0705938,1650413818.085887,56.0,0.0,4343.077147999999,4672.820313,4185.128418,4281.025879,4265.128418,0.0,3.0,73.0,,,,0.0,4.0,0.0,4.0,0.0,4.0,33.333332,,,,,,,,28.0,0.0,0.23945100000000002,-0.45458999999999994,0.460449,0.723877,0.891127,-0.451667,-0.154788,-0.044594999999999996,-0.05665599999999999,-0.019188999999999998,,,,,,,,,,,,,,,,,,,,,,,,,,,,,,,,,,,,,,,,,,,,,,,,,,,,,,,,,,,,,,,,,
16382,1650413818.078409,1650413818.0937018,57.0,0.0,4342.563965,4671.794922,4178.461426,4281.025879,4258.974121,0.0,3.0,73.0,,,,0.0,4.0,0.0,4.0,0.0,4.0,33.333332,,,,,,,,,,,,,,,,,,,,1.0,0.0,0.0,,,,,,,,,,,,,,,,,,,,,,,,,,,,,,,,0.0,0.0,1.0,0.0,512.0,1.0,4.148142,1.8350360000000001,1.622852,0.9785,1.136687,11.398194,12.295014,9.183318,10.762277000000001,14.448444,1.568036,1.4425219999999999,1.110215,1.430448,0.733762,0.0,0.0,0.0,0.0,0.0,4.553739,3.0684270000000002,1.476448,0.925003,1.169319
16383,1650413818.0862231,1650413818.101516,58.0,0.0,4341.538574,4594.871582,4196.922852000001,4281.025879,4262.563965,0.0,3.0,73.0,,,,0.0,4.0,0.0,4.0,0.0,4.0,33.333332,,,,,,,,29.0,0.0,0.23945100000000002,-0.45458999999999994,0.460449,0.723877,0.9184709999999999,-0.455085,-0.165042,-0.044823,-0.056704,-0.020541,,,,,,,,,,,,,,,,,,,,,,,,,,,,,,,,,,,,,,,,,,,,,,,,,,,,,,,,,,,,,,,,,
16384,1650413818.094038,1650413818.109431,59.0,0.0,4343.077147999999,4625.641113000001,4200.0,4281.025879,4268.205078,0.0,3.0,73.0,,,,0.0,4.0,0.0,4.0,0.0,4.0,33.333332,,,,,,,,,,,,,,,,,,,,,,,,,,,,,,,,,,,,,,,,,,,,,,,,,,,,,,,,,,,,,,,,,,,,,,,,,,,,,,,,,,,,
16385,1650413818.101852,1650413818.117245,60.0,0.0,4337.94873,4693.333496,4193.846191,4281.025879,4275.384765999999,0.0,3.0,73.0,,,,0.0,4.0,0.0,4.0,0.0,4.0,33.333332,,,,,,,,30.0,0.0,0.23898699999999998,-0.454834,0.460449,0.723877,0.894057,-0.46387399999999995,-0.167971,-0.04371,-0.056697000000000004,-0.021808,,,,,,,,,,,,,,,,,,,,,,,,,,,,,,,,,,,,,,,,,,,,,,,,,,,,,,,,,,,,,,,,,
16386,1650413818.109667,1650413818.12496,61.0,0.0,4315.384765999999,4668.205078,4186.666504,4281.025879,4266.153809,0.0,3.0,73.0,,,,0.0,4.0,0.0,4.0,0.0,4.0,33.333332,,,,,,,,,,,,,,,,,,,,,,,,,,,,,,,,,,,,,,,,,,,,,,,,,,,,,,0.0,0.0,1.0,0.0,512.0,1.0,,,,,,,,,,,,,,,,,,,,,,,,,
16387,1650413818.117482,1650413818.132775,62.0,0.0,4315.384765999999,4630.769043,4176.410156,4281.025879,4244.102539,0.0,3.0,73.0,,,,0.0,4.0,0.0,4.0,0.0,4.0,33.333332,,,,,,,,31.0,0.0,0.23898699999999998,-0.454834,0.460449,0.723877,0.882826,-0.46533900000000006,-0.1626,-0.042611,-0.056545000000000005,-0.022947,,,,,,,,,,,,,,,,,,,,,,,,,,,,,,,,,,,,,,,,,,,,,,,,,,,,,,,,,,,,,,,,,
16388,1650413818.125296,1650413818.1406891,63.0,0.0,4333.846191,4637.436035,4189.743652,4281.025879,4252.820313,0.0,3.0,73.0,,,,0.0,4.0,0.0,4.0,0.0,4.0,33.333332,,,,,,,,,,,,,,,,,,,,,,,,,,,,,,,,,,,,,,,,,,,,,,,,,,,,,,,,,,,,,,,,,,,,,,,,,,,,,,,,,,,,
16389,1650413818.133111,1650413818.148504,64.0,0.0,4331.282227000001,4671.794922,4207.692383,4281.025879,4264.102539,450.0,3.0,73.0,,,,0.0,4.0,0.0,4.0,0.0,4.0,33.333332,,,,,,,,32.0,0.0,0.23945100000000002,-0.45458999999999994,0.460449,0.723877,0.8774549999999999,-0.467292,-0.156252,-0.043135,-0.056554999999999994,-0.017625,,,,,,,,,,,,,,,,,,,,,,,,,,,,,,,,,,,,,,,,,,,,,,,,,,,,,,,,,,,,,,,,,
16390,1650413818.140925,1650413818.156219,65.0,0.0,4310.256348,4696.922852000001,4191.794922,4281.025879,4235.897461,450.0,3.0,73.0,,,,0.0,4.0,0.0,4.0,0.0,4.0,33.333332,,,,,,,,,,,,,,,,,,,,,,,,,,,,,,,,,,,,,,,,,,,,,,,,,,,,,,0.0,0.0,1.0,0.0,512.0,1.0,,,,,,,,,,,,,,,,,,,,,,,,,
16391,1650413818.14874,1650413818.164033,66.0,0.0,4305.128418,4654.358886999999,4176.922852000001,4281.025879,4214.358886999999,16193.0,3.0,73.0,,,,0.0,4.0,0.0,4.0,0.0,4.0,33.333332,,,,,,,,33.0,0.0,0.23945100000000002,-0.45458999999999994,0.460449,0.723877,0.874525,-0.45606199999999997,-0.165042,-0.043509,-0.056514999999999996,-0.019084999999999998,,,,,,,,,,,,,,,,,,,,,,,,,,,,,,,,,,,,,,,,,,,,,,,,,,,,,,,,,,,,,,,,,
16392,1650413818.1565552,1650413818.1717482,67.0,0.0,4330.769043,4631.282227000001,4196.410156,4281.025879,4240.512695,450.0,3.0,73.0,,,,0.0,4.0,0.0,4.0,0.0,4.0,33.333332,,,,,,,,,,,,,,,,,,,,,,,,,,,,,,,,,,,,,,,,,,,,,,,,,,,,,,,,,,,,,,,,,,,,,,,,,,,,,,,,,,,,
16393,1650413818.1643689,1650413818.179563,68.0,0.0,4346.666504,4674.358886999999,4202.563965,4281.025879,4259.487305,3.0,3.0,73.0,,,,0.0,4.0,0.0,4.0,0.0,4.0,33.333332,,,,,,,,34.0,0.0,0.238981,-0.45458999999999994,0.460693,0.723877,0.882826,-0.446296,-0.157717,-0.043943,-0.056576,-0.01703,,,,,,,,,,,,,,,,,,,,,,,,,,,,,,,,,,,,,,,,,,,,,,,,,,,,,,,,,,,,,,,,,
16394,1650413818.172184,1650413818.187278,69.0,0.0,4323.589844,4645.128418,4192.820313,4281.025879,4251.794922,450.0,3.0,73.0,,,,0.0,4.0,0.0,4.0,0.0,4.0,33.333332,,,,,,,,,,,,,,,,,,,,,,,,,,,,,,,,,,,,,,,,,,,,,,,,,,,,,,0.0,0.0,1.0,0.0,512.0,1.0,,,,,,,,,,,,,,,,,,,,,,,,,
16395,1650413818.179999,1650413818.195092,70.0,0.0,4324.615234000001,4620.0,4198.974121,4281.025879,4257.436035,16130.0,3.0,73.0,,,,0.0,4.0,0.0,4.0,0.0,4.0,33.333332,,,,,,,,35.0,0.0,0.23945100000000002,-0.45458999999999994,0.460449,0.723877,0.891127,-0.449226,-0.17236600000000002,-0.042821,-0.056534,-0.018599,,,,,,,,,,,,,,,,,,,,,,,,,,,,,,,,,,,,,,,,,,,,,,,,,,,,,,,,,,,,,,,,,
16396,1650413818.187813,1650413818.202807,71.0,0.0,4365.128418,4700.0,4205.128418,4281.025879,4269.743652,450.0,3.0,73.0,,,,0.0,4.0,0.0,4.0,0.0,4.0,33.333332,,,,,,,,,,,,,,,,,,,,,,,,,,,,,,,,,,,,,,,,,,,,,,,,,,,,,,,,,,,,,,,,,,,,,,,,,,,,,,,,,,,,
16397,1650413818.195628,1650413818.210622,72.0,0.0,4358.974121,4660.512695,4205.128418,4281.025879,4266.153809,450.0,3.0,73.0,,,,0.0,4.0,0.0,4.0,0.0,4.0,33.333332,,,,,,,,36.0,0.0,0.23945100000000002,-0.45458999999999994,0.460449,0.723877,0.8842909999999999,-0.45557299999999995,-0.16552999999999998,-0.043373,-0.056496000000000005,-0.016544,,,,,,,,,,,,,,,,,,,,,,,,,,,,,,,,,,,,,,,,,,,,,,,,,,,,,,,,,,,,,,,,,
16398,1650413818.203442,1650413818.2183359,73.0,0.0,4326.153809,4542.05127,4201.025879,4281.025879,4252.307617,0.0,3.0,73.0,,,,0.0,4.0,0.0,4.0,0.0,4.0,33.333332,1.0,33.333332,4.0,0.0,4.0,0.0,4.0,,,,,,,,,,,,,1.0,0.0,0.0,,,,,,,,,,,,,,,,,,,,,,,,,,,,,,,,0.0,0.0,1.0,0.0,512.0,1.0,4.585863,1.702616,1.559862,0.974808,1.044286,13.049014,15.201876,10.460264,10.310913000000001,13.589679,1.327045,0.9466319999999999,1.285937,1.379329,0.7055140000000001,0.0,0.0,0.0,0.0,0.0,4.225792,2.501635,1.388218,0.966233,1.076769
16399,1650413818.211257,1650413818.226251,74.0,0.0,4340.0,4592.307617,4195.384765999999,4281.025879,4257.94873,450.0,3.0,73.0,,,,0.0,4.0,0.0,4.0,0.0,4.0,33.333332,,,,,,,,37.0,0.0,0.23945100000000002,-0.45458999999999994,0.460449,0.723877,0.8930799999999999,-0.45215500000000003,-0.16552999999999998,-0.043869,-0.056462,-0.01484,,,,,,,,,,,,,,,,,,,,,,,,,,,,,,,,,,,,,,,,,,,,,,,,,,,,,,,,,,,,,,,,,
16400,1650413818.219072,1650413818.234066,75.0,0.0,4381.025879,4638.974121,4207.179688,4281.538574,4292.820313,16198.0,3.0,73.0,,,,0.0,4.0,0.0,4.0,0.0,4.0,33.333332,,,,,,,,,,,,,,,,,,,,,,,,,,,,,,,,,,,,,,,,,,,,,,,,,,,,,,,,,,,,,,,,,,,,,,,,,,,,,,,,,,,,
16401,1650413818.226886,1650413818.24198,76.0,0.0,4416.410156,4588.717772999999,4223.077147999999,4280.512695,4328.717772999999,450.0,3.0,73.0,,,,0.0,4.0,0.0,4.0,0.0,4.0,33.333332,,,,,,,,38.0,0.0,0.23945100000000002,-0.45458999999999994,0.460449,0.723877,0.8833139999999999,-0.45410900000000004,-0.1626,-0.042656,-0.056382,-0.016725999999999998,,,,,,,,,,,,,,,,,,,,,,,,,,,,,,,,,,,,,,,,,,,,,,,,,,,,,,,,,,,,,,,,,
16402,1650413818.234701,1650413818.249795,77.0,0.0,4462.563965,4634.358886999999,4208.205078,4280.512695,4351.282227000001,450.0,3.0,73.0,,,,0.0,4.0,0.0,4.0,0.0,4.0,33.333332,,,,,,,,,,,,,,,,,,,,,,,,,,,,,,,,,,,,,,,,,,,,,,,,,,,,,,0.0,0.0,1.0,0.0,512.0,1.0,,,,,,,,,,,,,,,,,,,,,,,,,
16403,1650413818.242515,1650413818.257709,78.0,0.0,4562.05127,4696.922852000001,4188.205078,4285.128418,4423.077147999999,450.0,3.0,73.0,,,,0.0,4.0,0.0,4.0,0.0,4.0,33.333332,,,,,,,,39.0,0.0,0.23945100000000002,-0.45458999999999994,0.460449,0.723877,0.8813610000000001,-0.45215500000000003,-0.171389,-0.043176,-0.056359000000000006,-0.018471,,,,,,,,,,,,,,,,,,,,,,,,,,,,,,,,,,,,,,,,,,,,,,,,,,,,,,,,,,,,,,,,,
16404,1650413818.25033,1650413818.265524,79.0,0.0,4712.307617,4635.384765999999,4202.563965,4289.230957,4548.205078,16198.0,3.0,73.0,,,,0.0,4.0,0.0,4.0,0.0,4.0,33.333332,,,,,,,,,,,,,,,,,,,,,,,,,,,,,,,,,,,,,,,,,,,,,,,,,,,,,,,,,,,,,,,,,,,,,,,,,,,,,,,,,,,,
16405,1650413818.2581449,1650413818.2734392,80.0,0.0,4848.205078,4582.563965,4231.794922,4288.205078,4661.538574,450.0,3.0,73.0,,,,0.0,4.0,0.0,4.0,0.0,4.0,33.333332,,,,,,,,40.0,0.0,0.238981,-0.45458999999999994,0.460693,0.723877,0.886732,-0.45459700000000003,-0.1626,-0.043741,-0.056387,-0.020041999999999997,,,,,,,,,,,,,,,,,,,,,,,,,,,,,,,,,,,,,,,,,,,,,,,,,,,,,,,,,,,,,,,,,
16406,1650413818.265959,1650413818.2812529,81.0,0.0,4926.666504,4605.128418,4243.077147999999,4288.205078,4734.358886999999,450.0,3.0,73.0,,,,0.0,4.0,0.0,4.0,0.0,4.0,33.333332,,,,,,,,,,,,,,,,,,,,,,,,,,,,,,,,,,,,,,,,,,,,,,,,,,,,,,0.0,0.0,1.0,0.0,512.0,1.0,,,,,,,,,,,,,,,,,,,,,,,,,
16407,1650413818.273774,1650413818.288968,82.0,0.0,4974.871582,4622.563965,4231.282227000001,4292.820313,4766.666504,450.0,3.0,73.0,,,,0.0,4.0,0.0,4.0,0.0,4.0,33.333332,,,,,,,,41.0,0.0,0.238981,-0.45458999999999994,0.460693,0.723877,0.882338,-0.43946,-0.161624,-0.044201,-0.056364,-0.017842,,,,,,,,,,,,,,,,,,,,,,,,,,,,,,,,,,,,,,,,,,,,,,,,,,,,,,,,,,,,,,,,,
16408,1650413818.281588,1650413818.296783,83.0,0.0,5005.641113000001,4628.717772999999,4226.153809,4295.897461,4787.179688,16198.0,3.0,73.0,,,,0.0,4.0,0.0,4.0,0.0,4.0,33.333332,,,,,,,,,,,,,,,,,,,,,,,,,,,,,,,,,,,,,,,,,,,,,,,,,,,,,,,,,,,,,,,,,,,,,,,,,,,,,,,,,,,,
16409,1650413818.289403,1650413818.304697,84.0,0.0,5034.358886999999,4648.717772999999,4237.94873,4296.410156,4820.512695,450.0,3.0,73.0,,,,0.0,4.0,0.0,4.0,0.0,4.0,33.333332,,,,,,,,42.0,0.0,0.239445,-0.454346,0.460693,0.723877,0.8740370000000001,-0.46387399999999995,-0.173342,-0.043004,-0.056343,-0.019525,,,,,,,,,,,,,,,,,,,,,,,,,,,,,,,,,,,,,,,,,,,,,,,,,,,,,,,,,,,,,,,,,
16410,1650413818.297217,1650413818.312512,85.0,0.0,5077.436035,4668.205078,4236.922852000001,4296.410156,4851.282227000001,450.0,3.0,73.0,,,,0.0,4.0,0.0,4.0,0.0,4.0,33.333332,,,,,,,,,,,,,,,,,,,,,,,,,,,,,,,,,,,,,,,,,,,,,,,,,,,,,,0.0,0.0,1.0,0.0,512.0,1.0,,,,,,,,,,,,,,,,,,,,,,,,,
16411,1650413818.305032,1650413818.320226,86.0,0.0,5087.179688,4654.358886999999,4230.256348,4295.897461,4846.153809,450.0,3.0,73.0,,,,0.0,4.0,0.0,4.0,0.0,4.0,33.333332,,,,,,,,43.0,0.0,0.239445,-0.454346,0.460693,0.723877,0.890639,-0.45655,-0.16406500000000002,-0.042073,-0.056275,-0.021039,,,,,,,,,,,,,,,,,,,,,,,,,,,,,,,,,,,,,,,,,,,,,,,,,,,,,,,,,,,,,,,,,
16412,1650413818.3128471,1650413818.328041,87.0,0.0,5067.692383,4575.384765999999,4244.102539,4295.897461,4837.436035,16198.0,3.0,73.0,,,,0.0,4.0,0.0,4.0,0.0,4.0,33.333332,,,,,,,,,,,,,,,,,,,,,,,,,,,,,,,,,,,,,,,,,,,,,,,,,,,,,,,,,,,,,,,,,,,,,,,,,,,,,,,,,,,,
16413,1650413818.3206608,1650413818.335756,88.0,0.0,5081.538574,4545.128418,4260.512695,4295.384765999999,4855.897461,450.0,3.0,73.0,,,,0.0,4.0,0.0,4.0,0.0,4.0,33.333332,,,,,,,,44.0,0.0,0.239445,-0.454346,0.460693,0.723877,0.8930799999999999,-0.45361999999999997,-0.159182,-0.042748,-0.056361,-0.022256,,,,,,,,,,,,,,,,,,,,,,,,,,,,,,,,,,,,,,,,,,,,,,,,,,,,,,,,,,,,,,,,,
16414,1650413818.328476,1650413818.3435712,89.0,0.0,5101.538574,4610.256348,4274.871582,4295.897461,4877.436035,450.0,3.0,73.0,,,,0.0,4.0,0.0,4.0,0.0,4.0,33.333332,,,,,,,,,,,,,,,,,,,,1.0,0.0,0.0,,,,,,,,,,,,,,,,,,,,,,,,,,,,,,,,0.0,0.0,1.0,0.0,512.0,0.7720100000000001,5.396619,1.591776,1.4601950000000001,0.9393299999999999,0.95135,15.404148999999999,17.809128,10.902009,10.172867,12.895786,1.206446,0.727953,1.503192,1.223632,0.686678,1.7e-05,7.000000000000001e-06,2e-06,1e-06,1e-06,4.479161,2.03864,1.378136,1.0341870000000002,1.004235
16415,1650413818.3362901,1650413818.351285,90.0,0.0,5093.333496,4664.615234000001,4276.410156,4295.384765999999,4879.487305,450.0,3.0,73.0,,,,0.0,4.0,0.0,4.0,0.0,4.0,33.333332,,,,,,,,45.0,0.0,0.239907,-0.45410200000000006,0.460693,0.723877,0.8994280000000001,-0.451179,-0.16406500000000002,-0.043356,-0.056389,-0.017052,,,,,,,,,,,,,,,,,,,,,,,,,,,,,,,,,,,,,,,,,,,,,,,,,,,,,,,,,,,,,,,,,
16416,1650413818.344105,1650413818.3592,91.0,0.0,5089.230957,4628.717772999999,4258.461426,4295.384765999999,4862.05127,16198.0,3.0,73.0,,,,0.0,4.0,0.0,4.0,0.0,4.0,33.333332,,,,,,,,,,,,,,,,,,,,,,,,,,,,,,,,,,,,,,,,,,,,,,,,,,,,,,,,,,,,,,,,,,,,,,,,,,,,,,,,,,,,
16417,1650413818.35192,1650413818.3670142,92.0,0.0,5103.077147999999,4561.538574,4259.487305,4296.922852000001,4861.538574,450.0,3.0,73.0,,,,0.0,4.0,0.0,4.0,0.0,4.0,33.333332,,,,,,,,46.0,0.0,0.239445,-0.454346,0.460693,0.723877,0.890639,-0.45655,-0.16406500000000002,-0.043708,-0.056365,-0.015151,,,,,,,,,,,,,,,,,,,,,,,,,,,,,,,,,,,,,,,,,,,,,,,,,,,,,,,,,,,,,,,,,
16418,1650413818.359734,1650413818.3748288,93.0,0.0,5113.333496,4552.307617,4273.333496,4298.461426,4878.461426,450.0,3.0,73.0,,,,0.0,4.0,0.0,4.0,0.0,4.0,33.333332,,,,,,,,,,,,,,,,,,,,,,,,,,,,,,,,,,,,,,,,,,,,,,,,,,,,,,0.0,0.0,1.0,0.0,512.0,0.7720100000000001,,,,,,,,,,,,,,,,,,,,,,,,,
16419,1650413818.367549,1650413818.382544,94.0,0.0,5109.743652,4574.358886999999,4263.589844,4297.436035,4875.897461,450.0,3.0,73.0,,,,0.0,4.0,0.0,4.0,0.0,4.0,33.333332,,,,,,,,47.0,0.0,0.239907,-0.45410200000000006,0.460693,0.723877,0.8994280000000001,-0.451179,-0.16406500000000002,-0.044219999999999995,-0.05639299999999999,-0.010657999999999999,,,,,,,,,,,,,,,,,,,,,,,,,,,,,,,,,,,,,,,,,,,,,,,,,,,,,,,,,,,,,,,,,
16420,1650413818.375363,1650413818.390358,95.0,0.0,5103.589844,4585.128418,4257.436035,4296.922852000001,4865.128418,16198.0,3.0,73.0,,,,0.0,4.0,0.0,4.0,0.0,4.0,33.333332,,,,,,,,,,,,,,,,,,,,,,,,,,,,,,,,,,,,,,,,,,,,,,,,,,,,,,,,,,,,,,,,,,,,,,,,,,,,,,,,,,,,
16421,1650413818.383178,1650413818.398073,96.0,0.0,5107.179688,4581.538574,4271.282227000001,4297.94873,4871.282227000001,450.0,3.0,73.0,,,,0.0,4.0,0.0,4.0,0.0,4.0,33.333332,,,,,,,,48.0,0.0,0.23869899999999997,-0.45410200000000006,0.460938,0.724121,0.8872209999999999,-0.45606199999999997,-0.174319,-0.044583,-0.056369,-0.012912,,,,,,,,,,,,,,,,,,,,,,,,,,,,,,,,,,,,,,,,,,,,,,,,,,,,,,,,,,,,,,,,,
16422,1650413818.3909929,1650413818.405988,97.0,0.0,5112.820313,4580.0,4264.102539,4298.461426,4864.102539,450.0,3.0,73.0,,,,0.0,4.0,0.0,4.0,0.0,4.0,33.333332,,,,,,,,,,,,,,,,,,,,,,,,,,,,,,,,,,,,,,,,,,,,,,,,,,,,,,0.0,0.0,1.0,0.0,512.0,0.7720100000000001,,,,,,,,,,,,,,,,,,,,,,,,,
16423,1650413818.398807,1650413818.413802,98.0,0.0,5097.436035,4596.410156,4249.743652,4297.94873,4838.974121,450.0,3.0,73.0,,,,0.0,4.0,0.0,4.0,0.0,4.0,33.333332,,,,,,,,49.0,0.0,0.2399,-0.45385699999999995,0.460938,0.723877,0.8838030000000001,-0.46582700000000005,-0.16211199999999998,-0.043348000000000005,-0.056347,-0.011474,,,,,,,,,,,,,,,,,,,,,,,,,,,,,,,,,,,,,,,,,,,,,,,,,,,,,,,,,,,,,,,,,
16424,1650413818.4066222,1650413818.421717,99.0,0.0,5081.538574,4592.820313,4252.307617,4297.94873,4829.743652,16198.0,3.0,73.0,,,,0.0,4.0,0.0,4.0,0.0,4.0,33.333332,,,,,,,,,,,,,,,,,,,,,,,,,,,,,,,,,,,,,,,,,,,,,,,,,,,,,,,,,,,,,,,,,,,,,,,,,,,,,,,,,,,,
16425,1650413818.4144359,1650413818.429532,100.0,0.0,5096.922852000001,4617.436035,4246.153809,4298.461426,4816.922852000001,450.0,3.0,73.0,,,,0.0,4.0,0.0,4.0,0.0,4.0,33.333332,,,,,,,,50.0,0.0,0.2399,-0.45385699999999995,0.460938,0.723877,0.8969860000000001,-0.44971400000000006,-0.16846,-0.042332999999999996,-0.056180999999999995,-0.01355,,,,,,,,,,,,,,,,,,,,,,,,,,,,,,,,,,,,,,,,,,,,,,,,,,,,,,,,,,,,,,,,,
16426,1650413818.422251,1650413818.437346,101.0,0.0,5102.563965,4645.128418,4251.282227000001,4298.461426,4805.128418,450.0,3.0,73.0,,,,0.0,4.0,0.0,4.0,0.0,4.0,33.333332,,,,,,,,,,,,,,,,,,,,,,,,,,,,,,,,,,,,,,,,,,,,,,,,,,,,,,0.0,0.0,1.0,0.0,512.0,0.7720100000000001,,,,,,,,,,,,,,,,,,,,,,,,,
16427,1650413818.430066,1650413818.445061,102.0,0.0,5096.410156,4652.820313,4262.05127,4298.461426,4827.692383,450.0,3.0,73.0,,,,0.0,4.0,0.0,4.0,0.0,4.0,33.333332,,,,,,,,51.0,0.0,0.239431,-0.45385699999999995,0.461182,0.723877,0.894057,-0.45361999999999997,-0.16894800000000001,-0.042983,-0.056227,-0.012048,,,,,,,,,,,,,,,,,,,,,,,,,,,,,,,,,,,,,,,,,,,,,,,,,,,,,,,,,,,,,,,,,
16428,1650413818.43788,1650413818.452976,103.0,0.0,5087.179688,4635.384765999999,4246.153809,4298.461426,4844.615234000001,16198.0,3.0,73.0,,,,0.0,4.0,0.0,4.0,0.0,4.0,33.333332,,,,,,,,,,,,,,,,,,,,,,,,,,,,,,,,,,,,,,,,,,,,,,,,,,,,,,,,,,,,,,,,,,,,,,,,,,,,,,,,,,,,
16429,1650413818.445695,1650413818.4607902,104.0,0.0,5054.358886999999,4567.692383,4247.692383,4298.461426,4813.333496,450.0,3.0,73.0,,,,0.0,4.0,0.0,4.0,0.0,4.0,33.333332,,,,,,,,52.0,0.0,0.240168,-0.45385699999999995,0.461182,0.723633,0.8896620000000001,-0.448737,-0.155764,-0.041907,-0.056366,-0.010697,,,,,,,,,,,,,,,,,,,,,,,,,,,,,,,,,,,,,,,,,,,,,,,,,,,,,,,,,,,,,,,,,
16430,1650413818.453509,1650413818.4687052,105.0,0.0,5033.846191,4554.871582,4279.487305,4298.974121,4776.922852000001,450.0,3.0,73.0,,,,0.0,4.0,0.0,4.0,0.0,4.0,33.333332,,,,,,,,,,,,,,,,,,,,1.0,0.0,0.0,,,,,,,,,,,,,,,,,,,,,,,,,,,,,,,,0.0,0.0,1.0,0.0,512.0,0.9171940000000001,9.178198,2.2648580000000003,1.433224,0.8698370000000001,0.8996700000000001,17.950748,19.62871,10.268726,9.999962,12.593932,1.203457,0.7529710000000001,1.692303,1.010337,0.690056,0.0010949999999999998,0.000234,2.5e-05,3.1e-05,3.9e-05,6.700571000000001,2.104246,1.47292,1.115652,0.963907
16431,1650413818.461324,1650413818.4765189,106.0,0.0,5035.384765999999,4616.410156,4283.589844,4297.94873,4776.410156,450.0,3.0,73.0,,,,0.0,4.0,0.0,4.0,0.0,4.0,33.333332,,,,,,,,53.0,0.0,0.240168,-0.45385699999999995,0.461182,0.723633,0.891127,-0.461433,-0.1626,-0.040891000000000004,-0.05639400000000001,-0.012996,,,,,,,,,,,,,,,,,,,,,,,,,,,,,,,,,,,,,,,,,,,,,,,,,,,,,,,,,,,,,,,,,
16432,1650413818.469139,1650413818.484434,107.0,0.0,4960.0,4672.307617,4257.94873,4296.922852000001,4752.820313,16198.0,3.0,73.0,,,,0.0,4.0,0.0,4.0,0.0,4.0,33.333332,,,,,,,,,,,,,,,,,,,,,,,,,,,,,,,,,,,,,,,,,,,,,,,,,,,,,,,,,,,,,,,,,,,,,,,,,,,,,,,,,,,,
16433,1650413818.476953,1650413818.492249,108.0,0.0,4829.230957,4656.410156,4259.487305,4294.871582,4668.717772999999,450.0,3.0,73.0,,,,0.0,4.0,0.0,4.0,0.0,4.0,33.333332,,,,,,,,54.0,0.0,0.239706,-0.45410200000000006,0.461182,0.723633,0.876967,-0.44385399999999997,-0.159182,-0.041587,-0.05637,-0.014968,,,,,,,,,,,,,,,,,,,,,,,,,,,,,,,,,,,,,,,,,,,,,,,,,,,,,,,,,,,,,,,,,
16434,1650413818.484768,1650413818.499963,109.0,0.0,4771.282227000001,4626.666504,4266.666504,4289.230957,4612.307617,450.0,3.0,73.0,,,,0.0,4.0,0.0,4.0,0.0,4.0,33.333332,,,,,,,,,,,,,,,,,,,,,,,,,,,,,,,,,,,,,,,,,,,,,,,,,,,,,,0.0,0.0,1.0,0.0,512.0,0.9171940000000001,,,,,,,,,,,,,,,,,,,,,,,,,
16435,1650413818.492582,1650413818.507778,110.0,0.0,4718.974121,4625.128418,4242.563965,4285.128418,4607.692383,450.0,3.0,73.0,,,,0.0,4.0,0.0,4.0,0.0,4.0,33.333332,,,,,,,,55.0,0.0,0.239706,-0.45410200000000006,0.461182,0.723633,0.8715950000000001,-0.466316,-0.158694,-0.042262,-0.056397,-0.013325,,,,,,,,,,,,,,,,,,,,,,,,,,,,,,,,,,,,,,,,,,,,,,,,,,,,,,,,,,,,,,,,,
16436,1650413818.500397,1650413818.515493,111.0,0.0,4586.666504,4608.205078,4223.589844,4284.615234000001,4547.692383,16198.0,3.0,73.0,,,,0.0,4.0,0.0,4.0,0.0,4.0,33.333332,,,,,,,,,,,,,,,,,,,,,,,,,,,,,,,,,,,,,,,,,,,,,,,,,,,,,,,,,,,,,,,,,,,,,,,,,,,,,,,,,,,,
16437,1650413818.5082119,1650413818.523407,112.0,0.0,4481.538574,4574.358886999999,4239.487305,4283.077147999999,4455.384765999999,450.0,3.0,73.0,,,,0.0,4.0,0.0,4.0,0.0,4.0,33.333332,,,,,,,,56.0,0.0,0.240175,-0.45410200000000006,0.460938,0.723633,0.889174,-0.457038,-0.16406500000000002,-0.04287,-0.056373,-0.015362,,,,,,,,,,,,,,,,,,,,,,,,,,,,,,,,,,,,,,,,,,,,,,,,,,,,,,,,,,,,,,,,,
16438,1650413818.516026,1650413818.531222,113.0,0.0,4449.230957,4539.487305,4245.641113000001,4281.538574,4416.922852000001,450.0,3.0,73.0,,,,0.0,4.0,0.0,4.0,0.0,4.0,33.333332,,,,,,,,,,,,,,,,,,,,,,,,,,,,,,,,,,,,,,,,,,,,,,,,,,,,,,0.0,0.0,1.0,0.0,512.0,0.9171940000000001,,,,,,,,,,,,,,,,,,,,,,,,,
16439,1650413818.523841,1650413818.539037,114.0,0.0,4400.0,4572.820313,4216.410156,4282.05127,4389.230957,450.0,3.0,73.0,,,,0.0,4.0,0.0,4.0,0.0,4.0,33.333332,,,,,,,,57.0,0.0,0.240175,-0.45410200000000006,0.460938,0.723633,0.8881969999999999,-0.45410900000000004,-0.155276,-0.042001,-0.0564,-0.017244,,,,,,,,,,,,,,,,,,,,,,,,,,,,,,,,,,,,,,,,,,,,,,,,,,,,,,,,,,,,,,,,,
16440,1650413818.531655,1650413818.546751,115.0,0.0,4303.077147999999,4592.820313,4207.179688,4282.05127,4313.846191,16198.0,3.0,73.0,,,,0.0,4.0,0.0,4.0,0.0,4.0,33.333332,,,,,,,,,,,,,,,,,,,,,,,,,,,,,,,,,,,,,,,,,,,,,,,,,,,,,,,,,,,,,,,,,,,,,,,,,,,,,,,,,,,,
16441,1650413818.53947,1650413818.554566,116.0,0.0,4230.256348,4591.794922,4218.461426,4281.025879,4234.358886999999,450.0,3.0,73.0,,,,0.0,4.0,0.0,4.0,0.0,4.0,33.333332,,,,,,,,58.0,0.0,0.239438,-0.45410200000000006,0.460938,0.723877,0.882338,-0.461433,-0.166018,-0.041072000000000004,-0.056424,-0.018937,,,,,,,,,,,,,,,,,,,,,,,,,,,,,,,,,,,,,,,,,,,,,,,,,,,,,,,,,,,,,,,,,
16442,1650413818.547285,1650413818.5622811,117.0,0.0,4207.179688,4649.743652,4206.153809,4281.538574,4201.025879,450.0,3.0,73.0,,,,0.0,4.0,0.0,4.0,0.0,4.0,33.333332,,,,,,,,,,,,,,,,,,,,,,,,,,,,,,,,,,,,,,,,,,,,,,,,,,,,,,0.0,0.0,1.0,0.0,512.0,0.9171940000000001,,,,,,,,,,,,,,,,,,,,,,,,,
16443,1650413818.555099,1650413818.5700948,118.0,0.0,4185.128418,4678.461426,4191.794922,4281.538574,4190.256348,450.0,3.0,73.0,,,,0.0,4.0,0.0,4.0,0.0,4.0,33.333332,,,,,,,,59.0,0.0,0.239438,-0.45410200000000006,0.460938,0.723877,0.871107,-0.44483100000000003,-0.166018,-0.041799,-0.056397,-0.020413,,,,,,,,,,,,,,,,,,,,,,,,,,,,,,,,,,,,,,,,,,,,,,,,,,,,,,,,,,,,,,,,,
16444,1650413818.5629141,1650413818.57781,119.0,0.0,4141.538574,4616.922852000001,4198.974121,4280.512695,4157.436035,16198.0,3.0,73.0,,,,0.0,4.0,0.0,4.0,0.0,4.0,33.333332,,,,,,,,,,,,,,,,,,,,,,,,,,,,,,,,,,,,,,,,,,,,,,,,,,,,,,,,,,,,,,,,,,,,,,,,,,,,,,,,,,,,
16445,1650413818.5707278,1650413818.585725,120.0,0.0,4121.025879,4573.846191,4204.102539,4280.512695,4123.077147999999,450.0,3.0,73.0,,,,0.0,4.0,0.0,4.0,0.0,4.0,33.333332,,,,,,,,60.0,0.0,0.239438,-0.45410200000000006,0.460938,0.723877,0.882338,-0.457527,-0.164553,-0.040891000000000004,-0.056372000000000005,-0.021643,,,,,,,,,,,,,,,,,,,,,,,,,,,,,,,,,,,,,,,,,,,,,,,,,,,,,,,,,,,,,,,,,
16446,1650413818.578543,1650413818.593539,121.0,0.0,4110.256348,4623.077147999999,4197.436035,4280.512695,4107.692383,450.0,3.0,73.0,,,,0.0,4.0,0.0,4.0,0.0,4.0,33.333332,,,,,,,,,,,,,,,,,,,,1.0,0.0,0.0,,,,,,,,,,,,,,,,,,,,,,,,,,,,,,,,0.0,0.0,1.0,0.0,512.0,0.763321,22.517618,5.0934800000000005,1.741091,0.803871,0.921026,20.119907,20.335653,8.800604,9.658482000000001,12.754996,1.335575,0.9007940000000001,1.7903939999999998,0.805237,0.724142,0.006261,0.001431,0.00014099999999999998,0.000173,0.000236,15.51401,3.523912,1.8656139999999999,1.219194,0.97325
16447,1650413818.586358,1650413818.601354,122.0,0.0,4076.923096,4637.436035,4190.769043,4280.512695,4077.9487299999996,450.0,3.0,73.0,,,,0.0,4.0,0.0,4.0,0.0,4.0,33.333332,,,,,,,,61.0,0.0,0.2399,-0.45385699999999995,0.460938,0.723877,0.881849,-0.453132,-0.163577,-0.041636,-0.05635,-0.022799,,,,,,,,,,,,,,,,,,,,,,,,,,,,,,,,,,,,,,,,,,,,,,,,,,,,,,,,,,,,,,,,,
16448,1650413818.594172,1650413818.6090689,123.0,0.0,4049.743652,4591.794922,4186.153809,4279.487305,4049.743652,16198.0,3.0,73.0,,,,0.0,4.0,0.0,4.0,0.0,4.0,33.333332,,,,,,,,,,,,,,,,,,,,,,,,,,,,,,,,,,,,,,,,,,,,,,,,,,,,,,,,,,,,,,,,,,,,,,,,,,,,,,,,,,,,
16449,1650413818.601987,1650413818.616983,124.0,0.0,4032.820557,4532.820313,4183.589844,4277.94873,4033.8461909999996,450.0,3.0,73.0,,,,0.0,4.0,0.0,4.0,0.0,4.0,33.333332,,,,,,,,62.0,0.0,0.239431,-0.45385699999999995,0.461182,0.723877,0.885267,-0.453132,-0.150881,-0.042256999999999996,-0.05633099999999999,-0.020373,,,,,,,,,,,,,,,,,,,,,,,,,,,,,,,,,,,,,,,,,,,,,,,,,,,,,,,,,,,,,,,,,
16450,1650413818.609801,1650413818.624798,125.0,0.0,4021.025635,4532.307617,4188.205078,4279.487305,4011.794922,450.0,3.0,73.0,,,,0.0,4.0,0.0,4.0,0.0,4.0,33.333332,,,,,,,,,,,,,,,,,,,,,,,,,,,,,,,,,,,,,,,,,,,,,,,,,,,,,,0.0,0.0,1.0,0.0,512.0,0.763321,,,,,,,,,,,,,,,,,,,,,,,,,
16451,1650413818.617616,1650413818.632712,126.0,0.0,4029.2307130000004,4624.102539,4198.974121,4280.0,4021.538574,450.0,3.0,73.0,,,,0.0,4.0,0.0,4.0,0.0,4.0,33.333332,,,,,,,,63.0,0.0,0.23895999999999998,-0.45385699999999995,0.461426,0.723877,0.882826,-0.45215500000000003,-0.15332300000000001,-0.041303,-0.056313,-0.021753,,,,,,,,,,,,,,,,,,,,,,,,,,,,,,,,,,,,,,,,,,,,,,,,,,,,,,,,,,,,,,,,,
16452,1650413818.625431,1650413818.640527,127.0,0.0,4027.179443,4637.436035,4204.615234000001,4274.358886999999,4042.5642090000006,238.0,3.0,73.0,,,,0.0,4.0,0.0,4.0,0.0,4.0,33.333332,,,,,,,,,,,,,,,,,,,,,,,,,,,,,,,,,,,,,,,,,,,,,,,,,,,,,,,,,,,,,,,,,,,,,,,,,,,,,,,,,,,,
16453,1650413818.633245,1650413818.648442,0.0,0.0,4006.1538090000004,4547.179688,4200.512695,4272.820313,4021.538574,450.0,3.0,73.0,,,,0.0,4.0,0.0,4.0,0.0,4.0,33.333332,,,,,,,,0.0,0.0,0.23922800000000002,-0.45385699999999995,0.46166999999999997,0.723633,0.8847790000000001,-0.45948,-0.155764,-0.042007,-0.056297,-0.022897999999999998,,,,,,,,,,,,,,,,,,,,,,,,,,,,,,,,,,,,,,,,,,,,,,,,,,,,,,,,,,,,,,,,,
16454,1650413818.6410599,1650413818.656256,1.0,0.0,4011.281982,4517.94873,4202.05127,4279.487305,4015.897461,450.0,3.0,73.0,,,,0.0,4.0,0.0,4.0,0.0,4.0,33.333332,,,,,,,,,,,,,,,,,,,,,,,,,,,,,,,,,,,,,,,,,,,,,,,,,,,,,,0.0,0.0,1.0,0.0,512.0,0.763321,,,,,,,,,,,,,,,,,,,,,,,,,
16455,1650413818.648874,1650413818.664171,2.0,0.0,4029.743652,4587.179688,4203.589844,4281.025879,4042.5642090000006,16216.0,3.0,73.0,,,,0.0,4.0,0.0,4.0,0.0,4.0,33.333332,,,,,,,,1.0,0.0,0.23969000000000001,-0.453613,0.46166999999999997,0.723633,0.8921030000000001,-0.45215500000000003,-0.17236600000000002,-0.041077999999999996,-0.05642899999999999,-0.026810000000000004,,,,,,,,,,,,,,,,,,,,,,,,,,,,,,,,,,,,,,,,,,,,,,,,,,,,,,,,,,,,,,,,,
16456,1650413818.6566892,1650413818.671985,3.0,0.0,4015.897461,4604.615234000001,4192.307617,4275.384765999999,4035.897461,450.0,3.0,73.0,,,,0.0,4.0,0.0,4.0,0.0,4.0,33.333332,,,,,,,,,,,,,,,,,,,,,,,,,,,,,,,,,,,,,,,,,,,,,,,,,,,,,,,,,,,,,,,,,,,,,,,,,,,,,,,,,,,,
16457,1650413818.6645038,1650413818.6799,4.0,0.0,4018.974365,4573.333496,4184.615234000001,4276.410156,4022.0512700000004,31.0,3.0,73.0,,,,0.0,4.0,0.0,4.0,0.0,4.0,33.333332,,,,,,,,2.0,0.0,0.23848000000000003,-0.453613,0.46191400000000005,0.723877,0.885756,-0.458503,-0.172854,-0.040242,-0.056499,-0.027547000000000002,,,,,,,,,,,,,,,,,,,,,,,,,,,,,,,,,,,,,,,,,,,,,,,,,,,,,,,,,,,,,,,,,
16458,1650413818.672318,1650413818.687715,5.0,0.0,4057.9487299999996,4591.794922,4185.641113000001,4280.0,4043.5898439999996,450.0,3.0,73.0,,,,0.0,4.0,0.0,4.0,0.0,4.0,33.333332,,,,,,,,,,,,,,,,,,,,,,,,,,,,,,,,,,,,,,,,,,,,,,,,,,,,,,0.0,0.0,1.0,0.0,512.0,0.763321,,,,,,,,,,,,,,,,,,,,,,,,,
16459,1650413818.680133,1650413818.6954288,6.0,0.0,4086.6667479999996,4610.256348,4183.077147999999,4278.974121,4067.6923829999996,16125.0,3.0,73.0,,,,0.0,4.0,0.0,4.0,0.0,4.0,33.333332,,,,,,,,3.0,0.0,0.238943,-0.45336899999999997,0.46191400000000005,0.723877,0.8838030000000001,-0.486336,-0.164553,-0.041051,-0.056464999999999994,-0.028210000000000002,,,,,,,,,,,,,,,,,,,,,,,,,,,,,,,,,,,,,,,,,,,,,,,,,,,,,,,,,,,,,,,,,
16460,1650413818.687948,1650413818.703244,7.0,0.0,4135.897461,4638.461426,4181.538574,4279.487305,4118.461426,450.0,3.0,73.0,,,,0.0,4.0,0.0,4.0,0.0,4.0,33.333332,,,,,,,,,,,,,,,,,,,,,,,,,,,,,,,,,,,,,,,,,,,,,,,,,,,,,,,,,,,,,,,,,,,,,,,,,,,,,,,,,,,,
16461,1650413818.695762,1650413818.710959,8.0,0.0,4249.230957,4646.666504,4189.230957,4280.512695,4229.230957,450.0,3.0,73.0,,,,0.0,4.0,0.0,4.0,0.0,4.0,33.333332,,,,,,,,4.0,0.0,0.238943,-0.45336899999999997,0.46191400000000005,0.723877,0.8686659999999999,-0.46533900000000006,-0.16406500000000002,-0.041732,-0.056433000000000004,-0.025194,,,,,,,,,,,,,,,,,,,,,,,,,,,,,,,,,,,,,,,,,,,,,,,,,,,,,,,,,,,,,,,,,
16462,1650413818.703577,1650413818.7187731,9.0,0.0,4397.94873,4596.922852000001,4203.077147999999,4282.05127,4354.358886999999,0.0,3.0,73.0,,,,0.0,4.0,0.0,4.0,0.0,4.0,33.333332,1.0,8.333333,1.0,0.0,4.0,0.0,3.0,,,,,,,,,,,,,1.0,0.0,0.0,,,,,,,,,,,,,,,,,,,,,,,,,,,,,,,,0.0,0.0,64.0,1.0,1.0,0.0,51.176888,10.889261,2.5791630000000003,0.8065100000000001,1.03551,21.480854,19.760745999999997,7.0954820000000005,9.33482,13.224138,1.5692110000000001,1.0639100000000001,1.7777759999999998,0.666453,0.7890699999999999,0.01888,0.004561,0.000505,0.000553,0.000749,35.031578,6.868736,2.760616,1.362111,1.04765
16463,1650413818.711391,1650413818.726488,10.0,0.0,4544.102539,4558.461426,4222.05127,4284.615234000001,4460.512695,450.0,3.0,73.0,,,,0.0,4.0,0.0,4.0,0.0,4.0,33.333332,,,,,,,,5.0,0.0,0.23847100000000002,-0.45336899999999997,0.462158,0.723877,0.894057,-0.45948,-0.15820599999999999,-0.04083,-0.056357000000000004,-0.026044,,,,,,,,,,,,,,,,,,,,,,,,,,,,,,,,,,,,,,,,,,,,,,,,,,,,,,,,,,,,,,,,,
16464,1650413818.719206,1650413818.734303,11.0,0.0,4649.230957,4594.871582,4233.846191,4287.692383,4533.333496,16208.0,3.0,73.0,,,,0.0,4.0,0.0,4.0,0.0,4.0,33.333332,,,,,,,,,,,,,,,,,,,,,,,,,,,,,,,,,,,,,,,,,,,,,,,,,,,,,,,,,,,,,,,,,,,,,,,,,,,,,,,,,,,,
16465,1650413818.727021,1650413818.742018,12.0,0.0,4692.307617,4617.436035,4224.102539,4288.205078,4559.487305,450.0,3.0,73.0,,,,0.0,4.0,0.0,4.0,0.0,4.0,33.333332,,,,,,,,6.0,0.0,0.23847100000000002,-0.45336899999999997,0.462158,0.723877,0.8964979999999999,-0.46045600000000003,-0.16894800000000001,-0.041532,-0.056336000000000004,-0.023244,,,,,,,,,,,,,,,,,,,,,,,,,,,,,,,,,,,,,,,,,,,,,,,,,,,,,,,,,,,,,,,,,
16466,1650413818.734835,1650413818.749832,13.0,0.0,4715.897461,4570.769043,4212.820313,4289.743652,4553.846191,450.0,3.0,73.0,,,,0.0,4.0,0.0,4.0,0.0,4.0,33.333332,,,,,,,,,,,,,,,,,,,,,,,,,,,,,,,,,,,,,,,,,,,,,,,,,,,,,,0.0,0.0,64.0,1.0,1.0,0.0,,,,,,,,,,,,,,,,,,,,,,,,,
16467,1650413818.74265,1650413818.7575471,14.0,0.0,4734.871582,4599.487305,4224.102539,4289.743652,4547.692383,450.0,3.0,73.0,,,,0.0,4.0,0.0,4.0,0.0,4.0,33.333332,,,,,,,,7.0,0.0,0.23847100000000002,-0.45336899999999997,0.462158,0.723877,0.891127,-0.462898,-0.167483,-0.042213,-0.05631799999999999,-0.024288999999999998,,,,,,,,,,,,,,,,,,,,,,,,,,,,,,,,,,,,,,,,,,,,,,,,,,,,,,,,,,,,,,,,,
16468,1650413818.750464,1650413818.765461,15.0,0.0,4694.358886999999,4669.743652,4236.410156,4289.743652,4526.666504,16208.0,3.0,73.0,,,,0.0,4.0,0.0,4.0,0.0,4.0,33.333332,,,,,,,,,,,,,,,,,,,,,,,,,,,,,,,,,,,,,,,,,,,,,,,,,,,,,,,,,,,,,,,,,,,,,,,,,,,,,,,,,,,,
16469,1650413818.7582788,1650413818.773276,16.0,0.0,4588.205078,4647.179688,4223.589844,4290.769043,4481.025879,0.0,3.0,73.0,,,,0.0,4.0,0.0,4.0,0.0,4.0,33.333332,,,,,,,,8.0,0.0,0.23847100000000002,-0.45336899999999997,0.462158,0.723877,0.8960100000000001,-0.475105,-0.155764,-0.042727999999999995,-0.056301,-0.025034,,,,,,,,,,,,,,,,,,,,,,,,,,,,,,,,,,,,,,,,,,,,,,,,,,,,,,,,,,,,,,,,,
16470,1650413818.766094,1650413818.781191,17.0,0.0,4494.358886999999,4633.333496,4208.717772999999,4287.692383,4432.820313,0.0,3.0,73.0,,,,0.0,4.0,0.0,4.0,0.0,4.0,33.333332,,,,,,,,,,,,,,,,,,,,,,,,,,,,,,,,,,,,,,,,,,,,,,,,,,,,,,0.0,0.0,64.0,1.0,1.0,0.0,,,,,,,,,,,,,,,,,,,,,,,,,
16471,1650413818.773908,1650413818.789005,18.0,0.0,4443.077147999999,4675.897461,4214.358886999999,4282.05127,4378.974121,0.0,3.0,73.0,,,,0.0,4.0,0.0,4.0,0.0,4.0,33.333332,,,,,,,,9.0,0.0,0.23847100000000002,-0.45336899999999997,0.462158,0.723877,0.8964979999999999,-0.46045600000000003,-0.16894800000000001,-0.043241,-0.056287000000000004,-0.022335,,,,,,,,,,,,,,,,,,,,,,,,,,,,,,,,,,,,,,,,,,,,,,,,,,,,,,,,,,,,,,,,,
16472,1650413818.781723,1650413818.7969198,19.0,0.0,4367.179688,4660.0,4223.077147999999,4280.0,4315.897461,0.0,3.0,73.0,,,,0.0,4.0,0.0,4.0,0.0,4.0,33.333332,,,,,,,,,,,,,,,,,,,,,,,,,,,,,,,,,,,,,,,,,,,,,,,,,,,,,,,,,,,,,,,,,,,,,,,,,,,,,,,,,,,,
16473,1650413818.789537,1650413818.804735,20.0,0.0,4262.05127,4592.820313,4215.384765999999,4282.05127,4267.179688,0.0,3.0,73.0,,,,0.0,4.0,0.0,4.0,0.0,4.0,33.333332,,,,,,,,10.0,0.0,0.23847100000000002,-0.45336899999999997,0.462158,0.723877,0.8960100000000001,-0.475105,-0.155764,-0.043653,-0.056273000000000004,-0.023275,,,,,,,,,,,,,,,,,,,,,,,,,,,,,,,,,,,,,,,,,,,,,,,,,,,,,,,,,,,,,,,,,
16474,1650413818.7973518,1650413818.812649,21.0,0.0,4214.358886999999,4588.717772999999,4210.769043,4282.05127,4242.563965,0.0,3.0,73.0,,,,0.0,4.0,0.0,4.0,0.0,4.0,33.333332,,,,,,,,,,,,,,,,,,,,,,,,,,,,,,,,,,,,,,,,,,,,,,,,,,,,,,0.0,0.0,64.0,1.0,1.0,0.0,,,,,,,,,,,,,,,,,,,,,,,,,
16475,1650413818.805167,1650413818.8204641,22.0,0.0,4196.922852000001,4608.717772999999,4212.307617,4280.512695,4205.641113000001,0.0,3.0,73.0,,,,0.0,4.0,0.0,4.0,0.0,4.0,33.333332,,,,,,,,11.0,0.0,0.23847100000000002,-0.45336899999999997,0.462158,0.723877,0.8872209999999999,-0.468757,-0.157717,-0.044122,-0.056261,-0.024219,,,,,,,,,,,,,,,,,,,,,,,,,,,,,,,,,,,,,,,,,,,,,,,,,,,,,,,,,,,,,,,,,
16476,1650413818.8129811,1650413818.828378,23.0,0.0,4149.743652,4567.179688,4214.871582,4280.512695,4161.025879,0.0,3.0,73.0,,,,0.0,4.0,0.0,4.0,0.0,4.0,33.333332,,,,,,,,,,,,,,,,,,,,,,,,,,,,,,,,,,,,,,,,,,,,,,,,,,,,,,,,,,,,,,,,,,,,,,,,,,,,,,,,,,,,
16477,1650413818.820796,1650413818.836193,24.0,0.0,4119.487305,4547.692383,4221.538574,4281.025879,4140.0,0.0,3.0,73.0,,,,0.0,4.0,0.0,4.0,0.0,4.0,33.333332,,,,,,,,12.0,0.0,0.23847100000000002,-0.45336899999999997,0.462158,0.723877,0.886732,-0.464851,-0.158694,-0.044446,-0.056348,-0.018965,,,,,,,,,,,,,,,,,,,,,,,,,,,,,,,,,,,,,,,,,,,,,,,,,,,,,,,,,,,,,,,,,
16478,1650413818.82861,1650413818.844107,25.0,0.0,4100.0,4604.102539,4216.410156,4280.0,4109.230957,0.0,3.0,73.0,,,,0.0,4.0,0.0,4.0,0.0,4.0,33.333332,,,,,,,,,,,,,,,,,,,,1.0,0.0,0.0,,,,,,,,,,,,,,,,,,,,,,,,,,,,,,,,10.0,0.0,64.0,1.0,1.0,0.0,97.66147600000001,19.243036,3.850487,0.923855,1.255789,21.841524,17.967928,6.068521,9.390533,13.709051,1.8514979999999999,1.178888,1.659109,0.6214189999999999,0.875346,0.042615,0.010569,0.0014140000000000001,0.001315,0.0017510000000000002,66.450447,12.070694,4.117783,1.5440969999999998,1.197431
16479,1650413818.836425,1650413818.851922,26.0,0.0,4062.5642090000006,4618.461426,4204.615234000001,4278.461426,4066.1538090000004,0.0,3.0,73.0,,,,0.0,4.0,0.0,4.0,0.0,4.0,33.333332,,,,,,,,13.0,0.0,0.238943,-0.45336899999999997,0.46191400000000005,0.723877,0.8764780000000001,-0.46973400000000004,-0.160159,-0.044835,-0.056475,-0.020487000000000002,,,,,,,,,,,,,,,,,,,,,,,,,,,,,,,,,,,,,,,,,,,,,,,,,,,,,,,,,,,,,,,,,
16480,1650413818.84424,1650413818.8598368,27.0,0.0,4058.461426,4575.897461,4210.256348,4278.974121,4061.025635,0.0,3.0,73.0,,,,0.0,4.0,0.0,4.0,0.0,4.0,33.333332,,,,,,,,,,,,,,,,,,,,,,,,,,,,,,,,,,,,,,,,,,,,,,,,,,,,,,,,,,,,,,,,,,,,,,,,,,,,,,,,,,,,
16481,1650413818.8520539,1650413818.867651,28.0,0.0,4074.8718259999996,4575.384765999999,4220.0,4278.461426,4075.897461,0.0,3.0,73.0,,,,0.0,4.0,0.0,4.0,0.0,4.0,33.333332,,,,,,,,14.0,0.0,0.238943,-0.45336899999999997,0.46191400000000005,0.723877,0.8842909999999999,-0.45606199999999997,-0.166506,-0.043672,-0.056248,-0.021807,,,,,,,,,,,,,,,,,,,,,,,,,,,,,,,,,,,,,,,,,,,,,,,,,,,,,,,,,,,,,,,,,
16482,1650413818.859869,1650413818.875366,29.0,0.0,4061.025635,4610.769043,4212.820313,4276.922852000001,4064.615479,0.0,3.0,73.0,,,,0.0,4.0,0.0,4.0,0.0,4.0,33.333332,,,,,,,,,,,,,,,,,,,,,,,,,,,,,,,,,,,,,,,,,,,,,,,,,,,,,,10.0,0.0,64.0,1.0,1.0,0.0,,,,,,,,,,,,,,,,,,,,,,,,,
16483,1650413818.867683,1650413818.883181,30.0,0.0,4050.256348,4634.358886999999,4213.846191,4277.436035,4052.820557,0.0,3.0,73.0,,,,0.0,4.0,0.0,4.0,0.0,4.0,33.333332,,,,,,,,15.0,0.0,0.239877,-0.453125,0.46166999999999997,0.723877,0.886732,-0.467292,-0.154788,-0.04409,-0.056287000000000004,-0.01948,,,,,,,,,,,,,,,,,,,,,,,,,,,,,,,,,,,,,,,,,,,,,,,,,,,,,,,,,,,,,,,,,
16484,1650413818.875498,1650413818.890895,31.0,0.0,4062.5642090000006,4653.333496,4232.820313,4280.0,4060.0,0.0,3.0,73.0,,,,0.0,4.0,0.0,4.0,0.0,4.0,33.333332,,,,,,,,,,,,,,,,,,,,,,,,,,,,,,,,,,,,,,,,,,,,,,,,,,,,,,,,,,,,,,,,,,,,,,,,,,,,,,,,,,,,
16485,1650413818.8833132,1650413818.89871,32.0,0.0,4061.025635,4640.0,4232.307617,4280.512695,4064.102539,0.0,3.0,73.0,,,,0.0,4.0,0.0,4.0,0.0,4.0,33.333332,,,,,,,,16.0,0.0,0.23941500000000002,-0.45336899999999997,0.46166999999999997,0.723877,0.898451,-0.45459700000000003,-0.164553,-0.042953,-0.056274,-0.020804,,,,,,,,,,,,,,,,,,,,,,,,,,,,,,,,,,,,,,,,,,,,,,,,,,,,,,,,,,,,,,,,,
16486,1650413818.8911269,1650413818.906425,33.0,0.0,4048.205078,4607.179688,4218.461426,4280.512695,4057.4357909999994,0.0,3.0,73.0,,,,0.0,4.0,0.0,4.0,0.0,4.0,33.333332,,,,,,,,,,,,,,,,,,,,,,,,,,,,,,,,,,,,,,,,,,,,,,,,,,,,,,10.0,0.0,64.0,1.0,1.0,0.0,,,,,,,,,,,,,,,,,,,,,,,,,
16487,1650413818.898942,1650413818.914339,34.0,0.0,4051.281982,4597.436035,4226.153809,4279.487305,4055.897461,0.0,3.0,73.0,,,,0.0,4.0,0.0,4.0,0.0,4.0,33.333332,,,,,,,,17.0,0.0,0.23941500000000002,-0.45336899999999997,0.46166999999999997,0.723877,0.882338,-0.446784,-0.175784,-0.041929,-0.05631,-0.022093,,,,,,,,,,,,,,,,,,,,,,,,,,,,,,,,,,,,,,,,,,,,,,,,,,,,,,,,,,,,,,,,,
16488,1650413818.9067562,1650413818.922154,35.0,0.0,4063.076904,4572.307617,4239.487305,4278.974121,4058.461426,0.0,3.0,73.0,,,,0.0,4.0,0.0,4.0,0.0,4.0,33.333332,,,,,,,,,,,,,,,,,,,,,,,,,,,,,,,,,,,,,,,,,,,,,,,,,,,,,,,,,,,,,,,,,,,,,,,,,,,,,,,,,,,,
16489,1650413818.914571,1650413818.930069,36.0,0.0,4061.025635,4544.102539,4231.282227000001,4278.461426,4049.2307130000004,0.0,3.0,73.0,,,,0.0,4.0,0.0,4.0,0.0,4.0,33.333332,,,,,,,,18.0,0.0,0.239885,-0.45336899999999997,0.461426,0.723877,0.8847790000000001,-0.455085,-0.173342,-0.040958999999999995,-0.056392,-0.023204,,,,,,,,,,,,,,,,,,,,,,,,,,,,,,,,,,,,,,,,,,,,,,,,,,,,,,,,,,,,,,,,,
16490,1650413818.922386,1650413818.937883,37.0,0.0,4057.4357909999994,4552.820313,4222.563965,4276.410156,4052.3076170000004,0.0,3.0,73.0,,,,0.0,4.0,0.0,4.0,0.0,4.0,33.333332,,,,,,,,,,,,,,,,,,,,,,,,,,,,,,,,,,,,,,,,,,,,,,,,,,,,,,10.0,0.0,64.0,1.0,1.0,0.0,,,,,,,,,,,,,,,,,,,,,,,,,
16491,1650413818.9302,1650413818.9457982,38.0,0.0,4067.6923829999996,4574.871582,4230.769043,4277.436035,4071.794922,0.0,3.0,73.0,,,,0.0,4.0,0.0,4.0,0.0,4.0,33.333332,,,,,,,,19.0,0.0,0.23941500000000002,-0.45336899999999997,0.46166999999999997,0.723877,0.8833139999999999,-0.458991,-0.161624,-0.041648000000000004,-0.056416999999999995,-0.020834000000000002,,,,,,,,,,,,,,,,,,,,,,,,,,,,,,,,,,,,,,,,,,,,,,,,,,,,,,,,,,,,,,,,,
16492,1650413818.938015,1650413818.9536119,39.0,0.0,4077.4357909999994,4589.743652,4240.0,4279.487305,4070.7692869999996,0.0,3.0,73.0,,,,0.0,4.0,0.0,4.0,0.0,4.0,33.333332,,,,,,,,,,,,,,,,,,,,,,,,,,,,,,,,,,,,,,,,,,,,,,,,,,,,,,,,,,,,,,,,,,,,,,,,,,,,,,,,,,,,
16493,1650413818.945829,1650413818.9615269,40.0,0.0,4083.076904,4592.820313,4247.179688,4279.487305,4068.718018,0.0,3.0,73.0,,,,0.0,4.0,0.0,4.0,0.0,4.0,33.333332,,,,,,,,20.0,0.0,0.239885,-0.45336899999999997,0.461426,0.723877,0.866712,-0.45557299999999995,-0.161624,-0.040755,-0.05644,-0.022119999999999997,,,,,,,,,,,,,,,,,,,,,,,,,,,,,,,,,,,,,,,,,,,,,,,,,,,,,,,,,,,,,,,,,
16494,1650413818.953644,1650413818.969342,41.0,0.0,4090.7692869999996,4621.025879,4250.256348,4279.487305,4086.6667479999996,0.0,3.0,73.0,,,,0.0,4.0,0.0,4.0,0.0,4.0,33.333332,,,,,,,,,,,,,,,,,,,,1.0,0.0,0.0,,,,,,,,,,,,,,,,,,,,,,,,,,,,,,,,10.0,0.0,64.0,1.0,1.0,0.0,164.263626,29.3246,5.30121,1.153615,1.575757,21.132866,15.490834,6.418876,10.023969000000001,13.96067,2.153706,1.223584,1.469286,0.657571,0.962929,0.078792,0.019507,0.0030210000000000002,0.00252,0.003507,110.73744199999999,18.797464,5.759049,1.743353,1.4146530000000002
16495,1650413818.961459,1650413818.977256,42.0,0.0,4100.0,4661.538574,4243.589844,4276.922852000001,4096.922852000001,0.0,3.0,73.0,,,,0.0,4.0,0.0,4.0,0.0,4.0,33.333332,,,,,,,,21.0,0.0,0.240346,-0.453125,0.461426,0.723877,0.8764780000000001,-0.45655,-0.170413,-0.039951,-0.05646,-0.023229,,,,,,,,,,,,,,,,,,,,,,,,,,,,,,,,,,,,,,,,,,,,,,,,,,,,,,,,,,,,,,,,,
16496,1650413818.969273,1650413818.9850712,43.0,0.0,4101.538574,4635.897461,4244.102539,4273.846191,4098.461426,0.0,3.0,73.0,,,,0.0,4.0,0.0,4.0,0.0,4.0,33.333332,,,,,,,,,,,,,,,,,,,,,,,,,,,,,,,,,,,,,,,,,,,,,,,,,,,,,,,,,,,,,,,,,,,,,,,,,,,,,,,,,,,,
16497,1650413818.977088,1650413818.992985,44.0,0.0,4108.205078,4572.307617,4258.461426,4276.410156,4108.205078,0.0,3.0,73.0,,,,0.0,4.0,0.0,4.0,0.0,4.0,33.333332,,,,,,,,22.0,0.0,0.240346,-0.453125,0.461426,0.723877,0.886732,-0.45606199999999997,-0.1626,-0.040839,-0.05633200000000001,-0.024373,,,,,,,,,,,,,,,,,,,,,,,,,,,,,,,,,,,,,,,,,,,,,,,,,,,,,,,,,,,,,,,,,
16498,1650413818.9849029,1650413819.0008,45.0,0.0,4124.615234000001,4589.230957,4269.230957,4280.0,4108.205078,0.0,3.0,73.0,,,,0.0,4.0,0.0,4.0,0.0,4.0,33.333332,,,,,,,,,,,,,,,,,,,,,,,,,,,,,,,,,,,,,,,,,,,,,,,,,,,,,,0.0,0.0,64.0,1.0,1.0,0.0,,,,,,,,,,,,,,,,,,,,,,,,,
16499,1650413818.992717,1650413819.008714,46.0,0.0,4126.666504,4621.025879,4269.743652,4277.436035,4109.230957,0.0,3.0,73.0,,,,0.0,4.0,0.0,4.0,0.0,4.0,33.333332,,,,,,,,23.0,0.0,0.240346,-0.453125,0.461426,0.723877,0.897963,-0.45361999999999997,-0.16552999999999998,-0.041638,-0.056313999999999996,-0.019103,,,,,,,,,,,,,,,,,,,,,,,,,,,,,,,,,,,,,,,,,,,,,,,,,,,,,,,,,,,,,,,,,
16500,1650413819.0005322,1650413819.0165288,47.0,0.0,4122.563965,4612.307617,4266.153809,4278.461426,4122.563965,0.0,3.0,73.0,,,,0.0,4.0,0.0,4.0,0.0,4.0,33.333332,,,,,,,,,,,,,,,,,,,,,,,,,,,,,,,,,,,,,,,,,,,,,,,,,,,,,,,,,,,,,,,,,,,,,,,,,,,,,,,,,,,,
16501,1650413819.008346,1650413819.0244439,48.0,0.0,4133.846191,4648.205078,4267.179688,4281.538574,4126.666504,0.0,3.0,73.0,,,,0.0,4.0,0.0,4.0,0.0,4.0,33.333332,,,,,,,,24.0,0.0,0.240346,-0.453125,0.461426,0.723877,0.885756,-0.45606199999999997,-0.160647,-0.042259,-0.05644400000000001,-0.020464,,,,,,,,,,,,,,,,,,,,,,,,,,,,,,,,,,,,,,,,,,,,,,,,,,,,,,,,,,,,,,,,,
16502,1650413819.016161,1650413819.032258,49.0,0.0,4153.333496,4666.666504,4280.512695,4281.025879,4132.820313,0.0,3.0,73.0,,,,0.0,4.0,0.0,4.0,0.0,4.0,33.333332,,,,,,,,,,,,,,,,,,,,,,,,,,,,,,,,,,,,,,,,,,,,,,,,,,,,,,10.0,0.0,64.0,1.0,1.0,0.0,,,,,,,,,,,,,,,,,,,,,,,,,
16503,1650413819.023975,1650413819.040173,50.0,0.0,4164.102539,4590.256348,4294.871582,4280.512695,4149.743652,0.0,3.0,73.0,,,,0.0,4.0,0.0,4.0,0.0,4.0,33.333332,,,,,,,,25.0,0.0,0.240346,-0.453125,0.461426,0.723877,0.89015,-0.44385399999999997,-0.16846,-0.042916,-0.056317,-0.021884999999999998,,,,,,,,,,,,,,,,,,,,,,,,,,,,,,,,,,,,,,,,,,,,,,,,,,,,,,,,,,,,,,,,,
16504,1650413819.03179,1650413819.0479882,51.0,0.0,4164.615234000001,4566.666504,4290.769043,4281.025879,4151.794922,0.0,3.0,73.0,,,,0.0,4.0,0.0,4.0,0.0,4.0,33.333332,,,,,,,,,,,,,,,,,,,,,,,,,,,,,,,,,,,,,,,,,,,,,,,,,,,,,,,,,,,,,,,,,,,,,,,,,,,,,,,,,,,,
16505,1650413819.0396051,1650413819.055702,52.0,0.0,4163.077147999999,4653.333496,4282.05127,4280.512695,4153.333496,0.0,3.0,73.0,,,,0.0,4.0,0.0,4.0,0.0,4.0,33.333332,,,,,,,,26.0,0.0,0.240346,-0.453125,0.461426,0.723877,0.9004040000000001,-0.46582700000000005,-0.171389,-0.043507,-0.056399,-0.023066,,,,,,,,,,,,,,,,,,,,,,,,,,,,,,,,,,,,,,,,,,,,,,,,,,,,,,,,,,,,,,,,,
16506,1650413819.0474188,1650413819.063617,53.0,0.0,4169.743652,4676.410156,4282.05127,4280.512695,4164.102539,0.0,3.0,73.0,,,,0.0,4.0,0.0,4.0,0.0,4.0,33.333332,,,,,,,,,,,,,,,,,,,,,,,,,,,,,,,,,,,,,,,,,,,,,,,,,,,,,,10.0,0.0,64.0,1.0,1.0,0.0,,,,,,,,,,,,,,,,,,,,,,,,,
16507,1650413819.055234,1650413819.0714312,54.0,0.0,4172.307617,4623.077147999999,4284.102539,4280.512695,4157.94873,0.0,3.0,73.0,,,,0.0,4.0,0.0,4.0,0.0,4.0,33.333332,,,,,,,,27.0,0.0,0.23960900000000002,-0.453125,0.461426,0.724121,0.8921030000000001,-0.462409,-0.159182,-0.044137,-0.056521,-0.020661000000000002,,,,,,,,,,,,,,,,,,,,,,,,,,,,,,,,,,,,,,,,,,,,,,,,,,,,,,,,,,,,,,,,,
16508,1650413819.0630481,1650413819.0793462,55.0,0.0,4168.205078,4616.922852000001,4284.102539,4280.512695,4152.820313,0.0,3.0,73.0,,,,0.0,4.0,0.0,4.0,0.0,4.0,33.333332,,,,,,,,,,,,,,,,,,,,,,,,,,,,,,,,,,,,,,,,,,,,,,,,,,,,,,,,,,,,,,,,,,,,,,,,,,,,,,,,,,,,
16509,1650413819.070863,1650413819.0871608,56.0,0.0,4169.230957,4635.897461,4284.102539,4280.512695,4159.487305,0.0,3.0,73.0,,,,0.0,4.0,0.0,4.0,0.0,4.0,33.333332,,,,,,,,28.0,0.0,0.23960900000000002,-0.453125,0.461426,0.724121,0.876967,-0.455085,-0.171389,-0.043044,-0.05653300000000001,-0.021963999999999997,,,,,,,,,,,,,,,,,,,,,,,,,,,,,,,,,,,,,,,,,,,,,,,,,,,,,,,,,,,,,,,,,
16510,1650413819.078678,1650413819.094975,57.0,0.0,4169.743652,4611.282227000001,4280.0,4280.512695,4143.077147999999,0.0,3.0,73.0,,,,0.0,4.0,0.0,4.0,0.0,4.0,33.333332,,,,,,,,,,,,,,,,,,,,1.0,0.0,0.0,,,,,,,,,,,,,,,,,,,,,,,,,,,,,,,,10.0,0.0,64.0,0.8141,1.0,0.0,262.16626,42.000996,6.7983970000000005,1.446885,1.9641380000000002,19.560925,13.072755,8.310483,11.01024,13.85012,2.4769349999999997,1.23748,1.263944,0.7302609999999999,1.027148,0.127944,0.030773000000000002,0.005595,0.004118,0.006215,173.816528,27.264668,7.5701149999999995,1.95554,1.6622150000000002
16511,1650413819.086492,1650413819.10269,58.0,0.0,4176.922852000001,4578.461426,4282.05127,4281.025879,4137.94873,0.0,3.0,73.0,,,,0.0,4.0,0.0,4.0,0.0,4.0,33.333332,,,,,,,,29.0,0.0,0.23914699999999997,-0.45336899999999997,0.461426,0.724121,0.8847790000000001,-0.45069,-0.15820599999999999,-0.042011,-0.056495000000000004,-0.023137,,,,,,,,,,,,,,,,,,,,,,,,,,,,,,,,,,,,,,,,,,,,,,,,,,,,,,,,,,,,,,,,,
16512,1650413819.094307,1650413819.110505,59.0,0.0,4193.846191,4580.512695,4301.025879,4281.025879,4175.897461,0.0,3.0,73.0,,,,0.0,4.0,0.0,4.0,0.0,4.0,33.333332,,,,,,,,,,,,,,,,,,,,,,,,,,,,,,,,,,,,,,,,,,,,,,,,,,,,,,,,,,,,,,,,,,,,,,,,,,,,,,,,,,,,
16513,1650413819.102121,1650413819.118219,60.0,0.0,4190.769043,4568.717772999999,4304.102539,4278.974121,4192.820313,0.0,3.0,73.0,,,,0.0,4.0,0.0,4.0,0.0,4.0,33.333332,,,,,,,,30.0,0.0,0.23961799999999997,-0.45336899999999997,0.461182,0.724121,0.887709,-0.45459700000000003,-0.16552999999999998,-0.042742,-0.056558000000000004,-0.024241,,,,,,,,,,,,,,,,,,,,,,,,,,,,,,,,,,,,,,,,,,,,,,,,,,,,,,,,,,,,,,,,,
16514,1650413819.109936,1650413819.126034,61.0,0.0,4183.589844,4562.05127,4282.563965,4278.974121,4172.307617,0.0,3.0,73.0,,,,0.0,4.0,0.0,4.0,0.0,4.0,33.333332,,,,,,,,,,,,,,,,,,,,,,,,,,,,,,,,,,,,,,,,,,,,,,,,,,,,,,10.0,0.0,64.0,0.8141,1.0,0.0,,,,,,,,,,,,,,,,,,,,,,,,,
16515,1650413819.117751,1650413819.133849,62.0,0.0,4194.358886999999,4601.025879,4276.410156,4281.538574,4163.077147999999,0.0,3.0,73.0,,,,0.0,4.0,0.0,4.0,0.0,4.0,33.333332,,,,,,,,31.0,0.0,0.23961799999999997,-0.45336899999999997,0.461182,0.724121,0.8847790000000001,-0.45215500000000003,-0.156252,-0.043302,-0.056615,-0.021622,,,,,,,,,,,,,,,,,,,,,,,,,,,,,,,,,,,,,,,,,,,,,,,,,,,,,,,,,,,,,,,,,
16516,1650413819.125565,1650413819.141763,63.0,0.0,4197.94873,4610.256348,4296.922852000001,4281.025879,4169.743652,0.0,3.0,73.0,,,,0.0,4.0,0.0,4.0,0.0,4.0,33.333332,,,,,,,,,,,,,,,,,,,,,,,,,,,,,,,,,,,,,,,,,,,,,,,,,,,,,,,,,,,,,,,,,,,,,,,,,,,,,,,,,,,,
16517,1650413819.1333802,1650413819.149478,64.0,0.0,4184.615234000001,4593.333496,4300.512695,4278.974121,4178.461426,450.0,3.0,73.0,,,,0.0,4.0,0.0,4.0,0.0,4.0,33.333332,,,,,,,,32.0,0.0,0.24035399999999998,-0.45336899999999997,0.461182,0.723877,0.882338,-0.45606199999999997,-0.155276,-0.043854000000000004,-0.056617999999999995,-0.025612,,,,,,,,,,,,,,,,,,,,,,,,,,,,,,,,,,,,,,,,,,,,,,,,,,,,,,,,,,,,,,,,,
16518,1650413819.1411939,1650413819.157393,65.0,0.0,4181.025879,4603.589844,4287.179688,4280.0,4172.307617,450.0,3.0,73.0,,,,0.0,4.0,0.0,4.0,0.0,4.0,33.333332,,,,,,,,,,,,,,,,,,,,,,,,,,,,,,,,,,,,,,,,,,,,,,,,,,,,,,10.0,0.0,64.0,0.8141,1.0,0.0,,,,,,,,,,,,,,,,,,,,,,,,,
16519,1650413819.149009,1650413819.1652071,66.0,0.0,4201.538574,4611.794922,4301.025879,4282.05127,4175.384765999999,16205.0,3.0,73.0,,,,0.0,4.0,0.0,4.0,0.0,4.0,33.333332,,,,,,,,33.0,0.0,0.24035399999999998,-0.45336899999999997,0.461182,0.723877,0.886244,-0.46045600000000003,-0.163088,-0.044205,-0.056669000000000004,-0.026371,,,,,,,,,,,,,,,,,,,,,,,,,,,,,,,,,,,,,,,,,,,,,,,,,,,,,,,,,,,,,,,,,
16520,1650413819.156824,1650413819.1731222,67.0,0.0,4223.077147999999,4603.589844,4318.974121,4282.05127,4209.230957,450.0,3.0,73.0,,,,0.0,4.0,0.0,4.0,0.0,4.0,33.333332,,,,,,,,,,,,,,,,,,,,,,,,,,,,,,,,,,,,,,,,,,,,,,,,,,,,,,,,,,,,,,,,,,,,,,,,,,,,,,,,,,,,
16521,1650413819.164638,1650413819.181036,68.0,0.0,4218.974121,4637.436035,4304.615234000001,4281.025879,4215.897461,0.0,3.0,73.0,,,,0.0,4.0,0.0,4.0,0.0,4.0,33.333332,,,,,,,,34.0,0.0,0.24035399999999998,-0.45336899999999997,0.461182,0.723877,0.8847790000000001,-0.460945,-0.163577,-0.044619,-0.056617999999999995,-0.027201,,,,,,,,,,,,,,,,,,,,,,,,,,,,,,,,,,,,,,,,,,,,,,,,,,,,,,,,,,,,,,,,,
16522,1650413819.172453,1650413819.1888509,69.0,0.0,4210.256348,4687.179688,4291.794922,4280.512695,4197.94873,450.0,3.0,73.0,,,,0.0,4.0,0.0,4.0,0.0,4.0,33.333332,,,,,,,,,,,,,,,,,,,,,,,,,,,,,,,,,,,,,,,,,,,,,,,,,,,,,,0.0,0.0,64.0,0.8141,1.0,0.0,,,,,,,,,,,,,,,,,,,,,,,,,
16523,1650413819.180267,1650413819.196666,70.0,0.0,4225.128418,4681.538574,4302.563965,4280.512695,4204.615234000001,16120.0,3.0,73.0,,,,0.0,4.0,0.0,4.0,0.0,4.0,33.333332,,,,,,,,35.0,0.0,0.24035399999999998,-0.45336899999999997,0.461182,0.723877,0.894545,-0.45459700000000003,-0.163088,-0.044942,-0.056669000000000004,-0.027704000000000003,,,,,,,,,,,,,,,,,,,,,,,,,,,,,,,,,,,,,,,,,,,,,,,,,,,,,,,,,,,,,,,,,
16524,1650413819.188082,1650413819.20458,71.0,0.0,4228.205078,4625.128418,4310.256348,4280.512695,4200.512695,450.0,3.0,73.0,,,,0.0,4.0,0.0,4.0,0.0,4.0,33.333332,,,,,,,,,,,,,,,,,,,,,,,,,,,,,,,,,,,,,,,,,,,,,,,,,,,,,,,,,,,,,,,,,,,,,,,,,,,,,,,,,,,,
16525,1650413819.195897,1650413819.212395,72.0,0.0,4210.256348,4562.05127,4305.641113000001,4280.512695,4178.974121,450.0,3.0,73.0,,,,0.0,4.0,0.0,4.0,0.0,4.0,33.333332,,,,,,,,36.0,0.0,0.24035399999999998,-0.45336899999999997,0.461182,0.723877,0.882338,-0.44776099999999996,-0.16552999999999998,-0.043719,-0.056714999999999995,-0.024787,,,,,,,,,,,,,,,,,,,,,,,,,,,,,,,,,,,,,,,,,,,,,,,,,,,,,,,,,,,,,,,,,
16526,1650413819.203711,1650413819.22011,73.0,0.0,4215.897461,4565.128418,4312.820313,4280.512695,4199.487305,0.0,3.0,73.0,,,,0.0,4.0,0.0,4.0,0.0,4.0,33.333332,1.0,8.333333,1.0,0.0,4.0,0.0,3.0,,,,,,,,,,,,,1.0,0.0,0.0,,,,,,,,,,,,,,,,,,,,,,,,,,,,,,,,0.0,0.0,64.0,0.684722,1.0,0.0,399.690979,57.943203000000004,8.306378,1.711484,2.358762,17.358969000000002,11.682155999999999,11.238481,11.822034,13.365585999999999,2.827864,1.2764879999999998,1.101261,0.787718,1.049135,0.186809,0.042641000000000005,0.009523,0.006000999999999999,0.009795,258.929932,37.19585,9.488288,2.149187,1.878136
16527,1650413819.211526,1650413819.227924,74.0,0.0,4236.410156,4610.769043,4321.538574,4280.512695,4223.077147999999,450.0,3.0,73.0,,,,0.0,4.0,0.0,4.0,0.0,4.0,33.333332,,,,,,,,37.0,0.0,0.24035399999999998,-0.45336899999999997,0.461182,0.723877,0.8847790000000001,-0.460945,-0.163577,-0.044084,-0.056755999999999994,-0.022162,,,,,,,,,,,,,,,,,,,,,,,,,,,,,,,,,,,,,,,,,,,,,,,,,,,,,,,,,,,,,,,,,
16528,1650413819.21934,1650413819.235639,75.0,0.0,4234.358886999999,4589.743652,4317.436035,4280.512695,4203.077147999999,16196.0,3.0,73.0,,,,0.0,4.0,0.0,4.0,0.0,4.0,33.333332,,,,,,,,,,,,,,,,,,,,,,,,,,,,,,,,,,,,,,,,,,,,,,,,,,,,,,,,,,,,,,,,,,,,,,,,,,,,,,,,,,,,
16529,1650413819.227155,1650413819.243454,76.0,0.0,4229.743652,4546.153809,4315.897461,4280.512695,4193.846191,450.0,3.0,73.0,,,,0.0,4.0,0.0,4.0,0.0,4.0,33.333332,,,,,,,,38.0,0.0,0.24035399999999998,-0.45336899999999997,0.461182,0.723877,0.882338,-0.44776099999999996,-0.16552999999999998,-0.042947000000000006,-0.056794000000000004,-0.019799,,,,,,,,,,,,,,,,,,,,,,,,,,,,,,,,,,,,,,,,,,,,,,,,,,,,,,,,,,,,,,,,,
16530,1650413819.2349699,1650413819.251168,77.0,0.0,4245.641113000001,4572.307617,4324.615234000001,4280.512695,4223.589844,450.0,3.0,73.0,,,,0.0,4.0,0.0,4.0,0.0,4.0,33.333332,,,,,,,,,,,,,,,,,,,,,,,,,,,,,,,,,,,,,,,,,,,,,,,,,,,,,,0.0,0.0,64.0,0.684722,1.0,0.0,,,,,,,,,,,,,,,,,,,,,,,,,
16531,1650413819.242784,1650413819.258983,78.0,0.0,4254.358886999999,4599.487305,4331.282227000001,4280.512695,4249.230957,450.0,3.0,73.0,,,,0.0,4.0,0.0,4.0,0.0,4.0,33.333332,,,,,,,,39.0,0.0,0.24035399999999998,-0.45336899999999997,0.461182,0.723877,0.8798959999999999,-0.458991,-0.16552999999999998,-0.041875,-0.056729999999999996,-0.021188,,,,,,,,,,,,,,,,,,,,,,,,,,,,,,,,,,,,,,,,,,,,,,,,,,,,,,,,,,,,,,,,,
16532,1650413819.250599,1650413819.2666981,79.0,0.0,4242.563965,4582.05127,4321.538574,4280.512695,4244.102539,16196.0,3.0,73.0,,,,0.0,4.0,0.0,4.0,0.0,4.0,33.333332,,,,,,,,,,,,,,,,,,,,,,,,,,,,,,,,,,,,,,,,,,,,,,,,,,,,,,,,,,,,,,,,,,,,,,,,,,,,,,,,,,,,
16533,1650413819.258413,1650413819.2745118,80.0,0.0,4245.128418,4596.410156,4312.307617,4280.512695,4230.256348,450.0,3.0,73.0,,,,0.0,4.0,0.0,4.0,0.0,4.0,33.333332,,,,,,,,40.0,0.0,0.23961799999999997,-0.45336899999999997,0.461182,0.724121,0.8921030000000001,-0.45655,-0.163577,-0.042473000000000004,-0.05677000000000001,-0.018923,,,,,,,,,,,,,,,,,,,,,,,,,,,,,,,,,,,,,,,,,,,,,,,,,,,,,,,,,,,,,,,,,
16534,1650413819.266228,1650413819.282227,81.0,0.0,4258.974121,4635.384765999999,4312.307617,4280.512695,4229.743652,450.0,3.0,73.0,,,,0.0,4.0,0.0,4.0,0.0,4.0,33.333332,,,,,,,,,,,,,,,,,,,,,,,,,,,,,,,,,,,,,,,,,,,,,,,,,,,,,,0.0,0.0,64.0,0.684722,1.0,0.0,,,,,,,,,,,,,,,,,,,,,,,,,
16535,1650413819.274043,1650413819.290042,82.0,0.0,4257.94873,4646.666504,4299.487305,4280.512695,4235.897461,450.0,3.0,73.0,,,,0.0,4.0,0.0,4.0,0.0,4.0,33.333332,,,,,,,,41.0,0.0,0.24035399999999998,-0.45336899999999997,0.461182,0.723877,0.8994280000000001,-0.447272,-0.165042,-0.041497000000000006,-0.056708,-0.020449000000000002,,,,,,,,,,,,,,,,,,,,,,,,,,,,,,,,,,,,,,,,,,,,,,,,,,,,,,,,,,,,,,,,,
16536,1650413819.281857,1650413819.297756,83.0,0.0,4245.128418,4648.205078,4286.666504,4280.512695,4237.94873,16196.0,3.0,73.0,,,,0.0,4.0,0.0,4.0,0.0,4.0,33.333332,,,,,,,,,,,,,,,,,,,,,,,,,,,,,,,,,,,,,,,,,,,,,,,,,,,,,,,,,,,,,,,,,,,,,,,,,,,,,,,,,,,,
16537,1650413819.2896721,1650413819.305571,84.0,0.0,4234.358886999999,4664.102539,4291.794922,4280.512695,4224.102539,450.0,3.0,73.0,,,,0.0,4.0,0.0,4.0,0.0,4.0,33.333332,,,,,,,,42.0,0.0,0.23961799999999997,-0.45336899999999997,0.461182,0.724121,0.895033,-0.440436,-0.171389,-0.04057,-0.056652999999999995,-0.021773,,,,,,,,,,,,,,,,,,,,,,,,,,,,,,,,,,,,,,,,,,,,,,,,,,,,,,,,,,,,,,,,,
16538,1650413819.2974858,1650413819.3132858,85.0,0.0,4236.410156,4635.384765999999,4307.179688,4280.512695,4214.871582,450.0,3.0,73.0,,,,0.0,4.0,0.0,4.0,0.0,4.0,33.333332,,,,,,,,,,,,,,,,,,,,,,,,,,,,,,,,,,,,,,,,,,,,,,,,,,,,,,0.0,0.0,64.0,0.684722,1.0,0.0,,,,,,,,,,,,,,,,,,,,,,,,,
16539,1650413819.305301,1650413819.321101,86.0,0.0,4248.205078,4586.153809,4308.717772999999,4280.512695,4234.871582,450.0,3.0,73.0,,,,0.0,4.0,0.0,4.0,0.0,4.0,33.333332,,,,,,,,43.0,0.0,0.23961799999999997,-0.45336899999999997,0.461182,0.724121,0.885756,-0.461433,-0.163577,-0.039833,-0.056651,-0.022867,,,,,,,,,,,,,,,,,,,,,,,,,,,,,,,,,,,,,,,,,,,,,,,,,,,,,,,,,,,,,,,,,
16540,1650413819.313116,1650413819.328815,87.0,0.0,4254.358886999999,4602.05127,4297.436035,4280.512695,4255.897461,16196.0,3.0,73.0,,,,0.0,4.0,0.0,4.0,0.0,4.0,33.333332,,,,,,,,,,,,,,,,,,,,,,,,,,,,,,,,,,,,,,,,,,,,,,,,,,,,,,,,,,,,,,,,,,,,,,,,,,,,,,,,,,,,
16541,1650413819.32093,1650413819.33673,88.0,0.0,4260.512695,4620.0,4303.077147999999,4280.512695,4264.615234000001,450.0,3.0,73.0,,,,0.0,4.0,0.0,4.0,0.0,4.0,33.333332,,,,,,,,44.0,0.0,0.23961799999999997,-0.45336899999999997,0.461182,0.724121,0.879408,-0.460945,-0.15967,-0.039122000000000004,-0.05665,-0.02395,,,,,,,,,,,,,,,,,,,,,,,,,,,,,,,,,,,,,,,,,,,,,,,,,,,,,,,,,,,,,,,,,
16542,1650413819.328745,1650413819.344544,89.0,0.0,4273.846191,4602.563965,4317.94873,4280.512695,4267.692383,450.0,3.0,73.0,,,,0.0,4.0,0.0,4.0,0.0,4.0,33.333332,,,,,,,,,,,,,,,,,,,,1.0,0.0,0.0,,,,,,,,,,,,,,,,,,,,,,,,,,,,,,,,0.0,0.0,64.0,1.0,1.0,0.0,568.952209,76.13713100000001,9.733201,1.851214,2.6707389999999998,15.174698000000001,12.05316,14.244345999999998,11.994183,12.583737,3.210175,1.37134,1.006599,0.793661,1.0237969999999998,0.246491,0.052563,0.014906,0.008029999999999999,0.013791,360.315643,47.328068,11.369594000000001,2.274455,1.994214
16543,1650413819.336559,1650413819.352459,90.0,0.0,4271.794922,4621.025879,4311.794922,4280.512695,4257.94873,450.0,3.0,73.0,,,,0.0,4.0,0.0,4.0,0.0,4.0,33.333332,,,,,,,,45.0,0.0,0.23961799999999997,-0.45336899999999997,0.461182,0.724121,0.8921030000000001,-0.46778100000000006,-0.161624,-0.039897,-0.05665,-0.024973,,,,,,,,,,,,,,,,,,,,,,,,,,,,,,,,,,,,,,,,,,,,,,,,,,,,,,,,,,,,,,,,,
16544,1650413819.344374,1650413819.360274,91.0,0.0,4262.05127,4655.897461,4293.846191,4280.512695,4249.743652,16196.0,3.0,73.0,,,,0.0,4.0,0.0,4.0,0.0,4.0,33.333332,,,,,,,,,,,,,,,,,,,,,,,,,,,,,,,,,,,,,,,,,,,,,,,,,,,,,,,,,,,,,,,,,,,,,,,,,,,,,,,,,,,,
16545,1650413819.352189,1650413819.3681881,92.0,0.0,4266.153809,4625.641113000001,4295.897461,4280.512695,4257.436035,450.0,3.0,73.0,,,,0.0,4.0,0.0,4.0,0.0,4.0,33.333332,,,,,,,,46.0,0.0,0.23914699999999997,-0.45336899999999997,0.461426,0.724121,0.882338,-0.45948,-0.170413,-0.039179000000000005,-0.056698,-0.025796,,,,,,,,,,,,,,,,,,,,,,,,,,,,,,,,,,,,,,,,,,,,,,,,,,,,,,,,,,,,,,,,,
16546,1650413819.360003,1650413819.376003,93.0,0.0,4266.153809,4596.410156,4304.615234000001,4280.512695,4268.717772999999,450.0,3.0,73.0,,,,0.0,4.0,0.0,4.0,0.0,4.0,33.333332,,,,,,,,,,,,,,,,,,,,,,,,,,,,,,,,,,,,,,,,,,,,,,,,,,,,,,0.0,0.0,64.0,1.0,1.0,0.0,,,,,,,,,,,,,,,,,,,,,,,,,
16547,1650413819.3678179,1650413819.383917,94.0,0.0,4266.666504,4581.025879,4304.102539,4280.512695,4278.974121,450.0,3.0,73.0,,,,0.0,4.0,0.0,4.0,0.0,4.0,33.333332,,,,,,,,47.0,0.0,0.23961799999999997,-0.45336899999999997,0.461182,0.724121,0.873549,-0.448737,-0.152834,-0.040193,-0.05679,-0.026633999999999998,,,,,,,,,,,,,,,,,,,,,,,,,,,,,,,,,,,,,,,,,,,,,,,,,,,,,,,,,,,,,,,,,
16548,1650413819.375632,1650413819.391732,95.0,0.0,4280.0,4577.94873,4309.230957,4280.512695,4275.897461,16196.0,3.0,73.0,,,,0.0,4.0,0.0,4.0,0.0,4.0,33.333332,,,,,,,,,,,,,,,,,,,,,,,,,,,,,,,,,,,,,,,,,,,,,,,,,,,,,,,,,,,,,,,,,,,,,,,,,,,,,,,,,,,,
16549,1650413819.3834472,1650413819.399647,96.0,0.0,4282.563965,4621.025879,4310.769043,4280.512695,4255.897461,450.0,3.0,73.0,,,,0.0,4.0,0.0,4.0,0.0,4.0,33.333332,,,,,,,,48.0,0.0,0.23914699999999997,-0.45336899999999997,0.461426,0.724121,0.892592,-0.448737,-0.15674100000000002,-0.040958999999999995,-0.056726,-0.021041,,,,,,,,,,,,,,,,,,,,,,,,,,,,,,,,,,,,,,,,,,,,,,,,,,,,,,,,,,,,,,,,,
16550,1650413819.3912618,1650413819.407461,97.0,0.0,4274.358886999999,4624.102539,4310.256348,4280.512695,4261.538574,450.0,3.0,73.0,,,,0.0,4.0,0.0,4.0,0.0,4.0,33.333332,,,,,,,,,,,,,,,,,,,,,,,,,,,,,,,,,,,,,,,,,,,,,,,,,,,,,,0.0,0.0,64.0,1.0,1.0,0.0,,,,,,,,,,,,,,,,,,,,,,,,,
16551,1650413819.399076,1650413819.415176,98.0,0.0,4286.666504,4608.205078,4316.410156,4280.512695,4288.717772999999,450.0,3.0,73.0,,,,0.0,4.0,0.0,4.0,0.0,4.0,33.333332,,,,,,,,49.0,0.0,0.23914699999999997,-0.45336899999999997,0.461426,0.724121,0.8989389999999999,-0.457038,-0.165042,-0.041746,-0.056766,-0.022355,,,,,,,,,,,,,,,,,,,,,,,,,,,,,,,,,,,,,,,,,,,,,,,,,,,,,,,,,,,,,,,,,
16552,1650413819.406891,1650413819.422991,99.0,0.0,4291.794922,4606.666504,4313.333496,4280.512695,4280.512695,16196.0,3.0,73.0,,,,0.0,4.0,0.0,4.0,0.0,4.0,33.333332,,,,,,,,,,,,,,,,,,,,,,,,,,,,,,,,,,,,,,,,,,,,,,,,,,,,,,,,,,,,,,,,,,,,,,,,,,,,,,,,,,,,
16553,1650413819.414705,1650413819.430705,100.0,0.0,4276.410156,4605.641113000001,4302.05127,4280.512695,4255.384765999999,450.0,3.0,73.0,,,,0.0,4.0,0.0,4.0,0.0,4.0,33.333332,,,,,,,,50.0,0.0,0.23914699999999997,-0.45336899999999997,0.461426,0.724121,0.892592,-0.464851,-0.1626,-0.042454,-0.056705,-0.017238999999999997,,,,,,,,,,,,,,,,,,,,,,,,,,,,,,,,,,,,,,,,,,,,,,,,,,,,,,,,,,,,,,,,,
16554,1650413819.42252,1650413819.43852,101.0,0.0,4273.846191,4622.563965,4304.615234000001,4280.512695,4257.94873,450.0,3.0,73.0,,,,0.0,4.0,0.0,4.0,0.0,4.0,33.333332,,,,,,,,,,,,,,,,,,,,,,,,,,,,,,,,,,,,,,,,,,,,,,,,,,,,,,0.0,0.0,64.0,1.0,1.0,0.0,,,,,,,,,,,,,,,,,,,,,,,,,
16555,1650413819.430335,1650413819.446235,102.0,0.0,4282.05127,4647.692383,4304.102539,4280.512695,4266.153809,450.0,3.0,73.0,,,,0.0,4.0,0.0,4.0,0.0,4.0,33.333332,,,,,,,,51.0,0.0,0.23914699999999997,-0.45336899999999997,0.461426,0.724121,0.9043110000000001,-0.47071,-0.160159,-0.041431,-0.05665,-0.021667,,,,,,,,,,,,,,,,,,,,,,,,,,,,,,,,,,,,,,,,,,,,,,,,,,,,,,,,,,,,,,,,,
16556,1650413819.438149,1650413819.454049,103.0,0.0,4280.0,4641.538574,4296.410156,4280.512695,4265.128418,16196.0,3.0,73.0,,,,0.0,4.0,0.0,4.0,0.0,4.0,33.333332,,,,,,,,,,,,,,,,,,,,,,,,,,,,,,,,,,,,,,,,,,,,,,,,,,,,,,,,,,,,,,,,,,,,,,,,,,,,,,,,,,,,
16557,1650413819.445964,1650413819.461764,104.0,0.0,4275.384765999999,4621.025879,4305.641113000001,4280.512695,4276.410156,450.0,3.0,73.0,,,,0.0,4.0,0.0,4.0,0.0,4.0,33.333332,,,,,,,,52.0,0.0,0.23914699999999997,-0.45336899999999997,0.461426,0.724121,0.879408,-0.44971400000000006,-0.169436,-0.042073,-0.056698,-0.019305000000000003,,,,,,,,,,,,,,,,,,,,,,,,,,,,,,,,,,,,,,,,,,,,,,,,,,,,,,,,,,,,,,,,,
16558,1650413819.453779,1650413819.4696789,105.0,0.0,4281.538574,4630.769043,4312.307617,4280.512695,4281.538574,450.0,3.0,73.0,,,,0.0,4.0,0.0,4.0,0.0,4.0,33.333332,,,,,,,,,,,,,,,,,,,,1.0,0.0,0.0,,,,,,,,,,,,,,,,,,,,,,,,,,,,,,,,0.0,0.0,64.0,1.0,1.0,0.0,737.574524,93.273705,10.843897,1.826343,2.811497,13.548356,14.326398999999999,16.266443,11.374691,11.612936999999999,3.568721,1.504006,0.9654510000000001,0.743617,0.961606,0.294131,0.058051,0.021237,0.009976,0.017434,457.713684,55.429501,12.903141999999999,2.305275,1.969725
16559,1650413819.461593,1650413819.477493,106.0,0.0,4283.589844,4609.230957,4298.461426,4280.512695,4255.897461,450.0,3.0,73.0,,,,0.0,4.0,0.0,4.0,0.0,4.0,33.333332,,,,,,,,53.0,0.0,0.23914699999999997,-0.45336899999999997,0.461426,0.724121,0.879408,-0.45606199999999997,-0.16552999999999998,-0.042651,-0.056692,-0.023527,,,,,,,,,,,,,,,,,,,,,,,,,,,,,,,,,,,,,,,,,,,,,,,,,,,,,,,,,,,,,,,,,
16560,1650413819.469408,1650413819.485408,107.0,0.0,4269.230957,4563.077147999999,4281.025879,4280.512695,4236.410156,16196.0,3.0,73.0,,,,0.0,4.0,0.0,4.0,0.0,4.0,33.333332,,,,,,,,,,,,,,,,,,,,,,,,,,,,,,,,,,,,,,,,,,,,,,,,,,,,,,,,,,,,,,,,,,,,,,,,,,,,,,,,,,,,
16561,1650413819.477222,1650413819.493223,108.0,0.0,4263.589844,4551.794922,4278.974121,4280.512695,4255.897461,450.0,3.0,73.0,,,,0.0,4.0,0.0,4.0,0.0,4.0,33.333332,,,,,,,,54.0,0.0,0.23914699999999997,-0.45336899999999997,0.461426,0.724121,0.8896620000000001,-0.46045600000000003,-0.15820599999999999,-0.041804,-0.056589,-0.024446000000000002,,,,,,,,,,,,,,,,,,,,,,,,,,,,,,,,,,,,,,,,,,,,,,,,,,,,,,,,,,,,,,,,,
16562,1650413819.4850368,1650413819.501137,109.0,0.0,4283.077147999999,4602.05127,4284.615234000001,4280.512695,4274.358886999999,450.0,3.0,73.0,,,,0.0,4.0,0.0,4.0,0.0,4.0,33.333332,,,,,,,,,,,,,,,,,,,,,,,,,,,,,,,,,,,,,,,,,,,,,,,,,,,,,,0.0,0.0,64.0,1.0,1.0,0.0,,,,,,,,,,,,,,,,,,,,,,,,,
16563,1650413819.492852,1650413819.508952,110.0,0.0,4291.794922,4629.743652,4288.205078,4280.512695,4267.179688,450.0,3.0,73.0,,,,0.0,4.0,0.0,4.0,0.0,4.0,33.333332,,,,,,,,55.0,0.0,0.23914699999999997,-0.45336899999999997,0.461426,0.724121,0.8808729999999999,-0.468757,-0.156252,-0.041042,-0.056741,-0.028203,,,,,,,,,,,,,,,,,,,,,,,,,,,,,,,,,,,,,,,,,,,,,,,,,,,,,,,,,,,,,,,,,
16564,1650413819.500666,1650413819.516866,111.0,0.0,4288.717772999999,4583.077147999999,4296.410156,4280.512695,4267.692383,16196.0,3.0,73.0,,,,0.0,4.0,0.0,4.0,0.0,4.0,33.333332,,,,,,,,,,,,,,,,,,,,,,,,,,,,,,,,,,,,,,,,,,,,,,,,,,,,,,,,,,,,,,,,,,,,,,,,,,,,,,,,,,,,
16565,1650413819.508481,1650413819.524681,112.0,0.0,4302.563965,4593.846191,4308.205078,4280.512695,4291.282227000001,450.0,3.0,73.0,,,,0.0,4.0,0.0,4.0,0.0,4.0,33.333332,,,,,,,,56.0,0.0,0.23960900000000002,-0.453125,0.461426,0.724121,0.87892,-0.45264399999999994,-0.178714,-0.040111,-0.056682,-0.028702999999999996,,,,,,,,,,,,,,,,,,,,,,,,,,,,,,,,,,,,,,,,,,,,,,,,,,,,,,,,,,,,,,,,,
16566,1650413819.516295,1650413819.532496,113.0,0.0,4305.128418,4620.512695,4309.230957,4280.512695,4300.512695,450.0,3.0,73.0,,,,0.0,4.0,0.0,4.0,0.0,4.0,33.333332,,,,,,,,,,,,,,,,,,,,,,,,,,,,,,,,,,,,,,,,,,,,,,,,,,,,,,0.0,0.0,64.0,1.0,1.0,0.0,,,,,,,,,,,,,,,,,,,,,,,,,
16567,1650413819.52411,1650413819.54021,114.0,0.0,4291.282227000001,4604.102539,4296.410156,4280.512695,4281.025879,450.0,3.0,73.0,,,,0.0,4.0,0.0,4.0,0.0,4.0,33.333332,,,,,,,,57.0,0.0,0.239341,-0.453125,0.461182,0.7243649999999999,0.8842909999999999,-0.448737,-0.169924,-0.040886,-0.056727,-0.029202,,,,,,,,,,,,,,,,,,,,,,,,,,,,,,,,,,,,,,,,,,,,,,,,,,,,,,,,,,,,,,,,,
16568,1650413819.531925,1650413819.548125,115.0,0.0,4292.820313,4631.794922,4288.205078,4280.512695,4272.307617,16196.0,3.0,73.0,,,,0.0,4.0,0.0,4.0,0.0,4.0,33.333332,,,,,,,,,,,,,,,,,,,,,,,,,,,,,,,,,,,,,,,,,,,,,,,,,,,,,,,,,,,,,,,,,,,,,,,,,,,,,,,,,,,,
16569,1650413819.5397391,1650413819.555939,116.0,0.0,4299.487305,4660.0,4287.179688,4280.512695,4284.102539,450.0,3.0,73.0,,,,0.0,4.0,0.0,4.0,0.0,4.0,33.333332,,,,,,,,58.0,0.0,0.239341,-0.453125,0.461182,0.7243649999999999,0.894057,-0.464363,-0.163577,-0.041533,-0.056719000000000006,-0.023303,,,,,,,,,,,,,,,,,,,,,,,,,,,,,,,,,,,,,,,,,,,,,,,,,,,,,,,,,,,,,,,,,
16570,1650413819.547554,1650413819.563854,117.0,0.0,4298.974121,4610.256348,4288.205078,4280.512695,4293.846191,450.0,3.0,73.0,,,,0.0,4.0,0.0,4.0,0.0,4.0,33.333332,,,,,,,,,,,,,,,,,,,,,,,,,,,,,,,,,,,,,,,,,,,,,,,,,,,,,,0.0,0.0,64.0,1.0,1.0,0.0,,,,,,,,,,,,,,,,,,,,,,,,,
16571,1650413819.555368,1650413819.5716689,118.0,0.0,4301.025879,4576.922852000001,4292.820313,4280.512695,4295.897461,450.0,3.0,73.0,,,,0.0,4.0,0.0,4.0,0.0,4.0,33.333332,,,,,,,,59.0,0.0,0.238878,-0.45336899999999997,0.461182,0.7243649999999999,0.898451,-0.460945,-0.170413,-0.042312,-0.056711000000000004,-0.020777,,,,,,,,,,,,,,,,,,,,,,,,,,,,,,,,,,,,,,,,,,,,,,,,,,,,,,,,,,,,,,,,,
16572,1650413819.563183,1650413819.579583,119.0,0.0,4297.94873,4608.205078,4291.282227000001,4280.512695,4297.436035,16196.0,3.0,73.0,,,,0.0,4.0,0.0,4.0,0.0,4.0,33.333332,,,,,,,,,,,,,,,,,,,,,,,,,,,,,,,,,,,,,,,,,,,,,,,,,,,,,,,,,,,,,,,,,,,,,,,,,,,,,,,,,,,,
16573,1650413819.570998,1650413819.587498,120.0,0.0,4291.794922,4628.717772999999,4288.205078,4280.512695,4294.871582,450.0,3.0,73.0,,,,0.0,4.0,0.0,4.0,0.0,4.0,33.333332,,,,,,,,60.0,0.0,0.238878,-0.45336899999999997,0.461182,0.7243649999999999,0.894057,-0.464363,-0.16894800000000001,-0.043012,-0.056753,-0.022118000000000002,,,,,,,,,,,,,,,,,,,,,,,,,,,,,,,,,,,,,,,,,,,,,,,,,,,,,,,,,,,,,,,,,
16574,1650413819.578812,1650413819.5953119,121.0,0.0,4295.384765999999,4667.692383,4281.025879,4280.512695,4285.128418,450.0,3.0,73.0,,,,0.0,4.0,0.0,4.0,0.0,4.0,33.333332,,,,,,,,,,,,,,,,,,,,1.0,0.0,0.0,,,,,,,,,,,,,,,,,,,,,,,,,,,,,,,,0.0,0.0,64.0,0.456883,1.0,0.0,860.608032,104.600311,11.359542,1.6544349999999999,2.7295220000000002,13.05212,17.851614,16.66279,10.237082000000001,10.547321,3.802822,1.617867,0.955976,0.655889,0.8825879999999999,0.317067,0.057658,0.027295999999999997,0.011511,0.019856,524.955933,59.121742000000005,13.704906,2.234532,1.8172380000000001
16575,1650413819.586627,1650413819.603127,122.0,0.0,4297.436035,4661.538574,4275.384765999999,4280.512695,4274.358886999999,450.0,3.0,73.0,,,,0.0,4.0,0.0,4.0,0.0,4.0,33.333332,,,,,,,,61.0,0.0,0.238407,-0.45336899999999997,0.461426,0.7243649999999999,0.890639,-0.45948,-0.169924,-0.043447,-0.056741999999999994,-0.016927,,,,,,,,,,,,,,,,,,,,,,,,,,,,,,,,,,,,,,,,,,,,,,,,,,,,,,,,,,,,,,,,,
16576,1650413819.594441,1650413819.610842,123.0,0.0,4292.820313,4592.820313,4288.205078,4280.512695,4272.820313,16196.0,3.0,73.0,,,,0.0,4.0,0.0,4.0,0.0,4.0,33.333332,,,,,,,,,,,,,,,,,,,,,,,,,,,,,,,,,,,,,,,,,,,,,,,,,,,,,,,,,,,,,,,,,,,,,,,,,,,,,,,,,,,,
16577,1650413819.602256,1650413819.618756,124.0,0.0,4293.846191,4607.692383,4297.94873,4280.512695,4280.512695,450.0,3.0,73.0,,,,0.0,4.0,0.0,4.0,0.0,4.0,33.333332,,,,,,,,62.0,0.0,0.238878,-0.45336899999999997,0.461182,0.7243649999999999,0.876967,-0.45655,-0.165042,-0.044034,-0.056683000000000004,-0.018701,,,,,,,,,,,,,,,,,,,,,,,,,,,,,,,,,,,,,,,,,,,,,,,,,,,,,,,,,,,,,,,,,
16578,1650413819.6100712,1650413819.6265712,125.0,0.0,4307.692383,4643.589844,4293.333496,4280.512695,4293.333496,450.0,3.0,73.0,,,,0.0,4.0,0.0,4.0,0.0,4.0,33.333332,,,,,,,,,,,,,,,,,,,,,,,,,,,,,,,,,,,,,,,,,,,,,,,,,,,,,,0.0,0.0,64.0,0.456883,1.0,0.0,,,,,,,,,,,,,,,,,,,,,,,,,
16579,1650413819.6178849,1650413819.6343858,126.0,0.0,4321.538574,4625.641113000001,4284.102539,4280.512695,4304.615234000001,450.0,3.0,73.0,,,,0.0,4.0,0.0,4.0,0.0,4.0,33.333332,,,,,,,,63.0,0.0,0.238878,-0.45336899999999997,0.461182,0.7243649999999999,0.8847790000000001,-0.44824899999999995,-0.165042,-0.044514,-0.05662999999999999,-0.016636,,,,,,,,,,,,,,,,,,,,,,,,,,,,,,,,,,,,,,,,,,,,,,,,,,,,,,,,,,,,,,,,,
16580,1650413819.6257,1650413819.6421,127.0,0.0,4315.384765999999,4611.794922,4280.512695,4280.512695,4305.128418,238.0,3.0,73.0,,,,0.0,4.0,0.0,4.0,0.0,4.0,33.333332,,,,,,,,,,,,,,,,,,,,,,,,,,,,,,,,,,,,,,,,,,,,,,,,,,,,,,,,,,,,,,,,,,,,,,,,,,,,,,,,,,,,
16581,1650413819.6335142,1650413819.649915,0.0,0.0,4303.077147999999,4619.487305,4280.512695,4280.512695,4296.922852000001,450.0,3.0,73.0,,,,0.0,4.0,0.0,4.0,0.0,4.0,33.333332,,,,,,,,0.0,0.0,0.23841500000000002,-0.453613,0.461182,0.7243649999999999,0.886244,-0.446784,-0.167483,-0.043383,-0.05658200000000001,-0.01839,,,,,,,,,,,,,,,,,,,,,,,,,,,,,,,,,,,,,,,,,,,,,,,,,,,,,,,,,,,,,,,,,
16582,1650413819.6413288,1650413819.65763,1.0,0.0,4300.512695,4603.077147999999,4281.025879,4280.512695,4286.666504,450.0,3.0,73.0,,,,0.0,4.0,0.0,4.0,0.0,4.0,33.333332,,,,,,,,,,,,,,,,,,,,,,,,,,,,,,,,,,,,,,,,,,,,,,,,,,,,,,0.0,0.0,64.0,0.456883,1.0,0.0,,,,,,,,,,,,,,,,,,,,,,,,,
16583,1650413819.649144,1650413819.665444,2.0,0.0,4302.05127,4598.974121,4283.077147999999,4280.512695,4289.230957,16204.0,3.0,73.0,,,,0.0,4.0,0.0,4.0,0.0,4.0,33.333332,,,,,,,,1.0,0.0,0.238878,-0.45336899999999997,0.461182,0.7243649999999999,0.876967,-0.45655,-0.165042,-0.043879,-0.056588,-0.022753,,,,,,,,,,,,,,,,,,,,,,,,,,,,,,,,,,,,,,,,,,,,,,,,,,,,,,,,,,,,,,,,,
16584,1650413819.656958,1650413819.673159,3.0,0.0,4305.128418,4613.846191,4282.05127,4280.512695,4308.205078,450.0,3.0,73.0,,,,0.0,4.0,0.0,4.0,0.0,4.0,33.333332,,,,,,,,,,,,,,,,,,,,,,,,,,,,,,,,,,,,,,,,,,,,,,,,,,,,,,,,,,,,,,,,,,,,,,,,,,,,,,,,,,,,
16585,1650413819.664773,1650413819.680974,4.0,0.0,4308.205078,4588.717772999999,4286.666504,4280.512695,4317.94873,0.0,3.0,73.0,,,,0.0,4.0,0.0,4.0,0.0,4.0,33.333332,,,,,,,,2.0,0.0,0.23841500000000002,-0.453613,0.461182,0.7243649999999999,0.886244,-0.446784,-0.167483,-0.042811,-0.056545000000000005,-0.023895,,,,,,,,,,,,,,,,,,,,,,,,,,,,,,,,,,,,,,,,,,,,,,,,,,,,,,,,,,,,,,,,,
16586,1650413819.672587,1650413819.688689,5.0,0.0,4309.230957,4580.0,4292.820313,4280.512695,4303.077147999999,450.0,3.0,73.0,,,,0.0,4.0,0.0,4.0,0.0,4.0,33.333332,,,,,,,,,,,,,,,,,,,,,,,,,,,,,,,,,,,,,,,,,,,,,,,,,,,,,,0.0,0.0,64.0,0.456883,1.0,0.0,,,,,,,,,,,,,,,,,,,,,,,,,
16587,1650413819.680402,1650413819.6966028,6.0,0.0,4309.230957,4590.769043,4286.666504,4280.512695,4288.205078,16128.0,3.0,73.0,,,,0.0,4.0,0.0,4.0,0.0,4.0,33.333332,,,,,,,,3.0,0.0,0.23841500000000002,-0.453613,0.461182,0.7243649999999999,0.8833139999999999,-0.45410900000000004,-0.1626,-0.043364,-0.05655399999999999,-0.027707,,,,,,,,,,,,,,,,,,,,,,,,,,,,,,,,,,,,,,,,,,,,,,,,,,,,,,,,,,,,,,,,,
16588,1650413819.688217,1650413819.704418,7.0,0.0,4309.230957,4591.794922,4281.025879,4280.512695,4296.922852000001,450.0,3.0,73.0,,,,0.0,4.0,0.0,4.0,0.0,4.0,33.333332,,,,,,,,,,,,,,,,,,,,,,,,,,,,,,,,,,,,,,,,,,,,,,,,,,,,,,,,,,,,,,,,,,,,,,,,,,,,,,,,,,,,
16589,1650413819.696031,1650413819.712232,8.0,0.0,4309.230957,4591.794922,4284.102539,4280.512695,4309.230957,450.0,3.0,73.0,,,,0.0,4.0,0.0,4.0,0.0,4.0,33.333332,,,,,,,,4.0,0.0,0.23842199999999997,-0.45385699999999995,0.460938,0.7243649999999999,0.887709,-0.45264399999999994,-0.163088,-0.043715,-0.056514,-0.028306,,,,,,,,,,,,,,,,,,,,,,,,,,,,,,,,,,,,,,,,,,,,,,,,,,,,,,,,,,,,,,,,,
16590,1650413819.703846,1650413819.719947,9.0,0.0,4314.871582,4590.256348,4286.153809,4280.512695,4317.94873,0.0,3.0,73.0,,,,0.0,4.0,0.0,4.0,0.0,4.0,33.333332,1.0,8.333333,1.0,0.0,4.0,0.0,3.0,,,,,,,,,,,,,1.0,0.0,0.0,1.0,0.460563,0.919659,-0.065252,2.015205,1.0,0.167667,4.211981,2.227907,13.368357000000001,0.19003299999999998,1.0,0.30842800000000004,-0.14437,-0.292982,0.15525899999999998,1.0,0.204502,-0.036483,-0.682441,2.320957,1.0,0.46914300000000003,0.470301,-46.100390000000004,51.866085999999996,1.0,0.395983,0.590594,0.49243000000000003,0.720432,0.0,0.0,64.0,0.27925900000000003,1.0,0.0,894.964722,105.86241899999999,11.039216,1.391665,2.435948,13.686264999999999,21.395489,15.376956,9.13701,9.444919,3.883639,1.650866,0.952823,0.5589270000000001,0.805905,0.30781,0.051565,0.031478,0.012284999999999999,0.020412,538.04187,56.873466,13.45679,2.0742119999999997,1.600221
16591,1650413819.71166,1650413819.727762,10.0,0.0,4314.871582,4587.179688,4277.94873,4280.512695,4324.102539,450.0,3.0,73.0,,,,0.0,4.0,0.0,4.0,0.0,4.0,33.333332,,,,,,,,5.0,0.0,0.23842199999999997,-0.45385699999999995,0.460938,0.7243649999999999,0.8960100000000001,-0.451179,-0.155276,-0.044275,-0.056527,-0.022643,,,,,,,,,,,,,,,,,,,,,,,,,,,,,,,,,,,,,,,,,,,,,,,,,,,,,,,,,,,,,,,,,
16592,1650413819.719475,1650413819.735477,11.0,0.0,4299.487305,4552.820313,4269.230957,4280.512695,4315.384765999999,16206.0,3.0,73.0,,,,0.0,4.0,0.0,4.0,0.0,4.0,33.333332,,,,,,,,,,,,,,,,,,,,,,,,,,,,,,,,,,,,,,,,,,,,,,,,,,,,,,,,,,,,,,,,,,,,,,,,,,,,,,,,,,,,
16593,1650413819.7272902,1650413819.743391,12.0,0.0,4302.05127,4528.205078,4269.743652,4280.512695,4306.666504,450.0,3.0,73.0,,,,0.0,4.0,0.0,4.0,0.0,4.0,33.333332,,,,,,,,6.0,0.0,0.23795700000000003,-0.45410200000000006,0.460938,0.7243649999999999,0.886244,-0.458503,-0.163577,-0.043119,-0.05649,-0.02658,,,,,,,,,,,,,,,,,,,,,,,,,,,,,,,,,,,,,,,,,,,,,,,,,,,,,,,,,,,,,,,,,
16594,1650413819.7351038,1650413819.7512062,13.0,0.0,4317.94873,4541.025879,4278.974121,4280.512695,4309.230957,450.0,3.0,73.0,,,,0.0,4.0,0.0,4.0,0.0,4.0,33.333332,,,,,,,,,,,,,,,,,,,,,,,,,,,,,,,,,,,,,,,,,,,,,,,,,,,,,,0.0,0.0,64.0,0.27925900000000003,1.0,0.0,,,,,,,,,,,,,,,,,,,,,,,,,
16595,1650413819.742919,1650413819.7590199,14.0,0.0,4318.974121,4584.102539,4281.538574,4280.512695,4311.794922,450.0,3.0,73.0,,,,0.0,4.0,0.0,4.0,0.0,4.0,33.333332,,,,,,,,7.0,0.0,0.23869899999999997,-0.45410200000000006,0.460938,0.724121,0.885267,-0.44385399999999997,-0.154788,-0.043495,-0.05650499999999999,-0.027339999999999996,,,,,,,,,,,,,,,,,,,,,,,,,,,,,,,,,,,,,,,,,,,,,,,,,,,,,,,,,,,,,,,,,
16596,1650413819.750734,1650413819.766835,15.0,0.0,4313.333496,4608.717772999999,4276.922852000001,4280.512695,4317.436035,16206.0,3.0,73.0,,,,0.0,4.0,0.0,4.0,0.0,4.0,33.333332,,,,,,,,,,,,,,,,,,,,,,,,,,,,,,,,,,,,,,,,,,,,,,,,,,,,,,,,,,,,,,,,,,,,,,,,,,,,,,,,,,,,
16597,1650413819.758548,1650413819.77475,16.0,0.0,4321.538574,4575.897461,4290.256348,4280.512695,4335.897461,0.0,3.0,73.0,,,,0.0,4.0,0.0,4.0,0.0,4.0,33.333332,,,,,,,,8.0,0.0,0.239169,-0.45410200000000006,0.460693,0.724121,0.894545,-0.449226,-0.15674100000000002,-0.04398,-0.05651799999999999,-0.028024,,,,,,,,,,,,,,,,,,,,,,,,,,,,,,,,,,,,,,,,,,,,,,,,,,,,,,,,,,,,,,,,,
16598,1650413819.7663631,1650413819.7825642,17.0,0.0,4333.333496,4564.102539,4306.153809,4280.512695,4345.641113000001,0.0,3.0,73.0,,,,0.0,4.0,0.0,4.0,0.0,4.0,33.333332,,,,,,,,,,,,,,,,,,,,,,,,,,,,,,,,,,,,,,,,,,,,,,,,,,,,,,0.0,0.0,64.0,0.27925900000000003,1.0,0.0,,,,,,,,,,,,,,,,,,,,,,,,,
16599,1650413819.7741768,1650413819.790279,18.0,0.0,4332.307617,4599.487305,4293.333496,4280.512695,4336.922852000001,0.0,3.0,73.0,,,,0.0,4.0,0.0,4.0,0.0,4.0,33.333332,,,,,,,,9.0,0.0,0.23870500000000003,-0.454346,0.460693,0.724121,0.8896620000000001,-0.45655,-0.1626,-0.044367000000000004,-0.056531,-0.025124,,,,,,,,,,,,,,,,,,,,,,,,,,,,,,,,,,,,,,,,,,,,,,,,,,,,,,,,,,,,,,,,,
16600,1650413819.781992,1650413819.798094,19.0,0.0,4327.692383,4612.307617,4278.974121,4280.512695,4331.794922,0.0,3.0,73.0,,,,0.0,4.0,0.0,4.0,0.0,4.0,33.333332,,,,,,,,,,,,,,,,,,,,,,,,,,,,,,,,,,,,,,,,,,,,,,,,,,,,,,,,,,,,,,,,,,,,,,,,,,,,,,,,,,,,
16601,1650413819.7898061,1650413819.805808,20.0,0.0,4323.589844,4601.538574,4277.436035,4280.512695,4338.461426,0.0,3.0,73.0,,,,0.0,4.0,0.0,4.0,0.0,4.0,33.333332,,,,,,,,10.0,0.0,0.23917600000000003,-0.454346,0.460449,0.724121,0.887709,-0.45606199999999997,-0.165042,-0.044813,-0.05644400000000001,-0.028714999999999997,,,,,,,,,,,,,,,,,,,,,,,,,,,,,,,,,,,,,,,,,,,,,,,,,,,,,,,,,,,,,,,,,
16602,1650413819.797621,1650413819.813623,21.0,0.0,4327.179688,4636.922852000001,4277.94873,4280.512695,4345.641113000001,0.0,3.0,73.0,,,,0.0,4.0,0.0,4.0,0.0,4.0,33.333332,,,,,,,,,,,,,,,,,,,,,,,,,,,,,,,,,,,,,,,,,,,,,,,,,,,,,,0.0,0.0,64.0,0.27925900000000003,1.0,0.0,,,,,,,,,,,,,,,,,,,,,,,,,
16603,1650413819.805436,1650413819.8213382,22.0,0.0,4335.897461,4643.589844,4285.128418,4280.512695,4345.128418,0.0,3.0,73.0,,,,0.0,4.0,0.0,4.0,0.0,4.0,33.333332,,,,,,,,11.0,0.0,0.23871199999999998,-0.45458999999999994,0.460449,0.724121,0.8842909999999999,-0.45948,-0.159182,-0.045117000000000004,-0.056464,-0.029164,,,,,,,,,,,,,,,,,,,,,,,,,,,,,,,,,,,,,,,,,,,,,,,,,,,,,,,,,,,,,,,,,
16604,1650413819.81325,1650413819.8291519,23.0,0.0,4342.563965,4564.615234000001,4291.282227000001,4280.512695,4344.102539,0.0,3.0,73.0,,,,0.0,4.0,0.0,4.0,0.0,4.0,33.333332,,,,,,,,,,,,,,,,,,,,,,,,,,,,,,,,,,,,,,,,,,,,,,,,,,,,,,,,,,,,,,,,,,,,,,,,,,,,,,,,,,,,
16605,1650413819.821065,1650413819.836867,24.0,0.0,4345.128418,4562.05127,4280.512695,4280.512695,4343.077147999999,0.0,3.0,73.0,,,,0.0,4.0,0.0,4.0,0.0,4.0,33.333332,,,,,,,,12.0,0.0,0.238717,-0.454834,0.46020500000000003,0.724121,0.8881969999999999,-0.45459700000000003,-0.17236600000000002,-0.045537,-0.056433000000000004,-0.02615,,,,,,,,,,,,,,,,,,,,,,,,,,,,,,,,,,,,,,,,,,,,,,,,,,,,,,,,,,,,,,,,,
16606,1650413819.8288789,1650413819.844682,25.0,0.0,4337.436035,4643.077147999999,4275.897461,4280.512695,4333.846191,0.0,3.0,73.0,,,,0.0,4.0,0.0,4.0,0.0,4.0,33.333332,,,,,,,,,,,,,,,,,,,,1.0,0.0,0.0,,,,,,,,,,,,,,,,,,,,,,,,,,,,,,,,0.0,0.0,1.0,0.0,512.0,0.946335,823.888916,95.503899,9.798333,1.113111,2.003247,14.913223,23.719631,12.958046000000001,8.582456,8.335094999999999,3.715182,1.5675219999999999,0.926441,0.482,0.7405689999999999,0.267769,0.041477999999999994,0.03244,0.012042,0.018935,488.718872,48.84129,12.074055,1.866642,1.39798
16607,1650413819.836694,1650413819.852397,26.0,0.0,4338.974121,4647.692383,4298.974121,4280.512695,4342.563965,0.0,3.0,73.0,,,,0.0,4.0,0.0,4.0,0.0,4.0,33.333332,,,,,,,,13.0,0.0,0.238717,-0.454834,0.46020500000000003,0.724121,0.8896620000000001,-0.451667,-0.167483,-0.045866000000000004,-0.056355999999999996,-0.020508000000000002,,,,,,,,,,,,,,,,,,,,,,,,,,,,,,,,,,,,,,,,,,,,,,,,,,,,,,,,,,,,,,,,,
16608,1650413819.844509,1650413819.860211,27.0,0.0,4357.436035,4593.333496,4309.230957,4280.512695,4367.179688,0.0,3.0,73.0,,,,0.0,4.0,0.0,4.0,0.0,4.0,33.333332,,,,,,,,,,,,,,,,,,,,,,,,,,,,,,,,,,,,,,,,,,,,,,,,,,,,,,,,,,,,,,,,,,,,,,,,,,,,,,,,,,,,
16609,1650413819.852323,1650413819.867926,28.0,0.0,4355.897461,4589.230957,4286.153809,4280.512695,4358.974121,0.0,3.0,73.0,,,,0.0,4.0,0.0,4.0,0.0,4.0,33.333332,,,,,,,,14.0,0.0,0.238717,-0.454834,0.46020500000000003,0.724121,0.876967,-0.445808,-0.171878,-0.046113999999999995,-0.056433000000000004,-0.015625,,,,,,,,,,,,,,,,,,,,,,,,,,,,,,,,,,,,,,,,,,,,,,,,,,,,,,,,,,,,,,,,,
16610,1650413819.8601382,1650413819.87584,29.0,0.0,4338.461426,4622.563965,4275.897461,4280.512695,4336.922852000001,0.0,3.0,73.0,,,,0.0,4.0,0.0,4.0,0.0,4.0,33.333332,,,,,,,,,,,,,,,,,,,,,,,,,,,,,,,,,,,,,,,,,,,,,,,,,,,,,,0.0,0.0,1.0,0.0,512.0,0.946335,,,,,,,,,,,,,,,,,,,,,,,,,
16611,1650413819.8679519,1650413819.883655,30.0,0.0,4339.487305,4600.512695,4290.256348,4280.512695,4338.974121,0.0,3.0,73.0,,,,0.0,4.0,0.0,4.0,0.0,4.0,33.333332,,,,,,,,15.0,0.0,0.238717,-0.454834,0.46020500000000003,0.724121,0.893568,-0.446784,-0.15674100000000002,-0.044774,-0.056454,-0.017431,,,,,,,,,,,,,,,,,,,,,,,,,,,,,,,,,,,,,,,,,,,,,,,,,,,,,,,,,,,,,,,,,
16612,1650413819.875767,1650413819.89147,31.0,0.0,4347.179688,4554.871582,4289.743652,4280.512695,4343.077147999999,0.0,3.0,73.0,,,,0.0,4.0,0.0,4.0,0.0,4.0,33.333332,,,,,,,,,,,,,,,,,,,,,,,,,,,,,,,,,,,,,,,,,,,,,,,,,,,,,,,,,,,,,,,,,,,,,,,,,,,,,,,,,,,,
16613,1650413819.883582,1650413819.899185,32.0,0.0,4344.102539,4584.102539,4276.410156,4280.512695,4348.717772999999,0.0,3.0,73.0,,,,0.0,4.0,0.0,4.0,0.0,4.0,33.333332,,,,,,,,16.0,0.0,0.23797600000000002,-0.454834,0.46020500000000003,0.7243649999999999,0.89015,-0.45655,-0.160647,-0.045082,-0.056424,-0.015493,,,,,,,,,,,,,,,,,,,,,,,,,,,,,,,,,,,,,,,,,,,,,,,,,,,,,,,,,,,,,,,,,
16614,1650413819.891396,1650413819.907099,33.0,0.0,4349.743652,4648.717772999999,4283.589844,4280.512695,4359.487305,0.0,3.0,73.0,,,,0.0,4.0,0.0,4.0,0.0,4.0,33.333332,,,,,,,,,,,,,,,,,,,,,,,,,,,,,,,,,,,,,,,,,,,,,,,,,,,,,,0.0,0.0,1.0,0.0,512.0,0.946335,,,,,,,,,,,,,,,,,,,,,,,,,
16615,1650413819.899211,1650413819.9149141,34.0,0.0,4352.307617,4626.666504,4290.256348,4280.512695,4350.769043,0.0,3.0,73.0,,,,0.0,4.0,0.0,4.0,0.0,4.0,33.333332,,,,,,,,17.0,0.0,0.238246,-0.454834,0.460449,0.724121,0.8798959999999999,-0.461433,-0.160159,-0.045554000000000004,-0.056446,-0.017263999999999998,,,,,,,,,,,,,,,,,,,,,,,,,,,,,,,,,,,,,,,,,,,,,,,,,,,,,,,,,,,,,,,,,
16616,1650413819.907025,1650413819.922828,35.0,0.0,4348.717772999999,4557.94873,4286.666504,4280.512695,4348.717772999999,0.0,3.0,73.0,,,,0.0,4.0,0.0,4.0,0.0,4.0,33.333332,,,,,,,,,,,,,,,,,,,,,,,,,,,,,,,,,,,,,,,,,,,,,,,,,,,,,,,,,,,,,,,,,,,,,,,,,,,,,,,,,,,,
16617,1650413819.91484,1650413819.930643,36.0,0.0,4366.153809,4577.94873,4295.897461,4280.512695,4374.871582,0.0,3.0,73.0,,,,0.0,4.0,0.0,4.0,0.0,4.0,33.333332,,,,,,,,18.0,0.0,0.238246,-0.454834,0.460449,0.724121,0.8838030000000001,-0.45948,-0.165042,-0.045735000000000005,-0.056416999999999995,-0.01544,,,,,,,,,,,,,,,,,,,,,,,,,,,,,,,,,,,,,,,,,,,,,,,,,,,,,,,,,,,,,,,,,
16618,1650413819.922655,1650413819.9385571,37.0,0.0,4372.307617,4625.128418,4301.025879,4280.512695,4368.717772999999,0.0,3.0,73.0,,,,0.0,4.0,0.0,4.0,0.0,4.0,33.333332,,,,,,,,,,,,,,,,,,,,,,,,,,,,,,,,,,,,,,,,,,,,,,,,,,,,,,0.0,0.0,1.0,0.0,512.0,0.946335,,,,,,,,,,,,,,,,,,,,,,,,,
16619,1650413819.930469,1650413819.946372,38.0,0.0,4346.153809,4618.461426,4278.461426,4280.512695,4334.358886999999,0.0,3.0,73.0,,,,0.0,4.0,0.0,4.0,0.0,4.0,33.333332,,,,,,,,19.0,0.0,0.238246,-0.454834,0.460449,0.724121,0.8750129999999999,-0.455085,-0.158694,-0.046093,-0.056488,-0.017314,,,,,,,,,,,,,,,,,,,,,,,,,,,,,,,,,,,,,,,,,,,,,,,,,,,,,,,,,,,,,,,,,
16620,1650413819.938284,1650413819.9542868,39.0,0.0,4331.282227000001,4574.358886999999,4267.692383,4280.512695,4339.487305,0.0,3.0,73.0,,,,0.0,4.0,0.0,4.0,0.0,4.0,33.333332,,,,,,,,,,,,,,,,,,,,,,,,,,,,,,,,,,,,,,,,,,,,,,,,,,,,,,,,,,,,,,,,,,,,,,,,,,,,,,,,,,,,
16621,1650413819.946098,1650413819.962101,40.0,0.0,4344.102539,4552.307617,4277.94873,4280.512695,4350.769043,0.0,3.0,73.0,,,,0.0,4.0,0.0,4.0,0.0,4.0,33.333332,,,,,,,,20.0,0.0,0.238246,-0.454834,0.460449,0.724121,0.885756,-0.451667,-0.166018,-0.046464,-0.056601,-0.018854,,,,,,,,,,,,,,,,,,,,,,,,,,,,,,,,,,,,,,,,,,,,,,,,,,,,,,,,,,,,,,,,,
16622,1650413819.953913,1650413819.969816,41.0,0.0,4340.512695,4580.0,4271.282227000001,4280.512695,4333.846191,0.0,3.0,73.0,,,,0.0,4.0,0.0,4.0,0.0,4.0,33.333332,,,,,,,,,,,,,,,,,,,,1.0,0.0,0.0,,,,,,,,,,,,,,,,,,,,,,,,,,,,,,,,0.0,0.0,1.0,0.0,512.0,1.0,663.649719,75.638535,7.791674,0.8791370000000001,1.532343,16.211931,24.228008,10.222704,8.677809,7.220451,3.4258699999999997,1.395708,0.8832959999999999,0.44765299999999997,0.684002,0.206708,0.029916,0.029717,0.010742,0.015815,389.279114,36.907295,9.770744,1.6818529999999998,1.261509
16623,1650413819.9617279,1650413819.977631,42.0,0.0,4318.974121,4595.384765999999,4265.128418,4280.512695,4325.128418,0.0,3.0,73.0,,,,0.0,4.0,0.0,4.0,0.0,4.0,33.333332,,,,,,,,21.0,0.0,0.238246,-0.454834,0.460449,0.724121,0.885756,-0.44434300000000004,-0.16552999999999998,-0.046652,-0.056604999999999996,-0.020288999999999998,,,,,,,,,,,,,,,,,,,,,,,,,,,,,,,,,,,,,,,,,,,,,,,,,,,,,,,,,,,,,,,,,
16624,1650413819.969542,1650413819.985345,43.0,0.0,4327.179688,4603.589844,4286.666504,4280.512695,4331.282227000001,0.0,3.0,73.0,,,,0.0,4.0,0.0,4.0,0.0,4.0,33.333332,,,,,,,,,,,,,,,,,,,,,,,,,,,,,,,,,,,,,,,,,,,,,,,,,,,,,,,,,,,,,,,,,,,,,,,,,,,,,,,,,,,,
16625,1650413819.9773571,1650413819.99326,44.0,0.0,4351.282227000001,4629.230957,4302.563965,4280.512695,4348.205078,0.0,3.0,73.0,,,,0.0,4.0,0.0,4.0,0.0,4.0,33.333332,,,,,,,,22.0,0.0,0.238246,-0.454834,0.460449,0.724121,0.9004040000000001,-0.45655,-0.160159,-0.046820999999999995,-0.05670599999999999,-0.018163,,,,,,,,,,,,,,,,,,,,,,,,,,,,,,,,,,,,,,,,,,,,,,,,,,,,,,,,,,,,,,,,,
16626,1650413819.985171,1650413820.001075,45.0,0.0,4354.358886999999,4617.436035,4288.205078,4280.512695,4367.692383,0.0,3.0,73.0,,,,0.0,4.0,0.0,4.0,0.0,4.0,33.333332,,,,,,,,,,,,,,,,,,,,,,,,,,,,,,,,,,,,,,,,,,,,,,,,,,,,,,0.0,0.0,1.0,0.0,512.0,1.0,,,,,,,,,,,,,,,,,,,,,,,,,
16627,1650413819.992986,1650413820.008889,46.0,0.0,4344.102539,4582.05127,4277.436035,4280.512695,4363.077147999999,0.0,3.0,73.0,,,,0.0,4.0,0.0,4.0,0.0,4.0,33.333332,,,,,,,,23.0,0.0,0.238246,-0.454834,0.460449,0.724121,0.882338,-0.464363,-0.156252,-0.047070999999999995,-0.056749,-0.019715,,,,,,,,,,,,,,,,,,,,,,,,,,,,,,,,,,,,,,,,,,,,,,,,,,,,,,,,,,,,,,,,,
16628,1650413820.000801,1650413820.016604,47.0,0.0,4339.487305,4584.102539,4278.974121,4280.512695,4344.102539,0.0,3.0,73.0,,,,0.0,4.0,0.0,4.0,0.0,4.0,33.333332,,,,,,,,,,,,,,,,,,,,,,,,,,,,,,,,,,,,,,,,,,,,,,,,,,,,,,,,,,,,,,,,,,,,,,,,,,,,,,,,,,,,
16629,1650413820.008615,1650413820.0244188,48.0,0.0,4340.0,4558.461426,4283.077147999999,4280.512695,4350.769043,0.0,3.0,73.0,,,,0.0,4.0,0.0,4.0,0.0,4.0,33.333332,,,,,,,,24.0,0.0,0.23777399999999999,-0.454834,0.460693,0.724121,0.8730600000000001,-0.458991,-0.16406500000000002,-0.047295,-0.056590999999999995,-0.021162,,,,,,,,,,,,,,,,,,,,,,,,,,,,,,,,,,,,,,,,,,,,,,,,,,,,,,,,,,,,,,,,,
16630,1650413820.0164301,1650413820.032133,49.0,0.0,4346.666504,4523.589844,4285.641113000001,4280.512695,4357.436035,0.0,3.0,73.0,,,,0.0,4.0,0.0,4.0,0.0,4.0,33.333332,,,,,,,,,,,,,,,,,,,,,,,,,,,,,,,,,,,,,,,,,,,,,,,,,,,,,,0.0,0.0,1.0,0.0,512.0,1.0,,,,,,,,,,,,,,,,,,,,,,,,,
16631,1650413820.0242438,1650413820.0400481,50.0,0.0,4349.743652,4551.794922,4281.538574,4280.512695,4350.256348,0.0,3.0,73.0,,,,0.0,4.0,0.0,4.0,0.0,4.0,33.333332,,,,,,,,25.0,0.0,0.238246,-0.454834,0.460449,0.724121,0.9004040000000001,-0.45655,-0.160159,-0.0474,-0.05669400000000001,-0.018948,,,,,,,,,,,,,,,,,,,,,,,,,,,,,,,,,,,,,,,,,,,,,,,,,,,,,,,,,,,,,,,,,
16632,1650413820.032059,1650413820.047863,51.0,0.0,4343.589844,4580.512695,4276.410156,4280.512695,4354.358886999999,0.0,3.0,73.0,,,,0.0,4.0,0.0,4.0,0.0,4.0,33.333332,,,,,,,,,,,,,,,,,,,,,,,,,,,,,,,,,,,,,,,,,,,,,,,,,,,,,,,,,,,,,,,,,,,,,,,,,,,,,,,,,,,,
16633,1650413820.039874,1650413820.0557768,52.0,0.0,4351.282227000001,4586.153809,4283.589844,4280.512695,4354.358886999999,0.0,3.0,73.0,,,,0.0,4.0,0.0,4.0,0.0,4.0,33.333332,,,,,,,,26.0,0.0,0.23777399999999999,-0.454834,0.460693,0.724121,0.889174,-0.46045600000000003,-0.169436,-0.047543,-0.056639999999999996,-0.014172,,,,,,,,,,,,,,,,,,,,,,,,,,,,,,,,,,,,,,,,,,,,,,,,,,,,,,,,,,,,,,,,,
16634,1650413820.047688,1650413820.063592,53.0,0.0,4368.717772999999,4593.333496,4295.384765999999,4280.512695,4357.436035,0.0,3.0,73.0,,,,0.0,4.0,0.0,4.0,0.0,4.0,33.333332,,,,,,,,,,,,,,,,,,,,,,,,,,,,,,,,,,,,,,,,,,,,,,,,,,,,,,0.0,0.0,1.0,0.0,512.0,1.0,,,,,,,,,,,,,,,,,,,,,,,,,
16635,1650413820.055503,1650413820.0714061,54.0,0.0,4371.794922,4575.897461,4297.94873,4280.512695,4380.512695,0.0,3.0,73.0,,,,0.0,4.0,0.0,4.0,0.0,4.0,33.333332,,,,,,,,27.0,0.0,0.238246,-0.454834,0.460449,0.724121,0.9052870000000001,-0.455085,-0.170413,-0.047622000000000005,-0.056590999999999995,-0.01256,,,,,,,,,,,,,,,,,,,,,,,,,,,,,,,,,,,,,,,,,,,,,,,,,,,,,,,,,,,,,,,,,
16636,1650413820.063317,1650413820.079121,55.0,0.0,4366.666504,4562.05127,4295.384765999999,4280.512695,4388.717772999999,0.0,3.0,73.0,,,,0.0,4.0,0.0,4.0,0.0,4.0,33.333332,,,,,,,,,,,,,,,,,,,,,,,,,,,,,,,,,,,,,,,,,,,,,,,,,,,,,,,,,,,,,,,,,,,,,,,,,,,,,,,,,,,,
16637,1650413820.071132,1650413820.086936,56.0,0.0,4363.589844,4598.461426,4288.205078,4280.512695,4365.641113000001,0.0,3.0,73.0,,,,0.0,4.0,0.0,4.0,0.0,4.0,33.333332,,,,,,,,28.0,0.0,0.237779,-0.455078,0.460449,0.724121,0.8989389999999999,-0.457038,-0.154299,-0.046083,-0.05664500000000001,-0.017407,,,,,,,,,,,,,,,,,,,,,,,,,,,,,,,,,,,,,,,,,,,,,,,,,,,,,,,,,,,,,,,,,
16638,1650413820.078947,1650413820.094651,57.0,0.0,4357.436035,4612.307617,4276.922852000001,4280.512695,4349.230957,0.0,3.0,73.0,,,,0.0,4.0,0.0,4.0,0.0,4.0,33.333332,,,,,,,,,,,,,,,,,,,,1.0,0.0,0.0,,,,,,,,,,,,,,,,,,,,,,,,,,,,,,,,0.0,0.0,1.0,0.0,512.0,1.0,458.173279,51.314547999999995,5.457511,0.715277,1.114075,17.178204,22.829514,7.847683,9.1556,6.170935,2.9712400000000003,1.211084,0.86182,0.460962,0.6305029999999999,0.13946,0.019253,0.023976,0.008611,0.011838,265.708038,23.993873999999998,7.0627960000000005,1.577074,1.194447
16639,1650413820.086761,1650413820.1024652,58.0,0.0,4357.436035,4573.333496,4280.512695,4280.512695,4365.641113000001,0.0,3.0,73.0,,,,0.0,4.0,0.0,4.0,0.0,4.0,33.333332,,,,,,,,29.0,0.0,0.237779,-0.455078,0.460449,0.724121,0.894057,-0.45606199999999997,-0.163577,-0.044648,-0.05664500000000001,-0.019084999999999998,,,,,,,,,,,,,,,,,,,,,,,,,,,,,,,,,,,,,,,,,,,,,,,,,,,,,,,,,,,,,,,,,
16640,1650413820.094576,1650413820.1101801,59.0,0.0,4357.94873,4531.282227000001,4290.769043,4280.512695,4372.820313,0.0,3.0,73.0,,,,0.0,4.0,0.0,4.0,0.0,4.0,33.333332,,,,,,,,,,,,,,,,,,,,,,,,,,,,,,,,,,,,,,,,,,,,,,,,,,,,,,,,,,,,,,,,,,,,,,,,,,,,,,,,,,,,
16641,1650413820.10239,1650413820.117995,60.0,0.0,4353.846191,4527.692383,4287.692383,4280.512695,4355.384765999999,0.0,3.0,73.0,,,,0.0,4.0,0.0,4.0,0.0,4.0,33.333332,,,,,,,,30.0,0.0,0.237779,-0.455078,0.460449,0.724121,0.882826,-0.46973400000000004,-0.153811,-0.045018,-0.056596,-0.017079,,,,,,,,,,,,,,,,,,,,,,,,,,,,,,,,,,,,,,,,,,,,,,,,,,,,,,,,,,,,,,,,,
16642,1650413820.1102052,1650413820.125709,61.0,0.0,4356.410156,4569.743652,4283.589844,4280.512695,4351.282227000001,0.0,3.0,73.0,,,,0.0,4.0,0.0,4.0,0.0,4.0,33.333332,,,,,,,,,,,,,,,,,,,,,,,,,,,,,,,,,,,,,,,,,,,,,,,,,,,,,,0.0,0.0,1.0,0.0,512.0,1.0,,,,,,,,,,,,,,,,,,,,,,,,,
16643,1650413820.1180198,1650413820.133524,62.0,0.0,4349.743652,4603.589844,4272.307617,4280.512695,4350.256348,0.0,3.0,73.0,,,,0.0,4.0,0.0,4.0,0.0,4.0,33.333332,,,,,,,,31.0,0.0,0.237779,-0.455078,0.460449,0.724121,0.8833139999999999,-0.46582700000000005,-0.153811,-0.045252,-0.056503,-0.01874,,,,,,,,,,,,,,,,,,,,,,,,,,,,,,,,,,,,,,,,,,,,,,,,,,,,,,,,,,,,,,,,,
16644,1650413820.125834,1650413820.1412392,63.0,0.0,4331.282227000001,4594.358886999999,4253.333496,4280.512695,4341.025879,0.0,3.0,73.0,,,,0.0,4.0,0.0,4.0,0.0,4.0,33.333332,,,,,,,,,,,,,,,,,,,,,,,,,,,,,,,,,,,,,,,,,,,,,,,,,,,,,,,,,,,,,,,,,,,,,,,,,,,,,,,,,,,,
16645,1650413820.133649,1650413820.149153,64.0,0.0,4337.436035,4598.974121,4254.358886999999,4280.512695,4339.487305,450.0,3.0,73.0,,,,0.0,4.0,0.0,4.0,0.0,4.0,33.333332,,,,,,,,32.0,0.0,0.238246,-0.454834,0.460449,0.724121,0.8803850000000001,-0.47071,-0.164553,-0.043901,-0.056516,-0.020284,,,,,,,,,,,,,,,,,,,,,,,,,,,,,,,,,,,,,,,,,,,,,,,,,,,,,,,,,,,,,,,,,
16646,1650413820.141463,1650413820.1569679,65.0,0.0,4361.025879,4637.436035,4262.563965,4280.512695,4342.05127,450.0,3.0,73.0,,,,0.0,4.0,0.0,4.0,0.0,4.0,33.333332,,,,,,,,,,,,,,,,,,,,,,,,,,,,,,,,,,,,,,,,,,,,,,,,,,,,,,0.0,0.0,1.0,0.0,512.0,1.0,,,,,,,,,,,,,,,,,,,,,,,,,
16647,1650413820.149278,1650413820.164683,66.0,0.0,4351.794922,4635.897461,4255.384765999999,4280.512695,4338.461426,16204.0,3.0,73.0,,,,0.0,4.0,0.0,4.0,0.0,4.0,33.333332,,,,,,,,33.0,0.0,0.238246,-0.454834,0.460449,0.724121,0.882338,-0.453132,-0.157717,-0.044295999999999995,-0.056430999999999995,-0.021674000000000002,,,,,,,,,,,,,,,,,,,,,,,,,,,,,,,,,,,,,,,,,,,,,,,,,,,,,,,,,,,,,,,,,
16648,1650413820.157093,1650413820.172497,67.0,0.0,4335.384765999999,4593.333496,4258.461426,4280.512695,4346.666504,450.0,3.0,73.0,,,,0.0,4.0,0.0,4.0,0.0,4.0,33.333332,,,,,,,,,,,,,,,,,,,,,,,,,,,,,,,,,,,,,,,,,,,,,,,,,,,,,,,,,,,,,,,,,,,,,,,,,,,,,,,,,,,,
16649,1650413820.164907,1650413820.180212,68.0,0.0,4355.897461,4591.282227000001,4280.0,4280.512695,4363.589844,0.0,3.0,73.0,,,,0.0,4.0,0.0,4.0,0.0,4.0,33.333332,,,,,,,,34.0,0.0,0.238246,-0.454834,0.460449,0.724121,0.879408,-0.44971400000000006,-0.161135,-0.044603,-0.056354999999999995,-0.01936,,,,,,,,,,,,,,,,,,,,,,,,,,,,,,,,,,,,,,,,,,,,,,,,,,,,,,,,,,,,,,,,,
16650,1650413820.172722,1650413820.188027,69.0,0.0,4366.153809,4620.512695,4285.641113000001,4280.512695,4356.410156,450.0,3.0,73.0,,,,0.0,4.0,0.0,4.0,0.0,4.0,33.333332,,,,,,,,,,,,,,,,,,,,,,,,,,,,,,,,,,,,,,,,,,,,,,,,,,,,,,0.0,0.0,1.0,0.0,512.0,1.0,,,,,,,,,,,,,,,,,,,,,,,,,
16651,1650413820.180536,1650413820.195741,70.0,0.0,4349.743652,4606.666504,4278.974121,4280.512695,4345.128418,16149.0,3.0,73.0,,,,0.0,4.0,0.0,4.0,0.0,4.0,33.333332,,,,,,,,35.0,0.0,0.238246,-0.454834,0.460449,0.724121,0.885267,-0.45264399999999994,-0.154299,-0.044927999999999996,-0.056286,-0.014494,,,,,,,,,,,,,,,,,,,,,,,,,,,,,,,,,,,,,,,,,,,,,,,,,,,,,,,,,,,,,,,,,
16652,1650413820.188351,1650413820.203556,71.0,0.0,4344.102539,4593.846191,4267.179688,4280.512695,4338.974121,450.0,3.0,73.0,,,,0.0,4.0,0.0,4.0,0.0,4.0,33.333332,,,,,,,,,,,,,,,,,,,,,,,,,,,,,,,,,,,,,,,,,,,,,,,,,,,,,,,,,,,,,,,,,,,,,,,,,,,,,,,,,,,,
16653,1650413820.196166,1650413820.211271,72.0,0.0,4345.641113000001,4628.717772999999,4256.410156,4280.512695,4328.205078,450.0,3.0,73.0,,,,0.0,4.0,0.0,4.0,0.0,4.0,33.333332,,,,,,,,36.0,0.0,0.238246,-0.454834,0.460449,0.724121,0.8872209999999999,-0.44483100000000003,-0.16552999999999998,-0.045123,-0.056272,-0.012947,,,,,,,,,,,,,,,,,,,,,,,,,,,,,,,,,,,,,,,,,,,,,,,,,,,,,,,,,,,,,,,,,
16654,1650413820.20398,1650413820.2191849,73.0,0.0,4340.512695,4650.256348,4261.538574,4280.512695,4333.846191,0.0,3.0,73.0,,,,0.0,4.0,0.0,4.0,0.0,4.0,33.333332,1.0,8.333333,1.0,0.0,4.0,0.0,3.0,,,,,,,,,,,,,1.0,0.0,0.0,,,,,,,,,,,,,,,,,,,,,,,,,,,,,,,,0.0,0.0,1.0,0.0,512.0,1.0,262.064392,28.646753000000004,3.3410059999999997,0.616525,0.804741,17.437632,19.929071,6.164626,9.55392,5.352293,2.527259,1.072906,0.9095,0.505201,0.579291,0.08007,0.01099,0.016771,0.006091,0.007886,151.06427,12.987264,4.612138,1.563664,1.1636360000000001
16655,1650413820.2117949,1650413820.227,74.0,0.0,4349.230957,4616.922852000001,4281.538574,4280.512695,4360.0,450.0,3.0,73.0,,,,0.0,4.0,0.0,4.0,0.0,4.0,33.333332,,,,,,,,37.0,0.0,0.238246,-0.454834,0.460449,0.724121,0.889174,-0.457038,-0.170413,-0.045444,-0.056358000000000005,-0.014924000000000002,,,,,,,,,,,,,,,,,,,,,,,,,,,,,,,,,,,,,,,,,,,,,,,,,,,,,,,,,,,,,,,,,
16656,1650413820.21961,1650413820.234915,75.0,0.0,4355.897461,4580.0,4288.717772999999,4280.512695,4357.94873,16204.0,3.0,73.0,,,,0.0,4.0,0.0,4.0,0.0,4.0,33.333332,,,,,,,,,,,,,,,,,,,,,,,,,,,,,,,,,,,,,,,,,,,,,,,,,,,,,,,,,,,,,,,,,,,,,,,,,,,,,,,,,,,,
16657,1650413820.227424,1650413820.242729,76.0,0.0,4336.922852000001,4556.410156,4272.820313,4280.512695,4323.077147999999,450.0,3.0,73.0,,,,0.0,4.0,0.0,4.0,0.0,4.0,33.333332,,,,,,,,38.0,0.0,0.238246,-0.454834,0.460449,0.724121,0.8955209999999999,-0.45069,-0.16894800000000001,-0.045783,-0.056387,-0.013383,,,,,,,,,,,,,,,,,,,,,,,,,,,,,,,,,,,,,,,,,,,,,,,,,,,,,,,,,,,,,,,,,
16658,1650413820.235239,1650413820.2505438,77.0,0.0,4326.153809,4549.230957,4263.589844,4280.512695,4316.410156,450.0,3.0,73.0,,,,0.0,4.0,0.0,4.0,0.0,4.0,33.333332,,,,,,,,,,,,,,,,,,,,,,,,,,,,,,,,,,,,,,,,,,,,,,,,,,,,,,0.0,0.0,1.0,0.0,512.0,1.0,,,,,,,,,,,,,,,,,,,,,,,,,
16659,1650413820.243053,1650413820.258259,78.0,0.0,4336.922852000001,4582.563965,4266.666504,4280.512695,4331.282227000001,450.0,3.0,73.0,,,,0.0,4.0,0.0,4.0,0.0,4.0,33.333332,,,,,,,,39.0,0.0,0.238246,-0.454834,0.460449,0.724121,0.8881969999999999,-0.46826899999999994,-0.166018,-0.046087,-0.056412000000000004,-0.015365,,,,,,,,,,,,,,,,,,,,,,,,,,,,,,,,,,,,,,,,,,,,,,,,,,,,,,,,,,,,,,,,,
16660,1650413820.250868,1650413820.2661731,79.0,0.0,4349.743652,4594.358886999999,4262.563965,4280.512695,4338.974121,16204.0,3.0,73.0,,,,0.0,4.0,0.0,4.0,0.0,4.0,33.333332,,,,,,,,,,,,,,,,,,,,,,,,,,,,,,,,,,,,,,,,,,,,,,,,,,,,,,,,,,,,,,,,,,,,,,,,,,,,,,,,,,,,
16661,1650413820.258683,1650413820.273988,80.0,0.0,4352.307617,4582.563965,4257.94873,4280.512695,4337.94873,450.0,3.0,73.0,,,,0.0,4.0,0.0,4.0,0.0,4.0,33.333332,,,,,,,,40.0,0.0,0.23750300000000002,-0.454834,0.460449,0.7243649999999999,0.8838030000000001,-0.460945,-0.161624,-0.044653,-0.056435,-0.013731,,,,,,,,,,,,,,,,,,,,,,,,,,,,,,,,,,,,,,,,,,,,,,,,,,,,,,,,,,,,,,,,,
16662,1650413820.2664971,1650413820.2819018,81.0,0.0,4343.077147999999,4602.05127,4260.512695,4280.512695,4318.461426,450.0,3.0,73.0,,,,0.0,4.0,0.0,4.0,0.0,4.0,33.333332,,,,,,,,,,,,,,,,,,,,,,,,,,,,,,,,,,,,,,,,,,,,,,,,,,,,,,0.0,0.0,1.0,0.0,512.0,1.0,,,,,,,,,,,,,,,,,,,,,,,,,
16663,1650413820.274312,1650413820.289717,82.0,0.0,4336.410156,4630.256348,4260.512695,4280.512695,4314.871582,450.0,3.0,73.0,,,,0.0,4.0,0.0,4.0,0.0,4.0,33.333332,,,,,,,,41.0,0.0,0.238246,-0.454834,0.460449,0.724121,0.901381,-0.455085,-0.166018,-0.043361000000000004,-0.05645599999999999,-0.015727,,,,,,,,,,,,,,,,,,,,,,,,,,,,,,,,,,,,,,,,,,,,,,,,,,,,,,,,,,,,,,,,,
16664,1650413820.282126,1650413820.297632,83.0,0.0,4331.282227000001,4613.333496,4260.0,4280.512695,4333.846191,16204.0,3.0,73.0,,,,0.0,4.0,0.0,4.0,0.0,4.0,33.333332,,,,,,,,,,,,,,,,,,,,,,,,,,,,,,,,,,,,,,,,,,,,,,,,,,,,,,,,,,,,,,,,,,,,,,,,,,,,,,,,,,,,
16665,1650413820.289941,1650413820.3054461,84.0,0.0,4325.641113000001,4574.871582,4263.077147999999,4280.512695,4335.897461,450.0,3.0,73.0,,,,0.0,4.0,0.0,4.0,0.0,4.0,33.333332,,,,,,,,42.0,0.0,0.237779,-0.455078,0.460449,0.724121,0.8999159999999999,-0.44483100000000003,-0.161624,-0.042345,-0.056572000000000004,-0.017474,,,,,,,,,,,,,,,,,,,,,,,,,,,,,,,,,,,,,,,,,,,,,,,,,,,,,,,,,,,,,,,,,
16666,1650413820.297756,1650413820.313361,85.0,0.0,4333.333496,4563.077147999999,4264.102539,4280.512695,4330.769043,450.0,3.0,73.0,,,,0.0,4.0,0.0,4.0,0.0,4.0,33.333332,,,,,,,,,,,,,,,,,,,,,,,,,,,,,,,,,,,,,,,,,,,,,,,,,,,,,,0.0,0.0,1.0,0.0,512.0,1.0,,,,,,,,,,,,,,,,,,,,,,,,,
16667,1650413820.30557,1650413820.321175,86.0,0.0,4338.461426,4566.153809,4266.153809,4280.512695,4335.897461,450.0,3.0,73.0,,,,0.0,4.0,0.0,4.0,0.0,4.0,33.333332,,,,,,,,43.0,0.0,0.23750300000000002,-0.454834,0.460449,0.7243649999999999,0.8838030000000001,-0.460945,-0.161624,-0.042945,-0.056579,-0.021879,,,,,,,,,,,,,,,,,,,,,,,,,,,,,,,,,,,,,,,,,,,,,,,,,,,,,,,,,,,,,,,,,
16668,1650413820.313385,1650413820.32909,87.0,0.0,4325.128418,4567.179688,4266.153809,4280.512695,4330.256348,16204.0,3.0,73.0,,,,0.0,4.0,0.0,4.0,0.0,4.0,33.333332,,,,,,,,,,,,,,,,,,,,,,,,,,,,,,,,,,,,,,,,,,,,,,,,,,,,,,,,,,,,,,,,,,,,,,,,,,,,,,,,,,,,
16669,1650413820.321199,1650413820.336905,88.0,0.0,4325.128418,4573.333496,4262.563965,4280.512695,4324.102539,450.0,3.0,73.0,,,,0.0,4.0,0.0,4.0,0.0,4.0,33.333332,,,,,,,,44.0,0.0,0.237779,-0.455078,0.460449,0.724121,0.8999159999999999,-0.44483100000000003,-0.161624,-0.041971,-0.056683000000000004,-0.023012,,,,,,,,,,,,,,,,,,,,,,,,,,,,,,,,,,,,,,,,,,,,,,,,,,,,,,,,,,,,,,,,,
16670,1650413820.329014,1650413820.3448188,89.0,0.0,4343.077147999999,4618.974121,4261.538574,4280.512695,4329.230957,450.0,3.0,73.0,,,,0.0,4.0,0.0,4.0,0.0,4.0,33.333332,,,,,,,,,,,,,,,,,,,,1.0,0.0,0.0,,,,,,,,,,,,,,,,,,,,,,,,,,,,,,,,0.0,0.0,1.0,0.0,512.0,1.0,117.112076,12.267875,1.8773669999999998,0.563752,0.619732,16.808147,16.303865,5.213423000000001,9.552645,4.9109300000000005,2.052616,0.9838389999999999,1.044378,0.558917,0.53547,0.037708,0.005554,0.009885,0.003698,0.004639,67.747322,5.629933,2.904704,1.611712,1.130204
16671,1650413820.336829,1650413820.352634,90.0,0.0,4353.333496,4620.512695,4266.153809,4280.512695,4331.282227000001,450.0,3.0,73.0,,,,0.0,4.0,0.0,4.0,0.0,4.0,33.333332,,,,,,,,45.0,0.0,0.237779,-0.455078,0.460449,0.724121,0.8921030000000001,-0.45655,-0.164553,-0.042657,-0.05667899999999999,-0.024031,,,,,,,,,,,,,,,,,,,,,,,,,,,,,,,,,,,,,,,,,,,,,,,,,,,,,,,,,,,,,,,,,
16672,1650413820.3446429,1650413820.360349,91.0,0.0,4352.820313,4563.589844,4265.641113000001,4280.512695,4333.846191,16204.0,3.0,73.0,,,,0.0,4.0,0.0,4.0,0.0,4.0,33.333332,,,,,,,,,,,,,,,,,,,,,,,,,,,,,,,,,,,,,,,,,,,,,,,,,,,,,,,,,,,,,,,,,,,,,,,,,,,,,,,,,,,,
16673,1650413820.352458,1650413820.368163,92.0,0.0,4337.94873,4574.871582,4258.974121,4280.512695,4332.307617,450.0,3.0,73.0,,,,0.0,4.0,0.0,4.0,0.0,4.0,33.333332,,,,,,,,46.0,0.0,0.237035,-0.455078,0.460449,0.7243649999999999,0.886732,-0.46582700000000005,-0.14990499999999998,-0.043225,-0.056625999999999996,-0.024997,,,,,,,,,,,,,,,,,,,,,,,,,,,,,,,,,,,,,,,,,,,,,,,,,,,,,,,,,,,,,,,,,
16674,1650413820.3602722,1650413820.3758779,93.0,0.0,4324.615234000001,4602.05127,4257.436035,4280.512695,4326.666504,450.0,3.0,73.0,,,,0.0,4.0,0.0,4.0,0.0,4.0,33.333332,,,,,,,,,,,,,,,,,,,,,,,,,,,,,,,,,,,,,,,,,,,,,,,,,,,,,,0.0,0.0,1.0,0.0,512.0,1.0,,,,,,,,,,,,,,,,,,,,,,,,,
16675,1650413820.3680868,1650413820.383693,94.0,0.0,4334.358886999999,4586.666504,4261.538574,4280.512695,4322.563965,450.0,3.0,73.0,,,,0.0,4.0,0.0,4.0,0.0,4.0,33.333332,,,,,,,,47.0,0.0,0.237035,-0.455078,0.460449,0.7243649999999999,0.879408,-0.44824899999999995,-0.167971,-0.043785000000000004,-0.056579,-0.022351,,,,,,,,,,,,,,,,,,,,,,,,,,,,,,,,,,,,,,,,,,,,,,,,,,,,,,,,,,,,,,,,,
16676,1650413820.375902,1650413820.391407,95.0,0.0,4346.666504,4594.358886999999,4267.179688,4280.512695,4315.384765999999,16204.0,3.0,73.0,,,,0.0,4.0,0.0,4.0,0.0,4.0,33.333332,,,,,,,,,,,,,,,,,,,,,,,,,,,,,,,,,,,,,,,,,,,,,,,,,,,,,,,,,,,,,,,,,,,,,,,,,,,,,,,,,,,,
16677,1650413820.383716,1650413820.3992221,96.0,0.0,4343.589844,4619.487305,4268.205078,4280.512695,4316.922852000001,450.0,3.0,73.0,,,,0.0,4.0,0.0,4.0,0.0,4.0,33.333332,,,,,,,,48.0,0.0,0.237779,-0.455078,0.460449,0.724121,0.889174,-0.462409,-0.169436,-0.042678,-0.056487,-0.023583,,,,,,,,,,,,,,,,,,,,,,,,,,,,,,,,,,,,,,,,,,,,,,,,,,,,,,,,,,,,,,,,,
16678,1650413820.391531,1650413820.406937,97.0,0.0,4347.179688,4607.692383,4262.563965,4280.512695,4328.205078,450.0,3.0,73.0,,,,0.0,4.0,0.0,4.0,0.0,4.0,33.333332,,,,,,,,,,,,,,,,,,,,,,,,,,,,,,,,,,,,,,,,,,,,,,,,,,,,,,0.0,0.0,1.0,0.0,512.0,1.0,,,,,,,,,,,,,,,,,,,,,,,,,
16679,1650413820.399345,1650413820.414751,98.0,0.0,4362.05127,4621.025879,4258.461426,4280.512695,4333.333496,450.0,3.0,73.0,,,,0.0,4.0,0.0,4.0,0.0,4.0,33.333332,,,,,,,,49.0,0.0,0.237779,-0.455078,0.460449,0.724121,0.895033,-0.46387399999999995,-0.151369,-0.043342,-0.056454,-0.024641999999999997,,,,,,,,,,,,,,,,,,,,,,,,,,,,,,,,,,,,,,,,,,,,,,,,,,,,,,,,,,,,,,,,,
16680,1650413820.40716,1650413820.422466,99.0,0.0,4361.538574,4631.282227000001,4263.589844,4280.512695,4333.333496,16204.0,3.0,73.0,,,,0.0,4.0,0.0,4.0,0.0,4.0,33.333332,,,,,,,,,,,,,,,,,,,,,,,,,,,,,,,,,,,,,,,,,,,,,,,,,,,,,,,,,,,,,,,,,,,,,,,,,,,,,,,,,,,,
16681,1650413820.414975,1650413820.4302812,100.0,0.0,4348.205078,4593.846191,4261.538574,4280.512695,4324.102539,450.0,3.0,73.0,,,,0.0,4.0,0.0,4.0,0.0,4.0,33.333332,,,,,,,,50.0,0.0,0.237785,-0.455322,0.46020500000000003,0.724121,0.8847790000000001,-0.46826899999999994,-0.166995,-0.04394,-0.056424,-0.022081,,,,,,,,,,,,,,,,,,,,,,,,,,,,,,,,,,,,,,,,,,,,,,,,,,,,,,,,,,,,,,,,,
16682,1650413820.422789,1650413820.437995,101.0,0.0,4344.615234000001,4596.922852000001,4247.692383,4280.512695,4309.230957,450.0,3.0,73.0,,,,0.0,4.0,0.0,4.0,0.0,4.0,33.333332,,,,,,,,,,,,,,,,,,,,,,,,,,,,,,,,,,,,,,,,,,,,,,,,,,,,,,0.0,0.0,1.0,0.0,512.0,1.0,,,,,,,,,,,,,,,,,,,,,,,,,
16683,1650413820.430604,1650413820.44591,102.0,0.0,4350.256348,4584.102539,4245.641113000001,4280.512695,4307.692383,450.0,3.0,73.0,,,,0.0,4.0,0.0,4.0,0.0,4.0,33.333332,,,,,,,,51.0,0.0,0.237785,-0.455322,0.46020500000000003,0.724121,0.885756,-0.45557299999999995,-0.161624,-0.04438,-0.056446,-0.01704,,,,,,,,,,,,,,,,,,,,,,,,,,,,,,,,,,,,,,,,,,,,,,,,,,,,,,,,,,,,,,,,,
16684,1650413820.438418,1650413820.453725,103.0,0.0,4346.666504,4569.230957,4250.769043,4280.512695,4314.871582,16204.0,3.0,73.0,,,,0.0,4.0,0.0,4.0,0.0,4.0,33.333332,,,,,,,,,,,,,,,,,,,,,,,,,,,,,,,,,,,,,,,,,,,,,,,,,,,,,,,,,,,,,,,,,,,,,,,,,,,,,,,,,,,,
16685,1650413820.446233,1650413820.4616392,104.0,0.0,4335.384765999999,4658.461426,4246.666504,4280.512695,4309.743652,450.0,3.0,73.0,,,,0.0,4.0,0.0,4.0,0.0,4.0,33.333332,,,,,,,,52.0,0.0,0.237785,-0.455322,0.46020500000000003,0.724121,0.8808729999999999,-0.451179,-0.15820599999999999,-0.044825,-0.056563,-0.018754,,,,,,,,,,,,,,,,,,,,,,,,,,,,,,,,,,,,,,,,,,,,,,,,,,,,,,,,,,,,,,,,,
16686,1650413820.4540482,1650413820.4694538,105.0,0.0,4329.743652,4688.717772999999,4250.256348,4280.512695,4293.333496,450.0,3.0,73.0,,,,0.0,4.0,0.0,4.0,0.0,4.0,33.333332,,,,,,,,,,,,,,,,,,,,1.0,0.0,0.0,,,,,,,,,,,,,,,,,,,,,,,,,,,,,,,,0.0,0.0,1.0,0.0,512.0,1.0,33.932709,3.7397160000000005,1.224167,0.5374369999999999,0.5419430000000001,15.338023000000002,12.733912,4.98105,9.138498,4.862766000000001,1.6345610000000002,0.922134,1.251206,0.612858,0.506731,0.012878,0.002482,0.004711,0.0018579999999999998,0.002396,20.750717,2.11931,2.056089,1.66677,1.07697
16687,1650413820.4618618,1650413820.4773679,106.0,0.0,4343.589844,4584.615234000001,4262.563965,4280.512695,4297.436035,450.0,3.0,73.0,,,,0.0,4.0,0.0,4.0,0.0,4.0,33.333332,,,,,,,,53.0,0.0,0.237785,-0.455322,0.46020500000000003,0.724121,0.8881969999999999,-0.45410900000000004,-0.16552999999999998,-0.045176,-0.056571,-0.014047,,,,,,,,,,,,,,,,,,,,,,,,,,,,,,,,,,,,,,,,,,,,,,,,,,,,,,,,,,,,,,,,,
16688,1650413820.469677,1650413820.485183,107.0,0.0,4366.666504,4554.871582,4261.538574,4280.512695,4329.743652,16204.0,3.0,73.0,,,,0.0,4.0,0.0,4.0,0.0,4.0,33.333332,,,,,,,,,,,,,,,,,,,,,,,,,,,,,,,,,,,,,,,,,,,,,,,,,,,,,,,,,,,,,,,,,,,,,,,,,,,,,,,,,,,,
16689,1650413820.477491,1650413820.493098,108.0,0.0,4367.179688,4628.717772999999,4251.794922,4280.512695,4348.205078,450.0,3.0,73.0,,,,0.0,4.0,0.0,4.0,0.0,4.0,33.333332,,,,,,,,54.0,0.0,0.237785,-0.455322,0.46020500000000003,0.724121,0.8774549999999999,-0.46045600000000003,-0.170413,-0.045493,-0.056528999999999996,-0.015962999999999998,,,,,,,,,,,,,,,,,,,,,,,,,,,,,,,,,,,,,,,,,,,,,,,,,,,,,,,,,,,,,,,,,
