,Timestamp,OriginalTimestamp,EEG.Counter,EEG.Interpolated,EEG.AF3,EEG.T7,EEG.Pz,EEG.T8,EEG.AF4,EEG.RawCq,EEG.Battery,EEG.BatteryPercent,MarkerIndex,MarkerType,MarkerValueInt,EEG.MarkerHardware,CQ.AF3,CQ.T7,CQ.Pz,CQ.T8,CQ.AF4,CQ.Overall,EQ.SampleRateQuality,EQ.OVERALL,EQ.AF3,EQ.T7,EQ.Pz,EQ.T8,EQ.AF4,MOT.CounterMems,MOT.InterpolatedMems,MOT.Q0,MOT.Q1,MOT.Q2,MOT.Q3,MOT.AccX,MOT.AccY,MOT.AccZ,MOT.MagX,MOT.MagY,MOT.MagZ,MC.Action,MC.ActionPower,MC.IsActive,PM.Engagement.IsActive,PM.Engagement.Scaled,PM.Engagement.Raw,PM.Engagement.Min,PM.Engagement.Max,PM.Excitement.IsActive,PM.Excitement.Scaled,PM.Excitement.Raw,PM.Excitement.Min,PM.Excitement.Max,PM.LongTermExcitement,PM.Stress.IsActive,PM.Stress.Scaled,PM.Stress.Raw,PM.Stress.Min,PM.Stress.Max,PM.Relaxation.IsActive,PM.Relaxation.Scaled,PM.Relaxation.Raw,PM.Relaxation.Min,PM.Relaxation.Max,PM.Interest.IsActive,PM.Interest.Scaled,PM.Interest.Raw,PM.Interest.Min,PM.Interest.Max,PM.Focus.IsActive,PM.Focus.Scaled,PM.Focus.Raw,PM.Focus.Min,PM.Focus.Max,FE.BlinkWink,FE.HorizontalEyesDirection,FE.UpperFaceAction,FE.UpperFaceActionPower,FE.LowerFaceAction,FE.LowerFaceActionPower,POW.AF3.Theta,POW.AF3.Alpha,POW.AF3.BetaL,POW.AF3.BetaH,POW.AF3.Gamma,POW.T7.Theta,POW.T7.Alpha,POW.T7.BetaL,POW.T7.BetaH,POW.T7.Gamma,POW.Pz.Theta,POW.Pz.Alpha,POW.Pz.BetaL,POW.Pz.BetaH,POW.Pz.Gamma,POW.T8.Theta,POW.T8.Alpha,POW.T8.BetaL,POW.T8.BetaH,POW.T8.Gamma,POW.AF4.Theta,POW.AF4.Alpha,POW.AF4.BetaL,POW.AF4.BetaH,POW.AF4.Gamma
18988,1645901501.1895142,1645901501.20703,96.0,0.0,4343.077147999999,4491.282227000001,4195.384765999999,4178.461426,4322.563965,450.0,1.0,15.0,,,,0.0,4.0,0.0,2.0,4.0,4.0,50.0,,,,,,,,48.0,0.0,0.717921,0.13623,0.662354,0.16528299999999999,0.914076,-0.407233,-0.083009,-0.027282999999999998,-0.034513999999999996,-0.015295,,,,,,,,,,,,,,,,,,,,,,,,,,,,,,,,,,,,,,,,,,,,,,,,,,,,,,,,,,,,,,,,,
18989,1645901501.1973279,1645901501.2147439,97.0,0.0,4328.717772999999,4507.692383,4172.820313,4197.436035,4306.666504,450.0,1.0,15.0,,,,0.0,4.0,0.0,2.0,4.0,4.0,50.0,,,,,,,,,,,,,,,,,,,,,,,,,,,,,,,,,,,,,,,,,,,,,,,,,,,,,,,,,,,,,,,,,,,,,,,,,,,,,,,,,,,,
18990,1645901501.205141,1645901501.222559,98.0,0.0,4338.461426,4447.179688,4193.846191,4206.666504,4287.179688,450.0,1.0,15.0,,,,0.0,4.0,0.0,2.0,4.0,4.0,50.0,,,,,,,,49.0,0.0,0.717921,0.13623,0.662354,0.16528299999999999,0.925795,-0.431159,-0.08984500000000001,-0.024603,-0.034431,-0.016158000000000002,,,,,,,,,,,,,,,,,,,,,,,,,,,,,,,,,,,0.0,0.0,1.0,0.0,512.0,0.901127,,,,,,,,,,,,,,,,,,,,,,,,,
18991,1645901501.212955,1645901501.230374,99.0,0.0,4340.512695,4434.871582,4198.461426,4187.179688,4263.077147999999,16121.0,1.0,15.0,,,,0.0,4.0,0.0,2.0,4.0,4.0,50.0,,,,,,,,,,,,,,,,,,,,,,,,,,,,,,,,,,,,,,,,,,,,,,,,,,,,,,,,,,,,,,,,,,,,,,,,,,,,,,,,,,,,
18992,1645901501.220769,1645901501.238188,100.0,0.0,4330.256348,4466.153809,4173.333496,4168.717772999999,4247.179688,450.0,1.0,15.0,,,,0.0,4.0,0.0,2.0,4.0,4.0,50.0,,,,,,,,50.0,0.0,0.717875,0.136475,0.662354,0.16528299999999999,0.9277489999999999,-0.42920600000000003,-0.08984500000000001,-0.022192,-0.034406,-0.01381,,,,,,,,,,,,,,,,,,,,,,,,,,,,,,,,,,,,,,,,,,,,,,,,,,,,,,,,,,,,,,,,,
18993,1645901501.228583,1645901501.246003,101.0,0.0,4325.128418,4457.94873,4183.589844,4165.128418,4240.512695,450.0,1.0,15.0,,,,0.0,4.0,0.0,2.0,4.0,4.0,50.0,,,,,,,,,,,,,,,,,,,,,,,,,,,,,,,,,,,,,,,,,,,,,,,,,,,,,,,,,,,,,,,,,,,,,,,,,,,,,,,,,,,,
18994,1645901501.236396,1645901501.253818,102.0,0.0,4336.410156,4445.641113000001,4244.615234000001,4163.077147999999,4230.769043,450.0,1.0,15.0,,,,0.0,4.0,0.0,2.0,4.0,4.0,50.0,,,,,,,,51.0,0.0,0.7180529999999999,0.136719,0.6621090000000001,0.16528299999999999,0.9004040000000001,-0.42236999999999997,-0.081544,-0.023147,-0.034432,-0.014919,1.0,0.0,0.0,,,,,,,,,,,,,,,,,,,,,,,,,,,,,,,,0.0,0.0,1.0,0.0,512.0,0.8830879999999999,10.761646,7.181127,2.7568770000000002,2.200281,1.984204,50.580162,32.276534999999996,52.767525,19.529791,19.533241,29.304544,27.440285,12.602319,12.839472,5.682085,10.842967,6.894209,5.116339,2.936009,2.337732,10.414729,5.567273,3.94452,1.75816,1.916459
18995,1645901501.24421,1645901501.261632,103.0,0.0,4336.922852000001,4408.717772999999,4222.05127,4166.666504,4222.05127,16121.0,1.0,15.0,,,,0.0,4.0,0.0,2.0,4.0,4.0,50.0,,,,,,,,,,,,,,,,,,,,,,,,,,,,,,,,,,,,,,,,,,,,,,,,,,,,,,,,,,,,,,,,,,,,,,,,,,,,,,,,,,,,
18996,1645901501.252024,1645901501.269447,104.0,0.0,4329.743652,4397.94873,4235.897461,4177.94873,4247.692383,450.0,1.0,15.0,,,,0.0,4.0,0.0,2.0,4.0,4.0,50.0,,,,,,,,52.0,0.0,0.717828,0.136719,0.662354,0.16528299999999999,0.906264,-0.417487,-0.076661,-0.024006,-0.034407,-0.015771,,,,,,,,,,,,,,,,,,,,,,,,,,,,,,,,,,,,,,,,,,,,,,,,,,,,,,,,,,,,,,,,,
18997,1645901501.259837,1645901501.277262,105.0,0.0,4331.794922,4441.025879,4271.282227000001,4169.230957,4275.384765999999,450.0,1.0,15.0,,,,0.0,4.0,0.0,2.0,4.0,4.0,50.0,,,,,,,,,,,,,,,,,,,,,,,,,,,,,,,,,,,,,,,,,,,,,,,,,,,,,,,,,,,,,,,,,,,,,,,,,,,,,,,,,,,,
18998,1645901501.267651,1645901501.284976,106.0,0.0,4343.077147999999,4480.0,4265.128418,4135.897461,4271.794922,450.0,1.0,15.0,,,,0.0,4.0,0.0,2.0,4.0,4.0,50.0,,,,,,,,53.0,0.0,0.717828,0.136719,0.662354,0.16528299999999999,0.9091940000000001,-0.415045,-0.075196,-0.024681,-0.034336,-0.013266,,,,,,,,,,,,,,,,,,,,,,,,,,,,,,,,,,,0.0,0.0,1.0,0.0,512.0,0.8830879999999999,,,,,,,,,,,,,,,,,,,,,,,,,
18999,1645901501.275465,1645901501.2927911,107.0,0.0,4365.641113000001,4469.743652,4196.410156,4134.871582,4283.589844,16121.0,1.0,15.0,,,,0.0,4.0,0.0,2.0,4.0,4.0,50.0,,,,,,,,,,,,,,,,,,,,,,,,,,,,,,,,,,,,,,,,,,,,,,,,,,,,,,,,,,,,,,,,,,,,,,,,,,,,,,,,,,,,
19000,1645901501.283279,1645901501.300606,108.0,0.0,4346.153809,4444.615234000001,4220.0,4172.307617,4278.461426,450.0,1.0,15.0,,,,0.0,4.0,0.0,2.0,4.0,4.0,50.0,,,,,,,,54.0,0.0,0.717828,0.136719,0.662354,0.16528299999999999,0.9077290000000001,-0.420417,-0.078126,-0.022262,-0.034223,-0.014235,,,,,,,,,,,,,,,,,,,,,,,,,,,,,,,,,,,,,,,,,,,,,,,,,,,,,,,,,,,,,,,,,
19001,1645901501.291092,1645901501.30842,109.0,0.0,4331.794922,4466.153809,4257.94873,4187.692383,4275.897461,450.0,1.0,15.0,,,,0.0,4.0,0.0,2.0,4.0,4.0,50.0,,,,,,,,,,,,,,,,,,,,,,,,,,,,,,,,,,,,,,,,,,,,,,,,,,,,,,,,,,,,,,,,,,,,,,,,,,,,,,,,,,,,
19002,1645901501.298906,1645901501.316235,110.0,0.0,4344.615234000001,4519.487305,4243.077147999999,4176.922852000001,4286.666504,450.0,1.0,15.0,,,,0.0,4.0,0.0,2.0,4.0,4.0,50.0,,,,,,,,55.0,0.0,0.717828,0.136719,0.662354,0.16528299999999999,0.906264,-0.417487,-0.076661,-0.023209999999999998,-0.034218,-0.015155000000000002,,,,,,,,,,,,,,,,,,,,,,,,,,,,,,,,,,,0.0,0.0,1.0,0.0,512.0,0.8830879999999999,,,,,,,,,,,,,,,,,,,,,,,,,
19003,1645901501.30672,1645901501.32405,111.0,0.0,4356.410156,4561.538574,4195.897461,4177.94873,4296.922852000001,16121.0,1.0,15.0,,,,0.0,4.0,0.0,2.0,4.0,4.0,50.0,,,,,,,,,,,,,,,,,,,,,,,,,,,,,,,,,,,,,,,,,,,,,,,,,,,,,,,,,,,,,,,,,,,,,,,,,,,,,,,,,,,,
19004,1645901501.314534,1645901501.331864,112.0,0.0,4323.589844,4506.666504,4198.974121,4171.794922,4276.922852000001,450.0,1.0,15.0,,,,0.0,4.0,0.0,2.0,4.0,4.0,50.0,,,,,,,,56.0,0.0,0.717828,0.136719,0.662354,0.16528299999999999,0.9077290000000001,-0.420417,-0.078126,-0.020938,-0.034117,-0.015934,,,,,,,,,,,,,,,,,,,,,,,,,,,,,,,,,,,,,,,,,,,,,,,,,,,,,,,,,,,,,,,,,
19005,1645901501.3223472,1645901501.339679,113.0,0.0,4299.487305,4451.282227000001,4191.282227000001,4191.794922,4268.717772999999,450.0,1.0,15.0,,,,0.0,4.0,0.0,2.0,4.0,4.0,50.0,,,,,,,,,,,,,,,,,,,,,,,,,,,,,,,,,,,,,,,,,,,,,,,,,,,,,,,,,,,,,,,,,,,,,,,,,,,,,,,,,,,,
19006,1645901501.3301609,1645901501.347493,114.0,0.0,4290.769043,4474.358886999999,4149.743652,4203.589844,4273.846191,450.0,1.0,15.0,,,,0.0,4.0,0.0,2.0,4.0,4.0,50.0,,,,,,,,57.0,0.0,0.717875,0.136475,0.662354,0.16528299999999999,0.916518,-0.415534,-0.083497,-0.020177,-0.033943,-0.017315999999999998,,,,,,,,,,,,,,,,,,,,,,,,,,,,,,,,,,,0.0,0.0,1.0,0.0,512.0,0.8830879999999999,,,,,,,,,,,,,,,,,,,,,,,,,
19007,1645901501.337975,1645901501.355308,115.0,0.0,4291.794922,4512.307617,4180.512695,4190.769043,4285.641113000001,16121.0,1.0,15.0,,,,0.0,4.0,0.0,2.0,4.0,4.0,50.0,,,,,,,,,,,,,,,,,,,,,,,,,,,,,,,,,,,,,,,,,,,,,,,,,,,,,,,,,,,,,,,,,,,,,,,,,,,,,,,,,,,,
19008,1645901501.345788,1645901501.363023,116.0,0.0,4300.0,4487.692383,4207.179688,4181.025879,4264.102539,450.0,1.0,15.0,,,,0.0,4.0,0.0,2.0,4.0,4.0,50.0,,,,,,,,58.0,0.0,0.717921,0.13623,0.662354,0.16528299999999999,0.9155409999999999,-0.412116,-0.09131,-0.021236,-0.033918000000000004,-0.014657,,,,,,,,,,,,,,,,,,,,,,,,,,,,,,,,,,,,,,,,,,,,,,,,,,,,,,,,,,,,,,,,,
19009,1645901501.353602,1645901501.370837,117.0,0.0,4312.820313,4448.205078,4188.717772999999,4197.436035,4243.589844,450.0,1.0,15.0,,,,0.0,4.0,0.0,2.0,4.0,4.0,50.0,,,,,,,,,,,,,,,,,,,,,,,,,,,,,,,,,,,,,,,,,,,,,,,,,,,,,,,,,,,,,,,,,,,,,,,,,,,,,,,,,,,,
19010,1645901501.361416,1645901501.3786519,118.0,0.0,4313.846191,4449.743652,4201.025879,4192.307617,4252.307617,450.0,1.0,15.0,,,,0.0,4.0,0.0,2.0,4.0,4.0,50.0,,,,,,,,59.0,0.0,0.717921,0.13623,0.662354,0.16528299999999999,0.905776,-0.423835,-0.083009,-0.019161,-0.033993,-0.015535,1.0,0.0,0.0,,,,,,,,,,,,,,,,,,,,,,,,,,,,,,,,0.0,0.0,1.0,0.0,512.0,0.744833,10.898825,6.39555,3.560843,2.448701,1.989277,46.347137,35.037903,58.97747,19.141771,16.517969,27.666998,27.416801,13.410763000000001,13.239079,5.58111,10.322695,6.8125350000000005,5.727861,3.557892,2.284482,11.907946,6.046476,3.842378,1.8406220000000002,1.9498490000000002
19011,1645901501.36923,1645901501.386467,119.0,0.0,4304.615234000001,4448.717772999999,4274.871582,4182.563965,4253.333496,16121.0,1.0,15.0,,,,0.0,4.0,0.0,2.0,4.0,4.0,50.0,,,,,,,,,,,,,,,,,,,,,,,,,,,,,,,,,,,,,,,,,,,,,,,,,,,,,,,,,,,,,,,,,,,,,,,,,,,,,,,,,,,,
19012,1645901501.377043,1645901501.3942811,120.0,0.0,4317.436035,4427.179688,4243.589844,4204.615234000001,4241.025879,450.0,1.0,15.0,,,,0.0,4.0,0.0,2.0,4.0,4.0,50.0,,,,,,,,60.0,0.0,0.7179770000000001,0.13623,0.662354,0.16503900000000002,0.9243309999999999,-0.431647,-0.079591,-0.020419,-0.034012,-0.013347,,,,,,,,,,,,,,,,,,,,,,,,,,,,,,,,,,,,,,,,,,,,,,,,,,,,,,,,,,,,,,,,,
19013,1645901501.384857,1645901501.402096,121.0,0.0,4327.692383,4431.282227000001,4227.692383,4208.205078,4240.512695,450.0,1.0,15.0,,,,0.0,4.0,0.0,2.0,4.0,4.0,50.0,,,,,,,,,,,,,,,,,,,,,,,,,,,,,,,,,,,,,,,,,,,,,,,,,,,,,,,,,,,,,,,,,,,,,,,,,,,,,,,,,,,,
19014,1645901501.392671,1645901501.409911,122.0,0.0,4315.384765999999,4432.307617,4237.436035,4176.410156,4240.512695,450.0,1.0,15.0,,,,0.0,4.0,0.0,2.0,4.0,4.0,50.0,,,,,,,,61.0,0.0,0.7179770000000001,0.13623,0.662354,0.16503900000000002,0.9087049999999999,-0.42090500000000003,-0.078126,-0.021551,-0.03398,-0.014258000000000002,,,,,,,,,,,,,,,,,,,,,,,,,,,,,,,,,,,0.0,0.0,1.0,0.0,512.0,0.744833,,,,,,,,,,,,,,,,,,,,,,,,,
19015,1645901501.400485,1645901501.417725,123.0,0.0,4294.871582,4412.307617,4247.179688,4156.410156,4228.717772999999,16121.0,1.0,15.0,,,,0.0,4.0,0.0,2.0,4.0,4.0,50.0,,,,,,,,,,,,,,,,,,,,,,,,,,,,,,,,,,,,,,,,,,,,,,,,,,,,,,,,,,,,,,,,,,,,,,,,,,,,,,,,,,,,
19016,1645901501.408298,1645901501.42554,124.0,0.0,4311.282227000001,4466.666504,4196.410156,4136.410156,4241.538574,450.0,1.0,15.0,,,,0.0,4.0,0.0,2.0,4.0,4.0,50.0,,,,,,,,62.0,0.0,0.717931,0.136475,0.662354,0.16503900000000002,0.9199360000000001,-0.425299,-0.072755,-0.02257,-0.033951,-0.015225,,,,,,,,,,,,,,,,,,,,,,,,,,,,,,,,,,,,,,,,,,,,,,,,,,,,,,,,,,,,,,,,,
19017,1645901501.416112,1645901501.4332552,125.0,0.0,4322.563965,4540.512695,4191.282227000001,4102.05127,4260.0,450.0,1.0,15.0,,,,0.0,4.0,2.0,2.0,4.0,4.0,66.666664,,,,,,,,,,,,,,,,,,,,,,,,,,,,,,,,,,,,,,,,,,,,,,,,,,,,,,,,,,,,,,,,,,,,,,,,,,,,,,,,,,,,
19018,1645901501.4239259,1645901501.441069,126.0,0.0,4329.230957,4473.846191,4198.974121,4133.333496,4267.179688,450.0,1.0,15.0,,,,0.0,4.0,2.0,2.0,4.0,4.0,66.666664,,,,,,,,63.0,0.0,0.717931,0.136475,0.662354,0.16503900000000002,0.9126120000000001,-0.42090500000000003,-0.083009,-0.023438,-0.033974000000000004,-0.012823,,,,,,,,,,,,,,,,,,,,,,,,,,,,,,,,,,,0.0,0.0,1.0,0.0,512.0,0.744833,,,,,,,,,,,,,,,,,,,,,,,,,
19019,1645901501.431739,1645901501.448884,127.0,0.0,4320.512695,4384.615234000001,4211.282227000001,4186.666504,4254.358886999999,233.0,1.0,15.0,,,,0.0,4.0,2.0,2.0,4.0,4.0,66.666664,,,,,,,,,,,,,,,,,,,,,,,,,,,,,,,,,,,,,,,,,,,,,,,,,,,,,,,,,,,,,,,,,,,,,,,,,,,,,,,,,,,,
19020,1645901501.439553,1645901501.4566991,0.0,0.0,4330.769043,4440.0,4200.512695,4183.077147999999,4252.307617,450.0,1.0,15.0,,,,0.0,4.0,2.0,2.0,4.0,4.0,66.666664,,,,,,,,0.0,0.0,0.717705,0.136475,0.6625979999999999,0.16503900000000002,0.909682,-0.41455699999999995,-0.07715,-0.024413999999999998,-0.033995,-0.010711,,,,,,,,,,,,,,,,,,,,,,,,,,,,,,,,,,,,,,,,,,,,,,,,,,,,,,,,,,,,,,,,,
19021,1645901501.447367,1645901501.464513,1.0,0.0,4336.922852000001,4511.794922,4182.563965,4145.128418,4251.794922,450.0,1.0,15.0,,,,0.0,4.0,2.0,2.0,4.0,4.0,66.666664,,,,,,,,,,,,,,,,,,,,,,,,,,,,,,,,,,,,,,,,,,,,,,,,,,,,,,,,,,,,,,,,,,,,,,,,,,,,,,,,,,,,
19022,1645901501.4551811,1645901501.472328,2.0,0.0,4331.794922,4468.717772999999,4206.153809,4144.615234000001,4266.666504,16302.0,1.0,15.0,,,,0.0,4.0,2.0,2.0,4.0,4.0,66.666664,,,,,,,,1.0,0.0,0.717705,0.136475,0.6625979999999999,0.16503900000000002,0.921889,-0.415534,-0.07470800000000001,-0.025098,-0.034013,-0.008859,,,,,,,,,,,,,,,,,,,,,,,,,,,,,,,,,,,0.0,0.0,1.0,0.0,512.0,0.744833,,,,,,,,,,,,,,,,,,,,,,,,,
19023,1645901501.4629939,1645901501.480143,3.0,0.0,4334.871582,4404.102539,4209.230957,4140.512695,4280.0,450.0,1.0,15.0,,,,0.0,4.0,2.0,2.0,4.0,4.0,66.666664,,,,,,,,,,,,,,,,,,,,,,,,,,,,,,,,,,,,,,,,,,,,,,,,,,,,,,,,,,,,,,,,,,,,,,,,,,,,,,,,,,,,
19024,1645901501.470808,1645901501.487957,4.0,0.0,4351.794922,4430.769043,4189.230957,4147.692383,4274.358886999999,171.0,1.0,15.0,,,,0.0,4.0,2.0,2.0,4.0,4.0,66.666664,,,,,,,,2.0,0.0,0.717705,0.136475,0.6625979999999999,0.16503900000000002,0.9199360000000001,-0.408698,-0.081544,-0.025811,-0.033981,-0.010365000000000001,,,,,,,,,,,,,,,,,,,,,,,,,,,,,,,,,,,,,,,,,,,,,,,,,,,,,,,,,,,,,,,,,
19025,1645901501.478622,1645901501.495672,5.0,0.0,4336.922852000001,4502.05127,4221.538574,4155.897461,4242.05127,450.0,1.0,15.0,,,,0.0,4.0,2.0,1.0,4.0,4.0,58.33333199999999,,,,,,,,,,,,,,,,,,,,,,,,,,,,,,,,,,,,,,,,,,,,,,,,,,,,,,,,,,,,,,,,,,,,,,,,,,,,,,,,,,,,
19026,1645901501.486436,1645901501.5034869,6.0,0.0,4304.615234000001,4522.05127,4290.256348,4144.102539,4243.589844,134.0,1.0,15.0,,,,0.0,4.0,2.0,1.0,4.0,4.0,58.33333199999999,,,,,,,,3.0,0.0,0.7177520000000001,0.13623,0.6625979999999999,0.16503900000000002,0.917006,-0.41651000000000005,-0.078126,-0.026355,-0.034099000000000004,-0.011575,1.0,0.0,0.0,,,,,,,,,,,,,,,,,,,,,,,,,,,,,,,,0.0,0.0,1.0,0.0,512.0,0.786851,10.509145,6.055016,4.427243,2.6779509999999997,1.917303,43.497162,35.721385999999995,62.437183,18.77457,14.265521,26.059517,26.841549,14.154757,12.772867,5.471474,9.378815,6.4153,6.538679,4.17928,2.1403529999999997,13.055067,7.169150999999999,3.7990489999999997,1.944755,1.952259
19027,1645901501.494249,1645901501.511301,7.0,0.0,4295.384765999999,4450.769043,4275.897461,4136.410156,4263.589844,450.0,1.0,15.0,,,,0.0,4.0,2.0,1.0,4.0,4.0,58.33333199999999,,,,,,,,,,,,,,,,,,,,,,,,,,,,,,,,,,,,,,,,,,,,,,,,,,,,,,,,,,,,,,,,,,,,,,,,,,,,,,,,,,,,
19028,1645901501.502063,1645901501.519116,8.0,0.0,4316.922852000001,4428.717772999999,4271.794922,4124.615234000001,4252.820313,450.0,1.0,15.0,,,,0.0,4.0,2.0,1.0,4.0,4.0,58.33333199999999,,,,,,,,4.0,0.0,0.7174699999999999,0.13623,0.662842,0.16528299999999999,0.905776,-0.41113900000000003,-0.08691499999999999,-0.026893,-0.034107,-0.009587,,,,,,,,,,,,,,,,,,,,,,,,,,,,,,,,,,,,,,,,,,,,,,,,,,,,,,,,,,,,,,,,,
19029,1645901501.509877,1645901501.526931,9.0,0.0,4322.05127,4504.615234000001,4274.871582,4109.230957,4244.102539,302.0,1.0,15.0,,,,0.0,4.0,2.0,1.0,4.0,4.0,58.33333199999999,,,,,,,,,,,,,,,,,,,,,,,,,,,,,,,,,,,,,,,,,,,,,,,,,,,,,,,,,,,,,,,,,,,,,,,,,,,,,,,,,,,,
19030,1645901501.517691,1645901501.534745,10.0,0.0,4285.641113000001,4517.436035,4286.666504,4132.307617,4250.769043,450.0,1.0,15.0,,,,0.0,4.0,2.0,1.0,4.0,4.0,58.33333199999999,,,,,,,,5.0,0.0,0.7174699999999999,0.13623,0.662842,0.16528299999999999,0.9131,-0.43994799999999995,-0.076661,-0.027377999999999996,-0.034163,-0.010971999999999999,,,,,,,,,,,,,,,,,,,,,,,,,,,,,,,,,,,0.0,0.0,1.0,0.0,512.0,0.786851,,,,,,,,,,,,,,,,,,,,,,,,,
19031,1645901501.5255039,1645901501.5425599,11.0,0.0,4267.692383,4418.974121,4273.333496,4182.05127,4265.128418,16083.0,1.0,15.0,,,,0.0,4.0,2.0,1.0,4.0,4.0,58.33333199999999,,,,,,,,,,,,,,,,,,,,,,,,,,,,,,,,,,,,,,,,,,,,,,,,,,,,,,,,,,,,,,,,,,,,,,,,,,,,,,,,,,,,
19032,1645901501.533318,1645901501.550375,12.0,0.0,4296.922852000001,4354.358886999999,4255.384765999999,4176.410156,4253.333496,450.0,1.0,15.0,,,,0.0,4.0,2.0,1.0,4.0,4.0,58.33333199999999,,,,,,,,6.0,0.0,0.7174699999999999,0.13623,0.662842,0.16528299999999999,0.914565,-0.421393,-0.080568,-0.027814,-0.034165,-0.012121,,,,,,,,,,,,,,,,,,,,,,,,,,,,,,,,,,,,,,,,,,,,,,,,,,,,,,,,,,,,,,,,,
19033,1645901501.541132,1645901501.5581892,13.0,0.0,4316.922852000001,4382.05127,4237.436035,4149.230957,4245.128418,450.0,1.0,15.0,,,,0.0,4.0,2.0,1.0,4.0,4.0,58.33333199999999,,,,,,,,,,,,,,,,,,,,,,,,,,,,,,,,,,,,,,,,,,,,,,,,,,,,,,,,,,,,,,,,,,,,,,,,,,,,,,,,,,,,
19034,1645901501.5489461,1645901501.5660038,14.0,0.0,4289.743652,4455.384765999999,4265.128418,4135.897461,4234.871582,450.0,1.0,15.0,,,,0.0,4.0,2.0,1.0,4.0,4.0,58.33333199999999,,,,,,,,7.0,0.0,0.7174699999999999,0.13623,0.662842,0.16528299999999999,0.925795,-0.425788,-0.08691499999999999,-0.028206000000000002,-0.034214999999999995,-0.010079000000000001,,,,,,,,,,,,,,,,,,,,,,,,,,,,,,,,,,,0.0,0.0,1.0,0.0,512.0,0.786851,,,,,,,,,,,,,,,,,,,,,,,,,
19035,1645901501.5567589,1645901501.573719,15.0,0.0,4283.589844,4504.102539,4221.025879,4151.282227000001,4236.410156,16083.0,1.0,15.0,,,,0.0,4.0,2.0,1.0,4.0,4.0,58.33333199999999,,,,,,,,,,,,,,,,,,,,,,,,,,,,,,,,,,,,,,,,,,,,,,,,,,,,,,,,,,,,,,,,,,,,,,,,,,,,,,,,,,,,
19036,1645901501.564573,1645901501.581533,16.0,0.0,4287.179688,4430.769043,4181.538574,4184.102539,4244.615234000001,0.0,1.0,15.0,,,,0.0,4.0,2.0,1.0,4.0,4.0,58.33333199999999,,,,,,,,8.0,0.0,0.71748,0.136475,0.662842,0.16503900000000002,0.901381,-0.41944,-0.086427,-0.025435,-0.034212,-0.011415,,,,,,,,,,,,,,,,,,,,,,,,,,,,,,,,,,,,,,,,,,,,,,,,,,,,,,,,,,,,,,,,,
19037,1645901501.572387,1645901501.589348,17.0,0.0,4287.179688,4324.615234000001,4221.025879,4220.512695,4256.922852000001,0.0,1.0,15.0,,,,0.0,4.0,2.0,1.0,4.0,4.0,58.33333199999999,,,,,,,,,,,,,,,,,,,,,,,,,,,,,,,,,,,,,,,,,,,,,,,,,,,,,,,,,,,,,,,,,,,,,,,,,,,,,,,,,,,,
19038,1645901501.580201,1645901501.5971632,18.0,0.0,4288.717772999999,4325.641113000001,4210.256348,4220.512695,4243.589844,0.0,1.0,15.0,,,,0.0,4.0,2.0,1.0,4.0,4.0,58.33333199999999,,,,,,,,9.0,0.0,0.717254,0.136475,0.663086,0.16503900000000002,0.9233540000000001,-0.417975,-0.08447400000000001,-0.026016,-0.034306,-0.009541,,,,,,,,,,,,,,,,,,,,,,,,,,,,,,,,,,,0.0,0.0,1.0,0.0,512.0,0.786851,,,,,,,,,,,,,,,,,,,,,,,,,
19039,1645901501.5880141,1645901501.604977,19.0,0.0,4317.436035,4429.230957,4165.128418,4199.487305,4236.410156,0.0,1.0,15.0,,,,0.0,4.0,2.0,1.0,4.0,4.0,58.33333199999999,,,,,,,,,,,,,,,,,,,,,,,,,,,,,,,,,,,,,,,,,,,,,,,,,,,,,,,,,,,,,,,,,,,,,,,,,,,,,,,,,,,,
19040,1645901501.5958278,1645901501.612792,20.0,0.0,4327.179688,4496.922852000001,4187.179688,4173.846191,4242.563965,0.0,1.0,15.0,,,,0.0,4.0,2.0,1.0,4.0,4.0,58.33333199999999,,,,,,,,10.0,0.0,0.717198,0.136475,0.663086,0.16528299999999999,0.91017,-0.41113900000000003,-0.088869,-0.026637,-0.034294,-0.010931,,,,,,,,,,,,,,,,,,,,,,,,,,,,,,,,,,,,,,,,,,,,,,,,,,,,,,,,,,,,,,,,,
19041,1645901501.603642,1645901501.620606,21.0,0.0,4315.384765999999,4481.538574,4210.769043,4163.589844,4269.743652,0.0,1.0,15.0,,,,0.0,4.0,2.0,1.0,4.0,4.0,58.33333199999999,,,,,,,,,,,,,,,,,,,,,,,,,,,,,,,,,,,,,,,,,,,,,,,,,,,,,,,,,,,,,,,,,,,,,,,,,,,,,,,,,,,,
19042,1645901501.611455,1645901501.628421,22.0,0.0,4316.922852000001,4420.512695,4172.820313,4156.922852000001,4284.102539,0.0,1.0,15.0,,,,0.0,4.0,2.0,1.0,4.0,4.0,58.33333199999999,1.0,16.666666,2.0,0.0,0.0,4.0,4.0,11.0,0.0,0.717245,0.13623,0.663086,0.16528299999999999,0.9116350000000001,-0.416022,-0.083009,-0.027001,-0.034282,-0.012084000000000001,1.0,0.0,0.0,,,,,,,,,,,,,,,,,,,,,,,,,,,,,,,,0.0,0.0,1.0,0.0,512.0,0.602376,9.738526,6.262807,5.007465,2.782725,1.7754860000000001,41.316238,33.312855,61.43820600000001,18.319969,12.93524,24.896656,25.743584,14.786910999999998,11.600004,5.263412000000001,8.169354,5.802887,7.266972,4.612824,1.929711,13.798689999999999,9.103094,3.721539,2.039603,1.925707
19043,1645901501.619269,1645901501.636236,23.0,0.0,4328.717772999999,4424.615234000001,4230.769043,4160.512695,4259.487305,0.0,1.0,15.0,,,,0.0,4.0,2.0,1.0,4.0,4.0,58.33333199999999,,,,,,,,,,,,,,,,,,,,,,,,,,,,,,,,,,,,,,,,,,,,,,,,,,,,,,,,,,,,,,,,,,,,,,,,,,,,,,,,,,,,
19044,1645901501.627083,1645901501.643951,24.0,0.0,4334.358886999999,4471.282227000001,4274.358886999999,4149.230957,4247.179688,0.0,1.0,15.0,,,,0.0,4.0,2.0,1.0,4.0,4.0,58.33333199999999,,,,,,,,12.0,0.0,0.717245,0.13623,0.663086,0.16528299999999999,0.9160299999999999,-0.417487,-0.077638,-0.027426,-0.034223,-0.010192,,,,,,,,,,,,,,,,,,,,,,,,,,,,,,,,,,,,,,,,,,,,,,,,,,,,,,,,,,,,,,,,,
19045,1645901501.634897,1645901501.651765,25.0,0.0,4330.769043,4442.05127,4274.871582,4115.384765999999,4272.820313,0.0,1.0,15.0,,,,0.0,4.0,2.0,1.0,4.0,4.0,58.33333199999999,,,,,,,,,,,,,,,,,,,,,,,,,,,,,,,,,,,,,,,,,,,,,,,,,,,,,,,,,,,,,,,,,,,,,,,,,,,,,,,,,,,,
19046,1645901501.64271,1645901501.65958,26.0,0.0,4333.333496,4413.846191,4243.589844,4107.179688,4280.0,0.0,1.0,15.0,,,,0.0,4.0,2.0,1.0,4.0,4.0,58.33333199999999,,,,,,,,13.0,0.0,0.717188,0.13623,0.663086,0.165527,0.9184709999999999,-0.41944,-0.07324299999999999,-0.027808,-0.034317,-0.008294,,,,,,,,,,,,,,,,,,,,,,,,,,,,,,,,,,,0.0,0.0,1.0,0.0,512.0,0.602376,,,,,,,,,,,,,,,,,,,,,,,,,
19047,1645901501.6505241,1645901501.667295,27.0,0.0,4306.153809,4443.589844,4255.897461,4146.666504,4244.615234000001,0.0,1.0,15.0,,,,0.0,4.0,2.0,1.0,4.0,4.0,58.33333199999999,,,,,,,,,,,,,,,,,,,,,,,,,,,,,,,,,,,,,,,,,,,,,,,,,,,,,,,,,,,,,,,,,,,,,,,,,,,,,,,,,,,,
19048,1645901501.658338,1645901501.675109,28.0,0.0,4275.897461,4445.128418,4221.538574,4168.717772999999,4253.846191,0.0,1.0,15.0,,,,0.0,4.0,2.0,1.0,4.0,4.0,58.33333199999999,,,,,,,,14.0,0.0,0.717188,0.13623,0.663086,0.165527,0.906264,-0.410163,-0.072267,-0.02825,-0.034303,-0.009955,,,,,,,,,,,,,,,,,,,,,,,,,,,,,,,,,,,,,,,,,,,,,,,,,,,,,,,,,,,,,,,,,
19049,1645901501.666151,1645901501.682924,29.0,0.0,4279.487305,4446.666504,4187.179688,4131.794922,4268.717772999999,0.0,1.0,15.0,,,,0.0,4.0,2.0,1.0,4.0,4.0,58.33333199999999,,,,,,,,,,,,,,,,,,,,,,,,,,,,,,,,,,,,,,,,,,,,,,,,,,,,,,,,,,,,,,,,,,,,,,,,,,,,,,,,,,,,
19050,1645901501.673965,1645901501.6907382,30.0,0.0,4327.179688,4498.461426,4204.102539,4133.333496,4258.461426,0.0,1.0,15.0,,,,0.0,4.0,2.0,1.0,4.0,4.0,58.33333199999999,,,,,,,,15.0,0.0,0.717188,0.13623,0.663086,0.165527,0.914565,-0.42920600000000003,-0.08203300000000001,-0.028501,-0.034388,-0.008227,,,,,,,,,,,,,,,,,,,,,,,,,,,,,,,,,,,0.0,0.0,1.0,0.0,512.0,0.602376,,,,,,,,,,,,,,,,,,,,,,,,,
19051,1645901501.681779,1645901501.698453,31.0,0.0,4335.384765999999,4505.128418,4232.820313,4161.025879,4253.846191,0.0,1.0,15.0,,,,0.0,4.0,2.0,1.0,4.0,4.0,58.33333199999999,,,,,,,,,,,,,,,,,,,,,,,,,,,,,,,,,,,,,,,,,,,,,,,,,,,,,,,,,,,,,,,,,,,,,,,,,,,,,,,,,,,,
19052,1645901501.689593,1645901501.706268,32.0,0.0,4316.922852000001,4428.717772999999,4198.974121,4169.743652,4265.128418,0.0,1.0,15.0,,,,0.0,4.0,2.0,1.0,4.0,4.0,58.33333199999999,,,,,,,,16.0,0.0,0.7171420000000001,0.136475,0.663086,0.165527,0.925795,-0.42920600000000003,-0.07470800000000001,-0.028727,-0.03427,-0.006573999999999999,,,,,,,,,,,,,,,,,,,,,,,,,,,,,,,,,,,,,,,,,,,,,,,,,,,,,,,,,,,,,,,,,
19053,1645901501.697406,1645901501.714083,33.0,0.0,4320.0,4388.717772999999,4192.820313,4171.282227000001,4244.102539,0.0,1.0,15.0,,,,0.0,4.0,2.0,1.0,4.0,4.0,58.33333199999999,,,,,,,,,,,,,,,,,,,,,,,,,,,,,,,,,,,,,,,,,,,,,,,,,,,,,,,,,,,,,,,,,,,,,,,,,,,,,,,,,,,,
19054,1645901501.70522,1645901501.7218971,34.0,0.0,4334.871582,4396.922852000001,4230.769043,4202.563965,4229.743652,0.0,1.0,15.0,,,,0.0,4.0,2.0,1.0,4.0,4.0,58.33333199999999,,,,,,,,17.0,0.0,0.7170949999999999,0.136719,0.663086,0.165527,0.9233540000000001,-0.423346,-0.075685,-0.029175,-0.034261,-0.005233,,,,,,,,,,,,,,,,,,,,,,,,,,,,,,,,,,,0.0,0.0,1.0,0.0,512.0,0.602376,,,,,,,,,,,,,,,,,,,,,,,,,
19055,1645901501.713034,1645901501.729712,35.0,0.0,4318.974121,4365.128418,4201.538574,4204.102539,4219.487305,0.0,1.0,15.0,,,,0.0,4.0,2.0,1.0,4.0,4.0,58.33333199999999,,,,,,,,,,,,,,,,,,,,,,,,,,,,,,,,,,,,,,,,,,,,,,,,,,,,,,,,,,,,,,,,,,,,,,,,,,,,,,,,,,,,
19056,1645901501.720848,1645901501.737526,36.0,0.0,4309.743652,4344.615234000001,4194.358886999999,4181.025879,4215.897461,0.0,1.0,15.0,,,,0.0,4.0,2.0,1.0,4.0,4.0,58.33333199999999,,,,,,,,18.0,0.0,0.7170949999999999,0.136719,0.663086,0.165527,0.9131,-0.41651000000000005,-0.08203300000000001,-0.026306,-0.034204000000000005,-0.006956,,,,,,,,,,,,,,,,,,,,,,,,,,,,,,,,,,,,,,,,,,,,,,,,,,,,,,,,,,,,,,,,,
19057,1645901501.7286608,1645901501.745341,37.0,0.0,4314.871582,4393.846191,4223.077147999999,4153.333496,4234.358886999999,0.0,1.0,15.0,,,,0.0,4.0,2.0,1.0,4.0,4.0,58.33333199999999,,,,,,,,,,,,,,,,,,,,,,,,,,,,,,,,,,,,,,,,,,,,,,,,,,,,,,,,,,,,,,,,,,,,,,,,,,,,,,,,,,,,
19058,1645901501.736475,1645901501.753156,38.0,0.0,4319.487305,4476.922852000001,4206.666504,4111.794922,4258.461426,0.0,1.0,15.0,,,,0.0,4.0,2.0,1.0,4.0,4.0,58.33333199999999,,,,,,,,19.0,0.0,0.7171420000000001,0.136475,0.663086,0.165527,0.925795,-0.42920600000000003,-0.07470800000000001,-0.026801,-0.034201999999999996,-0.00543,1.0,0.0,0.0,,,,,,,,,,,,,,,,,,,,,,,,,,,,,,,,0.0,0.0,1.0,0.0,512.0,0.6521020000000001,8.907902,6.857297,5.0844059999999995,2.691011,1.589373,40.724102,28.139791,54.937241,17.516197000000002,12.363172,24.365370000000002,24.570467,15.10605,10.068612,4.970882,7.023101,5.255528,7.672219999999999,4.771349,1.7050720000000001,14.170047,11.610241,3.5553510000000004,2.0894369999999998,1.873441
19059,1645901501.7442892,1645901501.7609699,39.0,0.0,4329.743652,4516.410156,4177.436035,4101.538574,4259.487305,0.0,1.0,15.0,,,,0.0,4.0,2.0,1.0,4.0,4.0,58.33333199999999,,,,,,,,,,,,,,,,,,,,,,,,,,,,,,,,,,,,,,,,,,,,,,,,,,,,,,,,,,,,,,,,,,,,,,,,,,,,,,,,,,,,
19060,1645901501.7521029,1645901501.768785,40.0,0.0,4328.717772999999,4531.794922,4277.94873,4131.794922,4270.256348,0.0,1.0,15.0,,,,0.0,4.0,2.0,1.0,4.0,4.0,58.33333199999999,,,,,,,,20.0,0.0,0.7170949999999999,0.136719,0.663086,0.165527,0.9131,-0.41651000000000005,-0.08203300000000001,-0.02417,-0.034151,-0.007133,,,,,,,,,,,,,,,,,,,,,,,,,,,,,,,,,,,,,,,,,,,,,,,,,,,,,,,,,,,,,,,,,
19061,1645901501.759916,1645901501.7765,41.0,0.0,4314.358886999999,4529.743652,4324.102539,4123.077147999999,4285.128418,0.0,1.0,15.0,,,,0.0,4.0,2.0,1.0,4.0,4.0,58.33333199999999,,,,,,,,,,,,,,,,,,,,,,,,,,,,,,,,,,,,,,,,,,,,,,,,,,,,,,,,,,,,,,,,,,,,,,,,,,,,,,,,,,,,
19062,1645901501.76773,1645901501.7843142,42.0,0.0,4310.769043,4503.589844,4281.538574,4114.358886999999,4264.102539,0.0,1.0,15.0,,,,0.0,4.0,2.0,1.0,4.0,4.0,58.33333199999999,,,,,,,,21.0,0.0,0.7170949999999999,0.136719,0.663086,0.165527,0.9091940000000001,-0.430671,-0.07470800000000001,-0.021800999999999997,-0.034105,-0.008666,,,,,,,,,,,,,,,,,,,,,,,,,,,,,,,,,,,0.0,0.0,1.0,0.0,512.0,0.6521020000000001,,,,,,,,,,,,,,,,,,,,,,,,,
19063,1645901501.775544,1645901501.7921288,43.0,0.0,4332.820313,4477.436035,4205.128418,4153.333496,4262.563965,0.0,1.0,15.0,,,,0.0,4.0,2.0,1.0,4.0,4.0,58.33333199999999,,,,,,,,,,,,,,,,,,,,,,,,,,,,,,,,,,,,,,,,,,,,,,,,,,,,,,,,,,,,,,,,,,,,,,,,,,,,,,,,,,,,
19064,1645901501.783358,1645901501.799944,44.0,0.0,4325.128418,4432.820313,4231.794922,4157.436035,4265.128418,0.0,1.0,15.0,,,,0.0,4.0,2.0,1.0,4.0,4.0,58.33333199999999,,,,,,,,22.0,0.0,0.7170949999999999,0.136719,0.663086,0.165527,0.906752,-0.417487,-0.084962,-0.022795,-0.034015,-0.007067,,,,,,,,,,,,,,,,,,,,,,,,,,,,,,,,,,,,,,,,,,,,,,,,,,,,,,,,,,,,,,,,,
19065,1645901501.791171,1645901501.807758,45.0,0.0,4322.05127,4435.897461,4257.94873,4145.641113000001,4247.692383,0.0,1.0,15.0,,,,0.0,4.0,2.0,1.0,4.0,4.0,58.33333199999999,,,,,,,,,,,,,,,,,,,,,,,,,,,,,,,,,,,,,,,,,,,,,,,,,,,,,,,,,,,,,,,,,,,,,,,,,,,,,,,,,,,,
19066,1645901501.798985,1645901501.815573,46.0,0.0,4340.0,4430.769043,4216.410156,4176.410156,4242.05127,0.0,1.0,15.0,,,,0.0,4.0,2.0,1.0,4.0,4.0,58.33333199999999,,,,,,,,23.0,0.0,0.7171420000000001,0.136475,0.663086,0.165527,0.9155409999999999,-0.42432299999999995,-0.07470800000000001,-0.020564,-0.03408,-0.008655,,,,,,,,,,,,,,,,,,,,,,,,,,,,,,,,,,,0.0,0.0,1.0,0.0,512.0,0.6521020000000001,,,,,,,,,,,,,,,,,,,,,,,,,
19067,1645901501.806799,1645901501.823388,47.0,0.0,4368.205078,4348.717772999999,4169.230957,4218.974121,4271.282227000001,0.0,1.0,15.0,,,,0.0,4.0,2.0,1.0,4.0,4.0,58.33333199999999,,,,,,,,,,,,,,,,,,,,,,,,,,,,,,,,,,,,,,,,,,,,,,,,,,,,,,,,,,,,,,,,,,,,,,,,,,,,,,,,,,,,
19068,1645901501.814613,1645901501.831202,48.0,0.0,4357.94873,4325.128418,4197.94873,4201.025879,4276.922852000001,0.0,1.0,15.0,,,,0.0,4.0,2.0,1.0,4.0,4.0,58.33333199999999,,,,,,,,24.0,0.0,0.7171420000000001,0.136475,0.663086,0.165527,0.9091940000000001,-0.425788,-0.090822,-0.021682,-0.034041,-0.009937999999999999,,,,,,,,,,,,,,,,,,,,,,,,,,,,,,,,,,,,,,,,,,,,,,,,,,,,,,,,,,,,,,,,,
19069,1645901501.822426,1645901501.839017,49.0,0.0,4349.230957,4392.307617,4192.820313,4173.846191,4288.205078,0.0,1.0,15.0,,,,0.0,4.0,2.0,1.0,4.0,4.0,58.33333199999999,,,,,,,,,,,,,,,,,,,,,,,,,,,,,,,,,,,,,,,,,,,,,,,,,,,,,,,,,,,,,,,,,,,,,,,,,,,,,,,,,,,,
19070,1645901501.83024,1645901501.846832,50.0,0.0,4352.820313,4413.846191,4161.025879,4155.384765999999,4293.846191,0.0,1.0,15.0,,,,0.0,4.0,2.0,1.0,4.0,4.0,58.33333199999999,,,,,,,,25.0,0.0,0.7171420000000001,0.136475,0.663086,0.165527,0.925307,-0.424811,-0.083497,-0.022688,-0.034055,-0.011434999999999999,,,,,,,,,,,,,,,,,,,,,,,,,,,,,,,,,,,0.0,0.0,1.0,0.0,512.0,0.6521020000000001,,,,,,,,,,,,,,,,,,,,,,,,,
19071,1645901501.838054,1645901501.854546,51.0,0.0,4357.94873,4382.563965,4213.846191,4174.871582,4279.487305,0.0,1.0,15.0,,,,0.0,4.0,2.0,1.0,4.0,4.0,58.33333199999999,,,,,,,,,,,,,,,,,,,,,,,,,,,,,,,,,,,,,,,,,,,,,,,,,,,,,,,,,,,,,,,,,,,,,,,,,,,,,,,,,,,,
19072,1645901501.845867,1645901501.862361,52.0,0.0,4350.769043,4359.487305,4252.307617,4189.230957,4262.563965,0.0,1.0,15.0,,,,0.0,4.0,2.0,1.0,4.0,4.0,58.33333199999999,,,,,,,,26.0,0.0,0.716916,0.136475,0.66333,0.165527,0.8969860000000001,-0.417975,-0.085451,-0.023544,-0.034068,-0.012684,,,,,,,,,,,,,,,,,,,,,,,,,,,,,,,,,,,,,,,,,,,,,,,,,,,,,,,,,,,,,,,,,
19073,1645901501.853681,1645901501.870176,53.0,0.0,4346.666504,4350.256348,4243.589844,4153.846191,4277.94873,0.0,1.0,15.0,,,,0.0,4.0,2.0,1.0,4.0,4.0,58.33333199999999,,,,,,,,,,,,,,,,,,,,,,,,,,,,,,,,,,,,,,,,,,,,,,,,,,,,,,,,,,,,,,,,,,,,,,,,,,,,,,,,,,,,
19074,1645901501.861495,1645901501.87799,54.0,0.0,4345.128418,4409.230957,4222.05127,4119.487305,4283.589844,0.0,1.0,15.0,,,,0.0,4.0,2.0,1.0,4.0,4.0,58.33333199999999,,,,,,,,27.0,0.0,0.7170949999999999,0.136719,0.663086,0.165527,0.917983,-0.423346,-0.08105599999999999,-0.021238,-0.034079000000000005,-0.013759,1.0,0.0,0.0,,,,,,,,,,,,,,,,,,,,,,,,,,,,,,,,0.0,0.0,1.0,0.0,512.0,0.784028,8.302050999999999,7.521261,4.66412,2.420223,1.401942,39.727818,21.758211,44.117123,16.363592,12.38448,24.756559,23.912214000000002,14.887127,8.523253,4.670488,6.469253,5.1514690000000005,7.642765,4.737874,1.525816,14.124439,14.05901,3.296994,2.059884,1.8020630000000002
19075,1645901501.869309,1645901501.8858051,55.0,0.0,4334.871582,4464.102539,4228.717772999999,4141.538574,4277.436035,0.0,1.0,15.0,,,,0.0,4.0,2.0,1.0,4.0,4.0,58.33333199999999,,,,,,,,,,,,,,,,,,,,,,,,,,,,,,,,,,,,,,,,,,,,,,,,,,,,,,,,,,,,,,,,,,,,,,,,,,,,,,,,,,,,
19076,1645901501.8771222,1645901501.89362,56.0,0.0,4365.128418,4404.615234000001,4202.563965,4162.563965,4308.717772999999,0.0,1.0,15.0,,,,0.0,4.0,2.0,1.0,4.0,4.0,58.33333199999999,,,,,,,,28.0,0.0,0.717039,0.136719,0.663086,0.165771,0.908217,-0.413092,-0.07715,-0.022337,-0.034089,-0.011553,,,,,,,,,,,,,,,,,,,,,,,,,,,,,,,,,,,,,,,,,,,,,,,,,,,,,,,,,,,,,,,,,
19077,1645901501.8849359,1645901501.901434,57.0,0.0,4474.871582,4396.410156,4240.512695,4141.025879,4346.666504,0.0,1.0,15.0,,,,0.0,4.0,2.0,1.0,4.0,4.0,58.33333199999999,,,,,,,,,,,,,,,,,,,,,,,,,,,,,,,,,,,,,,,,,,,,,,,,,,,,,,,,,,,,,,,,,,,,,,,,,,,,,,,,,,,,
19078,1645901501.89275,1645901501.909249,58.0,0.0,4630.769043,4459.487305,4273.846191,4121.538574,4406.153809,0.0,1.0,15.0,,,,0.0,4.0,2.0,1.0,4.0,4.0,58.33333199999999,,,,,,,,29.0,0.0,0.716992,0.136963,0.663086,0.165771,0.89015,-0.421393,-0.088869,-0.023229,-0.034049,-0.012693000000000001,,,,,,,,,,,,,,,,,,,,,,,,,,,,,,,,,,,0.0,0.0,1.0,0.0,512.0,0.784028,,,,,,,,,,,,,,,,,,,,,,,,,
19079,1645901501.900564,1645901501.916964,59.0,0.0,4745.128418,4457.436035,4293.846191,4138.974121,4495.384765999999,0.0,1.0,15.0,,,,0.0,4.0,2.0,1.0,4.0,4.0,58.33333199999999,,,,,,,,,,,,,,,,,,,,,,,,,,,,,,,,,,,,,,,,,,,,,,,,,,,,,,,,,,,,,,,,,,,,,,,,,,,,,,,,,,,,
19080,1645901501.908377,1645901501.924778,60.0,0.0,4811.794922,4400.512695,4258.461426,4172.307617,4584.102539,0.0,1.0,15.0,,,,0.0,4.0,2.0,1.0,4.0,4.0,58.33333199999999,,,,,,,,30.0,0.0,0.716766,0.136963,0.66333,0.165771,0.9160299999999999,-0.41895200000000005,-0.073732,-0.02408,-0.034111,-0.010593,,,,,,,,,,,,,,,,,,,,,,,,,,,,,,,,,,,,,,,,,,,,,,,,,,,,,,,,,,,,,,,,,
19081,1645901501.916191,1645901501.9325929,61.0,0.0,4864.102539,4448.205078,4251.794922,4173.333496,4603.077147999999,0.0,1.0,15.0,,,,0.0,4.0,2.0,1.0,4.0,4.0,58.33333199999999,,,,,,,,,,,,,,,,,,,,,,,,,,,,,,,,,,,,,,,,,,,,,,,,,,,,,,,,,,,,,,,,,,,,,,,,,,,,,,,,,,,,
19082,1645901501.924005,1645901501.940408,62.0,0.0,4944.615234000001,4574.871582,4249.743652,4162.563965,4618.461426,0.0,1.0,15.0,,,,0.0,4.0,2.0,1.0,4.0,4.0,58.33333199999999,,,,,,,,31.0,0.0,0.716766,0.136963,0.66333,0.165771,0.9194479999999999,-0.422858,-0.09131,-0.024845,-0.034118,-0.008753,,,,,,,,,,,,,,,,,,,,,,,,,,,,,,,,,,,0.0,0.0,1.0,0.0,512.0,0.784028,,,,,,,,,,,,,,,,,,,,,,,,,
19083,1645901501.931818,1645901501.9482222,63.0,0.0,4974.871582,4553.846191,4231.282227000001,4168.205078,4669.743652,0.0,1.0,15.0,,,,0.0,4.0,2.0,1.0,4.0,4.0,58.33333199999999,,,,,,,,,,,,,,,,,,,,,,,,,,,,,,,,,,,,,,,,,,,,,,,,,,,,,,,,,,,,,,,,,,,,,,,,,,,,,,,,,,,,
19084,1645901501.939632,1645901501.9560368,64.0,0.0,4970.256348,4465.641113000001,4207.179688,4193.846191,4716.410156,450.0,1.0,15.0,,,,0.0,4.0,2.0,1.0,4.0,4.0,58.33333199999999,,,,,,,,32.0,0.0,0.716766,0.136963,0.66333,0.165771,0.9160299999999999,-0.41944,-0.078126,-0.025584,-0.034124,-0.010173,,,,,,,,,,,,,,,,,,,,,,,,,,,,,,,,,,,,,,,,,,,,,,,,,,,,,,,,,,,,,,,,,
19085,1645901501.947446,1645901501.963852,65.0,0.0,4987.179688,4444.102539,4200.0,4202.563965,4716.410156,450.0,1.0,15.0,,,,0.0,4.0,2.0,1.0,4.0,4.0,58.33333199999999,,,,,,,,,,,,,,,,,,,,,,,,,,,,,,,,,,,,,,,,,,,,,,,,,,,,,,,,,,,,,,,,,,,,,,,,,,,,,,,,,,,,
19086,1645901501.95526,1645901501.971666,66.0,0.0,5014.358886999999,4453.846191,4175.384765999999,4209.230957,4717.94873,16202.0,1.0,15.0,,,,0.0,4.0,2.0,1.0,4.0,4.0,58.33333199999999,,,,,,,,33.0,0.0,0.716823,0.136963,0.66333,0.165527,0.8999159999999999,-0.42627600000000004,-0.080079,-0.026199,-0.034227999999999995,-0.011597,,,,,,,,,,,,,,,,,,,,,,,,,,,,,,,,,,,0.0,0.0,1.0,0.0,512.0,0.784028,,,,,,,,,,,,,,,,,,,,,,,,,
19087,1645901501.963073,1645901501.979481,67.0,0.0,5012.820313,4411.794922,4180.512695,4199.487305,4718.974121,450.0,1.0,15.0,,,,0.0,4.0,2.0,1.0,4.0,4.0,58.33333199999999,,,,,,,,,,,,,,,,,,,,,,,,,,,,,,,,,,,,,,,,,,,,,,,,,,,,,,,,,,,,,,,,,,,,,,,,,,,,,,,,,,,,
19088,1645901501.970887,1645901501.987295,68.0,0.0,5017.94873,4388.717772999999,4244.102539,4198.461426,4717.436035,179.0,1.0,15.0,,,,0.0,4.0,2.0,1.0,4.0,4.0,58.33333199999999,,,,,,,,34.0,0.0,0.7170489999999999,0.136963,0.663086,0.165527,0.9043110000000001,-0.425788,-0.087404,-0.026655,-0.034272000000000004,-0.009705,,,,,,,,,,,,,,,,,,,,,,,,,,,,,,,,,,,,,,,,,,,,,,,,,,,,,,,,,,,,,,,,,
19089,1645901501.9787009,1645901501.99501,69.0,0.0,5010.256348,4439.487305,4244.615234000001,4201.025879,4710.256348,450.0,1.0,15.0,,,,0.0,4.0,2.0,0.0,4.0,4.0,50.0,,,,,,,,,,,,,,,,,,,,,,,,,,,,,,,,,,,,,,,,,,,,,,,,,,,,,,,,,,,,,,,,,,,,,,,,,,,,,,,,,,,,
19090,1645901501.986515,1645901502.002825,70.0,0.0,4952.820313,4462.563965,4243.077147999999,4195.384765999999,4678.461426,44.0,1.0,15.0,,,,0.0,4.0,2.0,0.0,4.0,4.0,50.0,,,,,,,,35.0,0.0,0.7170949999999999,0.136719,0.663086,0.165527,0.917494,-0.413092,-0.084962,-0.027213,-0.034263,-0.011029,1.0,0.0,0.0,,,,,,,,,,,,,,,,,,,,,,,,,,,,,,,,0.0,0.0,1.0,0.0,512.0,0.377546,8.435198,8.038975,3.958535,2.06997,1.261142,37.763737,16.45192,32.189133,15.09971,12.958155999999999,26.329386,24.292735999999998,13.983592000000002,7.148045,4.473942,6.904028,5.867825,7.260797,4.713758,1.435777,13.822626999999999,15.704373,3.061543,1.939904,1.720893
19091,1645901501.994328,1645901502.010639,71.0,0.0,4892.820313,4464.102539,4265.641113000001,4183.589844,4617.94873,450.0,1.0,15.0,,,,0.0,4.0,2.0,0.0,4.0,4.0,50.0,,,,,,,,,,,,,,,,,,,,,,,,,,,,,,,,,,,,,,,,,,,,,,,,,,,,,,,,,,,,,,,,,,,,,,,,,,,,,,,,,,,,
19092,1645901502.002142,1645901502.0184538,72.0,0.0,4834.871582,4464.615234000001,4295.384765999999,4187.692383,4591.282227000001,450.0,1.0,15.0,,,,0.0,4.0,2.0,0.0,4.0,4.0,50.0,,,,,,,,36.0,0.0,0.717152,0.136719,0.663086,0.16528299999999999,0.921889,-0.40283800000000003,-0.086427,-0.027616,-0.034205,-0.012319,,,,,,,,,,,,,,,,,,,,,,,,,,,,,,,,,,,,,,,,,,,,,,,,,,,,,,,,,,,,,,,,,
19093,1645901502.0099561,1645901502.026269,73.0,0.0,4775.384765999999,4415.897461,4244.102539,4183.589844,4591.794922,16080.0,1.0,15.0,,,,0.0,4.0,2.0,0.0,4.0,4.0,50.0,,,,,,,,,,,,,,,,,,,,,,,,,,,,,,,,,,,,,,,,,,,,,,,,,,,,,,,,,,,,,,,,,,,,,,,,,,,,,,,,,,,,
19094,1645901502.0177689,1645901502.034083,74.0,0.0,4746.666504,4381.025879,4214.358886999999,4149.230957,4549.230957,450.0,1.0,15.0,,,,0.0,4.0,2.0,0.0,4.0,4.0,50.0,,,,,,,,37.0,0.0,0.717105,0.136963,0.663086,0.16528299999999999,0.9267719999999999,-0.41651000000000005,-0.08691499999999999,-0.024904,-0.034154000000000004,-0.01348,,,,,,,,,,,,,,,,,,,,,,,,,,,,,,,,,,,0.0,0.0,1.0,0.0,512.0,0.377546,,,,,,,,,,,,,,,,,,,,,,,,,
19095,1645901502.025583,1645901502.041898,75.0,0.0,4700.0,4443.077147999999,4204.615234000001,4126.666504,4501.538574,16190.0,1.0,15.0,,,,0.0,4.0,2.0,0.0,4.0,4.0,50.0,,,,,,,,,,,,,,,,,,,,,,,,,,,,,,,,,,,,,,,,,,,,,,,,,,,,,,,,,,,,,,,,,,,,,,,,,,,,,,,,,,,,
19096,1645901502.033397,1645901502.0497131,76.0,0.0,4621.025879,4462.05127,4228.205078,4134.871582,4456.410156,450.0,1.0,15.0,,,,0.0,4.0,2.0,0.0,4.0,4.0,50.0,,,,,,,,38.0,0.0,0.717105,0.136963,0.663086,0.16528299999999999,0.9052870000000001,-0.433112,-0.080079,-0.025537999999999998,-0.034157,-0.014475,,,,,,,,,,,,,,,,,,,,,,,,,,,,,,,,,,,,,,,,,,,,,,,,,,,,,,,,,,,,,,,,,
19097,1645901502.041211,1645901502.057527,77.0,0.0,4585.641113000001,4347.692383,4240.512695,4185.128418,4403.589844,450.0,1.0,15.0,,,,0.0,4.0,2.0,0.0,4.0,4.0,50.0,,,,,,,,,,,,,,,,,,,,,,,,,,,,,,,,,,,,,,,,,,,,,,,,,,,,,,,,,,,,,,,,,,,,,,,,,,,,,,,,,,,,
19098,1645901502.049024,1645901502.065342,78.0,0.0,4542.563965,4289.230957,4248.717772999999,4216.922852000001,4359.487305,450.0,1.0,15.0,,,,0.0,4.0,2.0,0.0,4.0,4.0,50.0,,,,,,,,39.0,0.0,0.717105,0.136963,0.663086,0.16528299999999999,0.9052870000000001,-0.428717,-0.07910299999999999,-0.026108999999999997,-0.03411,-0.01542,,,,,,,,,,,,,,,,,,,,,,,,,,,,,,,,,,,10.0,0.0,1.0,0.0,512.0,0.377546,,,,,,,,,,,,,,,,,,,,,,,,,
19099,1645901502.056838,1645901502.073057,79.0,0.0,4472.820313,4350.769043,4198.461426,4189.743652,4357.436035,16190.0,1.0,15.0,,,,0.0,4.0,2.0,0.0,4.0,4.0,50.0,,,,,,,,,,,,,,,,,,,,,,,,,,,,,,,,,,,,,,,,,,,,,,,,,,,,,,,,,,,,,,,,,,,,,,,,,,,,,,,,,,,,
19100,1645901502.064652,1645901502.0807712,80.0,0.0,4410.769043,4364.615234000001,4187.179688,4146.153809,4347.692383,450.0,1.0,15.0,,,,0.0,4.0,2.0,0.0,4.0,4.0,50.0,,,,,,,,40.0,0.0,0.7171609999999999,0.136963,0.663086,0.16503900000000002,0.921889,-0.413092,-0.080079,-0.023547,-0.034166,-0.016222,,,,,,,,,,,,,,,,,,,,,,,,,,,,,,,,,,,,,,,,,,,,,,,,,,,,,,,,,,,,,,,,,
19101,1645901502.072466,1645901502.0885859,81.0,0.0,4389.230957,4317.436035,4248.205078,4165.128418,4336.922852000001,450.0,1.0,15.0,,,,0.0,4.0,2.0,0.0,4.0,4.0,50.0,,,,,,,,,,,,,,,,,,,,,,,,,,,,,,,,,,,,,,,,,,,,,,,,,,,,,,,,,,,,,,,,,,,,,,,,,,,,,,,,,,,,
19102,1645901502.0802789,1645901502.096401,82.0,0.0,4348.717772999999,4303.589844,4241.025879,4161.025879,4308.205078,450.0,1.0,15.0,,,,0.0,4.0,2.0,0.0,4.0,4.0,50.0,,,,,,,,41.0,0.0,0.7171609999999999,0.136963,0.663086,0.16503900000000002,0.909682,-0.409674,-0.08105599999999999,-0.024318,-0.034167,-0.013672,,,,,,,,,,,,,,,,,,,,,,,,,,,,,,,,,,,10.0,0.0,1.0,0.0,512.0,0.377546,,,,,,,,,,,,,,,,,,,,,,,,,
19103,1645901502.088093,1645901502.1042151,83.0,0.0,4309.230957,4322.05127,4197.94873,4132.307617,4261.025879,16190.0,1.0,15.0,,,,0.0,4.0,2.0,0.0,4.0,4.0,50.0,,,,,,,,,,,,,,,,,,,,,,,,,,,,,,,,,,,,,,,,,,,,,,,,,,,,,,,,,,,,,,,,,,,,,,,,,,,,,,,,,,,,
19104,1645901502.095907,1645901502.11203,84.0,0.0,4274.358886999999,4241.538574,4207.692383,4144.102539,4224.102539,450.0,1.0,15.0,,,,0.0,4.0,2.0,0.0,4.0,4.0,50.0,,,,,,,,42.0,0.0,0.717208,0.136719,0.663086,0.16503900000000002,0.916518,-0.427741,-0.070314,-0.021984,-0.034169,-0.014698,,,,,,,,,,,,,,,,,,,,,,,,,,,,,,,,,,,,,,,,,,,,,,,,,,,,,,,,,,,,,,,,,
19105,1645901502.1037211,1645901502.119845,85.0,0.0,4247.692383,4152.307617,4220.512695,4174.871582,4224.615234000001,450.0,1.0,15.0,,,,0.0,4.0,2.0,0.0,4.0,4.0,50.0,,,,,,,,,,,,,,,,,,,,,,,,,,,,,,,,,,,,,,,,,,,,,,,,,,,,,,,,,,,,,,,,,,,,,,,,,,,,,,,,,,,,
19106,1645901502.1115339,1645901502.127659,86.0,0.0,4229.743652,4158.461426,4182.563965,4162.563965,4211.794922,450.0,1.0,15.0,,,,0.0,4.0,2.0,0.0,4.0,4.0,50.0,1.0,16.666666,2.0,0.0,0.0,3.0,3.0,43.0,0.0,0.7171609999999999,0.136963,0.663086,0.16503900000000002,0.921889,-0.413092,-0.080079,-0.019834,-0.034219,-0.015571999999999999,1.0,0.0,0.0,,,,,,,,,,,,,,,,,,,,,,,,,,,,,,,,10.0,0.0,64.0,0.720101,1.0,0.0,12.656504,8.887589,3.349036,1.799441,1.20381,35.652721,14.250722,22.913861999999998,14.095393,13.988658,29.041973,25.802319,12.580110000000001,6.019596,4.481148999999999,8.446889,7.726847,6.728958,4.87704,1.453183,14.433216,16.261286,3.067396,1.766447,1.6426009999999998
19107,1645901502.119348,1645901502.135474,87.0,0.0,4215.384765999999,4104.615234000001,4228.205078,4147.179688,4180.0,16190.0,1.0,15.0,,,,0.0,4.0,2.0,0.0,4.0,4.0,50.0,,,,,,,,,,,,,,,,,,,,,,,,,,,,,,,,,,,,,,,,,,,,,,,,,,,,,,,,,,,,,,,,,,,,,,,,,,,,,,,,,,,,
19108,1645901502.127162,1645901502.143289,88.0,0.0,4206.666504,3970.256348,4246.666504,4160.512695,4168.205078,450.0,1.0,15.0,,,,0.0,4.0,2.0,0.0,4.0,4.0,50.0,,,,,,,,44.0,0.0,0.7170850000000001,0.136475,0.66333,0.164795,0.903334,-0.41113900000000003,-0.084962,-0.021025,-0.034312999999999996,-0.013136000000000002,,,,,,,,,,,,,,,,,,,,,,,,,,,,,,,,,,,,,,,,,,,,,,,,,,,,,,,,,,,,,,,,,
19109,1645901502.134976,1645901502.151003,89.0,0.0,4188.717772999999,3975.897461,4265.128418,4159.487305,4177.436035,450.0,1.0,15.0,,,,0.0,4.0,2.0,0.0,4.0,4.0,50.0,,,,,,,,,,,,,,,,,,,,,,,,,,,,,,,,,,,,,,,,,,,,,,,,,,,,,,,,,,,,,,,,,,,,,,,,,,,,,,,,,,,,
19110,1645901502.1427891,1645901502.158818,90.0,0.0,4171.794922,4031.281982,4278.974121,4156.922852000001,4188.717772999999,450.0,1.0,15.0,,,,0.0,4.0,2.0,0.0,4.0,4.0,50.0,,,,,,,,45.0,0.0,0.7170850000000001,0.136475,0.66333,0.164795,0.908217,-0.42090500000000003,-0.08105599999999999,-0.022096,-0.03425,-0.014117,,,,,,,,,,,,,,,,,,,,,,,,,,,,,,,,,,,10.0,0.0,64.0,0.720101,1.0,0.0,,,,,,,,,,,,,,,,,,,,,,,,,
19111,1645901502.1506028,1645901502.166633,91.0,0.0,4196.410156,3979.487061,4263.589844,4167.692383,4190.769043,16190.0,1.0,15.0,,,,0.0,4.0,2.0,0.0,4.0,4.0,50.0,,,,,,,,,,,,,,,,,,,,,,,,,,,,,,,,,,,,,,,,,,,,,,,,,,,,,,,,,,,,,,,,,,,,,,,,,,,,,,,,,,,,
19112,1645901502.158417,1645901502.174447,92.0,0.0,4247.179688,3962.0512700000004,4227.692383,4181.538574,4209.230957,450.0,1.0,15.0,,,,0.0,4.0,2.0,0.0,4.0,4.0,50.0,,,,,,,,46.0,0.0,0.716982,0.136719,0.66333,0.16503900000000002,0.91017,-0.415045,-0.089357,-0.023109,-0.034292,-0.015097999999999999,,,,,,,,,,,,,,,,,,,,,,,,,,,,,,,,,,,,,,,,,,,,,,,,,,,,,,,,,,,,,,,,,
19113,1645901502.1662312,1645901502.182262,93.0,0.0,4258.461426,4047.179443,4243.077147999999,4176.922852000001,4244.615234000001,450.0,1.0,15.0,,,,0.0,4.0,2.0,0.0,4.0,4.0,50.0,,,,,,,,,,,,,,,,,,,,,,,,,,,,,,,,,,,,,,,,,,,,,,,,,,,,,,,,,,,,,,,,,,,,,,,,,,,,,,,,,,,,
19114,1645901502.174044,1645901502.190077,94.0,0.0,4343.077147999999,4066.1538090000004,4209.230957,4188.205078,4311.282227000001,450.0,1.0,15.0,,,,0.0,4.0,2.0,0.0,4.0,4.0,50.0,,,,,,,,47.0,0.0,0.716982,0.136719,0.66333,0.16503900000000002,0.9155409999999999,-0.41113900000000003,-0.089357,-0.024021,-0.034281,-0.015981,,,,,,,,,,,,,,,,,,,,,,,,,,,,,,,,,,,10.0,0.0,64.0,0.720101,1.0,0.0,,,,,,,,,,,,,,,,,,,,,,,,,
19115,1645901502.181858,1645901502.197891,95.0,0.0,4534.871582,3983.5898439999996,4181.025879,4213.333496,4394.358886999999,16190.0,1.0,15.0,,,,0.0,4.0,2.0,0.0,4.0,4.0,50.0,,,,,,,,,,,,,,,,,,,,,,,,,,,,,,,,,,,,,,,,,,,,,,,,,,,,,,,,,,,,,,,,,,,,,,,,,,,,,,,,,,,,
19116,1645901502.189672,1645901502.205806,96.0,0.0,4701.538574,3975.384521,4223.077147999999,4212.820313,4515.384765999999,450.0,1.0,15.0,,,,0.0,4.0,2.0,0.0,4.0,4.0,50.0,,,,,,,,48.0,0.0,0.716879,0.136963,0.66333,0.16528299999999999,0.9194479999999999,-0.420417,-0.081544,-0.02489,-0.034319999999999996,-0.016775,,,,,,,,,,,,,,,,,,,,,,,,,,,,,,,,,,,,,,,,,,,,,,,,,,,,,,,,,,,,,,,,,
19117,1645901502.197485,1645901502.21362,97.0,0.0,4728.717772999999,4127.179688,4236.410156,4173.333496,4566.153809,450.0,1.0,15.0,,,,0.0,4.0,2.0,0.0,4.0,4.0,50.0,,,,,,,,,,,,,,,,,,,,,,,,,,,,,,,,,,,,,,,,,,,,,,,,,,,,,,,,,,,,,,,,,,,,,,,,,,,,,,,,,,,,
19118,1645901502.2052991,1645901502.221435,98.0,0.0,4736.922852000001,4274.871582,4197.94873,4160.512695,4540.0,450.0,1.0,15.0,,,,0.0,4.0,2.0,0.0,4.0,4.0,50.0,,,,,,,,49.0,0.0,0.716776,0.137207,0.66333,0.165527,0.9160299999999999,-0.412116,-0.071778,-0.025624,-0.034355000000000004,-0.017344,,,,,,,,,,,,,,,,,,,,,,,,,,,,,,,,,,,0.0,0.0,64.0,0.720101,1.0,0.0,,,,,,,,,,,,,,,,,,,,,,,,,
19119,1645901502.213113,1645901502.22925,99.0,0.0,4798.461426,4304.615234000001,4193.333496,4170.769043,4555.384765999999,16190.0,1.0,15.0,,,,0.0,4.0,2.0,0.0,4.0,4.0,50.0,,,,,,,,,,,,,,,,,,,,,,,,,,,,,,,,,,,,,,,,,,,,,,,,,,,,,,,,,,,,,,,,,,,,,,,,,,,,,,,,,,,,
19120,1645901502.220927,1645901502.2370641,100.0,0.0,4856.410156,4377.94873,4198.974121,4185.641113000001,4630.769043,450.0,1.0,15.0,,,,0.0,4.0,2.0,0.0,4.0,4.0,50.0,,,,,,,,50.0,0.0,0.716776,0.137207,0.66333,0.165527,0.917494,-0.427741,-0.072267,-0.026333,-0.034386,-0.014877000000000001,,,,,,,,,,,,,,,,,,,,,,,,,,,,,,,,,,,,,,,,,,,,,,,,,,,,,,,,,,,,,,,,,
19121,1645901502.22874,1645901502.244879,101.0,0.0,4883.077147999999,4523.077147999999,4183.589844,4200.512695,4647.692383,450.0,1.0,15.0,,,,0.0,4.0,2.0,0.0,4.0,4.0,50.0,,,,,,,,,,,,,,,,,,,,,,,,,,,,,,,,,,,,,,,,,,,,,,,,,,,,,,,,,,,,,,,,,,,,,,,,,,,,,,,,,,,,
19122,1645901502.236554,1645901502.252694,102.0,0.0,4894.871582,4563.589844,4207.692383,4213.846191,4625.641113000001,450.0,1.0,15.0,,,,0.0,4.0,2.0,0.0,4.0,4.0,50.0,,,,,,,,51.0,0.0,0.716776,0.137207,0.66333,0.165527,0.8969860000000001,-0.41895200000000005,-0.085939,-0.026825,-0.034365,-0.015782,1.0,0.0,0.0,,,,,,,,,,,,,,,,,,,,,,,,,,,,,,,,0.0,0.0,64.0,0.460346,1.0,0.0,32.261143,10.971751,3.4518800000000005,1.762109,1.244269,35.531433,16.113654999999998,18.955238,13.768151000000001,15.239614999999999,32.385086,28.084518,11.249605,5.163104,4.704864,10.939089,10.710295,6.1862330000000005,5.2355849999999995,1.569988,20.748791,15.673129999999999,3.496428,1.597766,1.5787309999999999
19123,1645901502.244368,1645901502.260508,103.0,0.0,4922.563965,4472.820313,4213.846191,4183.589844,4643.077147999999,16190.0,1.0,15.0,,,,0.0,4.0,2.0,0.0,4.0,4.0,50.0,,,,,,,,,,,,,,,,,,,,,,,,,,,,,,,,,,,,,,,,,,,,,,,,,,,,,,,,,,,,,,,,,,,,,,,,,,,,,,,,,,,,
19124,1645901502.252181,1645901502.268323,104.0,0.0,4933.333496,4411.282227000001,4229.743652,4170.769043,4665.128418,450.0,1.0,15.0,,,,0.0,4.0,2.0,0.0,4.0,4.0,50.0,,,,,,,,52.0,0.0,0.716776,0.137207,0.66333,0.165527,0.9077290000000001,-0.417487,-0.079591,-0.027267000000000003,-0.034298,-0.016596,,,,,,,,,,,,,,,,,,,,,,,,,,,,,,,,,,,,,,,,,,,,,,,,,,,,,,,,,,,,,,,,,
19125,1645901502.259995,1645901502.276138,105.0,0.0,4934.358886999999,4398.461426,4228.717772999999,4195.384765999999,4684.102539,450.0,1.0,15.0,,,,0.0,4.0,2.0,0.0,4.0,4.0,50.0,,,,,,,,,,,,,,,,,,,,,,,,,,,,,,,,,,,,,,,,,,,,,,,,,,,,,,,,,,,,,,,,,,,,,,,,,,,,,,,,,,,,
19126,1645901502.267809,1645901502.284052,106.0,0.0,4947.692383,4373.333496,4233.846191,4194.871582,4676.922852000001,450.0,1.0,15.0,,,,0.0,4.0,2.0,0.0,4.0,4.0,50.0,,,,,,,,53.0,0.0,0.716823,0.136963,0.66333,0.165527,0.914565,-0.4336,-0.085939,-0.027666000000000003,-0.034335000000000004,-0.014107,,,,,,,,,,,,,,,,,,,,,,,,,,,,,,,,,,,0.0,0.0,64.0,0.460346,1.0,0.0,,,,,,,,,,,,,,,,,,,,,,,,,
19127,1645901502.275623,1645901502.291867,107.0,0.0,4957.436035,4375.897461,4211.794922,4173.333496,4645.128418,16190.0,1.0,15.0,,,,0.0,4.0,2.0,0.0,4.0,4.0,50.0,,,,,,,,,,,,,,,,,,,,,,,,,,,,,,,,,,,,,,,,,,,,,,,,,,,,,,,,,,,,,,,,,,,,,,,,,,,,,,,,,,,,
19128,1645901502.2834358,1645901502.299681,108.0,0.0,4917.94873,4456.410156,4229.743652,4162.05127,4607.179688,450.0,1.0,15.0,,,,0.0,4.0,2.0,0.0,4.0,4.0,50.0,,,,,,,,54.0,0.0,0.716879,0.136963,0.66333,0.16528299999999999,0.8999159999999999,-0.43799499999999997,-0.07715,-0.027975,-0.034270999999999996,-0.011915,,,,,,,,,,,,,,,,,,,,,,,,,,,,,,,,,,,,,,,,,,,,,,,,,,,,,,,,,,,,,,,,,
19129,1645901502.29125,1645901502.307496,109.0,0.0,4866.153809,4585.641113000001,4201.025879,4176.410156,4571.282227000001,450.0,1.0,15.0,,,,0.0,4.0,2.0,0.0,4.0,4.0,50.0,,,,,,,,,,,,,,,,,,,,,,,,,,,,,,,,,,,,,,,,,,,,,,,,,,,,,,,,,,,,,,,,,,,,,,,,,,,,,,,,,,,,
19130,1645901502.2990642,1645901502.315311,110.0,0.0,4820.512695,4646.666504,4196.922852000001,4168.717772999999,4539.487305,450.0,1.0,15.0,,,,0.0,4.0,2.0,0.0,4.0,4.0,50.0,,,,,,,,55.0,0.0,0.716879,0.136963,0.66333,0.16528299999999999,0.914565,-0.44434300000000004,-0.087892,-0.028303,-0.034262,-0.009893,,,,,,,,,,,,,,,,,,,,,,,,,,,,,,,,,,,0.0,0.0,64.0,0.460346,1.0,0.0,,,,,,,,,,,,,,,,,,,,,,,,,
19131,1645901502.3068779,1645901502.323125,111.0,0.0,4745.128418,4606.153809,4238.974121,4173.333496,4529.230957,16190.0,1.0,15.0,,,,0.0,4.0,2.0,0.0,4.0,4.0,50.0,,,,,,,,,,,,,,,,,,,,,,,,,,,,,,,,,,,,,,,,,,,,,,,,,,,,,,,,,,,,,,,,,,,,,,,,,,,,,,,,,,,,
19132,1645901502.314691,1645901502.33094,112.0,0.0,4636.410156,4523.589844,4274.871582,4201.538574,4468.205078,450.0,1.0,15.0,,,,0.0,4.0,2.0,0.0,4.0,4.0,50.0,,,,,,,,56.0,0.0,0.716935,0.136963,0.66333,0.16503900000000002,0.906752,-0.425788,-0.09668099999999999,-0.028549,-0.034205,-0.011198999999999999,,,,,,,,,,,,,,,,,,,,,,,,,,,,,,,,,,,,,,,,,,,,,,,,,,,,,,,,,,,,,,,,,
19133,1645901502.322505,1645901502.3387551,113.0,0.0,4597.94873,4562.563965,4228.205078,4197.94873,4402.05127,450.0,1.0,15.0,,,,0.0,4.0,2.0,0.0,4.0,4.0,50.0,,,,,,,,,,,,,,,,,,,,,,,,,,,,,,,,,,,,,,,,,,,,,,,,,,,,,,,,,,,,,,,,,,,,,,,,,,,,,,,,,,,,
19134,1645901502.330319,1645901502.346569,114.0,0.0,4581.025879,4640.0,4165.641113000001,4137.94873,4378.461426,450.0,1.0,15.0,,,,0.0,4.0,2.0,0.0,4.0,4.0,50.0,,,,,,,,57.0,0.0,0.7171609999999999,0.136963,0.663086,0.16503900000000002,0.917494,-0.42432299999999995,-0.08447400000000001,-0.028819,-0.034201999999999996,-0.009249,,,,,,,,,,,,,,,,,,,,,,,,,,,,,,,,,,,10.0,0.0,64.0,0.460346,1.0,0.0,,,,,,,,,,,,,,,,,,,,,,,,,
19135,1645901502.338133,1645901502.354384,115.0,0.0,4514.871582,4588.717772999999,4209.743652,4106.666504,4363.589844,16190.0,1.0,15.0,,,,0.0,4.0,2.0,0.0,4.0,4.0,50.0,,,,,,,,,,,,,,,,,,,,,,,,,,,,,,,,,,,,,,,,,,,,,,,,,,,,,,,,,,,,,,,,,,,,,,,,,,,,,,,,,,,,
19136,1645901502.345946,1645901502.362099,116.0,0.0,4414.358886999999,4537.436035,4255.384765999999,4116.922852000001,4318.461426,450.0,1.0,15.0,,,,0.0,4.0,2.0,0.0,4.0,4.0,50.0,,,,,,,,58.0,0.0,0.717217,0.136963,0.663086,0.164795,0.909682,-0.43408900000000006,-0.087404,-0.025986000000000002,-0.0342,-0.010472,,,,,,,,,,,,,,,,,,,,,,,,,,,,,,,,,,,,,,,,,,,,,,,,,,,,,,,,,,,,,,,,,
19137,1645901502.35376,1645901502.369913,117.0,0.0,4344.102539,4576.922852000001,4244.615234000001,4154.871582,4278.974121,450.0,1.0,15.0,,,,0.0,4.0,2.0,0.0,4.0,4.0,50.0,,,,,,,,,,,,,,,,,,,,,,,,,,,,,,,,,,,,,,,,,,,,,,,,,,,,,,,,,,,,,,,,,,,,,,,,,,,,,,,,,,,,
19138,1645901502.361574,1645901502.377728,118.0,0.0,4292.820313,4585.641113000001,4213.846191,4177.436035,4240.512695,450.0,1.0,15.0,,,,0.0,4.0,2.0,0.0,4.0,4.0,50.0,,,,,,,,59.0,0.0,0.717217,0.136963,0.663086,0.164795,0.9131,-0.41406899999999996,-0.083009,-0.026463999999999998,-0.034149,-0.01172,1.0,0.0,0.0,,,,,,,,,,,,,,,,,,,,,,,,,,,,,,,,10.0,0.0,64.0,0.41241700000000003,1.0,0.0,86.426254,14.938026999999998,4.795536,2.054214,1.370069,39.855892,20.924341000000002,20.345222,14.154181,16.408365,35.529533,30.39185,10.642132,4.5986709999999995,5.06419,13.951735000000001,14.315364,5.678866999999999,5.629002,1.762657,41.858826,14.551768,4.335183,1.544024,1.532029
19139,1645901502.369388,1645901502.3855429,119.0,0.0,4254.358886999999,4571.282227000001,4267.179688,4156.410156,4213.846191,16190.0,1.0,15.0,,,,0.0,4.0,2.0,0.0,4.0,4.0,50.0,,,,,,,,,,,,,,,,,,,,,,,,,,,,,,,,,,,,,,,,,,,,,,,,,,,,,,,,,,,,,,,,,,,,,,,,,,,,,,,,,,,,
19140,1645901502.377201,1645901502.393357,120.0,0.0,4202.563965,4591.794922,4297.436035,4136.410156,4200.0,450.0,1.0,15.0,,,,0.0,4.0,2.0,0.0,4.0,4.0,50.0,,,,,,,,60.0,0.0,0.717217,0.136963,0.663086,0.164795,0.906752,-0.40235,-0.075196,-0.026942,-0.034055,-0.012891999999999999,,,,,,,,,,,,,,,,,,,,,,,,,,,,,,,,,,,,,,,,,,,,,,,,,,,,,,,,,,,,,,,,,
19141,1645901502.385015,1645901502.4011722,121.0,0.0,4168.717772999999,4583.077147999999,4287.692383,4137.94873,4163.077147999999,450.0,1.0,15.0,,,,0.0,4.0,2.0,0.0,4.0,4.0,50.0,,,,,,,,,,,,,,,,,,,,,,,,,,,,,,,,,,,,,,,,,,,,,,,,,,,,,,,,,,,,,,,,,,,,,,,,,,,,,,,,,,,,
19142,1645901502.392829,1645901502.4089868,122.0,0.0,4176.922852000001,4540.0,4229.743652,4127.692383,4153.846191,450.0,1.0,15.0,,,,0.0,4.0,2.0,0.0,4.0,4.0,50.0,,,,,,,,61.0,0.0,0.717217,0.136963,0.663086,0.164795,0.909682,-0.43408900000000006,-0.087404,-0.024297,-0.03397,-0.014093000000000001,,,,,,,,,,,,,,,,,,,,,,,,,,,,,,,,,,,10.0,0.0,64.0,0.41241700000000003,1.0,0.0,,,,,,,,,,,,,,,,,,,,,,,,,
19143,1645901502.4006429,1645901502.416801,123.0,0.0,4148.717772999999,4544.615234000001,4231.282227000001,4151.282227000001,4163.589844,16190.0,1.0,15.0,,,,0.0,4.0,2.0,0.0,4.0,4.0,50.0,,,,,,,,,,,,,,,,,,,,,,,,,,,,,,,,,,,,,,,,,,,,,,,,,,,,,,,,,,,,,,,,,,,,,,,,,,,,,,,,,,,,
19144,1645901502.408456,1645901502.424616,124.0,0.0,4137.94873,4597.436035,4211.794922,4169.230957,4162.563965,450.0,1.0,15.0,,,,0.0,4.0,2.0,0.0,4.0,4.0,50.0,,,,,,,,62.0,0.0,0.717217,0.136963,0.663086,0.164795,0.906752,-0.40235,-0.075196,-0.024992,-0.033893,-0.015027,,,,,,,,,,,,,,,,,,,,,,,,,,,,,,,,,,,,,,,,,,,,,,,,,,,,,,,,,,,,,,,,,
19145,1645901502.41627,1645901502.4325302,125.0,0.0,4161.538574,4612.820313,4191.794922,4122.563965,4184.615234000001,450.0,1.0,15.0,,,,0.0,4.0,2.0,0.0,4.0,4.0,50.0,,,,,,,,,,,,,,,,,,,,,,,,,,,,,,,,,,,,,,,,,,,,,,,,,,,,,,,,,,,,,,,,,,,,,,,,,,,,,,,,,,,,
19146,1645901502.424084,1645901502.4403448,126.0,0.0,4158.461426,4572.307617,4186.153809,4148.717772999999,4205.641113000001,450.0,1.0,15.0,,,,0.0,4.0,2.0,0.0,4.0,4.0,50.0,,,,,,,,63.0,0.0,0.717264,0.136719,0.663086,0.164795,0.9199360000000001,-0.423835,-0.08203300000000001,-0.025618000000000002,-0.033922,-0.012841,,,,,,,,,,,,,,,,,,,,,,,,,,,,,,,,,,,10.0,0.0,64.0,0.41241700000000003,1.0,0.0,,,,,,,,,,,,,,,,,,,,,,,,,
19147,1645901502.4318972,1645901502.44816,127.0,0.0,4151.282227000001,4511.282227000001,4186.666504,4180.512695,4164.615234000001,233.0,1.0,15.0,,,,0.0,4.0,2.0,0.0,4.0,4.0,50.0,,,,,,,,,,,,,,,,,,,,,,,,,,,,,,,,,,,,,,,,,,,,,,,,,,,,,,,,,,,,,,,,,,,,,,,,,,,,,,,,,,,,
19148,1645901502.4397109,1645901502.455974,0.0,0.0,4156.410156,4455.897461,4192.820313,4126.666504,4150.769043,450.0,1.0,15.0,,,,0.0,4.0,2.0,0.0,4.0,4.0,50.0,,,,,,,,0.0,0.0,0.717029,0.136475,0.66333,0.16503900000000002,0.9184709999999999,-0.427741,-0.079591,-0.02623,-0.033899,-0.013997999999999998,,,,,,,,,,,,,,,,,,,,,,,,,,,,,,,,,,,,,,,,,,,,,,,,,,,,,,,,,,,,,,,,,
19149,1645901502.447525,1645901502.463789,1.0,0.0,4064.615479,4400.512695,4212.307617,4131.282227000001,4135.897461,450.0,1.0,15.0,,,,0.0,4.0,2.0,0.0,4.0,4.0,50.0,,,,,,,,,,,,,,,,,,,,,,,,,,,,,,,,,,,,,,,,,,,,,,,,,,,,,,,,,,,,,,,,,,,,,,,,,,,,,,,,,,,,
19150,1645901502.455339,1645901502.4716039,2.0,0.0,4007.179443,4381.025879,4182.05127,4203.589844,4114.358886999999,16211.0,1.0,15.0,,,,0.0,4.0,2.0,0.0,4.0,4.0,50.0,,,,,,,,1.0,0.0,0.717029,0.136475,0.66333,0.16503900000000002,0.9194479999999999,-0.41260399999999997,-0.088869,-0.026732,-0.033829000000000005,-0.014941999999999999,,,,,,,,,,,,,,,,,,,,,,,,,,,,,,,,,,,10.0,0.0,64.0,0.41241700000000003,1.0,0.0,,,,,,,,,,,,,,,,,,,,,,,,,
19151,1645901502.463152,1645901502.479418,3.0,0.0,4063.076904,4443.589844,4185.128418,4155.384765999999,4137.94873,450.0,1.0,15.0,,,,0.0,4.0,2.0,0.0,4.0,4.0,50.0,,,,,,,,,,,,,,,,,,,,,,,,,,,,,,,,,,,,,,,,,,,,,,,,,,,,,,,,,,,,,,,,,,,,,,,,,,,,,,,,,,,,
19152,1645901502.470966,1645901502.487233,4.0,0.0,4074.358887,4486.153809,4292.307617,4105.641113000001,4164.102539,175.0,1.0,15.0,,,,0.0,4.0,2.0,0.0,4.0,4.0,50.0,,,,,,,,2.0,0.0,0.716849,0.13623,0.663574,0.16503900000000002,0.9072399999999999,-0.417487,-0.083986,-0.027183999999999996,-0.033816000000000006,-0.015792,,,,,,,,,,,,,,,,,,,,,,,,,,,,,,,,,,,,,,,,,,,,,,,,,,,,,,,,,,,,,,,,,
19153,1645901502.47878,1645901502.495048,5.0,0.0,4047.179443,4445.641113000001,4274.871582,4131.794922,4109.230957,450.0,1.0,15.0,,,,0.0,4.0,2.0,0.0,4.0,4.0,50.0,,,,,,,,,,,,,,,,,,,,,,,,,,,,,,,,,,,,,,,,,,,,,,,,,,,,,,,,,,,,,,,,,,,,,,,,,,,,,,,,,,,,
19154,1645901502.486594,1645901502.502862,6.0,0.0,4080.512939,4416.410156,4234.871582,4139.487305,4088.718018,0.0,1.0,15.0,,,,0.0,4.0,2.0,0.0,4.0,4.0,50.0,,,,,,,,3.0,0.0,0.716793,0.13623,0.663574,0.16528299999999999,0.9087049999999999,-0.425299,-0.07910299999999999,-0.027542,-0.03395,-0.016459,1.0,0.0,0.0,,,,,,,,,,,,,,,,,,,,,,,,,,,,,,,,0.0,0.0,64.0,0.587763,1.0,0.0,189.554855,21.434288000000002,7.599158999999999,2.706424,1.570326,53.139568000000004,26.735689,26.232458,14.965924,17.248812,37.409828000000005,31.860363,11.031805,4.360029,5.42016,16.773083,17.679941,5.1938379999999995,5.849121,2.001035,85.681046,13.575931,5.443797,1.760334,1.518605
19155,1645901502.494407,1645901502.510577,7.0,0.0,4078.461426,4402.05127,4250.256348,4140.512695,4121.025879,450.0,1.0,15.0,,,,0.0,4.0,2.0,0.0,4.0,4.0,50.0,,,,,,,,,,,,,,,,,,,,,,,,,,,,,,,,,,,,,,,,,,,,,,,,,,,,,,,,,,,,,,,,,,,,,,,,,,,,,,,,,,,,
19156,1645901502.502221,1645901502.518392,8.0,0.0,4052.3076170000004,4374.358886999999,4240.512695,4131.282227000001,4112.307617,450.0,1.0,15.0,,,,0.0,4.0,2.0,0.0,4.0,4.0,50.0,,,,,,,,4.0,0.0,0.716793,0.13623,0.663574,0.16528299999999999,0.9091940000000001,-0.433112,-0.077638,-0.024836,-0.033924,-0.017059,,,,,,,,,,,,,,,,,,,,,,,,,,,,,,,,,,,,,,,,,,,,,,,,,,,,,,,,,,,,,,,,,
19157,1645901502.510035,1645901502.526206,9.0,0.0,4061.538574,4407.179688,4251.794922,4093.3332520000004,4120.512695,295.0,1.0,15.0,,,,0.0,4.0,2.0,0.0,4.0,4.0,50.0,,,,,,,,,,,,,,,,,,,,,,,,,,,,,,,,,,,,,,,,,,,,,,,,,,,,,,,,,,,,,,,,,,,,,,,,,,,,,,,,,,,,
19158,1645901502.517848,1645901502.5340211,10.0,0.0,4050.7692869999996,4434.871582,4354.871582,4108.205078,4132.307617,450.0,1.0,15.0,,,,0.0,4.0,2.0,0.0,4.0,4.0,50.0,,,,,,,,5.0,0.0,0.7167359999999999,0.13623,0.663574,0.165527,0.9038219999999999,-0.41651000000000005,-0.085939,-0.025527,-0.03395,-0.017697,,,,,,,,,,,,,,,,,,,,,,,,,,,,,,,,,,,0.0,0.0,64.0,0.587763,1.0,0.0,,,,,,,,,,,,,,,,,,,,,,,,,
19159,1645901502.525662,1645901502.541836,11.0,0.0,4077.4357909999994,4355.384765999999,4240.512695,4130.256348,4118.974121,16209.0,1.0,15.0,,,,0.0,4.0,2.0,0.0,4.0,4.0,50.0,,,,,,,,,,,,,,,,,,,,,,,,,,,,,,,,,,,,,,,,,,,,,,,,,,,,,,,,,,,,,,,,,,,,,,,,,,,,,,,,,,,,
19160,1645901502.5334759,1645901502.54965,12.0,0.0,4119.487305,4352.307617,4123.589844,4066.6667479999996,4139.487305,450.0,1.0,15.0,,,,0.0,4.0,2.0,0.0,4.0,4.0,50.0,,,,,,,,6.0,0.0,0.716634,0.136475,0.663574,0.165771,0.9004040000000001,-0.430671,-0.07128999999999999,-0.026148,-0.033924,-0.018222,,,,,,,,,,,,,,,,,,,,,,,,,,,,,,,,,,,,,,,,,,,,,,,,,,,,,,,,,,,,,,,,,
19161,1645901502.54129,1645901502.557465,13.0,0.0,4086.6667479999996,4492.820313,4241.538574,4080.512939,4163.077147999999,450.0,1.0,15.0,,,,0.0,4.0,2.0,0.0,4.0,4.0,50.0,,,,,,,,,,,,,,,,,,,,,,,,,,,,,,,,,,,,,,,,,,,,,,,,,,,,,,,,,,,,,,,,,,,,,,,,,,,,,,,,,,,,
19162,1645901502.549103,1645901502.56528,14.0,0.0,4053.8461909999996,4545.641113000001,4280.0,4157.436035,4098.974121,450.0,1.0,15.0,,,,0.0,4.0,2.0,0.0,4.0,4.0,50.0,,,,,,,,7.0,0.0,0.716634,0.136475,0.663574,0.165771,0.9111469999999999,-0.417975,-0.085451,-0.026657999999999998,-0.033901,-0.018744,,,,,,,,,,,,,,,,,,,,,,,,,,,,,,,,,,,0.0,0.0,64.0,0.587763,1.0,0.0,,,,,,,,,,,,,,,,,,,,,,,,,
19163,1645901502.556917,1645901502.573094,15.0,0.0,4095.897461,4493.846191,4149.230957,4147.179688,4086.6667479999996,16209.0,1.0,15.0,,,,0.0,4.0,2.0,0.0,4.0,4.0,50.0,,,,,,,,,,,,,,,,,,,,,,,,,,,,,,,,,,,,,,,,,,,,,,,,,,,,,,,,,,,,,,,,,,,,,,,,,,,,,,,,,,,,
19164,1645901502.5647311,1645901502.5808089,16.0,0.0,4060.512939,4484.615234000001,4185.128418,4123.077147999999,4138.974121,0.0,1.0,15.0,,,,0.0,4.0,2.0,0.0,4.0,4.0,50.0,,,,,,,,8.0,0.0,0.716634,0.136475,0.663574,0.165771,0.922377,-0.42432299999999995,-0.07422000000000001,-0.027214999999999996,-0.034026,-0.016038999999999998,,,,,,,,,,,,,,,,,,,,,,,,,,,,,,,,,,,,,,,,,,,,,,,,,,,,,,,,,,,,,,,,,
19165,1645901502.5725448,1645901502.588624,17.0,0.0,4022.5642090000006,4522.05127,4240.512695,4149.230957,4142.563965,0.0,1.0,15.0,,,,0.0,4.0,2.0,0.0,4.0,4.0,50.0,,,,,,,,,,,,,,,,,,,,,,,,,,,,,,,,,,,,,,,,,,,,,,,,,,,,,,,,,,,,,,,,,,,,,,,,,,,,,,,,,,,,
19166,1645901502.580358,1645901502.5964382,18.0,0.0,4082.0512700000004,4533.846191,4151.794922,4108.717772999999,4130.256348,0.0,1.0,15.0,,,,0.0,4.0,2.0,0.0,4.0,4.0,50.0,,,,,,,,9.0,0.0,0.71686,0.136475,0.66333,0.165771,0.913588,-0.417487,-0.076661,-0.027716,-0.034089999999999995,-0.016682,,,,,,,,,,,,,,,,,,,,,,,,,,,,,,,,,,,0.0,0.0,64.0,0.587763,1.0,0.0,,,,,,,,,,,,,,,,,,,,,,,,,
19167,1645901502.588172,1645901502.6042528,19.0,0.0,4124.615234000001,4535.897461,4144.102539,4096.410156,4163.589844,0.0,1.0,15.0,,,,0.0,4.0,2.0,0.0,4.0,4.0,50.0,,,,,,,,,,,,,,,,,,,,,,,,,,,,,,,,,,,,,,,,,,,,,,,,,,,,,,,,,,,,,,,,,,,,,,,,,,,,,,,,,,,,
19168,1645901502.595986,1645901502.612068,20.0,0.0,4107.692383,4535.384765999999,4193.333496,4159.487305,4148.205078,0.0,1.0,15.0,,,,0.0,4.0,2.0,0.0,4.0,4.0,50.0,,,,,,,,10.0,0.0,0.716906,0.13623,0.66333,0.165771,0.9150530000000001,-0.417975,-0.083497,-0.025042,-0.034099000000000004,-0.01726,,,,,,,,,,,,,,,,,,,,,,,,,,,,,,,,,,,,,,,,,,,,,,,,,,,,,,,,,,,,,,,,,
19169,1645901502.603799,1645901502.619882,21.0,0.0,4125.641113000001,4505.641113000001,4201.538574,4154.871582,4135.384765999999,0.0,1.0,15.0,,,,0.0,4.0,2.0,0.0,4.0,4.0,50.0,,,,,,,,,,,,,,,,,,,,,,,,,,,,,,,,,,,,,,,,,,,,,,,,,,,,,,,,,,,,,,,,,,,,,,,,,,,,,,,,,,,,
19170,1645901502.611613,1645901502.627697,22.0,0.0,4117.436035,4407.179688,4207.692383,4110.256348,4155.897461,0.0,1.0,15.0,,,,0.0,4.0,2.0,0.0,4.0,4.0,50.0,1.0,8.333333,1.0,0.0,0.0,3.0,3.0,11.0,0.0,0.7167359999999999,0.13623,0.663574,0.165527,0.91017,-0.42432299999999995,-0.079591,-0.025712,-0.034107,-0.014752000000000001,1.0,0.0,0.0,1.0,0.40783400000000003,0.999957,-0.041582,2.3429439999999997,1.0,0.233438,6.194372,-0.292953,23.644793,0.34494400000000003,1.0,0.357837,-0.098834,-0.23598400000000003,0.126031,1.0,0.350348,1.313334,0.17395,3.037129,1.0,0.519986,10.443852,-42.476945,60.397220999999995,1.0,0.277794,0.537717,0.44647700000000007,0.730136,0.0,0.0,64.0,0.6322,1.0,0.0,343.780334,30.378836,11.737252,3.6545629999999996,1.854843,80.30328399999999,32.990963,35.935062,15.996457000000001,17.715681,37.329662,32.026657,12.165650999999999,4.402807,5.657214,18.784378,19.865334,4.771079,5.7941199999999995,2.2472790000000002,155.69186399999998,13.729961999999999,6.610796000000001,2.318823,1.572244
19171,1645901502.619427,1645901502.635511,23.0,0.0,4071.794922,4358.974121,4249.743652,4138.974121,4143.589844,0.0,1.0,15.0,,,,0.0,4.0,2.0,0.0,4.0,4.0,50.0,,,,,,,,,,,,,,,,,,,,,,,,,,,,,,,,,,,,,,,,,,,,,,,,,,,,,,,,,,,,,,,,,,,,,,,,,,,,,,,,,,,,
19172,1645901502.6272411,1645901502.643326,24.0,0.0,4074.358887,4425.128418,4265.641113000001,4148.205078,4142.563965,0.0,1.0,15.0,,,,0.0,4.0,2.0,0.0,4.0,4.0,50.0,,,,,,,,12.0,0.0,0.7167359999999999,0.13623,0.663574,0.165527,0.9116350000000001,-0.423346,-0.081544,-0.026266,-0.034115,-0.012496,,,,,,,,,,,,,,,,,,,,,,,,,,,,,,,,,,,,,,,,,,,,,,,,,,,,,,,,,,,,,,,,,
19173,1645901502.6350539,1645901502.651241,25.0,0.0,4101.025879,4495.384765999999,4301.025879,4117.94873,4167.179688,0.0,1.0,15.0,,,,0.0,4.0,2.0,0.0,4.0,4.0,50.0,,,,,,,,,,,,,,,,,,,,,,,,,,,,,,,,,,,,,,,,,,,,,,,,,,,,,,,,,,,,,,,,,,,,,,,,,,,,,,,,,,,,
19174,1645901502.642868,1645901502.659055,26.0,0.0,4097.94873,4504.102539,4257.436035,4125.128418,4164.615234000001,0.0,1.0,15.0,,,,0.0,4.0,2.0,0.0,4.0,4.0,50.0,,,,,,,,13.0,0.0,0.717019,0.13623,0.66333,0.16528299999999999,0.9077290000000001,-0.423835,-0.09131,-0.026813,-0.03417,-0.013590000000000001,,,,,,,,,,,,,,,,,,,,,,,,,,,,,,,,,,,0.0,0.0,64.0,0.6322,1.0,0.0,,,,,,,,,,,,,,,,,,,,,,,,,
19175,1645901502.650682,1645901502.6668699,27.0,0.0,4070.256348,4556.922852000001,4250.256348,4132.307617,4127.179688,0.0,1.0,15.0,,,,0.0,4.0,2.0,0.0,4.0,4.0,50.0,,,,,,,,,,,,,,,,,,,,,,,,,,,,,,,,,,,,,,,,,,,,,,,,,,,,,,,,,,,,,,,,,,,,,,,,,,,,,,,,,,,,
19176,1645901502.6584961,1645901502.6745849,28.0,0.0,4105.128418,4663.589844,4234.358886999999,4107.179688,4137.436035,0.0,1.0,15.0,,,,0.0,4.0,2.0,0.0,4.0,4.0,50.0,,,,,,,,14.0,0.0,0.717019,0.13623,0.66333,0.16528299999999999,0.9209129999999999,-0.423835,-0.08203300000000001,-0.027257,-0.034122,-0.01145,,,,,,,,,,,,,,,,,,,,,,,,,,,,,,,,,,,,,,,,,,,,,,,,,,,,,,,,,,,,,,,,,
19177,1645901502.6663089,1645901502.682399,29.0,0.0,4136.410156,4628.205078,4230.769043,4093.8461909999996,4174.871582,0.0,1.0,15.0,,,,0.0,4.0,2.0,0.0,4.0,4.0,50.0,,,,,,,,,,,,,,,,,,,,,,,,,,,,,,,,,,,,,,,,,,,,,,,,,,,,,,,,,,,,,,,,,,,,,,,,,,,,,,,,,,,,
19178,1645901502.674123,1645901502.6902142,30.0,0.0,4135.897461,4513.846191,4216.922852000001,4110.769043,4161.025879,0.0,1.0,15.0,,,,0.0,4.0,2.0,0.0,4.0,4.0,50.0,,,,,,,,15.0,0.0,0.717019,0.13623,0.66333,0.16528299999999999,0.906264,-0.417975,-0.085939,-0.027607,-0.03403,-0.012697,,,,,,,,,,,,,,,,,,,,,,,,,,,,,,,,,,,0.0,0.0,64.0,0.6322,1.0,0.0,,,,,,,,,,,,,,,,,,,,,,,,,
19179,1645901502.681937,1645901502.6980288,31.0,0.0,4151.794922,4507.692383,4163.589844,4092.3076170000004,4129.230957,0.0,1.0,15.0,,,,0.0,4.0,2.0,0.0,4.0,4.0,50.0,,,,,,,,,,,,,,,,,,,,,,,,,,,,,,,,,,,,,,,,,,,,,,,,,,,,,,,,,,,,,,,,,,,,,,,,,,,,,,,,,,,,
19180,1645901502.689751,1645901502.705843,32.0,0.0,4176.922852000001,4538.974121,4122.05127,4120.0,4161.025879,0.0,1.0,15.0,,,,0.0,4.0,2.0,0.0,4.0,4.0,50.0,,,,,,,,16.0,0.0,0.717065,0.135986,0.66333,0.16528299999999999,0.9131,-0.417487,-0.083009,-0.02802,-0.033997,-0.010793,,,,,,,,,,,,,,,,,,,,,,,,,,,,,,,,,,,,,,,,,,,,,,,,,,,,,,,,,,,,,,,,,
19181,1645901502.6975641,1645901502.713658,33.0,0.0,4150.769043,4529.230957,4167.692383,4181.025879,4162.563965,0.0,1.0,15.0,,,,0.0,4.0,2.0,0.0,4.0,4.0,50.0,,,,,,,,,,,,,,,,,,,,,,,,,,,,,,,,,,,,,,,,,,,,,,,,,,,,,,,,,,,,,,,,,,,,,,,,,,,,,,,,,,,,
19182,1645901502.7053778,1645901502.721473,34.0,0.0,4128.717772999999,4506.153809,4211.282227000001,4191.794922,4135.384765999999,0.0,1.0,15.0,,,,0.0,4.0,2.0,0.0,4.0,4.0,50.0,,,,,,,,17.0,0.0,0.717121,0.135986,0.66333,0.16503900000000002,0.91017,-0.42236999999999997,-0.09033300000000001,-0.025266999999999998,-0.034015,-0.008883,,,,,,,,,,,,,,,,,,,,,,,,,,,,,,,,,,,0.0,0.0,64.0,0.6322,1.0,0.0,,,,,,,,,,,,,,,,,,,,,,,,,
19183,1645901502.713192,1645901502.729187,35.0,0.0,4134.358886999999,4480.512695,4180.0,4178.974121,4132.820313,0.0,1.0,15.0,,,,0.0,4.0,2.0,0.0,4.0,4.0,50.0,,,,,,,,,,,,,,,,,,,,,,,,,,,,,,,,,,,,,,,,,,,,,,,,,,,,,,,,,,,,,,,,,,,,,,,,,,,,,,,,,,,,
19184,1645901502.7210062,1645901502.737002,36.0,0.0,4136.922852000001,4462.563965,4210.256348,4188.717772999999,4148.717772999999,0.0,1.0,15.0,,,,0.0,4.0,2.0,0.0,4.0,4.0,50.0,,,,,,,,18.0,0.0,0.717121,0.135986,0.66333,0.16503900000000002,0.913588,-0.417487,-0.083986,-0.025866000000000004,-0.034031,-0.010388,,,,,,,,,,,,,,,,,,,,,,,,,,,,,,,,,,,,,,,,,,,,,,,,,,,,,,,,,,,,,,,,,
19185,1645901502.728819,1645901502.744817,37.0,0.0,4140.0,4471.794922,4236.922852000001,4163.077147999999,4146.153809,0.0,1.0,15.0,,,,0.0,4.0,2.0,0.0,4.0,4.0,50.0,,,,,,,,,,,,,,,,,,,,,,,,,,,,,,,,,,,,,,,,,,,,,,,,,,,,,,,,,,,,,,,,,,,,,,,,,,,,,,,,,,,,
19186,1645901502.736633,1645901502.752631,38.0,0.0,4156.410156,4505.641113000001,4250.769043,4132.307617,4159.487305,0.0,1.0,15.0,,,,0.0,4.0,2.0,0.0,4.0,4.0,50.0,,,,,,,,19.0,0.0,0.717065,0.135986,0.66333,0.16528299999999999,0.913588,-0.425299,-0.08691499999999999,-0.026452999999999997,-0.034144,-0.011839,1.0,0.0,0.0,,,,,,,,,,,,,,,,,,,,,,,,,,,,,,,,0.0,0.0,1.0,0.0,512.0,0.43206000000000006,531.717834,40.465107,16.686213000000002,4.784164,2.247611,120.26828799999998,40.268612,48.62672,17.252571,17.858181,35.408671999999996,31.075407000000002,13.425374,4.64647,5.806417,19.546732000000002,20.154049,4.486732,5.547213,2.4807259999999998,244.455246,15.349572,7.616331,3.142893,1.729556
19187,1645901502.744447,1645901502.760446,39.0,0.0,4147.179688,4515.384765999999,4280.0,4134.871582,4162.563965,0.0,1.0,15.0,,,,0.0,4.0,2.0,0.0,4.0,4.0,50.0,,,,,,,,,,,,,,,,,,,,,,,,,,,,,,,,,,,,,,,,,,,,,,,,,,,,,,,,,,,,,,,,,,,,,,,,,,,,,,,,,,,,
19188,1645901502.752261,1645901502.768261,40.0,0.0,4134.871582,4516.410156,4293.846191,4108.717772999999,4146.666504,0.0,1.0,15.0,,,,0.0,4.0,2.0,0.0,4.0,4.0,50.0,,,,,,,,20.0,0.0,0.717065,0.135986,0.66333,0.16528299999999999,0.9199360000000001,-0.43018199999999995,-0.086427,-0.027030000000000002,-0.034099000000000004,-0.009873999999999999,,,,,,,,,,,,,,,,,,,,,,,,,,,,,,,,,,,,,,,,,,,,,,,,,,,,,,,,,,,,,,,,,
19189,1645901502.7600741,1645901502.776075,41.0,0.0,4142.563965,4462.563965,4264.615234000001,4103.077147999999,4161.538574,0.0,1.0,15.0,,,,0.0,4.0,2.0,0.0,4.0,4.0,50.0,,,,,,,,,,,,,,,,,,,,,,,,,,,,,,,,,,,,,,,,,,,,,,,,,,,,,,,,,,,,,,,,,,,,,,,,,,,,,,,,,,,,
19190,1645901502.767888,1645901502.78389,42.0,0.0,4139.487305,4446.666504,4259.487305,4150.256348,4156.922852000001,0.0,1.0,15.0,,,,0.0,4.0,2.0,0.0,4.0,4.0,50.0,,,,,,,,21.0,0.0,0.717065,0.135986,0.66333,0.16528299999999999,0.9028459999999999,-0.409674,-0.083986,-0.024376,-0.034058,-0.011279,,,,,,,,,,,,,,,,,,,,,,,,,,,,,,,,,,,0.0,0.0,1.0,0.0,512.0,0.43206000000000006,,,,,,,,,,,,,,,,,,,,,,,,,
19191,1645901502.775702,1645901502.791704,43.0,0.0,4126.153809,4540.512695,4204.102539,4142.563965,4168.205078,0.0,1.0,15.0,,,,0.0,4.0,2.0,0.0,4.0,4.0,50.0,,,,,,,,,,,,,,,,,,,,,,,,,,,,,,,,,,,,,,,,,,,,,,,,,,,,,,,,,,,,,,,,,,,,,,,,,,,,,,,,,,,,
19192,1645901502.783515,1645901502.799419,44.0,0.0,4113.846191,4550.256348,4206.666504,4120.0,4188.717772999999,0.0,1.0,15.0,,,,0.0,4.0,2.0,0.0,4.0,4.0,50.0,,,,,,,,22.0,0.0,0.717019,0.13623,0.66333,0.16528299999999999,0.914565,-0.41944,-0.07324299999999999,-0.021987,-0.034069999999999996,-0.012593,,,,,,,,,,,,,,,,,,,,,,,,,,,,,,,,,,,,,,,,,,,,,,,,,,,,,,,,,,,,,,,,,
19193,1645901502.791329,1645901502.807234,45.0,0.0,4171.794922,4462.563965,4226.153809,4145.128418,4186.666504,0.0,1.0,15.0,,,,0.0,4.0,2.0,0.0,4.0,4.0,50.0,,,,,,,,,,,,,,,,,,,,,,,,,,,,,,,,,,,,,,,,,,,,,,,,,,,,,,,,,,,,,,,,,,,,,,,,,,,,,,,,,,,,
19194,1645901502.799143,1645901502.815049,46.0,0.0,4201.538574,4462.563965,4230.256348,4142.563965,4163.077147999999,0.0,1.0,15.0,,,,0.0,4.0,2.0,0.0,4.0,4.0,50.0,,,,,,,,23.0,0.0,0.716793,0.13623,0.663574,0.16528299999999999,0.921401,-0.43262399999999995,-0.075685,-0.022962,-0.03413,-0.013725999999999999,,,,,,,,,,,,,,,,,,,,,,,,,,,,,,,,,,,0.0,0.0,1.0,0.0,512.0,0.43206000000000006,,,,,,,,,,,,,,,,,,,,,,,,,
19195,1645901502.806957,1645901502.822863,47.0,0.0,4192.820313,4597.436035,4193.333496,4142.05127,4167.692383,0.0,1.0,15.0,,,,0.0,4.0,2.0,0.0,4.0,4.0,50.0,,,,,,,,,,,,,,,,,,,,,,,,,,,,,,,,,,,,,,,,,,,,,,,,,,,,,,,,,,,,,,,,,,,,,,,,,,,,,,,,,,,,
19196,1645901502.81477,1645901502.830678,48.0,0.0,4205.128418,4654.358886999999,4194.871582,4135.384765999999,4190.769043,0.0,1.0,15.0,,,,0.0,4.0,2.0,0.0,4.0,4.0,50.0,,,,,,,,24.0,0.0,0.717019,0.13623,0.66333,0.16528299999999999,0.9052870000000001,-0.41699899999999995,-0.078614,-0.02384,-0.034233,-0.014697,,,,,,,,,,,,,,,,,,,,,,,,,,,,,,,,,,,,,,,,,,,,,,,,,,,,,,,,,,,,,,,,,
19197,1645901502.822584,1645901502.838492,49.0,0.0,4218.461426,4548.205078,4214.358886999999,4125.641113000001,4199.487305,0.0,1.0,15.0,,,,0.0,4.0,2.0,0.0,4.0,4.0,50.0,,,,,,,,,,,,,,,,,,,,,,,,,,,,,,,,,,,,,,,,,,,,,,,,,,,,,,,,,,,,,,,,,,,,,,,,,,,,,,,,,,,,
19198,1645901502.830398,1645901502.846307,50.0,0.0,4192.307617,4465.128418,4189.230957,4136.410156,4171.794922,0.0,1.0,15.0,,,,0.0,4.0,2.0,0.0,4.0,4.0,50.0,,,,,,,,25.0,0.0,0.717019,0.13623,0.66333,0.16528299999999999,0.914565,-0.41944,-0.07324299999999999,-0.024581,-0.034325,-0.012544,,,,,,,,,,,,,,,,,,,,,,,,,,,,,,,,,,,0.0,0.0,1.0,0.0,512.0,0.43206000000000006,,,,,,,,,,,,,,,,,,,,,,,,,
19199,1645901502.838212,1645901502.8541222,51.0,0.0,4174.358886999999,4485.128418,4190.256348,4172.820313,4160.512695,0.0,1.0,15.0,,,,0.0,4.0,2.0,0.0,4.0,4.0,50.0,,,,,,,,,,,,,,,,,,,,,,,,,,,,,,,,,,,,,,,,,,,,,,,,,,,,,,,,,,,,,,,,,,,,,,,,,,,,,,,,,,,,
19200,1645901502.846025,1645901502.8619359,52.0,0.0,4167.692383,4486.153809,4215.897461,4162.563965,4162.563965,0.0,1.0,15.0,,,,0.0,4.0,2.0,0.0,4.0,4.0,50.0,,,,,,,,26.0,0.0,0.717019,0.13623,0.66333,0.16528299999999999,0.9052870000000001,-0.41699899999999995,-0.078614,-0.025297,-0.034408,-0.013633000000000001,,,,,,,,,,,,,,,,,,,,,,,,,,,,,,,,,,,,,,,,,,,,,,,,,,,,,,,,,,,,,,,,,
19201,1645901502.8538392,1645901502.869651,53.0,0.0,4148.205078,4449.230957,4242.563965,4133.846191,4173.846191,0.0,1.0,15.0,,,,0.0,4.0,2.0,0.0,4.0,4.0,50.0,,,,,,,,,,,,,,,,,,,,,,,,,,,,,,,,,,,,,,,,,,,,,,,,,,,,,,,,,,,,,,,,,,,,,,,,,,,,,,,,,,,,
19202,1645901502.8616529,1645901502.877466,54.0,0.0,4148.205078,4437.436035,4192.820313,4149.743652,4174.871582,0.0,1.0,15.0,,,,0.0,4.0,2.0,0.0,4.0,4.0,50.0,,,,,,,,27.0,0.0,0.717019,0.13623,0.66333,0.16528299999999999,0.910658,-0.41358100000000003,-0.07715,-0.022816,-0.034386,-0.014662999999999999,1.0,0.0,0.0,,,,,,,,,,,,,,,,,,,,,,,,,,,,,,,,0.0,0.0,1.0,0.0,512.0,0.517436,717.660461,49.561089,21.590324,5.951792,2.7542169999999997,164.80641200000002,49.949162,62.721256000000004,18.938728,17.718760999999997,32.802483,29.810858000000003,14.131845000000002,4.992962,6.088387,18.999814999999998,18.441078,4.469583,5.304718,2.722857,333.628662,17.938066,8.30063,4.04355,2.0087189999999997
19203,1645901502.869466,1645901502.8852801,55.0,0.0,4161.025879,4424.102539,4231.282227000001,4164.615234000001,4177.94873,0.0,1.0,15.0,,,,0.0,4.0,2.0,0.0,4.0,4.0,50.0,,,,,,,,,,,,,,,,,,,,,,,,,,,,,,,,,,,,,,,,,,,,,,,,,,,,,,,,,,,,,,,,,,,,,,,,,,,,,,,,,,,,
19204,1645901502.87728,1645901502.893095,56.0,0.0,4148.205078,4393.333496,4293.846191,4146.153809,4169.743652,0.0,1.0,15.0,,,,0.0,4.0,2.0,0.0,4.0,4.0,50.0,,,,,,,,28.0,0.0,0.717019,0.13623,0.66333,0.16528299999999999,0.9111469999999999,-0.417487,-0.080568,-0.023708,-0.034365,-0.01554,,,,,,,,,,,,,,,,,,,,,,,,,,,,,,,,,,,,,,,,,,,,,,,,,,,,,,,,,,,,,,,,,
19205,1645901502.885094,1645901502.90091,57.0,0.0,4156.410156,4455.897461,4269.230957,4119.487305,4156.922852000001,0.0,1.0,15.0,,,,0.0,4.0,2.0,0.0,4.0,4.0,50.0,,,,,,,,,,,,,,,,,,,,,,,,,,,,,,,,,,,,,,,,,,,,,,,,,,,,,,,,,,,,,,,,,,,,,,,,,,,,,,,,,,,,
19206,1645901502.892908,1645901502.908724,58.0,0.0,4166.153809,4532.307617,4260.512695,4127.179688,4163.077147999999,0.0,1.0,15.0,,,,0.0,4.0,2.0,0.0,4.0,4.0,50.0,,,,,,,,29.0,0.0,0.717065,0.135986,0.66333,0.16528299999999999,0.9199360000000001,-0.435065,-0.083986,-0.024511,-0.034395,-0.013205000000000001,,,,,,,,,,,,,,,,,,,,,,,,,,,,,,,,,,,0.0,0.0,1.0,0.0,512.0,0.517436,,,,,,,,,,,,,,,,,,,,,,,,,
19207,1645901502.900721,1645901502.916539,59.0,0.0,4157.436035,4515.897461,4310.769043,4129.230957,4142.05127,0.0,1.0,15.0,,,,0.0,4.0,2.0,0.0,4.0,4.0,50.0,,,,,,,,,,,,,,,,,,,,,,,,,,,,,,,,,,,,,,,,,,,,,,,,,,,,,,,,,,,,,,,,,,,,,,,,,,,,,,,,,,,,
19208,1645901502.908535,1645901502.9243538,60.0,0.0,4183.077147999999,4527.179688,4248.717772999999,4100.512695,4157.436035,0.0,1.0,15.0,,,,0.0,4.0,2.0,0.0,4.0,4.0,50.0,,,,,,,,30.0,0.0,0.717065,0.135986,0.66333,0.16528299999999999,0.9155409999999999,-0.42676400000000003,-0.083986,-0.025136000000000002,-0.034423,-0.014277000000000001,,,,,,,,,,,,,,,,,,,,,,,,,,,,,,,,,,,,,,,,,,,,,,,,,,,,,,,,,,,,,,,,,
19209,1645901502.916349,1645901502.932168,61.0,0.0,4191.794922,4584.615234000001,4197.94873,4120.512695,4192.820313,0.0,1.0,15.0,,,,0.0,4.0,2.0,0.0,4.0,4.0,50.0,,,,,,,,,,,,,,,,,,,,,,,,,,,,,,,,,,,,,,,,,,,,,,,,,,,,,,,,,,,,,,,,,,,,,,,,,,,,,,,,,,,,
19210,1645901502.924163,1645901502.940083,62.0,0.0,4193.333496,4609.743652,4167.179688,4143.589844,4215.384765999999,0.0,1.0,15.0,,,,0.0,2.0,1.0,4.0,4.0,4.0,58.33333199999999,,,,,,,,31.0,0.0,0.717121,0.135986,0.66333,0.16503900000000002,0.922377,-0.431647,-0.080079,-0.025797000000000004,-0.034398000000000005,-0.015193,,,,,,,,,,,,,,,,,,,,,,,,,,,,,,,,,,,0.0,0.0,1.0,0.0,512.0,0.517436,,,,,,,,,,,,,,,,,,,,,,,,,
19211,1645901502.931976,1645901502.947897,63.0,0.0,4180.512695,4566.666504,4162.05127,4121.025879,4213.333496,0.0,1.0,15.0,,,,0.0,2.0,1.0,4.0,4.0,4.0,58.33333199999999,,,,,,,,,,,,,,,,,,,,,,,,,,,,,,,,,,,,,,,,,,,,,,,,,,,,,,,,,,,,,,,,,,,,,,,,,,,,,,,,,,,,
19212,1645901502.93979,1645901502.9557118,64.0,0.0,4184.102539,4505.641113000001,4193.846191,4151.794922,4191.794922,450.0,1.0,15.0,,,,0.0,2.0,1.0,4.0,4.0,4.0,58.33333199999999,,,,,,,,32.0,0.0,0.717019,0.13623,0.66333,0.16528299999999999,0.914565,-0.431647,-0.07128999999999999,-0.023266,-0.034328,-0.015969,,,,,,,,,,,,,,,,,,,,,,,,,,,,,,,,,,,,,,,,,,,,,,,,,,,,,,,,,,,,,,,,,
19213,1645901502.947604,1645901502.963527,65.0,0.0,4210.256348,4448.717772999999,4222.05127,4165.128418,4164.615234000001,450.0,1.0,15.0,,,,0.0,2.0,1.0,4.0,4.0,4.0,58.33333199999999,,,,,,,,,,,,,,,,,,,,,,,,,,,,,,,,,,,,,,,,,,,,,,,,,,,,,,,,,,,,,,,,,,,,,,,,,,,,,,,,,,,,
19214,1645901502.9554179,1645901502.9713411,66.0,0.0,4237.94873,4388.717772999999,4190.256348,4152.820313,4175.897461,309.0,1.0,15.0,,,,0.0,2.0,1.0,4.0,4.0,4.0,58.33333199999999,,,,,,,,33.0,0.0,0.717075,0.13623,0.66333,0.16503900000000002,0.9121229999999999,-0.41846300000000003,-0.083497,-0.024162,-0.034362000000000004,-0.016763999999999998,,,,,,,,,,,,,,,,,,,,,,,,,,,,,,,,,,,0.0,0.0,1.0,0.0,512.0,0.517436,,,,,,,,,,,,,,,,,,,,,,,,,
19215,1645901502.963231,1645901502.979156,67.0,0.0,4213.333496,4401.538574,4185.128418,4184.615234000001,4169.743652,450.0,1.0,15.0,,,,0.0,2.0,1.0,4.0,4.0,4.0,58.33333199999999,,,,,,,,,,,,,,,,,,,,,,,,,,,,,,,,,,,,,,,,,,,,,,,,,,,,,,,,,,,,,,,,,,,,,,,,,,,,,,,,,,,,
19216,1645901502.971045,1645901502.9869711,68.0,0.0,4180.512695,4484.102539,4253.846191,4223.077147999999,4136.410156,87.0,1.0,15.0,,,,0.0,2.0,1.0,4.0,4.0,4.0,58.33333199999999,,,,,,,,34.0,0.0,0.717075,0.13623,0.66333,0.16503900000000002,0.918959,-0.412116,-0.07715,-0.025016999999999998,-0.034344,-0.017432,,,,,,,,,,,,,,,,,,,,,,,,,,,,,,,,,,,,,,,,,,,,,,,,,,,,,,,,,,,,,,,,,
19217,1645901502.978859,1645901502.994785,69.0,0.0,4178.974121,4473.333496,4217.436035,4187.692383,4136.410156,450.0,1.0,15.0,,,,0.0,2.0,1.0,4.0,4.0,4.0,58.33333199999999,,,,,,,,,,,,,,,,,,,,,,,,,,,,,,,,,,,,,,,,,,,,,,,,,,,,,,,,,,,,,,,,,,,,,,,,,,,,,,,,,,,,
19218,1645901502.986673,1645901503.0026,70.0,0.0,4186.153809,4420.0,4199.487305,4163.589844,4166.153809,16267.0,1.0,15.0,,,,0.0,2.0,1.0,4.0,4.0,4.0,58.33333199999999,,,,,,,,35.0,0.0,0.717121,0.135986,0.66333,0.16503900000000002,0.901381,-0.42236999999999997,-0.073732,-0.025738,-0.034425,-0.014956,1.0,0.0,0.0,,,,,,,,,,,,,,,,,,,,,,,,,,,,,,,,0.0,0.0,1.0,0.0,512.0,0.538612,851.886169,55.33566999999999,25.419807000000002,6.966022,3.327854,201.43486000000001,62.86139300000001,75.459099,21.130318,17.39695,31.107822,29.413107,13.862162,5.3465300000000004,6.752717,17.481571,15.263460999999998,4.817133999999999,5.199543,3.018254,398.701721,20.276537,8.569291,4.7829690000000005,2.39312
19219,1645901502.9944859,1645901503.010515,71.0,0.0,4195.384765999999,4432.820313,4232.820313,4177.94873,4170.769043,450.0,1.0,15.0,,,,0.0,2.0,1.0,4.0,4.0,4.0,58.33333199999999,,,,,,,,,,,,,,,,,,,,,,,,,,,,,,,,,,,,,,,,,,,,,,,,,,,,,,,,,,,,,,,,,,,,,,,,,,,,,,,,,,,,
19220,1645901503.0023,1645901503.018329,72.0,0.0,4186.153809,4434.871582,4248.717772999999,4181.538574,4179.487305,450.0,1.0,15.0,,,,0.0,2.0,1.0,4.0,4.0,4.0,58.33333199999999,,,,,,,,36.0,0.0,0.717121,0.135986,0.66333,0.16503900000000002,0.9072399999999999,-0.41944,-0.085939,-0.023213,-0.034449,-0.015853,,,,,,,,,,,,,,,,,,,,,,,,,,,,,,,,,,,,,,,,,,,,,,,,,,,,,,,,,,,,,,,,,
19221,1645901503.010114,1645901503.026144,73.0,0.0,4167.692383,4390.256348,4209.743652,4186.666504,4182.05127,16204.0,1.0,15.0,,,,0.0,2.0,1.0,4.0,4.0,4.0,58.33333199999999,,,,,,,,,,,,,,,,,,,,,,,,,,,,,,,,,,,,,,,,,,,,,,,,,,,,,,,,,,,,,,,,,,,,,,,,,,,,,,,,,,,,
19222,1645901503.017928,1645901503.033958,74.0,0.0,4172.820313,4344.615234000001,4234.871582,4175.897461,4155.897461,450.0,1.0,15.0,,,,0.0,2.0,1.0,4.0,4.0,4.0,58.33333199999999,,,,,,,,37.0,0.0,0.717168,0.135742,0.66333,0.16503900000000002,0.91017,-0.41065100000000004,-0.08105599999999999,-0.023919,-0.034325,-0.013487,,,,,,,,,,,,,,,,,,,,,,,,,,,,,,,,,,,0.0,0.0,1.0,0.0,512.0,0.538612,,,,,,,,,,,,,,,,,,,,,,,,,
19223,1645901503.025741,1645901503.041773,75.0,0.0,4174.871582,4343.077147999999,4256.922852000001,4166.153809,4156.410156,16136.0,1.0,15.0,,,,0.0,2.0,1.0,4.0,4.0,4.0,58.33333199999999,,,,,,,,,,,,,,,,,,,,,,,,,,,,,,,,,,,,,,,,,,,,,,,,,,,,,,,,,,,,,,,,,,,,,,,,,,,,,,,,,,,,
19224,1645901503.033555,1645901503.0495882,76.0,0.0,4153.333496,4393.846191,4253.333496,4174.358886999999,4162.563965,450.0,1.0,15.0,,,,0.0,2.0,1.0,4.0,4.0,4.0,58.33333199999999,,,,,,,,38.0,0.0,0.717168,0.135742,0.66333,0.16503900000000002,0.9121229999999999,-0.413092,-0.082521,-0.024652,-0.034213,-0.014433000000000001,,,,,,,,,,,,,,,,,,,,,,,,,,,,,,,,,,,,,,,,,,,,,,,,,,,,,,,,,,,,,,,,,
19225,1645901503.041369,1645901503.057402,77.0,0.0,4174.358886999999,4428.717772999999,4233.333496,4161.538574,4186.153809,450.0,1.0,15.0,,,,0.0,2.0,1.0,4.0,4.0,4.0,58.33333199999999,,,,,,,,,,,,,,,,,,,,,,,,,,,,,,,,,,,,,,,,,,,,,,,,,,,,,,,,,,,,,,,,,,,,,,,,,,,,,,,,,,,,
19226,1645901503.049182,1645901503.065217,78.0,0.0,4195.897461,4406.153809,4246.666504,4124.102539,4190.769043,450.0,1.0,15.0,,,,0.0,2.0,1.0,4.0,4.0,4.0,58.33333199999999,,,,,,,,39.0,0.0,0.717044,0.135498,0.663574,0.164795,0.9121229999999999,-0.416022,-0.09033300000000001,-0.025361,-0.034208999999999996,-0.012256999999999999,,,,,,,,,,,,,,,,,,,,,,,,,,,,,,,,,,,0.0,0.0,1.0,0.0,512.0,0.538612,,,,,,,,,,,,,,,,,,,,,,,,,
19227,1645901503.056996,1645901503.0730321,79.0,0.0,4209.743652,4464.102539,4227.692383,4127.179688,4196.922852000001,16136.0,1.0,15.0,,,,0.0,2.0,1.0,4.0,4.0,4.0,58.33333199999999,,,,,,,,,,,,,,,,,,,,,,,,,,,,,,,,,,,,,,,,,,,,,,,,,,,,,,,,,,,,,,,,,,,,,,,,,,,,,,,,,,,,
19228,1645901503.06481,1645901503.080846,80.0,0.0,4211.794922,4532.820313,4218.461426,4156.410156,4210.256348,450.0,1.0,15.0,,,,0.0,2.0,1.0,4.0,4.0,4.0,58.33333199999999,,,,,,,,40.0,0.0,0.71727,0.135498,0.66333,0.164795,0.9155409999999999,-0.407721,-0.09131,-0.025851999999999997,-0.034109,-0.013424,,,,,,,,,,,,,,,,,,,,,,,,,,,,,,,,,,,,,,,,,,,,,,,,,,,,,,,,,,,,,,,,,
19229,1645901503.072624,1645901503.0885608,81.0,0.0,4234.358886999999,4476.922852000001,4229.230957,4166.666504,4222.563965,450.0,1.0,15.0,,,,0.0,2.0,1.0,4.0,4.0,4.0,58.33333199999999,,,,,,,,,,,,,,,,,,,,,,,,,,,,,,,,,,,,,,,,,,,,,,,,,,,,,,,,,,,,,,,,,,,,,,,,,,,,,,,,,,,,
19230,1645901503.080437,1645901503.096376,82.0,0.0,4251.794922,4473.333496,4230.769043,4143.589844,4207.179688,450.0,1.0,15.0,,,,0.0,2.0,1.0,4.0,4.0,4.0,58.33333199999999,,,,,,,,41.0,0.0,0.717224,0.135742,0.66333,0.164795,0.9131,-0.422858,-0.086427,-0.026295,-0.034116,-0.011398,,,,,,,,,,,,,,,,,,,,,,,,,,,,,,,,,,,0.0,0.0,1.0,0.0,512.0,0.538612,,,,,,,,,,,,,,,,,,,,,,,,,
19231,1645901503.0882509,1645901503.10419,83.0,0.0,4261.538574,4548.205078,4201.538574,4146.153809,4189.230957,16136.0,1.0,15.0,,,,0.0,2.0,1.0,4.0,4.0,4.0,58.33333199999999,,,,,,,,,,,,,,,,,,,,,,,,,,,,,,,,,,,,,,,,,,,,,,,,,,,,,,,,,,,,,,,,,,,,,,,,,,,,,,,,,,,,
19232,1645901503.096065,1645901503.112005,84.0,0.0,4257.94873,4534.358886999999,4197.94873,4154.358886999999,4188.717772999999,450.0,1.0,15.0,,,,0.0,2.0,1.0,4.0,4.0,4.0,58.33333199999999,,,,,,,,42.0,0.0,0.71728,0.135742,0.66333,0.164551,0.918959,-0.427253,-0.067384,-0.026839,-0.034122,-0.012602,,,,,,,,,,,,,,,,,,,,,,,,,,,,,,,,,,,,,,,,,,,,,,,,,,,,,,,,,,,,,,,,,
19233,1645901503.103878,1645901503.1198199,85.0,0.0,4241.025879,4520.512695,4255.897461,4164.615234000001,4191.794922,450.0,1.0,15.0,,,,0.0,2.0,1.0,4.0,4.0,4.0,58.33333199999999,,,,,,,,,,,,,,,,,,,,,,,,,,,,,,,,,,,,,,,,,,,,,,,,,,,,,,,,,,,,,,,,,,,,,,,,,,,,,,,,,,,,
19234,1645901503.111692,1645901503.127634,86.0,0.0,4217.436035,4572.820313,4250.256348,4154.358886999999,4193.333496,450.0,1.0,15.0,,,,0.0,2.0,1.0,4.0,4.0,4.0,58.33333199999999,1.0,16.666666,2.0,0.0,0.0,3.0,3.0,43.0,0.0,0.717234,0.135986,0.66333,0.164551,0.9150530000000001,-0.411627,-0.082521,-0.027426999999999997,-0.034128,-0.013734,1.0,0.0,0.0,,,,,,,,,,,,,,,,,,,,,,,,,,,,,,,,0.0,0.0,1.0,0.0,512.0,0.802583,898.322388,56.278290000000005,27.346504,7.6268460000000005,3.865962,217.827118,78.90696700000001,84.12200899999999,23.623465,17.075441,31.701967,30.940842,12.703566,5.618777,7.872215,15.588161999999999,11.669252,5.545371,5.215129,3.388371,420.30719000000005,21.169716,8.422377000000001,5.146479,2.805422
19235,1645901503.1195061,1645901503.135449,87.0,0.0,4204.615234000001,4524.615234000001,4256.410156,4131.794922,4195.384765999999,16136.0,1.0,15.0,,,,0.0,2.0,1.0,4.0,4.0,4.0,58.33333199999999,,,,,,,,,,,,,,,,,,,,,,,,,,,,,,,,,,,,,,,,,,,,,,,,,,,,,,,,,,,,,,,,,,,,,,,,,,,,,,,,,,,,
19236,1645901503.1273198,1645901503.143264,88.0,0.0,4217.94873,4341.025879,4230.769043,4125.641113000001,4200.512695,450.0,1.0,15.0,,,,0.0,2.0,1.0,4.0,4.0,4.0,58.33333199999999,,,,,,,,44.0,0.0,0.717178,0.135986,0.66333,0.164795,0.9126120000000001,-0.41992799999999997,-0.089357,-0.024733,-0.034182,-0.011677,,,,,,,,,,,,,,,,,,,,,,,,,,,,,,,,,,,,,,,,,,,,,,,,,,,,,,,,,,,,,,,,,
19237,1645901503.135133,1645901503.151078,89.0,0.0,4218.974121,4273.333496,4241.025879,4135.897461,4208.205078,450.0,1.0,15.0,,,,0.0,2.0,1.0,4.0,4.0,4.0,58.33333199999999,,,,,,,,,,,,,,,,,,,,,,,,,,,,,,,,,,,,,,,,,,,,,,,,,,,,,,,,,,,,,,,,,,,,,,,,,,,,,,,,,,,,
19238,1645901503.142947,1645901503.158993,90.0,0.0,4223.077147999999,4348.717772999999,4222.563965,4146.666504,4205.641113000001,450.0,1.0,15.0,,,,0.0,2.0,1.0,4.0,4.0,4.0,58.33333199999999,,,,,,,,45.0,0.0,0.717178,0.135986,0.66333,0.164795,0.9116350000000001,-0.41358100000000003,-0.08984500000000001,-0.025481999999999998,-0.034182,-0.012902,,,,,,,,,,,,,,,,,,,,,,,,,,,,,,,,,,,0.0,0.0,1.0,0.0,512.0,0.802583,,,,,,,,,,,,,,,,,,,,,,,,,
19239,1645901503.150761,1645901503.166807,91.0,0.0,4236.410156,4380.512695,4201.025879,4155.897461,4199.487305,16136.0,1.0,15.0,,,,0.0,2.0,1.0,4.0,4.0,4.0,58.33333199999999,,,,,,,,,,,,,,,,,,,,,,,,,,,,,,,,,,,,,,,,,,,,,,,,,,,,,,,,,,,,,,,,,,,,,,,,,,,,,,,,,,,,
19240,1645901503.158575,1645901503.174622,92.0,0.0,4261.025879,4336.410156,4189.230957,4170.769043,4198.461426,450.0,1.0,15.0,,,,0.0,2.0,1.0,4.0,4.0,4.0,58.33333199999999,,,,,,,,46.0,0.0,0.717121,0.135986,0.66333,0.16503900000000002,0.925307,-0.424811,-0.07910299999999999,-0.026157,-0.034231,-0.014005000000000002,,,,,,,,,,,,,,,,,,,,,,,,,,,,,,,,,,,,,,,,,,,,,,,,,,,,,,,,,,,,,,,,,
19241,1645901503.166388,1645901503.182437,93.0,0.0,4276.922852000001,4316.922852000001,4218.974121,4148.717772999999,4201.025879,450.0,1.0,15.0,,,,0.0,2.0,1.0,4.0,4.0,4.0,58.33333199999999,,,,,,,,,,,,,,,,,,,,,,,,,,,,,,,,,,,,,,,,,,,,,,,,,,,,,,,,,,,,,,,,,,,,,,,,,,,,,,,,,,,,
19242,1645901503.174202,1645901503.1902509,94.0,0.0,4290.256348,4333.333496,4201.025879,4158.461426,4217.436035,450.0,1.0,15.0,,,,0.0,2.0,1.0,4.0,4.0,4.0,58.33333199999999,,,,,,,,47.0,0.0,0.717168,0.135742,0.66333,0.16503900000000002,0.921889,-0.42676400000000003,-0.078126,-0.026764,-0.034323,-0.015046,,,,,,,,,,,,,,,,,,,,,,,,,,,,,,,,,,,0.0,0.0,1.0,0.0,512.0,0.802583,,,,,,,,,,,,,,,,,,,,,,,,,
19243,1645901503.1820161,1645901503.198066,95.0,0.0,4284.615234000001,4327.179688,4180.0,4178.974121,4213.846191,16136.0,1.0,15.0,,,,0.0,2.0,1.0,4.0,4.0,4.0,58.33333199999999,,,,,,,,,,,,,,,,,,,,,,,,,,,,,,,,,,,,,,,,,,,,,,,,,,,,,,,,,,,,,,,,,,,,,,,,,,,,,,,,,,,,
19244,1645901503.1898289,1645901503.205881,96.0,0.0,4272.307617,4323.589844,4206.666504,4168.205078,4209.230957,450.0,1.0,15.0,,,,0.0,2.0,1.0,4.0,4.0,4.0,58.33333199999999,,,,,,,,48.0,0.0,0.717168,0.135742,0.66333,0.16503900000000002,0.909682,-0.428717,-0.084962,-0.027212,-0.034309,-0.015885,,,,,,,,,,,,,,,,,,,,,,,,,,,,,,,,,,,,,,,,,,,,,,,,,,,,,,,,,,,,,,,,,
19245,1645901503.197643,1645901503.2136948,97.0,0.0,4262.563965,4317.436035,4196.922852000001,4151.794922,4208.205078,450.0,1.0,15.0,,,,0.0,2.0,1.0,4.0,4.0,4.0,58.33333199999999,,,,,,,,,,,,,,,,,,,,,,,,,,,,,,,,,,,,,,,,,,,,,,,,,,,,,,,,,,,,,,,,,,,,,,,,,,,,,,,,,,,,
19246,1645901503.205457,1645901503.22151,98.0,0.0,4259.487305,4305.128418,4170.769043,4191.282227000001,4224.102539,450.0,1.0,15.0,,,,0.0,2.0,1.0,4.0,4.0,4.0,58.33333199999999,,,,,,,,49.0,0.0,0.716942,0.135742,0.663574,0.16503900000000002,0.9150530000000001,-0.425788,-0.083497,-0.027665,-0.034296,-0.016590999999999998,,,,,,,,,,,,,,,,,,,,,,,,,,,,,,,,,,,0.0,0.0,1.0,0.0,512.0,0.802583,,,,,,,,,,,,,,,,,,,,,,,,,
19247,1645901503.2132711,1645901503.229325,99.0,0.0,4246.153809,4310.256348,4174.871582,4207.692383,4202.05127,16136.0,1.0,15.0,,,,0.0,2.0,1.0,4.0,4.0,4.0,58.33333199999999,,,,,,,,,,,,,,,,,,,,,,,,,,,,,,,,,,,,,,,,,,,,,,,,,,,,,,,,,,,,,,,,,,,,,,,,,,,,,,,,,,,,
19248,1645901503.2210839,1645901503.237039,100.0,0.0,4229.743652,4312.307617,4189.743652,4171.794922,4185.641113000001,450.0,1.0,15.0,,,,0.0,2.0,1.0,4.0,4.0,4.0,58.33333199999999,,,,,,,,50.0,0.0,0.716988,0.135498,0.663574,0.16503900000000002,0.920424,-0.423346,-0.085451,-0.028120999999999997,-0.034381999999999996,-0.017374,,,,,,,,,,,,,,,,,,,,,,,,,,,,,,,,,,,,,,,,,,,,,,,,,,,,,,,,,,,,,,,,,
19249,1645901503.228898,1645901503.244854,101.0,0.0,4214.358886999999,4275.384765999999,4189.743652,4161.538574,4190.256348,450.0,1.0,15.0,,,,0.0,2.0,1.0,4.0,4.0,4.0,58.33333199999999,,,,,,,,,,,,,,,,,,,,,,,,,,,,,,,,,,,,,,,,,,,,,,,,,,,,,,,,,,,,,,,,,,,,,,,,,,,,,,,,,,,,
19250,1645901503.236712,1645901503.2526689,102.0,0.0,4228.205078,4320.0,4238.974121,4168.205078,4178.974121,450.0,1.0,15.0,,,,0.0,2.0,1.0,4.0,4.0,4.0,58.33333199999999,,,,,,,,51.0,0.0,0.716988,0.135498,0.663574,0.16503900000000002,0.909682,-0.431647,-0.089357,-0.028482999999999998,-0.034411000000000004,-0.018078,1.0,0.0,0.0,,,,,,,,,,,,,,,,,,,,,,,,,,,,,,,,0.0,0.0,1.0,0.0,512.0,1.0,838.884216,52.230804,27.048786,7.7813300000000005,4.234596,208.83381699999998,95.896194,87.102852,25.936272,16.883505,34.952221,34.5093,11.18328,5.768427,9.257454,14.028215,8.695354,6.497893,5.192741000000001,3.797146,389.953888,19.968807,7.9381770000000005,5.057364,3.138909
19251,1645901503.244526,1645901503.260483,103.0,0.0,4249.743652,4373.333496,4241.538574,4152.307617,4166.153809,16136.0,1.0,15.0,,,,0.0,2.0,1.0,4.0,4.0,4.0,58.33333199999999,,,,,,,,,,,,,,,,,,,,,,,,,,,,,,,,,,,,,,,,,,,,,,,,,,,,,,,,,,,,,,,,,,,,,,,,,,,,,,,,,,,,
19252,1645901503.2523391,1645901503.2682981,104.0,0.0,4249.743652,4327.179688,4214.871582,4153.333496,4189.230957,450.0,1.0,15.0,,,,0.0,2.0,1.0,4.0,4.0,4.0,58.33333199999999,,,,,,,,52.0,0.0,0.716942,0.135742,0.663574,0.16503900000000002,0.9150530000000001,-0.425788,-0.083497,-0.028906,-0.034339,-0.015538,,,,,,,,,,,,,,,,,,,,,,,,,,,,,,,,,,,,,,,,,,,,,,,,,,,,,,,,,,,,,,,,,
19253,1645901503.2601528,1645901503.276113,105.0,0.0,4244.102539,4353.846191,4207.692383,4161.538574,4229.230957,450.0,1.0,15.0,,,,0.0,2.0,1.0,4.0,4.0,4.0,58.33333199999999,,,,,,,,,,,,,,,,,,,,,,,,,,,,,,,,,,,,,,,,,,,,,,,,,,,,,,,,,,,,,,,,,,,,,,,,,,,,,,,,,,,,
19254,1645901503.267967,1645901503.283927,106.0,0.0,4251.794922,4432.307617,4246.153809,4134.358886999999,4226.153809,450.0,1.0,15.0,,,,0.0,2.0,1.0,4.0,4.0,4.0,58.33333199999999,,,,,,,,53.0,0.0,0.716988,0.135498,0.663574,0.16503900000000002,0.909682,-0.431647,-0.089357,-0.029189,-0.034372,-0.016425,,,,,,,,,,,,,,,,,,,,,,,,,,,,,,,,,,,0.0,0.0,1.0,0.0,512.0,1.0,,,,,,,,,,,,,,,,,,,,,,,,,
19255,1645901503.2757812,1645901503.291742,107.0,0.0,4275.384765999999,4393.846191,4209.743652,4109.230957,4224.615234000001,16136.0,1.0,15.0,,,,0.0,2.0,1.0,4.0,4.0,4.0,58.33333199999999,,,,,,,,,,,,,,,,,,,,,,,,,,,,,,,,,,,,,,,,,,,,,,,,,,,,,,,,,,,,,,,,,,,,,,,,,,,,,,,,,,,,
19256,1645901503.283594,1645901503.2996562,108.0,0.0,4263.077147999999,4278.461426,4233.333496,4134.871582,4237.436035,450.0,1.0,15.0,,,,0.0,2.0,1.0,4.0,4.0,4.0,58.33333199999999,,,,,,,,54.0,0.0,0.717044,0.135498,0.663574,0.164795,0.9155409999999999,-0.42090500000000003,-0.086427,-0.029591000000000003,-0.034352999999999995,-0.017175,,,,,,,,,,,,,,,,,,,,,,,,,,,,,,,,,,,,,,,,,,,,,,,,,,,,,,,,,,,,,,,,,
19257,1645901503.291408,1645901503.307471,109.0,0.0,4265.641113000001,4265.128418,4253.333496,4169.230957,4252.820313,450.0,1.0,15.0,,,,0.0,2.0,1.0,4.0,4.0,4.0,58.33333199999999,,,,,,,,,,,,,,,,,,,,,,,,,,,,,,,,,,,,,,,,,,,,,,,,,,,,,,,,,,,,,,,,,,,,,,,,,,,,,,,,,,,,
19258,1645901503.299222,1645901503.315286,110.0,0.0,4276.922852000001,4321.538574,4222.563965,4156.922852000001,4240.0,450.0,1.0,15.0,,,,0.0,2.0,1.0,4.0,4.0,4.0,58.33333199999999,,,,,,,,55.0,0.0,0.7168640000000001,0.13525399999999999,0.663818,0.164795,0.909682,-0.39649,-0.082521,-0.029708,-0.034384,-0.01785,,,,,,,,,,,,,,,,,,,,,,,,,,,,,,,,,,,0.0,0.0,1.0,0.0,512.0,1.0,,,,,,,,,,,,,,,,,,,,,,,,,
19259,1645901503.307036,1645901503.3231,111.0,0.0,4290.256348,4331.282227000001,4189.743652,4138.974121,4227.692383,16136.0,1.0,15.0,,,,0.0,2.0,1.0,4.0,4.0,4.0,58.33333199999999,,,,,,,,,,,,,,,,,,,,,,,,,,,,,,,,,,,,,,,,,,,,,,,,,,,,,,,,,,,,,,,,,,,,,,,,,,,,,,,,,,,,
19260,1645901503.3148491,1645901503.330915,112.0,0.0,4294.871582,4315.897461,4182.563965,4123.589844,4223.077147999999,450.0,1.0,15.0,,,,0.0,2.0,1.0,4.0,4.0,4.0,58.33333199999999,,,,,,,,56.0,0.0,0.7168640000000001,0.13525399999999999,0.663818,0.164795,0.901869,-0.415045,-0.084962,-0.029911,-0.034315,-0.015333000000000001,,,,,,,,,,,,,,,,,,,,,,,,,,,,,,,,,,,,,,,,,,,,,,,,,,,,,,,,,,,,,,,,,
19261,1645901503.322663,1645901503.33873,113.0,0.0,4310.769043,4307.692383,4154.871582,4133.846191,4229.230957,450.0,1.0,15.0,,,,0.0,2.0,1.0,4.0,4.0,4.0,58.33333199999999,,,,,,,,,,,,,,,,,,,,,,,,,,,,,,,,,,,,,,,,,,,,,,,,,,,,,,,,,,,,,,,,,,,,,,,,,,,,,,,,,,,,
19262,1645901503.330477,1645901503.346544,114.0,0.0,4295.384765999999,4323.589844,4163.589844,4141.025879,4220.512695,450.0,1.0,15.0,,,,0.0,2.0,1.0,4.0,4.0,4.0,58.33333199999999,,,,,,,,57.0,0.0,0.71691,0.13501,0.663818,0.164795,0.9150530000000001,-0.408698,-0.07715,-0.026969,-0.03435,-0.016046,,,,,,,,,,,,,,,,,,,,,,,,,,,,,,,,,,,0.0,0.0,1.0,0.0,512.0,1.0,,,,,,,,,,,,,,,,,,,,,,,,,
19263,1645901503.338291,1645901503.354359,115.0,0.0,4276.922852000001,4361.538574,4229.743652,4148.205078,4216.922852000001,16136.0,1.0,15.0,,,,0.0,2.0,1.0,4.0,4.0,4.0,58.33333199999999,,,,,,,,,,,,,,,,,,,,,,,,,,,,,,,,,,,,,,,,,,,,,,,,,,,,,,,,,,,,,,,,,,,,,,,,,,,,,,,,,,,,
19264,1645901503.346104,1645901503.362174,116.0,0.0,4286.666504,4365.128418,4254.358886999999,4144.615234000001,4209.743652,450.0,1.0,15.0,,,,0.0,2.0,1.0,4.0,4.0,4.0,58.33333199999999,,,,,,,,58.0,0.0,0.71673,0.134766,0.664063,0.164795,0.9087049999999999,-0.41065100000000004,-0.082521,-0.027495,-0.034332999999999995,-0.01366,,,,,,,,,,,,,,,,,,,,,,,,,,,,,,,,,,,,,,,,,,,,,,,,,,,,,,,,,,,,,,,,,
19265,1645901503.353918,1645901503.3699882,117.0,0.0,4280.0,4295.897461,4273.846191,4150.769043,4209.230957,450.0,1.0,15.0,,,,0.0,2.0,1.0,4.0,4.0,4.0,58.33333199999999,,,,,,,,,,,,,,,,,,,,,,,,,,,,,,,,,,,,,,,,,,,,,,,,,,,,,,,,,,,,,,,,,,,,,,,,,,,,,,,,,,,,
19266,1645901503.361732,1645901503.377703,118.0,0.0,4257.94873,4226.666504,4245.128418,4158.974121,4215.384765999999,450.0,1.0,15.0,,,,0.0,2.0,1.0,4.0,4.0,4.0,58.33333199999999,,,,,,,,59.0,0.0,0.71673,0.134766,0.664063,0.164795,0.922866,-0.41651000000000005,-0.07324299999999999,-0.024794,-0.034269,-0.014687,1.0,0.0,0.0,,,,,,,,,,,,,,,,,,,,,,,,,,,,,,,,0.0,0.0,1.0,0.0,512.0,1.0,695.2512820000001,44.654266,24.789639,7.3766929999999995,4.320481,182.945358,110.087898,83.76149699999999,27.393897999999997,16.832617000000003,40.00795,39.264599,9.962233,5.789217,10.502808,13.314929999999999,7.043742999999999,7.426914,4.945857,4.148853,318.569183,16.901585,7.25663,4.577159,3.2897300000000005
19267,1645901503.369545,1645901503.385518,119.0,0.0,4272.820313,4222.05127,4206.153809,4124.102539,4221.025879,16136.0,1.0,15.0,,,,0.0,2.0,1.0,4.0,4.0,4.0,58.33333199999999,,,,,,,,,,,,,,,,,,,,,,,,,,,,,,,,,,,,,,,,,,,,,,,,,,,,,,,,,,,,,,,,,,,,,,,,,,,,,,,,,,,,
19268,1645901503.377359,1645901503.393332,120.0,0.0,4292.820313,4216.922852000001,4200.512695,4084.615479,4214.871582,450.0,1.0,15.0,,,,0.0,2.0,1.0,4.0,4.0,4.0,58.33333199999999,,,,,,,,60.0,0.0,0.716776,0.134521,0.664063,0.164795,0.917494,-0.421393,-0.082521,-0.025537,-0.034211,-0.015512999999999999,,,,,,,,,,,,,,,,,,,,,,,,,,,,,,,,,,,,,,,,,,,,,,,,,,,,,,,,,,,,,,,,,
19269,1645901503.385173,1645901503.4011471,121.0,0.0,4281.025879,4280.0,4257.94873,4116.922852000001,4212.307617,450.0,1.0,15.0,,,,0.0,2.0,1.0,4.0,4.0,4.0,58.33333199999999,,,,,,,,,,,,,,,,,,,,,,,,,,,,,,,,,,,,,,,,,,,,,,,,,,,,,,,,,,,,,,,,,,,,,,,,,,,,,,,,,,,,
19270,1645901503.392987,1645901503.408962,122.0,0.0,4270.256348,4381.025879,4270.769043,4172.820313,4243.077147999999,450.0,1.0,15.0,,,,0.0,2.0,1.0,4.0,4.0,4.0,58.33333199999999,,,,,,,,61.0,0.0,0.71673,0.134766,0.664063,0.164795,0.917983,-0.410163,-0.087404,-0.026157,-0.03416,-0.016257,,,,,,,,,,,,,,,,,,,,,,,,,,,,,,,,,,,0.0,0.0,1.0,0.0,512.0,1.0,,,,,,,,,,,,,,,,,,,,,,,,,
19271,1645901503.4008,1645901503.416776,123.0,0.0,4275.384765999999,4344.615234000001,4257.94873,4150.769043,4247.692383,16136.0,1.0,15.0,,,,0.0,2.0,1.0,4.0,4.0,4.0,58.33333199999999,,,,,,,,,,,,,,,,,,,,,,,,,,,,,,,,,,,,,,,,,,,,,,,,,,,,,,,,,,,,,,,,,,,,,,,,,,,,,,,,,,,,
19272,1645901503.4086142,1645901503.424591,124.0,0.0,4284.102539,4261.025879,4233.846191,4117.94873,4241.538574,450.0,1.0,15.0,,,,0.0,2.0,1.0,4.0,4.0,4.0,58.33333199999999,,,,,,,,62.0,0.0,0.71673,0.134766,0.664063,0.164795,0.9160299999999999,-0.41944,-0.08203300000000001,-0.026716000000000004,-0.034113,-0.017023,,,,,,,,,,,,,,,,,,,,,,,,,,,,,,,,,,,,,,,,,,,,,,,,,,,,,,,,,,,,,,,,,
19273,1645901503.4164279,1645901503.432406,125.0,0.0,4271.282227000001,4291.282227000001,4221.538574,4135.897461,4240.512695,450.0,1.0,15.0,,,,0.0,2.0,1.0,4.0,4.0,4.0,58.33333199999999,,,,,,,,,,,,,,,,,,,,,,,,,,,,,,,,,,,,,,,,,,,,,,,,,,,,,,,,,,,,,,,,,,,,,,,,,,,,,,,,,,,,
19274,1645901503.424242,1645901503.4402199,126.0,0.0,4263.077147999999,4323.077147999999,4168.717772999999,4157.436035,4256.922852000001,450.0,1.0,15.0,,,,0.0,2.0,1.0,4.0,4.0,4.0,58.33333199999999,,,,,,,,63.0,0.0,0.71691,0.13501,0.663818,0.164795,0.918959,-0.420417,-0.07128999999999999,-0.027169,-0.034168000000000004,-0.014491,,,,,,,,,,,,,,,,,,,,,,,,,,,,,,,,,,,0.0,0.0,1.0,0.0,512.0,1.0,,,,,,,,,,,,,,,,,,,,,,,,,
19275,1645901503.432055,1645901503.448035,127.0,0.0,4260.512695,4260.512695,4160.512695,4160.512695,4262.563965,233.0,1.0,15.0,,,,0.0,2.0,1.0,4.0,4.0,4.0,58.33333199999999,,,,,,,,,,,,,,,,,,,,,,,,,,,,,,,,,,,,,,,,,,,,,,,,,,,,,,,,,,,,,,,,,,,,,,,,,,,,,,,,,,,,
19276,1645901503.439869,1645901503.45575,0.0,0.0,4257.94873,4241.538574,4218.461426,4167.692383,4280.512695,450.0,1.0,15.0,,,,0.0,4.0,1.0,4.0,4.0,4.0,75.0,,,,,,,,0.0,0.0,0.71691,0.13501,0.663818,0.164795,0.8994280000000001,-0.412116,-0.072755,-0.024501,-0.034023000000000005,-0.015386000000000002,,,,,,,,,,,,,,,,,,,,,,,,,,,,,,,,,,,,,,,,,,,,,,,,,,,,,,,,,,,,,,,,,
19277,1645901503.447683,1645901503.4635642,1.0,0.0,4242.563965,4294.871582,4238.461426,4149.230957,4268.717772999999,450.0,1.0,15.0,,,,0.0,4.0,1.0,4.0,4.0,4.0,75.0,,,,,,,,,,,,,,,,,,,,,,,,,,,,,,,,,,,,,,,,,,,,,,,,,,,,,,,,,,,,,,,,,,,,,,,,,,,,,,,,,,,,
19278,1645901503.455496,1645901503.4713788,2.0,0.0,4264.615234000001,4322.563965,4224.102539,4136.922852000001,4244.102539,16124.0,1.0,15.0,,,,0.0,4.0,1.0,4.0,4.0,4.0,75.0,,,,,,,,1.0,0.0,0.71691,0.13501,0.663818,0.164795,0.914076,-0.422858,-0.080079,-0.025176,-0.034039,-0.01624,,,,,,,,,,,,,,,,,,,,,,,,,,,,,,,,,,,0.0,0.0,1.0,0.0,512.0,1.0,,,,,,,,,,,,,,,,,,,,,,,,,
19279,1645901503.46331,1645901503.479193,3.0,0.0,4276.410156,4303.589844,4247.692383,4135.384765999999,4243.589844,450.0,1.0,15.0,,,,0.0,4.0,1.0,4.0,4.0,4.0,75.0,,,,,,,,,,,,,,,,,,,,,,,,,,,,,,,,,,,,,,,,,,,,,,,,,,,,,,,,,,,,,,,,,,,,,,,,,,,,,,,,,,,,
19280,1645901503.471124,1645901503.487008,4.0,0.0,4267.179688,4290.256348,4243.589844,4148.717772999999,4267.692383,115.0,1.0,15.0,,,,0.0,4.0,1.0,4.0,4.0,4.0,75.0,,,,,,,,2.0,0.0,0.717192,0.13501,0.663574,0.164551,0.9116350000000001,-0.41651000000000005,-0.083497,-0.025832,-0.034004,-0.017106,,,,,,,,,,,,,,,,,,,,,,,,,,,,,,,,,,,,,,,,,,,,,,,,,,,,,,,,,,,,,,,,,
19281,1645901503.478938,1645901503.494823,5.0,0.0,4271.794922,4271.282227000001,4182.05127,4173.333496,4257.94873,450.0,1.0,15.0,,,,0.0,4.0,1.0,4.0,4.0,4.0,75.0,,,,,,,,,,,,,,,,,,,,,,,,,,,,,,,,,,,,,,,,,,,,,,,,,,,,,,,,,,,,,,,,,,,,,,,,,,,,,,,,,,,,
19282,1645901503.486751,1645901503.502637,6.0,0.0,4284.102539,4265.641113000001,4239.487305,4176.410156,4212.307617,16328.0,1.0,15.0,,,,0.0,4.0,1.0,4.0,4.0,4.0,75.0,,,,,,,,3.0,0.0,0.717192,0.13501,0.663574,0.164551,0.917494,-0.431159,-0.08203300000000001,-0.026423000000000002,-0.034022000000000004,-0.014613999999999999,1.0,0.0,0.0,,,,,,,,,,,,,,,,,,,,,,,,,,,,,,,,0.0,0.0,1.0,0.0,512.0,1.0,505.04840099999996,35.971714,21.201572,6.479928,4.0787889999999996,153.426132,117.9515,75.07384499999999,27.433025,16.867891,44.998375,43.638626,9.401299,5.664414,11.143738,13.592844,6.731942,8.072008,4.393827,4.328991,226.28443900000002,12.938381,6.576611,3.8641690000000004,3.199632
19283,1645901503.494565,1645901503.510452,7.0,0.0,4280.0,4257.94873,4244.615234000001,4130.256348,4196.410156,450.0,1.0,15.0,,,,0.0,4.0,1.0,4.0,4.0,4.0,75.0,,,,,,,,,,,,,,,,,,,,,,,,,,,,,,,,,,,,,,,,,,,,,,,,,,,,,,,,,,,,,,,,,,,,,,,,,,,,,,,,,,,,
19284,1645901503.502379,1645901503.518367,8.0,0.0,4272.307617,4241.025879,4203.077147999999,4127.692383,4217.436035,450.0,1.0,15.0,,,,0.0,4.0,1.0,4.0,2.0,4.0,58.33333199999999,,,,,,,,4.0,0.0,0.717418,0.13501,0.66333,0.164551,0.91017,-0.423346,-0.087892,-0.026906,-0.034038,-0.015544999999999998,,,,,,,,,,,,,,,,,,,,,,,,,,,,,,,,,,,,,,,,,,,,,,,,,,,,,,,,,,,,,,,,,
19285,1645901503.5101929,1645901503.526181,9.0,0.0,4290.256348,4215.897461,4221.538574,4181.538574,4231.282227000001,261.0,1.0,15.0,,,,0.0,4.0,1.0,4.0,2.0,4.0,58.33333199999999,,,,,,,,,,,,,,,,,,,,,,,,,,,,,,,,,,,,,,,,,,,,,,,,,,,,,,,,,,,,,,,,,,,,,,,,,,,,,,,,,,,,
19286,1645901503.518006,1645901503.534096,10.0,0.0,4285.641113000001,4200.0,4270.256348,4178.974121,4235.384765999999,450.0,1.0,15.0,,,,0.0,4.0,1.0,4.0,2.0,2.0,41.666668,,,,,,,,5.0,0.0,0.717418,0.13501,0.66333,0.164551,0.9209129999999999,-0.42627600000000004,-0.08984500000000001,-0.027438,-0.034052,-0.013112,,,,,,,,,,,,,,,,,,,,,,,,,,,,,,,,,,,0.0,0.0,1.0,0.0,512.0,1.0,,,,,,,,,,,,,,,,,,,,,,,,,
19287,1645901503.52582,1645901503.54191,11.0,0.0,4286.666504,4230.256348,4192.307617,4145.128418,4242.563965,320.0,1.0,15.0,,,,0.0,4.0,1.0,4.0,2.0,2.0,41.666668,,,,,,,,,,,,,,,,,,,,,,,,,,,,,,,,,,,,,,,,,,,,,,,,,,,,,,,,,,,,,,,,,,,,,,,,,,,,,,,,,,,,
19288,1645901503.533634,1645901503.549825,12.0,0.0,4301.538574,4270.769043,4190.769043,4133.333496,4229.743652,450.0,1.0,15.0,,,,0.0,4.0,1.0,4.0,2.0,2.0,41.666668,,,,,,,,6.0,0.0,0.717474,0.13501,0.66333,0.16430699999999998,0.925795,-0.406256,-0.08838,-0.027917,-0.034016000000000005,-0.014242,,,,,,,,,,,,,,,,,,,,,,,,,,,,,,,,,,,,,,,,,,,,,,,,,,,,,,,,,,,,,,,,,
19289,1645901503.541448,1645901503.55764,13.0,0.0,4325.128418,4277.436035,4239.487305,4141.025879,4219.487305,450.0,1.0,15.0,,,,0.0,4.0,1.0,4.0,2.0,2.0,41.666668,,,,,,,,,,,,,,,,,,,,,,,,,,,,,,,,,,,,,,,,,,,,,,,,,,,,,,,,,,,,,,,,,,,,,,,,,,,,,,,,,,,,
19290,1645901503.5492609,1645901503.565454,14.0,0.0,4327.692383,4255.384765999999,4220.512695,4139.487305,4237.94873,450.0,1.0,15.0,,,,0.0,4.0,1.0,4.0,2.0,2.0,41.666668,,,,,,,,7.0,0.0,0.7175199999999999,0.134766,0.66333,0.16430699999999998,0.9126120000000001,-0.41406899999999996,-0.08838,-0.02825,-0.034081,-0.012086,,,,,,,,,,,,,,,,,,,,,,,,,,,,,,,,,,,0.0,0.0,1.0,0.0,512.0,1.0,,,,,,,,,,,,,,,,,,,,,,,,,
19291,1645901503.557075,1645901503.573269,15.0,0.0,4328.205078,4225.641113000001,4181.538574,4158.461426,4253.846191,320.0,1.0,15.0,,,,0.0,4.0,1.0,4.0,2.0,2.0,41.666668,,,,,,,,,,,,,,,,,,,,,,,,,,,,,,,,,,,,,,,,,,,,,,,,,,,,,,,,,,,,,,,,,,,,,,,,,,,,,,,,,,,,
19292,1645901503.564889,1645901503.581084,16.0,0.0,4312.820313,4202.563965,4180.0,4163.077147999999,4217.94873,0.0,1.0,15.0,,,,0.0,4.0,1.0,4.0,2.0,2.0,41.666668,,,,,,,,8.0,0.0,0.7175199999999999,0.134766,0.66333,0.16430699999999998,0.914565,-0.42090500000000003,-0.08203300000000001,-0.028648000000000003,-0.034042,-0.013318,,,,,,,,,,,,,,,,,,,,,,,,,,,,,,,,,,,,,,,,,,,,,,,,,,,,,,,,,,,,,,,,,
19293,1645901503.572703,1645901503.588898,17.0,0.0,4295.384765999999,4210.256348,4161.025879,4155.384765999999,4219.487305,0.0,1.0,15.0,,,,0.0,4.0,1.0,4.0,2.0,2.0,41.666668,,,,,,,,,,,,,,,,,,,,,,,,,,,,,,,,,,,,,,,,,,,,,,,,,,,,,,,,,,,,,,,,,,,,,,,,,,,,,,,,,,,,
19294,1645901503.580516,1645901503.596713,18.0,0.0,4297.436035,4246.666504,4158.461426,4162.563965,4244.615234000001,0.0,1.0,15.0,,,,0.0,4.0,1.0,4.0,2.0,2.0,41.666668,,,,,,,,9.0,0.0,0.717622,0.134521,0.66333,0.16406300000000001,0.910658,-0.417975,-0.09424,-0.029006,-0.034056,-0.014379,,,,,,,,,,,,,,,,,,,,,,,,,,,,,,,,,,,0.0,0.0,1.0,0.0,512.0,1.0,,,,,,,,,,,,,,,,,,,,,,,,,
19295,1645901503.58833,1645901503.6044278,19.0,0.0,4317.94873,4313.333496,4210.769043,4174.871582,4244.102539,0.0,1.0,15.0,,,,0.0,4.0,1.0,4.0,2.0,2.0,41.666668,,,,,,,,,,,,,,,,,,,,,,,,,,,,,,,,,,,,,,,,,,,,,,,,,,,,,,,,,,,,,,,,,,,,,,,,,,,,,,,,,,,,
19296,1645901503.596144,1645901503.612242,20.0,0.0,4305.128418,4338.461426,4224.102539,4144.102539,4233.846191,0.0,1.0,15.0,,,,0.0,4.0,1.0,4.0,2.0,2.0,41.666668,,,,,,,,10.0,0.0,0.717566,0.134521,0.66333,0.16430699999999998,0.921401,-0.41406899999999996,-0.086427,-0.029230000000000003,-0.033971,-0.015285,,,,,,,,,,,,,,,,,,,,,,,,,,,,,,,,,,,,,,,,,,,,,,,,,,,,,,,,,,,,,,,,,
19297,1645901503.603958,1645901503.620057,21.0,0.0,4300.0,4312.820313,4233.846191,4094.8718259999996,4248.205078,0.0,1.0,15.0,,,,0.0,4.0,1.0,4.0,2.0,2.0,41.666668,,,,,,,,,,,,,,,,,,,,,,,,,,,,,,,,,,,,,,,,,,,,,,,,,,,,,,,,,,,,,,,,,,,,,,,,,,,,,,,,,,,,
19298,1645901503.611771,1645901503.627872,22.0,0.0,4341.025879,4306.153809,4270.769043,4078.461426,4258.461426,0.0,1.0,15.0,,,,0.0,4.0,1.0,4.0,2.0,2.0,41.666668,1.0,16.666666,1.0,1.0,0.0,2.0,2.0,11.0,0.0,0.717622,0.134521,0.66333,0.16406300000000001,0.914076,-0.411627,-0.086427,-0.029481,-0.033943,-0.013073,1.0,0.0,0.0,,,,,,,,,,,,,,,,,,,,,,,,,,,,,,,,0.0,0.0,1.0,0.0,512.0,0.952808,318.958435,28.252670000000002,17.087,5.274253,3.557686,133.937881,117.175156,63.868404000000005,26.11042,16.924501,47.869587,45.978832000000004,9.468678,5.460121,10.871476,14.601207,7.256277000000001,8.230417,3.6395150000000003,4.268064,138.075287,9.325978,6.0561419999999995,3.09501,2.884311
19299,1645901503.619585,1645901503.635686,23.0,0.0,4371.794922,4290.256348,4281.538574,4123.077147999999,4263.077147999999,0.0,1.0,15.0,,,,0.0,4.0,1.0,4.0,2.0,2.0,41.666668,,,,,,,,,,,,,,,,,,,,,,,,,,,,,,,,,,,,,,,,,,,,,,,,,,,,,,,,,,,,,,,,,,,,,,,,,,,,,,,,,,,,
19300,1645901503.627399,1645901503.643501,24.0,0.0,4367.692383,4276.922852000001,4194.871582,4143.589844,4291.282227000001,0.0,1.0,15.0,,,,0.0,4.0,1.0,4.0,2.0,2.0,41.666668,,,,,,,,12.0,0.0,0.717566,0.134521,0.66333,0.16430699999999998,0.914076,-0.42627600000000004,-0.086427,-0.029657999999999997,-0.034015,-0.014207,,,,,,,,,,,,,,,,,,,,,,,,,,,,,,,,,,,,,,,,,,,,,,,,,,,,,,,,,,,,,,,,,
19301,1645901503.635212,1645901503.651315,25.0,0.0,4384.102539,4347.179688,4218.974121,4112.820313,4299.487305,0.0,1.0,15.0,,,,0.0,4.0,1.0,4.0,2.0,2.0,41.666668,,,,,,,,,,,,,,,,,,,,,,,,,,,,,,,,,,,,,,,,,,,,,,,,,,,,,,,,,,,,,,,,,,,,,,,,,,,,,,,,,,,,
19302,1645901503.6430259,1645901503.65913,26.0,0.0,4417.94873,4353.333496,4295.384765999999,4130.769043,4282.05127,0.0,1.0,15.0,,,,0.0,4.0,1.0,4.0,2.0,2.0,41.666668,,,,,,,,13.0,0.0,0.717622,0.134521,0.66333,0.16406300000000001,0.922866,-0.41944,-0.06640700000000001,-0.029866000000000004,-0.034032,-0.015179,,,,,,,,,,,,,,,,,,,,,,,,,,,,,,,,,,,0.0,0.0,1.0,0.0,512.0,0.952808,,,,,,,,,,,,,,,,,,,,,,,,,
19303,1645901503.65084,1645901503.666945,27.0,0.0,4389.230957,4263.077147999999,4278.461426,4176.922852000001,4255.897461,0.0,1.0,15.0,,,,0.0,4.0,1.0,4.0,2.0,2.0,41.666668,,,,,,,,,,,,,,,,,,,,,,,,,,,,,,,,,,,,,,,,,,,,,,,,,,,,,,,,,,,,,,,,,,,,,,,,,,,,,,,,,,,,
19304,1645901503.658654,1645901503.674859,28.0,0.0,4365.128418,4280.0,4178.461426,4146.153809,4269.230957,0.0,1.0,15.0,,,,0.0,4.0,1.0,4.0,2.0,2.0,41.666668,,,,,,,,14.0,0.0,0.717441,0.134277,0.663574,0.16406300000000001,0.9052870000000001,-0.408209,-0.079591,-0.030052999999999996,-0.033998,-0.012929,,,,,,,,,,,,,,,,,,,,,,,,,,,,,,,,,,,,,,,,,,,,,,,,,,,,,,,,,,,,,,,,,
19305,1645901503.666467,1645901503.682674,29.0,0.0,4372.307617,4288.205078,4187.692383,4088.205078,4287.179688,0.0,1.0,15.0,,,,0.0,4.0,1.0,4.0,2.0,2.0,41.666668,,,,,,,,,,,,,,,,,,,,,,,,,,,,,,,,,,,,,,,,,,,,,,,,,,,,,,,,,,,,,,,,,,,,,,,,,,,,,,,,,,,,
19306,1645901503.6742811,1645901503.690489,30.0,0.0,4376.922852000001,4198.974121,4201.538574,4114.358886999999,4277.94873,0.0,1.0,15.0,,,,0.0,4.0,1.0,4.0,2.0,2.0,41.666668,,,,,,,,15.0,0.0,0.717667,0.134277,0.66333,0.16406300000000001,0.9160299999999999,-0.41992799999999997,-0.08838,-0.030271,-0.033967000000000004,-0.010903,,,,,,,,,,,,,,,,,,,,,,,,,,,,,,,,,,,0.0,0.0,1.0,0.0,512.0,0.952808,,,,,,,,,,,,,,,,,,,,,,,,,
19307,1645901503.6820948,1645901503.6982028,31.0,0.0,4365.128418,4225.128418,4192.307617,4138.461426,4264.102539,0.0,1.0,15.0,,,,0.0,4.0,1.0,4.0,2.0,2.0,41.666668,,,,,,,,,,,,,,,,,,,,,,,,,,,,,,,,,,,,,,,,,,,,,,,,,,,,,,,,,,,,,,,,,,,,,,,,,,,,,,,,,,,,
19308,1645901503.689908,1645901503.706018,32.0,0.0,4376.410156,4273.333496,4215.897461,4126.153809,4299.487305,0.0,1.0,15.0,,,,0.0,4.0,1.0,4.0,2.0,2.0,41.666668,,,,,,,,16.0,0.0,0.717622,0.134521,0.66333,0.16406300000000001,0.922866,-0.41944,-0.06640700000000001,-0.030369,-0.034086,-0.009081,,,,,,,,,,,,,,,,,,,,,,,,,,,,,,,,,,,,,,,,,,,,,,,,,,,,,,,,,,,,,,,,,
19309,1645901503.697722,1645901503.713833,33.0,0.0,4376.922852000001,4231.282227000001,4221.025879,4103.077147999999,4306.153809,0.0,1.0,15.0,,,,0.0,4.0,1.0,4.0,2.0,2.0,41.666668,,,,,,,,,,,,,,,,,,,,,,,,,,,,,,,,,,,,,,,,,,,,,,,,,,,,,,,,,,,,,,,,,,,,,,,,,,,,,,,,,,,,
19310,1645901503.705536,1645901503.721647,34.0,0.0,4379.487305,4282.563965,4187.179688,4108.205078,4281.025879,0.0,1.0,15.0,,,,0.0,4.0,1.0,4.0,2.0,2.0,41.666668,,,,,,,,17.0,0.0,0.717667,0.134277,0.66333,0.16406300000000001,0.9160299999999999,-0.41992799999999997,-0.08838,-0.030555000000000002,-0.034047,-0.00744,,,,,,,,,,,,,,,,,,,,,,,,,,,,,,,,,,,0.0,0.0,1.0,0.0,512.0,0.952808,,,,,,,,,,,,,,,,,,,,,,,,,
19311,1645901503.71335,1645901503.729462,35.0,0.0,4371.794922,4314.871582,4195.897461,4135.384765999999,4283.077147999999,0.0,1.0,15.0,,,,0.0,4.0,1.0,4.0,2.0,2.0,41.666668,,,,,,,,,,,,,,,,,,,,,,,,,,,,,,,,,,,,,,,,,,,,,,,,,,,,,,,,,,,,,,,,,,,,,,,,,,,,,,,,,,,,
19312,1645901503.721163,1645901503.737277,36.0,0.0,4347.179688,4230.256348,4282.563965,4164.102539,4312.820313,0.0,1.0,15.0,,,,0.0,4.0,1.0,4.0,2.0,2.0,41.666668,,,,,,,,18.0,0.0,0.717723,0.134277,0.66333,0.16381800000000002,0.922377,-0.41992799999999997,-0.098634,-0.027548000000000003,-0.03406,-0.009089,,,,,,,,,,,,,,,,,,,,,,,,,,,,,,,,,,,,,,,,,,,,,,,,,,,,,,,,,,,,,,,,,
19313,1645901503.728977,1645901503.745091,37.0,0.0,4324.102539,4275.384765999999,4304.615234000001,4157.436035,4297.94873,0.0,1.0,15.0,,,,0.0,4.0,1.0,4.0,2.0,2.0,41.666668,,,,,,,,,,,,,,,,,,,,,,,,,,,,,,,,,,,,,,,,,,,,,,,,,,,,,,,,,,,,,,,,,,,,,,,,,,,,,,,,,,,,
19314,1645901503.7367911,1645901503.752906,38.0,0.0,4316.410156,4353.846191,4256.410156,4144.615234000001,4269.743652,0.0,1.0,15.0,,,,0.0,4.0,1.0,4.0,2.0,2.0,41.666668,,,,,,,,19.0,0.0,0.717723,0.134277,0.66333,0.16381800000000002,0.9052870000000001,-0.42090500000000003,-0.08447400000000001,-0.027967000000000002,-0.03417,-0.010523999999999999,1.0,0.0,0.0,,,,,,,,,,,,,,,,,,,,,,,,,,,,,,,,0.0,0.0,1.0,0.0,512.0,0.78779,172.306183,22.745983,13.15445,3.993933,2.88056,129.212219,107.64899399999999,53.503085999999996,24.091585000000002,16.931156,47.328205,45.280556,9.754542,5.378649,9.706669,15.679015,7.877297,7.828388,2.934361,3.987114,70.814636,6.984042999999999,5.7224010000000005,2.4152139999999997,2.435568
19315,1645901503.744605,1645901503.76082,39.0,0.0,4311.282227000001,4190.769043,4214.358886999999,4146.666504,4271.282227000001,0.0,1.0,15.0,,,,0.0,4.0,1.0,4.0,2.0,2.0,41.666668,,,,,,,,,,,,,,,,,,,,,,,,,,,,,,,,,,,,,,,,,,,,,,,,,,,,,,,,,,,,,,,,,,,,,,,,,,,,,,,,,,,,
19316,1645901503.752418,1645901503.768635,40.0,0.0,4328.717772999999,4126.666504,4272.820313,4146.153809,4256.410156,0.0,1.0,15.0,,,,0.0,4.0,1.0,4.0,2.0,2.0,41.666668,,,,,,,,20.0,0.0,0.717723,0.134277,0.66333,0.16381800000000002,0.9004040000000001,-0.41895200000000005,-0.08447400000000001,-0.028294999999999997,-0.034171,-0.008787999999999999,,,,,,,,,,,,,,,,,,,,,,,,,,,,,,,,,,,,,,,,,,,,,,,,,,,,,,,,,,,,,,,,,
19317,1645901503.760232,1645901503.77645,41.0,0.0,4356.410156,4343.077147999999,4280.512695,4128.717772999999,4241.538574,0.0,1.0,15.0,,,,0.0,4.0,1.0,4.0,2.0,2.0,41.666668,,,,,,,,,,,,,,,,,,,,,,,,,,,,,,,,,,,,,,,,,,,,,,,,,,,,,,,,,,,,,,,,,,,,,,,,,,,,,,,,,,,,
19318,1645901503.7680461,1645901503.784264,42.0,0.0,4350.769043,4410.256348,4253.846191,4100.0,4268.717772999999,0.0,1.0,15.0,,,,0.0,4.0,1.0,4.0,2.0,2.0,41.666668,,,,,,,,21.0,0.0,0.717677,0.134521,0.66333,0.16381800000000002,0.9131,-0.41260399999999997,-0.076173,-0.028737000000000002,-0.034123,-0.010106,,,,,,,,,,,,,,,,,,,,,,,,,,,,,,,,,,,0.0,0.0,1.0,0.0,512.0,0.78779,,,,,,,,,,,,,,,,,,,,,,,,,
19319,1645901503.7758589,1645901503.792079,43.0,0.0,4352.820313,4270.256348,4208.717772999999,4109.743652,4304.615234000001,0.0,1.0,15.0,,,,0.0,4.0,1.0,4.0,2.0,2.0,41.666668,,,,,,,,,,,,,,,,,,,,,,,,,,,,,,,,,,,,,,,,,,,,,,,,,,,,,,,,,,,,,,,,,,,,,,,,,,,,,,,,,,,,
19320,1645901503.783673,1645901503.7998939,44.0,0.0,4360.0,4237.94873,4195.384765999999,4142.563965,4285.641113000001,0.0,1.0,15.0,,,,0.0,4.0,1.0,4.0,2.0,2.0,41.666668,,,,,,,,22.0,0.0,0.717903,0.134521,0.663086,0.16381800000000002,0.917494,-0.409674,-0.092775,-0.029086,-0.034129,-0.008314,,,,,,,,,,,,,,,,,,,,,,,,,,,,,,,,,,,,,,,,,,,,,,,,,,,,,,,,,,,,,,,,,
19321,1645901503.791487,1645901503.807708,45.0,0.0,4347.692383,4329.230957,4192.820313,4148.205078,4270.769043,0.0,1.0,15.0,,,,0.0,4.0,1.0,4.0,2.0,2.0,41.666668,,,,,,,,,,,,,,,,,,,,,,,,,,,,,,,,,,,,,,,,,,,,,,,,,,,,,,,,,,,,,,,,,,,,,,,,,,,,,,,,,,,,
19322,1645901503.799301,1645901503.8155231,46.0,0.0,4327.692383,4360.0,4223.589844,4117.94873,4269.743652,0.0,1.0,15.0,,,,0.0,4.0,1.0,4.0,2.0,2.0,41.666668,,,,,,,,23.0,0.0,0.717677,0.134521,0.66333,0.16381800000000002,0.9267719999999999,-0.413092,-0.087892,-0.029449,-0.034183,-0.009778,,,,,,,,,,,,,,,,,,,,,,,,,,,,,,,,,,,0.0,0.0,1.0,0.0,512.0,0.78779,,,,,,,,,,,,,,,,,,,,,,,,,
19323,1645901503.8071141,1645901503.823338,47.0,0.0,4338.461426,4307.692383,4231.794922,4132.307617,4279.487305,0.0,1.0,15.0,,,,0.0,4.0,1.0,4.0,2.0,2.0,41.666668,,,,,,,,,,,,,,,,,,,,,,,,,,,,,,,,,,,,,,,,,,,,,,,,,,,,,,,,,,,,,,,,,,,,,,,,,,,,,,,,,,,,
19324,1645901503.8149278,1645901503.8312519,48.0,0.0,4324.615234000001,4255.384765999999,4241.025879,4158.974121,4283.077147999999,0.0,1.0,15.0,,,,0.0,4.0,1.0,4.0,2.0,2.0,41.666668,,,,,,,,24.0,0.0,0.7176319999999999,0.134766,0.66333,0.16381800000000002,0.9160299999999999,-0.415045,-0.087404,-0.029726999999999996,-0.034134,-0.011144,,,,,,,,,,,,,,,,,,,,,,,,,,,,,,,,,,,,,,,,,,,,,,,,,,,,,,,,,,,,,,,,,
19325,1645901503.822742,1645901503.839067,49.0,0.0,4304.615234000001,4277.436035,4208.205078,4159.487305,4294.358886999999,0.0,1.0,15.0,,,,0.0,4.0,1.0,4.0,2.0,2.0,41.666668,,,,,,,,,,,,,,,,,,,,,,,,,,,,,,,,,,,,,,,,,,,,,,,,,,,,,,,,,,,,,,,,,,,,,,,,,,,,,,,,,,,,
19326,1645901503.8305562,1645901503.8468812,50.0,0.0,4304.102539,4314.358886999999,4153.846191,4152.307617,4281.538574,0.0,1.0,15.0,,,,0.0,4.0,1.0,4.0,2.0,2.0,41.666668,,,,,,,,25.0,0.0,0.717857,0.134766,0.663086,0.16381800000000002,0.917006,-0.41651000000000005,-0.09424,-0.029976999999999997,-0.034138,-0.012324,,,,,,,,,,,,,,,,,,,,,,,,,,,,,,,,,,,0.0,0.0,1.0,0.0,512.0,0.78779,,,,,,,,,,,,,,,,,,,,,,,,,
19327,1645901503.838369,1645901503.854696,51.0,0.0,4315.897461,4257.436035,4195.897461,4165.128418,4263.077147999999,0.0,1.0,15.0,,,,0.0,4.0,1.0,4.0,2.0,2.0,41.666668,,,,,,,,,,,,,,,,,,,,,,,,,,,,,,,,,,,,,,,,,,,,,,,,,,,,,,,,,,,,,,,,,,,,,,,,,,,,,,,,,,,,
19328,1645901503.846183,1645901503.862511,52.0,0.0,4309.743652,4144.615234000001,4202.563965,4154.871582,4251.282227000001,0.0,1.0,15.0,,,,0.0,4.0,1.0,4.0,2.0,2.0,41.666668,,,,,,,,26.0,0.0,0.717811,0.13501,0.663086,0.16381800000000002,0.897963,-0.41895200000000005,-0.085451,-0.030056,-0.034094,-0.01036,,,,,,,,,,,,,,,,,,,,,,,,,,,,,,,,,,,,,,,,,,,,,,,,,,,,,,,,,,,,,,,,,
19329,1645901503.853997,1645901503.870325,53.0,0.0,4310.769043,4109.230957,4180.0,4138.461426,4248.717772999999,0.0,1.0,15.0,,,,0.0,4.0,1.0,4.0,2.0,2.0,41.666668,,,,,,,,,,,,,,,,,,,,,,,,,,,,,,,,,,,,,,,,,,,,,,,,,,,,,,,,,,,,,,,,,,,,,,,,,,,,,,,,,,,,
19330,1645901503.861811,1645901503.87814,54.0,0.0,4312.820313,4125.128418,4231.282227000001,4152.820313,4246.153809,0.0,1.0,15.0,,,,0.0,4.0,1.0,4.0,2.0,2.0,41.666668,,,,,,,,27.0,0.0,0.717755,0.13501,0.663086,0.16406300000000001,0.917494,-0.41944,-0.08203300000000001,-0.027099,-0.034053,-0.011715999999999999,1.0,0.0,0.0,,,,,,,,,,,,,,,,,,,,,,,,,,,,,,,,0.0,0.0,1.0,0.0,512.0,0.839569,78.345184,19.711401000000002,9.912585,2.836682,2.197365,134.951523,91.468849,46.170288,22.082210999999997,16.713327,43.345901,41.877132,9.827569,5.654473,8.017828,16.065838,8.01757,6.990227,2.502116,3.608232,30.347439,6.153699,5.490605,1.8849759999999998,1.9773319999999999
19331,1645901503.8696241,1645901503.885955,55.0,0.0,4301.025879,4161.538574,4272.820313,4166.666504,4238.461426,0.0,1.0,15.0,,,,0.0,4.0,1.0,4.0,2.0,2.0,41.666668,,,,,,,,,,,,,,,,,,,,,,,,,,,,,,,,,,,,,,,,,,,,,,,,,,,,,,,,,,,,,,,,,,,,,,,,,,,,,,,,,,,,
19332,1645901503.877438,1645901503.893769,56.0,0.0,4306.666504,4184.102539,4194.358886999999,4156.410156,4243.077147999999,0.0,1.0,15.0,,,,0.0,4.0,1.0,4.0,2.0,2.0,41.666668,,,,,,,,28.0,0.0,0.71753,0.13501,0.66333,0.16406300000000001,0.9116350000000001,-0.41651000000000005,-0.086427,-0.027514,-0.034066,-0.009812000000000001,,,,,,,,,,,,,,,,,,,,,,,,,,,,,,,,,,,,,,,,,,,,,,,,,,,,,,,,,,,,,,,,,
19333,1645901503.885252,1645901503.901684,57.0,0.0,4314.871582,4174.871582,4230.256348,4156.410156,4252.820313,0.0,1.0,15.0,,,,0.0,4.0,1.0,4.0,2.0,2.0,41.666668,,,,,,,,,,,,,,,,,,,,,,,,,,,,,,,,,,,,,,,,,,,,,,,,,,,,,,,,,,,,,,,,,,,,,,,,,,,,,,,,,,,,
19334,1645901503.893066,1645901503.909499,58.0,0.0,4320.512695,4147.692383,4275.897461,4166.153809,4261.025879,0.0,1.0,15.0,,,,0.0,4.0,1.0,4.0,2.0,2.0,41.666668,,,,,,,,29.0,0.0,0.717576,0.134766,0.66333,0.16406300000000001,0.9111469999999999,-0.413092,-0.087404,-0.027936000000000002,-0.034126,-0.00805,,,,,,,,,,,,,,,,,,,,,,,,,,,,,,,,,,,0.0,0.0,1.0,0.0,512.0,0.839569,,,,,,,,,,,,,,,,,,,,,,,,,
19335,1645901503.900879,1645901503.917313,59.0,0.0,4321.538574,4136.922852000001,4260.0,4156.922852000001,4277.94873,0.0,1.0,15.0,,,,0.0,4.0,1.0,4.0,2.0,2.0,41.666668,,,,,,,,,,,,,,,,,,,,,,,,,,,,,,,,,,,,,,,,,,,,,,,,,,,,,,,,,,,,,,,,,,,,,,,,,,,,,,,,,,,,
19336,1645901503.908693,1645901503.925128,60.0,0.0,4343.077147999999,4157.94873,4204.615234000001,4145.128418,4308.205078,0.0,1.0,15.0,,,,0.0,4.0,1.0,4.0,2.0,2.0,41.666668,,,,,,,,30.0,0.0,0.717576,0.134766,0.66333,0.16406300000000001,0.913588,-0.413092,-0.100587,-0.025192,-0.034082999999999995,-0.006365999999999999,,,,,,,,,,,,,,,,,,,,,,,,,,,,,,,,,,,,,,,,,,,,,,,,,,,,,,,,,,,,,,,,,
19337,1645901503.916507,1645901503.932942,61.0,0.0,4348.717772999999,4153.333496,4175.384765999999,4145.641113000001,4303.077147999999,0.0,1.0,15.0,,,,0.0,4.0,1.0,4.0,2.0,2.0,41.666668,,,,,,,,,,,,,,,,,,,,,,,,,,,,,,,,,,,,,,,,,,,,,,,,,,,,,,,,,,,,,,,,,,,,,,,,,,,,,,,,,,,,
