,Timestamp,OriginalTimestamp,EEG.Counter,EEG.Interpolated,EEG.AF3,EEG.T7,EEG.Pz,EEG.T8,EEG.AF4,EEG.RawCq,EEG.Battery,EEG.BatteryPercent,MarkerIndex,MarkerType,MarkerValueInt,EEG.MarkerHardware,CQ.AF3,CQ.T7,CQ.Pz,CQ.T8,CQ.AF4,CQ.Overall,EQ.SampleRateQuality,EQ.OVERALL,EQ.AF3,EQ.T7,EQ.Pz,EQ.T8,EQ.AF4,MOT.CounterMems,MOT.InterpolatedMems,MOT.Q0,MOT.Q1,MOT.Q2,MOT.Q3,MOT.AccX,MOT.AccY,MOT.AccZ,MOT.MagX,MOT.MagY,MOT.MagZ,MC.Action,MC.ActionPower,MC.IsActive,PM.Engagement.IsActive,PM.Engagement.Scaled,PM.Engagement.Raw,PM.Engagement.Min,PM.Engagement.Max,PM.Excitement.IsActive,PM.Excitement.Scaled,PM.Excitement.Raw,PM.Excitement.Min,PM.Excitement.Max,PM.LongTermExcitement,PM.Stress.IsActive,PM.Stress.Scaled,PM.Stress.Raw,PM.Stress.Min,PM.Stress.Max,PM.Relaxation.IsActive,PM.Relaxation.Scaled,PM.Relaxation.Raw,PM.Relaxation.Min,PM.Relaxation.Max,PM.Interest.IsActive,PM.Interest.Scaled,PM.Interest.Raw,PM.Interest.Min,PM.Interest.Max,PM.Focus.IsActive,PM.Focus.Scaled,PM.Focus.Raw,PM.Focus.Min,PM.Focus.Max,FE.BlinkWink,FE.HorizontalEyesDirection,FE.UpperFaceAction,FE.UpperFaceActionPower,FE.LowerFaceAction,FE.LowerFaceActionPower,POW.AF3.Theta,POW.AF3.Alpha,POW.AF3.BetaL,POW.AF3.BetaH,POW.AF3.Gamma,POW.T7.Theta,POW.T7.Alpha,POW.T7.BetaL,POW.T7.BetaH,POW.T7.Gamma,POW.Pz.Theta,POW.Pz.Alpha,POW.Pz.BetaL,POW.Pz.BetaH,POW.Pz.Gamma,POW.T8.Theta,POW.T8.Alpha,POW.T8.BetaL,POW.T8.BetaH,POW.T8.Gamma,POW.AF4.Theta,POW.AF4.Alpha,POW.AF4.BetaL,POW.AF4.BetaH,POW.AF4.Gamma
6576,1650407193.6494381,1650407193.649466,74.0,0.0,4317.436035,4512.307617,4134.358886999999,4272.820313,4217.436035,450.0,4.0,91.0,10.0,1.0,3.0,0.0,4.0,1.0,0.0,0.0,4.0,8.333333,,,,,,,,37.0,0.0,0.055728,-0.49682600000000005,0.451172,0.739258,0.791516,-0.611337,-0.09765800000000001,-0.033638,-0.04192,-0.025127,,,,,,,,,,,,,,,,,,,,,,,,,,,,,,,,,,,0.0,0.0,32.0,0.029127999999999998,1.0,0.0,,,,,,,,,,,,,,,,,,,,,,,,,
6577,1650407193.657253,1650407193.65728,75.0,0.0,4364.615234000001,4538.461426,4219.487305,4274.358886999999,4278.974121,16254.0,4.0,91.0,,,,0.0,4.0,1.0,0.0,0.0,4.0,8.333333,,,,,,,,,,,,,,,,,,,,,,,,,,,,,,,,,,,,,,,,,,,,,,,,,,,,,,,,,,,,,,,,,,,,,,,,,,,,,,,,,,,,
6578,1650407193.665067,1650407193.664995,76.0,0.0,4373.846191,4573.333496,4278.974121,4273.333496,4275.897461,450.0,4.0,91.0,,,,0.0,4.0,1.0,0.0,0.0,4.0,8.333333,,,,,,,,38.0,0.0,0.057863,-0.49658199999999997,0.451172,0.739258,0.793957,-0.6259859999999999,-0.113283,-0.0334,-0.042025,-0.026032,,,,,,,,,,,,,,,,,,,,,,,,,,,,,,,,,,,,,,,,,,,,,,,,,,,,,,,,,,,,,,,,,
6579,1650407193.672882,1650407193.67281,77.0,0.0,4411.282227000001,4597.94873,4141.538574,4275.897461,4318.461426,450.0,4.0,91.0,,,,0.0,4.0,1.0,0.0,0.0,4.0,8.333333,,,,,,,,,,,,,,,,,,,,,,,,,,,,,,,,,,,,,,,,,,,,,,,,,,,,,,,,,,,,,,,,,,,,,,,,,,,,,,,,,,,,
6580,1650407193.680696,1650407193.680525,78.0,0.0,4391.282227000001,4467.179688,4044.615479,4274.358886999999,4288.717772999999,450.0,4.0,91.0,,,,0.0,4.0,1.0,0.0,0.0,4.0,8.333333,,,,,,,,39.0,0.0,0.057863,-0.49658199999999997,0.451172,0.739258,0.789075,-0.630869,-0.109377,-0.033429,-0.041973,-0.023331,,,,,,,,,,,,,,,,,,,,,,,,,,,,,,,,,,,0.0,0.0,32.0,0.029127999999999998,1.0,0.0,,,,,,,,,,,,,,,,,,,,,,,,,
6581,1650407193.688511,1650407193.688339,79.0,0.0,4350.769043,4382.05127,4148.205078,4271.282227000001,4246.666504,16254.0,4.0,91.0,,,,0.0,4.0,1.0,0.0,0.0,4.0,8.333333,,,,,,,,,,,,,,,,,,,,,,,,,,,,,,,,,,,,,,,,,,,,,,,,,,,,,,,,,,,,,,,,,,,,,,,,,,,,,,,,,,,,
6582,1650407193.696326,1650407193.696054,80.0,0.0,4330.256348,4522.05127,4214.871582,4276.410156,4255.384765999999,450.0,4.0,91.0,,,,0.0,4.0,1.0,0.0,0.0,4.0,8.333333,,,,,,,,40.0,0.0,0.058053,-0.496338,0.451416,0.739258,0.8047,-0.615244,-0.095216,-0.033406,-0.041975,-0.027199,,,,,,,,,,,,,,,,,,,,,,,,,,,,,,,,,,,,,,,,,,,,,,,,,,,,,,,,,,,,,,,,,
6583,1650407193.70414,1650407193.7038689,81.0,0.0,4358.461426,4623.589844,4192.820313,4278.461426,4302.05127,450.0,4.0,91.0,,,,0.0,4.0,1.0,0.0,0.0,4.0,8.333333,,,,,,,,,,,,,,,,,,,,,,,,,,,,,,,,,,,,,,,,,,,,,,,,,,,,,,,,,,,,,,,,,,,,,,,,,,,,,,,,,,,,
6584,1650407193.711955,1650407193.711583,82.0,0.0,4392.820313,4484.615234000001,4209.743652,4274.358886999999,4326.666504,450.0,4.0,91.0,,,,0.0,4.0,1.0,0.0,0.0,4.0,8.333333,,,,,,,,41.0,0.0,0.058053,-0.496338,0.451416,0.739258,0.787121,-0.611826,-0.096193,-0.033337,-0.042025,-0.027897,,,,,,,,,,,,,,,,,,,,,,,,,,,,,,,,,,,0.0,0.0,32.0,0.029127999999999998,1.0,0.0,,,,,,,,,,,,,,,,,,,,,,,,,
6585,1650407193.719769,1650407193.719398,83.0,0.0,4378.461426,4392.307617,4210.256348,4276.410156,4295.897461,16254.0,4.0,91.0,,,,0.0,4.0,1.0,0.0,0.0,4.0,8.333333,,,,,,,,,,,,,,,,,,,,,,,,,,,,,,,,,,,,,,,,,,,,,,,,,,,,,,,,,,,,,,,,,,,,,,,,,,,,,,,,,,,,
6586,1650407193.727584,1650407193.727113,84.0,0.0,4365.128418,4486.666504,4077.9487299999996,4283.077147999999,4291.794922,450.0,4.0,91.0,,,,0.0,4.0,1.0,0.0,0.0,4.0,8.333333,,,,,,,,42.0,0.0,0.058053,-0.496338,0.451416,0.739258,0.800305,-0.617685,-0.112795,-0.033275,-0.042071,-0.028575,,,,,,,,,,,,,,,,,,,,,,,,,,,,,,,,,,,,,,,,,,,,,,,,,,,,,,,,,,,,,,,,,
6587,1650407193.735398,1650407193.734927,85.0,0.0,4325.128418,4534.871582,4087.179443,4282.05127,4255.384765999999,450.0,4.0,91.0,,,,0.0,4.0,1.0,0.0,0.0,4.0,8.333333,,,,,,,,,,,,,,,,,,,,,,,,,,,,,,,,,,,,,,,,,,,,,,,,,,,,,,,,,,,,,,,,,,,,,,,,,,,,,,,,,,,,
6588,1650407193.7432132,1650407193.742642,86.0,0.0,4366.153809,4532.820313,4183.077147999999,4281.025879,4298.461426,450.0,4.0,91.0,,,,0.0,4.0,1.0,0.0,0.0,4.0,8.333333,1.0,0.0,3.0,0.0,0.0,0.0,3.0,43.0,0.0,0.056122000000000005,-0.496338,0.45166000000000006,0.739258,0.797375,-0.6206149999999999,-0.11084200000000001,-0.033268,-0.042062999999999996,-0.022934,1.0,0.0,0.0,,,,,,,,,,,,,,,,,,,,,,,,,,,,,,,,0.0,0.0,32.0,0.048988,1.0,0.0,207.927551,23.317968,13.408392000000001,5.580307,4.314898,193.782166,126.49391200000001,180.35652199999998,33.877926,30.926028999999996,163.274902,71.361572,60.04614599999999,68.27975500000001,38.119183,0.709933,0.132011,0.067284,0.077926,0.047001,79.833839,13.575269,11.014716,3.9164980000000003,4.8405059999999995
6589,1650407193.7510278,1650407193.750457,87.0,0.0,4380.0,4585.128418,4222.05127,4284.615234000001,4317.94873,16254.0,4.0,91.0,,,,0.0,4.0,1.0,0.0,0.0,4.0,8.333333,,,,,,,,,,,,,,,,,,,,,,,,,,,,,,,,,,,,,,,,,,,,,,,,,,,,,,,,,,,,,,,,,,,,,,,,,,,,,,,,,,,,
6590,1650407193.758842,1650407193.758172,88.0,0.0,4353.333496,4660.512695,4136.922852000001,4286.666504,4294.358886999999,450.0,4.0,91.0,,,,0.0,4.0,1.0,0.0,0.0,4.0,8.333333,,,,,,,,44.0,0.0,0.058240999999999994,-0.496094,0.45166000000000006,0.739258,0.809094,-0.627451,-0.102052,-0.033213,-0.042007,-0.020592,,,,,,,,,,,,,,,,,,,,,,,,,,,,,,,,,,,,,,,,,,,,,,,,,,,,,,,,,,,,,,,,,
6591,1650407193.766657,1650407193.765986,89.0,0.0,4336.410156,4643.589844,4011.794922,4286.153809,4268.717772999999,450.0,4.0,91.0,,,,0.0,4.0,1.0,0.0,0.0,4.0,8.333333,,,,,,,,,,,,,,,,,,,,,,,,,,,,,,,,,,,,,,,,,,,,,,,,,,,,,,,,,,,,,,,,,,,,,,,,,,,,,,,,,,,,
6592,1650407193.774471,1650407193.773701,90.0,0.0,4378.461426,4673.846191,3930.7692869999996,4287.179688,4306.666504,450.0,4.0,91.0,,,,0.0,4.0,1.0,0.0,0.0,4.0,8.333333,,,,,,,,45.0,0.0,0.058240999999999994,-0.496094,0.45166000000000006,0.739258,0.7856569999999999,-0.6259859999999999,-0.101564,-0.033212,-0.041908,-0.022097,,,,,,,,,,,,,,,,,,,,,,,,,,,,,,,,,,,0.0,0.0,32.0,0.048988,1.0,0.0,,,,,,,,,,,,,,,,,,,,,,,,,
6593,1650407193.782286,1650407193.7815151,91.0,0.0,4357.94873,4723.077147999999,3973.8461909999996,4285.641113000001,4303.077147999999,16254.0,4.0,91.0,,,,0.0,4.0,1.0,0.0,0.0,4.0,8.333333,,,,,,,,,,,,,,,,,,,,,,,,,,,,,,,,,,,,,,,,,,,,,,,,,,,,,,,,,,,,,,,,,,,,,,,,,,,,,,,,,,,,
6594,1650407193.7901,1650407193.78923,92.0,0.0,4329.230957,4657.94873,4007.179443,4284.615234000001,4281.538574,450.0,4.0,91.0,,,,0.0,4.0,1.0,0.0,0.0,4.0,8.333333,,,,,,,,46.0,0.0,0.058240999999999994,-0.496094,0.45166000000000006,0.739258,0.792981,-0.624521,-0.10351700000000001,-0.033309,-0.041868,-0.023305000000000003,,,,,,,,,,,,,,,,,,,,,,,,,,,,,,,,,,,,,,,,,,,,,,,,,,,,,,,,,,,,,,,,,
6595,1650407193.797915,1650407193.797044,93.0,0.0,4355.384765999999,4607.179688,3990.256348,4286.666504,4288.205078,450.0,4.0,91.0,,,,0.0,4.0,1.0,0.0,0.0,4.0,8.333333,,,,,,,,,,,,,,,,,,,,,,,,,,,,,,,,,,,,,,,,,,,,,,,,,,,,,,,,,,,,,,,,,,,,,,,,,,,,,,,,,,,,
6596,1650407193.80573,1650407193.804759,94.0,0.0,4361.025879,4644.615234000001,4021.025635,4286.153809,4286.153809,450.0,4.0,91.0,,,,0.0,4.0,1.0,0.0,0.0,4.0,8.333333,,,,,,,,47.0,0.0,0.058240999999999994,-0.496094,0.45166000000000006,0.739258,0.78468,-0.614755,-0.098146,-0.033395999999999995,-0.04188,-0.02449,,,,,,,,,,,,,,,,,,,,,,,,,,,,,,,,,,,0.0,0.0,32.0,0.048988,1.0,0.0,,,,,,,,,,,,,,,,,,,,,,,,,
6597,1650407193.813544,1650407193.812573,95.0,0.0,4358.461426,4631.794922,3992.3076170000004,4285.128418,4294.358886999999,16254.0,4.0,91.0,,,,0.0,4.0,1.0,0.0,0.0,4.0,8.333333,,,,,,,,,,,,,,,,,,,,,,,,,,,,,,,,,,,,,,,,,,,,,,,,,,,,,,,,,,,,,,,,,,,,,,,,,,,,,,,,,,,,
6598,1650407193.821359,1650407193.8202882,96.0,0.0,4368.717772999999,4570.256348,3940.512939,4284.615234000001,4301.025879,450.0,4.0,91.0,,,,0.0,4.0,1.0,0.0,0.0,4.0,8.333333,,,,,,,,48.0,0.0,0.058426,-0.49585,0.451904,0.739258,0.786633,-0.6303810000000001,-0.103029,-0.033327999999999997,-0.041892,-0.0217,,,,,,,,,,,,,,,,,,,,,,,,,,,,,,,,,,,,,,,,,,,,,,,,,,,,,,,,,,,,,,,,,
6599,1650407193.829173,1650407193.8281019,97.0,0.0,4352.307617,4558.461426,3989.2307130000004,4286.153809,4280.0,450.0,4.0,91.0,,,,0.0,4.0,1.0,0.0,0.0,4.0,8.333333,,,,,,,,,,,,,,,,,,,,,,,,,,,,,,,,,,,,,,,,,,,,,,,,,,,,,,,,,,,,,,,,,,,,,,,,,,,,,,,,,,,,
6600,1650407193.836988,1650407193.835816,98.0,0.0,4342.05127,4584.102539,4073.8461909999996,4287.179688,4275.897461,450.0,4.0,91.0,,,,0.0,4.0,1.0,0.0,0.0,4.0,8.333333,,,,,,,,49.0,0.0,0.056315,-0.496094,0.451904,0.739258,0.789075,-0.640146,-0.100587,-0.033218,-0.041901999999999995,-0.022948,,,,,,,,,,,,,,,,,,,,,,,,,,,,,,,,,,,0.0,0.0,32.0,0.048988,1.0,0.0,,,,,,,,,,,,,,,,,,,,,,,,,
6601,1650407193.8448029,1650407193.84363,99.0,0.0,4360.0,4649.230957,4080.0,4287.692383,4305.128418,16254.0,4.0,91.0,,,,0.0,4.0,1.0,0.0,0.0,4.0,8.333333,,,,,,,,,,,,,,,,,,,,,,,,,,,,,,,,,,,,,,,,,,,,,,,,,,,,,,,,,,,,,,,,,,,,,,,,,,,,,,,,,,,,
6602,1650407193.852617,1650407193.8513448,100.0,0.0,4348.205078,4703.077147999999,4081.025635,4288.205078,4301.025879,450.0,4.0,91.0,,,,0.0,4.0,1.0,0.0,0.0,4.0,8.333333,,,,,,,,50.0,0.0,0.058240999999999994,-0.496094,0.45166000000000006,0.739258,0.78468,-0.614755,-0.098146,-0.033313999999999996,-0.041911000000000004,-0.024169,,,,,,,,,,,,,,,,,,,,,,,,,,,,,,,,,,,,,,,,,,,,,,,,,,,,,,,,,,,,,,,,,
6603,1650407193.8604321,1650407193.859259,101.0,0.0,4331.282227000001,4661.025879,4067.6923829999996,4289.743652,4285.128418,450.0,4.0,91.0,,,,0.0,4.0,1.0,0.0,0.0,4.0,8.333333,,,,,,,,,,,,,,,,,,,,,,,,,,,,,,,,,,,,,,,,,,,,,,,,,,,,,,,,,,,,,,,,,,,,,,,,,,,,,,,,,,,,
6604,1650407193.868246,1650407193.867074,102.0,0.0,4313.846191,4637.436035,4060.0,4289.743652,4266.153809,450.0,4.0,91.0,,,,0.0,4.0,1.0,0.0,0.0,4.0,8.333333,,,,,,,,51.0,0.0,0.056315,-0.496094,0.451904,0.739258,0.7900510000000001,-0.629892,-0.10547000000000001,-0.033303,-0.041919,-0.01892,1.0,0.0,0.0,,,,,,,,,,,,,,,,,,,,,,,,,,,,,,,,0.0,0.0,32.0,0.038707,1.0,0.0,199.567017,18.107372,8.815392,5.178424,4.052828,201.789612,114.487404,139.94610600000001,23.689943,27.077787,155.600494,65.91789200000001,54.248627,70.95784,36.460938,0.545349,0.130409,0.059984,0.066874,0.037007,76.643517,10.609701,8.220613,3.989641,4.804183
6605,1650407193.876061,1650407193.874789,103.0,0.0,4297.436035,4672.307617,4056.923096,4288.717772999999,4254.358886999999,16254.0,4.0,91.0,,,,0.0,4.0,1.0,0.0,0.0,4.0,8.333333,,,,,,,,,,,,,,,,,,,,,,,,,,,,,,,,,,,,,,,,,,,,,,,,,,,,,,,,,,,,,,,,,,,,,,,,,,,,,,,,,,,,
6606,1650407193.883875,1650407193.882603,104.0,0.0,4295.897461,4694.871582,4183.077147999999,4288.717772999999,4259.487305,450.0,4.0,91.0,,,,0.0,4.0,1.0,0.0,0.0,4.0,8.333333,,,,,,,,52.0,0.0,0.05943300000000001,-0.496094,0.451904,0.7390140000000001,0.7827270000000001,-0.631846,-0.111818,-0.033391000000000004,-0.042024,-0.02069,,,,,,,,,,,,,,,,,,,,,,,,,,,,,,,,,,,,,,,,,,,,,,,,,,,,,,,,,,,,,,,,,
6607,1650407193.89169,1650407193.890318,105.0,0.0,4318.974121,4701.025879,4215.384765999999,4291.794922,4278.974121,450.0,4.0,91.0,,,,0.0,4.0,1.0,0.0,0.0,4.0,8.333333,,,,,,,,,,,,,,,,,,,,,,,,,,,,,,,,,,,,,,,,,,,,,,,,,,,,,,,,,,,,,,,,,,,,,,,,,,,,,,,,,,,,
6608,1650407193.8995051,1650407193.898133,106.0,0.0,4343.589844,4648.717772999999,4178.974121,4292.307617,4291.282227000001,450.0,4.0,91.0,,,,0.0,4.0,1.0,0.0,0.0,4.0,8.333333,,,,,,,,53.0,0.0,0.05754600000000001,-0.496094,0.45214799999999994,0.7390140000000001,0.786145,-0.607431,-0.098634,-0.03347,-0.042020999999999996,-0.01823,,,,,,,,,,,,,,,,,,,,,,,,,,,,,,,,,,,0.0,0.0,32.0,0.038707,1.0,0.0,,,,,,,,,,,,,,,,,,,,,,,,,
6609,1650407193.9073188,1650407193.905847,107.0,0.0,4343.077147999999,4619.487305,4161.538574,4292.820313,4292.307617,16254.0,4.0,91.0,,,,0.0,4.0,1.0,0.0,0.0,4.0,8.333333,,,,,,,,,,,,,,,,,,,,,,,,,,,,,,,,,,,,,,,,,,,,,,,,,,,,,,,,,,,,,,,,,,,,,,,,,,,,,,,,,,,,
6610,1650407193.915134,1650407193.913662,108.0,0.0,4302.05127,4652.820313,4193.846191,4291.794922,4252.820313,450.0,4.0,91.0,,,,0.0,4.0,1.0,0.0,0.0,4.0,8.333333,,,,,,,,54.0,0.0,0.05754600000000001,-0.496094,0.45214799999999994,0.7390140000000001,0.777356,-0.6206149999999999,-0.11133,-0.033443,-0.04192,-0.019825,,,,,,,,,,,,,,,,,,,,,,,,,,,,,,,,,,,,,,,,,,,,,,,,,,,,,,,,,,,,,,,,,
6611,1650407193.9229481,1650407193.921377,109.0,0.0,4296.922852000001,4626.666504,4126.666504,4287.692383,4235.897461,450.0,4.0,91.0,,,,0.0,4.0,1.0,0.0,0.0,4.0,8.333333,,,,,,,,,,,,,,,,,,,,,,,,,,,,,,,,,,,,,,,,,,,,,,,,,,,,,,,,,,,,,,,,,,,,,,,,,,,,,,,,,,,,
6612,1650407193.930763,1650407193.929191,110.0,0.0,4334.358886999999,4581.538574,4026.6667479999996,4285.128418,4258.461426,450.0,4.0,91.0,,,,0.0,4.0,1.0,0.0,0.0,4.0,8.333333,,,,,,,,55.0,0.0,0.059613,-0.49585,0.45214799999999994,0.7390140000000001,0.781262,-0.617197,-0.09424,-0.033468,-0.041879,-0.021261000000000002,,,,,,,,,,,,,,,,,,,,,,,,,,,,,,,,,,,0.0,0.0,32.0,0.038707,1.0,0.0,,,,,,,,,,,,,,,,,,,,,,,,,
6613,1650407193.938578,1650407193.936906,111.0,0.0,4369.743652,4566.666504,4043.076904,4286.153809,4292.307617,16254.0,4.0,91.0,,,,0.0,4.0,1.0,0.0,0.0,4.0,8.333333,,,,,,,,,,,,,,,,,,,,,,,,,,,,,,,,,,,,,,,,,,,,,,,,,,,,,,,,,,,,,,,,,,,,,,,,,,,,,,,,,,,,
6614,1650407193.946392,1650407193.94472,112.0,0.0,4350.256348,4536.410156,4086.1538090000004,4286.153809,4283.077147999999,450.0,4.0,91.0,,,,0.0,4.0,1.0,0.0,0.0,4.0,8.333333,,,,,,,,56.0,0.0,0.059791,-0.495605,0.45239300000000005,0.7390140000000001,0.780285,-0.6250100000000001,-0.092775,-0.033539,-0.041841,-0.016303,,,,,,,,,,,,,,,,,,,,,,,,,,,,,,,,,,,,,,,,,,,,,,,,,,,,,,,,,,,,,,,,,
6615,1650407193.954207,1650407193.952435,113.0,0.0,4339.487305,4553.333496,4133.846191,4284.615234000001,4265.641113000001,450.0,4.0,91.0,,,,0.0,4.0,1.0,0.0,0.0,4.0,8.333333,,,,,,,,,,,,,,,,,,,,,,,,,,,,,,,,,,,,,,,,,,,,,,,,,,,,,,,,,,,,,,,,,,,,,,,,,,,,,,,,,,,,
6616,1650407193.962021,1650407193.960249,114.0,0.0,4355.384765999999,4667.179688,4094.358887,4283.589844,4271.794922,450.0,4.0,91.0,,,,0.0,4.0,1.0,0.0,0.0,4.0,8.333333,,,,,,,,57.0,0.0,0.058788,-0.49536099999999994,0.45239300000000005,0.739258,0.788586,-0.61622,-0.106447,-0.033457,-0.041954000000000005,-0.014575,,,,,,,,,,,,,,,,,,,,,,,,,,,,,,,,,,,0.0,0.0,32.0,0.038707,1.0,0.0,,,,,,,,,,,,,,,,,,,,,,,,,
6617,1650407193.969836,1650407193.9679642,115.0,0.0,4366.666504,4712.307617,4007.6923829999996,4284.615234000001,4293.846191,16254.0,4.0,91.0,,,,0.0,4.0,1.0,0.0,0.0,4.0,8.333333,,,,,,,,,,,,,,,,,,,,,,,,,,,,,,,,,,,,,,,,,,,,,,,,,,,,,,,,,,,,,,,,,,,,,,,,,,,,,,,,,,,,
6618,1650407193.97765,1650407193.9757779,116.0,0.0,4361.538574,4626.153809,3966.6667479999996,4286.666504,4300.512695,450.0,4.0,91.0,,,,0.0,4.0,1.0,0.0,0.0,4.0,8.333333,,,,,,,,58.0,0.0,0.05582,-0.49511700000000003,0.452637,0.739502,0.776379,-0.622568,-0.099611,-0.033431,-0.041957999999999995,-0.016584,,,,,,,,,,,,,,,,,,,,,,,,,,,,,,,,,,,,,,,,,,,,,,,,,,,,,,,,,,,,,,,,,
6619,1650407193.985465,1650407193.9834929,117.0,0.0,4378.461426,4630.256348,3992.3076170000004,4288.205078,4312.307617,450.0,4.0,91.0,,,,0.0,4.0,1.0,0.0,0.0,4.0,8.333333,,,,,,,,,,,,,,,,,,,,,,,,,,,,,,,,,,,,,,,,,,,,,,,,,,,,,,,,,,,,,,,,,,,,,,,,,,,,,,,,,,,,
6620,1650407193.9932802,1650407193.991307,118.0,0.0,4407.692383,4722.05127,4013.8461909999996,4289.230957,4350.256348,450.0,4.0,91.0,,,,0.0,4.0,1.0,0.0,0.0,4.0,8.333333,,,,,,,,59.0,0.0,0.058121000000000006,-0.494629,0.45288100000000003,0.739502,0.772473,-0.631846,-0.10498199999999999,-0.033457,-0.041913,-0.018441,1.0,0.0,0.0,,,,,,,,,,,,,,,,,,,,,,,,,,,,,,,,0.0,0.0,32.0,0.027275999999999998,1.0,0.0,167.487076,13.576684,5.268187999999999,4.77375,3.7009519999999996,203.172379,117.56001299999998,104.429443,17.292873,23.969637,140.631561,63.301669999999994,48.179478,73.272964,34.70668,0.366656,0.15024200000000001,0.052149,0.056323000000000005,0.030579000000000002,65.697388,8.926934,6.203764,4.062103,4.613363
6621,1650407194.0010939,1650407193.999022,119.0,0.0,4422.05127,4674.871582,4174.871582,4291.282227000001,4355.897461,16254.0,4.0,91.0,,,,0.0,4.0,1.0,0.0,0.0,4.0,8.333333,,,,,,,,,,,,,,,,,,,,,,,,,,,,,,,,,,,,,,,,,,,,,,,,,,,,,,,,,,,,,,,,,,,,,,,,,,,,,,,,,,,,
6622,1650407194.008909,1650407194.0069358,120.0,0.0,4512.307617,4617.436035,4255.384765999999,4293.846191,4384.615234000001,450.0,4.0,91.0,,,,0.0,4.0,1.0,0.0,0.0,4.0,8.333333,,,,,,,,60.0,0.0,0.05948099999999999,-0.494385,0.45336899999999997,0.739258,0.792004,-0.627451,-0.109865,-0.033431999999999996,-0.041921,-0.020113,,,,,,,,,,,,,,,,,,,,,,,,,,,,,,,,,,,,,,,,,,,,,,,,,,,,,,,,,,,,,,,,,
6623,1650407194.0167232,1650407194.014751,121.0,0.0,4623.589844,4739.487305,4065.1281740000004,4294.358886999999,4476.922852000001,450.0,4.0,91.0,,,,0.0,4.0,1.0,0.0,0.0,4.0,8.333333,,,,,,,,,,,,,,,,,,,,,,,,,,,,,,,,,,,,,,,,,,,,,,,,,,,,,,,,,,,,,,,,,,,,,,,,,,,,,,,,,,,,
6624,1650407194.024538,1650407194.022666,122.0,0.0,4690.769043,4759.487305,3897.9487299999996,4294.358886999999,4557.94873,450.0,4.0,91.0,,,,0.0,4.0,1.0,0.0,0.0,4.0,8.333333,,,,,,,,61.0,0.0,0.057589999999999995,-0.494385,0.453613,0.739258,0.780774,-0.6045010000000001,-0.10351700000000001,-0.03336,-0.041977,-0.015318,,,,,,,,,,,,,,,,,,,,,,,,,,,,,,,,,,,0.0,0.0,32.0,0.027275999999999998,1.0,0.0,,,,,,,,,,,,,,,,,,,,,,,,,
6625,1650407194.032353,1650407194.030481,123.0,0.0,4757.436035,4576.410156,3930.7692869999996,4294.871582,4573.333496,16254.0,4.0,91.0,,,,0.0,4.0,1.0,0.0,0.0,4.0,8.333333,,,,,,,,,,,,,,,,,,,,,,,,,,,,,,,,,,,,,,,,,,,,,,,,,,,,,,,,,,,,,,,,,,,,,,,,,,,,,,,,,,,,
6626,1650407194.040167,1650407194.038196,124.0,0.0,4828.717772999999,4601.025879,3879.487061,4295.897461,4607.179688,450.0,4.0,91.0,,,,0.0,4.0,1.0,0.0,0.0,4.0,8.333333,,,,,,,,62.0,0.0,0.057761,-0.494141,0.45385699999999995,0.739258,0.784192,-0.619638,-0.093751,-0.033394,-0.041881,-0.019646,,,,,,,,,,,,,,,,,,,,,,,,,,,,,,,,,,,,,,,,,,,,,,,,,,,,,,,,,,,,,,,,,
6627,1650407194.047982,1650407194.04601,125.0,0.0,4855.897461,4756.922852000001,3888.205078,4296.922852000001,4661.025879,450.0,4.0,91.0,,,,0.0,4.0,1.0,0.0,0.0,4.0,8.333333,,,,,,,,,,,,,,,,,,,,,,,,,,,,,,,,,,,,,,,,,,,,,,,,,,,,,,,,,,,,,,,,,,,,,,,,,,,,,,,,,,,,
6628,1650407194.0557961,1650407194.053725,126.0,0.0,4882.05127,4737.94873,3998.974365,4297.94873,4708.205078,450.0,4.0,91.0,,,,0.0,4.0,1.0,0.0,0.0,4.0,8.333333,,,,,,,,63.0,0.0,0.056714999999999995,-0.493896,0.45385699999999995,0.739502,0.781262,-0.627451,-0.101564,-0.033375,-0.041794,-0.021148,,,,,,,,,,,,,,,,,,,,,,,,,,,,,,,,,,,0.0,0.0,32.0,0.027275999999999998,1.0,0.0,,,,,,,,,,,,,,,,,,,,,,,,,
6629,1650407194.063611,1650407194.0615401,127.0,0.0,4881.538574,4651.282227000001,3995.897461,4300.0,4706.153809,242.0,4.0,91.0,,,,0.0,4.0,1.0,0.0,0.0,4.0,8.333333,,,,,,,,,,,,,,,,,,,,,,,,,,,,,,,,,,,,,,,,,,,,,,,,,,,,,,,,,,,,,,,,,,,,,,,,,,,,,,,,,,,,
6630,1650407194.071425,1650407194.069254,0.0,0.0,4866.666504,4649.230957,3978.974365,4302.05127,4716.410156,450.0,4.0,91.0,,,,0.0,4.0,1.0,0.0,0.0,4.0,8.333333,,,,,,,,0.0,0.0,0.057589999999999995,-0.494385,0.453613,0.739258,0.780774,-0.6045010000000001,-0.10351700000000001,-0.033309,-0.041863,-0.01625,,,,,,,,,,,,,,,,,,,,,,,,,,,,,,,,,,,,,,,,,,,,,,,,,,,,,,,,,,,,,,,,,
6631,1650407194.07924,1650407194.077069,1.0,0.0,4861.538574,4621.538574,4036.4101560000004,4302.05127,4752.820313,450.0,4.0,91.0,,,,0.0,4.0,1.0,0.0,0.0,4.0,8.333333,,,,,,,,,,,,,,,,,,,,,,,,,,,,,,,,,,,,,,,,,,,,,,,,,,,,,,,,,,,,,,,,,,,,,,,,,,,,,,,,,,,,
6632,1650407194.087055,1650407194.084784,2.0,0.0,4849.743652,4560.0,4113.846191,4301.025879,4770.769043,16134.0,4.0,91.0,,,,0.0,4.0,0.0,0.0,0.0,4.0,0.0,,,,,,,,1.0,0.0,0.056714999999999995,-0.493896,0.45385699999999995,0.739502,0.7959109999999999,-0.625498,-0.107424,-0.033249,-0.041925,-0.012037,,,,,,,,,,,,,,,,,,,,,,,,,,,,,,,,,,,0.0,0.0,32.0,0.027275999999999998,1.0,0.0,,,,,,,,,,,,,,,,,,,,,,,,,
6633,1650407194.094869,1650407194.092598,3.0,0.0,4821.538574,4565.128418,4157.94873,4301.025879,4762.05127,450.0,4.0,91.0,,,,0.0,4.0,0.0,0.0,0.0,4.0,0.0,,,,,,,,,,,,,,,,,,,,,,,,,,,,,,,,,,,,,,,,,,,,,,,,,,,,,,,,,,,,,,,,,,,,,,,,,,,,,,,,,,,,
6634,1650407194.102684,1650407194.100413,4.0,0.0,4837.436035,4551.282227000001,4191.794922,4302.563965,4788.205078,0.0,4.0,91.0,,,,0.0,4.0,0.0,0.0,0.0,4.0,0.0,,,,,,,,2.0,0.0,0.056714999999999995,-0.493896,0.45385699999999995,0.739502,0.784192,-0.619638,-0.10547000000000001,-0.033195999999999996,-0.041833999999999996,-0.014203,,,,,,,,,,,,,,,,,,,,,,,,,,,,,,,,,,,,,,,,,,,,,,,,,,,,,,,,,,,,,,,,,
6635,1650407194.110498,1650407194.1081269,5.0,0.0,4860.512695,4528.205078,4132.307617,4304.102539,4823.077147999999,450.0,4.0,91.0,,,,0.0,4.0,0.0,2.0,0.0,4.0,16.666666,,,,,,,,,,,,,,,,,,,,,,,,,,,,,,,,,,,,,,,,,,,,,,,,,,,,,,,,,,,,,,,,,,,,,,,,,,,,,,,,,,,,
6636,1650407194.118313,1650407194.115941,6.0,0.0,4824.615234000001,4558.461426,4125.128418,4302.563965,4783.077147999999,233.0,4.0,91.0,,,,0.0,4.0,0.0,2.0,0.0,4.0,16.666666,,,,,,,,3.0,0.0,0.056714999999999995,-0.493896,0.45385699999999995,0.739502,0.785168,-0.6259859999999999,-0.112795,-0.033197000000000004,-0.04185,-0.012440999999999999,1.0,0.0,0.0,,,,,,,,,,,,,,,,,,,,,,,,,,,,,,,,0.0,0.0,32.0,0.20726,1.0,0.0,119.72008500000001,10.483832000000001,3.180961,4.42446,3.355376,198.500809,138.83196999999998,77.826401,13.934710999999998,21.852114,124.03437,63.065383999999995,43.099194,74.529282,32.780331,0.24474200000000002,0.189699,0.045676999999999995,0.046558999999999996,0.027757999999999998,48.88998,8.427811,4.991485,4.122751,4.327572
6637,1650407194.126127,1650407194.123655,7.0,0.0,4809.230957,4607.179688,4073.8461909999996,4300.0,4758.974121,450.0,4.0,91.0,,,,0.0,4.0,0.0,2.0,0.0,4.0,16.666666,,,,,,,,,,,,,,,,,,,,,,,,,,,,,,,,,,,,,,,,,,,,,,,,,,,,,,,,,,,,,,,,,,,,,,,,,,,,,,,,,,,,
6638,1650407194.133942,1650407194.1313698,8.0,0.0,4784.615234000001,4638.974121,4009.743652,4300.0,4771.794922,450.0,4.0,91.0,,,,0.0,4.0,0.0,2.0,0.0,4.0,16.666666,,,,,,,,4.0,0.0,0.056714999999999995,-0.493896,0.45385699999999995,0.739502,0.7827270000000001,-0.623545,-0.099611,-0.0331,-0.041815,-0.014615000000000001,,,,,,,,,,,,,,,,,,,,,,,,,,,,,,,,,,,,,,,,,,,,,,,,,,,,,,,,,,,,,,,,,
6639,1650407194.141757,1650407194.1392848,9.0,0.0,4738.974121,4598.974121,3997.4357909999994,4302.563965,4753.846191,0.0,4.0,91.0,,,,0.0,4.0,0.0,2.0,0.0,4.0,16.666666,,,,,,,,,,,,,,,,,,,,,,,,,,,,,,,,,,,,,,,,,,,,,,,,,,,,,,,,,,,,,,,,,,,,,,,,,,,,,,,,,,,,
6640,1650407194.1495712,1650407194.1471,10.0,0.0,4724.615234000001,4562.05127,4057.9487299999996,4299.487305,4727.692383,450.0,4.0,91.0,,,,0.0,4.0,0.0,2.0,0.0,4.0,16.666666,,,,,,,,5.0,0.0,0.056714999999999995,-0.493896,0.45385699999999995,0.739502,0.778332,-0.63917,-0.11133,-0.033257,-0.041783999999999995,-0.016718,,,,,,,,,,,,,,,,,,,,,,,,,,,,,,,,,,,0.0,0.0,32.0,0.20726,1.0,0.0,,,,,,,,,,,,,,,,,,,,,,,,,
6641,1650407194.1573858,1650407194.1549141,11.0,0.0,4723.589844,4658.461426,4037.4357909999994,4296.922852000001,4740.0,16147.0,4.0,91.0,,,,0.0,4.0,0.0,2.0,0.0,4.0,16.666666,,,,,,,,,,,,,,,,,,,,,,,,,,,,,,,,,,,,,,,,,,,,,,,,,,,,,,,,,,,,,,,,,,,,,,,,,,,,,,,,,,,,
6642,1650407194.1652,1650407194.162629,12.0,0.0,4624.102539,4749.230957,4029.2307130000004,4298.461426,4679.487305,450.0,4.0,91.0,,,,0.0,4.0,0.0,2.0,0.0,4.0,16.666666,,,,,,,,6.0,0.0,0.055810000000000005,-0.494141,0.45410200000000006,0.739258,0.785168,-0.631846,-0.106447,-0.033349000000000004,-0.041951999999999996,-0.012165,,,,,,,,,,,,,,,,,,,,,,,,,,,,,,,,,,,,,,,,,,,,,,,,,,,,,,,,,,,,,,,,,
6643,1650407194.173015,1650407194.170443,13.0,0.0,4543.589844,4592.820313,4137.436035,4294.871582,4606.153809,450.0,4.0,91.0,,,,0.0,4.0,0.0,2.0,0.0,4.0,16.666666,,,,,,,,,,,,,,,,,,,,,,,,,,,,,,,,,,,,,,,,,,,,,,,,,,,,,,,,,,,,,,,,,,,,,,,,,,,,,,,,,,,,
6644,1650407194.1808288,1650407194.178158,14.0,0.0,4551.794922,4434.358886999999,4133.333496,4289.230957,4597.94873,450.0,4.0,91.0,,,,0.0,4.0,0.0,2.0,0.0,4.0,16.666666,,,,,,,,7.0,0.0,0.055810000000000005,-0.494141,0.45410200000000006,0.739258,0.786633,-0.6342869999999999,-0.104005,-0.033382999999999996,-0.042005,-0.008116,,,,,,,,,,,,,,,,,,,,,,,,,,,,,,,,,,,0.0,0.0,32.0,0.20726,1.0,0.0,,,,,,,,,,,,,,,,,,,,,,,,,
6645,1650407194.188644,1650407194.185972,15.0,0.0,4532.820313,4566.666504,3994.358887,4291.282227000001,4589.230957,16147.0,4.0,91.0,,,,0.0,4.0,0.0,2.0,0.0,4.0,16.666666,,,,,,,,,,,,,,,,,,,,,,,,,,,,,,,,,,,,,,,,,,,,,,,,,,,,,,,,,,,,,,,,,,,,,,,,,,,,,,,,,,,,
6646,1650407194.196459,1650407194.193687,16.0,0.0,4438.461426,4682.563965,3970.7692869999996,4293.846191,4516.410156,0.0,4.0,91.0,,,,0.0,4.0,0.0,2.0,0.0,4.0,16.666666,,,,,,,,8.0,0.0,0.058954,-0.494141,0.45410200000000006,0.7390140000000001,0.786633,-0.61915,-0.08984500000000001,-0.033219,-0.042003,-0.01082,,,,,,,,,,,,,,,,,,,,,,,,,,,,,,,,,,,,,,,,,,,,,,,,,,,,,,,,,,,,,,,,,
6647,1650407194.204273,1650407194.201501,17.0,0.0,4378.974121,4628.205078,4027.179443,4290.769043,4480.512695,0.0,4.0,91.0,,,,0.0,4.0,0.0,2.0,0.0,4.0,16.666666,,,,,,,,,,,,,,,,,,,,,,,,,,,,,,,,,,,,,,,,,,,,,,,,,,,,,,,,,,,,,,,,,,,,,,,,,,,,,,,,,,,,
6648,1650407194.212088,1650407194.209216,18.0,0.0,4342.05127,4608.205078,4064.102539,4289.230957,4464.615234000001,0.0,4.0,91.0,,,,0.0,4.0,0.0,2.0,0.0,4.0,16.666666,,,,,,,,9.0,0.0,0.056871000000000005,-0.494385,0.45410200000000006,0.7390140000000001,0.779309,-0.633799,-0.09668099999999999,-0.033315,-0.041953,-0.009348,,,,,,,,,,,,,,,,,,,,,,,,,,,,,,,,,,,0.0,0.0,32.0,0.20726,1.0,0.0,,,,,,,,,,,,,,,,,,,,,,,,,
6649,1650407194.219902,1650407194.2171302,19.0,0.0,4300.0,4661.025879,4185.641113000001,4289.230957,4421.538574,0.0,4.0,91.0,,,,0.0,4.0,0.0,2.0,0.0,4.0,16.666666,,,,,,,,,,,,,,,,,,,,,,,,,,,,,,,,,,,,,,,,,,,,,,,,,,,,,,,,,,,,,,,,,,,,,,,,,,,,,,,,,,,,
6650,1650407194.227717,1650407194.2249448,20.0,0.0,4252.820313,4638.461426,4196.922852000001,4288.205078,4361.025879,0.0,4.0,91.0,,,,0.0,4.0,0.0,2.0,0.0,4.0,16.666666,,,,,,,,10.0,0.0,0.056871000000000005,-0.494385,0.45410200000000006,0.7390140000000001,0.775891,-0.611337,-0.091798,-0.033206,-0.04186,-0.011929,,,,,,,,,,,,,,,,,,,,,,,,,,,,,,,,,,,,,,,,,,,,,,,,,,,,,,,,,,,,,,,,,
6651,1650407194.235531,1650407194.23276,21.0,0.0,4207.692383,4574.358886999999,4155.384765999999,4285.128418,4289.230957,0.0,4.0,91.0,,,,0.0,4.0,0.0,2.0,0.0,4.0,16.666666,,,,,,,,,,,,,,,,,,,,,,,,,,,,,,,,,,,,,,,,,,,,,,,,,,,,,,,,,,,,,,,,,,,,,,,,,,,,,,,,,,,,
6652,1650407194.243346,1650407194.240474,22.0,0.0,4170.256348,4637.94873,4183.077147999999,4284.102539,4240.0,0.0,4.0,91.0,,,,0.0,4.0,0.0,2.0,0.0,4.0,16.666666,1.0,0.0,3.0,0.0,0.0,0.0,3.0,11.0,0.0,0.056871000000000005,-0.494385,0.45410200000000006,0.7390140000000001,0.7797970000000001,-0.622568,-0.09472799999999999,-0.033255,-0.041922,-0.00805,1.0,0.0,0.0,,,,,,,,,,,,,,,,,,,,,,,,,,,,,,,,0.0,0.0,32.0,0.305904,1.0,0.0,72.55205500000001,9.411603,2.444184,4.245883999999999,3.07726,188.97963000000001,171.177673,59.520813000000004,12.769485000000001,21.036692000000002,113.97584499999999,65.17594100000001,39.694103000000005,74.70485699999999,30.632084000000003,0.205127,0.23704899999999998,0.042577,0.038639,0.02758,32.191227000000005,8.693307,4.336894,4.253312,4.022539
6653,1650407194.2511609,1650407194.248388,23.0,0.0,4171.282227000001,4633.846191,4171.282227000001,4285.128418,4222.05127,0.0,4.0,91.0,,,,0.0,4.0,0.0,2.0,0.0,4.0,16.666666,,,,,,,,,,,,,,,,,,,,,,,,,,,,,,,,,,,,,,,,,,,,,,,,,,,,,,,,,,,,,,,,,,,,,,,,,,,,,,,,,,,,
6654,1650407194.258975,1650407194.256203,24.0,0.0,4191.282227000001,4606.153809,4051.794922,4286.153809,4241.025879,0.0,4.0,91.0,,,,0.0,4.0,0.0,2.0,0.0,4.0,16.666666,,,,,,,,12.0,0.0,0.056871000000000005,-0.494385,0.45410200000000006,0.7390140000000001,0.779309,-0.612314,-0.098634,-0.03325,-0.041929,-0.010859,,,,,,,,,,,,,,,,,,,,,,,,,,,,,,,,,,,,,,,,,,,,,,,,,,,,,,,,,,,,,,,,,
6655,1650407194.2667902,1650407194.264018,25.0,0.0,4121.025879,4708.205078,4115.384765999999,4285.641113000001,4227.692383,0.0,4.0,91.0,,,,0.0,4.0,0.0,2.0,0.0,4.0,16.666666,,,,,,,,,,,,,,,,,,,,,,,,,,,,,,,,,,,,,,,,,,,,,,,,,,,,,,,,,,,,,,,,,,,,,,,,,,,,,,,,,,,,
6656,1650407194.2746038,1650407194.271732,26.0,0.0,4083.076904,4627.179688,4134.871582,4283.077147999999,4177.94873,0.0,4.0,91.0,,,,0.0,4.0,0.0,2.0,0.0,4.0,16.666666,,,,,,,,13.0,0.0,0.056871000000000005,-0.494385,0.45410200000000006,0.7390140000000001,0.792004,-0.629404,-0.101564,-0.033147,-0.041887,-0.01324,,,,,,,,,,,,,,,,,,,,,,,,,,,,,,,,,,,0.0,0.0,32.0,0.305904,1.0,0.0,,,,,,,,,,,,,,,,,,,,,,,,,
6657,1650407194.282419,1650407194.279447,27.0,0.0,4128.717772999999,4528.205078,4013.8461909999996,4274.871582,4145.128418,0.0,4.0,91.0,,,,0.0,4.0,0.0,2.0,0.0,4.0,16.666666,,,,,,,,,,,,,,,,,,,,,,,,,,,,,,,,,,,,,,,,,,,,,,,,,,,,,,,,,,,,,,,,,,,,,,,,,,,,,,,,,,,,
6658,1650407194.290233,1650407194.287261,28.0,0.0,4116.922852000001,4634.871582,4003.076904,4271.794922,4141.025879,0.0,4.0,91.0,,,,0.0,4.0,0.0,2.0,0.0,4.0,16.666666,,,,,,,,14.0,0.0,0.056871000000000005,-0.494385,0.45410200000000006,0.7390140000000001,0.789075,-0.624521,-0.092287,-0.033152999999999995,-0.041848,-0.015431,,,,,,,,,,,,,,,,,,,,,,,,,,,,,,,,,,,,,,,,,,,,,,,,,,,,,,,,,,,,,,,,,
6659,1650407194.298048,1650407194.294976,29.0,0.0,4043.5898439999996,4514.871582,4134.871582,4276.410156,4074.358887,0.0,4.0,91.0,,,,0.0,4.0,0.0,2.0,0.0,4.0,16.666666,,,,,,,,,,,,,,,,,,,,,,,,,,,,,,,,,,,,,,,,,,,,,,,,,,,,,,,,,,,,,,,,,,,,,,,,,,,,,,,,,,,,
6660,1650407194.3058631,1650407194.302791,30.0,0.0,4072.820557,4383.589844,4187.692383,4275.897461,4070.7692869999996,0.0,4.0,91.0,,,,0.0,4.0,0.0,2.0,0.0,4.0,16.666666,,,,,,,,15.0,0.0,0.056871000000000005,-0.494385,0.45410200000000006,0.7390140000000001,0.78468,-0.6206149999999999,-0.09765800000000001,-0.033305,-0.041863,-0.017355000000000002,,,,,,,,,,,,,,,,,,,,,,,,,,,,,,,,,,,0.0,0.0,32.0,0.305904,1.0,0.0,,,,,,,,,,,,,,,,,,,,,,,,,
6661,1650407194.3136768,1650407194.3105052,31.0,0.0,4083.076904,4652.307617,4113.333496,4275.897461,4135.384765999999,0.0,4.0,91.0,,,,0.0,4.0,0.0,2.0,0.0,4.0,16.666666,,,,,,,,,,,,,,,,,,,,,,,,,,,,,,,,,,,,,,,,,,,,,,,,,,,,,,,,,,,,,,,,,,,,,,,,,,,,,,,,,,,,
6662,1650407194.321492,1650407194.31832,32.0,0.0,4054.8718259999996,4736.410156,4111.794922,4277.436035,4131.282227000001,0.0,4.0,91.0,,,,0.0,4.0,0.0,2.0,0.0,4.0,16.666666,,,,,,,,16.0,0.0,0.057041999999999995,-0.494141,0.454346,0.7390140000000001,0.776867,-0.611826,-0.09424,-0.033148000000000004,-0.041925,-0.019184,,,,,,,,,,,,,,,,,,,,,,,,,,,,,,,,,,,,,,,,,,,,,,,,,,,,,,,,,,,,,,,,,
6663,1650407194.3293061,1650407194.326034,33.0,0.0,4109.743652,4650.256348,4149.230957,4274.871582,4147.179688,0.0,4.0,91.0,,,,0.0,4.0,0.0,2.0,0.0,4.0,16.666666,,,,,,,,,,,,,,,,,,,,,,,,,,,,,,,,,,,,,,,,,,,,,,,,,,,,,,,,,,,,,,,,,,,,,,,,,,,,,,,,,,,,
6664,1650407194.337121,1650407194.333849,34.0,0.0,4136.922852000001,4774.358886999999,4028.718018,4274.358886999999,4193.846191,0.0,4.0,91.0,,,,0.0,4.0,0.0,2.0,0.0,4.0,16.666666,,,,,,,,17.0,0.0,0.059119000000000005,-0.493896,0.454346,0.7390140000000001,0.782238,-0.611337,-0.105959,-0.033154,-0.041931,-0.020684,,,,,,,,,,,,,,,,,,,,,,,,,,,,,,,,,,,0.0,0.0,32.0,0.305904,1.0,0.0,,,,,,,,,,,,,,,,,,,,,,,,,
6665,1650407194.344936,1650407194.341563,35.0,0.0,4106.666504,4599.487305,3898.974365,4275.384765999999,4132.820313,0.0,4.0,91.0,,,,0.0,4.0,0.0,2.0,0.0,4.0,16.666666,,,,,,,,,,,,,,,,,,,,,,,,,,,,,,,,,,,,,,,,,,,,,,,,,,,,,,,,,,,,,,,,,,,,,,,,,,,,,,,,,,,,
6666,1650407194.35275,1650407194.349377,36.0,0.0,4110.256348,4372.307617,4097.94873,4271.794922,4083.076904,0.0,4.0,91.0,,,,0.0,4.0,0.0,2.0,0.0,4.0,16.666666,,,,,,,,18.0,0.0,0.057211,-0.493896,0.45458999999999994,0.7390140000000001,0.786145,-0.637705,-0.09424,-0.033207,-0.041986,-0.022033,,,,,,,,,,,,,,,,,,,,,,,,,,,,,,,,,,,,,,,,,,,,,,,,,,,,,,,,,,,,,,,,,
6667,1650407194.360565,1650407194.357092,37.0,0.0,4115.384765999999,4567.179688,4303.589844,4274.871582,4133.333496,0.0,4.0,91.0,,,,0.0,4.0,0.0,2.0,0.0,4.0,16.666666,,,,,,,,,,,,,,,,,,,,,,,,,,,,,,,,,,,,,,,,,,,,,,,,,,,,,,,,,,,,,,,,,,,,,,,,,,,,,,,,,,,,
6668,1650407194.3683789,1650407194.364906,38.0,0.0,4120.512695,4653.333496,4241.025879,4277.436035,4151.282227000001,0.0,4.0,91.0,,,,0.0,4.0,0.0,2.0,0.0,4.0,16.666666,,,,,,,,19.0,0.0,0.057041999999999995,-0.494141,0.454346,0.7390140000000001,0.776867,-0.611826,-0.09424,-0.033109,-0.041937999999999996,-0.019732,1.0,0.0,0.0,,,,,,,,,,,,,,,,,,,,,,,,,,,,,,,,0.0,0.0,1.0,0.0,512.0,0.205898,43.981308,10.694213000000001,2.539439,4.30176,2.881516,176.024857,200.758072,46.524387,13.083254,21.776882,114.409874,69.925331,38.098137,74.49185200000001,28.405396000000003,0.241292,0.27548,0.044017,0.033309,0.028845,22.468176,8.963359,3.889343,4.543923,3.761557
6669,1650407194.376194,1650407194.372621,39.0,0.0,4162.05127,4548.205078,4102.563965,4272.820313,4151.282227000001,0.0,4.0,91.0,,,,0.0,4.0,0.0,2.0,0.0,4.0,16.666666,,,,,,,,,,,,,,,,,,,,,,,,,,,,,,,,,,,,,,,,,,,,,,,,,,,,,,,,,,,,,,,,,,,,,,,,,,,,,,,,,,,,
6670,1650407194.384009,1650407194.380535,40.0,0.0,4202.05127,4634.358886999999,4213.333496,4275.897461,4208.717772999999,0.0,4.0,91.0,,,,0.0,4.0,0.0,2.0,0.0,4.0,16.666666,,,,,,,,20.0,0.0,0.057211,-0.493896,0.45458999999999994,0.7390140000000001,0.786145,-0.637705,-0.09424,-0.033168,-0.041993,-0.021177,,,,,,,,,,,,,,,,,,,,,,,,,,,,,,,,,,,,,,,,,,,,,,,,,,,,,,,,,,,,,,,,,
6671,1650407194.391823,1650407194.38835,41.0,0.0,4301.538574,4673.846191,4278.461426,4283.589844,4283.077147999999,0.0,4.0,91.0,,,,0.0,4.0,0.0,2.0,0.0,4.0,16.666666,,,,,,,,,,,,,,,,,,,,,,,,,,,,,,,,,,,,,,,,,,,,,,,,,,,,,,,,,,,,,,,,,,,,,,,,,,,,,,,,,,,,
6672,1650407194.3996382,1650407194.396265,42.0,0.0,4442.563965,4540.0,4191.282227000001,4281.538574,4328.205078,0.0,4.0,91.0,,,,0.0,4.0,0.0,2.0,0.0,4.0,16.666666,,,,,,,,21.0,0.0,0.057378,-0.49365200000000004,0.454834,0.7390140000000001,0.7856569999999999,-0.614267,-0.093751,-0.03322,-0.042041,-0.022525999999999997,,,,,,,,,,,,,,,,,,,,,,,,,,,,,,,,,,,0.0,0.0,1.0,0.0,512.0,0.205898,,,,,,,,,,,,,,,,,,,,,,,,,
6673,1650407194.4074519,1650407194.404079,43.0,0.0,4558.461426,4526.666504,4086.6667479999996,4282.563965,4427.179688,0.0,4.0,91.0,,,,0.0,4.0,0.0,2.0,0.0,4.0,16.666666,,,,,,,,,,,,,,,,,,,,,,,,,,,,,,,,,,,,,,,,,,,,,,,,,,,,,,,,,,,,,,,,,,,,,,,,,,,,,,,,,,,,
6674,1650407194.415267,1650407194.411994,44.0,0.0,4606.666504,4673.846191,4104.102539,4288.205078,4520.0,0.0,4.0,91.0,,,,0.0,4.0,0.0,2.0,0.0,4.0,16.666666,,,,,,,,22.0,0.0,0.057378,-0.49365200000000004,0.454834,0.7390140000000001,0.8056760000000001,-0.6186619999999999,-0.089357,-0.03317,-0.042037,-0.019932,,,,,,,,,,,,,,,,,,,,,,,,,,,,,,,,,,,,,,,,,,,,,,,,,,,,,,,,,,,,,,,,,
6675,1650407194.423082,1650407194.419808,45.0,0.0,4645.128418,4715.897461,4182.05127,4290.256348,4553.333496,0.0,4.0,91.0,,,,0.0,4.0,0.0,2.0,0.0,4.0,16.666666,,,,,,,,,,,,,,,,,,,,,,,,,,,,,,,,,,,,,,,,,,,,,,,,,,,,,,,,,,,,,,,,,,,,,,,,,,,,,,,,,,,,
6676,1650407194.430896,1650407194.427723,46.0,0.0,4684.615234000001,4558.461426,4194.871582,4290.769043,4541.538574,0.0,4.0,91.0,,,,0.0,4.0,0.0,2.0,0.0,4.0,16.666666,,,,,,,,23.0,0.0,0.057541999999999996,-0.493408,0.455078,0.7390140000000001,0.78761,-0.619638,-0.109865,-0.033173,-0.042081,-0.021405,,,,,,,,,,,,,,,,,,,,,,,,,,,,,,,,,,,0.0,0.0,1.0,0.0,512.0,0.205898,,,,,,,,,,,,,,,,,,,,,,,,,
6677,1650407194.438711,1650407194.435538,47.0,0.0,4740.512695,4531.794922,4103.589844,4291.282227000001,4595.384765999999,0.0,4.0,91.0,,,,0.0,4.0,0.0,2.0,0.0,4.0,16.666666,,,,,,,,,,,,,,,,,,,,,,,,,,,,,,,,,,,,,,,,,,,,,,,,,,,,,,,,,,,,,,,,,,,,,,,,,,,,,,,,,,,,
6678,1650407194.446525,1650407194.443452,48.0,0.0,4741.538574,4699.487305,4037.9487299999996,4292.820313,4657.94873,0.0,4.0,91.0,,,,0.0,4.0,0.0,2.0,0.0,4.0,16.666666,,,,,,,,24.0,0.0,0.054314999999999995,-0.493408,0.455078,0.739258,0.781262,-0.621592,-0.098634,-0.033030000000000004,-0.042121,-0.016433,,,,,,,,,,,,,,,,,,,,,,,,,,,,,,,,,,,,,,,,,,,,,,,,,,,,,,,,,,,,,,,,,
6679,1650407194.45434,1650407194.451267,49.0,0.0,4730.256348,4633.333496,4161.025879,4294.871582,4656.410156,0.0,4.0,91.0,,,,0.0,4.0,0.0,2.0,0.0,4.0,16.666666,,,,,,,,,,,,,,,,,,,,,,,,,,,,,,,,,,,,,,,,,,,,,,,,,,,,,,,,,,,,,,,,,,,,,,,,,,,,,,,,,,,,
6680,1650407194.462154,1650407194.459181,50.0,0.0,4749.743652,4469.743652,4225.641113000001,4292.820313,4634.871582,0.0,4.0,91.0,,,,0.0,4.0,0.0,2.0,0.0,4.0,16.666666,,,,,,,,25.0,0.0,0.056489,-0.49316400000000005,0.455078,0.739258,0.789075,-0.619638,-0.10547000000000001,-0.033047,-0.042206,-0.011956999999999999,,,,,,,,,,,,,,,,,,,,,,,,,,,,,,,,,,,0.0,0.0,1.0,0.0,512.0,0.205898,,,,,,,,,,,,,,,,,,,,,,,,,
6681,1650407194.469969,1650407194.4669962,51.0,0.0,4735.384765999999,4571.282227000001,4215.897461,4290.256348,4617.436035,0.0,4.0,91.0,,,,0.0,4.0,0.0,2.0,0.0,4.0,16.666666,,,,,,,,,,,,,,,,,,,,,,,,,,,,,,,,,,,,,,,,,,,,,,,,,,,,,,,,,,,,,,,,,,,,,,,,,,,,,,,,,,,,
6682,1650407194.477784,1650407194.474711,52.0,0.0,4714.871582,4638.461426,4166.666504,4293.333496,4620.512695,0.0,4.0,91.0,,,,0.0,4.0,0.0,2.0,0.0,4.0,16.666666,,,,,,,,26.0,0.0,0.056489,-0.49316400000000005,0.455078,0.739258,0.775891,-0.630869,-0.107424,-0.032964999999999994,-0.042136,-0.010371,,,,,,,,,,,,,,,,,,,,,,,,,,,,,,,,,,,,,,,,,,,,,,,,,,,,,,,,,,,,,,,,,
6683,1650407194.485598,1650407194.482525,53.0,0.0,4732.820313,4520.0,4054.358887,4294.871582,4629.230957,0.0,4.0,91.0,,,,0.0,4.0,0.0,2.0,0.0,4.0,16.666666,,,,,,,,,,,,,,,,,,,,,,,,,,,,,,,,,,,,,,,,,,,,,,,,,,,,,,,,,,,,,,,,,,,,,,,,,,,,,,,,,,,,
6684,1650407194.493413,1650407194.49024,54.0,0.0,4757.94873,4557.94873,4054.358887,4296.410156,4640.0,0.0,4.0,91.0,,,,0.0,4.0,0.0,2.0,0.0,4.0,16.666666,,,,,,,,27.0,0.0,0.056489,-0.49316400000000005,0.455078,0.739258,0.7827270000000001,-0.63331,-0.10009900000000001,-0.032842,-0.042024,-0.012752,1.0,0.0,0.0,,,,,,,,,,,,,,,,,,,,,,,,,,,,,,,,0.0,0.0,1.0,0.0,512.0,0.22405799999999998,39.74633,14.959441,3.105366,4.522528,2.7810770000000002,160.219193,214.726273,36.607639,14.340132,24.075573000000002,125.587402,77.433052,38.315205,74.421318,26.254616,0.320777,0.290526,0.049417,0.030441000000000003,0.030233999999999997,21.467909,8.976566,3.4890559999999997,5.0108120000000005,3.5847580000000003
6685,1650407194.501227,1650407194.4980538,55.0,0.0,4748.717772999999,4669.230957,4240.512695,4297.436035,4636.410156,0.0,4.0,91.0,,,,0.0,4.0,0.0,2.0,0.0,4.0,16.666666,,,,,,,,,,,,,,,,,,,,,,,,,,,,,,,,,,,,,,,,,,,,,,,,,,,,,,,,,,,,,,,,,,,,,,,,,,,,,,,,,,,,
6686,1650407194.509042,1650407194.505769,56.0,0.0,4730.256348,4631.794922,4216.922852000001,4294.358886999999,4630.769043,0.0,4.0,91.0,,,,0.0,4.0,0.0,2.0,0.0,4.0,16.666666,,,,,,,,28.0,0.0,0.054486,-0.49316400000000005,0.455322,0.739258,0.78761,-0.625498,-0.107424,-0.032878,-0.042020999999999996,-0.011379,,,,,,,,,,,,,,,,,,,,,,,,,,,,,,,,,,,,,,,,,,,,,,,,,,,,,,,,,,,,,,,,,
6687,1650407194.516856,1650407194.513583,57.0,0.0,4663.589844,4658.461426,4111.794922,4293.846191,4612.307617,0.0,4.0,91.0,,,,0.0,4.0,0.0,2.0,0.0,4.0,16.666666,,,,,,,,,,,,,,,,,,,,,,,,,,,,,,,,,,,,,,,,,,,,,,,,,,,,,,,,,,,,,,,,,,,,,,,,,,,,,,,,,,,,
6688,1650407194.524671,1650407194.521298,58.0,0.0,4600.512695,4682.563965,4106.666504,4295.897461,4584.102539,0.0,4.0,91.0,,,,0.0,4.0,0.0,2.0,0.0,4.0,16.666666,,,,,,,,29.0,0.0,0.054486,-0.49316400000000005,0.455322,0.739258,0.790539,-0.625498,-0.101564,-0.033009,-0.042067,-0.013708000000000001,,,,,,,,,,,,,,,,,,,,,,,,,,,,,,,,,,,0.0,0.0,1.0,0.0,512.0,0.22405799999999998,,,,,,,,,,,,,,,,,,,,,,,,,
6689,1650407194.532486,1650407194.5291119,59.0,0.0,4584.615234000001,4506.666504,4083.5898439999996,4291.282227000001,4545.641113000001,0.0,4.0,91.0,,,,0.0,4.0,0.0,2.0,0.0,4.0,16.666666,,,,,,,,,,,,,,,,,,,,,,,,,,,,,,,,,,,,,,,,,,,,,,,,,,,,,,,,,,,,,,,,,,,,,,,,,,,,,,,,,,,,
6690,1650407194.5403,1650407194.536927,60.0,0.0,4567.692383,4405.128418,4070.256348,4285.128418,4536.410156,0.0,4.0,91.0,,,,0.0,4.0,0.0,2.0,0.0,4.0,16.666666,,,,,,,,30.0,0.0,0.057703,-0.49316400000000005,0.455322,0.7390140000000001,0.799329,-0.637217,-0.09424,-0.033125999999999996,-0.042206,-0.009554,,,,,,,,,,,,,,,,,,,,,,,,,,,,,,,,,,,,,,,,,,,,,,,,,,,,,,,,,,,,,,,,,
6691,1650407194.548115,1650407194.544641,61.0,0.0,4500.512695,4474.871582,4144.615234000001,4286.666504,4500.512695,0.0,4.0,91.0,,,,0.0,4.0,0.0,2.0,0.0,4.0,16.666666,,,,,,,,,,,,,,,,,,,,,,,,,,,,,,,,,,,,,,,,,,,,,,,,,,,,,,,,,,,,,,,,,,,,,,,,,,,,,,,,,,,,
6692,1650407194.555929,1650407194.5524552,62.0,0.0,4471.794922,4553.333496,4149.230957,4287.692383,4463.077147999999,0.0,4.0,91.0,,,,0.0,4.0,0.0,2.0,0.0,4.0,16.666666,,,,,,,,31.0,0.0,0.055742999999999994,-0.49316400000000005,0.45556599999999997,0.7390140000000001,0.776867,-0.6259859999999999,-0.099611,-0.033231000000000004,-0.042233,-0.012163,,,,,,,,,,,,,,,,,,,,,,,,,,,,,,,,,,,0.0,0.0,1.0,0.0,512.0,0.22405799999999998,,,,,,,,,,,,,,,,,,,,,,,,,
6693,1650407194.5637438,1650407194.56037,63.0,0.0,4410.256348,4719.487305,4105.128418,4285.641113000001,4444.615234000001,0.0,4.0,91.0,,,,0.0,4.0,0.0,2.0,0.0,4.0,16.666666,,,,,,,,,,,,,,,,,,,,,,,,,,,,,,,,,,,,,,,,,,,,,,,,,,,,,,,,,,,,,,,,,,,,,,,,,,,,,,,,,,,,
6694,1650407194.571558,1650407194.5681849,64.0,0.0,4304.102539,4750.256348,4041.538574,4286.153809,4371.794922,450.0,4.0,91.0,,,,0.0,4.0,0.0,2.0,0.0,4.0,16.666666,,,,,,,,32.0,0.0,0.055742999999999994,-0.49316400000000005,0.45556599999999997,0.7390140000000001,0.782238,-0.618173,-0.08691499999999999,-0.033277,-0.04216,-0.014463,,,,,,,,,,,,,,,,,,,,,,,,,,,,,,,,,,,,,,,,,,,,,,,,,,,,,,,,,,,,,,,,,
6695,1650407194.5793731,1650407194.576,65.0,0.0,4251.794922,4531.794922,3967.179443,4280.0,4256.410156,450.0,4.0,91.0,,,,0.0,4.0,0.0,2.0,0.0,4.0,16.666666,,,,,,,,,,,,,,,,,,,,,,,,,,,,,,,,,,,,,,,,,,,,,,,,,,,,,,,,,,,,,,,,,,,,,,,,,,,,,,,,,,,,
6696,1650407194.587188,1650407194.583714,66.0,0.0,4209.230957,4520.0,4100.0,4276.922852000001,4199.487305,16150.0,4.0,91.0,,,,0.0,4.0,0.0,2.0,0.0,4.0,16.666666,,,,,,,,33.0,0.0,0.055742999999999994,-0.49316400000000005,0.45556599999999997,0.7390140000000001,0.771496,-0.627451,-0.10254100000000001,-0.033221,-0.042289999999999994,-0.016483,,,,,,,,,,,,,,,,,,,,,,,,,,,,,,,,,,,0.0,0.0,1.0,0.0,512.0,0.22405799999999998,,,,,,,,,,,,,,,,,,,,,,,,,
6697,1650407194.595002,1650407194.591528,67.0,0.0,4133.846191,4612.307617,4304.615234000001,4281.025879,4149.743652,450.0,4.0,91.0,,,,0.0,4.0,0.0,2.0,0.0,4.0,16.666666,,,,,,,,,,,,,,,,,,,,,,,,,,,,,,,,,,,,,,,,,,,,,,,,,,,,,,,,,,,,,,,,,,,,,,,,,,,,,,,,,,,,
6698,1650407194.602817,1650407194.599242,68.0,0.0,4100.0,4578.461426,4335.897461,4279.487305,4105.641113000001,0.0,4.0,91.0,,,,0.0,4.0,0.0,2.0,0.0,4.0,16.666666,,,,,,,,34.0,0.0,0.057862000000000004,-0.49291999999999997,0.45556599999999997,0.7390140000000001,0.780285,-0.6362399999999999,-0.10693499999999999,-0.033268,-0.042358,-0.018155,,,,,,,,,,,,,,,,,,,,,,,,,,,,,,,,,,,,,,,,,,,,,,,,,,,,,,,,,,,,,,,,,
6699,1650407194.610631,1650407194.607157,69.0,0.0,4082.0512700000004,4615.384765999999,4218.461426,4278.461426,4114.871582,450.0,4.0,91.0,,,,0.0,4.0,0.0,0.0,0.0,4.0,0.0,,,,,,,,,,,,,,,,,,,,,,,,,,,,,,,,,,,,,,,,,,,,,,,,,,,,,,,,,,,,,,,,,,,,,,,,,,,,,,,,,,,,
6700,1650407194.618446,1650407194.6149712,70.0,0.0,4047.179443,4594.871582,4325.128418,4283.077147999999,4090.256348,0.0,4.0,91.0,,,,0.0,4.0,0.0,0.0,0.0,4.0,0.0,,,,,,,,35.0,0.0,0.05904500000000001,-0.49291999999999997,0.45581099999999997,0.7387699999999999,0.778332,-0.636728,-0.09668099999999999,-0.033359,-0.042273000000000005,-0.016291,1.0,0.0,0.0,,,,,,,,,,,,,,,,,,,,,,,,,,,,,,,,0.0,0.0,1.0,0.0,512.0,0.255718,53.01279399999999,22.301991,4.174128,4.721546,2.817668,142.04705800000002,206.234268,29.580441999999998,16.739759,27.6327,143.516174,86.754738,40.984188,74.74697900000001,24.469889000000002,0.364553,0.275902,0.055948000000000005,0.029791,0.030866,25.79734,8.978224,3.356439,5.559451999999999,3.515068
6701,1650407194.62626,1650407194.622886,71.0,0.0,4050.7692869999996,4559.487305,4483.077147999999,4280.0,4075.897461,450.0,4.0,91.0,,,,0.0,4.0,0.0,0.0,0.0,4.0,0.0,,,,,,,,,,,,,,,,,,,,,,,,,,,,,,,,,,,,,,,,,,,,,,,,,,,,,,,,,,,,,,,,,,,,,,,,,,,,,,,,,,,,
6702,1650407194.634075,1650407194.630701,72.0,0.0,4018.461426,4803.077147999999,4329.230957,4273.333496,4120.0,450.0,4.0,91.0,,,,0.0,4.0,0.0,0.0,0.0,4.0,0.0,,,,,,,,36.0,0.0,0.057128,-0.49291999999999997,0.45605500000000004,0.7387699999999999,0.784192,-0.635264,-0.093263,-0.033441000000000005,-0.042196,-0.018031000000000002,,,,,,,,,,,,,,,,,,,,,,,,,,,,,,,,,,,,,,,,,,,,,,,,,,,,,,,,,,,,,,,,,
6703,1650407194.64189,1650407194.6386151,73.0,0.0,3976.4101560000004,4797.94873,4054.8718259999996,4274.358886999999,4098.974121,0.0,4.0,91.0,,,,0.0,4.0,0.0,0.0,0.0,4.0,0.0,,,,,,,,,,,,,,,,,,,,,,,,,,,,,,,,,,,,,,,,,,,,,,,,,,,,,,,,,,,,,,,,,,,,,,,,,,,,,,,,,,,,
6704,1650407194.649704,1650407194.64643,74.0,0.0,4038.461426,4401.538574,4165.128418,4267.692383,4030.256348,450.0,4.0,91.0,,,,0.0,4.0,0.0,0.0,0.0,4.0,0.0,,,,,,,,37.0,0.0,0.057285,-0.492676,0.45629899999999995,0.7387699999999999,0.779309,-0.636728,-0.09033300000000001,-0.033467000000000004,-0.042029000000000004,-0.016033000000000002,,,,,,,,,,,,,,,,,,,,,,,,,,,,,,,,,,,0.0,0.0,1.0,0.0,512.0,0.255718,,,,,,,,,,,,,,,,,,,,,,,,,
6705,1650407194.6575189,1650407194.654144,75.0,0.0,4082.5642090000006,4493.333496,4296.410156,4264.102539,4097.436035,16190.0,4.0,91.0,,,,0.0,4.0,0.0,0.0,0.0,4.0,0.0,,,,,,,,,,,,,,,,,,,,,,,,,,,,,,,,,,,,,,,,,,,,,,,,,,,,,,,,,,,,,,,,,,,,,,,,,,,,,,,,,,,,
6706,1650407194.665333,1650407194.661959,76.0,0.0,3961.025635,4813.846191,4212.307617,4275.897461,4106.153809,450.0,4.0,91.0,,,,0.0,4.0,0.0,0.0,0.0,4.0,0.0,,,,,,,,38.0,0.0,0.058475,-0.492676,0.45654300000000003,0.738525,0.78468,-0.634775,-0.10254100000000001,-0.033391000000000004,-0.042025,-0.011646,,,,,,,,,,,,,,,,,,,,,,,,,,,,,,,,,,,,,,,,,,,,,,,,,,,,,,,,,,,,,,,,,
6707,1650407194.6731482,1650407194.669673,77.0,0.0,3929.2307130000004,4698.974121,4241.025879,4278.974121,4022.0512700000004,450.0,4.0,91.0,,,,0.0,4.0,0.0,0.0,0.0,4.0,0.0,,,,,,,,,,,,,,,,,,,,,,,,,,,,,,,,,,,,,,,,,,,,,,,,,,,,,,,,,,,,,,,,,,,,,,,,,,,,,,,,,,,,
6708,1650407194.6809618,1650407194.677588,78.0,0.0,4026.1538090000004,4673.333496,4325.128418,4267.692383,4054.358887,450.0,4.0,91.0,,,,0.0,4.0,0.0,0.0,0.0,4.0,0.0,,,,,,,,39.0,0.0,0.058475,-0.492676,0.45654300000000003,0.738525,0.789075,-0.628916,-0.11035299999999999,-0.033373,-0.042022000000000004,-0.016341,,,,,,,,,,,,,,,,,,,,,,,,,,,,,,,,,,,0.0,0.0,1.0,0.0,512.0,0.255718,,,,,,,,,,,,,,,,,,,,,,,,,
6709,1650407194.688777,1650407194.6854029,79.0,0.0,4032.820557,4842.05127,4208.717772999999,4268.205078,4134.871582,16190.0,4.0,91.0,,,,0.0,4.0,0.0,0.0,0.0,4.0,0.0,,,,,,,,,,,,,,,,,,,,,,,,,,,,,,,,,,,,,,,,,,,,,,,,,,,,,,,,,,,,,,,,,,,,,,,,,,,,,,,,,,,,
6710,1650407194.696592,1650407194.693219,80.0,0.0,3955.384521,4588.205078,4133.333496,4276.922852000001,4048.205078,450.0,4.0,91.0,,,,0.0,4.0,0.0,0.0,0.0,4.0,0.0,,,,,,,,40.0,0.0,0.056536,-0.492676,0.456787,0.738525,0.771496,-0.6167090000000001,-0.096193,-0.033306999999999996,-0.042019,-0.018174,,,,,,,,,,,,,,,,,,,,,,,,,,,,,,,,,,,,,,,,,,,,,,,,,,,,,,,,,,,,,,,,,
6711,1650407194.704406,1650407194.700933,81.0,0.0,3996.923096,4336.410156,4305.641113000001,4273.846191,3992.3076170000004,450.0,4.0,91.0,,,,0.0,4.0,0.0,0.0,0.0,4.0,0.0,,,,,,,,,,,,,,,,,,,,,,,,,,,,,,,,,,,,,,,,,,,,,,,,,,,,,,,,,,,,,,,,,,,,,,,,,,,,,,,,,,,,
6712,1650407194.7122211,1650407194.7087471,82.0,0.0,4025.1281740000004,4705.128418,4356.410156,4269.743652,4092.3076170000004,450.0,4.0,91.0,,,,0.0,4.0,0.0,0.0,0.0,4.0,0.0,,,,,,,,41.0,0.0,0.058475,-0.492676,0.45654300000000003,0.738525,0.789075,-0.60206,-0.109865,-0.033248,-0.041968,-0.015966,,,,,,,,,,,,,,,,,,,,,,,,,,,,,,,,,,,0.0,0.0,1.0,0.0,512.0,0.255718,,,,,,,,,,,,,,,,,,,,,,,,,
6713,1650407194.720035,1650407194.716462,83.0,0.0,3936.923096,4917.436035,4235.384765999999,4274.871582,4107.692383,16190.0,4.0,91.0,,,,0.0,4.0,0.0,0.0,0.0,4.0,0.0,,,,,,,,,,,,,,,,,,,,,,,,,,,,,,,,,,,,,,,,,,,,,,,,,,,,,,,,,,,,,,,,,,,,,,,,,,,,,,,,,,,,
6714,1650407194.72785,1650407194.724276,84.0,0.0,3942.5642090000006,4498.461426,4227.692383,4273.846191,4005.641113,450.0,4.0,91.0,,,,0.0,4.0,0.0,0.0,0.0,4.0,0.0,,,,,,,,42.0,0.0,0.058475,-0.492676,0.45654300000000003,0.738525,0.784192,-0.6250100000000001,-0.090822,-0.033243,-0.042019,-0.017787,,,,,,,,,,,,,,,,,,,,,,,,,,,,,,,,,,,,,,,,,,,,,,,,,,,,,,,,,,,,,,,,,
6715,1650407194.7356641,1650407194.731991,85.0,0.0,4044.102539,4353.846191,4363.589844,4265.641113000001,4021.025635,450.0,4.0,91.0,,,,0.0,4.0,0.0,0.0,0.0,4.0,0.0,,,,,,,,,,,,,,,,,,,,,,,,,,,,,,,,,,,,,,,,,,,,,,,,,,,,,,,,,,,,,,,,,,,,,,,,,,,,,,,,,,,,
6716,1650407194.743479,1650407194.739805,86.0,0.0,4032.820557,4713.333496,4340.0,4268.717772999999,4112.307617,450.0,4.0,91.0,,,,0.0,4.0,0.0,0.0,0.0,4.0,0.0,1.0,0.0,1.0,0.0,0.0,0.0,1.0,43.0,0.0,0.059347000000000004,-0.492432,0.45629899999999995,0.7387699999999999,0.778332,-0.615732,-0.099123,-0.033288,-0.042065,-0.02221,1.0,0.0,0.0,,,,,,,,,,,,,,,,,,,,,,,,,,,,,,,,0.0,0.0,1.0,0.0,512.0,0.28984699999999997,75.14490500000001,32.479321,5.977409,4.739225,3.025839,122.47625,178.14224199999998,25.578936,21.002531,32.210445,161.837143,95.89344799999999,47.001507000000004,75.234818,23.618219,0.36704000000000003,0.237273,0.059462,0.030927,0.030537,31.630863,10.011405,3.775593,6.080869,3.558786
6717,1650407194.751294,1650407194.74752,87.0,0.0,3959.487061,4722.05127,4341.025879,4278.974121,4073.8461909999996,16190.0,4.0,91.0,,,,0.0,4.0,0.0,0.0,0.0,4.0,0.0,,,,,,,,,,,,,,,,,,,,,,,,,,,,,,,,,,,,,,,,,,,,,,,,,,,,,,,,,,,,,,,,,,,,,,,,,,,,,,,,,,,,
6718,1650407194.759108,1650407194.755334,88.0,0.0,4014.358887,4493.846191,4349.230957,4275.384765999999,4033.8461909999996,450.0,4.0,91.0,,,,0.0,4.0,0.0,0.0,0.0,4.0,0.0,,,,,,,,44.0,0.0,0.059347000000000004,-0.492432,0.45629899999999995,0.7387699999999999,0.786145,-0.626474,-0.09668099999999999,-0.033329000000000004,-0.042107,-0.023504,,,,,,,,,,,,,,,,,,,,,,,,,,,,,,,,,,,,,,,,,,,,,,,,,,,,,,,,,,,,,,,,,
6719,1650407194.766923,1650407194.763048,89.0,0.0,4070.256348,4703.589844,4193.333496,4267.179688,4109.230957,450.0,4.0,91.0,,,,0.0,4.0,0.0,0.0,0.0,4.0,0.0,,,,,,,,,,,,,,,,,,,,,,,,,,,,,,,,,,,,,,,,,,,,,,,,,,,,,,,,,,,,,,,,,,,,,,,,,,,,,,,,,,,,
6720,1650407194.774737,1650407194.770863,90.0,0.0,4041.025635,4776.410156,4064.102539,4272.307617,4141.025879,450.0,4.0,91.0,,,,0.0,4.0,0.0,0.0,0.0,4.0,0.0,,,,,,,,45.0,0.0,0.059347000000000004,-0.492432,0.45629899999999995,0.7387699999999999,0.783215,-0.6323340000000001,-0.100587,-0.033316000000000005,-0.042144,-0.024523,,,,,,,,,,,,,,,,,,,,,,,,,,,,,,,,,,,0.0,0.0,1.0,0.0,512.0,0.28984699999999997,,,,,,,,,,,,,,,,,,,,,,,,,
6721,1650407194.782552,1650407194.7785769,91.0,0.0,4050.7692869999996,4392.820313,4190.256348,4274.358886999999,4062.0512700000004,16190.0,4.0,91.0,,,,0.0,4.0,0.0,0.0,0.0,4.0,0.0,,,,,,,,,,,,,,,,,,,,,,,,,,,,,,,,,,,,,,,,,,,,,,,,,,,,,,,,,,,,,,,,,,,,,,,,,,,,,,,,,,,,
6722,1650407194.790367,1650407194.786491,92.0,0.0,4089.2307130000004,4427.179688,4224.615234000001,4268.205078,4076.923096,450.0,4.0,91.0,,,,0.0,4.0,0.0,0.0,0.0,4.0,0.0,,,,,,,,46.0,0.0,0.057438,-0.492432,0.45654300000000003,0.7387699999999999,0.78761,-0.627939,-0.10254100000000001,-0.033305,-0.042178,-0.025537999999999998,,,,,,,,,,,,,,,,,,,,,,,,,,,,,,,,,,,,,,,,,,,,,,,,,,,,,,,,,,,,,,,,,
6723,1650407194.798181,1650407194.794306,93.0,0.0,4023.076904,4762.05127,4137.436035,4273.846191,4093.3332520000004,450.0,4.0,91.0,,,,0.0,4.0,0.0,0.0,0.0,4.0,0.0,,,,,,,,,,,,,,,,,,,,,,,,,,,,,,,,,,,,,,,,,,,,,,,,,,,,,,,,,,,,,,,,,,,,,,,,,,,,,,,,,,,,
6724,1650407194.8059962,1650407194.802221,94.0,0.0,3995.897461,4754.871582,4211.282227000001,4280.512695,4066.6667479999996,450.0,4.0,91.0,,,,0.0,4.0,0.0,0.0,0.0,4.0,0.0,,,,,,,,47.0,0.0,0.059347000000000004,-0.492432,0.45629899999999995,0.7387699999999999,0.786145,-0.626474,-0.09668099999999999,-0.033197000000000004,-0.04216,-0.022935,,,,,,,,,,,,,,,,,,,,,,,,,,,,,,,,,,,0.0,0.0,1.0,0.0,512.0,0.28984699999999997,,,,,,,,,,,,,,,,,,,,,,,,,
6725,1650407194.8138099,1650407194.810035,95.0,0.0,4013.3332520000004,4763.589844,4227.179688,4276.410156,4102.05127,16190.0,4.0,91.0,,,,0.0,4.0,0.0,0.0,0.0,4.0,0.0,,,,,,,,,,,,,,,,,,,,,,,,,,,,,,,,,,,,,,,,,,,,,,,,,,,,,,,,,,,,,,,,,,,,,,,,,,,,,,,,,,,,
6726,1650407194.821625,1650407194.81795,96.0,0.0,4038.974365,4809.743652,4004.615479,4274.358886999999,4144.615234000001,450.0,4.0,91.0,,,,0.0,4.0,0.0,0.0,0.0,4.0,0.0,,,,,,,,48.0,0.0,0.057438,-0.492432,0.45654300000000003,0.7387699999999999,0.78761,-0.627939,-0.10254100000000001,-0.033198000000000005,-0.042192,-0.024108,,,,,,,,,,,,,,,,,,,,,,,,,,,,,,,,,,,,,,,,,,,,,,,,,,,,,,,,,,,,,,,,,
6727,1650407194.82944,1650407194.8257642,97.0,0.0,4114.358886999999,4627.692383,3911.281982,4272.307617,4138.974121,450.0,4.0,91.0,,,,0.0,4.0,0.0,0.0,0.0,4.0,0.0,,,,,,,,,,,,,,,,,,,,,,,,,,,,,,,,,,,,,,,,,,,,,,,,,,,,,,,,,,,,,,,,,,,,,,,,,,,,,,,,,,,,
6728,1650407194.8372538,1650407194.833679,98.0,0.0,4132.307617,4603.077147999999,4146.666504,4268.205078,4144.102539,450.0,4.0,91.0,,,,0.0,4.0,0.0,0.0,0.0,4.0,0.0,,,,,,,,49.0,0.0,0.057438,-0.492432,0.45654300000000003,0.7387699999999999,0.775402,-0.634775,-0.095216,-0.033101,-0.042172,-0.021649,,,,,,,,,,,,,,,,,,,,,,,,,,,,,,,,,,,0.0,0.0,1.0,0.0,512.0,0.28984699999999997,,,,,,,,,,,,,,,,,,,,,,,,,
6729,1650407194.845069,1650407194.8414938,99.0,0.0,4059.487061,4628.205078,4314.871582,4268.205078,4099.487305,16190.0,4.0,91.0,,,,0.0,4.0,0.0,0.0,0.0,4.0,0.0,,,,,,,,,,,,,,,,,,,,,,,,,,,,,,,,,,,,,,,,,,,,,,,,,,,,,,,,,,,,,,,,,,,,,,,,,,,,,,,,,,,,
6730,1650407194.852883,1650407194.849208,100.0,0.0,4077.9487299999996,4528.717772999999,4280.0,4266.666504,4065.641113,450.0,4.0,91.0,,,,0.0,4.0,0.0,0.0,0.0,4.0,0.0,,,,,,,,50.0,0.0,0.057438,-0.492432,0.45654300000000003,0.7387699999999999,0.773938,-0.6303810000000001,-0.09668099999999999,-0.03316,-0.042105000000000004,-0.023,,,,,,,,,,,,,,,,,,,,,,,,,,,,,,,,,,,,,,,,,,,,,,,,,,,,,,,,,,,,,,,,,
6731,1650407194.860698,1650407194.857023,101.0,0.0,4127.179688,4614.358886999999,4177.94873,4266.666504,4125.641113000001,450.0,4.0,91.0,,,,0.0,4.0,0.0,0.0,0.0,4.0,0.0,,,,,,,,,,,,,,,,,,,,,,,,,,,,,,,,,,,,,,,,,,,,,,,,,,,,,,,,,,,,,,,,,,,,,,,,,,,,,,,,,,,,
6732,1650407194.868513,1650407194.8647368,102.0,0.0,4091.281982,4653.846191,4266.666504,4270.769043,4126.666504,450.0,4.0,91.0,,,,0.0,4.0,0.0,0.0,0.0,4.0,0.0,,,,,,,,51.0,0.0,0.057438,-0.492432,0.45654300000000003,0.7387699999999999,0.777844,-0.622568,-0.10254100000000001,-0.033115,-0.042143,-0.024118,1.0,0.0,0.0,,,,,,,,,,,,,,,,,,,,,,,,,,,,,,,,0.0,0.0,1.0,0.0,512.0,0.285936,101.688873,44.217102000000004,8.632904,4.568095,3.410903,102.35376,140.13720700000002,24.262705,28.238740999999997,38.248016,174.78675800000002,103.225487,56.693507999999994,75.545151,24.559642999999998,0.345202,0.18803499999999998,0.0572,0.034025,0.030124,38.661961,13.465795000000002,4.888882,6.497143,3.718815
6733,1650407194.876327,1650407194.872552,103.0,0.0,4084.102539,4630.769043,4333.846191,4269.743652,4102.05127,16190.0,4.0,91.0,,,,0.0,4.0,0.0,0.0,0.0,4.0,0.0,,,,,,,,,,,,,,,,,,,,,,,,,,,,,,,,,,,,,,,,,,,,,,,,,,,,,,,,,,,,,,,,,,,,,,,,,,,,,,,,,,,,
6734,1650407194.884142,1650407194.880266,104.0,0.0,4081.538574,4782.05127,4137.436035,4270.256348,4136.922852000001,450.0,4.0,91.0,,,,0.0,4.0,0.0,0.0,0.0,4.0,0.0,,,,,,,,52.0,0.0,0.057438,-0.492432,0.45654300000000003,0.7387699999999999,0.8012819999999999,-0.627939,-0.098634,-0.033222,-0.042128,-0.027857999999999997,,,,,,,,,,,,,,,,,,,,,,,,,,,,,,,,,,,,,,,,,,,,,,,,,,,,,,,,,,,,,,,,,
6735,1650407194.891956,1650407194.888081,105.0,0.0,4107.179688,4801.025879,3921.538574,4273.333496,4166.153809,450.0,4.0,91.0,,,,0.0,4.0,0.0,0.0,0.0,4.0,0.0,,,,,,,,,,,,,,,,,,,,,,,,,,,,,,,,,,,,,,,,,,,,,,,,,,,,,,,,,,,,,,,,,,,,,,,,,,,,,,,,,,,,
6736,1650407194.899771,1650407194.8957949,106.0,0.0,4170.769043,4760.0,4039.487061,4271.282227000001,4192.307617,450.0,4.0,91.0,,,,0.0,4.0,0.0,0.0,0.0,4.0,0.0,,,,,,,,53.0,0.0,0.057438,-0.492432,0.45654300000000003,0.7387699999999999,0.778332,-0.621103,-0.095705,-0.033318,-0.042212,-0.024779,,,,,,,,,,,,,,,,,,,,,,,,,,,,,,,,,,,0.0,0.0,1.0,0.0,512.0,0.285936,,,,,,,,,,,,,,,,,,,,,,,,,
6737,1650407194.907585,1650407194.90361,107.0,0.0,4173.333496,4730.256348,4178.974121,4269.230957,4203.589844,16190.0,4.0,91.0,,,,0.0,4.0,0.0,0.0,0.0,4.0,0.0,,,,,,,,,,,,,,,,,,,,,,,,,,,,,,,,,,,,,,,,,,,,,,,,,,,,,,,,,,,,,,,,,,,,,,,,,,,,,,,,,,,,
6738,1650407194.9154,1650407194.911324,108.0,0.0,4153.333496,4488.717772999999,4177.436035,4264.615234000001,4134.358886999999,450.0,4.0,91.0,,,,0.0,4.0,0.0,0.0,0.0,4.0,0.0,,,,,,,,54.0,0.0,0.060497,-0.492432,0.45654300000000003,0.738525,0.796887,-0.6342869999999999,-0.101564,-0.033355,-0.042288,-0.025963999999999997,,,,,,,,,,,,,,,,,,,,,,,,,,,,,,,,,,,,,,,,,,,,,,,,,,,,,,,,,,,,,,,,,
6739,1650407194.9232152,1650407194.9191391,109.0,0.0,4196.922852000001,4406.153809,4113.333496,4263.589844,4128.205078,450.0,4.0,91.0,,,,0.0,4.0,0.0,0.0,0.0,4.0,0.0,,,,,,,,,,,,,,,,,,,,,,,,,,,,,,,,,,,,,,,,,,,,,,,,,,,,,,,,,,,,,,,,,,,,,,,,,,,,,,,,,,,,
6740,1650407194.9310288,1650407194.926853,110.0,0.0,4178.461426,4590.769043,4085.1281740000004,4271.282227000001,4145.128418,450.0,4.0,91.0,,,,0.0,4.0,0.0,0.0,0.0,4.0,0.0,,,,,,,,55.0,0.0,0.060497,-0.492432,0.45654300000000003,0.738525,0.777356,-0.629404,-0.09472799999999999,-0.033438,-0.042405,-0.026882999999999997,,,,,,,,,,,,,,,,,,,,,,,,,,,,,,,,,,,0.0,0.0,1.0,0.0,512.0,0.285936,,,,,,,,,,,,,,,,,,,,,,,,,
6741,1650407194.938844,1650407194.934668,111.0,0.0,4145.128418,4605.128418,4203.077147999999,4274.871582,4132.820313,16190.0,4.0,91.0,,,,0.0,4.0,0.0,0.0,0.0,4.0,0.0,,,,,,,,,,,,,,,,,,,,,,,,,,,,,,,,,,,,,,,,,,,,,,,,,,,,,,,,,,,,,,,,,,,,,,,,,,,,,,,,,,,,
6742,1650407194.946658,1650407194.942382,112.0,0.0,4156.922852000001,4546.153809,4280.512695,4270.769043,4136.922852000001,450.0,4.0,91.0,,,,0.0,4.0,0.0,0.0,0.0,4.0,0.0,,,,,,,,56.0,0.0,0.057438,-0.492432,0.45654300000000003,0.7387699999999999,0.7680779999999999,-0.62208,-0.101076,-0.033365,-0.042412,-0.02146,,,,,,,,,,,,,,,,,,,,,,,,,,,,,,,,,,,,,,,,,,,,,,,,,,,,,,,,,,,,,,,,,
6743,1650407194.954473,1650407194.950297,113.0,0.0,4153.846191,4658.461426,4147.692383,4272.820313,4156.410156,450.0,4.0,91.0,,,,0.0,4.0,0.0,0.0,0.0,4.0,0.0,,,,,,,,,,,,,,,,,,,,,,,,,,,,,,,,,,,,,,,,,,,,,,,,,,,,,,,,,,,,,,,,,,,,,,,,,,,,,,,,,,,,
6744,1650407194.962287,1650407194.958111,114.0,0.0,4141.538574,4720.512695,4061.538574,4278.461426,4138.461426,450.0,4.0,91.0,,,,0.0,4.0,0.0,0.0,0.0,4.0,0.0,,,,,,,,57.0,0.0,0.057438,-0.492432,0.45654300000000003,0.7387699999999999,0.7827270000000001,-0.6303810000000001,-0.087404,-0.0333,-0.04237,-0.022732,,,,,,,,,,,,,,,,,,,,,,,,,,,,,,,,,,,0.0,0.0,1.0,0.0,512.0,0.285936,,,,,,,,,,,,,,,,,,,,,,,,,
6745,1650407194.970102,1650407194.966026,115.0,0.0,4153.846191,4730.256348,4239.487305,4275.384765999999,4133.846191,16190.0,4.0,91.0,,,,0.0,4.0,0.0,0.0,0.0,4.0,0.0,,,,,,,,,,,,,,,,,,,,,,,,,,,,,,,,,,,,,,,,,,,,,,,,,,,,,,,,,,,,,,,,,,,,,,,,,,,,,,,,,,,,
6746,1650407194.977917,1650407194.973841,116.0,0.0,4146.153809,4730.769043,4253.333496,4271.794922,4137.436035,450.0,4.0,91.0,,,,0.0,4.0,0.0,0.0,0.0,4.0,0.0,,,,,,,,58.0,0.0,0.057438,-0.492432,0.45654300000000003,0.7387699999999999,0.7900510000000001,-0.624033,-0.10351700000000001,-0.033388,-0.042332999999999996,-0.020117,,,,,,,,,,,,,,,,,,,,,,,,,,,,,,,,,,,,,,,,,,,,,,,,,,,,,,,,,,,,,,,,,
6747,1650407194.9857311,1650407194.981755,117.0,0.0,4151.282227000001,4684.102539,4081.025635,4272.820313,4141.538574,450.0,4.0,91.0,,,,0.0,4.0,0.0,0.0,0.0,4.0,0.0,,,,,,,,,,,,,,,,,,,,,,,,,,,,,,,,,,,,,,,,,,,,,,,,,,,,,,,,,,,,,,,,,,,,,,,,,,,,,,,,,,,,
6748,1650407194.993546,1650407194.98957,118.0,0.0,4169.230957,4728.717772999999,4021.025635,4273.846191,4174.871582,450.0,4.0,91.0,,,,0.0,4.0,0.0,0.0,0.0,4.0,0.0,,,,,,,,59.0,0.0,0.057438,-0.492432,0.45654300000000003,0.7387699999999999,0.7837029999999999,-0.6362399999999999,-0.10351700000000001,-0.033320999999999996,-0.042299,-0.021524,1.0,0.0,0.0,,,,,,,,,,,,,,,,,,,,,,,,,,,,,,,,0.0,0.0,1.0,0.0,512.0,0.320797,127.96328700000001,55.397532999999996,11.878921,4.375393,4.003093,82.25466899999999,103.173355,26.021463,40.36636,47.681286,178.093155,108.351173,69.133934,75.41658000000001,28.182335,0.303827,0.143282,0.050135,0.039974,0.031928,47.665558000000004,19.953241000000002,6.650157000000001,6.7964009999999995,4.080847
6749,1650407195.00136,1650407194.997484,119.0,0.0,4160.512695,4743.589844,4123.589844,4273.333496,4157.436035,16190.0,4.0,91.0,,,,0.0,4.0,0.0,0.0,0.0,4.0,0.0,,,,,,,,,,,,,,,,,,,,,,,,,,,,,,,,,,,,,,,,,,,,,,,,,,,,,,,,,,,,,,,,,,,,,,,,,,,,,,,,,,,,
6750,1650407195.009175,1650407195.005299,120.0,0.0,4158.461426,4757.436035,4091.281982,4273.333496,4158.974121,450.0,4.0,91.0,,,,0.0,4.0,0.0,0.0,0.0,4.0,0.0,,,,,,,,60.0,0.0,0.057438,-0.492432,0.45654300000000003,0.7387699999999999,0.784192,-0.625498,-0.099123,-0.033309,-0.042366,-0.022838,,,,,,,,,,,,,,,,,,,,,,,,,,,,,,,,,,,,,,,,,,,,,,,,,,,,,,,,,,,,,,,,,
6751,1650407195.016989,1650407195.013114,121.0,0.0,4155.897461,4745.128418,4029.743652,4273.846191,4187.692383,450.0,4.0,91.0,,,,0.0,4.0,0.0,0.0,0.0,4.0,0.0,,,,,,,,,,,,,,,,,,,,,,,,,,,,,,,,,,,,,,,,,,,,,,,,,,,,,,,,,,,,,,,,,,,,,,,,,,,,,,,,,,,,
6752,1650407195.0248039,1650407195.020828,122.0,0.0,4204.615234000001,4708.205078,4066.6667479999996,4273.846191,4230.769043,450.0,4.0,91.0,,,,0.0,4.0,0.0,0.0,0.0,4.0,0.0,,,,,,,,61.0,0.0,0.057438,-0.492432,0.45654300000000003,0.7387699999999999,0.772473,-0.629892,-0.09131,-0.033201,-0.042377,-0.026511,,,,,,,,,,,,,,,,,,,,,,,,,,,,,,,,,,,0.0,0.0,1.0,0.0,512.0,0.320797,,,,,,,,,,,,,,,,,,,,,,,,,
6753,1650407195.032619,1650407195.028742,123.0,0.0,4220.512695,4772.307617,3994.8718259999996,4275.897461,4242.563965,16190.0,4.0,91.0,,,,0.0,4.0,0.0,0.0,0.0,4.0,0.0,,,,,,,,,,,,,,,,,,,,,,,,,,,,,,,,,,,,,,,,,,,,,,,,,,,,,,,,,,,,,,,,,,,,,,,,,,,,,,,,,,,,
6754,1650407195.040433,1650407195.036557,124.0,0.0,4222.05127,4702.563965,3841.025635,4275.384765999999,4218.974121,450.0,4.0,91.0,,,,0.0,4.0,0.0,0.0,0.0,4.0,0.0,,,,,,,,62.0,0.0,0.058475,-0.492676,0.45654300000000003,0.738525,0.792981,-0.621103,-0.093263,-0.033299,-0.042289999999999994,-0.027229000000000003,,,,,,,,,,,,,,,,,,,,,,,,,,,,,,,,,,,,,,,,,,,,,,,,,,,,,,,,,,,,,,,,,
6755,1650407195.048248,1650407195.0442722,125.0,0.0,4247.179688,4599.487305,3931.281982,4271.282227000001,4194.871582,450.0,4.0,91.0,,,,0.0,4.0,0.0,0.0,0.0,4.0,0.0,,,,,,,,,,,,,,,,,,,,,,,,,,,,,,,,,,,,,,,,,,,,,,,,,,,,,,,,,,,,,,,,,,,,,,,,,,,,,,,,,,,,
6756,1650407195.056062,1650407195.0520859,126.0,0.0,4287.692383,4553.333496,4091.794922,4273.846191,4200.0,450.0,4.0,91.0,,,,0.0,4.0,0.0,0.0,0.0,4.0,0.0,,,,,,,,63.0,0.0,0.058475,-0.492676,0.45654300000000003,0.738525,0.786633,-0.615732,-0.093751,-0.033192,-0.04226,-0.027973,,,,,,,,,,,,,,,,,,,,,,,,,,,,,,,,,,,0.0,0.0,1.0,0.0,512.0,0.320797,,,,,,,,,,,,,,,,,,,,,,,,,
6757,1650407195.0638769,1650407195.0598,127.0,0.0,4288.205078,4472.307617,4051.794922,4276.922852000001,4214.871582,242.0,4.0,91.0,,,,0.0,4.0,0.0,0.0,0.0,4.0,0.0,,,,,,,,,,,,,,,,,,,,,,,,,,,,,,,,,,,,,,,,,,,,,,,,,,,,,,,,,,,,,,,,,,,,,,,,,,,,,,,,,,,,
6758,1650407195.071692,1650407195.067615,0.0,0.0,4268.205078,4436.922852000001,3947.6923829999996,4275.384765999999,4211.282227000001,450.0,4.0,91.0,,,,0.0,4.0,0.0,0.0,0.0,4.0,0.0,,,,,,,,0.0,0.0,0.056536,-0.492676,0.456787,0.738525,0.78468,-0.626474,-0.090822,-0.033242,-0.042331,-0.031083999999999997,,,,,,,,,,,,,,,,,,,,,,,,,,,,,,,,,,,,,,,,,,,,,,,,,,,,,,,,,,,,,,,,,
6759,1650407195.0795062,1650407195.0753288,1.0,0.0,4241.538574,4454.871582,3953.8461909999996,4275.897461,4168.717772999999,450.0,4.0,91.0,,,,0.0,4.0,0.0,0.0,0.0,4.0,0.0,,,,,,,,,,,,,,,,,,,,,,,,,,,,,,,,,,,,,,,,,,,,,,,,,,,,,,,,,,,,,,,,,,,,,,,,,,,,,,,,,,,,
6760,1650407195.087321,1650407195.0832438,2.0,0.0,4220.0,4472.307617,4099.487305,4277.94873,4151.794922,16135.0,4.0,91.0,,,,0.0,4.0,0.0,0.0,0.0,4.0,0.0,,,,,,,,1.0,0.0,0.058475,-0.492676,0.45654300000000003,0.738525,0.788098,-0.621592,-0.097169,-0.033139999999999996,-0.042248,-0.031296,,,,,,,,,,,,,,,,,,,,,,,,,,,,,,,,,,,0.0,0.0,1.0,0.0,512.0,0.320797,,,,,,,,,,,,,,,,,,,,,,,,,
6761,1650407195.095135,1650407195.091059,3.0,0.0,4261.025879,4510.769043,4196.410156,4274.358886999999,4193.846191,450.0,4.0,91.0,,,,0.0,4.0,0.0,0.0,0.0,4.0,0.0,,,,,,,,,,,,,,,,,,,,,,,,,,,,,,,,,,,,,,,,,,,,,,,,,,,,,,,,,,,,,,,,,,,,,,,,,,,,,,,,,,,,
6762,1650407195.10295,1650407195.098974,4.0,0.0,4261.025879,4677.436035,4146.153809,4269.743652,4211.282227000001,0.0,4.0,91.0,,,,0.0,4.0,0.0,0.0,0.0,4.0,0.0,,,,,,,,2.0,0.0,0.058475,-0.492676,0.45654300000000003,0.738525,0.792493,-0.627939,-0.08984500000000001,-0.033244,-0.042272000000000004,-0.034368,,,,,,,,,,,,,,,,,,,,,,,,,,,,,,,,,,,,,,,,,,,,,,,,,,,,,,,,,,,,,,,,,
6763,1650407195.110764,1650407195.106789,5.0,0.0,4198.461426,4628.205078,4008.718018,4271.282227000001,4141.538574,450.0,4.0,91.0,,,,0.0,4.0,0.0,0.0,0.0,4.0,0.0,,,,,,,,,,,,,,,,,,,,,,,,,,,,,,,,,,,,,,,,,,,,,,,,,,,,,,,,,,,,,,,,,,,,,,,,,,,,,,,,,,,,
6764,1650407195.118579,1650407195.114703,6.0,0.0,4186.666504,4483.077147999999,4120.512695,4270.769043,4112.820313,5.0,4.0,91.0,,,,0.0,4.0,0.0,0.0,0.0,4.0,0.0,,,,,,,,3.0,0.0,0.05637999999999999,-0.49291999999999997,0.45654300000000003,0.738525,0.7856569999999999,-0.62208,-0.104005,-0.03324,-0.042244,-0.034398000000000005,1.0,0.0,0.0,,,,,,,,,,,,,,,,,,,,,,,,,,,,,,,,0.0,0.0,1.0,0.0,512.0,0.283868,150.63104199999998,63.960602,15.184226999999998,4.390025,4.8508,64.168205,75.06459,33.542786,58.35139100000001,62.659767,172.02272,111.549095,82.29480699999999,75.14392099999999,34.940940999999995,0.257735,0.113837,0.044099,0.049165,0.038522,58.915707,28.756884000000003,8.86219,6.994044000000001,4.780366000000001
6765,1650407195.126394,1650407195.122518,7.0,0.0,4211.794922,4548.717772999999,4254.871582,4271.282227000001,4146.666504,450.0,4.0,91.0,,,,0.0,4.0,0.0,0.0,0.0,4.0,0.0,,,,,,,,,,,,,,,,,,,,,,,,,,,,,,,,,,,,,,,,,,,,,,,,,,,,,,,,,,,,,,,,,,,,,,,,,,,,,,,,,,,,
6766,1650407195.134208,1650407195.130333,8.0,0.0,4212.820313,4615.384765999999,4220.0,4275.384765999999,4141.538574,450.0,4.0,91.0,,,,0.0,4.0,0.0,0.0,0.0,4.0,0.0,,,,,,,,4.0,0.0,0.05637999999999999,-0.49291999999999997,0.45654300000000003,0.738525,0.7827270000000001,-0.628428,-0.092287,-0.033237,-0.042316,-0.034523000000000005,,,,,,,,,,,,,,,,,,,,,,,,,,,,,,,,,,,,,,,,,,,,,,,,,,,,,,,,,,,,,,,,,
6767,1650407195.142023,1650407195.138048,9.0,0.0,4235.897461,4585.641113000001,4133.333496,4274.871582,4149.743652,0.0,4.0,91.0,,,,0.0,4.0,0.0,0.0,0.0,4.0,0.0,,,,,,,,,,,,,,,,,,,,,,,,,,,,,,,,,,,,,,,,,,,,,,,,,,,,,,,,,,,,,,,,,,,,,,,,,,,,,,,,,,,,
6768,1650407195.149837,1650407195.145962,10.0,0.0,4262.05127,4571.282227000001,4136.922852000001,4270.256348,4162.563965,450.0,4.0,91.0,,,,0.0,4.0,0.0,0.0,0.0,4.0,0.0,,,,,,,,5.0,0.0,0.05637999999999999,-0.49291999999999997,0.45654300000000003,0.738525,0.793469,-0.625498,-0.10693499999999999,-0.033136,-0.042381999999999996,-0.030924,,,,,,,,,,,,,,,,,,,,,,,,,,,,,,,,,,,0.0,0.0,1.0,0.0,512.0,0.283868,,,,,,,,,,,,,,,,,,,,,,,,,
6769,1650407195.157652,1650407195.153777,11.0,0.0,4271.794922,4568.205078,4077.9487299999996,4268.205078,4171.282227000001,16180.0,4.0,91.0,,,,0.0,4.0,0.0,0.0,0.0,4.0,0.0,,,,,,,,,,,,,,,,,,,,,,,,,,,,,,,,,,,,,,,,,,,,,,,,,,,,,,,,,,,,,,,,,,,,,,,,,,,,,,,,,,,,
6770,1650407195.165466,1650407195.161591,12.0,0.0,4279.487305,4498.974121,4000.512939,4264.102539,4182.05127,450.0,4.0,91.0,,,,0.0,4.0,0.0,0.0,0.0,4.0,0.0,,,,,,,,6.0,0.0,0.058475,-0.492676,0.45654300000000003,0.738525,0.791028,-0.615244,-0.103029,-0.033142000000000005,-0.042538,-0.031103,,,,,,,,,,,,,,,,,,,,,,,,,,,,,,,,,,,,,,,,,,,,,,,,,,,,,,,,,,,,,,,,,
6771,1650407195.173281,1650407195.169306,13.0,0.0,4321.538574,4456.410156,4062.0512700000004,4264.102539,4220.512695,450.0,4.0,91.0,,,,0.0,4.0,0.0,0.0,0.0,4.0,0.0,,,,,,,,,,,,,,,,,,,,,,,,,,,,,,,,,,,,,,,,,,,,,,,,,,,,,,,,,,,,,,,,,,,,,,,,,,,,,,,,,,,,
6772,1650407195.181096,1650407195.1772199,14.0,0.0,4285.641113000001,4510.769043,4141.538574,4268.717772999999,4196.922852000001,450.0,4.0,91.0,,,,0.0,4.0,0.0,0.0,0.0,4.0,0.0,,,,,,,,7.0,0.0,0.058475,-0.492676,0.45654300000000003,0.738525,0.7837029999999999,-0.609873,-0.095216,-0.033197000000000004,-0.042532,-0.027895,,,,,,,,,,,,,,,,,,,,,,,,,,,,,,,,,,,0.0,0.0,1.0,0.0,512.0,0.283868,,,,,,,,,,,,,,,,,,,,,,,,,
6773,1650407195.18891,1650407195.185035,15.0,0.0,4223.589844,4515.897461,4115.384765999999,4267.692383,4138.461426,16180.0,4.0,91.0,,,,0.0,4.0,0.0,0.0,0.0,4.0,0.0,,,,,,,,,,,,,,,,,,,,,,,,,,,,,,,,,,,,,,,,,,,,,,,,,,,,,,,,,,,,,,,,,,,,,,,,,,,,,,,,,,,,
6774,1650407195.196725,1650407195.192849,16.0,0.0,4227.179688,4490.256348,4070.7692869999996,4266.153809,4141.538574,0.0,4.0,91.0,,,,0.0,4.0,0.0,0.0,0.0,4.0,0.0,,,,,,,,8.0,0.0,0.059491999999999996,-0.49291999999999997,0.45654300000000003,0.7382810000000001,0.791028,-0.613779,-0.099611,-0.033149,-0.042477999999999995,-0.028524,,,,,,,,,,,,,,,,,,,,,,,,,,,,,,,,,,,,,,,,,,,,,,,,,,,,,,,,,,,,,,,,,
6775,1650407195.204539,1650407195.2005641,17.0,0.0,4270.769043,4472.820313,4096.922852000001,4271.282227000001,4184.102539,0.0,4.0,91.0,,,,0.0,4.0,0.0,0.0,0.0,4.0,0.0,,,,,,,,,,,,,,,,,,,,,,,,,,,,,,,,,,,,,,,,,,,,,,,,,,,,,,,,,,,,,,,,,,,,,,,,,,,,,,,,,,,,
6776,1650407195.212354,1650407195.208478,18.0,0.0,4269.230957,4484.102539,4096.922852000001,4271.282227000001,4181.538574,0.0,4.0,91.0,,,,0.0,4.0,0.0,0.0,0.0,4.0,0.0,,,,,,,,9.0,0.0,0.061480999999999994,-0.492676,0.45654300000000003,0.7382810000000001,0.782238,-0.619638,-0.100587,-0.033106000000000003,-0.042479,-0.022937,,,,,,,,,,,,,,,,,,,,,,,,,,,,,,,,,,,0.0,0.0,1.0,0.0,512.0,0.283868,,,,,,,,,,,,,,,,,,,,,,,,,
6777,1650407195.2201679,1650407195.2162929,19.0,0.0,4239.487305,4542.563965,4135.384765999999,4266.153809,4168.205078,0.0,4.0,91.0,,,,0.0,4.0,0.0,0.0,0.0,4.0,0.0,,,,,,,,,,,,,,,,,,,,,,,,,,,,,,,,,,,,,,,,,,,,,,,,,,,,,,,,,,,,,,,,,,,,,,,,,,,,,,,,,,,,
6778,1650407195.227983,1650407195.224207,20.0,0.0,4274.358886999999,4534.871582,4226.666504,4266.666504,4199.487305,0.0,4.0,91.0,,,,0.0,4.0,0.0,0.0,0.0,4.0,0.0,,,,,,,,10.0,0.0,0.05964,-0.492676,0.456787,0.7382810000000001,0.770031,-0.623056,-0.093263,-0.032969,-0.042479,-0.020301,,,,,,,,,,,,,,,,,,,,,,,,,,,,,,,,,,,,,,,,,,,,,,,,,,,,,,,,,,,,,,,,,
6779,1650407195.2357981,1650407195.232022,21.0,0.0,4295.384765999999,4534.358886999999,4230.256348,4269.230957,4209.230957,0.0,4.0,91.0,,,,0.0,4.0,0.0,0.0,0.0,4.0,0.0,,,,,,,,,,,,,,,,,,,,,,,,,,,,,,,,,,,,,,,,,,,,,,,,,,,,,,,,,,,,,,,,,,,,,,,,,,,,,,,,,,,,
6780,1650407195.2436118,1650407195.2397368,22.0,0.0,4236.410156,4540.0,4061.025635,4269.743652,4158.974121,0.0,4.0,91.0,,,,0.0,4.0,0.0,0.0,0.0,4.0,0.0,1.0,0.0,1.0,0.0,0.0,0.0,1.0,11.0,0.0,0.059491999999999996,-0.49291999999999997,0.45654300000000003,0.7382810000000001,0.791028,-0.613779,-0.099611,-0.032993,-0.04243,-0.018222,1.0,0.0,0.0,,,,,,,,,,,,,,,,,,,,,,,,,,,,,,,,0.0,0.0,1.0,0.0,512.0,0.335687,168.402664,67.926346,17.912283,4.742562,5.940478,50.513882,57.908062,49.598583000000005,80.355194,83.143509,160.51083400000002,114.75848400000001,94.0196,75.271034,44.51276,0.22286199999999998,0.102147,0.046754000000000004,0.060461,0.050785000000000004,72.746361,37.870567,11.147454,7.052849,5.854458999999999
6781,1650407195.251427,1650407195.247551,23.0,0.0,4183.589844,4441.025879,4122.563965,4268.205078,4106.153809,0.0,4.0,91.0,,,,0.0,4.0,0.0,0.0,0.0,4.0,0.0,,,,,,,,,,,,,,,,,,,,,,,,,,,,,,,,,,,,,,,,,,,,,,,,,,,,,,,,,,,,,,,,,,,,,,,,,,,,,,,,,,,,
6782,1650407195.259241,1650407195.255266,24.0,0.0,4226.153809,4449.743652,4321.538574,4271.794922,4129.743652,0.0,4.0,91.0,,,,0.0,4.0,0.0,0.0,0.0,4.0,0.0,,,,,,,,12.0,0.0,0.05964,-0.492676,0.456787,0.7382810000000001,0.770031,-0.623056,-0.093263,-0.032867,-0.042435,-0.016058000000000003,,,,,,,,,,,,,,,,,,,,,,,,,,,,,,,,,,,,,,,,,,,,,,,,,,,,,,,,,,,,,,,,,
6783,1650407195.267056,1650407195.2630801,25.0,0.0,4273.846191,4581.538574,4305.641113000001,4280.512695,4180.512695,0.0,4.0,91.0,,,,0.0,4.0,0.0,0.0,0.0,4.0,0.0,,,,,,,,,,,,,,,,,,,,,,,,,,,,,,,,,,,,,,,,,,,,,,,,,,,,,,,,,,,,,,,,,,,,,,,,,,,,,,,,,,,,
6784,1650407195.274871,1650407195.2707949,26.0,0.0,4280.0,4548.205078,4153.333496,4284.102539,4205.641113000001,0.0,4.0,91.0,,,,0.0,4.0,0.0,0.0,0.0,4.0,0.0,,,,,,,,13.0,0.0,0.056536,-0.492676,0.456787,0.738525,0.790539,-0.609384,-0.11816600000000001,-0.032754000000000005,-0.04244,-0.014306000000000001,,,,,,,,,,,,,,,,,,,,,,,,,,,,,,,,,,,0.0,0.0,1.0,0.0,512.0,0.335687,,,,,,,,,,,,,,,,,,,,,,,,,
6785,1650407195.282685,1650407195.278609,27.0,0.0,4262.563965,4432.307617,4191.282227000001,4279.487305,4161.025879,0.0,4.0,91.0,,,,0.0,4.0,0.0,0.0,0.0,4.0,0.0,,,,,,,,,,,,,,,,,,,,,,,,,,,,,,,,,,,,,,,,,,,,,,,,,,,,,,,,,,,,,,,,,,,,,,,,,,,,,,,,,,,,
6786,1650407195.2905,1650407195.286324,28.0,0.0,4240.512695,4510.256348,4205.128418,4278.461426,4138.974121,0.0,4.0,91.0,,,,0.0,4.0,0.0,0.0,0.0,4.0,0.0,,,,,,,,14.0,0.0,0.056536,-0.492676,0.456787,0.738525,0.781262,-0.624033,-0.101076,-0.032848,-0.042395,-0.016391,,,,,,,,,,,,,,,,,,,,,,,,,,,,,,,,,,,,,,,,,,,,,,,,,,,,,,,,,,,,,,,,,
6787,1650407195.298314,1650407195.2941382,29.0,0.0,4215.897461,4567.692383,4138.974121,4284.102539,4152.820313,0.0,4.0,91.0,,,,0.0,4.0,0.0,0.0,0.0,4.0,0.0,,,,,,,,,,,,,,,,,,,,,,,,,,,,,,,,,,,,,,,,,,,,,,,,,,,,,,,,,,,,,,,,,,,,,,,,,,,,,,,,,,,,
6788,1650407195.306129,1650407195.301853,30.0,0.0,4245.641113000001,4540.0,4244.102539,4285.128418,4175.384765999999,0.0,4.0,91.0,,,,0.0,4.0,0.0,0.0,0.0,4.0,0.0,,,,,,,,15.0,0.0,0.056536,-0.492676,0.456787,0.738525,0.797864,-0.614755,-0.095705,-0.032931999999999996,-0.042306,-0.014459,,,,,,,,,,,,,,,,,,,,,,,,,,,,,,,,,,,0.0,0.0,1.0,0.0,512.0,0.335687,,,,,,,,,,,,,,,,,,,,,,,,,
6789,1650407195.3139439,1650407195.309667,31.0,0.0,4268.717772999999,4559.487305,4342.05127,4280.512695,4178.461426,0.0,4.0,91.0,,,,0.0,4.0,0.0,0.0,0.0,4.0,0.0,,,,,,,,,,,,,,,,,,,,,,,,,,,,,,,,,,,,,,,,,,,,,,,,,,,,,,,,,,,,,,,,,,,,,,,,,,,,,,,,,,,,
6790,1650407195.321758,1650407195.317382,32.0,0.0,4261.538574,4544.102539,4217.94873,4278.974121,4178.461426,0.0,4.0,91.0,,,,0.0,4.0,0.0,0.0,0.0,4.0,0.0,,,,,,,,16.0,0.0,0.058625,-0.492432,0.456787,0.738525,0.781262,-0.624521,-0.09472799999999999,-0.033007999999999996,-0.042324,-0.016529,,,,,,,,,,,,,,,,,,,,,,,,,,,,,,,,,,,,,,,,,,,,,,,,,,,,,,,,,,,,,,,,,
6791,1650407195.3295732,1650407195.325196,33.0,0.0,4243.077147999999,4522.05127,4116.410156,4279.487305,4167.692383,0.0,4.0,91.0,,,,0.0,4.0,0.0,0.0,0.0,4.0,0.0,,,,,,,,,,,,,,,,,,,,,,,,,,,,,,,,,,,,,,,,,,,,,,,,,,,,,,,,,,,,,,,,,,,,,,,,,,,,,,,,,,,,
6792,1650407195.3373868,1650407195.33291,34.0,0.0,4251.282227000001,4556.922852000001,4224.102539,4276.410156,4170.769043,0.0,4.0,91.0,,,,0.0,4.0,0.0,0.0,0.0,4.0,0.0,,,,,,,,17.0,0.0,0.058625,-0.492432,0.456787,0.738525,0.782238,-0.6201270000000001,-0.102052,-0.029756,-0.042291,-0.021077000000000002,,,,,,,,,,,,,,,,,,,,,,,,,,,,,,,,,,,0.0,0.0,1.0,0.0,512.0,0.335687,,,,,,,,,,,,,,,,,,,,,,,,,
6793,1650407195.345202,1650407195.340725,35.0,0.0,4261.538574,4527.692383,4248.717772999999,4273.846191,4178.974121,0.0,4.0,91.0,,,,0.0,4.0,0.0,0.0,0.0,4.0,0.0,,,,,,,,,,,,,,,,,,,,,,,,,,,,,,,,,,,,,,,,,,,,,,,,,,,,,,,,,,,,,,,,,,,,,,,,,,,,,,,,,,,,
6794,1650407195.353016,1650407195.348439,36.0,0.0,4240.0,4503.077147999999,4204.615234000001,4273.333496,4166.666504,0.0,4.0,91.0,,,,0.0,4.0,0.0,0.0,0.0,4.0,0.0,,,,,,,,18.0,0.0,0.058625,-0.492432,0.456787,0.738525,0.78468,-0.629404,-0.091798,-0.030101,-0.042212,-0.022534000000000002,,,,,,,,,,,,,,,,,,,,,,,,,,,,,,,,,,,,,,,,,,,,,,,,,,,,,,,,,,,,,,,,,
6795,1650407195.360831,1650407195.356353,37.0,0.0,4236.922852000001,4586.153809,4248.205078,4272.307617,4165.128418,0.0,4.0,91.0,,,,0.0,4.0,0.0,0.0,0.0,4.0,0.0,,,,,,,,,,,,,,,,,,,,,,,,,,,,,,,,,,,,,,,,,,,,,,,,,,,,,,,,,,,,,,,,,,,,,,,,,,,,,,,,,,,,
6796,1650407195.3686461,1650407195.364168,38.0,0.0,4243.077147999999,4607.179688,4339.487305,4271.794922,4176.410156,0.0,4.0,91.0,,,,0.0,4.0,0.0,0.0,0.0,4.0,0.0,,,,,,,,19.0,0.0,0.058625,-0.492432,0.456787,0.738525,0.7797970000000001,-0.626963,-0.090822,-0.030411,-0.042239,-0.017497,1.0,0.0,0.0,,,,,,,,,,,,,,,,,,,,,,,,,,,,,,,,0.0,0.0,1.0,0.0,512.0,0.360348,177.788284,66.300606,19.591843,5.367204,7.141995,45.036041,50.361576,75.462402,101.472099,105.669693,148.817413,119.98239099999999,102.28675799999999,76.23575600000001,55.734623,0.202268,0.102751,0.063362,0.071283,0.066852,86.504364,44.611015,13.072011,6.870328,7.165119
6797,1650407195.37646,1650407195.372083,39.0,0.0,4224.102539,4532.307617,4242.563965,4272.820313,4167.692383,0.0,4.0,91.0,,,,0.0,4.0,0.0,0.0,0.0,4.0,0.0,,,,,,,,,,,,,,,,,,,,,,,,,,,,,,,,,,,,,,,,,,,,,,,,,,,,,,,,,,,,,,,,,,,,,,,,,,,,,,,,,,,,
6798,1650407195.384275,1650407195.379897,40.0,0.0,4198.461426,4513.333496,4206.666504,4273.333496,4142.563965,0.0,4.0,91.0,,,,0.0,4.0,0.0,0.0,0.0,4.0,0.0,,,,,,,,20.0,0.0,0.058625,-0.492432,0.456787,0.738525,0.799817,-0.61622,-0.107912,-0.030691000000000003,-0.042214,-0.019166,,,,,,,,,,,,,,,,,,,,,,,,,,,,,,,,,,,,,,,,,,,,,,,,,,,,,,,,,,,,,,,,,
6799,1650407195.3920891,1650407195.387812,41.0,0.0,4244.102539,4537.94873,4330.769043,4275.384765999999,4175.897461,0.0,4.0,91.0,,,,0.0,4.0,0.0,0.0,0.0,4.0,0.0,,,,,,,,,,,,,,,,,,,,,,,,,,,,,,,,,,,,,,,,,,,,,,,,,,,,,,,,,,,,,,,,,,,,,,,,,,,,,,,,,,,,
6800,1650407195.399904,1650407195.395626,42.0,0.0,4277.436035,4532.307617,4352.307617,4275.384765999999,4200.0,0.0,4.0,91.0,,,,0.0,4.0,0.0,0.0,0.0,4.0,0.0,,,,,,,,21.0,0.0,0.058625,-0.492432,0.456787,0.738525,0.7959109999999999,-0.6259859999999999,-0.107912,-0.030893,-0.042143,-0.020716,,,,,,,,,,,,,,,,,,,,,,,,,,,,,,,,,,,0.0,0.0,1.0,0.0,512.0,0.360348,,,,,,,,,,,,,,,,,,,,,,,,,
6801,1650407195.407719,1650407195.403541,43.0,0.0,4249.230957,4517.436035,4187.179688,4274.871582,4190.769043,0.0,4.0,91.0,,,,0.0,4.0,0.0,0.0,0.0,4.0,0.0,,,,,,,,,,,,,,,,,,,,,,,,,,,,,,,,,,,,,,,,,,,,,,,,,,,,,,,,,,,,,,,,,,,,,,,,,,,,,,,,,,,,
6802,1650407195.415533,1650407195.411356,44.0,0.0,4224.615234000001,4492.307617,4162.05127,4278.461426,4172.307617,0.0,4.0,91.0,,,,0.0,4.0,0.0,0.0,0.0,4.0,0.0,,,,,,,,22.0,0.0,0.058625,-0.492432,0.456787,0.738525,0.788098,-0.621103,-0.100587,-0.031173000000000003,-0.042177,-0.018254,,,,,,,,,,,,,,,,,,,,,,,,,,,,,,,,,,,,,,,,,,,,,,,,,,,,,,,,,,,,,,,,,
6803,1650407195.423348,1650407195.41927,45.0,0.0,4277.436035,4518.974121,4231.794922,4280.512695,4201.538574,0.0,4.0,91.0,,,,0.0,4.0,0.0,0.0,0.0,4.0,0.0,,,,,,,,,,,,,,,,,,,,,,,,,,,,,,,,,,,,,,,,,,,,,,,,,,,,,,,,,,,,,,,,,,,,,,,,,,,,,,,,,,,,
6804,1650407195.4311619,1650407195.427085,46.0,0.0,4288.717772999999,4610.256348,4166.153809,4276.922852000001,4209.230957,0.0,4.0,91.0,,,,0.0,4.0,0.0,0.0,0.0,4.0,0.0,,,,,,,,23.0,0.0,0.058772000000000005,-0.492188,0.457031,0.738525,0.773938,-0.631846,-0.090822,-0.031376,-0.042207999999999996,-0.019846000000000003,,,,,,,,,,,,,,,,,,,,,,,,,,,,,,,,,,,0.0,0.0,1.0,0.0,512.0,0.360348,,,,,,,,,,,,,,,,,,,,,,,,,
6805,1650407195.438977,1650407195.434799,47.0,0.0,4287.692383,4603.589844,4158.974121,4273.333496,4212.820313,0.0,4.0,91.0,,,,0.0,4.0,0.0,0.0,0.0,4.0,0.0,,,,,,,,,,,,,,,,,,,,,,,,,,,,,,,,,,,,,,,,,,,,,,,,,,,,,,,,,,,,,,,,,,,,,,,,,,,,,,,,,,,,
6806,1650407195.446791,1650407195.442614,48.0,0.0,4301.538574,4533.333496,4257.94873,4273.333496,4230.769043,0.0,4.0,91.0,,,,0.0,4.0,0.0,0.0,0.0,4.0,0.0,,,,,,,,24.0,0.0,0.058772000000000005,-0.492188,0.457031,0.738525,0.7827270000000001,-0.6259859999999999,-0.099611,-0.031608,-0.042137,-0.015127000000000002,,,,,,,,,,,,,,,,,,,,,,,,,,,,,,,,,,,,,,,,,,,,,,,,,,,,,,,,,,,,,,,,,
6807,1650407195.454606,1650407195.4503288,49.0,0.0,4299.487305,4502.563965,4237.94873,4274.871582,4227.692383,0.0,4.0,91.0,,,,0.0,4.0,0.0,0.0,0.0,4.0,0.0,,,,,,,,,,,,,,,,,,,,,,,,,,,,,,,,,,,,,,,,,,,,,,,,,,,,,,,,,,,,,,,,,,,,,,,,,,,,,,,,,,,,
6808,1650407195.4624212,1650407195.458143,50.0,0.0,4292.820313,4554.358886999999,4101.538574,4275.897461,4218.461426,0.0,4.0,91.0,,,,0.0,4.0,0.0,0.0,0.0,4.0,0.0,,,,,,,,25.0,0.0,0.058772000000000005,-0.492188,0.457031,0.738525,0.783215,-0.614755,-0.104494,-0.031816000000000004,-0.042172,-0.013566,,,,,,,,,,,,,,,,,,,,,,,,,,,,,,,,,,,0.0,0.0,1.0,0.0,512.0,0.360348,,,,,,,,,,,,,,,,,,,,,,,,,
6809,1650407195.4702349,1650407195.465858,51.0,0.0,4289.230957,4606.153809,4113.333496,4275.897461,4212.820313,0.0,4.0,91.0,,,,0.0,4.0,0.0,0.0,0.0,4.0,0.0,,,,,,,,,,,,,,,,,,,,,,,,,,,,,,,,,,,,,,,,,,,,,,,,,,,,,,,,,,,,,,,,,,,,,,,,,,,,,,,,,,,,
6810,1650407195.47805,1650407195.4736722,52.0,0.0,4291.794922,4656.922852000001,4141.025879,4278.461426,4216.922852000001,0.0,4.0,91.0,,,,0.0,4.0,0.0,0.0,0.0,4.0,0.0,,,,,,,,26.0,0.0,0.061763,-0.492188,0.457031,0.7382810000000001,0.7954220000000001,-0.625498,-0.092775,-0.031906,-0.042154000000000004,-0.009377,,,,,,,,,,,,,,,,,,,,,,,,,,,,,,,,,,,,,,,,,,,,,,,,,,,,,,,,,,,,,,,,,
6811,1650407195.4858642,1650407195.481386,53.0,0.0,4281.538574,4675.384765999999,4152.820313,4280.512695,4221.025879,0.0,4.0,91.0,,,,0.0,4.0,0.0,0.0,0.0,4.0,0.0,,,,,,,,,,,,,,,,,,,,,,,,,,,,,,,,,,,,,,,,,,,,,,,,,,,,,,,,,,,,,,,,,,,,,,,,,,,,,,,,,,,,
6812,1650407195.4936788,1650407195.489201,54.0,0.0,4285.128418,4633.333496,4204.615234000001,4276.922852000001,4214.871582,0.0,4.0,91.0,,,,0.0,4.0,0.0,0.0,0.0,4.0,0.0,,,,,,,,27.0,0.0,0.059786,-0.492432,0.457031,0.7382810000000001,0.790539,-0.614755,-0.092775,-0.031938,-0.042186,-0.011857,1.0,0.0,0.0,,,,,,,,,,,,,,,,,,,,,,,,,,,,,,,,0.0,0.0,1.0,0.0,512.0,0.255312,176.181015,59.64348199999999,20.008768,6.070433,8.216036,50.597702000000005,50.521038,107.95886999999999,115.72152700000001,124.20594799999999,142.738907,127.110046,105.63816100000001,77.826424,66.74855,0.19228199999999998,0.107714,0.093776,0.07878500000000001,0.082643,96.775307,46.719425,14.315191,6.405361,8.417612
6813,1650407195.501493,1650407195.496915,55.0,0.0,4297.436035,4649.230957,4204.615234000001,4278.461426,4212.307617,0.0,4.0,91.0,,,,0.0,4.0,0.0,0.0,0.0,4.0,0.0,,,,,,,,,,,,,,,,,,,,,,,,,,,,,,,,,,,,,,,,,,,,,,,,,,,,,,,,,,,,,,,,,,,,,,,,,,,,,,,,,,,,
6814,1650407195.509308,1650407195.5048301,56.0,0.0,4319.487305,4621.538574,4045.641113,4282.563965,4229.743652,0.0,4.0,91.0,,,,0.0,4.0,0.0,0.0,0.0,4.0,0.0,,,,,,,,28.0,0.0,0.059786,-0.492432,0.457031,0.7382810000000001,0.794934,-0.6201270000000001,-0.099123,-0.032113,-0.042216000000000004,-0.010623,,,,,,,,,,,,,,,,,,,,,,,,,,,,,,,,,,,,,,,,,,,,,,,,,,,,,,,,,,,,,,,,,
6815,1650407195.517123,1650407195.512645,57.0,0.0,4298.461426,4513.333496,4023.076904,4277.94873,4196.922852000001,0.0,4.0,91.0,,,,0.0,4.0,0.0,0.0,0.0,4.0,0.0,,,,,,,,,,,,,,,,,,,,,,,,,,,,,,,,,,,,,,,,,,,,,,,,,,,,,,,,,,,,,,,,,,,,,,,,,,,,,,,,,,,,
6816,1650407195.524937,1650407195.52056,58.0,0.0,4273.846191,4513.333496,4150.256348,4275.384765999999,4163.077147999999,0.0,4.0,91.0,,,,0.0,4.0,0.0,0.0,0.0,4.0,0.0,,,,,,,,29.0,0.0,0.057888999999999996,-0.492432,0.457275,0.7382810000000001,0.775891,-0.623056,-0.099611,-0.032076,-0.042242,-0.013075999999999999,,,,,,,,,,,,,,,,,,,,,,,,,,,,,,,,,,,0.0,0.0,1.0,0.0,512.0,0.255312,,,,,,,,,,,,,,,,,,,,,,,,,
6817,1650407195.532752,1650407195.528374,59.0,0.0,4284.102539,4621.538574,4212.307617,4276.922852000001,4171.282227000001,0.0,4.0,91.0,,,,0.0,4.0,0.0,0.0,0.0,4.0,0.0,,,,,,,,,,,,,,,,,,,,,,,,,,,,,,,,,,,,,,,,,,,,,,,,,,,,,,,,,,,,,,,,,,,,,,,,,,,,,,,,,,,,
6818,1650407195.540566,1650407195.536289,60.0,0.0,4328.205078,4609.743652,4154.358886999999,4274.871582,4212.307617,0.0,4.0,91.0,,,,0.0,4.0,0.0,0.0,0.0,4.0,0.0,,,,,,,,30.0,0.0,0.060922000000000004,-0.492432,0.457275,0.7380369999999999,0.799329,-0.6357520000000001,-0.08838,-0.032335,-0.042217000000000005,-0.01172,,,,,,,,,,,,,,,,,,,,,,,,,,,,,,,,,,,,,,,,,,,,,,,,,,,,,,,,,,,,,,,,,
6819,1650407195.548381,1650407195.5441039,61.0,0.0,4339.487305,4515.384765999999,4126.153809,4272.307617,4215.897461,0.0,4.0,91.0,,,,0.0,4.0,0.0,0.0,0.0,4.0,0.0,,,,,,,,,,,,,,,,,,,,,,,,,,,,,,,,,,,,,,,,,,,,,,,,,,,,,,,,,,,,,,,,,,,,,,,,,,,,,,,,,,,,
6820,1650407195.556195,1650407195.552018,62.0,0.0,4314.358886999999,4534.871582,4101.025879,4273.846191,4190.769043,0.0,4.0,91.0,,,,0.0,4.0,0.0,0.0,0.0,4.0,0.0,,,,,,,,31.0,0.0,0.058914999999999995,-0.492676,0.457275,0.7380369999999999,0.792981,-0.63331,-0.09765800000000001,-0.032373,-0.042293,-0.014062999999999999,,,,,,,,,,,,,,,,,,,,,,,,,,,,,,,,,,,0.0,0.0,1.0,0.0,512.0,0.255312,,,,,,,,,,,,,,,,,,,,,,,,,
6821,1650407195.56401,1650407195.559833,63.0,0.0,4271.794922,4570.256348,4069.743652,4273.846191,4152.820313,0.0,4.0,91.0,,,,0.0,4.0,0.0,0.0,0.0,4.0,0.0,,,,,,,,,,,,,,,,,,,,,,,,,,,,,,,,,,,,,,,,,,,,,,,,,,,,,,,,,,,,,,,,,,,,,,,,,,,,,,,,,,,,
6822,1650407195.571825,1650407195.567748,64.0,0.0,4283.589844,4558.461426,4156.410156,4274.358886999999,4172.307617,450.0,4.0,91.0,,,,0.0,4.0,0.0,0.0,0.0,4.0,0.0,,,,,,,,32.0,0.0,0.058914999999999995,-0.492676,0.457275,0.7380369999999999,0.779309,-0.636728,-0.09765800000000001,-0.032456,-0.042263,-0.009923000000000001,,,,,,,,,,,,,,,,,,,,,,,,,,,,,,,,,,,,,,,,,,,,,,,,,,,,,,,,,,,,,,,,,
6823,1650407195.579639,1650407195.575562,65.0,0.0,4303.589844,4538.974121,4262.563965,4276.922852000001,4204.102539,450.0,4.0,91.0,,,,0.0,4.0,0.0,0.0,0.0,4.0,0.0,,,,,,,,,,,,,,,,,,,,,,,,,,,,,,,,,,,,,,,,,,,,,,,,,,,,,,,,,,,,,,,,,,,,,,,,,,,,,,,,,,,,
6824,1650407195.5874538,1650407195.583477,66.0,0.0,4273.333496,4574.871582,4220.0,4277.94873,4182.05127,16137.0,4.0,91.0,,,,0.0,4.0,0.0,0.0,0.0,4.0,0.0,,,,,,,,33.0,0.0,0.058914999999999995,-0.492676,0.457275,0.7380369999999999,0.789563,-0.621592,-0.099611,-0.032482,-0.042138,-0.012445999999999999,,,,,,,,,,,,,,,,,,,,,,,,,,,,,,,,,,,0.0,0.0,1.0,0.0,512.0,0.255312,,,,,,,,,,,,,,,,,,,,,,,,,
6825,1650407195.595268,1650407195.591291,67.0,0.0,4268.205078,4604.615234000001,4104.102539,4278.974121,4166.153809,450.0,4.0,91.0,,,,0.0,4.0,0.0,0.0,0.0,4.0,0.0,,,,,,,,,,,,,,,,,,,,,,,,,,,,,,,,,,,,,,,,,,,,,,,,,,,,,,,,,,,,,,,,,,,,,,,,,,,,,,,,,,,,
6826,1650407195.603083,1650407195.599006,68.0,0.0,4288.205078,4596.922852000001,4192.307617,4278.974121,4177.436035,0.0,4.0,91.0,,,,0.0,4.0,0.0,0.0,0.0,4.0,0.0,,,,,,,,34.0,0.0,0.058914999999999995,-0.492676,0.457275,0.7380369999999999,0.7827270000000001,-0.628428,-0.09424,-0.032652,-0.042172,-0.01086,,,,,,,,,,,,,,,,,,,,,,,,,,,,,,,,,,,,,,,,,,,,,,,,,,,,,,,,,,,,,,,,,
6827,1650407195.610897,1650407195.6068199,69.0,0.0,4286.666504,4573.846191,4257.436035,4278.974121,4181.538574,450.0,4.0,91.0,,,,0.0,4.0,0.0,0.0,0.0,4.0,0.0,,,,,,,,,,,,,,,,,,,,,,,,,,,,,,,,,,,,,,,,,,,,,,,,,,,,,,,,,,,,,,,,,,,,,,,,,,,,,,,,,,,,
6828,1650407195.618712,1650407195.6145349,70.0,0.0,4300.0,4556.922852000001,4216.410156,4277.94873,4196.922852000001,55.0,4.0,91.0,,,,0.0,4.0,0.0,1.0,0.0,4.0,8.333333,,,,,,,,35.0,0.0,0.060779999999999994,-0.492676,0.457031,0.7380369999999999,0.78761,-0.615732,-0.095705,-0.032658,-0.042203,-0.013191999999999999,1.0,0.0,0.0,,,,,,,,,,,,,,,,,,,,,,,,,,,,,,,,0.0,0.0,1.0,0.0,512.0,0.154651,162.23336799999998,49.779408000000004,19.229759,6.65832,8.889631,65.895126,56.639346999999994,139.342697,118.788467,132.651672,145.3004,133.303925,103.260574,78.781677,75.374718,0.200923,0.1126,0.131322,0.081036,0.093653,99.830315,43.400253,14.719582,5.764398,9.25719
6829,1650407195.626527,1650407195.622349,71.0,0.0,4316.922852000001,4612.307617,4212.820313,4274.871582,4208.717772999999,450.0,4.0,91.0,,,,0.0,4.0,0.0,1.0,0.0,4.0,8.333333,,,,,,,,,,,,,,,,,,,,,,,,,,,,,,,,,,,,,,,,,,,,,,,,,,,,,,,,,,,,,,,,,,,,,,,,,,,,,,,,,,,,
6830,1650407195.634341,1650407195.630064,72.0,0.0,4281.025879,4683.589844,4267.179688,4273.333496,4166.666504,450.0,4.0,91.0,,,,0.0,4.0,0.0,1.0,0.0,4.0,8.333333,,,,,,,,36.0,0.0,0.060779999999999994,-0.492676,0.457031,0.7380369999999999,0.786145,-0.6259859999999999,-0.104005,-0.032566000000000005,-0.04228,-0.015387999999999999,,,,,,,,,,,,,,,,,,,,,,,,,,,,,,,,,,,,,,,,,,,,,,,,,,,,,,,,,,,,,,,,,
6831,1650407195.6421561,1650407195.6379788,73.0,0.0,4283.589844,4698.461426,4154.358886999999,4273.333496,4170.769043,0.0,4.0,91.0,,,,0.0,4.0,0.0,1.0,0.0,4.0,8.333333,,,,,,,,,,,,,,,,,,,,,,,,,,,,,,,,,,,,,,,,,,,,,,,,,,,,,,,,,,,,,,,,,,,,,,,,,,,,,,,,,,,,
6832,1650407195.6499698,1650407195.645793,74.0,0.0,4292.307617,4671.282227000001,4087.179443,4271.794922,4175.384765999999,450.0,4.0,91.0,,,,0.0,4.0,0.0,1.0,0.0,4.0,8.333333,,,,,,,,37.0,0.0,0.05876699999999999,-0.49291999999999997,0.457031,0.7380369999999999,0.796887,-0.617685,-0.10254100000000001,-0.032777,-0.042201999999999996,-0.011066,,,,,,,,,,,,,,,,,,,,,,,,,,,,,,,,,,,0.0,0.0,1.0,0.0,512.0,0.154651,,,,,,,,,,,,,,,,,,,,,,,,,
6833,1650407195.657785,1650407195.653708,75.0,0.0,4262.05127,4677.94873,4200.0,4270.256348,4150.769043,16174.0,4.0,91.0,,,,0.0,4.0,0.0,1.0,0.0,4.0,8.333333,,,,,,,,,,,,,,,,,,,,,,,,,,,,,,,,,,,,,,,,,,,,,,,,,,,,,,,,,,,,,,,,,,,,,,,,,,,,,,,,,,,,
6834,1650407195.665599,1650407195.661523,76.0,0.0,4252.307617,4705.641113000001,4265.641113000001,4271.282227000001,4147.692383,450.0,4.0,91.0,,,,0.0,4.0,0.0,1.0,0.0,4.0,8.333333,,,,,,,,38.0,0.0,0.05876699999999999,-0.49291999999999997,0.457031,0.7380369999999999,0.781262,-0.632822,-0.093263,-0.03277,-0.042133,-0.016112,,,,,,,,,,,,,,,,,,,,,,,,,,,,,,,,,,,,,,,,,,,,,,,,,,,,,,,,,,,,,,,,,
6835,1650407195.673414,1650407195.669338,77.0,0.0,4301.025879,4699.487305,4214.358886999999,4272.307617,4189.230957,450.0,4.0,91.0,,,,0.0,4.0,0.0,1.0,0.0,4.0,8.333333,,,,,,,,,,,,,,,,,,,,,,,,,,,,,,,,,,,,,,,,,,,,,,,,,,,,,,,,,,,,,,,,,,,,,,,,,,,,,,,,,,,,
6836,1650407195.6812289,1650407195.677053,78.0,0.0,4304.615234000001,4664.615234000001,4165.641113000001,4271.794922,4187.179688,450.0,4.0,91.0,,,,0.0,4.0,0.0,1.0,0.0,4.0,8.333333,,,,,,,,39.0,0.0,0.060779999999999994,-0.492676,0.457031,0.7380369999999999,0.786145,-0.6259859999999999,-0.104005,-0.032764999999999996,-0.042119,-0.011669,,,,,,,,,,,,,,,,,,,,,,,,,,,,,,,,,,,0.0,0.0,1.0,0.0,512.0,0.154651,,,,,,,,,,,,,,,,,,,,,,,,,
6837,1650407195.689043,1650407195.684867,79.0,0.0,4327.179688,4733.846191,4117.94873,4273.333496,4212.820313,16174.0,4.0,91.0,,,,0.0,4.0,0.0,1.0,0.0,4.0,8.333333,,,,,,,,,,,,,,,,,,,,,,,,,,,,,,,,,,,,,,,,,,,,,,,,,,,,,,,,,,,,,,,,,,,,,,,,,,,,,,,,,,,,
6838,1650407195.696858,1650407195.692581,80.0,0.0,4333.333496,4847.692383,4052.3076170000004,4274.871582,4238.974121,450.0,4.0,91.0,,,,0.0,4.0,0.0,1.0,0.0,4.0,8.333333,,,,,,,,40.0,0.0,0.05876699999999999,-0.49291999999999997,0.457031,0.7380369999999999,0.781262,-0.632822,-0.093263,-0.032760000000000004,-0.042057,-0.016654,,,,,,,,,,,,,,,,,,,,,,,,,,,,,,,,,,,,,,,,,,,,,,,,,,,,,,,,,,,,,,,,,
6839,1650407195.704672,1650407195.700396,81.0,0.0,4278.974121,4815.384765999999,4042.5642090000006,4276.410156,4197.436035,450.0,4.0,91.0,,,,0.0,4.0,0.0,1.0,0.0,4.0,8.333333,,,,,,,,,,,,,,,,,,,,,,,,,,,,,,,,,,,,,,,,,,,,,,,,,,,,,,,,,,,,,,,,,,,,,,,,,,,,,,,,,,,,
6840,1650407195.712487,1650407195.7081099,82.0,0.0,4269.743652,4821.538574,4144.102539,4280.0,4194.871582,450.0,4.0,91.0,,,,0.0,4.0,0.0,1.0,0.0,4.0,8.333333,,,,,,,,41.0,0.0,0.05876699999999999,-0.49291999999999997,0.457031,0.7380369999999999,0.778332,-0.621103,-0.095705,-0.032853,-0.0421,-0.018358000000000003,,,,,,,,,,,,,,,,,,,,,,,,,,,,,,,,,,,0.0,0.0,1.0,0.0,512.0,0.154651,,,,,,,,,,,,,,,,,,,,,,,,,
6841,1650407195.7203019,1650407195.716025,83.0,0.0,4292.820313,4949.743652,4369.743652,4278.974121,4215.384765999999,16174.0,4.0,91.0,,,,0.0,4.0,0.0,1.0,0.0,4.0,8.333333,,,,,,,,,,,,,,,,,,,,,,,,,,,,,,,,,,,,,,,,,,,,,,,,,,,,,,,,,,,,,,,,,,,,,,,,,,,,,,,,,,,,
6842,1650407195.728116,1650407195.723839,84.0,0.0,4278.461426,4924.615234000001,4400.512695,4276.922852000001,4181.025879,450.0,4.0,91.0,,,,0.0,4.0,0.0,1.0,0.0,4.0,8.333333,,,,,,,,42.0,0.0,0.05876699999999999,-0.49291999999999997,0.457031,0.7380369999999999,0.776379,-0.624033,-0.09668099999999999,-0.032937,-0.042187,-0.020087,,,,,,,,,,,,,,,,,,,,,,,,,,,,,,,,,,,,,,,,,,,,,,,,,,,,,,,,,,,,,,,,,
6843,1650407195.7359312,1650407195.7317538,85.0,0.0,4267.179688,4734.358886999999,4277.94873,4278.461426,4163.589844,450.0,4.0,91.0,,,,0.0,4.0,0.0,1.0,0.0,4.0,8.333333,,,,,,,,,,,,,,,,,,,,,,,,,,,,,,,,,,,,,,,,,,,,,,,,,,,,,,,,,,,,,,,,,,,,,,,,,,,,,,,,,,,,
6844,1650407195.7437449,1650407195.739569,86.0,0.0,4285.128418,4687.179688,4246.153809,4277.94873,4182.563965,450.0,4.0,91.0,,,,0.0,4.0,0.0,1.0,0.0,4.0,8.333333,1.0,0.0,1.0,0.0,0.0,0.0,3.0,43.0,0.0,0.060779999999999994,-0.492676,0.457031,0.7380369999999999,0.78175,-0.627451,-0.103029,-0.032866,-0.042362000000000004,-0.017883,1.0,0.0,0.0,,,,,,,,,,,,,,,,,,,,,,,,,,,,,,,,0.0,0.0,1.0,0.0,512.0,0.45073,137.178131,38.936432,17.473204,7.020569999999999,8.980326,86.176491,66.380562,160.257874,109.798882,127.632225,153.289124,133.57301299999997,94.956017,77.74678,79.870079,0.23785799999999999,0.11786600000000001,0.16555999999999998,0.077791,0.096898,93.80896,35.493786,14.257373000000001,5.176139,9.42737
6845,1650407195.75156,1650407195.747383,87.0,0.0,4286.153809,4752.820313,4274.871582,4273.333496,4158.974121,16174.0,4.0,91.0,,,,0.0,4.0,0.0,1.0,0.0,4.0,8.333333,,,,,,,,,,,,,,,,,,,,,,,,,,,,,,,,,,,,,,,,,,,,,,,,,,,,,,,,,,,,,,,,,,,,,,,,,,,,,,,,,,,,
6846,1650407195.759375,1650407195.7550972,88.0,0.0,4310.256348,4779.487305,4140.512695,4275.897461,4171.794922,450.0,4.0,91.0,,,,0.0,4.0,0.0,1.0,0.0,4.0,8.333333,,,,,,,,44.0,0.0,0.060779999999999994,-0.492676,0.457031,0.7380369999999999,0.782238,-0.6186619999999999,-0.09668099999999999,-0.032851,-0.042227999999999995,-0.01961,,,,,,,,,,,,,,,,,,,,,,,,,,,,,,,,,,,,,,,,,,,,,,,,,,,,,,,,,,,,,,,,,
6847,1650407195.767189,1650407195.763012,89.0,0.0,4346.153809,4804.102539,4022.5642090000006,4277.94873,4216.922852000001,450.0,4.0,91.0,,,,0.0,4.0,0.0,1.0,0.0,4.0,8.333333,,,,,,,,,,,,,,,,,,,,,,,,,,,,,,,,,,,,,,,,,,,,,,,,,,,,,,,,,,,,,,,,,,,,,,,,,,,,,,,,,,,,
6848,1650407195.775004,1650407195.770827,90.0,0.0,4323.077147999999,4905.128418,4013.8461909999996,4274.358886999999,4215.897461,450.0,4.0,91.0,,,,0.0,4.0,0.0,1.0,0.0,4.0,8.333333,,,,,,,,45.0,0.0,0.060779999999999994,-0.492676,0.457031,0.7380369999999999,0.793957,-0.629892,-0.098146,-0.032886,-0.042156,-0.021116,,,,,,,,,,,,,,,,,,,,,,,,,,,,,,,,,,,0.0,0.0,1.0,0.0,512.0,0.45073,,,,,,,,,,,,,,,,,,,,,,,,,
6849,1650407195.782818,1650407195.7787411,91.0,0.0,4263.589844,4977.436035,4157.94873,4275.384765999999,4184.102539,16174.0,4.0,91.0,,,,0.0,4.0,0.0,1.0,0.0,4.0,8.333333,,,,,,,,,,,,,,,,,,,,,,,,,,,,,,,,,,,,,,,,,,,,,,,,,,,,,,,,,,,,,,,,,,,,,,,,,,,,,,,,,,,,
6850,1650407195.790633,1650407195.786556,92.0,0.0,4267.692383,4927.179688,4261.538574,4278.461426,4211.282227000001,450.0,4.0,91.0,,,,0.0,4.0,0.0,1.0,0.0,4.0,8.333333,,,,,,,,46.0,0.0,0.05876699999999999,-0.49291999999999997,0.457031,0.7380369999999999,0.785168,-0.6406350000000001,-0.096193,-0.032772,-0.042138999999999996,-0.022276,,,,,,,,,,,,,,,,,,,,,,,,,,,,,,,,,,,,,,,,,,,,,,,,,,,,,,,,,,,,,,,,,
6851,1650407195.7984471,1650407195.79427,93.0,0.0,4268.205078,4885.641113000001,4205.128418,4281.025879,4222.563965,450.0,4.0,91.0,,,,0.0,4.0,0.0,1.0,0.0,4.0,8.333333,,,,,,,,,,,,,,,,,,,,,,,,,,,,,,,,,,,,,,,,,,,,,,,,,,,,,,,,,,,,,,,,,,,,,,,,,,,,,,,,,,,,
6852,1650407195.806262,1650407195.802085,94.0,0.0,4277.436035,4897.436035,4189.230957,4284.102539,4218.461426,450.0,4.0,91.0,,,,0.0,4.0,0.0,1.0,0.0,4.0,8.333333,,,,,,,,47.0,0.0,0.05876699999999999,-0.49291999999999997,0.457031,0.7380369999999999,0.782238,-0.6206149999999999,-0.111818,-0.032815,-0.042076,-0.02,,,,,,,,,,,,,,,,,,,,,,,,,,,,,,,,,,,0.0,0.0,1.0,0.0,512.0,0.45073,,,,,,,,,,,,,,,,,,,,,,,,,
6853,1650407195.814077,1650407195.809899,95.0,0.0,4284.615234000001,4846.666504,4244.615234000001,4282.05127,4197.436035,16174.0,4.0,91.0,,,,0.0,4.0,0.0,1.0,0.0,4.0,8.333333,,,,,,,,,,,,,,,,,,,,,,,,,,,,,,,,,,,,,,,,,,,,,,,,,,,,,,,,,,,,,,,,,,,,,,,,,,,,,,,,,,,,
6854,1650407195.821891,1650407195.817714,96.0,0.0,4305.128418,4733.846191,4212.307617,4279.487305,4188.205078,450.0,4.0,91.0,,,,0.0,4.0,0.0,1.0,0.0,4.0,8.333333,,,,,,,,48.0,0.0,0.05876699999999999,-0.49291999999999997,0.457031,0.7380369999999999,0.788586,-0.631846,-0.099123,-0.032805,-0.042067,-0.021369,,,,,,,,,,,,,,,,,,,,,,,,,,,,,,,,,,,,,,,,,,,,,,,,,,,,,,,,,,,,,,,,,
6855,1650407195.829706,1650407195.825429,97.0,0.0,4334.358886999999,4678.461426,4124.102539,4279.487305,4211.282227000001,450.0,4.0,91.0,,,,0.0,4.0,0.0,1.0,0.0,4.0,8.333333,,,,,,,,,,,,,,,,,,,,,,,,,,,,,,,,,,,,,,,,,,,,,,,,,,,,,,,,,,,,,,,,,,,,,,,,,,,,,,,,,,,,
6856,1650407195.83752,1650407195.833243,98.0,0.0,4335.897461,4708.717772999999,4114.871582,4277.436035,4218.974121,450.0,4.0,91.0,,,,0.0,4.0,0.0,1.0,0.0,4.0,8.333333,,,,,,,,49.0,0.0,0.05876699999999999,-0.49291999999999997,0.457031,0.7380369999999999,0.7959109999999999,-0.621592,-0.104005,-0.032698000000000005,-0.04206,-0.022503,,,,,,,,,,,,,,,,,,,,,,,,,,,,,,,,,,,0.0,0.0,1.0,0.0,512.0,0.45073,,,,,,,,,,,,,,,,,,,,,,,,,
6857,1650407195.845335,1650407195.840957,99.0,0.0,4312.307617,4780.0,4092.820557,4275.384765999999,4198.461426,16174.0,4.0,91.0,,,,0.0,4.0,0.0,1.0,0.0,4.0,8.333333,,,,,,,,,,,,,,,,,,,,,,,,,,,,,,,,,,,,,,,,,,,,,,,,,,,,,,,,,,,,,,,,,,,,,,,,,,,,,,,,,,,,
6858,1650407195.85315,1650407195.848772,100.0,0.0,4310.256348,4841.025879,4122.05127,4278.461426,4206.666504,450.0,4.0,91.0,,,,0.0,4.0,0.0,1.0,0.0,4.0,8.333333,,,,,,,,50.0,0.0,0.056682,-0.49316400000000005,0.457031,0.7380369999999999,0.780774,-0.621103,-0.100587,-0.032749,-0.042053,-0.023769,,,,,,,,,,,,,,,,,,,,,,,,,,,,,,,,,,,,,,,,,,,,,,,,,,,,,,,,,,,,,,,,,
6859,1650407195.860964,1650407195.8564858,101.0,0.0,4327.692383,4869.230957,4173.333496,4279.487305,4229.230957,450.0,4.0,91.0,,,,0.0,4.0,0.0,1.0,0.0,4.0,8.333333,,,,,,,,,,,,,,,,,,,,,,,,,,,,,,,,,,,,,,,,,,,,,,,,,,,,,,,,,,,,,,,,,,,,,,,,,,,,,,,,,,,,
6860,1650407195.868779,1650407195.864301,102.0,0.0,4291.282227000001,4924.102539,4267.692383,4278.461426,4212.307617,450.0,4.0,91.0,,,,0.0,4.0,0.0,1.0,0.0,4.0,8.333333,,,,,,,,51.0,0.0,0.058616999999999995,-0.49316400000000005,0.456787,0.7380369999999999,0.791028,-0.6357520000000001,-0.104005,-0.032941000000000005,-0.042095999999999995,-0.018657,1.0,0.0,0.0,,,,,,,,,,,,,,,,,,,,,,,,,,,,,,,,0.0,0.0,1.0,0.0,512.0,0.678666,105.22628,29.007381,15.008354999999998,7.1229059999999995,8.471272,104.753365,76.000984,163.828705,91.785492,110.142632,161.07074,124.57360800000001,81.527924,74.66313199999999,79.41256700000001,0.307082,0.127172,0.186434,0.070339,0.09198300000000001,79.510963,25.330019,13.016919,4.848952,8.874609
6861,1650407195.8765929,1650407195.872015,103.0,0.0,4259.487305,4962.05127,4290.256348,4282.05127,4203.077147999999,16174.0,4.0,91.0,,,,0.0,4.0,0.0,1.0,0.0,4.0,8.333333,,,,,,,,,,,,,,,,,,,,,,,,,,,,,,,,,,,,,,,,,,,,,,,,,,,,,,,,,,,,,,,,,,,,,,,,,,,,,,,,,,,,
6862,1650407195.884408,1650407195.8798301,104.0,0.0,4248.717772999999,4936.410156,4252.820313,4283.589844,4184.615234000001,450.0,4.0,91.0,,,,0.0,4.0,0.0,1.0,0.0,4.0,8.333333,,,,,,,,52.0,0.0,0.061614,-0.49316400000000005,0.456787,0.737793,0.788098,-0.6250100000000001,-0.08984500000000001,-0.032869,-0.042037,-0.016694,,,,,,,,,,,,,,,,,,,,,,,,,,,,,,,,,,,,,,,,,,,,,,,,,,,,,,,,,,,,,,,,,
6863,1650407195.8922222,1650407195.887544,105.0,0.0,4254.871582,4825.128418,4223.077147999999,4280.512695,4155.384765999999,450.0,4.0,91.0,,,,0.0,4.0,0.0,1.0,0.0,4.0,8.333333,,,,,,,,,,,,,,,,,,,,,,,,,,,,,,,,,,,,,,,,,,,,,,,,,,,,,,,,,,,,,,,,,,,,,,,,,,,,,,,,,,,,
6864,1650407195.9000368,1650407195.895459,106.0,0.0,4287.179688,4693.846191,4220.0,4277.94873,4156.922852000001,450.0,4.0,91.0,,,,0.0,4.0,0.0,1.0,0.0,4.0,8.333333,,,,,,,,53.0,0.0,0.061614,-0.49316400000000005,0.456787,0.737793,0.776867,-0.61622,-0.09472799999999999,-0.032902999999999995,-0.042081,-0.01854,,,,,,,,,,,,,,,,,,,,,,,,,,,,,,,,,,,0.0,0.0,1.0,0.0,512.0,0.678666,,,,,,,,,,,,,,,,,,,,,,,,,
6865,1650407195.907852,1650407195.903273,107.0,0.0,4354.871582,4691.794922,4121.538574,4277.436035,4229.743652,16174.0,4.0,91.0,,,,0.0,4.0,0.0,1.0,0.0,4.0,8.333333,,,,,,,,,,,,,,,,,,,,,,,,,,,,,,,,,,,,,,,,,,,,,,,,,,,,,,,,,,,,,,,,,,,,,,,,,,,,,,,,,,,,
6866,1650407195.915666,1650407195.9111881,108.0,0.0,4394.871582,4741.538574,3984.615479,4276.410156,4269.230957,450.0,4.0,91.0,,,,0.0,4.0,0.0,1.0,0.0,4.0,8.333333,,,,,,,,54.0,0.0,0.059627,-0.493408,0.456787,0.737793,0.787121,-0.627451,-0.09424,-0.032933,-0.042024,-0.020104,,,,,,,,,,,,,,,,,,,,,,,,,,,,,,,,,,,,,,,,,,,,,,,,,,,,,,,,,,,,,,,,,
6867,1650407195.923481,1650407195.919003,109.0,0.0,4383.589844,4792.820313,3924.102539,4277.436035,4263.589844,450.0,4.0,91.0,,,,0.0,4.0,0.0,1.0,0.0,4.0,8.333333,,,,,,,,,,,,,,,,,,,,,,,,,,,,,,,,,,,,,,,,,,,,,,,,,,,,,,,,,,,,,,,,,,,,,,,,,,,,,,,,,,,,
6868,1650407195.931295,1650407195.926917,110.0,0.0,4310.769043,4908.717772999999,4038.461426,4278.461426,4246.666504,450.0,4.0,91.0,,,,0.0,4.0,0.0,1.0,0.0,4.0,8.333333,,,,,,,,55.0,0.0,0.059627,-0.493408,0.456787,0.737793,0.78468,-0.619638,-0.102052,-0.033009,-0.041972,-0.018045,,,,,,,,,,,,,,,,,,,,,,,,,,,,,,,,,,,0.0,0.0,1.0,0.0,512.0,0.678666,,,,,,,,,,,,,,,,,,,,,,,,,
6869,1650407195.93911,1650407195.934732,111.0,0.0,4280.512695,4942.05127,4175.897461,4280.512695,4242.05127,16174.0,4.0,91.0,,,,0.0,4.0,0.0,1.0,0.0,4.0,8.333333,,,,,,,,,,,,,,,,,,,,,,,,,,,,,,,,,,,,,,,,,,,,,,,,,,,,,,,,,,,,,,,,,,,,,,,,,,,,,,,,,,,,
6870,1650407195.946924,1650407195.942646,112.0,0.0,4292.820313,4802.05127,4149.743652,4283.077147999999,4208.717772999999,450.0,4.0,91.0,,,,0.0,4.0,0.0,1.0,0.0,4.0,8.333333,,,,,,,,56.0,0.0,0.059627,-0.493408,0.456787,0.737793,0.796399,-0.627451,-0.105959,-0.033076999999999995,-0.041974000000000004,-0.016143,,,,,,,,,,,,,,,,,,,,,,,,,,,,,,,,,,,,,,,,,,,,,,,,,,,,,,,,,,,,,,,,,
6871,1650407195.954739,1650407195.950461,113.0,0.0,4297.436035,4720.0,4169.743652,4283.077147999999,4177.94873,450.0,4.0,91.0,,,,0.0,4.0,0.0,1.0,0.0,4.0,8.333333,,,,,,,,,,,,,,,,,,,,,,,,,,,,,,,,,,,,,,,,,,,,,,,,,,,,,,,,,,,,,,,,,,,,,,,,,,,,,,,,,,,,
6872,1650407195.962554,1650407195.958376,114.0,0.0,4306.153809,4737.436035,4236.410156,4281.025879,4201.025879,450.0,4.0,91.0,,,,0.0,4.0,0.0,1.0,0.0,4.0,8.333333,,,,,,,,57.0,0.0,0.059627,-0.493408,0.456787,0.737793,0.794446,-0.6416109999999999,-0.10351700000000001,-0.033089999999999994,-0.041976,-0.018044,,,,,,,,,,,,,,,,,,,,,,,,,,,,,,,,,,,0.0,0.0,1.0,0.0,512.0,0.678666,,,,,,,,,,,,,,,,,,,,,,,,,
6873,1650407195.970368,1650407195.96619,115.0,0.0,4336.922852000001,4733.846191,4187.692383,4282.05127,4243.077147999999,16174.0,4.0,91.0,,,,0.0,4.0,0.0,1.0,0.0,4.0,8.333333,,,,,,,,,,,,,,,,,,,,,,,,,,,,,,,,,,,,,,,,,,,,,,,,,,,,,,,,,,,,,,,,,,,,,,,,,,,,,,,,,,,,
6874,1650407195.978183,1650407195.973905,116.0,0.0,4356.922852000001,4779.487305,4052.3076170000004,4285.128418,4255.897461,450.0,4.0,91.0,,,,0.0,4.0,0.0,1.0,0.0,4.0,8.333333,,,,,,,,58.0,0.0,0.057571000000000004,-0.49365200000000004,0.456787,0.737793,0.78175,-0.6259859999999999,-0.10351700000000001,-0.032955,-0.042026,-0.019658000000000002,,,,,,,,,,,,,,,,,,,,,,,,,,,,,,,,,,,,,,,,,,,,,,,,,,,,,,,,,,,,,,,,,
6875,1650407195.985997,1650407195.981719,117.0,0.0,4336.922852000001,4843.077147999999,3987.6923829999996,4286.153809,4249.743652,450.0,4.0,91.0,,,,0.0,4.0,0.0,1.0,0.0,4.0,8.333333,,,,,,,,,,,,,,,,,,,,,,,,,,,,,,,,,,,,,,,,,,,,,,,,,,,,,,,,,,,,,,,,,,,,,,,,,,,,,,,,,,,,
6876,1650407195.9938118,1650407195.989634,118.0,0.0,4338.461426,4827.179688,3933.8461909999996,4286.666504,4262.563965,450.0,4.0,91.0,,,,0.0,4.0,0.0,1.0,0.0,4.0,8.333333,,,,,,,,59.0,0.0,0.060619000000000006,-0.49365200000000004,0.456787,0.737549,0.782238,-0.6362399999999999,-0.08838,-0.033125999999999996,-0.041974000000000004,-0.02111,1.0,0.0,0.0,,,,,,,,,,,,,,,,,,,,,,,,,,,,,,,,0.0,0.0,32.0,0.037335,1.0,0.0,72.192902,21.216824,12.345369,6.988897,7.521469000000001,115.58388500000001,81.680367,150.02868700000002,69.846252,85.067543,161.582535,106.660225,66.111877,70.92313399999999,74.31599399999999,0.390727,0.144706,0.187958,0.060654,0.08086499999999999,59.958752000000004,15.747404999999999,11.207739,4.79028,7.770741
6877,1650407196.001626,1650407195.997448,119.0,0.0,4337.94873,4808.717772999999,4052.3076170000004,4286.153809,4244.615234000001,16174.0,4.0,91.0,,,,0.0,4.0,0.0,1.0,0.0,4.0,8.333333,,,,,,,,,,,,,,,,,,,,,,,,,,,,,,,,,,,,,,,,,,,,,,,,,,,,,,,,,,,,,,,,,,,,,,,,,,,,,,,,,,,,
6878,1650407196.009441,1650407196.0051632,120.0,0.0,4335.897461,4773.333496,4144.615234000001,4281.538574,4216.922852000001,450.0,4.0,91.0,,,,0.0,4.0,0.0,1.0,0.0,4.0,8.333333,,,,,,,,60.0,0.0,0.060619000000000006,-0.49365200000000004,0.456787,0.737549,0.786633,-0.619638,-0.09424,-0.033231000000000004,-0.042025,-0.018657,,,,,,,,,,,,,,,,,,,,,,,,,,,,,,,,,,,,,,,,,,,,,,,,,,,,,,,,,,,,,,,,,
6879,1650407196.017256,1650407196.013078,121.0,0.0,4350.256348,4689.230957,4023.5898439999996,4275.897461,4211.282227000001,450.0,4.0,91.0,,,,0.0,4.0,0.0,1.0,0.0,4.0,8.333333,,,,,,,,,,,,,,,,,,,,,,,,,,,,,,,,,,,,,,,,,,,,,,,,,,,,,,,,,,,,,,,,,,,,,,,,,,,,,,,,,,,,
6880,1650407196.02507,1650407196.020892,122.0,0.0,4383.077147999999,4764.615234000001,3954.358887,4277.94873,4252.820313,450.0,4.0,91.0,,,,0.0,4.0,0.0,1.0,0.0,4.0,8.333333,,,,,,,,61.0,0.0,0.060619000000000006,-0.49365200000000004,0.456787,0.737549,0.792004,-0.615732,-0.093263,-0.033229,-0.041973,-0.020161000000000002,,,,,,,,,,,,,,,,,,,,,,,,,,,,,,,,,,,0.0,0.0,32.0,0.037335,1.0,0.0,,,,,,,,,,,,,,,,,,,,,,,,,
6881,1650407196.032885,1650407196.028707,123.0,0.0,4368.205078,4997.94873,4135.384765999999,4285.128418,4278.974121,16174.0,4.0,91.0,,,,0.0,4.0,0.0,1.0,0.0,4.0,8.333333,,,,,,,,,,,,,,,,,,,,,,,,,,,,,,,,,,,,,,,,,,,,,,,,,,,,,,,,,,,,,,,,,,,,,,,,,,,,,,,,,,,,
6882,1650407196.040699,1650407196.036422,124.0,0.0,4324.615234000001,5016.410156,4166.666504,4286.666504,4260.512695,450.0,4.0,91.0,,,,0.0,4.0,0.0,1.0,0.0,4.0,8.333333,,,,,,,,62.0,0.0,0.06046900000000001,-0.493896,0.45654300000000003,0.737549,0.7837029999999999,-0.618173,-0.098634,-0.03308,-0.041877,-0.017754,,,,,,,,,,,,,,,,,,,,,,,,,,,,,,,,,,,,,,,,,,,,,,,,,,,,,,,,,,,,,,,,,
6883,1650407196.0485141,1650407196.044236,125.0,0.0,4278.461426,4801.538574,4075.384521,4285.641113000001,4194.871582,450.0,4.0,91.0,,,,0.0,4.0,0.0,1.0,0.0,4.0,8.333333,,,,,,,,,,,,,,,,,,,,,,,,,,,,,,,,,,,,,,,,,,,,,,,,,,,,,,,,,,,,,,,,,,,,,,,,,,,,,,,,,,,,
6884,1650407196.0563278,1650407196.051951,126.0,0.0,4313.846191,4752.307617,4187.179688,4286.666504,4201.538574,450.0,4.0,91.0,,,,0.0,4.0,0.0,1.0,0.0,4.0,8.333333,,,,,,,,63.0,0.0,0.060316999999999996,-0.494141,0.45629899999999995,0.737549,0.788586,-0.610849,-0.099611,-0.033043,-0.041888999999999996,-0.019494,,,,,,,,,,,,,,,,,,,,,,,,,,,,,,,,,,,0.0,0.0,32.0,0.037335,1.0,0.0,,,,,,,,,,,,,,,,,,,,,,,,,
6885,1650407196.064143,1650407196.059765,127.0,0.0,4391.282227000001,4816.922852000001,4291.282227000001,4286.666504,4259.487305,242.0,4.0,91.0,,,,0.0,4.0,0.0,1.0,0.0,4.0,8.333333,,,,,,,,,,,,,,,,,,,,,,,,,,,,,,,,,,,,,,,,,,,,,,,,,,,,,,,,,,,,,,,,,,,,,,,,,,,,,,,,,,,,
6886,1650407196.071958,1650407196.067479,0.0,0.0,4402.563965,4822.05127,4189.230957,4284.102539,4262.05127,450.0,4.0,91.0,,,,0.0,4.0,0.0,1.0,0.0,4.0,8.333333,,,,,,,,0.0,0.0,0.059167,-0.494141,0.45605500000000004,0.737793,0.7900510000000001,-0.622568,-0.10009900000000001,-0.033059,-0.04185,-0.020914,,,,,,,,,,,,,,,,,,,,,,,,,,,,,,,,,,,,,,,,,,,,,,,,,,,,,,,,,,,,,,,,,
6887,1650407196.079772,1650407196.075394,1.0,0.0,4348.205078,4898.461426,4053.3332520000004,4280.0,4232.820313,450.0,4.0,91.0,,,,0.0,4.0,0.0,1.0,0.0,4.0,8.333333,,,,,,,,,,,,,,,,,,,,,,,,,,,,,,,,,,,,,,,,,,,,,,,,,,,,,,,,,,,,,,,,,,,,,,,,,,,,,,,,,,,,
6888,1650407196.0875869,1650407196.083209,2.0,0.0,4333.846191,4980.0,4005.1281740000004,4281.025879,4254.871582,16189.0,4.0,91.0,,,,0.0,4.0,0.0,1.0,0.0,4.0,8.333333,,,,,,,,1.0,0.0,0.059008000000000005,-0.494385,0.45581099999999997,0.737793,0.78761,-0.623056,-0.095705,-0.033171,-0.041816000000000006,-0.018432,,,,,,,,,,,,,,,,,,,,,,,,,,,,,,,,,,,0.0,0.0,32.0,0.037335,1.0,0.0,,,,,,,,,,,,,,,,,,,,,,,,,
6889,1650407196.095401,1650407196.091123,3.0,0.0,4343.077147999999,4922.05127,3980.0,4286.153809,4265.641113000001,450.0,4.0,91.0,,,,0.0,4.0,0.0,1.0,0.0,4.0,8.333333,,,,,,,,,,,,,,,,,,,,,,,,,,,,,,,,,,,,,,,,,,,,,,,,,,,,,,,,,,,,,,,,,,,,,,,,,,,,,,,,,,,,
6890,1650407196.103216,1650407196.098938,4.0,0.0,4337.436035,4853.846191,4111.282227000001,4287.179688,4236.410156,3.0,4.0,91.0,,,,0.0,4.0,0.0,1.0,0.0,4.0,8.333333,,,,,,,,2.0,0.0,0.058848000000000004,-0.494629,0.45556599999999997,0.737793,0.780774,-0.623545,-0.101564,-0.033175,-0.041832999999999995,-0.020105,,,,,,,,,,,,,,,,,,,,,,,,,,,,,,,,,,,,,,,,,,,,,,,,,,,,,,,,,,,,,,,,,
6891,1650407196.11103,1650407196.106852,5.0,0.0,4373.333496,4841.538574,4129.230957,4281.538574,4243.589844,450.0,4.0,91.0,,,,0.0,4.0,0.0,0.0,0.0,4.0,0.0,,,,,,,,,,,,,,,,,,,,,,,,,,,,,,,,,,,,,,,,,,,,,,,,,,,,,,,,,,,,,,,,,,,,,,,,,,,,,,,,,,,,
6892,1650407196.118845,1650407196.114667,6.0,0.0,4407.179688,4807.179688,3969.2307130000004,4277.94873,4266.666504,0.0,4.0,91.0,,,,0.0,4.0,0.0,0.0,0.0,4.0,0.0,,,,,,,,3.0,0.0,0.059167,-0.494141,0.45605500000000004,0.737793,0.7900510000000001,-0.622568,-0.10009900000000001,-0.033226,-0.041801,-0.017996,1.0,0.0,0.0,,,,,,,,,,,,,,,,,,,,,,,,,,,,,,,,0.0,0.0,32.0,0.037276,1.0,0.0,44.780537,16.028887,10.297269,6.692723,6.386357,115.087852,81.274055,127.35248600000001,49.534519,59.13361,152.189987,85.74906899999999,55.929176,67.89302099999999,65.94753299999999,0.47079099999999996,0.171932,0.17111600000000002,0.050647000000000005,0.06684,40.824467,8.854903,9.267497,4.845411,6.431987
6893,1650407196.1266599,1650407196.122582,7.0,0.0,4389.743652,4836.922852000001,3944.102539,4278.974121,4266.666504,450.0,4.0,91.0,,,,0.0,4.0,0.0,0.0,0.0,4.0,0.0,,,,,,,,,,,,,,,,,,,,,,,,,,,,,,,,,,,,,,,,,,,,,,,,,,,,,,,,,,,,,,,,,,,,,,,,,,,,,,,,,,,,
6894,1650407196.134474,1650407196.1303961,8.0,0.0,4349.743652,4968.717772999999,4084.102539,4281.025879,4257.436035,450.0,4.0,91.0,,,,0.0,4.0,0.0,0.0,0.0,4.0,0.0,,,,,,,,4.0,0.0,0.058848000000000004,-0.494629,0.45556599999999997,0.737793,0.780774,-0.623545,-0.101564,-0.033224000000000004,-0.041819999999999996,-0.019712,,,,,,,,,,,,,,,,,,,,,,,,,,,,,,,,,,,,,,,,,,,,,,,,,,,,,,,,,,,,,,,,,
6895,1650407196.1422892,1650407196.138211,9.0,0.0,4379.487305,4957.94873,4025.1281740000004,4283.589844,4292.307617,0.0,4.0,91.0,,,,0.0,4.0,0.0,0.0,0.0,4.0,0.0,,,,,,,,,,,,,,,,,,,,,,,,,,,,,,,,,,,,,,,,,,,,,,,,,,,,,,,,,,,,,,,,,,,,,,,,,,,,,,,,,,,,
6896,1650407196.1501029,1650407196.145925,10.0,0.0,4446.666504,4757.436035,3904.102539,4284.615234000001,4318.974121,450.0,4.0,91.0,,,,0.0,4.0,0.0,0.0,0.0,4.0,0.0,,,,,,,,5.0,0.0,0.058684,-0.49487299999999995,0.455322,0.737793,0.793957,-0.621592,-0.10009900000000001,-0.033222,-0.041935,-0.021208,,,,,,,,,,,,,,,,,,,,,,,,,,,,,,,,,,,0.0,0.0,32.0,0.037276,1.0,0.0,,,,,,,,,,,,,,,,,,,,,,,,,
6897,1650407196.157918,1650407196.15384,11.0,0.0,4485.128418,4737.94873,3929.743652,4284.102539,4336.922852000001,16165.0,4.0,91.0,,,,0.0,4.0,0.0,0.0,0.0,4.0,0.0,,,,,,,,,,,,,,,,,,,,,,,,,,,,,,,,,,,,,,,,,,,,,,,,,,,,,,,,,,,,,,,,,,,,,,,,,,,,,,,,,,,,
6898,1650407196.165733,1650407196.161654,12.0,0.0,4463.077147999999,4941.538574,3940.0,4282.05127,4343.589844,450.0,4.0,91.0,,,,0.0,4.0,0.0,0.0,0.0,4.0,0.0,,,,,,,,6.0,0.0,0.060387,-0.49511700000000003,0.454834,0.737793,0.797375,-0.63331,-0.096193,-0.033123,-0.041843,-0.018892,,,,,,,,,,,,,,,,,,,,,,,,,,,,,,,,,,,,,,,,,,,,,,,,,,,,,,,,,,,,,,,,,
6899,1650407196.173547,1650407196.169369,13.0,0.0,4442.563965,4980.512695,3785.641113,4282.05127,4350.256348,450.0,4.0,91.0,,,,0.0,4.0,0.0,0.0,0.0,4.0,0.0,,,,,,,,,,,,,,,,,,,,,,,,,,,,,,,,,,,,,,,,,,,,,,,,,,,,,,,,,,,,,,,,,,,,,,,,,,,,,,,,,,,,
6900,1650407196.181362,1650407196.177183,14.0,0.0,4406.666504,4887.179688,3750.256348,4284.615234000001,4320.0,450.0,4.0,91.0,,,,0.0,4.0,0.0,0.0,0.0,4.0,0.0,,,,,,,,7.0,0.0,0.059062,-0.49536099999999994,0.454346,0.7380369999999999,0.792004,-0.625498,-0.095705,-0.032984,-0.041858,-0.02047,,,,,,,,,,,,,,,,,,,,,,,,,,,,,,,,,,,0.0,0.0,32.0,0.037276,1.0,0.0,,,,,,,,,,,,,,,,,,,,,,,,,
6901,1650407196.189176,1650407196.1848981,15.0,0.0,4387.692383,4905.641113000001,3955.384521,4285.641113000001,4278.974121,16165.0,4.0,91.0,,,,0.0,4.0,0.0,0.0,0.0,4.0,0.0,,,,,,,,,,,,,,,,,,,,,,,,,,,,,,,,,,,,,,,,,,,,,,,,,,,,,,,,,,,,,,,,,,,,,,,,,,,,,,,,,,,,
6902,1650407196.196991,1650407196.192812,16.0,0.0,4408.205078,4894.871582,4064.615479,4282.05127,4263.589844,0.0,4.0,91.0,,,,0.0,4.0,0.0,0.0,0.0,4.0,0.0,,,,,,,,8.0,0.0,0.05871799999999999,-0.49585,0.45385699999999995,0.7380369999999999,0.780285,-0.626963,-0.099611,-0.033055,-0.04192,-0.021889,,,,,,,,,,,,,,,,,,,,,,,,,,,,,,,,,,,,,,,,,,,,,,,,,,,,,,,,,,,,,,,,,
6903,1650407196.2048051,1650407196.2006269,17.0,0.0,4425.641113000001,4880.0,3964.102539,4278.461426,4279.487305,0.0,4.0,91.0,,,,0.0,4.0,0.0,0.0,0.0,4.0,0.0,,,,,,,,,,,,,,,,,,,,,,,,,,,,,,,,,,,,,,,,,,,,,,,,,,,,,,,,,,,,,,,,,,,,,,,,,,,,,,,,,,,,
6904,1650407196.21262,1650407196.208442,18.0,0.0,4392.820313,5026.153809,3876.4101560000004,4280.0,4282.05127,0.0,4.0,91.0,,,,0.0,4.0,0.0,0.0,0.0,4.0,0.0,,,,,,,,9.0,0.0,0.060404,-0.496094,0.45336899999999997,0.7380369999999999,0.796887,-0.626963,-0.09424,-0.033020999999999995,-0.041976,-0.023167,,,,,,,,,,,,,,,,,,,,,,,,,,,,,,,,,,,0.0,0.0,32.0,0.037276,1.0,0.0,,,,,,,,,,,,,,,,,,,,,,,,,
6905,1650407196.220435,1650407196.216157,19.0,0.0,4359.487305,5105.128418,4023.076904,4284.102539,4258.461426,0.0,4.0,91.0,,,,0.0,4.0,0.0,0.0,0.0,4.0,0.0,,,,,,,,,,,,,,,,,,,,,,,,,,,,,,,,,,,,,,,,,,,,,,,,,,,,,,,,,,,,,,,,,,,,,,,,,,,,,,,,,,,,
6906,1650407196.228249,1650407196.2239711,20.0,0.0,4362.563965,4965.128418,4138.461426,4282.563965,4226.666504,0.0,4.0,91.0,,,,0.0,4.0,0.0,0.0,0.0,4.0,0.0,,,,,,,,10.0,0.0,0.061867,-0.49658199999999997,0.452637,0.7380369999999999,0.7900510000000001,-0.613291,-0.093751,-0.03299,-0.041929,-0.024366,,,,,,,,,,,,,,,,,,,,,,,,,,,,,,,,,,,,,,,,,,,,,,,,,,,,,,,,,,,,,,,,,
6907,1650407196.236064,1650407196.2316859,21.0,0.0,4365.641113000001,4865.128418,4085.1281740000004,4276.410156,4212.820313,0.0,4.0,91.0,,,,0.0,4.0,0.0,0.0,0.0,4.0,0.0,,,,,,,,,,,,,,,,,,,,,,,,,,,,,,,,,,,,,,,,,,,,,,,,,,,,,,,,,,,,,,,,,,,,,,,,,,,,,,,,,,,,
6908,1650407196.243878,1650407196.2395,22.0,0.0,4361.538574,4970.256348,3973.3332520000004,4276.410156,4236.410156,0.0,4.0,91.0,,,,0.0,4.0,0.0,0.0,0.0,4.0,0.0,1.0,0.0,3.0,0.0,0.0,0.0,3.0,11.0,0.0,0.059509000000000006,-0.49731400000000003,0.45214799999999994,0.7380369999999999,0.78761,-0.6259859999999999,-0.087404,-0.033158,-0.041838,-0.025397,1.0,0.0,0.0,,,,,,,,,,,,,,,,,,,,,,,,,,,,,,,,10.0,0.0,32.0,0.040968,1.0,0.0,25.150323999999998,12.699746000000001,9.78505,6.3715910000000004,5.328258,103.796471,75.689774,108.013962,35.397179,38.230255,131.941299,68.619873,60.332939,66.235313,56.330096999999995,0.505754,0.205746,0.142522,0.041774,0.053238,24.930605,5.106253,7.792555999999999,4.905252,5.193995
6909,1650407196.251693,1650407196.247215,23.0,0.0,4348.205078,5072.307617,3979.487061,4280.0,4258.974121,0.0,4.0,91.0,,,,0.0,4.0,0.0,0.0,0.0,4.0,0.0,,,,,,,,,,,,,,,,,,,,,,,,,,,,,,,,,,,,,,,,,,,,,,,,,,,,,,,,,,,,,,,,,,,,,,,,,,,,,,,,,,,,
6910,1650407196.259508,1650407196.255029,24.0,0.0,4358.461426,4950.769043,3977.9487299999996,4282.563965,4268.205078,0.0,4.0,91.0,,,,0.0,4.0,0.0,0.0,0.0,4.0,0.0,,,,,,,,12.0,0.0,0.060969,-0.497803,0.451416,0.7380369999999999,0.7797970000000001,-0.6206149999999999,-0.084962,-0.033212,-0.041852999999999994,-0.026324,,,,,,,,,,,,,,,,,,,,,,,,,,,,,,,,,,,,,,,,,,,,,,,,,,,,,,,,,,,,,,,,,
6911,1650407196.267322,1650407196.262743,25.0,0.0,4345.128418,4831.794922,4011.281982,4282.563965,4218.461426,0.0,4.0,91.0,,,,0.0,4.0,0.0,0.0,0.0,4.0,0.0,,,,,,,,,,,,,,,,,,,,,,,,,,,,,,,,,,,,,,,,,,,,,,,,,,,,,,,,,,,,,,,,,,,,,,,,,,,,,,,,,,,,
6912,1650407196.275137,1650407196.270557,26.0,0.0,4331.282227000001,4886.666504,4071.794922,4278.974121,4182.05127,0.0,4.0,91.0,,,,0.0,4.0,0.0,0.0,0.0,4.0,0.0,,,,,,,,13.0,0.0,0.060592999999999994,-0.498291,0.450928,0.7380369999999999,0.775402,-0.613291,-0.09424,-0.033113,-0.04177,-0.02335,,,,,,,,,,,,,,,,,,,,,,,,,,,,,,,,,,,10.0,0.0,32.0,0.040968,1.0,0.0,,,,,,,,,,,,,,,,,,,,,,,,,
6913,1650407196.2829509,1650407196.2782722,27.0,0.0,4337.436035,4867.179688,4070.256348,4273.846191,4191.282227000001,0.0,4.0,91.0,,,,0.0,4.0,0.0,0.0,0.0,4.0,0.0,,,,,,,,,,,,,,,,,,,,,,,,,,,,,,,,,,,,,,,,,,,,,,,,,,,,,,,,,,,,,,,,,,,,,,,,,,,,,,,,,,,,
6914,1650407196.290766,1650407196.286186,28.0,0.0,4363.589844,4825.128418,4054.8718259999996,4274.871582,4233.846191,0.0,4.0,91.0,,,,0.0,4.0,0.0,0.0,0.0,4.0,0.0,,,,,,,,14.0,0.0,0.062005,-0.498779,0.45019499999999996,0.7380369999999999,0.772473,-0.6201270000000001,-0.083986,-0.033317,-0.041792,-0.024481,,,,,,,,,,,,,,,,,,,,,,,,,,,,,,,,,,,,,,,,,,,,,,,,,,,,,,,,,,,,,,,,,
6915,1650407196.2985811,1650407196.2940009,29.0,0.0,4330.256348,4993.333496,4190.769043,4278.461426,4227.179688,0.0,4.0,91.0,,,,0.0,4.0,0.0,0.0,0.0,4.0,0.0,,,,,,,,,,,,,,,,,,,,,,,,,,,,,,,,,,,,,,,,,,,,,,,,,,,,,,,,,,,,,,,,,,,,,,,,,,,,,,,,,,,,
6916,1650407196.3063948,1650407196.301816,30.0,0.0,4289.230957,5117.94873,4276.410156,4279.487305,4203.589844,0.0,4.0,91.0,,,,0.0,4.0,0.0,0.0,0.0,4.0,0.0,,,,,,,,15.0,0.0,0.058620000000000005,-0.49926800000000005,0.44970699999999997,0.7382810000000001,0.789075,-0.625498,-0.093751,-0.033306,-0.041763,-0.019201,,,,,,,,,,,,,,,,,,,,,,,,,,,,,,,,,,,10.0,0.0,32.0,0.040968,1.0,0.0,,,,,,,,,,,,,,,,,,,,,,,,,
6917,1650407196.31421,1650407196.30953,31.0,0.0,4276.922852000001,5035.384765999999,4177.94873,4282.05127,4203.589844,0.0,4.0,91.0,,,,0.0,4.0,0.0,0.0,0.0,4.0,0.0,,,,,,,,,,,,,,,,,,,,,,,,,,,,,,,,,,,,,,,,,,,,,,,,,,,,,,,,,,,,,,,,,,,,,,,,,,,,,,,,,,,,
6918,1650407196.322024,1650407196.3174438,32.0,0.0,4290.769043,4929.230957,4185.128418,4286.153809,4205.641113000001,0.0,4.0,91.0,,,,0.0,4.0,0.0,0.0,0.0,4.0,0.0,,,,,,,,16.0,0.0,0.062054,-0.499512,0.448975,0.7382810000000001,0.786633,-0.624033,-0.086427,-0.033198000000000005,-0.041737,-0.023188999999999998,,,,,,,,,,,,,,,,,,,,,,,,,,,,,,,,,,,,,,,,,,,,,,,,,,,,,,,,,,,,,,,,,
6919,1650407196.329839,1650407196.325259,33.0,0.0,4308.205078,4867.179688,4289.743652,4282.563965,4183.077147999999,0.0,4.0,91.0,,,,0.0,4.0,0.0,0.0,0.0,4.0,0.0,,,,,,,,,,,,,,,,,,,,,,,,,,,,,,,,,,,,,,,,,,,,,,,,,,,,,,,,,,,,,,,,,,,,,,,,,,,,,,,,,,,,
6920,1650407196.337653,1650407196.333174,34.0,0.0,4314.358886999999,4866.666504,4255.897461,4280.0,4177.436035,0.0,4.0,91.0,,,,0.0,4.0,0.0,0.0,0.0,4.0,0.0,,,,,,,,17.0,0.0,0.061651,-0.5,0.44848599999999994,0.7382810000000001,0.802747,-0.636728,-0.087404,-0.033248,-0.041714,-0.024288,,,,,,,,,,,,,,,,,,,,,,,,,,,,,,,,,,,10.0,0.0,32.0,0.040968,1.0,0.0,,,,,,,,,,,,,,,,,,,,,,,,,
6921,1650407196.345468,1650407196.3409882,35.0,0.0,4317.94873,4906.153809,4116.410156,4282.05127,4198.974121,0.0,4.0,91.0,,,,0.0,4.0,0.0,0.0,0.0,4.0,0.0,,,,,,,,,,,,,,,,,,,,,,,,,,,,,,,,,,,,,,,,,,,,,,,,,,,,,,,,,,,,,,,,,,,,,,,,,,,,,,,,,,,,
6922,1650407196.353283,1650407196.348903,36.0,0.0,4337.436035,4897.94873,4097.94873,4280.512695,4226.153809,0.0,4.0,91.0,,,,0.0,4.0,0.0,0.0,0.0,4.0,0.0,,,,,,,,18.0,0.0,0.059851999999999995,-0.500732,0.44751,0.738525,0.802747,-0.615732,-0.104005,-0.033145999999999995,-0.041742,-0.025278,,,,,,,,,,,,,,,,,,,,,,,,,,,,,,,,,,,,,,,,,,,,,,,,,,,,,,,,,,,,,,,,,
6923,1650407196.361097,1650407196.356717,37.0,0.0,4335.897461,4935.897461,4155.897461,4281.025879,4242.563965,0.0,4.0,91.0,,,,0.0,4.0,0.0,0.0,0.0,4.0,0.0,,,,,,,,,,,,,,,,,,,,,,,,,,,,,,,,,,,,,,,,,,,,,,,,,,,,,,,,,,,,,,,,,,,,,,,,,,,,,,,,,,,,
6924,1650407196.368912,1650407196.364432,38.0,0.0,4279.487305,5053.846191,4330.769043,4286.153809,4222.563965,0.0,4.0,91.0,,,,0.0,4.0,0.0,0.0,0.0,4.0,0.0,,,,,,,,19.0,0.0,0.060266999999999994,-0.500977,0.44677700000000004,0.7387699999999999,0.808118,-0.628428,-0.092287,-0.033151,-0.041669,-0.022359,1.0,0.0,0.0,,,,,,,,,,,,,,,,,,,,,,,,,,,,,,,,10.0,0.0,32.0,0.044122,1.0,0.0,14.847604,10.639873,11.345,6.312899,4.509547,85.75676,68.096939,102.154884,30.010792,25.285608,106.931427,62.218906000000004,84.801048,65.190155,47.594555,0.484939,0.238825,0.11159100000000001,0.03645,0.042424,16.013197,3.9654089999999997,7.2489479999999995,4.965447,4.276228
6925,1650407196.376726,1650407196.372246,39.0,0.0,4256.410156,5009.230957,4396.922852000001,4282.563965,4187.179688,0.0,4.0,91.0,,,,0.0,4.0,0.0,0.0,0.0,4.0,0.0,,,,,,,,,,,,,,,,,,,,,,,,,,,,,,,,,,,,,,,,,,,,,,,,,,,,,,,,,,,,,,,,,,,,,,,,,,,,,,,,,,,,
6926,1650407196.384541,1650407196.379961,40.0,0.0,4268.205078,4832.820313,4364.615234000001,4272.820313,4154.358886999999,0.0,4.0,91.0,,,,0.0,4.0,0.0,0.0,0.0,4.0,0.0,,,,,,,,20.0,0.0,0.058615,-0.5014649999999999,0.44604499999999997,0.7390140000000001,0.792004,-0.628428,-0.092287,-0.033205,-0.041701999999999996,-0.02359,,,,,,,,,,,,,,,,,,,,,,,,,,,,,,,,,,,,,,,,,,,,,,,,,,,,,,,,,,,,,,,,,
6927,1650407196.392355,1650407196.387775,41.0,0.0,4293.333496,4729.743652,4391.282227000001,4268.717772999999,4173.846191,0.0,4.0,91.0,,,,0.0,4.0,0.0,0.0,0.0,4.0,0.0,,,,,,,,,,,,,,,,,,,,,,,,,,,,,,,,,,,,,,,,,,,,,,,,,,,,,,,,,,,,,,,,,,,,,,,,,,,,,,,,,,,,
