,Timestamp,EEG.Counter,EEG.Interpolated,EEG.AF3,EEG.T7,EEG.Pz,EEG.T8,EEG.AF4,EEG.RawCq,EEG.Battery,EEG.BatteryPercent,MarkerIndex,MarkerType,MarkerValueInt,EEG.MarkerHardware,CQ.AF3,CQ.T7,CQ.Pz,CQ.T8,CQ.AF4,CQ.Overall,EQ.SampleRateQuality,EQ.OVERALL,EQ.AF3,EQ.T7,EQ.Pz,EQ.T8,EQ.AF4,MOT.CounterMems,MOT.InterpolatedMems,MOT.Q0,MOT.Q1,MOT.Q2,MOT.Q3,MOT.AccX,MOT.AccY,MOT.AccZ,MOT.MagX,MOT.MagY,MOT.MagZ,MC.Action,MC.ActionPower,MC.IsActive,PM.Engagement.IsActive,PM.Engagement.Scaled,PM.Engagement.Raw,PM.Engagement.Min,PM.Engagement.Max,PM.Excitement.IsActive,PM.Excitement.Scaled,PM.Excitement.Raw,PM.Excitement.Min,PM.Excitement.Max,PM.LongTermExcitement,PM.Stress.IsActive,PM.Stress.Scaled,PM.Stress.Raw,PM.Stress.Min,PM.Stress.Max,PM.Relaxation.IsActive,PM.Relaxation.Scaled,PM.Relaxation.Raw,PM.Relaxation.Min,PM.Relaxation.Max,PM.Interest.IsActive,PM.Interest.Scaled,PM.Interest.Raw,PM.Interest.Min,PM.Interest.Max,PM.Focus.IsActive,PM.Focus.Scaled,PM.Focus.Raw,PM.Focus.Min,PM.Focus.Max,FE.BlinkWink,FE.HorizontalEyesDirection,FE.UpperFaceAction,FE.UpperFaceActionPower,FE.LowerFaceAction,FE.LowerFaceActionPower,POW.AF3.Theta,POW.AF3.Alpha,POW.AF3.BetaL,POW.AF3.BetaH,POW.AF3.Gamma,POW.T7.Theta,POW.T7.Alpha,POW.T7.BetaL,POW.T7.BetaH,POW.T7.Gamma,POW.Pz.Theta,POW.Pz.Alpha,POW.Pz.BetaL,POW.Pz.BetaH,POW.Pz.Gamma,POW.T8.Theta,POW.T8.Alpha,POW.T8.BetaL,POW.T8.BetaH,POW.T8.Gamma,POW.AF4.Theta,POW.AF4.Alpha,POW.AF4.BetaL,POW.AF4.BetaH,POW.AF4.Gamma
7159,1645650980.9744039,3.0,0.0,4382.563965,3997.4357909999994,4375.897461,4278.461426,4233.333496,450.0,3.0,59.0,,,,0.0,4.0,0.0,4.0,0.0,4.0,33.333332,,,,,,,,,,,,,,,,,,,,,,,,,,,,,,,,,,,,,,,,,,,,,,,,,,,,,,0.0,0.0,1.0,0.0,512.0,1.0,,,,,,,,,,,,,,,,,,,,,,,,,
7160,1645650980.982219,4.0,0.0,4322.563965,4589.743652,4280.0,4272.307617,4278.974121,0.0,3.0,59.0,,,,0.0,4.0,0.0,4.0,0.0,4.0,33.333332,,,,,,,,2.0,0.0,0.311917,0.574951,0.134277,-0.7443850000000001,0.9389790000000001,-0.167971,-0.31104,-0.020701,-0.049039,-0.036072,,,,,,,,,,,,,,,,,,,,,,,,,,,,,,,,,,,,,,,,,,,,,,,,,,,,,,,,,,,,,,,,,
7161,1645650980.990033,5.0,0.0,4221.538574,5206.153809,4183.077147999999,4282.563965,4286.666504,450.0,3.0,59.0,,,,0.0,4.0,0.0,4.0,0.0,4.0,33.333332,,,,,,,,,,,,,,,,,,,,,,,,,,,,,,,,,,,,,,,,,,,,,,,,,,,,,,,,,,,,,,,,,,,,,,,,,,,,,,,,,,,,
7162,1645650980.997847,6.0,0.0,4275.897461,4760.0,4204.102539,4288.717772999999,4300.512695,16116.0,3.0,59.0,,,,0.0,4.0,0.0,4.0,0.0,4.0,33.333332,,,,,,,,3.0,0.0,0.311917,0.574951,0.134277,-0.7443850000000001,0.9511860000000001,-0.143557,-0.29102,-0.018680000000000002,-0.049018,-0.031781000000000004,,,,,,,,,,,,,,,,,,,,,,,,,,,,,,,,,,,,,,,,,,,,,,,,,,,,,,,,,,,,,,,,,
7163,1645650981.0055618,7.0,0.0,4413.333496,4383.077147999999,4249.230957,4277.94873,4317.94873,450.0,3.0,59.0,,,,0.0,4.0,0.0,4.0,0.0,4.0,33.333332,,,,,,,,,,,,,,,,,,,,,,,,,,,,,,,,,,,,,,,,,,,,,,,,,,,,,,0.0,0.0,1.0,0.0,512.0,1.0,,,,,,,,,,,,,,,,,,,,,,,,,
7164,1645650981.013376,8.0,0.0,4426.153809,4779.487305,4214.358886999999,4276.922852000001,4318.461426,450.0,3.0,59.0,,,,0.0,4.0,0.0,4.0,0.0,4.0,33.333332,,,,,,,,4.0,0.0,0.31202199999999997,0.574951,0.13403299999999999,-0.7443850000000001,0.9560690000000001,-0.161135,-0.304204,-0.019204,-0.049048,-0.028066000000000004,,,,,,,,,,,,,,,,,,,,,,,,,,,,,,,,,,,,,,,,,,,,,,,,,,,,,,,,,,,,,,,,,
7165,1645650981.0211911,9.0,0.0,4308.717772999999,4719.487305,4216.922852000001,4289.230957,4238.461426,0.0,3.0,59.0,,,,0.0,4.0,0.0,4.0,0.0,4.0,33.333332,,,,,,,,,,,,,,,,,,,,,,,,,,,,,,,,,,,,,,,,,,,,,,,,,,,,,,,,,,,,,,,,,,,,,,,,,,,,,,,,,,,,
7166,1645650981.029005,10.0,0.0,4320.0,4336.410156,4287.179688,4288.205078,4225.641113000001,450.0,3.0,59.0,,,,0.0,4.0,0.0,4.0,0.0,4.0,33.333332,,,,,,,,5.0,0.0,0.311917,0.574951,0.134277,-0.7443850000000001,0.9511860000000001,-0.143557,-0.29102,-0.017333,-0.049026,-0.024575,,,,,,,,,,,,,,,,,,,,,,,,,,,,,,,,,,,,,,,,,,,,,,,,,,,,,,,,,,,,,,,,,
7167,1645650981.03682,11.0,0.0,4344.102539,4866.666504,4227.692383,4280.0,4323.077147999999,16060.0,3.0,59.0,,,,0.0,4.0,0.0,4.0,0.0,4.0,33.333332,,,,,,,,,,,,,,,,,,,,,,,,,,,,,,,,,,,,,,,,,,,,,,,,,,,,,,0.0,0.0,1.0,0.0,512.0,1.0,,,,,,,,,,,,,,,,,,,,,,,,,
7168,1645650981.0446339,12.0,0.0,4305.641113000001,5151.794922,4194.358886999999,4285.641113000001,4381.538574,450.0,3.0,59.0,,,,0.0,4.0,0.0,4.0,0.0,4.0,33.333332,,,,,,,,6.0,0.0,0.311917,0.574951,0.134277,-0.7443850000000001,0.946792,-0.150393,-0.307622,-0.017991999999999998,-0.049055,-0.021581,,,,,,,,,,,,,,,,,,,,,,,,,,,,,,,,,,,,,,,,,,,,,,,,,,,,,,,,,,,,,,,,,
7169,1645650981.0523481,13.0,0.0,4310.256348,4298.974121,4300.512695,4286.153809,4276.410156,450.0,3.0,59.0,,,,0.0,4.0,0.0,4.0,0.0,4.0,33.333332,,,,,,,,,,,,,,,,,,,,,,,,,,,,,,,,,,,,,,,,,,,,,,,,,,,,,,,,,,,,,,,,,,,,,,,,,,,,,,,,,,,,
7170,1645650981.060163,14.0,0.0,4373.846191,4151.794922,4364.615234000001,4277.94873,4237.436035,450.0,3.0,59.0,,,,0.0,4.0,0.0,4.0,0.0,4.0,33.333332,,,,,,,,7.0,0.0,0.311917,0.574951,0.134277,-0.7443850000000001,0.952651,-0.17383099999999999,-0.31299299999999997,-0.018634,-0.048935,-0.025087,,,,,,,,,,,,,,,,,,,,,,,,,,,,,,,,,,,,,,,,,,,,,,,,,,,,,,,,,,,,,,,,,
7171,1645650981.067977,15.0,0.0,4332.820313,4947.179688,4258.974121,4282.05127,4273.846191,16060.0,3.0,59.0,,,,0.0,4.0,0.0,4.0,0.0,4.0,33.333332,,,,,,,,,,,,,,,,,,,,1.0,0.0,0.0,,,,,,,,,,,,,,,,,,,,,,,,,,,,,,,,0.0,0.0,1.0,0.0,512.0,1.0,28.596388,28.828661,4.880607,18.800917000000002,32.458560999999996,17.974552,44.19735,62.280628,296.18277,1354.013916,134.32873500000002,139.378799,6.957603999999999,17.220526,29.112190000000002,0.046325,0.028942000000000002,0.027707,0.067993,0.41221199999999997,55.997326,64.92234,7.874994999999999,8.1599,29.456529999999997
7172,1645650981.075792,16.0,0.0,4266.666504,4878.974121,4247.179688,4289.743652,4248.717772999999,0.0,3.0,59.0,,,,0.0,4.0,0.0,4.0,0.0,4.0,33.333332,,,,,,,,8.0,0.0,0.311812,0.574951,0.134521,-0.7443850000000001,0.9555809999999999,-0.163088,-0.303227,-0.019163999999999997,-0.048875,-0.028291000000000004,,,,,,,,,,,,,,,,,,,,,,,,,,,,,,,,,,,,,,,,,,,,,,,,,,,,,,,,,,,,,,,,,
7173,1645650981.083606,17.0,0.0,4301.025879,4447.692383,4304.102539,4282.05127,4228.717772999999,0.0,3.0,59.0,,,,0.0,4.0,0.0,4.0,0.0,4.0,33.333332,,,,,,,,,,,,,,,,,,,,,,,,,,,,,,,,,,,,,,,,,,,,,,,,,,,,,,,,,,,,,,,,,,,,,,,,,,,,,,,,,,,,
7174,1645650981.09142,18.0,0.0,4330.256348,4864.615234000001,4303.589844,4273.333496,4293.333496,0.0,3.0,59.0,,,,0.0,4.0,0.0,4.0,0.0,4.0,33.333332,,,,,,,,9.0,0.0,0.311812,0.574951,0.134521,-0.7443850000000001,0.949722,-0.155764,-0.304204,-0.017931,-0.04892,-0.024876,,,,,,,,,,,,,,,,,,,,,,,,,,,,,,,,,,,,,,,,,,,,,,,,,,,,,,,,,,,,,,,,,
7175,1645650981.099235,19.0,0.0,4290.256348,4982.563965,4310.769043,4280.0,4311.794922,0.0,3.0,59.0,,,,0.0,4.0,0.0,4.0,0.0,4.0,33.333332,,,,,,,,,,,,,,,,,,,,,,,,,,,,,,,,,,,,,,,,,,,,,,,,,,,,,,0.0,0.0,1.0,0.0,512.0,1.0,,,,,,,,,,,,,,,,,,,,,,,,,
7176,1645650981.107049,20.0,0.0,4290.769043,4208.717772999999,4369.230957,4288.205078,4213.846191,0.0,3.0,59.0,,,,0.0,4.0,0.0,4.0,0.0,4.0,33.333332,,,,,,,,10.0,0.0,0.311812,0.574951,0.134521,-0.7443850000000001,0.954116,-0.16406500000000002,-0.302739,-0.016333,-0.049007999999999996,-0.028052999999999998,,,,,,,,,,,,,,,,,,,,,,,,,,,,,,,,,,,,,,,,,,,,,,,,,,,,,,,,,,,,,,,,,
7177,1645650981.114864,21.0,0.0,4374.358886999999,4064.102539,4240.0,4283.077147999999,4222.05127,0.0,3.0,59.0,,,,0.0,4.0,0.0,4.0,0.0,4.0,33.333332,,,,,,,,,,,,,,,,,,,,,,,,,,,,,,,,,,,,,,,,,,,,,,,,,,,,,,,,,,,,,,,,,,,,,,,,,,,,,,,,,,,,
7178,1645650981.122678,22.0,0.0,4344.615234000001,4872.820313,4117.94873,4276.410156,4330.256348,0.0,3.0,59.0,,,,0.0,4.0,0.0,4.0,0.0,4.0,33.333332,,,,,,,,11.0,0.0,0.311812,0.574951,0.134521,-0.7443850000000001,0.961929,-0.157229,-0.309575,-0.016995,-0.049088,-0.031009,,,,,,,,,,,,,,,,,,,,,,,,,,,,,,,,,,,,,,,,,,,,,,,,,,,,,,,,,,,,,,,,,
7179,1645650981.130393,23.0,0.0,4287.692383,5027.692383,4227.179688,4281.538574,4348.205078,0.0,3.0,59.0,,,,0.0,4.0,0.0,4.0,0.0,4.0,33.333332,,,,,,,,,,,,,,,,,,,,,,,,,,,,,,,,,,,,,,,,,,,,,,,,,,,,,,0.0,0.0,1.0,0.0,512.0,1.0,,,,,,,,,,,,,,,,,,,,,,,,,
7180,1645650981.138207,24.0,0.0,4321.538574,4247.692383,4352.307617,4286.666504,4256.922852000001,0.0,3.0,59.0,,,,0.0,4.0,0.0,4.0,0.0,4.0,33.333332,,,,,,,,12.0,0.0,0.311812,0.574951,0.134521,-0.7443850000000001,0.962417,-0.170901,-0.305669,-0.017834,-0.049111,-0.027322000000000003,,,,,,,,,,,,,,,,,,,,,,,,,,,,,,,,,,,,,,,,,,,,,,,,,,,,,,,,,,,,,,,,,
7181,1645650981.1460211,25.0,0.0,4380.512695,4219.487305,4275.897461,4281.025879,4287.179688,0.0,3.0,59.0,,,,0.0,4.0,0.0,4.0,0.0,4.0,33.333332,,,,,,,,,,,,,,,,,,,,,,,,,,,,,,,,,,,,,,,,,,,,,,,,,,,,,,,,,,,,,,,,,,,,,,,,,,,,,,,,,,,,
7182,1645650981.153836,26.0,0.0,4328.205078,5085.128418,4158.974121,4278.974121,4394.358886999999,0.0,3.0,59.0,,,,0.0,4.0,0.0,4.0,0.0,4.0,33.333332,,,,,,,,13.0,0.0,0.312394,0.574951,0.134521,-0.7441409999999999,0.95314,-0.151858,-0.30225100000000005,-0.018444,-0.049033999999999994,-0.024102000000000002,,,,,,,,,,,,,,,,,,,,,,,,,,,,,,,,,,,,,,,,,,,,,,,,,,,,,,,,,,,,,,,,,
7183,1645650981.16165,27.0,0.0,4322.563965,5022.05127,4176.922852000001,4286.153809,4389.230957,0.0,3.0,59.0,,,,0.0,4.0,0.0,4.0,0.0,4.0,33.333332,,,,,,,,,,,,,,,,,,,,,,,,,,,,,,,,,,,,,,,,,,,,,,,,,,,,,,0.0,0.0,1.0,0.0,512.0,1.0,,,,,,,,,,,,,,,,,,,,,,,,,
7184,1645650981.169465,28.0,0.0,4427.179688,4275.897461,4252.820313,4283.589844,4304.102539,0.0,3.0,59.0,,,,0.0,4.0,0.0,4.0,0.0,4.0,33.333332,,,,,,,,14.0,0.0,0.311944,0.575195,0.134521,-0.7441409999999999,0.94435,-0.16211199999999998,-0.303227,-0.017332,-0.049062,-0.027452999999999998,,,,,,,,,,,,,,,,,,,,,,,,,,,,,,,,,,,,,,,,,,,,,,,,,,,,,,,,,,,,,,,,,
7185,1645650981.177279,29.0,0.0,4457.94873,4464.102539,4341.025879,4277.94873,4296.922852000001,0.0,3.0,59.0,,,,0.0,4.0,0.0,4.0,0.0,4.0,33.333332,,,,,,,,,,,,,,,,,,,,,,,,,,,,,,,,,,,,,,,,,,,,,,,,,,,,,,,,,,,,,,,,,,,,,,,,,,,,,,,,,,,,
7186,1645650981.185093,30.0,0.0,4324.615234000001,4952.820313,4323.077147999999,4283.589844,4267.692383,0.0,3.0,59.0,,,,0.0,4.0,0.0,4.0,0.0,4.0,33.333332,,,,,,,,15.0,0.0,0.311944,0.575195,0.134521,-0.7441409999999999,0.9546040000000001,-0.161135,-0.304692,-0.01804,-0.049039,-0.024171,,,,,,,,,,,,,,,,,,,,,,,,,,,,,,,,,,,,,,,,,,,,,,,,,,,,,,,,,,,,,,,,,
7187,1645650981.193008,31.0,0.0,4226.666504,4687.179688,4303.077147999999,4290.256348,4226.666504,0.0,3.0,59.0,,,,0.0,4.0,0.0,4.0,0.0,4.0,33.333332,1.0,0.0,0.0,0.0,0.0,0.0,0.0,,,,,,,,,,,,,1.0,0.0,0.0,,,,,,,,,,,,,,,,,,,,,,,,,,,,,,,,0.0,0.0,1.0,0.0,512.0,1.0,28.626989000000002,32.099216,4.8862559999999995,19.975704,33.843224,14.835113,43.085419,55.400921,269.9617,1403.0151369999999,134.852295,139.133713,7.243537,16.534193,30.591773999999997,0.043226,0.029356,0.023949,0.053690999999999996,0.42702299999999993,54.7211,67.218979,9.001159,7.157383,31.744365999999996
7188,1645650981.200822,32.0,0.0,4262.563965,4470.256348,4316.922852000001,4280.512695,4217.436035,0.0,3.0,59.0,,,,0.0,4.0,0.0,4.0,0.0,4.0,33.333332,,,,,,,,16.0,0.0,0.31149299999999996,0.575439,0.134521,-0.7441409999999999,0.937514,-0.161135,-0.304692,-0.018531,-0.04892,-0.021217,,,,,,,,,,,,,,,,,,,,,,,,,,,,,,,,,,,,,,,,,,,,,,,,,,,,,,,,,,,,,,,,,
7189,1645650981.208637,33.0,0.0,4343.589844,4846.153809,4334.358886999999,4274.871582,4266.153809,0.0,3.0,59.0,,,,0.0,4.0,0.0,4.0,0.0,4.0,33.333332,,,,,,,,,,,,,,,,,,,,,,,,,,,,,,,,,,,,,,,,,,,,,,,,,,,,,,,,,,,,,,,,,,,,,,,,,,,,,,,,,,,,
7190,1645650981.216551,34.0,0.0,4323.589844,4909.230957,4311.794922,4286.153809,4261.538574,0.0,3.0,59.0,,,,0.0,4.0,0.0,4.0,0.0,4.0,33.333332,,,,,,,,17.0,0.0,0.311944,0.575195,0.134521,-0.7441409999999999,0.9428850000000001,-0.15332300000000001,-0.313481,-0.019022,-0.048911,-0.018607,,,,,,,,,,,,,,,,,,,,,,,,,,,,,,,,,,,,,,,,,,,,,,,,,,,,,,,,,,,,,,,,,
7191,1645650981.224365,35.0,0.0,4287.179688,4397.94873,4337.436035,4288.717772999999,4182.563965,0.0,3.0,59.0,,,,0.0,4.0,0.0,4.0,0.0,4.0,33.333332,,,,,,,,,,,,,,,,,,,,,,,,,,,,,,,,,,,,,,,,,,,,,,,,,,,,,,0.0,0.0,1.0,0.0,512.0,1.0,,,,,,,,,,,,,,,,,,,,,,,,,
7192,1645650981.23218,36.0,0.0,4301.538574,4390.769043,4265.128418,4279.487305,4185.641113000001,0.0,3.0,59.0,,,,0.0,4.0,0.0,4.0,0.0,4.0,33.333332,,,,,,,,18.0,0.0,0.311839,0.575195,0.134766,-0.7441409999999999,0.9580219999999999,-0.161624,-0.305669,-0.017217,-0.048902999999999995,-0.022508,,,,,,,,,,,,,,,,,,,,,,,,,,,,,,,,,,,,,,,,,,,,,,,,,,,,,,,,,,,,,,,,,
7193,1645650981.239994,37.0,0.0,4261.025879,4977.94873,4171.794922,4281.025879,4263.589844,0.0,3.0,59.0,,,,0.0,4.0,0.0,4.0,0.0,4.0,33.333332,,,,,,,,,,,,,,,,,,,,,,,,,,,,,,,,,,,,,,,,,,,,,,,,,,,,,,,,,,,,,,,,,,,,,,,,,,,,,,,,,,,,
7194,1645650981.247809,38.0,0.0,4266.666504,4819.487305,4239.487305,4286.153809,4289.743652,0.0,3.0,59.0,,,,0.0,4.0,0.0,4.0,0.0,4.0,33.333332,,,,,,,,19.0,0.0,0.311839,0.575195,0.134766,-0.7441409999999999,0.938491,-0.166506,-0.31250500000000003,-0.017838999999999997,-0.048895,-0.019719999999999998,,,,,,,,,,,,,,,,,,,,,,,,,,,,,,,,,,,,,,,,,,,,,,,,,,,,,,,,,,,,,,,,,
7195,1645650981.255523,39.0,0.0,4352.307617,4158.974121,4292.820313,4276.922852000001,4232.820313,0.0,3.0,59.0,,,,0.0,4.0,0.0,4.0,0.0,4.0,33.333332,,,,,,,,,,,,,,,,,,,,,,,,,,,,,,,,,,,,,,,,,,,,,,,,,,,,,,0.0,0.0,1.0,0.0,512.0,1.0,,,,,,,,,,,,,,,,,,,,,,,,,
7196,1645650981.263337,40.0,0.0,4394.871582,4421.025879,4178.974121,4274.358886999999,4294.358886999999,0.0,3.0,59.0,,,,0.0,4.0,0.0,4.0,0.0,4.0,33.333332,,,,,,,,20.0,0.0,0.311388,0.575439,0.134766,-0.7441409999999999,0.9712059999999999,-0.152834,-0.29443800000000003,-0.018399000000000002,-0.048889,-0.023461000000000003,,,,,,,,,,,,,,,,,,,,,,,,,,,,,,,,,,,,,,,,,,,,,,,,,,,,,,,,,,,,,,,,,
7197,1645650981.271152,41.0,0.0,4307.692383,4817.436035,4132.820313,4287.179688,4319.487305,0.0,3.0,59.0,,,,0.0,4.0,0.0,4.0,0.0,4.0,33.333332,,,,,,,,,,,,,,,,,,,,,,,,,,,,,,,,,,,,,,,,,,,,,,,,,,,,,,,,,,,,,,,,,,,,,,,,,,,,,,,,,,,,
7198,1645650981.278966,42.0,0.0,4338.461426,4495.897461,4189.230957,4288.717772999999,4264.102539,0.0,3.0,59.0,,,,0.0,4.0,0.0,4.0,0.0,4.0,33.333332,,,,,,,,21.0,0.0,0.311388,0.575439,0.134766,-0.7441409999999999,0.940932,-0.160647,-0.301762,-0.018854,-0.048931999999999996,-0.02048,,,,,,,,,,,,,,,,,,,,,,,,,,,,,,,,,,,,,,,,,,,,,,,,,,,,,,,,,,,,,,,,,
7199,1645650981.286781,43.0,0.0,4378.461426,4651.794922,4167.179688,4278.461426,4296.922852000001,0.0,3.0,59.0,,,,0.0,4.0,0.0,4.0,0.0,4.0,33.333332,,,,,,,,,,,,,,,,,,,,,,,,,,,,,,,,,,,,,,,,,,,,,,,,,,,,,,0.0,0.0,1.0,0.0,512.0,1.0,,,,,,,,,,,,,,,,,,,,,,,,,
7200,1645650981.294595,44.0,0.0,4320.0,5083.589844,4223.077147999999,4281.538574,4355.897461,0.0,3.0,59.0,,,,0.0,4.0,0.0,4.0,0.0,4.0,33.333332,,,,,,,,22.0,0.0,0.311839,0.575195,0.134766,-0.7441409999999999,0.9423969999999999,-0.15967,-0.319829,-0.019459,-0.048921,-0.024047,,,,,,,,,,,,,,,,,,,,,,,,,,,,,,,,,,,,,,,,,,,,,,,,,,,,,,,,,,,,,,,,,
7201,1645650981.302409,45.0,0.0,4339.487305,4505.128418,4379.487305,4287.179688,4266.666504,0.0,3.0,59.0,,,,0.0,4.0,0.0,4.0,0.0,4.0,33.333332,,,,,,,,,,,,,,,,,,,,,,,,,,,,,,,,,,,,,,,,,,,,,,,,,,,,,,,,,,,,,,,,,,,,,,,,,,,,,,,,,,,,
7202,1645650981.310224,46.0,0.0,4405.128418,4056.923096,4413.333496,4277.94873,4239.487305,0.0,3.0,59.0,,,,0.0,4.0,0.0,4.0,0.0,4.0,33.333332,,,,,,,,23.0,0.0,0.311388,0.575439,0.134766,-0.7441409999999999,0.9521629999999999,-0.169924,-0.304204,-0.01766,-0.048863,-0.027306999999999998,,,,,,,,,,,,,,,,,,,,,,,,,,,,,,,,,,,,,,,,,,,,,,,,,,,,,,,,,,,,,,,,,
7203,1645650981.318038,47.0,0.0,4321.538574,4791.794922,4274.871582,4273.333496,4327.692383,0.0,3.0,59.0,,,,0.0,4.0,0.0,4.0,0.0,4.0,33.333332,,,,,,,,,,,,,,,,,,,,1.0,0.0,0.0,,,,,,,,,,,,,,,,,,,,,,,,,,,,,,,,0.0,0.0,1.0,0.0,512.0,1.0,29.876789000000002,34.646904,4.874286,21.726337,34.77306,14.339089999999999,44.102211,53.821205000000006,260.035217,1443.451782,133.817902,137.84622199999998,7.571566000000001,17.32305,32.206173,0.038862,0.034254,0.021668,0.050950999999999996,0.42913,53.489394999999995,68.161041,9.709478,7.491503,33.393738
7204,1645650981.325753,48.0,0.0,4255.897461,5136.410156,4250.256348,4284.615234000001,4329.743652,0.0,3.0,59.0,,,,0.0,4.0,0.0,4.0,0.0,4.0,33.333332,,,,,,,,24.0,0.0,0.311388,0.575439,0.134766,-0.7441409999999999,0.960464,-0.155276,-0.301762,-0.018189,-0.04886,-0.030289,,,,,,,,,,,,,,,,,,,,,,,,,,,,,,,,,,,,,,,,,,,,,,,,,,,,,,,,,,,,,,,,,
7205,1645650981.333567,49.0,0.0,4343.077147999999,4458.974121,4294.358886999999,4287.179688,4251.794922,0.0,3.0,59.0,,,,0.0,4.0,0.0,4.0,0.0,4.0,33.333332,,,,,,,,,,,,,,,,,,,,,,,,,,,,,,,,,,,,,,,,,,,,,,,,,,,,,,,,,,,,,,,,,,,,,,,,,,,,,,,,,,,,
7206,1645650981.341382,50.0,0.0,4391.794922,4233.333496,4340.0,4275.897461,4254.358886999999,0.0,3.0,59.0,,,,0.0,4.0,0.0,4.0,0.0,4.0,33.333332,,,,,,,,25.0,0.0,0.311388,0.575439,0.134766,-0.7441409999999999,0.954116,-0.157229,-0.29443800000000003,-0.018713,-0.048954000000000004,-0.026723,,,,,,,,,,,,,,,,,,,,,,,,,,,,,,,,,,,,,,,,,,,,,,,,,,,,,,,,,,,,,,,,,
7207,1645650981.3491962,51.0,0.0,4306.666504,4761.538574,4301.538574,4278.974121,4266.666504,0.0,3.0,59.0,,,,0.0,4.0,0.0,4.0,0.0,4.0,33.333332,,,,,,,,,,,,,,,,,,,,,,,,,,,,,,,,,,,,,,,,,,,,,,,,,,,,,,0.0,0.0,1.0,0.0,512.0,1.0,,,,,,,,,,,,,,,,,,,,,,,,,
7208,1645650981.35701,52.0,0.0,4239.487305,4814.871582,4269.230957,4291.794922,4235.897461,0.0,3.0,59.0,,,,0.0,4.0,0.0,4.0,0.0,4.0,33.333332,,,,,,,,26.0,0.0,0.311388,0.575439,0.134766,-0.7441409999999999,0.9428850000000001,-0.153811,-0.29443800000000003,-0.019186,-0.049088,-0.029861000000000002,,,,,,,,,,,,,,,,,,,,,,,,,,,,,,,,,,,,,,,,,,,,,,,,,,,,,,,,,,,,,,,,,
7209,1645650981.364825,53.0,0.0,4300.0,4405.128418,4249.230957,4287.692383,4271.794922,0.0,3.0,59.0,,,,0.0,4.0,0.0,4.0,0.0,4.0,33.333332,,,,,,,,,,,,,,,,,,,,,,,,,,,,,,,,,,,,,,,,,,,,,,,,,,,,,,,,,,,,,,,,,,,,,,,,,,,,,,,,,,,,
7210,1645650981.3726392,54.0,0.0,4389.743652,4633.333496,4221.025879,4276.410156,4334.358886999999,0.0,3.0,59.0,,,,0.0,4.0,0.0,4.0,0.0,4.0,33.333332,,,,,,,,27.0,0.0,0.31149299999999996,0.575439,0.134521,-0.7441409999999999,0.94435,-0.16211199999999998,-0.306645,-0.019562,-0.04916,-0.032539,,,,,,,,,,,,,,,,,,,,,,,,,,,,,,,,,,,,,,,,,,,,,,,,,,,,,,,,,,,,,,,,,
7211,1645650981.3804538,55.0,0.0,4386.666504,5002.05127,4179.487305,4279.487305,4306.666504,0.0,3.0,59.0,,,,0.0,4.0,0.0,4.0,0.0,4.0,33.333332,,,,,,,,,,,,,,,,,,,,,,,,,,,,,,,,,,,,,,,,,,,,,,,,,,,,,,0.0,0.0,1.0,0.0,512.0,1.0,,,,,,,,,,,,,,,,,,,,,,,,,
7212,1645650981.388268,56.0,0.0,4323.589844,4584.102539,4210.769043,4285.128418,4198.974121,0.0,3.0,59.0,,,,0.0,4.0,0.0,4.0,0.0,4.0,33.333332,,,,,,,,28.0,0.0,0.311625,0.575684,0.134521,-0.743896,0.953628,-0.156252,-0.300298,-0.018387,-0.049225,-0.0287,,,,,,,,,,,,,,,,,,,,,,,,,,,,,,,,,,,,,,,,,,,,,,,,,,,,,,,,,,,,,,,,,
7213,1645650981.396182,57.0,0.0,4360.0,4371.282227000001,4256.410156,4284.615234000001,4232.307617,0.0,3.0,59.0,,,,0.0,4.0,0.0,4.0,0.0,4.0,33.333332,,,,,,,,,,,,,,,,,,,,,,,,,,,,,,,,,,,,,,,,,,,,,,,,,,,,,,,,,,,,,,,,,,,,,,,,,,,,,,,,,,,,
7214,1645650981.4039972,58.0,0.0,4332.820313,4867.179688,4203.589844,4286.666504,4341.025879,0.0,3.0,59.0,,,,0.0,4.0,0.0,4.0,0.0,4.0,33.333332,,,,,,,,29.0,0.0,0.311862,0.575928,0.134277,-0.7436520000000001,0.961929,-0.14551,-0.31006300000000003,-0.018844,-0.049234,-0.031639999999999995,,,,,,,,,,,,,,,,,,,,,,,,,,,,,,,,,,,,,,,,,,,,,,,,,,,,,,,,,,,,,,,,,
7215,1645650981.411911,59.0,0.0,4296.410156,4921.538574,4223.589844,4287.692383,4360.0,0.0,3.0,59.0,,,,0.0,4.0,0.0,4.0,0.0,4.0,33.333332,,,,,,,,,,,,,,,,,,,,,,,,,,,,,,,,,,,,,,,,,,,,,,,,,,,,,,0.0,0.0,1.0,0.0,512.0,1.0,,,,,,,,,,,,,,,,,,,,,,,,,
7216,1645650981.419725,60.0,0.0,4365.641113000001,4676.410156,4271.794922,4277.94873,4315.897461,0.0,3.0,59.0,,,,0.0,4.0,0.0,4.0,0.0,4.0,33.333332,,,,,,,,30.0,0.0,0.312203,0.576172,0.13378900000000002,-0.743408,0.9546040000000001,-0.156252,-0.305669,-0.019254,-0.049291,-0.03414,,,,,,,,,,,,,,,,,,,,,,,,,,,,,,,,,,,,,,,,,,,,,,,,,,,,,,,,,,,,,,,,,
7217,1645650981.42754,61.0,0.0,4431.794922,4706.153809,4279.487305,4275.384765999999,4369.230957,0.0,3.0,59.0,,,,0.0,4.0,0.0,4.0,0.0,4.0,33.333332,,,,,,,,,,,,,,,,,,,,,,,,,,,,,,,,,,,,,,,,,,,,,,,,,,,,,,,,,,,,,,,,,,,,,,,,,,,,,,,,,,,,
7218,1645650981.435354,62.0,0.0,4407.179688,4470.769043,4306.153809,4284.102539,4366.153809,0.0,3.0,59.0,,,,0.0,4.0,0.0,4.0,0.0,4.0,33.333332,,,,,,,,31.0,0.0,0.312542,0.576416,0.133301,-0.743164,0.949722,-0.152834,-0.310552,-0.017475,-0.049294,-0.036439,,,,,,,,,,,,,,,,,,,,,,,,,,,,,,,,,,,,,,,,,,,,,,,,,,,,,,,,,,,,,,,,,
7219,1645650981.4431689,63.0,0.0,4417.94873,4341.025879,4365.641113000001,4287.692383,4296.922852000001,0.0,3.0,59.0,,,,0.0,4.0,0.0,4.0,0.0,4.0,33.333332,,,,,,,,,,,,,,,,,,,,1.0,0.0,0.0,,,,,,,,,,,,,,,,,,,,,,,,,,,,,,,,0.0,0.0,1.0,0.0,512.0,1.0,32.373936,36.162827,4.682451,23.649977,35.114166,15.443767000000001,46.773247,61.105968000000004,270.21536299999997,1472.6795650000001,131.89804099999998,136.06178300000002,7.707711,19.939482,33.834179,0.035174000000000004,0.043292000000000004,0.020878,0.056762,0.42,52.60358000000001,67.450737,9.643978,9.065000999999999,33.964455
7220,1645650981.450983,64.0,0.0,4433.846191,4682.563965,4328.717772999999,4286.153809,4300.512695,450.0,3.0,59.0,,,,0.0,4.0,0.0,4.0,0.0,4.0,33.333332,,,,,,,,32.0,0.0,0.311862,0.575928,0.134277,-0.7436520000000001,0.961929,-0.14551,-0.31006300000000003,-0.015777,-0.049394,-0.032257999999999995,,,,,,,,,,,,,,,,,,,,,,,,,,,,,,,,,,,,,,,,,,,,,,,,,,,,,,,,,,,,,,,,,
7221,1645650981.458798,65.0,0.0,4494.871582,4746.666504,4297.436035,4288.717772999999,4361.025879,450.0,3.0,59.0,,,,0.0,4.0,0.0,4.0,0.0,4.0,33.333332,,,,,,,,,,,,,,,,,,,,,,,,,,,,,,,,,,,,,,,,,,,,,,,,,,,,,,,,,,,,,,,,,,,,,,,,,,,,,,,,,,,,
7222,1645650981.466512,66.0,0.0,4632.307617,4503.077147999999,4303.589844,4291.282227000001,4393.333496,16291.0,3.0,59.0,,,,0.0,4.0,2.0,0.0,0.0,4.0,16.666666,,,,,,,,33.0,0.0,0.312542,0.576416,0.133301,-0.743164,0.949722,-0.152834,-0.310552,-0.014344999999999998,-0.049386,-0.034745,,,,,,,,,,,,,,,,,,,,,,,,,,,,,,,,,,,,,,,,,,,,,,,,,,,,,,,,,,,,,,,,,
7223,1645650981.474326,67.0,0.0,4762.563965,4526.153809,4341.025879,4289.230957,4450.769043,450.0,3.0,59.0,,,,0.0,4.0,2.0,0.0,0.0,4.0,16.666666,,,,,,,,,,,,,,,,,,,,,,,,,,,,,,,,,,,,,,,,,,,,,,,,,,,,,,0.0,0.0,1.0,0.0,512.0,1.0,,,,,,,,,,,,,,,,,,,,,,,,,
7224,1645650981.482141,68.0,0.0,5080.512695,4598.461426,4305.128418,4295.384765999999,4565.641113000001,220.0,3.0,59.0,,,,0.0,4.0,2.0,0.0,0.0,4.0,16.666666,,,,,,,,34.0,0.0,0.31288,0.5766600000000001,0.13281300000000001,-0.74292,0.9560690000000001,-0.16894800000000001,-0.308598,-0.015303,-0.04933,-0.030782999999999998,,,,,,,,,,,,,,,,,,,,,,,,,,,,,,,,,,,,,,,,,,,,,,,,,,,,,,,,,,,,,,,,,
7225,1645650981.4899552,69.0,0.0,5383.077147999999,4576.922852000001,4241.538574,4308.717772999999,4626.666504,450.0,3.0,59.0,,,,0.0,4.0,2.0,0.0,0.0,4.0,16.666666,,,,,,,,,,,,,,,,,,,,,,,,,,,,,,,,,,,,,,,,,,,,,,,,,,,,,,,,,,,,,,,,,,,,,,,,,,,,,,,,,,,,
7226,1645650981.4977698,70.0,0.0,5998.974121,4593.333496,4202.563965,4323.077147999999,4663.077147999999,0.0,3.0,59.0,,,,0.0,4.0,2.0,0.0,0.0,4.0,16.666666,,,,,,,,35.0,0.0,0.313216,0.576904,0.132324,-0.742676,0.9629049999999999,-0.178225,-0.31104,-0.014554,-0.049475,-0.033368,,,,,,,,,,,,,,,,,,,,,,,,,,,,,,,,,,,,,,,,,,,,,,,,,,,,,,,,,,,,,,,,,
7227,1645650981.505584,71.0,0.0,6616.410156,4621.538574,4177.94873,4337.436035,4671.282227000001,450.0,3.0,59.0,,,,0.0,4.0,2.0,0.0,0.0,4.0,16.666666,,,,,,,,,,,,,,,,,,,,,,,,,,,,,,,,,,,,,,,,,,,,,,,,,,,,,,0.0,0.0,1.0,0.0,512.0,1.0,,,,,,,,,,,,,,,,,,,,,,,,,
7228,1645650981.513398,72.0,0.0,6934.871581999999,4728.205078,4143.589844,4354.871582,4731.794922,450.0,3.0,59.0,,,,0.0,4.0,2.0,0.0,0.0,4.0,16.666666,,,,,,,,36.0,0.0,0.312869,0.577148,0.13208,-0.742676,0.9585110000000001,-0.174319,-0.31299299999999997,-0.015443,-0.049460000000000004,-0.029445999999999996,,,,,,,,,,,,,,,,,,,,,,,,,,,,,,,,,,,,,,,,,,,,,,,,,,,,,,,,,,,,,,,,,
7229,1645650981.521213,73.0,0.0,7114.358887,4767.179688,4185.641113000001,4372.307617,4806.153809,0.0,3.0,59.0,,,,0.0,4.0,2.0,0.0,0.0,4.0,16.666666,,,,,,,,,,,,,,,,,,,,,,,,,,,,,,,,,,,,,,,,,,,,,,,,,,,,,,,,,,,,,,,,,,,,,,,,,,,,,,,,,,,,
7230,1645650981.529027,74.0,0.0,7428.717773,4705.641113000001,4250.256348,4385.128418,4836.410156,450.0,3.0,59.0,,,,0.0,4.0,2.0,0.0,0.0,4.0,16.666666,,,,,,,,37.0,0.0,0.312972,0.577148,0.13183599999999998,-0.742676,0.9585110000000001,-0.175296,-0.295903,-0.013947,-0.049397,-0.032214,,,,,,,,,,,,,,,,,,,,,,,,,,,,,,,,,,,,,,,,,,,,,,,,,,,,,,,,,,,,,,,,,
7231,1645650981.536742,75.0,0.0,7623.589844,4722.563965,4253.333496,4393.846191,4822.05127,16202.0,3.0,59.0,,,,0.0,4.0,2.0,0.0,0.0,4.0,16.666666,,,,,,,,,,,,,,,,,,,,,,,,,,,,,,,,,,,,,,,,,,,,,,,,,,,,,,0.0,0.0,1.0,0.0,512.0,1.0,,,,,,,,,,,,,,,,,,,,,,,,,
7232,1645650981.544656,76.0,0.0,7543.589844,4743.077147999999,4266.153809,4396.410156,4842.05127,450.0,3.0,59.0,,,,0.0,4.0,2.0,0.0,0.0,4.0,16.666666,,,,,,,,38.0,0.0,0.312972,0.577148,0.13183599999999998,-0.742676,0.9428850000000001,-0.180667,-0.31201599999999996,-0.014846999999999999,-0.049486,-0.028406999999999998,,,,,,,,,,,,,,,,,,,,,,,,,,,,,,,,,,,,,,,,,,,,,,,,,,,,,,,,,,,,,,,,,
7233,1645650981.55247,77.0,0.0,7693.846191,4713.333496,4293.846191,4397.94873,4826.666504,450.0,3.0,59.0,,,,0.0,4.0,2.0,0.0,0.0,4.0,16.666666,,,,,,,,,,,,,,,,,,,,,,,,,,,,,,,,,,,,,,,,,,,,,,,,,,,,,,,,,,,,,,,,,,,,,,,,,,,,,,,,,,,,
7234,1645650981.5602849,78.0,0.0,7644.102539,4671.282227000001,4391.282227000001,4396.922852000001,4805.128418,450.0,3.0,59.0,,,,0.0,4.0,2.0,0.0,0.0,4.0,16.666666,,,,,,,,39.0,0.0,0.312843,0.576904,0.13183599999999998,-0.74292,0.957046,-0.161624,-0.301762,-0.015755,-0.049421,-0.03123,,,,,,,,,,,,,,,,,,,,,,,,,,,,,,,,,,,,,,,,,,,,,,,,,,,,,,,,,,,,,,,,,
7235,1645650981.568099,79.0,0.0,7564.102539,4714.358886999999,4424.615234000001,4392.820313,4789.743652,16202.0,3.0,59.0,,,,0.0,4.0,2.0,0.0,0.0,4.0,16.666666,,,,,,,,,,,,,,,,,,,,1.0,0.0,0.0,,,,,,,,,,,,,,,,,,,,,,,,,,,,,,,,0.0,0.0,1.0,0.0,512.0,0.490461,36.039818,37.294521,4.289097,25.470282,34.737091,17.896919,49.621033000000004,76.76604499999999,301.742523,1491.461182,129.640579,134.30789199999998,7.542348,24.442678,35.184128,0.033602,0.053911,0.021473,0.067137,0.404704,52.215706,64.723,8.704403,11.481296,33.232185
7236,1645650981.5759141,80.0,0.0,7476.410156,4823.077147999999,4393.333496,4387.179688,4739.487305,450.0,3.0,59.0,,,,0.0,4.0,2.0,0.0,0.0,4.0,16.666666,,,,,,,,40.0,0.0,0.31274,0.576904,0.13208,-0.74292,0.945815,-0.15820599999999999,-0.295415,-0.016524,-0.04941,-0.027569999999999997,,,,,,,,,,,,,,,,,,,,,,,,,,,,,,,,,,,,,,,,,,,,,,,,,,,,,,,,,,,,,,,,,
7237,1645650981.5837278,81.0,0.0,7300.0,4718.974121,4355.897461,4377.436035,4683.589844,450.0,3.0,59.0,,,,0.0,4.0,2.0,0.0,0.0,4.0,16.666666,,,,,,,,,,,,,,,,,,,,,,,,,,,,,,,,,,,,,,,,,,,,,,,,,,,,,,,,,,,,,,,,,,,,,,,,,,,,,,,,,,,,
7238,1645650981.591543,82.0,0.0,7163.589844,4470.256348,4373.846191,4370.769043,4672.820313,450.0,3.0,59.0,,,,0.0,4.0,2.0,0.0,0.0,4.0,16.666666,,,,,,,,41.0,0.0,0.31250700000000003,0.5766600000000001,0.132324,-0.743164,0.940932,-0.176761,-0.31299299999999997,-0.015604,-0.04945,-0.030525999999999998,,,,,,,,,,,,,,,,,,,,,,,,,,,,,,,,,,,,,,,,,,,,,,,,,,,,,,,,,,,,,,,,,
7239,1645650981.5993571,83.0,0.0,6847.179687999999,4469.230957,4307.179688,4362.563965,4652.307617,16202.0,3.0,59.0,,,,0.0,4.0,2.0,0.0,0.0,4.0,16.666666,,,,,,,,,,,,,,,,,,,,,,,,,,,,,,,,,,,,,,,,,,,,,,,,,,,,,,0.0,0.0,1.0,0.0,512.0,0.490461,,,,,,,,,,,,,,,,,,,,,,,,,
7240,1645650981.6072712,84.0,0.0,6623.589844,4614.358886999999,4284.102539,4349.743652,4594.358886999999,450.0,3.0,59.0,,,,0.0,4.0,2.0,0.0,0.0,4.0,16.666666,,,,,,,,42.0,0.0,0.312273,0.576416,0.13256800000000002,-0.743408,0.9404440000000001,-0.163577,-0.31006300000000003,-0.016387,-0.049339,-0.026936,,,,,,,,,,,,,,,,,,,,,,,,,,,,,,,,,,,,,,,,,,,,,,,,,,,,,,,,,,,,,,,,,
7241,1645650981.6150858,85.0,0.0,6261.538574,4621.025879,4300.512695,4337.436035,4561.025879,450.0,3.0,59.0,,,,0.0,4.0,2.0,0.0,0.0,4.0,16.666666,,,,,,,,,,,,,,,,,,,,,,,,,,,,,,,,,,,,,,,,,,,,,,,,,,,,,,,,,,,,,,,,,,,,,,,,,,,,,,,,,,,,
7242,1645650981.6229,86.0,0.0,5927.179688,4637.436035,4283.589844,4330.256348,4522.563965,450.0,3.0,59.0,,,,0.0,4.0,2.0,0.0,0.0,4.0,16.666666,,,,,,,,43.0,0.0,0.31206500000000004,0.576416,0.13305699999999998,-0.743408,0.9560690000000001,-0.16894800000000001,-0.317388,-0.017043,-0.049385000000000005,-0.030004000000000003,,,,,,,,,,,,,,,,,,,,,,,,,,,,,,,,,,,,,,,,,,,,,,,,,,,,,,,,,,,,,,,,,
7243,1645650981.630615,87.0,0.0,5578.461426,4738.974121,4250.256348,4322.563965,4481.025879,16202.0,3.0,59.0,,,,0.0,4.0,2.0,0.0,0.0,4.0,16.666666,,,,,,,,,,,,,,,,,,,,,,,,,,,,,,,,,,,,,,,,,,,,,,,,,,,,,,0.0,0.0,1.0,0.0,512.0,0.490461,,,,,,,,,,,,,,,,,,,,,,,,,
7244,1645650981.638429,88.0,0.0,5275.897461,4639.487305,4202.563965,4313.846191,4427.692383,450.0,3.0,59.0,,,,0.0,4.0,2.0,0.0,0.0,4.0,16.666666,,,,,,,,44.0,0.0,0.31183,0.576172,0.133301,-0.7436520000000001,0.948257,-0.16894800000000001,-0.31299299999999997,-0.017731999999999998,-0.049281,-0.026418,,,,,,,,,,,,,,,,,,,,,,,,,,,,,,,,,,,,,,,,,,,,,,,,,,,,,,,,,,,,,,,,,
7245,1645650981.6462429,89.0,0.0,5035.897461,4394.358886999999,4189.230957,4310.256348,4380.0,450.0,3.0,59.0,,,,0.0,4.0,2.0,0.0,0.0,4.0,16.666666,,,,,,,,,,,,,,,,,,,,,,,,,,,,,,,,,,,,,,,,,,,,,,,,,,,,,,,,,,,,,,,,,,,,,,,,,,,,,,,,,,,,
7246,1645650981.654058,90.0,0.0,4783.077147999999,4475.897461,4197.94873,4302.563965,4360.0,450.0,3.0,59.0,,,,0.0,4.0,2.0,0.0,0.0,4.0,16.666666,,,,,,,,45.0,0.0,0.311726,0.576172,0.133545,-0.7436520000000001,0.949233,-0.17236600000000002,-0.309087,-0.016007,-0.049333,-0.029538,,,,,,,,,,,,,,,,,,,,,,,,,,,,,,,,,,,,,,,,,,,,,,,,,,,,,,,,,,,,,,,,,
7247,1645650981.6618721,91.0,0.0,4650.256348,4627.179688,4226.153809,4296.922852000001,4386.153809,16202.0,3.0,59.0,,,,0.0,4.0,2.0,0.0,0.0,4.0,16.666666,,,,,,,,,,,,,,,,,,,,,,,,,,,,,,,,,,,,,,,,,,,,,,,,,,,,,,0.0,0.0,1.0,0.0,512.0,0.490461,,,,,,,,,,,,,,,,,,,,,,,,,
7248,1645650981.669687,92.0,0.0,4424.615234000001,4303.077147999999,4286.153809,4293.333496,4318.974121,450.0,3.0,59.0,,,,0.0,4.0,2.0,0.0,0.0,4.0,16.666666,,,,,,,,46.0,0.0,0.311594,0.575928,0.133545,-0.743896,0.956558,-0.16894800000000001,-0.304204,-0.015188,-0.049429,-0.032297,,,,,,,,,,,,,,,,,,,,,,,,,,,,,,,,,,,,,,,,,,,,,,,,,,,,,,,,,,,,,,,,,
7249,1645650981.677501,93.0,0.0,4365.641113000001,4208.205078,4336.410156,4290.256348,4273.333496,450.0,3.0,59.0,,,,0.0,4.0,2.0,0.0,0.0,4.0,16.666666,,,,,,,,,,,,,,,,,,,,,,,,,,,,,,,,,,,,,,,,,,,,,,,,,,,,,,,,,,,,,,,,,,,,,,,,,,,,,,,,,,,,
7250,1645650981.685216,94.0,0.0,4238.461426,4797.436035,4257.94873,4287.179688,4289.230957,450.0,3.0,59.0,,,,0.0,4.0,2.0,0.0,0.0,4.0,16.666666,,,,,,,,47.0,0.0,0.310906,0.575928,0.13378900000000002,-0.7441409999999999,0.9594870000000001,-0.151858,-0.30518,-0.015865999999999998,-0.049369,-0.034829,,,,,,,,,,,,,,,,,,,,,,,,,,,,,,,,,,,,,,,,,,,,,,,,,,,,,,,,,,,,,,,,,
7251,1645650981.69303,95.0,0.0,4075.897461,5113.846191,4256.410156,4289.230957,4291.794922,16202.0,3.0,59.0,,,,0.0,4.0,2.0,0.0,0.0,4.0,16.666666,1.0,0.0,0.0,0.0,0.0,0.0,1.0,,,,,,,,,,,,,1.0,0.0,0.0,,,,,,,,,,,,,,,,,,,,,,,,,,,,,,,,0.0,0.0,1.0,0.0,512.0,0.447065,92.68261700000001,47.719795,4.6940349999999995,27.115299,33.590065,22.142107,51.322231,96.485176,350.23562599999997,1499.2246089999999,127.893608,133.447784,7.0154190000000005,30.330462,35.863846,0.096971,0.071393,0.024075,0.079644,0.38840399999999997,53.670795,60.983081999999996,7.2239889999999995,14.27179,31.315804999999997
7252,1645650981.700844,96.0,0.0,3955.897461,4716.410156,4371.794922,4292.820313,4230.256348,450.0,3.0,59.0,,,,0.0,4.0,2.0,0.0,0.0,4.0,16.666666,,,,,,,,48.0,0.0,0.31080100000000005,0.575928,0.13403299999999999,-0.7441409999999999,0.954116,-0.152834,-0.319341,-0.016477000000000002,-0.049267,-0.037058999999999995,,,,,,,,,,,,,,,,,,,,,,,,,,,,,,,,,,,,,,,,,,,,,,,,,,,,,,,,,,,,,,,,,
7253,1645650981.708659,97.0,0.0,3931.794922,4418.461426,4420.512695,4291.794922,4197.94873,450.0,3.0,59.0,,,,0.0,4.0,2.0,0.0,0.0,4.0,16.666666,,,,,,,,,,,,,,,,,,,,,,,,,,,,,,,,,,,,,,,,,,,,,,,,,,,,,,,,,,,,,,,,,,,,,,,,,,,,,,,,,,,,
7254,1645650981.716473,98.0,0.0,3888.718018,4514.358886999999,4315.384765999999,4287.179688,4166.666504,450.0,3.0,59.0,,,,0.0,4.0,2.0,0.0,0.0,4.0,16.666666,,,,,,,,49.0,0.0,0.311147,0.575684,0.134277,-0.7441409999999999,0.947768,-0.14941600000000002,-0.303716,-0.017222,-0.049272,-0.032767000000000004,,,,,,,,,,,,,,,,,,,,,,,,,,,,,,,,,,,,,,,,,,,,,,,,,,,,,,,,,,,,,,,,,
7255,1645650981.724288,99.0,0.0,3828.718018,4649.743652,4273.333496,4285.128418,4162.563965,16202.0,3.0,59.0,,,,0.0,4.0,2.0,0.0,0.0,4.0,16.666666,,,,,,,,,,,,,,,,,,,,,,,,,,,,,,,,,,,,,,,,,,,,,,,,,,,,,,0.0,0.0,1.0,0.0,512.0,0.447065,,,,,,,,,,,,,,,,,,,,,,,,,
7256,1645650981.732102,100.0,0.0,3831.794922,4679.487305,4280.512695,4287.692383,4188.717772999999,450.0,3.0,59.0,,,,0.0,4.0,2.0,0.0,0.0,4.0,16.666666,,,,,,,,50.0,0.0,0.311147,0.575684,0.134277,-0.7441409999999999,0.972183,-0.153811,-0.30811,-0.017795,-0.049227,-0.035253,,,,,,,,,,,,,,,,,,,,,,,,,,,,,,,,,,,,,,,,,,,,,,,,,,,,,,,,,,,,,,,,,
7257,1645650981.739916,101.0,0.0,3760.0,4599.487305,4289.230957,4287.692383,4117.94873,450.0,3.0,59.0,,,,0.0,4.0,2.0,0.0,0.0,4.0,16.666666,,,,,,,,,,,,,,,,,,,,,,,,,,,,,,,,,,,,,,,,,,,,,,,,,,,,,,,,,,,,,,,,,,,,,,,,,,,,,,,,,,,,
7258,1645650981.747731,102.0,0.0,3708.718018,4745.641113000001,4212.820313,4287.179688,4133.333496,450.0,3.0,59.0,,,,0.0,4.0,2.0,0.0,0.0,4.0,16.666666,,,,,,,,51.0,0.0,0.31080100000000005,0.575928,0.13403299999999999,-0.7441409999999999,0.962417,-0.15332300000000001,-0.31201599999999996,-0.018261000000000003,-0.049285,-0.037343,,,,,,,,,,,,,,,,,,,,,,,,,,,,,,,,,,,,,,,,,,,,,,,,,,,,,,,,,,,,,,,,,
7259,1645650981.755545,103.0,0.0,3729.2307130000004,4876.922852000001,4181.025879,4286.153809,4212.820313,16202.0,3.0,59.0,,,,0.0,4.0,2.0,0.0,0.0,4.0,16.666666,,,,,,,,,,,,,,,,,,,,,,,,,,,,,,,,,,,,,,,,,,,,,,,,,,,,,,0.0,0.0,1.0,0.0,512.0,0.447065,,,,,,,,,,,,,,,,,,,,,,,,,
7260,1645650981.76326,104.0,0.0,3732.3076170000004,4836.922852000001,4238.461426,4285.128418,4233.333496,450.0,3.0,59.0,,,,0.0,4.0,2.0,0.0,0.0,4.0,16.666666,,,,,,,,52.0,0.0,0.31138499999999997,0.575928,0.13403299999999999,-0.743896,0.9550930000000001,-0.158694,-0.31250500000000003,-0.018828,-0.049239,-0.032925,,,,,,,,,,,,,,,,,,,,,,,,,,,,,,,,,,,,,,,,,,,,,,,,,,,,,,,,,,,,,,,,,
7261,1645650981.771074,105.0,0.0,3660.512939,4794.871582,4254.358886999999,4285.128418,4233.333496,450.0,3.0,59.0,,,,0.0,4.0,2.0,0.0,0.0,4.0,16.666666,,,,,,,,,,,,,,,,,,,,,,,,,,,,,,,,,,,,,,,,,,,,,,,,,,,,,,,,,,,,,,,,,,,,,,,,,,,,,,,,,,,,
7262,1645650981.7788892,106.0,0.0,3703.076904,4766.666504,4246.666504,4282.563965,4279.487305,450.0,3.0,59.0,,,,0.0,4.0,2.0,0.0,0.0,4.0,16.666666,,,,,,,,53.0,0.0,0.311147,0.575684,0.134277,-0.7441409999999999,0.972183,-0.153811,-0.30811,-0.019288999999999997,-0.049247000000000006,-0.028998000000000003,,,,,,,,,,,,,,,,,,,,,,,,,,,,,,,,,,,,,,,,,,,,,,,,,,,,,,,,,,,,,,,,,
7263,1645650981.7867029,107.0,0.0,3737.4357909999994,4863.589844,4214.871582,4275.897461,4274.358886999999,16202.0,3.0,59.0,,,,0.0,4.0,2.0,0.0,0.0,4.0,16.666666,,,,,,,,,,,,,,,,,,,,,,,,,,,,,,,,,,,,,,,,,,,,,,,,,,,,,,0.0,0.0,1.0,0.0,512.0,0.447065,,,,,,,,,,,,,,,,,,,,,,,,,
7264,1645650981.794517,108.0,0.0,3769.2307130000004,4915.384765999999,4208.717772999999,4272.820313,4281.538574,450.0,3.0,59.0,,,,0.0,4.0,2.0,0.0,0.0,4.0,16.666666,,,,,,,,54.0,0.0,0.311726,0.576172,0.133545,-0.7436520000000001,0.9487450000000001,-0.14844000000000002,-0.309087,-0.019556999999999998,-0.049254,-0.025463,,,,,,,,,,,,,,,,,,,,,,,,,,,,,,,,,,,,,,,,,,,,,,,,,,,,,,,,,,,,,,,,,
7265,1645650981.802332,109.0,0.0,3893.8461909999996,4904.102539,4259.487305,4273.333496,4305.641113000001,450.0,3.0,59.0,,,,0.0,4.0,2.0,0.0,0.0,4.0,16.666666,,,,,,,,,,,,,,,,,,,,,,,,,,,,,,,,,,,,,,,,,,,,,,,,,,,,,,,,,,,,,,,,,,,,,,,,,,,,,,,,,,,,
7266,1645650981.810246,110.0,0.0,3990.7692869999996,4701.025879,4334.871582,4275.897461,4321.025879,450.0,3.0,59.0,,,,0.0,4.0,2.0,0.0,0.0,4.0,16.666666,,,,,,,,55.0,0.0,0.311934,0.576172,0.13305699999999998,-0.7436520000000001,0.9399559999999999,-0.16846,-0.306645,-0.020065,-0.049217000000000004,-0.025767,,,,,,,,,,,,,,,,,,,,,,,,,,,,,,,,,,,,,,,,,,,,,,,,,,,,,,,,,,,,,,,,,
7267,1645650981.81806,111.0,0.0,4064.615479,4526.666504,4301.538574,4276.410156,4358.461426,16202.0,3.0,59.0,,,,0.0,4.0,2.0,0.0,0.0,4.0,16.666666,,,,,,,,,,,,,,,,,,,,1.0,0.0,0.0,,,,,,,,,,,,,,,,,,,,,,,,,,,,,,,,0.0,0.0,1.0,0.0,512.0,0.44509499999999996,464.907379,75.57936099999999,9.751327999999999,28.742067,31.799622999999997,30.212109,52.116791,113.64090700000001,405.295471,1487.233521,128.013443,134.360275,6.253188,36.551128000000006,35.404114,0.574503,0.10981199999999999,0.031204000000000003,0.09346499999999999,0.372623,62.20681,56.908733,5.837738,16.912079000000002,28.550869
7268,1645650981.825875,112.0,0.0,4252.820313,4603.077147999999,4336.922852000001,4278.974121,4410.256348,450.0,3.0,59.0,,,,0.0,4.0,2.0,0.0,0.0,4.0,16.666666,,,,,,,,56.0,0.0,0.311691,0.576416,0.13256800000000002,-0.7436520000000001,0.9506979999999999,-0.153811,-0.309087,-0.0205,-0.049276,-0.029001,,,,,,,,,,,,,,,,,,,,,,,,,,,,,,,,,,,,,,,,,,,,,,,,,,,,,,,,,,,,,,,,,
7269,1645650981.833689,113.0,0.0,4465.128418,4697.436035,4369.743652,4291.282227000001,4434.358886999999,450.0,3.0,59.0,,,,0.0,4.0,2.0,0.0,0.0,4.0,16.666666,,,,,,,,,,,,,,,,,,,,,,,,,,,,,,,,,,,,,,,,,,,,,,,,,,,,,,,,,,,,,,,,,,,,,,,,,,,,,,,,,,,,
7270,1645650981.8415039,114.0,0.0,4627.692383,4604.615234000001,4359.487305,4303.589844,4467.179688,450.0,3.0,59.0,,,,0.0,4.0,2.0,0.0,0.0,4.0,16.666666,,,,,,,,57.0,0.0,0.311795,0.576416,0.132324,-0.7436520000000001,0.95021,-0.174319,-0.299321,-0.02094,-0.049329000000000005,-0.031667,,,,,,,,,,,,,,,,,,,,,,,,,,,,,,,,,,,,,,,,,,,,,,,,,,,,,,,,,,,,,,,,,
7271,1645650981.849318,115.0,0.0,4842.563965,4341.538574,4353.846191,4302.05127,4505.641113000001,16202.0,3.0,59.0,,,,0.0,4.0,2.0,0.0,0.0,4.0,16.666666,,,,,,,,,,,,,,,,,,,,,,,,,,,,,,,,,,,,,,,,,,,,,,,,,,,,,,0.0,0.0,1.0,0.0,512.0,0.44509499999999996,,,,,,,,,,,,,,,,,,,,,,,,,
7272,1645650981.857132,116.0,0.0,5018.974121,4394.358886999999,4353.846191,4300.0,4512.307617,450.0,3.0,59.0,,,,0.0,4.0,2.0,0.0,0.0,4.0,16.666666,,,,,,,,58.0,0.0,0.311898,0.576416,0.13208,-0.7436520000000001,0.9560690000000001,-0.15967,-0.31201599999999996,-0.021384999999999998,-0.049279,-0.027817,,,,,,,,,,,,,,,,,,,,,,,,,,,,,,,,,,,,,,,,,,,,,,,,,,,,,,,,,,,,,,,,,
7273,1645650981.864947,117.0,0.0,5074.358886999999,4642.563965,4285.128418,4306.666504,4525.128418,450.0,3.0,59.0,,,,0.0,4.0,2.0,0.0,0.0,4.0,16.666666,,,,,,,,,,,,,,,,,,,,,,,,,,,,,,,,,,,,,,,,,,,,,,,,,,,,,,,,,,,,,,,,,,,,,,,,,,,,,,,,,,,,
7274,1645650981.872761,118.0,0.0,5035.897461,4812.307617,4205.641113000001,4308.717772999999,4541.538574,450.0,3.0,59.0,,,,0.0,4.0,2.0,0.0,0.0,4.0,16.666666,,,,,,,,59.0,0.0,0.311316,0.576416,0.13208,-0.743896,0.939467,-0.17383099999999999,-0.308598,-0.019296,-0.049332,-0.03065,,,,,,,,,,,,,,,,,,,,,,,,,,,,,,,,,,,,,,,,,,,,,,,,,,,,,,,,,,,,,,,,,
7275,1645650981.880576,119.0,0.0,4937.94873,4675.384765999999,4176.410156,4304.102539,4527.692383,16202.0,3.0,59.0,,,,0.0,4.0,2.0,0.0,0.0,4.0,16.666666,,,,,,,,,,,,,,,,,,,,,,,,,,,,,,,,,,,,,,,,,,,,,,,,,,,,,,0.0,0.0,1.0,0.0,512.0,0.44509499999999996,,,,,,,,,,,,,,,,,,,,,,,,,
7276,1645650981.88849,120.0,0.0,4808.205078,4453.846191,4195.897461,4302.05127,4488.717772999999,450.0,3.0,59.0,,,,0.0,4.0,2.0,0.0,0.0,4.0,16.666666,,,,,,,,60.0,0.0,0.311316,0.576416,0.13208,-0.743896,0.948257,-0.170901,-0.31201599999999996,-0.019808000000000003,-0.049281,-0.033201,,,,,,,,,,,,,,,,,,,,,,,,,,,,,,,,,,,,,,,,,,,,,,,,,,,,,,,,,,,,,,,,,
7277,1645650981.896304,121.0,0.0,4736.922852000001,4410.256348,4237.436035,4304.102539,4481.538574,450.0,3.0,59.0,,,,0.0,4.0,2.0,0.0,0.0,4.0,16.666666,,,,,,,,,,,,,,,,,,,,,,,,,,,,,,,,,,,,,,,,,,,,,,,,,,,,,,,,,,,,,,,,,,,,,,,,,,,,,,,,,,,,
7278,1645650981.904119,122.0,0.0,4651.282227000001,4282.05127,4252.307617,4297.436035,4456.410156,450.0,3.0,59.0,,,,0.0,4.0,2.0,0.0,0.0,4.0,16.666666,,,,,,,,61.0,0.0,0.311212,0.576416,0.132324,-0.743896,0.9643700000000001,-0.157229,-0.301762,-0.020073,-0.049285,-0.035691,,,,,,,,,,,,,,,,,,,,,,,,,,,,,,,,,,,,,,,,,,,,,,,,,,,,,,,,,,,,,,,,,
7279,1645650981.911933,123.0,0.0,4515.384765999999,4365.641113000001,4263.589844,4289.230957,4449.230957,16202.0,3.0,59.0,,,,0.0,4.0,2.0,0.0,0.0,4.0,16.666666,,,,,,,,,,,,,,,,,,,,,,,,,,,,,,,,,,,,,,,,,,,,,,,,,,,,,,0.0,0.0,1.0,0.0,512.0,0.44509499999999996,,,,,,,,,,,,,,,,,,,,,,,,,
7280,1645650981.919748,124.0,0.0,4322.05127,4567.179688,4270.769043,4293.846191,4368.717772999999,450.0,3.0,59.0,,,,0.0,4.0,2.0,0.0,0.0,4.0,16.666666,,,,,,,,62.0,0.0,0.311664,0.576172,0.132324,-0.743896,0.952651,-0.16552999999999998,-0.30811,-0.020409,-0.049239,-0.031633999999999995,,,,,,,,,,,,,,,,,,,,,,,,,,,,,,,,,,,,,,,,,,,,,,,,,,,,,,,,,,,,,,,,,
7281,1645650981.927562,125.0,0.0,4215.384765999999,4518.461426,4291.794922,4297.436035,4269.743652,450.0,3.0,59.0,,,,0.0,4.0,2.0,0.0,0.0,4.0,16.666666,,,,,,,,,,,,,,,,,,,,,,,,,,,,,,,,,,,,,,,,,,,,,,,,,,,,,,,,,,,,,,,,,,,,,,,,,,,,,,,,,,,,
7282,1645650981.935376,126.0,0.0,4172.820313,4645.641113000001,4308.717772999999,4285.128418,4270.256348,450.0,3.0,59.0,,,,0.0,4.0,2.0,0.0,0.0,4.0,16.666666,,,,,,,,63.0,0.0,0.311664,0.576172,0.132324,-0.743896,0.941421,-0.17969000000000002,-0.298344,-0.020663,-0.049247000000000006,-0.034232,,,,,,,,,,,,,,,,,,,,,,,,,,,,,,,,,,,,,,,,,,,,,,,,,,,,,,,,,,,,,,,,,
7283,1645650981.943191,127.0,0.0,4089.2307130000004,4824.615234000001,4338.974121,4276.410156,4322.05127,235.0,3.0,59.0,,,,0.0,4.0,2.0,0.0,0.0,4.0,16.666666,,,,,,,,,,,,,,,,,,,,1.0,0.0,0.0,,,,,,,,,,,,,,,,,,,,,,,,,,,,,,,,12.0,0.0,1.0,0.0,512.0,0.405623,1550.085205,128.369125,24.203403,30.441589,29.624861,45.088135,53.423737,123.71408100000001,452.09338399999996,1439.952393,131.89146399999998,137.669815,5.512672,41.486126,33.459782000000004,2.0445189999999998,0.180982,0.046208,0.107897,0.354032,84.297737,53.054878,5.046247,18.798336,25.313175
7284,1645650981.951005,0.0,0.0,3962.5642090000006,4705.128418,4299.487305,4275.384765999999,4259.487305,450.0,3.0,59.0,,,,0.0,4.0,2.0,0.0,0.0,4.0,16.666666,,,,,,,,0.0,0.0,0.31142800000000004,0.575928,0.13256800000000002,-0.7441409999999999,0.9423969999999999,-0.169924,-0.31299299999999997,-0.020941,-0.049352,-0.036376,,,,,,,,,,,,,,,,,,,,,,,,,,,,,,,,,,,,,,,,,,,,,,,,,,,,,,,,,,,,,,,,,
7285,1645650981.95892,1.0,0.0,3903.076904,4660.0,4296.410156,4273.846191,4205.128418,450.0,3.0,59.0,,,,0.0,4.0,1.0,0.0,0.0,4.0,8.333333,,,,,,,,,,,,,,,,,,,,,,,,,,,,,,,,,,,,,,,,,,,,,,,,,,,,,,,,,,,,,,,,,,,,,,,,,,,,,,,,,,,,
7286,1645650981.966734,2.0,0.0,3874.358887,4452.820313,4325.641113000001,4273.846191,4190.769043,16160.0,3.0,59.0,,,,0.0,4.0,1.0,0.0,0.0,4.0,8.333333,,,,,,,,1.0,0.0,0.311324,0.575928,0.13281300000000001,-0.7441409999999999,0.952651,-0.178714,-0.30518,-0.021093,-0.049397,-0.038402,,,,,,,,,,,,,,,,,,,,,,,,,,,,,,,,,,,,,,,,,,,,,,,,,,,,,,,,,,,,,,,,,
7287,1645650981.974548,3.0,0.0,3778.974365,4168.205078,4365.128418,4273.846191,4146.153809,450.0,3.0,59.0,,,,0.0,4.0,1.0,0.0,0.0,4.0,8.333333,,,,,,,,,,,,,,,,,,,,,,,,,,,,,,,,,,,,,,,,,,,,,,,,,,,,,,12.0,0.0,1.0,0.0,512.0,0.405623,,,,,,,,,,,,,,,,,,,,,,,,,
7288,1645650981.982363,4.0,0.0,3707.179443,4315.897461,4328.205078,4275.897461,4135.897461,72.0,3.0,59.0,,,,0.0,4.0,1.0,0.0,0.0,4.0,8.333333,,,,,,,,2.0,0.0,0.31074,0.575928,0.13281300000000001,-0.7443850000000001,0.9423969999999999,-0.176761,-0.29443800000000003,-0.021327000000000002,-0.049487,-0.034074,,,,,,,,,,,,,,,,,,,,,,,,,,,,,,,,,,,,,,,,,,,,,,,,,,,,,,,,,,,,,,,,,
7289,1645650981.990177,5.0,0.0,3690.7692869999996,4238.974121,4312.307617,4276.410156,4111.794922,450.0,3.0,59.0,,,,0.0,4.0,1.0,0.0,0.0,4.0,8.333333,,,,,,,,,,,,,,,,,,,,,,,,,,,,,,,,,,,,,,,,,,,,,,,,,,,,,,,,,,,,,,,,,,,,,,,,,,,,,,,,,,,,
7290,1645650981.998092,6.0,0.0,3662.5642090000006,4214.358886999999,4249.743652,4274.871582,4125.128418,156.0,3.0,59.0,,,,0.0,4.0,1.0,1.0,0.0,4.0,16.666666,,,,,,,,3.0,0.0,0.310398,0.575684,0.133301,-0.744629,0.9472799999999999,-0.164553,-0.306645,-0.021685,-0.04947,-0.030129000000000003,,,,,,,,,,,,,,,,,,,,,,,,,,,,,,,,,,,,,,,,,,,,,,,,,,,,,,,,,,,,,,,,,
7291,1645650982.005906,7.0,0.0,3576.4101560000004,4729.743652,4189.743652,4275.897461,4167.179688,450.0,3.0,59.0,,,,0.0,4.0,1.0,1.0,0.0,4.0,16.666666,,,,,,,,,,,,,,,,,,,,,,,,,,,,,,,,,,,,,,,,,,,,,,,,,,,,,,12.0,0.0,1.0,0.0,512.0,0.405623,,,,,,,,,,,,,,,,,,,,,,,,,
7292,1645650982.013721,8.0,0.0,3605.1281740000004,4957.436035,4212.307617,4278.974121,4195.384765999999,450.0,3.0,59.0,,,,0.0,4.0,1.0,1.0,0.0,4.0,16.666666,,,,,,,,4.0,0.0,0.31085100000000004,0.575439,0.133301,-0.744629,0.944839,-0.166995,-0.31396999999999997,-0.021909,-0.049601,-0.032829000000000004,,,,,,,,,,,,,,,,,,,,,,,,,,,,,,,,,,,,,,,,,,,,,,,,,,,,,,,,,,,,,,,,,
7293,1645650982.0215359,9.0,0.0,3643.5898439999996,4944.102539,4155.897461,4273.333496,4222.563965,0.0,3.0,59.0,,,,0.0,4.0,1.0,1.0,0.0,4.0,16.666666,,,,,,,,,,,,,,,,,,,,,,,,,,,,,,,,,,,,,,,,,,,,,,,,,,,,,,,,,,,,,,,,,,,,,,,,,,,,,,,,,,,,
7294,1645650982.02935,10.0,0.0,3609.743652,4892.307617,4121.538574,4270.769043,4249.230957,450.0,3.0,59.0,,,,0.0,4.0,1.0,1.0,0.0,4.0,16.666666,,,,,,,,5.0,0.0,0.31016,0.575439,0.133545,-0.744873,0.945327,-0.169924,-0.31006300000000003,-0.021963999999999997,-0.049524,-0.028863,,,,,,,,,,,,,,,,,,,,,,,,,,,,,,,,,,,,,,,,,,,,,,,,,,,,,,,,,,,,,,,,,
7295,1645650982.037165,11.0,0.0,3680.0,4291.282227000001,4265.641113000001,4271.282227000001,4176.410156,16194.0,3.0,59.0,,,,0.0,4.0,1.0,1.0,0.0,4.0,16.666666,,,,,,,,,,,,,,,,,,,,,,,,,,,,,,,,,,,,,,,,,,,,,,,,,,,,,,12.0,0.0,1.0,0.0,512.0,0.405623,,,,,,,,,,,,,,,,,,,,,,,,,
7296,1645650982.04498,12.0,0.0,3788.718018,4202.05127,4349.743652,4266.153809,4147.179688,450.0,3.0,59.0,,,,0.0,4.0,1.0,1.0,0.0,4.0,16.666666,,,,,,,,6.0,0.0,0.31016,0.575439,0.133545,-0.744873,0.9428850000000001,-0.145022,-0.300786,-0.022014,-0.049503,-0.031738,,,,,,,,,,,,,,,,,,,,,,,,,,,,,,,,,,,,,,,,,,,,,,,,,,,,,,,,,,,,,,,,,
7297,1645650982.052794,13.0,0.0,3608.718018,4995.897461,4219.487305,4273.846191,4111.282227000001,450.0,3.0,59.0,,,,0.0,4.0,1.0,1.0,0.0,4.0,16.666666,,,,,,,,,,,,,,,,,,,,,,,,,,,,,,,,,,,,,,,,,,,,,,,,,,,,,,,,,,,,,,,,,,,,,,,,,,,,,,,,,,,,
7298,1645650982.060609,14.0,0.0,3434.8718259999996,4887.692383,4223.077147999999,4284.615234000001,4063.076904,450.0,3.0,59.0,,,,0.0,4.0,1.0,1.0,0.0,4.0,16.666666,,,,,,,,7.0,0.0,0.310055,0.575439,0.13378900000000002,-0.744873,0.9560690000000001,-0.150393,-0.307622,-0.022108000000000003,-0.049582,-0.02793,,,,,,,,,,,,,,,,,,,,,,,,,,,,,,,,,,,,,,,,,,,,,,,,,,,,,,,,,,,,,,,,,
7299,1645650982.068523,15.0,0.0,3584.102539,4070.256348,4361.538574,4271.794922,4085.1281740000004,16194.0,3.0,59.0,,,,0.0,4.0,1.0,1.0,0.0,4.0,16.666666,,,,,,,,,,,,,,,,,,,,1.0,0.0,0.0,,,,,,,,,,,,,,,,,,,,,,,,,,,,,,,,12.0,0.0,1.0,0.0,512.0,0.639523,3503.87085,207.584045,49.594353000000005,32.017296,27.351767,72.079468,57.736561,127.88410900000001,475.972504,1341.720459,140.82341,143.364059,5.020372,43.590748,30.090649,4.793805,0.289022,0.07356499999999999,0.12131199999999999,0.327489,119.95526100000001,49.461909999999996,5.057461,19.392279000000002,21.897089
7300,1645650982.076338,16.0,0.0,3754.358887,4084.102539,4401.025879,4259.487305,4122.05127,0.0,3.0,59.0,,,,0.0,4.0,1.0,1.0,0.0,4.0,16.666666,,,,,,,,8.0,0.0,0.310055,0.575439,0.13378900000000002,-0.744873,0.947768,-0.137697,-0.304204,-0.020678,-0.049652999999999996,-0.030654,,,,,,,,,,,,,,,,,,,,,,,,,,,,,,,,,,,,,,,,,,,,,,,,,,,,,,,,,,,,,,,,,
7301,1645650982.084153,17.0,0.0,3582.5642090000006,4851.794922,4258.461426,4269.743652,4082.0512700000004,0.0,3.0,59.0,,,,0.0,4.0,1.0,1.0,0.0,4.0,16.666666,,,,,,,,,,,,,,,,,,,,,,,,,,,,,,,,,,,,,,,,,,,,,,,,,,,,,,,,,,,,,,,,,,,,,,,,,,,,,,,,,,,,
7302,1645650982.091967,18.0,0.0,3368.718018,5264.615234000001,4205.128418,4280.512695,4062.0512700000004,0.0,3.0,59.0,,,,0.0,4.0,1.0,1.0,0.0,4.0,16.666666,,,,,,,,9.0,0.0,0.310402,0.575195,0.13403299999999999,-0.744873,0.952651,-0.151369,-0.306157,-0.020954,-0.04962,-0.033253,,,,,,,,,,,,,,,,,,,,,,,,,,,,,,,,,,,,,,,,,,,,,,,,,,,,,,,,,,,,,,,,,
7303,1645650982.099782,19.0,0.0,3498.974365,4622.563965,4291.282227000001,4272.307617,4081.025635,0.0,3.0,59.0,,,,0.0,4.0,1.0,1.0,0.0,4.0,16.666666,,,,,,,,,,,,,,,,,,,,,,,,,,,,,,,,,,,,,,,,,,,,,,,,,,,,,,12.0,0.0,1.0,0.0,512.0,0.639523,,,,,,,,,,,,,,,,,,,,,,,,,
7304,1645650982.107597,20.0,0.0,3694.358887,3874.8718259999996,4367.179688,4262.05127,4065.641113,0.0,3.0,59.0,,,,0.0,4.0,1.0,1.0,0.0,4.0,16.666666,,,,,,,,10.0,0.0,0.310055,0.575439,0.13378900000000002,-0.744873,0.9560690000000001,-0.150393,-0.307622,-0.021154,-0.049687,-0.029293,,,,,,,,,,,,,,,,,,,,,,,,,,,,,,,,,,,,,,,,,,,,,,,,,,,,,,,,,,,,,,,,,
7305,1645650982.115411,21.0,0.0,3619.487061,4368.205078,4245.128418,4263.589844,4123.077147999999,0.0,3.0,59.0,,,,0.0,4.0,1.0,1.0,0.0,4.0,16.666666,,,,,,,,,,,,,,,,,,,,,,,,,,,,,,,,,,,,,,,,,,,,,,,,,,,,,,,,,,,,,,,,,,,,,,,,,,,,,,,,,,,,
7306,1645650982.123226,22.0,0.0,3447.179443,5204.102539,4141.025879,4272.820313,4166.666504,0.0,3.0,59.0,,,,0.0,4.0,1.0,1.0,0.0,4.0,16.666666,,,,,,,,11.0,0.0,0.310402,0.575195,0.13403299999999999,-0.744873,0.952651,-0.151369,-0.306157,-0.021381999999999998,-0.04965,-0.032027999999999994,,,,,,,,,,,,,,,,,,,,,,,,,,,,,,,,,,,,,,,,,,,,,,,,,,,,,,,,,,,,,,,,,
7307,1645650982.131041,23.0,0.0,3543.076904,4910.256348,4214.871582,4274.871582,4142.05127,0.0,3.0,59.0,,,,0.0,4.0,1.0,1.0,0.0,4.0,16.666666,,,,,,,,,,,,,,,,,,,,,,,,,,,,,,,,,,,,,,,,,,,,,,,,,,,,,,0.0,0.0,1.0,0.0,512.0,0.639523,,,,,,,,,,,,,,,,,,,,,,,,,
7308,1645650982.138855,24.0,0.0,3725.641113,4433.846191,4243.589844,4263.589844,4135.897461,0.0,3.0,59.0,,,,0.0,4.0,1.0,1.0,0.0,4.0,16.666666,,,,,,,,12.0,0.0,0.309949,0.575439,0.13403299999999999,-0.744873,0.95021,-0.15967,-0.307134,-0.021734,-0.049617,-0.034489,,,,,,,,,,,,,,,,,,,,,,,,,,,,,,,,,,,,,,,,,,,,,,,,,,,,,,,,,,,,,,,,,
7309,1645650982.14677,25.0,0.0,3732.820557,4822.05127,4160.512695,4262.05127,4164.615234000001,0.0,3.0,59.0,,,,0.0,4.0,1.0,1.0,0.0,4.0,16.666666,,,,,,,,,,,,,,,,,,,,,,,,,,,,,,,,,,,,,,,,,,,,,,,,,,,,,,,,,,,,,,,,,,,,,,,,,,,,,,,,,,,,
7310,1645650982.154584,26.0,0.0,3605.1281740000004,4802.05127,4210.256348,4275.897461,4102.05127,0.0,3.0,59.0,,,,0.0,4.0,1.0,1.0,0.0,4.0,16.666666,,,,,,,,13.0,0.0,0.31053600000000003,0.575439,0.13403299999999999,-0.744629,0.957534,-0.171389,-0.315923,-0.020342,-0.049685,-0.036558,,,,,,,,,,,,,,,,,,,,,,,,,,,,,,,,,,,,,,,,,,,,,,,,,,,,,,,,,,,,,,,,,
7311,1645650982.162499,27.0,0.0,3584.615479,4189.743652,4356.410156,4277.436035,4086.6667479999996,0.0,3.0,59.0,,,,0.0,4.0,1.0,1.0,0.0,4.0,16.666666,,,,,,,,,,,,,,,,,,,,,,,,,,,,,,,,,,,,,,,,,,,,,,,,,,,,,,0.0,0.0,1.0,0.0,512.0,0.639523,,,,,,,,,,,,,,,,,,,,,,,,,
7312,1645650982.170314,28.0,0.0,3624.615479,4670.769043,4255.384765999999,4266.153809,4197.94873,0.0,3.0,59.0,,,,0.0,4.0,1.0,1.0,0.0,4.0,16.666666,,,,,,,,14.0,0.0,0.310641,0.575439,0.13378900000000002,-0.744629,0.9433739999999999,-0.157717,-0.30518,-0.020554,-0.049648000000000005,-0.038615,,,,,,,,,,,,,,,,,,,,,,,,,,,,,,,,,,,,,,,,,,,,,,,,,,,,,,,,,,,,,,,,,
7313,1645650982.178128,29.0,0.0,3611.794922,5316.922852000001,4155.384765999999,4268.205078,4254.358886999999,0.0,3.0,59.0,,,,0.0,4.0,1.0,1.0,0.0,4.0,16.666666,,,,,,,,,,,,,,,,,,,,,,,,,,,,,,,,,,,,,,,,,,,,,,,,,,,,,,,,,,,,,,,,,,,,,,,,,,,,,,,,,,,,
7314,1645650982.185943,30.0,0.0,3638.974365,4316.922852000001,4320.512695,4273.846191,4123.589844,0.0,3.0,59.0,,,,0.0,4.0,1.0,1.0,0.0,4.0,16.666666,,,,,,,,15.0,0.0,0.310641,0.575439,0.13378900000000002,-0.744629,0.94435,-0.150881,-0.295415,-0.020842,-0.049517,-0.040467,,,,,,,,,,,,,,,,,,,,,,,,,,,,,,,,,,,,,,,,,,,,,,,,,,,,,,,,,,,,,,,,,
7315,1645650982.193758,31.0,0.0,3728.718018,3625.1281740000004,4448.205078,4265.641113000001,4070.7692869999996,0.0,3.0,59.0,,,,0.0,4.0,1.0,1.0,0.0,4.0,16.666666,1.0,0.0,0.0,0.0,0.0,0.0,1.0,,,,,,,,,,,,,1.0,0.0,0.0,,,,,,,,,,,,,,,,,,,,,,,,,,,,,,,,0.0,0.0,1.0,0.0,512.0,1.0,6091.263672,304.89514199999996,81.962379,32.999664,25.116858999999998,115.0121,67.850105,139.406952,468.708221,1186.5839839999999,154.440109,150.682571,5.158342,42.006091999999995,25.744421,8.537069,0.425267,0.114684,0.13147899999999998,0.290437,164.287476,46.665901,5.699236,18.483009,18.506662
7316,1645650982.2015722,32.0,0.0,3609.2307130000004,4741.538574,4286.153809,4268.205078,4129.230957,0.0,3.0,59.0,,,,0.0,4.0,1.0,1.0,0.0,4.0,16.666666,,,,,,,,16.0,0.0,0.310774,0.575684,0.13378900000000002,-0.7443850000000001,0.96144,-0.163577,-0.306157,-0.021199000000000003,-0.049546,-0.042182,,,,,,,,,,,,,,,,,,,,,,,,,,,,,,,,,,,,,,,,,,,,,,,,,,,,,,,,,,,,,,,,,
7317,1645650982.2093868,33.0,0.0,3464.102539,5214.871582,4237.94873,4280.512695,4131.282227000001,0.0,3.0,59.0,,,,0.0,4.0,1.0,1.0,0.0,4.0,16.666666,,,,,,,,,,,,,,,,,,,,,,,,,,,,,,,,,,,,,,,,,,,,,,,,,,,,,,,,,,,,,,,,,,,,,,,,,,,,,,,,,,,,
7318,1645650982.217301,34.0,0.0,3618.974365,4411.282227000001,4332.307617,4271.794922,4116.410156,0.0,3.0,59.0,,,,0.0,4.0,1.0,1.0,0.0,4.0,16.666666,,,,,,,,17.0,0.0,0.310774,0.575684,0.13378900000000002,-0.7443850000000001,0.95021,-0.156252,-0.307134,-0.019177,-0.049523000000000005,-0.037475,,,,,,,,,,,,,,,,,,,,,,,,,,,,,,,,,,,,,,,,,,,,,,,,,,,,,,,,,,,,,,,,,
7319,1645650982.225116,35.0,0.0,3776.923096,4586.666504,4296.410156,4257.94873,4141.538574,0.0,3.0,59.0,,,,0.0,4.0,1.0,1.0,0.0,4.0,16.666666,,,,,,,,,,,,,,,,,,,,,,,,,,,,,,,,,,,,,,,,,,,,,,,,,,,,,,0.0,0.0,1.0,0.0,512.0,1.0,,,,,,,,,,,,,,,,,,,,,,,,,
7320,1645650982.233031,36.0,0.0,3696.923096,4898.461426,4210.256348,4266.666504,4104.615234000001,0.0,3.0,59.0,,,,0.0,4.0,1.0,1.0,0.0,4.0,16.666666,,,,,,,,18.0,0.0,0.310774,0.575684,0.13378900000000002,-0.7443850000000001,0.9555809999999999,-0.150881,-0.301762,-0.019652,-0.049502,-0.039441000000000004,,,,,,,,,,,,,,,,,,,,,,,,,,,,,,,,,,,,,,,,,,,,,,,,,,,,,,,,,,,,,,,,,
7321,1645650982.240845,37.0,0.0,3662.5642090000006,4113.846191,4294.871582,4274.871582,4060.0,0.0,3.0,59.0,,,,0.0,4.0,1.0,1.0,0.0,4.0,16.666666,,,,,,,,,,,,,,,,,,,,,,,,,,,,,,,,,,,,,,,,,,,,,,,,,,,,,,,,,,,,,,,,,,,,,,,,,,,,,,,,,,,,
7322,1645650982.2486598,38.0,0.0,3690.256348,4193.333496,4281.538574,4271.282227000001,4131.794922,0.0,3.0,59.0,,,,0.0,4.0,1.0,1.0,0.0,4.0,16.666666,,,,,,,,19.0,0.0,0.310906,0.575928,0.13378900000000002,-0.7441409999999999,0.9546040000000001,-0.17773699999999998,-0.31201599999999996,-0.020079,-0.049484,-0.034911000000000005,,,,,,,,,,,,,,,,,,,,,,,,,,,,,,,,,,,,,,,,,,,,,,,,,,,,,,,,,,,,,,,,,
7323,1645650982.256475,39.0,0.0,3551.281982,5027.179688,4138.974121,4273.333496,4135.384765999999,0.0,3.0,59.0,,,,0.0,4.0,1.0,1.0,0.0,4.0,16.666666,,,,,,,,,,,,,,,,,,,,,,,,,,,,,,,,,,,,,,,,,,,,,,,,,,,,,,0.0,0.0,1.0,0.0,512.0,1.0,,,,,,,,,,,,,,,,,,,,,,,,,
7324,1645650982.2642891,40.0,0.0,3595.384521,4937.436035,4095.897461,4274.871582,4146.666504,0.0,3.0,59.0,,,,0.0,4.0,1.0,1.0,0.0,4.0,16.666666,,,,,,,,20.0,0.0,0.31101100000000004,0.575928,0.133545,-0.7441409999999999,0.9585110000000001,-0.15332300000000001,-0.322759,-0.020513,-0.049418000000000004,-0.030736000000000003,,,,,,,,,,,,,,,,,,,,,,,,,,,,,,,,,,,,,,,,,,,,,,,,,,,,,,,,,,,,,,,,,
7325,1645650982.272104,41.0,0.0,3756.4101560000004,4878.461426,4138.461426,4270.769043,4278.974121,0.0,3.0,59.0,,,,0.0,4.0,1.0,1.0,0.0,4.0,16.666666,,,,,,,,,,,,,,,,,,,,,,,,,,,,,,,,,,,,,,,,,,,,,,,,,,,,,,,,,,,,,,,,,,,,,,,,,,,,,,,,,,,,
7326,1645650982.279918,42.0,0.0,3738.974365,5093.846191,4190.256348,4271.282227000001,4308.205078,0.0,3.0,59.0,,,,0.0,4.0,1.0,1.0,0.0,4.0,16.666666,,,,,,,,21.0,0.0,0.31101100000000004,0.575928,0.133545,-0.7441409999999999,0.964858,-0.167483,-0.314946,-0.020853999999999998,-0.049457,-0.033326999999999996,,,,,,,,,,,,,,,,,,,,,,,,,,,,,,,,,,,,,,,,,,,,,,,,,,,,,,,,,,,,,,,,,
7327,1645650982.287733,43.0,0.0,3723.076904,4559.487305,4227.179688,4265.128418,4180.512695,0.0,3.0,59.0,,,,0.0,4.0,1.0,1.0,0.0,4.0,16.666666,,,,,,,,,,,,,,,,,,,,,,,,,,,,,,,,,,,,,,,,,,,,,,,,,,,,,,0.0,0.0,1.0,0.0,512.0,1.0,,,,,,,,,,,,,,,,,,,,,,,,,
7328,1645650982.295548,44.0,0.0,3787.6923829999996,4224.615234000001,4262.05127,4261.538574,4203.589844,0.0,3.0,59.0,,,,0.0,4.0,1.0,1.0,0.0,4.0,16.666666,,,,,,,,22.0,0.0,0.311594,0.575928,0.133545,-0.743896,0.948257,-0.167971,-0.305669,-0.018915,-0.049443,-0.035707,,,,,,,,,,,,,,,,,,,,,,,,,,,,,,,,,,,,,,,,,,,,,,,,,,,,,,,,,,,,,,,,,
7329,1645650982.303362,45.0,0.0,3703.5898439999996,4441.538574,4309.230957,4276.410156,4176.410156,0.0,3.0,59.0,,,,0.0,4.0,1.0,1.0,0.0,4.0,16.666666,,,,,,,,,,,,,,,,,,,,,,,,,,,,,,,,,,,,,,,,,,,,,,,,,,,,,,,,,,,,,,,,,,,,,,,,,,,,,,,,,,,,
7330,1645650982.311277,46.0,0.0,3629.2307130000004,4401.538574,4378.974121,4280.512695,4070.7692869999996,0.0,3.0,59.0,,,,0.0,4.0,1.0,1.0,0.0,4.0,16.666666,,,,,,,,23.0,0.0,0.311594,0.575928,0.133545,-0.743896,0.953628,-0.1626,-0.309087,-0.017169999999999998,-0.049382,-0.037849,,,,,,,,,,,,,,,,,,,,,,,,,,,,,,,,,,,,,,,,,,,,,,,,,,,,,,,,,,,,,,,,,
7331,1645650982.319092,47.0,0.0,3624.102539,4679.487305,4321.025879,4270.256348,4130.769043,0.0,3.0,59.0,,,,0.0,4.0,1.0,1.0,0.0,4.0,16.666666,,,,,,,,,,,,,,,,,,,,1.0,0.0,0.0,,,,,,,,,,,,,,,,,,,,,,,,,,,,,,,,0.0,0.0,1.0,0.0,512.0,1.0,8718.443359,399.487732,112.343994,33.029041,23.319748,170.447769,89.031883,182.278854,436.55542,991.7465210000001,169.95288100000002,158.301285,6.455072,37.056805,21.312754,12.406935,0.562276,0.166046,0.136904,0.246218,208.890396,44.672092,6.7966940000000005,16.394556,15.325142000000001
7332,1645650982.326906,48.0,0.0,3617.9487299999996,5090.769043,4329.230957,4272.820313,4210.769043,0.0,3.0,59.0,,,,0.0,4.0,1.0,1.0,0.0,4.0,16.666666,,,,,,,,24.0,0.0,0.311594,0.575928,0.133545,-0.743896,0.954116,-0.155276,-0.31006300000000003,-0.017894999999999998,-0.049424,-0.039631,,,,,,,,,,,,,,,,,,,,,,,,,,,,,,,,,,,,,,,,,,,,,,,,,,,,,,,,,,,,,,,,,
7333,1645650982.334721,49.0,0.0,3701.538574,4669.743652,4397.94873,4273.846191,4112.820313,0.0,3.0,59.0,,,,0.0,4.0,1.0,1.0,0.0,4.0,16.666666,,,,,,,,,,,,,,,,,,,,,,,,,,,,,,,,,,,,,,,,,,,,,,,,,,,,,,,,,,,,,,,,,,,,,,,,,,,,,,,,,,,,
7334,1645650982.342536,50.0,0.0,3777.9487299999996,4314.871582,4379.487305,4260.0,4092.820557,0.0,3.0,59.0,,,,0.0,4.0,1.0,1.0,0.0,4.0,16.666666,,,,,,,,25.0,0.0,0.311594,0.575928,0.133545,-0.743896,0.949722,-0.167483,-0.301274,-0.018547,-0.049462,-0.041381,,,,,,,,,,,,,,,,,,,,,,,,,,,,,,,,,,,,,,,,,,,,,,,,,,,,,,,,,,,,,,,,,
7335,1645650982.35035,51.0,0.0,3675.897461,4730.769043,4260.0,4263.077147999999,4184.615234000001,0.0,3.0,59.0,,,,0.0,4.0,1.0,1.0,0.0,4.0,16.666666,,,,,,,,,,,,,,,,,,,,,,,,,,,,,,,,,,,,,,,,,,,,,,,,,,,,,,0.0,0.0,1.0,0.0,512.0,1.0,,,,,,,,,,,,,,,,,,,,,,,,,
7336,1645650982.358165,52.0,0.0,3578.461426,4813.333496,4294.358886999999,4280.512695,4121.025879,0.0,3.0,59.0,,,,0.0,4.0,1.0,1.0,0.0,4.0,16.666666,,,,,,,,26.0,0.0,0.311594,0.575928,0.133545,-0.743896,0.941909,-0.160159,-0.31299299999999997,-0.019084999999999998,-0.049497,-0.036657,,,,,,,,,,,,,,,,,,,,,,,,,,,,,,,,,,,,,,,,,,,,,,,,,,,,,,,,,,,,,,,,,
7337,1645650982.365979,53.0,0.0,3673.3332520000004,4587.692383,4328.205078,4276.922852000001,4107.692383,0.0,3.0,59.0,,,,0.0,4.0,1.0,1.0,0.0,4.0,16.666666,,,,,,,,,,,,,,,,,,,,,,,,,,,,,,,,,,,,,,,,,,,,,,,,,,,,,,,,,,,,,,,,,,,,,,,,,,,,,,,,,,,,
7338,1645650982.373894,54.0,0.0,3772.3076170000004,5054.358886999999,4192.820313,4262.05127,4237.94873,0.0,3.0,59.0,,,,0.0,4.0,1.0,1.0,0.0,4.0,16.666666,,,,,,,,27.0,0.0,0.311143,0.576172,0.133545,-0.743896,0.9438620000000001,-0.159182,-0.317388,-0.01952,-0.049479,-0.038655,,,,,,,,,,,,,,,,,,,,,,,,,,,,,,,,,,,,,,,,,,,,,,,,,,,,,,,,,,,,,,,,,
7339,1645650982.381709,55.0,0.0,3811.281982,5119.487305,4150.769043,4267.179688,4251.794922,0.0,3.0,59.0,,,,0.0,4.0,1.0,1.0,0.0,4.0,16.666666,,,,,,,,,,,,,,,,,,,,,,,,,,,,,,,,,,,,,,,,,,,,,,,,,,,,,,0.0,0.0,1.0,0.0,512.0,1.0,,,,,,,,,,,,,,,,,,,,,,,,,
7340,1645650982.389523,56.0,0.0,3818.974365,4105.641113000001,4275.897461,4273.333496,4137.436035,0.0,3.0,59.0,,,,0.0,4.0,1.0,1.0,0.0,4.0,16.666666,,,,,,,,28.0,0.0,0.311143,0.576172,0.133545,-0.743896,0.9560690000000001,-0.16406500000000002,-0.305669,-0.019961000000000003,-0.049365,-0.034252,,,,,,,,,,,,,,,,,,,,,,,,,,,,,,,,,,,,,,,,,,,,,,,,,,,,,,,,,,,,,,,,,
7341,1645650982.3973382,57.0,0.0,3803.076904,3968.205078,4272.820313,4269.743652,4145.128418,0.0,3.0,59.0,,,,0.0,4.0,1.0,1.0,0.0,4.0,16.666666,,,,,,,,,,,,,,,,,,,,,,,,,,,,,,,,,,,,,,,,,,,,,,,,,,,,,,,,,,,,,,,,,,,,,,,,,,,,,,,,,,,,
7342,1645650982.405153,58.0,0.0,3718.974365,4738.974121,4197.436035,4273.846191,4170.256348,0.0,3.0,59.0,,,,0.0,4.0,1.0,1.0,0.0,4.0,16.666666,,,,,,,,29.0,0.0,0.311143,0.576172,0.133545,-0.743896,0.9423969999999999,-0.15820599999999999,-0.308598,-0.020357,-0.04936,-0.030338999999999998,,,,,,,,,,,,,,,,,,,,,,,,,,,,,,,,,,,,,,,,,,,,,,,,,,,,,,,,,,,,,,,,,
7343,1645650982.413067,59.0,0.0,3718.461426,4585.641113000001,4290.256348,4278.974121,4158.974121,0.0,3.0,59.0,,,,0.0,4.0,1.0,1.0,0.0,4.0,16.666666,,,,,,,,,,,,,,,,,,,,,,,,,,,,,,,,,,,,,,,,,,,,,,,,,,,,,,0.0,0.0,1.0,0.0,512.0,1.0,,,,,,,,,,,,,,,,,,,,,,,,,
7344,1645650982.420882,60.0,0.0,3791.281982,4597.94873,4271.794922,4270.256348,4193.846191,0.0,3.0,59.0,,,,0.0,4.0,1.0,1.0,0.0,4.0,16.666666,,,,,,,,30.0,0.0,0.311143,0.576172,0.133545,-0.743896,0.95314,-0.151858,-0.309087,-0.020616,-0.049307,-0.03292,,,,,,,,,,,,,,,,,,,,,,,,,,,,,,,,,,,,,,,,,,,,,,,,,,,,,,,,,,,,,,,,,
7345,1645650982.4286962,61.0,0.0,3802.0512700000004,5208.205078,4174.358886999999,4268.717772999999,4229.230957,0.0,3.0,59.0,,,,0.0,4.0,1.0,1.0,0.0,4.0,16.666666,,,,,,,,,,,,,,,,,,,,,,,,,,,,,,,,,,,,,,,,,,,,,,,,,,,,,,,,,,,,,,,,,,,,,,,,,,,,,,,,,,,,
7346,1645650982.436511,62.0,0.0,3806.1538090000004,4405.128418,4304.102539,4273.333496,4145.128418,0.0,3.0,59.0,,,,0.0,4.0,1.0,1.0,0.0,4.0,16.666666,,,,,,,,31.0,0.0,0.311726,0.576172,0.133545,-0.7436520000000001,0.9663229999999999,-0.156252,-0.314458,-0.020899,-0.049357,-0.035292000000000004,,,,,,,,,,,,,,,,,,,,,,,,,,,,,,,,,,,,,,,,,,,,,,,,,,,,,,,,,,,,,,,,,
7347,1645650982.444326,63.0,0.0,3890.7692869999996,3615.384521,4448.717772999999,4266.666504,4115.897461,0.0,3.0,59.0,,,,0.0,4.0,1.0,1.0,0.0,4.0,16.666666,,,,,,,,,,,,,,,,,,,,1.0,0.0,0.0,,,,,,,,,,,,,,,,,,,,,,,,,,,,,,,,0.0,0.0,1.0,0.0,512.0,1.0,10652.216797,465.73501600000003,130.597626,32.182426,23.054939,226.851974,127.303757,280.011475,400.983337,804.060425,183.643799,165.36973600000002,9.216836,30.226568,18.049608,15.257735,0.662231,0.217627,0.137286,0.205075,244.988235,43.420219,8.243638,13.841474,12.518221
7348,1645650982.45214,64.0,0.0,3774.358887,4643.077147999999,4290.769043,4268.717772999999,4132.820313,450.0,3.0,59.0,,,,0.0,4.0,1.0,1.0,0.0,4.0,16.666666,,,,,,,,32.0,0.0,0.311143,0.576172,0.133545,-0.743896,0.9423969999999999,-0.15820599999999999,-0.308598,-0.021200999999999998,-0.049352999999999994,-0.031275,,,,,,,,,,,,,,,,,,,,,,,,,,,,,,,,,,,,,,,,,,,,,,,,,,,,,,,,,,,,,,,,,
7349,1645650982.459955,65.0,0.0,3612.3076170000004,5050.256348,4230.256348,4280.512695,4098.461426,450.0,3.0,59.0,,,,0.0,4.0,1.0,1.0,0.0,4.0,16.666666,,,,,,,,,,,,,,,,,,,,,,,,,,,,,,,,,,,,,,,,,,,,,,,,,,,,,,,,,,,,,,,,,,,,,,,,,,,,,,,,,,,,
7350,1645650982.4677699,66.0,0.0,3745.1281740000004,4486.153809,4300.0,4272.307617,4126.153809,16116.0,3.0,59.0,,,,0.0,4.0,1.0,1.0,0.0,4.0,16.666666,,,,,,,,33.0,0.0,0.311274,0.576416,0.133545,-0.7436520000000001,0.951675,-0.17773699999999998,-0.300786,-0.021474,-0.049349000000000004,-0.027658999999999996,,,,,,,,,,,,,,,,,,,,,,,,,,,,,,,,,,,,,,,,,,,,,,,,,,,,,,,,,,,,,,,,,
7351,1645650982.475684,67.0,0.0,3885.641113,4987.179688,4232.820313,4261.025879,4194.358886999999,450.0,3.0,59.0,,,,0.0,4.0,0.0,0.0,0.0,4.0,0.0,,,,,,,,,,,,,,,,,,,,,,,,,,,,,,,,,,,,,,,,,,,,,,,,,,,,,,0.0,0.0,1.0,0.0,512.0,1.0,,,,,,,,,,,,,,,,,,,,,,,,,
7352,1645650982.483499,68.0,0.0,3815.897461,5015.384765999999,4168.205078,4268.205078,4131.282227000001,0.0,3.0,59.0,,,,0.0,4.0,0.0,0.0,0.0,4.0,0.0,,,,,,,,34.0,0.0,0.311726,0.576172,0.133545,-0.7436520000000001,0.9487450000000001,-0.160159,-0.303227,-0.021768,-0.049346,-0.030606,,,,,,,,,,,,,,,,,,,,,,,,,,,,,,,,,,,,,,,,,,,,,,,,,,,,,,,,,,,,,,,,,
7353,1645650982.4913142,69.0,0.0,3812.3076170000004,3962.5642090000006,4278.461426,4272.820313,4078.461426,450.0,3.0,59.0,,,,0.0,4.0,0.0,0.0,0.0,4.0,0.0,,,,,,,,,,,,,,,,,,,,,,,,,,,,,,,,,,,,,,,,,,,,,,,,,,,,,,,,,,,,,,,,,,,,,,,,,,,,,,,,,,,,
7354,1645650982.4991279,70.0,0.0,3890.7692869999996,4107.692383,4284.615234000001,4272.307617,4169.230957,29.0,3.0,59.0,,,,0.0,4.0,0.0,0.0,0.0,4.0,0.0,,,,,,,,35.0,0.0,0.311274,0.576416,0.133545,-0.7436520000000001,0.9560690000000001,-0.161624,-0.307622,-0.021984,-0.049343,-0.02696,,,,,,,,,,,,,,,,,,,,,,,,,,,,,,,,,,,,,,,,,,,,,,,,,,,,,,,,,,,,,,,,,
7355,1645650982.506943,71.0,0.0,3787.6923829999996,4790.256348,4190.256348,4277.94873,4151.282227000001,450.0,3.0,59.0,,,,0.0,4.0,0.0,0.0,0.0,4.0,0.0,,,,,,,,,,,,,,,,,,,,,,,,,,,,,,,,,,,,,,,,,,,,,,,,,,,,,,0.0,0.0,1.0,0.0,512.0,1.0,,,,,,,,,,,,,,,,,,,,,,,,,
7356,1645650982.514757,72.0,0.0,3765.641113,4711.282227000001,4131.282227000001,4278.461426,4131.282227000001,450.0,3.0,59.0,,,,0.0,4.0,0.0,0.0,0.0,4.0,0.0,,,,,,,,36.0,0.0,0.311379,0.576416,0.133301,-0.7436520000000001,0.949722,-0.164553,-0.30225100000000005,-0.020567,-0.049388999999999995,-0.029879000000000003,,,,,,,,,,,,,,,,,,,,,,,,,,,,,,,,,,,,,,,,,,,,,,,,,,,,,,,,,,,,,,,,,
7357,1645650982.5226722,73.0,0.0,3847.179443,4778.974121,4123.589844,4273.333496,4220.512695,0.0,3.0,59.0,,,,0.0,4.0,0.0,0.0,0.0,4.0,0.0,,,,,,,,,,,,,,,,,,,,,,,,,,,,,,,,,,,,,,,,,,,,,,,,,,,,,,,,,,,,,,,,,,,,,,,,,,,,,,,,,,,,
7358,1645650982.5304868,74.0,0.0,3813.3332520000004,5095.897461,4182.05127,4274.871582,4251.794922,450.0,3.0,59.0,,,,0.0,4.0,0.0,0.0,0.0,4.0,0.0,,,,,,,,37.0,0.0,0.311379,0.576416,0.133301,-0.7436520000000001,0.95314,-0.157717,-0.309575,-0.020853999999999998,-0.049431,-0.032506,,,,,,,,,,,,,,,,,,,,,,,,,,,,,,,,,,,,,,,,,,,,,,,,,,,,,,,,,,,,,,,,,
7359,1645650982.538301,75.0,0.0,3764.615479,4947.692383,4250.769043,4278.461426,4199.487305,16081.0,3.0,59.0,,,,0.0,4.0,0.0,0.0,0.0,4.0,0.0,,,,,,,,,,,,,,,,,,,,,,,,,,,,,,,,,,,,,,,,,,,,,,,,,,,,,,0.0,0.0,1.0,0.0,512.0,1.0,,,,,,,,,,,,,,,,,,,,,,,,,
7360,1645650982.546116,76.0,0.0,3823.5898439999996,4769.743652,4289.230957,4276.410156,4233.846191,450.0,3.0,59.0,,,,0.0,4.0,0.0,0.0,0.0,4.0,0.0,,,,,,,,38.0,0.0,0.311379,0.576416,0.133301,-0.7436520000000001,0.9594870000000001,-0.15820599999999999,-0.309575,-0.021112,-0.049468,-0.028719,,,,,,,,,,,,,,,,,,,,,,,,,,,,,,,,,,,,,,,,,,,,,,,,,,,,,,,,,,,,,,,,,
7361,1645650982.553931,77.0,0.0,3803.5898439999996,4821.538574,4271.282227000001,4272.307617,4208.717772999999,450.0,3.0,59.0,,,,0.0,4.0,0.0,0.0,0.0,4.0,0.0,,,,,,,,,,,,,,,,,,,,,,,,,,,,,,,,,,,,,,,,,,,,,,,,,,,,,,,,,,,,,,,,,,,,,,,,,,,,,,,,,,,,
7362,1645650982.561745,78.0,0.0,3779.487061,4900.0,4247.179688,4270.769043,4181.025879,450.0,3.0,59.0,,,,0.0,4.0,0.0,0.0,0.0,4.0,0.0,,,,,,,,39.0,0.0,0.31183,0.576172,0.133301,-0.7436520000000001,0.9550930000000001,-0.15332300000000001,-0.302739,-0.021296000000000002,-0.049453,-0.025162999999999998,,,,,,,,,,,,,,,,,,,,,,,,,,,,,,,,,,,,,,,,,,,,,,,,,,,,,,,,,,,,,,,,,
7363,1645650982.56956,79.0,0.0,3788.718018,4961.538574,4227.692383,4275.897461,4163.077147999999,16081.0,3.0,59.0,,,,0.0,4.0,0.0,0.0,0.0,4.0,0.0,,,,,,,,,,,,,,,,,,,,1.0,0.0,0.0,,,,,,,,,,,,,,,,,,,,,,,,,,,,,,,,0.0,0.0,1.0,0.0,512.0,1.0,11266.130859,484.16152999999997,130.674377,31.284542,25.595072000000002,268.659332,184.84291100000002,435.33184800000004,394.372375,684.207092,191.950958,171.10817,13.127173999999998,23.438961,17.065808999999998,16.15094,0.692914,0.257784,0.135121,0.180647,264.227448,43.046745,10.111949000000001,11.748606,10.319496000000001
7364,1645650982.577375,80.0,0.0,3772.3076170000004,4849.230957,4303.589844,4277.436035,4112.307617,450.0,3.0,59.0,,,,0.0,4.0,0.0,0.0,0.0,4.0,0.0,,,,,,,,40.0,0.0,0.311379,0.576416,0.133301,-0.7436520000000001,0.9506979999999999,-0.155764,-0.298344,-0.021559000000000002,-0.049391000000000004,-0.022012,,,,,,,,,,,,,,,,,,,,,,,,,,,,,,,,,,,,,,,,,,,,,,,,,,,,,,,,,,,,,,,,,
7365,1645650982.585189,81.0,0.0,3761.538574,4877.436035,4294.871582,4271.794922,4142.05127,450.0,3.0,59.0,,,,0.0,4.0,0.0,0.0,0.0,4.0,0.0,,,,,,,,,,,,,,,,,,,,,,,,,,,,,,,,,,,,,,,,,,,,,,,,,,,,,,,,,,,,,,,,,,,,,,,,,,,,,,,,,,,,
7366,1645650982.593004,82.0,0.0,3781.538574,4930.769043,4296.410156,4272.820313,4175.384765999999,450.0,3.0,59.0,,,,0.0,4.0,0.0,0.0,0.0,4.0,0.0,,,,,,,,41.0,0.0,0.31183,0.576172,0.133301,-0.7436520000000001,0.95021,-0.161624,-0.30518,-0.021893,-0.049335000000000004,-0.025622000000000002,,,,,,,,,,,,,,,,,,,,,,,,,,,,,,,,,,,,,,,,,,,,,,,,,,,,,,,,,,,,,,,,,
7367,1645650982.600918,83.0,0.0,3780.0,4874.358886999999,4311.282227000001,4272.820313,4151.794922,16081.0,3.0,59.0,,,,0.0,4.0,0.0,0.0,0.0,4.0,0.0,,,,,,,,,,,,,,,,,,,,,,,,,,,,,,,,,,,,,,,,,,,,,,,,,,,,,,0.0,0.0,1.0,0.0,512.0,1.0,,,,,,,,,,,,,,,,,,,,,,,,,
7368,1645650982.608733,84.0,0.0,3805.641113,4900.512695,4280.512695,4268.205078,4184.615234000001,450.0,3.0,59.0,,,,0.0,4.0,0.0,0.0,0.0,4.0,0.0,,,,,,,,42.0,0.0,0.311379,0.576416,0.133301,-0.7436520000000001,0.9712059999999999,-0.17236600000000002,-0.306645,-0.021999,-0.049186,-0.022522,,,,,,,,,,,,,,,,,,,,,,,,,,,,,,,,,,,,,,,,,,,,,,,,,,,,,,,,,,,,,,,,,
7369,1645650982.616548,85.0,0.0,3883.5898439999996,4946.666504,4217.436035,4270.256348,4260.0,450.0,3.0,59.0,,,,0.0,4.0,0.0,0.0,0.0,4.0,0.0,,,,,,,,,,,,,,,,,,,,,,,,,,,,,,,,,,,,,,,,,,,,,,,,,,,,,,,,,,,,,,,,,,,,,,,,,,,,,,,,,,,,
7370,1645650982.624362,86.0,0.0,3837.4357909999994,4911.794922,4167.179688,4272.820313,4220.0,450.0,3.0,59.0,,,,0.0,4.0,0.0,0.0,0.0,4.0,0.0,,,,,,,,43.0,0.0,0.311379,0.576416,0.133301,-0.7436520000000001,0.95021,-0.166018,-0.301762,-0.02058,-0.049199,-0.019733,,,,,,,,,,,,,,,,,,,,,,,,,,,,,,,,,,,,,,,,,,,,,,,,,,,,,,,,,,,,,,,,,
7371,1645650982.6321769,87.0,0.0,3852.3076170000004,4864.102539,4100.512695,4270.256348,4224.615234000001,16081.0,3.0,59.0,,,,0.0,4.0,0.0,0.0,0.0,4.0,0.0,,,,,,,,,,,,,,,,,,,,,,,,,,,,,,,,,,,,,,,,,,,,,,,,,,,,,,0.0,0.0,1.0,0.0,512.0,1.0,,,,,,,,,,,,,,,,,,,,,,,,,
7372,1645650982.639992,88.0,0.0,3944.615479,4913.333496,4109.743652,4269.230957,4291.794922,450.0,3.0,59.0,,,,0.0,4.0,0.0,0.0,0.0,4.0,0.0,,,,,,,,44.0,0.0,0.311483,0.576416,0.13305699999999998,-0.7436520000000001,0.947768,-0.163088,-0.301762,-0.018718000000000002,-0.049162,-0.023424,,,,,,,,,,,,,,,,,,,,,,,,,,,,,,,,,,,,,,,,,,,,,,,,,,,,,,,,,,,,,,,,,
7373,1645650982.6478062,89.0,0.0,3948.205078,5067.179688,4167.692383,4270.769043,4292.820313,450.0,3.0,59.0,,,,0.0,4.0,0.0,0.0,0.0,4.0,0.0,,,,,,,,,,,,,,,,,,,,,,,,,,,,,,,,,,,,,,,,,,,,,,,,,,,,,,,,,,,,,,,,,,,,,,,,,,,,,,,,,,,,
7374,1645650982.655621,90.0,0.0,3893.3332520000004,5149.230957,4150.769043,4270.256348,4254.358886999999,450.0,3.0,59.0,,,,0.0,4.0,0.0,0.0,0.0,4.0,0.0,,,,,,,,45.0,0.0,0.311934,0.576172,0.13305699999999998,-0.7436520000000001,0.9487450000000001,-0.161135,-0.302739,-0.019190000000000002,-0.049227,-0.026648,,,,,,,,,,,,,,,,,,,,,,,,,,,,,,,,,,,,,,,,,,,,,,,,,,,,,,,,,,,,,,,,,
7375,1645650982.663436,91.0,0.0,3909.2307130000004,4948.717772999999,4198.461426,4270.256348,4259.487305,16081.0,3.0,59.0,,,,0.0,4.0,0.0,0.0,0.0,4.0,0.0,,,,,,,,,,,,,,,,,,,,,,,,,,,,,,,,,,,,,,,,,,,,,,,,,,,,,,0.0,0.0,1.0,0.0,512.0,1.0,,,,,,,,,,,,,,,,,,,,,,,,,
7376,1645650982.67135,92.0,0.0,3884.615479,4775.384765999999,4264.615234000001,4270.256348,4228.717772999999,450.0,3.0,59.0,,,,0.0,4.0,0.0,0.0,0.0,4.0,0.0,,,,,,,,46.0,0.0,0.311934,0.576172,0.13305699999999998,-0.7436520000000001,0.9389790000000001,-0.166995,-0.30518,-0.019566,-0.049236,-0.029647000000000003,,,,,,,,,,,,,,,,,,,,,,,,,,,,,,,,,,,,,,,,,,,,,,,,,,,,,,,,,,,,,,,,,
7377,1645650982.6791651,93.0,0.0,3864.102539,4885.128418,4225.128418,4270.769043,4227.179688,450.0,3.0,59.0,,,,0.0,4.0,0.0,0.0,0.0,4.0,0.0,,,,,,,,,,,,,,,,,,,,,,,,,,,,,,,,,,,,,,,,,,,,,,,,,,,,,,,,,,,,,,,,,,,,,,,,,,,,,,,,,,,,
7378,1645650982.6869788,94.0,0.0,3883.076904,4949.743652,4200.512695,4273.333496,4219.487305,450.0,3.0,59.0,,,,0.0,4.0,0.0,0.0,0.0,4.0,0.0,,,,,,,,47.0,0.0,0.31183,0.576172,0.133301,-0.7436520000000001,0.985367,-0.16552999999999998,-0.321294,-0.017658,-0.049293000000000003,-0.032249,,,,,,,,,,,,,,,,,,,,,,,,,,,,,,,,,,,,,,,,,,,,,,,,,,,,,,,,,,,,,,,,,
7379,1645650982.694794,95.0,0.0,3855.384521,4911.794922,4298.974121,4273.846191,4188.205078,16081.0,3.0,59.0,,,,0.0,4.0,0.0,0.0,0.0,4.0,0.0,1.0,0.0,0.0,0.0,0.0,0.0,1.0,,,,,,,,,,,,,1.0,0.0,0.0,,,,,,,,,,,,,,,,,,,,,,,,,,,,,,,,0.0,0.0,1.0,0.0,512.0,1.0,10430.064453,449.41449000000006,113.227966,31.715303000000002,31.37789,285.551361,261.498688,623.0634769999999,451.14886500000006,677.87677,193.20533799999998,175.357346,17.333285999999998,18.423448999999998,18.892782,14.826406,0.643699,0.27832399999999996,0.136215,0.18293800000000002,264.554474,44.021137,12.48772,10.972002999999999,9.075574000000001
7380,1645650982.702609,96.0,0.0,3808.718018,4980.512695,4288.205078,4271.794922,4181.025879,450.0,3.0,59.0,,,,0.0,4.0,0.0,0.0,0.0,4.0,0.0,,,,,,,,48.0,0.0,0.311961,0.576416,0.133301,-0.743408,0.9643700000000001,-0.161624,-0.29443800000000003,-0.018137999999999998,-0.049393,-0.028437999999999998,,,,,,,,,,,,,,,,,,,,,,,,,,,,,,,,,,,,,,,,,,,,,,,,,,,,,,,,,,,,,,,,,
7381,1645650982.710423,97.0,0.0,3860.512939,5011.282227000001,4304.102539,4272.820313,4212.307617,450.0,3.0,59.0,,,,0.0,4.0,0.0,0.0,0.0,4.0,0.0,,,,,,,,,,,,,,,,,,,,,,,,,,,,,,,,,,,,,,,,,,,,,,,,,,,,,,,,,,,,,,,,,,,,,,,,,,,,,,,,,,,,
7382,1645650982.718238,98.0,0.0,3874.358887,4869.230957,4348.717772999999,4274.871582,4208.717772999999,450.0,3.0,59.0,,,,0.0,4.0,0.0,0.0,0.0,4.0,0.0,,,,,,,,49.0,0.0,0.31206500000000004,0.576416,0.13305699999999998,-0.743408,0.95314,-0.163577,-0.308598,-0.016373,-0.049288,-0.031356,,,,,,,,,,,,,,,,,,,,,,,,,,,,,,,,,,,,,,,,,,,,,,,,,,,,,,,,,,,,,,,,,
7383,1645650982.726053,99.0,0.0,3832.820557,4800.0,4302.05127,4273.333496,4201.538574,16081.0,3.0,59.0,,,,0.0,4.0,0.0,0.0,0.0,4.0,0.0,,,,,,,,,,,,,,,,,,,,,,,,,,,,,,,,,,,,,,,,,,,,,,,,,,,,,,0.0,0.0,1.0,0.0,512.0,1.0,,,,,,,,,,,,,,,,,,,,,,,,,
7384,1645650982.733867,100.0,0.0,3861.025635,4797.94873,4206.666504,4275.384765999999,4176.922852000001,450.0,3.0,59.0,,,,0.0,4.0,0.0,0.0,0.0,4.0,0.0,,,,,,,,50.0,0.0,0.31206500000000004,0.576416,0.13305699999999998,-0.743408,0.9487450000000001,-0.155764,-0.301274,-0.01708,-0.049144,-0.033982,,,,,,,,,,,,,,,,,,,,,,,,,,,,,,,,,,,,,,,,,,,,,,,,,,,,,,,,,,,,,,,,,
7385,1645650982.741682,101.0,0.0,3857.9487299999996,4832.820313,4194.871582,4278.974121,4093.8461909999996,450.0,3.0,59.0,,,,0.0,4.0,0.0,0.0,0.0,4.0,0.0,,,,,,,,,,,,,,,,,,,,,,,,,,,,,,,,,,,,,,,,,,,,,,,,,,,,,,,,,,,,,,,,,,,,,,,,,,,,,,,,,,,,
7386,1645650982.749596,102.0,0.0,3861.538574,4654.871582,4228.717772999999,4277.436035,4101.538574,450.0,3.0,59.0,,,,0.0,4.0,0.0,0.0,0.0,4.0,0.0,,,,,,,,51.0,0.0,0.311961,0.576416,0.133301,-0.743408,0.9643700000000001,-0.161624,-0.29443800000000003,-0.017764,-0.049357,-0.030047000000000004,,,,,,,,,,,,,,,,,,,,,,,,,,,,,,,,,,,,,,,,,,,,,,,,,,,,,,,,,,,,,,,,,
7387,1645650982.757411,103.0,0.0,3896.923096,4411.282227000001,4225.641113000001,4274.358886999999,4167.692383,16081.0,3.0,59.0,,,,0.0,4.0,0.0,0.0,0.0,4.0,0.0,,,,,,,,,,,,,,,,,,,,,,,,,,,,,,,,,,,,,,,,,,,,,,,,,,,,,,0.0,0.0,1.0,0.0,512.0,1.0,,,,,,,,,,,,,,,,,,,,,,,,,
7388,1645650982.765226,104.0,0.0,3961.025635,4263.077147999999,4231.282227000001,4273.846191,4146.153809,450.0,3.0,59.0,,,,0.0,4.0,0.0,0.0,0.0,4.0,0.0,,,,,,,,52.0,0.0,0.31206500000000004,0.576416,0.13305699999999998,-0.743408,0.9487450000000001,-0.155764,-0.301274,-0.018331999999999998,-0.049206,-0.032804,,,,,,,,,,,,,,,,,,,,,,,,,,,,,,,,,,,,,,,,,,,,,,,,,,,,,,,,,,,,,,,,,
7389,1645650982.77304,105.0,0.0,4008.205078,4270.256348,4269.230957,4271.282227000001,4130.769043,450.0,3.0,59.0,,,,0.0,4.0,0.0,0.0,0.0,4.0,0.0,,,,,,,,,,,,,,,,,,,,,,,,,,,,,,,,,,,,,,,,,,,,,,,,,,,,,,,,,,,,,,,,,,,,,,,,,,,,,,,,,,,,
7390,1645650982.7808552,106.0,0.0,4061.538574,4235.897461,4270.256348,4270.256348,4218.461426,450.0,3.0,59.0,,,,0.0,4.0,0.0,0.0,0.0,4.0,0.0,,,,,,,,53.0,0.0,0.31206500000000004,0.576416,0.13305699999999998,-0.743408,0.9506979999999999,-0.159182,-0.306645,-0.017231,-0.049266000000000004,-0.035285000000000004,,,,,,,,,,,,,,,,,,,,,,,,,,,,,,,,,,,,,,,,,,,,,,,,,,,,,,,,,,,,,,,,,
7391,1645650982.7886698,107.0,0.0,4046.1538090000004,4196.410156,4197.436035,4271.794922,4220.0,16081.0,3.0,59.0,,,,0.0,4.0,0.0,0.0,0.0,4.0,0.0,,,,,,,,,,,,,,,,,,,,,,,,,,,,,,,,,,,,,,,,,,,,,,,,,,,,,,0.0,0.0,1.0,0.0,512.0,1.0,,,,,,,,,,,,,,,,,,,,,,,,,
7392,1645650982.796484,108.0,0.0,3990.256348,4242.05127,4248.205078,4270.769043,4194.871582,450.0,3.0,59.0,,,,0.0,4.0,0.0,0.0,0.0,4.0,0.0,,,,,,,,54.0,0.0,0.31206500000000004,0.576416,0.13305699999999998,-0.743408,0.94435,-0.175296,-0.30811,-0.0179,-0.049270999999999995,-0.031269,,,,,,,,,,,,,,,,,,,,,,,,,,,,,,,,,,,,,,,,,,,,,,,,,,,,,,,,,,,,,,,,,
7393,1645650982.804299,109.0,0.0,3976.4101560000004,4315.897461,4347.179688,4266.666504,4169.230957,450.0,3.0,59.0,,,,0.0,4.0,0.0,0.0,0.0,4.0,0.0,,,,,,,,,,,,,,,,,,,,,,,,,,,,,,,,,,,,,,,,,,,,,,,,,,,,,,,,,,,,,,,,,,,,,,,,,,,,,,,,,,,,
7394,1645650982.812114,110.0,0.0,4008.205078,4389.230957,4335.384765999999,4268.717772999999,4144.615234000001,450.0,3.0,59.0,,,,0.0,4.0,0.0,0.0,0.0,4.0,0.0,,,,,,,,55.0,0.0,0.31206500000000004,0.576416,0.13305699999999998,-0.743408,0.941909,-0.160647,-0.299809,-0.018503,-0.049276,-0.033806,,,,,,,,,,,,,,,,,,,,,,,,,,,,,,,,,,,,,,,,,,,,,,,,,,,,,,,,,,,,,,,,,
7395,1645650982.8200278,111.0,0.0,4008.718018,4397.436035,4303.589844,4269.743652,4135.897461,16081.0,3.0,59.0,,,,0.0,4.0,0.0,0.0,0.0,4.0,0.0,,,,,,,,,,,,,,,,,,,,1.0,0.0,0.0,,,,,,,,,,,,,,,,,,,,,,,,,,,,,,,,0.0,0.0,1.0,0.0,512.0,1.0,8414.988281,372.963348,84.96169300000001,34.663094,39.454609000000005,273.75863599999997,347.684753,795.399536,590.0134889999999,788.896057,188.524689,178.62114,20.589531,16.189041,23.108944,11.754588,0.529705,0.275525,0.146274,0.21229,245.39502000000002,46.819878,15.154259,11.825163,9.062402
7396,1645650982.827843,112.0,0.0,4005.1281740000004,4457.436035,4340.512695,4267.692383,4132.307617,450.0,3.0,59.0,,,,0.0,4.0,0.0,0.0,0.0,4.0,0.0,,,,,,,,56.0,0.0,0.31206500000000004,0.576416,0.13305699999999998,-0.743408,0.956558,-0.160647,-0.297856,-0.019143,-0.049329000000000005,-0.029791,,,,,,,,,,,,,,,,,,,,,,,,,,,,,,,,,,,,,,,,,,,,,,,,,,,,,,,,,,,,,,,,,
7397,1645650982.8356571,113.0,0.0,4014.8718259999996,4332.820313,4291.794922,4269.743652,4093.8461909999996,450.0,3.0,59.0,,,,0.0,4.0,0.0,0.0,0.0,4.0,0.0,,,,,,,,,,,,,,,,,,,,,,,,,,,,,,,,,,,,,,,,,,,,,,,,,,,,,,,,,,,,,,,,,,,,,,,,,,,,,,,,,,,,
7398,1645650982.8435721,114.0,0.0,4016.923096,4112.307617,4305.128418,4273.846191,4126.666504,450.0,3.0,59.0,,,,0.0,4.0,0.0,0.0,0.0,4.0,0.0,,,,,,,,57.0,0.0,0.311934,0.576172,0.13305699999999998,-0.7436520000000001,0.945815,-0.166506,-0.299321,-0.019475,-0.049279,-0.026226,,,,,,,,,,,,,,,,,,,,,,,,,,,,,,,,,,,,,,,,,,,,,,,,,,,,,,,,,,,,,,,,,
7399,1645650982.851387,115.0,0.0,4004.615479,4125.128418,4341.538574,4272.307617,4196.922852000001,16081.0,3.0,59.0,,,,0.0,4.0,0.0,0.0,0.0,4.0,0.0,,,,,,,,,,,,,,,,,,,,,,,,,,,,,,,,,,,,,,,,,,,,,,,,,,,,,,0.0,0.0,1.0,0.0,512.0,1.0,,,,,,,,,,,,,,,,,,,,,,,,,
7400,1645650982.859201,116.0,0.0,3985.1281740000004,4197.94873,4326.153809,4267.692383,4141.025879,450.0,3.0,59.0,,,,0.0,4.0,0.0,0.0,0.0,4.0,0.0,,,,,,,,58.0,0.0,0.31203800000000004,0.576172,0.13281300000000001,-0.7436520000000001,0.9580219999999999,-0.157717,-0.31543499999999997,-0.018309,-0.049331,-0.023017,,,,,,,,,,,,,,,,,,,,,,,,,,,,,,,,,,,,,,,,,,,,,,,,,,,,,,,,,,,,,,,,,
7401,1645650982.867016,117.0,0.0,4016.4101560000004,4444.615234000001,4253.333496,4269.743652,4120.0,450.0,3.0,59.0,,,,0.0,4.0,0.0,0.0,0.0,4.0,0.0,,,,,,,,,,,,,,,,,,,,,,,,,,,,,,,,,,,,,,,,,,,,,,,,,,,,,,,,,,,,,,,,,,,,,,,,,,,,,,,,,,,,
7402,1645650982.8749301,118.0,0.0,4046.6667479999996,4766.666504,4179.487305,4270.769043,4163.077147999999,450.0,3.0,59.0,,,,0.0,4.0,0.0,0.0,0.0,4.0,0.0,,,,,,,,59.0,0.0,0.31203800000000004,0.576172,0.13281300000000001,-0.7436520000000001,0.962417,-0.166995,-0.317388,-0.016575,-0.049477,-0.026476999999999997,,,,,,,,,,,,,,,,,,,,,,,,,,,,,,,,,,,,,,,,,,,,,,,,,,,,,,,,,,,,,,,,,
7403,1645650982.882745,119.0,0.0,4109.230957,4830.769043,4121.025879,4267.692383,4206.666504,16081.0,3.0,59.0,,,,0.0,4.0,0.0,0.0,0.0,4.0,0.0,,,,,,,,,,,,,,,,,,,,,,,,,,,,,,,,,,,,,,,,,,,,,,,,,,,,,,0.0,0.0,1.0,0.0,512.0,1.0,,,,,,,,,,,,,,,,,,,,,,,,,
7404,1645650982.89056,120.0,0.0,4139.487305,4736.410156,4164.102539,4267.179688,4250.256348,450.0,3.0,59.0,,,,0.0,4.0,0.0,0.0,0.0,4.0,0.0,,,,,,,,60.0,0.0,0.31203800000000004,0.576172,0.13281300000000001,-0.7436520000000001,0.949722,-0.163088,-0.302739,-0.01731,-0.049461,-0.029542000000000002,,,,,,,,,,,,,,,,,,,,,,,,,,,,,,,,,,,,,,,,,,,,,,,,,,,,,,,,,,,,,,,,,
7405,1645650982.898374,121.0,0.0,4075.897461,5016.922852000001,4182.563965,4270.256348,4294.871582,450.0,3.0,59.0,,,,0.0,4.0,0.0,0.0,0.0,4.0,0.0,,,,,,,,,,,,,,,,,,,,,,,,,,,,,,,,,,,,,,,,,,,,,,,,,,,,,,,,,,,,,,,,,,,,,,,,,,,,,,,,,,,,
7406,1645650982.906189,122.0,0.0,3999.487061,5226.153809,4122.05127,4271.794922,4285.128418,450.0,3.0,59.0,,,,0.0,4.0,0.0,0.0,0.0,4.0,0.0,,,,,,,,61.0,0.0,0.31203800000000004,0.576172,0.13281300000000001,-0.7436520000000001,0.949233,-0.169436,-0.315923,-0.015775,-0.049397,-0.032399000000000004,,,,,,,,,,,,,,,,,,,,,,,,,,,,,,,,,,,,,,,,,,,,,,,,,,,,,,,,,,,,,,,,,
7407,1645650982.9140038,123.0,0.0,4022.0512700000004,4901.025879,4201.025879,4272.820313,4270.769043,16081.0,3.0,59.0,,,,0.0,4.0,0.0,0.0,0.0,4.0,0.0,,,,,,,,,,,,,,,,,,,,,,,,,,,,,,,,,,,,,,,,,,,,,,,,,,,,,,0.0,0.0,1.0,0.0,512.0,1.0,,,,,,,,,,,,,,,,,,,,,,,,,
7408,1645650982.921818,124.0,0.0,4021.538574,4693.333496,4288.205078,4277.94873,4221.538574,450.0,3.0,59.0,,,,0.0,4.0,0.0,0.0,0.0,4.0,0.0,,,,,,,,62.0,0.0,0.31203800000000004,0.576172,0.13281300000000001,-0.7436520000000001,0.9521629999999999,-0.167971,-0.299809,-0.016541,-0.049388999999999995,-0.035018,,,,,,,,,,,,,,,,,,,,,,,,,,,,,,,,,,,,,,,,,,,,,,,,,,,,,,,,,,,,,,,,,
7409,1645650982.929633,125.0,0.0,4029.2307130000004,4716.922852000001,4296.410156,4280.512695,4225.128418,450.0,3.0,59.0,,,,0.0,4.0,0.0,0.0,0.0,4.0,0.0,,,,,,,,,,,,,,,,,,,,,,,,,,,,,,,,,,,,,,,,,,,,,,,,,,,,,,,,,,,,,,,,,,,,,,,,,,,,,,,,,,,,
7410,1645650982.937448,126.0,0.0,4040.0,4463.589844,4323.077147999999,4276.922852000001,4196.922852000001,450.0,3.0,59.0,,,,0.0,4.0,0.0,0.0,0.0,4.0,0.0,,,,,,,,63.0,0.0,0.31214200000000003,0.576172,0.13256800000000002,-0.7436520000000001,0.956558,-0.165042,-0.313481,-0.015668,-0.049382,-0.03723,,,,,,,,,,,,,,,,,,,,,,,,,,,,,,,,,,,,,,,,,,,,,,,,,,,,,,,,,,,,,,,,,
7411,1645650982.9453619,127.0,0.0,4024.102539,4098.974121,4377.94873,4272.820313,4112.307617,235.0,3.0,59.0,,,,0.0,4.0,0.0,0.0,0.0,4.0,0.0,,,,,,,,,,,,,,,,,,,,1.0,0.0,0.0,,,,,,,,,,,,,,,,,,,,,,,,,,,,,,,,0.0,0.0,1.0,0.0,512.0,1.0,5935.925781,277.645599,55.735222,40.077312,47.483818,233.197052,422.98770099999996,898.7542109999999,797.07959,969.2854,181.09111000000001,180.766891,21.76442,16.852327,28.376501,7.976547,0.38663600000000004,0.251446,0.166177,0.256732,213.76944,51.169804,17.548451999999997,13.907066,10.203675
7412,1645650982.953177,0.0,0.0,4027.6923829999996,4242.05127,4329.743652,4270.256348,4122.05127,450.0,3.0,59.0,,,,0.0,4.0,0.0,0.0,0.0,4.0,0.0,,,,,,,,0.0,0.0,0.31203800000000004,0.576172,0.13281300000000001,-0.7436520000000001,0.9463030000000001,-0.157717,-0.303716,-0.016592,-0.049326999999999996,-0.039268,,,,,,,,,,,,,,,,,,,,,,,,,,,,,,,,,,,,,,,,,,,,,,,,,,,,,,,,,,,,,,,,,
7413,1645650982.961091,1.0,0.0,4104.102539,4572.820313,4310.256348,4270.256348,4210.769043,450.0,3.0,59.0,,,,0.0,2.0,0.0,1.0,0.0,4.0,8.333333,,,,,,,,,,,,,,,,,,,,,,,,,,,,,,,,,,,,,,,,,,,,,,,,,,,,,,,,,,,,,,,,,,,,,,,,,,,,,,,,,,,,
7414,1645650982.9689062,2.0,0.0,4138.461426,4442.05127,4283.077147999999,4268.717772999999,4192.820313,165.0,3.0,59.0,,,,0.0,2.0,0.0,1.0,0.0,4.0,8.333333,,,,,,,,1.0,0.0,0.31203800000000004,0.576172,0.13281300000000001,-0.7436520000000001,0.960464,-0.14111500000000002,-0.310552,-0.017325,-0.049277,-0.041006,,,,,,,,,,,,,,,,,,,,,,,,,,,,,,,,,,,,,,,,,,,,,,,,,,,,,,,,,,,,,,,,,
7415,1645650982.976721,3.0,0.0,4087.6923829999996,4293.333496,4276.922852000001,4266.666504,4161.025879,450.0,3.0,59.0,,,,0.0,2.0,0.0,1.0,0.0,4.0,8.333333,,,,,,,,,,,,,,,,,,,,,,,,,,,,,,,,,,,,,,,,,,,,,,,,,,,,,,0.0,0.0,1.0,0.0,512.0,1.0,,,,,,,,,,,,,,,,,,,,,,,,,
7416,1645650982.984535,4.0,0.0,4065.1281740000004,4607.692383,4255.384765999999,4267.692383,4248.205078,0.0,3.0,59.0,,,,0.0,2.0,0.0,1.0,0.0,4.0,8.333333,,,,,,,,2.0,0.0,0.31203800000000004,0.576172,0.13281300000000001,-0.7436520000000001,0.945327,-0.16406500000000002,-0.30518,-0.016374,-0.049379,-0.042472,,,,,,,,,,,,,,,,,,,,,,,,,,,,,,,,,,,,,,,,,,,,,,,,,,,,,,,,,,,,,,,,,
7417,1645650982.99235,5.0,0.0,4073.8461909999996,4944.615234000001,4198.461426,4267.692383,4245.128418,450.0,3.0,59.0,,,,0.0,2.0,0.0,1.0,0.0,4.0,8.333333,,,,,,,,,,,,,,,,,,,,,,,,,,,,,,,,,,,,,,,,,,,,,,,,,,,,,,,,,,,,,,,,,,,,,,,,,,,,,,,,,,,,
7418,1645650983.000165,6.0,0.0,4101.538574,4914.871582,4168.205078,4268.717772999999,4187.692383,144.0,3.0,59.0,,,,0.0,2.0,0.0,1.0,0.0,4.0,8.333333,,,,,,,,3.0,0.0,0.31203800000000004,0.576172,0.13281300000000001,-0.7436520000000001,0.957046,-0.14648699999999998,-0.319829,-0.01708,-0.049324,-0.037639,,,,,,,,,,,,,,,,,,,,,,,,,,,,,,,,,,,,,,,,,,,,,,,,,,,,,,,,,,,,,,,,,
7419,1645650983.007979,7.0,0.0,4065.1281740000004,4837.94873,4174.871582,4268.717772999999,4245.641113000001,450.0,3.0,59.0,,,,0.0,2.0,0.0,1.0,0.0,4.0,8.333333,,,,,,,,,,,,,,,,,,,,,,,,,,,,,,,,,,,,,,,,,,,,,,,,,,,,,,0.0,0.0,1.0,0.0,512.0,1.0,,,,,,,,,,,,,,,,,,,,,,,,,
7420,1645650983.015794,8.0,1.0,4060.2849119999996,4875.840332,4188.318848,4269.173828,4247.578125,450.0,3.0,59.0,,,,0.0,2.0,0.0,1.0,0.0,4.0,8.333333,,,,,,,,4.0,1.0,0.31219600000000003,0.576172,0.132715,-0.743604,0.9564600000000001,-0.148928,-0.317974,-0.016885,-0.049314,-0.038019,,,,,,,,,,,,,,,,,,,,,,,,,,,,,,,,,,,,,,,,,,,,,,,,,,,,,,,,,,,,,,,,,
7421,1645650983.023608,9.0,1.0,4055.44165,4913.732422,4201.766602000001,4269.629395,4249.515625,0.0,3.0,59.0,,,,0.0,2.0,0.0,1.0,0.0,4.0,8.333333,,,,,,,,,,,,,,,,,,,,,,,,,,,,,,,,,,,,,,,,,,,,,,,,,,,,,,,,,,,,,,,,,,,,,,,,,,,,,,,,,,,,
7422,1645650983.031423,10.0,1.0,4050.598389,4951.624022999999,4215.213867,4270.085449,4251.453125,450.0,3.0,59.0,,,,0.0,2.0,0.0,1.0,0.0,4.0,8.333333,,,,,,,,5.0,1.0,0.312354,0.576172,0.132617,-0.743555,0.955874,-0.151369,-0.316118,-0.01669,-0.049304,-0.038399,,,,,,,,,,,,,,,,,,,,,,,,,,,,,,,,,,,,,,,,,,,,,,,,,,,,,,,,,,,,,,,,,
7423,1645650983.039238,11.0,1.0,4045.7548829999996,4989.515625,4228.661133,4270.541504,4253.390136999999,16081.0,3.0,59.0,,,,0.0,2.0,0.0,1.0,0.0,4.0,8.333333,,,,,,,,,,,,,,,,,,,,,,,,,,,,,,,,,,,,,,,,,,,,,,,,,,,,,,0.0,0.0,1.0,0.0,512.0,1.0,,,,,,,,,,,,,,,,,,,,,,,,,
7424,1645650983.047052,12.0,1.0,4040.911621,5027.407227000001,4242.108397999999,4270.99707,4255.327636999999,450.0,3.0,59.0,,,,0.0,2.0,0.0,1.0,0.0,4.0,8.333333,,,,,,,,6.0,1.0,0.31251100000000004,0.576172,0.13252,-0.743506,0.9552879999999999,-0.153811,-0.314263,-0.016495,-0.049294,-0.038779,,,,,,,,,,,,,,,,,,,,,,,,,,,,,,,,,,,,,,,,,,,,,,,,,,,,,,,,,,,,,,,,,
7425,1645650983.054867,13.0,1.0,4036.0683590000003,5065.299316,4255.555664,4271.453125,4257.265136999999,450.0,3.0,59.0,,,,0.0,2.0,0.0,1.0,0.0,4.0,8.333333,,,,,,,,,,,,,,,,,,,,,,,,,,,,,,,,,,,,,,,,,,,,,,,,,,,,,,,,,,,,,,,,,,,,,,,,,,,,,,,,,,,,
7426,1645650983.062682,14.0,1.0,4031.225098,5103.190918,4269.00293,4271.908691,4259.202147999999,450.0,3.0,59.0,,,,0.0,2.0,0.0,1.0,0.0,4.0,8.333333,,,,,,,,7.0,1.0,0.31266900000000003,0.576172,0.132422,-0.7434569999999999,0.954702,-0.156252,-0.312407,-0.0163,-0.049283999999999994,-0.039159,,,,,,,,,,,,,,,,,,,,,,,,,,,,,,,,,,,,,,,,,,,,,,,,,,,,,,,,,,,,,,,,,
7427,1645650983.070496,15.0,1.0,4026.381836,5141.08252,4282.450195,4272.364746,4261.139647999999,16081.0,3.0,59.0,,,,0.0,2.0,0.0,1.0,0.0,4.0,8.333333,,,,,,,,,,,,,,,,,,,,1.0,0.0,0.0,,,,,,,,,,,,,,,,,,,,,,,,,,,,,,,,0.0,0.0,1.0,0.0,512.0,1.0,3638.4555659999996,187.598206,33.636524,46.267159,52.587784,188.932724,470.92749000000003,898.23053,1023.634033,1137.916626,174.682007,181.66218600000002,20.487204000000002,19.770982999999998,32.815371999999996,4.547468,0.256274,0.213482,0.190179,0.29627800000000004,176.022186,56.444878,18.937876,16.298634,11.947448
7428,1645650983.078311,16.0,0.0,4021.538574,5178.974121,4295.897461,4272.820313,4263.077147999999,0.0,3.0,59.0,,,,0.0,2.0,0.0,1.0,0.0,4.0,8.333333,,,,,,,,8.0,0.0,0.312827,0.576172,0.132324,-0.743408,0.954116,-0.158694,-0.310552,-0.016105,-0.049274,-0.039539,,,,,,,,,,,,,,,,,,,,,,,,,,,,,,,,,,,,,,,,,,,,,,,,,,,,,,,,,,,,,,,,,
7429,1645650983.086126,17.0,0.0,4082.5642090000006,4797.436035,4306.153809,4274.358886999999,4205.128418,0.0,3.0,59.0,,,,0.0,2.0,0.0,1.0,0.0,4.0,8.333333,,,,,,,,,,,,,,,,,,,,,,,,,,,,,,,,,,,,,,,,,,,,,,,,,,,,,,,,,,,,,,,,,,,,,,,,,,,,,,,,,,,,
7430,1645650983.0938401,18.0,0.0,4052.820557,4344.615234000001,4359.487305,4276.410156,4084.615479,0.0,3.0,59.0,,,,0.0,2.0,0.0,1.0,0.0,4.0,8.333333,,,,,,,,9.0,0.0,0.312827,0.576172,0.132324,-0.743408,0.95314,-0.16552999999999998,-0.307622,-0.016789,-0.049326999999999996,-0.041298,,,,,,,,,,,,,,,,,,,,,,,,,,,,,,,,,,,,,,,,,,,,,,,,,,,,,,,,,,,,,,,,,
7431,1645650983.101655,19.0,0.0,4043.076904,4530.256348,4286.666504,4273.333496,4134.871582,0.0,3.0,59.0,,,,0.0,2.0,0.0,1.0,0.0,4.0,8.333333,,,,,,,,,,,,,,,,,,,,,,,,,,,,,,,,,,,,,,,,,,,,,,,,,,,,,,0.0,0.0,1.0,0.0,512.0,1.0,,,,,,,,,,,,,,,,,,,,,,,,,
7432,1645650983.109469,20.0,0.0,4119.487305,4814.358886999999,4220.0,4268.717772999999,4205.641113000001,0.0,3.0,59.0,,,,0.0,2.0,0.0,1.0,0.0,4.0,8.333333,,,,,,,,10.0,0.0,0.312377,0.576416,0.132324,-0.743408,0.9463030000000001,-0.171878,-0.30225100000000005,-0.017454,-0.049277999999999995,-0.04293,,,,,,,,,,,,,,,,,,,,,,,,,,,,,,,,,,,,,,,,,,,,,,,,,,,,,,,,,,,,,,,,,
7433,1645650983.117283,21.0,0.0,4149.230957,4850.256348,4155.897461,4270.769043,4209.743652,0.0,3.0,59.0,,,,0.0,2.0,0.0,1.0,0.0,4.0,8.333333,,,,,,,,,,,,,,,,,,,,,,,,,,,,,,,,,,,,,,,,,,,,,,,,,,,,,,,,,,,,,,,,,,,,,,,,,,,,,,,,,,,,
7434,1645650983.125098,22.0,0.0,4095.384521,4923.589844,4131.282227000001,4271.794922,4257.94873,0.0,3.0,59.0,,,,0.0,2.0,0.0,1.0,0.0,4.0,8.333333,,,,,,,,11.0,0.0,0.312377,0.576416,0.132324,-0.743408,0.9433739999999999,-0.166995,-0.298833,-0.01649,-0.049281,-0.0381,,,,,,,,,,,,,,,,,,,,,,,,,,,,,,,,,,,,,,,,,,,,,,,,,,,,,,,,,,,,,,,,,
7435,1645650983.132912,23.0,0.0,4088.205078,4870.769043,4237.436035,4273.333496,4280.0,0.0,3.0,59.0,,,,0.0,2.0,0.0,1.0,0.0,4.0,8.333333,,,,,,,,,,,,,,,,,,,,,,,,,,,,,,,,,,,,,,,,,,,,,,,,,,,,,,0.0,0.0,1.0,0.0,512.0,1.0,,,,,,,,,,,,,,,,,,,,,,,,,
7436,1645650983.140727,24.0,0.0,4082.0512700000004,4599.487305,4316.410156,4279.487305,4191.794922,0.0,3.0,59.0,,,,0.0,2.0,0.0,1.0,0.0,4.0,8.333333,,,,,,,,12.0,0.0,0.312273,0.576416,0.13256800000000002,-0.743408,0.9438620000000001,-0.16894800000000001,-0.298833,-0.014939,-0.049138999999999995,-0.0401,,,,,,,,,,,,,,,,,,,,,,,,,,,,,,,,,,,,,,,,,,,,,,,,,,,,,,,,,,,,,,,,,
7437,1645650983.148441,25.0,0.0,4151.282227000001,4429.743652,4220.512695,4280.0,4213.846191,0.0,3.0,59.0,,,,0.0,2.0,0.0,1.0,0.0,4.0,8.333333,,,,,,,,,,,,,,,,,,,,,,,,,,,,,,,,,,,,,,,,,,,,,,,,,,,,,,,,,,,,,,,,,,,,,,,,,,,,,,,,,,,,
7438,1645650983.156256,26.0,0.0,4253.846191,4372.307617,4146.666504,4269.230957,4258.974121,0.0,3.0,59.0,,,,0.0,2.0,0.0,1.0,0.0,4.0,8.333333,,,,,,,,13.0,0.0,0.312273,0.576416,0.13256800000000002,-0.743408,0.944839,-0.1626,-0.307134,-0.015886,-0.049108,-0.041803,,,,,,,,,,,,,,,,,,,,,,,,,,,,,,,,,,,,,,,,,,,,,,,,,,,,,,,,,,,,,,,,,
7439,1645650983.16407,27.0,0.0,4216.410156,4499.487305,4234.871582,4267.179688,4222.05127,0.0,3.0,59.0,,,,0.0,2.0,0.0,1.0,0.0,4.0,8.333333,,,,,,,,,,,,,,,,,,,,,,,,,,,,,,,,,,,,,,,,,,,,,,,,,,,,,,0.0,0.0,1.0,0.0,512.0,1.0,,,,,,,,,,,,,,,,,,,,,,,,,
7440,1645650983.171884,28.0,0.0,4069.743652,4993.333496,4243.077147999999,4273.333496,4206.153809,0.0,3.0,59.0,,,,0.0,2.0,0.0,1.0,0.0,4.0,8.333333,,,,,,,,14.0,0.0,0.312273,0.576416,0.13256800000000002,-0.743408,0.949233,-0.167483,-0.308598,-0.016738999999999997,-0.049275,-0.037037,,,,,,,,,,,,,,,,,,,,,,,,,,,,,,,,,,,,,,,,,,,,,,,,,,,,,,,,,,,,,,,,,
7441,1645650983.179699,29.0,0.0,4079.487061,5090.256348,4221.538574,4274.358886999999,4265.641113000001,0.0,3.0,59.0,,,,0.0,2.0,0.0,1.0,0.0,4.0,8.333333,,,,,,,,,,,,,,,,,,,,,,,,,,,,,,,,,,,,,,,,,,,,,,,,,,,,,,,,,,,,,,,,,,,,,,,,,,,,,,,,,,,,
7442,1645650983.187513,30.0,0.0,4128.205078,4528.205078,4285.641113000001,4276.922852000001,4194.871582,0.0,3.0,59.0,,,,0.0,2.0,0.0,1.0,0.0,4.0,8.333333,,,,,,,,15.0,0.0,0.312273,0.576416,0.13256800000000002,-0.743408,0.9438620000000001,-0.16894800000000001,-0.298833,-0.017506999999999998,-0.04923,-0.032796,,,,,,,,,,,,,,,,,,,,,,,,,,,,,,,,,,,,,,,,,,,,,,,,,,,,,,,,,,,,,,,,,
7443,1645650983.195328,31.0,0.0,4084.102539,4248.717772999999,4356.922852000001,4279.487305,4109.230957,0.0,3.0,59.0,,,,0.0,2.0,0.0,1.0,0.0,4.0,8.333333,0.96875,0.0,0.0,0.0,0.0,0.0,1.0,,,,,,,,,,,,,1.0,0.0,0.0,,,,,,,,,,,,,,,,,,,,,,,,,,,,,,,,0.0,0.0,1.0,0.0,512.0,1.0,1975.145386,119.65136000000001,21.603579,50.735996,52.632427,194.792587,499.524109,798.80835,1200.40271,1218.0063480000001,171.7323,181.445526,17.326612,23.677816,34.760357,2.181186,0.16534100000000002,0.171354,0.207972,0.31209000000000003,140.544937,62.081203,18.862345,17.983562,13.514759
7444,1645650983.203142,32.0,0.0,4080.0,4320.0,4336.922852000001,4273.333496,4140.0,0.0,3.0,59.0,,,,0.0,2.0,0.0,1.0,0.0,4.0,8.333333,,,,,,,,16.0,0.0,0.312273,0.576416,0.13256800000000002,-0.743408,0.949233,-0.167483,-0.308598,-0.018197,-0.049386,-0.028931000000000002,,,,,,,,,,,,,,,,,,,,,,,,,,,,,,,,,,,,,,,,,,,,,,,,,,,,,,,,,,,,,,,,,
7445,1645650983.210956,33.0,0.0,4169.230957,4366.666504,4345.641113000001,4270.256348,4179.487305,0.0,3.0,59.0,,,,0.0,2.0,0.0,1.0,0.0,4.0,8.333333,,,,,,,,,,,,,,,,,,,,,,,,,,,,,,,,,,,,,,,,,,,,,,,,,,,,,,,,,,,,,,,,,,,,,,,,,,,,,,,,,,,,
7446,1645650983.218671,34.0,0.0,4215.384765999999,4532.820313,4277.436035,4271.794922,4207.179688,0.0,3.0,59.0,,,,0.0,2.0,0.0,1.0,0.0,4.0,8.333333,,,,,,,,17.0,0.0,0.312273,0.576416,0.13256800000000002,-0.743408,0.95314,-0.151369,-0.306645,-0.018673,-0.049525,-0.031555,,,,,,,,,,,,,,,,,,,,,,,,,,,,,,,,,,,,,,,,,,,,,,,,,,,,,,,,,,,,,,,,,
7447,1645650983.226485,35.0,0.0,4174.358886999999,4821.538574,4211.282227000001,4269.743652,4227.692383,0.0,3.0,59.0,,,,0.0,2.0,0.0,1.0,0.0,4.0,8.333333,,,,,,,,,,,,,,,,,,,,,,,,,,,,,,,,,,,,,,,,,,,,,,,,,,,,,,0.0,0.0,1.0,0.0,512.0,1.0,,,,,,,,,,,,,,,,,,,,,,,,,
7448,1645650983.2343,36.0,0.0,4111.794922,5057.94873,4207.179688,4270.769043,4236.410156,0.0,3.0,59.0,,,,0.0,2.0,0.0,1.0,0.0,4.0,8.333333,,,,,,,,18.0,0.0,0.31272300000000003,0.576172,0.13256800000000002,-0.743408,0.9423969999999999,-0.170413,-0.29688000000000003,-0.019149,-0.049504,-0.034064,,,,,,,,,,,,,,,,,,,,,,,,,,,,,,,,,,,,,,,,,,,,,,,,,,,,,,,,,,,,,,,,,
7449,1645650983.242114,37.0,0.0,4081.025635,5094.871582,4210.769043,4275.384765999999,4262.05127,0.0,3.0,59.0,,,,0.0,2.0,0.0,1.0,0.0,4.0,8.333333,,,,,,,,,,,,,,,,,,,,,,,,,,,,,,,,,,,,,,,,,,,,,,,,,,,,,,,,,,,,,,,,,,,,,,,,,,,,,,,,,,,,
7450,1645650983.249929,38.0,0.0,4149.230957,4828.205078,4181.025879,4276.410156,4234.358886999999,0.0,3.0,59.0,,,,0.0,2.0,0.0,1.0,0.0,4.0,8.333333,,,,,,,,19.0,0.0,0.31272300000000003,0.576172,0.13256800000000002,-0.743408,0.94435,-0.174319,-0.299809,-0.018015,-0.049339,-0.036322,,,,,,,,,,,,,,,,,,,,,,,,,,,,,,,,,,,,,,,,,,,,,,,,,,,,,,,,,,,,,,,,,
7451,1645650983.257743,39.0,0.0,4148.205078,4463.589844,4207.179688,4276.922852000001,4120.512695,0.0,3.0,59.0,,,,0.0,2.0,0.0,1.0,0.0,4.0,8.333333,,,,,,,,,,,,,,,,,,,,,,,,,,,,,,,,,,,,,,,,,,,,,,,,,,,,,,0.0,0.0,1.0,0.0,512.0,1.0,,,,,,,,,,,,,,,,,,,,,,,,,
7452,1645650983.265557,40.0,0.0,4131.794922,4446.153809,4244.615234000001,4275.384765999999,4159.487305,0.0,3.0,59.0,,,,0.0,2.0,0.0,1.0,0.0,4.0,8.333333,,,,,,,,20.0,0.0,0.31272300000000003,0.576172,0.13256800000000002,-0.743408,0.953628,-0.169436,-0.311528,-0.018606,-0.049337,-0.032055,,,,,,,,,,,,,,,,,,,,,,,,,,,,,,,,,,,,,,,,,,,,,,,,,,,,,,,,,,,,,,,,,
7453,1645650983.2733722,41.0,0.0,4218.974121,4586.666504,4229.743652,4269.743652,4252.307617,0.0,3.0,59.0,,,,0.0,2.0,0.0,1.0,0.0,4.0,8.333333,,,,,,,,,,,,,,,,,,,,,,,,,,,,,,,,,,,,,,,,,,,,,,,,,,,,,,,,,,,,,,,,,,,,,,,,,,,,,,,,,,,,
7454,1645650983.2811859,42.0,0.0,4293.333496,4598.974121,4195.897461,4270.256348,4260.0,0.0,3.0,59.0,,,,0.0,2.0,0.0,1.0,0.0,4.0,8.333333,,,,,,,,21.0,0.0,0.313173,0.575928,0.13256800000000002,-0.743408,0.9511860000000001,-0.155276,-0.301762,-0.01909,-0.049335000000000004,-0.028312,,,,,,,,,,,,,,,,,,,,,,,,,,,,,,,,,,,,,,,,,,,,,,,,,,,,,,,,,,,,,,,,,
7455,1645650983.288901,43.0,0.0,4224.102539,4857.436035,4160.0,4274.871582,4252.820313,0.0,3.0,59.0,,,,0.0,2.0,0.0,1.0,0.0,4.0,8.333333,,,,,,,,,,,,,,,,,,,,,,,,,,,,,,,,,,,,,,,,,,,,,,,,,,,,,,0.0,0.0,1.0,0.0,512.0,1.0,,,,,,,,,,,,,,,,,,,,,,,,,
7456,1645650983.296715,44.0,0.0,4147.692383,5014.358886999999,4244.102539,4275.384765999999,4273.333496,0.0,3.0,59.0,,,,0.0,2.0,0.0,1.0,0.0,4.0,8.333333,,,,,,,,22.0,0.0,0.313173,0.575928,0.13256800000000002,-0.743408,0.9594870000000001,-0.17236600000000002,-0.300786,-0.019476,-0.049283999999999994,-0.031145,,,,,,,,,,,,,,,,,,,,,,,,,,,,,,,,,,,,,,,,,,,,,,,,,,,,,,,,,,,,,,,,,
7457,1645650983.304529,45.0,0.0,4118.461426,4555.384765999999,4378.974121,4276.922852000001,4197.94873,0.0,3.0,59.0,,,,0.0,2.0,0.0,1.0,0.0,4.0,8.333333,,,,,,,,,,,,,,,,,,,,,,,,,,,,,,,,,,,,,,,,,,,,,,,,,,,,,,,,,,,,,,,,,,,,,,,,,,,,,,,,,,,,
7458,1645650983.3123438,46.0,0.0,4173.333496,4138.974121,4393.333496,4280.512695,4142.563965,0.0,3.0,59.0,,,,0.0,2.0,0.0,1.0,0.0,4.0,8.333333,,,,,,,,23.0,0.0,0.313173,0.575928,0.13256800000000002,-0.743408,0.953628,-0.161624,-0.31543499999999997,-0.01826,-0.049337,-0.033645999999999995,,,,,,,,,,,,,,,,,,,,,,,,,,,,,,,,,,,,,,,,,,,,,,,,,,,,,,,,,,,,,,,,,
7459,1645650983.320158,47.0,0.0,4218.974121,4208.205078,4269.230957,4274.358886999999,4136.922852000001,0.0,3.0,59.0,,,,0.0,2.0,0.0,1.0,0.0,4.0,8.333333,,,,,,,,,,,,,,,,,,,,1.0,0.0,0.0,,,,,,,,,,,,,,,,,,,,,,,,,,,,,,,,0.0,0.0,1.0,0.0,512.0,1.0,982.902161,78.58285500000001,17.63101,51.335331,47.238021999999994,305.623688,534.7344969999999,642.5794070000001,1265.247559,1169.878418,172.282654,180.871521,13.466507,27.154728000000002,33.467068,0.9438340000000001,0.119676,0.13405799999999998,0.21024400000000001,0.29489299999999996,110.02611499999999,67.40969100000001,17.597437,18.251644,14.280152
7460,1645650983.3279731,48.0,0.0,4178.974121,4337.94873,4282.05127,4267.179688,4171.282227000001,0.0,3.0,59.0,,,,0.0,2.0,0.0,1.0,0.0,4.0,8.333333,,,,,,,,24.0,0.0,0.313173,0.575928,0.13256800000000002,-0.743408,0.937514,-0.158694,-0.30518,-0.018729,-0.049335000000000004,-0.029695,,,,,,,,,,,,,,,,,,,,,,,,,,,,,,,,,,,,,,,,,,,,,,,,,,,,,,,,,,,,,,,,,
7461,1645650983.335687,49.0,0.0,4150.769043,4430.769043,4340.0,4269.230957,4221.025879,0.0,3.0,59.0,,,,0.0,2.0,0.0,1.0,0.0,4.0,8.333333,,,,,,,,,,,,,,,,,,,,,,,,,,,,,,,,,,,,,,,,,,,,,,,,,,,,,,,,,,,,,,,,,,,,,,,,,,,,,,,,,,,,
7462,1645650983.343502,50.0,0.0,4203.589844,4571.282227000001,4343.077147999999,4272.307617,4203.077147999999,0.0,3.0,59.0,,,,0.0,2.0,0.0,1.0,0.0,4.0,8.333333,,,,,,,,25.0,0.0,0.312593,0.575928,0.13256800000000002,-0.7436520000000001,0.9560690000000001,-0.158694,-0.306645,-0.0192,-0.049333,-0.032389999999999995,,,,,,,,,,,,,,,,,,,,,,,,,,,,,,,,,,,,,,,,,,,,,,,,,,,,,,,,,,,,,,,,,
7463,1645650983.351316,51.0,0.0,4193.846191,4685.128418,4273.333496,4271.282227000001,4195.897461,0.0,3.0,59.0,,,,0.0,2.0,0.0,1.0,0.0,4.0,8.333333,,,,,,,,,,,,,,,,,,,,,,,,,,,,,,,,,,,,,,,,,,,,,,,,,,,,,,0.0,0.0,1.0,0.0,512.0,1.0,,,,,,,,,,,,,,,,,,,,,,,,,
7464,1645650983.3591301,52.0,0.0,4097.436035,4944.102539,4200.0,4270.769043,4248.205078,0.0,3.0,59.0,,,,0.0,2.0,0.0,1.0,0.0,4.0,8.333333,,,,,,,,26.0,0.0,0.31248899999999996,0.575928,0.13281300000000001,-0.7436520000000001,0.957046,-0.165042,-0.304204,-0.01977,-0.049282,-0.028712,,,,,,,,,,,,,,,,,,,,,,,,,,,,,,,,,,,,,,,,,,,,,,,,,,,,,,,,,,,,,,,,,
7465,1645650983.366945,53.0,0.0,4107.179688,4968.717772999999,4185.128418,4275.384765999999,4256.922852000001,0.0,3.0,59.0,,,,0.0,2.0,0.0,1.0,0.0,4.0,8.333333,,,,,,,,,,,,,,,,,,,,,,,,,,,,,,,,,,,,,,,,,,,,,,,,,,,,,,,,,,,,,,,,,,,,,,,,,,,,,,,,,,,,
7466,1645650983.374759,54.0,0.0,4156.410156,4426.666504,4246.666504,4280.0,4184.615234000001,0.0,3.0,59.0,,,,0.0,2.0,0.0,1.0,0.0,4.0,8.333333,,,,,,,,27.0,0.0,0.31248899999999996,0.575928,0.13281300000000001,-0.7436520000000001,0.969741,-0.165042,-0.306645,-0.020186000000000003,-0.049335000000000004,-0.031602,,,,,,,,,,,,,,,,,,,,,,,,,,,,,,,,,,,,,,,,,,,,,,,,,,,,,,,,,,,,,,,,,
7467,1645650983.382574,55.0,0.0,4214.871582,4292.820313,4207.179688,4278.461426,4198.974121,0.0,3.0,59.0,,,,0.0,2.0,0.0,1.0,0.0,4.0,8.333333,,,,,,,,,,,,,,,,,,,,,,,,,,,,,,,,,,,,,,,,,,,,,,,,,,,,,,0.0,0.0,1.0,0.0,512.0,1.0,,,,,,,,,,,,,,,,,,,,,,,,,
7468,1645650983.390388,56.0,0.0,4267.179688,4853.846191,4109.743652,4270.256348,4289.230957,0.0,3.0,59.0,,,,0.0,2.0,0.0,1.0,0.0,4.0,8.333333,,,,,,,,28.0,0.0,0.31248899999999996,0.575928,0.13281300000000001,-0.7436520000000001,0.9546040000000001,-0.161135,-0.298344,-0.020609,-0.049283999999999994,-0.034155,,,,,,,,,,,,,,,,,,,,,,,,,,,,,,,,,,,,,,,,,,,,,,,,,,,,,,,,,,,,,,,,,
7469,1645650983.398202,57.0,0.0,4227.692383,5108.717772999999,4163.077147999999,4270.256348,4328.717772999999,0.0,3.0,59.0,,,,0.0,2.0,0.0,1.0,0.0,4.0,8.333333,,,,,,,,,,,,,,,,,,,,,,,,,,,,,,,,,,,,,,,,,,,,,,,,,,,,,,,,,,,,,,,,,,,,,,,,,,,,,,,,,,,,
7470,1645650983.406017,58.0,0.0,4126.666504,4829.230957,4270.769043,4281.025879,4242.563965,0.0,3.0,59.0,,,,0.0,2.0,0.0,1.0,0.0,4.0,8.333333,,,,,,,,29.0,0.0,0.31248899999999996,0.575928,0.13281300000000001,-0.7436520000000001,0.944839,-0.155276,-0.318853,-0.019280000000000002,-0.049287,-0.030202,,,,,,,,,,,,,,,,,,,,,,,,,,,,,,,,,,,,,,,,,,,,,,,,,,,,,,,,,,,,,,,,,
7471,1645650983.413731,59.0,0.0,4205.128418,4546.153809,4266.666504,4284.102539,4232.307617,0.0,3.0,59.0,,,,0.0,2.0,0.0,1.0,0.0,4.0,8.333333,,,,,,,,,,,,,,,,,,,,,,,,,,,,,,,,,,,,,,,,,,,,,,,,,,,,,,0.0,0.0,1.0,0.0,512.0,1.0,,,,,,,,,,,,,,,,,,,,,,,,,
7472,1645650983.421546,60.0,0.0,4337.436035,4301.538574,4213.846191,4272.820313,4272.307617,0.0,3.0,59.0,,,,0.0,2.0,0.0,1.0,0.0,4.0,8.333333,,,,,,,,30.0,0.0,0.31248899999999996,0.575928,0.13281300000000001,-0.7436520000000001,0.9463030000000001,-0.159182,-0.305669,-0.019745,-0.04929,-0.032846,,,,,,,,,,,,,,,,,,,,,,,,,,,,,,,,,,,,,,,,,,,,,,,,,,,,,,,,,,,,,,,,,
7473,1645650983.42926,61.0,0.0,4307.179688,4389.230957,4273.846191,4266.153809,4264.102539,0.0,3.0,59.0,,,,0.0,2.0,0.0,1.0,0.0,4.0,8.333333,,,,,,,,,,,,,,,,,,,,,,,,,,,,,,,,,,,,,,,,,,,,,,,,,,,,,,,,,,,,,,,,,,,,,,,,,,,,,,,,,,,,
7474,1645650983.437075,62.0,0.0,4152.820313,4925.128418,4303.589844,4272.307617,4234.358886999999,0.0,3.0,59.0,,,,0.0,2.0,0.0,1.0,0.0,4.0,8.333333,,,,,,,,31.0,0.0,0.31238499999999997,0.575928,0.13305699999999998,-0.7436520000000001,0.9643700000000001,-0.154299,-0.310552,-0.020163,-0.049244,-0.035226,,,,,,,,,,,,,,,,,,,,,,,,,,,,,,,,,,,,,,,,,,,,,,,,,,,,,,,,,,,,,,,,,
7475,1645650983.444889,63.0,0.0,4130.769043,5127.179688,4289.743652,4275.897461,4248.717772999999,0.0,3.0,59.0,,,,0.0,2.0,0.0,1.0,0.0,4.0,8.333333,,,,,,,,,,,,,,,,,,,,1.0,0.0,0.0,,,,,,,,,,,,,,,,,,,,,,,,,,,,,,,,0.0,0.0,1.0,0.0,512.0,1.0,466.63369800000004,59.018078,17.198729999999998,47.348304999999996,38.010670000000005,539.093384,604.020203,487.28967300000005,1201.938232,1004.449341,174.24301100000002,180.96258500000002,10.201245,29.282922999999997,29.360684999999997,0.47108599999999995,0.10934100000000001,0.106975,0.194858,0.248558,86.411385,71.94148299999999,16.221056,17.206364,14.031856
7476,1645650983.452704,64.0,0.0,4164.615234000001,4760.0,4280.0,4275.384765999999,4195.384765999999,450.0,3.0,59.0,,,,0.0,2.0,0.0,1.0,0.0,4.0,8.333333,,,,,,,,32.0,0.0,0.31238499999999997,0.575928,0.13305699999999998,-0.7436520000000001,0.968277,-0.16894800000000001,-0.30811,-0.020442,-0.049252,-0.037319,,,,,,,,,,,,,,,,,,,,,,,,,,,,,,,,,,,,,,,,,,,,,,,,,,,,,,,,,,,,,,,,,
7477,1645650983.460518,65.0,0.0,4102.05127,4492.820313,4317.94873,4278.974121,4102.05127,450.0,3.0,59.0,,,,0.0,2.0,0.0,1.0,0.0,4.0,8.333333,,,,,,,,,,,,,,,,,,,,,,,,,,,,,,,,,,,,,,,,,,,,,,,,,,,,,,,,,,,,,,,,,,,,,,,,,,,,,,,,,,,,
7478,1645650983.468232,66.0,0.0,4086.6667479999996,4560.512695,4283.589844,4277.94873,4107.179688,16083.0,3.0,59.0,,,,0.0,4.0,0.0,1.0,0.0,4.0,8.333333,,,,,,,,33.0,0.0,0.31238499999999997,0.575928,0.13305699999999998,-0.7436520000000001,0.944839,-0.167483,-0.304204,-0.02079,-0.049208999999999996,-0.03305,,,,,,,,,,,,,,,,,,,,,,,,,,,,,,,,,,,,,,,,,,,,,,,,,,,,,,,,,,,,,,,,,
7479,1645650983.476047,67.0,0.0,4198.974121,4658.461426,4245.128418,4269.230957,4171.794922,450.0,3.0,59.0,,,,0.0,4.0,0.0,1.0,0.0,4.0,8.333333,,,,,,,,,,,,,,,,,,,,,,,,,,,,,,,,,,,,,,,,,,,,,,,,,,,,,,0.0,0.0,1.0,0.0,512.0,1.0,,,,,,,,,,,,,,,,,,,,,,,,,
7480,1645650983.4837608,68.0,0.0,4256.922852000001,4705.128418,4188.717772999999,4269.743652,4230.769043,60.0,3.0,59.0,,,,0.0,4.0,1.0,1.0,0.0,4.0,16.666666,,,,,,,,34.0,0.0,0.312281,0.575928,0.133301,-0.7436520000000001,0.957046,-0.177249,-0.306645,-0.019444,-0.04922,-0.035506,,,,,,,,,,,,,,,,,,,,,,,,,,,,,,,,,,,,,,,,,,,,,,,,,,,,,,,,,,,,,,,,,
7481,1645650983.491576,69.0,0.0,4160.0,4810.769043,4151.794922,4278.974121,4259.487305,450.0,3.0,59.0,,,,0.0,4.0,1.0,1.0,0.0,4.0,16.666666,,,,,,,,,,,,,,,,,,,,,,,,,,,,,,,,,,,,,,,,,,,,,,,,,,,,,,,,,,,,,,,,,,,,,,,,,,,,,,,,,,,,
7482,1645650983.4993901,70.0,0.0,4169.230957,4655.897461,4228.717772999999,4281.538574,4233.846191,139.0,3.0,59.0,,,,0.0,4.0,1.0,1.0,0.0,4.0,16.666666,,,,,,,,35.0,0.0,0.312862,0.575928,0.133301,-0.743408,0.956558,-0.167971,-0.300786,-0.017547999999999998,-0.049326999999999996,-0.037669,,,,,,,,,,,,,,,,,,,,,,,,,,,,,,,,,,,,,,,,,,,,,,,,,,,,,,,,,,,,,,,,,
7483,1645650983.507205,71.0,0.0,4255.897461,4107.692383,4335.897461,4274.871582,4176.410156,450.0,3.0,59.0,,,,0.0,4.0,1.0,1.0,0.0,4.0,16.666666,,,,,,,,,,,,,,,,,,,,,,,,,,,,,,,,,,,,,,,,,,,,,,,,,,,,,,0.0,0.0,1.0,0.0,512.0,1.0,,,,,,,,,,,,,,,,,,,,,,,,,
7484,1645650983.515019,72.0,0.0,4283.077147999999,4084.102539,4245.641113000001,4272.307617,4238.461426,450.0,3.0,59.0,,,,0.0,4.0,1.0,1.0,0.0,4.0,16.666666,,,,,,,,36.0,0.0,0.312862,0.575928,0.133301,-0.743408,0.938491,-0.169924,-0.301274,-0.018137,-0.049277999999999995,-0.039517000000000004,,,,,,,,,,,,,,,,,,,,,,,,,,,,,,,,,,,,,,,,,,,,,,,,,,,,,,,,,,,,,,,,,
7485,1645650983.522833,73.0,0.0,4274.358886999999,4813.333496,4111.794922,4271.282227000001,4346.666504,0.0,3.0,59.0,,,,0.0,4.0,1.0,1.0,0.0,4.0,16.666666,,,,,,,,,,,,,,,,,,,,,,,,,,,,,,,,,,,,,,,,,,,,,,,,,,,,,,,,,,,,,,,,,,,,,,,,,,,,,,,,,,,,
7486,1645650983.530648,74.0,0.0,4281.538574,5055.384765999999,4185.641113000001,4271.794922,4333.333496,450.0,3.0,59.0,,,,0.0,4.0,1.0,1.0,0.0,4.0,16.666666,,,,,,,,37.0,0.0,0.312281,0.575928,0.133301,-0.7436520000000001,0.957046,-0.177249,-0.306645,-0.017105000000000002,-0.049233,-0.04123,,,,,,,,,,,,,,,,,,,,,,,,,,,,,,,,,,,,,,,,,,,,,,,,,,,,,,,,,,,,,,,,,
7487,1645650983.538362,75.0,0.0,4217.94873,4625.641113000001,4263.077147999999,4279.487305,4188.717772999999,16057.0,3.0,59.0,,,,0.0,4.0,1.0,1.0,0.0,4.0,16.666666,,,,,,,,,,,,,,,,,,,,,,,,,,,,,,,,,,,,,,,,,,,,,,,,,,,,,,0.0,0.0,1.0,0.0,512.0,1.0,,,,,,,,,,,,,,,,,,,,,,,,,
7488,1645650983.546177,76.0,0.0,4160.0,4408.717772999999,4244.102539,4282.05127,4185.128418,450.0,3.0,59.0,,,,0.0,4.0,1.0,1.0,0.0,4.0,16.666666,,,,,,,,38.0,0.0,0.312281,0.575928,0.133301,-0.7436520000000001,0.9423969999999999,-0.1626,-0.301274,-0.017738,-0.049339,-0.036521,,,,,,,,,,,,,,,,,,,,,,,,,,,,,,,,,,,,,,,,,,,,,,,,,,,,,,,,,,,,,,,,,
7489,1645650983.553991,77.0,0.0,4201.538574,4500.0,4261.538574,4271.794922,4246.666504,450.0,3.0,59.0,,,,0.0,4.0,1.0,1.0,0.0,4.0,16.666666,,,,,,,,,,,,,,,,,,,,,,,,,,,,,,,,,,,,,,,,,,,,,,,,,,,,,,,,,,,,,,,,,,,,,,,,,,,,,,,,,,,,
7490,1645650983.561806,78.0,0.0,4290.769043,4681.538574,4331.794922,4267.692383,4224.102539,450.0,3.0,59.0,,,,0.0,4.0,1.0,1.0,0.0,4.0,16.666666,,,,,,,,39.0,0.0,0.312281,0.575928,0.133301,-0.7436520000000001,0.9433739999999999,-0.156252,-0.309575,-0.018406,-0.049239,-0.038484,,,,,,,,,,,,,,,,,,,,,,,,,,,,,,,,,,,,,,,,,,,,,,,,,,,,,,,,,,,,,,,,,
7491,1645650983.56962,79.0,0.0,4222.05127,4880.0,4278.974121,4275.897461,4177.94873,16057.0,3.0,59.0,,,,0.0,4.0,1.0,1.0,0.0,4.0,16.666666,,,,,,,,,,,,,,,,,,,,1.0,0.0,0.0,,,,,,,,,,,,,,,,,,,,,,,,,,,,,,,,0.0,0.0,1.0,0.0,512.0,1.0,190.237518,51.861561,17.117714000000003,40.105026,27.858725,860.63324,713.509827,385.93600499999997,1054.928711,772.442688,175.217438,182.643112,8.455252999999999,29.913791999999997,23.818783,0.308201,0.11878499999999999,0.09046599999999999,0.16884200000000002,0.187423,70.096375,75.680183,15.938870000000001,15.756528,13.022394
7492,1645650983.577434,80.0,0.0,4098.461426,4790.769043,4279.487305,4283.589844,4192.307617,450.0,3.0,59.0,,,,0.0,4.0,1.0,1.0,0.0,4.0,16.666666,,,,,,,,40.0,0.0,0.312281,0.575928,0.133301,-0.7436520000000001,0.9404440000000001,-0.16552999999999998,-0.295903,-0.018762,-0.049198,-0.034098,,,,,,,,,,,,,,,,,,,,,,,,,,,,,,,,,,,,,,,,,,,,,,,,,,,,,,,,,,,,,,,,,
7493,1645650983.585249,81.0,0.0,4136.410156,4514.358886999999,4330.769043,4280.0,4196.922852000001,450.0,3.0,59.0,,,,0.0,4.0,1.0,1.0,0.0,4.0,16.666666,,,,,,,,,,,,,,,,,,,,,,,,,,,,,,,,,,,,,,,,,,,,,,,,,,,,,,,,,,,,,,,,,,,,,,,,,,,,,,,,,,,,
7494,1645650983.593063,82.0,0.0,4264.102539,4454.358886999999,4328.717772999999,4272.307617,4189.230957,450.0,3.0,59.0,,,,0.0,4.0,1.0,1.0,0.0,4.0,16.666666,,,,,,,,41.0,0.0,0.312281,0.575928,0.133301,-0.7436520000000001,0.952651,-0.175784,-0.307134,-0.019278999999999998,-0.049112,-0.03645,,,,,,,,,,,,,,,,,,,,,,,,,,,,,,,,,,,,,,,,,,,,,,,,,,,,,,,,,,,,,,,,,
7495,1645650983.600878,83.0,0.0,4281.025879,4665.641113000001,4222.563965,4271.794922,4242.05127,16057.0,3.0,59.0,,,,0.0,4.0,1.0,1.0,0.0,4.0,16.666666,,,,,,,,,,,,,,,,,,,,,,,,,,,,,,,,,,,,,,,,,,,,,,,,,,,,,,0.0,0.0,1.0,0.0,512.0,1.0,,,,,,,,,,,,,,,,,,,,,,,,,
7496,1645650983.608692,84.0,0.0,4179.487305,4903.589844,4183.077147999999,4276.922852000001,4277.94873,450.0,3.0,59.0,,,,0.0,4.0,1.0,1.0,0.0,4.0,16.666666,,,,,,,,42.0,0.0,0.312627,0.575684,0.133545,-0.7436520000000001,0.95021,-0.160159,-0.304204,-0.019646,-0.049132999999999996,-0.032317,,,,,,,,,,,,,,,,,,,,,,,,,,,,,,,,,,,,,,,,,,,,,,,,,,,,,,,,,,,,,,,,,
7497,1645650983.616406,85.0,0.0,4155.384765999999,4701.538574,4262.563965,4279.487305,4232.307617,450.0,3.0,59.0,,,,0.0,4.0,1.0,1.0,0.0,4.0,16.666666,,,,,,,,,,,,,,,,,,,,,,,,,,,,,,,,,,,,,,,,,,,,,,,,,,,,,,,,,,,,,,,,,,,,,,,,,,,,,,,,,,,,
7498,1645650983.624221,86.0,0.0,4218.974121,4113.846191,4335.384765999999,4277.94873,4166.666504,450.0,3.0,59.0,,,,0.0,4.0,1.0,1.0,0.0,4.0,16.666666,,,,,,,,43.0,0.0,0.312731,0.575684,0.133301,-0.7436520000000001,0.936049,-0.170901,-0.309087,-0.017779,-0.049151,-0.028499,,,,,,,,,,,,,,,,,,,,,,,,,,,,,,,,,,,,,,,,,,,,,,,,,,,,,,,,,,,,,,,,,
7499,1645650983.631935,87.0,0.0,4314.358886999999,4132.307617,4236.922852000001,4272.820313,4254.871582,16057.0,3.0,59.0,,,,0.0,4.0,1.0,1.0,0.0,4.0,16.666666,,,,,,,,,,,,,,,,,,,,,,,,,,,,,,,,,,,,,,,,,,,,,,,,,,,,,,0.0,0.0,1.0,0.0,512.0,1.0,,,,,,,,,,,,,,,,,,,,,,,,,
7500,1645650983.63975,88.0,0.0,4308.205078,4901.538574,4111.794922,4270.769043,4383.589844,450.0,3.0,59.0,,,,0.0,4.0,1.0,1.0,0.0,4.0,16.666666,,,,,,,,44.0,0.0,0.312627,0.575684,0.133545,-0.7436520000000001,0.9585110000000001,-0.16211199999999998,-0.31250500000000003,-0.016782,-0.049020999999999995,-0.025064,,,,,,,,,,,,,,,,,,,,,,,,,,,,,,,,,,,,,,,,,,,,,,,,,,,,,,,,,,,,,,,,,
7501,1645650983.6475642,89.0,0.0,4285.128418,5031.794922,4149.743652,4278.974121,4361.025879,450.0,3.0,59.0,,,,0.0,4.0,1.0,1.0,0.0,4.0,16.666666,,,,,,,,,,,,,,,,,,,,,,,,,,,,,,,,,,,,,,,,,,,,,,,,,,,,,,,,,,,,,,,,,,,,,,,,,,,,,,,,,,,,
7502,1645650983.6553788,90.0,0.0,4328.717772999999,4301.538574,4247.179688,4278.461426,4234.871582,450.0,3.0,59.0,,,,0.0,4.0,1.0,1.0,0.0,4.0,16.666666,,,,,,,,45.0,0.0,0.31204499999999996,0.575684,0.133545,-0.743896,0.948257,-0.157229,-0.304692,-0.017399,-0.049051,-0.028221,,,,,,,,,,,,,,,,,,,,,,,,,,,,,,,,,,,,,,,,,,,,,,,,,,,,,,,,,,,,,,,,,
7503,1645650983.663193,91.0,0.0,4324.102539,4191.282227000001,4281.538574,4270.256348,4234.871582,16057.0,3.0,59.0,,,,0.0,4.0,1.0,1.0,0.0,4.0,16.666666,,,,,,,,,,,,,,,,,,,,,,,,,,,,,,,,,,,,,,,,,,,,,,,,,,,,,,0.0,0.0,1.0,0.0,512.0,1.0,,,,,,,,,,,,,,,,,,,,,,,,,
7504,1645650983.671007,92.0,0.0,4204.615234000001,4946.666504,4237.436035,4277.436035,4273.846191,450.0,3.0,59.0,,,,0.0,4.0,1.0,1.0,0.0,4.0,16.666666,,,,,,,,46.0,0.0,0.31215,0.575684,0.133301,-0.743896,0.946792,-0.161624,-0.303716,-0.017953999999999998,-0.049029,-0.031112,,,,,,,,,,,,,,,,,,,,,,,,,,,,,,,,,,,,,,,,,,,,,,,,,,,,,,,,,,,,,,,,,
7505,1645650983.678822,93.0,0.0,4173.333496,5076.410156,4256.410156,4286.666504,4280.0,450.0,3.0,59.0,,,,0.0,4.0,1.0,1.0,0.0,4.0,16.666666,,,,,,,,,,,,,,,,,,,,,,,,,,,,,,,,,,,,,,,,,,,,,,,,,,,,,,,,,,,,,,,,,,,,,,,,,,,,,,,,,,,,
7506,1645650983.6865358,94.0,0.0,4215.384765999999,4279.487305,4323.589844,4278.461426,4211.282227000001,450.0,3.0,59.0,,,,0.0,4.0,1.0,1.0,0.0,4.0,16.666666,,,,,,,,47.0,0.0,0.31215,0.575684,0.133301,-0.743896,0.944839,-0.155276,-0.301274,-0.018453999999999998,-0.049058,-0.033763,,,,,,,,,,,,,,,,,,,,,,,,,,,,,,,,,,,,,,,,,,,,,,,,,,,,,,,,,,,,,,,,,
7507,1645650983.694351,95.0,0.0,4252.307617,4011.794922,4391.282227000001,4270.769043,4155.384765999999,16057.0,3.0,59.0,,,,0.0,4.0,1.0,1.0,0.0,4.0,16.666666,0.96875,0.0,0.0,0.0,0.0,0.0,1.0,,,,,,,,,,,,,1.0,0.0,0.0,,,,,,,,,,,,,,,,,,,,,,,,,,,,,,,,0.0,0.0,1.0,0.0,512.0,1.0,79.941017,46.98148,17.139273,32.240463,19.729889,1190.549438,835.832642,357.035309,908.8776859999999,540.700012,173.334778,185.032791,8.330832000000001,29.564140000000002,18.593582,0.26199,0.130325,0.084346,0.145203,0.12931800000000002,62.301646999999996,77.248779,17.1527,15.100404000000001,11.796767
7508,1645650983.7021651,96.0,0.0,4224.615234000001,4708.717772999999,4309.230957,4272.820313,4185.128418,450.0,3.0,59.0,,,,0.0,4.0,1.0,1.0,0.0,4.0,16.666666,,,,,,,,48.0,0.0,0.31215,0.575684,0.133301,-0.743896,0.95021,-0.16406500000000002,-0.31299299999999997,-0.016656999999999998,-0.049132,-0.036246,,,,,,,,,,,,,,,,,,,,,,,,,,,,,,,,,,,,,,,,,,,,,,,,,,,,,,,,,,,,,,,,,
7509,1645650983.70998,97.0,0.0,4158.974121,5121.538574,4259.487305,4276.922852000001,4240.512695,450.0,3.0,59.0,,,,0.0,4.0,1.0,1.0,0.0,4.0,16.666666,,,,,,,,,,,,,,,,,,,,,,,,,,,,,,,,,,,,,,,,,,,,,,,,,,,,,,,,,,,,,,,,,,,,,,,,,,,,,,,,,,,,
7510,1645650983.717794,98.0,0.0,4162.563965,4675.897461,4324.615234000001,4278.461426,4216.410156,450.0,3.0,59.0,,,,0.0,4.0,1.0,1.0,0.0,4.0,16.666666,,,,,,,,49.0,0.0,0.31215,0.575684,0.133301,-0.743896,0.944839,-0.160647,-0.313481,-0.017384,-0.049102,-0.038383,,,,,,,,,,,,,,,,,,,,,,,,,,,,,,,,,,,,,,,,,,,,,,,,,,,,,,,,,,,,,,,,,
7511,1645650983.725608,99.0,0.0,4249.743652,4230.256348,4343.077147999999,4274.871582,4153.846191,16057.0,3.0,59.0,,,,0.0,4.0,1.0,1.0,0.0,4.0,16.666666,,,,,,,,,,,,,,,,,,,,,,,,,,,,,,,,,,,,,,,,,,,,,,,,,,,,,,0.0,0.0,1.0,0.0,512.0,1.0,,,,,,,,,,,,,,,,,,,,,,,,,
7512,1645650983.733423,100.0,0.0,4314.358886999999,4490.769043,4208.717772999999,4272.307617,4221.025879,450.0,3.0,59.0,,,,0.0,4.0,1.0,1.0,0.0,4.0,16.666666,,,,,,,,50.0,0.0,0.31215,0.575684,0.133301,-0.743896,0.949722,-0.165042,-0.303716,-0.017988999999999998,-0.049075,-0.033958999999999996,,,,,,,,,,,,,,,,,,,,,,,,,,,,,,,,,,,,,,,,,,,,,,,,,,,,,,,,,,,,,,,,,
7513,1645650983.741237,101.0,0.0,4236.922852000001,5085.128418,4152.820313,4275.897461,4322.563965,450.0,3.0,59.0,,,,0.0,4.0,1.0,1.0,0.0,4.0,16.666666,,,,,,,,,,,,,,,,,,,,,,,,,,,,,,,,,,,,,,,,,,,,,,,,,,,,,,,,,,,,,,,,,,,,,,,,,,,,,,,,,,,,
7514,1645650983.749052,102.0,0.0,4185.641113000001,4935.384765999999,4265.641113000001,4278.974121,4271.794922,450.0,3.0,59.0,,,,0.0,4.0,1.0,1.0,0.0,4.0,16.666666,,,,,,,,51.0,0.0,0.31215,0.575684,0.133301,-0.743896,0.9580219999999999,-0.166506,-0.30518,-0.016923,-0.04905,-0.036325,,,,,,,,,,,,,,,,,,,,,,,,,,,,,,,,,,,,,,,,,,,,,,,,,,,,,,,,,,,,,,,,,
7515,1645650983.756866,103.0,0.0,4258.461426,4099.487305,4349.743652,4274.871582,4168.717772999999,16057.0,3.0,59.0,,,,0.0,4.0,1.0,1.0,0.0,4.0,16.666666,,,,,,,,,,,,,,,,,,,,,,,,,,,,,,,,,,,,,,,,,,,,,,,,,,,,,,0.0,0.0,1.0,0.0,512.0,1.0,,,,,,,,,,,,,,,,,,,,,,,,,
7516,1645650983.764581,104.0,0.0,4336.410156,4178.461426,4258.461426,4272.307617,4263.077147999999,450.0,3.0,59.0,,,,0.0,4.0,1.0,1.0,0.0,4.0,16.666666,,,,,,,,52.0,0.0,0.31215,0.575684,0.133301,-0.743896,0.949233,-0.172854,-0.31006300000000003,-0.015913999999999998,-0.049027999999999995,-0.038308,,,,,,,,,,,,,,,,,,,,,,,,,,,,,,,,,,,,,,,,,,,,,,,,,,,,,,,,,,,,,,,,,
7517,1645650983.772395,105.0,0.0,4251.282227000001,5049.743652,4162.05127,4276.922852000001,4333.846191,450.0,3.0,59.0,,,,0.0,4.0,1.0,1.0,0.0,4.0,16.666666,,,,,,,,,,,,,,,,,,,,,,,,,,,,,,,,,,,,,,,,,,,,,,,,,,,,,,,,,,,,,,,,,,,,,,,,,,,,,,,,,,,,
7518,1645650983.780209,106.0,0.0,4229.230957,4976.922852000001,4177.94873,4280.512695,4275.384765999999,450.0,3.0,59.0,,,,0.0,4.0,1.0,1.0,0.0,4.0,16.666666,,,,,,,,53.0,0.0,0.31215,0.575684,0.133301,-0.743896,0.949722,-0.165042,-0.303716,-0.016666999999999998,-0.049007999999999996,-0.033891000000000004,,,,,,,,,,,,,,,,,,,,,,,,,,,,,,,,,,,,,,,,,,,,,,,,,,,,,,,,,,,,,,,,,
7519,1645650983.788024,107.0,0.0,4369.230957,4307.692383,4215.897461,4274.358886999999,4259.487305,16057.0,3.0,59.0,,,,0.0,4.0,1.0,1.0,0.0,4.0,16.666666,,,,,,,,,,,,,,,,,,,,,,,,,,,,,,,,,,,,,,,,,,,,,,,,,,,,,,0.0,0.0,1.0,0.0,512.0,1.0,,,,,,,,,,,,,,,,,,,,,,,,,
7520,1645650983.795838,108.0,0.0,4394.871582,4463.077147999999,4268.205078,4269.230957,4301.538574,450.0,3.0,59.0,,,,0.0,4.0,1.0,1.0,0.0,4.0,16.666666,,,,,,,,54.0,0.0,0.31215,0.575684,0.133301,-0.743896,0.956558,-0.166018,-0.307134,-0.017344,-0.049088,-0.030014,,,,,,,,,,,,,,,,,,,,,,,,,,,,,,,,,,,,,,,,,,,,,,,,,,,,,,,,,,,,,,,,,
7521,1645650983.803653,109.0,0.0,4216.922852000001,4968.205078,4284.102539,4278.461426,4237.94873,450.0,3.0,59.0,,,,0.0,4.0,1.0,1.0,0.0,4.0,16.666666,,,,,,,,,,,,,,,,,,,,,,,,,,,,,,,,,,,,,,,,,,,,,,,,,,,,,,,,,,,,,,,,,,,,,,,,,,,,,,,,,,,,
7522,1645650983.811467,110.0,0.0,4172.307617,4852.307617,4301.538574,4285.641113000001,4221.025879,450.0,3.0,59.0,,,,0.0,4.0,1.0,1.0,0.0,4.0,16.666666,,,,,,,,55.0,0.0,0.312731,0.575684,0.133301,-0.7436520000000001,0.960952,-0.166018,-0.303227,-0.017904,-0.049111,-0.032774,,,,,,,,,,,,,,,,,,,,,,,,,,,,,,,,,,,,,,,,,,,,,,,,,,,,,,,,,,,,,,,,,
7523,1645650983.819281,111.0,0.0,4256.410156,4449.743652,4313.333496,4276.922852000001,4232.307617,16057.0,3.0,59.0,,,,0.0,4.0,1.0,1.0,0.0,4.0,16.666666,,,,,,,,,,,,,,,,,,,,1.0,0.0,0.0,,,,,,,,,,,,,,,,,,,,,,,,,,,,,,,,0.0,0.0,1.0,0.0,512.0,1.0,60.29512,44.342873,17.718657,26.5077,15.332061999999999,1434.4567869999998,927.1257929999999,379.330414,845.744446,365.879883,168.52272,185.98956299999998,9.174000999999999,29.104397,15.198291000000001,0.25590999999999997,0.137544,0.084833,0.137406,0.08855299999999999,59.43345600000001,76.856262,19.371582,16.131596,10.983184
7524,1645650983.827096,112.0,0.0,4286.153809,4414.358886999999,4367.692383,4266.666504,4191.282227000001,450.0,3.0,59.0,,,,0.0,4.0,1.0,1.0,0.0,4.0,16.666666,,,,,,,,56.0,0.0,0.312731,0.575684,0.133301,-0.7436520000000001,0.946792,-0.161135,-0.304204,-0.018311,-0.04918,-0.028911000000000003,,,,,,,,,,,,,,,,,,,,,,,,,,,,,,,,,,,,,,,,,,,,,,,,,,,,,,,,,,,,,,,,,
7525,1645650983.83481,113.0,0.0,4229.743652,4804.102539,4307.179688,4270.256348,4197.94873,450.0,3.0,59.0,,,,0.0,4.0,1.0,1.0,0.0,4.0,16.666666,,,,,,,,,,,,,,,,,,,,,,,,,,,,,,,,,,,,,,,,,,,,,,,,,,,,,,,,,,,,,,,,,,,,,,,,,,,,,,,,,,,,
7526,1645650983.842625,114.0,0.0,4173.333496,5024.615234000001,4260.0,4280.0,4247.692383,450.0,3.0,59.0,,,,0.0,4.0,1.0,1.0,0.0,4.0,16.666666,,,,,,,,57.0,0.0,0.312731,0.575684,0.133301,-0.7436520000000001,0.9472799999999999,-0.174319,-0.30225100000000005,-0.016627,-0.049243,-0.031733,,,,,,,,,,,,,,,,,,,,,,,,,,,,,,,,,,,,,,,,,,,,,,,,,,,,,,,,,,,,,,,,,
7527,1645650983.8503392,115.0,0.0,4191.282227000001,4555.384765999999,4315.897461,4282.05127,4221.538574,16057.0,3.0,59.0,,,,0.0,4.0,1.0,1.0,0.0,4.0,16.666666,,,,,,,,,,,,,,,,,,,,,,,,,,,,,,,,,,,,,,,,,,,,,,,,,,,,,,0.0,0.0,1.0,0.0,512.0,1.0,,,,,,,,,,,,,,,,,,,,,,,,,
7528,1645650983.8581538,116.0,0.0,4260.512695,3972.3076170000004,4333.846191,4274.871582,4154.358886999999,450.0,3.0,59.0,,,,0.0,4.0,1.0,1.0,0.0,4.0,16.666666,,,,,,,,58.0,0.0,0.312731,0.575684,0.133301,-0.7436520000000001,0.941421,-0.16846,-0.315923,-0.015943000000000002,-0.04935,-0.030307999999999998,,,,,,,,,,,,,,,,,,,,,,,,,,,,,,,,,,,,,,,,,,,,,,,,,,,,,,,,,,,,,,,,,
7529,1645650983.865968,117.0,0.0,4334.871582,4243.589844,4194.871582,4271.794922,4215.897461,450.0,3.0,59.0,,,,0.0,4.0,1.0,1.0,0.0,4.0,16.666666,,,,,,,,,,,,,,,,,,,,,,,,,,,,,,,,,,,,,,,,,,,,,,,,,,,,,,,,,,,,,,,,,,,,,,,,,,,,,,,,,,,,
7530,1645650983.873782,118.0,0.0,4273.846191,5005.641113000001,4138.461426,4280.0,4314.871582,450.0,3.0,59.0,,,,0.0,4.0,1.0,1.0,0.0,4.0,16.666666,,,,,,,,59.0,0.0,0.31204499999999996,0.575684,0.133545,-0.743896,0.945327,-0.166995,-0.31006300000000003,-0.016693,-0.049346,-0.03299,,,,,,,,,,,,,,,,,,,,,,,,,,,,,,,,,,,,,,,,,,,,,,,,,,,,,,,,,,,,,,,,,
7531,1645650983.881597,119.0,0.0,4249.230957,4931.794922,4277.436035,4284.102539,4301.538574,16057.0,3.0,59.0,,,,0.0,4.0,1.0,1.0,0.0,4.0,16.666666,,,,,,,,,,,,,,,,,,,,,,,,,,,,,,,,,,,,,,,,,,,,,,,,,,,,,,0.0,0.0,1.0,0.0,512.0,1.0,,,,,,,,,,,,,,,,,,,,,,,,,
