,Timestamp,EEG.Counter,EEG.Interpolated,EEG.AF3,EEG.T7,EEG.Pz,EEG.T8,EEG.AF4,EEG.RawCq,EEG.Battery,EEG.BatteryPercent,MarkerIndex,MarkerType,MarkerValueInt,EEG.MarkerHardware,CQ.AF3,CQ.T7,CQ.Pz,CQ.T8,CQ.AF4,CQ.Overall,EQ.SampleRateQuality,EQ.OVERALL,EQ.AF3,EQ.T7,EQ.Pz,EQ.T8,EQ.AF4,MOT.CounterMems,MOT.InterpolatedMems,MOT.Q0,MOT.Q1,MOT.Q2,MOT.Q3,MOT.AccX,MOT.AccY,MOT.AccZ,MOT.MagX,MOT.MagY,MOT.MagZ,MC.Action,MC.ActionPower,MC.IsActive,PM.Engagement.IsActive,PM.Engagement.Scaled,PM.Engagement.Raw,PM.Engagement.Min,PM.Engagement.Max,PM.Excitement.IsActive,PM.Excitement.Scaled,PM.Excitement.Raw,PM.Excitement.Min,PM.Excitement.Max,PM.LongTermExcitement,PM.Stress.IsActive,PM.Stress.Scaled,PM.Stress.Raw,PM.Stress.Min,PM.Stress.Max,PM.Relaxation.IsActive,PM.Relaxation.Scaled,PM.Relaxation.Raw,PM.Relaxation.Min,PM.Relaxation.Max,PM.Interest.IsActive,PM.Interest.Scaled,PM.Interest.Raw,PM.Interest.Min,PM.Interest.Max,PM.Focus.IsActive,PM.Focus.Scaled,PM.Focus.Raw,PM.Focus.Min,PM.Focus.Max,FE.BlinkWink,FE.HorizontalEyesDirection,FE.UpperFaceAction,FE.UpperFaceActionPower,FE.LowerFaceAction,FE.LowerFaceActionPower,POW.AF3.Theta,POW.AF3.Alpha,POW.AF3.BetaL,POW.AF3.BetaH,POW.AF3.Gamma,POW.T7.Theta,POW.T7.Alpha,POW.T7.BetaL,POW.T7.BetaH,POW.T7.Gamma,POW.Pz.Theta,POW.Pz.Alpha,POW.Pz.BetaL,POW.Pz.BetaH,POW.Pz.Gamma,POW.T8.Theta,POW.T8.Alpha,POW.T8.BetaL,POW.T8.BetaH,POW.T8.Gamma,POW.AF4.Theta,POW.AF4.Alpha,POW.AF4.BetaL,POW.AF4.BetaH,POW.AF4.Gamma
2071,1645650941.2196698,35.0,0.0,4251.282227000001,4400.0,4344.102539,4283.589844,4159.487305,0.0,3.0,59.0,3.0,1.0,3.0,0.0,4.0,1.0,4.0,0.0,2.0,25.0,,,,,,,,,,,,,,,,,,,,,,,,,,,,,,,,,,,,,,,,,,,,,,,,,,,,,,0.0,0.0,1.0,0.0,512.0,1.0,,,,,,,,,,,,,,,,,,,,,,,,,
2072,1645650941.227485,36.0,0.0,4213.846191,4466.153809,4338.461426,4279.487305,4207.692383,0.0,3.0,59.0,,,,0.0,4.0,1.0,4.0,0.0,2.0,25.0,,,,,,,,18.0,0.0,0.319644,0.573242,0.14209000000000002,-0.740967,0.94435,-0.144533,-0.31543499999999997,-0.013488,-0.04943,-0.036335,,,,,,,,,,,,,,,,,,,,,,,,,,,,,,,,,,,,,,,,,,,,,,,,,,,,,,,,,,,,,,,,,
2073,1645650941.235299,37.0,0.0,4166.666504,4867.179688,4325.641113000001,4285.128418,4221.025879,0.0,3.0,59.0,,,,0.0,4.0,1.0,4.0,0.0,2.0,25.0,,,,,,,,,,,,,,,,,,,,,,,,,,,,,,,,,,,,,,,,,,,,,,,,,,,,,,,,,,,,,,,,,,,,,,,,,,,,,,,,,,,,
2074,1645650941.243114,38.0,0.0,4230.256348,4765.641113000001,4318.974121,4284.102539,4193.333496,0.0,3.0,59.0,,,,0.0,4.0,1.0,4.0,0.0,2.0,25.0,,,,,,,,19.0,0.0,0.320209,0.573242,0.14209000000000002,-0.7407229999999999,0.9712059999999999,-0.154788,-0.301762,-0.014629,-0.04937,-0.038366000000000004,,,,,,,,,,,,,,,,,,,,,,,,,,,,,,,,,,,,,,,,,,,,,,,,,,,,,,,,,,,,,,,,,
2075,1645650941.250928,39.0,0.0,4316.922852000001,4788.205078,4297.436035,4273.846191,4265.128418,0.0,3.0,59.0,,,,0.0,4.0,1.0,4.0,0.0,2.0,25.0,,,,,,,,,,,,,,,,,,,,,,,,,,,,,,,,,,,,,,,,,,,,,,,,,,,,,,0.0,0.0,1.0,0.0,512.0,1.0,,,,,,,,,,,,,,,,,,,,,,,,,
2076,1645650941.258743,40.0,0.0,4285.641113000001,4687.692383,4280.0,4278.974121,4273.846191,0.0,3.0,59.0,,,,0.0,4.0,1.0,4.0,0.0,2.0,25.0,,,,,,,,20.0,0.0,0.31966300000000003,0.5734859999999999,0.142334,-0.7407229999999999,0.973159,-0.152834,-0.303227,-0.015559,-0.049267,-0.033846,,,,,,,,,,,,,,,,,,,,,,,,,,,,,,,,,,,,,,,,,,,,,,,,,,,,,,,,,,,,,,,,,
2077,1645650941.266558,41.0,0.0,4281.538574,4167.179688,4298.974121,4282.05127,4168.717772999999,0.0,3.0,59.0,,,,0.0,4.0,1.0,4.0,0.0,2.0,25.0,,,,,,,,,,,,,,,,,,,,,,,,,,,,,,,,,,,,,,,,,,,,,,,,,,,,,,,,,,,,,,,,,,,,,,,,,,,,,,,,,,,,
2078,1645650941.274372,42.0,0.0,4313.846191,4367.179688,4228.205078,4276.410156,4193.846191,0.0,3.0,59.0,,,,0.0,4.0,1.0,4.0,0.0,2.0,25.0,,,,,,,,21.0,0.0,0.31966300000000003,0.5734859999999999,0.142334,-0.7407229999999999,0.952651,-0.155276,-0.311528,-0.016298,-0.04937,-0.036223000000000005,,,,,,,,,,,,,,,,,,,,,,,,,,,,,,,,,,,,,,,,,,,,,,,,,,,,,,,,,,,,,,,,,
2079,1645650941.282187,43.0,0.0,4262.563965,4791.282227000001,4173.333496,4280.0,4225.128418,0.0,3.0,59.0,,,,0.0,4.0,1.0,4.0,0.0,2.0,25.0,,,,,,,,,,,,,,,,,,,,,,,,,,,,,,,,,,,,,,,,,,,,,,,,,,,,,,0.0,0.0,1.0,0.0,512.0,1.0,,,,,,,,,,,,,,,,,,,,,,,,,
2080,1645650941.2900019,44.0,0.0,4266.666504,4639.487305,4188.717772999999,4286.153809,4218.974121,0.0,3.0,59.0,,,,0.0,4.0,1.0,4.0,0.0,2.0,25.0,,,,,,,,22.0,0.0,0.31966300000000003,0.5734859999999999,0.142334,-0.7407229999999999,0.9585110000000001,-0.15332300000000001,-0.310552,-0.017158,-0.049316000000000006,-0.038265,,,,,,,,,,,,,,,,,,,,,,,,,,,,,,,,,,,,,,,,,,,,,,,,,,,,,,,,,,,,,,,,,
2081,1645650941.297916,45.0,0.0,4288.205078,4591.282227000001,4205.128418,4282.563965,4232.820313,0.0,3.0,59.0,,,,0.0,4.0,1.0,4.0,0.0,2.0,25.0,,,,,,,,,,,,,,,,,,,,,,,,,,,,,,,,,,,,,,,,,,,,,,,,,,,,,,,,,,,,,,,,,,,,,,,,,,,,,,,,,,,,
2082,1645650941.30573,46.0,0.0,4287.692383,4879.487305,4220.0,4281.538574,4288.205078,0.0,3.0,59.0,,,,0.0,4.0,1.0,4.0,0.0,2.0,25.0,,,,,,,,23.0,0.0,0.31966300000000003,0.5734859999999999,0.142334,-0.7407229999999999,0.9438620000000001,-0.157717,-0.299809,-0.017786,-0.049267,-0.040103,,,,,,,,,,,,,,,,,,,,,,,,,,,,,,,,,,,,,,,,,,,,,,,,,,,,,,,,,,,,,,,,,
2083,1645650941.313545,47.0,0.0,4232.820313,4898.461426,4236.410156,4285.128418,4272.820313,0.0,3.0,59.0,,,,0.0,4.0,1.0,4.0,0.0,2.0,25.0,,,,,,,,,,,,,,,,,,,,1.0,0.0,0.0,,,,,,,,,,,,,,,,,,,,,,,,,,,,,,,,0.0,0.0,1.0,0.0,512.0,1.0,28.836683,31.254540999999996,79.957466,22.02861,11.028633000000001,34.533405,137.61523400000002,818.781555,382.967834,402.64703399999996,149.305923,166.246735,51.435936,14.258632999999998,8.418364,0.032563,0.114007,0.443906,0.171639,0.12356400000000001,52.128071000000006,47.784348,48.682121,16.28163,6.307322
2084,1645650941.321359,48.0,0.0,4231.282227000001,4672.820313,4276.922852000001,4284.102539,4241.538574,0.0,3.0,59.0,,,,0.0,4.0,1.0,4.0,0.0,2.0,25.0,,,,,,,,24.0,0.0,0.31966300000000003,0.5734859999999999,0.142334,-0.7407229999999999,0.948257,-0.171389,-0.314946,-0.018352,-0.04937,-0.035408999999999996,,,,,,,,,,,,,,,,,,,,,,,,,,,,,,,,,,,,,,,,,,,,,,,,,,,,,,,,,,,,,,,,,
2085,1645650941.329174,49.0,0.0,4258.974121,4868.205078,4283.077147999999,4277.94873,4255.384765999999,0.0,3.0,59.0,,,,0.0,4.0,1.0,4.0,0.0,2.0,25.0,,,,,,,,,,,,,,,,,,,,,,,,,,,,,,,,,,,,,,,,,,,,,,,,,,,,,,,,,,,,,,,,,,,,,,,,,,,,,,,,,,,,
2086,1645650941.336988,50.0,0.0,4253.846191,5013.846191,4328.717772999999,4277.94873,4288.717772999999,0.0,3.0,59.0,,,,0.0,4.0,1.0,4.0,0.0,2.0,25.0,,,,,,,,25.0,0.0,0.31966300000000003,0.5734859999999999,0.142334,-0.7407229999999999,0.941421,-0.167483,-0.309087,-0.018763,-0.049316000000000006,-0.037581,,,,,,,,,,,,,,,,,,,,,,,,,,,,,,,,,,,,,,,,,,,,,,,,,,,,,,,,,,,,,,,,,
2087,1645650941.344802,51.0,0.0,4242.563965,4417.94873,4393.333496,4279.487305,4232.307617,0.0,3.0,59.0,,,,0.0,4.0,1.0,4.0,0.0,2.0,25.0,,,,,,,,,,,,,,,,,,,,,,,,,,,,,,,,,,,,,,,,,,,,,,,,,,,,,,0.0,0.0,1.0,0.0,512.0,1.0,,,,,,,,,,,,,,,,,,,,,,,,,
2088,1645650941.352617,52.0,0.0,4269.230957,4160.512695,4408.717772999999,4278.461426,4170.769043,0.0,3.0,59.0,,,,0.0,4.0,1.0,4.0,0.0,2.0,25.0,,,,,,,,26.0,0.0,0.319554,0.5734859999999999,0.142578,-0.7407229999999999,0.9428850000000001,-0.152834,-0.30518,-0.01923,-0.049267,-0.039487,,,,,,,,,,,,,,,,,,,,,,,,,,,,,,,,,,,,,,,,,,,,,,,,,,,,,,,,,,,,,,,,,
2089,1645650941.360431,53.0,0.0,4246.153809,4649.743652,4337.436035,4282.05127,4177.94873,0.0,3.0,59.0,,,,0.0,4.0,1.0,4.0,0.0,2.0,25.0,,,,,,,,,,,,,,,,,,,,,,,,,,,,,,,,,,,,,,,,,,,,,,,,,,,,,,,,,,,,,,,,,,,,,,,,,,,,,,,,,,,,
2090,1645650941.368346,54.0,0.0,4207.692383,4716.922852000001,4318.974121,4284.615234000001,4178.461426,0.0,3.0,59.0,,,,0.0,4.0,1.0,4.0,0.0,2.0,25.0,,,,,,,,27.0,0.0,0.319554,0.5734859999999999,0.142578,-0.7407229999999999,0.95314,-0.155276,-0.303227,-0.019651,-0.049321,-0.041154,,,,,,,,,,,,,,,,,,,,,,,,,,,,,,,,,,,,,,,,,,,,,,,,,,,,,,,,,,,,,,,,,
2091,1645650941.37616,55.0,0.0,4215.384765999999,4551.282227000001,4267.692383,4279.487305,4159.487305,0.0,3.0,59.0,,,,0.0,4.0,1.0,4.0,0.0,2.0,25.0,,,,,,,,,,,,,,,,,,,,,,,,,,,,,,,,,,,,,,,,,,,,,,,,,,,,,,0.0,0.0,1.0,0.0,512.0,1.0,,,,,,,,,,,,,,,,,,,,,,,,,
2092,1645650941.384074,56.0,0.0,4161.025879,4671.282227000001,4236.922852000001,4282.563965,4150.769043,0.0,3.0,59.0,,,,0.0,4.0,1.0,4.0,0.0,2.0,25.0,,,,,,,,28.0,0.0,0.319883,0.573242,0.142822,-0.7407229999999999,0.95021,-0.150393,-0.298833,-0.020127000000000003,-0.049223,-0.036452,,,,,,,,,,,,,,,,,,,,,,,,,,,,,,,,,,,,,,,,,,,,,,,,,,,,,,,,,,,,,,,,,
2093,1645650941.391889,57.0,0.0,4188.205078,4675.384765999999,4259.487305,4285.128418,4167.179688,0.0,3.0,59.0,,,,0.0,4.0,1.0,4.0,0.0,2.0,25.0,,,,,,,,,,,,,,,,,,,,,,,,,,,,,,,,,,,,,,,,,,,,,,,,,,,,,,,,,,,,,,,,,,,,,,,,,,,,,,,,,,,,
2094,1645650941.399704,58.0,0.0,4280.0,4918.461426,4228.205078,4273.846191,4228.205078,0.0,3.0,59.0,,,,0.0,4.0,1.0,4.0,0.0,2.0,25.0,,,,,,,,29.0,0.0,0.319317,0.573242,0.142822,-0.740967,0.945815,-0.148928,-0.309087,-0.018896,-0.049281,-0.03852,,,,,,,,,,,,,,,,,,,,,,,,,,,,,,,,,,,,,,,,,,,,,,,,,,,,,,,,,,,,,,,,,
2095,1645650941.407518,59.0,0.0,4257.94873,4874.871582,4219.487305,4272.307617,4242.563965,0.0,3.0,59.0,,,,0.0,4.0,1.0,4.0,0.0,2.0,25.0,,,,,,,,,,,,,,,,,,,,,,,,,,,,,,,,,,,,,,,,,,,,,,,,,,,,,,0.0,0.0,1.0,0.0,512.0,1.0,,,,,,,,,,,,,,,,,,,,,,,,,
2096,1645650941.415333,60.0,0.0,4253.846191,4242.563965,4298.974121,4279.487305,4194.358886999999,0.0,3.0,59.0,,,,0.0,4.0,1.0,4.0,0.0,2.0,25.0,,,,,,,,30.0,0.0,0.319317,0.573242,0.142822,-0.740967,0.9555809999999999,-0.156252,-0.30811,-0.01935,-0.049333999999999996,-0.040283,,,,,,,,,,,,,,,,,,,,,,,,,,,,,,,,,,,,,,,,,,,,,,,,,,,,,,,,,,,,,,,,,
2097,1645650941.4231482,61.0,0.0,4344.615234000001,4200.0,4299.487305,4280.512695,4252.307617,0.0,3.0,59.0,,,,0.0,4.0,1.0,4.0,0.0,2.0,25.0,,,,,,,,,,,,,,,,,,,,,,,,,,,,,,,,,,,,,,,,,,,,,,,,,,,,,,,,,,,,,,,,,,,,,,,,,,,,,,,,,,,,
2098,1645650941.4309618,62.0,0.0,4326.153809,4422.563965,4273.333496,4278.974121,4261.025879,0.0,3.0,59.0,,,,0.0,4.0,1.0,4.0,0.0,2.0,25.0,,,,,,,,31.0,0.0,0.319317,0.573242,0.142822,-0.740967,0.956558,-0.150393,-0.307622,-0.019808000000000003,-0.049381,-0.042017,,,,,,,,,,,,,,,,,,,,,,,,,,,,,,,,,,,,,,,,,,,,,,,,,,,,,,,,,,,,,,,,,
2099,1645650941.4388769,63.0,0.0,4299.487305,4406.153809,4284.102539,4281.025879,4248.205078,0.0,3.0,59.0,,,,0.0,2.0,0.0,2.0,0.0,2.0,16.666666,,,,,,,,,,,,,,,,,,,,1.0,0.0,0.0,,,,,,,,,,,,,,,,,,,,,,,,,,,,,,,,0.0,0.0,1.0,0.0,512.0,1.0,28.433125,33.715759000000006,79.53611,17.930654999999998,9.441622,29.015074,156.736771,968.488525,324.52475,340.910858,156.994751,178.376114,56.685157999999994,10.916142,7.888319999999999,0.037584,0.12359500000000001,0.47603100000000004,0.144026,0.11954000000000001,52.180733000000004,47.559055,55.227554000000005,12.667805,6.037026
2100,1645650941.446692,64.0,0.0,4274.871582,4600.0,4255.384765999999,4286.153809,4252.820313,450.0,3.0,59.0,,,,0.0,2.0,0.0,2.0,0.0,2.0,16.666666,,,,,,,,32.0,0.0,0.319317,0.573242,0.142822,-0.740967,0.945815,-0.148928,-0.309087,-0.018608,-0.049423,-0.043528,,,,,,,,,,,,,,,,,,,,,,,,,,,,,,,,,,,,,,,,,,,,,,,,,,,,,,,,,,,,,,,,,
2101,1645650941.4545062,65.0,0.0,4288.717772999999,4724.102539,4261.025879,4287.179688,4247.179688,450.0,3.0,59.0,,,,0.0,2.0,0.0,2.0,0.0,2.0,16.666666,,,,,,,,,,,,,,,,,,,,,,,,,,,,,,,,,,,,,,,,,,,,,,,,,,,,,,,,,,,,,,,,,,,,,,,,,,,,,,,,,,,,
2102,1645650941.462321,66.0,0.0,4305.641113000001,4743.589844,4246.666504,4280.0,4272.820313,304.0,3.0,59.0,,,,0.0,2.0,0.0,2.0,0.0,2.0,16.666666,,,,,,,,33.0,0.0,0.319317,0.573242,0.142822,-0.740967,0.956558,-0.150393,-0.307622,-0.01914,-0.049461,-0.044937,,,,,,,,,,,,,,,,,,,,,,,,,,,,,,,,,,,,,,,,,,,,,,,,,,,,,,,,,,,,,,,,,
2103,1645650941.470135,67.0,0.0,4258.461426,4767.692383,4262.563965,4280.0,4305.128418,450.0,3.0,59.0,,,,0.0,2.0,0.0,2.0,0.0,2.0,16.666666,,,,,,,,,,,,,,,,,,,,,,,,,,,,,,,,,,,,,,,,,,,,,,,,,,,,,,0.0,0.0,1.0,0.0,512.0,1.0,,,,,,,,,,,,,,,,,,,,,,,,,
2104,1645650941.47795,68.0,0.0,4246.153809,4617.94873,4280.0,4281.538574,4230.256348,0.0,3.0,59.0,,,,0.0,2.0,0.0,2.0,0.0,2.0,16.666666,,,,,,,,34.0,0.0,0.319317,0.573242,0.142822,-0.740967,0.9546040000000001,-0.145998,-0.304204,-0.019619,-0.049398000000000004,-0.039809,,,,,,,,,,,,,,,,,,,,,,,,,,,,,,,,,,,,,,,,,,,,,,,,,,,,,,,,,,,,,,,,,
2105,1645650941.485765,69.0,0.0,4295.384765999999,4729.230957,4298.461426,4273.846191,4198.974121,450.0,3.0,59.0,,,,0.0,2.0,0.0,2.0,0.0,2.0,16.666666,,,,,,,,,,,,,,,,,,,,,,,,,,,,,,,,,,,,,,,,,,,,,,,,,,,,,,,,,,,,,,,,,,,,,,,,,,,,,,,,,,,,
2106,1645650941.493579,70.0,0.0,4253.846191,4720.0,4338.974121,4275.384765999999,4220.512695,320.0,3.0,59.0,,,,0.0,2.0,0.0,2.0,0.0,2.0,16.666666,,,,,,,,35.0,0.0,0.319317,0.573242,0.142822,-0.740967,0.9521629999999999,-0.165042,-0.303716,-0.020049,-0.049439,-0.035291,,,,,,,,,,,,,,,,,,,,,,,,,,,,,,,,,,,,,,,,,,,,,,,,,,,,,,,,,,,,,,,,,
2107,1645650941.501394,71.0,0.0,4232.820313,4252.307617,4388.717772999999,4283.077147999999,4190.769043,450.0,3.0,59.0,,,,0.0,2.0,0.0,2.0,0.0,2.0,16.666666,,,,,,,,,,,,,,,,,,,,,,,,,,,,,,,,,,,,,,,,,,,,,,,,,,,,,,0.0,0.0,1.0,0.0,512.0,1.0,,,,,,,,,,,,,,,,,,,,,,,,,
2108,1645650941.509309,72.0,0.0,4278.974121,4528.205078,4284.102539,4283.077147999999,4196.922852000001,450.0,3.0,59.0,,,,0.0,2.0,0.0,2.0,0.0,2.0,16.666666,,,,,,,,36.0,0.0,0.319317,0.573242,0.142822,-0.740967,0.9550930000000001,-0.15332300000000001,-0.294926,-0.018142,-0.049329000000000005,-0.037328,,,,,,,,,,,,,,,,,,,,,,,,,,,,,,,,,,,,,,,,,,,,,,,,,,,,,,,,,,,,,,,,,
2109,1645650941.517123,73.0,0.0,4230.769043,4883.589844,4211.282227000001,4284.615234000001,4209.230957,0.0,3.0,59.0,,,,0.0,2.0,0.0,2.0,0.0,2.0,16.666666,,,,,,,,,,,,,,,,,,,,,,,,,,,,,,,,,,,,,,,,,,,,,,,,,,,,,,,,,,,,,,,,,,,,,,,,,,,,,,,,,,,,
2110,1645650941.524938,74.0,0.0,4266.153809,4511.794922,4189.743652,4283.077147999999,4236.922852000001,450.0,3.0,59.0,,,,0.0,2.0,0.0,2.0,0.0,2.0,16.666666,,,,,,,,37.0,0.0,0.319317,0.573242,0.142822,-0.740967,0.9521629999999999,-0.160159,-0.31250500000000003,-0.018574,-0.049474000000000004,-0.039307999999999996,,,,,,,,,,,,,,,,,,,,,,,,,,,,,,,,,,,,,,,,,,,,,,,,,,,,,,,,,,,,,,,,,
2111,1645650941.532753,75.0,0.0,4357.436035,4667.179688,4148.717772999999,4275.384765999999,4305.641113000001,265.0,3.0,59.0,,,,0.0,2.0,0.0,2.0,0.0,2.0,16.666666,,,,,,,,,,,,,,,,,,,,,,,,,,,,,,,,,,,,,,,,,,,,,,,,,,,,,,0.0,0.0,1.0,0.0,512.0,1.0,,,,,,,,,,,,,,,,,,,,,,,,,
2112,1645650941.540567,76.0,0.0,4355.384765999999,4916.922852000001,4159.487305,4278.974121,4308.717772999999,450.0,3.0,59.0,,,,0.0,2.0,0.0,2.0,0.0,2.0,16.666666,,,,,,,,38.0,0.0,0.319317,0.573242,0.142822,-0.740967,0.95021,-0.150881,-0.307622,-0.019109,-0.049556,-0.041139,,,,,,,,,,,,,,,,,,,,,,,,,,,,,,,,,,,,,,,,,,,,,,,,,,,,,,,,,,,,,,,,,
2113,1645650941.548382,77.0,0.0,4355.897461,4606.153809,4206.153809,4277.94873,4245.128418,450.0,3.0,59.0,,,,0.0,2.0,0.0,2.0,0.0,2.0,16.666666,,,,,,,,,,,,,,,,,,,,,,,,,,,,,,,,,,,,,,,,,,,,,,,,,,,,,,,,,,,,,,,,,,,,,,,,,,,,,,,,,,,,
2114,1645650941.5561962,78.0,0.0,4392.820313,4550.256348,4239.487305,4271.794922,4261.025879,450.0,3.0,59.0,,,,0.0,2.0,0.0,2.0,0.0,2.0,16.666666,,,,,,,,39.0,0.0,0.319317,0.573242,0.142822,-0.740967,0.9633940000000001,-0.170901,-0.31299299999999997,-0.017931,-0.049532,-0.036586,,,,,,,,,,,,,,,,,,,,,,,,,,,,,,,,,,,,,,,,,,,,,,,,,,,,,,,,,,,,,,,,,
2115,1645650941.5640109,79.0,0.0,4320.512695,4474.358886999999,4283.589844,4278.974121,4219.487305,265.0,3.0,59.0,,,,0.0,2.0,0.0,2.0,0.0,2.0,16.666666,,,,,,,,,,,,,,,,,,,,1.0,0.0,0.0,,,,,,,,,,,,,,,,,,,,,,,,,,,,,,,,0.0,0.0,1.0,0.0,512.0,1.0,27.992953999999997,38.216728,74.769341,14.181707000000001,7.8529860000000005,28.512733,187.899048,1112.502563,271.560577,282.222015,163.715546,185.71623200000002,60.262694999999994,8.23254,7.085789999999999,0.042723000000000004,0.123054,0.483074,0.118599,0.115205,51.769543,48.465134,58.799862,9.375492,5.77703
2116,1645650941.571826,80.0,0.0,4258.974121,4291.282227000001,4313.333496,4287.179688,4197.436035,450.0,3.0,59.0,,,,0.0,2.0,0.0,2.0,0.0,2.0,16.666666,,,,,,,,40.0,0.0,0.319445,0.5734859999999999,0.142822,-0.7407229999999999,0.9550930000000001,-0.154788,-0.301274,-0.018579,-0.049511,-0.038591,,,,,,,,,,,,,,,,,,,,,,,,,,,,,,,,,,,,,,,,,,,,,,,,,,,,,,,,,,,,,,,,,
2117,1645650941.57974,81.0,0.0,4239.487305,4535.897461,4280.512695,4287.179688,4244.615234000001,450.0,3.0,59.0,,,,0.0,2.0,0.0,2.0,0.0,2.0,16.666666,,,,,,,,,,,,,,,,,,,,,,,,,,,,,,,,,,,,,,,,,,,,,,,,,,,,,,,,,,,,,,,,,,,,,,,,,,,,,,,,,,,,
2118,1645650941.5875552,82.0,0.0,4257.94873,4805.128418,4294.358886999999,4286.153809,4280.512695,450.0,3.0,59.0,,,,0.0,2.0,0.0,2.0,0.0,2.0,16.666666,,,,,,,,41.0,0.0,0.319445,0.5734859999999999,0.142822,-0.7407229999999999,0.957046,-0.167971,-0.30518,-0.019163,-0.049394,-0.034194999999999996,,,,,,,,,,,,,,,,,,,,,,,,,,,,,,,,,,,,,,,,,,,,,,,,,,,,,,,,,,,,,,,,,
2119,1645650941.5953698,83.0,0.0,4255.384765999999,4895.384765999999,4268.717772999999,4284.102539,4277.94873,265.0,3.0,59.0,,,,0.0,2.0,0.0,2.0,0.0,2.0,16.666666,,,,,,,,,,,,,,,,,,,,,,,,,,,,,,,,,,,,,,,,,,,,,,,,,,,,,,0.0,0.0,1.0,0.0,512.0,1.0,,,,,,,,,,,,,,,,,,,,,,,,,
2120,1645650941.603184,84.0,0.0,4237.94873,4909.743652,4256.922852000001,4283.077147999999,4279.487305,450.0,3.0,59.0,,,,0.0,2.0,0.0,2.0,0.0,2.0,16.666666,,,,,,,,42.0,0.0,0.319445,0.5734859999999999,0.142822,-0.7407229999999999,0.9550930000000001,-0.154299,-0.31396999999999997,-0.01959,-0.049337,-0.036537,,,,,,,,,,,,,,,,,,,,,,,,,,,,,,,,,,,,,,,,,,,,,,,,,,,,,,,,,,,,,,,,,
2121,1645650941.610999,85.0,0.0,4264.102539,4848.205078,4261.538574,4278.974121,4280.0,450.0,3.0,59.0,,,,0.0,2.0,0.0,2.0,0.0,2.0,16.666666,,,,,,,,,,,,,,,,,,,,,,,,,,,,,,,,,,,,,,,,,,,,,,,,,,,,,,,,,,,,,,,,,,,,,,,,,,,,,,,,,,,,
2122,1645650941.618814,86.0,0.0,4304.615234000001,4815.384765999999,4294.871582,4276.410156,4278.974121,450.0,3.0,59.0,,,,0.0,2.0,0.0,2.0,0.0,2.0,16.666666,,,,,,,,43.0,0.0,0.319554,0.5734859999999999,0.142578,-0.7407229999999999,0.957534,-0.161624,-0.31250500000000003,-0.019975,-0.049238,-0.032298,,,,,,,,,,,,,,,,,,,,,,,,,,,,,,,,,,,,,,,,,,,,,,,,,,,,,,,,,,,,,,,,,
2123,1645650941.626628,87.0,0.0,4325.641113000001,4672.820313,4296.922852000001,4279.487305,4248.717772999999,265.0,3.0,59.0,,,,0.0,2.0,0.0,2.0,0.0,2.0,16.666666,,,,,,,,,,,,,,,,,,,,,,,,,,,,,,,,,,,,,,,,,,,,,,,,,,,,,,0.0,0.0,1.0,0.0,512.0,1.0,,,,,,,,,,,,,,,,,,,,,,,,,
2124,1645650941.634443,88.0,0.0,4329.230957,4618.974121,4290.256348,4278.974121,4206.666504,450.0,3.0,59.0,,,,0.0,2.0,0.0,2.0,0.0,2.0,16.666666,,,,,,,,44.0,0.0,0.319554,0.5734859999999999,0.142578,-0.7407229999999999,0.9580219999999999,-0.157717,-0.308598,-0.020419,-0.049294,-0.034634,,,,,,,,,,,,,,,,,,,,,,,,,,,,,,,,,,,,,,,,,,,,,,,,,,,,,,,,,,,,,,,,,
2125,1645650941.642258,89.0,0.0,4318.974121,4647.692383,4263.077147999999,4274.358886999999,4185.641113000001,450.0,3.0,59.0,,,,0.0,2.0,0.0,2.0,0.0,2.0,16.666666,,,,,,,,,,,,,,,,,,,,,,,,,,,,,,,,,,,,,,,,,,,,,,,,,,,,,,,,,,,,,,,,,,,,,,,,,,,,,,,,,,,,
2126,1645650941.650072,90.0,0.0,4296.922852000001,4325.128418,4271.794922,4275.897461,4177.436035,450.0,3.0,59.0,,,,0.0,2.0,0.0,2.0,0.0,2.0,16.666666,,,,,,,,45.0,0.0,0.319554,0.5734859999999999,0.142578,-0.7407229999999999,0.957534,-0.161135,-0.307134,-0.020672,-0.049346,-0.036884,,,,,,,,,,,,,,,,,,,,,,,,,,,,,,,,,,,,,,,,,,,,,,,,,,,,,,,,,,,,,,,,,
2127,1645650941.6579869,91.0,0.0,4305.641113000001,4098.461426,4269.743652,4280.512695,4202.563965,265.0,3.0,59.0,,,,0.0,2.0,0.0,2.0,0.0,2.0,16.666666,,,,,,,,,,,,,,,,,,,,,,,,,,,,,,,,,,,,,,,,,,,,,,,,,,,,,,0.0,0.0,1.0,0.0,512.0,1.0,,,,,,,,,,,,,,,,,,,,,,,,,
2128,1645650941.665801,92.0,0.0,4274.358886999999,4411.282227000001,4241.025879,4282.05127,4196.922852000001,450.0,3.0,59.0,,,,0.0,2.0,0.0,2.0,0.0,2.0,16.666666,,,,,,,,46.0,0.0,0.320119,0.5734859999999999,0.142578,-0.740479,0.95314,-0.17383099999999999,-0.30518,-0.0209,-0.049294,-0.03261,,,,,,,,,,,,,,,,,,,,,,,,,,,,,,,,,,,,,,,,,,,,,,,,,,,,,,,,,,,,,,,,,
2129,1645650941.673616,93.0,0.0,4243.077147999999,4641.538574,4224.102539,4286.153809,4205.128418,450.0,3.0,59.0,,,,0.0,2.0,0.0,2.0,0.0,2.0,16.666666,,,,,,,,,,,,,,,,,,,,,,,,,,,,,,,,,,,,,,,,,,,,,,,,,,,,,,,,,,,,,,,,,,,,,,,,,,,,,,,,,,,,
2130,1645650941.681431,94.0,0.0,4239.487305,4587.179688,4228.205078,4286.153809,4221.025879,450.0,3.0,59.0,,,,0.0,2.0,0.0,2.0,0.0,2.0,16.666666,,,,,,,,47.0,0.0,0.319682,0.5737300000000001,0.142578,-0.740479,0.945815,-0.17383099999999999,-0.30811,-0.0213,-0.049247000000000006,-0.028812,,,,,,,,,,,,,,,,,,,,,,,,,,,,,,,,,,,,,,,,,,,,,,,,,,,,,,,,,,,,,,,,,
2131,1645650941.689245,95.0,0.0,4262.563965,4729.230957,4231.282227000001,4282.05127,4264.615234000001,265.0,3.0,59.0,,,,0.0,2.0,0.0,2.0,0.0,2.0,16.666666,1.0,0.0,1.0,0.0,0.0,0.0,1.0,,,,,,,,,,,,,1.0,0.0,0.0,,,,,,,,,,,,,,,,,,,,,,,,,,,,,,,,0.0,0.0,1.0,0.0,512.0,1.0,27.742075,44.211311,67.751968,11.420472,6.5381860000000005,33.854960999999996,217.705078,1234.978394,232.32751499999998,238.78192099999998,167.26181,187.054123,61.264374,6.468827,6.143756,0.04596,0.10931700000000001,0.466146,0.096703,0.111424,50.766684999999995,50.871006,59.343964,6.926697,5.595754
2132,1645650941.6970599,96.0,0.0,4226.153809,4945.128418,4198.461426,4284.102539,4267.179688,450.0,3.0,59.0,,,,0.0,2.0,0.0,2.0,0.0,2.0,16.666666,,,,,,,,48.0,0.0,0.319682,0.5737300000000001,0.142578,-0.740479,0.961929,-0.157229,-0.291508,-0.019902,-0.049157,-0.031643,,,,,,,,,,,,,,,,,,,,,,,,,,,,,,,,,,,,,,,,,,,,,,,,,,,,,,,,,,,,,,,,,
2133,1645650941.704875,97.0,0.0,4228.717772999999,4839.487305,4220.0,4285.641113000001,4275.897461,450.0,3.0,59.0,,,,0.0,2.0,0.0,2.0,0.0,2.0,16.666666,,,,,,,,,,,,,,,,,,,,,,,,,,,,,,,,,,,,,,,,,,,,,,,,,,,,,,,,,,,,,,,,,,,,,,,,,,,,,,,,,,,,
2134,1645650941.7126892,98.0,0.0,4290.769043,4627.179688,4265.128418,4276.922852000001,4284.615234000001,450.0,3.0,59.0,,,,0.0,2.0,0.0,2.0,0.0,2.0,16.666666,,,,,,,,49.0,0.0,0.319682,0.5737300000000001,0.142578,-0.740479,0.954116,-0.151858,-0.303227,-0.020109000000000002,-0.04927,-0.027942,,,,,,,,,,,,,,,,,,,,,,,,,,,,,,,,,,,,,,,,,,,,,,,,,,,,,,,,,,,,,,,,,
2135,1645650941.7205038,99.0,0.0,4349.743652,4647.179688,4326.153809,4274.871582,4288.205078,265.0,3.0,59.0,,,,0.0,2.0,0.0,2.0,0.0,2.0,16.666666,,,,,,,,,,,,,,,,,,,,,,,,,,,,,,,,,,,,,,,,,,,,,,,,,,,,,,0.0,0.0,1.0,0.0,512.0,1.0,,,,,,,,,,,,,,,,,,,,,,,,,
2136,1645650941.728319,100.0,0.0,4343.589844,4669.230957,4324.102539,4282.05127,4231.794922,450.0,3.0,59.0,,,,0.0,2.0,0.0,2.0,0.0,2.0,16.666666,,,,,,,,50.0,0.0,0.319682,0.5737300000000001,0.142578,-0.740479,0.9560690000000001,-0.16211199999999998,-0.306645,-0.020491,-0.049324,-0.024513,,,,,,,,,,,,,,,,,,,,,,,,,,,,,,,,,,,,,,,,,,,,,,,,,,,,,,,,,,,,,,,,,
2137,1645650941.736233,101.0,0.0,4311.794922,4592.307617,4317.94873,4279.487305,4168.205078,450.0,3.0,59.0,,,,0.0,2.0,0.0,2.0,0.0,2.0,16.666666,,,,,,,,,,,,,,,,,,,,,,,,,,,,,,,,,,,,,,,,,,,,,,,,,,,,,,,,,,,,,,,,,,,,,,,,,,,,,,,,,,,,
2138,1645650941.7440472,102.0,0.0,4288.205078,4608.205078,4305.128418,4277.94873,4173.333496,450.0,3.0,59.0,,,,0.0,2.0,0.0,2.0,0.0,2.0,16.666666,,,,,,,,51.0,0.0,0.319682,0.5737300000000001,0.142578,-0.740479,0.963882,-0.155764,-0.301274,-0.020835,-0.049372000000000006,-0.021427,,,,,,,,,,,,,,,,,,,,,,,,,,,,,,,,,,,,,,,,,,,,,,,,,,,,,,,,,,,,,,,,,
2139,1645650941.7518618,103.0,0.0,4286.153809,4464.615234000001,4330.769043,4282.563965,4197.94873,265.0,3.0,59.0,,,,0.0,2.0,0.0,2.0,0.0,2.0,16.666666,,,,,,,,,,,,,,,,,,,,,,,,,,,,,,,,,,,,,,,,,,,,,,,,,,,,,,0.0,0.0,1.0,0.0,512.0,1.0,,,,,,,,,,,,,,,,,,,,,,,,,
2140,1645650941.759676,104.0,0.0,4282.563965,4440.512695,4294.871582,4278.974121,4201.538574,450.0,3.0,59.0,,,,0.0,2.0,0.0,2.0,0.0,2.0,16.666666,,,,,,,,52.0,0.0,0.319682,0.5737300000000001,0.142578,-0.740479,0.9487450000000001,-0.15820599999999999,-0.307134,-0.018849,-0.049415,-0.024850999999999998,,,,,,,,,,,,,,,,,,,,,,,,,,,,,,,,,,,,,,,,,,,,,,,,,,,,,,,,,,,,,,,,,
2141,1645650941.7674901,105.0,0.0,4207.692383,4722.05127,4239.487305,4282.05127,4200.512695,450.0,3.0,59.0,,,,0.0,2.0,0.0,2.0,0.0,2.0,16.666666,,,,,,,,,,,,,,,,,,,,,,,,,,,,,,,,,,,,,,,,,,,,,,,,,,,,,,,,,,,,,,,,,,,,,,,,,,,,,,,,,,,,
2142,1645650941.775305,106.0,0.0,4235.384765999999,4502.05127,4249.230957,4286.666504,4226.153809,450.0,3.0,59.0,,,,0.0,2.0,0.0,2.0,0.0,2.0,16.666666,,,,,,,,53.0,0.0,0.319682,0.5737300000000001,0.142578,-0.740479,0.969253,-0.150393,-0.299321,-0.019259000000000002,-0.049308,-0.028079000000000003,,,,,,,,,,,,,,,,,,,,,,,,,,,,,,,,,,,,,,,,,,,,,,,,,,,,,,,,,,,,,,,,,
2143,1645650941.783119,107.0,0.0,4377.436035,4332.307617,4233.846191,4275.384765999999,4257.94873,265.0,3.0,59.0,,,,0.0,2.0,0.0,2.0,0.0,2.0,16.666666,,,,,,,,,,,,,,,,,,,,,,,,,,,,,,,,,,,,,,,,,,,,,,,,,,,,,,0.0,0.0,1.0,0.0,512.0,1.0,,,,,,,,,,,,,,,,,,,,,,,,,
2144,1645650941.790934,108.0,0.0,4411.282227000001,4622.05127,4172.307617,4273.333496,4270.256348,450.0,3.0,59.0,,,,0.0,2.0,0.0,2.0,0.0,2.0,16.666666,,,,,,,,54.0,0.0,0.319682,0.5737300000000001,0.142578,-0.740479,0.9589989999999999,-0.153811,-0.320317,-0.019677,-0.049358,-0.030837,,,,,,,,,,,,,,,,,,,,,,,,,,,,,,,,,,,,,,,,,,,,,,,,,,,,,,,,,,,,,,,,,
2145,1645650941.7988482,109.0,0.0,4363.077147999999,4473.846191,4202.05127,4281.538574,4213.846191,450.0,3.0,59.0,,,,0.0,2.0,0.0,2.0,0.0,2.0,16.666666,,,,,,,,,,,,,,,,,,,,,,,,,,,,,,,,,,,,,,,,,,,,,,,,,,,,,,,,,,,,,,,,,,,,,,,,,,,,,,,,,,,,
2146,1645650941.806663,110.0,0.0,4379.487305,4351.794922,4230.769043,4281.025879,4226.153809,450.0,3.0,59.0,,,,0.0,2.0,0.0,2.0,0.0,2.0,16.666666,,,,,,,,55.0,0.0,0.319682,0.5737300000000001,0.142578,-0.740479,0.9668120000000001,-0.154299,-0.306645,-0.020151,-0.049305,-0.033319999999999995,,,,,,,,,,,,,,,,,,,,,,,,,,,,,,,,,,,,,,,,,,,,,,,,,,,,,,,,,,,,,,,,,
2147,1645650941.814477,111.0,0.0,4313.846191,4624.615234000001,4191.794922,4282.05127,4237.436035,265.0,3.0,59.0,,,,0.0,2.0,0.0,2.0,0.0,2.0,16.666666,,,,,,,,,,,,,,,,,,,,1.0,0.0,0.0,,,,,,,,,,,,,,,,,,,,,,,,,,,,,,,,0.0,0.0,1.0,0.0,512.0,1.0,27.221395,50.689644,60.800373,9.751355,5.6389510000000005,47.435307,239.164017,1332.869263,206.734634,217.06280499999997,165.725616,183.15815700000002,60.424973,5.539905999999999,5.206976999999999,0.047013,0.087904,0.440933,0.077948,0.108331,49.624249,54.504936,57.69935600000001,5.463203,5.519838
2148,1645650941.822292,112.0,0.0,4265.128418,4685.128418,4224.615234000001,4285.128418,4243.077147999999,450.0,3.0,59.0,,,,0.0,2.0,0.0,2.0,0.0,2.0,16.666666,,,,,,,,56.0,0.0,0.319682,0.5737300000000001,0.142578,-0.740479,0.949233,-0.14648699999999998,-0.29395,-0.018917,-0.049208,-0.035701,,,,,,,,,,,,,,,,,,,,,,,,,,,,,,,,,,,,,,,,,,,,,,,,,,,,,,,,,,,,,,,,,
2149,1645650941.830107,113.0,0.0,4245.128418,4722.05127,4264.615234000001,4284.102539,4264.615234000001,450.0,3.0,59.0,,,,0.0,2.0,0.0,2.0,0.0,2.0,16.666666,,,,,,,,,,,,,,,,,,,,,,,,,,,,,,,,,,,,,,,,,,,,,,,,,,,,,,,,,,,,,,,,,,,,,,,,,,,,,,,,,,,,
2150,1645650941.8379211,114.0,0.0,4226.666504,4840.512695,4315.384765999999,4284.102539,4273.846191,450.0,3.0,59.0,,,,0.0,2.0,0.0,2.0,0.0,2.0,16.666666,,,,,,,,57.0,0.0,0.319682,0.5737300000000001,0.142578,-0.740479,0.9585110000000001,-0.15332300000000001,-0.294926,-0.017123,-0.049268,-0.037649,,,,,,,,,,,,,,,,,,,,,,,,,,,,,,,,,,,,,,,,,,,,,,,,,,,,,,,,,,,,,,,,,
2151,1645650941.845736,115.0,0.0,4260.0,4857.436035,4331.282227000001,4277.94873,4254.871582,265.0,3.0,59.0,,,,0.0,2.0,0.0,2.0,0.0,2.0,16.666666,,,,,,,,,,,,,,,,,,,,,,,,,,,,,,,,,,,,,,,,,,,,,,,,,,,,,,0.0,0.0,1.0,0.0,512.0,1.0,,,,,,,,,,,,,,,,,,,,,,,,,
2152,1645650941.853551,116.0,0.0,4297.436035,4838.461426,4323.077147999999,4273.846191,4255.897461,450.0,3.0,59.0,,,,0.0,2.0,0.0,2.0,0.0,2.0,16.666666,,,,,,,,58.0,0.0,0.319682,0.5737300000000001,0.142578,-0.740479,0.946792,-0.152346,-0.29688000000000003,-0.017754,-0.049273000000000004,-0.039401,,,,,,,,,,,,,,,,,,,,,,,,,,,,,,,,,,,,,,,,,,,,,,,,,,,,,,,,,,,,,,,,,
2153,1645650941.861365,117.0,0.0,4265.641113000001,4494.358886999999,4337.436035,4279.487305,4215.384765999999,450.0,3.0,59.0,,,,0.0,2.0,0.0,2.0,0.0,2.0,16.666666,,,,,,,,,,,,,,,,,,,,,,,,,,,,,,,,,,,,,,,,,,,,,,,,,,,,,,,,,,,,,,,,,,,,,,,,,,,,,,,,,,,,
2154,1645650941.86928,118.0,0.0,4279.487305,4228.205078,4370.256348,4281.025879,4178.974121,450.0,3.0,59.0,,,,0.0,2.0,0.0,2.0,0.0,2.0,16.666666,,,,,,,,59.0,0.0,0.319682,0.5737300000000001,0.142578,-0.740479,0.957046,-0.14257999999999998,-0.311528,-0.018371000000000002,-0.049326,-0.034924000000000004,,,,,,,,,,,,,,,,,,,,,,,,,,,,,,,,,,,,,,,,,,,,,,,,,,,,,,,,,,,,,,,,,
2155,1645650941.877095,119.0,0.0,4303.077147999999,4609.230957,4287.692383,4280.512695,4218.461426,265.0,3.0,59.0,,,,0.0,2.0,0.0,2.0,0.0,2.0,16.666666,,,,,,,,,,,,,,,,,,,,,,,,,,,,,,,,,,,,,,,,,,,,,,,,,,,,,,0.0,0.0,1.0,0.0,512.0,1.0,,,,,,,,,,,,,,,,,,,,,,,,,
2156,1645650941.884909,120.0,0.0,4251.282227000001,4711.794922,4242.05127,4283.589844,4229.743652,450.0,3.0,59.0,,,,0.0,2.0,0.0,2.0,0.0,2.0,16.666666,,,,,,,,60.0,0.0,0.319682,0.5737300000000001,0.142578,-0.740479,0.9585110000000001,-0.15332300000000001,-0.294926,-0.016583,-0.04913,-0.037096,,,,,,,,,,,,,,,,,,,,,,,,,,,,,,,,,,,,,,,,,,,,,,,,,,,,,,,,,,,,,,,,,
2157,1645650941.892724,121.0,0.0,4253.333496,4430.769043,4224.102539,4283.589844,4204.102539,450.0,3.0,59.0,,,,0.0,2.0,0.0,2.0,0.0,2.0,16.666666,,,,,,,,,,,,,,,,,,,,,,,,,,,,,,,,,,,,,,,,,,,,,,,,,,,,,,,,,,,,,,,,,,,,,,,,,,,,,,,,,,,,
2158,1645650941.900538,122.0,0.0,4278.461426,4553.333496,4184.615234000001,4282.05127,4218.461426,450.0,3.0,59.0,,,,0.0,2.0,0.0,2.0,0.0,2.0,16.666666,,,,,,,,61.0,0.0,0.319682,0.5737300000000001,0.142578,-0.740479,0.957046,-0.14257999999999998,-0.311528,-0.017317,-0.049198,-0.032849,,,,,,,,,,,,,,,,,,,,,,,,,,,,,,,,,,,,,,,,,,,,,,,,,,,,,,,,,,,,,,,,,
2159,1645650941.9083529,123.0,0.0,4300.0,4729.743652,4174.358886999999,4285.641113000001,4289.230957,265.0,3.0,59.0,,,,0.0,2.0,0.0,2.0,0.0,2.0,16.666666,,,,,,,,,,,,,,,,,,,,,,,,,,,,,,,,,,,,,,,,,,,,,,,,,,,,,,0.0,0.0,1.0,0.0,512.0,1.0,,,,,,,,,,,,,,,,,,,,,,,,,
2160,1645650941.916168,124.0,0.0,4321.538574,4672.307617,4211.794922,4285.128418,4309.743652,450.0,3.0,59.0,,,,0.0,2.0,0.0,2.0,0.0,2.0,16.666666,,,,,,,,62.0,0.0,0.319682,0.5737300000000001,0.142578,-0.740479,0.9555809999999999,-0.15674100000000002,-0.31201599999999996,-0.018076,-0.049257999999999996,-0.029026999999999997,,,,,,,,,,,,,,,,,,,,,,,,,,,,,,,,,,,,,,,,,,,,,,,,,,,,,,,,,,,,,,,,,
2161,1645650941.9239821,125.0,0.0,4335.897461,4803.589844,4196.410156,4285.128418,4340.512695,450.0,3.0,59.0,,,,0.0,2.0,0.0,2.0,0.0,2.0,16.666666,,,,,,,,,,,,,,,,,,,,,,,,,,,,,,,,,,,,,,,,,,,,,,,,,,,,,,,,,,,,,,,,,,,,,,,,,,,,,,,,,,,,
2162,1645650941.931797,126.0,0.0,4321.025879,4833.846191,4186.153809,4284.615234000001,4347.179688,450.0,3.0,59.0,,,,0.0,2.0,0.0,2.0,0.0,2.0,16.666666,,,,,,,,63.0,0.0,0.320355,0.5737300000000001,0.142334,-0.7402340000000001,0.941421,-0.152834,-0.31299299999999997,-0.016903,-0.049263999999999995,-0.031789,,,,,,,,,,,,,,,,,,,,,,,,,,,,,,,,,,,,,,,,,,,,,,,,,,,,,,,,,,,,,,,,,
2163,1645650941.939612,127.0,0.0,4356.922852000001,4727.179688,4212.820313,4283.077147999999,4336.922852000001,235.0,3.0,59.0,,,,0.0,2.0,0.0,2.0,0.0,2.0,16.666666,,,,,,,,,,,,,,,,,,,,1.0,0.0,0.0,,,,,,,,,,,,,,,,,,,,,,,,,,,,,,,,0.0,0.0,1.0,0.0,512.0,1.0,26.111025,56.820206000000006,55.182678,8.976275,5.14541,70.004715,253.723068,1404.453735,190.850891,216.196594,158.533646,175.34462,59.044327,5.201691,4.391097,0.046488,0.069368,0.42463100000000004,0.06250399999999999,0.10566500000000001,48.84708,58.31927099999999,54.867771,4.852195,5.517318
2164,1645650941.947526,0.0,0.0,4365.128418,4801.025879,4188.717772999999,4285.128418,4314.358886999999,450.0,3.0,59.0,,,,0.0,2.0,0.0,2.0,0.0,2.0,16.666666,,,,,,,,0.0,0.0,0.32002600000000003,0.573975,0.14209000000000002,-0.7402340000000001,0.948257,-0.159182,-0.314458,-0.017557,-0.049172,-0.028219,,,,,,,,,,,,,,,,,,,,,,,,,,,,,,,,,,,,,,,,,,,,,,,,,,,,,,,,,,,,,,,,,
2165,1645650941.9553401,1.0,0.0,4436.922852000001,4731.282227000001,4237.94873,4287.692383,4355.384765999999,450.0,3.0,59.0,,,,0.0,2.0,0.0,2.0,0.0,2.0,16.666666,,,,,,,,,,,,,,,,,,,,,,,,,,,,,,,,,,,,,,,,,,,,,,,,,,,,,,,,,,,,,,,,,,,,,,,,,,,,,,,,,,,,
2166,1645650941.963155,2.0,0.0,4547.179688,4489.743652,4319.487305,4287.179688,4372.820313,310.0,3.0,59.0,,,,0.0,2.0,0.0,2.0,0.0,2.0,16.666666,,,,,,,,1.0,0.0,0.320261,0.5742189999999999,0.141846,-0.7399899999999999,0.9555809999999999,-0.152346,-0.294926,-0.018144999999999998,-0.049138,-0.024909,,,,,,,,,,,,,,,,,,,,,,,,,,,,,,,,,,,,,,,,,,,,,,,,,,,,,,,,,,,,,,,,,
2167,1645650941.970969,3.0,0.0,4666.666504,4402.05127,4366.666504,4288.717772999999,4371.282227000001,450.0,3.0,59.0,,,,0.0,2.0,0.0,2.0,0.0,2.0,16.666666,,,,,,,,,,,,,,,,,,,,,,,,,,,,,,,,,,,,,,,,,,,,,,,,,,,,,,0.0,0.0,1.0,0.0,512.0,1.0,,,,,,,,,,,,,,,,,,,,,,,,,
2168,1645650941.978784,4.0,0.0,4790.769043,4663.077147999999,4300.0,4290.769043,4460.512695,0.0,3.0,59.0,,,,0.0,2.0,0.0,2.0,0.0,2.0,16.666666,,,,,,,,2.0,0.0,0.320369,0.5742189999999999,0.141602,-0.7399899999999999,0.9521629999999999,-0.169436,-0.29639099999999996,-0.016378999999999998,-0.049107,-0.021832,,,,,,,,,,,,,,,,,,,,,,,,,,,,,,,,,,,,,,,,,,,,,,,,,,,,,,,,,,,,,,,,,
2169,1645650941.986598,5.0,0.0,4829.230957,4885.128418,4277.436035,4290.256348,4529.743652,450.0,3.0,59.0,,,,0.0,2.0,0.0,2.0,0.0,2.0,16.666666,,,,,,,,,,,,,,,,,,,,,,,,,,,,,,,,,,,,,,,,,,,,,,,,,,,,,,,,,,,,,,,,,,,,,,,,,,,,,,,,,,,,
2170,1645650941.994412,6.0,0.0,4871.794922,4672.820313,4318.974121,4292.307617,4493.333496,280.0,3.0,59.0,,,,0.0,2.0,0.0,2.0,0.0,2.0,16.666666,,,,,,,,3.0,0.0,0.32104,0.5742189999999999,0.14135699999999998,-0.739746,0.941421,-0.155276,-0.30518,-0.015425,-0.049079000000000005,-0.025166,,,,,,,,,,,,,,,,,,,,,,,,,,,,,,,,,,,,,,,,,,,,,,,,,,,,,,,,,,,,,,,,,
2171,1645650942.002227,7.0,0.0,5001.538574,4498.461426,4353.333496,4298.461426,4515.384765999999,450.0,3.0,59.0,,,,0.0,2.0,0.0,2.0,0.0,2.0,16.666666,,,,,,,,,,,,,,,,,,,,,,,,,,,,,,,,,,,,,,,,,,,,,,,,,,,,,,0.0,0.0,1.0,0.0,512.0,1.0,,,,,,,,,,,,,,,,,,,,,,,,,
2172,1645650942.0101411,8.0,0.0,5182.05127,4544.102539,4294.358886999999,4301.538574,4567.692383,450.0,3.0,59.0,,,,0.0,2.0,0.0,2.0,0.0,4.0,16.666666,,,,,,,,4.0,0.0,0.320477,0.5742189999999999,0.14135699999999998,-0.7399899999999999,0.944839,-0.166506,-0.297856,-0.016225999999999997,-0.049005,-0.021966,,,,,,,,,,,,,,,,,,,,,,,,,,,,,,,,,,,,,,,,,,,,,,,,,,,,,,,,,,,,,,,,,
2173,1645650942.017956,9.0,0.0,5246.153809,4586.153809,4264.102539,4300.0,4544.102539,0.0,3.0,59.0,,,,0.0,2.0,0.0,2.0,0.0,4.0,16.666666,,,,,,,,,,,,,,,,,,,,,,,,,,,,,,,,,,,,,,,,,,,,,,,,,,,,,,,,,,,,,,,,,,,,,,,,,,,,,,,,,,,,
2174,1645650942.0257711,10.0,0.0,5280.0,4609.743652,4294.358886999999,4301.025879,4552.307617,450.0,3.0,59.0,,,,0.0,2.0,0.0,2.0,0.0,4.0,16.666666,,,,,,,,5.0,0.0,0.32058400000000004,0.5742189999999999,0.14111300000000002,-0.7399899999999999,0.9741360000000001,-0.16894800000000001,-0.301274,-0.017093999999999998,-0.048987,-0.025336,,,,,,,,,,,,,,,,,,,,,,,,,,,,,,,,,,,,,,,,,,,,,,,,,,,,,,,,,,,,,,,,,
2175,1645650942.033585,11.0,0.0,5318.974121,4670.769043,4260.512695,4303.589844,4593.846191,16078.0,3.0,59.0,,,,0.0,2.0,0.0,2.0,0.0,4.0,16.666666,,,,,,,,,,,,,,,,,,,,,,,,,,,,,,,,,,,,,,,,,,,,,,,,,,,,,,0.0,0.0,1.0,0.0,512.0,1.0,,,,,,,,,,,,,,,,,,,,,,,,,
2176,1645650942.0414,12.0,0.0,5288.205078,4721.025879,4202.05127,4302.05127,4627.692383,450.0,3.0,59.0,,,,0.0,2.0,0.0,2.0,0.0,4.0,16.666666,,,,,,,,6.0,0.0,0.32058400000000004,0.5742189999999999,0.14111300000000002,-0.7399899999999999,0.9521629999999999,-0.15674100000000002,-0.314458,-0.017825999999999998,-0.049069,-0.028515,,,,,,,,,,,,,,,,,,,,,,,,,,,,,,,,,,,,,,,,,,,,,,,,,,,,,,,,,,,,,,,,,
2177,1645650942.049215,13.0,0.0,5195.897461,4745.128418,4256.410156,4302.05127,4596.410156,450.0,3.0,59.0,,,,0.0,2.0,0.0,2.0,0.0,4.0,16.666666,,,,,,,,,,,,,,,,,,,,,,,,,,,,,,,,,,,,,,,,,,,,,,,,,,,,,,,,,,,,,,,,,,,,,,,,,,,,,,,,,,,,
2178,1645650942.057029,14.0,0.0,5157.94873,4725.128418,4254.871582,4303.077147999999,4564.102539,450.0,3.0,59.0,,,,0.0,2.0,0.0,2.0,0.0,4.0,16.666666,,,,,,,,7.0,0.0,0.320914,0.573975,0.14135699999999998,-0.7399899999999999,0.9438620000000001,-0.158694,-0.30518,-0.01619,-0.049094,-0.031376999999999995,,,,,,,,,,,,,,,,,,,,,,,,,,,,,,,,,,,,,,,,,,,,,,,,,,,,,,,,,,,,,,,,,
2179,1645650942.064844,15.0,0.0,5086.153809,4814.871582,4166.666504,4298.974121,4529.743652,16078.0,3.0,59.0,,,,0.0,2.0,0.0,2.0,0.0,4.0,16.666666,,,,,,,,,,,,,,,,,,,,1.0,0.0,0.0,,,,,,,,,,,,,,,,,,,,,,,,,,,,,,,,0.0,0.0,1.0,0.0,512.0,0.8312870000000001,24.656672,61.936962,51.241299,8.786264,4.990473000000001,99.79428100000001,272.006866,1442.292236,178.688202,229.559982,147.131393,165.385315,57.864323,5.1656010000000006,3.7690650000000003,0.045799,0.064251,0.42479700000000004,0.051183,0.103406,48.507870000000004,61.040585,51.615051,4.799938,5.514232
2180,1645650942.072659,16.0,0.0,4927.179688,4889.230957,4235.897461,4295.897461,4516.410156,0.0,3.0,59.0,,,,0.0,2.0,0.0,2.0,0.0,4.0,16.666666,,,,,,,,8.0,0.0,0.320242,0.573975,0.141602,-0.7402340000000001,0.944839,-0.157717,-0.31104,-0.015352000000000001,-0.049165,-0.033951999999999996,,,,,,,,,,,,,,,,,,,,,,,,,,,,,,,,,,,,,,,,,,,,,,,,,,,,,,,,,,,,,,,,,
2181,1645650942.080473,17.0,0.0,4788.205078,4556.922852000001,4358.974121,4294.358886999999,4424.615234000001,0.0,3.0,59.0,,,,0.0,2.0,0.0,2.0,0.0,4.0,16.666666,,,,,,,,,,,,,,,,,,,,,,,,,,,,,,,,,,,,,,,,,,,,,,,,,,,,,,,,,,,,,,,,,,,,,,,,,,,,,,,,,,,,
2182,1645650942.0883882,18.0,0.0,4761.025879,4409.743652,4364.102539,4289.230957,4352.307617,0.0,3.0,59.0,,,,0.0,2.0,0.0,2.0,0.0,4.0,16.666666,,,,,,,,9.0,0.0,0.32013400000000003,0.573975,0.141846,-0.7402340000000001,0.956558,-0.16846,-0.301762,-0.016161000000000002,-0.049132,-0.036368,,,,,,,,,,,,,,,,,,,,,,,,,,,,,,,,,,,,,,,,,,,,,,,,,,,,,,,,,,,,,,,,,
2183,1645650942.096202,19.0,0.0,4674.358886999999,4764.615234000001,4266.153809,4287.179688,4361.538574,0.0,3.0,59.0,,,,0.0,2.0,0.0,2.0,0.0,4.0,16.666666,,,,,,,,,,,,,,,,,,,,,,,,,,,,,,,,,,,,,,,,,,,,,,,,,,,,,,10.0,0.0,1.0,0.0,512.0,0.8312870000000001,,,,,,,,,,,,,,,,,,,,,,,,,
2184,1645650942.104016,20.0,0.0,4539.487305,4787.179688,4252.820313,4289.743652,4354.871582,0.0,3.0,59.0,,,,0.0,2.0,0.0,2.0,0.0,4.0,16.666666,,,,,,,,10.0,0.0,0.32046399999999997,0.5737300000000001,0.14209000000000002,-0.7402340000000001,0.961929,-0.176272,-0.30811,-0.016888,-0.049248,-0.038297000000000005,,,,,,,,,,,,,,,,,,,,,,,,,,,,,,,,,,,,,,,,,,,,,,,,,,,,,,,,,,,,,,,,,
2185,1645650942.111831,21.0,0.0,4434.358886999999,4569.230957,4269.743652,4288.717772999999,4313.846191,0.0,3.0,59.0,,,,0.0,2.0,0.0,2.0,0.0,4.0,16.666666,,,,,,,,,,,,,,,,,,,,,,,,,,,,,,,,,,,,,,,,,,,,,,,,,,,,,,,,,,,,,,,,,,,,,,,,,,,,,,,,,,,,
2186,1645650942.1196449,22.0,0.0,4400.512695,4618.461426,4282.563965,4285.641113000001,4286.153809,0.0,3.0,59.0,,,,0.0,2.0,0.0,2.0,0.0,4.0,16.666666,,,,,,,,11.0,0.0,0.32046399999999997,0.5737300000000001,0.14209000000000002,-0.7402340000000001,0.9511860000000001,-0.169924,-0.31299299999999997,-0.017738999999999998,-0.049206,-0.03393,,,,,,,,,,,,,,,,,,,,,,,,,,,,,,,,,,,,,,,,,,,,,,,,,,,,,,,,,,,,,,,,,
2187,1645650942.12746,23.0,0.0,4361.025879,4749.230957,4235.897461,4285.128418,4272.307617,0.0,3.0,59.0,,,,0.0,2.0,0.0,2.0,0.0,4.0,16.666666,,,,,,,,,,,,,,,,,,,,,,,,,,,,,,,,,,,,,,,,,,,,,,,,,,,,,,0.0,0.0,1.0,0.0,512.0,0.8312870000000001,,,,,,,,,,,,,,,,,,,,,,,,,
2188,1645650942.135274,24.0,0.0,4283.589844,4741.538574,4253.333496,4286.153809,4243.589844,0.0,3.0,59.0,,,,0.0,2.0,0.0,2.0,0.0,4.0,16.666666,,,,,,,,12.0,0.0,0.319899,0.5737300000000001,0.14209000000000002,-0.740479,0.9633940000000001,-0.161624,-0.313481,-0.018357,-0.049266000000000004,-0.036202,,,,,,,,,,,,,,,,,,,,,,,,,,,,,,,,,,,,,,,,,,,,,,,,,,,,,,,,,,,,,,,,,
2189,1645650942.143088,25.0,0.0,4288.205078,4747.179688,4266.153809,4283.589844,4206.666504,0.0,3.0,59.0,,,,0.0,2.0,0.0,2.0,0.0,4.0,16.666666,,,,,,,,,,,,,,,,,,,,,,,,,,,,,,,,,,,,,,,,,,,,,,,,,,,,,,,,,,,,,,,,,,,,,,,,,,,,,,,,,,,,
2190,1645650942.151003,26.0,0.0,4311.794922,4951.282227000001,4203.077147999999,4276.922852000001,4222.05127,0.0,3.0,59.0,,,,0.0,2.0,0.0,2.0,0.0,4.0,16.666666,,,,,,,,13.0,0.0,0.319899,0.5737300000000001,0.14209000000000002,-0.740479,0.9555809999999999,-0.161624,-0.305669,-0.018865,-0.049369,-0.032093,,,,,,,,,,,,,,,,,,,,,,,,,,,,,,,,,,,,,,,,,,,,,,,,,,,,,,,,,,,,,,,,,
2191,1645650942.158818,27.0,0.0,4282.05127,4791.282227000001,4221.538574,4277.94873,4246.666504,0.0,3.0,59.0,,,,0.0,2.0,0.0,2.0,0.0,4.0,16.666666,,,,,,,,,,,,,,,,,,,,,,,,,,,,,,,,,,,,,,,,,,,,,,,,,,,,,,0.0,0.0,1.0,0.0,512.0,0.8312870000000001,,,,,,,,,,,,,,,,,,,,,,,,,
2192,1645650942.166632,28.0,0.0,4274.358886999999,4216.922852000001,4293.846191,4282.05127,4196.410156,0.0,3.0,59.0,,,,0.0,2.0,0.0,2.0,0.0,4.0,16.666666,,,,,,,,14.0,0.0,0.319899,0.5737300000000001,0.14209000000000002,-0.740479,0.9585110000000001,-0.143557,-0.297856,-0.019274,-0.049315,-0.028347000000000004,,,,,,,,,,,,,,,,,,,,,,,,,,,,,,,,,,,,,,,,,,,,,,,,,,,,,,,,,,,,,,,,,
2193,1645650942.174447,29.0,0.0,4292.307617,4314.358886999999,4250.769043,4280.512695,4221.025879,0.0,3.0,59.0,,,,0.0,2.0,0.0,2.0,0.0,4.0,16.666666,,,,,,,,,,,,,,,,,,,,,,,,,,,,,,,,,,,,,,,,,,,,,,,,,,,,,,,,,,,,,,,,,,,,,,,,,,,,,,,,,,,,
2194,1645650942.182262,30.0,0.0,4233.333496,4757.436035,4217.94873,4285.128418,4234.871582,0.0,3.0,59.0,,,,0.0,2.0,0.0,2.0,0.0,4.0,16.666666,,,,,,,,15.0,0.0,0.32002600000000003,0.573975,0.14209000000000002,-0.7402340000000001,0.960952,-0.158694,-0.301274,-0.018128000000000002,-0.049266000000000004,-0.031176,,,,,,,,,,,,,,,,,,,,,,,,,,,,,,,,,,,,,,,,,,,,,,,,,,,,,,,,,,,,,,,,,
2195,1645650942.1900759,31.0,0.0,4269.230957,4585.128418,4241.538574,4288.717772999999,4215.897461,0.0,3.0,59.0,,,,0.0,2.0,0.0,2.0,0.0,4.0,16.666666,1.0,0.0,1.0,0.0,0.0,0.0,2.0,,,,,,,,,,,,,1.0,0.0,0.0,,,,,,,,,,,,,,,,,,,,,,,,,,,,,,,,0.0,0.0,1.0,0.0,512.0,0.8068960000000001,30.372273999999997,66.30017099999999,48.929943,9.074045,5.101067,131.279327,307.816772,1434.362793,165.678589,246.69554100000002,134.493896,154.843781,56.702785,5.224339,3.384353,0.047885000000000004,0.077044,0.43592600000000004,0.045187,0.10144299999999999,48.417922999999995,61.365005000000004,48.286499,5.030053,5.430174
2196,1645650942.197891,32.0,0.0,4273.846191,4668.205078,4177.436035,4279.487305,4268.205078,0.0,3.0,59.0,,,,0.0,2.0,0.0,2.0,0.0,4.0,16.666666,,,,,,,,16.0,0.0,0.319804,0.5742189999999999,0.141602,-0.7402340000000001,0.949233,-0.142092,-0.291997,-0.016364,-0.049369,-0.033723,,,,,,,,,,,,,,,,,,,,,,,,,,,,,,,,,,,,,,,,,,,,,,,,,,,,,,,,,,,,,,,,,
2197,1645650942.2057052,33.0,0.0,4193.333496,4936.922852000001,4191.794922,4280.0,4307.692383,0.0,3.0,59.0,,,,0.0,2.0,0.0,2.0,0.0,4.0,16.666666,,,,,,,,,,,,,,,,,,,,,,,,,,,,,,,,,,,,,,,,,,,,,,,,,,,,,,,,,,,,,,,,,,,,,,,,,,,,,,,,,,,,
2198,1645650942.2135198,34.0,0.0,4217.436035,4483.077147999999,4274.358886999999,4281.538574,4210.256348,0.0,3.0,59.0,,,,0.0,2.0,0.0,2.0,0.0,4.0,16.666666,,,,,,,,17.0,0.0,0.319899,0.5737300000000001,0.14209000000000002,-0.740479,0.9585110000000001,-0.143557,-0.297856,-0.015509,-0.049266000000000004,-0.036015,,,,,,,,,,,,,,,,,,,,,,,,,,,,,,,,,,,,,,,,,,,,,,,,,,,,,,,,,,,,,,,,,
2199,1645650942.221435,35.0,0.0,4302.05127,4336.922852000001,4325.641113000001,4274.358886999999,4222.563965,0.0,3.0,59.0,,,,0.0,2.0,0.0,2.0,0.0,4.0,16.666666,,,,,,,,,,,,,,,,,,,,,,,,,,,,,,,,,,,,,,,,,,,,,,,,,,,,,,0.0,0.0,1.0,0.0,512.0,0.8068960000000001,,,,,,,,,,,,,,,,,,,,,,,,,
2200,1645650942.229249,36.0,0.0,4280.512695,4658.974121,4342.05127,4277.436035,4289.743652,0.0,3.0,59.0,,,,0.0,2.0,0.0,2.0,0.0,4.0,16.666666,,,,,,,,18.0,0.0,0.319912,0.5742189999999999,0.14135699999999998,-0.7402340000000001,0.9438620000000001,-0.155276,-0.304204,-0.016253,-0.049319999999999996,-0.031925,,,,,,,,,,,,,,,,,,,,,,,,,,,,,,,,,,,,,,,,,,,,,,,,,,,,,,,,,,,,,,,,,
2201,1645650942.2370641,37.0,0.0,4317.94873,4521.538574,4376.410156,4288.205078,4267.179688,0.0,3.0,59.0,,,,0.0,2.0,0.0,2.0,0.0,4.0,16.666666,,,,,,,,,,,,,,,,,,,,,,,,,,,,,,,,,,,,,,,,,,,,,,,,,,,,,,,,,,,,,,,,,,,,,,,,,,,,,,,,,,,,
2202,1645650942.244879,38.0,0.0,4494.871582,4273.333496,4347.179688,4288.205078,4297.94873,0.0,3.0,59.0,,,,0.0,2.0,0.0,2.0,0.0,4.0,16.666666,,,,,,,,19.0,0.0,0.320128,0.5742189999999999,0.140869,-0.7402340000000001,0.9472799999999999,-0.1626,-0.299809,-0.01702,-0.049466,-0.034299,,,,,,,,,,,,,,,,,,,,,,,,,,,,,,,,,,,,,,,,,,,,,,,,,,,,,,,,,,,,,,,,,
2203,1645650942.252693,39.0,0.0,4678.461426,4438.974121,4363.589844,4286.153809,4403.589844,0.0,3.0,59.0,,,,0.0,2.0,0.0,2.0,0.0,4.0,16.666666,,,,,,,,,,,,,,,,,,,,,,,,,,,,,,,,,,,,,,,,,,,,,,,,,,,,,,0.0,0.0,1.0,0.0,512.0,0.8068960000000001,,,,,,,,,,,,,,,,,,,,,,,,,
2204,1645650942.260508,40.0,0.0,4807.179688,4733.333496,4330.769043,4292.307617,4459.487305,0.0,3.0,59.0,,,,0.0,2.0,0.0,2.0,0.0,4.0,16.666666,,,,,,,,20.0,0.0,0.320235,0.5742189999999999,0.140625,-0.7402340000000001,0.9594870000000001,-0.161135,-0.306645,-0.017613,-0.0495,-0.030233999999999997,,,,,,,,,,,,,,,,,,,,,,,,,,,,,,,,,,,,,,,,,,,,,,,,,,,,,,,,,,,,,,,,,
2205,1645650942.268323,41.0,0.0,4830.769043,4796.410156,4244.102539,4297.94873,4461.538574,0.0,3.0,59.0,,,,0.0,2.0,0.0,2.0,0.0,4.0,16.666666,,,,,,,,,,,,,,,,,,,,,,,,,,,,,,,,,,,,,,,,,,,,,,,,,,,,,,,,,,,,,,,,,,,,,,,,,,,,,,,,,,,,
2206,1645650942.2761369,42.0,0.0,4910.769043,4718.974121,4171.282227000001,4300.0,4481.538574,0.0,3.0,59.0,,,,0.0,2.0,0.0,2.0,0.0,4.0,16.666666,,,,,,,,21.0,0.0,0.320235,0.5742189999999999,0.140625,-0.7402340000000001,0.9594870000000001,-0.165042,-0.319829,-0.018147,-0.049433,-0.032777,,,,,,,,,,,,,,,,,,,,,,,,,,,,,,,,,,,,,,,,,,,,,,,,,,,,,,,,,,,,,,,,,
2207,1645650942.283952,43.0,0.0,5002.563965,4831.282227000001,4161.025879,4301.025879,4496.410156,0.0,3.0,59.0,,,,0.0,2.0,0.0,2.0,0.0,4.0,16.666666,,,,,,,,,,,,,,,,,,,,,,,,,,,,,,,,,,,,,,,,,,,,,,,,,,,,,,0.0,0.0,1.0,0.0,512.0,0.8068960000000001,,,,,,,,,,,,,,,,,,,,,,,,,
2208,1645650942.291766,44.0,0.0,4964.102539,4878.974121,4233.333496,4301.538574,4487.179688,0.0,3.0,59.0,,,,0.0,2.0,0.0,2.0,0.0,4.0,16.666666,,,,,,,,22.0,0.0,0.320235,0.5742189999999999,0.140625,-0.7402340000000001,0.9550930000000001,-0.154788,-0.306157,-0.018627,-0.04947,-0.035261,,,,,,,,,,,,,,,,,,,,,,,,,,,,,,,,,,,,,,,,,,,,,,,,,,,,,,,,,,,,,,,,,
2209,1645650942.299681,45.0,0.0,4941.025879,4570.769043,4283.077147999999,4296.410156,4445.641113000001,0.0,3.0,59.0,,,,0.0,2.0,0.0,2.0,0.0,4.0,16.666666,,,,,,,,,,,,,,,,,,,,,,,,,,,,,,,,,,,,,,,,,,,,,,,,,,,,,,,,,,,,,,,,,,,,,,,,,,,,,,,,,,,,
2210,1645650942.307496,46.0,0.0,5002.563965,4457.94873,4234.871582,4291.794922,4487.179688,0.0,3.0,59.0,,,,0.0,2.0,0.0,2.0,0.0,4.0,16.666666,,,,,,,,23.0,0.0,0.320235,0.5742189999999999,0.140625,-0.7402340000000001,0.960464,-0.16406500000000002,-0.307134,-0.019157,-0.049455,-0.031149,,,,,,,,,,,,,,,,,,,,,,,,,,,,,,,,,,,,,,,,,,,,,,,,,,,,,,,,,,,,,,,,,
2211,1645650942.31531,47.0,0.0,4894.358886999999,4524.615234000001,4234.358886999999,4296.410156,4493.333496,0.0,3.0,59.0,,,,0.0,2.0,0.0,2.0,0.0,4.0,16.666666,,,,,,,,,,,,,,,,,,,,1.0,0.0,0.0,,,,,,,,,,,,,,,,,,,,,,,,,,,,,,,,0.0,0.0,1.0,0.0,512.0,0.727672,74.55291,71.027824,47.374432,9.904091000000001,5.399445,157.44305400000002,367.786377,1369.429199,152.418243,257.402252,123.563004,144.68803400000002,54.735764,5.419875,3.3043120000000004,0.059494000000000005,0.10534,0.444093,0.045472000000000005,0.09904400000000001,50.163685,59.395419999999994,44.7715,5.3251800000000005,5.222568
2212,1645650942.323125,48.0,0.0,4741.538574,4443.077147999999,4320.0,4294.358886999999,4450.256348,0.0,3.0,59.0,,,,0.0,2.0,0.0,2.0,0.0,4.0,16.666666,,,,,,,,24.0,0.0,0.320235,0.5742189999999999,0.140625,-0.7402340000000001,0.9580219999999999,-0.15967,-0.307622,-0.019584999999999998,-0.049392,-0.027497000000000004,,,,,,,,,,,,,,,,,,,,,,,,,,,,,,,,,,,,,,,,,,,,,,,,,,,,,,,,,,,,,,,,,
2213,1645650942.33094,49.0,0.0,4652.307617,4569.230957,4316.922852000001,4286.153809,4394.871582,0.0,3.0,59.0,,,,0.0,2.0,0.0,2.0,0.0,4.0,16.666666,,,,,,,,,,,,,,,,,,,,,,,,,,,,,,,,,,,,,,,,,,,,,,,,,,,,,,,,,,,,,,,,,,,,,,,,,,,,,,,,,,,,
2214,1645650942.338754,50.0,0.0,4565.641113000001,4754.871582,4303.589844,4286.153809,4343.589844,0.0,3.0,59.0,,,,0.0,2.0,0.0,2.0,0.0,4.0,16.666666,,,,,,,,25.0,0.0,0.320565,0.573975,0.140869,-0.7402340000000001,0.951675,-0.17383099999999999,-0.31250500000000003,-0.020019,-0.049336,-0.03046,,,,,,,,,,,,,,,,,,,,,,,,,,,,,,,,,,,,,,,,,,,,,,,,,,,,,,,,,,,,,,,,,
2215,1645650942.346569,51.0,0.0,4459.487305,4852.820313,4296.922852000001,4285.128418,4309.230957,0.0,3.0,59.0,,,,0.0,2.0,0.0,2.0,0.0,4.0,16.666666,,,,,,,,,,,,,,,,,,,,,,,,,,,,,,,,,,,,,,,,,,,,,,,,,,,,,,0.0,0.0,1.0,0.0,512.0,0.727672,,,,,,,,,,,,,,,,,,,,,,,,,
2216,1645650942.354384,52.0,0.0,4398.974121,4861.025879,4334.871582,4284.102539,4307.692383,0.0,3.0,59.0,,,,0.0,2.0,0.0,2.0,0.0,4.0,16.666666,,,,,,,,26.0,0.0,0.32000100000000004,0.573975,0.140869,-0.740479,0.9428850000000001,-0.163088,-0.306157,-0.020312,-0.049382999999999996,-0.032931999999999996,,,,,,,,,,,,,,,,,,,,,,,,,,,,,,,,,,,,,,,,,,,,,,,,,,,,,,,,,,,,,,,,,
2217,1645650942.362198,53.0,0.0,4347.692383,4571.794922,4364.615234000001,4283.589844,4264.102539,0.0,3.0,59.0,,,,0.0,2.0,0.0,2.0,0.0,4.0,16.666666,,,,,,,,,,,,,,,,,,,,,,,,,,,,,,,,,,,,,,,,,,,,,,,,,,,,,,,,,,,,,,,,,,,,,,,,,,,,,,,,,,,,
2218,1645650942.3701131,54.0,0.0,4300.0,4467.179688,4350.769043,4280.0,4226.153809,0.0,3.0,59.0,,,,0.0,2.0,0.0,2.0,0.0,4.0,16.666666,,,,,,,,27.0,0.0,0.32000100000000004,0.573975,0.140869,-0.740479,0.946792,-0.16894800000000001,-0.309575,-0.020527,-0.049375999999999996,-0.029102,,,,,,,,,,,,,,,,,,,,,,,,,,,,,,,,,,,,,,,,,,,,,,,,,,,,,,,,,,,,,,,,,
2219,1645650942.377927,55.0,0.0,4237.94873,4623.077147999999,4301.025879,4281.538574,4211.794922,0.0,3.0,59.0,,,,0.0,2.0,0.0,2.0,0.0,4.0,16.666666,,,,,,,,,,,,,,,,,,,,,,,,,,,,,,,,,,,,,,,,,,,,,,,,,,,,,,11.0,0.0,1.0,0.0,512.0,0.727672,,,,,,,,,,,,,,,,,,,,,,,,,
2220,1645650942.385742,56.0,0.0,4188.205078,4288.205078,4308.205078,4281.538574,4145.128418,0.0,3.0,59.0,,,,0.0,2.0,0.0,2.0,0.0,4.0,16.666666,,,,,,,,28.0,0.0,0.319893,0.573975,0.14111300000000002,-0.740479,0.9472799999999999,-0.160647,-0.301762,-0.018571999999999998,-0.049517,-0.025654000000000003,,,,,,,,,,,,,,,,,,,,,,,,,,,,,,,,,,,,,,,,,,,,,,,,,,,,,,,,,,,,,,,,,
2221,1645650942.393657,57.0,0.0,4205.641113000001,4149.230957,4222.563965,4276.410156,4138.461426,0.0,3.0,59.0,,,,0.0,2.0,0.0,2.0,0.0,4.0,16.666666,,,,,,,,,,,,,,,,,,,,,,,,,,,,,,,,,,,,,,,,,,,,,,,,,,,,,,,,,,,,,,,,,,,,,,,,,,,,,,,,,,,,
2222,1645650942.4014711,58.0,0.0,4144.102539,4974.871582,4126.666504,4276.922852000001,4234.358886999999,0.0,3.0,59.0,,,,0.0,2.0,0.0,2.0,0.0,4.0,16.666666,,,,,,,,29.0,0.0,0.319893,0.573975,0.14111300000000002,-0.740479,0.947768,-0.15332300000000001,-0.30518,-0.017447,-0.049595,-0.028752999999999997,,,,,,,,,,,,,,,,,,,,,,,,,,,,,,,,,,,,,,,,,,,,,,,,,,,,,,,,,,,,,,,,,
2223,1645650942.409286,59.0,0.0,4061.538574,5078.461426,4220.512695,4282.563965,4221.538574,0.0,3.0,59.0,,,,0.0,2.0,0.0,2.0,0.0,4.0,16.666666,,,,,,,,,,,,,,,,,,,,,,,,,,,,,,,,,,,,,,,,,,,,,,,,,,,,,,11.0,0.0,1.0,0.0,512.0,0.727672,,,,,,,,,,,,,,,,,,,,,,,,,
2224,1645650942.4171,60.0,0.0,4140.0,4063.076904,4333.846191,4278.461426,4111.794922,0.0,3.0,59.0,,,,0.0,2.0,0.0,2.0,0.0,4.0,16.666666,,,,,,,,30.0,0.0,0.319766,0.5737300000000001,0.14111300000000002,-0.7407229999999999,0.9404440000000001,-0.159182,-0.31104,-0.016484,-0.049665,-0.031493,,,,,,,,,,,,,,,,,,,,,,,,,,,,,,,,,,,,,,,,,,,,,,,,,,,,,,,,,,,,,,,,,
2225,1645650942.424915,61.0,0.0,4227.692383,4125.641113000001,4235.897461,4274.358886999999,4208.717772999999,0.0,3.0,59.0,,,,0.0,2.0,0.0,2.0,0.0,4.0,16.666666,,,,,,,,,,,,,,,,,,,,,,,,,,,,,,,,,,,,,,,,,,,,,,,,,,,,,,,,,,,,,,,,,,,,,,,,,,,,,,,,,,,,
2226,1645650942.43273,62.0,0.0,4087.179443,5061.538574,4133.333496,4280.512695,4292.820313,0.0,3.0,59.0,,,,0.0,2.0,0.0,2.0,0.0,4.0,16.666666,,,,,,,,31.0,0.0,0.319766,0.5737300000000001,0.14111300000000002,-0.7407229999999999,0.954116,-0.158694,-0.303716,-0.017179,-0.049727,-0.027757999999999998,,,,,,,,,,,,,,,,,,,,,,,,,,,,,,,,,,,,,,,,,,,,,,,,,,,,,,,,,,,,,,,,,
2227,1645650942.440644,63.0,0.0,4036.4101560000004,4998.974121,4164.102539,4285.128418,4230.769043,0.0,3.0,59.0,,,,0.0,0.0,0.0,4.0,0.0,4.0,0.0,,,,,,,,,,,,,,,,,,,,1.0,0.0,0.0,,,,,,,,,,,,,,,,,,,,,,,,,,,,,,,,11.0,0.0,1.0,0.0,512.0,0.930834,215.337433,77.836929,45.932247,11.233305,5.820889,171.87931799999998,443.53747599999997,1248.811279,141.304276,256.507721,116.560448,135.995789,51.195484,5.907882,3.622497,0.097692,0.141574,0.43551000000000006,0.050963,0.09528500000000001,58.309288,55.559718999999994,41.017036,5.4824589999999995,4.927633999999999
2228,1645650942.448459,64.0,0.0,4164.615234000001,4273.846191,4214.358886999999,4276.410156,4173.333496,450.0,3.0,59.0,,,,0.0,0.0,0.0,4.0,0.0,4.0,0.0,,,,,,,,32.0,0.0,0.319766,0.5737300000000001,0.14111300000000002,-0.7407229999999999,0.959976,-0.154788,-0.31104,-0.015559,-0.049735,-0.030597000000000003,,,,,,,,,,,,,,,,,,,,,,,,,,,,,,,,,,,,,,,,,,,,,,,,,,,,,,,,,,,,,,,,,
2229,1645650942.456274,65.0,0.0,4167.692383,4319.487305,4265.128418,4266.666504,4199.487305,450.0,3.0,59.0,,,,0.0,0.0,0.0,4.0,0.0,4.0,0.0,,,,,,,,,,,,,,,,,,,,,,,,,,,,,,,,,,,,,,,,,,,,,,,,,,,,,,,,,,,,,,,,,,,,,,,,,,,,,,,,,,,,
2230,1645650942.4640882,66.0,0.0,3956.4101560000004,5004.615234000001,4240.512695,4270.769043,4208.205078,9.0,3.0,59.0,,,,0.0,0.0,0.0,4.0,0.0,4.0,0.0,,,,,,,,33.0,0.0,0.319658,0.5737300000000001,0.14135699999999998,-0.7407229999999999,0.9589989999999999,-0.155764,-0.307134,-0.016541999999999998,-0.049693,-0.026854000000000003,,,,,,,,,,,,,,,,,,,,,,,,,,,,,,,,,,,,,,,,,,,,,,,,,,,,,,,,,,,,,,,,,
2231,1645650942.4719028,67.0,0.0,3913.3332520000004,5069.743652,4242.05127,4278.974121,4206.153809,450.0,3.0,59.0,,,,0.0,0.0,0.0,4.0,0.0,4.0,0.0,,,,,,,,,,,,,,,,,,,,,,,,,,,,,,,,,,,,,,,,,,,,,,,,,,,,,,11.0,0.0,1.0,0.0,512.0,0.930834,,,,,,,,,,,,,,,,,,,,,,,,,
2232,1645650942.479718,68.0,0.0,4036.4101560000004,4284.615234000001,4299.487305,4278.974121,4129.743652,0.0,3.0,59.0,,,,0.0,0.0,0.0,4.0,0.0,4.0,0.0,,,,,,,,34.0,0.0,0.319766,0.5737300000000001,0.14111300000000002,-0.7407229999999999,0.959976,-0.15674100000000002,-0.299809,-0.017281,-0.049656,-0.029783999999999998,,,,,,,,,,,,,,,,,,,,,,,,,,,,,,,,,,,,,,,,,,,,,,,,,,,,,,,,,,,,,,,,,
2233,1645650942.4875321,69.0,0.0,4038.974365,3914.358887,4366.666504,4273.846191,4045.1281740000004,450.0,3.0,59.0,,,,0.0,0.0,0.0,4.0,0.0,4.0,0.0,,,,,,,,,,,,,,,,,,,,,,,,,,,,,,,,,,,,,,,,,,,,,,,,,,,,,,,,,,,,,,,,,,,,,,,,,,,,,,,,,,,,
2234,1645650942.495347,70.0,0.0,3979.487061,4559.487305,4312.820313,4270.256348,4093.3332520000004,16257.0,3.0,59.0,,,,0.0,0.0,0.0,4.0,0.0,4.0,0.0,,,,,,,,35.0,0.0,0.319766,0.5737300000000001,0.14111300000000002,-0.7407229999999999,0.947768,-0.154788,-0.305669,-0.017945,-0.049671,-0.026268,,,,,,,,,,,,,,,,,,,,,,,,,,,,,,,,,,,,,,,,,,,,,,,,,,,,,,,,,,,,,,,,,
2235,1645650942.503161,71.0,0.0,4024.102539,4996.922852000001,4266.666504,4268.717772999999,4156.922852000001,450.0,3.0,59.0,,,,0.0,0.0,0.0,4.0,0.0,4.0,0.0,,,,,,,,,,,,,,,,,,,,,,,,,,,,,,,,,,,,,,,,,,,,,,,,,,,,,,11.0,0.0,1.0,0.0,512.0,0.930834,,,,,,,,,,,,,,,,,,,,,,,,,
2236,1645650942.510976,72.0,0.0,4056.923096,4853.333496,4202.563965,4274.871582,4142.563965,450.0,3.0,59.0,,,,0.0,0.0,0.0,4.0,0.0,4.0,0.0,,,,,,,,36.0,0.0,0.319786,0.573975,0.14135699999999998,-0.740479,0.9589989999999999,-0.173342,-0.309087,-0.018543,-0.049684,-0.023105,,,,,,,,,,,,,,,,,,,,,,,,,,,,,,,,,,,,,,,,,,,,,,,,,,,,,,,,,,,,,,,,,
2237,1645650942.5188901,73.0,0.0,3945.641113,4960.0,4160.512695,4281.538574,4139.487305,0.0,3.0,59.0,,,,0.0,0.0,0.0,4.0,0.0,2.0,0.0,,,,,,,,,,,,,,,,,,,,,,,,,,,,,,,,,,,,,,,,,,,,,,,,,,,,,,,,,,,,,,,,,,,,,,,,,,,,,,,,,,,,
2238,1645650942.526705,74.0,0.0,3933.3332520000004,4858.461426,4249.230957,4278.974121,4133.333496,450.0,3.0,59.0,,,,0.0,0.0,0.0,4.0,0.0,2.0,0.0,,,,,,,,37.0,0.0,0.319766,0.5737300000000001,0.14111300000000002,-0.7407229999999999,0.959976,-0.15674100000000002,-0.299809,-0.019081,-0.049599000000000004,-0.020159,,,,,,,,,,,,,,,,,,,,,,,,,,,,,,,,,,,,,,,,,,,,,,,,,,,,,,,,,,,,,,,,,
2239,1645650942.534519,75.0,0.0,4053.3332520000004,4180.0,4346.666504,4272.820313,4086.1538090000004,250.0,3.0,59.0,,,,0.0,0.0,0.0,4.0,0.0,2.0,0.0,,,,,,,,,,,,,,,,,,,,,,,,,,,,,,,,,,,,,,,,,,,,,,,,,,,,,,11.0,0.0,1.0,0.0,512.0,0.930834,,,,,,,,,,,,,,,,,,,,,,,,,
2240,1645650942.542334,76.0,0.0,4112.820313,4146.666504,4220.512695,4271.794922,4158.461426,450.0,3.0,59.0,,,,0.0,0.0,0.0,4.0,0.0,2.0,0.0,,,,,,,,38.0,0.0,0.319786,0.573975,0.14135699999999998,-0.740479,0.9589989999999999,-0.173342,-0.309087,-0.019566,-0.049618999999999996,-0.017606,,,,,,,,,,,,,,,,,,,,,,,,,,,,,,,,,,,,,,,,,,,,,,,,,,,,,,,,,,,,,,,,,
2241,1645650942.550148,77.0,0.0,4082.5642090000006,4935.897461,4076.4101560000004,4271.794922,4266.153809,450.0,3.0,59.0,,,,0.0,0.0,0.0,4.0,0.0,2.0,0.0,,,,,,,,,,,,,,,,,,,,,,,,,,,,,,,,,,,,,,,,,,,,,,,,,,,,,,,,,,,,,,,,,,,,,,,,,,,,,,,,,,,,
2242,1645650942.557962,78.0,0.0,4088.718018,5052.820313,4181.025879,4272.820313,4236.922852000001,450.0,3.0,59.0,,,,0.0,0.0,0.0,4.0,0.0,2.0,0.0,,,,,,,,39.0,0.0,0.319786,0.573975,0.14135699999999998,-0.740479,0.957046,-0.16406500000000002,-0.306645,-0.019953,-0.049687,-0.015162,,,,,,,,,,,,,,,,,,,,,,,,,,,,,,,,,,,,,,,,,,,,,,,,,,,,,,,,,,,,,,,,,
2243,1645650942.565777,79.0,0.0,4042.5642090000006,4580.512695,4296.410156,4281.538574,4102.05127,250.0,3.0,59.0,,,,0.0,0.0,0.0,4.0,0.0,2.0,0.0,,,,,,,,,,,,,,,,,,,,1.0,0.0,0.0,,,,,,,,,,,,,,,,,,,,,,,,,,,,,,,,11.0,0.0,1.0,0.0,512.0,1.0,510.815674,89.180809,43.887524,12.893996000000001,6.3683879999999995,173.093002,512.267517,1093.3432619999999,136.232529,246.233536,113.68755300000001,129.513016,46.282131,6.857739,4.4019699999999995,0.190719,0.180056,0.40370900000000004,0.059401999999999996,0.089799,79.874542,51.346493,37.08889,5.403401000000001,4.672118
2244,1645650942.573591,80.0,0.0,3998.461426,4492.307617,4249.743652,4284.102539,4131.282227000001,450.0,3.0,59.0,,,,0.0,0.0,0.0,4.0,0.0,2.0,0.0,,,,,,,,40.0,0.0,0.319328,0.573975,0.14111300000000002,-0.7407229999999999,0.9463030000000001,-0.164553,-0.307134,-0.018007,-0.04965,-0.01931,,,,,,,,,,,,,,,,,,,,,,,,,,,,,,,,,,,,,,,,,,,,,,,,,,,,,,,,,,,,,,,,,
2245,1645650942.581406,81.0,0.0,4048.718018,4392.820313,4220.0,4274.358886999999,4181.025879,450.0,3.0,59.0,,,,0.0,0.0,0.0,4.0,0.0,2.0,0.0,,,,,,,,,,,,,,,,,,,,,,,,,,,,,,,,,,,,,,,,,,,,,,,,,,,,,,,,,,,,,,,,,,,,,,,,,,,,,,,,,,,,
2246,1645650942.58932,82.0,0.0,4112.820313,4251.794922,4309.743652,4269.230957,4135.384765999999,450.0,3.0,59.0,,,,0.0,0.0,0.0,4.0,0.0,2.0,0.0,,,,,,,,41.0,0.0,0.319893,0.573975,0.14111300000000002,-0.740479,0.945327,-0.16894800000000001,-0.309087,-0.01855,-0.049568,-0.016842,,,,,,,,,,,,,,,,,,,,,,,,,,,,,,,,,,,,,,,,,,,,,,,,,,,,,,,,,,,,,,,,,
2247,1645650942.5971339,83.0,0.0,4030.7692869999996,4700.512695,4286.153809,4271.794922,4136.922852000001,250.0,3.0,59.0,,,,0.0,0.0,0.0,4.0,0.0,2.0,0.0,,,,,,,,,,,,,,,,,,,,,,,,,,,,,,,,,,,,,,,,,,,,,,,,,,,,,,11.0,0.0,1.0,0.0,512.0,1.0,,,,,,,,,,,,,,,,,,,,,,,,,
2248,1645650942.604949,84.0,0.0,3953.3332520000004,5110.256348,4270.256348,4272.820313,4214.871582,450.0,3.0,59.0,,,,0.0,0.0,0.0,4.0,0.0,2.0,0.0,,,,,,,,42.0,0.0,0.319893,0.573975,0.14111300000000002,-0.740479,0.9550930000000001,-0.16552999999999998,-0.303716,-0.016744,-0.049543000000000004,-0.020773,,,,,,,,,,,,,,,,,,,,,,,,,,,,,,,,,,,,,,,,,,,,,,,,,,,,,,,,,,,,,,,,,
2249,1645650942.6127632,85.0,0.0,3965.641113,4751.282227000001,4343.589844,4276.410156,4185.128418,450.0,3.0,59.0,,,,0.0,0.0,0.0,4.0,0.0,2.0,0.0,,,,,,,,,,,,,,,,,,,,,,,,,,,,,,,,,,,,,,,,,,,,,,,,,,,,,,,,,,,,,,,,,,,,,,,,,,,,,,,,,,,,
2250,1645650942.6205778,86.0,0.0,3995.897461,4266.153809,4388.717772999999,4281.025879,4091.794922,450.0,3.0,59.0,,,,0.0,0.0,0.0,4.0,0.0,2.0,0.0,,,,,,,,43.0,0.0,0.32000100000000004,0.573975,0.140869,-0.740479,0.9511860000000001,-0.161624,-0.308598,-0.015851,-0.049569,-0.024311000000000003,,,,,,,,,,,,,,,,,,,,,,,,,,,,,,,,,,,,,,,,,,,,,,,,,,,,,,,,,,,,,,,,,
2251,1645650942.628392,87.0,0.0,4055.384521,4387.692383,4282.563965,4275.384765999999,4121.538574,250.0,3.0,59.0,,,,0.0,0.0,0.0,4.0,0.0,2.0,0.0,,,,,,,,,,,,,,,,,,,,,,,,,,,,,,,,,,,,,,,,,,,,,,,,,,,,,,11.0,0.0,1.0,0.0,512.0,1.0,,,,,,,,,,,,,,,,,,,,,,,,,
2252,1645650942.6362062,88.0,0.0,4102.05127,4848.717772999999,4205.128418,4267.179688,4217.436035,450.0,3.0,59.0,,,,0.0,0.0,0.0,4.0,0.0,2.0,0.0,,,,,,,,44.0,0.0,0.32000100000000004,0.573975,0.140869,-0.740479,0.9521629999999999,-0.157229,-0.299809,-0.015047,-0.049495,-0.027495,,,,,,,,,,,,,,,,,,,,,,,,,,,,,,,,,,,,,,,,,,,,,,,,,,,,,,,,,,,,,,,,,
2253,1645650942.644021,89.0,0.0,4050.256348,5008.717772999999,4236.922852000001,4273.846191,4221.538574,450.0,3.0,59.0,,,,0.0,0.0,0.0,4.0,0.0,2.0,0.0,,,,,,,,,,,,,,,,,,,,,,,,,,,,,,,,,,,,,,,,,,,,,,,,,,,,,,,,,,,,,,,,,,,,,,,,,,,,,,,,,,,,
2254,1645650942.651835,90.0,0.0,3972.820557,4720.512695,4277.94873,4284.615234000001,4154.358886999999,450.0,3.0,59.0,,,,0.0,0.0,0.0,4.0,0.0,2.0,0.0,,,,,,,,45.0,0.0,0.32000100000000004,0.573975,0.140869,-0.740479,0.957046,-0.157717,-0.314946,-0.015984,-0.04938,-0.030458999999999996,,,,,,,,,,,,,,,,,,,,,,,,,,,,,,,,,,,,,,,,,,,,,,,,,,,,,,,,,,,,,,,,,
2255,1645650942.65975,91.0,0.0,4073.3332520000004,4425.128418,4207.179688,4282.563965,4178.974121,250.0,3.0,59.0,,,,0.0,0.0,0.0,4.0,0.0,2.0,0.0,,,,,,,,,,,,,,,,,,,,,,,,,,,,,,,,,,,,,,,,,,,,,,,,,,,,,,11.0,0.0,1.0,0.0,512.0,1.0,,,,,,,,,,,,,,,,,,,,,,,,,
2256,1645650942.6675642,92.0,0.0,4203.077147999999,4428.717772999999,4167.179688,4270.769043,4228.205078,450.0,3.0,59.0,,,,0.0,0.0,0.0,4.0,0.0,2.0,0.0,,,,,,,,46.0,0.0,0.32000100000000004,0.573975,0.140869,-0.740479,0.954116,-0.172854,-0.300298,-0.016827,-0.049373,-0.032979,,,,,,,,,,,,,,,,,,,,,,,,,,,,,,,,,,,,,,,,,,,,,,,,,,,,,,,,,,,,,,,,,
2257,1645650942.6753778,93.0,0.0,4161.538574,4616.922852000001,4224.102539,4267.692383,4203.589844,450.0,3.0,59.0,,,,0.0,0.0,0.0,4.0,0.0,2.0,0.0,,,,,,,,,,,,,,,,,,,,,,,,,,,,,,,,,,,,,,,,,,,,,,,,,,,,,,,,,,,,,,,,,,,,,,,,,,,,,,,,,,,,
2258,1645650942.683193,94.0,0.0,4030.7692869999996,4812.820313,4236.922852000001,4280.512695,4162.563965,450.0,3.0,59.0,,,,0.0,0.0,0.0,4.0,0.0,2.0,0.0,,,,,,,,47.0,0.0,0.32000100000000004,0.573975,0.140869,-0.740479,0.961929,-0.15332300000000001,-0.30811,-0.017537,-0.049319,-0.035345999999999995,,,,,,,,,,,,,,,,,,,,,,,,,,,,,,,,,,,,,,,,,,,,,,,,,,,,,,,,,,,,,,,,,
2259,1645650942.6910071,95.0,0.0,4036.923096,4684.615234000001,4206.153809,4286.666504,4235.897461,250.0,3.0,59.0,,,,0.0,0.0,0.0,4.0,0.0,2.0,0.0,1.0,0.0,0.0,0.0,1.0,0.0,1.0,,,,,,,,,,,,,1.0,0.0,0.0,,,,,,,,,,,,,,,,,,,,,,,,,,,,,,,,11.0,0.0,1.0,0.0,512.0,1.0,977.748108,106.36367800000001,40.98415,14.623006,7.204166000000001,163.109863,546.8797,935.943542,143.631241,239.787933,113.517311,125.68434099999999,41.112915,8.468378,5.696946,0.36184,0.216998,0.35292399999999996,0.06829099999999999,0.083285,120.288155,47.375927000000004,33.323761,5.170232,4.687724
2260,1645650942.698822,96.0,0.0,4123.077147999999,4279.487305,4228.717772999999,4274.871582,4228.717772999999,450.0,3.0,59.0,,,,0.0,0.0,0.0,4.0,0.0,2.0,0.0,,,,,,,,48.0,0.0,0.32000100000000004,0.573975,0.140869,-0.740479,0.9580219999999999,-0.16406500000000002,-0.306645,-0.018127,-0.049416,-0.031274,,,,,,,,,,,,,,,,,,,,,,,,,,,,,,,,,,,,,,,,,,,,,,,,,,,,,,,,,,,,,,,,,
2261,1645650942.706636,97.0,0.0,4189.230957,4261.538574,4293.333496,4266.666504,4172.307617,450.0,3.0,59.0,,,,0.0,0.0,0.0,4.0,0.0,2.0,0.0,,,,,,,,,,,,,,,,,,,,,,,,,,,,,,,,,,,,,,,,,,,,,,,,,,,,,,,,,,,,,,,,,,,,,,,,,,,,,,,,,,,,
2262,1645650942.71445,98.0,0.0,4126.666504,4818.974121,4264.102539,4271.794922,4208.717772999999,450.0,3.0,59.0,,,,0.0,0.0,0.0,4.0,0.0,2.0,0.0,,,,,,,,49.0,0.0,0.32000100000000004,0.573975,0.140869,-0.740479,0.951675,-0.166018,-0.309575,-0.018706999999999998,-0.049455,-0.033762,,,,,,,,,,,,,,,,,,,,,,,,,,,,,,,,,,,,,,,,,,,,,,,,,,,,,,,,,,,,,,,,,
2263,1645650942.722265,99.0,0.0,4039.487061,5114.871582,4288.717772999999,4278.974121,4271.794922,250.0,3.0,59.0,,,,0.0,0.0,0.0,4.0,0.0,2.0,0.0,,,,,,,,,,,,,,,,,,,,,,,,,,,,,,,,,,,,,,,,,,,,,,,,,,,,,,0.0,0.0,1.0,0.0,512.0,1.0,,,,,,,,,,,,,,,,,,,,,,,,,
2264,1645650942.7301788,100.0,0.0,4029.743652,4546.666504,4377.94873,4278.974121,4192.820313,450.0,3.0,59.0,,,,0.0,0.0,0.0,4.0,0.0,2.0,0.0,,,,,,,,50.0,0.0,0.32000100000000004,0.573975,0.140869,-0.740479,0.9560690000000001,-0.166995,-0.30225100000000005,-0.019229,-0.049393,-0.03605,,,,,,,,,,,,,,,,,,,,,,,,,,,,,,,,,,,,,,,,,,,,,,,,,,,,,,,,,,,,,,,,,
2265,1645650942.737994,101.0,0.0,4082.5642090000006,4015.897461,4408.205078,4275.897461,4097.436035,450.0,3.0,59.0,,,,0.0,0.0,0.0,4.0,0.0,2.0,0.0,,,,,,,,,,,,,,,,,,,,,,,,,,,,,,,,,,,,,,,,,,,,,,,,,,,,,,,,,,,,,,,,,,,,,,,,,,,,,,,,,,,,
2266,1645650942.7458081,102.0,0.0,4123.077147999999,4393.846191,4256.922852000001,4271.794922,4145.128418,450.0,3.0,59.0,,,,0.0,0.0,0.0,4.0,0.0,2.0,0.0,,,,,,,,51.0,0.0,0.32000100000000004,0.573975,0.140869,-0.740479,0.962417,-0.161135,-0.307622,-0.017988999999999998,-0.049385000000000005,-0.031810000000000005,,,,,,,,,,,,,,,,,,,,,,,,,,,,,,,,,,,,,,,,,,,,,,,,,,,,,,,,,,,,,,,,,
2267,1645650942.753622,103.0,0.0,4104.102539,5012.307617,4184.615234000001,4269.230957,4240.0,250.0,3.0,59.0,,,,0.0,0.0,0.0,4.0,0.0,2.0,0.0,,,,,,,,,,,,,,,,,,,,,,,,,,,,,,,,,,,,,,,,,,,,,,,,,,,,,,0.0,0.0,1.0,0.0,512.0,1.0,,,,,,,,,,,,,,,,,,,,,,,,,
2268,1645650942.761437,104.0,0.0,4057.4357909999994,4933.333496,4292.820313,4273.846191,4233.846191,450.0,3.0,59.0,,,,0.0,0.0,0.0,4.0,0.0,2.0,0.0,,,,,,,,52.0,0.0,0.319563,0.5742189999999999,0.140869,-0.740479,0.9521629999999999,-0.154299,-0.300298,-0.018583000000000002,-0.049476,-0.027993999999999998,,,,,,,,,,,,,,,,,,,,,,,,,,,,,,,,,,,,,,,,,,,,,,,,,,,,,,,,,,,,,,,,,
2269,1645650942.7692509,105.0,0.0,4023.5898439999996,4397.94873,4344.102539,4282.05127,4152.307617,450.0,3.0,59.0,,,,0.0,0.0,0.0,4.0,0.0,2.0,0.0,,,,,,,,,,,,,,,,,,,,,,,,,,,,,,,,,,,,,,,,,,,,,,,,,,,,,,,,,,,,,,,,,,,,,,,,,,,,,,,,,,,,
2270,1645650942.777066,106.0,0.0,4107.692383,4296.922852000001,4200.0,4281.538574,4166.153809,450.0,3.0,59.0,,,,0.0,0.0,0.0,4.0,0.0,2.0,0.0,,,,,,,,53.0,0.0,0.319563,0.5742189999999999,0.140869,-0.740479,0.9580219999999999,-0.15967,-0.313481,-0.016919999999999998,-0.049460000000000004,-0.031005,,,,,,,,,,,,,,,,,,,,,,,,,,,,,,,,,,,,,,,,,,,,,,,,,,,,,,,,,,,,,,,,,
2271,1645650942.7848802,107.0,0.0,4195.384765999999,4717.436035,4130.769043,4268.205078,4238.461426,250.0,3.0,59.0,,,,0.0,0.0,0.0,4.0,0.0,2.0,0.0,,,,,,,,,,,,,,,,,,,,,,,,,,,,,,,,,,,,,,,,,,,,,,,,,,,,,,0.0,0.0,1.0,0.0,512.0,1.0,,,,,,,,,,,,,,,,,,,,,,,,,
2272,1645650942.7926939,108.0,0.0,4169.230957,4945.128418,4185.128418,4265.128418,4241.538574,450.0,3.0,59.0,,,,0.0,0.0,0.0,4.0,0.0,2.0,0.0,,,,,,,,54.0,0.0,0.320108,0.573975,0.140625,-0.740479,0.9511860000000001,-0.15674100000000002,-0.298833,-0.017523,-0.049495,-0.027221,,,,,,,,,,,,,,,,,,,,,,,,,,,,,,,,,,,,,,,,,,,,,,,,,,,,,,,,,,,,,,,,,
2273,1645650942.8006089,109.0,0.0,4065.641113,4630.769043,4217.94873,4278.974121,4155.384765999999,450.0,3.0,59.0,,,,0.0,0.0,0.0,4.0,0.0,2.0,0.0,,,,,,,,,,,,,,,,,,,,,,,,,,,,,,,,,,,,,,,,,,,,,,,,,,,,,,,,,,,,,,,,,,,,,,,,,,,,,,,,,,,,
2274,1645650942.808424,110.0,0.0,4060.0,4455.897461,4212.307617,4285.641113000001,4165.128418,450.0,3.0,59.0,,,,0.0,0.0,0.0,4.0,0.0,2.0,0.0,,,,,,,,55.0,0.0,0.320108,0.573975,0.140625,-0.740479,0.9331200000000001,-0.160159,-0.299809,-0.018113999999999998,-0.049575,-0.030114,,,,,,,,,,,,,,,,,,,,,,,,,,,,,,,,,,,,,,,,,,,,,,,,,,,,,,,,,,,,,,,,,
2275,1645650942.8162382,111.0,0.0,4118.461426,4906.153809,4166.153809,4275.897461,4257.436035,250.0,3.0,59.0,,,,0.0,0.0,0.0,4.0,0.0,2.0,0.0,,,,,,,,,,,,,,,,,,,,1.0,0.0,0.0,,,,,,,,,,,,,,,,,,,,,,,,,,,,,,,,0.0,0.0,1.0,0.0,512.0,1.0,1555.694214,128.397491,37.185402,16.285959,8.6468,146.42726100000002,532.0205080000001,803.544006,180.92211899999998,258.980316,114.434799,124.708427,36.684132,10.972099,7.666764,0.602748,0.249166,0.292528,0.078706,0.077539,176.96589699999998,44.085545,29.94438,5.097915,5.27071
2276,1645650942.8240528,112.0,0.0,4159.487305,5138.974121,4151.282227000001,4270.769043,4307.692383,450.0,3.0,59.0,,,,0.0,0.0,0.0,4.0,0.0,2.0,0.0,,,,,,,,56.0,0.0,0.31954299999999997,0.573975,0.140625,-0.7407229999999999,0.9428850000000001,-0.15967,-0.29639099999999996,-0.0185,-0.049598,-0.026322,,,,,,,,,,,,,,,,,,,,,,,,,,,,,,,,,,,,,,,,,,,,,,,,,,,,,,,,,,,,,,,,,
2277,1645650942.831868,113.0,0.0,4148.205078,4495.897461,4246.153809,4278.461426,4198.974121,450.0,3.0,59.0,,,,0.0,0.0,0.0,4.0,0.0,2.0,0.0,,,,,,,,,,,,,,,,,,,,,,,,,,,,,,,,,,,,,,,,,,,,,,,,,,,,,,,,,,,,,,,,,,,,,,,,,,,,,,,,,,,,
2278,1645650942.839682,114.0,0.0,4168.717772999999,4035.384521,4375.897461,4281.025879,4126.666504,450.0,3.0,59.0,,,,0.0,0.0,0.0,4.0,0.0,2.0,0.0,,,,,,,,57.0,0.0,0.319981,0.5737300000000001,0.140625,-0.7407229999999999,0.9589989999999999,-0.17383099999999999,-0.307622,-0.017432,-0.049472,-0.029403,,,,,,,,,,,,,,,,,,,,,,,,,,,,,,,,,,,,,,,,,,,,,,,,,,,,,,,,,,,,,,,,,
2279,1645650942.847497,115.0,0.0,4140.512695,4607.692383,4302.563965,4272.820313,4197.436035,250.0,3.0,59.0,,,,0.0,0.0,0.0,4.0,0.0,2.0,0.0,,,,,,,,,,,,,,,,,,,,,,,,,,,,,,,,,,,,,,,,,,,,,,,,,,,,,,0.0,0.0,1.0,0.0,512.0,1.0,,,,,,,,,,,,,,,,,,,,,,,,,
2280,1645650942.855311,116.0,0.0,4072.3076170000004,5148.717772999999,4252.820313,4271.794922,4270.769043,450.0,3.0,59.0,,,,0.0,0.0,0.0,4.0,0.0,2.0,0.0,,,,,,,,58.0,0.0,0.319981,0.5737300000000001,0.140625,-0.7407229999999999,0.960952,-0.163088,-0.305669,-0.018032,-0.04931,-0.025925,,,,,,,,,,,,,,,,,,,,,,,,,,,,,,,,,,,,,,,,,,,,,,,,,,,,,,,,,,,,,,,,,
2281,1645650942.863126,117.0,0.0,4049.2307130000004,4728.205078,4350.256348,4278.974121,4212.307617,450.0,3.0,59.0,,,,0.0,0.0,0.0,4.0,0.0,2.0,0.0,,,,,,,,,,,,,,,,,,,,,,,,,,,,,,,,,,,,,,,,,,,,,,,,,,,,,,,,,,,,,,,,,,,,,,,,,,,,,,,,,,,,
2282,1645650942.871041,118.0,0.0,4095.384521,4122.05127,4411.794922,4279.487305,4122.563965,450.0,3.0,59.0,,,,0.0,0.0,0.0,4.0,0.0,2.0,0.0,,,,,,,,59.0,0.0,0.320088,0.5737300000000001,0.140381,-0.7407229999999999,0.951675,-0.178714,-0.31006300000000003,-0.018573,-0.049408,-0.028997000000000002,,,,,,,,,,,,,,,,,,,,,,,,,,,,,,,,,,,,,,,,,,,,,,,,,,,,,,,,,,,,,,,,,
2283,1645650942.878855,119.0,0.0,4150.256348,4318.974121,4266.666504,4272.820313,4142.05127,250.0,3.0,59.0,,,,0.0,0.0,0.0,4.0,0.0,2.0,0.0,,,,,,,,,,,,,,,,,,,,,,,,,,,,,,,,,,,,,,,,,,,,,,,,,,,,,,0.0,0.0,1.0,0.0,512.0,1.0,,,,,,,,,,,,,,,,,,,,,,,,,
2284,1645650942.8866699,120.0,0.0,4117.94873,4937.94873,4170.769043,4268.205078,4221.025879,450.0,3.0,59.0,,,,0.0,0.0,0.0,4.0,0.0,2.0,0.0,,,,,,,,60.0,0.0,0.320088,0.5737300000000001,0.140381,-0.7407229999999999,0.9511860000000001,-0.154788,-0.304204,-0.01901,-0.049448,-0.02556,,,,,,,,,,,,,,,,,,,,,,,,,,,,,,,,,,,,,,,,,,,,,,,,,,,,,,,,,,,,,,,,,
2285,1645650942.894485,121.0,0.0,4060.0,4926.666504,4265.641113000001,4273.846191,4216.922852000001,450.0,3.0,59.0,,,,0.0,0.0,0.0,4.0,0.0,2.0,0.0,,,,,,,,,,,,,,,,,,,,,,,,,,,,,,,,,,,,,,,,,,,,,,,,,,,,,,,,,,,,,,,,,,,,,,,,,,,,,,,,,,,,
2286,1645650942.902299,122.0,0.0,4062.5642090000006,4317.436035,4348.205078,4281.538574,4144.615234000001,450.0,3.0,59.0,,,,0.0,0.0,0.0,4.0,0.0,2.0,0.0,,,,,,,,61.0,0.0,0.31954299999999997,0.573975,0.140625,-0.7407229999999999,0.947768,-0.160647,-0.31299299999999997,-0.019403999999999998,-0.049435,-0.028619,,,,,,,,,,,,,,,,,,,,,,,,,,,,,,,,,,,,,,,,,,,,,,,,,,,,,,,,,,,,,,,,,
2287,1645650942.910114,123.0,0.0,4161.538574,4176.922852000001,4210.256348,4278.974121,4190.769043,250.0,3.0,59.0,,,,0.0,0.0,0.0,4.0,0.0,2.0,0.0,,,,,,,,,,,,,,,,,,,,,,,,,,,,,,,,,,,,,,,,,,,,,,,,,,,,,,0.0,0.0,1.0,0.0,512.0,1.0,,,,,,,,,,,,,,,,,,,,,,,,,
2288,1645650942.917929,124.0,0.0,4215.384765999999,4826.153809,4094.358887,4269.230957,4274.871582,450.0,3.0,59.0,,,,0.0,0.0,0.0,4.0,0.0,2.0,0.0,,,,,,,,62.0,0.0,0.31954299999999997,0.573975,0.140625,-0.7407229999999999,0.959976,-0.154788,-0.31006300000000003,-0.019759,-0.049423,-0.031422000000000005,,,,,,,,,,,,,,,,,,,,,,,,,,,,,,,,,,,,,,,,,,,,,,,,,,,,,,,,,,,,,,,,,
2289,1645650942.9257429,125.0,0.0,4180.512695,5096.922852000001,4183.077147999999,4270.769043,4252.307617,450.0,3.0,59.0,,,,0.0,0.0,0.0,4.0,0.0,2.0,0.0,,,,,,,,,,,,,,,,,,,,,,,,,,,,,,,,,,,,,,,,,,,,,,,,,,,,,,,,,,,,,,,,,,,,,,,,,,,,,,,,,,,,
2290,1645650942.933558,126.0,0.0,4129.230957,4433.846191,4293.333496,4275.897461,4127.179688,450.0,3.0,59.0,,,,0.0,0.0,0.0,4.0,0.0,2.0,0.0,,,,,,,,63.0,0.0,0.320108,0.573975,0.140625,-0.740479,0.9550930000000001,-0.166995,-0.29688000000000003,-0.020127000000000003,-0.049413,-0.027742000000000003,,,,,,,,,,,,,,,,,,,,,,,,,,,,,,,,,,,,,,,,,,,,,,,,,,,,,,,,,,,,,,,,,
2291,1645650942.941472,127.0,0.0,4121.538574,4176.410156,4282.05127,4274.358886999999,4137.436035,235.0,3.0,59.0,,,,0.0,4.0,2.0,2.0,0.0,2.0,33.333332,,,,,,,,,,,,,,,,,,,,1.0,0.0,0.0,,,,,,,,,,,,,,,,,,,,,,,,,,,,,,,,0.0,0.0,1.0,0.0,512.0,1.0,2107.448975,150.871811,32.264557,18.106821,11.031419999999999,129.154785,471.14624000000003,705.783997,270.450897,322.105225,115.28743700000001,125.548248,33.225063,14.406046,10.56166,0.862776,0.27144,0.232264,0.09689400000000001,0.075903,237.539993,41.764271,26.541731,5.5666,6.679539
2292,1645650942.949287,0.0,0.0,4082.0512700000004,4902.563965,4212.820313,4277.94873,4246.153809,450.0,3.0,59.0,,,,0.0,4.0,2.0,2.0,0.0,2.0,33.333332,,,,,,,,0.0,0.0,0.320215,0.573975,0.140381,-0.740479,0.95314,-0.163088,-0.31396999999999997,-0.018847,-0.049354,-0.030681,,,,,,,,,,,,,,,,,,,,,,,,,,,,,,,,,,,,,,,,,,,,,,,,,,,,,,,,,,,,,,,,,
2293,1645650942.957102,1.0,0.0,4071.794922,5084.102539,4215.897461,4283.589844,4279.487305,450.0,3.0,59.0,,,,0.0,4.0,2.0,2.0,0.0,2.0,33.333332,,,,,,,,,,,,,,,,,,,,,,,,,,,,,,,,,,,,,,,,,,,,,,,,,,,,,,,,,,,,,,,,,,,,,,,,,,,,,,,,,,,,
2294,1645650942.964916,2.0,0.0,4094.8718259999996,4230.769043,4268.717772999999,4277.94873,4152.307617,16095.0,3.0,59.0,,,,0.0,4.0,2.0,2.0,0.0,2.0,33.333332,,,,,,,,1.0,0.0,0.31954299999999997,0.573975,0.140625,-0.7407229999999999,0.959976,-0.154788,-0.31006300000000003,-0.019500999999999998,-0.04935,-0.027076,,,,,,,,,,,,,,,,,,,,,,,,,,,,,,,,,,,,,,,,,,,,,,,,,,,,,,,,,,,,,,,,,
2295,1645650942.972731,3.0,0.0,4145.641113000001,3935.384521,4354.871582,4270.769043,4088.205078,450.0,3.0,59.0,,,,0.0,4.0,2.0,2.0,0.0,2.0,33.333332,,,,,,,,,,,,,,,,,,,,,,,,,,,,,,,,,,,,,,,,,,,,,,,,,,,,,,0.0,0.0,1.0,0.0,512.0,1.0,,,,,,,,,,,,,,,,,,,,,,,,,
2296,1645650942.980546,4.0,0.0,4114.871582,4689.743652,4303.589844,4270.769043,4170.256348,186.0,3.0,59.0,,,,0.0,4.0,2.0,2.0,0.0,2.0,33.333332,,,,,,,,2.0,0.0,0.320215,0.573975,0.140381,-0.740479,0.95314,-0.163088,-0.31396999999999997,-0.018283,-0.049298,-0.030081,,,,,,,,,,,,,,,,,,,,,,,,,,,,,,,,,,,,,,,,,,,,,,,,,,,,,,,,,,,,,,,,,
2297,1645650942.98836,5.0,0.0,4024.102539,5174.871582,4257.436035,4276.410156,4224.615234000001,450.0,3.0,59.0,,,,0.0,4.0,2.0,2.0,0.0,2.0,33.333332,,,,,,,,,,,,,,,,,,,,,,,,,,,,,,,,,,,,,,,,,,,,,,,,,,,,,,,,,,,,,,,,,,,,,,,,,,,,,,,,,,,,
2298,1645650942.996175,6.0,0.0,4001.538574,4617.436035,4335.897461,4278.974121,4144.615234000001,248.0,3.0,59.0,,,,0.0,4.0,2.0,2.0,0.0,2.0,33.333332,,,,,,,,3.0,0.0,0.320108,0.573975,0.140625,-0.740479,0.9399559999999999,-0.167483,-0.307622,-0.016503999999999998,-0.049349000000000004,-0.032786,,,,,,,,,,,,,,,,,,,,,,,,,,,,,,,,,,,,,,,,,,,,,,,,,,,,,,,,,,,,,,,,,
2299,1645650943.00399,7.0,0.0,4087.179443,3982.5642090000006,4385.641113000001,4274.871582,4061.538574,450.0,3.0,59.0,,,,0.0,4.0,2.0,2.0,0.0,2.0,33.333332,,,,,,,,,,,,,,,,,,,,,,,,,,,,,,,,,,,,,,,,,,,,,,,,,,,,,,0.0,0.0,1.0,0.0,512.0,1.0,,,,,,,,,,,,,,,,,,,,,,,,,
2300,1645650943.011904,8.0,0.0,4155.384765999999,4409.743652,4229.230957,4270.769043,4129.230957,450.0,3.0,59.0,,,,0.0,4.0,2.0,2.0,0.0,4.0,33.333332,,,,,,,,4.0,0.0,0.320108,0.573975,0.140625,-0.740479,0.9633940000000001,-0.160159,-0.299809,-0.015,-0.049297,-0.035123,,,,,,,,,,,,,,,,,,,,,,,,,,,,,,,,,,,,,,,,,,,,,,,,,,,,,,,,,,,,,,,,,
2301,1645650943.019719,9.0,0.0,4077.4357909999994,5183.589844,4134.871582,4272.820313,4224.615234000001,0.0,3.0,59.0,,,,0.0,4.0,2.0,2.0,0.0,4.0,33.333332,,,,,,,,,,,,,,,,,,,,,,,,,,,,,,,,,,,,,,,,,,,,,,,,,,,,,,,,,,,,,,,,,,,,,,,,,,,,,,,,,,,,
2302,1645650943.027533,10.0,0.0,4036.4101560000004,4895.384765999999,4251.794922,4276.922852000001,4193.846191,450.0,3.0,59.0,,,,0.0,4.0,2.0,2.0,0.0,4.0,33.333332,,,,,,,,5.0,0.0,0.320108,0.573975,0.140625,-0.740479,0.945815,-0.159182,-0.313481,-0.015795,-0.049299,-0.031025,,,,,,,,,,,,,,,,,,,,,,,,,,,,,,,,,,,,,,,,,,,,,,,,,,,,,,,,,,,,,,,,,
2303,1645650943.035348,11.0,0.0,4109.230957,4037.4357909999994,4341.025879,4276.410156,4118.974121,16148.0,3.0,59.0,,,,0.0,4.0,2.0,2.0,0.0,4.0,33.333332,,,,,,,,,,,,,,,,,,,,,,,,,,,,,,,,,,,,,,,,,,,,,,,,,,,,,,0.0,0.0,1.0,0.0,512.0,1.0,,,,,,,,,,,,,,,,,,,,,,,,,
2304,1645650943.043163,12.0,0.0,4212.820313,4068.718018,4203.077147999999,4273.333496,4203.589844,450.0,3.0,59.0,,,,0.0,4.0,2.0,2.0,0.0,4.0,33.333332,,,,,,,,6.0,0.0,0.32000100000000004,0.573975,0.140869,-0.740479,0.949233,-0.16211199999999998,-0.301762,-0.016608,-0.049447000000000005,-0.033537,,,,,,,,,,,,,,,,,,,,,,,,,,,,,,,,,,,,,,,,,,,,,,,,,,,,,,,,,,,,,,,,,
2305,1645650943.050977,13.0,0.0,4212.307617,4892.307617,4074.8718259999996,4270.256348,4310.256348,450.0,3.0,59.0,,,,0.0,4.0,2.0,2.0,0.0,4.0,33.333332,,,,,,,,,,,,,,,,,,,,,,,,,,,,,,,,,,,,,,,,,,,,,,,,,,,,,,,,,,,,,,,,,,,,,,,,,,,,,,,,,,,,
2306,1645650943.0587919,14.0,0.0,4160.0,5092.820313,4153.846191,4274.358886999999,4255.384765999999,450.0,3.0,59.0,,,,0.0,4.0,2.0,2.0,0.0,4.0,33.333332,,,,,,,,7.0,0.0,0.32000100000000004,0.573975,0.140869,-0.740479,0.947768,-0.155276,-0.293462,-0.014996,-0.049434,-0.035897000000000005,,,,,,,,,,,,,,,,,,,,,,,,,,,,,,,,,,,,,,,,,,,,,,,,,,,,,,,,,,,,,,,,,
2307,1645650943.066607,15.0,0.0,4137.436035,4380.512695,4276.922852000001,4276.410156,4097.94873,16148.0,3.0,59.0,,,,0.0,4.0,2.0,2.0,0.0,4.0,33.333332,,,,,,,,,,,,,,,,,,,,1.0,0.0,0.0,,,,,,,,,,,,,,,,,,,,,,,,,,,,,,,,0.0,0.0,1.0,0.0,512.0,1.0,2473.913086,167.67099,26.233320000000003,20.606355999999998,14.421365,116.81143999999999,382.098633,636.1613769999999,421.65817300000003,436.003479,116.234039,126.71325700000001,30.546809999999997,18.449591,14.560329000000001,1.068906,0.276647,0.18040899999999999,0.12972899999999998,0.083209,284.241241,40.031689,22.542194,6.8071720000000004,9.067614
2308,1645650943.0744212,16.0,0.0,4142.563965,4214.871582,4286.153809,4271.282227000001,4106.666504,0.0,3.0,59.0,,,,0.0,4.0,2.0,2.0,0.0,4.0,33.333332,,,,,,,,8.0,0.0,0.32000100000000004,0.573975,0.140869,-0.740479,0.9580219999999999,-0.14551,-0.300298,-0.01584,-0.04952,-0.03802,,,,,,,,,,,,,,,,,,,,,,,,,,,,,,,,,,,,,,,,,,,,,,,,,,,,,,,,,,,,,,,,,
2309,1645650943.082336,17.0,0.0,4057.4357909999994,4905.128418,4219.487305,4276.410156,4198.461426,0.0,3.0,59.0,,,,0.0,4.0,2.0,2.0,0.0,4.0,33.333332,,,,,,,,,,,,,,,,,,,,,,,,,,,,,,,,,,,,,,,,,,,,,,,,,,,,,,,,,,,,,,,,,,,,,,,,,,,,,,,,,,,,
2310,1645650943.09015,18.0,0.0,4034.358887,4972.820313,4241.025879,4287.179688,4228.205078,0.0,3.0,59.0,,,,0.0,4.0,2.0,2.0,0.0,4.0,33.333332,,,,,,,,9.0,0.0,0.32000100000000004,0.573975,0.140869,-0.740479,0.957046,-0.157717,-0.298833,-0.016697999999999998,-0.049451,-0.033681,,,,,,,,,,,,,,,,,,,,,,,,,,,,,,,,,,,,,,,,,,,,,,,,,,,,,,,,,,,,,,,,,
2311,1645650943.097965,19.0,0.0,4154.871582,4398.461426,4288.717772999999,4279.487305,4204.102539,0.0,3.0,59.0,,,,0.0,4.0,2.0,2.0,0.0,4.0,33.333332,,,,,,,,,,,,,,,,,,,,,,,,,,,,,,,,,,,,,,,,,,,,,,,,,,,,,,0.0,0.0,1.0,0.0,512.0,1.0,,,,,,,,,,,,,,,,,,,,,,,,,
2312,1645650943.1057801,20.0,0.0,4237.94873,4529.743652,4329.230957,4266.153809,4202.563965,0.0,3.0,59.0,,,,0.0,4.0,2.0,2.0,0.0,4.0,33.333332,,,,,,,,10.0,0.0,0.32000100000000004,0.573975,0.140869,-0.740479,0.953628,-0.157717,-0.309087,-0.017419999999999998,-0.049487,-0.035976999999999995,,,,,,,,,,,,,,,,,,,,,,,,,,,,,,,,,,,,,,,,,,,,,,,,,,,,,,,,,,,,,,,,,
2313,1645650943.113594,21.0,0.0,4119.487305,4968.205078,4283.589844,4273.333496,4161.025879,0.0,3.0,59.0,,,,0.0,4.0,2.0,2.0,0.0,4.0,33.333332,,,,,,,,,,,,,,,,,,,,,,,,,,,,,,,,,,,,,,,,,,,,,,,,,,,,,,,,,,,,,,,,,,,,,,,,,,,,,,,,,,,,
2314,1645650943.121409,22.0,0.0,4020.0,4685.641113000001,4298.974121,4285.128418,4101.025879,0.0,3.0,59.0,,,,0.0,4.0,2.0,2.0,0.0,4.0,33.333332,,,,,,,,11.0,0.0,0.32000100000000004,0.573975,0.140869,-0.740479,0.953628,-0.178225,-0.307622,-0.017973,-0.04947,-0.031744,,,,,,,,,,,,,,,,,,,,,,,,,,,,,,,,,,,,,,,,,,,,,,,,,,,,,,,,,,,,,,,,,
2315,1645650943.129224,23.0,0.0,4114.358886999999,4414.358886999999,4317.436035,4276.922852000001,4135.897461,0.0,3.0,59.0,,,,0.0,4.0,2.0,2.0,0.0,4.0,33.333332,,,,,,,,,,,,,,,,,,,,,,,,,,,,,,,,,,,,,,,,,,,,,,,,,,,,,,0.0,0.0,1.0,0.0,512.0,1.0,,,,,,,,,,,,,,,,,,,,,,,,,
2316,1645650943.137038,24.0,0.0,4190.256348,4820.512695,4249.743652,4267.179688,4222.05127,0.0,3.0,59.0,,,,0.0,4.0,2.0,2.0,0.0,4.0,33.333332,,,,,,,,12.0,0.0,0.32000100000000004,0.573975,0.140869,-0.740479,0.9546040000000001,-0.156252,-0.30225100000000005,-0.018569,-0.049406,-0.034283,,,,,,,,,,,,,,,,,,,,,,,,,,,,,,,,,,,,,,,,,,,,,,,,,,,,,,,,,,,,,,,,,
2317,1645650943.1448529,25.0,0.0,4128.205078,4871.282227000001,4210.256348,4276.922852000001,4203.077147999999,0.0,3.0,59.0,,,,0.0,4.0,2.0,2.0,0.0,4.0,33.333332,,,,,,,,,,,,,,,,,,,,,,,,,,,,,,,,,,,,,,,,,,,,,,,,,,,,,,,,,,,,,,,,,,,,,,,,,,,,,,,,,,,,
2318,1645650943.152767,26.0,0.0,4112.307617,4246.666504,4264.615234000001,4281.538574,4112.820313,0.0,3.0,59.0,,,,0.0,4.0,2.0,2.0,0.0,4.0,33.333332,,,,,,,,13.0,0.0,0.32000100000000004,0.573975,0.140869,-0.740479,0.9633940000000001,-0.15674100000000002,-0.311528,-0.019153,-0.049397,-0.030269,,,,,,,,,,,,,,,,,,,,,,,,,,,,,,,,,,,,,,,,,,,,,,,,,,,,,,,,,,,,,,,,,
2319,1645650943.160582,27.0,0.0,4233.846191,4303.077147999999,4201.025879,4272.307617,4191.282227000001,0.0,3.0,59.0,,,,0.0,4.0,2.0,2.0,0.0,4.0,33.333332,,,,,,,,,,,,,,,,,,,,,,,,,,,,,,,,,,,,,,,,,,,,,,,,,,,,,,0.0,0.0,1.0,0.0,512.0,1.0,,,,,,,,,,,,,,,,,,,,,,,,,
2320,1645650943.1683972,28.0,0.0,4196.922852000001,4892.820313,4119.487305,4272.820313,4285.641113000001,0.0,3.0,59.0,,,,0.0,4.0,2.0,2.0,0.0,4.0,33.333332,,,,,,,,14.0,0.0,0.320108,0.573975,0.140625,-0.740479,0.940932,-0.167483,-0.309575,-0.019533000000000002,-0.049339999999999995,-0.026705,,,,,,,,,,,,,,,,,,,,,,,,,,,,,,,,,,,,,,,,,,,,,,,,,,,,,,,,,,,,,,,,,
2321,1645650943.1762109,29.0,0.0,4137.94873,4831.282227000001,4204.102539,4281.538574,4247.692383,0.0,3.0,59.0,,,,0.0,4.0,2.0,2.0,0.0,4.0,33.333332,,,,,,,,,,,,,,,,,,,,,,,,,,,,,,,,,,,,,,,,,,,,,,,,,,,,,,,,,,,,,,,,,,,,,,,,,,,,,,,,,,,,
2322,1645650943.184026,30.0,0.0,4239.487305,4752.307617,4226.153809,4272.820313,4226.153809,0.0,3.0,59.0,,,,0.0,4.0,2.0,2.0,0.0,4.0,33.333332,,,,,,,,15.0,0.0,0.320108,0.573975,0.140625,-0.740479,0.941909,-0.167971,-0.30518,-0.017726,-0.049289,-0.029698000000000002,,,,,,,,,,,,,,,,,,,,,,,,,,,,,,,,,,,,,,,,,,,,,,,,,,,,,,,,,,,,,,,,,
2323,1645650943.1918411,31.0,0.0,4268.205078,4976.922852000001,4183.077147999999,4267.179688,4298.461426,0.0,3.0,59.0,,,,0.0,4.0,2.0,2.0,0.0,4.0,33.333332,1.0,0.0,0.0,0.0,1.0,0.0,1.0,,,,,,,,,,,,,1.0,0.0,0.0,,,,,,,,,,,,,,,,,,,,,,,,,,,,,,,,0.0,0.0,1.0,0.0,512.0,1.0,2535.060791,173.061249,19.864777,24.24885,18.404772,111.32382199999999,288.740875,573.204773,615.633362,597.833313,117.93063400000001,127.510857,28.079866,22.239179999999998,19.719519000000002,1.152252,0.26036,0.14043699999999998,0.177871,0.103422,300.764465,38.588371,17.862059,8.679845,12.482845
2324,1645650943.199655,32.0,0.0,4119.487305,4595.384765999999,4293.333496,4280.0,4231.794922,0.0,3.0,59.0,,,,0.0,4.0,2.0,2.0,0.0,4.0,33.333332,,,,,,,,16.0,0.0,0.320108,0.573975,0.140625,-0.740479,0.9550930000000001,-0.14551,-0.307622,-0.018248,-0.049339999999999995,-0.032393,,,,,,,,,,,,,,,,,,,,,,,,,,,,,,,,,,,,,,,,,,,,,,,,,,,,,,,,,,,,,,,,,
2325,1645650943.20747,33.0,0.0,4128.205078,4102.563965,4368.205078,4284.102539,4142.563965,0.0,3.0,59.0,,,,0.0,4.0,2.0,2.0,0.0,4.0,33.333332,,,,,,,,,,,,,,,,,,,,,,,,,,,,,,,,,,,,,,,,,,,,,,,,,,,,,,,,,,,,,,,,,,,,,,,,,,,,,,,,,,,,
2326,1645650943.215285,34.0,0.0,4252.307617,4198.461426,4258.974121,4273.846191,4168.205078,0.0,3.0,59.0,,,,0.0,4.0,2.0,2.0,0.0,4.0,33.333332,,,,,,,,17.0,0.0,0.320108,0.573975,0.140625,-0.740479,0.960464,-0.15967,-0.301274,-0.018816,-0.04924,-0.028519,,,,,,,,,,,,,,,,,,,,,,,,,,,,,,,,,,,,,,,,,,,,,,,,,,,,,,,,,,,,,,,,,
2327,1645650943.223099,35.0,0.0,4245.641113000001,4415.897461,4280.512695,4267.179688,4227.692383,0.0,3.0,59.0,,,,0.0,4.0,2.0,2.0,0.0,4.0,33.333332,,,,,,,,,,,,,,,,,,,,,,,,,,,,,,,,,,,,,,,,,,,,,,,,,,,,,,0.0,0.0,1.0,0.0,512.0,1.0,,,,,,,,,,,,,,,,,,,,,,,,,
2328,1645650943.231014,36.0,0.0,4097.436035,4712.307617,4321.025879,4274.358886999999,4206.666504,0.0,3.0,59.0,,,,0.0,4.0,2.0,2.0,0.0,4.0,33.333332,,,,,,,,18.0,0.0,0.32067199999999996,0.573975,0.140625,-0.7402340000000001,0.9550930000000001,-0.15674100000000002,-0.311528,-0.01923,-0.049297,-0.03138,,,,,,,,,,,,,,,,,,,,,,,,,,,,,,,,,,,,,,,,,,,,,,,,,,,,,,,,,,,,,,,,,
2329,1645650943.238828,37.0,0.0,4011.281982,4872.820313,4268.205078,4282.563965,4165.128418,0.0,3.0,59.0,,,,0.0,4.0,2.0,2.0,0.0,4.0,33.333332,,,,,,,,,,,,,,,,,,,,,,,,,,,,,,,,,,,,,,,,,,,,,,,,,,,,,,,,,,,,,,,,,,,,,,,,,,,,,,,,,,,,
2330,1645650943.2466419,38.0,0.0,4110.256348,4507.692383,4242.05127,4277.436035,4155.897461,0.0,3.0,59.0,,,,0.0,4.0,2.0,2.0,0.0,4.0,33.333332,,,,,,,,19.0,0.0,0.320342,0.5742189999999999,0.140381,-0.7402340000000001,0.957534,-0.16211199999999998,-0.301762,-0.019699,-0.049348,-0.033857,,,,,,,,,,,,,,,,,,,,,,,,,,,,,,,,,,,,,,,,,,,,,,,,,,,,,,,,,,,,,,,,,
2331,1645650943.254457,39.0,0.0,4247.692383,4334.358886999999,4314.871582,4265.641113000001,4176.410156,0.0,3.0,59.0,,,,0.0,4.0,2.0,2.0,0.0,4.0,33.333332,,,,,,,,,,,,,,,,,,,,,,,,,,,,,,,,,,,,,,,,,,,,,,,,,,,,,,0.0,0.0,1.0,0.0,512.0,1.0,,,,,,,,,,,,,,,,,,,,,,,,,
2332,1645650943.2622712,40.0,0.0,4195.897461,4744.102539,4258.974121,4267.179688,4192.307617,0.0,3.0,59.0,,,,0.0,4.0,2.0,2.0,0.0,4.0,33.333332,,,,,,,,20.0,0.0,0.320342,0.5742189999999999,0.140381,-0.7402340000000001,0.9438620000000001,-0.167483,-0.303716,-0.017827000000000003,-0.049491,-0.036038,,,,,,,,,,,,,,,,,,,,,,,,,,,,,,,,,,,,,,,,,,,,,,,,,,,,,,,,,,,,,,,,,
2333,1645650943.270086,41.0,0.0,4043.5898439999996,5013.333496,4173.846191,4281.538574,4190.256348,0.0,3.0,59.0,,,,0.0,4.0,2.0,2.0,0.0,4.0,33.333332,,,,,,,,,,,,,,,,,,,,,,,,,,,,,,,,,,,,,,,,,,,,,,,,,,,,,,,,,,,,,,,,,,,,,,,,,,,,,,,,,,,,
2334,1645650943.2779,42.0,0.0,4082.0512700000004,4648.717772999999,4204.615234000001,4283.077147999999,4195.384765999999,0.0,3.0,59.0,,,,0.0,4.0,2.0,2.0,0.0,4.0,33.333332,,,,,,,,21.0,0.0,0.320342,0.5742189999999999,0.140381,-0.7402340000000001,0.953628,-0.144045,-0.301762,-0.018437000000000002,-0.049425,-0.038196,,,,,,,,,,,,,,,,,,,,,,,,,,,,,,,,,,,,,,,,,,,,,,,,,,,,,,,,,,,,,,,,,
2335,1645650943.2857141,43.0,0.0,4255.897461,4245.128418,4233.846191,4271.282227000001,4188.717772999999,0.0,3.0,59.0,,,,0.0,4.0,2.0,2.0,0.0,4.0,33.333332,,,,,,,,,,,,,,,,,,,,,,,,,,,,,,,,,,,,,,,,,,,,,,,,,,,,,,0.0,0.0,1.0,0.0,512.0,1.0,,,,,,,,,,,,,,,,,,,,,,,,,
2336,1645650943.293629,44.0,0.0,4319.487305,4565.641113000001,4128.717772999999,4267.692383,4235.897461,0.0,3.0,59.0,,,,0.0,4.0,2.0,2.0,0.0,4.0,33.333332,,,,,,,,22.0,0.0,0.320342,0.5742189999999999,0.140381,-0.7402340000000001,0.9472799999999999,-0.16211199999999998,-0.31201599999999996,-0.017374,-0.049365,-0.040138,,,,,,,,,,,,,,,,,,,,,,,,,,,,,,,,,,,,,,,,,,,,,,,,,,,,,,,,,,,,,,,,,
2337,1645650943.3014429,45.0,0.0,4181.538574,4858.974121,4086.6667479999996,4278.974121,4238.974121,0.0,3.0,59.0,,,,0.0,4.0,2.0,2.0,0.0,4.0,33.333332,,,,,,,,,,,,,,,,,,,,,,,,,,,,,,,,,,,,,,,,,,,,,,,,,,,,,,,,,,,,,,,,,,,,,,,,,,,,,,,,,,,,
2338,1645650943.309258,46.0,0.0,4152.307617,4528.205078,4208.717772999999,4284.102539,4212.820313,0.0,3.0,59.0,,,,0.0,4.0,2.0,2.0,0.0,4.0,33.333332,,,,,,,,23.0,0.0,0.320342,0.5742189999999999,0.140381,-0.7402340000000001,0.960464,-0.166995,-0.305669,-0.01803,-0.049312,-0.04174,,,,,,,,,,,,,,,,,,,,,,,,,,,,,,,,,,,,,,,,,,,,,,,,,,,,,,,,,,,,,,,,,
2339,1645650943.3170722,47.0,0.0,4259.487305,4696.922852000001,4214.871582,4272.820313,4230.256348,0.0,3.0,59.0,,,,0.0,4.0,2.0,2.0,0.0,4.0,33.333332,,,,,,,,,,,,,,,,,,,,1.0,0.0,0.0,,,,,,,,,,,,,,,,,,,,,,,,,,,,,,,,0.0,0.0,1.0,0.0,512.0,1.0,2269.741455,164.656204,14.541051000000001,29.040073,22.252466000000002,109.875824,211.998688,495.129547,807.336914,800.558838,120.86514299999999,128.109024,24.828884,24.780556,25.904652,1.081996,0.223242,0.111723,0.234058,0.136874,280.43197599999996,37.374542,13.201056,10.684859,16.866907
2340,1645650943.3248858,48.0,0.0,4247.692383,5132.820313,4176.922852000001,4269.230957,4274.871582,0.0,3.0,59.0,,,,0.0,4.0,2.0,2.0,0.0,4.0,33.333332,,,,,,,,24.0,0.0,0.320235,0.5742189999999999,0.140625,-0.7402340000000001,0.952651,-0.171878,-0.307622,-0.018473,-0.049312,-0.037029,,,,,,,,,,,,,,,,,,,,,,,,,,,,,,,,,,,,,,,,,,,,,,,,,,,,,,,,,,,,,,,,,
2341,1645650943.332701,49.0,0.0,4137.94873,4495.897461,4310.256348,4277.94873,4194.358886999999,0.0,3.0,59.0,,,,0.0,4.0,2.0,2.0,0.0,4.0,33.333332,,,,,,,,,,,,,,,,,,,,,,,,,,,,,,,,,,,,,,,,,,,,,,,,,,,,,,,,,,,,,,,,,,,,,,,,,,,,,,,,,,,,
2342,1645650943.3405151,50.0,0.0,4211.794922,4053.8461909999996,4382.563965,4278.974121,4162.563965,0.0,3.0,59.0,,,,0.0,4.0,2.0,2.0,0.0,4.0,33.333332,,,,,,,,25.0,0.0,0.320235,0.5742189999999999,0.140625,-0.7402340000000001,0.9546040000000001,-0.170413,-0.309087,-0.019018,-0.049362,-0.038892,,,,,,,,,,,,,,,,,,,,,,,,,,,,,,,,,,,,,,,,,,,,,,,,,,,,,,,,,,,,,,,,,
2343,1645650943.34833,51.0,0.0,4236.410156,4822.563965,4232.820313,4272.307617,4265.641113000001,0.0,3.0,59.0,,,,0.0,4.0,2.0,2.0,0.0,4.0,33.333332,,,,,,,,,,,,,,,,,,,,,,,,,,,,,,,,,,,,,,,,,,,,,,,,,,,,,,0.0,0.0,1.0,0.0,512.0,1.0,,,,,,,,,,,,,,,,,,,,,,,,,
2344,1645650943.356144,52.0,0.0,4120.512695,5061.025879,4234.871582,4278.461426,4268.205078,0.0,3.0,59.0,,,,0.0,4.0,2.0,2.0,0.0,4.0,33.333332,,,,,,,,26.0,0.0,0.320361,0.5744630000000001,0.140625,-0.7399899999999999,0.9560690000000001,-0.157229,-0.308598,-0.019459999999999998,-0.049308,-0.034368,,,,,,,,,,,,,,,,,,,,,,,,,,,,,,,,,,,,,,,,,,,,,,,,,,,,,,,,,,,,,,,,,
2345,1645650943.3639581,53.0,0.0,4165.641113000001,4432.820313,4308.205078,4281.538574,4158.461426,0.0,3.0,59.0,,,,0.0,4.0,2.0,2.0,0.0,4.0,33.333332,,,,,,,,,,,,,,,,,,,,,,,,,,,,,,,,,,,,,,,,,,,,,,,,,,,,,,,,,,,,,,,,,,,,,,,,,,,,,,,,,,,,
2346,1645650943.3718731,54.0,0.0,4264.102539,4498.461426,4276.410156,4269.230957,4184.615234000001,0.0,3.0,59.0,,,,0.0,4.0,2.0,2.0,0.0,4.0,33.333332,,,,,,,,27.0,0.0,0.320361,0.5744630000000001,0.140625,-0.7399899999999999,0.959976,-0.166018,-0.30518,-0.017563,-0.049358,-0.030394,,,,,,,,,,,,,,,,,,,,,,,,,,,,,,,,,,,,,,,,,,,,,,,,,,,,,,,,,,,,,,,,,
2347,1645650943.3796868,55.0,0.0,4162.563965,4895.897461,4244.615234000001,4270.769043,4234.871582,0.0,3.0,59.0,,,,0.0,4.0,2.0,2.0,0.0,4.0,33.333332,,,,,,,,,,,,,,,,,,,,,,,,,,,,,,,,,,,,,,,,,,,,,,,,,,,,,,0.0,0.0,1.0,0.0,512.0,1.0,,,,,,,,,,,,,,,,,,,,,,,,,
2348,1645650943.387502,56.0,0.0,4090.256348,4582.05127,4288.717772999999,4284.615234000001,4147.692383,0.0,3.0,59.0,,,,0.0,4.0,2.0,2.0,0.0,4.0,33.333332,,,,,,,,28.0,0.0,0.320361,0.5744630000000001,0.140625,-0.7399899999999999,0.9560690000000001,-0.161624,-0.301274,-0.015855,-0.049305,-0.033068,,,,,,,,,,,,,,,,,,,,,,,,,,,,,,,,,,,,,,,,,,,,,,,,,,,,,,,,,,,,,,,,,
2349,1645650943.3953161,57.0,0.0,4182.05127,4508.717772999999,4199.487305,4280.0,4165.128418,0.0,3.0,59.0,,,,0.0,4.0,2.0,2.0,0.0,4.0,33.333332,,,,,,,,,,,,,,,,,,,,,,,,,,,,,,,,,,,,,,,,,,,,,,,,,,,,,,,,,,,,,,,,,,,,,,,,,,,,,,,,,,,,
2350,1645650943.4032302,58.0,0.0,4188.717772999999,5059.487305,4115.897461,4272.820313,4285.128418,0.0,3.0,59.0,,,,0.0,4.0,2.0,2.0,0.0,4.0,33.333332,,,,,,,,29.0,0.0,0.320361,0.5744630000000001,0.140625,-0.7399899999999999,0.9560690000000001,-0.157229,-0.308598,-0.016614,-0.049355,-0.029175,,,,,,,,,,,,,,,,,,,,,,,,,,,,,,,,,,,,,,,,,,,,,,,,,,,,,,,,,,,,,,,,,
2351,1645650943.4110448,59.0,0.0,4203.589844,4933.333496,4152.307617,4280.512695,4252.307617,0.0,3.0,59.0,,,,0.0,4.0,2.0,2.0,0.0,4.0,33.333332,,,,,,,,,,,,,,,,,,,,,,,,,,,,,,,,,,,,,,,,,,,,,,,,,,,,,,0.0,0.0,1.0,0.0,512.0,1.0,,,,,,,,,,,,,,,,,,,,,,,,,
2352,1645650943.418859,60.0,0.0,4302.05127,4362.563965,4208.205078,4275.384765999999,4162.563965,0.0,3.0,59.0,,,,0.0,4.0,2.0,2.0,0.0,4.0,33.333332,,,,,,,,30.0,0.0,0.320361,0.5744630000000001,0.140625,-0.7399899999999999,0.9560690000000001,-0.161624,-0.301274,-0.015000999999999999,-0.049303,-0.031971,,,,,,,,,,,,,,,,,,,,,,,,,,,,,,,,,,,,,,,,,,,,,,,,,,,,,,,,,,,,,,,,,
2353,1645650943.426673,61.0,0.0,4295.897461,4523.589844,4208.205078,4266.153809,4218.461426,0.0,3.0,59.0,,,,0.0,4.0,2.0,2.0,0.0,4.0,33.333332,,,,,,,,,,,,,,,,,,,,,,,,,,,,,,,,,,,,,,,,,,,,,,,,,,,,,,,,,,,,,,,,,,,,,,,,,,,,,,,,,,,,
2354,1645650943.434488,62.0,0.0,4173.333496,4688.205078,4209.230957,4278.461426,4210.769043,0.0,3.0,59.0,,,,0.0,4.0,2.0,2.0,0.0,4.0,33.333332,,,,,,,,31.0,0.0,0.320361,0.5744630000000001,0.140625,-0.7399899999999999,0.9472799999999999,-0.166506,-0.295903,-0.016040000000000002,-0.049304,-0.034486,,,,,,,,,,,,,,,,,,,,,,,,,,,,,,,,,,,,,,,,,,,,,,,,,,,,,,,,,,,,,,,,,
2355,1645650943.442302,63.0,0.0,4178.974121,4475.897461,4235.384765999999,4286.666504,4197.94873,0.0,3.0,59.0,,,,0.0,4.0,2.0,2.0,0.0,4.0,33.333332,,,,,,,,,,,,,,,,,,,,1.0,0.0,0.0,,,,,,,,,,,,,,,,,,,,,,,,,,,,,,,,0.0,0.0,1.0,0.0,512.0,1.0,1769.475464,144.25508100000002,11.286589,34.325916,25.346931,109.22013899999999,160.78388999999999,397.955994,945.5048220000001,1031.5313720000001,124.35990100000001,129.383713,20.166233,25.427505,32.674313,0.8835719999999999,0.17235699999999998,0.090744,0.284231,0.18043800000000002,229.896591,36.23526,9.557066,12.402269,21.963104
2356,1645650943.450117,64.0,0.0,4214.358886999999,4853.333496,4195.897461,4276.922852000001,4285.641113000001,450.0,3.0,59.0,,,,0.0,4.0,2.0,2.0,0.0,4.0,33.333332,,,,,,,,32.0,0.0,0.320361,0.5744630000000001,0.140625,-0.7399899999999999,0.949722,-0.151858,-0.308598,-0.014485,-0.049354,-0.030501,,,,,,,,,,,,,,,,,,,,,,,,,,,,,,,,,,,,,,,,,,,,,,,,,,,,,,,,,,,,,,,,,
2357,1645650943.457931,65.0,0.0,4196.410156,5059.487305,4193.846191,4275.897461,4337.436035,450.0,3.0,59.0,,,,0.0,4.0,2.0,2.0,0.0,4.0,33.333332,,,,,,,,,,,,,,,,,,,,,,,,,,,,,,,,,,,,,,,,,,,,,,,,,,,,,,,,,,,,,,,,,,,,,,,,,,,,,,,,,,,,
2358,1645650943.465745,66.0,0.0,4230.769043,4418.974121,4270.256348,4276.922852000001,4248.717772999999,16113.0,3.0,59.0,,,,0.0,4.0,2.0,2.0,0.0,4.0,33.333332,,,,,,,,33.0,0.0,0.320235,0.5742189999999999,0.140625,-0.7402340000000001,0.956558,-0.155276,-0.301762,-0.013183000000000002,-0.049399,-0.033066000000000005,,,,,,,,,,,,,,,,,,,,,,,,,,,,,,,,,,,,,,,,,,,,,,,,,,,,,,,,,,,,,,,,,
2359,1645650943.47366,67.0,0.0,4316.410156,4403.077147999999,4344.615234000001,4270.256348,4218.974121,450.0,3.0,59.0,,,,0.0,4.0,4.0,4.0,0.0,4.0,66.666664,,,,,,,,,,,,,,,,,,,,,,,,,,,,,,,,,,,,,,,,,,,,,,,,,,,,,,0.0,0.0,1.0,0.0,512.0,1.0,,,,,,,,,,,,,,,,,,,,,,,,,
2360,1645650943.481474,68.0,0.0,4221.538574,4918.461426,4305.641113000001,4274.358886999999,4206.666504,16340.0,3.0,59.0,,,,0.0,4.0,4.0,4.0,0.0,4.0,66.666664,,,,,,,,34.0,0.0,0.320128,0.5742189999999999,0.140869,-0.7402340000000001,0.956558,-0.154788,-0.30518,-0.014159999999999999,-0.049489,-0.029222,,,,,,,,,,,,,,,,,,,,,,,,,,,,,,,,,,,,,,,,,,,,,,,,,,,,,,,,,,,,,,,,,
2361,1645650943.489289,69.0,0.0,4111.794922,4601.025879,4339.487305,4284.102539,4152.820313,450.0,3.0,59.0,,,,0.0,4.0,4.0,4.0,0.0,4.0,66.666664,,,,,,,,,,,,,,,,,,,,,,,,,,,,,,,,,,,,,,,,,,,,,,,,,,,,,,,,,,,,,,,,,,,,,,,,,,,,,,,,,,,,
2362,1645650943.497103,70.0,0.0,4176.410156,4464.102539,4348.205078,4278.461426,4188.717772999999,16098.0,3.0,59.0,,,,0.0,4.0,4.0,4.0,0.0,4.0,66.666664,,,,,,,,35.0,0.0,0.320128,0.5742189999999999,0.140869,-0.7402340000000001,0.953628,-0.166018,-0.31104,-0.014941,-0.049472,-0.032013,,,,,,,,,,,,,,,,,,,,,,,,,,,,,,,,,,,,,,,,,,,,,,,,,,,,,,,,,,,,,,,,,
2363,1645650943.504917,71.0,0.0,4190.769043,5045.641113000001,4292.307617,4273.846191,4271.282227000001,450.0,3.0,59.0,,,,0.0,4.0,4.0,4.0,0.0,4.0,66.666664,,,,,,,,,,,,,,,,,,,,,,,,,,,,,,,,,,,,,,,,,,,,,,,,,,,,,,0.0,0.0,1.0,0.0,512.0,1.0,,,,,,,,,,,,,,,,,,,,,,,,,
2364,1645650943.512732,72.0,0.0,4129.743652,4755.897461,4299.487305,4277.436035,4223.589844,450.0,3.0,59.0,,,,0.0,4.0,4.0,4.0,0.0,4.0,66.666664,,,,,,,,36.0,0.0,0.320235,0.5742189999999999,0.140625,-0.7402340000000001,0.954116,-0.154788,-0.29443800000000003,-0.015839,-0.049407,-0.034427,,,,,,,,,,,,,,,,,,,,,,,,,,,,,,,,,,,,,,,,,,,,,,,,,,,,,,,,,,,,,,,,,
2365,1645650943.5205462,73.0,0.0,4201.538574,4185.128418,4310.769043,4275.897461,4164.102539,0.0,3.0,59.0,,,,0.0,4.0,4.0,4.0,0.0,4.0,66.666664,,,,,,,,,,,,,,,,,,,,,,,,,,,,,,,,,,,,,,,,,,,,,,,,,,,,,,,,,,,,,,,,,,,,,,,,,,,,,,,,,,,,
2366,1645650943.5283608,74.0,0.0,4274.358886999999,4603.589844,4203.077147999999,4278.461426,4218.461426,450.0,3.0,59.0,,,,0.0,4.0,4.0,4.0,0.0,4.0,66.666664,,,,,,,,37.0,0.0,0.320235,0.5742189999999999,0.140625,-0.7402340000000001,0.9511860000000001,-0.154788,-0.303716,-0.016599000000000003,-0.049447000000000005,-0.036697,,,,,,,,,,,,,,,,,,,,,,,,,,,,,,,,,,,,,,,,,,,,,,,,,,,,,,,,,,,,,,,,,
2367,1645650943.536175,75.0,0.0,4191.794922,4746.666504,4164.102539,4285.641113000001,4194.871582,16268.0,3.0,59.0,,,,0.0,4.0,4.0,4.0,0.0,4.0,66.666664,,,,,,,,,,,,,,,,,,,,,,,,,,,,,,,,,,,,,,,,,,,,,,,,,,,,,,0.0,0.0,1.0,0.0,512.0,1.0,,,,,,,,,,,,,,,,,,,,,,,,,
2368,1645650943.54409,76.0,0.0,4233.333496,4396.410156,4168.205078,4283.077147999999,4201.538574,450.0,3.0,59.0,,,,0.0,4.0,4.0,4.0,0.0,4.0,66.666664,,,,,,,,38.0,0.0,0.320235,0.5742189999999999,0.140625,-0.7402340000000001,0.9546040000000001,-0.151369,-0.304204,-0.017234,-0.049483,-0.038593999999999996,,,,,,,,,,,,,,,,,,,,,,,,,,,,,,,,,,,,,,,,,,,,,,,,,,,,,,,,,,,,,,,,,
2369,1645650943.551904,77.0,0.0,4269.743652,4741.538574,4111.282227000001,4276.922852000001,4309.743652,450.0,3.0,59.0,,,,0.0,4.0,4.0,4.0,0.0,4.0,66.666664,,,,,,,,,,,,,,,,,,,,,,,,,,,,,,,,,,,,,,,,,,,,,,,,,,,,,,,,,,,,,,,,,,,,,,,,,,,,,,,,,,,,
2370,1645650943.5597188,78.0,0.0,4196.410156,4947.692383,4168.717772999999,4279.487305,4306.153809,450.0,3.0,59.0,,,,0.0,4.0,4.0,4.0,0.0,4.0,66.666664,,,,,,,,39.0,0.0,0.320235,0.5742189999999999,0.140625,-0.7402340000000001,0.9423969999999999,-0.163577,-0.305669,-0.017855000000000003,-0.049369,-0.034198,,,,,,,,,,,,,,,,,,,,,,,,,,,,,,,,,,,,,,,,,,,,,,,,,,,,,,,,,,,,,,,,,
2371,1645650943.567534,79.0,0.0,4252.820313,4521.025879,4265.128418,4273.846191,4194.871582,16268.0,3.0,59.0,,,,0.0,4.0,4.0,4.0,0.0,4.0,66.666664,,,,,,,,,,,,,,,,,,,,1.0,0.0,0.0,,,,,,,,,,,,,,,,,,,,,,,,,,,,,,,,0.0,0.0,1.0,0.0,512.0,1.0,1187.355957,116.98568700000001,10.137378,38.898563,27.711884,107.564682,132.15535,298.09274300000004,995.83429,1264.815796,127.61896499999999,132.281998,14.623582999999998,24.161934,39.1688,0.620574,0.118461,0.07428,0.313321,0.2298,164.947983,34.7845,7.547064999999999,13.624647,27.140403999999997
2372,1645650943.5753481,80.0,0.0,4349.743652,4541.538574,4249.230957,4267.179688,4279.487305,450.0,3.0,59.0,,,,0.0,4.0,4.0,4.0,0.0,4.0,66.666664,,,,,,,,40.0,0.0,0.32090599999999997,0.5742189999999999,0.140381,-0.7399899999999999,0.961929,-0.165042,-0.298833,-0.018511,-0.049315,-0.036491,,,,,,,,,,,,,,,,,,,,,,,,,,,,,,,,,,,,,,,,,,,,,,,,,,,,,,,,,,,,,,,,,
2373,1645650943.583163,81.0,0.0,4227.692383,4613.333496,4281.025879,4280.0,4293.333496,450.0,3.0,59.0,,,,0.0,4.0,4.0,4.0,0.0,4.0,66.666664,,,,,,,,,,,,,,,,,,,,,,,,,,,,,,,,,,,,,,,,,,,,,,,,,,,,,,,,,,,,,,,,,,,,,,,,,,,,,,,,,,,,
2374,1645650943.590977,82.0,0.0,4195.384765999999,4398.974121,4331.794922,4286.666504,4167.692383,450.0,3.0,59.0,,,,0.0,4.0,4.0,4.0,0.0,4.0,66.666664,,,,,,,,41.0,0.0,0.32090599999999997,0.5742189999999999,0.140381,-0.7399899999999999,0.952651,-0.1626,-0.306645,-0.019052,-0.049315,-0.032305,,,,,,,,,,,,,,,,,,,,,,,,,,,,,,,,,,,,,,,,,,,,,,,,,,,,,,,,,,,,,,,,,
2375,1645650943.598792,83.0,0.0,4239.487305,4773.846191,4212.820313,4277.94873,4204.102539,16268.0,3.0,59.0,,,,0.0,4.0,4.0,4.0,0.0,4.0,66.666664,,,,,,,,,,,,,,,,,,,,,,,,,,,,,,,,,,,,,,,,,,,,,,,,,,,,,,0.0,0.0,1.0,0.0,512.0,1.0,,,,,,,,,,,,,,,,,,,,,,,,,
2376,1645650943.606607,84.0,0.0,4151.794922,5035.384765999999,4212.307617,4277.94873,4259.487305,450.0,3.0,59.0,,,,0.0,4.0,4.0,4.0,0.0,4.0,66.666664,,,,,,,,42.0,0.0,0.32090599999999997,0.5742189999999999,0.140381,-0.7399899999999999,0.9594870000000001,-0.160647,-0.302739,-0.017245,-0.049315,-0.034787,,,,,,,,,,,,,,,,,,,,,,,,,,,,,,,,,,,,,,,,,,,,,,,,,,,,,,,,,,,,,,,,,
2377,1645650943.6144211,85.0,0.0,4153.846191,4471.282227000001,4290.256348,4279.487305,4141.538574,450.0,3.0,59.0,,,,0.0,4.0,4.0,4.0,0.0,4.0,66.666664,,,,,,,,,,,,,,,,,,,,,,,,,,,,,,,,,,,,,,,,,,,,,,,,,,,,,,,,,,,,,,,,,,,,,,,,,,,,,,,,,,,,
2378,1645650943.622336,86.0,0.0,4261.538574,4311.794922,4297.436035,4269.743652,4145.641113000001,450.0,3.0,59.0,,,,0.0,4.0,4.0,4.0,0.0,4.0,66.666664,,,,,,,,43.0,0.0,0.32090599999999997,0.5742189999999999,0.140381,-0.7399899999999999,0.948257,-0.157717,-0.303227,-0.017913,-0.049413,-0.03707,,,,,,,,,,,,,,,,,,,,,,,,,,,,,,,,,,,,,,,,,,,,,,,,,,,,,,,,,,,,,,,,,
2379,1645650943.63015,87.0,0.0,4204.615234000001,4781.025879,4278.974121,4272.820313,4242.05127,16268.0,3.0,59.0,,,,0.0,4.0,4.0,4.0,0.0,4.0,66.666664,,,,,,,,,,,,,,,,,,,,,,,,,,,,,,,,,,,,,,,,,,,,,,,,,,,,,,0.0,0.0,1.0,0.0,512.0,1.0,,,,,,,,,,,,,,,,,,,,,,,,,
2380,1645650943.637965,88.0,0.0,4107.692383,4639.487305,4305.641113000001,4285.128418,4166.666504,450.0,3.0,59.0,,,,0.0,4.0,4.0,4.0,0.0,4.0,66.666664,,,,,,,,44.0,0.0,0.32090599999999997,0.5742189999999999,0.140381,-0.7399899999999999,0.952651,-0.167483,-0.299809,-0.018661,-0.049451999999999996,-0.039027,,,,,,,,,,,,,,,,,,,,,,,,,,,,,,,,,,,,,,,,,,,,,,,,,,,,,,,,,,,,,,,,,
2381,1645650943.645779,89.0,0.0,4177.436035,4314.871582,4216.922852000001,4277.436035,4129.230957,450.0,3.0,59.0,,,,0.0,4.0,4.0,4.0,0.0,4.0,66.666664,,,,,,,,,,,,,,,,,,,,,,,,,,,,,,,,,,,,,,,,,,,,,,,,,,,,,,,,,,,,,,,,,,,,,,,,,,,,,,,,,,,,
2382,1645650943.653593,90.0,0.0,4244.102539,4837.436035,4144.615234000001,4265.641113000001,4228.717772999999,450.0,3.0,59.0,,,,0.0,4.0,4.0,4.0,0.0,4.0,66.666664,,,,,,,,45.0,0.0,0.32090599999999997,0.5742189999999999,0.140381,-0.7399899999999999,0.9506979999999999,-0.16406500000000002,-0.300298,-0.019187,-0.049536000000000004,-0.034587,,,,,,,,,,,,,,,,,,,,,,,,,,,,,,,,,,,,,,,,,,,,,,,,,,,,,,,,,,,,,,,,,
2383,1645650943.661408,91.0,0.0,4260.0,5051.282227000001,4191.794922,4273.846191,4217.94873,16268.0,3.0,59.0,,,,0.0,4.0,4.0,4.0,0.0,4.0,66.666664,,,,,,,,,,,,,,,,,,,,,,,,,,,,,,,,,,,,,,,,,,,,,,,,,,,,,,0.0,0.0,1.0,0.0,512.0,1.0,,,,,,,,,,,,,,,,,,,,,,,,,
2384,1645650943.669222,92.0,0.0,4260.512695,4349.230957,4265.128418,4278.461426,4123.077147999999,450.0,3.0,59.0,,,,0.0,4.0,4.0,4.0,0.0,4.0,66.666664,,,,,,,,46.0,0.0,0.32090599999999997,0.5742189999999999,0.140381,-0.7399899999999999,0.9580219999999999,-0.160159,-0.315923,-0.019612,-0.049563,-0.036793,,,,,,,,,,,,,,,,,,,,,,,,,,,,,,,,,,,,,,,,,,,,,,,,,,,,,,,,,,,,,,,,,
2385,1645650943.677037,93.0,0.0,4234.871582,4244.615234000001,4265.641113000001,4273.846191,4169.743652,450.0,3.0,59.0,,,,0.0,4.0,4.0,4.0,0.0,4.0,66.666664,,,,,,,,,,,,,,,,,,,,,,,,,,,,,,,,,,,,,,,,,,,,,,,,,,,,,,,,,,,,,,,,,,,,,,,,,,,,,,,,,,,,
2386,1645650943.684851,94.0,0.0,4163.589844,4688.717772999999,4234.358886999999,4280.0,4201.538574,450.0,3.0,59.0,,,,0.0,4.0,4.0,4.0,0.0,4.0,66.666664,,,,,,,,47.0,0.0,0.32090599999999997,0.5742189999999999,0.140381,-0.7399899999999999,0.951675,-0.163088,-0.30811,-0.020044,-0.049588,-0.032479,,,,,,,,,,,,,,,,,,,,,,,,,,,,,,,,,,,,,,,,,,,,,,,,,,,,,,,,,,,,,,,,,
2387,1645650943.692766,95.0,0.0,4163.077147999999,4675.384765999999,4236.410156,4287.692383,4198.461426,16268.0,3.0,59.0,,,,0.0,4.0,4.0,4.0,0.0,4.0,66.666664,1.0,0.0,0.0,0.0,0.0,0.0,1.0,,,,,,,,,,,,,1.0,0.0,0.0,,,,,,,,,,,,,,,,,,,,,,,,,,,,,,,,0.0,0.0,1.0,0.0,512.0,1.0,676.815796,89.439041,10.336677,41.691082,29.949434000000004,103.675262,116.71057900000001,222.81758100000002,956.4554439999999,1462.776245,130.37741100000002,136.721786,9.823338,21.644081,44.224258,0.373631,0.072754,0.062245,0.313619,0.280526,104.457306,32.799091,7.122471000000001,14.452082999999998,31.495890000000003
2388,1645650943.7005801,96.0,0.0,4190.256348,4866.153809,4207.179688,4278.461426,4252.820313,450.0,3.0,59.0,,,,0.0,4.0,4.0,4.0,0.0,4.0,66.666664,,,,,,,,48.0,0.0,0.321449,0.573975,0.14013699999999998,-0.7399899999999999,0.9340959999999999,-0.16406500000000002,-0.302739,-0.020285,-0.049561,-0.034845999999999995,,,,,,,,,,,,,,,,,,,,,,,,,,,,,,,,,,,,,,,,,,,,,,,,,,,,,,,,,,,,,,,,,
2389,1645650943.708395,97.0,0.0,4185.128418,5009.230957,4217.436035,4273.333496,4308.717772999999,450.0,3.0,59.0,,,,0.0,4.0,4.0,4.0,0.0,4.0,66.666664,,,,,,,,,,,,,,,,,,,,,,,,,,,,,,,,,,,,,,,,,,,,,,,,,,,,,,,,,,,,,,,,,,,,,,,,,,,,,,,,,,,,
2390,1645650943.716209,98.0,0.0,4201.538574,4309.743652,4305.128418,4276.922852000001,4205.641113000001,450.0,3.0,59.0,,,,0.0,4.0,4.0,4.0,0.0,4.0,66.666664,,,,,,,,49.0,0.0,0.321342,0.573975,0.140381,-0.7399899999999999,0.9423969999999999,-0.171878,-0.308598,-0.020503,-0.049536000000000004,-0.030775999999999998,,,,,,,,,,,,,,,,,,,,,,,,,,,,,,,,,,,,,,,,,,,,,,,,,,,,,,,,,,,,,,,,,
2391,1645650943.724024,99.0,0.0,4292.820313,4193.846191,4365.128418,4272.820313,4145.641113000001,16268.0,3.0,59.0,,,,0.0,4.0,4.0,4.0,0.0,4.0,66.666664,,,,,,,,,,,,,,,,,,,,,,,,,,,,,,,,,,,,,,,,,,,,,,,,,,,,,,0.0,0.0,1.0,0.0,512.0,1.0,,,,,,,,,,,,,,,,,,,,,,,,,
2392,1645650943.7318392,100.0,0.0,4205.641113000001,4945.641113000001,4282.05127,4272.307617,4182.563965,450.0,3.0,59.0,,,,0.0,4.0,4.0,4.0,0.0,4.0,66.666664,,,,,,,,50.0,0.0,0.321342,0.573975,0.140381,-0.7399899999999999,0.9521629999999999,-0.145998,-0.29443800000000003,-0.019234,-0.049612,-0.033264999999999996,,,,,,,,,,,,,,,,,,,,,,,,,,,,,,,,,,,,,,,,,,,,,,,,,,,,,,,,,,,,,,,,,
2393,1645650943.7396529,101.0,0.0,4069.2307130000004,4871.794922,4301.538574,4283.077147999999,4160.0,450.0,3.0,59.0,,,,0.0,4.0,4.0,4.0,0.0,4.0,66.666664,,,,,,,,,,,,,,,,,,,,,,,,,,,,,,,,,,,,,,,,,,,,,,,,,,,,,,,,,,,,,,,,,,,,,,,,,,,,,,,,,,,,
2394,1645650943.747468,102.0,0.0,4146.666504,4592.307617,4336.410156,4281.025879,4148.205078,450.0,3.0,59.0,,,,0.0,4.0,4.0,4.0,0.0,4.0,66.666664,,,,,,,,51.0,0.0,0.321797,0.573975,0.140625,-0.739746,0.9712059999999999,-0.157717,-0.306157,-0.019556999999999998,-0.049582,-0.035552999999999994,,,,,,,,,,,,,,,,,,,,,,,,,,,,,,,,,,,,,,,,,,,,,,,,,,,,,,,,,,,,,,,,,
2395,1645650943.755283,103.0,0.0,4210.769043,5009.743652,4284.615234000001,4272.820313,4223.077147999999,16268.0,3.0,59.0,,,,0.0,4.0,4.0,4.0,0.0,4.0,66.666664,,,,,,,,,,,,,,,,,,,,,,,,,,,,,,,,,,,,,,,,,,,,,,,,,,,,,,0.0,0.0,1.0,0.0,512.0,1.0,,,,,,,,,,,,,,,,,,,,,,,,,
2396,1645650943.763097,104.0,0.0,4152.307617,4741.538574,4284.615234000001,4278.461426,4216.410156,450.0,3.0,59.0,,,,0.0,4.0,4.0,4.0,0.0,4.0,66.666664,,,,,,,,52.0,0.0,0.321904,0.573975,0.140381,-0.739746,0.9555809999999999,-0.16894800000000001,-0.316411,-0.017747,-0.049507,-0.037711,,,,,,,,,,,,,,,,,,,,,,,,,,,,,,,,,,,,,,,,,,,,,,,,,,,,,,,,,,,,,,,,,
2397,1645650943.7710118,105.0,0.0,4193.333496,4001.025635,4327.692383,4279.487305,4121.025879,450.0,3.0,59.0,,,,0.0,4.0,4.0,4.0,0.0,4.0,66.666664,,,,,,,,,,,,,,,,,,,,,,,,,,,,,,,,,,,,,,,,,,,,,,,,,,,,,,,,,,,,,,,,,,,,,,,,,,,,,,,,,,,,
2398,1645650943.778826,106.0,0.0,4289.743652,4422.563965,4190.769043,4273.333496,4182.05127,450.0,3.0,59.0,,,,0.0,4.0,4.0,4.0,0.0,4.0,66.666664,,,,,,,,53.0,0.0,0.321468,0.5742189999999999,0.140381,-0.739746,0.953628,-0.164553,-0.31006300000000003,-0.018268,-0.049488,-0.033305,,,,,,,,,,,,,,,,,,,,,,,,,,,,,,,,,,,,,,,,,,,,,,,,,,,,,,,,,,,,,,,,,
2399,1645650943.78664,107.0,0.0,4191.282227000001,5002.563965,4096.410156,4278.461426,4246.666504,16268.0,3.0,59.0,,,,0.0,4.0,4.0,4.0,0.0,4.0,66.666664,,,,,,,,,,,,,,,,,,,,,,,,,,,,,,,,,,,,,,,,,,,,,,,,,,,,,,0.0,0.0,1.0,0.0,512.0,1.0,,,,,,,,,,,,,,,,,,,,,,,,,
2400,1645650943.794455,108.0,0.0,4187.692383,4686.153809,4176.410156,4285.128418,4211.282227000001,450.0,3.0,59.0,,,,0.0,4.0,4.0,4.0,0.0,4.0,66.666664,,,,,,,,54.0,0.0,0.321468,0.5742189999999999,0.140381,-0.739746,0.95021,-0.16552999999999998,-0.30518,-0.017172999999999997,-0.049471,-0.029486000000000002,,,,,,,,,,,,,,,,,,,,,,,,,,,,,,,,,,,,,,,,,,,,,,,,,,,,,,,,,,,,,,,,,
2401,1645650943.802269,109.0,0.0,4308.205078,4769.743652,4185.128418,4277.436035,4253.333496,450.0,3.0,59.0,,,,0.0,4.0,4.0,4.0,0.0,4.0,66.666664,,,,,,,,,,,,,,,,,,,,,,,,,,,,,,,,,,,,,,,,,,,,,,,,,,,,,,,,,,,,,,,,,,,,,,,,,,,,,,,,,,,,
2402,1645650943.8100839,110.0,0.0,4301.025879,5003.589844,4203.077147999999,4274.358886999999,4323.589844,450.0,3.0,59.0,,,,0.0,4.0,4.0,4.0,0.0,4.0,66.666664,,,,,,,,55.0,0.0,0.321923,0.5742189999999999,0.140625,-0.739502,0.965347,-0.167483,-0.304692,-0.016091,-0.049504,-0.032202,,,,,,,,,,,,,,,,,,,,,,,,,,,,,,,,,,,,,,,,,,,,,,,,,,,,,,,,,,,,,,,,,
2403,1645650943.817898,111.0,0.0,4271.794922,4351.794922,4314.358886999999,4274.871582,4234.358886999999,16268.0,3.0,59.0,,,,0.0,4.0,4.0,4.0,0.0,4.0,66.666664,,,,,,,,,,,,,,,,,,,,1.0,0.0,0.0,,,,,,,,,,,,,,,,,,,,,,,,,,,,,,,,0.0,0.0,1.0,0.0,512.0,1.0,324.689484,67.428062,11.049742,42.368179,32.711758,97.77271999999999,107.03443100000001,192.18663,857.240906,1586.973633,132.796524,141.37776200000002,7.188961999999999,18.979855,46.728466,0.193464,0.042324,0.05555,0.289612,0.32774000000000003,61.413821999999996,30.514498,7.6901779999999995,15.207682,34.178955
2404,1645650943.825712,112.0,0.0,4317.94873,4208.717772999999,4308.205078,4272.820313,4236.410156,450.0,3.0,59.0,,,,0.0,4.0,4.0,4.0,0.0,4.0,66.666664,,,,,,,,56.0,0.0,0.321923,0.5742189999999999,0.140625,-0.739502,0.9404440000000001,-0.160159,-0.29688000000000003,-0.016874,-0.049437,-0.034597,,,,,,,,,,,,,,,,,,,,,,,,,,,,,,,,,,,,,,,,,,,,,,,,,,,,,,,,,,,,,,,,,
2405,1645650943.8335268,113.0,0.0,4222.05127,4846.153809,4247.692383,4279.487305,4264.102539,450.0,3.0,59.0,,,,0.0,4.0,4.0,4.0,0.0,4.0,66.666664,,,,,,,,,,,,,,,,,,,,,,,,,,,,,,,,,,,,,,,,,,,,,,,,,,,,,,,,,,,,,,,,,,,,,,,,,,,,,,,,,,,,
2406,1645650943.841441,114.0,0.0,4180.0,4630.256348,4291.794922,4286.666504,4173.846191,450.0,3.0,59.0,,,,0.0,4.0,4.0,4.0,0.0,4.0,66.666664,,,,,,,,57.0,0.0,0.321468,0.5742189999999999,0.140381,-0.739746,0.95021,-0.16552999999999998,-0.30518,-0.017531,-0.049425,-0.0306,,,,,,,,,,,,,,,,,,,,,,,,,,,,,,,,,,,,,,,,,,,,,,,,,,,,,,,,,,,,,,,,,
2407,1645650943.849256,115.0,0.0,4280.0,4356.922852000001,4236.922852000001,4275.384765999999,4161.025879,16268.0,3.0,59.0,,,,0.0,4.0,4.0,4.0,0.0,4.0,66.666664,,,,,,,,,,,,,,,,,,,,,,,,,,,,,,,,,,,,,,,,,,,,,,,,,,,,,,0.0,0.0,1.0,0.0,512.0,1.0,,,,,,,,,,,,,,,,,,,,,,,,,
2408,1645650943.85707,116.0,0.0,4259.487305,4980.512695,4234.358886999999,4267.179688,4240.0,450.0,3.0,59.0,,,,0.0,4.0,4.0,4.0,0.0,4.0,66.666664,,,,,,,,58.0,0.0,0.321923,0.5742189999999999,0.140625,-0.739502,0.9404440000000001,-0.160159,-0.29688000000000003,-0.01817,-0.049365,-0.033156,,,,,,,,,,,,,,,,,,,,,,,,,,,,,,,,,,,,,,,,,,,,,,,,,,,,,,,,,,,,,,,,,
2409,1645650943.864884,117.0,0.0,4173.846191,4825.641113000001,4345.641113000001,4275.897461,4162.563965,450.0,3.0,59.0,,,,0.0,4.0,4.0,4.0,0.0,4.0,66.666664,,,,,,,,,,,,,,,,,,,,,,,,,,,,,,,,,,,,,,,,,,,,,,,,,,,,,,,,,,,,,,,,,,,,,,,,,,,,,,,,,,,,
2410,1645650943.872699,118.0,0.0,4214.358886999999,4143.589844,4369.743652,4277.436035,4104.615234000001,450.0,3.0,59.0,,,,0.0,4.0,4.0,4.0,0.0,4.0,66.666664,,,,,,,,59.0,0.0,0.322029,0.5742189999999999,0.140381,-0.739502,0.9423969999999999,-0.1626,-0.299321,-0.018697,-0.04936,-0.029302999999999996,,,,,,,,,,,,,,,,,,,,,,,,,,,,,,,,,,,,,,,,,,,,,,,,,,,,,,,,,,,,,,,,,
2411,1645650943.8805132,119.0,0.0,4202.05127,4605.641113000001,4245.128418,4274.358886999999,4191.794922,16268.0,3.0,59.0,,,,0.0,4.0,4.0,4.0,0.0,4.0,66.666664,,,,,,,,,,,,,,,,,,,,,,,,,,,,,,,,,,,,,,,,,,,,,,,,,,,,,,0.0,0.0,1.0,0.0,512.0,1.0,,,,,,,,,,,,,,,,,,,,,,,,,
2412,1645650943.8883278,120.0,0.0,4140.512695,4975.384765999999,4229.743652,4282.05127,4218.974121,450.0,3.0,59.0,,,,0.0,4.0,4.0,4.0,0.0,4.0,66.666664,,,,,,,,60.0,0.0,0.32213600000000003,0.5742189999999999,0.14013699999999998,-0.739502,0.9589989999999999,-0.14648699999999998,-0.300298,-0.019073,-0.049259,-0.025787,,,,,,,,,,,,,,,,,,,,,,,,,,,,,,,,,,,,,,,,,,,,,,,,,,,,,,,,,,,,,,,,,
2413,1645650943.896242,121.0,0.0,4234.358886999999,4436.410156,4225.641113000001,4283.589844,4206.666504,450.0,3.0,59.0,,,,0.0,4.0,4.0,4.0,0.0,4.0,66.666664,,,,,,,,,,,,,,,,,,,,,,,,,,,,,,,,,,,,,,,,,,,,,,,,,,,,,,,,,,,,,,,,,,,,,,,,,,,,,,,,,,,,
2414,1645650943.904057,122.0,0.0,4314.871582,4533.333496,4166.666504,4269.743652,4223.077147999999,450.0,3.0,59.0,,,,0.0,4.0,4.0,4.0,0.0,4.0,66.666664,,,,,,,,61.0,0.0,0.3217,0.5744630000000001,0.14013699999999998,-0.739502,0.937514,-0.15332300000000001,-0.316899,-0.017519999999999997,-0.049231,-0.026073000000000002,,,,,,,,,,,,,,,,,,,,,,,,,,,,,,,,,,,,,,,,,,,,,,,,,,,,,,,,,,,,,,,,,
2415,1645650943.9118712,123.0,0.0,4261.025879,4989.743652,4143.077147999999,4269.230957,4195.897461,16268.0,3.0,59.0,,,,0.0,4.0,4.0,4.0,0.0,4.0,66.666664,,,,,,,,,,,,,,,,,,,,,,,,,,,,,,,,,,,,,,,,,,,,,,,,,,,,,,0.0,0.0,1.0,0.0,512.0,1.0,,,,,,,,,,,,,,,,,,,,,,,,,
2416,1645650943.9196858,124.0,0.0,4197.436035,4546.153809,4205.641113000001,4281.538574,4124.615234000001,450.0,3.0,59.0,,,,0.0,4.0,4.0,4.0,0.0,4.0,66.666664,,,,,,,,62.0,0.0,0.3217,0.5744630000000001,0.14013699999999998,-0.739502,0.956558,-0.166506,-0.31201599999999996,-0.015816999999999998,-0.049142,-0.02913,,,,,,,,,,,,,,,,,,,,,,,,,,,,,,,,,,,,,,,,,,,,,,,,,,,,,,,,,,,,,,,,,
2417,1645650943.927501,125.0,0.0,4214.358886999999,4384.615234000001,4210.769043,4281.025879,4151.282227000001,450.0,3.0,59.0,,,,0.0,4.0,4.0,4.0,0.0,4.0,66.666664,,,,,,,,,,,,,,,,,,,,,,,,,,,,,,,,,,,,,,,,,,,,,,,,,,,,,,,,,,,,,,,,,,,,,,,,,,,,,,,,,,,,
2418,1645650943.9353151,126.0,0.0,4157.436035,5022.05127,4106.666504,4277.436035,4198.974121,450.0,3.0,59.0,,,,0.0,4.0,4.0,4.0,0.0,4.0,66.666664,,,,,,,,63.0,0.0,0.322367,0.5744630000000001,0.13989300000000002,-0.739258,0.95021,-0.151369,-0.300786,-0.016628,-0.049257,-0.025631,,,,,,,,,,,,,,,,,,,,,,,,,,,,,,,,,,,,,,,,,,,,,,,,,,,,,,,,,,,,,,,,,
2419,1645650943.94313,127.0,0.0,4130.769043,4929.743652,4118.461426,4282.563965,4228.205078,235.0,3.0,59.0,,,,0.0,4.0,4.0,4.0,0.0,4.0,66.666664,,,,,,,,,,,,,,,,,,,,1.0,0.0,0.0,,,,,,,,,,,,,,,,,,,,,,,,,,,,,,,,0.0,0.0,1.0,0.0,512.0,1.0,138.749405,53.215095999999996,11.734569,41.368553000000006,36.122719000000004,90.156364,99.670059,204.798676,747.039612,1613.4001460000002,135.28447,145.089325,7.082876,17.362314,46.061153000000004,0.093579,0.027885000000000004,0.054794,0.255531,0.366244,39.118839,28.430418,8.473821000000001,16.165089000000002,34.76313
2420,1645650943.950945,0.0,0.0,4283.589844,4370.769043,4225.641113000001,4275.897461,4247.692383,450.0,3.0,59.0,,,,0.0,4.0,4.0,4.0,0.0,4.0,66.666664,,,,,,,,0.0,0.0,0.322367,0.5744630000000001,0.13989300000000002,-0.739258,0.9585110000000001,-0.166018,-0.303227,-0.015697,-0.049408999999999995,-0.022482,,,,,,,,,,,,,,,,,,,,,,,,,,,,,,,,,,,,,,,,,,,,,,,,,,,,,,,,,,,,,,,,,
2421,1645650943.958859,1.0,0.0,4406.666504,4596.922852000001,4245.641113000001,4268.717772999999,4289.230957,450.0,3.0,59.0,,,,0.0,4.0,1.0,4.0,0.0,4.0,41.666668,,,,,,,,,,,,,,,,,,,,,,,,,,,,,,,,,,,,,,,,,,,,,,,,,,,,,,,,,,,,,,,,,,,,,,,,,,,,,,,,,,,,
2422,1645650943.966674,2.0,0.0,4251.794922,4798.974121,4218.974121,4281.025879,4196.410156,16174.0,3.0,59.0,,,,0.0,4.0,1.0,4.0,0.0,4.0,41.666668,,,,,,,,1.0,0.0,0.322367,0.5744630000000001,0.13989300000000002,-0.739258,0.9560690000000001,-0.166995,-0.299321,-0.014762,-0.049498,-0.025994999999999997,,,,,,,,,,,,,,,,,,,,,,,,,,,,,,,,,,,,,,,,,,,,,,,,,,,,,,,,,,,,,,,,,
2423,1645650943.974489,3.0,0.0,4155.897461,4458.974121,4285.641113000001,4284.102539,4102.563965,450.0,3.0,59.0,,,,0.0,4.0,1.0,4.0,0.0,4.0,41.666668,,,,,,,,,,,,,,,,,,,,,,,,,,,,,,,,,,,,,,,,,,,,,,,,,,,,,,0.0,0.0,1.0,0.0,512.0,1.0,,,,,,,,,,,,,,,,,,,,,,,,,
2424,1645650943.982303,4.0,0.0,4198.974121,4595.897461,4276.410156,4272.820313,4165.128418,105.0,3.0,59.0,,,,0.0,4.0,1.0,4.0,0.0,4.0,41.666668,,,,,,,,2.0,0.0,0.32292600000000005,0.5744630000000001,0.13989300000000002,-0.7390140000000001,0.9594870000000001,-0.151858,-0.299809,-0.015531999999999999,-0.049576999999999996,-0.022761,,,,,,,,,,,,,,,,,,,,,,,,,,,,,,,,,,,,,,,,,,,,,,,,,,,,,,,,,,,,,,,,,
2425,1645650943.990118,5.0,0.0,4178.974121,4880.512695,4283.077147999999,4278.461426,4215.897461,450.0,3.0,59.0,,,,0.0,4.0,1.0,4.0,0.0,4.0,41.666668,,,,,,,,,,,,,,,,,,,,,,,,,,,,,,,,,,,,,,,,,,,,,,,,,,,,,,,,,,,,,,,,,,,,,,,,,,,,,,,,,,,,
2426,1645650943.997932,6.0,0.0,4176.410156,4687.692383,4306.153809,4281.538574,4163.077147999999,16333.0,3.0,59.0,,,,0.0,4.0,1.0,4.0,0.0,4.0,41.666668,,,,,,,,3.0,0.0,0.32292600000000005,0.5744630000000001,0.13989300000000002,-0.7390140000000001,0.954116,-0.1626,-0.316899,-0.016176,-0.0496,-0.026198000000000003,,,,,,,,,,,,,,,,,,,,,,,,,,,,,,,,,,,,,,,,,,,,,,,,,,,,,,,,,,,,,,,,,
2427,1645650944.005747,7.0,0.0,4236.410156,4768.717772999999,4273.846191,4268.717772999999,4183.589844,450.0,3.0,59.0,,,,0.0,4.0,1.0,4.0,0.0,4.0,41.666668,,,,,,,,,,,,,,,,,,,,,,,,,,,,,,,,,,,,,,,,,,,,,,,,,,,,,,0.0,0.0,1.0,0.0,512.0,1.0,,,,,,,,,,,,,,,,,,,,,,,,,
2428,1645650944.013562,8.0,0.0,4217.94873,4787.179688,4255.897461,4271.794922,4212.820313,450.0,3.0,59.0,,,,0.0,4.0,1.0,4.0,0.0,4.0,41.666668,,,,,,,,4.0,0.0,0.32292600000000005,0.5744630000000001,0.13989300000000002,-0.7390140000000001,0.9472799999999999,-0.16894800000000001,-0.29639099999999996,-0.015193,-0.04967,-0.029339999999999998,,,,,,,,,,,,,,,,,,,,,,,,,,,,,,,,,,,,,,,,,,,,,,,,,,,,,,,,,,,,,,,,,
2429,1645650944.021376,9.0,0.0,4192.820313,4226.153809,4294.358886999999,4280.0,4115.384765999999,0.0,3.0,59.0,,,,0.0,4.0,1.0,4.0,0.0,4.0,41.666668,,,,,,,,,,,,,,,,,,,,,,,,,,,,,,,,,,,,,,,,,,,,,,,,,,,,,,,,,,,,,,,,,,,,,,,,,,,,,,,,,,,,
2430,1645650944.029291,10.0,0.0,4275.384765999999,4325.641113000001,4190.256348,4273.333496,4149.230957,450.0,3.0,59.0,,,,0.0,4.0,1.0,4.0,0.0,2.0,25.0,,,,,,,,5.0,0.0,0.32292600000000005,0.5744630000000001,0.13989300000000002,-0.7390140000000001,0.960464,-0.176272,-0.309575,-0.013772,-0.049634,-0.03207,,,,,,,,,,,,,,,,,,,,,,,,,,,,,,,,,,,,,,,,,,,,,,,,,,,,,,,,,,,,,,,,,
2431,1645650944.037106,11.0,0.0,4219.487305,5022.05127,4108.205078,4275.384765999999,4267.179688,164.0,3.0,59.0,,,,0.0,4.0,1.0,4.0,0.0,2.0,25.0,,,,,,,,,,,,,,,,,,,,,,,,,,,,,,,,,,,,,,,,,,,,,,,,,,,,,,0.0,0.0,1.0,0.0,512.0,1.0,,,,,,,,,,,,,,,,,,,,,,,,,
2432,1645650944.0450199,12.0,0.0,4190.256348,4826.666504,4215.897461,4284.102539,4227.179688,450.0,3.0,59.0,,,,0.0,4.0,1.0,4.0,0.0,2.0,25.0,,,,,,,,6.0,0.0,0.32292600000000005,0.5744630000000001,0.13989300000000002,-0.7390140000000001,0.95021,-0.163088,-0.300298,-0.012541,-0.049554,-0.034575999999999996,,,,,,,,,,,,,,,,,,,,,,,,,,,,,,,,,,,,,,,,,,,,,,,,,,,,,,,,,,,,,,,,,
2433,1645650944.052835,13.0,0.0,4317.94873,4465.641113000001,4240.512695,4274.871582,4180.0,450.0,3.0,59.0,,,,0.0,4.0,1.0,4.0,0.0,2.0,25.0,,,,,,,,,,,,,,,,,,,,,,,,,,,,,,,,,,,,,,,,,,,,,,,,,,,,,,,,,,,,,,,,,,,,,,,,,,,,,,,,,,,,
2434,1645650944.060749,14.0,0.0,4336.922852000001,4769.743652,4181.025879,4269.743652,4276.410156,450.0,3.0,59.0,,,,0.0,4.0,1.0,4.0,0.0,2.0,25.0,,,,,,,,7.0,0.0,0.32292600000000005,0.5744630000000001,0.13989300000000002,-0.7390140000000001,0.946792,-0.170901,-0.299809,-0.013581999999999999,-0.049530000000000005,-0.036733999999999996,,,,,,,,,,,,,,,,,,,,,,,,,,,,,,,,,,,,,,,,,,,,,,,,,,,,,,,,,,,,,,,,,
2435,1645650944.0685642,15.0,0.0,4239.487305,4625.641113000001,4272.307617,4282.563965,4248.717772999999,164.0,3.0,59.0,,,,0.0,4.0,1.0,4.0,0.0,2.0,25.0,,,,,,,,,,,,,,,,,,,,1.0,0.0,0.0,,,,,,,,,,,,,,,,,,,,,,,,,,,,,,,,0.0,0.0,1.0,0.0,512.0,1.0,66.616714,45.845634000000004,11.990931,39.691044,39.579659,80.766472,92.267021,238.727798,671.390076,1543.608765,137.898849,146.81573500000002,9.087214,17.610153,42.382290000000005,0.051433000000000006,0.02561,0.059519,0.229084,0.391142,32.017159,27.256153,8.833597,17.404154000000002,33.421745
2436,1645650944.0763788,16.0,0.0,4295.384765999999,4279.487305,4317.436035,4284.615234000001,4216.922852000001,0.0,3.0,59.0,,,,0.0,4.0,1.0,4.0,0.0,2.0,25.0,,,,,,,,8.0,0.0,0.32292600000000005,0.5744630000000001,0.13989300000000002,-0.7390140000000001,0.9487450000000001,-0.16552999999999998,-0.289555,-0.014518999999999999,-0.049460000000000004,-0.032474,,,,,,,,,,,,,,,,,,,,,,,,,,,,,,,,,,,,,,,,,,,,,,,,,,,,,,,,,,,,,,,,,
2437,1645650944.084193,17.0,0.0,4304.102539,4796.922852000001,4191.282227000001,4274.358886999999,4300.512695,0.0,3.0,59.0,,,,0.0,4.0,1.0,4.0,0.0,2.0,25.0,,,,,,,,,,,,,,,,,,,,,,,,,,,,,,,,,,,,,,,,,,,,,,,,,,,,,,,,,,,,,,,,,,,,,,,,,,,,,,,,,,,,
2438,1645650944.092008,18.0,0.0,4226.666504,5007.692383,4207.692383,4278.974121,4291.794922,0.0,3.0,59.0,,,,0.0,4.0,1.0,4.0,0.0,2.0,25.0,,,,,,,,9.0,0.0,0.322367,0.5744630000000001,0.13989300000000002,-0.739258,0.95314,-0.16552999999999998,-0.299809,-0.015459,-0.049446,-0.034696,,,,,,,,,,,,,,,,,,,,,,,,,,,,,,,,,,,,,,,,,,,,,,,,,,,,,,,,,,,,,,,,,
2439,1645650944.099823,19.0,0.0,4285.128418,4235.384765999999,4308.205078,4281.538574,4170.256348,0.0,3.0,59.0,,,,0.0,4.0,1.0,4.0,0.0,2.0,25.0,,,,,,,,,,,,,,,,,,,,,,,,,,,,,,,,,,,,,,,,,,,,,,,,,,,,,,0.0,0.0,1.0,0.0,512.0,1.0,,,,,,,,,,,,,,,,,,,,,,,,,
2440,1645650944.1077368,20.0,0.0,4340.0,4152.307617,4332.307617,4270.769043,4184.615234000001,0.0,3.0,59.0,,,,0.0,4.0,1.0,4.0,0.0,2.0,25.0,,,,,,,,10.0,0.0,0.322367,0.5744630000000001,0.13989300000000002,-0.739258,0.956558,-0.155276,-0.306157,-0.016257,-0.049384,-0.030639999999999997,,,,,,,,,,,,,,,,,,,,,,,,,,,,,,,,,,,,,,,,,,,,,,,,,,,,,,,,,,,,,,,,,
2441,1645650944.115552,21.0,0.0,4196.922852000001,4710.256348,4295.384765999999,4273.846191,4201.538574,0.0,3.0,59.0,,,,0.0,4.0,1.0,4.0,0.0,2.0,25.0,,,,,,,,,,,,,,,,,,,,,,,,,,,,,,,,,,,,,,,,,,,,,,,,,,,,,,,,,,,,,,,,,,,,,,,,,,,,,,,,,,,,
