,Timestamp,OriginalTimestamp,EEG.Counter,EEG.Interpolated,EEG.AF3,EEG.T7,EEG.Pz,EEG.T8,EEG.AF4,EEG.RawCq,EEG.Battery,EEG.BatteryPercent,MarkerIndex,MarkerType,MarkerValueInt,EEG.MarkerHardware,CQ.AF3,CQ.T7,CQ.Pz,CQ.T8,CQ.AF4,CQ.Overall,EQ.SampleRateQuality,EQ.OVERALL,EQ.AF3,EQ.T7,EQ.Pz,EQ.T8,EQ.AF4,MOT.CounterMems,MOT.InterpolatedMems,MOT.Q0,MOT.Q1,MOT.Q2,MOT.Q3,MOT.AccX,MOT.AccY,MOT.AccZ,MOT.MagX,MOT.MagY,MOT.MagZ,MC.Action,MC.ActionPower,MC.IsActive,PM.Engagement.IsActive,PM.Engagement.Scaled,PM.Engagement.Raw,PM.Engagement.Min,PM.Engagement.Max,PM.Excitement.IsActive,PM.Excitement.Scaled,PM.Excitement.Raw,PM.Excitement.Min,PM.Excitement.Max,PM.LongTermExcitement,PM.Stress.IsActive,PM.Stress.Scaled,PM.Stress.Raw,PM.Stress.Min,PM.Stress.Max,PM.Relaxation.IsActive,PM.Relaxation.Scaled,PM.Relaxation.Raw,PM.Relaxation.Min,PM.Relaxation.Max,PM.Interest.IsActive,PM.Interest.Scaled,PM.Interest.Raw,PM.Interest.Min,PM.Interest.Max,PM.Focus.IsActive,PM.Focus.Scaled,PM.Focus.Raw,PM.Focus.Min,PM.Focus.Max,FE.BlinkWink,FE.HorizontalEyesDirection,FE.UpperFaceAction,FE.UpperFaceActionPower,FE.LowerFaceAction,FE.LowerFaceActionPower,POW.AF3.Theta,POW.AF3.Alpha,POW.AF3.BetaL,POW.AF3.BetaH,POW.AF3.Gamma,POW.T7.Theta,POW.T7.Alpha,POW.T7.BetaL,POW.T7.BetaH,POW.T7.Gamma,POW.Pz.Theta,POW.Pz.Alpha,POW.Pz.BetaL,POW.Pz.BetaH,POW.Pz.Gamma,POW.T8.Theta,POW.T8.Alpha,POW.T8.BetaL,POW.T8.BetaH,POW.T8.Gamma,POW.AF4.Theta,POW.AF4.Alpha,POW.AF4.BetaL,POW.AF4.BetaH,POW.AF4.Gamma
24740,1645495579.082746,1645495579.105331,84.0,0.0,4314.871582,4384.102539,4156.922852000001,4268.717772999999,4259.487305,450.0,3.0,73.0,,,,0.0,4.0,4.0,4.0,0.0,4.0,66.666664,,,,,,,,42.0,0.0,0.357604,-0.32104499999999997,0.5896,0.64917,0.846693,-0.541024,-0.098146,-0.033561,-0.040208999999999995,-0.025308,,,,,,,,,,,,,,,,,,,,,,,,,,,,,,,,,,,0.0,0.0,1.0,0.0,1.0,0.0,,,,,,,,,,,,,,,,,,,,,,,,,
24741,1645495579.09056,1645495579.113146,85.0,0.0,4321.538574,4401.538574,4169.230957,4268.717772999999,4274.358886999999,450.0,3.0,73.0,,,,0.0,4.0,4.0,4.0,0.0,4.0,66.666664,,,,,,,,,,,,,,,,,,,,,,,,,,,,,,,,,,,,,,,,,,,,,,,,,,,,,,,,,,,,,,,,,,,,,,,,,,,,,,,,,,,,
24742,1645495579.0983741,1645495579.120962,86.0,0.0,4300.0,4376.410156,4178.974121,4268.717772999999,4270.769043,450.0,3.0,73.0,,,,0.0,4.0,4.0,4.0,0.0,4.0,66.666664,,,,,,,,43.0,0.0,0.357604,-0.32104499999999997,0.5896,0.64917,0.8481569999999999,-0.541512,-0.109865,-0.033476,-0.040192,-0.027611,,,,,,,,,,,,,,,,,,,,,,,,,,,,,,,,,,,,,,,,,,,,,,,,,,,,,,,,,,,,,,,,,
24743,1645495579.106188,1645495579.128777,87.0,0.0,4298.461426,4363.077147999999,4176.410156,4268.717772999999,4271.282227000001,16240.0,3.0,73.0,,,,0.0,4.0,4.0,4.0,0.0,4.0,66.666664,,,,,,,,,,,,,,,,,,,,,,,,,,,,,,,,,,,,,,,,,,,,,,,,,,,,,,,,,,,,,,,,,,,,,,,,,,,,,,,,,,,,
24744,1645495579.114002,1645495579.1365929,88.0,0.0,4297.94873,4379.487305,4181.538574,4268.717772999999,4260.512695,450.0,3.0,73.0,,,,0.0,4.0,4.0,4.0,0.0,4.0,66.666664,,,,,,,,44.0,0.0,0.358266,-0.320801,0.5896,0.648926,0.8481569999999999,-0.529305,-0.109377,-0.0334,-0.040323000000000005,-0.023483,,,,,,,,,,,,,,,,,,,,,,,,,,,,,,,,,,,0.0,0.0,1.0,0.0,1.0,0.0,,,,,,,,,,,,,,,,,,,,,,,,,
24745,1645495579.121816,1645495579.144408,89.0,0.0,4274.358886999999,4380.512695,4191.794922,4268.717772999999,4233.333496,450.0,3.0,73.0,,,,0.0,4.0,4.0,4.0,0.0,4.0,66.666664,,,,,,,,,,,,,,,,,,,,,,,,,,,,,,,,,,,,,,,,,,,,,,,,,,,,,,,,,,,,,,,,,,,,,,,,,,,,,,,,,,,,
24746,1645495579.12963,1645495579.152224,90.0,0.0,4278.461426,4361.025879,4190.256348,4268.717772999999,4240.0,450.0,3.0,73.0,,,,0.0,4.0,4.0,4.0,0.0,4.0,66.666664,,,,,,,,45.0,0.0,0.358047,-0.32104499999999997,0.5896,0.648926,0.8520639999999999,-0.542489,-0.109377,-0.033477999999999994,-0.040393,-0.026066000000000002,,,,,,,,,,,,,,,,,,,,,,,,,,,,,,,,,,,,,,,,,,,,,,,,,,,,,,,,,,,,,,,,,
24747,1645495579.137444,1645495579.160039,91.0,0.0,4302.05127,4384.615234000001,4195.384765999999,4268.717772999999,4277.436035,16240.0,3.0,73.0,,,,0.0,4.0,4.0,4.0,0.0,4.0,66.666664,,,,,,,,,,,,,,,,,,,,,,,,,,,,,,,,,,,,,,,,,,,,,,,,,,,,,,,,,,,,,,,,,,,,,,,,,,,,,,,,,,,,
24748,1645495579.145258,1645495579.1678538,92.0,0.0,4302.563965,4419.487305,4196.410156,4268.717772999999,4266.153809,450.0,3.0,73.0,,,,0.0,4.0,4.0,4.0,0.0,4.0,66.666664,,,,,,,,46.0,0.0,0.35782800000000003,-0.321289,0.5896,0.648926,0.851575,-0.532235,-0.104005,-0.033597,-0.040455,-0.028392,,,,,,,,,,,,,,,,,,,,,,,,,,,,,,,,,,,0.0,0.0,1.0,0.0,1.0,0.0,,,,,,,,,,,,,,,,,,,,,,,,,
24749,1645495579.153072,1645495579.17567,93.0,0.0,4296.922852000001,4391.282227000001,4189.230957,4268.717772999999,4228.717772999999,450.0,3.0,73.0,,,,0.0,4.0,4.0,4.0,0.0,4.0,66.666664,,,,,,,,,,,,,,,,,,,,,,,,,,,,,,,,,,,,,,,,,,,,,,,,,,,,,,,,,,,,,,,,,,,,,,,,,,,,,,,,,,,,
24750,1645495579.160886,1645495579.183485,94.0,0.0,4297.436035,4366.666504,4196.410156,4268.717772999999,4243.589844,450.0,3.0,73.0,,,,0.0,4.0,4.0,4.0,0.0,4.0,66.666664,,,,,,,,47.0,0.0,0.358011,-0.321533,0.5893550000000001,0.648926,0.847181,-0.5234449999999999,-0.114748,-0.033558,-0.040511,-0.030532999999999998,,,,,,,,,,,,,,,,,,,,,,,,,,,,,,,,,,,,,,,,,,,,,,,,,,,,,,,,,,,,,,,,,
24751,1645495579.1687,1645495579.1913,95.0,0.0,4304.615234000001,4410.256348,4197.436035,4268.717772999999,4270.256348,16240.0,3.0,73.0,,,,0.0,4.0,4.0,4.0,0.0,4.0,66.666664,,,,,,,,,,,,,,,,,,,,,,,,,,,,,,,,,,,,,,,,,,,,,,,,,,,,,,,,,,,,,,,,,,,,,,,,,,,,,,,,,,,,
24752,1645495579.1765141,1645495579.199116,96.0,0.0,4322.05127,4463.077147999999,4194.358886999999,4268.717772999999,4278.461426,450.0,3.0,73.0,,,,0.0,4.0,4.0,4.0,0.0,4.0,66.666664,,,,,,,,48.0,0.0,0.357568,-0.321533,0.5893550000000001,0.64917,0.83888,-0.52491,-0.112795,-0.033522,-0.040464,-0.032411,1.0,0.0,0.0,,,,,,,,,,,,,,,,,,,,,,,,,,,,,,,,0.0,0.0,1.0,0.0,128.0,1.0,12.376605999999999,7.467461,4.543051999999999,1.429959,0.81129,56.064861,13.046772,4.398421,2.8064009999999997,3.7150730000000003,1.515366,0.559704,0.47601499999999997,0.303427,0.43991099999999994,0.017322,0.009086,0.005202,0.002501,0.001591,3.9563370000000004,1.332642,1.254268,0.663624,0.780748
24753,1645495579.1843278,1645495579.206931,97.0,0.0,4323.589844,4496.922852000001,4194.871582,4268.205078,4293.333496,450.0,3.0,73.0,,,,0.0,4.0,4.0,4.0,0.0,4.0,66.666664,,,,,,,,,,,,,,,,,,,,,,,,,,,,,,,,,,,,,,,,,,,,,,,,,,,,,,,,,,,,,,,,,,,,,,,,,,,,,,,,,,,,
24754,1645495579.192142,1645495579.214847,98.0,0.0,4309.230957,4503.077147999999,4196.922852000001,4267.692383,4293.846191,450.0,3.0,73.0,,,,0.0,4.0,4.0,4.0,0.0,4.0,66.666664,,,,,,,,49.0,0.0,0.357348,-0.321777,0.5893550000000001,0.64917,0.8569469999999999,-0.528328,-0.099611,-0.033539,-0.040519,-0.034151,,,,,,,,,,,,,,,,,,,,,,,,,,,,,,,,,,,,,,,,,,,,,,,,,,,,,,,,,,,,,,,,,
24755,1645495579.199956,1645495579.222662,99.0,0.0,4321.025879,4477.436035,4192.307617,4269.230957,4269.230957,16240.0,3.0,73.0,,,,0.0,4.0,4.0,4.0,0.0,4.0,66.666664,,,,,,,,,,,,,,,,,,,,,,,,,,,,,,,,,,,,,,,,,,,,,,,,,,,,,,,,,,,,,,,,,,,,,,,,,,,,,,,,,,,,
24756,1645495579.2077699,1645495579.230478,100.0,0.0,4323.589844,4475.384765999999,4191.794922,4268.205078,4255.897461,450.0,3.0,73.0,,,,0.0,4.0,4.0,4.0,0.0,4.0,66.666664,,,,,,,,50.0,0.0,0.357348,-0.321777,0.5893550000000001,0.64917,0.843275,-0.537118,-0.097169,-0.033506,-0.040569,-0.035716000000000005,,,,,,,,,,,,,,,,,,,,,,,,,,,,,,,,,,,0.0,0.0,1.0,0.0,128.0,1.0,,,,,,,,,,,,,,,,,,,,,,,,,
24757,1645495579.215584,1645495579.238293,101.0,0.0,4289.230957,4491.282227000001,4193.846191,4267.179688,4258.461426,450.0,3.0,73.0,,,,0.0,4.0,4.0,4.0,0.0,4.0,66.666664,,,,,,,,,,,,,,,,,,,,,,,,,,,,,,,,,,,,,,,,,,,,,,,,,,,,,,,,,,,,,,,,,,,,,,,,,,,,,,,,,,,,
24758,1645495579.223398,1645495579.246109,102.0,0.0,4288.205078,4485.641113000001,4206.666504,4275.384765999999,4256.922852000001,450.0,3.0,73.0,,,,0.0,4.0,4.0,4.0,0.0,4.0,66.666664,,,,,,,,51.0,0.0,0.357348,-0.321777,0.5893550000000001,0.64917,0.8584120000000001,-0.546883,-0.10351700000000001,-0.033524,-0.040565,-0.036930000000000004,,,,,,,,,,,,,,,,,,,,,,,,,,,,,,,,,,,,,,,,,,,,,,,,,,,,,,,,,,,,,,,,,
24759,1645495579.231212,1645495579.253925,103.0,0.0,4321.025879,4486.666504,4202.05127,4281.538574,4263.589844,16240.0,3.0,73.0,,,,0.0,4.0,4.0,4.0,0.0,4.0,66.666664,,,,,,,,,,,,,,,,,,,,,,,,,,,,,,,,,,,,,,,,,,,,,,,,,,,,,,,,,,,,,,,,,,,,,,,,,,,,,,,,,,,,
24760,1645495579.239026,1645495579.26174,104.0,0.0,4327.179688,4486.153809,4184.102539,4275.897461,4270.769043,450.0,3.0,73.0,,,,0.0,4.0,4.0,4.0,0.0,4.0,66.666664,,,,,,,,52.0,0.0,0.357348,-0.321777,0.5893550000000001,0.64917,0.8569469999999999,-0.528817,-0.105959,-0.033492,-0.040561,-0.03812,,,,,,,,,,,,,,,,,,,,,,,,,,,,,,,,,,,0.0,0.0,1.0,0.0,128.0,1.0,,,,,,,,,,,,,,,,,,,,,,,,,
24761,1645495579.24684,1645495579.269556,105.0,0.0,4299.487305,4456.410156,4188.717772999999,4270.256348,4262.563965,450.0,3.0,73.0,,,,0.0,4.0,4.0,4.0,0.0,4.0,66.666664,,,,,,,,,,,,,,,,,,,,,,,,,,,,,,,,,,,,,,,,,,,,,,,,,,,,,,,,,,,,,,,,,,,,,,,,,,,,,,,,,,,,
24762,1645495579.254654,1645495579.2773712,106.0,0.0,4282.05127,4437.94873,4193.846191,4271.794922,4248.717772999999,450.0,3.0,73.0,,,,0.0,4.0,4.0,4.0,0.0,4.0,66.666664,,,,,,,,53.0,0.0,0.357348,-0.321777,0.5893550000000001,0.64917,0.8437629999999999,-0.5337,-0.10498199999999999,-0.033415,-0.040607,-0.039191000000000004,,,,,,,,,,,,,,,,,,,,,,,,,,,,,,,,,,,,,,,,,,,,,,,,,,,,,,,,,,,,,,,,,
24763,1645495579.2624679,1645495579.285287,107.0,0.0,4294.358886999999,4444.615234000001,4170.256348,4272.307617,4245.641113000001,16240.0,3.0,73.0,,,,0.0,4.0,4.0,4.0,0.0,4.0,66.666664,,,,,,,,,,,,,,,,,,,,,,,,,,,,,,,,,,,,,,,,,,,,,,,,,,,,,,,,,,,,,,,,,,,,,,,,,,,,,,,,,,,,
24764,1645495579.270282,1645495579.293103,108.0,0.0,4306.666504,4453.846191,4170.256348,4271.794922,4252.307617,450.0,3.0,73.0,,,,0.0,4.0,4.0,4.0,0.0,4.0,66.666664,,,,,,,,54.0,0.0,0.357348,-0.321777,0.5893550000000001,0.64917,0.8535290000000001,-0.52491,-0.099123,-0.033394,-0.040599,-0.040057,,,,,,,,,,,,,,,,,,,,,,,,,,,,,,,,,,,0.0,0.0,1.0,0.0,128.0,1.0,,,,,,,,,,,,,,,,,,,,,,,,,
24765,1645495579.2780962,1645495579.3009179,109.0,0.0,4303.589844,4471.794922,4197.94873,4272.307617,4253.333496,450.0,3.0,73.0,,,,0.0,4.0,4.0,4.0,0.0,4.0,66.666664,,,,,,,,,,,,,,,,,,,,,,,,,,,,,,,,,,,,,,,,,,,,,,,,,,,,,,,,,,,,,,,,,,,,,,,,,,,,,,,,,,,,
24766,1645495579.28591,1645495579.308734,110.0,0.0,4298.461426,4475.384765999999,4195.897461,4271.794922,4251.282227000001,450.0,3.0,73.0,,,,0.0,4.0,4.0,4.0,0.0,4.0,66.666664,,,,,,,,55.0,0.0,0.357348,-0.321777,0.5893550000000001,0.64917,0.854994,-0.531746,-0.093751,-0.033423,-0.040592,-0.040983,,,,,,,,,,,,,,,,,,,,,,,,,,,,,,,,,,,,,,,,,,,,,,,,,,,,,,,,,,,,,,,,,
24767,1645495579.293724,1645495579.316549,111.0,0.0,4301.538574,4469.230957,4180.0,4271.282227000001,4249.230957,16240.0,3.0,73.0,,,,0.0,4.0,4.0,4.0,0.0,4.0,66.666664,,,,,,,,,,,,,,,,,,,,,,,,,,,,,,,,,,,,,,,,,,,,,,,,,,,,,,,,,,,,,,,,,,,,,,,,,,,,,,,,,,,,
24768,1645495579.301538,1645495579.3243651,112.0,0.0,4301.025879,4471.282227000001,4185.128418,4271.794922,4244.615234000001,450.0,3.0,73.0,,,,0.0,4.0,4.0,4.0,0.0,4.0,66.666664,,,,,,,,56.0,0.0,0.357128,-0.322021,0.5893550000000001,0.64917,0.838392,-0.521981,-0.102052,-0.033401,-0.040585,-0.035469,1.0,0.0,0.0,,,,,,,,,,,,,,,,,,,,,,,,,,,,,,,,0.0,0.0,1.0,0.0,128.0,1.0,13.598115,7.948798,4.489106,1.327799,0.7964939999999999,57.387657,10.524672,4.226426,2.896668,3.6824269999999997,1.538289,0.572411,0.424203,0.272634,0.43219799999999997,0.017914,0.009298,0.005016,0.002095,0.0008820000000000001,3.411686,1.120034,1.0655379999999999,0.748686,0.787662
24769,1645495579.309352,1645495579.332181,113.0,0.0,4297.436035,4459.487305,4197.94873,4272.307617,4255.384765999999,450.0,3.0,73.0,,,,0.0,4.0,4.0,4.0,0.0,4.0,66.666664,,,,,,,,,,,,,,,,,,,,,,,,,,,,,,,,,,,,,,,,,,,,,,,,,,,,,,,,,,,,,,,,,,,,,,,,,,,,,,,,,,,,
24770,1645495579.317166,1645495579.339996,114.0,0.0,4301.025879,4433.333496,4196.410156,4273.846191,4265.641113000001,450.0,3.0,73.0,,,,0.0,4.0,4.0,4.0,0.0,4.0,66.666664,,,,,,,,57.0,0.0,0.356725,-0.322021,0.5896,0.64917,0.8403450000000001,-0.533211,-0.086427,-0.033479,-0.040628,-0.036756,,,,,,,,,,,,,,,,,,,,,,,,,,,,,,,,,,,,,,,,,,,,,,,,,,,,,,,,,,,,,,,,,
24771,1645495579.32498,1645495579.347812,115.0,0.0,4304.102539,4400.0,4191.794922,4273.333496,4256.410156,16240.0,3.0,73.0,,,,0.0,4.0,4.0,4.0,0.0,4.0,66.666664,,,,,,,,,,,,,,,,,,,,,,,,,,,,,,,,,,,,,,,,,,,,,,,,,,,,,,,,,,,,,,,,,,,,,,,,,,,,,,,,,,,,
24772,1645495579.332794,1645495579.355627,116.0,0.0,4305.641113000001,4371.282227000001,4189.743652,4271.794922,4264.102539,450.0,3.0,73.0,,,,0.0,4.0,4.0,4.0,0.0,4.0,66.666664,,,,,,,,58.0,0.0,0.35694499999999996,-0.321777,0.5896,0.64917,0.834485,-0.538582,-0.098634,-0.033402999999999995,-0.040618,-0.037864999999999996,,,,,,,,,,,,,,,,,,,,,,,,,,,,,,,,,,,0.0,0.0,1.0,0.0,128.0,1.0,,,,,,,,,,,,,,,,,,,,,,,,,
24773,1645495579.3406081,1645495579.363343,117.0,0.0,4314.871582,4370.256348,4200.0,4270.769043,4292.307617,450.0,3.0,73.0,,,,0.0,4.0,4.0,4.0,0.0,4.0,66.666664,,,,,,,,,,,,,,,,,,,,,,,,,,,,,,,,,,,,,,,,,,,,,,,,,,,,,,,,,,,,,,,,,,,,,,,,,,,,,,,,,,,,
24774,1645495579.348422,1645495579.3711581,118.0,0.0,4323.077147999999,4371.282227000001,4194.358886999999,4270.769043,4290.769043,450.0,3.0,73.0,,,,0.0,4.0,4.0,4.0,0.0,4.0,66.666664,,,,,,,,59.0,0.0,0.35694499999999996,-0.321777,0.5896,0.64917,0.831556,-0.546883,-0.093263,-0.033529,-0.040707,-0.039108,,,,,,,,,,,,,,,,,,,,,,,,,,,,,,,,,,,,,,,,,,,,,,,,,,,,,,,,,,,,,,,,,
24775,1645495579.356236,1645495579.378974,119.0,0.0,4324.102539,4372.820313,4186.153809,4270.256348,4278.461426,16240.0,3.0,73.0,,,,0.0,4.0,4.0,4.0,0.0,4.0,66.666664,,,,,,,,,,,,,,,,,,,,,,,,,,,,,,,,,,,,,,,,,,,,,,,,,,,,,,,,,,,,,,,,,,,,,,,,,,,,,,,,,,,,
24776,1645495579.36405,1645495579.386789,120.0,0.0,4322.563965,4405.641113000001,4195.897461,4269.743652,4284.615234000001,450.0,3.0,73.0,,,,0.0,4.0,4.0,4.0,0.0,4.0,66.666664,,,,,,,,60.0,0.0,0.35676199999999997,-0.321533,0.5898439999999999,0.64917,0.8408329999999999,-0.534676,-0.100587,-0.033595,-0.040591,-0.040031,,,,,,,,,,,,,,,,,,,,,,,,,,,,,,,,,,,0.0,0.0,1.0,0.0,128.0,1.0,,,,,,,,,,,,,,,,,,,,,,,,,
24777,1645495579.371864,1645495579.394604,121.0,0.0,4318.974121,4417.94873,4205.641113000001,4273.846191,4281.538574,450.0,3.0,73.0,,,,0.0,4.0,4.0,4.0,0.0,4.0,66.666664,,,,,,,,,,,,,,,,,,,,,,,,,,,,,,,,,,,,,,,,,,,,,,,,,,,,,,,,,,,,,,,,,,,,,,,,,,,,,,,,,,,,
24778,1645495579.379678,1645495579.4024198,122.0,0.0,4313.846191,4378.974121,4195.384765999999,4278.461426,4267.692383,450.0,3.0,73.0,,,,0.0,4.0,4.0,4.0,0.0,4.0,66.666664,,,,,,,,61.0,0.0,0.356982,-0.321289,0.5898439999999999,0.64917,0.83595,-0.542977,-0.10498199999999999,-0.033507,-0.040585,-0.04096,,,,,,,,,,,,,,,,,,,,,,,,,,,,,,,,,,,,,,,,,,,,,,,,,,,,,,,,,,,,,,,,,
24779,1645495579.387492,1645495579.410235,123.0,0.0,4311.794922,4371.282227000001,4188.717772999999,4278.974121,4256.410156,16240.0,3.0,73.0,,,,0.0,4.0,4.0,4.0,0.0,4.0,66.666664,,,,,,,,,,,,,,,,,,,,,,,,,,,,,,,,,,,,,,,,,,,,,,,,,,,,,,,,,,,,,,,,,,,,,,,,,,,,,,,,,,,,
24780,1645495579.395306,1645495579.41805,124.0,0.0,4306.666504,4396.922852000001,4188.717772999999,4275.897461,4246.153809,450.0,3.0,73.0,,,,0.0,4.0,4.0,4.0,0.0,4.0,66.666664,,,,,,,,62.0,0.0,0.356538,-0.321289,0.5898439999999999,0.649414,0.8486459999999999,-0.5473720000000001,-0.09472799999999999,-0.033427,-0.040628,-0.041698,,,,,,,,,,,,,,,,,,,,,,,,,,,,,,,,,,,0.0,0.0,1.0,0.0,128.0,1.0,,,,,,,,,,,,,,,,,,,,,,,,,
24781,1645495579.40312,1645495579.4258661,125.0,0.0,4301.025879,4384.615234000001,4189.743652,4271.282227000001,4258.974121,450.0,3.0,73.0,,,,0.0,4.0,4.0,4.0,0.0,4.0,66.666664,,,,,,,,,,,,,,,,,,,,,,,,,,,,,,,,,,,,,,,,,,,,,,,,,,,,,,,,,,,,,,,,,,,,,,,,,,,,,,,,,,,,
24782,1645495579.410934,1645495579.4337811,126.0,0.0,4309.230957,4349.743652,4190.769043,4269.743652,4271.282227000001,450.0,3.0,73.0,,,,0.0,4.0,4.0,4.0,0.0,4.0,66.666664,,,,,,,,63.0,0.0,0.356757,-0.32104499999999997,0.5898439999999999,0.649414,0.842786,-0.5351640000000001,-0.105959,-0.033503,-0.040569,-0.03621,,,,,,,,,,,,,,,,,,,,,,,,,,,,,,,,,,,,,,,,,,,,,,,,,,,,,,,,,,,,,,,,,
24783,1645495579.4187481,1645495579.441596,127.0,0.0,4321.025879,4326.666504,4189.230957,4272.820313,4254.358886999999,238.0,3.0,73.0,,,,0.0,4.0,4.0,4.0,0.0,4.0,66.666664,,,,,,,,,,,,,,,,,,,,,,,,,,,,,,,,,,,,,,,,,,,,,,,,,,,,,,,,,,,,,,,,,,,,,,,,,,,,,,,,,,,,
24784,1645495579.4265618,1645495579.4494119,0.0,0.0,4317.436035,4340.512695,4195.384765999999,4272.820313,4260.512695,450.0,3.0,73.0,,,,0.0,4.0,4.0,4.0,0.0,4.0,66.666664,1.0,58.33333199999999,4.0,3.0,4.0,0.0,4.0,0.0,0.0,0.356977,-0.320801,0.5898439999999999,0.649414,0.847669,-0.538582,-0.107424,-0.033424,-0.040712,-0.037521,1.0,0.0,0.0,,,,,,,,,,,,,,,,,,,,,,,,,,,,,,,,0.0,0.0,1.0,0.0,128.0,1.0,13.220591,7.424995,4.0124629999999994,1.179916,0.773934,64.241417,9.045404,4.299418,3.02516,3.66261,1.530783,0.6249439999999999,0.43805299999999997,0.262395,0.438551,0.016108,0.008699,0.004815,0.001946,0.0007379999999999999,2.7069509999999997,0.906148,1.047955,0.961599,0.835966
24785,1645495579.434376,1645495579.457227,1.0,0.0,4307.692383,4372.307617,4193.333496,4271.282227000001,4297.94873,450.0,3.0,73.0,,,,0.0,4.0,4.0,4.0,0.0,4.0,66.666664,,,,,,,,,,,,,,,,,,,,,,,,,,,,,,,,,,,,,,,,,,,,,,,,,,,,,,,,,,,,,,,,,,,,,,,,,,,,,,,,,,,,
24786,1645495579.44219,1645495579.4650419,2.0,0.0,4310.769043,4364.102539,4184.102539,4273.846191,4300.512695,16211.0,3.0,73.0,,,,0.0,4.0,4.0,4.0,0.0,4.0,66.666664,,,,,,,,1.0,0.0,0.356977,-0.320801,0.5898439999999999,0.649414,0.849622,-0.5356529999999999,-0.10254100000000001,-0.033451,-0.040693,-0.032304,,,,,,,,,,,,,,,,,,,,,,,,,,,,,,,,,,,,,,,,,,,,,,,,,,,,,,,,,,,,,,,,,
24787,1645495579.4500039,1645495579.472858,3.0,0.0,4338.974121,4342.05127,4190.256348,4275.897461,4285.641113000001,450.0,3.0,73.0,,,,0.0,4.0,4.0,4.0,0.0,4.0,66.666664,,,,,,,,,,,,,,,,,,,,,,,,,,,,,,,,,,,,,,,,,,,,,,,,,,,,,,,,,,,,,,,,,,,,,,,,,,,,,,,,,,,,
24788,1645495579.457818,1645495579.480673,4.0,0.0,4350.769043,4340.512695,4210.256348,4273.846191,4294.358886999999,16139.0,3.0,73.0,,,,0.0,4.0,4.0,4.0,0.0,4.0,66.666664,,,,,,,,2.0,0.0,0.35679299999999997,-0.32055700000000004,0.5900880000000001,0.649414,0.849134,-0.5337,-0.11816600000000001,-0.033573,-0.040628,-0.033956,,,,,,,,,,,,,,,,,,,,,,,,,,,,,,,,,,,0.0,0.0,1.0,0.0,128.0,1.0,,,,,,,,,,,,,,,,,,,,,,,,,
24789,1645495579.465632,1645495579.4884882,5.0,0.0,4320.512695,4313.846191,4200.0,4274.871582,4293.846191,450.0,3.0,73.0,,,,0.0,4.0,4.0,4.0,0.0,4.0,66.666664,,,,,,,,,,,,,,,,,,,,,,,,,,,,,,,,,,,,,,,,,,,,,,,,,,,,,,,,,,,,,,,,,,,,,,,,,,,,,,,,,,,,
24790,1645495579.4734461,1645495579.4963038,6.0,0.0,4311.794922,4294.871582,4192.307617,4275.897461,4280.512695,16141.0,3.0,73.0,,,,0.0,4.0,4.0,4.0,0.0,4.0,66.666664,,,,,,,,3.0,0.0,0.35657300000000003,-0.320801,0.5900880000000001,0.649414,0.849134,-0.521492,-0.10009900000000001,-0.033583999999999996,-0.040667,-0.035443,,,,,,,,,,,,,,,,,,,,,,,,,,,,,,,,,,,,,,,,,,,,,,,,,,,,,,,,,,,,,,,,,
24791,1645495579.48126,1645495579.504219,7.0,0.0,4332.820313,4325.641113000001,4205.128418,4273.333496,4290.256348,450.0,3.0,73.0,,,,0.0,4.0,4.0,4.0,0.0,4.0,66.666664,,,,,,,,,,,,,,,,,,,,,,,,,,,,,,,,,,,,,,,,,,,,,,,,,,,,,,,,,,,,,,,,,,,,,,,,,,,,,,,,,,,,
24792,1645495579.489074,1645495579.512035,8.0,0.0,4329.230957,4332.307617,4212.820313,4275.897461,4305.128418,450.0,3.0,73.0,,,,0.0,4.0,4.0,4.0,0.0,4.0,66.666664,,,,,,,,4.0,0.0,0.356977,-0.320801,0.5898439999999999,0.649414,0.849622,-0.5356529999999999,-0.10254100000000001,-0.033693,-0.040555,-0.030581,,,,,,,,,,,,,,,,,,,,,,,,,,,,,,,,,,,0.0,0.0,1.0,0.0,128.0,1.0,,,,,,,,,,,,,,,,,,,,,,,,,
24793,1645495579.4968882,1645495579.519851,9.0,0.0,4310.256348,4296.410156,4199.487305,4280.512695,4291.794922,0.0,3.0,73.0,,,,0.0,4.0,4.0,4.0,0.0,4.0,66.666664,,,,,,,,,,,,,,,,,,,,,,,,,,,,,,,,,,,,,,,,,,,,,,,,,,,,,,,,,,,,,,,,,,,,,,,,,,,,,,,,,,,,
24794,1645495579.5047019,1645495579.527666,10.0,0.0,4313.846191,4279.487305,4190.769043,4274.871582,4269.230957,450.0,3.0,73.0,,,,0.0,4.0,4.0,4.0,0.0,4.0,66.666664,,,,,,,,5.0,0.0,0.35657300000000003,-0.320801,0.5900880000000001,0.649414,0.849134,-0.521492,-0.10009900000000001,-0.033693,-0.040601,-0.032406,,,,,,,,,,,,,,,,,,,,,,,,,,,,,,,,,,,,,,,,,,,,,,,,,,,,,,,,,,,,,,,,,
24795,1645495579.512516,1645495579.535482,11.0,0.0,4324.615234000001,4278.974121,4193.846191,4268.717772999999,4273.333496,16218.0,3.0,73.0,,,,0.0,4.0,4.0,4.0,0.0,4.0,66.666664,,,,,,,,,,,,,,,,,,,,,,,,,,,,,,,,,,,,,,,,,,,,,,,,,,,,,,,,,,,,,,,,,,,,,,,,,,,,,,,,,,,,
24796,1645495579.5203302,1645495579.543297,12.0,0.0,4309.743652,4273.846191,4201.025879,4271.794922,4287.692383,450.0,3.0,73.0,,,,0.0,4.0,4.0,4.0,0.0,4.0,66.666664,,,,,,,,6.0,0.0,0.356977,-0.320801,0.5898439999999999,0.649414,0.8481569999999999,-0.55079,-0.098634,-0.033742,-0.040545,-0.034048,,,,,,,,,,,,,,,,,,,,,,,,,,,,,,,,,,,0.0,0.0,1.0,0.0,128.0,1.0,,,,,,,,,,,,,,,,,,,,,,,,,
24797,1645495579.528144,1645495579.5511131,13.0,0.0,4314.358886999999,4254.358886999999,4203.077147999999,4272.820313,4280.0,450.0,3.0,73.0,,,,0.0,4.0,4.0,4.0,0.0,4.0,66.666664,,,,,,,,,,,,,,,,,,,,,,,,,,,,,,,,,,,,,,,,,,,,,,,,,,,,,,,,,,,,,,,,,,,,,,,,,,,,,,,,,,,,
24798,1645495579.535958,1645495579.558929,14.0,0.0,4348.205078,4233.846191,4200.0,4270.769043,4280.512695,450.0,3.0,73.0,,,,0.0,4.0,4.0,4.0,0.0,4.0,66.666664,,,,,,,,7.0,0.0,0.356977,-0.320801,0.5898439999999999,0.649414,0.833509,-0.538094,-0.09424,-0.033833999999999996,-0.040494999999999996,-0.035526,,,,,,,,,,,,,,,,,,,,,,,,,,,,,,,,,,,,,,,,,,,,,,,,,,,,,,,,,,,,,,,,,
24799,1645495579.543772,1645495579.5667439,15.0,0.0,4357.436035,4252.307617,4196.922852000001,4271.282227000001,4303.077147999999,16218.0,3.0,73.0,,,,0.0,4.0,4.0,4.0,0.0,4.0,66.666664,,,,,,,,,,,,,,,,,,,,,,,,,,,,,,,,,,,,,,,,,,,,,,,,,,,,,,,,,,,,,,,,,,,,,,,,,,,,,,,,,,,,
24800,1645495579.551586,1645495579.57456,16.0,0.0,4337.436035,4276.922852000001,4196.410156,4271.794922,4292.820313,0.0,3.0,73.0,,,,0.0,4.0,4.0,4.0,0.0,4.0,66.666664,,,,,,,,8.0,0.0,0.356757,-0.32104499999999997,0.5898439999999999,0.649414,0.8486459999999999,-0.545419,-0.10693499999999999,-0.033868999999999996,-0.040449,-0.037002999999999994,1.0,0.0,0.0,,,,,,,,,,,,,,,,,,,,,,,,,,,,,,,,0.0,0.0,1.0,0.0,1.0,0.0,11.434567999999999,6.085141999999999,3.3490290000000003,1.025992,0.754088,76.498184,8.78635,4.559264,3.220652,3.701744,1.507728,0.7091310000000001,0.50383,0.280882,0.455671,0.013757,0.008187,0.005637,0.0024579999999999997,0.001123,2.071572,0.782091,1.210122,1.289145,0.921407
24801,1645495579.5594,1645495579.582475,17.0,0.0,4335.384765999999,4280.0,4208.717772999999,4273.846191,4274.358886999999,0.0,3.0,73.0,,,,0.0,4.0,4.0,4.0,0.0,4.0,66.666664,,,,,,,,,,,,,,,,,,,,,,,,,,,,,,,,,,,,,,,,,,,,,,,,,,,,,,,,,,,,,,,,,,,,,,,,,,,,,,,,,,,,
24802,1645495579.567214,1645495579.59029,18.0,0.0,4337.94873,4293.846191,4203.589844,4278.974121,4290.769043,0.0,3.0,73.0,,,,0.0,4.0,4.0,4.0,0.0,4.0,66.666664,,,,,,,,9.0,0.0,0.356757,-0.32104499999999997,0.5898439999999999,0.649414,0.849622,-0.54786,-0.101076,-0.033753,-0.040311,-0.038234,,,,,,,,,,,,,,,,,,,,,,,,,,,,,,,,,,,,,,,,,,,,,,,,,,,,,,,,,,,,,,,,,
24803,1645495579.575028,1645495579.5981061,19.0,0.0,4325.641113000001,4293.846191,4183.077147999999,4280.512695,4292.820313,0.0,3.0,73.0,,,,0.0,4.0,4.0,4.0,0.0,4.0,66.666664,,,,,,,,,,,,,,,,,,,,,,,,,,,,,,,,,,,,,,,,,,,,,,,,,,,,,,,,,,,,,,,,,,,,,,,,,,,,,,,,,,,,
24804,1645495579.5828419,1645495579.605921,20.0,0.0,4327.692383,4249.230957,4184.615234000001,4276.410156,4272.820313,0.0,3.0,73.0,,,,0.0,4.0,4.0,4.0,0.0,4.0,66.666664,,,,,,,,10.0,0.0,0.356757,-0.32104499999999997,0.5898439999999999,0.649414,0.8452280000000001,-0.546883,-0.09472799999999999,-0.033698,-0.040283,-0.039294,,,,,,,,,,,,,,,,,,,,,,,,,,,,,,,,,,,0.0,0.0,1.0,0.0,1.0,0.0,,,,,,,,,,,,,,,,,,,,,,,,,
24805,1645495579.590656,1645495579.613736,21.0,0.0,4319.487305,4208.205078,4207.179688,4270.769043,4280.0,0.0,3.0,73.0,,,,0.0,4.0,4.0,4.0,0.0,4.0,66.666664,,,,,,,,,,,,,,,,,,,,,,,,,,,,,,,,,,,,,,,,,,,,,,,,,,,,,,,,,,,,,,,,,,,,,,,,,,,,,,,,,,,,
24806,1645495579.59847,1645495579.621552,22.0,0.0,4305.128418,4200.512695,4192.307617,4270.769043,4301.538574,0.0,3.0,73.0,,,,0.0,4.0,4.0,4.0,0.0,4.0,66.666664,,,,,,,,11.0,0.0,0.356757,-0.32104499999999997,0.5898439999999999,0.649414,0.849622,-0.553231,-0.109865,-0.0336,-0.04021,-0.034046,,,,,,,,,,,,,,,,,,,,,,,,,,,,,,,,,,,,,,,,,,,,,,,,,,,,,,,,,,,,,,,,,
24807,1645495579.6062849,1645495579.6293669,23.0,0.0,4321.025879,4194.871582,4172.307617,4272.820313,4297.94873,0.0,3.0,73.0,,,,0.0,4.0,4.0,4.0,0.0,4.0,66.666664,,,,,,,,,,,,,,,,,,,,,,,,,,,,,,,,,,,,,,,,,,,,,,,,,,,,,,,,,,,,,,,,,,,,,,,,,,,,,,,,,,,,
24808,1645495579.614098,1645495579.637183,24.0,0.0,4328.205078,4192.820313,4192.307617,4272.307617,4291.794922,0.0,3.0,73.0,,,,0.0,4.0,4.0,4.0,0.0,4.0,66.666664,,,,,,,,12.0,0.0,0.356757,-0.32104499999999997,0.5898439999999999,0.649414,0.845716,-0.539071,-0.095216,-0.033707,-0.040144,-0.035427,,,,,,,,,,,,,,,,,,,,,,,,,,,,,,,,,,,0.0,0.0,1.0,0.0,1.0,0.0,,,,,,,,,,,,,,,,,,,,,,,,,
24809,1645495579.621912,1645495579.644998,25.0,0.0,4327.692383,4198.974121,4213.846191,4271.794922,4304.102539,0.0,3.0,73.0,,,,0.0,4.0,4.0,4.0,0.0,4.0,66.666664,,,,,,,,,,,,,,,,,,,,,,,,,,,,,,,,,,,,,,,,,,,,,,,,,,,,,,,,,,,,,,,,,,,,,,,,,,,,,,,,,,,,
24810,1645495579.629727,1645495579.652913,26.0,0.0,4336.922852000001,4176.410156,4191.282227000001,4273.846191,4306.153809,0.0,3.0,73.0,,,,0.0,4.0,4.0,4.0,0.0,4.0,66.666664,,,,,,,,13.0,0.0,0.356578,-0.321289,0.5900880000000001,0.64917,0.8574350000000001,-0.544442,-0.096193,-0.033754,-0.040182999999999996,-0.030468000000000002,,,,,,,,,,,,,,,,,,,,,,,,,,,,,,,,,,,,,,,,,,,,,,,,,,,,,,,,,,,,,,,,,
24811,1645495579.63754,1645495579.660729,27.0,0.0,4327.179688,4132.820313,4174.871582,4272.820313,4285.128418,0.0,3.0,73.0,,,,0.0,4.0,4.0,4.0,0.0,4.0,66.666664,,,,,,,,,,,,,,,,,,,,,,,,,,,,,,,,,,,,,,,,,,,,,,,,,,,,,,,,,,,,,,,,,,,,,,,,,,,,,,,,,,,,
24812,1645495579.6453538,1645495579.668544,28.0,0.0,4309.743652,4126.666504,4200.512695,4272.307617,4277.436035,0.0,3.0,73.0,,,,0.0,4.0,4.0,4.0,0.0,4.0,66.666664,,,,,,,,14.0,0.0,0.356802,-0.321533,0.5900880000000001,0.648926,0.8564579999999999,-0.546883,-0.109865,-0.033602,-0.040119999999999996,-0.026054,,,,,,,,,,,,,,,,,,,,,,,,,,,,,,,,,,,0.0,0.0,1.0,0.0,1.0,0.0,,,,,,,,,,,,,,,,,,,,,,,,,
24813,1645495579.653169,1645495579.676359,29.0,0.0,4309.743652,4132.820313,4217.436035,4276.410156,4283.589844,0.0,3.0,73.0,,,,0.0,4.0,4.0,4.0,0.0,4.0,66.666664,,,,,,,,,,,,,,,,,,,,,,,,,,,,,,,,,,,,,,,,,,,,,,,,,,,,,,,,,,,,,,,,,,,,,,,,,,,,,,,,,,,,
24814,1645495579.6609821,1645495579.684175,30.0,0.0,4325.128418,4097.94873,4200.512695,4281.538574,4269.230957,0.0,3.0,73.0,,,,0.0,4.0,4.0,4.0,0.0,4.0,66.666664,,,,,,,,15.0,0.0,0.356986,-0.321777,0.5898439999999999,0.648926,0.830091,-0.541512,-0.093263,-0.033562,-0.040208999999999995,-0.028380000000000002,,,,,,,,,,,,,,,,,,,,,,,,,,,,,,,,,,,,,,,,,,,,,,,,,,,,,,,,,,,,,,,,,
24815,1645495579.668796,1645495579.6919901,31.0,0.0,4327.692383,4069.2307130000004,4193.333496,4278.461426,4262.05127,0.0,3.0,73.0,,,,0.0,4.0,4.0,4.0,0.0,4.0,66.666664,,,,,,,,,,,,,,,,,,,,,,,,,,,,,,,,,,,,,,,,,,,,,,,,,,,,,,,,,,,,,,,,,,,,,,,,,,,,,,,,,,,,
24816,1645495579.676611,1645495579.699805,32.0,0.0,4314.358886999999,4077.9487299999996,4209.743652,4271.282227000001,4279.487305,0.0,3.0,73.0,,,,0.0,4.0,4.0,4.0,0.0,4.0,66.666664,,,,,,,,16.0,0.0,0.35676599999999997,-0.322021,0.5898439999999999,0.648926,0.8530399999999999,-0.544442,-0.07715,-0.033526,-0.040143,-0.030425,1.0,0.0,0.0,,,,,,,,,,,,,,,,,,,,,,,,,,,,,,,,0.0,0.0,1.0,0.0,128.0,1.0,8.865857,4.42634,2.771445,0.9003469999999999,0.752279,90.087227,9.676816,4.869779,3.5110930000000002,3.784419,1.461085,0.8063239999999999,0.6033029999999999,0.322635,0.480573,0.013691,0.00992,0.009974,0.004598,0.002534,1.718421,0.866643,1.507331,1.663715,1.019917
24817,1645495579.684425,1645495579.707621,33.0,0.0,4314.871582,4084.102539,4208.717772999999,4271.794922,4284.615234000001,0.0,3.0,73.0,,,,0.0,4.0,4.0,4.0,0.0,4.0,66.666664,,,,,,,,,,,,,,,,,,,,,,,,,,,,,,,,,,,,,,,,,,,,,,,,,,,,,,,,,,,,,,,,,,,,,,,,,,,,,,,,,,,,
24818,1645495579.692238,1645495579.715436,34.0,0.0,4312.820313,4094.358887,4188.205078,4274.358886999999,4271.282227000001,0.0,3.0,73.0,,,,0.0,4.0,4.0,4.0,0.0,4.0,66.666664,,,,,,,,17.0,0.0,0.356545,-0.322266,0.5898439999999999,0.648926,0.833509,-0.540047,-0.097169,-0.033543,-0.040182,-0.032264999999999995,,,,,,,,,,,,,,,,,,,,,,,,,,,,,,,,,,,,,,,,,,,,,,,,,,,,,,,,,,,,,,,,,
24819,1645495579.700053,1645495579.723352,35.0,0.0,4311.794922,4134.871582,4178.974121,4272.820313,4264.102539,0.0,3.0,73.0,,,,0.0,4.0,4.0,4.0,0.0,4.0,66.666664,,,,,,,,,,,,,,,,,,,,,,,,,,,,,,,,,,,,,,,,,,,,,,,,,,,,,,,,,,,,,,,,,,,,,,,,,,,,,,,,,,,,
24820,1645495579.707867,1645495579.731167,36.0,0.0,4330.256348,4162.563965,4194.358886999999,4272.307617,4273.333496,0.0,3.0,73.0,,,,0.0,4.0,4.0,4.0,0.0,4.0,66.666664,,,,,,,,18.0,0.0,0.35672800000000005,-0.32250999999999996,0.5896,0.648926,0.8447389999999999,-0.538094,-0.10254100000000001,-0.033606,-0.040313999999999996,-0.033873,,,,,,,,,,,,,,,,,,,,,,,,,,,,,,,,,,,0.0,0.0,1.0,0.0,128.0,1.0,,,,,,,,,,,,,,,,,,,,,,,,,
24821,1645495579.7156801,1645495579.738983,37.0,0.0,4324.615234000001,4163.589844,4185.641113000001,4272.820313,4280.0,0.0,3.0,73.0,,,,0.0,4.0,4.0,4.0,0.0,4.0,66.666664,,,,,,,,,,,,,,,,,,,,,,,,,,,,,,,,,,,,,,,,,,,,,,,,,,,,,,,,,,,,,,,,,,,,,,,,,,,,,,,,,,,,
24822,1645495579.723494,1645495579.746798,38.0,0.0,4300.0,4190.256348,4167.179688,4270.769043,4270.256348,0.0,3.0,73.0,,,,0.0,4.0,4.0,4.0,0.0,4.0,66.666664,,,,,,,,19.0,0.0,0.35672800000000005,-0.32250999999999996,0.5896,0.648926,0.8452280000000001,-0.543465,-0.099611,-0.033664,-0.040139999999999995,-0.03532,,,,,,,,,,,,,,,,,,,,,,,,,,,,,,,,,,,,,,,,,,,,,,,,,,,,,,,,,,,,,,,,,
24823,1645495579.731309,1645495579.754614,39.0,0.0,4325.128418,4216.922852000001,4177.94873,4271.282227000001,4270.256348,0.0,3.0,73.0,,,,0.0,4.0,4.0,4.0,0.0,4.0,66.666664,,,,,,,,,,,,,,,,,,,,,,,,,,,,,,,,,,,,,,,,,,,,,,,,,,,,,,,,,,,,,,,,,,,,,,,,,,,,,,,,,,,,
24824,1645495579.739123,1645495579.7624302,40.0,0.0,4344.102539,4179.487305,4196.922852000001,4273.333496,4284.102539,0.0,3.0,73.0,,,,0.0,4.0,4.0,4.0,0.0,4.0,66.666664,,,,,,,,20.0,0.0,0.35672800000000005,-0.32250999999999996,0.5896,0.648926,0.8486459999999999,-0.5576260000000001,-0.105959,-0.033569,-0.040179,-0.030420999999999997,,,,,,,,,,,,,,,,,,,,,,,,,,,,,,,,,,,0.0,0.0,1.0,0.0,128.0,1.0,,,,,,,,,,,,,,,,,,,,,,,,,
24825,1645495579.7469358,1645495579.7702448,41.0,0.0,4293.333496,4135.897461,4182.563965,4271.794922,4267.692383,0.0,3.0,73.0,,,,0.0,4.0,4.0,4.0,0.0,4.0,66.666664,,,,,,,,,,,,,,,,,,,,,,,,,,,,,,,,,,,,,,,,,,,,,,,,,,,,,,,,,,,,,,,,,,,,,,,,,,,,,,,,,,,,
24826,1645495579.754751,1645495579.778061,42.0,0.0,4289.230957,4157.94873,4176.922852000001,4270.256348,4247.692383,0.0,3.0,73.0,,,,0.0,4.0,4.0,4.0,0.0,4.0,66.666664,,,,,,,,21.0,0.0,0.357172,-0.32250999999999996,0.5896,0.648682,0.834974,-0.536629,-0.100587,-0.03363,-0.040214,-0.032310000000000005,,,,,,,,,,,,,,,,,,,,,,,,,,,,,,,,,,,,,,,,,,,,,,,,,,,,,,,,,,,,,,,,,
24827,1645495579.7625651,1645495579.785876,43.0,0.0,4328.205078,4166.666504,4186.153809,4274.358886999999,4258.461426,0.0,3.0,73.0,,,,0.0,4.0,4.0,4.0,0.0,4.0,66.666664,,,,,,,,,,,,,,,,,,,,,,,,,,,,,,,,,,,,,,,,,,,,,,,,,,,,,,,,,,,,,,,,,,,,,,,,,,,,,,,,,,,,
24828,1645495579.7703779,1645495579.7936919,44.0,0.0,4333.846191,4141.025879,4182.05127,4278.974121,4266.666504,0.0,3.0,73.0,,,,0.0,4.0,4.0,4.0,0.0,4.0,66.666664,,,,,,,,22.0,0.0,0.357172,-0.32250999999999996,0.5896,0.648682,0.854505,-0.516609,-0.10693499999999999,-0.03349,-0.040244999999999996,-0.033962,,,,,,,,,,,,,,,,,,,,,,,,,,,,,,,,,,,0.0,0.0,1.0,0.0,128.0,1.0,,,,,,,,,,,,,,,,,,,,,,,,,
24829,1645495579.778193,1645495579.801407,45.0,0.0,4381.538574,4145.641113000001,4170.769043,4280.512695,4279.487305,0.0,3.0,73.0,,,,0.0,4.0,4.0,4.0,0.0,4.0,66.666664,,,,,,,,,,,,,,,,,,,,,,,,,,,,,,,,,,,,,,,,,,,,,,,,,,,,,,,,,,,,,,,,,,,,,,,,,,,,,,,,,,,,
24830,1645495579.786007,1645495579.809223,46.0,0.0,4443.589844,4151.794922,4162.563965,4280.512695,4312.307617,0.0,3.0,73.0,,,,0.0,4.0,4.0,4.0,0.0,4.0,66.666664,,,,,,,,23.0,0.0,0.356989,-0.322266,0.5898439999999999,0.648682,0.8462040000000001,-0.5356529999999999,-0.098146,-0.033559,-0.040274000000000004,-0.035449,,,,,,,,,,,,,,,,,,,,,,,,,,,,,,,,,,,,,,,,,,,,,,,,,,,,,,,,,,,,,,,,,
24831,1645495579.793821,1645495579.817038,47.0,0.0,4456.410156,4154.358886999999,4163.589844,4280.512695,4344.102539,0.0,3.0,73.0,,,,0.0,4.0,4.0,4.0,0.0,4.0,66.666664,,,,,,,,,,,,,,,,,,,,,,,,,,,,,,,,,,,,,,,,,,,,,,,,,,,,,,,,,,,,,,,,,,,,,,,,,,,,,,,,,,,,
24832,1645495579.801635,1645495579.824853,48.0,0.0,4538.461426,4176.410156,4179.487305,4281.025879,4388.205078,0.0,3.0,73.0,,,,0.0,4.0,4.0,4.0,0.0,4.0,66.666664,,,,,,,,24.0,0.0,0.35720999999999997,-0.322021,0.5898439999999999,0.648682,0.862318,-0.521004,-0.096193,-0.033572000000000005,-0.040348,-0.030633999999999998,1.0,0.0,0.0,,,,,,,,,,,,,,,,,,,,,,,,,,,,,,,,0.0,0.0,1.0,0.0,128.0,1.0,6.274,3.007011,2.415132,0.8256190000000001,0.780987,100.86721800000001,11.404012,5.1936029999999995,3.888589,3.8426739999999997,1.399006,0.8873629999999999,0.705951,0.369759,0.511413,0.017384,0.017186,0.020028999999999998,0.009271,0.005657,1.791335,1.233299,1.8381,1.985223,1.100235
24833,1645495579.809449,1645495579.832669,49.0,0.0,4711.282227000001,4171.794922,4196.410156,4282.563965,4464.615234000001,0.0,3.0,73.0,,,,0.0,4.0,4.0,4.0,0.0,4.0,66.666664,,,,,,,,,,,,,,,,,,,,,,,,,,,,,,,,,,,,,,,,,,,,,,,,,,,,,,,,,,,,,,,,,,,,,,,,,,,,,,,,,,,,
24834,1645495579.8172631,1645495579.840484,50.0,0.0,4793.333496,4129.230957,4187.692383,4282.563965,4515.897461,0.0,3.0,73.0,,,,0.0,4.0,4.0,4.0,0.0,4.0,66.666664,,,,,,,,25.0,0.0,0.35720599999999997,-0.321533,0.5898439999999999,0.648926,0.854505,-0.507332,-0.096193,-0.033486,-0.040415,-0.032454000000000004,,,,,,,,,,,,,,,,,,,,,,,,,,,,,,,,,,,,,,,,,,,,,,,,,,,,,,,,,,,,,,,,,
24835,1645495579.825077,1645495579.8483,51.0,0.0,4812.820313,4096.922852000001,4185.641113000001,4281.025879,4540.0,0.0,3.0,73.0,,,,0.0,4.0,4.0,4.0,0.0,4.0,66.666664,,,,,,,,,,,,,,,,,,,,,,,,,,,,,,,,,,,,,,,,,,,,,,,,,,,,,,,,,,,,,,,,,,,,,,,,,,,,,,,,,,,,
24836,1645495579.832891,1645495579.856115,52.0,0.0,4931.282227000001,4056.923096,4197.436035,4284.102539,4583.077147999999,0.0,3.0,73.0,,,,0.0,4.0,4.0,4.0,0.0,4.0,66.666664,,,,,,,,26.0,0.0,0.356798,-0.32104499999999997,0.5900880000000001,0.64917,0.8418100000000001,-0.52491,-0.091798,-0.033556,-0.040426,-0.034091,,,,,,,,,,,,,,,,,,,,,,,,,,,,,,,,,,,0.0,0.0,1.0,0.0,128.0,1.0,,,,,,,,,,,,,,,,,,,,,,,,,
24837,1645495579.8407052,1645495579.86393,53.0,0.0,5000.0,3989.743652,4209.230957,4287.179688,4614.871582,0.0,3.0,73.0,,,,0.0,4.0,4.0,4.0,0.0,4.0,66.666664,,,,,,,,,,,,,,,,,,,,,,,,,,,,,,,,,,,,,,,,,,,,,,,,,,,,,,,,,,,,,,,,,,,,,,,,,,,,,,,,,,,,
24838,1645495579.8485188,1645495579.8716462,54.0,0.0,4934.871582,3930.256348,4218.974121,4286.666504,4614.358886999999,0.0,3.0,73.0,,,,0.0,4.0,4.0,4.0,0.0,4.0,66.666664,,,,,,,,27.0,0.0,0.357012,-0.320313,0.5900880000000001,0.649414,0.8413209999999999,-0.531746,-0.088869,-0.033667,-0.040485,-0.035516000000000006,,,,,,,,,,,,,,,,,,,,,,,,,,,,,,,,,,,,,,,,,,,,,,,,,,,,,,,,,,,,,,,,,
24839,1645495579.856333,1645495579.879461,55.0,0.0,4928.205078,3877.9487299999996,4236.410156,4286.666504,4619.487305,0.0,3.0,73.0,,,,0.0,4.0,4.0,4.0,0.0,4.0,66.666664,,,,,,,,,,,,,,,,,,,,,,,,,,,,,,,,,,,,,,,,,,,,,,,,,,,,,,,,,,,,,,,,,,,,,,,,,,,,,,,,,,,,
24840,1645495579.8641472,1645495579.887276,56.0,0.0,4986.666504,3829.743652,4223.589844,4288.717772999999,4643.589844,0.0,3.0,73.0,,,,0.0,4.0,4.0,4.0,0.0,4.0,66.666664,,,,,,,,28.0,0.0,0.356383,-0.32006799999999996,0.590332,0.649658,0.8569469999999999,-0.5351640000000001,-0.101076,-0.03367,-0.04044,-0.030597000000000003,,,,,,,,,,,,,,,,,,,,,,,,,,,,,,,,,,,0.0,0.0,1.0,0.0,128.0,1.0,,,,,,,,,,,,,,,,,,,,,,,,,
24841,1645495579.8719609,1645495579.895092,57.0,0.0,4977.94873,3794.8718259999996,4207.179688,4289.230957,4648.717772999999,0.0,3.0,73.0,,,,0.0,4.0,4.0,4.0,0.0,4.0,66.666664,,,,,,,,,,,,,,,,,,,,,,,,,,,,,,,,,,,,,,,,,,,,,,,,,,,,,,,,,,,,,,,,,,,,,,,,,,,,,,,,,,,,
24842,1645495579.879775,1645495579.9029071,58.0,0.0,4944.615234000001,3775.897461,4216.922852000001,4287.692383,4631.282227000001,0.0,3.0,73.0,,,,0.0,4.0,4.0,4.0,0.0,4.0,66.666664,,,,,,,,29.0,0.0,0.357006,-0.319824,0.5900880000000001,0.649658,0.866224,-0.554696,-0.11572400000000001,-0.033721,-0.040449,-0.032421,,,,,,,,,,,,,,,,,,,,,,,,,,,,,,,,,,,,,,,,,,,,,,,,,,,,,,,,,,,,,,,,,
24843,1645495579.887589,1645495579.910723,59.0,0.0,4953.333496,3768.205078,4222.05127,4288.205078,4629.230957,0.0,3.0,73.0,,,,0.0,4.0,4.0,4.0,0.0,4.0,66.666664,,,,,,,,,,,,,,,,,,,,,,,,,,,,,,,,,,,,,,,,,,,,,,,,,,,,,,,,,,,,,,,,,,,,,,,,,,,,,,,,,,,,
24844,1645495579.895403,1645495579.918538,60.0,0.0,4934.871582,3762.0512700000004,4216.410156,4289.230957,4626.666504,0.0,3.0,73.0,,,,0.0,4.0,4.0,4.0,0.0,4.0,66.666664,,,,,,,,30.0,0.0,0.357231,-0.32006799999999996,0.5900880000000001,0.649414,0.839368,-0.5473720000000001,-0.11084200000000001,-0.03362,-0.040506,-0.034013,,,,,,,,,,,,,,,,,,,,,,,,,,,,,,,,,,,0.0,0.0,1.0,0.0,128.0,1.0,,,,,,,,,,,,,,,,,,,,,,,,,
24845,1645495579.903217,1645495579.926353,61.0,0.0,4852.307617,3756.4101560000004,4229.230957,4286.666504,4580.512695,0.0,3.0,73.0,,,,0.0,4.0,4.0,4.0,0.0,4.0,66.666664,,,,,,,,,,,,,,,,,,,,,,,,,,,,,,,,,,,,,,,,,,,,,,,,,,,,,,,,,,,,,,,,,,,,,,,,,,,,,,,,,,,,
24846,1645495579.911031,1645495579.934169,62.0,0.0,4806.153809,3728.205078,4234.871582,4282.05127,4544.102539,0.0,3.0,73.0,,,,0.0,4.0,4.0,4.0,0.0,4.0,66.666664,,,,,,,,31.0,0.0,0.357415,-0.320313,0.5898439999999999,0.649414,0.859876,-0.552254,-0.104494,-0.033578,-0.040557,-0.029195,,,,,,,,,,,,,,,,,,,,,,,,,,,,,,,,,,,,,,,,,,,,,,,,,,,,,,,,,,,,,,,,,
24847,1645495579.918845,1645495579.942084,63.0,0.0,4819.487305,3661.538574,4210.769043,4283.589844,4560.512695,0.0,3.0,73.0,,,,0.0,4.0,4.0,4.0,0.0,4.0,66.666664,,,,,,,,,,,,,,,,,,,,,,,,,,,,,,,,,,,,,,,,,,,,,,,,,,,,,,,,,,,,,,,,,,,,,,,,,,,,,,,,,,,,
24848,1645495579.9266589,1645495579.9499,64.0,0.0,4795.384765999999,3604.615479,4201.025879,4285.641113000001,4542.563965,450.0,3.0,73.0,,,,0.0,4.0,4.0,4.0,0.0,4.0,66.666664,1.0,33.333332,3.0,1.0,4.0,0.0,4.0,32.0,0.0,0.357006,-0.319824,0.5900880000000001,0.649658,0.866224,-0.554696,-0.11572400000000001,-0.033638999999999995,-0.040456,-0.031110000000000002,1.0,0.0,0.0,,,,,,,,,,,,,,,,,,,,,,,,,,,,,,,,0.0,0.0,1.0,0.0,128.0,1.0,4.3163279999999995,2.267128,2.2524669999999998,0.80616,0.8432959999999999,103.450829,13.298154,5.588451999999999,4.286721,3.801451,1.343897,0.924284,0.769437,0.398777,0.553646,0.024279,0.032873,0.036253,0.016916,0.010874,2.391259,1.942465,2.0778849999999998,2.1622939999999997,1.142183
24849,1645495579.934473,1645495579.957715,65.0,0.0,4709.230957,3578.461426,4208.717772999999,4283.077147999999,4473.333496,450.0,3.0,73.0,,,,0.0,4.0,4.0,4.0,0.0,4.0,66.666664,,,,,,,,,,,,,,,,,,,,,,,,,,,,,,,,,,,,,,,,,,,,,,,,,,,,,,,,,,,,,,,,,,,,,,,,,,,,,,,,,,,,
24850,1645495579.942287,1645495579.965531,66.0,0.0,4644.102539,3554.8718259999996,4215.897461,4280.512695,4445.641113000001,16224.0,3.0,73.0,,,,0.0,4.0,4.0,4.0,0.0,4.0,66.666664,,,,,,,,33.0,0.0,0.357415,-0.320313,0.5898439999999999,0.649414,0.859876,-0.552254,-0.104494,-0.033595,-0.040512,-0.026583,,,,,,,,,,,,,,,,,,,,,,,,,,,,,,,,,,,,,,,,,,,,,,,,,,,,,,,,,,,,,,,,,
24851,1645495579.950101,1645495579.9733472,67.0,0.0,4594.871582,3513.8461909999996,4222.563965,4281.538574,4432.307617,450.0,3.0,73.0,,,,0.0,4.0,4.0,4.0,0.0,4.0,66.666664,,,,,,,,,,,,,,,,,,,,,,,,,,,,,,,,,,,,,,,,,,,,,,,,,,,,,,,,,,,,,,,,,,,,,,,,,,,,,,,,,,,,
24852,1645495579.957915,1645495579.9811618,68.0,0.0,4511.282227000001,3455.384521,4231.282227000001,4281.025879,4392.820313,16166.0,3.0,73.0,,,,0.0,4.0,4.0,4.0,0.0,4.0,66.666664,,,,,,,,34.0,0.0,0.358042,-0.32055700000000004,0.5896,0.64917,0.8403450000000001,-0.525887,-0.095216,-0.033654,-0.040416,-0.028758999999999996,,,,,,,,,,,,,,,,,,,,,,,,,,,,,,,,,,,10.0,0.0,1.0,0.0,128.0,1.0,,,,,,,,,,,,,,,,,,,,,,,,,
24853,1645495579.965729,1645495579.988978,69.0,0.0,4441.538574,3401.025635,4214.358886999999,4280.512695,4373.846191,450.0,3.0,73.0,,,,0.0,4.0,4.0,4.0,0.0,4.0,66.666664,,,,,,,,,,,,,,,,,,,,,,,,,,,,,,,,,,,,,,,,,,,,,,,,,,,,,,,,,,,,,,,,,,,,,,,,,,,,,,,,,,,,
24854,1645495579.973543,1645495579.996793,70.0,0.0,4401.538574,3329.743652,4199.487305,4280.512695,4371.282227000001,16120.0,3.0,73.0,,,,0.0,4.0,4.0,4.0,0.0,4.0,66.666664,,,,,,,,35.0,0.0,0.358001,-0.32055700000000004,0.5893550000000001,0.649414,0.8437629999999999,-0.516121,-0.102052,-0.033657,-0.040379000000000005,-0.024515000000000002,,,,,,,,,,,,,,,,,,,,,,,,,,,,,,,,,,,,,,,,,,,,,,,,,,,,,,,,,,,,,,,,,
24855,1645495579.981357,1645495580.0046089,71.0,0.0,4351.794922,3221.025635,4207.179688,4280.0,4351.282227000001,450.0,3.0,73.0,,,,0.0,4.0,4.0,4.0,0.0,4.0,66.666664,,,,,,,,,,,,,,,,,,,,,,,,,,,,,,,,,,,,,,,,,,,,,,,,,,,,,,,,,,,,,,,,,,,,,,,,,,,,,,,,,,,,
24856,1645495579.989171,1645495580.012425,72.0,0.0,4299.487305,3141.5385739999997,4212.820313,4279.487305,4328.717772999999,450.0,3.0,73.0,,,,0.0,4.0,4.0,4.0,0.0,4.0,66.666664,,,,,,,,36.0,0.0,0.357558,-0.32055700000000004,0.5893550000000001,0.649658,0.8530399999999999,-0.520027,-0.097169,-0.033710000000000004,-0.040491,-0.027044,,,,,,,,,,,,,,,,,,,,,,,,,,,,,,,,,,,10.0,0.0,1.0,0.0,128.0,1.0,,,,,,,,,,,,,,,,,,,,,,,,,
24857,1645495579.996985,1645495580.02014,73.0,0.0,4262.05127,3118.974365,4198.461426,4276.922852000001,4322.563965,0.0,3.0,73.0,,,,0.0,4.0,4.0,4.0,0.0,4.0,66.666664,,,,,,,,,,,,,,,,,,,,,,,,,,,,,,,,,,,,,,,,,,,,,,,,,,,,,,,,,,,,,,,,,,,,,,,,,,,,,,,,,,,,
24858,1645495580.0047991,1645495580.027955,74.0,0.0,4250.769043,3100.0,4195.384765999999,4276.922852000001,4309.230957,450.0,3.0,73.0,,,,0.0,4.0,4.0,4.0,0.0,4.0,66.666664,,,,,,,,37.0,0.0,0.357333,-0.320313,0.5893550000000001,0.6499020000000001,0.8608530000000001,-0.5302819999999999,-0.09668099999999999,-0.033658999999999994,-0.040494999999999996,-0.029223000000000002,,,,,,,,,,,,,,,,,,,,,,,,,,,,,,,,,,,,,,,,,,,,,,,,,,,,,,,,,,,,,,,,,
24859,1645495580.012613,1645495580.0357711,75.0,0.0,4242.05127,3072.820557,4200.512695,4279.487305,4284.102539,16213.0,3.0,73.0,,,,0.0,4.0,4.0,4.0,0.0,4.0,66.666664,,,,,,,,,,,,,,,,,,,,,,,,,,,,,,,,,,,,,,,,,,,,,,,,,,,,,,,,,,,,,,,,,,,,,,,,,,,,,,,,,,,,
24860,1645495580.020427,1645495580.043686,76.0,0.0,4240.512695,3072.3076170000004,4192.820313,4277.94873,4283.077147999999,450.0,3.0,73.0,,,,0.0,4.0,4.0,4.0,0.0,4.0,66.666664,,,,,,,,38.0,0.0,0.356697,-0.31958000000000003,0.5896,0.6503909999999999,0.839857,-0.526864,-0.11523599999999999,-0.033711,-0.040645,-0.024885,,,,,,,,,,,,,,,,,,,,,,,,,,,,,,,,,,,10.0,0.0,1.0,0.0,128.0,1.0,,,,,,,,,,,,,,,,,,,,,,,,,
24861,1645495580.028241,1645495580.051501,77.0,0.0,4256.922852000001,3102.564209,4186.666504,4276.922852000001,4299.487305,450.0,3.0,73.0,,,,0.0,4.0,4.0,4.0,0.0,4.0,66.666664,,,,,,,,,,,,,,,,,,,,,,,,,,,,,,,,,,,,,,,,,,,,,,,,,,,,,,,,,,,,,,,,,,,,,,,,,,,,,,,,,,,,
24862,1645495580.036055,1645495580.0593169,78.0,0.0,4263.077147999999,3153.846191,4203.077147999999,4279.487305,4294.358886999999,450.0,3.0,73.0,,,,0.0,4.0,4.0,4.0,0.0,4.0,66.666664,,,,,,,,39.0,0.0,0.3561,-0.318848,0.5900880000000001,0.6506350000000001,0.8330209999999999,-0.539559,-0.103029,-0.033757999999999996,-0.040681999999999996,-0.02723,,,,,,,,,,,,,,,,,,,,,,,,,,,,,,,,,,,,,,,,,,,,,,,,,,,,,,,,,,,,,,,,,
24863,1645495580.043869,1645495580.0672321,79.0,0.0,4298.974121,3196.923096,4223.589844,4279.487305,4304.102539,16213.0,3.0,73.0,,,,0.0,4.0,4.0,4.0,0.0,4.0,66.666664,,,,,,,,,,,,,,,,,,,,,,,,,,,,,,,,,,,,,,,,,,,,,,,,,,,,,,,,,,,,,,,,,,,,,,,,,,,,,,,,,,,,
24864,1645495580.051683,1645495580.075048,80.0,0.0,4406.153809,3240.0,4226.666504,4278.461426,4367.179688,450.0,3.0,73.0,,,,0.0,4.0,4.0,4.0,0.0,4.0,66.666664,,,,,,,,40.0,0.0,0.355457,-0.31811500000000004,0.590332,0.651123,0.8535290000000001,-0.532723,-0.106447,-0.033703,-0.040666,-0.029488,1.0,0.0,0.0,,,,,,,,,,,,,,,,,,,,,,,,,,,,,,,,10.0,0.0,1.0,0.0,128.0,1.0,7.981121000000001,2.588961,2.130643,0.842376,0.963943,97.10421,15.304795,6.17891,4.578787999999999,3.604594,1.354267,0.911953,0.766387,0.39889,0.617667,0.033632,0.057867999999999996,0.056835000000000004,0.026969999999999997,0.017915,5.098845,3.014416,2.139259,2.15028,1.146094
24865,1645495580.059497,1645495580.082863,81.0,0.0,4543.077147999999,3323.589844,4221.025879,4281.538574,4416.922852000001,450.0,3.0,73.0,,,,0.0,4.0,4.0,4.0,0.0,4.0,66.666664,,,,,,,,,,,,,,,,,,,,,,,,,,,,,,,,,,,,,,,,,,,,,,,,,,,,,,,,,,,,,,,,,,,,,,,,,,,,,,,,,,,,
24866,1645495580.067311,1645495580.090679,82.0,0.0,4632.307617,3393.3332520000004,4217.436035,4283.077147999999,4439.487305,450.0,3.0,73.0,,,,0.0,4.0,4.0,4.0,0.0,4.0,66.666664,,,,,,,,41.0,0.0,0.35504,-0.317627,0.590576,0.651367,0.839857,-0.566415,-0.11767799999999999,-0.033604,-0.04075,-0.025172,,,,,,,,,,,,,,,,,,,,,,,,,,,,,,,,,,,,,,,,,,,,,,,,,,,,,,,,,,,,,,,,,
24867,1645495580.075125,1645495580.098495,83.0,0.0,4664.615234000001,3398.974365,4226.666504,4282.05127,4487.179688,16213.0,3.0,73.0,,,,0.0,4.0,4.0,4.0,0.0,4.0,66.666664,,,,,,,,,,,,,,,,,,,,,,,,,,,,,,,,,,,,,,,,,,,,,,,,,,,,,,,,,,,,,,,,,,,,,,,,,,,,,,,,,,,,
24868,1645495580.0829391,1645495580.10631,84.0,0.0,4700.512695,3403.5898439999996,4231.794922,4282.563965,4518.461426,450.0,3.0,73.0,,,,0.0,4.0,4.0,4.0,0.0,4.0,66.666664,,,,,,,,42.0,0.0,0.355259,-0.31738299999999997,0.590576,0.651367,0.851575,-0.5459069999999999,-0.119631,-0.033662,-0.040679,-0.027586000000000003,,,,,,,,,,,,,,,,,,,,,,,,,,,,,,,,,,,10.0,0.0,1.0,0.0,128.0,1.0,,,,,,,,,,,,,,,,,,,,,,,,,
24869,1645495580.0907528,1645495580.114126,85.0,0.0,4741.025879,3443.5898439999996,4232.820313,4282.563965,4514.871582,450.0,3.0,73.0,,,,0.0,4.0,4.0,4.0,0.0,4.0,66.666664,,,,,,,,,,,,,,,,,,,,,,,,,,,,,,,,,,,,,,,,,,,,,,,,,,,,,,,,,,,,,,,,,,,,,,,,,,,,,,,,,,,,
24870,1645495580.098567,1645495580.121941,86.0,0.0,4729.230957,3516.4101560000004,4223.589844,4282.563965,4520.0,450.0,3.0,73.0,,,,0.0,4.0,4.0,4.0,0.0,4.0,66.666664,,,,,,,,43.0,0.0,0.355259,-0.31738299999999997,0.590576,0.651367,0.847181,-0.543954,-0.099611,-0.033616,-0.040664,-0.029807999999999998,,,,,,,,,,,,,,,,,,,,,,,,,,,,,,,,,,,,,,,,,,,,,,,,,,,,,,,,,,,,,,,,,
24871,1645495580.106381,1645495580.129757,87.0,0.0,4675.897461,3603.5898439999996,4218.974121,4283.589844,4525.128418,16213.0,3.0,73.0,,,,0.0,4.0,4.0,4.0,0.0,4.0,66.666664,,,,,,,,,,,,,,,,,,,,,,,,,,,,,,,,,,,,,,,,,,,,,,,,,,,,,,,,,,,,,,,,,,,,,,,,,,,,,,,,,,,,
24872,1645495580.1141949,1645495580.1374722,88.0,0.0,4655.384765999999,3652.820557,4213.333496,4283.077147999999,4506.153809,450.0,3.0,73.0,,,,0.0,4.0,4.0,4.0,0.0,4.0,66.666664,,,,,,,,44.0,0.0,0.35504,-0.317627,0.590576,0.651367,0.851575,-0.54493,-0.096193,-0.033575,-0.040748,-0.03171,,,,,,,,,,,,,,,,,,,,,,,,,,,,,,,,,,,0.0,0.0,1.0,0.0,128.0,1.0,,,,,,,,,,,,,,,,,,,,,,,,,
24873,1645495580.122009,1645495580.145288,89.0,0.0,4655.384765999999,3686.6667479999996,4216.922852000001,4281.025879,4490.256348,450.0,3.0,73.0,,,,0.0,4.0,4.0,4.0,0.0,4.0,66.666664,,,,,,,,,,,,,,,,,,,,,,,,,,,,,,,,,,,,,,,,,,,,,,,,,,,,,,,,,,,,,,,,,,,,,,,,,,,,,,,,,,,,
24874,1645495580.129823,1645495580.1531029,90.0,0.0,4609.230957,3747.6923829999996,4217.94873,4281.025879,4468.717772999999,450.0,3.0,73.0,,,,0.0,4.0,4.0,4.0,0.0,4.0,66.666664,,,,,,,,45.0,0.0,0.35522800000000004,-0.317871,0.590332,0.651367,0.842298,-0.556649,-0.09424,-0.033489,-0.040726,-0.033422,,,,,,,,,,,,,,,,,,,,,,,,,,,,,,,,,,,,,,,,,,,,,,,,,,,,,,,,,,,,,,,,,
24875,1645495580.137637,1645495580.160919,91.0,0.0,4530.256348,3776.923096,4218.974121,4282.05127,4428.205078,16213.0,3.0,73.0,,,,0.0,4.0,4.0,4.0,0.0,4.0,66.666664,,,,,,,,,,,,,,,,,,,,,,,,,,,,,,,,,,,,,,,,,,,,,,,,,,,,,,,,,,,,,,,,,,,,,,,,,,,,,,,,,,,,
24876,1645495580.145451,1645495580.168734,92.0,0.0,4466.153809,3754.8718259999996,4221.538574,4281.538574,4395.384765999999,450.0,3.0,73.0,,,,0.0,4.0,4.0,4.0,0.0,4.0,66.666664,,,,,,,,46.0,0.0,0.35522800000000004,-0.317871,0.590332,0.651367,0.831067,-0.54786,-0.104494,-0.033411,-0.04056,-0.028614999999999998,,,,,,,,,,,,,,,,,,,,,,,,,,,,,,,,,,,0.0,0.0,1.0,0.0,128.0,1.0,,,,,,,,,,,,,,,,,,,,,,,,,
24877,1645495580.153265,1645495580.176549,93.0,0.0,4434.358886999999,3781.538574,4208.205078,4280.0,4360.512695,450.0,3.0,73.0,,,,0.0,4.0,4.0,4.0,0.0,4.0,66.666664,,,,,,,,,,,,,,,,,,,,,,,,,,,,,,,,,,,,,,,,,,,,,,,,,,,,,,,,,,,,,,,,,,,,,,,,,,,,,,,,,,,,
24878,1645495580.161079,1645495580.184365,94.0,0.0,4411.282227000001,3866.6667479999996,4195.897461,4280.512695,4325.641113000001,450.0,3.0,73.0,,,,0.0,4.0,4.0,4.0,0.0,4.0,66.666664,,,,,,,,47.0,0.0,0.355862,-0.31811500000000004,0.5900880000000001,0.651123,0.8325319999999999,-0.544442,-0.096193,-0.033293,-0.040654,-0.030685000000000004,,,,,,,,,,,,,,,,,,,,,,,,,,,,,,,,,,,,,,,,,,,,,,,,,,,,,,,,,,,,,,,,,
24879,1645495580.1688929,1645495580.1921802,95.0,0.0,4374.871582,3914.8718259999996,4202.05127,4281.538574,4320.512695,16213.0,3.0,73.0,,,,0.0,4.0,4.0,4.0,0.0,4.0,66.666664,,,,,,,,,,,,,,,,,,,,,,,,,,,,,,,,,,,,,,,,,,,,,,,,,,,,,,,,,,,,,,,,,,,,,,,,,,,,,,,,,,,,
24880,1645495580.176707,1645495580.199995,96.0,0.0,4335.897461,3940.0,4211.282227000001,4280.0,4322.563965,450.0,3.0,73.0,,,,0.0,4.0,4.0,4.0,0.0,4.0,66.666664,,,,,,,,48.0,0.0,0.356048,-0.318359,0.5898439999999999,0.651123,0.835462,-0.538582,-0.112795,-0.033235,-0.040593000000000004,-0.032646,1.0,0.0,0.0,,,,,,,,,,,,,,,,,,,,,,,,,,,,,,,,11.0,0.0,1.0,0.0,128.0,1.0,32.073085999999996,5.1776800000000005,1.988577,0.958735,1.212494,79.574791,18.494776,7.217184,4.653153,3.246982,1.505434,0.8749899999999999,0.701809,0.383783,0.708708,0.047533,0.089008,0.077711,0.037673000000000005,0.025749,14.141447,4.55831,2.028588,1.964807,1.130095
24881,1645495580.1845212,1645495580.207911,97.0,0.0,4314.358886999999,3975.384521,4209.743652,4280.0,4309.743652,450.0,3.0,73.0,,,,0.0,4.0,4.0,4.0,0.0,4.0,66.666664,,,,,,,,,,,,,,,,,,,,,,,,,,,,,,,,,,,,,,,,,,,,,,,,,,,,,,,,,,,,,,,,,,,,,,,,,,,,,,,,,,,,
24882,1645495580.192335,1645495580.215726,98.0,0.0,4298.461426,3981.538574,4206.153809,4282.05127,4296.410156,450.0,3.0,73.0,,,,0.0,4.0,4.0,4.0,0.0,4.0,66.666664,,,,,,,,49.0,0.0,0.356452,-0.318359,0.5896,0.651123,0.8403450000000001,-0.557137,-0.1084,-0.033183,-0.040684,-0.028063,,,,,,,,,,,,,,,,,,,,,,,,,,,,,,,,,,,,,,,,,,,,,,,,,,,,,,,,,,,,,,,,,
24883,1645495580.200149,1645495580.223542,99.0,0.0,4264.615234000001,3957.9487299999996,4196.410156,4277.436035,4276.410156,16213.0,3.0,73.0,,,,0.0,4.0,4.0,4.0,0.0,4.0,66.666664,,,,,,,,,,,,,,,,,,,,,,,,,,,,,,,,,,,,,,,,,,,,,,,,,,,,,,,,,,,,,,,,,,,,,,,,,,,,,,,,,,,,
24884,1645495580.207963,1645495580.231358,100.0,0.0,4230.256348,3949.2307130000004,4191.282227000001,4269.230957,4252.820313,450.0,3.0,73.0,,,,0.0,4.0,4.0,4.0,0.0,4.0,66.666664,,,,,,,,50.0,0.0,0.356898,-0.318359,0.5896,0.650879,0.8413209999999999,-0.544442,-0.107424,-0.033234,-0.040668,-0.030237,,,,,,,,,,,,,,,,,,,,,,,,,,,,,,,,,,,11.0,0.0,1.0,0.0,128.0,1.0,,,,,,,,,,,,,,,,,,,,,,,,,
24885,1645495580.215777,1645495580.239173,101.0,0.0,4210.256348,3943.076904,4185.128418,4269.743652,4243.589844,450.0,3.0,73.0,,,,0.0,4.0,4.0,4.0,0.0,4.0,66.666664,,,,,,,,,,,,,,,,,,,,,,,,,,,,,,,,,,,,,,,,,,,,,,,,,,,,,,,,,,,,,,,,,,,,,,,,,,,,,,,,,,,,
24886,1645495580.223591,1645495580.246989,102.0,0.0,4190.256348,3914.8718259999996,4177.436035,4273.846191,4237.94873,450.0,3.0,73.0,,,,0.0,4.0,4.0,4.0,0.0,4.0,66.666664,,,,,,,,51.0,0.0,0.357125,-0.318604,0.5896,0.6506350000000001,0.8564579999999999,-0.539071,-0.113283,-0.033329000000000004,-0.040606,-0.032145,,,,,,,,,,,,,,,,,,,,,,,,,,,,,,,,,,,,,,,,,,,,,,,,,,,,,,,,,,,,,,,,,
24887,1645495580.231405,1645495580.254804,103.0,0.0,4174.358886999999,3940.0,4180.0,4272.820313,4227.179688,16213.0,3.0,73.0,,,,0.0,4.0,4.0,4.0,0.0,4.0,66.666664,,,,,,,,,,,,,,,,,,,,,,,,,,,,,,,,,,,,,,,,,,,,,,,,,,,,,,,,,,,,,,,,,,,,,,,,,,,,,,,,,,,,
24888,1645495580.239219,1645495580.26262,104.0,0.0,4156.410156,4016.4101560000004,4195.897461,4272.307617,4220.0,450.0,3.0,73.0,,,,0.0,4.0,4.0,4.0,0.0,4.0,66.666664,,,,,,,,52.0,0.0,0.35757,-0.318604,0.5896,0.6503909999999999,0.8486459999999999,-0.537606,-0.10693499999999999,-0.033414,-0.040451,-0.033716,,,,,,,,,,,,,,,,,,,,,,,,,,,,,,,,,,,11.0,0.0,1.0,0.0,128.0,1.0,,,,,,,,,,,,,,,,,,,,,,,,,
24889,1645495580.247033,1645495580.270335,105.0,0.0,4126.666504,4007.179443,4193.333496,4273.333496,4214.871582,450.0,3.0,73.0,,,,0.0,4.0,4.0,4.0,0.0,4.0,66.666664,,,,,,,,,,,,,,,,,,,,,,,,,,,,,,,,,,,,,,,,,,,,,,,,,,,,,,,,,,,,,,,,,,,,,,,,,,,,,,,,,,,,
24890,1645495580.254847,1645495580.278151,106.0,0.0,4124.102539,3947.179443,4189.743652,4273.333496,4207.179688,450.0,3.0,73.0,,,,0.0,4.0,4.0,4.0,0.0,4.0,66.666664,,,,,,,,53.0,0.0,0.35775500000000005,-0.318848,0.5893550000000001,0.6503909999999999,0.8559700000000001,-0.539071,-0.1084,-0.033393,-0.04041,-0.029075,,,,,,,,,,,,,,,,,,,,,,,,,,,,,,,,,,,,,,,,,,,,,,,,,,,,,,,,,,,,,,,,,
24891,1645495580.262661,1645495580.285966,107.0,0.0,4137.436035,3940.512939,4190.256348,4272.820313,4199.487305,16213.0,3.0,73.0,,,,0.0,4.0,4.0,4.0,0.0,4.0,66.666664,,,,,,,,,,,,,,,,,,,,,,,,,,,,,,,,,,,,,,,,,,,,,,,,,,,,,,,,,,,,,,,,,,,,,,,,,,,,,,,,,,,,
24892,1645495580.270475,1645495580.293782,108.0,0.0,4117.436035,3943.076904,4190.256348,4272.820313,4197.436035,450.0,3.0,73.0,,,,0.0,4.0,4.0,4.0,0.0,4.0,66.666664,,,,,,,,54.0,0.0,0.357939,-0.319092,0.5891109999999999,0.6503909999999999,0.8403450000000001,-0.532723,-0.107912,-0.033374,-0.040422,-0.024947,,,,,,,,,,,,,,,,,,,,,,,,,,,,,,,,,,,11.0,0.0,1.0,0.0,128.0,1.0,,,,,,,,,,,,,,,,,,,,,,,,,
24893,1645495580.278289,1645495580.301597,109.0,0.0,4091.794922,3907.6923829999996,4196.410156,4271.794922,4196.410156,450.0,3.0,73.0,,,,0.0,4.0,4.0,4.0,0.0,4.0,66.666664,,,,,,,,,,,,,,,,,,,,,,,,,,,,,,,,,,,,,,,,,,,,,,,,,,,,,,,,,,,,,,,,,,,,,,,,,,,,,,,,,,,,
24894,1645495580.286103,1645495580.309412,110.0,0.0,4090.256348,3876.923096,4204.102539,4269.230957,4184.615234000001,450.0,3.0,73.0,,,,0.0,4.0,4.0,4.0,0.0,4.0,66.666664,,,,,,,,55.0,0.0,0.357721,-0.319336,0.5891109999999999,0.6503909999999999,0.854505,-0.555184,-0.11035299999999999,-0.033406,-0.040433,-0.027384,,,,,,,,,,,,,,,,,,,,,,,,,,,,,,,,,,,,,,,,,,,,,,,,,,,,,,,,,,,,,,,,,
24895,1645495580.293917,1645495580.3172278,111.0,0.0,4100.512695,3870.7692869999996,4204.102539,4267.179688,4181.538574,16213.0,3.0,73.0,,,,0.0,4.0,4.0,4.0,0.0,4.0,66.666664,,,,,,,,,,,,,,,,,,,,,,,,,,,,,,,,,,,,,,,,,,,,,,,,,,,,,,,,,,,,,,,,,,,,,,,,,,,,,,,,,,,,
24896,1645495580.301731,1645495580.325043,112.0,0.0,4090.256348,3870.256348,4192.307617,4267.692383,4180.512695,450.0,3.0,73.0,,,,0.0,4.0,4.0,4.0,0.0,4.0,66.666664,,,,,,,,56.0,0.0,0.358348,-0.31958000000000003,0.588867,0.650146,0.8520639999999999,-0.534676,-0.100587,-0.033581,-0.040393,-0.029577,1.0,0.0,0.0,,,,,,,,,,,,,,,,,,,,,,,,,,,,,,,,11.0,0.0,64.0,0.5381670000000001,1.0,0.0,107.72671499999998,11.198471000000001,1.986775,1.217825,1.6605580000000002,63.382275,23.590637,8.946817999999999,4.545942,2.7954529999999997,1.9176259999999998,0.8630969999999999,0.599644,0.38554,0.815944,0.070653,0.11961500000000001,0.093436,0.046626999999999995,0.032795,38.136417,6.822912,1.861288,1.6687599999999998,1.119997
24897,1645495580.309545,1645495580.332858,113.0,0.0,4063.076904,3887.179443,4192.820313,4268.205078,4160.512695,450.0,3.0,73.0,,,,0.0,4.0,4.0,4.0,0.0,4.0,66.666664,,,,,,,,,,,,,,,,,,,,,,,,,,,,,,,,,,,,,,,,,,,,,,,,,,,,,,,,,,,,,,,,,,,,,,,,,,,,,,,,,,,,
24898,1645495580.317359,1645495580.340674,114.0,0.0,4055.384521,3904.615479,4200.0,4267.179688,4152.307617,450.0,3.0,73.0,,,,0.0,4.0,4.0,4.0,0.0,4.0,66.666664,,,,,,,,57.0,0.0,0.35813,-0.319824,0.588867,0.650146,0.844251,-0.540536,-0.103029,-0.033592000000000004,-0.040407,-0.031501999999999995,,,,,,,,,,,,,,,,,,,,,,,,,,,,,,,,,,,,,,,,,,,,,,,,,,,,,,,,,,,,,,,,,
24899,1645495580.3251731,1645495580.3483891,115.0,0.0,4061.025635,3923.076904,4198.461426,4267.179688,4158.974121,16213.0,3.0,73.0,,,,0.0,4.0,4.0,4.0,0.0,4.0,66.666664,,,,,,,,,,,,,,,,,,,,,,,,,,,,,,,,,,,,,,,,,,,,,,,,,,,,,,,,,,,,,,,,,,,,,,,,,,,,,,,,,,,,
24900,1645495580.3329868,1645495580.356205,116.0,0.0,4051.281982,3947.179443,4184.102539,4267.692383,4138.461426,450.0,3.0,73.0,,,,0.0,4.0,4.0,4.0,0.0,4.0,66.666664,,,,,,,,58.0,0.0,0.35831399999999997,-0.32006799999999996,0.588623,0.650146,0.847669,-0.526375,-0.107424,-0.033553,-0.040369999999999996,-0.026985000000000002,,,,,,,,,,,,,,,,,,,,,,,,,,,,,,,,,,,11.0,0.0,64.0,0.5381670000000001,1.0,0.0,,,,,,,,,,,,,,,,,,,,,,,,,
24901,1645495580.340801,1645495580.3640199,117.0,0.0,4043.076904,3950.256348,4191.794922,4267.692383,4118.974121,450.0,3.0,73.0,,,,0.0,4.0,4.0,4.0,0.0,4.0,66.666664,,,,,,,,,,,,,,,,,,,,,,,,,,,,,,,,,,,,,,,,,,,,,,,,,,,,,,,,,,,,,,,,,,,,,,,,,,,,,,,,,,,,
24902,1645495580.348615,1645495580.371835,118.0,0.0,4051.794922,3946.6667479999996,4198.461426,4267.692383,4142.05127,450.0,3.0,73.0,,,,0.0,4.0,4.0,4.0,0.0,4.0,66.666664,,,,,,,,59.0,0.0,0.358348,-0.31958000000000003,0.588867,0.650146,0.8520639999999999,-0.534676,-0.100587,-0.033713,-0.040337,-0.029218,,,,,,,,,,,,,,,,,,,,,,,,,,,,,,,,,,,,,,,,,,,,,,,,,,,,,,,,,,,,,,,,,
24903,1645495580.3564289,1645495580.379651,119.0,0.0,4050.7692869999996,3958.974365,4186.153809,4267.692383,4157.436035,16213.0,3.0,73.0,,,,0.0,4.0,4.0,4.0,0.0,4.0,66.666664,,,,,,,,,,,,,,,,,,,,,,,,,,,,,,,,,,,,,,,,,,,,,,,,,,,,,,,,,,,,,,,,,,,,,,,,,,,,,,,,,,,,
24904,1645495580.364243,1645495580.387466,120.0,0.0,4050.7692869999996,3992.820557,4181.025879,4267.692383,4148.205078,450.0,3.0,73.0,,,,0.0,4.0,4.0,4.0,0.0,4.0,66.666664,,,,,,,,60.0,0.0,0.35831399999999997,-0.32006799999999996,0.588623,0.650146,0.847669,-0.526375,-0.107424,-0.033662,-0.040307,-0.024929,,,,,,,,,,,,,,,,,,,,,,,,,,,,,,,,,,,11.0,0.0,64.0,0.5381670000000001,1.0,0.0,,,,,,,,,,,,,,,,,,,,,,,,,
24905,1645495580.372057,1645495580.395281,121.0,0.0,4067.6923829999996,4038.974365,4189.230957,4267.692383,4157.94873,450.0,3.0,73.0,,,,0.0,4.0,4.0,4.0,0.0,4.0,66.666664,,,,,,,,,,,,,,,,,,,,,,,,,,,,,,,,,,,,,,,,,,,,,,,,,,,,,,,,,,,,,,,,,,,,,,,,,,,,,,,,,,,,
24906,1645495580.3798711,1645495580.4030972,122.0,0.0,4072.820557,4068.205078,4180.0,4267.692383,4168.205078,450.0,3.0,73.0,,,,0.0,4.0,4.0,4.0,0.0,4.0,66.666664,,,,,,,,61.0,0.0,0.358095,-0.320313,0.588623,0.650146,0.8530399999999999,-0.539559,-0.116701,-0.033568,-0.040182999999999996,-0.02727,,,,,,,,,,,,,,,,,,,,,,,,,,,,,,,,,,,,,,,,,,,,,,,,,,,,,,,,,,,,,,,,,
24907,1645495580.387685,1645495580.4109118,123.0,0.0,4056.4101560000004,4071.794922,4174.358886999999,4267.692383,4153.846191,16213.0,3.0,73.0,,,,0.0,4.0,4.0,4.0,0.0,4.0,66.666664,,,,,,,,,,,,,,,,,,,,,,,,,,,,,,,,,,,,,,,,,,,,,,,,,,,,,,,,,,,,,,,,,,,,,,,,,,,,,,,,,,,,
24908,1645495580.395499,1645495580.418628,124.0,0.0,4043.5898439999996,4091.281982,4190.769043,4267.692383,4145.128418,450.0,3.0,73.0,,,,0.0,4.0,4.0,4.0,0.0,4.0,66.666664,,,,,,,,62.0,0.0,0.358496,-0.320313,0.588379,0.650146,0.845716,-0.54786,-0.116701,-0.033629,-0.040217,-0.029475,,,,,,,,,,,,,,,,,,,,,,,,,,,,,,,,,,,11.0,0.0,64.0,0.5381670000000001,1.0,0.0,,,,,,,,,,,,,,,,,,,,,,,,,
24909,1645495580.4033132,1645495580.4264429,125.0,0.0,4047.179443,4132.307617,4197.436035,4267.692383,4150.256348,450.0,3.0,73.0,,,,0.0,4.0,4.0,4.0,0.0,4.0,66.666664,,,,,,,,,,,,,,,,,,,,,,,,,,,,,,,,,,,,,,,,,,,,,,,,,,,,,,,,,,,,,,,,,,,,,,,,,,,,,,,,,,,,
24910,1645495580.4111269,1645495580.434258,126.0,0.0,4044.102539,4141.538574,4191.282227000001,4267.692383,4141.538574,450.0,3.0,73.0,,,,0.0,4.0,4.0,4.0,0.0,4.0,66.666664,,,,,,,,63.0,0.0,0.358496,-0.320313,0.588379,0.650146,0.8452280000000001,-0.540047,-0.11718900000000002,-0.033635000000000005,-0.040102,-0.031459,,,,,,,,,,,,,,,,,,,,,,,,,,,,,,,,,,,,,,,,,,,,,,,,,,,,,,,,,,,,,,,,,
24911,1645495580.418941,1645495580.442074,127.0,0.0,4033.8461909999996,4140.512695,4191.282227000001,4267.692383,4129.230957,238.0,3.0,73.0,,,,0.0,4.0,4.0,4.0,0.0,4.0,66.666664,,,,,,,,,,,,,,,,,,,,,,,,,,,,,,,,,,,,,,,,,,,,,,,,,,,,,,,,,,,,,,,,,,,,,,,,,,,,,,,,,,,,
24912,1645495580.4267552,1645495580.449889,0.0,0.0,4045.1281740000004,4176.922852000001,4193.333496,4267.692383,4139.487305,450.0,3.0,73.0,,,,0.0,4.0,4.0,4.0,0.0,4.0,66.666664,1.0,25.0,3.0,0.0,4.0,0.0,4.0,0.0,0.0,0.358721,-0.32055700000000004,0.588379,0.6499020000000001,0.844251,-0.539559,-0.101076,-0.033543,-0.039998,-0.033147,1.0,0.0,0.0,,,,,,,,,,,,,,,,,,,,,,,,,,,,,,,,11.0,0.0,64.0,1.0,1.0,0.0,264.947479,21.350264000000003,2.422255,1.6999259999999998,2.31915,59.85987900000001,30.490671000000003,11.338449,4.408279,2.375035,2.650875,0.927616,0.49660200000000004,0.43746499999999994,0.9115340000000001,0.10498199999999999,0.141509,0.099156,0.051738,0.037464,84.117775,9.872954,1.760356,1.354185,1.132515
24913,1645495580.434569,1645495580.4577038,1.0,0.0,4056.923096,4205.641113000001,4192.307617,4267.692383,4147.692383,450.0,3.0,73.0,,,,0.0,4.0,4.0,4.0,0.0,4.0,66.666664,,,,,,,,,,,,,,,,,,,,,,,,,,,,,,,,,,,,,,,,,,,,,,,,,,,,,,,,,,,,,,,,,,,,,,,,,,,,,,,,,,,,
24914,1645495580.442383,1645495580.46552,2.0,0.0,4063.5898439999996,4213.333496,4198.461426,4267.692383,4139.487305,16254.0,3.0,73.0,,,,0.0,4.0,4.0,4.0,0.0,4.0,66.666664,,,,,,,,1.0,0.0,0.358721,-0.32055700000000004,0.588379,0.6499020000000001,0.867201,-0.533211,-0.11621300000000001,-0.033656,-0.040149000000000004,-0.028513999999999998,,,,,,,,,,,,,,,,,,,,,,,,,,,,,,,,,,,,,,,,,,,,,,,,,,,,,,,,,,,,,,,,,
24915,1645495580.450197,1645495580.473335,3.0,0.0,4092.3076170000004,4232.820313,4195.384765999999,4267.692383,4135.897461,450.0,3.0,73.0,,,,0.0,4.0,4.0,4.0,0.0,4.0,66.666664,,,,,,,,,,,,,,,,,,,,,,,,,,,,,,,,,,,,,,,,,,,,,,,,,,,,,,,,,,,,,,,,,,,,,,,,,,,,,,,,,,,,
24916,1645495580.458011,1645495580.48115,4.0,0.0,4122.563965,4237.436035,4186.666504,4267.692383,4145.641113000001,16159.0,3.0,73.0,,,,0.0,4.0,4.0,4.0,0.0,4.0,66.666664,,,,,,,,2.0,0.0,0.358721,-0.32055700000000004,0.588379,0.6499020000000001,0.863294,-0.539559,-0.11914200000000001,-0.033658999999999994,-0.04004,-0.030594,,,,,,,,,,,,,,,,,,,,,,,,,,,,,,,,,,,11.0,0.0,64.0,1.0,1.0,0.0,,,,,,,,,,,,,,,,,,,,,,,,,
24917,1645495580.465825,1645495580.488866,5.0,0.0,4128.717772999999,4226.153809,4184.102539,4267.692383,4144.102539,450.0,3.0,73.0,,,,0.0,4.0,4.0,4.0,0.0,4.0,66.666664,,,,,,,,,,,,,,,,,,,,,,,,,,,,,,,,,,,,,,,,,,,,,,,,,,,,,,,,,,,,,,,,,,,,,,,,,,,,,,,,,,,,
24918,1645495580.473639,1645495580.496681,6.0,0.0,4125.128418,4221.538574,4196.922852000001,4267.692383,4140.512695,16140.0,3.0,73.0,,,,0.0,4.0,4.0,4.0,0.0,4.0,66.666664,,,,,,,,3.0,0.0,0.35894499999999996,-0.320801,0.588379,0.649658,0.857923,-0.534676,-0.10351700000000001,-0.033712,-0.039991000000000006,-0.032418,,,,,,,,,,,,,,,,,,,,,,,,,,,,,,,,,,,,,,,,,,,,,,,,,,,,,,,,,,,,,,,,,
24919,1645495580.481453,1645495580.504497,7.0,0.0,4135.897461,4200.0,4194.358886999999,4267.692383,4161.025879,450.0,3.0,73.0,,,,0.0,4.0,4.0,4.0,0.0,4.0,66.666664,,,,,,,,,,,,,,,,,,,,,,,,,,,,,,,,,,,,,,,,,,,,,,,,,,,,,,,,,,,,,,,,,,,,,,,,,,,,,,,,,,,,
24920,1645495580.489267,1645495580.512312,8.0,0.0,4149.743652,4186.666504,4183.077147999999,4267.692383,4179.487305,450.0,3.0,73.0,,,,0.0,4.0,4.0,4.0,0.0,4.0,66.666664,,,,,,,,4.0,0.0,0.35832600000000003,-0.32104499999999997,0.588623,0.649658,0.8535290000000001,-0.541512,-0.105959,-0.033513999999999995,-0.040045,-0.034059,,,,,,,,,,,,,,,,,,,,,,,,,,,,,,,,,,,11.0,0.0,64.0,1.0,1.0,0.0,,,,,,,,,,,,,,,,,,,,,,,,,
24921,1645495580.497081,1645495580.520127,9.0,0.0,4156.922852000001,4222.05127,4190.769043,4267.692383,4178.461426,0.0,3.0,73.0,,,,0.0,4.0,4.0,4.0,0.0,4.0,66.666664,,,,,,,,,,,,,,,,,,,,,,,,,,,,,,,,,,,,,,,,,,,,,,,,,,,,,,,,,,,,,,,,,,,,,,,,,,,,,,,,,,,,
24922,1645495580.504895,1645495580.527943,10.0,0.0,4168.717772999999,4260.512695,4204.102539,4267.692383,4181.025879,450.0,3.0,73.0,,,,0.0,4.0,4.0,4.0,0.0,4.0,66.666664,,,,,,,,5.0,0.0,0.35832600000000003,-0.32104499999999997,0.588623,0.649658,0.8486459999999999,-0.542977,-0.09765800000000001,-0.033434,-0.040093000000000004,-0.035634,,,,,,,,,,,,,,,,,,,,,,,,,,,,,,,,,,,,,,,,,,,,,,,,,,,,,,,,,,,,,,,,,
24923,1645495580.512709,1645495580.535758,11.0,0.0,4163.589844,4257.94873,4189.743652,4267.692383,4181.025879,16220.0,3.0,73.0,,,,0.0,4.0,4.0,4.0,0.0,4.0,66.666664,,,,,,,,,,,,,,,,,,,,,,,,,,,,,,,,,,,,,,,,,,,,,,,,,,,,,,,,,,,,,,,,,,,,,,,,,,,,,,,,,,,,
24924,1645495580.520523,1645495580.5435731,12.0,0.0,4149.743652,4266.666504,4178.974121,4267.692383,4169.743652,450.0,3.0,73.0,,,,0.0,4.0,4.0,4.0,0.0,4.0,66.666664,,,,,,,,6.0,0.0,0.358107,-0.321289,0.588623,0.649658,0.8608530000000001,-0.532235,-0.106447,-0.033411,-0.040088,-0.030751999999999998,,,,,,,,,,,,,,,,,,,,,,,,,,,,,,,,,,,0.0,0.0,64.0,1.0,1.0,0.0,,,,,,,,,,,,,,,,,,,,,,,,,
24925,1645495580.528337,1645495580.551489,13.0,0.0,4153.333496,4338.974121,4190.256348,4267.692383,4177.94873,450.0,3.0,73.0,,,,0.0,4.0,4.0,4.0,0.0,4.0,66.666664,,,,,,,,,,,,,,,,,,,,,,,,,,,,,,,,,,,,,,,,,,,,,,,,,,,,,,,,,,,,,,,,,,,,,,,,,,,,,,,,,,,,
24926,1645495580.536151,1645495580.5593052,14.0,0.0,4164.615234000001,4417.436035,4193.846191,4267.692383,4199.487305,450.0,3.0,73.0,,,,0.0,4.0,4.0,4.0,0.0,4.0,66.666664,,,,,,,,7.0,0.0,0.358107,-0.321289,0.588623,0.649658,0.8403450000000001,-0.5337,-0.088869,-0.033488,-0.040132,-0.032560000000000006,,,,,,,,,,,,,,,,,,,,,,,,,,,,,,,,,,,,,,,,,,,,,,,,,,,,,,,,,,,,,,,,,
24927,1645495580.543965,1645495580.5671198,15.0,0.0,4161.538574,4442.05127,4190.769043,4267.692383,4190.256348,16220.0,3.0,73.0,,,,0.0,4.0,4.0,4.0,0.0,4.0,66.666664,,,,,,,,,,,,,,,,,,,,,,,,,,,,,,,,,,,,,,,,,,,,,,,,,,,,,,,,,,,,,,,,,,,,,,,,,,,,,,,,,,,,
24928,1645495580.5517788,1645495580.574936,16.0,0.0,4149.743652,4440.0,4196.410156,4267.692383,4171.282227000001,0.0,3.0,73.0,,,,0.0,4.0,4.0,4.0,0.0,4.0,66.666664,,,,,,,,8.0,0.0,0.358065,-0.321289,0.588379,0.6499020000000001,0.849622,-0.546395,-0.091798,-0.033411,-0.04022,-0.034187,1.0,0.0,0.0,,,,,,,,,,,,,,,,,,,,,,,,,,,,,,,,0.0,0.0,64.0,1.0,1.0,0.0,506.868042,34.940647,3.431521,2.4169869999999998,3.09442,76.713196,37.918079,14.157989,4.412927,2.1092400000000002,3.6469730000000005,1.085245,0.42453,0.551532,0.9616110000000001,0.1492,0.149539,0.094003,0.05198,0.038837,151.427643,13.425389000000001,1.7862509999999998,1.10992,1.1630129999999999
24929,1645495580.559593,1645495580.582751,17.0,0.0,4147.692383,4470.769043,4204.102539,4267.692383,4182.563965,0.0,3.0,73.0,,,,0.0,4.0,4.0,4.0,0.0,4.0,66.666664,,,,,,,,,,,,,,,,,,,,,,,,,,,,,,,,,,,,,,,,,,,,,,,,,,,,,,,,,,,,,,,,,,,,,,,,,,,,,,,,,,,,
24930,1645495580.5674071,1645495580.5905669,18.0,0.0,4151.282227000001,4526.153809,4197.436035,4267.692383,4190.769043,0.0,3.0,73.0,,,,0.0,4.0,4.0,4.0,0.0,4.0,66.666664,,,,,,,,9.0,0.0,0.358107,-0.321289,0.588623,0.649658,0.8437629999999999,-0.533211,-0.103029,-0.033488,-0.0403,-0.035651,,,,,,,,,,,,,,,,,,,,,,,,,,,,,,,,,,,,,,,,,,,,,,,,,,,,,,,,,,,,,,,,,
24931,1645495580.575221,1645495580.598383,19.0,0.0,4157.94873,4562.563965,4193.333496,4267.692383,4180.0,0.0,3.0,73.0,,,,0.0,4.0,4.0,4.0,0.0,4.0,66.666664,,,,,,,,,,,,,,,,,,,,,,,,,,,,,,,,,,,,,,,,,,,,,,,,,,,,,,,,,,,,,,,,,,,,,,,,,,,,,,,,,,,,
24932,1645495580.583035,1645495580.606198,20.0,0.0,4156.922852000001,4573.846191,4183.589844,4267.692383,4170.769043,0.0,3.0,73.0,,,,0.0,4.0,4.0,4.0,0.0,4.0,66.666664,,,,,,,,10.0,0.0,0.357664,-0.321289,0.588623,0.6499020000000001,0.8330209999999999,-0.549325,-0.10351700000000001,-0.033362,-0.040323000000000005,-0.037017,,,,,,,,,,,,,,,,,,,,,,,,,,,,,,,,,,,0.0,0.0,64.0,1.0,1.0,0.0,,,,,,,,,,,,,,,,,,,,,,,,,
24933,1645495580.590849,1645495580.6140141,21.0,0.0,4158.974121,4576.410156,4172.307617,4267.692383,4173.333496,0.0,3.0,73.0,,,,0.0,4.0,4.0,4.0,0.0,4.0,66.666664,,,,,,,,,,,,,,,,,,,,,,,,,,,,,,,,,,,,,,,,,,,,,,,,,,,,,,,,,,,,,,,,,,,,,,,,,,,,,,,,,,,,
24934,1645495580.598663,1645495580.6218288,22.0,0.0,4168.205078,4604.102539,4163.589844,4267.692383,4173.846191,0.0,3.0,73.0,,,,0.0,4.0,4.0,4.0,0.0,4.0,66.666664,,,,,,,,11.0,0.0,0.358065,-0.321289,0.588379,0.6499020000000001,0.8379030000000001,-0.549813,-0.091798,-0.033395,-0.040197000000000004,-0.0319,,,,,,,,,,,,,,,,,,,,,,,,,,,,,,,,,,,,,,,,,,,,,,,,,,,,,,,,,,,,,,,,,
24935,1645495580.606477,1645495580.629545,23.0,0.0,4160.512695,4640.512695,4169.743652,4267.692383,4171.282227000001,0.0,3.0,73.0,,,,0.0,4.0,4.0,4.0,0.0,4.0,66.666664,,,,,,,,,,,,,,,,,,,,,,,,,,,,,,,,,,,,,,,,,,,,,,,,,,,,,,,,,,,,,,,,,,,,,,,,,,,,,,,,,,,,
24936,1645495580.614291,1645495580.6373599,24.0,0.0,4155.384765999999,4662.563965,4171.794922,4267.692383,4175.897461,0.0,3.0,73.0,,,,0.0,4.0,4.0,4.0,0.0,4.0,66.666664,,,,,,,,12.0,0.0,0.358508,-0.321289,0.588379,0.649658,0.8535290000000001,-0.537118,-0.11133,-0.033522,-0.040132,-0.033641000000000004,,,,,,,,,,,,,,,,,,,,,,,,,,,,,,,,,,,0.0,0.0,64.0,1.0,1.0,0.0,,,,,,,,,,,,,,,,,,,,,,,,,
24937,1645495580.6221051,1645495580.645176,25.0,0.0,4166.666504,4659.487305,4168.717772999999,4267.692383,4176.410156,0.0,3.0,73.0,,,,0.0,4.0,4.0,4.0,0.0,4.0,66.666664,,,,,,,,,,,,,,,,,,,,,,,,,,,,,,,,,,,,,,,,,,,,,,,,,,,,,,,,,,,,,,,,,,,,,,,,,,,,,,,,,,,,
24938,1645495580.629919,1645495580.652991,26.0,0.0,4171.794922,4646.153809,4163.077147999999,4267.692383,4178.974121,0.0,3.0,73.0,,,,0.0,4.0,4.0,4.0,0.0,4.0,66.666664,,,,,,,,13.0,0.0,0.358508,-0.321289,0.588379,0.649658,0.844251,-0.542,-0.105959,-0.03349,-0.040172,-0.028861,,,,,,,,,,,,,,,,,,,,,,,,,,,,,,,,,,,,,,,,,,,,,,,,,,,,,,,,,,,,,,,,,
24939,1645495580.637733,1645495580.660806,27.0,0.0,4165.641113000001,4673.333496,4158.461426,4267.692383,4194.358886999999,0.0,3.0,73.0,,,,0.0,4.0,4.0,4.0,0.0,4.0,66.666664,,,,,,,,,,,,,,,,,,,,,,,,,,,,,,,,,,,,,,,,,,,,,,,,,,,,,,,,,,,,,,,,,,,,,,,,,,,,,,,,,,,,
24940,1645495580.6455472,1645495580.668622,28.0,0.0,4163.589844,4690.256348,4154.358886999999,4267.692383,4195.384765999999,0.0,3.0,73.0,,,,0.0,4.0,4.0,4.0,0.0,4.0,66.666664,,,,,,,,14.0,0.0,0.358508,-0.321289,0.588379,0.649658,0.8525520000000001,-0.5234449999999999,-0.098146,-0.033462,-0.04011,-0.024608,,,,,,,,,,,,,,,,,,,,,,,,,,,,,,,,,,,0.0,0.0,64.0,1.0,1.0,0.0,,,,,,,,,,,,,,,,,,,,,,,,,
24941,1645495580.6533608,1645495580.676437,29.0,0.0,4163.077147999999,4646.153809,4158.461426,4267.692383,4180.512695,0.0,3.0,73.0,,,,0.0,4.0,4.0,4.0,0.0,4.0,66.666664,,,,,,,,,,,,,,,,,,,,,,,,,,,,,,,,,,,,,,,,,,,,,,,,,,,,,,,,,,,,,,,,,,,,,,,,,,,,,,,,,,,,
24942,1645495580.661175,1645495580.684252,30.0,0.0,4159.487305,4612.307617,4169.743652,4267.692383,4178.974121,0.0,3.0,73.0,,,,0.0,4.0,4.0,4.0,0.0,4.0,66.666664,,,,,,,,15.0,0.0,0.358508,-0.321289,0.588379,0.649658,0.834485,-0.517586,-0.098634,-0.033436,-0.040005,-0.027030000000000002,,,,,,,,,,,,,,,,,,,,,,,,,,,,,,,,,,,,,,,,,,,,,,,,,,,,,,,,,,,,,,,,,
24943,1645495580.6689892,1645495580.6920679,31.0,0.0,4148.205078,4631.794922,4171.282227000001,4267.692383,4181.538574,0.0,3.0,73.0,,,,0.0,4.0,4.0,4.0,0.0,4.0,66.666664,,,,,,,,,,,,,,,,,,,,,,,,,,,,,,,,,,,,,,,,,,,,,,,,,,,,,,,,,,,,,,,,,,,,,,,,,,,,,,,,,,,,
24944,1645495580.6768029,1645495580.6999831,32.0,0.0,4143.077147999999,4652.820313,4169.230957,4267.692383,4168.205078,0.0,3.0,73.0,,,,0.0,4.0,4.0,4.0,0.0,4.0,66.666664,,,,,,,,16.0,0.0,0.358508,-0.321289,0.588379,0.649658,0.842786,-0.5337,-0.111818,-0.033364,-0.03996,-0.029210000000000003,1.0,0.0,0.0,,,,,,,,,,,,,,,,,,,,,,,,,,,,,,,,0.0,0.0,1.0,0.0,128.0,1.0,795.179138,49.152317,4.857278,3.2531060000000003,3.7970029999999997,114.345024,44.228893,17.084763,4.651636,2.050632,4.681568,1.295885,0.39022399999999996,0.7056319999999999,0.943464,0.193172,0.143257,0.080978,0.04777,0.036951,228.35356099999998,16.787924,1.909366,0.985506,1.18954
24945,1645495580.684617,1645495580.707799,33.0,0.0,4155.384765999999,4630.256348,4171.282227000001,4267.692383,4158.974121,0.0,3.0,73.0,,,,0.0,4.0,4.0,4.0,0.0,4.0,66.666664,,,,,,,,,,,,,,,,,,,,,,,,,,,,,,,,,,,,,,,,,,,,,,,,,,,,,,,,,,,,,,,,,,,,,,,,,,,,,,,,,,,,
24946,1645495580.692431,1645495580.715614,34.0,0.0,4174.358886999999,4606.666504,4173.846191,4267.692383,4165.128418,0.0,3.0,73.0,,,,0.0,4.0,4.0,4.0,0.0,4.0,66.666664,,,,,,,,17.0,0.0,0.358508,-0.321289,0.588379,0.649658,0.8520639999999999,-0.533211,-0.111818,-0.033444999999999996,-0.039919,-0.025019,,,,,,,,,,,,,,,,,,,,,,,,,,,,,,,,,,,,,,,,,,,,,,,,,,,,,,,,,,,,,,,,,
24947,1645495580.700245,1645495580.7234302,35.0,0.0,4175.897461,4621.025879,4174.358886999999,4267.692383,4172.820313,0.0,3.0,73.0,,,,0.0,4.0,4.0,4.0,0.0,4.0,66.666664,,,,,,,,,,,,,,,,,,,,,,,,,,,,,,,,,,,,,,,,,,,,,,,,,,,,,,,,,,,,,,,,,,,,,,,,,,,,,,,,,,,,
24948,1645495580.708059,1645495580.731246,36.0,0.0,4164.615234000001,4675.384765999999,4178.461426,4267.692383,4169.743652,0.0,3.0,73.0,,,,0.0,4.0,4.0,4.0,0.0,4.0,66.666664,,,,,,,,18.0,0.0,0.358508,-0.321289,0.588379,0.649658,0.850599,-0.536629,-0.104005,-0.033519,-0.039931,-0.0274,,,,,,,,,,,,,,,,,,,,,,,,,,,,,,,,,,,0.0,0.0,1.0,0.0,128.0,1.0,,,,,,,,,,,,,,,,,,,,,,,,,
24949,1645495580.715873,1645495580.7390609,37.0,0.0,4160.0,4690.256348,4169.230957,4267.692383,4164.102539,0.0,3.0,73.0,,,,0.0,4.0,4.0,4.0,0.0,4.0,66.666664,,,,,,,,,,,,,,,,,,,,,,,,,,,,,,,,,,,,,,,,,,,,,,,,,,,,,,,,,,,,,,,,,,,,,,,,,,,,,,,,,,,,
24950,1645495580.723687,1645495580.746877,38.0,0.0,4167.692383,4628.717772999999,4163.077147999999,4267.692383,4174.358886999999,0.0,3.0,73.0,,,,0.0,4.0,4.0,4.0,0.0,4.0,66.666664,,,,,,,,19.0,0.0,0.358508,-0.321289,0.588379,0.649658,0.8569469999999999,-0.548348,-0.096193,-0.033438999999999997,-0.039893,-0.029543,,,,,,,,,,,,,,,,,,,,,,,,,,,,,,,,,,,,,,,,,,,,,,,,,,,,,,,,,,,,,,,,,
24951,1645495580.7315009,1645495580.754692,39.0,0.0,4178.974121,4598.974121,4165.641113000001,4267.692383,4180.0,0.0,3.0,73.0,,,,0.0,4.0,4.0,4.0,0.0,4.0,66.666664,,,,,,,,,,,,,,,,,,,,,,,,,,,,,,,,,,,,,,,,,,,,,,,,,,,,,,,,,,,,,,,,,,,,,,,,,,,,,,,,,,,,
24952,1645495580.739315,1645495580.762508,40.0,0.0,4175.384765999999,4627.692383,4172.307617,4267.692383,4174.871582,0.0,3.0,73.0,,,,0.0,4.0,4.0,4.0,0.0,4.0,66.666664,,,,,,,,20.0,0.0,0.358508,-0.321289,0.588379,0.649658,0.8486459999999999,-0.536141,-0.10693499999999999,-0.033269,-0.039908,-0.031521,,,,,,,,,,,,,,,,,,,,,,,,,,,,,,,,,,,0.0,0.0,1.0,0.0,128.0,1.0,,,,,,,,,,,,,,,,,,,,,,,,,
24953,1645495580.747129,1645495580.770423,41.0,0.0,4167.692383,4634.871582,4165.128418,4267.692383,4187.179688,0.0,3.0,73.0,,,,0.0,4.0,4.0,4.0,0.0,4.0,66.666664,,,,,,,,,,,,,,,,,,,,,,,,,,,,,,,,,,,,,,,,,,,,,,,,,,,,,,,,,,,,,,,,,,,,,,,,,,,,,,,,,,,,
24954,1645495580.754943,1645495580.778239,42.0,0.0,4160.0,4593.846191,4160.0,4267.692383,4187.179688,0.0,3.0,73.0,,,,0.0,4.0,4.0,4.0,0.0,4.0,66.666664,,,,,,,,21.0,0.0,0.358508,-0.321289,0.588379,0.649658,0.847669,-0.54493,-0.1084,-0.033262,-0.039921,-0.033349000000000004,,,,,,,,,,,,,,,,,,,,,,,,,,,,,,,,,,,,,,,,,,,,,,,,,,,,,,,,,,,,,,,,,
24955,1645495580.762757,1645495580.786054,43.0,0.0,4160.0,4579.487305,4165.128418,4267.692383,4171.282227000001,0.0,3.0,73.0,,,,0.0,4.0,4.0,4.0,0.0,4.0,66.666664,,,,,,,,,,,,,,,,,,,,,,,,,,,,,,,,,,,,,,,,,,,,,,,,,,,,,,,,,,,,,,,,,,,,,,,,,,,,,,,,,,,,
24956,1645495580.770571,1645495580.793869,44.0,0.0,4178.461426,4624.615234000001,4178.974121,4267.692383,4188.717772999999,0.0,3.0,73.0,,,,0.0,4.0,4.0,4.0,0.0,4.0,66.666664,,,,,,,,22.0,0.0,0.358508,-0.321289,0.588379,0.649658,0.854017,-0.536141,-0.098634,-0.033402999999999995,-0.039932999999999996,-0.0285,,,,,,,,,,,,,,,,,,,,,,,,,,,,,,,,,,,0.0,0.0,1.0,0.0,128.0,1.0,,,,,,,,,,,,,,,,,,,,,,,,,
24957,1645495580.7783859,1645495580.8016849,45.0,0.0,4186.666504,4643.077147999999,4184.615234000001,4267.692383,4200.512695,0.0,3.0,73.0,,,,0.0,4.0,4.0,4.0,0.0,4.0,66.666664,,,,,,,,,,,,,,,,,,,,,,,,,,,,,,,,,,,,,,,,,,,,,,,,,,,,,,,,,,,,,,,,,,,,,,,,,,,,,,,,,,,,
24958,1645495580.786199,1645495580.8096,46.0,0.0,4176.410156,4613.333496,4178.461426,4267.692383,4180.512695,0.0,3.0,73.0,,,,0.0,4.0,4.0,4.0,0.0,4.0,66.666664,,,,,,,,23.0,0.0,0.358508,-0.321289,0.588379,0.649658,0.8486459999999999,-0.536141,-0.10693499999999999,-0.033431999999999996,-0.039943,-0.024234000000000002,,,,,,,,,,,,,,,,,,,,,,,,,,,,,,,,,,,,,,,,,,,,,,,,,,,,,,,,,,,,,,,,,
24959,1645495580.794013,1645495580.817415,47.0,0.0,4172.307617,4612.307617,4184.615234000001,4267.692383,4190.769043,0.0,3.0,73.0,,,,0.0,4.0,4.0,4.0,0.0,4.0,66.666664,,,,,,,,,,,,,,,,,,,,,,,,,,,,,,,,,,,,,,,,,,,,,,,,,,,,,,,,,,,,,,,,,,,,,,,,,,,,,,,,,,,,
24960,1645495580.801828,1645495580.825231,48.0,0.0,4171.794922,4634.358886999999,4184.615234000001,4267.692383,4209.230957,0.0,3.0,73.0,,,,0.0,4.0,4.0,4.0,0.0,4.0,66.666664,,,,,,,,24.0,0.0,0.358508,-0.321289,0.588379,0.649658,0.854017,-0.536141,-0.098634,-0.033555,-0.039952999999999995,-0.020297,1.0,0.0,0.0,,,,,,,,,,,,,,,,,,,,,,,,,,,,,,,,0.0,0.0,1.0,0.0,128.0,1.0,1050.388062,60.057377,6.262221,3.984347,4.211544,165.727936,47.436211,19.689346,5.0728919999999995,2.168478,5.447055000000001,1.486452,0.383493,0.8507319999999999,0.857007,0.223559,0.12649000000000002,0.065112,0.04065,0.032652999999999995,293.66854900000004,19.044754,2.036978,0.9737459999999999,1.186428
24961,1645495580.8096411,1645495580.8330462,49.0,0.0,4173.333496,4627.692383,4181.538574,4267.692383,4194.358886999999,0.0,3.0,73.0,,,,0.0,4.0,4.0,4.0,0.0,4.0,66.666664,,,,,,,,,,,,,,,,,,,,,,,,,,,,,,,,,,,,,,,,,,,,,,,,,,,,,,,,,,,,,,,,,,,,,,,,,,,,,,,,,,,,
24962,1645495580.817455,1645495580.8408608,50.0,0.0,4187.692383,4638.974121,4181.538574,4267.692383,4189.743652,0.0,3.0,73.0,,,,0.0,4.0,4.0,4.0,0.0,4.0,66.666664,,,,,,,,25.0,0.0,0.358065,-0.321289,0.588379,0.6499020000000001,0.843275,-0.542489,-0.10351700000000001,-0.033569,-0.039962,-0.016850999999999998,,,,,,,,,,,,,,,,,,,,,,,,,,,,,,,,,,,,,,,,,,,,,,,,,,,,,,,,,,,,,,,,,
24963,1645495580.82527,1645495580.848677,51.0,0.0,4204.102539,4681.025879,4187.179688,4267.692383,4204.615234000001,0.0,3.0,73.0,,,,0.0,4.0,4.0,4.0,0.0,4.0,66.666664,,,,,,,,,,,,,,,,,,,,,,,,,,,,,,,,,,,,,,,,,,,,,,,,,,,,,,,,,,,,,,,,,,,,,,,,,,,,,,,,,,,,
24964,1645495580.8330839,1645495580.856492,52.0,0.0,4192.307617,4670.256348,4187.692383,4267.692383,4206.153809,0.0,3.0,73.0,,,,0.0,4.0,4.0,4.0,0.0,4.0,66.666664,,,,,,,,26.0,0.0,0.358466,-0.321289,0.5881350000000001,0.6499020000000001,0.849134,-0.5356529999999999,-0.113283,-0.03363,-0.040018,-0.02,,,,,,,,,,,,,,,,,,,,,,,,,,,,,,,,,,,0.0,0.0,1.0,0.0,128.0,1.0,,,,,,,,,,,,,,,,,,,,,,,,,
24965,1645495580.840897,1645495580.864307,53.0,0.0,4174.871582,4652.820313,4186.153809,4267.692383,4192.307617,0.0,3.0,73.0,,,,0.0,4.0,4.0,4.0,0.0,4.0,66.666664,,,,,,,,,,,,,,,,,,,,,,,,,,,,,,,,,,,,,,,,,,,,,,,,,,,,,,,,,,,,,,,,,,,,,,,,,,,,,,,,,,,,
24966,1645495580.848711,1645495580.872123,54.0,0.0,4189.743652,4692.820313,4184.102539,4267.692383,4180.512695,0.0,3.0,73.0,,,,0.0,4.0,4.0,4.0,0.0,4.0,66.666664,,,,,,,,27.0,0.0,0.358908,-0.321289,0.5881350000000001,0.649658,0.842786,-0.546883,-0.099123,-0.033636,-0.040069,-0.016682,,,,,,,,,,,,,,,,,,,,,,,,,,,,,,,,,,,,,,,,,,,,,,,,,,,,,,,,,,,,,,,,,
24967,1645495580.856526,1645495580.880038,55.0,0.0,4205.641113000001,4730.256348,4194.358886999999,4267.692383,4194.871582,0.0,3.0,73.0,,,,0.0,4.0,4.0,4.0,0.0,4.0,66.666664,,,,,,,,,,,,,,,,,,,,,,,,,,,,,,,,,,,,,,,,,,,,,,,,,,,,,,,,,,,,,,,,,,,,,,,,,,,,,,,,,,,,
24968,1645495580.864339,1645495580.8878539,56.0,0.0,4203.589844,4714.871582,4191.794922,4267.692383,4207.692383,0.0,3.0,73.0,,,,0.0,4.0,4.0,4.0,0.0,4.0,66.666664,,,,,,,,28.0,0.0,0.358908,-0.321289,0.5881350000000001,0.649658,0.851575,-0.542977,-0.102052,-0.033788,-0.040115,-0.013694999999999999,,,,,,,,,,,,,,,,,,,,,,,,,,,,,,,,,,,0.0,0.0,1.0,0.0,128.0,1.0,,,,,,,,,,,,,,,,,,,,,,,,,
24969,1645495580.872153,1645495580.89567,57.0,0.0,4204.102539,4700.512695,4180.512695,4267.692383,4191.794922,0.0,3.0,73.0,,,,0.0,4.0,4.0,4.0,0.0,4.0,66.666664,,,,,,,,,,,,,,,,,,,,,,,,,,,,,,,,,,,,,,,,,,,,,,,,,,,,,,,,,,,,,,,,,,,,,,,,,,,,,,,,,,,,
24970,1645495580.879968,1645495580.903485,58.0,0.0,4202.563965,4723.589844,4180.0,4267.692383,4196.410156,0.0,3.0,73.0,,,,0.0,4.0,4.0,4.0,0.0,4.0,66.666664,,,,,,,,29.0,0.0,0.358689,-0.321533,0.5881350000000001,0.649658,0.849134,-0.536141,-0.104005,-0.03373,-0.040108,-0.017159999999999998,,,,,,,,,,,,,,,,,,,,,,,,,,,,,,,,,,,,,,,,,,,,,,,,,,,,,,,,,,,,,,,,,
24971,1645495580.887782,1645495580.911301,59.0,0.0,4198.974121,4706.666504,4182.05127,4267.692383,4218.461426,0.0,3.0,73.0,,,,0.0,4.0,4.0,4.0,0.0,4.0,66.666664,,,,,,,,,,,,,,,,,,,,,,,,,,,,,,,,,,,,,,,,,,,,,,,,,,,,,,,,,,,,,,,,,,,,,,,,,,,,,,,,,,,,
24972,1645495580.8955948,1645495580.919116,60.0,0.0,4213.333496,4651.282227000001,4174.871582,4267.692383,4209.743652,0.0,3.0,73.0,,,,0.0,4.0,4.0,4.0,0.0,4.0,66.666664,,,,,,,,30.0,0.0,0.359131,-0.321533,0.5881350000000001,0.649414,0.838392,-0.539071,-0.114748,-0.033677,-0.040101,-0.020229,,,,,,,,,,,,,,,,,,,,,,,,,,,,,,,,,,,0.0,0.0,1.0,0.0,128.0,1.0,,,,,,,,,,,,,,,,,,,,,,,,,
24973,1645495580.90341,1645495580.926932,61.0,0.0,4221.538574,4642.05127,4183.589844,4267.692383,4197.436035,0.0,3.0,73.0,,,,0.0,4.0,4.0,4.0,0.0,4.0,66.666664,,,,,,,,,,,,,,,,,,,,,,,,,,,,,,,,,,,,,,,,,,,,,,,,,,,,,,,,,,,,,,,,,,,,,,,,,,,,,,,,,,,,
24974,1645495580.9112241,1645495580.934748,62.0,0.0,4212.307617,4648.717772999999,4185.128418,4267.692383,4210.256348,0.0,3.0,73.0,,,,0.0,4.0,4.0,4.0,0.0,4.0,66.666664,,,,,,,,31.0,0.0,0.35891300000000004,-0.321777,0.5881350000000001,0.649414,0.8486459999999999,-0.543465,-0.1084,-0.033776,-0.040144,-0.023089,,,,,,,,,,,,,,,,,,,,,,,,,,,,,,,,,,,,,,,,,,,,,,,,,,,,,,,,,,,,,,,,,
24975,1645495580.9190369,1645495580.942563,63.0,0.0,4220.512695,4633.846191,4172.307617,4267.692383,4228.205078,0.0,3.0,73.0,,,,0.0,4.0,4.0,4.0,0.0,4.0,66.666664,,,,,,,,,,,,,,,,,,,,,,,,,,,,,,,,,,,,,,,,,,,,,,,,,,,,,,,,,,,,,,,,,,,,,,,,,,,,,,,,,,,,
24976,1645495580.926852,1645495580.950379,64.0,0.0,4224.615234000001,4637.94873,4182.563965,4267.692383,4232.820313,450.0,3.0,73.0,,,,0.0,4.0,4.0,4.0,0.0,4.0,66.666664,1.0,25.0,3.0,0.0,4.0,0.0,3.0,32.0,0.0,0.35891300000000004,-0.321777,0.5881350000000001,0.649414,0.8403450000000001,-0.52784,-0.101076,-0.03367,-0.040182,-0.019364,1.0,0.0,0.0,,,,,,,,,,,,,,,,,,,,,,,,,,,,,,,,0.0,0.0,1.0,0.0,128.0,1.0,1195.626465,64.298996,7.140386,4.375128,4.193289,217.631897,46.597664,21.429573,5.443645,2.3971869999999997,5.751833,1.590523,0.385377,0.934148,0.7252689999999999,0.229632,0.10507000000000001,0.050917000000000004,0.032524000000000004,0.027139999999999997,327.840912,19.469454000000002,2.071369,1.019724,1.1366379999999998
24977,1645495580.934666,1645495580.958294,65.0,0.0,4212.820313,4630.256348,4192.307617,4267.692383,4217.436035,450.0,3.0,73.0,,,,0.0,4.0,4.0,4.0,0.0,4.0,66.666664,,,,,,,,,,,,,,,,,,,,,,,,,,,,,,,,,,,,,,,,,,,,,,,,,,,,,,,,,,,,,,,,,,,,,,,,,,,,,,,,,,,,
24978,1645495580.942479,1645495580.966109,66.0,0.0,4209.230957,4603.077147999999,4198.461426,4267.692383,4203.077147999999,16231.0,3.0,73.0,,,,0.0,4.0,4.0,4.0,0.0,4.0,66.666664,,,,,,,,33.0,0.0,0.359094,-0.322021,0.5878909999999999,0.649414,0.838392,-0.517586,-0.10693499999999999,-0.033721,-0.040168,-0.022359,,,,,,,,,,,,,,,,,,,,,,,,,,,,,,,,,,,,,,,,,,,,,,,,,,,,,,,,,,,,,,,,,
24979,1645495580.950294,1645495580.973925,67.0,0.0,4197.436035,4596.410156,4195.384765999999,4267.692383,4207.692383,450.0,3.0,73.0,,,,0.0,4.0,4.0,4.0,0.0,4.0,66.666664,,,,,,,,,,,,,,,,,,,,,,,,,,,,,,,,,,,,,,,,,,,,,,,,,,,,,,,,,,,,,,,,,,,,,,,,,,,,,,,,,,,,
24980,1645495580.958108,1645495580.98174,68.0,0.0,4193.333496,4591.282227000001,4188.205078,4267.692383,4215.897461,16163.0,3.0,73.0,,,,0.0,4.0,4.0,4.0,0.0,4.0,66.666664,,,,,,,,34.0,0.0,0.359135,-0.322021,0.5881350000000001,0.64917,0.8535290000000001,-0.534188,-0.104005,-0.033621,-0.040106,-0.018805000000000002,,,,,,,,,,,,,,,,,,,,,,,,,,,,,,,,,,,0.0,0.0,1.0,0.0,128.0,1.0,,,,,,,,,,,,,,,,,,,,,,,,,
24981,1645495580.965922,1645495580.9895551,69.0,0.0,4202.563965,4574.358886999999,4189.230957,4267.692383,4221.538574,450.0,3.0,73.0,,,,0.0,4.0,4.0,4.0,0.0,4.0,66.666664,,,,,,,,,,,,,,,,,,,,,,,,,,,,,,,,,,,,,,,,,,,,,,,,,,,,,,,,,,,,,,,,,,,,,,,,,,,,,,,,,,,,
24982,1645495580.973736,1645495580.9973712,70.0,0.0,4204.102539,4578.461426,4191.282227000001,4267.692383,4215.384765999999,16137.0,3.0,73.0,,,,0.0,4.0,4.0,4.0,0.0,4.0,66.666664,,,,,,,,35.0,0.0,0.359135,-0.322021,0.5881350000000001,0.64917,0.839857,-0.537118,-0.113283,-0.033628,-0.040197000000000004,-0.021856,,,,,,,,,,,,,,,,,,,,,,,,,,,,,,,,,,,,,,,,,,,,,,,,,,,,,,,,,,,,,,,,,
24983,1645495580.98155,1645495581.0051858,71.0,0.0,4211.794922,4586.666504,4177.94873,4267.692383,4211.282227000001,450.0,3.0,73.0,,,,0.0,4.0,4.0,4.0,0.0,4.0,66.666664,,,,,,,,,,,,,,,,,,,,,,,,,,,,,,,,,,,,,,,,,,,,,,,,,,,,,,,,,,,,,,,,,,,,,,,,,,,,,,,,,,,,
24984,1645495580.9893641,1645495581.013001,72.0,0.0,4226.153809,4564.102539,4182.05127,4267.692383,4231.794922,450.0,3.0,73.0,,,,0.0,4.0,4.0,4.0,0.0,4.0,66.666664,,,,,,,,36.0,0.0,0.35931599999999997,-0.322266,0.5878909999999999,0.64917,0.857923,-0.52491,-0.10351700000000001,-0.033683,-0.040181,-0.024602000000000002,,,,,,,,,,,,,,,,,,,,,,,,,,,,,,,,,,,0.0,0.0,1.0,0.0,128.0,1.0,,,,,,,,,,,,,,,,,,,,,,,,,
24985,1645495580.9971778,1645495581.020817,73.0,0.0,4240.0,4540.0,4192.307617,4267.692383,4234.871582,0.0,3.0,73.0,,,,0.0,4.0,4.0,4.0,0.0,4.0,66.666664,,,,,,,,,,,,,,,,,,,,,,,,,,,,,,,,,,,,,,,,,,,,,,,,,,,,,,,,,,,,,,,,,,,,,,,,,,,,,,,,,,,,
24986,1645495581.004992,1645495581.028632,74.0,0.0,4240.0,4551.794922,4196.410156,4267.692383,4212.820313,450.0,3.0,73.0,,,,0.0,4.0,4.0,4.0,0.0,4.0,66.666664,,,,,,,,37.0,0.0,0.359135,-0.322021,0.5881350000000001,0.64917,0.844251,-0.542,-0.099611,-0.033684,-0.040118,-0.020824000000000002,,,,,,,,,,,,,,,,,,,,,,,,,,,,,,,,,,,,,,,,,,,,,,,,,,,,,,,,,,,,,,,,,
24987,1645495581.012806,1645495581.036448,75.0,0.0,4216.410156,4575.897461,4203.077147999999,4267.692383,4214.871582,16213.0,3.0,73.0,,,,0.0,4.0,4.0,4.0,0.0,4.0,66.666664,,,,,,,,,,,,,,,,,,,,,,,,,,,,,,,,,,,,,,,,,,,,,,,,,,,,,,,,,,,,,,,,,,,,,,,,,,,,,,,,,,,,
24988,1645495581.0206199,1645495581.044363,76.0,0.0,4208.205078,4558.974121,4201.025879,4267.692383,4225.128418,450.0,3.0,73.0,,,,0.0,4.0,4.0,4.0,0.0,4.0,66.666664,,,,,,,,38.0,0.0,0.359135,-0.322021,0.5881350000000001,0.64917,0.8501110000000001,-0.534188,-0.114748,-0.033685,-0.040111,-0.023624000000000003,,,,,,,,,,,,,,,,,,,,,,,,,,,,,,,,,,,0.0,0.0,1.0,0.0,128.0,1.0,,,,,,,,,,,,,,,,,,,,,,,,,
24989,1645495581.028434,1645495581.0521789,77.0,0.0,4232.820313,4550.256348,4194.358886999999,4267.692383,4223.077147999999,450.0,3.0,73.0,,,,0.0,4.0,4.0,4.0,0.0,4.0,66.666664,,,,,,,,,,,,,,,,,,,,,,,,,,,,,,,,,,,,,,,,,,,,,,,,,,,,,,,,,,,,,,,,,,,,,,,,,,,,,,,,,,,,
24990,1645495581.036248,1645495581.059994,78.0,0.0,4243.589844,4592.307617,4198.461426,4267.692383,4228.717772999999,450.0,3.0,73.0,,,,0.0,4.0,4.0,4.0,0.0,4.0,66.666664,,,,,,,,39.0,0.0,0.359135,-0.322021,0.5881350000000001,0.64917,0.8569469999999999,-0.54786,-0.102052,-0.033685,-0.040201,-0.026095999999999998,,,,,,,,,,,,,,,,,,,,,,,,,,,,,,,,,,,,,,,,,,,,,,,,,,,,,,,,,,,,,,,,,
24991,1645495581.044062,1645495581.06781,79.0,0.0,4236.922852000001,4600.0,4190.769043,4267.692383,4241.025879,16213.0,3.0,73.0,,,,0.0,4.0,4.0,4.0,0.0,4.0,66.666664,,,,,,,,,,,,,,,,,,,,,,,,,,,,,,,,,,,,,,,,,,,,,,,,,,,,,,,,,,,,,,,,,,,,,,,,,,,,,,,,,,,,
24992,1645495581.051876,1645495581.075625,80.0,0.0,4241.538574,4573.846191,4176.922852000001,4267.692383,4235.384765999999,450.0,3.0,73.0,,,,0.0,4.0,4.0,4.0,0.0,4.0,66.666664,,,,,,,,40.0,0.0,0.359576,-0.322021,0.5881350000000001,0.648926,0.854505,-0.523934,-0.10351700000000001,-0.033686,-0.040136,-0.022168,1.0,0.0,0.0,,,,,,,,,,,,,,,,,,,,,,,,,,,,,,,,0.0,0.0,1.0,0.0,128.0,1.0,1178.638428,60.470890000000004,7.139686,4.283072,3.735551,260.370026,41.580040000000004,21.824966,5.515085,2.697186,5.547676,1.58124,0.383596,0.927588,0.583516,0.206996,0.084036,0.04046,0.024891999999999997,0.021466,318.448425,17.847336,1.952775,1.051037,1.043552
24993,1645495581.05969,1645495581.083441,81.0,0.0,4240.512695,4571.282227000001,4198.974121,4267.692383,4232.307617,450.0,3.0,73.0,,,,0.0,4.0,4.0,4.0,0.0,4.0,66.666664,,,,,,,,,,,,,,,,,,,,,,,,,,,,,,,,,,,,,,,,,,,,,,,,,,,,,,,,,,,,,,,,,,,,,,,,,,,,,,,,,,,,
24994,1645495581.067504,1645495581.091257,82.0,0.0,4245.128418,4557.436035,4211.794922,4267.692383,4254.871582,450.0,3.0,73.0,,,,0.0,4.0,4.0,4.0,0.0,4.0,66.666664,,,,,,,,41.0,0.0,0.359576,-0.322021,0.5881350000000001,0.648926,0.842298,-0.537606,-0.09668099999999999,-0.033589,-0.040175,-0.024932,,,,,,,,,,,,,,,,,,,,,,,,,,,,,,,,,,,,,,,,,,,,,,,,,,,,,,,,,,,,,,,,,
24995,1645495581.0753179,1645495581.099072,83.0,0.0,4255.897461,4523.077147999999,4200.512695,4267.692383,4264.615234000001,16213.0,3.0,73.0,,,,0.0,4.0,4.0,4.0,0.0,4.0,66.666664,,,,,,,,,,,,,,,,,,,,,,,,,,,,,,,,,,,,,,,,,,,,,,,,,,,,,,,,,,,,,,,,,,,,,,,,,,,,,,,,,,,,
24996,1645495581.083132,1645495581.106888,84.0,0.0,4237.436035,4508.717772999999,4203.077147999999,4267.692383,4246.153809,450.0,3.0,73.0,,,,0.0,4.0,4.0,4.0,0.0,4.0,66.666664,,,,,,,,42.0,0.0,0.359576,-0.322021,0.5881350000000001,0.648926,0.847181,-0.544442,-0.10547000000000001,-0.033502,-0.040211000000000004,-0.02737,,,,,,,,,,,,,,,,,,,,,,,,,,,,,,,,,,,0.0,0.0,1.0,0.0,128.0,1.0,,,,,,,,,,,,,,,,,,,,,,,,,
24997,1645495581.0909462,1645495581.114603,85.0,0.0,4229.230957,4501.025879,4218.461426,4267.692383,4240.0,450.0,3.0,73.0,,,,0.0,4.0,4.0,4.0,0.0,4.0,66.666664,,,,,,,,,,,,,,,,,,,,,,,,,,,,,,,,,,,,,,,,,,,,,,,,,,,,,,,,,,,,,,,,,,,,,,,,,,,,,,,,,,,,
24998,1645495581.09876,1645495581.1224189,86.0,0.0,4237.94873,4482.05127,4206.153809,4267.692383,4248.717772999999,450.0,3.0,73.0,,,,0.0,4.0,4.0,4.0,0.0,4.0,66.666664,,,,,,,,43.0,0.0,0.359576,-0.322021,0.5881350000000001,0.648926,0.855482,-0.536141,-0.105959,-0.033569999999999996,-0.040242,-0.029516000000000004,,,,,,,,,,,,,,,,,,,,,,,,,,,,,,,,,,,,,,,,,,,,,,,,,,,,,,,,,,,,,,,,,
24999,1645495581.106574,1645495581.130234,87.0,0.0,4226.666504,4476.410156,4204.615234000001,4267.692383,4241.025879,16213.0,3.0,73.0,,,,0.0,4.0,4.0,4.0,0.0,4.0,66.666664,,,,,,,,,,,,,,,,,,,,,,,,,,,,,,,,,,,,,,,,,,,,,,,,,,,,,,,,,,,,,,,,,,,,,,,,,,,,,,,,,,,,
25000,1645495581.114388,1645495581.1380491,88.0,0.0,4221.538574,4489.743652,4221.538574,4267.692383,4226.666504,450.0,3.0,73.0,,,,0.0,4.0,4.0,4.0,0.0,4.0,66.666664,,,,,,,,44.0,0.0,0.360016,-0.322021,0.5881350000000001,0.648682,0.8535290000000001,-0.5351640000000001,-0.099611,-0.033484,-0.040173,-0.025294999999999998,,,,,,,,,,,,,,,,,,,,,,,,,,,,,,,,,,,0.0,0.0,1.0,0.0,128.0,1.0,,,,,,,,,,,,,,,,,,,,,,,,,
25001,1645495581.122202,1645495581.145865,89.0,0.0,4243.589844,4498.974121,4216.410156,4267.692383,4225.641113000001,450.0,3.0,73.0,,,,0.0,4.0,4.0,4.0,0.0,4.0,66.666664,,,,,,,,,,,,,,,,,,,,,,,,,,,,,,,,,,,,,,,,,,,,,,,,,,,,,,,,,,,,,,,,,,,,,,,,,,,,,,,,,,,,
25002,1645495581.130016,1645495581.15368,90.0,0.0,4261.025879,4487.179688,4204.102539,4267.692383,4236.922852000001,450.0,3.0,73.0,,,,0.0,4.0,4.0,4.0,0.0,4.0,66.666664,,,,,,,,45.0,0.0,0.359975,-0.322021,0.5878909999999999,0.648926,0.849134,-0.523934,-0.10693499999999999,-0.0337,-0.040111,-0.027648000000000002,,,,,,,,,,,,,,,,,,,,,,,,,,,,,,,,,,,,,,,,,,,,,,,,,,,,,,,,,,,,,,,,,
25003,1645495581.13783,1645495581.161495,91.0,0.0,4253.846191,4460.0,4214.871582,4267.692383,4262.563965,16213.0,3.0,73.0,,,,0.0,4.0,4.0,4.0,0.0,4.0,66.666664,,,,,,,,,,,,,,,,,,,,,,,,,,,,,,,,,,,,,,,,,,,,,,,,,,,,,,,,,,,,,,,,,,,,,,,,,,,,,,,,,,,,
25004,1645495581.145644,1645495581.169311,92.0,0.0,4240.512695,4447.179688,4212.307617,4267.692383,4261.025879,450.0,3.0,73.0,,,,0.0,4.0,4.0,4.0,0.0,4.0,66.666664,,,,,,,,46.0,0.0,0.359975,-0.322021,0.5878909999999999,0.648926,0.8447389999999999,-0.5302819999999999,-0.099611,-0.033602,-0.040202,-0.023663,,,,,,,,,,,,,,,,,,,,,,,,,,,,,,,,,,,0.0,0.0,1.0,0.0,128.0,1.0,,,,,,,,,,,,,,,,,,,,,,,,,
25005,1645495581.153458,1645495581.177126,93.0,0.0,4245.128418,4448.205078,4204.615234000001,4267.692383,4237.436035,450.0,3.0,73.0,,,,0.0,4.0,4.0,4.0,0.0,4.0,66.666664,,,,,,,,,,,,,,,,,,,,,,,,,,,,,,,,,,,,,,,,,,,,,,,,,,,,,,,,,,,,,,,,,,,,,,,,,,,,,,,,,,,,
25006,1645495581.161272,1645495581.185042,94.0,0.0,4254.871582,4456.410156,4210.769043,4267.692383,4249.743652,450.0,3.0,73.0,,,,0.0,4.0,4.0,4.0,0.0,4.0,66.666664,,,,,,,,47.0,0.0,0.359975,-0.322021,0.5878909999999999,0.648926,0.847181,-0.537606,-0.11084200000000001,-0.033562,-0.040234,-0.019978,,,,,,,,,,,,,,,,,,,,,,,,,,,,,,,,,,,,,,,,,,,,,,,,,,,,,,,,,,,,,,,,,
25007,1645495581.169086,1645495581.192857,95.0,0.0,4259.487305,4480.512695,4212.307617,4267.692383,4262.563965,16213.0,3.0,73.0,,,,0.0,4.0,4.0,4.0,0.0,4.0,66.666664,,,,,,,,,,,,,,,,,,,,,,,,,,,,,,,,,,,,,,,,,,,,,,,,,,,,,,,,,,,,,,,,,,,,,,,,,,,,,,,,,,,,
25008,1645495581.1769,1645495581.200673,96.0,0.0,4277.94873,4481.538574,4210.769043,4267.692383,4252.820313,450.0,3.0,73.0,,,,0.0,4.0,4.0,4.0,0.0,4.0,66.666664,,,,,,,,48.0,0.0,0.360193,-0.321777,0.5878909999999999,0.648926,0.842298,-0.5297930000000001,-0.109377,-0.033624,-0.040117,-0.022765999999999998,1.0,0.0,0.0,,,,,,,,,,,,,,,,,,,,,,,,,,,,,,,,0.0,0.0,1.0,0.0,128.0,1.0,1006.7749630000001,49.847595,6.2686269999999995,3.738488,2.973925,283.56189,33.658821,20.700976999999998,5.154012000000001,3.057561,4.927601999999999,1.4717049999999998,0.38562399999999997,0.835793,0.46262700000000007,0.162244,0.065825,0.033113,0.018462,0.016247,269.013062,14.592084,1.703903,1.02021,0.930199
25009,1645495581.184714,1645495581.2084892,97.0,0.0,4284.102539,4458.461426,4212.307617,4267.692383,4250.769043,450.0,3.0,73.0,,,,0.0,4.0,4.0,4.0,0.0,4.0,66.666664,,,,,,,,,,,,,,,,,,,,,,,,,,,,,,,,,,,,,,,,,,,,,,,,,,,,,,,,,,,,,,,,,,,,,,,,,,,,,,,,,,,,
25010,1645495581.192528,1645495581.2163038,98.0,0.0,4256.922852000001,4477.94873,4210.769043,4267.692383,4256.410156,450.0,3.0,73.0,,,,0.0,4.0,4.0,4.0,0.0,4.0,66.666664,,,,,,,,49.0,0.0,0.360193,-0.321777,0.5878909999999999,0.648926,0.863294,-0.549325,-0.11816600000000001,-0.033679,-0.040061,-0.019268,,,,,,,,,,,,,,,,,,,,,,,,,,,,,,,,,,,,,,,,,,,,,,,,,,,,,,,,,,,,,,,,,
25011,1645495581.200342,1645495581.22412,99.0,0.0,4256.410156,4540.0,4192.820313,4267.692383,4262.05127,16213.0,3.0,73.0,,,,0.0,4.0,4.0,4.0,0.0,4.0,66.666664,,,,,,,,,,,,,,,,,,,,,,,,,,,,,,,,,,,,,,,,,,,,,,,,,,,,,,,,,,,,,,,,,,,,,,,,,,,,,,,,,,,,
25012,1645495581.208156,1645495581.231935,100.0,0.0,4282.563965,4575.384765999999,4192.307617,4267.692383,4274.871582,450.0,3.0,73.0,,,,0.0,4.0,4.0,4.0,0.0,4.0,66.666664,,,,,,,,50.0,0.0,0.360633,-0.321777,0.5878909999999999,0.648682,0.8535290000000001,-0.5356529999999999,-0.10254100000000001,-0.033632,-0.040057999999999996,-0.022272999999999998,,,,,,,,,,,,,,,,,,,,,,,,,,,,,,,,,,,0.0,0.0,1.0,0.0,128.0,1.0,,,,,,,,,,,,,,,,,,,,,,,,,
25013,1645495581.21597,1645495581.2397509,101.0,0.0,4281.025879,4544.102539,4206.666504,4267.692383,4287.692383,450.0,3.0,73.0,,,,0.0,4.0,4.0,4.0,0.0,4.0,66.666664,,,,,,,,,,,,,,,,,,,,,,,,,,,,,,,,,,,,,,,,,,,,,,,,,,,,,,,,,,,,,,,,,,,,,,,,,,,,,,,,,,,,
25014,1645495581.223784,1645495581.247567,102.0,0.0,4270.769043,4493.333496,4213.846191,4267.692383,4276.922852000001,450.0,3.0,73.0,,,,0.0,4.0,4.0,4.0,0.0,4.0,66.666664,,,,,,,,51.0,0.0,0.360193,-0.321777,0.5878909999999999,0.648926,0.842298,-0.5297930000000001,-0.109377,-0.033687,-0.039958999999999995,-0.024831,,,,,,,,,,,,,,,,,,,,,,,,,,,,,,,,,,,,,,,,,,,,,,,,,,,,,,,,,,,,,,,,,
25015,1645495581.2315981,1645495581.255382,103.0,0.0,4268.717772999999,4461.025879,4200.0,4267.692383,4263.589844,16213.0,3.0,73.0,,,,0.0,4.0,4.0,4.0,0.0,4.0,66.666664,,,,,,,,,,,,,,,,,,,,,,,,,,,,,,,,,,,,,,,,,,,,,,,,,,,,,,,,,,,,,,,,,,,,,,,,,,,,,,,,,,,,
25016,1645495581.2394118,1645495581.263098,104.0,0.0,4266.666504,4436.410156,4205.641113000001,4267.692383,4275.384765999999,450.0,3.0,73.0,,,,0.0,4.0,4.0,4.0,0.0,4.0,66.666664,,,,,,,,52.0,0.0,0.360633,-0.321777,0.5878909999999999,0.648682,0.8535290000000001,-0.5356529999999999,-0.10254100000000001,-0.033638,-0.039967,-0.027280000000000002,,,,,,,,,,,,,,,,,,,,,,,,,,,,,,,,,,,0.0,0.0,1.0,0.0,128.0,1.0,,,,,,,,,,,,,,,,,,,,,,,,,
25017,1645495581.247226,1645495581.2709131,105.0,0.0,4275.897461,4405.641113000001,4222.05127,4267.692383,4292.307617,450.0,3.0,73.0,,,,0.0,4.0,4.0,4.0,0.0,4.0,66.666664,,,,,,,,,,,,,,,,,,,,,,,,,,,,,,,,,,,,,,,,,,,,,,,,,,,,,,,,,,,,,,,,,,,,,,,,,,,,,,,,,,,,
25018,1645495581.25504,1645495581.278728,106.0,0.0,4275.897461,4401.538574,4210.256348,4267.692383,4285.128418,450.0,3.0,73.0,,,,0.0,4.0,4.0,4.0,0.0,4.0,66.666664,,,,,,,,53.0,0.0,0.360633,-0.321777,0.5878909999999999,0.648682,0.8569469999999999,-0.534188,-0.114748,-0.033693,-0.039925,-0.023233,,,,,,,,,,,,,,,,,,,,,,,,,,,,,,,,,,,,,,,,,,,,,,,,,,,,,,,,,,,,,,,,,
25019,1645495581.2628539,1645495581.2865438,107.0,0.0,4274.871582,4460.512695,4191.794922,4267.692383,4270.256348,16213.0,3.0,73.0,,,,0.0,4.0,4.0,4.0,0.0,4.0,66.666664,,,,,,,,,,,,,,,,,,,,,,,,,,,,,,,,,,,,,,,,,,,,,,,,,,,,,,,,,,,,,,,,,,,,,,,,,,,,,,,,,,,,
25020,1645495581.270668,1645495581.294359,108.0,0.0,4295.897461,4492.307617,4202.563965,4267.692383,4273.846191,450.0,3.0,73.0,,,,0.0,4.0,4.0,4.0,0.0,4.0,66.666664,,,,,,,,54.0,0.0,0.360633,-0.321777,0.5878909999999999,0.648682,0.864759,-0.517586,-0.11425999999999999,-0.033546,-0.039937,-0.025842,,,,,,,,,,,,,,,,,,,,,,,,,,,,,,,,,,,0.0,0.0,1.0,0.0,128.0,1.0,,,,,,,,,,,,,,,,,,,,,,,,,
25021,1645495581.278482,1645495581.302174,109.0,0.0,4292.820313,4443.077147999999,4214.871582,4267.692383,4277.94873,450.0,3.0,73.0,,,,0.0,4.0,4.0,4.0,0.0,4.0,66.666664,,,,,,,,,,,,,,,,,,,,,,,,,,,,,,,,,,,,,,,,,,,,,,,,,,,,,,,,,,,,,,,,,,,,,,,,,,,,,,,,,,,,
25022,1645495581.2862961,1645495581.30999,110.0,0.0,4264.102539,4419.487305,4207.179688,4267.692383,4270.769043,450.0,3.0,73.0,,,,0.0,4.0,4.0,4.0,0.0,4.0,66.666664,,,,,,,,55.0,0.0,0.360633,-0.321777,0.5878909999999999,0.648682,0.8574350000000001,-0.520516,-0.107424,-0.033463,-0.039849,-0.021939,,,,,,,,,,,,,,,,,,,,,,,,,,,,,,,,,,,,,,,,,,,,,,,,,,,,,,,,,,,,,,,,,
25023,1645495581.29411,1645495581.317805,111.0,0.0,4274.871582,4451.794922,4197.436035,4267.692383,4265.641113000001,16213.0,3.0,73.0,,,,0.0,4.0,4.0,4.0,0.0,4.0,66.666664,,,,,,,,,,,,,,,,,,,,,,,,,,,,,,,,,,,,,,,,,,,,,,,,,,,,,,,,,,,,,,,,,,,,,,,,,,,,,,,,,,,,
25024,1645495581.301924,1645495581.32562,112.0,0.0,4300.512695,4440.512695,4209.230957,4267.692383,4268.205078,450.0,3.0,73.0,,,,0.0,4.0,4.0,4.0,0.0,4.0,66.666664,,,,,,,,56.0,0.0,0.361072,-0.321777,0.5878909999999999,0.648438,0.854017,-0.52491,-0.102052,-0.033486,-0.039771,-0.024677,1.0,0.0,0.0,,,,,,,,,,,,,,,,,,,,,,,,,,,,,,,,0.0,0.0,1.0,0.0,128.0,1.0,736.839661,35.76786,4.835531,2.942708,2.129075,281.247345,25.152813000000002,18.279726,4.410394999999999,3.450978,4.1012949999999995,1.2975,0.408607,0.692631,0.37913600000000003,0.108671,0.050366,0.026943,0.013305,0.011709,195.510345,10.594331,1.389173,0.917424,0.831033
25025,1645495581.3097382,1645495581.333536,113.0,0.0,4289.230957,4393.333496,4223.077147999999,4267.692383,4277.436035,450.0,3.0,73.0,,,,0.0,4.0,4.0,4.0,0.0,4.0,66.666664,,,,,,,,,,,,,,,,,,,,,,,,,,,,,,,,,,,,,,,,,,,,,,,,,,,,,,,,,,,,,,,,,,,,,,,,,,,,,,,,,,,,
25026,1645495581.3175519,1645495581.341352,114.0,0.0,4281.025879,4394.871582,4209.230957,4267.692383,4277.436035,450.0,3.0,73.0,,,,0.0,4.0,4.0,4.0,0.0,4.0,66.666664,,,,,,,,57.0,0.0,0.361072,-0.321777,0.5878909999999999,0.648438,0.8530399999999999,-0.52784,-0.10498199999999999,-0.03336,-0.039798,-0.027141000000000002,,,,,,,,,,,,,,,,,,,,,,,,,,,,,,,,,,,,,,,,,,,,,,,,,,,,,,,,,,,,,,,,,
25027,1645495581.325366,1645495581.349167,115.0,0.0,4291.794922,4427.179688,4207.692383,4267.692383,4284.615234000001,16213.0,3.0,73.0,,,,0.0,4.0,4.0,4.0,0.0,4.0,66.666664,,,,,,,,,,,,,,,,,,,,,,,,,,,,,,,,,,,,,,,,,,,,,,,,,,,,,,,,,,,,,,,,,,,,,,,,,,,,,,,,,,,,
25028,1645495581.3331802,1645495581.356983,116.0,0.0,4288.205078,4471.282227000001,4212.307617,4267.692383,4299.487305,450.0,3.0,73.0,,,,0.0,4.0,4.0,4.0,0.0,4.0,66.666664,,,,,,,,58.0,0.0,0.361072,-0.321777,0.5878909999999999,0.648438,0.843275,-0.522957,-0.10498199999999999,-0.033393,-0.039871,-0.029407,,,,,,,,,,,,,,,,,,,,,,,,,,,,,,,,,,,0.0,0.0,1.0,0.0,128.0,1.0,,,,,,,,,,,,,,,,,,,,,,,,,
25029,1645495581.340994,1645495581.364798,117.0,0.0,4292.307617,4524.615234000001,4209.230957,4267.692383,4289.743652,450.0,3.0,73.0,,,,0.0,4.0,4.0,4.0,0.0,4.0,66.666664,,,,,,,,,,,,,,,,,,,,,,,,,,,,,,,,,,,,,,,,,,,,,,,,,,,,,,,,,,,,,,,,,,,,,,,,,,,,,,,,,,,,
25030,1645495581.348808,1645495581.3726141,118.0,0.0,4303.077147999999,4541.025879,4207.179688,4267.692383,4270.256348,450.0,3.0,73.0,,,,0.0,4.0,4.0,4.0,0.0,4.0,66.666664,,,,,,,,59.0,0.0,0.360674,-0.321777,0.5881350000000001,0.648438,0.8481569999999999,-0.52784,-0.104005,-0.033423,-0.039888,-0.025099,,,,,,,,,,,,,,,,,,,,,,,,,,,,,,,,,,,,,,,,,,,,,,,,,,,,,,,,,,,,,,,,,
25031,1645495581.356622,1645495581.38043,119.0,0.0,4292.307617,4557.436035,4217.436035,4267.692383,4265.128418,16213.0,3.0,73.0,,,,0.0,4.0,4.0,4.0,0.0,4.0,66.666664,,,,,,,,,,,,,,,,,,,,,,,,,,,,,,,,,,,,,,,,,,,,,,,,,,,,,,,,,,,,,,,,,,,,,,,,,,,,,,,,,,,,
25032,1645495581.364436,1645495581.3882449,120.0,0.0,4271.282227000001,4625.641113000001,4203.077147999999,4267.692383,4261.538574,450.0,3.0,73.0,,,,0.0,4.0,4.0,4.0,0.0,4.0,66.666664,,,,,,,,60.0,0.0,0.360453,-0.321533,0.5881350000000001,0.648682,0.838392,-0.531258,-0.087404,-0.033548,-0.04,-0.027520999999999997,,,,,,,,,,,,,,,,,,,,,,,,,,,,,,,,,,,0.0,0.0,1.0,0.0,128.0,1.0,,,,,,,,,,,,,,,,,,,,,,,,,
25033,1645495581.37225,1645495581.396061,121.0,0.0,4273.333496,4685.128418,4196.922852000001,4267.692383,4268.205078,450.0,3.0,73.0,,,,0.0,4.0,4.0,4.0,0.0,4.0,66.666664,,,,,,,,,,,,,,,,,,,,,,,,,,,,,,,,,,,,,,,,,,,,,,,,,,,,,,,,,,,,,,,,,,,,,,,,,,,,,,,,,,,,
25034,1645495581.380064,1645495581.403976,122.0,0.0,4293.333496,4690.256348,4222.05127,4267.692383,4290.769043,450.0,3.0,73.0,,,,0.0,4.0,4.0,4.0,0.0,4.0,66.666664,,,,,,,,61.0,0.0,0.36067,-0.321289,0.5881350000000001,0.648682,0.846693,-0.531258,-0.104494,-0.033562,-0.040053,-0.02975,,,,,,,,,,,,,,,,,,,,,,,,,,,,,,,,,,,,,,,,,,,,,,,,,,,,,,,,,,,,,,,,,
25035,1645495581.387878,1645495581.411792,123.0,0.0,4298.974121,4679.487305,4221.538574,4267.692383,4292.820313,16213.0,3.0,73.0,,,,0.0,4.0,4.0,4.0,0.0,4.0,66.666664,,,,,,,,,,,,,,,,,,,,,,,,,,,,,,,,,,,,,,,,,,,,,,,,,,,,,,,,,,,,,,,,,,,,,,,,,,,,,,,,,,,,
25036,1645495581.395692,1645495581.419707,124.0,0.0,4295.384765999999,4686.153809,4193.846191,4267.692383,4273.333496,450.0,3.0,73.0,,,,0.0,4.0,4.0,4.0,0.0,4.0,66.666664,,,,,,,,62.0,0.0,0.360489,-0.32104499999999997,0.588379,0.648682,0.850599,-0.548837,-0.100587,-0.033624,-0.040052,-0.031560000000000005,,,,,,,,,,,,,,,,,,,,,,,,,,,,,,,,,,,0.0,0.0,1.0,0.0,128.0,1.0,,,,,,,,,,,,,,,,,,,,,,,,,
25037,1645495581.403506,1645495581.4275231,125.0,0.0,4302.563965,4691.794922,4195.897461,4267.692383,4271.794922,450.0,3.0,73.0,,,,0.0,4.0,4.0,4.0,0.0,4.0,66.666664,,,,,,,,,,,,,,,,,,,,,,,,,,,,,,,,,,,,,,,,,,,,,,,,,,,,,,,,,,,,,,,,,,,,,,,,,,,,,,,,,,,,
25038,1645495581.41132,1645495581.435339,126.0,0.0,4312.307617,4685.128418,4212.820313,4267.692383,4289.230957,450.0,3.0,73.0,,,,0.0,4.0,4.0,4.0,0.0,4.0,66.666664,,,,,,,,63.0,0.0,0.360707,-0.320801,0.588379,0.648682,0.8447389999999999,-0.55079,-0.10547000000000001,-0.033582,-0.039952999999999995,-0.027086000000000002,,,,,,,,,,,,,,,,,,,,,,,,,,,,,,,,,,,,,,,,,,,,,,,,,,,,,,,,,,,,,,,,,
25039,1645495581.419134,1645495581.4431539,127.0,0.0,4296.410156,4689.743652,4198.461426,4267.692383,4289.230957,238.0,3.0,73.0,,,,0.0,4.0,4.0,4.0,0.0,4.0,66.666664,,,,,,,,,,,,,,,,,,,,,,,,,,,,,,,,,,,,,,,,,,,,,,,,,,,,,,,,,,,,,,,,,,,,,,,,,,,,,,,,,,,,
25040,1645495581.426948,1645495581.45097,0.0,0.0,4291.282227000001,4723.589844,4176.410156,4267.692383,4272.820313,450.0,3.0,73.0,,,,0.0,4.0,4.0,4.0,0.0,4.0,66.666664,1.0,25.0,3.0,0.0,4.0,0.0,4.0,0.0,0.0,0.360525,-0.32055700000000004,0.588623,0.648682,0.8413209999999999,-0.52784,-0.10547000000000001,-0.033544,-0.040011,-0.02301,1.0,0.0,0.0,,,,,,,,,,,,,,,,,,,,,,,,,,,,,,,,0.0,0.0,1.0,0.0,128.0,1.0,451.964325,22.114632,3.314741,2.161311,1.4121270000000001,254.92730699999998,18.121601000000002,15.231119,3.494476,3.811118,3.274625,1.096306,0.46542,0.5453939999999999,0.334715,0.061903999999999994,0.036593,0.020651,0.009182,0.007882,119.736328,6.851046000000001,1.084965,0.767987,0.775508
25041,1645495581.434762,1645495581.458785,1.0,0.0,4314.871582,4741.025879,4183.077147999999,4267.692383,4272.820313,450.0,3.0,73.0,,,,0.0,4.0,4.0,4.0,0.0,4.0,66.666664,,,,,,,,,,,,,,,,,,,,,,,,,,,,,,,,,,,,,,,,,,,,,,,,,,,,,,,,,,,,,,,,,,,,,,,,,,,,,,,,,,,,
25042,1645495581.442576,1645495581.466601,2.0,0.0,4306.153809,4714.871582,4197.94873,4267.692383,4287.692383,16219.0,3.0,73.0,,,,0.0,4.0,4.0,4.0,0.0,4.0,66.666664,,,,,,,,1.0,0.0,0.360525,-0.32055700000000004,0.588623,0.648682,0.844251,-0.5337,-0.099611,-0.033656,-0.040013,-0.025592,,,,,,,,,,,,,,,,,,,,,,,,,,,,,,,,,,,,,,,,,,,,,,,,,,,,,,,,,,,,,,,,,
25043,1645495581.45039,1645495581.4743161,3.0,0.0,4276.922852000001,4692.307617,4184.615234000001,4267.692383,4282.05127,450.0,3.0,73.0,,,,0.0,4.0,4.0,4.0,0.0,4.0,66.666664,,,,,,,,,,,,,,,,,,,,,,,,,,,,,,,,,,,,,,,,,,,,,,,,,,,,,,,,,,,,,,,,,,,,,,,,,,,,,,,,,,,,
25044,1645495581.4582038,1645495581.482132,4.0,0.0,4289.230957,4697.436035,4170.256348,4267.692383,4264.615234000001,16149.0,3.0,73.0,,,,0.0,4.0,4.0,4.0,0.0,4.0,66.666664,,,,,,,,2.0,0.0,0.360525,-0.32055700000000004,0.588623,0.648682,0.8520639999999999,-0.542,-0.11230599999999999,-0.033611,-0.040016,-0.027915,,,,,,,,,,,,,,,,,,,,,,,,,,,,,,,,,,,0.0,0.0,1.0,0.0,128.0,1.0,,,,,,,,,,,,,,,,,,,,,,,,,
25045,1645495581.466018,1645495581.489947,5.0,0.0,4308.205078,4693.846191,4175.897461,4267.692383,4264.615234000001,450.0,3.0,73.0,,,,0.0,4.0,4.0,4.0,0.0,4.0,66.666664,,,,,,,,,,,,,,,,,,,,,,,,,,,,,,,,,,,,,,,,,,,,,,,,,,,,,,,,,,,,,,,,,,,,,,,,,,,,,,,,,,,,
25046,1645495581.4738321,1645495581.497762,6.0,0.0,4297.94873,4654.871582,4192.307617,4267.692383,4277.436035,16132.0,3.0,73.0,,,,0.0,4.0,4.0,4.0,0.0,4.0,66.666664,,,,,,,,3.0,0.0,0.360742,-0.320313,0.588623,0.648682,0.838392,-0.5297930000000001,-0.11035299999999999,-0.033619,-0.040067,-0.023805,,,,,,,,,,,,,,,,,,,,,,,,,,,,,,,,,,,,,,,,,,,,,,,,,,,,,,,,,,,,,,,,,
25047,1645495581.481646,1645495581.505578,7.0,0.0,4303.077147999999,4609.230957,4182.05127,4267.692383,4292.307617,450.0,3.0,73.0,,,,0.0,4.0,4.0,4.0,0.0,4.0,66.666664,,,,,,,,,,,,,,,,,,,,,,,,,,,,,,,,,,,,,,,,,,,,,,,,,,,,,,,,,,,,,,,,,,,,,,,,,,,,,,,,,,,,
25048,1645495581.48946,1645495581.513393,8.0,0.0,4318.974121,4601.538574,4173.846191,4267.692383,4285.641113000001,450.0,3.0,73.0,,,,0.0,4.0,4.0,4.0,0.0,4.0,66.666664,,,,,,,,4.0,0.0,0.360742,-0.320313,0.588623,0.648682,0.849134,-0.538094,-0.12255999999999999,-0.03348,-0.039918,-0.026357,,,,,,,,,,,,,,,,,,,,,,,,,,,,,,,,,,,0.0,0.0,1.0,0.0,128.0,1.0,,,,,,,,,,,,,,,,,,,,,,,,,
25049,1645495581.497274,1645495581.521209,9.0,0.0,4305.641113000001,4597.436035,4184.615234000001,4267.692383,4272.307617,0.0,3.0,73.0,,,,0.0,4.0,4.0,4.0,0.0,4.0,66.666664,,,,,,,,,,,,,,,,,,,,,,,,,,,,,,,,,,,,,,,,,,,,,,,,,,,,,,,,,,,,,,,,,,,,,,,,,,,,,,,,,,,,
25050,1645495581.505088,1645495581.5290241,10.0,0.0,4297.94873,4580.512695,4188.717772999999,4267.692383,4289.230957,450.0,3.0,73.0,,,,0.0,4.0,4.0,4.0,0.0,4.0,66.666664,,,,,,,,5.0,0.0,0.360742,-0.320313,0.588623,0.648682,0.839368,-0.5351640000000001,-0.116701,-0.033599000000000004,-0.039979,-0.028604,,,,,,,,,,,,,,,,,,,,,,,,,,,,,,,,,,,,,,,,,,,,,,,,,,,,,,,,,,,,,,,,,
25051,1645495581.512902,1645495581.5369391,11.0,0.0,4308.205078,4596.410156,4174.871582,4267.692383,4301.538574,16213.0,3.0,73.0,,,,0.0,4.0,4.0,4.0,0.0,4.0,66.666664,,,,,,,,,,,,,,,,,,,,,,,,,,,,,,,,,,,,,,,,,,,,,,,,,,,,,,,,,,,,,,,,,,,,,,,,,,,,,,,,,,,,
25052,1645495581.520716,1645495581.544755,12.0,0.0,4299.487305,4623.589844,4178.974121,4267.692383,4282.563965,450.0,3.0,73.0,,,,0.0,4.0,4.0,4.0,0.0,4.0,66.666664,,,,,,,,6.0,0.0,0.360742,-0.320313,0.588623,0.648682,0.864759,-0.55079,-0.105959,-0.033511,-0.039936,-0.030675,,,,,,,,,,,,,,,,,,,,,,,,,,,,,,,,,,,0.0,0.0,1.0,0.0,128.0,1.0,,,,,,,,,,,,,,,,,,,,,,,,,
25053,1645495581.5285301,1645495581.552571,13.0,0.0,4275.897461,4642.563965,4192.820313,4267.692383,4271.282227000001,450.0,3.0,73.0,,,,0.0,4.0,4.0,4.0,0.0,4.0,66.666664,,,,,,,,,,,,,,,,,,,,,,,,,,,,,,,,,,,,,,,,,,,,,,,,,,,,,,,,,,,,,,,,,,,,,,,,,,,,,,,,,,,,
25054,1645495581.536344,1645495581.560386,14.0,0.0,4267.692383,4668.205078,4181.538574,4267.692383,4275.384765999999,450.0,3.0,73.0,,,,0.0,4.0,4.0,4.0,0.0,4.0,66.666664,,,,,,,,7.0,0.0,0.36114,-0.320313,0.588379,0.648682,0.8530399999999999,-0.541024,-0.11133,-0.033625999999999996,-0.039947,-0.026289,,,,,,,,,,,,,,,,,,,,,,,,,,,,,,,,,,,,,,,,,,,,,,,,,,,,,,,,,,,,,,,,,
25055,1645495581.544158,1645495581.568202,15.0,0.0,4277.436035,4684.102539,4172.307617,4267.692383,4263.589844,16213.0,3.0,73.0,,,,0.0,4.0,4.0,4.0,0.0,4.0,66.666664,,,,,,,,,,,,,,,,,,,,,,,,,,,,,,,,,,,,,,,,,,,,,,,,,,,,,,,,,,,,,,,,,,,,,,,,,,,,,,,,,,,,
25056,1645495581.5519722,1645495581.576017,16.0,0.0,4280.512695,4671.794922,4187.179688,4267.692383,4254.358886999999,0.0,3.0,73.0,,,,0.0,4.0,4.0,4.0,0.0,4.0,66.666664,,,,,,,,8.0,0.0,0.36070100000000005,-0.320313,0.588379,0.648926,0.849134,-0.549325,-0.11084200000000001,-0.033535,-0.040005,-0.028592000000000003,1.0,0.0,0.0,,,,,,,,,,,,,,,,,,,,,,,,,,,,,,,,0.0,0.0,1.0,0.0,1.0,0.0,223.35409500000003,11.677934,2.126751,1.595764,0.9369629999999999,214.63678,13.419864000000002,12.712524,2.7280439999999997,4.060155,2.581905,0.8923260000000001,0.55279,0.43126000000000003,0.32334,0.029369,0.024033000000000002,0.014107,0.005778,0.004762,59.855582999999996,4.019642,0.870208,0.6190680000000001,0.7745770000000001
25057,1645495581.5597858,1645495581.583833,17.0,0.0,4277.94873,4650.256348,4196.922852000001,4267.692383,4267.692383,0.0,3.0,73.0,,,,0.0,4.0,4.0,4.0,0.0,4.0,66.666664,,,,,,,,,,,,,,,,,,,,,,,,,,,,,,,,,,,,,,,,,,,,,,,,,,,,,,,,,,,,,,,,,,,,,,,,,,,,,,,,,,,,
25058,1645495581.5676,1645495581.591649,18.0,0.0,4293.846191,4652.820313,4180.0,4267.692383,4262.05127,0.0,3.0,73.0,,,,0.0,4.0,4.0,4.0,0.0,4.0,66.666664,,,,,,,,9.0,0.0,0.360484,-0.32055700000000004,0.588379,0.648926,0.847669,-0.534676,-0.104005,-0.033551,-0.040007999999999995,-0.030664999999999998,,,,,,,,,,,,,,,,,,,,,,,,,,,,,,,,,,,,,,,,,,,,,,,,,,,,,,,,,,,,,,,,,
25059,1645495581.5754142,1645495581.5994642,19.0,0.0,4312.307617,4665.128418,4173.333496,4267.692383,4249.230957,0.0,3.0,73.0,,,,0.0,4.0,4.0,4.0,0.0,4.0,66.666664,,,,,,,,,,,,,,,,,,,,,,,,,,,,,,,,,,,,,,,,,,,,,,,,,,,,,,,,,,,,,,,,,,,,,,,,,,,,,,,,,,,,
25060,1645495581.5832279,1645495581.60728,20.0,0.0,4302.563965,4668.717772999999,4188.717772999999,4267.692383,4265.128418,0.0,3.0,73.0,,,,0.0,4.0,4.0,4.0,0.0,4.0,66.666664,,,,,,,,10.0,0.0,0.36114,-0.320313,0.588379,0.648682,0.8530399999999999,-0.541024,-0.11133,-0.033663,-0.040011,-0.02628,,,,,,,,,,,,,,,,,,,,,,,,,,,,,,,,,,,0.0,0.0,1.0,0.0,1.0,0.0,,,,,,,,,,,,,,,,,,,,,,,,,
25061,1645495581.591042,1645495581.614995,21.0,0.0,4283.589844,4672.820313,4204.102539,4267.692383,4271.794922,0.0,3.0,73.0,,,,0.0,4.0,4.0,4.0,0.0,4.0,66.666664,,,,,,,,,,,,,,,,,,,,,,,,,,,,,,,,,,,,,,,,,,,,,,,,,,,,,,,,,,,,,,,,,,,,,,,,,,,,,,,,,,,,
25062,1645495581.598856,1645495581.6228108,22.0,0.0,4289.743652,4672.820313,4190.256348,4267.692383,4261.025879,0.0,3.0,73.0,,,,0.0,4.0,4.0,4.0,0.0,4.0,66.666664,,,,,,,,11.0,0.0,0.360883,-0.32055700000000004,0.5881350000000001,0.648926,0.851575,-0.522469,-0.111818,-0.033714,-0.039965,-0.022236000000000002,,,,,,,,,,,,,,,,,,,,,,,,,,,,,,,,,,,,,,,,,,,,,,,,,,,,,,,,,,,,,,,,,
25063,1645495581.60667,1645495581.630626,23.0,0.0,4300.0,4673.333496,4182.563965,4267.179688,4271.794922,0.0,3.0,73.0,,,,0.0,4.0,4.0,4.0,0.0,4.0,66.666664,,,,,,,,,,,,,,,,,,,,,,,,,,,,,,,,,,,,,,,,,,,,,,,,,,,,,,,,,,,,,,,,,,,,,,,,,,,,,,,,,,,,
25064,1645495581.614484,1645495581.638441,24.0,0.0,4291.794922,4683.077147999999,4187.692383,4267.692383,4278.461426,0.0,3.0,73.0,,,,0.0,4.0,4.0,4.0,0.0,4.0,66.666664,,,,,,,,12.0,0.0,0.361321,-0.32055700000000004,0.5881350000000001,0.648682,0.8525520000000001,-0.526864,-0.104494,-0.033712,-0.039924,-0.024944,,,,,,,,,,,,,,,,,,,,,,,,,,,,,,,,,,,0.0,0.0,1.0,0.0,1.0,0.0,,,,,,,,,,,,,,,,,,,,,,,,,
25065,1645495581.622298,1645495581.646257,25.0,0.0,4290.256348,4662.563965,4194.358886999999,4267.692383,4255.897461,0.0,3.0,73.0,,,,0.0,4.0,4.0,4.0,0.0,4.0,66.666664,,,,,,,,,,,,,,,,,,,,,,,,,,,,,,,,,,,,,,,,,,,,,,,,,,,,,,,,,,,,,,,,,,,,,,,,,,,,,,,,,,,,
25066,1645495581.630112,1645495581.654072,26.0,0.0,4295.897461,4633.846191,4197.94873,4266.666504,4260.512695,0.0,3.0,73.0,,,,0.0,4.0,4.0,4.0,0.0,4.0,66.666664,,,,,,,,13.0,0.0,0.361105,-0.320801,0.5881350000000001,0.648682,0.8462040000000001,-0.526864,-0.109377,-0.033710000000000004,-0.039936,-0.027381,,,,,,,,,,,,,,,,,,,,,,,,,,,,,,,,,,,,,,,,,,,,,,,,,,,,,,,,,,,,,,,,,
25067,1645495581.6379259,1645495581.661887,27.0,0.0,4296.922852000001,4645.128418,4198.974121,4269.743652,4283.589844,0.0,3.0,73.0,,,,0.0,4.0,4.0,4.0,0.0,4.0,66.666664,,,,,,,,,,,,,,,,,,,,,,,,,,,,,,,,,,,,,,,,,,,,,,,,,,,,,,,,,,,,,,,,,,,,,,,,,,,,,,,,,,,,
25068,1645495581.64574,1645495581.669703,28.0,0.0,4305.128418,4623.077147999999,4187.179688,4273.846191,4280.512695,0.0,3.0,73.0,,,,0.0,4.0,4.0,4.0,0.0,4.0,66.666664,,,,,,,,14.0,0.0,0.360887,-0.32104499999999997,0.5881350000000001,0.648682,0.854994,-0.54493,-0.11425999999999999,-0.033658999999999994,-0.039751,-0.029575,,,,,,,,,,,,,,,,,,,,,,,,,,,,,,,,,,,0.0,0.0,1.0,0.0,1.0,0.0,,,,,,,,,,,,,,,,,,,,,,,,,
25069,1645495581.653554,1645495581.677518,29.0,0.0,4310.256348,4563.589844,4185.641113000001,4273.333496,4281.025879,0.0,3.0,73.0,,,,0.0,4.0,4.0,4.0,0.0,4.0,66.666664,,,,,,,,,,,,,,,,,,,,,,,,,,,,,,,,,,,,,,,,,,,,,,,,,,,,,,,,,,,,,,,,,,,,,,,,,,,,,,,,,,,,
25070,1645495581.661368,1645495581.685434,30.0,0.0,4293.333496,4549.743652,4197.94873,4271.794922,4291.282227000001,0.0,3.0,73.0,,,,0.0,4.0,4.0,4.0,0.0,4.0,66.666664,,,,,,,,15.0,0.0,0.360887,-0.32104499999999997,0.5881350000000001,0.648682,0.854017,-0.534676,-0.107424,-0.033614,-0.039827999999999995,-0.031403,,,,,,,,,,,,,,,,,,,,,,,,,,,,,,,,,,,,,,,,,,,,,,,,,,,,,,,,,,,,,,,,,
25071,1645495581.669182,1645495581.693249,31.0,0.0,4286.153809,4546.666504,4185.128418,4272.820313,4296.410156,0.0,3.0,73.0,,,,0.0,4.0,4.0,4.0,0.0,4.0,66.666664,,,,,,,,,,,,,,,,,,,,,,,,,,,,,,,,,,,,,,,,,,,,,,,,,,,,,,,,,,,,,,,,,,,,,,,,,,,,,,,,,,,,
25072,1645495581.676996,1645495581.701065,32.0,0.0,4296.410156,4536.922852000001,4170.769043,4273.333496,4291.282227000001,0.0,3.0,73.0,,,,0.0,4.0,4.0,4.0,0.0,4.0,66.666664,,,,,,,,16.0,0.0,0.36067,-0.321289,0.5881350000000001,0.648682,0.855482,-0.52491,-0.113283,-0.033622000000000006,-0.039702999999999995,-0.033194,1.0,0.0,0.0,,,,,,,,,,,,,,,,,,,,,,,,,,,,,,,,0.0,0.0,1.0,0.0,1.0,0.0,83.409233,5.411484,1.47366,1.311483,0.702942,171.376526,11.290686,11.864186,2.393015,4.143916,2.0637779999999997,0.698096,0.653395,0.362558,0.343317,0.011312000000000001,0.013477000000000001,0.008013,0.003053,0.002443,23.549259,2.324735,0.7809010000000001,0.516846,0.817524
25073,1645495581.68481,1645495581.7088802,33.0,0.0,4293.333496,4537.436035,4188.205078,4271.794922,4276.410156,0.0,3.0,73.0,,,,0.0,4.0,4.0,4.0,0.0,4.0,66.666664,,,,,,,,,,,,,,,,,,,,,,,,,,,,,,,,,,,,,,,,,,,,,,,,,,,,,,,,,,,,,,,,,,,,,,,,,,,,,,,,,,,,
25074,1645495581.692624,1645495581.716696,34.0,0.0,4301.538574,4528.717772999999,4200.0,4270.769043,4276.922852000001,0.0,3.0,73.0,,,,0.0,4.0,4.0,4.0,0.0,4.0,66.666664,,,,,,,,17.0,0.0,0.361109,-0.321289,0.5881350000000001,0.648438,0.8447389999999999,-0.541024,-0.10254100000000001,-0.03358,-0.039541,-0.034806000000000004,,,,,,,,,,,,,,,,,,,,,,,,,,,,,,,,,,,,,,,,,,,,,,,,,,,,,,,,,,,,,,,,,
25075,1645495581.700438,1645495581.7245119,35.0,0.0,4313.846191,4538.974121,4181.538574,4270.256348,4284.615234000001,0.0,3.0,73.0,,,,0.0,4.0,4.0,4.0,0.0,4.0,66.666664,,,,,,,,,,,,,,,,,,,,,,,,,,,,,,,,,,,,,,,,,,,,,,,,,,,,,,,,,,,,,,,,,,,,,,,,,,,,,,,,,,,,
25076,1645495581.708252,1645495581.732327,36.0,0.0,4314.358886999999,4561.538574,4176.410156,4270.769043,4282.563965,0.0,3.0,73.0,,,,0.0,4.0,4.0,4.0,0.0,4.0,66.666664,,,,,,,,18.0,0.0,0.360892,-0.321533,0.5881350000000001,0.648438,0.844251,-0.529305,-0.109865,-0.033493,-0.039689,-0.036257,,,,,,,,,,,,,,,,,,,,,,,,,,,,,,,,,,,0.0,0.0,1.0,0.0,1.0,0.0,,,,,,,,,,,,,,,,,,,,,,,,,
25077,1645495581.7160661,1645495581.740143,37.0,0.0,4324.102539,4542.563965,4182.05127,4270.256348,4273.333496,0.0,3.0,73.0,,,,0.0,4.0,4.0,4.0,0.0,4.0,66.666664,,,,,,,,,,,,,,,,,,,,,,,,,,,,,,,,,,,,,,,,,,,,,,,,,,,,,,,,,,,,,,,,,,,,,,,,,,,,,,,,,,,,
25078,1645495581.72388,1645495581.747958,38.0,0.0,4323.077147999999,4518.461426,4193.333496,4269.743652,4274.358886999999,0.0,3.0,73.0,,,,0.0,4.0,4.0,4.0,0.0,4.0,66.666664,,,,,,,,19.0,0.0,0.36128899999999997,-0.321533,0.5878909999999999,0.648438,0.8447389999999999,-0.529305,-0.098146,-0.033416,-0.039773,-0.031313,,,,,,,,,,,,,,,,,,,,,,,,,,,,,,,,,,,,,,,,,,,,,,,,,,,,,,,,,,,,,,,,,
25079,1645495581.731694,1645495581.755874,39.0,0.0,4297.94873,4509.743652,4198.461426,4271.282227000001,4287.179688,0.0,3.0,73.0,,,,0.0,4.0,4.0,4.0,0.0,4.0,66.666664,,,,,,,,,,,,,,,,,,,,,,,,,,,,,,,,,,,,,,,,,,,,,,,,,,,,,,,,,,,,,,,,,,,,,,,,,,,,,,,,,,,,
25080,1645495581.739508,1645495581.76369,40.0,0.0,4295.384765999999,4480.512695,4184.615234000001,4270.256348,4289.743652,0.0,3.0,73.0,,,,0.0,4.0,4.0,4.0,0.0,4.0,66.666664,,,,,,,,20.0,0.0,0.361072,-0.321777,0.5878909999999999,0.648438,0.849134,-0.532723,-0.10888800000000001,-0.033443,-0.039751,-0.033163,,,,,,,,,,,,,,,,,,,,,,,,,,,,,,,,,,,0.0,0.0,1.0,0.0,1.0,0.0,,,,,,,,,,,,,,,,,,,,,,,,,
25081,1645495581.747322,1645495581.771505,41.0,0.0,4323.589844,4448.205078,4168.205078,4269.230957,4287.179688,0.0,3.0,73.0,,,,0.0,4.0,4.0,4.0,0.0,4.0,66.666664,,,,,,,,,,,,,,,,,,,,,,,,,,,,,,,,,,,,,,,,,,,,,,,,,,,,,,,,,,,,,,,,,,,,,,,,,,,,,,,,,,,,
25082,1645495581.755136,1645495581.7793212,42.0,0.0,4327.179688,4445.128418,4185.128418,4275.384765999999,4297.436035,0.0,3.0,73.0,,,,0.0,4.0,4.0,4.0,0.0,4.0,66.666664,,,,,,,,21.0,0.0,0.361072,-0.321777,0.5878909999999999,0.648438,0.835462,-0.5302819999999999,-0.101564,-0.033468,-0.039731,-0.028527999999999998,,,,,,,,,,,,,,,,,,,,,,,,,,,,,,,,,,,,,,,,,,,,,,,,,,,,,,,,,,,,,,,,,
25083,1645495581.76295,1645495581.7871358,43.0,0.0,4302.563965,4450.256348,4192.820313,4277.436035,4297.94873,0.0,3.0,73.0,,,,0.0,4.0,4.0,4.0,0.0,4.0,66.666664,,,,,,,,,,,,,,,,,,,,,,,,,,,,,,,,,,,,,,,,,,,,,,,,,,,,,,,,,,,,,,,,,,,,,,,,,,,,,,,,,,,,
25084,1645495581.770764,1645495581.794952,44.0,0.0,4302.563965,4461.538574,4183.589844,4271.282227000001,4277.436035,0.0,3.0,73.0,,,,0.0,4.0,4.0,4.0,0.0,4.0,66.666664,,,,,,,,22.0,0.0,0.360854,-0.322021,0.5878909999999999,0.648438,0.839368,-0.516609,-0.11767799999999999,-0.033442,-0.039810000000000005,-0.030508999999999998,,,,,,,,,,,,,,,,,,,,,,,,,,,,,,,,,,,0.0,0.0,1.0,0.0,1.0,0.0,,,,,,,,,,,,,,,,,,,,,,,,,
25085,1645495581.778578,1645495581.802768,45.0,0.0,4318.974121,4482.563965,4184.615234000001,4270.256348,4272.820313,0.0,3.0,73.0,,,,0.0,4.0,4.0,4.0,0.0,4.0,66.666664,,,,,,,,,,,,,,,,,,,,,,,,,,,,,,,,,,,,,,,,,,,,,,,,,,,,,,,,,,,,,,,,,,,,,,,,,,,,,,,,,,,,
25086,1645495581.786392,1645495581.810583,46.0,0.0,4313.846191,4483.077147999999,4185.128418,4274.358886999999,4288.717772999999,0.0,3.0,73.0,,,,0.0,4.0,4.0,4.0,0.0,4.0,66.666664,,,,,,,,23.0,0.0,0.36125100000000004,-0.322021,0.587646,0.648438,0.862806,-0.522957,-0.107424,-0.033418,-0.039882,-0.025993000000000002,,,,,,,,,,,,,,,,,,,,,,,,,,,,,,,,,,,,,,,,,,,,,,,,,,,,,,,,,,,,,,,,,
25087,1645495581.7942061,1645495581.818399,47.0,0.0,4292.307617,4461.538574,4189.230957,4273.333496,4296.410156,0.0,3.0,73.0,,,,0.0,4.0,4.0,4.0,0.0,4.0,66.666664,,,,,,,,,,,,,,,,,,,,,,,,,,,,,,,,,,,,,,,,,,,,,,,,,,,,,,,,,,,,,,,,,,,,,,,,,,,,,,,,,,,,
25088,1645495581.8020198,1645495581.826314,48.0,0.0,4287.692383,4442.563965,4196.922852000001,4270.769043,4287.692383,0.0,3.0,73.0,,,,0.0,4.0,4.0,4.0,0.0,4.0,66.666664,,,,,,,,24.0,0.0,0.36125100000000004,-0.322021,0.587646,0.648438,0.851087,-0.5302819999999999,-0.08447400000000001,-0.033444999999999996,-0.039849,-0.022027,1.0,0.0,0.0,,,,,,,,,,,,,,,,,,,,,,,,,,,,,,,,0.0,0.0,1.0,0.0,1.0,0.0,21.696146,2.4495139999999997,1.295088,1.23918,0.639162,135.10836799999998,11.240634,13.198749,2.576174,4.04994,1.6837380000000002,0.5190020000000001,0.737205,0.326968,0.40137399999999995,0.0038689999999999996,0.006083,0.003498,0.00122,0.000986,7.467177,1.5567309999999999,0.805473,0.482817,0.879308
25089,1645495581.809834,1645495581.83413,49.0,0.0,4294.871582,4427.179688,4191.282227000001,4271.282227000001,4266.666504,0.0,3.0,73.0,,,,0.0,4.0,4.0,4.0,0.0,4.0,66.666664,,,,,,,,,,,,,,,,,,,,,,,,,,,,,,,,,,,,,,,,,,,,,,,,,,,,,,,,,,,,,,,,,,,,,,,,,,,,,,,,,,,,
25090,1645495581.817648,1645495581.841945,50.0,0.0,4295.384765999999,4422.563965,4182.563965,4270.256348,4273.333496,0.0,3.0,73.0,,,,0.0,4.0,4.0,4.0,0.0,4.0,66.666664,,,,,,,,25.0,0.0,0.36125100000000004,-0.322021,0.587646,0.648438,0.847669,-0.52784,-0.096193,-0.033421,-0.039868,-0.024707,,,,,,,,,,,,,,,,,,,,,,,,,,,,,,,,,,,,,,,,,,,,,,,,,,,,,,,,,,,,,,,,,
25091,1645495581.8254619,1645495581.849761,51.0,0.0,4300.512695,4414.871582,4200.512695,4270.256348,4310.769043,0.0,3.0,73.0,,,,0.0,4.0,4.0,4.0,0.0,4.0,66.666664,,,,,,,,,,,,,,,,,,,,,,,,,,,,,,,,,,,,,,,,,,,,,,,,,,,,,,,,,,,,,,,,,,,,,,,,,,,,,,,,,,,,
25092,1645495581.833276,1645495581.8575768,52.0,0.0,4318.461426,4394.358886999999,4208.717772999999,4270.256348,4312.307617,0.0,3.0,73.0,,,,0.0,4.0,4.0,4.0,0.0,4.0,66.666664,,,,,,,,26.0,0.0,0.361469,-0.321777,0.587646,0.648438,0.851575,-0.527352,-0.101564,-0.033448,-0.039934,-0.020819999999999998,,,,,,,,,,,,,,,,,,,,,,,,,,,,,,,,,,,0.0,0.0,1.0,0.0,1.0,0.0,,,,,,,,,,,,,,,,,,,,,,,,,
25093,1645495581.84109,1645495581.865392,53.0,0.0,4331.794922,4400.512695,4200.512695,4269.743652,4291.282227000001,0.0,3.0,73.0,,,,0.0,4.0,4.0,4.0,0.0,4.0,66.666664,,,,,,,,,,,,,,,,,,,,,,,,,,,,,,,,,,,,,,,,,,,,,,,,,,,,,,,,,,,,,,,,,,,,,,,,,,,,,,,,,,,,
