,Timestamp,OriginalTimestamp,EEG.Counter,EEG.Interpolated,EEG.AF3,EEG.T7,EEG.Pz,EEG.T8,EEG.AF4,EEG.RawCq,EEG.Battery,EEG.BatteryPercent,MarkerIndex,MarkerType,MarkerValueInt,EEG.MarkerHardware,CQ.AF3,CQ.T7,CQ.Pz,CQ.T8,CQ.AF4,CQ.Overall,EQ.SampleRateQuality,EQ.OVERALL,EQ.AF3,EQ.T7,EQ.Pz,EQ.T8,EQ.AF4,MOT.CounterMems,MOT.InterpolatedMems,MOT.Q0,MOT.Q1,MOT.Q2,MOT.Q3,MOT.AccX,MOT.AccY,MOT.AccZ,MOT.MagX,MOT.MagY,MOT.MagZ,MC.Action,MC.ActionPower,MC.IsActive,PM.Engagement.IsActive,PM.Engagement.Scaled,PM.Engagement.Raw,PM.Engagement.Min,PM.Engagement.Max,PM.Excitement.IsActive,PM.Excitement.Scaled,PM.Excitement.Raw,PM.Excitement.Min,PM.Excitement.Max,PM.LongTermExcitement,PM.Stress.IsActive,PM.Stress.Scaled,PM.Stress.Raw,PM.Stress.Min,PM.Stress.Max,PM.Relaxation.IsActive,PM.Relaxation.Scaled,PM.Relaxation.Raw,PM.Relaxation.Min,PM.Relaxation.Max,PM.Interest.IsActive,PM.Interest.Scaled,PM.Interest.Raw,PM.Interest.Min,PM.Interest.Max,PM.Focus.IsActive,PM.Focus.Scaled,PM.Focus.Raw,PM.Focus.Min,PM.Focus.Max,FE.BlinkWink,FE.HorizontalEyesDirection,FE.UpperFaceAction,FE.UpperFaceActionPower,FE.LowerFaceAction,FE.LowerFaceActionPower,POW.AF3.Theta,POW.AF3.Alpha,POW.AF3.BetaL,POW.AF3.BetaH,POW.AF3.Gamma,POW.T7.Theta,POW.T7.Alpha,POW.T7.BetaL,POW.T7.BetaH,POW.T7.Gamma,POW.Pz.Theta,POW.Pz.Alpha,POW.Pz.BetaL,POW.Pz.BetaH,POW.Pz.Gamma,POW.T8.Theta,POW.T8.Alpha,POW.T8.BetaL,POW.T8.BetaH,POW.T8.Gamma,POW.AF4.Theta,POW.AF4.Alpha,POW.AF4.BetaL,POW.AF4.BetaH,POW.AF4.Gamma
22962,1645495565.189442,1645495565.221475,98.0,0.0,4483.077147999999,1826.153809,4309.230957,4279.487305,4628.205078,450.0,3.0,73.0,,,,0.0,4.0,4.0,4.0,0.0,4.0,66.666664,,,,,,,,49.0,0.0,0.36002399999999996,-0.313721,0.591797,0.649414,0.830091,-0.542,-0.095705,-0.033197000000000004,-0.040675,-0.030298000000000002,,,,,,,,,,,,,,,,,,,,,,,,,,,,,,,,,,,,,,,,,,,,,,,,,,,,,,,,,,,,,,,,,
22963,1645495565.197256,1645495565.22929,99.0,0.0,4483.077147999999,1789.74353,4320.512695,4279.487305,4649.230957,16212.0,3.0,73.0,,,,0.0,4.0,4.0,4.0,0.0,4.0,66.666664,,,,,,,,,,,,,,,,,,,,,,,,,,,,,,,,,,,,,,,,,,,,,,,,,,,,,,,,,,,,,,,,,,,,,,,,,,,,,,,,,,,,
22964,1645495565.20507,1645495565.237005,100.0,0.0,4520.0,1816.410278,4329.230957,4279.487305,4647.692383,450.0,3.0,73.0,,,,0.0,4.0,4.0,4.0,0.0,4.0,66.666664,,,,,,,,50.0,0.0,0.36002399999999996,-0.313721,0.591797,0.649414,0.8608530000000001,-0.539559,-0.10351700000000001,-0.0331,-0.040611,-0.032102,,,,,,,,,,,,,,,,,,,,,,,,,,,,,,,,,,,0.0,0.0,1.0,0.0,128.0,1.0,,,,,,,,,,,,,,,,,,,,,,,,,
22965,1645495565.212884,1645495565.244819,101.0,0.0,4517.436035,1804.102539,4325.641113000001,4279.487305,4631.282227000001,450.0,3.0,73.0,,,,0.0,4.0,4.0,4.0,0.0,4.0,66.666664,,,,,,,,,,,,,,,,,,,,,,,,,,,,,,,,,,,,,,,,,,,,,,,,,,,,,,,,,,,,,,,,,,,,,,,,,,,,,,,,,,,,
22966,1645495565.220698,1645495565.252634,102.0,0.0,4481.538574,1748.717896,4317.436035,4279.487305,4621.538574,450.0,3.0,73.0,,,,0.0,4.0,4.0,4.0,0.0,4.0,66.666664,,,,,,,,51.0,0.0,0.360464,-0.313721,0.591797,0.64917,0.8525520000000001,-0.543954,-0.11767799999999999,-0.033012,-0.040505,-0.033824,,,,,,,,,,,,,,,,,,,,,,,,,,,,,,,,,,,,,,,,,,,,,,,,,,,,,,,,,,,,,,,,,
22967,1645495565.2285118,1645495565.260449,103.0,0.0,4483.077147999999,1736.410278,4309.743652,4279.487305,4629.743652,16212.0,3.0,73.0,,,,0.0,4.0,4.0,4.0,0.0,4.0,66.666664,,,,,,,,,,,,,,,,,,,,,,,,,,,,,,,,,,,,,,,,,,,,,,,,,,,,,,,,,,,,,,,,,,,,,,,,,,,,,,,,,,,,
22968,1645495565.236326,1645495565.268264,104.0,0.0,4500.0,1752.307739,4309.743652,4279.487305,4648.205078,450.0,3.0,73.0,,,,0.0,4.0,4.0,4.0,0.0,4.0,66.666664,,,,,,,,52.0,0.0,0.360464,-0.313721,0.591797,0.64917,0.855482,-0.532723,-0.11425999999999999,-0.033031,-0.040458999999999995,-0.035373,,,,,,,,,,,,,,,,,,,,,,,,,,,,,,,,,,,0.0,0.0,1.0,0.0,128.0,1.0,,,,,,,,,,,,,,,,,,,,,,,,,
22969,1645495565.2441401,1645495565.276079,105.0,0.0,4496.922852000001,1772.820557,4325.128418,4279.487305,4661.538574,450.0,3.0,73.0,,,,0.0,4.0,4.0,4.0,0.0,4.0,66.666664,,,,,,,,,,,,,,,,,,,,,,,,,,,,,,,,,,,,,,,,,,,,,,,,,,,,,,,,,,,,,,,,,,,,,,,,,,,,,,,,,,,,
22970,1645495565.2519538,1645495565.283894,106.0,0.0,4499.487305,1787.692261,4330.769043,4279.487305,4664.102539,450.0,3.0,73.0,,,,0.0,4.0,4.0,4.0,0.0,4.0,66.666664,,,,,,,,53.0,0.0,0.360464,-0.313721,0.591797,0.64917,0.844251,-0.534676,-0.11035299999999999,-0.033049,-0.040466,-0.036816,,,,,,,,,,,,,,,,,,,,,,,,,,,,,,,,,,,,,,,,,,,,,,,,,,,,,,,,,,,,,,,,,
22971,1645495565.259768,1645495565.291709,107.0,0.0,4514.871582,1770.769287,4335.384765999999,4279.487305,4662.563965,16212.0,3.0,73.0,,,,0.0,4.0,4.0,4.0,0.0,4.0,66.666664,,,,,,,,,,,,,,,,,,,,,,,,,,,,,,,,,,,,,,,,,,,,,,,,,,,,,,,,,,,,,,,,,,,,,,,,,,,,,,,,,,,,
22972,1645495565.267582,1645495565.299424,108.0,0.0,4518.461426,1747.179443,4335.384765999999,4279.487305,4685.641113000001,450.0,3.0,73.0,,,,0.0,4.0,4.0,4.0,0.0,4.0,66.666664,,,,,,,,54.0,0.0,0.360464,-0.313721,0.591797,0.64917,0.8296020000000001,-0.532235,-0.11133,-0.033014999999999996,-0.040374,-0.031767000000000004,,,,,,,,,,,,,,,,,,,,,,,,,,,,,,,,,,,0.0,0.0,1.0,0.0,128.0,1.0,,,,,,,,,,,,,,,,,,,,,,,,,
22973,1645495565.275396,1645495565.307239,109.0,0.0,4522.05127,1755.897461,4331.282227000001,4279.487305,4707.179688,450.0,3.0,73.0,,,,0.0,4.0,4.0,4.0,0.0,4.0,66.666664,,,,,,,,,,,,,,,,,,,,,,,,,,,,,,,,,,,,,,,,,,,,,,,,,,,,,,,,,,,,,,,,,,,,,,,,,,,,,,,,,,,,
22974,1645495565.28321,1645495565.315054,110.0,0.0,4516.922852000001,1754.871826,4325.128418,4279.487305,4679.487305,450.0,3.0,73.0,,,,0.0,4.0,4.0,4.0,0.0,4.0,66.666664,,,,,,,,55.0,0.0,0.360652,-0.313965,0.591553,0.64917,0.8462040000000001,-0.5337,-0.10547000000000001,-0.033132,-0.040536,-0.033326999999999996,,,,,,,,,,,,,,,,,,,,,,,,,,,,,,,,,,,,,,,,,,,,,,,,,,,,,,,,,,,,,,,,,
22975,1645495565.291024,1645495565.322869,111.0,0.0,4497.436035,1749.230713,4332.307617,4279.487305,4652.307617,16212.0,3.0,73.0,,,,0.0,4.0,4.0,4.0,0.0,4.0,66.666664,,,,,,,,,,,,,,,,,,,,,,,,,,,,,,,,,,,,,,,,,,,,,,,,,,,,,,,,,,,,,,,,,,,,,,,,,,,,,,,,,,,,
22976,1645495565.2988381,1645495565.330684,112.0,0.0,4491.282227000001,1763.076904,4338.974121,4279.487305,4670.256348,450.0,3.0,73.0,,,,0.0,4.0,4.0,4.0,0.0,4.0,66.666664,,,,,,,,56.0,0.0,0.360212,-0.313965,0.591553,0.649414,0.8369270000000001,-0.549813,-0.10254100000000001,-0.033139,-0.040535,-0.034975,1.0,0.0,0.0,,,,,,,,,,,,,,,,,,,,,,,,,,,,,,,,0.0,0.0,1.0,0.0,128.0,1.0,12.201995,5.5291239999999995,1.181594,1.5756860000000001,1.8688799999999999,42.240238,46.992432,11.470077,9.376516,4.630721,4.091033,1.925843,1.898639,0.43121899999999996,0.5480659999999999,0.01169,0.003145,0.0041659999999999996,0.005104999999999999,0.010653,7.41092,10.64568,1.5295100000000001,0.852461,0.574499
22977,1645495565.306652,1645495565.3385,113.0,0.0,4502.563965,1748.717896,4341.025879,4279.487305,4688.717772999999,450.0,3.0,73.0,,,,0.0,4.0,4.0,4.0,0.0,4.0,66.666664,,,,,,,,,,,,,,,,,,,,,,,,,,,,,,,,,,,,,,,,,,,,,,,,,,,,,,,,,,,,,,,,,,,,,,,,,,,,,,,,,,,,
22978,1645495565.314466,1645495565.3463151,114.0,0.0,4507.179688,1737.94873,4337.94873,4279.487305,4678.461426,450.0,3.0,73.0,,,,0.0,4.0,4.0,4.0,0.0,4.0,66.666664,,,,,,,,57.0,0.0,0.360212,-0.313965,0.591553,0.649414,0.8437629999999999,-0.540536,-0.11230599999999999,-0.033194,-0.040535,-0.03011,,,,,,,,,,,,,,,,,,,,,,,,,,,,,,,,,,,,,,,,,,,,,,,,,,,,,,,,,,,,,,,,,
22979,1645495565.3222802,1645495565.35413,115.0,0.0,4485.128418,1767.179443,4342.05127,4279.487305,4668.717772999999,16212.0,3.0,73.0,,,,0.0,4.0,4.0,4.0,0.0,4.0,66.666664,,,,,,,,,,,,,,,,,,,,,,,,,,,,,,,,,,,,,,,,,,,,,,,,,,,,,,,,,,,,,,,,,,,,,,,,,,,,,,,,,,,,
22980,1645495565.3300939,1645495565.361945,116.0,0.0,4473.846191,1769.74353,4352.307617,4279.487305,4677.436035,450.0,3.0,73.0,,,,0.0,4.0,4.0,4.0,0.0,4.0,66.666664,,,,,,,,58.0,0.0,0.360212,-0.313965,0.591553,0.649414,0.851575,-0.560067,-0.10254100000000001,-0.033195,-0.04068,-0.032080000000000004,,,,,,,,,,,,,,,,,,,,,,,,,,,,,,,,,,,0.0,0.0,1.0,0.0,128.0,1.0,,,,,,,,,,,,,,,,,,,,,,,,,
22981,1645495565.337908,1645495565.36976,117.0,0.0,4498.461426,1735.3846440000002,4345.128418,4279.487305,4691.794922,450.0,3.0,73.0,,,,0.0,4.0,4.0,4.0,0.0,4.0,66.666664,,,,,,,,,,,,,,,,,,,,,,,,,,,,,,,,,,,,,,,,,,,,,,,,,,,,,,,,,,,,,,,,,,,,,,,,,,,,,,,,,,,,
22982,1645495565.345722,1645495565.377475,118.0,0.0,4525.128418,1725.640991,4328.205078,4279.487305,4703.077147999999,450.0,3.0,73.0,,,,0.0,4.0,4.0,4.0,0.0,4.0,66.666664,,,,,,,,59.0,0.0,0.360425,-0.313721,0.591553,0.649414,0.839857,-0.548837,-0.11425999999999999,-0.033195999999999996,-0.040568,-0.033755,,,,,,,,,,,,,,,,,,,,,,,,,,,,,,,,,,,,,,,,,,,,,,,,,,,,,,,,,,,,,,,,,
22983,1645495565.353536,1645495565.3852901,119.0,0.0,4546.666504,1729.230713,4342.05127,4279.487305,4703.077147999999,16212.0,3.0,73.0,,,,0.0,4.0,4.0,4.0,0.0,4.0,66.666664,,,,,,,,,,,,,,,,,,,,,,,,,,,,,,,,,,,,,,,,,,,,,,,,,,,,,,,,,,,,,,,,,,,,,,,,,,,,,,,,,,,,
22984,1645495565.36135,1645495565.393105,120.0,0.0,4553.846191,1714.359009,4358.974121,4279.487305,4703.589844,450.0,3.0,73.0,,,,0.0,4.0,4.0,4.0,0.0,4.0,66.666664,,,,,,,,60.0,0.0,0.360212,-0.313965,0.591553,0.649414,0.8437629999999999,-0.540536,-0.11230599999999999,-0.033294,-0.040612,-0.035311,,,,,,,,,,,,,,,,,,,,,,,,,,,,,,,,,,,0.0,0.0,1.0,0.0,128.0,1.0,,,,,,,,,,,,,,,,,,,,,,,,,
22985,1645495565.369164,1645495565.40092,121.0,0.0,4540.0,1703.589722,4340.512695,4279.487305,4709.230957,450.0,3.0,73.0,,,,0.0,4.0,4.0,4.0,0.0,4.0,66.666664,,,,,,,,,,,,,,,,,,,,,,,,,,,,,,,,,,,,,,,,,,,,,,,,,,,,,,,,,,,,,,,,,,,,,,,,,,,,,,,,,,,,
22986,1645495565.376978,1645495565.408735,122.0,0.0,4537.94873,1711.7949219999998,4329.230957,4279.487305,4707.692383,450.0,3.0,73.0,,,,0.0,4.0,4.0,4.0,0.0,4.0,66.666664,,,,,,,,61.0,0.0,0.360425,-0.313721,0.591553,0.649414,0.839857,-0.548837,-0.11425999999999999,-0.033285,-0.040506,-0.036663,,,,,,,,,,,,,,,,,,,,,,,,,,,,,,,,,,,,,,,,,,,,,,,,,,,,,,,,,,,,,,,,,
22987,1645495565.384792,1645495565.416549,123.0,0.0,4548.205078,1721.0256350000002,4341.538574,4279.487305,4702.563965,16212.0,3.0,73.0,,,,0.0,4.0,4.0,4.0,0.0,4.0,66.666664,,,,,,,,,,,,,,,,,,,,,,,,,,,,,,,,,,,,,,,,,,,,,,,,,,,,,,,,,,,,,,,,,,,,,,,,,,,,,,,,,,,,
22988,1645495565.392606,1645495565.424364,124.0,0.0,4532.307617,1721.538452,4352.307617,4279.487305,4703.589844,450.0,3.0,73.0,,,,0.0,4.0,4.0,4.0,0.0,4.0,66.666664,,,,,,,,62.0,0.0,0.36002399999999996,-0.313721,0.591797,0.649414,0.8574350000000001,-0.5297930000000001,-0.109865,-0.033228,-0.040507999999999995,-0.037927999999999996,,,,,,,,,,,,,,,,,,,,,,,,,,,,,,,,,,,0.0,0.0,1.0,0.0,128.0,1.0,,,,,,,,,,,,,,,,,,,,,,,,,
22989,1645495565.40042,1645495565.432179,125.0,0.0,4506.666504,1747.179443,4339.487305,4279.487305,4707.179688,450.0,3.0,73.0,,,,0.0,4.0,4.0,4.0,0.0,4.0,66.666664,,,,,,,,,,,,,,,,,,,,,,,,,,,,,,,,,,,,,,,,,,,,,,,,,,,,,,,,,,,,,,,,,,,,,,,,,,,,,,,,,,,,
22990,1645495565.408234,1645495565.4399939,126.0,0.0,4509.230957,1801.0256350000002,4336.410156,4279.487305,4692.820313,450.0,3.0,73.0,,,,0.0,4.0,4.0,4.0,0.0,4.0,66.666664,,,,,,,,63.0,0.0,0.360464,-0.313721,0.591797,0.64917,0.850599,-0.548837,-0.098146,-0.033177,-0.040559,-0.039116000000000005,,,,,,,,,,,,,,,,,,,,,,,,,,,,,,,,,,,,,,,,,,,,,,,,,,,,,,,,,,,,,,,,,
22991,1645495565.416048,1645495565.447709,127.0,0.0,4525.128418,1796.410278,4340.512695,4279.487305,4686.153809,238.0,3.0,73.0,,,,0.0,4.0,4.0,4.0,0.0,4.0,66.666664,,,,,,,,,,,,,,,,,,,,,,,,,,,,,,,,,,,,,,,,,,,,,,,,,,,,,,,,,,,,,,,,,,,,,,,,,,,,,,,,,,,,
22992,1645495565.423862,1645495565.455524,0.0,0.0,4529.743652,1743.589722,4345.128418,4279.487305,4710.256348,450.0,3.0,73.0,,,,0.0,4.0,4.0,4.0,0.0,4.0,66.666664,1.0,25.0,3.0,0.0,3.0,0.0,3.0,0.0,0.0,0.36025100000000004,-0.313965,0.591797,0.64917,0.847669,-0.546395,-0.102052,-0.033131,-0.040605,-0.033935,1.0,0.0,0.0,1.0,0.574008,0.8054399999999999,-0.273144,1.7160819999999999,1.0,0.229924,6.551279,1.538342,20.683255,0.23595300000000002,1.0,0.413707,-0.072007,-0.265822,0.18515399999999999,1.0,0.35888600000000004,0.423325,-0.6395489999999999,2.18533,1.0,0.49184700000000003,2.379013,-42.158947999999995,48.798826,1.0,0.400446,0.5593239999999999,0.490238,0.661234,0.0,0.0,1.0,0.0,128.0,1.0,14.283279,7.220955,1.2507409999999999,1.8614169999999999,1.7832299999999999,38.205669,46.335255,8.796344,8.020734,4.438737000000001,3.591132,2.028708,1.7766060000000001,0.449647,0.610824,0.020218,0.005864,0.008827,0.010775,0.022921,7.234242999999999,12.793594,1.61724,0.900285,0.637479
22993,1645495565.431676,1645495565.46334,1.0,0.0,4516.922852000001,1737.94873,4353.846191,4279.487305,4717.94873,450.0,3.0,73.0,,,,0.0,4.0,4.0,4.0,0.0,4.0,66.666664,,,,,,,,,,,,,,,,,,,,,,,,,,,,,,,,,,,,,,,,,,,,,,,,,,,,,,,,,,,,,,,,,,,,,,,,,,,,,,,,,,,,
22994,1645495565.43949,1645495565.4711552,2.0,0.0,4515.384765999999,1762.05127,4366.666504,4279.487305,4708.717772999999,16210.0,3.0,73.0,,,,0.0,4.0,4.0,4.0,0.0,4.0,66.666664,,,,,,,,1.0,0.0,0.359811,-0.313965,0.591797,0.649414,0.8452280000000001,-0.543954,-0.104494,-0.033187,-0.040548,-0.035473000000000005,,,,,,,,,,,,,,,,,,,,,,,,,,,,,,,,,,,,,,,,,,,,,,,,,,,,,,,,,,,,,,,,,
22995,1645495565.447304,1645495565.4789698,3.0,0.0,4534.358886999999,1756.410278,4360.0,4279.487305,4707.179688,450.0,3.0,73.0,,,,0.0,4.0,4.0,4.0,0.0,4.0,66.666664,,,,,,,,,,,,,,,,,,,,,,,,,,,,,,,,,,,,,,,,,,,,,,,,,,,,,,,,,,,,,,,,,,,,,,,,,,,,,,,,,,,,
22996,1645495565.455118,1645495565.486785,4.0,0.0,4534.871582,1736.410278,4347.692383,4279.487305,4704.102539,16067.0,3.0,73.0,,,,0.0,4.0,4.0,4.0,0.0,4.0,66.666664,,,,,,,,2.0,0.0,0.359811,-0.313965,0.591797,0.649414,0.849134,-0.541512,-0.10009900000000001,-0.033139999999999996,-0.040546,-0.036857,,,,,,,,,,,,,,,,,,,,,,,,,,,,,,,,,,,0.0,0.0,1.0,0.0,128.0,1.0,,,,,,,,,,,,,,,,,,,,,,,,,
22997,1645495565.462932,1645495565.4946,5.0,0.0,4530.256348,1740.5128170000003,4357.436035,4279.487305,4705.641113000001,450.0,3.0,73.0,,,,0.0,4.0,4.0,4.0,0.0,4.0,66.666664,,,,,,,,,,,,,,,,,,,,,,,,,,,,,,,,,,,,,,,,,,,,,,,,,,,,,,,,,,,,,,,,,,,,,,,,,,,,,,,,,,,,
22998,1645495565.470746,1645495565.502415,6.0,0.0,4534.871582,1753.3333739999998,4363.077147999999,4279.487305,4714.871582,16124.0,3.0,73.0,,,,0.0,4.0,4.0,4.0,0.0,4.0,66.666664,,,,,,,,3.0,0.0,0.36002399999999996,-0.313721,0.591797,0.649414,0.8403450000000001,-0.553719,-0.11425999999999999,-0.033145999999999995,-0.040593000000000004,-0.031804,,,,,,,,,,,,,,,,,,,,,,,,,,,,,,,,,,,,,,,,,,,,,,,,,,,,,,,,,,,,,,,,,
22999,1645495565.47856,1645495565.51023,7.0,0.0,4530.256348,1750.25647,4351.794922,4279.487305,4710.769043,450.0,3.0,73.0,,,,0.0,4.0,4.0,4.0,0.0,4.0,66.666664,,,,,,,,,,,,,,,,,,,,,,,,,,,,,,,,,,,,,,,,,,,,,,,,,,,,,,,,,,,,,,,,,,,,,,,,,,,,,,,,,,,,
23000,1645495565.4863741,1645495565.518045,8.0,0.0,4531.794922,1750.769287,4349.230957,4279.487305,4695.897461,450.0,3.0,73.0,,,,0.0,4.0,4.0,4.0,0.0,4.0,66.666664,,,,,,,,4.0,0.0,0.36002399999999996,-0.313721,0.591797,0.649414,0.8379030000000001,-0.5473720000000001,-0.118654,-0.03325,-0.040587,-0.027257,,,,,,,,,,,,,,,,,,,,,,,,,,,,,,,,,,,0.0,0.0,1.0,0.0,128.0,1.0,,,,,,,,,,,,,,,,,,,,,,,,,
23001,1645495565.494188,1645495565.525761,9.0,0.0,4550.256348,1773.3333739999998,4353.846191,4279.487305,4702.563965,0.0,3.0,73.0,,,,0.0,4.0,4.0,4.0,0.0,4.0,66.666664,,,,,,,,,,,,,,,,,,,,,,,,,,,,,,,,,,,,,,,,,,,,,,,,,,,,,,,,,,,,,,,,,,,,,,,,,,,,,,,,,,,,
23002,1645495565.502002,1645495565.533576,10.0,0.0,4555.897461,1790.769287,4349.743652,4279.487305,4711.794922,450.0,3.0,73.0,,,,0.0,4.0,4.0,4.0,0.0,4.0,66.666664,,,,,,,,5.0,0.0,0.36002399999999996,-0.313721,0.591797,0.649414,0.839368,-0.5512779999999999,-0.103029,-0.033343,-0.040727,-0.023262,,,,,,,,,,,,,,,,,,,,,,,,,,,,,,,,,,,,,,,,,,,,,,,,,,,,,,,,,,,,,,,,,
23003,1645495565.509816,1645495565.5413911,11.0,0.0,4540.0,1797.4359129999998,4354.358886999999,4279.487305,4711.794922,16224.0,3.0,73.0,,,,0.0,4.0,4.0,4.0,0.0,4.0,66.666664,,,,,,,,,,,,,,,,,,,,,,,,,,,,,,,,,,,,,,,,,,,,,,,,,,,,,,,,,,,,,,,,,,,,,,,,,,,,,,,,,,,,
23004,1645495565.51763,1645495565.549206,12.0,0.0,4538.974121,1826.153809,4360.512695,4279.487305,4721.025879,450.0,3.0,73.0,,,,0.0,4.0,4.0,4.0,0.0,4.0,66.666664,,,,,,,,6.0,0.0,0.36002399999999996,-0.313721,0.591797,0.649414,0.8535290000000001,-0.548348,-0.11767799999999999,-0.033378,-0.040756,-0.025818,,,,,,,,,,,,,,,,,,,,,,,,,,,,,,,,,,,0.0,0.0,1.0,0.0,128.0,1.0,,,,,,,,,,,,,,,,,,,,,,,,,
23005,1645495565.525444,1645495565.5570211,13.0,0.0,4563.589844,1830.25647,4372.307617,4279.487305,4740.0,450.0,3.0,73.0,,,,0.0,4.0,4.0,4.0,0.0,4.0,66.666664,,,,,,,,,,,,,,,,,,,,,,,,,,,,,,,,,,,,,,,,,,,,,,,,,,,,,,,,,,,,,,,,,,,,,,,,,,,,,,,,,,,,
23006,1645495565.533258,1645495565.564836,14.0,0.0,4571.282227000001,1770.25647,4376.410156,4279.487305,4745.641113000001,450.0,3.0,73.0,,,,0.0,4.0,4.0,4.0,0.0,4.0,66.666664,,,,,,,,7.0,0.0,0.360464,-0.313721,0.591797,0.64917,0.847181,-0.546883,-0.1084,-0.03336,-0.040831,-0.021967,,,,,,,,,,,,,,,,,,,,,,,,,,,,,,,,,,,,,,,,,,,,,,,,,,,,,,,,,,,,,,,,,
23007,1645495565.5410721,1645495565.572651,15.0,0.0,4552.820313,1715.897461,4369.230957,4279.487305,4731.282227000001,16224.0,3.0,73.0,,,,0.0,4.0,4.0,4.0,0.0,4.0,66.666664,,,,,,,,,,,,,,,,,,,,,,,,,,,,,,,,,,,,,,,,,,,,,,,,,,,,,,,,,,,,,,,,,,,,,,,,,,,,,,,,,,,,
23008,1645495565.5488858,1645495565.580467,16.0,0.0,4540.512695,1713.3333739999998,4360.512695,4279.487305,4735.384765999999,0.0,3.0,73.0,,,,0.0,4.0,4.0,4.0,0.0,4.0,66.666664,,,,,,,,8.0,0.0,0.360464,-0.313721,0.591797,0.64917,0.845716,-0.551766,-0.12109600000000001,-0.033442,-0.040654,-0.024702,1.0,0.0,0.0,,,,,,,,,,,,,,,,,,,,,,,,,,,,,,,,0.0,0.0,1.0,0.0,128.0,1.0,15.277057000000001,8.733981,1.231407,1.963123,1.615428,23.853302,41.203213,6.956237,6.697699000000001,4.322048000000001,3.111967,1.9598470000000001,1.5501610000000001,0.464013,0.6721020000000001,0.030986,0.010339,0.016896,0.018525,0.039211,7.232537,14.05587,1.6022370000000001,0.9045139999999999,0.763901
23009,1645495565.5567,1645495565.588282,17.0,0.0,4531.282227000001,1722.5640870000002,4370.769043,4279.487305,4755.897461,0.0,3.0,73.0,,,,0.0,4.0,4.0,4.0,0.0,4.0,66.666664,,,,,,,,,,,,,,,,,,,,,,,,,,,,,,,,,,,,,,,,,,,,,,,,,,,,,,,,,,,,,,,,,,,,,,,,,,,,,,,,,,,,
23010,1645495565.5645142,1645495565.595997,18.0,0.0,4505.641113000001,1728.2050780000002,4376.410156,4279.487305,4745.641113000001,0.0,3.0,73.0,,,,0.0,4.0,4.0,4.0,0.0,4.0,66.666664,,,,,,,,9.0,0.0,0.360464,-0.313721,0.591797,0.64917,0.8403450000000001,-0.52784,-0.11523599999999999,-0.033320999999999996,-0.040642000000000005,-0.020913,,,,,,,,,,,,,,,,,,,,,,,,,,,,,,,,,,,,,,,,,,,,,,,,,,,,,,,,,,,,,,,,,
23011,1645495565.5723279,1645495565.603812,19.0,0.0,4501.538574,1746.153809,4364.102539,4279.487305,4722.563965,0.0,3.0,73.0,,,,0.0,4.0,4.0,4.0,0.0,4.0,66.666664,,,,,,,,,,,,,,,,,,,,,,,,,,,,,,,,,,,,,,,,,,,,,,,,,,,,,,,,,,,,,,,,,,,,,,,,,,,,,,,,,,,,
23012,1645495565.580142,1645495565.6116269,20.0,0.0,4530.769043,1763.589722,4361.025879,4279.487305,4730.769043,0.0,3.0,73.0,,,,0.0,4.0,4.0,4.0,0.0,4.0,66.666664,,,,,,,,10.0,0.0,0.36025100000000004,-0.313965,0.591797,0.64917,0.8437629999999999,-0.539559,-0.10351700000000001,-0.033358,-0.040581,-0.023607,,,,,,,,,,,,,,,,,,,,,,,,,,,,,,,,,,,0.0,0.0,1.0,0.0,128.0,1.0,,,,,,,,,,,,,,,,,,,,,,,,,
23013,1645495565.587956,1645495565.619442,21.0,0.0,4536.410156,1768.717896,4381.538574,4279.487305,4745.128418,0.0,3.0,73.0,,,,0.0,4.0,4.0,4.0,0.0,4.0,66.666664,,,,,,,,,,,,,,,,,,,,,,,,,,,,,,,,,,,,,,,,,,,,,,,,,,,,,,,,,,,,,,,,,,,,,,,,,,,,,,,,,,,,
23014,1645495565.59577,1645495565.627257,22.0,0.0,4524.615234000001,1765.128174,4390.769043,4279.487305,4737.94873,0.0,3.0,73.0,,,,0.0,4.0,4.0,4.0,0.0,4.0,66.666664,,,,,,,,11.0,0.0,0.36025100000000004,-0.313965,0.591797,0.64917,0.839857,-0.545419,-0.095216,-0.033342000000000004,-0.040723,-0.019977,,,,,,,,,,,,,,,,,,,,,,,,,,,,,,,,,,,,,,,,,,,,,,,,,,,,,,,,,,,,,,,,,
23015,1645495565.603584,1645495565.635073,23.0,0.0,4533.846191,1770.25647,4371.794922,4279.487305,4728.717772999999,0.0,3.0,73.0,,,,0.0,4.0,4.0,4.0,0.0,4.0,66.666664,,,,,,,,,,,,,,,,,,,,,,,,,,,,,,,,,,,,,,,,,,,,,,,,,,,,,,,,,,,,,,,,,,,,,,,,,,,,,,,,,,,,
23016,1645495565.611398,1645495565.642888,24.0,0.0,4556.922852000001,1793.3333739999998,4365.128418,4279.487305,4730.769043,0.0,3.0,73.0,,,,0.0,4.0,4.0,4.0,0.0,4.0,66.666664,,,,,,,,12.0,0.0,0.36025100000000004,-0.313965,0.591797,0.64917,0.839857,-0.537118,-0.109377,-0.033329000000000004,-0.040702999999999996,-0.022862,,,,,,,,,,,,,,,,,,,,,,,,,,,,,,,,,,,0.0,0.0,1.0,0.0,128.0,1.0,,,,,,,,,,,,,,,,,,,,,,,,,
23017,1645495565.619213,1645495565.650703,25.0,0.0,4550.769043,1824.102539,4378.974121,4278.974121,4731.794922,0.0,3.0,73.0,,,,0.0,4.0,4.0,4.0,0.0,4.0,66.666664,,,,,,,,,,,,,,,,,,,,,,,,,,,,,,,,,,,,,,,,,,,,,,,,,,,,,,,,,,,,,,,,,,,,,,,,,,,,,,,,,,,,
23018,1645495565.627026,1645495565.658518,26.0,0.0,4536.922852000001,1841.0256350000002,4387.692383,4279.487305,4735.897461,0.0,3.0,73.0,,,,0.0,4.0,4.0,4.0,0.0,4.0,66.666664,,,,,,,,13.0,0.0,0.36025100000000004,-0.313965,0.591797,0.64917,0.839857,-0.542489,-0.120119,-0.033365,-0.040637,-0.025361,,,,,,,,,,,,,,,,,,,,,,,,,,,,,,,,,,,,,,,,,,,,,,,,,,,,,,,,,,,,,,,,,
23019,1645495565.63484,1645495565.666333,27.0,0.0,4569.743652,1838.9743649999998,4391.282227000001,4281.025879,4738.974121,0.0,3.0,73.0,,,,0.0,4.0,4.0,4.0,0.0,4.0,66.666664,,,,,,,,,,,,,,,,,,,,,,,,,,,,,,,,,,,,,,,,,,,,,,,,,,,,,,,,,,,,,,,,,,,,,,,,,,,,,,,,,,,,
23020,1645495565.6426551,1645495565.674048,28.0,0.0,4587.179688,1851.282104,4388.717772999999,4281.538574,4730.769043,0.0,3.0,73.0,,,,0.0,4.0,4.0,4.0,0.0,4.0,66.666664,,,,,,,,14.0,0.0,0.360212,-0.313965,0.591553,0.649414,0.839368,-0.548837,-0.107912,-0.033398000000000004,-0.040626,-0.027806,,,,,,,,,,,,,,,,,,,,,,,,,,,,,,,,,,,0.0,0.0,1.0,0.0,128.0,1.0,,,,,,,,,,,,,,,,,,,,,,,,,
23021,1645495565.6504679,1645495565.681863,29.0,0.0,4542.05127,1882.05127,4356.410156,4281.025879,4721.538574,0.0,3.0,73.0,,,,0.0,4.0,4.0,4.0,0.0,4.0,66.666664,,,,,,,,,,,,,,,,,,,,,,,,,,,,,,,,,,,,,,,,,,,,,,,,,,,,,,,,,,,,,,,,,,,,,,,,,,,,,,,,,,,,
23022,1645495565.658282,1645495565.689678,30.0,0.0,4512.820313,1901.0256350000002,4342.563965,4282.05127,4719.487305,0.0,3.0,73.0,,,,0.0,4.0,4.0,4.0,0.0,4.0,66.666664,,,,,,,,15.0,0.0,0.360212,-0.313965,0.591553,0.649414,0.8403450000000001,-0.559579,-0.113283,-0.033329000000000004,-0.04047,-0.023755000000000002,,,,,,,,,,,,,,,,,,,,,,,,,,,,,,,,,,,,,,,,,,,,,,,,,,,,,,,,,,,,,,,,,
23023,1645495565.6660972,1645495565.697494,31.0,0.0,4531.794922,1920.0,4355.384765999999,4282.563965,4714.358886999999,0.0,3.0,73.0,,,,0.0,4.0,4.0,4.0,0.0,4.0,66.666664,,,,,,,,,,,,,,,,,,,,,,,,,,,,,,,,,,,,,,,,,,,,,,,,,,,,,,,,,,,,,,,,,,,,,,,,,,,,,,,,,,,,
23024,1645495565.6739109,1645495565.705309,32.0,0.0,4532.307617,1946.153809,4358.974121,4282.05127,4706.153809,0.0,3.0,73.0,,,,0.0,4.0,4.0,4.0,0.0,4.0,66.666664,,,,,,,,16.0,0.0,0.36025100000000004,-0.313965,0.591797,0.64917,0.845716,-0.551766,-0.10351700000000001,-0.033219,-0.040427,-0.020013,1.0,0.0,0.0,,,,,,,,,,,,,,,,,,,,,,,,,,,,,,,,0.0,0.0,1.0,0.0,128.0,1.0,13.905909,9.751374,1.162131,1.857975,1.430883,25.310055,32.841827,5.892223,5.485633999999999,4.294677,2.485897,1.700304,1.2554319999999999,0.46973100000000007,0.715663,0.042212,0.016066,0.027364999999999997,0.026595,0.055598,6.007574,14.040915,1.4852239999999999,0.8682469999999999,0.9428139999999999
23025,1645495565.681724,1645495565.713124,33.0,0.0,4513.846191,1936.410278,4346.666504,4282.05127,4726.666504,0.0,3.0,73.0,,,,0.0,4.0,4.0,4.0,0.0,4.0,66.666664,,,,,,,,,,,,,,,,,,,,,,,,,,,,,,,,,,,,,,,,,,,,,,,,,,,,,,,,,,,,,,,,,,,,,,,,,,,,,,,,,,,,
23026,1645495565.689539,1645495565.7209392,34.0,0.0,4520.512695,1946.153809,4351.794922,4282.563965,4745.128418,0.0,3.0,73.0,,,,0.0,4.0,4.0,4.0,0.0,4.0,66.666664,,,,,,,,17.0,0.0,0.360691,-0.313965,0.591797,0.648926,0.8330209999999999,-0.558602,-0.105959,-0.033266000000000004,-0.040486,-0.016595,,,,,,,,,,,,,,,,,,,,,,,,,,,,,,,,,,,,,,,,,,,,,,,,,,,,,,,,,,,,,,,,,
23027,1645495565.697353,1645495565.7287538,35.0,0.0,4539.487305,1986.153809,4355.384765999999,4282.05127,4727.179688,0.0,3.0,73.0,,,,0.0,4.0,4.0,4.0,0.0,4.0,66.666664,,,,,,,,,,,,,,,,,,,,,,,,,,,,,,,,,,,,,,,,,,,,,,,,,,,,,,,,,,,,,,,,,,,,,,,,,,,,,,,,,,,,
23028,1645495565.705166,1645495565.736569,36.0,0.0,4539.487305,1982.05127,4342.563965,4282.05127,4718.974121,0.0,3.0,73.0,,,,0.0,4.0,4.0,4.0,0.0,4.0,66.666664,,,,,,,,18.0,0.0,0.360879,-0.314209,0.591553,0.648926,0.8437629999999999,-0.5351640000000001,-0.109865,-0.033309,-0.04049,-0.019868,,,,,,,,,,,,,,,,,,,,,,,,,,,,,,,,,,,0.0,0.0,1.0,0.0,128.0,1.0,,,,,,,,,,,,,,,,,,,,,,,,,
23029,1645495565.71298,1645495565.744384,37.0,0.0,4540.512695,1980.5128170000003,4337.94873,4282.05127,4735.384765999999,0.0,3.0,73.0,,,,0.0,4.0,4.0,4.0,0.0,4.0,66.666664,,,,,,,,,,,,,,,,,,,,,,,,,,,,,,,,,,,,,,,,,,,,,,,,,,,,,,,,,,,,,,,,,,,,,,,,,,,,,,,,,,,,
23030,1645495565.720795,1645495565.752099,38.0,0.0,4561.025879,2000.5128170000003,4354.358886999999,4282.05127,4741.025879,0.0,3.0,73.0,,,,0.0,4.0,4.0,4.0,0.0,4.0,66.666664,,,,,,,,19.0,0.0,0.360666,-0.31445300000000004,0.591553,0.648926,0.8437629999999999,-0.536141,-0.10547000000000001,-0.03325,-0.040494,-0.016513999999999997,,,,,,,,,,,,,,,,,,,,,,,,,,,,,,,,,,,,,,,,,,,,,,,,,,,,,,,,,,,,,,,,,
23031,1645495565.728608,1645495565.7599142,39.0,0.0,4556.922852000001,1985.640991,4372.820313,4282.05127,4731.282227000001,0.0,3.0,73.0,,,,0.0,4.0,4.0,4.0,0.0,4.0,66.666664,,,,,,,,,,,,,,,,,,,,,,,,,,,,,,,,,,,,,,,,,,,,,,,,,,,,,,,,,,,,,,,,,,,,,,,,,,,,,,,,,,,,
23032,1645495565.736422,1645495565.7677288,40.0,0.0,4524.102539,1965.128174,4378.974121,4282.05127,4727.179688,0.0,3.0,73.0,,,,0.0,4.0,4.0,4.0,0.0,4.0,66.666664,,,,,,,,20.0,0.0,0.360666,-0.31445300000000004,0.591553,0.648926,0.8418100000000001,-0.542977,-0.107912,-0.033343,-0.040546,-0.013397,,,,,,,,,,,,,,,,,,,,,,,,,,,,,,,,,,,0.0,0.0,1.0,0.0,128.0,1.0,,,,,,,,,,,,,,,,,,,,,,,,,
23033,1645495565.744237,1645495565.775544,41.0,0.0,4549.230957,1964.6153559999998,4379.487305,4282.05127,4733.846191,0.0,3.0,73.0,,,,0.0,4.0,4.0,4.0,0.0,4.0,66.666664,,,,,,,,,,,,,,,,,,,,,,,,,,,,,,,,,,,,,,,,,,,,,,,,,,,,,,,,,,,,,,,,,,,,,,,,,,,,,,,,,,,,
23034,1645495565.7520509,1645495565.783359,42.0,0.0,4586.153809,1962.05127,4366.666504,4282.05127,4732.307617,0.0,3.0,73.0,,,,0.0,4.0,4.0,4.0,0.0,4.0,66.666664,,,,,,,,21.0,0.0,0.36085300000000003,-0.314697,0.591309,0.648926,0.834974,-0.539071,-0.100587,-0.033378,-0.040544,-0.016988999999999997,,,,,,,,,,,,,,,,,,,,,,,,,,,,,,,,,,,,,,,,,,,,,,,,,,,,,,,,,,,,,,,,,
23035,1645495565.759864,1645495565.791174,43.0,0.0,4548.205078,1982.5640870000002,4350.769043,4282.05127,4720.0,0.0,3.0,73.0,,,,0.0,4.0,4.0,4.0,0.0,4.0,66.666664,,,,,,,,,,,,,,,,,,,,,,,,,,,,,,,,,,,,,,,,,,,,,,,,,,,,,,,,,,,,,,,,,,,,,,,,,,,,,,,,,,,,
23036,1645495565.767679,1645495565.798989,44.0,0.0,4520.512695,2006.6666260000002,4349.743652,4282.05127,4715.384765999999,0.0,3.0,73.0,,,,0.0,4.0,4.0,4.0,0.0,4.0,66.666664,,,,,,,,22.0,0.0,0.36085300000000003,-0.314697,0.591309,0.648926,0.8462040000000001,-0.534188,-0.099123,-0.033458,-0.040591,-0.020173,,,,,,,,,,,,,,,,,,,,,,,,,,,,,,,,,,,0.0,0.0,1.0,0.0,128.0,1.0,,,,,,,,,,,,,,,,,,,,,,,,,
23037,1645495565.775493,1645495565.806804,45.0,0.0,4544.102539,2002.05127,4366.666504,4282.05127,4726.153809,0.0,3.0,73.0,,,,0.0,4.0,4.0,4.0,0.0,4.0,66.666664,,,,,,,,,,,,,,,,,,,,,,,,,,,,,,,,,,,,,,,,,,,,,,,,,,,,,,,,,,,,,,,,,,,,,,,,,,,,,,,,,,,,
23038,1645495565.7833061,1645495565.8146179,46.0,0.0,4540.512695,2012.307739,4365.641113000001,4282.05127,4729.230957,0.0,3.0,73.0,,,,0.0,4.0,4.0,4.0,0.0,4.0,66.666664,,,,,,,,23.0,0.0,0.361079,-0.31494099999999997,0.591309,0.648682,0.8481569999999999,-0.539071,-0.109377,-0.033530000000000004,-0.040633999999999997,-0.016886,,,,,,,,,,,,,,,,,,,,,,,,,,,,,,,,,,,,,,,,,,,,,,,,,,,,,,,,,,,,,,,,,
23039,1645495565.791121,1645495565.822334,47.0,0.0,4523.589844,2005.128174,4353.333496,4282.05127,4716.922852000001,0.0,3.0,73.0,,,,0.0,4.0,4.0,4.0,0.0,4.0,66.666664,,,,,,,,,,,,,,,,,,,,,,,,,,,,,,,,,,,,,,,,,,,,,,,,,,,,,,,,,,,,,,,,,,,,,,,,,,,,,,,,,,,,
23040,1645495565.798935,1645495565.830149,48.0,0.0,4537.436035,1958.9743649999998,4350.256348,4282.05127,4704.615234000001,0.0,3.0,73.0,,,,0.0,4.0,4.0,4.0,0.0,4.0,66.666664,,,,,,,,24.0,0.0,0.36085300000000003,-0.314697,0.591309,0.648926,0.834974,-0.539071,-0.100587,-0.033546,-0.040623,-0.020130000000000002,1.0,0.0,0.0,,,,,,,,,,,,,,,,,,,,,,,,,,,,,,,,0.0,0.0,1.0,0.0,128.0,1.0,11.331822,10.09657,1.113839,1.607299,1.294298,23.641054,23.901424,5.650208999999999,4.475509,4.340387000000001,2.188689,1.343628,0.947672,0.46874499999999997,0.731797,0.050475,0.021684000000000002,0.037538,0.032567,0.067027,5.332211,12.825925,1.348598,0.814384,1.141299
23041,1645495565.806749,1645495565.837964,49.0,0.0,4548.205078,1945.128174,4366.153809,4282.05127,4712.307617,0.0,3.0,73.0,,,,0.0,4.0,4.0,4.0,0.0,4.0,66.666664,,,,,,,,,,,,,,,,,,,,,,,,,,,,,,,,,,,,,,,,,,,,,,,,,,,,,,,,,,,,,,,,,,,,,,,,,,,,,,,,,,,,
23042,1645495565.814563,1645495565.845779,50.0,0.0,4553.846191,1950.769287,4372.820313,4282.05127,4742.563965,0.0,3.0,73.0,,,,0.0,4.0,4.0,4.0,0.0,4.0,66.666664,,,,,,,,25.0,0.0,0.361079,-0.31494099999999997,0.591309,0.648682,0.8481569999999999,-0.539071,-0.109377,-0.03361,-0.040663,-0.016847,,,,,,,,,,,,,,,,,,,,,,,,,,,,,,,,,,,,,,,,,,,,,,,,,,,,,,,,,,,,,,,,,
23043,1645495565.822377,1645495565.8535938,51.0,0.0,4562.563965,1952.820557,4370.769043,4282.05127,4743.077147999999,0.0,3.0,73.0,,,,0.0,4.0,4.0,4.0,0.0,4.0,66.666664,,,,,,,,,,,,,,,,,,,,,,,,,,,,,,,,,,,,,,,,,,,,,,,,,,,,,,,,,,,,,,,,,,,,,,,,,,,,,,,,,,,,
23044,1645495565.830191,1645495565.861409,52.0,0.0,4552.820313,1984.102539,4367.692383,4282.05127,4719.487305,0.0,3.0,73.0,,,,0.0,4.0,4.0,4.0,0.0,4.0,66.666664,,,,,,,,26.0,0.0,0.36086599999999996,-0.315186,0.591309,0.648682,0.8481569999999999,-0.536629,-0.099611,-0.033667,-0.040796,-0.013844,,,,,,,,,,,,,,,,,,,,,,,,,,,,,,,,,,,0.0,0.0,1.0,0.0,128.0,1.0,,,,,,,,,,,,,,,,,,,,,,,,,
23045,1645495565.838005,1645495565.869224,53.0,0.0,4567.179688,2009.74353,4370.769043,4282.05127,4737.94873,0.0,3.0,73.0,,,,0.0,4.0,4.0,4.0,0.0,4.0,66.666664,,,,,,,,,,,,,,,,,,,,,,,,,,,,,,,,,,,,,,,,,,,,,,,,,,,,,,,,,,,,,,,,,,,,,,,,,,,,,,,,,,,,
23046,1645495565.845819,1645495565.877039,54.0,0.0,4620.512695,1998.9743649999998,4382.05127,4282.05127,4778.974121,0.0,3.0,73.0,,,,0.0,4.0,4.0,4.0,0.0,4.0,66.666664,,,,,,,,27.0,0.0,0.36086599999999996,-0.315186,0.591309,0.648682,0.8408329999999999,-0.542977,-0.107912,-0.03362,-0.040769,-0.01744,,,,,,,,,,,,,,,,,,,,,,,,,,,,,,,,,,,,,,,,,,,,,,,,,,,,,,,,,,,,,,,,,
23047,1645495565.853633,1645495565.884855,55.0,0.0,4666.666504,2006.153809,4382.563965,4282.05127,4801.025879,0.0,3.0,73.0,,,,0.0,4.0,4.0,4.0,0.0,4.0,66.666664,,,,,,,,,,,,,,,,,,,,,,,,,,,,,,,,,,,,,,,,,,,,,,,,,,,,,,,,,,,,,,,,,,,,,,,,,,,,,,,,,,,,
23048,1645495565.861447,1645495565.89267,56.0,0.0,4706.153809,2051.281982,4379.487305,4281.538574,4823.077147999999,0.0,3.0,73.0,,,,0.0,4.0,4.0,4.0,0.0,4.0,66.666664,,,,,,,,28.0,0.0,0.36086599999999996,-0.315186,0.591309,0.648682,0.835462,-0.542489,-0.10693499999999999,-0.033530000000000004,-0.040794,-0.014280000000000001,,,,,,,,,,,,,,,,,,,,,,,,,,,,,,,,,,,0.0,0.0,1.0,0.0,128.0,1.0,,,,,,,,,,,,,,,,,,,,,,,,,
23049,1645495565.869261,1645495565.900385,57.0,0.0,4776.410156,2083.589844,4383.589844,4282.563965,4854.871582,0.0,3.0,73.0,,,,0.0,4.0,4.0,4.0,0.0,4.0,66.666664,,,,,,,,,,,,,,,,,,,,,,,,,,,,,,,,,,,,,,,,,,,,,,,,,,,,,,,,,,,,,,,,,,,,,,,,,,,,,,,,,,,,
23050,1645495565.877075,1645495565.9082,58.0,0.0,4868.717772999999,2100.512939,4392.307617,4286.153809,4898.974121,0.0,3.0,73.0,,,,0.0,4.0,4.0,4.0,0.0,4.0,66.666664,,,,,,,,29.0,0.0,0.36086599999999996,-0.315186,0.591309,0.648682,0.8462040000000001,-0.5356529999999999,-0.10254100000000001,-0.033497000000000006,-0.040718,-0.017735,,,,,,,,,,,,,,,,,,,,,,,,,,,,,,,,,,,,,,,,,,,,,,,,,,,,,,,,,,,,,,,,,
23051,1645495565.8848891,1645495565.9160151,59.0,0.0,4960.0,2120.512939,4386.666504,4288.717772999999,4951.282227000001,0.0,3.0,73.0,,,,0.0,4.0,4.0,4.0,0.0,4.0,66.666664,,,,,,,,,,,,,,,,,,,,,,,,,,,,,,,,,,,,,,,,,,,,,,,,,,,,,,,,,,,,,,,,,,,,,,,,,,,,,,,,,,,,
23052,1645495565.8927028,1645495565.92383,60.0,0.0,5038.974121,2148.718018,4391.794922,4287.692383,4995.384765999999,0.0,3.0,73.0,,,,0.0,4.0,4.0,4.0,0.0,4.0,66.666664,,,,,,,,30.0,0.0,0.36064,-0.31494099999999997,0.591309,0.648926,0.8447389999999999,-0.555184,-0.10009900000000001,-0.033468,-0.04065,-0.014643000000000002,,,,,,,,,,,,,,,,,,,,,,,,,,,,,,,,,,,0.0,0.0,1.0,0.0,128.0,1.0,,,,,,,,,,,,,,,,,,,,,,,,,
23053,1645495565.900517,1645495565.931645,61.0,0.0,5108.205078,2155.384521,4401.538574,4291.282227000001,5007.692383,0.0,3.0,73.0,,,,0.0,4.0,4.0,4.0,0.0,4.0,66.666664,,,,,,,,,,,,,,,,,,,,,,,,,,,,,,,,,,,,,,,,,,,,,,,,,,,,,,,,,,,,,,,,,,,,,,,,,,,,,,,,,,,,
23054,1645495565.9083312,1645495565.939461,62.0,0.0,5160.0,2118.974365,4410.256348,4297.436035,5021.025879,0.0,3.0,73.0,,,,0.0,4.0,4.0,4.0,0.0,4.0,66.666664,,,,,,,,31.0,0.0,0.36064,-0.31494099999999997,0.591309,0.648926,0.844251,-0.528817,-0.10888800000000001,-0.033539,-0.040589,-0.018257,,,,,,,,,,,,,,,,,,,,,,,,,,,,,,,,,,,,,,,,,,,,,,,,,,,,,,,,,,,,,,,,,
23055,1645495565.9161448,1645495565.9472759,63.0,0.0,5177.436035,2102.05127,4407.692383,4296.922852000001,5054.358886999999,0.0,3.0,73.0,,,,0.0,4.0,4.0,4.0,0.0,4.0,66.666664,,,,,,,,,,,,,,,,,,,,,,,,,,,,,,,,,,,,,,,,,,,,,,,,,,,,,,,,,,,,,,,,,,,,,,,,,,,,,,,,,,,,
23056,1645495565.923959,1645495565.955091,64.0,0.0,5194.358886999999,2104.102539,4402.563965,4293.846191,5058.461426,450.0,3.0,73.0,,,,0.0,4.0,4.0,4.0,0.0,4.0,66.666664,1.0,25.0,3.0,0.0,3.0,0.0,3.0,32.0,0.0,0.36064,-0.31494099999999997,0.591309,0.648926,0.8403450000000001,-0.540536,-0.10693499999999999,-0.033506,-0.040632,-0.015162,1.0,0.0,0.0,,,,,,,,,,,,,,,,,,,,,,,,,,,,,,,,0.0,0.0,64.0,0.461843,1.0,0.0,8.081819,9.90116,1.168022,1.3255860000000002,1.246393,26.373095000000003,16.973026,5.848419,3.780785,4.384587000000001,1.872277,1.001655,0.680928,0.474293,0.722271,0.053413,0.025474,0.044145,0.034414,0.069583,3.9625779999999997,10.828097,1.27345,0.768252,1.310792
23057,1645495565.931773,1645495565.9629061,65.0,0.0,5189.230957,2063.589844,4414.871582,4295.384765999999,5046.666504,450.0,3.0,73.0,,,,0.0,4.0,4.0,4.0,0.0,4.0,66.666664,,,,,,,,,,,,,,,,,,,,,,,,,,,,,,,,,,,,,,,,,,,,,,,,,,,,,,,,,,,,,,,,,,,,,,,,,,,,,,,,,,,,
23058,1645495565.9395869,1645495565.970621,66.0,0.0,5165.641113000001,2002.05127,4411.794922,4298.461426,5051.282227000001,16173.0,3.0,73.0,,,,0.0,4.0,2.0,4.0,0.0,4.0,50.0,,,,,,,,33.0,0.0,0.36085300000000003,-0.314697,0.591309,0.648926,0.8437629999999999,-0.5659270000000001,-0.109377,-0.033524,-0.040573000000000005,-0.018626,,,,,,,,,,,,,,,,,,,,,,,,,,,,,,,,,,,,,,,,,,,,,,,,,,,,,,,,,,,,,,,,,
23059,1645495565.947401,1645495565.978436,67.0,0.0,5206.666504,1963.589722,4392.820313,4297.436035,5066.666504,450.0,3.0,73.0,,,,0.0,4.0,2.0,4.0,0.0,4.0,50.0,,,,,,,,,,,,,,,,,,,,,,,,,,,,,,,,,,,,,,,,,,,,,,,,,,,,,,,,,,,,,,,,,,,,,,,,,,,,,,,,,,,,
23060,1645495565.955215,1645495565.9862509,68.0,0.0,5233.333496,1945.640991,4403.589844,4296.922852000001,5057.436035,325.0,3.0,73.0,,,,0.0,4.0,2.0,4.0,0.0,4.0,50.0,,,,,,,,34.0,0.0,0.36104,-0.31494099999999997,0.591064,0.648926,0.839857,-0.5356529999999999,-0.11035299999999999,-0.033589999999999995,-0.040519,-0.021842,,,,,,,,,,,,,,,,,,,,,,,,,,,,,,,,,,,0.0,0.0,64.0,0.461843,1.0,0.0,,,,,,,,,,,,,,,,,,,,,,,,,
23061,1645495565.963029,1645495565.994067,69.0,0.0,5167.692383,1956.923096,4416.410156,4295.384765999999,5037.436035,450.0,3.0,73.0,,,,0.0,4.0,2.0,4.0,0.0,4.0,50.0,,,,,,,,,,,,,,,,,,,,,,,,,,,,,,,,,,,,,,,,,,,,,,,,,,,,,,,,,,,,,,,,,,,,,,,,,,,,,,,,,,,,
23062,1645495565.970843,1645495566.001882,70.0,0.0,5129.230957,1985.128174,4408.717772999999,4295.384765999999,5031.794922,16113.0,3.0,73.0,,,,0.0,4.0,2.0,4.0,0.0,4.0,50.0,,,,,,,,35.0,0.0,0.360827,-0.315186,0.591064,0.648926,0.8452280000000001,-0.539559,-0.107424,-0.033551,-0.040423,-0.024492,,,,,,,,,,,,,,,,,,,,,,,,,,,,,,,,,,,,,,,,,,,,,,,,,,,,,,,,,,,,,,,,,
23063,1645495565.978657,1645495566.009697,71.0,0.0,5123.589844,1990.769287,4394.358886999999,4296.922852000001,5006.666504,450.0,3.0,73.0,,,,0.0,4.0,2.0,4.0,0.0,4.0,50.0,,,,,,,,,,,,,,,,,,,,,,,,,,,,,,,,,,,,,,,,,,,,,,,,,,,,,,,,,,,,,,,,,,,,,,,,,,,,,,,,,,,,
23064,1645495565.9864712,1645495566.0175118,72.0,0.0,5043.077147999999,1981.0256350000002,4386.666504,4292.307617,4967.179688,450.0,3.0,73.0,,,,0.0,4.0,2.0,4.0,0.0,4.0,50.0,,,,,,,,36.0,0.0,0.361014,-0.31543000000000004,0.59082,0.648926,0.8462040000000001,-0.546883,-0.097169,-0.033614,-0.040335,-0.026974,,,,,,,,,,,,,,,,,,,,,,,,,,,,,,,,,,,0.0,0.0,64.0,0.461843,1.0,0.0,,,,,,,,,,,,,,,,,,,,,,,,,
23065,1645495565.9942849,1645495566.025327,73.0,0.0,4976.922852000001,1960.5128170000003,4392.820313,4286.153809,4945.128418,0.0,3.0,73.0,,,,0.0,4.0,2.0,4.0,0.0,4.0,50.0,,,,,,,,,,,,,,,,,,,,,,,,,,,,,,,,,,,,,,,,,,,,,,,,,,,,,,,,,,,,,,,,,,,,,,,,,,,,,,,,,,,,
23066,1645495566.002099,1645495566.033142,74.0,0.0,4963.589844,1914.871826,4403.077147999999,4287.179688,4939.487305,450.0,3.0,73.0,,,,0.0,4.0,2.0,4.0,0.0,4.0,50.0,,,,,,,,37.0,0.0,0.361638,-0.31567399999999995,0.590576,0.648682,0.844251,-0.554208,-0.095216,-0.033671,-0.040404,-0.029207999999999998,,,,,,,,,,,,,,,,,,,,,,,,,,,,,,,,,,,,,,,,,,,,,,,,,,,,,,,,,,,,,,,,,
23067,1645495566.009913,1645495566.040957,75.0,0.0,4920.0,1897.4359129999998,4394.358886999999,4289.230957,4913.333496,16231.0,3.0,73.0,,,,0.0,4.0,2.0,4.0,0.0,4.0,50.0,,,,,,,,,,,,,,,,,,,,,,,,,,,,,,,,,,,,,,,,,,,,,,,,,,,,,,,,,,,,,,,,,,,,,,,,,,,,,,,,,,,,
23068,1645495566.017727,1645495566.048672,76.0,0.0,4860.0,1910.25647,4382.05127,4288.717772999999,4876.922852000001,450.0,3.0,73.0,,,,0.0,4.0,2.0,4.0,0.0,4.0,50.0,,,,,,,,38.0,0.0,0.361211,-0.316162,0.590576,0.648682,0.831556,-0.525887,-0.096193,-0.033722,-0.040465,-0.024919999999999998,,,,,,,,,,,,,,,,,,,,,,,,,,,,,,,,,,,11.0,0.0,64.0,0.461843,1.0,0.0,,,,,,,,,,,,,,,,,,,,,,,,,
23069,1645495566.025541,1645495566.056488,77.0,0.0,4808.717772999999,1885.640991,4389.743652,4288.205078,4863.589844,450.0,3.0,73.0,,,,0.0,4.0,2.0,4.0,0.0,4.0,50.0,,,,,,,,,,,,,,,,,,,,,,,,,,,,,,,,,,,,,,,,,,,,,,,,,,,,,,,,,,,,,,,,,,,,,,,,,,,,,,,,,,,,
23070,1645495566.033355,1645495566.064303,78.0,0.0,4753.333496,1858.9743649999998,4382.563965,4287.179688,4841.025879,450.0,3.0,73.0,,,,0.0,4.0,2.0,4.0,0.0,4.0,50.0,,,,,,,,39.0,0.0,0.361649,-0.316162,0.590576,0.648438,0.846693,-0.525399,-0.10009900000000001,-0.033572000000000005,-0.040422,-0.027360000000000002,,,,,,,,,,,,,,,,,,,,,,,,,,,,,,,,,,,,,,,,,,,,,,,,,,,,,,,,,,,,,,,,,
23071,1645495566.041169,1645495566.072018,79.0,0.0,4721.025879,1855.3846440000002,4383.077147999999,4288.205078,4806.153809,16231.0,3.0,73.0,,,,0.0,4.0,2.0,4.0,0.0,4.0,50.0,,,,,,,,,,,,,,,,,,,,,,,,,,,,,,,,,,,,,,,,,,,,,,,,,,,,,,,,,,,,,,,,,,,,,,,,,,,,,,,,,,,,
23072,1645495566.048983,1645495566.079733,80.0,0.0,4696.410156,1835.897461,4383.589844,4288.717772999999,4778.461426,450.0,3.0,73.0,,,,0.0,4.0,2.0,4.0,0.0,4.0,50.0,,,,,,,,40.0,0.0,0.361425,-0.315918,0.590576,0.648682,0.839368,-0.522957,-0.10351700000000001,-0.033632999999999996,-0.040482,-0.023354,1.0,0.0,0.0,,,,,,,,,,,,,,,,,,,,,,,,,,,,,,,,11.0,0.0,64.0,0.840333,1.0,0.0,7.214467999999999,9.363292999999999,1.256045,1.118363,1.294377,32.197083,14.258401000000001,6.101538,3.448836,4.312119999999999,1.82476,0.7903479999999999,0.483918,0.505234,0.698766,0.050563,0.026244999999999997,0.044814,0.031519,0.062383,3.5501,8.586058999999999,1.244421,0.740178,1.408233
23073,1645495566.056797,1645495566.087549,81.0,0.0,4654.871582,1814.871826,4384.102539,4284.615234000001,4771.794922,450.0,3.0,73.0,,,,0.0,4.0,2.0,4.0,0.0,4.0,50.0,,,,,,,,,,,,,,,,,,,,,,,,,,,,,,,,,,,,,,,,,,,,,,,,,,,,,,,,,,,,,,,,,,,,,,,,,,,,,,,,,,,,
23074,1645495566.064611,1645495566.095264,82.0,0.0,4627.692383,1821.0256350000002,4389.230957,4281.538574,4772.307617,450.0,3.0,73.0,,,,0.0,4.0,2.0,4.0,0.0,4.0,50.0,,,,,,,,41.0,0.0,0.360614,-0.31543000000000004,0.591064,0.648926,0.8481569999999999,-0.5234449999999999,-0.112795,-0.033541,-0.040535,-0.025951,,,,,,,,,,,,,,,,,,,,,,,,,,,,,,,,,,,,,,,,,,,,,,,,,,,,,,,,,,,,,,,,,
23075,1645495566.072425,1645495566.1030788,83.0,0.0,4620.0,1803.589722,4399.487305,4282.563965,4760.0,16231.0,3.0,73.0,,,,0.0,4.0,2.0,4.0,0.0,4.0,50.0,,,,,,,,,,,,,,,,,,,,,,,,,,,,,,,,,,,,,,,,,,,,,,,,,,,,,,,,,,,,,,,,,,,,,,,,,,,,,,,,,,,,
23076,1645495566.080239,1645495566.110894,84.0,0.0,4620.512695,1761.538452,4407.179688,4283.077147999999,4760.512695,450.0,3.0,73.0,,,,0.0,4.0,2.0,4.0,0.0,4.0,50.0,,,,,,,,42.0,0.0,0.360013,-0.314697,0.591553,0.64917,0.83595,-0.511238,-0.096193,-0.03341,-0.040534,-0.028189999999999996,,,,,,,,,,,,,,,,,,,,,,,,,,,,,,,,,,,11.0,0.0,64.0,0.840333,1.0,0.0,,,,,,,,,,,,,,,,,,,,,,,,,
23077,1645495566.088053,1645495566.118709,85.0,0.0,4621.538574,1769.230713,4402.05127,4281.025879,4772.820313,450.0,3.0,73.0,,,,0.0,4.0,2.0,4.0,0.0,4.0,50.0,,,,,,,,,,,,,,,,,,,,,,,,,,,,,,,,,,,,,,,,,,,,,,,,,,,,,,,,,,,,,,,,,,,,,,,,,,,,,,,,,,,,
23078,1645495566.095867,1645495566.126425,86.0,0.0,4631.282227000001,1810.769287,4394.871582,4282.05127,4787.692383,450.0,3.0,73.0,,,,0.0,4.0,2.0,4.0,0.0,4.0,50.0,,,,,,,,43.0,0.0,0.35940900000000003,-0.313965,0.592041,0.649414,0.8462040000000001,-0.526375,-0.109865,-0.033438,-0.040534,-0.024052,,,,,,,,,,,,,,,,,,,,,,,,,,,,,,,,,,,,,,,,,,,,,,,,,,,,,,,,,,,,,,,,,
23079,1645495566.103681,1645495566.1342402,87.0,0.0,4693.333496,1826.153809,4408.205078,4286.666504,4811.282227000001,16231.0,3.0,73.0,,,,0.0,4.0,2.0,4.0,0.0,4.0,50.0,,,,,,,,,,,,,,,,,,,,,,,,,,,,,,,,,,,,,,,,,,,,,,,,,,,,,,,,,,,,,,,,,,,,,,,,,,,,,,,,,,,,
23080,1645495566.111495,1645495566.142056,88.0,0.0,4803.589844,1798.461548,4416.410156,4288.205078,4847.692383,450.0,3.0,73.0,,,,0.0,4.0,2.0,4.0,0.0,4.0,50.0,,,,,,,,44.0,0.0,0.358802,-0.313232,0.592529,0.649658,0.842298,-0.539559,-0.103029,-0.033415,-0.040533,-0.026579000000000002,,,,,,,,,,,,,,,,,,,,,,,,,,,,,,,,,,,11.0,0.0,64.0,0.840333,1.0,0.0,,,,,,,,,,,,,,,,,,,,,,,,,
23081,1645495566.119309,1645495566.149871,89.0,0.0,4900.0,1771.7949219999998,4409.743652,4286.153809,4894.871582,450.0,3.0,73.0,,,,0.0,4.0,2.0,4.0,0.0,4.0,50.0,,,,,,,,,,,,,,,,,,,,,,,,,,,,,,,,,,,,,,,,,,,,,,,,,,,,,,,,,,,,,,,,,,,,,,,,,,,,,,,,,,,,
23082,1645495566.127123,1645495566.157686,90.0,0.0,4962.05127,1770.25647,4429.743652,4289.230957,4948.205078,450.0,3.0,73.0,,,,0.0,4.0,2.0,4.0,0.0,4.0,50.0,,,,,,,,45.0,0.0,0.359227,-0.312744,0.592529,0.649658,0.8379030000000001,-0.55079,-0.10498199999999999,-0.033393,-0.040484,-0.022553999999999998,,,,,,,,,,,,,,,,,,,,,,,,,,,,,,,,,,,,,,,,,,,,,,,,,,,,,,,,,,,,,,,,,
23083,1645495566.1349368,1645495566.165502,91.0,0.0,5016.410156,1748.2050780000002,4434.358886999999,4294.358886999999,4984.615234000001,16231.0,3.0,73.0,,,,0.0,4.0,2.0,4.0,0.0,4.0,50.0,,,,,,,,,,,,,,,,,,,,,,,,,,,,,,,,,,,,,,,,,,,,,,,,,,,,,,,,,,,,,,,,,,,,,,,,,,,,,,,,,,,,
23084,1645495566.142751,1645495566.173317,92.0,0.0,5052.307617,1716.923096,4410.256348,4295.384765999999,4987.692383,450.0,3.0,73.0,,,,0.0,4.0,2.0,4.0,0.0,4.0,50.0,,,,,,,,46.0,0.0,0.358786,-0.312744,0.592529,0.6499020000000001,0.843275,-0.568856,-0.09424,-0.033228,-0.040635000000000004,-0.025181,,,,,,,,,,,,,,,,,,,,,,,,,,,,,,,,,,,11.0,0.0,64.0,0.840333,1.0,0.0,,,,,,,,,,,,,,,,,,,,,,,,,
23085,1645495566.1505651,1645495566.181132,93.0,0.0,5075.384765999999,1744.102539,4406.153809,4296.922852000001,4973.846191,450.0,3.0,73.0,,,,0.0,4.0,2.0,4.0,0.0,4.0,50.0,,,,,,,,,,,,,,,,,,,,,,,,,,,,,,,,,,,,,,,,,,,,,,,,,,,,,,,,,,,,,,,,,,,,,,,,,,,,,,,,,,,,
23086,1645495566.1583788,1645495566.1889482,94.0,0.0,5108.717772999999,1824.6153559999998,4418.461426,4298.974121,4954.358886999999,450.0,3.0,73.0,,,,0.0,4.0,2.0,4.0,0.0,4.0,50.0,,,,,,,,47.0,0.0,0.359227,-0.312744,0.592529,0.649658,0.83595,-0.559091,-0.10888800000000001,-0.033226,-0.040673,-0.021296000000000002,,,,,,,,,,,,,,,,,,,,,,,,,,,,,,,,,,,,,,,,,,,,,,,,,,,,,,,,,,,,,,,,,
23087,1645495566.166193,1645495566.1966631,95.0,0.0,5108.205078,1859.4871829999997,4403.077147999999,4297.436035,4939.487305,16231.0,3.0,73.0,,,,0.0,4.0,2.0,4.0,0.0,4.0,50.0,,,,,,,,,,,,,,,,,,,,,,,,,,,,,,,,,,,,,,,,,,,,,,,,,,,,,,,,,,,,,,,,,,,,,,,,,,,,,,,,,,,,
23088,1645495566.174007,1645495566.204479,96.0,0.0,5055.897461,1850.769287,4397.436035,4296.410156,4930.256348,450.0,3.0,73.0,,,,0.0,4.0,2.0,4.0,0.0,4.0,50.0,,,,,,,,48.0,0.0,0.359417,-0.312988,0.5922850000000001,0.649658,0.830091,-0.56202,-0.10547000000000001,-0.033125999999999996,-0.040658,-0.023952,1.0,0.0,0.0,,,,,,,,,,,,,,,,,,,,,,,,,,,,,,,,11.0,0.0,64.0,1.0,1.0,0.0,16.867973000000003,9.076372000000001,1.413036,1.0451840000000001,1.419029,38.163857,15.56466,6.3183050000000005,3.40089,4.032087000000001,1.642064,0.76499,0.358566,0.57525,0.675281,0.048651,0.024318,0.039756,0.024963,0.048116,4.582194,6.56535,1.256356,0.728114,1.4180469999999998
23089,1645495566.181821,1645495566.2122939,97.0,0.0,5013.333496,1888.2050780000002,4411.282227000001,4297.436035,4904.102539,450.0,3.0,73.0,,,,0.0,4.0,2.0,4.0,0.0,4.0,50.0,,,,,,,,,,,,,,,,,,,,,,,,,,,,,,,,,,,,,,,,,,,,,,,,,,,,,,,,,,,,,,,,,,,,,,,,,,,,,,,,,,,,
23090,1645495566.189635,1645495566.220109,98.0,0.0,4995.897461,1948.717896,4421.538574,4294.358886999999,4891.282227000001,450.0,3.0,73.0,,,,0.0,4.0,2.0,4.0,0.0,4.0,50.0,,,,,,,,49.0,0.0,0.359394,-0.313477,0.592041,0.649658,0.834485,-0.552254,-0.106447,-0.032987,-0.040792,-0.026438999999999997,,,,,,,,,,,,,,,,,,,,,,,,,,,,,,,,,,,,,,,,,,,,,,,,,,,,,,,,,,,,,,,,,
23091,1645495566.197449,1645495566.227925,99.0,0.0,4937.436035,1981.0256350000002,4421.025879,4288.205078,4885.128418,16231.0,3.0,73.0,,,,0.0,4.0,2.0,4.0,0.0,4.0,50.0,,,,,,,,,,,,,,,,,,,,,,,,,,,,,,,,,,,,,,,,,,,,,,,,,,,,,,,,,,,,,,,,,,,,,,,,,,,,,,,,,,,,
23092,1645495566.2052631,1645495566.23574,100.0,0.0,4854.358886999999,2006.6666260000002,4415.897461,4286.666504,4846.153809,450.0,3.0,73.0,,,,0.0,4.0,2.0,4.0,0.0,4.0,50.0,,,,,,,,50.0,0.0,0.36002399999999996,-0.313721,0.591797,0.649414,0.835462,-0.552254,-0.101564,-0.033058,-0.040813999999999996,-0.028776,,,,,,,,,,,,,,,,,,,,,,,,,,,,,,,,,,,11.0,0.0,64.0,1.0,1.0,0.0,,,,,,,,,,,,,,,,,,,,,,,,,
23093,1645495566.213077,1645495566.243555,101.0,0.0,4827.692383,2061.025635,4409.230957,4287.179688,4814.871582,450.0,3.0,73.0,,,,0.0,4.0,2.0,4.0,0.0,4.0,50.0,,,,,,,,,,,,,,,,,,,,,,,,,,,,,,,,,,,,,,,,,,,,,,,,,,,,,,,,,,,,,,,,,,,,,,,,,,,,,,,,,,,,
23094,1645495566.220891,1645495566.2513711,102.0,0.0,4817.94873,2115.384521,4404.615234000001,4286.666504,4811.794922,450.0,3.0,73.0,,,,0.0,4.0,2.0,4.0,0.0,4.0,50.0,,,,,,,,51.0,0.0,0.359417,-0.312988,0.5922850000000001,0.649658,0.830091,-0.56202,-0.10547000000000001,-0.033227,-0.040853,-0.026473000000000003,,,,,,,,,,,,,,,,,,,,,,,,,,,,,,,,,,,,,,,,,,,,,,,,,,,,,,,,,,,,,,,,,
23095,1645495566.2287052,1645495566.259086,103.0,0.0,4749.743652,2123.076904,4393.846191,4286.666504,4792.307617,16231.0,3.0,73.0,,,,0.0,4.0,2.0,4.0,0.0,4.0,50.0,,,,,,,,,,,,,,,,,,,,,,,,,,,,,,,,,,,,,,,,,,,,,,,,,,,,,,,,,,,,,,,,,,,,,,,,,,,,,,,,,,,,
23096,1645495566.2365189,1645495566.266902,104.0,0.0,4672.820313,2120.512939,4385.128418,4287.692383,4751.794922,450.0,3.0,73.0,,,,0.0,4.0,2.0,4.0,0.0,4.0,50.0,,,,,,,,52.0,0.0,0.36002399999999996,-0.313721,0.591797,0.649414,0.835462,-0.552254,-0.101564,-0.033273000000000004,-0.040869,-0.028806000000000002,,,,,,,,,,,,,,,,,,,,,,,,,,,,,,,,,,,0.0,0.0,64.0,1.0,1.0,0.0,,,,,,,,,,,,,,,,,,,,,,,,,
23097,1645495566.244333,1645495566.274717,105.0,0.0,4637.94873,2152.820557,4393.846191,4287.179688,4730.769043,450.0,3.0,73.0,,,,0.0,4.0,2.0,4.0,0.0,4.0,50.0,,,,,,,,,,,,,,,,,,,,,,,,,,,,,,,,,,,,,,,,,,,,,,,,,,,,,,,,,,,,,,,,,,,,,,,,,,,,,,,,,,,,
23098,1645495566.252147,1645495566.282532,106.0,0.0,4607.692383,2178.4614260000003,4402.563965,4288.205078,4732.820313,450.0,3.0,73.0,,,,0.0,4.0,2.0,4.0,0.0,4.0,50.0,,,,,,,,53.0,0.0,0.360212,-0.313965,0.591553,0.649414,0.833997,-0.560067,-0.11084200000000001,-0.033315,-0.040835,-0.024656,,,,,,,,,,,,,,,,,,,,,,,,,,,,,,,,,,,,,,,,,,,,,,,,,,,,,,,,,,,,,,,,,
23099,1645495566.259961,1645495566.290348,107.0,0.0,4558.974121,2169.230713,4403.077147999999,4287.179688,4727.692383,16231.0,3.0,73.0,,,,0.0,4.0,2.0,4.0,0.0,4.0,50.0,,,,,,,,,,,,,,,,,,,,,,,,,,,,,,,,,,,,,,,,,,,,,,,,,,,,,,,,,,,,,,,,,,,,,,,,,,,,,,,,,,,,
23100,1645495566.267775,1645495566.2981632,108.0,0.0,4516.922852000001,2168.205078,4392.820313,4283.589844,4704.615234000001,450.0,3.0,73.0,,,,0.0,4.0,2.0,4.0,0.0,4.0,50.0,,,,,,,,54.0,0.0,0.360627,-0.31445300000000004,0.591309,0.64917,0.8374149999999999,-0.5512779999999999,-0.113771,-0.033206,-0.040804,-0.027073000000000003,,,,,,,,,,,,,,,,,,,,,,,,,,,,,,,,,,,0.0,0.0,64.0,1.0,1.0,0.0,,,,,,,,,,,,,,,,,,,,,,,,,
23101,1645495566.275589,1645495566.3059778,109.0,0.0,4479.487305,2188.205078,4393.846191,4282.05127,4691.282227000001,450.0,3.0,73.0,,,,0.0,4.0,2.0,4.0,0.0,4.0,50.0,,,,,,,,,,,,,,,,,,,,,,,,,,,,,,,,,,,,,,,,,,,,,,,,,,,,,,,,,,,,,,,,,,,,,,,,,,,,,,,,,,,,
23102,1645495566.283403,1645495566.313794,110.0,0.0,4451.794922,2208.205078,4396.922852000001,4283.077147999999,4691.282227000001,450.0,3.0,73.0,,,,0.0,4.0,2.0,4.0,0.0,4.0,50.0,,,,,,,,55.0,0.0,0.361001,-0.31494099999999997,0.59082,0.64917,0.851087,-0.5459069999999999,-0.11572400000000001,-0.033255,-0.040825,-0.029345999999999997,,,,,,,,,,,,,,,,,,,,,,,,,,,,,,,,,,,,,,,,,,,,,,,,,,,,,,,,,,,,,,,,,
23103,1645495566.291217,1645495566.321609,111.0,0.0,4461.025879,2210.256348,4392.307617,4283.077147999999,4665.128418,16231.0,3.0,73.0,,,,0.0,4.0,2.0,4.0,0.0,4.0,50.0,,,,,,,,,,,,,,,,,,,,,,,,,,,,,,,,,,,,,,,,,,,,,,,,,,,,,,,,,,,,,,,,,,,,,,,,,,,,,,,,,,,,
23104,1645495566.299031,1645495566.329325,112.0,0.0,4468.717772999999,2190.256348,4383.077147999999,4282.563965,4648.205078,450.0,3.0,73.0,,,,0.0,4.0,2.0,4.0,0.0,4.0,50.0,,,,,,,,56.0,0.0,0.360761,-0.31567399999999995,0.590576,0.64917,0.8589,-0.548348,-0.111818,-0.03325,-0.040747000000000005,-0.031392,1.0,0.0,0.0,,,,,,,,,,,,,,,,,,,,,,,,,,,,,,,,0.0,0.0,64.0,1.0,1.0,0.0,56.54385799999999,9.8631,1.675343,1.121041,1.594927,51.968140000000005,19.346449,6.611801,3.5160339999999994,3.543623,1.6867419999999997,0.904782,0.28976199999999996,0.682194,0.659935,0.064897,0.022716999999999998,0.03154,0.017013,0.031947,12.992488,5.206084,1.213455,0.726604,1.354031
23105,1645495566.306845,1645495566.33714,113.0,0.0,4439.487305,2183.589844,4395.897461,4282.05127,4668.205078,450.0,3.0,73.0,,,,0.0,4.0,2.0,4.0,0.0,4.0,50.0,,,,,,,,,,,,,,,,,,,,,,,,,,,,,,,,,,,,,,,,,,,,,,,,,,,,,,,,,,,,,,,,,,,,,,,,,,,,,,,,,,,,
23106,1645495566.3146589,1645495566.3449562,114.0,0.0,4411.794922,2196.923096,4410.769043,4281.025879,4660.512695,450.0,3.0,73.0,,,,0.0,4.0,2.0,4.0,0.0,4.0,50.0,,,,,,,,57.0,0.0,0.36098600000000003,-0.315918,0.590576,0.648926,0.8593879999999999,-0.541512,-0.11718900000000002,-0.033195999999999996,-0.040676,-0.027032,,,,,,,,,,,,,,,,,,,,,,,,,,,,,,,,,,,,,,,,,,,,,,,,,,,,,,,,,,,,,,,,,
23107,1645495566.322473,1645495566.352772,115.0,0.0,4409.230957,2217.94873,4404.615234000001,4282.05127,4624.102539,16231.0,3.0,73.0,,,,0.0,4.0,2.0,4.0,0.0,4.0,50.0,,,,,,,,,,,,,,,,,,,,,,,,,,,,,,,,,,,,,,,,,,,,,,,,,,,,,,,,,,,,,,,,,,,,,,,,,,,,,,,,,,,,
23108,1645495566.330287,1645495566.360587,116.0,0.0,4400.0,2273.333252,4386.666504,4283.589844,4605.128418,450.0,3.0,73.0,,,,0.0,4.0,2.0,4.0,0.0,4.0,50.0,,,,,,,,58.0,0.0,0.360558,-0.316406,0.590576,0.648926,0.8462040000000001,-0.539559,-0.111818,-0.033246,-0.040661,-0.029162999999999998,,,,,,,,,,,,,,,,,,,,,,,,,,,,,,,,,,,0.0,0.0,64.0,1.0,1.0,0.0,,,,,,,,,,,,,,,,,,,,,,,,,
23109,1645495566.338101,1645495566.368403,117.0,0.0,4375.384765999999,2305.6411129999997,4385.641113000001,4282.05127,4607.179688,450.0,3.0,73.0,,,,0.0,4.0,2.0,4.0,0.0,4.0,50.0,,,,,,,,,,,,,,,,,,,,,,,,,,,,,,,,,,,,,,,,,,,,,,,,,,,,,,,,,,,,,,,,,,,,,,,,,,,,,,,,,,,,
23110,1645495566.345915,1645495566.376218,118.0,0.0,4376.922852000001,2294.871826,4396.410156,4281.025879,4610.256348,450.0,3.0,73.0,,,,0.0,4.0,2.0,4.0,0.0,4.0,50.0,,,,,,,,59.0,0.0,0.360783,-0.31665,0.590576,0.648682,0.833509,-0.552743,-0.106447,-0.033291,-0.040697000000000004,-0.031081,,,,,,,,,,,,,,,,,,,,,,,,,,,,,,,,,,,,,,,,,,,,,,,,,,,,,,,,,,,,,,,,,
23111,1645495566.353729,1645495566.384034,119.0,0.0,4394.358886999999,2335.897461,4392.307617,4281.538574,4595.897461,16231.0,3.0,73.0,,,,0.0,4.0,2.0,4.0,0.0,4.0,50.0,,,,,,,,,,,,,,,,,,,,,,,,,,,,,,,,,,,,,,,,,,,,,,,,,,,,,,,,,,,,,,,,,,,,,,,,,,,,,,,,,,,,
23112,1645495566.361543,1645495566.39185,120.0,0.0,4383.589844,2392.3076170000004,4386.666504,4282.563965,4588.717772999999,450.0,3.0,73.0,,,,0.0,4.0,2.0,4.0,0.0,4.0,50.0,,,,,,,,60.0,0.0,0.361222,-0.31665,0.590576,0.648438,0.847181,-0.52784,-0.104494,-0.033233,-0.040777999999999995,-0.032904,,,,,,,,,,,,,,,,,,,,,,,,,,,,,,,,,,,0.0,0.0,64.0,1.0,1.0,0.0,,,,,,,,,,,,,,,,,,,,,,,,,
23113,1645495566.369357,1645495566.399665,121.0,0.0,4347.692383,2418.974365,4391.282227000001,4282.563965,4587.179688,450.0,3.0,73.0,,,,0.0,4.0,2.0,4.0,0.0,4.0,50.0,,,,,,,,,,,,,,,,,,,,,,,,,,,,,,,,,,,,,,,,,,,,,,,,,,,,,,,,,,,,,,,,,,,,,,,,,,,,,,,,,,,,
23114,1645495566.377171,1645495566.407381,122.0,0.0,4335.897461,2478.4614260000003,4393.333496,4280.512695,4569.743652,450.0,3.0,73.0,,,,0.0,4.0,2.0,4.0,0.0,4.0,50.0,,,,,,,,61.0,0.0,0.360822,-0.31665,0.59082,0.648438,0.8369270000000001,-0.536141,-0.093751,-0.033279,-0.040753,-0.028344,,,,,,,,,,,,,,,,,,,,,,,,,,,,,,,,,,,,,,,,,,,,,,,,,,,,,,,,,,,,,,,,,
23115,1645495566.384985,1645495566.4151962,123.0,0.0,4346.666504,2529.743652,4389.743652,4279.487305,4566.153809,16231.0,3.0,73.0,,,,0.0,4.0,2.0,4.0,0.0,4.0,50.0,,,,,,,,,,,,,,,,,,,,,,,,,,,,,,,,,,,,,,,,,,,,,,,,,,,,,,,,,,,,,,,,,,,,,,,,,,,,,,,,,,,,
23116,1645495566.3927991,1645495566.423012,124.0,0.0,4315.897461,2534.3588870000003,4391.282227000001,4281.025879,4576.922852000001,450.0,3.0,73.0,,,,0.0,4.0,2.0,4.0,0.0,4.0,50.0,,,,,,,,62.0,0.0,0.360822,-0.31665,0.59082,0.648438,0.834974,-0.53077,-0.09131,-0.033223,-0.04073,-0.024094,,,,,,,,,,,,,,,,,,,,,,,,,,,,,,,,,,,0.0,0.0,64.0,1.0,1.0,0.0,,,,,,,,,,,,,,,,,,,,,,,,,
23117,1645495566.400613,1645495566.4308279,125.0,0.0,4255.897461,2581.5385739999997,4384.102539,4282.05127,4565.128418,450.0,3.0,73.0,,,,0.0,4.0,2.0,4.0,0.0,4.0,50.0,,,,,,,,,,,,,,,,,,,,,,,,,,,,,,,,,,,,,,,,,,,,,,,,,,,,,,,,,,,,,,,,,,,,,,,,,,,,,,,,,,,,
23118,1645495566.408427,1645495566.438643,126.0,0.0,4225.641113000001,2668.205078,4382.563965,4280.512695,4548.717772999999,450.0,3.0,73.0,,,,0.0,4.0,2.0,4.0,0.0,4.0,50.0,,,,,,,,63.0,0.0,0.361008,-0.316895,0.590576,0.648438,0.833997,-0.532235,-0.09033300000000001,-0.033416,-0.040759,-0.026519,,,,,,,,,,,,,,,,,,,,,,,,,,,,,,,,,,,,,,,,,,,,,,,,,,,,,,,,,,,,,,,,,
23119,1645495566.416241,1645495566.446459,127.0,0.0,4226.153809,2700.0,4380.0,4280.0,4553.846191,238.0,3.0,73.0,,,,0.0,4.0,2.0,4.0,0.0,4.0,50.0,,,,,,,,,,,,,,,,,,,,,,,,,,,,,,,,,,,,,,,,,,,,,,,,,,,,,,,,,,,,,,,,,,,,,,,,,,,,,,,,,,,,
23120,1645495566.424055,1645495566.454274,0.0,0.0,4225.128418,2718.974365,4377.94873,4281.025879,4551.282227000001,450.0,3.0,73.0,,,,0.0,4.0,2.0,4.0,0.0,4.0,50.0,1.0,25.0,3.0,0.0,3.0,0.0,3.0,0.0,0.0,0.361008,-0.316895,0.590576,0.648438,0.8325319999999999,-0.5337,-0.093751,-0.033346,-0.040736,-0.028701,1.0,0.0,0.0,,,,,,,,,,,,,,,,,,,,,,,,,,,,,,,,0.0,0.0,64.0,1.0,1.0,0.0,160.47876000000002,12.535123,2.237062,1.330057,1.8030599999999999,61.545578000000006,23.725697,7.146522999999999,3.7233870000000002,2.952152,1.706174,1.124368,0.266877,0.800902,0.652541,0.12639,0.027326999999999997,0.023968,0.010013,0.01914,36.397018,4.775359,1.214761,0.740437,1.249896
23121,1645495566.431869,1645495566.46209,1.0,0.0,4224.615234000001,2772.820557,4376.922852000001,4280.512695,4551.794922,450.0,3.0,73.0,,,,0.0,4.0,2.0,4.0,0.0,4.0,50.0,,,,,,,,,,,,,,,,,,,,,,,,,,,,,,,,,,,,,,,,,,,,,,,,,,,,,,,,,,,,,,,,,,,,,,,,,,,,,,,,,,,,
23122,1645495566.439683,1645495566.469906,2.0,0.0,4228.717772999999,2824.102539,4380.0,4280.512695,4564.102539,16209.0,3.0,73.0,,,,0.0,4.0,2.0,4.0,0.0,4.0,50.0,,,,,,,,1.0,0.0,0.36140700000000003,-0.316895,0.590332,0.648438,0.8437629999999999,-0.546395,-0.10009900000000001,-0.033283,-0.040764,-0.024512,,,,,,,,,,,,,,,,,,,,,,,,,,,,,,,,,,,,,,,,,,,,,,,,,,,,,,,,,,,,,,,,,
23123,1645495566.4474971,1645495566.477621,3.0,0.0,4227.179688,2852.820557,4386.153809,4281.025879,4547.179688,450.0,3.0,73.0,,,,0.0,4.0,4.0,4.0,0.0,4.0,66.666664,,,,,,,,,,,,,,,,,,,,,,,,,,,,,,,,,,,,,,,,,,,,,,,,,,,,,,,,,,,,,,,,,,,,,,,,,,,,,,,,,,,,
23124,1645495566.4553108,1645495566.485437,4.0,0.0,4225.128418,2852.820557,4392.307617,4280.512695,4534.358886999999,16101.0,3.0,73.0,,,,0.0,4.0,4.0,4.0,0.0,4.0,66.666664,,,,,,,,2.0,0.0,0.360968,-0.316895,0.590332,0.648682,0.83888,-0.543465,-0.10254100000000001,-0.033324,-0.04074,-0.027042,,,,,,,,,,,,,,,,,,,,,,,,,,,,,,,,,,,0.0,0.0,64.0,1.0,1.0,0.0,,,,,,,,,,,,,,,,,,,,,,,,,
23125,1645495566.463125,1645495566.493253,5.0,0.0,4219.487305,2840.512939,4378.461426,4280.0,4531.794922,450.0,3.0,73.0,,,,0.0,4.0,4.0,4.0,0.0,4.0,66.666664,,,,,,,,,,,,,,,,,,,,,,,,,,,,,,,,,,,,,,,,,,,,,,,,,,,,,,,,,,,,,,,,,,,,,,,,,,,,,,,,,,,,
23126,1645495566.4709392,1645495566.5010679,6.0,0.0,4233.333496,2866.666748,4368.205078,4280.0,4511.794922,16142.0,3.0,73.0,,,,0.0,4.0,4.0,4.0,0.0,4.0,66.666664,,,,,,,,3.0,0.0,0.360968,-0.316895,0.590332,0.648682,0.8574350000000001,-0.537118,-0.104005,-0.033263,-0.040719,-0.02922,,,,,,,,,,,,,,,,,,,,,,,,,,,,,,,,,,,,,,,,,,,,,,,,,,,,,,,,,,,,,,,,,
23127,1645495566.4787529,1645495566.508884,7.0,0.0,4274.871582,2928.718018,4378.461426,4279.487305,4510.769043,450.0,3.0,73.0,,,,0.0,4.0,4.0,4.0,0.0,4.0,66.666664,,,,,,,,,,,,,,,,,,,,,,,,,,,,,,,,,,,,,,,,,,,,,,,,,,,,,,,,,,,,,,,,,,,,,,,,,,,,,,,,,,,,
23128,1645495566.486567,1645495566.516699,8.0,0.0,4293.846191,2990.769287,4372.820313,4278.974121,4526.153809,450.0,3.0,73.0,,,,0.0,4.0,4.0,4.0,0.0,4.0,66.666664,,,,,,,,4.0,0.0,0.360968,-0.316895,0.590332,0.648682,0.8413209999999999,-0.54786,-0.106447,-0.033208,-0.040553,-0.024980000000000002,,,,,,,,,,,,,,,,,,,,,,,,,,,,,,,,,,,0.0,0.0,64.0,1.0,1.0,0.0,,,,,,,,,,,,,,,,,,,,,,,,,
23129,1645495566.494381,1645495566.5245152,9.0,0.0,4283.077147999999,3017.94873,4358.461426,4280.0,4517.436035,0.0,3.0,73.0,,,,0.0,4.0,4.0,4.0,0.0,4.0,66.666664,,,,,,,,,,,,,,,,,,,,,,,,,,,,,,,,,,,,,,,,,,,,,,,,,,,,,,,,,,,,,,,,,,,,,,,,,,,,,,,,,,,,
23130,1645495566.502195,1645495566.532331,10.0,0.0,4291.282227000001,3000.512939,4366.666504,4280.512695,4512.307617,450.0,3.0,73.0,,,,0.0,4.0,4.0,4.0,0.0,4.0,66.666664,,,,,,,,5.0,0.0,0.361182,-0.31665,0.590332,0.648682,0.827649,-0.5512779999999999,-0.10547000000000001,-0.033208,-0.040501999999999996,-0.027511,,,,,,,,,,,,,,,,,,,,,,,,,,,,,,,,,,,,,,,,,,,,,,,,,,,,,,,,,,,,,,,,,
23131,1645495566.510009,1645495566.540146,11.0,0.0,4311.794922,2984.615479,4375.384765999999,4280.512695,4525.128418,16243.0,3.0,73.0,,,,0.0,4.0,4.0,4.0,0.0,4.0,66.666664,,,,,,,,,,,,,,,,,,,,,,,,,,,,,,,,,,,,,,,,,,,,,,,,,,,,,,,,,,,,,,,,,,,,,,,,,,,,,,,,,,,,
23132,1645495566.517823,1645495566.547962,12.0,0.0,4308.717772999999,3004.615479,4364.615234000001,4280.512695,4518.974121,450.0,3.0,73.0,,,,0.0,4.0,4.0,4.0,0.0,4.0,66.666664,,,,,,,,6.0,0.0,0.361182,-0.31665,0.590332,0.648682,0.8481569999999999,-0.543954,-0.10498199999999999,-0.033158,-0.040505,-0.029643,,,,,,,,,,,,,,,,,,,,,,,,,,,,,,,,,,,0.0,0.0,64.0,1.0,1.0,0.0,,,,,,,,,,,,,,,,,,,,,,,,,
23133,1645495566.525637,1645495566.555677,13.0,0.0,4295.897461,3032.820557,4369.743652,4280.512695,4518.974121,450.0,3.0,73.0,,,,0.0,4.0,4.0,4.0,0.0,4.0,66.666664,,,,,,,,,,,,,,,,,,,,,,,,,,,,,,,,,,,,,,,,,,,,,,,,,,,,,,,,,,,,,,,,,,,,,,,,,,,,,,,,,,,,
23134,1645495566.533451,1645495566.563493,14.0,0.0,4288.205078,3056.410156,4368.717772999999,4280.512695,4530.769043,450.0,3.0,73.0,,,,0.0,4.0,4.0,4.0,0.0,4.0,66.666664,,,,,,,,7.0,0.0,0.361182,-0.31665,0.590332,0.648682,0.83888,-0.536629,-0.104494,-0.033065,-0.040409,-0.031708,,,,,,,,,,,,,,,,,,,,,,,,,,,,,,,,,,,,,,,,,,,,,,,,,,,,,,,,,,,,,,,,,
23135,1645495566.541265,1645495566.571309,15.0,0.0,4291.794922,3105.6411129999997,4362.05127,4280.512695,4517.94873,16243.0,3.0,73.0,,,,0.0,4.0,4.0,4.0,0.0,4.0,66.666664,,,,,,,,,,,,,,,,,,,,,,,,,,,,,,,,,,,,,,,,,,,,,,,,,,,,,,,,,,,,,,,,,,,,,,,,,,,,,,,,,,,,
23136,1645495566.549079,1645495566.579124,16.0,0.0,4301.025879,3141.5385739999997,4366.666504,4280.512695,4511.794922,0.0,3.0,73.0,,,,0.0,4.0,4.0,4.0,0.0,4.0,66.666664,,,,,,,,8.0,0.0,0.360968,-0.316895,0.590332,0.648682,0.851087,-0.5351640000000001,-0.10693499999999999,-0.033128,-0.040323000000000005,-0.03342,1.0,0.0,0.0,,,,,,,,,,,,,,,,,,,,,,,,,,,,,,,,0.0,0.0,1.0,0.0,128.0,1.0,348.574097,17.522135000000002,3.226902,1.6472360000000001,2.029464,77.332726,27.699496999999997,7.951205,3.9806730000000003,2.417223,2.0779240000000003,1.322508,0.286273,0.896339,0.6475890000000001,0.24917899999999998,0.043748,0.020731,0.005471,0.012724,79.09581,5.4197940000000004,1.316419,0.786456,1.142627
23137,1645495566.5568929,1645495566.58694,17.0,0.0,4295.897461,3141.025635,4372.820313,4280.512695,4515.897461,0.0,3.0,73.0,,,,0.0,4.0,4.0,4.0,0.0,4.0,66.666664,,,,,,,,,,,,,,,,,,,,,,,,,,,,,,,,,,,,,,,,,,,,,,,,,,,,,,,,,,,,,,,,,,,,,,,,,,,,,,,,,,,,
23138,1645495566.564707,1645495566.5947552,18.0,0.0,4278.461426,3128.205078,4368.205078,4280.512695,4509.230957,0.0,3.0,73.0,,,,0.0,4.0,4.0,4.0,0.0,4.0,66.666664,,,,,,,,9.0,0.0,0.361153,-0.317139,0.5900880000000001,0.648682,0.847669,-0.531258,-0.107424,-0.033184,-0.040295,-0.034863,,,,,,,,,,,,,,,,,,,,,,,,,,,,,,,,,,,,,,,,,,,,,,,,,,,,,,,,,,,,,,,,,
23139,1645495566.5725212,1645495566.602571,19.0,0.0,4283.589844,3114.3588870000003,4379.487305,4280.512695,4514.871582,0.0,3.0,73.0,,,,0.0,4.0,4.0,4.0,0.0,4.0,66.666664,,,,,,,,,,,,,,,,,,,,,,,,,,,,,,,,,,,,,,,,,,,,,,,,,,,,,,,,,,,,,,,,,,,,,,,,,,,,,,,,,,,,
23140,1645495566.580335,1645495566.6103868,20.0,0.0,4306.153809,3120.512939,4397.436035,4280.512695,4520.0,0.0,3.0,73.0,,,,0.0,4.0,4.0,4.0,0.0,4.0,66.666664,,,,,,,,10.0,0.0,0.361153,-0.317139,0.5900880000000001,0.648682,0.8452280000000001,-0.539559,-0.113283,-0.033235,-0.040318,-0.029863,,,,,,,,,,,,,,,,,,,,,,,,,,,,,,,,,,,0.0,0.0,1.0,0.0,128.0,1.0,,,,,,,,,,,,,,,,,,,,,,,,,
23141,1645495566.588149,1645495566.618202,21.0,0.0,4309.230957,3131.281982,4409.230957,4280.512695,4515.897461,0.0,3.0,73.0,,,,0.0,4.0,4.0,4.0,0.0,4.0,66.666664,,,,,,,,,,,,,,,,,,,,,,,,,,,,,,,,,,,,,,,,,,,,,,,,,,,,,,,,,,,,,,,,,,,,,,,,,,,,,,,,,,,,
23142,1645495566.595963,1645495566.625918,22.0,0.0,4297.94873,3145.6411129999997,4409.743652,4280.512695,4517.94873,0.0,3.0,73.0,,,,0.0,4.0,4.0,4.0,0.0,4.0,66.666664,,,,,,,,11.0,0.0,0.361153,-0.317139,0.5900880000000001,0.648682,0.850599,-0.541024,-0.095216,-0.033281,-0.040242,-0.031809,,,,,,,,,,,,,,,,,,,,,,,,,,,,,,,,,,,,,,,,,,,,,,,,,,,,,,,,,,,,,,,,,
23143,1645495566.603777,1645495566.633733,23.0,0.0,4293.846191,3162.05127,4393.846191,4280.512695,4508.205078,0.0,3.0,73.0,,,,0.0,4.0,4.0,4.0,0.0,4.0,66.666664,,,,,,,,,,,,,,,,,,,,,,,,,,,,,,,,,,,,,,,,,,,,,,,,,,,,,,,,,,,,,,,,,,,,,,,,,,,,,,,,,,,,
23144,1645495566.611591,1645495566.6415482,24.0,0.0,4300.512695,3196.410156,4387.692383,4280.512695,4504.615234000001,0.0,3.0,73.0,,,,0.0,4.0,4.0,4.0,0.0,4.0,66.666664,,,,,,,,12.0,0.0,0.36093800000000004,-0.31738299999999997,0.5900880000000001,0.648682,0.8403450000000001,-0.549813,-0.11133,-0.033371,-0.040173,-0.027357999999999997,,,,,,,,,,,,,,,,,,,,,,,,,,,,,,,,,,,0.0,0.0,1.0,0.0,128.0,1.0,,,,,,,,,,,,,,,,,,,,,,,,,
23145,1645495566.619405,1645495566.649364,25.0,0.0,4310.256348,3230.256348,4395.384765999999,4280.512695,4522.05127,0.0,3.0,73.0,,,,0.0,4.0,4.0,4.0,0.0,4.0,66.666664,,,,,,,,,,,,,,,,,,,,,,,,,,,,,,,,,,,,,,,,,,,,,,,,,,,,,,,,,,,,,,,,,,,,,,,,,,,,,,,,,,,,
23146,1645495566.627219,1645495566.6571789,26.0,0.0,4315.897461,3195.384521,4387.692383,4280.512695,4520.0,0.0,3.0,73.0,,,,0.0,4.0,4.0,4.0,0.0,4.0,66.666664,,,,,,,,13.0,0.0,0.36093800000000004,-0.31738299999999997,0.5900880000000001,0.648682,0.8447389999999999,-0.550301,-0.109865,-0.033354,-0.040208,-0.029408,,,,,,,,,,,,,,,,,,,,,,,,,,,,,,,,,,,,,,,,,,,,,,,,,,,,,,,,,,,,,,,,,
23147,1645495566.635033,1645495566.664995,27.0,0.0,4311.794922,3142.564209,4370.256348,4280.512695,4496.922852000001,0.0,3.0,73.0,,,,0.0,4.0,4.0,4.0,0.0,4.0,66.666664,,,,,,,,,,,,,,,,,,,,,,,,,,,,,,,,,,,,,,,,,,,,,,,,,,,,,,,,,,,,,,,,,,,,,,,,,,,,,,,,,,,,
23148,1645495566.642847,1645495566.67281,28.0,0.0,4304.102539,3172.3076170000004,4382.05127,4280.512695,4500.0,0.0,3.0,73.0,,,,0.0,4.0,4.0,4.0,0.0,4.0,66.666664,,,,,,,,14.0,0.0,0.36093800000000004,-0.31738299999999997,0.5900880000000001,0.648682,0.8520639999999999,-0.546883,-0.10888800000000001,-0.033388,-0.040191000000000004,-0.0251,,,,,,,,,,,,,,,,,,,,,,,,,,,,,,,,,,,0.0,0.0,1.0,0.0,128.0,1.0,,,,,,,,,,,,,,,,,,,,,,,,,
23149,1645495566.650661,1645495566.680625,29.0,0.0,4303.589844,3237.94873,4388.717772999999,4280.512695,4522.563965,0.0,3.0,73.0,,,,0.0,4.0,4.0,4.0,0.0,4.0,66.666664,,,,,,,,,,,,,,,,,,,,,,,,,,,,,,,,,,,,,,,,,,,,,,,,,,,,,,,,,,,,,,,,,,,,,,,,,,,,,,,,,,,,
23150,1645495566.658475,1645495566.688441,30.0,0.0,4312.820313,3255.384521,4377.94873,4280.512695,4521.538574,0.0,3.0,73.0,,,,0.0,4.0,4.0,4.0,0.0,4.0,66.666664,,,,,,,,15.0,0.0,0.36093800000000004,-0.31738299999999997,0.5900880000000001,0.648682,0.8403450000000001,-0.549813,-0.11133,-0.033418,-0.040175999999999996,-0.021174000000000002,,,,,,,,,,,,,,,,,,,,,,,,,,,,,,,,,,,,,,,,,,,,,,,,,,,,,,,,,,,,,,,,,
23151,1645495566.666289,1645495566.696156,31.0,0.0,4321.025879,3263.589844,4374.358886999999,4280.512695,4516.922852000001,0.0,3.0,73.0,,,,0.0,4.0,4.0,4.0,0.0,4.0,66.666664,,,,,,,,,,,,,,,,,,,,,,,,,,,,,,,,,,,,,,,,,,,,,,,,,,,,,,,,,,,,,,,,,,,,,,,,,,,,,,,,,,,,
23152,1645495566.674103,1645495566.7039711,32.0,0.0,4322.563965,3301.5385739999997,4391.794922,4280.512695,4540.0,0.0,3.0,73.0,,,,0.0,4.0,4.0,4.0,0.0,4.0,66.666664,,,,,,,,16.0,0.0,0.36093800000000004,-0.31738299999999997,0.5900880000000001,0.648682,0.8520639999999999,-0.546883,-0.10888800000000001,-0.033446,-0.040163,-0.017689,1.0,0.0,0.0,,,,,,,,,,,,,,,,,,,,,,,,,,,,,,,,0.0,0.0,1.0,0.0,128.0,1.0,607.908813,24.499554,4.598991000000001,2.03851,2.2514950000000002,92.757278,30.330540000000003,8.801577,4.2288239999999995,2.077652,2.545554,1.4219030000000001,0.356377,0.937019,0.637159,0.42612799999999995,0.073048,0.023197,0.003594,0.012435,138.48551899999998,6.934255,1.6273360000000001,0.883491,1.056233
23153,1645495566.681917,1645495566.711787,33.0,0.0,4326.666504,3322.564209,4386.153809,4280.512695,4553.333496,0.0,3.0,73.0,,,,0.0,4.0,4.0,4.0,0.0,4.0,66.666664,,,,,,,,,,,,,,,,,,,,,,,,,,,,,,,,,,,,,,,,,,,,,,,,,,,,,,,,,,,,,,,,,,,,,,,,,,,,,,,,,,,,
23154,1645495566.6897311,1645495566.7196019,34.0,0.0,4320.0,3307.179443,4366.666504,4280.512695,4523.589844,0.0,3.0,73.0,,,,0.0,4.0,4.0,4.0,0.0,4.0,66.666664,,,,,,,,17.0,0.0,0.361162,-0.317627,0.5900880000000001,0.648438,0.8413209999999999,-0.545419,-0.11230599999999999,-0.033421,-0.040199,-0.020852000000000002,,,,,,,,,,,,,,,,,,,,,,,,,,,,,,,,,,,,,,,,,,,,,,,,,,,,,,,,,,,,,,,,,
23155,1645495566.6975448,1645495566.727418,35.0,0.0,4297.436035,3296.923096,4365.641113000001,4280.512695,4505.128418,0.0,3.0,73.0,,,,0.0,4.0,4.0,4.0,0.0,4.0,66.666664,,,,,,,,,,,,,,,,,,,,,,,,,,,,,,,,,,,,,,,,,,,,,,,,,,,,,,,,,,,,,,,,,,,,,,,,,,,,,,,,,,,,
23156,1645495566.705359,1645495566.735233,36.0,0.0,4302.05127,3352.820557,4367.692383,4280.512695,4528.205078,0.0,3.0,73.0,,,,0.0,4.0,4.0,4.0,0.0,4.0,66.666664,,,,,,,,18.0,0.0,0.361162,-0.317627,0.5900880000000001,0.648438,0.8589,-0.537606,-0.113283,-0.033351,-0.040133999999999996,-0.017351,,,,,,,,,,,,,,,,,,,,,,,,,,,,,,,,,,,0.0,0.0,1.0,0.0,128.0,1.0,,,,,,,,,,,,,,,,,,,,,,,,,
23157,1645495566.7131732,1645495566.743048,37.0,0.0,4328.717772999999,3445.641113,4367.692383,4280.512695,4531.282227000001,0.0,3.0,73.0,,,,0.0,4.0,4.0,4.0,0.0,4.0,66.666664,,,,,,,,,,,,,,,,,,,,,,,,,,,,,,,,,,,,,,,,,,,,,,,,,,,,,,,,,,,,,,,,,,,,,,,,,,,,,,,,,,,,
23158,1645495566.7209868,1645495566.7509642,38.0,0.0,4325.641113000001,3489.743652,4382.563965,4280.512695,4517.436035,0.0,3.0,73.0,,,,0.0,4.0,4.0,4.0,0.0,4.0,66.666664,,,,,,,,19.0,0.0,0.361162,-0.317627,0.5900880000000001,0.648438,0.843275,-0.536141,-0.10693499999999999,-0.033385000000000005,-0.040174,-0.014247999999999999,,,,,,,,,,,,,,,,,,,,,,,,,,,,,,,,,,,,,,,,,,,,,,,,,,,,,,,,,,,,,,,,,
23159,1645495566.728801,1645495566.75878,39.0,0.0,4309.743652,3494.358887,4393.846191,4280.512695,4521.538574,0.0,3.0,73.0,,,,0.0,4.0,4.0,4.0,0.0,4.0,66.666664,,,,,,,,,,,,,,,,,,,,,,,,,,,,,,,,,,,,,,,,,,,,,,,,,,,,,,,,,,,,,,,,,,,,,,,,,,,,,,,,,,,,
23160,1645495566.736615,1645495566.766596,40.0,0.0,4316.410156,3508.205078,4388.205078,4280.512695,4508.205078,0.0,3.0,73.0,,,,0.0,4.0,4.0,4.0,0.0,4.0,66.666664,,,,,,,,20.0,0.0,0.36094699999999996,-0.317871,0.5900880000000001,0.648438,0.839368,-0.52784,-0.114748,-0.033318,-0.04016,-0.017706,,,,,,,,,,,,,,,,,,,,,,,,,,,,,,,,,,,0.0,0.0,1.0,0.0,128.0,1.0,,,,,,,,,,,,,,,,,,,,,,,,,
23161,1645495566.7444289,1645495566.774412,41.0,0.0,4330.769043,3508.205078,4382.563965,4280.512695,4489.230957,0.0,3.0,73.0,,,,0.0,4.0,4.0,4.0,0.0,4.0,66.666664,,,,,,,,,,,,,,,,,,,,,,,,,,,,,,,,,,,,,,,,,,,,,,,,,,,,,,,,,,,,,,,,,,,,,,,,,,,,,,,,,,,,
23162,1645495566.752243,1645495566.782229,42.0,0.0,4329.230957,3469.743652,4385.128418,4280.512695,4502.05127,0.0,3.0,73.0,,,,0.0,4.0,4.0,4.0,0.0,4.0,66.666664,,,,,,,,21.0,0.0,0.36156900000000003,-0.31811500000000004,0.5898439999999999,0.648193,0.846693,-0.5337,-0.100587,-0.033208999999999995,-0.040246,-0.020721,,,,,,,,,,,,,,,,,,,,,,,,,,,,,,,,,,,,,,,,,,,,,,,,,,,,,,,,,,,,,,,,,
23163,1645495566.760057,1645495566.790045,43.0,0.0,4329.230957,3455.384521,4394.871582,4280.512695,4521.538574,0.0,3.0,73.0,,,,0.0,4.0,4.0,4.0,0.0,4.0,66.666664,,,,,,,,,,,,,,,,,,,,,,,,,,,,,,,,,,,,,,,,,,,,,,,,,,,,,,,,,,,,,,,,,,,,,,,,,,,,,,,,,,,,
23164,1645495566.767872,1645495566.7978609,44.0,0.0,4344.615234000001,3482.0512700000004,4391.794922,4280.512695,4517.436035,0.0,3.0,73.0,,,,0.0,4.0,4.0,4.0,0.0,4.0,66.666664,,,,,,,,22.0,0.0,0.36156900000000003,-0.31811500000000004,0.5898439999999999,0.648193,0.8584120000000001,-0.5297930000000001,-0.116701,-0.033062,-0.040274000000000004,-0.02363,,,,,,,,,,,,,,,,,,,,,,,,,,,,,,,,,,,0.0,0.0,1.0,0.0,128.0,1.0,,,,,,,,,,,,,,,,,,,,,,,,,
23165,1645495566.775685,1645495566.805677,45.0,0.0,4347.692383,3469.743652,4385.641113000001,4280.512695,4516.922852000001,0.0,3.0,73.0,,,,0.0,4.0,4.0,4.0,0.0,4.0,66.666664,,,,,,,,,,,,,,,,,,,,,,,,,,,,,,,,,,,,,,,,,,,,,,,,,,,,,,,,,,,,,,,,,,,,,,,,,,,,,,,,,,,,
23166,1645495566.783499,1645495566.813493,46.0,0.0,4327.179688,3414.358887,4384.615234000001,4280.512695,4517.94873,0.0,3.0,73.0,,,,0.0,4.0,4.0,4.0,0.0,4.0,66.666664,,,,,,,,23.0,0.0,0.361354,-0.318359,0.5898439999999999,0.648193,0.851087,-0.521004,-0.113283,-0.033076,-0.040251,-0.026198000000000003,,,,,,,,,,,,,,,,,,,,,,,,,,,,,,,,,,,,,,,,,,,,,,,,,,,,,,,,,,,,,,,,,
23167,1645495566.7913141,1645495566.821309,47.0,0.0,4316.410156,3390.256348,4386.666504,4280.512695,4500.512695,0.0,3.0,73.0,,,,0.0,4.0,4.0,4.0,0.0,4.0,66.666664,,,,,,,,,,,,,,,,,,,,,,,,,,,,,,,,,,,,,,,,,,,,,,,,,,,,,,,,,,,,,,,,,,,,,,,,,,,,,,,,,,,,
23168,1645495566.7991269,1645495566.829225,48.0,0.0,4320.0,3419.487061,4372.307617,4280.0,4495.897461,0.0,3.0,73.0,,,,0.0,4.0,4.0,4.0,0.0,4.0,66.666664,,,,,,,,24.0,0.0,0.36091599999999996,-0.318359,0.5898439999999999,0.648438,0.8564579999999999,-0.5302819999999999,-0.09668099999999999,-0.033089,-0.04023,-0.02851,1.0,0.0,0.0,,,,,,,,,,,,,,,,,,,,,,,,,,,,,,,,0.0,0.0,1.0,0.0,128.0,1.0,881.6081539999999,32.00156,6.085278,2.44159,2.429935,107.71067,30.941209999999998,9.449449000000001,4.54326,1.985916,3.179608,1.393885,0.481846,0.905215,0.616206,0.612593,0.10945099999999999,0.02974,0.0035,0.015494999999999998,199.85919199999998,8.725945,2.092661,1.025763,0.9939110000000001
23169,1645495566.806941,1645495566.83704,49.0,0.0,4315.384765999999,3449.2307130000004,4367.692383,4280.512695,4505.128418,0.0,3.0,73.0,,,,0.0,4.0,4.0,4.0,0.0,4.0,66.666664,,,,,,,,,,,,,,,,,,,,,,,,,,,,,,,,,,,,,,,,,,,,,,,,,,,,,,,,,,,,,,,,,,,,,,,,,,,,,,,,,,,,
23170,1645495566.8147562,1645495566.844856,50.0,0.0,4312.820313,3446.6667479999996,4369.230957,4281.025879,4492.820313,0.0,3.0,73.0,,,,0.0,4.0,4.0,4.0,0.0,4.0,66.666664,,,,,,,,25.0,0.0,0.361139,-0.318604,0.5898439999999999,0.648193,0.846693,-0.537118,-0.104494,-0.033051,-0.040063999999999995,-0.024340999999999998,,,,,,,,,,,,,,,,,,,,,,,,,,,,,,,,,,,,,,,,,,,,,,,,,,,,,,,,,,,,,,,,,
23171,1645495566.822569,1645495566.852672,51.0,0.0,4309.230957,3445.641113,4372.307617,4281.538574,4481.538574,0.0,3.0,73.0,,,,0.0,4.0,4.0,4.0,0.0,4.0,66.666664,,,,,,,,,,,,,,,,,,,,,,,,,,,,,,,,,,,,,,,,,,,,,,,,,,,,,,,,,,,,,,,,,,,,,,,,,,,,,,,,,,,,
23172,1645495566.830383,1645495566.8604882,52.0,0.0,4310.769043,3476.4101560000004,4377.436035,4281.025879,4497.436035,0.0,3.0,73.0,,,,0.0,4.0,4.0,4.0,0.0,4.0,66.666664,,,,,,,,26.0,0.0,0.361139,-0.318604,0.5898439999999999,0.648193,0.8413209999999999,-0.526375,-0.10351700000000001,-0.033018,-0.04011,-0.026838,,,,,,,,,,,,,,,,,,,,,,,,,,,,,,,,,,,0.0,0.0,1.0,0.0,128.0,1.0,,,,,,,,,,,,,,,,,,,,,,,,,
23173,1645495566.838197,1645495566.868304,53.0,0.0,4329.743652,3518.461426,4370.769043,4281.025879,4508.717772999999,0.0,3.0,73.0,,,,0.0,4.0,4.0,4.0,0.0,4.0,66.666664,,,,,,,,,,,,,,,,,,,,,,,,,,,,,,,,,,,,,,,,,,,,,,,,,,,,,,,,,,,,,,,,,,,,,,,,,,,,,,,,,,,,
23174,1645495566.8460119,1645495566.8761199,54.0,0.0,4326.666504,3540.0,4362.563965,4281.538574,4494.358886999999,0.0,3.0,73.0,,,,0.0,4.0,4.0,4.0,0.0,4.0,66.666664,,,,,,,,27.0,0.0,0.361139,-0.318604,0.5898439999999999,0.648193,0.851087,-0.540536,-0.102052,-0.033036,-0.040103,-0.029086,,,,,,,,,,,,,,,,,,,,,,,,,,,,,,,,,,,,,,,,,,,,,,,,,,,,,,,,,,,,,,,,,
23175,1645495566.853825,1645495566.883936,55.0,0.0,4296.410156,3523.5898439999996,4363.077147999999,4281.538574,4484.102539,0.0,3.0,73.0,,,,0.0,4.0,4.0,4.0,0.0,4.0,66.666664,,,,,,,,,,,,,,,,,,,,,,,,,,,,,,,,,,,,,,,,,,,,,,,,,,,,,,,,,,,,,,,,,,,,,,,,,,,,,,,,,,,,
23176,1645495566.861639,1645495566.891751,56.0,0.0,4292.820313,3522.0512700000004,4359.487305,4281.025879,4483.589844,0.0,3.0,73.0,,,,0.0,4.0,4.0,4.0,0.0,4.0,66.666664,,,,,,,,28.0,0.0,0.361139,-0.318604,0.5898439999999999,0.648193,0.854505,-0.546395,-0.107912,-0.032907,-0.039951,-0.031012,,,,,,,,,,,,,,,,,,,,,,,,,,,,,,,,,,,0.0,0.0,1.0,0.0,128.0,1.0,,,,,,,,,,,,,,,,,,,,,,,,,
23177,1645495566.869454,1645495566.899567,57.0,0.0,4308.205078,3565.1281740000004,4360.512695,4281.025879,4472.820313,0.0,3.0,73.0,,,,0.0,4.0,4.0,4.0,0.0,4.0,66.666664,,,,,,,,,,,,,,,,,,,,,,,,,,,,,,,,,,,,,,,,,,,,,,,,,,,,,,,,,,,,,,,,,,,,,,,,,,,,,,,,,,,,
23178,1645495566.877267,1645495566.907283,58.0,0.0,4307.179688,3573.3332520000004,4377.436035,4281.025879,4474.358886999999,0.0,3.0,73.0,,,,0.0,4.0,4.0,4.0,0.0,4.0,66.666664,,,,,,,,29.0,0.0,0.361354,-0.318359,0.5898439999999999,0.648193,0.8593879999999999,-0.534676,-0.103029,-0.032985,-0.040007999999999995,-0.026494999999999998,,,,,,,,,,,,,,,,,,,,,,,,,,,,,,,,,,,,,,,,,,,,,,,,,,,,,,,,,,,,,,,,,
23179,1645495566.885081,1645495566.915098,59.0,0.0,4312.307617,3535.384521,4374.358886999999,4281.025879,4485.641113000001,0.0,3.0,73.0,,,,0.0,4.0,4.0,4.0,0.0,4.0,66.666664,,,,,,,,,,,,,,,,,,,,,,,,,,,,,,,,,,,,,,,,,,,,,,,,,,,,,,,,,,,,,,,,,,,,,,,,,,,,,,,,,,,,
23180,1645495566.8928962,1645495566.9230142,60.0,0.0,4323.589844,3549.743652,4363.077147999999,4281.025879,4480.512695,0.0,3.0,73.0,,,,0.0,4.0,4.0,4.0,0.0,4.0,66.666664,,,,,,,,30.0,0.0,0.360956,-0.318359,0.5900880000000001,0.648193,0.8447389999999999,-0.542489,-0.11084200000000001,-0.033007,-0.039816000000000004,-0.028923,,,,,,,,,,,,,,,,,,,,,,,,,,,,,,,,,,,0.0,0.0,1.0,0.0,128.0,1.0,,,,,,,,,,,,,,,,,,,,,,,,,
23181,1645495566.9007099,1645495566.93083,61.0,0.0,4321.538574,3596.923096,4368.205078,4281.025879,4476.410156,0.0,3.0,73.0,,,,0.0,4.0,4.0,4.0,0.0,4.0,66.666664,,,,,,,,,,,,,,,,,,,,,,,,,,,,,,,,,,,,,,,,,,,,,,,,,,,,,,,,,,,,,,,,,,,,,,,,,,,,,,,,,,,,
23182,1645495566.908523,1645495566.938646,62.0,0.0,4328.205078,3584.615479,4372.820313,4281.025879,4484.102539,0.0,3.0,73.0,,,,0.0,4.0,4.0,4.0,0.0,4.0,66.666664,,,,,,,,31.0,0.0,0.361792,-0.318359,0.5898439999999999,0.647949,0.863783,-0.542,-0.10888800000000001,-0.033124,-0.039887,-0.024713,,,,,,,,,,,,,,,,,,,,,,,,,,,,,,,,,,,,,,,,,,,,,,,,,,,,,,,,,,,,,,,,,
23183,1645495566.916338,1645495566.946462,63.0,0.0,4342.05127,3545.1281740000004,4360.0,4281.025879,4484.102539,0.0,3.0,73.0,,,,0.0,4.0,4.0,4.0,0.0,4.0,66.666664,,,,,,,,,,,,,,,,,,,,,,,,,,,,,,,,,,,,,,,,,,,,,,,,,,,,,,,,,,,,,,,,,,,,,,,,,,,,,,,,,,,,
23184,1645495566.924152,1645495566.954278,64.0,0.0,4344.615234000001,3547.6923829999996,4373.333496,4281.025879,4484.102539,450.0,3.0,73.0,,,,0.0,4.0,4.0,4.0,0.0,4.0,66.666664,1.0,25.0,3.0,0.0,4.0,0.0,3.0,32.0,0.0,0.361792,-0.318359,0.5898439999999999,0.647949,0.8481569999999999,-0.520027,-0.109865,-0.033181,-0.039951,-0.027027,1.0,0.0,0.0,,,,,,,,,,,,,,,,,,,,,,,,,,,,,,,,0.0,0.0,1.0,0.0,128.0,1.0,1091.283936,37.741935999999995,7.262672,2.770204,2.51802,128.936844,29.239555,9.830276,5.158271,2.106992,3.7496410000000004,1.251475,0.6662140000000001,0.8092090000000001,0.585712,0.7554420000000001,0.142312,0.036569,0.004006,0.018644,246.33239700000001,9.995302,2.579784,1.183382,0.945002
23185,1645495566.931965,1645495566.9620929,65.0,0.0,4342.563965,3575.897461,4380.0,4281.025879,4502.05127,450.0,3.0,73.0,,,,0.0,4.0,4.0,4.0,0.0,4.0,66.666664,,,,,,,,,,,,,,,,,,,,,,,,,,,,,,,,,,,,,,,,,,,,,,,,,,,,,,,,,,,,,,,,,,,,,,,,,,,,,,,,,,,,
23186,1645495566.93978,1645495566.969809,66.0,0.0,4334.871582,3574.358887,4361.538574,4281.025879,4501.538574,16233.0,3.0,73.0,,,,0.0,4.0,4.0,4.0,0.0,4.0,66.666664,,,,,,,,33.0,0.0,0.361792,-0.318359,0.5898439999999999,0.647949,0.843275,-0.519051,-0.101076,-0.033281,-0.039863,-0.029207,,,,,,,,,,,,,,,,,,,,,,,,,,,,,,,,,,,,,,,,,,,,,,,,,,,,,,,,,,,,,,,,,
23187,1645495566.947594,1645495566.977625,67.0,0.0,4321.538574,3563.076904,4352.307617,4281.025879,4480.512695,450.0,3.0,73.0,,,,0.0,4.0,4.0,4.0,0.0,4.0,66.666664,,,,,,,,,,,,,,,,,,,,,,,,,,,,,,,,,,,,,,,,,,,,,,,,,,,,,,,,,,,,,,,,,,,,,,,,,,,,,,,,,,,,
23188,1645495566.955408,1645495566.98544,68.0,0.0,4320.512695,3600.0,4364.615234000001,4281.025879,4481.025879,16156.0,3.0,73.0,,,,0.0,4.0,4.0,4.0,0.0,4.0,66.666664,,,,,,,,34.0,0.0,0.361577,-0.318604,0.5898439999999999,0.647949,0.846693,-0.540047,-0.092775,-0.033322000000000004,-0.039831,-0.031218,,,,,,,,,,,,,,,,,,,,,,,,,,,,,,,,,,,0.0,0.0,1.0,0.0,128.0,1.0,,,,,,,,,,,,,,,,,,,,,,,,,
23189,1645495566.963222,1645495566.993256,69.0,0.0,4341.025879,3613.3332520000004,4374.871582,4281.025879,4500.512695,450.0,3.0,73.0,,,,0.0,4.0,4.0,4.0,0.0,4.0,66.666664,,,,,,,,,,,,,,,,,,,,,,,,,,,,,,,,,,,,,,,,,,,,,,,,,,,,,,,,,,,,,,,,,,,,,,,,,,,,,,,,,,,,
23190,1645495566.971036,1645495567.0010722,70.0,0.0,4363.077147999999,3560.512939,4374.871582,4281.025879,4517.436035,16125.0,3.0,73.0,,,,0.0,4.0,4.0,4.0,0.0,4.0,66.666664,,,,,,,,35.0,0.0,0.361577,-0.318604,0.5898439999999999,0.647949,0.842298,-0.537606,-0.109865,-0.03331,-0.039999,-0.033076999999999995,,,,,,,,,,,,,,,,,,,,,,,,,,,,,,,,,,,,,,,,,,,,,,,,,,,,,,,,,,,,,,,,,
23191,1645495566.97885,1645495567.0088868,71.0,0.0,4360.0,3538.974365,4369.743652,4281.025879,4518.461426,450.0,3.0,73.0,,,,0.0,4.0,4.0,4.0,0.0,4.0,66.666664,,,,,,,,,,,,,,,,,,,,,,,,,,,,,,,,,,,,,,,,,,,,,,,,,,,,,,,,,,,,,,,,,,,,,,,,,,,,,,,,,,,,
23192,1645495566.986664,1645495567.016603,72.0,0.0,4349.230957,3566.1538090000004,4365.128418,4281.025879,4498.461426,450.0,3.0,73.0,,,,0.0,4.0,4.0,4.0,0.0,4.0,66.666664,,,,,,,,36.0,0.0,0.361792,-0.318359,0.5898439999999999,0.647949,0.8520639999999999,-0.533211,-0.11718900000000002,-0.033250999999999996,-0.040003,-0.028451,,,,,,,,,,,,,,,,,,,,,,,,,,,,,,,,,,,0.0,0.0,1.0,0.0,128.0,1.0,,,,,,,,,,,,,,,,,,,,,,,,,
23193,1645495566.994478,1645495567.0244179,73.0,0.0,4357.94873,3598.974365,4378.974121,4281.025879,4492.820313,0.0,3.0,73.0,,,,0.0,4.0,4.0,4.0,0.0,4.0,66.666664,,,,,,,,,,,,,,,,,,,,,,,,,,,,,,,,,,,,,,,,,,,,,,,,,,,,,,,,,,,,,,,,,,,,,,,,,,,,,,,,,,,,
23194,1645495567.002292,1645495567.032234,74.0,0.0,4359.487305,3634.358887,4388.717772999999,4281.025879,4511.282227000001,450.0,3.0,73.0,,,,0.0,4.0,4.0,4.0,0.0,4.0,66.666664,,,,,,,,37.0,0.0,0.361354,-0.318359,0.5898439999999999,0.648193,0.845716,-0.536141,-0.093751,-0.033246,-0.039958,-0.024238,,,,,,,,,,,,,,,,,,,,,,,,,,,,,,,,,,,,,,,,,,,,,,,,,,,,,,,,,,,,,,,,,
23195,1645495567.010106,1645495567.03995,75.0,0.0,4345.641113000001,3627.179443,4364.102539,4281.025879,4509.743652,16226.0,3.0,73.0,,,,0.0,4.0,4.0,4.0,0.0,4.0,66.666664,,,,,,,,,,,,,,,,,,,,,,,,,,,,,,,,,,,,,,,,,,,,,,,,,,,,,,,,,,,,,,,,,,,,,,,,,,,,,,,,,,,,
23196,1645495567.01792,1645495567.047765,76.0,0.0,4342.05127,3593.3332520000004,4344.102539,4281.025879,4474.871582,450.0,3.0,73.0,,,,0.0,4.0,4.0,4.0,0.0,4.0,66.666664,,,,,,,,38.0,0.0,0.362007,-0.31811500000000004,0.5898439999999999,0.647949,0.843275,-0.523934,-0.107424,-0.033339,-0.039868,-0.020447,,,,,,,,,,,,,,,,,,,,,,,,,,,,,,,,,,,0.0,0.0,1.0,0.0,128.0,1.0,,,,,,,,,,,,,,,,,,,,,,,,,
23197,1645495567.025734,1645495567.055581,77.0,0.0,4348.717772999999,3616.4101560000004,4368.717772999999,4281.025879,4467.692383,450.0,3.0,73.0,,,,0.0,4.0,4.0,4.0,0.0,4.0,66.666664,,,,,,,,,,,,,,,,,,,,,,,,,,,,,,,,,,,,,,,,,,,,,,,,,,,,,,,,,,,,,,,,,,,,,,,,,,,,,,,,,,,,
23198,1645495567.033548,1645495567.0633972,78.0,0.0,4353.333496,3634.358887,4381.025879,4281.025879,4489.230957,450.0,3.0,73.0,,,,0.0,4.0,4.0,4.0,0.0,4.0,66.666664,,,,,,,,39.0,0.0,0.362007,-0.31811500000000004,0.5898439999999999,0.647949,0.854017,-0.532235,-0.113771,-0.033326,-0.039983,-0.023334,,,,,,,,,,,,,,,,,,,,,,,,,,,,,,,,,,,,,,,,,,,,,,,,,,,,,,,,,,,,,,,,,
23199,1645495567.0413618,1645495567.0712118,79.0,0.0,4356.410156,3601.538574,4356.410156,4281.025879,4489.743652,16226.0,3.0,73.0,,,,0.0,4.0,4.0,4.0,0.0,4.0,66.666664,,,,,,,,,,,,,,,,,,,,,,,,,,,,,,,,,,,,,,,,,,,,,,,,,,,,,,,,,,,,,,,,,,,,,,,,,,,,,,,,,,,,
23200,1645495567.049176,1645495567.079028,80.0,0.0,4351.282227000001,3622.0512700000004,4339.487305,4281.025879,4469.230957,450.0,3.0,73.0,,,,0.0,4.0,4.0,4.0,0.0,4.0,66.666664,,,,,,,,40.0,0.0,0.361609,-0.31811500000000004,0.5900880000000001,0.647949,0.8686659999999999,-0.527352,-0.103029,-0.033362,-0.039891,-0.025932999999999998,1.0,0.0,0.0,,,,,,,,,,,,,,,,,,,,,,,,,,,,,,,,0.0,0.0,1.0,0.0,1.0,0.0,1170.022095,39.769878000000006,7.734843,2.9430240000000003,2.480501,140.62614399999998,25.735579,9.913558,6.230753,2.363078,4.163389,1.041563,0.897475,0.679539,0.550929,0.8026770000000001,0.16054100000000002,0.039941000000000004,0.004352,0.019898,261.867828,10.216628,2.900584,1.312467,0.8992049999999999
23201,1645495567.0569901,1645495567.086943,81.0,0.0,4342.563965,3670.256348,4360.512695,4281.025879,4457.436035,450.0,3.0,73.0,,,,0.0,4.0,4.0,4.0,0.0,4.0,66.666664,,,,,,,,,,,,,,,,,,,,,,,,,,,,,,,,,,,,,,,,,,,,,,,,,,,,,,,,,,,,,,,,,,,,,,,,,,,,,,,,,,,,
23202,1645495567.0648038,1645495567.094759,82.0,0.0,4345.128418,3629.743652,4366.666504,4281.025879,4478.974121,450.0,3.0,73.0,,,,0.0,4.0,4.0,4.0,0.0,4.0,66.666664,,,,,,,,41.0,0.0,0.361425,-0.317871,0.590332,0.647949,0.8574350000000001,-0.522469,-0.10498199999999999,-0.033395,-0.039955000000000004,-0.021922999999999998,,,,,,,,,,,,,,,,,,,,,,,,,,,,,,,,,,,,,,,,,,,,,,,,,,,,,,,,,,,,,,,,,
23203,1645495567.072618,1645495567.102574,83.0,0.0,4345.128418,3557.9487299999996,4354.871582,4281.025879,4501.538574,16226.0,3.0,73.0,,,,0.0,4.0,4.0,4.0,0.0,4.0,66.666664,,,,,,,,,,,,,,,,,,,,,,,,,,,,,,,,,,,,,,,,,,,,,,,,,,,,,,,,,,,,,,,,,,,,,,,,,,,,,,,,,,,,
23204,1645495567.080432,1645495567.11029,84.0,0.0,4343.589844,3565.1281740000004,4344.615234000001,4281.025879,4490.256348,450.0,3.0,73.0,,,,0.0,4.0,4.0,4.0,0.0,4.0,66.666664,,,,,,,,42.0,0.0,0.36186199999999996,-0.317871,0.590332,0.647705,0.842786,-0.529305,-0.104005,-0.033425,-0.040012,-0.024565,,,,,,,,,,,,,,,,,,,,,,,,,,,,,,,,,,,0.0,0.0,1.0,0.0,1.0,0.0,,,,,,,,,,,,,,,,,,,,,,,,,
23205,1645495567.088246,1645495567.1181061,85.0,0.0,4357.94873,3609.2307130000004,4345.128418,4281.025879,4482.563965,450.0,3.0,73.0,,,,0.0,4.0,4.0,4.0,0.0,4.0,66.666664,,,,,,,,,,,,,,,,,,,,,,,,,,,,,,,,,,,,,,,,,,,,,,,,,,,,,,,,,,,,,,,,,,,,,,,,,,,,,,,,,,,,
23206,1645495567.09606,1645495567.125921,86.0,0.0,4362.05127,3603.076904,4352.307617,4281.025879,4503.589844,450.0,3.0,73.0,,,,0.0,4.0,4.0,4.0,0.0,4.0,66.666664,,,,,,,,43.0,0.0,0.361609,-0.31811500000000004,0.5900880000000001,0.647949,0.8686659999999999,-0.527352,-0.103029,-0.033451999999999996,-0.040063999999999995,-0.020839,,,,,,,,,,,,,,,,,,,,,,,,,,,,,,,,,,,,,,,,,,,,,,,,,,,,,,,,,,,,,,,,,
23207,1645495567.103874,1645495567.1337368,87.0,0.0,4342.05127,3564.102539,4352.307617,4281.025879,4506.153809,16226.0,3.0,73.0,,,,0.0,4.0,4.0,4.0,0.0,4.0,66.666664,,,,,,,,,,,,,,,,,,,,,,,,,,,,,,,,,,,,,,,,,,,,,,,,,,,,,,,,,,,,,,,,,,,,,,,,,,,,,,,,,,,,
23208,1645495567.1116881,1645495567.1416528,88.0,0.0,4338.461426,3551.281982,4345.641113000001,4281.025879,4477.94873,450.0,3.0,73.0,,,,0.0,4.0,4.0,4.0,0.0,4.0,66.666664,,,,,,,,44.0,0.0,0.36186199999999996,-0.317871,0.590332,0.647705,0.842786,-0.529305,-0.104005,-0.033476,-0.04011,-0.023589,,,,,,,,,,,,,,,,,,,,,,,,,,,,,,,,,,,0.0,0.0,1.0,0.0,1.0,0.0,,,,,,,,,,,,,,,,,,,,,,,,,
23209,1645495567.119502,1645495567.149468,89.0,0.0,4350.769043,3580.512939,4342.05127,4281.025879,4462.05127,450.0,3.0,73.0,,,,0.0,4.0,4.0,4.0,0.0,4.0,66.666664,,,,,,,,,,,,,,,,,,,,,,,,,,,,,,,,,,,,,,,,,,,,,,,,,,,,,,,,,,,,,,,,,,,,,,,,,,,,,,,,,,,,
23210,1645495567.127316,1645495567.157284,90.0,0.0,4344.615234000001,3635.384521,4360.512695,4281.025879,4466.153809,450.0,3.0,73.0,,,,0.0,4.0,4.0,4.0,0.0,4.0,66.666664,,,,,,,,45.0,0.0,0.361026,-0.317871,0.590576,0.647949,0.846693,-0.53077,-0.095216,-0.033449,-0.040201,-0.026211,,,,,,,,,,,,,,,,,,,,,,,,,,,,,,,,,,,,,,,,,,,,,,,,,,,,,,,,,,,,,,,,,
23211,1645495567.1351302,1645495567.1651,91.0,0.0,4329.743652,3672.3076170000004,4370.769043,4281.025879,4478.461426,16226.0,3.0,73.0,,,,0.0,4.0,4.0,4.0,0.0,4.0,66.666664,,,,,,,,,,,,,,,,,,,,,,,,,,,,,,,,,,,,,,,,,,,,,,,,,,,,,,,,,,,,,,,,,,,,,,,,,,,,,,,,,,,,
23212,1645495567.1429439,1645495567.172916,92.0,0.0,4332.307617,3683.5898439999996,4352.307617,4281.025879,4482.563965,450.0,3.0,73.0,,,,0.0,4.0,4.0,4.0,0.0,4.0,66.666664,,,,,,,,46.0,0.0,0.361241,-0.317627,0.590576,0.647949,0.843275,-0.540536,-0.099611,-0.033522,-0.040185000000000005,-0.02232,,,,,,,,,,,,,,,,,,,,,,,,,,,,,,,,,,,0.0,0.0,1.0,0.0,1.0,0.0,,,,,,,,,,,,,,,,,,,,,,,,,
23213,1645495567.150758,1645495567.180732,93.0,0.0,4339.487305,3684.102539,4338.461426,4281.025879,4468.205078,450.0,3.0,73.0,,,,0.0,4.0,4.0,4.0,0.0,4.0,66.666664,,,,,,,,,,,,,,,,,,,,,,,,,,,,,,,,,,,,,,,,,,,,,,,,,,,,,,,,,,,,,,,,,,,,,,,,,,,,,,,,,,,,
23214,1645495567.158572,1645495567.188548,94.0,0.0,4343.589844,3684.615479,4357.436035,4281.025879,4464.615234000001,450.0,3.0,73.0,,,,0.0,4.0,4.0,4.0,0.0,4.0,66.666664,,,,,,,,47.0,0.0,0.361455,-0.31738299999999997,0.590576,0.647949,0.851087,-0.54786,-0.10693499999999999,-0.033636,-0.040219,-0.02502,,,,,,,,,,,,,,,,,,,,,,,,,,,,,,,,,,,,,,,,,,,,,,,,,,,,,,,,,,,,,,,,,
23215,1645495567.166386,1645495567.196363,95.0,0.0,4346.153809,3729.2307130000004,4362.05127,4281.025879,4473.333496,16226.0,3.0,73.0,,,,0.0,4.0,4.0,4.0,0.0,4.0,66.666664,,,,,,,,,,,,,,,,,,,,,,,,,,,,,,,,,,,,,,,,,,,,,,,,,,,,,,,,,,,,,,,,,,,,,,,,,,,,,,,,,,,,
23216,1645495567.1742,1645495567.2041788,96.0,0.0,4351.794922,3825.641113,4347.692383,4281.025879,4466.666504,450.0,3.0,73.0,,,,0.0,4.0,4.0,4.0,0.0,4.0,66.666664,,,,,,,,48.0,0.0,0.36101700000000003,-0.31738299999999997,0.590576,0.648193,0.8462040000000001,-0.546395,-0.10498199999999999,-0.033593,-0.040299,-0.027498,1.0,0.0,0.0,,,,,,,,,,,,,,,,,,,,,,,,,,,,,,,,0.0,0.0,1.0,0.0,1.0,0.0,1087.953857,37.206066,7.3375330000000005,2.91646,2.309298,158.02861000000001,21.437443,9.692533000000001,7.703226,2.6878130000000002,4.368015,0.8301850000000001,1.137291,0.554547,0.519595,0.7411310000000001,0.157331,0.038189,0.004273,0.018678,240.925186,9.206793,2.925357,1.378106,0.8557950000000001
23217,1645495567.182014,1645495567.211995,97.0,0.0,4361.025879,3885.641113,4334.871582,4281.025879,4450.769043,450.0,3.0,73.0,,,,0.0,4.0,4.0,4.0,0.0,4.0,66.666664,,,,,,,,,,,,,,,,,,,,,,,,,,,,,,,,,,,,,,,,,,,,,,,,,,,,,,,,,,,,,,,,,,,,,,,,,,,,,,,,,,,,
23218,1645495567.189828,1645495567.2197108,98.0,0.0,4362.563965,3860.0,4336.410156,4281.025879,4449.743652,450.0,3.0,73.0,,,,0.0,4.0,4.0,4.0,0.0,4.0,66.666664,,,,,,,,49.0,0.0,0.361232,-0.317139,0.590576,0.648193,0.831067,-0.552254,-0.109865,-0.033554,-0.040369999999999996,-0.029582999999999998,,,,,,,,,,,,,,,,,,,,,,,,,,,,,,,,,,,,,,,,,,,,,,,,,,,,,,,,,,,,,,,,,
23219,1645495567.197642,1645495567.227526,99.0,0.0,4359.487305,3836.923096,4341.538574,4281.025879,4466.153809,16226.0,3.0,73.0,,,,0.0,4.0,4.0,4.0,0.0,4.0,66.666664,,,,,,,,,,,,,,,,,,,,,,,,,,,,,,,,,,,,,,,,,,,,,,,,,,,,,,,,,,,,,,,,,,,,,,,,,,,,,,,,,,,,
23220,1645495567.205456,1645495567.235342,100.0,0.0,4348.717772999999,3860.0,4343.589844,4281.025879,4465.641113000001,450.0,3.0,73.0,,,,0.0,4.0,4.0,4.0,0.0,4.0,66.666664,,,,,,,,50.0,0.0,0.361446,-0.316895,0.590576,0.648193,0.847669,-0.5459069999999999,-0.1084,-0.033568,-0.040289,-0.031556,,,,,,,,,,,,,,,,,,,,,,,,,,,,,,,,,,,0.0,0.0,1.0,0.0,1.0,0.0,,,,,,,,,,,,,,,,,,,,,,,,,
23221,1645495567.21327,1645495567.243158,101.0,0.0,4347.692383,3889.2307130000004,4328.205078,4281.025879,4448.205078,450.0,3.0,73.0,,,,0.0,4.0,4.0,4.0,0.0,4.0,66.666664,,,,,,,,,,,,,,,,,,,,,,,,,,,,,,,,,,,,,,,,,,,,,,,,,,,,,,,,,,,,,,,,,,,,,,,,,,,,,,,,,,,,
23222,1645495567.2210839,1645495567.250973,102.0,0.0,4364.102539,3922.5642090000006,4324.615234000001,4281.025879,4461.025879,450.0,3.0,73.0,,,,0.0,4.0,4.0,4.0,0.0,4.0,66.666664,,,,,,,,51.0,0.0,0.361883,-0.316895,0.590576,0.647949,0.843275,-0.549813,-0.10888800000000001,-0.033629,-0.040264,-0.026983999999999998,,,,,,,,,,,,,,,,,,,,,,,,,,,,,,,,,,,,,,,,,,,,,,,,,,,,,,,,,,,,,,,,,
23223,1645495567.228898,1645495567.258789,103.0,0.0,4362.563965,3947.6923829999996,4337.436035,4281.025879,4486.666504,16226.0,3.0,73.0,,,,0.0,4.0,4.0,4.0,0.0,4.0,66.666664,,,,,,,,,,,,,,,,,,,,,,,,,,,,,,,,,,,,,,,,,,,,,,,,,,,,,,,,,,,,,,,,,,,,,,,,,,,,,,,,,,,,
23224,1645495567.236712,1645495567.266604,104.0,0.0,4351.794922,3947.6923829999996,4333.333496,4281.025879,4477.436035,450.0,3.0,73.0,,,,0.0,4.0,4.0,4.0,0.0,4.0,66.666664,,,,,,,,52.0,0.0,0.361484,-0.316895,0.59082,0.647949,0.849134,-0.537606,-0.11084200000000001,-0.033587,-0.040388,-0.023016,,,,,,,,,,,,,,,,,,,,,,,,,,,,,,,,,,,0.0,0.0,1.0,0.0,1.0,0.0,,,,,,,,,,,,,,,,,,,,,,,,,
23225,1645495567.244526,1645495567.27442,105.0,0.0,4363.077147999999,3959.487061,4321.538574,4281.025879,4458.974121,450.0,3.0,73.0,,,,0.0,4.0,4.0,4.0,0.0,4.0,66.666664,,,,,,,,,,,,,,,,,,,,,,,,,,,,,,,,,,,,,,,,,,,,,,,,,,,,,,,,,,,,,,,,,,,,,,,,,,,,,,,,,,,,
23226,1645495567.25234,1645495567.2822359,106.0,0.0,4374.871582,3972.3076170000004,4317.94873,4281.025879,4469.230957,450.0,3.0,73.0,,,,0.0,4.0,4.0,4.0,0.0,4.0,66.666664,,,,,,,,53.0,0.0,0.361883,-0.316895,0.590576,0.647949,0.8535290000000001,-0.525399,-0.11133,-0.033645999999999995,-0.040451,-0.025695,,,,,,,,,,,,,,,,,,,,,,,,,,,,,,,,,,,,,,,,,,,,,,,,,,,,,,,,,,,,,,,,,
23227,1645495567.260154,1645495567.289951,107.0,0.0,4357.94873,3938.974365,4328.717772999999,4281.025879,4480.0,16226.0,3.0,73.0,,,,0.0,4.0,4.0,4.0,0.0,4.0,66.666664,,,,,,,,,,,,,,,,,,,,,,,,,,,,,,,,,,,,,,,,,,,,,,,,,,,,,,,,,,,,,,,,,,,,,,,,,,,,,,,,,,,,
23228,1645495567.267968,1645495567.297767,108.0,0.0,4336.410156,3925.1281740000004,4332.820313,4281.025879,4468.205078,450.0,3.0,73.0,,,,0.0,4.0,4.0,4.0,0.0,4.0,66.666664,,,,,,,,54.0,0.0,0.362097,-0.31665,0.590576,0.647949,0.8413209999999999,-0.542489,-0.104494,-0.033553,-0.040361,-0.02171,,,,,,,,,,,,,,,,,,,,,,,,,,,,,,,,,,,0.0,0.0,1.0,0.0,1.0,0.0,,,,,,,,,,,,,,,,,,,,,,,,,
23229,1645495567.275782,1645495567.305583,109.0,0.0,4347.179688,3973.8461909999996,4326.666504,4281.025879,4453.333496,450.0,3.0,73.0,,,,0.0,4.0,4.0,4.0,0.0,4.0,66.666664,,,,,,,,,,,,,,,,,,,,,,,,,,,,,,,,,,,,,,,,,,,,,,,,,,,,,,,,,,,,,,,,,,,,,,,,,,,,,,,,,,,,
23230,1645495567.283596,1645495567.3133981,110.0,0.0,4367.179688,3973.3332520000004,4327.692383,4281.025879,4460.512695,450.0,3.0,73.0,,,,0.0,4.0,4.0,4.0,0.0,4.0,66.666664,,,,,,,,55.0,0.0,0.361873,-0.316406,0.590576,0.648193,0.8462040000000001,-0.525399,-0.1084,-0.033616,-0.04028,-0.018172,,,,,,,,,,,,,,,,,,,,,,,,,,,,,,,,,,,,,,,,,,,,,,,,,,,,,,,,,,,,,,,,,
23231,1645495567.29141,1645495567.321214,111.0,0.0,4361.025879,3931.794922,4344.615234000001,4281.025879,4485.128418,16226.0,3.0,73.0,,,,0.0,4.0,4.0,4.0,0.0,4.0,66.666664,,,,,,,,,,,,,,,,,,,,,,,,,,,,,,,,,,,,,,,,,,,,,,,,,,,,,,,,,,,,,,,,,,,,,,,,,,,,,,,,,,,,
23232,1645495567.2992241,1645495567.3290288,112.0,0.0,4349.743652,3975.897461,4343.589844,4281.025879,4482.05127,450.0,3.0,73.0,,,,0.0,4.0,4.0,4.0,0.0,4.0,66.666664,,,,,,,,56.0,0.0,0.361873,-0.316406,0.590576,0.648193,0.838392,-0.532723,-0.111818,-0.033623,-0.040256,-0.015036,1.0,0.0,0.0,,,,,,,,,,,,,,,,,,,,,,,,,,,,,,,,0.0,0.0,1.0,0.0,1.0,0.0,875.972778,30.608358000000003,6.2111790000000004,2.7043310000000003,2.0294220000000003,158.119553,17.373945000000003,9.152832,9.351305,3.054959,4.3419989999999995,0.661116,1.333732,0.46498100000000003,0.502704,0.590677,0.133526,0.031952,0.0037329999999999998,0.015393,191.30831899999998,7.209713000000001,2.662935,1.373972,0.828866
23233,1645495567.307038,1645495567.336845,113.0,0.0,4361.538574,4060.512939,4327.179688,4281.025879,4455.384765999999,450.0,3.0,73.0,,,,0.0,4.0,4.0,4.0,0.0,4.0,66.666664,,,,,,,,,,,,,,,,,,,,,,,,,,,,,,,,,,,,,,,,,,,,,,,,,,,,,,,,,,,,,,,,,,,,,,,,,,,,,,,,,,,,
23234,1645495567.314852,1645495567.344661,114.0,0.0,4360.512695,4055.384521,4316.922852000001,4281.025879,4442.563965,450.0,3.0,73.0,,,,0.0,4.0,4.0,4.0,0.0,4.0,66.666664,,,,,,,,57.0,0.0,0.361873,-0.316406,0.590576,0.648193,0.854505,-0.516609,-0.106447,-0.033532,-0.040185000000000005,-0.018463999999999998,,,,,,,,,,,,,,,,,,,,,,,,,,,,,,,,,,,,,,,,,,,,,,,,,,,,,,,,,,,,,,,,,
23235,1645495567.322666,1645495567.352476,115.0,0.0,4345.641113000001,4014.8718259999996,4327.692383,4281.025879,4447.179688,16226.0,3.0,73.0,,,,0.0,4.0,4.0,4.0,0.0,4.0,66.666664,,,,,,,,,,,,,,,,,,,,,,,,,,,,,,,,,,,,,,,,,,,,,,,,,,,,,,,,,,,,,,,,,,,,,,,,,,,,,,,,,,,,
23236,1645495567.33048,1645495567.360392,116.0,0.0,4357.436035,4041.538574,4335.897461,4281.025879,4455.384765999999,450.0,3.0,73.0,,,,0.0,4.0,4.0,4.0,0.0,4.0,66.666664,,,,,,,,58.0,0.0,0.362087,-0.316162,0.590576,0.648193,0.851575,-0.534188,-0.118654,-0.0335,-0.040122000000000005,-0.021549000000000002,,,,,,,,,,,,,,,,,,,,,,,,,,,,,,,,,,,0.0,0.0,1.0,0.0,1.0,0.0,,,,,,,,,,,,,,,,,,,,,,,,,
23237,1645495567.338294,1645495567.368208,117.0,0.0,4374.871582,4057.4357909999994,4330.256348,4281.025879,4450.256348,450.0,3.0,73.0,,,,0.0,4.0,4.0,4.0,0.0,4.0,66.666664,,,,,,,,,,,,,,,,,,,,,,,,,,,,,,,,,,,,,,,,,,,,,,,,,,,,,,,,,,,,,,,,,,,,,,,,,,,,,,,,,,,,
23238,1645495567.346108,1645495567.376024,118.0,0.0,4375.897461,3996.4101560000004,4321.025879,4281.025879,4451.794922,450.0,3.0,73.0,,,,0.0,4.0,4.0,4.0,0.0,4.0,66.666664,,,,,,,,59.0,0.0,0.36125,-0.316162,0.59082,0.648438,0.8374149999999999,-0.536629,-0.109377,-0.033519,-0.040114,-0.018125,,,,,,,,,,,,,,,,,,,,,,,,,,,,,,,,,,,,,,,,,,,,,,,,,,,,,,,,,,,,,,,,,
23239,1645495567.3539221,1645495567.3838391,119.0,0.0,4369.230957,3963.076904,4326.153809,4281.025879,4458.974121,16226.0,3.0,73.0,,,,0.0,4.0,4.0,4.0,0.0,4.0,66.666664,,,,,,,,,,,,,,,,,,,,,,,,,,,,,,,,,,,,,,,,,,,,,,,,,,,,,,,,,,,,,,,,,,,,,,,,,,,,,,,,,,,,
23240,1645495567.3617358,1645495567.391655,120.0,0.0,4367.179688,3993.3332520000004,4343.077147999999,4281.025879,4461.025879,450.0,3.0,73.0,,,,0.0,4.0,4.0,4.0,0.0,4.0,66.666664,,,,,,,,60.0,0.0,0.361036,-0.316406,0.59082,0.648438,0.839857,-0.5351640000000001,-0.105959,-0.033536,-0.040106,-0.021195,,,,,,,,,,,,,,,,,,,,,,,,,,,,,,,,,,,0.0,0.0,1.0,0.0,1.0,0.0,,,,,,,,,,,,,,,,,,,,,,,,,
23241,1645495567.36955,1645495567.399471,121.0,0.0,4367.692383,3992.820557,4348.717772999999,4281.025879,4463.077147999999,450.0,3.0,73.0,,,,0.0,4.0,4.0,4.0,0.0,4.0,66.666664,,,,,,,,,,,,,,,,,,,,,,,,,,,,,,,,,,,,,,,,,,,,,,,,,,,,,,,,,,,,,,,,,,,,,,,,,,,,,,,,,,,,
23242,1645495567.3773642,1645495567.407287,122.0,0.0,4363.589844,3971.281982,4338.461426,4281.025879,4459.487305,450.0,3.0,73.0,,,,0.0,4.0,4.0,4.0,0.0,4.0,66.666664,,,,,,,,61.0,0.0,0.361036,-0.316406,0.59082,0.648438,0.845716,-0.5512779999999999,-0.1084,-0.033503,-0.040001999999999996,-0.023959,,,,,,,,,,,,,,,,,,,,,,,,,,,,,,,,,,,,,,,,,,,,,,,,,,,,,,,,,,,,,,,,,
23243,1645495567.3851779,1645495567.415103,123.0,0.0,4375.384765999999,3996.923096,4328.205078,4281.025879,4450.769043,16226.0,3.0,73.0,,,,0.0,4.0,4.0,4.0,0.0,4.0,66.666664,,,,,,,,,,,,,,,,,,,,,,,,,,,,,,,,,,,,,,,,,,,,,,,,,,,,,,,,,,,,,,,,,,,,,,,,,,,,,,,,,,,,
23244,1645495567.392992,1645495567.422919,124.0,0.0,4384.615234000001,4038.461426,4339.487305,4281.025879,4455.897461,450.0,3.0,73.0,,,,0.0,4.0,4.0,4.0,0.0,4.0,66.666664,,,,,,,,62.0,0.0,0.36125,-0.316162,0.59082,0.648438,0.838392,-0.5512779999999999,-0.103029,-0.033473,-0.040006,-0.026348000000000003,,,,,,,,,,,,,,,,,,,,,,,,,,,,,,,,,,,0.0,0.0,1.0,0.0,1.0,0.0,,,,,,,,,,,,,,,,,,,,,,,,,
23245,1645495567.400806,1645495567.430834,125.0,0.0,4358.974121,4045.641113,4336.410156,4281.025879,4468.717772999999,450.0,3.0,73.0,,,,0.0,4.0,4.0,4.0,0.0,4.0,66.666664,,,,,,,,,,,,,,,,,,,,,,,,,,,,,,,,,,,,,,,,,,,,,,,,,,,,,,,,,,,,,,,,,,,,,,,,,,,,,,,,,,,,
23246,1645495567.4086199,1645495567.43865,126.0,0.0,4343.077147999999,4019.487061,4323.077147999999,4281.025879,4462.05127,450.0,3.0,73.0,,,,0.0,4.0,4.0,4.0,0.0,4.0,66.666664,,,,,,,,63.0,0.0,0.36085100000000003,-0.316162,0.591064,0.648438,0.8486459999999999,-0.548837,-0.107424,-0.033544,-0.040057999999999996,-0.022297,,,,,,,,,,,,,,,,,,,,,,,,,,,,,,,,,,,,,,,,,,,,,,,,,,,,,,,,,,,,,,,,,
23247,1645495567.416434,1645495567.446466,127.0,0.0,4364.615234000001,4006.1538090000004,4323.589844,4281.025879,4451.282227000001,238.0,3.0,73.0,,,,0.0,4.0,4.0,4.0,0.0,4.0,66.666664,,,,,,,,,,,,,,,,,,,,,,,,,,,,,,,,,,,,,,,,,,,,,,,,,,,,,,,,,,,,,,,,,,,,,,,,,,,,,,,,,,,,
23248,1645495567.424248,1645495567.454282,0.0,0.0,4374.871582,4038.974365,4336.410156,4281.025879,4450.769043,450.0,3.0,73.0,,,,0.0,4.0,4.0,4.0,0.0,4.0,66.666664,1.0,25.0,3.0,0.0,4.0,0.0,3.0,0.0,0.0,0.36085100000000003,-0.316162,0.591064,0.648438,0.8481569999999999,-0.552743,-0.122072,-0.033510000000000005,-0.040105,-0.024999,1.0,0.0,0.0,,,,,,,,,,,,,,,,,,,,,,,,,,,,,,,,0.0,0.0,1.0,0.0,128.0,1.0,600.146423,21.889812,4.800572,2.3663849999999997,1.6899680000000001,164.53111299999998,14.388684,8.353088,10.876487,3.4479629999999997,4.173238,0.5405939999999999,1.43272,0.41868999999999995,0.51448,0.400769,0.0971,0.023214,0.002893,0.011075,127.924446,4.854519,2.251318,1.310424,0.839866
23249,1645495567.432062,1645495567.4620981,1.0,0.0,4354.871582,4074.358887,4336.410156,4281.025879,4449.743652,450.0,3.0,73.0,,,,0.0,4.0,4.0,4.0,0.0,4.0,66.666664,,,,,,,,,,,,,,,,,,,,,,,,,,,,,,,,,,,,,,,,,,,,,,,,,,,,,,,,,,,,,,,,,,,,,,,,,,,,,,,,,,,,
23250,1645495567.439876,1645495567.469914,2.0,0.0,4348.205078,4061.025635,4336.922852000001,4281.025879,4452.820313,16227.0,3.0,73.0,,,,0.0,4.0,4.0,4.0,0.0,4.0,66.666664,,,,,,,,1.0,0.0,0.360412,-0.316162,0.591064,0.648682,0.8589,-0.542489,-0.11425999999999999,-0.033576999999999996,-0.040147,-0.021131999999999998,,,,,,,,,,,,,,,,,,,,,,,,,,,,,,,,,,,,,,,,,,,,,,,,,,,,,,,,,,,,,,,,,
23251,1645495567.44769,1645495567.4777288,3.0,0.0,4360.0,4034.8718259999996,4337.436035,4281.025879,4448.717772999999,450.0,3.0,73.0,,,,0.0,4.0,4.0,4.0,0.0,4.0,66.666664,,,,,,,,,,,,,,,,,,,,,,,,,,,,,,,,,,,,,,,,,,,,,,,,,,,,,,,,,,,,,,,,,,,,,,,,,,,,,,,,,,,,
23252,1645495567.455504,1645495567.485545,4.0,0.0,4376.922852000001,4043.076904,4336.410156,4281.025879,4444.102539,16166.0,3.0,73.0,,,,0.0,4.0,4.0,4.0,0.0,4.0,66.666664,,,,,,,,2.0,0.0,0.360412,-0.316162,0.591064,0.648682,0.842786,-0.539071,-0.1084,-0.033539,-0.040332,-0.024048,,,,,,,,,,,,,,,,,,,,,,,,,,,,,,,,,,,0.0,0.0,1.0,0.0,128.0,1.0,,,,,,,,,,,,,,,,,,,,,,,,,
23253,1645495567.4633179,1645495567.493361,5.0,0.0,4388.205078,4064.615479,4337.436035,4281.025879,4449.743652,450.0,3.0,73.0,,,,0.0,4.0,4.0,4.0,0.0,4.0,66.666664,,,,,,,,,,,,,,,,,,,,,,,,,,,,,,,,,,,,,,,,,,,,,,,,,,,,,,,,,,,,,,,,,,,,,,,,,,,,,,,,,,,,
23254,1645495567.471132,1645495567.5011768,6.0,0.0,4383.589844,4052.3076170000004,4346.666504,4281.025879,4445.641113000001,16112.0,3.0,73.0,,,,0.0,4.0,4.0,4.0,0.0,4.0,66.666664,,,,,,,,3.0,0.0,0.359796,-0.316406,0.591309,0.648682,0.8447389999999999,-0.534188,-0.10547000000000001,-0.033604,-0.040303,-0.020325,,,,,,,,,,,,,,,,,,,,,,,,,,,,,,,,,,,,,,,,,,,,,,,,,,,,,,,,,,,,,,,,,
23255,1645495567.4789462,1645495567.509093,7.0,0.0,4386.153809,4024.615479,4344.615234000001,4281.025879,4457.436035,450.0,3.0,73.0,,,,0.0,4.0,4.0,4.0,0.0,4.0,66.666664,,,,,,,,,,,,,,,,,,,,,,,,,,,,,,,,,,,,,,,,,,,,,,,,,,,,,,,,,,,,,,,,,,,,,,,,,,,,,,,,,,,,
23256,1645495567.48676,1645495567.516908,8.0,0.0,4390.256348,4044.615479,4320.512695,4281.025879,4483.589844,450.0,3.0,73.0,,,,0.0,4.0,4.0,4.0,0.0,4.0,66.666664,,,,,,,,4.0,0.0,0.36002199999999995,-0.31665,0.591309,0.648438,0.845716,-0.551766,-0.106447,-0.033564,-0.040374,-0.016876,,,,,,,,,,,,,,,,,,,,,,,,,,,,,,,,,,,0.0,0.0,1.0,0.0,128.0,1.0,,,,,,,,,,,,,,,,,,,,,,,,,
23257,1645495567.494574,1645495567.524724,9.0,0.0,4390.256348,4077.4357909999994,4311.282227000001,4281.025879,4470.769043,0.0,3.0,73.0,,,,0.0,4.0,4.0,4.0,0.0,4.0,66.666664,,,,,,,,,,,,,,,,,,,,,,,,,,,,,,,,,,,,,,,,,,,,,,,,,,,,,,,,,,,,,,,,,,,,,,,,,,,,,,,,,,,,
23258,1645495567.502388,1645495567.53254,10.0,0.0,4400.0,4055.897461,4329.743652,4281.025879,4440.512695,450.0,3.0,73.0,,,,0.0,4.0,4.0,4.0,0.0,4.0,66.666664,,,,,,,,5.0,0.0,0.359983,-0.31665,0.591064,0.648682,0.839857,-0.543465,-0.104005,-0.033576,-0.040292,-0.020121,,,,,,,,,,,,,,,,,,,,,,,,,,,,,,,,,,,,,,,,,,,,,,,,,,,,,,,,,,,,,,,,,
23259,1645495567.510202,1645495567.5403562,11.0,0.0,4398.974121,4030.7692869999996,4350.769043,4281.025879,4451.794922,16235.0,3.0,73.0,,,,0.0,4.0,4.0,4.0,0.0,4.0,66.666664,,,,,,,,,,,,,,,,,,,,,,,,,,,,,,,,,,,,,,,,,,,,,,,,,,,,,,,,,,,,,,,,,,,,,,,,,,,,,,,,,,,,
23260,1645495567.518016,1645495567.548172,12.0,0.0,4392.820313,4038.461426,4344.615234000001,4281.025879,4472.820313,450.0,3.0,73.0,,,,0.0,4.0,4.0,4.0,0.0,4.0,66.666664,,,,,,,,6.0,0.0,0.359768,-0.316895,0.591064,0.648682,0.8462040000000001,-0.54786,-0.11133,-0.033539,-0.040218000000000004,-0.022943,,,,,,,,,,,,,,,,,,,,,,,,,,,,,,,,,,,0.0,0.0,1.0,0.0,128.0,1.0,,,,,,,,,,,,,,,,,,,,,,,,,
23261,1645495567.52583,1645495567.555988,13.0,0.0,4394.871582,4052.3076170000004,4328.205078,4281.025879,4458.974121,450.0,3.0,73.0,,,,0.0,4.0,4.0,4.0,0.0,4.0,66.666664,,,,,,,,,,,,,,,,,,,,,,,,,,,,,,,,,,,,,,,,,,,,,,,,,,,,,,,,,,,,,,,,,,,,,,,,,,,,,,,,,,,,
23262,1645495567.533644,1645495567.563803,14.0,0.0,4371.794922,4076.4101560000004,4316.922852000001,4281.025879,4445.128418,450.0,3.0,73.0,,,,0.0,4.0,4.0,4.0,0.0,4.0,66.666664,,,,,,,,7.0,0.0,0.36002199999999995,-0.31665,0.591309,0.648438,0.845716,-0.551766,-0.106447,-0.033506,-0.0402,-0.025434000000000002,,,,,,,,,,,,,,,,,,,,,,,,,,,,,,,,,,,,,,,,,,,,,,,,,,,,,,,,,,,,,,,,,
23263,1645495567.541458,1645495567.571619,15.0,0.0,4347.179688,4085.1281740000004,4328.205078,4281.025879,4452.820313,16235.0,3.0,73.0,,,,0.0,4.0,4.0,4.0,0.0,4.0,66.666664,,,,,,,,,,,,,,,,,,,,,,,,,,,,,,,,,,,,,,,,,,,,,,,,,,,,,,,,,,,,,,,,,,,,,,,,,,,,,,,,,,,,
23264,1645495567.549272,1645495567.579535,16.0,0.0,4366.153809,4054.8718259999996,4342.05127,4281.025879,4450.769043,0.0,3.0,73.0,,,,0.0,4.0,4.0,4.0,0.0,4.0,66.666664,,,,,,,,8.0,0.0,0.359768,-0.316895,0.591064,0.648682,0.8462040000000001,-0.54786,-0.11133,-0.033475,-0.040135000000000004,-0.027724000000000002,1.0,0.0,0.0,,,,,,,,,,,,,,,,,,,,,,,,,,,,,,,,0.0,0.0,1.0,0.0,128.0,1.0,343.207489,13.431585,3.5445949999999997,1.9819349999999998,1.347638,151.52603100000002,12.843747,7.4081529999999995,11.9908,3.857856,3.8934050000000004,0.45251899999999995,1.407433,0.402901,0.5660470000000001,0.224584,0.059191999999999995,0.014440999999999999,0.0019809999999999997,0.0068920000000000006,71.306969,2.831971,1.8583150000000002,1.215914,0.9011469999999999
23265,1645495567.557086,1645495567.587351,17.0,0.0,4385.641113000001,4057.4357909999994,4332.820313,4281.025879,4433.333496,0.0,3.0,73.0,,,,0.0,4.0,4.0,4.0,0.0,4.0,66.666664,,,,,,,,,,,,,,,,,,,,,,,,,,,,,,,,,,,,,,,,,,,,,,,,,,,,,,,,,,,,,,,,,,,,,,,,,,,,,,,,,,,,
23266,1645495567.5649,1645495567.595167,18.0,0.0,4374.358886999999,4095.384521,4310.256348,4281.538574,4429.743652,0.0,3.0,73.0,,,,0.0,4.0,4.0,4.0,0.0,4.0,66.666664,,,,,,,,9.0,0.0,0.359993,-0.317139,0.591064,0.648438,0.8520639999999999,-0.546883,-0.09472799999999999,-0.033448,-0.040223,-0.023585,,,,,,,,,,,,,,,,,,,,,,,,,,,,,,,,,,,,,,,,,,,,,,,,,,,,,,,,,,,,,,,,,
23267,1645495567.572714,1645495567.602983,19.0,0.0,4366.153809,4089.2307130000004,4317.436035,4281.538574,4441.538574,0.0,3.0,73.0,,,,0.0,4.0,4.0,4.0,0.0,4.0,66.666664,,,,,,,,,,,,,,,,,,,,,,,,,,,,,,,,,,,,,,,,,,,,,,,,,,,,,,,,,,,,,,,,,,,,,,,,,,,,,,,,,,,,
23268,1645495567.580528,1645495567.6107981,20.0,0.0,4367.692383,4082.5642090000006,4332.820313,4281.025879,4441.025879,0.0,3.0,73.0,,,,0.0,4.0,4.0,4.0,0.0,4.0,66.666664,,,,,,,,10.0,0.0,0.359553,-0.317139,0.591064,0.648682,0.839368,-0.548837,-0.101076,-0.033520999999999995,-0.040351,-0.026157999999999997,,,,,,,,,,,,,,,,,,,,,,,,,,,,,,,,,,,0.0,0.0,1.0,0.0,128.0,1.0,,,,,,,,,,,,,,,,,,,,,,,,,
23269,1645495567.588342,1645495567.618614,21.0,0.0,4368.717772999999,4106.666504,4328.205078,4281.538574,4432.820313,0.0,3.0,73.0,,,,0.0,4.0,4.0,4.0,0.0,4.0,66.666664,,,,,,,,,,,,,,,,,,,,,,,,,,,,,,,,,,,,,,,,,,,,,,,,,,,,,,,,,,,,,,,,,,,,,,,,,,,,,,,,,,,,
23270,1645495567.5961561,1645495567.62643,22.0,0.0,4370.769043,4091.794922,4317.436035,4281.025879,4430.769043,0.0,3.0,73.0,,,,0.0,4.0,4.0,4.0,0.0,4.0,66.666664,,,,,,,,11.0,0.0,0.359993,-0.317139,0.591064,0.648438,0.832044,-0.548348,-0.099123,-0.03349,-0.040174,-0.022272999999999998,,,,,,,,,,,,,,,,,,,,,,,,,,,,,,,,,,,,,,,,,,,,,,,,,,,,,,,,,,,,,,,,,
23271,1645495567.6039698,1645495567.634246,23.0,0.0,4364.615234000001,4069.743652,4329.743652,4280.512695,4429.230957,0.0,3.0,73.0,,,,0.0,4.0,4.0,4.0,0.0,4.0,66.666664,,,,,,,,,,,,,,,,,,,,,,,,,,,,,,,,,,,,,,,,,,,,,,,,,,,,,,,,,,,,,,,,,,,,,,,,,,,,,,,,,,,,
23272,1645495567.611784,1645495567.642062,24.0,0.0,4372.820313,4070.7692869999996,4344.102539,4280.512695,4445.128418,0.0,3.0,73.0,,,,0.0,4.0,4.0,4.0,0.0,4.0,66.666664,,,,,,,,12.0,0.0,0.359993,-0.317139,0.591064,0.648438,0.847181,-0.546883,-0.10693499999999999,-0.033412,-0.040208999999999995,-0.025026,,,,,,,,,,,,,,,,,,,,,,,,,,,,,,,,,,,0.0,0.0,1.0,0.0,128.0,1.0,,,,,,,,,,,,,,,,,,,,,,,,,
23273,1645495567.6195982,1645495567.649878,25.0,0.0,4377.94873,4050.256348,4325.641113000001,4280.512695,4452.820313,0.0,3.0,73.0,,,,0.0,4.0,4.0,4.0,0.0,4.0,66.666664,,,,,,,,,,,,,,,,,,,,,,,,,,,,,,,,,,,,,,,,,,,,,,,,,,,,,,,,,,,,,,,,,,,,,,,,,,,,,,,,,,,,
23274,1645495567.6274118,1645495567.657793,26.0,0.0,4370.256348,4052.820557,4306.666504,4280.512695,4430.769043,0.0,3.0,73.0,,,,0.0,4.0,4.0,4.0,0.0,4.0,66.666664,,,,,,,,13.0,0.0,0.359993,-0.317139,0.591064,0.648438,0.839857,-0.549325,-0.11425999999999999,-0.033391000000000004,-0.040339,-0.027406,,,,,,,,,,,,,,,,,,,,,,,,,,,,,,,,,,,,,,,,,,,,,,,,,,,,,,,,,,,,,,,,,
23275,1645495567.635226,1645495567.665609,27.0,0.0,4378.461426,4094.358887,4320.512695,4280.512695,4432.307617,0.0,3.0,73.0,,,,0.0,4.0,4.0,4.0,0.0,4.0,66.666664,,,,,,,,,,,,,,,,,,,,,,,,,,,,,,,,,,,,,,,,,,,,,,,,,,,,,,,,,,,,,,,,,,,,,,,,,,,,,,,,,,,,
23276,1645495567.64304,1645495567.673425,28.0,0.0,4377.94873,4086.6667479999996,4343.589844,4280.512695,4465.128418,0.0,3.0,73.0,,,,0.0,4.0,4.0,4.0,0.0,4.0,66.666664,,,,,,,,14.0,0.0,0.359993,-0.317139,0.591064,0.648438,0.8418100000000001,-0.518563,-0.087892,-0.033421,-0.040358,-0.023201,,,,,,,,,,,,,,,,,,,,,,,,,,,,,,,,,,,0.0,0.0,1.0,0.0,128.0,1.0,,,,,,,,,,,,,,,,,,,,,,,,,
23277,1645495567.6508539,1645495567.681241,29.0,0.0,4380.512695,4063.076904,4333.333496,4280.512695,4471.794922,0.0,3.0,73.0,,,,0.0,4.0,4.0,4.0,0.0,4.0,66.666664,,,,,,,,,,,,,,,,,,,,,,,,,,,,,,,,,,,,,,,,,,,,,,,,,,,,,,,,,,,,,,,,,,,,,,,,,,,,,,,,,,,,
23278,1645495567.658668,1645495567.689057,30.0,0.0,4402.563965,4098.461426,4323.077147999999,4280.512695,4454.358886999999,0.0,3.0,73.0,,,,0.0,4.0,4.0,4.0,0.0,4.0,66.666664,,,,,,,,15.0,0.0,0.36039299999999996,-0.317139,0.59082,0.648438,0.8525520000000001,-0.543465,-0.107424,-0.0334,-0.040326,-0.025812,,,,,,,,,,,,,,,,,,,,,,,,,,,,,,,,,,,,,,,,,,,,,,,,,,,,,,,,,,,,,,,,,
23279,1645495567.666482,1645495567.696873,31.0,0.0,4396.410156,4117.436035,4313.333496,4280.512695,4451.794922,0.0,3.0,73.0,,,,0.0,4.0,4.0,4.0,0.0,4.0,66.666664,,,,,,,,,,,,,,,,,,,,,,,,,,,,,,,,,,,,,,,,,,,,,,,,,,,,,,,,,,,,,,,,,,,,,,,,,,,,,,,,,,,,
23280,1645495567.6742961,1645495567.704688,32.0,0.0,4376.410156,4106.153809,4307.692383,4280.512695,4456.922852000001,0.0,3.0,73.0,,,,0.0,4.0,4.0,4.0,0.0,4.0,66.666664,,,,,,,,16.0,0.0,0.36039299999999996,-0.317139,0.59082,0.648438,0.849622,-0.538094,-0.1084,-0.033509,-0.04032,-0.024028,1.0,0.0,0.0,,,,,,,,,,,,,,,,,,,,,,,,,,,,,,,,0.0,0.0,1.0,0.0,128.0,1.0,156.51799,7.026033,2.688671,1.6269959999999999,1.056019,143.88028,12.510197,6.558915,12.572891,4.279192,3.5342580000000003,0.38561,1.275363,0.39659,0.657193,0.099174,0.029144999999999997,0.0075439999999999995,0.001194,0.003675,31.022409000000003,1.5065870000000001,1.60923,1.115541,1.006364
23281,1645495567.68211,1645495567.712504,33.0,0.0,4377.436035,4094.358887,4323.589844,4280.512695,4453.333496,0.0,3.0,73.0,,,,0.0,4.0,4.0,4.0,0.0,4.0,66.666664,,,,,,,,,,,,,,,,,,,,,,,,,,,,,,,,,,,,,,,,,,,,,,,,,,,,,,,,,,,,,,,,,,,,,,,,,,,,,,,,,,,,
23282,1645495567.689924,1645495567.72042,34.0,0.0,4370.256348,4055.897461,4336.922852000001,4280.512695,4438.461426,0.0,3.0,73.0,,,,0.0,4.0,4.0,4.0,0.0,4.0,66.666664,,,,,,,,17.0,0.0,0.36039299999999996,-0.317139,0.59082,0.648438,0.8296020000000001,-0.539071,-0.10351700000000001,-0.033625,-0.040389999999999995,-0.026507999999999997,,,,,,,,,,,,,,,,,,,,,,,,,,,,,,,,,,,,,,,,,,,,,,,,,,,,,,,,,,,,,,,,,
23283,1645495567.6977382,1645495567.728236,35.0,0.0,4355.897461,4026.1538090000004,4320.512695,4280.512695,4425.641113000001,0.0,3.0,73.0,,,,0.0,4.0,4.0,4.0,0.0,4.0,66.666664,,,,,,,,,,,,,,,,,,,,,,,,,,,,,,,,,,,,,,,,,,,,,,,,,,,,,,,,,,,,,,,,,,,,,,,,,,,,,,,,,,,,
23284,1645495567.7055519,1645495567.736052,36.0,0.0,4367.179688,4046.6667479999996,4315.384765999999,4281.025879,4440.0,0.0,3.0,73.0,,,,0.0,4.0,4.0,4.0,0.0,4.0,66.666664,,,,,,,,18.0,0.0,0.36039299999999996,-0.317139,0.59082,0.648438,0.8462040000000001,-0.528817,-0.101076,-0.033632,-0.040404,-0.02249,,,,,,,,,,,,,,,,,,,,,,,,,,,,,,,,,,,0.0,0.0,1.0,0.0,128.0,1.0,,,,,,,,,,,,,,,,,,,,,,,,,
23285,1645495567.713366,1645495567.743867,37.0,0.0,4370.256348,4062.5642090000006,4335.384765999999,4279.487305,4452.307617,0.0,3.0,73.0,,,,0.0,4.0,4.0,4.0,0.0,4.0,66.666664,,,,,,,,,,,,,,,,,,,,,,,,,,,,,,,,,,,,,,,,,,,,,,,,,,,,,,,,,,,,,,,,,,,,,,,,,,,,,,,,,,,,
23286,1645495567.72118,1645495567.751683,38.0,0.0,4368.205078,4061.025635,4351.794922,4278.974121,4440.0,0.0,3.0,73.0,,,,0.0,4.0,4.0,4.0,0.0,4.0,66.666664,,,,,,,,19.0,0.0,0.36039299999999996,-0.317139,0.59082,0.648438,0.846693,-0.534188,-0.114748,-0.03354,-0.040416,-0.018972,,,,,,,,,,,,,,,,,,,,,,,,,,,,,,,,,,,,,,,,,,,,,,,,,,,,,,,,,,,,,,,,,
23287,1645495567.728994,1645495567.759499,39.0,0.0,4377.94873,4082.5642090000006,4344.102539,4281.025879,4432.820313,0.0,3.0,73.0,,,,0.0,4.0,4.0,4.0,0.0,4.0,66.666664,,,,,,,,,,,,,,,,,,,,,,,,,,,,,,,,,,,,,,,,,,,,,,,,,,,,,,,,,,,,,,,,,,,,,,,,,,,,,,,,,,,,
23288,1645495567.736808,1645495567.7673151,40.0,0.0,4371.282227000001,4075.384521,4323.077147999999,4282.05127,4428.205078,0.0,3.0,73.0,,,,0.0,4.0,4.0,4.0,0.0,4.0,66.666664,,,,,,,,20.0,0.0,0.36039299999999996,-0.317139,0.59082,0.648438,0.8535290000000001,-0.543465,-0.10693499999999999,-0.033652999999999995,-0.040476,-0.021957,,,,,,,,,,,,,,,,,,,,,,,,,,,,,,,,,,,0.0,0.0,1.0,0.0,128.0,1.0,,,,,,,,,,,,,,,,,,,,,,,,,
23289,1645495567.744622,1645495567.775131,41.0,0.0,4376.922852000001,4065.1281740000004,4312.307617,4280.512695,4424.615234000001,0.0,3.0,73.0,,,,0.0,4.0,4.0,4.0,0.0,4.0,66.666664,,,,,,,,,,,,,,,,,,,,,,,,,,,,,,,,,,,,,,,,,,,,,,,,,,,,,,,,,,,,,,,,,,,,,,,,,,,,,,,,,,,,
23290,1645495567.752436,1645495567.782947,42.0,0.0,4391.794922,4110.769043,4322.563965,4280.512695,4431.794922,0.0,3.0,73.0,,,,0.0,4.0,4.0,4.0,0.0,4.0,66.666664,,,,,,,,21.0,0.0,0.360793,-0.317139,0.590576,0.648438,0.851575,-0.546395,-0.10888800000000001,-0.033706,-0.040481,-0.02484,,,,,,,,,,,,,,,,,,,,,,,,,,,,,,,,,,,,,,,,,,,,,,,,,,,,,,,,,,,,,,,,,
23291,1645495567.76025,1645495567.790863,43.0,0.0,4382.563965,4122.05127,4335.897461,4281.025879,4443.077147999999,0.0,3.0,73.0,,,,0.0,4.0,4.0,4.0,0.0,4.0,66.666664,,,,,,,,,,,,,,,,,,,,,,,,,,,,,,,,,,,,,,,,,,,,,,,,,,,,,,,,,,,,,,,,,,,,,,,,,,,,,,,,,,,,
23292,1645495567.768064,1645495567.7986789,44.0,0.0,4370.769043,4049.743652,4324.102539,4280.512695,4447.692383,0.0,3.0,73.0,,,,0.0,4.0,4.0,4.0,0.0,4.0,66.666664,,,,,,,,22.0,0.0,0.360793,-0.317139,0.590576,0.648438,0.8525520000000001,-0.534676,-0.098634,-0.033704000000000005,-0.040388,-0.021037,,,,,,,,,,,,,,,,,,,,,,,,,,,,,,,,,,,0.0,0.0,1.0,0.0,128.0,1.0,,,,,,,,,,,,,,,,,,,,,,,,,
23293,1645495567.775878,1645495567.806495,45.0,0.0,4374.871582,3983.076904,4312.820313,4280.512695,4441.538574,0.0,3.0,73.0,,,,0.0,4.0,4.0,4.0,0.0,4.0,66.666664,,,,,,,,,,,,,,,,,,,,,,,,,,,,,,,,,,,,,,,,,,,,,,,,,,,,,,,,,,,,,,,,,,,,,,,,,,,,,,,,,,,,
23294,1645495567.783692,1645495567.814311,46.0,0.0,4387.692383,3990.7692869999996,4323.077147999999,4280.512695,4435.384765999999,0.0,3.0,73.0,,,,0.0,4.0,4.0,4.0,0.0,4.0,66.666664,,,,,,,,23.0,0.0,0.36039299999999996,-0.317139,0.59082,0.648438,0.8462040000000001,-0.540047,-0.119631,-0.033654,-0.040402,-0.023816999999999998,,,,,,,,,,,,,,,,,,,,,,,,,,,,,,,,,,,,,,,,,,,,,,,,,,,,,,,,,,,,,,,,,
23295,1645495567.791506,1645495567.8221269,47.0,0.0,4386.153809,4027.6923829999996,4345.128418,4280.512695,4451.282227000001,0.0,3.0,73.0,,,,0.0,4.0,4.0,4.0,0.0,4.0,66.666664,,,,,,,,,,,,,,,,,,,,,,,,,,,,,,,,,,,,,,,,,,,,,,,,,,,,,,,,,,,,,,,,,,,,,,,,,,,,,,,,,,,,
23296,1645495567.79932,1645495567.829943,48.0,0.0,4382.563965,4029.743652,4332.820313,4280.512695,4468.205078,0.0,3.0,73.0,,,,0.0,4.0,4.0,4.0,0.0,4.0,66.666664,,,,,,,,24.0,0.0,0.36083200000000004,-0.317139,0.59082,0.648193,0.855482,-0.521004,-0.109377,-0.03356,-0.040415,-0.020117,1.0,0.0,0.0,,,,,,,,,,,,,,,,,,,,,,,,,,,,,,,,0.0,0.0,1.0,0.0,1.0,0.0,55.451698,3.316383,2.2017290000000003,1.346909,0.8504659999999999,122.452118,12.805912,6.107816000000001,12.580157,4.683602,3.109969,0.34033,1.0856059999999998,0.38961999999999997,0.77437,0.031555,0.010931999999999999,0.003243,0.0006389999999999999,0.001678,11.262176,0.913133,1.5204090000000001,1.0254590000000001,1.131791
23297,1645495567.807134,1645495567.837759,49.0,0.0,4396.922852000001,4031.794922,4316.922852000001,4280.512695,4448.717772999999,0.0,3.0,73.0,,,,0.0,4.0,4.0,4.0,0.0,4.0,66.666664,,,,,,,,,,,,,,,,,,,,,,,,,,,,,,,,,,,,,,,,,,,,,,,,,,,,,,,,,,,,,,,,,,,,,,,,,,,,,,,,,,,,
23298,1645495567.814948,1645495567.845575,50.0,0.0,4393.333496,4089.2307130000004,4320.0,4280.512695,4433.333496,0.0,3.0,73.0,,,,0.0,4.0,4.0,4.0,0.0,4.0,66.666664,,,,,,,,25.0,0.0,0.36083200000000004,-0.317139,0.59082,0.648193,0.8603649999999999,-0.541512,-0.105959,-0.033525,-0.040376999999999996,-0.022987999999999998,,,,,,,,,,,,,,,,,,,,,,,,,,,,,,,,,,,,,,,,,,,,,,,,,,,,,,,,,,,,,,,,,
23299,1645495567.822762,1645495567.853391,51.0,0.0,4362.05127,4114.358886999999,4322.563965,4280.512695,4453.846191,0.0,3.0,73.0,,,,0.0,4.0,4.0,4.0,0.0,4.0,66.666664,,,,,,,,,,,,,,,,,,,,,,,,,,,,,,,,,,,,,,,,,,,,,,,,,,,,,,,,,,,,,,,,,,,,,,,,,,,,,,,,,,,,
23300,1645495567.830576,1645495567.8613071,52.0,0.0,4358.461426,4073.3332520000004,4312.820313,4280.512695,4463.589844,0.0,3.0,73.0,,,,0.0,4.0,4.0,4.0,0.0,4.0,66.666664,,,,,,,,26.0,0.0,0.360647,-0.316895,0.591064,0.648193,0.8413209999999999,-0.539071,-0.099611,-0.033395,-0.040392000000000004,-0.025620999999999998,,,,,,,,,,,,,,,,,,,,,,,,,,,,,,,,,,,0.0,0.0,1.0,0.0,1.0,0.0,,,,,,,,,,,,,,,,,,,,,,,,,
23301,1645495567.83839,1645495567.869123,53.0,0.0,4381.538574,4090.7692869999996,4310.769043,4280.512695,4436.922852000001,0.0,3.0,73.0,,,,0.0,4.0,4.0,4.0,0.0,4.0,66.666664,,,,,,,,,,,,,,,,,,,,,,,,,,,,,,,,,,,,,,,,,,,,,,,,,,,,,,,,,,,,,,,,,,,,,,,,,,,,,,,,,,,,
23302,1645495567.8462038,1645495567.876939,54.0,0.0,4377.436035,4134.871582,4313.846191,4280.512695,4415.897461,0.0,3.0,73.0,,,,0.0,4.0,4.0,4.0,0.0,4.0,66.666664,,,,,,,,27.0,0.0,0.360647,-0.316895,0.591064,0.648193,0.827649,-0.542977,-0.098146,-0.033375999999999996,-0.040406,-0.021789,,,,,,,,,,,,,,,,,,,,,,,,,,,,,,,,,,,,,,,,,,,,,,,,,,,,,,,,,,,,,,,,,
23303,1645495567.854018,1645495567.8847551,55.0,0.0,4354.358886999999,4096.410156,4310.769043,4280.512695,4428.717772999999,0.0,3.0,73.0,,,,0.0,4.0,4.0,4.0,0.0,4.0,66.666664,,,,,,,,,,,,,,,,,,,,,,,,,,,,,,,,,,,,,,,,,,,,,,,,,,,,,,,,,,,,,,,,,,,,,,,,,,,,,,,,,,,,
23304,1645495567.8618321,1645495567.8925712,56.0,0.0,4349.743652,4076.4101560000004,4317.436035,4280.512695,4442.05127,0.0,3.0,73.0,,,,0.0,4.0,4.0,4.0,0.0,4.0,66.666664,,,,,,,,28.0,0.0,0.360647,-0.316895,0.591064,0.648193,0.8408329999999999,-0.536141,-0.11230599999999999,-0.033358,-0.040467,-0.018292,,,,,,,,,,,,,,,,,,,,,,,,,,,,,,,,,,,0.0,0.0,1.0,0.0,1.0,0.0,,,,,,,,,,,,,,,,,,,,,,,,,
23305,1645495567.869646,1645495567.900388,57.0,0.0,4371.794922,4125.641113000001,4328.205078,4280.512695,4435.897461,0.0,3.0,73.0,,,,0.0,4.0,4.0,4.0,0.0,4.0,66.666664,,,,,,,,,,,,,,,,,,,,,,,,,,,,,,,,,,,,,,,,,,,,,,,,,,,,,,,,,,,,,,,,,,,,,,,,,,,,,,,,,,,,
23306,1645495567.87746,1645495567.9082038,58.0,0.0,4397.436035,4138.461426,4322.05127,4280.512695,4433.333496,0.0,3.0,73.0,,,,0.0,4.0,4.0,4.0,0.0,4.0,66.666664,,,,,,,,29.0,0.0,0.360861,-0.31665,0.591064,0.648193,0.8437629999999999,-0.539071,-0.098634,-0.033343,-0.040473,-0.021346,,,,,,,,,,,,,,,,,,,,,,,,,,,,,,,,,,,,,,,,,,,,,,,,,,,,,,,,,,,,,,,,,
23307,1645495567.885274,1645495567.91602,59.0,0.0,4378.974121,4113.846191,4313.846191,4280.512695,4419.487305,0.0,3.0,73.0,,,,0.0,4.0,4.0,4.0,0.0,4.0,66.666664,,,,,,,,,,,,,,,,,,,,,,,,,,,,,,,,,,,,,,,,,,,,,,,,,,,,,,,,,,,,,,,,,,,,,,,,,,,,,,,,,,,,
23308,1645495567.893088,1645495567.923836,60.0,0.0,4351.282227000001,4118.461426,4324.102539,4280.512695,4405.641113000001,0.0,3.0,73.0,,,,0.0,4.0,4.0,4.0,0.0,4.0,66.666664,,,,,,,,30.0,0.0,0.36042199999999996,-0.31665,0.591064,0.648438,0.843275,-0.542,-0.097169,-0.033329000000000004,-0.04043,-0.024191999999999998,,,,,,,,,,,,,,,,,,,,,,,,,,,,,,,,,,,0.0,0.0,1.0,0.0,1.0,0.0,,,,,,,,,,,,,,,,,,,,,,,,,
23309,1645495567.900902,1645495567.931652,61.0,0.0,4359.487305,4149.230957,4316.922852000001,4280.512695,4420.512695,0.0,3.0,73.0,,,,0.0,4.0,4.0,4.0,0.0,4.0,66.666664,,,,,,,,,,,,,,,,,,,,,,,,,,,,,,,,,,,,,,,,,,,,,,,,,,,,,,,,,,,,,,,,,,,,,,,,,,,,,,,,,,,,
23310,1645495567.908716,1645495567.939568,62.0,0.0,4372.820313,4178.974121,4300.512695,4280.512695,4428.205078,0.0,3.0,73.0,,,,0.0,4.0,4.0,4.0,0.0,4.0,66.666664,,,,,,,,31.0,0.0,0.36042199999999996,-0.31665,0.591064,0.648438,0.83595,-0.548837,-0.101564,-0.033219,-0.040391,-0.020405,,,,,,,,,,,,,,,,,,,,,,,,,,,,,,,,,,,,,,,,,,,,,,,,,,,,,,,,,,,,,,,,,
23311,1645495567.9165301,1645495567.947383,63.0,0.0,4368.717772999999,4203.077147999999,4304.615234000001,4280.512695,4423.589844,0.0,3.0,73.0,,,,0.0,4.0,4.0,4.0,0.0,4.0,66.666664,,,,,,,,,,,,,,,,,,,,,,,,,,,,,,,,,,,,,,,,,,,,,,,,,,,,,,,,,,,,,,,,,,,,,,,,,,,,,,,,,,,,
23312,1645495567.924344,1645495567.955199,64.0,0.0,4355.897461,4213.333496,4312.307617,4281.025879,4432.820313,450.0,3.0,73.0,,,,0.0,4.0,4.0,4.0,0.0,4.0,66.666664,1.0,25.0,3.0,0.0,4.0,0.0,4.0,32.0,0.0,0.36042199999999996,-0.31665,0.591064,0.648438,0.8486459999999999,-0.551766,-0.099123,-0.033217,-0.040307,-0.023296,1.0,0.0,0.0,,,,,,,,,,,,,,,,,,,,,,,,,,,,,,,,0.0,0.0,1.0,0.0,1.0,0.0,15.843122,1.758427,1.9110880000000001,1.152866,0.7397859999999999,106.14595800000001,13.210571,6.169597,12.05382,5.013351999999999,2.598201,0.323388,0.901584,0.39222199999999996,0.897701,0.006197,0.0029980000000000002,0.0011619999999999998,0.00031600000000000004,0.0006730000000000001,4.289094,0.766423,1.52094,0.9474540000000001,1.248202
23313,1645495567.932158,1645495567.963015,65.0,0.0,4369.230957,4196.922852000001,4290.769043,4280.512695,4432.307617,450.0,3.0,73.0,,,,0.0,4.0,4.0,4.0,0.0,4.0,66.666664,,,,,,,,,,,,,,,,,,,,,,,,,,,,,,,,,,,,,,,,,,,,,,,,,,,,,,,,,,,,,,,,,,,,,,,,,,,,,,,,,,,,
23314,1645495567.939973,1645495567.9708312,66.0,0.0,4394.358886999999,4183.589844,4283.589844,4279.487305,4416.410156,16231.0,3.0,73.0,,,,0.0,4.0,4.0,4.0,0.0,4.0,66.666664,,,,,,,,33.0,0.0,0.36042199999999996,-0.31665,0.591064,0.648438,0.842786,-0.550301,-0.107424,-0.033216,-0.04028,-0.02585,,,,,,,,,,,,,,,,,,,,,,,,,,,,,,,,,,,,,,,,,,,,,,,,,,,,,,,,,,,,,,,,,
23315,1645495567.9477859,1645495567.978647,67.0,0.0,4380.512695,4223.077147999999,4297.94873,4279.487305,4417.436035,450.0,3.0,73.0,,,,0.0,4.0,4.0,4.0,0.0,4.0,66.666664,,,,,,,,,,,,,,,,,,,,,,,,,,,,,,,,,,,,,,,,,,,,,,,,,,,,,,,,,,,,,,,,,,,,,,,,,,,,,,,,,,,,
23316,1645495567.9556,1645495567.986463,68.0,0.0,4356.922852000001,4294.358886999999,4298.461426,4280.512695,4417.436035,16179.0,3.0,73.0,,,,0.0,4.0,4.0,4.0,0.0,4.0,66.666664,,,,,,,,34.0,0.0,0.360861,-0.31665,0.591064,0.648193,0.842298,-0.543954,-0.101564,-0.033264,-0.040158,-0.028196,,,,,,,,,,,,,,,,,,,,,,,,,,,,,,,,,,,0.0,0.0,1.0,0.0,1.0,0.0,,,,,,,,,,,,,,,,,,,,,,,,,
