,Timestamp,OriginalTimestamp,EEG.Counter,EEG.Interpolated,EEG.AF3,EEG.T7,EEG.Pz,EEG.T8,EEG.AF4,EEG.RawCq,EEG.Battery,EEG.BatteryPercent,MarkerIndex,MarkerType,MarkerValueInt,EEG.MarkerHardware,CQ.AF3,CQ.T7,CQ.Pz,CQ.T8,CQ.AF4,CQ.Overall,EQ.SampleRateQuality,EQ.OVERALL,EQ.AF3,EQ.T7,EQ.Pz,EQ.T8,EQ.AF4,MOT.CounterMems,MOT.InterpolatedMems,MOT.Q0,MOT.Q1,MOT.Q2,MOT.Q3,MOT.AccX,MOT.AccY,MOT.AccZ,MOT.MagX,MOT.MagY,MOT.MagZ,MC.Action,MC.ActionPower,MC.IsActive,PM.Engagement.IsActive,PM.Engagement.Scaled,PM.Engagement.Raw,PM.Engagement.Min,PM.Engagement.Max,PM.Excitement.IsActive,PM.Excitement.Scaled,PM.Excitement.Raw,PM.Excitement.Min,PM.Excitement.Max,PM.LongTermExcitement,PM.Stress.IsActive,PM.Stress.Scaled,PM.Stress.Raw,PM.Stress.Min,PM.Stress.Max,PM.Relaxation.IsActive,PM.Relaxation.Scaled,PM.Relaxation.Raw,PM.Relaxation.Min,PM.Relaxation.Max,PM.Interest.IsActive,PM.Interest.Scaled,PM.Interest.Raw,PM.Interest.Min,PM.Interest.Max,PM.Focus.IsActive,PM.Focus.Scaled,PM.Focus.Raw,PM.Focus.Min,PM.Focus.Max,FE.BlinkWink,FE.HorizontalEyesDirection,FE.UpperFaceAction,FE.UpperFaceActionPower,FE.LowerFaceAction,FE.LowerFaceActionPower,POW.AF3.Theta,POW.AF3.Alpha,POW.AF3.BetaL,POW.AF3.BetaH,POW.AF3.Gamma,POW.T7.Theta,POW.T7.Alpha,POW.T7.BetaL,POW.T7.BetaH,POW.T7.Gamma,POW.Pz.Theta,POW.Pz.Alpha,POW.Pz.BetaL,POW.Pz.BetaH,POW.Pz.Gamma,POW.T8.Theta,POW.T8.Alpha,POW.T8.BetaL,POW.T8.BetaH,POW.T8.Gamma,POW.AF4.Theta,POW.AF4.Alpha,POW.AF4.BetaL,POW.AF4.BetaH,POW.AF4.Gamma
22441,1645818404.832523,1645818404.870356,113.0,0.0,4343.589844,4506.153809,4177.94873,4286.666504,4293.333496,450.0,1.0,15.0,,,,0.0,4.0,1.0,4.0,1.0,4.0,50.0,,,,,,,,,,,,,,,,,,,,,,,,,,,,,,,,,,,,,,,,,,,,,,,,,,,,,,,,,,,,,,,,,,,,,,,,,,,,,,,,,,,,
22442,1645818404.840339,1645818404.878071,114.0,0.0,4335.384765999999,4533.846191,4166.666504,4286.666504,4278.974121,450.0,1.0,15.0,,,,0.0,4.0,1.0,4.0,1.0,4.0,50.0,,,,,,,,57.0,0.0,0.171551,0.663574,-0.085449,-0.7231449999999999,0.937514,-0.35938000000000003,-0.10009900000000001,-0.020356,-0.020881999999999998,-0.033103,,,,,,,,,,,,,,,,,,,,,,,,,,,,,,,,,,,,,,,,,,,,,,,,,,,,,,,,,,,,,,,,,
22443,1645818404.848155,1645818404.885886,115.0,0.0,4328.717772999999,4494.358886999999,4165.128418,4255.384765999999,4271.282227000001,16214.0,1.0,15.0,,,,0.0,4.0,1.0,4.0,1.0,4.0,50.0,,,,,,,,,,,,,,,,,,,,,,,,,,,,,,,,,,,,,,,,,,,,,,,,,,,,,,0.0,0.0,1.0,0.0,512.0,1.0,,,,,,,,,,,,,,,,,,,,,,,,,
22444,1645818404.855971,1645818404.8937,116.0,0.0,4327.179688,4482.563965,4176.410156,4227.179688,4282.05127,450.0,1.0,15.0,,,,0.0,4.0,1.0,4.0,1.0,4.0,50.0,,,,,,,,58.0,0.0,0.171551,0.663574,-0.085449,-0.7231449999999999,0.9350729999999999,-0.35108,-0.099611,-0.020713,-0.020893000000000002,-0.029256,,,,,,,,,,,,,,,,,,,,,,,,,,,,,,,,,,,,,,,,,,,,,,,,,,,,,,,,,,,,,,,,,
22445,1645818404.863787,1645818404.901515,117.0,0.0,4335.897461,4543.077147999999,4177.436035,4258.974121,4295.897461,450.0,1.0,15.0,,,,0.0,4.0,1.0,4.0,1.0,4.0,50.0,,,,,,,,,,,,,,,,,,,,,,,,,,,,,,,,,,,,,,,,,,,,,,,,,,,,,,,,,,,,,,,,,,,,,,,,,,,,,,,,,,,,
22446,1645818404.871604,1645818404.909329,118.0,0.0,4334.871582,4586.666504,4160.0,4283.077147999999,4277.436035,450.0,1.0,15.0,,,,0.0,4.0,1.0,4.0,1.0,4.0,50.0,,,,,,,,59.0,0.0,0.171551,0.663574,-0.085449,-0.7231449999999999,0.9487450000000001,-0.352544,-0.092287,-0.021083,-0.020952000000000002,-0.031994,,,,,,,,,,,,,,,,,,,,,,,,,,,,,,,,,,,,,,,,,,,,,,,,,,,,,,,,,,,,,,,,,
22447,1645818404.8794198,1645818404.917144,119.0,0.0,4319.487305,4574.358886999999,4162.05127,4245.128418,4257.436035,16214.0,1.0,15.0,,,,0.0,4.0,1.0,4.0,1.0,4.0,50.0,,,,,,,,,,,,,,,,,,,,,,,,,,,,,,,,,,,,,,,,,,,,,,,,,,,,,,0.0,0.0,1.0,0.0,512.0,1.0,,,,,,,,,,,,,,,,,,,,,,,,,
22448,1645818404.8872359,1645818404.924959,120.0,0.0,4314.358886999999,4532.307617,4172.820313,4257.436035,4270.769043,450.0,1.0,15.0,,,,0.0,4.0,1.0,4.0,1.0,4.0,50.0,,,,,,,,60.0,0.0,0.170396,0.663574,-0.08569299999999999,-0.7233890000000001,0.925307,-0.358404,-0.098146,-0.021366999999999997,-0.021005000000000003,-0.02816,,,,,,,,,,,,,,,,,,,,,,,,,,,,,,,,,,,,,,,,,,,,,,,,,,,,,,,,,,,,,,,,,
22449,1645818404.895052,1645818404.932673,121.0,0.0,4319.487305,4497.436035,4167.179688,4318.461426,4278.461426,450.0,1.0,15.0,,,,0.0,4.0,1.0,4.0,1.0,4.0,50.0,,,,,,,,,,,,,,,,,,,,,,,,,,,,,,,,,,,,,,,,,,,,,,,,,,,,,,,,,,,,,,,,,,,,,,,,,,,,,,,,,,,,
22450,1645818404.902869,1645818404.9403882,122.0,0.0,4328.717772999999,4522.05127,4178.974121,4299.487305,4275.897461,450.0,1.0,15.0,,,,0.0,4.0,1.0,4.0,1.0,4.0,50.0,,,,,,,,61.0,0.0,0.170396,0.663574,-0.08569299999999999,-0.7233890000000001,0.937514,-0.354986,-0.103029,-0.019328,-0.021151,-0.031007999999999997,,,,,,,,,,,,,,,,,,,,,,,,,,,,,,,,,,,,,,,,,,,,,,,,,,,,,,,,,,,,,,,,,
22451,1645818404.910685,1645818404.948102,123.0,0.0,4350.256348,4544.102539,4206.153809,4268.205078,4288.717772999999,16214.0,1.0,15.0,,,,0.0,4.0,1.0,4.0,1.0,4.0,50.0,,,,,,,,,,,,,,,,,,,,,,,,,,,,,,,,,,,,,,,,,,,,,,,,,,,,,,0.0,0.0,1.0,0.0,512.0,1.0,,,,,,,,,,,,,,,,,,,,,,,,,
22452,1645818404.918501,1645818404.955917,124.0,0.0,4346.153809,4477.94873,4175.384765999999,4313.333496,4273.846191,450.0,1.0,15.0,,,,0.0,4.0,1.0,4.0,1.0,4.0,50.0,,,,,,,,62.0,0.0,0.170396,0.663574,-0.08569299999999999,-0.7233890000000001,0.9389790000000001,-0.34766199999999997,-0.101076,-0.019837,-0.021184,-0.027224,,,,,,,,,,,,,,,,,,,,,,,,,,,,,,,,,,,,,,,,,,,,,,,,,,,,,,,,,,,,,,,,,
22453,1645818404.926317,1645818404.963731,125.0,0.0,4317.94873,4438.974121,4136.922852000001,4328.717772999999,4248.205078,450.0,1.0,15.0,,,,0.0,4.0,1.0,4.0,1.0,4.0,50.0,,,,,,,,,,,,,,,,,,,,,,,,,,,,,,,,,,,,,,,,,,,,,,,,,,,,,,,,,,,,,,,,,,,,,,,,,,,,,,,,,,,,
22454,1645818404.934133,1645818404.9715462,126.0,0.0,4334.358886999999,4510.256348,4167.179688,4263.077147999999,4273.333496,450.0,1.0,15.0,,,,0.0,4.0,1.0,4.0,1.0,4.0,50.0,,,,,,,,63.0,0.0,0.170396,0.663574,-0.08569299999999999,-0.7233890000000001,0.9340959999999999,-0.33350100000000005,-0.116701,-0.020295,-0.02097,-0.030213999999999998,,,,,,,,,,,,,,,,,,,,,,,,,,,,,,,,,,,,,,,,,,,,,,,,,,,,,,,,,,,,,,,,,
22455,1645818404.94195,1645818404.97926,127.0,0.0,4352.307617,4557.94873,4186.666504,4251.794922,4289.230957,233.0,1.0,15.0,,,,0.0,4.0,1.0,4.0,1.0,4.0,50.0,0.972656,25.0,4.0,0.0,3.0,0.0,4.0,,,,,,,,,,,,,1.0,0.0,0.0,,,,,,,,,,,,,,,,,,,,,,,,,,,,,,,,0.0,0.0,1.0,0.0,512.0,1.0,0.839256,2.230403,1.8340049999999999,3.86712,2.065003,10.945766,12.486456,10.175706,21.060856,9.690468,3.253266,1.336547,1.570203,3.801393,1.7935860000000001,4.6728190000000005,1.891536,1.271929,3.052409,4.853467,3.952604,1.501356,1.740764,3.0708919999999997,1.9833169999999998
22456,1645818404.949766,1645818404.9870741,0.0,0.0,4334.871582,4539.487305,4168.717772999999,4291.794922,4267.179688,450.0,1.0,15.0,,,,0.0,4.0,1.0,4.0,1.0,4.0,50.0,,,,,,,,0.0,0.0,0.171429,0.663574,-0.08569299999999999,-0.7231449999999999,0.9472799999999999,-0.338384,-0.113283,-0.020511,-0.020924,-0.026753,,,,,,,,,,,,,,,,,,,,,,,,,,,,,,,,,,,,,,,,,,,,,,,,,,,,,,,,,,,,,,,,,
22457,1645818404.957582,1645818404.9947891,1.0,0.0,4350.769043,4529.743652,4198.461426,4277.436035,4288.717772999999,450.0,1.0,15.0,,,,0.0,4.0,0.0,4.0,0.0,4.0,33.333332,,,,,,,,,,,,,,,,,,,,,,,,,,,,,,,,,,,,,,,,,,,,,,,,,,,,,,,,,,,,,,,,,,,,,,,,,,,,,,,,,,,,
22458,1645818404.965398,1645818405.0026028,2.0,0.0,4364.615234000001,4542.563965,4219.487305,4257.94873,4311.282227000001,16176.0,1.0,15.0,,,,0.0,4.0,0.0,4.0,0.0,4.0,33.333332,,,,,,,,1.0,0.0,0.170604,0.663818,-0.085449,-0.7231449999999999,0.938003,-0.338872,-0.101564,-0.019193,-0.020931,-0.029644999999999998,,,,,,,,,,,,,,,,,,,,,,,,,,,,,,,,,,,,,,,,,,,,,,,,,,,,,,,,,,,,,,,,,
22459,1645818404.973215,1645818405.010418,3.0,0.0,4321.538574,4574.358886999999,4180.512695,4275.897461,4255.897461,450.0,1.0,15.0,,,,0.0,4.0,0.0,4.0,0.0,4.0,33.333332,,,,,,,,,,,,,,,,,,,,,,,,,,,,,,,,,,,,,,,,,,,,,,,,,,,,,,0.0,0.0,1.0,0.0,512.0,1.0,,,,,,,,,,,,,,,,,,,,,,,,,
22460,1645818404.981031,1645818405.018232,4.0,0.0,4311.282227000001,4559.487305,4168.717772999999,4282.05127,4228.717772999999,11.0,1.0,15.0,,,,0.0,4.0,0.0,4.0,0.0,4.0,33.333332,,,,,,,,2.0,0.0,0.170604,0.663818,-0.085449,-0.7231449999999999,0.938491,-0.354498,-0.1084,-0.017419999999999998,-0.020888999999999998,-0.032295,,,,,,,,,,,,,,,,,,,,,,,,,,,,,,,,,,,,,,,,,,,,,,,,,,,,,,,,,,,,,,,,,
22461,1645818404.988847,1645818405.026047,5.0,0.0,4353.333496,4505.128418,4190.256348,4304.615234000001,4282.05127,450.0,1.0,15.0,,,,0.0,4.0,0.0,4.0,0.0,4.0,33.333332,,,,,,,,,,,,,,,,,,,,,,,,,,,,,,,,,,,,,,,,,,,,,,,,,,,,,,,,,,,,,,,,,,,,,,,,,,,,,,,,,,,,
22462,1645818404.996663,1645818405.033861,6.0,0.0,4345.641113000001,4534.871582,4170.769043,4304.102539,4286.153809,16109.0,1.0,15.0,,,,0.0,4.0,0.0,4.0,0.0,4.0,33.333332,,,,,,,,3.0,0.0,0.170604,0.663818,-0.085449,-0.7231449999999999,0.934585,-0.344244,-0.092775,-0.018022,-0.0209,-0.034925,,,,,,,,,,,,,,,,,,,,,,,,,,,,,,,,,,,,,,,,,,,,,,,,,,,,,,,,,,,,,,,,,
22463,1645818405.0044801,1645818405.041675,7.0,0.0,4304.102539,4588.717772999999,4141.538574,4236.410156,4234.358886999999,450.0,1.0,15.0,,,,0.0,4.0,0.0,4.0,0.0,4.0,33.333332,,,,,,,,,,,,,,,,,,,,,,,,,,,,,,,,,,,,,,,,,,,,,,,,,,,,,,0.0,0.0,1.0,0.0,512.0,1.0,,,,,,,,,,,,,,,,,,,,,,,,,
22464,1645818405.0122962,1645818405.04949,8.0,0.0,4321.538574,4592.307617,4169.743652,4229.743652,4256.410156,450.0,1.0,15.0,,,,0.0,4.0,0.0,4.0,0.0,4.0,33.333332,,,,,,,,4.0,0.0,0.171551,0.663574,-0.085449,-0.7231449999999999,0.934585,-0.350591,-0.11816600000000001,-0.018661,-0.020861,-0.030847000000000003,,,,,,,,,,,,,,,,,,,,,,,,,,,,,,,,,,,,,,,,,,,,,,,,,,,,,,,,,,,,,,,,,
22465,1645818405.0201118,1645818405.057304,9.0,0.0,4338.461426,4587.179688,4188.717772999999,4257.436035,4291.282227000001,0.0,1.0,15.0,,,,0.0,4.0,0.0,4.0,0.0,4.0,33.333332,,,,,,,,,,,,,,,,,,,,,,,,,,,,,,,,,,,,,,,,,,,,,,,,,,,,,,,,,,,,,,,,,,,,,,,,,,,,,,,,,,,,
22466,1645818405.0279279,1645818405.065019,10.0,0.0,4327.692383,4579.487305,4186.666504,4243.589844,4269.230957,450.0,1.0,15.0,,,,0.0,4.0,0.0,4.0,0.0,4.0,33.333332,,,,,,,,5.0,0.0,0.171551,0.663574,-0.085449,-0.7231449999999999,0.9433739999999999,-0.36328699999999997,-0.10547000000000001,-0.019236000000000003,-0.020874,-0.033475,,,,,,,,,,,,,,,,,,,,,,,,,,,,,,,,,,,,,,,,,,,,,,,,,,,,,,,,,,,,,,,,,
22467,1645818405.035745,1645818405.072833,11.0,0.0,4342.05127,4590.256348,4204.102539,4275.384765999999,4268.717772999999,16143.0,1.0,15.0,,,,0.0,4.0,0.0,4.0,0.0,4.0,33.333332,,,,,,,,,,,,,,,,,,,,,,,,,,,,,,,,,,,,,,,,,,,,,,,,,,,,,,0.0,0.0,1.0,0.0,512.0,1.0,,,,,,,,,,,,,,,,,,,,,,,,,
22468,1645818405.043561,1645818405.080648,12.0,0.0,4335.384765999999,4649.230957,4190.256348,4286.666504,4270.256348,450.0,1.0,15.0,,,,0.0,4.0,0.0,4.0,0.0,4.0,33.333332,,,,,,,,6.0,0.0,0.170396,0.663574,-0.08569299999999999,-0.7233890000000001,0.945815,-0.365728,-0.112795,-0.019705,-0.020886000000000002,-0.029493000000000002,,,,,,,,,,,,,,,,,,,,,,,,,,,,,,,,,,,,,,,,,,,,,,,,,,,,,,,,,,,,,,,,,
22469,1645818405.051377,1645818405.0884619,13.0,0.0,4294.871582,4653.846191,4147.179688,4232.307617,4235.384765999999,450.0,1.0,15.0,,,,0.0,4.0,0.0,4.0,0.0,4.0,33.333332,,,,,,,,,,,,,,,,,,,,,,,,,,,,,,,,,,,,,,,,,,,,,,,,,,,,,,,,,,,,,,,,,,,,,,,,,,,,,,,,,,,,
22470,1645818405.059193,1645818405.096276,14.0,0.0,4305.641113000001,4613.846191,4168.717772999999,4271.282227000001,4238.461426,450.0,1.0,15.0,,,,0.0,4.0,0.0,4.0,0.0,4.0,33.333332,,,,,,,,7.0,0.0,0.170273,0.663574,-0.085938,-0.7233890000000001,0.9463030000000001,-0.357916,-0.11816600000000001,-0.020079,-0.020849,-0.026006,,,,,,,,,,,,,,,,,,,,,,,,,,,,,,,,,,,,,,,,,,,,,,,,,,,,,,,,,,,,,,,,,
22471,1645818405.06701,1645818405.104091,15.0,0.0,4329.230957,4615.897461,4206.153809,4310.769043,4258.974121,16143.0,1.0,15.0,,,,0.0,4.0,0.0,4.0,0.0,4.0,33.333332,,,,,,,,,,,,,,,,,,,,1.0,0.0,0.0,,,,,,,,,,,,,,,,,,,,,,,,,,,,,,,,0.0,0.0,1.0,0.0,512.0,1.0,0.5778369999999999,1.995791,1.950336,3.8670709999999997,1.822401,11.310893,11.885216999999999,9.316673,20.23208,10.271625,3.1393,1.534938,2.14627,3.977214,1.599716,5.641229,1.621592,1.082894,2.281021,6.614388000000001,3.354421,1.374924,1.554699,3.2787300000000004,1.8375080000000001
22472,1645818405.074826,1645818405.111905,16.0,0.0,4323.077147999999,4552.307617,4194.871582,4242.05127,4260.512695,0.0,1.0,15.0,,,,0.0,4.0,0.0,4.0,0.0,4.0,33.333332,,,,,,,,8.0,0.0,0.170149,0.663574,-0.08618200000000001,-0.7233890000000001,0.931167,-0.354498,-0.09765800000000001,-0.020463,-0.020912,-0.022771,,,,,,,,,,,,,,,,,,,,,,,,,,,,,,,,,,,,,,,,,,,,,,,,,,,,,,,,,,,,,,,,,
22473,1645818405.082642,1645818405.11972,17.0,0.0,4349.230957,4521.538574,4204.102539,4233.846191,4294.358886999999,0.0,1.0,15.0,,,,0.0,4.0,0.0,4.0,0.0,4.0,33.333332,,,,,,,,,,,,,,,,,,,,,,,,,,,,,,,,,,,,,,,,,,,,,,,,,,,,,,,,,,,,,,,,,,,,,,,,,,,,,,,,,,,,
22474,1645818405.090458,1645818405.127534,18.0,0.0,4365.128418,4647.179688,4230.256348,4278.974121,4309.230957,0.0,1.0,15.0,,,,0.0,4.0,0.0,4.0,0.0,4.0,33.333332,,,,,,,,9.0,0.0,0.170149,0.663574,-0.08618200000000001,-0.7233890000000001,0.944839,-0.341802,-0.10351700000000001,-0.019198,-0.020921000000000002,-0.026108999999999997,,,,,,,,,,,,,,,,,,,,,,,,,,,,,,,,,,,,,,,,,,,,,,,,,,,,,,,,,,,,,,,,,
22475,1645818405.098275,1645818405.135348,19.0,0.0,4327.692383,4685.128418,4206.153809,4266.666504,4269.743652,0.0,1.0,15.0,,,,0.0,4.0,0.0,4.0,0.0,4.0,33.333332,,,,,,,,,,,,,,,,,,,,,,,,,,,,,,,,,,,,,,,,,,,,,,,,,,,,,,0.0,0.0,1.0,0.0,512.0,1.0,,,,,,,,,,,,,,,,,,,,,,,,,
22476,1645818405.106091,1645818405.143063,20.0,0.0,4316.922852000001,4592.307617,4179.487305,4277.94873,4256.922852000001,0.0,1.0,15.0,,,,0.0,4.0,0.0,4.0,0.0,4.0,33.333332,,,,,,,,10.0,0.0,0.170273,0.663574,-0.085938,-0.7233890000000001,0.9438620000000001,-0.34473200000000004,-0.105959,-0.01806,-0.020878999999999998,-0.029113999999999998,,,,,,,,,,,,,,,,,,,,,,,,,,,,,,,,,,,,,,,,,,,,,,,,,,,,,,,,,,,,,,,,,
22477,1645818405.113907,1645818405.150877,21.0,0.0,4346.153809,4595.897461,4196.410156,4295.897461,4284.615234000001,0.0,1.0,15.0,,,,0.0,4.0,0.0,4.0,0.0,4.0,33.333332,,,,,,,,,,,,,,,,,,,,,,,,,,,,,,,,,,,,,,,,,,,,,,,,,,,,,,,,,,,,,,,,,,,,,,,,,,,,,,,,,,,,
22478,1645818405.121723,1645818405.158692,22.0,0.0,4335.897461,4631.794922,4198.461426,4275.897461,4284.615234000001,0.0,1.0,15.0,,,,0.0,4.0,0.0,4.0,0.0,4.0,33.333332,,,,,,,,11.0,0.0,0.169319,0.663818,-0.085938,-0.7233890000000001,0.9399559999999999,-0.34229,-0.090822,-0.018549,-0.020891,-0.025568,,,,,,,,,,,,,,,,,,,,,,,,,,,,,,,,,,,,,,,,,,,,,,,,,,,,,,,,,,,,,,,,,
22479,1645818405.129539,1645818405.166506,23.0,0.0,4308.717772999999,4565.641113000001,4167.692383,4294.358886999999,4267.692383,0.0,1.0,15.0,,,,0.0,4.0,0.0,4.0,0.0,4.0,33.333332,,,,,,,,,,,,,,,,,,,,,,,,,,,,,,,,,,,,,,,,,,,,,,,,,,,,,,0.0,0.0,1.0,0.0,512.0,1.0,,,,,,,,,,,,,,,,,,,,,,,,,
22480,1645818405.137356,1645818405.1743212,24.0,0.0,4306.153809,4571.282227000001,4158.974121,4307.179688,4262.05127,0.0,1.0,15.0,,,,0.0,4.0,0.0,4.0,0.0,4.0,33.333332,,,,,,,,12.0,0.0,0.169319,0.663818,-0.085938,-0.7233890000000001,0.9277489999999999,-0.352544,-0.10498199999999999,-0.019135,-0.020902,-0.028576999999999998,,,,,,,,,,,,,,,,,,,,,,,,,,,,,,,,,,,,,,,,,,,,,,,,,,,,,,,,,,,,,,,,,
22481,1645818405.145172,1645818405.1821349,25.0,0.0,4318.461426,4667.179688,4181.025879,4271.794922,4270.256348,0.0,1.0,15.0,,,,0.0,4.0,0.0,4.0,0.0,4.0,33.333332,,,,,,,,,,,,,,,,,,,,,,,,,,,,,,,,,,,,,,,,,,,,,,,,,,,,,,,,,,,,,,,,,,,,,,,,,,,,,,,,,,,,
22482,1645818405.1529882,1645818405.189949,26.0,0.0,4310.769043,4655.897461,4168.717772999999,4276.410156,4257.436035,0.0,1.0,15.0,,,,0.0,4.0,0.0,4.0,0.0,4.0,33.333332,,,,,,,,13.0,0.0,0.170273,0.663574,-0.085938,-0.7233890000000001,0.9438620000000001,-0.34473200000000004,-0.105959,-0.018003,-0.020862000000000002,-0.031335,,,,,,,,,,,,,,,,,,,,,,,,,,,,,,,,,,,,,,,,,,,,,,,,,,,,,,,,,,,,,,,,,
22483,1645818405.1608038,1645818405.1977642,27.0,0.0,4289.743652,4573.333496,4148.717772999999,4287.692383,4226.153809,0.0,1.0,15.0,,,,0.0,4.0,0.0,4.0,0.0,4.0,33.333332,,,,,,,,,,,,,,,,,,,,,,,,,,,,,,,,,,,,,,,,,,,,,,,,,,,,,,0.0,0.0,1.0,0.0,512.0,1.0,,,,,,,,,,,,,,,,,,,,,,,,,
22484,1645818405.168621,1645818405.2055779,28.0,0.0,4300.0,4582.563965,4170.256348,4261.025879,4240.0,0.0,1.0,15.0,,,,0.0,4.0,0.0,4.0,0.0,4.0,33.333332,,,,,,,,14.0,0.0,0.170273,0.663574,-0.085938,-0.7233890000000001,0.938003,-0.352544,-0.107424,-0.018498,-0.020729,-0.027567,,,,,,,,,,,,,,,,,,,,,,,,,,,,,,,,,,,,,,,,,,,,,,,,,,,,,,,,,,,,,,,,,
22485,1645818405.176437,1645818405.213293,29.0,0.0,4330.769043,4634.358886999999,4195.384765999999,4282.05127,4285.128418,0.0,1.0,15.0,,,,0.0,4.0,0.0,4.0,0.0,4.0,33.333332,,,,,,,,,,,,,,,,,,,,,,,,,,,,,,,,,,,,,,,,,,,,,,,,,,,,,,,,,,,,,,,,,,,,,,,,,,,,,,,,,,,,
22486,1645818405.184253,1645818405.221107,30.0,0.0,4324.102539,4624.615234000001,4182.05127,4296.922852000001,4278.974121,0.0,1.0,15.0,,,,0.0,4.0,0.0,4.0,0.0,4.0,33.333332,,,,,,,,15.0,0.0,0.170396,0.663574,-0.08569299999999999,-0.7233890000000001,0.9399559999999999,-0.35352100000000003,-0.10693499999999999,-0.018894,-0.020707,-0.030474,,,,,,,,,,,,,,,,,,,,,,,,,,,,,,,,,,,,,,,,,,,,,,,,,,,,,,,,,,,,,,,,,
22487,1645818405.192069,1645818405.2289212,31.0,0.0,4288.717772999999,4601.538574,4160.0,4283.077147999999,4239.487305,0.0,1.0,15.0,,,,0.0,4.0,0.0,4.0,0.0,4.0,33.333332,,,,,,,,,,,,,,,,,,,,1.0,0.0,0.0,,,,,,,,,,,,,,,,,,,,,,,,,,,,,,,,0.0,0.0,1.0,0.0,512.0,1.0,0.401488,1.83205,2.130296,3.9443910000000004,1.594691,11.844937,11.548179,9.036757000000001,19.397778,11.744164999999999,2.944012,1.8170419999999998,2.877373,4.003922,1.5404010000000001,6.564313,1.38105,1.212596,2.0290630000000003,8.796105,2.882488,1.334202,1.4398819999999999,3.626229,1.762099
22488,1645818405.199885,1645818405.2367358,32.0,0.0,4295.897461,4625.641113000001,4158.461426,4293.333496,4237.94873,0.0,1.0,15.0,,,,0.0,4.0,0.0,4.0,0.0,4.0,33.333332,,,,,,,,16.0,0.0,0.169442,0.663818,-0.08569299999999999,-0.7233890000000001,0.9433739999999999,-0.352056,-0.10498199999999999,-0.019495,-0.020736,-0.026889999999999997,,,,,,,,,,,,,,,,,,,,,,,,,,,,,,,,,,,,,,,,,,,,,,,,,,,,,,,,,,,,,,,,,
22489,1645818405.207702,1645818405.24455,33.0,0.0,4316.922852000001,4698.461426,4164.102539,4280.0,4245.128418,0.0,1.0,15.0,,,,0.0,4.0,0.0,4.0,0.0,4.0,33.333332,,,,,,,,,,,,,,,,,,,,,,,,,,,,,,,,,,,,,,,,,,,,,,,,,,,,,,,,,,,,,,,,,,,,,,,,,,,,,,,,,,,,
22490,1645818405.215518,1645818405.252365,34.0,0.0,4306.666504,4712.307617,4164.102539,4248.717772999999,4234.871582,0.0,1.0,15.0,,,,0.0,4.0,0.0,4.0,0.0,4.0,33.333332,,,,,,,,17.0,0.0,0.170481,0.663818,-0.08569299999999999,-0.7231449999999999,0.9267719999999999,-0.340826,-0.11523599999999999,-0.019938,-0.020713,-0.023615,,,,,,,,,,,,,,,,,,,,,,,,,,,,,,,,,,,,,,,,,,,,,,,,,,,,,,,,,,,,,,,,,
22491,1645818405.223334,1645818405.2601788,35.0,0.0,4317.94873,4590.256348,4184.615234000001,4268.717772999999,4251.794922,0.0,1.0,15.0,,,,0.0,4.0,0.0,4.0,0.0,4.0,33.333332,,,,,,,,,,,,,,,,,,,,,,,,,,,,,,,,,,,,,,,,,,,,,,,,,,,,,,0.0,0.0,1.0,0.0,512.0,1.0,,,,,,,,,,,,,,,,,,,,,,,,,
22492,1645818405.2311509,1645818405.267993,36.0,0.0,4343.077147999999,4526.666504,4200.512695,4280.512695,4280.0,0.0,1.0,15.0,,,,0.0,4.0,0.0,4.0,0.0,4.0,33.333332,,,,,,,,18.0,0.0,0.170604,0.663818,-0.085449,-0.7231449999999999,0.941909,-0.349615,-0.099611,-0.020337,-0.020693,-0.020716,,,,,,,,,,,,,,,,,,,,,,,,,,,,,,,,,,,,,,,,,,,,,,,,,,,,,,,,,,,,,,,,,
22493,1645818405.238967,1645818405.275808,37.0,0.0,4327.692383,4624.615234000001,4175.384765999999,4264.102539,4271.282227000001,0.0,1.0,15.0,,,,0.0,4.0,0.0,4.0,0.0,4.0,33.333332,,,,,,,,,,,,,,,,,,,,,,,,,,,,,,,,,,,,,,,,,,,,,,,,,,,,,,,,,,,,,,,,,,,,,,,,,,,,,,,,,,,,
22494,1645818405.246783,1645818405.283622,38.0,0.0,4312.820313,4656.922852000001,4161.025879,4273.846191,4251.794922,0.0,1.0,15.0,,,,0.0,4.0,0.0,4.0,0.0,4.0,33.333332,,,,,,,,19.0,0.0,0.169651,0.664063,-0.085449,-0.7231449999999999,0.945327,-0.34375500000000003,-0.1084,-0.020745,-0.020772,-0.024309,,,,,,,,,,,,,,,,,,,,,,,,,,,,,,,,,,,,,,,,,,,,,,,,,,,,,,,,,,,,,,,,,
22495,1645818405.254599,1645818405.291337,39.0,0.0,4316.410156,4551.282227000001,4179.487305,4261.538574,4244.615234000001,0.0,1.0,15.0,,,,0.0,4.0,0.0,4.0,0.0,4.0,33.333332,,,,,,,,,,,,,,,,,,,,,,,,,,,,,,,,,,,,,,,,,,,,,,,,,,,,,,0.0,0.0,1.0,0.0,512.0,1.0,,,,,,,,,,,,,,,,,,,,,,,,,
22496,1645818405.2624161,1645818405.299151,40.0,0.0,4316.410156,4493.333496,4192.307617,4249.743652,4252.307617,0.0,1.0,15.0,,,,0.0,4.0,0.0,4.0,0.0,4.0,33.333332,,,,,,,,20.0,0.0,0.169651,0.664063,-0.085449,-0.7231449999999999,0.925795,-0.353033,-0.101076,-0.021013999999999998,-0.020746,-0.021341,,,,,,,,,,,,,,,,,,,,,,,,,,,,,,,,,,,,,,,,,,,,,,,,,,,,,,,,,,,,,,,,,
22497,1645818405.270232,1645818405.306966,41.0,0.0,4324.102539,4526.666504,4190.256348,4297.94873,4267.179688,0.0,1.0,15.0,,,,0.0,4.0,0.0,4.0,0.0,4.0,33.333332,,,,,,,,,,,,,,,,,,,,,,,,,,,,,,,,,,,,,,,,,,,,,,,,,,,,,,,,,,,,,,,,,,,,,,,,,,,,,,,,,,,,
22498,1645818405.278048,1645818405.31478,42.0,0.0,4342.05127,4555.384765999999,4198.974121,4299.487305,4273.846191,0.0,1.0,15.0,,,,0.0,4.0,0.0,4.0,0.0,4.0,33.333332,,,,,,,,21.0,0.0,0.169651,0.664063,-0.085449,-0.7231449999999999,0.9355610000000001,-0.35108,-0.09472799999999999,-0.01901,-0.020722,-0.024871,,,,,,,,,,,,,,,,,,,,,,,,,,,,,,,,,,,,,,,,,,,,,,,,,,,,,,,,,,,,,,,,,
22499,1645818405.285864,1645818405.322594,43.0,0.0,4329.743652,4535.384765999999,4197.94873,4242.05127,4255.384765999999,0.0,1.0,15.0,,,,0.0,4.0,0.0,4.0,0.0,4.0,33.333332,,,,,,,,,,,,,,,,,,,,,,,,,,,,,,,,,,,,,,,,,,,,,,,,,,,,,,0.0,0.0,1.0,0.0,512.0,1.0,,,,,,,,,,,,,,,,,,,,,,,,,
22500,1645818405.2936802,1645818405.330409,44.0,0.0,4308.205078,4533.846191,4175.384765999999,4264.102539,4229.230957,0.0,1.0,15.0,,,,0.0,4.0,0.0,4.0,0.0,4.0,33.333332,,,,,,,,22.0,0.0,0.169651,0.664063,-0.085449,-0.7231449999999999,0.937026,-0.335943,-0.101564,-0.015633,-0.020534999999999998,-0.024657,,,,,,,,,,,,,,,,,,,,,,,,,,,,,,,,,,,,,,,,,,,,,,,,,,,,,,,,,,,,,,,,,
22501,1645818405.301497,1645818405.338223,45.0,0.0,4315.384765999999,4610.256348,4157.94873,4304.102539,4223.077147999999,0.0,1.0,15.0,,,,0.0,4.0,0.0,4.0,0.0,4.0,33.333332,,,,,,,,,,,,,,,,,,,,,,,,,,,,,,,,,,,,,,,,,,,,,,,,,,,,,,,,,,,,,,,,,,,,,,,,,,,,,,,,,,,,
22502,1645818405.309313,1645818405.346038,46.0,0.0,4324.102539,4617.436035,4171.794922,4265.128418,4231.282227000001,0.0,1.0,15.0,,,,0.0,4.0,0.0,4.0,0.0,4.0,33.333332,,,,,,,,23.0,0.0,0.169651,0.664063,-0.085449,-0.7231449999999999,0.933608,-0.353033,-0.11133,-0.014118,-0.020483,-0.027856,,,,,,,,,,,,,,,,,,,,,,,,,,,,,,,,,,,,,,,,,,,,,,,,,,,,,,,,,,,,,,,,,
22503,1645818405.317129,1645818405.353852,47.0,0.0,4335.897461,4532.820313,4202.05127,4250.256348,4257.94873,0.0,1.0,15.0,,,,0.0,4.0,0.0,4.0,0.0,4.0,33.333332,,,,,,,,,,,,,,,,,,,,1.0,0.0,0.0,,,,,,,,,,,,,,,,,,,,,,,,,,,,,,,,0.0,0.0,1.0,0.0,512.0,1.0,0.28881399999999996,1.7322110000000002,2.411304,3.989764,1.424806,12.343863,11.931505,9.755716,18.707914000000002,13.590048000000001,2.750648,2.131526,3.669117,3.8563650000000003,1.615024,7.491567,1.154575,1.7754439999999998,2.127145,10.811679,2.5226610000000003,1.355168,1.482877,3.9581440000000003,1.7867509999999998
22504,1645818405.324945,1645818405.361567,48.0,0.0,4353.846191,4579.487305,4197.436035,4276.922852000001,4280.0,0.0,1.0,15.0,,,,0.0,4.0,0.0,4.0,0.0,4.0,33.333332,,,,,,,,24.0,0.0,0.169651,0.664063,-0.085449,-0.7231449999999999,0.93019,-0.34766199999999997,-0.095216,-0.012804,-0.020486,-0.030685000000000004,,,,,,,,,,,,,,,,,,,,,,,,,,,,,,,,,,,,,,,,,,,,,,,,,,,,,,,,,,,,,,,,,
22505,1645818405.332762,1645818405.369381,49.0,0.0,4342.05127,4668.717772999999,4163.077147999999,4255.897461,4262.05127,0.0,1.0,15.0,,,,0.0,4.0,0.0,4.0,0.0,4.0,33.333332,,,,,,,,,,,,,,,,,,,,,,,,,,,,,,,,,,,,,,,,,,,,,,,,,,,,,,,,,,,,,,,,,,,,,,,,,,,,,,,,,,,,
22506,1645818405.3405778,1645818405.377195,50.0,0.0,4310.769043,4592.307617,4146.666504,4256.410156,4232.820313,0.0,1.0,15.0,,,,0.0,4.0,0.0,4.0,0.0,4.0,33.333332,,,,,,,,25.0,0.0,0.169651,0.664063,-0.085449,-0.7231449999999999,0.925795,-0.366705,-0.104494,-0.01377,-0.020586,-0.033379,,,,,,,,,,,,,,,,,,,,,,,,,,,,,,,,,,,,,,,,,,,,,,,,,,,,,,,,,,,,,,,,,
22507,1645818405.348394,1645818405.38501,51.0,0.0,4312.307617,4520.512695,4154.871582,4275.897461,4232.307617,0.0,1.0,15.0,,,,0.0,4.0,0.0,4.0,0.0,4.0,33.333332,,,,,,,,,,,,,,,,,,,,,,,,,,,,,,,,,,,,,,,,,,,,,,,,,,,,,,0.0,0.0,1.0,0.0,512.0,1.0,,,,,,,,,,,,,,,,,,,,,,,,,
22508,1645818405.35621,1645818405.392824,52.0,0.0,4330.256348,4558.974121,4176.410156,4257.94873,4245.128418,0.0,1.0,15.0,,,,0.0,4.0,0.0,4.0,0.0,4.0,33.333332,,,,,,,,26.0,0.0,0.170566,0.664063,-0.08569299999999999,-0.7229,0.941421,-0.358404,-0.10888800000000001,-0.014688,-0.020676,-0.035754,,,,,,,,,,,,,,,,,,,,,,,,,,,,,,,,,,,,,,,,,,,,,,,,,,,,,,,,,,,,,,,,,
22509,1645818405.364026,1645818405.400639,53.0,0.0,4325.641113000001,4565.128418,4183.589844,4268.205078,4246.153809,0.0,1.0,15.0,,,,0.0,4.0,0.0,4.0,0.0,4.0,33.333332,,,,,,,,,,,,,,,,,,,,,,,,,,,,,,,,,,,,,,,,,,,,,,,,,,,,,,,,,,,,,,,,,,,,,,,,,,,,,,,,,,,,
22510,1645818405.3718429,1645818405.408453,54.0,0.0,4316.410156,4568.717772999999,4161.025879,4272.307617,4228.717772999999,0.0,1.0,15.0,,,,0.0,4.0,0.0,4.0,0.0,4.0,33.333332,,,,,,,,27.0,0.0,0.16961199999999999,0.664307,-0.08569299999999999,-0.7229,0.9243309999999999,-0.340826,-0.092775,-0.015612000000000001,-0.020708,-0.031689999999999996,,,,,,,,,,,,,,,,,,,,,,,,,,,,,,,,,,,,,,,,,,,,,,,,,,,,,,,,,,,,,,,,,
22511,1645818405.379659,1645818405.416267,55.0,0.0,4315.384765999999,4597.436035,4151.794922,4224.102539,4215.897461,0.0,1.0,15.0,,,,0.0,4.0,0.0,4.0,0.0,4.0,33.333332,,,,,,,,,,,,,,,,,,,,,,,,,,,,,,,,,,,,,,,,,,,,,,,,,,,,,,0.0,0.0,1.0,0.0,512.0,1.0,,,,,,,,,,,,,,,,,,,,,,,,,
22512,1645818405.387475,1645818405.4239821,56.0,0.0,4318.974121,4541.538574,4183.077147999999,4251.794922,4242.563965,0.0,1.0,15.0,,,,0.0,4.0,0.0,4.0,0.0,4.0,33.333332,,,,,,,,28.0,0.0,0.16961199999999999,0.664307,-0.08569299999999999,-0.7229,0.9365379999999999,-0.34912600000000005,-0.111818,-0.016345,-0.020687999999999998,-0.034234,,,,,,,,,,,,,,,,,,,,,,,,,,,,,,,,,,,,,,,,,,,,,,,,,,,,,,,,,,,,,,,,,
22513,1645818405.395291,1645818405.431797,57.0,0.0,4327.692383,4495.384765999999,4203.077147999999,4321.538574,4267.179688,0.0,1.0,15.0,,,,0.0,4.0,0.0,4.0,0.0,4.0,33.333332,,,,,,,,,,,,,,,,,,,,,,,,,,,,,,,,,,,,,,,,,,,,,,,,,,,,,,,,,,,,,,,,,,,,,,,,,,,,,,,,,,,,
22514,1645818405.4031081,1645818405.439611,58.0,0.0,4325.128418,4536.410156,4195.384765999999,4312.820313,4252.820313,0.0,1.0,15.0,,,,0.0,4.0,0.0,4.0,0.0,4.0,33.333332,,,,,,,,29.0,0.0,0.16961199999999999,0.664307,-0.08569299999999999,-0.7229,0.9423969999999999,-0.356451,-0.109865,-0.017006,-0.020621,-0.036524,,,,,,,,,,,,,,,,,,,,,,,,,,,,,,,,,,,,,,,,,,,,,,,,,,,,,,,,,,,,,,,,,
22515,1645818405.410924,1645818405.447426,59.0,0.0,4317.94873,4560.0,4200.512695,4298.974121,4240.512695,0.0,1.0,15.0,,,,0.0,4.0,0.0,4.0,0.0,4.0,33.333332,,,,,,,,,,,,,,,,,,,,,,,,,,,,,,,,,,,,,,,,,,,,,,,,,,,,,,0.0,0.0,1.0,0.0,512.0,1.0,,,,,,,,,,,,,,,,,,,,,,,,,
22516,1645818405.41874,1645818405.455241,60.0,0.0,4305.641113000001,4549.743652,4189.743652,4292.307617,4218.461426,0.0,1.0,15.0,,,,0.0,4.0,0.0,4.0,0.0,4.0,33.333332,,,,,,,,30.0,0.0,0.170527,0.664307,-0.085938,-0.7226560000000001,0.938491,-0.349615,-0.10547000000000001,-0.0176,-0.020707,-0.032333999999999995,,,,,,,,,,,,,,,,,,,,,,,,,,,,,,,,,,,,,,,,,,,,,,,,,,,,,,,,,,,,,,,,,
22517,1645818405.426556,1645818405.4630551,61.0,0.0,4316.410156,4581.025879,4194.871582,4248.717772999999,4211.794922,0.0,1.0,15.0,,,,0.0,4.0,0.0,4.0,0.0,4.0,33.333332,,,,,,,,,,,,,,,,,,,,,,,,,,,,,,,,,,,,,,,,,,,,,,,,,,,,,,,,,,,,,,,,,,,,,,,,,,,,,,,,,,,,
22518,1645818405.4343731,1645818405.47087,62.0,0.0,4340.0,4586.666504,4211.794922,4245.128418,4255.897461,0.0,1.0,15.0,,,,0.0,4.0,0.0,4.0,0.0,4.0,33.333332,,,,,,,,31.0,0.0,0.16961199999999999,0.664307,-0.08569299999999999,-0.7229,0.9365379999999999,-0.34912600000000005,-0.111818,-0.018330000000000003,-0.020638999999999998,-0.028564,,,,,,,,,,,,,,,,,,,,,,,,,,,,,,,,,,,,,,,,,,,,,,,,,,,,,,,,,,,,,,,,,
22519,1645818405.442189,1645818405.478685,63.0,0.0,4328.717772999999,4511.794922,4190.256348,4294.358886999999,4266.666504,0.0,1.0,15.0,,,,0.0,4.0,0.0,4.0,0.0,4.0,33.333332,0.972656,33.333332,4.0,0.0,4.0,0.0,4.0,,,,,,,,,,,,,1.0,0.0,0.0,,,,,,,,,,,,,,,,,,,,,,,,,,,,,,,,0.0,0.0,1.0,0.0,512.0,1.0,0.30706700000000003,1.667818,2.768182,3.8949540000000002,1.3558700000000001,12.88336,13.288607,11.526803,18.161295000000003,15.211025,2.650688,2.3850290000000003,4.373096,3.582523,1.803045,8.437818,0.956843,2.791287,2.335705,12.107726,2.26032,1.380141,1.690362,4.138596,1.926075
22520,1645818405.450005,1645818405.486499,64.0,0.0,4323.077147999999,4476.410156,4185.128418,4286.666504,4246.666504,450.0,1.0,15.0,,,,0.0,4.0,0.0,4.0,0.0,4.0,33.333332,,,,,,,,32.0,0.0,0.170527,0.664307,-0.085938,-0.7226560000000001,0.938491,-0.349615,-0.10547000000000001,-0.018792,-0.020723,-0.025169999999999998,,,,,,,,,,,,,,,,,,,,,,,,,,,,,,,,,,,,,,,,,,,,,,,,,,,,,,,,,,,,,,,,,
22521,1645818405.4578211,1645818405.494314,65.0,0.0,4340.0,4549.230957,4209.743652,4270.256348,4269.230957,450.0,1.0,15.0,,,,0.0,4.0,0.0,4.0,0.0,4.0,33.333332,,,,,,,,,,,,,,,,,,,,,,,,,,,,,,,,,,,,,,,,,,,,,,,,,,,,,,,,,,,,,,,,,,,,,,,,,,,,,,,,,,,,
22522,1645818405.4656382,1645818405.502029,66.0,0.0,4332.820313,4576.410156,4194.871582,4294.358886999999,4273.846191,16195.0,1.0,15.0,,,,0.0,4.0,0.0,4.0,0.0,4.0,33.333332,,,,,,,,33.0,0.0,0.169489,0.664307,-0.085938,-0.7229,0.9350729999999999,-0.35108,-0.09765800000000001,-0.019257,-0.02075,-0.028415,,,,,,,,,,,,,,,,,,,,,,,,,,,,,,,,,,,,,,,,,,,,,,,,,,,,,,,,,,,,,,,,,
22523,1645818405.473454,1645818405.5098429,67.0,0.0,4308.717772999999,4536.922852000001,4181.025879,4289.230957,4234.871582,450.0,1.0,15.0,,,,0.0,4.0,0.0,4.0,0.0,4.0,33.333332,,,,,,,,,,,,,,,,,,,,,,,,,,,,,,,,,,,,,,,,,,,,,,,,,,,,,,0.0,0.0,1.0,0.0,512.0,1.0,,,,,,,,,,,,,,,,,,,,,,,,,
22524,1645818405.4812698,1645818405.517657,68.0,0.0,4331.282227000001,4544.102539,4217.94873,4281.025879,4257.94873,29.0,1.0,15.0,,,,0.0,4.0,0.0,4.0,0.0,4.0,33.333332,,,,,,,,34.0,0.0,0.169489,0.664307,-0.085938,-0.7229,0.94435,-0.351568,-0.09765800000000001,-0.01738,-0.020824000000000002,-0.031188999999999998,,,,,,,,,,,,,,,,,,,,,,,,,,,,,,,,,,,,,,,,,,,,,,,,,,,,,,,,,,,,,,,,,
22525,1645818405.489086,1645818405.5254722,69.0,0.0,4347.179688,4531.794922,4211.794922,4314.358886999999,4289.230957,450.0,1.0,15.0,,,,0.0,4.0,0.0,4.0,0.0,4.0,33.333332,,,,,,,,,,,,,,,,,,,,,,,,,,,,,,,,,,,,,,,,,,,,,,,,,,,,,,,,,,,,,,,,,,,,,,,,,,,,,,,,,,,,
22526,1645818405.496903,1645818405.5332859,70.0,0.0,4324.615234000001,4499.487305,4181.538574,4303.589844,4261.538574,16124.0,1.0,15.0,,,,0.0,4.0,0.0,4.0,0.0,4.0,33.333332,,,,,,,,35.0,0.0,0.16961199999999999,0.664307,-0.08569299999999999,-0.7229,0.94435,-0.34375500000000003,-0.102052,-0.018083000000000002,-0.020791999999999998,-0.027483999999999998,,,,,,,,,,,,,,,,,,,,,,,,,,,,,,,,,,,,,,,,,,,,,,,,,,,,,,,,,,,,,,,,,
22527,1645818405.504719,1645818405.541101,71.0,0.0,4322.05127,4505.641113000001,4202.05127,4272.820313,4255.384765999999,450.0,1.0,15.0,,,,0.0,4.0,0.0,4.0,0.0,4.0,33.333332,,,,,,,,,,,,,,,,,,,,,,,,,,,,,,,,,,,,,,,,,,,,,,,,,,,,,,0.0,0.0,1.0,0.0,512.0,1.0,,,,,,,,,,,,,,,,,,,,,,,,,
22528,1645818405.5125349,1645818405.5489151,72.0,0.0,4328.717772999999,4520.512695,4203.589844,4304.102539,4274.358886999999,450.0,1.0,15.0,,,,0.0,4.0,0.0,4.0,0.0,4.0,33.333332,,,,,,,,36.0,0.0,0.16961199999999999,0.664307,-0.08569299999999999,-0.7229,0.933608,-0.349615,-0.103029,-0.018619,-0.020862000000000002,-0.030302,,,,,,,,,,,,,,,,,,,,,,,,,,,,,,,,,,,,,,,,,,,,,,,,,,,,,,,,,,,,,,,,,
22529,1645818405.520351,1645818405.5567288,73.0,0.0,4312.307617,4537.436035,4175.384765999999,4274.358886999999,4265.128418,27.0,1.0,15.0,,,,0.0,4.0,0.0,4.0,0.0,4.0,33.333332,,,,,,,,,,,,,,,,,,,,,,,,,,,,,,,,,,,,,,,,,,,,,,,,,,,,,,,,,,,,,,,,,,,,,,,,,,,,,,,,,,,,
22530,1645818405.528167,1645818405.564544,74.0,0.0,4314.871582,4514.871582,4194.871582,4206.666504,4272.820313,450.0,1.0,15.0,,,,0.0,4.0,0.0,4.0,0.0,4.0,33.333332,,,,,,,,37.0,0.0,0.170566,0.664063,-0.08569299999999999,-0.7229,0.9399559999999999,-0.352544,-0.107912,-0.01915,-0.020875,-0.026735000000000002,,,,,,,,,,,,,,,,,,,,,,,,,,,,,,,,,,,,,,,,,,,,,,,,,,,,,,,,,,,,,,,,,
22531,1645818405.535984,1645818405.572259,75.0,0.0,4338.461426,4450.256348,4221.025879,4272.307617,4286.666504,16185.0,1.0,15.0,,,,0.0,4.0,0.0,4.0,0.0,4.0,33.333332,,,,,,,,,,,,,,,,,,,,,,,,,,,,,,,,,,,,,,,,,,,,,,,,,,,,,,0.0,0.0,1.0,0.0,512.0,1.0,,,,,,,,,,,,,,,,,,,,,,,,,
22532,1645818405.5438,1645818405.580073,76.0,0.0,4335.384765999999,4464.102539,4200.0,4336.410156,4264.102539,450.0,1.0,15.0,,,,0.0,4.0,0.0,4.0,0.0,4.0,33.333332,,,,,,,,38.0,0.0,0.170443,0.664063,-0.085938,-0.7229,0.9399559999999999,-0.350103,-0.102052,-0.017332,-0.020936,-0.029725,,,,,,,,,,,,,,,,,,,,,,,,,,,,,,,,,,,,,,,,,,,,,,,,,,,,,,,,,,,,,,,,,
22533,1645818405.551616,1645818405.587888,77.0,0.0,4307.692383,4537.436035,4169.230957,4265.641113000001,4246.153809,450.0,1.0,15.0,,,,0.0,4.0,0.0,4.0,0.0,4.0,33.333332,,,,,,,,,,,,,,,,,,,,,,,,,,,,,,,,,,,,,,,,,,,,,,,,,,,,,,,,,,,,,,,,,,,,,,,,,,,,,,,,,,,,
22534,1645818405.559432,1645818405.595702,78.0,0.0,4295.897461,4540.512695,4165.641113000001,4245.128418,4245.641113000001,450.0,1.0,15.0,,,,0.0,4.0,0.0,4.0,0.0,4.0,33.333332,,,,,,,,39.0,0.0,0.170443,0.664063,-0.085938,-0.7229,0.939467,-0.361334,-0.10888800000000001,-0.017943,-0.020991,-0.032319,,,,,,,,,,,,,,,,,,,,,,,,,,,,,,,,,,,,,,,,,,,,,,,,,,,,,,,,,,,,,,,,,
22535,1645818405.567249,1645818405.603517,79.0,0.0,4306.666504,4541.538574,4182.563965,4298.461426,4236.410156,16185.0,1.0,15.0,,,,0.0,4.0,0.0,4.0,0.0,4.0,33.333332,,,,,,,,,,,,,,,,,,,,1.0,0.0,0.0,,,,,,,,,,,,,,,,,,,,,,,,,,,,,,,,0.0,0.0,1.0,0.0,512.0,1.0,0.487155,1.604392,3.113025,3.6314040000000003,1.4071930000000001,13.803852,15.502797,13.887820999999999,17.686716,16.3034,2.6903900000000003,2.486426,4.824568,3.2901769999999995,2.056018,9.329962,0.799549,4.117111,2.480973,12.367312,2.161534,1.376822,2.010696,4.140853,2.157275
22536,1645818405.5750651,1645818405.611332,80.0,0.0,4323.589844,4528.717772999999,4201.538574,4268.717772999999,4246.666504,450.0,1.0,15.0,,,,0.0,4.0,0.0,4.0,0.0,4.0,33.333332,,,,,,,,40.0,0.0,0.170443,0.664063,-0.085938,-0.7229,0.933608,-0.353033,-0.10498199999999999,-0.018444,-0.020894,-0.034703,,,,,,,,,,,,,,,,,,,,,,,,,,,,,,,,,,,,,,,,,,,,,,,,,,,,,,,,,,,,,,,,,
22537,1645818405.582881,1645818405.619146,81.0,0.0,4324.102539,4497.94873,4194.358886999999,4232.307617,4257.94873,450.0,1.0,15.0,,,,0.0,4.0,0.0,4.0,0.0,4.0,33.333332,,,,,,,,,,,,,,,,,,,,,,,,,,,,,,,,,,,,,,,,,,,,,,,,,,,,,,,,,,,,,,,,,,,,,,,,,,,,,,,,,,,,
22538,1645818405.590697,1645818405.626961,82.0,0.0,4311.794922,4529.743652,4190.769043,4284.102539,4247.692383,450.0,1.0,15.0,,,,0.0,4.0,0.0,4.0,0.0,4.0,33.333332,,,,,,,,41.0,0.0,0.170443,0.664063,-0.085938,-0.7229,0.947768,-0.33984899999999996,-0.113283,-0.018992,-0.020855000000000002,-0.030598,,,,,,,,,,,,,,,,,,,,,,,,,,,,,,,,,,,,,,,,,,,,,,,,,,,,,,,,,,,,,,,,,
22539,1645818405.598514,1645818405.6347759,83.0,0.0,4317.436035,4547.692383,4216.922852000001,4290.256348,4264.102539,16185.0,1.0,15.0,,,,0.0,4.0,0.0,4.0,0.0,4.0,33.333332,,,,,,,,,,,,,,,,,,,,,,,,,,,,,,,,,,,,,,,,,,,,,,,,,,,,,,0.0,0.0,1.0,0.0,512.0,1.0,,,,,,,,,,,,,,,,,,,,,,,,,
22540,1645818405.6063302,1645818405.6424901,84.0,0.0,4316.922852000001,4528.205078,4213.333496,4239.487305,4282.563965,450.0,1.0,15.0,,,,0.0,4.0,0.0,4.0,0.0,4.0,33.333332,,,,,,,,42.0,0.0,0.17035799999999998,0.663818,-0.085938,-0.7231449999999999,0.938003,-0.357916,-0.11523599999999999,-0.017238999999999997,-0.020869,-0.0333,,,,,,,,,,,,,,,,,,,,,,,,,,,,,,,,,,,,,,,,,,,,,,,,,,,,,,,,,,,,,,,,,
22541,1645818405.614146,1645818405.650305,85.0,0.0,4322.05127,4552.307617,4202.563965,4249.743652,4276.922852000001,450.0,1.0,15.0,,,,0.0,4.0,0.0,4.0,0.0,4.0,33.333332,,,,,,,,,,,,,,,,,,,,,,,,,,,,,,,,,,,,,,,,,,,,,,,,,,,,,,,,,,,,,,,,,,,,,,,,,,,,,,,,,,,,
22542,1645818405.6219618,1645818405.65812,86.0,0.0,4339.487305,4575.384765999999,4224.615234000001,4274.358886999999,4266.666504,450.0,1.0,15.0,,,,0.0,4.0,0.0,4.0,0.0,4.0,33.333332,,,,,,,,43.0,0.0,0.170235,0.663818,-0.08618200000000001,-0.7231449999999999,0.9350729999999999,-0.348638,-0.10693499999999999,-0.018005,-0.020833,-0.035634,,,,,,,,,,,,,,,,,,,,,,,,,,,,,,,,,,,,,,,,,,,,,,,,,,,,,,,,,,,,,,,,,
22543,1645818405.6297789,1645818405.665934,87.0,0.0,4323.077147999999,4548.717772999999,4210.256348,4273.333496,4238.974121,16185.0,1.0,15.0,,,,0.0,4.0,0.0,4.0,0.0,4.0,33.333332,,,,,,,,,,,,,,,,,,,,,,,,,,,,,,,,,,,,,,,,,,,,,,,,,,,,,,0.0,0.0,1.0,0.0,512.0,1.0,,,,,,,,,,,,,,,,,,,,,,,,,
22544,1645818405.637595,1645818405.673749,88.0,0.0,4307.179688,4530.256348,4178.461426,4283.589844,4227.692383,450.0,1.0,15.0,,,,0.0,4.0,0.0,4.0,0.0,4.0,33.333332,,,,,,,,44.0,0.0,0.170235,0.663818,-0.08618200000000001,-0.7231449999999999,0.940932,-0.341314,-0.109377,-0.018695,-0.020801,-0.037735000000000005,,,,,,,,,,,,,,,,,,,,,,,,,,,,,,,,,,,,,,,,,,,,,,,,,,,,,,,,,,,,,,,,,
22545,1645818405.645411,1645818405.681564,89.0,0.0,4337.94873,4520.0,4200.512695,4274.871582,4267.179688,450.0,1.0,15.0,,,,0.0,4.0,0.0,4.0,0.0,4.0,33.333332,,,,,,,,,,,,,,,,,,,,,,,,,,,,,,,,,,,,,,,,,,,,,,,,,,,,,,,,,,,,,,,,,,,,,,,,,,,,,,,,,,,,
22546,1645818405.6532269,1645818405.689378,90.0,0.0,4352.820313,4504.615234000001,4214.871582,4271.794922,4276.922852000001,450.0,1.0,15.0,,,,0.0,4.0,0.0,4.0,0.0,4.0,33.333332,,,,,,,,45.0,0.0,0.17035799999999998,0.663818,-0.085938,-0.7231449999999999,0.9365379999999999,-0.34375500000000003,-0.109377,-0.016875,-0.020771,-0.033375,,,,,,,,,,,,,,,,,,,,,,,,,,,,,,,,,,,,,,,,,,,,,,,,,,,,,,,,,,,,,,,,,
22547,1645818405.661044,1645818405.697193,91.0,0.0,4356.922852000001,4511.282227000001,4221.025879,4313.333496,4275.897461,16185.0,1.0,15.0,,,,0.0,4.0,0.0,4.0,0.0,4.0,33.333332,,,,,,,,,,,,,,,,,,,,,,,,,,,,,,,,,,,,,,,,,,,,,,,,,,,,,,0.0,0.0,1.0,0.0,512.0,1.0,,,,,,,,,,,,,,,,,,,,,,,,,
22548,1645818405.66886,1645818405.705008,92.0,0.0,4358.461426,4537.94873,4232.307617,4305.128418,4295.897461,450.0,1.0,15.0,,,,0.0,4.0,0.0,4.0,0.0,4.0,33.333332,,,,,,,,46.0,0.0,0.17035799999999998,0.663818,-0.085938,-0.7231449999999999,0.938491,-0.339361,-0.103029,-0.015236000000000001,-0.020745,-0.035702,,,,,,,,,,,,,,,,,,,,,,,,,,,,,,,,,,,,,,,,,,,,,,,,,,,,,,,,,,,,,,,,,
22549,1645818405.676676,1645818405.712822,93.0,0.0,4325.128418,4553.333496,4205.128418,4269.230957,4267.179688,450.0,1.0,15.0,,,,0.0,4.0,0.0,4.0,0.0,4.0,33.333332,,,,,,,,,,,,,,,,,,,,,,,,,,,,,,,,,,,,,,,,,,,,,,,,,,,,,,,,,,,,,,,,,,,,,,,,,,,,,,,,,,,,
22550,1645818405.684492,1645818405.720537,94.0,0.0,4313.846191,4541.538574,4179.487305,4273.333496,4234.871582,450.0,1.0,15.0,,,,0.0,4.0,0.0,4.0,0.0,4.0,33.333332,,,,,,,,47.0,0.0,0.171513,0.663818,-0.08569299999999999,-0.7229,0.9629049999999999,-0.352544,-0.106447,-0.016007,-0.020819,-0.037795999999999996,,,,,,,,,,,,,,,,,,,,,,,,,,,,,,,,,,,,,,,,,,,,,,,,,,,,,,,,,,,,,,,,,
22551,1645818405.692309,1645818405.7283509,95.0,0.0,4342.05127,4565.128418,4208.205078,4283.077147999999,4271.282227000001,16185.0,1.0,15.0,,,,0.0,4.0,0.0,4.0,0.0,4.0,33.333332,,,,,,,,,,,,,,,,,,,,1.0,0.0,0.0,,,,,,,,,,,,,,,,,,,,,,,,,,,,,,,,0.0,0.0,1.0,0.0,512.0,1.0,0.8377110000000001,1.521867,3.3197620000000003,3.264178,1.550391,15.037035000000001,18.042994,15.992510999999999,17.258341,16.867521,2.92235,2.407244,4.926636,3.091072,2.3023029999999998,9.950927,0.696345,5.454502,2.517371,11.617539,2.2086259999999998,1.342249,2.374105,4.064451999999999,2.4141310000000002
22552,1645818405.700125,1645818405.736166,96.0,0.0,4327.179688,4571.794922,4214.358886999999,4284.102539,4278.461426,450.0,1.0,15.0,,,,0.0,4.0,0.0,4.0,0.0,4.0,33.333332,,,,,,,,48.0,0.0,0.171597,0.664063,-0.08569299999999999,-0.7226560000000001,0.949233,-0.353033,-0.103029,-0.016799,-0.020886000000000002,-0.033381,,,,,,,,,,,,,,,,,,,,,,,,,,,,,,,,,,,,,,,,,,,,,,,,,,,,,,,,,,,,,,,,,
22553,1645818405.707941,1645818405.7439802,97.0,0.0,4297.94873,4525.641113000001,4181.025879,4266.666504,4229.743652,450.0,1.0,15.0,,,,0.0,4.0,0.0,4.0,0.0,4.0,33.333332,,,,,,,,,,,,,,,,,,,,,,,,,,,,,,,,,,,,,,,,,,,,,,,,,,,,,,,,,,,,,,,,,,,,,,,,,,,,,,,,,,,,
22554,1645818405.7157571,1645818405.7517939,98.0,0.0,4317.436035,4512.820313,4178.974121,4234.358886999999,4225.128418,450.0,1.0,15.0,,,,0.0,4.0,0.0,4.0,0.0,4.0,33.333332,,,,,,,,49.0,0.0,0.171597,0.664063,-0.08569299999999999,-0.7226560000000001,0.9306780000000001,-0.352056,-0.10888800000000001,-0.015266,-0.020799,-0.035805000000000003,,,,,,,,,,,,,,,,,,,,,,,,,,,,,,,,,,,,,,,,,,,,,,,,,,,,,,,,,,,,,,,,,
22555,1645818405.723573,1645818405.759609,99.0,0.0,4323.077147999999,4517.436035,4186.153809,4274.358886999999,4251.282227000001,16185.0,1.0,15.0,,,,0.0,4.0,0.0,4.0,0.0,4.0,33.333332,,,,,,,,,,,,,,,,,,,,,,,,,,,,,,,,,,,,,,,,,,,,,,,,,,,,,,0.0,0.0,1.0,0.0,512.0,1.0,,,,,,,,,,,,,,,,,,,,,,,,,
22556,1645818405.73139,1645818405.7674232,100.0,0.0,4312.307617,4482.05127,4188.205078,4344.102539,4259.487305,450.0,1.0,15.0,,,,0.0,4.0,0.0,4.0,0.0,4.0,33.333332,,,,,,,,50.0,0.0,0.171597,0.664063,-0.08569299999999999,-0.7226560000000001,0.9316549999999999,-0.36035700000000004,-0.107912,-0.016034,-0.020868,-0.037889,,,,,,,,,,,,,,,,,,,,,,,,,,,,,,,,,,,,,,,,,,,,,,,,,,,,,,,,,,,,,,,,,
22557,1645818405.739206,1645818405.775238,101.0,0.0,4326.666504,4492.307617,4205.641113000001,4313.333496,4257.94873,450.0,1.0,15.0,,,,0.0,4.0,0.0,4.0,0.0,4.0,33.333332,,,,,,,,,,,,,,,,,,,,,,,,,,,,,,,,,,,,,,,,,,,,,,,,,,,,,,,,,,,,,,,,,,,,,,,,,,,,,,,,,,,,
22558,1645818405.7470222,1645818405.783052,102.0,0.0,4344.615234000001,4560.0,4202.05127,4260.0,4261.538574,450.0,1.0,15.0,,,,0.0,4.0,0.0,4.0,0.0,4.0,33.333332,,,,,,,,51.0,0.0,0.171597,0.664063,-0.08569299999999999,-0.7226560000000001,0.9340959999999999,-0.36328699999999997,-0.090822,-0.014480000000000002,-0.020880000000000003,-0.039764,,,,,,,,,,,,,,,,,,,,,,,,,,,,,,,,,,,,,,,,,,,,,,,,,,,,,,,,,,,,,,,,,
22559,1645818405.754838,1645818405.790767,103.0,0.0,4343.589844,4585.641113000001,4180.0,4290.256348,4268.717772999999,16185.0,1.0,15.0,,,,0.0,4.0,0.0,4.0,0.0,4.0,33.333332,,,,,,,,,,,,,,,,,,,,,,,,,,,,,,,,,,,,,,,,,,,,,,,,,,,,,,0.0,0.0,1.0,0.0,512.0,1.0,,,,,,,,,,,,,,,,,,,,,,,,,
22560,1645818405.762655,1645818405.7985811,104.0,0.0,4337.436035,4595.384765999999,4193.846191,4309.230957,4274.871582,450.0,1.0,15.0,,,,0.0,4.0,0.0,4.0,0.0,4.0,33.333332,,,,,,,,52.0,0.0,0.17168,0.664307,-0.08569299999999999,-0.7224119999999999,0.932631,-0.357427,-0.095216,-0.015424,-0.020794,-0.041402999999999995,,,,,,,,,,,,,,,,,,,,,,,,,,,,,,,,,,,,,,,,,,,,,,,,,,,,,,,,,,,,,,,,,
22561,1645818405.770471,1645818405.806396,105.0,0.0,4329.743652,4604.615234000001,4209.230957,4295.897461,4266.153809,450.0,1.0,15.0,,,,0.0,4.0,0.0,4.0,0.0,4.0,33.333332,,,,,,,,,,,,,,,,,,,,,,,,,,,,,,,,,,,,,,,,,,,,,,,,,,,,,,,,,,,,,,,,,,,,,,,,,,,,,,,,,,,,
22562,1645818405.778287,1645818405.814211,106.0,0.0,4327.692383,4589.743652,4195.384765999999,4307.692383,4252.307617,450.0,1.0,15.0,,,,0.0,4.0,0.0,4.0,0.0,4.0,33.333332,,,,,,,,53.0,0.0,0.17168,0.664307,-0.08569299999999999,-0.7224119999999999,0.945327,-0.34815,-0.10547000000000001,-0.013931,-0.020717,-0.043024,,,,,,,,,,,,,,,,,,,,,,,,,,,,,,,,,,,,,,,,,,,,,,,,,,,,,,,,,,,,,,,,,
22563,1645818405.786103,1645818405.822025,107.0,0.0,4340.512695,4598.461426,4205.128418,4283.077147999999,4260.0,16185.0,1.0,15.0,,,,0.0,4.0,0.0,4.0,0.0,4.0,33.333332,,,,,,,,,,,,,,,,,,,,,,,,,,,,,,,,,,,,,,,,,,,,,,,,,,,,,,0.0,0.0,1.0,0.0,512.0,1.0,,,,,,,,,,,,,,,,,,,,,,,,,
22564,1645818405.7939188,1645818405.82984,108.0,0.0,4354.358886999999,4597.436035,4231.794922,4251.282227000001,4274.358886999999,450.0,1.0,15.0,,,,0.0,4.0,0.0,4.0,0.0,4.0,33.333332,,,,,,,,54.0,0.0,0.171597,0.664063,-0.08569299999999999,-0.7226560000000001,0.945327,-0.35352100000000003,-0.09668099999999999,-0.012586,-0.020745,-0.044386,,,,,,,,,,,,,,,,,,,,,,,,,,,,,,,,,,,,,,,,,,,,,,,,,,,,,,,,,,,,,,,,,
22565,1645818405.8017359,1645818405.837655,109.0,0.0,4343.589844,4572.820313,4210.769043,4293.846191,4265.641113000001,450.0,1.0,15.0,,,,0.0,4.0,0.0,4.0,0.0,4.0,33.333332,,,,,,,,,,,,,,,,,,,,,,,,,,,,,,,,,,,,,,,,,,,,,,,,,,,,,,,,,,,,,,,,,,,,,,,,,,,,,,,,,,,,
22566,1645818405.809552,1645818405.845469,110.0,0.0,4333.846191,4585.641113000001,4202.05127,4309.230957,4263.077147999999,450.0,1.0,15.0,,,,0.0,4.0,0.0,4.0,0.0,4.0,33.333332,,,,,,,,55.0,0.0,0.171597,0.664063,-0.08569299999999999,-0.7226560000000001,0.940932,-0.341802,-0.08691499999999999,-0.01206,-0.020721,-0.045661,,,,,,,,,,,,,,,,,,,,,,,,,,,,,,,,,,,,,,,,,,,,,,,,,,,,,,,,,,,,,,,,,
22567,1645818405.817368,1645818405.853284,111.0,0.0,4342.563965,4621.025879,4227.179688,4258.974121,4264.102539,16185.0,1.0,15.0,,,,0.0,4.0,0.0,4.0,0.0,4.0,33.333332,,,,,,,,,,,,,,,,,,,,1.0,0.0,0.0,,,,,,,,,,,,,,,,,,,,,,,,,,,,,,,,0.0,0.0,1.0,0.0,512.0,1.0,1.312798,1.406488,3.2774739999999998,2.899189,1.716738,16.407398,20.044218,16.947384,16.874512,17.047201,3.3612589999999996,2.201462,4.684458,3.033723,2.47074,10.035898,0.7059340000000001,6.470924,2.508859,10.20683,2.380467,1.275651,2.726438,4.0443739999999995,2.610183
22568,1645818405.8251839,1645818405.860999,112.0,0.0,4332.307617,4623.589844,4213.846191,4287.692383,4235.384765999999,450.0,1.0,15.0,,,,0.0,4.0,0.0,4.0,0.0,4.0,33.333332,,,,,,,,56.0,0.0,0.171719,0.664063,-0.085449,-0.7226560000000001,0.93019,-0.34521999999999997,-0.10693499999999999,-0.013149000000000001,-0.0207,-0.040508999999999996,,,,,,,,,,,,,,,,,,,,,,,,,,,,,,,,,,,,,,,,,,,,,,,,,,,,,,,,,,,,,,,,,
22569,1645818405.833001,1645818405.868813,113.0,0.0,4300.0,4595.384765999999,4189.230957,4311.282227000001,4223.589844,450.0,1.0,15.0,,,,0.0,4.0,0.0,4.0,0.0,4.0,33.333332,,,,,,,,,,,,,,,,,,,,,,,,,,,,,,,,,,,,,,,,,,,,,,,,,,,,,,,,,,,,,,,,,,,,,,,,,,,,,,,,,,,,
22570,1645818405.840817,1645818405.876528,114.0,0.0,4298.974121,4590.256348,4202.05127,4264.102539,4253.333496,450.0,1.0,15.0,,,,0.0,4.0,0.0,4.0,0.0,4.0,33.333332,,,,,,,,57.0,0.0,0.17265999999999998,0.663818,-0.085449,-0.7226560000000001,0.937514,-0.355962,-0.11572400000000001,-0.014275999999999999,-0.020632,-0.035872,,,,,,,,,,,,,,,,,,,,,,,,,,,,,,,,,,,,,,,,,,,,,,,,,,,,,,,,,,,,,,,,,
22571,1645818405.848633,1645818405.884343,115.0,0.0,4337.94873,4615.384765999999,4213.333496,4282.563965,4257.436035,16185.0,1.0,15.0,,,,0.0,4.0,0.0,4.0,0.0,4.0,33.333332,,,,,,,,,,,,,,,,,,,,,,,,,,,,,,,,,,,,,,,,,,,,,,,,,,,,,,0.0,0.0,1.0,0.0,512.0,1.0,,,,,,,,,,,,,,,,,,,,,,,,,
22572,1645818405.8564491,1645818405.892157,116.0,0.0,4340.0,4613.846191,4203.589844,4301.025879,4236.410156,450.0,1.0,15.0,,,,0.0,4.0,0.0,4.0,0.0,4.0,33.333332,,,,,,,,58.0,0.0,0.17163499999999998,0.663818,-0.085449,-0.7229,0.9399559999999999,-0.35108,-0.10351700000000001,-0.013628999999999999,-0.02062,-0.038045999999999996,,,,,,,,,,,,,,,,,,,,,,,,,,,,,,,,,,,,,,,,,,,,,,,,,,,,,,,,,,,,,,,,,
22573,1645818405.864266,1645818405.899972,117.0,0.0,4317.94873,4578.974121,4203.589844,4261.538574,4261.538574,450.0,1.0,15.0,,,,0.0,4.0,0.0,4.0,0.0,4.0,33.333332,,,,,,,,,,,,,,,,,,,,,,,,,,,,,,,,,,,,,,,,,,,,,,,,,,,,,,,,,,,,,,,,,,,,,,,,,,,,,,,,,,,,
22574,1645818405.872082,1645818405.9077868,118.0,0.0,4330.769043,4581.025879,4206.153809,4293.333496,4279.487305,450.0,1.0,15.0,,,,0.0,4.0,0.0,4.0,0.0,4.0,33.333332,,,,,,,,59.0,0.0,0.171719,0.664063,-0.085449,-0.7226560000000001,0.93019,-0.34521999999999997,-0.10693499999999999,-0.014087,-0.020597999999999998,-0.03532,,,,,,,,,,,,,,,,,,,,,,,,,,,,,,,,,,,,,,,,,,,,,,,,,,,,,,,,,,,,,,,,,
22575,1645818405.879898,1645818405.915601,119.0,0.0,4344.102539,4627.692383,4200.512695,4323.589844,4251.794922,16185.0,1.0,15.0,,,,0.0,4.0,0.0,4.0,0.0,4.0,33.333332,,,,,,,,,,,,,,,,,,,,,,,,,,,,,,,,,,,,,,,,,,,,,,,,,,,,,,0.0,0.0,1.0,0.0,512.0,1.0,,,,,,,,,,,,,,,,,,,,,,,,,
22576,1645818405.8877141,1645818405.923416,120.0,0.0,4333.846191,4623.589844,4202.05127,4265.641113000001,4247.692383,450.0,1.0,15.0,,,,0.0,4.0,0.0,4.0,0.0,4.0,33.333332,,,,,,,,60.0,0.0,0.17163499999999998,0.663818,-0.085449,-0.7229,0.9399559999999999,-0.35108,-0.10351700000000001,-0.013459,-0.020589,-0.037549,,,,,,,,,,,,,,,,,,,,,,,,,,,,,,,,,,,,,,,,,,,,,,,,,,,,,,,,,,,,,,,,,
22577,1645818405.895531,1645818405.931231,121.0,0.0,4326.666504,4600.0,4193.846191,4263.589844,4259.487305,450.0,1.0,15.0,,,,0.0,4.0,0.0,4.0,0.0,4.0,33.333332,,,,,,,,,,,,,,,,,,,,,,,,,,,,,,,,,,,,,,,,,,,,,,,,,,,,,,,,,,,,,,,,,,,,,,,,,,,,,,,,,,,,
22578,1645818405.903347,1645818405.9389448,122.0,0.0,4324.102539,4624.615234000001,4187.692383,4295.897461,4240.512695,450.0,1.0,15.0,,,,0.0,4.0,0.0,4.0,0.0,4.0,33.333332,,,,,,,,61.0,0.0,0.171757,0.663818,-0.08520499999999999,-0.7229,0.9350729999999999,-0.352056,-0.10693499999999999,-0.012894999999999998,-0.020531999999999998,-0.03941,,,,,,,,,,,,,,,,,,,,,,,,,,,,,,,,,,,,,,,,,,,,,,,,,,,,,,,,,,,,,,,,,
22579,1645818405.911163,1645818405.94676,123.0,0.0,4335.384765999999,4630.769043,4216.410156,4268.205078,4246.666504,16185.0,1.0,15.0,,,,0.0,4.0,0.0,4.0,0.0,4.0,33.333332,,,,,,,,,,,,,,,,,,,,,,,,,,,,,,,,,,,,,,,,,,,,,,,,,,,,,,0.0,0.0,1.0,0.0,512.0,1.0,,,,,,,,,,,,,,,,,,,,,,,,,
22580,1645818405.918979,1645818405.954575,124.0,0.0,4349.743652,4595.897461,4224.615234000001,4265.641113000001,4275.384765999999,450.0,1.0,15.0,,,,0.0,4.0,0.0,4.0,0.0,4.0,33.333332,,,,,,,,62.0,0.0,0.172697,0.663574,-0.08520499999999999,-0.7229,0.936049,-0.357916,-0.10693499999999999,-0.013997999999999998,-0.02053,-0.034932,,,,,,,,,,,,,,,,,,,,,,,,,,,,,,,,,,,,,,,,,,,,,,,,,,,,,,,,,,,,,,,,,
22581,1645818405.9267962,1645818405.962389,125.0,0.0,4347.179688,4591.282227000001,4202.563965,4287.692383,4274.358886999999,450.0,1.0,15.0,,,,0.0,4.0,0.0,4.0,0.0,4.0,33.333332,,,,,,,,,,,,,,,,,,,,,,,,,,,,,,,,,,,,,,,,,,,,,,,,,,,,,,,,,,,,,,,,,,,,,,,,,,,,,,,,,,,,
22582,1645818405.9346118,1645818405.9702039,126.0,0.0,4335.384765999999,4601.538574,4196.922852000001,4275.897461,4264.615234000001,450.0,1.0,15.0,,,,0.0,4.0,0.0,4.0,0.0,4.0,33.333332,,,,,,,,63.0,0.0,0.171793,0.663574,-0.084961,-0.7231449999999999,0.937026,-0.34375500000000003,-0.102052,-0.012695999999999999,-0.020577,-0.030853,,,,,,,,,,,,,,,,,,,,,,,,,,,,,,,,,,,,,,,,,,,,,,,,,,,,,,,,,,,,,,,,,
22583,1645818405.9424279,1645818405.978019,127.0,0.0,4332.307617,4542.563965,4208.205078,4309.743652,4258.974121,233.0,1.0,15.0,,,,0.0,4.0,0.0,4.0,0.0,4.0,33.333332,1.0,33.333332,4.0,0.0,4.0,0.0,4.0,,,,,,,,,,,,,1.0,0.0,0.0,,,,,,,,,,,,,,,,,,,,,,,,,,,,,,,,0.0,0.0,1.0,0.0,512.0,1.0,1.823229,1.259118,2.964063,2.622785,1.832371,17.866241,20.768048999999998,16.292723000000002,16.500404,16.936842000000002,3.909104,1.9527860000000001,4.198098,3.079806,2.52313,9.385012,0.917646,6.915825999999999,2.553228,8.648749,2.599236,1.18204,3.07432,4.1479919999999995,2.680977
22584,1645818405.950244,1645818405.985833,0.0,0.0,4325.128418,4509.230957,4204.102539,4323.077147999999,4242.563965,450.0,1.0,15.0,,,,0.0,4.0,0.0,4.0,0.0,4.0,33.333332,,,,,,,,0.0,0.0,0.171672,0.663574,-0.08520499999999999,-0.7231449999999999,0.9487450000000001,-0.356939,-0.104494,-0.011573,-0.020521,-0.033333999999999996,,,,,,,,,,,,,,,,,,,,,,,,,,,,,,,,,,,,,,,,,,,,,,,,,,,,,,,,,,,,,,,,,
22585,1645818405.95806,1645818405.993648,1.0,0.0,4336.410156,4582.563965,4216.410156,4277.436035,4254.358886999999,450.0,1.0,15.0,,,,0.0,4.0,0.0,4.0,0.0,4.0,33.333332,,,,,,,,,,,,,,,,,,,,,,,,,,,,,,,,,,,,,,,,,,,,,,,,,,,,,,,,,,,,,,,,,,,,,,,,,,,,,,,,,,,,
22586,1645818405.965877,1645818406.0014632,2.0,0.0,4353.846191,4632.307617,4226.666504,4277.94873,4277.436035,16212.0,1.0,15.0,,,,0.0,4.0,0.0,4.0,0.0,4.0,33.333332,,,,,,,,1.0,0.0,0.171672,0.663574,-0.08520499999999999,-0.7231449999999999,0.9389790000000001,-0.342779,-0.099123,-0.010513,-0.020471,-0.035664999999999995,,,,,,,,,,,,,,,,,,,,,,,,,,,,,,,,,,,,,,,,,,,,,,,,,,,,,,,,,,,,,,,,,
22587,1645818405.973693,1645818406.0092769,3.0,0.0,4332.307617,4614.358886999999,4201.025879,4294.871582,4262.563965,450.0,1.0,15.0,,,,0.0,4.0,0.0,4.0,0.0,4.0,33.333332,,,,,,,,,,,,,,,,,,,,,,,,,,,,,,,,,,,,,,,,,,,,,,,,,,,,,,0.0,0.0,1.0,0.0,512.0,1.0,,,,,,,,,,,,,,,,,,,,,,,,,
22588,1645818405.981509,1645818406.016992,4.0,0.0,4329.230957,4605.128418,4198.461426,4280.512695,4263.077147999999,109.0,1.0,15.0,,,,0.0,4.0,1.0,4.0,1.0,4.0,50.0,,,,,,,,2.0,0.0,0.171672,0.663574,-0.08520499999999999,-0.7231449999999999,0.941421,-0.335943,-0.10498199999999999,-0.012001000000000001,-0.020426,-0.037860000000000005,,,,,,,,,,,,,,,,,,,,,,,,,,,,,,,,,,,,,,,,,,,,,,,,,,,,,,,,,,,,,,,,,
22589,1645818405.989325,1645818406.024807,5.0,0.0,4348.205078,4609.230957,4215.384765999999,4283.589844,4272.307617,450.0,1.0,15.0,,,,0.0,4.0,1.0,4.0,1.0,4.0,50.0,,,,,,,,,,,,,,,,,,,,,,,,,,,,,,,,,,,,,,,,,,,,,,,,,,,,,,,,,,,,,,,,,,,,,,,,,,,,,,,,,,,,
22590,1645818405.997142,1645818406.0326211,6.0,0.0,4359.487305,4602.05127,4216.410156,4296.410156,4275.897461,16153.0,1.0,15.0,,,,0.0,4.0,1.0,4.0,1.0,4.0,50.0,,,,,,,,3.0,0.0,0.171672,0.663574,-0.08520499999999999,-0.7231449999999999,0.9428850000000001,-0.352056,-0.10693499999999999,-0.013241999999999999,-0.020287,-0.033634,,,,,,,,,,,,,,,,,,,,,,,,,,,,,,,,,,,,,,,,,,,,,,,,,,,,,,,,,,,,,,,,,
22591,1645818406.004958,1645818406.040436,7.0,0.0,4368.717772999999,4621.025879,4212.307617,4272.820313,4283.589844,450.0,1.0,15.0,,,,0.0,4.0,1.0,4.0,1.0,4.0,50.0,,,,,,,,,,,,,,,,,,,,,,,,,,,,,,,,,,,,,,,,,,,,,,,,,,,,,,0.0,0.0,1.0,0.0,512.0,1.0,,,,,,,,,,,,,,,,,,,,,,,,,
22592,1645818406.012774,1645818406.04825,8.0,0.0,4361.025879,4637.94873,4208.717772999999,4253.846191,4271.794922,450.0,1.0,15.0,,,,0.0,4.0,1.0,4.0,1.0,4.0,50.0,,,,,,,,4.0,0.0,0.171672,0.663574,-0.08520499999999999,-0.7231449999999999,0.932143,-0.350591,-0.104494,-0.012015999999999999,-0.020358,-0.035935,,,,,,,,,,,,,,,,,,,,,,,,,,,,,,,,,,,,,,,,,,,,,,,,,,,,,,,,,,,,,,,,,
22593,1645818406.02059,1645818406.056065,9.0,0.0,4323.589844,4597.94873,4191.794922,4290.256348,4235.384765999999,83.0,1.0,15.0,,,,0.0,4.0,1.0,4.0,1.0,4.0,50.0,,,,,,,,,,,,,,,,,,,,,,,,,,,,,,,,,,,,,,,,,,,,,,,,,,,,,,,,,,,,,,,,,,,,,,,,,,,,,,,,,,,,
22594,1645818406.028407,1645818406.06388,10.0,0.0,4325.128418,4542.563965,4197.94873,4324.615234000001,4234.871582,450.0,1.0,15.0,,,,0.0,4.0,1.0,4.0,1.0,4.0,50.0,,,,,,,,5.0,0.0,0.171672,0.663574,-0.08520499999999999,-0.7231449999999999,0.9438620000000001,-0.361822,-0.119631,-0.013158000000000001,-0.020471,-0.031707,,,,,,,,,,,,,,,,,,,,,,,,,,,,,,,,,,,,,,,,,,,,,,,,,,,,,,,,,,,,,,,,,
22595,1645818406.036223,1645818406.071694,11.0,0.0,4377.94873,4545.641113000001,4236.410156,4296.922852000001,4282.563965,16204.0,1.0,15.0,,,,0.0,4.0,1.0,4.0,1.0,4.0,50.0,,,,,,,,,,,,,,,,,,,,,,,,,,,,,,,,,,,,,,,,,,,,,,,,,,,,,,0.0,0.0,1.0,0.0,512.0,1.0,,,,,,,,,,,,,,,,,,,,,,,,,
22596,1645818406.044039,1645818406.079509,12.0,0.0,4406.666504,4602.05127,4251.282227000001,4267.692383,4310.769043,450.0,1.0,15.0,,,,0.0,4.0,1.0,4.0,1.0,4.0,50.0,,,,,,,,6.0,0.0,0.171672,0.663574,-0.08520499999999999,-0.7231449999999999,0.9438620000000001,-0.346197,-0.098634,-0.014186,-0.020377000000000003,-0.034151999999999995,,,,,,,,,,,,,,,,,,,,,,,,,,,,,,,,,,,,,,,,,,,,,,,,,,,,,,,,,,,,,,,,,
22597,1645818406.051855,1645818406.087224,13.0,0.0,4422.05127,4611.794922,4231.282227000001,4296.410156,4303.589844,450.0,1.0,15.0,,,,0.0,4.0,1.0,4.0,1.0,4.0,50.0,,,,,,,,,,,,,,,,,,,,,,,,,,,,,,,,,,,,,,,,,,,,,,,,,,,,,,,,,,,,,,,,,,,,,,,,,,,,,,,,,,,,
22598,1645818406.059672,1645818406.0950382,14.0,0.0,4473.846191,4574.358886999999,4221.538574,4313.846191,4310.256348,450.0,1.0,15.0,,,,0.0,4.0,1.0,4.0,1.0,4.0,50.0,,,,,,,,7.0,0.0,0.171672,0.663574,-0.08520499999999999,-0.7231449999999999,0.936049,-0.354498,-0.11621300000000001,-0.015258,-0.020293000000000002,-0.03015,,,,,,,,,,,,,,,,,,,,,,,,,,,,,,,,,,,,,,,,,,,,,,,,,,,,,,,,,,,,,,,,,
22599,1645818406.0674882,1645818406.1028528,15.0,0.0,4564.102539,4573.333496,4230.769043,4279.487305,4345.128418,16204.0,1.0,15.0,,,,0.0,4.0,1.0,4.0,1.0,4.0,50.0,,,,,,,,,,,,,,,,,,,,1.0,0.0,0.0,,,,,,,,,,,,,,,,,,,,,,,,,,,,,,,,0.0,0.0,1.0,0.0,512.0,1.0,2.293001,1.1021299999999998,2.4742,2.452399,1.85877,18.979221,19.976095,14.307610999999998,16.053925,16.469912,4.445075,1.7217259999999999,3.613325,3.126775,2.4728369999999997,8.00863,1.377815,6.715005000000001,2.7013979999999997,7.406517999999999,2.8729709999999997,1.0966040000000001,3.442385,4.315717,2.619032
22600,1645818406.0753038,1645818406.110668,16.0,0.0,4636.410156,4586.666504,4226.153809,4249.230957,4367.179688,0.0,1.0,15.0,,,,0.0,4.0,1.0,4.0,1.0,4.0,50.0,,,,,,,,8.0,0.0,0.170518,0.663574,-0.085449,-0.7233890000000001,0.945327,-0.34473200000000004,-0.098634,-0.013781,-0.020314,-0.026402999999999996,,,,,,,,,,,,,,,,,,,,,,,,,,,,,,,,,,,,,,,,,,,,,,,,,,,,,,,,,,,,,,,,,
22601,1645818406.0831199,1645818406.118482,17.0,0.0,4663.077147999999,4595.384765999999,4202.563965,4250.256348,4380.512695,0.0,1.0,15.0,,,,0.0,4.0,1.0,4.0,1.0,4.0,50.0,,,,,,,,,,,,,,,,,,,,,,,,,,,,,,,,,,,,,,,,,,,,,,,,,,,,,,,,,,,,,,,,,,,,,,,,,,,,,,,,,,,,
22602,1645818406.090937,1645818406.126297,18.0,0.0,4694.871582,4599.487305,4187.692383,4274.358886999999,4402.05127,0.0,1.0,15.0,,,,0.0,4.0,1.0,4.0,1.0,4.0,50.0,,,,,,,,9.0,0.0,0.171466,0.66333,-0.085449,-0.7233890000000001,0.954116,-0.355962,-0.10888800000000001,-0.013184,-0.020333,-0.029476,,,,,,,,,,,,,,,,,,,,,,,,,,,,,,,,,,,,,,,,,,,,,,,,,,,,,,,,,,,,,,,,,
22603,1645818406.098753,1645818406.134112,19.0,0.0,4754.358886999999,4544.615234000001,4200.0,4279.487305,4431.282227000001,0.0,1.0,15.0,,,,0.0,4.0,1.0,4.0,1.0,4.0,50.0,,,,,,,,,,,,,,,,,,,,,,,,,,,,,,,,,,,,,,,,,,,,,,,,,,,,,,0.0,0.0,1.0,0.0,512.0,1.0,,,,,,,,,,,,,,,,,,,,,,,,,
22604,1645818406.106569,1645818406.141926,20.0,0.0,4805.128418,4506.153809,4237.436035,4293.333496,4461.025879,0.0,1.0,15.0,,,,0.0,4.0,1.0,4.0,1.0,4.0,50.0,,,,,,,,10.0,0.0,0.171466,0.66333,-0.085449,-0.7233890000000001,0.934585,-0.338384,-0.104005,-0.011914,-0.020350999999999998,-0.032143,,,,,,,,,,,,,,,,,,,,,,,,,,,,,,,,,,,,,,,,,,,,,,,,,,,,,,,,,,,,,,,,,
22605,1645818406.114385,1645818406.149741,21.0,0.0,4816.922852000001,4600.0,4248.717772999999,4338.461426,4449.743652,0.0,1.0,15.0,,,,0.0,4.0,1.0,4.0,1.0,4.0,50.0,,,,,,,,,,,,,,,,,,,,,,,,,,,,,,,,,,,,,,,,,,,,,,,,,,,,,,,,,,,,,,,,,,,,,,,,,,,,,,,,,,,,
22606,1645818406.122202,1645818406.1574562,22.0,0.0,4799.487305,4666.666504,4220.512695,4309.230957,4411.794922,0.0,1.0,15.0,,,,0.0,4.0,1.0,4.0,1.0,4.0,50.0,,,,,,,,11.0,0.0,0.171466,0.66333,-0.085449,-0.7233890000000001,0.945815,-0.34229,-0.107912,-0.013212999999999999,-0.020318,-0.028294,,,,,,,,,,,,,,,,,,,,,,,,,,,,,,,,,,,,,,,,,,,,,,,,,,,,,,,,,,,,,,,,,
22607,1645818406.130018,1645818406.1652699,23.0,0.0,4785.641113000001,4622.563965,4204.615234000001,4132.307617,4448.717772999999,0.0,1.0,15.0,,,,0.0,4.0,1.0,4.0,1.0,4.0,50.0,,,,,,,,,,,,,,,,,,,,,,,,,,,,,,,,,,,,,,,,,,,,,,,,,,,,,,0.0,0.0,1.0,0.0,512.0,1.0,,,,,,,,,,,,,,,,,,,,,,,,,
22608,1645818406.137834,1645818406.173085,24.0,0.0,4781.025879,4602.563965,4216.922852000001,4302.05127,4513.846191,0.0,1.0,15.0,,,,0.0,4.0,1.0,4.0,1.0,4.0,50.0,,,,,,,,12.0,0.0,0.171466,0.66333,-0.085449,-0.7233890000000001,0.9472799999999999,-0.35352100000000003,-0.114748,-0.014187,-0.020288,-0.031031,,,,,,,,,,,,,,,,,,,,,,,,,,,,,,,,,,,,,,,,,,,,,,,,,,,,,,,,,,,,,,,,,
22609,1645818406.14565,1645818406.1809,25.0,0.0,4748.717772999999,4636.922852000001,4213.333496,4393.846191,4478.461426,0.0,1.0,15.0,,,,0.0,4.0,1.0,4.0,1.0,4.0,50.0,,,,,,,,,,,,,,,,,,,,,,,,,,,,,,,,,,,,,,,,,,,,,,,,,,,,,,,,,,,,,,,,,,,,,,,,,,,,,,,,,,,,
22610,1645818406.153466,1645818406.188714,26.0,0.0,4668.205078,4656.410156,4177.436035,3481.025635,4401.025879,0.0,1.0,15.0,,,,0.0,4.0,1.0,4.0,1.0,4.0,50.0,,,,,,,,13.0,0.0,0.171466,0.66333,-0.085449,-0.7233890000000001,0.9423969999999999,-0.34668499999999997,-0.109377,-0.012915000000000001,-0.020309999999999998,-0.033544,,,,,,,,,,,,,,,,,,,,,,,,,,,,,,,,,,,,,,,,,,,,,,,,,,,,,,,,,,,,,,,,,
22611,1645818406.161283,1645818406.196529,27.0,0.0,4616.410156,4611.282227000001,4180.512695,3132.820557,4414.358886999999,0.0,1.0,15.0,,,,0.0,4.0,1.0,4.0,1.0,4.0,50.0,,,,,,,,,,,,,,,,,,,,,,,,,,,,,,,,,,,,,,,,,,,,,,,,,,,,,,0.0,0.0,1.0,0.0,512.0,1.0,,,,,,,,,,,,,,,,,,,,,,,,,
22612,1645818406.169099,1645818406.204344,28.0,0.0,4605.641113000001,4571.282227000001,4225.641113000001,4624.615234000001,4433.846191,0.0,1.0,15.0,,,,0.0,4.0,1.0,4.0,1.0,4.0,50.0,,,,,,,,14.0,0.0,0.171466,0.66333,-0.085449,-0.7233890000000001,0.948257,-0.35352100000000003,-0.11035299999999999,-0.011672,-0.020281,-0.035951,,,,,,,,,,,,,,,,,,,,,,,,,,,,,,,,,,,,,,,,,,,,,,,,,,,,,,,,,,,,,,,,,
22613,1645818406.176915,1645818406.212158,29.0,0.0,4538.461426,4578.461426,4212.820313,5295.384765999999,4323.589844,0.0,1.0,15.0,,,,0.0,4.0,1.0,4.0,1.0,4.0,50.0,,,,,,,,,,,,,,,,,,,,,,,,,,,,,,,,,,,,,,,,,,,,,,,,,,,,,,,,,,,,,,,,,,,,,,,,,,,,,,,,,,,,
22614,1645818406.184731,1645818406.219973,30.0,0.0,4471.282227000001,4576.922852000001,4183.589844,3910.256348,4247.692383,0.0,1.0,15.0,,,,0.0,4.0,1.0,4.0,1.0,4.0,50.0,,,,,,,,15.0,0.0,0.171466,0.66333,-0.085449,-0.7233890000000001,0.937514,-0.358404,-0.113283,-0.013044,-0.020304,-0.03802,,,,,,,,,,,,,,,,,,,,,,,,,,,,,,,,,,,,,,,,,,,,,,,,,,,,,,,,,,,,,,,,,
22615,1645818406.192548,1645818406.227788,31.0,0.0,4488.205078,4601.025879,4228.717772999999,3802.0512700000004,4320.512695,0.0,1.0,15.0,,,,0.0,4.0,1.0,4.0,1.0,4.0,50.0,,,,,,,,,,,,,,,,,,,,1.0,0.0,0.0,,,,,,,,,,,,,,,,,,,,,,,,,,,,,,,,10.0,0.0,1.0,0.0,512.0,0.8479760000000001,2.7915,1.043023,1.9768189999999999,2.3359389999999998,1.8055310000000002,19.36059,17.995473999999998,11.965384,15.367045999999998,15.455735999999998,4.856414,1.527356,3.0589049999999998,3.071764,2.363655,6.1740379999999995,2.01095,5.987944000000001,2.923759,6.719805,3.124813,1.06418,3.82954,4.402754,2.4697080000000002
22616,1645818406.200364,1645818406.235502,32.0,0.0,4466.153809,4669.230957,4240.512695,5157.94873,4336.410156,0.0,1.0,15.0,,,,0.0,4.0,1.0,4.0,1.0,4.0,50.0,,,,,,,,16.0,0.0,0.171466,0.66333,-0.085449,-0.7233890000000001,0.933608,-0.367681,-0.113283,-0.014131999999999999,-0.020275,-0.033632,,,,,,,,,,,,,,,,,,,,,,,,,,,,,,,,,,,,,,,,,,,,,,,,,,,,,,,,,,,,,,,,,
22617,1645818406.2081802,1645818406.243317,33.0,0.0,4369.230957,4663.589844,4185.641113000001,5026.666504,4253.333496,0.0,1.0,15.0,,,,0.0,4.0,1.0,4.0,1.0,4.0,50.0,,,,,,,,,,,,,,,,,,,,,,,,,,,,,,,,,,,,,,,,,,,,,,,,,,,,,,,,,,,,,,,,,,,,,,,,,,,,,,,,,,,,
22618,1645818406.215996,1645818406.251032,34.0,0.0,4328.717772999999,4614.871582,4178.974121,4115.384765999999,4215.384765999999,0.0,1.0,15.0,,,,0.0,4.0,1.0,4.0,1.0,4.0,50.0,,,,,,,,17.0,0.0,0.17064000000000001,0.663574,-0.08520499999999999,-0.7233890000000001,0.9404440000000001,-0.35547399999999996,-0.10351700000000001,-0.012816999999999999,-0.020201,-0.035933,,,,,,,,,,,,,,,,,,,,,,,,,,,,,,,,,,,,,,,,,,,,,,,,,,,,,,,,,,,,,,,,,
22619,1645818406.2238119,1645818406.258846,35.0,0.0,4321.538574,4657.94873,4196.410156,4144.102539,4196.922852000001,0.0,1.0,15.0,,,,0.0,4.0,1.0,4.0,1.0,4.0,50.0,,,,,,,,,,,,,,,,,,,,,,,,,,,,,,,,,,,,,,,,,,,,,,,,,,,,,,10.0,0.0,1.0,0.0,512.0,0.8479760000000001,,,,,,,,,,,,,,,,,,,,,,,,,
22620,1645818406.231629,1645818406.266661,36.0,0.0,4278.974121,4660.0,4171.794922,4371.794922,4158.974121,0.0,1.0,15.0,,,,0.0,4.0,1.0,4.0,1.0,4.0,50.0,,,,,,,,18.0,0.0,0.171466,0.66333,-0.085449,-0.7233890000000001,0.937514,-0.358404,-0.113283,-0.014074000000000001,-0.020232,-0.038004,,,,,,,,,,,,,,,,,,,,,,,,,,,,,,,,,,,,,,,,,,,,,,,,,,,,,,,,,,,,,,,,,
22621,1645818406.239445,1645818406.274476,37.0,0.0,4255.897461,4598.461426,4162.563965,4223.077147999999,4155.384765999999,0.0,1.0,15.0,,,,0.0,4.0,1.0,4.0,1.0,4.0,50.0,,,,,,,,,,,,,,,,,,,,,,,,,,,,,,,,,,,,,,,,,,,,,,,,,,,,,,,,,,,,,,,,,,,,,,,,,,,,,,,,,,,,
22622,1645818406.247261,1645818406.28229,38.0,0.0,4261.538574,4588.717772999999,4181.025879,4230.769043,4169.743652,0.0,1.0,15.0,,,,0.0,4.0,1.0,4.0,1.0,4.0,50.0,,,,,,,,19.0,0.0,0.171672,0.663574,-0.08520499999999999,-0.7231449999999999,0.9511860000000001,-0.361334,-0.09765800000000001,-0.015108000000000002,-0.020162,-0.033666,,,,,,,,,,,,,,,,,,,,,,,,,,,,,,,,,,,,,,,,,,,,,,,,,,,,,,,,,,,,,,,,,
22623,1645818406.255077,1645818406.290105,39.0,0.0,4258.461426,4605.128418,4187.692383,4243.077147999999,4177.436035,0.0,1.0,15.0,,,,0.0,4.0,1.0,4.0,1.0,4.0,50.0,,,,,,,,,,,,,,,,,,,,,,,,,,,,,,,,,,,,,,,,,,,,,,,,,,,,,,10.0,0.0,1.0,0.0,512.0,0.8479760000000001,,,,,,,,,,,,,,,,,,,,,,,,,
22624,1645818406.262894,1645818406.29792,40.0,0.0,4258.974121,4632.307617,4198.461426,4197.94873,4190.256348,0.0,1.0,15.0,,,,0.0,4.0,1.0,4.0,1.0,4.0,50.0,,,,,,,,20.0,0.0,0.170847,0.663818,-0.084961,-0.7231449999999999,0.9389790000000001,-0.34912600000000005,-0.106447,-0.013646,-0.020196000000000002,-0.035866,,,,,,,,,,,,,,,,,,,,,,,,,,,,,,,,,,,,,,,,,,,,,,,,,,,,,,,,,,,,,,,,,
22625,1645818406.27071,1645818406.305734,41.0,0.0,4241.538574,4621.538574,4193.846191,4273.846191,4175.897461,0.0,1.0,15.0,,,,0.0,4.0,1.0,4.0,1.0,4.0,50.0,,,,,,,,,,,,,,,,,,,,,,,,,,,,,,,,,,,,,,,,,,,,,,,,,,,,,,,,,,,,,,,,,,,,,,,,,,,,,,,,,,,,
22626,1645818406.278526,1645818406.313549,42.0,0.0,4216.410156,4575.384765999999,4176.410156,4276.410156,4153.846191,0.0,1.0,15.0,,,,0.0,4.0,1.0,4.0,1.0,4.0,50.0,,,,,,,,21.0,0.0,0.170969,0.663818,-0.084717,-0.7231449999999999,0.9423969999999999,-0.357427,-0.095216,-0.014722999999999998,-0.020227000000000002,-0.037895,,,,,,,,,,,,,,,,,,,,,,,,,,,,,,,,,,,,,,,,,,,,,,,,,,,,,,,,,,,,,,,,,
22627,1645818406.2863429,1645818406.321363,43.0,0.0,4202.05127,4530.769043,4174.871582,4251.794922,4135.897461,0.0,1.0,15.0,,,,0.0,4.0,1.0,4.0,1.0,4.0,50.0,,,,,,,,,,,,,,,,,,,,,,,,,,,,,,,,,,,,,,,,,,,,,,,,,,,,,,10.0,0.0,1.0,0.0,512.0,0.8479760000000001,,,,,,,,,,,,,,,,,,,,,,,,,
22628,1645818406.294159,1645818406.329078,44.0,0.0,4200.0,4507.179688,4194.358886999999,4261.538574,4126.153809,0.0,1.0,15.0,,,,0.0,4.0,1.0,4.0,1.0,4.0,50.0,,,,,,,,22.0,0.0,0.170969,0.663818,-0.084717,-0.7231449999999999,0.9438620000000001,-0.340337,-0.103029,-0.013347999999999999,-0.020304,-0.033422,,,,,,,,,,,,,,,,,,,,,,,,,,,,,,,,,,,,,,,,,,,,,,,,,,,,,,,,,,,,,,,,,
22629,1645818406.301975,1645818406.336893,45.0,0.0,4187.179688,4523.589844,4176.922852000001,4275.384765999999,4107.692383,0.0,1.0,15.0,,,,0.0,4.0,1.0,4.0,1.0,4.0,50.0,,,,,,,,,,,,,,,,,,,,,,,,,,,,,,,,,,,,,,,,,,,,,,,,,,,,,,,,,,,,,,,,,,,,,,,,,,,,,,,,,,,,
22630,1645818406.309791,1645818406.344708,46.0,0.0,4184.615234000001,4554.358886999999,4146.666504,4277.436035,4097.436035,0.0,1.0,15.0,,,,0.0,4.0,1.0,4.0,1.0,4.0,50.0,,,,,,,,23.0,0.0,0.17108900000000002,0.663818,-0.084473,-0.7231449999999999,0.9506979999999999,-0.334478,-0.112795,-0.012062,-0.020422,-0.035793,,,,,,,,,,,,,,,,,,,,,,,,,,,,,,,,,,,,,,,,,,,,,,,,,,,,,,,,,,,,,,,,,
22631,1645818406.317607,1645818406.3525221,47.0,0.0,4207.692383,4561.538574,4167.179688,4292.307617,4125.641113000001,0.0,1.0,15.0,,,,0.0,4.0,1.0,4.0,1.0,4.0,50.0,,,,,,,,,,,,,,,,,,,,1.0,0.0,0.0,,,,,,,,,,,,,,,,,,,,,,,,,,,,,,,,10.0,0.0,1.0,0.0,512.0,0.81275,6.088023000000001,1.3890879999999999,1.665095,2.20129,1.7229709999999998,18.806297,15.566908999999999,10.562571,14.233829,13.793535,5.046692,1.3672540000000002,2.607267,2.869442,2.24257,4.777197,3.275252,5.763072,3.5446720000000003,8.549128999999999,3.6570720000000003,1.168708,4.198887,4.2999540000000005,2.31317
22632,1645818406.325424,1645818406.360337,48.0,0.0,4203.589844,4565.128418,4174.358886999999,4313.333496,4130.256348,0.0,1.0,15.0,,,,0.0,4.0,1.0,4.0,1.0,4.0,50.0,,,,,,,,24.0,0.0,0.17108900000000002,0.663818,-0.084473,-0.7231449999999999,0.9438620000000001,-0.34668499999999997,-0.10009900000000001,-0.011637,-0.02048,-0.037975,,,,,,,,,,,,,,,,,,,,,,,,,,,,,,,,,,,,,,,,,,,,,,,,,,,,,,,,,,,,,,,,,
22633,1645818406.33324,1645818406.368151,49.0,0.0,4210.769043,4576.410156,4161.025879,4325.128418,4126.153809,0.0,1.0,15.0,,,,0.0,4.0,1.0,4.0,1.0,4.0,50.0,,,,,,,,,,,,,,,,,,,,,,,,,,,,,,,,,,,,,,,,,,,,,,,,,,,,,,,,,,,,,,,,,,,,,,,,,,,,,,,,,,,,
22634,1645818406.341056,1645818406.375966,50.0,0.0,4284.102539,4548.205078,4192.820313,4331.794922,4189.230957,0.0,1.0,15.0,,,,0.0,4.0,1.0,4.0,1.0,4.0,50.0,,,,,,,,25.0,0.0,0.170969,0.663818,-0.084717,-0.7231449999999999,0.9438620000000001,-0.350591,-0.10693499999999999,-0.012963999999999998,-0.020531,-0.033689,,,,,,,,,,,,,,,,,,,,,,,,,,,,,,,,,,,,,,,,,,,,,,,,,,,,,,,,,,,,,,,,,
22635,1645818406.3488722,1645818406.383781,51.0,0.0,4354.358886999999,4531.794922,4213.333496,4297.436035,4243.589844,0.0,1.0,15.0,,,,0.0,4.0,1.0,4.0,1.0,4.0,50.0,,,,,,,,,,,,,,,,,,,,,,,,,,,,,,,,,,,,,,,,,,,,,,,,,,,,,,0.0,0.0,1.0,0.0,512.0,0.81275,,,,,,,,,,,,,,,,,,,,,,,,,
22636,1645818406.356689,1645818406.3914962,52.0,0.0,4396.410156,4576.922852000001,4184.615234000001,4270.769043,4229.230957,0.0,1.0,15.0,,,,0.0,4.0,1.0,4.0,1.0,4.0,50.0,,,,,,,,26.0,0.0,0.170847,0.663818,-0.084961,-0.7231449999999999,0.933608,-0.350103,-0.092287,-0.014011000000000001,-0.020529,-0.035985,,,,,,,,,,,,,,,,,,,,,,,,,,,,,,,,,,,,,,,,,,,,,,,,,,,,,,,,,,,,,,,,,
22637,1645818406.364505,1645818406.3993099,53.0,0.0,4471.282227000001,4624.615234000001,4174.358886999999,4281.025879,4241.538574,0.0,1.0,15.0,,,,0.0,4.0,1.0,4.0,1.0,4.0,50.0,,,,,,,,,,,,,,,,,,,,,,,,,,,,,,,,,,,,,,,,,,,,,,,,,,,,,,,,,,,,,,,,,,,,,,,,,,,,,,,,,,,,
22638,1645818406.3723211,1645818406.407125,54.0,0.0,4572.820313,4620.0,4200.512695,4277.94873,4307.692383,0.0,1.0,15.0,,,,0.0,4.0,1.0,4.0,1.0,4.0,50.0,,,,,,,,27.0,0.0,0.170762,0.663574,-0.084961,-0.7233890000000001,0.945815,-0.34912600000000005,-0.10351700000000001,-0.014953999999999999,-0.020625,-0.031702999999999995,,,,,,,,,,,,,,,,,,,,,,,,,,,,,,,,,,,,,,,,,,,,,,,,,,,,,,,,,,,,,,,,,
22639,1645818406.380137,1645818406.4149392,55.0,0.0,4653.846191,4571.794922,4217.436035,4257.436035,4361.025879,0.0,1.0,15.0,,,,0.0,4.0,1.0,4.0,1.0,4.0,50.0,,,,,,,,,,,,,,,,,,,,,,,,,,,,,,,,,,,,,,,,,,,,,,,,,,,,,,0.0,0.0,1.0,0.0,512.0,0.81275,,,,,,,,,,,,,,,,,,,,,,,,,
22640,1645818406.387953,1645818406.4227538,56.0,0.0,4686.153809,4574.358886999999,4218.461426,4272.307617,4378.974121,0.0,1.0,15.0,,,,0.0,4.0,1.0,4.0,1.0,4.0,50.0,,,,,,,,28.0,0.0,0.171672,0.663574,-0.08520499999999999,-0.7231449999999999,0.938491,-0.32910700000000004,-0.093751,-0.013507,-0.020662,-0.034148000000000005,,,,,,,,,,,,,,,,,,,,,,,,,,,,,,,,,,,,,,,,,,,,,,,,,,,,,,,,,,,,,,,,,
22641,1645818406.3957698,1645818406.430569,57.0,0.0,4688.205078,4603.589844,4212.820313,4292.307617,4381.025879,0.0,1.0,15.0,,,,0.0,4.0,1.0,4.0,1.0,4.0,50.0,,,,,,,,,,,,,,,,,,,,,,,,,,,,,,,,,,,,,,,,,,,,,,,,,,,,,,,,,,,,,,,,,,,,,,,,,,,,,,,,,,,,
22642,1645818406.403586,1645818406.438383,58.0,0.0,4706.153809,4546.666504,4197.436035,4279.487305,4378.974121,0.0,1.0,15.0,,,,0.0,4.0,1.0,4.0,1.0,4.0,50.0,,,,,,,,29.0,0.0,0.171551,0.663574,-0.085449,-0.7231449999999999,0.9399559999999999,-0.337407,-0.101564,-0.014647,-0.020694999999999998,-0.036348,,,,,,,,,,,,,,,,,,,,,,,,,,,,,,,,,,,,,,,,,,,,,,,,,,,,,,,,,,,,,,,,,
22643,1645818406.411402,1645818406.446198,59.0,0.0,4732.307617,4545.641113000001,4200.512695,4289.230957,4405.641113000001,0.0,1.0,15.0,,,,0.0,4.0,1.0,4.0,1.0,4.0,50.0,,,,,,,,,,,,,,,,,,,,,,,,,,,,,,,,,,,,,,,,,,,,,,,,,,,,,,0.0,0.0,1.0,0.0,512.0,0.81275,,,,,,,,,,,,,,,,,,,,,,,,,
22644,1645818406.419218,1645818406.453913,60.0,0.0,4729.230957,4638.461426,4209.743652,4310.769043,4425.128418,0.0,1.0,15.0,,,,0.0,4.0,0.0,4.0,1.0,4.0,41.666668,,,,,,,,30.0,0.0,0.171551,0.663574,-0.085449,-0.7231449999999999,0.932631,-0.356451,-0.104494,-0.015575,-0.020628,-0.038377,,,,,,,,,,,,,,,,,,,,,,,,,,,,,,,,,,,,,,,,,,,,,,,,,,,,,,,,,,,,,,,,,
22645,1645818406.4270349,1645818406.461727,61.0,0.0,4737.436035,4626.666504,4194.871582,4313.846191,4389.743652,0.0,1.0,15.0,,,,0.0,4.0,0.0,4.0,1.0,4.0,41.666668,,,,,,,,,,,,,,,,,,,,,,,,,,,,,,,,,,,,,,,,,,,,,,,,,,,,,,,,,,,,,,,,,,,,,,,,,,,,,,,,,,,,
22646,1645818406.434851,1645818406.469542,62.0,0.0,4761.025879,4527.179688,4188.717772999999,4314.871582,4376.922852000001,0.0,1.0,15.0,,,,0.0,4.0,0.0,4.0,1.0,4.0,41.666668,,,,,,,,31.0,0.0,0.171429,0.663574,-0.08569299999999999,-0.7231449999999999,0.941421,-0.33789600000000003,-0.103029,-0.01475,-0.020616,-0.033954000000000005,,,,,,,,,,,,,,,,,,,,,,,,,,,,,,,,,,,,,,,,,,,,,,,,,,,,,,,,,,,,,,,,,
22647,1645818406.442667,1645818406.4773571,63.0,0.0,4756.410156,4472.820313,4217.94873,4341.538574,4438.974121,0.0,1.0,15.0,,,,0.0,4.0,0.0,4.0,1.0,4.0,41.666668,1.0,25.0,3.0,0.0,4.0,0.0,3.0,,,,,,,,,,,,,1.0,0.0,0.0,,,,,,,,,,,,,,,,,,,,,,,,,,,,,,,,0.0,0.0,1.0,0.0,512.0,0.8114,20.949299,2.463816,1.6415990000000003,1.997757,1.6850779999999999,17.174503,13.442692999999998,10.890264,12.591393,11.674603,4.963121,1.233965,2.360042,2.5384919999999997,2.1478099999999998,8.31555,12.131203999999999,11.688685000000001,7.166815,27.662069,6.27042,1.43697,4.493448,4.003362,2.272063
22648,1645818406.450483,1645818406.485171,64.0,0.0,4736.410156,4486.666504,4225.641113000001,4357.94873,4455.897461,450.0,1.0,15.0,,,,0.0,4.0,0.0,4.0,1.0,4.0,41.666668,,,,,,,,32.0,0.0,0.171429,0.663574,-0.08569299999999999,-0.7231449999999999,0.9248190000000001,-0.34473200000000004,-0.100587,-0.015521,-0.020605000000000002,-0.036271,,,,,,,,,,,,,,,,,,,,,,,,,,,,,,,,,,,,,,,,,,,,,,,,,,,,,,,,,,,,,,,,,
22649,1645818406.4583,1645818406.492986,65.0,0.0,4731.794922,4540.0,4218.974121,4342.563965,4418.461426,450.0,1.0,15.0,,,,0.0,4.0,0.0,4.0,1.0,4.0,41.666668,,,,,,,,,,,,,,,,,,,,,,,,,,,,,,,,,,,,,,,,,,,,,,,,,,,,,,,,,,,,,,,,,,,,,,,,,,,,,,,,,,,,
22650,1645818406.466116,1645818406.500801,66.0,0.0,4740.512695,4576.410156,4238.461426,4323.589844,4427.692383,16130.0,1.0,15.0,,,,0.0,4.0,0.0,4.0,1.0,4.0,41.666668,,,,,,,,33.0,0.0,0.170396,0.663574,-0.08569299999999999,-0.7233890000000001,0.938003,-0.34766199999999997,-0.100587,-0.016361,-0.020547,-0.038406,,,,,,,,,,,,,,,,,,,,,,,,,,,,,,,,,,,,,,,,,,,,,,,,,,,,,,,,,,,,,,,,,
22651,1645818406.473932,1645818406.508615,67.0,0.0,4744.615234000001,4560.512695,4242.05127,4298.461426,4429.230957,450.0,1.0,15.0,,,,0.0,4.0,0.0,4.0,1.0,4.0,41.666668,,,,,,,,,,,,,,,,,,,,,,,,,,,,,,,,,,,,,,,,,,,,,,,,,,,,,,0.0,0.0,1.0,0.0,512.0,0.8114,,,,,,,,,,,,,,,,,,,,,,,,,
22652,1645818406.481748,1645818406.5164301,68.0,0.0,4738.974121,4555.897461,4221.025879,4266.153809,4406.153809,0.0,1.0,15.0,,,,0.0,4.0,0.0,4.0,1.0,4.0,41.666668,,,,,,,,34.0,0.0,0.170396,0.663574,-0.08569299999999999,-0.7233890000000001,0.934585,-0.356939,-0.101564,-0.017118,-0.020444999999999998,-0.033979,,,,,,,,,,,,,,,,,,,,,,,,,,,,,,,,,,,,,,,,,,,,,,,,,,,,,,,,,,,,,,,,,
22653,1645818406.4895651,1645818406.524145,69.0,0.0,4733.333496,4629.743652,4223.589844,4273.846191,4434.358886999999,450.0,1.0,15.0,,,,0.0,4.0,0.0,4.0,1.0,4.0,41.666668,,,,,,,,,,,,,,,,,,,,,,,,,,,,,,,,,,,,,,,,,,,,,,,,,,,,,,,,,,,,,,,,,,,,,,,,,,,,,,,,,,,,
22654,1645818406.497381,1645818406.531959,70.0,0.0,4726.666504,4682.05127,4222.05127,4297.94873,4458.461426,16170.0,1.0,15.0,,,,0.0,4.0,0.0,4.0,1.0,4.0,41.666668,,,,,,,,35.0,0.0,0.171344,0.66333,-0.08569299999999999,-0.7233890000000001,0.941909,-0.351568,-0.09668099999999999,-0.016187,-0.020354,-0.036197,,,,,,,,,,,,,,,,,,,,,,,,,,,,,,,,,,,,,,,,,,,,,,,,,,,,,,,,,,,,,,,,,
22655,1645818406.505197,1645818406.539774,71.0,0.0,4672.307617,4631.794922,4186.153809,4290.769043,4397.94873,450.0,1.0,15.0,,,,0.0,4.0,0.0,4.0,1.0,4.0,41.666668,,,,,,,,,,,,,,,,,,,,,,,,,,,,,,,,,,,,,,,,,,,,,,,,,,,,,,10.0,0.0,1.0,0.0,512.0,0.8114,,,,,,,,,,,,,,,,,,,,,,,,,
22656,1645818406.5130131,1645818406.547589,72.0,0.0,4580.512695,4576.410156,4161.538574,4284.615234000001,4333.846191,450.0,1.0,15.0,,,,0.0,4.0,0.0,4.0,1.0,4.0,41.666668,,,,,,,,36.0,0.0,0.17031,0.66333,-0.08569299999999999,-0.723633,0.946792,-0.34912600000000005,-0.11133,-0.014715,-0.020418000000000002,-0.038193,,,,,,,,,,,,,,,,,,,,,,,,,,,,,,,,,,,,,,,,,,,,,,,,,,,,,,,,,,,,,,,,,
22657,1645818406.5208302,1645818406.555403,73.0,0.0,4531.282227000001,4577.94873,4176.410156,4304.615234000001,4321.025879,75.0,1.0,15.0,,,,0.0,4.0,0.0,4.0,1.0,4.0,41.666668,,,,,,,,,,,,,,,,,,,,,,,,,,,,,,,,,,,,,,,,,,,,,,,,,,,,,,,,,,,,,,,,,,,,,,,,,,,,,,,,,,,,
22658,1645818406.528646,1645818406.5632179,74.0,0.0,4538.974121,4553.333496,4221.025879,4300.0,4335.897461,450.0,1.0,15.0,,,,0.0,4.0,0.0,4.0,1.0,4.0,41.666668,,,,,,,,37.0,0.0,0.170396,0.663574,-0.08569299999999999,-0.7233890000000001,0.934585,-0.356939,-0.101564,-0.015636,-0.020329,-0.033787,,,,,,,,,,,,,,,,,,,,,,,,,,,,,,,,,,,,,,,,,,,,,,,,,,,,,,,,,,,,,,,,,
22659,1645818406.5364618,1645818406.571033,75.0,0.0,4510.256348,4494.358886999999,4232.820313,4265.641113000001,4331.794922,16145.0,1.0,15.0,,,,0.0,4.0,0.0,4.0,1.0,4.0,41.666668,,,,,,,,,,,,,,,,,,,,,,,,,,,,,,,,,,,,,,,,,,,,,,,,,,,,,,10.0,0.0,1.0,0.0,512.0,0.8114,,,,,,,,,,,,,,,,,,,,,,,,,
22660,1645818406.544278,1645818406.5788472,76.0,0.0,4430.256348,4537.94873,4208.205078,4269.743652,4290.769043,450.0,1.0,15.0,,,,0.0,4.0,0.0,4.0,1.0,4.0,41.666668,,,,,,,,38.0,0.0,0.17031,0.66333,-0.08569299999999999,-0.723633,0.946792,-0.34912600000000005,-0.11133,-0.014218999999999999,-0.020396,-0.036024,,,,,,,,,,,,,,,,,,,,,,,,,,,,,,,,,,,,,,,,,,,,,,,,,,,,,,,,,,,,,,,,,
22661,1645818406.552095,1645818406.5866618,77.0,0.0,4360.0,4621.538574,4197.436035,4269.743652,4238.974121,450.0,1.0,15.0,,,,0.0,4.0,0.0,4.0,1.0,4.0,41.666668,,,,,,,,,,,,,,,,,,,,,,,,,,,,,,,,,,,,,,,,,,,,,,,,,,,,,,,,,,,,,,,,,,,,,,,,,,,,,,,,,,,,
22662,1645818406.559911,1645818406.594377,78.0,0.0,4340.512695,4614.358886999999,4210.769043,4262.563965,4230.769043,450.0,1.0,15.0,,,,0.0,4.0,0.0,4.0,1.0,4.0,41.666668,,,,,,,,39.0,0.0,0.17018699999999998,0.66333,-0.085938,-0.723633,0.929702,-0.349615,-0.104005,-0.015141,-0.020358,-0.038086,,,,,,,,,,,,,,,,,,,,,,,,,,,,,,,,,,,,,,,,,,,,,,,,,,,,,,,,,,,,,,,,,
22663,1645818406.5677269,1645818406.602191,79.0,0.0,4351.282227000001,4546.153809,4218.974121,4292.820313,4263.077147999999,16145.0,1.0,15.0,,,,0.0,4.0,0.0,4.0,1.0,4.0,41.666668,,,,,,,,,,,,,,,,,,,,1.0,0.0,0.0,,,,,,,,,,,,,,,,,,,,,,,,,,,,,,,,10.0,0.0,32.0,0.21359499999999998,1.0,0.0,57.300807999999996,4.448525,1.881948,1.751856,1.7561939999999998,15.112983999999999,12.061474,12.859483,10.629285000000001,9.562222,4.58375,1.137183,2.437003,2.148542,2.1042,24.595778,41.539035999999996,32.856728000000004,17.778233,89.50103,13.388639999999999,1.9667540000000001,4.660732,3.641914,2.4675290000000003
22664,1645818406.575543,1645818406.610006,80.0,0.0,4331.794922,4495.384765999999,4223.077147999999,4319.487305,4269.230957,450.0,1.0,15.0,,,,0.0,4.0,0.0,4.0,1.0,4.0,41.666668,,,,,,,,40.0,0.0,0.17018699999999998,0.66333,-0.085938,-0.723633,0.9331200000000001,-0.36084499999999997,-0.100587,-0.015922,-0.020373,-0.039941000000000004,,,,,,,,,,,,,,,,,,,,,,,,,,,,,,,,,,,,,,,,,,,,,,,,,,,,,,,,,,,,,,,,,
22665,1645818406.583359,1645818406.617821,81.0,0.0,4277.436035,4528.717772999999,4220.0,4292.820313,4247.179688,450.0,1.0,15.0,,,,0.0,4.0,0.0,4.0,1.0,4.0,41.666668,,,,,,,,,,,,,,,,,,,,,,,,,,,,,,,,,,,,,,,,,,,,,,,,,,,,,,,,,,,,,,,,,,,,,,,,,,,,,,,,,,,,
22666,1645818406.591176,1645818406.625635,82.0,0.0,4241.025879,4554.871582,4198.974121,4268.717772999999,4226.153809,450.0,1.0,15.0,,,,0.0,4.0,0.0,4.0,1.0,4.0,41.666668,,,,,,,,41.0,0.0,0.1701,0.663086,-0.085938,-0.723877,0.9428850000000001,-0.357916,-0.1084,-0.016771,-0.020387,-0.04166,,,,,,,,,,,,,,,,,,,,,,,,,,,,,,,,,,,,,,,,,,,,,,,,,,,,,,,,,,,,,,,,,
22667,1645818406.598992,1645818406.63345,83.0,0.0,4242.563965,4491.794922,4191.794922,4290.769043,4209.743652,16145.0,1.0,15.0,,,,0.0,4.0,0.0,4.0,1.0,4.0,41.666668,,,,,,,,,,,,,,,,,,,,,,,,,,,,,,,,,,,,,,,,,,,,,,,,,,,,,,10.0,0.0,32.0,0.21359499999999998,1.0,0.0,,,,,,,,,,,,,,,,,,,,,,,,,
22668,1645818406.606808,1645818406.641264,84.0,0.0,4228.205078,4503.077147999999,4197.94873,4300.512695,4190.769043,450.0,1.0,15.0,,,,0.0,4.0,0.0,4.0,1.0,4.0,41.666668,,,,,,,,42.0,0.0,0.1701,0.663086,-0.085938,-0.723877,0.939467,-0.35352100000000003,-0.105959,-0.017487,-0.020447999999999997,-0.037006,,,,,,,,,,,,,,,,,,,,,,,,,,,,,,,,,,,,,,,,,,,,,,,,,,,,,,,,,,,,,,,,,
22669,1645818406.614624,1645818406.6490788,85.0,0.0,4206.153809,4590.256348,4198.461426,4295.384765999999,4196.410156,450.0,1.0,15.0,,,,0.0,4.0,0.0,4.0,1.0,4.0,41.666668,,,,,,,,,,,,,,,,,,,,,,,,,,,,,,,,,,,,,,,,,,,,,,,,,,,,,,,,,,,,,,,,,,,,,,,,,,,,,,,,,,,,
22670,1645818406.622441,1645818406.656894,86.0,0.0,4209.230957,4565.128418,4214.871582,4317.436035,4208.205078,450.0,1.0,15.0,,,,0.0,4.0,0.0,4.0,1.0,4.0,41.666668,,,,,,,,43.0,0.0,0.170012,0.662842,-0.085938,-0.724121,0.9277489999999999,-0.35352100000000003,-0.098634,-0.017984,-0.020551,-0.039116000000000005,,,,,,,,,,,,,,,,,,,,,,,,,,,,,,,,,,,,,,,,,,,,,,,,,,,,,,,,,,,,,,,,,
22671,1645818406.6302571,1645818406.664609,87.0,0.0,4210.769043,4527.179688,4230.256348,4325.641113000001,4201.538574,16145.0,1.0,15.0,,,,0.0,4.0,0.0,4.0,1.0,4.0,41.666668,,,,,,,,,,,,,,,,,,,,,,,,,,,,,,,,,,,,,,,,,,,,,,,,,,,,,,10.0,0.0,32.0,0.21359499999999998,1.0,0.0,,,,,,,,,,,,,,,,,,,,,,,,,
22672,1645818406.638073,1645818406.6724231,88.0,0.0,4176.410156,4580.512695,4202.563965,4283.589844,4182.05127,450.0,1.0,15.0,,,,0.0,4.0,0.0,4.0,1.0,4.0,41.666668,,,,,,,,44.0,0.0,0.168969,0.662842,-0.085938,-0.7243649999999999,0.9282370000000001,-0.352056,-0.113283,-0.018578,-0.020645,-0.040868,,,,,,,,,,,,,,,,,,,,,,,,,,,,,,,,,,,,,,,,,,,,,,,,,,,,,,,,,,,,,,,,,
22673,1645818406.645889,1645818406.680238,89.0,0.0,4145.641113000001,4561.025879,4173.333496,4265.641113000001,4163.589844,450.0,1.0,15.0,,,,0.0,4.0,0.0,4.0,1.0,4.0,41.666668,,,,,,,,,,,,,,,,,,,,,,,,,,,,,,,,,,,,,,,,,,,,,,,,,,,,,,,,,,,,,,,,,,,,,,,,,,,,,,,,,,,,
22674,1645818406.6537051,1645818406.688052,90.0,0.0,4161.538574,4495.384765999999,4187.179688,4310.769043,4179.487305,450.0,1.0,15.0,,,,0.0,4.0,0.0,4.0,1.0,4.0,41.666668,,,,,,,,45.0,0.0,0.168969,0.662842,-0.085938,-0.7243649999999999,0.95314,-0.34766199999999997,-0.10888800000000001,-0.017502,-0.020582,-0.042543,,,,,,,,,,,,,,,,,,,,,,,,,,,,,,,,,,,,,,,,,,,,,,,,,,,,,,,,,,,,,,,,,
22675,1645818406.6615222,1645818406.695867,91.0,0.0,4193.333496,4552.307617,4210.256348,4317.436035,4223.077147999999,16145.0,1.0,15.0,,,,0.0,4.0,0.0,4.0,1.0,4.0,41.666668,,,,,,,,,,,,,,,,,,,,,,,,,,,,,,,,,,,,,,,,,,,,,,,,,,,,,,0.0,0.0,32.0,0.21359499999999998,1.0,0.0,,,,,,,,,,,,,,,,,,,,,,,,,
22676,1645818406.669338,1645818406.703682,92.0,0.0,4191.282227000001,4584.102539,4196.410156,4256.922852000001,4218.974121,450.0,1.0,15.0,,,,0.0,4.0,0.0,4.0,1.0,4.0,41.666668,,,,,,,,46.0,0.0,0.169924,0.6625979999999999,-0.085938,-0.7243649999999999,0.9399559999999999,-0.338872,-0.099123,-0.017998,-0.020673,-0.0441,,,,,,,,,,,,,,,,,,,,,,,,,,,,,,,,,,,,,,,,,,,,,,,,,,,,,,,,,,,,,,,,,
22677,1645818406.6771538,1645818406.711496,93.0,0.0,4158.974121,4501.025879,4163.077147999999,4234.871582,4162.05127,450.0,1.0,15.0,,,,0.0,4.0,0.0,4.0,1.0,4.0,41.666668,,,,,,,,,,,,,,,,,,,,,,,,,,,,,,,,,,,,,,,,,,,,,,,,,,,,,,,,,,,,,,,,,,,,,,,,,,,,,,,,,,,,
22678,1645818406.684971,1645818406.719311,94.0,0.0,4145.128418,4487.692383,4164.102539,4265.128418,4149.230957,450.0,1.0,15.0,,,,0.0,4.0,0.0,4.0,1.0,4.0,41.666668,,,,,,,,47.0,0.0,0.170047,0.6625979999999999,-0.08569299999999999,-0.7243649999999999,0.9438620000000001,-0.34912600000000005,-0.11523599999999999,-0.018688,-0.020705,-0.045403,,,,,,,,,,,,,,,,,,,,,,,,,,,,,,,,,,,,,,,,,,,,,,,,,,,,,,,,,,,,,,,,,
22679,1645818406.692787,1645818406.727026,95.0,0.0,4162.05127,4566.153809,4203.077147999999,4261.538574,4182.563965,16145.0,1.0,15.0,,,,0.0,4.0,0.0,4.0,1.0,4.0,41.666668,,,,,,,,,,,,,,,,,,,,1.0,0.0,0.0,,,,,,,,,,,,,,,,,,,,,,,,,,,,,,,,0.0,0.0,32.0,0.37368,1.0,0.0,115.422974,7.930213,2.297596,1.559601,1.9610310000000002,13.550961,11.72332,15.539013,8.808052,7.980558,3.96371,1.146069,2.870246,1.7788110000000001,2.122515,59.128581999999994,100.493843,74.948112,37.485489,210.37963900000003,26.045748,3.038813,4.702453,3.4218269999999995,2.967546
22680,1645818406.700603,1645818406.7348402,96.0,0.0,4162.563965,4592.307617,4206.666504,4216.410156,4178.461426,450.0,1.0,15.0,,,,0.0,4.0,0.0,4.0,1.0,4.0,41.666668,,,,,,,,48.0,0.0,0.169004,0.6625979999999999,-0.08569299999999999,-0.7246090000000001,0.937026,-0.343267,-0.11133,-0.019114,-0.020685,-0.040325,,,,,,,,,,,,,,,,,,,,,,,,,,,,,,,,,,,,,,,,,,,,,,,,,,,,,,,,,,,,,,,,,
22681,1645818406.7084188,1645818406.742655,97.0,0.0,4171.282227000001,4545.128418,4205.641113000001,4224.102539,4180.0,450.0,1.0,15.0,,,,0.0,4.0,0.0,4.0,1.0,4.0,41.666668,,,,,,,,,,,,,,,,,,,,,,,,,,,,,,,,,,,,,,,,,,,,,,,,,,,,,,,,,,,,,,,,,,,,,,,,,,,,,,,,,,,,
22682,1645818406.7162359,1645818406.75047,98.0,0.0,4207.179688,4490.769043,4243.077147999999,4264.615234000001,4214.871582,450.0,1.0,15.0,,,,0.0,4.0,0.0,4.0,1.0,4.0,41.666668,,,,,,,,49.0,0.0,0.169004,0.6625979999999999,-0.08569299999999999,-0.7246090000000001,0.9399559999999999,-0.340826,-0.112795,-0.017935,-0.020619,-0.035756,,,,,,,,,,,,,,,,,,,,,,,,,,,,,,,,,,,,,,,,,,,,,,,,,,,,,,,,,,,,,,,,,
22683,1645818406.724052,1645818406.758284,99.0,0.0,4193.333496,4467.179688,4231.282227000001,4262.563965,4207.692383,16145.0,1.0,15.0,,,,0.0,4.0,0.0,4.0,1.0,4.0,41.666668,,,,,,,,,,,,,,,,,,,,,,,,,,,,,,,,,,,,,,,,,,,,,,,,,,,,,,0.0,0.0,32.0,0.37368,1.0,0.0,,,,,,,,,,,,,,,,,,,,,,,,,
22684,1645818406.731868,1645818406.766099,100.0,0.0,4146.153809,4490.769043,4167.692383,4252.307617,4160.0,450.0,1.0,15.0,,,,0.0,4.0,0.0,4.0,1.0,4.0,41.666668,,,,,,,,50.0,0.0,0.169127,0.6625979999999999,-0.085449,-0.7246090000000001,0.940932,-0.348638,-0.12255999999999999,-0.016239,-0.020705,-0.037844,,,,,,,,,,,,,,,,,,,,,,,,,,,,,,,,,,,,,,,,,,,,,,,,,,,,,,,,,,,,,,,,,
22685,1645818406.7396839,1645818406.773914,101.0,0.0,4140.0,4534.358886999999,4147.179688,4276.410156,4132.820313,450.0,1.0,15.0,,,,0.0,4.0,0.0,4.0,1.0,4.0,41.666668,,,,,,,,,,,,,,,,,,,,,,,,,,,,,,,,,,,,,,,,,,,,,,,,,,,,,,,,,,,,,,,,,,,,,,,,,,,,,,,,,,,,
22686,1645818406.7475,1645818406.781728,102.0,0.0,4147.692383,4550.256348,4160.0,4279.487305,4146.153809,450.0,1.0,15.0,,,,0.0,4.0,0.0,4.0,1.0,4.0,41.666668,,,,,,,,51.0,0.0,0.169127,0.6625979999999999,-0.085449,-0.7246090000000001,0.945327,-0.343267,-0.107424,-0.016959000000000002,-0.020686000000000003,-0.039675,,,,,,,,,,,,,,,,,,,,,,,,,,,,,,,,,,,,,,,,,,,,,,,,,,,,,,,,,,,,,,,,,
22687,1645818406.755317,1645818406.789543,103.0,0.0,4145.641113000001,4529.230957,4162.05127,4280.512695,4174.871582,16145.0,1.0,15.0,,,,0.0,4.0,0.0,4.0,1.0,4.0,41.666668,,,,,,,,,,,,,,,,,,,,,,,,,,,,,,,,,,,,,,,,,,,,,,,,,,,,,,0.0,0.0,32.0,0.37368,1.0,0.0,,,,,,,,,,,,,,,,,,,,,,,,,
22688,1645818406.763133,1645818406.797358,104.0,0.0,4179.487305,4515.897461,4188.717772999999,4311.282227000001,4203.077147999999,450.0,1.0,15.0,,,,0.0,4.0,0.0,4.0,1.0,4.0,41.666668,,,,,,,,52.0,0.0,0.169127,0.6625979999999999,-0.085449,-0.7246090000000001,0.949722,-0.345708,-0.1084,-0.017656,-0.020717,-0.035122,,,,,,,,,,,,,,,,,,,,,,,,,,,,,,,,,,,,,,,,,,,,,,,,,,,,,,,,,,,,,,,,,
22689,1645818406.7709491,1645818406.805072,105.0,0.0,4197.94873,4559.487305,4217.436035,4281.025879,4213.846191,450.0,1.0,15.0,,,,0.0,4.0,0.0,4.0,1.0,4.0,41.666668,,,,,,,,,,,,,,,,,,,,,,,,,,,,,,,,,,,,,,,,,,,,,,,,,,,,,,,,,,,,,,,,,,,,,,,,,,,,,,,,,,,,
22690,1645818406.778765,1645818406.812887,106.0,0.0,4167.692383,4593.846191,4205.641113000001,4204.102539,4196.410156,450.0,1.0,15.0,,,,0.0,4.0,0.0,4.0,1.0,4.0,41.666668,,,,,,,,53.0,0.0,0.16925,0.6625979999999999,-0.08520499999999999,-0.7246090000000001,0.937514,-0.343267,-0.102052,-0.018283,-0.020597999999999998,-0.031024,,,,,,,,,,,,,,,,,,,,,,,,,,,,,,,,,,,,,,,,,,,,,,,,,,,,,,,,,,,,,,,,,
22691,1645818406.786582,1645818406.8207018,107.0,0.0,4157.94873,4546.666504,4201.538574,4202.563965,4166.153809,16145.0,1.0,15.0,,,,0.0,4.0,0.0,4.0,1.0,4.0,41.666668,,,,,,,,,,,,,,,,,,,,,,,,,,,,,,,,,,,,,,,,,,,,,,,,,,,,,,0.0,0.0,32.0,0.37368,1.0,0.0,,,,,,,,,,,,,,,,,,,,,,,,,
22692,1645818406.794398,1645818406.828516,108.0,0.0,4168.205078,4520.0,4207.179688,4243.077147999999,4163.589844,450.0,1.0,15.0,,,,0.0,4.0,0.0,4.0,1.0,4.0,41.666668,,,,,,,,54.0,0.0,0.16925,0.6625979999999999,-0.08520499999999999,-0.7246090000000001,0.9423969999999999,-0.342779,-0.11572400000000001,-0.018798,-0.020638,-0.033537,,,,,,,,,,,,,,,,,,,,,,,,,,,,,,,,,,,,,,,,,,,,,,,,,,,,,,,,,,,,,,,,,
22693,1645818406.8022141,1645818406.8363311,109.0,0.0,4152.307617,4583.077147999999,4187.692383,4246.153809,4179.487305,450.0,1.0,15.0,,,,0.0,4.0,0.0,4.0,1.0,4.0,41.666668,,,,,,,,,,,,,,,,,,,,,,,,,,,,,,,,,,,,,,,,,,,,,,,,,,,,,,,,,,,,,,,,,,,,,,,,,,,,,,,,,,,,
22694,1645818406.81003,1645818406.844146,110.0,0.0,4147.692383,4600.512695,4174.358886999999,4260.512695,4175.897461,450.0,1.0,15.0,,,,0.0,4.0,0.0,4.0,1.0,4.0,41.666668,,,,,,,,55.0,0.0,0.16925,0.6625979999999999,-0.08520499999999999,-0.7246090000000001,0.951675,-0.34375500000000003,-0.107912,-0.017651,-0.020576,-0.035798,,,,,,,,,,,,,,,,,,,,,,,,,,,,,,,,,,,,,,,,,,,,,,,,,,,,,,,,,,,,,,,,,
22695,1645818406.817846,1645818406.85196,111.0,0.0,4175.897461,4551.282227000001,4180.512695,4292.307617,4176.922852000001,16145.0,1.0,15.0,,,,0.0,4.0,0.0,4.0,1.0,4.0,41.666668,,,,,,,,,,,,,,,,,,,,1.0,0.0,0.0,,,,,,,,,,,,,,,,,,,,,,,,,,,,,,,,0.0,0.0,32.0,0.720275,1.0,0.0,186.316528,13.261961,2.7540009999999997,1.531264,2.2768919999999997,13.507970000000002,12.454376,17.976944,7.747832000000001,7.289574000000001,3.227826,1.396773,3.559383,1.493103,2.198505,109.573959,184.548584,134.089844,64.148155,379.977173,42.588409000000006,4.855128,4.670064,3.5136220000000002,3.732475
22696,1645818406.825663,1645818406.859775,112.0,0.0,4192.307617,4566.153809,4188.717772999999,4291.794922,4200.512695,450.0,1.0,15.0,,,,0.0,4.0,0.0,4.0,1.0,4.0,41.666668,,,,,,,,56.0,0.0,0.16925,0.6625979999999999,-0.08520499999999999,-0.7246090000000001,0.9404440000000001,-0.34815,-0.11572400000000001,-0.01823,-0.020618,-0.037931,,,,,,,,,,,,,,,,,,,,,,,,,,,,,,,,,,,,,,,,,,,,,,,,,,,,,,,,,,,,,,,,,
22697,1645818406.833479,1645818406.86759,113.0,0.0,4182.563965,4602.05127,4192.307617,4273.846191,4210.769043,450.0,1.0,15.0,,,,0.0,4.0,0.0,4.0,1.0,4.0,41.666668,,,,,,,,,,,,,,,,,,,,,,,,,,,,,,,,,,,,,,,,,,,,,,,,,,,,,,,,,,,,,,,,,,,,,,,,,,,,,,,,,,,,
22698,1645818406.841295,1645818406.875404,114.0,0.0,4171.282227000001,4518.974121,4196.922852000001,4272.820313,4191.794922,450.0,1.0,15.0,,,,0.0,4.0,0.0,4.0,1.0,4.0,41.666668,,,,,,,,57.0,0.0,0.168292,0.662842,-0.08520499999999999,-0.7246090000000001,0.940932,-0.338872,-0.105959,-0.018848,-0.020607,-0.033552,,,,,,,,,,,,,,,,,,,,,,,,,,,,,,,,,,,,,,,,,,,,,,,,,,,,,,,,,,,,,,,,,
22699,1645818406.8491108,1645818406.8831189,115.0,0.0,4183.589844,4457.436035,4204.615234000001,4266.153809,4184.615234000001,16145.0,1.0,15.0,,,,0.0,4.0,0.0,4.0,1.0,4.0,41.666668,,,,,,,,,,,,,,,,,,,,,,,,,,,,,,,,,,,,,,,,,,,,,,,,,,,,,,0.0,0.0,32.0,0.720275,1.0,0.0,,,,,,,,,,,,,,,,,,,,,,,,,
22700,1645818406.8569279,1645818406.890934,116.0,0.0,4203.077147999999,4572.307617,4213.333496,4249.743652,4203.589844,450.0,1.0,15.0,,,,0.0,4.0,0.0,4.0,1.0,4.0,41.666668,,,,,,,,58.0,0.0,0.168292,0.662842,-0.08520499999999999,-0.7246090000000001,0.938491,-0.331548,-0.10254100000000001,-0.019209999999999998,-0.020694999999999998,-0.035861000000000004,,,,,,,,,,,,,,,,,,,,,,,,,,,,,,,,,,,,,,,,,,,,,,,,,,,,,,,,,,,,,,,,,
22701,1645818406.864744,1645818406.898648,117.0,0.0,4201.025879,4647.179688,4207.692383,4247.692383,4211.794922,450.0,1.0,15.0,,,,0.0,4.0,0.0,4.0,1.0,4.0,41.666668,,,,,,,,,,,,,,,,,,,,,,,,,,,,,,,,,,,,,,,,,,,,,,,,,,,,,,,,,,,,,,,,,,,,,,,,,,,,,,,,,,,,
22702,1645818406.87256,1645818406.9064631,118.0,0.0,4180.0,4554.871582,4188.205078,4252.307617,4188.205078,450.0,1.0,15.0,,,,0.0,4.0,0.0,4.0,1.0,4.0,41.666668,,,,,,,,59.0,0.0,0.168292,0.662842,-0.08520499999999999,-0.7246090000000001,0.9389790000000001,-0.336919,-0.10888800000000001,-0.01973,-0.020676,-0.031738,,,,,,,,,,,,,,,,,,,,,,,,,,,,,,,,,,,,,,,,,,,,,,,,,,,,,,,,,,,,,,,,,
22703,1645818406.8803759,1645818406.914278,119.0,0.0,4174.358886999999,4486.666504,4180.512695,4243.077147999999,4169.230957,16145.0,1.0,15.0,,,,0.0,4.0,0.0,4.0,1.0,4.0,41.666668,,,,,,,,,,,,,,,,,,,,,,,,,,,,,,,,,,,,,,,,,,,,,,,,,,,,,,0.0,0.0,32.0,0.720275,1.0,0.0,,,,,,,,,,,,,,,,,,,,,,,,,
22704,1645818406.888193,1645818406.922092,120.0,0.0,4186.666504,4511.794922,4188.205078,4245.128418,4171.794922,450.0,1.0,15.0,,,,0.0,4.0,0.0,4.0,1.0,4.0,41.666668,,,,,,,,60.0,0.0,0.168292,0.662842,-0.08520499999999999,-0.7246090000000001,0.949233,-0.345708,-0.11914200000000001,-0.020198,-0.020659,-0.034227999999999995,,,,,,,,,,,,,,,,,,,,,,,,,,,,,,,,,,,,,,,,,,,,,,,,,,,,,,,,,,,,,,,,,
22705,1645818406.896009,1645818406.929907,121.0,0.0,4182.563965,4507.179688,4188.717772999999,4270.256348,4171.794922,450.0,1.0,15.0,,,,0.0,4.0,0.0,4.0,1.0,4.0,41.666668,,,,,,,,,,,,,,,,,,,,,,,,,,,,,,,,,,,,,,,,,,,,,,,,,,,,,,,,,,,,,,,,,,,,,,,,,,,,,,,,,,,,
22706,1645818406.903825,1645818406.937722,122.0,0.0,4173.846191,4509.230957,4181.025879,4275.897461,4174.358886999999,450.0,1.0,15.0,,,,0.0,4.0,0.0,4.0,1.0,4.0,41.666668,,,,,,,,61.0,0.0,0.168292,0.662842,-0.08520499999999999,-0.7246090000000001,0.938491,-0.331548,-0.10254100000000001,-0.020425,-0.020742,-0.036469999999999995,,,,,,,,,,,,,,,,,,,,,,,,,,,,,,,,,,,,,,,,,,,,,,,,,,,,,,,,,,,,,,,,,
22707,1645818406.9116411,1645818406.945536,123.0,0.0,4191.794922,4538.461426,4186.666504,4260.0,4173.333496,16145.0,1.0,15.0,,,,0.0,4.0,0.0,4.0,1.0,4.0,41.666668,,,,,,,,,,,,,,,,,,,,,,,,,,,,,,,,,,,,,,,,,,,,,,,,,,,,,,0.0,0.0,32.0,0.720275,1.0,0.0,,,,,,,,,,,,,,,,,,,,,,,,,
22708,1645818406.919458,1645818406.953351,124.0,0.0,4206.666504,4520.0,4191.794922,4276.410156,4162.05127,450.0,1.0,15.0,,,,0.0,4.0,0.0,4.0,1.0,4.0,41.666668,,,,,,,,62.0,0.0,0.16925,0.6625979999999999,-0.08520499999999999,-0.7246090000000001,0.937514,-0.343267,-0.107424,-0.020628,-0.020816,-0.038487,,,,,,,,,,,,,,,,,,,,,,,,,,,,,,,,,,,,,,,,,,,,,,,,,,,,,,,,,,,,,,,,,
22709,1645818406.927274,1645818406.961066,125.0,0.0,4201.538574,4541.538574,4184.102539,4320.0,4181.538574,450.0,1.0,15.0,,,,0.0,4.0,0.0,2.0,1.0,4.0,25.0,,,,,,,,,,,,,,,,,,,,,,,,,,,,,,,,,,,,,,,,,,,,,,,,,,,,,,,,,,,,,,,,,,,,,,,,,,,,,,,,,,,,
22710,1645818406.93509,1645818406.9688802,126.0,0.0,4193.333496,4601.538574,4185.641113000001,4308.717772999999,4198.461426,450.0,1.0,15.0,,,,0.0,4.0,0.0,2.0,1.0,4.0,25.0,,,,,,,,63.0,0.0,0.16925,0.6625979999999999,-0.08520499999999999,-0.7246090000000001,0.94435,-0.34473200000000004,-0.11230599999999999,-0.020861,-0.020883000000000002,-0.040253,,,,,,,,,,,,,,,,,,,,,,,,,,,,,,,,,,,,,,,,,,,,,,,,,,,,,,,,,,,,,,,,,
22711,1645818406.9429061,1645818406.9766948,127.0,0.0,4207.692383,4590.256348,4211.794922,4251.794922,4192.307617,233.0,1.0,15.0,,,,0.0,4.0,0.0,2.0,1.0,4.0,25.0,1.0,16.666666,3.0,0.0,2.0,0.0,3.0,,,,,,,,,,,,,1.0,0.0,0.0,,,,,,,,,,,,,,,,,,,,,,,,,,,,,,,,0.0,0.0,1.0,0.0,512.0,0.504265,252.98902900000002,20.180313,3.085136,1.759122,2.6365279999999998,15.478568,13.921453,19.799774,7.843483999999999,7.530104,2.528915,2.005759,4.3566910000000005,1.351968,2.305695,164.601456,273.832062,195.916306,91.171265,558.244202,59.69048299999999,7.336236,4.6306199999999995,3.9882459999999997,4.5985059999999995
22712,1645818406.950723,1645818406.98451,0.0,0.0,4220.0,4530.256348,4207.692383,4250.256348,4195.897461,450.0,1.0,15.0,,,,0.0,4.0,0.0,2.0,1.0,4.0,25.0,,,,,,,,0.0,0.0,0.16925,0.6625979999999999,-0.08520499999999999,-0.7246090000000001,0.9306780000000001,-0.352056,-0.125002,-0.019556,-0.020846,-0.041892,,,,,,,,,,,,,,,,,,,,,,,,,,,,,,,,,,,,,,,,,,,,,,,,,,,,,,,,,,,,,,,,,
22713,1645818406.958539,1645818406.992324,1.0,0.0,4211.794922,4524.615234000001,4175.897461,4309.743652,4202.05127,450.0,1.0,15.0,,,,0.0,4.0,0.0,2.0,1.0,4.0,25.0,,,,,,,,,,,,,,,,,,,,,,,,,,,,,,,,,,,,,,,,,,,,,,,,,,,,,,,,,,,,,,,,,,,,,,,,,,,,,,,,,,,,
22714,1645818406.966355,1645818407.000139,2.0,0.0,4215.384765999999,4555.384765999999,4173.333496,4320.512695,4206.666504,16167.0,1.0,15.0,,,,0.0,4.0,0.0,2.0,1.0,4.0,25.0,,,,,,,,1.0,0.0,0.16925,0.6625979999999999,-0.08520499999999999,-0.7246090000000001,0.938003,-0.34375500000000003,-0.11035299999999999,-0.019944,-0.020909999999999998,-0.043416,,,,,,,,,,,,,,,,,,,,,,,,,,,,,,,,,,,,,,,,,,,,,,,,,,,,,,,,,,,,,,,,,
22715,1645818406.9741712,1645818407.007953,3.0,0.0,4224.615234000001,4536.410156,4191.794922,4282.05127,4215.897461,450.0,1.0,15.0,,,,0.0,4.0,0.0,2.0,1.0,4.0,25.0,,,,,,,,,,,,,,,,,,,,,,,,,,,,,,,,,,,,,,,,,,,,,,,,,,,,,,0.0,0.0,1.0,0.0,512.0,0.504265,,,,,,,,,,,,,,,,,,,,,,,,,
22716,1645818406.981987,1645818407.015768,4.0,0.0,4207.179688,4486.153809,4181.538574,4252.820313,4198.974121,11.0,1.0,15.0,,,,0.0,4.0,0.0,2.0,1.0,4.0,25.0,,,,,,,,2.0,0.0,0.16925,0.6625979999999999,-0.08520499999999999,-0.7246090000000001,0.945327,-0.34473200000000004,-0.1084,-0.020293000000000002,-0.020869,-0.038635,,,,,,,,,,,,,,,,,,,,,,,,,,,,,,,,,,,,,,,,,,,,,,,,,,,,,,,,,,,,,,,,,
22717,1645818406.9898038,1645818407.023583,5.0,0.0,4196.922852000001,4478.461426,4170.256348,4241.538574,4163.077147999999,450.0,1.0,15.0,,,,0.0,4.0,0.0,2.0,1.0,4.0,25.0,,,,,,,,,,,,,,,,,,,,,,,,,,,,,,,,,,,,,,,,,,,,,,,,,,,,,,,,,,,,,,,,,,,,,,,,,,,,,,,,,,,,
22718,1645818406.9976199,1645818407.031397,6.0,0.0,4229.743652,4500.0,4201.538574,4242.05127,4184.102539,324.0,1.0,15.0,,,,0.0,4.0,0.0,2.0,1.0,4.0,25.0,,,,,,,,3.0,0.0,0.168292,0.662842,-0.08520499999999999,-0.7246090000000001,0.9506979999999999,-0.340337,-0.104494,-0.020705,-0.020833,-0.040436,,,,,,,,,,,,,,,,,,,,,,,,,,,,,,,,,,,,,,,,,,,,,,,,,,,,,,,,,,,,,,,,,
22719,1645818407.005436,1645818407.0391119,7.0,0.0,4234.871582,4485.128418,4210.769043,4243.077147999999,4208.717772999999,450.0,1.0,15.0,,,,0.0,4.0,0.0,2.0,0.0,4.0,16.666666,,,,,,,,,,,,,,,,,,,,,,,,,,,,,,,,,,,,,,,,,,,,,,,,,,,,,,0.0,0.0,1.0,0.0,512.0,0.504265,,,,,,,,,,,,,,,,,,,,,,,,,
22720,1645818407.013252,1645818407.046927,8.0,0.0,4214.871582,4511.794922,4185.128418,4263.589844,4184.615234000001,450.0,1.0,15.0,,,,0.0,4.0,0.0,2.0,0.0,4.0,16.666666,,,,,,,,4.0,0.0,0.168292,0.662842,-0.08520499999999999,-0.7246090000000001,0.9404440000000001,-0.344244,-0.109865,-0.021028,-0.02085,-0.035757,,,,,,,,,,,,,,,,,,,,,,,,,,,,,,,,,,,,,,,,,,,,,,,,,,,,,,,,,,,,,,,,,
22721,1645818407.021069,1645818407.054741,9.0,0.0,4213.333496,4567.692383,4166.666504,4301.538574,4167.179688,0.0,1.0,15.0,,,,0.0,4.0,0.0,2.0,0.0,4.0,16.666666,,,,,,,,,,,,,,,,,,,,,,,,,,,,,,,,,,,,,,,,,,,,,,,,,,,,,,,,,,,,,,,,,,,,,,,,,,,,,,,,,,,,
22722,1645818407.028885,1645818407.062556,10.0,0.0,4205.128418,4483.589844,4155.384765999999,4307.692383,4184.102539,450.0,1.0,15.0,,,,0.0,4.0,0.0,2.0,0.0,4.0,16.666666,,,,,,,,5.0,0.0,0.16933900000000002,0.662842,-0.08520499999999999,-0.7243649999999999,0.944839,-0.340826,-0.11035299999999999,-0.021366,-0.020718,-0.037895,,,,,,,,,,,,,,,,,,,,,,,,,,,,,,,,,,,,,,,,,,,,,,,,,,,,,,,,,,,,,,,,,
22723,1645818407.036701,1645818407.0703712,11.0,0.0,4196.922852000001,4372.820313,4151.794922,4299.487305,4199.487305,16173.0,1.0,15.0,,,,0.0,4.0,0.0,2.0,0.0,4.0,16.666666,,,,,,,,,,,,,,,,,,,,,,,,,,,,,,,,,,,,,,,,,,,,,,,,,,,,,,0.0,0.0,1.0,0.0,512.0,0.504265,,,,,,,,,,,,,,,,,,,,,,,,,
22724,1645818407.044517,1645818407.0781848,12.0,0.0,4222.05127,4432.820313,4179.487305,4314.358886999999,4210.769043,450.0,1.0,15.0,,,,0.0,4.0,0.0,2.0,0.0,4.0,16.666666,,,,,,,,6.0,0.0,0.16933900000000002,0.662842,-0.08520499999999999,-0.7243649999999999,0.9389790000000001,-0.34375500000000003,-0.105959,-0.021671,-0.020746,-0.039916,,,,,,,,,,,,,,,,,,,,,,,,,,,,,,,,,,,,,,,,,,,,,,,,,,,,,,,,,,,,,,,,,
22725,1645818407.052334,1645818407.086,13.0,0.0,4241.538574,4543.077147999999,4200.512695,4299.487305,4216.922852000001,450.0,1.0,15.0,,,,0.0,4.0,0.0,2.0,0.0,4.0,16.666666,,,,,,,,,,,,,,,,,,,,,,,,,,,,,,,,,,,,,,,,,,,,,,,,,,,,,,,,,,,,,,,,,,,,,,,,,,,,,,,,,,,,
22726,1645818407.06015,1645818407.093815,14.0,0.0,4231.282227000001,4524.102539,4188.717772999999,4248.205078,4213.333496,450.0,1.0,15.0,,,,0.0,4.0,0.0,2.0,0.0,4.0,16.666666,,,,,,,,7.0,0.0,0.17017000000000002,0.6625979999999999,-0.085449,-0.7243649999999999,0.9423969999999999,-0.35108,-0.101564,-0.019747999999999998,-0.020722,-0.035387,,,,,,,,,,,,,,,,,,,,,,,,,,,,,,,,,,,,,,,,,,,,,,,,,,,,,,,,,,,,,,,,,
22727,1645818407.067966,1645818407.101529,15.0,0.0,4239.487305,4462.563965,4189.743652,4248.205078,4219.487305,16173.0,1.0,15.0,,,,0.0,4.0,0.0,2.0,0.0,4.0,16.666666,,,,,,,,,,,,,,,,,,,,1.0,0.0,0.0,,,,,,,,,,,,,,,,,,,,,,,,,,,,,,,,0.0,0.0,1.0,0.0,512.0,1.0,296.172546,27.495440000000002,3.1873970000000003,2.293763,2.951514,18.995844,15.342429000000001,21.068336,8.980042999999998,8.480578,1.995048,2.935818,5.228651999999999,1.414787,2.400939,207.849213,340.866058,241.104385,110.094421,689.8486330000001,72.416595,10.041941,4.622618,4.81516,5.327654
22728,1645818407.075782,1645818407.109344,16.0,0.0,4261.025879,4464.102539,4206.666504,4286.666504,4237.436035,0.0,1.0,15.0,,,,0.0,4.0,0.0,2.0,0.0,4.0,16.666666,,,,,,,,8.0,0.0,0.17017000000000002,0.6625979999999999,-0.085449,-0.7243649999999999,0.937514,-0.35352100000000003,-0.109377,-0.020117,-0.020603,-0.037464,,,,,,,,,,,,,,,,,,,,,,,,,,,,,,,,,,,,,,,,,,,,,,,,,,,,,,,,,,,,,,,,,
22729,1645818407.083599,1645818407.117159,17.0,0.0,4249.743652,4493.333496,4192.307617,4293.846191,4228.205078,0.0,1.0,15.0,,,,0.0,4.0,0.0,2.0,0.0,4.0,16.666666,,,,,,,,,,,,,,,,,,,,,,,,,,,,,,,,,,,,,,,,,,,,,,,,,,,,,,,,,,,,,,,,,,,,,,,,,,,,,,,,,,,,
22730,1645818407.091415,1645818407.124973,18.0,0.0,4227.179688,4491.282227000001,4163.077147999999,4300.512695,4191.794922,0.0,1.0,15.0,,,,0.0,4.0,0.0,2.0,0.0,4.0,16.666666,,,,,,,,9.0,0.0,0.170047,0.6625979999999999,-0.08569299999999999,-0.7243649999999999,0.937026,-0.355962,-0.105959,-0.020350999999999998,-0.020593,-0.033131,,,,,,,,,,,,,,,,,,,,,,,,,,,,,,,,,,,,,,,,,,,,,,,,,,,,,,,,,,,,,,,,,
22731,1645818407.099231,1645818407.1327882,19.0,0.0,4231.282227000001,4475.384765999999,4157.436035,4294.871582,4178.461426,0.0,1.0,15.0,,,,0.0,4.0,0.0,2.0,0.0,4.0,16.666666,,,,,,,,,,,,,,,,,,,,,,,,,,,,,,,,,,,,,,,,,,,,,,,,,,,,,,0.0,0.0,1.0,0.0,512.0,1.0,,,,,,,,,,,,,,,,,,,,,,,,,
22732,1645818407.107047,1645818407.1406028,20.0,0.0,4248.717772999999,4506.666504,4184.102539,4276.410156,4208.205078,0.0,1.0,15.0,,,,0.0,4.0,0.0,2.0,0.0,4.0,16.666666,,,,,,,,10.0,0.0,0.169004,0.6625979999999999,-0.08569299999999999,-0.7246090000000001,0.9506979999999999,-0.34815,-0.095705,-0.018365,-0.020585,-0.035482,,,,,,,,,,,,,,,,,,,,,,,,,,,,,,,,,,,,,,,,,,,,,,,,,,,,,,,,,,,,,,,,,
22733,1645818407.114864,1645818407.148417,21.0,0.0,4249.743652,4541.538574,4205.641113000001,4277.436035,4241.025879,0.0,1.0,15.0,,,,0.0,4.0,0.0,2.0,0.0,4.0,16.666666,,,,,,,,,,,,,,,,,,,,,,,,,,,,,,,,,,,,,,,,,,,,,,,,,,,,,,,,,,,,,,,,,,,,,,,,,,,,,,,,,,,,
22734,1645818407.1226802,1645818407.156232,22.0,0.0,4221.538574,4487.692383,4181.538574,4276.410156,4211.282227000001,0.0,1.0,15.0,,,,0.0,4.0,0.0,2.0,0.0,4.0,16.666666,,,,,,,,11.0,0.0,0.169004,0.6625979999999999,-0.08569299999999999,-0.7246090000000001,0.947768,-0.361334,-0.116701,-0.017212,-0.020577,-0.031348,,,,,,,,,,,,,,,,,,,,,,,,,,,,,,,,,,,,,,,,,,,,,,,,,,,,,,,,,,,,,,,,,
22735,1645818407.130496,1645818407.164047,23.0,0.0,4215.897461,4440.512695,4161.025879,4253.333496,4182.563965,0.0,1.0,15.0,,,,0.0,4.0,0.0,2.0,0.0,4.0,16.666666,,,,,,,,,,,,,,,,,,,,,,,,,,,,,,,,,,,,,,,,,,,,,,,,,,,,,,0.0,0.0,1.0,0.0,512.0,1.0,,,,,,,,,,,,,,,,,,,,,,,,,
22736,1645818407.1383119,1645818407.171861,24.0,0.0,4257.94873,4474.358886999999,4189.743652,4269.743652,4226.666504,0.0,1.0,15.0,,,,0.0,4.0,0.0,2.0,0.0,4.0,16.666666,,,,,,,,12.0,0.0,0.170047,0.6625979999999999,-0.08569299999999999,-0.7243649999999999,0.9463030000000001,-0.347173,-0.11035299999999999,-0.016222999999999998,-0.020569999999999998,-0.034024,,,,,,,,,,,,,,,,,,,,,,,,,,,,,,,,,,,,,,,,,,,,,,,,,,,,,,,,,,,,,,,,,
22737,1645818407.146129,1645818407.179576,25.0,0.0,4270.769043,4481.538574,4200.512695,4325.128418,4245.641113000001,0.0,1.0,15.0,,,,0.0,4.0,0.0,2.0,0.0,4.0,16.666666,,,,,,,,,,,,,,,,,,,,,,,,,,,,,,,,,,,,,,,,,,,,,,,,,,,,,,,,,,,,,,,,,,,,,,,,,,,,,,,,,,,,
22738,1645818407.153945,1645818407.187391,26.0,0.0,4237.94873,4463.589844,4180.0,4312.307617,4210.256348,0.0,1.0,15.0,,,,0.0,4.0,0.0,2.0,0.0,4.0,16.666666,,,,,,,,13.0,0.0,0.170047,0.6625979999999999,-0.08569299999999999,-0.7243649999999999,0.938003,-0.33789600000000003,-0.102052,-0.016994,-0.020564,-0.036335,,,,,,,,,,,,,,,,,,,,,,,,,,,,,,,,,,,,,,,,,,,,,,,,,,,,,,,,,,,,,,,,,
22739,1645818407.161761,1645818407.195205,27.0,0.0,4254.871582,4494.358886999999,4202.563965,4257.436035,4237.436035,0.0,1.0,15.0,,,,0.0,4.0,0.0,2.0,0.0,4.0,16.666666,,,,,,,,,,,,,,,,,,,,,,,,,,,,,,,,,,,,,,,,,,,,,,,,,,,,,,0.0,0.0,1.0,0.0,512.0,1.0,,,,,,,,,,,,,,,,,,,,,,,,,
22740,1645818407.169577,1645818407.2030199,28.0,0.0,4282.563965,4514.358886999999,4217.94873,4261.538574,4269.743652,0.0,1.0,15.0,,,,0.0,4.0,0.0,2.0,0.0,4.0,16.666666,,,,,,,,14.0,0.0,0.170047,0.6625979999999999,-0.08569299999999999,-0.7243649999999999,0.941421,-0.358892,-0.10254100000000001,-0.017588999999999997,-0.020607,-0.032164,,,,,,,,,,,,,,,,,,,,,,,,,,,,,,,,,,,,,,,,,,,,,,,,,,,,,,,,,,,,,,,,,
22741,1645818407.177393,1645818407.210835,29.0,0.0,4255.384765999999,4484.102539,4186.153809,4315.384765999999,4217.94873,0.0,1.0,15.0,,,,0.0,4.0,0.0,2.0,0.0,4.0,16.666666,,,,,,,,,,,,,,,,,,,,,,,,,,,,,,,,,,,,,,,,,,,,,,,,,,,,,,,,,,,,,,,,,,,,,,,,,,,,,,,,,,,,
22742,1645818407.18521,1645818407.218649,30.0,0.0,4244.615234000001,4474.358886999999,4177.94873,4334.358886999999,4193.333496,0.0,1.0,15.0,,,,0.0,4.0,0.0,2.0,0.0,4.0,16.666666,,,,,,,,15.0,0.0,0.170047,0.6625979999999999,-0.08569299999999999,-0.7243649999999999,0.9463030000000001,-0.347173,-0.11035299999999999,-0.015879,-0.020646,-0.034661000000000004,,,,,,,,,,,,,,,,,,,,,,,,,,,,,,,,,,,,,,,,,,,,,,,,,,,,,,,,,,,,,,,,,
22743,1645818407.193026,1645818407.226464,31.0,0.0,4273.846191,4515.897461,4194.358886999999,4291.282227000001,4236.410156,0.0,1.0,15.0,,,,0.0,4.0,0.0,2.0,0.0,4.0,16.666666,,,,,,,,,,,,,,,,,,,,1.0,0.0,0.0,,,,,,,,,,,,,,,,,,,,,,,,,,,,,,,,0.0,0.0,1.0,0.0,512.0,1.0,304.24703999999997,33.331635,3.060737,3.087561,3.14483,22.876513,15.832099,22.037976999999998,10.697308,9.8603,1.6784240000000001,3.9547190000000003,6.1849169999999996,1.701165,2.4397889999999998,224.70385699999997,362.810638,254.17059300000003,114.312973,729.0272219999999,77.014732,12.271723,4.618957,5.839405,5.702532
22744,1645818407.200842,1645818407.234278,32.0,0.0,4274.358886999999,4552.820313,4192.307617,4242.563965,4248.205078,0.0,1.0,15.0,,,,0.0,4.0,0.0,2.0,0.0,4.0,16.666666,,,,,,,,16.0,0.0,0.170047,0.6625979999999999,-0.08569299999999999,-0.7243649999999999,0.941421,-0.358892,-0.10254100000000001,-0.016586,-0.020681,-0.030657,,,,,,,,,,,,,,,,,,,,,,,,,,,,,,,,,,,,,,,,,,,,,,,,,,,,,,,,,,,,,,,,,
22745,1645818407.208658,1645818407.242093,33.0,0.0,4255.384765999999,4546.153809,4191.282227000001,4251.282227000001,4240.512695,0.0,1.0,15.0,,,,0.0,4.0,0.0,2.0,0.0,4.0,16.666666,,,,,,,,,,,,,,,,,,,,,,,,,,,,,,,,,,,,,,,,,,,,,,,,,,,,,,,,,,,,,,,,,,,,,,,,,,,,,,,,,,,,
22746,1645818407.216475,1645818407.249808,34.0,0.0,4261.025879,4474.871582,4197.436035,4279.487305,4248.205078,0.0,1.0,15.0,,,,0.0,4.0,0.0,2.0,0.0,4.0,16.666666,,,,,,,,17.0,0.0,0.169924,0.6625979999999999,-0.085938,-0.7243649999999999,0.931167,-0.364263,-0.101076,-0.01732,-0.020615,-0.027055000000000003,,,,,,,,,,,,,,,,,,,,,,,,,,,,,,,,,,,,,,,,,,,,,,,,,,,,,,,,,,,,,,,,,
22747,1645818407.224291,1645818407.257623,35.0,0.0,4270.256348,4423.077147999999,4197.94873,4284.615234000001,4243.077147999999,0.0,1.0,15.0,,,,0.0,4.0,0.0,2.0,0.0,4.0,16.666666,,,,,,,,,,,,,,,,,,,,,,,,,,,,,,,,,,,,,,,,,,,,,,,,,,,,,,0.0,0.0,1.0,0.0,512.0,1.0,,,,,,,,,,,,,,,,,,,,,,,,,
22748,1645818407.232107,1645818407.265437,36.0,0.0,4271.282227000001,4503.077147999999,4189.743652,4292.307617,4233.333496,0.0,1.0,15.0,,,,0.0,4.0,0.0,2.0,0.0,4.0,16.666666,,,,,,,,18.0,0.0,0.169924,0.6625979999999999,-0.085938,-0.7243649999999999,0.9355610000000001,-0.365728,-0.104005,-0.017834,-0.020653,-0.030012999999999998,,,,,,,,,,,,,,,,,,,,,,,,,,,,,,,,,,,,,,,,,,,,,,,,,,,,,,,,,,,,,,,,,
22749,1645818407.239923,1645818407.273252,37.0,0.0,4264.102539,4623.589844,4173.333496,4290.769043,4228.205078,0.0,1.0,15.0,,,,0.0,4.0,0.0,2.0,0.0,4.0,16.666666,,,,,,,,,,,,,,,,,,,,,,,,,,,,,,,,,,,,,,,,,,,,,,,,,,,,,,,,,,,,,,,,,,,,,,,,,,,,,,,,,,,,
22750,1645818407.247739,1645818407.281066,38.0,0.0,4277.436035,4599.487305,4189.743652,4246.666504,4246.153809,0.0,1.0,15.0,,,,0.0,4.0,0.0,2.0,0.0,4.0,16.666666,,,,,,,,19.0,0.0,0.169924,0.6625979999999999,-0.085938,-0.7243649999999999,0.937514,-0.358404,-0.11035299999999999,-0.018248,-0.020687999999999998,-0.026327999999999997,,,,,,,,,,,,,,,,,,,,,,,,,,,,,,,,,,,,,,,,,,,,,,,,,,,,,,,,,,,,,,,,,
22751,1645818407.255556,1645818407.288881,39.0,0.0,4308.205078,4527.692383,4222.563965,4233.333496,4264.102539,0.0,1.0,15.0,,,,0.0,4.0,0.0,2.0,0.0,4.0,16.666666,,,,,,,,,,,,,,,,,,,,,,,,,,,,,,,,,,,,,,,,,,,,,,,,,,,,,,0.0,0.0,1.0,0.0,512.0,1.0,,,,,,,,,,,,,,,,,,,,,,,,,
22752,1645818407.2633722,1645818407.2966962,40.0,0.0,4308.205078,4546.153809,4218.974121,4286.153809,4255.897461,0.0,1.0,15.0,,,,0.0,4.0,0.0,2.0,0.0,4.0,16.666666,,,,,,,,20.0,0.0,0.16888,0.6625979999999999,-0.085938,-0.7246090000000001,0.941909,-0.361334,-0.101076,-0.018816,-0.020766999999999997,-0.029408,,,,,,,,,,,,,,,,,,,,,,,,,,,,,,,,,,,,,,,,,,,,,,,,,,,,,,,,,,,,,,,,,
22753,1645818407.271188,1645818407.3045099,41.0,0.0,4269.230957,4544.615234000001,4198.461426,4316.410156,4231.282227000001,0.0,1.0,15.0,,,,0.0,4.0,0.0,2.0,0.0,4.0,16.666666,,,,,,,,,,,,,,,,,,,,,,,,,,,,,,,,,,,,,,,,,,,,,,,,,,,,,,,,,,,,,,,,,,,,,,,,,,,,,,,,,,,,
22754,1645818407.2790039,1645818407.312325,42.0,0.0,4252.307617,4553.333496,4202.563965,4294.871582,4217.94873,0.0,1.0,15.0,,,,0.0,4.0,0.0,2.0,0.0,4.0,16.666666,,,,,,,,21.0,0.0,0.169711,0.662354,-0.08618200000000001,-0.7246090000000001,0.9433739999999999,-0.34912600000000005,-0.101564,-0.019229,-0.020888,-0.025882,,,,,,,,,,,,,,,,,,,,,,,,,,,,,,,,,,,,,,,,,,,,,,,,,,,,,,,,,,,,,,,,,
22755,1645818407.2868211,1645818407.3201401,43.0,0.0,4280.0,4612.820313,4219.487305,4293.333496,4241.538574,0.0,1.0,15.0,,,,0.0,4.0,0.0,2.0,0.0,4.0,16.666666,,,,,,,,,,,,,,,,,,,,,,,,,,,,,,,,,,,,,,,,,,,,,,,,,,,,,,0.0,0.0,1.0,0.0,512.0,1.0,,,,,,,,,,,,,,,,,,,,,,,,,
22756,1645818407.294637,1645818407.327854,44.0,0.0,4305.641113000001,4586.666504,4227.179688,4311.794922,4269.743652,0.0,1.0,15.0,,,,0.0,4.0,0.0,2.0,0.0,4.0,16.666666,,,,,,,,22.0,0.0,0.169711,0.662354,-0.08618200000000001,-0.7246090000000001,0.94435,-0.340826,-0.10888800000000001,-0.01799,-0.02085,-0.029104,,,,,,,,,,,,,,,,,,,,,,,,,,,,,,,,,,,,,,,,,,,,,,,,,,,,,,,,,,,,,,,,,
22757,1645818407.302453,1645818407.335669,45.0,0.0,4291.282227000001,4509.230957,4213.333496,4301.538574,4251.282227000001,0.0,1.0,15.0,,,,0.0,4.0,0.0,2.0,0.0,4.0,16.666666,,,,,,,,,,,,,,,,,,,,,,,,,,,,,,,,,,,,,,,,,,,,,,,,,,,,,,,,,,,,,,,,,,,,,,,,,,,,,,,,,,,,
22758,1645818407.3102689,1645818407.343484,46.0,0.0,4261.538574,4522.05127,4186.666504,4265.641113000001,4209.743652,0.0,1.0,15.0,,,,0.0,4.0,0.0,2.0,0.0,4.0,16.666666,,,,,,,,23.0,0.0,0.169711,0.662354,-0.08618200000000001,-0.7246090000000001,0.9399559999999999,-0.347173,-0.104494,-0.018584,-0.020865,-0.031907,,,,,,,,,,,,,,,,,,,,,,,,,,,,,,,,,,,,,,,,,,,,,,,,,,,,,,,,,,,,,,,,,
22759,1645818407.318086,1645818407.351298,47.0,0.0,4259.487305,4560.512695,4183.077147999999,4207.692383,4214.358886999999,0.0,1.0,15.0,,,,0.0,4.0,0.0,2.0,0.0,4.0,16.666666,,,,,,,,,,,,,,,,,,,,1.0,0.0,0.0,,,,,,,,,,,,,,,,,,,,,,,,,,,,,,,,0.0,0.0,1.0,0.0,512.0,1.0,275.52340699999996,35.825089,2.7838540000000003,3.9656919999999998,3.172853,25.685914999999998,14.897263,22.829653,12.451553,11.470366,1.552165,4.75585,7.202431,2.156381,2.393407,209.33531200000002,332.013733,230.491852,102.255379,661.470093,72.064964,13.393641,4.554978,6.7997320000000006,5.608933
22760,1645818407.325902,1645818407.359113,48.0,0.0,4276.922852000001,4575.384765999999,4208.205078,4199.487305,4241.538574,0.0,1.0,15.0,,,,0.0,4.0,0.0,2.0,0.0,4.0,16.666666,,,,,,,,24.0,0.0,0.169711,0.662354,-0.08618200000000001,-0.7246090000000001,0.9433739999999999,-0.36084499999999997,-0.107424,-0.019216,-0.02078,-0.03438,,,,,,,,,,,,,,,,,,,,,,,,,,,,,,,,,,,,,,,,,,,,,,,,,,,,,,,,,,,,,,,,,
22761,1645818407.333718,1645818407.3669279,49.0,0.0,4283.077147999999,4619.487305,4213.846191,4268.205078,4235.897461,0.0,1.0,15.0,,,,0.0,4.0,0.0,2.0,0.0,4.0,16.666666,,,,,,,,,,,,,,,,,,,,,,,,,,,,,,,,,,,,,,,,,,,,,,,,,,,,,,,,,,,,,,,,,,,,,,,,,,,,,,,,,,,,
22762,1645818407.341534,1645818407.374742,50.0,0.0,4291.282227000001,4627.179688,4202.563965,4294.871582,4231.282227000001,0.0,1.0,15.0,,,,0.0,4.0,0.0,2.0,0.0,4.0,16.666666,,,,,,,,25.0,0.0,0.169711,0.662354,-0.08618200000000001,-0.7246090000000001,0.936049,-0.34766199999999997,-0.10009900000000001,-0.017343,-0.020606,-0.036704,,,,,,,,,,,,,,,,,,,,,,,,,,,,,,,,,,,,,,,,,,,,,,,,,,,,,,,,,,,,,,,,,
22763,1645818407.349351,1645818407.382557,51.0,0.0,4285.128418,4592.307617,4189.230957,4237.94873,4235.897461,0.0,1.0,15.0,,,,0.0,4.0,0.0,2.0,0.0,4.0,16.666666,,,,,,,,,,,,,,,,,,,,,,,,,,,,,,,,,,,,,,,,,,,,,,,,,,,,,,0.0,0.0,1.0,0.0,512.0,1.0,,,,,,,,,,,,,,,,,,,,,,,,,
22764,1645818407.357167,1645818407.390372,52.0,0.0,4273.333496,4591.282227000001,4182.05127,4236.922852000001,4232.820313,0.0,1.0,15.0,,,,0.0,4.0,0.0,2.0,0.0,4.0,16.666666,,,,,,,,26.0,0.0,0.169711,0.662354,-0.08618200000000001,-0.7246090000000001,0.939467,-0.358892,-0.11425999999999999,-0.018001,-0.020548,-0.032545,,,,,,,,,,,,,,,,,,,,,,,,,,,,,,,,,,,,,,,,,,,,,,,,,,,,,,,,,,,,,,,,,
22765,1645818407.364983,1645818407.3980858,53.0,0.0,4295.384765999999,4587.692383,4194.358886999999,4300.0,4241.025879,0.0,1.0,15.0,,,,0.0,4.0,0.0,2.0,0.0,4.0,16.666666,,,,,,,,,,,,,,,,,,,,,,,,,,,,,,,,,,,,,,,,,,,,,,,,,,,,,,,,,,,,,,,,,,,,,,,,,,,,,,,,,,,,
22766,1645818407.372799,1645818407.405901,54.0,0.0,4302.563965,4548.205078,4200.512695,4301.538574,4241.025879,0.0,1.0,15.0,,,,0.0,4.0,0.0,2.0,0.0,4.0,16.666666,,,,,,,,27.0,0.0,0.169711,0.662354,-0.08618200000000001,-0.7246090000000001,0.932631,-0.361822,-0.104494,-0.018594,-0.020397,-0.035004,,,,,,,,,,,,,,,,,,,,,,,,,,,,,,,,,,,,,,,,,,,,,,,,,,,,,,,,,,,,,,,,,
22767,1645818407.380616,1645818407.413716,55.0,0.0,4275.897461,4538.974121,4179.487305,4252.820313,4223.077147999999,0.0,1.0,15.0,,,,0.0,4.0,0.0,2.0,0.0,4.0,16.666666,,,,,,,,,,,,,,,,,,,,,,,,,,,,,,,,,,,,,,,,,,,,,,,,,,,,,,0.0,0.0,1.0,0.0,512.0,1.0,,,,,,,,,,,,,,,,,,,,,,,,,
22768,1645818407.388432,1645818407.42153,56.0,0.0,4281.538574,4565.128418,4183.077147999999,4243.589844,4224.102539,0.0,1.0,15.0,,,,0.0,4.0,0.0,2.0,0.0,4.0,16.666666,,,,,,,,28.0,0.0,0.168755,0.6625979999999999,-0.08618200000000001,-0.7246090000000001,0.9350729999999999,-0.350591,-0.107424,-0.019127,-0.020457,-0.037265,,,,,,,,,,,,,,,,,,,,,,,,,,,,,,,,,,,,,,,,,,,,,,,,,,,,,,,,,,,,,,,,,
22769,1645818407.396248,1645818407.429345,57.0,0.0,4312.820313,4571.794922,4209.230957,4268.717772999999,4252.820313,0.0,1.0,15.0,,,,0.0,4.0,0.0,2.0,0.0,4.0,16.666666,,,,,,,,,,,,,,,,,,,,,,,,,,,,,,,,,,,,,,,,,,,,,,,,,,,,,,,,,,,,,,,,,,,,,,,,,,,,,,,,,,,,
22770,1645818407.4040642,1645818407.43716,58.0,0.0,4290.769043,4552.820313,4180.512695,4285.128418,4234.871582,0.0,1.0,15.0,,,,0.0,4.0,0.0,2.0,0.0,4.0,16.666666,,,,,,,,29.0,0.0,0.1698,0.6625979999999999,-0.08618200000000001,-0.7243649999999999,0.95314,-0.365728,-0.10498199999999999,-0.019656,-0.020462,-0.039154,,,,,,,,,,,,,,,,,,,,,,,,,,,,,,,,,,,,,,,,,,,,,,,,,,,,,,,,,,,,,,,,,
22771,1645818407.41188,1645818407.444974,59.0,0.0,4275.897461,4505.641113000001,4161.025879,4277.94873,4208.205078,0.0,1.0,15.0,,,,0.0,4.0,0.0,2.0,0.0,4.0,16.666666,,,,,,,,,,,,,,,,,,,,,,,,,,,,,,,,,,,,,,,,,,,,,,,,,,,,,,0.0,0.0,1.0,0.0,512.0,1.0,,,,,,,,,,,,,,,,,,,,,,,,,
22772,1645818407.419697,1645818407.452789,60.0,0.0,4307.179688,4493.333496,4195.897461,4255.897461,4233.333496,0.0,1.0,15.0,,,,0.0,4.0,0.0,2.0,0.0,4.0,16.666666,,,,,,,,30.0,0.0,0.169924,0.6625979999999999,-0.085938,-0.7243649999999999,0.9438620000000001,-0.354009,-0.104005,-0.020083,-0.020516,-0.034700999999999996,,,,,,,,,,,,,,,,,,,,,,,,,,,,,,,,,,,,,,,,,,,,,,,,,,,,,,,,,,,,,,,,,
22773,1645818407.4275131,1645818407.460604,61.0,0.0,4308.205078,4568.717772999999,4209.743652,4256.922852000001,4247.692383,0.0,1.0,15.0,,,,0.0,4.0,0.0,2.0,0.0,4.0,16.666666,,,,,,,,,,,,,,,,,,,,,,,,,,,,,,,,,,,,,,,,,,,,,,,,,,,,,,,,,,,,,,,,,,,,,,,,,,,,,,,,,,,,
22774,1645818407.435329,1645818407.468418,62.0,0.0,4268.717772999999,4600.0,4173.333496,4283.589844,4218.974121,0.0,1.0,15.0,,,,0.0,4.0,0.0,2.0,0.0,4.0,16.666666,,,,,,,,31.0,0.0,0.168969,0.662842,-0.085938,-0.7243649999999999,0.937026,-0.359869,-0.10254100000000001,-0.020321000000000002,-0.020515000000000002,-0.036993,,,,,,,,,,,,,,,,,,,,,,,,,,,,,,,,,,,,,,,,,,,,,,,,,,,,,,,,,,,,,,,,,
22775,1645818407.443145,1645818407.476133,63.0,0.0,4265.641113000001,4528.717772999999,4167.692383,4298.461426,4218.461426,0.0,1.0,15.0,,,,0.0,4.0,0.0,4.0,0.0,4.0,33.333332,1.0,16.666666,3.0,0.0,2.0,0.0,3.0,,,,,,,,,,,,,1.0,0.0,0.0,,,,,,,,,,,,,,,,,,,,,,,,,,,,,,,,0.0,0.0,1.0,0.0,512.0,1.0,221.03794900000003,34.105156,2.47586,4.682266,3.044245,26.450571000000004,12.738215,23.224601999999997,13.849332,13.159846,1.496505,5.0798879999999995,8.160822,2.670429,2.268046,167.29908799999998,259.932404,178.88031,78.29084,511.416962,59.426494999999996,13.160069,4.353371,7.4318789999999995,5.109758
22776,1645818407.4509618,1645818407.483948,64.0,0.0,4296.922852000001,4491.794922,4194.871582,4277.94873,4231.794922,450.0,1.0,15.0,,,,0.0,4.0,0.0,4.0,0.0,4.0,33.333332,,,,,,,,32.0,0.0,0.170047,0.6625979999999999,-0.08569299999999999,-0.7243649999999999,0.941909,-0.35547399999999996,-0.107424,-0.020681,-0.020562999999999998,-0.032708,,,,,,,,,,,,,,,,,,,,,,,,,,,,,,,,,,,,,,,,,,,,,,,,,,,,,,,,,,,,,,,,,
22777,1645818407.458778,1645818407.491762,65.0,0.0,4290.256348,4566.666504,4200.0,4256.922852000001,4218.461426,450.0,1.0,15.0,,,,0.0,4.0,0.0,4.0,0.0,4.0,33.333332,,,,,,,,,,,,,,,,,,,,,,,,,,,,,,,,,,,,,,,,,,,,,,,,,,,,,,,,,,,,,,,,,,,,,,,,,,,,,,,,,,,,
22778,1645818407.466594,1645818407.499577,66.0,0.0,4271.794922,4639.487305,4195.897461,4254.358886999999,4227.692383,16189.0,1.0,15.0,,,,0.0,4.0,0.0,4.0,0.0,4.0,33.333332,,,,,,,,33.0,0.0,0.170047,0.6625979999999999,-0.08569299999999999,-0.7243649999999999,0.9331200000000001,-0.35352100000000003,-0.111818,-0.020957,-0.020655,-0.035199,,,,,,,,,,,,,,,,,,,,,,,,,,,,,,,,,,,,,,,,,,,,,,,,,,,,,,,,,,,,,,,,,
22779,1645818407.47441,1645818407.507392,67.0,0.0,4296.922852000001,4557.436035,4209.743652,4286.153809,4256.922852000001,450.0,1.0,15.0,,,,0.0,4.0,0.0,4.0,0.0,4.0,33.333332,,,,,,,,,,,,,,,,,,,,,,,,,,,,,,,,,,,,,,,,,,,,,,,,,,,,,,0.0,0.0,1.0,0.0,512.0,1.0,,,,,,,,,,,,,,,,,,,,,,,,,
22780,1645818407.482226,1645818407.515206,68.0,0.0,4313.846191,4445.641113000001,4212.820313,4319.487305,4250.256348,0.0,1.0,15.0,,,,0.0,4.0,0.0,4.0,0.0,4.0,33.333332,,,,,,,,34.0,0.0,0.170047,0.6625979999999999,-0.08569299999999999,-0.7243649999999999,0.9389790000000001,-0.354986,-0.11767799999999999,-0.021156,-0.020689,-0.031044,,,,,,,,,,,,,,,,,,,,,,,,,,,,,,,,,,,,,,,,,,,,,,,,,,,,,,,,,,,,,,,,,
22781,1645818407.490043,1645818407.523021,69.0,0.0,4285.641113000001,4501.025879,4190.256348,4292.307617,4227.692383,450.0,1.0,15.0,,,,0.0,4.0,0.0,4.0,0.0,4.0,33.333332,,,,,,,,,,,,,,,,,,,,,,,,,,,,,,,,,,,,,,,,,,,,,,,,,,,,,,,,,,,,,,,,,,,,,,,,,,,,,,,,,,,,
22782,1645818407.497859,1645818407.530835,70.0,0.0,4293.846191,4587.179688,4204.102539,4250.256348,4257.94873,16148.0,1.0,15.0,,,,0.0,4.0,0.0,4.0,0.0,4.0,33.333332,,,,,,,,35.0,0.0,0.170047,0.6625979999999999,-0.08569299999999999,-0.7243649999999999,0.9404440000000001,-0.359869,-0.11230599999999999,-0.019187,-0.020671000000000002,-0.033652999999999995,,,,,,,,,,,,,,,,,,,,,,,,,,,,,,,,,,,,,,,,,,,,,,,,,,,,,,,,,,,,,,,,,
22783,1645818407.505675,1645818407.53865,71.0,0.0,4319.487305,4516.922852000001,4228.205078,4260.512695,4282.563965,450.0,1.0,15.0,,,,0.0,4.0,0.0,4.0,0.0,4.0,33.333332,,,,,,,,,,,,,,,,,,,,,,,,,,,,,,,,,,,,,,,,,,,,,,,,,,,,,,0.0,0.0,1.0,0.0,512.0,1.0,,,,,,,,,,,,,,,,,,,,,,,,,
22784,1645818407.513492,1645818407.546465,72.0,0.0,4305.128418,4456.410156,4205.128418,4289.743652,4258.974121,450.0,1.0,15.0,,,,0.0,4.0,0.0,4.0,0.0,4.0,33.333332,,,,,,,,36.0,0.0,0.170047,0.6625979999999999,-0.08569299999999999,-0.7243649999999999,0.951675,-0.358404,-0.098634,-0.017366,-0.020606,-0.029799000000000003,,,,,,,,,,,,,,,,,,,,,,,,,,,,,,,,,,,,,,,,,,,,,,,,,,,,,,,,,,,,,,,,,
22785,1645818407.521308,1645818407.554179,73.0,0.0,4303.589844,4512.820313,4183.589844,4300.0,4251.794922,40.0,1.0,15.0,,,,0.0,4.0,0.0,4.0,1.0,4.0,41.666668,,,,,,,,,,,,,,,,,,,,,,,,,,,,,,,,,,,,,,,,,,,,,,,,,,,,,,,,,,,,,,,,,,,,,,,,,,,,,,,,,,,,
22786,1645818407.529124,1645818407.5619938,74.0,0.0,4320.512695,4515.897461,4185.641113000001,4287.692383,4262.05127,450.0,1.0,15.0,,,,0.0,4.0,0.0,4.0,1.0,4.0,41.666668,,,,,,,,37.0,0.0,0.169093,0.662842,-0.08569299999999999,-0.7243649999999999,0.9355610000000001,-0.350103,-0.1084,-0.017924000000000002,-0.020547,-0.032532,,,,,,,,,,,,,,,,,,,,,,,,,,,,,,,,,,,,,,,,,,,,,,,,,,,,,,,,,,,,,,,,,
22787,1645818407.53694,1645818407.569809,75.0,0.0,4301.025879,4506.153809,4177.94873,4235.384765999999,4241.025879,16186.0,1.0,15.0,,,,0.0,4.0,0.0,4.0,1.0,4.0,41.666668,,,,,,,,,,,,,,,,,,,,,,,,,,,,,,,,,,,,,,,,,,,,,,,,,,,,,,0.0,0.0,1.0,0.0,512.0,1.0,,,,,,,,,,,,,,,,,,,,,,,,,
22788,1645818407.5447571,1645818407.5776231,76.0,0.0,4264.615234000001,4546.153809,4164.102539,4190.769043,4199.487305,450.0,1.0,15.0,,,,0.0,4.0,0.0,4.0,1.0,4.0,41.666668,,,,,,,,38.0,0.0,0.169093,0.662842,-0.08569299999999999,-0.7243649999999999,0.948257,-0.341314,-0.099123,-0.018427000000000002,-0.020446000000000002,-0.028595,,,,,,,,,,,,,,,,,,,,,,,,,,,,,,,,,,,,,,,,,,,,,,,,,,,,,,,,,,,,,,,,,
22789,1645818407.552573,1645818407.585438,77.0,0.0,4269.230957,4521.025879,4188.205078,4220.0,4191.794922,450.0,1.0,15.0,,,,0.0,4.0,0.0,4.0,1.0,4.0,41.666668,,,,,,,,,,,,,,,,,,,,,,,,,,,,,,,,,,,,,,,,,,,,,,,,,,,,,,,,,,,,,,,,,,,,,,,,,,,,,,,,,,,,
