,Timestamp,OriginalTimestamp,EEG.Counter,EEG.Interpolated,EEG.AF3,EEG.T7,EEG.Pz,EEG.T8,EEG.AF4,EEG.RawCq,EEG.Battery,EEG.BatteryPercent,MarkerIndex,MarkerType,MarkerValueInt,EEG.MarkerHardware,CQ.AF3,CQ.T7,CQ.Pz,CQ.T8,CQ.AF4,CQ.Overall,EQ.SampleRateQuality,EQ.OVERALL,EQ.AF3,EQ.T7,EQ.Pz,EQ.T8,EQ.AF4,MOT.CounterMems,MOT.InterpolatedMems,MOT.Q0,MOT.Q1,MOT.Q2,MOT.Q3,MOT.AccX,MOT.AccY,MOT.AccZ,MOT.MagX,MOT.MagY,MOT.MagZ,MC.Action,MC.ActionPower,MC.IsActive,PM.Engagement.IsActive,PM.Engagement.Scaled,PM.Engagement.Raw,PM.Engagement.Min,PM.Engagement.Max,PM.Excitement.IsActive,PM.Excitement.Scaled,PM.Excitement.Raw,PM.Excitement.Min,PM.Excitement.Max,PM.LongTermExcitement,PM.Stress.IsActive,PM.Stress.Scaled,PM.Stress.Raw,PM.Stress.Min,PM.Stress.Max,PM.Relaxation.IsActive,PM.Relaxation.Scaled,PM.Relaxation.Raw,PM.Relaxation.Min,PM.Relaxation.Max,PM.Interest.IsActive,PM.Interest.Scaled,PM.Interest.Raw,PM.Interest.Min,PM.Interest.Max,PM.Focus.IsActive,PM.Focus.Scaled,PM.Focus.Raw,PM.Focus.Min,PM.Focus.Max,FE.BlinkWink,FE.HorizontalEyesDirection,FE.UpperFaceAction,FE.UpperFaceActionPower,FE.LowerFaceAction,FE.LowerFaceActionPower,POW.AF3.Theta,POW.AF3.Alpha,POW.AF3.BetaL,POW.AF3.BetaH,POW.AF3.Gamma,POW.T7.Theta,POW.T7.Alpha,POW.T7.BetaL,POW.T7.BetaH,POW.T7.Gamma,POW.Pz.Theta,POW.Pz.Alpha,POW.Pz.BetaL,POW.Pz.BetaH,POW.Pz.Gamma,POW.T8.Theta,POW.T8.Alpha,POW.T8.BetaL,POW.T8.BetaH,POW.T8.Gamma,POW.AF4.Theta,POW.AF4.Alpha,POW.AF4.BetaL,POW.AF4.BetaH,POW.AF4.Gamma
824,1645818235.8689392,1645818235.9457061,0.0,0.0,4272.307617,4634.871582,4203.589844,4377.436035,4264.615234000001,450.0,1.0,15.0,,,,0.0,4.0,0.0,4.0,1.0,4.0,41.666668,,,,,,,,0.0,0.0,0.18542999999999998,0.6193850000000001,-0.1521,-0.747559,0.877943,-0.458503,-0.193851,-0.018016,-0.026126,-0.039804,,,,,,,,,,,,,,,,,,,,,,,,,,,,,,,,,,,,,,,,,,,,,,,,,,,,,,,,,,,,,,,,,
825,1645818235.876755,1645818235.953521,1.0,0.0,4287.179688,4673.333496,4209.230957,4353.846191,4279.487305,450.0,1.0,15.0,,,,0.0,4.0,0.0,4.0,1.0,4.0,41.666668,,,,,,,,,,,,,,,,,,,,,,,,,,,,,,,,,,,,,,,,,,,,,,,,,,,,,,,,,,,,,,,,,,,,,,,,,,,,,,,,,,,,
826,1645818235.884571,1645818235.961235,2.0,0.0,4234.358886999999,4706.153809,4158.461426,4304.615234000001,4231.282227000001,16239.0,1.0,15.0,,,,0.0,4.0,0.0,4.0,1.0,4.0,41.666668,,,,,,,,1.0,0.0,0.18526099999999998,0.6191409999999999,-0.1521,-0.747803,0.8803850000000001,-0.451667,-0.194339,-0.018411,-0.026247000000000003,-0.035286,,,,,,,,,,,,,,,,,,,,,,,,,,,,,,,,,,,,,,,,,,,,,,,,,,,,,,,,,,,,,,,,,
827,1645818235.892388,1645818235.96905,3.0,0.0,4191.282227000001,4715.897461,4136.922852000001,4311.282227000001,4195.384765999999,450.0,1.0,15.0,,,,0.0,4.0,0.0,4.0,1.0,4.0,41.666668,,,,,,,,,,,,,,,,,,,,,,,,,,,,,,,,,,,,,,,,,,,,,,,,,,,,,,0.0,0.0,1.0,0.0,512.0,1.0,,,,,,,,,,,,,,,,,,,,,,,,,
828,1645818235.900204,1645818235.976864,4.0,0.0,4221.025879,4722.05127,4170.256348,4320.512695,4218.461426,37.0,1.0,15.0,,,,0.0,4.0,0.0,4.0,1.0,4.0,41.666668,,,,,,,,2.0,0.0,0.18526099999999998,0.6191409999999999,-0.1521,-0.747803,0.8847790000000001,-0.45215500000000003,-0.19531500000000002,-0.018816,-0.026211,-0.03752,,,,,,,,,,,,,,,,,,,,,,,,,,,,,,,,,,,,,,,,,,,,,,,,,,,,,,,,,,,,,,,,,
829,1645818235.90802,1645818235.9845788,5.0,0.0,4256.410156,4692.820313,4188.205078,4318.461426,4240.512695,450.0,1.0,15.0,,,,0.0,4.0,0.0,4.0,0.0,4.0,33.333332,,,,,,,,,,,,,,,,,,,,,,,,,,,,,,,,,,,,,,,,,,,,,,,,,,,,,,,,,,,,,,,,,,,,,,,,,,,,,,,,,,,,
830,1645818235.9158359,1645818235.992393,6.0,0.0,4241.538574,4671.282227000001,4173.333496,4331.282227000001,4227.179688,16137.0,1.0,15.0,,,,0.0,4.0,0.0,4.0,0.0,4.0,33.333332,,,,,,,,3.0,0.0,0.185091,0.618896,-0.1521,-0.748047,0.882338,-0.443366,-0.18701500000000001,-0.017521000000000002,-0.026373,-0.039529,,,,,,,,,,,,,,,,,,,,,,,,,,,,,,,,,,,,,,,,,,,,,,,,,,,,,,,,,,,,,,,,,
831,1645818235.923653,1645818236.000207,7.0,0.0,4226.153809,4665.128418,4159.487305,4333.846191,4211.794922,450.0,1.0,15.0,,,,0.0,4.0,0.0,4.0,0.0,4.0,33.333332,,,,,,,,,,,,,,,,,,,,,,,,,,,,,,,,,,,,,,,,,,,,,,,,,,,,,,0.0,0.0,1.0,0.0,512.0,1.0,,,,,,,,,,,,,,,,,,,,,,,,,
832,1645818235.931469,1645818236.008022,8.0,0.0,4239.487305,4639.487305,4158.974121,4305.128418,4217.94873,450.0,1.0,15.0,,,,0.0,4.0,0.0,4.0,0.0,4.0,33.333332,,,,,,,,4.0,0.0,0.185091,0.618896,-0.1521,-0.748047,0.882826,-0.451667,-0.195804,-0.016355,-0.026372000000000003,-0.041289,,,,,,,,,,,,,,,,,,,,,,,,,,,,,,,,,,,,,,,,,,,,,,,,,,,,,,,,,,,,,,,,,
833,1645818235.939285,1645818236.015836,9.0,0.0,4272.307617,4657.436035,4185.128418,4295.897461,4251.794922,32.0,1.0,15.0,,,,0.0,4.0,0.0,4.0,0.0,4.0,33.333332,,,,,,,,,,,,,,,,,,,,,,,,,,,,,,,,,,,,,,,,,,,,,,,,,,,,,,,,,,,,,,,,,,,,,,,,,,,,,,,,,,,,
834,1645818235.9471009,1645818236.023651,10.0,0.0,4282.05127,4685.128418,4209.230957,4302.05127,4268.717772999999,450.0,1.0,15.0,,,,0.0,4.0,0.0,4.0,0.0,4.0,33.333332,,,,,,,,5.0,0.0,0.184102,0.618896,-0.1521,-0.748291,0.878431,-0.45069,-0.195804,-0.01677,-0.026372000000000003,-0.042922,,,,,,,,,,,,,,,,,,,,,,,,,,,,,,,,,,,,,,,,,,,,,,,,,,,,,,,,,,,,,,,,,
835,1645818235.954918,1645818236.0313652,11.0,0.0,4251.794922,4668.717772999999,4190.769043,4295.384765999999,4241.538574,16198.0,1.0,15.0,,,,0.0,4.0,0.0,4.0,0.0,4.0,33.333332,,,,,,,,,,,,,,,,,,,,,,,,,,,,,,,,,,,,,,,,,,,,,,,,,,,,,,0.0,0.0,1.0,0.0,512.0,1.0,,,,,,,,,,,,,,,,,,,,,,,,,
836,1645818235.962734,1645818236.03918,12.0,0.0,4238.461426,4690.256348,4155.384765999999,4310.769043,4220.0,450.0,1.0,15.0,,,,0.0,4.0,0.0,4.0,0.0,4.0,33.333332,,,,,,,,6.0,0.0,0.184102,0.618896,-0.1521,-0.748291,0.8872209999999999,-0.45215500000000003,-0.186038,-0.01729,-0.026371,-0.044343,,,,,,,,,,,,,,,,,,,,,,,,,,,,,,,,,,,,,,,,,,,,,,,,,,,,,,,,,,,,,,,,,
837,1645818235.97055,1645818236.046994,13.0,0.0,4261.025879,4733.333496,4153.333496,4323.589844,4235.384765999999,450.0,1.0,15.0,,,,0.0,4.0,0.0,4.0,0.0,4.0,33.333332,,,,,,,,,,,,,,,,,,,,,,,,,,,,,,,,,,,,,,,,,,,,,,,,,,,,,,,,,,,,,,,,,,,,,,,,,,,,,,,,,,,,
838,1645818235.978366,1645818236.054808,14.0,0.0,4264.615234000001,4693.846191,4178.974121,4317.94873,4243.077147999999,450.0,1.0,15.0,,,,0.0,4.0,0.0,4.0,0.0,4.0,33.333332,,,,,,,,7.0,0.0,0.1839,0.618896,-0.152344,-0.748291,0.882338,-0.43799499999999997,-0.18555,-0.01771,-0.026371,-0.03942,,,,,,,,,,,,,,,,,,,,,,,,,,,,,,,,,,,,,,,,,,,,,,,,,,,,,,,,,,,,,,,,,
839,1645818235.986183,1645818236.062623,15.0,0.0,4240.0,4677.94873,4175.897461,4312.820313,4217.436035,16198.0,1.0,15.0,,,,0.0,4.0,0.0,4.0,0.0,4.0,33.333332,,,,,,,,,,,,,,,,,,,,1.0,0.0,0.0,,,,,,,,,,,,,,,,,,,,,,,,,,,,,,,,0.0,0.0,1.0,0.0,512.0,1.0,1.973386,1.342498,2.260958,2.893375,1.561313,24.608339,15.171807000000001,24.505507,16.292498000000002,13.502417999999999,1.703943,1.283287,0.8566090000000001,2.626104,1.500875,1.980532,2.166829,9.16122,2.454447,2.176512,2.7042610000000002,1.797525,2.158662,3.4542269999999995,2.608848
840,1645818235.993999,1645818236.070437,16.0,0.0,4240.512695,4751.794922,4164.615234000001,4332.820313,4211.282227000001,0.0,1.0,15.0,,,,0.0,4.0,0.0,4.0,0.0,4.0,33.333332,,,,,,,,8.0,0.0,0.1839,0.618896,-0.152344,-0.748291,0.882826,-0.451667,-0.20068699999999998,-0.018136000000000003,-0.026371,-0.041289,,,,,,,,,,,,,,,,,,,,,,,,,,,,,,,,,,,,,,,,,,,,,,,,,,,,,,,,,,,,,,,,,
841,1645818236.001815,1645818236.0782518,17.0,0.0,4253.333496,4761.025879,4176.922852000001,4328.205078,4245.641113000001,0.0,1.0,15.0,,,,0.0,4.0,0.0,4.0,0.0,4.0,33.333332,,,,,,,,,,,,,,,,,,,,,,,,,,,,,,,,,,,,,,,,,,,,,,,,,,,,,,,,,,,,,,,,,,,,,,,,,,,,,,,,,,,,
842,1645818236.0096312,1645818236.086066,18.0,0.0,4243.077147999999,4704.615234000001,4173.846191,4287.692383,4248.205078,0.0,1.0,15.0,,,,0.0,4.0,0.0,4.0,0.0,4.0,33.333332,,,,,,,,9.0,0.0,0.1839,0.618896,-0.152344,-0.748291,0.886732,-0.448737,-0.197269,-0.01852,-0.026322,-0.036672,,,,,,,,,,,,,,,,,,,,,,,,,,,,,,,,,,,,,,,,,,,,,,,,,,,,,,,,,,,,,,,,,
843,1645818236.017447,1645818236.0938802,19.0,0.0,4228.205078,4694.358886999999,4144.102539,4297.436035,4204.615234000001,0.0,1.0,15.0,,,,0.0,4.0,0.0,4.0,0.0,4.0,33.333332,,,,,,,,,,,,,,,,,,,,,,,,,,,,,,,,,,,,,,,,,,,,,,,,,,,,,,0.0,0.0,1.0,0.0,512.0,1.0,,,,,,,,,,,,,,,,,,,,,,,,,
844,1645818236.025264,1645818236.101595,20.0,0.0,4216.410156,4705.641113000001,4135.384765999999,4315.384765999999,4185.128418,0.0,1.0,15.0,,,,0.0,4.0,0.0,4.0,0.0,4.0,33.333332,,,,,,,,10.0,0.0,0.184273,0.6191409999999999,-0.1521,-0.748047,0.887709,-0.44531899999999996,-0.192386,-0.018865,-0.026326,-0.032614,,,,,,,,,,,,,,,,,,,,,,,,,,,,,,,,,,,,,,,,,,,,,,,,,,,,,,,,,,,,,,,,,
845,1645818236.03308,1645818236.109409,21.0,0.0,4226.666504,4682.05127,4163.589844,4307.692383,4211.794922,0.0,1.0,15.0,,,,0.0,4.0,0.0,4.0,0.0,4.0,33.333332,,,,,,,,,,,,,,,,,,,,,,,,,,,,,,,,,,,,,,,,,,,,,,,,,,,,,,,,,,,,,,,,,,,,,,,,,,,,,,,,,,,,
846,1645818236.0408962,1645818236.117224,22.0,0.0,4243.589844,4658.974121,4173.333496,4305.641113000001,4223.589844,0.0,1.0,15.0,,,,0.0,4.0,0.0,4.0,0.0,4.0,33.333332,,,,,,,,11.0,0.0,0.184273,0.6191409999999999,-0.1521,-0.748047,0.885267,-0.431159,-0.192386,-0.017662,-0.026233,-0.035261,,,,,,,,,,,,,,,,,,,,,,,,,,,,,,,,,,,,,,,,,,,,,,,,,,,,,,,,,,,,,,,,,
847,1645818236.048712,1645818236.1250381,23.0,0.0,4256.922852000001,4634.358886999999,4171.794922,4314.871582,4230.256348,0.0,1.0,15.0,,,,0.0,4.0,0.0,4.0,0.0,4.0,33.333332,,,,,,,,,,,,,,,,,,,,,,,,,,,,,,,,,,,,,,,,,,,,,,,,,,,,,,0.0,0.0,1.0,0.0,512.0,1.0,,,,,,,,,,,,,,,,,,,,,,,,,
848,1645818236.0565288,1645818236.132853,24.0,0.0,4257.436035,4621.538574,4175.384765999999,4302.05127,4240.512695,0.0,1.0,15.0,,,,0.0,4.0,0.0,4.0,0.0,4.0,33.333332,,,,,,,,12.0,0.0,0.184273,0.6191409999999999,-0.1521,-0.748047,0.8838030000000001,-0.43946,-0.181643,-0.016531,-0.026148,-0.037497,,,,,,,,,,,,,,,,,,,,,,,,,,,,,,,,,,,,,,,,,,,,,,,,,,,,,,,,,,,,,,,,,
849,1645818236.064345,1645818236.140667,25.0,0.0,4245.128418,4669.743652,4165.128418,4268.717772999999,4221.025879,0.0,1.0,15.0,,,,0.0,4.0,0.0,4.0,0.0,4.0,33.333332,,,,,,,,,,,,,,,,,,,,,,,,,,,,,,,,,,,,,,,,,,,,,,,,,,,,,,,,,,,,,,,,,,,,,,,,,,,,,,,,,,,,
850,1645818236.072161,1645818236.1484811,26.0,0.0,4235.897461,4698.461426,4149.230957,4279.487305,4196.410156,0.0,1.0,15.0,,,,0.0,4.0,0.0,4.0,0.0,4.0,33.333332,,,,,,,,13.0,0.0,0.184273,0.6191409999999999,-0.1521,-0.748047,0.887709,-0.44531899999999996,-0.192386,-0.016977000000000003,-0.02617,-0.033356,,,,,,,,,,,,,,,,,,,,,,,,,,,,,,,,,,,,,,,,,,,,,,,,,,,,,,,,,,,,,,,,,
851,1645818236.079977,1645818236.156296,27.0,0.0,4243.077147999999,4683.077147999999,4157.94873,4295.384765999999,4214.358886999999,0.0,1.0,15.0,,,,0.0,4.0,0.0,4.0,0.0,4.0,33.333332,,,,,,,,,,,,,,,,,,,,,,,,,,,,,,,,,,,,,,,,,,,,,,,,,,,,,,0.0,0.0,1.0,0.0,512.0,1.0,,,,,,,,,,,,,,,,,,,,,,,,,
852,1645818236.0877929,1645818236.16411,28.0,0.0,4264.615234000001,4682.563965,4180.0,4284.102539,4251.282227000001,0.0,1.0,15.0,,,,0.0,4.0,0.0,4.0,0.0,4.0,33.333332,,,,,,,,14.0,0.0,0.184273,0.6191409999999999,-0.1521,-0.748047,0.8838030000000001,-0.43946,-0.181643,-0.015913999999999998,-0.026092,-0.035782999999999995,,,,,,,,,,,,,,,,,,,,,,,,,,,,,,,,,,,,,,,,,,,,,,,,,,,,,,,,,,,,,,,,,
853,1645818236.09561,1645818236.171925,29.0,0.0,4267.179688,4690.256348,4182.563965,4291.794922,4252.307617,0.0,1.0,15.0,,,,0.0,4.0,0.0,4.0,0.0,4.0,33.333332,,,,,,,,,,,,,,,,,,,,,,,,,,,,,,,,,,,,,,,,,,,,,,,,,,,,,,,,,,,,,,,,,,,,,,,,,,,,,,,,,,,,
854,1645818236.103426,1645818236.179639,30.0,0.0,4242.05127,4666.153809,4154.871582,4314.358886999999,4219.487305,0.0,1.0,15.0,,,,0.0,4.0,0.0,4.0,0.0,4.0,33.333332,,,,,,,,15.0,0.0,0.184273,0.6191409999999999,-0.1521,-0.748047,0.8715950000000001,-0.446784,-0.192874,-0.016423,-0.026119999999999997,-0.031814,,,,,,,,,,,,,,,,,,,,,,,,,,,,,,,,,,,,,,,,,,,,,,,,,,,,,,,,,,,,,,,,,
855,1645818236.111242,1645818236.187454,31.0,0.0,4220.0,4645.641113000001,4127.179688,4302.05127,4189.230957,0.0,1.0,15.0,,,,0.0,4.0,0.0,4.0,0.0,4.0,33.333332,,,,,,,,,,,,,,,,,,,,1.0,0.0,0.0,,,,,,,,,,,,,,,,,,,,,,,,,,,,,,,,0.0,0.0,1.0,0.0,512.0,1.0,2.293458,1.819925,2.22358,2.9809259999999997,1.6784720000000002,27.134239,15.333085999999998,21.690632,15.713405999999999,13.219239000000002,1.231895,1.515952,0.8086939999999999,2.752872,1.44289,1.493248,2.083675,7.573527,2.516517,2.278673,2.739457,2.190665,2.24614,3.329019,2.867255
856,1645818236.119058,1645818236.195268,32.0,0.0,4237.436035,4661.538574,4149.230957,4272.307617,4201.538574,0.0,1.0,15.0,,,,0.0,4.0,0.0,4.0,0.0,4.0,33.333332,,,,,,,,16.0,0.0,0.184474,0.6191409999999999,-0.151855,-0.748047,0.8930799999999999,-0.45410900000000004,-0.19336199999999998,-0.016978,-0.026194,-0.028242000000000003,,,,,,,,,,,,,,,,,,,,,,,,,,,,,,,,,,,,,,,,,,,,,,,,,,,,,,,,,,,,,,,,,
857,1645818236.126875,1645818236.203082,33.0,0.0,4266.666504,4685.128418,4185.128418,4282.563965,4234.358886999999,0.0,1.0,15.0,,,,0.0,4.0,0.0,4.0,0.0,4.0,33.333332,,,,,,,,,,,,,,,,,,,,,,,,,,,,,,,,,,,,,,,,,,,,,,,,,,,,,,,,,,,,,,,,,,,,,,,,,,,,,,,,,,,,
858,1645818236.134691,1645818236.210897,34.0,0.0,4257.94873,4669.230957,4175.384765999999,4290.256348,4235.897461,0.0,1.0,15.0,,,,0.0,4.0,0.0,4.0,0.0,4.0,33.333332,,,,,,,,17.0,0.0,0.184474,0.6191409999999999,-0.151855,-0.748047,0.877943,-0.457527,-0.183108,-0.017477,-0.026309,-0.03113,,,,,,,,,,,,,,,,,,,,,,,,,,,,,,,,,,,,,,,,,,,,,,,,,,,,,,,,,,,,,,,,,
859,1645818236.142507,1645818236.218711,35.0,0.0,4240.512695,4607.179688,4161.025879,4296.410156,4215.384765999999,0.0,1.0,15.0,,,,0.0,4.0,0.0,4.0,0.0,4.0,33.333332,,,,,,,,,,,,,,,,,,,,,,,,,,,,,,,,,,,,,,,,,,,,,,,,,,,,,,0.0,0.0,1.0,0.0,512.0,1.0,,,,,,,,,,,,,,,,,,,,,,,,,
860,1645818236.150324,1645818236.226526,36.0,0.0,4253.846191,4623.589844,4172.307617,4273.333496,4215.384765999999,0.0,1.0,15.0,,,,0.0,4.0,0.0,4.0,0.0,4.0,33.333332,,,,,,,,18.0,0.0,0.184644,0.6193850000000001,-0.151855,-0.747803,0.8886850000000001,-0.45020200000000005,-0.17969000000000002,-0.016364,-0.026363,-0.033779,,,,,,,,,,,,,,,,,,,,,,,,,,,,,,,,,,,,,,,,,,,,,,,,,,,,,,,,,,,,,,,,,
861,1645818236.15814,1645818236.23434,37.0,0.0,4258.461426,4703.589844,4165.128418,4248.717772999999,4222.563965,0.0,1.0,15.0,,,,0.0,4.0,0.0,4.0,0.0,4.0,33.333332,,,,,,,,,,,,,,,,,,,,,,,,,,,,,,,,,,,,,,,,,,,,,,,,,,,,,,,,,,,,,,,,,,,,,,,,,,,,,,,,,,,,
862,1645818236.165956,1645818236.242154,38.0,0.0,4244.615234000001,4729.743652,4149.230957,4298.974121,4218.974121,0.0,1.0,15.0,,,,0.0,4.0,0.0,4.0,0.0,4.0,33.333332,,,,,,,,19.0,0.0,0.184443,0.6193850000000001,-0.1521,-0.747803,0.8808729999999999,-0.453132,-0.19336199999999998,-0.016876,-0.026510000000000002,-0.036261,,,,,,,,,,,,,,,,,,,,,,,,,,,,,,,,,,,,,,,,,,,,,,,,,,,,,,,,,,,,,,,,,
863,1645818236.173772,1645818236.249969,39.0,0.0,4245.128418,4724.615234000001,4161.025879,4312.307617,4224.615234000001,0.0,1.0,15.0,,,,0.0,4.0,0.0,4.0,0.0,4.0,33.333332,,,,,,,,,,,,,,,,,,,,,,,,,,,,,,,,,,,,,,,,,,,,,,,,,,,,,,0.0,0.0,1.0,0.0,512.0,1.0,,,,,,,,,,,,,,,,,,,,,,,,,
864,1645818236.1815882,1645818236.257683,40.0,0.0,4258.974121,4700.0,4181.538574,4271.794922,4241.538574,0.0,1.0,15.0,,,,0.0,4.0,0.0,4.0,0.0,4.0,33.333332,,,,,,,,20.0,0.0,0.18542999999999998,0.6193850000000001,-0.1521,-0.747559,0.8842909999999999,-0.453132,-0.18115499999999998,-0.017337,-0.026447000000000002,-0.038396,,,,,,,,,,,,,,,,,,,,,,,,,,,,,,,,,,,,,,,,,,,,,,,,,,,,,,,,,,,,,,,,,
865,1645818236.189405,1645818236.2654982,41.0,0.0,4247.692383,4697.436035,4167.692383,4300.512695,4224.102539,0.0,1.0,15.0,,,,0.0,4.0,0.0,4.0,0.0,4.0,33.333332,,,,,,,,,,,,,,,,,,,,,,,,,,,,,,,,,,,,,,,,,,,,,,,,,,,,,,,,,,,,,,,,,,,,,,,,,,,,,,,,,,,,
866,1645818236.197221,1645818236.2733119,42.0,0.0,4242.05127,4732.307617,4158.974121,4340.0,4206.153809,0.0,1.0,15.0,,,,0.0,4.0,0.0,4.0,0.0,4.0,33.333332,,,,,,,,21.0,0.0,0.18542999999999998,0.6193850000000001,-0.1521,-0.747559,0.8759899999999999,-0.446296,-0.18701500000000001,-0.017752,-0.026537,-0.04027,,,,,,,,,,,,,,,,,,,,,,,,,,,,,,,,,,,,,,,,,,,,,,,,,,,,,,,,,,,,,,,,,
867,1645818236.2050369,1645818236.281127,43.0,0.0,4267.692383,4714.358886999999,4185.128418,4298.461426,4238.974121,0.0,1.0,15.0,,,,0.0,4.0,0.0,4.0,0.0,4.0,33.333332,,,,,,,,,,,,,,,,,,,,,,,,,,,,,,,,,,,,,,,,,,,,,,,,,,,,,,0.0,0.0,1.0,0.0,512.0,1.0,,,,,,,,,,,,,,,,,,,,,,,,,
868,1645818236.212853,1645818236.288941,44.0,0.0,4257.94873,4653.846191,4181.025879,4290.769043,4243.077147999999,0.0,1.0,15.0,,,,0.0,4.0,0.0,4.0,0.0,4.0,33.333332,,,,,,,,22.0,0.0,0.18542999999999998,0.6193850000000001,-0.1521,-0.747559,0.8686659999999999,-0.44971400000000006,-0.183597,-0.018027,-0.02652,-0.035706,,,,,,,,,,,,,,,,,,,,,,,,,,,,,,,,,,,,,,,,,,,,,,,,,,,,,,,,,,,,,,,,,
869,1645818236.22067,1645818236.296755,45.0,0.0,4227.692383,4665.128418,4152.820313,4315.897461,4199.487305,0.0,1.0,15.0,,,,0.0,4.0,0.0,4.0,0.0,4.0,33.333332,,,,,,,,,,,,,,,,,,,,,,,,,,,,,,,,,,,,,,,,,,,,,,,,,,,,,,,,,,,,,,,,,,,,,,,,,,,,,,,,,,,,
870,1645818236.2284858,1645818236.30457,46.0,0.0,4253.846191,4697.94873,4174.358886999999,4325.641113000001,4220.512695,0.0,1.0,15.0,,,,0.0,4.0,0.0,4.0,0.0,4.0,33.333332,,,,,,,,23.0,0.0,0.18523,0.6193850000000001,-0.152344,-0.747559,0.8921030000000001,-0.449226,-0.184085,-0.01852,-0.026554,-0.037946,,,,,,,,,,,,,,,,,,,,,,,,,,,,,,,,,,,,,,,,,,,,,,,,,,,,,,,,,,,,,,,,,
871,1645818236.236302,1645818236.312384,47.0,0.0,4273.333496,4691.794922,4190.256348,4342.563965,4259.487305,0.0,1.0,15.0,,,,0.0,4.0,0.0,4.0,0.0,4.0,33.333332,,,,,,,,,,,,,,,,,,,,1.0,0.0,0.0,,,,,,,,,,,,,,,,,,,,,,,,,,,,,,,,0.0,0.0,1.0,0.0,512.0,1.0,2.600117,2.350032,2.107999,2.929914,1.796425,28.855543,17.880292999999998,19.805183,14.789889000000002,13.352928,1.132252,1.732427,0.8814299999999999,2.8155740000000002,1.458974,1.5345799999999998,2.289901,5.727064,2.64482,2.471041,2.656315,2.520685,2.256206,3.0952330000000003,3.0817099999999997
872,1645818236.244118,1645818236.320199,48.0,0.0,4223.589844,4666.666504,4145.128418,4338.974121,4205.128418,0.0,1.0,15.0,,,,0.0,4.0,0.0,4.0,0.0,4.0,33.333332,,,,,,,,24.0,0.0,0.18523,0.6193850000000001,-0.152344,-0.747559,0.886732,-0.45264399999999994,-0.171389,-0.018865,-0.026535000000000003,-0.033761,,,,,,,,,,,,,,,,,,,,,,,,,,,,,,,,,,,,,,,,,,,,,,,,,,,,,,,,,,,,,,,,,
873,1645818236.251935,1645818236.3280132,49.0,0.0,4209.230957,4633.333496,4128.205078,4337.94873,4176.410156,0.0,1.0,15.0,,,,0.0,4.0,0.0,4.0,0.0,4.0,33.333332,,,,,,,,,,,,,,,,,,,,,,,,,,,,,,,,,,,,,,,,,,,,,,,,,,,,,,,,,,,,,,,,,,,,,,,,,,,,,,,,,,,,
874,1645818236.259751,1645818236.335728,50.0,0.0,4255.384765999999,4665.641113000001,4165.641113000001,4333.846191,4234.871582,0.0,1.0,15.0,,,,0.0,4.0,0.0,4.0,0.0,4.0,33.333332,,,,,,,,25.0,0.0,0.18424200000000002,0.6193850000000001,-0.152344,-0.747803,0.894057,-0.45655,-0.201175,-0.019127,-0.026518,-0.02975,,,,,,,,,,,,,,,,,,,,,,,,,,,,,,,,,,,,,,,,,,,,,,,,,,,,,,,,,,,,,,,,,
875,1645818236.267567,1645818236.343542,51.0,0.0,4262.05127,4751.282227000001,4174.358886999999,4281.025879,4246.666504,0.0,1.0,15.0,,,,0.0,4.0,0.0,4.0,0.0,4.0,33.333332,,,,,,,,,,,,,,,,,,,,,,,,,,,,,,,,,,,,,,,,,,,,,,,,,,,,,,0.0,0.0,1.0,0.0,512.0,1.0,,,,,,,,,,,,,,,,,,,,,,,,,
876,1645818236.275383,1645818236.351356,52.0,0.0,4240.0,4756.410156,4155.384765999999,4293.846191,4211.282227000001,0.0,1.0,15.0,,,,0.0,4.0,0.0,4.0,0.0,4.0,33.333332,,,,,,,,26.0,0.0,0.18506,0.6191409999999999,-0.152344,-0.747803,0.886244,-0.455085,-0.186038,-0.017849,-0.026552,-0.032488,,,,,,,,,,,,,,,,,,,,,,,,,,,,,,,,,,,,,,,,,,,,,,,,,,,,,,,,,,,,,,,,,
877,1645818236.283199,1645818236.3591712,53.0,0.0,4251.794922,4674.358886999999,4163.589844,4346.153809,4232.307617,0.0,1.0,15.0,,,,0.0,4.0,0.0,4.0,0.0,4.0,33.333332,,,,,,,,,,,,,,,,,,,,,,,,,,,,,,,,,,,,,,,,,,,,,,,,,,,,,,,,,,,,,,,,,,,,,,,,,,,,,,,,,,,,
878,1645818236.291016,1645818236.3669848,54.0,0.0,4257.94873,4651.794922,4169.230957,4294.871582,4251.282227000001,0.0,1.0,15.0,,,,0.0,4.0,0.0,4.0,0.0,4.0,33.333332,,,,,,,,27.0,0.0,0.184859,0.6191409999999999,-0.152588,-0.747803,0.8798959999999999,-0.46778100000000006,-0.186526,-0.01831,-0.026534,-0.035001,,,,,,,,,,,,,,,,,,,,,,,,,,,,,,,,,,,,,,,,,,,,,,,,,,,,,,,,,,,,,,,,,
879,1645818236.298832,1645818236.3748,55.0,0.0,4248.205078,4706.153809,4153.333496,4286.153809,4232.820313,0.0,1.0,15.0,,,,0.0,4.0,0.0,4.0,0.0,4.0,33.333332,,,,,,,,,,,,,,,,,,,,,,,,,,,,,,,,,,,,,,,,,,,,,,,,,,,,,,0.0,0.0,1.0,0.0,512.0,1.0,,,,,,,,,,,,,,,,,,,,,,,,,
880,1645818236.306648,1645818236.3826141,56.0,0.0,4254.871582,4699.487305,4154.358886999999,4355.384765999999,4231.794922,0.0,1.0,15.0,,,,0.0,4.0,0.0,4.0,0.0,4.0,33.333332,,,,,,,,28.0,0.0,0.184859,0.6191409999999999,-0.152588,-0.747803,0.8930799999999999,-0.44824899999999995,-0.186038,-0.018628,-0.026517000000000002,-0.031061000000000002,,,,,,,,,,,,,,,,,,,,,,,,,,,,,,,,,,,,,,,,,,,,,,,,,,,,,,,,,,,,,,,,,
881,1645818236.314464,1645818236.3904278,57.0,0.0,4269.230957,4648.205078,4174.871582,4324.615234000001,4237.94873,0.0,1.0,15.0,,,,0.0,4.0,0.0,4.0,0.0,4.0,33.333332,,,,,,,,,,,,,,,,,,,,,,,,,,,,,,,,,,,,,,,,,,,,,,,,,,,,,,,,,,,,,,,,,,,,,,,,,,,,,,,,,,,,
882,1645818236.3222811,1645818236.398143,58.0,0.0,4254.358886999999,4662.563965,4159.487305,4274.358886999999,4215.384765999999,0.0,1.0,15.0,,,,0.0,4.0,0.0,4.0,0.0,4.0,33.333332,,,,,,,,29.0,0.0,0.184657,0.6191409999999999,-0.152832,-0.747803,0.878431,-0.458991,-0.188968,-0.0174,-0.026452999999999997,-0.033668000000000003,,,,,,,,,,,,,,,,,,,,,,,,,,,,,,,,,,,,,,,,,,,,,,,,,,,,,,,,,,,,,,,,,
883,1645818236.330097,1645818236.405957,59.0,0.0,4238.974121,4683.589844,4141.538574,4317.94873,4205.128418,0.0,1.0,15.0,,,,0.0,4.0,0.0,4.0,0.0,4.0,33.333332,,,,,,,,,,,,,,,,,,,,,,,,,,,,,,,,,,,,,,,,,,,,,,,,,,,,,,0.0,0.0,1.0,0.0,512.0,1.0,,,,,,,,,,,,,,,,,,,,,,,,,
884,1645818236.337913,1645818236.413772,60.0,0.0,4264.615234000001,4649.743652,4171.794922,4317.94873,4236.922852000001,0.0,1.0,15.0,,,,0.0,4.0,0.0,4.0,0.0,4.0,33.333332,,,,,,,,30.0,0.0,0.184657,0.6191409999999999,-0.152832,-0.747803,0.8989389999999999,-0.45020200000000005,-0.183597,-0.017808,-0.026396,-0.036014,,,,,,,,,,,,,,,,,,,,,,,,,,,,,,,,,,,,,,,,,,,,,,,,,,,,,,,,,,,,,,,,,
885,1645818236.3457289,1645818236.421586,61.0,0.0,4293.333496,4685.641113000001,4200.0,4288.205078,4260.512695,0.0,1.0,15.0,,,,0.0,4.0,0.0,4.0,0.0,4.0,33.333332,,,,,,,,,,,,,,,,,,,,,,,,,,,,,,,,,,,,,,,,,,,,,,,,,,,,,,,,,,,,,,,,,,,,,,,,,,,,,,,,,,,,
886,1645818236.3535461,1645818236.4294,62.0,0.0,4284.102539,4723.077147999999,4178.461426,4314.358886999999,4253.333496,0.0,1.0,15.0,,,,0.0,4.0,0.0,4.0,0.0,4.0,33.333332,,,,,,,,31.0,0.0,0.184657,0.6191409999999999,-0.152832,-0.747803,0.8842909999999999,-0.43897200000000003,-0.186038,-0.016613,-0.026393,-0.038126,,,,,,,,,,,,,,,,,,,,,,,,,,,,,,,,,,,,,,,,,,,,,,,,,,,,,,,,,,,,,,,,,
887,1645818236.361362,1645818236.437215,63.0,0.0,4272.307617,4652.820313,4162.05127,4311.794922,4251.794922,0.0,1.0,15.0,,,,0.0,4.0,0.0,4.0,0.0,4.0,33.333332,0.96875,33.333332,4.0,0.0,4.0,0.0,4.0,,,,,,,,,,,,,1.0,0.0,0.0,,,,,,,,,,,,,,,,,,,,,,,,,,,,,,,,0.0,0.0,1.0,0.0,512.0,1.0,2.721875,2.857738,2.041127,2.751793,1.9284290000000002,34.259365,20.970617,18.890041,13.531923999999998,13.683292999999999,1.216464,1.8886830000000001,1.133212,2.791275,1.572214,1.80444,2.586125,4.124962,2.796951,2.636751,2.376734,2.677849,2.2326759999999997,2.803836,3.220457
888,1645818236.3691778,1645818236.445029,64.0,0.0,4287.179688,4645.641113000001,4187.692383,4297.94873,4265.128418,450.0,1.0,15.0,,,,0.0,4.0,0.0,4.0,0.0,4.0,33.333332,,,,,,,,32.0,0.0,0.184657,0.6191409999999999,-0.152832,-0.747803,0.8960100000000001,-0.44531899999999996,-0.176272,-0.017197999999999998,-0.026488,-0.040075,,,,,,,,,,,,,,,,,,,,,,,,,,,,,,,,,,,,,,,,,,,,,,,,,,,,,,,,,,,,,,,,,
889,1645818236.376994,1645818236.452744,65.0,0.0,4281.538574,4697.94873,4199.487305,4323.077147999999,4252.820313,450.0,1.0,15.0,,,,0.0,4.0,1.0,4.0,0.0,4.0,41.666668,,,,,,,,,,,,,,,,,,,,,,,,,,,,,,,,,,,,,,,,,,,,,,,,,,,,,,,,,,,,,,,,,,,,,,,,,,,,,,,,,,,,
890,1645818236.384811,1645818236.460558,66.0,0.0,4248.205078,4674.871582,4172.307617,4312.307617,4215.897461,16228.0,1.0,15.0,,,,0.0,4.0,1.0,4.0,0.0,4.0,41.666668,,,,,,,,33.0,0.0,0.18448699999999998,0.618896,-0.152832,-0.748047,0.8847790000000001,-0.447272,-0.180667,-0.017676,-0.026476,-0.03553,,,,,,,,,,,,,,,,,,,,,,,,,,,,,,,,,,,,,,,,,,,,,,,,,,,,,,,,,,,,,,,,,
891,1645818236.392627,1645818236.468373,67.0,0.0,4235.384765999999,4640.0,4160.0,4309.230957,4202.563965,450.0,1.0,15.0,,,,0.0,4.0,1.0,4.0,0.0,4.0,41.666668,,,,,,,,,,,,,,,,,,,,,,,,,,,,,,,,,,,,,,,,,,,,,,,,,,,,,,0.0,0.0,1.0,0.0,512.0,1.0,,,,,,,,,,,,,,,,,,,,,,,,,
892,1645818236.400443,1645818236.476187,68.0,0.0,4241.025879,4659.487305,4174.358886999999,4351.794922,4218.974121,70.0,1.0,15.0,,,,0.0,4.0,1.0,4.0,0.0,4.0,41.666668,,,,,,,,34.0,0.0,0.18448699999999998,0.618896,-0.152832,-0.748047,0.881849,-0.45215500000000003,-0.18555,-0.016592,-0.026612,-0.037933999999999996,,,,,,,,,,,,,,,,,,,,,,,,,,,,,,,,,,,,,,,,,,,,,,,,,,,,,,,,,,,,,,,,,
893,1645818236.408259,1645818236.484001,69.0,0.0,4246.666504,4656.410156,4173.846191,4327.692383,4229.230957,450.0,1.0,15.0,,,,0.0,4.0,1.0,4.0,0.0,4.0,41.666668,,,,,,,,,,,,,,,,,,,,,,,,,,,,,,,,,,,,,,,,,,,,,,,,,,,,,,,,,,,,,,,,,,,,,,,,,,,,,,,,,,,,
894,1645818236.416076,1645818236.491816,70.0,0.0,4288.717772999999,4624.615234000001,4176.922852000001,4291.794922,4251.794922,16135.0,1.0,15.0,,,,0.0,4.0,1.0,4.0,0.0,4.0,41.666668,,,,,,,,35.0,0.0,0.184657,0.6191409999999999,-0.152832,-0.747803,0.8960100000000001,-0.455085,-0.181643,-0.017179,-0.026538,-0.033701999999999996,,,,,,,,,,,,,,,,,,,,,,,,,,,,,,,,,,,,,,,,,,,,,,,,,,,,,,,,,,,,,,,,,
895,1645818236.423892,1645818236.49963,71.0,0.0,4336.922852000001,4613.333496,4186.666504,4323.589844,4274.871582,450.0,1.0,15.0,,,,0.0,4.0,1.0,4.0,0.0,4.0,41.666668,,,,,,,,,,,,,,,,,,,,,,,,,,,,,,,,,,,,,,,,,,,,,,,,,,,,,,0.0,0.0,1.0,0.0,512.0,1.0,,,,,,,,,,,,,,,,,,,,,,,,,
896,1645818236.431708,1645818236.5074449,72.0,0.0,4349.743652,4628.205078,4169.743652,4317.94873,4280.0,450.0,1.0,15.0,,,,0.0,4.0,1.0,4.0,0.0,4.0,41.666668,,,,,,,,36.0,0.0,0.18448699999999998,0.618896,-0.152832,-0.748047,0.885267,-0.45264399999999994,-0.182132,-0.01756,-0.02657,-0.036044,,,,,,,,,,,,,,,,,,,,,,,,,,,,,,,,,,,,,,,,,,,,,,,,,,,,,,,,,,,,,,,,,
897,1645818236.439524,1645818236.515259,73.0,0.0,4403.589844,4667.692383,4160.0,4261.025879,4310.256348,26.0,1.0,15.0,,,,0.0,4.0,1.0,4.0,0.0,4.0,41.666668,,,,,,,,,,,,,,,,,,,,,,,,,,,,,,,,,,,,,,,,,,,,,,,,,,,,,,,,,,,,,,,,,,,,,,,,,,,,,,,,,,,,
898,1645818236.44734,1645818236.523073,74.0,0.0,4540.512695,4693.846191,4188.717772999999,4261.025879,4386.666504,450.0,1.0,15.0,,,,0.0,4.0,1.0,4.0,0.0,4.0,41.666668,,,,,,,,37.0,0.0,0.18448699999999998,0.618896,-0.152832,-0.748047,0.882338,-0.44824899999999995,-0.180179,-0.017904,-0.02655,-0.038202,,,,,,,,,,,,,,,,,,,,,,,,,,,,,,,,,,,,,,,,,,,,,,,,,,,,,,,,,,,,,,,,,
899,1645818236.455157,1645818236.5307882,75.0,0.0,4646.666504,4705.641113000001,4179.487305,4300.512695,4435.897461,16202.0,1.0,15.0,,,,0.0,4.0,1.0,4.0,0.0,4.0,41.666668,,,,,,,,,,,,,,,,,,,,,,,,,,,,,,,,,,,,,,,,,,,,,,,,,,,,,,0.0,0.0,1.0,0.0,512.0,1.0,,,,,,,,,,,,,,,,,,,,,,,,,
900,1645818236.462973,1645818236.5386019,76.0,0.0,4687.179688,4684.615234000001,4137.94873,4306.153809,4447.179688,450.0,1.0,15.0,,,,0.0,4.0,1.0,4.0,0.0,4.0,41.666668,,,,,,,,38.0,0.0,0.18448699999999998,0.618896,-0.152832,-0.748047,0.892592,-0.45557299999999995,-0.192874,-0.016748,-0.026532,-0.033893,,,,,,,,,,,,,,,,,,,,,,,,,,,,,,,,,,,,,,,,,,,,,,,,,,,,,,,,,,,,,,,,,
901,1645818236.470789,1645818236.546417,77.0,0.0,4759.487305,4599.487305,4157.94873,4297.94873,4490.769043,450.0,1.0,15.0,,,,0.0,4.0,1.0,4.0,0.0,4.0,41.666668,,,,,,,,,,,,,,,,,,,,,,,,,,,,,,,,,,,,,,,,,,,,,,,,,,,,,,,,,,,,,,,,,,,,,,,,,,,,,,,,,,,,
902,1645818236.478605,1645818236.5542312,78.0,0.0,4830.769043,4574.358886999999,4198.461426,4313.333496,4536.410156,450.0,1.0,15.0,,,,0.0,4.0,1.0,4.0,0.0,4.0,41.666668,,,,,,,,39.0,0.0,0.18448699999999998,0.618896,-0.152832,-0.748047,0.8803850000000001,-0.437018,-0.196292,-0.015562000000000001,-0.026514999999999997,-0.036168,,,,,,,,,,,,,,,,,,,,,,,,,,,,,,,,,,,,,,,,,,,,,,,,,,,,,,,,,,,,,,,,,
903,1645818236.486422,1645818236.562046,79.0,0.0,4828.205078,4687.692383,4181.025879,4320.512695,4536.922852000001,16202.0,1.0,15.0,,,,0.0,4.0,1.0,4.0,0.0,4.0,41.666668,,,,,,,,,,,,,,,,,,,,1.0,0.0,0.0,,,,,,,,,,,,,,,,,,,,,,,,,,,,,,,,0.0,0.0,1.0,0.0,512.0,0.821918,2.834457,3.235024,2.1073470000000003,2.498021,2.085444,38.049309,23.202816000000002,18.573545000000003,12.090883999999999,13.812719,1.422379,1.968548,1.548268,2.69709,1.771194,2.18224,2.8447080000000002,3.0929919999999997,2.924798,2.710326,2.011876,2.618513,2.2310950000000003,2.5384290000000003,3.2822660000000003
904,1645818236.4942381,1645818236.56986,80.0,0.0,4815.384765999999,4749.230957,4173.333496,4301.538574,4529.230957,450.0,1.0,15.0,,,,0.0,4.0,1.0,4.0,0.0,4.0,41.666668,,,,,,,,40.0,0.0,0.183666,0.6191409999999999,-0.152832,-0.748047,0.8881969999999999,-0.440925,-0.190921,-0.014688999999999999,-0.026501,-0.038411,,,,,,,,,,,,,,,,,,,,,,,,,,,,,,,,,,,,,,,,,,,,,,,,,,,,,,,,,,,,,,,,,
905,1645818236.502054,1645818236.577674,81.0,0.0,4837.94873,4680.512695,4210.256348,4302.563965,4548.717772999999,450.0,1.0,15.0,,,,0.0,4.0,1.0,4.0,0.0,4.0,41.666668,,,,,,,,,,,,,,,,,,,,,,,,,,,,,,,,,,,,,,,,,,,,,,,,,,,,,,,,,,,,,,,,,,,,,,,,,,,,,,,,,,,,
906,1645818236.5098698,1645818236.585489,82.0,0.0,4838.974121,4666.666504,4217.94873,4325.128418,4568.717772999999,450.0,1.0,15.0,,,,0.0,4.0,1.0,4.0,0.0,4.0,41.666668,,,,,,,,41.0,0.0,0.18448699999999998,0.618896,-0.152832,-0.748047,0.892592,-0.45557299999999995,-0.192874,-0.015465999999999999,-0.026487,-0.040283,,,,,,,,,,,,,,,,,,,,,,,,,,,,,,,,,,,,,,,,,,,,,,,,,,,,,,,,,,,,,,,,,
907,1645818236.517686,1645818236.593303,83.0,0.0,4801.025879,4704.615234000001,4192.307617,4316.410156,4553.333496,16202.0,1.0,15.0,,,,0.0,4.0,1.0,4.0,0.0,4.0,41.666668,,,,,,,,,,,,,,,,,,,,,,,,,,,,,,,,,,,,,,,,,,,,,,,,,,,,,,0.0,0.0,1.0,0.0,512.0,0.821918,,,,,,,,,,,,,,,,,,,,,,,,,
908,1645818236.525503,1645818236.601018,84.0,0.0,4741.538574,4664.102539,4178.461426,4330.256348,4515.897461,450.0,1.0,15.0,,,,0.0,4.0,1.0,4.0,0.0,4.0,41.666668,,,,,,,,42.0,0.0,0.183666,0.6191409999999999,-0.152832,-0.748047,0.8881969999999999,-0.440925,-0.190921,-0.014603,-0.026475,-0.042114,,,,,,,,,,,,,,,,,,,,,,,,,,,,,,,,,,,,,,,,,,,,,,,,,,,,,,,,,,,,,,,,,
909,1645818236.533319,1645818236.6088321,85.0,0.0,4685.641113000001,4617.94873,4191.282227000001,4356.410156,4499.487305,450.0,1.0,15.0,,,,0.0,4.0,1.0,4.0,0.0,4.0,41.666668,,,,,,,,,,,,,,,,,,,,,,,,,,,,,,,,,,,,,,,,,,,,,,,,,,,,,,,,,,,,,,,,,,,,,,,,,,,,,,,,,,,,
910,1645818236.541135,1645818236.616647,86.0,0.0,4649.230957,4658.974121,4207.179688,4308.205078,4482.05127,450.0,1.0,15.0,,,,0.0,4.0,1.0,4.0,0.0,4.0,41.666668,,,,,,,,43.0,0.0,0.183666,0.6191409999999999,-0.152832,-0.748047,0.894057,-0.446296,-0.19677999999999998,-0.015194,-0.026562,-0.043615,,,,,,,,,,,,,,,,,,,,,,,,,,,,,,,,,,,,,,,,,,,,,,,,,,,,,,,,,,,,,,,,,
911,1645818236.5489519,1645818236.624461,87.0,0.0,4589.743652,4711.282227000001,4196.922852000001,4252.820313,4431.794922,16202.0,1.0,15.0,,,,0.0,4.0,1.0,4.0,0.0,4.0,41.666668,,,,,,,,,,,,,,,,,,,,,,,,,,,,,,,,,,,,,,,,,,,,,,,,,,,,,,0.0,0.0,1.0,0.0,512.0,0.821918,,,,,,,,,,,,,,,,,,,,,,,,,
912,1645818236.556768,1645818236.632275,88.0,0.0,4519.487305,4695.384765999999,4185.128418,4300.512695,4407.692383,450.0,1.0,15.0,,,,0.0,4.0,1.0,4.0,0.0,4.0,41.666668,,,,,,,,44.0,0.0,0.183045,0.6193850000000001,-0.152588,-0.748047,0.8842909999999999,-0.449226,-0.18555,-0.015921,-0.026494,-0.045016,,,,,,,,,,,,,,,,,,,,,,,,,,,,,,,,,,,,,,,,,,,,,,,,,,,,,,,,,,,,,,,,,
913,1645818236.564584,1645818236.64009,89.0,0.0,4506.153809,4682.563965,4209.743652,4363.589844,4424.615234000001,450.0,1.0,15.0,,,,0.0,4.0,1.0,4.0,0.0,4.0,41.666668,,,,,,,,,,,,,,,,,,,,,,,,,,,,,,,,,,,,,,,,,,,,,,,,,,,,,,,,,,,,,,,,,,,,,,,,,,,,,,,,,,,,
914,1645818236.5724,1645818236.647904,90.0,0.0,4489.743652,4721.025879,4210.256348,4313.333496,4400.0,450.0,1.0,15.0,,,,0.0,4.0,1.0,4.0,0.0,4.0,41.666668,,,,,,,,45.0,0.0,0.183248,0.6193850000000001,-0.152344,-0.748047,0.8847790000000001,-0.446784,-0.18457300000000001,-0.016477000000000002,-0.02653,-0.040124,,,,,,,,,,,,,,,,,,,,,,,,,,,,,,,,,,,,,,,,,,,,,,,,,,,,,,,,,,,,,,,,,
915,1645818236.580217,1645818236.655719,91.0,0.0,4413.333496,4707.692383,4166.153809,4279.487305,4343.589844,16202.0,1.0,15.0,,,,0.0,4.0,1.0,4.0,0.0,4.0,41.666668,,,,,,,,,,,,,,,,,,,,,,,,,,,,,,,,,,,,,,,,,,,,,,,,,,,,,,10.0,0.0,1.0,0.0,512.0,0.821918,,,,,,,,,,,,,,,,,,,,,,,,,
916,1645818236.588033,1645818236.663533,92.0,0.0,4366.666504,4644.615234000001,4158.461426,4340.0,4330.769043,450.0,1.0,15.0,,,,0.0,4.0,1.0,4.0,0.0,4.0,41.666668,,,,,,,,46.0,0.0,0.183248,0.6193850000000001,-0.152344,-0.748047,0.882826,-0.45069,-0.19531500000000002,-0.016929,-0.026465,-0.041824,,,,,,,,,,,,,,,,,,,,,,,,,,,,,,,,,,,,,,,,,,,,,,,,,,,,,,,,,,,,,,,,,
917,1645818236.595849,1645818236.671248,93.0,0.0,4365.128418,4691.282227000001,4190.256348,4330.769043,4327.692383,450.0,1.0,15.0,,,,0.0,4.0,1.0,4.0,0.0,4.0,41.666668,,,,,,,,,,,,,,,,,,,,,,,,,,,,,,,,,,,,,,,,,,,,,,,,,,,,,,,,,,,,,,,,,,,,,,,,,,,,,,,,,,,,
918,1645818236.603665,1645818236.679062,94.0,0.0,4329.230957,4748.205078,4189.743652,4240.512695,4285.128418,450.0,1.0,15.0,,,,0.0,4.0,1.0,4.0,0.0,4.0,41.666668,,,,,,,,47.0,0.0,0.183451,0.6193850000000001,-0.1521,-0.748047,0.8764780000000001,-0.447272,-0.19971,-0.017385,-0.026552999999999997,-0.043355,,,,,,,,,,,,,,,,,,,,,,,,,,,,,,,,,,,,,,,,,,,,,,,,,,,,,,,,,,,,,,,,,
919,1645818236.611481,1645818236.686876,95.0,0.0,4301.538574,4688.205078,4190.256348,4257.94873,4271.794922,16202.0,1.0,15.0,,,,0.0,4.0,1.0,4.0,0.0,4.0,41.666668,,,,,,,,,,,,,,,,,,,,1.0,0.0,0.0,,,,,,,,,,,,,,,,,,,,,,,,,,,,,,,,10.0,0.0,1.0,0.0,512.0,0.685167,3.9821660000000003,3.556027,2.309798,2.237676,2.272571,42.427132,24.162445,18.105261,10.714936,13.468341,1.6729479999999999,1.957655,2.021938,2.5780279999999998,2.019816,2.618601,2.962855,2.625982,2.9804470000000003,2.7206360000000003,1.969609,2.3974599999999997,2.29799,2.399906,3.303989
920,1645818236.619298,1645818236.694691,96.0,0.0,4305.641113000001,4715.384765999999,4209.743652,4353.846191,4290.256348,450.0,1.0,15.0,,,,0.0,4.0,1.0,4.0,0.0,4.0,41.666668,,,,,,,,48.0,0.0,0.183653,0.6193850000000001,-0.151855,-0.748047,0.882826,-0.44971400000000006,-0.18945599999999999,-0.017746,-0.026486000000000003,-0.038629000000000004,,,,,,,,,,,,,,,,,,,,,,,,,,,,,,,,,,,,,,,,,,,,,,,,,,,,,,,,,,,,,,,,,
921,1645818236.627114,1645818236.702505,97.0,0.0,4261.538574,4823.077147999999,4192.307617,4373.333496,4258.461426,450.0,1.0,15.0,,,,0.0,4.0,1.0,4.0,0.0,4.0,41.666668,,,,,,,,,,,,,,,,,,,,,,,,,,,,,,,,,,,,,,,,,,,,,,,,,,,,,,,,,,,,,,,,,,,,,,,,,,,,,,,,,,,,
922,1645818236.6349301,1645818236.71032,98.0,0.0,4216.410156,4804.102539,4170.769043,4318.974121,4225.128418,450.0,1.0,15.0,,,,0.0,4.0,1.0,4.0,0.0,4.0,41.666668,,,,,,,,49.0,0.0,0.183854,0.6193850000000001,-0.151611,-0.748047,0.881849,-0.44434300000000004,-0.18555,-0.016606,-0.026523,-0.034375,,,,,,,,,,,,,,,,,,,,,,,,,,,,,,,,,,,,,,,,,,,,,,,,,,,,,,,,,,,,,,,,,
923,1645818236.6427462,1645818236.718134,99.0,0.0,4223.077147999999,4743.077147999999,4193.333496,4282.563965,4238.974121,16202.0,1.0,15.0,,,,0.0,4.0,1.0,4.0,0.0,4.0,41.666668,,,,,,,,,,,,,,,,,,,,,,,,,,,,,,,,,,,,,,,,,,,,,,,,,,,,,,10.0,0.0,1.0,0.0,512.0,0.685167,,,,,,,,,,,,,,,,,,,,,,,,,
924,1645818236.650563,1645818236.725948,100.0,0.0,4223.077147999999,4732.820313,4207.692383,4307.692383,4238.974121,450.0,1.0,15.0,,,,0.0,4.0,1.0,4.0,0.0,4.0,41.666668,,,,,,,,50.0,0.0,0.183854,0.6193850000000001,-0.151611,-0.748047,0.882826,-0.441413,-0.193851,-0.015580000000000002,-0.026507,-0.036699,,,,,,,,,,,,,,,,,,,,,,,,,,,,,,,,,,,,,,,,,,,,,,,,,,,,,,,,,,,,,,,,,
925,1645818236.6583788,1645818236.733763,101.0,0.0,4199.487305,4698.974121,4188.205078,4325.641113000001,4215.897461,450.0,1.0,15.0,,,,0.0,4.0,1.0,4.0,0.0,4.0,41.666668,,,,,,,,,,,,,,,,,,,,,,,,,,,,,,,,,,,,,,,,,,,,,,,,,,,,,,,,,,,,,,,,,,,,,,,,,,,,,,,,,,,,
926,1645818236.666195,1645818236.741577,102.0,0.0,4221.538574,4680.0,4189.230957,4288.717772999999,4235.897461,450.0,1.0,15.0,,,,0.0,4.0,1.0,4.0,0.0,4.0,41.666668,,,,,,,,51.0,0.0,0.183854,0.6193850000000001,-0.151611,-0.748047,0.8838030000000001,-0.451179,-0.186526,-0.016219,-0.026591000000000004,-0.038791,,,,,,,,,,,,,,,,,,,,,,,,,,,,,,,,,,,,,,,,,,,,,,,,,,,,,,,,,,,,,,,,,
927,1645818236.674011,1645818236.749292,103.0,0.0,4280.0,4709.230957,4200.0,4286.153809,4280.512695,16202.0,1.0,15.0,,,,0.0,4.0,1.0,4.0,0.0,4.0,41.666668,,,,,,,,,,,,,,,,,,,,,,,,,,,,,,,,,,,,,,,,,,,,,,,,,,,,,,10.0,0.0,1.0,0.0,512.0,0.685167,,,,,,,,,,,,,,,,,,,,,,,,,
928,1645818236.681827,1645818236.757106,104.0,0.0,4362.563965,4711.282227000001,4198.461426,4344.615234000001,4331.282227000001,450.0,1.0,15.0,,,,0.0,4.0,1.0,4.0,0.0,4.0,41.666668,,,,,,,,52.0,0.0,0.183854,0.6193850000000001,-0.151611,-0.748047,0.889174,-0.44434300000000004,-0.194827,-0.016844,-0.026470999999999998,-0.034473000000000004,,,,,,,,,,,,,,,,,,,,,,,,,,,,,,,,,,,,,,,,,,,,,,,,,,,,,,,,,,,,,,,,,
929,1645818236.6896439,1645818236.7649212,105.0,0.0,4484.615234000001,4710.769043,4203.077147999999,4341.538574,4385.641113000001,450.0,1.0,15.0,,,,0.0,4.0,1.0,4.0,0.0,4.0,41.666668,,,,,,,,,,,,,,,,,,,,,,,,,,,,,,,,,,,,,,,,,,,,,,,,,,,,,,,,,,,,,,,,,,,,,,,,,,,,,,,,,,,,
930,1645818236.69746,1645818236.7727349,106.0,0.0,4607.179688,4746.153809,4211.282227000001,4290.769043,4426.153809,450.0,1.0,15.0,,,,0.0,4.0,1.0,4.0,0.0,4.0,41.666668,,,,,,,,53.0,0.0,0.183653,0.6193850000000001,-0.151855,-0.748047,0.8896620000000001,-0.44776099999999996,-0.194827,-0.015843,-0.026558,-0.036787,,,,,,,,,,,,,,,,,,,,,,,,,,,,,,,,,,,,,,,,,,,,,,,,,,,,,,,,,,,,,,,,,
931,1645818236.705276,1645818236.780549,107.0,0.0,4686.153809,4758.974121,4212.307617,4287.179688,4454.358886999999,16202.0,1.0,15.0,,,,0.0,4.0,1.0,4.0,0.0,4.0,41.666668,,,,,,,,,,,,,,,,,,,,,,,,,,,,,,,,,,,,,,,,,,,,,,,,,,,,,,10.0,0.0,1.0,0.0,512.0,0.685167,,,,,,,,,,,,,,,,,,,,,,,,,
932,1645818236.713092,1645818236.7883642,108.0,0.0,4715.384765999999,4732.307617,4210.769043,4304.102539,4475.897461,450.0,1.0,15.0,,,,0.0,4.0,1.0,4.0,0.0,4.0,41.666668,,,,,,,,54.0,0.0,0.183653,0.6193850000000001,-0.151855,-0.748047,0.891127,-0.44531899999999996,-0.186526,-0.014941999999999999,-0.026539,-0.038821,,,,,,,,,,,,,,,,,,,,,,,,,,,,,,,,,,,,,,,,,,,,,,,,,,,,,,,,,,,,,,,,,
933,1645818236.7209089,1645818236.7961779,109.0,0.0,4718.461426,4719.487305,4207.692383,4306.666504,4478.461426,450.0,1.0,15.0,,,,0.0,4.0,1.0,4.0,0.0,4.0,41.666668,,,,,,,,,,,,,,,,,,,,,,,,,,,,,,,,,,,,,,,,,,,,,,,,,,,,,,,,,,,,,,,,,,,,,,,,,,,,,,,,,,,,
934,1645818236.728725,1645818236.803993,110.0,0.0,4718.461426,4722.563965,4205.641113000001,4309.230957,4476.922852000001,450.0,1.0,15.0,,,,0.0,4.0,1.0,4.0,0.0,4.0,41.666668,,,,,,,,55.0,0.0,0.183653,0.6193850000000001,-0.151855,-0.748047,0.87892,-0.435554,-0.194339,-0.015499,-0.026424,-0.04075,,,,,,,,,,,,,,,,,,,,,,,,,,,,,,,,,,,,,,,,,,,,,,,,,,,,,,,,,,,,,,,,,
935,1645818236.736541,1645818236.811807,111.0,0.0,4727.692383,4727.692383,4214.871582,4299.487305,4506.153809,16202.0,1.0,15.0,,,,0.0,4.0,1.0,4.0,0.0,4.0,41.666668,,,,,,,,,,,,,,,,,,,,1.0,0.0,0.0,,,,,,,,,,,,,,,,,,,,,,,,,,,,,,,,0.0,0.0,1.0,0.0,512.0,0.709084,14.220525,4.437437999999999,2.562353,2.0428759999999997,2.485148,42.308567,24.169864999999998,16.942978,9.711946000000001,12.628813000000001,1.8839259999999998,1.844589,2.423127,2.467352,2.276581,3.18016,2.9258319999999998,2.4988639999999998,2.947459,2.770527,4.511824,2.296509,2.439893,2.43495,3.328796
936,1645818236.744357,1645818236.819621,112.0,0.0,4720.512695,4780.0,4214.358886999999,4287.179688,4520.0,450.0,1.0,15.0,,,,0.0,4.0,1.0,4.0,0.0,4.0,41.666668,,,,,,,,56.0,0.0,0.183653,0.6193850000000001,-0.151855,-0.748047,0.8798959999999999,-0.458991,-0.194827,-0.016194999999999998,-0.026516,-0.036137999999999997,,,,,,,,,,,,,,,,,,,,,,,,,,,,,,,,,,,,,,,,,,,,,,,,,,,,,,,,,,,,,,,,,
937,1645818236.7521741,1645818236.8273358,113.0,0.0,4667.692383,4805.128418,4191.794922,4307.179688,4483.077147999999,450.0,1.0,15.0,,,,0.0,4.0,1.0,4.0,0.0,4.0,41.666668,,,,,,,,,,,,,,,,,,,,,,,,,,,,,,,,,,,,,,,,,,,,,,,,,,,,,,,,,,,,,,,,,,,,,,,,,,,,,,,,,,,,
938,1645818236.75999,1645818236.83515,114.0,0.0,4616.410156,4761.538574,4192.307617,4324.615234000001,4451.794922,450.0,1.0,15.0,,,,0.0,4.0,1.0,4.0,0.0,4.0,41.666668,,,,,,,,57.0,0.0,0.183653,0.6193850000000001,-0.151855,-0.748047,0.9052870000000001,-0.44824899999999995,-0.196292,-0.016626,-0.026501,-0.038335,,,,,,,,,,,,,,,,,,,,,,,,,,,,,,,,,,,,,,,,,,,,,,,,,,,,,,,,,,,,,,,,,
939,1645818236.767806,1645818236.8429651,115.0,0.0,4614.871582,4763.589844,4218.974121,4296.410156,4464.615234000001,16202.0,1.0,15.0,,,,0.0,4.0,1.0,4.0,0.0,4.0,41.666668,,,,,,,,,,,,,,,,,,,,,,,,,,,,,,,,,,,,,,,,,,,,,,,,,,,,,,0.0,0.0,1.0,0.0,512.0,0.709084,,,,,,,,,,,,,,,,,,,,,,,,,
940,1645818236.7756221,1645818236.8507788,116.0,0.0,4597.436035,4757.436035,4213.846191,4302.563965,4455.384765999999,450.0,1.0,15.0,,,,0.0,4.0,1.0,4.0,0.0,4.0,41.666668,,,,,,,,58.0,0.0,0.184025,0.619629,-0.151611,-0.747803,0.893568,-0.44238999999999995,-0.18799100000000002,-0.017013999999999998,-0.026389999999999997,-0.040312,,,,,,,,,,,,,,,,,,,,,,,,,,,,,,,,,,,,,,,,,,,,,,,,,,,,,,,,,,,,,,,,,
941,1645818236.7834392,1645818236.858594,117.0,0.0,4542.563965,4694.358886999999,4187.692383,4340.512695,4415.897461,450.0,1.0,15.0,,,,0.0,4.0,1.0,4.0,0.0,4.0,41.666668,,,,,,,,,,,,,,,,,,,,,,,,,,,,,,,,,,,,,,,,,,,,,,,,,,,,,,,,,,,,,,,,,,,,,,,,,,,,,,,,,,,,
942,1645818236.791255,1645818236.866408,118.0,0.0,4508.205078,4697.436035,4187.692383,4318.461426,4404.615234000001,450.0,1.0,15.0,,,,0.0,4.0,1.0,4.0,0.0,4.0,41.666668,,,,,,,,59.0,0.0,0.183232,0.619629,-0.151367,-0.748047,0.8896620000000001,-0.455085,-0.188479,-0.017509999999999998,-0.026387999999999998,-0.042091,,,,,,,,,,,,,,,,,,,,,,,,,,,,,,,,,,,,,,,,,,,,,,,,,,,,,,,,,,,,,,,,,
943,1645818236.799071,1645818236.874222,119.0,0.0,4493.333496,4723.589844,4200.512695,4278.974121,4397.436035,16202.0,1.0,15.0,,,,0.0,4.0,1.0,4.0,0.0,4.0,41.666668,,,,,,,,,,,,,,,,,,,,,,,,,,,,,,,,,,,,,,,,,,,,,,,,,,,,,,10.0,0.0,1.0,0.0,512.0,0.709084,,,,,,,,,,,,,,,,,,,,,,,,,
944,1645818236.806887,1645818236.882037,120.0,0.0,4462.563965,4706.666504,4200.512695,4278.974121,4374.358886999999,450.0,1.0,15.0,,,,0.0,4.0,1.0,4.0,0.0,4.0,41.666668,,,,,,,,60.0,0.0,0.183232,0.619629,-0.151367,-0.748047,0.886732,-0.446296,-0.188968,-0.017957,-0.026386,-0.037295999999999996,,,,,,,,,,,,,,,,,,,,,,,,,,,,,,,,,,,,,,,,,,,,,,,,,,,,,,,,,,,,,,,,,
945,1645818236.814704,1645818236.889751,121.0,0.0,4424.102539,4741.025879,4201.025879,4254.358886999999,4360.0,450.0,1.0,15.0,,,,0.0,4.0,1.0,4.0,0.0,4.0,41.666668,,,,,,,,,,,,,,,,,,,,,,,,,,,,,,,,,,,,,,,,,,,,,,,,,,,,,,,,,,,,,,,,,,,,,,,,,,,,,,,,,,,,
946,1645818236.82252,1645818236.897566,122.0,0.0,4376.922852000001,4764.615234000001,4190.769043,4225.128418,4346.666504,450.0,1.0,15.0,,,,0.0,4.0,1.0,4.0,0.0,4.0,41.666668,,,,,,,,61.0,0.0,0.18343299999999998,0.619629,-0.151123,-0.748047,0.87892,-0.4336,-0.179202,-0.016893000000000002,-0.026383999999999998,-0.033225,,,,,,,,,,,,,,,,,,,,,,,,,,,,,,,,,,,,,,,,,,,,,,,,,,,,,,,,,,,,,,,,,
947,1645818236.8303359,1645818236.90538,123.0,0.0,4343.077147999999,4747.692383,4180.0,4255.897461,4331.282227000001,16202.0,1.0,15.0,,,,0.0,4.0,1.0,4.0,0.0,4.0,41.666668,,,,,,,,,,,,,,,,,,,,,,,,,,,,,,,,,,,,,,,,,,,,,,,,,,,,,,10.0,0.0,1.0,0.0,512.0,0.709084,,,,,,,,,,,,,,,,,,,,,,,,,
948,1645818236.838152,1645818236.913095,124.0,0.0,4328.205078,4763.589844,4192.307617,4291.794922,4307.692383,450.0,1.0,15.0,,,,0.0,4.0,1.0,4.0,0.0,4.0,41.666668,,,,,,,,62.0,0.0,0.183634,0.619629,-0.15087899999999999,-0.748047,0.8847790000000001,-0.431159,-0.181643,-0.017353,-0.026431,-0.029414,,,,,,,,,,,,,,,,,,,,,,,,,,,,,,,,,,,,,,,,,,,,,,,,,,,,,,,,,,,,,,,,,
949,1645818236.845969,1645818236.920909,125.0,0.0,4286.153809,4714.358886999999,4194.358886999999,4324.102539,4270.256348,450.0,1.0,15.0,,,,0.0,4.0,1.0,4.0,0.0,4.0,41.666668,,,,,,,,,,,,,,,,,,,,,,,,,,,,,,,,,,,,,,,,,,,,,,,,,,,,,,,,,,,,,,,,,,,,,,,,,,,,,,,,,,,,
950,1645818236.853785,1645818236.928723,126.0,0.0,4243.589844,4686.153809,4179.487305,4336.922852000001,4254.871582,450.0,1.0,15.0,,,,0.0,4.0,1.0,4.0,0.0,4.0,41.666668,,,,,,,,63.0,0.0,0.182808,0.619873,-0.15087899999999999,-0.748047,0.8842909999999999,-0.451179,-0.190433,-0.01635,-0.026570999999999997,-0.032137,,,,,,,,,,,,,,,,,,,,,,,,,,,,,,,,,,,,,,,,,,,,,,,,,,,,,,,,,,,,,,,,,
951,1645818236.8616009,1645818236.936538,127.0,0.0,4244.102539,4790.256348,4190.256348,4284.102539,4266.153809,233.0,1.0,15.0,,,,0.0,4.0,1.0,4.0,0.0,4.0,41.666668,0.96875,25.0,3.0,0.0,4.0,0.0,3.0,,,,,,,,,,,,,1.0,0.0,0.0,,,,,,,,,,,,,,,,,,,,,,,,,,,,,,,,10.0,0.0,1.0,0.0,512.0,0.6875859999999999,53.70748100000001,7.764089,2.912105,1.9575939999999998,2.706121,39.695499,23.540297,14.925351000000001,9.358603,11.566179,2.05373,1.633229,2.656165,2.365095,2.507491,3.77978,2.783873,2.514812,2.876547,3.011135,15.133428,2.820986,2.6489540000000003,2.589956,3.3731970000000002
952,1645818236.869417,1645818236.944352,0.0,0.0,4227.692383,4783.589844,4198.461426,4244.615234000001,4242.05127,450.0,1.0,15.0,,,,0.0,4.0,1.0,4.0,0.0,4.0,41.666668,,,,,,,,0.0,0.0,0.183009,0.619873,-0.150635,-0.748047,0.879408,-0.437018,-0.188479,-0.016961,-0.0266,-0.028435000000000002,,,,,,,,,,,,,,,,,,,,,,,,,,,,,,,,,,,,,,,,,,,,,,,,,,,,,,,,,,,,,,,,,
953,1645818236.877233,1645818236.952167,1.0,0.0,4190.769043,4705.641113000001,4192.307617,4274.358886999999,4209.230957,450.0,1.0,15.0,,,,0.0,4.0,1.0,4.0,0.0,4.0,41.666668,,,,,,,,,,,,,,,,,,,,,,,,,,,,,,,,,,,,,,,,,,,,,,,,,,,,,,,,,,,,,,,,,,,,,,,,,,,,,,,,,,,,
954,1645818236.88505,1645818236.959881,2.0,0.0,4174.358886999999,4761.538574,4193.333496,4290.256348,4216.922852000001,16160.0,1.0,15.0,,,,0.0,4.0,0.0,4.0,1.0,4.0,41.666668,,,,,,,,1.0,0.0,0.183834,0.619629,-0.150635,-0.748047,0.8969860000000001,-0.44531899999999996,-0.194827,-0.015851,-0.026626,-0.025103,,,,,,,,,,,,,,,,,,,,,,,,,,,,,,,,,,,,,,,,,,,,,,,,,,,,,,,,,,,,,,,,,
955,1645818236.8928661,1645818236.9676962,3.0,0.0,4165.641113000001,4769.230957,4201.538574,4273.333496,4216.410156,450.0,1.0,15.0,,,,0.0,4.0,0.0,4.0,1.0,4.0,41.666668,,,,,,,,,,,,,,,,,,,,,,,,,,,,,,,,,,,,,,,,,,,,,,,,,,,,,,10.0,0.0,1.0,0.0,512.0,0.6875859999999999,,,,,,,,,,,,,,,,,,,,,,,,,
956,1645818236.900682,1645818236.97551,4.0,0.0,4150.769043,4689.743652,4199.487305,4266.153809,4201.538574,14.0,1.0,15.0,,,,0.0,4.0,0.0,4.0,1.0,4.0,41.666668,,,,,,,,2.0,0.0,0.183834,0.619629,-0.150635,-0.748047,0.8838030000000001,-0.43994799999999995,-0.19336199999999998,-0.0149,-0.0266,-0.028306,,,,,,,,,,,,,,,,,,,,,,,,,,,,,,,,,,,,,,,,,,,,,,,,,,,,,,,,,,,,,,,,,
957,1645818236.908498,1645818236.983324,5.0,0.0,4126.666504,4760.0,4184.102539,4280.0,4183.077147999999,450.0,1.0,15.0,,,,0.0,4.0,0.0,4.0,1.0,4.0,41.666668,,,,,,,,,,,,,,,,,,,,,,,,,,,,,,,,,,,,,,,,,,,,,,,,,,,,,,,,,,,,,,,,,,,,,,,,,,,,,,,,,,,,
958,1645818236.916315,1645818236.9911392,6.0,0.0,4126.153809,4841.025879,4190.769043,4309.743652,4188.717772999999,16179.0,1.0,15.0,,,,0.0,4.0,0.0,4.0,1.0,4.0,41.666668,,,,,,,,3.0,0.0,0.183834,0.619629,-0.150635,-0.748047,0.878431,-0.43994799999999995,-0.190921,-0.015608000000000002,-0.026527999999999996,-0.031188,,,,,,,,,,,,,,,,,,,,,,,,,,,,,,,,,,,,,,,,,,,,,,,,,,,,,,,,,,,,,,,,,
959,1645818236.9241312,1645818236.9989529,7.0,0.0,4147.692383,4744.615234000001,4204.102539,4319.487305,4207.692383,450.0,1.0,15.0,,,,0.0,4.0,0.0,4.0,1.0,4.0,41.666668,,,,,,,,,,,,,,,,,,,,,,,,,,,,,,,,,,,,,,,,,,,,,,,,,,,,,,10.0,0.0,1.0,0.0,512.0,0.6875859999999999,,,,,,,,,,,,,,,,,,,,,,,,,
960,1645818236.931947,1645818237.006768,8.0,0.0,4147.692383,4648.717772999999,4195.897461,4306.153809,4204.615234000001,450.0,1.0,15.0,,,,0.0,4.0,0.0,4.0,1.0,4.0,41.666668,,,,,,,,4.0,0.0,0.183634,0.619629,-0.15087899999999999,-0.748047,0.8842909999999999,-0.448737,-0.18701500000000001,-0.016194999999999998,-0.026414,-0.027679000000000002,,,,,,,,,,,,,,,,,,,,,,,,,,,,,,,,,,,,,,,,,,,,,,,,,,,,,,,,,,,,,,,,,
961,1645818236.939763,1645818237.014582,9.0,0.0,4116.922852000001,4665.641113000001,4181.538574,4297.436035,4181.538574,59.0,1.0,15.0,,,,0.0,4.0,0.0,4.0,1.0,4.0,41.666668,,,,,,,,,,,,,,,,,,,,,,,,,,,,,,,,,,,,,,,,,,,,,,,,,,,,,,,,,,,,,,,,,,,,,,,,,,,,,,,,,,,,
962,1645818236.94758,1645818237.022396,10.0,0.0,4103.077147999999,4747.692383,4182.563965,4275.384765999999,4161.538574,450.0,1.0,15.0,,,,0.0,4.0,0.0,4.0,1.0,4.0,41.666668,,,,,,,,5.0,0.0,0.183834,0.619629,-0.150635,-0.748047,0.8838030000000001,-0.43994799999999995,-0.19336199999999998,-0.015211,-0.026409,-0.030624000000000002,,,,,,,,,,,,,,,,,,,,,,,,,,,,,,,,,,,,,,,,,,,,,,,,,,,,,,,,,,,,,,,,,
963,1645818236.9553962,1645818237.030211,11.0,0.0,4113.846191,4784.615234000001,4172.307617,4256.922852000001,4160.512695,16195.0,1.0,15.0,,,,0.0,4.0,0.0,4.0,1.0,4.0,41.666668,,,,,,,,,,,,,,,,,,,,,,,,,,,,,,,,,,,,,,,,,,,,,,,,,,,,,,0.0,0.0,1.0,0.0,512.0,0.6875859999999999,,,,,,,,,,,,,,,,,,,,,,,,,
964,1645818236.963212,1645818237.037925,12.0,0.0,4122.563965,4693.846191,4175.897461,4290.769043,4174.871582,450.0,1.0,15.0,,,,0.0,4.0,0.0,4.0,1.0,4.0,41.666668,,,,,,,,6.0,0.0,0.183634,0.619629,-0.15087899999999999,-0.748047,0.8842909999999999,-0.448737,-0.18701500000000001,-0.015837999999999998,-0.026307999999999998,-0.027170999999999997,,,,,,,,,,,,,,,,,,,,,,,,,,,,,,,,,,,,,,,,,,,,,,,,,,,,,,,,,,,,,,,,,
965,1645818236.9710279,1645818237.0457401,13.0,0.0,4122.05127,4628.205078,4197.94873,4313.846191,4174.358886999999,450.0,1.0,15.0,,,,0.0,4.0,0.0,4.0,1.0,4.0,41.666668,,,,,,,,,,,,,,,,,,,,,,,,,,,,,,,,,,,,,,,,,,,,,,,,,,,,,,,,,,,,,,,,,,,,,,,,,,,,,,,,,,,,
966,1645818236.978845,1645818237.0535538,14.0,0.0,4107.692383,4672.307617,4181.025879,4292.820313,4153.846191,450.0,1.0,15.0,,,,0.0,4.0,0.0,4.0,1.0,4.0,41.666668,,,,,,,,7.0,0.0,0.183634,0.619629,-0.15087899999999999,-0.748047,0.8886850000000001,-0.42969399999999996,-0.174319,-0.016452,-0.02646,-0.023965,,,,,,,,,,,,,,,,,,,,,,,,,,,,,,,,,,,,,,,,,,,,,,,,,,,,,,,,,,,,,,,,,
967,1645818236.986661,1645818237.061369,15.0,0.0,4109.743652,4671.794922,4171.794922,4285.641113000001,4167.179688,16195.0,1.0,15.0,,,,0.0,4.0,0.0,4.0,1.0,4.0,41.666668,,,,,,,,,,,,,,,,,,,,1.0,0.0,0.0,,,,,,,,,,,,,,,,,,,,,,,,,,,,,,,,0.0,0.0,1.0,0.0,512.0,0.622668,152.47216799999998,16.274998,3.5277870000000005,2.01953,2.906476,32.982632,22.576166,12.714052,9.727889,10.678833000000001,2.212915,1.344444,2.69095,2.245182,2.685827,4.362635,2.6437209999999998,2.552252,2.8903939999999997,3.569185,42.24152,4.518161,2.871684,2.760409,3.4153
968,1645818236.994477,1645818237.069183,16.0,0.0,4130.769043,4632.820313,4196.922852000001,4319.487305,4193.333496,0.0,1.0,15.0,,,,0.0,4.0,0.0,4.0,1.0,4.0,41.666668,,,,,,,,8.0,0.0,0.183634,0.619629,-0.15087899999999999,-0.748047,0.8808729999999999,-0.451179,-0.186038,-0.015588,-0.0265,-0.027331,,,,,,,,,,,,,,,,,,,,,,,,,,,,,,,,,,,,,,,,,,,,,,,,,,,,,,,,,,,,,,,,,
969,1645818237.0022929,1645818237.076997,17.0,0.0,4129.743652,4686.666504,4189.230957,4335.384765999999,4178.461426,0.0,1.0,15.0,,,,0.0,4.0,0.0,4.0,1.0,4.0,41.666668,,,,,,,,,,,,,,,,,,,,,,,,,,,,,,,,,,,,,,,,,,,,,,,,,,,,,,,,,,,,,,,,,,,,,,,,,,,,,,,,,,,,
970,1645818237.01011,1645818237.084812,18.0,0.0,4115.384765999999,4714.871582,4164.102539,4312.820313,4171.282227000001,0.0,1.0,15.0,,,,0.0,4.0,0.0,4.0,1.0,4.0,41.666668,,,,,,,,9.0,0.0,0.18243499999999999,0.619629,-0.151123,-0.748291,0.8813610000000001,-0.451179,-0.18115499999999998,-0.016225999999999997,-0.026389,-0.024207,,,,,,,,,,,,,,,,,,,,,,,,,,,,,,,,,,,,,,,,,,,,,,,,,,,,,,,,,,,,,,,,,
971,1645818237.017926,1645818237.092626,19.0,0.0,4127.692383,4660.0,4172.820313,4272.820313,4192.307617,0.0,1.0,15.0,,,,0.0,4.0,0.0,4.0,1.0,4.0,41.666668,,,,,,,,,,,,,,,,,,,,,,,,,,,,,,,,,,,,,,,,,,,,,,,,,,,,,,0.0,0.0,1.0,0.0,512.0,0.622668,,,,,,,,,,,,,,,,,,,,,,,,,
972,1645818237.025742,1645818237.100341,20.0,0.0,4140.0,4643.589844,4177.436035,4251.282227000001,4195.897461,0.0,1.0,15.0,,,,0.0,4.0,0.0,4.0,1.0,4.0,41.666668,,,,,,,,10.0,0.0,0.18243499999999999,0.619629,-0.151123,-0.748291,0.874525,-0.447272,-0.18115499999999998,-0.016801,-0.026483999999999997,-0.027597000000000003,,,,,,,,,,,,,,,,,,,,,,,,,,,,,,,,,,,,,,,,,,,,,,,,,,,,,,,,,,,,,,,,,
973,1645818237.033558,1645818237.108155,21.0,0.0,4116.410156,4670.256348,4169.743652,4270.256348,4177.94873,0.0,1.0,15.0,,,,0.0,4.0,0.0,4.0,1.0,4.0,41.666668,,,,,,,,,,,,,,,,,,,,,,,,,,,,,,,,,,,,,,,,,,,,,,,,,,,,,,,,,,,,,,,,,,,,,,,,,,,,,,,,,,,,
974,1645818237.041374,1645818237.115969,22.0,0.0,4114.871582,4659.487305,4192.820313,4307.179688,4177.94873,0.0,1.0,15.0,,,,0.0,4.0,0.0,4.0,1.0,4.0,41.666668,,,,,,,,11.0,0.0,0.18326199999999998,0.6193850000000001,-0.151123,-0.748291,0.8930799999999999,-0.44776099999999996,-0.188479,-0.015902,-0.026521,-0.030599,,,,,,,,,,,,,,,,,,,,,,,,,,,,,,,,,,,,,,,,,,,,,,,,,,,,,,,,,,,,,,,,,
975,1645818237.049191,1645818237.123784,23.0,0.0,4153.333496,4665.128418,4208.717772999999,4323.589844,4197.436035,0.0,1.0,15.0,,,,0.0,4.0,0.0,4.0,1.0,4.0,41.666668,,,,,,,,,,,,,,,,,,,,,,,,,,,,,,,,,,,,,,,,,,,,,,,,,,,,,,0.0,0.0,1.0,0.0,512.0,0.622668,,,,,,,,,,,,,,,,,,,,,,,,,
976,1645818237.057007,1645818237.131598,24.0,0.0,4148.717772999999,4698.974121,4181.538574,4294.358886999999,4189.230957,0.0,1.0,15.0,,,,0.0,4.0,0.0,4.0,1.0,4.0,41.666668,,,,,,,,12.0,0.0,0.18306,0.6193850000000001,-0.151367,-0.748291,0.885756,-0.45361999999999997,-0.176761,-0.014947,-0.026407999999999997,-0.03335,,,,,,,,,,,,,,,,,,,,,,,,,,,,,,,,,,,,,,,,,,,,,,,,,,,,,,,,,,,,,,,,,
977,1645818237.0648232,1645818237.139413,25.0,0.0,4141.538574,4671.794922,4176.410156,4270.769043,4182.563965,0.0,1.0,15.0,,,,0.0,4.0,0.0,4.0,1.0,4.0,41.666668,,,,,,,,,,,,,,,,,,,,,,,,,,,,,,,,,,,,,,,,,,,,,,,,,,,,,,,,,,,,,,,,,,,,,,,,,,,,,,,,,,,,
978,1645818237.072639,1645818237.147227,26.0,0.0,4162.05127,4647.692383,4190.769043,4283.589844,4197.436035,0.0,1.0,15.0,,,,0.0,4.0,0.0,4.0,1.0,4.0,41.666668,,,,,,,,13.0,0.0,0.18306,0.6193850000000001,-0.151367,-0.748291,0.8764780000000001,-0.45655,-0.187503,-0.015698,-0.026452999999999997,-0.035679,,,,,,,,,,,,,,,,,,,,,,,,,,,,,,,,,,,,,,,,,,,,,,,,,,,,,,,,,,,,,,,,,
979,1645818237.080456,1645818237.155042,27.0,0.0,4143.589844,4664.102539,4185.128418,4313.846191,4196.410156,0.0,1.0,15.0,,,,0.0,4.0,0.0,4.0,1.0,4.0,41.666668,,,,,,,,,,,,,,,,,,,,,,,,,,,,,,,,,,,,,,,,,,,,,,,,,,,,,,0.0,0.0,1.0,0.0,512.0,0.622668,,,,,,,,,,,,,,,,,,,,,,,,,
980,1645818237.088272,1645818237.162856,28.0,0.0,4130.256348,4640.512695,4198.974121,4324.102539,4192.820313,0.0,1.0,15.0,,,,0.0,4.0,0.0,4.0,1.0,4.0,41.666668,,,,,,,,14.0,0.0,0.182858,0.6193850000000001,-0.151611,-0.748291,0.892592,-0.45020200000000005,-0.192386,-0.016326,-0.026445,-0.037922000000000004,,,,,,,,,,,,,,,,,,,,,,,,,,,,,,,,,,,,,,,,,,,,,,,,,,,,,,,,,,,,,,,,,
981,1645818237.0960882,1645818237.17057,29.0,0.0,4164.102539,4612.820313,4221.025879,4300.512695,4212.307617,0.0,1.0,15.0,,,,0.0,4.0,0.0,4.0,1.0,4.0,41.666668,,,,,,,,,,,,,,,,,,,,,,,,,,,,,,,,,,,,,,,,,,,,,,,,,,,,,,,,,,,,,,,,,,,,,,,,,,,,,,,,,,,,
982,1645818237.103904,1645818237.178385,30.0,0.0,4168.205078,4643.077147999999,4194.871582,4284.102539,4215.897461,0.0,1.0,15.0,,,,0.0,4.0,0.0,4.0,1.0,4.0,41.666668,,,,,,,,15.0,0.0,0.182858,0.6193850000000001,-0.151611,-0.748291,0.8886850000000001,-0.453132,-0.188479,-0.016890000000000002,-0.026437000000000002,-0.033739,,,,,,,,,,,,,,,,,,,,,,,,,,,,,,,,,,,,,,,,,,,,,,,,,,,,,,,,,,,,,,,,,
983,1645818237.1117198,1645818237.186199,31.0,0.0,4154.358886999999,4676.922852000001,4181.025879,4291.794922,4195.897461,0.0,1.0,15.0,,,,0.0,4.0,0.0,4.0,1.0,4.0,41.666668,,,,,,,,,,,,,,,,,,,,1.0,0.0,0.0,,,,,,,,,,,,,,,,,,,,,,,,,,,,,,,,0.0,0.0,1.0,0.0,512.0,0.48580500000000004,326.729034,31.764482,4.620744999999999,2.2344720000000002,3.056228,25.345454999999998,21.254425,11.203279,10.667950999999999,10.249191,2.376319,1.032298,2.557317,2.0697360000000002,2.786669,4.813643,2.580086,2.6758669999999998,3.1286810000000003,4.446297,90.0746,7.5886320000000005,3.045194,2.851276,3.4140900000000003
984,1645818237.1195369,1645818237.194014,32.0,0.0,4183.077147999999,4691.794922,4204.102539,4286.153809,4209.230957,0.0,1.0,15.0,,,,0.0,4.0,0.0,4.0,1.0,4.0,41.666668,,,,,,,,16.0,0.0,0.18265499999999998,0.6193850000000001,-0.151855,-0.748291,0.8813610000000001,-0.43457700000000005,-0.191409,-0.015836000000000003,-0.026430000000000002,-0.036273,,,,,,,,,,,,,,,,,,,,,,,,,,,,,,,,,,,,,,,,,,,,,,,,,,,,,,,,,,,,,,,,,
985,1645818237.127353,1645818237.201828,33.0,0.0,4181.538574,4686.153809,4191.794922,4261.538574,4221.025879,0.0,1.0,15.0,,,,0.0,4.0,0.0,4.0,1.0,4.0,41.666668,,,,,,,,,,,,,,,,,,,,,,,,,,,,,,,,,,,,,,,,,,,,,,,,,,,,,,,,,,,,,,,,,,,,,,,,,,,,,,,,,,,,
986,1645818237.135169,1645818237.209642,34.0,0.0,4148.205078,4609.743652,4167.179688,4266.153809,4197.436035,0.0,1.0,15.0,,,,0.0,4.0,0.0,4.0,1.0,4.0,41.666668,,,,,,,,17.0,0.0,0.18265499999999998,0.6193850000000001,-0.151855,-0.748291,0.8964979999999999,-0.446784,-0.19677999999999998,-0.014837999999999999,-0.026375,-0.038457,,,,,,,,,,,,,,,,,,,,,,,,,,,,,,,,,,,,,,,,,,,,,,,,,,,,,,,,,,,,,,,,,
987,1645818237.1429849,1645818237.217457,35.0,0.0,4150.769043,4539.487305,4177.94873,4302.05127,4191.794922,0.0,1.0,15.0,,,,0.0,4.0,0.0,4.0,1.0,4.0,41.666668,,,,,,,,,,,,,,,,,,,,,,,,,,,,,,,,,,,,,,,,,,,,,,,,,,,,,,0.0,0.0,1.0,0.0,512.0,0.48580500000000004,,,,,,,,,,,,,,,,,,,,,,,,,
988,1645818237.150802,1645818237.225271,36.0,0.0,4183.589844,4530.769043,4205.128418,4314.871582,4232.820313,0.0,1.0,15.0,,,,0.0,4.0,0.0,4.0,1.0,4.0,41.666668,,,,,,,,18.0,0.0,0.18265499999999998,0.6193850000000001,-0.151855,-0.748291,0.8847790000000001,-0.44971400000000006,-0.184085,-0.015552000000000002,-0.026423000000000002,-0.040519,,,,,,,,,,,,,,,,,,,,,,,,,,,,,,,,,,,,,,,,,,,,,,,,,,,,,,,,,,,,,,,,,
989,1645818237.158618,1645818237.2330859,37.0,0.0,4197.94873,4556.410156,4205.641113000001,4304.615234000001,4246.153809,0.0,1.0,15.0,,,,0.0,4.0,0.0,4.0,1.0,4.0,41.666668,,,,,,,,,,,,,,,,,,,,,,,,,,,,,,,,,,,,,,,,,,,,,,,,,,,,,,,,,,,,,,,,,,,,,,,,,,,,,,,,,,,,
990,1645818237.166434,1645818237.2409,38.0,0.0,4193.846191,4615.384765999999,4194.871582,4300.0,4226.153809,0.0,1.0,15.0,,,,0.0,4.0,0.0,4.0,1.0,4.0,41.666668,,,,,,,,19.0,0.0,0.183481,0.6191409999999999,-0.151855,-0.748291,0.8847790000000001,-0.45020200000000005,-0.18701500000000001,-0.016096,-0.026466000000000003,-0.035979000000000004,,,,,,,,,,,,,,,,,,,,,,,,,,,,,,,,,,,,,,,,,,,,,,,,,,,,,,,,,,,,,,,,,
991,1645818237.17425,1645818237.248615,39.0,0.0,4191.794922,4630.769043,4193.333496,4297.94873,4226.666504,0.0,1.0,15.0,,,,0.0,4.0,0.0,4.0,1.0,4.0,41.666668,,,,,,,,,,,,,,,,,,,,,,,,,,,,,,,,,,,,,,,,,,,,,,,,,,,,,,0.0,0.0,1.0,0.0,512.0,0.48580500000000004,,,,,,,,,,,,,,,,,,,,,,,,,
992,1645818237.182067,1645818237.256429,40.0,0.0,4182.05127,4577.94873,4186.153809,4281.538574,4226.666504,0.0,1.0,15.0,,,,0.0,4.0,0.0,4.0,1.0,4.0,41.666668,,,,,,,,20.0,0.0,0.184273,0.6191409999999999,-0.1521,-0.748047,0.890639,-0.448737,-0.188968,-0.016684,-0.026652,-0.038143,,,,,,,,,,,,,,,,,,,,,,,,,,,,,,,,,,,,,,,,,,,,,,,,,,,,,,,,,,,,,,,,,
993,1645818237.189883,1645818237.264243,41.0,0.0,4169.743652,4541.025879,4174.871582,4274.871582,4212.820313,0.0,1.0,15.0,,,,0.0,4.0,0.0,4.0,1.0,4.0,41.666668,,,,,,,,,,,,,,,,,,,,,,,,,,,,,,,,,,,,,,,,,,,,,,,,,,,,,,,,,,,,,,,,,,,,,,,,,,,,,,,,,,,,
994,1645818237.197699,1645818237.272058,42.0,0.0,4189.743652,4579.487305,4192.820313,4296.410156,4221.538574,0.0,1.0,15.0,,,,0.0,4.0,0.0,4.0,1.0,4.0,41.666668,,,,,,,,21.0,0.0,0.183279,0.6191409999999999,-0.1521,-0.748291,0.886732,-0.46582700000000005,-0.190433,-0.017115000000000002,-0.026574,-0.039895,,,,,,,,,,,,,,,,,,,,,,,,,,,,,,,,,,,,,,,,,,,,,,,,,,,,,,,,,,,,,,,,,
995,1645818237.2055151,1645818237.2798722,43.0,0.0,4217.436035,4648.205078,4210.769043,4299.487305,4236.922852000001,0.0,1.0,15.0,,,,0.0,4.0,0.0,4.0,1.0,4.0,41.666668,,,,,,,,,,,,,,,,,,,,,,,,,,,,,,,,,,,,,,,,,,,,,,,,,,,,,,0.0,0.0,1.0,0.0,512.0,0.48580500000000004,,,,,,,,,,,,,,,,,,,,,,,,,
996,1645818237.213332,1645818237.2876868,44.0,0.0,4213.846191,4643.589844,4207.179688,4279.487305,4246.153809,0.0,1.0,15.0,,,,0.0,4.0,0.0,4.0,1.0,4.0,41.666668,,,,,,,,22.0,0.0,0.184273,0.6191409999999999,-0.1521,-0.748047,0.882338,-0.44385399999999997,-0.190921,-0.017552,-0.026650999999999998,-0.035613,,,,,,,,,,,,,,,,,,,,,,,,,,,,,,,,,,,,,,,,,,,,,,,,,,,,,,,,,,,,,,,,,
997,1645818237.221148,1645818237.295501,45.0,0.0,4196.922852000001,4584.615234000001,4203.589844,4290.256348,4245.641113000001,0.0,1.0,15.0,,,,0.0,4.0,0.0,4.0,1.0,4.0,41.666668,,,,,,,,,,,,,,,,,,,,,,,,,,,,,,,,,,,,,,,,,,,,,,,,,,,,,,,,,,,,,,,,,,,,,,,,,,,,,,,,,,,,
998,1645818237.228964,1645818237.303315,46.0,0.0,4193.846191,4597.436035,4203.077147999999,4335.384765999999,4227.692383,0.0,1.0,15.0,,,,0.0,4.0,0.0,4.0,1.0,4.0,41.666668,,,,,,,,23.0,0.0,0.183076,0.6191409999999999,-0.152344,-0.748291,0.885756,-0.449226,-0.19531500000000002,-0.017945,-0.026672,-0.038008,,,,,,,,,,,,,,,,,,,,,,,,,,,,,,,,,,,,,,,,,,,,,,,,,,,,,,,,,,,,,,,,,
999,1645818237.2367802,1645818237.31113,47.0,0.0,4202.05127,4596.922852000001,4209.230957,4330.256348,4229.230957,0.0,1.0,15.0,,,,0.0,4.0,0.0,4.0,1.0,4.0,41.666668,,,,,,,,,,,,,,,,,,,,1.0,0.0,0.0,,,,,,,,,,,,,,,,,,,,,,,,,,,,,,,,0.0,0.0,1.0,0.0,512.0,0.636109,559.177979,52.92000600000001,6.202612,2.56182,3.129062,17.899906,19.397054999999998,11.002569,11.925828,10.354987,2.549014,0.760658,2.302737,1.8172240000000002,2.789304,5.029447,2.635524,3.1147970000000003,3.662116,5.485458,153.561462,11.535976,3.128184,2.812389,3.3290870000000004
1000,1645818237.244597,1645818237.318944,48.0,0.0,4210.769043,4523.077147999999,4224.102539,4288.205078,4242.05127,0.0,1.0,15.0,,,,0.0,4.0,0.0,4.0,1.0,4.0,41.666668,,,,,,,,24.0,0.0,0.184071,0.6191409999999999,-0.152344,-0.748047,0.8725719999999999,-0.442878,-0.175296,-0.018348,-0.026593000000000002,-0.033671,,,,,,,,,,,,,,,,,,,,,,,,,,,,,,,,,,,,,,,,,,,,,,,,,,,,,,,,,,,,,,,,,
1001,1645818237.252413,1645818237.326659,49.0,0.0,4212.307617,4577.94873,4213.333496,4277.436035,4234.871582,0.0,1.0,15.0,,,,0.0,4.0,0.0,4.0,1.0,4.0,41.666668,,,,,,,,,,,,,,,,,,,,,,,,,,,,,,,,,,,,,,,,,,,,,,,,,,,,,,,,,,,,,,,,,,,,,,,,,,,,,,,,,,,,
1002,1645818237.2602289,1645818237.3344731,50.0,0.0,4212.307617,4689.743652,4186.666504,4290.769043,4230.256348,0.0,1.0,15.0,,,,0.0,4.0,0.0,4.0,1.0,4.0,41.666668,,,,,,,,25.0,0.0,0.183045,0.6193850000000001,-0.152588,-0.748047,0.898451,-0.442878,-0.191897,-0.017197,-0.02657,-0.035968,,,,,,,,,,,,,,,,,,,,,,,,,,,,,,,,,,,,,,,,,,,,,,,,,,,,,,,,,,,,,,,,,
1003,1645818237.268045,1645818237.342288,51.0,0.0,4209.743652,4615.897461,4184.615234000001,4286.153809,4237.436035,0.0,1.0,15.0,,,,0.0,4.0,0.0,4.0,1.0,4.0,41.666668,,,,,,,,,,,,,,,,,,,,,,,,,,,,,,,,,,,,,,,,,,,,,,,,,,,,,,0.0,0.0,1.0,0.0,512.0,0.636109,,,,,,,,,,,,,,,,,,,,,,,,,
1004,1645818237.275862,1645818237.350102,52.0,0.0,4212.307617,4538.974121,4200.512695,4284.615234000001,4235.897461,0.0,1.0,15.0,,,,0.0,4.0,0.0,4.0,1.0,4.0,41.666668,,,,,,,,26.0,0.0,0.183045,0.6193850000000001,-0.152588,-0.748047,0.8916149999999999,-0.440436,-0.192874,-0.017626,-0.026501,-0.031931,,,,,,,,,,,,,,,,,,,,,,,,,,,,,,,,,,,,,,,,,,,,,,,,,,,,,,,,,,,,,,,,,
1005,1645818237.2836778,1645818237.357916,53.0,0.0,4230.256348,4608.717772999999,4204.102539,4299.487305,4243.589844,0.0,1.0,15.0,,,,0.0,4.0,0.0,4.0,1.0,4.0,41.666668,,,,,,,,,,,,,,,,,,,,,,,,,,,,,,,,,,,,,,,,,,,,,,,,,,,,,,,,,,,,,,,,,,,,,,,,,,,,,,,,,,,,
1006,1645818237.291494,1645818237.365731,54.0,0.0,4219.487305,4599.487305,4183.589844,4288.205078,4243.589844,0.0,1.0,15.0,,,,0.0,4.0,0.0,4.0,1.0,4.0,41.666668,,,,,,,,27.0,0.0,0.183837,0.6193850000000001,-0.152832,-0.747803,0.886732,-0.44483100000000003,-0.195804,-0.016547,-0.026537,-0.034401999999999995,,,,,,,,,,,,,,,,,,,,,,,,,,,,,,,,,,,,,,,,,,,,,,,,,,,,,,,,,,,,,,,,,
1007,1645818237.29931,1645818237.373545,55.0,0.0,4185.641113000001,4542.05127,4169.743652,4260.0,4224.615234000001,0.0,1.0,15.0,,,,0.0,4.0,0.0,4.0,1.0,4.0,41.666668,,,,,,,,,,,,,,,,,,,,,,,,,,,,,,,,,,,,,,,,,,,,,,,,,,,,,,0.0,0.0,1.0,0.0,512.0,0.636109,,,,,,,,,,,,,,,,,,,,,,,,,
1008,1645818237.307126,1645818237.38136,56.0,0.0,4182.563965,4592.820313,4172.307617,4269.230957,4217.94873,0.0,1.0,15.0,,,,0.0,4.0,0.0,4.0,1.0,4.0,41.666668,,,,,,,,28.0,0.0,0.183837,0.6193850000000001,-0.152832,-0.747803,0.8813610000000001,-0.445808,-0.187503,-0.015576,-0.02652,-0.036626,,,,,,,,,,,,,,,,,,,,,,,,,,,,,,,,,,,,,,,,,,,,,,,,,,,,,,,,,,,,,,,,,
1009,1645818237.314943,1645818237.389174,57.0,0.0,4193.846191,4636.410156,4171.794922,4296.410156,4216.922852000001,0.0,1.0,15.0,,,,0.0,4.0,0.0,4.0,1.0,4.0,41.666668,,,,,,,,,,,,,,,,,,,,,,,,,,,,,,,,,,,,,,,,,,,,,,,,,,,,,,,,,,,,,,,,,,,,,,,,,,,,,,,,,,,,
1010,1645818237.322759,1645818237.396889,58.0,0.0,4197.94873,4672.820313,4169.743652,4305.641113000001,4213.333496,0.0,1.0,15.0,,,,0.0,4.0,0.0,4.0,1.0,4.0,41.666668,,,,,,,,29.0,0.0,0.183837,0.6193850000000001,-0.152832,-0.747803,0.8896620000000001,-0.44824899999999995,-0.178225,-0.016313,-0.026552999999999997,-0.038774,,,,,,,,,,,,,,,,,,,,,,,,,,,,,,,,,,,,,,,,,,,,,,,,,,,,,,,,,,,,,,,,,
1011,1645818237.330575,1645818237.404703,59.0,0.0,4226.153809,4735.384765999999,4188.205078,4295.897461,4239.487305,0.0,1.0,15.0,,,,0.0,4.0,0.0,4.0,1.0,4.0,41.666668,,,,,,,,,,,,,,,,,,,,,,,,,,,,,,,,,,,,,,,,,,,,,,,,,,,,,,0.0,0.0,1.0,0.0,512.0,0.636109,,,,,,,,,,,,,,,,,,,,,,,,,
1012,1645818237.338391,1645818237.412517,60.0,0.0,4238.461426,4697.94873,4186.153809,4266.666504,4251.282227000001,0.0,1.0,15.0,,,,0.0,4.0,0.0,4.0,1.0,4.0,41.666668,,,,,,,,30.0,0.0,0.184657,0.6191409999999999,-0.152832,-0.747803,0.8798959999999999,-0.44483100000000003,-0.178714,-0.016928,-0.026535000000000003,-0.034408999999999995,,,,,,,,,,,,,,,,,,,,,,,,,,,,,,,,,,,,,,,,,,,,,,,,,,,,,,,,,,,,,,,,,
1013,1645818237.346208,1645818237.420332,61.0,0.0,4218.461426,4651.794922,4172.307617,4252.307617,4226.153809,0.0,1.0,15.0,,,,0.0,4.0,0.0,4.0,1.0,4.0,41.666668,,,,,,,,,,,,,,,,,,,,,,,,,,,,,,,,,,,,,,,,,,,,,,,,,,,,,,,,,,,,,,,,,,,,,,,,,,,,,,,,,,,,
1014,1645818237.354024,1645818237.4281461,62.0,0.0,4227.179688,4685.641113000001,4189.230957,4277.94873,4230.769043,0.0,1.0,15.0,,,,0.0,4.0,0.0,4.0,1.0,4.0,41.666668,,,,,,,,31.0,0.0,0.184455,0.6191409999999999,-0.153076,-0.747803,0.8881969999999999,-0.46338599999999996,-0.176761,-0.017335,-0.026518,-0.036681,,,,,,,,,,,,,,,,,,,,,,,,,,,,,,,,,,,,,,,,,,,,,,,,,,,,,,,,,,,,,,,,,
1015,1645818237.36184,1645818237.435961,63.0,0.0,4250.256348,4648.205078,4213.333496,4311.282227000001,4257.436035,0.0,1.0,15.0,,,,0.0,4.0,0.0,4.0,1.0,4.0,41.666668,0.96875,25.0,3.0,0.0,4.0,0.0,3.0,,,,,,,,,,,,,1.0,0.0,0.0,,,,,,,,,,,,,,,,,,,,,,,,,,,,,,,,0.0,0.0,1.0,0.0,512.0,1.0,798.5409549999999,75.002098,7.976255,2.918158,3.10835,12.660228,17.094294,12.061303,13.394329999999998,10.831363,2.6887689999999997,0.565593,1.9642110000000002,1.523159,2.6856400000000002,4.9114580000000005,2.7862009999999997,4.109089,4.446366,6.418794999999999,218.871109,15.290548000000001,3.073727,2.640215,3.138586
1016,1645818237.369656,1645818237.443775,64.0,0.0,4246.153809,4629.230957,4214.358886999999,4307.692383,4252.820313,450.0,1.0,15.0,,,,0.0,4.0,0.0,4.0,1.0,4.0,41.666668,,,,,,,,32.0,0.0,0.184455,0.6191409999999999,-0.153076,-0.747803,0.8833139999999999,-0.449226,-0.192874,-0.017799000000000002,-0.026552,-0.032524000000000004,,,,,,,,,,,,,,,,,,,,,,,,,,,,,,,,,,,,,,,,,,,,,,,,,,,,,,,,,,,,,,,,,
1017,1645818237.377473,1645818237.451589,65.0,0.0,4235.384765999999,4702.05127,4193.333496,4286.666504,4236.410156,450.0,1.0,15.0,,,,0.0,4.0,0.0,4.0,1.0,4.0,41.666668,,,,,,,,,,,,,,,,,,,,,,,,,,,,,,,,,,,,,,,,,,,,,,,,,,,,,,,,,,,,,,,,,,,,,,,,,,,,,,,,,,,,
1018,1645818237.385289,1645818237.459404,66.0,0.0,4243.077147999999,4680.512695,4189.743652,4286.666504,4249.230957,16199.0,1.0,15.0,,,,0.0,4.0,0.0,4.0,1.0,4.0,41.666668,,,,,,,,33.0,0.0,0.184657,0.6191409999999999,-0.152832,-0.747803,0.8798959999999999,-0.44483100000000003,-0.178714,-0.018265,-0.026581999999999998,-0.028881,,,,,,,,,,,,,,,,,,,,,,,,,,,,,,,,,,,,,,,,,,,,,,,,,,,,,,,,,,,,,,,,,
1019,1645818237.393105,1645818237.467118,67.0,0.0,4243.077147999999,4611.794922,4204.615234000001,4302.05127,4250.769043,450.0,1.0,15.0,,,,0.0,4.0,0.0,4.0,1.0,4.0,41.666668,,,,,,,,,,,,,,,,,,,,,,,,,,,,,,,,,,,,,,,,,,,,,,,,,,,,,,0.0,0.0,1.0,0.0,512.0,1.0,,,,,,,,,,,,,,,,,,,,,,,,,
1020,1645818237.400921,1645818237.474933,68.0,0.0,4223.589844,4619.487305,4187.179688,4310.256348,4216.410156,0.0,1.0,15.0,,,,0.0,4.0,0.0,4.0,1.0,4.0,41.666668,,,,,,,,34.0,0.0,0.184455,0.6191409999999999,-0.153076,-0.747803,0.8833139999999999,-0.449226,-0.192874,-0.018636,-0.02661,-0.025505,,,,,,,,,,,,,,,,,,,,,,,,,,,,,,,,,,,,,,,,,,,,,,,,,,,,,,,,,,,,,,,,,
1021,1645818237.4087381,1645818237.482747,69.0,0.0,4215.384765999999,4621.025879,4169.743652,4312.307617,4212.307617,450.0,1.0,15.0,,,,0.0,4.0,0.0,4.0,1.0,4.0,41.666668,,,,,,,,,,,,,,,,,,,,,,,,,,,,,,,,,,,,,,,,,,,,,,,,,,,,,,,,,,,,,,,,,,,,,,,,,,,,,,,,,,,,
1022,1645818237.416554,1645818237.490562,70.0,0.0,4230.256348,4610.256348,4197.436035,4307.692383,4244.615234000001,16149.0,1.0,15.0,,,,0.0,4.0,0.0,4.0,1.0,4.0,41.666668,,,,,,,,35.0,0.0,0.184455,0.6191409999999999,-0.153076,-0.747803,0.870619,-0.45996800000000004,-0.191897,-0.018969,-0.026683,-0.028667,,,,,,,,,,,,,,,,,,,,,,,,,,,,,,,,,,,,,,,,,,,,,,,,,,,,,,,,,,,,,,,,,
1023,1645818237.4243698,1645818237.498376,71.0,0.0,4231.794922,4662.563965,4202.563965,4299.487305,4233.846191,450.0,1.0,15.0,,,,0.0,4.0,0.0,4.0,1.0,4.0,41.666668,,,,,,,,,,,,,,,,,,,,,,,,,,,,,,,,,,,,,,,,,,,,,,,,,,,,,,0.0,0.0,1.0,0.0,512.0,1.0,,,,,,,,,,,,,,,,,,,,,,,,,
1024,1645818237.432186,1645818237.50619,72.0,0.0,4219.487305,4687.179688,4173.333496,4290.769043,4202.563965,450.0,1.0,15.0,,,,0.0,4.0,0.0,4.0,1.0,4.0,41.666668,,,,,,,,36.0,0.0,0.184252,0.6191409999999999,-0.15332,-0.747803,0.878431,-0.446784,-0.188479,-0.01927,-0.026650999999999998,-0.025361,,,,,,,,,,,,,,,,,,,,,,,,,,,,,,,,,,,,,,,,,,,,,,,,,,,,,,,,,,,,,,,,,
1025,1645818237.440003,1645818237.5140052,73.0,0.0,4228.205078,4636.922852000001,4187.692383,4283.589844,4221.025879,41.0,1.0,15.0,,,,0.0,4.0,0.0,4.0,1.0,4.0,41.666668,,,,,,,,,,,,,,,,,,,,,,,,,,,,,,,,,,,,,,,,,,,,,,,,,,,,,,,,,,,,,,,,,,,,,,,,,,,,,,,,,,,,
1026,1645818237.447819,1645818237.5218189,74.0,0.0,4258.974121,4623.589844,4220.0,4289.230957,4254.358886999999,450.0,1.0,15.0,,,,0.0,4.0,0.0,4.0,1.0,4.0,41.666668,,,,,,,,37.0,0.0,0.183258,0.6191409999999999,-0.15332,-0.748047,0.8896620000000001,-0.45264399999999994,-0.183597,-0.019296,-0.02677,-0.028538,,,,,,,,,,,,,,,,,,,,,,,,,,,,,,,,,,,,,,,,,,,,,,,,,,,,,,,,,,,,,,,,,
1027,1645818237.455635,1645818237.529634,75.0,0.0,4266.153809,4662.05127,4209.230957,4287.692383,4246.666504,16210.0,1.0,15.0,,,,0.0,4.0,0.0,4.0,1.0,4.0,41.666668,,,,,,,,,,,,,,,,,,,,,,,,,,,,,,,,,,,,,,,,,,,,,,,,,,,,,,0.0,0.0,1.0,0.0,512.0,1.0,,,,,,,,,,,,,,,,,,,,,,,,,
1028,1645818237.463451,1645818237.537448,76.0,0.0,4253.333496,4675.897461,4202.563965,4286.666504,4235.384765999999,450.0,1.0,15.0,,,,0.0,4.0,0.0,4.0,1.0,4.0,41.666668,,,,,,,,38.0,0.0,0.184081,0.618896,-0.15332,-0.748047,0.8847790000000001,-0.45069,-0.190433,-0.019466,-0.026925,-0.025245,,,,,,,,,,,,,,,,,,,,,,,,,,,,,,,,,,,,,,,,,,,,,,,,,,,,,,,,,,,,,,,,,
1029,1645818237.471267,1645818237.545162,77.0,0.0,4257.94873,4680.0,4216.410156,4303.077147999999,4251.282227000001,450.0,1.0,15.0,,,,0.0,4.0,0.0,4.0,1.0,4.0,41.666668,,,,,,,,,,,,,,,,,,,,,,,,,,,,,,,,,,,,,,,,,,,,,,,,,,,,,,,,,,,,,,,,,,,,,,,,,,,,,,,,,,,,
1030,1645818237.479084,1645818237.5529768,78.0,0.0,4266.153809,4706.666504,4223.589844,4311.794922,4259.487305,450.0,1.0,15.0,,,,0.0,4.0,0.0,4.0,1.0,4.0,41.666668,,,,,,,,39.0,0.0,0.18387799999999999,0.618896,-0.153564,-0.748047,0.876967,-0.45264399999999994,-0.190921,-0.018105,-0.026869,-0.022330000000000003,,,,,,,,,,,,,,,,,,,,,,,,,,,,,,,,,,,,,,,,,,,,,,,,,,,,,,,,,,,,,,,,,
1031,1645818237.4869,1645818237.560791,79.0,0.0,4253.846191,4682.05127,4212.820313,4289.230957,4242.563965,16210.0,1.0,15.0,,,,0.0,4.0,0.0,4.0,1.0,4.0,41.666668,,,,,,,,,,,,,,,,,,,,1.0,0.0,0.0,,,,,,,,,,,,,,,,,,,,,,,,,,,,,,,,0.0,0.0,1.0,0.0,512.0,1.0,972.750061,91.443474,9.442541,3.214718,2.987828,10.416077,14.6428,13.948972,15.149631,11.393803,2.749474,0.474179,1.5884459999999998,1.2746899999999999,2.488459,4.45421,2.948256,5.693319,5.315565,6.9765440000000005,265.985229,17.7026,2.866847,2.37709,2.8519650000000003
1032,1645818237.494716,1645818237.5686061,80.0,0.0,4253.846191,4675.897461,4202.563965,4274.358886999999,4238.974121,450.0,1.0,15.0,,,,0.0,4.0,0.0,4.0,1.0,4.0,41.666668,,,,,,,,40.0,0.0,0.18387799999999999,0.618896,-0.153564,-0.748047,0.87013,-0.445808,-0.190433,-0.016978,-0.026819,-0.025810000000000003,,,,,,,,,,,,,,,,,,,,,,,,,,,,,,,,,,,,,,,,,,,,,,,,,,,,,,,,,,,,,,,,,
1033,1645818237.502532,1645818237.5764198,81.0,0.0,4272.820313,4741.538574,4217.436035,4277.436035,4261.025879,450.0,1.0,15.0,,,,0.0,4.0,0.0,4.0,1.0,4.0,41.666668,,,,,,,,,,,,,,,,,,,,,,,,,,,,,,,,,,,,,,,,,,,,,,,,,,,,,,,,,,,,,,,,,,,,,,,,,,,,,,,,,,,,
1034,1645818237.510349,1645818237.584235,82.0,0.0,4261.025879,4724.102539,4223.077147999999,4276.922852000001,4251.282227000001,450.0,1.0,15.0,,,,0.0,4.0,0.0,4.0,1.0,4.0,41.666668,,,,,,,,41.0,0.0,0.18387799999999999,0.618896,-0.153564,-0.748047,0.8833139999999999,-0.44190100000000004,-0.18457300000000001,-0.017575999999999998,-0.026676,-0.028991000000000003,,,,,,,,,,,,,,,,,,,,,,,,,,,,,,,,,,,,,,,,,,,,,,,,,,,,,,,,,,,,,,,,,
1035,1645818237.518165,1645818237.5920491,83.0,0.0,4249.230957,4659.487305,4212.820313,4292.307617,4234.358886999999,16210.0,1.0,15.0,,,,0.0,4.0,0.0,4.0,1.0,4.0,41.666668,,,,,,,,,,,,,,,,,,,,,,,,,,,,,,,,,,,,,,,,,,,,,,,,,,,,,,0.0,0.0,1.0,0.0,512.0,1.0,,,,,,,,,,,,,,,,,,,,,,,,,
1036,1645818237.525981,1645818237.599863,84.0,0.0,4260.0,4666.666504,4217.436035,4302.05127,4245.128418,450.0,1.0,15.0,,,,0.0,4.0,0.0,4.0,1.0,4.0,41.666668,,,,,,,,42.0,0.0,0.18387799999999999,0.618896,-0.153564,-0.748047,0.8960100000000001,-0.438483,-0.188479,-0.018015,-0.026645,-0.031951,,,,,,,,,,,,,,,,,,,,,,,,,,,,,,,,,,,,,,,,,,,,,,,,,,,,,,,,,,,,,,,,,
1037,1645818237.533797,1645818237.607678,85.0,0.0,4254.358886999999,4655.897461,4214.358886999999,4288.717772999999,4238.974121,450.0,1.0,15.0,,,,0.0,4.0,0.0,4.0,1.0,4.0,41.666668,,,,,,,,,,,,,,,,,,,,,,,,,,,,,,,,,,,,,,,,,,,,,,,,,,,,,,,,,,,,,,,,,,,,,,,,,,,,,,,,,,,,
1038,1645818237.541613,1645818237.615492,86.0,0.0,4248.205078,4595.384765999999,4194.358886999999,4290.769043,4224.615234000001,450.0,1.0,15.0,,,,0.0,4.0,0.0,4.0,1.0,4.0,41.666668,,,,,,,,43.0,0.0,0.183673,0.618896,-0.153809,-0.748047,0.8803850000000001,-0.44776099999999996,-0.188479,-0.01846,-0.026569,-0.028364999999999998,,,,,,,,,,,,,,,,,,,,,,,,,,,,,,,,,,,,,,,,,,,,,,,,,,,,,,,,,,,,,,,,,
1039,1645818237.5494301,1645818237.623207,87.0,0.0,4257.436035,4551.794922,4191.282227000001,4277.94873,4233.846191,16210.0,1.0,15.0,,,,0.0,4.0,0.0,4.0,1.0,4.0,41.666668,,,,,,,,,,,,,,,,,,,,,,,,,,,,,,,,,,,,,,,,,,,,,,,,,,,,,,0.0,0.0,1.0,0.0,512.0,1.0,,,,,,,,,,,,,,,,,,,,,,,,,
1040,1645818237.5572462,1645818237.631021,88.0,0.0,4256.922852000001,4571.282227000001,4199.487305,4273.333496,4230.256348,450.0,1.0,15.0,,,,0.0,4.0,0.0,4.0,1.0,4.0,41.666668,,,,,,,,44.0,0.0,0.184665,0.618896,-0.153809,-0.747803,0.882826,-0.44483100000000003,-0.18701500000000001,-0.018762,-0.026597000000000003,-0.031339,,,,,,,,,,,,,,,,,,,,,,,,,,,,,,,,,,,,,,,,,,,,,,,,,,,,,,,,,,,,,,,,,
1041,1645818237.5650618,1645818237.638835,89.0,0.0,4258.461426,4674.358886999999,4204.102539,4293.846191,4227.179688,450.0,1.0,15.0,,,,0.0,4.0,0.0,4.0,1.0,4.0,41.666668,,,,,,,,,,,,,,,,,,,,,,,,,,,,,,,,,,,,,,,,,,,,,,,,,,,,,,,,,,,,,,,,,,,,,,,,,,,,,,,,,,,,
1042,1645818237.572878,1645818237.64665,90.0,0.0,4272.307617,4748.717772999999,4212.820313,4288.717772999999,4244.102539,450.0,1.0,15.0,,,,0.0,4.0,0.0,4.0,1.0,4.0,41.666668,,,,,,,,45.0,0.0,0.184665,0.618896,-0.153809,-0.747803,0.8764780000000001,-0.45557299999999995,-0.196292,-0.017521000000000002,-0.026525999999999997,-0.034016000000000005,,,,,,,,,,,,,,,,,,,,,,,,,,,,,,,,,,,,,,,,,,,,,,,,,,,,,,,,,,,,,,,,,
1043,1645818237.580695,1645818237.654464,91.0,0.0,4282.05127,4694.358886999999,4210.769043,4266.153809,4250.769043,16210.0,1.0,15.0,,,,0.0,4.0,0.0,4.0,1.0,4.0,41.666668,,,,,,,,,,,,,,,,,,,,,,,,,,,,,,,,,,,,,,,,,,,,,,,,,,,,,,0.0,0.0,1.0,0.0,512.0,1.0,,,,,,,,,,,,,,,,,,,,,,,,,
1044,1645818237.588511,1645818237.662279,92.0,0.0,4272.307617,4644.102539,4193.846191,4263.589844,4231.794922,450.0,1.0,15.0,,,,0.0,4.0,0.0,4.0,1.0,4.0,41.666668,,,,,,,,46.0,0.0,0.184665,0.618896,-0.153809,-0.747803,0.8759899999999999,-0.44434300000000004,-0.188968,-0.017917,-0.026510000000000002,-0.030077,,,,,,,,,,,,,,,,,,,,,,,,,,,,,,,,,,,,,,,,,,,,,,,,,,,,,,,,,,,,,,,,,
1045,1645818237.596327,1645818237.670093,93.0,0.0,4248.717772999999,4653.846191,4194.871582,4287.179688,4210.256348,450.0,1.0,15.0,,,,0.0,4.0,0.0,4.0,1.0,4.0,41.666668,,,,,,,,,,,,,,,,,,,,,,,,,,,,,,,,,,,,,,,,,,,,,,,,,,,,,,,,,,,,,,,,,,,,,,,,,,,,,,,,,,,,
1046,1645818237.6041439,1645818237.677908,94.0,0.0,4250.256348,4639.487305,4203.589844,4304.615234000001,4207.692383,450.0,1.0,15.0,,,,0.0,4.0,0.0,4.0,1.0,4.0,41.666668,,,,,,,,47.0,0.0,0.183469,0.618896,-0.154053,-0.748047,0.885756,-0.455085,-0.18457300000000001,-0.018567,-0.026543999999999998,-0.02663,,,,,,,,,,,,,,,,,,,,,,,,,,,,,,,,,,,,,,,,,,,,,,,,,,,,,,,,,,,,,,,,,
1047,1645818237.61196,1645818237.685722,95.0,0.0,4278.974121,4617.94873,4207.692383,4309.743652,4234.871582,16210.0,1.0,15.0,,,,0.0,4.0,0.0,4.0,1.0,4.0,41.666668,,,,,,,,,,,,,,,,,,,,1.0,0.0,0.0,,,,,,,,,,,,,,,,,,,,,,,,,,,,,,,,0.0,0.0,1.0,0.0,512.0,1.0,1026.196899,96.894958,10.107148,3.376447,2.776479,11.118169,12.55602,15.934377,17.2609,11.808904,2.750381,0.491436,1.225636,1.139274,2.234219,3.7934930000000002,2.99579,7.606731,6.067518,6.99693,279.948578,18.044472,2.530743,2.08624,2.5146330000000003
1048,1645818237.619776,1645818237.693436,96.0,0.0,4287.179688,4652.307617,4216.410156,4274.871582,4256.410156,450.0,1.0,15.0,,,,0.0,4.0,0.0,4.0,1.0,4.0,41.666668,,,,,,,,48.0,0.0,0.183469,0.618896,-0.154053,-0.748047,0.875502,-0.461433,-0.189944,-0.018908,-0.026576,-0.029778,,,,,,,,,,,,,,,,,,,,,,,,,,,,,,,,,,,,,,,,,,,,,,,,,,,,,,,,,,,,,,,,,
1049,1645818237.627592,1645818237.701251,97.0,0.0,4266.666504,4679.487305,4212.820313,4263.077147999999,4231.282227000001,450.0,1.0,15.0,,,,0.0,4.0,0.0,4.0,1.0,4.0,41.666668,,,,,,,,,,,,,,,,,,,,,,,,,,,,,,,,,,,,,,,,,,,,,,,,,,,,,,,,,,,,,,,,,,,,,,,,,,,,,,,,,,,,
1050,1645818237.635408,1645818237.709065,98.0,0.0,4255.897461,4666.153809,4195.384765999999,4296.410156,4201.538574,450.0,1.0,15.0,,,,0.0,4.0,0.0,4.0,1.0,4.0,41.666668,,,,,,,,49.0,0.0,0.18446099999999999,0.618896,-0.154053,-0.747803,0.8872209999999999,-0.45410900000000004,-0.179202,-0.019165,-0.026555000000000002,-0.026262999999999998,,,,,,,,,,,,,,,,,,,,,,,,,,,,,,,,,,,,,,,,,,,,,,,,,,,,,,,,,,,,,,,,,
1051,1645818237.643225,1645818237.71688,99.0,0.0,4256.410156,4655.897461,4188.205078,4286.666504,4198.461426,16210.0,1.0,15.0,,,,0.0,4.0,0.0,4.0,1.0,4.0,41.666668,,,,,,,,,,,,,,,,,,,,,,,,,,,,,,,,,,,,,,,,,,,,,,,,,,,,,,0.0,0.0,1.0,0.0,512.0,1.0,,,,,,,,,,,,,,,,,,,,,,,,,
1052,1645818237.651041,1645818237.724694,100.0,0.0,4269.743652,4669.743652,4191.794922,4267.179688,4209.743652,450.0,1.0,15.0,,,,0.0,4.0,0.0,4.0,1.0,4.0,41.666668,,,,,,,,50.0,0.0,0.18446099999999999,0.618896,-0.154053,-0.747803,0.893568,-0.462409,-0.190921,-0.019495,-0.026536,-0.029545,,,,,,,,,,,,,,,,,,,,,,,,,,,,,,,,,,,,,,,,,,,,,,,,,,,,,,,,,,,,,,,,,
1053,1645818237.658857,1645818237.732508,101.0,0.0,4280.512695,4697.94873,4184.615234000001,4284.615234000001,4227.179688,450.0,1.0,15.0,,,,0.0,4.0,0.0,4.0,1.0,4.0,41.666668,,,,,,,,,,,,,,,,,,,,,,,,,,,,,,,,,,,,,,,,,,,,,,,,,,,,,,,,,,,,,,,,,,,,,,,,,,,,,,,,,,,,
1054,1645818237.666673,1645818237.740323,102.0,0.0,4270.769043,4696.922852000001,4181.025879,4288.717772999999,4233.333496,450.0,1.0,15.0,,,,0.0,4.0,0.0,4.0,1.0,4.0,41.666668,,,,,,,,51.0,0.0,0.183469,0.618896,-0.154053,-0.748047,0.885756,-0.447272,-0.195804,-0.019645,-0.026617000000000002,-0.0262,,,,,,,,,,,,,,,,,,,,,,,,,,,,,,,,,,,,,,,,,,,,,,,,,,,,,,,,,,,,,,,,,
1055,1645818237.67449,1645818237.748137,103.0,0.0,4266.666504,4666.153809,4194.871582,4265.128418,4217.436035,16210.0,1.0,15.0,,,,0.0,4.0,0.0,4.0,1.0,4.0,41.666668,,,,,,,,,,,,,,,,,,,,,,,,,,,,,,,,,,,,,,,,,,,,,,,,,,,,,,0.0,0.0,1.0,0.0,512.0,1.0,,,,,,,,,,,,,,,,,,,,,,,,,
1056,1645818237.682306,1645818237.755952,104.0,0.0,4280.512695,4627.692383,4205.641113000001,4267.692383,4213.846191,450.0,1.0,15.0,,,,0.0,4.0,0.0,4.0,1.0,4.0,41.666668,,,,,,,,52.0,0.0,0.183469,0.618896,-0.154053,-0.748047,0.878431,-0.449226,-0.188479,-0.018413,-0.02669,-0.02939,,,,,,,,,,,,,,,,,,,,,,,,,,,,,,,,,,,,,,,,,,,,,,,,,,,,,,,,,,,,,,,,,
1057,1645818237.6901221,1645818237.763666,105.0,0.0,4278.461426,4635.384765999999,4197.94873,4274.358886999999,4219.487305,450.0,1.0,15.0,,,,0.0,4.0,0.0,4.0,1.0,4.0,41.666668,,,,,,,,,,,,,,,,,,,,,,,,,,,,,,,,,,,,,,,,,,,,,,,,,,,,,,,,,,,,,,,,,,,,,,,,,,,,,,,,,,,,
1058,1645818237.6979382,1645818237.771481,106.0,0.0,4284.615234000001,4693.333496,4200.0,4263.077147999999,4228.717772999999,450.0,1.0,15.0,,,,0.0,4.0,0.0,4.0,1.0,4.0,41.666668,,,,,,,,53.0,0.0,0.18446099999999999,0.618896,-0.154053,-0.747803,0.8838030000000001,-0.43994799999999995,-0.18262,-0.017255,-0.026804,-0.032262,,,,,,,,,,,,,,,,,,,,,,,,,,,,,,,,,,,,,,,,,,,,,,,,,,,,,,,,,,,,,,,,,
1059,1645818237.7057538,1645818237.779295,107.0,0.0,4293.846191,4709.743652,4198.461426,4267.692383,4228.205078,16210.0,1.0,15.0,,,,0.0,4.0,0.0,4.0,1.0,4.0,41.666668,,,,,,,,,,,,,,,,,,,,,,,,,,,,,,,,,,,,,,,,,,,,,,,,,,,,,,0.0,0.0,1.0,0.0,512.0,1.0,,,,,,,,,,,,,,,,,,,,,,,,,
1060,1645818237.713571,1645818237.787109,108.0,0.0,4271.794922,4675.897461,4188.205078,4289.230957,4203.077147999999,450.0,1.0,15.0,,,,0.0,4.0,0.0,4.0,1.0,4.0,41.666668,,,,,,,,54.0,0.0,0.183469,0.618896,-0.154053,-0.748047,0.8813610000000001,-0.45361999999999997,-0.190921,-0.017825,-0.026760000000000003,-0.034894999999999995,,,,,,,,,,,,,,,,,,,,,,,,,,,,,,,,,,,,,,,,,,,,,,,,,,,,,,,,,,,,,,,,,
1061,1645818237.721387,1645818237.794924,109.0,0.0,4261.538574,4652.820313,4201.025879,4296.410156,4203.589844,450.0,1.0,15.0,,,,0.0,4.0,0.0,4.0,1.0,4.0,41.666668,,,,,,,,,,,,,,,,,,,,,,,,,,,,,,,,,,,,,,,,,,,,,,,,,,,,,,,,,,,,,,,,,,,,,,,,,,,,,,,,,,,,
1062,1645818237.729203,1645818237.8027382,110.0,0.0,4280.512695,4645.128418,4210.769043,4285.641113000001,4232.820313,450.0,1.0,15.0,,,,0.0,4.0,0.0,4.0,1.0,4.0,41.666668,,,,,,,,55.0,0.0,0.183469,0.618896,-0.154053,-0.748047,0.890639,-0.461433,-0.17773699999999998,-0.01824,-0.026819,-0.037119,,,,,,,,,,,,,,,,,,,,,,,,,,,,,,,,,,,,,,,,,,,,,,,,,,,,,,,,,,,,,,,,,
1063,1645818237.737019,1645818237.8105528,111.0,0.0,4269.230957,4615.897461,4181.538574,4284.102539,4216.922852000001,16210.0,1.0,15.0,,,,0.0,4.0,0.0,4.0,1.0,4.0,41.666668,,,,,,,,,,,,,,,,,,,,1.0,0.0,0.0,,,,,,,,,,,,,,,,,,,,,,,,,,,,,,,,0.0,0.0,1.0,0.0,512.0,1.0,939.4038699999999,89.432579,9.66225,3.371001,2.499091,13.701258,11.297381,17.38505,19.588192000000003,11.992675,2.734922,0.603772,0.91485,1.133413,1.9712619999999998,3.11922,2.838477,9.334544000000001,6.5393300000000005,6.4873199999999995,255.736893,16.220948999999997,2.101754,1.8270540000000002,2.193048
1064,1645818237.7448359,1645818237.818367,112.0,0.0,4248.717772999999,4603.077147999999,4162.05127,4298.461426,4187.692383,450.0,1.0,15.0,,,,0.0,4.0,0.0,4.0,1.0,4.0,41.666668,,,,,,,,56.0,0.0,0.183263,0.618896,-0.154297,-0.748047,0.891127,-0.44531899999999996,-0.186526,-0.018515,-0.026822000000000002,-0.033065,,,,,,,,,,,,,,,,,,,,,,,,,,,,,,,,,,,,,,,,,,,,,,,,,,,,,,,,,,,,,,,,,
1065,1645818237.752652,1645818237.8261812,113.0,0.0,4273.333496,4628.717772999999,4176.922852000001,4296.410156,4211.282227000001,450.0,1.0,15.0,,,,0.0,4.0,0.0,4.0,1.0,4.0,41.666668,,,,,,,,,,,,,,,,,,,,,,,,,,,,,,,,,,,,,,,,,,,,,,,,,,,,,,,,,,,,,,,,,,,,,,,,,,,,,,,,,,,,
1066,1645818237.760468,1645818237.833996,114.0,0.0,4292.307617,4615.384765999999,4189.743652,4278.974121,4227.179688,450.0,1.0,15.0,,,,0.0,4.0,0.0,4.0,1.0,4.0,41.666668,,,,,,,,57.0,0.0,0.183263,0.618896,-0.154297,-0.748047,0.8813610000000001,-0.45948,-0.18799100000000002,-0.018715,-0.026826,-0.035472000000000004,,,,,,,,,,,,,,,,,,,,,,,,,,,,,,,,,,,,,,,,,,,,,,,,,,,,,,,,,,,,,,,,,
1067,1645818237.768284,1645818237.8417099,115.0,0.0,4278.974121,4574.871582,4186.666504,4265.641113000001,4217.436035,16210.0,1.0,15.0,,,,0.0,4.0,0.0,4.0,1.0,4.0,41.666668,,,,,,,,,,,,,,,,,,,,,,,,,,,,,,,,,,,,,,,,,,,,,,,,,,,,,,0.0,0.0,1.0,0.0,512.0,1.0,,,,,,,,,,,,,,,,,,,,,,,,,
1068,1645818237.7761009,1645818237.849425,116.0,0.0,4267.179688,4590.256348,4176.922852000001,4271.794922,4222.563965,450.0,1.0,15.0,,,,0.0,4.0,0.0,4.0,1.0,4.0,41.666668,,,,,,,,58.0,0.0,0.184052,0.618896,-0.154541,-0.747803,0.873549,-0.445808,-0.189944,-0.019138,-0.026877999999999996,-0.037784,,,,,,,,,,,,,,,,,,,,,,,,,,,,,,,,,,,,,,,,,,,,,,,,,,,,,,,,,,,,,,,,,
1069,1645818237.783917,1645818237.857239,117.0,0.0,4270.769043,4628.205078,4188.205078,4275.384765999999,4217.94873,450.0,1.0,15.0,,,,0.0,4.0,0.0,4.0,1.0,4.0,41.666668,,,,,,,,,,,,,,,,,,,,,,,,,,,,,,,,,,,,,,,,,,,,,,,,,,,,,,,,,,,,,,,,,,,,,,,,,,,,,,,,,,,,
1070,1645818237.791733,1645818237.865054,118.0,0.0,4283.589844,4621.538574,4210.256348,4267.179688,4207.179688,450.0,1.0,15.0,,,,0.0,4.0,0.0,4.0,1.0,4.0,41.666668,,,,,,,,59.0,0.0,0.184052,0.618896,-0.154541,-0.747803,0.881849,-0.44971400000000006,-0.191409,-0.019275,-0.026875,-0.039767000000000004,,,,,,,,,,,,,,,,,,,,,,,,,,,,,,,,,,,,,,,,,,,,,,,,,,,,,,,,,,,,,,,,,
1071,1645818237.799549,1645818237.872868,119.0,0.0,4286.666504,4641.538574,4194.871582,4264.102539,4213.846191,16210.0,1.0,15.0,,,,0.0,4.0,0.0,4.0,1.0,4.0,41.666668,,,,,,,,,,,,,,,,,,,,,,,,,,,,,,,,,,,,,,,,,,,,,,,,,,,,,,0.0,0.0,1.0,0.0,512.0,1.0,,,,,,,,,,,,,,,,,,,,,,,,,
1072,1645818237.8073661,1645818237.880683,120.0,0.0,4274.871582,4688.717772999999,4167.179688,4268.717772999999,4207.179688,450.0,1.0,15.0,,,,0.0,4.0,0.0,4.0,1.0,4.0,41.666668,,,,,,,,60.0,0.0,0.183263,0.618896,-0.154297,-0.748047,0.8813610000000001,-0.45948,-0.18799100000000002,-0.019398,-0.026873,-0.041504,,,,,,,,,,,,,,,,,,,,,,,,,,,,,,,,,,,,,,,,,,,,,,,,,,,,,,,,,,,,,,,,,
1073,1645818237.815182,1645818237.888497,121.0,0.0,4281.025879,4648.717772999999,4182.05127,4278.461426,4200.512695,450.0,1.0,15.0,,,,0.0,4.0,0.0,4.0,1.0,4.0,41.666668,,,,,,,,,,,,,,,,,,,,,,,,,,,,,,,,,,,,,,,,,,,,,,,,,,,,,,,,,,,,,,,,,,,,,,,,,,,,,,,,,,,,
1074,1645818237.822998,1645818237.896311,122.0,0.0,4298.461426,4614.871582,4193.846191,4270.256348,4213.846191,450.0,1.0,15.0,,,,0.0,4.0,0.0,4.0,1.0,4.0,41.666668,,,,,,,,61.0,0.0,0.184052,0.618896,-0.154541,-0.747803,0.881849,-0.44971400000000006,-0.191409,-0.019509000000000002,-0.026872000000000004,-0.043115,,,,,,,,,,,,,,,,,,,,,,,,,,,,,,,,,,,,,,,,,,,,,,,,,,,,,,,,,,,,,,,,,
1075,1645818237.8308141,1645818237.904126,123.0,0.0,4301.025879,4669.743652,4192.820313,4260.0,4223.589844,16210.0,1.0,15.0,,,,0.0,4.0,0.0,4.0,1.0,4.0,41.666668,,,,,,,,,,,,,,,,,,,,,,,,,,,,,,,,,,,,,,,,,,,,,,,,,,,,,,0.0,0.0,1.0,0.0,512.0,1.0,,,,,,,,,,,,,,,,,,,,,,,,,
1076,1645818237.8386312,1645818237.91194,124.0,0.0,4298.461426,4675.384765999999,4201.538574,4274.358886999999,4212.820313,450.0,1.0,15.0,,,,0.0,4.0,0.0,4.0,1.0,4.0,41.666668,,,,,,,,62.0,0.0,0.183847,0.618896,-0.15478499999999998,-0.747803,0.877943,-0.44824899999999995,-0.184085,-0.019707,-0.026772000000000004,-0.044516,,,,,,,,,,,,,,,,,,,,,,,,,,,,,,,,,,,,,,,,,,,,,,,,,,,,,,,,,,,,,,,,,
1077,1645818237.846447,1645818237.919755,125.0,0.0,4307.179688,4604.615234000001,4200.512695,4292.820313,4216.922852000001,450.0,1.0,15.0,,,,0.0,4.0,0.0,4.0,1.0,4.0,41.666668,,,,,,,,,,,,,,,,,,,,,,,,,,,,,,,,,,,,,,,,,,,,,,,,,,,,,,,,,,,,,,,,,,,,,,,,,,,,,,,,,,,,
1078,1645818237.854263,1645818237.927469,126.0,0.0,4307.692383,4596.410156,4191.282227000001,4274.871582,4235.897461,450.0,1.0,15.0,,,,0.0,4.0,0.0,4.0,1.0,4.0,41.666668,,,,,,,,63.0,0.0,0.183847,0.618896,-0.15478499999999998,-0.747803,0.8813610000000001,-0.46826899999999994,-0.177249,-0.020031,-0.02683,-0.045827,,,,,,,,,,,,,,,,,,,,,,,,,,,,,,,,,,,,,,,,,,,,,,,,,,,,,,,,,,,,,,,,,
1079,1645818237.862079,1645818237.935184,127.0,0.0,4303.589844,4645.128418,4194.871582,4273.846191,4227.692383,233.0,1.0,15.0,,,,0.0,4.0,0.0,4.0,1.0,4.0,41.666668,1.0,25.0,3.0,0.0,4.0,0.0,3.0,,,,,,,,,,,,,1.0,0.0,0.0,,,,,,,,,,,,,,,,,,,,,,,,,,,,,,,,0.0,0.0,1.0,0.0,512.0,1.0,743.014404,71.54956800000001,8.142771,3.21571,2.185501,17.173691,11.017135000000001,18.271788,21.753748,11.965786,2.752908,0.805523,0.69731,1.215523,1.7400919999999998,2.615257,2.477916,10.334603,6.64411,5.600871,202.145248,12.868419,1.640384,1.6406009999999998,1.933614
1080,1645818237.8698962,1645818237.942998,0.0,0.0,4302.05127,4633.846191,4189.743652,4306.666504,4202.563965,450.0,1.0,15.0,,,,0.0,4.0,0.0,4.0,1.0,4.0,41.666668,,,,,,,,0.0,0.0,0.183641,0.618896,-0.155029,-0.747803,0.890639,-0.44434300000000004,-0.17969000000000002,-0.020225,-0.026831999999999998,-0.040756,,,,,,,,,,,,,,,,,,,,,,,,,,,,,,,,,,,,,,,,,,,,,,,,,,,,,,,,,,,,,,,,,
1081,1645818237.877712,1645818237.9508119,1.0,0.0,4295.384765999999,4637.94873,4186.153809,4295.897461,4203.077147999999,450.0,1.0,15.0,,,,0.0,4.0,0.0,4.0,1.0,4.0,41.666668,,,,,,,,,,,,,,,,,,,,,,,,,,,,,,,,,,,,,,,,,,,,,,,,,,,,,,,,,,,,,,,,,,,,,,,,,,,,,,,,,,,,
1082,1645818237.8855278,1645818237.958627,2.0,0.0,4300.0,4716.922852000001,4207.692383,4265.641113000001,4230.769043,16198.0,1.0,15.0,,,,0.0,4.0,0.0,4.0,1.0,4.0,41.666668,,,,,,,,1.0,0.0,0.184633,0.618896,-0.155029,-0.747559,0.8838030000000001,-0.451179,-0.19336199999999998,-0.020350999999999998,-0.026786,-0.042442,,,,,,,,,,,,,,,,,,,,,,,,,,,,,,,,,,,,,,,,,,,,,,,,,,,,,,,,,,,,,,,,,
1083,1645818237.893344,1645818237.966341,3.0,0.0,4293.333496,4698.974121,4204.615234000001,4270.769043,4220.0,450.0,1.0,15.0,,,,0.0,4.0,0.0,4.0,0.0,4.0,33.333332,,,,,,,,,,,,,,,,,,,,,,,,,,,,,,,,,,,,,,,,,,,,,,,,,,,,,,0.0,0.0,1.0,0.0,512.0,1.0,,,,,,,,,,,,,,,,,,,,,,,,,
1084,1645818237.90116,1645818237.9741561,4.0,0.0,4271.282227000001,4547.692383,4175.384765999999,4271.282227000001,4182.563965,0.0,1.0,15.0,,,,0.0,4.0,0.0,4.0,0.0,4.0,33.333332,,,,,,,,2.0,0.0,0.184633,0.618896,-0.155029,-0.747559,0.891127,-0.45606199999999997,-0.180667,-0.020513,-0.026744,-0.037758,,,,,,,,,,,,,,,,,,,,,,,,,,,,,,,,,,,,,,,,,,,,,,,,,,,,,,,,,,,,,,,,,
1085,1645818237.908977,1645818237.9819698,5.0,0.0,4283.589844,4543.077147999999,4180.512695,4275.897461,4199.487305,450.0,1.0,15.0,,,,0.0,4.0,0.0,4.0,0.0,4.0,33.333332,,,,,,,,,,,,,,,,,,,,,,,,,,,,,,,,,,,,,,,,,,,,,,,,,,,,,,,,,,,,,,,,,,,,,,,,,,,,,,,,,,,,
1086,1645818237.9167929,1645818237.989785,6.0,0.0,4304.102539,4663.077147999999,4195.384765999999,4294.358886999999,4234.358886999999,16133.0,1.0,15.0,,,,0.0,4.0,0.0,4.0,0.0,4.0,33.333332,,,,,,,,3.0,0.0,0.184427,0.618896,-0.155273,-0.747559,0.87892,-0.435065,-0.192874,-0.019097,-0.026853,-0.039793,,,,,,,,,,,,,,,,,,,,,,,,,,,,,,,,,,,,,,,,,,,,,,,,,,,,,,,,,,,,,,,,,
1087,1645818237.924609,1645818237.9975991,7.0,0.0,4288.205078,4636.922852000001,4182.563965,4295.897461,4212.307617,450.0,1.0,15.0,,,,0.0,4.0,0.0,4.0,0.0,4.0,33.333332,,,,,,,,,,,,,,,,,,,,,,,,,,,,,,,,,,,,,,,,,,,,,,,,,,,,,,0.0,0.0,1.0,0.0,512.0,1.0,,,,,,,,,,,,,,,,,,,,,,,,,
1088,1645818237.932425,1645818238.005413,8.0,0.0,4282.05127,4605.641113000001,4177.94873,4285.128418,4196.410156,450.0,1.0,15.0,,,,0.0,4.0,0.0,4.0,0.0,4.0,33.333332,,,,,,,,4.0,0.0,0.184427,0.618896,-0.155273,-0.747559,0.886244,-0.451179,-0.184085,-0.017773,-0.026804,-0.041673,,,,,,,,,,,,,,,,,,,,,,,,,,,,,,,,,,,,,,,,,,,,,,,,,,,,,,,,,,,,,,,,,
1089,1645818237.940242,1645818238.013228,9.0,0.0,4303.077147999999,4682.05127,4191.282227000001,4273.333496,4232.307617,25.0,1.0,15.0,,,,0.0,4.0,0.0,4.0,0.0,4.0,33.333332,,,,,,,,,,,,,,,,,,,,,,,,,,,,,,,,,,,,,,,,,,,,,,,,,,,,,,,,,,,,,,,,,,,,,,,,,,,,,,,,,,,,
1090,1645818237.948058,1645818238.021042,10.0,0.0,4308.717772999999,4670.256348,4196.410156,4277.94873,4238.974121,450.0,1.0,15.0,,,,0.0,4.0,0.0,4.0,0.0,4.0,33.333332,,,,,,,,5.0,0.0,0.184427,0.618896,-0.155273,-0.747559,0.892592,-0.45020200000000005,-0.186038,-0.018193,-0.026808999999999996,-0.043268,,,,,,,,,,,,,,,,,,,,,,,,,,,,,,,,,,,,,,,,,,,,,,,,,,,,,,,,,,,,,,,,,
1091,1645818237.955874,1645818238.028857,11.0,0.0,4297.94873,4610.256348,4187.692383,4286.153809,4211.794922,16182.0,1.0,15.0,,,,0.0,4.0,0.0,4.0,0.0,4.0,33.333332,,,,,,,,,,,,,,,,,,,,,,,,,,,,,,,,,,,,,,,,,,,,,,,,,,,,,,0.0,0.0,1.0,0.0,512.0,1.0,,,,,,,,,,,,,,,,,,,,,,,,,
1092,1645818237.96369,1645818238.036571,12.0,0.0,4291.794922,4653.333496,4177.94873,4283.589844,4213.333496,450.0,1.0,15.0,,,,0.0,4.0,0.0,4.0,0.0,4.0,33.333332,,,,,,,,6.0,0.0,0.184427,0.618896,-0.155273,-0.747559,0.8715950000000001,-0.461921,-0.184085,-0.018619999999999998,-0.026813999999999998,-0.038452999999999994,,,,,,,,,,,,,,,,,,,,,,,,,,,,,,,,,,,,,,,,,,,,,,,,,,,,,,,,,,,,,,,,,
1093,1645818237.971506,1645818238.044385,13.0,0.0,4297.436035,4690.256348,4178.974121,4298.974121,4230.256348,450.0,1.0,15.0,,,,0.0,4.0,0.0,4.0,0.0,4.0,33.333332,,,,,,,,,,,,,,,,,,,,,,,,,,,,,,,,,,,,,,,,,,,,,,,,,,,,,,,,,,,,,,,,,,,,,,,,,,,,,,,,,,,,
1094,1645818237.9793231,1645818238.0522,14.0,0.0,4310.769043,4660.0,4203.077147999999,4307.692383,4230.769043,450.0,1.0,15.0,,,,0.0,4.0,0.0,4.0,0.0,4.0,33.333332,,,,,,,,7.0,0.0,0.184222,0.618896,-0.15551800000000002,-0.747559,0.8842909999999999,-0.45215500000000003,-0.194339,-0.017344,-0.026867000000000002,-0.040467,,,,,,,,,,,,,,,,,,,,,,,,,,,,,,,,,,,,,,,,,,,,,,,,,,,,,,,,,,,,,,,,,
1095,1645818237.987139,1645818238.060014,15.0,0.0,4318.974121,4677.94873,4215.384765999999,4262.563965,4238.974121,16182.0,1.0,15.0,,,,0.0,4.0,0.0,4.0,0.0,4.0,33.333332,,,,,,,,,,,,,,,,,,,,1.0,0.0,0.0,,,,,,,,,,,,,,,,,,,,,,,,,,,,,,,,0.0,0.0,1.0,0.0,512.0,1.0,499.942108,49.146976,5.964507,2.97093,1.873719,20.813549,11.489550999999999,19.253365,23.328192,11.731928,2.812549,1.106208,0.584467,1.314331,1.5643850000000001,2.3399330000000003,2.015095,10.267466,6.3878,4.563019000000001,136.001251,9.063402,1.216472,1.5473350000000001,1.7566709999999999
1096,1645818237.994955,1645818238.067829,16.0,0.0,4320.0,4722.05127,4198.461426,4268.717772999999,4262.563965,0.0,1.0,15.0,,,,0.0,4.0,0.0,4.0,0.0,4.0,33.333332,,,,,,,,8.0,0.0,0.184222,0.618896,-0.15551800000000002,-0.747559,0.877943,-0.460945,-0.18262,-0.017807,-0.026866,-0.03603,,,,,,,,,,,,,,,,,,,,,,,,,,,,,,,,,,,,,,,,,,,,,,,,,,,,,,,,,,,,,,,,,
1097,1645818238.002772,1645818238.075643,17.0,0.0,4314.871582,4713.846191,4188.205078,4330.256348,4264.102539,0.0,1.0,15.0,,,,0.0,4.0,0.0,4.0,0.0,4.0,33.333332,,,,,,,,,,,,,,,,,,,,,,,,,,,,,,,,,,,,,,,,,,,,,,,,,,,,,,,,,,,,,,,,,,,,,,,,,,,,,,,,,,,,
1098,1645818238.0105882,1645818238.083458,18.0,0.0,4303.077147999999,4706.153809,4196.922852000001,4302.05127,4241.538574,0.0,1.0,15.0,,,,0.0,4.0,0.0,4.0,0.0,4.0,33.333332,,,,,,,,9.0,0.0,0.18520899999999998,0.618896,-0.15551800000000002,-0.747314,0.886244,-0.468757,-0.201663,-0.018223,-0.026864999999999997,-0.038286,,,,,,,,,,,,,,,,,,,,,,,,,,,,,,,,,,,,,,,,,,,,,,,,,,,,,,,,,,,,,,,,,
1099,1645818238.018404,1645818238.091272,19.0,0.0,4304.102539,4695.897461,4199.487305,4263.077147999999,4236.410156,0.0,1.0,15.0,,,,0.0,4.0,0.0,4.0,0.0,4.0,33.333332,,,,,,,,,,,,,,,,,,,,,,,,,,,,,,,,,,,,,,,,,,,,,,,,,,,,,,0.0,0.0,1.0,0.0,512.0,1.0,,,,,,,,,,,,,,,,,,,,,,,,,
1100,1645818238.0262198,1645818238.099086,20.0,0.0,4307.179688,4640.512695,4196.922852000001,4313.333496,4243.589844,0.0,1.0,15.0,,,,0.0,4.0,0.0,4.0,0.0,4.0,33.333332,,,,,,,,10.0,0.0,0.185173,0.6191409999999999,-0.15576199999999998,-0.74707,0.8881969999999999,-0.45801499999999995,-0.188479,-0.018598,-0.026913,-0.03392,,,,,,,,,,,,,,,,,,,,,,,,,,,,,,,,,,,,,,,,,,,,,,,,,,,,,,,,,,,,,,,,,
1101,1645818238.0340369,1645818238.106801,21.0,0.0,4310.769043,4636.410156,4206.666504,4319.487305,4240.0,0.0,1.0,15.0,,,,0.0,4.0,0.0,4.0,0.0,4.0,33.333332,,,,,,,,,,,,,,,,,,,,,,,,,,,,,,,,,,,,,,,,,,,,,,,,,,,,,,,,,,,,,,,,,,,,,,,,,,,,,,,,,,,,
1102,1645818238.041853,1645818238.114615,22.0,0.0,4319.487305,4673.333496,4210.256348,4277.94873,4235.384765999999,0.0,1.0,15.0,,,,0.0,4.0,0.0,4.0,0.0,4.0,33.333332,,,,,,,,11.0,0.0,0.185173,0.6191409999999999,-0.15576199999999998,-0.74707,0.893568,-0.45410900000000004,-0.188479,-0.017324000000000003,-0.026907,-0.036388,,,,,,,,,,,,,,,,,,,,,,,,,,,,,,,,,,,,,,,,,,,,,,,,,,,,,,,,,,,,,,,,,
1103,1645818238.049669,1645818238.12243,23.0,0.0,4320.512695,4665.128418,4206.153809,4298.461426,4253.846191,0.0,1.0,15.0,,,,0.0,4.0,0.0,4.0,0.0,4.0,33.333332,,,,,,,,,,,,,,,,,,,,,,,,,,,,,,,,,,,,,,,,,,,,,,,,,,,,,,0.0,0.0,1.0,0.0,512.0,1.0,,,,,,,,,,,,,,,,,,,,,,,,,
1104,1645818238.0574849,1645818238.130244,24.0,0.0,4299.487305,4688.205078,4195.384765999999,4315.384765999999,4248.717772999999,0.0,1.0,15.0,,,,0.0,4.0,0.0,4.0,0.0,4.0,33.333332,,,,,,,,12.0,0.0,0.185173,0.6191409999999999,-0.15576199999999998,-0.74707,0.8847790000000001,-0.45996800000000004,-0.184085,-0.017789,-0.026951,-0.038413,,,,,,,,,,,,,,,,,,,,,,,,,,,,,,,,,,,,,,,,,,,,,,,,,,,,,,,,,,,,,,,,,
1105,1645818238.065301,1645818238.138058,25.0,0.0,4292.820313,4754.358886999999,4187.692383,4271.282227000001,4228.205078,0.0,1.0,15.0,,,,0.0,4.0,0.0,4.0,0.0,4.0,33.333332,,,,,,,,,,,,,,,,,,,,,,,,,,,,,,,,,,,,,,,,,,,,,,,,,,,,,,,,,,,,,,,,,,,,,,,,,,,,,,,,,,,,
1106,1645818238.073118,1645818238.145873,26.0,0.0,4331.794922,4711.794922,4210.256348,4276.410156,4260.0,0.0,1.0,15.0,,,,0.0,4.0,0.0,4.0,0.0,4.0,33.333332,,,,,,,,13.0,0.0,0.185951,0.6191409999999999,-0.156006,-0.746826,0.875502,-0.451667,-0.185061,-0.018257,-0.026893,-0.034132,,,,,,,,,,,,,,,,,,,,,,,,,,,,,,,,,,,,,,,,,,,,,,,,,,,,,,,,,,,,,,,,,
1107,1645818238.080934,1645818238.153687,27.0,0.0,4359.487305,4688.717772999999,4225.128418,4352.307617,4305.128418,0.0,1.0,15.0,,,,0.0,4.0,0.0,4.0,0.0,4.0,33.333332,,,,,,,,,,,,,,,,,,,,,,,,,,,,,,,,,,,,,,,,,,,,,,,,,,,,,,0.0,0.0,1.0,0.0,512.0,1.0,,,,,,,,,,,,,,,,,,,,,,,,,
1108,1645818238.08875,1645818238.161502,28.0,0.0,4326.153809,4773.846191,4196.922852000001,4359.487305,4278.461426,0.0,1.0,15.0,,,,0.0,4.0,0.0,4.0,0.0,4.0,33.333332,,,,,,,,14.0,0.0,0.185746,0.6191409999999999,-0.15625,-0.746826,0.8881969999999999,-0.45801499999999995,-0.180667,-0.018579,-0.02684,-0.036481,,,,,,,,,,,,,,,,,,,,,,,,,,,,,,,,,,,,,,,,,,,,,,,,,,,,,,,,,,,,,,,,,
1109,1645818238.096566,1645818238.169316,29.0,0.0,4290.256348,4752.820313,4176.922852000001,4300.512695,4228.205078,0.0,1.0,15.0,,,,0.0,4.0,0.0,4.0,0.0,4.0,33.333332,,,,,,,,,,,,,,,,,,,,,,,,,,,,,,,,,,,,,,,,,,,,,,,,,,,,,,,,,,,,,,,,,,,,,,,,,,,,,,,,,,,,
1110,1645818238.104383,1645818238.177031,30.0,0.0,4302.563965,4663.589844,4188.205078,4300.512695,4231.794922,0.0,1.0,15.0,,,,0.0,4.0,0.0,4.0,0.0,4.0,33.333332,,,,,,,,15.0,0.0,0.186558,0.618896,-0.15625,-0.746826,0.8764780000000001,-0.45948,-0.178225,-0.017454,-0.026793,-0.038595,,,,,,,,,,,,,,,,,,,,,,,,,,,,,,,,,,,,,,,,,,,,,,,,,,,,,,,,,,,,,,,,,
1111,1645818238.112199,1645818238.184845,31.0,0.0,4310.769043,4695.897461,4197.94873,4334.871582,4246.153809,0.0,1.0,15.0,,,,0.0,4.0,0.0,4.0,0.0,4.0,33.333332,,,,,,,,,,,,,,,,,,,,1.0,0.0,0.0,,,,,,,,,,,,,,,,,,,,,,,,,,,,,,,,0.0,0.0,1.0,0.0,512.0,1.0,277.708984,28.678339,3.7504800000000005,2.6972959999999997,1.603633,24.060982,12.498792,20.853655,24.016434,11.289655999999999,2.8708560000000003,1.490304,0.567156,1.384212,1.448189,2.274179,1.5940530000000002,9.142392,5.850554,3.584053,76.05690799999999,5.820407,0.8905120000000001,1.543619,1.6681560000000002
1112,1645818238.1200151,1645818238.192659,32.0,0.0,4286.153809,4718.461426,4186.153809,4309.743652,4231.282227000001,0.0,1.0,15.0,,,,0.0,4.0,0.0,4.0,0.0,4.0,33.333332,,,,,,,,16.0,0.0,0.186353,0.618896,-0.156494,-0.746826,0.8833139999999999,-0.464363,-0.17969000000000002,-0.016392,-0.02675,-0.040595,,,,,,,,,,,,,,,,,,,,,,,,,,,,,,,,,,,,,,,,,,,,,,,,,,,,,,,,,,,,,,,,,
1113,1645818238.127831,1645818238.200474,33.0,0.0,4289.230957,4650.769043,4183.589844,4280.512695,4228.717772999999,0.0,1.0,15.0,,,,0.0,4.0,0.0,4.0,0.0,4.0,33.333332,,,,,,,,,,,,,,,,,,,,,,,,,,,,,,,,,,,,,,,,,,,,,,,,,,,,,,,,,,,,,,,,,,,,,,,,,,,,,,,,,,,,
1114,1645818238.135647,1645818238.2082882,34.0,0.0,4339.487305,4657.436035,4215.897461,4310.769043,4264.615234000001,0.0,1.0,15.0,,,,0.0,4.0,0.0,4.0,0.0,4.0,33.333332,,,,,,,,17.0,0.0,0.186353,0.618896,-0.156494,-0.746826,0.8730600000000001,-0.45801499999999995,-0.184085,-0.016999,-0.026712,-0.042443,,,,,,,,,,,,,,,,,,,,,,,,,,,,,,,,,,,,,,,,,,,,,,,,,,,,,,,,,,,,,,,,,
1115,1645818238.143464,1645818238.2161028,35.0,0.0,4364.102539,4703.077147999999,4240.0,4331.794922,4289.743652,0.0,1.0,15.0,,,,0.0,4.0,0.0,4.0,0.0,4.0,33.333332,,,,,,,,,,,,,,,,,,,,,,,,,,,,,,,,,,,,,,,,,,,,,,,,,,,,,,0.0,0.0,1.0,0.0,512.0,1.0,,,,,,,,,,,,,,,,,,,,,,,,,
1116,1645818238.1512802,1645818238.223917,36.0,0.0,4332.307617,4678.461426,4210.769043,4313.846191,4260.0,0.0,1.0,15.0,,,,0.0,4.0,0.0,4.0,0.0,4.0,33.333332,,,,,,,,18.0,0.0,0.186148,0.618896,-0.15673800000000002,-0.746826,0.885267,-0.45655,-0.191897,-0.017496,-0.026775,-0.043912,,,,,,,,,,,,,,,,,,,,,,,,,,,,,,,,,,,,,,,,,,,,,,,,,,,,,,,,,,,,,,,,,
1117,1645818238.159096,1645818238.231731,37.0,0.0,4302.563965,4671.282227000001,4185.641113000001,4315.384765999999,4222.563965,0.0,1.0,15.0,,,,0.0,4.0,0.0,4.0,0.0,4.0,33.333332,,,,,,,,,,,,,,,,,,,,,,,,,,,,,,,,,,,,,,,,,,,,,,,,,,,,,,,,,,,,,,,,,,,,,,,,,,,,,,,,,,,,
1118,1645818238.1669118,1645818238.239546,38.0,0.0,4313.333496,4692.820313,4209.743652,4337.436035,4240.0,0.0,1.0,15.0,,,,0.0,4.0,0.0,4.0,0.0,4.0,33.333332,,,,,,,,19.0,0.0,0.186148,0.618896,-0.15673800000000002,-0.746826,0.8808729999999999,-0.45801499999999995,-0.193851,-0.017846,-0.026733999999999997,-0.03913,,,,,,,,,,,,,,,,,,,,,,,,,,,,,,,,,,,,,,,,,,,,,,,,,,,,,,,,,,,,,,,,,
1119,1645818238.1747289,1645818238.2472599,39.0,0.0,4324.102539,4680.512695,4228.717772999999,4343.589844,4270.256348,0.0,1.0,15.0,,,,0.0,4.0,0.0,4.0,0.0,4.0,33.333332,,,,,,,,,,,,,,,,,,,,,,,,,,,,,,,,,,,,,,,,,,,,,,,,,,,,,,0.0,0.0,1.0,0.0,512.0,1.0,,,,,,,,,,,,,,,,,,,,,,,,,
1120,1645818238.182545,1645818238.255075,40.0,0.0,4322.05127,4668.717772999999,4222.05127,4333.333496,4267.179688,0.0,1.0,15.0,,,,0.0,4.0,0.0,4.0,0.0,4.0,33.333332,,,,,,,,20.0,0.0,0.186752,0.6186520000000001,-0.15698199999999998,-0.746826,0.8842909999999999,-0.45215500000000003,-0.18701500000000001,-0.018259,-0.026844,-0.041027999999999995,,,,,,,,,,,,,,,,,,,,,,,,,,,,,,,,,,,,,,,,,,,,,,,,,,,,,,,,,,,,,,,,,
1121,1645818238.190361,1645818238.2628891,41.0,0.0,4309.743652,4665.128418,4203.077147999999,4353.333496,4244.102539,0.0,1.0,15.0,,,,0.0,4.0,0.0,4.0,0.0,4.0,33.333332,,,,,,,,,,,,,,,,,,,,,,,,,,,,,,,,,,,,,,,,,,,,,,,,,,,,,,,,,,,,,,,,,,,,,,,,,,,,,,,,,,,,
1122,1645818238.1981769,1645818238.2707038,42.0,0.0,4296.410156,4684.102539,4194.358886999999,4372.820313,4229.230957,0.0,1.0,15.0,,,,0.0,4.0,0.0,4.0,0.0,4.0,33.333332,,,,,,,,21.0,0.0,0.186752,0.6186520000000001,-0.15698199999999998,-0.746826,0.882826,-0.46045600000000003,-0.178225,-0.01863,-0.026748,-0.036486000000000005,,,,,,,,,,,,,,,,,,,,,,,,,,,,,,,,,,,,,,,,,,,,,,,,,,,,,,,,,,,,,,,,,
1123,1645818238.205994,1645818238.278518,43.0,0.0,4316.410156,4717.436035,4217.436035,4371.282227000001,4247.692383,0.0,1.0,15.0,,,,0.0,4.0,0.0,4.0,0.0,4.0,33.333332,,,,,,,,,,,,,,,,,,,,,,,,,,,,,,,,,,,,,,,,,,,,,,,,,,,,,,0.0,0.0,1.0,0.0,512.0,1.0,,,,,,,,,,,,,,,,,,,,,,,,,
1124,1645818238.21381,1645818238.2863321,44.0,0.0,4360.0,4673.846191,4255.384765999999,4373.846191,4295.384765999999,0.0,1.0,15.0,,,,0.0,4.0,0.0,4.0,0.0,4.0,33.333332,,,,,,,,22.0,0.0,0.186547,0.6186520000000001,-0.157227,-0.746826,0.8842909999999999,-0.45410900000000004,-0.175784,-0.019014,-0.026807,-0.032398,,,,,,,,,,,,,,,,,,,,,,,,,,,,,,,,,,,,,,,,,,,,,,,,,,,,,,,,,,,,,,,,,
1125,1645818238.221626,1645818238.294147,45.0,0.0,4352.820313,4616.922852000001,4242.563965,4373.846191,4294.358886999999,0.0,1.0,15.0,,,,0.0,4.0,0.0,4.0,0.0,4.0,33.333332,,,,,,,,,,,,,,,,,,,,,,,,,,,,,,,,,,,,,,,,,,,,,,,,,,,,,,,,,,,,,,,,,,,,,,,,,,,,,,,,,,,,
1126,1645818238.229442,1645818238.301961,46.0,0.0,4311.282227000001,4667.179688,4202.05127,4372.307617,4250.769043,0.0,1.0,15.0,,,,0.0,4.0,0.0,4.0,0.0,4.0,33.333332,,,,,,,,23.0,0.0,0.185567,0.6186520000000001,-0.157227,-0.74707,0.8652479999999999,-0.44971400000000006,-0.186038,-0.017649,-0.026812,-0.028669999999999998,,,,,,,,,,,,,,,,,,,,,,,,,,,,,,,,,,,,,,,,,,,,,,,,,,,,,,,,,,,,,,,,,
1127,1645818238.237259,1645818238.309776,47.0,0.0,4321.025879,4725.641113000001,4209.743652,4384.102539,4261.025879,0.0,1.0,15.0,,,,0.0,4.0,0.0,4.0,0.0,4.0,33.333332,,,,,,,,,,,,,,,,,,,,1.0,0.0,0.0,,,,,,,,,,,,,,,,,,,,,,,,,,,,,,,,0.0,0.0,1.0,0.0,512.0,1.0,122.08337399999999,14.283783999999999,2.037843,2.414366,1.392374,26.456318,13.788510999999998,22.912994,23.714160999999997,10.716645,2.844966,1.878641,0.601445,1.395518,1.3687280000000002,2.262411,1.349477,7.310335,5.143623000000001,2.809784,34.196907,3.662607,0.703954,1.598964,1.6584880000000002
1128,1645818238.245075,1645818238.31749,48.0,0.0,4340.512695,4689.230957,4228.717772999999,4397.436035,4290.256348,0.0,1.0,15.0,,,,0.0,4.0,0.0,4.0,0.0,4.0,33.333332,,,,,,,,24.0,0.0,0.186752,0.6186520000000001,-0.15698199999999998,-0.746826,0.882826,-0.46045600000000003,-0.178225,-0.018033,-0.026864999999999997,-0.025217,,,,,,,,,,,,,,,,,,,,,,,,,,,,,,,,,,,,,,,,,,,,,,,,,,,,,,,,,,,,,,,,,
1129,1645818238.252891,1645818238.325305,49.0,0.0,4323.077147999999,4713.333496,4206.666504,4365.128418,4272.307617,0.0,1.0,15.0,,,,0.0,4.0,0.0,4.0,0.0,4.0,33.333332,,,,,,,,,,,,,,,,,,,,,,,,,,,,,,,,,,,,,,,,,,,,,,,,,,,,,,,,,,,,,,,,,,,,,,,,,,,,,,,,,,,,
1130,1645818238.2607071,1645818238.333119,50.0,0.0,4312.307617,4789.230957,4197.94873,4348.717772999999,4261.538574,0.0,1.0,15.0,,,,0.0,4.0,0.0,4.0,0.0,4.0,33.333332,,,,,,,,25.0,0.0,0.185567,0.6186520000000001,-0.157227,-0.74707,0.8652479999999999,-0.44971400000000006,-0.186038,-0.016766999999999997,-0.026864,-0.022207,,,,,,,,,,,,,,,,,,,,,,,,,,,,,,,,,,,,,,,,,,,,,,,,,,,,,,,,,,,,,,,,,
1131,1645818238.268524,1645818238.340933,51.0,0.0,4329.230957,4727.179688,4223.589844,4362.563965,4291.794922,0.0,1.0,15.0,,,,0.0,4.0,0.0,4.0,0.0,4.0,33.333332,,,,,,,,,,,,,,,,,,,,,,,,,,,,,,,,,,,,,,,,,,,,,,,,,,,,,,0.0,0.0,1.0,0.0,512.0,1.0,,,,,,,,,,,,,,,,,,,,,,,,,
1132,1645818238.27634,1645818238.348748,52.0,0.0,4334.358886999999,4617.436035,4213.846191,4366.666504,4307.692383,0.0,1.0,15.0,,,,0.0,4.0,0.0,4.0,0.0,4.0,33.333332,,,,,,,,26.0,0.0,0.186547,0.6186520000000001,-0.157227,-0.746826,0.8838030000000001,-0.446296,-0.19677999999999998,-0.017238,-0.026961000000000002,-0.025845,,,,,,,,,,,,,,,,,,,,,,,,,,,,,,,,,,,,,,,,,,,,,,,,,,,,,,,,,,,,,,,,,
1133,1645818238.284156,1645818238.356562,53.0,0.0,4324.102539,4641.025879,4182.563965,4335.897461,4286.666504,0.0,1.0,15.0,,,,0.0,4.0,0.0,4.0,0.0,4.0,33.333332,,,,,,,,,,,,,,,,,,,,,,,,,,,,,,,,,,,,,,,,,,,,,,,,,,,,,,,,,,,,,,,,,,,,,,,,,,,,,,,,,,,,
1134,1645818238.2919722,1645818238.364377,54.0,0.0,4330.256348,4715.384765999999,4185.128418,4294.358886999999,4276.410156,0.0,1.0,15.0,,,,0.0,4.0,0.0,4.0,0.0,4.0,33.333332,,,,,,,,27.0,0.0,0.186547,0.6186520000000001,-0.157227,-0.746826,0.886244,-0.462898,-0.18555,-0.01781,-0.026951,-0.029023,,,,,,,,,,,,,,,,,,,,,,,,,,,,,,,,,,,,,,,,,,,,,,,,,,,,,,,,,,,,,,,,,
1135,1645818238.299789,1645818238.372191,55.0,0.0,4334.358886999999,4699.487305,4183.077147999999,4267.179688,4277.436035,0.0,1.0,15.0,,,,0.0,4.0,0.0,4.0,0.0,4.0,33.333332,,,,,,,,,,,,,,,,,,,,,,,,,,,,,,,,,,,,,,,,,,,,,,,,,,,,,,0.0,0.0,1.0,0.0,512.0,1.0,,,,,,,,,,,,,,,,,,,,,,,,,
1136,1645818238.307605,1645818238.3800051,56.0,0.0,4323.589844,4647.179688,4160.512695,4246.153809,4260.512695,0.0,1.0,15.0,,,,0.0,4.0,0.0,4.0,0.0,4.0,33.333332,,,,,,,,28.0,0.0,0.186547,0.6186520000000001,-0.157227,-0.746826,0.8838030000000001,-0.448737,-0.190433,-0.018128000000000002,-0.026892000000000003,-0.031931,,,,,,,,,,,,,,,,,,,,,,,,,,,,,,,,,,,,,,,,,,,,,,,,,,,,,,,,,,,,,,,,,
1137,1645818238.315421,1645818238.38782,57.0,0.0,4341.025879,4658.461426,4156.410156,4233.846191,4274.871582,0.0,1.0,15.0,,,,0.0,4.0,0.0,4.0,0.0,4.0,33.333332,,,,,,,,,,,,,,,,,,,,,,,,,,,,,,,,,,,,,,,,,,,,,,,,,,,,,,,,,,,,,,,,,,,,,,,,,,,,,,,,,,,,
1138,1645818238.323237,1645818238.395534,58.0,0.0,4362.563965,4728.717772999999,4152.307617,4209.743652,4304.615234000001,0.0,1.0,15.0,,,,0.0,4.0,0.0,4.0,0.0,4.0,33.333332,,,,,,,,29.0,0.0,0.18692,0.618896,-0.15698199999999998,-0.746582,0.8916149999999999,-0.45264399999999994,-0.193851,-0.018609999999999998,-0.026889,-0.034597,,,,,,,,,,,,,,,,,,,,,,,,,,,,,,,,,,,,,,,,,,,,,,,,,,,,,,,,,,,,,,,,,
1139,1645818238.331053,1645818238.403349,59.0,0.0,4346.153809,4738.974121,4133.846191,4203.077147999999,4274.358886999999,0.0,1.0,15.0,,,,0.0,4.0,0.0,4.0,0.0,4.0,33.333332,,,,,,,,,,,,,,,,,,,,,,,,,,,,,,,,,,,,,,,,,,,,,,,,,,,,,,0.0,0.0,1.0,0.0,512.0,1.0,,,,,,,,,,,,,,,,,,,,,,,,,
1140,1645818238.3388698,1645818238.4110632,60.0,0.0,4306.666504,4673.333496,4114.871582,4200.512695,4216.410156,0.0,1.0,15.0,,,,0.0,4.0,0.0,4.0,0.0,4.0,33.333332,,,,,,,,30.0,0.0,0.18692,0.618896,-0.15698199999999998,-0.746582,0.8833139999999999,-0.451179,-0.186526,-0.017335,-0.026885000000000003,-0.0369,,,,,,,,,,,,,,,,,,,,,,,,,,,,,,,,,,,,,,,,,,,,,,,,,,,,,,,,,,,,,,,,,
1141,1645818238.346686,1645818238.4188778,61.0,0.0,4306.153809,4651.794922,4117.94873,4195.897461,4220.512695,0.0,1.0,15.0,,,,0.0,4.0,0.0,4.0,0.0,4.0,33.333332,,,,,,,,,,,,,,,,,,,,,,,,,,,,,,,,,,,,,,,,,,,,,,,,,,,,,,,,,,,,,,,,,,,,,,,,,,,,,,,,,,,,
1142,1645818238.354502,1645818238.426692,62.0,0.0,4344.615234000001,4682.05127,4148.205078,4227.692383,4263.589844,0.0,1.0,15.0,,,,0.0,4.0,0.0,4.0,0.0,4.0,33.333332,,,,,,,,31.0,0.0,0.18692,0.618896,-0.15698199999999998,-0.746582,0.882338,-0.460945,-0.19531500000000002,-0.016334,-0.026833999999999997,-0.03902,,,,,,,,,,,,,,,,,,,,,,,,,,,,,,,,,,,,,,,,,,,,,,,,,,,,,,,,,,,,,,,,,
1143,1645818238.362318,1645818238.434506,63.0,0.0,4367.692383,4693.846191,4173.333496,4243.077147999999,4283.589844,0.0,1.0,15.0,,,,0.0,4.0,0.0,4.0,0.0,4.0,33.333332,1.0,25.0,3.0,0.0,4.0,0.0,4.0,,,,,,,,,,,,,1.0,0.0,0.0,,,,,,,,,,,,,,,,,,,,,,,,,,,,,,,,0.0,0.0,1.0,0.0,512.0,1.0,39.437244,6.674957000000001,1.087378,2.130113,1.253263,27.628436999999998,15.154357999999998,24.797289000000003,22.545370000000002,10.184644,2.677821,2.162737,0.643265,1.351659,1.307167,2.22913,1.3352469999999999,5.310555,4.374804,2.3245259999999996,11.985087,2.5558959999999997,0.700271,1.676716,1.7254900000000002
1144,1645818238.370135,1645818238.442321,64.0,0.0,4348.205078,4686.666504,4150.769043,4207.179688,4268.205078,450.0,1.0,15.0,,,,0.0,4.0,0.0,4.0,0.0,4.0,33.333332,,,,,,,,32.0,0.0,0.18692,0.618896,-0.15698199999999998,-0.746582,0.8774549999999999,-0.464363,-0.186038,-0.016898,-0.026836000000000002,-0.040831,,,,,,,,,,,,,,,,,,,,,,,,,,,,,,,,,,,,,,,,,,,,,,,,,,,,,,,,,,,,,,,,,
1145,1645818238.377951,1645818238.450135,65.0,0.0,4320.512695,4706.666504,4126.153809,4203.077147999999,4240.0,450.0,1.0,15.0,,,,0.0,4.0,0.0,4.0,0.0,4.0,33.333332,,,,,,,,,,,,,,,,,,,,,,,,,,,,,,,,,,,,,,,,,,,,,,,,,,,,,,,,,,,,,,,,,,,,,,,,,,,,,,,,,,,,
1146,1645818238.385767,1645818238.45795,66.0,0.0,4329.230957,4737.436035,4150.769043,4246.153809,4248.717772999999,16187.0,1.0,15.0,,,,0.0,4.0,0.0,4.0,0.0,4.0,33.333332,,,,,,,,33.0,0.0,0.187086,0.6191409999999999,-0.15698199999999998,-0.7463380000000001,0.8759899999999999,-0.46582700000000005,-0.185061,-0.017454,-0.026887,-0.042461,,,,,,,,,,,,,,,,,,,,,,,,,,,,,,,,,,,,,,,,,,,,,,,,,,,,,,,,,,,,,,,,,
1147,1645818238.393583,1645818238.465764,67.0,0.0,4329.743652,4696.410156,4162.05127,4260.0,4256.410156,450.0,1.0,15.0,,,,0.0,4.0,0.0,4.0,0.0,4.0,33.333332,,,,,,,,,,,,,,,,,,,,,,,,,,,,,,,,,,,,,,,,,,,,,,,,,,,,,,0.0,0.0,1.0,0.0,512.0,1.0,,,,,,,,,,,,,,,,,,,,,,,,,
1148,1645818238.4013991,1645818238.473579,68.0,0.0,4317.94873,4626.153809,4145.128418,4253.333496,4237.94873,0.0,1.0,15.0,,,,0.0,4.0,0.0,4.0,0.0,4.0,33.333332,,,,,,,,34.0,0.0,0.187086,0.6191409999999999,-0.15698199999999998,-0.7463380000000001,0.8740370000000001,-0.45948,-0.18945599999999999,-0.017856999999999998,-0.026883999999999998,-0.037775,,,,,,,,,,,,,,,,,,,,,,,,,,,,,,,,,,,,,,,,,,,,,,,,,,,,,,,,,,,,,,,,,
1149,1645818238.409216,1645818238.481293,69.0,0.0,4332.307617,4627.179688,4170.256348,4275.384765999999,4256.922852000001,450.0,1.0,15.0,,,,0.0,4.0,0.0,4.0,1.0,4.0,41.666668,,,,,,,,,,,,,,,,,,,,,,,,,,,,,,,,,,,,,,,,,,,,,,,,,,,,,,,,,,,,,,,,,,,,,,,,,,,,,,,,,,,,
1150,1645818238.417032,1645818238.4891071,70.0,0.0,4349.743652,4646.153809,4203.077147999999,4292.820313,4296.410156,16136.0,1.0,15.0,,,,0.0,4.0,0.0,4.0,1.0,4.0,41.666668,,,,,,,,35.0,0.0,0.187086,0.6191409999999999,-0.15698199999999998,-0.7463380000000001,0.887709,-0.451667,-0.183108,-0.01822,-0.026881,-0.039760000000000004,,,,,,,,,,,,,,,,,,,,,,,,,,,,,,,,,,,,,,,,,,,,,,,,,,,,,,,,,,,,,,,,,
1151,1645818238.424848,1645818238.496922,71.0,0.0,4321.025879,4640.0,4162.05127,4301.025879,4267.179688,450.0,1.0,15.0,,,,0.0,4.0,0.0,4.0,1.0,4.0,41.666668,,,,,,,,,,,,,,,,,,,,,,,,,,,,,,,,,,,,,,,,,,,,,,,,,,,,,,0.0,0.0,1.0,0.0,512.0,1.0,,,,,,,,,,,,,,,,,,,,,,,,,
1152,1645818238.432665,1645818238.504736,72.0,0.0,4296.922852000001,4659.487305,4132.820313,4288.205078,4228.717772999999,450.0,1.0,15.0,,,,0.0,4.0,0.0,4.0,1.0,4.0,41.666668,,,,,,,,36.0,0.0,0.188057,0.6191409999999999,-0.15698199999999998,-0.7460939999999999,0.87892,-0.461433,-0.186038,-0.018449,-0.026927,-0.041594,,,,,,,,,,,,,,,,,,,,,,,,,,,,,,,,,,,,,,,,,,,,,,,,,,,,,,,,,,,,,,,,,
1153,1645818238.440481,1645818238.512551,73.0,0.0,4328.717772999999,4682.563965,4182.563965,4272.307617,4255.897461,71.0,1.0,15.0,,,,0.0,4.0,0.0,4.0,1.0,4.0,41.666668,,,,,,,,,,,,,,,,,,,,,,,,,,,,,,,,,,,,,,,,,,,,,,,,,,,,,,,,,,,,,,,,,,,,,,,,,,,,,,,,,,,,
1154,1645818238.448297,1645818238.520365,74.0,0.0,4346.666504,4670.256348,4203.077147999999,4296.410156,4270.769043,450.0,1.0,15.0,,,,0.0,4.0,0.0,4.0,1.0,4.0,41.666668,,,,,,,,37.0,0.0,0.187252,0.6193850000000001,-0.15698199999999998,-0.7460939999999999,0.886244,-0.45020200000000005,-0.181643,-0.018753,-0.026822000000000002,-0.036898,,,,,,,,,,,,,,,,,,,,,,,,,,,,,,,,,,,,,,,,,,,,,,,,,,,,,,,,,,,,,,,,,
1155,1645818238.456113,1645818238.528179,75.0,0.0,4317.436035,4636.410156,4157.94873,4307.179688,4228.717772999999,16187.0,1.0,15.0,,,,0.0,4.0,0.0,4.0,1.0,4.0,41.666668,,,,,,,,,,,,,,,,,,,,,,,,,,,,,,,,,,,,,,,,,,,,,,,,,,,,,,0.0,0.0,1.0,0.0,512.0,1.0,,,,,,,,,,,,,,,,,,,,,,,,,
1156,1645818238.4639301,1645818238.535994,76.0,0.0,4315.897461,4624.615234000001,4152.307617,4304.615234000001,4224.102539,450.0,1.0,15.0,,,,0.0,4.0,0.0,4.0,1.0,4.0,41.666668,,,,,,,,38.0,0.0,0.187047,0.6193850000000001,-0.157227,-0.7460939999999999,0.870619,-0.45996800000000004,-0.187503,-0.017512,-0.026777,-0.039019,,,,,,,,,,,,,,,,,,,,,,,,,,,,,,,,,,,,,,,,,,,,,,,,,,,,,,,,,,,,,,,,,
1157,1645818238.4717462,1645818238.543808,77.0,0.0,4345.641113000001,4665.128418,4184.615234000001,4307.692383,4264.102539,450.0,1.0,15.0,,,,0.0,4.0,0.0,4.0,1.0,4.0,41.666668,,,,,,,,,,,,,,,,,,,,,,,,,,,,,,,,,,,,,,,,,,,,,,,,,,,,,,,,,,,,,,,,,,,,,,,,,,,,,,,,,,,,
1158,1645818238.4795618,1645818238.551623,78.0,0.0,4352.307617,4731.282227000001,4184.615234000001,4270.769043,4281.538574,450.0,1.0,15.0,,,,0.0,4.0,0.0,4.0,1.0,4.0,41.666668,,,,,,,,39.0,0.0,0.187047,0.6193850000000001,-0.157227,-0.7460939999999999,0.8691540000000001,-0.461433,-0.191409,-0.016396,-0.026833999999999997,-0.04083,,,,,,,,,,,,,,,,,,,,,,,,,,,,,,,,,,,,,,,,,,,,,,,,,,,,,,,,,,,,,,,,,
1159,1645818238.487378,1645818238.559337,79.0,0.0,4341.538574,4750.256348,4171.282227000001,4224.615234000001,4276.922852000001,16187.0,1.0,15.0,,,,0.0,4.0,0.0,4.0,1.0,4.0,41.666668,,,,,,,,,,,,,,,,,,,,1.0,0.0,0.0,,,,,,,,,,,,,,,,,,,,,,,,,,,,,,,,0.0,0.0,1.0,0.0,512.0,1.0,8.987618,3.820881,0.8562280000000001,1.863782,1.209934,27.398867,16.377268,25.761776,20.849289000000002,9.907401,2.465984,2.2441720000000003,0.67618,1.286883,1.273541,2.5083450000000003,1.487865,3.618325,3.6351519999999997,2.155894,3.6659919999999997,2.074346,0.9283290000000001,1.7469189999999999,1.877041
1160,1645818238.495194,1645818238.567152,80.0,0.0,4356.922852000001,4717.94873,4175.384765999999,4243.589844,4272.307617,450.0,1.0,15.0,,,,0.0,4.0,0.0,4.0,1.0,4.0,41.666668,,,,,,,,40.0,0.0,0.18801800000000002,0.6193850000000001,-0.157227,-0.74585,0.887709,-0.47608100000000003,-0.183108,-0.016905,-0.026737999999999998,-0.03621,,,,,,,,,,,,,,,,,,,,,,,,,,,,,,,,,,,,,,,,,,,,,,,,,,,,,,,,,,,,,,,,,
1161,1645818238.503011,1645818238.574966,81.0,0.0,4373.333496,4678.461426,4164.615234000001,4267.179688,4277.94873,450.0,1.0,15.0,,,,0.0,4.0,0.0,4.0,1.0,4.0,41.666668,,,,,,,,,,,,,,,,,,,,,,,,,,,,,,,,,,,,,,,,,,,,,,,,,,,,,,,,,,,,,,,,,,,,,,,,,,,,,,,,,,,,
1162,1645818238.510827,1645818238.5827801,82.0,0.0,4346.666504,4681.025879,4147.179688,4241.025879,4277.94873,450.0,1.0,15.0,,,,0.0,4.0,0.0,4.0,1.0,4.0,41.666668,,,,,,,,41.0,0.0,0.18801800000000002,0.6193850000000001,-0.157227,-0.74585,0.8803850000000001,-0.449226,-0.186038,-0.017314,-0.026652,-0.038448,,,,,,,,,,,,,,,,,,,,,,,,,,,,,,,,,,,,,,,,,,,,,,,,,,,,,,,,,,,,,,,,,
1163,1645818238.518643,1645818238.590595,83.0,0.0,4332.307617,4695.384765999999,4150.256348,4228.205078,4274.358886999999,16187.0,1.0,15.0,,,,0.0,4.0,0.0,4.0,1.0,4.0,41.666668,,,,,,,,,,,,,,,,,,,,,,,,,,,,,,,,,,,,,,,,,,,,,,,,,,,,,,0.0,0.0,1.0,0.0,512.0,1.0,,,,,,,,,,,,,,,,,,,,,,,,,
1164,1645818238.526459,1645818238.598409,84.0,0.0,4347.179688,4661.025879,4149.743652,4245.641113000001,4276.922852000001,450.0,1.0,15.0,,,,0.0,4.0,0.0,4.0,1.0,4.0,41.666668,,,,,,,,42.0,0.0,0.18801800000000002,0.6193850000000001,-0.157227,-0.74585,0.8681770000000001,-0.46778100000000006,-0.188968,-0.017682,-0.026476999999999997,-0.034164,,,,,,,,,,,,,,,,,,,,,,,,,,,,,,,,,,,,,,,,,,,,,,,,,,,,,,,,,,,,,,,,,
1165,1645818238.534276,1645818238.606224,85.0,0.0,4336.922852000001,4608.717772999999,4135.897461,4243.589844,4277.94873,450.0,1.0,15.0,,,,0.0,4.0,0.0,4.0,1.0,4.0,41.666668,,,,,,,,,,,,,,,,,,,,,,,,,,,,,,,,,,,,,,,,,,,,,,,,,,,,,,,,,,,,,,,,,,,,,,,,,,,,,,,,,,,,
1166,1645818238.542092,1645818238.614038,86.0,0.0,4321.538574,4602.05127,4133.846191,4230.256348,4268.205078,450.0,1.0,15.0,,,,0.0,4.0,0.0,4.0,1.0,4.0,41.666668,,,,,,,,43.0,0.0,0.18801800000000002,0.6193850000000001,-0.157227,-0.74585,0.8886850000000001,-0.457038,-0.192386,-0.016549,-0.026514999999999997,-0.036558,,,,,,,,,,,,,,,,,,,,,,,,,,,,,,,,,,,,,,,,,,,,,,,,,,,,,,,,,,,,,,,,,
1167,1645818238.549908,1645818238.621753,87.0,0.0,4341.025879,4637.94873,4151.794922,4223.589844,4268.717772999999,16187.0,1.0,15.0,,,,0.0,4.0,0.0,4.0,1.0,4.0,41.666668,,,,,,,,,,,,,,,,,,,,,,,,,,,,,,,,,,,,,,,,,,,,,,,,,,,,,,0.0,0.0,1.0,0.0,512.0,1.0,,,,,,,,,,,,,,,,,,,,,,,,,
1168,1645818238.557724,1645818238.629567,88.0,0.0,4348.717772999999,4650.256348,4173.333496,4225.641113000001,4282.05127,450.0,1.0,15.0,,,,0.0,4.0,0.0,4.0,1.0,4.0,41.666668,,,,,,,,44.0,0.0,0.18801800000000002,0.6193850000000001,-0.157227,-0.74585,0.8808729999999999,-0.46045600000000003,-0.19336199999999998,-0.017189,-0.026549,-0.038664,,,,,,,,,,,,,,,,,,,,,,,,,,,,,,,,,,,,,,,,,,,,,,,,,,,,,,,,,,,,,,,,,
1169,1645818238.56554,1645818238.637381,89.0,0.0,4341.538574,4640.512695,4175.897461,4227.179688,4285.641113000001,450.0,1.0,15.0,,,,0.0,4.0,0.0,4.0,1.0,4.0,41.666668,,,,,,,,,,,,,,,,,,,,,,,,,,,,,,,,,,,,,,,,,,,,,,,,,,,,,,,,,,,,,,,,,,,,,,,,,,,,,,,,,,,,
1170,1645818238.573357,1645818238.6451962,90.0,0.0,4343.589844,4647.179688,4144.615234000001,4230.769043,4277.436035,450.0,1.0,15.0,,,,0.0,4.0,0.0,4.0,1.0,4.0,41.666668,,,,,,,,45.0,0.0,0.18801800000000002,0.6193850000000001,-0.157227,-0.74585,0.8833139999999999,-0.46533900000000006,-0.180667,-0.017667,-0.026531,-0.034309,,,,,,,,,,,,,,,,,,,,,,,,,,,,,,,,,,,,,,,,,,,,,,,,,,,,,,,,,,,,,,,,,
1171,1645818238.581173,1645818238.65301,91.0,0.0,4340.512695,4668.717772999999,4131.794922,4234.871582,4269.743652,16187.0,1.0,15.0,,,,0.0,4.0,0.0,4.0,1.0,4.0,41.666668,,,,,,,,,,,,,,,,,,,,,,,,,,,,,,,,,,,,,,,,,,,,,,,,,,,,,,0.0,0.0,1.0,0.0,512.0,1.0,,,,,,,,,,,,,,,,,,,,,,,,,
1172,1645818238.588989,1645818238.660825,92.0,0.0,4329.743652,4689.230957,4144.615234000001,4240.512695,4260.0,450.0,1.0,15.0,,,,0.0,4.0,0.0,4.0,1.0,4.0,41.666668,,,,,,,,46.0,0.0,0.18801800000000002,0.6193850000000001,-0.157227,-0.74585,0.882826,-0.458503,-0.189944,-0.018049000000000003,-0.02671,-0.030293,,,,,,,,,,,,,,,,,,,,,,,,,,,,,,,,,,,,,,,,,,,,,,,,,,,,,,,,,,,,,,,,,
1173,1645818238.596805,1645818238.668639,93.0,0.0,4338.974121,4681.025879,4164.615234000001,4253.846191,4270.769043,450.0,1.0,15.0,,,,0.0,4.0,0.0,4.0,1.0,4.0,41.666668,,,,,,,,,,,,,,,,,,,,,,,,,,,,,,,,,,,,,,,,,,,,,,,,,,,,,,,,,,,,,,,,,,,,,,,,,,,,,,,,,,,,
1174,1645818238.6046221,1645818238.6764529,94.0,0.0,4374.358886999999,4652.307617,4195.384765999999,4249.743652,4302.563965,450.0,1.0,15.0,,,,0.0,4.0,0.0,4.0,1.0,4.0,41.666668,,,,,,,,47.0,0.0,0.18801800000000002,0.6193850000000001,-0.157227,-0.74585,0.885756,-0.458503,-0.185061,-0.018441,-0.026676,-0.026775,,,,,,,,,,,,,,,,,,,,,,,,,,,,,,,,,,,,,,,,,,,,,,,,,,,,,,,,,,,,,,,,,
1175,1645818238.6124382,1645818238.684268,95.0,0.0,4376.922852000001,4631.794922,4191.794922,4249.230957,4305.641113000001,16187.0,1.0,15.0,,,,0.0,4.0,0.0,4.0,1.0,4.0,41.666668,,,,,,,,,,,,,,,,,,,,1.0,0.0,0.0,,,,,,,,,,,,,,,,,,,,,,,,,,,,,,,,0.0,0.0,1.0,0.0,512.0,1.0,2.6479220000000003,2.8920169999999996,1.1013030000000001,1.662447,1.288384,25.873755,17.210241,25.271936,19.014109,10.028058,2.4435,2.093343,0.722409,1.243662,1.303916,4.229671,1.682105,2.452985,2.978818,2.268696,1.916653,1.765685,1.387351,1.8264669999999998,2.122486
