,Timestamp,EEG.Counter,EEG.Interpolated,EEG.AF3,EEG.T7,EEG.Pz,EEG.T8,EEG.AF4,EEG.RawCq,EEG.Battery,EEG.BatteryPercent,MarkerIndex,MarkerType,MarkerValueInt,EEG.MarkerHardware,CQ.AF3,CQ.T7,CQ.Pz,CQ.T8,CQ.AF4,CQ.Overall,EQ.SampleRateQuality,EQ.OVERALL,EQ.AF3,EQ.T7,EQ.Pz,EQ.T8,EQ.AF4,MOT.CounterMems,MOT.InterpolatedMems,MOT.Q0,MOT.Q1,MOT.Q2,MOT.Q3,MOT.AccX,MOT.AccY,MOT.AccZ,MOT.MagX,MOT.MagY,MOT.MagZ,MC.Action,MC.ActionPower,MC.IsActive,PM.Engagement.IsActive,PM.Engagement.Scaled,PM.Engagement.Raw,PM.Engagement.Min,PM.Engagement.Max,PM.Excitement.IsActive,PM.Excitement.Scaled,PM.Excitement.Raw,PM.Excitement.Min,PM.Excitement.Max,PM.LongTermExcitement,PM.Stress.IsActive,PM.Stress.Scaled,PM.Stress.Raw,PM.Stress.Min,PM.Stress.Max,PM.Relaxation.IsActive,PM.Relaxation.Scaled,PM.Relaxation.Raw,PM.Relaxation.Min,PM.Relaxation.Max,PM.Interest.IsActive,PM.Interest.Scaled,PM.Interest.Raw,PM.Interest.Min,PM.Interest.Max,PM.Focus.IsActive,PM.Focus.Scaled,PM.Focus.Raw,PM.Focus.Min,PM.Focus.Max,FE.BlinkWink,FE.HorizontalEyesDirection,FE.UpperFaceAction,FE.UpperFaceActionPower,FE.LowerFaceAction,FE.LowerFaceActionPower,POW.AF3.Theta,POW.AF3.Alpha,POW.AF3.BetaL,POW.AF3.BetaH,POW.AF3.Gamma,POW.T7.Theta,POW.T7.Alpha,POW.T7.BetaL,POW.T7.BetaH,POW.T7.Gamma,POW.Pz.Theta,POW.Pz.Alpha,POW.Pz.BetaL,POW.Pz.BetaH,POW.Pz.Gamma,POW.T8.Theta,POW.T8.Alpha,POW.T8.BetaL,POW.T8.BetaH,POW.T8.Gamma,POW.AF4.Theta,POW.AF4.Alpha,POW.AF4.BetaL,POW.AF4.BetaH,POW.AF4.Gamma
14795,1645651042.591609,67.0,0.0,4341.025879,4838.974121,4264.615234000001,4280.0,4270.769043,450.0,3.0,59.0,,,,0.0,4.0,4.0,2.0,0.0,0.0,16.666666,,,,,,,,,,,,,,,,,,,,,,,,,,,,,,,,,,,,,,,,,,,,,,,,,,,,,,0.0,0.0,1.0,0.0,512.0,1.0,,,,,,,,,,,,,,,,,,,,,,,,,
14796,1645651042.599423,68.0,0.0,4349.230957,4300.512695,4297.94873,4282.563965,4222.05127,16178.0,3.0,59.0,,,,0.0,4.0,4.0,2.0,0.0,0.0,16.666666,,,,,,,,34.0,0.0,0.30982,0.576904,0.12207,-0.74585,0.944839,-0.173342,-0.305669,-0.017945,-0.049723,-0.03483,,,,,,,,,,,,,,,,,,,,,,,,,,,,,,,,,,,,,,,,,,,,,,,,,,,,,,,,,,,,,,,,,
14797,1645651042.6071382,69.0,0.0,4419.487305,4313.846191,4210.769043,4276.922852000001,4266.666504,450.0,3.0,59.0,,,,0.0,4.0,4.0,4.0,0.0,1.0,41.666668,,,,,,,,,,,,,,,,,,,,,,,,,,,,,,,,,,,,,,,,,,,,,,,,,,,,,,,,,,,,,,,,,,,,,,,,,,,,,,,,,,,,
14798,1645651042.6149518,70.0,0.0,4345.128418,4786.666504,4114.358886999999,4280.0,4295.384765999999,16084.0,3.0,59.0,,,,0.0,4.0,4.0,4.0,0.0,1.0,41.666668,,,,,,,,35.0,0.0,0.30982,0.576904,0.12207,-0.74585,0.9511860000000001,-0.183108,-0.298344,-0.016248,-0.049682,-0.03706,,,,,,,,,,,,,,,,,,,,,,,,,,,,,,,,,,,,,,,,,,,,,,,,,,,,,,,,,,,,,,,,,
14799,1645651042.622767,71.0,0.0,4333.333496,4678.461426,4170.769043,4286.153809,4254.871582,450.0,3.0,59.0,,,,0.0,4.0,4.0,4.0,0.0,1.0,41.666668,,,,,,,,,,,,,,,,,,,,,,,,,,,,,,,,,,,,,,,,,,,,,,,,,,,,,,0.0,0.0,1.0,0.0,512.0,1.0,,,,,,,,,,,,,,,,,,,,,,,,,
14800,1645651042.6305811,72.0,0.0,4443.589844,4700.0,4220.0,4278.461426,4307.179688,450.0,3.0,59.0,,,,0.0,4.0,4.0,4.0,0.0,1.0,41.666668,,,,,,,,36.0,0.0,0.30982,0.576904,0.12207,-0.74585,0.949722,-0.175784,-0.31104,-0.016821,-0.049694999999999996,-0.032866,,,,,,,,,,,,,,,,,,,,,,,,,,,,,,,,,,,,,,,,,,,,,,,,,,,,,,,,,,,,,,,,,
14801,1645651042.638396,73.0,0.0,4426.153809,4897.94873,4247.179688,4276.922852000001,4341.025879,0.0,3.0,59.0,,,,0.0,4.0,4.0,4.0,0.0,1.0,41.666668,,,,,,,,,,,,,,,,,,,,,,,,,,,,,,,,,,,,,,,,,,,,,,,,,,,,,,,,,,,,,,,,,,,,,,,,,,,,,,,,,,,,
14802,1645651042.64621,74.0,0.0,4352.307617,4374.871582,4322.05127,4282.563965,4233.333496,450.0,3.0,59.0,,,,0.0,4.0,4.0,4.0,0.0,1.0,41.666668,,,,,,,,37.0,0.0,0.30982,0.576904,0.12207,-0.74585,0.949233,-0.170413,-0.309087,-0.017483000000000002,-0.049706,-0.035146,,,,,,,,,,,,,,,,,,,,,,,,,,,,,,,,,,,,,,,,,,,,,,,,,,,,,,,,,,,,,,,,,
14803,1645651042.6540241,75.0,0.0,4392.307617,4209.230957,4357.436035,4276.922852000001,4257.436035,59.0,3.0,59.0,,,,0.0,4.0,4.0,4.0,0.0,1.0,41.666668,0.875,0.0,1.0,0.0,0.0,0.0,0.0,,,,,,,,,,,,,1.0,0.0,0.0,,,,,,,,,,,,,,,,,,,,,,,,,,,,,,,,0.0,0.0,1.0,0.0,512.0,1.0,27.892640999999998,9.545568,8.398498,17.320234,15.891777,419.30310099999997,541.416809,350.309265,319.752594,1003.986816,120.56141699999999,106.55497,8.821549000000001,17.22596,25.824070000000003,0.062227,0.063649,0.037453,0.081787,0.091878,27.080595000000002,15.206180999999999,7.954841,9.014335,17.117683
14804,1645651042.661839,76.0,0.0,4369.230957,4922.05127,4295.897461,4276.922852000001,4329.230957,450.0,3.0,59.0,,,,0.0,4.0,4.0,4.0,0.0,1.0,41.666668,,,,,,,,38.0,0.0,0.30982,0.576904,0.12207,-0.74585,0.9399559999999999,-0.171878,-0.306157,-0.015832,-0.049667,-0.037344,,,,,,,,,,,,,,,,,,,,,,,,,,,,,,,,,,,,,,,,,,,,,,,,,,,,,,,,,,,,,,,,,
14805,1645651042.669653,77.0,0.0,4327.692383,4902.05127,4280.512695,4286.666504,4276.922852000001,450.0,3.0,59.0,,,,0.0,4.0,4.0,4.0,0.0,1.0,41.666668,,,,,,,,,,,,,,,,,,,,,,,,,,,,,,,,,,,,,,,,,,,,,,,,,,,,,,,,,,,,,,,,,,,,,,,,,,,,,,,,,,,,
14806,1645651042.677368,78.0,0.0,4402.05127,4382.05127,4273.333496,4281.025879,4241.025879,450.0,3.0,59.0,,,,0.0,4.0,4.0,4.0,0.0,1.0,41.666668,,,,,,,,39.0,0.0,0.30982,0.576904,0.12207,-0.74585,0.96144,-0.182132,-0.307622,-0.01669,-0.049777999999999996,-0.039323000000000004,,,,,,,,,,,,,,,,,,,,,,,,,,,,,,,,,,,,,,,,,,,,,,,,,,,,,,,,,,,,,,,,,
14807,1645651042.685182,79.0,0.0,4418.974121,4674.358886999999,4309.230957,4272.820313,4274.358886999999,59.0,3.0,59.0,,,,0.0,4.0,4.0,4.0,0.0,1.0,41.666668,,,,,,,,,,,,,,,,,,,,,,,,,,,,,,,,,,,,,,,,,,,,,,,,,,,,,,0.0,0.0,1.0,0.0,512.0,1.0,,,,,,,,,,,,,,,,,,,,,,,,,
14808,1645651042.692997,80.0,0.0,4308.717772999999,4806.153809,4329.743652,4280.0,4211.282227000001,450.0,3.0,59.0,,,,0.0,4.0,4.0,4.0,0.0,1.0,41.666668,,,,,,,,40.0,0.0,0.30982,0.576904,0.12207,-0.74585,0.944839,-0.17969000000000002,-0.306645,-0.017315999999999998,-0.04983,-0.034950999999999996,,,,,,,,,,,,,,,,,,,,,,,,,,,,,,,,,,,,,,,,,,,,,,,,,,,,,,,,,,,,,,,,,
14809,1645651042.700811,81.0,0.0,4289.743652,4331.794922,4333.333496,4280.0,4153.333496,450.0,3.0,59.0,,,,0.0,4.0,4.0,4.0,0.0,1.0,41.666668,,,,,,,,,,,,,,,,,,,,,,,,,,,,,,,,,,,,,,,,,,,,,,,,,,,,,,,,,,,,,,,,,,,,,,,,,,,,,,,,,,,,
14810,1645651042.708625,82.0,0.0,4344.102539,4504.102539,4279.487305,4275.897461,4215.384765999999,450.0,3.0,59.0,,,,0.0,4.0,4.0,4.0,0.0,1.0,41.666668,,,,,,,,41.0,0.0,0.30982,0.576904,0.12207,-0.74585,0.9472799999999999,-0.17773699999999998,-0.308598,-0.015681999999999998,-0.049779000000000004,-0.03712,,,,,,,,,,,,,,,,,,,,,,,,,,,,,,,,,,,,,,,,,,,,,,,,,,,,,,,,,,,,,,,,,
14811,1645651042.71644,83.0,0.0,4312.307617,4890.256348,4250.769043,4284.102539,4231.794922,59.0,3.0,59.0,,,,0.0,4.0,4.0,4.0,0.0,1.0,41.666668,,,,,,,,,,,,,,,,,,,,,,,,,,,,,,,,,,,,,,,,,,,,,,,,,,,,,,0.0,0.0,1.0,0.0,512.0,1.0,,,,,,,,,,,,,,,,,,,,,,,,,
14812,1645651042.724254,84.0,0.0,4301.538574,4578.974121,4228.717772999999,4284.615234000001,4207.692383,450.0,3.0,59.0,,,,0.0,4.0,4.0,4.0,0.0,1.0,41.666668,,,,,,,,42.0,0.0,0.30982,0.576904,0.12207,-0.74585,0.957534,-0.176272,-0.307622,-0.016555,-0.049879,-0.039120999999999996,,,,,,,,,,,,,,,,,,,,,,,,,,,,,,,,,,,,,,,,,,,,,,,,,,,,,,,,,,,,,,,,,
14813,1645651042.732069,85.0,0.0,4369.230957,4526.666504,4187.692383,4271.282227000001,4267.692383,450.0,3.0,59.0,,,,0.0,4.0,4.0,4.0,0.0,1.0,41.666668,,,,,,,,,,,,,,,,,,,,,,,,,,,,,,,,,,,,,,,,,,,,,,,,,,,,,,,,,,,,,,,,,,,,,,,,,,,,,,,,,,,,
14814,1645651042.739983,86.0,0.0,4393.333496,4870.769043,4154.871582,4272.820313,4301.538574,450.0,3.0,59.0,,,,0.0,4.0,4.0,4.0,0.0,1.0,41.666668,,,,,,,,43.0,0.0,0.30982,0.576904,0.12207,-0.74585,0.9506979999999999,-0.182132,-0.31299299999999997,-0.015681,-0.04992,-0.040873,,,,,,,,,,,,,,,,,,,,,,,,,,,,,,,,,,,,,,,,,,,,,,,,,,,,,,,,,,,,,,,,,
14815,1645651042.747797,87.0,0.0,4348.717772999999,4593.333496,4193.333496,4284.102539,4188.205078,59.0,3.0,59.0,,,,0.0,4.0,4.0,4.0,0.0,1.0,41.666668,,,,,,,,,,,,,,,,,,,,,,,,,,,,,,,,,,,,,,,,,,,,,,,,,,,,,,0.0,0.0,1.0,0.0,512.0,1.0,,,,,,,,,,,,,,,,,,,,,,,,,
14816,1645651042.755612,88.0,0.0,4365.128418,4381.538574,4246.666504,4283.077147999999,4183.077147999999,450.0,3.0,59.0,,,,0.0,4.0,4.0,4.0,0.0,1.0,41.666668,,,,,,,,44.0,0.0,0.310274,0.5766600000000001,0.12207,-0.74585,0.949722,-0.178714,-0.306645,-0.014844999999999999,-0.050006999999999996,-0.042548,,,,,,,,,,,,,,,,,,,,,,,,,,,,,,,,,,,,,,,,,,,,,,,,,,,,,,,,,,,,,,,,,
14817,1645651042.763426,89.0,0.0,4335.384765999999,4680.512695,4218.974121,4280.0,4270.769043,450.0,3.0,59.0,,,,0.0,4.0,4.0,4.0,0.0,1.0,41.666668,,,,,,,,,,,,,,,,,,,,,,,,,,,,,,,,,,,,,,,,,,,,,,,,,,,,,,,,,,,,,,,,,,,,,,,,,,,,,,,,,,,,
14818,1645651042.771241,90.0,0.0,4325.641113000001,4704.615234000001,4251.282227000001,4281.538574,4285.128418,450.0,3.0,59.0,,,,0.0,4.0,4.0,4.0,0.0,1.0,41.666668,,,,,,,,45.0,0.0,0.310274,0.5766600000000001,0.12207,-0.74585,0.9521629999999999,-0.167971,-0.323735,-0.014141999999999998,-0.050035,-0.043956999999999996,,,,,,,,,,,,,,,,,,,,,,,,,,,,,,,,,,,,,,,,,,,,,,,,,,,,,,,,,,,,,,,,,
14819,1645651042.779055,91.0,0.0,4361.025879,4814.358886999999,4276.410156,4278.461426,4260.0,59.0,3.0,59.0,,,,0.0,4.0,4.0,4.0,0.0,1.0,41.666668,,,,,,,,,,,,,,,,,,,,1.0,0.0,0.0,,,,,,,,,,,,,,,,,,,,,,,,,,,,,,,,0.0,0.0,1.0,0.0,512.0,1.0,29.432013,8.925858999999999,9.616892,16.720697,15.591610999999999,299.427032,431.23098799999997,213.691345,349.05523700000003,999.0689699999999,115.984894,101.914734,6.930452000000001,21.374069,24.067282000000002,0.045182,0.046743,0.023634,0.082966,0.098719,30.542393,17.722891,7.847641,9.993366,18.110382
14820,1645651042.786869,92.0,0.0,4343.077147999999,5006.666504,4268.205078,4280.0,4286.153809,450.0,3.0,59.0,,,,0.0,4.0,4.0,4.0,0.0,1.0,41.666668,,,,,,,,46.0,0.0,0.310274,0.5766600000000001,0.12207,-0.74585,0.9438620000000001,-0.18262,-0.306157,-0.015072,-0.050012,-0.038926,,,,,,,,,,,,,,,,,,,,,,,,,,,,,,,,,,,,,,,,,,,,,,,,,,,,,,,,,,,,,,,,,
14821,1645651042.794684,93.0,0.0,4328.205078,4454.871582,4325.641113000001,4283.077147999999,4249.230957,450.0,3.0,59.0,,,,0.0,4.0,4.0,4.0,0.0,1.0,41.666668,,,,,,,,,,,,,,,,,,,,,,,,,,,,,,,,,,,,,,,,,,,,,,,,,,,,,,,,,,,,,,,,,,,,,,,,,,,,,,,,,,,,
14822,1645651042.802498,94.0,0.0,4407.692383,4132.307617,4388.205078,4277.94873,4227.179688,450.0,3.0,59.0,,,,0.0,4.0,4.0,4.0,0.0,1.0,41.666668,,,,,,,,47.0,0.0,0.310274,0.5766600000000001,0.12207,-0.74585,0.937026,-0.177249,-0.307622,-0.015811000000000002,-0.049943,-0.040698000000000005,,,,,,,,,,,,,,,,,,,,,,,,,,,,,,,,,,,,,,,,,,,,,,,,,,,,,,,,,,,,,,,,,
14823,1645651042.810213,95.0,0.0,4388.205078,4691.282227000001,4301.538574,4277.436035,4252.820313,59.0,3.0,59.0,,,,0.0,4.0,4.0,4.0,0.0,1.0,41.666668,,,,,,,,,,,,,,,,,,,,,,,,,,,,,,,,,,,,,,,,,,,,,,,,,,,,,,0.0,0.0,1.0,0.0,512.0,1.0,,,,,,,,,,,,,,,,,,,,,,,,,
14824,1645651042.818127,96.0,1.0,4394.814941,4684.900390999999,4284.900390999999,4277.265136999999,4255.897461,102.444443,3.0,59.0,,,,0.0,4.0,4.0,4.0,0.0,1.0,41.666668,,,,,,,,48.0,1.0,0.310274,0.5766600000000001,0.12207,-0.74585,0.939467,-0.177542,-0.309477,-0.015631,-0.04993,-0.041027,,,,,,,,,,,,,,,,,,,,,,,,,,,,,,,,,,,,,,,,,,,,,,,,,,,,,,,,,,,,,,,,,
14825,1645651042.825941,97.0,1.0,4401.424316,4678.518555,4268.262207,4277.094238000001,4258.974121,145.88888500000002,3.0,59.0,,,,0.0,4.0,4.0,4.0,0.0,1.0,41.666668,,,,,,,,,,,,,,,,,,,,,,,,,,,,,,,,,,,,,,,,,,,,,,,,,,,,,,,,,,,,,,,,,,,,,,,,,,,,,,,,,,,,
14826,1645651042.833756,98.0,1.0,4408.03418,4672.136719,4251.624022999999,4276.922852000001,4262.05127,189.333328,3.0,59.0,,,,0.0,4.0,4.0,4.0,0.0,1.0,41.666668,,,,,,,,49.0,1.0,0.310274,0.5766600000000001,0.12207,-0.74585,0.941909,-0.177835,-0.31133299999999997,-0.015452,-0.049918000000000004,-0.041355,,,,,,,,,,,,,,,,,,,,,,,,,,,,,,,,,,,,,,,,,,,,,,,,,,,,,,,,,,,,,,,,,
14827,1645651042.84157,99.0,1.0,4414.644043,4665.754883,4234.98584,4276.751953,4265.128418,232.777771,3.0,59.0,,,,0.0,4.0,4.0,4.0,0.0,1.0,41.666668,,,,,,,,,,,,,,,,,,,,,,,,,,,,,,,,,,,,,,,,,,,,,,,,,,,,,,0.0,0.0,1.0,0.0,512.0,1.0,,,,,,,,,,,,,,,,,,,,,,,,,
14828,1645651042.849385,100.0,1.0,4421.253418,4659.373047,4218.347656,4276.581055,4268.205078,276.222229,3.0,59.0,,,,0.0,4.0,4.0,4.0,0.0,1.0,41.666668,,,,,,,,50.0,1.0,0.310274,0.5766600000000001,0.12207,-0.74585,0.94435,-0.178128,-0.313188,-0.015271999999999999,-0.049905,-0.041684,,,,,,,,,,,,,,,,,,,,,,,,,,,,,,,,,,,,,,,,,,,,,,,,,,,,,,,,,,,,,,,,,
14829,1645651042.857199,101.0,1.0,4427.863281,4652.991211,4201.709473,4276.410156,4271.282227000001,319.666656,3.0,59.0,,,,0.0,4.0,4.0,4.0,0.0,1.0,41.666668,,,,,,,,,,,,,,,,,,,,,,,,,,,,,,,,,,,,,,,,,,,,,,,,,,,,,,,,,,,,,,,,,,,,,,,,,,,,,,,,,,,,
14830,1645651042.8650131,102.0,1.0,4434.473145,4646.609863000001,4185.071289,4276.239258,4274.358886999999,363.111115,3.0,59.0,,,,0.0,4.0,4.0,4.0,0.0,1.0,41.666668,,,,,,,,51.0,1.0,0.310274,0.5766600000000001,0.12207,-0.74585,0.946792,-0.178421,-0.315044,-0.015093,-0.049893,-0.042013,,,,,,,,,,,,,,,,,,,,,,,,,,,,,,,,,,,,,,,,,,,,,,,,,,,,,,,,,,,,,,,,,
14831,1645651042.872828,103.0,1.0,4441.08252,4640.228027,4168.433105,4276.068359000001,4277.436035,406.555542,3.0,59.0,,,,0.0,4.0,4.0,4.0,0.0,1.0,41.666668,,,,,,,,,,,,,,,,,,,,,,,,,,,,,,,,,,,,,,,,,,,,,,,,,,,,,,0.0,0.0,1.0,0.0,512.0,1.0,,,,,,,,,,,,,,,,,,,,,,,,,
14832,1645651042.880642,104.0,0.0,4447.692383,4633.846191,4151.794922,4275.897461,4280.512695,450.0,3.0,59.0,,,,0.0,4.0,4.0,4.0,0.0,1.0,41.666668,,,,,,,,52.0,0.0,0.310274,0.5766600000000001,0.12207,-0.74585,0.949233,-0.178714,-0.316899,-0.014913,-0.04988,-0.042341000000000004,,,,,,,,,,,,,,,,,,,,,,,,,,,,,,,,,,,,,,,,,,,,,,,,,,,,,,,,,,,,,,,,,
14833,1645651042.888457,105.0,0.0,4408.205078,4995.897461,4226.666504,4276.410156,4335.384765999999,450.0,3.0,59.0,,,,0.0,4.0,4.0,4.0,0.0,1.0,41.666668,,,,,,,,,,,,,,,,,,,,,,,,,,,,,,,,,,,,,,,,,,,,,,,,,,,,,,,,,,,,,,,,,,,,,,,,,,,,,,,,,,,,
14834,1645651042.896271,106.0,0.0,4392.307617,4369.743652,4369.230957,4285.128418,4262.563965,450.0,3.0,59.0,,,,0.0,4.0,4.0,4.0,0.0,1.0,41.666668,,,,,,,,53.0,0.0,0.30982,0.576904,0.12207,-0.74585,0.9463030000000001,-0.17969000000000002,-0.307134,-0.015619,-0.049922,-0.037521,,,,,,,,,,,,,,,,,,,,,,,,,,,,,,,,,,,,,,,,,,,,,,,,,,,,,,,,,,,,,,,,,
14835,1645651042.904085,107.0,0.0,4403.589844,4188.717772999999,4358.974121,4282.563965,4263.077147999999,59.0,3.0,59.0,,,,0.0,4.0,4.0,4.0,0.0,1.0,41.666668,,,,,,,,,,,,,,,,,,,,1.0,0.0,0.0,,,,,,,,,,,,,,,,,,,,,,,,,,,,,,,,0.0,0.0,1.0,0.0,512.0,1.0,31.513711999999998,10.682283,11.944265,15.710911,14.772065,214.348129,344.717896,142.732849,383.252808,948.6060789999999,112.787529,101.020966,6.545132,25.475399,21.157099,0.037495999999999995,0.039245999999999996,0.015016,0.083686,0.10356099999999999,34.127747,21.123504999999998,10.175488,10.983042999999999,18.056376999999998
14836,1645651042.9119,108.0,0.0,4330.256348,4857.94873,4287.692383,4281.025879,4283.077147999999,450.0,3.0,59.0,,,,0.0,4.0,4.0,4.0,0.0,1.0,41.666668,,,,,,,,54.0,0.0,0.30982,0.576904,0.12207,-0.74585,0.9340959999999999,-0.176761,-0.30518,-0.016352000000000002,-0.04991,-0.039531000000000004,,,,,,,,,,,,,,,,,,,,,,,,,,,,,,,,,,,,,,,,,,,,,,,,,,,,,,,,,,,,,,,,,
14837,1645651042.919714,109.0,0.0,4329.743652,4878.461426,4313.333496,4286.666504,4244.615234000001,450.0,3.0,59.0,,,,0.0,4.0,4.0,4.0,0.0,1.0,41.666668,,,,,,,,,,,,,,,,,,,,,,,,,,,,,,,,,,,,,,,,,,,,,,,,,,,,,,,,,,,,,,,,,,,,,,,,,,,,,,,,,,,,
14838,1645651042.9275289,110.0,0.0,4410.769043,4650.256348,4282.563965,4280.512695,4252.307617,450.0,3.0,59.0,,,,0.0,4.0,4.0,4.0,0.0,1.0,41.666668,,,,,,,,55.0,0.0,0.30982,0.576904,0.12207,-0.74585,0.941909,-0.177249,-0.311528,-0.016963,-0.0499,-0.035041,,,,,,,,,,,,,,,,,,,,,,,,,,,,,,,,,,,,,,,,,,,,,,,,,,,,,,,,,,,,,,,,,
14839,1645651042.935343,111.0,0.0,4388.717772999999,4838.974121,4267.179688,4276.922852000001,4303.077147999999,59.0,3.0,59.0,,,,0.0,4.0,4.0,4.0,0.0,1.0,41.666668,,,,,,,,,,,,,,,,,,,,,,,,,,,,,,,,,,,,,,,,,,,,,,,,,,,,,,0.0,0.0,1.0,0.0,512.0,1.0,,,,,,,,,,,,,,,,,,,,,,,,,
14840,1645651042.943157,112.0,0.0,4347.692383,4663.589844,4286.153809,4284.102539,4240.0,450.0,3.0,59.0,,,,0.0,4.0,4.0,4.0,0.0,1.0,41.666668,,,,,,,,56.0,0.0,0.31037,0.5766600000000001,0.121826,-0.74585,0.951675,-0.178714,-0.305669,-0.015999,-0.049792,-0.037054000000000004,,,,,,,,,,,,,,,,,,,,,,,,,,,,,,,,,,,,,,,,,,,,,,,,,,,,,,,,,,,,,,,,,
14841,1645651042.951072,113.0,0.0,4411.794922,4410.256348,4317.436035,4278.974121,4188.717772999999,450.0,3.0,59.0,,,,0.0,4.0,4.0,4.0,0.0,1.0,41.666668,,,,,,,,,,,,,,,,,,,,,,,,,,,,,,,,,,,,,,,,,,,,,,,,,,,,,,,,,,,,,,,,,,,,,,,,,,,,,,,,,,,,
14842,1645651042.958886,114.0,0.0,4382.563965,4681.025879,4282.05127,4274.871582,4217.94873,450.0,3.0,59.0,,,,0.0,4.0,4.0,4.0,0.0,1.0,41.666668,,,,,,,,57.0,0.0,0.310274,0.5766600000000001,0.12207,-0.74585,0.947768,-0.157229,-0.306157,-0.016694,-0.049794,-0.039111,,,,,,,,,,,,,,,,,,,,,,,,,,,,,,,,,,,,,,,,,,,,,,,,,,,,,,,,,,,,,,,,,
14843,1645651042.966701,115.0,0.0,4271.794922,4700.0,4268.717772999999,4286.153809,4181.025879,59.0,3.0,59.0,,,,0.0,4.0,4.0,4.0,0.0,1.0,41.666668,,,,,,,,,,,,,,,,,,,,,,,,,,,,,,,,,,,,,,,,,,,,,,,,,,,,,,0.0,0.0,1.0,0.0,512.0,1.0,,,,,,,,,,,,,,,,,,,,,,,,,
14844,1645651042.974515,116.0,0.0,4302.05127,4522.05127,4248.205078,4284.615234000001,4177.94873,450.0,3.0,59.0,,,,0.0,4.0,4.0,4.0,0.0,1.0,41.666668,,,,,,,,58.0,0.0,0.31037,0.5766600000000001,0.121826,-0.74585,0.949722,-0.176761,-0.31299299999999997,-0.017417,-0.049697000000000005,-0.040913,,,,,,,,,,,,,,,,,,,,,,,,,,,,,,,,,,,,,,,,,,,,,,,,,,,,,,,,,,,,,,,,,
14845,1645651042.982329,117.0,0.0,4358.974121,4843.077147999999,4176.922852000001,4273.333496,4278.974121,450.0,3.0,59.0,,,,0.0,4.0,4.0,4.0,0.0,1.0,41.666668,,,,,,,,,,,,,,,,,,,,,,,,,,,,,,,,,,,,,,,,,,,,,,,,,,,,,,,,,,,,,,,,,,,,,,,,,,,,,,,,,,,,
14846,1645651042.990144,118.0,0.0,4362.563965,4910.256348,4133.333496,4279.487305,4316.410156,450.0,3.0,59.0,,,,0.0,4.0,4.0,4.0,0.0,1.0,41.666668,,,,,,,,59.0,0.0,0.31037,0.5766600000000001,0.121826,-0.74585,0.9487450000000001,-0.184085,-0.316899,-0.018019999999999998,-0.049707999999999995,-0.036235,,,,,,,,,,,,,,,,,,,,,,,,,,,,,,,,,,,,,,,,,,,,,,,,,,,,,,,,,,,,,,,,,
14847,1645651042.997958,119.0,0.0,4387.179688,4423.589844,4188.717772999999,4283.589844,4207.179688,59.0,3.0,59.0,,,,0.0,4.0,4.0,4.0,0.0,1.0,41.666668,,,,,,,,,,,,,,,,,,,,,,,,,,,,,,,,,,,,,,,,,,,,,,,,,,,,,,0.0,0.0,1.0,0.0,512.0,1.0,,,,,,,,,,,,,,,,,,,,,,,,,
14848,1645651043.005773,120.0,0.0,4438.461426,4439.487305,4234.358886999999,4275.897461,4209.230957,450.0,3.0,59.0,,,,0.0,4.0,4.0,4.0,0.0,1.0,41.666668,,,,,,,,60.0,0.0,0.310274,0.5766600000000001,0.12207,-0.74585,0.947768,-0.157229,-0.306157,-0.018512999999999998,-0.049669,-0.032026,,,,,,,,,,,,,,,,,,,,,,,,,,,,,,,,,,,,,,,,,,,,,,,,,,,,,,,,,,,,,,,,,
14849,1645651043.013687,121.0,0.0,4357.94873,4780.512695,4195.384765999999,4281.025879,4275.897461,450.0,3.0,59.0,,,,0.0,4.0,4.0,4.0,0.0,1.0,41.666668,,,,,,,,,,,,,,,,,,,,,,,,,,,,,,,,,,,,,,,,,,,,,,,,,,,,,,,,,,,,,,,,,,,,,,,,,,,,,,,,,,,,
14850,1645651043.021501,122.0,0.0,4307.692383,4673.333496,4234.871582,4288.205078,4262.05127,450.0,3.0,59.0,,,,0.0,4.0,4.0,4.0,0.0,1.0,41.666668,,,,,,,,61.0,0.0,0.31037,0.5766600000000001,0.121826,-0.74585,0.9487450000000001,-0.184085,-0.316899,-0.019005,-0.049683,-0.028237,,,,,,,,,,,,,,,,,,,,,,,,,,,,,,,,,,,,,,,,,,,,,,,,,,,,,,,,,,,,,,,,,
14851,1645651043.029316,123.0,0.0,4371.282227000001,4758.461426,4270.769043,4278.461426,4240.512695,59.0,3.0,59.0,,,,0.0,4.0,4.0,4.0,0.0,1.0,41.666668,,,,,,,,,,,,,,,,,,,,1.0,0.0,0.0,,,,,,,,,,,,,,,,,,,,,,,,,,,,,,,,0.0,0.0,1.0,0.0,512.0,1.0,31.600489000000003,14.144407999999999,15.144757,14.443542,13.621239000000001,144.732407,282.056244,127.727806,422.87692300000003,873.0261230000001,111.172142,103.525772,7.399149,28.919077,17.794188000000002,0.034252,0.037975,0.011486,0.086393,0.10738199999999999,36.59449,24.481251,14.373651999999998,11.694828,17.049829000000003
14852,1645651043.03713,124.0,0.0,4411.794922,5026.153809,4281.025879,4277.436035,4302.05127,450.0,3.0,59.0,,,,0.0,4.0,4.0,4.0,0.0,1.0,41.666668,,,,,,,,62.0,0.0,0.30991599999999997,0.576904,0.121826,-0.74585,0.945815,-0.18701500000000001,-0.309575,-0.019497,-0.049597,-0.031029,,,,,,,,,,,,,,,,,,,,,,,,,,,,,,,,,,,,,,,,,,,,,,,,,,,,,,,,,,,,,,,,,
14853,1645651043.044945,125.0,0.0,4362.563965,4537.436035,4339.487305,4286.666504,4274.871582,450.0,3.0,59.0,,,,0.0,4.0,4.0,4.0,0.0,1.0,41.666668,,,,,,,,,,,,,,,,,,,,,,,,,,,,,,,,,,,,,,,,,,,,,,,,,,,,,,,,,,,,,,,,,,,,,,,,,,,,,,,,,,,,
14854,1645651043.052759,126.0,0.0,4356.410156,4156.410156,4366.153809,4281.538574,4201.538574,450.0,3.0,59.0,,,,0.0,4.0,4.0,4.0,0.0,1.0,41.666668,,,,,,,,63.0,0.0,0.30991599999999997,0.576904,0.121826,-0.74585,0.945815,-0.18945599999999999,-0.300298,-0.01828,-0.049618,-0.027389,,,,,,,,,,,,,,,,,,,,,,,,,,,,,,,,,,,,,,,,,,,,,,,,,,,,,,,,,,,,,,,,,
14855,1645651043.060673,127.0,0.0,4361.538574,4728.205078,4246.153809,4275.384765999999,4225.128418,235.0,3.0,59.0,,,,0.0,1.0,4.0,2.0,0.0,1.0,16.666666,,,,,,,,,,,,,,,,,,,,,,,,,,,,,,,,,,,,,,,,,,,,,,,,,,,,,,0.0,0.0,1.0,0.0,512.0,1.0,,,,,,,,,,,,,,,,,,,,,,,,,
14856,1645651043.0684881,0.0,0.0,4292.820313,4907.692383,4243.077147999999,4285.128418,4242.05127,450.0,3.0,59.0,,,,0.0,1.0,4.0,2.0,0.0,1.0,16.666666,,,,,,,,0.0,0.0,0.31037,0.5766600000000001,0.121826,-0.74585,0.9521629999999999,-0.17969000000000002,-0.310552,-0.018796,-0.049637,-0.030412,,,,,,,,,,,,,,,,,,,,,,,,,,,,,,,,,,,,,,,,,,,,,,,,,,,,,,,,,,,,,,,,,
14857,1645651043.076302,1.0,0.0,4325.128418,4431.282227000001,4335.897461,4285.641113000001,4200.0,450.0,3.0,59.0,,,,0.0,1.0,4.0,2.0,0.0,1.0,16.666666,,,,,,,,,,,,,,,,,,,,,,,,,,,,,,,,,,,,,,,,,,,,,,,,,,,,,,,,,,,,,,,,,,,,,,,,,,,,,,,,,,,,
14858,1645651043.084117,2.0,0.0,4423.589844,4659.487305,4311.794922,4275.384765999999,4246.666504,155.0,3.0,59.0,,,,0.0,1.0,4.0,2.0,0.0,1.0,16.666666,,,,,,,,1.0,0.0,0.31037,0.5766600000000001,0.121826,-0.74585,0.9521629999999999,-0.179202,-0.316899,-0.019211000000000002,-0.049654000000000004,-0.026882,,,,,,,,,,,,,,,,,,,,,,,,,,,,,,,,,,,,,,,,,,,,,,,,,,,,,,,,,,,,,,,,,
14859,1645651043.091931,3.0,0.0,4381.538574,4988.717772999999,4256.922852000001,4278.461426,4297.94873,450.0,3.0,59.0,,,,0.0,1.0,4.0,2.0,0.0,1.0,16.666666,,,,,,,,,,,,,,,,,,,,,,,,,,,,,,,,,,,,,,,,,,,,,,,,,,,,,,0.0,0.0,1.0,0.0,512.0,1.0,,,,,,,,,,,,,,,,,,,,,,,,,
14860,1645651043.099745,4.0,0.0,4321.538574,4406.666504,4319.487305,4286.153809,4202.05127,16091.0,3.0,59.0,,,,0.0,1.0,4.0,2.0,0.0,1.0,16.666666,,,,,,,,2.0,0.0,0.31037,0.5766600000000001,0.121826,-0.74585,0.933608,-0.17969000000000002,-0.31250500000000003,-0.017339,-0.049669,-0.023559,,,,,,,,,,,,,,,,,,,,,,,,,,,,,,,,,,,,,,,,,,,,,,,,,,,,,,,,,,,,,,,,,
14861,1645651043.10756,5.0,0.0,4409.230957,4157.94873,4245.641113000001,4280.512695,4235.384765999999,450.0,3.0,59.0,,,,0.0,1.0,4.0,2.0,0.0,1.0,16.666666,,,,,,,,,,,,,,,,,,,,,,,,,,,,,,,,,,,,,,,,,,,,,,,,,,,,,,,,,,,,,,,,,,,,,,,,,,,,,,,,,,,,
14862,1645651043.115374,6.0,0.0,4404.615234000001,4872.820313,4115.384765999999,4274.871582,4370.256348,319.0,3.0,59.0,,,,0.0,1.0,4.0,2.0,0.0,1.0,16.666666,,,,,,,,3.0,0.0,0.31037,0.5766600000000001,0.121826,-0.74585,0.944839,-0.17773699999999998,-0.307134,-0.017949,-0.049634,-0.026916000000000002,,,,,,,,,,,,,,,,,,,,,,,,,,,,,,,,,,,,,,,,,,,,,,,,,,,,,,,,,,,,,,,,,
14863,1645651043.123189,7.0,0.0,4355.897461,5008.717772999999,4174.871582,4280.0,4318.974121,450.0,3.0,59.0,,,,0.0,1.0,4.0,2.0,0.0,1.0,16.666666,,,,,,,,,,,,,,,,,,,,,,,,,,,,,,,,,,,,,,,,,,,,,,,,,,,,,,0.0,0.0,1.0,0.0,512.0,1.0,,,,,,,,,,,,,,,,,,,,,,,,,
14864,1645651043.131103,8.0,0.0,4415.897461,4338.461426,4284.102539,4279.487305,4193.846191,450.0,3.0,59.0,,,,0.0,1.0,4.0,2.0,0.0,4.0,25.0,,,,,,,,4.0,0.0,0.31037,0.5766600000000001,0.121826,-0.74585,0.956558,-0.167483,-0.302739,-0.018351,-0.049749,-0.029987,,,,,,,,,,,,,,,,,,,,,,,,,,,,,,,,,,,,,,,,,,,,,,,,,,,,,,,,,,,,,,,,,
14865,1645651043.138917,9.0,0.0,4434.871582,4428.205078,4281.025879,4276.410156,4254.358886999999,0.0,3.0,59.0,,,,0.0,1.0,4.0,2.0,0.0,4.0,25.0,,,,,,,,,,,,,,,,,,,,,,,,,,,,,,,,,,,,,,,,,,,,,,,,,,,,,,,,,,,,,,,,,,,,,,,,,,,,,,,,,,,,
14866,1645651043.146732,10.0,0.0,4328.717772999999,4935.384765999999,4238.461426,4284.615234000001,4298.461426,450.0,3.0,59.0,,,,0.0,1.0,4.0,2.0,0.0,4.0,25.0,,,,,,,,5.0,0.0,0.31037,0.5766600000000001,0.121826,-0.74585,0.951675,-0.175784,-0.325689,-0.018811,-0.049754,-0.026402,,,,,,,,,,,,,,,,,,,,,,,,,,,,,,,,,,,,,,,,,,,,,,,,,,,,,,,,,,,,,,,,,
14867,1645651043.154546,11.0,0.0,4318.974121,4738.974121,4277.94873,4289.743652,4264.615234000001,16106.0,3.0,59.0,,,,0.0,1.0,4.0,2.0,0.0,4.0,25.0,0.875,0.0,1.0,0.0,0.0,0.0,0.0,,,,,,,,,,,,,1.0,0.0,0.0,,,,,,,,,,,,,,,,,,,,,,,,,,,,,,,,0.0,0.0,1.0,0.0,512.0,1.0,30.524708,17.960119,18.540947,13.046553,12.369782,94.110855,233.664673,142.021469,462.597717,790.9822389999999,111.028778,108.60462199999999,8.936949,31.194387,14.601299,0.032772,0.037859,0.011336,0.092205,0.11136300000000002,37.755001,27.035509,18.9536,11.996605,15.425834
14868,1645651043.16236,12.0,0.0,4377.436035,4616.922852000001,4287.179688,4280.512695,4280.512695,450.0,3.0,59.0,,,,0.0,1.0,4.0,2.0,0.0,4.0,25.0,,,,,,,,6.0,0.0,0.31037,0.5766600000000001,0.121826,-0.74585,0.951675,-0.186526,-0.30811,-0.019176,-0.049759,-0.023176,,,,,,,,,,,,,,,,,,,,,,,,,,,,,,,,,,,,,,,,,,,,,,,,,,,,,,,,,,,,,,,,,
14869,1645651043.170175,13.0,0.0,4390.256348,4777.436035,4288.205078,4278.461426,4311.282227000001,450.0,3.0,59.0,,,,0.0,1.0,4.0,2.0,0.0,4.0,25.0,,,,,,,,,,,,,,,,,,,,,,,,,,,,,,,,,,,,,,,,,,,,,,,,,,,,,,,,,,,,,,,,,,,,,,,,,,,,,,,,,,,,
14870,1645651043.177989,14.0,0.0,4396.410156,4500.512695,4304.615234000001,4282.563965,4255.384765999999,450.0,3.0,59.0,,,,0.0,1.0,4.0,2.0,0.0,4.0,25.0,,,,,,,,7.0,0.0,0.30991599999999997,0.576904,0.121826,-0.74585,0.938003,-0.169436,-0.303227,-0.019505,-0.049812999999999996,-0.026474,,,,,,,,,,,,,,,,,,,,,,,,,,,,,,,,,,,,,,,,,,,,,,,,,,,,,,,,,,,,,,,,,
14871,1645651043.185804,15.0,0.0,4423.077147999999,4464.102539,4353.846191,4278.974121,4229.230957,16106.0,3.0,59.0,,,,0.0,1.0,4.0,2.0,0.0,4.0,25.0,,,,,,,,,,,,,,,,,,,,,,,,,,,,,,,,,,,,,,,,,,,,,,,,,,,,,,0.0,0.0,1.0,0.0,512.0,1.0,,,,,,,,,,,,,,,,,,,,,,,,,
14872,1645651043.193618,16.0,0.0,4368.205078,4816.410156,4328.205078,4278.461426,4222.05127,0.0,3.0,59.0,,,,0.0,1.0,4.0,2.0,0.0,4.0,25.0,,,,,,,,8.0,0.0,0.31037,0.5766600000000001,0.121826,-0.74585,0.940932,-0.16894800000000001,-0.320806,-0.019947,-0.04991,-0.029539,,,,,,,,,,,,,,,,,,,,,,,,,,,,,,,,,,,,,,,,,,,,,,,,,,,,,,,,,,,,,,,,,
14873,1645651043.2015321,17.0,0.0,4292.820313,4585.641113000001,4321.025879,4283.589844,4180.512695,0.0,3.0,59.0,,,,0.0,1.0,4.0,2.0,0.0,4.0,25.0,,,,,,,,,,,,,,,,,,,,,,,,,,,,,,,,,,,,,,,,,,,,,,,,,,,,,,,,,,,,,,,,,,,,,,,,,,,,,,,,,,,,
14874,1645651043.209347,18.0,0.0,4306.153809,4503.589844,4290.256348,4284.615234000001,4173.333496,0.0,3.0,59.0,,,,0.0,1.0,4.0,2.0,0.0,4.0,25.0,,,,,,,,9.0,0.0,0.31037,0.5766600000000001,0.121826,-0.74585,0.9633940000000001,-0.176272,-0.323247,-0.020247,-0.049899,-0.032201,,,,,,,,,,,,,,,,,,,,,,,,,,,,,,,,,,,,,,,,,,,,,,,,,,,,,,,,,,,,,,,,,
14875,1645651043.217161,19.0,0.0,4313.846191,5022.563965,4218.974121,4284.615234000001,4224.102539,0.0,3.0,59.0,,,,0.0,1.0,4.0,2.0,0.0,4.0,25.0,,,,,,,,,,,,,,,,,,,,,,,,,,,,,,,,,,,,,,,,,,,,,,,,,,,,,,0.0,0.0,1.0,0.0,512.0,1.0,,,,,,,,,,,,,,,,,,,,,,,,,
14876,1645651043.224976,20.0,0.0,4312.820313,4836.410156,4220.512695,4282.05127,4263.589844,0.0,3.0,59.0,,,,0.0,1.0,4.0,2.0,0.0,4.0,25.0,,,,,,,,10.0,0.0,0.30991599999999997,0.576904,0.121826,-0.74585,0.9673,-0.186038,-0.320806,-0.020516999999999997,-0.049743,-0.028346,,,,,,,,,,,,,,,,,,,,,,,,,,,,,,,,,,,,,,,,,,,,,,,,,,,,,,,,,,,,,,,,,
14877,1645651043.23279,21.0,0.0,4393.846191,4375.897461,4257.94873,4275.384765999999,4266.153809,0.0,3.0,59.0,,,,0.0,1.0,4.0,2.0,0.0,4.0,25.0,,,,,,,,,,,,,,,,,,,,,,,,,,,,,,,,,,,,,,,,,,,,,,,,,,,,,,,,,,,,,,,,,,,,,,,,,,,,,,,,,,,,
14878,1645651043.240604,22.0,0.0,4454.358886999999,4603.589844,4200.512695,4277.94873,4279.487305,0.0,3.0,59.0,,,,0.0,1.0,4.0,2.0,0.0,4.0,25.0,,,,,,,,11.0,0.0,0.31037,0.5766600000000001,0.121826,-0.74585,0.9594870000000001,-0.185061,-0.318364,-0.020809,-0.049651999999999995,-0.031273,,,,,,,,,,,,,,,,,,,,,,,,,,,,,,,,,,,,,,,,,,,,,,,,,,,,,,,,,,,,,,,,,
14879,1645651043.248419,23.0,0.0,4387.692383,4623.589844,4181.025879,4284.615234000001,4216.922852000001,0.0,3.0,59.0,,,,0.0,1.0,4.0,2.0,0.0,4.0,25.0,,,,,,,,,,,,,,,,,,,,,,,,,,,,,,,,,,,,,,,,,,,,,,,,,,,,,,0.0,0.0,1.0,0.0,512.0,1.0,,,,,,,,,,,,,,,,,,,,,,,,,
14880,1645651043.256233,24.0,0.0,4383.589844,4421.538574,4225.641113000001,4284.102539,4211.282227000001,0.0,3.0,59.0,,,,0.0,1.0,4.0,2.0,0.0,4.0,25.0,,,,,,,,12.0,0.0,0.31037,0.5766600000000001,0.121826,-0.74585,0.9350729999999999,-0.175296,-0.303716,-0.021023,-0.049716,-0.02756,,,,,,,,,,,,,,,,,,,,,,,,,,,,,,,,,,,,,,,,,,,,,,,,,,,,,,,,,,,,,,,,,
14881,1645651043.264048,25.0,0.0,4369.230957,4625.128418,4206.153809,4284.102539,4263.589844,0.0,3.0,59.0,,,,0.0,1.0,4.0,2.0,0.0,4.0,25.0,,,,,,,,,,,,,,,,,,,,,,,,,,,,,,,,,,,,,,,,,,,,,,,,,,,,,,,,,,,,,,,,,,,,,,,,,,,,,,,,,,,,
14882,1645651043.271962,26.0,0.0,4349.743652,4746.666504,4221.025879,4285.641113000001,4273.846191,0.0,3.0,59.0,,,,0.0,1.0,4.0,2.0,0.0,4.0,25.0,,,,,,,,13.0,0.0,0.310274,0.5766600000000001,0.12207,-0.74585,0.938003,-0.17236600000000002,-0.310552,-0.021265,-0.049725,-0.030517000000000002,,,,,,,,,,,,,,,,,,,,,,,,,,,,,,,,,,,,,,,,,,,,,,,,,,,,,,,,,,,,,,,,,
14883,1645651043.2797759,27.0,0.0,4381.538574,4829.743652,4260.512695,4281.538574,4281.025879,0.0,3.0,59.0,,,,0.0,1.0,4.0,2.0,0.0,4.0,25.0,,,,,,,,,,,,,,,,,,,,1.0,0.0,0.0,,,,,,,,,,,,,,,,,,,,,,,,,,,,,,,,0.0,0.0,1.0,0.0,512.0,1.0,28.783815,20.987766,21.34222,11.718964999999999,11.245931,66.55618299999999,195.29350300000002,158.275192,493.36560099999997,714.732971,112.575272,114.857124,10.708005,32.040508,11.959973,0.035982,0.035991,0.012821,0.1002,0.116925,38.011542999999996,28.29455,22.193649,11.881108,13.633181
14884,1645651043.287591,28.0,0.0,4401.538574,4972.820313,4309.230957,4283.077147999999,4327.692383,0.0,3.0,59.0,,,,0.0,1.0,4.0,2.0,0.0,4.0,25.0,,,,,,,,14.0,0.0,0.310274,0.5766600000000001,0.12207,-0.74585,0.9511860000000001,-0.173342,-0.304204,-0.021384,-0.049733,-0.026976999999999998,,,,,,,,,,,,,,,,,,,,,,,,,,,,,,,,,,,,,,,,,,,,,,,,,,,,,,,,,,,,,,,,,
14885,1645651043.2954051,29.0,0.0,4372.820313,4586.666504,4341.025879,4282.05127,4277.94873,0.0,3.0,59.0,,,,0.0,1.0,4.0,2.0,0.0,4.0,25.0,,,,,,,,,,,,,,,,,,,,,,,,,,,,,,,,,,,,,,,,,,,,,,,,,,,,,,,,,,,,,,,,,,,,,,,,,,,,,,,,,,,,
14886,1645651043.30322,30.0,0.0,4374.871582,4305.641113000001,4350.769043,4275.384765999999,4240.512695,0.0,3.0,59.0,,,,0.0,1.0,4.0,2.0,0.0,4.0,25.0,,,,,,,,15.0,0.0,0.310274,0.5766600000000001,0.12207,-0.74585,0.9399559999999999,-0.17969000000000002,-0.316899,-0.019978,-0.04974,-0.029992,,,,,,,,,,,,,,,,,,,,,,,,,,,,,,,,,,,,,,,,,,,,,,,,,,,,,,,,,,,,,,,,,
14887,1645651043.311034,31.0,0.0,4376.410156,4655.897461,4330.256348,4281.538574,4294.871582,0.0,3.0,59.0,,,,0.0,1.0,4.0,2.0,0.0,4.0,25.0,,,,,,,,,,,,,,,,,,,,,,,,,,,,,,,,,,,,,,,,,,,,,,,,,,,,,,0.0,0.0,1.0,0.0,512.0,1.0,,,,,,,,,,,,,,,,,,,,,,,,,
14888,1645651043.3188481,32.0,0.0,4378.974121,4697.436035,4334.358886999999,4288.717772999999,4276.922852000001,0.0,3.0,59.0,,,,0.0,1.0,4.0,2.0,0.0,4.0,25.0,,,,,,,,16.0,0.0,0.309687,0.5766600000000001,0.12207,-0.7460939999999999,0.946792,-0.160647,-0.309087,-0.018713,-0.049845,-0.032608,,,,,,,,,,,,,,,,,,,,,,,,,,,,,,,,,,,,,,,,,,,,,,,,,,,,,,,,,,,,,,,,,
14889,1645651043.326663,33.0,0.0,4408.205078,4528.205078,4260.512695,4281.025879,4247.179688,0.0,3.0,59.0,,,,0.0,1.0,4.0,2.0,0.0,4.0,25.0,,,,,,,,,,,,,,,,,,,,,,,,,,,,,,,,,,,,,,,,,,,,,,,,,,,,,,,,,,,,,,,,,,,,,,,,,,,,,,,,,,,,
14890,1645651043.334477,34.0,0.0,4341.538574,4752.820313,4234.358886999999,4279.487305,4284.615234000001,0.0,3.0,59.0,,,,0.0,1.0,4.0,2.0,0.0,4.0,25.0,,,,,,,,17.0,0.0,0.309687,0.5766600000000001,0.12207,-0.7460939999999999,0.939467,-0.173342,-0.308598,-0.017623,-0.049792,-0.035012,,,,,,,,,,,,,,,,,,,,,,,,,,,,,,,,,,,,,,,,,,,,,,,,,,,,,,,,,,,,,,,,,
14891,1645651043.342292,35.0,0.0,4316.922852000001,4685.128418,4310.769043,4285.641113000001,4258.461426,0.0,3.0,59.0,,,,0.0,1.0,4.0,2.0,0.0,4.0,25.0,,,,,,,,,,,,,,,,,,,,,,,,,,,,,,,,,,,,,,,,,,,,,,,,,,,,,,0.0,0.0,1.0,0.0,512.0,1.0,,,,,,,,,,,,,,,,,,,,,,,,,
14892,1645651043.3502061,36.0,0.0,4404.615234000001,4435.897461,4304.102539,4275.897461,4235.384765999999,0.0,3.0,59.0,,,,0.0,1.0,4.0,2.0,0.0,4.0,25.0,,,,,,,,18.0,0.0,0.310141,0.576416,0.12207,-0.7460939999999999,0.9560690000000001,-0.169436,-0.306645,-0.018253,-0.049793000000000004,-0.031022000000000004,,,,,,,,,,,,,,,,,,,,,,,,,,,,,,,,,,,,,,,,,,,,,,,,,,,,,,,,,,,,,,,,,
14893,1645651043.3580198,37.0,0.0,4408.717772999999,4690.769043,4198.461426,4273.333496,4308.205078,0.0,3.0,59.0,,,,0.0,1.0,4.0,2.0,0.0,4.0,25.0,,,,,,,,,,,,,,,,,,,,,,,,,,,,,,,,,,,,,,,,,,,,,,,,,,,,,,,,,,,,,,,,,,,,,,,,,,,,,,,,,,,,
14894,1645651043.3659348,38.0,0.0,4345.128418,4713.333496,4220.512695,4288.205078,4271.282227000001,0.0,3.0,59.0,,,,0.0,1.0,4.0,2.0,0.0,4.0,25.0,,,,,,,,19.0,0.0,0.310141,0.576416,0.12207,-0.7460939999999999,0.953628,-0.169924,-0.31299299999999997,-0.018674,-0.049697000000000005,-0.033731,,,,,,,,,,,,,,,,,,,,,,,,,,,,,,,,,,,,,,,,,,,,,,,,,,,,,,,,,,,,,,,,,
14895,1645651043.373749,39.0,0.0,4400.512695,4427.179688,4227.692383,4286.153809,4268.205078,0.0,3.0,59.0,,,,0.0,1.0,4.0,2.0,0.0,4.0,25.0,,,,,,,,,,,,,,,,,,,,,,,,,,,,,,,,,,,,,,,,,,,,,,,,,,,,,,0.0,0.0,1.0,0.0,512.0,1.0,,,,,,,,,,,,,,,,,,,,,,,,,
14896,1645651043.3815632,40.0,0.0,4401.538574,4731.282227000001,4137.94873,4274.871582,4373.333496,0.0,3.0,59.0,,,,0.0,1.0,4.0,2.0,0.0,4.0,25.0,,,,,,,,20.0,0.0,0.310141,0.576416,0.12207,-0.7460939999999999,0.957534,-0.175296,-0.311528,-0.019199,-0.049707999999999995,-0.029772000000000003,,,,,,,,,,,,,,,,,,,,,,,,,,,,,,,,,,,,,,,,,,,,,,,,,,,,,,,,,,,,,,,,,
14897,1645651043.3893778,41.0,0.0,4364.615234000001,4916.410156,4169.230957,4281.025879,4351.794922,0.0,3.0,59.0,,,,0.0,1.0,4.0,2.0,0.0,4.0,25.0,,,,,,,,,,,,,,,,,,,,,,,,,,,,,,,,,,,,,,,,,,,,,,,,,,,,,,,,,,,,,,,,,,,,,,,,,,,,,,,,,,,,
14898,1645651043.397192,42.0,0.0,4423.589844,4302.563965,4288.205078,4282.563965,4228.205078,0.0,3.0,59.0,,,,0.0,1.0,4.0,2.0,0.0,4.0,25.0,,,,,,,,21.0,0.0,0.310141,0.576416,0.12207,-0.7460939999999999,0.9585110000000001,-0.175296,-0.314458,-0.019525,-0.049669,-0.03241,,,,,,,,,,,,,,,,,,,,,,,,,,,,,,,,,,,,,,,,,,,,,,,,,,,,,,,,,,,,,,,,,
14899,1645651043.4050071,43.0,0.0,4445.641113000001,4242.563965,4332.820313,4275.384765999999,4260.512695,0.0,3.0,59.0,,,,0.0,1.0,4.0,2.0,0.0,4.0,25.0,,,,,,,,,,,,,,,,,,,,1.0,0.0,0.0,,,,,,,,,,,,,,,,,,,,,,,,,,,,,,,,0.0,0.0,1.0,0.0,512.0,1.0,27.624498,22.364271,22.860155,10.735318,10.471449,56.360729000000006,165.890854,162.201157,508.918182,652.9531860000001,116.23053700000001,120.894897,12.570144,31.628996,10.098105,0.043759,0.033181999999999996,0.015425999999999999,0.107991,0.12546500000000002,37.836281,28.073195000000002,23.023405,11.609045,12.172672
14900,1645651043.412821,44.0,0.0,4318.974121,4920.0,4280.512695,4282.563965,4294.871582,0.0,3.0,59.0,,,,0.0,1.0,4.0,2.0,0.0,4.0,25.0,,,,,,,,22.0,0.0,0.310141,0.576416,0.12207,-0.7460939999999999,0.961929,-0.169924,-0.31006300000000003,-0.019868,-0.049633,-0.034783999999999995,,,,,,,,,,,,,,,,,,,,,,,,,,,,,,,,,,,,,,,,,,,,,,,,,,,,,,,,,,,,,,,,,
14901,1645651043.420636,45.0,0.0,4305.641113000001,4833.846191,4304.615234000001,4290.769043,4265.641113000001,0.0,3.0,59.0,,,,0.0,1.0,4.0,2.0,0.0,4.0,25.0,,,,,,,,,,,,,,,,,,,,,,,,,,,,,,,,,,,,,,,,,,,,,,,,,,,,,,,,,,,,,,,,,,,,,,,,,,,,,,,,,,,,
14902,1645651043.42855,46.0,0.0,4401.538574,4486.666504,4318.974121,4277.94873,4286.666504,0.0,3.0,59.0,,,,0.0,1.0,4.0,2.0,0.0,4.0,25.0,,,,,,,,23.0,0.0,0.310141,0.576416,0.12207,-0.7460939999999999,0.957534,-0.175296,-0.311528,-0.020274,-0.049651,-0.030719999999999997,,,,,,,,,,,,,,,,,,,,,,,,,,,,,,,,,,,,,,,,,,,,,,,,,,,,,,,,,,,,,,,,,
14903,1645651043.4363642,47.0,0.0,4394.358886999999,4765.641113000001,4318.461426,4273.846191,4300.512695,0.0,3.0,59.0,,,,0.0,1.0,4.0,2.0,0.0,4.0,25.0,,,,,,,,,,,,,,,,,,,,,,,,,,,,,,,,,,,,,,,,,,,,,,,,,,,,,,0.0,0.0,1.0,0.0,512.0,1.0,,,,,,,,,,,,,,,,,,,,,,,,,
14904,1645651043.4441788,48.0,0.0,4360.512695,4776.922852000001,4313.333496,4285.128418,4233.333496,0.0,3.0,59.0,,,,0.0,1.0,4.0,2.0,0.0,4.0,25.0,,,,,,,,24.0,0.0,0.310141,0.576416,0.12207,-0.7460939999999999,0.961929,-0.169924,-0.31006300000000003,-0.020541,-0.049617,-0.033263,,,,,,,,,,,,,,,,,,,,,,,,,,,,,,,,,,,,,,,,,,,,,,,,,,,,,,,,,,,,,,,,,
14905,1645651043.451993,49.0,0.0,4418.974121,4516.410156,4337.94873,4282.05127,4215.384765999999,0.0,3.0,59.0,,,,0.0,1.0,4.0,2.0,0.0,4.0,25.0,,,,,,,,,,,,,,,,,,,,,,,,,,,,,,,,,,,,,,,,,,,,,,,,,,,,,,,,,,,,,,,,,,,,,,,,,,,,,,,,,,,,
14906,1645651043.459807,50.0,0.0,4407.179688,4689.230957,4287.692383,4275.897461,4235.897461,0.0,3.0,59.0,,,,0.0,1.0,4.0,2.0,0.0,4.0,25.0,,,,,,,,25.0,0.0,0.310274,0.5766600000000001,0.12207,-0.74585,0.9560690000000001,-0.180667,-0.301274,-0.020684,-0.049636,-0.03565,,,,,,,,,,,,,,,,,,,,,,,,,,,,,,,,,,,,,,,,,,,,,,,,,,,,,,,,,,,,,,,,,
14907,1645651043.467622,51.0,0.0,4278.974121,4712.820313,4250.256348,4283.589844,4193.846191,0.0,3.0,59.0,,,,0.0,1.0,4.0,2.0,0.0,4.0,25.0,,,,,,,,,,,,,,,,,,,,,,,,,,,,,,,,,,,,,,,,,,,,,,,,,,,,,,0.0,0.0,1.0,0.0,512.0,1.0,,,,,,,,,,,,,,,,,,,,,,,,,
14908,1645651043.475436,52.0,0.0,4283.077147999999,4457.436035,4260.512695,4284.615234000001,4166.153809,0.0,3.0,59.0,,,,0.0,1.0,4.0,2.0,0.0,4.0,25.0,,,,,,,,26.0,0.0,0.310728,0.576416,0.12207,-0.74585,0.945327,-0.182132,-0.311528,-0.020911000000000003,-0.049652999999999996,-0.037749,,,,,,,,,,,,,,,,,,,,,,,,,,,,,,,,,,,,,,,,,,,,,,,,,,,,,,,,,,,,,,,,,
14909,1645651043.483351,53.0,0.0,4376.922852000001,4749.743652,4200.512695,4275.384765999999,4257.94873,0.0,3.0,59.0,,,,0.0,1.0,4.0,2.0,0.0,4.0,25.0,,,,,,,,,,,,,,,,,,,,,,,,,,,,,,,,,,,,,,,,,,,,,,,,,,,,,,,,,,,,,,,,,,,,,,,,,,,,,,,,,,,,
14910,1645651043.491165,54.0,0.0,4369.230957,4871.282227000001,4143.077147999999,4278.974121,4343.589844,0.0,3.0,59.0,,,,0.0,1.0,4.0,2.0,0.0,4.0,25.0,,,,,,,,27.0,0.0,0.310728,0.576416,0.12207,-0.74585,0.95021,-0.181643,-0.309575,-0.021115000000000002,-0.049668000000000004,-0.033486,,,,,,,,,,,,,,,,,,,,,,,,,,,,,,,,,,,,,,,,,,,,,,,,,,,,,,,,,,,,,,,,,
14911,1645651043.4989789,55.0,0.0,4364.102539,4307.692383,4207.179688,4285.641113000001,4245.641113000001,0.0,3.0,59.0,,,,0.0,1.0,4.0,2.0,0.0,4.0,25.0,,,,,,,,,,,,,,,,,,,,,,,,,,,,,,,,,,,,,,,,,,,,,,,,,,,,,,0.0,0.0,1.0,0.0,512.0,1.0,,,,,,,,,,,,,,,,,,,,,,,,,
14912,1645651043.506794,56.0,0.0,4438.461426,4337.436035,4230.256348,4281.538574,4220.0,0.0,3.0,59.0,,,,0.0,1.0,4.0,2.0,0.0,4.0,25.0,,,,,,,,28.0,0.0,0.310728,0.576416,0.12207,-0.74585,0.9365379999999999,-0.17773699999999998,-0.316411,-0.021200999999999998,-0.049682,-0.03585,,,,,,,,,,,,,,,,,,,,,,,,,,,,,,,,,,,,,,,,,,,,,,,,,,,,,,,,,,,,,,,,,
14913,1645651043.514608,57.0,0.0,4373.333496,4783.077147999999,4172.307617,4282.563965,4264.102539,0.0,3.0,59.0,,,,0.0,1.0,4.0,2.0,0.0,4.0,25.0,,,,,,,,,,,,,,,,,,,,,,,,,,,,,,,,,,,,,,,,,,,,,,,,,,,,,,,,,,,,,,,,,,,,,,,,,,,,,,,,,,,,
14914,1645651043.522423,58.0,0.0,4338.461426,4670.256348,4201.025879,4286.153809,4271.282227000001,0.0,3.0,59.0,,,,0.0,1.0,4.0,2.0,0.0,4.0,25.0,,,,,,,,29.0,0.0,0.310632,0.576416,0.122314,-0.74585,0.9594870000000001,-0.18945599999999999,-0.316899,-0.019129,-0.049597,-0.031728,,,,,,,,,,,,,,,,,,,,,,,,,,,,,,,,,,,,,,,,,,,,,,,,,,,,,,,,,,,,,,,,,
14915,1645651043.530237,59.0,0.0,4372.820313,4702.05127,4249.230957,4280.512695,4288.717772999999,0.0,3.0,59.0,,,,0.0,1.0,4.0,2.0,0.0,4.0,25.0,,,,,,,,,,,,,,,,,,,,1.0,0.0,0.0,,,,,,,,,,,,,,,,,,,,,,,,,,,,,,,,0.0,0.0,1.0,0.0,512.0,1.0,27.248291,21.659323,22.965879,10.498467999999999,10.199586,52.497471,139.916153,154.931473,506.80422999999996,612.053772,122.209511,125.53170800000001,14.440221,30.349527000000002,9.135384,0.056010000000000004,0.031396,0.019084,0.113419,0.137408,37.547962,26.525526,21.400856,11.546477000000001,11.429895
14916,1645651043.538051,60.0,0.0,4350.769043,4917.94873,4312.820313,4280.512695,4314.871582,0.0,3.0,59.0,,,,0.0,1.0,4.0,2.0,0.0,4.0,25.0,,,,,,,,30.0,0.0,0.310632,0.576416,0.122314,-0.74585,0.952651,-0.172854,-0.306645,-0.019511,-0.049618,-0.034219,,,,,,,,,,,,,,,,,,,,,,,,,,,,,,,,,,,,,,,,,,,,,,,,,,,,,,,,,,,,,,,,,
14917,1645651043.545866,61.0,0.0,4349.743652,4560.512695,4357.436035,4281.538574,4263.077147999999,0.0,3.0,59.0,,,,0.0,1.0,4.0,2.0,0.0,4.0,25.0,,,,,,,,,,,,,,,,,,,,,,,,,,,,,,,,,,,,,,,,,,,,,,,,,,,,,,,,,,,,,,,,,,,,,,,,,,,,,,,,,,,,
14918,1645651043.5536802,62.0,0.0,4395.384765999999,4410.256348,4356.922852000001,4277.436035,4273.333496,0.0,3.0,59.0,,,,0.0,1.0,4.0,2.0,0.0,4.0,25.0,,,,,,,,31.0,0.0,0.31004499999999996,0.576416,0.122314,-0.7460939999999999,0.9404440000000001,-0.187503,-0.309087,-0.017609,-0.049685,-0.036558999999999994,,,,,,,,,,,,,,,,,,,,,,,,,,,,,,,,,,,,,,,,,,,,,,,,,,,,,,,,,,,,,,,,,
14919,1645651043.561595,63.0,0.0,4343.589844,4743.589844,4334.358886999999,4281.025879,4296.410156,0.0,3.0,59.0,,,,0.0,1.0,0.0,4.0,0.0,4.0,8.333333,,,,,,,,,,,,,,,,,,,,,,,,,,,,,,,,,,,,,,,,,,,,,,,,,,,,,,0.0,0.0,1.0,0.0,512.0,1.0,,,,,,,,,,,,,,,,,,,,,,,,,
14920,1645651043.569409,64.0,0.0,4307.179688,4516.410156,4341.538574,4287.179688,4192.820313,450.0,3.0,59.0,,,,0.0,1.0,0.0,4.0,0.0,4.0,8.333333,,,,,,,,32.0,0.0,0.31004499999999996,0.576416,0.122314,-0.7460939999999999,0.939467,-0.179202,-0.31250500000000003,-0.018143,-0.0496,-0.038616000000000004,,,,,,,,,,,,,,,,,,,,,,,,,,,,,,,,,,,,,,,,,,,,,,,,,,,,,,,,,,,,,,,,,
14921,1645651043.577223,65.0,0.0,4387.179688,4326.153809,4254.358886999999,4282.05127,4191.282227000001,450.0,3.0,59.0,,,,0.0,1.0,0.0,4.0,0.0,4.0,8.333333,,,,,,,,,,,,,,,,,,,,,,,,,,,,,,,,,,,,,,,,,,,,,,,,,,,,,,,,,,,,,,,,,,,,,,,,,,,,,,,,,,,,
14922,1645651043.5850382,66.0,0.0,4359.487305,4908.205078,4231.794922,4278.461426,4298.461426,60.0,3.0,59.0,,,,0.0,1.0,0.0,4.0,0.0,4.0,8.333333,,,,,,,,33.0,0.0,0.31004499999999996,0.576416,0.122314,-0.7460939999999999,0.9643700000000001,-0.17773699999999998,-0.318364,-0.018673,-0.04962,-0.034218,,,,,,,,,,,,,,,,,,,,,,,,,,,,,,,,,,,,,,,,,,,,,,,,,,,,,,,,,,,,,,,,,
14923,1645651043.5928519,67.0,0.0,4291.282227000001,4876.922852000001,4337.436035,4283.077147999999,4270.256348,450.0,3.0,59.0,,,,0.0,1.0,0.0,4.0,0.0,4.0,8.333333,,,,,,,,,,,,,,,,,,,,,,,,,,,,,,,,,,,,,,,,,,,,,,,,,,,,,,0.0,0.0,1.0,0.0,512.0,1.0,,,,,,,,,,,,,,,,,,,,,,,,,
14924,1645651043.600667,68.0,0.0,4339.487305,4102.563965,4357.436035,4280.0,4208.205078,0.0,3.0,59.0,,,,0.0,1.0,0.0,4.0,0.0,4.0,8.333333,,,,,,,,34.0,0.0,0.310178,0.5766600000000001,0.122314,-0.74585,0.9511860000000001,-0.172854,-0.304692,-0.019149,-0.049638999999999996,-0.036509,,,,,,,,,,,,,,,,,,,,,,,,,,,,,,,,,,,,,,,,,,,,,,,,,,,,,,,,,,,,,,,,,
14925,1645651043.6084812,69.0,0.0,4382.05127,4321.025879,4211.794922,4275.897461,4279.487305,450.0,3.0,59.0,,,,0.0,1.0,0.0,4.0,0.0,4.0,8.333333,,,,,,,,,,,,,,,,,,,,,,,,,,,,,,,,,,,,,,,,,,,,,,,,,,,,,,,,,,,,,,,,,,,,,,,,,,,,,,,,,,,,
14926,1645651043.6162949,70.0,0.0,4329.230957,5035.897461,4147.692383,4283.077147999999,4318.974121,16093.0,3.0,59.0,,,,0.0,1.0,0.0,4.0,0.0,4.0,8.333333,,,,,,,,35.0,0.0,0.310632,0.576416,0.122314,-0.74585,0.953628,-0.186526,-0.308598,-0.019627000000000002,-0.049558,-0.032320999999999996,,,,,,,,,,,,,,,,,,,,,,,,,,,,,,,,,,,,,,,,,,,,,,,,,,,,,,,,,,,,,,,,,
14927,1645651043.62411,71.0,0.0,4350.769043,4783.589844,4162.05127,4287.692383,4302.05127,450.0,3.0,59.0,,,,0.0,1.0,0.0,4.0,0.0,4.0,8.333333,,,,,,,,,,,,,,,,,,,,,,,,,,,,,,,,,,,,,,,,,,,,,,,,,,,,,,0.0,0.0,1.0,0.0,512.0,1.0,,,,,,,,,,,,,,,,,,,,,,,,,
14928,1645651043.632024,72.0,0.0,4438.974121,4524.615234000001,4169.230957,4279.487305,4312.307617,450.0,3.0,59.0,,,,0.0,1.0,0.0,4.0,0.0,2.0,8.333333,,,,,,,,36.0,0.0,0.310178,0.5766600000000001,0.122314,-0.74585,0.952651,-0.173342,-0.313481,-0.020057,-0.049582,-0.03485,,,,,,,,,,,,,,,,,,,,,,,,,,,,,,,,,,,,,,,,,,,,,,,,,,,,,,,,,,,,,,,,,
14929,1645651043.6398392,73.0,0.0,4430.256348,4893.333496,4212.307617,4276.922852000001,4306.666504,0.0,3.0,59.0,,,,0.0,1.0,0.0,4.0,0.0,2.0,8.333333,,,,,,,,,,,,,,,,,,,,,,,,,,,,,,,,,,,,,,,,,,,,,,,,,,,,,,,,,,,,,,,,,,,,,,,,,,,,,,,,,,,,
14930,1645651043.6476529,74.0,0.0,4323.077147999999,4628.205078,4274.358886999999,4285.128418,4204.615234000001,450.0,3.0,59.0,,,,0.0,1.0,0.0,4.0,0.0,2.0,8.333333,,,,,,,,37.0,0.0,0.310178,0.5766600000000001,0.122314,-0.74585,0.9521629999999999,-0.18701500000000001,-0.32227100000000003,-0.020297,-0.049457999999999995,-0.030682,,,,,,,,,,,,,,,,,,,,,,,,,,,,,,,,,,,,,,,,,,,,,,,,,,,,,,,,,,,,,,,,,
14931,1645651043.655467,75.0,0.0,4321.025879,4240.0,4320.512695,4284.102539,4202.563965,205.0,3.0,59.0,,,,0.0,1.0,0.0,4.0,0.0,2.0,8.333333,0.9375,0.0,1.0,0.0,0.0,0.0,0.0,,,,,,,,,,,,,1.0,0.0,0.0,,,,,,,,,,,,,,,,,,,,,,,,,,,,,,,,0.0,0.0,1.0,0.0,512.0,1.0,27.374794,19.274527,22.170656,11.249426,10.417958,46.730343,113.500275,143.760956,488.60705599999994,594.011841,130.029236,128.055222,16.060871,28.637128999999998,9.036089,0.068971,0.031996,0.02329,0.115915,0.152335,37.172470000000004,24.183308,18.152615,11.821197999999999,11.493356
14932,1645651043.663282,76.0,0.0,4337.94873,4829.743652,4282.563965,4281.025879,4290.769043,450.0,3.0,59.0,,,,0.0,1.0,0.0,4.0,0.0,2.0,8.333333,,,,,,,,38.0,0.0,0.310178,0.5766600000000001,0.122314,-0.74585,0.94435,-0.163088,-0.320806,-0.019,-0.049591,-0.033375,,,,,,,,,,,,,,,,,,,,,,,,,,,,,,,,,,,,,,,,,,,,,,,,,,,,,,,,,,,,,,,,,
14933,1645651043.671096,77.0,0.0,4317.436035,5073.846191,4278.974121,4286.153809,4314.358886999999,450.0,3.0,59.0,,,,0.0,1.0,0.0,4.0,0.0,2.0,8.333333,,,,,,,,,,,,,,,,,,,,,,,,,,,,,,,,,,,,,,,,,,,,,,,,,,,,,,,,,,,,,,,,,,,,,,,,,,,,,,,,,,,,
14934,1645651043.678911,78.0,0.0,4321.025879,4471.794922,4314.871582,4281.025879,4239.487305,450.0,3.0,59.0,,,,0.0,1.0,0.0,4.0,0.0,2.0,8.333333,,,,,,,,39.0,0.0,0.310178,0.5766600000000001,0.122314,-0.74585,0.95314,-0.178714,-0.299809,-0.019444,-0.049612,-0.029501,,,,,,,,,,,,,,,,,,,,,,,,,,,,,,,,,,,,,,,,,,,,,,,,,,,,,,,,,,,,,,,,,
14935,1645651043.686725,79.0,0.0,4378.974121,4494.871582,4350.769043,4273.333496,4213.846191,205.0,3.0,59.0,,,,0.0,1.0,0.0,4.0,0.0,2.0,8.333333,,,,,,,,,,,,,,,,,,,,,,,,,,,,,,,,,,,,,,,,,,,,,,,,,,,,,,0.0,0.0,1.0,0.0,512.0,1.0,,,,,,,,,,,,,,,,,,,,,,,,,
14936,1645651043.694639,80.0,0.0,4362.05127,4991.282227000001,4283.589844,4278.461426,4227.692383,450.0,3.0,59.0,,,,0.0,1.0,0.0,4.0,0.0,2.0,8.333333,,,,,,,,40.0,0.0,0.310178,0.5766600000000001,0.122314,-0.74585,0.9550930000000001,-0.17236600000000002,-0.304692,-0.019892,-0.049582999999999995,-0.032313,,,,,,,,,,,,,,,,,,,,,,,,,,,,,,,,,,,,,,,,,,,,,,,,,,,,,,,,,,,,,,,,,
14937,1645651043.7024539,81.0,0.0,4272.307617,4738.974121,4276.922852000001,4285.641113000001,4192.307617,450.0,3.0,59.0,,,,0.0,1.0,0.0,4.0,0.0,2.0,8.333333,,,,,,,,,,,,,,,,,,,,,,,,,,,,,,,,,,,,,,,,,,,,,,,,,,,,,,,,,,,,,,,,,,,,,,,,,,,,,,,,,,,,
14938,1645651043.710268,82.0,0.0,4276.410156,4461.538574,4287.692383,4280.512695,4173.846191,450.0,3.0,59.0,,,,0.0,1.0,0.0,4.0,0.0,2.0,8.333333,,,,,,,,41.0,0.0,0.310178,0.5766600000000001,0.122314,-0.74585,0.957534,-0.179202,-0.309087,-0.020344,-0.049556,-0.034745,,,,,,,,,,,,,,,,,,,,,,,,,,,,,,,,,,,,,,,,,,,,,,,,,,,,,,,,,,,,,,,,,
14939,1645651043.718082,83.0,0.0,4317.436035,4918.974121,4212.307617,4274.871582,4233.846191,205.0,3.0,59.0,,,,0.0,1.0,0.0,4.0,0.0,2.0,8.333333,,,,,,,,,,,,,,,,,,,,,,,,,,,,,,,,,,,,,,,,,,,,,,,,,,,,,,0.0,0.0,1.0,0.0,512.0,1.0,,,,,,,,,,,,,,,,,,,,,,,,,
14940,1645651043.725897,84.0,0.0,4309.230957,4937.436035,4192.307617,4281.538574,4264.102539,450.0,3.0,59.0,,,,0.0,1.0,0.0,4.0,0.0,2.0,8.333333,,,,,,,,42.0,0.0,0.310178,0.5766600000000001,0.122314,-0.74585,0.960464,-0.173342,-0.309087,-0.018945,-0.049483,-0.037032999999999996,,,,,,,,,,,,,,,,,,,,,,,,,,,,,,,,,,,,,,,,,,,,,,,,,,,,,,,,,,,,,,,,,
14941,1645651043.733711,85.0,0.0,4317.436035,4261.025879,4249.743652,4283.077147999999,4174.871582,450.0,3.0,59.0,,,,0.0,1.0,0.0,4.0,0.0,2.0,8.333333,,,,,,,,,,,,,,,,,,,,,,,,,,,,,,,,,,,,,,,,,,,,,,,,,,,,,,,,,,,,,,,,,,,,,,,,,,,,,,,,,,,,
14942,1645651043.741526,86.0,0.0,4401.025879,4233.846191,4175.897461,4273.846191,4184.615234000001,450.0,3.0,59.0,,,,0.0,1.0,0.0,4.0,0.0,2.0,8.333333,,,,,,,,43.0,0.0,0.310178,0.5766600000000001,0.122314,-0.74585,0.954116,-0.169924,-0.295903,-0.017099,-0.049564,-0.038896,,,,,,,,,,,,,,,,,,,,,,,,,,,,,,,,,,,,,,,,,,,,,,,,,,,,,,,,,,,,,,,,,
14943,1645651043.74934,87.0,0.0,4367.179688,4870.769043,4093.3332520000004,4275.897461,4297.436035,205.0,3.0,59.0,,,,0.0,1.0,0.0,4.0,0.0,2.0,8.333333,,,,,,,,,,,,,,,,,,,,,,,,,,,,,,,,,,,,,,,,,,,,,,,,,,,,,,0.0,0.0,1.0,0.0,512.0,1.0,,,,,,,,,,,,,,,,,,,,,,,,,
14944,1645651043.7571552,88.0,0.0,4321.538574,4877.436035,4221.025879,4286.153809,4323.077147999999,450.0,3.0,59.0,,,,0.0,1.0,0.0,4.0,0.0,2.0,8.333333,,,,,,,,44.0,0.0,0.310178,0.5766600000000001,0.122314,-0.74585,0.9404440000000001,-0.17383099999999999,-0.318364,-0.017733000000000002,-0.049637,-0.04067,,,,,,,,,,,,,,,,,,,,,,,,,,,,,,,,,,,,,,,,,,,,,,,,,,,,,,,,,,,,,,,,,
14945,1645651043.765069,89.0,0.0,4403.589844,4341.025879,4333.846191,4277.94873,4248.205078,450.0,3.0,59.0,,,,0.0,1.0,0.0,4.0,0.0,2.0,8.333333,,,,,,,,,,,,,,,,,,,,,,,,,,,,,,,,,,,,,,,,,,,,,,,,,,,,,,,,,,,,,,,,,,,,,,,,,,,,,,,,,,,,
14946,1645651043.772883,90.0,0.0,4431.282227000001,4466.666504,4271.794922,4270.256348,4298.974121,450.0,3.0,59.0,,,,0.0,1.0,0.0,4.0,0.0,2.0,8.333333,,,,,,,,45.0,0.0,0.310082,0.5766600000000001,0.12255899999999999,-0.74585,0.94435,-0.174807,-0.31543499999999997,-0.018401,-0.049752,-0.042316,,,,,,,,,,,,,,,,,,,,,,,,,,,,,,,,,,,,,,,,,,,,,,,,,,,,,,,,,,,,,,,,,
14947,1645651043.780798,91.0,0.0,4309.230957,4992.307617,4232.820313,4283.589844,4341.025879,205.0,3.0,59.0,,,,0.0,1.0,0.0,4.0,0.0,2.0,8.333333,,,,,,,,,,,,,,,,,,,,1.0,0.0,0.0,,,,,,,,,,,,,,,,,,,,,,,,,,,,,,,,0.0,0.0,1.0,0.0,512.0,1.0,27.327872999999997,16.136274,21.256323000000002,12.891539,10.986003,38.438789,88.311401,136.093704,459.637421,593.729736,138.962799,129.124512,17.071285,26.848396,9.573444,0.078328,0.035039999999999995,0.027333,0.116704,0.16911199999999998,36.591557,21.837536,14.601332000000001,12.378774,12.172654
14948,1645651043.788612,92.0,0.0,4332.820313,4746.666504,4283.077147999999,4290.256348,4260.512695,450.0,3.0,59.0,,,,0.0,1.0,0.0,4.0,0.0,2.0,8.333333,,,,,,,,46.0,0.0,0.310178,0.5766600000000001,0.122314,-0.74585,0.945815,-0.176272,-0.31250500000000003,-0.018807,-0.049757,-0.037499,,,,,,,,,,,,,,,,,,,,,,,,,,,,,,,,,,,,,,,,,,,,,,,,,,,,,,,,,,,,,,,,,
14949,1645651043.796426,93.0,0.0,4448.717772999999,4351.282227000001,4269.743652,4280.0,4235.897461,450.0,3.0,59.0,,,,0.0,1.0,0.0,4.0,0.0,2.0,8.333333,,,,,,,,,,,,,,,,,,,,,,,,,,,,,,,,,,,,,,,,,,,,,,,,,,,,,,,,,,,,,,,,,,,,,,,,,,,,,,,,,,,,
14950,1645651043.804241,94.0,0.0,4404.102539,4760.0,4310.256348,4275.384765999999,4288.717772999999,450.0,3.0,59.0,,,,0.0,1.0,0.0,4.0,0.0,2.0,8.333333,,,,,,,,47.0,0.0,0.310178,0.5766600000000001,0.122314,-0.74585,0.953628,-0.178714,-0.307134,-0.019172,-0.04986,-0.039462,,,,,,,,,,,,,,,,,,,,,,,,,,,,,,,,,,,,,,,,,,,,,,,,,,,,,,,,,,,,,,,,,
14951,1645651043.812055,95.0,0.0,4309.230957,4861.538574,4361.025879,4282.563965,4245.641113000001,205.0,3.0,59.0,,,,0.0,1.0,0.0,4.0,0.0,2.0,8.333333,,,,,,,,,,,,,,,,,,,,,,,,,,,,,,,,,,,,,,,,,,,,,,,,,,,,,,0.0,0.0,1.0,0.0,512.0,1.0,,,,,,,,,,,,,,,,,,,,,,,,,
14952,1645651043.81987,96.0,0.0,4330.256348,4337.94873,4371.282227000001,4284.615234000001,4198.461426,450.0,3.0,59.0,,,,0.0,1.0,0.0,4.0,0.0,2.0,8.333333,,,,,,,,48.0,0.0,0.310274,0.5766600000000001,0.12207,-0.74585,0.9433739999999999,-0.176761,-0.307134,-0.01955,-0.049805,-0.041229,,,,,,,,,,,,,,,,,,,,,,,,,,,,,,,,,,,,,,,,,,,,,,,,,,,,,,,,,,,,,,,,,
14953,1645651043.827684,97.0,0.0,4353.333496,4569.743652,4296.410156,4277.436035,4253.333496,450.0,3.0,59.0,,,,0.0,1.0,0.0,4.0,0.0,2.0,8.333333,,,,,,,,,,,,,,,,,,,,,,,,,,,,,,,,,,,,,,,,,,,,,,,,,,,,,,,,,,,,,,,,,,,,,,,,,,,,,,,,,,,,
14954,1645651043.835498,98.0,0.0,4326.153809,5127.179688,4247.179688,4278.974121,4311.794922,450.0,3.0,59.0,,,,0.0,1.0,0.0,4.0,0.0,2.0,8.333333,,,,,,,,49.0,0.0,0.310274,0.5766600000000001,0.12207,-0.74585,0.9521629999999999,-0.166018,-0.321782,-0.019939,-0.049805,-0.036618,,,,,,,,,,,,,,,,,,,,,,,,,,,,,,,,,,,,,,,,,,,,,,,,,,,,,,,,,,,,,,,,,
14955,1645651043.843413,99.0,0.0,4349.743652,4751.282227000001,4239.487305,4285.641113000001,4291.282227000001,205.0,3.0,59.0,,,,0.0,1.0,0.0,4.0,0.0,2.0,8.333333,,,,,,,,,,,,,,,,,,,,,,,,,,,,,,,,,,,,,,,,,,,,,,,,,,,,,,0.0,0.0,1.0,0.0,512.0,1.0,,,,,,,,,,,,,,,,,,,,,,,,,
14956,1645651043.851227,100.0,0.0,4412.307617,4265.641113000001,4276.922852000001,4278.974121,4235.384765999999,450.0,3.0,59.0,,,,0.0,1.0,0.0,4.0,0.0,2.0,8.333333,,,,,,,,50.0,0.0,0.310274,0.5766600000000001,0.12207,-0.74585,0.96144,-0.16552999999999998,-0.31201599999999996,-0.018677000000000003,-0.049757,-0.032418999999999996,,,,,,,,,,,,,,,,,,,,,,,,,,,,,,,,,,,,,,,,,,,,,,,,,,,,,,,,,,,,,,,,,
14957,1645651043.859042,101.0,0.0,4413.333496,4588.205078,4241.538574,4273.846191,4231.794922,450.0,3.0,59.0,,,,0.0,1.0,0.0,4.0,0.0,2.0,8.333333,,,,,,,,,,,,,,,,,,,,,,,,,,,,,,,,,,,,,,,,,,,,,,,,,,,,,,,,,,,,,,,,,,,,,,,,,,,,,,,,,,,,
14958,1645651043.866856,102.0,0.0,4309.230957,4838.974121,4186.666504,4284.102539,4258.974121,450.0,3.0,59.0,,,,0.0,1.0,0.0,4.0,0.0,2.0,8.333333,,,,,,,,51.0,0.0,0.310274,0.5766600000000001,0.12207,-0.74585,0.9433739999999999,-0.176761,-0.307134,-0.019056,-0.049713,-0.028689,,,,,,,,,,,,,,,,,,,,,,,,,,,,,,,,,,,,,,,,,,,,,,,,,,,,,,,,,,,,,,,,,
14959,1645651043.87467,103.0,0.0,4303.589844,4577.436035,4221.538574,4287.179688,4265.128418,205.0,3.0,59.0,,,,0.0,1.0,0.0,4.0,0.0,2.0,8.333333,,,,,,,,,,,,,,,,,,,,,,,,,,,,,,,,,,,,,,,,,,,,,,,,,,,,,,10.0,0.0,1.0,0.0,512.0,1.0,,,,,,,,,,,,,,,,,,,,,,,,,
14960,1645651043.882485,104.0,0.0,4397.436035,4632.820313,4204.102539,4275.897461,4273.846191,450.0,3.0,59.0,,,,0.0,1.0,0.0,4.0,0.0,2.0,8.333333,,,,,,,,52.0,0.0,0.310274,0.5766600000000001,0.12207,-0.74585,0.96144,-0.16552999999999998,-0.31201599999999996,-0.017883,-0.049673,-0.025283,,,,,,,,,,,,,,,,,,,,,,,,,,,,,,,,,,,,,,,,,,,,,,,,,,,,,,,,,,,,,,,,,
14961,1645651043.890299,105.0,0.0,4418.974121,4861.538574,4159.487305,4276.410156,4341.538574,450.0,3.0,59.0,,,,0.0,1.0,0.0,4.0,0.0,2.0,8.333333,,,,,,,,,,,,,,,,,,,,,,,,,,,,,,,,,,,,,,,,,,,,,,,,,,,,,,,,,,,,,,,,,,,,,,,,,,,,,,,,,,,,
14962,1645651043.8982131,106.0,0.0,4358.974121,4487.692383,4217.94873,4286.666504,4265.641113000001,450.0,3.0,59.0,,,,0.0,1.0,0.0,4.0,0.0,2.0,8.333333,,,,,,,,53.0,0.0,0.309724,0.576904,0.122314,-0.74585,0.9585110000000001,-0.161624,-0.309575,-0.016876,-0.049589,-0.028467000000000003,,,,,,,,,,,,,,,,,,,,,,,,,,,,,,,,,,,,,,,,,,,,,,,,,,,,,,,,,,,,,,,,,
14963,1645651043.906028,107.0,0.0,4401.025879,4189.743652,4290.256348,4286.153809,4195.384765999999,205.0,3.0,59.0,,,,0.0,1.0,0.0,4.0,0.0,2.0,8.333333,,,,,,,,,,,,,,,,,,,,1.0,0.0,0.0,,,,,,,,,,,,,,,,,,,,,,,,,,,,,,,,10.0,0.0,1.0,0.0,512.0,1.0,26.413109000000002,13.22595,20.824202,15.004926000000001,11.754745,30.941378000000004,69.045486,135.040726,425.82928499999997,605.686035,147.430756,130.008591,17.093933,25.331910999999998,10.469882,0.08005,0.039027,0.030992000000000002,0.117872,0.18612,35.90242,20.352638,11.972363,13.097691000000001,13.175147
14964,1645651043.913842,108.0,0.0,4403.589844,4703.077147999999,4255.897461,4278.461426,4277.94873,450.0,3.0,59.0,,,,0.0,1.0,0.0,4.0,0.0,2.0,8.333333,,,,,,,,54.0,0.0,0.309724,0.576904,0.122314,-0.74585,0.95314,-0.178714,-0.29688000000000003,-0.017581,-0.049707999999999995,-0.031285,,,,,,,,,,,,,,,,,,,,,,,,,,,,,,,,,,,,,,,,,,,,,,,,,,,,,,,,,,,,,,,,,
14965,1645651043.921657,109.0,0.0,4327.179688,4949.743652,4302.05127,4281.025879,4326.666504,450.0,3.0,59.0,,,,0.0,1.0,0.0,4.0,0.0,2.0,8.333333,,,,,,,,,,,,,,,,,,,,,,,,,,,,,,,,,,,,,,,,,,,,,,,,,,,,,,,,,,,,,,,,,,,,,,,,,,,,,,,,,,,,
14966,1645651043.929471,110.0,0.0,4326.153809,4383.077147999999,4388.717772999999,4283.589844,4231.794922,450.0,3.0,59.0,,,,0.0,1.0,0.0,4.0,0.0,2.0,8.333333,,,,,,,,55.0,0.0,0.310178,0.5766600000000001,0.122314,-0.74585,0.947768,-0.167971,-0.31299299999999997,-0.015871,-0.049571,-0.033918000000000004,,,,,,,,,,,,,,,,,,,,,,,,,,,,,,,,,,,,,,,,,,,,,,,,,,,,,,,,,,,,,,,,,
14967,1645651043.937285,111.0,0.0,4366.666504,4311.794922,4373.846191,4278.461426,4221.025879,205.0,3.0,59.0,,,,0.0,1.0,0.0,4.0,0.0,2.0,8.333333,,,,,,,,,,,,,,,,,,,,,,,,,,,,,,,,,,,,,,,,,,,,,,,,,,,,,,10.0,0.0,1.0,0.0,512.0,1.0,,,,,,,,,,,,,,,,,,,,,,,,,
14968,1645651043.9451,112.0,0.0,4324.102539,4825.641113000001,4301.538574,4279.487305,4277.94873,450.0,3.0,59.0,,,,0.0,1.0,0.0,4.0,0.0,2.0,8.333333,,,,,,,,56.0,0.0,0.310178,0.5766600000000001,0.122314,-0.74585,0.945327,-0.178225,-0.307134,-0.016482,-0.049448,-0.029891,,,,,,,,,,,,,,,,,,,,,,,,,,,,,,,,,,,,,,,,,,,,,,,,,,,,,,,,,,,,,,,,,
14969,1645651043.952914,113.0,0.0,4307.692383,4645.641113000001,4313.333496,4287.692383,4222.563965,450.0,3.0,59.0,,,,0.0,1.0,0.0,4.0,0.0,2.0,8.333333,,,,,,,,,,,,,,,,,,,,,,,,,,,,,,,,,,,,,,,,,,,,,,,,,,,,,,,,,,,,,,,,,,,,,,,,,,,,,,,,,,,,
14970,1645651043.960729,114.0,0.0,4397.94873,4271.794922,4255.384765999999,4284.615234000001,4212.307617,450.0,3.0,59.0,,,,0.0,1.0,0.0,4.0,0.0,2.0,8.333333,,,,,,,,57.0,0.0,0.310178,0.5766600000000001,0.122314,-0.74585,0.952651,-0.16211199999999998,-0.317388,-0.017177,-0.049435,-0.032615,,,,,,,,,,,,,,,,,,,,,,,,,,,,,,,,,,,,,,,,,,,,,,,,,,,,,,,,,,,,,,,,,
14971,1645651043.968543,115.0,0.0,4385.128418,4680.512695,4203.589844,4276.410156,4290.256348,205.0,3.0,59.0,,,,0.0,1.0,0.0,4.0,0.0,2.0,8.333333,,,,,,,,,,,,,,,,,,,,,,,,,,,,,,,,,,,,,,,,,,,,,,,,,,,,,,10.0,0.0,1.0,0.0,512.0,1.0,,,,,,,,,,,,,,,,,,,,,,,,,
14972,1645651043.976457,116.0,0.0,4311.794922,4870.769043,4269.743652,4279.487305,4281.025879,450.0,3.0,59.0,,,,0.0,1.0,0.0,4.0,0.0,2.0,8.333333,,,,,,,,58.0,0.0,0.310178,0.5766600000000001,0.122314,-0.74585,0.949722,-0.177249,-0.31104,-0.015557,-0.049326,-0.035018,,,,,,,,,,,,,,,,,,,,,,,,,,,,,,,,,,,,,,,,,,,,,,,,,,,,,,,,,,,,,,,,,
14973,1645651043.984272,117.0,0.0,4339.487305,4322.05127,4332.820313,4286.153809,4221.538574,450.0,3.0,59.0,,,,0.0,1.0,0.0,4.0,0.0,2.0,8.333333,,,,,,,,,,,,,,,,,,,,,,,,,,,,,,,,,,,,,,,,,,,,,,,,,,,,,,,,,,,,,,,,,,,,,,,,,,,,,,,,,,,,
14974,1645651043.992086,118.0,0.0,4431.794922,4075.897461,4247.179688,4281.538574,4293.846191,450.0,3.0,59.0,,,,0.0,1.0,0.0,4.0,0.0,2.0,8.333333,,,,,,,,59.0,0.0,0.310178,0.5766600000000001,0.122314,-0.74585,0.9550930000000001,-0.177249,-0.303227,-0.016296,-0.049374,-0.030833,,,,,,,,,,,,,,,,,,,,,,,,,,,,,,,,,,,,,,,,,,,,,,,,,,,,,,,,,,,,,,,,,
14975,1645651043.999901,119.0,0.0,4459.487305,4321.538574,4190.256348,4273.846191,4358.974121,205.0,3.0,59.0,,,,0.0,1.0,0.0,4.0,0.0,2.0,8.333333,,,,,,,,,,,,,,,,,,,,,,,,,,,,,,,,,,,,,,,,,,,,,,,,,,,,,,10.0,0.0,1.0,0.0,512.0,1.0,,,,,,,,,,,,,,,,,,,,,,,,,
14976,1645651044.007715,120.0,0.0,4443.077147999999,4702.05127,4220.512695,4276.410156,4310.769043,450.0,3.0,59.0,,,,0.0,1.0,0.0,4.0,0.0,2.0,8.333333,,,,,,,,60.0,0.0,0.310178,0.5766600000000001,0.122314,-0.74585,0.95314,-0.176272,-0.302739,-0.016962,-0.049417,-0.027163,,,,,,,,,,,,,,,,,,,,,,,,,,,,,,,,,,,,,,,,,,,,,,,,,,,,,,,,,,,,,,,,,
14977,1645651044.015529,121.0,0.0,4406.666504,4978.461426,4194.358886999999,4278.461426,4280.0,450.0,3.0,59.0,,,,0.0,1.0,0.0,4.0,0.0,2.0,8.333333,,,,,,,,,,,,,,,,,,,,,,,,,,,,,,,,,,,,,,,,,,,,,,,,,,,,,,,,,,,,,,,,,,,,,,,,,,,,,,,,,,,,
14978,1645651044.023344,122.0,0.0,4391.282227000001,4851.282227000001,4154.871582,4275.897461,4359.487305,450.0,3.0,59.0,,,,0.0,1.0,0.0,4.0,0.0,2.0,8.333333,,,,,,,,61.0,0.0,0.310082,0.5766600000000001,0.12255899999999999,-0.74585,0.941909,-0.165042,-0.316411,-0.015949,-0.049456,-0.030160000000000003,,,,,,,,,,,,,,,,,,,,,,,,,,,,,,,,,,,,,,,,,,,,,,,,,,,,,,,,,,,,,,,,,
14979,1645651044.031158,123.0,0.0,4352.820313,4620.0,4174.358886999999,4280.0,4341.025879,205.0,3.0,59.0,,,,0.0,1.0,0.0,4.0,0.0,2.0,8.333333,,,,,,,,,,,,,,,,,,,,1.0,0.0,0.0,,,,,,,,,,,,,,,,,,,,,,,,,,,,,,,,0.0,0.0,1.0,0.0,512.0,1.0,24.402718,11.156507000000001,20.878239,17.054493,12.678075,27.822296,58.593357,140.184631,393.228424,627.98584,154.060898,132.453827,15.922901000000001,24.40922,11.456486,0.073258,0.041472,0.034123,0.12104300000000001,0.202229,35.432926,19.914906,10.855274,13.870469,14.242701
14980,1645651044.039073,124.0,0.0,4352.307617,4627.692383,4264.615234000001,4286.666504,4274.358886999999,450.0,3.0,59.0,,,,0.0,4.0,0.0,4.0,0.0,2.0,16.666666,,,,,,,,62.0,0.0,0.310082,0.5766600000000001,0.12255899999999999,-0.74585,0.941909,-0.18262,-0.301274,-0.016649,-0.049539,-0.032906,,,,,,,,,,,,,,,,,,,,,,,,,,,,,,,,,,,,,,,,,,,,,,,,,,,,,,,,,,,,,,,,,
14981,1645651044.046887,125.0,0.0,4392.307617,4794.871582,4289.743652,4280.0,4295.897461,450.0,3.0,59.0,,,,0.0,4.0,0.0,4.0,0.0,2.0,16.666666,,,,,,,,,,,,,,,,,,,,,,,,,,,,,,,,,,,,,,,,,,,,,,,,,,,,,,,,,,,,,,,,,,,,,,,,,,,,,,,,,,,,
14982,1645651044.054701,126.0,0.0,4382.05127,4954.871582,4297.94873,4275.384765999999,4326.153809,450.0,3.0,59.0,,,,0.0,4.0,0.0,4.0,0.0,2.0,16.666666,,,,,,,,63.0,0.0,0.310082,0.5766600000000001,0.12255899999999999,-0.74585,0.951675,-0.171878,-0.306157,-0.017328,-0.049468,-0.035279000000000005,,,,,,,,,,,,,,,,,,,,,,,,,,,,,,,,,,,,,,,,,,,,,,,,,,,,,,,,,,,,,,,,,
14983,1645651044.062516,127.0,0.0,4301.538574,4730.769043,4351.282227000001,4283.077147999999,4242.05127,235.0,3.0,59.0,,,,0.0,4.0,0.0,4.0,0.0,2.0,16.666666,,,,,,,,,,,,,,,,,,,,,,,,,,,,,,,,,,,,,,,,,,,,,,,,,,,,,,0.0,0.0,1.0,0.0,512.0,1.0,,,,,,,,,,,,,,,,,,,,,,,,,
14984,1645651044.0703301,0.0,0.0,4331.282227000001,4217.436035,4400.0,4285.128418,4190.256348,450.0,3.0,59.0,,,,0.0,4.0,0.0,4.0,0.0,2.0,16.666666,,,,,,,,0.0,0.0,0.310082,0.5766600000000001,0.12255899999999999,-0.74585,0.941909,-0.171389,-0.304204,-0.01789,-0.049404,-0.037513,,,,,,,,,,,,,,,,,,,,,,,,,,,,,,,,,,,,,,,,,,,,,,,,,,,,,,,,,,,,,,,,,
14985,1645651044.078145,1.0,0.0,4401.538574,4326.153809,4282.05127,4277.436035,4267.692383,450.0,3.0,59.0,,,,0.0,4.0,0.0,4.0,0.0,2.0,16.666666,,,,,,,,,,,,,,,,,,,,,,,,,,,,,,,,,,,,,,,,,,,,,,,,,,,,,,,,,,,,,,,,,,,,,,,,,,,,,,,,,,,,
14986,1645651044.085959,2.0,0.0,4336.410156,4980.0,4220.0,4277.94873,4310.769043,16125.0,3.0,59.0,,,,0.0,4.0,0.0,4.0,0.0,2.0,16.666666,,,,,,,,1.0,0.0,0.310082,0.5766600000000001,0.12255899999999999,-0.74585,0.944839,-0.16894800000000001,-0.3252,-0.018396,-0.049493,-0.039524000000000004,,,,,,,,,,,,,,,,,,,,,,,,,,,,,,,,,,,,,,,,,,,,,,,,,,,,,,,,,,,,,,,,,
14987,1645651044.0937731,3.0,0.0,4306.153809,4798.974121,4301.538574,4284.102539,4247.692383,450.0,3.0,59.0,,,,0.0,4.0,0.0,4.0,0.0,2.0,16.666666,,,,,,,,,,,,,,,,,,,,,,,,,,,,,,,,,,,,,,,,,,,,,,,,,,,,,,0.0,0.0,1.0,0.0,512.0,1.0,,,,,,,,,,,,,,,,,,,,,,,,,
14988,1645651044.1016881,4.0,0.0,4363.077147999999,4132.307617,4332.820313,4281.538574,4207.692383,16180.0,3.0,59.0,,,,0.0,4.0,4.0,4.0,0.0,4.0,66.666664,,,,,,,,2.0,0.0,0.310082,0.5766600000000001,0.12255899999999999,-0.74585,0.961929,-0.174807,-0.310552,-0.018997999999999998,-0.049573,-0.041235,,,,,,,,,,,,,,,,,,,,,,,,,,,,,,,,,,,,,,,,,,,,,,,,,,,,,,,,,,,,,,,,,
14989,1645651044.1095018,5.0,0.0,4385.128418,4454.358886999999,4227.692383,4277.94873,4279.487305,450.0,3.0,59.0,,,,0.0,4.0,4.0,4.0,0.0,4.0,66.666664,,,,,,,,,,,,,,,,,,,,,,,,,,,,,,,,,,,,,,,,,,,,,,,,,,,,,,,,,,,,,,,,,,,,,,,,,,,,,,,,,,,,
14990,1645651044.117317,6.0,0.0,4337.94873,5067.179688,4154.358886999999,4284.615234000001,4321.025879,16259.0,3.0,59.0,,,,0.0,4.0,4.0,4.0,0.0,4.0,66.666664,,,,,,,,3.0,0.0,0.310082,0.5766600000000001,0.12255899999999999,-0.74585,0.9487450000000001,-0.175296,-0.31250500000000003,-0.019491,-0.049597,-0.042874,,,,,,,,,,,,,,,,,,,,,,,,,,,,,,,,,,,,,,,,,,,,,,,,,,,,,,,,,,,,,,,,,
14991,1645651044.1251311,7.0,0.0,4359.487305,4757.436035,4154.871582,4289.743652,4293.333496,450.0,3.0,59.0,,,,0.0,4.0,4.0,4.0,0.0,4.0,66.666664,,,,,,,,,,,,,,,,,,,,,,,,,,,,,,,,,,,,,,,,,,,,,,,,,,,,,,0.0,0.0,1.0,0.0,512.0,1.0,,,,,,,,,,,,,,,,,,,,,,,,,
14992,1645651044.1329448,8.0,0.0,4427.179688,4522.05127,4174.871582,4280.0,4311.794922,450.0,3.0,59.0,,,,0.0,4.0,4.0,4.0,0.0,4.0,66.666664,,,,,,,,4.0,0.0,0.31053600000000003,0.576416,0.12255899999999999,-0.74585,0.9546040000000001,-0.16211199999999998,-0.316899,-0.019886,-0.049569,-0.044251,,,,,,,,,,,,,,,,,,,,,,,,,,,,,,,,,,,,,,,,,,,,,,,,,,,,,,,,,,,,,,,,,
14993,1645651044.14076,9.0,0.0,4442.563965,4853.846191,4196.410156,4277.436035,4350.256348,0.0,3.0,59.0,,,,0.0,4.0,4.0,4.0,0.0,4.0,66.666664,,,,,,,,,,,,,,,,,,,,,,,,,,,,,,,,,,,,,,,,,,,,,,,,,,,,,,,,,,,,,,,,,,,,,,,,,,,,,,,,,,,,
14994,1645651044.148574,10.0,0.0,4400.0,4621.538574,4236.410156,4285.128418,4257.94873,450.0,3.0,59.0,,,,0.0,4.0,4.0,4.0,0.0,4.0,66.666664,,,,,,,,5.0,0.0,0.31043899999999996,0.576416,0.122803,-0.74585,0.9560690000000001,-0.156252,-0.309575,-0.018629,-0.049592000000000004,-0.045587,,,,,,,,,,,,,,,,,,,,,,,,,,,,,,,,,,,,,,,,,,,,,,,,,,,,,,,,,,,,,,,,,
14995,1645651044.156389,11.0,0.0,4386.153809,4340.0,4309.743652,4284.102539,4214.871582,16147.0,3.0,59.0,,,,0.0,4.0,4.0,4.0,0.0,4.0,66.666664,0.9375,0.0,1.0,0.0,1.0,0.0,0.0,,,,,,,,,,,,,1.0,0.0,0.0,,,,,,,,,,,,,,,,,,,,,,,,,,,,,,,,0.0,0.0,1.0,0.0,512.0,1.0,21.742319000000002,10.276628,20.961731,18.657455,13.768085000000001,30.727171000000002,57.470057999999995,147.66896100000002,366.495453,660.57666,158.412964,137.062729,13.722232,24.178304999999998,12.310002,0.060336,0.04015,0.036831,0.125669,0.21703899999999998,35.369021999999994,20.489779000000002,11.044186999999999,14.653042999999998,15.222437
14996,1645651044.164203,12.0,0.0,4347.179688,4941.538574,4275.897461,4281.025879,4283.077147999999,450.0,3.0,59.0,,,,0.0,4.0,4.0,4.0,0.0,4.0,66.666664,,,,,,,,6.0,0.0,0.310082,0.5766600000000001,0.12255899999999999,-0.74585,0.945327,-0.173342,-0.314458,-0.017352,-0.049467000000000004,-0.046742,,,,,,,,,,,,,,,,,,,,,,,,,,,,,,,,,,,,,,,,,,,,,,,,,,,,,,,,,,,,,,,,,
14997,1645651044.172017,13.0,0.0,4303.077147999999,5125.128418,4259.487305,4285.641113000001,4331.282227000001,450.0,3.0,59.0,,,,0.0,4.0,4.0,4.0,0.0,4.0,66.666664,,,,,,,,,,,,,,,,,,,,,,,,,,,,,,,,,,,,,,,,,,,,,,,,,,,,,,,,,,,,,,,,,,,,,,,,,,,,,,,,,,,,
14998,1645651044.179932,14.0,0.0,4307.179688,4461.538574,4329.743652,4283.077147999999,4269.230957,450.0,3.0,59.0,,,,0.0,4.0,4.0,4.0,0.0,4.0,66.666664,,,,,,,,7.0,0.0,0.31040700000000004,0.576904,0.12207,-0.7456050000000001,0.949233,-0.176761,-0.309575,-0.017863,-0.049355,-0.047878,,,,,,,,,,,,,,,,,,,,,,,,,,,,,,,,,,,,,,,,,,,,,,,,,,,,,,,,,,,,,,,,,
14999,1645651044.187746,15.0,0.0,4365.128418,4320.512695,4370.769043,4278.974121,4241.025879,16147.0,3.0,59.0,,,,0.0,4.0,4.0,4.0,0.0,4.0,66.666664,,,,,,,,,,,,,,,,,,,,,,,,,,,,,,,,,,,,,,,,,,,,,,,,,,,,,,0.0,0.0,1.0,0.0,512.0,1.0,,,,,,,,,,,,,,,,,,,,,,,,,
15000,1645651044.195561,16.0,0.0,4390.256348,4600.0,4322.563965,4284.102539,4273.846191,0.0,3.0,59.0,,,,0.0,4.0,4.0,4.0,0.0,4.0,66.666664,,,,,,,,8.0,0.0,0.310636,0.577148,0.121826,-0.7453609999999999,0.952651,-0.171389,-0.31006300000000003,-0.018225,-0.0494,-0.042504,,,,,,,,,,,,,,,,,,,,,,,,,,,,,,,,,,,,,,,,,,,,,,,,,,,,,,,,,,,,,,,,,
15001,1645651044.203375,17.0,0.0,4452.820313,4568.717772999999,4328.717772999999,4287.692383,4309.743652,0.0,3.0,59.0,,,,0.0,4.0,4.0,4.0,0.0,4.0,66.666664,,,,,,,,,,,,,,,,,,,,,,,,,,,,,,,,,,,,,,,,,,,,,,,,,,,,,,,,,,,,,,,,,,,,,,,,,,,,,,,,,,,,
15002,1645651044.211189,18.0,0.0,4585.641113000001,4508.205078,4306.666504,4285.128418,4356.410156,0.0,3.0,59.0,,,,0.0,4.0,4.0,4.0,0.0,4.0,66.666664,,,,,,,,9.0,0.0,0.310827,0.577148,0.12133800000000002,-0.7453609999999999,0.945327,-0.188479,-0.29395,-0.018796,-0.049391000000000004,-0.037619,,,,,,,,,,,,,,,,,,,,,,,,,,,,,,,,,,,,,,,,,,,,,,,,,,,,,,,,,,,,,,,,,
15003,1645651044.219004,19.0,0.0,4696.410156,4556.410156,4278.974121,4286.153809,4417.436035,0.0,3.0,59.0,,,,0.0,4.0,4.0,4.0,0.0,4.0,66.666664,,,,,,,,,,,,,,,,,,,,,,,,,,,,,,,,,,,,,,,,,,,,,,,,,,,,,,0.0,0.0,1.0,0.0,512.0,1.0,,,,,,,,,,,,,,,,,,,,,,,,,
15004,1645651044.226818,20.0,0.0,4873.846191,4574.358886999999,4245.641113000001,4293.846191,4513.333496,0.0,3.0,59.0,,,,0.0,4.0,4.0,4.0,0.0,4.0,66.666664,,,,,,,,10.0,0.0,0.310922,0.577148,0.12109400000000001,-0.7453609999999999,0.94435,-0.18262,-0.31299299999999997,-0.017551,-0.049482,-0.03957,,,,,,,,,,,,,,,,,,,,,,,,,,,,,,,,,,,,,,,,,,,,,,,,,,,,,,,,,,,,,,,,,
15005,1645651044.234633,21.0,0.0,5060.512695,4733.333496,4206.153809,4300.512695,4567.692383,0.0,3.0,59.0,,,,0.0,4.0,4.0,4.0,0.0,4.0,66.666664,,,,,,,,,,,,,,,,,,,,,,,,,,,,,,,,,,,,,,,,,,,,,,,,,,,,,,,,,,,,,,,,,,,,,,,,,,,,,,,,,,,,
15006,1645651044.2424471,22.0,0.0,5512.820313,4821.538574,4220.0,4305.128418,4582.05127,0.0,3.0,59.0,,,,0.0,4.0,4.0,4.0,0.0,4.0,66.666664,,,,,,,,11.0,0.0,0.311017,0.577148,0.12085,-0.7453609999999999,0.954116,-0.179202,-0.311528,-0.018139,-0.049464999999999995,-0.035075999999999996,,,,,,,,,,,,,,,,,,,,,,,,,,,,,,,,,,,,,,,,,,,,,,,,,,,,,,,,,,,,,,,,,
15007,1645651044.250361,23.0,0.0,5961.538574,4722.563965,4246.666504,4315.384765999999,4595.897461,0.0,3.0,59.0,,,,0.0,4.0,4.0,4.0,0.0,4.0,66.666664,,,,,,,,,,,,,,,,,,,,,,,,,,,,,,,,,,,,,,,,,,,,,,,,,,,,,,0.0,0.0,1.0,0.0,512.0,1.0,,,,,,,,,,,,,,,,,,,,,,,,,
15008,1645651044.258176,24.0,0.0,6393.846191,4750.769043,4222.563965,4333.333496,4668.205078,0.0,3.0,59.0,,,,0.0,4.0,4.0,4.0,0.0,4.0,66.666664,,,,,,,,12.0,0.0,0.310336,0.577148,0.12109400000000001,-0.7456050000000001,0.954116,-0.172854,-0.317388,-0.018619999999999998,-0.049352999999999994,-0.037232999999999995,,,,,,,,,,,,,,,,,,,,,,,,,,,,,,,,,,,,,,,,,,,,,,,,,,,,,,,,,,,,,,,,,
15009,1645651044.26599,25.0,0.0,6776.410156,4676.410156,4246.666504,4348.205078,4713.846191,0.0,3.0,59.0,,,,0.0,4.0,4.0,4.0,0.0,4.0,66.666664,,,,,,,,,,,,,,,,,,,,,,,,,,,,,,,,,,,,,,,,,,,,,,,,,,,,,,,,,,,,,,,,,,,,,,,,,,,,,,,,,,,,
15010,1645651044.273804,26.0,0.0,6933.333495999999,4569.743652,4301.538574,4351.794922,4699.487305,0.0,3.0,59.0,,,,0.0,4.0,4.0,4.0,0.0,4.0,66.666664,,,,,,,,13.0,0.0,0.31079,0.576904,0.12109400000000001,-0.7456050000000001,0.94435,-0.183108,-0.311528,-0.019005,-0.049398000000000004,-0.032923,,,,,,,,,,,,,,,,,,,,,,,,,,,,,,,,,,,,,,,,,,,,,,,,,,,,,,,,,,,,,,,,,
15011,1645651044.2816188,27.0,0.0,7023.589844,4741.025879,4292.307617,4354.358886999999,4651.282227000001,0.0,3.0,59.0,,,,0.0,4.0,4.0,4.0,0.0,4.0,66.666664,,,,,,,,,,,,,,,,,,,,1.0,0.0,0.0,,,,,,,,,,,,,,,,,,,,,,,,,,,,,,,,0.0,0.0,1.0,0.0,512.0,0.677079,19.276075,10.869203,20.355894,19.563023,14.993772,39.539951,67.021721,153.484756,347.81933599999996,704.7832030000001,161.584915,142.934906,11.375322,24.658669,12.945634,0.046762,0.034823,0.039124,0.12895299999999998,0.230427,35.652481,21.843451,11.712767999999999,15.341744,16.069187
15012,1645651044.289433,28.0,0.0,7027.179687999999,4887.179688,4317.436035,4358.461426,4658.461426,0.0,3.0,59.0,,,,0.0,4.0,4.0,4.0,0.0,4.0,66.666664,,,,,,,,14.0,0.0,0.310562,0.5766600000000001,0.12133800000000002,-0.74585,0.939467,-0.173342,-0.31104,-0.017884999999999998,-0.049341,-0.035393,,,,,,,,,,,,,,,,,,,,,,,,,,,,,,,,,,,,,,,,,,,,,,,,,,,,,,,,,,,,,,,,,
15013,1645651044.2972481,29.0,0.0,6983.077148,4801.025879,4310.769043,4358.461426,4636.922852000001,0.0,3.0,59.0,,,,0.0,4.0,4.0,4.0,0.0,4.0,66.666664,,,,,,,,,,,,,,,,,,,,,,,,,,,,,,,,,,,,,,,,,,,,,,,,,,,,,,,,,,,,,,,,,,,,,,,,,,,,,,,,,,,,
15014,1645651044.3050618,30.0,0.0,6794.358887,4641.025879,4281.025879,4351.282227000001,4557.94873,0.0,3.0,59.0,,,,0.0,4.0,4.0,4.0,0.0,4.0,66.666664,,,,,,,,15.0,0.0,0.310336,0.577148,0.12109400000000001,-0.7456050000000001,0.954116,-0.172854,-0.317388,-0.018489,-0.049388,-0.03742,,,,,,,,,,,,,,,,,,,,,,,,,,,,,,,,,,,,,,,,,,,,,,,,,,,,,,,,,,,,,,,,,
15015,1645651044.312877,31.0,0.0,6661.025879,4556.410156,4266.666504,4342.05127,4501.025879,0.0,3.0,59.0,,,,0.0,4.0,4.0,4.0,0.0,4.0,66.666664,,,,,,,,,,,,,,,,,,,,,,,,,,,,,,,,,,,,,,,,,,,,,,,,,,,,,,0.0,0.0,1.0,0.0,512.0,0.677079,,,,,,,,,,,,,,,,,,,,,,,,,
15016,1645651044.320691,32.0,0.0,6521.538574,4629.230957,4307.179688,4337.94873,4488.205078,0.0,3.0,59.0,,,,0.0,4.0,4.0,4.0,0.0,4.0,66.666664,,,,,,,,16.0,0.0,0.310562,0.5766600000000001,0.12133800000000002,-0.74585,0.939467,-0.173342,-0.31104,-0.017422,-0.049332,-0.039439999999999996,,,,,,,,,,,,,,,,,,,,,,,,,,,,,,,,,,,,,,,,,,,,,,,,,,,,,,,,,,,,,,,,,
15017,1645651044.3286052,33.0,0.0,6237.94873,4745.128418,4297.94873,4333.333496,4452.820313,0.0,3.0,59.0,,,,0.0,4.0,4.0,4.0,0.0,4.0,66.666664,,,,,,,,,,,,,,,,,,,,,,,,,,,,,,,,,,,,,,,,,,,,,,,,,,,,,,,,,,,,,,,,,,,,,,,,,,,,,,,,,,,,
15018,1645651044.33652,34.0,1.0,6034.301758,4707.749511999999,4287.464355,4327.863281,4426.040039,0.0,3.0,59.0,,,,0.0,4.0,4.0,4.0,0.0,4.0,66.666664,,,,,,,,17.0,1.0,0.310275,0.576563,0.12163099999999999,-0.745996,0.93976,-0.17637,-0.309087,-0.01721,-0.049341,-0.039803,,,,,,,,,,,,,,,,,,,,,,,,,,,,,,,,,,,,,,,,,,,,,,,,,,,,,,,,,,,,,,,,,
15019,1645651044.344334,35.0,1.0,5830.655272999999,4670.370605,4276.97998,4322.393066,4399.259277,0.0,3.0,59.0,,,,0.0,4.0,4.0,4.0,0.0,4.0,66.666664,,,,,,,,,,,,,,,,,,,,,,,,,,,,,,,,,,,,,,,,,,,,,,,,,,,,,,0.0,0.0,1.0,0.0,512.0,0.677079,,,,,,,,,,,,,,,,,,,,,,,,,
15020,1645651044.352148,36.0,1.0,5627.008789,4632.991211,4266.495605,4316.922852000001,4372.478515999999,0.0,3.0,59.0,,,,0.0,4.0,4.0,4.0,0.0,4.0,66.666664,,,,,,,,18.0,1.0,0.309989,0.576465,0.121924,-0.746143,0.940053,-0.179397,-0.307134,-0.016998,-0.049351,-0.040167,,,,,,,,,,,,,,,,,,,,,,,,,,,,,,,,,,,,,,,,,,,,,,,,,,,,,,,,,,,,,,,,,
15021,1645651044.3599632,37.0,1.0,5423.361816,4595.612305,4256.01123,4311.453125,4345.698242,0.0,3.0,59.0,,,,0.0,4.0,4.0,4.0,0.0,4.0,66.666664,,,,,,,,,,,,,,,,,,,,,,,,,,,,,,,,,,,,,,,,,,,,,,,,,,,,,,,,,,,,,,,,,,,,,,,,,,,,,,,,,,,,
15022,1645651044.3677769,38.0,1.0,5219.715332,4558.233397999999,4245.526855,4305.98291,4318.91748,0.0,3.0,59.0,,,,0.0,4.0,4.0,4.0,0.0,4.0,66.666664,,,,,,,,19.0,1.0,0.309702,0.576367,0.122217,-0.746289,0.9403459999999999,-0.182425,-0.30518,-0.016787,-0.04936,-0.040531,,,,,,,,,,,,,,,,,,,,,,,,,,,,,,,,,,,,,,,,,,,,,,,,,,,,,,,,,,,,,,,,,
15023,1645651044.375592,39.0,1.0,5016.068359000001,4520.854492,4235.042969,4300.512695,4292.136719,0.0,3.0,59.0,,,,0.0,4.0,4.0,4.0,0.0,4.0,66.666664,,,,,,,,,,,,,,,,,,,,,,,,,,,,,,,,,,,,,,,,,,,,,,,,,,,,,,0.0,0.0,1.0,0.0,512.0,0.677079,,,,,,,,,,,,,,,,,,,,,,,,,
15024,1645651044.3834062,40.0,1.0,4812.421875,4483.475586,4224.558594,4295.042969,4265.355957,0.0,3.0,59.0,,,,0.0,4.0,4.0,4.0,0.0,4.0,66.666664,,,,,,,,20.0,1.0,0.30941599999999997,0.57627,0.12251,-0.746436,0.9406389999999999,-0.185452,-0.303227,-0.016575,-0.04937,-0.040894,,,,,,,,,,,,,,,,,,,,,,,,,,,,,,,,,,,,,,,,,,,,,,,,,,,,,,,,,,,,,,,,,
15025,1645651044.3912199,41.0,1.0,4608.774902,4446.09668,4214.074219,4289.572754,4238.575684,0.0,3.0,59.0,,,,0.0,4.0,4.0,4.0,0.0,4.0,66.666664,,,,,,,,,,,,,,,,,,,,,,,,,,,,,,,,,,,,,,,,,,,,,,,,,,,,,,,,,,,,,,,,,,,,,,,,,,,,,,,,,,,,
15026,1645651044.399035,42.0,0.0,4405.128418,4408.717772999999,4203.589844,4284.102539,4211.794922,0.0,3.0,59.0,,,,0.0,4.0,4.0,4.0,0.0,4.0,66.666664,,,,,,,,21.0,0.0,0.309129,0.576172,0.122803,-0.746582,0.940932,-0.188479,-0.301274,-0.016363,-0.049379,-0.041257999999999996,,,,,,,,,,,,,,,,,,,,,,,,,,,,,,,,,,,,,,,,,,,,,,,,,,,,,,,,,,,,,,,,,
15027,1645651044.406849,43.0,0.0,4328.205078,4275.384765999999,4269.743652,4282.563965,4158.461426,0.0,3.0,59.0,,,,0.0,4.0,4.0,4.0,0.0,4.0,66.666664,,,,,,,,,,,,,,,,,,,,1.0,0.0,0.0,,,,,,,,,,,,,,,,,,,,,,,,,,,,,,,,0.0,0.0,1.0,0.0,512.0,0.47871,37.045414,17.735584,18.963135,19.70944,16.209959,53.242149,88.68291500000001,156.267044,339.550995,759.777954,164.580582,148.373611,9.899558,25.681099,13.395836,0.053570000000000007,0.032272,0.042171,0.128181,0.24204299999999998,36.587044,24.539375,11.919195,15.769629,16.79739
15028,1645651044.414664,44.0,0.0,4187.692383,4904.615234000001,4249.230957,4280.512695,4166.153809,0.0,3.0,59.0,,,,0.0,4.0,4.0,4.0,0.0,4.0,66.666664,,,,,,,,22.0,0.0,0.309129,0.576172,0.122803,-0.746582,0.940932,-0.175296,-0.309087,-0.017022,-0.04947,-0.042796,,,,,,,,,,,,,,,,,,,,,,,,,,,,,,,,,,,,,,,,,,,,,,,,,,,,,,,,,,,,,,,,,
15029,1645651044.422478,45.0,0.0,4124.615234000001,5161.538574,4253.846191,4280.512695,4235.384765999999,0.0,3.0,59.0,,,,0.0,4.0,4.0,4.0,0.0,4.0,66.666664,,,,,,,,,,,,,,,,,,,,,,,,,,,,,,,,,,,,,,,,,,,,,,,,,,,,,,,,,,,,,,,,,,,,,,,,,,,,,,,,,,,,
15030,1645651044.430292,46.0,0.0,4061.025635,4755.384765999999,4276.410156,4286.153809,4178.974121,0.0,3.0,59.0,,,,0.0,4.0,4.0,4.0,0.0,4.0,66.666664,,,,,,,,23.0,0.0,0.309226,0.576172,0.12255899999999999,-0.746582,0.9399559999999999,-0.16406500000000002,-0.32813000000000003,-0.017662999999999998,-0.049455,-0.037979,,,,,,,,,,,,,,,,,,,,,,,,,,,,,,,,,,,,,,,,,,,,,,,,,,,,,,,,,,,,,,,,,
15031,1645651044.438107,47.0,0.0,3965.641113,4509.743652,4307.179688,4288.717772999999,4073.3332520000004,0.0,3.0,59.0,,,,0.0,4.0,4.0,4.0,0.0,4.0,66.666664,,,,,,,,,,,,,,,,,,,,,,,,,,,,,,,,,,,,,,,,,,,,,,,,,,,,,,0.0,0.0,1.0,0.0,512.0,0.47871,,,,,,,,,,,,,,,,,,,,,,,,,
15032,1645651044.4459212,48.0,0.0,3931.281982,4440.512695,4330.256348,4279.487305,4068.205078,0.0,3.0,59.0,,,,0.0,4.0,4.0,4.0,0.0,4.0,66.666664,,,,,,,,24.0,0.0,0.309687,0.5766600000000001,0.12207,-0.7460939999999999,0.965347,-0.150393,-0.31787600000000005,-0.018809,-0.049429,-0.036042000000000005,,,,,,,,,,,,,,,,,,,,,,,,,,,,,,,,,,,,,,,,,,,,,,,,,,,,,,,,,,,,,,,,,
15033,1645651044.453636,49.0,0.0,3984.615479,4384.615234000001,4340.0,4274.358886999999,4122.563965,0.0,3.0,59.0,,,,0.0,4.0,4.0,4.0,0.0,4.0,66.666664,,,,,,,,,,,,,,,,,,,,,,,,,,,,,,,,,,,,,,,,,,,,,,,,,,,,,,,,,,,,,,,,,,,,,,,,,,,,,,,,,,,,
15034,1645651044.46145,50.0,0.0,4026.6667479999996,4317.436035,4266.153809,4278.974121,4160.512695,0.0,3.0,59.0,,,,0.0,4.0,4.0,4.0,0.0,4.0,66.666664,,,,,,,,25.0,0.0,0.310241,0.577148,0.12133800000000002,-0.7456050000000001,0.9463030000000001,-0.157717,-0.307134,-0.017661000000000003,-0.049467000000000004,-0.03815,,,,,,,,,,,,,,,,,,,,,,,,,,,,,,,,,,,,,,,,,,,,,,,,,,,,,,,,,,,,,,,,,
15035,1645651044.469265,51.0,0.0,4064.615479,4373.846191,4245.641113000001,4277.436035,4157.436035,0.0,3.0,59.0,,,,0.0,4.0,4.0,4.0,0.0,4.0,66.666664,,,,,,,,,,,,,,,,,,,,,,,,,,,,,,,,,,,,,,,,,,,,,,,,,,,,,,0.0,0.0,1.0,0.0,512.0,0.47871,,,,,,,,,,,,,,,,,,,,,,,,,
15036,1645651044.477079,52.0,0.0,4284.615234000001,4633.846191,4265.128418,4278.461426,4184.102539,0.0,3.0,59.0,,,,0.0,4.0,4.0,4.0,0.0,4.0,66.666664,,,,,,,,26.0,0.0,0.31056300000000003,0.577393,0.12085,-0.7453609999999999,0.9438620000000001,-0.191409,-0.301762,-0.01819,-0.049451999999999996,-0.033749,,,,,,,,,,,,,,,,,,,,,,,,,,,,,,,,,,,,,,,,,,,,,,,,,,,,,,,,,,,,,,,,,
15037,1645651044.484893,53.0,0.0,4531.282227000001,4752.307617,4242.05127,4292.307617,4266.153809,0.0,3.0,59.0,,,,0.0,4.0,4.0,4.0,0.0,4.0,66.666664,,,,,,,,,,,,,,,,,,,,,,,,,,,,,,,,,,,,,,,,,,,,,,,,,,,,,,,,,,,,,,,,,,,,,,,,,,,,,,,,,,,,
15038,1645651044.492708,54.0,0.0,5489.743652,4612.820313,4204.615234000001,4313.846191,4384.615234000001,0.0,3.0,59.0,,,,0.0,4.0,4.0,4.0,0.0,4.0,66.666664,,,,,,,,27.0,0.0,0.310299,0.577637,0.120361,-0.7453609999999999,0.9511860000000001,-0.171389,-0.29736799999999997,-0.018568,-0.049388999999999995,-0.029837,,,,,,,,,,,,,,,,,,,,,,,,,,,,,,,,,,,,,,,,,,,,,,,,,,,,,,,,,,,,,,,,,
15039,1645651044.5005221,55.0,0.0,6572.307617,4623.589844,4249.743652,4335.384765999999,4445.641113000001,0.0,3.0,59.0,,,,0.0,4.0,4.0,4.0,0.0,4.0,66.666664,,,,,,,,,,,,,,,,,,,,,,,,,,,,,,,,,,,,,,,,,,,,,,,,,,,,,,0.0,0.0,1.0,0.0,512.0,0.47871,,,,,,,,,,,,,,,,,,,,,,,,,
15040,1645651044.508337,56.0,0.0,7024.615234000001,4821.025879,4258.461426,4363.077147999999,4513.333496,0.0,3.0,59.0,,,,0.0,4.0,4.0,4.0,0.0,4.0,66.666664,,,,,,,,28.0,0.0,0.310394,0.577637,0.120117,-0.7453609999999999,0.9472799999999999,-0.186526,-0.309575,-0.017493,-0.049431,-0.026317,,,,,,,,,,,,,,,,,,,,,,,,,,,,,,,,,,,,,,,,,,,,,,,,,,,,,,,,,,,,,,,,,
15041,1645651044.516151,57.0,0.0,7358.461426000001,4814.871582,4200.512695,4397.94873,4570.769043,0.0,3.0,59.0,,,,0.0,4.0,4.0,4.0,0.0,4.0,66.666664,,,,,,,,,,,,,,,,,,,,,,,,,,,,,,,,,,,,,,,,,,,,,,,,,,,,,,,,,,,,,,,,,,,,,,,,,,,,,,,,,,,,
15042,1645651044.523866,58.0,0.0,7853.333495999999,4705.128418,4218.461426,4427.692383,4617.94873,0.0,3.0,59.0,,,,0.0,4.0,4.0,4.0,0.0,4.0,66.666664,,,,,,,,29.0,0.0,0.310261,0.577393,0.120117,-0.7456050000000001,0.9423969999999999,-0.190433,-0.299809,-0.016525,-0.04942,-0.029544,,,,,,,,,,,,,,,,,,,,,,,,,,,,,,,,,,,,,,,,,,,,,,,,,,,,,,,,,,,,,,,,,
15043,1645651044.53168,59.0,0.0,7970.769043000001,4675.897461,4280.512695,4452.307617,4658.974121,0.0,3.0,59.0,,,,0.0,4.0,4.0,4.0,0.0,4.0,66.666664,,,,,,,,,,,,,,,,,,,,1.0,0.0,0.0,,,,,,,,,,,,,,,,,,,,,,,,,,,,,,,,0.0,0.0,1.0,0.0,512.0,0.360702,245.336914,39.895443,18.546246,19.540916,17.141176,71.306702,120.979378,155.887421,341.549103,817.602661,166.861969,151.680954,9.826972999999999,26.842709000000003,13.708165,0.208152,0.04813,0.048485,0.121754,0.250544,43.498115999999996,28.891648999999997,11.242529,15.842029,17.363295
15044,1645651044.539494,60.0,0.0,7724.615234000001,4656.410156,4296.410156,4468.717772999999,4672.820313,0.0,3.0,59.0,,,,0.0,4.0,4.0,4.0,0.0,4.0,66.666664,,,,,,,,30.0,0.0,0.309446,0.577148,0.120361,-0.7460939999999999,0.9389790000000001,-0.18799100000000002,-0.28809,-0.014921,-0.049361,-0.032352,,,,,,,,,,,,,,,,,,,,,,,,,,,,,,,,,,,,,,,,,,,,,,,,,,,,,,,,,,,,,,,,,
15045,1645651044.547309,61.0,0.0,7843.077148,4663.077147999999,4254.358886999999,4481.538574,4657.94873,0.0,3.0,59.0,,,,0.0,4.0,4.0,4.0,0.0,4.0,66.666664,,,,,,,,,,,,,,,,,,,,,,,,,,,,,,,,,,,,,,,,,,,,,,,,,,,,,,,,,,,,,,,,,,,,,,,,,,,,,,,,,,,,
15046,1645651044.555123,62.0,0.0,7798.461426000001,4612.820313,4314.358886999999,4481.538574,4633.333496,0.0,3.0,59.0,,,,0.0,4.0,4.0,4.0,0.0,4.0,66.666664,,,,,,,,31.0,0.0,0.309768,0.5766600000000001,0.120361,-0.7463380000000001,0.9399559999999999,-0.187503,-0.308598,-0.015675,-0.049356,-0.034781,,,,,,,,,,,,,,,,,,,,,,,,,,,,,,,,,,,,,,,,,,,,,,,,,,,,,,,,,,,,,,,,,
15047,1645651044.562938,63.0,0.0,7823.589844,4546.666504,4318.974121,4475.897461,4484.102539,0.0,3.0,59.0,,,,0.0,4.0,4.0,4.0,0.0,4.0,66.666664,,,,,,,,,,,,,,,,,,,,,,,,,,,,,,,,,,,,,,,,,,,,,,,,,,,,,,0.0,0.0,1.0,0.0,512.0,0.360702,,,,,,,,,,,,,,,,,,,,,,,,,
15048,1645651044.570752,64.0,0.0,7804.102539,4590.769043,4277.94873,4469.230957,4332.820313,450.0,3.0,59.0,,,,0.0,4.0,4.0,4.0,0.0,4.0,66.666664,,,,,,,,32.0,0.0,0.30944299999999997,0.576416,0.12085,-0.746582,0.957046,-0.17236600000000002,-0.309087,-0.016402,-0.049401,-0.030766,,,,,,,,,,,,,,,,,,,,,,,,,,,,,,,,,,,,,,,,,,,,,,,,,,,,,,,,,,,,,,,,,
15049,1645651044.578566,65.0,0.0,7794.871581999999,4707.692383,4297.436035,4453.846191,4273.846191,450.0,3.0,59.0,,,,0.0,4.0,4.0,4.0,0.0,4.0,66.666664,,,,,,,,,,,,,,,,,,,,,,,,,,,,,,,,,,,,,,,,,,,,,,,,,,,,,,,,,,,,,,,,,,,,,,,,,,,,,,,,,,,,
15050,1645651044.586281,66.0,0.0,7934.358887,4706.153809,4334.871582,4432.307617,4223.077147999999,187.0,3.0,59.0,,,,0.0,2.0,0.0,4.0,0.0,4.0,16.666666,,,,,,,,33.0,0.0,0.309213,0.576172,0.12109400000000001,-0.746826,0.949233,-0.178714,-0.31250500000000003,-0.017155,-0.049539,-0.033402,,,,,,,,,,,,,,,,,,,,,,,,,,,,,,,,,,,,,,,,,,,,,,,,,,,,,,,,,,,,,,,,,
15051,1645651044.594095,67.0,0.0,7593.846191,4682.05127,4252.820313,4407.692383,4125.128418,450.0,3.0,59.0,,,,0.0,2.0,0.0,4.0,0.0,4.0,16.666666,,,,,,,,,,,,,,,,,,,,,,,,,,,,,,,,,,,,,,,,,,,,,,,,,,,,,,0.0,0.0,1.0,0.0,512.0,0.360702,,,,,,,,,,,,,,,,,,,,,,,,,
15052,1645651044.6019099,68.0,0.0,7219.487305,4743.077147999999,4230.769043,4383.589844,3997.9487299999996,0.0,3.0,59.0,,,,0.0,2.0,0.0,4.0,0.0,4.0,16.666666,,,,,,,,34.0,0.0,0.308527,0.576172,0.12133800000000002,-0.74707,0.9589989999999999,-0.17383099999999999,-0.306645,-0.016123,-0.049615,-0.035726,,,,,,,,,,,,,,,,,,,,,,,,,,,,,,,,,,,,,,,,,,,,,,,,,,,,,,,,,,,,,,,,,
15053,1645651044.609724,69.0,0.0,6669.743652,4733.333496,4248.205078,4354.871582,3925.1281740000004,450.0,3.0,59.0,,,,0.0,2.0,0.0,4.0,0.0,4.0,16.666666,,,,,,,,,,,,,,,,,,,,,,,,,,,,,,,,,,,,,,,,,,,,,,,,,,,,,,,,,,,,,,,,,,,,,,,,,,,,,,,,,,,,
15054,1645651044.6175392,70.0,0.0,5917.94873,4754.871582,4194.871582,4333.846191,3915.384521,16152.0,3.0,59.0,,,,0.0,2.0,0.0,4.0,0.0,4.0,16.666666,,,,,,,,35.0,0.0,0.308431,0.576172,0.121582,-0.74707,0.9472799999999999,-0.17773699999999998,-0.318364,-0.016708,-0.049634,-0.037866000000000004,,,,,,,,,,,,,,,,,,,,,,,,,,,,,,,,,,,,,,,,,,,,,,,,,,,,,,,,,,,,,,,,,
15055,1645651044.6253529,71.0,0.0,5204.102539,4676.922852000001,4203.589844,4322.05127,3946.6667479999996,450.0,3.0,59.0,,,,0.0,2.0,0.0,4.0,0.0,4.0,16.666666,,,,,,,,,,,,,,,,,,,,,,,,,,,,,,,,,,,,,,,,,,,,,,,,,,,,,,0.0,0.0,1.0,0.0,512.0,0.360702,,,,,,,,,,,,,,,,,,,,,,,,,
15056,1645651044.633167,72.0,0.0,4814.871582,4340.0,4291.794922,4306.153809,3929.743652,450.0,3.0,59.0,,,,0.0,2.0,0.0,4.0,0.0,4.0,16.666666,,,,,,,,36.0,0.0,0.308791,0.575928,0.121826,-0.74707,0.957534,-0.170901,-0.310552,-0.017381,-0.049504,-0.039793,,,,,,,,,,,,,,,,,,,,,,,,,,,,,,,,,,,,,,,,,,,,,,,,,,,,,,,,,,,,,,,,,
15057,1645651044.641082,73.0,0.0,4406.153809,4541.025879,4273.846191,4296.922852000001,3943.076904,0.0,3.0,59.0,,,,0.0,2.0,0.0,4.0,0.0,4.0,16.666666,,,,,,,,,,,,,,,,,,,,,,,,,,,,,,,,,,,,,,,,,,,,,,,,,,,,,,,,,,,,,,,,,,,,,,,,,,,,,,,,,,,,
15058,1645651044.648896,74.0,0.0,3944.615479,5065.128418,4189.743652,4296.410156,3952.820557,450.0,3.0,59.0,,,,0.0,2.0,0.0,4.0,0.0,4.0,16.666666,,,,,,,,37.0,0.0,0.308791,0.575928,0.121826,-0.74707,0.94435,-0.1626,-0.311528,-0.015691999999999998,-0.049535,-0.041526,,,,,,,,,,,,,,,,,,,,,,,,,,,,,,,,,,,,,,,,,,,,,,,,,,,,,,,,,,,,,,,,,
15059,1645651044.65671,75.0,0.0,3884.615479,4950.256348,4226.666504,4297.436035,3969.743652,16139.0,3.0,59.0,,,,0.0,2.0,0.0,4.0,0.0,4.0,16.666666,0.9375,0.0,0.0,0.0,1.0,0.0,1.0,,,,,,,,,,,,,1.0,0.0,0.0,,,,,,,,,,,,,,,,,,,,,,,,,,,,,,,,0.0,0.0,1.0,0.0,512.0,0.345565,1097.047729,115.076553,27.227734,20.59454,17.560863,94.203117,160.304733,157.281647,350.36706499999997,861.397034,167.035324,151.766998,10.805789,27.368843,13.848335999999998,0.904566,0.130801,0.066866,0.11093499999999999,0.25299499999999997,68.323921,35.791077,9.895209,15.556332999999999,17.622663
15060,1645651044.664525,76.0,0.0,3672.3076170000004,4909.743652,4235.384765999999,4288.717772999999,4014.358887,450.0,3.0,59.0,,,,0.0,2.0,0.0,4.0,0.0,4.0,16.666666,,,,,,,,38.0,0.0,0.308791,0.575928,0.121826,-0.74707,0.9550930000000001,-0.175784,-0.327642,-0.014903999999999999,-0.049562,-0.043038,,,,,,,,,,,,,,,,,,,,,,,,,,,,,,,,,,,,,,,,,,,,,,,,,,,,,,,,,,,,,,,,,
15061,1645651044.672439,77.0,1.0,3627.6923829999996,4836.01123,4241.538574,4286.723633,4027.6923829999996,450.0,3.0,59.0,,,,0.0,2.0,0.0,4.0,0.0,4.0,16.666666,,,,,,,,,,,,,,,,,,,,,,,,,,,,,,,,,,,,,,,,,,,,,,,,,,,,,,,,,,,,,,,,,,,,,,,,,,,,,,,,,,,,
15062,1645651044.680254,78.0,1.0,3583.076904,4762.279297,4247.692383,4284.729492,4041.025635,450.0,3.0,59.0,,,,0.0,2.0,0.0,4.0,0.0,4.0,16.666666,,,,,,,,39.0,1.0,0.30875199999999997,0.575928,0.121924,-0.74707,0.954702,-0.17471,-0.325982,-0.014752000000000001,-0.049547,-0.04331,,,,,,,,,,,,,,,,,,,,,,,,,,,,,,,,,,,,,,,,,,,,,,,,,,,,,,,,,,,,,,,,,
15063,1645651044.688068,79.0,1.0,3538.461426,4688.546875,4253.846191,4282.734863000001,4054.358887,16147.0,3.0,59.0,,,,0.0,2.0,0.0,4.0,0.0,4.0,16.666666,,,,,,,,,,,,,,,,,,,,,,,,,,,,,,,,,,,,,,,,,,,,,,,,,,,,,,0.0,0.0,1.0,0.0,512.0,0.345565,,,,,,,,,,,,,,,,,,,,,,,,,
15064,1645651044.695882,80.0,1.0,3493.8461909999996,4614.814941,4260.0,4280.740723,4067.6923829999996,450.0,3.0,59.0,,,,0.0,2.0,0.0,4.0,0.0,4.0,16.666666,,,,,,,,40.0,1.0,0.308713,0.575928,0.122021,-0.74707,0.954311,-0.17363499999999998,-0.324321,-0.014601,-0.049532,-0.043582,,,,,,,,,,,,,,,,,,,,,,,,,,,,,,,,,,,,,,,,,,,,,,,,,,,,,,,,,,,,,,,,,
15065,1645651044.703697,81.0,1.0,3449.2307130000004,4541.08252,4266.153809,4278.746582,4081.025635,450.0,3.0,59.0,,,,0.0,2.0,0.0,4.0,0.0,4.0,16.666666,,,,,,,,,,,,,,,,,,,,,,,,,,,,,,,,,,,,,,,,,,,,,,,,,,,,,,,,,,,,,,,,,,,,,,,,,,,,,,,,,,,,
15066,1645651044.711511,82.0,1.0,3404.615479,4467.350586,4272.307617,4276.751953,4094.358887,450.0,3.0,59.0,,,,0.0,2.0,0.0,4.0,0.0,4.0,16.666666,,,,,,,,41.0,1.0,0.308675,0.575928,0.122119,-0.74707,0.9539209999999999,-0.172561,-0.32266100000000003,-0.014449000000000002,-0.049518,-0.043854000000000004,,,,,,,,,,,,,,,,,,,,,,,,,,,,,,,,,,,,,,,,,,,,,,,,,,,,,,,,,,,,,,,,,
15067,1645651044.719326,83.0,1.0,3360.0,4393.618164,4278.461426,4274.757813,4107.692383,450.0,3.0,59.0,,,,0.0,2.0,0.0,4.0,0.0,4.0,16.666666,,,,,,,,,,,,,,,,,,,,,,,,,,,,,,,,,,,,,,,,,,,,,,,,,,,,,,0.0,0.0,1.0,0.0,512.0,0.345565,,,,,,,,,,,,,,,,,,,,,,,,,
15068,1645651044.72714,84.0,1.0,3315.384521,4319.88623,4284.615234000001,4272.763672,4121.025879,450.0,3.0,59.0,,,,0.0,2.0,0.0,4.0,0.0,4.0,16.666666,,,,,,,,42.0,1.0,0.308636,0.575928,0.122217,-0.74707,0.9535299999999999,-0.171487,-0.32100100000000004,-0.014297,-0.049503,-0.044126,,,,,,,,,,,,,,,,,,,,,,,,,,,,,,,,,,,,,,,,,,,,,,,,,,,,,,,,,,,,,,,,,
15069,1645651044.7349539,85.0,0.0,3270.769287,4246.153809,4290.769043,4270.769043,4134.358886999999,450.0,3.0,59.0,,,,0.0,2.0,0.0,4.0,0.0,4.0,16.666666,,,,,,,,,,,,,,,,,,,,,,,,,,,,,,,,,,,,,,,,,,,,,,,,,,,,,,,,,,,,,,,,,,,,,,,,,,,,,,,,,,,,
15070,1645651044.742769,86.0,0.0,3238.4614260000003,4011.281982,4316.922852000001,4269.230957,4103.589844,450.0,3.0,59.0,,,,0.0,2.0,0.0,4.0,0.0,4.0,16.666666,,,,,,,,43.0,0.0,0.30859699999999995,0.575928,0.122314,-0.74707,0.95314,-0.170413,-0.319341,-0.014146,-0.049488,-0.044398,,,,,,,,,,,,,,,,,,,,,,,,,,,,,,,,,,,,,,,,,,,,,,,,,,,,,,,,,,,,,,,,,
15071,1645651044.750583,87.0,0.0,3178.974365,4189.743652,4269.230957,4266.153809,4085.641113,16139.0,3.0,59.0,,,,0.0,2.0,0.0,4.0,0.0,4.0,16.666666,,,,,,,,,,,,,,,,,,,,,,,,,,,,,,,,,,,,,,,,,,,,,,,,,,,,,,0.0,0.0,1.0,0.0,512.0,0.345565,,,,,,,,,,,,,,,,,,,,,,,,,
15072,1645651044.758398,88.0,0.0,3176.410156,4326.153809,4250.256348,4269.743652,4121.025879,450.0,3.0,59.0,,,,0.0,2.0,0.0,4.0,0.0,4.0,16.666666,,,,,,,,44.0,0.0,0.308733,0.576172,0.122314,-0.746826,0.9472799999999999,-0.167483,-0.316411,-0.015172999999999999,-0.049471,-0.039421,,,,,,,,,,,,,,,,,,,,,,,,,,,,,,,,,,,,,,,,,,,,,,,,,,,,,,,,,,,,,,,,,
15073,1645651044.766212,89.0,0.0,3221.025635,4301.025879,4234.358886999999,4270.769043,4145.128418,450.0,3.0,59.0,,,,0.0,2.0,0.0,4.0,0.0,4.0,16.666666,,,,,,,,,,,,,,,,,,,,,,,,,,,,,,,,,,,,,,,,,,,,,,,,,,,,,,,,,,,,,,,,,,,,,,,,,,,,,,,,,,,,
15074,1645651044.774026,90.0,0.0,3170.256348,4123.589844,4263.077147999999,4268.717772999999,4156.922852000001,450.0,3.0,59.0,,,,0.0,2.0,0.0,4.0,0.0,4.0,16.666666,,,,,,,,45.0,0.0,0.308829,0.576172,0.12207,-0.746826,0.941909,-0.167483,-0.304692,-0.015804,-0.049505,-0.041143,,,,,,,,,,,,,,,,,,,,,,,,,,,,,,,,,,,,,,,,,,,,,,,,,,,,,,,,,,,,,,,,,
15075,1645651044.781841,91.0,0.0,3093.846191,3948.205078,4340.512695,4270.769043,4156.922852000001,16139.0,3.0,59.0,,,,0.0,2.0,0.0,4.0,0.0,4.0,16.666666,,,,,,,,,,,,,,,,,,,,1.0,0.0,0.0,,,,,,,,,,,,,,,,,,,,,,,,,,,,,,,,0.0,0.0,1.0,0.0,512.0,0.287223,3506.0043950000004,279.85290499999996,72.959312,24.636566000000002,17.998929999999998,121.614769,206.276047,171.38864099999998,361.598358,870.5808109999999,163.11175500000002,148.169144,11.948972,26.573538,13.686430999999999,3.5984540000000003,0.367166,0.10706700000000001,0.09838999999999999,0.24605100000000002,136.098251,43.822936999999996,8.179552000000001,14.918752,17.394957
15076,1645651044.789555,92.0,1.0,3083.02002,4041.196533,4328.091309,4271.282227000001,4152.250488000001,14395.777344,3.0,59.0,,,,0.0,2.0,0.0,4.0,0.0,4.0,16.666666,,,,,,,,46.0,1.0,0.308868,0.576172,0.121973,-0.746826,0.9440569999999999,-0.170706,-0.30537600000000004,-0.015957,-0.049500999999999996,-0.040184,,,,,,,,,,,,,,,,,,,,,,,,,,,,,,,,,,,,,,,,,,,,,,,,,,,,,,,,,,,,,,,,,
15077,1645651044.79737,93.0,1.0,3072.193848,4134.187988000001,4315.669434,4271.794922,4147.578125,12652.555664,3.0,59.0,,,,0.0,2.0,0.0,4.0,0.0,4.0,16.666666,,,,,,,,,,,,,,,,,,,,,,,,,,,,,,,,,,,,,,,,,,,,,,,,,,,,,,,,,,,,,,,,,,,,,,,,,,,,,,,,,,,,
15078,1645651044.805184,94.0,1.0,3061.367432,4227.179688,4303.248047,4272.307617,4142.905761999999,10909.333008,3.0,59.0,,,,0.0,2.0,0.0,4.0,0.0,4.0,16.666666,,,,,,,,47.0,1.0,0.308906,0.576172,0.121875,-0.746826,0.946206,-0.173928,-0.306059,-0.016109000000000002,-0.049497,-0.039224,,,,,,,,,,,,,,,,,,,,,,,,,,,,,,,,,,,,,,,,,,,,,,,,,,,,,,,,,,,,,,,,,
15079,1645651044.812999,95.0,1.0,3050.54126,4320.170897999999,4290.826172,4272.820313,4138.233397999999,9166.111328,3.0,59.0,,,,0.0,2.0,0.0,4.0,0.0,4.0,16.666666,,,,,,,,,,,,,,,,,,,,,,,,,,,,,,,,,,,,,,,,,,,,,,,,,,,,,,0.0,0.0,1.0,0.0,512.0,0.287223,,,,,,,,,,,,,,,,,,,,,,,,,
15080,1645651044.8208132,96.0,1.0,3039.715088,4413.162598,4278.404785,4273.333496,4133.561035,7422.888672,3.0,59.0,,,,0.0,2.0,0.0,4.0,0.0,4.0,16.666666,,,,,,,,48.0,1.0,0.30894499999999997,0.576172,0.121777,-0.746826,0.9483540000000001,-0.177151,-0.306743,-0.016262000000000002,-0.049493,-0.038265,,,,,,,,,,,,,,,,,,,,,,,,,,,,,,,,,,,,,,,,,,,,,,,,,,,,,,,,,,,,,,,,,
15081,1645651044.8286269,97.0,1.0,3028.888916,4506.153809,4265.98291,4273.846191,4128.888672,5679.666504,3.0,59.0,,,,0.0,2.0,0.0,4.0,0.0,4.0,16.666666,,,,,,,,,,,,,,,,,,,,,,,,,,,,,,,,,,,,,,,,,,,,,,,,,,,,,,,,,,,,,,,,,,,,,,,,,,,,,,,,,,,,
15082,1645651044.836442,98.0,1.0,3018.0627440000003,4599.145508,4253.561035,4274.358886999999,4124.216309,3936.444336,3.0,59.0,,,,0.0,2.0,0.0,4.0,0.0,4.0,16.666666,,,,,,,,49.0,1.0,0.308983,0.576172,0.12168,-0.746826,0.9505030000000001,-0.180374,-0.307427,-0.016415,-0.04949,-0.037305,,,,,,,,,,,,,,,,,,,,,,,,,,,,,,,,,,,,,,,,,,,,,,,,,,,,,,,,,,,,,,,,,
15083,1645651044.8442562,99.0,1.0,3007.236572,4692.136719,4241.139647999999,4274.871582,4119.543945,2193.222168,3.0,59.0,,,,0.0,2.0,0.0,4.0,0.0,4.0,16.666666,,,,,,,,,,,,,,,,,,,,,,,,,,,,,,,,,,,,,,,,,,,,,,,,,,,,,,0.0,0.0,1.0,0.0,512.0,0.287223,,,,,,,,,,,,,,,,,,,,,,,,,
15084,1645651044.852071,100.0,0.0,2996.410156,4785.128418,4228.717772999999,4275.384765999999,4114.871582,450.0,3.0,59.0,,,,0.0,2.0,0.0,4.0,0.0,4.0,16.666666,,,,,,,,50.0,0.0,0.30902199999999996,0.576172,0.121582,-0.746826,0.952651,-0.183597,-0.30811,-0.016567,-0.049486,-0.036345,,,,,,,,,,,,,,,,,,,,,,,,,,,,,,,,,,,,,,,,,,,,,,,,,,,,,,,,,,,,,,,,,
15085,1645651044.8599849,101.0,1.0,3011.281982,4780.833496,4237.436035,4275.577147999999,4121.282227000001,450.0,3.0,59.0,,,,0.0,2.0,0.0,4.0,0.0,4.0,16.666666,,,,,,,,,,,,,,,,,,,,,,,,,,,,,,,,,,,,,,,,,,,,,,,,,,,,,,,,,,,,,,,,,,,,,,,,,,,,,,,,,,,,
15086,1645651044.867799,102.0,1.0,3026.153809,4776.538574,4246.153809,4275.769043,4127.692383,450.0,3.0,59.0,,,,0.0,2.0,0.0,4.0,0.0,4.0,16.666666,,,,,,,,51.0,1.0,0.309203,0.576233,0.121582,-0.746704,0.953384,-0.182864,-0.3075,-0.016336,-0.049482,-0.036853,,,,,,,,,,,,,,,,,,,,,,,,,,,,,,,,,,,,,,,,,,,,,,,,,,,,,,,,,,,,,,,,,
15087,1645651044.8756142,103.0,1.0,3041.025635,4772.243652,4254.871582,4275.961426,4134.102539,450.0,3.0,59.0,,,,0.0,2.0,0.0,4.0,0.0,4.0,16.666666,,,,,,,,,,,,,,,,,,,,,,,,,,,,,,,,,,,,,,,,,,,,,,,,,,,,,,0.0,0.0,1.0,0.0,512.0,0.287223,,,,,,,,,,,,,,,,,,,,,,,,,
15088,1645651044.8834279,104.0,1.0,3055.897461,4767.94873,4263.589844,4276.153809,4140.512695,450.0,3.0,59.0,,,,0.0,2.0,0.0,4.0,0.0,4.0,16.666666,,,,,,,,52.0,1.0,0.309384,0.576294,0.121582,-0.746582,0.954116,-0.182132,-0.30688899999999997,-0.016105,-0.049477,-0.037360000000000004,,,,,,,,,,,,,,,,,,,,,,,,,,,,,,,,,,,,,,,,,,,,,,,,,,,,,,,,,,,,,,,,,
15089,1645651044.891243,105.0,1.0,3070.769287,4763.653809,4272.307617,4276.346191,4146.922852000001,450.0,3.0,59.0,,,,0.0,2.0,0.0,4.0,0.0,4.0,16.666666,,,,,,,,,,,,,,,,,,,,,,,,,,,,,,,,,,,,,,,,,,,,,,,,,,,,,,,,,,,,,,,,,,,,,,,,,,,,,,,,,,,,
15090,1645651044.8990571,106.0,1.0,3085.6411129999997,4759.358886999999,4281.025879,4276.538574,4153.333496,450.0,3.0,59.0,,,,0.0,2.0,0.0,4.0,0.0,4.0,16.666666,,,,,,,,53.0,1.0,0.309564,0.5763550000000001,0.121582,-0.74646,0.954849,-0.181399,-0.306279,-0.015874,-0.049473,-0.037868,,,,,,,,,,,,,,,,,,,,,,,,,,,,,,,,,,,,,,,,,,,,,,,,,,,,,,,,,,,,,,,,,
15091,1645651044.906871,107.0,1.0,3100.512939,4755.063965,4289.743652,4276.730957,4159.743652,450.0,3.0,59.0,,,,0.0,2.0,0.0,4.0,0.0,4.0,16.666666,,,,,,,,,,,,,,,,,,,,1.0,0.0,0.0,,,,,,,,,,,,,,,,,,,,,,,,,,,,,,,,0.0,0.0,32.0,1.0,1.0,0.0,8447.862305,578.8469240000001,197.728638,33.389515,19.655069,152.21196,257.15100099999995,203.82347099999998,370.239014,830.147278,153.186218,140.366302,12.418742,24.229267,13.093682000000001,10.727476,0.875342,0.175085,0.086177,0.227811,282.391388,51.580856,6.461425,14.03778,16.531084
15092,1645651044.914686,108.0,0.0,3115.384521,4750.769043,4298.461426,4276.922852000001,4166.153809,450.0,3.0,59.0,,,,0.0,2.0,0.0,4.0,0.0,4.0,16.666666,,,,,,,,54.0,0.0,0.309745,0.576416,0.121582,-0.7463380000000001,0.9555809999999999,-0.180667,-0.305669,-0.015643,-0.049469,-0.038375,,,,,,,,,,,,,,,,,,,,,,,,,,,,,,,,,,,,,,,,,,,,,,,,,,,,,,,,,,,,,,,,,
15093,1645651044.9225,109.0,0.0,3129.230713,4538.461426,4350.769043,4275.384765999999,4182.563965,450.0,3.0,59.0,,,,0.0,2.0,0.0,4.0,0.0,4.0,16.666666,,,,,,,,,,,,,,,,,,,,,,,,,,,,,,,,,,,,,,,,,,,,,,,,,,,,,,,,,,,,,,,,,,,,,,,,,,,,,,,,,,,,
15094,1645651044.930315,110.0,0.0,3086.153809,4636.410156,4329.743652,4273.333496,4174.358886999999,450.0,3.0,59.0,,,,0.0,2.0,0.0,4.0,0.0,4.0,16.666666,,,,,,,,55.0,0.0,0.309386,0.5766600000000001,0.12133800000000002,-0.7463380000000001,0.9511860000000001,-0.17773699999999998,-0.303227,-0.01486,-0.049454000000000005,-0.040104,,,,,,,,,,,,,,,,,,,,,,,,,,,,,,,,,,,,,,,,,,,,,,,,,,,,,,,,,,,,,,,,,
15095,1645651044.938129,111.0,0.0,3072.3076170000004,4823.077147999999,4334.871582,4274.358886999999,4134.358886999999,16139.0,3.0,59.0,,,,0.0,2.0,0.0,4.0,0.0,4.0,16.666666,,,,,,,,,,,,,,,,,,,,,,,,,,,,,,,,,,,,,,,,,,,,,,,,,,,,,,0.0,0.0,32.0,1.0,1.0,0.0,,,,,,,,,,,,,,,,,,,,,,,,,
15096,1645651044.9459429,112.0,0.0,3114.871826,4824.102539,4320.0,4275.384765999999,4143.589844,450.0,3.0,59.0,,,,0.0,2.0,0.0,4.0,0.0,4.0,16.666666,,,,,,,,56.0,0.0,0.309386,0.5766600000000001,0.12133800000000002,-0.7463380000000001,0.9511860000000001,-0.165042,-0.305669,-0.014106,-0.04944,-0.041757999999999997,,,,,,,,,,,,,,,,,,,,,,,,,,,,,,,,,,,,,,,,,,,,,,,,,,,,,,,,,,,,,,,,,
15097,1645651044.953858,113.0,0.0,3145.128174,4858.461426,4314.358886999999,4275.384765999999,4182.563965,450.0,3.0,59.0,,,,0.0,2.0,0.0,4.0,0.0,4.0,16.666666,,,,,,,,,,,,,,,,,,,,,,,,,,,,,,,,,,,,,,,,,,,,,,,,,,,,,,,,,,,,,,,,,,,,,,,,,,,,,,,,,,,,
15098,1645651044.961672,114.0,0.0,3134.871826,4957.436035,4308.717772999999,4275.897461,4147.692383,450.0,3.0,59.0,,,,0.0,2.0,0.0,4.0,0.0,4.0,16.666666,,,,,,,,57.0,0.0,0.309745,0.576416,0.121582,-0.7463380000000001,0.9555809999999999,-0.180667,-0.305669,-0.013428,-0.049428,-0.043246,,,,,,,,,,,,,,,,,,,,,,,,,,,,,,,,,,,,,,,,,,,,,,,,,,,,,,,,,,,,,,,,,
15099,1645651044.969487,115.0,0.0,3118.974365,4895.897461,4312.820313,4274.358886999999,4131.794922,16139.0,3.0,59.0,,,,0.0,2.0,0.0,4.0,0.0,4.0,16.666666,,,,,,,,,,,,,,,,,,,,,,,,,,,,,,,,,,,,,,,,,,,,,,,,,,,,,,0.0,0.0,32.0,1.0,1.0,0.0,,,,,,,,,,,,,,,,,,,,,,,,,
15100,1645651044.977301,116.0,0.0,3115.897461,4652.820313,4284.102539,4273.333496,4173.333496,450.0,3.0,59.0,,,,0.0,2.0,0.0,4.0,0.0,4.0,16.666666,,,,,,,,58.0,0.0,0.309386,0.5766600000000001,0.12133800000000002,-0.7463380000000001,0.9511860000000001,-0.165042,-0.305669,-0.012818000000000001,-0.049417,-0.044586,,,,,,,,,,,,,,,,,,,,,,,,,,,,,,,,,,,,,,,,,,,,,,,,,,,,,,,,,,,,,,,,,
15101,1645651044.985115,117.0,0.0,3122.05127,4504.102539,4249.230957,4276.410156,4152.820313,450.0,3.0,59.0,,,,0.0,2.0,0.0,4.0,0.0,4.0,16.666666,,,,,,,,,,,,,,,,,,,,,,,,,,,,,,,,,,,,,,,,,,,,,,,,,,,,,,,,,,,,,,,,,,,,,,,,,,,,,,,,,,,,
15102,1645651044.9929302,118.0,0.0,3201.5385739999997,4317.436035,4233.333496,4274.358886999999,4152.820313,450.0,3.0,59.0,,,,0.0,2.0,0.0,4.0,0.0,4.0,16.666666,,,,,,,,59.0,0.0,0.309386,0.5766600000000001,0.12133800000000002,-0.7463380000000001,0.945815,-0.171878,-0.319829,-0.013880000000000002,-0.049504,-0.039541,,,,,,,,,,,,,,,,,,,,,,,,,,,,,,,,,,,,,,,,,,,,,,,,,,,,,,,,,,,,,,,,,
15103,1645651045.0007439,119.0,0.0,3253.846191,4013.8461909999996,4287.179688,4269.230957,4151.794922,16139.0,3.0,59.0,,,,0.0,2.0,0.0,4.0,0.0,4.0,16.666666,,,,,,,,,,,,,,,,,,,,,,,,,,,,,,,,,,,,,,,,,,,,,,,,,,,,,,11.0,0.0,32.0,1.0,1.0,0.0,,,,,,,,,,,,,,,,,,,,,,,,,
15104,1645651045.008559,120.0,0.0,3287.179443,4049.2307130000004,4318.974121,4263.077147999999,4151.794922,450.0,3.0,59.0,,,,0.0,2.0,0.0,4.0,0.0,4.0,16.666666,,,,,,,,60.0,0.0,0.309386,0.5766600000000001,0.12133800000000002,-0.7463380000000001,0.9511860000000001,-0.18945599999999999,-0.305669,-0.014787,-0.049681,-0.0413,,,,,,,,,,,,,,,,,,,,,,,,,,,,,,,,,,,,,,,,,,,,,,,,,,,,,,,,,,,,,,,,,
15105,1645651045.0163732,121.0,0.0,3301.5385739999997,4318.974121,4282.563965,4259.487305,4164.615234000001,450.0,3.0,59.0,,,,0.0,2.0,0.0,4.0,0.0,4.0,16.666666,,,,,,,,,,,,,,,,,,,,,,,,,,,,,,,,,,,,,,,,,,,,,,,,,,,,,,,,,,,,,,,,,,,,,,,,,,,,,,,,,,,,
15106,1645651045.0241868,122.0,0.0,3314.3588870000003,4547.179688,4258.974121,4260.512695,4220.0,450.0,3.0,59.0,,,,0.0,2.0,0.0,4.0,0.0,4.0,16.666666,,,,,,,,61.0,0.0,0.309386,0.5766600000000001,0.12133800000000002,-0.7463380000000001,0.9423969999999999,-0.166506,-0.308598,-0.015505000000000001,-0.049694,-0.036438,,,,,,,,,,,,,,,,,,,,,,,,,,,,,,,,,,,,,,,,,,,,,,,,,,,,,,,,,,,,,,,,,
15107,1645651045.032002,123.0,0.0,3314.3588870000003,4885.128418,4221.025879,4263.077147999999,4263.589844,16139.0,3.0,59.0,,,,0.0,2.0,0.0,4.0,0.0,4.0,16.666666,,,,,,,,,,,,,,,,,,,,1.0,0.0,0.0,,,,,,,,,,,,,,,,,,,,,,,,,,,,,,,,11.0,0.0,1.0,0.0,512.0,0.366118,16205.041991999999,1016.874451,425.108276,46.73526,23.468981,192.621658,307.504242,252.12322999999998,371.94693,737.722717,137.218857,128.749084,11.775792,20.62463,12.042327,23.970357999999997,1.715411,0.26469000000000004,0.07496,0.198919,523.582825,58.587123999999996,5.057226,13.099069,14.980726999999998
