,Timestamp,OriginalTimestamp,EEG.Counter,EEG.Interpolated,EEG.AF3,EEG.T7,EEG.Pz,EEG.T8,EEG.AF4,EEG.RawCq,EEG.Battery,EEG.BatteryPercent,MarkerIndex,MarkerType,MarkerValueInt,EEG.MarkerHardware,CQ.AF3,CQ.T7,CQ.Pz,CQ.T8,CQ.AF4,CQ.Overall,EQ.SampleRateQuality,EQ.OVERALL,EQ.AF3,EQ.T7,EQ.Pz,EQ.T8,EQ.AF4,MOT.CounterMems,MOT.InterpolatedMems,MOT.Q0,MOT.Q1,MOT.Q2,MOT.Q3,MOT.AccX,MOT.AccY,MOT.AccZ,MOT.MagX,MOT.MagY,MOT.MagZ,MC.Action,MC.ActionPower,MC.IsActive,PM.Engagement.IsActive,PM.Engagement.Scaled,PM.Engagement.Raw,PM.Engagement.Min,PM.Engagement.Max,PM.Excitement.IsActive,PM.Excitement.Scaled,PM.Excitement.Raw,PM.Excitement.Min,PM.Excitement.Max,PM.LongTermExcitement,PM.Stress.IsActive,PM.Stress.Scaled,PM.Stress.Raw,PM.Stress.Min,PM.Stress.Max,PM.Relaxation.IsActive,PM.Relaxation.Scaled,PM.Relaxation.Raw,PM.Relaxation.Min,PM.Relaxation.Max,PM.Interest.IsActive,PM.Interest.Scaled,PM.Interest.Raw,PM.Interest.Min,PM.Interest.Max,PM.Focus.IsActive,PM.Focus.Scaled,PM.Focus.Raw,PM.Focus.Min,PM.Focus.Max,FE.BlinkWink,FE.HorizontalEyesDirection,FE.UpperFaceAction,FE.UpperFaceActionPower,FE.LowerFaceAction,FE.LowerFaceActionPower,POW.AF3.Theta,POW.AF3.Alpha,POW.AF3.BetaL,POW.AF3.BetaH,POW.AF3.Gamma,POW.T7.Theta,POW.T7.Alpha,POW.T7.BetaL,POW.T7.BetaH,POW.T7.Gamma,POW.Pz.Theta,POW.Pz.Alpha,POW.Pz.BetaL,POW.Pz.BetaH,POW.Pz.Gamma,POW.T8.Theta,POW.T8.Alpha,POW.T8.BetaL,POW.T8.BetaH,POW.T8.Gamma,POW.AF4.Theta,POW.AF4.Alpha,POW.AF4.BetaL,POW.AF4.BetaH,POW.AF4.Gamma
23975,1645818416.822629,1645818416.8513381,111.0,0.0,4273.846191,4583.077147999999,4160.0,4299.487305,4231.282227000001,16186.0,1.0,15.0,35.0,1.0,3.0,0.0,4.0,0.0,4.0,1.0,4.0,41.666668,,,,,,,,,,,,,,,,,,,,1.0,0.0,0.0,,,,,,,,,,,,,,,,,,,,,,,,,,,,,,,,0.0,0.0,1.0,0.0,512.0,1.0,1.143406,1.9756340000000001,1.57293,3.961436,3.5683839999999996,10.927451,24.999252,11.798357000000001,8.787777,11.227551,3.971925,3.3172800000000002,1.0025819999999999,2.428668,2.730327,0.9396389999999999,1.8694060000000001,1.0604209999999998,3.240662,6.262344000000001,2.890393,3.3545019999999997,1.94708,4.923526,4.058212999999999
23976,1645818416.8304448,1645818416.859153,112.0,0.0,4289.743652,4610.256348,4188.205078,4297.436035,4248.717772999999,450.0,1.0,15.0,,,,0.0,4.0,0.0,4.0,1.0,4.0,41.666668,,,,,,,,56.0,0.0,0.169155,0.664063,-0.086426,-0.7231449999999999,0.938491,-0.357916,-0.10009900000000001,-0.017261000000000002,-0.020605000000000002,-0.036411,,,,,,,,,,,,,,,,,,,,,,,,,,,,,,,,,,,,,,,,,,,,,,,,,,,,,,,,,,,,,,,,,
23977,1645818416.8382618,1645818416.866968,113.0,0.0,4283.589844,4570.769043,4188.717772999999,4273.846191,4230.256348,450.0,1.0,15.0,,,,0.0,4.0,0.0,4.0,1.0,4.0,41.666668,,,,,,,,,,,,,,,,,,,,,,,,,,,,,,,,,,,,,,,,,,,,,,,,,,,,,,,,,,,,,,,,,,,,,,,,,,,,,,,,,,,,
23978,1645818416.846078,1645818416.874682,114.0,0.0,4288.717772999999,4604.102539,4187.692383,4248.717772999999,4227.692383,450.0,1.0,15.0,,,,0.0,4.0,0.0,4.0,1.0,4.0,41.666668,,,,,,,,57.0,0.0,0.168945,0.663818,-0.08667000000000001,-0.7233890000000001,0.9428850000000001,-0.354986,-0.106447,-0.017879,-0.020595,-0.032184,,,,,,,,,,,,,,,,,,,,,,,,,,,,,,,,,,,,,,,,,,,,,,,,,,,,,,,,,,,,,,,,,
23979,1645818416.853894,1645818416.882497,115.0,0.0,4315.384765999999,4692.307617,4207.692383,4289.230957,4258.461426,16186.0,1.0,15.0,,,,0.0,4.0,0.0,4.0,1.0,4.0,41.666668,,,,,,,,,,,,,,,,,,,,,,,,,,,,,,,,,,,,,,,,,,,,,,,,,,,,,,0.0,0.0,1.0,0.0,512.0,1.0,,,,,,,,,,,,,,,,,,,,,,,,,
23980,1645818416.86171,1645818416.890312,116.0,0.0,4321.538574,4651.282227000001,4209.230957,4324.615234000001,4269.743652,450.0,1.0,15.0,,,,0.0,4.0,0.0,4.0,1.0,4.0,41.666668,,,,,,,,58.0,0.0,0.168945,0.663818,-0.08667000000000001,-0.7233890000000001,0.944839,-0.352544,-0.095216,-0.016775,-0.020586,-0.03463,,,,,,,,,,,,,,,,,,,,,,,,,,,,,,,,,,,,,,,,,,,,,,,,,,,,,,,,,,,,,,,,,
23981,1645818416.8695269,1645818416.898126,117.0,0.0,4296.922852000001,4574.871582,4197.94873,4278.461426,4248.717772999999,450.0,1.0,15.0,,,,0.0,4.0,0.0,4.0,1.0,4.0,41.666668,,,,,,,,,,,,,,,,,,,,,,,,,,,,,,,,,,,,,,,,,,,,,,,,,,,,,,,,,,,,,,,,,,,,,,,,,,,,,,,,,,,,
23982,1645818416.877343,1645818416.905941,118.0,0.0,4293.333496,4611.794922,4209.230957,4253.333496,4242.563965,450.0,1.0,15.0,,,,0.0,4.0,0.0,4.0,1.0,4.0,41.666668,,,,,,,,59.0,0.0,0.168945,0.663818,-0.08667000000000001,-0.7233890000000001,0.941421,-0.34815,-0.10547000000000001,-0.017490000000000002,-0.020627,-0.036927999999999996,,,,,,,,,,,,,,,,,,,,,,,,,,,,,,,,,,,,,,,,,,,,,,,,,,,,,,,,,,,,,,,,,
23983,1645818416.885159,1645818416.9137561,119.0,0.0,4310.256348,4612.307617,4203.589844,4300.512695,4258.461426,16186.0,1.0,15.0,,,,0.0,4.0,0.0,4.0,1.0,4.0,41.666668,,,,,,,,,,,,,,,,,,,,,,,,,,,,,,,,,,,,,,,,,,,,,,,,,,,,,,0.0,0.0,1.0,0.0,512.0,1.0,,,,,,,,,,,,,,,,,,,,,,,,,
23984,1645818416.892975,1645818416.9215698,120.0,0.0,4316.922852000001,4561.538574,4183.589844,4318.461426,4264.102539,450.0,1.0,15.0,,,,0.0,4.0,0.0,4.0,1.0,4.0,41.666668,,,,,,,,60.0,0.0,0.16885799999999998,0.663574,-0.08667000000000001,-0.723633,0.945327,-0.36230999999999997,-0.101564,-0.018134,-0.020567,-0.038851,,,,,,,,,,,,,,,,,,,,,,,,,,,,,,,,,,,,,,,,,,,,,,,,,,,,,,,,,,,,,,,,,
23985,1645818416.900792,1645818416.929385,121.0,0.0,4307.692383,4618.461426,4187.179688,4267.692383,4242.05127,450.0,1.0,15.0,,,,0.0,4.0,0.0,4.0,1.0,4.0,41.666668,,,,,,,,,,,,,,,,,,,,,,,,,,,,,,,,,,,,,,,,,,,,,,,,,,,,,,,,,,,,,,,,,,,,,,,,,,,,,,,,,,,,
23986,1645818416.908608,1645818416.9373,122.0,0.0,4300.0,4666.153809,4199.487305,4258.974121,4227.692383,450.0,1.0,15.0,,,,0.0,4.0,0.0,4.0,1.0,4.0,41.666668,,,,,,,,61.0,0.0,0.16885799999999998,0.663574,-0.08667000000000001,-0.723633,0.941909,-0.34815,-0.112795,-0.018713,-0.020658000000000003,-0.03438,,,,,,,,,,,,,,,,,,,,,,,,,,,,,,,,,,,,,,,,,,,,,,,,,,,,,,,,,,,,,,,,,
23987,1645818416.916424,1645818416.9451141,123.0,0.0,4325.128418,4613.846191,4214.871582,4289.743652,4260.512695,16186.0,1.0,15.0,,,,0.0,4.0,0.0,4.0,1.0,4.0,41.666668,,,,,,,,,,,,,,,,,,,,,,,,,,,,,,,,,,,,,,,,,,,,,,,,,,,,,,0.0,0.0,1.0,0.0,512.0,1.0,,,,,,,,,,,,,,,,,,,,,,,,,
23988,1645818416.92424,1645818416.952929,124.0,0.0,4351.794922,4629.230957,4233.846191,4283.077147999999,4300.512695,450.0,1.0,15.0,,,,0.0,4.0,0.0,4.0,1.0,4.0,41.666668,,,,,,,,62.0,0.0,0.168896,0.66333,-0.086426,-0.723877,0.9350729999999999,-0.34473200000000004,-0.10888800000000001,-0.019088,-0.020741,-0.036557,,,,,,,,,,,,,,,,,,,,,,,,,,,,,,,,,,,,,,,,,,,,,,,,,,,,,,,,,,,,,,,,,
23989,1645818416.9320571,1645818416.960743,125.0,0.0,4328.717772999999,4731.794922,4205.641113000001,4257.94873,4277.436035,450.0,1.0,15.0,,,,0.0,4.0,0.0,4.0,1.0,4.0,41.666668,,,,,,,,,,,,,,,,,,,,,,,,,,,,,,,,,,,,,,,,,,,,,,,,,,,,,,,,,,,,,,,,,,,,,,,,,,,,,,,,,,,,
23990,1645818416.939873,1645818416.968558,126.0,0.0,4294.871582,4738.461426,4168.717772999999,4253.333496,4239.487305,450.0,1.0,15.0,,,,0.0,4.0,0.0,4.0,1.0,4.0,41.666668,,,,,,,,63.0,0.0,0.169021,0.66333,-0.08618200000000001,-0.723877,0.9560690000000001,-0.359869,-0.109865,-0.019571,-0.020718,-0.032267000000000004,,,,,,,,,,,,,,,,,,,,,,,,,,,,,,,,,,,,,,,,,,,,,,,,,,,,,,,,,,,,,,,,,
23991,1645818416.947689,1645818416.976373,127.0,0.0,4307.692383,4636.922852000001,4204.615234000001,4243.589844,4261.025879,233.0,1.0,15.0,,,,0.0,4.0,0.0,4.0,1.0,4.0,41.666668,1.0,25.0,3.0,0.0,3.0,0.0,3.0,,,,,,,,,,,,,1.0,0.0,0.0,,,,,,,,,,,,,,,,,,,,,,,,,,,,,,,,0.0,0.0,1.0,0.0,512.0,1.0,1.299385,1.951807,1.431137,4.099556,3.213908,11.169831,22.170504,11.184464,7.5248990000000004,11.47892,4.9435139999999995,3.14759,0.8365969999999999,2.635394,2.585715,0.973504,2.185803,1.352767,3.3494269999999995,5.671126999999999,2.901799,3.5833199999999996,1.9141130000000002,5.149146,3.8098349999999996
23992,1645818416.9555051,1645818416.984187,0.0,0.0,4303.077147999999,4567.692383,4216.410156,4268.717772999999,4257.436035,450.0,1.0,15.0,,,,0.0,4.0,0.0,4.0,1.0,4.0,41.666668,,,,,,,,0.0,0.0,0.169021,0.66333,-0.08618200000000001,-0.723877,0.9472799999999999,-0.34521999999999997,-0.121584,-0.020105,-0.020599,-0.034802,,,,,,,,,,,,,,,,,,,,,,,,,,,,,,,,,,,,,,,,,,,,,,,,,,,,,,,,,,,,,,,,,
23993,1645818416.9633212,1645818416.992002,1.0,0.0,4284.102539,4600.0,4181.025879,4322.05127,4228.717772999999,450.0,1.0,15.0,,,,0.0,4.0,0.0,4.0,1.0,4.0,41.666668,,,,,,,,,,,,,,,,,,,,,,,,,,,,,,,,,,,,,,,,,,,,,,,,,,,,,,,,,,,,,,,,,,,,,,,,,,,,,,,,,,,,
23994,1645818416.971138,1645818416.999817,2.0,0.0,4314.871582,4654.358886999999,4203.077147999999,4293.846191,4263.077147999999,16209.0,1.0,15.0,,,,0.0,4.0,0.0,4.0,1.0,4.0,41.666668,,,,,,,,1.0,0.0,0.16914500000000002,0.66333,-0.085938,-0.723877,0.9585110000000001,-0.34473200000000004,-0.1084,-0.020487000000000002,-0.020638999999999998,-0.037035000000000005,,,,,,,,,,,,,,,,,,,,,,,,,,,,,,,,,,,,,,,,,,,,,,,,,,,,,,,,,,,,,,,,,
23995,1645818416.9789538,1645818417.007731,3.0,0.0,4327.692383,4605.641113000001,4220.512695,4256.410156,4295.897461,450.0,1.0,15.0,,,,0.0,4.0,1.0,4.0,1.0,4.0,50.0,,,,,,,,,,,,,,,,,,,,,,,,,,,,,,,,,,,,,,,,,,,,,,,,,,,,,,0.0,0.0,1.0,0.0,512.0,1.0,,,,,,,,,,,,,,,,,,,,,,,,,
23996,1645818416.98677,1645818417.015546,4.0,0.0,4305.128418,4566.666504,4192.820313,4287.179688,4274.358886999999,127.0,1.0,15.0,,,,0.0,4.0,1.0,4.0,1.0,4.0,50.0,,,,,,,,2.0,0.0,0.169232,0.663574,-0.085938,-0.723633,0.95021,-0.343267,-0.11816600000000001,-0.020880000000000003,-0.020723,-0.039142,,,,,,,,,,,,,,,,,,,,,,,,,,,,,,,,,,,,,,,,,,,,,,,,,,,,,,,,,,,,,,,,,
23997,1645818416.994586,1645818417.023361,5.0,0.0,4310.769043,4626.153809,4198.974121,4287.692383,4271.282227000001,450.0,1.0,15.0,,,,0.0,4.0,1.0,4.0,1.0,4.0,50.0,,,,,,,,,,,,,,,,,,,,,,,,,,,,,,,,,,,,,,,,,,,,,,,,,,,,,,,,,,,,,,,,,,,,,,,,,,,,,,,,,,,,
23998,1645818417.002403,1645818417.031175,6.0,0.0,4308.717772999999,4626.153809,4200.0,4247.692383,4273.846191,16178.0,1.0,15.0,,,,0.0,4.0,1.0,4.0,1.0,4.0,50.0,,,,,,,,3.0,0.0,0.169356,0.663574,-0.08569299999999999,-0.723633,0.9282370000000001,-0.352544,-0.107912,-0.021087,-0.020604,-0.040843,,,,,,,,,,,,,,,,,,,,,,,,,,,,,,,,,,,,,,,,,,,,,,,,,,,,,,,,,,,,,,,,,
23999,1645818417.0102189,1645818417.0388901,7.0,0.0,4296.410156,4555.897461,4182.563965,4255.897461,4270.256348,450.0,1.0,15.0,,,,0.0,4.0,1.0,4.0,1.0,4.0,50.0,,,,,,,,,,,,,,,,,,,,,,,,,,,,,,,,,,,,,,,,,,,,,,,,,,,,,,0.0,0.0,1.0,0.0,512.0,1.0,,,,,,,,,,,,,,,,,,,,,,,,,
24000,1645818417.018035,1645818417.046705,8.0,0.0,4316.922852000001,4518.461426,4205.641113000001,4296.922852000001,4301.025879,450.0,1.0,15.0,,,,0.0,4.0,1.0,4.0,1.0,4.0,50.0,,,,,,,,4.0,0.0,0.169356,0.663574,-0.08569299999999999,-0.723633,0.941909,-0.342779,-0.113771,-0.021419,-0.020595,-0.036222000000000004,,,,,,,,,,,,,,,,,,,,,,,,,,,,,,,,,,,,,,,,,,,,,,,,,,,,,,,,,,,,,,,,,
24001,1645818417.025851,1645818417.054519,9.0,0.0,4337.94873,4511.794922,4232.307617,4314.871582,4313.333496,64.0,1.0,15.0,,,,0.0,4.0,1.0,4.0,1.0,4.0,50.0,,,,,,,,,,,,,,,,,,,,,,,,,,,,,,,,,,,,,,,,,,,,,,,,,,,,,,,,,,,,,,,,,,,,,,,,,,,,,,,,,,,,
24002,1645818417.033667,1645818417.062434,10.0,0.0,4320.0,4492.820313,4206.666504,4297.94873,4276.922852000001,450.0,1.0,15.0,,,,0.0,4.0,1.0,4.0,1.0,4.0,50.0,,,,,,,,5.0,0.0,0.168521,0.663818,-0.085449,-0.723633,0.931167,-0.348638,-0.11816600000000001,-0.019326,-0.020684,-0.038312,,,,,,,,,,,,,,,,,,,,,,,,,,,,,,,,,,,,,,,,,,,,,,,,,,,,,,,,,,,,,,,,,
24003,1645818417.0414839,1645818417.0702481,11.0,0.0,4315.384765999999,4472.820313,4196.410156,4284.615234000001,4272.307617,16254.0,1.0,15.0,,,,0.0,4.0,1.0,4.0,1.0,4.0,50.0,,,,,,,,,,,,,,,,,,,,,,,,,,,,,,,,,,,,,,,,,,,,,,,,,,,,,,0.0,0.0,1.0,0.0,512.0,1.0,,,,,,,,,,,,,,,,,,,,,,,,,
24004,1645818417.0493,1645818417.078063,12.0,0.0,4322.05127,4494.358886999999,4206.666504,4300.512695,4293.333496,450.0,1.0,15.0,,,,0.0,4.0,1.0,4.0,1.0,4.0,50.0,,,,,,,,6.0,0.0,0.169688,0.663818,-0.08520499999999999,-0.7233890000000001,0.9355610000000001,-0.349615,-0.09668099999999999,-0.017491,-0.020568,-0.040194,,,,,,,,,,,,,,,,,,,,,,,,,,,,,,,,,,,,,,,,,,,,,,,,,,,,,,,,,,,,,,,,,
24005,1645818417.057116,1645818417.085878,13.0,0.0,4313.333496,4525.128418,4205.128418,4302.05127,4286.153809,450.0,1.0,15.0,,,,0.0,4.0,1.0,4.0,1.0,4.0,50.0,,,,,,,,,,,,,,,,,,,,,,,,,,,,,,,,,,,,,,,,,,,,,,,,,,,,,,,,,,,,,,,,,,,,,,,,,,,,,,,,,,,,
24006,1645818417.064932,1645818417.093692,14.0,0.0,4314.871582,4478.974121,4203.077147999999,4274.358886999999,4287.692383,450.0,1.0,15.0,,,,0.0,4.0,1.0,4.0,1.0,4.0,50.0,,,,,,,,7.0,0.0,0.169688,0.663818,-0.08520499999999999,-0.7233890000000001,0.9463030000000001,-0.343267,-0.112795,-0.015791,-0.020513999999999998,-0.041937,,,,,,,,,,,,,,,,,,,,,,,,,,,,,,,,,,,,,,,,,,,,,,,,,,,,,,,,,,,,,,,,,
24007,1645818417.0727491,1645818417.101507,15.0,0.0,4317.94873,4438.974121,4197.436035,4283.589844,4296.410156,16254.0,1.0,15.0,,,,0.0,4.0,1.0,4.0,1.0,4.0,50.0,,,,,,,,,,,,,,,,,,,,1.0,0.0,0.0,,,,,,,,,,,,,,,,,,,,,,,,,,,,,,,,0.0,0.0,1.0,0.0,512.0,1.0,1.58859,1.8292529999999998,1.317375,3.9285,2.836384,12.391154,21.944599,11.175502999999999,6.482461,12.254053,5.673003,2.738626,0.733035,2.697577,2.566264,1.0662260000000001,2.377394,1.6481119999999998,3.427162,5.265046,2.902596,3.6425650000000003,1.765857,5.05408,3.5712339999999996
24008,1645818417.080565,1645818417.109322,16.0,0.0,4321.025879,4462.05127,4204.102539,4316.922852000001,4300.512695,0.0,1.0,15.0,,,,0.0,4.0,1.0,4.0,1.0,4.0,50.0,,,,,,,,8.0,0.0,0.169688,0.663818,-0.08520499999999999,-0.7233890000000001,0.944839,-0.334478,-0.107424,-0.016653,-0.020513,-0.043505,,,,,,,,,,,,,,,,,,,,,,,,,,,,,,,,,,,,,,,,,,,,,,,,,,,,,,,,,,,,,,,,,
24009,1645818417.088381,1645818417.117136,17.0,0.0,4309.743652,4441.538574,4203.589844,4298.974121,4287.692383,0.0,1.0,15.0,,,,0.0,4.0,1.0,4.0,1.0,4.0,50.0,,,,,,,,,,,,,,,,,,,,,,,,,,,,,,,,,,,,,,,,,,,,,,,,,,,,,,,,,,,,,,,,,,,,,,,,,,,,,,,,,,,,
24010,1645818417.0961971,1645818417.124951,18.0,0.0,4294.358886999999,4447.692383,4188.205078,4261.538574,4264.615234000001,0.0,1.0,15.0,,,,0.0,4.0,1.0,4.0,1.0,4.0,50.0,,,,,,,,9.0,0.0,0.169688,0.663818,-0.08520499999999999,-0.7233890000000001,0.9389790000000001,-0.348638,-0.093751,-0.017429,-0.020415,-0.044965,,,,,,,,,,,,,,,,,,,,,,,,,,,,,,,,,,,,,,,,,,,,,,,,,,,,,,,,,,,,,,,,,
24011,1645818417.1040142,1645818417.132865,19.0,0.0,4304.102539,4511.282227000001,4197.94873,4252.307617,4283.589844,0.0,1.0,15.0,,,,0.0,4.0,1.0,4.0,1.0,4.0,50.0,,,,,,,,,,,,,,,,,,,,,,,,,,,,,,,,,,,,,,,,,,,,,,,,,,,,,,0.0,0.0,1.0,0.0,512.0,1.0,,,,,,,,,,,,,,,,,,,,,,,,,
24012,1645818417.11183,1645818417.14068,20.0,0.0,4343.077147999999,4520.512695,4233.333496,4263.589844,4335.897461,0.0,1.0,15.0,,,,0.0,4.0,1.0,4.0,1.0,4.0,50.0,,,,,,,,10.0,0.0,0.16956500000000002,0.663818,-0.085449,-0.7233890000000001,0.932631,-0.354986,-0.11572400000000001,-0.018078999999999998,-0.020522,-0.039931,,,,,,,,,,,,,,,,,,,,,,,,,,,,,,,,,,,,,,,,,,,,,,,,,,,,,,,,,,,,,,,,,
24013,1645818417.119646,1645818417.148495,21.0,0.0,4349.230957,4501.025879,4225.128418,4293.846191,4317.94873,0.0,1.0,15.0,,,,0.0,4.0,1.0,4.0,1.0,4.0,50.0,,,,,,,,,,,,,,,,,,,,,,,,,,,,,,,,,,,,,,,,,,,,,,,,,,,,,,,,,,,,,,,,,,,,,,,,,,,,,,,,,,,,
24014,1645818417.127463,1645818417.156309,22.0,0.0,4307.179688,4483.077147999999,4184.615234000001,4321.538574,4266.153809,0.0,1.0,15.0,,,,0.0,4.0,1.0,4.0,1.0,4.0,50.0,,,,,,,,11.0,0.0,0.170604,0.663818,-0.085449,-0.7231449999999999,0.948257,-0.353033,-0.095216,-0.018615,-0.02052,-0.041749,,,,,,,,,,,,,,,,,,,,,,,,,,,,,,,,,,,,,,,,,,,,,,,,,,,,,,,,,,,,,,,,,
24015,1645818417.135279,1645818417.164124,23.0,0.0,4302.563965,4450.256348,4195.384765999999,4291.794922,4283.077147999999,0.0,1.0,15.0,,,,0.0,4.0,1.0,4.0,1.0,4.0,50.0,,,,,,,,,,,,,,,,,,,,,,,,,,,,,,,,,,,,,,,,,,,,,,,,,,,,,,0.0,0.0,1.0,0.0,512.0,1.0,,,,,,,,,,,,,,,,,,,,,,,,,
24016,1645818417.143095,1645818417.1719391,24.0,0.0,4330.769043,4449.230957,4229.743652,4247.692383,4308.205078,0.0,1.0,15.0,,,,0.0,4.0,1.0,4.0,1.0,4.0,50.0,,,,,,,,12.0,0.0,0.16952799999999998,0.664063,-0.08569299999999999,-0.7231449999999999,0.939467,-0.34668499999999997,-0.102052,-0.019195,-0.020568,-0.036939,,,,,,,,,,,,,,,,,,,,,,,,,,,,,,,,,,,,,,,,,,,,,,,,,,,,,,,,,,,,,,,,,
24017,1645818417.1509109,1645818417.1797528,25.0,0.0,4322.563965,4467.179688,4216.410156,4238.974121,4296.410156,0.0,1.0,15.0,,,,0.0,4.0,1.0,4.0,1.0,4.0,50.0,,,,,,,,,,,,,,,,,,,,,,,,,,,,,,,,,,,,,,,,,,,,,,,,,,,,,,,,,,,,,,,,,,,,,,,,,,,,,,,,,,,,
24018,1645818417.158727,1645818417.187568,26.0,0.0,4300.0,4475.897461,4188.717772999999,4227.692383,4288.717772999999,0.0,1.0,15.0,,,,0.0,4.0,1.0,4.0,1.0,4.0,50.0,,,,,,,,13.0,0.0,0.16952799999999998,0.664063,-0.08569299999999999,-0.7231449999999999,0.945327,-0.359869,-0.11718900000000002,-0.019717,-0.020611,-0.032708,,,,,,,,,,,,,,,,,,,,,,,,,,,,,,,,,,,,,,,,,,,,,,,,,,,,,,,,,,,,,,,,,
24019,1645818417.166544,1645818417.195383,27.0,0.0,4312.820313,4518.461426,4202.05127,4223.077147999999,4298.461426,0.0,1.0,15.0,,,,0.0,4.0,1.0,4.0,1.0,4.0,50.0,,,,,,,,,,,,,,,,,,,,,,,,,,,,,,,,,,,,,,,,,,,,,,,,,,,,,,0.0,0.0,1.0,0.0,512.0,1.0,,,,,,,,,,,,,,,,,,,,,,,,,
24020,1645818417.17436,1645818417.2032971,28.0,0.0,4317.436035,4523.589844,4221.025879,4270.769043,4299.487305,0.0,1.0,15.0,,,,0.0,4.0,1.0,4.0,1.0,4.0,50.0,,,,,,,,14.0,0.0,0.170566,0.664063,-0.08569299999999999,-0.7229,0.9399559999999999,-0.341314,-0.11230599999999999,-0.018526,-0.020503,-0.028850999999999998,,,,,,,,,,,,,,,,,,,,,,,,,,,,,,,,,,,,,,,,,,,,,,,,,,,,,,,,,,,,,,,,,
24021,1645818417.1821759,1645818417.211112,29.0,0.0,4310.256348,4476.410156,4211.282227000001,4298.461426,4287.692383,0.0,1.0,15.0,,,,0.0,4.0,1.0,4.0,1.0,4.0,50.0,,,,,,,,,,,,,,,,,,,,,,,,,,,,,,,,,,,,,,,,,,,,,,,,,,,,,,,,,,,,,,,,,,,,,,,,,,,,,,,,,,,,
24022,1645818417.189992,1645818417.218926,30.0,0.0,4321.538574,4488.717772999999,4209.743652,4257.436035,4289.743652,0.0,1.0,15.0,,,,0.0,4.0,1.0,4.0,1.0,4.0,50.0,,,,,,,,15.0,0.0,0.16952799999999998,0.664063,-0.08569299999999999,-0.7231449999999999,0.939467,-0.34668499999999997,-0.102052,-0.019115,-0.020503,-0.02538,,,,,,,,,,,,,,,,,,,,,,,,,,,,,,,,,,,,,,,,,,,,,,,,,,,,,,,,,,,,,,,,,
24023,1645818417.197809,1645818417.226741,31.0,0.0,4316.410156,4492.307617,4210.256348,4218.461426,4294.871582,0.0,1.0,15.0,,,,0.0,4.0,1.0,4.0,1.0,4.0,50.0,,,,,,,,,,,,,,,,,,,,1.0,0.0,0.0,,,,,,,,,,,,,,,,,,,,,,,,,,,,,,,,0.0,0.0,1.0,0.0,512.0,1.0,2.088278,1.623517,1.309252,3.51482,2.5556240000000003,13.429432,23.348244,11.632877,5.575387,13.548585999999998,6.049780999999999,2.2175,0.7497060000000001,2.605834,2.6815450000000003,1.157108,2.3638169999999996,1.847293,3.3692629999999997,5.125064,2.968731,3.4534620000000005,1.545507,4.638394,3.4147410000000002
24024,1645818417.205625,1645818417.234556,32.0,0.0,4300.0,4425.641113000001,4199.487305,4256.410156,4283.077147999999,0.0,1.0,15.0,,,,0.0,4.0,1.0,4.0,1.0,4.0,50.0,,,,,,,,16.0,0.0,0.170566,0.664063,-0.08569299999999999,-0.7229,0.9399559999999999,-0.341314,-0.11230599999999999,-0.017985,-0.020406,-0.022256,,,,,,,,,,,,,,,,,,,,,,,,,,,,,,,,,,,,,,,,,,,,,,,,,,,,,,,,,,,,,,,,,
24025,1645818417.2134411,1645818417.24237,33.0,0.0,4325.641113000001,4456.410156,4211.282227000001,4298.974121,4293.846191,0.0,1.0,15.0,,,,0.0,4.0,1.0,4.0,1.0,4.0,50.0,,,,,,,,,,,,,,,,,,,,,,,,,,,,,,,,,,,,,,,,,,,,,,,,,,,,,,,,,,,,,,,,,,,,,,,,,,,,,,,,,,,,
24026,1645818417.221257,1645818417.250185,34.0,0.0,4349.743652,4555.897461,4217.94873,4268.717772999999,4317.436035,0.0,1.0,15.0,,,,0.0,4.0,1.0,4.0,1.0,4.0,50.0,,,,,,,,17.0,0.0,0.171513,0.663818,-0.08569299999999999,-0.7229,0.940932,-0.353033,-0.10351700000000001,-0.016333,-0.020513999999999998,-0.025841000000000003,,,,,,,,,,,,,,,,,,,,,,,,,,,,,,,,,,,,,,,,,,,,,,,,,,,,,,,,,,,,,,,,,
24027,1645818417.229073,1645818417.258,35.0,0.0,4344.615234000001,4518.461426,4211.794922,4240.512695,4316.922852000001,0.0,1.0,15.0,,,,0.0,4.0,1.0,4.0,1.0,4.0,50.0,,,,,,,,,,,,,,,,,,,,,,,,,,,,,,,,,,,,,,,,,,,,,,,,,,,,,,0.0,0.0,1.0,0.0,512.0,1.0,,,,,,,,,,,,,,,,,,,,,,,,,
24028,1645818417.23689,1645818417.265814,36.0,0.0,4331.282227000001,4458.974121,4214.358886999999,4264.615234000001,4304.102539,0.0,1.0,15.0,,,,0.0,4.0,1.0,4.0,1.0,4.0,50.0,,,,,,,,18.0,0.0,0.171513,0.663818,-0.08569299999999999,-0.7229,0.9438620000000001,-0.361334,-0.09424,-0.017092,-0.020562,-0.022671,,,,,,,,,,,,,,,,,,,,,,,,,,,,,,,,,,,,,,,,,,,,,,,,,,,,,,,,,,,,,,,,,
24029,1645818417.2447062,1645818417.273629,37.0,0.0,4327.179688,4525.128418,4213.846191,4271.282227000001,4309.743652,0.0,1.0,15.0,,,,0.0,4.0,1.0,4.0,1.0,4.0,50.0,,,,,,,,,,,,,,,,,,,,,,,,,,,,,,,,,,,,,,,,,,,,,,,,,,,,,,,,,,,,,,,,,,,,,,,,,,,,,,,,,,,,
24030,1645818417.252522,1645818417.281544,38.0,0.0,4338.974121,4526.153809,4209.743652,4244.102539,4325.641113000001,0.0,1.0,15.0,,,,0.0,4.0,1.0,4.0,1.0,4.0,50.0,,,,,,,,19.0,0.0,0.170566,0.664063,-0.08569299999999999,-0.7229,0.923842,-0.358892,-0.10498199999999999,-0.017776,-0.020557,-0.026166000000000002,,,,,,,,,,,,,,,,,,,,,,,,,,,,,,,,,,,,,,,,,,,,,,,,,,,,,,,,,,,,,,,,,
24031,1645818417.260338,1645818417.289358,39.0,0.0,4350.256348,4440.0,4219.487305,4267.179688,4332.307617,0.0,1.0,15.0,,,,0.0,4.0,1.0,4.0,1.0,4.0,50.0,,,,,,,,,,,,,,,,,,,,,,,,,,,,,,,,,,,,,,,,,,,,,,,,,,,,,,0.0,0.0,1.0,0.0,512.0,1.0,,,,,,,,,,,,,,,,,,,,,,,,,
24032,1645818417.268155,1645818417.297173,40.0,0.0,4334.358886999999,4453.333496,4221.025879,4272.307617,4317.94873,0.0,1.0,15.0,,,,0.0,4.0,1.0,4.0,1.0,4.0,50.0,,,,,,,,20.0,0.0,0.170566,0.664063,-0.08569299999999999,-0.7229,0.9365379999999999,-0.358892,-0.095705,-0.018488,-0.020552,-0.029213,,,,,,,,,,,,,,,,,,,,,,,,,,,,,,,,,,,,,,,,,,,,,,,,,,,,,,,,,,,,,,,,,
24033,1645818417.2759712,1645818417.304987,41.0,0.0,4321.538574,4498.461426,4214.871582,4177.94873,4307.692383,0.0,1.0,15.0,,,,0.0,4.0,1.0,4.0,1.0,4.0,50.0,,,,,,,,,,,,,,,,,,,,,,,,,,,,,,,,,,,,,,,,,,,,,,,,,,,,,,,,,,,,,,,,,,,,,,,,,,,,,,,,,,,,
24034,1645818417.283787,1645818417.3128018,42.0,0.0,4335.897461,4472.820313,4221.538574,4137.94873,4320.0,0.0,1.0,15.0,,,,0.0,4.0,1.0,4.0,1.0,4.0,50.0,,,,,,,,21.0,0.0,0.171597,0.664063,-0.08569299999999999,-0.7226560000000001,0.938003,-0.361822,-0.111818,-0.016737000000000002,-0.020499,-0.031956,,,,,,,,,,,,,,,,,,,,,,,,,,,,,,,,,,,,,,,,,,,,,,,,,,,,,,,,,,,,,,,,,
24035,1645818417.2916028,1645818417.320617,43.0,0.0,4343.077147999999,4448.717772999999,4225.641113000001,4240.512695,4321.025879,0.0,1.0,15.0,,,,0.0,4.0,1.0,4.0,1.0,4.0,50.0,,,,,,,,,,,,,,,,,,,,,,,,,,,,,,,,,,,,,,,,,,,,,,,,,,,,,,0.0,0.0,1.0,0.0,512.0,1.0,,,,,,,,,,,,,,,,,,,,,,,,,
24036,1645818417.2994199,1645818417.3284311,44.0,0.0,4334.871582,4480.0,4213.846191,4295.384765999999,4305.641113000001,0.0,1.0,15.0,,,,0.0,4.0,1.0,4.0,1.0,4.0,50.0,,,,,,,,22.0,0.0,0.171597,0.664063,-0.08569299999999999,-0.7226560000000001,0.929702,-0.35547399999999996,-0.098146,-0.015112,-0.020597,-0.034522000000000004,,,,,,,,,,,,,,,,,,,,,,,,,,,,,,,,,,,,,,,,,,,,,,,,,,,,,,,,,,,,,,,,,
24037,1645818417.307236,1645818417.336246,45.0,0.0,4345.641113000001,4520.512695,4216.922852000001,4234.871582,4312.307617,0.0,1.0,15.0,,,,0.0,4.0,1.0,4.0,1.0,4.0,50.0,,,,,,,,,,,,,,,,,,,,,,,,,,,,,,,,,,,,,,,,,,,,,,,,,,,,,,,,,,,,,,,,,,,,,,,,,,,,,,,,,,,,
24038,1645818417.315052,1645818417.344061,46.0,0.0,4356.922852000001,4501.025879,4221.538574,4212.307617,4326.666504,0.0,1.0,15.0,,,,0.0,4.0,1.0,4.0,1.0,4.0,50.0,,,,,,,,23.0,0.0,0.170566,0.664063,-0.08569299999999999,-0.7229,0.932143,-0.348638,-0.11767799999999999,-0.016091,-0.020588,-0.036782999999999996,,,,,,,,,,,,,,,,,,,,,,,,,,,,,,,,,,,,,,,,,,,,,,,,,,,,,,,,,,,,,,,,,
24039,1645818417.3228679,1645818417.351975,47.0,0.0,4329.230957,4493.846191,4194.871582,4243.077147999999,4308.717772999999,0.0,1.0,15.0,,,,0.0,4.0,1.0,4.0,1.0,4.0,50.0,,,,,,,,,,,,,,,,,,,,1.0,0.0,0.0,,,,,,,,,,,,,,,,,,,,,,,,,,,,,,,,0.0,0.0,1.0,0.0,512.0,1.0,2.778975,1.36806,1.443808,2.9751630000000002,2.416839,13.978078,24.79192,12.458506,4.947267,15.189504999999999,6.012159,1.725786,0.890324,2.381408,2.875355,1.2384700000000002,2.187076,1.928248,3.165492,5.2051620000000005,3.141379,3.014479,1.339218,3.9941730000000004,3.351716
24040,1645818417.330685,1645818417.35979,48.0,0.0,4313.846191,4521.025879,4174.358886999999,4251.282227000001,4298.461426,0.0,1.0,15.0,,,,0.0,4.0,1.0,4.0,1.0,4.0,50.0,,,,,,,,24.0,0.0,0.170688,0.664063,-0.085449,-0.7229,0.929702,-0.354498,-0.1084,-0.016826,-0.02058,-0.038769,,,,,,,,,,,,,,,,,,,,,,,,,,,,,,,,,,,,,,,,,,,,,,,,,,,,,,,,,,,,,,,,,
24041,1645818417.338501,1645818417.367605,49.0,0.0,4335.897461,4476.410156,4186.666504,4268.205078,4308.717772999999,0.0,1.0,15.0,,,,0.0,4.0,1.0,4.0,1.0,4.0,50.0,,,,,,,,,,,,,,,,,,,,,,,,,,,,,,,,,,,,,,,,,,,,,,,,,,,,,,,,,,,,,,,,,,,,,,,,,,,,,,,,,,,,
24042,1645818417.346317,1645818417.375419,50.0,0.0,4338.974121,4446.153809,4196.922852000001,4298.974121,4295.897461,0.0,1.0,15.0,,,,0.0,4.0,1.0,4.0,1.0,4.0,50.0,,,,,,,,25.0,0.0,0.170688,0.664063,-0.085449,-0.7229,0.938491,-0.354986,-0.1084,-0.017487,-0.020671000000000002,-0.034355000000000004,,,,,,,,,,,,,,,,,,,,,,,,,,,,,,,,,,,,,,,,,,,,,,,,,,,,,,,,,,,,,,,,,
24043,1645818417.354133,1645818417.383234,51.0,0.0,4344.615234000001,4511.794922,4208.717772999999,4338.974121,4297.436035,0.0,1.0,15.0,,,,0.0,4.0,1.0,4.0,1.0,4.0,50.0,,,,,,,,,,,,,,,,,,,,,,,,,,,,,,,,,,,,,,,,,,,,,,,,,,,,,,0.0,0.0,1.0,0.0,512.0,1.0,,,,,,,,,,,,,,,,,,,,,,,,,
24044,1645818417.36195,1645818417.391048,52.0,0.0,4374.871582,4523.589844,4229.743652,4371.282227000001,4340.0,0.0,1.0,15.0,,,,0.0,4.0,1.0,4.0,1.0,4.0,50.0,,,,,,,,26.0,0.0,0.17081,0.664063,-0.08520499999999999,-0.7229,0.9350729999999999,-0.338872,-0.104005,-0.01818,-0.020703,-0.036632,,,,,,,,,,,,,,,,,,,,,,,,,,,,,,,,,,,,,,,,,,,,,,,,,,,,,,,,,,,,,,,,,
24045,1645818417.369766,1645818417.398863,53.0,0.0,4351.282227000001,4459.487305,4206.153809,4347.692383,4331.282227000001,0.0,1.0,15.0,,,,0.0,4.0,1.0,4.0,1.0,4.0,50.0,,,,,,,,,,,,,,,,,,,,,,,,,,,,,,,,,,,,,,,,,,,,,,,,,,,,,,,,,,,,,,,,,,,,,,,,,,,,,,,,,,,,
24046,1645818417.377582,1645818417.406678,54.0,0.0,4321.025879,4463.077147999999,4182.563965,4309.743652,4295.897461,0.0,1.0,15.0,,,,0.0,4.0,1.0,4.0,1.0,4.0,50.0,,,,,,,,27.0,0.0,0.17081,0.664063,-0.08520499999999999,-0.7229,0.941909,-0.33789600000000003,-0.104005,-0.018706,-0.020684,-0.038536,,,,,,,,,,,,,,,,,,,,,,,,,,,,,,,,,,,,,,,,,,,,,,,,,,,,,,,,,,,,,,,,,
24047,1645818417.3853981,1645818417.414492,55.0,0.0,4350.769043,4489.230957,4205.128418,4310.256348,4311.282227000001,0.0,1.0,15.0,,,,0.0,4.0,1.0,4.0,1.0,4.0,50.0,,,,,,,,,,,,,,,,,,,,,,,,,,,,,,,,,,,,,,,,,,,,,,,,,,,,,,0.0,0.0,1.0,0.0,512.0,1.0,,,,,,,,,,,,,,,,,,,,,,,,,
24048,1645818417.393214,1645818417.4224072,56.0,0.0,4365.128418,4461.025879,4220.0,4306.666504,4326.153809,0.0,1.0,15.0,,,,0.0,4.0,1.0,4.0,1.0,4.0,50.0,,,,,,,,28.0,0.0,0.170604,0.663818,-0.085449,-0.7231449999999999,0.9331200000000001,-0.34815,-0.107424,-0.019178999999999998,-0.020763999999999998,-0.034096,,,,,,,,,,,,,,,,,,,,,,,,,,,,,,,,,,,,,,,,,,,,,,,,,,,,,,,,,,,,,,,,,
24049,1645818417.401031,1645818417.430222,57.0,0.0,4352.307617,4441.538574,4213.846191,4275.384765999999,4324.102539,0.0,1.0,15.0,,,,0.0,4.0,1.0,4.0,1.0,4.0,50.0,,,,,,,,,,,,,,,,,,,,,,,,,,,,,,,,,,,,,,,,,,,,,,,,,,,,,,,,,,,,,,,,,,,,,,,,,,,,,,,,,,,,
24050,1645818417.408847,1645818417.438036,58.0,0.0,4366.666504,4448.205078,4223.589844,4277.436035,4335.897461,0.0,1.0,15.0,,,,0.0,4.0,1.0,4.0,1.0,4.0,50.0,,,,,,,,29.0,0.0,0.170726,0.663818,-0.08520499999999999,-0.7231449999999999,0.9355610000000001,-0.350591,-0.112795,-0.017408,-0.020738,-0.0364,,,,,,,,,,,,,,,,,,,,,,,,,,,,,,,,,,,,,,,,,,,,,,,,,,,,,,,,,,,,,,,,,
24051,1645818417.4166632,1645818417.445851,59.0,0.0,4374.358886999999,4445.128418,4231.282227000001,4308.205078,4326.666504,0.0,1.0,15.0,,,,0.0,4.0,1.0,4.0,1.0,4.0,50.0,,,,,,,,,,,,,,,,,,,,,,,,,,,,,,,,,,,,,,,,,,,,,,,,,,,,,,0.0,0.0,1.0,0.0,512.0,1.0,,,,,,,,,,,,,,,,,,,,,,,,,
24052,1645818417.424479,1645818417.453666,60.0,0.0,4353.846191,4453.846191,4220.512695,4311.794922,4310.256348,0.0,1.0,15.0,,,,0.0,4.0,1.0,4.0,1.0,4.0,50.0,,,,,,,,30.0,0.0,0.169688,0.663818,-0.08520499999999999,-0.7233890000000001,0.949722,-0.339361,-0.11767799999999999,-0.01635,-0.020715,-0.038473,,,,,,,,,,,,,,,,,,,,,,,,,,,,,,,,,,,,,,,,,,,,,,,,,,,,,,,,,,,,,,,,,
24053,1645818417.432296,1645818417.4614801,61.0,0.0,4340.0,4511.794922,4195.897461,4244.102539,4306.153809,0.0,1.0,15.0,,,,0.0,4.0,1.0,4.0,1.0,4.0,50.0,,,,,,,,,,,,,,,,,,,,,,,,,,,,,,,,,,,,,,,,,,,,,,,,,,,,,,,,,,,,,,,,,,,,,,,,,,,,,,,,,,,,
24054,1645818417.4401119,1645818417.469295,62.0,0.0,4349.230957,4514.358886999999,4201.025879,4196.410156,4303.077147999999,0.0,1.0,15.0,,,,0.0,4.0,1.0,4.0,1.0,4.0,50.0,,,,,,,,31.0,0.0,0.169688,0.663818,-0.08520499999999999,-0.7233890000000001,0.9560690000000001,-0.344244,-0.11523599999999999,-0.017206,-0.020791999999999998,-0.034137,,,,,,,,,,,,,,,,,,,,,,,,,,,,,,,,,,,,,,,,,,,,,,,,,,,,,,,,,,,,,,,,,
24055,1645818417.447928,1645818417.477109,63.0,0.0,4371.282227000001,4461.538574,4242.563965,4244.102539,4319.487305,0.0,1.0,15.0,,,,0.0,4.0,1.0,4.0,1.0,4.0,50.0,1.0,25.0,4.0,0.0,4.0,0.0,3.0,,,,,,,,,,,,,1.0,0.0,0.0,,,,,,,,,,,,,,,,,,,,,,,,,,,,,,,,0.0,0.0,1.0,0.0,512.0,1.0,3.545236,1.107322,1.683411,2.4359509999999998,2.383756,14.700322,24.965326,13.592220999999999,4.898035,16.797655,5.596031,1.344168,1.106225,2.0710990000000002,3.0550919999999997,1.405192,1.977034,1.9282110000000001,2.966494,5.390861,3.38405,2.403228,1.20125,3.2906129999999996,3.3383160000000003
24056,1645818417.455744,1645818417.484924,64.0,0.0,4357.94873,4492.307617,4233.846191,4276.410156,4312.307617,450.0,1.0,15.0,,,,0.0,4.0,1.0,4.0,1.0,4.0,50.0,,,,,,,,32.0,0.0,0.170604,0.663818,-0.085449,-0.7231449999999999,0.934585,-0.35108,-0.106447,-0.017925999999999997,-0.020812999999999998,-0.036387,,,,,,,,,,,,,,,,,,,,,,,,,,,,,,,,,,,,,,,,,,,,,,,,,,,,,,,,,,,,,,,,,
24057,1645818417.4635599,1645818417.492739,65.0,0.0,4336.410156,4526.153809,4199.487305,4246.153809,4282.05127,450.0,1.0,15.0,,,,0.0,4.0,1.0,4.0,1.0,4.0,50.0,,,,,,,,,,,,,,,,,,,,,,,,,,,,,,,,,,,,,,,,,,,,,,,,,,,,,,,,,,,,,,,,,,,,,,,,,,,,,,,,,,,,
24058,1645818417.471377,1645818417.500653,66.0,0.0,4343.077147999999,4476.922852000001,4204.102539,4237.436035,4278.974121,145.0,1.0,15.0,,,,0.0,1.0,4.0,4.0,0.0,4.0,41.666668,,,,,,,,33.0,0.0,0.170604,0.663818,-0.085449,-0.7231449999999999,0.9355610000000001,-0.352544,-0.11133,-0.018575,-0.020733,-0.032212,,,,,,,,,,,,,,,,,,,,,,,,,,,,,,,,,,,,,,,,,,,,,,,,,,,,,,,,,,,,,,,,,
24059,1645818417.479193,1645818417.508468,67.0,0.0,4347.179688,4467.692383,4209.743652,4258.974121,4278.974121,450.0,1.0,15.0,,,,0.0,1.0,4.0,4.0,0.0,4.0,41.666668,,,,,,,,,,,,,,,,,,,,,,,,,,,,,,,,,,,,,,,,,,,,,,,,,,,,,,0.0,0.0,1.0,0.0,512.0,1.0,,,,,,,,,,,,,,,,,,,,,,,,,
24060,1645818417.487009,1645818417.516283,68.0,0.0,4336.410156,4517.436035,4198.974121,4275.384765999999,4252.820313,16181.0,1.0,15.0,,,,0.0,1.0,4.0,4.0,0.0,4.0,41.666668,,,,,,,,34.0,0.0,0.16956500000000002,0.663818,-0.085449,-0.7233890000000001,0.922866,-0.352544,-0.093751,-0.017499,-0.02076,-0.034801,,,,,,,,,,,,,,,,,,,,,,,,,,,,,,,,,,,,,,,,,,,,,,,,,,,,,,,,,,,,,,,,,
24061,1645818417.494825,1645818417.524097,69.0,0.0,4340.512695,4526.666504,4214.358886999999,4309.743652,4262.05127,450.0,1.0,15.0,,,,0.0,1.0,4.0,4.0,0.0,4.0,41.666668,,,,,,,,,,,,,,,,,,,,,,,,,,,,,,,,,,,,,,,,,,,,,,,,,,,,,,,,,,,,,,,,,,,,,,,,,,,,,,,,,,,,
24062,1645818417.502642,1645818417.5319118,70.0,0.0,4358.461426,4489.743652,4234.358886999999,4330.769043,4296.410156,16109.0,1.0,15.0,,,,0.0,1.0,4.0,4.0,0.0,4.0,41.666668,,,,,,,,35.0,0.0,0.16956500000000002,0.663818,-0.085449,-0.7233890000000001,0.938003,-0.34766199999999997,-0.109377,-0.015847,-0.020783000000000003,-0.037132,,,,,,,,,,,,,,,,,,,,,,,,,,,,,,,,,,,,,,,,,,,,,,,,,,,,,,,,,,,,,,,,,
24063,1645818417.510458,1645818417.539727,71.0,0.0,4367.179688,4460.0,4231.282227000001,4328.205078,4285.641113000001,450.0,1.0,15.0,,,,0.0,1.0,4.0,4.0,0.0,4.0,41.666668,,,,,,,,,,,,,,,,,,,,,,,,,,,,,,,,,,,,,,,,,,,,,,,,,,,,,,0.0,0.0,1.0,0.0,512.0,1.0,,,,,,,,,,,,,,,,,,,,,,,,,
24064,1645818417.518274,1645818417.547541,72.0,0.0,4358.974121,4517.436035,4218.974121,4319.487305,4270.256348,450.0,1.0,15.0,,,,0.0,1.0,4.0,4.0,0.0,4.0,41.666668,,,,,,,,36.0,0.0,0.170518,0.663574,-0.085449,-0.7233890000000001,0.9331200000000001,-0.335943,-0.113283,-0.016557,-0.020658000000000003,-0.03293,,,,,,,,,,,,,,,,,,,,,,,,,,,,,,,,,,,,,,,,,,,,,,,,,,,,,,,,,,,,,,,,,
24065,1645818417.526091,1645818417.555356,73.0,0.0,4343.589844,4584.615234000001,4203.589844,4267.179688,4289.230957,6.0,1.0,15.0,,,,0.0,1.0,4.0,4.0,0.0,4.0,41.666668,,,,,,,,,,,,,,,,,,,,,,,,,,,,,,,,,,,,,,,,,,,,,,,,,,,,,,,,,,,,,,,,,,,,,,,,,,,,,,,,,,,,
24066,1645818417.533907,1645818417.5632699,74.0,0.0,4333.333496,4537.94873,4191.282227000001,4223.589844,4281.025879,450.0,1.0,15.0,,,,0.0,1.0,4.0,4.0,0.0,0.0,8.333333,,,,,,,,37.0,0.0,0.170518,0.663574,-0.085449,-0.7233890000000001,0.9355610000000001,-0.356939,-0.096193,-0.017245,-0.020594,-0.029001999999999997,,,,,,,,,,,,,,,,,,,,,,,,,,,,,,,,,,,,,,,,,,,,,,,,,,,,,,,,,,,,,,,,,
24067,1645818417.541723,1645818417.571085,75.0,0.0,4319.487305,4565.641113000001,4177.94873,4250.769043,4229.230957,2.0,1.0,15.0,,,,0.0,1.0,4.0,4.0,0.0,0.0,8.333333,,,,,,,,,,,,,,,,,,,,,,,,,,,,,,,,,,,,,,,,,,,,,,,,,,,,,,0.0,0.0,1.0,0.0,512.0,1.0,,,,,,,,,,,,,,,,,,,,,,,,,
24068,1645818417.549539,1645818417.5789,76.0,0.0,4342.05127,4643.077147999999,4190.769043,4275.384765999999,4249.230957,450.0,1.0,15.0,,,,0.0,1.0,4.0,4.0,0.0,0.0,8.333333,,,,,,,,38.0,0.0,0.16956500000000002,0.663818,-0.085449,-0.7233890000000001,0.938003,-0.34766199999999997,-0.109377,-0.015618,-0.020635,-0.031913,,,,,,,,,,,,,,,,,,,,,,,,,,,,,,,,,,,,,,,,,,,,,,,,,,,,,,,,,,,,,,,,,
24069,1645818417.5573552,1645818417.586714,77.0,0.0,4390.256348,4551.794922,4228.205078,4264.102539,4313.333496,450.0,1.0,15.0,,,,0.0,1.0,4.0,4.0,0.0,0.0,8.333333,,,,,,,,,,,,,,,,,,,,,,,,,,,,,,,,,,,,,,,,,,,,,,,,,,,,,,,,,,,,,,,,,,,,,,,,,,,,,,,,,,,,
24070,1645818417.565172,1645818417.594529,78.0,0.0,4381.538574,4471.794922,4219.487305,4272.820313,4293.846191,450.0,1.0,15.0,,,,0.0,1.0,4.0,4.0,0.0,0.0,8.333333,,,,,,,,39.0,0.0,0.169356,0.663574,-0.08569299999999999,-0.723633,0.9433739999999999,-0.334478,-0.11084200000000001,-0.016449000000000002,-0.020622,-0.034532,,,,,,,,,,,,,,,,,,,,,,,,,,,,,,,,,,,,,,,,,,,,,,,,,,,,,,,,,,,,,,,,,
24071,1645818417.572988,1645818417.602344,79.0,0.0,4336.922852000001,4536.922852000001,4185.128418,4298.974121,4255.384765999999,2.0,1.0,15.0,,,,0.0,1.0,4.0,4.0,0.0,0.0,8.333333,,,,,,,,,,,,,,,,,,,,1.0,0.0,0.0,,,,,,,,,,,,,,,,,,,,,,,,,,,,,,,,0.0,0.0,1.0,0.0,512.0,1.0,4.217509,0.887915,1.936419,2.001417,2.379254,15.792394,23.349689,15.069281,5.56871,17.898958,4.9410940000000005,1.092099,1.324175,1.7497740000000002,3.133466,1.9326240000000001,1.875105,1.93767,3.0857189999999997,5.599747,3.572431,1.7437330000000002,1.137752,2.695127,3.3131150000000003
24072,1645818417.5808039,1645818417.610158,80.0,0.0,4336.410156,4527.179688,4195.384765999999,4297.436035,4285.128418,450.0,1.0,15.0,,,,0.0,1.0,4.0,4.0,0.0,0.0,8.333333,,,,,,,,40.0,0.0,0.169356,0.663574,-0.08569299999999999,-0.723633,0.9340959999999999,-0.33984899999999996,-0.10498199999999999,-0.017099,-0.020659,-0.036841000000000006,,,,,,,,,,,,,,,,,,,,,,,,,,,,,,,,,,,,,,,,,,,,,,,,,,,,,,,,,,,,,,,,,
24073,1645818417.58862,1645818417.617973,81.0,0.0,4363.589844,4470.256348,4231.794922,4307.179688,4319.487305,450.0,1.0,15.0,,,,0.0,1.0,4.0,4.0,0.0,0.0,8.333333,,,,,,,,,,,,,,,,,,,,,,,,,,,,,,,,,,,,,,,,,,,,,,,,,,,,,,,,,,,,,,,,,,,,,,,,,,,,,,,,,,,,
24074,1645818417.596437,1645818417.625788,82.0,0.0,4377.436035,4545.641113000001,4243.077147999999,4326.153809,4316.410156,450.0,1.0,15.0,,,,0.0,1.0,4.0,4.0,0.0,0.0,8.333333,,,,,,,,41.0,0.0,0.169356,0.663574,-0.08569299999999999,-0.723633,0.946792,-0.340337,-0.10498199999999999,-0.017634999999999998,-0.020693,-0.03887,,,,,,,,,,,,,,,,,,,,,,,,,,,,,,,,,,,,,,,,,,,,,,,,,,,,,,,,,,,,,,,,,
24075,1645818417.6042528,1645818417.633602,83.0,0.0,4372.820313,4570.256348,4212.820313,4288.205078,4291.282227000001,2.0,1.0,15.0,,,,0.0,1.0,4.0,4.0,0.0,0.0,8.333333,,,,,,,,,,,,,,,,,,,,,,,,,,,,,,,,,,,,,,,,,,,,,,,,,,,,,,0.0,0.0,1.0,0.0,512.0,1.0,,,,,,,,,,,,,,,,,,,,,,,,,
24076,1645818417.612069,1645818417.641517,84.0,0.0,4408.205078,4502.563965,4202.05127,4241.025879,4293.846191,450.0,1.0,15.0,,,,0.0,1.0,4.0,4.0,0.0,0.0,8.333333,,,,,,,,42.0,0.0,0.170273,0.663574,-0.085938,-0.7233890000000001,0.9463030000000001,-0.342779,-0.104494,-0.018167,-0.020723,-0.034543,,,,,,,,,,,,,,,,,,,,,,,,,,,,,,,,,,,,,,,,,,,,,,,,,,,,,,,,,,,,,,,,,
24077,1645818417.619885,1645818417.649331,85.0,0.0,4503.077147999999,4523.589844,4224.102539,4262.05127,4346.153809,450.0,1.0,15.0,,,,0.0,1.0,4.0,4.0,0.0,0.0,8.333333,,,,,,,,,,,,,,,,,,,,,,,,,,,,,,,,,,,,,,,,,,,,,,,,,,,,,,,,,,,,,,,,,,,,,,,,,,,,,,,,,,,,
24078,1645818417.627702,1645818417.657146,86.0,0.0,4587.692383,4568.205078,4223.589844,4297.94873,4382.05127,450.0,1.0,15.0,,,,0.0,1.0,4.0,4.0,0.0,0.0,8.333333,,,,,,,,43.0,0.0,0.170273,0.663574,-0.085938,-0.7233890000000001,0.945815,-0.338872,-0.112795,-0.017131,-0.020653,-0.036851,,,,,,,,,,,,,,,,,,,,,,,,,,,,,,,,,,,,,,,,,,,,,,,,,,,,,,,,,,,,,,,,,
24079,1645818417.635518,1645818417.6649609,87.0,0.0,4640.512695,4552.307617,4198.974121,4280.0,4382.05127,2.0,1.0,15.0,,,,0.0,1.0,4.0,4.0,0.0,0.0,8.333333,,,,,,,,,,,,,,,,,,,,,,,,,,,,,,,,,,,,,,,,,,,,,,,,,,,,,,0.0,0.0,1.0,0.0,512.0,1.0,,,,,,,,,,,,,,,,,,,,,,,,,
24080,1645818417.643334,1645818417.672775,88.0,0.0,4704.615234000001,4555.897461,4198.461426,4263.077147999999,4410.256348,450.0,1.0,15.0,,,,0.0,1.0,4.0,4.0,0.0,0.0,8.333333,,,,,,,,44.0,0.0,0.170149,0.663574,-0.08618200000000001,-0.7233890000000001,0.932143,-0.336919,-0.129397,-0.017762,-0.020687,-0.038879000000000004,,,,,,,,,,,,,,,,,,,,,,,,,,,,,,,,,,,,,,,,,,,,,,,,,,,,,,,,,,,,,,,,,
24081,1645818417.65115,1645818417.6805902,89.0,0.0,4772.820313,4589.743652,4226.666504,4265.128418,4472.307617,450.0,1.0,15.0,,,,0.0,1.0,4.0,4.0,0.0,0.0,8.333333,,,,,,,,,,,,,,,,,,,,,,,,,,,,,,,,,,,,,,,,,,,,,,,,,,,,,,,,,,,,,,,,,,,,,,,,,,,,,,,,,,,,
24082,1645818417.658966,1645818417.688405,90.0,0.0,4843.589844,4583.077147999999,4267.179688,4274.871582,4524.615234000001,450.0,1.0,15.0,,,,0.0,1.0,4.0,4.0,0.0,0.0,8.333333,,,,,,,,45.0,0.0,0.171099,0.66333,-0.08618200000000001,-0.7233890000000001,0.9404440000000001,-0.335943,-0.10693499999999999,-0.018378,-0.020621,-0.034454000000000005,,,,,,,,,,,,,,,,,,,,,,,,,,,,,,,,,,,,,,,,,,,,,,,,,,,,,,,,,,,,,,,,,
24083,1645818417.666783,1645818417.696219,91.0,0.0,4884.615234000001,4545.641113000001,4266.153809,4284.615234000001,4522.05127,2.0,1.0,15.0,,,,0.0,1.0,4.0,4.0,0.0,0.0,8.333333,,,,,,,,,,,,,,,,,,,,,,,,,,,,,,,,,,,,,,,,,,,,,,,,,,,,,,0.0,0.0,1.0,0.0,512.0,1.0,,,,,,,,,,,,,,,,,,,,,,,,,
24084,1645818417.674599,1645818417.704134,92.0,0.0,4866.153809,4539.487305,4222.05127,4284.102539,4489.743652,450.0,1.0,15.0,,,,0.0,1.0,4.0,4.0,0.0,0.0,8.333333,,,,,,,,46.0,0.0,0.170025,0.663574,-0.086426,-0.7233890000000001,0.95314,-0.338384,-0.10547000000000001,-0.018933000000000002,-0.020561000000000003,-0.03677,,,,,,,,,,,,,,,,,,,,,,,,,,,,,,,,,,,,,,,,,,,,,,,,,,,,,,,,,,,,,,,,,
24085,1645818417.682415,1645818417.7119482,93.0,0.0,4872.820313,4575.384765999999,4216.410156,4292.307617,4528.205078,450.0,1.0,15.0,,,,0.0,1.0,4.0,4.0,0.0,0.0,8.333333,,,,,,,,,,,,,,,,,,,,,,,,,,,,,,,,,,,,,,,,,,,,,,,,,,,,,,,,,,,,,,,,,,,,,,,,,,,,,,,,,,,,
24086,1645818417.690231,1645818417.719763,94.0,0.0,4907.179688,4588.717772999999,4234.358886999999,4301.538574,4561.538574,450.0,1.0,15.0,,,,0.0,1.0,4.0,4.0,0.0,0.0,8.333333,,,,,,,,47.0,0.0,0.170025,0.663574,-0.086426,-0.7233890000000001,0.948257,-0.354498,-0.11572400000000001,-0.019384000000000002,-0.020604,-0.038806,,,,,,,,,,,,,,,,,,,,,,,,,,,,,,,,,,,,,,,,,,,,,,,,,,,,,,,,,,,,,,,,,
24087,1645818417.698048,1645818417.727578,95.0,0.0,4903.077147999999,4581.538574,4229.230957,4272.307617,4513.846191,2.0,1.0,15.0,,,,0.0,1.0,4.0,4.0,0.0,0.0,8.333333,,,,,,,,,,,,,,,,,,,,1.0,0.0,0.0,,,,,,,,,,,,,,,,,,,,,,,,,,,,,,,,0.0,0.0,1.0,0.0,512.0,0.498722,4.632548,0.754621,2.1033459999999997,1.735927,2.341007,17.083387,20.292057,16.665354,6.812939,18.120531,4.188778,0.943312,1.487365,1.5055100000000001,3.07032,3.5952050000000004,2.049403,2.0935639999999998,3.8470489999999997,5.797356,3.6649730000000003,1.175503,1.133617,2.323444,3.23638
24088,1645818417.705864,1645818417.735392,96.0,0.0,4895.384765999999,4632.307617,4240.0,4261.538574,4511.794922,450.0,1.0,15.0,,,,0.0,1.0,4.0,4.0,0.0,0.0,8.333333,,,,,,,,48.0,0.0,0.170025,0.663574,-0.086426,-0.7233890000000001,0.9340959999999999,-0.358892,-0.10547000000000001,-0.019788999999999998,-0.020643,-0.04059,,,,,,,,,,,,,,,,,,,,,,,,,,,,,,,,,,,,,,,,,,,,,,,,,,,,,,,,,,,,,,,,,
24089,1645818417.71368,1645818417.743207,97.0,0.0,4909.743652,4624.102539,4245.641113000001,4273.846191,4576.922852000001,450.0,1.0,15.0,,,,0.0,1.0,4.0,4.0,0.0,0.0,8.333333,,,,,,,,,,,,,,,,,,,,,,,,,,,,,,,,,,,,,,,,,,,,,,,,,,,,,,,,,,,,,,,,,,,,,,,,,,,,,,,,,,,,
24090,1645818417.721496,1645818417.751022,98.0,0.0,4902.05127,4514.358886999999,4229.743652,4257.436035,4580.512695,450.0,1.0,15.0,,,,0.0,1.0,4.0,4.0,0.0,0.0,8.333333,,,,,,,,49.0,0.0,0.170149,0.663574,-0.08618200000000001,-0.7233890000000001,0.939467,-0.363775,-0.120119,-0.020105,-0.020581,-0.035896,,,,,,,,,,,,,,,,,,,,,,,,,,,,,,,,,,,,,,,,,,,,,,,,,,,,,,,,,,,,,,,,,
24091,1645818417.7293131,1645818417.758836,99.0,0.0,4876.410156,4497.94873,4232.820313,4265.128418,4522.563965,2.0,1.0,15.0,,,,0.0,1.0,4.0,4.0,0.0,0.0,8.333333,,,,,,,,,,,,,,,,,,,,,,,,,,,,,,,,,,,,,,,,,,,,,,,,,,,,,,0.0,0.0,1.0,0.0,512.0,0.498722,,,,,,,,,,,,,,,,,,,,,,,,,
24092,1645818417.737129,1645818417.766651,100.0,0.0,4864.102539,4557.436035,4248.717772999999,4310.256348,4516.410156,450.0,1.0,15.0,,,,0.0,1.0,4.0,4.0,0.0,0.0,8.333333,,,,,,,,50.0,0.0,0.170149,0.663574,-0.08618200000000001,-0.7233890000000001,0.941909,-0.369635,-0.11035299999999999,-0.020390000000000002,-0.020671000000000002,-0.031769,,,,,,,,,,,,,,,,,,,,,,,,,,,,,,,,,,,,,,,,,,,,,,,,,,,,,,,,,,,,,,,,,
24093,1645818417.7449448,1645818417.774566,101.0,0.0,4849.743652,4548.205078,4255.384765999999,4300.512695,4557.94873,450.0,1.0,15.0,,,,0.0,1.0,4.0,4.0,0.0,0.0,8.333333,,,,,,,,,,,,,,,,,,,,,,,,,,,,,,,,,,,,,,,,,,,,,,,,,,,,,,,,,,,,,,,,,,,,,,,,,,,,,,,,,,,,
24094,1645818417.752761,1645818417.78238,102.0,0.0,4790.769043,4518.974121,4236.410156,4272.307617,4539.487305,450.0,1.0,15.0,,,,0.0,1.0,4.0,4.0,0.0,0.0,8.333333,,,,,,,,51.0,0.0,0.170273,0.663574,-0.085938,-0.7233890000000001,0.941421,-0.361822,-0.102052,-0.020548,-0.020753,-0.027957,,,,,,,,,,,,,,,,,,,,,,,,,,,,,,,,,,,,,,,,,,,,,,,,,,,,,,,,,,,,,,,,,
24095,1645818417.760578,1645818417.790195,103.0,0.0,4711.282227000001,4543.589844,4213.333496,4274.358886999999,4472.820313,2.0,1.0,15.0,,,,0.0,1.0,4.0,4.0,0.0,0.0,8.333333,,,,,,,,,,,,,,,,,,,,,,,,,,,,,,,,,,,,,,,,,,,,,,,,,,,,,,0.0,0.0,1.0,0.0,512.0,0.498722,,,,,,,,,,,,,,,,,,,,,,,,,
24096,1645818417.768394,1645818417.798009,104.0,0.0,4670.256348,4506.153809,4214.358886999999,4243.589844,4443.589844,450.0,1.0,15.0,,,,0.0,1.0,4.0,4.0,0.0,0.0,8.333333,,,,,,,,52.0,0.0,0.170396,0.663574,-0.08569299999999999,-0.7233890000000001,0.941909,-0.354009,-0.106447,-0.018591,-0.020777,-0.030875,,,,,,,,,,,,,,,,,,,,,,,,,,,,,,,,,,,,,,,,,,,,,,,,,,,,,,,,,,,,,,,,,
24097,1645818417.77621,1645818417.805824,105.0,0.0,4671.282227000001,4433.333496,4245.641113000001,4262.05127,4457.436035,450.0,1.0,15.0,,,,0.0,1.0,4.0,4.0,0.0,0.0,8.333333,,,,,,,,,,,,,,,,,,,,,,,,,,,,,,,,,,,,,,,,,,,,,,,,,,,,,,,,,,,,,,,,,,,,,,,,,,,,,,,,,,,,
24098,1645818417.784026,1645818417.8136392,106.0,0.0,4649.743652,4523.589844,4262.563965,4345.128418,4449.230957,450.0,1.0,15.0,,,,0.0,1.0,4.0,4.0,0.0,0.0,8.333333,,,,,,,,53.0,0.0,0.170518,0.663574,-0.085449,-0.7233890000000001,0.9355610000000001,-0.33984899999999996,-0.10498199999999999,-0.019075,-0.020848,-0.0335,,,,,,,,,,,,,,,,,,,,,,,,,,,,,,,,,,,,,,,,,,,,,,,,,,,,,,,,,,,,,,,,,
24099,1645818417.791843,1645818417.8214529,107.0,0.0,4587.179688,4611.282227000001,4251.282227000001,4292.307617,4403.077147999999,2.0,1.0,15.0,,,,0.0,1.0,4.0,4.0,0.0,0.0,8.333333,,,,,,,,,,,,,,,,,,,,,,,,,,,,,,,,,,,,,,,,,,,,,,,,,,,,,,10.0,0.0,1.0,0.0,512.0,0.498722,,,,,,,,,,,,,,,,,,,,,,,,,
24100,1645818417.799659,1645818417.829268,108.0,0.0,4512.820313,4554.871582,4231.282227000001,4121.538574,4340.512695,450.0,1.0,15.0,,,,0.0,1.0,4.0,4.0,0.0,0.0,8.333333,,,,,,,,54.0,0.0,0.16956500000000002,0.663818,-0.085449,-0.7233890000000001,0.945327,-0.354986,-0.10351700000000001,-0.019561000000000002,-0.020863,-0.035765,,,,,,,,,,,,,,,,,,,,,,,,,,,,,,,,,,,,,,,,,,,,,,,,,,,,,,,,,,,,,,,,,
24101,1645818417.807475,1645818417.837083,109.0,0.0,4467.692383,4560.512695,4218.461426,4141.538574,4305.641113000001,450.0,1.0,15.0,,,,0.0,1.0,4.0,4.0,0.0,0.0,8.333333,,,,,,,,,,,,,,,,,,,,,,,,,,,,,,,,,,,,,,,,,,,,,,,,,,,,,,,,,,,,,,,,,,,,,,,,,,,,,,,,,,,,
24102,1645818417.815291,1645818417.844897,110.0,0.0,4450.256348,4614.871582,4211.794922,4249.743652,4315.384765999999,450.0,1.0,15.0,,,,0.0,1.0,4.0,4.0,0.0,0.0,8.333333,,,,,,,,55.0,0.0,0.169688,0.663818,-0.08520499999999999,-0.7233890000000001,0.938003,-0.35352100000000003,-0.109865,-0.017702000000000002,-0.020876,-0.031603,,,,,,,,,,,,,,,,,,,,,,,,,,,,,,,,,,,,,,,,,,,,,,,,,,,,,,,,,,,,,,,,,
24103,1645818417.823107,1645818417.8528118,111.0,0.0,4409.743652,4543.589844,4200.0,4205.128418,4302.05127,2.0,1.0,15.0,,,,0.0,1.0,4.0,4.0,0.0,0.0,8.333333,,,,,,,,,,,,,,,,,,,,1.0,0.0,0.0,,,,,,,,,,,,,,,,,,,,,,,,,,,,,,,,10.0,0.0,1.0,0.0,512.0,0.588166,6.046176,0.802653,2.162344,1.661054,2.254771,17.855434,16.726339000000003,17.825087,8.222118,17.384611,3.486305,0.8487819999999999,1.565181,1.4174879999999999,2.8844819999999998,7.154527000000001,2.7281470000000003,2.56731,5.346217,5.970797,3.812324,0.771389,1.171992,2.180206,3.114744
24104,1645818417.830924,1645818417.860627,112.0,0.0,4387.179688,4502.563965,4214.871582,4187.179688,4291.794922,450.0,1.0,15.0,,,,0.0,1.0,4.0,4.0,0.0,0.0,8.333333,,,,,,,,56.0,0.0,0.17064000000000001,0.663574,-0.08520499999999999,-0.7233890000000001,0.938491,-0.36524,-0.11523599999999999,-0.016663999999999998,-0.020888,-0.034107,,,,,,,,,,,,,,,,,,,,,,,,,,,,,,,,,,,,,,,,,,,,,,,,,,,,,,,,,,,,,,,,,
24105,1645818417.83874,1645818417.868541,113.0,0.0,4386.666504,4572.820313,4238.974121,4326.153809,4312.307617,450.0,1.0,15.0,,,,0.0,1.0,4.0,4.0,0.0,0.0,8.333333,,,,,,,,,,,,,,,,,,,,,,,,,,,,,,,,,,,,,,,,,,,,,,,,,,,,,,,,,,,,,,,,,,,,,,,,,,,,,,,,,,,,
24106,1645818417.846556,1645818417.8763561,114.0,0.0,4352.820313,4556.410156,4226.153809,4341.025879,4298.461426,450.0,1.0,15.0,,,,0.0,1.0,4.0,4.0,0.0,0.0,8.333333,,,,,,,,57.0,0.0,0.16956500000000002,0.663818,-0.085449,-0.7233890000000001,0.945327,-0.354986,-0.10351700000000001,-0.016599000000000003,-0.020762,-0.032285,,,,,,,,,,,,,,,,,,,,,,,,,,,,,,,,,,,,,,,,,,,,,,,,,,,,,,,,,,,,,,,,,
24107,1645818417.854372,1645818417.8841698,115.0,0.0,4310.769043,4511.794922,4201.025879,4060.512939,4255.897461,2.0,1.0,15.0,,,,0.0,1.0,4.0,4.0,0.0,0.0,8.333333,,,,,,,,,,,,,,,,,,,,,,,,,,,,,,,,,,,,,,,,,,,,,,,,,,,,,,10.0,0.0,1.0,0.0,512.0,0.588166,,,,,,,,,,,,,,,,,,,,,,,,,
24108,1645818417.862189,1645818417.891985,116.0,0.0,4324.102539,4541.025879,4233.333496,3987.179443,4275.897461,450.0,1.0,15.0,,,,0.0,1.0,4.0,4.0,0.0,0.0,8.333333,,,,,,,,58.0,0.0,0.17064000000000001,0.663574,-0.08520499999999999,-0.7233890000000001,0.938491,-0.36524,-0.11523599999999999,-0.015671,-0.020786000000000002,-0.03472,,,,,,,,,,,,,,,,,,,,,,,,,,,,,,,,,,,,,,,,,,,,,,,,,,,,,,,,,,,,,,,,,
24109,1645818417.8700051,1645818417.8998,117.0,0.0,4340.512695,4534.358886999999,4268.717772999999,4307.692383,4316.410156,450.0,1.0,15.0,,,,0.0,1.0,4.0,4.0,0.0,0.0,8.333333,,,,,,,,,,,,,,,,,,,,,,,,,,,,,,,,,,,,,,,,,,,,,,,,,,,,,,,,,,,,,,,,,,,,,,,,,,,,,,,,,,,,
24110,1645818417.8778212,1645818417.907614,118.0,0.0,4344.102539,4512.820313,4261.025879,4472.307617,4314.871582,450.0,1.0,15.0,,,,0.0,1.0,4.0,4.0,0.0,0.0,8.333333,,,,,,,,59.0,0.0,0.169725,0.663574,-0.084961,-0.723633,0.9472799999999999,-0.357916,-0.10009900000000001,-0.0143,-0.020807,-0.036961,,,,,,,,,,,,,,,,,,,,,,,,,,,,,,,,,,,,,,,,,,,,,,,,,,,,,,,,,,,,,,,,,
24111,1645818417.8856368,1645818417.915529,119.0,0.0,4402.563965,4531.794922,4257.436035,4338.974121,4337.94873,2.0,1.0,15.0,,,,0.0,1.0,4.0,4.0,0.0,0.0,8.333333,,,,,,,,,,,,,,,,,,,,,,,,,,,,,,,,,,,,,,,,,,,,,,,,,,,,,,10.0,0.0,1.0,0.0,512.0,0.588166,,,,,,,,,,,,,,,,,,,,,,,,,
24112,1645818417.893453,1645818417.923343,120.0,0.0,4476.922852000001,4573.333496,4258.461426,4252.820313,4382.563965,450.0,1.0,15.0,,,,0.0,1.0,4.0,4.0,0.0,0.0,8.333333,,,,,,,,60.0,0.0,0.169725,0.663574,-0.084961,-0.723633,0.940932,-0.338872,-0.112795,-0.015311000000000002,-0.020728,-0.032728,,,,,,,,,,,,,,,,,,,,,,,,,,,,,,,,,,,,,,,,,,,,,,,,,,,,,,,,,,,,,,,,,
24113,1645818417.90127,1645818417.931158,121.0,0.0,4528.205078,4592.820313,4228.717772999999,4272.820313,4390.769043,450.0,1.0,15.0,,,,0.0,1.0,4.0,4.0,0.0,0.0,8.333333,,,,,,,,,,,,,,,,,,,,,,,,,,,,,,,,,,,,,,,,,,,,,,,,,,,,,,,,,,,,,,,,,,,,,,,,,,,,,,,,,,,,
24114,1645818417.909086,1645818417.939073,122.0,0.0,4597.436035,4551.282227000001,4205.128418,4334.358886999999,4398.461426,450.0,1.0,15.0,,,,0.0,1.0,4.0,4.0,0.0,0.0,8.333333,,,,,,,,61.0,0.0,0.169725,0.663574,-0.084961,-0.723633,0.9423969999999999,-0.353033,-0.10547000000000001,-0.014561000000000001,-0.020755000000000003,-0.035071,,,,,,,,,,,,,,,,,,,,,,,,,,,,,,,,,,,,,,,,,,,,,,,,,,,,,,,,,,,,,,,,,
24115,1645818417.916902,1645818417.946887,123.0,0.0,4680.512695,4481.538574,4214.358886999999,4332.820313,4438.974121,2.0,1.0,15.0,,,,0.0,1.0,4.0,4.0,0.0,0.0,8.333333,,,,,,,,,,,,,,,,,,,,,,,,,,,,,,,,,,,,,,,,,,,,,,,,,,,,,,10.0,0.0,1.0,0.0,512.0,0.588166,,,,,,,,,,,,,,,,,,,,,,,,,
24116,1645818417.9247189,1645818417.954702,124.0,0.0,4741.025879,4492.307617,4226.153809,4037.4357909999994,4485.641113000001,450.0,1.0,15.0,,,,0.0,1.0,4.0,4.0,0.0,0.0,8.333333,,,,,,,,62.0,0.0,0.169725,0.663574,-0.084961,-0.723633,0.938491,-0.341314,-0.109865,-0.015546,-0.020779,-0.037228,,,,,,,,,,,,,,,,,,,,,,,,,,,,,,,,,,,,,,,,,,,,,,,,,,,,,,,,,,,,,,,,,
24117,1645818417.932535,1645818417.962517,125.0,0.0,4770.769043,4581.025879,4221.025879,3937.4357909999994,4507.692383,450.0,1.0,15.0,,,,0.0,1.0,4.0,4.0,0.0,0.0,8.333333,,,,,,,,,,,,,,,,,,,,,,,,,,,,,,,,,,,,,,,,,,,,,,,,,,,,,,,,,,,,,,,,,,,,,,,,,,,,,,,,,,,,
24118,1645818417.940351,1645818417.970331,126.0,0.0,4786.666504,4601.025879,4222.563965,4329.230957,4517.94873,450.0,1.0,15.0,,,,0.0,1.0,4.0,4.0,0.0,0.0,8.333333,,,,,,,,63.0,0.0,0.169638,0.66333,-0.084961,-0.723877,0.940932,-0.34912600000000005,-0.11133,-0.014041,-0.02085,-0.039169,,,,,,,,,,,,,,,,,,,,,,,,,,,,,,,,,,,,,,,,,,,,,,,,,,,,,,,,,,,,,,,,,
24119,1645818417.948167,1645818417.978146,127.0,0.0,4799.487305,4526.666504,4234.871582,4461.025879,4526.666504,233.0,1.0,15.0,,,,0.0,1.0,4.0,4.0,0.0,0.0,8.333333,1.0,0.0,1.0,0.0,4.0,0.0,0.0,,,,,,,,,,,,,1.0,0.0,0.0,,,,,,,,,,,,,,,,,,,,,,,,,,,,,,,,0.0,0.0,1.0,0.0,512.0,0.607773,14.235304000000001,1.509839,2.230994,1.749552,2.164709,17.606054,13.628216,18.046576,9.346575,15.959079999999998,2.940597,0.813467,1.5904479999999999,1.52053,2.641797,12.643938,4.08058,3.4924230000000005,7.359852,6.1049,4.960261,0.663423,1.278726,2.164689,3.0205040000000003
24120,1645818417.9559839,1645818417.985961,0.0,0.0,4790.769043,4512.820313,4228.205078,4207.692383,4512.820313,450.0,1.0,15.0,,,,0.0,1.0,4.0,4.0,0.0,0.0,8.333333,,,,,,,,0.0,0.0,0.169515,0.66333,-0.08520499999999999,-0.723877,0.9423969999999999,-0.338384,-0.11084200000000001,-0.015078,-0.020669,-0.040964999999999994,,,,,,,,,,,,,,,,,,,,,,,,,,,,,,,,,,,,,,,,,,,,,,,,,,,,,,,,,,,,,,,,,
24121,1645818417.9638,1645818417.993775,1.0,0.0,4767.179688,4571.282227000001,4212.307617,4153.846191,4504.615234000001,450.0,1.0,15.0,,,,0.0,1.0,4.0,4.0,0.0,0.0,8.333333,,,,,,,,,,,,,,,,,,,,,,,,,,,,,,,,,,,,,,,,,,,,,,,,,,,,,,,,,,,,,,,,,,,,,,,,,,,,,,,,,,,,
24122,1645818417.971616,1645818418.0016901,2.0,0.0,4781.538574,4569.230957,4247.692383,4257.436035,4540.512695,16334.0,1.0,15.0,,,,0.0,4.0,2.0,4.0,1.0,0.0,25.0,,,,,,,,1.0,0.0,0.169515,0.66333,-0.08520499999999999,-0.723877,0.9463030000000001,-0.338872,-0.106447,-0.015913999999999998,-0.020653,-0.042582,,,,,,,,,,,,,,,,,,,,,,,,,,,,,,,,,,,,,,,,,,,,,,,,,,,,,,,,,,,,,,,,,
24123,1645818417.979432,1645818418.0095038,3.0,0.0,4810.769043,4534.871582,4286.153809,4245.128418,4565.641113000001,450.0,1.0,15.0,,,,0.0,4.0,2.0,4.0,1.0,0.0,25.0,,,,,,,,,,,,,,,,,,,,,,,,,,,,,,,,,,,,,,,,,,,,,,,,,,,,,,0.0,0.0,1.0,0.0,512.0,0.607773,,,,,,,,,,,,,,,,,,,,,,,,,
24124,1645818417.987248,1645818418.017319,4.0,0.0,4778.974121,4540.0,4241.025879,4240.0,4536.410156,293.0,1.0,15.0,,,,0.0,4.0,2.0,4.0,1.0,0.0,25.0,,,,,,,,2.0,0.0,0.169638,0.66333,-0.084961,-0.723877,0.9404440000000001,-0.341314,-0.10888800000000001,-0.016763999999999998,-0.020638,-0.037786,,,,,,,,,,,,,,,,,,,,,,,,,,,,,,,,,,,,,,,,,,,,,,,,,,,,,,,,,,,,,,,,,
24125,1645818417.995065,1645818418.025134,5.0,0.0,4773.846191,4534.871582,4215.897461,4277.94873,4555.384765999999,450.0,1.0,15.0,,,,0.0,4.0,2.0,4.0,1.0,0.0,25.0,,,,,,,,,,,,,,,,,,,,,,,,,,,,,,,,,,,,,,,,,,,,,,,,,,,,,,,,,,,,,,,,,,,,,,,,,,,,,,,,,,,,
24126,1645818418.002881,1645818418.032948,6.0,0.0,4811.794922,4533.846191,4264.615234000001,4280.512695,4591.794922,16187.0,1.0,15.0,,,,0.0,4.0,2.0,4.0,1.0,0.0,25.0,,,,,,,,3.0,0.0,0.169638,0.66333,-0.084961,-0.723877,0.9306780000000001,-0.338872,-0.09765800000000001,-0.015819999999999997,-0.020625,-0.03977,,,,,,,,,,,,,,,,,,,,,,,,,,,,,,,,,,,,,,,,,,,,,,,,,,,,,,,,,,,,,,,,,
24127,1645818418.0106971,1645818418.0407631,7.0,0.0,4780.0,4571.794922,4257.94873,4272.820313,4541.538574,450.0,1.0,15.0,,,,0.0,4.0,2.0,4.0,1.0,0.0,25.0,,,,,,,,,,,,,,,,,,,,,,,,,,,,,,,,,,,,,,,,,,,,,,,,,,,,,,0.0,0.0,1.0,0.0,512.0,0.607773,,,,,,,,,,,,,,,,,,,,,,,,,
24128,1645818418.0185132,1645818418.048578,8.0,0.0,4711.794922,4548.717772999999,4184.102539,4260.512695,4500.0,450.0,1.0,15.0,,,,0.0,4.0,2.0,4.0,1.0,0.0,25.0,,,,,,,,4.0,0.0,0.168593,0.66333,-0.084961,-0.724121,0.945327,-0.345708,-0.11425999999999999,-0.016631,-0.020662,-0.035255,,,,,,,,,,,,,,,,,,,,,,,,,,,,,,,,,,,,,,,,,,,,,,,,,,,,,,,,,,,,,,,,,
24129,1645818418.02633,1645818418.056392,9.0,0.0,4707.179688,4509.743652,4176.922852000001,4273.846191,4536.410156,98.0,1.0,15.0,,,,0.0,4.0,2.0,4.0,1.0,0.0,25.0,,,,,,,,,,,,,,,,,,,,,,,,,,,,,,,,,,,,,,,,,,,,,,,,,,,,,,,,,,,,,,,,,,,,,,,,,,,,,,,,,,,,
24130,1645818418.034146,1645818418.064207,10.0,0.0,4714.871582,4557.436035,4218.461426,4277.94873,4546.666504,450.0,1.0,15.0,,,,0.0,4.0,2.0,4.0,1.0,0.0,25.0,,,,,,,,5.0,0.0,0.169672,0.663086,-0.084717,-0.724121,0.95314,-0.338384,-0.11035299999999999,-0.01736,-0.020647,-0.031193000000000002,,,,,,,,,,,,,,,,,,,,,,,,,,,,,,,,,,,,,,,,,,,,,,,,,,,,,,,,,,,,,,,,,
24131,1645818418.041962,1645818418.0721211,11.0,0.0,4668.717772999999,4570.769043,4220.512695,4255.897461,4495.897461,16323.0,1.0,15.0,,,,0.0,4.0,2.0,4.0,1.0,4.0,58.33333199999999,,,,,,,,,,,,,,,,,,,,,,,,,,,,,,,,,,,,,,,,,,,,,,,,,,,,,,10.0,0.0,1.0,0.0,512.0,0.607773,,,,,,,,,,,,,,,,,,,,,,,,,
24132,1645818418.049778,1645818418.079936,12.0,0.0,4622.05127,4535.897461,4224.102539,4265.128418,4482.563965,450.0,1.0,15.0,,,,0.0,4.0,2.0,4.0,1.0,4.0,58.33333199999999,,,,,,,,6.0,0.0,0.168715,0.66333,-0.084717,-0.724121,0.941421,-0.350103,-0.11133,-0.017968,-0.020633000000000002,-0.033738,,,,,,,,,,,,,,,,,,,,,,,,,,,,,,,,,,,,,,,,,,,,,,,,,,,,,,,,,,,,,,,,,
24133,1645818418.057594,1645818418.087751,13.0,0.0,4570.769043,4527.692383,4249.743652,4286.153809,4488.205078,450.0,1.0,15.0,,,,0.0,4.0,2.0,4.0,1.0,4.0,58.33333199999999,,,,,,,,,,,,,,,,,,,,,,,,,,,,,,,,,,,,,,,,,,,,,,,,,,,,,,,,,,,,,,,,,,,,,,,,,,,,,,,,,,,,
24134,1645818418.0654109,1645818418.095565,14.0,0.0,4500.512695,4492.307617,4252.820313,4287.179688,4450.769043,450.0,1.0,15.0,,,,0.0,4.0,2.0,4.0,1.0,4.0,58.33333199999999,,,,,,,,7.0,0.0,0.16883800000000002,0.66333,-0.084473,-0.724121,0.945815,-0.35547399999999996,-0.11084200000000001,-0.016952000000000002,-0.020474000000000003,-0.036077,,,,,,,,,,,,,,,,,,,,,,,,,,,,,,,,,,,,,,,,,,,,,,,,,,,,,,,,,,,,,,,,,
24135,1645818418.073227,1645818418.10338,15.0,0.0,4433.846191,4458.461426,4224.102539,4301.025879,4391.794922,16323.0,1.0,15.0,,,,0.0,4.0,2.0,4.0,1.0,4.0,58.33333199999999,,,,,,,,,,,,,,,,,,,,1.0,0.0,0.0,,,,,,,,,,,,,,,,,,,,,,,,,,,,,,,,10.0,0.0,1.0,0.0,512.0,0.569706,40.41983,3.356866,2.474084,1.94585,2.1309099999999996,16.487185999999998,11.736988,17.045482999999997,9.942716,14.357774,2.5821,0.8966370000000001,1.6449610000000001,1.801288,2.4176599999999997,19.325948999999998,6.120553,5.120076,9.724725999999999,6.490862,9.440667999999999,0.9168,1.506205,2.161476,3.060253
24136,1645818418.081043,1645818418.1111948,16.0,0.0,4377.436035,4458.461426,4192.307617,4292.307617,4348.717772999999,0.0,1.0,15.0,,,,0.0,4.0,2.0,4.0,1.0,4.0,58.33333199999999,,,,,,,,8.0,0.0,0.167787,0.66333,-0.084473,-0.7243649999999999,0.947768,-0.354009,-0.113771,-0.01765,-0.020429,-0.031981,,,,,,,,,,,,,,,,,,,,,,,,,,,,,,,,,,,,,,,,,,,,,,,,,,,,,,,,,,,,,,,,,
24137,1645818418.088859,1645818418.119009,17.0,0.0,4336.922852000001,4452.307617,4187.179688,4237.436035,4333.333496,0.0,1.0,15.0,,,,0.0,4.0,2.0,4.0,1.0,4.0,58.33333199999999,,,,,,,,,,,,,,,,,,,,,,,,,,,,,,,,,,,,,,,,,,,,,,,,,,,,,,,,,,,,,,,,,,,,,,,,,,,,,,,,,,,,
24138,1645818418.0966759,1645818418.1268241,18.0,0.0,4316.410156,4468.717772999999,4198.974121,4210.256348,4330.256348,0.0,1.0,15.0,,,,0.0,4.0,2.0,4.0,1.0,4.0,58.33333199999999,,,,,,,,9.0,0.0,0.16875,0.663086,-0.084473,-0.7243649999999999,0.9355610000000001,-0.354498,-0.10547000000000001,-0.018229,-0.020485,-0.034447000000000005,,,,,,,,,,,,,,,,,,,,,,,,,,,,,,,,,,,,,,,,,,,,,,,,,,,,,,,,,,,,,,,,,
24139,1645818418.104492,1645818418.134639,19.0,0.0,4302.05127,4421.538574,4198.974121,4258.461426,4317.436035,0.0,1.0,15.0,,,,0.0,4.0,2.0,4.0,1.0,4.0,58.33333199999999,,,,,,,,,,,,,,,,,,,,,,,,,,,,,,,,,,,,,,,,,,,,,,,,,,,,,,10.0,0.0,1.0,0.0,512.0,0.569706,,,,,,,,,,,,,,,,,,,,,,,,,
24140,1645818418.112308,1645818418.1425529,20.0,0.0,4287.179688,4244.102539,4190.256348,4277.436035,4314.358886999999,0.0,1.0,15.0,,,,0.0,4.0,2.0,4.0,1.0,4.0,58.33333199999999,,,,,,,,10.0,0.0,0.16875,0.663086,-0.084473,-0.7243649999999999,0.938003,-0.34375500000000003,-0.104494,-0.018798,-0.020488,-0.036862,,,,,,,,,,,,,,,,,,,,,,,,,,,,,,,,,,,,,,,,,,,,,,,,,,,,,,,,,,,,,,,,,
24141,1645818418.120124,1645818418.150368,21.0,0.0,4248.205078,4167.179688,4174.871582,4254.871582,4311.282227000001,0.0,1.0,15.0,,,,0.0,4.0,2.0,4.0,1.0,4.0,58.33333199999999,,,,,,,,,,,,,,,,,,,,,,,,,,,,,,,,,,,,,,,,,,,,,,,,,,,,,,,,,,,,,,,,,,,,,,,,,,,,,,,,,,,,
24142,1645818418.1279411,1645818418.1581821,22.0,0.0,4210.769043,4286.666504,4176.410156,4320.0,4300.0,0.0,1.0,15.0,,,,0.0,4.0,2.0,4.0,1.0,4.0,58.33333199999999,,,,,,,,11.0,0.0,0.168872,0.663086,-0.084229,-0.7243649999999999,0.9438620000000001,-0.32861799999999997,-0.109377,-0.0177,-0.02049,-0.038986,,,,,,,,,,,,,,,,,,,,,,,,,,,,,,,,,,,,,,,,,,,,,,,,,,,,,,,,,,,,,,,,,
24143,1645818418.135757,1645818418.165997,23.0,0.0,4212.820313,4413.846191,4208.205078,4396.410156,4306.666504,0.0,1.0,15.0,,,,0.0,4.0,2.0,4.0,1.0,4.0,58.33333199999999,,,,,,,,,,,,,,,,,,,,,,,,,,,,,,,,,,,,,,,,,,,,,,,,,,,,,,10.0,0.0,1.0,0.0,512.0,0.569706,,,,,,,,,,,,,,,,,,,,,,,,,
24144,1645818418.143573,1645818418.173812,24.0,0.0,4207.692383,4469.230957,4229.743652,4314.358886999999,4303.589844,0.0,1.0,15.0,,,,0.0,4.0,2.0,4.0,1.0,4.0,58.33333199999999,,,,,,,,12.0,0.0,0.168872,0.663086,-0.084229,-0.7243649999999999,0.9472799999999999,-0.327153,-0.12109600000000001,-0.018322,-0.020443,-0.040752,,,,,,,,,,,,,,,,,,,,,,,,,,,,,,,,,,,,,,,,,,,,,,,,,,,,,,,,,,,,,,,,,
24145,1645818418.1513891,1645818418.181626,25.0,0.0,4160.0,4491.794922,4205.128418,4200.0,4267.692383,0.0,1.0,15.0,,,,0.0,4.0,2.0,4.0,1.0,4.0,58.33333199999999,,,,,,,,,,,,,,,,,,,,,,,,,,,,,,,,,,,,,,,,,,,,,,,,,,,,,,,,,,,,,,,,,,,,,,,,,,,,,,,,,,,,
24146,1645818418.1592062,1645818418.189441,26.0,0.0,4123.077147999999,4466.666504,4186.153809,4256.410156,4241.025879,0.0,1.0,15.0,,,,0.0,4.0,2.0,4.0,1.0,4.0,58.33333199999999,,,,,,,,13.0,0.0,0.168872,0.663086,-0.084229,-0.7243649999999999,0.9472799999999999,-0.34766199999999997,-0.11425999999999999,-0.019191999999999997,-0.020558,-0.04382,,,,,,,,,,,,,,,,,,,,,,,,,,,,,,,,,,,,,,,,,,,,,,,,,,,,,,,,,,,,,,,,,
24147,1645818418.167022,1645818418.197256,27.0,0.0,4128.205078,4455.384765999999,4203.077147999999,4303.077147999999,4241.538574,0.0,1.0,15.0,,,,0.0,4.0,2.0,4.0,1.0,4.0,58.33333199999999,,,,,,,,,,,,,,,,,,,,,,,,,,,,,,,,,,,,,,,,,,,,,,,,,,,,,,10.0,0.0,1.0,0.0,512.0,0.569706,,,,,,,,,,,,,,,,,,,,,,,,,
24148,1645818418.174838,1645818418.20517,28.0,0.0,4135.897461,4524.615234000001,4218.974121,4237.94873,4239.487305,0.0,1.0,15.0,,,,0.0,4.0,2.0,4.0,1.0,4.0,58.33333199999999,,,,,,,,14.0,0.0,0.16791,0.66333,-0.084229,-0.7243649999999999,0.9438620000000001,-0.35352100000000003,-0.11914200000000001,-0.019763,-0.020602000000000002,-0.045151,,,,,,,,,,,,,,,,,,,,,,,,,,,,,,,,,,,,,,,,,,,,,,,,,,,,,,,,,,,,,,,,,
24149,1645818418.182654,1645818418.212985,29.0,0.0,4118.461426,4546.666504,4196.410156,4286.666504,4218.461426,0.0,1.0,15.0,,,,0.0,4.0,2.0,4.0,1.0,4.0,58.33333199999999,,,,,,,,,,,,,,,,,,,,,,,,,,,,,,,,,,,,,,,,,,,,,,,,,,,,,,,,,,,,,,,,,,,,,,,,,,,,,,,,,,,,
24150,1645818418.1904712,1645818418.220799,30.0,0.0,4098.461426,4486.153809,4168.205078,4348.717772999999,4203.589844,0.0,1.0,15.0,,,,0.0,4.0,2.0,4.0,1.0,4.0,58.33333199999999,,,,,,,,15.0,0.0,0.16791,0.66333,-0.084229,-0.7243649999999999,0.9331200000000001,-0.33984899999999996,-0.120119,-0.020228,-0.020495,-0.040147,,,,,,,,,,,,,,,,,,,,,,,,,,,,,,,,,,,,,,,,,,,,,,,,,,,,,,,,,,,,,,,,,
24151,1645818418.198287,1645818418.228614,31.0,0.0,4119.487305,4496.410156,4184.102539,4228.205078,4226.153809,0.0,1.0,15.0,,,,0.0,4.0,2.0,4.0,1.0,4.0,58.33333199999999,,,,,,,,,,,,,,,,,,,,1.0,0.0,0.0,,,,,,,,,,,,,,,,,,,,,,,,,,,,,,,,0.0,0.0,32.0,0.5685600000000001,1.0,0.0,98.407021,7.027489,3.0224279999999997,2.196723,2.183255,15.350337,11.352407000000001,14.949876999999999,10.069077,13.111495000000001,2.452109,1.1661030000000001,1.798371,2.208815,2.26586,26.020559,8.851802000000001,7.97275,13.017839,8.481656,20.637745000000002,1.600733,1.881101,2.140083,3.3027089999999997
24152,1645818418.2061028,1645818418.236429,32.0,0.0,4154.358886999999,4577.436035,4201.025879,4221.538574,4257.436035,0.0,1.0,15.0,,,,0.0,4.0,2.0,4.0,1.0,4.0,58.33333199999999,,,,,,,,16.0,0.0,0.16791,0.66333,-0.084229,-0.7243649999999999,0.93019,-0.34473200000000004,-0.101076,-0.0205,-0.020496,-0.041846,,,,,,,,,,,,,,,,,,,,,,,,,,,,,,,,,,,,,,,,,,,,,,,,,,,,,,,,,,,,,,,,,
24153,1645818418.213919,1645818418.244243,33.0,0.0,4149.743652,4557.94873,4188.717772999999,4395.384765999999,4257.94873,0.0,1.0,15.0,,,,0.0,4.0,2.0,4.0,1.0,4.0,58.33333199999999,,,,,,,,,,,,,,,,,,,,,,,,,,,,,,,,,,,,,,,,,,,,,,,,,,,,,,,,,,,,,,,,,,,,,,,,,,,,,,,,,,,,
24154,1645818418.221736,1645818418.252058,34.0,0.0,4120.512695,4522.05127,4187.692383,4378.974121,4231.282227000001,0.0,1.0,15.0,,,,0.0,4.0,2.0,4.0,1.0,4.0,58.33333199999999,,,,,,,,17.0,0.0,0.16791,0.66333,-0.084229,-0.7243649999999999,0.9365379999999999,-0.34375500000000003,-0.101564,-0.020745,-0.020447999999999997,-0.037173000000000005,,,,,,,,,,,,,,,,,,,,,,,,,,,,,,,,,,,,,,,,,,,,,,,,,,,,,,,,,,,,,,,,,
24155,1645818418.229552,1645818418.2598732,35.0,0.0,4090.7692869999996,4570.769043,4184.615234000001,4235.384765999999,4196.922852000001,0.0,1.0,15.0,,,,0.0,4.0,2.0,4.0,1.0,4.0,58.33333199999999,,,,,,,,,,,,,,,,,,,,,,,,,,,,,,,,,,,,,,,,,,,,,,,,,,,,,,0.0,0.0,32.0,0.5685600000000001,1.0,0.0,,,,,,,,,,,,,,,,,,,,,,,,,
24156,1645818418.2373679,1645818418.2676868,36.0,0.0,4068.718018,4596.410156,4161.025879,4243.077147999999,4169.743652,0.0,1.0,15.0,,,,0.0,4.0,2.0,4.0,1.0,4.0,58.33333199999999,,,,,,,,18.0,0.0,0.16791,0.66333,-0.084229,-0.7243649999999999,0.933608,-0.35547399999999996,-0.11767799999999999,-0.018768,-0.020552,-0.032967,,,,,,,,,,,,,,,,,,,,,,,,,,,,,,,,,,,,,,,,,,,,,,,,,,,,,,,,,,,,,,,,,
24157,1645818418.245184,1645818418.275502,37.0,0.0,4094.8718259999996,4618.461426,4184.615234000001,4260.512695,4200.512695,0.0,1.0,15.0,,,,0.0,4.0,2.0,4.0,1.0,4.0,58.33333199999999,,,,,,,,,,,,,,,,,,,,,,,,,,,,,,,,,,,,,,,,,,,,,,,,,,,,,,,,,,,,,,,,,,,,,,,,,,,,,,,,,,,,
24158,1645818418.253,1645818418.283417,38.0,0.0,4123.589844,4640.512695,4220.512695,4208.205078,4233.846191,0.0,1.0,15.0,,,,0.0,4.0,2.0,4.0,1.0,4.0,58.33333199999999,,,,,,,,19.0,0.0,0.16791,0.66333,-0.084229,-0.7243649999999999,0.944839,-0.350591,-0.11133,-0.017526,-0.020596,-0.035432,,,,,,,,,,,,,,,,,,,,,,,,,,,,,,,,,,,,,,,,,,,,,,,,,,,,,,,,,,,,,,,,,
24159,1645818418.260817,1645818418.2912312,39.0,0.0,4100.0,4595.384765999999,4188.717772999999,4236.922852000001,4205.641113000001,0.0,1.0,15.0,,,,0.0,4.0,2.0,4.0,1.0,4.0,58.33333199999999,,,,,,,,,,,,,,,,,,,,,,,,,,,,,,,,,,,,,,,,,,,,,,,,,,,,,,0.0,0.0,32.0,0.5685600000000001,1.0,0.0,,,,,,,,,,,,,,,,,,,,,,,,,
24160,1645818418.268633,1645818418.299046,40.0,0.0,4076.923096,4549.743652,4158.974121,4267.692383,4176.410156,0.0,1.0,15.0,,,,0.0,4.0,2.0,4.0,1.0,4.0,58.33333199999999,,,,,,,,20.0,0.0,0.16791,0.66333,-0.084229,-0.7243649999999999,0.9433739999999999,-0.35108,-0.105959,-0.015871,-0.020588,-0.037552999999999996,,,,,,,,,,,,,,,,,,,,,,,,,,,,,,,,,,,,,,,,,,,,,,,,,,,,,,,,,,,,,,,,,
24161,1645818418.276449,1645818418.30686,41.0,0.0,4106.153809,4587.692383,4194.358886999999,4254.871582,4198.461426,0.0,1.0,15.0,,,,0.0,4.0,2.0,4.0,1.0,4.0,58.33333199999999,,,,,,,,,,,,,,,,,,,,,,,,,,,,,,,,,,,,,,,,,,,,,,,,,,,,,,,,,,,,,,,,,,,,,,,,,,,,,,,,,,,,
24162,1645818418.284265,1645818418.314675,42.0,0.0,4128.717772999999,4622.05127,4213.846191,4279.487305,4225.128418,0.0,1.0,15.0,,,,0.0,4.0,2.0,4.0,1.0,4.0,58.33333199999999,,,,,,,,21.0,0.0,0.16791,0.66333,-0.084229,-0.7243649999999999,0.933608,-0.35547399999999996,-0.11767799999999999,-0.014381999999999999,-0.020677,-0.039462,,,,,,,,,,,,,,,,,,,,,,,,,,,,,,,,,,,,,,,,,,,,,,,,,,,,,,,,,,,,,,,,,
24163,1645818418.292082,1645818418.32249,43.0,0.0,4097.436035,4579.487305,4191.794922,4300.512695,4215.384765999999,0.0,1.0,15.0,,,,0.0,4.0,2.0,4.0,1.0,4.0,58.33333199999999,,,,,,,,,,,,,,,,,,,,,,,,,,,,,,,,,,,,,,,,,,,,,,,,,,,,,,0.0,0.0,32.0,0.5685600000000001,1.0,0.0,,,,,,,,,,,,,,,,,,,,,,,,,
24164,1645818418.2998981,1645818418.330304,44.0,0.0,4073.8461909999996,4549.743652,4175.897461,4269.230957,4197.94873,0.0,1.0,15.0,,,,0.0,4.0,2.0,4.0,1.0,4.0,58.33333199999999,,,,,,,,22.0,0.0,0.16791,0.66333,-0.084229,-0.7243649999999999,0.9433739999999999,-0.35108,-0.105959,-0.013041,-0.020659999999999998,-0.04118,,,,,,,,,,,,,,,,,,,,,,,,,,,,,,,,,,,,,,,,,,,,,,,,,,,,,,,,,,,,,,,,,
24165,1645818418.307714,1645818418.338119,45.0,0.0,4068.718018,4557.94873,4167.692383,4282.05127,4171.794922,0.0,1.0,15.0,,,,0.0,4.0,2.0,4.0,1.0,4.0,58.33333199999999,,,,,,,,,,,,,,,,,,,,,,,,,,,,,,,,,,,,,,,,,,,,,,,,,,,,,,,,,,,,,,,,,,,,,,,,,,,,,,,,,,,,
24166,1645818418.31553,1645818418.346034,46.0,0.0,4072.3076170000004,4533.846191,4167.692383,4335.897461,4159.487305,0.0,1.0,15.0,,,,0.0,4.0,2.0,4.0,1.0,4.0,58.33333199999999,,,,,,,,23.0,0.0,0.16791,0.66333,-0.084229,-0.7243649999999999,0.944839,-0.340337,-0.119631,-0.014275999999999999,-0.020791999999999998,-0.036476,,,,,,,,,,,,,,,,,,,,,,,,,,,,,,,,,,,,,,,,,,,,,,,,,,,,,,,,,,,,,,,,,
24167,1645818418.323347,1645818418.353848,47.0,0.0,4102.05127,4521.025879,4190.769043,4328.205078,4195.897461,0.0,1.0,15.0,,,,0.0,4.0,2.0,4.0,1.0,4.0,58.33333199999999,,,,,,,,,,,,,,,,,,,,1.0,0.0,0.0,,,,,,,,,,,,,,,,,,,,,,,,,,,,,,,,0.0,0.0,32.0,0.755865,1.0,0.0,190.666351,12.940623,3.8694019999999996,2.449878,2.313002,15.800555,12.66503,12.118249,10.105341000000001,12.507318,2.456332,1.7494740000000002,2.094177,2.667729,2.22038,31.343203999999997,12.188808,12.570909,18.25009,13.933532000000001,39.661057,2.675306,2.3770740000000004,2.141848,3.740449
24168,1645818418.3311632,1645818418.361663,48.0,0.0,4134.871582,4602.05127,4212.307617,4285.641113000001,4230.769043,0.0,1.0,15.0,,,,0.0,4.0,2.0,4.0,1.0,4.0,58.33333199999999,,,,,,,,24.0,0.0,0.16791,0.66333,-0.084229,-0.7243649999999999,0.940932,-0.343267,-0.124025,-0.012995,-0.020812,-0.038541000000000006,,,,,,,,,,,,,,,,,,,,,,,,,,,,,,,,,,,,,,,,,,,,,,,,,,,,,,,,,,,,,,,,,
24169,1645818418.338979,1645818418.369478,49.0,0.0,4122.05127,4611.794922,4194.871582,4287.692383,4210.769043,0.0,1.0,15.0,,,,0.0,4.0,2.0,4.0,1.0,4.0,58.33333199999999,,,,,,,,,,,,,,,,,,,,,,,,,,,,,,,,,,,,,,,,,,,,,,,,,,,,,,,,,,,,,,,,,,,,,,,,,,,,,,,,,,,,
24170,1645818418.3467948,1645818418.377292,50.0,0.0,4104.102539,4493.846191,4178.461426,4295.897461,4196.410156,0.0,1.0,15.0,,,,0.0,4.0,2.0,4.0,1.0,4.0,58.33333199999999,,,,,,,,25.0,0.0,0.16791,0.66333,-0.084229,-0.7243649999999999,0.9423969999999999,-0.34766199999999997,-0.106447,-0.012477,-0.020733,-0.034052,,,,,,,,,,,,,,,,,,,,,,,,,,,,,,,,,,,,,,,,,,,,,,,,,,,,,,,,,,,,,,,,,
24171,1645818418.3546119,1645818418.385107,51.0,0.0,4125.641113000001,4503.077147999999,4203.077147999999,4256.410156,4221.025879,0.0,1.0,15.0,,,,0.0,4.0,2.0,4.0,1.0,4.0,58.33333199999999,,,,,,,,,,,,,,,,,,,,,,,,,,,,,,,,,,,,,,,,,,,,,,,,,,,,,,0.0,0.0,32.0,0.755865,1.0,0.0,,,,,,,,,,,,,,,,,,,,,,,,,
24172,1645818418.362428,1645818418.3929212,52.0,0.0,4140.512695,4641.025879,4225.641113000001,4194.871582,4227.692383,0.0,1.0,15.0,,,,0.0,4.0,2.0,4.0,1.0,4.0,58.33333199999999,,,,,,,,26.0,0.0,0.168032,0.66333,-0.083984,-0.7243649999999999,0.94435,-0.34766199999999997,-0.09668099999999999,-0.011278,-0.020662,-0.036409,,,,,,,,,,,,,,,,,,,,,,,,,,,,,,,,,,,,,,,,,,,,,,,,,,,,,,,,,,,,,,,,,
24173,1645818418.370244,1645818418.4007359,53.0,0.0,4147.692383,4650.256348,4222.563965,4198.974121,4225.641113000001,0.0,1.0,15.0,,,,0.0,4.0,2.0,4.0,1.0,4.0,58.33333199999999,,,,,,,,,,,,,,,,,,,,,,,,,,,,,,,,,,,,,,,,,,,,,,,,,,,,,,,,,,,,,,,,,,,,,,,,,,,,,,,,,,,,
24174,1645818418.3780599,1645818418.408551,54.0,0.0,4154.358886999999,4591.794922,4213.333496,4281.538574,4252.307617,0.0,1.0,15.0,,,,0.0,4.0,2.0,4.0,1.0,4.0,58.33333199999999,,,,,,,,27.0,0.0,0.168032,0.66333,-0.083984,-0.7243649999999999,0.941421,-0.36328699999999997,-0.107912,-0.012445,-0.020549,-0.03853,,,,,,,,,,,,,,,,,,,,,,,,,,,,,,,,,,,,,,,,,,,,,,,,,,,,,,,,,,,,,,,,,
24175,1645818418.385877,1645818418.4163651,55.0,0.0,4131.282227000001,4575.384765999999,4191.794922,4294.871582,4261.025879,0.0,1.0,15.0,,,,0.0,4.0,2.0,4.0,1.0,4.0,58.33333199999999,,,,,,,,,,,,,,,,,,,,,,,,,,,,,,,,,,,,,,,,,,,,,,,,,,,,,,0.0,0.0,32.0,0.755865,1.0,0.0,,,,,,,,,,,,,,,,,,,,,,,,,
24176,1645818418.393693,1645818418.4242802,56.0,0.0,4124.102539,4535.897461,4184.615234000001,4263.589844,4238.974121,0.0,1.0,15.0,,,,0.0,4.0,2.0,4.0,1.0,4.0,58.33333199999999,,,,,,,,28.0,0.0,0.168032,0.66333,-0.083984,-0.7243649999999999,0.944839,-0.34815,-0.11035299999999999,-0.013496000000000001,-0.020593,-0.034189,,,,,,,,,,,,,,,,,,,,,,,,,,,,,,,,,,,,,,,,,,,,,,,,,,,,,,,,,,,,,,,,,
24177,1645818418.401509,1645818418.4320948,57.0,0.0,4142.563965,4579.487305,4200.0,4289.230957,4230.769043,0.0,1.0,15.0,,,,0.0,4.0,2.0,4.0,1.0,4.0,58.33333199999999,,,,,,,,,,,,,,,,,,,,,,,,,,,,,,,,,,,,,,,,,,,,,,,,,,,,,,,,,,,,,,,,,,,,,,,,,,,,,,,,,,,,
24178,1645818418.409325,1645818418.439909,58.0,0.0,4154.358886999999,4645.641113000001,4200.0,4321.025879,4249.230957,0.0,1.0,15.0,,,,0.0,4.0,2.0,4.0,1.0,4.0,58.33333199999999,,,,,,,,29.0,0.0,0.168032,0.66333,-0.083984,-0.7243649999999999,0.9404440000000001,-0.341314,-0.107912,-0.014490000000000001,-0.020487000000000002,-0.03658,,,,,,,,,,,,,,,,,,,,,,,,,,,,,,,,,,,,,,,,,,,,,,,,,,,,,,,,,,,,,,,,,
24179,1645818418.417141,1645818418.447724,59.0,0.0,4162.563965,4550.769043,4193.333496,4296.410156,4257.436035,0.0,1.0,15.0,,,,0.0,4.0,2.0,4.0,1.0,4.0,58.33333199999999,,,,,,,,,,,,,,,,,,,,,,,,,,,,,,,,,,,,,,,,,,,,,,,,,,,,,,0.0,0.0,32.0,0.755865,1.0,0.0,,,,,,,,,,,,,,,,,,,,,,,,,
24180,1645818418.424958,1645818418.455539,60.0,0.0,4165.128418,4488.205078,4207.179688,4240.0,4237.436035,0.0,1.0,15.0,,,,0.0,4.0,2.0,4.0,1.0,4.0,58.33333199999999,,,,,,,,30.0,0.0,0.16706600000000002,0.663574,-0.083984,-0.7243649999999999,0.9331200000000001,-0.330571,-0.105959,-0.015385,-0.02044,-0.032385000000000004,,,,,,,,,,,,,,,,,,,,,,,,,,,,,,,,,,,,,,,,,,,,,,,,,,,,,,,,,,,,,,,,,
24181,1645818418.432774,1645818418.463353,61.0,0.0,4141.025879,4582.563965,4194.358886999999,4244.102539,4222.05127,0.0,1.0,15.0,,,,0.0,4.0,2.0,4.0,1.0,4.0,58.33333199999999,,,,,,,,,,,,,,,,,,,,,,,,,,,,,,,,,,,,,,,,,,,,,,,,,,,,,,,,,,,,,,,,,,,,,,,,,,,,,,,,,,,,
24182,1645818418.4405901,1645818418.471168,62.0,0.0,4121.025879,4585.641113000001,4175.897461,4284.102539,4229.230957,0.0,1.0,15.0,,,,0.0,4.0,2.0,4.0,1.0,4.0,58.33333199999999,,,,,,,,31.0,0.0,0.168242,0.663574,-0.08374,-0.724121,0.9306780000000001,-0.34766199999999997,-0.11230599999999999,-0.016288,-0.020398,-0.034811,,,,,,,,,,,,,,,,,,,,,,,,,,,,,,,,,,,,,,,,,,,,,,,,,,,,,,,,,,,,,,,,,
24183,1645818418.448406,1645818418.478982,63.0,0.0,4142.563965,4515.384765999999,4181.025879,4273.846191,4233.846191,0.0,1.0,15.0,,,,0.0,4.0,2.0,4.0,1.0,4.0,58.33333199999999,1.0,0.0,1.0,0.0,4.0,0.0,0.0,,,,,,,,,,,,,1.0,0.0,0.0,,,,,,,,,,,,,,,,,,,,,,,,,,,,,,,,0.0,0.0,32.0,0.991556,1.0,0.0,306.05517599999996,20.681276,4.831856,2.658652,2.486709,20.004471,15.875885,9.567546,10.788048,12.516055999999999,2.490319,2.752682,2.523491,3.089426,2.297102,34.139571999999994,15.765816000000001,19.020908,25.812296,23.804085,64.761902,4.046742,2.946086,2.211198,4.275968
24184,1645818418.456223,1645818418.486797,64.0,0.0,4161.025879,4546.153809,4181.538574,4265.641113000001,4230.769043,450.0,1.0,15.0,,,,0.0,4.0,2.0,4.0,1.0,4.0,58.33333199999999,,,,,,,,32.0,0.0,0.168242,0.663574,-0.08374,-0.724121,0.937514,-0.341802,-0.10547000000000001,-0.017003,-0.020361,-0.03714,,,,,,,,,,,,,,,,,,,,,,,,,,,,,,,,,,,,,,,,,,,,,,,,,,,,,,,,,,,,,,,,,
24185,1645818418.464039,1645818418.4947119,65.0,0.0,4172.820313,4563.589844,4211.794922,4314.871582,4252.820313,450.0,1.0,15.0,,,,0.0,4.0,1.0,4.0,1.0,4.0,50.0,,,,,,,,,,,,,,,,,,,,,,,,,,,,,,,,,,,,,,,,,,,,,,,,,,,,,,,,,,,,,,,,,,,,,,,,,,,,,,,,,,,,
24186,1645818418.4718552,1645818418.502526,66.0,0.0,4177.94873,4552.307617,4242.05127,4305.641113000001,4260.0,16196.0,1.0,15.0,,,,0.0,4.0,1.0,4.0,1.0,4.0,50.0,,,,,,,,33.0,0.0,0.168242,0.663574,-0.08374,-0.724121,0.9389790000000001,-0.350591,-0.11425999999999999,-0.016084,-0.020424,-0.039139,,,,,,,,,,,,,,,,,,,,,,,,,,,,,,,,,,,,,,,,,,,,,,,,,,,,,,,,,,,,,,,,,
24187,1645818418.479671,1645818418.510341,67.0,0.0,4164.615234000001,4592.820313,4213.846191,4230.769043,4227.179688,450.0,1.0,15.0,,,,0.0,4.0,1.0,4.0,1.0,4.0,50.0,,,,,,,,,,,,,,,,,,,,,,,,,,,,,,,,,,,,,,,,,,,,,,,,,,,,,,0.0,0.0,32.0,0.991556,1.0,0.0,,,,,,,,,,,,,,,,,,,,,,,,,
24188,1645818418.4874868,1645818418.518156,68.0,0.0,4155.384765999999,4596.922852000001,4193.846191,4263.589844,4203.077147999999,60.0,1.0,15.0,,,,0.0,4.0,1.0,4.0,1.0,4.0,50.0,,,,,,,,34.0,0.0,0.168121,0.663574,-0.083984,-0.724121,0.939467,-0.352056,-0.11230599999999999,-0.016916999999999998,-0.020433,-0.034638999999999996,,,,,,,,,,,,,,,,,,,,,,,,,,,,,,,,,,,,,,,,,,,,,,,,,,,,,,,,,,,,,,,,,
24189,1645818418.4953039,1645818418.52597,69.0,0.0,4159.487305,4555.384765999999,4218.974121,4318.974121,4222.563965,450.0,1.0,15.0,,,,0.0,4.0,1.0,4.0,1.0,4.0,50.0,,,,,,,,,,,,,,,,,,,,,,,,,,,,,,,,,,,,,,,,,,,,,,,,,,,,,,,,,,,,,,,,,,,,,,,,,,,,,,,,,,,,
24190,1645818418.50312,1645818418.5337849,70.0,0.0,4162.563965,4542.563965,4210.256348,4254.871582,4238.461426,16176.0,1.0,15.0,,,,0.0,4.0,1.0,4.0,1.0,4.0,50.0,,,,,,,,35.0,0.0,0.168242,0.663574,-0.08374,-0.724121,0.9404440000000001,-0.336919,-0.11035299999999999,-0.017519999999999997,-0.020538,-0.036937,,,,,,,,,,,,,,,,,,,,,,,,,,,,,,,,,,,,,,,,,,,,,,,,,,,,,,,,,,,,,,,,,
24191,1645818418.510936,1645818418.5416,71.0,0.0,4169.230957,4559.487305,4192.820313,4201.538574,4235.384765999999,450.0,1.0,15.0,,,,0.0,4.0,1.0,4.0,1.0,4.0,50.0,,,,,,,,,,,,,,,,,,,,,,,,,,,,,,,,,,,,,,,,,,,,,,,,,,,,,,0.0,0.0,32.0,0.991556,1.0,0.0,,,,,,,,,,,,,,,,,,,,,,,,,
24192,1645818418.5187519,1645818418.5494142,72.0,0.0,4176.410156,4576.922852000001,4210.769043,4271.794922,4237.436035,450.0,1.0,15.0,,,,0.0,4.0,1.0,4.0,1.0,4.0,50.0,,,,,,,,36.0,0.0,0.168121,0.663574,-0.083984,-0.724121,0.9438620000000001,-0.338384,-0.11230599999999999,-0.018161,-0.020534999999999998,-0.032804,,,,,,,,,,,,,,,,,,,,,,,,,,,,,,,,,,,,,,,,,,,,,,,,,,,,,,,,,,,,,,,,,
24193,1645818418.526569,1645818418.5572288,73.0,0.0,4163.077147999999,4600.0,4209.230957,4326.153809,4243.077147999999,37.0,1.0,15.0,,,,0.0,4.0,1.0,4.0,1.0,4.0,50.0,,,,,,,,,,,,,,,,,,,,,,,,,,,,,,,,,,,,,,,,,,,,,,,,,,,,,,,,,,,,,,,,,,,,,,,,,,,,,,,,,,,,
24194,1645818418.534385,1645818418.5651429,74.0,0.0,4140.0,4593.846191,4183.589844,4236.922852000001,4236.922852000001,450.0,1.0,15.0,,,,0.0,4.0,1.0,4.0,1.0,4.0,50.0,,,,,,,,37.0,0.0,0.168121,0.663574,-0.083984,-0.724121,0.9428850000000001,-0.340337,-0.104494,-0.018688,-0.020531999999999998,-0.035237,,,,,,,,,,,,,,,,,,,,,,,,,,,,,,,,,,,,,,,,,,,,,,,,,,,,,,,,,,,,,,,,,
24195,1645818418.542201,1645818418.572958,75.0,0.0,4153.333496,4551.282227000001,4192.820313,4213.333496,4233.333496,16247.0,1.0,15.0,,,,0.0,4.0,1.0,4.0,1.0,4.0,50.0,,,,,,,,,,,,,,,,,,,,,,,,,,,,,,,,,,,,,,,,,,,,,,,,,,,,,,0.0,0.0,32.0,0.991556,1.0,0.0,,,,,,,,,,,,,,,,,,,,,,,,,
24196,1645818418.5500169,1645818418.580773,76.0,0.0,4175.897461,4544.102539,4214.871582,4313.333496,4237.436035,450.0,1.0,15.0,,,,0.0,4.0,1.0,4.0,1.0,4.0,50.0,,,,,,,,38.0,0.0,0.168121,0.663574,-0.083984,-0.724121,0.939467,-0.340826,-0.107912,-0.019114,-0.020627,-0.037475,,,,,,,,,,,,,,,,,,,,,,,,,,,,,,,,,,,,,,,,,,,,,,,,,,,,,,,,,,,,,,,,,
24197,1645818418.557834,1645818418.5885868,77.0,0.0,4168.205078,4553.846191,4209.230957,4303.077147999999,4221.025879,450.0,1.0,15.0,,,,0.0,4.0,1.0,4.0,1.0,4.0,50.0,,,,,,,,,,,,,,,,,,,,,,,,,,,,,,,,,,,,,,,,,,,,,,,,,,,,,,,,,,,,,,,,,,,,,,,,,,,,,,,,,,,,
24198,1645818418.56565,1645818418.596402,78.0,0.0,4170.769043,4562.05127,4215.897461,4195.384765999999,4226.153809,450.0,1.0,15.0,,,,0.0,4.0,1.0,4.0,1.0,4.0,50.0,,,,,,,,39.0,0.0,0.168121,0.663574,-0.083984,-0.724121,0.944839,-0.343267,-0.109377,-0.019449,-0.020567,-0.039439999999999996,,,,,,,,,,,,,,,,,,,,,,,,,,,,,,,,,,,,,,,,,,,,,,,,,,,,,,,,,,,,,,,,,
24199,1645818418.573466,1645818418.604217,79.0,0.0,4193.333496,4581.538574,4235.897461,4236.922852000001,4258.461426,16247.0,1.0,15.0,,,,0.0,4.0,1.0,4.0,1.0,4.0,50.0,,,,,,,,,,,,,,,,,,,,1.0,0.0,0.0,,,,,,,,,,,,,,,,,,,,,,,,,,,,,,,,0.0,0.0,1.0,0.0,512.0,1.0,421.242065,28.864717,5.710958,2.81435,2.66725,29.989395000000002,20.99383,8.486778,12.650417,12.943373,2.463764,4.121612,3.014462,3.3915889999999997,2.489268,33.899044,19.228624,26.699585,34.820442,37.073822,91.142769,5.538811,3.571228,2.3746,4.7503470000000005
24200,1645818418.5812821,1645818418.612031,80.0,0.0,4180.0,4586.153809,4204.102539,4310.769043,4239.487305,450.0,1.0,15.0,,,,0.0,4.0,1.0,4.0,1.0,4.0,50.0,,,,,,,,40.0,0.0,0.168121,0.663574,-0.083984,-0.724121,0.949722,-0.34815,-0.113771,-0.020043000000000002,-0.02061,-0.034862,,,,,,,,,,,,,,,,,,,,,,,,,,,,,,,,,,,,,,,,,,,,,,,,,,,,,,,,,,,,,,,,,
24201,1645818418.589099,1645818418.619846,81.0,0.0,4156.922852000001,4551.794922,4173.333496,4250.769043,4207.179688,450.0,1.0,15.0,,,,0.0,4.0,1.0,4.0,1.0,4.0,50.0,,,,,,,,,,,,,,,,,,,,,,,,,,,,,,,,,,,,,,,,,,,,,,,,,,,,,,,,,,,,,,,,,,,,,,,,,,,,,,,,,,,,
24202,1645818418.596915,1645818418.627661,82.0,0.0,4190.256348,4516.922852000001,4212.307617,4258.974121,4252.307617,450.0,1.0,15.0,,,,0.0,4.0,1.0,4.0,1.0,4.0,50.0,,,,,,,,41.0,0.0,0.168121,0.663574,-0.083984,-0.724121,0.9355610000000001,-0.34815,-0.098634,-0.018088,-0.020551,-0.030838,,,,,,,,,,,,,,,,,,,,,,,,,,,,,,,,,,,,,,,,,,,,,,,,,,,,,,,,,,,,,,,,,
24203,1645818418.604731,1645818418.635475,83.0,0.0,4192.820313,4528.717772999999,4210.256348,4358.974121,4265.128418,16247.0,1.0,15.0,,,,0.0,4.0,1.0,4.0,1.0,4.0,50.0,,,,,,,,,,,,,,,,,,,,,,,,,,,,,,,,,,,,,,,,,,,,,,,,,,,,,,0.0,0.0,1.0,0.0,512.0,1.0,,,,,,,,,,,,,,,,,,,,,,,,,
24204,1645818418.6125472,1645818418.64339,84.0,0.0,4148.717772999999,4508.717772999999,4154.358886999999,4376.922852000001,4208.717772999999,450.0,1.0,15.0,,,,0.0,4.0,1.0,4.0,1.0,4.0,50.0,,,,,,,,42.0,0.0,0.168121,0.663574,-0.083984,-0.724121,0.9487450000000001,-0.35547399999999996,-0.1084,-0.018818,-0.020546000000000002,-0.027168,,,,,,,,,,,,,,,,,,,,,,,,,,,,,,,,,,,,,,,,,,,,,,,,,,,,,,,,,,,,,,,,,
24205,1645818418.620364,1645818418.6512039,85.0,0.0,4168.205078,4516.922852000001,4168.717772999999,4303.589844,4234.871582,450.0,1.0,15.0,,,,0.0,4.0,1.0,4.0,1.0,4.0,50.0,,,,,,,,,,,,,,,,,,,,,,,,,,,,,,,,,,,,,,,,,,,,,,,,,,,,,,,,,,,,,,,,,,,,,,,,,,,,,,,,,,,,
24206,1645818418.62818,1645818418.659019,86.0,0.0,4216.922852000001,4585.641113000001,4220.512695,4236.922852000001,4291.794922,450.0,1.0,15.0,,,,0.0,4.0,1.0,4.0,1.0,4.0,50.0,,,,,,,,43.0,0.0,0.168121,0.663574,-0.083984,-0.724121,0.940932,-0.338384,-0.103029,-0.019280000000000002,-0.020590999999999998,-0.030164999999999997,,,,,,,,,,,,,,,,,,,,,,,,,,,,,,,,,,,,,,,,,,,,,,,,,,,,,,,,,,,,,,,,,
24207,1645818418.635996,1645818418.6668339,87.0,0.0,4187.179688,4574.358886999999,4194.871582,4235.897461,4242.05127,16247.0,1.0,15.0,,,,0.0,4.0,1.0,4.0,1.0,4.0,50.0,,,,,,,,,,,,,,,,,,,,,,,,,,,,,,,,,,,,,,,,,,,,,,,,,,,,,,0.0,0.0,1.0,0.0,512.0,1.0,,,,,,,,,,,,,,,,,,,,,,,,,
24208,1645818418.643812,1645818418.674648,88.0,0.0,4146.153809,4501.538574,4160.512695,4293.846191,4195.897461,450.0,1.0,15.0,,,,0.0,4.0,1.0,4.0,1.0,4.0,50.0,,,,,,,,44.0,0.0,0.167998,0.663574,-0.084229,-0.724121,0.929213,-0.34815,-0.11816600000000001,-0.019745,-0.020534,-0.026660000000000003,,,,,,,,,,,,,,,,,,,,,,,,,,,,,,,,,,,,,,,,,,,,,,,,,,,,,,,,,,,,,,,,,
24209,1645818418.651629,1645818418.6824632,89.0,0.0,4173.333496,4524.102539,4192.307617,4318.461426,4235.384765999999,450.0,1.0,15.0,,,,0.0,4.0,1.0,4.0,1.0,4.0,50.0,,,,,,,,,,,,,,,,,,,,,,,,,,,,,,,,,,,,,,,,,,,,,,,,,,,,,,,,,,,,,,,,,,,,,,,,,,,,,,,,,,,,
24210,1645818418.6594448,1645818418.6902778,90.0,0.0,4191.282227000001,4599.487305,4213.333496,4252.820313,4244.615234000001,450.0,1.0,15.0,,,,0.0,4.0,1.0,4.0,1.0,4.0,50.0,,,,,,,,45.0,0.0,0.168121,0.663574,-0.083984,-0.724121,0.9487450000000001,-0.35547399999999996,-0.1084,-0.020309,-0.020531999999999998,-0.023408,,,,,,,,,,,,,,,,,,,,,,,,,,,,,,,,,,,,,,,,,,,,,,,,,,,,,,,,,,,,,,,,,
24211,1645818418.667261,1645818418.698092,91.0,0.0,4167.179688,4570.769043,4181.025879,4219.487305,4205.128418,16247.0,1.0,15.0,,,,0.0,4.0,1.0,4.0,1.0,4.0,50.0,,,,,,,,,,,,,,,,,,,,,,,,,,,,,,,,,,,,,,,,,,,,,,,,,,,,,,0.0,0.0,1.0,0.0,512.0,1.0,,,,,,,,,,,,,,,,,,,,,,,,,
24212,1645818418.675077,1645818418.705907,92.0,0.0,4167.179688,4533.333496,4165.128418,4275.897461,4214.871582,450.0,1.0,15.0,,,,0.0,4.0,1.0,4.0,1.0,4.0,50.0,,,,,,,,46.0,0.0,0.167998,0.663574,-0.084229,-0.724121,0.9472799999999999,-0.349615,-0.104005,-0.020572999999999998,-0.020529,-0.020432,,,,,,,,,,,,,,,,,,,,,,,,,,,,,,,,,,,,,,,,,,,,,,,,,,,,,,,,,,,,,,,,,
24213,1645818418.682893,1645818418.7138212,93.0,0.0,4192.820313,4570.769043,4182.05127,4323.589844,4256.410156,450.0,1.0,15.0,,,,0.0,4.0,1.0,4.0,1.0,4.0,50.0,,,,,,,,,,,,,,,,,,,,,,,,,,,,,,,,,,,,,,,,,,,,,,,,,,,,,,,,,,,,,,,,,,,,,,,,,,,,,,,,,,,,
24214,1645818418.69071,1645818418.7216358,94.0,0.0,4192.820313,4580.0,4191.282227000001,4315.384765999999,4260.0,450.0,1.0,15.0,,,,0.0,4.0,1.0,4.0,1.0,4.0,50.0,,,,,,,,47.0,0.0,0.167998,0.663574,-0.084229,-0.724121,0.949233,-0.356451,-0.11914200000000001,-0.018614,-0.020527,-0.024053,,,,,,,,,,,,,,,,,,,,,,,,,,,,,,,,,,,,,,,,,,,,,,,,,,,,,,,,,,,,,,,,,
24215,1645818418.698526,1645818418.729451,95.0,0.0,4175.897461,4542.05127,4183.077147999999,4265.128418,4236.410156,16247.0,1.0,15.0,,,,0.0,4.0,1.0,4.0,1.0,4.0,50.0,,,,,,,,,,,,,,,,,,,,1.0,0.0,0.0,,,,,,,,,,,,,,,,,,,,,,,,,,,,,,,,0.0,0.0,1.0,0.0,512.0,1.0,501.5448,35.403335999999996,6.351828,2.945806,2.816614,45.645218,27.444712,9.270949,15.600748999999999,13.652164,2.337866,5.637567,3.441564,3.5209980000000005,2.757372,31.076809,22.404842000000002,34.159138,43.071575,50.664936,111.18931599999999,6.856385,4.2403129999999996,2.632331,5.007187
24216,1645818418.706342,1645818418.737265,96.0,0.0,4174.358886999999,4543.077147999999,4172.307617,4234.871582,4226.666504,450.0,1.0,15.0,,,,0.0,4.0,1.0,4.0,1.0,4.0,50.0,,,,,,,,48.0,0.0,0.167998,0.663574,-0.084229,-0.724121,0.9428850000000001,-0.354498,-0.104494,-0.017436,-0.020525,-0.027263,,,,,,,,,,,,,,,,,,,,,,,,,,,,,,,,,,,,,,,,,,,,,,,,,,,,,,,,,,,,,,,,,
24217,1645818418.714158,1645818418.74508,97.0,0.0,4206.153809,4556.410156,4182.05127,4280.0,4248.205078,450.0,1.0,15.0,,,,0.0,4.0,1.0,4.0,1.0,4.0,50.0,,,,,,,,,,,,,,,,,,,,,,,,,,,,,,,,,,,,,,,,,,,,,,,,,,,,,,,,,,,,,,,,,,,,,,,,,,,,,,,,,,,,
24218,1645818418.721975,1645818418.7528949,98.0,0.0,4221.538574,4495.897461,4192.307617,4309.230957,4263.077147999999,450.0,1.0,15.0,,,,0.0,4.0,1.0,4.0,1.0,4.0,50.0,,,,,,,,49.0,0.0,0.167998,0.663574,-0.084229,-0.724121,0.9511860000000001,-0.35108,-0.119631,-0.018134,-0.020572,-0.030151999999999998,,,,,,,,,,,,,,,,,,,,,,,,,,,,,,,,,,,,,,,,,,,,,,,,,,,,,,,,,,,,,,,,,
24219,1645818418.729791,1645818418.760709,99.0,0.0,4194.358886999999,4469.743652,4184.102539,4252.820313,4243.077147999999,16247.0,1.0,15.0,,,,0.0,4.0,1.0,4.0,1.0,4.0,50.0,,,,,,,,,,,,,,,,,,,,,,,,,,,,,,,,,,,,,,,,,,,,,,,,,,,,,,0.0,0.0,1.0,0.0,512.0,1.0,,,,,,,,,,,,,,,,,,,,,,,,,
24220,1645818418.737607,1645818418.768524,100.0,0.0,4177.94873,4513.846191,4177.436035,4264.102539,4216.410156,450.0,1.0,15.0,,,,0.0,4.0,1.0,4.0,1.0,4.0,50.0,,,,,,,,50.0,0.0,0.167998,0.663574,-0.084229,-0.724121,0.9389790000000001,-0.341314,-0.11425999999999999,-0.018713,-0.020468,-0.0266,,,,,,,,,,,,,,,,,,,,,,,,,,,,,,,,,,,,,,,,,,,,,,,,,,,,,,,,,,,,,,,,,
24221,1645818418.745423,1645818418.776339,101.0,0.0,4187.692383,4532.820313,4176.922852000001,4319.487305,4213.846191,450.0,1.0,15.0,,,,0.0,4.0,1.0,4.0,1.0,4.0,50.0,,,,,,,,,,,,,,,,,,,,,,,,,,,,,,,,,,,,,,,,,,,,,,,,,,,,,,,,,,,,,,,,,,,,,,,,,,,,,,,,,,,,
24222,1645818418.75324,1645818418.784253,102.0,0.0,4187.692383,4511.282227000001,4166.153809,4249.743652,4218.461426,450.0,1.0,15.0,,,,0.0,4.0,1.0,4.0,1.0,4.0,50.0,,,,,,,,51.0,0.0,0.169047,0.663574,-0.084229,-0.723877,0.932143,-0.335943,-0.109865,-0.016891,-0.020569999999999998,-0.029702,,,,,,,,,,,,,,,,,,,,,,,,,,,,,,,,,,,,,,,,,,,,,,,,,,,,,,,,,,,,,,,,,
24223,1645818418.761056,1645818418.792068,103.0,0.0,4195.897461,4455.897461,4179.487305,4218.974121,4237.436035,16247.0,1.0,15.0,,,,0.0,4.0,1.0,4.0,1.0,4.0,50.0,,,,,,,,,,,,,,,,,,,,,,,,,,,,,,,,,,,,,,,,,,,,,,,,,,,,,,0.0,0.0,1.0,0.0,512.0,1.0,,,,,,,,,,,,,,,,,,,,,,,,,
24224,1645818418.768872,1645818418.799882,104.0,0.0,4215.897461,4406.666504,4206.666504,4310.256348,4254.358886999999,450.0,1.0,15.0,,,,0.0,4.0,1.0,4.0,1.0,4.0,50.0,,,,,,,,52.0,0.0,0.169047,0.663574,-0.084229,-0.723877,0.9521629999999999,-0.346197,-0.107912,-0.017692,-0.020661000000000002,-0.026292000000000003,,,,,,,,,,,,,,,,,,,,,,,,,,,,,,,,,,,,,,,,,,,,,,,,,,,,,,,,,,,,,,,,,
24225,1645818418.776688,1645818418.807697,105.0,0.0,4220.0,4452.820313,4202.563965,4305.641113000001,4251.794922,450.0,1.0,15.0,,,,0.0,4.0,1.0,4.0,1.0,4.0,50.0,,,,,,,,,,,,,,,,,,,,,,,,,,,,,,,,,,,,,,,,,,,,,,,,,,,,,,,,,,,,,,,,,,,,,,,,,,,,,,,,,,,,
24226,1645818418.7845051,1645818418.815512,106.0,0.0,4223.077147999999,4512.307617,4200.0,4242.05127,4249.743652,450.0,1.0,15.0,,,,0.0,4.0,1.0,4.0,1.0,4.0,50.0,,,,,,,,53.0,0.0,0.169047,0.663574,-0.084229,-0.723877,0.946792,-0.348638,-0.112795,-0.018364,-0.020744,-0.029327,,,,,,,,,,,,,,,,,,,,,,,,,,,,,,,,,,,,,,,,,,,,,,,,,,,,,,,,,,,,,,,,,
24227,1645818418.7923212,1645818418.8233259,107.0,0.0,4236.410156,4480.0,4214.871582,4289.230957,4250.769043,16247.0,1.0,15.0,,,,0.0,4.0,1.0,4.0,1.0,4.0,50.0,,,,,,,,,,,,,,,,,,,,,,,,,,,,,,,,,,,,,,,,,,,,,,,,,,,,,,0.0,0.0,1.0,0.0,512.0,1.0,,,,,,,,,,,,,,,,,,,,,,,,,
24228,1645818418.8001368,1645818418.831141,108.0,0.0,4234.871582,4457.436035,4206.153809,4309.230957,4257.436035,450.0,1.0,15.0,,,,0.0,4.0,1.0,4.0,1.0,4.0,50.0,,,,,,,,54.0,0.0,0.169047,0.663574,-0.084229,-0.723877,0.933608,-0.352056,-0.11230599999999999,-0.018774000000000002,-0.020623,-0.02576,,,,,,,,,,,,,,,,,,,,,,,,,,,,,,,,,,,,,,,,,,,,,,,,,,,,,,,,,,,,,,,,,
24229,1645818418.807953,1645818418.838956,109.0,0.0,4218.461426,4496.410156,4189.230957,4256.410156,4257.94873,450.0,1.0,15.0,,,,0.0,4.0,1.0,4.0,1.0,4.0,50.0,,,,,,,,,,,,,,,,,,,,,,,,,,,,,,,,,,,,,,,,,,,,,,,,,,,,,,,,,,,,,,,,,,,,,,,,,,,,,,,,,,,,
24230,1645818418.81577,1645818418.8467698,110.0,0.0,4208.205078,4528.717772999999,4186.153809,4256.922852000001,4232.307617,450.0,1.0,15.0,,,,0.0,4.0,1.0,4.0,1.0,4.0,50.0,,,,,,,,55.0,0.0,0.167998,0.663574,-0.084229,-0.724121,0.9389790000000001,-0.33789600000000003,-0.10498199999999999,-0.016944999999999998,-0.020611,-0.022744,,,,,,,,,,,,,,,,,,,,,,,,,,,,,,,,,,,,,,,,,,,,,,,,,,,,,,,,,,,,,,,,,
24231,1645818418.823586,1645818418.854685,111.0,0.0,4208.717772999999,4509.743652,4190.256348,4288.717772999999,4207.692383,16247.0,1.0,15.0,,,,0.0,4.0,1.0,4.0,1.0,4.0,50.0,,,,,,,,,,,,,,,,,,,,1.0,0.0,0.0,,,,,,,,,,,,,,,,,,,,,,,,,,,,,,,,0.0,0.0,1.0,0.0,512.0,1.0,525.65448,38.341995000000004,6.636138000000001,3.088341,2.902984,64.001129,33.931931,11.384281,18.981398000000002,14.545487,2.143081,6.962731,3.679443,3.4639349999999998,3.037746,26.708382,24.981533,39.580036,47.817085,60.606792000000006,119.261024,7.704667999999999,4.9001589999999995,2.9457169999999997,4.9645529999999995
24232,1645818418.831402,1645818418.8625,112.0,0.0,4219.487305,4471.282227000001,4195.897461,4300.0,4227.692383,450.0,1.0,15.0,,,,0.0,4.0,1.0,4.0,1.0,4.0,50.0,,,,,,,,56.0,0.0,0.167998,0.663574,-0.084229,-0.724121,0.941909,-0.353033,-0.129885,-0.017643,-0.020552,-0.026133999999999998,,,,,,,,,,,,,,,,,,,,,,,,,,,,,,,,,,,,,,,,,,,,,,,,,,,,,,,,,,,,,,,,,
24233,1645818418.839218,1645818418.870414,113.0,0.0,4231.794922,4507.692383,4198.461426,4300.0,4249.230957,450.0,1.0,15.0,,,,0.0,4.0,1.0,4.0,1.0,4.0,50.0,,,,,,,,,,,,,,,,,,,,,,,,,,,,,,,,,,,,,,,,,,,,,,,,,,,,,,,,,,,,,,,,,,,,,,,,,,,,,,,,,,,,
24234,1645818418.847034,1645818418.878229,114.0,0.0,4235.384765999999,4565.641113000001,4191.282227000001,4256.410156,4254.358886999999,450.0,1.0,15.0,,,,0.0,4.0,1.0,4.0,1.0,4.0,50.0,,,,,,,,57.0,0.0,0.169169,0.663574,-0.083984,-0.723877,0.9487450000000001,-0.33789600000000003,-0.102052,-0.018369,-0.020645,-0.029185000000000003,,,,,,,,,,,,,,,,,,,,,,,,,,,,,,,,,,,,,,,,,,,,,,,,,,,,,,,,,,,,,,,,,
24235,1645818418.854851,1645818418.886043,115.0,0.0,4226.666504,4515.384765999999,4182.563965,4207.179688,4257.94873,16247.0,1.0,15.0,,,,0.0,4.0,1.0,4.0,1.0,4.0,50.0,,,,,,,,,,,,,,,,,,,,,,,,,,,,,,,,,,,,,,,,,,,,,,,,,,,,,,0.0,0.0,1.0,0.0,512.0,1.0,,,,,,,,,,,,,,,,,,,,,,,,,
24236,1645818418.862667,1645818418.893858,116.0,0.0,4242.563965,4478.461426,4195.384765999999,4258.461426,4258.461426,450.0,1.0,15.0,,,,0.0,4.0,1.0,4.0,1.0,4.0,50.0,,,,,,,,58.0,0.0,0.168208,0.663818,-0.083984,-0.723877,0.941909,-0.35938000000000003,-0.106447,-0.018974,-0.02068,-0.025729000000000002,,,,,,,,,,,,,,,,,,,,,,,,,,,,,,,,,,,,,,,,,,,,,,,,,,,,,,,,,,,,,,,,,
24237,1645818418.870483,1645818418.901673,117.0,0.0,4254.871582,4517.94873,4201.025879,4350.256348,4250.256348,450.0,1.0,15.0,,,,0.0,4.0,1.0,4.0,1.0,4.0,50.0,,,,,,,,,,,,,,,,,,,,,,,,,,,,,,,,,,,,,,,,,,,,,,,,,,,,,,,,,,,,,,,,,,,,,,,,,,,,,,,,,,,,
24238,1645818418.878299,1645818418.909487,118.0,0.0,4230.256348,4498.974121,4181.538574,4338.974121,4240.0,450.0,1.0,15.0,,,,0.0,4.0,1.0,4.0,1.0,4.0,50.0,,,,,,,,59.0,0.0,0.168208,0.663818,-0.083984,-0.723877,0.934585,-0.33350100000000005,-0.10498199999999999,-0.01942,-0.020663,-0.028869,,,,,,,,,,,,,,,,,,,,,,,,,,,,,,,,,,,,,,,,,,,,,,,,,,,,,,,,,,,,,,,,,
24239,1645818418.886116,1645818418.917302,119.0,0.0,4227.692383,4494.358886999999,4178.461426,4271.282227000001,4233.333496,16247.0,1.0,15.0,,,,0.0,4.0,1.0,4.0,1.0,4.0,50.0,,,,,,,,,,,,,,,,,,,,,,,,,,,,,,,,,,,,,,,,,,,,,,,,,,,,,,0.0,0.0,1.0,0.0,512.0,1.0,,,,,,,,,,,,,,,,,,,,,,,,,
24240,1645818418.893932,1645818418.925117,120.0,0.0,4260.512695,4598.461426,4202.563965,4253.846191,4238.974121,450.0,1.0,15.0,,,,0.0,4.0,1.0,4.0,1.0,4.0,50.0,,,,,,,,60.0,0.0,0.169255,0.663818,-0.083984,-0.723633,0.937514,-0.345708,-0.10498199999999999,-0.017625,-0.020648,-0.031646,,,,,,,,,,,,,,,,,,,,,,,,,,,,,,,,,,,,,,,,,,,,,,,,,,,,,,,,,,,,,,,,,
24241,1645818418.901748,1645818418.932931,121.0,0.0,4260.0,4605.641113000001,4198.974121,4254.871582,4252.307617,450.0,1.0,15.0,,,,0.0,4.0,1.0,4.0,1.0,4.0,50.0,,,,,,,,,,,,,,,,,,,,,,,,,,,,,,,,,,,,,,,,,,,,,,,,,,,,,,,,,,,,,,,,,,,,,,,,,,,,,,,,,,,,
24242,1645818418.909564,1645818418.9408462,122.0,0.0,4255.897461,4507.179688,4188.717772999999,4236.922852000001,4273.333496,450.0,1.0,15.0,,,,0.0,4.0,1.0,4.0,1.0,4.0,50.0,,,,,,,,61.0,0.0,0.169255,0.663818,-0.083984,-0.723633,0.938491,-0.34815,-0.09765800000000001,-0.018108000000000003,-0.020536000000000002,-0.034292,,,,,,,,,,,,,,,,,,,,,,,,,,,,,,,,,,,,,,,,,,,,,,,,,,,,,,,,,,,,,,,,,
24243,1645818418.91738,1645818418.94866,123.0,0.0,4283.589844,4513.846191,4209.743652,4240.512695,4282.05127,16247.0,1.0,15.0,,,,0.0,4.0,1.0,4.0,1.0,4.0,50.0,,,,,,,,,,,,,,,,,,,,,,,,,,,,,,,,,,,,,,,,,,,,,,,,,,,,,,0.0,0.0,1.0,0.0,512.0,1.0,,,,,,,,,,,,,,,,,,,,,,,,,
24244,1645818418.9251971,1645818418.956475,124.0,0.0,4280.512695,4581.538574,4220.0,4281.538574,4257.94873,450.0,1.0,15.0,,,,0.0,4.0,1.0,4.0,1.0,4.0,50.0,,,,,,,,62.0,0.0,0.169255,0.663818,-0.083984,-0.723633,0.9438620000000001,-0.350103,-0.107912,-0.018641,-0.020582,-0.030375,,,,,,,,,,,,,,,,,,,,,,,,,,,,,,,,,,,,,,,,,,,,,,,,,,,,,,,,,,,,,,,,,
24245,1645818418.9330132,1645818418.9642901,125.0,0.0,4241.025879,4618.461426,4193.333496,4260.0,4235.384765999999,450.0,1.0,15.0,,,,0.0,4.0,1.0,4.0,1.0,4.0,50.0,,,,,,,,,,,,,,,,,,,,,,,,,,,,,,,,,,,,,,,,,,,,,,,,,,,,,,,,,,,,,,,,,,,,,,,,,,,,,,,,,,,,
24246,1645818418.9408288,1645818418.9721038,126.0,0.0,4226.666504,4640.0,4169.230957,4226.666504,4237.436035,450.0,1.0,15.0,,,,0.0,4.0,1.0,4.0,1.0,4.0,50.0,,,,,,,,63.0,0.0,0.169255,0.663818,-0.083984,-0.723633,0.937514,-0.345708,-0.10498199999999999,-0.016924,-0.020575,-0.033002,,,,,,,,,,,,,,,,,,,,,,,,,,,,,,,,,,,,,,,,,,,,,,,,,,,,,,,,,,,,,,,,,
24247,1645818418.9486449,1645818418.979919,127.0,0.0,4268.717772999999,4633.333496,4193.333496,4270.256348,4258.461426,233.0,1.0,15.0,,,,0.0,4.0,1.0,4.0,1.0,4.0,50.0,1.0,0.0,1.0,0.0,4.0,0.0,0.0,,,,,,,,,,,,,1.0,0.0,0.0,,,,,,,,,,,,,,,,,,,,,,,,,,,,,,,,0.0,0.0,1.0,0.0,512.0,1.0,481.684784,36.802589000000005,6.548508999999999,3.25372,2.914762,80.154747,38.676815000000005,13.730770999999999,21.827419,15.461101999999999,1.913373,7.736494,3.666586,3.253629,3.269828,21.899096,26.510085999999998,41.57885,47.196213,63.893955000000005,112.18656899999999,7.901267999999999,5.465648000000001,3.235112,4.669469
24248,1645818418.956462,1645818418.987734,0.0,0.0,4297.436035,4631.282227000001,4215.384765999999,4297.94873,4265.641113000001,450.0,1.0,15.0,,,,0.0,4.0,1.0,4.0,1.0,4.0,50.0,,,,,,,,0.0,0.0,0.169255,0.663818,-0.083984,-0.723633,0.9438620000000001,-0.350103,-0.107912,-0.017575,-0.020617,-0.029213,,,,,,,,,,,,,,,,,,,,,,,,,,,,,,,,,,,,,,,,,,,,,,,,,,,,,,,,,,,,,,,,,
24249,1645818418.964278,1645818418.995548,1.0,0.0,4265.128418,4673.846191,4184.102539,4260.0,4238.461426,450.0,1.0,15.0,,,,0.0,4.0,1.0,4.0,1.0,4.0,50.0,,,,,,,,,,,,,,,,,,,,,,,,,,,,,,,,,,,,,,,,,,,,,,,,,,,,,,,,,,,,,,,,,,,,,,,,,,,,,,,,,,,,
24250,1645818418.972094,1645818419.0033631,2.0,0.0,4230.769043,4687.179688,4155.897461,4269.743652,4216.410156,16147.0,1.0,15.0,,,,0.0,4.0,1.0,4.0,1.0,4.0,50.0,,,,,,,,1.0,0.0,0.169255,0.663818,-0.083984,-0.723633,0.939467,-0.357427,-0.106447,-0.018161,-0.020606,-0.032005,,,,,,,,,,,,,,,,,,,,,,,,,,,,,,,,,,,,,,,,,,,,,,,,,,,,,,,,,,,,,,,,,
24251,1645818418.97991,1645818419.011178,3.0,0.0,4254.358886999999,4598.461426,4184.615234000001,4331.794922,4238.461426,450.0,1.0,15.0,,,,0.0,4.0,1.0,4.0,1.0,4.0,50.0,,,,,,,,,,,,,,,,,,,,,,,,,,,,,,,,,,,,,,,,,,,,,,,,,,,,,,0.0,0.0,1.0,0.0,512.0,1.0,,,,,,,,,,,,,,,,,,,,,,,,,
24252,1645818418.987727,1645818419.019092,4.0,0.0,4274.358886999999,4513.846191,4211.282227000001,4304.615234000001,4252.820313,0.0,1.0,15.0,,,,0.0,4.0,0.0,4.0,1.0,4.0,41.666668,,,,,,,,2.0,0.0,0.16913399999999998,0.663818,-0.084229,-0.723633,0.9331200000000001,-0.361822,-0.098146,-0.018688999999999997,-0.020645,-0.034517,,,,,,,,,,,,,,,,,,,,,,,,,,,,,,,,,,,,,,,,,,,,,,,,,,,,,,,,,,,,,,,,,
24253,1645818418.995543,1645818419.026907,5.0,0.0,4260.0,4528.205078,4212.307617,4232.307617,4240.0,450.0,1.0,15.0,,,,0.0,4.0,0.0,4.0,1.0,4.0,41.666668,,,,,,,,,,,,,,,,,,,,,,,,,,,,,,,,,,,,,,,,,,,,,,,,,,,,,,,,,,,,,,,,,,,,,,,,,,,,,,,,,,,,
24254,1645818419.003359,1645818419.0347211,6.0,0.0,4250.769043,4602.563965,4209.230957,4230.256348,4239.487305,16088.0,1.0,15.0,,,,0.0,4.0,0.0,4.0,1.0,4.0,41.666668,,,,,,,,3.0,0.0,0.16913399999999998,0.663818,-0.084229,-0.723633,0.941421,-0.35352100000000003,-0.105959,-0.019262,-0.020582,-0.03048,,,,,,,,,,,,,,,,,,,,,,,,,,,,,,,,,,,,,,,,,,,,,,,,,,,,,,,,,,,,,,,,,
24255,1645818419.011175,1645818419.042536,7.0,0.0,4265.641113000001,4629.743652,4211.282227000001,4261.025879,4260.0,450.0,1.0,15.0,,,,0.0,4.0,0.0,4.0,1.0,4.0,41.666668,,,,,,,,,,,,,,,,,,,,,,,,,,,,,,,,,,,,,,,,,,,,,,,,,,,,,,0.0,0.0,1.0,0.0,512.0,1.0,,,,,,,,,,,,,,,,,,,,,,,,,
24256,1645818419.018992,1645818419.050351,8.0,0.0,4267.179688,4574.871582,4210.256348,4272.307617,4263.589844,450.0,1.0,15.0,,,,0.0,4.0,0.0,4.0,1.0,4.0,41.666668,,,,,,,,4.0,0.0,0.16913399999999998,0.663818,-0.084229,-0.723633,0.9404440000000001,-0.35352100000000003,-0.100587,-0.019728,-0.020624,-0.033145,,,,,,,,,,,,,,,,,,,,,,,,,,,,,,,,,,,,,,,,,,,,,,,,,,,,,,,,,,,,,,,,,
24257,1645818419.026808,1645818419.058165,9.0,0.0,4233.333496,4549.743652,4192.820313,4303.589844,4236.922852000001,34.0,1.0,15.0,,,,0.0,4.0,0.0,4.0,1.0,4.0,41.666668,,,,,,,,,,,,,,,,,,,,,,,,,,,,,,,,,,,,,,,,,,,,,,,,,,,,,,,,,,,,,,,,,,,,,,,,,,,,,,,,,,,,
24258,1645818419.034624,1645818419.0659802,10.0,0.0,4220.512695,4594.871582,4178.461426,4319.487305,4220.0,450.0,1.0,15.0,,,,0.0,4.0,0.0,4.0,1.0,4.0,41.666668,,,,,,,,5.0,0.0,0.169012,0.663818,-0.084473,-0.723633,0.9438620000000001,-0.344244,-0.11572400000000001,-0.020099000000000002,-0.020661000000000002,-0.035543,,,,,,,,,,,,,,,,,,,,,,,,,,,,,,,,,,,,,,,,,,,,,,,,,,,,,,,,,,,,,,,,,
24259,1645818419.04244,1645818419.0737948,11.0,0.0,4248.717772999999,4616.922852000001,4192.820313,4270.769043,4226.666504,16073.0,1.0,15.0,,,,0.0,4.0,0.0,4.0,1.0,4.0,41.666668,,,,,,,,,,,,,,,,,,,,,,,,,,,,,,,,,,,,,,,,,,,,,,,,,,,,,,0.0,0.0,1.0,0.0,512.0,1.0,,,,,,,,,,,,,,,,,,,,,,,,,
24260,1645818419.050257,1645818419.081709,12.0,0.0,4258.461426,4626.153809,4204.615234000001,4240.0,4219.487305,450.0,1.0,15.0,,,,0.0,4.0,0.0,4.0,1.0,4.0,41.666668,,,,,,,,6.0,0.0,0.169012,0.663818,-0.084473,-0.723633,0.941421,-0.34521999999999997,-0.11425999999999999,-0.020482,-0.020694999999999998,-0.037751,,,,,,,,,,,,,,,,,,,,,,,,,,,,,,,,,,,,,,,,,,,,,,,,,,,,,,,,,,,,,,,,,
24261,1645818419.058073,1645818419.089524,13.0,0.0,4257.436035,4666.153809,4209.230957,4246.666504,4224.615234000001,450.0,1.0,15.0,,,,0.0,4.0,0.0,4.0,1.0,4.0,41.666668,,,,,,,,,,,,,,,,,,,,,,,,,,,,,,,,,,,,,,,,,,,,,,,,,,,,,,,,,,,,,,,,,,,,,,,,,,,,,,,,,,,,
24262,1645818419.0658891,1645818419.0973382,14.0,0.0,4292.307617,4674.358886999999,4230.256348,4252.307617,4274.358886999999,450.0,1.0,15.0,,,,0.0,4.0,0.0,4.0,1.0,4.0,41.666668,,,,,,,,7.0,0.0,0.17005399999999998,0.663818,-0.084473,-0.7233890000000001,0.941909,-0.350103,-0.102052,-0.020777,-0.020676,-0.033341,,,,,,,,,,,,,,,,,,,,,,,,,,,,,,,,,,,,,,,,,,,,,,,,,,,,,,,,,,,,,,,,,
24263,1645818419.0737052,1645818419.1051528,15.0,0.0,4299.487305,4644.102539,4236.922852000001,4263.077147999999,4276.922852000001,16073.0,1.0,15.0,,,,0.0,4.0,0.0,4.0,1.0,4.0,41.666668,,,,,,,,,,,,,,,,,,,,1.0,0.0,0.0,,,,,,,,,,,,,,,,,,,,,,,,,,,,,,,,0.0,0.0,1.0,0.0,512.0,1.0,386.806152,31.244004999999998,6.166976,3.410199,2.860795,89.694458,40.06197,15.17239,23.247591,16.185710999999998,1.7112759999999998,7.744928,3.427519,2.942221,3.410982,17.482067,26.565168,39.792938,41.244965,59.86829,92.37796,7.437146,5.8629489999999995,3.4199410000000006,4.2633790000000005
24264,1645818419.081521,1645818419.112968,16.0,0.0,4253.333496,4622.563965,4205.641113000001,4246.666504,4222.05127,0.0,1.0,15.0,,,,0.0,4.0,0.0,4.0,1.0,4.0,41.666668,,,,,,,,8.0,0.0,0.169933,0.663818,-0.084717,-0.7233890000000001,0.932143,-0.352056,-0.10254100000000001,-0.020995,-0.020659,-0.03572,,,,,,,,,,,,,,,,,,,,,,,,,,,,,,,,,,,,,,,,,,,,,,,,,,,,,,,,,,,,,,,,,
24265,1645818419.089338,1645818419.1207821,17.0,0.0,4242.563965,4596.410156,4188.717772999999,4237.436035,4219.487305,0.0,1.0,15.0,,,,0.0,4.0,0.0,4.0,1.0,4.0,41.666668,,,,,,,,,,,,,,,,,,,,,,,,,,,,,,,,,,,,,,,,,,,,,,,,,,,,,,,,,,,,,,,,,,,,,,,,,,,,,,,,,,,,
24266,1645818419.097154,1645818419.128597,18.0,0.0,4280.0,4606.666504,4202.05127,4268.717772999999,4257.436035,0.0,1.0,15.0,,,,0.0,4.0,0.0,4.0,1.0,4.0,41.666668,,,,,,,,9.0,0.0,0.16889,0.663818,-0.084717,-0.723633,0.937026,-0.350591,-0.109377,-0.021287999999999998,-0.020644,-0.031659,,,,,,,,,,,,,,,,,,,,,,,,,,,,,,,,,,,,,,,,,,,,,,,,,,,,,,,,,,,,,,,,,
24267,1645818419.10497,1645818419.136412,19.0,0.0,4294.871582,4699.487305,4206.666504,4275.897461,4257.436035,0.0,1.0,15.0,,,,0.0,4.0,0.0,4.0,1.0,4.0,41.666668,,,,,,,,,,,,,,,,,,,,,,,,,,,,,,,,,,,,,,,,,,,,,,,,,,,,,,0.0,0.0,1.0,0.0,512.0,1.0,,,,,,,,,,,,,,,,,,,,,,,,,
24268,1645818419.112786,1645818419.144226,20.0,0.0,4298.974121,4730.256348,4209.230957,4235.897461,4263.589844,0.0,1.0,15.0,,,,0.0,4.0,0.0,4.0,1.0,4.0,41.666668,,,,,,,,10.0,0.0,0.169933,0.663818,-0.084717,-0.7233890000000001,0.941909,-0.352544,-0.10888800000000001,-0.021552,-0.020533000000000003,-0.034206,,,,,,,,,,,,,,,,,,,,,,,,,,,,,,,,,,,,,,,,,,,,,,,,,,,,,,,,,,,,,,,,,
24269,1645818419.1206028,1645818419.152141,21.0,0.0,4290.769043,4624.615234000001,4204.615234000001,4224.615234000001,4262.563965,0.0,1.0,15.0,,,,0.0,4.0,0.0,4.0,1.0,4.0,41.666668,,,,,,,,,,,,,,,,,,,,,,,,,,,,,,,,,,,,,,,,,,,,,,,,,,,,,,,,,,,,,,,,,,,,,,,,,,,,,,,,,,,,
24270,1645818419.128419,1645818419.159956,22.0,0.0,4269.230957,4572.307617,4188.717772999999,4244.102539,4227.692383,0.0,1.0,15.0,,,,0.0,4.0,0.0,4.0,1.0,4.0,41.666668,,,,,,,,11.0,0.0,0.169933,0.663818,-0.084717,-0.7233890000000001,0.941909,-0.349615,-0.112795,-0.021887,-0.020628,-0.030298000000000002,,,,,,,,,,,,,,,,,,,,,,,,,,,,,,,,,,,,,,,,,,,,,,,,,,,,,,,,,,,,,,,,,
24271,1645818419.136235,1645818419.16777,23.0,0.0,4269.230957,4603.589844,4189.230957,4267.692383,4220.0,0.0,1.0,15.0,,,,0.0,4.0,0.0,4.0,1.0,4.0,41.666668,,,,,,,,,,,,,,,,,,,,,,,,,,,,,,,,,,,,,,,,,,,,,,,,,,,,,,0.0,0.0,1.0,0.0,512.0,1.0,,,,,,,,,,,,,,,,,,,,,,,,,
24272,1645818419.144051,1645818419.175585,24.0,0.0,4294.871582,4570.769043,4209.743652,4312.307617,4250.256348,0.0,1.0,15.0,,,,0.0,4.0,0.0,4.0,1.0,4.0,41.666668,,,,,,,,12.0,0.0,0.168976,0.664063,-0.084717,-0.7233890000000001,0.9472799999999999,-0.355962,-0.10547000000000001,-0.021993000000000002,-0.020518,-0.026682,,,,,,,,,,,,,,,,,,,,,,,,,,,,,,,,,,,,,,,,,,,,,,,,,,,,,,,,,,,,,,,,,
24273,1645818419.1518679,1645818419.183399,25.0,0.0,4299.487305,4535.384765999999,4211.794922,4324.615234000001,4250.256348,0.0,1.0,15.0,,,,0.0,4.0,0.0,4.0,1.0,4.0,41.666668,,,,,,,,,,,,,,,,,,,,,,,,,,,,,,,,,,,,,,,,,,,,,,,,,,,,,,,,,,,,,,,,,,,,,,,,,,,,,,,,,,,,
24274,1645818419.159684,1645818419.191214,26.0,0.0,4293.846191,4584.102539,4218.974121,4324.102539,4246.153809,0.0,1.0,15.0,,,,0.0,4.0,0.0,4.0,1.0,4.0,41.666668,,,,,,,,13.0,0.0,0.168853,0.664063,-0.084961,-0.7233890000000001,0.947768,-0.34668499999999997,-0.104005,-0.022186,-0.020419999999999997,-0.023477,,,,,,,,,,,,,,,,,,,,,,,,,,,,,,,,,,,,,,,,,,,,,,,,,,,,,,,,,,,,,,,,,
24275,1645818419.1675,1645818419.199029,27.0,0.0,4308.717772999999,4617.94873,4231.794922,4330.256348,4270.256348,0.0,1.0,15.0,,,,0.0,4.0,0.0,4.0,1.0,4.0,41.666668,,,,,,,,,,,,,,,,,,,,,,,,,,,,,,,,,,,,,,,,,,,,,,,,,,,,,,0.0,0.0,1.0,0.0,512.0,1.0,,,,,,,,,,,,,,,,,,,,,,,,,
24276,1645818419.175316,1645818419.206843,28.0,0.0,4300.512695,4589.743652,4205.128418,4325.641113000001,4264.102539,0.0,1.0,15.0,,,,0.0,4.0,0.0,4.0,1.0,4.0,41.666668,,,,,,,,14.0,0.0,0.168853,0.664063,-0.084961,-0.7233890000000001,0.941909,-0.35547399999999996,-0.10693499999999999,-0.022262999999999998,-0.020331000000000002,-0.026744,,,,,,,,,,,,,,,,,,,,,,,,,,,,,,,,,,,,,,,,,,,,,,,,,,,,,,,,,,,,,,,,,
24277,1645818419.1831331,1645818419.214658,29.0,0.0,4269.230957,4569.230957,4165.128418,4314.871582,4242.05127,0.0,1.0,15.0,,,,0.0,4.0,0.0,4.0,1.0,4.0,41.666668,,,,,,,,,,,,,,,,,,,,,,,,,,,,,,,,,,,,,,,,,,,,,,,,,,,,,,,,,,,,,,,,,,,,,,,,,,,,,,,,,,,,
24278,1645818419.190949,1645818419.222573,30.0,0.0,4256.410156,4567.692383,4152.820313,4290.256348,4234.871582,0.0,1.0,15.0,,,,0.0,4.0,0.0,4.0,1.0,4.0,41.666668,,,,,,,,15.0,0.0,0.168853,0.664063,-0.084961,-0.7233890000000001,0.9463030000000001,-0.34912600000000005,-0.105959,-0.022331,-0.0203,-0.023581,,,,,,,,,,,,,,,,,,,,,,,,,,,,,,,,,,,,,,,,,,,,,,,,,,,,,,,,,,,,,,,,,
24279,1645818419.198765,1645818419.230387,31.0,0.0,4268.717772999999,4582.05127,4173.333496,4255.897461,4231.794922,0.0,1.0,15.0,,,,0.0,4.0,0.0,4.0,1.0,4.0,41.666668,,,,,,,,,,,,,,,,,,,,1.0,0.0,0.0,,,,,,,,,,,,,,,,,,,,,,,,,,,,,,,,0.0,0.0,1.0,0.0,512.0,1.0,267.96756,23.310028,5.589946,3.492633,2.7679869999999998,89.743202,37.414333,14.967459,22.86492,16.523885999999997,1.568003,7.021967999999999,3.0603119999999997,2.576612,3.44329,13.830369000000001,24.955494,34.910346999999994,31.920609999999996,50.401905,65.697388,6.4550019999999995,6.036784,3.45205,3.8962529999999997
24280,1645818419.206581,1645818419.2382019,32.0,0.0,4275.384765999999,4609.743652,4196.410156,4235.897461,4223.589844,0.0,1.0,15.0,,,,0.0,4.0,0.0,4.0,1.0,4.0,41.666668,,,,,,,,16.0,0.0,0.168853,0.664063,-0.084961,-0.7233890000000001,0.9389790000000001,-0.34766199999999997,-0.11084200000000001,-0.022393,-0.020272,-0.026887,,,,,,,,,,,,,,,,,,,,,,,,,,,,,,,,,,,,,,,,,,,,,,,,,,,,,,,,,,,,,,,,,
24281,1645818419.2143981,1645818419.246017,33.0,0.0,4288.205078,4643.589844,4205.641113000001,4253.846191,4231.282227000001,0.0,1.0,15.0,,,,0.0,4.0,0.0,4.0,1.0,4.0,41.666668,,,,,,,,,,,,,,,,,,,,,,,,,,,,,,,,,,,,,,,,,,,,,,,,,,,,,,,,,,,,,,,,,,,,,,,,,,,,,,,,,,,,
24282,1645818419.222214,1645818419.2538311,34.0,0.0,4289.743652,4657.436035,4199.487305,4280.512695,4234.358886999999,0.0,1.0,15.0,,,,0.0,4.0,0.0,4.0,1.0,4.0,41.666668,,,,,,,,17.0,0.0,0.169811,0.663818,-0.084961,-0.7233890000000001,0.932631,-0.357427,-0.104005,-0.022546,-0.020393,-0.029814,,,,,,,,,,,,,,,,,,,,,,,,,,,,,,,,,,,,,,,,,,,,,,,,,,,,,,,,,,,,,,,,,
24283,1645818419.23003,1645818419.261646,35.0,0.0,4263.589844,4612.307617,4179.487305,4274.358886999999,4216.922852000001,0.0,1.0,15.0,,,,0.0,4.0,0.0,4.0,1.0,4.0,41.666668,,,,,,,,,,,,,,,,,,,,,,,,,,,,,,,,,,,,,,,,,,,,,,,,,,,,,,0.0,0.0,1.0,0.0,512.0,1.0,,,,,,,,,,,,,,,,,,,,,,,,,
24284,1645818419.2378461,1645818419.26946,36.0,0.0,4275.897461,4550.256348,4188.205078,4249.230957,4241.025879,0.0,1.0,15.0,,,,0.0,4.0,0.0,4.0,1.0,4.0,41.666668,,,,,,,,18.0,0.0,0.169811,0.663818,-0.084961,-0.7233890000000001,0.9389790000000001,-0.353033,-0.11523599999999999,-0.020388999999999997,-0.020356,-0.026295999999999996,,,,,,,,,,,,,,,,,,,,,,,,,,,,,,,,,,,,,,,,,,,,,,,,,,,,,,,,,,,,,,,,,
24285,1645818419.2456632,1645818419.277275,37.0,0.0,4312.307617,4557.436035,4220.512695,4243.589844,4276.922852000001,0.0,1.0,15.0,,,,0.0,4.0,0.0,4.0,1.0,4.0,41.666668,,,,,,,,,,,,,,,,,,,,,,,,,,,,,,,,,,,,,,,,,,,,,,,,,,,,,,,,,,,,,,,,,,,,,,,,,,,,,,,,,,,,
24286,1645818419.253479,1645818419.28509,38.0,0.0,4310.256348,4586.666504,4222.05127,4265.128418,4264.615234000001,0.0,1.0,15.0,,,,0.0,4.0,0.0,4.0,1.0,4.0,41.666668,,,,,,,,19.0,0.0,0.169811,0.663818,-0.084961,-0.7233890000000001,0.9355610000000001,-0.337407,-0.111818,-0.019132,-0.020273,-0.029427999999999996,,,,,,,,,,,,,,,,,,,,,,,,,,,,,,,,,,,,,,,,,,,,,,,,,,,,,,,,,,,,,,,,,
24287,1645818419.2612948,1645818419.292904,39.0,0.0,4304.102539,4548.205078,4213.333496,4282.05127,4246.153809,0.0,1.0,15.0,,,,0.0,4.0,0.0,4.0,1.0,4.0,41.666668,,,,,,,,,,,,,,,,,,,,,,,,,,,,,,,,,,,,,,,,,,,,,,,,,,,,,,0.0,0.0,1.0,0.0,512.0,1.0,,,,,,,,,,,,,,,,,,,,,,,,,
24288,1645818419.269111,1645818419.300819,40.0,0.0,4307.692383,4492.307617,4216.410156,4288.717772999999,4255.897461,0.0,1.0,15.0,,,,0.0,4.0,0.0,4.0,1.0,4.0,41.666668,,,,,,,,20.0,0.0,0.169811,0.663818,-0.084961,-0.7233890000000001,0.945815,-0.347173,-0.111818,-0.017266999999999998,-0.020346,-0.032344,,,,,,,,,,,,,,,,,,,,,,,,,,,,,,,,,,,,,,,,,,,,,,,,,,,,,,,,,,,,,,,,,
24289,1645818419.276927,1645818419.308634,41.0,0.0,4297.436035,4523.077147999999,4204.615234000001,4302.563965,4261.538574,0.0,1.0,15.0,,,,0.0,4.0,0.0,4.0,1.0,4.0,41.666668,,,,,,,,,,,,,,,,,,,,,,,,,,,,,,,,,,,,,,,,,,,,,,,,,,,,,,,,,,,,,,,,,,,,,,,,,,,,,,,,,,,,
24290,1645818419.284744,1645818419.316448,42.0,0.0,4288.717772999999,4583.077147999999,4180.512695,4313.846191,4240.0,0.0,1.0,15.0,,,,0.0,4.0,0.0,4.0,1.0,4.0,41.666668,,,,,,,,21.0,0.0,0.169811,0.663818,-0.084961,-0.7233890000000001,0.952651,-0.350591,-0.11621300000000001,-0.017836,-0.020313,-0.034774,,,,,,,,,,,,,,,,,,,,,,,,,,,,,,,,,,,,,,,,,,,,,,,,,,,,,,,,,,,,,,,,,
24291,1645818419.2925599,1645818419.324263,43.0,0.0,4293.846191,4563.589844,4177.94873,4317.436035,4229.743652,0.0,1.0,15.0,,,,0.0,4.0,0.0,4.0,1.0,4.0,41.666668,,,,,,,,,,,,,,,,,,,,,,,,,,,,,,,,,,,,,,,,,,,,,,,,,,,,,,0.0,0.0,1.0,0.0,512.0,1.0,,,,,,,,,,,,,,,,,,,,,,,,,
24292,1645818419.300376,1645818419.332078,44.0,0.0,4289.743652,4525.128418,4180.0,4305.641113000001,4238.461426,0.0,1.0,15.0,,,,0.0,4.0,0.0,4.0,1.0,4.0,41.666668,,,,,,,,22.0,0.0,0.169811,0.663818,-0.084961,-0.7233890000000001,0.9355610000000001,-0.337407,-0.111818,-0.016833,-0.020235,-0.037058999999999995,,,,,,,,,,,,,,,,,,,,,,,,,,,,,,,,,,,,,,,,,,,,,,,,,,,,,,,,,,,,,,,,,
24293,1645818419.308192,1645818419.339892,45.0,0.0,4295.897461,4552.307617,4192.820313,4295.384765999999,4253.846191,0.0,1.0,15.0,,,,0.0,4.0,0.0,4.0,1.0,4.0,41.666668,,,,,,,,,,,,,,,,,,,,,,,,,,,,,,,,,,,,,,,,,,,,,,,,,,,,,,,,,,,,,,,,,,,,,,,,,,,,,,,,,,,,
24294,1645818419.316009,1645818419.347707,46.0,0.0,4324.615234000001,4580.0,4222.05127,4295.384765999999,4282.05127,0.0,1.0,15.0,,,,0.0,4.0,0.0,4.0,1.0,4.0,41.666668,,,,,,,,23.0,0.0,0.169811,0.663818,-0.084961,-0.7233890000000001,0.9277489999999999,-0.347173,-0.111818,-0.017445,-0.020262,-0.032864,,,,,,,,,,,,,,,,,,,,,,,,,,,,,,,,,,,,,,,,,,,,,,,,,,,,,,,,,,,,,,,,,
24295,1645818419.323825,1645818419.3555212,47.0,0.0,4327.179688,4590.256348,4214.871582,4304.615234000001,4275.897461,0.0,1.0,15.0,,,,0.0,4.0,0.0,4.0,1.0,4.0,41.666668,,,,,,,,,,,,,,,,,,,,1.0,0.0,0.0,,,,,,,,,,,,,,,,,,,,,,,,,,,,,,,,0.0,0.0,1.0,0.0,512.0,1.0,157.863373,15.162478,4.899502,3.458906,2.678756,80.283485,31.360334,13.098576,21.0235,16.371964000000002,1.495942,5.8379900000000005,2.721382,2.203333,3.3704099999999997,10.937984,21.848967000000002,28.326967,22.219336,38.898720000000004,39.987198,5.205048000000001,5.959413,3.342574,3.6523839999999996
24296,1645818419.331641,1645818419.363436,48.0,0.0,4284.615234000001,4597.94873,4172.307617,4295.897461,4216.410156,0.0,1.0,15.0,,,,0.0,4.0,0.0,4.0,1.0,4.0,41.666668,,,,,,,,24.0,0.0,0.169688,0.663818,-0.08520499999999999,-0.7233890000000001,0.948257,-0.353033,-0.109865,-0.017947,-0.020287,-0.035339999999999996,,,,,,,,,,,,,,,,,,,,,,,,,,,,,,,,,,,,,,,,,,,,,,,,,,,,,,,,,,,,,,,,,
24297,1645818419.339457,1645818419.3712509,49.0,0.0,4261.025879,4589.743652,4159.487305,4271.794922,4188.717772999999,0.0,1.0,15.0,,,,0.0,4.0,0.0,4.0,1.0,4.0,41.666668,,,,,,,,,,,,,,,,,,,,,,,,,,,,,,,,,,,,,,,,,,,,,,,,,,,,,,,,,,,,,,,,,,,,,,,,,,,,,,,,,,,,
24298,1645818419.347273,1645818419.379065,50.0,0.0,4305.128418,4559.487305,4189.743652,4254.871582,4245.128418,0.0,1.0,15.0,,,,0.0,4.0,0.0,4.0,1.0,4.0,41.666668,,,,,,,,25.0,0.0,0.168853,0.664063,-0.084961,-0.7233890000000001,0.945327,-0.337407,-0.10009900000000001,-0.016201,-0.020358,-0.037519,,,,,,,,,,,,,,,,,,,,,,,,,,,,,,,,,,,,,,,,,,,,,,,,,,,,,,,,,,,,,,,,,
24299,1645818419.3550901,1645818419.3868802,51.0,0.0,4335.897461,4544.102539,4202.563965,4236.410156,4269.743652,0.0,1.0,15.0,,,,0.0,4.0,0.0,4.0,1.0,4.0,41.666668,,,,,,,,,,,,,,,,,,,,,,,,,,,,,,,,,,,,,,,,,,,,,,,,,,,,,,0.0,0.0,1.0,0.0,512.0,1.0,,,,,,,,,,,,,,,,,,,,,,,,,
24300,1645818419.362906,1645818419.3946948,52.0,0.0,4313.333496,4582.05127,4186.666504,4217.94873,4229.230957,0.0,1.0,15.0,,,,0.0,4.0,0.0,4.0,1.0,4.0,41.666668,,,,,,,,26.0,0.0,0.16873,0.664063,-0.08520499999999999,-0.7233890000000001,0.937026,-0.346197,-0.11230599999999999,-0.016924,-0.020275,-0.03323,,,,,,,,,,,,,,,,,,,,,,,,,,,,,,,,,,,,,,,,,,,,,,,,,,,,,,,,,,,,,,,,,
24301,1645818419.370722,1645818419.402509,53.0,0.0,4297.94873,4586.153809,4175.897461,4217.94873,4206.153809,0.0,1.0,15.0,,,,0.0,4.0,0.0,4.0,1.0,4.0,41.666668,,,,,,,,,,,,,,,,,,,,,,,,,,,,,,,,,,,,,,,,,,,,,,,,,,,,,,,,,,,,,,,,,,,,,,,,,,,,,,,,,,,,
24302,1645818419.3785381,1645818419.410324,54.0,0.0,4307.179688,4520.0,4177.94873,4244.615234000001,4217.436035,0.0,1.0,15.0,,,,0.0,4.0,0.0,4.0,1.0,4.0,41.666668,,,,,,,,27.0,0.0,0.169774,0.664063,-0.08520499999999999,-0.7231449999999999,0.93019,-0.34766199999999997,-0.099123,-0.015964,-0.02025,-0.029272000000000003,,,,,,,,,,,,,,,,,,,,,,,,,,,,,,,,,,,,,,,,,,,,,,,,,,,,,,,,,,,,,,,,,
24303,1645818419.3863552,1645818419.418139,55.0,0.0,4322.563965,4520.0,4192.307617,4266.666504,4255.897461,0.0,1.0,15.0,,,,0.0,4.0,0.0,4.0,1.0,4.0,41.666668,,,,,,,,,,,,,,,,,,,,,,,,,,,,,,,,,,,,,,,,,,,,,,,,,,,,,,0.0,0.0,1.0,0.0,512.0,1.0,,,,,,,,,,,,,,,,,,,,,,,,,
24304,1645818419.394171,1645818419.425953,56.0,0.0,4325.128418,4598.461426,4201.025879,4264.102539,4276.410156,0.0,1.0,15.0,,,,0.0,4.0,0.0,4.0,1.0,4.0,41.666668,,,,,,,,28.0,0.0,0.169774,0.664063,-0.08520499999999999,-0.7231449999999999,0.941421,-0.349615,-0.101564,-0.0151,-0.020373,-0.032057999999999996,,,,,,,,,,,,,,,,,,,,,,,,,,,,,,,,,,,,,,,,,,,,,,,,,,,,,,,,,,,,,,,,,
24305,1645818419.4019868,1645818419.433768,57.0,0.0,4298.461426,4586.666504,4173.846191,4268.717772999999,4230.256348,0.0,1.0,15.0,,,,0.0,4.0,0.0,4.0,1.0,4.0,41.666668,,,,,,,,,,,,,,,,,,,,,,,,,,,,,,,,,,,,,,,,,,,,,,,,,,,,,,,,,,,,,,,,,,,,,,,,,,,,,,,,,,,,
24306,1645818419.4098039,1645818419.441682,58.0,0.0,4273.333496,4548.205078,4151.282227000001,4297.436035,4186.153809,0.0,1.0,15.0,,,,0.0,4.0,0.0,4.0,1.0,4.0,41.666668,,,,,,,,29.0,0.0,0.17081,0.664063,-0.08520499999999999,-0.7229,0.932631,-0.355962,-0.11816600000000001,-0.015934,-0.020288999999999998,-0.028314999999999996,,,,,,,,,,,,,,,,,,,,,,,,,,,,,,,,,,,,,,,,,,,,,,,,,,,,,,,,,,,,,,,,,
24307,1645818419.41762,1645818419.449497,59.0,0.0,4287.692383,4616.410156,4167.179688,4304.102539,4207.179688,0.0,1.0,15.0,,,,0.0,4.0,0.0,4.0,1.0,4.0,41.666668,,,,,,,,,,,,,,,,,,,,,,,,,,,,,,,,,,,,,,,,,,,,,,,,,,,,,,0.0,0.0,1.0,0.0,512.0,1.0,,,,,,,,,,,,,,,,,,,,,,,,,
24308,1645818419.425436,1645818419.4573119,60.0,0.0,4317.436035,4607.179688,4189.230957,4297.94873,4250.256348,0.0,1.0,15.0,,,,0.0,4.0,0.0,4.0,1.0,4.0,41.666668,,,,,,,,30.0,0.0,0.170688,0.664063,-0.085449,-0.7229,0.9428850000000001,-0.350103,-0.11230599999999999,-0.016685,-0.02036,-0.031099,,,,,,,,,,,,,,,,,,,,,,,,,,,,,,,,,,,,,,,,,,,,,,,,,,,,,,,,,,,,,,,,,
24309,1645818419.4332519,1645818419.465126,61.0,0.0,4323.077147999999,4525.128418,4191.794922,4303.589844,4262.563965,0.0,1.0,15.0,,,,0.0,4.0,0.0,4.0,1.0,4.0,41.666668,,,,,,,,,,,,,,,,,,,,,,,,,,,,,,,,,,,,,,,,,,,,,,,,,,,,,,,,,,,,,,,,,,,,,,,,,,,,,,,,,,,,
24310,1645818419.441068,1645818419.472941,62.0,0.0,4310.256348,4574.358886999999,4186.153809,4297.436035,4245.641113000001,0.0,1.0,15.0,,,,0.0,4.0,0.0,4.0,1.0,4.0,41.666668,,,,,,,,31.0,0.0,0.16985799999999998,0.664307,-0.08520499999999999,-0.7229,0.9399559999999999,-0.34473200000000004,-0.104494,-0.017311,-0.020472,-0.027451999999999997,,,,,,,,,,,,,,,,,,,,,,,,,,,,,,,,,,,,,,,,,,,,,,,,,,,,,,,,,,,,,,,,,
24311,1645818419.448885,1645818419.480756,63.0,0.0,4303.589844,4627.692383,4167.179688,4286.666504,4218.461426,0.0,1.0,15.0,,,,0.0,4.0,0.0,4.0,1.0,4.0,41.666668,1.0,0.0,1.0,0.0,4.0,0.0,0.0,,,,,,,,,,,,,1.0,0.0,0.0,1.0,0.526471,1.240637,0.060443,2.3566279999999997,1.0,0.18576099999999998,4.694113,2.922278,10.735708,0.297004,1.0,0.38053000000000003,-0.06924,-0.263802,0.214443,1.0,0.280513,0.9804620000000001,-0.041318,3.067731,1.0,0.501271,3.018193,-73.62188,81.59868399999999,1.0,0.505265,0.619391,0.47357299999999997,0.765563,0.0,0.0,1.0,0.0,512.0,1.0,76.470642,8.564653999999999,4.139041000000001,3.3304120000000004,2.624609,65.79287,23.875874,10.366754,18.64777,15.797603,1.478046,4.578823000000001,2.543227,1.895777,3.203888,8.962043,17.863541,21.771353,14.727903,28.622202,20.201431,3.9416919999999998,5.667014,3.155932,3.514397
24312,1645818419.456701,1645818419.48857,64.0,0.0,4302.05127,4546.666504,4161.538574,4295.897461,4212.820313,450.0,1.0,15.0,,,,0.0,4.0,0.0,4.0,1.0,4.0,41.666668,,,,,,,,32.0,0.0,0.17089400000000002,0.664307,-0.08520499999999999,-0.7226560000000001,0.949722,-0.356939,-0.097169,-0.017973,-0.020378,-0.030371,,,,,,,,,,,,,,,,,,,,,,,,,,,,,,,,,,,,,,,,,,,,,,,,,,,,,,,,,,,,,,,,,
24313,1645818419.4645169,1645818419.4963849,65.0,0.0,4310.769043,4473.333496,4190.769043,4285.641113000001,4250.256348,450.0,1.0,15.0,,,,0.0,4.0,0.0,4.0,1.0,4.0,41.666668,,,,,,,,,,,,,,,,,,,,,,,,,,,,,,,,,,,,,,,,,,,,,,,,,,,,,,,,,,,,,,,,,,,,,,,,,,,,,,,,,,,,
24314,1645818419.472333,1645818419.5042,66.0,0.0,4314.358886999999,4507.179688,4196.922852000001,4238.974121,4264.102539,16306.0,1.0,15.0,,,,0.0,4.0,0.0,4.0,1.0,4.0,41.666668,,,,,,,,33.0,0.0,0.17089400000000002,0.664307,-0.08520499999999999,-0.7226560000000001,0.9267719999999999,-0.342779,-0.101076,-0.018666,-0.020489,-0.033047,,,,,,,,,,,,,,,,,,,,,,,,,,,,,,,,,,,,,,,,,,,,,,,,,,,,,,,,,,,,,,,,,
24315,1645818419.48015,1645818419.512114,67.0,0.0,4306.666504,4554.871582,4171.794922,4214.358886999999,4225.641113000001,450.0,1.0,15.0,,,,0.0,4.0,4.0,4.0,2.0,4.0,83.333336,,,,,,,,,,,,,,,,,,,,,,,,,,,,,,,,,,,,,,,,,,,,,,,,,,,,,,0.0,0.0,1.0,0.0,512.0,1.0,,,,,,,,,,,,,,,,,,,,,,,,,
24316,1645818419.487966,1645818419.519929,68.0,0.0,4300.0,4526.153809,4166.153809,4256.922852000001,4201.025879,16165.0,1.0,15.0,,,,0.0,4.0,4.0,4.0,2.0,4.0,83.333336,,,,,,,,34.0,0.0,0.170977,0.664551,-0.08520499999999999,-0.7224119999999999,0.9248190000000001,-0.358404,-0.095705,-0.016897,-0.020491,-0.035552999999999994,,,,,,,,,,,,,,,,,,,,,,,,,,,,,,,,,,,,,,,,,,,,,,,,,,,,,,,,,,,,,,,,,
24317,1645818419.4957821,1645818419.5277429,69.0,0.0,4313.846191,4487.179688,4194.358886999999,4318.974121,4237.94873,450.0,1.0,15.0,,,,0.0,4.0,4.0,4.0,2.0,4.0,83.333336,,,,,,,,,,,,,,,,,,,,,,,,,,,,,,,,,,,,,,,,,,,,,,,,,,,,,,,,,,,,,,,,,,,,,,,,,,,,,,,,,,,,
24318,1645818419.503598,1645818419.535558,70.0,0.0,4323.589844,4515.897461,4205.641113000001,4322.05127,4265.128418,16227.0,1.0,15.0,,,,0.0,4.0,4.0,4.0,2.0,4.0,83.333336,,,,,,,,35.0,0.0,0.170977,0.664551,-0.08520499999999999,-0.7224119999999999,0.948257,-0.356939,-0.103029,-0.017551,-0.020492,-0.03146,,,,,,,,,,,,,,,,,,,,,,,,,,,,,,,,,,,,,,,,,,,,,,,,,,,,,,,,,,,,,,,,,
24319,1645818419.511414,1645818419.543373,71.0,0.0,4318.974121,4584.102539,4179.487305,4295.384765999999,4242.563965,450.0,1.0,15.0,,,,0.0,4.0,4.0,4.0,2.0,4.0,83.333336,,,,,,,,,,,,,,,,,,,,,,,,,,,,,,,,,,,,,,,,,,,,,,,,,,,,,,0.0,0.0,1.0,0.0,512.0,1.0,,,,,,,,,,,,,,,,,,,,,,,,,
24320,1645818419.519231,1645818419.5511868,72.0,0.0,4307.692383,4596.410156,4141.538574,4303.589844,4221.538574,450.0,1.0,15.0,,,,0.0,4.0,4.0,4.0,2.0,4.0,83.333336,,,,,,,,36.0,0.0,0.172005,0.664551,-0.08520499999999999,-0.722168,0.9267719999999999,-0.352544,-0.101076,-0.01814,-0.020494,-0.027631,,,,,,,,,,,,,,,,,,,,,,,,,,,,,,,,,,,,,,,,,,,,,,,,,,,,,,,,,,,,,,,,,
24321,1645818419.5270472,1645818419.559002,73.0,0.0,4309.743652,4546.153809,4140.512695,4310.769043,4236.410156,131.0,1.0,15.0,,,,0.0,4.0,4.0,4.0,2.0,4.0,83.333336,,,,,,,,,,,,,,,,,,,,,,,,,,,,,,,,,,,,,,,,,,,,,,,,,,,,,,,,,,,,,,,,,,,,,,,,,,,,,,,,,,,,
24322,1645818419.534863,1645818419.566817,74.0,0.0,4333.333496,4514.358886999999,4174.871582,4275.384765999999,4256.410156,450.0,1.0,15.0,,,,0.0,4.0,4.0,4.0,2.0,4.0,83.333336,,,,,,,,37.0,0.0,0.172005,0.664551,-0.08520499999999999,-0.722168,0.932143,-0.354009,-0.10254100000000001,-0.018668999999999998,-0.020544,-0.030629000000000003,,,,,,,,,,,,,,,,,,,,,,,,,,,,,,,,,,,,,,,,,,,,,,,,,,,,,,,,,,,,,,,,,
24323,1645818419.5426788,1645818419.574631,75.0,0.0,4350.769043,4538.461426,4201.025879,4270.256348,4257.94873,16366.0,1.0,15.0,,,,0.0,4.0,4.0,4.0,2.0,4.0,83.333336,,,,,,,,,,,,,,,,,,,,,,,,,,,,,,,,,,,,,,,,,,,,,,,,,,,,,,0.0,0.0,1.0,0.0,512.0,1.0,,,,,,,,,,,,,,,,,,,,,,,,,
24324,1645818419.550496,1645818419.582546,76.0,0.0,4345.128418,4578.974121,4191.282227000001,4309.743652,4267.179688,450.0,1.0,15.0,,,,0.0,4.0,4.0,4.0,2.0,4.0,83.333336,,,,,,,,38.0,0.0,0.170977,0.664551,-0.08520499999999999,-0.7224119999999999,0.937514,-0.354009,-0.107912,-0.019195,-0.020589,-0.033279,,,,,,,,,,,,,,,,,,,,,,,,,,,,,,,,,,,,,,,,,,,,,,,,,,,,,,,,,,,,,,,,,
24325,1645818419.558312,1645818419.59036,77.0,0.0,4328.205078,4561.538574,4168.205078,4321.025879,4276.922852000001,450.0,1.0,15.0,,,,0.0,4.0,4.0,4.0,2.0,4.0,83.333336,,,,,,,,,,,,,,,,,,,,,,,,,,,,,,,,,,,,,,,,,,,,,,,,,,,,,,,,,,,,,,,,,,,,,,,,,,,,,,,,,,,,
24326,1645818419.566128,1645818419.598175,78.0,0.0,4316.922852000001,4545.641113000001,4160.0,4296.922852000001,4252.307617,450.0,1.0,15.0,,,,0.0,4.0,4.0,4.0,2.0,4.0,83.333336,,,,,,,,39.0,0.0,0.171923,0.664307,-0.08520499999999999,-0.7224119999999999,0.9272600000000001,-0.356451,-0.095705,-0.019668,-0.020484,-0.029366000000000003,,,,,,,,,,,,,,,,,,,,,,,,,,,,,,,,,,,,,,,,,,,,,,,,,,,,,,,,,,,,,,,,,
