,Timestamp,OriginalTimestamp,EEG.Counter,EEG.Interpolated,EEG.AF3,EEG.T7,EEG.Pz,EEG.T8,EEG.AF4,EEG.RawCq,EEG.Battery,EEG.BatteryPercent,MarkerIndex,MarkerType,MarkerValueInt,EEG.MarkerHardware,CQ.AF3,CQ.T7,CQ.Pz,CQ.T8,CQ.AF4,CQ.Overall,EQ.SampleRateQuality,EQ.OVERALL,EQ.AF3,EQ.T7,EQ.Pz,EQ.T8,EQ.AF4,MOT.CounterMems,MOT.InterpolatedMems,MOT.Q0,MOT.Q1,MOT.Q2,MOT.Q3,MOT.AccX,MOT.AccY,MOT.AccZ,MOT.MagX,MOT.MagY,MOT.MagZ,MC.Action,MC.ActionPower,MC.IsActive,PM.Engagement.IsActive,PM.Engagement.Scaled,PM.Engagement.Raw,PM.Engagement.Min,PM.Engagement.Max,PM.Excitement.IsActive,PM.Excitement.Scaled,PM.Excitement.Raw,PM.Excitement.Min,PM.Excitement.Max,PM.LongTermExcitement,PM.Stress.IsActive,PM.Stress.Scaled,PM.Stress.Raw,PM.Stress.Min,PM.Stress.Max,PM.Relaxation.IsActive,PM.Relaxation.Scaled,PM.Relaxation.Raw,PM.Relaxation.Min,PM.Relaxation.Max,PM.Interest.IsActive,PM.Interest.Scaled,PM.Interest.Raw,PM.Interest.Min,PM.Interest.Max,PM.Focus.IsActive,PM.Focus.Scaled,PM.Focus.Raw,PM.Focus.Min,PM.Focus.Max,FE.BlinkWink,FE.HorizontalEyesDirection,FE.UpperFaceAction,FE.UpperFaceActionPower,FE.LowerFaceAction,FE.LowerFaceActionPower,POW.AF3.Theta,POW.AF3.Alpha,POW.AF3.BetaL,POW.AF3.BetaH,POW.AF3.Gamma,POW.T7.Theta,POW.T7.Alpha,POW.T7.BetaL,POW.T7.BetaH,POW.T7.Gamma,POW.Pz.Theta,POW.Pz.Alpha,POW.Pz.BetaL,POW.Pz.BetaH,POW.Pz.Gamma,POW.T8.Theta,POW.T8.Alpha,POW.T8.BetaL,POW.T8.BetaH,POW.T8.Gamma,POW.AF4.Theta,POW.AF4.Alpha,POW.AF4.BetaL,POW.AF4.BetaH,POW.AF4.Gamma
7246,1645818286.064809,1645818286.112634,22.0,0.0,4357.436035,4522.05127,4196.410156,4295.897461,4306.153809,0.0,1.0,15.0,11.0,1.0,3.0,0.0,4.0,1.0,4.0,2.0,4.0,58.33333199999999,,,,,,,,11.0,0.0,0.183368,0.619629,-0.13989300000000002,-0.7502439999999999,0.8813610000000001,-0.448737,-0.199222,-0.017209000000000002,-0.026331999999999998,-0.038208,,,,,,,,,,,,,,,,,,,,,,,,,,,,,,,,,,,,,,,,,,,,,,,,,,,,,,,,,,,,,,,,,
7247,1645818286.0726259,1645818286.120449,23.0,0.0,4334.358886999999,4510.769043,4194.358886999999,4251.282227000001,4298.461426,0.0,1.0,15.0,,,,0.0,4.0,1.0,4.0,2.0,4.0,58.33333199999999,,,,,,,,,,,,,,,,,,,,,,,,,,,,,,,,,,,,,,,,,,,,,,,,,,,,,,0.0,0.0,1.0,0.0,512.0,0.919906,,,,,,,,,,,,,,,,,,,,,,,,,
7248,1645818286.080442,1645818286.128264,24.0,0.0,4338.974121,4510.769043,4205.641113000001,4241.538574,4293.333496,0.0,1.0,15.0,,,,0.0,4.0,1.0,4.0,2.0,4.0,58.33333199999999,,,,,,,,12.0,0.0,0.18419100000000002,0.6193850000000001,-0.13989300000000002,-0.7502439999999999,0.8955209999999999,-0.457038,-0.204105,-0.017539,-0.026335,-0.03385,,,,,,,,,,,,,,,,,,,,,,,,,,,,,,,,,,,,,,,,,,,,,,,,,,,,,,,,,,,,,,,,,
7249,1645818286.088258,1645818286.136078,25.0,0.0,4358.461426,4540.512695,4211.282227000001,4267.692383,4286.153809,0.0,1.0,15.0,,,,0.0,4.0,1.0,4.0,2.0,4.0,58.33333199999999,,,,,,,,,,,,,,,,,,,,,,,,,,,,,,,,,,,,,,,,,,,,,,,,,,,,,,,,,,,,,,,,,,,,,,,,,,,,,,,,,,,,
7250,1645818286.096074,1645818286.143893,26.0,0.0,4366.666504,4489.743652,4215.384765999999,4289.230957,4300.0,0.0,1.0,15.0,,,,0.0,4.0,1.0,4.0,2.0,4.0,58.33333199999999,,,,,,,,13.0,0.0,0.183368,0.619629,-0.13989300000000002,-0.7502439999999999,0.878431,-0.433112,-0.188479,-0.017934000000000002,-0.026436,-0.030074,,,,,,,,,,,,,,,,,,,,,,,,,,,,,,,,,,,,,,,,,,,,,,,,,,,,,,,,,,,,,,,,,
7251,1645818286.1038911,1645818286.151707,27.0,0.0,4371.794922,4455.897461,4228.717772999999,4286.153809,4327.692383,0.0,1.0,15.0,,,,0.0,4.0,1.0,4.0,2.0,4.0,58.33333199999999,,,,,,,,,,,,,,,,,,,,,,,,,,,,,,,,,,,,,,,,,,,,,,,,,,,,,,0.0,0.0,1.0,0.0,512.0,0.919906,,,,,,,,,,,,,,,,,,,,,,,,,
7252,1645818286.111707,1645818286.159522,28.0,0.0,4347.179688,4545.128418,4216.410156,4275.384765999999,4302.05127,0.0,1.0,15.0,,,,0.0,4.0,1.0,4.0,2.0,4.0,58.33333199999999,,,,,,,,14.0,0.0,0.183368,0.619629,-0.13989300000000002,-0.7502439999999999,0.882338,-0.43994799999999995,-0.195804,-0.01824,-0.026282999999999997,-0.032975,,,,,,,,,,,,,,,,,,,,,,,,,,,,,,,,,,,,,,,,,,,,,,,,,,,,,,,,,,,,,,,,,
7253,1645818286.119523,1645818286.167337,29.0,0.0,4317.94873,4638.974121,4190.256348,4265.641113000001,4261.025879,0.0,1.0,15.0,,,,0.0,4.0,1.0,4.0,2.0,4.0,58.33333199999999,,,,,,,,,,,,,,,,,,,,,,,,,,,,,,,,,,,,,,,,,,,,,,,,,,,,,,,,,,,,,,,,,,,,,,,,,,,,,,,,,,,,
7254,1645818286.1273391,1645818286.1751509,30.0,0.0,4335.384765999999,4633.846191,4187.692383,4234.871582,4278.461426,0.0,1.0,15.0,,,,0.0,4.0,1.0,4.0,2.0,4.0,58.33333199999999,,,,,,,,15.0,0.0,0.183368,0.619629,-0.13989300000000002,-0.7502439999999999,0.879408,-0.43799499999999997,-0.18799100000000002,-0.018466999999999997,-0.026291000000000002,-0.029238,,,,,,,,,,,,,,,,,,,,,,,,,,,,,,,,,,,,,,,,,,,,,,,,,,,,,,,,,,,,,,,,,
7255,1645818286.1351562,1645818286.182966,31.0,0.0,4344.102539,4614.871582,4190.769043,4188.205078,4285.128418,0.0,1.0,15.0,,,,0.0,4.0,1.0,4.0,2.0,4.0,58.33333199999999,,,,,,,,,,,,,,,,,,,,1.0,0.0,0.0,,,,,,,,,,,,,,,,,,,,,,,,,,,,,,,,0.0,0.0,1.0,0.0,512.0,0.9775010000000001,1.8365169999999997,3.3314449999999995,3.059376,2.731947,2.473248,18.618267000000003,19.038095000000002,16.355387,11.619384,10.083142,2.360762,2.974561,2.731398,1.8112139999999999,2.2013279999999997,14.984376000000001,32.902297999999995,46.175678000000005,19.952095,20.523642000000002,3.050346,3.227223,1.080863,2.933008,2.761283
7256,1645818286.142972,1645818286.190881,32.0,0.0,4331.794922,4615.384765999999,4202.05127,4193.846191,4272.307617,0.0,1.0,15.0,,,,0.0,4.0,1.0,4.0,2.0,4.0,58.33333199999999,,,,,,,,16.0,0.0,0.183368,0.619629,-0.13989300000000002,-0.7502439999999999,0.891127,-0.43897200000000003,-0.20361600000000002,-0.017108,-0.026299,-0.032223,,,,,,,,,,,,,,,,,,,,,,,,,,,,,,,,,,,,,,,,,,,,,,,,,,,,,,,,,,,,,,,,,
7257,1645818286.150788,1645818286.198695,33.0,0.0,4358.974121,4576.922852000001,4235.384765999999,4265.641113000001,4312.307617,0.0,1.0,15.0,,,,0.0,4.0,1.0,4.0,2.0,4.0,58.33333199999999,,,,,,,,,,,,,,,,,,,,,,,,,,,,,,,,,,,,,,,,,,,,,,,,,,,,,,,,,,,,,,,,,,,,,,,,,,,,,,,,,,,,
7258,1645818286.158604,1645818286.20651,34.0,0.0,4365.128418,4527.692383,4225.128418,4258.461426,4321.025879,0.0,1.0,15.0,,,,0.0,4.0,1.0,4.0,2.0,4.0,58.33333199999999,,,,,,,,17.0,0.0,0.183368,0.619629,-0.13989300000000002,-0.7502439999999999,0.8969860000000001,-0.447272,-0.192386,-0.017644,-0.026257,-0.034762,,,,,,,,,,,,,,,,,,,,,,,,,,,,,,,,,,,,,,,,,,,,,,,,,,,,,,,,,,,,,,,,,
7259,1645818286.1664212,1645818286.214325,35.0,0.0,4319.487305,4565.641113000001,4188.717772999999,4175.897461,4266.666504,0.0,1.0,15.0,,,,0.0,4.0,1.0,4.0,2.0,4.0,58.33333199999999,,,,,,,,,,,,,,,,,,,,,,,,,,,,,,,,,,,,,,,,,,,,,,,,,,,,,,0.0,0.0,1.0,0.0,512.0,0.9775010000000001,,,,,,,,,,,,,,,,,,,,,,,,,
7260,1645818286.174237,1645818286.2221391,36.0,0.0,4322.563965,4632.820313,4211.794922,4193.333496,4272.820313,0.0,1.0,15.0,,,,0.0,4.0,1.0,4.0,2.0,4.0,58.33333199999999,,,,,,,,18.0,0.0,0.183368,0.619629,-0.13989300000000002,-0.7502439999999999,0.8759899999999999,-0.443366,-0.189944,-0.017979,-0.026219,-0.036999000000000004,,,,,,,,,,,,,,,,,,,,,,,,,,,,,,,,,,,,,,,,,,,,,,,,,,,,,,,,,,,,,,,,,
7261,1645818286.1820529,1645818286.229954,37.0,0.0,4359.487305,4618.974121,4245.128418,4271.282227000001,4309.230957,0.0,1.0,15.0,,,,0.0,4.0,1.0,4.0,2.0,4.0,58.33333199999999,,,,,,,,,,,,,,,,,,,,,,,,,,,,,,,,,,,,,,,,,,,,,,,,,,,,,,,,,,,,,,,,,,,,,,,,,,,,,,,,,,,,
7262,1645818286.189869,1645818286.237768,38.0,0.0,4342.05127,4580.0,4223.077147999999,4257.436035,4275.384765999999,0.0,1.0,15.0,,,,0.0,4.0,1.0,4.0,2.0,4.0,58.33333199999999,,,,,,,,19.0,0.0,0.183368,0.619629,-0.13989300000000002,-0.7502439999999999,0.8833139999999999,-0.453132,-0.208499,-0.018281,-0.026233999999999997,-0.032908,,,,,,,,,,,,,,,,,,,,,,,,,,,,,,,,,,,,,,,,,,,,,,,,,,,,,,,,,,,,,,,,,
7263,1645818286.197686,1645818286.245583,39.0,0.0,4319.487305,4595.384765999999,4201.025879,4249.743652,4253.846191,0.0,1.0,15.0,,,,0.0,4.0,1.0,4.0,2.0,4.0,58.33333199999999,,,,,,,,,,,,,,,,,,,,,,,,,,,,,,,,,,,,,,,,,,,,,,,,,,,,,,0.0,0.0,1.0,0.0,512.0,0.9775010000000001,,,,,,,,,,,,,,,,,,,,,,,,,
7264,1645818286.205502,1645818286.253398,40.0,0.0,4332.307617,4603.589844,4194.358886999999,4302.05127,4281.025879,0.0,1.0,15.0,,,,0.0,4.0,1.0,4.0,2.0,4.0,58.33333199999999,,,,,,,,20.0,0.0,0.18419100000000002,0.6193850000000001,-0.13989300000000002,-0.7502439999999999,0.892592,-0.448737,-0.19971,-0.017136000000000002,-0.026247000000000003,-0.035379,,,,,,,,,,,,,,,,,,,,,,,,,,,,,,,,,,,,,,,,,,,,,,,,,,,,,,,,,,,,,,,,,
7265,1645818286.2133179,1645818286.261312,41.0,0.0,4333.333496,4570.256348,4181.538574,4286.666504,4278.974121,0.0,1.0,15.0,,,,0.0,4.0,1.0,4.0,2.0,4.0,58.33333199999999,,,,,,,,,,,,,,,,,,,,,,,,,,,,,,,,,,,,,,,,,,,,,,,,,,,,,,,,,,,,,,,,,,,,,,,,,,,,,,,,,,,,
7266,1645818286.221134,1645818286.269127,42.0,0.0,4334.358886999999,4576.410156,4184.102539,4238.461426,4280.0,0.0,1.0,15.0,,,,0.0,4.0,1.0,4.0,2.0,4.0,58.33333199999999,,,,,,,,21.0,0.0,0.18419100000000002,0.6193850000000001,-0.13989300000000002,-0.7502439999999999,0.887709,-0.45410900000000004,-0.215335,-0.017571,-0.026258999999999998,-0.031451,,,,,,,,,,,,,,,,,,,,,,,,,,,,,,,,,,,,,,,,,,,,,,,,,,,,,,,,,,,,,,,,,
7267,1645818286.22895,1645818286.276942,43.0,0.0,4348.717772999999,4615.384765999999,4200.512695,4244.102539,4302.563965,0.0,1.0,15.0,,,,0.0,4.0,1.0,4.0,2.0,4.0,58.33333199999999,,,,,,,,,,,,,,,,,,,,,,,,,,,,,,,,,,,,,,,,,,,,,,,,,,,,,,0.0,0.0,1.0,0.0,512.0,0.9775010000000001,,,,,,,,,,,,,,,,,,,,,,,,,
7268,1645818286.236767,1645818286.284756,44.0,0.0,4350.769043,4618.974121,4200.512695,4256.410156,4300.0,0.0,1.0,15.0,,,,0.0,4.0,1.0,4.0,2.0,4.0,58.33333199999999,,,,,,,,22.0,0.0,0.183007,0.6193850000000001,-0.14013699999999998,-0.750488,0.8808729999999999,-0.435065,-0.197269,-0.017914,-0.026173000000000002,-0.034263,,,,,,,,,,,,,,,,,,,,,,,,,,,,,,,,,,,,,,,,,,,,,,,,,,,,,,,,,,,,,,,,,
7269,1645818286.244583,1645818286.292571,45.0,0.0,4344.102539,4614.871582,4198.461426,4258.461426,4279.487305,0.0,1.0,15.0,,,,0.0,4.0,1.0,4.0,2.0,4.0,58.33333199999999,,,,,,,,,,,,,,,,,,,,,,,,,,,,,,,,,,,,,,,,,,,,,,,,,,,,,,,,,,,,,,,,,,,,,,,,,,,,,,,,,,,,
7270,1645818286.252399,1645818286.300386,46.0,0.0,4353.846191,4647.179688,4210.769043,4269.230957,4277.436035,0.0,1.0,15.0,,,,0.0,4.0,1.0,4.0,2.0,4.0,58.33333199999999,,,,,,,,23.0,0.0,0.183007,0.6193850000000001,-0.14013699999999998,-0.750488,0.8847790000000001,-0.435554,-0.201663,-0.018271000000000003,-0.026192,-0.030445999999999997,,,,,,,,,,,,,,,,,,,,,,,,,,,,,,,,,,,,,,,,,,,,,,,,,,,,,,,,,,,,,,,,,
7271,1645818286.260215,1645818286.3082,47.0,0.0,4337.94873,4608.717772999999,4193.846191,4283.077147999999,4271.794922,0.0,1.0,15.0,,,,0.0,4.0,1.0,4.0,2.0,4.0,58.33333199999999,,,,,,,,,,,,,,,,,,,,1.0,0.0,0.0,,,,,,,,,,,,,,,,,,,,,,,,,,,,,,,,0.0,0.0,32.0,0.08138,1.0,0.0,1.600098,3.658269,3.127052,2.601934,2.565612,14.443744,20.306561,17.463247,10.629111,10.433311999999999,2.794712,2.6393310000000003,2.952384,1.6347479999999999,2.365723,16.810423,36.026619000000004,42.877209,23.161985,27.606846,2.805081,3.3175559999999997,1.321331,2.663616,2.8967549999999997
7272,1645818286.268032,1645818286.316015,48.0,0.0,4333.333496,4477.436035,4191.794922,4307.179688,4301.538574,0.0,1.0,15.0,,,,0.0,4.0,1.0,4.0,2.0,4.0,58.33333199999999,,,,,,,,24.0,0.0,0.184005,0.6193850000000001,-0.14013699999999998,-0.7502439999999999,0.9028459999999999,-0.437507,-0.19531500000000002,-0.01703,-0.026258,-0.03331,,,,,,,,,,,,,,,,,,,,,,,,,,,,,,,,,,,,,,,,,,,,,,,,,,,,,,,,,,,,,,,,,
7273,1645818286.2758482,1645818286.323829,49.0,0.0,4384.102539,4464.102539,4235.384765999999,4317.94873,4360.0,0.0,1.0,15.0,,,,0.0,4.0,1.0,4.0,2.0,4.0,58.33333199999999,,,,,,,,,,,,,,,,,,,,,,,,,,,,,,,,,,,,,,,,,,,,,,,,,,,,,,,,,,,,,,,,,,,,,,,,,,,,,,,,,,,,
7274,1645818286.283664,1645818286.331744,50.0,0.0,4385.641113000001,4568.205078,4237.436035,4302.05127,4335.384765999999,0.0,1.0,15.0,,,,0.0,4.0,1.0,4.0,2.0,4.0,58.33333199999999,,,,,,,,25.0,0.0,0.18318099999999998,0.619629,-0.14013699999999998,-0.7502439999999999,0.890639,-0.44434300000000004,-0.189944,-0.017426,-0.026318,-0.035936,,,,,,,,,,,,,,,,,,,,,,,,,,,,,,,,,,,,,,,,,,,,,,,,,,,,,,,,,,,,,,,,,
7275,1645818286.29148,1645818286.339559,51.0,0.0,4327.692383,4591.282227000001,4193.333496,4282.05127,4275.897461,0.0,1.0,15.0,,,,0.0,4.0,1.0,4.0,2.0,4.0,58.33333199999999,,,,,,,,,,,,,,,,,,,,,,,,,,,,,,,,,,,,,,,,,,,,,,,,,,,,,,0.0,0.0,32.0,0.08138,1.0,0.0,,,,,,,,,,,,,,,,,,,,,,,,,
7276,1645818286.299297,1645818286.347373,52.0,0.0,4323.589844,4548.717772999999,4188.205078,4266.153809,4283.077147999999,0.0,1.0,15.0,,,,0.0,4.0,1.0,4.0,2.0,4.0,58.33333199999999,,,,,,,,26.0,0.0,0.18318099999999998,0.619629,-0.14013699999999998,-0.7502439999999999,0.8838030000000001,-0.442878,-0.19677999999999998,-0.017686,-0.026372000000000003,-0.038202,,,,,,,,,,,,,,,,,,,,,,,,,,,,,,,,,,,,,,,,,,,,,,,,,,,,,,,,,,,,,,,,,
7277,1645818286.3071132,1645818286.3551881,53.0,0.0,4366.153809,4540.512695,4211.794922,4252.820313,4308.717772999999,0.0,1.0,15.0,,,,0.0,4.0,1.0,4.0,2.0,4.0,58.33333199999999,,,,,,,,,,,,,,,,,,,,,,,,,,,,,,,,,,,,,,,,,,,,,,,,,,,,,,,,,,,,,,,,,,,,,,,,,,,,,,,,,,,,
7278,1645818286.314929,1645818286.363003,54.0,0.0,4374.358886999999,4536.922852000001,4218.974121,4279.487305,4316.410156,0.0,1.0,15.0,,,,0.0,4.0,1.0,4.0,2.0,4.0,58.33333199999999,,,,,,,,27.0,0.0,0.184005,0.6193850000000001,-0.14013699999999998,-0.7502439999999999,0.8842909999999999,-0.446296,-0.201663,-0.018017,-0.026372000000000003,-0.040241000000000006,,,,,,,,,,,,,,,,,,,,,,,,,,,,,,,,,,,,,,,,,,,,,,,,,,,,,,,,,,,,,,,,,
7279,1645818286.3227448,1645818286.370817,55.0,0.0,4369.743652,4568.717772999999,4223.589844,4312.307617,4329.230957,0.0,1.0,15.0,,,,0.0,4.0,1.0,4.0,2.0,4.0,58.33333199999999,,,,,,,,,,,,,,,,,,,,,,,,,,,,,,,,,,,,,,,,,,,,,,,,,,,,,,0.0,0.0,32.0,0.08138,1.0,0.0,,,,,,,,,,,,,,,,,,,,,,,,,
7280,1645818286.3305619,1645818286.378632,56.0,0.0,4356.410156,4596.922852000001,4206.666504,4310.769043,4307.179688,0.0,1.0,15.0,,,,0.0,4.0,1.0,4.0,2.0,4.0,58.33333199999999,,,,,,,,28.0,0.0,0.183007,0.6193850000000001,-0.14013699999999998,-0.750488,0.882338,-0.44385399999999997,-0.190433,-0.016752,-0.026371,-0.035875,,,,,,,,,,,,,,,,,,,,,,,,,,,,,,,,,,,,,,,,,,,,,,,,,,,,,,,,,,,,,,,,,
7281,1645818286.338378,1645818286.386447,57.0,0.0,4325.641113000001,4535.897461,4171.282227000001,4287.179688,4268.205078,0.0,1.0,15.0,,,,0.0,4.0,1.0,4.0,2.0,4.0,58.33333199999999,,,,,,,,,,,,,,,,,,,,,,,,,,,,,,,,,,,,,,,,,,,,,,,,,,,,,,,,,,,,,,,,,,,,,,,,,,,,,,,,,,,,
7282,1645818286.346194,1645818286.394261,58.0,0.0,4344.102539,4506.666504,4197.94873,4252.820313,4296.410156,0.0,1.0,15.0,,,,0.0,4.0,1.0,4.0,2.0,4.0,58.33333199999999,,,,,,,,29.0,0.0,0.183194,0.6193850000000001,-0.13989300000000002,-0.750488,0.8774549999999999,-0.438483,-0.197269,-0.015565,-0.02642,-0.038147,,,,,,,,,,,,,,,,,,,,,,,,,,,,,,,,,,,,,,,,,,,,,,,,,,,,,,,,,,,,,,,,,
7283,1645818286.3540099,1645818286.402076,59.0,0.0,4384.102539,4550.256348,4236.922852000001,4223.589844,4321.025879,0.0,1.0,15.0,,,,0.0,4.0,1.0,4.0,2.0,4.0,58.33333199999999,,,,,,,,,,,,,,,,,,,,,,,,,,,,,,,,,,,,,,,,,,,,,,,,,,,,,,0.0,0.0,32.0,0.08138,1.0,0.0,,,,,,,,,,,,,,,,,,,,,,,,,
7284,1645818286.361827,1645818286.40999,60.0,0.0,4361.025879,4535.897461,4203.077147999999,4266.666504,4280.0,0.0,1.0,15.0,,,,0.0,4.0,1.0,4.0,2.0,4.0,58.33333199999999,,,,,,,,30.0,0.0,0.184005,0.6193850000000001,-0.14013699999999998,-0.7502439999999999,0.8842909999999999,-0.446296,-0.201663,-0.016059999999999998,-0.026317,-0.033991,,,,,,,,,,,,,,,,,,,,,,,,,,,,,,,,,,,,,,,,,,,,,,,,,,,,,,,,,,,,,,,,,
7285,1645818286.369643,1645818286.4178052,61.0,0.0,4307.692383,4492.820313,4148.717772999999,4322.05127,4249.230957,0.0,1.0,15.0,,,,0.0,4.0,1.0,4.0,2.0,4.0,58.33333199999999,,,,,,,,,,,,,,,,,,,,,,,,,,,,,,,,,,,,,,,,,,,,,,,,,,,,,,,,,,,,,,,,,,,,,,,,,,,,,,,,,,,,
7286,1645818286.377459,1645818286.4256198,62.0,0.0,4303.589844,4520.0,4165.641113000001,4282.563965,4261.025879,0.0,1.0,15.0,,,,0.0,4.0,1.0,4.0,2.0,4.0,58.33333199999999,,,,,,,,31.0,0.0,0.183194,0.6193850000000001,-0.13989300000000002,-0.750488,0.8774549999999999,-0.438483,-0.197269,-0.014941999999999999,-0.026371,-0.036451,,,,,,,,,,,,,,,,,,,,,,,,,,,,,,,,,,,,,,,,,,,,,,,,,,,,,,,,,,,,,,,,,
7287,1645818286.385275,1645818286.433434,63.0,0.0,4356.410156,4561.538574,4236.410156,4233.333496,4298.974121,0.0,1.0,15.0,,,,0.0,4.0,1.0,4.0,2.0,4.0,58.33333199999999,1.0,0.0,0.0,0.0,4.0,0.0,4.0,,,,,,,,,,,,,1.0,0.0,0.0,,,,,,,,,,,,,,,,,,,,,,,,,,,,,,,,0.0,0.0,32.0,0.077671,1.0,0.0,1.344411,3.669572,2.847579,2.47375,2.6865930000000002,10.907316,21.743643,19.26473,10.33692,11.338047999999999,3.448111,2.320815,2.9762150000000003,1.7183009999999999,2.581836,18.594749,40.410149,45.571095,29.321704999999998,40.153988,2.466974,3.019484,1.498949,2.389147,3.028025
7288,1645818286.393091,1645818286.4412491,64.0,0.0,4368.205078,4598.974121,4237.436035,4240.512695,4308.205078,450.0,1.0,15.0,,,,0.0,4.0,1.0,4.0,2.0,4.0,58.33333199999999,,,,,,,,32.0,0.0,0.183194,0.6193850000000001,-0.13989300000000002,-0.750488,0.885267,-0.455085,-0.19531500000000002,-0.015596,-0.026418999999999998,-0.038616000000000004,,,,,,,,,,,,,,,,,,,,,,,,,,,,,,,,,,,,,,,,,,,,,,,,,,,,,,,,,,,,,,,,,
7289,1645818286.400908,1645818286.449064,65.0,0.0,4343.589844,4658.974121,4201.538574,4232.820313,4294.358886999999,450.0,1.0,15.0,,,,0.0,4.0,1.0,4.0,2.0,4.0,58.33333199999999,,,,,,,,,,,,,,,,,,,,,,,,,,,,,,,,,,,,,,,,,,,,,,,,,,,,,,,,,,,,,,,,,,,,,,,,,,,,,,,,,,,,
7290,1645818286.408724,1645818286.456878,66.0,0.0,4352.307617,4662.563965,4212.307617,4234.871582,4308.205078,16234.0,1.0,15.0,,,,0.0,4.0,1.0,4.0,2.0,4.0,58.33333199999999,,,,,,,,33.0,0.0,0.183368,0.619629,-0.13989300000000002,-0.7502439999999999,0.887709,-0.44434300000000004,-0.18799100000000002,-0.016136,-0.026414,-0.040614,,,,,,,,,,,,,,,,,,,,,,,,,,,,,,,,,,,,,,,,,,,,,,,,,,,,,,,,,,,,,,,,,
7291,1645818286.4165401,1645818286.464693,67.0,0.0,4366.666504,4573.333496,4231.282227000001,4310.769043,4315.897461,450.0,1.0,15.0,,,,0.0,4.0,1.0,4.0,2.0,4.0,58.33333199999999,,,,,,,,,,,,,,,,,,,,,,,,,,,,,,,,,,,,,,,,,,,,,,,,,,,,,,0.0,0.0,32.0,0.077671,1.0,0.0,,,,,,,,,,,,,,,,,,,,,,,,,
7292,1645818286.424356,1645818286.472508,68.0,0.0,4344.102539,4493.333496,4209.230957,4351.282227000001,4283.077147999999,146.0,1.0,15.0,,,,0.0,4.0,1.0,4.0,2.0,4.0,58.33333199999999,,,,,,,,34.0,0.0,0.183368,0.619629,-0.13989300000000002,-0.7502439999999999,0.8921030000000001,-0.436042,-0.198245,-0.016622,-0.026262999999999998,-0.03626,,,,,,,,,,,,,,,,,,,,,,,,,,,,,,,,,,,,,,,,,,,,,,,,,,,,,,,,,,,,,,,,,
7293,1645818286.432173,1645818286.480422,69.0,0.0,4329.743652,4514.358886999999,4195.897461,4349.743652,4269.230957,450.0,1.0,15.0,,,,0.0,4.0,1.0,4.0,0.0,4.0,41.666668,,,,,,,,,,,,,,,,,,,,,,,,,,,,,,,,,,,,,,,,,,,,,,,,,,,,,,,,,,,,,,,,,,,,,,,,,,,,,,,,,,,,
7294,1645818286.439989,1645818286.488237,70.0,0.0,4324.102539,4564.615234000001,4189.230957,4332.307617,4273.333496,16170.0,1.0,15.0,,,,0.0,4.0,1.0,4.0,0.0,4.0,41.666668,,,,,,,,35.0,0.0,0.183368,0.619629,-0.13989300000000002,-0.7502439999999999,0.8847790000000001,-0.448737,-0.191897,-0.015399000000000001,-0.026225,-0.038542,,,,,,,,,,,,,,,,,,,,,,,,,,,,,,,,,,,,,,,,,,,,,,,,,,,,,,,,,,,,,,,,,
7295,1645818286.4478052,1645818286.496051,71.0,0.0,4307.692383,4574.871582,4171.794922,4248.205078,4246.153809,450.0,1.0,15.0,,,,0.0,4.0,1.0,4.0,0.0,4.0,41.666668,,,,,,,,,,,,,,,,,,,,,,,,,,,,,,,,,,,,,,,,,,,,,,,,,,,,,,0.0,0.0,32.0,0.077671,1.0,0.0,,,,,,,,,,,,,,,,,,,,,,,,,
7296,1645818286.455621,1645818286.503866,72.0,0.0,4339.487305,4569.230957,4210.256348,4209.230957,4265.641113000001,450.0,1.0,15.0,,,,0.0,4.0,1.0,4.0,0.0,4.0,41.666668,,,,,,,,36.0,0.0,0.182366,0.619629,-0.13989300000000002,-0.750488,0.882826,-0.441413,-0.190433,-0.015959,-0.026239,-0.040547,,,,,,,,,,,,,,,,,,,,,,,,,,,,,,,,,,,,,,,,,,,,,,,,,,,,,,,,,,,,,,,,,
7297,1645818286.4634368,1645818286.511681,73.0,0.0,4372.820313,4543.077147999999,4243.077147999999,4294.871582,4319.487305,25.0,1.0,15.0,,,,0.0,4.0,1.0,4.0,0.0,4.0,41.666668,,,,,,,,,,,,,,,,,,,,,,,,,,,,,,,,,,,,,,,,,,,,,,,,,,,,,,,,,,,,,,,,,,,,,,,,,,,,,,,,,,,,
7298,1645818286.4712539,1645818286.519495,74.0,0.0,4344.615234000001,4511.794922,4197.436035,4327.692383,4307.179688,450.0,1.0,15.0,,,,0.0,4.0,1.0,4.0,0.0,4.0,41.666668,,,,,,,,37.0,0.0,0.182553,0.619629,-0.139648,-0.750488,0.8886850000000001,-0.455085,-0.191409,-0.016512,-0.026300999999999998,-0.042352,,,,,,,,,,,,,,,,,,,,,,,,,,,,,,,,,,,,,,,,,,,,,,,,,,,,,,,,,,,,,,,,,
7299,1645818286.47907,1645818286.52731,75.0,0.0,4315.897461,4550.256348,4167.179688,4256.410156,4266.153809,16240.0,1.0,15.0,,,,0.0,4.0,1.0,4.0,0.0,4.0,41.666668,,,,,,,,,,,,,,,,,,,,,,,,,,,,,,,,,,,,,,,,,,,,,,,,,,,,,,0.0,0.0,32.0,0.077671,1.0,0.0,,,,,,,,,,,,,,,,,,,,,,,,,
7300,1645818286.486886,1645818286.535125,76.0,0.0,4330.256348,4613.333496,4192.820313,4222.563965,4267.179688,450.0,1.0,15.0,,,,0.0,4.0,1.0,4.0,0.0,4.0,41.666668,,,,,,,,38.0,0.0,0.18338,0.6193850000000001,-0.139648,-0.750488,0.885756,-0.44385399999999997,-0.198734,-0.01696,-0.026307,-0.043927999999999995,,,,,,,,,,,,,,,,,,,,,,,,,,,,,,,,,,,,,,,,,,,,,,,,,,,,,,,,,,,,,,,,,
7301,1645818286.4947019,1645818286.542939,77.0,0.0,4340.0,4564.615234000001,4205.128418,4252.307617,4278.461426,450.0,1.0,15.0,,,,0.0,4.0,1.0,4.0,0.0,4.0,41.666668,,,,,,,,,,,,,,,,,,,,,,,,,,,,,,,,,,,,,,,,,,,,,,,,,,,,,,,,,,,,,,,,,,,,,,,,,,,,,,,,,,,,
7302,1645818286.502519,1645818286.550854,78.0,0.0,4337.94873,4484.102539,4204.615234000001,4295.897461,4287.179688,450.0,1.0,15.0,,,,0.0,4.0,1.0,4.0,0.0,4.0,41.666668,,,,,,,,39.0,0.0,0.18237799999999998,0.6193850000000001,-0.139648,-0.750732,0.874525,-0.440925,-0.192386,-0.015899,-0.026362,-0.045248000000000003,,,,,,,,,,,,,,,,,,,,,,,,,,,,,,,,,,,,,,,,,,,,,,,,,,,,,,,,,,,,,,,,,
7303,1645818286.510335,1645818286.558668,79.0,0.0,4343.589844,4513.333496,4213.333496,4326.153809,4290.256348,16240.0,1.0,15.0,,,,0.0,4.0,1.0,4.0,0.0,4.0,41.666668,,,,,,,,,,,,,,,,,,,,1.0,0.0,0.0,,,,,,,,,,,,,,,,,,,,,,,,,,,,,,,,0.0,0.0,32.0,0.067998,1.0,0.0,1.167449,3.36861,2.356786,2.437025,2.836601,8.539402,22.742331,20.633806,10.982318,12.425671000000001,4.128693,2.033662,2.785396,2.144684,2.826645,19.97193,45.698710999999996,53.236546,37.752196999999995,57.040264,2.195347,2.432121,1.593274,2.248767,3.146893
7304,1645818286.518151,1645818286.566483,80.0,0.0,4340.512695,4590.769043,4199.487305,4297.436035,4263.589844,450.0,1.0,15.0,,,,0.0,4.0,1.0,4.0,0.0,4.0,41.666668,,,,,,,,40.0,0.0,0.182564,0.6193850000000001,-0.139404,-0.750732,0.8842909999999999,-0.43653000000000003,-0.192874,-0.016457,-0.026411,-0.046582,,,,,,,,,,,,,,,,,,,,,,,,,,,,,,,,,,,,,,,,,,,,,,,,,,,,,,,,,,,,,,,,,
7305,1645818286.525967,1645818286.5742981,81.0,0.0,4329.743652,4590.256348,4183.589844,4254.871582,4247.692383,450.0,1.0,15.0,,,,0.0,4.0,1.0,4.0,0.0,4.0,41.666668,,,,,,,,,,,,,,,,,,,,,,,,,,,,,,,,,,,,,,,,,,,,,,,,,,,,,,,,,,,,,,,,,,,,,,,,,,,,,,,,,,,,
7306,1645818286.533784,1645818286.5821118,82.0,0.0,4338.974121,4543.589844,4208.205078,4265.641113000001,4274.358886999999,450.0,1.0,15.0,,,,0.0,4.0,1.0,4.0,0.0,4.0,41.666668,,,,,,,,41.0,0.0,0.181558,0.6193850000000001,-0.139404,-0.750977,0.8964979999999999,-0.446296,-0.18701500000000001,-0.016911000000000002,-0.026358,-0.047735,,,,,,,,,,,,,,,,,,,,,,,,,,,,,,,,,,,,,,,,,,,,,,,,,,,,,,,,,,,,,,,,,
7307,1645818286.5416,1645818286.589927,83.0,0.0,4354.358886999999,4571.794922,4222.05127,4292.820313,4286.153809,16240.0,1.0,15.0,,,,0.0,4.0,1.0,4.0,0.0,4.0,41.666668,,,,,,,,,,,,,,,,,,,,,,,,,,,,,,,,,,,,,,,,,,,,,,,,,,,,,,0.0,0.0,32.0,0.067998,1.0,0.0,,,,,,,,,,,,,,,,,,,,,,,,,
7308,1645818286.549416,1645818286.597742,84.0,0.0,4345.641113000001,4607.692383,4200.512695,4306.666504,4266.153809,450.0,1.0,15.0,,,,0.0,4.0,1.0,4.0,0.0,4.0,41.666668,,,,,,,,42.0,0.0,0.18238800000000002,0.6191409999999999,-0.139404,-0.750977,0.8798959999999999,-0.451179,-0.204593,-0.017271,-0.026358999999999997,-0.042522000000000004,,,,,,,,,,,,,,,,,,,,,,,,,,,,,,,,,,,,,,,,,,,,,,,,,,,,,,,,,,,,,,,,,
7309,1645818286.5572321,1645818286.605556,85.0,0.0,4334.358886999999,4536.922852000001,4193.333496,4308.717772999999,4265.641113000001,450.0,1.0,15.0,,,,0.0,4.0,1.0,4.0,0.0,4.0,41.666668,,,,,,,,,,,,,,,,,,,,,,,,,,,,,,,,,,,,,,,,,,,,,,,,,,,,,,,,,,,,,,,,,,,,,,,,,,,,,,,,,,,,
7310,1645818286.565049,1645818286.6133711,86.0,0.0,4350.256348,4503.589844,4221.025879,4283.589844,4280.512695,450.0,1.0,15.0,,,,0.0,4.0,1.0,4.0,0.0,4.0,41.666668,,,,,,,,43.0,0.0,0.18238800000000002,0.6191409999999999,-0.139404,-0.750977,0.886244,-0.445808,-0.190433,-0.016130000000000002,-0.026409,-0.044032,,,,,,,,,,,,,,,,,,,,,,,,,,,,,,,,,,,,,,,,,,,,,,,,,,,,,,,,,,,,,,,,,
7311,1645818286.572865,1645818286.621186,87.0,0.0,4360.512695,4563.589844,4227.692383,4242.563965,4270.256348,16240.0,1.0,15.0,,,,0.0,4.0,1.0,4.0,0.0,4.0,41.666668,,,,,,,,,,,,,,,,,,,,,,,,,,,,,,,,,,,,,,,,,,,,,,,,,,,,,,0.0,0.0,32.0,0.067998,1.0,0.0,,,,,,,,,,,,,,,,,,,,,,,,,
7312,1645818286.580681,1645818286.6291,88.0,0.0,4344.615234000001,4567.692383,4200.0,4278.974121,4253.333496,450.0,1.0,15.0,,,,0.0,4.0,1.0,4.0,0.0,4.0,41.666668,,,,,,,,44.0,0.0,0.18238800000000002,0.6191409999999999,-0.139404,-0.750977,0.8969860000000001,-0.44531899999999996,-0.19677999999999998,-0.015103,-0.026405,-0.045537,,,,,,,,,,,,,,,,,,,,,,,,,,,,,,,,,,,,,,,,,,,,,,,,,,,,,,,,,,,,,,,,,
7313,1645818286.5884972,1645818286.636915,89.0,0.0,4351.794922,4509.743652,4195.384765999999,4340.512695,4276.922852000001,450.0,1.0,15.0,,,,0.0,4.0,1.0,4.0,0.0,4.0,41.666668,,,,,,,,,,,,,,,,,,,,,,,,,,,,,,,,,,,,,,,,,,,,,,,,,,,,,,,,,,,,,,,,,,,,,,,,,,,,,,,,,,,,
7314,1645818286.596314,1645818286.644729,90.0,0.0,4368.717772999999,4492.820313,4204.102539,4319.487305,4297.94873,450.0,1.0,15.0,,,,0.0,4.0,1.0,4.0,0.0,4.0,41.666668,,,,,,,,45.0,0.0,0.18119200000000002,0.6191409999999999,-0.139648,-0.751221,0.886244,-0.424811,-0.20556999999999997,-0.015691999999999998,-0.026499,-0.046745,,,,,,,,,,,,,,,,,,,,,,,,,,,,,,,,,,,,,,,,,,,,,,,,,,,,,,,,,,,,,,,,,
7315,1645818286.60413,1645818286.652544,91.0,0.0,4357.94873,4536.922852000001,4196.922852000001,4266.153809,4279.487305,16240.0,1.0,15.0,,,,0.0,4.0,1.0,4.0,0.0,4.0,41.666668,,,,,,,,,,,,,,,,,,,,,,,,,,,,,,,,,,,,,,,,,,,,,,,,,,,,,,0.0,0.0,32.0,0.067998,1.0,0.0,,,,,,,,,,,,,,,,,,,,,,,,,
7316,1645818286.611946,1645818286.660359,92.0,0.0,4349.743652,4579.487305,4198.461426,4252.307617,4270.256348,450.0,1.0,15.0,,,,0.0,4.0,1.0,4.0,0.0,4.0,41.666668,,,,,,,,46.0,0.0,0.18119200000000002,0.6191409999999999,-0.139648,-0.751221,0.882826,-0.43018199999999995,-0.193851,-0.016271,-0.026338999999999998,-0.04168,,,,,,,,,,,,,,,,,,,,,,,,,,,,,,,,,,,,,,,,,,,,,,,,,,,,,,,,,,,,,,,,,
7317,1645818286.619762,1645818286.668173,93.0,0.0,4365.641113000001,4560.0,4221.025879,4260.0,4281.538574,450.0,1.0,15.0,,,,0.0,4.0,1.0,4.0,0.0,4.0,41.666668,,,,,,,,,,,,,,,,,,,,,,,,,,,,,,,,,,,,,,,,,,,,,,,,,,,,,,,,,,,,,,,,,,,,,,,,,,,,,,,,,,,,
7318,1645818286.627579,1645818286.6759882,94.0,0.0,4359.487305,4538.461426,4225.128418,4301.025879,4267.692383,450.0,1.0,15.0,,,,0.0,4.0,1.0,4.0,0.0,4.0,41.666668,,,,,,,,47.0,0.0,0.18137999999999999,0.6191409999999999,-0.139404,-0.751221,0.8842909999999999,-0.43994799999999995,-0.198734,-0.016744,-0.026342,-0.037023,,,,,,,,,,,,,,,,,,,,,,,,,,,,,,,,,,,,,,,,,,,,,,,,,,,,,,,,,,,,,,,,,
7319,1645818286.6353948,1645818286.6838028,95.0,0.0,4322.05127,4536.410156,4202.05127,4351.794922,4240.0,16240.0,1.0,15.0,,,,0.0,4.0,1.0,4.0,0.0,4.0,41.666668,,,,,,,,,,,,,,,,,,,,1.0,0.0,0.0,,,,,,,,,,,,,,,,,,,,,,,,,,,,,,,,0.0,0.0,1.0,0.0,512.0,1.0,1.135017,2.841765,1.849473,2.5410209999999998,3.011031,7.4494869999999995,23.056534,20.822405,12.505069,13.293370000000001,4.596303,1.799338,2.453467,2.819091,3.0790450000000003,20.564826999999998,50.862991,62.400188,46.645934999999994,74.348389,2.131177,1.767527,1.6563580000000002,2.357545,3.25486
7320,1645818286.643211,1645818286.691617,96.0,0.0,4302.563965,4505.128418,4188.717772999999,4312.820313,4223.589844,450.0,1.0,15.0,,,,0.0,4.0,1.0,4.0,0.0,4.0,41.666668,,,,,,,,48.0,0.0,0.18137999999999999,0.6191409999999999,-0.139404,-0.751221,0.891127,-0.428717,-0.196292,-0.01712,-0.026442,-0.039181,,,,,,,,,,,,,,,,,,,,,,,,,,,,,,,,,,,,,,,,,,,,,,,,,,,,,,,,,,,,,,,,,
7321,1645818286.651027,1645818286.699532,97.0,0.0,4333.846191,4544.615234000001,4208.717772999999,4230.256348,4243.589844,450.0,1.0,15.0,,,,0.0,4.0,1.0,4.0,0.0,4.0,41.666668,,,,,,,,,,,,,,,,,,,,,,,,,,,,,,,,,,,,,,,,,,,,,,,,,,,,,,,,,,,,,,,,,,,,,,,,,,,,,,,,,,,,
7322,1645818286.658843,1645818286.7073462,98.0,0.0,4374.358886999999,4601.025879,4229.230957,4210.769043,4291.282227000001,450.0,1.0,15.0,,,,0.0,4.0,1.0,4.0,0.0,4.0,41.666668,,,,,,,,49.0,0.0,0.181558,0.6193850000000001,-0.139404,-0.750977,0.8896620000000001,-0.451667,-0.19531500000000002,-0.017557,-0.026435000000000004,-0.040975,,,,,,,,,,,,,,,,,,,,,,,,,,,,,,,,,,,,,,,,,,,,,,,,,,,,,,,,,,,,,,,,,
7323,1645818286.66666,1645818286.7151608,99.0,0.0,4364.615234000001,4503.589844,4212.307617,4274.358886999999,4297.436035,16240.0,1.0,15.0,,,,0.0,4.0,1.0,4.0,0.0,4.0,41.666668,,,,,,,,,,,,,,,,,,,,,,,,,,,,,,,,,,,,,,,,,,,,,,,,,,,,,,0.0,0.0,1.0,0.0,512.0,1.0,,,,,,,,,,,,,,,,,,,,,,,,,
7324,1645818286.674476,1645818286.722976,100.0,0.0,4322.563965,4436.410156,4170.256348,4317.436035,4250.769043,450.0,1.0,15.0,,,,0.0,4.0,1.0,4.0,0.0,4.0,41.666668,,,,,,,,50.0,0.0,0.181558,0.6193850000000001,-0.139404,-0.750977,0.901869,-0.43994799999999995,-0.198734,-0.017852,-0.026379000000000003,-0.036585,,,,,,,,,,,,,,,,,,,,,,,,,,,,,,,,,,,,,,,,,,,,,,,,,,,,,,,,,,,,,,,,,
7325,1645818286.682292,1645818286.7307901,101.0,0.0,4315.897461,4513.333496,4163.589844,4272.307617,4235.897461,450.0,1.0,15.0,,,,0.0,4.0,1.0,4.0,0.0,4.0,41.666668,,,,,,,,,,,,,,,,,,,,,,,,,,,,,,,,,,,,,,,,,,,,,,,,,,,,,,,,,,,,,,,,,,,,,,,,,,,,,,,,,,,,
7326,1645818286.690108,1645818286.738605,102.0,0.0,4340.512695,4537.94873,4184.102539,4240.0,4263.589844,450.0,1.0,15.0,,,,0.0,4.0,1.0,4.0,0.0,4.0,41.666668,,,,,,,,51.0,0.0,0.181558,0.6193850000000001,-0.139404,-0.750977,0.8774549999999999,-0.441413,-0.206058,-0.018118000000000002,-0.026378,-0.032585,,,,,,,,,,,,,,,,,,,,,,,,,,,,,,,,,,,,,,,,,,,,,,,,,,,,,,,,,,,,,,,,,
7327,1645818286.697925,1645818286.74642,103.0,0.0,4338.461426,4512.307617,4181.538574,4298.461426,4256.410156,16240.0,1.0,15.0,,,,0.0,4.0,1.0,4.0,0.0,4.0,41.666668,,,,,,,,,,,,,,,,,,,,,,,,,,,,,,,,,,,,,,,,,,,,,,,,,,,,,,0.0,0.0,1.0,0.0,512.0,1.0,,,,,,,,,,,,,,,,,,,,,,,,,
7328,1645818286.705741,1645818286.754234,104.0,0.0,4327.179688,4534.871582,4172.307617,4325.128418,4241.538574,450.0,1.0,15.0,,,,0.0,4.0,1.0,4.0,0.0,4.0,41.666668,,,,,,,,52.0,0.0,0.180545,0.6193850000000001,-0.139404,-0.751221,0.8881969999999999,-0.43897200000000003,-0.206058,-0.018503,-0.026425999999999998,-0.035088,,,,,,,,,,,,,,,,,,,,,,,,,,,,,,,,,,,,,,,,,,,,,,,,,,,,,,,,,,,,,,,,,
7329,1645818286.713557,1645818286.762049,105.0,0.0,4348.717772999999,4523.077147999999,4196.410156,4249.230957,4275.897461,450.0,1.0,15.0,,,,0.0,4.0,1.0,4.0,0.0,4.0,41.666668,,,,,,,,,,,,,,,,,,,,,,,,,,,,,,,,,,,,,,,,,,,,,,,,,,,,,,,,,,,,,,,,,,,,,,,,,,,,,,,,,,,,
7330,1645818286.721373,1645818286.769964,106.0,0.0,4351.282227000001,4511.282227000001,4206.153809,4203.077147999999,4282.563965,450.0,1.0,15.0,,,,0.0,4.0,1.0,4.0,0.0,4.0,41.666668,,,,,,,,53.0,0.0,0.180545,0.6193850000000001,-0.139404,-0.751221,0.889174,-0.43653000000000003,-0.211917,-0.018801,-0.026371,-0.031188999999999998,,,,,,,,,,,,,,,,,,,,,,,,,,,,,,,,,,,,,,,,,,,,,,,,,,,,,,,,,,,,,,,,,
7331,1645818286.72919,1645818286.777778,107.0,0.0,4306.153809,4559.487305,4175.897461,4271.794922,4228.205078,16240.0,1.0,15.0,,,,0.0,4.0,1.0,4.0,0.0,4.0,41.666668,,,,,,,,,,,,,,,,,,,,,,,,,,,,,,,,,,,,,,,,,,,,,,,,,,,,,,0.0,0.0,1.0,0.0,512.0,1.0,,,,,,,,,,,,,,,,,,,,,,,,,
7332,1645818286.737006,1645818286.785593,108.0,0.0,4295.384765999999,4557.436035,4171.282227000001,4336.410156,4217.436035,450.0,1.0,15.0,,,,0.0,4.0,1.0,4.0,0.0,4.0,41.666668,,,,,,,,54.0,0.0,0.181558,0.6193850000000001,-0.139404,-0.750977,0.8916149999999999,-0.431647,-0.198245,-0.017409,-0.02642,-0.033977999999999994,,,,,,,,,,,,,,,,,,,,,,,,,,,,,,,,,,,,,,,,,,,,,,,,,,,,,,,,,,,,,,,,,
7333,1645818286.744822,1645818286.793407,109.0,0.0,4331.282227000001,4529.743652,4198.461426,4308.717772999999,4266.666504,450.0,1.0,15.0,,,,0.0,4.0,1.0,4.0,0.0,4.0,41.666668,,,,,,,,,,,,,,,,,,,,,,,,,,,,,,,,,,,,,,,,,,,,,,,,,,,,,,,,,,,,,,,,,,,,,,,,,,,,,,,,,,,,
7334,1645818286.752638,1645818286.801222,110.0,0.0,4355.384765999999,4545.641113000001,4208.717772999999,4274.358886999999,4290.769043,450.0,1.0,15.0,,,,0.0,4.0,1.0,4.0,0.0,4.0,41.666668,,,,,,,,55.0,0.0,0.180723,0.619629,-0.139404,-0.750977,0.889174,-0.442878,-0.195804,-0.017669999999999998,-0.026317,-0.030189999999999998,,,,,,,,,,,,,,,,,,,,,,,,,,,,,,,,,,,,,,,,,,,,,,,,,,,,,,,,,,,,,,,,,
7335,1645818286.7604551,1645818286.809037,111.0,0.0,4350.769043,4550.256348,4201.025879,4256.410156,4282.05127,16240.0,1.0,15.0,,,,0.0,4.0,1.0,4.0,0.0,4.0,41.666668,,,,,,,,,,,,,,,,,,,,1.0,0.0,0.0,,,,,,,,,,,,,,,,,,,,,,,,,,,,,,,,0.0,0.0,1.0,0.0,512.0,1.0,1.242717,2.223331,1.509153,2.760854,3.203049,7.418842,22.707928,19.823847,14.592522,13.715084,4.665342,1.660811,2.115401,3.514265,3.336929,20.35895,54.147812,68.302643,53.682945,86.62487800000001,2.299067,1.253235,1.8012689999999998,2.736137,3.3697730000000004
7336,1645818286.7682712,1645818286.816851,112.0,0.0,4329.230957,4561.025879,4180.512695,4201.538574,4261.025879,450.0,1.0,15.0,,,,0.0,4.0,1.0,4.0,0.0,4.0,41.666668,,,,,,,,56.0,0.0,0.18173399999999998,0.619629,-0.139404,-0.750732,0.8930799999999999,-0.445808,-0.201175,-0.016538,-0.026273,-0.033030000000000004,,,,,,,,,,,,,,,,,,,,,,,,,,,,,,,,,,,,,,,,,,,,,,,,,,,,,,,,,,,,,,,,,
7337,1645818286.7760868,1645818286.824666,113.0,0.0,4325.128418,4549.230957,4172.307617,4208.205078,4247.179688,450.0,1.0,15.0,,,,0.0,4.0,1.0,4.0,0.0,4.0,41.666668,,,,,,,,,,,,,,,,,,,,,,,,,,,,,,,,,,,,,,,,,,,,,,,,,,,,,,,,,,,,,,,,,,,,,,,,,,,,,,,,,,,,
7338,1645818286.783903,1645818286.8324811,114.0,0.0,4343.589844,4470.769043,4185.128418,4296.410156,4262.05127,450.0,1.0,15.0,,,,0.0,4.0,1.0,4.0,0.0,4.0,41.666668,,,,,,,,57.0,0.0,0.1809,0.619873,-0.139404,-0.750732,0.8725719999999999,-0.425299,-0.18555,-0.017033,-0.026282,-0.035538,,,,,,,,,,,,,,,,,,,,,,,,,,,,,,,,,,,,,,,,,,,,,,,,,,,,,,,,,,,,,,,,,
7339,1645818286.79172,1645818286.8402948,115.0,0.0,4325.128418,4470.769043,4170.769043,4296.410156,4258.461426,16240.0,1.0,15.0,,,,0.0,4.0,1.0,4.0,0.0,4.0,41.666668,,,,,,,,,,,,,,,,,,,,,,,,,,,,,,,,,,,,,,,,,,,,,,,,,,,,,,0.0,0.0,1.0,0.0,512.0,1.0,,,,,,,,,,,,,,,,,,,,,,,,,
7340,1645818286.799536,1645818286.8482099,116.0,0.0,4319.487305,4583.589844,4170.256348,4201.025879,4256.922852000001,450.0,1.0,15.0,,,,0.0,4.0,1.0,4.0,0.0,4.0,41.666668,,,,,,,,58.0,0.0,0.180723,0.619629,-0.139404,-0.750977,0.889174,-0.442878,-0.195804,-0.017429,-0.026291000000000002,-0.031593,,,,,,,,,,,,,,,,,,,,,,,,,,,,,,,,,,,,,,,,,,,,,,,,,,,,,,,,,,,,,,,,,
7341,1645818286.807352,1645818286.856025,117.0,0.0,4371.794922,4622.563965,4211.282227000001,4150.256348,4295.384765999999,450.0,1.0,15.0,,,,0.0,4.0,1.0,4.0,0.0,4.0,41.666668,,,,,,,,,,,,,,,,,,,,,,,,,,,,,,,,,,,,,,,,,,,,,,,,,,,,,,,,,,,,,,,,,,,,,,,,,,,,,,,,,,,,
7342,1645818286.815168,1645818286.8638391,118.0,0.0,4405.128418,4587.179688,4217.94873,4207.179688,4316.922852000001,450.0,1.0,15.0,,,,0.0,4.0,1.0,4.0,0.0,4.0,41.666668,,,,,,,,59.0,0.0,0.1809,0.619873,-0.139404,-0.750732,0.8725719999999999,-0.425299,-0.18555,-0.017835,-0.026299,-0.034245,,,,,,,,,,,,,,,,,,,,,,,,,,,,,,,,,,,,,,,,,,,,,,,,,,,,,,,,,,,,,,,,,
7343,1645818286.822984,1645818286.871754,119.0,0.0,4403.077147999999,4616.410156,4173.846191,4257.436035,4298.974121,16240.0,1.0,15.0,,,,0.0,4.0,1.0,4.0,0.0,4.0,41.666668,,,,,,,,,,,,,,,,,,,,,,,,,,,,,,,,,,,,,,,,,,,,,,,,,,,,,,0.0,0.0,1.0,0.0,512.0,1.0,,,,,,,,,,,,,,,,,,,,,,,,,
7344,1645818286.830801,1645818286.8795679,120.0,0.0,4453.846191,4651.794922,4172.307617,4258.461426,4315.384765999999,450.0,1.0,15.0,,,,0.0,4.0,1.0,4.0,0.0,4.0,41.666668,,,,,,,,60.0,0.0,0.1809,0.619873,-0.139404,-0.750732,0.8886850000000001,-0.44531899999999996,-0.19971,-0.018102,-0.026257,-0.036631,,,,,,,,,,,,,,,,,,,,,,,,,,,,,,,,,,,,,,,,,,,,,,,,,,,,,,,,,,,,,,,,,
7345,1645818286.838617,1645818286.887383,121.0,0.0,4570.769043,4620.0,4196.410156,4303.589844,4383.077147999999,450.0,1.0,15.0,,,,0.0,4.0,1.0,4.0,0.0,4.0,41.666668,,,,,,,,,,,,,,,,,,,,,,,,,,,,,,,,,,,,,,,,,,,,,,,,,,,,,,,,,,,,,,,,,,,,,,,,,,,,,,,,,,,,
7346,1645818286.846433,1645818286.895198,122.0,0.0,4674.358886999999,4623.077147999999,4169.743652,4351.282227000001,4421.025879,450.0,1.0,15.0,,,,0.0,4.0,1.0,4.0,0.0,4.0,41.666668,,,,,,,,61.0,0.0,0.18191,0.619873,-0.139404,-0.750488,0.8803850000000001,-0.43018199999999995,-0.197757,-0.01844,-0.026219,-0.032479,,,,,,,,,,,,,,,,,,,,,,,,,,,,,,,,,,,,,,,,,,,,,,,,,,,,,,,,,,,,,,,,,
7347,1645818286.854249,1645818286.9030118,123.0,0.0,4772.307617,4688.205078,4167.179688,4313.846191,4458.461426,16240.0,1.0,15.0,,,,0.0,4.0,1.0,4.0,0.0,4.0,41.666668,,,,,,,,,,,,,,,,,,,,,,,,,,,,,,,,,,,,,,,,,,,,,,,,,,,,,,0.0,0.0,1.0,0.0,512.0,1.0,,,,,,,,,,,,,,,,,,,,,,,,,
7348,1645818286.862066,1645818286.910827,124.0,0.0,4867.179688,4659.487305,4208.717772999999,4291.282227000001,4523.077147999999,450.0,1.0,15.0,,,,0.0,4.0,1.0,4.0,0.0,4.0,41.666668,,,,,,,,62.0,0.0,0.18191,0.619873,-0.139404,-0.750488,0.885756,-0.45020200000000005,-0.183108,-0.018793999999999998,-0.026185000000000003,-0.034993,,,,,,,,,,,,,,,,,,,,,,,,,,,,,,,,,,,,,,,,,,,,,,,,,,,,,,,,,,,,,,,,,
7349,1645818286.869882,1645818286.918742,125.0,0.0,4943.077147999999,4585.641113000001,4229.743652,4305.128418,4572.307617,450.0,1.0,15.0,,,,0.0,4.0,0.0,4.0,0.0,4.0,33.333332,,,,,,,,,,,,,,,,,,,,,,,,,,,,,,,,,,,,,,,,,,,,,,,,,,,,,,,,,,,,,,,,,,,,,,,,,,,,,,,,,,,,
7350,1645818286.877698,1645818286.926556,126.0,0.0,4987.179688,4625.641113000001,4221.538574,4231.794922,4587.692383,450.0,1.0,15.0,,,,0.0,4.0,0.0,4.0,0.0,4.0,33.333332,,,,,,,,63.0,0.0,0.18191,0.619873,-0.139404,-0.750488,0.8921030000000001,-0.43653000000000003,-0.186038,-0.018965,-0.026202999999999997,-0.037305,,,,,,,,,,,,,,,,,,,,,,,,,,,,,,,,,,,,,,,,,,,,,,,,,,,,,,,,,,,,,,,,,
7351,1645818286.885514,1645818286.934371,127.0,0.0,5003.077147999999,4674.358886999999,4217.94873,4184.102539,4589.743652,233.0,1.0,15.0,,,,0.0,4.0,0.0,4.0,0.0,4.0,33.333332,1.0,0.0,0.0,0.0,4.0,0.0,3.0,,,,,,,,,,,,,1.0,0.0,0.0,,,,,,,,,,,,,,,,,,,,,,,,,,,,,,,,0.0,0.0,1.0,0.0,512.0,0.523674,1.4448290000000001,1.6536680000000001,1.425062,3.018021,3.3986099999999997,8.082482,21.860295999999998,18.303644,16.906759,13.727098000000002,4.3332489999999995,1.648354,1.882134,3.989404,3.606879,19.597765,53.632144999999994,67.50636300000001,56.886017,89.393692,2.6246389999999997,1.033417,2.12652,3.3054550000000003,3.511424
7352,1645818286.89333,1645818286.942185,0.0,0.0,5021.538574,4654.871582,4222.05127,4268.717772999999,4589.743652,450.0,1.0,15.0,,,,0.0,4.0,0.0,4.0,0.0,4.0,33.333332,,,,,,,,0.0,0.0,0.18191,0.619873,-0.139404,-0.750488,0.8964979999999999,-0.44483100000000003,-0.196292,-0.019119,-0.026269,-0.039385,,,,,,,,,,,,,,,,,,,,,,,,,,,,,,,,,,,,,,,,,,,,,,,,,,,,,,,,,,,,,,,,,
7353,1645818286.9011471,1645818286.95,1.0,0.0,5047.692383,4648.717772999999,4221.538574,4319.487305,4605.128418,450.0,1.0,15.0,,,,0.0,4.0,0.0,4.0,0.0,4.0,33.333332,,,,,,,,,,,,,,,,,,,,,,,,,,,,,,,,,,,,,,,,,,,,,,,,,,,,,,,,,,,,,,,,,,,,,,,,,,,,,,,,,,,,
7354,1645818286.9089632,1645818286.957815,2.0,0.0,5074.358886999999,4638.974121,4223.077147999999,4276.922852000001,4634.358886999999,16176.0,1.0,15.0,,,,0.0,4.0,0.0,4.0,0.0,4.0,33.333332,,,,,,,,1.0,0.0,0.18191,0.619873,-0.139404,-0.750488,0.898451,-0.43994799999999995,-0.20019800000000001,-0.019209,-0.026181,-0.035056,,,,,,,,,,,,,,,,,,,,,,,,,,,,,,,,,,,,,,,,,,,,,,,,,,,,,,,,,,,,,,,,,
7355,1645818286.9167788,1645818286.9656289,3.0,0.0,5095.897461,4614.871582,4228.205078,4249.230957,4631.282227000001,450.0,1.0,15.0,,,,0.0,4.0,0.0,4.0,0.0,4.0,33.333332,,,,,,,,,,,,,,,,,,,,,,,,,,,,,,,,,,,,,,,,,,,,,,,,,,,,,,0.0,0.0,1.0,0.0,512.0,0.523674,,,,,,,,,,,,,,,,,,,,,,,,,
7356,1645818286.9245949,1645818286.973444,4.0,0.0,5107.692383,4625.641113000001,4234.871582,4249.230957,4618.974121,46.0,1.0,15.0,,,,0.0,4.0,0.0,4.0,0.0,4.0,33.333332,,,,,,,,2.0,0.0,0.181722,0.619873,-0.139648,-0.750488,0.902358,-0.44190100000000004,-0.18945599999999999,-0.019437,-0.026199,-0.03741,,,,,,,,,,,,,,,,,,,,,,,,,,,,,,,,,,,,,,,,,,,,,,,,,,,,,,,,,,,,,,,,,
7357,1645818286.932412,1645818286.9812589,5.0,0.0,5117.436035,4654.871582,4253.846191,4213.333496,4648.205078,450.0,1.0,15.0,,,,0.0,4.0,0.0,4.0,0.0,4.0,33.333332,,,,,,,,,,,,,,,,,,,,,,,,,,,,,,,,,,,,,,,,,,,,,,,,,,,,,,,,,,,,,,,,,,,,,,,,,,,,,,,,,,,,
7358,1645818286.940228,1645818286.989173,6.0,0.0,5127.692383,4691.282227000001,4271.282227000001,4219.487305,4677.94873,16107.0,1.0,15.0,,,,0.0,4.0,0.0,4.0,1.0,4.0,41.666668,,,,,,,,3.0,0.0,0.18071099999999998,0.619873,-0.139648,-0.750732,0.8798959999999999,-0.448737,-0.196292,-0.017933,-0.026313999999999997,-0.039577,,,,,,,,,,,,,,,,,,,,,,,,,,,,,,,,,,,,,,,,,,,,,,,,,,,,,,,,,,,,,,,,,
7359,1645818286.948044,1645818286.996988,7.0,0.0,5135.897461,4686.666504,4270.769043,4316.410156,4674.871582,450.0,1.0,15.0,,,,0.0,4.0,0.0,4.0,1.0,4.0,41.666668,,,,,,,,,,,,,,,,,,,,,,,,,,,,,,,,,,,,,,,,,,,,,,,,,,,,,,0.0,0.0,1.0,0.0,512.0,0.523674,,,,,,,,,,,,,,,,,,,,,,,,,
7360,1645818286.9558609,1645818287.004803,8.0,0.0,5117.436035,4617.94873,4235.897461,4331.282227000001,4648.717772999999,450.0,1.0,15.0,,,,0.0,4.0,0.0,4.0,1.0,4.0,41.666668,,,,,,,,4.0,0.0,0.18071099999999998,0.619873,-0.139648,-0.750732,0.886732,-0.45459700000000003,-0.199222,-0.018337,-0.026222000000000002,-0.035276999999999996,,,,,,,,,,,,,,,,,,,,,,,,,,,,,,,,,,,,,,,,,,,,,,,,,,,,,,,,,,,,,,,,,
7361,1645818286.963677,1645818287.012617,9.0,0.0,5080.0,4606.666504,4215.897461,4240.512695,4625.128418,35.0,1.0,15.0,,,,0.0,4.0,0.0,4.0,1.0,4.0,41.666668,,,,,,,,,,,,,,,,,,,,,,,,,,,,,,,,,,,,,,,,,,,,,,,,,,,,,,,,,,,,,,,,,,,,,,,,,,,,,,,,,,,,
7362,1645818286.971493,1645818287.020432,10.0,0.0,5050.769043,4682.05127,4228.717772999999,4205.128418,4618.461426,450.0,1.0,15.0,,,,0.0,4.0,0.0,4.0,1.0,4.0,41.666668,,,,,,,,5.0,0.0,0.18154700000000001,0.619629,-0.139648,-0.750732,0.8955209999999999,-0.446296,-0.197269,-0.018553999999999998,-0.02609,-0.03756,,,,,,,,,,,,,,,,,,,,,,,,,,,,,,,,,,,,,,,,,,,,,,,,,,,,,,,,,,,,,,,,,
7363,1645818286.979309,1645818287.0282462,11.0,0.0,5023.589844,4694.871582,4236.922852000001,4252.820313,4607.179688,16178.0,1.0,15.0,,,,0.0,4.0,0.0,4.0,1.0,4.0,41.666668,,,,,,,,,,,,,,,,,,,,,,,,,,,,,,,,,,,,,,,,,,,,,,,,,,,,,,0.0,0.0,1.0,0.0,512.0,0.523674,,,,,,,,,,,,,,,,,,,,,,,,,
7364,1645818286.987125,1645818287.036061,12.0,0.0,5006.153809,4637.94873,4250.256348,4309.743652,4594.871582,450.0,1.0,15.0,,,,0.0,4.0,0.0,4.0,1.0,4.0,41.666668,,,,,,,,6.0,0.0,0.180534,0.619629,-0.139648,-0.750977,0.8872209999999999,-0.455085,-0.20068699999999998,-0.017284,-0.026118000000000002,-0.033462,,,,,,,,,,,,,,,,,,,,,,,,,,,,,,,,,,,,,,,,,,,,,,,,,,,,,,,,,,,,,,,,,
7365,1645818286.994942,1645818287.043876,13.0,0.0,4973.846191,4612.307617,4250.256348,4319.487305,4573.846191,450.0,1.0,15.0,,,,0.0,4.0,0.0,4.0,1.0,4.0,41.666668,,,,,,,,,,,,,,,,,,,,,,,,,,,,,,,,,,,,,,,,,,,,,,,,,,,,,,,,,,,,,,,,,,,,,,,,,,,,,,,,,,,,
7366,1645818287.002758,1645818287.05169,14.0,0.0,4905.641113000001,4605.641113000001,4222.563965,4285.641113000001,4527.179688,450.0,1.0,15.0,,,,0.0,4.0,0.0,4.0,1.0,4.0,41.666668,,,,,,,,7.0,0.0,0.180534,0.619629,-0.139648,-0.750977,0.8964979999999999,-0.44190100000000004,-0.204105,-0.016093,-0.026143,-0.035976,,,,,,,,,,,,,,,,,,,,,,,,,,,,,,,,,,,,,,,,,,,,,,,,,,,,,,,,,,,,,,,,,
7367,1645818287.010574,1645818287.059505,15.0,0.0,4837.436035,4593.846191,4203.589844,4271.794922,4473.846191,16178.0,1.0,15.0,,,,0.0,4.0,0.0,4.0,1.0,4.0,41.666668,,,,,,,,,,,,,,,,,,,,1.0,0.0,0.0,,,,,,,,,,,,,,,,,,,,,,,,,,,,,,,,11.0,0.0,1.0,0.0,512.0,0.402773,2.375695,1.327229,1.515482,3.235075,3.570203,9.217022,20.871239000000003,17.132954,19.099864999999998,13.536892000000002,3.735625,1.760273,1.796229,4.119339,3.8732339999999996,18.422169,48.545635,59.716629000000005,55.455631000000004,81.374382,3.03879,1.126595,2.614155,3.9314430000000002,3.676183
7368,1645818287.01839,1645818287.06742,16.0,0.0,4822.05127,4595.897461,4221.025879,4292.820313,4466.153809,0.0,1.0,15.0,,,,0.0,4.0,0.0,4.0,1.0,4.0,41.666668,,,,,,,,8.0,0.0,0.180534,0.619629,-0.139648,-0.750977,0.890639,-0.423346,-0.208988,-0.016486,-0.026164999999999997,-0.038091,,,,,,,,,,,,,,,,,,,,,,,,,,,,,,,,,,,,,,,,,,,,,,,,,,,,,,,,,,,,,,,,,
7369,1645818287.026207,1645818287.075234,17.0,0.0,4819.487305,4624.102539,4231.794922,4274.871582,4468.717772999999,0.0,1.0,15.0,,,,0.0,4.0,0.0,4.0,1.0,4.0,41.666668,,,,,,,,,,,,,,,,,,,,,,,,,,,,,,,,,,,,,,,,,,,,,,,,,,,,,,,,,,,,,,,,,,,,,,,,,,,,,,,,,,,,
7370,1645818287.034023,1645818287.083049,18.0,0.0,4761.538574,4664.102539,4224.615234000001,4192.307617,4432.307617,0.0,1.0,15.0,,,,0.0,4.0,0.0,4.0,1.0,4.0,41.666668,,,,,,,,9.0,0.0,0.180723,0.619629,-0.139404,-0.750977,0.8764780000000001,-0.433112,-0.194339,-0.017034999999999998,-0.026185000000000003,-0.040141,,,,,,,,,,,,,,,,,,,,,,,,,,,,,,,,,,,,,,,,,,,,,,,,,,,,,,,,,,,,,,,,,
7371,1645818287.0418391,1645818287.0908642,19.0,0.0,4704.102539,4627.179688,4232.307617,4138.461426,4399.487305,0.0,1.0,15.0,,,,0.0,4.0,0.0,4.0,1.0,4.0,41.666668,,,,,,,,,,,,,,,,,,,,,,,,,,,,,,,,,,,,,,,,,,,,,,,,,,,,,,11.0,0.0,1.0,0.0,512.0,0.402773,,,,,,,,,,,,,,,,,,,,,,,,,
7372,1645818287.049655,1645818287.0986779,20.0,0.0,4688.717772999999,4553.846191,4226.153809,4168.717772999999,4389.743652,0.0,1.0,15.0,,,,0.0,4.0,0.0,4.0,1.0,4.0,41.666668,,,,,,,,10.0,0.0,0.180723,0.619629,-0.139404,-0.750977,0.8921030000000001,-0.440925,-0.19336199999999998,-0.017381999999999998,-0.026204,-0.035737,,,,,,,,,,,,,,,,,,,,,,,,,,,,,,,,,,,,,,,,,,,,,,,,,,,,,,,,,,,,,,,,,
7373,1645818287.057471,1645818287.106493,21.0,0.0,4665.641113000001,4591.282227000001,4195.897461,4222.563965,4382.563965,0.0,1.0,15.0,,,,0.0,4.0,0.0,4.0,1.0,4.0,41.666668,,,,,,,,,,,,,,,,,,,,,,,,,,,,,,,,,,,,,,,,,,,,,,,,,,,,,,,,,,,,,,,,,,,,,,,,,,,,,,,,,,,,
7374,1645818287.065288,1645818287.114307,22.0,0.0,4634.871582,4617.436035,4197.94873,4247.692383,4378.974121,0.0,1.0,15.0,,,,0.0,4.0,0.0,4.0,1.0,4.0,41.666668,,,,,,,,11.0,0.0,0.180723,0.619629,-0.139404,-0.750977,0.876967,-0.427741,-0.198245,-0.017743000000000002,-0.02622,-0.037974,,,,,,,,,,,,,,,,,,,,,,,,,,,,,,,,,,,,,,,,,,,,,,,,,,,,,,,,,,,,,,,,,
7375,1645818287.073104,1645818287.122122,23.0,0.0,4610.769043,4534.871582,4223.589844,4230.769043,4365.128418,0.0,1.0,15.0,,,,0.0,4.0,0.0,4.0,1.0,4.0,41.666668,,,,,,,,,,,,,,,,,,,,,,,,,,,,,,,,,,,,,,,,,,,,,,,,,,,,,,11.0,0.0,1.0,0.0,512.0,0.402773,,,,,,,,,,,,,,,,,,,,,,,,,
7376,1645818287.08092,1645818287.129937,24.0,0.0,4580.0,4532.820313,4225.128418,4224.615234000001,4340.0,0.0,1.0,15.0,,,,0.0,4.0,0.0,4.0,1.0,4.0,41.666668,,,,,,,,12.0,0.0,0.180723,0.619629,-0.139404,-0.750977,0.885756,-0.424811,-0.196292,-0.017971,-0.026331999999999998,-0.033882999999999996,,,,,,,,,,,,,,,,,,,,,,,,,,,,,,,,,,,,,,,,,,,,,,,,,,,,,,,,,,,,,,,,,
7377,1645818287.0887358,1645818287.137851,25.0,0.0,4552.820313,4588.205078,4212.307617,4276.410156,4335.897461,0.0,1.0,15.0,,,,0.0,4.0,0.0,4.0,1.0,4.0,41.666668,,,,,,,,,,,,,,,,,,,,,,,,,,,,,,,,,,,,,,,,,,,,,,,,,,,,,,,,,,,,,,,,,,,,,,,,,,,,,,,,,,,,
7378,1645818287.0965528,1645818287.1456661,26.0,0.0,4532.307617,4555.384765999999,4210.256348,4330.256348,4333.846191,0.0,1.0,15.0,,,,0.0,4.0,0.0,4.0,1.0,4.0,41.666668,,,,,,,,13.0,0.0,0.180911,0.619629,-0.13915999999999998,-0.750977,0.897963,-0.442878,-0.20264000000000001,-0.018175999999999998,-0.026188999999999997,-0.036354000000000004,,,,,,,,,,,,,,,,,,,,,,,,,,,,,,,,,,,,,,,,,,,,,,,,,,,,,,,,,,,,,,,,,
7379,1645818287.104369,1645818287.153481,27.0,0.0,4495.384765999999,4534.871582,4194.358886999999,4283.589844,4303.589844,0.0,1.0,15.0,,,,0.0,4.0,0.0,4.0,1.0,4.0,41.666668,,,,,,,,,,,,,,,,,,,,,,,,,,,,,,,,,,,,,,,,,,,,,,,,,,,,,,11.0,0.0,1.0,0.0,512.0,0.402773,,,,,,,,,,,,,,,,,,,,,,,,,
7380,1645818287.112185,1645818287.161295,28.0,0.0,4492.307617,4598.461426,4212.307617,4246.153809,4311.282227000001,0.0,1.0,15.0,,,,0.0,4.0,0.0,4.0,1.0,4.0,41.666668,,,,,,,,14.0,0.0,0.179883,0.619873,-0.139404,-0.750977,0.8872209999999999,-0.448737,-0.197269,-0.016749,-0.026157999999999997,-0.03228,,,,,,,,,,,,,,,,,,,,,,,,,,,,,,,,,,,,,,,,,,,,,,,,,,,,,,,,,,,,,,,,,
7381,1645818287.120001,1645818287.16911,29.0,0.0,4542.563965,4626.153809,4267.692383,4298.974121,4349.743652,0.0,1.0,15.0,,,,0.0,4.0,0.0,4.0,1.0,4.0,41.666668,,,,,,,,,,,,,,,,,,,,,,,,,,,,,,,,,,,,,,,,,,,,,,,,,,,,,,,,,,,,,,,,,,,,,,,,,,,,,,,,,,,,
7382,1645818287.1278179,1645818287.176925,30.0,0.0,4541.025879,4584.102539,4262.563965,4292.307617,4325.128418,0.0,1.0,15.0,,,,0.0,4.0,0.0,4.0,1.0,4.0,41.666668,,,,,,,,15.0,0.0,0.179883,0.619873,-0.139404,-0.750977,0.890639,-0.433112,-0.186526,-0.015611000000000002,-0.02613,-0.034911000000000005,,,,,,,,,,,,,,,,,,,,,,,,,,,,,,,,,,,,,,,,,,,,,,,,,,,,,,,,,,,,,,,,,
7383,1645818287.135634,1645818287.184739,31.0,0.0,4529.743652,4589.743652,4223.077147999999,4252.307617,4309.230957,0.0,1.0,15.0,,,,0.0,4.0,0.0,4.0,1.0,4.0,41.666668,,,,,,,,,,,,,,,,,,,,1.0,0.0,0.0,,,,,,,,,,,,,,,,,,,,,,,,,,,,,,,,11.0,0.0,1.0,0.0,512.0,0.407885,9.007031,1.9120979999999999,1.751968,3.400357,3.6863699999999997,10.368178,20.085613000000002,16.791037,20.847105,13.340763,3.057513,1.93397,1.833274,3.9488209999999997,4.091335,16.883528,39.967422,47.090202000000005,50.204582,65.22129100000001,4.270504,1.559814,3.149784,4.499403,3.8347339999999996
7384,1645818287.14345,1645818287.192554,32.0,0.0,4600.512695,4635.897461,4218.461426,4290.769043,4360.512695,0.0,1.0,15.0,,,,0.0,4.0,0.0,4.0,1.0,4.0,41.666668,,,,,,,,16.0,0.0,0.179883,0.619873,-0.139404,-0.750977,0.8872209999999999,-0.440925,-0.19677999999999998,-0.016101,-0.026105,-0.031029,,,,,,,,,,,,,,,,,,,,,,,,,,,,,,,,,,,,,,,,,,,,,,,,,,,,,,,,,,,,,,,,,
7385,1645818287.151266,1645818287.200368,33.0,0.0,4696.410156,4596.922852000001,4222.05127,4312.307617,4404.615234000001,0.0,1.0,15.0,,,,0.0,4.0,0.0,4.0,1.0,4.0,41.666668,,,,,,,,,,,,,,,,,,,,,,,,,,,,,,,,,,,,,,,,,,,,,,,,,,,,,,,,,,,,,,,,,,,,,,,,,,,,,,,,,,,,
7386,1645818287.159083,1645818287.208183,34.0,0.0,4776.410156,4547.179688,4217.436035,4284.102539,4435.384765999999,0.0,1.0,15.0,,,,0.0,4.0,0.0,4.0,1.0,4.0,41.666668,,,,,,,,17.0,0.0,0.181088,0.619873,-0.13915999999999998,-0.750732,0.891127,-0.44190100000000004,-0.188479,-0.016541999999999998,-0.026033999999999998,-0.033884,,,,,,,,,,,,,,,,,,,,,,,,,,,,,,,,,,,,,,,,,,,,,,,,,,,,,,,,,,,,,,,,,
7387,1645818287.166899,1645818287.216098,35.0,0.0,4854.358886999999,4574.358886999999,4239.487305,4289.743652,4489.230957,0.0,1.0,15.0,,,,0.0,4.0,0.0,4.0,1.0,4.0,41.666668,,,,,,,,,,,,,,,,,,,,,,,,,,,,,,,,,,,,,,,,,,,,,,,,,,,,,,11.0,0.0,1.0,0.0,512.0,0.407885,,,,,,,,,,,,,,,,,,,,,,,,,
7388,1645818287.174715,1645818287.223912,36.0,0.0,4892.307617,4565.641113000001,4247.179688,4251.794922,4504.102539,0.0,1.0,15.0,,,,0.0,4.0,0.0,4.0,1.0,4.0,41.666668,,,,,,,,18.0,0.0,0.180072,0.619873,-0.13915999999999998,-0.750977,0.894545,-0.441413,-0.197757,-0.017085,-0.026067,-0.036257,,,,,,,,,,,,,,,,,,,,,,,,,,,,,,,,,,,,,,,,,,,,,,,,,,,,,,,,,,,,,,,,,
7389,1645818287.182531,1645818287.231727,37.0,0.0,4885.641113000001,4572.820313,4234.871582,4211.282227000001,4488.717772999999,0.0,1.0,15.0,,,,0.0,4.0,0.0,4.0,1.0,4.0,41.666668,,,,,,,,,,,,,,,,,,,,,,,,,,,,,,,,,,,,,,,,,,,,,,,,,,,,,,,,,,,,,,,,,,,,,,,,,,,,,,,,,,,,
7390,1645818287.1903481,1645818287.239542,38.0,0.0,4896.410156,4647.179688,4233.333496,4285.128418,4513.846191,0.0,1.0,15.0,,,,0.0,4.0,0.0,4.0,1.0,4.0,41.666668,,,,,,,,19.0,0.0,0.180072,0.619873,-0.13915999999999998,-0.750977,0.8798959999999999,-0.43799499999999997,-0.192874,-0.015913,-0.026048,-0.03854,,,,,,,,,,,,,,,,,,,,,,,,,,,,,,,,,,,,,,,,,,,,,,,,,,,,,,,,,,,,,,,,,
7391,1645818287.198164,1645818287.247356,39.0,0.0,4917.94873,4633.846191,4237.94873,4327.179688,4535.384765999999,0.0,1.0,15.0,,,,0.0,4.0,0.0,4.0,1.0,4.0,41.666668,,,,,,,,,,,,,,,,,,,,,,,,,,,,,,,,,,,,,,,,,,,,,,,,,,,,,,11.0,0.0,1.0,0.0,512.0,0.407885,,,,,,,,,,,,,,,,,,,,,,,,,
7392,1645818287.20598,1645818287.255171,40.0,0.0,4925.128418,4569.743652,4254.871582,4270.256348,4530.256348,0.0,1.0,15.0,,,,0.0,4.0,0.0,4.0,1.0,4.0,41.666668,,,,,,,,20.0,0.0,0.180072,0.619873,-0.13915999999999998,-0.750977,0.8847790000000001,-0.45069,-0.19336199999999998,-0.014957,-0.025983,-0.040496,,,,,,,,,,,,,,,,,,,,,,,,,,,,,,,,,,,,,,,,,,,,,,,,,,,,,,,,,,,,,,,,,
7393,1645818287.2137961,1645818287.262986,41.0,0.0,4933.846191,4590.769043,4282.563965,4275.384765999999,4549.230957,0.0,1.0,15.0,,,,0.0,4.0,0.0,4.0,1.0,4.0,41.666668,,,,,,,,,,,,,,,,,,,,,,,,,,,,,,,,,,,,,,,,,,,,,,,,,,,,,,,,,,,,,,,,,,,,,,,,,,,,,,,,,,,,
7394,1645818287.2216132,1645818287.2708,42.0,0.0,4928.717772999999,4616.922852000001,4282.05127,4298.461426,4576.410156,0.0,1.0,15.0,,,,0.0,4.0,0.0,4.0,1.0,4.0,41.666668,,,,,,,,21.0,0.0,0.180911,0.619629,-0.13915999999999998,-0.750977,0.887709,-0.43946,-0.197269,-0.015609999999999999,-0.026021,-0.042256999999999996,,,,,,,,,,,,,,,,,,,,,,,,,,,,,,,,,,,,,,,,,,,,,,,,,,,,,,,,,,,,,,,,,
7395,1645818287.229429,1645818287.278615,43.0,0.0,4893.333496,4573.846191,4258.974121,4257.436035,4557.94873,0.0,1.0,15.0,,,,0.0,4.0,0.0,4.0,1.0,4.0,41.666668,,,,,,,,,,,,,,,,,,,,,,,,,,,,,,,,,,,,,,,,,,,,,,,,,,,,,,11.0,0.0,1.0,0.0,512.0,0.407885,,,,,,,,,,,,,,,,,,,,,,,,,
7396,1645818287.2372448,1645818287.2865288,44.0,0.0,4858.974121,4572.820313,4259.487305,4260.0,4530.256348,0.0,1.0,15.0,,,,0.0,4.0,0.0,4.0,1.0,4.0,41.666668,,,,,,,,22.0,0.0,0.180072,0.619873,-0.13915999999999998,-0.750977,0.8798959999999999,-0.43799499999999997,-0.192874,-0.016002000000000002,-0.026105,-0.037641,,,,,,,,,,,,,,,,,,,,,,,,,,,,,,,,,,,,,,,,,,,,,,,,,,,,,,,,,,,,,,,,,
7397,1645818287.245061,1645818287.294344,45.0,0.0,4833.846191,4629.743652,4258.974121,4300.0,4513.846191,0.0,1.0,15.0,,,,0.0,4.0,0.0,4.0,1.0,4.0,41.666668,,,,,,,,,,,,,,,,,,,,,,,,,,,,,,,,,,,,,,,,,,,,,,,,,,,,,,,,,,,,,,,,,,,,,,,,,,,,,,,,,,,,
7398,1645818287.252877,1645818287.302159,46.0,0.0,4813.333496,4628.205078,4238.461426,4273.846191,4497.436035,0.0,1.0,15.0,,,,0.0,4.0,0.0,4.0,1.0,4.0,41.666668,,,,,,,,23.0,0.0,0.180911,0.619629,-0.13915999999999998,-0.750977,0.887709,-0.43946,-0.197269,-0.01655,-0.026131,-0.039687,,,,,,,,,,,,,,,,,,,,,,,,,,,,,,,,,,,,,,,,,,,,,,,,,,,,,,,,,,,,,,,,,
7399,1645818287.260694,1645818287.309973,47.0,0.0,4795.897461,4549.230957,4229.230957,4245.641113000001,4489.743652,0.0,1.0,15.0,,,,0.0,4.0,0.0,4.0,1.0,4.0,41.666668,,,,,,,,,,,,,,,,,,,,1.0,0.0,0.0,,,,,,,,,,,,,,,,,,,,,,,,,,,,,,,,11.0,0.0,1.0,0.0,512.0,0.465096,28.703127000000002,4.220319,2.208247,3.5370839999999997,3.71565,11.127824,19.485523,16.994215,21.813763,13.214782000000001,2.49969,2.071888,1.9448169999999998,3.639903,4.190526,15.090782,30.25783,33.366688,43.151478000000004,46.265415000000004,8.020086000000001,2.451533,3.599685,4.914032,3.936606
7400,1645818287.2685099,1645818287.3177881,48.0,0.0,4763.589844,4530.769043,4237.94873,4297.94873,4487.179688,0.0,1.0,15.0,,,,0.0,4.0,0.0,4.0,1.0,4.0,41.666668,,,,,,,,24.0,0.0,0.181098,0.619629,-0.138916,-0.750977,0.8916149999999999,-0.43994799999999995,-0.191897,-0.016946,-0.026155,-0.041627,,,,,,,,,,,,,,,,,,,,,,,,,,,,,,,,,,,,,,,,,,,,,,,,,,,,,,,,,,,,,,,,,
7401,1645818287.276326,1645818287.325603,49.0,0.0,4704.615234000001,4589.743652,4235.897461,4333.333496,4463.589844,0.0,1.0,15.0,,,,0.0,4.0,0.0,4.0,1.0,4.0,41.666668,,,,,,,,,,,,,,,,,,,,,,,,,,,,,,,,,,,,,,,,,,,,,,,,,,,,,,,,,,,,,,,,,,,,,,,,,,,,,,,,,,,,
7402,1645818287.284142,1645818287.333417,50.0,0.0,4668.205078,4584.102539,4229.230957,4269.743652,4447.179688,0.0,1.0,15.0,,,,0.0,4.0,0.0,4.0,1.0,4.0,41.666668,,,,,,,,25.0,0.0,0.181098,0.619629,-0.138916,-0.750977,0.885756,-0.44238999999999995,-0.193851,-0.017302,-0.026175999999999998,-0.036976,,,,,,,,,,,,,,,,,,,,,,,,,,,,,,,,,,,,,,,,,,,,,,,,,,,,,,,,,,,,,,,,,
7403,1645818287.291959,1645818287.341232,51.0,0.0,4659.487305,4510.769043,4232.820313,4260.512695,4463.077147999999,0.0,1.0,15.0,,,,0.0,4.0,0.0,4.0,1.0,4.0,41.666668,,,,,,,,,,,,,,,,,,,,,,,,,,,,,,,,,,,,,,,,,,,,,,,,,,,,,,0.0,0.0,1.0,0.0,512.0,0.465096,,,,,,,,,,,,,,,,,,,,,,,,,
7404,1645818287.299775,1645818287.3490472,52.0,0.0,4626.153809,4462.563965,4241.538574,4334.358886999999,4473.333496,0.0,1.0,15.0,,,,0.0,4.0,0.0,4.0,1.0,4.0,41.666668,,,,,,,,26.0,0.0,0.181098,0.619629,-0.138916,-0.750977,0.881849,-0.43213500000000005,-0.186526,-0.016109000000000002,-0.026195,-0.039089,,,,,,,,,,,,,,,,,,,,,,,,,,,,,,,,,,,,,,,,,,,,,,,,,,,,,,,,,,,,,,,,,
7405,1645818287.307591,1645818287.356961,53.0,0.0,4565.128418,4486.666504,4241.025879,4298.461426,4452.307617,0.0,1.0,15.0,,,,0.0,4.0,0.0,4.0,1.0,4.0,41.666668,,,,,,,,,,,,,,,,,,,,,,,,,,,,,,,,,,,,,,,,,,,,,,,,,,,,,,,,,,,,,,,,,,,,,,,,,,,,,,,,,,,,
7406,1645818287.315407,1645818287.364776,54.0,0.0,4506.666504,4542.05127,4231.794922,4221.538574,4414.871582,0.0,1.0,15.0,,,,0.0,4.0,0.0,4.0,1.0,4.0,41.666668,,,,,,,,27.0,0.0,0.180083,0.619629,-0.138916,-0.751221,0.8999159999999999,-0.43946,-0.208988,-0.016549,-0.026212,-0.041088,,,,,,,,,,,,,,,,,,,,,,,,,,,,,,,,,,,,,,,,,,,,,,,,,,,,,,,,,,,,,,,,,
7407,1645818287.323223,1645818287.37259,55.0,0.0,4437.94873,4537.94873,4222.563965,4236.410156,4370.256348,0.0,1.0,15.0,,,,0.0,4.0,0.0,4.0,1.0,4.0,41.666668,,,,,,,,,,,,,,,,,,,,,,,,,,,,,,,,,,,,,,,,,,,,,,,,,,,,,,0.0,0.0,1.0,0.0,512.0,0.465096,,,,,,,,,,,,,,,,,,,,,,,,,
7408,1645818287.3310401,1645818287.3804052,56.0,0.0,4373.333496,4483.589844,4226.666504,4273.846191,4346.153809,0.0,1.0,15.0,,,,0.0,4.0,0.0,4.0,1.0,4.0,41.666668,,,,,,,,28.0,0.0,0.180911,0.619629,-0.13915999999999998,-0.750977,0.886732,-0.44971400000000006,-0.186526,-0.017041999999999998,-0.026227999999999998,-0.042937,,,,,,,,,,,,,,,,,,,,,,,,,,,,,,,,,,,,,,,,,,,,,,,,,,,,,,,,,,,,,,,,,
7409,1645818287.338856,1645818287.3882198,57.0,0.0,4327.692383,4465.641113000001,4233.333496,4298.461426,4336.922852000001,0.0,1.0,15.0,,,,0.0,4.0,0.0,4.0,1.0,4.0,41.666668,,,,,,,,,,,,,,,,,,,,,,,,,,,,,,,,,,,,,,,,,,,,,,,,,,,,,,,,,,,,,,,,,,,,,,,,,,,,,,,,,,,,
7410,1645818287.346672,1645818287.396034,58.0,0.0,4268.205078,4512.820313,4232.307617,4311.794922,4302.563965,0.0,1.0,15.0,,,,0.0,4.0,0.0,4.0,1.0,4.0,41.666668,,,,,,,,29.0,0.0,0.180911,0.619629,-0.13915999999999998,-0.750977,0.887709,-0.440925,-0.191897,-0.015778,-0.026144,-0.038155,,,,,,,,,,,,,,,,,,,,,,,,,,,,,,,,,,,,,,,,,,,,,,,,,,,,,,,,,,,,,,,,,
7411,1645818287.3544881,1645818287.4038491,59.0,0.0,4193.333496,4538.974121,4214.871582,4283.077147999999,4255.384765999999,0.0,1.0,15.0,,,,0.0,4.0,0.0,4.0,1.0,4.0,41.666668,,,,,,,,,,,,,,,,,,,,,,,,,,,,,,,,,,,,,,,,,,,,,,,,,,,,,,0.0,0.0,1.0,0.0,512.0,0.465096,,,,,,,,,,,,,,,,,,,,,,,,,
7412,1645818287.3623052,1645818287.411664,60.0,0.0,4123.589844,4478.461426,4186.666504,4285.641113000001,4224.102539,0.0,1.0,15.0,,,,0.0,4.0,0.0,4.0,1.0,4.0,41.666668,,,,,,,,30.0,0.0,0.180911,0.619629,-0.13915999999999998,-0.750977,0.8774549999999999,-0.43946,-0.198245,-0.016202,-0.026069,-0.040199,,,,,,,,,,,,,,,,,,,,,,,,,,,,,,,,,,,,,,,,,,,,,,,,,,,,,,,,,,,,,,,,,
7413,1645818287.370121,1645818287.4195778,61.0,0.0,4082.0512700000004,4441.025879,4185.128418,4317.94873,4214.871582,0.0,1.0,15.0,,,,0.0,4.0,0.0,4.0,1.0,4.0,41.666668,,,,,,,,,,,,,,,,,,,,,,,,,,,,,,,,,,,,,,,,,,,,,,,,,,,,,,,,,,,,,,,,,,,,,,,,,,,,,,,,,,,,
7414,1645818287.3779368,1645818287.427393,62.0,0.0,4061.025635,4522.563965,4200.0,4322.05127,4204.615234000001,0.0,1.0,15.0,,,,0.0,4.0,0.0,4.0,1.0,4.0,41.666668,,,,,,,,31.0,0.0,0.180911,0.619629,-0.13915999999999998,-0.750977,0.893568,-0.437018,-0.18945599999999999,-0.016730000000000002,-0.026099,-0.042136,,,,,,,,,,,,,,,,,,,,,,,,,,,,,,,,,,,,,,,,,,,,,,,,,,,,,,,,,,,,,,,,,
7415,1645818287.3857539,1645818287.435208,63.0,0.0,4054.8718259999996,4620.0,4198.974121,4300.0,4203.077147999999,0.0,1.0,15.0,,,,0.0,4.0,0.0,4.0,1.0,4.0,41.666668,1.0,25.0,3.0,0.0,4.0,0.0,3.0,,,,,,,,,,,,,1.0,0.0,0.0,,,,,,,,,,,,,,,,,,,,,,,,,,,,,,,,0.0,0.0,1.0,0.0,512.0,0.41632299999999994,69.518692,8.639238,2.98825,3.697457,3.63674,11.353716,18.810995000000002,17.03793,21.755472,13.07922,2.213301,2.095923,2.078557,3.4063239999999997,4.10588,13.78902,22.060814,22.283312,36.498306,29.956153999999998,16.399563,3.8948720000000003,3.868221,5.149979,3.932181
7416,1645818287.39357,1645818287.443023,64.0,0.0,4039.487061,4589.230957,4187.179688,4254.358886999999,4196.922852000001,450.0,1.0,15.0,,,,0.0,4.0,0.0,4.0,1.0,4.0,41.666668,,,,,,,,32.0,0.0,0.180911,0.619629,-0.13915999999999998,-0.750977,0.8896620000000001,-0.433112,-0.211917,-0.017108,-0.026027999999999996,-0.043831,,,,,,,,,,,,,,,,,,,,,,,,,,,,,,,,,,,,,,,,,,,,,,,,,,,,,,,,,,,,,,,,,
7417,1645818287.401386,1645818287.450838,65.0,0.0,4023.076904,4490.256348,4191.282227000001,4246.666504,4178.461426,450.0,1.0,15.0,,,,0.0,4.0,0.0,4.0,1.0,4.0,41.666668,,,,,,,,,,,,,,,,,,,,,,,,,,,,,,,,,,,,,,,,,,,,,,,,,,,,,,,,,,,,,,,,,,,,,,,,,,,,,,,,,,,,
7418,1645818287.4092019,1645818287.458653,66.0,0.0,4031.281982,4468.717772999999,4207.179688,4290.256348,4180.512695,16248.0,1.0,15.0,,,,0.0,4.0,0.0,4.0,1.0,4.0,41.666668,,,,,,,,33.0,0.0,0.180911,0.619629,-0.13915999999999998,-0.750977,0.882826,-0.44238999999999995,-0.194339,-0.017447999999999998,-0.026062000000000002,-0.039057,,,,,,,,,,,,,,,,,,,,,,,,,,,,,,,,,,,,,,,,,,,,,,,,,,,,,,,,,,,,,,,,,
7419,1645818287.417018,1645818287.4664679,67.0,0.0,4029.2307130000004,4518.974121,4219.487305,4304.102539,4194.358886999999,450.0,1.0,15.0,,,,0.0,4.0,0.0,4.0,1.0,4.0,41.666668,,,,,,,,,,,,,,,,,,,,,,,,,,,,,,,,,,,,,,,,,,,,,,,,,,,,,,0.0,0.0,1.0,0.0,512.0,0.41632299999999994,,,,,,,,,,,,,,,,,,,,,,,,,
7420,1645818287.424835,1645818287.474283,68.0,0.0,3992.820557,4545.641113000001,4216.922852000001,4266.666504,4176.922852000001,26.0,1.0,15.0,,,,0.0,4.0,0.0,4.0,1.0,4.0,41.666668,,,,,,,,34.0,0.0,0.180911,0.619629,-0.13915999999999998,-0.750977,0.8808729999999999,-0.437018,-0.19531500000000002,-0.016143,-0.026141,-0.040864,,,,,,,,,,,,,,,,,,,,,,,,,,,,,,,,,,,,,,,,,,,,,,,,,,,,,,,,,,,,,,,,,
7421,1645818287.432651,1645818287.4820971,69.0,0.0,3965.641113,4482.05127,4220.0,4278.974121,4142.05127,450.0,1.0,15.0,,,,0.0,4.0,0.0,4.0,1.0,4.0,41.666668,,,,,,,,,,,,,,,,,,,,,,,,,,,,,,,,,,,,,,,,,,,,,,,,,,,,,,,,,,,,,,,,,,,,,,,,,,,,,,,,,,,,
7422,1645818287.440467,1645818287.489912,70.0,0.0,3978.461426,4425.641113000001,4227.179688,4343.589844,4138.974121,16088.0,1.0,15.0,,,,0.0,4.0,0.0,4.0,1.0,4.0,41.666668,,,,,,,,35.0,0.0,0.181098,0.619629,-0.138916,-0.750977,0.891127,-0.43994799999999995,-0.18701500000000001,-0.015066,-0.026066000000000002,-0.042539999999999994,,,,,,,,,,,,,,,,,,,,,,,,,,,,,,,,,,,,,,,,,,,,,,,,,,,,,,,,,,,,,,,,,
7423,1645818287.448283,1645818287.497827,71.0,0.0,3986.6667479999996,4498.974121,4209.743652,4358.461426,4154.358886999999,450.0,1.0,15.0,,,,0.0,4.0,0.0,4.0,0.0,4.0,33.333332,,,,,,,,,,,,,,,,,,,,,,,,,,,,,,,,,,,,,,,,,,,,,,,,,,,,,,0.0,0.0,1.0,0.0,512.0,0.41632299999999994,,,,,,,,,,,,,,,,,,,,,,,,,
7424,1645818287.4561,1645818287.505642,72.0,0.0,3975.384521,4540.512695,4198.461426,4302.563965,4150.769043,450.0,1.0,15.0,,,,0.0,4.0,0.0,4.0,0.0,4.0,33.333332,,,,,,,,36.0,0.0,0.180911,0.619629,-0.13915999999999998,-0.750977,0.882338,-0.446296,-0.188968,-0.015561000000000002,-0.026243,-0.044145,,,,,,,,,,,,,,,,,,,,,,,,,,,,,,,,,,,,,,,,,,,,,,,,,,,,,,,,,,,,,,,,,
7425,1645818287.463916,1645818287.513456,73.0,0.0,3973.8461909999996,4432.307617,4207.692383,4268.717772999999,4132.820313,5.0,1.0,15.0,,,,0.0,4.0,0.0,4.0,0.0,4.0,33.333332,,,,,,,,,,,,,,,,,,,,,,,,,,,,,,,,,,,,,,,,,,,,,,,,,,,,,,,,,,,,,,,,,,,,,,,,,,,,,,,,,,,,
7426,1645818287.4717321,1645818287.521271,74.0,0.0,3975.384521,4388.205078,4192.820313,4276.410156,4117.436035,450.0,1.0,15.0,,,,0.0,4.0,0.0,4.0,0.0,4.0,33.333332,,,,,,,,37.0,0.0,0.180911,0.619629,-0.13915999999999998,-0.750977,0.8896620000000001,-0.42676400000000003,-0.19971,-0.016104,-0.026352999999999998,-0.03934,,,,,,,,,,,,,,,,,,,,,,,,,,,,,,,,,,,,,,,,,,,,,,,,,,,,,,,,,,,,,,,,,
7427,1645818287.479548,1645818287.529085,75.0,0.0,3963.5898439999996,4472.307617,4178.461426,4249.743652,4116.410156,16166.0,1.0,15.0,,,,0.0,4.0,0.0,4.0,0.0,4.0,33.333332,,,,,,,,,,,,,,,,,,,,,,,,,,,,,,,,,,,,,,,,,,,,,,,,,,,,,,0.0,0.0,1.0,0.0,512.0,0.41632299999999994,,,,,,,,,,,,,,,,,,,,,,,,,
7428,1645818287.487364,1645818287.5369,76.0,0.0,3958.974365,4485.128418,4198.461426,4249.743652,4129.743652,450.0,1.0,15.0,,,,0.0,4.0,0.0,4.0,0.0,4.0,33.333332,,,,,,,,38.0,0.0,0.179894,0.619629,-0.13915999999999998,-0.751221,0.889174,-0.44238999999999995,-0.19971,-0.016691,-0.026402999999999996,-0.034869,,,,,,,,,,,,,,,,,,,,,,,,,,,,,,,,,,,,,,,,,,,,,,,,,,,,,,,,,,,,,,,,,
7429,1645818287.495181,1645818287.544715,77.0,0.0,3957.9487299999996,4423.589844,4198.974121,4329.743652,4131.794922,450.0,1.0,15.0,,,,0.0,4.0,0.0,4.0,0.0,4.0,33.333332,,,,,,,,,,,,,,,,,,,,,,,,,,,,,,,,,,,,,,,,,,,,,,,,,,,,,,,,,,,,,,,,,,,,,,,,,,,,,,,,,,,,
7430,1645818287.5029972,1645818287.5525289,78.0,0.0,3948.205078,4428.205078,4177.436035,4366.153809,4122.563965,450.0,1.0,15.0,,,,0.0,4.0,0.0,4.0,0.0,4.0,33.333332,,,,,,,,39.0,0.0,0.180911,0.619629,-0.13915999999999998,-0.750977,0.8916149999999999,-0.431647,-0.194827,-0.016975,-0.026302,-0.037193000000000004,,,,,,,,,,,,,,,,,,,,,,,,,,,,,,,,,,,,,,,,,,,,,,,,,,,,,,,,,,,,,,,,,
7431,1645818287.510813,1645818287.560344,79.0,0.0,3954.358887,4467.179688,4195.384765999999,4326.153809,4129.743652,16166.0,1.0,15.0,,,,0.0,4.0,0.0,4.0,0.0,4.0,33.333332,,,,,,,,,,,,,,,,,,,,1.0,0.0,0.0,,,,,,,,,,,,,,,,,,,,,,,,,,,,,,,,0.0,0.0,1.0,0.0,512.0,0.45992200000000005,128.887329,14.948058999999999,4.067342,3.954653,3.448458,11.041281,17.842243,16.276532999999997,20.617407,12.794677,2.233838,2.0317529999999997,2.17132,3.4139839999999997,3.808389,13.904851999999998,17.316694000000002,15.932445000000001,31.630007,19.540306,29.303904,5.869549,3.909787,5.227782,3.797836
7432,1645818287.5186288,1645818287.568159,80.0,0.0,3984.615479,4438.461426,4236.410156,4295.897461,4154.871582,450.0,1.0,15.0,,,,0.0,4.0,0.0,4.0,0.0,4.0,33.333332,,,,,,,,40.0,0.0,0.18026099999999998,0.619873,-0.138916,-0.750977,0.886244,-0.433112,-0.197757,-0.017377,-0.026406,-0.039333,,,,,,,,,,,,,,,,,,,,,,,,,,,,,,,,,,,,,,,,,,,,,,,,,,,,,,,,,,,,,,,,,
7433,1645818287.526446,1645818287.576073,81.0,0.0,3978.461426,4366.666504,4228.205078,4308.717772999999,4132.307617,450.0,1.0,15.0,,,,0.0,4.0,0.0,4.0,0.0,4.0,33.333332,,,,,,,,,,,,,,,,,,,,,,,,,,,,,,,,,,,,,,,,,,,,,,,,,,,,,,,,,,,,,,,,,,,,,,,,,,,,,,,,,,,,
7434,1645818287.534262,1645818287.583888,82.0,0.0,3952.3076170000004,4367.692383,4198.461426,4326.666504,4095.897461,450.0,1.0,15.0,,,,0.0,4.0,0.0,4.0,0.0,4.0,33.333332,,,,,,,,41.0,0.0,0.181088,0.619873,-0.13915999999999998,-0.750732,0.893568,-0.44385399999999997,-0.194339,-0.017787999999999998,-0.026402,-0.035107,,,,,,,,,,,,,,,,,,,,,,,,,,,,,,,,,,,,,,,,,,,,,,,,,,,,,,,,,,,,,,,,,
7435,1645818287.542078,1645818287.591703,83.0,0.0,3952.820557,4447.179688,4187.692383,4331.282227000001,4103.077147999999,16166.0,1.0,15.0,,,,0.0,4.0,0.0,4.0,0.0,4.0,33.333332,,,,,,,,,,,,,,,,,,,,,,,,,,,,,,,,,,,,,,,,,,,,,,,,,,,,,,0.0,0.0,1.0,0.0,512.0,0.45992200000000005,,,,,,,,,,,,,,,,,,,,,,,,,
7436,1645818287.5498939,1645818287.599517,84.0,0.0,3958.461426,4526.153809,4180.0,4363.589844,4109.230957,450.0,1.0,15.0,,,,0.0,4.0,0.0,4.0,0.0,4.0,33.333332,,,,,,,,42.0,0.0,0.181275,0.619873,-0.138916,-0.750732,0.8774549999999999,-0.423346,-0.187503,-0.016595,-0.026399000000000002,-0.037357999999999995,,,,,,,,,,,,,,,,,,,,,,,,,,,,,,,,,,,,,,,,,,,,,,,,,,,,,,,,,,,,,,,,,
7437,1645818287.557711,1645818287.607332,85.0,0.0,3958.974365,4568.205078,4177.436035,4415.897461,4105.128418,450.0,1.0,15.0,,,,0.0,4.0,0.0,4.0,0.0,4.0,33.333332,,,,,,,,,,,,,,,,,,,,,,,,,,,,,,,,,,,,,,,,,,,,,,,,,,,,,,,,,,,,,,,,,,,,,,,,,,,,,,,,,,,,
7438,1645818287.565527,1645818287.6151462,86.0,0.0,3971.281982,4518.974121,4201.025879,4427.179688,4125.128418,450.0,1.0,15.0,,,,0.0,4.0,0.0,4.0,0.0,4.0,33.333332,,,,,,,,43.0,0.0,0.181088,0.619873,-0.13915999999999998,-0.750732,0.882826,-0.435065,-0.182132,-0.017034999999999998,-0.026347000000000002,-0.039335,,,,,,,,,,,,,,,,,,,,,,,,,,,,,,,,,,,,,,,,,,,,,,,,,,,,,,,,,,,,,,,,,
7439,1645818287.573343,1645818287.622961,87.0,0.0,3988.205078,4430.256348,4222.05127,4359.487305,4146.666504,16166.0,1.0,15.0,,,,0.0,4.0,0.0,4.0,0.0,4.0,33.333332,,,,,,,,,,,,,,,,,,,,,,,,,,,,,,,,,,,,,,,,,,,,,,,,,,,,,,0.0,0.0,1.0,0.0,512.0,0.45992200000000005,,,,,,,,,,,,,,,,,,,,,,,,,
7440,1645818287.5811589,1645818287.630776,88.0,0.0,3982.5642090000006,4450.256348,4211.282227000001,4312.307617,4127.692383,450.0,1.0,15.0,,,,0.0,4.0,0.0,4.0,0.0,4.0,33.333332,,,,,,,,44.0,0.0,0.181088,0.619873,-0.13915999999999998,-0.750732,0.8921030000000001,-0.45459700000000003,-0.19336199999999998,-0.017480000000000002,-0.026349,-0.035108,,,,,,,,,,,,,,,,,,,,,,,,,,,,,,,,,,,,,,,,,,,,,,,,,,,,,,,,,,,,,,,,,
7441,1645818287.588976,1645818287.638691,89.0,0.0,3972.3076170000004,4504.102539,4207.179688,4296.922852000001,4112.820313,450.0,1.0,15.0,,,,0.0,4.0,0.0,4.0,0.0,4.0,33.333332,,,,,,,,,,,,,,,,,,,,,,,,,,,,,,,,,,,,,,,,,,,,,,,,,,,,,,,,,,,,,,,,,,,,,,,,,,,,,,,,,,,,
7442,1645818287.596792,1645818287.646505,90.0,0.0,3988.205078,4467.179688,4232.307617,4223.077147999999,4136.410156,450.0,1.0,15.0,,,,0.0,4.0,0.0,4.0,0.0,4.0,33.333332,,,,,,,,45.0,0.0,0.181088,0.619873,-0.13915999999999998,-0.750732,0.889174,-0.45069,-0.206546,-0.016318,-0.026351,-0.037457,,,,,,,,,,,,,,,,,,,,,,,,,,,,,,,,,,,,,,,,,,,,,,,,,,,,,,,,,,,,,,,,,
7443,1645818287.604608,1645818287.65432,91.0,0.0,4024.102539,4457.94873,4249.230957,4176.922852000001,4169.230957,16166.0,1.0,15.0,,,,0.0,4.0,0.0,4.0,0.0,4.0,33.333332,,,,,,,,,,,,,,,,,,,,,,,,,,,,,,,,,,,,,,,,,,,,,,,,,,,,,,0.0,0.0,1.0,0.0,512.0,0.45992200000000005,,,,,,,,,,,,,,,,,,,,,,,,,
7444,1645818287.6124241,1645818287.662135,92.0,0.0,4029.2307130000004,4556.922852000001,4225.641113000001,4241.538574,4168.205078,450.0,1.0,15.0,,,,0.0,4.0,0.0,4.0,0.0,4.0,33.333332,,,,,,,,46.0,0.0,0.1809,0.619873,-0.139404,-0.750732,0.891127,-0.437018,-0.19336199999999998,-0.016786000000000002,-0.026255,-0.033272,,,,,,,,,,,,,,,,,,,,,,,,,,,,,,,,,,,,,,,,,,,,,,,,,,,,,,,,,,,,,,,,,
7445,1645818287.620241,1645818287.66995,93.0,0.0,4005.1281740000004,4576.410156,4198.461426,4288.717772999999,4150.256348,450.0,1.0,15.0,,,,0.0,4.0,0.0,4.0,0.0,4.0,33.333332,,,,,,,,,,,,,,,,,,,,,,,,,,,,,,,,,,,,,,,,,,,,,,,,,,,,,,,,,,,,,,,,,,,,,,,,,,,,,,,,,,,,
7446,1645818287.628057,1645818287.6777651,94.0,0.0,3993.8461909999996,4484.102539,4200.512695,4256.410156,4142.05127,450.0,1.0,15.0,,,,0.0,4.0,0.0,4.0,0.0,4.0,33.333332,,,,,,,,47.0,0.0,0.1809,0.619873,-0.139404,-0.750732,0.8886850000000001,-0.440436,-0.18799100000000002,-0.015645,-0.026266,-0.035755,,,,,,,,,,,,,,,,,,,,,,,,,,,,,,,,,,,,,,,,,,,,,,,,,,,,,,,,,,,,,,,,,
7447,1645818287.635873,1645818287.68558,95.0,0.0,3990.256348,4449.230957,4197.94873,4242.05127,4130.769043,16166.0,1.0,15.0,,,,0.0,4.0,0.0,4.0,0.0,4.0,33.333332,,,,,,,,,,,,,,,,,,,,1.0,0.0,0.0,,,,,,,,,,,,,,,,,,,,,,,,,,,,,,,,0.0,0.0,1.0,0.0,512.0,0.43850500000000003,199.907501,22.360538000000002,5.286429,4.32532,3.1634990000000003,10.620594,16.484533,14.593957999999999,18.622303,12.381028,2.537163,1.999148,2.181416,3.66926,3.319597,15.763878,16.237492,13.795059,28.382036,15.064342000000002,45.513145,8.236725,3.7648349999999997,5.1555230000000005,3.5390629999999996
7448,1645818287.6436892,1645818287.693395,96.0,0.0,4006.1538090000004,4497.94873,4204.615234000001,4285.641113000001,4133.333496,450.0,1.0,15.0,,,,0.0,4.0,0.0,4.0,0.0,4.0,33.333332,,,,,,,,48.0,0.0,0.18173399999999998,0.619629,-0.139404,-0.750732,0.885267,-0.443366,-0.19677999999999998,-0.016082,-0.026276,-0.037989999999999996,,,,,,,,,,,,,,,,,,,,,,,,,,,,,,,,,,,,,,,,,,,,,,,,,,,,,,,,,,,,,,,,,
7449,1645818287.651506,1645818287.70121,97.0,0.0,4045.1281740000004,4551.282227000001,4229.230957,4314.871582,4170.256348,450.0,1.0,15.0,,,,0.0,4.0,0.0,4.0,0.0,4.0,33.333332,,,,,,,,,,,,,,,,,,,,,,,,,,,,,,,,,,,,,,,,,,,,,,,,,,,,,,,,,,,,,,,,,,,,,,,,,,,,,,,,,,,,
7450,1645818287.659322,1645818287.709024,98.0,0.0,4047.6923829999996,4548.205078,4218.974121,4291.282227000001,4180.0,450.0,1.0,15.0,,,,0.0,4.0,0.0,4.0,0.0,4.0,33.333332,,,,,,,,49.0,0.0,0.18173399999999998,0.619629,-0.139404,-0.750732,0.885756,-0.440925,-0.192874,-0.016622,-0.026285000000000003,-0.033801,,,,,,,,,,,,,,,,,,,,,,,,,,,,,,,,,,,,,,,,,,,,,,,,,,,,,,,,,,,,,,,,,
7451,1645818287.667138,1645818287.716839,99.0,0.0,4022.5642090000006,4495.384765999999,4206.153809,4265.128418,4156.922852000001,16166.0,1.0,15.0,,,,0.0,4.0,0.0,4.0,0.0,4.0,33.333332,,,,,,,,,,,,,,,,,,,,,,,,,,,,,,,,,,,,,,,,,,,,,,,,,,,,,,0.0,0.0,1.0,0.0,512.0,0.43850500000000003,,,,,,,,,,,,,,,,,,,,,,,,,
7452,1645818287.674954,1645818287.7247539,100.0,0.0,4021.538574,4492.307617,4223.077147999999,4271.282227000001,4149.743652,450.0,1.0,15.0,,,,0.0,4.0,0.0,4.0,0.0,4.0,33.333332,,,,,,,,50.0,0.0,0.1809,0.619873,-0.139404,-0.750732,0.8886850000000001,-0.440436,-0.18799100000000002,-0.017109,-0.026294,-0.03003,,,,,,,,,,,,,,,,,,,,,,,,,,,,,,,,,,,,,,,,,,,,,,,,,,,,,,,,,,,,,,,,,
7453,1645818287.68277,1645818287.732569,101.0,0.0,4037.4357909999994,4517.94873,4229.230957,4264.615234000001,4152.307617,450.0,1.0,15.0,,,,0.0,4.0,0.0,4.0,0.0,4.0,33.333332,,,,,,,,,,,,,,,,,,,,,,,,,,,,,,,,,,,,,,,,,,,,,,,,,,,,,,,,,,,,,,,,,,,,,,,,,,,,,,,,,,,,
7454,1645818287.6905868,1645818287.740383,102.0,0.0,4041.538574,4525.128418,4212.820313,4251.794922,4147.179688,450.0,1.0,15.0,,,,0.0,4.0,0.0,4.0,0.0,4.0,33.333332,,,,,,,,51.0,0.0,0.18173399999999998,0.619629,-0.139404,-0.750732,0.885756,-0.440925,-0.192874,-0.017546,-0.026300999999999998,-0.026636,,,,,,,,,,,,,,,,,,,,,,,,,,,,,,,,,,,,,,,,,,,,,,,,,,,,,,,,,,,,,,,,,
7455,1645818287.698403,1645818287.748198,103.0,0.0,4063.5898439999996,4594.871582,4222.05127,4275.897461,4175.384765999999,16166.0,1.0,15.0,,,,0.0,4.0,0.0,4.0,0.0,4.0,33.333332,,,,,,,,,,,,,,,,,,,,,,,,,,,,,,,,,,,,,,,,,,,,,,,,,,,,,,0.0,0.0,1.0,0.0,512.0,0.43850500000000003,,,,,,,,,,,,,,,,,,,,,,,,,
7456,1645818287.706219,1645818287.756012,104.0,0.0,4086.1538090000004,4652.820313,4233.333496,4245.128418,4207.179688,450.0,1.0,15.0,,,,0.0,4.0,0.0,4.0,0.0,4.0,33.333332,,,,,,,,52.0,0.0,0.18071099999999998,0.619873,-0.139648,-0.750732,0.89015,-0.43799499999999997,-0.19531500000000002,-0.01794,-0.026307999999999998,-0.023582,,,,,,,,,,,,,,,,,,,,,,,,,,,,,,,,,,,,,,,,,,,,,,,,,,,,,,,,,,,,,,,,,
7457,1645818287.714035,1645818287.7638268,105.0,0.0,4071.281982,4557.94873,4226.153809,4228.717772999999,4177.94873,450.0,1.0,15.0,,,,0.0,4.0,0.0,4.0,0.0,4.0,33.333332,,,,,,,,,,,,,,,,,,,,,,,,,,,,,,,,,,,,,,,,,,,,,,,,,,,,,,,,,,,,,,,,,,,,,,,,,,,,,,,,,,,,
7458,1645818287.721852,1645818287.771642,106.0,0.0,4072.820557,4473.846191,4231.282227000001,4301.538574,4168.205078,450.0,1.0,15.0,,,,0.0,4.0,0.0,4.0,0.0,4.0,33.333332,,,,,,,,53.0,0.0,0.18154700000000001,0.619629,-0.139648,-0.750732,0.8994280000000001,-0.44776099999999996,-0.192386,-0.018246000000000002,-0.026411,-0.027035000000000003,,,,,,,,,,,,,,,,,,,,,,,,,,,,,,,,,,,,,,,,,,,,,,,,,,,,,,,,,,,,,,,,,
7459,1645818287.729668,1645818287.779556,107.0,0.0,4091.794922,4508.205078,4226.666504,4285.641113000001,4197.436035,16166.0,1.0,15.0,,,,0.0,4.0,0.0,4.0,0.0,4.0,33.333332,,,,,,,,,,,,,,,,,,,,,,,,,,,,,,,,,,,,,,,,,,,,,,,,,,,,,,0.0,0.0,1.0,0.0,512.0,0.43850500000000003,,,,,,,,,,,,,,,,,,,,,,,,,
7460,1645818287.737484,1645818287.7873712,108.0,0.0,4069.2307130000004,4518.461426,4189.743652,4187.692383,4171.282227000001,450.0,1.0,15.0,,,,0.0,4.0,0.0,4.0,0.0,4.0,33.333332,,,,,,,,54.0,0.0,0.18154700000000001,0.619629,-0.139648,-0.750732,0.89015,-0.44531899999999996,-0.186526,-0.018423,-0.026456,-0.030239,,,,,,,,,,,,,,,,,,,,,,,,,,,,,,,,,,,,,,,,,,,,,,,,,,,,,,,,,,,,,,,,,
7461,1645818287.7453,1645818287.795186,109.0,0.0,4041.025635,4507.692383,4173.333496,4241.025879,4132.307617,450.0,1.0,15.0,,,,0.0,4.0,0.0,4.0,0.0,4.0,33.333332,,,,,,,,,,,,,,,,,,,,,,,,,,,,,,,,,,,,,,,,,,,,,,,,,,,,,,,,,,,,,,,,,,,,,,,,,,,,,,,,,,,,
7462,1645818287.7531161,1645818287.803,110.0,0.0,4060.512939,4495.897461,4209.230957,4340.512695,4154.358886999999,450.0,1.0,15.0,,,,0.0,4.0,0.0,4.0,0.0,4.0,33.333332,,,,,,,,55.0,0.0,0.180534,0.619629,-0.139648,-0.750977,0.877943,-0.441413,-0.198734,-0.018632,-0.026447000000000002,-0.026825,,,,,,,,,,,,,,,,,,,,,,,,,,,,,,,,,,,,,,,,,,,,,,,,,,,,,,,,,,,,,,,,,
7463,1645818287.760933,1645818287.810815,111.0,0.0,4072.820557,4486.666504,4227.692383,4285.128418,4158.461426,16166.0,1.0,15.0,,,,0.0,4.0,0.0,4.0,0.0,4.0,33.333332,,,,,,,,,,,,,,,,,,,,1.0,0.0,0.0,,,,,,,,,,,,,,,,,,,,,,,,,,,,,,,,0.0,0.0,1.0,0.0,512.0,0.645367,272.191193,29.559221,6.381088,4.745151,2.80649,11.288414,14.81935,12.463716999999999,16.316778,12.150966,2.980425,2.162745,2.103843,4.017062999999999,2.717277,18.467897,17.214373000000002,13.748348000000002,25.804489,14.197007000000001,62.153934,10.711783,3.513468,4.923012,3.186476
7464,1645818287.768749,1645818287.81863,112.0,0.0,4066.1538090000004,4522.563965,4202.563965,4262.563965,4130.256348,450.0,1.0,15.0,,,,0.0,4.0,0.0,4.0,0.0,4.0,33.333332,,,,,,,,56.0,0.0,0.180534,0.619629,-0.139648,-0.750977,0.894057,-0.442878,-0.207523,-0.017306000000000002,-0.026389999999999997,-0.023752000000000002,,,,,,,,,,,,,,,,,,,,,,,,,,,,,,,,,,,,,,,,,,,,,,,,,,,,,,,,,,,,,,,,,
7465,1645818287.776565,1645818287.826444,113.0,0.0,4069.743652,4568.205078,4187.692383,4293.333496,4144.102539,450.0,1.0,15.0,,,,0.0,4.0,0.0,4.0,0.0,4.0,33.333332,,,,,,,,,,,,,,,,,,,,,,,,,,,,,,,,,,,,,,,,,,,,,,,,,,,,,,,,,,,,,,,,,,,,,,,,,,,,,,,,,,,,
7466,1645818287.784382,1645818287.834259,114.0,0.0,4084.615479,4561.025879,4209.743652,4257.94873,4183.589844,450.0,1.0,15.0,,,,0.0,4.0,0.0,4.0,0.0,4.0,33.333332,,,,,,,,57.0,0.0,0.181359,0.619629,-0.13989300000000002,-0.750732,0.894545,-0.43799499999999997,-0.203128,-0.016013999999999997,-0.026338999999999998,-0.027089999999999996,,,,,,,,,,,,,,,,,,,,,,,,,,,,,,,,,,,,,,,,,,,,,,,,,,,,,,,,,,,,,,,,,
7467,1645818287.792198,1645818287.842174,115.0,0.0,4109.743652,4503.077147999999,4236.922852000001,4251.282227000001,4194.358886999999,16166.0,1.0,15.0,,,,0.0,4.0,0.0,4.0,0.0,4.0,33.333332,,,,,,,,,,,,,,,,,,,,,,,,,,,,,,,,,,,,,,,,,,,,,,,,,,,,,,0.0,0.0,1.0,0.0,512.0,0.645367,,,,,,,,,,,,,,,,,,,,,,,,,
7468,1645818287.800014,1645818287.8499892,116.0,0.0,4114.871582,4516.922852000001,4230.256348,4271.794922,4178.461426,450.0,1.0,15.0,,,,0.0,4.0,0.0,4.0,0.0,4.0,33.333332,,,,,,,,58.0,0.0,0.181359,0.619629,-0.13989300000000002,-0.750732,0.882826,-0.44776099999999996,-0.206058,-0.016366,-0.026342,-0.030191000000000003,,,,,,,,,,,,,,,,,,,,,,,,,,,,,,,,,,,,,,,,,,,,,,,,,,,,,,,,,,,,,,,,,
7469,1645818287.80783,1645818287.857903,117.0,0.0,4093.3332520000004,4571.282227000001,4197.436035,4239.487305,4162.05127,450.0,1.0,15.0,,,,0.0,4.0,0.0,4.0,0.0,4.0,33.333332,,,,,,,,,,,,,,,,,,,,,,,,,,,,,,,,,,,,,,,,,,,,,,,,,,,,,,,,,,,,,,,,,,,,,,,,,,,,,,,,,,,,
7470,1645818287.8156471,1645818287.865718,118.0,0.0,4075.384521,4567.179688,4177.436035,4270.769043,4155.897461,450.0,1.0,15.0,,,,0.0,4.0,0.0,4.0,0.0,4.0,33.333332,,,,,,,,59.0,0.0,0.181359,0.619629,-0.13989300000000002,-0.750732,0.8833139999999999,-0.43897200000000003,-0.192386,-0.016975999999999998,-0.026295999999999996,-0.032983,,,,,,,,,,,,,,,,,,,,,,,,,,,,,,,,,,,,,,,,,,,,,,,,,,,,,,,,,,,,,,,,,
7471,1645818287.8234632,1645818287.873533,119.0,0.0,4075.384521,4604.102539,4183.589844,4346.153809,4153.333496,16166.0,1.0,15.0,,,,0.0,4.0,0.0,4.0,0.0,4.0,33.333332,,,,,,,,,,,,,,,,,,,,,,,,,,,,,,,,,,,,,,,,,,,,,,,,,,,,,,0.0,0.0,1.0,0.0,512.0,0.645367,,,,,,,,,,,,,,,,,,,,,,,,,
7472,1645818287.8312788,1645818287.8813481,120.0,0.0,4102.05127,4687.179688,4206.153809,4302.563965,4156.922852000001,450.0,1.0,15.0,,,,0.0,4.0,0.0,4.0,0.0,4.0,33.333332,,,,,,,,60.0,0.0,0.181359,0.619629,-0.13989300000000002,-0.750732,0.890639,-0.44531899999999996,-0.19971,-0.017378,-0.026254000000000003,-0.035446,,,,,,,,,,,,,,,,,,,,,,,,,,,,,,,,,,,,,,,,,,,,,,,,,,,,,,,,,,,,,,,,,
7473,1645818287.8390949,1645818287.889163,121.0,0.0,4136.410156,4627.692383,4224.102539,4256.922852000001,4180.0,450.0,1.0,15.0,,,,0.0,4.0,0.0,4.0,0.0,4.0,33.333332,,,,,,,,,,,,,,,,,,,,,,,,,,,,,,,,,,,,,,,,,,,,,,,,,,,,,,,,,,,,,,,,,,,,,,,,,,,,,,,,,,,,
7474,1645818287.846911,1645818287.896978,122.0,0.0,4123.077147999999,4516.410156,4220.512695,4306.666504,4193.333496,450.0,1.0,15.0,,,,0.0,4.0,0.0,4.0,0.0,4.0,33.333332,,,,,,,,61.0,0.0,0.182003,0.6193850000000001,-0.14013699999999998,-0.750732,0.8838030000000001,-0.443366,-0.194827,-0.016177,-0.026217,-0.037712,,,,,,,,,,,,,,,,,,,,,,,,,,,,,,,,,,,,,,,,,,,,,,,,,,,,,,,,,,,,,,,,,
7475,1645818287.854728,1645818287.904793,123.0,0.0,4098.461426,4524.102539,4205.128418,4304.615234000001,4183.077147999999,16166.0,1.0,15.0,,,,0.0,4.0,0.0,4.0,0.0,4.0,33.333332,,,,,,,,,,,,,,,,,,,,,,,,,,,,,,,,,,,,,,,,,,,,,,,,,,,,,,0.0,0.0,1.0,0.0,512.0,0.645367,,,,,,,,,,,,,,,,,,,,,,,,,
7476,1645818287.862544,1645818287.912607,124.0,0.0,4114.871582,4495.384765999999,4200.512695,4268.205078,4169.743652,450.0,1.0,15.0,,,,0.0,4.0,0.0,4.0,0.0,4.0,33.333332,,,,,,,,62.0,0.0,0.182003,0.6193850000000001,-0.14013699999999998,-0.750732,0.894057,-0.436042,-0.193851,-0.015144999999999999,-0.026133999999999998,-0.039702999999999995,,,,,,,,,,,,,,,,,,,,,,,,,,,,,,,,,,,,,,,,,,,,,,,,,,,,,,,,,,,,,,,,,
7477,1645818287.87036,1645818287.920422,125.0,0.0,4135.897461,4474.358886999999,4202.563965,4295.384765999999,4174.358886999999,450.0,1.0,15.0,,,,0.0,4.0,0.0,4.0,0.0,4.0,33.333332,,,,,,,,,,,,,,,,,,,,,,,,,,,,,,,,,,,,,,,,,,,,,,,,,,,,,,,,,,,,,,,,,,,,,,,,,,,,,,,,,,,,
7478,1645818287.878176,1645818287.928237,126.0,0.0,4112.307617,4552.307617,4188.205078,4320.0,4168.717772999999,450.0,1.0,15.0,,,,0.0,4.0,0.0,4.0,0.0,4.0,33.333332,,,,,,,,63.0,0.0,0.182003,0.6193850000000001,-0.14013699999999998,-0.750732,0.8872209999999999,-0.441413,-0.19531500000000002,-0.015584,-0.026157,-0.041592000000000004,,,,,,,,,,,,,,,,,,,,,,,,,,,,,,,,,,,,,,,,,,,,,,,,,,,,,,,,,,,,,,,,,
7479,1645818287.885993,1645818287.936152,127.0,0.0,4109.230957,4546.666504,4205.128418,4279.487305,4169.230957,233.0,1.0,15.0,,,,0.0,4.0,0.0,4.0,0.0,4.0,33.333332,1.0,8.333333,1.0,0.0,4.0,0.0,3.0,,,,,,,,,,,,,1.0,0.0,0.0,,,,,,,,,,,,,,,,,,,,,,,,,,,,,,,,0.0,0.0,1.0,0.0,512.0,1.0,325.13198900000003,34.944286,7.052200999999999,5.114601,2.424248,13.661559,12.907438,10.734374,14.425944,12.512782000000001,3.40464,2.642309,1.9753169999999998,4.255138,2.12467,20.868341,18.656326,14.349722,22.932798000000002,14.157382,74.420197,12.867388,3.23508,4.557211,2.802295
7480,1645818287.893809,1645818287.943966,0.0,0.0,4157.94873,4488.717772999999,4256.410156,4252.307617,4200.512695,450.0,1.0,15.0,,,,0.0,4.0,0.0,4.0,0.0,4.0,33.333332,,,,,,,,0.0,0.0,0.181815,0.6193850000000001,-0.140381,-0.750732,0.89015,-0.430671,-0.199222,-0.014563,-0.026276,-0.043195,,,,,,,,,,,,,,,,,,,,,,,,,,,,,,,,,,,,,,,,,,,,,,,,,,,,,,,,,,,,,,,,,
7481,1645818287.901625,1645818287.951781,1.0,0.0,4170.256348,4512.307617,4244.102539,4275.897461,4199.487305,450.0,1.0,15.0,,,,0.0,4.0,0.0,4.0,0.0,4.0,33.333332,,,,,,,,,,,,,,,,,,,,,,,,,,,,,,,,,,,,,,,,,,,,,,,,,,,,,,,,,,,,,,,,,,,,,,,,,,,,,,,,,,,,
7482,1645818287.909441,1645818287.9595962,2.0,0.0,4116.922852000001,4517.94873,4173.333496,4287.179688,4152.307617,16220.0,1.0,15.0,,,,0.0,4.0,0.0,4.0,0.0,4.0,33.333332,,,,,,,,1.0,0.0,0.181815,0.6193850000000001,-0.140381,-0.750732,0.8955209999999999,-0.440925,-0.210941,-0.015011000000000002,-0.026285000000000003,-0.038387,,,,,,,,,,,,,,,,,,,,,,,,,,,,,,,,,,,,,,,,,,,,,,,,,,,,,,,,,,,,,,,,,
7483,1645818287.917257,1645818287.9674098,3.0,0.0,4110.769043,4475.384765999999,4183.589844,4283.589844,4157.94873,450.0,1.0,15.0,,,,0.0,4.0,0.0,4.0,0.0,4.0,33.333332,,,,,,,,,,,,,,,,,,,,,,,,,,,,,,,,,,,,,,,,,,,,,,,,,,,,,,0.0,0.0,1.0,0.0,512.0,1.0,,,,,,,,,,,,,,,,,,,,,,,,,
7484,1645818287.925074,1645818287.975225,4.0,0.0,4149.230957,4514.871582,4238.461426,4275.897461,4196.410156,41.0,1.0,15.0,,,,0.0,4.0,0.0,4.0,0.0,4.0,33.333332,,,,,,,,2.0,0.0,0.181626,0.6193850000000001,-0.140625,-0.750732,0.8833139999999999,-0.44776099999999996,-0.19971,-0.01556,-0.026244999999999997,-0.040359,,,,,,,,,,,,,,,,,,,,,,,,,,,,,,,,,,,,,,,,,,,,,,,,,,,,,,,,,,,,,,,,,
7485,1645818287.93289,1645818287.98304,5.0,0.0,4157.94873,4579.487305,4233.333496,4250.769043,4205.128418,450.0,1.0,15.0,,,,0.0,4.0,0.0,4.0,0.0,4.0,33.333332,,,,,,,,,,,,,,,,,,,,,,,,,,,,,,,,,,,,,,,,,,,,,,,,,,,,,,,,,,,,,,,,,,,,,,,,,,,,,,,,,,,,
7486,1645818287.940706,1645818287.990854,6.0,0.0,4161.538574,4541.025879,4221.538574,4258.461426,4211.794922,16132.0,1.0,15.0,,,,0.0,4.0,0.0,4.0,0.0,4.0,33.333332,,,,,,,,3.0,0.0,0.181626,0.6193850000000001,-0.140625,-0.750732,0.8930799999999999,-0.440925,-0.188479,-0.016006,-0.026158999999999998,-0.035932,,,,,,,,,,,,,,,,,,,,,,,,,,,,,,,,,,,,,,,,,,,,,,,,,,,,,,,,,,,,,,,,,
7487,1645818287.948522,1645818287.998669,7.0,0.0,4160.512695,4465.641113000001,4223.589844,4292.820313,4204.615234000001,450.0,1.0,15.0,,,,0.0,4.0,0.0,4.0,0.0,4.0,33.333332,,,,,,,,,,,,,,,,,,,,,,,,,,,,,,,,,,,,,,,,,,,,,,,,,,,,,,0.0,0.0,1.0,0.0,512.0,1.0,,,,,,,,,,,,,,,,,,,,,,,,,
7488,1645818287.9563391,1645818288.006584,8.0,0.0,4140.0,4472.307617,4198.461426,4267.179688,4177.94873,450.0,1.0,15.0,,,,0.0,4.0,0.0,4.0,0.0,4.0,33.333332,,,,,,,,4.0,0.0,0.182456,0.6191409999999999,-0.140625,-0.750732,0.8833139999999999,-0.447272,-0.211429,-0.016603,-0.026180000000000002,-0.0319,,,,,,,,,,,,,,,,,,,,,,,,,,,,,,,,,,,,,,,,,,,,,,,,,,,,,,,,,,,,,,,,,
7489,1645818287.9641552,1645818288.014398,9.0,0.0,4161.538574,4544.102539,4205.641113000001,4236.410156,4192.307617,14.0,1.0,15.0,,,,0.0,4.0,0.0,4.0,0.0,4.0,33.333332,,,,,,,,,,,,,,,,,,,,,,,,,,,,,,,,,,,,,,,,,,,,,,,,,,,,,,,,,,,,,,,,,,,,,,,,,,,,,,,,,,,,
7490,1645818287.971971,1645818288.022213,10.0,0.0,4194.871582,4532.307617,4233.846191,4274.358886999999,4217.436035,450.0,1.0,15.0,,,,0.0,4.0,0.0,4.0,0.0,4.0,33.333332,,,,,,,,5.0,0.0,0.182456,0.6191409999999999,-0.140625,-0.750732,0.886732,-0.451179,-0.202152,-0.015578,-0.026199,-0.034569,,,,,,,,,,,,,,,,,,,,,,,,,,,,,,,,,,,,,,,,,,,,,,,,,,,,,,,,,,,,,,,,,
7491,1645818287.9797869,1645818288.030027,11.0,0.0,4166.153809,4471.282227000001,4216.410156,4319.487305,4196.922852000001,16193.0,1.0,15.0,,,,0.0,4.0,0.0,4.0,0.0,4.0,33.333332,,,,,,,,,,,,,,,,,,,,,,,,,,,,,,,,,,,,,,,,,,,,,,,,,,,,,,0.0,0.0,1.0,0.0,512.0,1.0,,,,,,,,,,,,,,,,,,,,,,,,,
7492,1645818287.987604,1645818288.037842,12.0,0.0,4154.871582,4493.333496,4210.769043,4315.384765999999,4194.358886999999,450.0,1.0,15.0,,,,0.0,4.0,0.0,4.0,0.0,4.0,33.333332,,,,,,,,6.0,0.0,0.182456,0.6191409999999999,-0.140625,-0.750732,0.8930799999999999,-0.436042,-0.19531500000000002,-0.016022,-0.026167000000000003,-0.036972000000000005,,,,,,,,,,,,,,,,,,,,,,,,,,,,,,,,,,,,,,,,,,,,,,,,,,,,,,,,,,,,,,,,,
7493,1645818287.99542,1645818288.045657,13.0,0.0,4178.461426,4565.641113000001,4221.538574,4305.641113000001,4197.94873,450.0,1.0,15.0,,,,0.0,4.0,0.0,4.0,0.0,4.0,33.333332,,,,,,,,,,,,,,,,,,,,,,,,,,,,,,,,,,,,,,,,,,,,,,,,,,,,,,,,,,,,,,,,,,,,,,,,,,,,,,,,,,,,
7494,1645818288.003236,1645818288.053471,14.0,0.0,4165.641113000001,4618.461426,4196.922852000001,4307.179688,4173.846191,450.0,1.0,15.0,,,,0.0,4.0,0.0,4.0,0.0,4.0,33.333332,,,,,,,,7.0,0.0,0.182456,0.6191409999999999,-0.140625,-0.750732,0.8813610000000001,-0.45655,-0.199222,-0.01647,-0.026187000000000002,-0.032884,,,,,,,,,,,,,,,,,,,,,,,,,,,,,,,,,,,,,,,,,,,,,,,,,,,,,,,,,,,,,,,,,
7495,1645818288.011052,1645818288.061286,15.0,0.0,4143.589844,4596.922852000001,4191.794922,4287.692383,4166.153809,16193.0,1.0,15.0,,,,0.0,4.0,0.0,4.0,0.0,4.0,33.333332,,,,,,,,,,,,,,,,,,,,1.0,0.0,0.0,,,,,,,,,,,,,,,,,,,,,,,,,,,,,,,,0.0,0.0,1.0,0.0,512.0,0.96634,351.88989300000003,37.222172,7.121714,5.341434,2.0762490000000002,17.904857999999997,10.974359,10.304601,13.569232000000001,13.634194,3.7031,3.438531,1.8665189999999998,4.248839,1.6668939999999999,22.243769,19.805439,15.189635,19.451586,13.643939000000001,80.235352,14.257299,2.996899,4.13486,2.458585
7496,1645818288.018869,1645818288.069101,16.0,0.0,4173.333496,4491.794922,4227.692383,4260.0,4192.307617,0.0,1.0,15.0,,,,0.0,4.0,0.0,4.0,0.0,4.0,33.333332,,,,,,,,8.0,0.0,0.182456,0.6191409999999999,-0.140625,-0.750732,0.8808729999999999,-0.437507,-0.198734,-0.016777,-0.0264,-0.035406,,,,,,,,,,,,,,,,,,,,,,,,,,,,,,,,,,,,,,,,,,,,,,,,,,,,,,,,,,,,,,,,,
7497,1645818288.026685,1645818288.077015,17.0,0.0,4190.256348,4450.256348,4221.538574,4287.692383,4202.563965,0.0,1.0,15.0,,,,0.0,4.0,0.0,4.0,0.0,4.0,33.333332,,,,,,,,,,,,,,,,,,,,,,,,,,,,,,,,,,,,,,,,,,,,,,,,,,,,,,,,,,,,,,,,,,,,,,,,,,,,,,,,,,,,
7498,1645818288.034501,1645818288.08483,18.0,0.0,4172.307617,4564.102539,4202.05127,4326.153809,4187.692383,0.0,1.0,15.0,,,,0.0,4.0,0.0,4.0,0.0,4.0,33.333332,,,,,,,,9.0,0.0,0.182456,0.6191409999999999,-0.140625,-0.750732,0.8881969999999999,-0.44434300000000004,-0.199222,-0.017247,-0.026348000000000003,-0.037725,,,,,,,,,,,,,,,,,,,,,,,,,,,,,,,,,,,,,,,,,,,,,,,,,,,,,,,,,,,,,,,,,
7499,1645818288.042317,1645818288.092645,19.0,0.0,4194.358886999999,4616.922852000001,4228.717772999999,4298.461426,4200.0,0.0,1.0,15.0,,,,0.0,4.0,0.0,4.0,0.0,4.0,33.333332,,,,,,,,,,,,,,,,,,,,,,,,,,,,,,,,,,,,,,,,,,,,,,,,,,,,,,0.0,0.0,1.0,0.0,512.0,0.96634,,,,,,,,,,,,,,,,,,,,,,,,,
7500,1645818288.050134,1645818288.10046,20.0,0.0,4209.743652,4528.205078,4228.717772999999,4256.410156,4210.256348,0.0,1.0,15.0,,,,0.0,4.0,0.0,4.0,0.0,4.0,33.333332,,,,,,,,10.0,0.0,0.182268,0.6191409999999999,-0.140869,-0.750732,0.885756,-0.449226,-0.194827,-0.015913,-0.026253,-0.039812,,,,,,,,,,,,,,,,,,,,,,,,,,,,,,,,,,,,,,,,,,,,,,,,,,,,,,,,,,,,,,,,,
7501,1645818288.05795,1645818288.108275,21.0,0.0,4164.615234000001,4528.205078,4172.820313,4241.025879,4178.974121,0.0,1.0,15.0,,,,0.0,4.0,0.0,4.0,0.0,4.0,33.333332,,,,,,,,,,,,,,,,,,,,,,,,,,,,,,,,,,,,,,,,,,,,,,,,,,,,,,,,,,,,,,,,,,,,,,,,,,,,,,,,,,,,
7502,1645818288.065766,1645818288.11609,22.0,0.0,4151.794922,4604.615234000001,4164.102539,4252.307617,4175.384765999999,0.0,1.0,15.0,,,,0.0,4.0,0.0,4.0,0.0,4.0,33.333332,,,,,,,,11.0,0.0,0.182268,0.6191409999999999,-0.140869,-0.750732,0.8881969999999999,-0.44238999999999995,-0.187503,-0.016324,-0.026118000000000002,-0.041593,,,,,,,,,,,,,,,,,,,,,,,,,,,,,,,,,,,,,,,,,,,,,,,,,,,,,,,,,,,,,,,,,
7503,1645818288.073582,1645818288.1239052,23.0,0.0,4207.692383,4562.05127,4218.461426,4287.692383,4217.436035,0.0,1.0,15.0,,,,0.0,4.0,0.0,4.0,0.0,4.0,33.333332,,,,,,,,,,,,,,,,,,,,,,,,,,,,,,,,,,,,,,,,,,,,,,,,,,,,,,0.0,0.0,1.0,0.0,512.0,0.96634,,,,,,,,,,,,,,,,,,,,,,,,,
7504,1645818288.081398,1645818288.1317198,24.0,0.0,4223.589844,4443.077147999999,4227.692383,4317.94873,4228.717772999999,0.0,1.0,15.0,,,,0.0,4.0,0.0,4.0,0.0,4.0,33.333332,,,,,,,,12.0,0.0,0.182268,0.6191409999999999,-0.140869,-0.750732,0.892592,-0.433112,-0.199222,-0.01684,-0.02624,-0.043244,,,,,,,,,,,,,,,,,,,,,,,,,,,,,,,,,,,,,,,,,,,,,,,,,,,,,,,,,,,,,,,,,
7505,1645818288.089215,1645818288.139535,25.0,0.0,4182.05127,4465.128418,4187.179688,4297.94873,4204.102539,0.0,1.0,15.0,,,,0.0,4.0,0.0,4.0,0.0,4.0,33.333332,,,,,,,,,,,,,,,,,,,,,,,,,,,,,,,,,,,,,,,,,,,,,,,,,,,,,,,,,,,,,,,,,,,,,,,,,,,,,,,,,,,,
7506,1645818288.097031,1645818288.147349,26.0,0.0,4181.025879,4578.461426,4194.871582,4264.102539,4200.512695,0.0,1.0,15.0,,,,0.0,4.0,0.0,4.0,0.0,4.0,33.333332,,,,,,,,13.0,0.0,0.182268,0.6191409999999999,-0.140869,-0.750732,0.885756,-0.449226,-0.194827,-0.017304,-0.026155,-0.038529,,,,,,,,,,,,,,,,,,,,,,,,,,,,,,,,,,,,,,,,,,,,,,,,,,,,,,,,,,,,,,,,,
7507,1645818288.104847,1645818288.1552641,27.0,0.0,4196.410156,4548.717772999999,4208.205078,4268.205078,4198.461426,0.0,1.0,15.0,,,,0.0,4.0,0.0,4.0,0.0,4.0,33.333332,,,,,,,,,,,,,,,,,,,,,,,,,,,,,,,,,,,,,,,,,,,,,,,,,,,,,,0.0,0.0,1.0,0.0,512.0,0.96634,,,,,,,,,,,,,,,,,,,,,,,,,
7508,1645818288.112663,1645818288.163079,28.0,0.0,4172.307617,4469.743652,4169.230957,4286.666504,4176.922852000001,0.0,1.0,15.0,,,,0.0,4.0,0.0,4.0,0.0,4.0,33.333332,,,,,,,,14.0,0.0,0.182268,0.6191409999999999,-0.140869,-0.750732,0.892592,-0.433112,-0.199222,-0.017721999999999998,-0.026274000000000002,-0.040487,,,,,,,,,,,,,,,,,,,,,,,,,,,,,,,,,,,,,,,,,,,,,,,,,,,,,,,,,,,,,,,,,
7509,1645818288.12048,1645818288.170893,29.0,1.0,4178.397461,4486.025879,4173.397461,4285.256348,4183.653809,0.0,1.0,15.0,,,,0.0,4.0,0.0,4.0,0.0,4.0,33.333332,,,,,,,,,,,,,,,,,,,,,,,,,,,,,,,,,,,,,,,,,,,,,,,,,,,,,,,,,,,,,,,,,,,,,,,,,,,,,,,,,,,,
7510,1645818288.1282961,1645818288.178708,30.0,1.0,4184.487305,4502.307617,4177.563965,4283.846191,4190.384765999999,0.0,1.0,15.0,,,,0.0,4.0,0.0,4.0,0.0,4.0,33.333332,,,,,,,,15.0,1.0,0.182312,0.619202,-0.140869,-0.750671,0.890272,-0.435676,-0.197391,-0.017438,-0.026313,-0.040964,,,,,,,,,,,,,,,,,,,,,,,,,,,,,,,,,,,,,,,,,,,,,,,,,,,,,,,,,,,,,,,,,
7511,1645818288.136112,1645818288.186523,31.0,1.0,4190.577147999999,4518.589844,4181.730957,4282.436035,4197.115234000001,0.0,1.0,15.0,,,,0.0,4.0,0.0,4.0,0.0,4.0,33.333332,,,,,,,,,,,,,,,,,,,,1.0,0.0,0.0,,,,,,,,,,,,,,,,,,,,,,,,,,,,,,,,0.0,0.0,1.0,0.0,512.0,1.0,341.003082,35.854057,6.62617,5.368886,1.8131830000000002,23.247515,9.481812,11.408619999999999,14.085848,15.309488,3.795752,4.3960919999999994,1.8639860000000001,4.012386,1.421347,22.589266000000002,20.866954999999997,16.338421,15.83804,12.739989,76.99472,14.573379999999998,2.850507,3.750403,2.2031099999999997
7512,1645818288.1439278,1645818288.194337,32.0,1.0,4196.666504,4534.871582,4185.897461,4281.025879,4203.846191,0.0,1.0,15.0,,,,0.0,4.0,0.0,4.0,0.0,4.0,33.333332,,,,,,,,16.0,1.0,0.182356,0.619263,-0.140869,-0.75061,0.8879530000000001,-0.43823900000000005,-0.19555999999999998,-0.017154,-0.026351999999999997,-0.041441000000000006,,,,,,,,,,,,,,,,,,,,,,,,,,,,,,,,,,,,,,,,,,,,,,,,,,,,,,,,,,,,,,,,,
7513,1645818288.1517448,1645818288.202152,33.0,1.0,4202.756348,4551.153809,4190.063965,4279.615234000001,4210.577147999999,0.0,1.0,15.0,,,,0.0,4.0,0.0,4.0,0.0,4.0,33.333332,,,,,,,,,,,,,,,,,,,,,,,,,,,,,,,,,,,,,,,,,,,,,,,,,,,,,,,,,,,,,,,,,,,,,,,,,,,,,,,,,,,,
7514,1645818288.159561,1645818288.209966,34.0,1.0,4208.846191,4567.436035,4194.230957,4278.205078,4217.307617,0.0,1.0,15.0,,,,0.0,4.0,0.0,4.0,0.0,4.0,33.333332,,,,,,,,17.0,1.0,0.1824,0.619324,-0.140869,-0.750549,0.885634,-0.440803,-0.19372899999999998,-0.016869,-0.026391,-0.041918000000000004,,,,,,,,,,,,,,,,,,,,,,,,,,,,,,,,,,,,,,,,,,,,,,,,,,,,,,,,,,,,,,,,,
7515,1645818288.167377,1645818288.217781,35.0,1.0,4214.936035,4583.717772999999,4198.397461,4276.794922,4224.038574,0.0,1.0,15.0,,,,0.0,4.0,0.0,4.0,0.0,4.0,33.333332,,,,,,,,,,,,,,,,,,,,,,,,,,,,,,,,,,,,,,,,,,,,,,,,,,,,,,0.0,0.0,1.0,0.0,512.0,1.0,,,,,,,,,,,,,,,,,,,,,,,,,
7516,1645818288.175193,1645818288.2255962,36.0,0.0,4221.025879,4600.0,4202.563965,4275.384765999999,4230.769043,0.0,1.0,15.0,,,,0.0,4.0,0.0,4.0,0.0,4.0,33.333332,,,,,,,,18.0,0.0,0.182444,0.6193850000000001,-0.140869,-0.750488,0.8833139999999999,-0.443366,-0.191897,-0.016585,-0.026430000000000002,-0.042395,,,,,,,,,,,,,,,,,,,,,,,,,,,,,,,,,,,,,,,,,,,,,,,,,,,,,,,,,,,,,,,,,
7517,1645818288.1830099,1645818288.23341,37.0,0.0,4209.743652,4560.0,4191.282227000001,4314.871582,4218.974121,0.0,1.0,15.0,,,,0.0,4.0,0.0,4.0,0.0,4.0,33.333332,,,,,,,,,,,,,,,,,,,,,,,,,,,,,,,,,,,,,,,,,,,,,,,,,,,,,,,,,,,,,,,,,,,,,,,,,,,,,,,,,,,,
7518,1645818288.190826,1645818288.241225,38.0,0.0,4186.666504,4460.512695,4171.794922,4358.461426,4204.102539,0.0,1.0,15.0,,,,0.0,4.0,0.0,4.0,0.0,4.0,33.333332,,,,,,,,19.0,0.0,0.182444,0.6193850000000001,-0.140869,-0.750488,0.8930799999999999,-0.447272,-0.194339,-0.017026,-0.026375,-0.044015,,,,,,,,,,,,,,,,,,,,,,,,,,,,,,,,,,,,,,,,,,,,,,,,,,,,,,,,,,,,,,,,,
7519,1645818288.198642,1645818288.2490401,39.0,0.0,4187.692383,4476.922852000001,4189.230957,4285.128418,4218.974121,0.0,1.0,15.0,,,,0.0,4.0,0.0,4.0,0.0,4.0,33.333332,,,,,,,,,,,,,,,,,,,,,,,,,,,,,,,,,,,,,,,,,,,,,,,,,,,,,,0.0,0.0,1.0,0.0,512.0,1.0,,,,,,,,,,,,,,,,,,,,,,,,,
7520,1645818288.206458,1645818288.2568538,40.0,0.0,4195.897461,4511.282227000001,4204.102539,4227.179688,4220.0,0.0,1.0,15.0,,,,0.0,4.0,0.0,4.0,0.0,4.0,33.333332,,,,,,,,20.0,0.0,0.183445,0.6193850000000001,-0.140869,-0.7502439999999999,0.887709,-0.443366,-0.20361600000000002,-0.017325999999999998,-0.026374,-0.045375,,,,,,,,,,,,,,,,,,,,,,,,,,,,,,,,,,,,,,,,,,,,,,,,,,,,,,,,,,,,,,,,,
7521,1645818288.214275,1645818288.264669,41.0,0.0,4215.384765999999,4522.563965,4204.615234000001,4297.94873,4214.358886999999,0.0,1.0,15.0,,,,0.0,4.0,0.0,4.0,0.0,4.0,33.333332,,,,,,,,,,,,,,,,,,,,,,,,,,,,,,,,,,,,,,,,,,,,,,,,,,,,,,,,,,,,,,,,,,,,,,,,,,,,,,,,,,,,
7522,1645818288.222091,1645818288.272484,42.0,0.0,4232.820313,4544.102539,4200.0,4326.153809,4227.179688,0.0,1.0,15.0,,,,0.0,4.0,0.0,4.0,0.0,4.0,33.333332,,,,,,,,21.0,0.0,0.18327100000000002,0.6191409999999999,-0.140869,-0.750488,0.8681770000000001,-0.43799499999999997,-0.198734,-0.016031999999999998,-0.026325,-0.046745999999999996,,,,,,,,,,,,,,,,,,,,,,,,,,,,,,,,,,,,,,,,,,,,,,,,,,,,,,,,,,,,,,,,,
7523,1645818288.229907,1645818288.280298,43.0,0.0,4211.282227000001,4552.820313,4179.487305,4271.282227000001,4210.769043,0.0,1.0,15.0,,,,0.0,4.0,0.0,4.0,0.0,4.0,33.333332,,,,,,,,,,,,,,,,,,,,,,,,,,,,,,,,,,,,,,,,,,,,,,,,,,,,,,0.0,0.0,1.0,0.0,512.0,1.0,,,,,,,,,,,,,,,,,,,,,,,,,
7524,1645818288.237723,1645818288.288013,44.0,0.0,4188.717772999999,4562.563965,4156.410156,4253.333496,4183.077147999999,0.0,1.0,15.0,,,,0.0,4.0,0.0,4.0,0.0,4.0,33.333332,,,,,,,,22.0,0.0,0.18327100000000002,0.6191409999999999,-0.140869,-0.750488,0.8803850000000001,-0.44776099999999996,-0.198734,-0.01648,-0.026182999999999998,-0.041681,,,,,,,,,,,,,,,,,,,,,,,,,,,,,,,,,,,,,,,,,,,,,,,,,,,,,,,,,,,,,,,,,
7525,1645818288.2455401,1645818288.295827,45.0,0.0,4222.563965,4566.153809,4176.410156,4269.230957,4227.692383,0.0,1.0,15.0,,,,0.0,4.0,0.0,4.0,0.0,4.0,33.333332,,,,,,,,,,,,,,,,,,,,,,,,,,,,,,,,,,,,,,,,,,,,,,,,,,,,,,,,,,,,,,,,,,,,,,,,,,,,,,,,,,,,
7526,1645818288.253356,1645818288.303642,46.0,0.0,4255.897461,4549.230957,4202.05127,4267.692383,4282.05127,0.0,1.0,15.0,,,,0.0,4.0,0.0,4.0,0.0,4.0,33.333332,,,,,,,,23.0,0.0,0.18327100000000002,0.6191409999999999,-0.140869,-0.750488,0.886732,-0.451667,-0.20068699999999998,-0.017029,-0.02625,-0.043372,,,,,,,,,,,,,,,,,,,,,,,,,,,,,,,,,,,,,,,,,,,,,,,,,,,,,,,,,,,,,,,,,
7527,1645818288.261172,1645818288.311456,47.0,0.0,4235.384765999999,4535.384765999999,4187.179688,4271.282227000001,4253.846191,0.0,1.0,15.0,,,,0.0,4.0,0.0,4.0,0.0,4.0,33.333332,,,,,,,,,,,,,,,,,,,,1.0,0.0,0.0,,,,,,,,,,,,,,,,,,,,,,,,,,,,,,,,0.0,0.0,1.0,0.0,512.0,1.0,299.616302,31.299367999999998,5.769925,5.194376999999999,1.6751060000000002,28.344465000000003,8.95577,13.49306,15.912273,17.098778,3.6339449999999998,5.240628,2.0197220000000002,3.6918910000000005,1.404182,22.213036,21.996738,17.588381,12.706825,11.755407,66.714638,13.768476999999999,2.807343,3.495737,2.0449479999999998
7528,1645818288.2689881,1645818288.31927,48.0,0.0,4204.102539,4497.94873,4164.102539,4265.641113000001,4213.846191,0.0,1.0,15.0,,,,0.0,4.0,0.0,4.0,0.0,4.0,33.333332,,,,,,,,24.0,0.0,0.18327100000000002,0.6191409999999999,-0.140869,-0.750488,0.8964979999999999,-0.441413,-0.20264000000000001,-0.017524,-0.026262,-0.038498000000000004,,,,,,,,,,,,,,,,,,,,,,,,,,,,,,,,,,,,,,,,,,,,,,,,,,,,,,,,,,,,,,,,,
7529,1645818288.276804,1645818288.327085,49.0,0.0,4184.615234000001,4480.0,4160.512695,4249.230957,4213.333496,0.0,1.0,15.0,,,,0.0,4.0,0.0,4.0,0.0,4.0,33.333332,,,,,,,,,,,,,,,,,,,,,,,,,,,,,,,,,,,,,,,,,,,,,,,,,,,,,,,,,,,,,,,,,,,,,,,,,,,,,,,,,,,,
7530,1645818288.284621,1645818288.334899,50.0,0.0,4189.743652,4507.692383,4172.307617,4284.615234000001,4211.282227000001,0.0,1.0,15.0,,,,0.0,4.0,0.0,4.0,0.0,4.0,33.333332,,,,,,,,25.0,0.0,0.183445,0.6193850000000001,-0.140869,-0.7502439999999999,0.894545,-0.46338599999999996,-0.186038,-0.016308,-0.026272000000000004,-0.040458999999999995,,,,,,,,,,,,,,,,,,,,,,,,,,,,,,,,,,,,,,,,,,,,,,,,,,,,,,,,,,,,,,,,,
7531,1645818288.2924368,1645818288.342714,51.0,0.0,4202.05127,4501.025879,4168.205078,4297.436035,4194.358886999999,0.0,1.0,15.0,,,,0.0,4.0,0.0,4.0,0.0,4.0,33.333332,,,,,,,,,,,,,,,,,,,,,,,,,,,,,,,,,,,,,,,,,,,,,,,,,,,,,,0.0,0.0,1.0,0.0,512.0,1.0,,,,,,,,,,,,,,,,,,,,,,,,,
7532,1645818288.300253,1645818288.350528,52.0,0.0,4217.94873,4488.717772999999,4177.94873,4268.717772999999,4220.0,0.0,1.0,15.0,,,,0.0,4.0,0.0,4.0,0.0,4.0,33.333332,,,,,,,,26.0,0.0,0.183619,0.619629,-0.140869,-0.75,0.895033,-0.437507,-0.195804,-0.016582,-0.026282,-0.042272000000000004,,,,,,,,,,,,,,,,,,,,,,,,,,,,,,,,,,,,,,,,,,,,,,,,,,,,,,,,,,,,,,,,,
7533,1645818288.308069,1645818288.358243,53.0,0.0,4232.820313,4520.512695,4189.230957,4267.179688,4255.897461,0.0,1.0,15.0,,,,0.0,4.0,0.0,4.0,0.0,4.0,33.333332,,,,,,,,,,,,,,,,,,,,,,,,,,,,,,,,,,,,,,,,,,,,,,,,,,,,,,,,,,,,,,,,,,,,,,,,,,,,,,,,,,,,
7534,1645818288.315886,1645818288.366057,54.0,0.0,4223.077147999999,4535.897461,4159.487305,4269.743652,4238.974121,0.0,1.0,15.0,,,,0.0,4.0,0.0,4.0,0.0,4.0,33.333332,,,,,,,,27.0,0.0,0.18343099999999998,0.619629,-0.14111300000000002,-0.75,0.873549,-0.44434300000000004,-0.194339,-0.017023,-0.026289999999999997,-0.037508,,,,,,,,,,,,,,,,,,,,,,,,,,,,,,,,,,,,,,,,,,,,,,,,,,,,,,,,,,,,,,,,,
7535,1645818288.3237019,1645818288.373871,55.0,0.0,4212.820313,4496.922852000001,4142.05127,4251.282227000001,4224.102539,0.0,1.0,15.0,,,,0.0,4.0,0.0,4.0,0.0,4.0,33.333332,,,,,,,,,,,,,,,,,,,,,,,,,,,,,,,,,,,,,,,,,,,,,,,,,,,,,,0.0,0.0,1.0,0.0,512.0,1.0,,,,,,,,,,,,,,,,,,,,,,,,,
7536,1645818288.331518,1645818288.381686,56.0,0.0,4213.846191,4484.615234000001,4166.153809,4249.230957,4235.897461,0.0,1.0,15.0,,,,0.0,4.0,0.0,4.0,0.0,4.0,33.333332,,,,,,,,28.0,0.0,0.18343099999999998,0.619629,-0.14111300000000002,-0.75,0.869642,-0.44971400000000006,-0.191409,-0.017372,-0.026298000000000002,-0.033415,,,,,,,,,,,,,,,,,,,,,,,,,,,,,,,,,,,,,,,,,,,,,,,,,,,,,,,,,,,,,,,,,
7537,1645818288.339334,1645818288.3895,57.0,0.0,4221.538574,4527.692383,4173.846191,4284.615234000001,4235.897461,0.0,1.0,15.0,,,,0.0,4.0,0.0,4.0,0.0,4.0,33.333332,,,,,,,,,,,,,,,,,,,,,,,,,,,,,,,,,,,,,,,,,,,,,,,,,,,,,,,,,,,,,,,,,,,,,,,,,,,,,,,,,,,,
7538,1645818288.34715,1645818288.397315,58.0,0.0,4242.05127,4537.94873,4163.077147999999,4312.307617,4250.769043,0.0,1.0,15.0,,,,0.0,4.0,0.0,4.0,0.0,4.0,33.333332,,,,,,,,29.0,0.0,0.18444100000000002,0.6193850000000001,-0.140869,-0.75,0.873549,-0.458991,-0.19677999999999998,-0.017734,-0.026256,-0.029682999999999998,,,,,,,,,,,,,,,,,,,,,,,,,,,,,,,,,,,,,,,,,,,,,,,,,,,,,,,,,,,,,,,,,
7539,1645818288.3549669,1645818288.405129,59.0,0.0,4248.205078,4503.077147999999,4167.179688,4276.410156,4264.615234000001,0.0,1.0,15.0,,,,0.0,4.0,0.0,4.0,0.0,4.0,33.333332,,,,,,,,,,,,,,,,,,,,,,,,,,,,,,,,,,,,,,,,,,,,,,,,,,,,,,0.0,0.0,1.0,0.0,512.0,1.0,,,,,,,,,,,,,,,,,,,,,,,,,
7540,1645818288.362783,1645818288.412943,60.0,0.0,4215.384765999999,4507.692383,4171.794922,4239.487305,4226.153809,0.0,1.0,15.0,,,,0.0,4.0,0.0,4.0,0.0,4.0,33.333332,,,,,,,,30.0,0.0,0.18444100000000002,0.6193850000000001,-0.140869,-0.75,0.882826,-0.457527,-0.198734,-0.01806,-0.026267000000000002,-0.032477,,,,,,,,,,,,,,,,,,,,,,,,,,,,,,,,,,,,,,,,,,,,,,,,,,,,,,,,,,,,,,,,,
7541,1645818288.370599,1645818288.420758,61.0,0.0,4197.436035,4546.666504,4168.717772999999,4263.589844,4200.512695,0.0,1.0,15.0,,,,0.0,4.0,0.0,4.0,0.0,4.0,33.333332,,,,,,,,,,,,,,,,,,,,,,,,,,,,,,,,,,,,,,,,,,,,,,,,,,,,,,,,,,,,,,,,,,,,,,,,,,,,,,,,,,,,
7542,1645818288.378415,1645818288.428472,62.0,0.0,4221.025879,4564.102539,4167.692383,4283.589844,4230.256348,0.0,1.0,15.0,,,,0.0,4.0,0.0,4.0,0.0,4.0,33.333332,,,,,,,,31.0,0.0,0.183445,0.6193850000000001,-0.140869,-0.7502439999999999,0.892592,-0.448737,-0.188479,-0.018305000000000002,-0.026277,-0.028789999999999996,,,,,,,,,,,,,,,,,,,,,,,,,,,,,,,,,,,,,,,,,,,,,,,,,,,,,,,,,,,,,,,,,
7543,1645818288.3862321,1645818288.436287,63.0,0.0,4247.179688,4580.0,4177.436035,4269.743652,4260.512695,0.0,1.0,15.0,,,,0.0,4.0,0.0,4.0,0.0,4.0,33.333332,0.972656,8.333333,1.0,0.0,4.0,0.0,3.0,,,,,,,,,,,,,1.0,0.0,0.0,,,,,,,,,,,,,,,,,,,,,,,,,,,,,,,,0.0,0.0,1.0,0.0,512.0,0.698905,237.122986,24.796851999999998,4.830818,4.883674,1.6898950000000001,31.908825,9.80861,15.635596,18.584932000000002,18.547995,3.246827,5.687335,2.311318,3.4931300000000003,1.582998,21.436773000000002,22.984627,18.334759,10.449138,10.894839,51.954471999999996,12.084123,2.8212650000000004,3.448347,1.9667240000000001
7544,1645818288.394048,1645818288.444101,64.0,0.0,4249.743652,4565.641113000001,4191.794922,4271.282227000001,4249.743652,450.0,1.0,15.0,,,,0.0,4.0,0.0,4.0,0.0,4.0,33.333332,,,,,,,,32.0,0.0,0.18426700000000001,0.6191409999999999,-0.140869,-0.7502439999999999,0.8798959999999999,-0.451667,-0.20361600000000002,-0.017161000000000003,-0.026392000000000002,-0.022533,,,,,,,,,,,,,,,,,,,,,,,,,,,,,,,,,,,,,,,,,,,,,,,,,,,,,,,,,,,,,,,,,
7545,1645818288.401864,1645818288.451916,65.0,0.0,4236.922852000001,4531.794922,4183.589844,4257.436035,4227.692383,450.0,1.0,15.0,,,,0.0,4.0,0.0,4.0,0.0,4.0,33.333332,,,,,,,,,,,,,,,,,,,,,,,,,,,,,,,,,,,,,,,,,,,,,,,,,,,,,,,,,,,,,,,,,,,,,,,,,,,,,,,,,,,,
7546,1645818288.4096801,1645818288.4597301,66.0,0.0,4223.589844,4575.384765999999,4161.025879,4229.743652,4228.205078,16195.0,1.0,15.0,,,,0.0,4.0,0.0,4.0,0.0,4.0,33.333332,,,,,,,,33.0,0.0,0.18426700000000001,0.6191409999999999,-0.140869,-0.7502439999999999,0.8921030000000001,-0.44238999999999995,-0.18945599999999999,-0.017544999999999998,-0.026389999999999997,-0.026042000000000003,,,,,,,,,,,,,,,,,,,,,,,,,,,,,,,,,,,,,,,,,,,,,,,,,,,,,,,,,,,,,,,,,
7547,1645818288.4174972,1645818288.4675438,67.0,0.0,4233.333496,4663.077147999999,4173.333496,4246.666504,4253.333496,450.0,1.0,15.0,,,,0.0,4.0,0.0,4.0,0.0,4.0,33.333332,,,,,,,,,,,,,,,,,,,,,,,,,,,,,,,,,,,,,,,,,,,,,,,,,,,,,,0.0,0.0,1.0,0.0,512.0,0.698905,,,,,,,,,,,,,,,,,,,,,,,,,
7548,1645818288.425313,1645818288.475359,68.0,0.0,4246.153809,4676.410156,4200.512695,4295.384765999999,4265.128418,0.0,1.0,15.0,,,,0.0,4.0,0.0,4.0,0.0,4.0,33.333332,,,,,,,,34.0,0.0,0.184081,0.6191409999999999,-0.14111300000000002,-0.7502439999999999,0.8964979999999999,-0.46045600000000003,-0.18945599999999999,-0.016327,-0.026387,-0.029248000000000003,,,,,,,,,,,,,,,,,,,,,,,,,,,,,,,,,,,,,,,,,,,,,,,,,,,,,,,,,,,,,,,,,
7549,1645818288.4331288,1645818288.4831731,69.0,0.0,4237.94873,4636.922852000001,4195.897461,4291.282227000001,4242.05127,450.0,1.0,15.0,,,,0.0,4.0,0.0,4.0,0.0,4.0,33.333332,,,,,,,,,,,,,,,,,,,,,,,,,,,,,,,,,,,,,,,,,,,,,,,,,,,,,,,,,,,,,,,,,,,,,,,,,,,,,,,,,,,,
7550,1645818288.440945,1645818288.490988,70.0,0.0,4243.077147999999,4604.615234000001,4182.563965,4261.025879,4233.333496,16167.0,1.0,15.0,,,,0.0,4.0,0.0,4.0,0.0,4.0,33.333332,,,,,,,,35.0,0.0,0.184081,0.6191409999999999,-0.14111300000000002,-0.7502439999999999,0.885756,-0.446784,-0.208988,-0.016794,-0.026288,-0.025981999999999998,,,,,,,,,,,,,,,,,,,,,,,,,,,,,,,,,,,,,,,,,,,,,,,,,,,,,,,,,,,,,,,,,
7551,1645818288.448762,1645818288.498702,71.0,0.0,4268.717772999999,4601.025879,4197.436035,4251.282227000001,4260.512695,450.0,1.0,15.0,,,,0.0,4.0,0.0,4.0,1.0,4.0,41.666668,,,,,,,,,,,,,,,,,,,,,,,,,,,,,,,,,,,,,,,,,,,,,,,,,,,,,,0.0,0.0,1.0,0.0,512.0,0.698905,,,,,,,,,,,,,,,,,,,,,,,,,
7552,1645818288.456578,1645818288.506517,72.0,0.0,4266.666504,4625.641113000001,4210.256348,4236.922852000001,4273.333496,450.0,1.0,15.0,,,,0.0,4.0,0.0,4.0,1.0,4.0,41.666668,,,,,,,,36.0,0.0,0.18471300000000002,0.618896,-0.14135699999999998,-0.7502439999999999,0.8808729999999999,-0.453132,-0.19336199999999998,-0.017312,-0.026295999999999996,-0.029292000000000002,,,,,,,,,,,,,,,,,,,,,,,,,,,,,,,,,,,,,,,,,,,,,,,,,,,,,,,,,,,,,,,,,
7553,1645818288.4643939,1645818288.514331,73.0,0.0,4248.205078,4650.769043,4200.0,4236.410156,4252.820313,93.0,1.0,15.0,,,,0.0,4.0,0.0,4.0,1.0,4.0,41.666668,,,,,,,,,,,,,,,,,,,,,,,,,,,,,,,,,,,,,,,,,,,,,,,,,,,,,,,,,,,,,,,,,,,,,,,,,,,,,,,,,,,,
7554,1645818288.47221,1645818288.522145,74.0,0.0,4244.615234000001,4652.307617,4189.743652,4271.794922,4237.436035,450.0,1.0,15.0,,,,0.0,4.0,0.0,4.0,1.0,4.0,41.666668,,,,,,,,37.0,0.0,0.183719,0.618896,-0.14135699999999998,-0.750488,0.8803850000000001,-0.440925,-0.192874,-0.017632,-0.026400999999999997,-0.025874,,,,,,,,,,,,,,,,,,,,,,,,,,,,,,,,,,,,,,,,,,,,,,,,,,,,,,,,,,,,,,,,,
7555,1645818288.480027,1645818288.52996,75.0,0.0,4244.102539,4620.0,4198.461426,4292.820313,4244.102539,16180.0,1.0,15.0,,,,0.0,4.0,0.0,4.0,1.0,4.0,41.666668,,,,,,,,,,,,,,,,,,,,,,,,,,,,,,,,,,,,,,,,,,,,,,,,,,,,,,0.0,0.0,1.0,0.0,512.0,0.698905,,,,,,,,,,,,,,,,,,,,,,,,,
7556,1645818288.487843,1645818288.537774,76.0,0.0,4247.692383,4587.179688,4199.487305,4265.641113000001,4252.307617,450.0,1.0,15.0,,,,0.0,4.0,0.0,4.0,1.0,4.0,41.666668,,,,,,,,38.0,0.0,0.183719,0.618896,-0.14135699999999998,-0.750488,0.882338,-0.44434300000000004,-0.193851,-0.016406,-0.026397000000000004,-0.029146,,,,,,,,,,,,,,,,,,,,,,,,,,,,,,,,,,,,,,,,,,,,,,,,,,,,,,,,,,,,,,,,,
7557,1645818288.4956589,1645818288.545589,77.0,0.0,4250.256348,4582.563965,4182.05127,4285.641113000001,4245.128418,450.0,1.0,15.0,,,,0.0,4.0,0.0,4.0,1.0,4.0,41.666668,,,,,,,,,,,,,,,,,,,,,,,,,,,,,,,,,,,,,,,,,,,,,,,,,,,,,,,,,,,,,,,,,,,,,,,,,,,,,,,,,,,,
7558,1645818288.503475,1645818288.553403,78.0,0.0,4251.794922,4635.384765999999,4181.025879,4289.743652,4245.641113000001,450.0,1.0,15.0,,,,0.0,4.0,0.0,4.0,1.0,4.0,41.666668,,,,,,,,39.0,0.0,0.183719,0.618896,-0.14135699999999998,-0.750488,0.885756,-0.44385399999999997,-0.202152,-0.016766999999999997,-0.026492,-0.025841000000000003,,,,,,,,,,,,,,,,,,,,,,,,,,,,,,,,,,,,,,,,,,,,,,,,,,,,,,,,,,,,,,,,,
7559,1645818288.511291,1645818288.561217,79.0,0.0,4264.615234000001,4678.461426,4188.717772999999,4226.153809,4264.102539,16180.0,1.0,15.0,,,,0.0,4.0,0.0,4.0,1.0,4.0,41.666668,,,,,,,,,,,,,,,,,,,,1.0,0.0,0.0,,,,,,,,,,,,,,,,,,,,,,,,,,,,,,,,0.0,0.0,1.0,0.0,512.0,1.0,168.153992,17.840128,4.0305919999999995,4.531062,1.857636,33.396572,12.058676,17.26091,21.381702,19.368095,2.760783,5.559947,2.6389299999999998,3.544978,1.8931950000000002,20.275303,23.286039000000002,17.904535,9.065914,10.207587,36.272785,9.935966,2.854752,3.6204419999999997,1.946661
7560,1645818288.519108,1645818288.569032,80.0,0.0,4273.846191,4651.282227000001,4181.025879,4247.179688,4261.538574,450.0,1.0,15.0,,,,0.0,4.0,0.0,4.0,1.0,4.0,41.666668,,,,,,,,40.0,0.0,0.183719,0.618896,-0.14135699999999998,-0.750488,0.8921030000000001,-0.44971400000000006,-0.20556999999999997,-0.017287999999999998,-0.026382,-0.022964,,,,,,,,,,,,,,,,,,,,,,,,,,,,,,,,,,,,,,,,,,,,,,,,,,,,,,,,,,,,,,,,,
7561,1645818288.5269241,1645818288.576746,81.0,0.0,4255.384765999999,4623.589844,4168.717772999999,4300.512695,4224.102539,450.0,1.0,15.0,,,,0.0,4.0,0.0,4.0,1.0,4.0,41.666668,,,,,,,,,,,,,,,,,,,,,,,,,,,,,,,,,,,,,,,,,,,,,,,,,,,,,,,,,,,,,,,,,,,,,,,,,,,,,,,,,,,,
7562,1645818288.53474,1645818288.5845609,82.0,0.0,4260.512695,4640.0,4194.358886999999,4267.692383,4234.871582,450.0,1.0,15.0,,,,0.0,4.0,0.0,4.0,1.0,4.0,41.666668,,,,,,,,41.0,0.0,0.183719,0.618896,-0.14135699999999998,-0.750488,0.882338,-0.44434300000000004,-0.193851,-0.017561,-0.026331999999999998,-0.020277,,,,,,,,,,,,,,,,,,,,,,,,,,,,,,,,,,,,,,,,,,,,,,,,,,,,,,,,,,,,,,,,,
7563,1645818288.542556,1645818288.592375,83.0,0.0,4292.820313,4680.512695,4228.717772999999,4245.641113000001,4275.897461,16180.0,1.0,15.0,,,,0.0,4.0,0.0,4.0,1.0,4.0,41.666668,,,,,,,,,,,,,,,,,,,,,,,,,,,,,,,,,,,,,,,,,,,,,,,,,,,,,,0.0,0.0,1.0,0.0,512.0,1.0,,,,,,,,,,,,,,,,,,,,,,,,,
7564,1645818288.550373,1645818288.600189,84.0,0.0,4289.743652,4685.128418,4216.410156,4281.538574,4272.307617,450.0,1.0,15.0,,,,0.0,4.0,0.0,4.0,1.0,4.0,41.666668,,,,,,,,42.0,0.0,0.183719,0.618896,-0.14135699999999998,-0.750488,0.8921030000000001,-0.44971400000000006,-0.20556999999999997,-0.018002,-0.026238,-0.017956,,,,,,,,,,,,,,,,,,,,,,,,,,,,,,,,,,,,,,,,,,,,,,,,,,,,,,,,,,,,,,,,,
7565,1645818288.5581892,1645818288.6080039,85.0,0.0,4252.820313,4650.769043,4176.410156,4289.230957,4242.563965,450.0,1.0,15.0,,,,0.0,4.0,0.0,4.0,1.0,4.0,41.666668,,,,,,,,,,,,,,,,,,,,,,,,,,,,,,,,,,,,,,,,,,,,,,,,,,,,,,,,,,,,,,,,,,,,,,,,,,,,,,,,,,,,
7566,1645818288.566005,1645818288.615818,86.0,0.0,4243.077147999999,4629.230957,4179.487305,4293.846191,4236.410156,450.0,1.0,15.0,,,,0.0,4.0,0.0,4.0,1.0,4.0,41.666668,,,,,,,,43.0,0.0,0.18471300000000002,0.618896,-0.14135699999999998,-0.7502439999999999,0.8842909999999999,-0.446296,-0.204105,-0.018203999999999998,-0.026202,-0.01577,,,,,,,,,,,,,,,,,,,,,,,,,,,,,,,,,,,,,,,,,,,,,,,,,,,,,,,,,,,,,,,,,
7567,1645818288.573821,1645818288.623633,87.0,0.0,4255.384765999999,4639.487305,4201.538574,4282.05127,4238.461426,16180.0,1.0,15.0,,,,0.0,4.0,0.0,4.0,1.0,4.0,41.666668,,,,,,,,,,,,,,,,,,,,,,,,,,,,,,,,,,,,,,,,,,,,,,,,,,,,,,0.0,0.0,1.0,0.0,512.0,1.0,,,,,,,,,,,,,,,,,,,,,,,,,
7568,1645818288.581638,1645818288.631447,88.0,0.0,4236.922852000001,4625.641113000001,4180.0,4232.820313,4224.615234000001,450.0,1.0,15.0,,,,0.0,4.0,0.0,4.0,1.0,4.0,41.666668,,,,,,,,44.0,0.0,0.18471300000000002,0.618896,-0.14135699999999998,-0.7502439999999999,0.878431,-0.44238999999999995,-0.20703400000000002,-0.016969,-0.026218,-0.020053,,,,,,,,,,,,,,,,,,,,,,,,,,,,,,,,,,,,,,,,,,,,,,,,,,,,,,,,,,,,,,,,,
7569,1645818288.589454,1645818288.6391618,89.0,0.0,4219.487305,4593.333496,4164.615234000001,4218.974121,4219.487305,450.0,1.0,15.0,,,,0.0,4.0,0.0,4.0,1.0,4.0,41.666668,,,,,,,,,,,,,,,,,,,,,,,,,,,,,,,,,,,,,,,,,,,,,,,,,,,,,,,,,,,,,,,,,,,,,,,,,,,,,,,,,,,,
7570,1645818288.59727,1645818288.646976,90.0,0.0,4246.153809,4610.769043,4195.897461,4245.641113000001,4240.512695,450.0,1.0,15.0,,,,0.0,4.0,0.0,4.0,1.0,4.0,41.666668,,,,,,,,45.0,0.0,0.1849,0.618896,-0.14111300000000002,-0.7502439999999999,0.8833139999999999,-0.433112,-0.196292,-0.017372,-0.026233,-0.023906999999999998,,,,,,,,,,,,,,,,,,,,,,,,,,,,,,,,,,,,,,,,,,,,,,,,,,,,,,,,,,,,,,,,,
7571,1645818288.6050858,1645818288.65479,91.0,0.0,4265.641113000001,4640.0,4203.077147999999,4273.333496,4250.769043,16180.0,1.0,15.0,,,,0.0,4.0,0.0,4.0,1.0,4.0,41.666668,,,,,,,,,,,,,,,,,,,,,,,,,,,,,,,,,,,,,,,,,,,,,,,,,,,,,,0.0,0.0,1.0,0.0,512.0,1.0,,,,,,,,,,,,,,,,,,,,,,,,,
7572,1645818288.6129029,1645818288.662605,92.0,0.0,4263.589844,4651.282227000001,4190.256348,4290.769043,4248.717772999999,450.0,1.0,15.0,,,,0.0,4.0,0.0,4.0,1.0,4.0,41.666668,,,,,,,,46.0,0.0,0.184081,0.6191409999999999,-0.14111300000000002,-0.7502439999999999,0.8833139999999999,-0.440436,-0.194827,-0.017832,-0.026295999999999996,-0.021077000000000002,,,,,,,,,,,,,,,,,,,,,,,,,,,,,,,,,,,,,,,,,,,,,,,,,,,,,,,,,,,,,,,,,
7573,1645818288.620719,1645818288.670419,93.0,0.0,4273.846191,4664.615234000001,4204.615234000001,4233.333496,4267.179688,450.0,1.0,15.0,,,,0.0,4.0,0.0,4.0,1.0,4.0,41.666668,,,,,,,,,,,,,,,,,,,,,,,,,,,,,,,,,,,,,,,,,,,,,,,,,,,,,,,,,,,,,,,,,,,,,,,,,,,,,,,,,,,,
7574,1645818288.628535,1645818288.678234,94.0,0.0,4270.256348,4672.820313,4202.563965,4188.717772999999,4267.179688,450.0,1.0,15.0,,,,0.0,4.0,0.0,4.0,1.0,4.0,41.666668,,,,,,,,47.0,0.0,0.18426700000000001,0.6191409999999999,-0.140869,-0.7502439999999999,0.894057,-0.44531899999999996,-0.20508099999999999,-0.016684,-0.026302999999999997,-0.02478,,,,,,,,,,,,,,,,,,,,,,,,,,,,,,,,,,,,,,,,,,,,,,,,,,,,,,,,,,,,,,,,,
7575,1645818288.6363509,1645818288.686048,95.0,0.0,4254.358886999999,4657.436035,4176.410156,4254.871582,4240.512695,16180.0,1.0,15.0,,,,0.0,4.0,0.0,4.0,1.0,4.0,41.666668,,,,,,,,,,,,,,,,,,,,1.0,0.0,0.0,,,,,,,,,,,,,,,,,,,,,,,,,,,,,,,,0.0,0.0,1.0,0.0,512.0,1.0,105.45546000000002,11.715597,3.4408339999999997,4.224842,2.124333,32.830284000000006,15.168811999999999,18.096529,23.566519,19.443993,2.308565,4.881631,2.847277,3.8266940000000003,2.244222,18.468859,22.25318,15.985766,8.290869,9.596263,22.528866,7.7903080000000005,2.864513,3.9265230000000004,1.962309
7576,1645818288.644168,1645818288.693862,96.0,0.0,4252.307617,4618.974121,4180.512695,4281.025879,4234.358886999999,450.0,1.0,15.0,,,,0.0,4.0,0.0,4.0,1.0,4.0,41.666668,,,,,,,,48.0,0.0,0.184454,0.6191409999999999,-0.140625,-0.7502439999999999,0.875502,-0.43799499999999997,-0.186526,-0.01565,-0.026163,-0.028014999999999998,,,,,,,,,,,,,,,,,,,,,,,,,,,,,,,,,,,,,,,,,,,,,,,,,,,,,,,,,,,,,,,,,
7577,1645818288.651984,1645818288.7016768,97.0,0.0,4267.179688,4600.512695,4211.794922,4236.410156,4239.487305,450.0,1.0,15.0,,,,0.0,4.0,0.0,4.0,1.0,4.0,41.666668,,,,,,,,,,,,,,,,,,,,,,,,,,,,,,,,,,,,,,,,,,,,,,,,,,,,,,,,,,,,,,,,,,,,,,,,,,,,,,,,,,,,
7578,1645818288.6598,1645818288.709491,98.0,0.0,4285.641113000001,4630.256348,4217.94873,4265.641113000001,4243.589844,450.0,1.0,15.0,,,,0.0,4.0,0.0,4.0,1.0,4.0,41.666668,,,,,,,,49.0,0.0,0.185444,0.6191409999999999,-0.140625,-0.75,0.887709,-0.451179,-0.198245,-0.016184999999999998,-0.026182999999999998,-0.031073000000000003,,,,,,,,,,,,,,,,,,,,,,,,,,,,,,,,,,,,,,,,,,,,,,,,,,,,,,,,,,,,,,,,,
7579,1645818288.6676161,1645818288.717206,99.0,0.0,4284.102539,4638.974121,4191.282227000001,4338.974121,4246.153809,16180.0,1.0,15.0,,,,0.0,4.0,0.0,4.0,1.0,4.0,41.666668,,,,,,,,,,,,,,,,,,,,,,,,,,,,,,,,,,,,,,,,,,,,,,,,,,,,,,0.0,0.0,1.0,0.0,512.0,1.0,,,,,,,,,,,,,,,,,,,,,,,,,
7580,1645818288.675433,1645818288.72502,100.0,0.0,4251.794922,4606.666504,4162.563965,4297.436035,4220.512695,450.0,1.0,15.0,,,,0.0,4.0,0.0,4.0,1.0,4.0,41.666668,,,,,,,,50.0,0.0,0.185444,0.6191409999999999,-0.140625,-0.75,0.8813610000000001,-0.440436,-0.20508099999999999,-0.016666,-0.026202,-0.027575,,,,,,,,,,,,,,,,,,,,,,,,,,,,,,,,,,,,,,,,,,,,,,,,,,,,,,,,,,,,,,,,,
7581,1645818288.683249,1645818288.732835,101.0,0.0,4234.358886999999,4624.102539,4160.512695,4230.256348,4196.922852000001,450.0,1.0,15.0,,,,0.0,4.0,0.0,4.0,1.0,4.0,41.666668,,,,,,,,,,,,,,,,,,,,,,,,,,,,,,,,,,,,,,,,,,,,,,,,,,,,,,,,,,,,,,,,,,,,,,,,,,,,,,,,,,,,
7582,1645818288.691065,1645818288.740649,102.0,0.0,4267.692383,4665.641113000001,4189.230957,4267.692383,4236.410156,450.0,1.0,15.0,,,,0.0,4.0,0.0,4.0,1.0,4.0,41.666668,,,,,,,,51.0,0.0,0.185444,0.6191409999999999,-0.140625,-0.75,0.889174,-0.45410900000000004,-0.198245,-0.015585,-0.026169,-0.030677,,,,,,,,,,,,,,,,,,,,,,,,,,,,,,,,,,,,,,,,,,,,,,,,,,,,,,,,,,,,,,,,,
7583,1645818288.6988811,1645818288.7484632,103.0,0.0,4297.94873,4637.436035,4220.0,4305.128418,4271.794922,16180.0,1.0,15.0,,,,0.0,4.0,0.0,4.0,1.0,4.0,41.666668,,,,,,,,,,,,,,,,,,,,,,,,,,,,,,,,,,,,,,,,,,,,,,,,,,,,,,0.0,0.0,1.0,0.0,512.0,1.0,,,,,,,,,,,,,,,,,,,,,,,,,
7584,1645818288.706697,1645818288.756278,104.0,0.0,4274.358886999999,4572.820313,4207.179688,4259.487305,4231.794922,450.0,1.0,15.0,,,,0.0,4.0,0.0,4.0,1.0,4.0,41.666668,,,,,,,,52.0,0.0,0.185444,0.6191409999999999,-0.140625,-0.75,0.8808729999999999,-0.442878,-0.190921,-0.016125999999999998,-0.026188999999999997,-0.027267000000000003,,,,,,,,,,,,,,,,,,,,,,,,,,,,,,,,,,,,,,,,,,,,,,,,,,,,,,,,,,,,,,,,,
7585,1645818288.714514,1645818288.764092,105.0,0.0,4242.05127,4503.589844,4166.153809,4227.692383,4192.307617,450.0,1.0,15.0,,,,0.0,4.0,0.0,4.0,1.0,4.0,41.666668,,,,,,,,,,,,,,,,,,,,,,,,,,,,,,,,,,,,,,,,,,,,,,,,,,,,,,,,,,,,,,,,,,,,,,,,,,,,,,,,,,,,
7586,1645818288.72233,1645818288.771907,106.0,0.0,4243.077147999999,4430.256348,4148.717772999999,4241.025879,4209.743652,450.0,1.0,15.0,,,,0.0,4.0,0.0,4.0,1.0,4.0,41.666668,,,,,,,,53.0,0.0,0.185444,0.6191409999999999,-0.140625,-0.75,0.8803850000000001,-0.447272,-0.198245,-0.016516,-0.026157999999999997,-0.030351,,,,,,,,,,,,,,,,,,,,,,,,,,,,,,,,,,,,,,,,,,,,,,,,,,,,,,,,,,,,,,,,,
7587,1645818288.7301462,1645818288.7796211,107.0,0.0,4252.307617,4403.589844,4174.871582,4246.666504,4230.769043,16180.0,1.0,15.0,,,,0.0,4.0,0.0,4.0,1.0,4.0,41.666668,,,,,,,,,,,,,,,,,,,,,,,,,,,,,,,,,,,,,,,,,,,,,,,,,,,,,,0.0,0.0,1.0,0.0,512.0,1.0,,,,,,,,,,,,,,,,,,,,,,,,,
7588,1645818288.737962,1645818288.787436,108.0,0.0,4262.05127,4419.487305,4208.205078,4253.846191,4227.179688,450.0,1.0,15.0,,,,0.0,4.0,0.0,4.0,1.0,4.0,41.666668,,,,,,,,54.0,0.0,0.185444,0.6191409999999999,-0.140625,-0.75,0.876967,-0.45215500000000003,-0.20556999999999997,-0.016964,-0.026179,-0.026876999999999998,,,,,,,,,,,,,,,,,,,,,,,,,,,,,,,,,,,,,,,,,,,,,,,,,,,,,,,,,,,,,,,,,
7589,1645818288.7457788,1645818288.795251,109.0,0.0,4269.743652,4450.769043,4197.436035,4287.179688,4219.487305,450.0,1.0,15.0,,,,0.0,4.0,0.0,4.0,1.0,4.0,41.666668,,,,,,,,,,,,,,,,,,,,,,,,,,,,,,,,,,,,,,,,,,,,,,,,,,,,,,,,,,,,,,,,,,,,,,,,,,,,,,,,,,,,
7590,1645818288.7535949,1645818288.803065,110.0,0.0,4263.077147999999,4515.384765999999,4171.282227000001,4311.282227000001,4228.205078,450.0,1.0,15.0,,,,0.0,4.0,0.0,4.0,1.0,4.0,41.666668,,,,,,,,55.0,0.0,0.185444,0.6191409999999999,-0.140625,-0.75,0.8847790000000001,-0.443366,-0.201663,-0.015756,-0.026247000000000003,-0.023749,,,,,,,,,,,,,,,,,,,,,,,,,,,,,,,,,,,,,,,,,,,,,,,,,,,,,,,,,,,,,,,,,
7591,1645818288.761411,1645818288.8108802,111.0,0.0,4257.436035,4633.846191,4173.333496,4285.641113000001,4230.769043,16180.0,1.0,15.0,,,,0.0,4.0,0.0,4.0,1.0,4.0,41.666668,,,,,,,,,,,,,,,,,,,,1.0,0.0,0.0,,,,,,,,,,,,,,,,,,,,,,,,,,,,,,,,0.0,0.0,1.0,0.0,512.0,1.0,55.954533,7.102103,3.013046,4.026102,2.388966,30.568329,18.253132,18.153419,24.535378,18.787746,1.9963389999999999,3.846717,2.823328,4.1759900000000005,2.5274520000000003,15.778472,19.523916,12.7905,7.8036710000000005,8.938586,12.040408,5.96774,2.797576,4.248166,1.9994439999999998
