,Timestamp,OriginalTimestamp,EEG.Counter,EEG.Interpolated,EEG.AF3,EEG.T7,EEG.Pz,EEG.T8,EEG.AF4,EEG.RawCq,EEG.Battery,EEG.BatteryPercent,MarkerIndex,MarkerType,MarkerValueInt,EEG.MarkerHardware,CQ.AF3,CQ.T7,CQ.Pz,CQ.T8,CQ.AF4,CQ.Overall,EQ.SampleRateQuality,EQ.OVERALL,EQ.AF3,EQ.T7,EQ.Pz,EQ.T8,EQ.AF4,MOT.CounterMems,MOT.InterpolatedMems,MOT.Q0,MOT.Q1,MOT.Q2,MOT.Q3,MOT.AccX,MOT.AccY,MOT.AccZ,MOT.MagX,MOT.MagY,MOT.MagZ,MC.Action,MC.ActionPower,MC.IsActive,PM.Engagement.IsActive,PM.Engagement.Scaled,PM.Engagement.Raw,PM.Engagement.Min,PM.Engagement.Max,PM.Excitement.IsActive,PM.Excitement.Scaled,PM.Excitement.Raw,PM.Excitement.Min,PM.Excitement.Max,PM.LongTermExcitement,PM.Stress.IsActive,PM.Stress.Scaled,PM.Stress.Raw,PM.Stress.Min,PM.Stress.Max,PM.Relaxation.IsActive,PM.Relaxation.Scaled,PM.Relaxation.Raw,PM.Relaxation.Min,PM.Relaxation.Max,PM.Interest.IsActive,PM.Interest.Scaled,PM.Interest.Raw,PM.Interest.Min,PM.Interest.Max,PM.Focus.IsActive,PM.Focus.Scaled,PM.Focus.Raw,PM.Focus.Min,PM.Focus.Max,FE.BlinkWink,FE.HorizontalEyesDirection,FE.UpperFaceAction,FE.UpperFaceActionPower,FE.LowerFaceAction,FE.LowerFaceActionPower,POW.AF3.Theta,POW.AF3.Alpha,POW.AF3.BetaL,POW.AF3.BetaH,POW.AF3.Gamma,POW.T7.Theta,POW.T7.Alpha,POW.T7.BetaL,POW.T7.BetaH,POW.T7.Gamma,POW.Pz.Theta,POW.Pz.Alpha,POW.Pz.BetaL,POW.Pz.BetaH,POW.Pz.Gamma,POW.T8.Theta,POW.T8.Alpha,POW.T8.BetaL,POW.T8.BetaH,POW.T8.Gamma,POW.AF4.Theta,POW.AF4.Alpha,POW.AF4.BetaL,POW.AF4.BetaH,POW.AF4.Gamma
3429,1645818256.2302349,1645818256.28449,45.0,0.0,4364.615234000001,4481.025879,4236.410156,4291.282227000001,4315.897461,0.0,1.0,15.0,5.0,1.0,3.0,0.0,4.0,1.0,4.0,1.0,4.0,50.0,,,,,,,,,,,,,,,,,,,,,,,,,,,,,,,,,,,,,,,,,,,,,,,,,,,,,,,,,,,,,,,,,,,,,,,,,,,,,,,,,,,,
3430,1645818256.238051,1645818256.2923038,46.0,0.0,4370.256348,4437.94873,4230.256348,4299.487305,4316.410156,0.0,1.0,15.0,,,,0.0,4.0,1.0,4.0,1.0,4.0,50.0,,,,,,,,23.0,0.0,0.17940599999999998,0.617676,-0.150635,-0.750732,0.887709,-0.45655,-0.184085,-0.015771,-0.026922,-0.027336000000000003,,,,,,,,,,,,,,,,,,,,,,,,,,,,,,,,,,,,,,,,,,,,,,,,,,,,,,,,,,,,,,,,,
3431,1645818256.245867,1645818256.300118,47.0,0.0,4345.641113000001,4460.512695,4210.256348,4266.153809,4293.333496,0.0,1.0,15.0,,,,0.0,4.0,1.0,4.0,1.0,4.0,50.0,,,,,,,,,,,,,,,,,,,,1.0,0.0,0.0,,,,,,,,,,,,,,,,,,,,,,,,,,,,,,,,0.0,0.0,1.0,0.0,512.0,1.0,1.781298,0.946677,1.0421209999999999,1.84474,1.934405,68.01265,51.936176,39.19762,14.304867999999999,13.688179000000002,3.766199,2.810664,2.885941,2.330886,1.9324599999999998,8.732877,6.408427,13.265403,5.65695,4.148857,4.278430999999999,1.7859150000000001,0.8797590000000001,3.069193,3.12662
3432,1645818256.253684,1645818256.307933,48.0,0.0,4318.974121,4495.384765999999,4194.358886999999,4254.358886999999,4274.871582,0.0,1.0,15.0,,,,0.0,4.0,1.0,4.0,1.0,4.0,50.0,,,,,,,,24.0,0.0,0.18024500000000002,0.617432,-0.150635,-0.750732,0.872084,-0.464363,-0.194827,-0.014828000000000001,-0.027013,-0.030462,,,,,,,,,,,,,,,,,,,,,,,,,,,,,,,,,,,,,,,,,,,,,,,,,,,,,,,,,,,,,,,,,
3433,1645818256.2615,1645818256.3156471,49.0,0.0,4331.794922,4466.666504,4203.589844,4296.410156,4285.641113000001,0.0,1.0,15.0,,,,0.0,4.0,1.0,4.0,1.0,4.0,50.0,,,,,,,,,,,,,,,,,,,,,,,,,,,,,,,,,,,,,,,,,,,,,,,,,,,,,,,,,,,,,,,,,,,,,,,,,,,,,,,,,,,,
3434,1645818256.269316,1645818256.323462,50.0,0.0,4343.077147999999,4447.692383,4207.692383,4287.692383,4292.307617,0.0,1.0,15.0,,,,0.0,4.0,1.0,4.0,1.0,4.0,50.0,,,,,,,,25.0,0.0,0.179225,0.617432,-0.150635,-0.750977,0.8740370000000001,-0.46582700000000005,-0.193851,-0.015543000000000001,-0.027094999999999998,-0.033275,,,,,,,,,,,,,,,,,,,,,,,,,,,,,,,,,,,,,,,,,,,,,,,,,,,,,,,,,,,,,,,,,
3435,1645818256.277132,1645818256.331276,51.0,0.0,4311.282227000001,4456.410156,4176.410156,4273.846191,4276.410156,0.0,1.0,15.0,,,,0.0,4.0,1.0,4.0,1.0,4.0,50.0,,,,,,,,,,,,,,,,,,,,,,,,,,,,,,,,,,,,,,,,,,,,,,,,,,,,,,0.0,0.0,1.0,0.0,512.0,1.0,,,,,,,,,,,,,,,,,,,,,,,,,
3436,1645818256.284948,1645818256.339091,52.0,0.0,4297.94873,4511.794922,4165.641113000001,4303.589844,4264.102539,0.0,1.0,15.0,,,,0.0,4.0,1.0,4.0,1.0,4.0,50.0,,,,,,,,26.0,0.0,0.179225,0.617432,-0.150635,-0.750977,0.8750129999999999,-0.45459700000000003,-0.203128,-0.016186000000000002,-0.02712,-0.035758,,,,,,,,,,,,,,,,,,,,,,,,,,,,,,,,,,,,,,,,,,,,,,,,,,,,,,,,,,,,,,,,,
3437,1645818256.2927651,1645818256.346905,53.0,0.0,4338.461426,4625.641113000001,4201.538574,4280.0,4272.820313,0.0,1.0,15.0,,,,0.0,4.0,1.0,4.0,1.0,4.0,50.0,,,,,,,,,,,,,,,,,,,,,,,,,,,,,,,,,,,,,,,,,,,,,,,,,,,,,,,,,,,,,,,,,,,,,,,,,,,,,,,,,,,,
3438,1645818256.300581,1645818256.354719,54.0,0.0,4360.0,4599.487305,4211.794922,4255.897461,4275.384765999999,0.0,1.0,15.0,,,,0.0,4.0,1.0,4.0,1.0,4.0,50.0,,,,,,,,27.0,0.0,0.179042,0.617188,-0.150635,-0.751221,0.8774549999999999,-0.46387399999999995,-0.20019800000000001,-0.016715999999999998,-0.027045,-0.031792,,,,,,,,,,,,,,,,,,,,,,,,,,,,,,,,,,,,,,,,,,,,,,,,,,,,,,,,,,,,,,,,,
3439,1645818256.308397,1645818256.362534,55.0,0.0,4336.410156,4448.205078,4187.692383,4313.333496,4263.077147999999,0.0,1.0,15.0,,,,0.0,4.0,1.0,4.0,1.0,4.0,50.0,,,,,,,,,,,,,,,,,,,,,,,,,,,,,,,,,,,,,,,,,,,,,,,,,,,,,,0.0,0.0,1.0,0.0,512.0,1.0,,,,,,,,,,,,,,,,,,,,,,,,,
3440,1645818256.3162131,1645818256.370348,56.0,0.0,4325.641113000001,4455.384765999999,4193.333496,4336.410156,4262.563965,0.0,1.0,15.0,,,,0.0,4.0,1.0,4.0,1.0,4.0,50.0,,,,,,,,28.0,0.0,0.179882,0.616943,-0.150635,-0.751221,0.894057,-0.46387399999999995,-0.19677999999999998,-0.015531999999999999,-0.027172,-0.034374,,,,,,,,,,,,,,,,,,,,,,,,,,,,,,,,,,,,,,,,,,,,,,,,,,,,,,,,,,,,,,,,,
3441,1645818256.3240302,1645818256.378163,57.0,0.0,4333.333496,4510.769043,4216.410156,4327.179688,4274.871582,0.0,1.0,15.0,,,,0.0,4.0,1.0,4.0,1.0,4.0,50.0,,,,,,,,,,,,,,,,,,,,,,,,,,,,,,,,,,,,,,,,,,,,,,,,,,,,,,,,,,,,,,,,,,,,,,,,,,,,,,,,,,,,
3442,1645818256.331846,1645818256.385877,58.0,0.0,4332.307617,4485.641113000001,4206.666504,4336.410156,4283.589844,0.0,1.0,15.0,,,,0.0,4.0,1.0,4.0,1.0,4.0,50.0,,,,,,,,29.0,0.0,0.178859,0.616943,-0.150635,-0.7514649999999999,0.885267,-0.442878,-0.191409,-0.016128,-0.027238,-0.036844999999999996,,,,,,,,,,,,,,,,,,,,,,,,,,,,,,,,,,,,,,,,,,,,,,,,,,,,,,,,,,,,,,,,,
3443,1645818256.3396618,1645818256.393692,59.0,0.0,4328.717772999999,4463.077147999999,4193.846191,4315.897461,4274.871582,0.0,1.0,15.0,,,,0.0,4.0,1.0,4.0,1.0,4.0,50.0,,,,,,,,,,,,,,,,,,,,,,,,,,,,,,,,,,,,,,,,,,,,,,,,,,,,,,0.0,0.0,1.0,0.0,512.0,1.0,,,,,,,,,,,,,,,,,,,,,,,,,
3444,1645818256.3474789,1645818256.401506,60.0,0.0,4344.102539,4472.307617,4217.94873,4314.358886999999,4278.974121,0.0,1.0,15.0,,,,0.0,4.0,1.0,4.0,1.0,4.0,50.0,,,,,,,,30.0,0.0,0.178859,0.616943,-0.150635,-0.7514649999999999,0.875502,-0.46582700000000005,-0.201175,-0.016566,-0.027101999999999998,-0.03277,,,,,,,,,,,,,,,,,,,,,,,,,,,,,,,,,,,,,,,,,,,,,,,,,,,,,,,,,,,,,,,,,
3445,1645818256.355295,1645818256.4093199,61.0,0.0,4351.794922,4537.94873,4235.897461,4349.743652,4302.563965,0.0,1.0,15.0,,,,0.0,4.0,1.0,4.0,1.0,4.0,50.0,,,,,,,,,,,,,,,,,,,,,,,,,,,,,,,,,,,,,,,,,,,,,,,,,,,,,,,,,,,,,,,,,,,,,,,,,,,,,,,,,,,,
3446,1645818256.363111,1645818256.417135,62.0,0.0,4332.820313,4588.205078,4212.820313,4315.384765999999,4294.871582,0.0,1.0,15.0,,,,0.0,4.0,1.0,4.0,1.0,4.0,50.0,,,,,,,,31.0,0.0,0.178653,0.616943,-0.15087899999999999,-0.7514649999999999,0.8808729999999999,-0.45557299999999995,-0.19971,-0.017155,-0.027029,-0.035401,,,,,,,,,,,,,,,,,,,,,,,,,,,,,,,,,,,,,,,,,,,,,,,,,,,,,,,,,,,,,,,,,
3447,1645818256.3709269,1645818256.424949,63.0,0.0,4324.615234000001,4507.692383,4195.897461,4263.077147999999,4267.692383,0.0,1.0,15.0,,,,0.0,4.0,1.0,4.0,1.0,4.0,50.0,1.0,33.333332,4.0,0.0,4.0,0.0,4.0,,,,,,,,,,,,,1.0,0.0,0.0,,,,,,,,,,,,,,,,,,,,,,,,,,,,,,,,0.0,0.0,1.0,0.0,512.0,1.0,1.930614,1.052218,1.28918,2.089865,2.021262,60.14036899999999,48.579357,42.916160999999995,14.273093,13.446359,3.5561239999999996,3.2348209999999997,3.196632,2.638743,2.04605,7.950848,5.667263,11.975297,6.029669999999999,4.843105,4.186659,2.094716,1.038999,3.065493,3.2276990000000003
3448,1645818256.378743,1645818256.432764,64.0,0.0,4332.307617,4433.333496,4196.410156,4276.922852000001,4268.717772999999,450.0,1.0,15.0,,,,0.0,4.0,1.0,4.0,1.0,4.0,50.0,,,,,,,,32.0,0.0,0.178653,0.616943,-0.15087899999999999,-0.7514649999999999,0.885756,-0.441413,-0.199222,-0.017735,-0.026963,-0.031373000000000005,,,,,,,,,,,,,,,,,,,,,,,,,,,,,,,,,,,,,,,,,,,,,,,,,,,,,,,,,,,,,,,,,
3449,1645818256.38656,1645818256.440578,65.0,0.0,4317.94873,4480.512695,4182.05127,4288.717772999999,4264.615234000001,450.0,1.0,15.0,,,,0.0,4.0,1.0,4.0,1.0,4.0,50.0,,,,,,,,,,,,,,,,,,,,,,,,,,,,,,,,,,,,,,,,,,,,,,,,,,,,,,,,,,,,,,,,,,,,,,,,,,,,,,,,,,,,
3450,1645818256.394376,1645818256.448392,66.0,0.0,4296.922852000001,4486.666504,4170.256348,4272.307617,4248.717772999999,16181.0,1.0,15.0,,,,0.0,4.0,1.0,4.0,1.0,4.0,50.0,,,,,,,,33.0,0.0,0.178653,0.616943,-0.15087899999999999,-0.7514649999999999,0.874525,-0.446784,-0.191897,-0.016498,-0.027099,-0.034095,,,,,,,,,,,,,,,,,,,,,,,,,,,,,,,,,,,,,,,,,,,,,,,,,,,,,,,,,,,,,,,,,
3451,1645818256.4021919,1645818256.456207,67.0,0.0,4304.615234000001,4439.487305,4183.077147999999,4287.179688,4261.538574,450.0,1.0,15.0,,,,0.0,4.0,1.0,4.0,1.0,4.0,50.0,,,,,,,,,,,,,,,,,,,,,,,,,,,,,,,,,,,,,,,,,,,,,,,,,,,,,,0.0,0.0,1.0,0.0,512.0,1.0,,,,,,,,,,,,,,,,,,,,,,,,,
3452,1645818256.410008,1645818256.463921,68.0,0.0,4320.0,4481.025879,4185.641113000001,4316.410156,4265.128418,18.0,1.0,15.0,,,,0.0,4.0,0.0,4.0,1.0,4.0,41.666668,,,,,,,,34.0,0.0,0.178653,0.616943,-0.15087899999999999,-0.7514649999999999,0.874525,-0.440436,-0.197269,-0.016996999999999998,-0.027074,-0.036496,,,,,,,,,,,,,,,,,,,,,,,,,,,,,,,,,,,,,,,,,,,,,,,,,,,,,,,,,,,,,,,,,
3453,1645818256.417825,1645818256.471736,69.0,0.0,4337.94873,4569.230957,4188.205078,4302.563965,4253.333496,450.0,1.0,15.0,,,,0.0,4.0,0.0,4.0,1.0,4.0,41.666668,,,,,,,,,,,,,,,,,,,,,,,,,,,,,,,,,,,,,,,,,,,,,,,,,,,,,,,,,,,,,,,,,,,,,,,,,,,,,,,,,,,,
3454,1645818256.425641,1645818256.47955,70.0,0.0,4348.717772999999,4572.820313,4215.384765999999,4258.461426,4270.256348,16158.0,1.0,15.0,,,,0.0,4.0,0.0,4.0,1.0,4.0,41.666668,,,,,,,,35.0,0.0,0.178653,0.616943,-0.15087899999999999,-0.7514649999999999,0.897475,-0.45459700000000003,-0.201175,-0.017495,-0.027052,-0.032554,,,,,,,,,,,,,,,,,,,,,,,,,,,,,,,,,,,,,,,,,,,,,,,,,,,,,,,,,,,,,,,,,
3455,1645818256.4334571,1645818256.487365,71.0,0.0,4327.179688,4528.205078,4212.307617,4256.410156,4276.410156,450.0,1.0,15.0,,,,0.0,4.0,0.0,4.0,1.0,4.0,41.666668,,,,,,,,,,,,,,,,,,,,,,,,,,,,,,,,,,,,,,,,,,,,,,,,,,,,,,0.0,0.0,1.0,0.0,512.0,1.0,,,,,,,,,,,,,,,,,,,,,,,,,
3456,1645818256.441273,1645818256.495179,72.0,0.0,4296.410156,4573.846191,4169.743652,4267.179688,4240.512695,450.0,1.0,15.0,,,,0.0,4.0,0.0,4.0,1.0,4.0,41.666668,,,,,,,,36.0,0.0,0.178837,0.617188,-0.15087899999999999,-0.751221,0.882338,-0.47363999999999995,-0.190921,-0.017894,-0.027082,-0.028810000000000002,,,,,,,,,,,,,,,,,,,,,,,,,,,,,,,,,,,,,,,,,,,,,,,,,,,,,,,,,,,,,,,,,
3457,1645818256.44909,1645818256.5029929,73.0,0.0,4298.461426,4610.256348,4160.512695,4241.538574,4228.205078,66.0,1.0,15.0,,,,0.0,4.0,0.0,4.0,1.0,4.0,41.666668,,,,,,,,,,,,,,,,,,,,,,,,,,,,,,,,,,,,,,,,,,,,,,,,,,,,,,,,,,,,,,,,,,,,,,,,,,,,,,,,,,,,
3458,1645818256.456906,1645818256.510808,74.0,0.0,4332.820313,4529.743652,4197.94873,4257.436035,4273.333496,450.0,1.0,15.0,,,,0.0,4.0,0.0,4.0,1.0,4.0,41.666668,,,,,,,,37.0,0.0,0.178837,0.617188,-0.15087899999999999,-0.751221,0.874525,-0.435554,-0.196292,-0.018253,-0.027058999999999996,-0.031593,,,,,,,,,,,,,,,,,,,,,,,,,,,,,,,,,,,,,,,,,,,,,,,,,,,,,,,,,,,,,,,,,
3459,1645818256.4647222,1645818256.5186222,75.0,0.0,4335.384765999999,4473.333496,4188.717772999999,4280.0,4289.230957,16227.0,1.0,15.0,,,,0.0,4.0,0.0,4.0,1.0,4.0,41.666668,,,,,,,,,,,,,,,,,,,,,,,,,,,,,,,,,,,,,,,,,,,,,,,,,,,,,,0.0,0.0,1.0,0.0,512.0,1.0,,,,,,,,,,,,,,,,,,,,,,,,,
3460,1645818256.472538,1645818256.5264368,76.0,0.0,4313.333496,4522.563965,4148.717772999999,4252.307617,4262.05127,450.0,1.0,15.0,,,,0.0,4.0,0.0,4.0,1.0,4.0,41.666668,,,,,,,,38.0,0.0,0.179042,0.617188,-0.150635,-0.751221,0.8759899999999999,-0.446296,-0.193851,-0.016965,-0.026989999999999997,-0.027993999999999998,,,,,,,,,,,,,,,,,,,,,,,,,,,,,,,,,,,,,,,,,,,,,,,,,,,,,,,,,,,,,,,,,
3461,1645818256.4803538,1645818256.534151,77.0,0.0,4315.897461,4550.256348,4146.153809,4268.717772999999,4249.743652,450.0,1.0,15.0,,,,0.0,4.0,0.0,4.0,1.0,4.0,41.666668,,,,,,,,,,,,,,,,,,,,,,,,,,,,,,,,,,,,,,,,,,,,,,,,,,,,,,,,,,,,,,,,,,,,,,,,,,,,,,,,,,,,
3462,1645818256.488171,1645818256.541966,78.0,0.0,4333.333496,4531.282227000001,4164.615234000001,4302.563965,4257.94873,450.0,1.0,15.0,,,,0.0,4.0,0.0,4.0,1.0,4.0,41.666668,,,,,,,,39.0,0.0,0.179042,0.617188,-0.150635,-0.751221,0.870619,-0.45557299999999995,-0.190433,-0.017319,-0.026976999999999998,-0.024804,,,,,,,,,,,,,,,,,,,,,,,,,,,,,,,,,,,,,,,,,,,,,,,,,,,,,,,,,,,,,,,,,
3463,1645818256.495987,1645818256.5497801,79.0,0.0,4343.589844,4569.743652,4180.0,4247.179688,4280.512695,16227.0,1.0,15.0,,,,0.0,4.0,0.0,4.0,1.0,4.0,41.666668,,,,,,,,,,,,,,,,,,,,1.0,0.0,0.0,,,,,,,,,,,,,,,,,,,,,,,,,,,,,,,,0.0,0.0,1.0,0.0,512.0,1.0,2.014022,1.127109,1.7161220000000001,2.632765,2.134328,47.768528,42.423988,43.905075,15.003471,13.059796,3.139671,3.540068,3.444982,3.038543,2.212255,6.745399000000001,4.648769000000001,9.663076,5.846992,5.7360690000000005,3.8175730000000003,2.435098,1.4312610000000001,3.218196,3.264001
3464,1645818256.503803,1645818256.557594,80.0,0.0,4328.717772999999,4569.230957,4175.897461,4226.666504,4283.589844,450.0,1.0,15.0,,,,0.0,4.0,0.0,4.0,1.0,4.0,41.666668,,,,,,,,40.0,0.0,0.179042,0.617188,-0.150635,-0.751221,0.8691540000000001,-0.45361999999999997,-0.193851,-0.017833,-0.026916000000000002,-0.021884,,,,,,,,,,,,,,,,,,,,,,,,,,,,,,,,,,,,,,,,,,,,,,,,,,,,,,,,,,,,,,,,,
3465,1645818256.5116189,1645818256.565409,81.0,0.0,4320.512695,4473.846191,4175.384765999999,4287.179688,4275.897461,450.0,1.0,15.0,,,,0.0,4.0,0.0,4.0,1.0,4.0,41.666668,,,,,,,,,,,,,,,,,,,,,,,,,,,,,,,,,,,,,,,,,,,,,,,,,,,,,,,,,,,,,,,,,,,,,,,,,,,,,,,,,,,,
3466,1645818256.519436,1645818256.573223,82.0,0.0,4338.974121,4493.846191,4196.922852000001,4267.179688,4278.974121,450.0,1.0,15.0,,,,0.0,4.0,0.0,4.0,1.0,4.0,41.666668,,,,,,,,41.0,0.0,0.179042,0.617188,-0.150635,-0.751221,0.879408,-0.46582700000000005,-0.197757,-0.01644,-0.026861000000000003,-0.025507,,,,,,,,,,,,,,,,,,,,,,,,,,,,,,,,,,,,,,,,,,,,,,,,,,,,,,,,,,,,,,,,,
3467,1645818256.527252,1645818256.581038,83.0,0.0,4350.769043,4623.589844,4193.333496,4223.589844,4282.05127,16227.0,1.0,15.0,,,,0.0,4.0,0.0,4.0,1.0,4.0,41.666668,,,,,,,,,,,,,,,,,,,,,,,,,,,,,,,,,,,,,,,,,,,,,,,,,,,,,,0.0,0.0,1.0,0.0,512.0,1.0,,,,,,,,,,,,,,,,,,,,,,,,,
3468,1645818256.535068,1645818256.588852,84.0,0.0,4317.436035,4592.307617,4147.179688,4251.282227000001,4255.384765999999,450.0,1.0,15.0,,,,0.0,4.0,0.0,4.0,1.0,4.0,41.666668,,,,,,,,42.0,0.0,0.179042,0.617188,-0.150635,-0.751221,0.870619,-0.45557299999999995,-0.190433,-0.017043,-0.026860000000000002,-0.022565,,,,,,,,,,,,,,,,,,,,,,,,,,,,,,,,,,,,,,,,,,,,,,,,,,,,,,,,,,,,,,,,,
3469,1645818256.5428839,1645818256.596666,85.0,0.0,4298.974121,4470.256348,4133.333496,4264.615234000001,4234.871582,450.0,1.0,15.0,,,,0.0,4.0,0.0,4.0,1.0,4.0,41.666668,,,,,,,,,,,,,,,,,,,,,,,,,,,,,,,,,,,,,,,,,,,,,,,,,,,,,,,,,,,,,,,,,,,,,,,,,,,,,,,,,,,,
3470,1645818256.550701,1645818256.604481,86.0,0.0,4328.717772999999,4512.820313,4157.94873,4270.769043,4252.307617,450.0,1.0,15.0,,,,0.0,4.0,0.0,4.0,1.0,4.0,41.666668,,,,,,,,43.0,0.0,0.179042,0.617188,-0.150635,-0.751221,0.879408,-0.46582700000000005,-0.197757,-0.015729,-0.026811,-0.026119,,,,,,,,,,,,,,,,,,,,,,,,,,,,,,,,,,,,,,,,,,,,,,,,,,,,,,,,,,,,,,,,,
3471,1645818256.558517,1645818256.612195,87.0,0.0,4341.538574,4553.333496,4167.179688,4285.641113000001,4264.102539,16227.0,1.0,15.0,,,,0.0,4.0,0.0,4.0,1.0,4.0,41.666668,,,,,,,,,,,,,,,,,,,,,,,,,,,,,,,,,,,,,,,,,,,,,,,,,,,,,,0.0,0.0,1.0,0.0,512.0,1.0,,,,,,,,,,,,,,,,,,,,,,,,,
3472,1645818256.566333,1645818256.62001,88.0,0.0,4326.666504,4484.102539,4165.641113000001,4272.820313,4259.487305,450.0,1.0,15.0,,,,0.0,4.0,0.0,4.0,1.0,4.0,41.666668,,,,,,,,44.0,0.0,0.180064,0.617188,-0.150635,-0.750977,0.876967,-0.467292,-0.188968,-0.016402,-0.026816000000000003,-0.023117,,,,,,,,,,,,,,,,,,,,,,,,,,,,,,,,,,,,,,,,,,,,,,,,,,,,,,,,,,,,,,,,,
3473,1645818256.5741491,1645818256.627824,89.0,0.0,4336.410156,4480.0,4176.922852000001,4275.384765999999,4279.487305,450.0,1.0,15.0,,,,0.0,4.0,0.0,4.0,1.0,4.0,41.666668,,,,,,,,,,,,,,,,,,,,,,,,,,,,,,,,,,,,,,,,,,,,,,,,,,,,,,,,,,,,,,,,,,,,,,,,,,,,,,,,,,,,
3474,1645818256.581966,1645818256.635639,90.0,0.0,4358.974121,4542.05127,4180.512695,4276.410156,4305.128418,450.0,1.0,15.0,,,,0.0,4.0,0.0,4.0,1.0,4.0,41.666668,,,,,,,,45.0,0.0,0.179225,0.617432,-0.150635,-0.750977,0.8808729999999999,-0.46533900000000006,-0.18799100000000002,-0.016909999999999998,-0.026868,-0.026567,,,,,,,,,,,,,,,,,,,,,,,,,,,,,,,,,,,,,,,,,,,,,,,,,,,,,,,,,,,,,,,,,
3475,1645818256.589782,1645818256.643453,91.0,0.0,4342.563965,4588.717772999999,4158.974121,4232.820313,4277.436035,16227.0,1.0,15.0,,,,0.0,4.0,0.0,4.0,1.0,4.0,41.666668,,,,,,,,,,,,,,,,,,,,,,,,,,,,,,,,,,,,,,,,,,,,,,,,,,,,,,0.0,0.0,1.0,0.0,512.0,1.0,,,,,,,,,,,,,,,,,,,,,,,,,
3476,1645818256.597598,1645818256.651267,92.0,0.0,4314.358886999999,4535.897461,4141.538574,4240.0,4239.487305,450.0,1.0,15.0,,,,0.0,4.0,0.0,4.0,1.0,4.0,41.666668,,,,,,,,46.0,0.0,0.18024500000000002,0.617432,-0.150635,-0.750732,0.8798959999999999,-0.45069,-0.19336199999999998,-0.017368,-0.026965,-0.029720999999999997,,,,,,,,,,,,,,,,,,,,,,,,,,,,,,,,,,,,,,,,,,,,,,,,,,,,,,,,,,,,,,,,,
3477,1645818256.6054142,1645818256.659082,93.0,0.0,4330.769043,4489.743652,4165.128418,4280.0,4263.077147999999,450.0,1.0,15.0,,,,0.0,4.0,0.0,4.0,1.0,4.0,41.666668,,,,,,,,,,,,,,,,,,,,,,,,,,,,,,,,,,,,,,,,,,,,,,,,,,,,,,,,,,,,,,,,,,,,,,,,,,,,,,,,,,,,
3478,1645818256.613231,1645818256.666896,94.0,0.0,4351.282227000001,4562.05127,4186.153809,4238.461426,4288.205078,450.0,1.0,15.0,,,,0.0,4.0,0.0,4.0,1.0,4.0,41.666668,,,,,,,,47.0,0.0,0.18004,0.617432,-0.15087899999999999,-0.750732,0.866712,-0.45557299999999995,-0.202152,-0.016217,-0.027052,-0.032657,,,,,,,,,,,,,,,,,,,,,,,,,,,,,,,,,,,,,,,,,,,,,,,,,,,,,,,,,,,,,,,,,
3479,1645818256.621047,1645818256.674711,95.0,0.0,4329.743652,4557.94873,4171.794922,4217.94873,4264.615234000001,16227.0,1.0,15.0,,,,0.0,4.0,0.0,4.0,1.0,4.0,41.666668,,,,,,,,,,,,,,,,,,,,1.0,0.0,0.0,,,,,,,,,,,,,,,,,,,,,,,,,,,,,,,,0.0,0.0,1.0,0.0,512.0,1.0,2.026151,1.176316,2.208581,3.371229,2.23739,34.083861999999996,35.657665,42.329155,16.341204,12.668892,2.632858,3.6671480000000005,3.567619,3.526192,2.3742490000000003,5.439293,3.744743,7.204321,5.163478,6.570071,3.234998,2.771618,1.92235,3.461733,3.197927
3480,1645818256.628863,1645818256.682425,96.0,0.0,4307.179688,4475.897461,4152.307617,4253.846191,4240.512695,450.0,1.0,15.0,,,,0.0,4.0,0.0,4.0,1.0,4.0,41.666668,,,,,,,,48.0,0.0,0.18004,0.617432,-0.15087899999999999,-0.750732,0.870619,-0.462409,-0.199222,-0.016694999999999998,-0.026933999999999996,-0.035349,,,,,,,,,,,,,,,,,,,,,,,,,,,,,,,,,,,,,,,,,,,,,,,,,,,,,,,,,,,,,,,,,
3481,1645818256.636679,1645818256.690239,97.0,0.0,4310.769043,4491.282227000001,4144.615234000001,4283.589844,4237.436035,450.0,1.0,15.0,,,,0.0,4.0,0.0,4.0,1.0,4.0,41.666668,,,,,,,,,,,,,,,,,,,,,,,,,,,,,,,,,,,,,,,,,,,,,,,,,,,,,,,,,,,,,,,,,,,,,,,,,,,,,,,,,,,,
3482,1645818256.644495,1645818256.6980538,98.0,0.0,4335.384765999999,4542.563965,4152.820313,4293.333496,4258.974121,450.0,1.0,15.0,,,,0.0,4.0,0.0,4.0,1.0,4.0,41.666668,,,,,,,,49.0,0.0,0.18004,0.617432,-0.15087899999999999,-0.750732,0.8740370000000001,-0.45996800000000004,-0.189944,-0.017075999999999997,-0.027024,-0.037575,,,,,,,,,,,,,,,,,,,,,,,,,,,,,,,,,,,,,,,,,,,,,,,,,,,,,,,,,,,,,,,,,
3483,1645818256.6523118,1645818256.705868,99.0,0.0,4346.153809,4536.922852000001,4155.897461,4253.846191,4271.282227000001,16227.0,1.0,15.0,,,,0.0,4.0,0.0,4.0,1.0,4.0,41.666668,,,,,,,,,,,,,,,,,,,,,,,,,,,,,,,,,,,,,,,,,,,,,,,,,,,,,,0.0,0.0,1.0,0.0,512.0,1.0,,,,,,,,,,,,,,,,,,,,,,,,,
3484,1645818256.6601279,1645818256.713683,100.0,0.0,4346.153809,4513.846191,4149.230957,4228.717772999999,4265.641113000001,450.0,1.0,15.0,,,,0.0,4.0,0.0,4.0,1.0,4.0,41.666668,,,,,,,,50.0,0.0,0.18004,0.617432,-0.15087899999999999,-0.750732,0.879408,-0.455085,-0.201175,-0.017566,-0.026910000000000003,-0.033427,,,,,,,,,,,,,,,,,,,,,,,,,,,,,,,,,,,,,,,,,,,,,,,,,,,,,,,,,,,,,,,,,
3485,1645818256.667944,1645818256.721497,101.0,0.0,4355.897461,4474.358886999999,4156.410156,4261.025879,4272.820313,450.0,1.0,15.0,,,,0.0,4.0,0.0,4.0,1.0,4.0,41.666668,,,,,,,,,,,,,,,,,,,,,,,,,,,,,,,,,,,,,,,,,,,,,,,,,,,,,,,,,,,,,,,,,,,,,,,,,,,,,,,,,,,,
3486,1645818256.67576,1645818256.729312,102.0,0.0,4356.922852000001,4498.974121,4167.179688,4262.563965,4278.974121,450.0,1.0,15.0,,,,0.0,4.0,0.0,4.0,1.0,4.0,41.666668,,,,,,,,51.0,0.0,0.18004,0.617432,-0.15087899999999999,-0.750732,0.8881969999999999,-0.468757,-0.204593,-0.01786,-0.026904,-0.029693999999999998,,,,,,,,,,,,,,,,,,,,,,,,,,,,,,,,,,,,,,,,,,,,,,,,,,,,,,,,,,,,,,,,,
3487,1645818256.683577,1645818256.7371259,103.0,0.0,4340.0,4568.717772999999,4161.025879,4242.563965,4265.641113000001,16227.0,1.0,15.0,,,,0.0,4.0,0.0,4.0,1.0,4.0,41.666668,,,,,,,,,,,,,,,,,,,,,,,,,,,,,,,,,,,,,,,,,,,,,,,,,,,,,,0.0,0.0,1.0,0.0,512.0,1.0,,,,,,,,,,,,,,,,,,,,,,,,,
3488,1645818256.691393,1645818256.74494,104.0,0.0,4353.846191,4529.230957,4171.794922,4262.563965,4270.769043,450.0,1.0,15.0,,,,0.0,4.0,0.0,4.0,1.0,4.0,41.666668,,,,,,,,52.0,0.0,0.18004,0.617432,-0.15087899999999999,-0.750732,0.8759899999999999,-0.45215500000000003,-0.194827,-0.016562,-0.026899,-0.032389,,,,,,,,,,,,,,,,,,,,,,,,,,,,,,,,,,,,,,,,,,,,,,,,,,,,,,,,,,,,,,,,,
3489,1645818256.699209,1645818256.752655,105.0,0.0,4387.179688,4462.05127,4198.974121,4268.717772999999,4298.974121,450.0,1.0,15.0,,,,0.0,4.0,0.0,4.0,1.0,4.0,41.666668,,,,,,,,,,,,,,,,,,,,,,,,,,,,,,,,,,,,,,,,,,,,,,,,,,,,,,,,,,,,,,,,,,,,,,,,,,,,,,,,,,,,
3490,1645818256.707025,1645818256.760469,106.0,0.0,4367.179688,4467.692383,4191.282227000001,4254.871582,4302.05127,450.0,1.0,15.0,,,,0.0,4.0,0.0,4.0,1.0,4.0,41.666668,,,,,,,,53.0,0.0,0.18004,0.617432,-0.15087899999999999,-0.750732,0.8798959999999999,-0.462409,-0.186038,-0.016957,-0.026944,-0.028758999999999996,,,,,,,,,,,,,,,,,,,,,,,,,,,,,,,,,,,,,,,,,,,,,,,,,,,,,,,,,,,,,,,,,
3491,1645818256.7148411,1645818256.768284,107.0,0.0,4323.077147999999,4494.358886999999,4155.384765999999,4243.589844,4273.333496,16227.0,1.0,15.0,,,,0.0,4.0,0.0,4.0,1.0,4.0,41.666668,,,,,,,,,,,,,,,,,,,,,,,,,,,,,,,,,,,,,,,,,,,,,,,,,,,,,,0.0,0.0,1.0,0.0,512.0,1.0,,,,,,,,,,,,,,,,,,,,,,,,,
3492,1645818256.722658,1645818256.776098,108.0,0.0,4334.871582,4562.563965,4158.461426,4225.641113000001,4264.102539,450.0,1.0,15.0,,,,0.0,4.0,0.0,4.0,1.0,4.0,41.666668,,,,,,,,54.0,0.0,0.18004,0.617432,-0.15087899999999999,-0.750732,0.89015,-0.46387399999999995,-0.19971,-0.01741,-0.026935,-0.025493000000000002,,,,,,,,,,,,,,,,,,,,,,,,,,,,,,,,,,,,,,,,,,,,,,,,,,,,,,,,,,,,,,,,,
3493,1645818256.730474,1645818256.783912,109.0,0.0,4364.102539,4611.794922,4180.512695,4233.846191,4285.641113000001,450.0,1.0,15.0,,,,0.0,4.0,0.0,4.0,1.0,4.0,41.666668,,,,,,,,,,,,,,,,,,,,,,,,,,,,,,,,,,,,,,,,,,,,,,,,,,,,,,,,,,,,,,,,,,,,,,,,,,,,,,,,,,,,
3494,1645818256.73829,1645818256.791727,110.0,0.0,4337.94873,4543.077147999999,4163.077147999999,4262.05127,4269.743652,450.0,1.0,15.0,,,,0.0,4.0,0.0,4.0,1.0,4.0,41.666668,,,,,,,,55.0,0.0,0.179019,0.617432,-0.15087899999999999,-0.750977,0.8881969999999999,-0.45801499999999995,-0.194339,-0.016206,-0.027025,-0.022406,,,,,,,,,,,,,,,,,,,,,,,,,,,,,,,,,,,,,,,,,,,,,,,,,,,,,,,,,,,,,,,,,
3495,1645818256.746107,1645818256.799541,111.0,0.0,4325.128418,4495.897461,4164.615234000001,4238.461426,4255.384765999999,16227.0,1.0,15.0,,,,0.0,4.0,0.0,4.0,1.0,4.0,41.666668,,,,,,,,,,,,,,,,,,,,1.0,0.0,0.0,,,,,,,,,,,,,,,,,,,,,,,,,,,,,,,,0.0,0.0,1.0,0.0,512.0,1.0,1.98025,1.2228290000000002,2.6364669999999997,4.12871,2.3109,22.472071,30.376621000000004,39.428089,17.952023999999998,12.616728,2.19726,3.6406440000000004,3.564635,4.046849,2.4866189999999997,4.440392,3.2686290000000002,5.457799,4.219682,7.087225,2.646887,3.0773189999999997,2.341827,3.699558,3.0335259999999997
3496,1645818256.753923,1645818256.807356,112.0,0.0,4366.153809,4540.0,4199.487305,4225.641113000001,4301.025879,450.0,1.0,15.0,,,,0.0,4.0,0.0,4.0,1.0,4.0,41.666668,,,,,,,,56.0,0.0,0.179019,0.617432,-0.15087899999999999,-0.750977,0.878431,-0.45557299999999995,-0.189944,-0.015318,-0.027007999999999997,-0.026025,,,,,,,,,,,,,,,,,,,,,,,,,,,,,,,,,,,,,,,,,,,,,,,,,,,,,,,,,,,,,,,,,
3497,1645818256.761739,1645818256.8151698,113.0,0.0,4378.461426,4544.615234000001,4188.205078,4264.102539,4318.461426,450.0,1.0,15.0,,,,0.0,4.0,0.0,4.0,1.0,4.0,41.666668,,,,,,,,,,,,,,,,,,,,,,,,,,,,,,,,,,,,,,,,,,,,,,,,,,,,,,,,,,,,,,,,,,,,,,,,,,,,,,,,,,,,
3498,1645818256.769555,1645818256.822885,114.0,0.0,4346.666504,4501.025879,4157.94873,4269.743652,4279.487305,450.0,1.0,15.0,,,,0.0,4.0,0.0,4.0,1.0,4.0,41.666668,,,,,,,,57.0,0.0,0.179019,0.617432,-0.15087899999999999,-0.750977,0.874525,-0.461433,-0.190433,-0.016031999999999998,-0.027139,-0.023032,,,,,,,,,,,,,,,,,,,,,,,,,,,,,,,,,,,,,,,,,,,,,,,,,,,,,,,,,,,,,,,,,
3499,1645818256.7773721,1645818256.830699,115.0,0.0,4343.589844,4455.897461,4168.205078,4264.615234000001,4281.538574,16227.0,1.0,15.0,,,,0.0,4.0,0.0,4.0,1.0,4.0,41.666668,,,,,,,,,,,,,,,,,,,,,,,,,,,,,,,,,,,,,,,,,,,,,,,,,,,,,,0.0,0.0,1.0,0.0,512.0,1.0,,,,,,,,,,,,,,,,,,,,,,,,,
3500,1645818256.7851882,1645818256.8385131,116.0,0.0,4363.077147999999,4458.461426,4178.974121,4271.282227000001,4310.256348,450.0,1.0,15.0,,,,0.0,4.0,0.0,4.0,1.0,4.0,41.666668,,,,,,,,58.0,0.0,0.179019,0.617432,-0.15087899999999999,-0.750977,0.875502,-0.44971400000000006,-0.190433,-0.016626,-0.027208999999999997,-0.026588,,,,,,,,,,,,,,,,,,,,,,,,,,,,,,,,,,,,,,,,,,,,,,,,,,,,,,,,,,,,,,,,,
3501,1645818256.7930038,1645818256.846328,117.0,0.0,4372.307617,4531.794922,4190.769043,4250.769043,4310.769043,450.0,1.0,15.0,,,,0.0,4.0,0.0,4.0,1.0,4.0,41.666668,,,,,,,,,,,,,,,,,,,,,,,,,,,,,,,,,,,,,,,,,,,,,,,,,,,,,,,,,,,,,,,,,,,,,,,,,,,,,,,,,,,,
3502,1645818256.8008199,1645818256.854142,118.0,0.0,4356.410156,4545.641113000001,4197.436035,4232.307617,4289.230957,450.0,1.0,15.0,,,,0.0,4.0,0.0,4.0,1.0,4.0,41.666668,,,,,,,,59.0,0.0,0.179019,0.617432,-0.15087899999999999,-0.750977,0.8774549999999999,-0.45948,-0.183597,-0.017161000000000003,-0.027270999999999997,-0.023538999999999997,,,,,,,,,,,,,,,,,,,,,,,,,,,,,,,,,,,,,,,,,,,,,,,,,,,,,,,,,,,,,,,,,
3503,1645818256.808636,1645818256.861957,119.0,0.0,4326.153809,4465.128418,4163.077147999999,4261.538574,4257.436035,16227.0,1.0,15.0,,,,0.0,4.0,0.0,4.0,1.0,4.0,41.666668,,,,,,,,,,,,,,,,,,,,,,,,,,,,,,,,,,,,,,,,,,,,,,,,,,,,,,0.0,0.0,1.0,0.0,512.0,1.0,,,,,,,,,,,,,,,,,,,,,,,,,
3504,1645818256.816453,1645818256.869771,120.0,0.0,4324.102539,4444.615234000001,4147.692383,4293.846191,4253.333496,450.0,1.0,15.0,,,,0.0,4.0,0.0,4.0,1.0,4.0,41.666668,,,,,,,,60.0,0.0,0.179019,0.617432,-0.15087899999999999,-0.750977,0.8847790000000001,-0.45459700000000003,-0.199222,-0.015982,-0.027181,-0.027142000000000003,,,,,,,,,,,,,,,,,,,,,,,,,,,,,,,,,,,,,,,,,,,,,,,,,,,,,,,,,,,,,,,,,
3505,1645818256.824269,1645818256.877585,121.0,0.0,4339.487305,4501.538574,4181.025879,4277.436035,4280.512695,450.0,1.0,15.0,,,,0.0,4.0,0.0,4.0,1.0,4.0,41.666668,,,,,,,,,,,,,,,,,,,,,,,,,,,,,,,,,,,,,,,,,,,,,,,,,,,,,,,,,,,,,,,,,,,,,,,,,,,,,,,,,,,,
3506,1645818256.832085,1645818256.8854,122.0,0.0,4340.0,4525.128418,4196.922852000001,4263.589844,4287.692383,450.0,1.0,15.0,,,,0.0,4.0,0.0,4.0,1.0,4.0,41.666668,,,,,,,,61.0,0.0,0.18004,0.617432,-0.15087899999999999,-0.750732,0.886732,-0.45264399999999994,-0.191409,-0.016531999999999998,-0.027148000000000002,-0.030189999999999998,,,,,,,,,,,,,,,,,,,,,,,,,,,,,,,,,,,,,,,,,,,,,,,,,,,,,,,,,,,,,,,,,
3507,1645818256.839901,1645818256.893214,123.0,0.0,4357.436035,4537.436035,4196.922852000001,4294.358886999999,4295.384765999999,16227.0,1.0,15.0,,,,0.0,4.0,0.0,4.0,1.0,4.0,41.666668,,,,,,,,,,,,,,,,,,,,,,,,,,,,,,,,,,,,,,,,,,,,,,,,,,,,,,0.0,0.0,1.0,0.0,512.0,1.0,,,,,,,,,,,,,,,,,,,,,,,,,
3508,1645818256.847718,1645818256.900929,124.0,0.0,4367.179688,4517.436035,4194.358886999999,4297.436035,4308.717772999999,450.0,1.0,15.0,,,,0.0,4.0,0.0,4.0,1.0,4.0,41.666668,,,,,,,,62.0,0.0,0.179859,0.617188,-0.15087899999999999,-0.750977,0.862806,-0.45655,-0.18115499999999998,-0.017027,-0.027119,-0.032931999999999996,,,,,,,,,,,,,,,,,,,,,,,,,,,,,,,,,,,,,,,,,,,,,,,,,,,,,,,,,,,,,,,,,
3509,1645818256.855534,1645818256.908743,125.0,0.0,4350.256348,4483.077147999999,4198.974121,4260.512695,4296.922852000001,450.0,1.0,15.0,,,,0.0,4.0,0.0,4.0,1.0,4.0,41.666668,,,,,,,,,,,,,,,,,,,,,,,,,,,,,,,,,,,,,,,,,,,,,,,,,,,,,,,,,,,,,,,,,,,,,,,,,,,,,,,,,,,,
3510,1645818256.86335,1645818256.916458,126.0,0.0,4347.692383,4529.743652,4205.128418,4269.743652,4286.666504,450.0,1.0,15.0,,,,0.0,4.0,0.0,4.0,1.0,4.0,41.666668,,,,,,,,63.0,0.0,0.179859,0.617188,-0.15087899999999999,-0.750977,0.876967,-0.458503,-0.19336199999999998,-0.017571,-0.027044,-0.03545,,,,,,,,,,,,,,,,,,,,,,,,,,,,,,,,,,,,,,,,,,,,,,,,,,,,,,,,,,,,,,,,,
3511,1645818256.871166,1645818256.924272,127.0,0.0,4341.025879,4549.743652,4187.692383,4293.846191,4276.410156,233.0,1.0,15.0,,,,0.0,4.0,0.0,4.0,1.0,4.0,41.666668,1.0,33.333332,4.0,0.0,4.0,0.0,4.0,,,,,,,,,,,,,1.0,0.0,0.0,,,,,,,,,,,,,,,,,,,,,,,,,,,,,,,,0.0,0.0,1.0,0.0,512.0,1.0,1.919114,1.3039530000000001,2.887893,4.707032,2.354152,15.126921,27.219875,36.600372,19.388203,13.276073,1.907159,3.573432,3.492719,4.494999,2.525934,3.972897,3.30657,4.843319999999999,3.331904,7.143956,2.243376,3.3300199999999998,2.546609,3.827372,2.8130759999999997
3512,1645818256.878982,1645818256.932087,0.0,0.0,4330.256348,4497.94873,4172.307617,4261.538574,4274.358886999999,450.0,1.0,15.0,,,,0.0,4.0,0.0,4.0,1.0,4.0,41.666668,,,,,,,,0.0,0.0,0.179859,0.617188,-0.15087899999999999,-0.750977,0.873549,-0.45069,-0.201175,-0.017865,-0.027025,-0.037716,,,,,,,,,,,,,,,,,,,,,,,,,,,,,,,,,,,,,,,,,,,,,,,,,,,,,,,,,,,,,,,,,
3513,1645818256.886799,1645818256.9399009,1.0,0.0,4350.769043,4465.128418,4191.282227000001,4269.230957,4306.666504,450.0,1.0,15.0,,,,0.0,4.0,0.0,4.0,1.0,4.0,41.666668,,,,,,,,,,,,,,,,,,,,,,,,,,,,,,,,,,,,,,,,,,,,,,,,,,,,,,,,,,,,,,,,,,,,,,,,,,,,,,,,,,,,
3514,1645818256.894615,1645818256.947715,2.0,0.0,4362.563965,4488.717772999999,4204.102539,4307.179688,4322.563965,16193.0,1.0,15.0,,,,0.0,4.0,0.0,4.0,1.0,4.0,41.666668,,,,,,,,1.0,0.0,0.179859,0.617188,-0.15087899999999999,-0.750977,0.8808729999999999,-0.45996800000000004,-0.212894,-0.018178,-0.027007999999999997,-0.039657,,,,,,,,,,,,,,,,,,,,,,,,,,,,,,,,,,,,,,,,,,,,,,,,,,,,,,,,,,,,,,,,,
3515,1645818256.902431,1645818256.9555302,3.0,0.0,4344.102539,4546.666504,4190.769043,4281.025879,4298.974121,450.0,1.0,15.0,,,,0.0,4.0,0.0,4.0,1.0,4.0,41.666668,,,,,,,,,,,,,,,,,,,,,,,,,,,,,,,,,,,,,,,,,,,,,,,,,,,,,,0.0,0.0,1.0,0.0,512.0,1.0,,,,,,,,,,,,,,,,,,,,,,,,,
3516,1645818256.910247,1645818256.9633439,4.0,0.0,4348.717772999999,4583.077147999999,4193.333496,4268.717772999999,4298.461426,0.0,1.0,15.0,,,,0.0,4.0,0.0,4.0,1.0,4.0,41.666668,,,,,,,,2.0,0.0,0.179225,0.617432,-0.150635,-0.750977,0.8872209999999999,-0.45606199999999997,-0.201663,-0.018606,-0.026993,-0.035301,,,,,,,,,,,,,,,,,,,,,,,,,,,,,,,,,,,,,,,,,,,,,,,,,,,,,,,,,,,,,,,,,
3517,1645818256.918064,1645818256.971159,5.0,0.0,4353.846191,4586.153809,4198.461426,4326.666504,4315.897461,450.0,1.0,15.0,,,,0.0,4.0,0.0,4.0,1.0,4.0,41.666668,,,,,,,,,,,,,,,,,,,,,,,,,,,,,,,,,,,,,,,,,,,,,,,,,,,,,,,,,,,,,,,,,,,,,,,,,,,,,,,,,,,,
3518,1645818256.9258802,1645818256.9789732,6.0,0.0,4342.563965,4534.358886999999,4211.282227000001,4358.461426,4315.384765999999,16133.0,1.0,15.0,,,,0.0,4.0,0.0,4.0,1.0,4.0,41.666668,,,,,,,,3.0,0.0,0.179225,0.617432,-0.150635,-0.750977,0.881849,-0.446784,-0.19336199999999998,-0.018943,-0.026930000000000003,-0.031331,,,,,,,,,,,,,,,,,,,,,,,,,,,,,,,,,,,,,,,,,,,,,,,,,,,,,,,,,,,,,,,,,
3519,1645818256.933696,1645818256.986687,7.0,0.0,4353.846191,4477.436035,4237.436035,4315.384765999999,4321.025879,450.0,1.0,15.0,,,,0.0,4.0,0.0,4.0,1.0,4.0,41.666668,,,,,,,,,,,,,,,,,,,,,,,,,,,,,,,,,,,,,,,,,,,,,,,,,,,,,,0.0,0.0,1.0,0.0,512.0,1.0,,,,,,,,,,,,,,,,,,,,,,,,,
3520,1645818256.9415119,1645818256.994502,8.0,0.0,4362.563965,4502.05127,4242.05127,4286.666504,4332.820313,450.0,1.0,15.0,,,,0.0,4.0,0.0,4.0,1.0,4.0,41.666668,,,,,,,,4.0,0.0,0.17940599999999998,0.617676,-0.150635,-0.750732,0.8798959999999999,-0.45948,-0.18701500000000001,-0.017731999999999998,-0.026923000000000002,-0.034009,,,,,,,,,,,,,,,,,,,,,,,,,,,,,,,,,,,,,,,,,,,,,,,,,,,,,,,,,,,,,,,,,
3521,1645818256.949329,1645818257.002316,9.0,0.0,4342.05127,4536.410156,4218.461426,4308.205078,4317.94873,50.0,1.0,15.0,,,,0.0,4.0,0.0,4.0,1.0,4.0,41.666668,,,,,,,,,,,,,,,,,,,,,,,,,,,,,,,,,,,,,,,,,,,,,,,,,,,,,,,,,,,,,,,,,,,,,,,,,,,,,,,,,,,,
3522,1645818256.957145,1645818257.0101311,10.0,0.0,4339.487305,4528.205078,4211.282227000001,4295.384765999999,4307.692383,450.0,1.0,15.0,,,,0.0,4.0,0.0,4.0,1.0,4.0,41.666668,,,,,,,,5.0,0.0,0.17940599999999998,0.617676,-0.150635,-0.750732,0.872084,-0.45557299999999995,-0.187503,-0.016398,-0.026916000000000002,-0.036516,,,,,,,,,,,,,,,,,,,,,,,,,,,,,,,,,,,,,,,,,,,,,,,,,,,,,,,,,,,,,,,,,
3523,1645818256.964961,1645818257.0179448,11.0,0.0,4367.692383,4545.128418,4222.563965,4262.05127,4323.077147999999,16144.0,1.0,15.0,,,,0.0,4.0,0.0,4.0,1.0,4.0,41.666668,,,,,,,,,,,,,,,,,,,,,,,,,,,,,,,,,,,,,,,,,,,,,,,,,,,,,,0.0,0.0,1.0,0.0,512.0,1.0,,,,,,,,,,,,,,,,,,,,,,,,,
3524,1645818256.972777,1645818257.02576,12.0,0.0,4389.743652,4544.615234000001,4228.205078,4312.820313,4346.153809,450.0,1.0,15.0,,,,0.0,4.0,0.0,4.0,1.0,4.0,41.666668,,,,,,,,6.0,0.0,0.179225,0.617432,-0.150635,-0.750977,0.881849,-0.446784,-0.19336199999999998,-0.015296,-0.027007999999999997,-0.038822,,,,,,,,,,,,,,,,,,,,,,,,,,,,,,,,,,,,,,,,,,,,,,,,,,,,,,,,,,,,,,,,,
3525,1645818256.980594,1645818257.033574,13.0,0.0,4406.153809,4488.205078,4238.461426,4352.820313,4367.692383,450.0,1.0,15.0,,,,0.0,4.0,0.0,4.0,1.0,4.0,41.666668,,,,,,,,,,,,,,,,,,,,,,,,,,,,,,,,,,,,,,,,,,,,,,,,,,,,,,,,,,,,,,,,,,,,,,,,,,,,,,,,,,,,
3526,1645818256.98841,1645818257.041388,14.0,0.0,4424.102539,4517.436035,4237.436035,4293.333496,4366.153809,450.0,1.0,15.0,,,,0.0,4.0,0.0,4.0,1.0,4.0,41.666668,,,,,,,,7.0,0.0,0.17940599999999998,0.617676,-0.150635,-0.750732,0.872084,-0.45557299999999995,-0.187503,-0.014206,-0.026993,-0.040848,,,,,,,,,,,,,,,,,,,,,,,,,,,,,,,,,,,,,,,,,,,,,,,,,,,,,,,,,,,,,,,,,
3527,1645818256.996226,1645818257.049203,15.0,0.0,4433.846191,4603.589844,4222.05127,4247.179688,4357.94873,16144.0,1.0,15.0,,,,0.0,4.0,0.0,4.0,1.0,4.0,41.666668,,,,,,,,,,,,,,,,,,,,1.0,0.0,0.0,,,,,,,,,,,,,,,,,,,,,,,,,,,,,,,,0.0,0.0,1.0,0.0,512.0,1.0,1.851806,1.469847,2.888691,4.9484449999999995,2.384493,11.981246,25.293144,34.597590999999994,20.131157,14.750126000000002,1.7412470000000002,3.571737,3.381679,4.755688,2.4988479999999997,3.9862290000000002,3.708367,5.184883,2.741682,6.768697,2.080619,3.5246410000000004,2.484987,3.784353,2.592506
3528,1645818257.004042,1645818257.056917,16.0,0.0,4461.538574,4607.692383,4222.05127,4261.025879,4370.769043,0.0,1.0,15.0,,,,0.0,4.0,0.0,4.0,1.0,4.0,41.666668,,,,,,,,8.0,0.0,0.179225,0.617432,-0.150635,-0.750977,0.874525,-0.45801499999999995,-0.179202,-0.014933000000000002,-0.026930000000000003,-0.036372,,,,,,,,,,,,,,,,,,,,,,,,,,,,,,,,,,,,,,,,,,,,,,,,,,,,,,,,,,,,,,,,,
3529,1645818257.011859,1645818257.064732,17.0,0.0,4561.025879,4595.897461,4244.615234000001,4289.743652,4426.153809,0.0,1.0,15.0,,,,0.0,4.0,0.0,4.0,1.0,4.0,41.666668,,,,,,,,,,,,,,,,,,,,,,,,,,,,,,,,,,,,,,,,,,,,,,,,,,,,,,,,,,,,,,,,,,,,,,,,,,,,,,,,,,,,
3530,1645818257.019675,1645818257.072546,18.0,0.0,4684.615234000001,4616.410156,4262.563965,4329.230957,4488.205078,0.0,1.0,15.0,,,,0.0,4.0,0.0,4.0,1.0,4.0,41.666668,,,,,,,,9.0,0.0,0.179225,0.617432,-0.150635,-0.750977,0.8813610000000001,-0.44824899999999995,-0.198734,-0.01554,-0.026972000000000003,-0.038643000000000004,,,,,,,,,,,,,,,,,,,,,,,,,,,,,,,,,,,,,,,,,,,,,,,,,,,,,,,,,,,,,,,,,
3531,1645818257.027491,1645818257.08036,19.0,0.0,4764.615234000001,4629.743652,4257.94873,4347.692383,4534.358886999999,0.0,1.0,15.0,,,,0.0,4.0,0.0,4.0,1.0,4.0,41.666668,,,,,,,,,,,,,,,,,,,,,,,,,,,,,,,,,,,,,,,,,,,,,,,,,,,,,,0.0,0.0,1.0,0.0,512.0,1.0,,,,,,,,,,,,,,,,,,,,,,,,,
3532,1645818257.035307,1645818257.088175,20.0,0.0,4835.384765999999,4616.922852000001,4258.974121,4334.871582,4587.692383,0.0,1.0,15.0,,,,0.0,4.0,0.0,4.0,1.0,4.0,41.666668,,,,,,,,10.0,0.0,0.179019,0.617432,-0.15087899999999999,-0.750977,0.882826,-0.467292,-0.190433,-0.016134,-0.02696,-0.034242,,,,,,,,,,,,,,,,,,,,,,,,,,,,,,,,,,,,,,,,,,,,,,,,,,,,,,,,,,,,,,,,,
3533,1645818257.043124,1645818257.095989,21.0,0.0,4897.94873,4614.871582,4269.743652,4333.333496,4617.436035,0.0,1.0,15.0,,,,0.0,4.0,0.0,4.0,1.0,4.0,41.666668,,,,,,,,,,,,,,,,,,,,,,,,,,,,,,,,,,,,,,,,,,,,,,,,,,,,,,,,,,,,,,,,,,,,,,,,,,,,,,,,,,,,
3534,1645818257.05094,1645818257.1038039,22.0,0.0,4884.615234000001,4645.128418,4247.179688,4328.717772999999,4591.282227000001,0.0,1.0,15.0,,,,0.0,4.0,0.0,4.0,1.0,4.0,41.666668,,,,,,,,11.0,0.0,0.179019,0.617432,-0.15087899999999999,-0.750977,0.863783,-0.466316,-0.202152,-0.015058000000000002,-0.02695,-0.036677,,,,,,,,,,,,,,,,,,,,,,,,,,,,,,,,,,,,,,,,,,,,,,,,,,,,,,,,,,,,,,,,,
3535,1645818257.058756,1645818257.111618,23.0,0.0,4850.769043,4650.769043,4216.410156,4316.922852000001,4571.794922,0.0,1.0,15.0,,,,0.0,4.0,0.0,4.0,1.0,4.0,41.666668,,,,,,,,,,,,,,,,,,,,,,,,,,,,,,,,,,,,,,,,,,,,,,,,,,,,,,0.0,0.0,1.0,0.0,512.0,1.0,,,,,,,,,,,,,,,,,,,,,,,,,
3536,1645818257.0665722,1645818257.119432,24.0,0.0,4878.461426,4609.230957,4224.615234000001,4325.641113000001,4601.025879,0.0,1.0,15.0,,,,0.0,4.0,0.0,4.0,1.0,4.0,41.666668,,,,,,,,12.0,0.0,0.179859,0.617188,-0.15087899999999999,-0.750977,0.879408,-0.462409,-0.186526,-0.015701,-0.026989,-0.03882,,,,,,,,,,,,,,,,,,,,,,,,,,,,,,,,,,,,,,,,,,,,,,,,,,,,,,,,,,,,,,,,,
3537,1645818257.074388,1645818257.127147,25.0,0.0,4904.615234000001,4584.102539,4230.256348,4336.410156,4617.436035,0.0,1.0,15.0,,,,0.0,4.0,0.0,4.0,1.0,4.0,41.666668,,,,,,,,,,,,,,,,,,,,,,,,,,,,,,,,,,,,,,,,,,,,,,,,,,,,,,,,,,,,,,,,,,,,,,,,,,,,,,,,,,,,
3538,1645818257.082205,1645818257.134961,26.0,0.0,4875.897461,4602.05127,4209.743652,4308.717772999999,4597.94873,0.0,1.0,15.0,,,,0.0,4.0,0.0,4.0,1.0,4.0,41.666668,,,,,,,,13.0,0.0,0.178837,0.617188,-0.15087899999999999,-0.751221,0.8774549999999999,-0.449226,-0.198734,-0.016181,-0.027025,-0.0407,,,,,,,,,,,,,,,,,,,,,,,,,,,,,,,,,,,,,,,,,,,,,,,,,,,,,,,,,,,,,,,,,
3539,1645818257.0900211,1645818257.142776,27.0,0.0,4853.846191,4627.692383,4221.538574,4276.922852000001,4591.282227000001,0.0,1.0,15.0,,,,0.0,4.0,0.0,4.0,1.0,4.0,41.666668,,,,,,,,,,,,,,,,,,,,,,,,,,,,,,,,,,,,,,,,,,,,,,,,,,,,,,0.0,0.0,1.0,0.0,512.0,1.0,,,,,,,,,,,,,,,,,,,,,,,,,
3540,1645818257.097837,1645818257.15059,28.0,0.0,4839.487305,4652.820313,4246.153809,4292.820313,4584.615234000001,0.0,1.0,15.0,,,,0.0,4.0,0.0,4.0,1.0,4.0,41.666668,,,,,,,,14.0,0.0,0.177992,0.617432,-0.15087899999999999,-0.751221,0.885756,-0.451667,-0.18555,-0.016663,-0.026958999999999997,-0.036239,,,,,,,,,,,,,,,,,,,,,,,,,,,,,,,,,,,,,,,,,,,,,,,,,,,,,,,,,,,,,,,,,
3541,1645818257.105653,1645818257.158405,29.0,0.0,4778.461426,4676.922852000001,4228.717772999999,4336.410156,4551.794922,0.0,1.0,15.0,,,,0.0,4.0,0.0,4.0,1.0,4.0,41.666668,,,,,,,,,,,,,,,,,,,,,,,,,,,,,,,,,,,,,,,,,,,,,,,,,,,,,,,,,,,,,,,,,,,,,,,,,,,,,,,,,,,,
3542,1645818257.1134698,1645818257.166219,30.0,0.0,4702.05127,4692.307617,4193.333496,4307.692383,4501.538574,0.0,1.0,15.0,,,,0.0,4.0,0.0,4.0,1.0,4.0,41.666668,,,,,,,,15.0,0.0,0.178199,0.617432,-0.150635,-0.751221,0.8833139999999999,-0.46826899999999994,-0.19531500000000002,-0.015631,-0.0269,-0.038426,,,,,,,,,,,,,,,,,,,,,,,,,,,,,,,,,,,,,,,,,,,,,,,,,,,,,,,,,,,,,,,,,
3543,1645818257.121286,1645818257.174033,31.0,0.0,4664.615234000001,4658.974121,4189.230957,4250.256348,4480.0,0.0,1.0,15.0,,,,0.0,4.0,0.0,4.0,1.0,4.0,41.666668,,,,,,,,,,,,,,,,,,,,1.0,0.0,0.0,,,,,,,,,,,,,,,,,,,,,,,,,,,,,,,,0.0,0.0,1.0,0.0,512.0,0.358429,1.8304150000000001,1.774027,2.632669,4.801759,2.424601,11.386813,23.144747,33.25275,19.777584,16.766294,1.6451619999999998,3.693004,3.246379,4.757363,2.434357,4.222228,4.1850830000000006,5.891946,2.4958259999999997,6.126689,2.130594,3.671158,2.249184,3.578845,2.4187060000000002
3544,1645818257.129102,1645818257.181848,32.0,0.0,4650.256348,4595.897461,4210.256348,4282.563965,4497.94873,0.0,1.0,15.0,,,,0.0,4.0,0.0,4.0,1.0,4.0,41.666668,,,,,,,,16.0,0.0,0.178199,0.617432,-0.150635,-0.751221,0.8730600000000001,-0.446784,-0.20361600000000002,-0.016217,-0.026895,-0.040345,,,,,,,,,,,,,,,,,,,,,,,,,,,,,,,,,,,,,,,,,,,,,,,,,,,,,,,,,,,,,,,,,
3545,1645818257.136918,1645818257.189662,33.0,0.0,4602.563965,4630.769043,4205.128418,4327.179688,4464.102539,0.0,1.0,15.0,,,,0.0,4.0,0.0,4.0,1.0,4.0,41.666668,,,,,,,,,,,,,,,,,,,,,,,,,,,,,,,,,,,,,,,,,,,,,,,,,,,,,,,,,,,,,,,,,,,,,,,,,,,,,,,,,,,,
3546,1645818257.1447349,1645818257.1974769,34.0,0.0,4549.230957,4681.025879,4187.179688,4281.538574,4413.333496,0.0,1.0,15.0,,,,0.0,4.0,0.0,4.0,1.0,4.0,41.666668,,,,,,,,17.0,0.0,0.178405,0.617432,-0.150391,-0.751221,0.8833139999999999,-0.44824899999999995,-0.18457300000000001,-0.016548,-0.026891,-0.042072000000000005,,,,,,,,,,,,,,,,,,,,,,,,,,,,,,,,,,,,,,,,,,,,,,,,,,,,,,,,,,,,,,,,,
3547,1645818257.152551,1645818257.205191,35.0,0.0,4533.333496,4637.436035,4196.410156,4246.666504,4419.487305,0.0,1.0,15.0,,,,0.0,4.0,0.0,4.0,1.0,4.0,41.666668,,,,,,,,,,,,,,,,,,,,,,,,,,,,,,,,,,,,,,,,,,,,,,,,,,,,,,11.0,0.0,1.0,0.0,512.0,0.358429,,,,,,,,,,,,,,,,,,,,,,,,,
3548,1645818257.160367,1645818257.213006,36.0,0.0,4508.717772999999,4637.94873,4200.512695,4251.794922,4420.0,0.0,1.0,15.0,,,,0.0,4.0,0.0,4.0,1.0,4.0,41.666668,,,,,,,,18.0,0.0,0.177764,0.617676,-0.150146,-0.751221,0.8803850000000001,-0.455085,-0.204593,-0.015382,-0.026985000000000002,-0.037426,,,,,,,,,,,,,,,,,,,,,,,,,,,,,,,,,,,,,,,,,,,,,,,,,,,,,,,,,,,,,,,,,
3549,1645818257.168183,1645818257.22082,37.0,0.0,4442.05127,4700.0,4180.0,4233.846191,4368.717772999999,0.0,1.0,15.0,,,,0.0,4.0,0.0,4.0,1.0,4.0,41.666668,,,,,,,,,,,,,,,,,,,,,,,,,,,,,,,,,,,,,,,,,,,,,,,,,,,,,,,,,,,,,,,,,,,,,,,,,,,,,,,,,,,,
3550,1645818257.176,1645818257.2286339,38.0,0.0,4404.102539,4682.05127,4193.333496,4221.538574,4350.256348,0.0,1.0,15.0,,,,0.0,4.0,0.0,4.0,1.0,4.0,41.666668,,,,,,,,19.0,0.0,0.17797000000000002,0.617676,-0.149902,-0.751221,0.885267,-0.45410900000000004,-0.202152,-0.014527000000000002,-0.02707,-0.039543,,,,,,,,,,,,,,,,,,,,,,,,,,,,,,,,,,,,,,,,,,,,,,,,,,,,,,,,,,,,,,,,,
3551,1645818257.183816,1645818257.236449,39.0,0.0,4400.0,4610.769043,4218.461426,4218.461426,4357.94873,0.0,1.0,15.0,,,,0.0,4.0,0.0,4.0,1.0,4.0,41.666668,,,,,,,,,,,,,,,,,,,,,,,,,,,,,,,,,,,,,,,,,,,,,,,,,,,,,,11.0,0.0,1.0,0.0,512.0,0.358429,,,,,,,,,,,,,,,,,,,,,,,,,
3552,1645818257.191632,1645818257.2442632,40.0,0.0,4377.436035,4566.153809,4200.512695,4235.384765999999,4336.922852000001,0.0,1.0,15.0,,,,0.0,4.0,0.0,4.0,1.0,4.0,41.666668,,,,,,,,20.0,0.0,0.17732699999999998,0.61792,-0.14965799999999999,-0.751221,0.898451,-0.44483100000000003,-0.18555,-0.015271999999999999,-0.027,-0.041448,,,,,,,,,,,,,,,,,,,,,,,,,,,,,,,,,,,,,,,,,,,,,,,,,,,,,,,,,,,,,,,,,
3553,1645818257.199448,1645818257.2520778,41.0,0.0,4337.94873,4564.102539,4163.077147999999,4256.922852000001,4319.487305,0.0,1.0,15.0,,,,0.0,4.0,0.0,4.0,1.0,4.0,41.666668,,,,,,,,,,,,,,,,,,,,,,,,,,,,,,,,,,,,,,,,,,,,,,,,,,,,,,,,,,,,,,,,,,,,,,,,,,,,,,,,,,,,
3554,1645818257.2072651,1645818257.259892,42.0,0.0,4306.666504,4615.384765999999,4158.974121,4233.846191,4307.692383,0.0,1.0,15.0,,,,0.0,4.0,0.0,4.0,1.0,4.0,41.666668,,,,,,,,21.0,0.0,0.178563,0.61792,-0.14941400000000002,-0.750977,0.886244,-0.447272,-0.192386,-0.015795,-0.026986000000000003,-0.036815,,,,,,,,,,,,,,,,,,,,,,,,,,,,,,,,,,,,,,,,,,,,,,,,,,,,,,,,,,,,,,,,,
3555,1645818257.215081,1645818257.2677062,43.0,0.0,4293.333496,4635.897461,4174.871582,4225.128418,4282.05127,0.0,1.0,15.0,,,,0.0,4.0,0.0,4.0,1.0,4.0,41.666668,,,,,,,,,,,,,,,,,,,,,,,,,,,,,,,,,,,,,,,,,,,,,,,,,,,,,,11.0,0.0,1.0,0.0,512.0,0.358429,,,,,,,,,,,,,,,,,,,,,,,,,
3556,1645818257.222897,1645818257.2754211,44.0,0.0,4276.922852000001,4605.128418,4170.256348,4260.0,4254.871582,0.0,1.0,15.0,,,,0.0,4.0,0.0,4.0,1.0,4.0,41.666668,,,,,,,,22.0,0.0,0.178563,0.61792,-0.14941400000000002,-0.750977,0.8740370000000001,-0.445808,-0.194339,-0.014753,-0.026973,-0.038944,,,,,,,,,,,,,,,,,,,,,,,,,,,,,,,,,,,,,,,,,,,,,,,,,,,,,,,,,,,,,,,,,
3557,1645818257.2307131,1645818257.283235,45.0,0.0,4250.256348,4608.717772999999,4157.436035,4256.922852000001,4245.641113000001,0.0,1.0,15.0,,,,0.0,4.0,0.0,4.0,1.0,4.0,41.666668,,,,,,,,,,,,,,,,,,,,,,,,,,,,,,,,,,,,,,,,,,,,,,,,,,,,,,,,,,,,,,,,,,,,,,,,,,,,,,,,,,,,
3558,1645818257.238529,1645818257.29105,46.0,0.0,4246.666504,4625.128418,4177.94873,4236.922852000001,4265.641113000001,0.0,1.0,15.0,,,,0.0,4.0,0.0,4.0,1.0,4.0,41.666668,,,,,,,,23.0,0.0,0.177921,0.618164,-0.14917,-0.750977,0.886732,-0.44483100000000003,-0.188968,-0.015377000000000002,-0.027010000000000003,-0.03461,,,,,,,,,,,,,,,,,,,,,,,,,,,,,,,,,,,,,,,,,,,,,,,,,,,,,,,,,,,,,,,,,
3559,1645818257.246346,1645818257.2988641,47.0,0.0,4259.487305,4616.410156,4201.025879,4251.794922,4270.769043,0.0,1.0,15.0,,,,0.0,4.0,0.0,4.0,1.0,4.0,41.666668,,,,,,,,,,,,,,,,,,,,1.0,0.0,0.0,,,,,,,,,,,,,,,,,,,,,,,,,,,,,,,,11.0,0.0,1.0,0.0,512.0,0.498547,4.586976,2.520497,2.2523779999999998,4.377525,2.479806,11.688948,20.091351,31.981251,18.46056,18.766582,1.556298,3.9162160000000004,3.100511,4.494365,2.359214,4.449501000000001,4.5076220000000005,6.412299,2.528485,5.445265,2.904547,3.847293,2.026235,3.305383,2.311943
3560,1645818257.2541618,1645818257.306679,48.0,0.0,4244.102539,4615.897461,4176.410156,4251.282227000001,4241.538574,0.0,1.0,15.0,,,,0.0,4.0,0.0,4.0,1.0,4.0,41.666668,,,,,,,,24.0,0.0,0.177921,0.618164,-0.14917,-0.750977,0.885267,-0.446784,-0.193851,-0.015939,-0.026994,-0.037057,,,,,,,,,,,,,,,,,,,,,,,,,,,,,,,,,,,,,,,,,,,,,,,,,,,,,,,,,,,,,,,,,
3561,1645818257.261978,1645818257.314493,49.0,0.0,4225.128418,4628.205078,4162.563965,4228.205078,4241.025879,0.0,1.0,15.0,,,,0.0,4.0,0.0,4.0,1.0,4.0,41.666668,,,,,,,,,,,,,,,,,,,,,,,,,,,,,,,,,,,,,,,,,,,,,,,,,,,,,,,,,,,,,,,,,,,,,,,,,,,,,,,,,,,,
3562,1645818257.269794,1645818257.322307,50.0,0.0,4227.692383,4585.641113000001,4196.922852000001,4230.769043,4271.282227000001,0.0,1.0,15.0,,,,0.0,4.0,0.0,4.0,1.0,4.0,41.666668,,,,,,,,25.0,0.0,0.178125,0.618164,-0.148926,-0.750977,0.885756,-0.453132,-0.186526,-0.016444999999999998,-0.027029,-0.039162,,,,,,,,,,,,,,,,,,,,,,,,,,,,,,,,,,,,,,,,,,,,,,,,,,,,,,,,,,,,,,,,,
3563,1645818257.277611,1645818257.330122,51.0,0.0,4257.436035,4458.461426,4213.846191,4244.102539,4283.589844,0.0,1.0,15.0,,,,0.0,4.0,0.0,4.0,1.0,4.0,41.666668,,,,,,,,,,,,,,,,,,,,,,,,,,,,,,,,,,,,,,,,,,,,,,,,,,,,,,11.0,0.0,1.0,0.0,512.0,0.498547,,,,,,,,,,,,,,,,,,,,,,,,,
3564,1645818257.2854269,1645818257.337936,52.0,0.0,4321.025879,4365.128418,4193.846191,4254.871582,4300.512695,0.0,1.0,15.0,,,,0.0,4.0,0.0,4.0,1.0,4.0,41.666668,,,,,,,,26.0,0.0,0.178307,0.618408,-0.148926,-0.750732,0.879408,-0.45410900000000004,-0.183108,-0.016753999999999998,-0.027110000000000002,-0.034758,,,,,,,,,,,,,,,,,,,,,,,,,,,,,,,,,,,,,,,,,,,,,,,,,,,,,,,,,,,,,,,,,
3565,1645818257.293243,1645818257.345651,53.0,0.0,4403.589844,4396.410156,4192.820313,4265.128418,4357.94873,0.0,1.0,15.0,,,,0.0,4.0,0.0,4.0,1.0,4.0,41.666668,,,,,,,,,,,,,,,,,,,,,,,,,,,,,,,,,,,,,,,,,,,,,,,,,,,,,,,,,,,,,,,,,,,,,,,,,,,,,,,,,,,,
3566,1645818257.301059,1645818257.353465,54.0,0.0,4502.05127,4475.384765999999,4214.358886999999,4250.256348,4413.846191,0.0,1.0,15.0,,,,0.0,4.0,0.0,4.0,1.0,4.0,41.666668,,,,,,,,27.0,0.0,0.178307,0.618408,-0.148926,-0.750732,0.878431,-0.45655,-0.188479,-0.017227000000000003,-0.027132999999999997,-0.037141,,,,,,,,,,,,,,,,,,,,,,,,,,,,,,,,,,,,,,,,,,,,,,,,,,,,,,,,,,,,,,,,,
3567,1645818257.308875,1645818257.36128,55.0,0.0,4604.615234000001,4457.94873,4212.820313,4234.358886999999,4441.025879,0.0,1.0,15.0,,,,0.0,4.0,0.0,4.0,1.0,4.0,41.666668,,,,,,,,,,,,,,,,,,,,,,,,,,,,,,,,,,,,,,,,,,,,,,,,,,,,,,11.0,0.0,1.0,0.0,512.0,0.498547,,,,,,,,,,,,,,,,,,,,,,,,,
3568,1645818257.3166919,1645818257.369094,56.0,0.0,4663.589844,4377.94873,4195.384765999999,4238.461426,4448.205078,0.0,1.0,15.0,,,,0.0,4.0,0.0,4.0,1.0,4.0,41.666668,,,,,,,,28.0,0.0,0.178102,0.618408,-0.14917,-0.750732,0.885756,-0.457038,-0.18701500000000001,-0.017652,-0.027105,-0.039189,,,,,,,,,,,,,,,,,,,,,,,,,,,,,,,,,,,,,,,,,,,,,,,,,,,,,,,,,,,,,,,,,
3569,1645818257.324508,1645818257.376908,57.0,0.0,4695.897461,4353.333496,4196.410156,4247.692383,4465.128418,0.0,1.0,15.0,,,,0.0,4.0,0.0,4.0,1.0,4.0,41.666668,,,,,,,,,,,,,,,,,,,,,,,,,,,,,,,,,,,,,,,,,,,,,,,,,,,,,,,,,,,,,,,,,,,,,,,,,,,,,,,,,,,,
3570,1645818257.332324,1645818257.384723,58.0,0.0,4733.333496,4343.589844,4199.487305,4249.230957,4503.589844,0.0,1.0,15.0,,,,0.0,4.0,0.0,4.0,1.0,4.0,41.666668,,,,,,,,29.0,0.0,0.178102,0.618408,-0.14917,-0.750732,0.894545,-0.46045600000000003,-0.17969000000000002,-0.017987,-0.027032,-0.034831,,,,,,,,,,,,,,,,,,,,,,,,,,,,,,,,,,,,,,,,,,,,,,,,,,,,,,,,,,,,,,,,,
3571,1645818257.34014,1645818257.3925369,59.0,0.0,4754.871582,4332.820313,4198.461426,4245.128418,4517.94873,0.0,1.0,15.0,,,,0.0,4.0,0.0,4.0,1.0,4.0,41.666668,,,,,,,,,,,,,,,,,,,,,,,,,,,,,,,,,,,,,,,,,,,,,,,,,,,,,,11.0,0.0,1.0,0.0,512.0,0.498547,,,,,,,,,,,,,,,,,,,,,,,,,
3572,1645818257.3479571,1645818257.400352,60.0,0.0,4754.358886999999,4371.282227000001,4201.025879,4234.358886999999,4500.0,0.0,1.0,15.0,,,,0.0,4.0,0.0,4.0,1.0,4.0,41.666668,,,,,,,,30.0,0.0,0.178102,0.618408,-0.14917,-0.750732,0.890639,-0.458503,-0.17236600000000002,-0.018288,-0.026965,-0.031006,,,,,,,,,,,,,,,,,,,,,,,,,,,,,,,,,,,,,,,,,,,,,,,,,,,,,,,,,,,,,,,,,
3573,1645818257.355773,1645818257.408166,61.0,0.0,4742.563965,4397.436035,4201.025879,4241.538574,4506.153809,0.0,1.0,15.0,,,,0.0,4.0,0.0,4.0,1.0,4.0,41.666668,,,,,,,,,,,,,,,,,,,,,,,,,,,,,,,,,,,,,,,,,,,,,,,,,,,,,,,,,,,,,,,,,,,,,,,,,,,,,,,,,,,,
3574,1645818257.363589,1645818257.41598,62.0,0.0,4721.538574,4367.692383,4195.897461,4261.538574,4524.102539,0.0,1.0,15.0,,,,0.0,4.0,0.0,4.0,1.0,4.0,41.666668,,,,,,,,31.0,0.0,0.178102,0.618408,-0.14917,-0.750732,0.8833139999999999,-0.45557299999999995,-0.184085,-0.016996,-0.026954000000000002,-0.027466,,,,,,,,,,,,,,,,,,,,,,,,,,,,,,,,,,,,,,,,,,,,,,,,,,,,,,,,,,,,,,,,,
3575,1645818257.3714051,1645818257.4236948,63.0,0.0,4708.205078,4431.794922,4194.871582,4249.230957,4509.230957,0.0,1.0,15.0,,,,0.0,4.0,1.0,4.0,1.0,4.0,50.0,1.0,25.0,3.0,0.0,4.0,0.0,4.0,,,,,,,,,,,,,1.0,0.0,0.0,,,,,,,,,,,,,,,,,,,,,,,,,,,,,,,,11.0,0.0,1.0,0.0,512.0,1.0,19.001966,4.192951,2.086984,3.944838,2.534186,11.852578999999999,16.416843,29.987377000000002,16.69799,20.094185,1.443016,4.138311,2.981679,4.039489,2.280732,4.648891000000001,4.657822,6.490699,2.766855,4.922615,6.050918,4.204758,2.035614,3.1141,2.263248
3576,1645818257.3792222,1645818257.431509,64.0,0.0,4698.974121,4533.333496,4190.769043,4230.769043,4484.102539,450.0,1.0,15.0,,,,0.0,4.0,1.0,4.0,1.0,4.0,50.0,,,,,,,,32.0,0.0,0.178102,0.618408,-0.14917,-0.750732,0.87892,-0.45020200000000005,-0.18555,-0.015834,-0.027042,-0.030579000000000002,,,,,,,,,,,,,,,,,,,,,,,,,,,,,,,,,,,,,,,,,,,,,,,,,,,,,,,,,,,,,,,,,
3577,1645818257.387038,1645818257.4393241,65.0,0.0,4682.563965,4488.717772999999,4194.871582,4261.538574,4487.692383,450.0,1.0,15.0,,,,0.0,4.0,1.0,4.0,1.0,4.0,50.0,,,,,,,,,,,,,,,,,,,,,,,,,,,,,,,,,,,,,,,,,,,,,,,,,,,,,,,,,,,,,,,,,,,,,,,,,,,,,,,,,,,,
3578,1645818257.3948538,1645818257.447138,66.0,0.0,4659.487305,4442.05127,4208.205078,4267.179688,4497.436035,16174.0,1.0,15.0,,,,0.0,4.0,1.0,4.0,1.0,4.0,50.0,,,,,,,,33.0,0.0,0.178307,0.618408,-0.148926,-0.750732,0.877943,-0.461921,-0.18945599999999999,-0.01635,-0.027121,-0.03338,,,,,,,,,,,,,,,,,,,,,,,,,,,,,,,,,,,,,,,,,,,,,,,,,,,,,,,,,,,,,,,,,
3579,1645818257.402671,1645818257.454953,67.0,0.0,4615.897461,4442.05127,4225.641113000001,4244.102539,4472.820313,450.0,1.0,15.0,,,,0.0,4.0,1.0,4.0,1.0,4.0,50.0,,,,,,,,,,,,,,,,,,,,,,,,,,,,,,,,,,,,,,,,,,,,,,,,,,,,,,11.0,0.0,1.0,0.0,512.0,1.0,,,,,,,,,,,,,,,,,,,,,,,,,
3580,1645818257.410487,1645818257.462767,68.0,0.0,4564.102539,4398.974121,4241.025879,4267.692383,4427.179688,50.0,1.0,15.0,,,,0.0,4.0,1.0,4.0,1.0,4.0,50.0,,,,,,,,34.0,0.0,0.178102,0.618408,-0.14917,-0.750732,0.8833139999999999,-0.45557299999999995,-0.184085,-0.015252000000000002,-0.027094999999999998,-0.029602999999999997,,,,,,,,,,,,,,,,,,,,,,,,,,,,,,,,,,,,,,,,,,,,,,,,,,,,,,,,,,,,,,,,,
3581,1645818257.418303,1645818257.470581,69.0,0.0,4512.820313,4408.205078,4211.282227000001,4293.333496,4394.871582,450.0,1.0,15.0,,,,0.0,4.0,1.0,4.0,1.0,4.0,50.0,,,,,,,,,,,,,,,,,,,,,,,,,,,,,,,,,,,,,,,,,,,,,,,,,,,,,,,,,,,,,,,,,,,,,,,,,,,,,,,,,,,,
3582,1645818257.4261189,1645818257.4783962,70.0,0.0,4470.769043,4468.717772999999,4177.436035,4276.410156,4392.307617,16212.0,1.0,15.0,,,,0.0,4.0,1.0,4.0,1.0,4.0,50.0,,,,,,,,35.0,0.0,0.178307,0.618408,-0.148926,-0.750732,0.877943,-0.461921,-0.18945599999999999,-0.015826,-0.027168,-0.032501999999999996,,,,,,,,,,,,,,,,,,,,,,,,,,,,,,,,,,,,,,,,,,,,,,,,,,,,,,,,,,,,,,,,,
3583,1645818257.433935,1645818257.4862099,71.0,0.0,4427.179688,4425.641113000001,4186.666504,4269.743652,4366.153809,450.0,1.0,15.0,,,,0.0,4.0,1.0,4.0,1.0,4.0,50.0,,,,,,,,,,,,,,,,,,,,,,,,,,,,,,,,,,,,,,,,,,,,,,,,,,,,,,0.0,0.0,1.0,0.0,512.0,1.0,,,,,,,,,,,,,,,,,,,,,,,,,
3584,1645818257.441752,1645818257.493925,72.0,0.0,4394.871582,4381.538574,4194.871582,4297.436035,4324.615234000001,450.0,1.0,15.0,,,,0.0,4.0,1.0,4.0,1.0,4.0,50.0,,,,,,,,36.0,0.0,0.177276,0.618408,-0.148926,-0.750977,0.878431,-0.455085,-0.18457300000000001,-0.014879,-0.027137,-0.028861,,,,,,,,,,,,,,,,,,,,,,,,,,,,,,,,,,,,,,,,,,,,,,,,,,,,,,,,,,,,,,,,,
3585,1645818257.449568,1645818257.501739,73.0,0.0,4396.410156,4444.102539,4197.94873,4293.846191,4336.922852000001,92.0,1.0,15.0,,,,0.0,4.0,1.0,4.0,1.0,4.0,50.0,,,,,,,,,,,,,,,,,,,,,,,,,,,,,,,,,,,,,,,,,,,,,,,,,,,,,,,,,,,,,,,,,,,,,,,,,,,,,,,,,,,,
3586,1645818257.4573839,1645818257.509553,74.0,0.0,4385.128418,4436.410156,4210.769043,4272.307617,4349.230957,450.0,1.0,15.0,,,,0.0,4.0,1.0,4.0,1.0,4.0,50.0,,,,,,,,37.0,0.0,0.178125,0.618164,-0.148926,-0.750977,0.8808729999999999,-0.45655,-0.19677999999999998,-0.015344,-0.027157999999999998,-0.031835,,,,,,,,,,,,,,,,,,,,,,,,,,,,,,,,,,,,,,,,,,,,,,,,,,,,,,,,,,,,,,,,,
3587,1645818257.4652,1645818257.517368,75.0,0.0,4322.05127,4342.05127,4186.153809,4278.974121,4297.94873,16197.0,1.0,15.0,,,,0.0,4.0,1.0,4.0,1.0,4.0,50.0,,,,,,,,,,,,,,,,,,,,,,,,,,,,,,,,,,,,,,,,,,,,,,,,,,,,,,0.0,0.0,1.0,0.0,512.0,1.0,,,,,,,,,,,,,,,,,,,,,,,,,
3588,1645818257.473017,1645818257.525182,76.0,0.0,4285.641113000001,4329.230957,4167.179688,4300.0,4269.230957,450.0,1.0,15.0,,,,0.0,4.0,1.0,4.0,1.0,4.0,50.0,,,,,,,,38.0,0.0,0.178125,0.618164,-0.148926,-0.750977,0.87892,-0.45606199999999997,-0.187503,-0.01586,-0.027176,-0.028260000000000004,,,,,,,,,,,,,,,,,,,,,,,,,,,,,,,,,,,,,,,,,,,,,,,,,,,,,,,,,,,,,,,,,
3589,1645818257.480833,1645818257.5329971,77.0,0.0,4294.871582,4373.846191,4190.256348,4314.358886999999,4284.615234000001,450.0,1.0,15.0,,,,0.0,4.0,1.0,4.0,1.0,4.0,50.0,,,,,,,,,,,,,,,,,,,,,,,,,,,,,,,,,,,,,,,,,,,,,,,,,,,,,,,,,,,,,,,,,,,,,,,,,,,,,,,,,,,,
3590,1645818257.4886491,1645818257.5408108,78.0,0.0,4250.256348,4358.974121,4176.922852000001,4311.794922,4249.230957,450.0,1.0,15.0,,,,0.0,4.0,1.0,4.0,1.0,4.0,50.0,,,,,,,,39.0,0.0,0.177093,0.618164,-0.148926,-0.751221,0.87892,-0.45361999999999997,-0.181643,-0.016374,-0.027047,-0.031294,,,,,,,,,,,,,,,,,,,,,,,,,,,,,,,,,,,,,,,,,,,,,,,,,,,,,,,,,,,,,,,,,
3591,1645818257.496465,1645818257.548626,79.0,0.0,4213.333496,4329.743652,4173.333496,4310.256348,4221.538574,16197.0,1.0,15.0,,,,0.0,4.0,1.0,4.0,1.0,4.0,50.0,,,,,,,,,,,,,,,,,,,,1.0,0.0,0.0,,,,,,,,,,,,,,,,,,,,,,,,,,,,,,,,0.0,0.0,1.0,0.0,512.0,1.0,58.421406000000005,6.988402000000001,2.458615,3.7816949999999996,2.554625,11.705736,13.156154,26.884184,15.015167000000002,20.226944,1.331012,4.23303,2.916409,3.5190330000000003,2.1918159999999998,4.954287,4.743201,6.125751,3.181035,4.645169,14.950866,4.831947,2.379874,3.1308979999999997,2.2451779999999997
3592,1645818257.504281,1645818257.55644,80.0,0.0,4256.922852000001,4384.102539,4235.897461,4322.05127,4259.487305,450.0,1.0,15.0,,,,0.0,4.0,1.0,4.0,1.0,4.0,50.0,,,,,,,,40.0,0.0,0.177093,0.618164,-0.148926,-0.751221,0.8798959999999999,-0.457038,-0.192874,-0.01669,-0.027076,-0.034024,,,,,,,,,,,,,,,,,,,,,,,,,,,,,,,,,,,,,,,,,,,,,,,,,,,,,,,,,,,,,,,,,
3593,1645818257.512098,1645818257.564154,81.0,0.0,4265.128418,4500.0,4245.641113000001,4307.692383,4278.461426,450.0,1.0,15.0,,,,0.0,4.0,1.0,4.0,1.0,4.0,50.0,,,,,,,,,,,,,,,,,,,,,,,,,,,,,,,,,,,,,,,,,,,,,,,,,,,,,,,,,,,,,,,,,,,,,,,,,,,,,,,,,,,,
3594,1645818257.5199142,1645818257.571969,82.0,0.0,4202.563965,4551.282227000001,4190.256348,4288.717772999999,4254.358886999999,450.0,1.0,15.0,,,,0.0,4.0,1.0,4.0,1.0,4.0,50.0,,,,,,,,41.0,0.0,0.176887,0.618164,-0.14917,-0.751221,0.8798959999999999,-0.46045600000000003,-0.201663,-0.017218,-0.027201,-0.030231,,,,,,,,,,,,,,,,,,,,,,,,,,,,,,,,,,,,,,,,,,,,,,,,,,,,,,,,,,,,,,,,,
3595,1645818257.52773,1645818257.579783,83.0,0.0,4173.846191,4484.615234000001,4190.256348,4310.769043,4236.922852000001,16197.0,1.0,15.0,,,,0.0,4.0,1.0,4.0,1.0,4.0,50.0,,,,,,,,,,,,,,,,,,,,,,,,,,,,,,,,,,,,,,,,,,,,,,,,,,,,,,0.0,0.0,1.0,0.0,512.0,1.0,,,,,,,,,,,,,,,,,,,,,,,,,
3596,1645818257.535546,1645818257.587598,84.0,0.0,4187.179688,4450.769043,4222.05127,4330.256348,4235.384765999999,450.0,1.0,15.0,,,,0.0,4.0,1.0,4.0,1.0,4.0,50.0,,,,,,,,42.0,0.0,0.176887,0.618164,-0.14917,-0.751221,0.890639,-0.45069,-0.187503,-0.017644999999999997,-0.027264,-0.033067,,,,,,,,,,,,,,,,,,,,,,,,,,,,,,,,,,,,,,,,,,,,,,,,,,,,,,,,,,,,,,,,,
3597,1645818257.543363,1645818257.595412,85.0,0.0,4196.410156,4483.589844,4226.153809,4317.94873,4250.256348,450.0,1.0,15.0,,,,0.0,4.0,1.0,4.0,1.0,4.0,50.0,,,,,,,,,,,,,,,,,,,,,,,,,,,,,,,,,,,,,,,,,,,,,,,,,,,,,,,,,,,,,,,,,,,,,,,,,,,,,,,,,,,,
3598,1645818257.551179,1645818257.603226,86.0,0.0,4190.769043,4415.384765999999,4222.05127,4332.307617,4252.820313,450.0,1.0,15.0,,,,0.0,4.0,1.0,4.0,1.0,4.0,50.0,,,,,,,,43.0,0.0,0.176887,0.618164,-0.14917,-0.751221,0.8838030000000001,-0.442878,-0.186526,-0.016613,-0.027223,-0.03562,,,,,,,,,,,,,,,,,,,,,,,,,,,,,,,,,,,,,,,,,,,,,,,,,,,,,,,,,,,,,,,,,
3599,1645818257.558995,1645818257.611041,87.0,0.0,4178.974121,4329.743652,4230.256348,4358.461426,4238.974121,16197.0,1.0,15.0,,,,0.0,4.0,1.0,4.0,1.0,4.0,50.0,,,,,,,,,,,,,,,,,,,,,,,,,,,,,,,,,,,,,,,,,,,,,,,,,,,,,,0.0,0.0,1.0,0.0,512.0,1.0,,,,,,,,,,,,,,,,,,,,,,,,,
3600,1645818257.5668108,1645818257.618855,88.0,0.0,4169.743652,4326.153809,4233.333496,4353.333496,4224.102539,450.0,1.0,15.0,,,,0.0,4.0,1.0,4.0,1.0,4.0,50.0,,,,,,,,44.0,0.0,0.176887,0.618164,-0.14917,-0.751221,0.878431,-0.45410900000000004,-0.194827,-0.017051,-0.027235000000000002,-0.031716,,,,,,,,,,,,,,,,,,,,,,,,,,,,,,,,,,,,,,,,,,,,,,,,,,,,,,,,,,,,,,,,,
3601,1645818257.5746279,1645818257.62667,89.0,0.0,4164.102539,4278.974121,4223.077147999999,4338.461426,4205.641113000001,450.0,1.0,15.0,,,,0.0,4.0,1.0,4.0,1.0,4.0,50.0,,,,,,,,,,,,,,,,,,,,,,,,,,,,,,,,,,,,,,,,,,,,,,,,,,,,,,,,,,,,,,,,,,,,,,,,,,,,,,,,,,,,
3602,1645818257.582444,1645818257.634384,90.0,0.0,4146.153809,4255.384765999999,4202.05127,4336.410156,4185.128418,450.0,1.0,15.0,,,,0.0,4.0,1.0,4.0,1.0,4.0,50.0,,,,,,,,45.0,0.0,0.177738,0.61792,-0.14917,-0.751221,0.894057,-0.453132,-0.201175,-0.017543,-0.027051,-0.034258,,,,,,,,,,,,,,,,,,,,,,,,,,,,,,,,,,,,,,,,,,,,,,,,,,,,,,,,,,,,,,,,,
3603,1645818257.59026,1645818257.642199,91.0,0.0,4138.461426,4395.384765999999,4200.512695,4336.922852000001,4193.846191,16197.0,1.0,15.0,,,,0.0,4.0,1.0,4.0,1.0,4.0,50.0,,,,,,,,,,,,,,,,,,,,,,,,,,,,,,,,,,,,,,,,,,,,,,,,,,,,,,0.0,0.0,1.0,0.0,512.0,1.0,,,,,,,,,,,,,,,,,,,,,,,,,
3604,1645818257.5980759,1645818257.650013,92.0,0.0,4157.94873,4505.128418,4232.307617,4336.410156,4223.589844,450.0,1.0,15.0,,,,0.0,4.0,1.0,4.0,1.0,4.0,50.0,,,,,,,,46.0,0.0,0.177738,0.61792,-0.14917,-0.751221,0.8798959999999999,-0.457038,-0.19677999999999998,-0.016424,-0.026933999999999996,-0.036545,,,,,,,,,,,,,,,,,,,,,,,,,,,,,,,,,,,,,,,,,,,,,,,,,,,,,,,,,,,,,,,,,
3605,1645818257.605893,1645818257.657827,93.0,0.0,4173.846191,4461.538574,4256.410156,4345.641113000001,4237.94873,450.0,1.0,15.0,,,,0.0,4.0,1.0,4.0,1.0,4.0,50.0,,,,,,,,,,,,,,,,,,,,,,,,,,,,,,,,,,,,,,,,,,,,,,,,,,,,,,,,,,,,,,,,,,,,,,,,,,,,,,,,,,,,
3606,1645818257.613709,1645818257.665642,94.0,0.0,4164.102539,4400.0,4246.153809,4350.256348,4208.717772999999,450.0,1.0,15.0,,,,0.0,4.0,1.0,4.0,1.0,4.0,50.0,,,,,,,,47.0,0.0,0.177533,0.61792,-0.14941400000000002,-0.751221,0.874525,-0.453132,-0.197269,-0.015221,-0.027072000000000002,-0.038701,,,,,,,,,,,,,,,,,,,,,,,,,,,,,,,,,,,,,,,,,,,,,,,,,,,,,,,,,,,,,,,,,
3607,1645818257.621525,1645818257.673456,95.0,0.0,4148.717772999999,4375.897461,4226.666504,4355.897461,4175.384765999999,16197.0,1.0,15.0,,,,0.0,4.0,1.0,4.0,1.0,4.0,50.0,,,,,,,,,,,,,,,,,,,,1.0,0.0,0.0,,,,,,,,,,,,,,,,,,,,,,,,,,,,,,,,0.0,0.0,1.0,0.0,512.0,1.0,132.853149,10.950192999999999,3.500725,4.0240730000000005,2.507719,13.064947,11.661163,23.359768,13.993772,19.044107,1.250846,4.135154,2.8876310000000003,3.0583650000000002,2.085461,5.44255,4.856428,5.428252,3.7166959999999998,4.555662,32.047127,5.700418,2.9370689999999997,3.380493,2.226097
3608,1645818257.6293411,1645818257.681271,96.0,0.0,4144.102539,4382.05127,4221.025879,4349.230957,4192.307617,450.0,1.0,15.0,,,,0.0,4.0,1.0,4.0,1.0,4.0,50.0,,,,,,,,48.0,0.0,0.17732699999999998,0.61792,-0.14965799999999999,-0.751221,0.8676889999999999,-0.45264399999999994,-0.18457300000000001,-0.01575,-0.027051,-0.040641000000000004,,,,,,,,,,,,,,,,,,,,,,,,,,,,,,,,,,,,,,,,,,,,,,,,,,,,,,,,,,,,,,,,,
3609,1645818257.637158,1645818257.689085,97.0,0.0,4146.666504,4395.897461,4216.922852000001,4328.205078,4213.846191,450.0,1.0,15.0,,,,0.0,4.0,1.0,4.0,1.0,4.0,50.0,,,,,,,,,,,,,,,,,,,,,,,,,,,,,,,,,,,,,,,,,,,,,,,,,,,,,,,,,,,,,,,,,,,,,,,,,,,,,,,,,,,,
3610,1645818257.644974,1645818257.696899,98.0,0.0,4158.974121,4394.358886999999,4204.615234000001,4330.256348,4207.692383,450.0,1.0,15.0,,,,0.0,4.0,1.0,4.0,1.0,4.0,50.0,,,,,,,,49.0,0.0,0.177121,0.61792,-0.149902,-0.751221,0.887709,-0.446784,-0.189944,-0.016177,-0.027129,-0.042486,,,,,,,,,,,,,,,,,,,,,,,,,,,,,,,,,,,,,,,,,,,,,,,,,,,,,,,,,,,,,,,,,
3611,1645818257.65279,1645818257.704714,99.0,0.0,4172.307617,4407.179688,4211.794922,4336.922852000001,4213.846191,16197.0,1.0,15.0,,,,0.0,4.0,1.0,4.0,1.0,4.0,50.0,,,,,,,,,,,,,,,,,,,,,,,,,,,,,,,,,,,,,,,,,,,,,,,,,,,,,,0.0,0.0,1.0,0.0,512.0,1.0,,,,,,,,,,,,,,,,,,,,,,,,,
3612,1645818257.6606061,1645818257.7124279,100.0,0.0,4172.820313,4460.512695,4217.436035,4309.743652,4220.0,450.0,1.0,15.0,,,,0.0,4.0,1.0,4.0,1.0,4.0,50.0,,,,,,,,50.0,0.0,0.178153,0.61792,-0.149902,-0.750977,0.882338,-0.443366,-0.190921,-0.015047,-0.027052999999999997,-0.044097000000000004,,,,,,,,,,,,,,,,,,,,,,,,,,,,,,,,,,,,,,,,,,,,,,,,,,,,,,,,,,,,,,,,,
3613,1645818257.668422,1645818257.720243,101.0,0.0,4145.641113000001,4519.487305,4174.871582,4284.615234000001,4190.256348,450.0,1.0,15.0,,,,0.0,4.0,1.0,4.0,1.0,4.0,50.0,,,,,,,,,,,,,,,,,,,,,,,,,,,,,,,,,,,,,,,,,,,,,,,,,,,,,,,,,,,,,,,,,,,,,,,,,,,,,,,,,,,,
3614,1645818257.676239,1645818257.7280571,102.0,0.0,4140.0,4481.538574,4161.538574,4303.589844,4182.563965,450.0,1.0,15.0,,,,0.0,4.0,1.0,4.0,1.0,4.0,50.0,,,,,,,,51.0,0.0,0.177947,0.61792,-0.150146,-0.750977,0.8798959999999999,-0.446296,-0.194827,-0.015593000000000001,-0.026983999999999998,-0.039345,,,,,,,,,,,,,,,,,,,,,,,,,,,,,,,,,,,,,,,,,,,,,,,,,,,,,,,,,,,,,,,,,
3615,1645818257.684055,1645818257.735872,103.0,0.0,4180.512695,4405.641113000001,4206.666504,4302.563965,4221.025879,16197.0,1.0,15.0,,,,0.0,4.0,1.0,4.0,1.0,4.0,50.0,,,,,,,,,,,,,,,,,,,,,,,,,,,,,,,,,,,,,,,,,,,,,,,,,,,,,,0.0,0.0,1.0,0.0,512.0,1.0,,,,,,,,,,,,,,,,,,,,,,,,,
3616,1645818257.6918712,1645818257.743686,104.0,0.0,4198.974121,4396.922852000001,4224.615234000001,4298.461426,4233.333496,450.0,1.0,15.0,,,,0.0,4.0,1.0,4.0,1.0,4.0,50.0,,,,,,,,52.0,0.0,0.178769,0.61792,-0.150391,-0.750732,0.877943,-0.45069,-0.18701500000000001,-0.016182,-0.026825,-0.041172,,,,,,,,,,,,,,,,,,,,,,,,,,,,,,,,,,,,,,,,,,,,,,,,,,,,,,,,,,,,,,,,,
3617,1645818257.699687,1645818257.7515,105.0,0.0,4170.256348,4462.563965,4193.846191,4320.0,4214.871582,450.0,1.0,15.0,,,,0.0,4.0,1.0,4.0,1.0,4.0,50.0,,,,,,,,,,,,,,,,,,,,,,,,,,,,,,,,,,,,,,,,,,,,,,,,,,,,,,,,,,,,,,,,,,,,,,,,,,,,,,,,,,,,
3618,1645818257.7075038,1645818257.759315,106.0,0.0,4151.282227000001,4506.153809,4180.0,4309.230957,4207.179688,450.0,1.0,15.0,,,,0.0,4.0,1.0,4.0,1.0,4.0,50.0,,,,,,,,53.0,0.0,0.177923,0.618164,-0.150391,-0.750732,0.885756,-0.45606199999999997,-0.198734,-0.016713,-0.026779,-0.042817,,,,,,,,,,,,,,,,,,,,,,,,,,,,,,,,,,,,,,,,,,,,,,,,,,,,,,,,,,,,,,,,,
3619,1645818257.7153199,1645818257.767129,107.0,0.0,4162.563965,4461.025879,4184.102539,4272.307617,4212.307617,16197.0,1.0,15.0,,,,0.0,4.0,1.0,4.0,1.0,4.0,50.0,,,,,,,,,,,,,,,,,,,,,,,,,,,,,,,,,,,,,,,,,,,,,,,,,,,,,,0.0,0.0,1.0,0.0,512.0,1.0,,,,,,,,,,,,,,,,,,,,,,,,,
3620,1645818257.723136,1645818257.7749438,108.0,0.0,4169.743652,4425.641113000001,4175.897461,4272.820313,4217.94873,450.0,1.0,15.0,,,,0.0,4.0,1.0,4.0,1.0,4.0,50.0,,,,,,,,54.0,0.0,0.178564,0.61792,-0.150635,-0.750732,0.8676889999999999,-0.455085,-0.187503,-0.017238999999999997,-0.026836000000000002,-0.038096,,,,,,,,,,,,,,,,,,,,,,,,,,,,,,,,,,,,,,,,,,,,,,,,,,,,,,,,,,,,,,,,,
3621,1645818257.730952,1645818257.782758,109.0,0.0,4168.205078,4524.615234000001,4166.153809,4277.94873,4237.436035,450.0,1.0,15.0,,,,0.0,4.0,1.0,4.0,1.0,4.0,50.0,,,,,,,,,,,,,,,,,,,,,,,,,,,,,,,,,,,,,,,,,,,,,,,,,,,,,,,,,,,,,,,,,,,,,,,,,,,,,,,,,,,,
3622,1645818257.7387679,1645818257.790473,110.0,0.0,4183.589844,4608.717772999999,4180.512695,4273.333496,4261.538574,450.0,1.0,15.0,,,,0.0,4.0,1.0,4.0,1.0,4.0,50.0,,,,,,,,55.0,0.0,0.178769,0.61792,-0.150391,-0.750732,0.877943,-0.45069,-0.18701500000000001,-0.017662999999999998,-0.026691000000000003,-0.040048,,,,,,,,,,,,,,,,,,,,,,,,,,,,,,,,,,,,,,,,,,,,,,,,,,,,,,,,,,,,,,,,,
3623,1645818257.746585,1645818257.798187,111.0,0.0,4212.307617,4566.666504,4215.897461,4291.282227000001,4267.692383,16197.0,1.0,15.0,,,,0.0,4.0,1.0,4.0,1.0,4.0,50.0,,,,,,,,,,,,,,,,,,,,1.0,0.0,0.0,,,,,,,,,,,,,,,,,,,,,,,,,,,,,,,,0.0,0.0,1.0,0.0,512.0,1.0,243.581024,15.796555999999999,5.202678,4.590483,2.390593,18.465759,12.832149000000001,20.942529999999998,13.994860999999998,16.895664,1.275708,3.89123,2.846821,2.7456720000000003,1.9718900000000001,6.121484,5.00281,4.56971,4.23022,4.510326,58.418125,6.650312,3.489923,3.751561,2.194216
3624,1645818257.754401,1645818257.806001,112.0,0.0,4206.153809,4564.102539,4224.615234000001,4305.128418,4249.230957,450.0,1.0,15.0,,,,0.0,4.0,1.0,4.0,1.0,4.0,50.0,,,,,,,,56.0,0.0,0.178564,0.61792,-0.150635,-0.750732,0.8715950000000001,-0.45459700000000003,-0.19677999999999998,-0.017997,-0.026659,-0.035653,,,,,,,,,,,,,,,,,,,,,,,,,,,,,,,,,,,,,,,,,,,,,,,,,,,,,,,,,,,,,,,,,
3625,1645818257.762217,1645818257.813816,113.0,0.0,4170.769043,4611.282227000001,4193.846191,4276.922852000001,4226.666504,450.0,1.0,15.0,,,,0.0,4.0,1.0,4.0,1.0,4.0,50.0,,,,,,,,,,,,,,,,,,,,,,,,,,,,,,,,,,,,,,,,,,,,,,,,,,,,,,,,,,,,,,,,,,,,,,,,,,,,,,,,,,,,
3626,1645818257.7700331,1645818257.82163,114.0,0.0,4173.333496,4581.538574,4183.589844,4264.615234000001,4219.487305,450.0,1.0,15.0,,,,0.0,4.0,1.0,4.0,1.0,4.0,50.0,,,,,,,,57.0,0.0,0.178564,0.61792,-0.150635,-0.750732,0.8803850000000001,-0.46338599999999996,-0.189944,-0.016783000000000003,-0.026775999999999998,-0.037947,,,,,,,,,,,,,,,,,,,,,,,,,,,,,,,,,,,,,,,,,,,,,,,,,,,,,,,,,,,,,,,,,
3627,1645818257.77785,1645818257.829445,115.0,0.0,4192.307617,4548.717772999999,4197.94873,4272.307617,4221.025879,16197.0,1.0,15.0,,,,0.0,4.0,1.0,4.0,1.0,4.0,50.0,,,,,,,,,,,,,,,,,,,,,,,,,,,,,,,,,,,,,,,,,,,,,,,,,,,,,,0.0,0.0,1.0,0.0,512.0,1.0,,,,,,,,,,,,,,,,,,,,,,,,,
3628,1645818257.785666,1645818257.837259,116.0,0.0,4181.538574,4556.922852000001,4197.436035,4267.692383,4215.384765999999,450.0,1.0,15.0,,,,0.0,4.0,1.0,4.0,1.0,4.0,50.0,,,,,,,,58.0,0.0,0.178564,0.61792,-0.150635,-0.750732,0.882826,-0.461921,-0.203128,-0.017155,-0.026784,-0.033615,,,,,,,,,,,,,,,,,,,,,,,,,,,,,,,,,,,,,,,,,,,,,,,,,,,,,,,,,,,,,,,,,
3629,1645818257.793482,1645818257.845074,117.0,0.0,4181.025879,4574.358886999999,4197.436035,4276.922852000001,4226.153809,450.0,1.0,15.0,,,,0.0,4.0,1.0,4.0,1.0,4.0,50.0,,,,,,,,,,,,,,,,,,,,,,,,,,,,,,,,,,,,,,,,,,,,,,,,,,,,,,,,,,,,,,,,,,,,,,,,,,,,,,,,,,,,
3630,1645818257.801299,1645818257.852888,118.0,0.0,4207.179688,4581.538574,4214.871582,4288.717772999999,4247.179688,450.0,1.0,15.0,,,,0.0,4.0,1.0,4.0,1.0,4.0,50.0,,,,,,,,59.0,0.0,0.179587,0.61792,-0.150635,-0.750488,0.874525,-0.462409,-0.20068699999999998,-0.017588,-0.026791000000000002,-0.036113,,,,,,,,,,,,,,,,,,,,,,,,,,,,,,,,,,,,,,,,,,,,,,,,,,,,,,,,,,,,,,,,,
3631,1645818257.809115,1645818257.860602,119.0,0.0,4223.077147999999,4590.769043,4223.077147999999,4265.128418,4251.282227000001,16197.0,1.0,15.0,,,,0.0,4.0,1.0,4.0,1.0,4.0,50.0,,,,,,,,,,,,,,,,,,,,,,,,,,,,,,,,,,,,,,,,,,,,,,,,,,,,,,0.0,0.0,1.0,0.0,512.0,1.0,,,,,,,,,,,,,,,,,,,,,,,,,
3632,1645818257.816931,1645818257.868417,120.0,0.0,4203.077147999999,4594.358886999999,4205.128418,4245.128418,4236.922852000001,450.0,1.0,15.0,,,,0.0,4.0,1.0,4.0,1.0,4.0,50.0,,,,,,,,60.0,0.0,0.17938199999999999,0.61792,-0.15087899999999999,-0.750488,0.878431,-0.45459700000000003,-0.190921,-0.018027,-0.026847000000000003,-0.032062,,,,,,,,,,,,,,,,,,,,,,,,,,,,,,,,,,,,,,,,,,,,,,,,,,,,,,,,,,,,,,,,,
3633,1645818257.824747,1645818257.876131,121.0,0.0,4187.179688,4564.615234000001,4193.846191,4269.743652,4238.974121,450.0,1.0,15.0,,,,0.0,4.0,1.0,4.0,1.0,4.0,50.0,,,,,,,,,,,,,,,,,,,,,,,,,,,,,,,,,,,,,,,,,,,,,,,,,,,,,,,,,,,,,,,,,,,,,,,,,,,,,,,,,,,,
3634,1645818257.8325632,1645818257.8839462,122.0,0.0,4202.05127,4542.05127,4200.0,4279.487305,4246.666504,450.0,1.0,15.0,,,,0.0,4.0,1.0,4.0,1.0,4.0,50.0,,,,,,,,61.0,0.0,0.17938199999999999,0.61792,-0.15087899999999999,-0.750488,0.8838030000000001,-0.462409,-0.19971,-0.016859,-0.026701,-0.034714999999999996,,,,,,,,,,,,,,,,,,,,,,,,,,,,,,,,,,,,,,,,,,,,,,,,,,,,,,,,,,,,,,,,,
3635,1645818257.8403802,1645818257.8917599,123.0,0.0,4217.94873,4560.512695,4224.102539,4255.897461,4239.487305,16197.0,1.0,15.0,,,,0.0,4.0,1.0,4.0,1.0,4.0,50.0,,,,,,,,,,,,,,,,,,,,,,,,,,,,,,,,,,,,,,,,,,,,,,,,,,,,,,0.0,0.0,1.0,0.0,512.0,1.0,,,,,,,,,,,,,,,,,,,,,,,,,
3636,1645818257.848196,1645818257.899575,124.0,0.0,4209.230957,4545.128418,4234.358886999999,4244.102539,4232.820313,450.0,1.0,15.0,,,,0.0,4.0,1.0,4.0,1.0,4.0,50.0,,,,,,,,62.0,0.0,0.180221,0.617676,-0.15087899999999999,-0.750488,0.879408,-0.448737,-0.19336199999999998,-0.01737,-0.026813999999999998,-0.037103,,,,,,,,,,,,,,,,,,,,,,,,,,,,,,,,,,,,,,,,,,,,,,,,,,,,,,,,,,,,,,,,,
3637,1645818257.8560119,1645818257.9073892,125.0,0.0,4192.820313,4493.333496,4211.794922,4263.589844,4216.922852000001,450.0,1.0,15.0,,,,0.0,4.0,1.0,4.0,1.0,4.0,50.0,,,,,,,,,,,,,,,,,,,,,,,,,,,,,,,,,,,,,,,,,,,,,,,,,,,,,,,,,,,,,,,,,,,,,,,,,,,,,,,,,,,,
3638,1645818257.863828,1645818257.9152029,126.0,0.0,4196.922852000001,4505.641113000001,4195.897461,4283.589844,4203.589844,450.0,1.0,15.0,,,,0.0,4.0,1.0,4.0,1.0,4.0,50.0,,,,,,,,63.0,0.0,0.180221,0.617676,-0.15087899999999999,-0.750488,0.869642,-0.451667,-0.208011,-0.017782,-0.026867000000000002,-0.039204,,,,,,,,,,,,,,,,,,,,,,,,,,,,,,,,,,,,,,,,,,,,,,,,,,,,,,,,,,,,,,,,,
3639,1645818257.871645,1645818257.923018,127.0,0.0,4211.794922,4534.358886999999,4216.410156,4291.282227000001,4215.897461,233.0,1.0,15.0,,,,0.0,4.0,1.0,4.0,1.0,4.0,50.0,1.0,25.0,3.0,0.0,4.0,0.0,4.0,,,,,,,,,,,,,1.0,0.0,0.0,,,,,,,,,,,,,,,,,,,,,,,,,,,,,,,,0.0,0.0,1.0,0.0,512.0,1.0,375.731079,20.799311,7.296033,5.25189,2.240742,29.566074,17.145096,21.722975,14.941365,14.508889000000002,1.482819,3.624965,2.737526,2.6236099999999998,1.886945,6.875101,5.068411,3.749332,4.531022,4.383068,90.933403,7.431906,3.8407440000000004,4.093431,2.165063
3640,1645818257.879461,1645818257.9308321,0.0,0.0,4216.410156,4515.897461,4227.692383,4303.589844,4221.538574,450.0,1.0,15.0,,,,0.0,4.0,1.0,4.0,1.0,4.0,50.0,,,,,,,,0.0,0.0,0.17938199999999999,0.61792,-0.15087899999999999,-0.750488,0.885756,-0.460945,-0.196292,-0.018103,-0.026914999999999998,-0.034795,,,,,,,,,,,,,,,,,,,,,,,,,,,,,,,,,,,,,,,,,,,,,,,,,,,,,,,,,,,,,,,,,
3641,1645818257.887277,1645818257.938647,1.0,0.0,4214.871582,4540.0,4215.897461,4318.461426,4220.512695,450.0,1.0,15.0,,,,0.0,4.0,1.0,4.0,1.0,4.0,50.0,,,,,,,,,,,,,,,,,,,,,,,,,,,,,,,,,,,,,,,,,,,,,,,,,,,,,,,,,,,,,,,,,,,,,,,,,,,,,,,,,,,,
3642,1645818257.895093,1645818257.9463608,2.0,0.0,4230.256348,4556.410156,4213.846191,4315.897461,4242.563965,16193.0,1.0,15.0,,,,0.0,4.0,0.0,4.0,0.0,4.0,33.333332,,,,,,,,1.0,0.0,0.180221,0.617676,-0.15087899999999999,-0.750488,0.874525,-0.446296,-0.20019800000000001,-0.016781,-0.027007,-0.037175,,,,,,,,,,,,,,,,,,,,,,,,,,,,,,,,,,,,,,,,,,,,,,,,,,,,,,,,,,,,,,,,,
3643,1645818257.90291,1645818257.954176,3.0,0.0,4231.282227000001,4530.769043,4204.102539,4302.05127,4243.077147999999,450.0,1.0,15.0,,,,0.0,4.0,0.0,4.0,0.0,4.0,33.333332,,,,,,,,,,,,,,,,,,,,,,,,,,,,,,,,,,,,,,,,,,,,,,,,,,,,,,0.0,0.0,1.0,0.0,512.0,1.0,,,,,,,,,,,,,,,,,,,,,,,,,
3644,1645818257.910726,1645818257.96199,4.0,0.0,4209.743652,4545.128418,4185.641113000001,4282.05127,4219.487305,31.0,1.0,15.0,,,,0.0,4.0,0.0,4.0,0.0,4.0,33.333332,,,,,,,,2.0,0.0,0.17938199999999999,0.61792,-0.15087899999999999,-0.750488,0.882338,-0.45557299999999995,-0.199222,-0.0173,-0.026943,-0.039219,,,,,,,,,,,,,,,,,,,,,,,,,,,,,,,,,,,,,,,,,,,,,,,,,,,,,,,,,,,,,,,,,
3645,1645818257.918542,1645818257.9698038,5.0,0.0,4221.538574,4576.922852000001,4202.05127,4274.871582,4242.563965,450.0,1.0,15.0,,,,0.0,4.0,0.0,4.0,0.0,4.0,33.333332,,,,,,,,,,,,,,,,,,,,,,,,,,,,,,,,,,,,,,,,,,,,,,,,,,,,,,,,,,,,,,,,,,,,,,,,,,,,,,,,,,,,
3646,1645818257.926358,1645818257.977619,6.0,0.0,4252.820313,4567.692383,4222.05127,4282.563965,4286.153809,16141.0,1.0,15.0,,,,0.0,4.0,0.0,4.0,0.0,4.0,33.333332,,,,,,,,3.0,0.0,0.1804,0.61792,-0.15087899999999999,-0.7502439999999999,0.890639,-0.460945,-0.191409,-0.017669999999999998,-0.026836000000000002,-0.034956,,,,,,,,,,,,,,,,,,,,,,,,,,,,,,,,,,,,,,,,,,,,,,,,,,,,,,,,,,,,,,,,,
3647,1645818257.934174,1645818257.985433,7.0,0.0,4242.563965,4549.743652,4207.692383,4269.230957,4271.794922,450.0,1.0,15.0,,,,0.0,4.0,0.0,4.0,0.0,4.0,33.333332,,,,,,,,,,,,,,,,,,,,,,,,,,,,,,,,,,,,,,,,,,,,,,,,,,,,,,0.0,0.0,1.0,0.0,512.0,1.0,,,,,,,,,,,,,,,,,,,,,,,,,
3648,1645818257.941991,1645818257.993248,8.0,0.0,4207.692383,4548.205078,4196.410156,4247.179688,4226.666504,450.0,1.0,15.0,,,,0.0,4.0,0.0,4.0,0.0,4.0,33.333332,,,,,,,,4.0,0.0,0.1804,0.61792,-0.15087899999999999,-0.7502439999999999,0.8798959999999999,-0.460945,-0.190921,-0.016489,-0.026838,-0.037271,,,,,,,,,,,,,,,,,,,,,,,,,,,,,,,,,,,,,,,,,,,,,,,,,,,,,,,,,,,,,,,,,
3649,1645818257.949807,1645818258.001062,9.0,0.0,4201.025879,4563.077147999999,4205.128418,4255.897461,4214.358886999999,10.0,1.0,15.0,,,,0.0,4.0,0.0,4.0,0.0,4.0,33.333332,,,,,,,,,,,,,,,,,,,,,,,,,,,,,,,,,,,,,,,,,,,,,,,,,,,,,,,,,,,,,,,,,,,,,,,,,,,,,,,,,,,,
3650,1645818257.957623,1645818258.008876,10.0,0.0,4220.0,4582.05127,4206.666504,4276.922852000001,4220.512695,450.0,1.0,15.0,,,,0.0,4.0,0.0,4.0,0.0,4.0,33.333332,,,,,,,,5.0,0.0,0.179562,0.618164,-0.15087899999999999,-0.7502439999999999,0.8798959999999999,-0.47071,-0.18555,-0.016988,-0.026938,-0.039403,,,,,,,,,,,,,,,,,,,,,,,,,,,,,,,,,,,,,,,,,,,,,,,,,,,,,,,,,,,,,,,,,
3651,1645818257.965439,1645818258.016591,11.0,0.0,4217.94873,4561.025879,4192.820313,4274.358886999999,4209.743652,16212.0,1.0,15.0,,,,0.0,4.0,0.0,4.0,0.0,4.0,33.333332,,,,,,,,,,,,,,,,,,,,,,,,,,,,,,,,,,,,,,,,,,,,,,,,,,,,,,0.0,0.0,1.0,0.0,512.0,1.0,,,,,,,,,,,,,,,,,,,,,,,,,
3652,1645818257.973256,1645818258.024405,12.0,0.0,4213.333496,4561.538574,4193.846191,4273.333496,4215.384765999999,450.0,1.0,15.0,,,,0.0,4.0,0.0,4.0,0.0,4.0,33.333332,,,,,,,,6.0,0.0,0.180579,0.618164,-0.15087899999999999,-0.75,0.8750129999999999,-0.46338599999999996,-0.188968,-0.015778,-0.026978,-0.041371,,,,,,,,,,,,,,,,,,,,,,,,,,,,,,,,,,,,,,,,,,,,,,,,,,,,,,,,,,,,,,,,,
3653,1645818257.9810722,1645818258.03222,13.0,0.0,4230.769043,4592.307617,4206.666504,4270.256348,4243.589844,450.0,1.0,15.0,,,,0.0,4.0,0.0,4.0,0.0,4.0,33.333332,,,,,,,,,,,,,,,,,,,,,,,,,,,,,,,,,,,,,,,,,,,,,,,,,,,,,,,,,,,,,,,,,,,,,,,,,,,,,,,,,,,,
3654,1645818257.988888,1645818258.040034,14.0,0.0,4249.230957,4580.0,4208.717772999999,4258.974121,4242.563965,450.0,1.0,15.0,,,,0.0,4.0,0.0,4.0,0.0,4.0,33.333332,,,,,,,,7.0,0.0,0.180579,0.618164,-0.15087899999999999,-0.75,0.8740370000000001,-0.44776099999999996,-0.192874,-0.016153,-0.026868,-0.036843,,,,,,,,,,,,,,,,,,,,,,,,,,,,,,,,,,,,,,,,,,,,,,,,,,,,,,,,,,,,,,,,,
3655,1645818257.9967039,1645818258.047849,15.0,0.0,4255.384765999999,4580.0,4201.538574,4256.922852000001,4234.358886999999,16212.0,1.0,15.0,,,,0.0,4.0,0.0,4.0,0.0,4.0,33.333332,,,,,,,,,,,,,,,,,,,,1.0,0.0,0.0,,,,,,,,,,,,,,,,,,,,,,,,,,,,,,,,0.0,0.0,1.0,0.0,512.0,1.0,498.15481600000004,24.826838000000002,9.303717,5.738964,2.103743,45.065922,24.205015,27.189097999999998,16.41556,12.650484,1.980576,3.4338260000000003,2.557136,2.684369,1.862597,7.434372,4.916786,3.14151,4.473163,4.1129169999999995,122.33683799999999,7.805525,3.920204,4.3019110000000005,2.153756
3656,1645818258.0045211,1645818258.055663,16.0,0.0,4249.743652,4570.256348,4205.128418,4276.410156,4249.743652,0.0,1.0,15.0,,,,0.0,4.0,0.0,4.0,0.0,4.0,33.333332,,,,,,,,8.0,0.0,0.180579,0.618164,-0.15087899999999999,-0.75,0.891127,-0.46387399999999995,-0.18945599999999999,-0.015026,-0.026818,-0.038872000000000004,,,,,,,,,,,,,,,,,,,,,,,,,,,,,,,,,,,,,,,,,,,,,,,,,,,,,,,,,,,,,,,,,
3657,1645818258.012337,1645818258.063477,17.0,0.0,4231.794922,4496.922852000001,4196.922852000001,4294.358886999999,4242.563965,0.0,1.0,15.0,,,,0.0,4.0,0.0,4.0,0.0,4.0,33.333332,,,,,,,,,,,,,,,,,,,,,,,,,,,,,,,,,,,,,,,,,,,,,,,,,,,,,,,,,,,,,,,,,,,,,,,,,,,,,,,,,,,,
3658,1645818258.020153,1645818258.071292,18.0,0.0,4225.641113000001,4509.230957,4180.512695,4283.589844,4212.820313,0.0,1.0,15.0,,,,0.0,4.0,0.0,4.0,0.0,4.0,33.333332,,,,,,,,9.0,0.0,0.180579,0.618164,-0.15087899999999999,-0.75,0.874525,-0.451667,-0.189944,-0.01411,-0.026773,-0.040844,,,,,,,,,,,,,,,,,,,,,,,,,,,,,,,,,,,,,,,,,,,,,,,,,,,,,,,,,,,,,,,,,
3659,1645818258.027969,1645818258.079106,19.0,0.0,4249.230957,4625.128418,4201.538574,4251.794922,4218.461426,0.0,1.0,15.0,,,,0.0,4.0,0.0,4.0,0.0,4.0,33.333332,,,,,,,,,,,,,,,,,,,,,,,,,,,,,,,,,,,,,,,,,,,,,,,,,,,,,,0.0,0.0,1.0,0.0,512.0,1.0,,,,,,,,,,,,,,,,,,,,,,,,,
3660,1645818258.035786,1645818258.086821,20.0,0.0,4248.717772999999,4602.05127,4220.512695,4238.461426,4228.717772999999,0.0,1.0,15.0,,,,0.0,4.0,0.0,4.0,0.0,4.0,33.333332,,,,,,,,10.0,0.0,0.18159,0.618164,-0.15087899999999999,-0.7497560000000001,0.893568,-0.458503,-0.196292,-0.014846999999999999,-0.026782,-0.042619,,,,,,,,,,,,,,,,,,,,,,,,,,,,,,,,,,,,,,,,,,,,,,,,,,,,,,,,,,,,,,,,,
3661,1645818258.043602,1645818258.094635,21.0,0.0,4214.358886999999,4490.256348,4198.974121,4276.922852000001,4197.436035,0.0,1.0,15.0,,,,0.0,4.0,0.0,4.0,0.0,4.0,33.333332,,,,,,,,,,,,,,,,,,,,,,,,,,,,,,,,,,,,,,,,,,,,,,,,,,,,,,,,,,,,,,,,,,,,,,,,,,,,,,,,,,,,
3662,1645818258.051418,1645818258.102449,22.0,0.0,4218.974121,4514.871582,4198.461426,4311.794922,4188.205078,0.0,1.0,15.0,,,,0.0,4.0,0.0,4.0,0.0,4.0,33.333332,,,,,,,,11.0,0.0,0.18159,0.618164,-0.15087899999999999,-0.7497560000000001,0.8803850000000001,-0.46045600000000003,-0.194827,-0.015657,-0.026789,-0.037918,,,,,,,,,,,,,,,,,,,,,,,,,,,,,,,,,,,,,,,,,,,,,,,,,,,,,,,,,,,,,,,,,
3663,1645818258.059234,1645818258.110264,23.0,0.0,4255.897461,4554.871582,4223.077147999999,4274.358886999999,4227.179688,0.0,1.0,15.0,,,,0.0,4.0,0.0,4.0,0.0,4.0,33.333332,,,,,,,,,,,,,,,,,,,,,,,,,,,,,,,,,,,,,,,,,,,,,,,,,,,,,,0.0,0.0,1.0,0.0,512.0,1.0,,,,,,,,,,,,,,,,,,,,,,,,,
3664,1645818258.067051,1645818258.118078,24.0,0.0,4255.897461,4511.282227000001,4211.282227000001,4246.666504,4226.153809,0.0,1.0,15.0,,,,0.0,4.0,0.0,4.0,0.0,4.0,33.333332,,,,,,,,12.0,0.0,0.180579,0.618164,-0.15087899999999999,-0.75,0.874525,-0.451667,-0.189944,-0.016094,-0.026795999999999997,-0.039937,,,,,,,,,,,,,,,,,,,,,,,,,,,,,,,,,,,,,,,,,,,,,,,,,,,,,,,,,,,,,,,,,
3665,1645818258.074867,1645818258.1258929,25.0,0.0,4242.563965,4571.282227000001,4195.897461,4294.871582,4206.153809,0.0,1.0,15.0,,,,0.0,4.0,0.0,4.0,0.0,4.0,33.333332,,,,,,,,,,,,,,,,,,,,,,,,,,,,,,,,,,,,,,,,,,,,,,,,,,,,,,,,,,,,,,,,,,,,,,,,,,,,,,,,,,,,
3666,1645818258.082683,1645818258.133707,26.0,0.0,4250.256348,4657.436035,4201.538574,4309.743652,4219.487305,0.0,1.0,15.0,,,,0.0,4.0,0.0,4.0,0.0,4.0,33.333332,,,,,,,,13.0,0.0,0.18159,0.618164,-0.15087899999999999,-0.7497560000000001,0.8803850000000001,-0.46045600000000003,-0.194827,-0.016779,-0.026802,-0.035504,,,,,,,,,,,,,,,,,,,,,,,,,,,,,,,,,,,,,,,,,,,,,,,,,,,,,,,,,,,,,,,,,
3667,1645818258.090499,1645818258.1415222,27.0,0.0,4254.871582,4585.641113000001,4195.384765999999,4265.128418,4231.282227000001,0.0,1.0,15.0,,,,0.0,4.0,0.0,4.0,0.0,4.0,33.333332,,,,,,,,,,,,,,,,,,,,,,,,,,,,,,,,,,,,,,,,,,,,,,,,,,,,,,0.0,0.0,1.0,0.0,512.0,1.0,,,,,,,,,,,,,,,,,,,,,,,,,
3668,1645818258.098315,1645818258.1493359,28.0,0.0,4263.077147999999,4551.794922,4203.077147999999,4270.769043,4241.538574,0.0,1.0,15.0,,,,0.0,4.0,0.0,4.0,0.0,4.0,33.333332,,,,,,,,14.0,0.0,0.18159,0.618164,-0.15087899999999999,-0.7497560000000001,0.8803850000000001,-0.45215500000000003,-0.194827,-0.017347,-0.026757999999999997,-0.037813,,,,,,,,,,,,,,,,,,,,,,,,,,,,,,,,,,,,,,,,,,,,,,,,,,,,,,,,,,,,,,,,,
3669,1645818258.106132,1645818258.15715,29.0,0.0,4269.230957,4616.410156,4222.05127,4284.102539,4257.94873,0.0,1.0,15.0,,,,0.0,4.0,0.0,4.0,0.0,4.0,33.333332,,,,,,,,,,,,,,,,,,,,,,,,,,,,,,,,,,,,,,,,,,,,,,,,,,,,,,,,,,,,,,,,,,,,,,,,,,,,,,,,,,,,
3670,1645818258.113948,1645818258.164865,30.0,0.0,4248.717772999999,4604.615234000001,4204.615234000001,4228.717772999999,4238.461426,0.0,1.0,15.0,,,,0.0,4.0,0.0,4.0,0.0,4.0,33.333332,,,,,,,,15.0,0.0,0.18159,0.618164,-0.15087899999999999,-0.7497560000000001,0.8833139999999999,-0.45069,-0.181643,-0.017712000000000002,-0.026768,-0.033543,,,,,,,,,,,,,,,,,,,,,,,,,,,,,,,,,,,,,,,,,,,,,,,,,,,,,,,,,,,,,,,,,
3671,1645818258.121764,1645818258.172679,31.0,0.0,4234.871582,4597.94873,4186.153809,4210.256348,4214.358886999999,0.0,1.0,15.0,,,,0.0,4.0,0.0,4.0,0.0,4.0,33.333332,,,,,,,,,,,,,,,,,,,,1.0,0.0,0.0,,,,,,,,,,,,,,,,,,,,,,,,,,,,,,,,0.0,0.0,1.0,0.0,512.0,1.0,577.455933,26.722445,10.63208,5.858668,2.015034,61.729099,32.465435,37.151077,17.823835,11.759921,2.750203,3.315325,2.335627,2.893954,1.905002,7.49995,4.477224,2.846315,4.032454,3.6907300000000003,144.001633,7.695582000000001,3.750582,4.350574,2.152526
3672,1645818258.12958,1645818258.1804938,32.0,0.0,4250.769043,4636.410156,4208.205078,4269.230957,4231.282227000001,0.0,1.0,15.0,,,,0.0,4.0,0.0,4.0,0.0,4.0,33.333332,,,,,,,,16.0,0.0,0.180553,0.618408,-0.151123,-0.7497560000000001,0.8847790000000001,-0.460945,-0.182132,-0.016429,-0.026875,-0.036146,,,,,,,,,,,,,,,,,,,,,,,,,,,,,,,,,,,,,,,,,,,,,,,,,,,,,,,,,,,,,,,,,
3673,1645818258.137397,1645818258.188308,33.0,0.0,4260.0,4580.512695,4229.230957,4282.05127,4240.0,0.0,1.0,15.0,,,,0.0,4.0,0.0,4.0,0.0,4.0,33.333332,,,,,,,,,,,,,,,,,,,,,,,,,,,,,,,,,,,,,,,,,,,,,,,,,,,,,,,,,,,,,,,,,,,,,,,,,,,,,,,,,,,,
3674,1645818258.1452131,1645818258.1961222,34.0,0.0,4257.94873,4521.538574,4228.205078,4253.846191,4230.769043,0.0,1.0,15.0,,,,0.0,4.0,0.0,4.0,0.0,4.0,33.333332,,,,,,,,17.0,0.0,0.180553,0.618408,-0.151123,-0.7497560000000001,0.8740370000000001,-0.45459700000000003,-0.198245,-0.016886,-0.026920999999999997,-0.032092,,,,,,,,,,,,,,,,,,,,,,,,,,,,,,,,,,,,,,,,,,,,,,,,,,,,,,,,,,,,,,,,,
3675,1645818258.153029,1645818258.2039368,35.0,0.0,4250.769043,4560.512695,4223.077147999999,4300.0,4221.025879,0.0,1.0,15.0,,,,0.0,4.0,0.0,4.0,0.0,4.0,33.333332,,,,,,,,,,,,,,,,,,,,,,,,,,,,,,,,,,,,,,,,,,,,,,,,,,,,,,0.0,0.0,1.0,0.0,512.0,1.0,,,,,,,,,,,,,,,,,,,,,,,,,
3676,1645818258.1608448,1645818258.211751,36.0,0.0,4249.743652,4553.846191,4221.025879,4371.282227000001,4217.436035,0.0,1.0,15.0,,,,0.0,4.0,0.0,4.0,0.0,4.0,33.333332,,,,,,,,18.0,0.0,0.180553,0.618408,-0.151123,-0.7497560000000001,0.866224,-0.453132,-0.17383099999999999,-0.015783000000000002,-0.026866,-0.028492,,,,,,,,,,,,,,,,,,,,,,,,,,,,,,,,,,,,,,,,,,,,,,,,,,,,,,,,,,,,,,,,,
3677,1645818258.1686609,1645818258.219566,37.0,0.0,4255.384765999999,4573.846191,4219.487305,4367.692383,4233.846191,0.0,1.0,15.0,,,,0.0,4.0,0.0,4.0,0.0,4.0,33.333332,,,,,,,,,,,,,,,,,,,,,,,,,,,,,,,,,,,,,,,,,,,,,,,,,,,,,,,,,,,,,,,,,,,,,,,,,,,,,,,,,,,,
3678,1645818258.176478,1645818258.22738,38.0,0.0,4253.333496,4673.333496,4219.487305,4326.153809,4249.743652,0.0,1.0,15.0,,,,0.0,4.0,0.0,4.0,0.0,4.0,33.333332,,,,,,,,19.0,0.0,0.180553,0.618408,-0.151123,-0.7497560000000001,0.8676889999999999,-0.45459700000000003,-0.182132,-0.014741999999999998,-0.026816000000000003,-0.031452999999999995,,,,,,,,,,,,,,,,,,,,,,,,,,,,,,,,,,,,,,,,,,,,,,,,,,,,,,,,,,,,,,,,,
3679,1645818258.184294,1645818258.235095,39.0,0.0,4253.333496,4630.769043,4223.077147999999,4316.922852000001,4241.538574,0.0,1.0,15.0,,,,0.0,4.0,0.0,4.0,0.0,4.0,33.333332,,,,,,,,,,,,,,,,,,,,,,,,,,,,,,,,,,,,,,,,,,,,,,,,,,,,,,0.0,0.0,1.0,0.0,512.0,1.0,,,,,,,,,,,,,,,,,,,,,,,,,
3680,1645818258.19211,1645818258.242909,40.0,0.0,4271.282227000001,4505.641113000001,4244.615234000001,4327.179688,4246.153809,0.0,1.0,15.0,,,,0.0,4.0,0.0,4.0,0.0,4.0,33.333332,,,,,,,,20.0,0.0,0.180553,0.618408,-0.151123,-0.7497560000000001,0.882826,-0.45655,-0.189944,-0.015465000000000001,-0.026869,-0.034216,,,,,,,,,,,,,,,,,,,,,,,,,,,,,,,,,,,,,,,,,,,,,,,,,,,,,,,,,,,,,,,,,
3681,1645818258.1999269,1645818258.250624,41.0,0.0,4273.846191,4541.538574,4255.384765999999,4311.282227000001,4244.102539,0.0,1.0,15.0,,,,0.0,4.0,0.0,4.0,0.0,4.0,33.333332,,,,,,,,,,,,,,,,,,,,,,,,,,,,,,,,,,,,,,,,,,,,,,,,,,,,,,,,,,,,,,,,,,,,,,,,,,,,,,,,,,,,
3682,1645818258.207743,1645818258.258438,42.0,0.0,4268.717772999999,4609.230957,4248.717772999999,4294.871582,4224.615234000001,0.0,1.0,15.0,,,,0.0,4.0,0.0,4.0,0.0,4.0,33.333332,,,,,,,,21.0,0.0,0.181563,0.618408,-0.151123,-0.749512,0.8842909999999999,-0.46826899999999994,-0.18262,-0.016066999999999998,-0.026868,-0.036605,,,,,,,,,,,,,,,,,,,,,,,,,,,,,,,,,,,,,,,,,,,,,,,,,,,,,,,,,,,,,,,,,
3683,1645818258.215559,1645818258.266252,43.0,0.0,4261.538574,4549.743652,4226.666504,4313.333496,4213.846191,0.0,1.0,15.0,,,,0.0,4.0,0.0,4.0,0.0,4.0,33.333332,,,,,,,,,,,,,,,,,,,,,,,,,,,,,,,,,,,,,,,,,,,,,,,,,,,,,,0.0,0.0,1.0,0.0,512.0,1.0,,,,,,,,,,,,,,,,,,,,,,,,,
3684,1645818258.223375,1645818258.274067,44.0,0.0,4245.641113000001,4526.153809,4204.615234000001,4347.179688,4216.410156,0.0,1.0,15.0,,,,0.0,4.0,0.0,4.0,0.0,4.0,33.333332,,,,,,,,22.0,0.0,0.181563,0.618408,-0.151123,-0.749512,0.8774549999999999,-0.47559300000000004,-0.190433,-0.016462,-0.026914999999999998,-0.038756,,,,,,,,,,,,,,,,,,,,,,,,,,,,,,,,,,,,,,,,,,,,,,,,,,,,,,,,,,,,,,,,,
3685,1645818258.2311919,1645818258.281881,45.0,0.0,4265.641113000001,4610.769043,4224.102539,4349.743652,4239.487305,0.0,1.0,15.0,,,,0.0,4.0,0.0,4.0,0.0,4.0,33.333332,,,,,,,,,,,,,,,,,,,,,,,,,,,,,,,,,,,,,,,,,,,,,,,,,,,,,,,,,,,,,,,,,,,,,,,,,,,,,,,,,,,,
3686,1645818258.239008,1645818258.289696,46.0,0.0,4302.05127,4643.589844,4254.871582,4325.128418,4263.589844,0.0,1.0,15.0,,,,0.0,4.0,0.0,4.0,0.0,4.0,33.333332,,,,,,,,23.0,0.0,0.181563,0.618408,-0.151123,-0.749512,0.8872209999999999,-0.45410900000000004,-0.190433,-0.016965,-0.027007,-0.040593000000000004,,,,,,,,,,,,,,,,,,,,,,,,,,,,,,,,,,,,,,,,,,,,,,,,,,,,,,,,,,,,,,,,,
3687,1645818258.246824,1645818258.29751,47.0,0.0,4280.512695,4572.307617,4225.128418,4290.256348,4242.563965,0.0,1.0,15.0,,,,0.0,4.0,0.0,4.0,0.0,4.0,33.333332,,,,,,,,,,,,,,,,,,,,1.0,0.0,0.0,,,,,,,,,,,,,,,,,,,,,,,,,,,,,,,,0.0,0.0,1.0,0.0,512.0,1.0,588.378662,25.86673,10.868534,5.5858870000000005,1.989379,74.935951,39.764534000000005,49.29118,18.61245,11.803655000000001,3.6603230000000004,3.176205,2.0864119999999997,3.2103580000000003,1.988245,7.015542,3.8479400000000004,2.845043,3.328844,3.157931,148.648926,7.177784,3.44348,4.293346,2.138256
3688,1645818258.25464,1645818258.305324,48.0,0.0,4248.205078,4511.794922,4194.871582,4291.794922,4207.179688,0.0,1.0,15.0,,,,0.0,4.0,0.0,4.0,0.0,4.0,33.333332,,,,,,,,24.0,0.0,0.181563,0.618408,-0.151123,-0.749512,0.8764780000000001,-0.47363999999999995,-0.18945599999999999,-0.015854,-0.026992000000000002,-0.042393,,,,,,,,,,,,,,,,,,,,,,,,,,,,,,,,,,,,,,,,,,,,,,,,,,,,,,,,,,,,,,,,,
3689,1645818258.262456,1645818258.313139,49.0,0.0,4276.410156,4551.282227000001,4219.487305,4306.666504,4225.641113000001,0.0,1.0,15.0,,,,0.0,4.0,0.0,4.0,0.0,4.0,33.333332,,,,,,,,,,,,,,,,,,,,,,,,,,,,,,,,,,,,,,,,,,,,,,,,,,,,,,,,,,,,,,,,,,,,,,,,,,,,,,,,,,,,
3690,1645818258.270273,1645818258.320853,50.0,0.0,4310.256348,4600.512695,4241.025879,4277.94873,4259.487305,0.0,1.0,15.0,,,,0.0,4.0,0.0,4.0,0.0,4.0,33.333332,,,,,,,,25.0,0.0,0.181563,0.618408,-0.151123,-0.749512,0.8740370000000001,-0.46778100000000006,-0.186038,-0.016368,-0.027125,-0.043916000000000004,,,,,,,,,,,,,,,,,,,,,,,,,,,,,,,,,,,,,,,,,,,,,,,,,,,,,,,,,,,,,,,,,
3691,1645818258.278089,1645818258.3286679,51.0,0.0,4315.384765999999,4609.743652,4231.282227000001,4253.846191,4260.0,0.0,1.0,15.0,,,,0.0,4.0,0.0,4.0,0.0,4.0,33.333332,,,,,,,,,,,,,,,,,,,,,,,,,,,,,,,,,,,,,,,,,,,,,,,,,,,,,,0.0,0.0,1.0,0.0,512.0,1.0,,,,,,,,,,,,,,,,,,,,,,,,,
3692,1645818258.2859051,1645818258.336482,52.0,0.0,4300.512695,4627.692383,4210.256348,4271.794922,4240.0,0.0,1.0,15.0,,,,0.0,4.0,0.0,4.0,0.0,4.0,33.333332,,,,,,,,26.0,0.0,0.18136,0.618408,-0.151367,-0.749512,0.8813610000000001,-0.467292,-0.185061,-0.015366,-0.027293,-0.045432,,,,,,,,,,,,,,,,,,,,,,,,,,,,,,,,,,,,,,,,,,,,,,,,,,,,,,,,,,,,,,,,,
3693,1645818258.2937212,1645818258.3442972,53.0,0.0,4281.538574,4635.384765999999,4195.384765999999,4282.05127,4233.333496,0.0,1.0,15.0,,,,0.0,4.0,0.0,4.0,0.0,4.0,33.333332,,,,,,,,,,,,,,,,,,,,,,,,,,,,,,,,,,,,,,,,,,,,,,,,,,,,,,,,,,,,,,,,,,,,,,,,,,,,,,,,,,,,
3694,1645818258.301538,1645818258.3521109,54.0,0.0,4280.512695,4591.282227000001,4196.922852000001,4264.615234000001,4243.077147999999,0.0,1.0,15.0,,,,0.0,4.0,0.0,4.0,0.0,4.0,33.333332,,,,,,,,27.0,0.0,0.182366,0.618408,-0.151367,-0.749268,0.8774549999999999,-0.458503,-0.183597,-0.016076,-0.027201,-0.0467,,,,,,,,,,,,,,,,,,,,,,,,,,,,,,,,,,,,,,,,,,,,,,,,,,,,,,,,,,,,,,,,,
3695,1645818258.3093538,1645818258.359925,55.0,0.0,4277.94873,4536.410156,4193.846191,4252.307617,4234.871582,0.0,1.0,15.0,,,,0.0,4.0,0.0,4.0,0.0,4.0,33.333332,,,,,,,,,,,,,,,,,,,,,,,,,,,,,,,,,,,,,,,,,,,,,,,,,,,,,,0.0,0.0,1.0,0.0,512.0,1.0,,,,,,,,,,,,,,,,,,,,,,,,,
3696,1645818258.31717,1645818258.3677402,56.0,0.0,4279.487305,4560.0,4194.871582,4254.871582,4227.179688,0.0,1.0,15.0,,,,0.0,4.0,0.0,4.0,0.0,4.0,33.333332,,,,,,,,28.0,0.0,0.182366,0.618408,-0.151367,-0.749268,0.8798959999999999,-0.44824899999999995,-0.188968,-0.016666,-0.027214999999999996,-0.041638999999999995,,,,,,,,,,,,,,,,,,,,,,,,,,,,,,,,,,,,,,,,,,,,,,,,,,,,,,,,,,,,,,,,,
3697,1645818258.324986,1645818258.3755538,57.0,0.0,4311.794922,4598.974121,4223.589844,4270.769043,4252.820313,0.0,1.0,15.0,,,,0.0,4.0,0.0,4.0,0.0,4.0,33.333332,,,,,,,,,,,,,,,,,,,,,,,,,,,,,,,,,,,,,,,,,,,,,,,,,,,,,,,,,,,,,,,,,,,,,,,,,,,,,,,,,,,,
3698,1645818258.332802,1645818258.383369,58.0,0.0,4316.410156,4543.077147999999,4216.410156,4287.692383,4255.384765999999,0.0,1.0,15.0,,,,0.0,4.0,0.0,4.0,0.0,4.0,33.333332,,,,,,,,29.0,0.0,0.182568,0.618408,-0.151123,-0.749268,0.872084,-0.462409,-0.197757,-0.015683000000000002,-0.027179000000000002,-0.043384,,,,,,,,,,,,,,,,,,,,,,,,,,,,,,,,,,,,,,,,,,,,,,,,,,,,,,,,,,,,,,,,,
3699,1645818258.3406188,1645818258.391083,59.0,0.0,4285.641113000001,4503.077147999999,4180.0,4286.666504,4229.743652,0.0,1.0,15.0,,,,0.0,4.0,0.0,4.0,0.0,4.0,33.333332,,,,,,,,,,,,,,,,,,,,,,,,,,,,,,,,,,,,,,,,,,,,,,,,,,,,,,0.0,0.0,1.0,0.0,512.0,1.0,,,,,,,,,,,,,,,,,,,,,,,,,
3700,1645818258.348435,1645818258.3988972,60.0,0.0,4291.794922,4568.205078,4189.743652,4291.282227000001,4236.922852000001,0.0,1.0,15.0,,,,0.0,4.0,0.0,4.0,0.0,4.0,33.333332,,,,,,,,30.0,0.0,0.182568,0.618408,-0.151123,-0.749268,0.8764780000000001,-0.458503,-0.17969000000000002,-0.01636,-0.027098,-0.044856,,,,,,,,,,,,,,,,,,,,,,,,,,,,,,,,,,,,,,,,,,,,,,,,,,,,,,,,,,,,,,,,,
3701,1645818258.356251,1645818258.4067118,61.0,0.0,4306.666504,4633.333496,4195.384765999999,4276.922852000001,4247.692383,0.0,1.0,15.0,,,,0.0,4.0,0.0,4.0,0.0,4.0,33.333332,,,,,,,,,,,,,,,,,,,,,,,,,,,,,,,,,,,,,,,,,,,,,,,,,,,,,,,,,,,,,,,,,,,,,,,,,,,,,,,,,,,,
3702,1645818258.364067,1645818258.414526,62.0,0.0,4294.871582,4611.282227000001,4171.794922,4235.384765999999,4237.94873,0.0,1.0,15.0,,,,0.0,4.0,0.0,4.0,0.0,4.0,33.333332,,,,,,,,31.0,0.0,0.183366,0.618408,-0.151367,-0.749023,0.874525,-0.45020200000000005,-0.17773699999999998,-0.015212999999999999,-0.027074,-0.046181,,,,,,,,,,,,,,,,,,,,,,,,,,,,,,,,,,,,,,,,,,,,,,,,,,,,,,,,,,,,,,,,,
3703,1645818258.3718839,1645818258.422341,63.0,0.0,4300.0,4559.487305,4187.179688,4236.922852000001,4255.384765999999,0.0,1.0,15.0,,,,0.0,4.0,0.0,4.0,0.0,4.0,33.333332,1.0,25.0,3.0,0.0,4.0,0.0,4.0,,,,,,,,,,,,,1.0,0.0,0.0,,,,,,,,,,,,,,,,,,,,,,,,,,,,,,,,0.0,0.0,1.0,0.0,512.0,1.0,527.186829,22.455435,9.957671000000001,5.02773,2.014536,80.861351,43.983826,59.791561,18.424566,12.394982,4.430136,2.9395029999999998,1.8434130000000002,3.538677,2.065758,6.193729,3.289104,3.0222689999999997,2.5854150000000002,2.625593,134.761108,6.559448,3.13127,4.203032,2.0871180000000003
3704,1645818258.3797,1645818258.430155,64.0,0.0,4302.05127,4512.307617,4207.179688,4263.589844,4263.589844,450.0,1.0,15.0,,,,0.0,4.0,0.0,4.0,0.0,4.0,33.333332,,,,,,,,32.0,0.0,0.182366,0.618408,-0.151367,-0.749268,0.8730600000000001,-0.46778100000000006,-0.194339,-0.014277000000000001,-0.027002999999999996,-0.047276,,,,,,,,,,,,,,,,,,,,,,,,,,,,,,,,,,,,,,,,,,,,,,,,,,,,,,,,,,,,,,,,,
3705,1645818258.387516,1645818258.437969,65.0,0.0,4293.333496,4521.025879,4194.358886999999,4253.846191,4237.436035,450.0,1.0,15.0,,,,0.0,4.0,0.0,4.0,0.0,4.0,33.333332,,,,,,,,,,,,,,,,,,,,,,,,,,,,,,,,,,,,,,,,,,,,,,,,,,,,,,,,,,,,,,,,,,,,,,,,,,,,,,,,,,,,
3706,1645818258.395332,1645818258.445784,66.0,0.0,4305.128418,4574.871582,4184.615234000001,4224.102539,4240.0,16174.0,1.0,15.0,,,,0.0,4.0,0.0,4.0,0.0,4.0,33.333332,,,,,,,,33.0,0.0,0.182366,0.618408,-0.151367,-0.749268,0.876967,-0.458991,-0.177249,-0.014949,-0.026891,-0.048261,,,,,,,,,,,,,,,,,,,,,,,,,,,,,,,,,,,,,,,,,,,,,,,,,,,,,,,,,,,,,,,,,
3707,1645818258.4031491,1645818258.453598,67.0,0.0,4301.538574,4594.871582,4177.436035,4237.436035,4248.205078,450.0,1.0,15.0,,,,0.0,4.0,0.0,4.0,0.0,4.0,33.333332,,,,,,,,,,,,,,,,,,,,,,,,,,,,,,,,,,,,,,,,,,,,,,,,,,,,,,0.0,0.0,1.0,0.0,512.0,1.0,,,,,,,,,,,,,,,,,,,,,,,,,
3708,1645818258.410965,1645818258.461313,68.0,0.0,4289.230957,4568.717772999999,4169.230957,4244.615234000001,4243.077147999999,50.0,1.0,15.0,,,,0.0,4.0,1.0,4.0,2.0,4.0,58.33333199999999,,,,,,,,34.0,0.0,0.182366,0.618408,-0.151367,-0.749268,0.8842909999999999,-0.45948,-0.191409,-0.015603,-0.026887,-0.042996,,,,,,,,,,,,,,,,,,,,,,,,,,,,,,,,,,,,,,,,,,,,,,,,,,,,,,,,,,,,,,,,,
3709,1645818258.418781,1645818258.469127,69.0,0.0,4309.230957,4527.692383,4183.589844,4240.0,4262.05127,450.0,1.0,15.0,,,,0.0,4.0,1.0,4.0,2.0,4.0,58.33333199999999,,,,,,,,,,,,,,,,,,,,,,,,,,,,,,,,,,,,,,,,,,,,,,,,,,,,,,,,,,,,,,,,,,,,,,,,,,,,,,,,,,,,
3710,1645818258.426597,1645818258.476942,70.0,0.0,4341.538574,4536.410156,4208.205078,4261.538574,4302.05127,16150.0,1.0,15.0,,,,0.0,4.0,1.0,4.0,2.0,4.0,58.33333199999999,,,,,,,,35.0,0.0,0.182366,0.618408,-0.151367,-0.749268,0.8847790000000001,-0.460945,-0.19531500000000002,-0.014580000000000001,-0.026982,-0.044555000000000004,,,,,,,,,,,,,,,,,,,,,,,,,,,,,,,,,,,,,,,,,,,,,,,,,,,,,,,,,,,,,,,,,
3711,1645818258.4344141,1645818258.484756,71.0,0.0,4325.641113000001,4545.641113000001,4197.436035,4251.282227000001,4293.846191,450.0,1.0,15.0,,,,0.0,4.0,1.0,4.0,2.0,4.0,58.33333199999999,,,,,,,,,,,,,,,,,,,,,,,,,,,,,,,,,,,,,,,,,,,,,,,,,,,,,,0.0,0.0,1.0,0.0,512.0,1.0,,,,,,,,,,,,,,,,,,,,,,,,,
3712,1645818258.44223,1645818258.49257,72.0,0.0,4278.974121,4513.846191,4166.666504,4223.077147999999,4236.922852000001,450.0,1.0,15.0,,,,0.0,4.0,1.0,4.0,2.0,4.0,58.33333199999999,,,,,,,,36.0,0.0,0.182541,0.6186520000000001,-0.151367,-0.749023,0.885756,-0.46045600000000003,-0.187503,-0.015269999999999999,-0.02692,-0.039758,,,,,,,,,,,,,,,,,,,,,,,,,,,,,,,,,,,,,,,,,,,,,,,,,,,,,,,,,,,,,,,,,
3713,1645818258.450046,1645818258.500385,73.0,0.0,4269.743652,4534.871582,4168.205078,4240.512695,4220.512695,123.0,1.0,15.0,,,,0.0,4.0,1.0,4.0,2.0,4.0,58.33333199999999,,,,,,,,,,,,,,,,,,,,,,,,,,,,,,,,,,,,,,,,,,,,,,,,,,,,,,,,,,,,,,,,,,,,,,,,,,,,,,,,,,,,
3714,1645818258.457862,1645818258.508199,74.0,0.0,4323.077147999999,4577.94873,4217.94873,4254.358886999999,4280.512695,450.0,1.0,15.0,,,,0.0,4.0,1.0,4.0,2.0,4.0,58.33333199999999,,,,,,,,37.0,0.0,0.182338,0.6186520000000001,-0.151611,-0.749023,0.8808729999999999,-0.460945,-0.17969000000000002,-0.015892,-0.026913999999999997,-0.041691000000000006,,,,,,,,,,,,,,,,,,,,,,,,,,,,,,,,,,,,,,,,,,,,,,,,,,,,,,,,,,,,,,,,,
3715,1645818258.465679,1645818258.516014,75.0,0.0,4343.589844,4558.974121,4225.641113000001,4213.333496,4311.282227000001,16180.0,1.0,15.0,,,,0.0,4.0,1.0,4.0,2.0,4.0,58.33333199999999,,,,,,,,,,,,,,,,,,,,,,,,,,,,,,,,,,,,,,,,,,,,,,,,,,,,,,0.0,0.0,1.0,0.0,512.0,1.0,,,,,,,,,,,,,,,,,,,,,,,,,
3716,1645818258.473495,1645818258.523828,76.0,0.0,4291.282227000001,4575.384765999999,4172.820313,4200.0,4259.487305,450.0,1.0,15.0,,,,0.0,4.0,1.0,4.0,2.0,4.0,58.33333199999999,,,,,,,,38.0,0.0,0.183338,0.6186520000000001,-0.151611,-0.748779,0.8740370000000001,-0.471199,-0.169436,-0.016402,-0.026957,-0.043235,,,,,,,,,,,,,,,,,,,,,,,,,,,,,,,,,,,,,,,,,,,,,,,,,,,,,,,,,,,,,,,,,
3717,1645818258.4813108,1645818258.531543,77.0,0.0,4275.897461,4650.769043,4149.230957,4218.461426,4235.897461,450.0,1.0,15.0,,,,0.0,4.0,1.0,4.0,2.0,4.0,58.33333199999999,,,,,,,,,,,,,,,,,,,,,,,,,,,,,,,,,,,,,,,,,,,,,,,,,,,,,,,,,,,,,,,,,,,,,,,,,,,,,,,,,,,,
3718,1645818258.489127,1645818258.539357,78.0,0.0,4304.615234000001,4656.410156,4157.436035,4185.128418,4267.179688,450.0,1.0,15.0,,,,0.0,4.0,1.0,4.0,2.0,4.0,58.33333199999999,,,,,,,,39.0,0.0,0.182541,0.6186520000000001,-0.151367,-0.749023,0.885756,-0.46045600000000003,-0.187503,-0.016763999999999998,-0.026898000000000002,-0.03852,,,,,,,,,,,,,,,,,,,,,,,,,,,,,,,,,,,,,,,,,,,,,,,,,,,,,,,,,,,,,,,,,
3719,1645818258.496944,1645818258.547171,79.0,0.0,4291.794922,4587.179688,4156.410156,4162.563965,4268.205078,16180.0,1.0,15.0,,,,0.0,4.0,1.0,4.0,2.0,4.0,58.33333199999999,,,,,,,,,,,,,,,,,,,,1.0,0.0,0.0,,,,,,,,,,,,,,,,,,,,,,,,,,,,,,,,0.0,0.0,1.0,0.0,512.0,1.0,413.777191,17.421669,8.196114999999999,4.340711,2.059421,78.247322,43.832344,65.013329,17.410401999999998,13.079736,4.808882,2.571259,1.6459979999999999,3.7481980000000004,2.0979389999999998,5.529383999999999,3.162576,3.3315940000000004,2.032946,2.2460970000000002,107.059692,6.175292,2.904528,4.113402,1.9905810000000002
3720,1645818258.50476,1645818258.554986,80.0,0.0,4269.230957,4550.256348,4165.128418,4209.743652,4243.589844,450.0,1.0,15.0,,,,0.0,4.0,1.0,4.0,2.0,4.0,58.33333199999999,,,,,,,,40.0,0.0,0.183338,0.6186520000000001,-0.151611,-0.748779,0.8740370000000001,-0.471199,-0.169436,-0.017187,-0.026943,-0.040381,,,,,,,,,,,,,,,,,,,,,,,,,,,,,,,,,,,,,,,,,,,,,,,,,,,,,,,,,,,,,,,,,
3721,1645818258.5125759,1645818258.5628,81.0,0.0,4300.512695,4604.102539,4187.692383,4207.692383,4249.230957,450.0,1.0,15.0,,,,0.0,4.0,1.0,4.0,2.0,4.0,58.33333199999999,,,,,,,,,,,,,,,,,,,,,,,,,,,,,,,,,,,,,,,,,,,,,,,,,,,,,,,,,,,,,,,,,,,,,,,,,,,,,,,,,,,,
3722,1645818258.520392,1645818258.570615,82.0,0.0,4313.333496,4687.692383,4185.128418,4145.128418,4257.94873,450.0,1.0,15.0,,,,0.0,4.0,1.0,4.0,2.0,4.0,58.33333199999999,,,,,,,,41.0,0.0,0.182338,0.6186520000000001,-0.151611,-0.749023,0.878431,-0.466316,-0.18945599999999999,-0.017616999999999997,-0.026933999999999996,-0.042056,,,,,,,,,,,,,,,,,,,,,,,,,,,,,,,,,,,,,,,,,,,,,,,,,,,,,,,,,,,,,,,,,
3723,1645818258.528208,1645818258.578429,83.0,0.0,4284.615234000001,4692.307617,4173.846191,4165.641113000001,4238.974121,16180.0,1.0,15.0,,,,0.0,4.0,1.0,4.0,2.0,4.0,58.33333199999999,,,,,,,,,,,,,,,,,,,,,,,,,,,,,,,,,,,,,,,,,,,,,,,,,,,,,,0.0,0.0,1.0,0.0,512.0,1.0,,,,,,,,,,,,,,,,,,,,,,,,,
3724,1645818258.536025,1645818258.586243,84.0,0.0,4291.282227000001,4658.461426,4188.205078,4255.897461,4245.641113000001,450.0,1.0,15.0,,,,0.0,4.0,1.0,4.0,2.0,4.0,58.33333199999999,,,,,,,,42.0,0.0,0.182338,0.6186520000000001,-0.151611,-0.749023,0.873549,-0.46387399999999995,-0.207523,-0.016441,-0.026876999999999998,-0.043661,,,,,,,,,,,,,,,,,,,,,,,,,,,,,,,,,,,,,,,,,,,,,,,,,,,,,,,,,,,,,,,,,
3725,1645818258.5438411,1645818258.594058,85.0,0.0,4312.307617,4682.563965,4191.794922,4274.871582,4276.922852000001,450.0,1.0,15.0,,,,0.0,4.0,1.0,4.0,2.0,4.0,58.33333199999999,,,,,,,,,,,,,,,,,,,,,,,,,,,,,,,,,,,,,,,,,,,,,,,,,,,,,,,,,,,,,,,,,,,,,,,,,,,,,,,,,,,,
3726,1645818258.551657,1645818258.601872,86.0,0.0,4288.717772999999,4696.922852000001,4162.563965,4230.256348,4253.846191,450.0,1.0,15.0,,,,0.0,4.0,1.0,4.0,2.0,4.0,58.33333199999999,,,,,,,,43.0,0.0,0.182338,0.6186520000000001,-0.151611,-0.749023,0.876967,-0.46973400000000004,-0.18945599999999999,-0.016848,-0.026924,-0.038904,,,,,,,,,,,,,,,,,,,,,,,,,,,,,,,,,,,,,,,,,,,,,,,,,,,,,,,,,,,,,,,,,
3727,1645818258.559473,1645818258.609587,87.0,0.0,4262.05127,4646.666504,4157.94873,4206.153809,4222.05127,16180.0,1.0,15.0,,,,0.0,4.0,1.0,4.0,2.0,4.0,58.33333199999999,,,,,,,,,,,,,,,,,,,,,,,,,,,,,,,,,,,,,,,,,,,,,,,,,,,,,,0.0,0.0,1.0,0.0,512.0,1.0,,,,,,,,,,,,,,,,,,,,,,,,,
3728,1645818258.56729,1645818258.617401,88.0,0.0,4274.358886999999,4616.410156,4188.717772999999,4222.563965,4250.256348,450.0,1.0,15.0,,,,0.0,4.0,1.0,4.0,2.0,4.0,58.33333199999999,,,,,,,,44.0,0.0,0.182338,0.6186520000000001,-0.151611,-0.749023,0.8764780000000001,-0.46826899999999994,-0.186526,-0.015749000000000003,-0.026917,-0.040922,,,,,,,,,,,,,,,,,,,,,,,,,,,,,,,,,,,,,,,,,,,,,,,,,,,,,,,,,,,,,,,,,
3729,1645818258.5751061,1645818258.625216,89.0,0.0,4295.384765999999,4657.436035,4192.820313,4251.794922,4269.230957,450.0,1.0,15.0,,,,0.0,4.0,1.0,4.0,2.0,4.0,58.33333199999999,,,,,,,,,,,,,,,,,,,,,,,,,,,,,,,,,,,,,,,,,,,,,,,,,,,,,,,,,,,,,,,,,,,,,,,,,,,,,,,,,,,,
3730,1645818258.582922,1645818258.6330302,90.0,0.0,4315.897461,4678.974121,4188.205078,4267.692383,4253.333496,450.0,1.0,15.0,,,,0.0,4.0,1.0,4.0,2.0,4.0,58.33333199999999,,,,,,,,45.0,0.0,0.183366,0.618408,-0.151367,-0.749023,0.875502,-0.45215500000000003,-0.17383099999999999,-0.014662,-0.027058,-0.036342,,,,,,,,,,,,,,,,,,,,,,,,,,,,,,,,,,,,,,,,,,,,,,,,,,,,,,,,,,,,,,,,,
3731,1645818258.590738,1645818258.6408439,91.0,0.0,4321.538574,4648.717772999999,4198.461426,4246.666504,4246.666504,16180.0,1.0,15.0,,,,0.0,4.0,1.0,4.0,2.0,4.0,58.33333199999999,,,,,,,,,,,,,,,,,,,,,,,,,,,,,,,,,,,,,,,,,,,,,,,,,,,,,,0.0,0.0,1.0,0.0,512.0,1.0,,,,,,,,,,,,,,,,,,,,,,,,,
3732,1645818258.598554,1645818258.648659,92.0,0.0,4288.717772999999,4669.230957,4179.487305,4204.102539,4228.205078,450.0,1.0,15.0,,,,0.0,4.0,1.0,4.0,2.0,4.0,58.33333199999999,,,,,,,,46.0,0.0,0.182541,0.6186520000000001,-0.151367,-0.749023,0.8833139999999999,-0.46045600000000003,-0.18701500000000001,-0.013636,-0.027086000000000002,-0.038421,,,,,,,,,,,,,,,,,,,,,,,,,,,,,,,,,,,,,,,,,,,,,,,,,,,,,,,,,,,,,,,,,
3733,1645818258.6063712,1645818258.6564732,93.0,0.0,4282.563965,4676.410156,4172.820313,4227.179688,4227.179688,450.0,1.0,15.0,,,,0.0,4.0,1.0,4.0,2.0,4.0,58.33333199999999,,,,,,,,,,,,,,,,,,,,,,,,,,,,,,,,,,,,,,,,,,,,,,,,,,,,,,,,,,,,,,,,,,,,,,,,,,,,,,,,,,,,
3734,1645818258.614187,1645818258.664288,94.0,0.0,4308.205078,4590.769043,4196.410156,4250.256348,4264.102539,450.0,1.0,15.0,,,,0.0,4.0,1.0,4.0,2.0,4.0,58.33333199999999,,,,,,,,47.0,0.0,0.182541,0.6186520000000001,-0.151367,-0.749023,0.882338,-0.466804,-0.197757,-0.012858000000000001,-0.027063,-0.040389,,,,,,,,,,,,,,,,,,,,,,,,,,,,,,,,,,,,,,,,,,,,,,,,,,,,,,,,,,,,,,,,,
3735,1645818258.6220028,1645818258.672102,95.0,0.0,4304.102539,4585.128418,4203.077147999999,4238.974121,4264.102539,16180.0,1.0,15.0,,,,0.0,4.0,1.0,4.0,2.0,4.0,58.33333199999999,,,,,,,,,,,,,,,,,,,,1.0,0.0,0.0,,,,,,,,,,,,,,,,,,,,,,,,,,,,,,,,0.0,0.0,1.0,0.0,512.0,1.0,280.68310499999995,12.095055,6.093426,3.6704779999999997,2.0943810000000003,68.478111,39.384842,62.913837,16.231859,13.562617999999999,4.630935,2.081563,1.532297,3.743638,2.072611,5.671772,3.70975,3.7907589999999995,1.802541,2.136883,73.59389499999999,6.171017,2.773012,4.0171220000000005,1.870846
3736,1645818258.6298199,1645818258.679817,96.0,0.0,4294.358886999999,4677.94873,4202.05127,4283.077147999999,4244.102539,450.0,1.0,15.0,,,,0.0,4.0,1.0,4.0,2.0,4.0,58.33333199999999,,,,,,,,48.0,0.0,0.181739,0.6186520000000001,-0.151123,-0.749268,0.876967,-0.46778100000000006,-0.18115499999999998,-0.013623,-0.026994,-0.042210000000000004,,,,,,,,,,,,,,,,,,,,,,,,,,,,,,,,,,,,,,,,,,,,,,,,,,,,,,,,,,,,,,,,,
3737,1645818258.637636,1645818258.6876311,97.0,0.0,4303.589844,4691.794922,4206.153809,4339.487305,4250.256348,450.0,1.0,15.0,,,,0.0,4.0,1.0,4.0,2.0,4.0,58.33333199999999,,,,,,,,,,,,,,,,,,,,,,,,,,,,,,,,,,,,,,,,,,,,,,,,,,,,,,,,,,,,,,,,,,,,,,,,,,,,,,,,,,,,
3738,1645818258.645452,1645818258.6954448,98.0,0.0,4293.333496,4653.333496,4184.102539,4305.128418,4238.461426,450.0,1.0,15.0,,,,0.0,4.0,1.0,4.0,2.0,4.0,58.33333199999999,,,,,,,,49.0,0.0,0.182568,0.618408,-0.151123,-0.749268,0.8618299999999999,-0.447272,-0.18457300000000001,-0.01436,-0.026785000000000003,-0.037598,,,,,,,,,,,,,,,,,,,,,,,,,,,,,,,,,,,,,,,,,,,,,,,,,,,,,,,,,,,,,,,,,
3739,1645818258.6532679,1645818258.70326,99.0,0.0,4285.128418,4667.692383,4172.820313,4210.769043,4225.128418,16180.0,1.0,15.0,,,,0.0,4.0,1.0,4.0,2.0,4.0,58.33333199999999,,,,,,,,,,,,,,,,,,,,,,,,,,,,,,,,,,,,,,,,,,,,,,,,,,,,,,0.0,0.0,1.0,0.0,512.0,1.0,,,,,,,,,,,,,,,,,,,,,,,,,
3740,1645818258.661085,1645818258.711074,100.0,0.0,4313.846191,4704.615234000001,4194.358886999999,4088.205078,4270.256348,450.0,1.0,15.0,,,,0.0,4.0,1.0,4.0,2.0,4.0,58.33333199999999,,,,,,,,50.0,0.0,0.182568,0.618408,-0.151123,-0.749268,0.869642,-0.449226,-0.18701500000000001,-0.01517,-0.026889,-0.039649000000000004,,,,,,,,,,,,,,,,,,,,,,,,,,,,,,,,,,,,,,,,,,,,,,,,,,,,,,,,,,,,,,,,,
3741,1645818258.668901,1645818258.718889,101.0,0.0,4308.205078,4695.384765999999,4188.205078,4251.794922,4280.0,450.0,1.0,15.0,,,,0.0,4.0,1.0,4.0,2.0,4.0,58.33333199999999,,,,,,,,,,,,,,,,,,,,,,,,,,,,,,,,,,,,,,,,,,,,,,,,,,,,,,,,,,,,,,,,,,,,,,,,,,,,,,,,,,,,
3742,1645818258.676717,1645818258.726703,102.0,0.0,4267.692383,4652.307617,4148.717772999999,4243.589844,4216.922852000001,450.0,1.0,15.0,,,,0.0,4.0,1.0,4.0,2.0,4.0,58.33333199999999,,,,,,,,51.0,0.0,0.182568,0.618408,-0.151123,-0.749268,0.893568,-0.460945,-0.188968,-0.015704,-0.026983999999999998,-0.041397,,,,,,,,,,,,,,,,,,,,,,,,,,,,,,,,,,,,,,,,,,,,,,,,,,,,,,,,,,,,,,,,,
3743,1645818258.684533,1645818258.734517,103.0,0.0,4285.641113000001,4616.922852000001,4184.102539,3726.1538090000004,4229.743652,16180.0,1.0,15.0,,,,0.0,4.0,1.0,4.0,2.0,4.0,58.33333199999999,,,,,,,,,,,,,,,,,,,,,,,,,,,,,,,,,,,,,,,,,,,,,,,,,,,,,,0.0,0.0,1.0,0.0,512.0,1.0,,,,,,,,,,,,,,,,,,,,,,,,,
3744,1645818258.692349,1645818258.742332,104.0,0.0,4327.179688,4654.358886999999,4278.461426,4253.846191,4304.615234000001,450.0,1.0,15.0,,,,0.0,4.0,1.0,4.0,2.0,4.0,58.33333199999999,,,,,,,,52.0,0.0,0.18277000000000002,0.618408,-0.15087899999999999,-0.749268,0.889174,-0.457038,-0.190433,-0.016281999999999998,-0.02702,-0.043117,,,,,,,,,,,,,,,,,,,,,,,,,,,,,,,,,,,,,,,,,,,,,,,,,,,,,,,,,,,,,,,,,
3745,1645818258.700166,1645818258.7501462,105.0,0.0,4317.94873,4750.256348,4273.333496,5397.436035,4293.333496,450.0,1.0,15.0,,,,0.0,4.0,1.0,4.0,2.0,4.0,58.33333199999999,,,,,,,,,,,,,,,,,,,,,,,,,,,,,,,,,,,,,,,,,,,,,,,,,,,,,,,,,,,,,,,,,,,,,,,,,,,,,,,,,,,,
3746,1645818258.707982,1645818258.757861,106.0,0.0,4291.282227000001,4775.384765999999,4182.05127,5006.153809,4240.512695,450.0,1.0,15.0,,,,0.0,4.0,1.0,4.0,2.0,4.0,58.33333199999999,,,,,,,,53.0,0.0,0.18194200000000002,0.6186520000000001,-0.15087899999999999,-0.749268,0.882338,-0.458991,-0.194827,-0.016705,-0.026954000000000002,-0.038414,,,,,,,,,,,,,,,,,,,,,,,,,,,,,,,,,,,,,,,,,,,,,,,,,,,,,,,,,,,,,,,,,
3747,1645818258.7157981,1645818258.765675,107.0,0.0,4287.692383,4729.743652,4146.153809,4058.461426,4233.333496,16180.0,1.0,15.0,,,,0.0,4.0,1.0,4.0,2.0,4.0,58.33333199999999,,,,,,,,,,,,,,,,,,,,,,,,,,,,,,,,,,,,,,,,,,,,,,,,,,,,,,0.0,0.0,1.0,0.0,512.0,1.0,,,,,,,,,,,,,,,,,,,,,,,,,
3748,1645818258.723614,1645818258.77349,108.0,0.0,4305.641113000001,4697.94873,4190.256348,4229.230957,4248.205078,450.0,1.0,15.0,,,,0.0,4.0,1.0,4.0,2.0,4.0,58.33333199999999,,,,,,,,54.0,0.0,0.18194200000000002,0.6186520000000001,-0.15087899999999999,-0.749268,0.862318,-0.453132,-0.184085,-0.017183,-0.026945,-0.040335,,,,,,,,,,,,,,,,,,,,,,,,,,,,,,,,,,,,,,,,,,,,,,,,,,,,,,,,,,,,,,,,,
3749,1645818258.731431,1645818258.781304,109.0,0.0,4333.333496,4723.589844,4220.512695,4442.563965,4269.743652,450.0,1.0,15.0,,,,0.0,4.0,1.0,4.0,2.0,4.0,58.33333199999999,,,,,,,,,,,,,,,,,,,,,,,,,,,,,,,,,,,,,,,,,,,,,,,,,,,,,,,,,,,,,,,,,,,,,,,,,,,,,,,,,,,,
3750,1645818258.739247,1645818258.789118,110.0,0.0,4336.410156,4760.512695,4202.05127,4155.897461,4300.0,450.0,1.0,15.0,,,,0.0,4.0,1.0,4.0,2.0,4.0,58.33333199999999,,,,,,,,55.0,0.0,0.18194200000000002,0.6186520000000001,-0.15087899999999999,-0.749268,0.879408,-0.455085,-0.198734,-0.017613,-0.026887,-0.042161000000000004,,,,,,,,,,,,,,,,,,,,,,,,,,,,,,,,,,,,,,,,,,,,,,,,,,,,,,,,,,,,,,,,,
3751,1645818258.7470632,1645818258.796933,111.0,0.0,4303.077147999999,4773.846191,4163.077147999999,4196.922852000001,4281.025879,16180.0,1.0,15.0,,,,0.0,4.0,1.0,4.0,2.0,4.0,58.33333199999999,,,,,,,,,,,,,,,,,,,,1.0,0.0,0.0,,,,,,,,,,,,,,,,,,,,,,,,,,,,,,,,0.0,0.0,1.0,0.0,512.0,0.858758,161.25325,7.604827,4.13313,3.106091,2.1196580000000003,54.997238,31.919912,54.024848999999996,15.742629999999998,13.809312,4.000328,1.554641,1.521824,3.527261,2.011834,7.017859,4.8974459999999995,4.380194,1.911184,2.341566,43.134838,6.374321,2.663678,3.8933269999999998,1.791306
3752,1645818258.754879,1645818258.804747,112.0,0.0,4287.692383,4753.846191,4160.0,4270.769043,4241.025879,450.0,1.0,15.0,,,,0.0,4.0,1.0,4.0,2.0,4.0,58.33333199999999,,,,,,,,56.0,0.0,0.18194200000000002,0.6186520000000001,-0.15087899999999999,-0.749268,0.8803850000000001,-0.445808,-0.188479,-0.017903,-0.027030000000000002,-0.043804,,,,,,,,,,,,,,,,,,,,,,,,,,,,,,,,,,,,,,,,,,,,,,,,,,,,,,,,,,,,,,,,,
3753,1645818258.7626948,1645818258.812562,113.0,0.0,4299.487305,4718.974121,4185.128418,4231.794922,4241.538574,450.0,1.0,15.0,,,,0.0,4.0,1.0,4.0,2.0,4.0,58.33333199999999,,,,,,,,,,,,,,,,,,,,,,,,,,,,,,,,,,,,,,,,,,,,,,,,,,,,,,,,,,,,,,,,,,,,,,,,,,,,,,,,,,,,
3754,1645818258.7705119,1645818258.820276,114.0,0.0,4278.974121,4712.820313,4164.615234000001,4271.282227000001,4233.846191,450.0,1.0,15.0,,,,0.0,4.0,1.0,4.0,2.0,4.0,58.33333199999999,,,,,,,,57.0,0.0,0.18194200000000002,0.6186520000000001,-0.15087899999999999,-0.749268,0.881849,-0.46533900000000006,-0.191409,-0.018163,-0.027062,-0.045283,,,,,,,,,,,,,,,,,,,,,,,,,,,,,,,,,,,,,,,,,,,,,,,,,,,,,,,,,,,,,,,,,
3755,1645818258.778328,1645818258.82809,115.0,0.0,4274.871582,4718.461426,4168.205078,4287.692383,4244.615234000001,16180.0,1.0,15.0,,,,0.0,4.0,1.0,4.0,2.0,4.0,58.33333199999999,,,,,,,,,,,,,,,,,,,,,,,,,,,,,,,,,,,,,,,,,,,,,,,,,,,,,,0.0,0.0,1.0,0.0,512.0,0.858758,,,,,,,,,,,,,,,,,,,,,,,,,
3756,1645818258.786144,1645818258.835905,116.0,0.0,4324.102539,4740.512695,4229.743652,4282.563965,4291.794922,450.0,1.0,15.0,,,,0.0,4.0,1.0,4.0,2.0,4.0,58.33333199999999,,,,,,,,58.0,0.0,0.18194200000000002,0.6186520000000001,-0.15087899999999999,-0.749268,0.8676889999999999,-0.441413,-0.188479,-0.016982,-0.027041000000000003,-0.040315,,,,,,,,,,,,,,,,,,,,,,,,,,,,,,,,,,,,,,,,,,,,,,,,,,,,,,,,,,,,,,,,,
3757,1645818258.7939599,1645818258.843719,117.0,0.0,4350.256348,4768.717772999999,4238.974121,4243.589844,4297.436035,450.0,1.0,15.0,,,,0.0,4.0,1.0,4.0,2.0,4.0,58.33333199999999,,,,,,,,,,,,,,,,,,,,,,,,,,,,,,,,,,,,,,,,,,,,,,,,,,,,,,,,,,,,,,,,,,,,,,,,,,,,,,,,,,,,
3758,1645818258.801777,1645818258.851534,118.0,0.0,4298.974121,4772.820313,4169.230957,4250.769043,4243.077147999999,450.0,1.0,15.0,,,,0.0,4.0,1.0,4.0,2.0,4.0,58.33333199999999,,,,,,,,59.0,0.0,0.18194200000000002,0.6186520000000001,-0.15087899999999999,-0.749268,0.894057,-0.47022200000000003,-0.18799100000000002,-0.015869,-0.02712,-0.042143,,,,,,,,,,,,,,,,,,,,,,,,,,,,,,,,,,,,,,,,,,,,,,,,,,,,,,,,,,,,,,,,,
3759,1645818258.809593,1645818258.859348,119.0,0.0,4269.743652,4755.897461,4155.384765999999,4247.692383,4230.769043,16180.0,1.0,15.0,,,,0.0,4.0,1.0,4.0,2.0,4.0,58.33333199999999,,,,,,,,,,,,,,,,,,,,,,,,,,,,,,,,,,,,,,,,,,,,,,,,,,,,,,0.0,0.0,1.0,0.0,512.0,0.858758,,,,,,,,,,,,,,,,,,,,,,,,,
3760,1645818258.817409,1645818258.8671632,120.0,0.0,4310.769043,4710.769043,4208.717772999999,4196.410156,4276.410156,450.0,1.0,15.0,,,,0.0,4.0,1.0,4.0,2.0,4.0,58.33333199999999,,,,,,,,60.0,0.0,0.18194200000000002,0.6186520000000001,-0.15087899999999999,-0.749268,0.8750129999999999,-0.464851,-0.183108,-0.014966,-0.027143,-0.043789,,,,,,,,,,,,,,,,,,,,,,,,,,,,,,,,,,,,,,,,,,,,,,,,,,,,,,,,,,,,,,,,,
3761,1645818258.825225,1645818258.8749769,121.0,0.0,4329.743652,4695.384765999999,4209.230957,4205.641113000001,4284.615234000001,450.0,1.0,15.0,,,,0.0,4.0,1.0,4.0,2.0,4.0,58.33333199999999,,,,,,,,,,,,,,,,,,,,,,,,,,,,,,,,,,,,,,,,,,,,,,,,,,,,,,,,,,,,,,,,,,,,,,,,,,,,,,,,,,,,
3762,1645818258.833042,1645818258.882791,122.0,0.0,4298.974121,4737.94873,4163.077147999999,4254.358886999999,4248.205078,450.0,1.0,15.0,,,,0.0,4.0,1.0,4.0,2.0,4.0,58.33333199999999,,,,,,,,61.0,0.0,0.18194200000000002,0.6186520000000001,-0.15087899999999999,-0.749268,0.8730600000000001,-0.45948,-0.191409,-0.013958000000000002,-0.027114,-0.045074,,,,,,,,,,,,,,,,,,,,,,,,,,,,,,,,,,,,,,,,,,,,,,,,,,,,,,,,,,,,,,,,,
3763,1645818258.840858,1645818258.8906062,123.0,0.0,4305.128418,4747.692383,4173.333496,4254.358886999999,4256.922852000001,16180.0,1.0,15.0,,,,0.0,4.0,1.0,4.0,2.0,4.0,58.33333199999999,,,,,,,,,,,,,,,,,,,,,,,,,,,,,,,,,,,,,,,,,,,,,,,,,,,,,,0.0,0.0,1.0,0.0,512.0,0.858758,,,,,,,,,,,,,,,,,,,,,,,,,
3764,1645818258.848674,1645818258.8984199,124.0,0.0,4338.974121,4664.615234000001,4215.384765999999,4237.94873,4302.05127,450.0,1.0,15.0,,,,0.0,4.0,1.0,4.0,2.0,4.0,58.33333199999999,,,,,,,,62.0,0.0,0.182144,0.6186520000000001,-0.150635,-0.749268,0.8715950000000001,-0.46924499999999997,-0.183108,-0.014662,-0.027038999999999997,-0.046426,,,,,,,,,,,,,,,,,,,,,,,,,,,,,,,,,,,,,,,,,,,,,,,,,,,,,,,,,,,,,,,,,
3765,1645818258.8564901,1645818258.906235,125.0,0.0,4331.794922,4646.153809,4213.333496,4238.461426,4293.846191,450.0,1.0,15.0,,,,0.0,4.0,1.0,4.0,2.0,4.0,58.33333199999999,,,,,,,,,,,,,,,,,,,,,,,,,,,,,,,,,,,,,,,,,,,,,,,,,,,,,,,,,,,,,,,,,,,,,,,,,,,,,,,,,,,,
3766,1645818258.864307,1645818258.914049,126.0,0.0,4314.358886999999,4746.153809,4187.692383,4219.487305,4258.974121,450.0,1.0,15.0,,,,0.0,4.0,1.0,4.0,2.0,4.0,58.33333199999999,,,,,,,,63.0,0.0,0.182319,0.618896,-0.150635,-0.749023,0.867201,-0.458991,-0.18799100000000002,-0.015295,-0.026972000000000003,-0.047594,,,,,,,,,,,,,,,,,,,,,,,,,,,,,,,,,,,,,,,,,,,,,,,,,,,,,,,,,,,,,,,,,
3767,1645818258.872123,1645818258.9217632,127.0,0.0,4312.307617,4772.820313,4171.794922,4218.461426,4257.94873,233.0,1.0,15.0,,,,0.0,4.0,0.0,4.0,2.0,4.0,50.0,1.0,25.0,3.0,0.0,3.0,0.0,3.0,,,,,,,,,,,,,1.0,0.0,0.0,,,,,,,,,,,,,,,,,,,,,,,,,,,,,,,,0.0,0.0,1.0,0.0,512.0,0.8848090000000001,75.131966,4.55556,2.655571,2.679545,2.170706,41.879059000000005,23.446005,41.095046999999994,16.434263,13.968096,3.171725,1.119402,1.6194899999999999,3.2126099999999997,1.9716330000000002,9.809842999999999,7.031817,6.330212,3.5061940000000003,4.117471,21.130604,6.444323000000001,2.491089,3.734196,1.839753
3768,1645818258.879939,1645818258.9295778,0.0,0.0,4310.256348,4691.794922,4170.769043,4244.102539,4265.641113000001,450.0,1.0,15.0,,,,0.0,4.0,0.0,4.0,2.0,4.0,50.0,,,,,,,,0.0,0.0,0.181516,0.618896,-0.150391,-0.749268,0.8740370000000001,-0.467292,-0.196292,-0.014351,-0.027009,-0.048596,,,,,,,,,,,,,,,,,,,,,,,,,,,,,,,,,,,,,,,,,,,,,,,,,,,,,,,,,,,,,,,,,
3769,1645818258.8877552,1645818258.937392,1.0,0.0,4325.128418,4667.692383,4192.820313,4252.820313,4269.743652,450.0,1.0,15.0,,,,0.0,4.0,0.0,4.0,2.0,4.0,50.0,,,,,,,,,,,,,,,,,,,,,,,,,,,,,,,,,,,,,,,,,,,,,,,,,,,,,,,,,,,,,,,,,,,,,,,,,,,,,,,,,,,,
3770,1645818258.8955722,1645818258.945207,2.0,0.0,4332.820313,4700.512695,4190.256348,4241.025879,4263.589844,16171.0,1.0,15.0,,,,0.0,4.0,0.0,4.0,2.0,4.0,50.0,,,,,,,,1.0,0.0,0.18254700000000001,0.6186520000000001,-0.150146,-0.749268,0.8715950000000001,-0.464363,-0.196292,-0.015016,-0.026945,-0.0432,,,,,,,,,,,,,,,,,,,,,,,,,,,,,,,,,,,,,,,,,,,,,,,,,,,,,,,,,,,,,,,,,
3771,1645818258.903388,1645818258.953021,3.0,0.0,4311.794922,4700.512695,4160.512695,4253.333496,4244.615234000001,450.0,1.0,15.0,,,,0.0,4.0,0.0,4.0,2.0,4.0,50.0,,,,,,,,,,,,,,,,,,,,,,,,,,,,,,,,,,,,,,,,,,,,,,,,,,,,,,0.0,0.0,1.0,0.0,512.0,0.8848090000000001,,,,,,,,,,,,,,,,,,,,,,,,,
3772,1645818258.9112039,1645818258.960836,4.0,0.0,4302.05127,4720.0,4168.717772999999,4274.358886999999,4247.179688,11.0,1.0,15.0,,,,0.0,4.0,0.0,4.0,2.0,4.0,50.0,,,,,,,,2.0,0.0,0.181919,0.618896,-0.149902,-0.749268,0.8803850000000001,-0.45606199999999997,-0.197757,-0.015565,-0.026936,-0.038538,,,,,,,,,,,,,,,,,,,,,,,,,,,,,,,,,,,,,,,,,,,,,,,,,,,,,,,,,,,,,,,,,
3773,1645818258.91902,1645818258.96865,5.0,0.0,4308.717772999999,4734.871582,4190.256348,4256.410156,4255.897461,450.0,1.0,15.0,,,,0.0,4.0,0.0,4.0,2.0,4.0,50.0,,,,,,,,,,,,,,,,,,,,,,,,,,,,,,,,,,,,,,,,,,,,,,,,,,,,,,,,,,,,,,,,,,,,,,,,,,,,,,,,,,,,
3774,1645818258.926837,1645818258.9763641,6.0,0.0,4316.922852000001,4689.230957,4187.692383,4231.794922,4259.487305,16145.0,1.0,15.0,,,,0.0,4.0,0.0,4.0,0.0,4.0,33.333332,,,,,,,,3.0,0.0,0.181516,0.618896,-0.150391,-0.749268,0.8740370000000001,-0.467292,-0.196292,-0.014594999999999999,-0.026976999999999998,-0.040445999999999996,,,,,,,,,,,,,,,,,,,,,,,,,,,,,,,,,,,,,,,,,,,,,,,,,,,,,,,,,,,,,,,,,
3775,1645818258.934653,1645818258.984179,7.0,0.0,4337.436035,4661.538574,4200.512695,4258.461426,4279.487305,450.0,1.0,15.0,,,,0.0,4.0,0.0,4.0,0.0,4.0,33.333332,,,,,,,,,,,,,,,,,,,,,,,,,,,,,,,,,,,,,,,,,,,,,,,,,,,,,,0.0,0.0,1.0,0.0,512.0,0.8848090000000001,,,,,,,,,,,,,,,,,,,,,,,,,
3776,1645818258.942469,1645818258.991993,8.0,0.0,4340.512695,4658.461426,4206.666504,4290.769043,4285.641113000001,450.0,1.0,15.0,,,,0.0,4.0,0.0,4.0,0.0,4.0,33.333332,,,,,,,,4.0,0.0,0.181919,0.618896,-0.149902,-0.749268,0.8803850000000001,-0.45606199999999997,-0.197757,-0.015186000000000002,-0.026965,-0.036059,,,,,,,,,,,,,,,,,,,,,,,,,,,,,,,,,,,,,,,,,,,,,,,,,,,,,,,,,,,,,,,,,
3777,1645818258.950285,1645818258.999808,9.0,0.0,4319.487305,4652.820313,4184.102539,4256.922852000001,4265.641113000001,0.0,1.0,15.0,,,,0.0,4.0,0.0,4.0,0.0,4.0,33.333332,,,,,,,,,,,,,,,,,,,,,,,,,,,,,,,,,,,,,,,,,,,,,,,,,,,,,,,,,,,,,,,,,,,,,,,,,,,,,,,,,,,,
3778,1645818258.958101,1645818259.007622,10.0,0.0,4327.179688,4661.538574,4189.230957,4229.230957,4264.615234000001,450.0,1.0,15.0,,,,0.0,4.0,0.0,4.0,0.0,4.0,33.333332,,,,,,,,5.0,0.0,0.181919,0.618896,-0.149902,-0.749268,0.8759899999999999,-0.47022200000000003,-0.18799100000000002,-0.015718,-0.026905000000000002,-0.038215,,,,,,,,,,,,,,,,,,,,,,,,,,,,,,,,,,,,,,,,,,,,,,,,,,,,,,,,,,,,,,,,,
3779,1645818258.965918,1645818259.015436,11.0,0.0,4342.563965,4675.897461,4207.179688,4285.128418,4267.692383,16193.0,1.0,15.0,,,,0.0,4.0,0.0,4.0,0.0,4.0,33.333332,,,,,,,,,,,,,,,,,,,,,,,,,,,,,,,,,,,,,,,,,,,,,,,,,,,,,,0.0,0.0,1.0,0.0,512.0,0.8848090000000001,,,,,,,,,,,,,,,,,,,,,,,,,
3780,1645818258.973734,1645818259.023251,12.0,0.0,4335.897461,4661.025879,4212.820313,4326.666504,4271.282227000001,450.0,1.0,15.0,,,,0.0,4.0,0.0,4.0,0.0,4.0,33.333332,,,,,,,,6.0,0.0,0.181919,0.618896,-0.149902,-0.749268,0.895033,-0.45361999999999997,-0.197757,-0.016246,-0.026851,-0.033857,,,,,,,,,,,,,,,,,,,,,,,,,,,,,,,,,,,,,,,,,,,,,,,,,,,,,,,,,,,,,,,,,
3781,1645818258.98155,1645818259.031065,13.0,0.0,4327.179688,4684.615234000001,4217.94873,4271.794922,4287.692383,450.0,1.0,15.0,,,,0.0,4.0,0.0,4.0,0.0,4.0,33.333332,,,,,,,,,,,,,,,,,,,,,,,,,,,,,,,,,,,,,,,,,,,,,,,,,,,,,,,,,,,,,,,,,,,,,,,,,,,,,,,,,,,,
