,Timestamp,OriginalTimestamp,EEG.Counter,EEG.Interpolated,EEG.AF3,EEG.T7,EEG.Pz,EEG.T8,EEG.AF4,EEG.RawCq,EEG.Battery,EEG.BatteryPercent,MarkerIndex,MarkerType,MarkerValueInt,EEG.MarkerHardware,CQ.AF3,CQ.T7,CQ.Pz,CQ.T8,CQ.AF4,CQ.Overall,EQ.SampleRateQuality,EQ.OVERALL,EQ.AF3,EQ.T7,EQ.Pz,EQ.T8,EQ.AF4,MOT.CounterMems,MOT.InterpolatedMems,MOT.Q0,MOT.Q1,MOT.Q2,MOT.Q3,MOT.AccX,MOT.AccY,MOT.AccZ,MOT.MagX,MOT.MagY,MOT.MagZ,MC.Action,MC.ActionPower,MC.IsActive,PM.Engagement.IsActive,PM.Engagement.Scaled,PM.Engagement.Raw,PM.Engagement.Min,PM.Engagement.Max,PM.Excitement.IsActive,PM.Excitement.Scaled,PM.Excitement.Raw,PM.Excitement.Min,PM.Excitement.Max,PM.LongTermExcitement,PM.Stress.IsActive,PM.Stress.Scaled,PM.Stress.Raw,PM.Stress.Min,PM.Stress.Max,PM.Relaxation.IsActive,PM.Relaxation.Scaled,PM.Relaxation.Raw,PM.Relaxation.Min,PM.Relaxation.Max,PM.Interest.IsActive,PM.Interest.Scaled,PM.Interest.Raw,PM.Interest.Min,PM.Interest.Max,PM.Focus.IsActive,PM.Focus.Scaled,PM.Focus.Raw,PM.Focus.Min,PM.Focus.Max,FE.BlinkWink,FE.HorizontalEyesDirection,FE.UpperFaceAction,FE.UpperFaceActionPower,FE.LowerFaceAction,FE.LowerFaceActionPower,POW.AF3.Theta,POW.AF3.Alpha,POW.AF3.BetaL,POW.AF3.BetaH,POW.AF3.Gamma,POW.T7.Theta,POW.T7.Alpha,POW.T7.BetaL,POW.T7.BetaH,POW.T7.Gamma,POW.Pz.Theta,POW.Pz.Alpha,POW.Pz.BetaL,POW.Pz.BetaH,POW.Pz.Gamma,POW.T8.Theta,POW.T8.Alpha,POW.T8.BetaL,POW.T8.BetaH,POW.T8.Gamma,POW.AF4.Theta,POW.AF4.Alpha,POW.AF4.BetaL,POW.AF4.BetaH,POW.AF4.Gamma
9946,1645652079.020147,1645652079.057471,96.0,0.0,4421.538574,4666.666504,4220.512695,4278.461426,4353.846191,450.0,3.0,55.0,,,,0.0,4.0,0.0,4.0,0.0,4.0,33.333332,,,,,,,,48.0,0.0,0.413271,0.5358890000000001,0.236328,-0.6972659999999999,0.9580219999999999,-0.112795,-0.31104,-0.016296,-0.048657,-0.024155000000000003,,,,,,,,,,,,,,,,,,,,,,,,,,,,,,,,,,,0.0,0.0,1.0,0.0,512.0,0.791485,,,,,,,,,,,,,,,,,,,,,,,,,
9947,1645652079.0279632,1645652079.065286,97.0,0.0,4302.05127,4601.025879,4126.153809,4278.974121,4245.128418,450.0,3.0,55.0,,,,0.0,4.0,0.0,4.0,0.0,4.0,33.333332,,,,,,,,,,,,,,,,,,,,,,,,,,,,,,,,,,,,,,,,,,,,,,,,,,,,,,,,,,,,,,,,,,,,,,,,,,,,,,,,,,,,
9948,1645652079.035778,1645652079.073201,98.0,0.0,4323.077147999999,4562.05127,4259.487305,4282.05127,4287.692383,450.0,3.0,55.0,,,,0.0,4.0,0.0,4.0,0.0,4.0,33.333332,,,,,,,,49.0,0.0,0.413271,0.5358890000000001,0.236328,-0.6972659999999999,0.961929,-0.12842,-0.31543499999999997,-0.017108,-0.048723,-0.027306,,,,,,,,,,,,,,,,,,,,,,,,,,,,,,,,,,,,,,,,,,,,,,,,,,,,,,,,,,,,,,,,,
9949,1645652079.043593,1645652079.081017,99.0,0.0,4352.820313,4544.615234000001,4205.128418,4280.0,4311.794922,16222.0,3.0,55.0,,,,0.0,4.0,0.0,4.0,0.0,4.0,33.333332,,,,,,,,,,,,,,,,,,,,,,,,,,,,,,,,,,,,,,,,,,,,,,,,,,,,,,,,,,,,,,,,,,,,,,,,,,,,,,,,,,,,
9950,1645652079.051408,1645652079.0888321,100.0,0.0,4350.769043,4532.307617,4238.974121,4280.512695,4310.256348,450.0,3.0,55.0,,,,0.0,4.0,0.0,4.0,0.0,4.0,33.333332,,,,,,,,50.0,0.0,0.413271,0.5358890000000001,0.236328,-0.6972659999999999,0.960464,-0.11621300000000001,-0.31787600000000005,-0.015494999999999998,-0.048733,-0.030288,1.0,0.0,0.0,,,,,,,,,,,,,,,,,,,,,,,,,,,,,,,,0.0,0.0,1.0,0.0,512.0,0.625379,2.173475,1.980293,3.1772720000000003,3.052152,2.4756099999999996,29.558813,60.03235600000001,42.782509000000005,17.287069,17.487772,2.579026,2.143438,5.342408,2.086074,2.5330470000000003,0.011992000000000001,0.009603,0.0035450000000000004,0.004432,0.007718000000000001,2.2680540000000002,1.969546,4.139279,3.143138,2.7964130000000003
9951,1645652079.059223,1645652079.096647,101.0,0.0,4372.820313,4580.0,4240.512695,4282.05127,4329.230957,450.0,3.0,55.0,,,,0.0,4.0,0.0,4.0,0.0,4.0,33.333332,,,,,,,,,,,,,,,,,,,,,,,,,,,,,,,,,,,,,,,,,,,,,,,,,,,,,,,,,,,,,,,,,,,,,,,,,,,,,,,,,,,,
9952,1645652079.067038,1645652079.104463,102.0,0.0,4341.025879,4611.282227000001,4214.358886999999,4282.05127,4303.589844,450.0,3.0,55.0,,,,0.0,4.0,0.0,4.0,0.0,4.0,33.333332,,,,,,,,51.0,0.0,0.41309399999999996,0.536133,0.23608400000000002,-0.6972659999999999,0.954116,-0.123049,-0.315923,-0.016338,-0.048645,-0.026674,,,,,,,,,,,,,,,,,,,,,,,,,,,,,,,,,,,,,,,,,,,,,,,,,,,,,,,,,,,,,,,,,
9953,1645652079.074853,1645652079.112278,103.0,0.0,4345.641113000001,4607.179688,4218.974121,4280.512695,4313.846191,16222.0,3.0,55.0,,,,0.0,4.0,0.0,4.0,0.0,4.0,33.333332,,,,,,,,,,,,,,,,,,,,,,,,,,,,,,,,,,,,,,,,,,,,,,,,,,,,,,,,,,,,,,,,,,,,,,,,,,,,,,,,,,,,
9954,1645652079.082669,1645652079.1200929,104.0,0.0,4364.615234000001,4635.897461,4210.769043,4278.974121,4321.025879,450.0,3.0,55.0,,,,0.0,4.0,0.0,4.0,0.0,4.0,33.333332,,,,,,,,52.0,0.0,0.413411,0.5358890000000001,0.23608400000000002,-0.6972659999999999,0.957046,-0.10547000000000001,-0.309087,-0.014851,-0.048615,-0.029719,,,,,,,,,,,,,,,,,,,,,,,,,,,,,,,,,,,0.0,0.0,1.0,0.0,512.0,0.625379,,,,,,,,,,,,,,,,,,,,,,,,,
9955,1645652079.090484,1645652079.127909,105.0,0.0,4369.230957,4646.153809,4217.436035,4280.512695,4316.922852000001,450.0,3.0,55.0,,,,0.0,4.0,0.0,4.0,0.0,4.0,33.333332,,,,,,,,,,,,,,,,,,,,,,,,,,,,,,,,,,,,,,,,,,,,,,,,,,,,,,,,,,,,,,,,,,,,,,,,,,,,,,,,,,,,
9956,1645652079.098299,1645652079.135724,106.0,0.0,4368.205078,4629.230957,4220.0,4281.025879,4320.0,450.0,3.0,55.0,,,,0.0,4.0,0.0,4.0,0.0,4.0,33.333332,,,,,,,,53.0,0.0,0.413411,0.5358890000000001,0.23608400000000002,-0.6972659999999999,0.947768,-0.123049,-0.327153,-0.015758,-0.048636,-0.026357,,,,,,,,,,,,,,,,,,,,,,,,,,,,,,,,,,,,,,,,,,,,,,,,,,,,,,,,,,,,,,,,,
9957,1645652079.1061141,1645652079.143539,107.0,0.0,4359.487305,4637.94873,4229.230957,4281.025879,4321.025879,16222.0,3.0,55.0,,,,0.0,4.0,0.0,4.0,0.0,4.0,33.333332,,,,,,,,,,,,,,,,,,,,,,,,,,,,,,,,,,,,,,,,,,,,,,,,,,,,,,,,,,,,,,,,,,,,,,,,,,,,,,,,,,,,
9958,1645652079.1139288,1645652079.1514552,108.0,0.0,4353.846191,4653.333496,4234.871582,4280.0,4313.846191,450.0,3.0,55.0,,,,0.0,4.0,0.0,4.0,0.0,4.0,33.333332,,,,,,,,54.0,0.0,0.413411,0.5358890000000001,0.23608400000000002,-0.6972659999999999,0.9589989999999999,-0.116701,-0.306157,-0.016575,-0.048656,-0.029532,,,,,,,,,,,,,,,,,,,,,,,,,,,,,,,,,,,0.0,0.0,1.0,0.0,512.0,0.625379,,,,,,,,,,,,,,,,,,,,,,,,,
9959,1645652079.121744,1645652079.1592698,109.0,0.0,4342.05127,4673.846191,4216.410156,4280.0,4297.436035,450.0,3.0,55.0,,,,0.0,4.0,0.0,4.0,0.0,4.0,33.333332,,,,,,,,,,,,,,,,,,,,,,,,,,,,,,,,,,,,,,,,,,,,,,,,,,,,,,,,,,,,,,,,,,,,,,,,,,,,,,,,,,,,
9960,1645652079.129559,1645652079.167085,110.0,0.0,4328.205078,4665.128418,4223.077147999999,4281.025879,4299.487305,450.0,3.0,55.0,,,,0.0,4.0,0.0,4.0,0.0,4.0,33.333332,,,,,,,,55.0,0.0,0.413411,0.5358890000000001,0.23608400000000002,-0.6972659999999999,0.969253,-0.122072,-0.311528,-0.017359,-0.048624,-0.026041,,,,,,,,,,,,,,,,,,,,,,,,,,,,,,,,,,,,,,,,,,,,,,,,,,,,,,,,,,,,,,,,,
9961,1645652079.137375,1645652079.174901,111.0,0.0,4332.307617,4636.410156,4231.282227000001,4280.512695,4311.282227000001,16222.0,3.0,55.0,,,,0.0,4.0,0.0,4.0,0.0,4.0,33.333332,,,,,,,,,,,,,,,,,,,,,,,,,,,,,,,,,,,,,,,,,,,,,,,,,,,,,,,,,,,,,,,,,,,,,,,,,,,,,,,,,,,,
9962,1645652079.14519,1645652079.1827161,112.0,0.0,4346.666504,4671.282227000001,4216.410156,4280.512695,4308.205078,450.0,3.0,55.0,,,,0.0,4.0,0.0,4.0,0.0,4.0,33.333332,,,,,,,,56.0,0.0,0.41309399999999996,0.536133,0.23608400000000002,-0.6972659999999999,0.953628,-0.11425999999999999,-0.319829,-0.018016,-0.048498,-0.029248000000000003,,,,,,,,,,,,,,,,,,,,,,,,,,,,,,,,,,,0.0,0.0,1.0,0.0,512.0,0.625379,,,,,,,,,,,,,,,,,,,,,,,,,
9963,1645652079.1530051,1645652079.190532,113.0,0.0,4342.563965,4700.0,4198.974121,4281.538574,4298.974121,450.0,3.0,55.0,,,,0.0,4.0,0.0,4.0,0.0,4.0,33.333332,,,,,,,,,,,,,,,,,,,,,,,,,,,,,,,,,,,,,,,,,,,,,,,,,,,,,,,,,,,,,,,,,,,,,,,,,,,,,,,,,,,,
9964,1645652079.16082,1645652079.198347,114.0,0.0,4348.205078,4600.0,4231.282227000001,4282.05127,4318.974121,450.0,3.0,55.0,,,,0.0,4.0,0.0,4.0,0.0,4.0,33.333332,,,,,,,,57.0,0.0,0.413233,0.536133,0.23584000000000002,-0.6972659999999999,0.9560690000000001,-0.116701,-0.31787600000000005,-0.018704,-0.048531,-0.025737,,,,,,,,,,,,,,,,,,,,,,,,,,,,,,,,,,,,,,,,,,,,,,,,,,,,,,,,,,,,,,,,,
9965,1645652079.168635,1645652079.206162,115.0,0.0,4367.692383,4561.538574,4240.512695,4280.0,4333.333496,16222.0,3.0,55.0,,,,0.0,4.0,0.0,4.0,0.0,4.0,33.333332,,,,,,,,,,,,,,,,,,,,,,,,,,,,,,,,,,,,,,,,,,,,,,,,,,,,,,,,,,,,,,,,,,,,,,,,,,,,,,,,,,,,
9966,1645652079.17645,1645652079.2139778,116.0,0.0,4353.846191,4671.282227000001,4218.974121,4279.487305,4315.384765999999,450.0,3.0,55.0,,,,0.0,4.0,0.0,4.0,0.0,4.0,33.333332,1.0,8.333333,3.0,0.0,1.0,0.0,3.0,58.0,0.0,0.41355,0.5358890000000001,0.23584000000000002,-0.6972659999999999,0.960464,-0.114748,-0.313481,-0.019178,-0.048561,-0.028876,1.0,0.0,0.0,,,,,,,,,,,,,,,,,,,,,,,,,,,,,,,,0.0,0.0,1.0,0.0,512.0,0.649349,1.897089,1.915095,2.807674,3.049532,2.551584,29.384663,63.88290799999999,29.568783000000003,15.1069,16.270182000000002,3.0170939999999997,2.473407,5.208519,2.197948,2.661679,0.021432,0.010194,0.004177,0.004553,0.007356999999999999,1.8575970000000002,2.043733,3.718772,3.177711,2.7196759999999998
9967,1645652079.184266,1645652079.221893,117.0,0.0,4334.871582,4683.589844,4214.871582,4281.025879,4309.743652,450.0,3.0,55.0,,,,0.0,4.0,0.0,4.0,0.0,4.0,33.333332,,,,,,,,,,,,,,,,,,,,,,,,,,,,,,,,,,,,,,,,,,,,,,,,,,,,,,,,,,,,,,,,,,,,,,,,,,,,,,,,,,,,
9968,1645652079.192081,1645652079.229708,118.0,0.0,4326.153809,4597.94873,4221.025879,4280.0,4304.102539,450.0,3.0,55.0,,,,0.0,4.0,0.0,4.0,0.0,4.0,33.333332,,,,,,,,59.0,0.0,0.41355,0.5358890000000001,0.23584000000000002,-0.6972659999999999,0.962417,-0.11084200000000001,-0.306157,-0.019653,-0.04849,-0.025452000000000002,,,,,,,,,,,,,,,,,,,,,,,,,,,,,,,,,,,,,,,,,,,,,,,,,,,,,,,,,,,,,,,,,
9969,1645652079.199896,1645652079.237524,119.0,0.0,4309.743652,4620.512695,4207.179688,4279.487305,4286.666504,16222.0,3.0,55.0,,,,0.0,4.0,0.0,4.0,0.0,4.0,33.333332,,,,,,,,,,,,,,,,,,,,,,,,,,,,,,,,,,,,,,,,,,,,,,,,,,,,,,,,,,,,,,,,,,,,,,,,,,,,,,,,,,,,
9970,1645652079.207711,1645652079.2453392,120.0,0.0,4316.922852000001,4693.846191,4212.820313,4281.538574,4293.333496,450.0,3.0,55.0,,,,0.0,4.0,0.0,4.0,0.0,4.0,33.333332,,,,,,,,60.0,0.0,0.41327700000000006,0.5358890000000001,0.235596,-0.6975100000000001,0.9594870000000001,-0.11718900000000002,-0.31543499999999997,-0.017785,-0.048475,-0.022418,,,,,,,,,,,,,,,,,,,,,,,,,,,,,,,,,,,0.0,0.0,1.0,0.0,512.0,0.649349,,,,,,,,,,,,,,,,,,,,,,,,,
9971,1645652079.2155259,1645652079.2531538,121.0,0.0,4354.871582,4706.153809,4231.282227000001,4281.538574,4320.0,450.0,3.0,55.0,,,,0.0,4.0,0.0,4.0,0.0,4.0,33.333332,,,,,,,,,,,,,,,,,,,,,,,,,,,,,,,,,,,,,,,,,,,,,,,,,,,,,,,,,,,,,,,,,,,,,,,,,,,,,,,,,,,,
9972,1645652079.223341,1645652079.2609699,122.0,0.0,4355.897461,4701.538574,4215.897461,4280.0,4308.205078,450.0,3.0,55.0,,,,0.0,4.0,0.0,4.0,0.0,4.0,33.333332,,,,,,,,61.0,0.0,0.41368900000000003,0.5358890000000001,0.235596,-0.6972659999999999,0.957534,-0.11133,-0.310552,-0.016250999999999998,-0.048657,-0.02584,,,,,,,,,,,,,,,,,,,,,,,,,,,,,,,,,,,,,,,,,,,,,,,,,,,,,,,,,,,,,,,,,
9973,1645652079.231156,1645652079.268785,123.0,0.0,4333.846191,4729.230957,4186.153809,4281.025879,4285.641113000001,16222.0,3.0,55.0,,,,0.0,4.0,0.0,4.0,0.0,4.0,33.333332,,,,,,,,,,,,,,,,,,,,,,,,,,,,,,,,,,,,,,,,,,,,,,,,,,,,,,,,,,,,,,,,,,,,,,,,,,,,,,,,,,,,
9974,1645652079.2389722,1645652079.2766,124.0,0.0,4322.563965,4725.128418,4172.820313,4280.512695,4281.538574,450.0,3.0,55.0,,,,0.0,4.0,0.0,4.0,0.0,4.0,33.333332,,,,,,,,62.0,0.0,0.41327700000000006,0.5358890000000001,0.235596,-0.6975100000000001,0.963882,-0.124025,-0.314458,-0.017116,-0.048625,-0.028823,,,,,,,,,,,,,,,,,,,,,,,,,,,,,,,,,,,0.0,0.0,1.0,0.0,512.0,0.649349,,,,,,,,,,,,,,,,,,,,,,,,,
9975,1645652079.2467868,1645652079.284416,125.0,0.0,4342.05127,4672.307617,4193.333496,4278.461426,4306.153809,450.0,3.0,55.0,,,,0.0,4.0,0.0,4.0,0.0,4.0,33.333332,,,,,,,,,,,,,,,,,,,,,,,,,,,,,,,,,,,,,,,,,,,,,,,,,,,,,,,,,,,,,,,,,,,,,,,,,,,,,,,,,,,,
9976,1645652079.254602,1645652079.292231,126.0,0.0,4362.563965,4616.922852000001,4211.282227000001,4280.0,4317.94873,450.0,3.0,55.0,,,,0.0,4.0,0.0,4.0,0.0,4.0,33.333332,,,,,,,,63.0,0.0,0.41327700000000006,0.5358890000000001,0.235596,-0.6975100000000001,0.963882,-0.11816600000000001,-0.318364,-0.017943,-0.048645999999999995,-0.025306,,,,,,,,,,,,,,,,,,,,,,,,,,,,,,,,,,,,,,,,,,,,,,,,,,,,,,,,,,,,,,,,,
9977,1645652079.262417,1645652079.299946,127.0,0.0,4353.846191,4616.922852000001,4215.897461,4282.05127,4302.563965,234.0,3.0,55.0,,,,0.0,4.0,0.0,4.0,0.0,4.0,33.333332,,,,,,,,,,,,,,,,,,,,,,,,,,,,,,,,,,,,,,,,,,,,,,,,,,,,,,,,,,,,,,,,,,,,,,,,,,,,,,,,,,,,
9978,1645652079.270232,1645652079.307761,0.0,0.0,4327.179688,4662.563965,4199.487305,4281.025879,4295.384765999999,450.0,3.0,55.0,,,,0.0,4.0,0.0,4.0,0.0,4.0,33.333332,,,,,,,,0.0,0.0,0.413138,0.5358890000000001,0.23584000000000002,-0.6975100000000001,0.960464,-0.113283,-0.315923,-0.01859,-0.048566000000000005,-0.022336,,,,,,,,,,,,,,,,,,,,,,,,,,,,,,,,,,,0.0,0.0,1.0,0.0,512.0,0.649349,,,,,,,,,,,,,,,,,,,,,,,,,
9979,1645652079.278047,1645652079.315577,1.0,0.0,4321.025879,4660.0,4208.205078,4279.487305,4301.025879,450.0,3.0,55.0,,,,0.0,4.0,0.0,4.0,0.0,4.0,33.333332,,,,,,,,,,,,,,,,,,,,,,,,,,,,,,,,,,,,,,,,,,,,,,,,,,,,,,,,,,,,,,,,,,,,,,,,,,,,,,,,,,,,
9980,1645652079.2858632,1645652079.323392,2.0,0.0,4321.025879,4641.538574,4208.717772999999,4278.974121,4288.717772999999,16163.0,3.0,55.0,,,,0.0,4.0,0.0,4.0,0.0,4.0,33.333332,,,,,,,,1.0,0.0,0.413138,0.5358890000000001,0.23584000000000002,-0.6975100000000001,0.9506979999999999,-0.11523599999999999,-0.320806,-0.019222,-0.04869,-0.025814999999999998,,,,,,,,,,,,,,,,,,,,,,,,,,,,,,,,,,,,,,,,,,,,,,,,,,,,,,,,,,,,,,,,,
9981,1645652079.293678,1645652079.331207,3.0,0.0,4306.153809,4649.743652,4195.897461,4278.974121,4272.820313,450.0,3.0,55.0,,,,0.0,4.0,0.0,4.0,0.0,4.0,33.333332,,,,,,,,,,,,,,,,,,,,,,,,,,,,,,,,,,,,,,,,,,,,,,,,,,,,,,,,,,,,,,,,,,,,,,,,,,,,,,,,,,,,
9982,1645652079.301493,1645652079.3390222,4.0,0.0,4317.94873,4626.666504,4195.384765999999,4280.512695,4287.692383,0.0,3.0,55.0,,,,0.0,4.0,0.0,4.0,0.0,4.0,33.333332,,,,,,,,2.0,0.0,0.413138,0.5358890000000001,0.23584000000000002,-0.6975100000000001,0.9506979999999999,-0.116701,-0.32422399999999996,-0.017446,-0.048704000000000004,-0.028898000000000004,1.0,0.0,0.0,,,,,,,,,,,,,,,,,,,,,,,,,,,,,,,,0.0,0.0,1.0,0.0,128.0,0.360038,1.6955349999999998,1.935662,2.321311,2.917627,2.755371,26.674894000000002,62.426815000000005,20.654591,13.153542999999999,15.632074,3.4508919999999996,2.862144,5.040538,2.5279,3.66925,0.045924,0.012315999999999999,0.00633,0.005249,0.007095000000000001,1.663821,2.213677,3.4724760000000003,3.021706,2.8527
9983,1645652079.309308,1645652079.3468368,5.0,0.0,4342.05127,4606.153809,4212.307617,4280.512695,4306.666504,450.0,3.0,55.0,,,,0.0,4.0,0.0,4.0,0.0,4.0,33.333332,,,,,,,,,,,,,,,,,,,,,,,,,,,,,,,,,,,,,,,,,,,,,,,,,,,,,,,,,,,,,,,,,,,,,,,,,,,,,,,,,,,,
9984,1645652079.317123,1645652079.354652,6.0,0.0,4350.256348,4612.820313,4208.717772999999,4280.0,4304.102539,16208.0,3.0,55.0,,,,0.0,4.0,0.0,4.0,0.0,4.0,33.333332,,,,,,,,3.0,0.0,0.41327700000000006,0.5358890000000001,0.235596,-0.6975100000000001,0.947768,-0.109865,-0.317388,-0.01824,-0.048619,-0.031672000000000006,,,,,,,,,,,,,,,,,,,,,,,,,,,,,,,,,,,,,,,,,,,,,,,,,,,,,,,,,,,,,,,,,
9985,1645652079.324938,1645652079.362467,7.0,0.0,4341.025879,4607.692383,4198.974121,4281.538574,4284.615234000001,450.0,3.0,55.0,,,,0.0,4.0,0.0,4.0,0.0,4.0,33.333332,,,,,,,,,,,,,,,,,,,,,,,,,,,,,,,,,,,,,,,,,,,,,,,,,,,,,,,,,,,,,,,,,,,,,,,,,,,,,,,,,,,,
9986,1645652079.332754,1645652079.370383,8.0,0.0,4338.974121,4618.974121,4205.128418,4282.05127,4281.538574,450.0,3.0,55.0,,,,0.0,4.0,0.0,4.0,0.0,4.0,33.333332,,,,,,,,4.0,0.0,0.41327700000000006,0.5358890000000001,0.235596,-0.6975100000000001,0.95314,-0.12255999999999999,-0.306157,-0.018858,-0.048591,-0.02787,,,,,,,,,,,,,,,,,,,,,,,,,,,,,,,,,,,0.0,0.0,1.0,0.0,128.0,0.360038,,,,,,,,,,,,,,,,,,,,,,,,,
9987,1645652079.340569,1645652079.3781981,9.0,0.0,4332.820313,4655.384765999999,4213.846191,4280.512695,4282.05127,0.0,3.0,55.0,,,,0.0,4.0,0.0,4.0,0.0,4.0,33.333332,,,,,,,,,,,,,,,,,,,,,,,,,,,,,,,,,,,,,,,,,,,,,,,,,,,,,,,,,,,,,,,,,,,,,,,,,,,,,,,,,,,,
9988,1645652079.348384,1645652079.3861132,10.0,0.0,4326.153809,4647.179688,4225.128418,4280.512695,4283.589844,450.0,3.0,55.0,,,,0.0,4.0,0.0,4.0,0.0,4.0,33.333332,,,,,,,,5.0,0.0,0.412865,0.5358890000000001,0.235596,-0.697754,0.9433739999999999,-0.10693499999999999,-0.303716,-0.019365,-0.048517000000000005,-0.030795999999999997,,,,,,,,,,,,,,,,,,,,,,,,,,,,,,,,,,,,,,,,,,,,,,,,,,,,,,,,,,,,,,,,,
9989,1645652079.356199,1645652079.393929,11.0,0.0,4317.94873,4606.153809,4226.666504,4281.025879,4285.641113000001,16205.0,3.0,55.0,,,,0.0,4.0,0.0,4.0,0.0,4.0,33.333332,,,,,,,,,,,,,,,,,,,,,,,,,,,,,,,,,,,,,,,,,,,,,,,,,,,,,,,,,,,,,,,,,,,,,,,,,,,,,,,,,,,,
9990,1645652079.3640141,1645652079.401744,12.0,0.0,4318.461426,4585.128418,4220.512695,4281.025879,4286.153809,450.0,3.0,55.0,,,,0.0,4.0,0.0,4.0,0.0,4.0,33.333332,,,,,,,,6.0,0.0,0.413182,0.5356449999999999,0.235596,-0.697754,0.957046,-0.10693499999999999,-0.30811,-0.019722999999999997,-0.048451,-0.026983999999999998,,,,,,,,,,,,,,,,,,,,,,,,,,,,,,,,,,,0.0,0.0,1.0,0.0,128.0,0.360038,,,,,,,,,,,,,,,,,,,,,,,,,
9991,1645652079.3718288,1645652079.409559,13.0,0.0,4325.128418,4602.05127,4199.487305,4280.512695,4272.307617,450.0,3.0,55.0,,,,0.0,4.0,0.0,4.0,0.0,4.0,33.333332,,,,,,,,,,,,,,,,,,,,,,,,,,,,,,,,,,,,,,,,,,,,,,,,,,,,,,,,,,,,,,,,,,,,,,,,,,,,,,,,,,,,
9992,1645652079.3796449,1645652079.417375,14.0,0.0,4289.743652,4648.717772999999,4190.769043,4280.512695,4260.0,450.0,3.0,55.0,,,,0.0,4.0,0.0,4.0,0.0,4.0,33.333332,,,,,,,,7.0,0.0,0.413182,0.5356449999999999,0.235596,-0.697754,0.945815,-0.12549000000000002,-0.316411,-0.020241,-0.048635000000000005,-0.029901,,,,,,,,,,,,,,,,,,,,,,,,,,,,,,,,,,,,,,,,,,,,,,,,,,,,,,,,,,,,,,,,,
9993,1645652079.38746,1645652079.42519,15.0,0.0,4242.05127,4680.0,4185.641113000001,4280.512695,4255.384765999999,16205.0,3.0,55.0,,,,0.0,4.0,0.0,4.0,0.0,4.0,33.333332,,,,,,,,,,,,,,,,,,,,,,,,,,,,,,,,,,,,,,,,,,,,,,,,,,,,,,,,,,,,,,,,,,,,,,,,,,,,,,,,,,,,
9994,1645652079.395275,1645652079.433005,16.0,0.0,4308.205078,4716.922852000001,4191.794922,4281.025879,4266.153809,0.0,3.0,55.0,,,,0.0,4.0,0.0,4.0,0.0,4.0,33.333332,,,,,,,,8.0,0.0,0.413498,0.5354,0.235596,-0.697754,0.9585110000000001,-0.105959,-0.316899,-0.02061,-0.048556999999999996,-0.032624,,,,,,,,,,,,,,,,,,,,,,,,,,,,,,,,,,,0.0,0.0,1.0,0.0,128.0,0.360038,,,,,,,,,,,,,,,,,,,,,,,,,
9995,1645652079.40309,1645652079.440921,17.0,0.0,4388.717772999999,4758.461426,4194.358886999999,4282.05127,4280.0,0.0,3.0,55.0,,,,0.0,4.0,0.0,4.0,0.0,4.0,33.333332,,,,,,,,,,,,,,,,,,,,,,,,,,,,,,,,,,,,,,,,,,,,,,,,,,,,,,,,,,,,,,,,,,,,,,,,,,,,,,,,,,,,
9996,1645652079.4109051,1645652079.448736,18.0,0.0,4341.025879,4774.871582,4198.461426,4280.512695,4288.205078,0.0,3.0,55.0,,,,0.0,4.0,0.0,4.0,0.0,4.0,33.333332,,,,,,,,9.0,0.0,0.413498,0.5354,0.235596,-0.697754,0.956558,-0.11230599999999999,-0.3252,-0.018598,-0.048535,-0.035172,,,,,,,,,,,,,,,,,,,,,,,,,,,,,,,,,,,,,,,,,,,,,,,,,,,,,,,,,,,,,,,,,
9997,1645652079.41872,1645652079.456551,19.0,0.0,4309.230957,4735.384765999999,4197.94873,4280.0,4299.487305,0.0,3.0,55.0,,,,0.0,4.0,0.0,4.0,0.0,4.0,33.333332,,,,,,,,,,,,,,,,,,,,,,,,,,,,,,,,,,,,,,,,,,,,,,,,,,,,,,,,,,,,,,,,,,,,,,,,,,,,,,,,,,,,
9998,1645652079.426535,1645652079.464367,20.0,0.0,4390.256348,4669.743652,4211.794922,4282.563965,4317.436035,0.0,3.0,55.0,,,,0.0,4.0,0.0,4.0,0.0,4.0,33.333332,,,,,,,,10.0,0.0,0.413637,0.5354,0.235352,-0.697754,0.949722,-0.118654,-0.3252,-0.019277000000000002,-0.048565,-0.03727,1.0,0.0,0.0,,,,,,,,,,,,,,,,,,,,,,,,,,,,,,,,0.0,0.0,1.0,0.0,128.0,0.409482,1.584107,2.0585,1.902825,2.753088,3.235017,23.232622,57.344299,19.925253,11.617163,15.927565,3.949896,3.3070169999999997,4.92345,3.326658,5.937719,0.089737,0.016324,0.010154,0.006848000000000001,0.007125,1.8160189999999998,2.4787529999999998,3.351814,2.777282,3.27578
9999,1645652079.434351,1645652079.472182,21.0,0.0,4375.897461,4670.769043,4209.230957,4282.05127,4305.128418,0.0,3.0,55.0,,,,0.0,4.0,0.0,4.0,0.0,4.0,33.333332,,,,,,,,,,,,,,,,,,,,,,,,,,,,,,,,,,,,,,,,,,,,,,,,,,,,,,,,,,,,,,,,,,,,,,,,,,,,,,,,,,,,
10000,1645652079.442166,1645652079.4799972,22.0,0.0,4253.846191,4675.897461,4210.256348,4277.94873,4270.769043,0.0,3.0,55.0,,,,0.0,4.0,0.0,4.0,0.0,4.0,33.333332,,,,,,,,11.0,0.0,0.413498,0.5354,0.235596,-0.697754,0.9585110000000001,-0.105959,-0.316899,-0.019693000000000002,-0.048591,-0.033055,,,,,,,,,,,,,,,,,,,,,,,,,,,,,,,,,,,,,,,,,,,,,,,,,,,,,,,,,,,,,,,,,
10001,1645652079.449981,1645652079.487813,23.0,0.0,4259.487305,4602.05127,4220.0,4278.461426,4286.153809,0.0,3.0,55.0,,,,0.0,4.0,0.0,4.0,0.0,4.0,33.333332,,,,,,,,,,,,,,,,,,,,,,,,,,,,,,,,,,,,,,,,,,,,,,,,,,,,,,,,,,,,,,,,,,,,,,,,,,,,,,,,,,,,
10002,1645652079.457796,1645652079.4956279,24.0,0.0,4336.922852000001,4576.410156,4223.077147999999,4281.538574,4316.922852000001,0.0,3.0,55.0,,,,0.0,4.0,0.0,4.0,0.0,4.0,33.333332,,,,,,,,12.0,0.0,0.413637,0.5354,0.235352,-0.697754,0.949722,-0.118654,-0.3252,-0.020263,-0.048615,-0.035365,,,,,,,,,,,,,,,,,,,,,,,,,,,,,,,,,,,0.0,0.0,1.0,0.0,128.0,0.409482,,,,,,,,,,,,,,,,,,,,,,,,,
10003,1645652079.465611,1645652079.503444,25.0,0.0,4320.0,4677.94873,4207.692383,4281.538574,4295.897461,0.0,3.0,55.0,,,,0.0,4.0,0.0,4.0,0.0,4.0,33.333332,,,,,,,,,,,,,,,,,,,,,,,,,,,,,,,,,,,,,,,,,,,,,,,,,,,,,,,,,,,,,,,,,,,,,,,,,,,,,,,,,,,,
10004,1645652079.4734259,1645652079.511359,26.0,0.0,4299.487305,4697.94873,4218.974121,4280.512695,4297.94873,0.0,3.0,55.0,,,,0.0,4.0,0.0,4.0,0.0,4.0,33.333332,,,,,,,,13.0,0.0,0.413637,0.5354,0.235352,-0.697754,0.956558,-0.134279,-0.326665,-0.019018,-0.048685,-0.037541000000000005,,,,,,,,,,,,,,,,,,,,,,,,,,,,,,,,,,,,,,,,,,,,,,,,,,,,,,,,,,,,,,,,,
10005,1645652079.481242,1645652079.519174,27.0,0.0,4365.641113000001,4635.384765999999,4248.205078,4280.0,4369.743652,0.0,3.0,55.0,,,,0.0,4.0,0.0,4.0,0.0,4.0,33.333332,,,,,,,,,,,,,,,,,,,,,,,,,,,,,,,,,,,,,,,,,,,,,,,,,,,,,,,,,,,,,,,,,,,,,,,,,,,,,,,,,,,,
10006,1645652079.489057,1645652079.52699,28.0,0.0,4391.282227000001,4634.871582,4236.922852000001,4281.025879,4371.794922,0.0,3.0,55.0,,,,0.0,4.0,0.0,4.0,0.0,4.0,33.333332,,,,,,,,14.0,0.0,0.413364,0.5354,0.235107,-0.697998,0.9751129999999999,-0.127443,-0.32227100000000003,-0.019509000000000002,-0.048699,-0.033104,,,,,,,,,,,,,,,,,,,,,,,,,,,,,,,,,,,0.0,0.0,1.0,0.0,128.0,0.409482,,,,,,,,,,,,,,,,,,,,,,,,,
10007,1645652079.4968722,1645652079.534805,29.0,0.0,4359.487305,4664.102539,4217.436035,4282.05127,4337.94873,0.0,3.0,55.0,,,,0.0,4.0,0.0,4.0,0.0,4.0,33.333332,,,,,,,,,,,,,,,,,,,,,,,,,,,,,,,,,,,,,,,,,,,,,,,,,,,,,,,,,,,,,,,,,,,,,,,,,,,,,,,,,,,,
10008,1645652079.5046868,1645652079.54262,30.0,0.0,4339.487305,4669.743652,4205.128418,4280.512695,4372.820313,0.0,3.0,55.0,,,,0.0,4.0,0.0,4.0,0.0,4.0,33.333332,,,,,,,,15.0,0.0,0.41308999999999996,0.5354,0.23486300000000002,-0.698242,0.9404440000000001,-0.127932,-0.320806,-0.020097,-0.048615,-0.035506,,,,,,,,,,,,,,,,,,,,,,,,,,,,,,,,,,,,,,,,,,,,,,,,,,,,,,,,,,,,,,,,,
10009,1645652079.512502,1645652079.550436,31.0,0.0,4385.128418,4674.871582,4208.717772999999,4280.0,4393.846191,0.0,3.0,55.0,,,,0.0,4.0,0.0,4.0,0.0,4.0,33.333332,,,,,,,,,,,,,,,,,,,,,,,,,,,,,,,,,,,,,,,,,,,,,,,,,,,,,,,,,,,,,,,,,,,,,,,,,,,,,,,,,,,,
10010,1645652079.520317,1645652079.558251,32.0,0.0,4480.0,4663.589844,4201.025879,4283.077147999999,4378.461426,0.0,3.0,55.0,,,,0.0,4.0,0.0,4.0,0.0,4.0,33.333332,,,,,,,,16.0,0.0,0.413133,0.5351560000000001,0.234619,-0.6984859999999999,0.9589989999999999,-0.120119,-0.318364,-0.020431,-0.04849,-0.031467,,,,,,,,,,,,,,,,,,,,,,,,,,,,,,,,,,,0.0,0.0,1.0,0.0,128.0,0.409482,,,,,,,,,,,,,,,,,,,,,,,,,
10011,1645652079.528133,1645652079.566066,33.0,0.0,4448.205078,4674.871582,4200.512695,4282.05127,4408.205078,0.0,3.0,55.0,,,,0.0,4.0,0.0,4.0,0.0,4.0,33.333332,,,,,,,,,,,,,,,,,,,,,,,,,,,,,,,,,,,,,,,,,,,,,,,,,,,,,,,,,,,,,,,,,,,,,,,,,,,,,,,,,,,,
10012,1645652079.535948,1645652079.573882,34.0,0.0,4351.282227000001,4676.410156,4201.025879,4278.974121,4427.692383,0.0,3.0,55.0,,,,0.0,4.0,0.0,4.0,0.0,4.0,33.333332,,,,,,,,17.0,0.0,0.413271,0.5351560000000001,0.234375,-0.6984859999999999,0.960464,-0.128908,-0.333989,-0.020829,-0.04867,-0.033936,,,,,,,,,,,,,,,,,,,,,,,,,,,,,,,,,,,,,,,,,,,,,,,,,,,,,,,,,,,,,,,,,
10013,1645652079.5437632,1645652079.5817971,35.0,0.0,4436.922852000001,4628.717772999999,4220.512695,4282.563965,4429.230957,0.0,3.0,55.0,,,,0.0,4.0,0.0,4.0,0.0,4.0,33.333332,,,,,,,,,,,,,,,,,,,,,,,,,,,,,,,,,,,,,,,,,,,,,,,,,,,,,,,,,,,,,,,,,,,,,,,,,,,,,,,,,,,,
10014,1645652079.551578,1645652079.589612,36.0,0.0,4567.692383,4656.410156,4220.512695,4285.128418,4474.871582,0.0,3.0,55.0,,,,0.0,4.0,0.0,4.0,0.0,4.0,33.333332,,,,,,,,18.0,0.0,0.412858,0.5351560000000001,0.234375,-0.6987300000000001,0.952651,-0.11914200000000001,-0.32861799999999997,-0.021138999999999998,-0.048539,-0.036206,1.0,0.0,0.0,,,,,,,,,,,,,,,,,,,,,,,,,,,,,,,,0.0,0.0,1.0,0.0,128.0,0.670096,1.591811,2.282161,1.758091,2.636017,4.016585,21.663563,51.451771,27.679533000000003,10.877432,17.165257999999998,4.6035260000000005,3.746928,4.960097,4.688112,9.340196,0.14872,0.021752,0.014958,0.009356999999999999,0.007587999999999999,2.366133,2.8040700000000003,3.255497,2.555788,3.9378849999999996
10015,1645652079.559393,1645652079.5974278,37.0,0.0,4516.922852000001,4675.384765999999,4212.820313,4282.563965,4503.077147999999,0.0,3.0,55.0,,,,0.0,4.0,0.0,4.0,0.0,4.0,33.333332,,,,,,,,,,,,,,,,,,,,,,,,,,,,,,,,,,,,,,,,,,,,,,,,,,,,,,,,,,,,,,,,,,,,,,,,,,,,,,,,,,,,
10016,1645652079.567208,1645652079.605243,38.0,0.0,4416.410156,4610.256348,4222.563965,4280.0,4472.307617,0.0,3.0,55.0,,,,0.0,4.0,0.0,4.0,0.0,4.0,33.333332,,,,,,,,19.0,0.0,0.412997,0.5351560000000001,0.234131,-0.6987300000000001,0.9663229999999999,-0.130373,-0.31250500000000003,-0.019122999999999998,-0.048617,-0.038396,,,,,,,,,,,,,,,,,,,,,,,,,,,,,,,,,,,,,,,,,,,,,,,,,,,,,,,,,,,,,,,,,
10017,1645652079.5750241,1645652079.613058,39.0,0.0,4389.743652,4605.641113000001,4239.487305,4280.512695,4464.615234000001,0.0,3.0,55.0,,,,0.0,4.0,0.0,4.0,0.0,4.0,33.333332,,,,,,,,,,,,,,,,,,,,,,,,,,,,,,,,,,,,,,,,,,,,,,,,,,,,,,,,,,,,,,,,,,,,,,,,,,,,,,,,,,,,
10018,1645652079.582839,1645652079.620874,40.0,0.0,4434.871582,4673.846191,4243.589844,4281.538574,4502.05127,0.0,3.0,55.0,,,,0.0,4.0,0.0,4.0,0.0,4.0,33.333332,,,,,,,,20.0,0.0,0.412583,0.5351560000000001,0.234131,-0.698975,0.9580219999999999,-0.107424,-0.321294,-0.019603,-0.048638,-0.04027,,,,,,,,,,,,,,,,,,,,,,,,,,,,,,,,,,,0.0,0.0,1.0,0.0,128.0,0.670096,,,,,,,,,,,,,,,,,,,,,,,,,
10019,1645652079.590654,1645652079.628689,41.0,0.0,4453.846191,4672.820313,4226.153809,4282.05127,4477.94873,0.0,3.0,55.0,,,,0.0,4.0,0.0,4.0,0.0,4.0,33.333332,,,,,,,,,,,,,,,,,,,,,,,,,,,,,,,,,,,,,,,,,,,,,,,,,,,,,,,,,,,,,,,,,,,,,,,,,,,,,,,,,,,,
10020,1645652079.598469,1645652079.636504,42.0,0.0,4400.512695,4612.820313,4200.0,4283.077147999999,4429.230957,0.0,3.0,55.0,,,,0.0,4.0,0.0,4.0,0.0,4.0,33.333332,,,,,,,,21.0,0.0,0.412761,0.5349119999999999,0.234375,-0.698975,0.945815,-0.11914200000000001,-0.325689,-0.020084,-0.048706,-0.035802999999999995,,,,,,,,,,,,,,,,,,,,,,,,,,,,,,,,,,,,,,,,,,,,,,,,,,,,,,,,,,,,,,,,,
10021,1645652079.606284,1645652079.64432,43.0,0.0,4397.436035,4677.94873,4196.922852000001,4282.563965,4443.589844,0.0,3.0,55.0,,,,0.0,4.0,0.0,4.0,0.0,4.0,33.333332,,,,,,,,,,,,,,,,,,,,,,,,,,,,,,,,,,,,,,,,,,,,,,,,,,,,,,,,,,,,,,,,,,,,,,,,,,,,,,,,,,,,
10022,1645652079.614099,1645652079.652235,44.0,0.0,4496.410156,4731.794922,4238.974121,4282.05127,4503.077147999999,0.0,3.0,55.0,,,,0.0,4.0,0.0,4.0,0.0,4.0,33.333332,,,,,,,,22.0,0.0,0.4129,0.5349119999999999,0.234131,-0.698975,0.9350729999999999,-0.129885,-0.31396999999999997,-0.020615,-0.048718,-0.037887,,,,,,,,,,,,,,,,,,,,,,,,,,,,,,,,,,,0.0,0.0,1.0,0.0,128.0,0.670096,,,,,,,,,,,,,,,,,,,,,,,,,
10023,1645652079.621915,1645652079.66005,45.0,0.0,4496.410156,4685.128418,4250.256348,4280.512695,4497.94873,0.0,3.0,55.0,,,,0.0,4.0,0.0,4.0,0.0,4.0,33.333332,,,,,,,,,,,,,,,,,,,,,,,,,,,,,,,,,,,,,,,,,,,,,,,,,,,,,,,,,,,,,,,,,,,,,,,,,,,,,,,,,,,,
10024,1645652079.62973,1645652079.667866,46.0,0.0,4398.461426,4686.666504,4226.666504,4281.538574,4445.641113000001,0.0,3.0,55.0,,,,0.0,4.0,0.0,4.0,0.0,4.0,33.333332,,,,,,,,23.0,0.0,0.41248599999999996,0.5349119999999999,0.234131,-0.6992189999999999,0.9487450000000001,-0.11035299999999999,-0.31543499999999997,-0.019334999999999998,-0.048777999999999995,-0.033512,,,,,,,,,,,,,,,,,,,,,,,,,,,,,,,,,,,,,,,,,,,,,,,,,,,,,,,,,,,,,,,,,
10025,1645652079.6375449,1645652079.675681,47.0,0.0,4375.384765999999,4693.846191,4212.307617,4283.077147999999,4427.179688,0.0,3.0,55.0,,,,0.0,4.0,0.0,4.0,0.0,4.0,33.333332,,,,,,,,,,,,,,,,,,,,,,,,,,,,,,,,,,,,,,,,,,,,,,,,,,,,,,,,,,,,,,,,,,,,,,,,,,,,,,,,,,,,
10026,1645652079.64536,1645652079.683497,48.0,0.0,4443.077147999999,4649.743652,4239.487305,4283.077147999999,4454.358886999999,0.0,3.0,55.0,,,,0.0,4.0,0.0,4.0,0.0,4.0,33.333332,,,,,,,,24.0,0.0,0.4129,0.5349119999999999,0.234131,-0.698975,0.969253,-0.11230599999999999,-0.330083,-0.017547999999999998,-0.048783,-0.035727999999999996,,,,,,,,,,,,,,,,,,,,,,,,,,,,,,,,,,,10.0,0.0,1.0,0.0,128.0,0.670096,,,,,,,,,,,,,,,,,,,,,,,,,
10027,1645652079.653175,1645652079.6913118,49.0,0.0,4468.717772999999,4637.436035,4247.692383,4282.05127,4476.922852000001,0.0,3.0,55.0,,,,0.0,4.0,0.0,4.0,0.0,4.0,33.333332,,,,,,,,,,,,,,,,,,,,,,,,,,,,,,,,,,,,,,,,,,,,,,,,,,,,,,,,,,,,,,,,,,,,,,,,,,,,,,,,,,,,
10028,1645652079.66099,1645652079.699127,50.0,0.0,4414.358886999999,4630.769043,4234.871582,4282.05127,4460.0,0.0,3.0,55.0,,,,0.0,4.0,0.0,4.0,0.0,4.0,33.333332,,,,,,,,25.0,0.0,0.4129,0.5349119999999999,0.234131,-0.698975,0.9741360000000001,-0.12549000000000002,-0.326665,-0.015988,-0.048739,-0.037819,,,,,,,,,,,,,,,,,,,,,,,,,,,,,,,,,,,,,,,,,,,,,,,,,,,,,,,,,,,,,,,,,
10029,1645652079.6688051,1645652079.706943,51.0,0.0,4421.025879,4559.487305,4232.307617,4282.563965,4453.333496,0.0,3.0,55.0,,,,0.0,4.0,0.0,4.0,0.0,4.0,33.333332,,,,,,,,,,,,,,,,,,,,,,,,,,,,,,,,,,,,,,,,,,,,,,,,,,,,,,,,,,,,,,,,,,,,,,,,,,,,,,,,,,,,
10030,1645652079.6766212,1645652079.714858,52.0,0.0,4460.0,4512.820313,4254.358886999999,4282.05127,4464.615234000001,0.0,3.0,55.0,,,,0.0,4.0,0.0,4.0,0.0,4.0,33.333332,1.0,8.333333,3.0,0.0,1.0,0.0,3.0,26.0,0.0,0.412761,0.5349119999999999,0.234375,-0.698975,0.963882,-0.118654,-0.331548,-0.017026,-0.048748,-0.03975,1.0,0.0,0.0,,,,,,,,,,,,,,,,,,,,,,,,,,,,,,,,10.0,0.0,64.0,1.0,1.0,0.0,1.7323419999999998,2.662897,2.09211,2.611136,5.01295,24.085415,47.256111,40.275696,11.205898,18.867613000000002,5.416705,4.093367,5.186199,6.412491,13.125242000000002,0.209108,0.027183,0.019362,0.012306000000000001,0.008457,3.1751139999999998,3.1349549999999997,3.143785,2.432619,4.655226
10031,1645652079.6844358,1645652079.722673,53.0,0.0,4436.922852000001,4555.897461,4232.820313,4282.563965,4453.846191,0.0,3.0,55.0,,,,0.0,4.0,0.0,4.0,0.0,4.0,33.333332,,,,,,,,,,,,,,,,,,,,,,,,,,,,,,,,,,,,,,,,,,,,,,,,,,,,,,,,,,,,,,,,,,,,,,,,,,,,,,,,,,,,
10032,1645652079.692251,1645652079.730489,54.0,0.0,4441.025879,4636.410156,4210.256348,4283.589844,4445.128418,0.0,3.0,55.0,,,,0.0,4.0,0.0,4.0,0.0,4.0,33.333332,,,,,,,,27.0,0.0,0.412858,0.5351560000000001,0.234375,-0.6987300000000001,0.963882,-0.116701,-0.332036,-0.017814,-0.048756,-0.035336,,,,,,,,,,,,,,,,,,,,,,,,,,,,,,,,,,,,,,,,,,,,,,,,,,,,,,,,,,,,,,,,,
10033,1645652079.700066,1645652079.738304,55.0,0.0,4476.410156,4668.717772999999,4242.05127,4283.077147999999,4478.974121,0.0,3.0,55.0,,,,0.0,4.0,0.0,4.0,0.0,4.0,33.333332,,,,,,,,,,,,,,,,,,,,,,,,,,,,,,,,,,,,,,,,,,,,,,,,,,,,,,,,,,,,,,,,,,,,,,,,,,,,,,,,,,,,
10034,1645652079.707881,1645652079.746119,56.0,0.0,4451.794922,4641.025879,4271.794922,4282.05127,4496.922852000001,0.0,3.0,55.0,,,,0.0,4.0,0.0,4.0,0.0,4.0,33.333332,,,,,,,,28.0,0.0,0.412858,0.5351560000000001,0.234375,-0.6987300000000001,0.9511860000000001,-0.120119,-0.32227100000000003,-0.018376,-0.048763,-0.037466,,,,,,,,,,,,,,,,,,,,,,,,,,,,,,,,,,,10.0,0.0,64.0,1.0,1.0,0.0,,,,,,,,,,,,,,,,,,,,,,,,,
10035,1645652079.715696,1645652079.7539349,57.0,0.0,4480.0,4694.358886999999,4262.563965,4283.077147999999,4496.922852000001,0.0,3.0,55.0,,,,0.0,4.0,0.0,4.0,0.0,4.0,33.333332,,,,,,,,,,,,,,,,,,,,,,,,,,,,,,,,,,,,,,,,,,,,,,,,,,,,,,,,,,,,,,,,,,,,,,,,,,,,,,,,,,,,
10036,1645652079.723512,1645652079.76175,58.0,0.0,4551.282227000001,4756.410156,4238.461426,4283.077147999999,4496.410156,0.0,3.0,55.0,,,,0.0,4.0,0.0,4.0,0.0,4.0,33.333332,,,,,,,,29.0,0.0,0.41281599999999996,0.5354,0.234619,-0.6984859999999999,0.954116,-0.124025,-0.31787600000000005,-0.018931,-0.048964999999999995,-0.033134,,,,,,,,,,,,,,,,,,,,,,,,,,,,,,,,,,,,,,,,,,,,,,,,,,,,,,,,,,,,,,,,,
10037,1645652079.731327,1645652079.769565,59.0,0.0,4509.743652,4711.794922,4214.358886999999,4282.563965,4468.205078,0.0,3.0,55.0,,,,0.0,4.0,0.0,4.0,0.0,4.0,33.333332,,,,,,,,,,,,,,,,,,,,,,,,,,,,,,,,,,,,,,,,,,,,,,,,,,,,,,,,,,,,,,,,,,,,,,,,,,,,,,,,,,,,
10038,1645652079.739142,1645652079.777381,60.0,0.0,4437.94873,4729.230957,4202.563965,4283.077147999999,4414.871582,0.0,3.0,55.0,,,,0.0,4.0,0.0,4.0,0.0,4.0,33.333332,,,,,,,,30.0,0.0,0.41281599999999996,0.5354,0.234619,-0.6984859999999999,0.949722,-0.111818,-0.313481,-0.019528,-0.048854,-0.035631,,,,,,,,,,,,,,,,,,,,,,,,,,,,,,,,,,,10.0,0.0,64.0,1.0,1.0,0.0,,,,,,,,,,,,,,,,,,,,,,,,,
10039,1645652079.746957,1645652079.785196,61.0,0.0,4444.102539,4748.717772999999,4230.256348,4282.563965,4398.974121,0.0,3.0,55.0,,,,0.0,4.0,0.0,4.0,0.0,4.0,33.333332,,,,,,,,,,,,,,,,,,,,,,,,,,,,,,,,,,,,,,,,,,,,,,,,,,,,,,,,,,,,,,,,,,,,,,,,,,,,,,,,,,,,
10040,1645652079.7547722,1645652079.7931108,62.0,0.0,4417.436035,4677.94873,4227.179688,4281.538574,4374.358886999999,0.0,3.0,55.0,,,,0.0,4.0,0.0,4.0,0.0,4.0,33.333332,,,,,,,,31.0,0.0,0.41281599999999996,0.5354,0.234619,-0.6984859999999999,0.938003,-0.107912,-0.31250500000000003,-0.01987,-0.048851,-0.031531,,,,,,,,,,,,,,,,,,,,,,,,,,,,,,,,,,,,,,,,,,,,,,,,,,,,,,,,,,,,,,,,,
10041,1645652079.7625868,1645652079.800927,63.0,0.0,4376.922852000001,4588.717772999999,4226.666504,4280.0,4335.897461,0.0,3.0,55.0,,,,0.0,4.0,0.0,4.0,0.0,4.0,33.333332,,,,,,,,,,,,,,,,,,,,,,,,,,,,,,,,,,,,,,,,,,,,,,,,,,,,,,,,,,,,,,,,,,,,,,,,,,,,,,,,,,,,
10042,1645652079.770403,1645652079.808742,64.0,0.0,4367.692383,4513.333496,4236.410156,4280.512695,4318.974121,450.0,3.0,55.0,,,,0.0,4.0,0.0,4.0,0.0,4.0,33.333332,,,,,,,,32.0,0.0,0.412499,0.5356449999999999,0.234619,-0.6984859999999999,0.9472799999999999,-0.113771,-0.313481,-0.020325,-0.048702999999999996,-0.034042,,,,,,,,,,,,,,,,,,,,,,,,,,,,,,,,,,,0.0,0.0,64.0,1.0,1.0,0.0,,,,,,,,,,,,,,,,,,,,,,,,,
10043,1645652079.778218,1645652079.816557,65.0,0.0,4349.743652,4501.025879,4242.05127,4280.512695,4306.666504,450.0,3.0,55.0,,,,0.0,4.0,0.0,4.0,0.0,4.0,33.333332,,,,,,,,,,,,,,,,,,,,,,,,,,,,,,,,,,,,,,,,,,,,,,,,,,,,,,,,,,,,,,,,,,,,,,,,,,,,,,,,,,,,
10044,1645652079.786033,1645652079.824373,66.0,0.0,4348.205078,4588.717772999999,4247.692383,4280.512695,4301.538574,16222.0,3.0,55.0,,,,0.0,4.0,0.0,4.0,0.0,4.0,33.333332,,,,,,,,33.0,0.0,0.412912,0.5356449999999999,0.234619,-0.698242,0.939467,-0.11572400000000001,-0.323735,-0.020636,-0.048714999999999994,-0.030052,,,,,,,,,,,,,,,,,,,,,,,,,,,,,,,,,,,,,,,,,,,,,,,,,,,,,,,,,,,,,,,,,
10045,1645652079.793848,1645652079.8321881,67.0,0.0,4348.205078,4654.358886999999,4251.794922,4281.025879,4284.102539,450.0,3.0,55.0,,,,0.0,4.0,0.0,4.0,0.0,4.0,33.333332,,,,,,,,,,,,,,,,,,,,,,,,,,,,,,,,,,,,,,,,,,,,,,,,,,,,,,,,,,,,,,,,,,,,,,,,,,,,,,,,,,,,
10046,1645652079.8016632,1645652079.840004,68.0,0.0,4308.717772999999,4647.179688,4216.410156,4280.0,4241.025879,0.0,3.0,55.0,,,,0.0,4.0,0.0,4.0,0.0,4.0,33.333332,,,,,,,,34.0,0.0,0.412912,0.5356449999999999,0.234619,-0.698242,0.957046,-0.11230599999999999,-0.307134,-0.021013999999999998,-0.048727,-0.032758999999999996,1.0,0.0,0.0,,,,,,,,,,,,,,,,,,,,,,,,,,,,,,,,0.0,0.0,64.0,0.7581359999999999,1.0,0.0,2.305627,3.2931470000000003,3.069626,2.735952,6.17582,30.711145000000002,45.734715,52.340408000000004,12.281656,20.253576000000002,6.235311,4.245083,5.503998,8.032825,16.145269,0.25256,0.03075,0.022,0.014925999999999998,0.009593,4.351904,3.4111860000000003,3.072356,2.416506,5.188555
10047,1645652079.809478,1645652079.8478189,69.0,0.0,4294.871582,4650.256348,4220.512695,4279.487305,4232.820313,450.0,3.0,55.0,,,,0.0,4.0,0.0,4.0,0.0,4.0,33.333332,,,,,,,,,,,,,,,,,,,,,,,,,,,,,,,,,,,,,,,,,,,,,,,,,,,,,,,,,,,,,,,,,,,,,,,,,,,,,,,,,,,,
10048,1645652079.817294,1645652079.855634,70.0,0.0,4336.410156,4636.410156,4258.974121,4280.0,4264.102539,16174.0,3.0,55.0,,,,0.0,4.0,0.0,4.0,0.0,4.0,33.333332,,,,,,,,35.0,0.0,0.412912,0.5356449999999999,0.234619,-0.698242,0.945815,-0.120119,-0.327642,-0.021256,-0.048639,-0.035245,,,,,,,,,,,,,,,,,,,,,,,,,,,,,,,,,,,,,,,,,,,,,,,,,,,,,,,,,,,,,,,,,
10049,1645652079.825109,1645652079.86355,71.0,0.0,4339.487305,4609.743652,4255.384765999999,4280.0,4263.589844,450.0,3.0,55.0,,,,0.0,4.0,0.0,4.0,0.0,4.0,33.333332,,,,,,,,,,,,,,,,,,,,,,,,,,,,,,,,,,,,,,,,,,,,,,,,,,,,,,,,,,,,,,,,,,,,,,,,,,,,,,,,,,,,
10050,1645652079.8329241,1645652079.871365,72.0,0.0,4306.153809,4595.897461,4232.307617,4278.974121,4241.025879,450.0,3.0,55.0,,,,0.0,4.0,0.0,4.0,0.0,4.0,33.333332,,,,,,,,36.0,0.0,0.412912,0.5356449999999999,0.234619,-0.698242,0.953628,-0.111818,-0.309087,-0.019180000000000003,-0.048658,-0.037482999999999995,,,,,,,,,,,,,,,,,,,,,,,,,,,,,,,,,,,0.0,0.0,64.0,0.7581359999999999,1.0,0.0,,,,,,,,,,,,,,,,,,,,,,,,,
10051,1645652079.840739,1645652079.8791802,73.0,0.0,4299.487305,4601.025879,4230.769043,4280.512695,4224.102539,0.0,3.0,55.0,,,,0.0,4.0,0.0,4.0,0.0,4.0,33.333332,,,,,,,,,,,,,,,,,,,,,,,,,,,,,,,,,,,,,,,,,,,,,,,,,,,,,,,,,,,,,,,,,,,,,,,,,,,,,,,,,,,,
10052,1645652079.848554,1645652079.886996,74.0,0.0,4326.153809,4601.025879,4249.743652,4281.025879,4234.358886999999,450.0,3.0,55.0,,,,0.0,4.0,0.0,4.0,0.0,4.0,33.333332,,,,,,,,37.0,0.0,0.413051,0.5356449999999999,0.234375,-0.698242,0.948257,-0.11230599999999999,-0.313481,-0.01731,-0.048577999999999996,-0.039399,,,,,,,,,,,,,,,,,,,,,,,,,,,,,,,,,,,,,,,,,,,,,,,,,,,,,,,,,,,,,,,,,
10053,1645652079.856369,1645652079.894811,75.0,0.0,4329.230957,4576.410156,4253.333496,4280.0,4235.897461,16209.0,3.0,55.0,,,,0.0,4.0,0.0,4.0,0.0,4.0,33.333332,,,,,,,,,,,,,,,,,,,,,,,,,,,,,,,,,,,,,,,,,,,,,,,,,,,,,,,,,,,,,,,,,,,,,,,,,,,,,,,,,,,,
10054,1645652079.8641849,1645652079.902626,76.0,0.0,4312.820313,4624.615234000001,4230.769043,4280.512695,4220.512695,450.0,3.0,55.0,,,,0.0,4.0,0.0,4.0,0.0,4.0,33.333332,,,,,,,,38.0,0.0,0.413463,0.5356449999999999,0.234375,-0.697998,0.960952,-0.123049,-0.315923,-0.017972,-0.048554,-0.041269,,,,,,,,,,,,,,,,,,,,,,,,,,,,,,,,,,,0.0,0.0,64.0,0.7581359999999999,1.0,0.0,,,,,,,,,,,,,,,,,,,,,,,,,
10055,1645652079.872,1645652079.9104419,77.0,0.0,4320.0,4691.794922,4211.282227000001,4280.512695,4218.974121,450.0,3.0,55.0,,,,0.0,4.0,0.0,4.0,0.0,4.0,33.333332,,,,,,,,,,,,,,,,,,,,,,,,,,,,,,,,,,,,,,,,,,,,,,,,,,,,,,,,,,,,,,,,,,,,,,,,,,,,,,,,,,,,
10056,1645652079.879815,1645652079.918257,78.0,0.0,4351.794922,4675.384765999999,4245.641113000001,4280.512695,4246.153809,450.0,3.0,55.0,,,,0.0,4.0,0.0,4.0,0.0,4.0,33.333332,,,,,,,,39.0,0.0,0.412912,0.5356449999999999,0.234619,-0.698242,0.953628,-0.111818,-0.309087,-0.01847,-0.048435,-0.036605,,,,,,,,,,,,,,,,,,,,,,,,,,,,,,,,,,,,,,,,,,,,,,,,,,,,,,,,,,,,,,,,,
10057,1645652079.88763,1645652079.9260721,79.0,0.0,4343.077147999999,4675.897461,4257.94873,4280.512695,4248.717772999999,16209.0,3.0,55.0,,,,0.0,4.0,0.0,4.0,0.0,4.0,33.333332,,,,,,,,,,,,,,,,,,,,,,,,,,,,,,,,,,,,,,,,,,,,,,,,,,,,,,,,,,,,,,,,,,,,,,,,,,,,,,,,,,,,
10058,1645652079.8954449,1645652079.933988,80.0,0.0,4312.820313,4730.769043,4227.179688,4280.0,4225.128418,450.0,3.0,55.0,,,,0.0,4.0,0.0,4.0,0.0,4.0,33.333332,,,,,,,,40.0,0.0,0.413463,0.5356449999999999,0.234375,-0.697998,0.960952,-0.123049,-0.315923,-0.019015,-0.048425,-0.038755,,,,,,,,,,,,,,,,,,,,,,,,,,,,,,,,,,,0.0,0.0,64.0,0.7581359999999999,1.0,0.0,,,,,,,,,,,,,,,,,,,,,,,,,
10059,1645652079.90326,1645652079.941803,81.0,0.0,4295.384765999999,4699.487305,4192.307617,4278.974121,4211.282227000001,450.0,3.0,55.0,,,,0.0,4.0,0.0,4.0,0.0,4.0,33.333332,,,,,,,,,,,,,,,,,,,,,,,,,,,,,,,,,,,,,,,,,,,,,,,,,,,,,,,,,,,,,,,,,,,,,,,,,,,,,,,,,,,,
10060,1645652079.911075,1645652079.9496179,82.0,0.0,4296.922852000001,4616.922852000001,4222.05127,4278.974121,4228.205078,450.0,3.0,55.0,,,,0.0,4.0,0.0,4.0,0.0,4.0,33.333332,,,,,,,,41.0,0.0,0.413463,0.5356449999999999,0.234375,-0.697998,0.9506979999999999,-0.127932,-0.326665,-0.019653,-0.048514999999999996,-0.040642000000000005,,,,,,,,,,,,,,,,,,,,,,,,,,,,,,,,,,,,,,,,,,,,,,,,,,,,,,,,,,,,,,,,,
10061,1645652079.918891,1645652079.957434,83.0,0.0,4330.769043,4649.743652,4266.153809,4280.0,4267.692383,16209.0,3.0,55.0,,,,0.0,4.0,0.0,4.0,0.0,4.0,33.333332,,,,,,,,,,,,,,,,,,,,,,,,,,,,,,,,,,,,,,,,,,,,,,,,,,,,,,,,,,,,,,,,,,,,,,,,,,,,,,,,,,,,
10062,1645652079.926706,1645652079.965249,84.0,0.0,4335.897461,4694.871582,4267.179688,4280.0,4270.256348,450.0,3.0,55.0,,,,0.0,4.0,0.0,4.0,0.0,4.0,33.333332,,,,,,,,42.0,0.0,0.413051,0.5356449999999999,0.234375,-0.698242,0.94435,-0.123537,-0.314946,-0.020031,-0.048546,-0.036137999999999997,1.0,0.0,0.0,,,,,,,,,,,,,,,,,,,,,,,,,,,,,,,,0.0,0.0,1.0,0.0,512.0,0.66003,3.7172169999999998,4.184143,4.7138860000000005,3.078047,7.572957000000001,39.730843,47.087009,59.571323,13.462407,20.609995,6.802658999999999,4.173655,5.716842,9.005597999999999,17.355021,0.26311799999999996,0.030935,0.022097,0.016583,0.010799,5.674199,3.515501,3.1128880000000003,2.46107,5.363944999999999
10063,1645652079.9345212,1645652079.973064,85.0,0.0,4298.974121,4673.846191,4232.820313,4279.487305,4242.563965,450.0,3.0,55.0,,,,0.0,4.0,0.0,4.0,0.0,4.0,33.333332,,,,,,,,,,,,,,,,,,,,,,,,,,,,,,,,,,,,,,,,,,,,,,,,,,,,,,,,,,,,,,,,,,,,,,,,,,,,,,,,,,,,
10064,1645652079.9423358,1645652079.98088,86.0,0.0,4297.436035,4635.384765999999,4231.794922,4280.0,4242.05127,450.0,3.0,55.0,,,,0.0,4.0,0.0,4.0,0.0,4.0,33.333332,,,,,,,,43.0,0.0,0.41318900000000003,0.5356449999999999,0.234131,-0.698242,0.957534,-0.112795,-0.325689,-0.020519,-0.048574,-0.038335,,,,,,,,,,,,,,,,,,,,,,,,,,,,,,,,,,,,,,,,,,,,,,,,,,,,,,,,,,,,,,,,,
10065,1645652079.950151,1645652079.988695,87.0,0.0,4321.025879,4616.410156,4238.461426,4280.512695,4257.94873,16209.0,3.0,55.0,,,,0.0,4.0,0.0,4.0,0.0,4.0,33.333332,,,,,,,,,,,,,,,,,,,,,,,,,,,,,,,,,,,,,,,,,,,,,,,,,,,,,,,,,,,,,,,,,,,,,,,,,,,,,,,,,,,,
10066,1645652079.957966,1645652079.996511,88.0,0.0,4292.820313,4709.743652,4214.871582,4280.0,4240.0,450.0,3.0,55.0,,,,0.0,4.0,0.0,4.0,0.0,4.0,33.333332,,,,,,,,44.0,0.0,0.413463,0.5356449999999999,0.234375,-0.697998,0.962417,-0.107424,-0.309087,-0.020859,-0.048501999999999997,-0.040068,,,,,,,,,,,,,,,,,,,,,,,,,,,,,,,,,,,0.0,0.0,1.0,0.0,512.0,0.66003,,,,,,,,,,,,,,,,,,,,,,,,,
10067,1645652079.965782,1645652080.004426,89.0,0.0,4289.743652,4798.974121,4207.179688,4280.0,4224.615234000001,450.0,3.0,55.0,,,,0.0,4.0,0.0,4.0,0.0,4.0,33.333332,,,,,,,,,,,,,,,,,,,,,,,,,,,,,,,,,,,,,,,,,,,,,,,,,,,,,,,,,,,,,,,,,,,,,,,,,,,,,,,,,,,,
10068,1645652079.973597,1645652080.0122411,90.0,0.0,4326.666504,4725.641113000001,4220.512695,4279.487305,4226.153809,450.0,3.0,55.0,,,,0.0,4.0,0.0,4.0,0.0,4.0,33.333332,,,,,,,,45.0,0.0,0.413285,0.5358890000000001,0.234131,-0.697998,0.9560690000000001,-0.11718900000000002,-0.326177,-0.021166,-0.048486,-0.041725,,,,,,,,,,,,,,,,,,,,,,,,,,,,,,,,,,,,,,,,,,,,,,,,,,,,,,,,,,,,,,,,,
10069,1645652079.981412,1645652080.020057,91.0,0.0,4321.538574,4604.615234000001,4237.94873,4278.461426,4245.128418,16209.0,3.0,55.0,,,,0.0,4.0,0.0,4.0,0.0,4.0,33.333332,,,,,,,,,,,,,,,,,,,,,,,,,,,,,,,,,,,,,,,,,,,,,,,,,,,,,,,,,,,,,,,,,,,,,,,,,,,,,,,,,,,,
10070,1645652079.989227,1645652080.027872,92.0,0.0,4302.563965,4568.717772999999,4247.179688,4278.974121,4256.922852000001,450.0,3.0,55.0,,,,0.0,4.0,0.0,4.0,0.0,4.0,33.333332,,,,,,,,46.0,0.0,0.413285,0.5358890000000001,0.234131,-0.697998,0.949722,-0.118654,-0.317388,-0.019782,-0.048471,-0.037016,,,,,,,,,,,,,,,,,,,,,,,,,,,,,,,,,,,0.0,0.0,1.0,0.0,512.0,0.66003,,,,,,,,,,,,,,,,,,,,,,,,,
10071,1645652079.997042,1645652080.035687,93.0,0.0,4314.358886999999,4589.230957,4240.0,4281.025879,4246.153809,450.0,3.0,55.0,,,,0.0,4.0,0.0,4.0,0.0,4.0,33.333332,,,,,,,,,,,,,,,,,,,,,,,,,,,,,,,,,,,,,,,,,,,,,,,,,,,,,,,,,,,,,,,,,,,,,,,,,,,,,,,,,,,,
10072,1645652080.004857,1645652080.043503,94.0,0.0,4303.589844,4596.410156,4213.846191,4281.538574,4222.563965,450.0,3.0,55.0,,,,0.0,4.0,0.0,4.0,0.0,4.0,33.333332,,,,,,,,47.0,0.0,0.413285,0.5358890000000001,0.234131,-0.697998,0.9511860000000001,-0.113283,-0.315923,-0.020294,-0.048556,-0.038929000000000005,,,,,,,,,,,,,,,,,,,,,,,,,,,,,,,,,,,,,,,,,,,,,,,,,,,,,,,,,,,,,,,,,
10073,1645652080.0126722,1645652080.051318,95.0,0.0,4294.871582,4619.487305,4223.077147999999,4280.0,4226.153809,16209.0,3.0,55.0,,,,0.0,4.0,0.0,4.0,0.0,4.0,33.333332,,,,,,,,,,,,,,,,,,,,,,,,,,,,,,,,,,,,,,,,,,,,,,,,,,,,,,,,,,,,,,,,,,,,,,,,,,,,,,,,,,,,
10074,1645652080.020488,1645652080.059133,96.0,0.0,4311.282227000001,4672.820313,4231.794922,4279.487305,4245.641113000001,450.0,3.0,55.0,,,,0.0,4.0,0.0,4.0,0.0,4.0,33.333332,,,,,,,,48.0,0.0,0.41342399999999996,0.5358890000000001,0.23388699999999998,-0.697998,0.949233,-0.12109600000000001,-0.318364,-0.020657,-0.048534,-0.040701,,,,,,,,,,,,,,,,,,,,,,,,,,,,,,,,,,,0.0,0.0,1.0,0.0,512.0,0.66003,,,,,,,,,,,,,,,,,,,,,,,,,
10075,1645652080.028303,1645652080.067049,97.0,0.0,4303.589844,4675.897461,4234.871582,4280.0,4247.179688,450.0,3.0,55.0,,,,0.0,4.0,0.0,4.0,0.0,4.0,33.333332,,,,,,,,,,,,,,,,,,,,,,,,,,,,,,,,,,,,,,,,,,,,,,,,,,,,,,,,,,,,,,,,,,,,,,,,,,,,,,,,,,,,
10076,1645652080.036118,1645652080.0748641,98.0,0.0,4281.025879,4588.717772999999,4235.384765999999,4279.487305,4240.512695,450.0,3.0,55.0,,,,0.0,4.0,0.0,4.0,0.0,4.0,33.333332,,,,,,,,49.0,0.0,0.41373999999999994,0.5356449999999999,0.23388699999999998,-0.697998,0.9511860000000001,-0.11230599999999999,-0.330083,-0.020984,-0.048612999999999996,-0.042343,,,,,,,,,,,,,,,,,,,,,,,,,,,,,,,,,,,,,,,,,,,,,,,,,,,,,,,,,,,,,,,,,
10077,1645652080.043933,1645652080.0826788,99.0,0.0,4283.077147999999,4569.230957,4235.384765999999,4278.974121,4238.461426,16209.0,3.0,55.0,,,,0.0,4.0,0.0,4.0,0.0,4.0,33.333332,,,,,,,,,,,,,,,,,,,,,,,,,,,,,,,,,,,,,,,,,,,,,,,,,,,,,,,,,,,,,,,,,,,,,,,,,,,,,,,,,,,,
10078,1645652080.051748,1645652080.0904949,100.0,0.0,4297.94873,4667.692383,4220.512695,4280.0,4249.230957,450.0,3.0,55.0,,,,0.0,4.0,0.0,4.0,0.0,4.0,33.333332,,,,,,,,50.0,0.0,0.41373999999999994,0.5356449999999999,0.23388699999999998,-0.697998,0.9594870000000001,-0.106447,-0.321294,-0.021376,-0.048537000000000004,-0.037572,1.0,0.0,0.0,,,,,,,,,,,,,,,,,,,,,,,,,,,,,,,,0.0,0.0,1.0,0.0,512.0,0.779787,6.896684,5.330701,6.839971,3.676481,9.278949,48.356342,51.204075,60.196404,14.085598999999998,19.545212,6.908908,3.9043129999999997,5.642976999999999,8.984501,16.315405,0.237269,0.027363,0.019769,0.01699,0.011833,7.668492,3.429511,3.332846,2.5278169999999998,5.156232
10079,1645652080.0595632,1645652080.09831,101.0,0.0,4302.05127,4705.641113000001,4226.153809,4280.0,4255.384765999999,450.0,3.0,55.0,,,,0.0,4.0,0.0,4.0,0.0,4.0,33.333332,,,,,,,,,,,,,,,,,,,,,,,,,,,,,,,,,,,,,,,,,,,,,,,,,,,,,,,,,,,,,,,,,,,,,,,,,,,,,,,,,,,,
10080,1645652080.067378,1645652080.106125,102.0,0.0,4311.794922,4690.256348,4227.692383,4278.974121,4244.102539,450.0,3.0,55.0,,,,0.0,4.0,0.0,4.0,0.0,4.0,33.333332,,,,,,,,51.0,0.0,0.41342399999999996,0.5358890000000001,0.23388699999999998,-0.697998,0.9555809999999999,-0.12060699999999999,-0.314946,-0.019287000000000002,-0.048566000000000005,-0.039479,,,,,,,,,,,,,,,,,,,,,,,,,,,,,,,,,,,,,,,,,,,,,,,,,,,,,,,,,,,,,,,,,
10081,1645652080.075194,1645652080.113941,103.0,0.0,4318.461426,4704.615234000001,4224.615234000001,4278.461426,4238.974121,16209.0,3.0,55.0,,,,0.0,4.0,0.0,4.0,0.0,4.0,33.333332,,,,,,,,,,,,,,,,,,,,,,,,,,,,,,,,,,,,,,,,,,,,,,,,,,,,,,,,,,,,,,,,,,,,,,,,,,,,,,,,,,,,
10082,1645652080.083009,1645652080.121756,104.0,0.0,4314.358886999999,4684.615234000001,4229.230957,4280.0,4249.230957,450.0,3.0,55.0,,,,0.0,4.0,0.0,4.0,0.0,4.0,33.333332,,,,,,,,52.0,0.0,0.41383500000000006,0.5358890000000001,0.23388699999999998,-0.697754,0.948257,-0.123537,-0.314458,-0.017456,-0.048543,-0.041244,,,,,,,,,,,,,,,,,,,,,,,,,,,,,,,,,,,0.0,0.0,1.0,0.0,512.0,0.779787,,,,,,,,,,,,,,,,,,,,,,,,,
10083,1645652080.0908241,1645652080.1295712,105.0,0.0,4289.230957,4628.205078,4209.743652,4280.0,4227.179688,450.0,3.0,55.0,,,,0.0,4.0,0.0,4.0,0.0,4.0,33.333332,,,,,,,,,,,,,,,,,,,,,,,,,,,,,,,,,,,,,,,,,,,,,,,,,,,,,,,,,,,,,,,,,,,,,,,,,,,,,,,,,,,,
10084,1645652080.098639,1645652080.137487,106.0,0.0,4283.589844,4617.94873,4201.025879,4278.461426,4208.205078,450.0,3.0,55.0,,,,0.0,4.0,0.0,4.0,0.0,4.0,33.333332,,,,,,,,53.0,0.0,0.413973,0.5358890000000001,0.233643,-0.697754,0.9629049999999999,-0.13086099999999998,-0.324712,-0.018103,-0.048474,-0.042783999999999996,,,,,,,,,,,,,,,,,,,,,,,,,,,,,,,,,,,,,,,,,,,,,,,,,,,,,,,,,,,,,,,,,
10085,1645652080.106454,1645652080.145302,107.0,0.0,4308.717772999999,4655.897461,4232.307617,4278.974121,4235.897461,16209.0,3.0,55.0,,,,0.0,4.0,0.0,4.0,0.0,4.0,33.333332,,,,,,,,,,,,,,,,,,,,,,,,,,,,,,,,,,,,,,,,,,,,,,,,,,,,,,,,,,,,,,,,,,,,,,,,,,,,,,,,,,,,
10086,1645652080.114269,1645652080.153117,108.0,0.0,4336.410156,4679.487305,4249.230957,4281.538574,4268.205078,450.0,3.0,55.0,,,,0.0,4.0,0.0,4.0,0.0,4.0,33.333332,,,,,,,,54.0,0.0,0.41406899999999996,0.536133,0.233643,-0.6975100000000001,0.952651,-0.122072,-0.313481,-0.018734,-0.048559,-0.037822,,,,,,,,,,,,,,,,,,,,,,,,,,,,,,,,,,,0.0,0.0,1.0,0.0,512.0,0.779787,,,,,,,,,,,,,,,,,,,,,,,,,
10087,1645652080.1220849,1645652080.160933,109.0,0.0,4317.94873,4687.692383,4211.282227000001,4280.512695,4242.563965,450.0,3.0,55.0,,,,0.0,4.0,0.0,4.0,0.0,4.0,33.333332,,,,,,,,,,,,,,,,,,,,,,,,,,,,,,,,,,,,,,,,,,,,,,,,,,,,,,,,,,,,,,,,,,,,,,,,,,,,,,,,,,,,
10088,1645652080.1299,1645652080.1687481,110.0,0.0,4288.205078,4678.461426,4202.563965,4278.461426,4223.589844,450.0,3.0,55.0,,,,0.0,4.0,0.0,4.0,0.0,4.0,33.333332,,,,,,,,55.0,0.0,0.413657,0.536133,0.233643,-0.697754,0.941421,-0.11084200000000001,-0.31299299999999997,-0.017006999999999998,-0.048438999999999996,-0.039704,,,,,,,,,,,,,,,,,,,,,,,,,,,,,,,,,,,,,,,,,,,,,,,,,,,,,,,,,,,,,,,,,
10089,1645652080.137715,1645652080.176564,111.0,0.0,4284.615234000001,4637.94873,4215.384765999999,4278.974121,4243.589844,16209.0,3.0,55.0,,,,0.0,4.0,0.0,4.0,0.0,4.0,33.333332,,,,,,,,,,,,,,,,,,,,,,,,,,,,,,,,,,,,,,,,,,,,,,,,,,,,,,,,,,,,,,,,,,,,,,,,,,,,,,,,,,,,
10090,1645652080.14553,1645652080.1843789,112.0,0.0,4282.05127,4604.102539,4221.538574,4280.0,4252.307617,450.0,3.0,55.0,,,,0.0,4.0,0.0,4.0,0.0,4.0,33.333332,,,,,,,,56.0,0.0,0.413657,0.536133,0.233643,-0.697754,0.949722,-0.12255999999999999,-0.32861799999999997,-0.017748,-0.048527,-0.041349000000000004,,,,,,,,,,,,,,,,,,,,,,,,,,,,,,,,,,,0.0,0.0,1.0,0.0,512.0,0.779787,,,,,,,,,,,,,,,,,,,,,,,,,
10091,1645652080.1533449,1645652080.192194,113.0,0.0,4273.333496,4593.333496,4210.769043,4279.487305,4232.820313,450.0,3.0,55.0,,,,0.0,4.0,0.0,4.0,0.0,4.0,33.333332,,,,,,,,,,,,,,,,,,,,,,,,,,,,,,,,,,,,,,,,,,,,,,,,,,,,,,,,,,,,,,,,,,,,,,,,,,,,,,,,,,,,
10092,1645652080.16116,1645652080.20011,114.0,0.0,4286.666504,4597.436035,4215.897461,4278.974121,4231.794922,450.0,3.0,55.0,,,,0.0,4.0,0.0,4.0,0.0,4.0,33.333332,,,,,,,,57.0,0.0,0.413657,0.536133,0.233643,-0.697754,0.9560690000000001,-0.122072,-0.318853,-0.018512,-0.048556999999999996,-0.042878,,,,,,,,,,,,,,,,,,,,,,,,,,,,,,,,,,,,,,,,,,,,,,,,,,,,,,,,,,,,,,,,,
10093,1645652080.168975,1645652080.207925,115.0,0.0,4291.282227000001,4627.692383,4202.563965,4279.487305,4240.0,16209.0,3.0,55.0,,,,0.0,4.0,0.0,4.0,0.0,4.0,33.333332,,,,,,,,,,,,,,,,,,,,,,,,,,,,,,,,,,,,,,,,,,,,,,,,,,,,,,,,,,,,,,,,,,,,,,,,,,,,,,,,,,,,
10094,1645652080.176791,1645652080.21574,116.0,0.0,4270.256348,4704.615234000001,4181.538574,4280.512695,4221.025879,450.0,3.0,55.0,,,,0.0,4.0,0.0,4.0,0.0,4.0,33.333332,1.0,8.333333,3.0,0.0,1.0,0.0,3.0,58.0,0.0,0.41379499999999997,0.536133,0.233398,-0.697754,0.9546040000000001,-0.11767799999999999,-0.32959499999999997,-0.019053999999999998,-0.048535,-0.038053,1.0,0.0,0.0,,,,,,,,,,,,,,,,,,,,,,,,,,,,,,,,0.0,0.0,1.0,0.0,512.0,0.9910260000000001,12.493043,6.6810339999999995,9.06753,4.48867,11.202252,54.003002,57.497493999999996,55.661021999999996,13.919559,17.230698,6.450288,3.514015,5.216233,7.9742429999999995,13.405883,0.18371700000000002,0.02108,0.015941,0.01627,0.012457,11.016064,3.297709,3.718806,2.608088,4.683952
10095,1645652080.184606,1645652080.223556,117.0,0.0,4282.563965,4756.922852000001,4165.641113000001,4279.487305,4209.743652,450.0,3.0,55.0,,,,0.0,4.0,0.0,4.0,0.0,4.0,33.333332,,,,,,,,,,,,,,,,,,,,,,,,,,,,,,,,,,,,,,,,,,,,,,,,,,,,,,,,,,,,,,,,,,,,,,,,,,,,,,,,,,,,
10096,1645652080.1924212,1645652080.2313712,118.0,0.0,4294.871582,4677.94873,4176.410156,4278.974121,4219.487305,450.0,3.0,55.0,,,,0.0,4.0,0.0,4.0,0.0,4.0,33.333332,,,,,,,,59.0,0.0,0.41379499999999997,0.536133,0.233398,-0.697754,0.946792,-0.123537,-0.32227100000000003,-0.01793,-0.048565,-0.039912,,,,,,,,,,,,,,,,,,,,,,,,,,,,,,,,,,,,,,,,,,,,,,,,,,,,,,,,,,,,,,,,,
10097,1645652080.2002358,1645652080.239186,119.0,0.0,4284.615234000001,4558.974121,4201.538574,4280.0,4234.358886999999,16209.0,3.0,55.0,,,,0.0,4.0,0.0,4.0,0.0,4.0,33.333332,,,,,,,,,,,,,,,,,,,,,,,,,,,,,,,,,,,,,,,,,,,,,,,,,,,,,,,,,,,,,,,,,,,,,,,,,,,,,,,,,,,,
10098,1645652080.208051,1645652080.247002,120.0,0.0,4294.871582,4560.512695,4216.922852000001,4279.487305,4244.102539,450.0,3.0,55.0,,,,0.0,4.0,0.0,4.0,0.0,4.0,33.333332,,,,,,,,60.0,0.0,0.41379499999999997,0.536133,0.233398,-0.697754,0.956558,-0.129885,-0.316411,-0.018383,-0.048591,-0.041634,,,,,,,,,,,,,,,,,,,,,,,,,,,,,,,,,,,0.0,0.0,1.0,0.0,512.0,0.9910260000000001,,,,,,,,,,,,,,,,,,,,,,,,,
10099,1645652080.215866,1645652080.254817,121.0,0.0,4311.794922,4617.94873,4217.94873,4278.461426,4243.589844,450.0,3.0,55.0,,,,0.0,4.0,0.0,4.0,0.0,4.0,33.333332,,,,,,,,,,,,,,,,,,,,,,,,,,,,,,,,,,,,,,,,,,,,,,,,,,,,,,,,,,,,,,,,,,,,,,,,,,,,,,,,,,,,
10100,1645652080.223682,1645652080.2626321,122.0,0.0,4286.153809,4617.94873,4199.487305,4280.512695,4210.769043,450.0,3.0,55.0,,,,0.0,4.0,0.0,4.0,0.0,4.0,33.333332,,,,,,,,61.0,0.0,0.41379499999999997,0.536133,0.233398,-0.697754,0.9580219999999999,-0.12451400000000001,-0.313481,-0.018838999999999998,-0.048468000000000004,-0.036982,,,,,,,,,,,,,,,,,,,,,,,,,,,,,,,,,,,,,,,,,,,,,,,,,,,,,,,,,,,,,,,,,
10101,1645652080.231497,1645652080.270548,123.0,0.0,4284.102539,4647.179688,4196.410156,4281.025879,4212.820313,16209.0,3.0,55.0,,,,0.0,4.0,0.0,4.0,0.0,4.0,33.333332,,,,,,,,,,,,,,,,,,,,,,,,,,,,,,,,,,,,,,,,,,,,,,,,,,,,,,,,,,,,,,,,,,,,,,,,,,,,,,,,,,,,
10102,1645652080.239312,1645652080.278363,124.0,0.0,4294.871582,4724.615234000001,4203.589844,4278.461426,4236.922852000001,450.0,3.0,55.0,,,,0.0,4.0,0.0,4.0,0.0,4.0,33.333332,,,,,,,,62.0,0.0,0.41379499999999997,0.536133,0.233398,-0.697754,0.969741,-0.121584,-0.319829,-0.017004,-0.048553,-0.038997000000000004,,,,,,,,,,,,,,,,,,,,,,,,,,,,,,,,,,,0.0,0.0,1.0,0.0,512.0,0.9910260000000001,,,,,,,,,,,,,,,,,,,,,,,,,
10103,1645652080.247127,1645652080.2861779,125.0,0.0,4268.717772999999,4697.94873,4207.692383,4278.461426,4227.692383,450.0,3.0,55.0,,,,0.0,4.0,0.0,4.0,0.0,4.0,33.333332,,,,,,,,,,,,,,,,,,,,,,,,,,,,,,,,,,,,,,,,,,,,,,,,,,,,,,,,,,,,,,,,,,,,,,,,,,,,,,,,,,,,
10104,1645652080.254942,1645652080.293994,126.0,0.0,4264.102539,4611.794922,4199.487305,4280.0,4209.230957,450.0,3.0,55.0,,,,0.0,4.0,0.0,4.0,0.0,4.0,33.333332,,,,,,,,63.0,0.0,0.41379499999999997,0.536133,0.233398,-0.697754,0.9677879999999999,-0.123049,-0.315923,-0.01755,-0.048581,-0.04081,,,,,,,,,,,,,,,,,,,,,,,,,,,,,,,,,,,,,,,,,,,,,,,,,,,,,,,,,,,,,,,,,
10105,1645652080.262757,1645652080.301809,127.0,0.0,4313.846191,4624.102539,4206.666504,4278.974121,4232.307617,234.0,3.0,55.0,,,,0.0,4.0,0.0,4.0,0.0,4.0,33.333332,,,,,,,,,,,,,,,,,,,,,,,,,,,,,,,,,,,,,,,,,,,,,,,,,,,,,,,,,,,,,,,,,,,,,,,,,,,,,,,,,,,,
10106,1645652080.2705731,1645652080.309624,0.0,0.0,4328.205078,4660.512695,4210.256348,4280.0,4248.717772999999,450.0,3.0,55.0,,,,0.0,4.0,0.0,4.0,0.0,4.0,33.333332,,,,,,,,0.0,0.0,0.41379499999999997,0.536133,0.233398,-0.697754,0.9668120000000001,-0.11425999999999999,-0.320317,-0.015941999999999998,-0.048606,-0.042393,,,,,,,,,,,,,,,,,,,,,,,,,,,,,,,,,,,0.0,0.0,1.0,0.0,512.0,0.9910260000000001,,,,,,,,,,,,,,,,,,,,,,,,,
10107,1645652080.278388,1645652080.31744,1.0,0.0,4308.205078,4684.615234000001,4205.128418,4282.05127,4227.179688,450.0,3.0,55.0,,,,0.0,4.0,0.0,4.0,0.0,4.0,33.333332,,,,,,,,,,,,,,,,,,,,,,,,,,,,,,,,,,,,,,,,,,,,,,,,,,,,,,,,,,,,,,,,,,,,,,,,,,,,,,,,,,,,
10108,1645652080.286203,1645652080.3252552,2.0,0.0,4320.0,4743.589844,4183.589844,4281.025879,4222.05127,16220.0,3.0,55.0,,,,0.0,4.0,0.0,4.0,0.0,4.0,33.333332,,,,,,,,1.0,0.0,0.41379499999999997,0.536133,0.233398,-0.697754,0.968277,-0.114748,-0.31543499999999997,-0.016691,-0.048677,-0.043818,,,,,,,,,,,,,,,,,,,,,,,,,,,,,,,,,,,,,,,,,,,,,,,,,,,,,,,,,,,,,,,,,
10109,1645652080.294018,1645652080.333071,3.0,0.0,4330.769043,4703.589844,4194.358886999999,4278.461426,4242.05127,450.0,3.0,55.0,,,,0.0,4.0,0.0,4.0,0.0,4.0,33.333332,,,,,,,,,,,,,,,,,,,,,,,,,,,,,,,,,,,,,,,,,,,,,,,,,,,,,,,,,,,,,,,,,,,,,,,,,,,,,,,,,,,,
10110,1645652080.301833,1645652080.340986,4.0,0.0,4303.589844,4594.871582,4204.102539,4278.974121,4244.102539,0.0,3.0,55.0,,,,0.0,4.0,0.0,4.0,0.0,4.0,33.333332,,,,,,,,2.0,0.0,0.41379499999999997,0.536133,0.233398,-0.697754,0.9546040000000001,-0.113283,-0.31787600000000005,-0.017415,-0.048839,-0.038948,1.0,0.0,0.0,,,,,,,,,,,,,,,,,,,,,,,,,,,,,,,,0.0,0.0,1.0,0.0,512.0,1.0,20.203215,8.013457,10.82902,5.343594,12.99206,55.66798000000001,65.005707,49.538765000000005,13.577876999999999,14.436639999999999,5.49792,3.08621,4.548188,6.35522,9.635467,0.120822,0.013978999999999998,0.011895999999999999,0.014816,0.012497,15.981759,3.275936,4.139407,2.705386,4.132982
10111,1645652080.309648,1645652080.348801,5.0,0.0,4260.0,4620.512695,4201.025879,4280.0,4223.077147999999,450.0,3.0,55.0,,,,0.0,4.0,0.0,4.0,0.0,4.0,33.333332,,,,,,,,,,,,,,,,,,,,,,,,,,,,,,,,,,,,,,,,,,,,,,,,,,,,,,,,,,,,,,,,,,,,,,,,,,,,,,,,,,,,
10112,1645652080.317464,1645652080.356617,6.0,0.0,4258.974121,4666.153809,4205.128418,4278.974121,4228.205078,16196.0,3.0,55.0,,,,0.0,4.0,0.0,4.0,0.0,4.0,33.333332,,,,,,,,3.0,0.0,0.41379499999999997,0.536133,0.233398,-0.697754,0.9668120000000001,-0.11425999999999999,-0.320317,-0.015868,-0.048642000000000005,-0.040766000000000004,,,,,,,,,,,,,,,,,,,,,,,,,,,,,,,,,,,,,,,,,,,,,,,,,,,,,,,,,,,,,,,,,
10113,1645652080.325279,1645652080.364532,7.0,0.0,4278.974121,4607.692383,4203.589844,4278.461426,4240.0,450.0,3.0,55.0,,,,0.0,4.0,0.0,4.0,0.0,4.0,33.333332,,,,,,,,,,,,,,,,,,,,,,,,,,,,,,,,,,,,,,,,,,,,,,,,,,,,,,,,,,,,,,,,,,,,,,,,,,,,,,,,,,,,
10114,1645652080.333094,1645652080.372347,8.0,0.0,4288.717772999999,4612.820313,4188.205078,4279.487305,4240.0,450.0,3.0,55.0,,,,0.0,4.0,0.0,4.0,0.0,4.0,33.333332,,,,,,,,4.0,0.0,0.41379499999999997,0.536133,0.233398,-0.697754,0.9546040000000001,-0.113283,-0.31787600000000005,-0.016674,-0.048806999999999996,-0.036201,,,,,,,,,,,,,,,,,,,,,,,,,,,,,,,,,,,0.0,0.0,1.0,0.0,512.0,1.0,,,,,,,,,,,,,,,,,,,,,,,,,
10115,1645652080.340909,1645652080.3801632,9.0,0.0,4285.128418,4618.461426,4200.512695,4280.0,4248.717772999999,0.0,3.0,55.0,,,,0.0,4.0,0.0,4.0,0.0,4.0,33.333332,,,,,,,,,,,,,,,,,,,,,,,,,,,,,,,,,,,,,,,,,,,,,,,,,,,,,,,,,,,,,,,,,,,,,,,,,,,,,,,,,,,,
10116,1645652080.3487241,1645652080.388078,10.0,0.0,4300.0,4564.615234000001,4224.102539,4279.487305,4267.179688,450.0,3.0,55.0,,,,0.0,4.0,0.0,4.0,0.0,4.0,33.333332,,,,,,,,5.0,0.0,0.413657,0.536133,0.233643,-0.697754,0.960952,-0.12255999999999999,-0.316899,-0.017497,-0.048761,-0.032093,,,,,,,,,,,,,,,,,,,,,,,,,,,,,,,,,,,,,,,,,,,,,,,,,,,,,,,,,,,,,,,,,
10117,1645652080.356539,1645652080.3958929,11.0,0.0,4314.358886999999,4612.820313,4211.282227000001,4278.974121,4264.102539,16228.0,3.0,55.0,,,,0.0,4.0,0.0,4.0,0.0,4.0,33.333332,,,,,,,,,,,,,,,,,,,,,,,,,,,,,,,,,,,,,,,,,,,,,,,,,,,,,,,,,,,,,,,,,,,,,,,,,,,,,,,,,,,,
10118,1645652080.364354,1645652080.403709,12.0,0.0,4311.282227000001,4675.897461,4210.256348,4279.487305,4258.974121,450.0,3.0,55.0,,,,0.0,4.0,0.0,4.0,0.0,4.0,33.333332,,,,,,,,6.0,0.0,0.413657,0.536133,0.233643,-0.697754,0.9511860000000001,-0.122072,-0.325689,-0.01648,-0.048719,-0.034548,,,,,,,,,,,,,,,,,,,,,,,,,,,,,,,,,,,0.0,0.0,1.0,0.0,512.0,1.0,,,,,,,,,,,,,,,,,,,,,,,,,
10119,1645652080.37217,1645652080.411524,13.0,0.0,4295.897461,4596.922852000001,4221.538574,4278.461426,4253.333496,450.0,3.0,55.0,,,,0.0,4.0,0.0,4.0,0.0,4.0,33.333332,,,,,,,,,,,,,,,,,,,,,,,,,,,,,,,,,,,,,,,,,,,,,,,,,,,,,,,,,,,,,,,,,,,,,,,,,,,,,,,,,,,,
10120,1645652080.3799849,1645652080.4193392,14.0,0.0,4287.692383,4551.282227000001,4219.487305,4278.974121,4241.025879,450.0,3.0,55.0,,,,0.0,4.0,0.0,4.0,0.0,4.0,33.333332,,,,,,,,7.0,0.0,0.413699,0.5358890000000001,0.233398,-0.697998,0.956558,-0.121584,-0.325689,-0.017322,-0.048681,-0.030605,,,,,,,,,,,,,,,,,,,,,,,,,,,,,,,,,,,,,,,,,,,,,,,,,,,,,,,,,,,,,,,,,
10121,1645652080.3878,1645652080.427155,15.0,0.0,4289.230957,4652.307617,4195.897461,4280.0,4221.538574,16228.0,3.0,55.0,,,,0.0,4.0,0.0,4.0,0.0,4.0,33.333332,,,,,,,,,,,,,,,,,,,,,,,,,,,,,,,,,,,,,,,,,,,,,,,,,,,,,,,,,,,,,,,,,,,,,,,,,,,,,,,,,,,,
10122,1645652080.395615,1645652080.43497,16.0,0.0,4292.820313,4689.743652,4201.538574,4278.974121,4225.641113000001,0.0,3.0,55.0,,,,0.0,4.0,0.0,4.0,0.0,4.0,33.333332,,,,,,,,8.0,0.0,0.413699,0.5358890000000001,0.233398,-0.697998,0.9463030000000001,-0.11572400000000001,-0.32227100000000003,-0.017934000000000002,-0.048549,-0.033306,,,,,,,,,,,,,,,,,,,,,,,,,,,,,,,,,,,0.0,0.0,1.0,0.0,512.0,1.0,,,,,,,,,,,,,,,,,,,,,,,,,
10123,1645652080.40343,1645652080.442885,17.0,0.0,4269.743652,4594.358886999999,4210.769043,4277.94873,4236.410156,0.0,3.0,55.0,,,,0.0,4.0,0.0,4.0,0.0,4.0,33.333332,,,,,,,,,,,,,,,,,,,,,,,,,,,,,,,,,,,,,,,,,,,,,,,,,,,,,,,,,,,,,,,,,,,,,,,,,,,,,,,,,,,,
10124,1645652080.4112449,1645652080.450701,18.0,0.0,4264.615234000001,4573.333496,4215.897461,4278.461426,4231.794922,0.0,3.0,55.0,,,,0.0,4.0,0.0,4.0,0.0,4.0,33.333332,,,,,,,,9.0,0.0,0.413425,0.5358890000000001,0.233154,-0.698242,0.9546040000000001,-0.127443,-0.303716,-0.018581999999999998,-0.048431,-0.029389,,,,,,,,,,,,,,,,,,,,,,,,,,,,,,,,,,,,,,,,,,,,,,,,,,,,,,,,,,,,,,,,,
10125,1645652080.419061,1645652080.458517,19.0,0.0,4307.692383,4674.358886999999,4206.153809,4280.0,4242.05127,0.0,3.0,55.0,,,,0.0,4.0,0.0,4.0,0.0,4.0,33.333332,,,,,,,,,,,,,,,,,,,,,,,,,,,,,,,,,,,,,,,,,,,,,,,,,,,,,,,,,,,,,,,,,,,,,,,,,,,,,,,,,,,,
10126,1645652080.426876,1645652080.466332,20.0,0.0,4314.358886999999,4686.666504,4211.282227000001,4281.025879,4243.589844,0.0,3.0,55.0,,,,0.0,4.0,0.0,4.0,0.0,4.0,33.333332,,,,,,,,10.0,0.0,0.413287,0.5358890000000001,0.233398,-0.698242,0.9673,-0.11035299999999999,-0.326665,-0.01687,-0.048471,-0.032066000000000004,1.0,0.0,0.0,,,,,,,,,,,,,,,,,,,,,,,,,,,,,,,,0.0,0.0,1.0,0.0,512.0,1.0,28.439228000000004,8.992007000000001,11.590774,5.992367,14.120507,53.974316,72.309105,45.23188,14.115704999999998,12.021578,4.283589,2.689141,3.8401389999999997,4.701564,6.156728,0.06639099999999999,0.007955,0.008732,0.013106,0.011921,21.857109,3.442253,4.417261,2.804723,3.658918
10127,1645652080.434691,1645652080.474148,21.0,0.0,4276.922852000001,4565.641113000001,4213.846191,4279.487305,4222.05127,0.0,3.0,55.0,,,,0.0,4.0,0.0,4.0,0.0,4.0,33.333332,,,,,,,,,,,,,,,,,,,,,,,,,,,,,,,,,,,,,,,,,,,,,,,,,,,,,,,,,,,,,,,,,,,,,,,,,,,,,,,,,,,,
10128,1645652080.442506,1645652080.4819632,22.0,0.0,4265.641113000001,4534.871582,4209.743652,4278.461426,4217.94873,0.0,3.0,55.0,,,,0.0,4.0,0.0,4.0,0.0,4.0,33.333332,,,,,,,,11.0,0.0,0.413699,0.5358890000000001,0.233398,-0.697998,0.9589989999999999,-0.1084,-0.320317,-0.017721999999999998,-0.048506,-0.028322000000000003,,,,,,,,,,,,,,,,,,,,,,,,,,,,,,,,,,,,,,,,,,,,,,,,,,,,,,,,,,,,,,,,,
10129,1645652080.4503212,1645652080.489779,23.0,0.0,4280.512695,4638.974121,4206.666504,4279.487305,4242.563965,0.0,3.0,55.0,,,,0.0,4.0,0.0,4.0,0.0,4.0,33.333332,,,,,,,,,,,,,,,,,,,,,,,,,,,,,,,,,,,,,,,,,,,,,,,,,,,,,,,,,,,,,,,,,,,,,,,,,,,,,,,,,,,,
10130,1645652080.4581358,1645652080.4975948,24.0,0.0,4268.205078,4695.897461,4207.692383,4279.487305,4237.436035,0.0,3.0,55.0,,,,0.0,4.0,0.0,4.0,0.0,4.0,33.333332,,,,,,,,12.0,0.0,0.413699,0.5358890000000001,0.233398,-0.697998,0.9677879999999999,-0.116701,-0.321294,-0.018489,-0.048587,-0.031154,,,,,,,,,,,,,,,,,,,,,,,,,,,,,,,,,,,0.0,0.0,1.0,0.0,512.0,1.0,,,,,,,,,,,,,,,,,,,,,,,,,
10131,1645652080.465952,1645652080.50541,25.0,0.0,4268.205078,4639.487305,4209.230957,4278.461426,4228.205078,0.0,3.0,55.0,,,,0.0,4.0,0.0,4.0,0.0,4.0,33.333332,,,,,,,,,,,,,,,,,,,,,,,,,,,,,,,,,,,,,,,,,,,,,,,,,,,,,,,,,,,,,,,,,,,,,,,,,,,,,,,,,,,,
10132,1645652080.473767,1645652080.513226,26.0,0.0,4274.358886999999,4584.615234000001,4201.025879,4278.974121,4236.410156,0.0,3.0,55.0,,,,0.0,4.0,0.0,4.0,0.0,4.0,33.333332,,,,,,,,13.0,0.0,0.413699,0.5358890000000001,0.233398,-0.697998,0.9629049999999999,-0.119631,-0.31543499999999997,-0.016787,-0.048612,-0.033654,,,,,,,,,,,,,,,,,,,,,,,,,,,,,,,,,,,,,,,,,,,,,,,,,,,,,,,,,,,,,,,,,
10133,1645652080.481582,1645652080.521141,27.0,0.0,4262.563965,4605.641113000001,4196.410156,4278.461426,4229.743652,0.0,3.0,55.0,,,,0.0,4.0,0.0,4.0,0.0,4.0,33.333332,,,,,,,,,,,,,,,,,,,,,,,,,,,,,,,,,,,,,,,,,,,,,,,,,,,,,,,,,,,,,,,,,,,,,,,,,,,,,,,,,,,,
10134,1645652080.489397,1645652080.528956,28.0,0.0,4250.769043,4642.563965,4191.282227000001,4277.436035,4209.230957,0.0,3.0,55.0,,,,0.0,4.0,0.0,4.0,0.0,4.0,33.333332,,,,,,,,14.0,0.0,0.413699,0.5358890000000001,0.233398,-0.697998,0.9555809999999999,-0.12695499999999998,-0.306645,-0.015156999999999999,-0.048681999999999996,-0.03605,,,,,,,,,,,,,,,,,,,,,,,,,,,,,,,,,,,0.0,0.0,1.0,0.0,512.0,1.0,,,,,,,,,,,,,,,,,,,,,,,,,
10135,1645652080.497212,1645652080.536772,29.0,0.0,4261.025879,4643.589844,4196.410156,4277.436035,4215.384765999999,0.0,3.0,55.0,,,,0.0,4.0,0.0,4.0,0.0,4.0,33.333332,,,,,,,,,,,,,,,,,,,,,,,,,,,,,,,,,,,,,,,,,,,,,,,,,,,,,,,,,,,,,,,,,,,,,,,,,,,,,,,,,,,,
10136,1645652080.505027,1645652080.544587,30.0,0.0,4277.436035,4652.820313,4194.871582,4278.461426,4220.0,0.0,3.0,55.0,,,,0.0,4.0,0.0,4.0,0.0,4.0,33.333332,,,,,,,,15.0,0.0,0.413562,0.5358890000000001,0.233643,-0.697998,0.9546040000000001,-0.138674,-0.318364,-0.013788,-0.048697000000000004,-0.038207,,,,,,,,,,,,,,,,,,,,,,,,,,,,,,,,,,,,,,,,,,,,,,,,,,,,,,,,,,,,,,,,,
10137,1645652080.512843,1645652080.552403,31.0,0.0,4287.692383,4677.436035,4192.820313,4279.487305,4213.333496,0.0,3.0,55.0,,,,0.0,4.0,0.0,4.0,0.0,4.0,33.333332,,,,,,,,,,,,,,,,,,,,,,,,,,,,,,,,,,,,,,,,,,,,,,,,,,,,,,,,,,,,,,,,,,,,,,,,,,,,,,,,,,,,
10138,1645652080.520658,1645652080.5602179,32.0,0.0,4261.538574,4642.563965,4183.077147999999,4278.461426,4204.102539,0.0,3.0,55.0,,,,0.0,4.0,0.0,4.0,0.0,4.0,33.333332,,,,,,,,16.0,0.0,0.413699,0.5358890000000001,0.233398,-0.697998,0.95021,-0.129885,-0.321294,-0.014899,-0.048661,-0.040246,,,,,,,,,,,,,,,,,,,,,,,,,,,,,,,,,,,0.0,0.0,1.0,0.0,512.0,1.0,,,,,,,,,,,,,,,,,,,,,,,,,
10139,1645652080.5284731,1645652080.568033,33.0,0.0,4236.922852000001,4564.102539,4204.102539,4276.410156,4202.05127,0.0,3.0,55.0,,,,0.0,4.0,0.0,4.0,0.0,4.0,33.333332,,,,,,,,,,,,,,,,,,,,,,,,,,,,,,,,,,,,,,,,,,,,,,,,,,,,,,,,,,,,,,,,,,,,,,,,,,,,,,,,,,,,
10140,1645652080.536288,1645652080.575849,34.0,0.0,4262.563965,4585.128418,4217.436035,4277.94873,4205.128418,0.0,3.0,55.0,,,,0.0,4.0,0.0,4.0,0.0,4.0,33.333332,,,,,,,,17.0,0.0,0.413562,0.5358890000000001,0.233643,-0.697998,0.9633940000000001,-0.11133,-0.31543499999999997,-0.015851,-0.048678,-0.035684,,,,,,,,,,,,,,,,,,,,,,,,,,,,,,,,,,,,,,,,,,,,,,,,,,,,,,,,,,,,,,,,,
10141,1645652080.544103,1645652080.583764,35.0,0.0,4284.615234000001,4679.487305,4208.205078,4280.0,4206.153809,0.0,3.0,55.0,,,,0.0,4.0,0.0,4.0,0.0,4.0,33.333332,,,,,,,,,,,,,,,,,,,,,,,,,,,,,,,,,,,,,,,,,,,,,,,,,,,,,,,,,,,,,,,,,,,,,,,,,,,,,,,,,,,,
10142,1645652080.551918,1645652080.591579,36.0,0.0,4258.974121,4662.563965,4182.563965,4278.974121,4206.153809,0.0,3.0,55.0,,,,0.0,4.0,0.0,4.0,0.0,4.0,33.333332,,,,,,,,18.0,0.0,0.413562,0.5358890000000001,0.233643,-0.697998,0.9463030000000001,-0.112795,-0.32813000000000003,-0.016707,-0.048644,-0.031675999999999996,1.0,0.0,0.0,,,,,,,,,,,,,,,,,,,,,,,,,,,,,,,,0.0,0.0,1.0,0.0,512.0,1.0,34.867084999999996,9.322361,11.163677999999999,6.228648000000001,14.112432,50.407608,76.743576,43.927601,16.588066,10.527556,3.101465,2.3436169999999996,3.24359,3.4847010000000003,3.7496,0.030836000000000002,0.004092,0.0068650000000000004,0.011469,0.010882,27.018511,3.747118,4.424661,2.864544,3.318479
10143,1645652080.5597339,1645652080.599395,37.0,0.0,4241.538574,4621.025879,4186.153809,4278.461426,4201.025879,0.0,3.0,55.0,,,,0.0,4.0,0.0,4.0,0.0,4.0,33.333332,,,,,,,,,,,,,,,,,,,,,,,,,,,,,,,,,,,,,,,,,,,,,,,,,,,,,,,,,,,,,,,,,,,,,,,,,,,,,,,,,,,,
10144,1645652080.567549,1645652080.60731,38.0,0.0,4272.820313,4657.94873,4200.0,4278.461426,4212.307617,0.0,3.0,55.0,,,,0.0,4.0,0.0,4.0,0.0,4.0,33.333332,,,,,,,,19.0,0.0,0.41297,0.536133,0.233398,-0.698242,0.9546040000000001,-0.12695499999999998,-0.31006300000000003,-0.015183000000000002,-0.048712,-0.034222,,,,,,,,,,,,,,,,,,,,,,,,,,,,,,,,,,,,,,,,,,,,,,,,,,,,,,,,,,,,,,,,,
10145,1645652080.575364,1645652080.615125,39.0,0.0,4279.487305,4648.717772999999,4196.922852000001,4278.974121,4229.230957,0.0,3.0,55.0,,,,0.0,4.0,0.0,4.0,0.0,4.0,33.333332,,,,,,,,,,,,,,,,,,,,,,,,,,,,,,,,,,,,,,,,,,,,,,,,,,,,,,,,,,,,,,,,,,,,,,,,,,,,,,,,,,,,
10146,1645652080.583179,1645652080.622941,40.0,0.0,4269.230957,4601.538574,4193.846191,4280.0,4233.846191,0.0,3.0,55.0,,,,0.0,4.0,0.0,4.0,0.0,4.0,33.333332,,,,,,,,20.0,0.0,0.41297,0.536133,0.233398,-0.698242,0.949722,-0.11425999999999999,-0.321294,-0.016106,-0.048723,-0.030262,,,,,,,,,,,,,,,,,,,,,,,,,,,,,,,,,,,0.0,0.0,1.0,0.0,512.0,1.0,,,,,,,,,,,,,,,,,,,,,,,,,
10147,1645652080.590994,1645652080.6307561,41.0,0.0,4268.205078,4639.487305,4198.974121,4279.487305,4221.025879,0.0,3.0,55.0,,,,0.0,4.0,0.0,4.0,0.0,4.0,33.333332,,,,,,,,,,,,,,,,,,,,,,,,,,,,,,,,,,,,,,,,,,,,,,,,,,,,,,,,,,,,,,,,,,,,,,,,,,,,,,,,,,,,
10148,1645652080.598809,1645652080.6386712,42.0,0.0,4258.461426,4655.384765999999,4196.410156,4278.461426,4215.897461,0.0,3.0,55.0,,,,0.0,4.0,0.0,4.0,0.0,4.0,33.333332,,,,,,,,21.0,0.0,0.413287,0.5358890000000001,0.233398,-0.698242,0.957534,-0.11767799999999999,-0.319829,-0.016986,-0.048734,-0.026699,,,,,,,,,,,,,,,,,,,,,,,,,,,,,,,,,,,,,,,,,,,,,,,,,,,,,,,,,,,,,,,,,
10149,1645652080.6066241,1645652080.646586,43.0,0.0,4246.153809,4610.256348,4176.922852000001,4278.974121,4214.871582,0.0,3.0,55.0,,,,0.0,4.0,0.0,4.0,0.0,4.0,33.333332,,,,,,,,,,,,,,,,,,,,,,,,,,,,,,,,,,,,,,,,,,,,,,,,,,,,,,,,,,,,,,,,,,,,,,,,,,,,,,,,,,,,
10150,1645652080.61444,1645652080.654402,44.0,0.0,4267.692383,4693.846191,4175.897461,4278.974121,4212.307617,0.0,3.0,55.0,,,,0.0,4.0,0.0,4.0,0.0,4.0,33.333332,,,,,,,,22.0,0.0,0.413287,0.5358890000000001,0.233398,-0.698242,0.9555809999999999,-0.133303,-0.320806,-0.015385,-0.048694,-0.023492,,,,,,,,,,,,,,,,,,,,,,,,,,,,,,,,,,,0.0,0.0,1.0,0.0,512.0,1.0,,,,,,,,,,,,,,,,,,,,,,,,,
10151,1645652080.622255,1645652080.662217,45.0,0.0,4288.205078,4728.717772999999,4195.897461,4277.94873,4214.871582,0.0,3.0,55.0,,,,0.0,4.0,0.0,4.0,0.0,4.0,33.333332,,,,,,,,,,,,,,,,,,,,,,,,,,,,,,,,,,,,,,,,,,,,,,,,,,,,,,,,,,,,,,,,,,,,,,,,,,,,,,,,,,,,
10152,1645652080.63007,1645652080.670033,46.0,0.0,4281.025879,4557.94873,4219.487305,4278.461426,4234.871582,0.0,3.0,55.0,,,,0.0,4.0,0.0,4.0,0.0,4.0,33.333332,,,,,,,,23.0,0.0,0.413287,0.5358890000000001,0.233398,-0.698242,0.963882,-0.114748,-0.320806,-0.01409,-0.048659,-0.026757999999999997,,,,,,,,,,,,,,,,,,,,,,,,,,,,,,,,,,,,,,,,,,,,,,,,,,,,,,,,,,,,,,,,,
10153,1645652080.6378849,1645652080.677848,47.0,0.0,4251.282227000001,4504.615234000001,4192.307617,4278.974121,4219.487305,0.0,3.0,55.0,,,,0.0,4.0,0.0,4.0,0.0,4.0,33.333332,,,,,,,,,,,,,,,,,,,,,,,,,,,,,,,,,,,,,,,,,,,,,,,,,,,,,,,,,,,,,,,,,,,,,,,,,,,,,,,,,,,,
10154,1645652080.6457,1645652080.685663,48.0,0.0,4241.025879,4671.794922,4178.461426,4280.0,4195.384765999999,0.0,3.0,55.0,,,,0.0,4.0,0.0,4.0,0.0,4.0,33.333332,,,,,,,,24.0,0.0,0.413287,0.5358890000000001,0.233398,-0.698242,0.957534,-0.11767799999999999,-0.319829,-0.01273,-0.048676,-0.029795,,,,,,,,,,,,,,,,,,,,,,,,,,,,,,,,,,,0.0,0.0,1.0,0.0,512.0,1.0,,,,,,,,,,,,,,,,,,,,,,,,,
10155,1645652080.653515,1645652080.6934788,49.0,0.0,4277.94873,4757.94873,4211.282227000001,4280.512695,4225.128418,0.0,3.0,55.0,,,,0.0,4.0,0.0,4.0,0.0,4.0,33.333332,,,,,,,,,,,,,,,,,,,,,,,,,,,,,,,,,,,,,,,,,,,,,,,,,,,,,,,,,,,,,,,,,,,,,,,,,,,,,,,,,,,,
10156,1645652080.661331,1645652080.701294,50.0,0.0,4302.05127,4706.666504,4225.641113000001,4279.487305,4246.666504,0.0,3.0,55.0,,,,0.0,4.0,0.0,4.0,0.0,4.0,33.333332,,,,,,,,25.0,0.0,0.413149,0.5358890000000001,0.233643,-0.698242,0.9580219999999999,-0.113771,-0.311528,-0.013899000000000002,-0.048643,-0.026279000000000004,,,,,,,,,,,,,,,,,,,,,,,,,,,,,,,,,,,,,,,,,,,,,,,,,,,,,,,,,,,,,,,,,
10157,1645652080.669146,1645652080.709109,51.0,0.0,4259.487305,4691.794922,4178.974121,4279.487305,4206.153809,0.0,3.0,55.0,,,,0.0,4.0,0.0,4.0,0.0,4.0,33.333332,,,,,,,,,,,,,,,,,,,,,,,,,,,,,,,,,,,,,,,,,,,,,,,,,,,,,,,,,,,,,,,,,,,,,,,,,,,,,,,,,,,,
10158,1645652080.676961,1645652080.716925,52.0,0.0,4240.0,4652.307617,4190.256348,4278.461426,4191.794922,0.0,3.0,55.0,,,,0.0,4.0,0.0,4.0,0.0,4.0,33.333332,1.0,8.333333,3.0,0.0,1.0,0.0,3.0,26.0,0.0,0.413149,0.5358890000000001,0.233643,-0.698242,0.9580219999999999,-0.123049,-0.320806,-0.015047999999999999,-0.048661,-0.029412999999999998,1.0,0.0,0.0,,,,,,,,,,,,,,,,,,,,,,,,,,,,,,,,0.0,0.0,1.0,0.0,512.0,1.0,37.350365000000004,8.89858,9.803075999999999,5.9629449999999995,12.800314,45.957218,75.931412,44.297592,21.298098,10.102147,2.1976709999999997,2.064117,2.7999240000000003,2.864764,2.546782,0.014280000000000001,0.002369,0.006058,0.010009,0.009674,29.659986,4.035044999999999,4.129329,2.830365,3.0617900000000002
10159,1645652080.684776,1645652080.72484,53.0,0.0,4292.820313,4576.922852000001,4235.897461,4276.410156,4237.436035,0.0,3.0,55.0,,,,0.0,4.0,0.0,4.0,0.0,4.0,33.333332,,,,,,,,,,,,,,,,,,,,,,,,,,,,,,,,,,,,,,,,,,,,,,,,,,,,,,,,,,,,,,,,,,,,,,,,,,,,,,,,,,,,
10160,1645652080.692591,1645652080.732655,54.0,0.0,4306.153809,4606.153809,4230.769043,4277.94873,4238.974121,0.0,3.0,55.0,,,,0.0,4.0,0.0,4.0,0.0,4.0,33.333332,,,,,,,,27.0,0.0,0.41301099999999996,0.5358890000000001,0.23388699999999998,-0.698242,0.947768,-0.12255999999999999,-0.31543499999999997,-0.016033000000000002,-0.04858,-0.026081,,,,,,,,,,,,,,,,,,,,,,,,,,,,,,,,,,,,,,,,,,,,,,,,,,,,,,,,,,,,,,,,,
10161,1645652080.700406,1645652080.7404711,55.0,0.0,4288.205078,4682.563965,4214.358886999999,4280.0,4214.358886999999,0.0,3.0,55.0,,,,0.0,4.0,0.0,4.0,0.0,4.0,33.333332,,,,,,,,,,,,,,,,,,,,,,,,,,,,,,,,,,,,,,,,,,,,,,,,,,,,,,,,,,,,,,,,,,,,,,,,,,,,,,,,,,,,
10162,1645652080.7082222,1645652080.748286,56.0,0.0,4287.179688,4675.897461,4223.077147999999,4278.974121,4214.358886999999,0.0,3.0,55.0,,,,0.0,4.0,0.0,4.0,0.0,4.0,33.333332,,,,,,,,28.0,0.0,0.41301099999999996,0.5358890000000001,0.23388699999999998,-0.698242,0.948257,-0.12060699999999999,-0.32422399999999996,-0.016822999999999998,-0.048556,-0.029381,,,,,,,,,,,,,,,,,,,,,,,,,,,,,,,,,,,0.0,0.0,1.0,0.0,512.0,1.0,,,,,,,,,,,,,,,,,,,,,,,,,
10163,1645652080.7160368,1645652080.756101,57.0,0.0,4276.922852000001,4629.743652,4218.974121,4278.461426,4214.358886999999,0.0,3.0,55.0,,,,0.0,4.0,0.0,4.0,0.0,4.0,33.333332,,,,,,,,,,,,,,,,,,,,,,,,,,,,,,,,,,,,,,,,,,,,,,,,,,,,,,,,,,,,,,,,,,,,,,,,,,,,,,,,,,,,
10164,1645652080.723852,1645652080.763917,58.0,0.0,4258.974121,4657.94873,4203.077147999999,4281.025879,4209.230957,0.0,3.0,55.0,,,,0.0,4.0,0.0,4.0,0.0,4.0,33.333332,,,,,,,,29.0,0.0,0.41287299999999993,0.5358890000000001,0.234131,-0.698242,0.946792,-0.11718900000000002,-0.326177,-0.017582,-0.048632,-0.03196,,,,,,,,,,,,,,,,,,,,,,,,,,,,,,,,,,,,,,,,,,,,,,,,,,,,,,,,,,,,,,,,,
10165,1645652080.731667,1645652080.771732,59.0,0.0,4268.205078,4704.102539,4215.897461,4281.538574,4224.102539,0.0,3.0,55.0,,,,0.0,4.0,0.0,4.0,0.0,4.0,33.333332,,,,,,,,,,,,,,,,,,,,,,,,,,,,,,,,,,,,,,,,,,,,,,,,,,,,,,,,,,,,,,,,,,,,,,,,,,,,,,,,,,,,
10166,1645652080.739482,1645652080.779548,60.0,0.0,4270.256348,4680.512695,4230.256348,4278.461426,4228.717772999999,0.0,3.0,55.0,,,,0.0,4.0,0.0,4.0,0.0,4.0,33.333332,,,,,,,,30.0,0.0,0.41287299999999993,0.5358890000000001,0.234131,-0.698242,0.960464,-0.10254100000000001,-0.319829,-0.018216,-0.048603,-0.034575,,,,,,,,,,,,,,,,,,,,,,,,,,,,,,,,,,,0.0,0.0,1.0,0.0,512.0,1.0,,,,,,,,,,,,,,,,,,,,,,,,,
10167,1645652080.747297,1645652080.787363,61.0,0.0,4279.487305,4676.922852000001,4221.538574,4277.94873,4218.461426,0.0,3.0,55.0,,,,0.0,4.0,0.0,4.0,0.0,4.0,33.333332,,,,,,,,,,,,,,,,,,,,,,,,,,,,,,,,,,,,,,,,,,,,,,,,,,,,,,,,,,,,,,,,,,,,,,,,,,,,,,,,,,,,
10168,1645652080.7551131,1645652080.7952778,62.0,0.0,4296.410156,4715.384765999999,4189.230957,4279.487305,4211.794922,0.0,3.0,55.0,,,,0.0,4.0,0.0,4.0,0.0,4.0,33.333332,,,,,,,,31.0,0.0,0.41287299999999993,0.5358890000000001,0.234131,-0.698242,0.957534,-0.125978,-0.30811,-0.018934,-0.048626,-0.03058,,,,,,,,,,,,,,,,,,,,,,,,,,,,,,,,,,,,,,,,,,,,,,,,,,,,,,,,,,,,,,,,,
10169,1645652080.762928,1645652080.803093,63.0,0.0,4288.717772999999,4694.358886999999,4191.794922,4279.487305,4227.692383,0.0,3.0,55.0,,,,0.0,4.0,0.0,4.0,0.0,4.0,33.333332,,,,,,,,,,,,,,,,,,,,,,,,,,,,,,,,,,,,,,,,,,,,,,,,,,,,,,,,,,,,,,,,,,,,,,,,,,,,,,,,,,,,
10170,1645652080.770743,1645652080.810909,64.0,0.0,4269.743652,4664.102539,4205.641113000001,4278.461426,4235.384765999999,450.0,3.0,55.0,,,,0.0,4.0,0.0,4.0,0.0,4.0,33.333332,,,,,,,,32.0,0.0,0.412734,0.5358890000000001,0.234375,-0.698242,0.948257,-0.120119,-0.31104,-0.019531,-0.048695,-0.033382,,,,,,,,,,,,,,,,,,,,,,,,,,,,,,,,,,,0.0,0.0,1.0,0.0,512.0,1.0,,,,,,,,,,,,,,,,,,,,,,,,,
10171,1645652080.778558,1645652080.818824,65.0,0.0,4270.769043,4685.128418,4205.128418,4280.0,4225.641113000001,450.0,3.0,55.0,,,,0.0,4.0,1.0,4.0,0.0,4.0,41.666668,,,,,,,,,,,,,,,,,,,,,,,,,,,,,,,,,,,,,,,,,,,,,,,,,,,,,,,,,,,,,,,,,,,,,,,,,,,,,,,,,,,,
10172,1645652080.7863731,1645652080.8266392,66.0,0.0,4273.333496,4666.153809,4198.461426,4278.974121,4226.666504,16233.0,3.0,55.0,,,,0.0,4.0,1.0,4.0,0.0,4.0,41.666668,,,,,,,,33.0,0.0,0.41314700000000004,0.5358890000000001,0.234375,-0.697998,0.9589989999999999,-0.11523599999999999,-0.326665,-0.020019,-0.048757,-0.035708,,,,,,,,,,,,,,,,,,,,,,,,,,,,,,,,,,,,,,,,,,,,,,,,,,,,,,,,,,,,,,,,,
10173,1645652080.794188,1645652080.834455,67.0,0.0,4286.666504,4617.94873,4231.282227000001,4277.94873,4250.256348,450.0,3.0,55.0,,,,0.0,4.0,1.0,4.0,0.0,4.0,41.666668,,,,,,,,,,,,,,,,,,,,,,,,,,,,,,,,,,,,,,,,,,,,,,,,,,,,,,,,,,,,,,,,,,,,,,,,,,,,,,,,,,,,
10174,1645652080.8020039,1645652080.84227,68.0,0.0,4304.615234000001,4634.358886999999,4233.333496,4281.025879,4251.794922,79.0,3.0,55.0,,,,0.0,4.0,1.0,4.0,0.0,4.0,41.666668,,,,,,,,34.0,0.0,0.41314700000000004,0.5358890000000001,0.234375,-0.697998,0.953628,-0.1084,-0.31787600000000005,-0.020459,-0.048569,-0.031550999999999996,1.0,0.0,0.0,,,,,,,,,,,,,,,,,,,,,,,,,,,,,,,,0.0,0.0,1.0,0.0,512.0,1.0,35.022785,7.823469,8.091105,5.263182,10.446889,41.015854,68.82058,43.640987,27.430645000000002,10.613553,1.610433,1.8497299999999999,2.4453,2.68086,2.146473,0.009373999999999999,0.0019190000000000001,0.005717,0.008676,0.008612999999999999,28.728088,4.108494,3.5987379999999995,2.6648560000000003,2.794105
10175,1645652080.809819,1645652080.850086,69.0,0.0,4282.05127,4677.436035,4200.0,4281.538574,4209.743652,450.0,3.0,55.0,,,,0.0,4.0,1.0,4.0,0.0,4.0,41.666668,,,,,,,,,,,,,,,,,,,,,,,,,,,,,,,,,,,,,,,,,,,,,,,,,,,,,,,,,,,,,,,,,,,,,,,,,,,,,,,,,,,,
10176,1645652080.8176339,1645652080.8579009,70.0,0.0,4280.512695,4690.769043,4203.589844,4278.461426,4213.846191,16209.0,3.0,55.0,,,,0.0,4.0,1.0,4.0,0.0,4.0,41.666668,,,,,,,,35.0,0.0,0.41314700000000004,0.5358890000000001,0.234375,-0.697998,0.9633940000000001,-0.128908,-0.315923,-0.020805,-0.048546,-0.027859,,,,,,,,,,,,,,,,,,,,,,,,,,,,,,,,,,,,,,,,,,,,,,,,,,,,,,,,,,,,,,,,,
10177,1645652080.825449,1645652080.865816,71.0,0.0,4310.256348,4673.846191,4240.512695,4278.461426,4254.358886999999,450.0,3.0,55.0,,,,0.0,4.0,1.0,4.0,0.0,4.0,41.666668,,,,,,,,,,,,,,,,,,,,,,,,,,,,,,,,,,,,,,,,,,,,,,,,,,,,,,,,,,,,,,,,,,,,,,,,,,,,,,,,,,,,
10178,1645652080.833264,1645652080.873632,72.0,0.0,4300.512695,4647.179688,4230.769043,4280.512695,4238.974121,450.0,3.0,55.0,,,,0.0,4.0,1.0,4.0,0.0,4.0,41.666668,,,,,,,,36.0,0.0,0.41314700000000004,0.5358890000000001,0.234375,-0.697998,0.961929,-0.12842,-0.32910700000000004,-0.01892,-0.048477,-0.030883999999999998,,,,,,,,,,,,,,,,,,,,,,,,,,,,,,,,,,,0.0,0.0,1.0,0.0,512.0,1.0,,,,,,,,,,,,,,,,,,,,,,,,,
10179,1645652080.841079,1645652080.881447,73.0,0.0,4258.461426,4636.922852000001,4198.461426,4279.487305,4193.333496,0.0,3.0,55.0,,,,0.0,4.0,1.0,4.0,0.0,4.0,41.666668,,,,,,,,,,,,,,,,,,,,,,,,,,,,,,,,,,,,,,,,,,,,,,,,,,,,,,,,,,,,,,,,,,,,,,,,,,,,,,,,,,,,
10180,1645652080.848894,1645652080.889262,74.0,0.0,4277.436035,4651.282227000001,4220.0,4278.461426,4220.0,450.0,3.0,55.0,,,,0.0,4.0,1.0,4.0,0.0,4.0,41.666668,,,,,,,,37.0,0.0,0.412734,0.5358890000000001,0.234375,-0.698242,0.961929,-0.11767799999999999,-0.326665,-0.017126,-0.048463,-0.033411,,,,,,,,,,,,,,,,,,,,,,,,,,,,,,,,,,,,,,,,,,,,,,,,,,,,,,,,,,,,,,,,,
10181,1645652080.85671,1645652080.897078,75.0,0.0,4312.820313,4698.974121,4240.512695,4280.0,4262.05127,16217.0,3.0,55.0,,,,0.0,4.0,1.0,4.0,0.0,4.0,41.666668,,,,,,,,,,,,,,,,,,,,,,,,,,,,,,,,,,,,,,,,,,,,,,,,,,,,,,,,,,,,,,,,,,,,,,,,,,,,,,,,,,,,
10182,1645652080.864525,1645652080.904893,76.0,0.0,4298.974121,4662.563965,4228.717772999999,4280.0,4249.743652,450.0,3.0,55.0,,,,0.0,4.0,1.0,4.0,0.0,4.0,41.666668,,,,,,,,38.0,0.0,0.412734,0.5358890000000001,0.234375,-0.698242,0.954116,-0.112795,-0.316899,-0.017757,-0.0485,-0.029532,,,,,,,,,,,,,,,,,,,,,,,,,,,,,,,,,,,0.0,0.0,1.0,0.0,512.0,1.0,,,,,,,,,,,,,,,,,,,,,,,,,
10183,1645652080.87234,1645652080.912708,77.0,0.0,4279.487305,4548.717772999999,4213.333496,4276.922852000001,4225.641113000001,450.0,3.0,55.0,,,,0.0,4.0,1.0,4.0,0.0,4.0,41.666668,,,,,,,,,,,,,,,,,,,,,,,,,,,,,,,,,,,,,,,,,,,,,,,,,,,,,,,,,,,,,,,,,,,,,,,,,,,,,,,,,,,,
10184,1645652080.880155,1645652080.9205241,78.0,0.0,4295.897461,4563.077147999999,4217.94873,4277.436035,4236.410156,450.0,3.0,55.0,,,,0.0,4.0,1.0,4.0,0.0,4.0,41.666668,,,,,,,,39.0,0.0,0.412595,0.5358890000000001,0.234619,-0.698242,0.9677879999999999,-0.12060699999999999,-0.319829,-0.018276,-0.048581,-0.032292,,,,,,,,,,,,,,,,,,,,,,,,,,,,,,,,,,,,,,,,,,,,,,,,,,,,,,,,,,,,,,,,,
10185,1645652080.88797,1645652080.9284391,79.0,0.0,4304.102539,4670.256348,4217.436035,4280.0,4241.538574,16217.0,3.0,55.0,,,,0.0,4.0,1.0,4.0,0.0,4.0,41.666668,,,,,,,,,,,,,,,,,,,,,,,,,,,,,,,,,,,,,,,,,,,,,,,,,,,,,,,,,,,,,,,,,,,,,,,,,,,,,,,,,,,,
10186,1645652080.8957849,1645652080.936254,80.0,0.0,4310.256348,4716.410156,4224.615234000001,4280.0,4238.461426,450.0,3.0,55.0,,,,0.0,4.0,1.0,4.0,0.0,4.0,41.666668,,,,,,,,40.0,0.0,0.412734,0.5358890000000001,0.234375,-0.698242,0.941909,-0.11035299999999999,-0.316411,-0.018792,-0.048509,-0.028526,,,,,,,,,,,,,,,,,,,,,,,,,,,,,,,,,,,0.0,0.0,1.0,0.0,512.0,1.0,,,,,,,,,,,,,,,,,,,,,,,,,
10187,1645652080.903601,1645652080.9440699,81.0,0.0,4316.410156,4748.205078,4209.743652,4279.487305,4231.794922,450.0,3.0,55.0,,,,0.0,4.0,1.0,4.0,0.0,4.0,41.666668,,,,,,,,,,,,,,,,,,,,,,,,,,,,,,,,,,,,,,,,,,,,,,,,,,,,,,,,,,,,,,,,,,,,,,,,,,,,,,,,,,,,
10188,1645652080.911416,1645652080.951885,82.0,0.0,4296.922852000001,4724.615234000001,4200.512695,4278.974121,4223.077147999999,450.0,3.0,55.0,,,,0.0,4.0,1.0,4.0,0.0,4.0,41.666668,,,,,,,,41.0,0.0,0.412595,0.5358890000000001,0.234619,-0.698242,0.9404440000000001,-0.10498199999999999,-0.315923,-0.019355,-0.048492,-0.031289,,,,,,,,,,,,,,,,,,,,,,,,,,,,,,,,,,,,,,,,,,,,,,,,,,,,,,,,,,,,,,,,,
10189,1645652080.919231,1645652080.9597,83.0,0.0,4278.461426,4589.230957,4212.820313,4277.436035,4229.230957,16217.0,3.0,55.0,,,,0.0,4.0,1.0,4.0,0.0,4.0,41.666668,,,,,,,,,,,,,,,,,,,,,,,,,,,,,,,,,,,,,,,,,,,,,,,,,,,,,,,,,,,,,,,,,,,,,,,,,,,,,,,,,,,,
10190,1645652080.927046,1645652080.967516,84.0,0.0,4285.128418,4588.717772999999,4232.820313,4278.461426,4241.538574,450.0,3.0,55.0,,,,0.0,4.0,1.0,4.0,0.0,4.0,41.666668,,,,,,,,42.0,0.0,0.412595,0.5358890000000001,0.234619,-0.698242,0.9589989999999999,-0.10498199999999999,-0.309087,-0.019958,-0.048428,-0.027574,1.0,0.0,0.0,,,,,,,,,,,,,,,,,,,,,,,,,,,,,,,,0.0,0.0,1.0,0.0,512.0,1.0,28.623316,6.389895,6.617238,4.31675,7.676355,35.671921000000005,56.225376000000004,39.705189000000004,33.473312,11.917485000000001,1.269061,1.684179,2.083059,2.632939,2.013601,0.008232999999999999,0.001884,0.005478,0.0074459999999999995,0.007944,24.295984,3.846769,2.9714110000000002,2.367079,2.4672330000000002
10191,1645652080.934861,1645652080.975331,85.0,0.0,4300.512695,4702.05127,4224.102539,4281.025879,4252.820313,450.0,3.0,55.0,,,,0.0,4.0,1.0,4.0,0.0,4.0,41.666668,,,,,,,,,,,,,,,,,,,,,,,,,,,,,,,,,,,,,,,,,,,,,,,,,,,,,,,,,,,,,,,,,,,,,,,,,,,,,,,,,,,,
10192,1645652080.942676,1645652080.9831462,86.0,0.0,4302.05127,4648.205078,4220.512695,4281.025879,4245.641113000001,450.0,3.0,55.0,,,,0.0,4.0,1.0,4.0,0.0,4.0,41.666668,,,,,,,,43.0,0.0,0.412595,0.5358890000000001,0.234619,-0.698242,0.9511860000000001,-0.10693499999999999,-0.318853,-0.020355,-0.048468000000000004,-0.024475,,,,,,,,,,,,,,,,,,,,,,,,,,,,,,,,,,,,,,,,,,,,,,,,,,,,,,,,,,,,,,,,,
10193,1645652080.950491,1645652080.990962,87.0,0.0,4310.256348,4545.128418,4221.025879,4280.512695,4236.922852000001,16217.0,3.0,55.0,,,,0.0,4.0,1.0,4.0,0.0,4.0,41.666668,,,,,,,,,,,,,,,,,,,,,,,,,,,,,,,,,,,,,,,,,,,,,,,,,,,,,,,,,,,,,,,,,,,,,,,,,,,,,,,,,,,,
10194,1645652080.958307,1645652080.998777,88.0,0.0,4301.538574,4594.358886999999,4207.692383,4278.974121,4232.307617,450.0,3.0,55.0,,,,0.0,4.0,1.0,4.0,0.0,4.0,41.666668,,,,,,,,44.0,0.0,0.412595,0.5358890000000001,0.234619,-0.698242,0.9404440000000001,-0.10498199999999999,-0.315923,-0.02081,-0.048455,-0.021440999999999998,,,,,,,,,,,,,,,,,,,,,,,,,,,,,,,,,,,0.0,0.0,1.0,0.0,512.0,1.0,,,,,,,,,,,,,,,,,,,,,,,,,
10195,1645652080.9661222,1645652081.006692,89.0,0.0,4303.077147999999,4651.794922,4210.769043,4278.461426,4240.0,450.0,3.0,55.0,,,,0.0,4.0,1.0,4.0,0.0,4.0,41.666668,,,,,,,,,,,,,,,,,,,,,,,,,,,,,,,,,,,,,,,,,,,,,,,,,,,,,,,,,,,,,,,,,,,,,,,,,,,,,,,,,,,,
10196,1645652080.9739368,1645652081.014508,90.0,0.0,4316.410156,4627.692383,4218.461426,4279.487305,4233.846191,450.0,3.0,55.0,,,,0.0,4.0,1.0,4.0,0.0,4.0,41.666668,,,,,,,,45.0,0.0,0.412595,0.5358890000000001,0.234619,-0.698242,0.9511860000000001,-0.10693499999999999,-0.318853,-0.021121,-0.048493,-0.018955,,,,,,,,,,,,,,,,,,,,,,,,,,,,,,,,,,,,,,,,,,,,,,,,,,,,,,,,,,,,,,,,,
10197,1645652080.981752,1645652081.0223231,91.0,0.0,4310.769043,4619.487305,4218.974121,4279.487305,4230.769043,16217.0,3.0,55.0,,,,0.0,4.0,1.0,4.0,0.0,4.0,41.666668,,,,,,,,,,,,,,,,,,,,,,,,,,,,,,,,,,,,,,,,,,,,,,,,,,,,,,,,,,,,,,,,,,,,,,,,,,,,,,,,,,,,
10198,1645652080.989567,1645652081.030139,92.0,0.0,4291.794922,4614.871582,4228.205078,4278.461426,4255.384765999999,450.0,3.0,55.0,,,,0.0,4.0,1.0,4.0,0.0,4.0,41.666668,,,,,,,,46.0,0.0,0.412499,0.5356449999999999,0.234619,-0.6984859999999999,0.9546040000000001,-0.10547000000000001,-0.31250500000000003,-0.0215,-0.048477,-0.016474000000000003,,,,,,,,,,,,,,,,,,,,,,,,,,,,,,,,,,,0.0,0.0,1.0,0.0,512.0,1.0,,,,,,,,,,,,,,,,,,,,,,,,,
10199,1645652080.997382,1645652081.0379539,93.0,0.0,4304.102539,4630.769043,4235.897461,4278.974121,4267.692383,450.0,3.0,55.0,,,,0.0,4.0,1.0,4.0,0.0,4.0,41.666668,,,,,,,,,,,,,,,,,,,,,,,,,,,,,,,,,,,,,,,,,,,,,,,,,,,,,,,,,,,,,,,,,,,,,,,,,,,,,,,,,,,,
10200,1645652081.005198,1645652081.045769,94.0,0.0,4325.641113000001,4668.717772999999,4210.769043,4278.974121,4234.358886999999,450.0,3.0,55.0,,,,0.0,4.0,1.0,4.0,0.0,4.0,41.666668,,,,,,,,47.0,0.0,0.412499,0.5356449999999999,0.234619,-0.6984859999999999,0.9521629999999999,-0.12451400000000001,-0.314946,-0.021840000000000002,-0.048513,-0.020491,,,,,,,,,,,,,,,,,,,,,,,,,,,,,,,,,,,,,,,,,,,,,,,,,,,,,,,,,,,,,,,,,
10201,1645652081.0130131,1645652081.053585,95.0,0.0,4322.563965,4615.384765999999,4222.05127,4277.94873,4241.025879,16217.0,3.0,55.0,,,,0.0,4.0,1.0,4.0,0.0,4.0,41.666668,,,,,,,,,,,,,,,,,,,,,,,,,,,,,,,,,,,,,,,,,,,,,,,,,,,,,,,,,,,,,,,,,,,,,,,,,,,,,,,,,,,,
10202,1645652081.020828,1645652081.0614,96.0,0.0,4304.615234000001,4534.358886999999,4242.563965,4277.94873,4272.307617,450.0,3.0,55.0,,,,0.0,4.0,1.0,4.0,0.0,4.0,41.666668,,,,,,,,48.0,0.0,0.412499,0.5356449999999999,0.234619,-0.6984859999999999,0.9643700000000001,-0.11084200000000001,-0.32813000000000003,-0.022195,-0.048544,-0.018002,,,,,,,,,,,,,,,,,,,,,,,,,,,,,,,,,,,0.0,0.0,1.0,0.0,512.0,1.0,,,,,,,,,,,,,,,,,,,,,,,,,
10203,1645652081.028643,1645652081.069215,97.0,0.0,4305.128418,4595.897461,4230.769043,4279.487305,4251.794922,450.0,3.0,55.0,,,,0.0,4.0,1.0,4.0,0.0,4.0,41.666668,,,,,,,,,,,,,,,,,,,,,,,,,,,,,,,,,,,,,,,,,,,,,,,,,,,,,,,,,,,,,,,,,,,,,,,,,,,,,,,,,,,,
10204,1645652081.036458,1645652081.077131,98.0,0.0,4317.94873,4668.717772999999,4210.769043,4279.487305,4221.025879,450.0,3.0,55.0,,,,0.0,4.0,1.0,4.0,0.0,4.0,41.666668,,,,,,,,49.0,0.0,0.412499,0.5356449999999999,0.234619,-0.6984859999999999,0.961929,-0.12695499999999998,-0.314946,-0.020122,-0.048475,-0.021817,,,,,,,,,,,,,,,,,,,,,,,,,,,,,,,,,,,,,,,,,,,,,,,,,,,,,,,,,,,,,,,,,
10205,1645652081.0442731,1645652081.0849462,99.0,0.0,4323.077147999999,4619.487305,4237.94873,4278.974121,4249.230957,16217.0,3.0,55.0,,,,0.0,4.0,1.0,4.0,0.0,4.0,41.666668,,,,,,,,,,,,,,,,,,,,,,,,,,,,,,,,,,,,,,,,,,,,,,,,,,,,,,,,,,,,,,,,,,,,,,,,,,,,,,,,,,,,
10206,1645652081.052088,1645652081.092761,100.0,0.0,4316.922852000001,4584.102539,4252.820313,4278.974121,4281.025879,450.0,3.0,55.0,,,,0.0,4.0,1.0,4.0,0.0,4.0,41.666668,,,,,,,,50.0,0.0,0.412499,0.5356449999999999,0.234619,-0.6984859999999999,0.949722,-0.111818,-0.31104,-0.018256,-0.048462,-0.019244999999999998,1.0,0.0,0.0,,,,,,,,,,,,,,,,,,,,,,,,,,,,,,,,0.0,0.0,1.0,0.0,512.0,1.0,20.203306,4.946438,5.716005,3.364865,5.220078,29.642303000000002,41.186863,32.537338,37.921673,13.919048000000002,1.09141,1.5400639999999999,1.6723599999999998,2.504988,1.8508950000000002,0.007127,0.002045,0.005476,0.006416,0.007792,17.811932000000002,3.288443,2.3923240000000003,1.987682,2.126311
10207,1645652081.0599039,1645652081.1005769,101.0,0.0,4308.205078,4617.436035,4249.743652,4279.487305,4258.461426,450.0,3.0,55.0,,,,0.0,4.0,1.0,4.0,0.0,4.0,41.666668,,,,,,,,,,,,,,,,,,,,,,,,,,,,,,,,,,,,,,,,,,,,,,,,,,,,,,,,,,,,,,,,,,,,,,,,,,,,,,,,,,,,
10208,1645652081.067719,1645652081.108392,102.0,0.0,4313.846191,4666.666504,4226.153809,4279.487305,4241.025879,450.0,3.0,55.0,,,,0.0,4.0,1.0,4.0,0.0,4.0,41.666668,,,,,,,,51.0,0.0,0.412499,0.5356449999999999,0.234619,-0.6984859999999999,0.95314,-0.11523599999999999,-0.321294,-0.016528,-0.048401,-0.022984,,,,,,,,,,,,,,,,,,,,,,,,,,,,,,,,,,,,,,,,,,,,,,,,,,,,,,,,,,,,,,,,,
10209,1645652081.0755339,1645652081.1162071,103.0,0.0,4317.436035,4667.692383,4212.307617,4278.974121,4250.769043,16217.0,3.0,55.0,,,,0.0,4.0,1.0,4.0,0.0,4.0,41.666668,,,,,,,,,,,,,,,,,,,,,,,,,,,,,,,,,,,,,,,,,,,,,,,,,,,,,,,,,,,,,,,,,,,,,,,,,,,,,,,,,,,,
10210,1645652081.083349,1645652081.124023,104.0,0.0,4317.436035,4587.692383,4232.820313,4280.0,4258.461426,450.0,3.0,55.0,,,,0.0,4.0,1.0,4.0,0.0,4.0,41.666668,,,,,,,,52.0,0.0,0.412182,0.5358890000000001,0.234619,-0.6984859999999999,0.964858,-0.11767799999999999,-0.3252,-0.014924000000000002,-0.048443,-0.026300999999999998,,,,,,,,,,,,,,,,,,,,,,,,,,,,,,,,,,,0.0,0.0,1.0,0.0,512.0,1.0,,,,,,,,,,,,,,,,,,,,,,,,,
10211,1645652081.091164,1645652081.131838,105.0,0.0,4289.743652,4561.538574,4228.205078,4280.0,4221.025879,450.0,3.0,55.0,,,,0.0,4.0,1.0,4.0,0.0,4.0,41.666668,,,,,,,,,,,,,,,,,,,,,,,,,,,,,,,,,,,,,,,,,,,,,,,,,,,,,,,,,,,,,,,,,,,,,,,,,,,,,,,,,,,,
10212,1645652081.098979,1645652081.139653,106.0,0.0,4258.461426,4629.743652,4194.871582,4277.94873,4192.307617,450.0,3.0,55.0,,,,0.0,4.0,1.0,4.0,0.0,4.0,41.666668,,,,,,,,53.0,0.0,0.412499,0.5356449999999999,0.234619,-0.6984859999999999,0.957046,-0.11572400000000001,-0.309087,-0.015776,-0.048531,-0.029335000000000003,,,,,,,,,,,,,,,,,,,,,,,,,,,,,,,,,,,,,,,,,,,,,,,,,,,,,,,,,,,,,,,,,
10213,1645652081.1067939,1645652081.147469,107.0,0.0,4273.846191,4626.153809,4206.153809,4278.974121,4229.743652,16217.0,3.0,55.0,,,,0.0,4.0,1.0,4.0,0.0,4.0,41.666668,,,,,,,,,,,,,,,,,,,,,,,,,,,,,,,,,,,,,,,,,,,,,,,,,,,,,,,,,,,,,,,,,,,,,,,,,,,,,,,,,,,,
10214,1645652081.11461,1645652081.155384,108.0,0.0,4333.846191,4593.333496,4260.0,4281.025879,4287.692383,450.0,3.0,55.0,,,,0.0,4.0,1.0,4.0,0.0,4.0,41.666668,,,,,,,,54.0,0.0,0.412499,0.5356449999999999,0.234619,-0.6984859999999999,0.952651,-0.13086099999999998,-0.32227100000000003,-0.016590999999999998,-0.048561,-0.032066000000000004,,,,,,,,,,,,,,,,,,,,,,,,,,,,,,,,,,,0.0,0.0,1.0,0.0,512.0,1.0,,,,,,,,,,,,,,,,,,,,,,,,,
10215,1645652081.122425,1645652081.163199,109.0,0.0,4350.256348,4656.410156,4257.436035,4279.487305,4277.436035,450.0,3.0,55.0,,,,0.0,4.0,1.0,4.0,0.0,4.0,41.666668,,,,,,,,,,,,,,,,,,,,,,,,,,,,,,,,,,,,,,,,,,,,,,,,,,,,,,,,,,,,,,,,,,,,,,,,,,,,,,,,,,,,
10216,1645652081.13024,1645652081.171015,110.0,0.0,4320.0,4652.820313,4238.461426,4277.436035,4244.102539,450.0,3.0,55.0,,,,0.0,4.0,1.0,4.0,0.0,4.0,41.666668,,,,,,,,55.0,0.0,0.412499,0.5356449999999999,0.234619,-0.6984859999999999,0.960464,-0.10547000000000001,-0.3252,-0.015028999999999999,-0.048587,-0.028322000000000003,,,,,,,,,,,,,,,,,,,,,,,,,,,,,,,,,,,,,,,,,,,,,,,,,,,,,,,,,,,,,,,,,
10217,1645652081.138055,1645652081.1788301,111.0,0.0,4303.589844,4565.128418,4238.974121,4278.461426,4247.179688,16217.0,3.0,55.0,,,,0.0,4.0,1.0,4.0,0.0,4.0,41.666668,,,,,,,,,,,,,,,,,,,,,,,,,,,,,,,,,,,,,,,,,,,,,,,,,,,,,,,,,,,,,,,,,,,,,,,,,,,,,,,,,,,,
10218,1645652081.14587,1645652081.186646,112.0,0.0,4298.461426,4560.0,4240.0,4280.0,4254.358886999999,450.0,3.0,55.0,,,,0.0,4.0,1.0,4.0,0.0,4.0,41.666668,,,,,,,,56.0,0.0,0.412499,0.5356449999999999,0.234619,-0.6984859999999999,0.960464,-0.12549000000000002,-0.318853,-0.015919,-0.048514,-0.031202999999999998,,,,,,,,,,,,,,,,,,,,,,,,,,,,,,,,,,,0.0,0.0,1.0,0.0,512.0,1.0,,,,,,,,,,,,,,,,,,,,,,,,,
10219,1645652081.1536849,1645652081.1944609,113.0,0.0,4274.871582,4633.333496,4211.794922,4280.0,4228.205078,450.0,3.0,55.0,,,,0.0,4.0,1.0,4.0,0.0,4.0,41.666668,,,,,,,,,,,,,,,,,,,,,,,,,,,,,,,,,,,,,,,,,,,,,,,,,,,,,,,,,,,,,,,,,,,,,,,,,,,,,,,,,,,,
10220,1645652081.161501,1645652081.202276,114.0,0.0,4277.436035,4712.307617,4202.563965,4279.487305,4216.410156,450.0,3.0,55.0,,,,0.0,4.0,1.0,4.0,0.0,4.0,41.666668,,,,,,,,57.0,0.0,0.411946,0.5356449999999999,0.23486300000000002,-0.6987300000000001,0.946792,-0.11133,-0.322759,-0.016817,-0.048448000000000005,-0.033796,,,,,,,,,,,,,,,,,,,,,,,,,,,,,,,,,,,,,,,,,,,,,,,,,,,,,,,,,,,,,,,,,
10221,1645652081.169316,1645652081.210092,115.0,0.0,4314.871582,4716.922852000001,4211.282227000001,4280.0,4234.871582,16217.0,3.0,55.0,,,,0.0,4.0,1.0,4.0,0.0,4.0,41.666668,,,,,,,,,,,,,,,,,,,,,,,,,,,,,,,,,,,,,,,,,,,,,,,,,,,,,,,,,,,,,,,,,,,,,,,,,,,,,,,,,,,,
10222,1645652081.177131,1645652081.217907,116.0,0.0,4340.512695,4656.410156,4228.205078,4280.0,4254.871582,450.0,3.0,55.0,,,,0.0,4.0,1.0,4.0,0.0,4.0,41.666668,1.0,25.0,3.0,0.0,4.0,0.0,4.0,58.0,0.0,0.412264,0.5354,0.23486300000000002,-0.6987300000000001,0.937514,-0.1084,-0.31104,-0.017478999999999998,-0.048535,-0.029879000000000003,1.0,0.0,0.0,1.0,0.593899,0.932529,-0.446949,1.939673,1.0,0.196535,3.7572449999999997,1.593759,11.165196,0.239105,1.0,0.36332,-0.1321,-0.278935,0.094586,1.0,0.303002,0.179754,-0.674307,1.894756,1.0,0.476444,1.8577740000000003,-90.519738,101.342748,1.0,0.450083,0.596061,0.498468,0.7053050000000001,0.0,0.0,1.0,0.0,512.0,1.0,12.145959,3.730603,5.335537,2.609252,3.589611,23.179987,27.622952,24.111773,39.947601,16.412976999999998,1.047112,1.418593,1.264471,2.2654650000000003,1.665907,0.0060609999999999995,0.002345,0.005903,0.005854,0.008145999999999999,11.153416,2.607434,1.9501549999999999,1.606668,1.8707049999999998
10223,1645652081.184946,1645652081.225722,117.0,0.0,4329.230957,4648.717772999999,4228.717772999999,4278.461426,4266.666504,450.0,3.0,55.0,,,,0.0,4.0,1.0,4.0,0.0,4.0,41.666668,,,,,,,,,,,,,,,,,,,,,,,,,,,,,,,,,,,,,,,,,,,,,,,,,,,,,,,,,,,,,,,,,,,,,,,,,,,,,,,,,,,,
10224,1645652081.192761,1645652081.233638,118.0,0.0,4299.487305,4661.538574,4230.769043,4277.436035,4257.436035,450.0,3.0,55.0,,,,0.0,4.0,1.0,4.0,0.0,4.0,41.666668,,,,,,,,59.0,0.0,0.412264,0.5354,0.23486300000000002,-0.6987300000000001,0.9546040000000001,-0.107424,-0.31787600000000005,-0.018222,-0.048563999999999996,-0.026402999999999996,,,,,,,,,,,,,,,,,,,,,,,,,,,,,,,,,,,,,,,,,,,,,,,,,,,,,,,,,,,,,,,,,
10225,1645652081.200576,1645652081.241453,119.0,0.0,4310.769043,4632.307617,4235.384765999999,4278.461426,4262.563965,16217.0,3.0,55.0,,,,0.0,4.0,1.0,4.0,0.0,4.0,41.666668,,,,,,,,,,,,,,,,,,,,,,,,,,,,,,,,,,,,,,,,,,,,,,,,,,,,,,,,,,,,,,,,,,,,,,,,,,,,,,,,,,,,
10226,1645652081.208392,1645652081.249268,120.0,0.0,4340.512695,4620.0,4245.641113000001,4278.974121,4288.205078,450.0,3.0,55.0,,,,0.0,4.0,1.0,4.0,0.0,4.0,41.666668,,,,,,,,60.0,0.0,0.412538,0.5354,0.235107,-0.6984859999999999,0.9633940000000001,-0.113283,-0.321294,-0.01889,-0.048493,-0.029427,,,,,,,,,,,,,,,,,,,,,,,,,,,,,,,,,,,0.0,0.0,1.0,0.0,512.0,1.0,,,,,,,,,,,,,,,,,,,,,,,,,
10227,1645652081.216207,1645652081.257084,121.0,0.0,4353.333496,4622.05127,4261.025879,4278.461426,4301.025879,450.0,3.0,55.0,,,,0.0,4.0,1.0,4.0,0.0,4.0,41.666668,,,,,,,,,,,,,,,,,,,,,,,,,,,,,,,,,,,,,,,,,,,,,,,,,,,,,,,,,,,,,,,,,,,,,,,,,,,,,,,,,,,,
10228,1645652081.2240222,1645652081.264899,122.0,0.0,4328.717772999999,4592.820313,4247.692383,4280.0,4269.743652,450.0,3.0,55.0,,,,0.0,4.0,1.0,4.0,0.0,4.0,41.666668,,,,,,,,61.0,0.0,0.412538,0.5354,0.235107,-0.6984859999999999,0.9580219999999999,-0.114748,-0.323247,-0.017099,-0.048527,-0.025947,,,,,,,,,,,,,,,,,,,,,,,,,,,,,,,,,,,,,,,,,,,,,,,,,,,,,,,,,,,,,,,,,
10229,1645652081.2318368,1645652081.2727141,123.0,0.0,4292.307617,4608.717772999999,4207.692383,4280.0,4225.641113000001,16217.0,3.0,55.0,,,,0.0,4.0,1.0,4.0,0.0,4.0,41.666668,,,,,,,,,,,,,,,,,,,,,,,,,,,,,,,,,,,,,,,,,,,,,,,,,,,,,,,,,,,,,,,,,,,,,,,,,,,,,,,,,,,,
10230,1645652081.239652,1645652081.28053,124.0,0.0,4283.077147999999,4686.666504,4189.743652,4278.461426,4220.512695,450.0,3.0,55.0,,,,0.0,4.0,1.0,4.0,0.0,4.0,41.666668,,,,,,,,62.0,0.0,0.412538,0.5354,0.235107,-0.6984859999999999,0.949233,-0.11572400000000001,-0.323735,-0.015535,-0.048458999999999995,-0.029113999999999998,,,,,,,,,,,,,,,,,,,,,,,,,,,,,,,,,,,0.0,0.0,1.0,0.0,512.0,1.0,,,,,,,,,,,,,,,,,,,,,,,,,
10231,1645652081.247467,1645652081.2883449,125.0,0.0,4323.077147999999,4711.794922,4229.743652,4279.487305,4266.153809,450.0,3.0,55.0,,,,0.0,4.0,1.0,4.0,0.0,4.0,41.666668,,,,,,,,,,,,,,,,,,,,,,,,,,,,,,,,,,,,,,,,,,,,,,,,,,,,,,,,,,,,,,,,,,,,,,,,,,,,,,,,,,,,
10232,1645652081.255283,1645652081.296161,126.0,0.0,4345.641113000001,4635.897461,4246.666504,4280.0,4283.077147999999,450.0,3.0,55.0,,,,0.0,4.0,1.0,4.0,0.0,4.0,41.666668,,,,,,,,63.0,0.0,0.412221,0.5356449999999999,0.235107,-0.6984859999999999,0.949233,-0.120119,-0.319341,-0.016472,-0.048447000000000004,-0.025713999999999997,,,,,,,,,,,,,,,,,,,,,,,,,,,,,,,,,,,,,,,,,,,,,,,,,,,,,,,,,,,,,,,,,
10233,1645652081.263098,1645652081.304076,127.0,0.0,4325.641113000001,4567.179688,4232.307617,4278.461426,4263.077147999999,234.0,3.0,55.0,,,,0.0,4.0,0.0,4.0,0.0,4.0,33.333332,,,,,,,,,,,,,,,,,,,,,,,,,,,,,,,,,,,,,,,,,,,,,,,,,,,,,,,,,,,,,,,,,,,,,,,,,,,,,,,,,,,,
10234,1645652081.2709131,1645652081.311891,0.0,0.0,4326.666504,4608.205078,4222.05127,4279.487305,4252.820313,450.0,3.0,55.0,,,,0.0,4.0,0.0,4.0,0.0,4.0,33.333332,,,,,,,,0.0,0.0,0.41263500000000003,0.5356449999999999,0.235107,-0.698242,0.959976,-0.123049,-0.314946,-0.014922,-0.048485,-0.028905,,,,,,,,,,,,,,,,,,,,,,,,,,,,,,,,,,,0.0,0.0,1.0,0.0,512.0,1.0,,,,,,,,,,,,,,,,,,,,,,,,,
10235,1645652081.278728,1645652081.319706,1.0,0.0,4344.615234000001,4672.307617,4241.538574,4280.512695,4256.922852000001,450.0,3.0,55.0,,,,0.0,4.0,0.0,4.0,0.0,4.0,33.333332,,,,,,,,,,,,,,,,,,,,,,,,,,,,,,,,,,,,,,,,,,,,,,,,,,,,,,,,,,,,,,,,,,,,,,,,,,,,,,,,,,,,
10236,1645652081.286543,1645652081.327522,2.0,0.0,4330.769043,4641.538574,4242.563965,4278.974121,4255.384765999999,16217.0,3.0,55.0,,,,0.0,4.0,0.0,4.0,0.0,4.0,33.333332,,,,,,,,1.0,0.0,0.41263500000000003,0.5356449999999999,0.235107,-0.698242,0.9555809999999999,-0.11718900000000002,-0.33105999999999997,-0.01592,-0.048471,-0.031776,,,,,,,,,,,,,,,,,,,,,,,,,,,,,,,,,,,,,,,,,,,,,,,,,,,,,,,,,,,,,,,,,
10237,1645652081.294358,1645652081.335337,3.0,0.0,4298.974121,4585.641113000001,4225.128418,4277.94873,4247.692383,450.0,3.0,55.0,,,,0.0,4.0,0.0,4.0,0.0,4.0,33.333332,,,,,,,,,,,,,,,,,,,,,,,,,,,,,,,,,,,,,,,,,,,,,,,,,,,,,,,,,,,,,,,,,,,,,,,,,,,,,,,,,,,,
10238,1645652081.302174,1645652081.343153,4.0,0.0,4276.922852000001,4633.333496,4192.820313,4278.461426,4238.461426,0.0,3.0,55.0,,,,0.0,4.0,0.0,4.0,0.0,4.0,33.333332,,,,,,,,2.0,0.0,0.412495,0.5356449999999999,0.235352,-0.698242,0.9404440000000001,-0.101076,-0.327642,-0.016867,-0.048507,-0.034214,1.0,0.0,0.0,,,,,,,,,,,,,,,,,,,,,,,,,,,,,,,,0.0,0.0,1.0,0.0,512.0,1.0,6.17155,2.824376,5.145129,2.143239,2.8489720000000003,17.127010000000002,18.107916,17.116154,39.548621999999995,18.996879999999997,1.1158059999999999,1.313466,0.9477709999999999,1.967407,1.557874,0.005407,0.002834,0.00675,0.005959000000000001,0.008812,5.987759,2.016936,1.655906,1.291432,1.7793459999999999
10239,1645652081.309989,1645652081.350968,5.0,0.0,4291.794922,4709.743652,4196.410156,4278.974121,4238.461426,450.0,3.0,55.0,,,,0.0,4.0,0.0,4.0,0.0,4.0,33.333332,,,,,,,,,,,,,,,,,,,,,,,,,,,,,,,,,,,,,,,,,,,,,,,,,,,,,,,,,,,,,,,,,,,,,,,,,,,,,,,,,,,,
10240,1645652081.3178039,1645652081.358783,6.0,0.0,4334.871582,4668.205078,4208.205078,4279.487305,4250.769043,16208.0,3.0,55.0,,,,0.0,4.0,0.0,4.0,0.0,4.0,33.333332,,,,,,,,3.0,0.0,0.41208199999999995,0.5356449999999999,0.235352,-0.6984859999999999,0.9511860000000001,-0.10547000000000001,-0.31396999999999997,-0.017622,-0.048441000000000005,-0.030255,,,,,,,,,,,,,,,,,,,,,,,,,,,,,,,,,,,,,,,,,,,,,,,,,,,,,,,,,,,,,,,,,
10241,1645652081.325619,1645652081.366699,7.0,0.0,4317.436035,4599.487305,4188.205078,4278.461426,4235.897461,450.0,3.0,55.0,,,,0.0,4.0,0.0,4.0,0.0,4.0,33.333332,,,,,,,,,,,,,,,,,,,,,,,,,,,,,,,,,,,,,,,,,,,,,,,,,,,,,,,,,,,,,,,,,,,,,,,,,,,,,,,,,,,,
10242,1645652081.3334339,1645652081.374514,8.0,0.0,4285.641113000001,4615.897461,4185.641113000001,4277.94873,4228.205078,450.0,3.0,55.0,,,,0.0,4.0,0.0,4.0,0.0,4.0,33.333332,,,,,,,,4.0,0.0,0.41194200000000003,0.5356449999999999,0.235596,-0.6984859999999999,0.9594870000000001,-0.107912,-0.3252,-0.015909,-0.04848,-0.032992,,,,,,,,,,,,,,,,,,,,,,,,,,,,,,,,,,,0.0,0.0,1.0,0.0,512.0,1.0,,,,,,,,,,,,,,,,,,,,,,,,,
10243,1645652081.341249,1645652081.382329,9.0,0.0,4314.358886999999,4647.692383,4237.94873,4280.0,4258.461426,0.0,3.0,55.0,,,,0.0,4.0,0.0,4.0,0.0,4.0,33.333332,,,,,,,,,,,,,,,,,,,,,,,,,,,,,,,,,,,,,,,,,,,,,,,,,,,,,,,,,,,,,,,,,,,,,,,,,,,,,,,,,,,,
10244,1645652081.349064,1645652081.3901448,10.0,0.0,4349.743652,4636.922852000001,4267.179688,4280.0,4296.410156,450.0,3.0,55.0,,,,0.0,4.0,0.0,4.0,0.0,4.0,33.333332,,,,,,,,5.0,0.0,0.41239899999999996,0.5354,0.235352,-0.6984859999999999,0.9580219999999999,-0.10547000000000001,-0.310552,-0.016759,-0.048661,-0.035503,,,,,,,,,,,,,,,,,,,,,,,,,,,,,,,,,,,,,,,,,,,,,,,,,,,,,,,,,,,,,,,,,
10245,1645652081.3568802,1645652081.3980598,11.0,0.0,4322.563965,4623.589844,4228.205078,4278.461426,4288.717772999999,16213.0,3.0,55.0,,,,0.0,4.0,0.0,4.0,0.0,4.0,33.333332,,,,,,,,,,,,,,,,,,,,,,,,,,,,,,,,,,,,,,,,,,,,,,,,,,,,,,,,,,,,,,,,,,,,,,,,,,,,,,,,,,,,
10246,1645652081.3646948,1645652081.405875,12.0,0.0,4299.487305,4631.282227000001,4198.461426,4278.461426,4253.333496,450.0,3.0,55.0,,,,0.0,4.0,0.0,4.0,0.0,4.0,33.333332,,,,,,,,6.0,0.0,0.41239899999999996,0.5354,0.235352,-0.6984859999999999,0.953628,-0.119631,-0.323247,-0.017476,-0.048532,-0.031464,,,,,,,,,,,,,,,,,,,,,,,,,,,,,,,,,,,0.0,0.0,1.0,0.0,512.0,1.0,,,,,,,,,,,,,,,,,,,,,,,,,
10247,1645652081.37251,1645652081.413691,13.0,0.0,4298.974121,4622.05127,4196.410156,4279.487305,4230.256348,450.0,3.0,55.0,,,,0.0,4.0,0.0,4.0,0.0,4.0,33.333332,,,,,,,,,,,,,,,,,,,,,,,,,,,,,,,,,,,,,,,,,,,,,,,,,,,,,,,,,,,,,,,,,,,,,,,,,,,,,,,,,,,,
10248,1645652081.380325,1645652081.4215062,14.0,0.0,4305.128418,4569.743652,4220.512695,4280.0,4248.717772999999,450.0,3.0,55.0,,,,0.0,4.0,0.0,4.0,0.0,4.0,33.333332,,,,,,,,7.0,0.0,0.41194200000000003,0.5356449999999999,0.235596,-0.6984859999999999,0.9633940000000001,-0.11133,-0.30811,-0.015826,-0.048415,-0.027683,,,,,,,,,,,,,,,,,,,,,,,,,,,,,,,,,,,,,,,,,,,,,,,,,,,,,,,,,,,,,,,,,
10249,1645652081.38814,1645652081.429321,15.0,0.0,4309.743652,4586.153809,4225.641113000001,4278.974121,4262.563965,16213.0,3.0,55.0,,,,0.0,4.0,0.0,4.0,0.0,4.0,33.333332,,,,,,,,,,,,,,,,,,,,,,,,,,,,,,,,,,,,,,,,,,,,,,,,,,,,,,,,,,,,,,,,,,,,,,,,,,,,,,,,,,,,
10250,1645652081.395955,1645652081.437237,16.0,0.0,4313.846191,4675.897461,4223.589844,4279.487305,4262.563965,0.0,3.0,55.0,,,,0.0,4.0,0.0,4.0,0.0,4.0,33.333332,,,,,,,,8.0,0.0,0.41239899999999996,0.5354,0.235352,-0.6984859999999999,0.9580219999999999,-0.10547000000000001,-0.310552,-0.016685,-0.048603,-0.030726,,,,,,,,,,,,,,,,,,,,,,,,,,,,,,,,,,,0.0,0.0,1.0,0.0,512.0,1.0,,,,,,,,,,,,,,,,,,,,,,,,,
10251,1645652081.4037712,1645652081.445052,17.0,0.0,4327.179688,4654.871582,4220.0,4280.512695,4264.102539,0.0,3.0,55.0,,,,0.0,4.0,0.0,4.0,0.0,4.0,33.333332,,,,,,,,,,,,,,,,,,,,,,,,,,,,,,,,,,,,,,,,,,,,,,,,,,,,,,,,,,,,,,,,,,,,,,,,,,,,,,,,,,,,
10252,1645652081.411586,1645652081.452867,18.0,0.0,4332.820313,4565.641113000001,4235.897461,4279.487305,4280.512695,0.0,3.0,55.0,,,,0.0,4.0,0.0,4.0,0.0,4.0,33.333332,,,,,,,,9.0,0.0,0.41194200000000003,0.5356449999999999,0.235596,-0.6984859999999999,0.9633940000000001,-0.11133,-0.30811,-0.015113999999999999,-0.048479,-0.027018,,,,,,,,,,,,,,,,,,,,,,,,,,,,,,,,,,,,,,,,,,,,,,,,,,,,,,,,,,,,,,,,,
10253,1645652081.419401,1645652081.460683,19.0,0.0,4318.461426,4599.487305,4243.077147999999,4278.974121,4301.538574,0.0,3.0,55.0,,,,0.0,4.0,0.0,4.0,0.0,4.0,33.333332,,,,,,,,,,,,,,,,,,,,,,,,,,,,,,,,,,,,,,,,,,,,,,,,,,,,,,,,,,,,,,,,,,,,,,,,,,,,,,,,,,,,
10254,1645652081.427216,1645652081.468498,20.0,0.0,4325.641113000001,4680.0,4245.128418,4280.512695,4289.230957,0.0,3.0,55.0,,,,0.0,4.0,0.0,4.0,0.0,4.0,33.333332,,,,,,,,10.0,0.0,0.41194200000000003,0.5356449999999999,0.235596,-0.6984859999999999,0.9555809999999999,-0.11084200000000001,-0.320317,-0.016044,-0.048465,-0.023778999999999998,1.0,0.0,0.0,,,,,,,,,,,,,,,,,,,,,,,,,,,,,,,,0.0,0.0,1.0,0.0,512.0,1.0,2.751211,2.194255,4.869754,1.960922,2.692247,12.39912,13.359464000000001,13.427501999999999,37.300209,21.163902,1.252689,1.2169940000000001,0.846717,1.6727310000000002,1.586055,0.005189,0.0035479999999999995,0.007783,0.006692,0.009509,2.910326,1.6461080000000001,1.5641770000000002,1.088769,1.87745
10255,1645652081.435031,1645652081.476313,21.0,0.0,4343.077147999999,4683.077147999999,4225.641113000001,4280.512695,4255.384765999999,0.0,3.0,55.0,,,,0.0,4.0,0.0,4.0,0.0,4.0,33.333332,,,,,,,,,,,,,,,,,,,,,,,,,,,,,,,,,,,,,,,,,,,,,,,,,,,,,,,,,,,,,,,,,,,,,,,,,,,,,,,,,,,,
10256,1645652081.442846,1645652081.484129,22.0,0.0,4318.974121,4648.205078,4221.538574,4278.461426,4246.666504,0.0,3.0,55.0,,,,0.0,4.0,0.0,4.0,0.0,4.0,33.333332,,,,,,,,11.0,0.0,0.41226,0.5354,0.235596,-0.6984859999999999,0.959976,-0.112795,-0.321294,-0.016735,-0.048501,-0.027017000000000003,,,,,,,,,,,,,,,,,,,,,,,,,,,,,,,,,,,,,,,,,,,,,,,,,,,,,,,,,,,,,,,,,
10257,1645652081.450662,1645652081.4919438,23.0,0.0,4323.589844,4585.641113000001,4249.230957,4278.974121,4286.153809,0.0,3.0,55.0,,,,0.0,4.0,0.0,4.0,0.0,4.0,33.333332,,,,,,,,,,,,,,,,,,,,,,,,,,,,,,,,,,,,,,,,,,,,,,,,,,,,,,,,,,,,,,,,,,,,,,,,,,,,,,,,,,,,
10258,1645652081.458477,1645652081.499759,24.0,0.0,4343.589844,4540.512695,4251.794922,4280.512695,4295.897461,0.0,3.0,55.0,,,,0.0,4.0,0.0,4.0,0.0,4.0,33.333332,,,,,,,,12.0,0.0,0.41226,0.5354,0.235596,-0.6984859999999999,0.9663229999999999,-0.10498199999999999,-0.323735,-0.017551,-0.048534,-0.02368,,,,,,,,,,,,,,,,,,,,,,,,,,,,,,,,,,,0.0,0.0,1.0,0.0,512.0,1.0,,,,,,,,,,,,,,,,,,,,,,,,,
10259,1645652081.466292,1645652081.507575,25.0,0.0,4323.589844,4617.94873,4218.461426,4280.512695,4264.102539,0.0,3.0,55.0,,,,0.0,4.0,0.0,4.0,0.0,4.0,33.333332,,,,,,,,,,,,,,,,,,,,,,,,,,,,,,,,,,,,,,,,,,,,,,,,,,,,,,,,,,,,,,,,,,,,,,,,,,,,,,,,,,,,
10260,1645652081.474107,1645652081.51549,26.0,0.0,4306.666504,4719.487305,4206.153809,4279.487305,4249.230957,0.0,3.0,55.0,,,,0.0,4.0,0.0,4.0,0.0,4.0,33.333332,,,,,,,,13.0,0.0,0.41226,0.5354,0.235596,-0.6984859999999999,0.945815,-0.114748,-0.31104,-0.016578,-0.048466,-0.026976,,,,,,,,,,,,,,,,,,,,,,,,,,,,,,,,,,,,,,,,,,,,,,,,,,,,,,,,,,,,,,,,,
10261,1645652081.4819221,1645652081.5233052,27.0,0.0,4335.384765999999,4721.025879,4223.077147999999,4278.461426,4277.94873,0.0,3.0,55.0,,,,0.0,4.0,0.0,4.0,0.0,4.0,33.333332,,,,,,,,,,,,,,,,,,,,,,,,,,,,,,,,,,,,,,,,,,,,,,,,,,,,,,,,,,,,,,,,,,,,,,,,,,,,,,,,,,,,
10262,1645652081.4897368,1645652081.531121,28.0,0.0,4344.102539,4696.410156,4214.871582,4279.487305,4292.820313,0.0,3.0,55.0,,,,0.0,4.0,0.0,4.0,0.0,4.0,33.333332,,,,,,,,14.0,0.0,0.41226,0.5354,0.235596,-0.6984859999999999,0.944839,-0.10009900000000001,-0.314458,-0.015016999999999999,-0.048307,-0.029943,,,,,,,,,,,,,,,,,,,,,,,,,,,,,,,,,,,0.0,0.0,1.0,0.0,512.0,1.0,,,,,,,,,,,,,,,,,,,,,,,,,
10263,1645652081.4975529,1645652081.538936,29.0,0.0,4334.871582,4723.077147999999,4211.794922,4281.025879,4273.846191,0.0,3.0,55.0,,,,0.0,4.0,0.0,4.0,0.0,4.0,33.333332,,,,,,,,,,,,,,,,,,,,,,,,,,,,,,,,,,,,,,,,,,,,,,,,,,,,,,,,,,,,,,,,,,,,,,,,,,,,,,,,,,,,
10264,1645652081.505368,1645652081.546752,30.0,0.0,4339.487305,4735.897461,4228.717772999999,4280.0,4278.974121,0.0,3.0,55.0,,,,0.0,4.0,0.0,4.0,0.0,4.0,33.333332,,,,,,,,15.0,0.0,0.41194200000000003,0.5356449999999999,0.235596,-0.6984859999999999,0.952651,-0.107912,-0.324712,-0.016006,-0.048457,-0.032758999999999996,,,,,,,,,,,,,,,,,,,,,,,,,,,,,,,,,,,,,,,,,,,,,,,,,,,,,,,,,,,,,,,,,
10265,1645652081.513183,1645652081.554567,31.0,0.0,4347.692383,4696.922852000001,4251.794922,4279.487305,4320.512695,0.0,3.0,55.0,,,,0.0,4.0,0.0,4.0,0.0,4.0,33.333332,,,,,,,,,,,,,,,,,,,,,,,,,,,,,,,,,,,,,,,,,,,,,,,,,,,,,,,,,,,,,,,,,,,,,,,,,,,,,,,,,,,,
10266,1645652081.520998,1645652081.562382,32.0,0.0,4349.230957,4709.743652,4243.077147999999,4278.974121,4320.0,0.0,3.0,55.0,,,,0.0,4.0,0.0,4.0,0.0,4.0,33.333332,,,,,,,,16.0,0.0,0.411803,0.5356449999999999,0.23584000000000002,-0.6984859999999999,0.959976,-0.10547000000000001,-0.333013,-0.016896,-0.048592,-0.028849,,,,,,,,,,,,,,,,,,,,,,,,,,,,,,,,,,,0.0,0.0,1.0,0.0,512.0,1.0,,,,,,,,,,,,,,,,,,,,,,,,,
10267,1645652081.5288131,1645652081.570198,33.0,0.0,4337.94873,4705.641113000001,4232.307617,4277.94873,4295.384765999999,0.0,3.0,55.0,,,,0.0,4.0,0.0,4.0,0.0,4.0,33.333332,,,,,,,,,,,,,,,,,,,,,,,,,,,,,,,,,,,,,,,,,,,,,,,,,,,,,,,,,,,,,,,,,,,,,,,,,,,,,,,,,,,,
10268,1645652081.536628,1645652081.5780132,34.0,0.0,4325.641113000001,4641.538574,4218.461426,4277.94873,4285.641113000001,0.0,3.0,55.0,,,,0.0,4.0,0.0,4.0,0.0,4.0,33.333332,,,,,,,,17.0,0.0,0.411803,0.5356449999999999,0.23584000000000002,-0.6984859999999999,0.949722,-0.11718900000000002,-0.322759,-0.017599,-0.048469,-0.031677,,,,,,,,,,,,,,,,,,,,,,,,,,,,,,,,,,,,,,,,,,,,,,,,,,,,,,,,,,,,,,,,,
10269,1645652081.544443,1645652081.585928,35.0,0.0,4328.717772999999,4679.487305,4220.512695,4279.487305,4285.128418,0.0,3.0,55.0,,,,0.0,4.0,0.0,4.0,0.0,4.0,33.333332,,,,,,,,,,,,,,,,,,,,,,,,,,,,,,,,,,,,,,,,,,,,,,,,,,,,,,,,,,,,,,,,,,,,,,,,,,,,,,,,,,,,
10270,1645652081.552259,1645652081.593744,36.0,0.0,4326.666504,4750.769043,4225.641113000001,4278.974121,4284.102539,0.0,3.0,55.0,,,,0.0,4.0,0.0,4.0,0.0,4.0,33.333332,,,,,,,,18.0,0.0,0.41212,0.5354,0.23584000000000002,-0.6984859999999999,0.948257,-0.113283,-0.31787600000000005,-0.018328999999999998,-0.048603,-0.034319999999999996,1.0,0.0,0.0,,,,,,,,,,,,,,,,,,,,,,,,,,,,,,,,0.0,0.0,1.0,0.0,512.0,1.0,1.306254,1.7565990000000002,4.503430000000001,2.0417080000000003,2.743188,9.517747,12.353375,13.409979000000002,33.986015,22.485007999999997,1.415952,1.1391799999999999,1.115302,1.43545,1.743811,0.0052450000000000005,0.004422,0.008641,0.007801000000000001,0.01001,1.608235,1.472756,1.802658,1.0353370000000002,2.136156
10271,1645652081.560074,1645652081.601559,37.0,0.0,4317.94873,4677.94873,4236.410156,4276.922852000001,4277.94873,0.0,3.0,55.0,,,,0.0,4.0,0.0,4.0,0.0,4.0,33.333332,,,,,,,,,,,,,,,,,,,,,,,,,,,,,,,,,,,,,,,,,,,,,,,,,,,,,,,,,,,,,,,,,,,,,,,,,,,,,,,,,,,,
10272,1645652081.567889,1645652081.609374,38.0,0.0,4329.743652,4608.717772999999,4232.307617,4277.94873,4278.461426,0.0,3.0,55.0,,,,0.0,4.0,0.0,4.0,0.0,4.0,33.333332,,,,,,,,19.0,0.0,0.41212,0.5354,0.23584000000000002,-0.6984859999999999,0.949233,-0.11035299999999999,-0.319341,-0.016594,-0.048625,-0.036601,,,,,,,,,,,,,,,,,,,,,,,,,,,,,,,,,,,,,,,,,,,,,,,,,,,,,,,,,,,,,,,,,
10273,1645652081.5757039,1645652081.6171901,39.0,0.0,4321.538574,4680.0,4218.461426,4280.0,4263.589844,0.0,3.0,55.0,,,,0.0,4.0,0.0,4.0,0.0,4.0,33.333332,,,,,,,,,,,,,,,,,,,,,,,,,,,,,,,,,,,,,,,,,,,,,,,,,,,,,,,,,,,,,,,,,,,,,,,,,,,,,,,,,,,,
10274,1645652081.583519,1645652081.625005,40.0,0.0,4312.307617,4747.692383,4204.102539,4278.974121,4250.256348,0.0,3.0,55.0,,,,0.0,4.0,0.0,4.0,0.0,4.0,33.333332,,,,,,,,20.0,0.0,0.41226,0.5354,0.235596,-0.6984859999999999,0.9594870000000001,-0.12842,-0.319829,-0.017474,-0.048597,-0.032306,,,,,,,,,,,,,,,,,,,,,,,,,,,,,,,,,,,0.0,0.0,1.0,0.0,512.0,1.0,,,,,,,,,,,,,,,,,,,,,,,,,
10275,1645652081.5913339,1645652081.63282,41.0,0.0,4327.692383,4760.0,4218.461426,4278.461426,4262.563965,0.0,3.0,55.0,,,,0.0,4.0,0.0,4.0,0.0,4.0,33.333332,,,,,,,,,,,,,,,,,,,,,,,,,,,,,,,,,,,,,,,,,,,,,,,,,,,,,,,,,,,,,,,,,,,,,,,,,,,,,,,,,,,,
10276,1645652081.59915,1645652081.640636,42.0,0.0,4348.717772999999,4734.358886999999,4246.666504,4279.487305,4290.769043,0.0,3.0,55.0,,,,0.0,4.0,0.0,4.0,0.0,4.0,33.333332,,,,,,,,21.0,0.0,0.41226,0.5354,0.235596,-0.6984859999999999,0.9472799999999999,-0.10888800000000001,-0.316899,-0.018168,-0.048522,-0.028538,,,,,,,,,,,,,,,,,,,,,,,,,,,,,,,,,,,,,,,,,,,,,,,,,,,,,,,,,,,,,,,,,
10277,1645652081.606965,1645652081.648451,43.0,0.0,4341.025879,4651.794922,4224.615234000001,4280.512695,4280.0,0.0,3.0,55.0,,,,0.0,4.0,0.0,4.0,0.0,4.0,33.333332,,,,,,,,,,,,,,,,,,,,,,,,,,,,,,,,,,,,,,,,,,,,,,,,,,,,,,,,,,,,,,,,,,,,,,,,,,,,,,,,,,,,
10278,1645652081.6147802,1645652081.656366,44.0,0.0,4325.128418,4603.589844,4203.589844,4280.0,4261.538574,0.0,3.0,55.0,,,,0.0,4.0,0.0,4.0,0.0,4.0,33.333332,,,,,,,,22.0,0.0,0.41226,0.5354,0.235596,-0.6984859999999999,0.954116,-0.119631,-0.319341,-0.016449000000000002,-0.048602,-0.031348,,,,,,,,,,,,,,,,,,,,,,,,,,,,,,,,,,,0.0,0.0,1.0,0.0,512.0,1.0,,,,,,,,,,,,,,,,,,,,,,,,,
10279,1645652081.6225948,1645652081.664182,45.0,0.0,4313.846191,4630.769043,4224.615234000001,4279.487305,4270.256348,0.0,3.0,55.0,,,,0.0,4.0,0.0,4.0,0.0,4.0,33.333332,,,,,,,,,,,,,,,,,,,,,,,,,,,,,,,,,,,,,,,,,,,,,,,,,,,,,,,,,,,,,,,,,,,,,,,,,,,,,,,,,,,,
10280,1645652081.63041,1645652081.671997,46.0,0.0,4329.743652,4678.461426,4255.384765999999,4279.487305,4289.743652,0.0,3.0,55.0,,,,0.0,4.0,0.0,4.0,0.0,4.0,33.333332,,,,,,,,23.0,0.0,0.41226,0.5354,0.235596,-0.6984859999999999,0.9677879999999999,-0.11718900000000002,-0.316411,-0.014853,-0.048576,-0.033927,,,,,,,,,,,,,,,,,,,,,,,,,,,,,,,,,,,,,,,,,,,,,,,,,,,,,,,,,,,,,,,,,
10281,1645652081.638225,1645652081.679812,47.0,0.0,4330.769043,4673.846191,4243.589844,4278.974121,4294.871582,0.0,3.0,55.0,,,,0.0,4.0,0.0,4.0,0.0,4.0,33.333332,,,,,,,,,,,,,,,,,,,,,,,,,,,,,,,,,,,,,,,,,,,,,,,,,,,,,,,,,,,,,,,,,,,,,,,,,,,,,,,,,,,,
10282,1645652081.646041,1645652081.687628,48.0,0.0,4300.0,4604.102539,4229.743652,4278.461426,4275.897461,0.0,3.0,55.0,,,,0.0,4.0,0.0,4.0,0.0,4.0,33.333332,,,,,,,,24.0,0.0,0.41212,0.5354,0.23584000000000002,-0.6984859999999999,0.9511860000000001,-0.113771,-0.3252,-0.015711000000000003,-0.048699,-0.029997000000000003,,,,,,,,,,,,,,,,,,,,,,,,,,,,,,,,,,,0.0,0.0,1.0,0.0,512.0,1.0,,,,,,,,,,,,,,,,,,,,,,,,,
10283,1645652081.653856,1645652081.695443,49.0,0.0,4311.794922,4584.615234000001,4231.282227000001,4280.0,4263.589844,0.0,3.0,55.0,,,,0.0,4.0,0.0,4.0,0.0,4.0,33.333332,,,,,,,,,,,,,,,,,,,,,,,,,,,,,,,,,,,,,,,,,,,,,,,,,,,,,,,,,,,,,,,,,,,,,,,,,,,,,,,,,,,,
10284,1645652081.6616712,1645652081.703358,50.0,0.0,4355.897461,4646.666504,4252.307617,4280.512695,4293.846191,0.0,3.0,55.0,,,,0.0,4.0,0.0,4.0,0.0,4.0,33.333332,,,,,,,,25.0,0.0,0.41212,0.5354,0.23584000000000002,-0.6984859999999999,0.957046,-0.116701,-0.323735,-0.016434999999999998,-0.048614,-0.02646,,,,,,,,,,,,,,,,,,,,,,,,,,,,,,,,,,,,,,,,,,,,,,,,,,,,,,,,,,,,,,,,,
10285,1645652081.669486,1645652081.711174,51.0,0.0,4357.436035,4682.05127,4251.794922,4280.0,4312.307617,0.0,3.0,55.0,,,,0.0,4.0,0.0,4.0,0.0,4.0,33.333332,,,,,,,,,,,,,,,,,,,,,,,,,,,,,,,,,,,,,,,,,,,,,,,,,,,,,,,,,,,,,,,,,,,,,,,,,,,,,,,,,,,,
10286,1645652081.677301,1645652081.7189891,52.0,0.0,4345.128418,4659.487305,4243.077147999999,4280.0,4298.461426,0.0,3.0,55.0,,,,0.0,4.0,0.0,4.0,0.0,4.0,33.333332,1.0,33.333332,4.0,0.0,4.0,0.0,4.0,26.0,0.0,0.41194200000000003,0.5356449999999999,0.235596,-0.6984859999999999,0.960464,-0.114748,-0.30811,-0.017331,-0.048489,-0.029477999999999997,1.0,0.0,0.0,,,,,,,,,,,,,,,,,,,,,,,,,,,,,,,,0.0,0.0,1.0,0.0,512.0,1.0,0.915927,1.39721,4.277403,2.3481009999999998,2.7934959999999998,8.088984,13.190201,15.996870000000001,30.230877000000003,22.830965,1.570962,1.1058649999999999,1.8799720000000002,1.291252,1.9730310000000002,0.005274,0.005265,0.008916,0.008909,0.01023,1.302465,1.404172,2.5119029999999998,1.139721,2.492101
10287,1645652081.685116,1645652081.726805,53.0,0.0,4352.820313,4646.666504,4230.769043,4281.025879,4296.410156,0.0,3.0,55.0,,,,0.0,4.0,0.0,4.0,0.0,4.0,33.333332,,,,,,,,,,,,,,,,,,,,,,,,,,,,,,,,,,,,,,,,,,,,,,,,,,,,,,,,,,,,,,,,,,,,,,,,,,,,,,,,,,,,
10288,1645652081.6929321,1645652081.7346199,54.0,0.0,4353.846191,4680.512695,4228.205078,4280.512695,4301.025879,0.0,3.0,55.0,,,,0.0,4.0,0.0,4.0,0.0,4.0,33.333332,,,,,,,,27.0,0.0,0.41221599999999997,0.5356449999999999,0.23584000000000002,-0.698242,0.9546040000000001,-0.12060699999999999,-0.31006300000000003,-0.015694999999999997,-0.048474,-0.032243,,,,,,,,,,,,,,,,,,,,,,,,,,,,,,,,,,,,,,,,,,,,,,,,,,,,,,,,,,,,,,,,,
10289,1645652081.700747,1645652081.742435,55.0,0.0,4358.974121,4696.410156,4230.256348,4280.0,4297.436035,0.0,3.0,55.0,,,,0.0,4.0,0.0,4.0,0.0,4.0,33.333332,,,,,,,,,,,,,,,,,,,,,,,,,,,,,,,,,,,,,,,,,,,,,,,,,,,,,,,,,,,,,,,,,,,,,,,,,,,,,,,,,,,,
10290,1645652081.708562,1645652081.750251,56.0,0.0,4358.974121,4720.512695,4229.743652,4281.538574,4284.102539,0.0,3.0,55.0,,,,0.0,4.0,0.0,4.0,0.0,4.0,33.333332,,,,,,,,28.0,0.0,0.41221599999999997,0.5356449999999999,0.23584000000000002,-0.698242,0.9511860000000001,-0.10254100000000001,-0.320806,-0.016518,-0.048461000000000004,-0.028482,,,,,,,,,,,,,,,,,,,,,,,,,,,,,,,,,,,0.0,0.0,1.0,0.0,512.0,1.0,,,,,,,,,,,,,,,,,,,,,,,,,
10291,1645652081.716377,1645652081.758066,57.0,0.0,4348.205078,4768.205078,4221.538574,4281.538574,4285.128418,0.0,3.0,55.0,,,,0.0,4.0,0.0,4.0,0.0,4.0,33.333332,,,,,,,,,,,,,,,,,,,,,,,,,,,,,,,,,,,,,,,,,,,,,,,,,,,,,,,,,,,,,,,,,,,,,,,,,,,,,,,,,,,,
10292,1645652081.724192,1645652081.765881,58.0,0.0,4324.615234000001,4699.487305,4217.436035,4280.512695,4282.563965,0.0,3.0,55.0,,,,0.0,4.0,0.0,4.0,0.0,4.0,33.333332,,,,,,,,29.0,0.0,0.41212,0.5354,0.23584000000000002,-0.6984859999999999,0.953628,-0.11230599999999999,-0.317388,-0.017259,-0.048351,-0.025097,,,,,,,,,,,,,,,,,,,,,,,,,,,,,,,,,,,,,,,,,,,,,,,,,,,,,,,,,,,,,,,,,
10293,1645652081.732007,1645652081.7736971,59.0,0.0,4320.512695,4609.743652,4235.897461,4280.512695,4286.153809,0.0,3.0,55.0,,,,0.0,4.0,0.0,4.0,0.0,4.0,33.333332,,,,,,,,,,,,,,,,,,,,,,,,,,,,,,,,,,,,,,,,,,,,,,,,,,,,,,,,,,,,,,,,,,,,,,,,,,,,,,,,,,,,
10294,1645652081.739823,1645652081.781612,60.0,0.0,4322.05127,4702.05127,4224.615234000001,4280.512695,4276.922852000001,0.0,3.0,55.0,,,,0.0,4.0,0.0,4.0,0.0,4.0,33.333332,,,,,,,,30.0,0.0,0.41212,0.5354,0.23584000000000002,-0.6984859999999999,0.9521629999999999,-0.11035299999999999,-0.316899,-0.015728,-0.048399,-0.0283,,,,,,,,,,,,,,,,,,,,,,,,,,,,,,,,,,,0.0,0.0,1.0,0.0,512.0,1.0,,,,,,,,,,,,,,,,,,,,,,,,,
10295,1645652081.747638,1645652081.789427,61.0,0.0,4324.615234000001,4731.794922,4207.692383,4277.94873,4266.666504,0.0,3.0,55.0,,,,0.0,4.0,0.0,4.0,0.0,4.0,33.333332,,,,,,,,,,,,,,,,,,,,,,,,,,,,,,,,,,,,,,,,,,,,,,,,,,,,,,,,,,,,,,,,,,,,,,,,,,,,,,,,,,,,
