,Timestamp,OriginalTimestamp,EEG.Counter,EEG.Interpolated,EEG.AF3,EEG.T7,EEG.Pz,EEG.T8,EEG.AF4,EEG.RawCq,EEG.Battery,EEG.BatteryPercent,MarkerIndex,MarkerType,MarkerValueInt,EEG.MarkerHardware,CQ.AF3,CQ.T7,CQ.Pz,CQ.T8,CQ.AF4,CQ.Overall,EQ.SampleRateQuality,EQ.OVERALL,EQ.AF3,EQ.T7,EQ.Pz,EQ.T8,EQ.AF4,MOT.CounterMems,MOT.InterpolatedMems,MOT.Q0,MOT.Q1,MOT.Q2,MOT.Q3,MOT.AccX,MOT.AccY,MOT.AccZ,MOT.MagX,MOT.MagY,MOT.MagZ,MC.Action,MC.ActionPower,MC.IsActive,PM.Engagement.IsActive,PM.Engagement.Scaled,PM.Engagement.Raw,PM.Engagement.Min,PM.Engagement.Max,PM.Excitement.IsActive,PM.Excitement.Scaled,PM.Excitement.Raw,PM.Excitement.Min,PM.Excitement.Max,PM.LongTermExcitement,PM.Stress.IsActive,PM.Stress.Scaled,PM.Stress.Raw,PM.Stress.Min,PM.Stress.Max,PM.Relaxation.IsActive,PM.Relaxation.Scaled,PM.Relaxation.Raw,PM.Relaxation.Min,PM.Relaxation.Max,PM.Interest.IsActive,PM.Interest.Scaled,PM.Interest.Raw,PM.Interest.Min,PM.Interest.Max,PM.Focus.IsActive,PM.Focus.Scaled,PM.Focus.Raw,PM.Focus.Min,PM.Focus.Max,FE.BlinkWink,FE.HorizontalEyesDirection,FE.UpperFaceAction,FE.UpperFaceActionPower,FE.LowerFaceAction,FE.LowerFaceActionPower,POW.AF3.Theta,POW.AF3.Alpha,POW.AF3.BetaL,POW.AF3.BetaH,POW.AF3.Gamma,POW.T7.Theta,POW.T7.Alpha,POW.T7.BetaL,POW.T7.BetaH,POW.T7.Gamma,POW.Pz.Theta,POW.Pz.Alpha,POW.Pz.BetaL,POW.Pz.BetaH,POW.Pz.Gamma,POW.T8.Theta,POW.T8.Alpha,POW.T8.BetaL,POW.T8.BetaH,POW.T8.Gamma,POW.AF4.Theta,POW.AF4.Alpha,POW.AF4.BetaL,POW.AF4.BetaH,POW.AF4.Gamma
10269,1650407647.029901,1650407647.033397,107.0,0.0,4328.205078,4542.05127,4256.922852000001,4277.436035,4286.666504,16173.0,4.0,86.0,,,,0.0,4.0,0.0,0.0,0.0,4.0,0.0,,,,,,,,,,,,,,,,,,,,,,,,,,,,,,,,,,,,,,,,,,,,,,,,,,,,,,,,,,,,,,,,,,,,,,,,,,,,,,,,,,,,
10270,1650407647.037716,1650407647.041211,108.0,0.0,4331.282227000001,4540.0,4182.05127,4279.487305,4286.666504,450.0,4.0,86.0,,,,0.0,4.0,0.0,0.0,0.0,4.0,0.0,,,,,,,,54.0,0.0,0.25664499999999996,-0.428467,0.5466310000000001,0.6721189999999999,0.8589,-0.532235,-0.042481,-0.033954000000000005,-0.037667,-0.026643,,,,,,,,,,,,,,,,,,,,,,,,,,,,,,,,,,,,,,,,,,,,,,,,,,,,,,,,,,,,,,,,,
10271,1650407647.04553,1650407647.0489259,109.0,0.0,4334.871582,4530.769043,4147.692383,4278.974121,4294.358886999999,450.0,4.0,86.0,,,,0.0,4.0,0.0,0.0,0.0,4.0,0.0,,,,,,,,,,,,,,,,,,,,,,,,,,,,,,,,,,,,,,,,,,,,,,,,,,,,,,,,,,,,,,,,,,,,,,,,,,,,,,,,,,,,
10272,1650407647.053345,1650407647.056741,110.0,0.0,4340.0,4597.94873,4181.538574,4278.974121,4324.102539,450.0,4.0,86.0,,,,0.0,4.0,0.0,0.0,0.0,4.0,0.0,,,,,,,,55.0,0.0,0.257284,-0.428467,0.5466310000000001,0.671875,0.8584120000000001,-0.529305,-0.030274000000000002,-0.034172,-0.037758,-0.023832,,,,,,,,,,,,,,,,,,,,,,,,,,,,,,,,,,,0.0,0.0,1.0,0.0,512.0,0.9608780000000001,,,,,,,,,,,,,,,,,,,,,,,,,
10273,1650407647.061159,1650407647.064456,111.0,0.0,4329.230957,4572.307617,4181.538574,4281.025879,4315.384765999999,16173.0,4.0,86.0,,,,0.0,4.0,0.0,0.0,0.0,4.0,0.0,,,,,,,,,,,,,,,,,,,,,,,,,,,,,,,,,,,,,,,,,,,,,,,,,,,,,,,,,,,,,,,,,,,,,,,,,,,,,,,,,,,,
10274,1650407647.068974,1650407647.07227,112.0,0.0,4326.153809,4445.128418,4193.846191,4284.102539,4297.436035,450.0,4.0,86.0,,,,0.0,4.0,0.0,0.0,0.0,4.0,0.0,,,,,,,,56.0,0.0,0.257284,-0.428467,0.5466310000000001,0.671875,0.866224,-0.5180739999999999,-0.040527999999999995,-0.034172,-0.037888,-0.027504,,,,,,,,,,,,,,,,,,,,,,,,,,,,,,,,,,,,,,,,,,,,,,,,,,,,,,,,,,,,,,,,,
10275,1650407647.0767891,1650407647.079985,113.0,0.0,4343.589844,4414.871582,4214.358886999999,4283.077147999999,4302.563965,450.0,4.0,86.0,,,,0.0,4.0,0.0,0.0,0.0,4.0,0.0,,,,,,,,,,,,,,,,,,,,,,,,,,,,,,,,,,,,,,,,,,,,,,,,,,,,,,,,,,,,,,,,,,,,,,,,,,,,,,,,,,,,
10276,1650407647.0846028,1650407647.0878,114.0,0.0,4350.769043,4424.615234000001,4238.461426,4276.922852000001,4298.974121,450.0,4.0,86.0,,,,0.0,4.0,0.0,0.0,0.0,4.0,0.0,,,,,,,,57.0,0.0,0.257284,-0.428467,0.5466310000000001,0.671875,0.8593879999999999,-0.517098,-0.032715,-0.034173,-0.037908,-0.024607,,,,,,,,,,,,,,,,,,,,,,,,,,,,,,,,,,,0.0,0.0,1.0,0.0,512.0,0.9608780000000001,,,,,,,,,,,,,,,,,,,,,,,,,
10277,1650407647.092418,1650407647.095514,115.0,0.0,4353.333496,4445.128418,4207.692383,4280.0,4304.615234000001,16173.0,4.0,86.0,,,,0.0,4.0,0.0,0.0,0.0,4.0,0.0,,,,,,,,,,,,,,,,,,,,,,,,,,,,,,,,,,,,,,,,,,,,,,,,,,,,,,,,,,,,,,,,,,,,,,,,,,,,,,,,,,,,
10278,1650407647.1002321,1650407647.103329,116.0,0.0,4323.077147999999,4561.025879,4258.461426,4280.0,4289.230957,450.0,4.0,86.0,,,,0.0,4.0,0.0,0.0,0.0,4.0,0.0,,,,,,,,58.0,0.0,0.25792,-0.428467,0.5466310000000001,0.6716310000000001,0.8603649999999999,-0.500496,-0.028321,-0.034026999999999995,-0.037975,-0.025466,,,,,,,,,,,,,,,,,,,,,,,,,,,,,,,,,,,,,,,,,,,,,,,,,,,,,,,,,,,,,,,,,
10279,1650407647.108047,1650407647.111044,117.0,0.0,4334.871582,4572.820313,4265.641113000001,4273.846191,4299.487305,450.0,4.0,86.0,,,,0.0,4.0,0.0,0.0,0.0,4.0,0.0,,,,,,,,,,,,,,,,,,,,,,,,,,,,,,,,,,,,,,,,,,,,,,,,,,,,,,,,,,,,,,,,,,,,,,,,,,,,,,,,,,,,
10280,1650407647.115862,1650407647.118858,118.0,0.0,4344.102539,4434.871582,4225.641113000001,4273.846191,4291.282227000001,450.0,4.0,86.0,,,,0.0,4.0,0.0,0.0,0.0,4.0,0.0,,,,,,,,59.0,0.0,0.257284,-0.428467,0.5466310000000001,0.671875,0.8520639999999999,-0.5097729999999999,-0.024413999999999998,-0.03414,-0.037888,-0.02624,1.0,0.0,0.0,,,,,,,,,,,,,,,,,,,,,,,,,,,,,,,,0.0,0.0,1.0,0.0,512.0,0.494245,5.724528,6.550402,1.238831,2.728473,4.086323,94.483582,19.40501,13.498789000000002,20.303053,9.643882000000001,51.912712,62.06936999999999,5.392363,12.019487,5.50888,0.041049,0.056351,0.032517000000000004,0.024415,0.031575,7.094285,5.664139,1.2720559999999999,2.367922,3.3991559999999996
10281,1650407647.123676,1650407647.126673,119.0,0.0,4338.461426,4407.692383,4190.769043,4278.974121,4293.333496,16173.0,4.0,86.0,,,,0.0,4.0,0.0,0.0,0.0,4.0,0.0,,,,,,,,,,,,,,,,,,,,,,,,,,,,,,,,,,,,,,,,,,,,,,,,,,,,,,,,,,,,,,,,,,,,,,,,,,,,,,,,,,,,
10282,1650407647.131491,1650407647.134388,120.0,0.0,4338.461426,4468.717772999999,4207.692383,4280.512695,4310.769043,450.0,4.0,86.0,,,,0.0,4.0,0.0,0.0,0.0,4.0,0.0,,,,,,,,60.0,0.0,0.257284,-0.428467,0.5466310000000001,0.671875,0.871107,-0.522957,-0.036133,-0.034096,-0.037762000000000004,-0.023518999999999998,,,,,,,,,,,,,,,,,,,,,,,,,,,,,,,,,,,,,,,,,,,,,,,,,,,,,,,,,,,,,,,,,
10283,1650407647.139305,1650407647.142202,121.0,0.0,4367.179688,4485.641113000001,4195.897461,4281.538574,4338.461426,450.0,4.0,86.0,,,,0.0,4.0,0.0,0.0,0.0,4.0,0.0,,,,,,,,,,,,,,,,,,,,,,,,,,,,,,,,,,,,,,,,,,,,,,,,,,,,,,,,,,,,,,,,,,,,,,,,,,,,,,,,,,,,
10284,1650407647.14712,1650407647.150017,122.0,0.0,4365.128418,4470.769043,4187.692383,4280.0,4326.666504,450.0,4.0,86.0,,,,0.0,4.0,0.0,0.0,0.0,4.0,0.0,,,,,,,,61.0,0.0,0.256877,-0.42871099999999995,0.5466310000000001,0.671875,0.861341,-0.5141680000000001,-0.033692,-0.034055,-0.037794,-0.024487000000000002,,,,,,,,,,,,,,,,,,,,,,,,,,,,,,,,,,,0.0,0.0,1.0,0.0,512.0,0.494245,,,,,,,,,,,,,,,,,,,,,,,,,
10285,1650407647.154935,1650407647.157732,123.0,0.0,4351.794922,4461.025879,4237.94873,4276.922852000001,4308.717772999999,16173.0,4.0,86.0,,,,0.0,4.0,0.0,0.0,0.0,4.0,0.0,,,,,,,,,,,,,,,,,,,,,,,,,,,,,,,,,,,,,,,,,,,,,,,,,,,,,,,,,,,,,,,,,,,,,,,,,,,,,,,,,,,,
10286,1650407647.162749,1650407647.1655462,124.0,0.0,4351.282227000001,4426.153809,4237.436035,4277.436035,4310.256348,450.0,4.0,86.0,,,,0.0,4.0,0.0,0.0,0.0,4.0,0.0,,,,,,,,62.0,0.0,0.257284,-0.428467,0.5466310000000001,0.671875,0.8520639999999999,-0.5097729999999999,-0.024413999999999998,-0.033921,-0.037872,-0.021892,,,,,,,,,,,,,,,,,,,,,,,,,,,,,,,,,,,,,,,,,,,,,,,,,,,,,,,,,,,,,,,,,
10287,1650407647.1705642,1650407647.173261,125.0,0.0,4340.0,4403.589844,4202.05127,4278.974121,4295.384765999999,450.0,4.0,86.0,,,,0.0,4.0,0.0,0.0,0.0,4.0,0.0,,,,,,,,,,,,,,,,,,,,,,,,,,,,,,,,,,,,,,,,,,,,,,,,,,,,,,,,,,,,,,,,,,,,,,,,,,,,,,,,,,,,
10288,1650407647.1783779,1650407647.181076,126.0,0.0,4337.94873,4470.769043,4222.563965,4278.974121,4289.743652,450.0,4.0,86.0,,,,0.0,4.0,0.0,0.0,0.0,4.0,0.0,,,,,,,,63.0,0.0,0.256877,-0.42871099999999995,0.5466310000000001,0.671875,0.861341,-0.5141680000000001,-0.033692,-0.033898000000000005,-0.037894,-0.023023,,,,,,,,,,,,,,,,,,,,,,,,,,,,,,,,,,,0.0,0.0,1.0,0.0,512.0,0.494245,,,,,,,,,,,,,,,,,,,,,,,,,
10289,1650407647.186193,1650407647.188791,127.0,0.0,4350.769043,4547.179688,4280.0,4277.436035,4307.179688,241.0,4.0,86.0,,,,0.0,4.0,0.0,0.0,0.0,4.0,0.0,,,,,,,,,,,,,,,,,,,,,,,,,,,,,,,,,,,,,,,,,,,,,,,,,,,,,,,,,,,,,,,,,,,,,,,,,,,,,,,,,,,,
10290,1650407647.194007,1650407647.196605,0.0,0.0,4331.282227000001,4531.282227000001,4243.077147999999,4274.871582,4293.846191,450.0,4.0,86.0,,,,0.0,4.0,0.0,0.0,0.0,4.0,0.0,,,,,,,,0.0,0.0,0.257284,-0.428467,0.5466310000000001,0.671875,0.8608530000000001,-0.520027,-0.028808999999999998,-0.033926,-0.037913,-0.024138999999999997,,,,,,,,,,,,,,,,,,,,,,,,,,,,,,,,,,,,,,,,,,,,,,,,,,,,,,,,,,,,,,,,,
10291,1650407647.201822,1650407647.20432,1.0,0.0,4304.102539,4501.538574,4212.820313,4275.897461,4271.282227000001,450.0,4.0,86.0,,,,0.0,4.0,0.0,0.0,0.0,4.0,0.0,,,,,,,,,,,,,,,,,,,,,,,,,,,,,,,,,,,,,,,,,,,,,,,,,,,,,,,,,,,,,,,,,,,,,,,,,,,,,,,,,,,,
10292,1650407647.209637,1650407647.212235,2.0,0.0,4329.743652,4523.077147999999,4207.692383,4281.538574,4294.358886999999,16094.0,4.0,86.0,,,,0.0,4.0,1.0,0.0,0.0,4.0,8.333333,,,,,,,,1.0,0.0,0.257284,-0.428467,0.5466310000000001,0.671875,0.847669,-0.5302819999999999,-0.030274000000000002,-0.033902999999999996,-0.037833,-0.018746000000000002,,,,,,,,,,,,,,,,,,,,,,,,,,,,,,,,,,,0.0,0.0,1.0,0.0,512.0,0.494245,,,,,,,,,,,,,,,,,,,,,,,,,
10293,1650407647.217451,1650407647.220049,3.0,0.0,4344.615234000001,4527.692383,4237.436035,4281.538574,4303.077147999999,450.0,4.0,86.0,,,,0.0,4.0,1.0,0.0,0.0,4.0,8.333333,,,,,,,,,,,,,,,,,,,,,,,,,,,,,,,,,,,,,,,,,,,,,,,,,,,,,,,,,,,,,,,,,,,,,,,,,,,,,,,,,,,,
10294,1650407647.225266,1650407647.227864,4.0,0.0,4315.384765999999,4513.333496,4220.0,4277.94873,4277.94873,73.0,4.0,86.0,,,,0.0,4.0,1.0,0.0,0.0,4.0,8.333333,,,,,,,,2.0,0.0,0.25769000000000003,-0.42822299999999996,0.5466310000000001,0.671875,0.862318,-0.521981,-0.050782,-0.033832999999999995,-0.03776,-0.020241,,,,,,,,,,,,,,,,,,,,,,,,,,,,,,,,,,,,,,,,,,,,,,,,,,,,,,,,,,,,,,,,,
10295,1650407647.2330801,1650407647.235579,5.0,0.0,4320.512695,4519.487305,4230.769043,4278.461426,4277.436035,450.0,4.0,86.0,,,,0.0,4.0,1.0,1.0,0.0,4.0,16.666666,,,,,,,,,,,,,,,,,,,,,,,,,,,,,,,,,,,,,,,,,,,,,,,,,,,,,,,,,,,,,,,,,,,,,,,,,,,,,,,,,,,,
10296,1650407647.240895,1650407647.243393,6.0,0.0,4355.897461,4514.871582,4238.974121,4280.0,4306.153809,87.0,4.0,86.0,,,,0.0,4.0,1.0,1.0,0.0,4.0,16.666666,,,,,,,,3.0,0.0,0.25769000000000003,-0.42822299999999996,0.5466310000000001,0.671875,0.8691540000000001,-0.5141680000000001,-0.047363999999999996,-0.033868,-0.037793,-0.021634999999999998,1.0,0.0,0.0,,,,,,,,,,,,,,,,,,,,,,,,,,,,,,,,0.0,0.0,1.0,0.0,128.0,0.326291,6.371582,6.163913,1.1942629999999999,2.939016,4.153013,133.028198,21.646442,14.445167000000001,22.86882,10.307621000000001,55.565399,60.598206000000005,7.299973,11.450453,6.3711910000000005,0.046067000000000004,0.061769000000000004,0.032654,0.022243000000000002,0.035522000000000005,6.356441,4.6022419999999995,1.111182,2.556861,3.7418970000000003
10297,1650407647.24871,1650407647.251208,7.0,0.0,4324.102539,4531.794922,4234.871582,4276.922852000001,4289.743652,450.0,4.0,86.0,,,,0.0,4.0,1.0,1.0,0.0,4.0,16.666666,,,,,,,,,,,,,,,,,,,,,,,,,,,,,,,,,,,,,,,,,,,,,,,,,,,,,,,,,,,,,,,,,,,,,,,,,,,,,,,,,,,,
10298,1650407647.256524,1650407647.259023,8.0,0.0,4322.563965,4585.128418,4191.282227000001,4275.897461,4296.410156,450.0,4.0,86.0,,,,0.0,4.0,1.0,1.0,0.0,4.0,16.666666,,,,,,,,4.0,0.0,0.25769000000000003,-0.42822299999999996,0.5466310000000001,0.671875,0.851087,-0.509285,-0.042969,-0.033899,-0.037774,-0.022841,,,,,,,,,,,,,,,,,,,,,,,,,,,,,,,,,,,,,,,,,,,,,,,,,,,,,,,,,,,,,,,,,
10299,1650407647.264339,1650407647.266737,9.0,0.0,4359.487305,4573.333496,4170.256348,4278.974121,4324.102539,0.0,4.0,86.0,,,,0.0,4.0,1.0,1.0,0.0,4.0,16.666666,,,,,,,,,,,,,,,,,,,,,,,,,,,,,,,,,,,,,,,,,,,,,,,,,,,,,,,,,,,,,,,,,,,,,,,,,,,,,,,,,,,,
10300,1650407647.272153,1650407647.274452,10.0,0.0,4353.846191,4534.358886999999,4176.922852000001,4279.487305,4316.922852000001,450.0,4.0,86.0,,,,0.0,4.0,1.0,1.0,0.0,4.0,16.666666,,,,,,,,5.0,0.0,0.257171,-0.42822299999999996,0.546875,0.671875,0.867201,-0.518563,-0.032715,-0.033829000000000005,-0.037854,-0.023828,,,,,,,,,,,,,,,,,,,,,,,,,,,,,,,,,,,0.0,0.0,1.0,0.0,128.0,0.326291,,,,,,,,,,,,,,,,,,,,,,,,,
10301,1650407647.279968,1650407647.282267,11.0,0.0,4324.615234000001,4554.871582,4183.589844,4277.436035,4290.256348,16204.0,4.0,86.0,,,,0.0,4.0,1.0,1.0,0.0,4.0,16.666666,,,,,,,,,,,,,,,,,,,,,,,,,,,,,,,,,,,,,,,,,,,,,,,,,,,,,,,,,,,,,,,,,,,,,,,,,,,,,,,,,,,,
10302,1650407647.287782,1650407647.2899811,12.0,0.0,4335.384765999999,4557.94873,4162.563965,4275.897461,4295.384765999999,450.0,4.0,86.0,,,,0.0,4.0,1.0,1.0,0.0,4.0,16.666666,,,,,,,,6.0,0.0,0.257577,-0.427979,0.546875,0.671875,0.8530399999999999,-0.5234449999999999,-0.041016000000000004,-0.033865,-0.037828,-0.024668,,,,,,,,,,,,,,,,,,,,,,,,,,,,,,,,,,,,,,,,,,,,,,,,,,,,,,,,,,,,,,,,,
10303,1650407647.295597,1650407647.297796,13.0,0.0,4329.743652,4497.94873,4171.282227000001,4274.871582,4291.282227000001,450.0,4.0,86.0,,,,0.0,4.0,1.0,1.0,0.0,4.0,16.666666,,,,,,,,,,,,,,,,,,,,,,,,,,,,,,,,,,,,,,,,,,,,,,,,,,,,,,,,,,,,,,,,,,,,,,,,,,,,,,,,,,,,
10304,1650407647.303412,1650407647.305511,14.0,0.0,4317.436035,4480.0,4247.692383,4276.410156,4283.077147999999,450.0,4.0,86.0,,,,0.0,4.0,1.0,1.0,0.0,4.0,16.666666,,,,,,,,7.0,0.0,0.257171,-0.42822299999999996,0.546875,0.671875,0.869642,-0.51368,-0.038087,-0.033847,-0.037756,-0.022103,,,,,,,,,,,,,,,,,,,,,,,,,,,,,,,,,,,0.0,0.0,1.0,0.0,128.0,0.326291,,,,,,,,,,,,,,,,,,,,,,,,,
10305,1650407647.311226,1650407647.313325,15.0,0.0,4331.282227000001,4549.230957,4260.512695,4277.94873,4292.307617,16204.0,4.0,86.0,,,,0.0,4.0,1.0,1.0,0.0,4.0,16.666666,,,,,,,,,,,,,,,,,,,,,,,,,,,,,,,,,,,,,,,,,,,,,,,,,,,,,,,,,,,,,,,,,,,,,,,,,,,,,,,,,,,,
10306,1650407647.319041,1650407647.3210402,16.0,0.0,4343.589844,4589.743652,4231.282227000001,4277.94873,4304.615234000001,0.0,4.0,86.0,,,,0.0,4.0,1.0,1.0,0.0,4.0,16.666666,,,,,,,,8.0,0.0,0.257171,-0.42822299999999996,0.546875,0.671875,0.8564579999999999,-0.5141680000000001,-0.031738999999999996,-0.033783,-0.037788999999999996,-0.023165,,,,,,,,,,,,,,,,,,,,,,,,,,,,,,,,,,,,,,,,,,,,,,,,,,,,,,,,,,,,,,,,,
10307,1650407647.3268552,1650407647.328855,17.0,0.0,4357.436035,4575.384765999999,4231.794922,4277.94873,4320.512695,0.0,4.0,86.0,,,,0.0,4.0,1.0,1.0,0.0,4.0,16.666666,,,,,,,,,,,,,,,,,,,,,,,,,,,,,,,,,,,,,,,,,,,,,,,,,,,,,,,,,,,,,,,,,,,,,,,,,,,,,,,,,,,,
10308,1650407647.3346698,1650407647.33657,18.0,0.0,4373.846191,4588.717772999999,4267.692383,4279.487305,4345.641113000001,0.0,4.0,86.0,,,,0.0,4.0,1.0,1.0,0.0,4.0,16.666666,,,,,,,,9.0,0.0,0.257171,-0.42822299999999996,0.546875,0.671875,0.8559700000000001,-0.5337,-0.046876,-0.033823,-0.037819,-0.020799,,,,,,,,,,,,,,,,,,,,,,,,,,,,,,,,,,,0.0,0.0,1.0,0.0,128.0,0.326291,,,,,,,,,,,,,,,,,,,,,,,,,
10309,1650407647.342484,1650407647.344384,19.0,0.0,4341.538574,4598.974121,4250.256348,4280.512695,4320.0,0.0,4.0,86.0,,,,0.0,4.0,1.0,1.0,0.0,4.0,16.666666,,,,,,,,,,,,,,,,,,,,,,,,,,,,,,,,,,,,,,,,,,,,,,,,,,,,,,,,,,,,,,,,,,,,,,,,,,,,,,,,,,,,
10310,1650407647.3502991,1650407647.352099,20.0,0.0,4323.077147999999,4558.974121,4278.461426,4281.538574,4292.307617,0.0,4.0,86.0,,,,0.0,4.0,1.0,1.0,0.0,4.0,16.666666,,,,,,,,10.0,0.0,0.256764,-0.428467,0.546875,0.671875,0.8525520000000001,-0.522957,-0.033204000000000004,-0.03381,-0.037895,-0.015790000000000002,,,,,,,,,,,,,,,,,,,,,,,,,,,,,,,,,,,,,,,,,,,,,,,,,,,,,,,,,,,,,,,,,
10311,1650407647.358114,1650407647.359914,21.0,0.0,4347.692383,4509.743652,4295.384765999999,4281.538574,4316.410156,0.0,4.0,86.0,,,,0.0,4.0,1.0,1.0,0.0,4.0,16.666666,,,,,,,,,,,,,,,,,,,,,,,,,,,,,,,,,,,,,,,,,,,,,,,,,,,,,,,,,,,,,,,,,,,,,,,,,,,,,,,,,,,,
10312,1650407647.365928,1650407647.3676279,22.0,0.0,4360.0,4508.717772999999,4280.0,4282.563965,4327.692383,0.0,4.0,86.0,,,,0.0,4.0,1.0,1.0,0.0,4.0,16.666666,1.0,0.0,3.0,0.0,0.0,0.0,4.0,11.0,0.0,0.256764,-0.428467,0.546875,0.671875,0.862806,-0.526864,-0.039063,-0.033798,-0.037864999999999996,-0.017482,1.0,0.0,0.0,,,,,,,,,,,,,,,,,,,,,,,,,,,,,,,,0.0,0.0,1.0,0.0,512.0,0.647596,6.157664,5.864711,1.132175,2.996078,3.9522209999999998,166.562149,25.93648,17.792505,24.784071,11.244292999999999,56.497189,56.51929499999999,9.733989,11.095654,7.201836,0.049495,0.068596,0.035111,0.019108,0.038629000000000004,5.331189,3.7617760000000002,1.075879,2.7307650000000003,3.9180010000000003
10313,1650407647.373743,1650407647.375443,23.0,0.0,4354.871582,4564.102539,4230.256348,4283.077147999999,4308.717772999999,0.0,4.0,86.0,,,,0.0,4.0,1.0,1.0,0.0,4.0,16.666666,,,,,,,,,,,,,,,,,,,,,,,,,,,,,,,,,,,,,,,,,,,,,,,,,,,,,,,,,,,,,,,,,,,,,,,,,,,,,,,,,,,,
10314,1650407647.381557,1650407647.383158,24.0,0.0,4354.358886999999,4587.179688,4214.358886999999,4278.974121,4310.769043,0.0,4.0,86.0,,,,0.0,4.0,1.0,1.0,0.0,4.0,16.666666,,,,,,,,12.0,0.0,0.256244,-0.428467,0.5471189999999999,0.671875,0.864759,-0.512215,-0.030762,-0.033836,-0.037887,-0.019006,,,,,,,,,,,,,,,,,,,,,,,,,,,,,,,,,,,,,,,,,,,,,,,,,,,,,,,,,,,,,,,,,
10315,1650407647.389372,1650407647.391072,25.0,0.0,4364.102539,4476.410156,4170.256348,4278.974121,4332.307617,0.0,4.0,86.0,,,,0.0,4.0,1.0,1.0,0.0,4.0,16.666666,,,,,,,,,,,,,,,,,,,,,,,,,,,,,,,,,,,,,,,,,,,,,,,,,,,,,,,,,,,,,,,,,,,,,,,,,,,,,,,,,,,,
10316,1650407647.397186,1650407647.398887,26.0,0.0,4353.333496,4410.256348,4178.974121,4280.0,4323.589844,0.0,4.0,86.0,,,,0.0,4.0,1.0,1.0,0.0,4.0,16.666666,,,,,,,,13.0,0.0,0.256883,-0.428467,0.5471189999999999,0.6716310000000001,0.847181,-0.517586,-0.029297000000000004,-0.03387,-0.037906999999999996,-0.020523,,,,,,,,,,,,,,,,,,,,,,,,,,,,,,,,,,,0.0,0.0,1.0,0.0,512.0,0.647596,,,,,,,,,,,,,,,,,,,,,,,,,
10317,1650407647.405001,1650407647.406802,27.0,0.0,4353.333496,4484.102539,4226.153809,4280.0,4318.974121,0.0,4.0,86.0,,,,0.0,4.0,1.0,1.0,0.0,4.0,16.666666,,,,,,,,,,,,,,,,,,,,,,,,,,,,,,,,,,,,,,,,,,,,,,,,,,,,,,,,,,,,,,,,,,,,,,,,,,,,,,,,,,,,
10318,1650407647.412816,1650407647.414616,28.0,0.0,4341.538574,4475.897461,4200.0,4278.974121,4294.358886999999,0.0,4.0,86.0,,,,0.0,4.0,1.0,1.0,0.0,4.0,16.666666,,,,,,,,14.0,0.0,0.256883,-0.428467,0.5471189999999999,0.6716310000000001,0.8530399999999999,-0.515633,-0.036133,-0.03395,-0.037876,-0.018275,,,,,,,,,,,,,,,,,,,,,,,,,,,,,,,,,,,,,,,,,,,,,,,,,,,,,,,,,,,,,,,,,
10319,1650407647.42063,1650407647.4225311,29.0,0.0,4336.922852000001,4453.333496,4167.179688,4277.436035,4287.179688,0.0,4.0,86.0,,,,0.0,4.0,1.0,1.0,0.0,4.0,16.666666,,,,,,,,,,,,,,,,,,,,,,,,,,,,,,,,,,,,,,,,,,,,,,,,,,,,,,,,,,,,,,,,,,,,,,,,,,,,,,,,,,,,
10320,1650407647.4284449,1650407647.4303448,30.0,0.0,4334.871582,4569.230957,4215.384765999999,4274.358886999999,4307.692383,0.0,4.0,86.0,,,,0.0,4.0,1.0,1.0,0.0,4.0,16.666666,,,,,,,,15.0,0.0,0.256475,-0.42871099999999995,0.5471189999999999,0.6716310000000001,0.8657360000000001,-0.528328,-0.030274000000000002,-0.033973,-0.037946,-0.019768,,,,,,,,,,,,,,,,,,,,,,,,,,,,,,,,,,,0.0,0.0,1.0,0.0,512.0,0.647596,,,,,,,,,,,,,,,,,,,,,,,,,
10321,1650407647.436259,1650407647.43826,31.0,0.0,4342.05127,4609.230957,4273.333496,4273.846191,4327.179688,0.0,4.0,86.0,,,,0.0,4.0,1.0,1.0,0.0,4.0,16.666666,,,,,,,,,,,,,,,,,,,,,,,,,,,,,,,,,,,,,,,,,,,,,,,,,,,,,,,,,,,,,,,,,,,,,,,,,,,,,,,,,,,,
10322,1650407647.444074,1650407647.446075,32.0,0.0,4353.846191,4548.205078,4245.641113000001,4277.436035,4327.179688,0.0,4.0,86.0,,,,0.0,4.0,1.0,1.0,0.0,4.0,16.666666,,,,,,,,16.0,0.0,0.255954,-0.42871099999999995,0.547363,0.6716310000000001,0.864759,-0.520516,-0.033204000000000004,-0.033993999999999996,-0.03796,-0.021209,,,,,,,,,,,,,,,,,,,,,,,,,,,,,,,,,,,,,,,,,,,,,,,,,,,,,,,,,,,,,,,,,
10323,1650407647.451888,1650407647.453989,33.0,0.0,4362.563965,4558.461426,4236.922852000001,4280.0,4340.512695,0.0,4.0,86.0,,,,0.0,4.0,1.0,1.0,0.0,4.0,16.666666,,,,,,,,,,,,,,,,,,,,,,,,,,,,,,,,,,,,,,,,,,,,,,,,,,,,,,,,,,,,,,,,,,,,,,,,,,,,,,,,,,,,
10324,1650407647.459703,1650407647.461804,34.0,0.0,4357.94873,4576.410156,4233.846191,4281.025879,4345.128418,0.0,4.0,86.0,,,,0.0,4.0,1.0,1.0,0.0,4.0,16.666666,,,,,,,,17.0,0.0,0.25648000000000004,-0.428467,0.547607,0.671387,0.855482,-0.500496,-0.046876,-0.033915,-0.037875,-0.022359999999999998,,,,,,,,,,,,,,,,,,,,,,,,,,,,,,,,,,,0.0,0.0,1.0,0.0,512.0,0.647596,,,,,,,,,,,,,,,,,,,,,,,,,
10325,1650407647.4675179,1650407647.469518,35.0,0.0,4333.846191,4550.769043,4290.256348,4279.487305,4317.436035,0.0,4.0,86.0,,,,0.0,4.0,1.0,1.0,0.0,4.0,16.666666,,,,,,,,,,,,,,,,,,,,,,,,,,,,,,,,,,,,,,,,,,,,,,,,,,,,,,,,,,,,,,,,,,,,,,,,,,,,,,,,,,,,
10326,1650407647.475332,1650407647.477333,36.0,0.0,4354.358886999999,4517.94873,4293.333496,4281.538574,4349.230957,0.0,4.0,86.0,,,,0.0,4.0,1.0,1.0,0.0,4.0,16.666666,,,,,,,,18.0,0.0,0.25543499999999997,-0.428467,0.548096,0.671387,0.8608530000000001,-0.511727,-0.043946,-0.033941000000000006,-0.037847000000000006,-0.023542,,,,,,,,,,,,,,,,,,,,,,,,,,,,,,,,,,,,,,,,,,,,,,,,,,,,,,,,,,,,,,,,,
10327,1650407647.4831471,1650407647.485048,37.0,0.0,4405.641113000001,4502.563965,4274.358886999999,4283.589844,4416.410156,0.0,4.0,86.0,,,,0.0,4.0,1.0,1.0,0.0,4.0,16.666666,,,,,,,,,,,,,,,,,,,,,,,,,,,,,,,,,,,,,,,,,,,,,,,,,,,,,,,,,,,,,,,,,,,,,,,,,,,,,,,,,,,,
10328,1650407647.4909608,1650407647.4928632,38.0,0.0,4419.487305,4508.205078,4226.153809,4282.563965,4422.05127,0.0,4.0,86.0,,,,0.0,4.0,1.0,1.0,0.0,4.0,16.666666,,,,,,,,19.0,0.0,0.255847,-0.427979,0.548584,0.671143,0.863783,-0.52784,-0.031738999999999996,-0.033917,-0.037870999999999995,-0.024557,1.0,0.0,0.0,,,,,,,,,,,,,,,,,,,,,,,,,,,,,,,,0.0,0.0,1.0,0.0,512.0,0.673768,5.151143,5.589405999999999,1.020465,2.884621,3.561006,185.275528,30.630863,22.532608,25.556005,11.968943,54.813297,51.852759999999996,12.159725,10.725256,7.886054,0.049527,0.075516,0.041448,0.016236,0.040326999999999995,4.219564,3.2670630000000003,1.189416,2.7999680000000002,3.879797
10329,1650407647.498776,1650407647.5006769,39.0,0.0,4420.0,4520.512695,4208.717772999999,4282.563965,4414.358886999999,0.0,4.0,86.0,,,,0.0,4.0,1.0,1.0,0.0,4.0,16.666666,,,,,,,,,,,,,,,,,,,,,,,,,,,,,,,,,,,,,,,,,,,,,,,,,,,,,,,,,,,,,,,,,,,,,,,,,,,,,,,,,,,,
10330,1650407647.5065901,1650407647.508392,40.0,0.0,4478.974121,4556.410156,4221.025879,4284.615234000001,4503.077147999999,0.0,4.0,86.0,,,,0.0,4.0,1.0,1.0,0.0,4.0,16.666666,,,,,,,,20.0,0.0,0.25648000000000004,-0.428467,0.547607,0.671387,0.855482,-0.500496,-0.046876,-0.033845,-0.037795,-0.025373,,,,,,,,,,,,,,,,,,,,,,,,,,,,,,,,,,,,,,,,,,,,,,,,,,,,,,,,,,,,,,,,,
10331,1650407647.514405,1650407647.516107,41.0,0.0,4550.256348,4558.461426,4233.333496,4288.205078,4621.025879,0.0,4.0,86.0,,,,0.0,4.0,1.0,1.0,0.0,4.0,16.666666,,,,,,,,,,,,,,,,,,,,,,,,,,,,,,,,,,,,,,,,,,,,,,,,,,,,,,,,,,,,,,,,,,,,,,,,,,,,,,,,,,,,
10332,1650407647.52222,1650407647.523921,42.0,0.0,4628.717772999999,4477.436035,4182.563965,4292.307617,4748.205078,0.0,4.0,86.0,,,,0.0,4.0,1.0,1.0,0.0,4.0,16.666666,,,,,,,,21.0,0.0,0.255848,-0.427734,0.549072,0.670898,0.849134,-0.518563,-0.03125,-0.033928,-0.037775,-0.019906,,,,,,,,,,,,,,,,,,,,,,,,,,,,,,,,,,,0.0,0.0,1.0,0.0,512.0,0.673768,,,,,,,,,,,,,,,,,,,,,,,,,
10333,1650407647.530034,1650407647.531736,43.0,0.0,4678.461426,4411.794922,4158.461426,4292.307617,4886.153809,0.0,4.0,86.0,,,,0.0,4.0,1.0,1.0,0.0,4.0,16.666666,,,,,,,,,,,,,,,,,,,,,,,,,,,,,,,,,,,,,,,,,,,,,,,,,,,,,,,,,,,,,,,,,,,,,,,,,,,,,,,,,,,,
10334,1650407647.537849,1650407647.539551,44.0,0.0,4700.512695,4369.743652,4175.384765999999,4295.384765999999,5117.436035,0.0,4.0,86.0,,,,0.0,4.0,1.0,1.0,0.0,4.0,16.666666,,,,,,,,22.0,0.0,0.255848,-0.42749,0.549561,0.670654,0.851575,-0.525399,-0.03125,-0.033855,-0.037807,-0.021187,,,,,,,,,,,,,,,,,,,,,,,,,,,,,,,,,,,,,,,,,,,,,,,,,,,,,,,,,,,,,,,,,
10335,1650407647.545663,1650407647.547265,45.0,0.0,4734.871582,4263.077147999999,4154.871582,4302.563965,5394.358886999999,0.0,4.0,86.0,,,,0.0,4.0,1.0,1.0,0.0,4.0,16.666666,,,,,,,,,,,,,,,,,,,,,,,,,,,,,,,,,,,,,,,,,,,,,,,,,,,,,,,,,,,,,,,,,,,,,,,,,,,,,,,,,,,,
10336,1650407647.553478,1650407647.55518,46.0,0.0,4779.487305,4201.538574,4167.692383,4304.615234000001,5689.230957,0.0,4.0,86.0,,,,0.0,4.0,1.0,1.0,0.0,4.0,16.666666,,,,,,,,23.0,0.0,0.255846,-0.427246,0.550049,0.6704100000000001,0.8618299999999999,-0.524422,-0.027344,-0.033839,-0.037737,-0.016138,,,,,,,,,,,,,,,,,,,,,,,,,,,,,,,,,,,0.0,0.0,1.0,0.0,512.0,0.673768,,,,,,,,,,,,,,,,,,,,,,,,,
10337,1650407647.561293,1650407647.562995,47.0,0.0,4805.641113000001,4203.077147999999,4209.230957,4302.563965,6127.179688,0.0,4.0,86.0,,,,0.0,4.0,1.0,1.0,0.0,4.0,16.666666,,,,,,,,,,,,,,,,,,,,,,,,,,,,,,,,,,,,,,,,,,,,,,,,,,,,,,,,,,,,,,,,,,,,,,,,,,,,,,,,,,,,
10338,1650407647.569107,1650407647.570909,48.0,0.0,4839.487305,4153.333496,4267.179688,4304.102539,6542.05127,0.0,4.0,86.0,,,,0.0,4.0,1.0,1.0,0.0,4.0,16.666666,,,,,,,,24.0,0.0,0.255843,-0.42700200000000005,0.5505369999999999,0.670166,0.843275,-0.526864,-0.031738999999999996,-0.033873,-0.037772,-0.014378,,,,,,,,,,,,,,,,,,,,,,,,,,,,,,,,,,,,,,,,,,,,,,,,,,,,,,,,,,,,,,,,,
10339,1650407647.5769222,1650407647.578724,49.0,0.0,4868.205078,4077.9487299999996,4233.846191,4307.179688,6807.179687999999,0.0,4.0,86.0,,,,0.0,4.0,1.0,1.0,0.0,4.0,16.666666,,,,,,,,,,,,,,,,,,,,,,,,,,,,,,,,,,,,,,,,,,,,,,,,,,,,,,,,,,,,,,,,,,,,,,,,,,,,,,,,,,,,
10340,1650407647.5847359,1650407647.586538,50.0,0.0,4854.358886999999,4013.8461909999996,4196.410156,4306.153809,6918.974120999999,0.0,4.0,86.0,,,,0.0,4.0,1.0,1.0,0.0,4.0,16.666666,,,,,,,,25.0,0.0,0.255839,-0.42675799999999997,0.551025,0.669922,0.862806,-0.515145,-0.033204000000000004,-0.033855,-0.037802999999999996,-0.016309,,,,,,,,,,,,,,,,,,,,,,,,,,,,,,,,,,,0.0,0.0,1.0,0.0,512.0,0.673768,,,,,,,,,,,,,,,,,,,,,,,,,
10341,1650407647.592551,1650407647.5942528,51.0,0.0,4857.436035,3919.487061,4252.307617,4305.641113000001,7031.282227,0.0,4.0,86.0,,,,0.0,4.0,1.0,1.0,0.0,4.0,16.666666,,,,,,,,,,,,,,,,,,,,,,,,,,,,,,,,,,,,,,,,,,,,,,,,,,,,,,,,,,,,,,,,,,,,,,,,,,,,,,,,,,,,
10342,1650407647.600366,1650407647.602068,52.0,0.0,4898.974121,3805.1281740000004,4336.922852000001,4308.205078,7066.153809,0.0,4.0,86.0,,,,0.0,4.0,1.0,1.0,0.0,4.0,16.666666,,,,,,,,26.0,0.0,0.255952,-0.42675799999999997,0.5512699999999999,0.669678,0.8652479999999999,-0.529305,-0.023926,-0.033936,-0.037929000000000004,-0.017999,,,,,,,,,,,,,,,,,,,,,,,,,,,,,,,,,,,,,,,,,,,,,,,,,,,,,,,,,,,,,,,,,
10343,1650407647.60818,1650407647.609783,53.0,0.0,4907.692383,3699.487061,4292.820313,4308.205078,7062.05127,0.0,4.0,86.0,,,,0.0,4.0,1.0,1.0,0.0,4.0,16.666666,,,,,,,,,,,,,,,,,,,,,,,,,,,,,,,,,,,,,,,,,,,,,,,,,,,,,,,,,,,,,,,,,,,,,,,,,,,,,,,,,,,,
10344,1650407647.615995,1650407647.617697,54.0,0.0,4853.846191,3647.179443,4245.128418,4305.128418,7008.717773,0.0,4.0,86.0,,,,0.0,4.0,1.0,1.0,0.0,4.0,16.666666,,,,,,,,27.0,0.0,0.256471,-0.42651400000000006,0.5515140000000001,0.669434,0.862806,-0.52491,-0.024903,-0.033961,-0.037847000000000006,-0.016052,1.0,0.0,0.0,,,,,,,,,,,,,,,,,,,,,,,,,,,,,,,,0.0,0.0,1.0,0.0,128.0,1.0,3.8743790000000002,5.25985,0.878183,2.636473,3.095337,183.366135,33.664448,27.209821999999996,25.257057,12.159541,51.346519,48.132896,13.950211,10.185972,8.343778,0.047174,0.080622,0.051922,0.014835,0.040533,3.6508190000000003,3.2669770000000002,1.468134,2.716825,3.62785
10345,1650407647.623809,1650407647.625512,55.0,0.0,4831.282227000001,3691.281982,4207.692383,4305.128418,6946.666504000001,0.0,4.0,86.0,,,,0.0,4.0,1.0,1.0,0.0,4.0,16.666666,,,,,,,,,,,,,,,,,,,,,,,,,,,,,,,,,,,,,,,,,,,,,,,,,,,,,,,,,,,,,,,,,,,,,,,,,,,,,,,,,,,,
10346,1650407647.631624,1650407647.633326,56.0,0.0,4854.871582,3730.7692869999996,4186.666504,4306.153809,6976.922852,0.0,4.0,86.0,,,,0.0,4.0,1.0,1.0,0.0,4.0,16.666666,,,,,,,,28.0,0.0,0.256352,-0.42627,0.551758,0.669434,0.8525520000000001,-0.539071,-0.015137000000000001,-0.033934,-0.037870999999999995,-0.017865,,,,,,,,,,,,,,,,,,,,,,,,,,,,,,,,,,,,,,,,,,,,,,,,,,,,,,,,,,,,,,,,,
10347,1650407647.6394382,1650407647.641041,57.0,0.0,4847.179688,3645.641113,4196.410156,4305.128418,6990.769043000001,0.0,4.0,86.0,,,,0.0,4.0,1.0,1.0,0.0,4.0,16.666666,,,,,,,,,,,,,,,,,,,,,,,,,,,,,,,,,,,,,,,,,,,,,,,,,,,,,,,,,,,,,,,,,,,,,,,,,,,,,,,,,,,,
10348,1650407647.647253,1650407647.648956,58.0,0.0,4780.0,3551.281982,4215.897461,4304.615234000001,6968.717773,0.0,4.0,86.0,,,,0.0,4.0,1.0,1.0,0.0,4.0,16.666666,,,,,,,,29.0,0.0,0.255945,-0.42651400000000006,0.551758,0.669434,0.8593879999999999,-0.524422,-0.021973,-0.033957999999999995,-0.037942000000000004,-0.019448,,,,,,,,,,,,,,,,,,,,,,,,,,,,,,,,,,,0.0,0.0,1.0,0.0,128.0,1.0,,,,,,,,,,,,,,,,,,,,,,,,,
10349,1650407647.655068,1650407647.65677,59.0,0.0,4743.589844,3594.8718259999996,4188.717772999999,4303.589844,6936.922852,0.0,4.0,86.0,,,,0.0,4.0,1.0,1.0,0.0,4.0,16.666666,,,,,,,,,,,,,,,,,,,,,,,,,,,,,,,,,,,,,,,,,,,,,,,,,,,,,,,,,,,,,,,,,,,,,,,,,,,,,,,,,,,,
10350,1650407647.662882,1650407647.664485,60.0,0.0,4712.820313,3623.5898439999996,4176.410156,4300.0,6901.538573999999,0.0,4.0,86.0,,,,0.0,4.0,1.0,1.0,0.0,4.0,16.666666,,,,,,,,30.0,0.0,0.256471,-0.42651400000000006,0.5515140000000001,0.669434,0.857923,-0.5297930000000001,-0.031738999999999996,-0.033932,-0.038005000000000004,-0.020822999999999998,,,,,,,,,,,,,,,,,,,,,,,,,,,,,,,,,,,,,,,,,,,,,,,,,,,,,,,,,,,,,,,,,
10351,1650407647.670697,1650407647.6723,61.0,0.0,4666.153809,3553.8461909999996,4190.769043,4295.897461,6876.410156,0.0,4.0,86.0,,,,0.0,4.0,1.0,1.0,0.0,4.0,16.666666,,,,,,,,,,,,,,,,,,,,,,,,,,,,,,,,,,,,,,,,,,,,,,,,,,,,,,,,,,,,,,,,,,,,,,,,,,,,,,,,,,,,
10352,1650407647.678511,1650407647.6800141,62.0,0.0,4585.128418,3560.0,4194.871582,4292.307617,6820.0,0.0,4.0,86.0,,,,0.0,4.0,1.0,1.0,0.0,4.0,16.666666,,,,,,,,31.0,0.0,0.25659,-0.42675799999999997,0.5512699999999999,0.669434,0.8501110000000001,-0.5234449999999999,-0.027344,-0.033859,-0.037915,-0.022012999999999998,,,,,,,,,,,,,,,,,,,,,,,,,,,,,,,,,,,0.0,0.0,1.0,0.0,128.0,1.0,,,,,,,,,,,,,,,,,,,,,,,,,
10353,1650407647.686326,1650407647.687829,63.0,0.0,4512.307617,3664.615479,4227.692383,4289.743652,6704.102539,0.0,4.0,86.0,,,,0.0,4.0,1.0,1.0,0.0,4.0,16.666666,,,,,,,,,,,,,,,,,,,,,,,,,,,,,,,,,,,,,,,,,,,,,,,,,,,,,,,,,,,,,,,,,,,,,,,,,,,,,,,,,,,,
10354,1650407647.69414,1650407647.695544,64.0,0.0,4476.410156,3745.641113,4255.897461,4287.692383,6545.128418,450.0,4.0,86.0,,,,0.0,4.0,1.0,1.0,0.0,4.0,16.666666,,,,,,,,32.0,0.0,0.256708,-0.42700200000000005,0.551025,0.669434,0.854994,-0.525399,-0.020508000000000002,-0.033793000000000004,-0.037883999999999994,-0.025866000000000004,,,,,,,,,,,,,,,,,,,,,,,,,,,,,,,,,,,,,,,,,,,,,,,,,,,,,,,,,,,,,,,,,
10355,1650407647.701955,1650407647.703358,65.0,0.0,4441.025879,3801.025635,4271.282227000001,4284.102539,6416.922852000001,450.0,4.0,86.0,,,,0.0,4.0,1.0,1.0,0.0,4.0,16.666666,,,,,,,,,,,,,,,,,,,,,,,,,,,,,,,,,,,,,,,,,,,,,,,,,,,,,,,,,,,,,,,,,,,,,,,,,,,,,,,,,,,,
10356,1650407647.70977,1650407647.7110732,66.0,0.0,4362.563965,3881.538574,4222.05127,4281.025879,6118.974121,16241.0,4.0,86.0,,,,0.0,4.0,1.0,1.0,0.0,4.0,16.666666,,,,,,,,33.0,0.0,0.256826,-0.427246,0.5507810000000001,0.669434,0.8593879999999999,-0.51368,-0.029786,-0.033832,-0.037855,-0.026550999999999998,,,,,,,,,,,,,,,,,,,,,,,,,,,,,,,,,,,0.0,0.0,1.0,0.0,128.0,1.0,,,,,,,,,,,,,,,,,,,,,,,,,
10357,1650407647.717584,1650407647.718888,67.0,0.0,4290.256348,4037.4357909999994,4268.205078,4281.025879,5708.205078,450.0,4.0,86.0,,,,0.0,4.0,1.0,1.0,0.0,4.0,16.666666,,,,,,,,,,,,,,,,,,,,,,,,,,,,,,,,,,,,,,,,,,,,,,,,,,,,,,,,,,,,,,,,,,,,,,,,,,,,,,,,,,,,
10358,1650407647.725399,1650407647.726603,68.0,0.0,4279.487305,4197.436035,4281.538574,4280.512695,5303.077147999999,16064.0,4.0,86.0,,,,0.0,4.0,4.0,1.0,0.0,4.0,41.666668,,,,,,,,34.0,0.0,0.257349,-0.427246,0.5505369999999999,0.669434,0.8652479999999999,-0.522469,-0.029297000000000004,-0.033769,-0.037781,-0.023701,,,,,,,,,,,,,,,,,,,,,,,,,,,,,,,,,,,,,,,,,,,,,,,,,,,,,,,,,,,,,,,,,
10359,1650407647.7332132,1650407647.734417,69.0,0.0,4251.282227000001,4243.589844,4258.461426,4275.384765999999,4877.94873,450.0,4.0,86.0,,,,0.0,4.0,4.0,1.0,0.0,4.0,41.666668,,,,,,,,,,,,,,,,,,,,,,,,,,,,,,,,,,,,,,,,,,,,,,,,,,,,,,,,,,,,,,,,,,,,,,,,,,,,,,,,,,,,
10360,1650407647.7410278,1650407647.742132,70.0,0.0,4206.153809,4294.871582,4242.563965,4270.256348,4435.897461,0.0,4.0,86.0,,,,0.0,4.0,4.0,0.0,0.0,4.0,33.333332,,,,,,,,35.0,0.0,0.257236,-0.427246,0.550293,0.669678,0.863294,-0.525887,-0.03125,-0.03381,-0.037762000000000004,-0.024602000000000002,1.0,0.0,0.0,,,,,,,,,,,,,,,,,,,,,,,,,,,,,,,,0.0,1.0,1.0,0.0,128.0,1.0,4.575182,4.919548000000001,0.780523,2.317269,2.661918,164.30307,33.736053000000005,30.840889,24.405929999999998,11.835663,47.590961,46.001858,14.630431,9.501002,8.525249,0.050122,0.08277999999999999,0.065062,0.015525,0.039539,25.770285,6.2340230000000005,2.156987,2.540785,3.2282900000000003
10361,1650407647.748842,1650407647.749947,71.0,0.0,4175.897461,4472.307617,4250.769043,4269.230957,4170.256348,450.0,4.0,86.0,,,,0.0,4.0,4.0,0.0,0.0,4.0,33.333332,,,,,,,,,,,,,,,,,,,,,,,,,,,,,,,,,,,,,,,,,,,,,,,,,,,,,,,,,,,,,,,,,,,,,,,,,,,,,,,,,,,,
10362,1650407647.7566571,1650407647.7576609,72.0,0.0,4174.358886999999,4612.307617,4216.922852000001,4270.769043,4157.94873,450.0,4.0,86.0,,,,0.0,4.0,4.0,0.0,0.0,4.0,33.333332,,,,,,,,36.0,0.0,0.257352,-0.42749,0.550049,0.669678,0.8642709999999999,-0.515633,-0.027832,-0.033798,-0.037844,-0.01931,,,,,,,,,,,,,,,,,,,,,,,,,,,,,,,,,,,,,,,,,,,,,,,,,,,,,,,,,,,,,,,,,
10363,1650407647.764472,1650407647.765476,73.0,0.0,4158.974121,4586.666504,4199.487305,4269.743652,4222.05127,0.0,4.0,86.0,,,,0.0,4.0,4.0,0.0,0.0,4.0,33.333332,,,,,,,,,,,,,,,,,,,,,,,,,,,,,,,,,,,,,,,,,,,,,,,,,,,,,,,,,,,,,,,,,,,,,,,,,,,,,,,,,,,,
10364,1650407647.772286,1650407647.773191,74.0,0.0,4146.666504,4535.384765999999,4175.897461,4268.717772999999,4318.461426,450.0,4.0,86.0,,,,0.0,4.0,4.0,0.0,0.0,4.0,33.333332,,,,,,,,37.0,0.0,0.257238,-0.42749,0.549805,0.669922,0.8608530000000001,-0.537118,-0.025879000000000003,-0.033837,-0.037917,-0.023482,,,,,,,,,,,,,,,,,,,,,,,,,,,,,,,,,,,0.0,1.0,1.0,0.0,128.0,1.0,,,,,,,,,,,,,,,,,,,,,,,,,
10365,1650407647.780101,1650407647.7810051,75.0,0.0,4139.487305,4586.666504,4168.717772999999,4269.743652,4401.538574,16247.0,4.0,86.0,,,,0.0,4.0,4.0,0.0,0.0,4.0,33.333332,,,,,,,,,,,,,,,,,,,,,,,,,,,,,,,,,,,,,,,,,,,,,,,,,,,,,,,,,,,,,,,,,,,,,,,,,,,,,,,,,,,,
10366,1650407647.787915,1650407647.78872,76.0,0.0,4127.692383,4644.615234000001,4198.461426,4269.743652,4480.512695,450.0,4.0,86.0,,,,0.0,4.0,4.0,0.0,0.0,4.0,33.333332,,,,,,,,38.0,0.0,0.257238,-0.42749,0.549805,0.669922,0.8525520000000001,-0.526375,-0.023926,-0.033822000000000005,-0.037787,-0.024552,,,,,,,,,,,,,,,,,,,,,,,,,,,,,,,,,,,,,,,,,,,,,,,,,,,,,,,,,,,,,,,,,
10367,1650407647.79573,1650407647.796635,77.0,0.0,4107.692383,4601.538574,4176.410156,4267.179688,4490.769043,450.0,4.0,86.0,,,,0.0,4.0,4.0,0.0,0.0,4.0,33.333332,,,,,,,,,,,,,,,,,,,,,,,,,,,,,,,,,,,,,,,,,,,,,,,,,,,,,,,,,,,,,,,,,,,,,,,,,,,,,,,,,,,,
10368,1650407647.803544,1650407647.804449,78.0,0.0,4115.384765999999,4546.666504,4163.589844,4267.692383,4497.436035,450.0,4.0,86.0,,,,0.0,4.0,4.0,0.0,0.0,4.0,33.333332,,,,,,,,39.0,0.0,0.257238,-0.42749,0.549805,0.669922,0.861341,-0.537118,-0.036133,-0.033907,-0.037817,-0.02532,,,,,,,,,,,,,,,,,,,,,,,,,,,,,,,,,,,0.0,1.0,1.0,0.0,128.0,1.0,,,,,,,,,,,,,,,,,,,,,,,,,
10369,1650407647.811359,1650407647.812364,79.0,0.0,4132.820313,4537.436035,4175.897461,4269.743652,4529.230957,16247.0,4.0,86.0,,,,0.0,4.0,4.0,0.0,0.0,4.0,33.333332,,,,,,,,,,,,,,,,,,,,,,,,,,,,,,,,,,,,,,,,,,,,,,,,,,,,,,,,,,,,,,,,,,,,,,,,,,,,,,,,,,,,
10370,1650407647.819174,1650407647.820179,80.0,0.0,4128.717772999999,4542.05127,4209.743652,4268.205078,4537.436035,450.0,4.0,86.0,,,,0.0,4.0,4.0,0.0,0.0,4.0,33.333332,,,,,,,,40.0,0.0,0.257238,-0.42749,0.549805,0.669922,0.8608530000000001,-0.537118,-0.025879000000000003,-0.034032,-0.037844,-0.026108,,,,,,,,,,,,,,,,,,,,,,,,,,,,,,,,,,,,,,,,,,,,,,,,,,,,,,,,,,,,,,,,,
10371,1650407647.826988,1650407647.828093,81.0,0.0,4113.846191,4546.153809,4220.0,4268.205078,4513.333496,450.0,4.0,86.0,,,,0.0,4.0,4.0,0.0,0.0,4.0,33.333332,,,,,,,,,,,,,,,,,,,,,,,,,,,,,,,,,,,,,,,,,,,,,,,,,,,,,,,,,,,,,,,,,,,,,,,,,,,,,,,,,,,,
10372,1650407647.8348029,1650407647.835908,82.0,0.0,4115.897461,4571.282227000001,4247.179688,4270.256348,4489.743652,450.0,4.0,86.0,,,,0.0,4.0,4.0,0.0,0.0,4.0,33.333332,,,,,,,,41.0,0.0,0.257238,-0.42749,0.549805,0.669922,0.861341,-0.537118,-0.036133,-0.034095,-0.037868,-0.026719999999999997,,,,,,,,,,,,,,,,,,,,,,,,,,,,,,,,,,,0.0,1.0,1.0,0.0,128.0,1.0,,,,,,,,,,,,,,,,,,,,,,,,,
10373,1650407647.842617,1650407647.843622,83.0,0.0,4140.0,4607.179688,4251.794922,4269.230957,4498.974121,16247.0,4.0,86.0,,,,0.0,4.0,4.0,0.0,0.0,4.0,33.333332,,,,,,,,,,,,,,,,,,,,,,,,,,,,,,,,,,,,,,,,,,,,,,,,,,,,,,,,,,,,,,,,,,,,,,,,,,,,,,,,,,,,
10374,1650407647.850432,1650407647.8514369,84.0,0.0,4149.743652,4606.153809,4316.410156,4268.205078,4503.589844,450.0,4.0,86.0,,,,0.0,4.0,4.0,0.0,0.0,4.0,33.333332,,,,,,,,42.0,0.0,0.257238,-0.42749,0.549805,0.669922,0.8715950000000001,-0.518563,-0.030274000000000002,-0.034201999999999996,-0.03789,-0.027368,,,,,,,,,,,,,,,,,,,,,,,,,,,,,,,,,,,,,,,,,,,,,,,,,,,,,,,,,,,,,,,,,
10375,1650407647.858246,1650407647.8591518,85.0,0.0,4126.666504,4570.769043,4296.922852000001,4269.743652,4470.769043,450.0,4.0,86.0,,,,0.0,4.0,4.0,0.0,0.0,4.0,33.333332,,,,,,,,,,,,,,,,,,,,,,,,,,,,,,,,,,,,,,,,,,,,,,,,,,,,,,,,,,,,,,,,,,,,,,,,,,,,,,,,,,,,
10376,1650407647.866061,1650407647.866967,86.0,0.0,4107.179688,4577.436035,4231.282227000001,4268.717772999999,4421.025879,450.0,4.0,86.0,,,,0.0,4.0,4.0,0.0,0.0,4.0,33.333332,1.0,0.0,3.0,0.0,0.0,0.0,0.0,43.0,0.0,0.257238,-0.42749,0.549805,0.669922,0.863783,-0.528328,-0.020508000000000002,-0.034199,-0.037861,-0.027951999999999998,1.0,0.0,0.0,,,,,,,,,,,,,,,,,,,,,,,,,,,,,,,,0.0,0.0,1.0,0.0,128.0,1.0,11.610275999999999,4.618195,0.812966,2.003517,2.333455,144.07669099999998,31.297749,33.309517,23.570219,11.273517,45.217464,45.243317,14.072042000000001,8.852313,8.419001,0.07170900000000001,0.081215,0.07772000000000001,0.017921,0.037771,157.043793,28.134502,4.207358999999999,2.506179,2.82856
10377,1650407647.873876,1650407647.874681,87.0,0.0,4151.794922,4653.333496,4220.0,4269.230957,4442.05127,16247.0,4.0,86.0,,,,0.0,4.0,4.0,0.0,0.0,4.0,33.333332,,,,,,,,,,,,,,,,,,,,,,,,,,,,,,,,,,,,,,,,,,,,,,,,,,,,,,,,,,,,,,,,,,,,,,,,,,,,,,,,,,,,
10378,1650407647.88169,1650407647.882496,88.0,0.0,4177.436035,4634.871582,4234.358886999999,4270.256348,4468.205078,450.0,4.0,86.0,,,,0.0,4.0,4.0,0.0,0.0,4.0,33.333332,,,,,,,,44.0,0.0,0.256832,-0.427734,0.549805,0.669922,0.8574350000000001,-0.500984,-0.026368,-0.0341,-0.037932,-0.024961,,,,,,,,,,,,,,,,,,,,,,,,,,,,,,,,,,,,,,,,,,,,,,,,,,,,,,,,,,,,,,,,,
10379,1650407647.8895051,1650407647.8902109,89.0,0.0,4165.641113000001,4546.153809,4162.05127,4270.256348,4446.153809,450.0,4.0,86.0,,,,0.0,4.0,4.0,0.0,0.0,4.0,33.333332,,,,,,,,,,,,,,,,,,,,,,,,,,,,,,,,,,,,,,,,,,,,,,,,,,,,,,,,,,,,,,,,,,,,,,,,,,,,,,,,,,,,
10380,1650407647.8973188,1650407647.898025,90.0,0.0,4158.974121,4615.384765999999,4154.871582,4269.743652,4422.05127,450.0,4.0,86.0,,,,0.0,4.0,4.0,0.0,0.0,4.0,33.333332,,,,,,,,45.0,0.0,0.256832,-0.427734,0.549805,0.669922,0.8525520000000001,-0.5234449999999999,-0.021973,-0.034059,-0.03785,-0.025737,,,,,,,,,,,,,,,,,,,,,,,,,,,,,,,,,,,0.0,0.0,1.0,0.0,128.0,1.0,,,,,,,,,,,,,,,,,,,,,,,,,
10381,1650407647.905134,1650407647.90574,91.0,0.0,4168.205078,4751.282227000001,4207.692383,4269.230957,4412.307617,16247.0,4.0,86.0,,,,0.0,4.0,4.0,0.0,0.0,4.0,33.333332,,,,,,,,,,,,,,,,,,,,,,,,,,,,,,,,,,,,,,,,,,,,,,,,,,,,,,,,,,,,,,,,,,,,,,,,,,,,,,,,,,,,
10382,1650407647.9129481,1650407647.9135551,92.0,0.0,4151.794922,4689.743652,4173.333496,4268.205078,4363.077147999999,450.0,4.0,86.0,,,,0.0,4.0,4.0,0.0,0.0,4.0,33.333332,,,,,,,,46.0,0.0,0.256832,-0.427734,0.549805,0.669922,0.8584120000000001,-0.517098,-0.01709,-0.034022000000000004,-0.037874,-0.026532,,,,,,,,,,,,,,,,,,,,,,,,,,,,,,,,,,,,,,,,,,,,,,,,,,,,,,,,,,,,,,,,,
10383,1650407647.920763,1650407647.921269,93.0,0.0,4137.94873,4545.128418,4136.410156,4267.179688,4336.922852000001,450.0,4.0,86.0,,,,0.0,4.0,4.0,0.0,0.0,4.0,33.333332,,,,,,,,,,,,,,,,,,,,,,,,,,,,,,,,,,,,,,,,,,,,,,,,,,,,,,,,,,,,,,,,,,,,,,,,,,,,,,,,,,,,
10384,1650407647.928578,1650407647.929084,94.0,0.0,4144.615234000001,4570.769043,4186.666504,4267.179688,4351.282227000001,450.0,4.0,86.0,,,,0.0,4.0,4.0,0.0,0.0,4.0,33.333332,,,,,,,,47.0,0.0,0.257238,-0.42749,0.549805,0.669922,0.8481569999999999,-0.5180739999999999,-0.029297000000000004,-0.033941000000000006,-0.037895,-0.02383,,,,,,,,,,,,,,,,,,,,,,,,,,,,,,,,,,,0.0,0.0,1.0,0.0,128.0,1.0,,,,,,,,,,,,,,,,,,,,,,,,,
10385,1650407647.936392,1650407647.936799,95.0,0.0,4168.205078,4677.94873,4274.358886999999,4269.230957,4357.94873,16247.0,4.0,86.0,,,,0.0,4.0,4.0,0.0,0.0,4.0,33.333332,,,,,,,,,,,,,,,,,,,,,,,,,,,,,,,,,,,,,,,,,,,,,,,,,,,,,,,,,,,,,,,,,,,,,,,,,,,,,,,,,,,,
10386,1650407647.944207,1650407647.9446142,96.0,0.0,4185.128418,4642.05127,4284.102539,4270.769043,4343.589844,450.0,4.0,86.0,,,,0.0,4.0,4.0,0.0,0.0,4.0,33.333332,,,,,,,,48.0,0.0,0.257238,-0.42749,0.549805,0.669922,0.87013,-0.531258,-0.016114,-0.033964,-0.037913999999999996,-0.02135,,,,,,,,,,,,,,,,,,,,,,,,,,,,,,,,,,,,,,,,,,,,,,,,,,,,,,,,,,,,,,,,,
10387,1650407647.9520211,1650407647.952328,97.0,0.0,4195.897461,4536.922852000001,4276.922852000001,4270.769043,4337.94873,450.0,4.0,86.0,,,,0.0,4.0,4.0,0.0,0.0,4.0,33.333332,,,,,,,,,,,,,,,,,,,,,,,,,,,,,,,,,,,,,,,,,,,,,,,,,,,,,,,,,,,,,,,,,,,,,,,,,,,,,,,,,,,,
10388,1650407647.959836,1650407647.9601429,98.0,0.0,4194.871582,4530.769043,4222.563965,4271.282227000001,4325.128418,450.0,4.0,86.0,,,,0.0,4.0,4.0,0.0,0.0,4.0,33.333332,,,,,,,,49.0,0.0,0.257238,-0.42749,0.549805,0.669922,0.8657360000000001,-0.517098,-0.029786,-0.034035,-0.037883,-0.022584,,,,,,,,,,,,,,,,,,,,,,,,,,,,,,,,,,,0.0,0.0,1.0,0.0,128.0,1.0,,,,,,,,,,,,,,,,,,,,,,,,,
10389,1650407647.967651,1650407647.967858,99.0,0.0,4191.794922,4576.410156,4218.974121,4271.282227000001,4310.769043,16247.0,4.0,86.0,,,,0.0,4.0,4.0,0.0,0.0,4.0,33.333332,,,,,,,,,,,,,,,,,,,,,,,,,,,,,,,,,,,,,,,,,,,,,,,,,,,,,,,,,,,,,,,,,,,,,,,,,,,,,,,,,,,,
10390,1650407647.975465,1650407647.9757721,100.0,0.0,4216.922852000001,4600.512695,4246.153809,4270.769043,4329.743652,450.0,4.0,86.0,,,,0.0,4.0,4.0,0.0,0.0,4.0,33.333332,,,,,,,,50.0,0.0,0.257238,-0.42749,0.549805,0.669922,0.8569469999999999,-0.51075,-0.024903,-0.033951999999999996,-0.037805,-0.023743,,,,,,,,,,,,,,,,,,,,,,,,,,,,,,,,,,,,,,,,,,,,,,,,,,,,,,,,,,,,,,,,,
10391,1650407647.9832802,1650407647.983587,101.0,0.0,4215.384765999999,4650.769043,4266.153809,4270.769043,4318.974121,450.0,4.0,86.0,,,,0.0,4.0,4.0,0.0,0.0,4.0,33.333332,,,,,,,,,,,,,,,,,,,,,,,,,,,,,,,,,,,,,,,,,,,,,,,,,,,,,,,,,,,,,,,,,,,,,,,,,,,,,,,,,,,,
10392,1650407647.9910939,1650407647.991501,102.0,0.0,4193.333496,4690.769043,4199.487305,4270.769043,4281.538574,450.0,4.0,86.0,,,,0.0,4.0,4.0,0.0,0.0,4.0,33.333332,,,,,,,,51.0,0.0,0.257238,-0.42749,0.549805,0.669922,0.871107,-0.525399,-0.026856,-0.033877,-0.037833,-0.02132,1.0,0.0,0.0,,,,,,,,,,,,,,,,,,,,,,,,,,,,,,,,0.0,0.0,1.0,0.0,128.0,1.0,30.112988,4.596736,1.0104540000000002,1.7625110000000002,2.148214,155.805786,27.461025,35.110119,23.013855,10.833244,45.513031,45.43594,12.556881,8.47459,8.049238,0.127524,0.077069,0.086241,0.020968,0.035588,555.571838,112.208382,10.851964,3.0462759999999998,2.6175990000000002
10393,1650407647.998909,1650407647.999316,103.0,0.0,4187.692383,4656.922852000001,4193.333496,4270.256348,4249.230957,16247.0,4.0,86.0,,,,0.0,4.0,4.0,0.0,0.0,4.0,33.333332,,,,,,,,,,,,,,,,,,,,,,,,,,,,,,,,,,,,,,,,,,,,,,,,,,,,,,,,,,,,,,,,,,,,,,,,,,,,,,,,,,,,
10394,1650407648.006724,1650407648.007231,104.0,0.0,4215.897461,4630.256348,4232.307617,4273.333496,4252.820313,450.0,4.0,86.0,,,,0.0,4.0,4.0,0.0,0.0,4.0,33.333332,,,,,,,,52.0,0.0,0.257238,-0.42749,0.549805,0.669922,0.8564579999999999,-0.508797,-0.018067,-0.033907,-0.03781,-0.02539,,,,,,,,,,,,,,,,,,,,,,,,,,,,,,,,,,,,,,,,,,,,,,,,,,,,,,,,,,,,,,,,,
10395,1650407648.014538,1650407648.015045,105.0,0.0,4230.769043,4644.615234000001,4230.769043,4273.333496,4260.0,450.0,4.0,86.0,,,,0.0,4.0,4.0,0.0,0.0,4.0,33.333332,,,,,,,,,,,,,,,,,,,,,,,,,,,,,,,,,,,,,,,,,,,,,,,,,,,,,,,,,,,,,,,,,,,,,,,,,,,,,,,,,,,,
10396,1650407648.022353,1650407648.02296,106.0,0.0,4233.333496,4643.589844,4167.692383,4271.794922,4252.307617,450.0,4.0,86.0,,,,0.0,4.0,4.0,0.0,0.0,4.0,33.333332,,,,,,,,53.0,0.0,0.25712199999999996,-0.427246,0.550049,0.669922,0.8413209999999999,-0.515633,-0.027344,-0.033935,-0.037739999999999996,-0.026170999999999996,,,,,,,,,,,,,,,,,,,,,,,,,,,,,,,,,,,0.0,0.0,1.0,0.0,128.0,1.0,,,,,,,,,,,,,,,,,,,,,,,,,
10397,1650407648.030167,1650407648.030774,107.0,0.0,4212.820313,4613.846191,4138.974121,4271.794922,4217.94873,16247.0,4.0,86.0,,,,0.0,4.0,4.0,0.0,0.0,4.0,33.333332,,,,,,,,,,,,,,,,,,,,,,,,,,,,,,,,,,,,,,,,,,,,,,,,,,,,,,,,,,,,,,,,,,,,,,,,,,,,,,,,,,,,
10398,1650407648.037982,1650407648.0386891,108.0,0.0,4200.0,4567.692383,4156.410156,4272.820313,4205.128418,450.0,4.0,86.0,,,,0.0,4.0,4.0,0.0,0.0,4.0,33.333332,,,,,,,,54.0,0.0,0.25712199999999996,-0.427246,0.550049,0.669922,0.8584120000000001,-0.516121,-0.03418,-0.034008,-0.037823,-0.026874000000000002,,,,,,,,,,,,,,,,,,,,,,,,,,,,,,,,,,,,,,,,,,,,,,,,,,,,,,,,,,,,,,,,,
10399,1650407648.045797,1650407648.046504,109.0,0.0,4198.974121,4562.05127,4156.410156,4272.820313,4191.794922,450.0,4.0,86.0,,,,0.0,4.0,4.0,0.0,0.0,4.0,33.333332,,,,,,,,,,,,,,,,,,,,,,,,,,,,,,,,,,,,,,,,,,,,,,,,,,,,,,,,,,,,,,,,,,,,,,,,,,,,,,,,,,,,
10400,1650407648.053611,1650407648.054218,110.0,0.0,4196.922852000001,4602.563965,4176.922852000001,4272.820313,4162.563965,450.0,4.0,86.0,,,,0.0,4.0,4.0,0.0,0.0,4.0,33.333332,,,,,,,,55.0,0.0,0.25659899999999997,-0.427246,0.550293,0.669922,0.870619,-0.523934,-0.027344,-0.034025,-0.037947,-0.021355000000000002,,,,,,,,,,,,,,,,,,,,,,,,,,,,,,,,,,,0.0,0.0,1.0,0.0,128.0,1.0,,,,,,,,,,,,,,,,,,,,,,,,,
10401,1650407648.061426,1650407648.062033,111.0,0.0,4188.205078,4580.512695,4201.538574,4273.846191,4129.230957,16247.0,4.0,86.0,,,,0.0,4.0,4.0,0.0,0.0,4.0,33.333332,,,,,,,,,,,,,,,,,,,,,,,,,,,,,,,,,,,,,,,,,,,,,,,,,,,,,,,,,,,,,,,,,,,,,,,,,,,,,,,,,,,,
10402,1650407648.06924,1650407648.0697482,112.0,0.0,4212.820313,4533.846191,4253.846191,4272.820313,4133.333496,450.0,4.0,86.0,,,,0.0,4.0,4.0,0.0,0.0,4.0,33.333332,,,,,,,,56.0,0.0,0.25700500000000004,-0.42700200000000005,0.550293,0.669922,0.862806,-0.518563,-0.032715,-0.034089999999999995,-0.03801,-0.02254,,,,,,,,,,,,,,,,,,,,,,,,,,,,,,,,,,,,,,,,,,,,,,,,,,,,,,,,,,,,,,,,,
10403,1650407648.077055,1650407648.0775619,113.0,0.0,4254.871582,4574.358886999999,4293.846191,4272.820313,4170.769043,450.0,4.0,86.0,,,,0.0,4.0,4.0,0.0,0.0,4.0,33.333332,,,,,,,,,,,,,,,,,,,,,,,,,,,,,,,,,,,,,,,,,,,,,,,,,,,,,,,,,,,,,,,,,,,,,,,,,,,,,,,,,,,,
10404,1650407648.084869,1650407648.0852768,114.0,0.0,4266.666504,4622.05127,4328.717772999999,4272.820313,4177.94873,450.0,4.0,86.0,,,,0.0,4.0,4.0,0.0,0.0,4.0,33.333332,,,,,,,,57.0,0.0,0.25700500000000004,-0.42700200000000005,0.550293,0.669922,0.8574350000000001,-0.531258,-0.018067,-0.034147000000000004,-0.038067000000000004,-0.023606,,,,,,,,,,,,,,,,,,,,,,,,,,,,,,,,,,,0.0,0.0,1.0,0.0,128.0,1.0,,,,,,,,,,,,,,,,,,,,,,,,,
10405,1650407648.092684,1650407648.093192,115.0,0.0,4260.0,4605.641113000001,4263.589844,4272.307617,4149.743652,16247.0,4.0,86.0,,,,0.0,4.0,4.0,0.0,0.0,4.0,33.333332,,,,,,,,,,,,,,,,,,,,,,,,,,,,,,,,,,,,,,,,,,,,,,,,,,,,,,,,,,,,,,,,,,,,,,,,,,,,,,,,,,,,
10406,1650407648.100499,1650407648.101006,116.0,0.0,4242.563965,4617.94873,4239.487305,4271.282227000001,4122.563965,450.0,4.0,86.0,,,,0.0,4.0,4.0,0.0,0.0,4.0,33.333332,,,,,,,,58.0,0.0,0.25700500000000004,-0.42700200000000005,0.550293,0.669922,0.864759,-0.528328,-0.021973,-0.0342,-0.038069,-0.024516999999999997,,,,,,,,,,,,,,,,,,,,,,,,,,,,,,,,,,,,,,,,,,,,,,,,,,,,,,,,,,,,,,,,,
10407,1650407648.108313,1650407648.108921,117.0,0.0,4238.974121,4625.128418,4247.179688,4271.282227000001,4117.436035,450.0,4.0,86.0,,,,0.0,4.0,4.0,0.0,0.0,4.0,33.333332,,,,,,,,,,,,,,,,,,,,,,,,,,,,,,,,,,,,,,,,,,,,,,,,,,,,,,,,,,,,,,,,,,,,,,,,,,,,,,,,,,,,
10408,1650407648.116128,1650407648.116736,118.0,0.0,4233.846191,4544.615234000001,4228.717772999999,4272.820313,4090.7692869999996,450.0,4.0,86.0,,,,0.0,4.0,4.0,0.0,0.0,4.0,33.333332,,,,,,,,59.0,0.0,0.25700500000000004,-0.42700200000000005,0.550293,0.669922,0.8608530000000001,-0.52784,-0.023926,-0.034198,-0.038119,-0.019136,1.0,0.0,0.0,,,,,,,,,,,,,,,,,,,,,,,,,,,,,,,,0.0,0.0,1.0,0.0,128.0,1.0,61.948738,5.03205,1.345569,1.6425939999999999,2.118664,233.46908599999998,24.867376,36.871189,22.649794,10.876509,48.744354,46.702628999999995,10.566569,8.474347,7.484961,0.223243,0.071949,0.088042,0.023722,0.033125999999999996,1382.819092,306.549103,26.532726,4.800107,2.742717
10409,1650407648.123942,1650407648.12455,119.0,0.0,4237.94873,4503.077147999999,4172.820313,4273.846191,4067.6923829999996,16247.0,4.0,86.0,,,,0.0,4.0,4.0,0.0,0.0,4.0,33.333332,,,,,,,,,,,,,,,,,,,,,,,,,,,,,,,,,,,,,,,,,,,,,,,,,,,,,,,,,,,,,,,,,,,,,,,,,,,,,,,,,,,,
10410,1650407648.131757,1650407648.132265,120.0,0.0,4240.0,4581.538574,4183.589844,4272.820313,4073.8461909999996,450.0,4.0,86.0,,,,0.0,4.0,4.0,0.0,0.0,4.0,33.333332,,,,,,,,60.0,0.0,0.257641,-0.42700200000000005,0.550293,0.669678,0.867201,-0.512215,-0.044433999999999994,-0.034147000000000004,-0.038165,-0.017172999999999997,,,,,,,,,,,,,,,,,,,,,,,,,,,,,,,,,,,,,,,,,,,,,,,,,,,,,,,,,,,,,,,,,
10411,1650407648.1395712,1650407648.140179,121.0,0.0,4246.153809,4586.666504,4183.589844,4271.282227000001,4084.102539,450.0,4.0,86.0,,,,0.0,4.0,4.0,0.0,0.0,4.0,33.333332,,,,,,,,,,,,,,,,,,,,,,,,,,,,,,,,,,,,,,,,,,,,,,,,,,,,,,,,,,,,,,,,,,,,,,,,,,,,,,,,,,,,
10412,1650407648.1473858,1650407648.147994,122.0,0.0,4219.487305,4477.94873,4163.589844,4271.282227000001,4034.358887,450.0,4.0,86.0,,,,0.0,4.0,4.0,0.0,0.0,4.0,33.333332,,,,,,,,61.0,0.0,0.257236,-0.427246,0.550293,0.669678,0.854017,-0.526864,-0.036133,-0.03415,-0.038255000000000004,-0.012477,,,,,,,,,,,,,,,,,,,,,,,,,,,,,,,,,,,0.0,0.0,1.0,0.0,128.0,1.0,,,,,,,,,,,,,,,,,,,,,,,,,
10413,1650407648.155201,1650407648.155809,123.0,0.0,4209.230957,4524.615234000001,4188.717772999999,4270.769043,4015.384521,16247.0,4.0,86.0,,,,0.0,4.0,4.0,0.0,0.0,4.0,33.333332,,,,,,,,,,,,,,,,,,,,,,,,,,,,,,,,,,,,,,,,,,,,,,,,,,,,,,,,,,,,,,,,,,,,,,,,,,,,,,,,,,,,
10414,1650407648.1630151,1650407648.163523,124.0,0.0,4238.461426,4697.94873,4239.487305,4270.256348,4048.205078,450.0,4.0,86.0,,,,0.0,4.0,4.0,0.0,0.0,4.0,33.333332,,,,,,,,62.0,0.0,0.257236,-0.427246,0.550293,0.669678,0.8564579999999999,-0.532723,-0.036133,-0.034251,-0.03814,-0.014452000000000001,,,,,,,,,,,,,,,,,,,,,,,,,,,,,,,,,,,,,,,,,,,,,,,,,,,,,,,,,,,,,,,,,
10415,1650407648.17083,1650407648.171438,125.0,0.0,4253.333496,4690.256348,4264.102539,4271.282227000001,4051.281982,450.0,4.0,86.0,,,,0.0,4.0,4.0,0.0,0.0,4.0,33.333332,,,,,,,,,,,,,,,,,,,,,,,,,,,,,,,,,,,,,,,,,,,,,,,,,,,,,,,,,,,,,,,,,,,,,,,,,,,,,,,,,,,,
10416,1650407648.178644,1650407648.1792529,126.0,0.0,4228.205078,4565.641113000001,4237.94873,4271.282227000001,4011.281982,450.0,4.0,86.0,,,,0.0,4.0,4.0,0.0,0.0,4.0,33.333332,,,,,,,,63.0,0.0,0.257757,-0.427246,0.550049,0.669678,0.875502,-0.531746,-0.035644999999999996,-0.034194999999999996,-0.038086,-0.012812,,,,,,,,,,,,,,,,,,,,,,,,,,,,,,,,,,,0.0,0.0,1.0,0.0,128.0,1.0,,,,,,,,,,,,,,,,,,,,,,,,,
10417,1650407648.186459,1650407648.187167,127.0,0.0,4247.179688,4585.641113000001,4229.743652,4272.307617,4030.7692869999996,241.0,4.0,86.0,,,,0.0,4.0,4.0,0.0,0.0,4.0,33.333332,,,,,,,,,,,,,,,,,,,,,,,,,,,,,,,,,,,,,,,,,,,,,,,,,,,,,,,,,,,,,,,,,,,,,,,,,,,,,,,,,,,,
10418,1650407648.194273,1650407648.194982,0.0,0.0,4270.769043,4651.282227000001,4210.769043,4273.846191,4055.384521,450.0,4.0,86.0,,,,0.0,4.0,4.0,0.0,0.0,4.0,33.333332,,,,,,,,0.0,0.0,0.257757,-0.427246,0.550049,0.669678,0.862806,-0.5297930000000001,-0.028321,-0.034194,-0.038037,-0.011335,,,,,,,,,,,,,,,,,,,,,,,,,,,,,,,,,,,,,,,,,,,,,,,,,,,,,,,,,,,,,,,,,
10419,1650407648.202088,1650407648.202896,1.0,0.0,4250.256348,4626.153809,4220.512695,4273.333496,4010.256348,450.0,4.0,86.0,,,,0.0,4.0,4.0,0.0,0.0,4.0,33.333332,,,,,,,,,,,,,,,,,,,,,,,,,,,,,,,,,,,,,,,,,,,,,,,,,,,,,,,,,,,,,,,,,,,,,,,,,,,,,,,,,,,,
10420,1650407648.209903,1650407648.210711,2.0,0.0,4237.436035,4623.589844,4225.641113000001,4272.307617,3974.358887,16202.0,4.0,86.0,,,,0.0,4.0,4.0,0.0,0.0,4.0,33.333332,,,,,,,,1.0,0.0,0.257757,-0.427246,0.550049,0.669678,0.8569469999999999,-0.522469,-0.034668,-0.034192,-0.038042,-0.013472999999999999,,,,,,,,,,,,,,,,,,,,,,,,,,,,,,,,,,,0.0,0.0,1.0,0.0,128.0,1.0,,,,,,,,,,,,,,,,,,,,,,,,,
10421,1650407648.217717,1650407648.218526,3.0,0.0,4245.128418,4664.102539,4235.384765999999,4271.794922,3973.8461909999996,450.0,4.0,86.0,,,,0.0,4.0,4.0,0.0,0.0,4.0,33.333332,,,,,,,,,,,,,,,,,,,,,,,,,,,,,,,,,,,,,,,,,,,,,,,,,,,,,,,,,,,,,,,,,,,,,,,,,,,,,,,,,,,,
10422,1650407648.225532,1650407648.2262402,4.0,0.0,4258.461426,4691.282227000001,4242.05127,4272.307617,3984.615479,0.0,4.0,86.0,,,,0.0,4.0,0.0,0.0,0.0,4.0,0.0,,,,,,,,2.0,0.0,0.257757,-0.427246,0.550049,0.669678,0.8657360000000001,-0.526375,-0.01709,-0.034142,-0.037998000000000004,-0.015446000000000001,,,,,,,,,,,,,,,,,,,,,,,,,,,,,,,,,,,,,,,,,,,,,,,,,,,,,,,,,,,,,,,,,
10423,1650407648.233346,1650407648.234055,5.0,0.0,4250.256348,4708.717772999999,4297.436035,4273.333496,3972.820557,450.0,4.0,86.0,,,,0.0,4.0,0.0,0.0,0.0,4.0,0.0,,,,,,,,,,,,,,,,,,,,,,,,,,,,,,,,,,,,,,,,,,,,,,,,,,,,,,,,,,,,,,,,,,,,,,,,,,,,,,,,,,,,
10424,1650407648.2411609,1650407648.24187,6.0,0.0,4233.846191,4723.589844,4263.077147999999,4273.333496,3953.3332520000004,34.0,4.0,86.0,,,,0.0,4.0,0.0,0.0,0.0,4.0,0.0,,,,,,,,3.0,0.0,0.25787,-0.427246,0.550293,0.669434,0.8642709999999999,-0.527352,-0.014159999999999999,-0.034194999999999996,-0.038055,-0.010971999999999999,1.0,0.0,0.0,,,,,,,,,,,,,,,,,,,,,,,,,,,,,,,,0.0,0.0,1.0,0.0,128.0,0.290923,103.27265899999999,5.849054,1.7809110000000001,1.657836,2.220666,386.445068,25.836699,38.606007,22.020308,11.675066000000001,54.08128000000001,49.941532,8.710602,8.722142999999999,6.848591000000001,0.347591,0.06714400000000001,0.082447,0.025587000000000002,0.030277999999999996,2657.04834,622.5438839999999,53.37657900000001,8.077676,3.215089
10425,1650407648.248975,1650407648.249684,7.0,0.0,4213.333496,4727.692383,4223.589844,4271.282227000001,3933.8461909999996,450.0,4.0,86.0,,,,0.0,4.0,0.0,0.0,0.0,4.0,0.0,,,,,,,,,,,,,,,,,,,,,,,,,,,,,,,,,,,,,,,,,,,,,,,,,,,,,,,,,,,,,,,,,,,,,,,,,,,,,,,,,,,,
10426,1650407648.25679,1650407648.257399,8.0,0.0,4237.94873,4722.05127,4203.077147999999,4272.820313,3938.461426,450.0,4.0,86.0,,,,0.0,4.0,0.0,0.0,0.0,4.0,0.0,,,,,,,,4.0,0.0,0.257757,-0.427246,0.550049,0.669678,0.8569469999999999,-0.522469,-0.034668,-0.034145,-0.037961,-0.013194999999999998,,,,,,,,,,,,,,,,,,,,,,,,,,,,,,,,,,,,,,,,,,,,,,,,,,,,,,,,,,,,,,,,,
10427,1650407648.264605,1650407648.265114,9.0,0.0,4268.717772999999,4701.025879,4187.179688,4277.94873,3948.718018,0.0,4.0,86.0,,,,0.0,4.0,0.0,0.0,0.0,4.0,0.0,,,,,,,,,,,,,,,,,,,,,,,,,,,,,,,,,,,,,,,,,,,,,,,,,,,,,,,,,,,,,,,,,,,,,,,,,,,,,,,,,,,,
10428,1650407648.272419,1650407648.272929,10.0,0.0,4272.307617,4657.94873,4172.820313,4277.94873,3947.179443,450.0,4.0,86.0,,,,0.0,4.0,0.0,0.0,0.0,4.0,0.0,,,,,,,,5.0,0.0,0.25787,-0.427246,0.550293,0.669434,0.8642709999999999,-0.527352,-0.014159999999999999,-0.034197000000000005,-0.038022,-0.008945999999999999,,,,,,,,,,,,,,,,,,,,,,,,,,,,,,,,,,,0.0,0.0,1.0,0.0,128.0,0.290923,,,,,,,,,,,,,,,,,,,,,,,,,
10429,1650407648.280234,1650407648.280643,11.0,0.0,4261.538574,4654.871582,4170.256348,4272.820313,3919.487061,16157.0,4.0,86.0,,,,0.0,4.0,0.0,0.0,0.0,4.0,0.0,,,,,,,,,,,,,,,,,,,,,,,,,,,,,,,,,,,,,,,,,,,,,,,,,,,,,,,,,,,,,,,,,,,,,,,,,,,,,,,,,,,,
10430,1650407648.288048,1650407648.288458,12.0,0.0,4275.384765999999,4727.692383,4168.205078,4271.794922,3923.076904,450.0,4.0,86.0,,,,0.0,4.0,0.0,0.0,0.0,4.0,0.0,,,,,,,,6.0,0.0,0.25787,-0.427246,0.550293,0.669434,0.8652479999999999,-0.522957,-0.033692,-0.034145999999999996,-0.037882,-0.01142,,,,,,,,,,,,,,,,,,,,,,,,,,,,,,,,,,,,,,,,,,,,,,,,,,,,,,,,,,,,,,,,,
10431,1650407648.2958632,1650407648.296173,13.0,0.0,4282.05127,4775.384765999999,4185.641113000001,4274.358886999999,3939.487061,450.0,4.0,86.0,,,,0.0,4.0,0.0,0.0,0.0,4.0,0.0,,,,,,,,,,,,,,,,,,,,,,,,,,,,,,,,,,,,,,,,,,,,,,,,,,,,,,,,,,,,,,,,,,,,,,,,,,,,,,,,,,,,
10432,1650407648.3036768,1650407648.303987,14.0,0.0,4271.794922,4735.897461,4224.615234000001,4273.333496,3929.2307130000004,450.0,4.0,86.0,,,,0.0,4.0,0.0,0.0,0.0,4.0,0.0,,,,,,,,7.0,0.0,0.257236,-0.427246,0.550293,0.669678,0.849134,-0.520516,-0.024413999999999998,-0.034101,-0.037805,-0.013599000000000002,,,,,,,,,,,,,,,,,,,,,,,,,,,,,,,,,,,0.0,0.0,1.0,0.0,128.0,0.290923,,,,,,,,,,,,,,,,,,,,,,,,,
10433,1650407648.311492,1650407648.311702,15.0,0.0,4249.743652,4741.025879,4218.974121,4271.794922,3900.512939,16157.0,4.0,86.0,,,,0.0,4.0,0.0,0.0,0.0,4.0,0.0,,,,,,,,,,,,,,,,,,,,,,,,,,,,,,,,,,,,,,,,,,,,,,,,,,,,,,,,,,,,,,,,,,,,,,,,,,,,,,,,,,,,
10434,1650407648.319307,1650407648.319517,16.0,0.0,4239.487305,4807.692383,4230.256348,4272.820313,3896.923096,0.0,4.0,86.0,,,,0.0,4.0,0.0,0.0,0.0,4.0,0.0,,,,,,,,8.0,0.0,0.25787,-0.427246,0.550293,0.669434,0.8642709999999999,-0.528817,-0.038575,-0.034011,-0.037833,-0.012190000000000001,,,,,,,,,,,,,,,,,,,,,,,,,,,,,,,,,,,,,,,,,,,,,,,,,,,,,,,,,,,,,,,,,
10435,1650407648.327121,1650407648.3272312,17.0,0.0,4258.461426,4758.461426,4215.897461,4273.846191,3920.0,0.0,4.0,86.0,,,,0.0,4.0,0.0,0.0,0.0,4.0,0.0,,,,,,,,,,,,,,,,,,,,,,,,,,,,,,,,,,,,,,,,,,,,,,,,,,,,,,,,,,,,,,,,,,,,,,,,,,,,,,,,,,,,
10436,1650407648.334936,1650407648.335046,18.0,0.0,4285.641113000001,4644.102539,4251.282227000001,4276.922852000001,3934.358887,0.0,4.0,86.0,,,,0.0,4.0,0.0,0.0,0.0,4.0,0.0,,,,,,,,9.0,0.0,0.25787,-0.427246,0.550293,0.669434,0.862318,-0.516121,-0.033692,-0.033979,-0.037857999999999996,-0.00809,,,,,,,,,,,,,,,,,,,,,,,,,,,,,,,,,,,0.0,0.0,1.0,0.0,128.0,0.290923,,,,,,,,,,,,,,,,,,,,,,,,,
10437,1650407648.34275,1650407648.342761,19.0,0.0,4293.333496,4660.512695,4283.077147999999,4277.436035,3929.743652,0.0,4.0,86.0,,,,0.0,4.0,0.0,0.0,0.0,4.0,0.0,,,,,,,,,,,,,,,,,,,,,,,,,,,,,,,,,,,,,,,,,,,,,,,,,,,,,,,,,,,,,,,,,,,,,,,,,,,,,,,,,,,,
10438,1650407648.350565,1650407648.350675,20.0,0.0,4289.230957,4740.0,4288.205078,4274.358886999999,3913.8461909999996,0.0,4.0,86.0,,,,0.0,4.0,0.0,0.0,0.0,4.0,0.0,,,,,,,,10.0,0.0,0.25787,-0.427246,0.550293,0.669434,0.8618299999999999,-0.520516,-0.036622,-0.033951,-0.037784,-0.010601000000000001,,,,,,,,,,,,,,,,,,,,,,,,,,,,,,,,,,,,,,,,,,,,,,,,,,,,,,,,,,,,,,,,,
10439,1650407648.358379,1650407648.35849,21.0,0.0,4305.128418,4697.94873,4231.794922,4275.384765999999,3917.4357909999994,0.0,4.0,86.0,,,,0.0,4.0,0.0,0.0,0.0,4.0,0.0,,,,,,,,,,,,,,,,,,,,,,,,,,,,,,,,,,,,,,,,,,,,,,,,,,,,,,,,,,,,,,,,,,,,,,,,,,,,,,,,,,,,
10440,1650407648.366194,1650407648.366405,22.0,0.0,4294.871582,4633.333496,4204.102539,4278.461426,3903.5898439999996,0.0,4.0,86.0,,,,0.0,4.0,0.0,0.0,0.0,4.0,0.0,1.0,0.0,3.0,0.0,0.0,0.0,0.0,11.0,0.0,0.257465,-0.42749,0.550293,0.669434,0.8593879999999999,-0.518563,-0.024903,-0.034022000000000004,-0.037814,-0.015743,1.0,0.0,0.0,,,,,,,,,,,,,,,,,,,,,,,,,,,,,,,,0.0,0.0,1.0,0.0,128.0,0.49854799999999994,144.685577,6.753781,2.27428,1.786598,2.383404,585.709778,31.194471000000004,39.633957,20.60041,13.331144,59.98548100000001,55.739288,7.75386,8.936482,6.2746949999999995,0.4725,0.062346000000000006,0.071102,0.026298000000000002,0.026875,4174.751953,1009.597473,88.266235,12.522033,3.8770010000000004
10441,1650407648.374009,1650407648.374219,23.0,0.0,4275.384765999999,4673.846191,4175.384765999999,4276.922852000001,3878.461426,0.0,4.0,86.0,,,,0.0,4.0,0.0,0.0,0.0,4.0,0.0,,,,,,,,,,,,,,,,,,,,,,,,,,,,,,,,,,,,,,,,,,,,,,,,,,,,,,,,,,,,,,,,,,,,,,,,,,,,,,,,,,,,
10442,1650407648.381823,1650407648.382134,24.0,0.0,4268.717772999999,4698.461426,4180.512695,4272.307617,3872.3076170000004,0.0,4.0,86.0,,,,0.0,4.0,0.0,0.0,0.0,4.0,0.0,,,,,,,,12.0,0.0,0.257465,-0.42749,0.550293,0.669434,0.861341,-0.514656,-0.037598,-0.034038,-0.037841,-0.014022,,,,,,,,,,,,,,,,,,,,,,,,,,,,,,,,,,,,,,,,,,,,,,,,,,,,,,,,,,,,,,,,,
10443,1650407648.3896382,1650407648.3899481,25.0,0.0,4288.717772999999,4665.641113000001,4181.538574,4272.307617,3897.4357909999994,0.0,4.0,86.0,,,,0.0,4.0,0.0,0.0,0.0,4.0,0.0,,,,,,,,,,,,,,,,,,,,,,,,,,,,,,,,,,,,,,,,,,,,,,,,,,,,,,,,,,,,,,,,,,,,,,,,,,,,,,,,,,,,
10444,1650407648.3974519,1650407648.3978631,26.0,0.0,4303.589844,4658.974121,4189.743652,4274.358886999999,3903.5898439999996,0.0,4.0,86.0,,,,0.0,4.0,0.0,0.0,0.0,4.0,0.0,,,,,,,,13.0,0.0,0.257465,-0.42749,0.550293,0.669434,0.8559700000000001,-0.522957,-0.028321,-0.034052,-0.037768,-0.015891,,,,,,,,,,,,,,,,,,,,,,,,,,,,,,,,,,,0.0,0.0,1.0,0.0,128.0,0.49854799999999994,,,,,,,,,,,,,,,,,,,,,,,,,
10445,1650407648.405267,1650407648.405678,27.0,0.0,4298.461426,4725.641113000001,4230.256348,4275.897461,3897.9487299999996,0.0,4.0,86.0,,,,0.0,4.0,0.0,0.0,0.0,4.0,0.0,,,,,,,,,,,,,,,,,,,,,,,,,,,,,,,,,,,,,,,,,,,,,,,,,,,,,,,,,,,,,,,,,,,,,,,,,,,,,,,,,,,,
10446,1650407648.4130821,1650407648.413592,28.0,0.0,4263.077147999999,4791.794922,4243.077147999999,4275.384765999999,3871.794922,0.0,4.0,86.0,,,,0.0,4.0,0.0,0.0,0.0,4.0,0.0,,,,,,,,14.0,0.0,0.25798699999999997,-0.42749,0.550049,0.669434,0.8593879999999999,-0.5195390000000001,-0.033692,-0.033967000000000004,-0.037898,-0.011420999999999999,,,,,,,,,,,,,,,,,,,,,,,,,,,,,,,,,,,,,,,,,,,,,,,,,,,,,,,,,,,,,,,,,
10447,1650407648.420896,1650407648.421407,29.0,0.0,4256.410156,4767.179688,4212.307617,4273.846191,3857.9487299999996,0.0,4.0,86.0,,,,0.0,4.0,0.0,0.0,0.0,4.0,0.0,,,,,,,,,,,,,,,,,,,,,,,,,,,,,,,,,,,,,,,,,,,,,,,,,,,,,,,,,,,,,,,,,,,,,,,,,,,,,,,,,,,,
10448,1650407648.428711,1650407648.429321,30.0,0.0,4270.769043,4689.743652,4160.0,4275.897461,3858.974365,0.0,4.0,86.0,,,,0.0,4.0,0.0,0.0,0.0,4.0,0.0,,,,,,,,15.0,0.0,0.25758200000000003,-0.427734,0.550049,0.669434,0.854994,-0.522957,-0.03125,-0.034086,-0.037916000000000005,-0.013599000000000002,,,,,,,,,,,,,,,,,,,,,,,,,,,,,,,,,,,0.0,0.0,1.0,0.0,128.0,0.49854799999999994,,,,,,,,,,,,,,,,,,,,,,,,,
10449,1650407648.436525,1650407648.437136,31.0,0.0,4278.974121,4692.307617,4167.692383,4276.410156,3871.281982,0.0,4.0,86.0,,,,0.0,4.0,0.0,0.0,0.0,4.0,0.0,,,,,,,,,,,,,,,,,,,,,,,,,,,,,,,,,,,,,,,,,,,,,,,,,,,,,,,,,,,,,,,,,,,,,,,,,,,,,,,,,,,,
10450,1650407648.44434,1650407648.444851,32.0,0.0,4289.230957,4692.820313,4184.615234000001,4273.846191,3891.794922,0.0,4.0,86.0,,,,0.0,4.0,0.0,0.0,0.0,4.0,0.0,,,,,,,,16.0,0.0,0.25758200000000003,-0.427734,0.550049,0.669434,0.862318,-0.520027,-0.027344,-0.034047,-0.037933,-0.015511000000000002,,,,,,,,,,,,,,,,,,,,,,,,,,,,,,,,,,,,,,,,,,,,,,,,,,,,,,,,,,,,,,,,,
10451,1650407648.452155,1650407648.452665,33.0,0.0,4299.487305,4643.589844,4221.025879,4273.333496,3898.974365,0.0,4.0,86.0,,,,0.0,4.0,0.0,0.0,0.0,4.0,0.0,,,,,,,,,,,,,,,,,,,,,,,,,,,,,,,,,,,,,,,,,,,,,,,,,,,,,,,,,,,,,,,,,,,,,,,,,,,,,,,,,,,,
10452,1650407648.459969,1650407648.46038,34.0,0.0,4284.615234000001,4669.743652,4247.692383,4273.333496,3875.897461,0.0,4.0,86.0,,,,0.0,4.0,0.0,0.0,0.0,4.0,0.0,,,,,,,,17.0,0.0,0.25821500000000003,-0.427734,0.550049,0.669189,0.859876,-0.508797,-0.033692,-0.034158,-0.037752999999999995,-0.017231,,,,,,,,,,,,,,,,,,,,,,,,,,,,,,,,,,,0.0,0.0,1.0,0.0,128.0,0.49854799999999994,,,,,,,,,,,,,,,,,,,,,,,,,
10453,1650407648.467784,1650407648.468195,35.0,0.0,4256.922852000001,4689.743652,4298.461426,4272.307617,3850.256348,0.0,4.0,86.0,,,,0.0,4.0,0.0,0.0,0.0,4.0,0.0,,,,,,,,,,,,,,,,,,,,,,,,,,,,,,,,,,,,,,,,,,,,,,,,,,,,,,,,,,,,,,,,,,,,,,,,,,,,,,,,,,,,
10454,1650407648.475598,1650407648.47591,36.0,0.0,4274.871582,4665.641113000001,4271.282227000001,4272.307617,3868.205078,0.0,4.0,86.0,,,,0.0,4.0,0.0,0.0,0.0,4.0,0.0,,,,,,,,18.0,0.0,0.25781,-0.427979,0.550049,0.669189,0.866712,-0.518563,-0.032715,-0.034063,-0.037738,-0.012627,,,,,,,,,,,,,,,,,,,,,,,,,,,,,,,,,,,,,,,,,,,,,,,,,,,,,,,,,,,,,,,,,
10455,1650407648.483413,1650407648.483724,37.0,0.0,4280.0,4702.563965,4232.820313,4271.794922,3868.718018,0.0,4.0,86.0,,,,0.0,4.0,0.0,0.0,0.0,4.0,0.0,,,,,,,,,,,,,,,,,,,,,,,,,,,,,,,,,,,,,,,,,,,,,,,,,,,,,,,,,,,,,,,,,,,,,,,,,,,,,,,,,,,,
10456,1650407648.491227,1650407648.491439,38.0,0.0,4260.0,4722.05127,4203.589844,4271.794922,3843.076904,0.0,4.0,86.0,,,,0.0,4.0,0.0,0.0,0.0,4.0,0.0,,,,,,,,19.0,0.0,0.25781,-0.427979,0.550049,0.669189,0.8589,-0.5141680000000001,-0.029786,-0.034074,-0.037773,-0.014783000000000001,1.0,0.0,0.0,,,,,,,,,,,,,,,,,,,,,,,,,,,,,,,,0.0,0.0,1.0,0.0,128.0,0.573324,174.145325,7.439474000000001,2.8187889999999998,1.973296,2.515039,773.930603,39.31736,39.326485,18.263641,15.756144,64.960861,63.608109,8.274108,8.865246,5.853757,0.561739,0.056094000000000005,0.057472,0.025901999999999998,0.02301,5540.762207,1364.212036,122.83638,17.081598,4.478408
10457,1650407648.499042,1650407648.499254,39.0,0.0,4264.102539,4663.077147999999,4217.436035,4275.384765999999,3841.025635,0.0,4.0,86.0,,,,0.0,4.0,0.0,0.0,0.0,4.0,0.0,,,,,,,,,,,,,,,,,,,,,,,,,,,,,,,,,,,,,,,,,,,,,,,,,,,,,,,,,,,,,,,,,,,,,,,,,,,,,,,,,,,,
10458,1650407648.506857,1650407648.506968,40.0,0.0,4293.333496,4646.153809,4207.179688,4276.410156,3859.487061,0.0,4.0,86.0,,,,0.0,4.0,0.0,0.0,0.0,4.0,0.0,,,,,,,,20.0,0.0,0.25781,-0.427979,0.550049,0.669189,0.862806,-0.52491,-0.022461000000000002,-0.034085000000000004,-0.037804000000000004,-0.016674,,,,,,,,,,,,,,,,,,,,,,,,,,,,,,,,,,,,,,,,,,,,,,,,,,,,,,,,,,,,,,,,,
10459,1650407648.514671,1650407648.514883,41.0,0.0,4283.077147999999,4683.077147999999,4216.410156,4272.307617,3840.512939,0.0,4.0,86.0,,,,0.0,4.0,0.0,0.0,0.0,4.0,0.0,,,,,,,,,,,,,,,,,,,,,,,,,,,,,,,,,,,,,,,,,,,,,,,,,,,,,,,,,,,,,,,,,,,,,,,,,,,,,,,,,,,,
10460,1650407648.522486,1650407648.522697,42.0,0.0,4283.589844,4694.871582,4241.025879,4271.794922,3860.0,0.0,4.0,86.0,,,,0.0,4.0,0.0,0.0,0.0,4.0,0.0,,,,,,,,21.0,0.0,0.25781,-0.427979,0.550049,0.669189,0.8589,-0.519051,-0.025391,-0.034192,-0.037832,-0.01486,,,,,,,,,,,,,,,,,,,,,,,,,,,,,,,,,,,0.0,0.0,1.0,0.0,128.0,0.573324,,,,,,,,,,,,,,,,,,,,,,,,,
10461,1650407648.5303,1650407648.5305119,43.0,0.0,4289.230957,4673.846191,4231.282227000001,4273.846191,3893.3332520000004,0.0,4.0,86.0,,,,0.0,4.0,0.0,0.0,0.0,4.0,0.0,,,,,,,,,,,,,,,,,,,,,,,,,,,,,,,,,,,,,,,,,,,,,,,,,,,,,,,,,,,,,,,,,,,,,,,,,,,,,,,,,,,,
10462,1650407648.538115,1650407648.5384269,44.0,0.0,4274.358886999999,4651.794922,4180.0,4274.358886999999,3886.6667479999996,0.0,4.0,86.0,,,,0.0,4.0,0.0,0.0,0.0,4.0,0.0,,,,,,,,22.0,0.0,0.25781,-0.427979,0.550049,0.669189,0.8593879999999999,-0.5234449999999999,-0.024413999999999998,-0.034093,-0.037808999999999995,-0.010395,,,,,,,,,,,,,,,,,,,,,,,,,,,,,,,,,,,,,,,,,,,,,,,,,,,,,,,,,,,,,,,,,
10463,1650407648.5459301,1650407648.546341,45.0,0.0,4259.487305,4679.487305,4154.358886999999,4274.871582,3862.0512700000004,0.0,4.0,86.0,,,,0.0,4.0,0.0,0.0,0.0,4.0,0.0,,,,,,,,,,,,,,,,,,,,,,,,,,,,,,,,,,,,,,,,,,,,,,,,,,,,,,,,,,,,,,,,,,,,,,,,,,,,,,,,,,,,
10464,1650407648.5537438,1650407648.554156,46.0,0.0,4280.512695,4690.256348,4200.0,4278.974121,3868.718018,0.0,4.0,86.0,,,,0.0,4.0,0.0,0.0,0.0,4.0,0.0,,,,,,,,23.0,0.0,0.25758200000000003,-0.427734,0.550049,0.669434,0.854505,-0.5195390000000001,-0.024903,-0.034053,-0.037933999999999996,-0.006523999999999999,,,,,,,,,,,,,,,,,,,,,,,,,,,,,,,,,,,0.0,0.0,1.0,0.0,128.0,0.573324,,,,,,,,,,,,,,,,,,,,,,,,,
10465,1650407648.561559,1650407648.56207,47.0,0.0,4288.717772999999,4674.358886999999,4221.025879,4280.0,3870.7692869999996,0.0,4.0,86.0,,,,0.0,4.0,0.0,0.0,0.0,4.0,0.0,,,,,,,,,,,,,,,,,,,,,,,,,,,,,,,,,,,,,,,,,,,,,,,,,,,,,,,,,,,,,,,,,,,,,,,,,,,,,,,,,,,,
10466,1650407648.5693731,1650407648.569885,48.0,0.0,4294.358886999999,4703.589844,4240.512695,4277.436035,3870.256348,0.0,4.0,86.0,,,,0.0,4.0,0.0,0.0,0.0,4.0,0.0,,,,,,,,24.0,0.0,0.25758200000000003,-0.427734,0.550049,0.669434,0.8759899999999999,-0.5356529999999999,-0.041505,-0.034066,-0.037901,-0.009289,,,,,,,,,,,,,,,,,,,,,,,,,,,,,,,,,,,,,,,,,,,,,,,,,,,,,,,,,,,,,,,,,
10467,1650407648.577188,1650407648.5778,49.0,0.0,4314.358886999999,4701.538574,4257.94873,4275.897461,3892.820557,0.0,4.0,86.0,,,,0.0,4.0,0.0,0.0,0.0,4.0,0.0,,,,,,,,,,,,,,,,,,,,,,,,,,,,,,,,,,,,,,,,,,,,,,,,,,,,,,,,,,,,,,,,,,,,,,,,,,,,,,,,,,,,
10468,1650407648.585002,1650407648.585614,50.0,0.0,4321.538574,4637.94873,4281.538574,4277.436035,3892.3076170000004,0.0,4.0,86.0,,,,0.0,4.0,0.0,0.0,0.0,4.0,0.0,,,,,,,,25.0,0.0,0.25758200000000003,-0.427734,0.550049,0.669434,0.862806,-0.534676,-0.029297000000000004,-0.034076999999999996,-0.037870999999999995,-0.008165,,,,,,,,,,,,,,,,,,,,,,,,,,,,,,,,,,,0.0,0.0,1.0,0.0,128.0,0.573324,,,,,,,,,,,,,,,,,,,,,,,,,
10469,1650407648.592817,1650407648.593529,51.0,0.0,4308.717772999999,4647.692383,4248.205078,4276.410156,3875.384521,0.0,4.0,86.0,,,,0.0,4.0,0.0,0.0,0.0,4.0,0.0,,,,,,,,,,,,,,,,,,,,,,,,,,,,,,,,,,,,,,,,,,,,,,,,,,,,,,,,,,,,,,,,,,,,,,,,,,,,,,,,,,,,
10470,1650407648.600632,1650407648.601343,52.0,0.0,4273.846191,4755.384765999999,4264.615234000001,4273.333496,3863.076904,0.0,4.0,86.0,,,,0.0,4.0,0.0,0.0,0.0,4.0,0.0,,,,,,,,26.0,0.0,0.25758200000000003,-0.427734,0.550049,0.669434,0.8593879999999999,-0.538094,-0.021485,-0.034088,-0.037941,-0.010620000000000001,,,,,,,,,,,,,,,,,,,,,,,,,,,,,,,,,,,,,,,,,,,,,,,,,,,,,,,,,,,,,,,,,
10471,1650407648.6084461,1650407648.609258,53.0,0.0,4281.025879,4811.794922,4262.563965,4273.333496,3864.615479,0.0,4.0,86.0,,,,0.0,4.0,0.0,0.0,0.0,4.0,0.0,,,,,,,,,,,,,,,,,,,,,,,,,,,,,,,,,,,,,,,,,,,,,,,,,,,,,,,,,,,,,,,,,,,,,,,,,,,,,,,,,,,,
10472,1650407648.616261,1650407648.617173,54.0,0.0,4297.436035,4809.230957,4257.94873,4274.871582,3871.794922,0.0,4.0,86.0,,,,0.0,4.0,0.0,0.0,0.0,4.0,0.0,,,,,,,,27.0,0.0,0.25758200000000003,-0.427734,0.550049,0.669434,0.857923,-0.524422,-0.021485,-0.034056,-0.038013,-0.0114,1.0,0.0,0.0,,,,,,,,,,,,,,,,,,,,,,,,,,,,,,,,0.0,0.0,64.0,0.581114,1.0,0.0,182.09848,7.740338,3.4083069999999998,2.167627,2.545732,883.7645259999999,47.596863,37.771023,15.185231,18.591749,67.623512,71.684738,10.457002000000001,8.452349,5.620874,0.586982,0.0473,0.045288999999999996,0.024467,0.019293,6313.961426,1571.779663,146.573029,20.424747,4.801322
10473,1650407648.624075,1650407648.624987,55.0,0.0,4292.820313,4751.794922,4231.282227000001,4274.358886999999,3884.615479,0.0,4.0,86.0,,,,0.0,4.0,0.0,0.0,0.0,4.0,0.0,,,,,,,,,,,,,,,,,,,,,,,,,,,,,,,,,,,,,,,,,,,,,,,,,,,,,,,,,,,,,,,,,,,,,,,,,,,,,,,,,,,,
10474,1650407648.63189,1650407648.632902,56.0,0.0,4286.666504,4621.538574,4215.384765999999,4275.897461,3880.512939,0.0,4.0,86.0,,,,0.0,4.0,0.0,0.0,0.0,4.0,0.0,,,,,,,,28.0,0.0,0.25758200000000003,-0.427734,0.550049,0.669434,0.871107,-0.528817,-0.024413999999999998,-0.03402,-0.037922000000000004,-0.013581000000000001,,,,,,,,,,,,,,,,,,,,,,,,,,,,,,,,,,,,,,,,,,,,,,,,,,,,,,,,,,,,,,,,,
10475,1650407648.639704,1650407648.640816,57.0,0.0,4301.025879,4532.307617,4189.743652,4277.436035,3878.974365,0.0,4.0,86.0,,,,0.0,4.0,0.0,0.0,0.0,4.0,0.0,,,,,,,,,,,,,,,,,,,,,,,,,,,,,,,,,,,,,,,,,,,,,,,,,,,,,,,,,,,,,,,,,,,,,,,,,,,,,,,,,,,,
10476,1650407648.6475189,1650407648.648631,58.0,0.0,4307.692383,4549.230957,4178.461426,4275.897461,3873.3332520000004,0.0,4.0,86.0,,,,0.0,4.0,0.0,0.0,0.0,4.0,0.0,,,,,,,,29.0,0.0,0.25758200000000003,-0.427734,0.550049,0.669434,0.8657360000000001,-0.520516,-0.025391,-0.034036000000000004,-0.037939,-0.012173999999999999,,,,,,,,,,,,,,,,,,,,,,,,,,,,,,,,,,,0.0,0.0,64.0,0.581114,1.0,0.0,,,,,,,,,,,,,,,,,,,,,,,,,
10477,1650407648.655334,1650407648.656446,59.0,0.0,4311.282227000001,4577.436035,4181.025879,4273.333496,3875.384521,0.0,4.0,86.0,,,,0.0,4.0,0.0,0.0,0.0,4.0,0.0,,,,,,,,,,,,,,,,,,,,,,,,,,,,,,,,,,,,,,,,,,,,,,,,,,,,,,,,,,,,,,,,,,,,,,,,,,,,,,,,,,,,
10478,1650407648.6631482,1650407648.664361,60.0,0.0,4286.666504,4563.589844,4186.153809,4272.820313,3866.1538090000004,0.0,4.0,86.0,,,,0.0,4.0,0.0,0.0,0.0,4.0,0.0,,,,,,,,30.0,0.0,0.25758200000000003,-0.427734,0.550049,0.669434,0.8618299999999999,-0.528328,-0.029786,-0.034246,-0.038002,-0.014325,,,,,,,,,,,,,,,,,,,,,,,,,,,,,,,,,,,,,,,,,,,,,,,,,,,,,,,,,,,,,,,,,
10479,1650407648.670963,1650407648.672175,61.0,0.0,4257.94873,4602.05127,4215.897461,4272.820313,3864.615479,0.0,4.0,86.0,,,,0.0,4.0,0.0,0.0,0.0,4.0,0.0,,,,,,,,,,,,,,,,,,,,,,,,,,,,,,,,,,,,,,,,,,,,,,,,,,,,,,,,,,,,,,,,,,,,,,,,,,,,,,,,,,,,
10480,1650407648.678777,1650407648.68009,62.0,0.0,4255.897461,4658.974121,4221.025879,4274.358886999999,3868.718018,0.0,4.0,86.0,,,,0.0,4.0,0.0,0.0,0.0,4.0,0.0,,,,,,,,31.0,0.0,0.25758200000000003,-0.427734,0.550049,0.669434,0.871107,-0.528817,-0.024413999999999998,-0.034288,-0.037913,-0.012745999999999999,,,,,,,,,,,,,,,,,,,,,,,,,,,,,,,,,,,0.0,0.0,64.0,0.581114,1.0,0.0,,,,,,,,,,,,,,,,,,,,,,,,,
10481,1650407648.686592,1650407648.687905,63.0,0.0,4272.307617,4656.410156,4204.102539,4275.897461,3875.897461,0.0,4.0,86.0,,,,0.0,4.0,0.0,0.0,0.0,4.0,0.0,,,,,,,,,,,,,,,,,,,,,,,,,,,,,,,,,,,,,,,,,,,,,,,,,,,,,,,,,,,,,,,,,,,,,,,,,,,,,,,,,,,,
10482,1650407648.694406,1650407648.695819,64.0,0.0,4270.256348,4645.641113000001,4187.179688,4276.922852000001,3871.794922,450.0,4.0,86.0,,,,0.0,4.0,0.0,0.0,0.0,4.0,0.0,,,,,,,,32.0,0.0,0.25758200000000003,-0.427734,0.550049,0.669434,0.8618299999999999,-0.528328,-0.029786,-0.034472,-0.037979,-0.014841,,,,,,,,,,,,,,,,,,,,,,,,,,,,,,,,,,,,,,,,,,,,,,,,,,,,,,,,,,,,,,,,,
10483,1650407648.7022212,1650407648.703734,65.0,0.0,4275.897461,4629.230957,4251.794922,4275.897461,3875.897461,450.0,4.0,86.0,,,,0.0,4.0,0.0,0.0,0.0,4.0,0.0,,,,,,,,,,,,,,,,,,,,,,,,,,,,,,,,,,,,,,,,,,,,,,,,,,,,,,,,,,,,,,,,,,,,,,,,,,,,,,,,,,,,
10484,1650407648.710036,1650407648.711549,66.0,0.0,4292.820313,4569.230957,4286.153809,4274.358886999999,3893.8461909999996,16199.0,4.0,86.0,,,,0.0,4.0,0.0,0.0,0.0,4.0,0.0,,,,,,,,33.0,0.0,0.25758200000000003,-0.427734,0.550049,0.669434,0.854017,-0.525399,-0.020996,-0.034492,-0.037941,-0.010525,,,,,,,,,,,,,,,,,,,,,,,,,,,,,,,,,,,0.0,0.0,64.0,0.581114,1.0,0.0,,,,,,,,,,,,,,,,,,,,,,,,,
10485,1650407648.71785,1650407648.7193642,67.0,0.0,4294.871582,4537.94873,4286.666504,4274.358886999999,3891.794922,450.0,4.0,86.0,,,,0.0,4.0,0.0,0.0,0.0,4.0,0.0,,,,,,,,,,,,,,,,,,,,,,,,,,,,,,,,,,,,,,,,,,,,,,,,,,,,,,,,,,,,,,,,,,,,,,,,,,,,,,,,,,,,
10486,1650407648.725665,1650407648.727278,68.0,0.0,4314.871582,4554.871582,4236.410156,4275.897461,3897.9487299999996,0.0,4.0,86.0,,,,0.0,4.0,0.0,0.0,0.0,4.0,0.0,,,,,,,,34.0,0.0,0.258102,-0.427734,0.549805,0.669434,0.8618299999999999,-0.522957,-0.043946,-0.034314,-0.038005000000000004,-0.012842,,,,,,,,,,,,,,,,,,,,,,,,,,,,,,,,,,,,,,,,,,,,,,,,,,,,,,,,,,,,,,,,,
10487,1650407648.733479,1650407648.735193,69.0,0.0,4317.94873,4561.025879,4216.410156,4276.410156,3900.0,450.0,4.0,86.0,,,,0.0,4.0,0.0,0.0,0.0,4.0,0.0,,,,,,,,,,,,,,,,,,,,,,,,,,,,,,,,,,,,,,,,,,,,,,,,,,,,,,,,,,,,,,,,,,,,,,,,,,,,,,,,,,,,
10488,1650407648.741294,1650407648.743008,70.0,0.0,4306.666504,4543.589844,4203.589844,4275.897461,3896.4101560000004,3.0,4.0,86.0,,,,0.0,4.0,0.0,0.0,0.0,4.0,0.0,,,,,,,,35.0,0.0,0.257062,-0.427979,0.549805,0.669678,0.8564579999999999,-0.516121,-0.032715,-0.034301,-0.037964,-0.008579,1.0,0.0,0.0,,,,,,,,,,,,,,,,,,,,,,,,,,,,,,,,0.0,0.0,1.0,0.0,128.0,0.556525,166.700394,7.6171809999999995,4.017894,2.3656580000000003,2.455342,884.950867,53.692181000000005,35.658962,11.969593,21.254257,67.60766600000001,77.62352800000001,14.024367000000002,7.958609,5.5104,0.542424,0.036739,0.037407,0.022191,0.016608,6250.8125,1559.674561,151.50538600000002,21.532856,4.749637
10489,1650407648.749108,1650407648.7509232,71.0,0.0,4316.922852000001,4531.794922,4212.307617,4275.897461,3906.1538090000004,450.0,4.0,86.0,,,,0.0,4.0,0.0,0.0,0.0,4.0,0.0,,,,,,,,,,,,,,,,,,,,,,,,,,,,,,,,,,,,,,,,,,,,,,,,,,,,,,,,,,,,,,,,,,,,,,,,,,,,,,,,,,,,
10490,1650407648.756923,1650407648.758738,72.0,0.0,4336.410156,4578.974121,4202.05127,4274.871582,3931.281982,450.0,4.0,86.0,,,,0.0,4.0,0.0,0.0,0.0,4.0,0.0,,,,,,,,36.0,0.0,0.25769699999999995,-0.427979,0.549805,0.669434,0.870619,-0.516609,-0.027344,-0.034289,-0.037975999999999996,-0.011139,,,,,,,,,,,,,,,,,,,,,,,,,,,,,,,,,,,,,,,,,,,,,,,,,,,,,,,,,,,,,,,,,
10491,1650407648.764738,1650407648.7666519,73.0,0.0,4325.128418,4666.666504,4204.102539,4274.358886999999,3929.2307130000004,0.0,4.0,86.0,,,,0.0,4.0,0.0,0.0,0.0,4.0,0.0,,,,,,,,,,,,,,,,,,,,,,,,,,,,,,,,,,,,,,,,,,,,,,,,,,,,,,,,,,,,,,,,,,,,,,,,,,,,,,,,,,,,
10492,1650407648.772552,1650407648.774467,74.0,0.0,4330.769043,4674.358886999999,4191.282227000001,4279.487305,3941.025635,450.0,4.0,86.0,,,,0.0,4.0,0.0,0.0,0.0,4.0,0.0,,,,,,,,37.0,0.0,0.25821700000000003,-0.427979,0.549561,0.669434,0.8530399999999999,-0.525887,-0.038087,-0.034326999999999996,-0.038085,-0.007095000000000001,,,,,,,,,,,,,,,,,,,,,,,,,,,,,,,,,,,0.0,0.0,1.0,0.0,128.0,0.556525,,,,,,,,,,,,,,,,,,,,,,,,,
10493,1650407648.780367,1650407648.782382,75.0,0.0,4311.794922,4581.025879,4172.307617,4281.538574,3921.538574,16172.0,4.0,86.0,,,,0.0,4.0,0.0,0.0,0.0,4.0,0.0,,,,,,,,,,,,,,,,,,,,,,,,,,,,,,,,,,,,,,,,,,,,,,,,,,,,,,,,,,,,,,,,,,,,,,,,,,,,,,,,,,,,
10494,1650407648.788181,1650407648.7901971,76.0,0.0,4280.0,4549.230957,4186.153809,4276.922852000001,3892.3076170000004,450.0,4.0,86.0,,,,0.0,4.0,0.0,0.0,0.0,4.0,0.0,,,,,,,,38.0,0.0,0.257812,-0.42822299999999996,0.549561,0.669434,0.854994,-0.522957,-0.026856,-0.034312,-0.038085,-0.012537999999999999,,,,,,,,,,,,,,,,,,,,,,,,,,,,,,,,,,,,,,,,,,,,,,,,,,,,,,,,,,,,,,,,,
10495,1650407648.7959962,1650407648.798112,77.0,0.0,4290.769043,4569.230957,4215.897461,4274.358886999999,3902.5642090000006,450.0,4.0,86.0,,,,0.0,4.0,0.0,0.0,0.0,4.0,0.0,,,,,,,,,,,,,,,,,,,,,,,,,,,,,,,,,,,,,,,,,,,,,,,,,,,,,,,,,,,,,,,,,,,,,,,,,,,,,,,,,,,,
10496,1650407648.80381,1650407648.805927,78.0,0.0,4312.820313,4560.0,4256.410156,4274.871582,3916.4101560000004,450.0,4.0,86.0,,,,0.0,4.0,0.0,0.0,0.0,4.0,0.0,,,,,,,,39.0,0.0,0.257812,-0.42822299999999996,0.549561,0.669434,0.8608530000000001,-0.526864,-0.028808999999999998,-0.034201,-0.038183,-0.014653999999999999,,,,,,,,,,,,,,,,,,,,,,,,,,,,,,,,,,,0.0,0.0,1.0,0.0,128.0,0.556525,,,,,,,,,,,,,,,,,,,,,,,,,
10497,1650407648.811625,1650407648.813841,79.0,0.0,4292.820313,4582.05127,4258.461426,4273.333496,3905.1281740000004,16172.0,4.0,86.0,,,,0.0,4.0,0.0,0.0,0.0,4.0,0.0,,,,,,,,,,,,,,,,,,,,,,,,,,,,,,,,,,,,,,,,,,,,,,,,,,,,,,,,,,,,,,,,,,,,,,,,,,,,,,,,,,,,
10498,1650407648.8194401,1650407648.821656,80.0,0.0,4291.794922,4593.846191,4253.333496,4272.820313,3921.025635,450.0,4.0,86.0,,,,0.0,4.0,0.0,0.0,0.0,4.0,0.0,,,,,,,,40.0,0.0,0.257812,-0.42822299999999996,0.549561,0.669434,0.859876,-0.522469,-0.037110000000000004,-0.034199,-0.038076,-0.016509,,,,,,,,,,,,,,,,,,,,,,,,,,,,,,,,,,,,,,,,,,,,,,,,,,,,,,,,,,,,,,,,,
10499,1650407648.8272538,1650407648.8295698,81.0,0.0,4298.461426,4564.615234000001,4212.307617,4275.384765999999,3935.384521,450.0,4.0,86.0,,,,0.0,4.0,0.0,0.0,0.0,4.0,0.0,,,,,,,,,,,,,,,,,,,,,,,,,,,,,,,,,,,,,,,,,,,,,,,,,,,,,,,,,,,,,,,,,,,,,,,,,,,,,,,,,,,,
10500,1650407648.835069,1650407648.837385,82.0,0.0,4288.717772999999,4553.846191,4228.205078,4277.436035,3927.6923829999996,450.0,4.0,86.0,,,,0.0,4.0,0.0,0.0,0.0,4.0,0.0,,,,,,,,41.0,0.0,0.25740599999999997,-0.428467,0.549561,0.669434,0.8608530000000001,-0.515633,-0.034668,-0.034197000000000005,-0.038028,-0.018178,,,,,,,,,,,,,,,,,,,,,,,,,,,,,,,,,,,0.0,0.0,1.0,0.0,128.0,0.556525,,,,,,,,,,,,,,,,,,,,,,,,,
10501,1650407648.842883,1650407648.8453,83.0,0.0,4303.077147999999,4532.307617,4249.743652,4278.974121,3941.025635,16172.0,4.0,86.0,,,,0.0,4.0,0.0,0.0,0.0,4.0,0.0,,,,,,,,,,,,,,,,,,,,,,,,,,,,,,,,,,,,,,,,,,,,,,,,,,,,,,,,,,,,,,,,,,,,,,,,,,,,,,,,,,,,
10502,1650407648.850698,1650407648.8531141,84.0,0.0,4296.410156,4475.384765999999,4283.589844,4277.436035,3933.8461909999996,450.0,4.0,86.0,,,,0.0,4.0,0.0,0.0,0.0,4.0,0.0,,,,,,,,42.0,0.0,0.25804,-0.428467,0.549561,0.669189,0.870619,-0.5302819999999999,-0.035644999999999996,-0.034196,-0.038083,-0.022513,,,,,,,,,,,,,,,,,,,,,,,,,,,,,,,,,,,,,,,,,,,,,,,,,,,,,,,,,,,,,,,,,
10503,1650407648.858513,1650407648.861029,85.0,0.0,4299.487305,4494.871582,4248.717772999999,4275.897461,3926.1538090000004,450.0,4.0,86.0,,,,0.0,4.0,0.0,0.0,0.0,4.0,0.0,,,,,,,,,,,,,,,,,,,,,,,,,,,,,,,,,,,,,,,,,,,,,,,,,,,,,,,,,,,,,,,,,,,,,,,,,,,,,,,,,,,,
10504,1650407648.866327,1650407648.868843,86.0,0.0,4319.487305,4611.794922,4228.205078,4274.871582,3936.923096,450.0,4.0,86.0,,,,0.0,4.0,0.0,0.0,0.0,4.0,0.0,1.0,0.0,3.0,0.0,0.0,0.0,0.0,43.0,0.0,0.25804,-0.428467,0.549561,0.669189,0.871107,-0.536141,-0.039550999999999996,-0.034194,-0.038083,-0.023484,1.0,0.0,0.0,,,,,,,,,,,,,,,,,,,,,,,,,,,,,,,,0.0,0.0,1.0,0.0,128.0,0.7341300000000001,132.72048999999998,7.10602,4.560391,2.583038,2.267102,771.098022,55.65041,34.115162,9.489696,23.054323,65.306335,79.70475,18.074856,7.7513630000000004,5.354617,0.440953,0.026470999999999998,0.035306,0.019587,0.015503,5344.789551,1331.579102,135.84671,20.123451,4.354297
10505,1650407648.874142,1650407648.876758,87.0,0.0,4325.641113000001,4642.05127,4218.461426,4272.820313,3949.743652,16172.0,4.0,86.0,,,,0.0,4.0,0.0,0.0,0.0,4.0,0.0,,,,,,,,,,,,,,,,,,,,,,,,,,,,,,,,,,,,,,,,,,,,,,,,,,,,,,,,,,,,,,,,,,,,,,,,,,,,,,,,,,,,
10506,1650407648.881956,1650407648.884573,88.0,0.0,4299.487305,4558.974121,4232.307617,4276.410156,3932.820557,450.0,4.0,86.0,,,,0.0,4.0,0.0,0.0,0.0,4.0,0.0,,,,,,,,44.0,0.0,0.25711300000000004,-0.42871099999999995,0.549805,0.669189,0.8652479999999999,-0.517586,-0.029297000000000004,-0.034193,-0.038132,-0.024456,,,,,,,,,,,,,,,,,,,,,,,,,,,,,,,,,,,,,,,,,,,,,,,,,,,,,,,,,,,,,,,,,
10507,1650407648.889771,1650407648.8924868,89.0,0.0,4285.641113000001,4532.820313,4253.846191,4279.487305,3927.6923829999996,450.0,4.0,86.0,,,,0.0,4.0,0.0,0.0,0.0,4.0,0.0,,,,,,,,,,,,,,,,,,,,,,,,,,,,,,,,,,,,,,,,,,,,,,,,,,,,,,,,,,,,,,,,,,,,,,,,,,,,,,,,,,,,
10508,1650407648.8975859,1650407648.900402,90.0,0.0,4296.410156,4599.487305,4246.666504,4277.436035,3945.1281740000004,450.0,4.0,86.0,,,,0.0,4.0,0.0,0.0,0.0,4.0,0.0,,,,,,,,45.0,0.0,0.25711300000000004,-0.42871099999999995,0.549805,0.669189,0.870619,-0.533211,-0.037110000000000004,-0.034191,-0.038079,-0.025282,,,,,,,,,,,,,,,,,,,,,,,,,,,,,,,,,,,0.0,0.0,1.0,0.0,128.0,0.7341300000000001,,,,,,,,,,,,,,,,,,,,,,,,,
10509,1650407648.9054,1650407648.908217,91.0,0.0,4328.717772999999,4630.256348,4188.205078,4277.94873,3976.4101560000004,16172.0,4.0,86.0,,,,0.0,4.0,0.0,0.0,0.0,4.0,0.0,,,,,,,,,,,,,,,,,,,,,,,,,,,,,,,,,,,,,,,,,,,,,,,,,,,,,,,,,,,,,,,,,,,,,,,,,,,,,,,,,,,,
10510,1650407648.913215,1650407648.916032,92.0,0.0,4303.589844,4596.922852000001,4172.820313,4279.487305,3943.076904,450.0,4.0,86.0,,,,0.0,4.0,0.0,0.0,0.0,4.0,0.0,,,,,,,,46.0,0.0,0.256706,-0.42895500000000003,0.549805,0.669189,0.8657360000000001,-0.532235,-0.024413999999999998,-0.034093,-0.038127999999999995,-0.022656,,,,,,,,,,,,,,,,,,,,,,,,,,,,,,,,,,,,,,,,,,,,,,,,,,,,,,,,,,,,,,,,,
10511,1650407648.9210289,1650407648.9239461,93.0,0.0,4254.871582,4611.794922,4245.128418,4274.358886999999,3892.3076170000004,450.0,4.0,86.0,,,,0.0,4.0,0.0,0.0,0.0,4.0,0.0,,,,,,,,,,,,,,,,,,,,,,,,,,,,,,,,,,,,,,,,,,,,,,,,,,,,,,,,,,,,,,,,,,,,,,,,,,,,,,,,,,,,
10512,1650407648.928844,1650407648.931861,94.0,0.0,4270.256348,4585.641113000001,4263.589844,4271.794922,3906.6667479999996,450.0,4.0,86.0,,,,0.0,4.0,0.0,0.0,0.0,4.0,0.0,,,,,,,,47.0,0.0,0.257862,-0.42895500000000003,0.549561,0.668945,0.8574350000000001,-0.5302819999999999,-0.023926,-0.034053,-0.038222000000000006,-0.023662,,,,,,,,,,,,,,,,,,,,,,,,,,,,,,,,,,,0.0,0.0,1.0,0.0,128.0,0.7341300000000001,,,,,,,,,,,,,,,,,,,,,,,,,
10513,1650407648.936658,1650407648.939676,95.0,0.0,4315.384765999999,4537.436035,4241.025879,4274.871582,3943.076904,16172.0,4.0,86.0,,,,0.0,4.0,0.0,0.0,0.0,4.0,0.0,,,,,,,,,,,,,,,,,,,,,,,,,,,,,,,,,,,,,,,,,,,,,,,,,,,,,,,,,,,,,,,,,,,,,,,,,,,,,,,,,,,,
10514,1650407648.944473,1650407648.947591,96.0,0.0,4312.307617,4590.769043,4207.179688,4275.897461,3941.538574,450.0,4.0,86.0,,,,0.0,4.0,0.0,0.0,0.0,4.0,0.0,,,,,,,,48.0,0.0,0.257456,-0.429199,0.549561,0.668945,0.876967,-0.51368,-0.023926,-0.034065,-0.038159,-0.024567,,,,,,,,,,,,,,,,,,,,,,,,,,,,,,,,,,,,,,,,,,,,,,,,,,,,,,,,,,,,,,,,,
10515,1650407648.9522882,1650407648.955406,97.0,0.0,4296.922852000001,4618.974121,4217.436035,4275.897461,3935.384521,450.0,4.0,86.0,,,,0.0,4.0,0.0,0.0,0.0,4.0,0.0,,,,,,,,,,,,,,,,,,,,,,,,,,,,,,,,,,,,,,,,,,,,,,,,,,,,,,,,,,,,,,,,,,,,,,,,,,,,,,,,,,,,
10516,1650407648.9601018,1650407648.96332,98.0,0.0,4309.743652,4579.487305,4216.922852000001,4276.922852000001,3955.384521,450.0,4.0,86.0,,,,0.0,4.0,0.0,0.0,0.0,4.0,0.0,,,,,,,,49.0,0.0,0.257048,-0.429443,0.549561,0.668945,0.859876,-0.518563,-0.013672,-0.034027999999999996,-0.038054000000000004,-0.025382,,,,,,,,,,,,,,,,,,,,,,,,,,,,,,,,,,,0.0,0.0,1.0,0.0,128.0,0.7341300000000001,,,,,,,,,,,,,,,,,,,,,,,,,
10517,1650407648.967917,1650407648.971135,99.0,0.0,4320.512695,4613.333496,4244.102539,4276.410156,3969.2307130000004,16172.0,4.0,86.0,,,,0.0,4.0,0.0,0.0,0.0,4.0,0.0,,,,,,,,,,,,,,,,,,,,,,,,,,,,,,,,,,,,,,,,,,,,,,,,,,,,,,,,,,,,,,,,,,,,,,,,,,,,,,,,,,,,
10518,1650407648.9757311,1650407648.97905,100.0,0.0,4314.871582,4676.410156,4250.769043,4278.974121,3964.615479,450.0,4.0,86.0,,,,0.0,4.0,0.0,0.0,0.0,4.0,0.0,,,,,,,,50.0,0.0,0.257162,-0.429688,0.549316,0.668945,0.854017,-0.514656,-0.021973,-0.034141000000000005,-0.038107,-0.022697,,,,,,,,,,,,,,,,,,,,,,,,,,,,,,,,,,,,,,,,,,,,,,,,,,,,,,,,,,,,,,,,,
10519,1650407648.983546,1650407648.986864,101.0,0.0,4290.769043,4623.589844,4276.922852000001,4277.94873,3946.6667479999996,450.0,4.0,86.0,,,,0.0,4.0,0.0,0.0,0.0,4.0,0.0,,,,,,,,,,,,,,,,,,,,,,,,,,,,,,,,,,,,,,,,,,,,,,,,,,,,,,,,,,,,,,,,,,,,,,,,,,,,,,,,,,,,
10520,1650407648.99136,1650407648.994679,102.0,0.0,4284.615234000001,4591.794922,4246.666504,4273.846191,3948.718018,450.0,4.0,86.0,,,,0.0,4.0,0.0,0.0,0.0,4.0,0.0,,,,,,,,51.0,0.0,0.257796,-0.429688,0.549316,0.668701,0.8525520000000001,-0.512215,-0.025391,-0.034194,-0.038105,-0.023699,1.0,0.0,0.0,,,,,,,,,,,,,,,,,,,,,,,,,,,,,,,,0.0,0.0,1.0,0.0,128.0,0.703897,91.18759200000001,6.342433,4.955324,2.812596,2.028477,582.581543,53.68053100000001,34.423134000000005,8.453371,23.448965,61.242874,77.295486,21.246967,8.103377,4.996129,0.315629,0.018789,0.038926999999999996,0.017349,0.015898,3924.631348,966.370911,104.958855,16.750006,3.735356
10521,1650407648.999175,1650407649.002394,103.0,0.0,4277.436035,4684.615234000001,4233.846191,4272.820313,3955.384521,16172.0,4.0,86.0,,,,0.0,4.0,0.0,0.0,0.0,4.0,0.0,,,,,,,,,,,,,,,,,,,,,,,,,,,,,,,,,,,,,,,,,,,,,,,,,,,,,,,,,,,,,,,,,,,,,,,,,,,,,,,,,,,,
10522,1650407649.00699,1650407649.010308,104.0,0.0,4288.205078,4671.794922,4240.512695,4274.358886999999,3979.487061,450.0,4.0,86.0,,,,0.0,4.0,0.0,0.0,0.0,4.0,0.0,,,,,,,,52.0,0.0,0.257796,-0.429688,0.549316,0.668701,0.863294,-0.5097729999999999,-0.026368,-0.034143,-0.038054000000000004,-0.024600999999999998,,,,,,,,,,,,,,,,,,,,,,,,,,,,,,,,,,,,,,,,,,,,,,,,,,,,,,,,,,,,,,,,,
10523,1650407649.014804,1650407649.0181231,105.0,0.0,4303.589844,4551.794922,4234.871582,4274.871582,3990.256348,450.0,4.0,86.0,,,,0.0,4.0,0.0,0.0,0.0,4.0,0.0,,,,,,,,,,,,,,,,,,,,,,,,,,,,,,,,,,,,,,,,,,,,,,,,,,,,,,,,,,,,,,,,,,,,,,,,,,,,,,,,,,,,
10524,1650407649.022619,1650407649.0260382,106.0,0.0,4313.846191,4556.410156,4227.179688,4275.897461,4000.512939,450.0,4.0,86.0,,,,0.0,4.0,0.0,0.0,0.0,4.0,0.0,,,,,,,,53.0,0.0,0.257389,-0.429932,0.549316,0.668701,0.8603649999999999,-0.519051,-0.024413999999999998,-0.034196,-0.038008,-0.025461,,,,,,,,,,,,,,,,,,,,,,,,,,,,,,,,,,,0.0,0.0,1.0,0.0,128.0,0.703897,,,,,,,,,,,,,,,,,,,,,,,,,
10525,1650407649.030433,1650407649.0338519,107.0,0.0,4312.307617,4615.384765999999,4237.436035,4275.897461,4017.4357909999994,16172.0,4.0,86.0,,,,0.0,4.0,0.0,0.0,0.0,4.0,0.0,,,,,,,,,,,,,,,,,,,,,,,,,,,,,,,,,,,,,,,,,,,,,,,,,,,,,,,,,,,,,,,,,,,,,,,,,,,,,,,,,,,,
10526,1650407649.038248,1650407649.041767,108.0,0.0,4333.846191,4543.589844,4189.230957,4277.94873,4036.923096,450.0,4.0,86.0,,,,0.0,4.0,0.0,0.0,0.0,4.0,0.0,,,,,,,,54.0,0.0,0.257389,-0.429932,0.549316,0.668701,0.8652479999999999,-0.525887,-0.04004,-0.034097,-0.037967,-0.022866,,,,,,,,,,,,,,,,,,,,,,,,,,,,,,,,,,,,,,,,,,,,,,,,,,,,,,,,,,,,,,,,,
10527,1650407649.046062,1650407649.049581,109.0,0.0,4322.05127,4511.794922,4127.179688,4280.0,4017.4357909999994,450.0,4.0,86.0,,,,0.0,4.0,0.0,0.0,0.0,4.0,0.0,,,,,,,,,,,,,,,,,,,,,,,,,,,,,,,,,,,,,,,,,,,,,,,,,,,,,,,,,,,,,,,,,,,,,,,,,,,,,,,,,,,,
10528,1650407649.0538769,1650407649.057496,110.0,0.0,4296.922852000001,4631.794922,4176.922852000001,4280.0,4000.512939,450.0,4.0,86.0,,,,0.0,4.0,0.0,0.0,0.0,4.0,0.0,,,,,,,,55.0,0.0,0.257909,-0.429932,0.549072,0.668701,0.8691540000000001,-0.516121,-0.023926,-0.034105,-0.037882,-0.020433,,,,,,,,,,,,,,,,,,,,,,,,,,,,,,,,,,,0.0,0.0,1.0,0.0,128.0,0.703897,,,,,,,,,,,,,,,,,,,,,,,,,
10529,1650407649.061692,1650407649.0654109,111.0,0.0,4313.333496,4636.410156,4227.179688,4280.0,4011.794922,16172.0,4.0,86.0,,,,0.0,4.0,0.0,0.0,0.0,4.0,0.0,,,,,,,,,,,,,,,,,,,,,,,,,,,,,,,,,,,,,,,,,,,,,,,,,,,,,,,,,,,,,,,,,,,,,,,,,,,,,,,,,,,,
10530,1650407649.0695062,1650407649.073226,112.0,0.0,4324.615234000001,4531.794922,4264.102539,4277.94873,4010.256348,450.0,4.0,86.0,,,,0.0,4.0,0.0,0.0,0.0,4.0,0.0,,,,,,,,56.0,0.0,0.257909,-0.429932,0.549072,0.668701,0.851087,-0.521492,-0.024903,-0.034259,-0.037804000000000004,-0.02171,,,,,,,,,,,,,,,,,,,,,,,,,,,,,,,,,,,,,,,,,,,,,,,,,,,,,,,,,,,,,,,,,
10531,1650407649.077321,1650407649.08114,113.0,0.0,4301.538574,4527.179688,4257.94873,4274.358886999999,3999.487061,450.0,4.0,86.0,,,,0.0,4.0,0.0,0.0,0.0,4.0,0.0,,,,,,,,,,,,,,,,,,,,,,,,,,,,,,,,,,,,,,,,,,,,,,,,,,,,,,,,,,,,,,,,,,,,,,,,,,,,,,,,,,,,
10532,1650407649.085135,1650407649.0889552,114.0,0.0,4301.025879,4536.410156,4253.846191,4275.897461,4008.205078,450.0,4.0,86.0,,,,0.0,4.0,0.0,0.0,0.0,4.0,0.0,,,,,,,,57.0,0.0,0.257389,-0.429932,0.549316,0.668701,0.866224,-0.5141680000000001,-0.021485,-0.034201999999999996,-0.037784,-0.022811,,,,,,,,,,,,,,,,,,,,,,,,,,,,,,,,,,,0.0,0.0,1.0,0.0,128.0,0.703897,,,,,,,,,,,,,,,,,,,,,,,,,
10533,1650407649.09295,1650407649.09687,115.0,0.0,4335.384765999999,4523.077147999999,4235.897461,4280.0,4032.820557,16172.0,4.0,86.0,,,,0.0,4.0,0.0,0.0,0.0,4.0,0.0,,,,,,,,,,,,,,,,,,,,,,,,,,,,,,,,,,,,,,,,,,,,,,,,,,,,,,,,,,,,,,,,,,,,,,,,,,,,,,,,,,,,
10534,1650407649.100764,1650407649.104685,116.0,0.0,4332.820313,4561.538574,4256.922852000001,4278.461426,4043.076904,450.0,4.0,86.0,,,,0.0,4.0,0.0,0.0,0.0,4.0,0.0,,,,,,,,58.0,0.0,0.257389,-0.429932,0.549316,0.668701,0.8681770000000001,-0.514656,-0.032715,-0.034102,-0.037716,-0.020481,,,,,,,,,,,,,,,,,,,,,,,,,,,,,,,,,,,,,,,,,,,,,,,,,,,,,,,,,,,,,,,,,
10535,1650407649.108579,1650407649.1126,117.0,0.0,4327.179688,4589.230957,4242.563965,4276.410156,4053.8461909999996,450.0,4.0,86.0,,,,0.0,4.0,0.0,0.0,0.0,4.0,0.0,,,,,,,,,,,,,,,,,,,,,,,,,,,,,,,,,,,,,,,,,,,,,,,,,,,,,,,,,,,,,,,,,,,,,,,,,,,,,,,,,,,,
10536,1650407649.116394,1650407649.120415,118.0,0.0,4332.820313,4572.820313,4262.563965,4277.94873,4058.461426,450.0,4.0,86.0,,,,0.0,4.0,0.0,0.0,0.0,4.0,0.0,,,,,,,,59.0,0.0,0.257909,-0.429932,0.549072,0.668701,0.851087,-0.521492,-0.024903,-0.03411,-0.037705,-0.018237,1.0,0.0,0.0,,,,,,,,,,,,,,,,,,,,,,,,,,,,,,,,0.0,0.0,1.0,0.0,128.0,0.411637,53.214806,5.555842,5.162529,3.026566,1.795175,373.497314,49.870476000000004,37.319557,9.139444000000001,22.291754,56.17639200000001,70.87068199999999,22.414351,9.067587,4.406999,0.19932,0.015401,0.047557,0.016331000000000002,0.017259,2404.425537,580.555664,68.86054200000001,12.532035,3.0489080000000004
10537,1650407649.124208,1650407649.1283288,119.0,0.0,4333.333496,4537.436035,4251.282227000001,4279.487305,4068.718018,16172.0,4.0,86.0,,,,0.0,4.0,0.0,0.0,0.0,4.0,0.0,,,,,,,,,,,,,,,,,,,,,,,,,,,,,,,,,,,,,,,,,,,,,,,,,,,,,,,,,,,,,,,,,,,,,,,,,,,,,,,,,,,,
10538,1650407649.132023,1650407649.136144,120.0,0.0,4312.820313,4510.256348,4190.256348,4276.922852000001,4053.3332520000004,450.0,4.0,86.0,,,,0.0,4.0,0.0,0.0,0.0,4.0,0.0,,,,,,,,60.0,0.0,0.257389,-0.429932,0.549316,0.668701,0.8681770000000001,-0.514656,-0.032715,-0.03402,-0.037645,-0.016365,,,,,,,,,,,,,,,,,,,,,,,,,,,,,,,,,,,,,,,,,,,,,,,,,,,,,,,,,,,,,,,,,
10539,1650407649.139837,1650407649.144059,121.0,0.0,4307.692383,4530.769043,4151.282227000001,4276.922852000001,4045.1281740000004,450.0,4.0,86.0,,,,0.0,4.0,0.0,0.0,0.0,4.0,0.0,,,,,,,,,,,,,,,,,,,,,,,,,,,,,,,,,,,,,,,,,,,,,,,,,,,,,,,,,,,,,,,,,,,,,,,,,,,,,,,,,,,,
10540,1650407649.147652,1650407649.151874,122.0,0.0,4294.358886999999,4598.461426,4174.871582,4280.512695,4044.102539,450.0,4.0,86.0,,,,0.0,4.0,0.0,0.0,0.0,4.0,0.0,,,,,,,,61.0,0.0,0.256981,-0.430176,0.549316,0.668701,0.8574350000000001,-0.516121,-0.023438,-0.034036000000000004,-0.037592,-0.018049000000000003,,,,,,,,,,,,,,,,,,,,,,,,,,,,,,,,,,,0.0,0.0,1.0,0.0,128.0,0.411637,,,,,,,,,,,,,,,,,,,,,,,,,
10541,1650407649.155466,1650407649.159789,123.0,0.0,4288.205078,4650.256348,4175.384765999999,4277.436035,4049.743652,16172.0,4.0,86.0,,,,0.0,4.0,0.0,0.0,0.0,4.0,0.0,,,,,,,,,,,,,,,,,,,,,,,,,,,,,,,,,,,,,,,,,,,,,,,,,,,,,,,,,,,,,,,,,,,,,,,,,,,,,,,,,,,,
10542,1650407649.163281,1650407649.167604,124.0,0.0,4302.563965,4657.94873,4144.102539,4271.282227000001,4057.9487299999996,450.0,4.0,86.0,,,,0.0,4.0,0.0,0.0,0.0,4.0,0.0,,,,,,,,62.0,0.0,0.256981,-0.430176,0.549316,0.668701,0.8715950000000001,-0.531746,-0.030762,-0.034197000000000005,-0.037641,-0.019466999999999998,,,,,,,,,,,,,,,,,,,,,,,,,,,,,,,,,,,,,,,,,,,,,,,,,,,,,,,,,,,,,,,,,
10543,1650407649.171096,1650407649.175518,125.0,0.0,4318.461426,4631.794922,4160.0,4275.384765999999,4071.281982,450.0,4.0,86.0,,,,0.0,4.0,0.0,0.0,0.0,4.0,0.0,,,,,,,,,,,,,,,,,,,,,,,,,,,,,,,,,,,,,,,,,,,,,,,,,,,,,,,,,,,,,,,,,,,,,,,,,,,,,,,,,,,,
10544,1650407649.17891,1650407649.183433,126.0,0.0,4320.512695,4564.102539,4225.641113000001,4281.025879,4077.9487299999996,450.0,4.0,86.0,,,,0.0,4.0,0.0,0.0,0.0,4.0,0.0,,,,,,,,63.0,0.0,0.257615,-0.430176,0.549316,0.668457,0.866712,-0.531746,-0.02002,-0.034145999999999996,-0.037587999999999996,-0.014639,,,,,,,,,,,,,,,,,,,,,,,,,,,,,,,,,,,0.0,0.0,1.0,0.0,128.0,0.411637,,,,,,,,,,,,,,,,,,,,,,,,,
10545,1650407649.186725,1650407649.191248,127.0,0.0,4329.230957,4547.692383,4309.230957,4277.436035,4091.281982,241.0,4.0,86.0,,,,0.0,4.0,0.0,0.0,0.0,4.0,0.0,,,,,,,,,,,,,,,,,,,,,,,,,,,,,,,,,,,,,,,,,,,,,,,,,,,,,,,,,,,,,,,,,,,,,,,,,,,,,,,,,,,,
10546,1650407649.194539,1650407649.1991632,0.0,0.0,4320.512695,4595.897461,4270.769043,4273.846191,4092.3076170000004,450.0,4.0,86.0,,,,0.0,4.0,0.0,0.0,0.0,4.0,0.0,,,,,,,,0.0,0.0,0.257615,-0.430176,0.549316,0.668457,0.8652479999999999,-0.517586,-0.009276999999999999,-0.034101,-0.03754,-0.016447,,,,,,,,,,,,,,,,,,,,,,,,,,,,,,,,,,,,,,,,,,,,,,,,,,,,,,,,,,,,,,,,,
10547,1650407649.202354,1650407649.206977,1.0,0.0,4290.769043,4630.769043,4238.461426,4274.358886999999,4069.743652,450.0,4.0,86.0,,,,0.0,4.0,0.0,0.0,0.0,4.0,0.0,,,,,,,,,,,,,,,,,,,,,,,,,,,,,,,,,,,,,,,,,,,,,,,,,,,,,,,,,,,,,,,,,,,,,,,,,,,,,,,,,,,,
10548,1650407649.210168,1650407649.214792,2.0,0.0,4290.256348,4593.333496,4230.769043,4275.897461,4067.179443,16196.0,4.0,86.0,,,,0.0,4.0,0.0,0.0,0.0,4.0,0.0,,,,,,,,1.0,0.0,0.256458,-0.430176,0.549561,0.668701,0.859876,-0.521981,-0.024413999999999998,-0.034255,-0.037594999999999996,-0.018025,,,,,,,,,,,,,,,,,,,,,,,,,,,,,,,,,,,0.0,0.0,1.0,0.0,128.0,0.411637,,,,,,,,,,,,,,,,,,,,,,,,,
10549,1650407649.217983,1650407649.222707,3.0,0.0,4319.487305,4480.512695,4231.794922,4278.461426,4093.3332520000004,450.0,4.0,86.0,,,,0.0,4.0,0.0,0.0,0.0,4.0,0.0,,,,,,,,,,,,,,,,,,,,,,,,,,,,,,,,,,,,,,,,,,,,,,,,,,,,,,,,,,,,,,,,,,,,,,,,,,,,,,,,,,,,
10550,1650407649.2257981,1650407649.230622,4.0,0.0,4336.410156,4444.102539,4217.94873,4281.025879,4106.666504,0.0,4.0,86.0,,,,0.0,4.0,0.0,0.0,0.0,4.0,0.0,,,,,,,,2.0,0.0,0.256867,-0.429932,0.549561,0.668701,0.850599,-0.518563,-0.028808999999999998,-0.03415,-0.037545999999999996,-0.019591,,,,,,,,,,,,,,,,,,,,,,,,,,,,,,,,,,,,,,,,,,,,,,,,,,,,,,,,,,,,,,,,,
10551,1650407649.2336118,1650407649.238437,5.0,0.0,4323.077147999999,4527.179688,4238.974121,4276.922852000001,4098.974121,450.0,4.0,86.0,,,,0.0,4.0,0.0,0.0,0.0,4.0,0.0,,,,,,,,,,,,,,,,,,,,,,,,,,,,,,,,,,,,,,,,,,,,,,,,,,,,,,,,,,,,,,,,,,,,,,,,,,,,,,,,,,,,
10552,1650407649.241427,1650407649.2462509,6.0,0.0,4324.615234000001,4606.666504,4215.897461,4276.410156,4118.974121,0.0,4.0,86.0,,,,0.0,4.0,0.0,0.0,0.0,4.0,0.0,,,,,,,,3.0,0.0,0.256867,-0.429932,0.549561,0.668701,0.849622,-0.524422,-0.018067,-0.034104,-0.0376,-0.020904,1.0,0.0,0.0,,,,,,,,,,,,,,,,,,,,,,,,,,,,,,,,0.0,0.0,1.0,0.0,128.0,0.328827,26.543034000000002,4.92476,5.173801,3.154071,1.61917,199.793304,46.647106,42.531459999999996,11.288822,19.951088000000002,50.895237,62.293705,21.112036,10.425272,3.6918580000000003,0.116382,0.016018,0.05942000000000001,0.017225999999999998,0.018921,1186.288452,274.740356,37.554859,8.602102,2.430241
10553,1650407649.249241,1650407649.2541661,7.0,0.0,4327.179688,4626.666504,4227.692383,4278.974121,4130.769043,450.0,4.0,86.0,,,,0.0,4.0,0.0,0.0,0.0,4.0,0.0,,,,,,,,,,,,,,,,,,,,,,,,,,,,,,,,,,,,,,,,,,,,,,,,,,,,,,,,,,,,,,,,,,,,,,,,,,,,,,,,,,,,
10554,1650407649.257056,1650407649.261981,8.0,0.0,4323.077147999999,4632.307617,4248.717772999999,4277.94873,4128.717772999999,450.0,4.0,86.0,,,,0.0,4.0,0.0,0.0,0.0,4.0,0.0,,,,,,,,4.0,0.0,0.256867,-0.429932,0.549561,0.668701,0.862806,-0.516609,-0.026368,-0.034112,-0.037698,-0.022085,,,,,,,,,,,,,,,,,,,,,,,,,,,,,,,,,,,,,,,,,,,,,,,,,,,,,,,,,,,,,,,,,
10555,1650407649.2648711,1650407649.2696948,9.0,0.0,4312.307617,4624.102539,4236.922852000001,4278.461426,4109.230957,0.0,4.0,86.0,,,,0.0,4.0,0.0,0.0,0.0,4.0,0.0,,,,,,,,,,,,,,,,,,,,,,,,,,,,,,,,,,,,,,,,,,,,,,,,,,,,,,,,,,,,,,,,,,,,,,,,,,,,,,,,,,,,
10556,1650407649.272685,1650407649.27761,10.0,0.0,4335.897461,4593.333496,4197.94873,4282.05127,4118.461426,450.0,4.0,86.0,,,,0.0,4.0,0.0,0.0,0.0,4.0,0.0,,,,,,,,5.0,0.0,0.256867,-0.429932,0.549561,0.668701,0.8652479999999999,-0.534676,-0.034668,-0.033972,-0.037737,-0.019681,,,,,,,,,,,,,,,,,,,,,,,,,,,,,,,,,,,0.0,0.0,1.0,0.0,128.0,0.328827,,,,,,,,,,,,,,,,,,,,,,,,,
10557,1650407649.2805,1650407649.285425,11.0,0.0,4343.589844,4600.0,4175.897461,4278.461426,4124.102539,16201.0,4.0,86.0,,,,0.0,4.0,0.0,0.0,0.0,4.0,0.0,,,,,,,,,,,,,,,,,,,,,,,,,,,,,,,,,,,,,,,,,,,,,,,,,,,,,,,,,,,,,,,,,,,,,,,,,,,,,,,,,,,,
10558,1650407649.288314,1650407649.29334,12.0,0.0,4335.897461,4597.94873,4184.615234000001,4275.897461,4119.487305,450.0,4.0,86.0,,,,0.0,4.0,0.0,0.0,0.0,4.0,0.0,,,,,,,,6.0,0.0,0.256867,-0.429932,0.549561,0.668701,0.862806,-0.526375,-0.026856,-0.033895,-0.03782,-0.021082,,,,,,,,,,,,,,,,,,,,,,,,,,,,,,,,,,,,,,,,,,,,,,,,,,,,,,,,,,,,,,,,,
10559,1650407649.296129,1650407649.301155,13.0,0.0,4317.94873,4561.025879,4210.769043,4277.94873,4100.512695,450.0,4.0,86.0,,,,0.0,4.0,0.0,0.0,0.0,4.0,0.0,,,,,,,,,,,,,,,,,,,,,,,,,,,,,,,,,,,,,,,,,,,,,,,,,,,,,,,,,,,,,,,,,,,,,,,,,,,,,,,,,,,,
10560,1650407649.3039439,1650407649.309069,14.0,0.0,4308.205078,4617.94873,4248.205078,4275.897461,4085.641113,450.0,4.0,86.0,,,,0.0,4.0,0.0,0.0,0.0,4.0,0.0,,,,,,,,7.0,0.0,0.256867,-0.429932,0.549561,0.668701,0.861341,-0.528328,-0.020508000000000002,-0.033924,-0.037798000000000005,-0.025029,,,,,,,,,,,,,,,,,,,,,,,,,,,,,,,,,,,0.0,0.0,1.0,0.0,128.0,0.328827,,,,,,,,,,,,,,,,,,,,,,,,,
10561,1650407649.311758,1650407649.316884,15.0,0.0,4319.487305,4703.589844,4222.05127,4274.871582,4101.538574,16201.0,4.0,86.0,,,,0.0,4.0,0.0,0.0,0.0,4.0,0.0,,,,,,,,,,,,,,,,,,,,,,,,,,,,,,,,,,,,,,,,,,,,,,,,,,,,,,,,,,,,,,,,,,,,,,,,,,,,,,,,,,,,
10562,1650407649.3195732,1650407649.324699,16.0,0.0,4324.615234000001,4689.230957,4209.743652,4277.436035,4115.384765999999,0.0,4.0,86.0,,,,0.0,4.0,0.0,0.0,0.0,4.0,0.0,,,,,,,,8.0,0.0,0.256867,-0.429932,0.549561,0.668701,0.8642709999999999,-0.5097729999999999,-0.013184,-0.033901,-0.037729,-0.025749,,,,,,,,,,,,,,,,,,,,,,,,,,,,,,,,,,,,,,,,,,,,,,,,,,,,,,,,,,,,,,,,,
10563,1650407649.3273869,1650407649.3324142,17.0,0.0,4330.769043,4630.256348,4218.461426,4277.94873,4121.538574,0.0,4.0,86.0,,,,0.0,4.0,0.0,0.0,0.0,4.0,0.0,,,,,,,,,,,,,,,,,,,,,,,,,,,,,,,,,,,,,,,,,,,,,,,,,,,,,,,,,,,,,,,,,,,,,,,,,,,,,,,,,,,,
10564,1650407649.335202,1650407649.340329,18.0,0.0,4341.538574,4616.410156,4236.410156,4276.410156,4137.436035,0.0,4.0,86.0,,,,0.0,4.0,0.0,0.0,0.0,4.0,0.0,,,,,,,,9.0,0.0,0.256867,-0.429932,0.549561,0.668701,0.849622,-0.5180739999999999,-0.020996,-0.033733,-0.037667,-0.023076,,,,,,,,,,,,,,,,,,,,,,,,,,,,,,,,,,,0.0,0.0,1.0,0.0,128.0,0.328827,,,,,,,,,,,,,,,,,,,,,,,,,
10565,1650407649.343017,1650407649.348144,19.0,0.0,4336.410156,4611.794922,4220.512695,4277.94873,4136.922852000001,0.0,4.0,86.0,,,,0.0,4.0,0.0,0.0,0.0,4.0,0.0,,,,,,,,,,,,,,,,,,,,,,,,,,,,,,,,,,,,,,,,,,,,,,,,,,,,,,,,,,,,,,,,,,,,,,,,,,,,,,,,,,,,
10566,1650407649.350831,1650407649.3560581,20.0,0.0,4320.512695,4572.820313,4288.717772999999,4279.487305,4114.871582,0.0,4.0,86.0,,,,0.0,4.0,0.0,0.0,0.0,4.0,0.0,,,,,,,,10.0,0.0,0.256867,-0.429932,0.549561,0.668701,0.8564579999999999,-0.523934,-0.033204000000000004,-0.033826999999999996,-0.037856,-0.024089,,,,,,,,,,,,,,,,,,,,,,,,,,,,,,,,,,,,,,,,,,,,,,,,,,,,,,,,,,,,,,,,,
10567,1650407649.3586462,1650407649.363873,21.0,0.0,4323.589844,4567.179688,4308.205078,4278.974121,4122.05127,0.0,4.0,86.0,,,,0.0,4.0,0.0,0.0,0.0,4.0,0.0,,,,,,,,,,,,,,,,,,,,,,,,,,,,,,,,,,,,,,,,,,,,,,,,,,,,,,,,,,,,,,,,,,,,,,,,,,,,,,,,,,,,
10568,1650407649.3664598,1650407649.3717868,22.0,0.0,4312.820313,4613.846191,4255.897461,4277.436035,4116.410156,0.0,4.0,86.0,,,,0.0,4.0,0.0,0.0,0.0,4.0,0.0,1.0,0.0,3.0,0.0,0.0,0.0,0.0,11.0,0.0,0.256867,-0.429932,0.549561,0.668701,0.8593879999999999,-0.511238,-0.02295,-0.033960000000000004,-0.03783,-0.024903,1.0,0.0,0.0,,,,,,,,,,,,,,,,,,,,,,,,,,,,,,,,0.0,0.0,1.0,0.0,512.0,0.5834229999999999,12.138474,4.503655,5.043563,3.1175509999999997,1.531907,89.103226,45.301956,48.409252,14.269703,17.185507,45.813057,53.893627,17.706116,11.76717,3.015686,0.070351,0.018767,0.072861,0.020222,0.020352000000000002,431.15799000000004,93.717438,16.804762,5.641112000000001,1.954074
10569,1650407649.374275,1650407649.379602,23.0,0.0,4304.102539,4656.410156,4189.743652,4277.436035,4096.922852000001,0.0,4.0,86.0,,,,0.0,4.0,0.0,0.0,0.0,4.0,0.0,,,,,,,,,,,,,,,,,,,,,,,,,,,,,,,,,,,,,,,,,,,,,,,,,,,,,,,,,,,,,,,,,,,,,,,,,,,,,,,,,,,,
10570,1650407649.3820891,1650407649.387517,24.0,0.0,4320.0,4670.256348,4199.487305,4277.94873,4100.0,0.0,4.0,86.0,,,,0.0,4.0,0.0,0.0,0.0,4.0,0.0,,,,,,,,12.0,0.0,0.257275,-0.429688,0.549561,0.668701,0.864759,-0.516121,-0.020508000000000002,-0.033982,-0.037758,-0.022364,,,,,,,,,,,,,,,,,,,,,,,,,,,,,,,,,,,,,,,,,,,,,,,,,,,,,,,,,,,,,,,,,
10571,1650407649.389904,1650407649.3953311,25.0,0.0,4356.410156,4678.974121,4218.974121,4276.410156,4147.692383,0.0,4.0,86.0,,,,0.0,4.0,0.0,0.0,0.0,4.0,0.0,,,,,,,,,,,,,,,,,,,,,,,,,,,,,,,,,,,,,,,,,,,,,,,,,,,,,,,,,,,,,,,,,,,,,,,,,,,,,,,,,,,,
10572,1650407649.397719,1650407649.4032462,26.0,0.0,4350.256348,4655.384765999999,4206.153809,4275.897461,4153.846191,0.0,4.0,86.0,,,,0.0,4.0,0.0,0.0,0.0,4.0,0.0,,,,,,,,13.0,0.0,0.257275,-0.429688,0.549561,0.668701,0.8681770000000001,-0.526375,-0.023438,-0.034148000000000005,-0.03784,-0.023496,,,,,,,,,,,,,,,,,,,,,,,,,,,,,,,,,,,0.0,0.0,1.0,0.0,512.0,0.5834229999999999,,,,,,,,,,,,,,,,,,,,,,,,,
10573,1650407649.405533,1650407649.4110599,27.0,0.0,4343.077147999999,4621.025879,4159.487305,4278.974121,4135.897461,0.0,4.0,86.0,,,,0.0,4.0,0.0,0.0,0.0,4.0,0.0,,,,,,,,,,,,,,,,,,,,,,,,,,,,,,,,,,,,,,,,,,,,,,,,,,,,,,,,,,,,,,,,,,,,,,,,,,,,,,,,,,,,
10574,1650407649.413348,1650407649.418975,28.0,0.0,4340.0,4646.666504,4140.512695,4278.974121,4135.384765999999,0.0,4.0,86.0,,,,0.0,4.0,0.0,0.0,0.0,4.0,0.0,,,,,,,,14.0,0.0,0.256753,-0.429688,0.549805,0.668701,0.8530399999999999,-0.518563,-0.022461000000000002,-0.034102999999999994,-0.037864,-0.02725,,,,,,,,,,,,,,,,,,,,,,,,,,,,,,,,,,,,,,,,,,,,,,,,,,,,,,,,,,,,,,,,,
10575,1650407649.421162,1650407649.42679,29.0,0.0,4344.102539,4659.487305,4180.512695,4279.487305,4141.025879,0.0,4.0,86.0,,,,0.0,4.0,0.0,0.0,0.0,4.0,0.0,,,,,,,,,,,,,,,,,,,,,,,,,,,,,,,,,,,,,,,,,,,,,,,,,,,,,,,,,,,,,,,,,,,,,,,,,,,,,,,,,,,,
10576,1650407649.428977,1650407649.4345038,30.0,0.0,4340.0,4627.692383,4201.538574,4279.487305,4125.641113000001,0.0,4.0,86.0,,,,0.0,4.0,0.0,0.0,0.0,4.0,0.0,,,,,,,,15.0,0.0,0.25716100000000003,-0.429443,0.549805,0.668701,0.869642,-0.525399,-0.025391,-0.034061,-0.037788999999999996,-0.027797000000000002,,,,,,,,,,,,,,,,,,,,,,,,,,,,,,,,,,,0.0,0.0,1.0,0.0,512.0,0.5834229999999999,,,,,,,,,,,,,,,,,,,,,,,,,
10577,1650407649.436791,1650407649.442319,31.0,0.0,4337.94873,4622.563965,4233.333496,4280.512695,4129.230957,0.0,4.0,86.0,,,,0.0,4.0,0.0,0.0,0.0,4.0,0.0,,,,,,,,,,,,,,,,,,,,,,,,,,,,,,,,,,,,,,,,,,,,,,,,,,,,,,,,,,,,,,,,,,,,,,,,,,,,,,,,,,,,
10578,1650407649.444606,1650407649.450034,32.0,0.0,4331.282227000001,4664.615234000001,4231.794922,4282.563965,4143.589844,0.0,4.0,86.0,,,,0.0,4.0,0.0,0.0,0.0,4.0,0.0,,,,,,,,16.0,0.0,0.25716100000000003,-0.429443,0.549805,0.668701,0.8584120000000001,-0.521004,-0.030274000000000002,-0.034025,-0.037721,-0.028338,,,,,,,,,,,,,,,,,,,,,,,,,,,,,,,,,,,,,,,,,,,,,,,,,,,,,,,,,,,,,,,,,
10579,1650407649.4524212,1650407649.457848,33.0,0.0,4309.230957,4688.205078,4240.512695,4278.974121,4128.205078,0.0,4.0,86.0,,,,0.0,4.0,0.0,0.0,0.0,4.0,0.0,,,,,,,,,,,,,,,,,,,,,,,,,,,,,,,,,,,,,,,,,,,,,,,,,,,,,,,,,,,,,,,,,,,,,,,,,,,,,,,,,,,,
10580,1650407649.4602349,1650407649.465563,34.0,0.0,4312.820313,4676.922852000001,4238.461426,4277.436035,4126.153809,0.0,4.0,86.0,,,,0.0,4.0,0.0,0.0,0.0,4.0,0.0,,,,,,,,17.0,0.0,0.25704699999999997,-0.429199,0.550049,0.668701,0.8676889999999999,-0.518563,-0.027832,-0.03404,-0.037806,-0.028873000000000003,,,,,,,,,,,,,,,,,,,,,,,,,,,,,,,,,,,0.0,0.0,1.0,0.0,512.0,0.5834229999999999,,,,,,,,,,,,,,,,,,,,,,,,,
10581,1650407649.46805,1650407649.4734778,35.0,0.0,4323.077147999999,4708.717772999999,4274.871582,4281.025879,4156.410156,0.0,4.0,86.0,,,,0.0,4.0,0.0,0.0,0.0,4.0,0.0,,,,,,,,,,,,,,,,,,,,,,,,,,,,,,,,,,,,,,,,,,,,,,,,,,,,,,,,,,,,,,,,,,,,,,,,,,,,,,,,,,,,
10582,1650407649.4758642,1650407649.481293,36.0,0.0,4321.538574,4733.333496,4268.717772999999,4279.487305,4168.717772999999,0.0,4.0,86.0,,,,0.0,4.0,0.0,0.0,0.0,4.0,0.0,,,,,,,,18.0,0.0,0.257569,-0.429199,0.549805,0.668701,0.8686659999999999,-0.512215,-0.032227,-0.034005,-0.037737,-0.029257,,,,,,,,,,,,,,,,,,,,,,,,,,,,,,,,,,,,,,,,,,,,,,,,,,,,,,,,,,,,,,,,,
10583,1650407649.4836788,1650407649.489208,37.0,0.0,4316.410156,4684.102539,4253.846191,4273.846191,4158.461426,0.0,4.0,86.0,,,,0.0,4.0,0.0,0.0,0.0,4.0,0.0,,,,,,,,,,,,,,,,,,,,,,,,,,,,,,,,,,,,,,,,,,,,,,,,,,,,,,,,,,,,,,,,,,,,,,,,,,,,,,,,,,,,
10584,1650407649.491493,1650407649.4970222,38.0,0.0,4340.0,4690.256348,4217.436035,4276.410156,4188.717772999999,0.0,4.0,86.0,,,,0.0,4.0,0.0,0.0,0.0,4.0,0.0,,,,,,,,19.0,0.0,0.25704699999999997,-0.429199,0.550049,0.668701,0.859876,-0.521492,-0.029297000000000004,-0.03412,-0.037674,-0.029554,1.0,0.0,0.0,,,,,,,,,,,,,,,,,,,,,,,,,,,,,,,,0.0,0.0,1.0,0.0,512.0,0.625061,6.803383999999999,4.191587999999999,4.9075370000000005,2.907554,1.5290350000000001,39.242443,45.250706,52.443897,17.489532,14.765009,40.986813,47.361256,13.309088000000001,12.748766,2.544237,0.052839,0.021783,0.085964,0.025036000000000003,0.021483000000000002,98.106941,20.141144,6.943142,3.8025059999999997,1.628829
10585,1650407649.499308,1650407649.504937,39.0,0.0,4353.333496,4789.743652,4237.94873,4279.487305,4211.794922,0.0,4.0,86.0,,,,0.0,4.0,0.0,0.0,0.0,4.0,0.0,,,,,,,,,,,,,,,,,,,,,,,,,,,,,,,,,,,,,,,,,,,,,,,,,,,,,,,,,,,,,,,,,,,,,,,,,,,,,,,,,,,,
10586,1650407649.507123,1650407649.512752,40.0,0.0,4339.487305,4791.794922,4246.666504,4278.461426,4206.153809,0.0,4.0,86.0,,,,0.0,4.0,0.0,0.0,0.0,4.0,0.0,,,,,,,,20.0,0.0,0.25704699999999997,-0.429199,0.550049,0.668701,0.8676889999999999,-0.531746,-0.026368,-0.034126,-0.037667,-0.02655,,,,,,,,,,,,,,,,,,,,,,,,,,,,,,,,,,,,,,,,,,,,,,,,,,,,,,,,,,,,,,,,,
10587,1650407649.514937,1650407649.520667,41.0,0.0,4310.256348,4702.563965,4226.666504,4276.922852000001,4191.794922,0.0,4.0,86.0,,,,0.0,4.0,0.0,0.0,0.0,4.0,0.0,,,,,,,,,,,,,,,,,,,,,,,,,,,,,,,,,,,,,,,,,,,,,,,,,,,,,,,,,,,,,,,,,,,,,,,,,,,,,,,,,,,,
10588,1650407649.522752,1650407649.528482,42.0,0.0,4318.974121,4654.358886999999,4182.05127,4275.384765999999,4203.589844,0.0,4.0,86.0,,,,0.0,4.0,0.0,0.0,0.0,4.0,0.0,,,,,,,,21.0,0.0,0.257454,-0.42895500000000003,0.550049,0.668701,0.854994,-0.528817,-0.026368,-0.034132,-0.037562,-0.027214999999999996,,,,,,,,,,,,,,,,,,,,,,,,,,,,,,,,,,,0.0,0.0,1.0,0.0,512.0,0.625061,,,,,,,,,,,,,,,,,,,,,,,,,
10589,1650407649.530566,1650407649.536397,43.0,0.0,4338.974121,4608.205078,4143.077147999999,4278.974121,4202.563965,0.0,4.0,86.0,,,,0.0,4.0,0.0,0.0,0.0,4.0,0.0,,,,,,,,,,,,,,,,,,,,,,,,,,,,,,,,,,,,,,,,,,,,,,,,,,,,,,,,,,,,,,,,,,,,,,,,,,,,,,,,,,,,
10590,1650407649.538381,1650407649.544211,44.0,0.0,4367.692383,4614.871582,4198.461426,4283.589844,4227.179688,0.0,4.0,86.0,,,,0.0,4.0,0.0,0.0,0.0,4.0,0.0,,,,,,,,22.0,0.0,0.257454,-0.42895500000000003,0.550049,0.668701,0.8676889999999999,-0.517098,-0.025879000000000003,-0.034234,-0.037663,-0.024396,,,,,,,,,,,,,,,,,,,,,,,,,,,,,,,,,,,,,,,,,,,,,,,,,,,,,,,,,,,,,,,,,
10591,1650407649.546195,1650407649.552126,45.0,0.0,4382.563965,4642.563965,4263.077147999999,4282.05127,4261.025879,0.0,4.0,86.0,,,,0.0,4.0,0.0,0.0,0.0,4.0,0.0,,,,,,,,,,,,,,,,,,,,,,,,,,,,,,,,,,,,,,,,,,,,,,,,,,,,,,,,,,,,,,,,,,,,,,,,,,,,,,,,,,,,
10592,1650407649.55401,1650407649.559941,46.0,0.0,4357.94873,4563.077147999999,4244.615234000001,4279.487305,4232.820313,0.0,4.0,86.0,,,,0.0,4.0,0.0,0.0,0.0,4.0,0.0,,,,,,,,23.0,0.0,0.25704699999999997,-0.429199,0.550049,0.668701,0.8676889999999999,-0.531746,-0.026368,-0.034131,-0.037706,-0.021859,,,,,,,,,,,,,,,,,,,,,,,,,,,,,,,,,,,0.0,0.0,1.0,0.0,512.0,0.625061,,,,,,,,,,,,,,,,,,,,,,,,,
10593,1650407649.561825,1650407649.5678551,47.0,0.0,4329.230957,4544.615234000001,4211.282227000001,4278.461426,4200.0,0.0,4.0,86.0,,,,0.0,4.0,0.0,0.0,0.0,4.0,0.0,,,,,,,,,,,,,,,,,,,,,,,,,,,,,,,,,,,,,,,,,,,,,,,,,,,,,,,,,,,,,,,,,,,,,,,,,,,,,,,,,,,,
10594,1650407649.569639,1650407649.57567,48.0,0.0,4345.128418,4680.0,4263.077147999999,4278.461426,4233.333496,0.0,4.0,86.0,,,,0.0,4.0,0.0,0.0,0.0,4.0,0.0,,,,,,,,24.0,0.0,0.257454,-0.42895500000000003,0.550049,0.668701,0.8676889999999999,-0.517098,-0.025879000000000003,-0.034234,-0.037793,-0.019575,,,,,,,,,,,,,,,,,,,,,,,,,,,,,,,,,,,,,,,,,,,,,,,,,,,,,,,,,,,,,,,,,
10595,1650407649.5774539,1650407649.583584,49.0,0.0,4357.436035,4729.743652,4254.358886999999,4280.0,4243.589844,0.0,4.0,86.0,,,,0.0,4.0,0.0,0.0,0.0,4.0,0.0,,,,,,,,,,,,,,,,,,,,,,,,,,,,,,,,,,,,,,,,,,,,,,,,,,,,,,,,,,,,,,,,,,,,,,,,,,,,,,,,,,,,
10596,1650407649.585268,1650407649.591399,50.0,0.0,4337.436035,4678.461426,4263.077147999999,4280.0,4217.94873,0.0,4.0,86.0,,,,0.0,4.0,0.0,0.0,0.0,4.0,0.0,,,,,,,,25.0,0.0,0.257454,-0.42895500000000003,0.550049,0.668701,0.8589,-0.512703,-0.014649,-0.034227999999999995,-0.037822,-0.021036000000000003,,,,,,,,,,,,,,,,,,,,,,,,,,,,,,,,,,,0.0,0.0,1.0,0.0,512.0,0.625061,,,,,,,,,,,,,,,,,,,,,,,,,
10597,1650407649.593083,1650407649.5991142,51.0,0.0,4355.384765999999,4685.128418,4291.282227000001,4276.922852000001,4242.05127,0.0,4.0,86.0,,,,0.0,4.0,0.0,0.0,0.0,4.0,0.0,,,,,,,,,,,,,,,,,,,,,,,,,,,,,,,,,,,,,,,,,,,,,,,,,,,,,,,,,,,,,,,,,,,,,,,,,,,,,,,,,,,,
10598,1650407649.600897,1650407649.607029,52.0,0.0,4371.794922,4720.0,4286.666504,4274.871582,4261.538574,0.0,4.0,86.0,,,,0.0,4.0,0.0,0.0,0.0,4.0,0.0,,,,,,,,26.0,0.0,0.257454,-0.42895500000000003,0.550049,0.668701,0.8574350000000001,-0.517586,-0.019532,-0.034224,-0.037751,-0.015954,,,,,,,,,,,,,,,,,,,,,,,,,,,,,,,,,,,,,,,,,,,,,,,,,,,,,,,,,,,,,,,,,
10599,1650407649.608712,1650407649.614843,53.0,0.0,4342.563965,4711.794922,4227.692383,4275.384765999999,4244.615234000001,0.0,4.0,86.0,,,,0.0,4.0,0.0,0.0,0.0,4.0,0.0,,,,,,,,,,,,,,,,,,,,,,,,,,,,,,,,,,,,,,,,,,,,,,,,,,,,,,,,,,,,,,,,,,,,,,,,,,,,,,,,,,,,
10600,1650407649.6165268,1650407649.622758,54.0,0.0,4317.94873,4669.743652,4256.410156,4276.410156,4233.333496,0.0,4.0,86.0,,,,0.0,4.0,0.0,0.0,0.0,4.0,0.0,,,,,,,,27.0,0.0,0.25786,-0.42871099999999995,0.550049,0.668701,0.8535290000000001,-0.525399,-0.021973,-0.03417,-0.037687,-0.01763,1.0,0.0,0.0,,,,,,,,,,,,,,,,,,,,,,,,,,,,,,,,0.0,0.0,64.0,0.182171,1.0,0.0,5.896415,3.8636120000000003,4.853617,2.5794,1.573574,26.391539,44.728874,52.970913,20.530935,13.150348000000001,36.862652000000004,43.57798,9.223194,13.238887,2.381316,0.050707,0.024224000000000002,0.096457,0.030812,0.022647999999999998,9.058819,3.8477010000000003,4.3552040000000005,2.806623,1.427711
10601,1650407649.624341,1650407649.630573,55.0,0.0,4345.128418,4630.769043,4255.897461,4279.487305,4255.384765999999,0.0,4.0,86.0,,,,0.0,4.0,0.0,0.0,0.0,4.0,0.0,,,,,,,,,,,,,,,,,,,,,,,,,,,,,,,,,,,,,,,,,,,,,,,,,,,,,,,,,,,,,,,,,,,,,,,,,,,,,,,,,,,,
10602,1650407649.6321561,1650407649.638488,56.0,0.0,4355.897461,4668.205078,4208.717772999999,4280.0,4259.487305,0.0,4.0,86.0,,,,0.0,4.0,0.0,0.0,0.0,4.0,0.0,,,,,,,,28.0,0.0,0.25786,-0.42871099999999995,0.550049,0.668701,0.8574350000000001,-0.512703,-0.035644999999999996,-0.034269,-0.037775,-0.019236000000000003,,,,,,,,,,,,,,,,,,,,,,,,,,,,,,,,,,,,,,,,,,,,,,,,,,,,,,,,,,,,,,,,,
10603,1650407649.6399698,1650407649.646303,57.0,0.0,4353.333496,4660.0,4160.512695,4277.436035,4259.487305,0.0,4.0,86.0,,,,0.0,4.0,0.0,0.0,0.0,4.0,0.0,,,,,,,,,,,,,,,,,,,,,,,,,,,,,,,,,,,,,,,,,,,,,,,,,,,,,,,,,,,,,,,,,,,,,,,,,,,,,,,,,,,,
10604,1650407649.647785,1650407649.654218,58.0,0.0,4349.230957,4534.871582,4158.461426,4278.461426,4248.717772999999,0.0,4.0,86.0,,,,0.0,4.0,0.0,0.0,0.0,4.0,0.0,,,,,,,,29.0,0.0,0.257633,-0.428467,0.550049,0.668945,0.863783,-0.526375,-0.044433999999999994,-0.034163,-0.037709,-0.020682,,,,,,,,,,,,,,,,,,,,,,,,,,,,,,,,,,,0.0,0.0,64.0,0.182171,1.0,0.0,,,,,,,,,,,,,,,,,,,,,,,,,
10605,1650407649.655599,1650407649.6620321,59.0,0.0,4355.897461,4491.794922,4207.692383,4281.025879,4246.153809,0.0,4.0,86.0,,,,0.0,4.0,0.0,0.0,0.0,4.0,0.0,,,,,,,,,,,,,,,,,,,,,,,,,,,,,,,,,,,,,,,,,,,,,,,,,,,,,,,,,,,,,,,,,,,,,,,,,,,,,,,,,,,,
10606,1650407649.663414,1650407649.669847,60.0,0.0,4353.333496,4535.384765999999,4233.846191,4277.94873,4246.153809,0.0,4.0,86.0,,,,0.0,4.0,0.0,0.0,0.0,4.0,0.0,,,,,,,,30.0,0.0,0.25711100000000003,-0.428467,0.550293,0.668945,0.8603649999999999,-0.509285,-0.035157,-0.034164,-0.037795999999999996,-0.021983000000000003,,,,,,,,,,,,,,,,,,,,,,,,,,,,,,,,,,,,,,,,,,,,,,,,,,,,,,,,,,,,,,,,,
10607,1650407649.671229,1650407649.677562,61.0,0.0,4356.410156,4541.538574,4229.743652,4277.94873,4253.846191,0.0,4.0,86.0,,,,0.0,4.0,0.0,0.0,0.0,4.0,0.0,,,,,,,,,,,,,,,,,,,,,,,,,,,,,,,,,,,,,,,,,,,,,,,,,,,,,,,,,,,,,,,,,,,,,,,,,,,,,,,,,,,,
10608,1650407649.679043,1650407649.685477,62.0,0.0,4353.333496,4565.128418,4189.743652,4281.025879,4260.512695,0.0,4.0,86.0,,,,0.0,4.0,0.0,0.0,0.0,4.0,0.0,,,,,,,,31.0,0.0,0.257517,-0.42822299999999996,0.550293,0.668945,0.8525520000000001,-0.540536,-0.029297000000000004,-0.034166,-0.037776,-0.016952000000000002,,,,,,,,,,,,,,,,,,,,,,,,,,,,,,,,,,,0.0,0.0,64.0,0.182171,1.0,0.0,,,,,,,,,,,,,,,,,,,,,,,,,
10609,1650407649.686858,1650407649.693292,63.0,0.0,4329.230957,4631.282227000001,4185.641113000001,4278.974121,4246.666504,0.0,4.0,86.0,,,,0.0,4.0,0.0,0.0,0.0,4.0,0.0,,,,,,,,,,,,,,,,,,,,,,,,,,,,,,,,,,,,,,,,,,,,,,,,,,,,,,,,,,,,,,,,,,,,,,,,,,,,,,,,,,,,
10610,1650407649.694672,1650407649.701206,64.0,0.0,4328.205078,4611.282227000001,4220.512695,4274.358886999999,4237.436035,450.0,4.0,86.0,,,,0.0,4.0,0.0,0.0,0.0,4.0,0.0,,,,,,,,32.0,0.0,0.257517,-0.42822299999999996,0.550293,0.668945,0.8657360000000001,-0.5195390000000001,-0.03418,-0.034118,-0.037856,-0.018382,,,,,,,,,,,,,,,,,,,,,,,,,,,,,,,,,,,,,,,,,,,,,,,,,,,,,,,,,,,,,,,,,
10611,1650407649.702487,1650407649.709021,65.0,0.0,4352.307617,4577.94873,4300.512695,4276.922852000001,4262.05127,450.0,4.0,86.0,,,,0.0,4.0,0.0,0.0,0.0,4.0,0.0,,,,,,,,,,,,,,,,,,,,,,,,,,,,,,,,,,,,,,,,,,,,,,,,,,,,,,,,,,,,,,,,,,,,,,,,,,,,,,,,,,,,
10612,1650407649.7103019,1650407649.7169359,66.0,0.0,4359.487305,4638.461426,4280.0,4279.487305,4277.436035,16257.0,4.0,86.0,,,,0.0,4.0,0.0,0.0,0.0,4.0,0.0,,,,,,,,33.0,0.0,0.256995,-0.42822299999999996,0.5505369999999999,0.668945,0.879408,-0.519051,-0.032715,-0.034222,-0.037879,-0.016397,,,,,,,,,,,,,,,,,,,,,,,,,,,,,,,,,,,0.0,0.0,64.0,0.182171,1.0,0.0,,,,,,,,,,,,,,,,,,,,,,,,,
10613,1650407649.718116,1650407649.724851,67.0,0.0,4351.794922,4651.794922,4236.410156,4276.922852000001,4275.384765999999,450.0,4.0,86.0,,,,0.0,4.0,0.0,0.0,0.0,4.0,0.0,,,,,,,,,,,,,,,,,,,,,,,,,,,,,,,,,,,,,,,,,,,,,,,,,,,,,,,,,,,,,,,,,,,,,,,,,,,,,,,,,,,,
10614,1650407649.7259312,1650407649.732666,68.0,0.0,4357.94873,4614.871582,4237.436035,4280.0,4289.230957,0.0,4.0,86.0,,,,0.0,4.0,0.0,0.0,0.0,4.0,0.0,,,,,,,,34.0,0.0,0.25763,-0.42822299999999996,0.5505369999999999,0.668701,0.8652479999999999,-0.519051,-0.03125,-0.034218,-0.0379,-0.018078,,,,,,,,,,,,,,,,,,,,,,,,,,,,,,,,,,,,,,,,,,,,,,,,,,,,,,,,,,,,,,,,,
10615,1650407649.7337449,1650407649.7404811,69.0,0.0,4346.666504,4666.153809,4252.820313,4281.538574,4262.05127,450.0,4.0,86.0,,,,0.0,4.0,0.0,0.0,0.0,4.0,0.0,,,,,,,,,,,,,,,,,,,,,,,,,,,,,,,,,,,,,,,,,,,,,,,,,,,,,,,,,,,,,,,,,,,,,,,,,,,,,,,,,,,,
10616,1650407649.74156,1650407649.748395,70.0,0.0,4335.897461,4750.256348,4183.589844,4278.461426,4226.153809,0.0,4.0,86.0,,,,0.0,4.0,0.0,0.0,0.0,4.0,0.0,,,,,,,,35.0,0.0,0.25763,-0.42822299999999996,0.5505369999999999,0.668701,0.854505,-0.52491,-0.036622,-0.034214,-0.037918,-0.013341,1.0,0.0,0.0,,,,,,,,,,,,,,,,,,,,,,,,,,,,,,,,0.0,0.0,64.0,0.286708,1.0,0.0,5.940036,3.5082419999999996,4.891157,2.244022,1.6189149999999999,26.775866999999998,42.495262,50.283638,23.179884,12.366782,33.997791,42.491248999999996,6.396849,13.334112,2.540784,0.050189,0.026476,0.101923,0.03639,0.024374,4.803244,2.382048,4.963627,2.224199,1.32456
10617,1650407649.749375,1650407649.7562099,71.0,0.0,4333.333496,4708.717772999999,4180.0,4278.974121,4232.307617,450.0,4.0,86.0,,,,0.0,4.0,0.0,0.0,0.0,4.0,0.0,,,,,,,,,,,,,,,,,,,,,,,,,,,,,,,,,,,,,,,,,,,,,,,,,,,,,,,,,,,,,,,,,,,,,,,,,,,,,,,,,,,,
10618,1650407649.757189,1650407649.764124,72.0,0.0,4330.769043,4603.077147999999,4206.153809,4281.538574,4255.897461,450.0,4.0,86.0,,,,0.0,4.0,0.0,0.0,0.0,4.0,0.0,,,,,,,,36.0,0.0,0.258035,-0.427979,0.5505369999999999,0.668701,0.8569469999999999,-0.53077,-0.028321,-0.034211,-0.037984,-0.009174,,,,,,,,,,,,,,,,,,,,,,,,,,,,,,,,,,,,,,,,,,,,,,,,,,,,,,,,,,,,,,,,,
10619,1650407649.765004,1650407649.771939,73.0,0.0,4327.179688,4577.94873,4196.410156,4278.461426,4243.589844,0.0,4.0,86.0,,,,0.0,4.0,0.0,0.0,0.0,4.0,0.0,,,,,,,,,,,,,,,,,,,,,,,,,,,,,,,,,,,,,,,,,,,,,,,,,,,,,,,,,,,,,,,,,,,,,,,,,,,,,,,,,,,,
10620,1650407649.7728179,1650407649.7796538,74.0,0.0,4355.897461,4629.743652,4180.512695,4276.922852000001,4257.436035,450.0,4.0,86.0,,,,0.0,4.0,0.0,0.0,0.0,4.0,0.0,,,,,,,,37.0,0.0,0.257513,-0.427979,0.5507810000000001,0.668701,0.8603649999999999,-0.51368,-0.01709,-0.034305,-0.037945,-0.014312,,,,,,,,,,,,,,,,,,,,,,,,,,,,,,,,,,,0.0,0.0,64.0,0.286708,1.0,0.0,,,,,,,,,,,,,,,,,,,,,,,,,
10621,1650407649.780633,1650407649.787468,75.0,0.0,4338.974121,4637.94873,4164.615234000001,4279.487305,4251.794922,16210.0,4.0,86.0,,,,0.0,4.0,0.0,0.0,0.0,4.0,0.0,,,,,,,,,,,,,,,,,,,,,,,,,,,,,,,,,,,,,,,,,,,,,,,,,,,,,,,,,,,,,,,,,,,,,,,,,,,,,,,,,,,,
10622,1650407649.7884471,1650407649.795183,76.0,0.0,4306.666504,4596.922852000001,4166.666504,4280.0,4217.94873,450.0,4.0,86.0,,,,0.0,4.0,0.0,0.0,0.0,4.0,0.0,,,,,,,,38.0,0.0,0.257513,-0.427979,0.5507810000000001,0.668701,0.8559700000000001,-0.526864,-0.032227,-0.034244,-0.037911,-0.016152,,,,,,,,,,,,,,,,,,,,,,,,,,,,,,,,,,,,,,,,,,,,,,,,,,,,,,,,,,,,,,,,,
10623,1650407649.796262,1650407649.802998,77.0,0.0,4309.230957,4598.461426,4173.333496,4278.461426,4211.794922,450.0,4.0,86.0,,,,0.0,4.0,0.0,0.0,0.0,4.0,0.0,,,,,,,,,,,,,,,,,,,,,,,,,,,,,,,,,,,,,,,,,,,,,,,,,,,,,,,,,,,,,,,,,,,,,,,,,,,,,,,,,,,,
10624,1650407649.804077,1650407649.810713,78.0,0.0,4331.794922,4622.563965,4180.0,4277.436035,4235.384765999999,450.0,4.0,86.0,,,,0.0,4.0,0.0,0.0,0.0,4.0,0.0,,,,,,,,39.0,0.0,0.257513,-0.427979,0.5507810000000001,0.668701,0.8520639999999999,-0.5302819999999999,-0.024903,-0.034238,-0.037927999999999996,-0.020689,,,,,,,,,,,,,,,,,,,,,,,,,,,,,,,,,,,0.0,0.0,64.0,0.286708,1.0,0.0,,,,,,,,,,,,,,,,,,,,,,,,,
10625,1650407649.811891,1650407649.818527,79.0,0.0,4334.871582,4597.94873,4219.487305,4277.94873,4238.461426,16210.0,4.0,86.0,,,,0.0,4.0,0.0,0.0,0.0,4.0,0.0,,,,,,,,,,,,,,,,,,,,,,,,,,,,,,,,,,,,,,,,,,,,,,,,,,,,,,,,,,,,,,,,,,,,,,,,,,,,,,,,,,,,
