,Timestamp,OriginalTimestamp,EEG.Counter,EEG.Interpolated,EEG.AF3,EEG.T7,EEG.Pz,EEG.T8,EEG.AF4,EEG.RawCq,EEG.Battery,EEG.BatteryPercent,MarkerIndex,MarkerType,MarkerValueInt,EEG.MarkerHardware,CQ.AF3,CQ.T7,CQ.Pz,CQ.T8,CQ.AF4,CQ.Overall,EQ.SampleRateQuality,EQ.OVERALL,EQ.AF3,EQ.T7,EQ.Pz,EQ.T8,EQ.AF4,MOT.CounterMems,MOT.InterpolatedMems,MOT.Q0,MOT.Q1,MOT.Q2,MOT.Q3,MOT.AccX,MOT.AccY,MOT.AccZ,MOT.MagX,MOT.MagY,MOT.MagZ,MC.Action,MC.ActionPower,MC.IsActive,PM.Engagement.IsActive,PM.Engagement.Scaled,PM.Engagement.Raw,PM.Engagement.Min,PM.Engagement.Max,PM.Excitement.IsActive,PM.Excitement.Scaled,PM.Excitement.Raw,PM.Excitement.Min,PM.Excitement.Max,PM.LongTermExcitement,PM.Stress.IsActive,PM.Stress.Scaled,PM.Stress.Raw,PM.Stress.Min,PM.Stress.Max,PM.Relaxation.IsActive,PM.Relaxation.Scaled,PM.Relaxation.Raw,PM.Relaxation.Min,PM.Relaxation.Max,PM.Interest.IsActive,PM.Interest.Scaled,PM.Interest.Raw,PM.Interest.Min,PM.Interest.Max,PM.Focus.IsActive,PM.Focus.Scaled,PM.Focus.Raw,PM.Focus.Min,PM.Focus.Max,FE.BlinkWink,FE.HorizontalEyesDirection,FE.UpperFaceAction,FE.UpperFaceActionPower,FE.LowerFaceAction,FE.LowerFaceActionPower,POW.AF3.Theta,POW.AF3.Alpha,POW.AF3.BetaL,POW.AF3.BetaH,POW.AF3.Gamma,POW.T7.Theta,POW.T7.Alpha,POW.T7.BetaL,POW.T7.BetaH,POW.T7.Gamma,POW.Pz.Theta,POW.Pz.Alpha,POW.Pz.BetaL,POW.Pz.BetaH,POW.Pz.Gamma,POW.T8.Theta,POW.T8.Alpha,POW.T8.BetaL,POW.T8.BetaH,POW.T8.Gamma,POW.AF4.Theta,POW.AF4.Alpha,POW.AF4.BetaL,POW.AF4.BetaH,POW.AF4.Gamma
11399,1650415501.231451,1650415501.261276,20.0,0.0,4352.820313,4244.102539,4347.692383,4301.538574,4277.94873,0.0,3.0,68.0,18.0,1.0,7.0,0.0,4.0,0.0,0.0,0.0,4.0,0.0,,,,,,,,10.0,0.0,0.068477,-0.571045,0.34668000000000004,0.740967,0.895033,-0.438483,-0.098146,-0.046481,-0.055347,-0.019188,,,,,,,,,,,,,,,,,,,,,,,,,,,,,,,,,,,,,,,,,,,,,,,,,,,,,,,,,,,,,,,,,
11400,1650415501.239266,1650415501.2690911,21.0,0.0,4297.436035,4317.436035,4322.563965,4304.102539,4244.102539,0.0,3.0,68.0,,,,0.0,4.0,0.0,0.0,0.0,4.0,0.0,,,,,,,,,,,,,,,,,,,,,,,,,,,,,,,,,,,,,,,,,,,,,,,,,,,,,,0.0,0.0,1.0,0.0,512.0,1.0,,,,,,,,,,,,,,,,,,,,,,,,,
11401,1650415501.24708,1650415501.2768052,22.0,0.0,4311.282227000001,4243.589844,4279.487305,4283.077147999999,4231.282227000001,0.0,3.0,68.0,,,,0.0,4.0,0.0,0.0,0.0,4.0,0.0,,,,,,,,11.0,0.0,0.06578200000000001,-0.571045,0.34668000000000004,0.741211,0.906264,-0.421393,-0.101564,-0.046374,-0.055378,-0.014193,,,,,,,,,,,,,,,,,,,,,,,,,,,,,,,,,,,,,,,,,,,,,,,,,,,,,,,,,,,,,,,,,
11402,1650415501.254895,1650415501.2846198,23.0,0.0,4320.512695,4209.230957,4283.077147999999,4276.410156,4254.871582,0.0,3.0,68.0,,,,0.0,4.0,0.0,0.0,0.0,4.0,0.0,,,,,,,,,,,,,,,,,,,,,,,,,,,,,,,,,,,,,,,,,,,,,,,,,,,,,,,,,,,,,,,,,,,,,,,,,,,,,,,,,,,,
11403,1650415501.2627099,1650415501.292335,24.0,0.0,4319.487305,4309.743652,4332.820313,4292.820313,4289.230957,0.0,3.0,68.0,,,,0.0,4.0,0.0,0.0,0.0,4.0,0.0,,,,,,,,12.0,0.0,0.06578200000000001,-0.571045,0.34668000000000004,0.741211,0.9087049999999999,-0.42432299999999995,-0.104494,-0.046375,-0.055309000000000004,-0.015752000000000002,,,,,,,,,,,,,,,,,,,,,,,,,,,,,,,,,,,,,,,,,,,,,,,,,,,,,,,,,,,,,,,,,
11404,1650415501.270524,1650415501.300149,25.0,0.0,4311.282227000001,4343.077147999999,4344.615234000001,4292.307617,4275.384765999999,0.0,3.0,68.0,,,,0.0,4.0,0.0,0.0,0.0,4.0,0.0,,,,,,,,,,,,,,,,,,,,1.0,0.0,0.0,,,,,,,,,,,,,,,,,,,,,,,,,,,,,,,,0.0,0.0,1.0,0.0,512.0,1.0,1.508289,6.224573,3.407981,4.580233,3.591111,76.727753,75.318466,28.935167,21.419401,15.829716000000001,7.195744,5.0781410000000005,5.511389,2.451247,1.795496,2.892509,3.064775,2.860775,2.1014369999999998,1.5987049999999998,2.559613,5.344639,2.617323,4.382544,5.253083999999999
11405,1650415501.2783391,1650415501.307864,26.0,0.0,4305.641113000001,4280.0,4340.0,4287.179688,4244.615234000001,0.0,3.0,68.0,,,,0.0,4.0,0.0,0.0,0.0,4.0,0.0,,,,,,,,13.0,0.0,0.06705599999999999,-0.571045,0.346436,0.741211,0.9116350000000001,-0.409674,-0.095216,-0.046474,-0.055296000000000005,-0.017302,,,,,,,,,,,,,,,,,,,,,,,,,,,,,,,,,,,,,,,,,,,,,,,,,,,,,,,,,,,,,,,,,
11406,1650415501.2861528,1650415501.3156788,27.0,0.0,4338.974121,4274.358886999999,4330.256348,4297.436035,4253.333496,0.0,3.0,68.0,,,,0.0,4.0,0.0,0.0,0.0,4.0,0.0,,,,,,,,,,,,,,,,,,,,,,,,,,,,,,,,,,,,,,,,,,,,,,,,,,,,,,,,,,,,,,,,,,,,,,,,,,,,,,,,,,,,
11407,1650415501.293968,1650415501.323394,28.0,0.0,4355.384765999999,4396.922852000001,4338.974121,4300.0,4263.077147999999,0.0,3.0,68.0,,,,0.0,4.0,0.0,0.0,0.0,4.0,0.0,,,,,,,,14.0,0.0,0.06578200000000001,-0.571045,0.34668000000000004,0.741211,0.906264,-0.421393,-0.101564,-0.046368,-0.05533300000000001,-0.012496,,,,,,,,,,,,,,,,,,,,,,,,,,,,,,,,,,,,,,,,,,,,,,,,,,,,,,,,,,,,,,,,,
11408,1650415501.3017821,1650415501.331208,29.0,0.0,4348.717772999999,4443.077147999999,4343.589844,4295.384765999999,4242.563965,0.0,3.0,68.0,,,,0.0,4.0,0.0,0.0,0.0,4.0,0.0,,,,,,,,,,,,,,,,,,,,,,,,,,,,,,,,,,,,,,,,,,,,,,,,,,,,,,0.0,0.0,1.0,0.0,512.0,1.0,,,,,,,,,,,,,,,,,,,,,,,,,
11409,1650415501.309597,1650415501.338923,30.0,0.0,4322.05127,4357.436035,4313.846191,4296.410156,4263.077147999999,0.0,3.0,68.0,,,,0.0,4.0,0.0,0.0,0.0,4.0,0.0,,,,,,,,15.0,0.0,0.06705599999999999,-0.571045,0.346436,0.741211,0.9116350000000001,-0.409674,-0.095216,-0.046467,-0.055317,-0.014371,,,,,,,,,,,,,,,,,,,,,,,,,,,,,,,,,,,,,,,,,,,,,,,,,,,,,,,,,,,,,,,,,
11410,1650415501.317411,1650415501.346738,31.0,0.0,4304.615234000001,4323.589844,4310.256348,4295.384765999999,4278.461426,0.0,3.0,68.0,,,,0.0,4.0,0.0,0.0,0.0,4.0,0.0,,,,,,,,,,,,,,,,,,,,,,,,,,,,,,,,,,,,,,,,,,,,,,,,,,,,,,,,,,,,,,,,,,,,,,,,,,,,,,,,,,,,
11411,1650415501.325226,1650415501.354452,32.0,0.0,4350.256348,4362.05127,4312.820313,4296.410156,4251.794922,0.0,3.0,68.0,,,,0.0,4.0,0.0,0.0,0.0,4.0,0.0,,,,,,,,16.0,0.0,0.06705599999999999,-0.571045,0.346436,0.741211,0.9121229999999999,-0.415534,-0.114748,-0.046362,-0.055254,-0.016108,,,,,,,,,,,,,,,,,,,,,,,,,,,,,,,,,,,,,,,,,,,,,,,,,,,,,,,,,,,,,,,,,
11412,1650415501.33304,1650415501.362167,33.0,0.0,4367.692383,4408.717772999999,4288.717772999999,4297.94873,4274.358886999999,0.0,3.0,68.0,,,,0.0,4.0,0.0,0.0,0.0,4.0,0.0,,,,,,,,,,,,,,,,,,,,,,,,,,,,,,,,,,,,,,,,,,,,,,,,,,,,,,0.0,0.0,1.0,0.0,512.0,1.0,,,,,,,,,,,,,,,,,,,,,,,,,
11413,1650415501.3408551,1650415501.369982,34.0,0.0,4328.205078,4413.333496,4296.922852000001,4295.384765999999,4328.717772999999,0.0,3.0,68.0,,,,0.0,4.0,0.0,0.0,0.0,4.0,0.0,,,,,,,,17.0,0.0,0.06830499999999999,-0.571045,0.34619099999999997,0.741211,0.908217,-0.417487,-0.103029,-0.046363999999999995,-0.055295000000000004,-0.011372,,,,,,,,,,,,,,,,,,,,,,,,,,,,,,,,,,,,,,,,,,,,,,,,,,,,,,,,,,,,,,,,,
11414,1650415501.348669,1650415501.377697,35.0,0.0,4375.897461,4373.846191,4350.256348,4298.974121,4327.179688,0.0,3.0,68.0,,,,0.0,4.0,0.0,0.0,0.0,4.0,0.0,,,,,,,,,,,,,,,,,,,,,,,,,,,,,,,,,,,,,,,,,,,,,,,,,,,,,,,,,,,,,,,,,,,,,,,,,,,,,,,,,,,,
11415,1650415501.356484,1650415501.385511,36.0,0.0,4464.102539,4320.512695,4336.410156,4304.102539,4319.487305,0.0,3.0,68.0,,,,0.0,4.0,0.0,0.0,0.0,4.0,0.0,,,,,,,,18.0,0.0,0.06769299999999999,-0.570801,0.34619099999999997,0.741455,0.905776,-0.43994799999999995,-0.116701,-0.046367,-0.055284,-0.013262000000000001,,,,,,,,,,,,,,,,,,,,,,,,,,,,,,,,,,,,,,,,,,,,,,,,,,,,,,,,,,,,,,,,,
11416,1650415501.364298,1650415501.393226,37.0,0.0,4414.871582,4355.384765999999,4302.05127,4295.384765999999,4371.282227000001,0.0,3.0,68.0,,,,0.0,4.0,0.0,0.0,0.0,4.0,0.0,,,,,,,,,,,,,,,,,,,,,,,,,,,,,,,,,,,,,,,,,,,,,,,,,,,,,,0.0,0.0,1.0,0.0,512.0,1.0,,,,,,,,,,,,,,,,,,,,,,,,,
11417,1650415501.372113,1650415501.401041,38.0,0.0,4371.794922,4389.743652,4349.743652,4289.743652,4363.589844,0.0,3.0,68.0,,,,0.0,4.0,0.0,0.0,0.0,4.0,0.0,,,,,,,,19.0,0.0,0.06769299999999999,-0.570801,0.34619099999999997,0.741455,0.902358,-0.43262399999999995,-0.10888800000000001,-0.046271,-0.055224,-0.015061000000000001,,,,,,,,,,,,,,,,,,,,,,,,,,,,,,,,,,,,,,,,,,,,,,,,,,,,,,,,,,,,,,,,,
11418,1650415501.3799279,1650415501.408755,39.0,0.0,4432.820313,4295.897461,4346.666504,4297.94873,4308.717772999999,0.0,3.0,68.0,,,,0.0,4.0,0.0,0.0,0.0,4.0,0.0,,,,,,,,,,,,,,,,,,,,,,,,,,,,,,,,,,,,,,,,,,,,,,,,,,,,,,,,,,,,,,,,,,,,,,,,,,,,,,,,,,,,
11419,1650415501.387742,1650415501.41657,40.0,0.0,4422.563965,4313.333496,4302.563965,4298.461426,4350.769043,0.0,3.0,68.0,,,,0.0,4.0,0.0,0.0,0.0,4.0,0.0,,,,,,,,20.0,0.0,0.06769299999999999,-0.570801,0.34619099999999997,0.741455,0.900893,-0.4336,-0.11621300000000001,-0.046283,-0.055219000000000004,-0.013456999999999998,,,,,,,,,,,,,,,,,,,,,,,,,,,,,,,,,,,,,,,,,,,,,,,,,,,,,,,,,,,,,,,,,
11420,1650415501.395557,1650415501.424285,41.0,0.0,4382.05127,4435.384765999999,4346.666504,4294.358886999999,4380.512695,0.0,3.0,68.0,,,,0.0,4.0,0.0,0.0,0.0,4.0,0.0,,,,,,,,,,,,,,,,,,,,1.0,0.0,0.0,,,,,,,,,,,,,,,,,,,,,,,,,,,,,,,,0.0,0.0,1.0,0.0,512.0,1.0,1.8274669999999997,6.453359,3.18865,4.78165,3.465728,79.293777,83.967117,32.842548,17.957325,15.677206,6.322122,4.906928,4.926227,2.217768,2.069127,2.1607790000000002,1.9142709999999998,2.905842,1.903546,1.418661,2.416067,5.37898,1.9709720000000002,4.779671,5.495893
11421,1650415501.403371,1650415501.432099,42.0,0.0,4419.487305,4368.205078,4363.077147999999,4296.410156,4316.410156,0.0,3.0,68.0,,,,0.0,4.0,0.0,0.0,0.0,4.0,0.0,,,,,,,,21.0,0.0,0.06705599999999999,-0.571045,0.346436,0.741211,0.9028459999999999,-0.433112,-0.11035299999999999,-0.046293,-0.055264,-0.018313,,,,,,,,,,,,,,,,,,,,,,,,,,,,,,,,,,,,,,,,,,,,,,,,,,,,,,,,,,,,,,,,,
11422,1650415501.411186,1650415501.439814,43.0,0.0,4415.384765999999,4288.205078,4294.871582,4296.922852000001,4331.282227000001,0.0,3.0,68.0,,,,0.0,4.0,0.0,0.0,0.0,4.0,0.0,,,,,,,,,,,,,,,,,,,,,,,,,,,,,,,,,,,,,,,,,,,,,,,,,,,,,,,,,,,,,,,,,,,,,,,,,,,,,,,,,,,,
11423,1650415501.419,1650415501.447629,44.0,0.0,4378.461426,4352.307617,4312.820313,4298.461426,4397.436035,0.0,3.0,68.0,,,,0.0,4.0,0.0,0.0,0.0,4.0,0.0,,,,,,,,22.0,0.0,0.06705599999999999,-0.571045,0.346436,0.741211,0.9091940000000001,-0.43994799999999995,-0.122072,-0.044838,-0.055109000000000005,-0.019558000000000002,,,,,,,,,,,,,,,,,,,,,,,,,,,,,,,,,,,,,,,,,,,,,,,,,,,,,,,,,,,,,,,,,
11424,1650415501.426815,1650415501.455344,45.0,0.0,4418.461426,4261.025879,4369.230957,4304.102539,4352.820313,0.0,3.0,68.0,,,,0.0,4.0,0.0,0.0,0.0,4.0,0.0,,,,,,,,,,,,,,,,,,,,,,,,,,,,,,,,,,,,,,,,,,,,,,,,,,,,,,0.0,0.0,1.0,0.0,512.0,1.0,,,,,,,,,,,,,,,,,,,,,,,,,
11425,1650415501.434629,1650415501.463158,46.0,0.0,4429.230957,4140.0,4310.769043,4304.615234000001,4334.871582,0.0,3.0,68.0,,,,0.0,4.0,0.0,0.0,0.0,4.0,0.0,,,,,,,,23.0,0.0,0.069702,-0.571045,0.346436,0.740967,0.921889,-0.423835,-0.11035299999999999,-0.044993,-0.055018,-0.020628999999999998,,,,,,,,,,,,,,,,,,,,,,,,,,,,,,,,,,,,,,,,,,,,,,,,,,,,,,,,,,,,,,,,,
11426,1650415501.4424438,1650415501.470873,47.0,0.0,4388.717772999999,4253.846191,4286.153809,4302.05127,4394.358886999999,0.0,3.0,68.0,,,,0.0,4.0,0.0,0.0,0.0,4.0,0.0,,,,,,,,,,,,,,,,,,,,,,,,,,,,,,,,,,,,,,,,,,,,,,,,,,,,,,,,,,,,,,,,,,,,,,,,,,,,,,,,,,,,
11427,1650415501.450258,1650415501.478688,48.0,0.0,4402.05127,4271.794922,4336.922852000001,4303.077147999999,4354.871582,0.0,3.0,68.0,,,,0.0,4.0,0.0,0.0,0.0,4.0,0.0,,,,,,,,24.0,0.0,0.06767100000000001,-0.571289,0.346436,0.740967,0.904799,-0.42090500000000003,-0.106447,-0.045279,-0.055034000000000007,-0.018469,,,,,,,,,,,,,,,,,,,,,,,,,,,,,,,,,,,,,,,,,,,,,,,,,,,,,,,,,,,,,,,,,
11428,1650415501.4580731,1650415501.486402,49.0,0.0,4402.563965,4158.461426,4327.179688,4301.538574,4301.025879,0.0,3.0,68.0,,,,0.0,4.0,0.0,0.0,0.0,4.0,0.0,,,,,,,,,,,,,,,,,,,,,,,,,,,,,,,,,,,,,,,,,,,,,,,,,,,,,,0.0,0.0,1.0,0.0,512.0,1.0,,,,,,,,,,,,,,,,,,,,,,,,,
11429,1650415501.4658868,1650415501.494217,50.0,0.0,4378.461426,4175.384765999999,4298.461426,4299.487305,4328.205078,0.0,3.0,68.0,,,,0.0,4.0,0.0,0.0,0.0,4.0,0.0,,,,,,,,25.0,0.0,0.06891,-0.571289,0.34619099999999997,0.740967,0.91017,-0.42969399999999996,-0.105959,-0.045341,-0.05495,-0.019747,,,,,,,,,,,,,,,,,,,,,,,,,,,,,,,,,,,,,,,,,,,,,,,,,,,,,,,,,,,,,,,,,
11430,1650415501.473702,1650415501.5019321,51.0,0.0,4389.743652,4222.563965,4308.717772999999,4296.410156,4328.717772999999,0.0,3.0,68.0,,,,0.0,4.0,0.0,0.0,0.0,4.0,0.0,,,,,,,,,,,,,,,,,,,,,,,,,,,,,,,,,,,,,,,,,,,,,,,,,,,,,,,,,,,,,,,,,,,,,,,,,,,,,,,,,,,,
11431,1650415501.4815161,1650415501.5096462,52.0,0.0,4394.871582,4230.769043,4327.692383,4294.871582,4320.0,0.0,3.0,68.0,,,,0.0,4.0,0.0,0.0,0.0,4.0,0.0,,,,,,,,26.0,0.0,0.066232,-0.571289,0.34619099999999997,0.741211,0.901869,-0.424811,-0.11084200000000001,-0.045445,-0.054875,-0.0208,,,,,,,,,,,,,,,,,,,,,,,,,,,,,,,,,,,,,,,,,,,,,,,,,,,,,,,,,,,,,,,,,
11432,1650415501.489331,1650415501.5174608,53.0,0.0,4376.410156,4256.922852000001,4329.743652,4305.128418,4331.282227000001,0.0,3.0,68.0,,,,0.0,4.0,0.0,0.0,0.0,4.0,0.0,,,,,,,,,,,,,,,,,,,,,,,,,,,,,,,,,,,,,,,,,,,,,,,,,,,,,,10.0,0.0,1.0,0.0,512.0,1.0,,,,,,,,,,,,,,,,,,,,,,,,,
11433,1650415501.4971461,1650415501.525176,54.0,0.0,4358.461426,4290.769043,4323.589844,4305.641113000001,4308.205078,0.0,3.0,68.0,,,,0.0,4.0,0.0,0.0,0.0,4.0,0.0,,,,,,,,27.0,0.0,0.067496,-0.571289,0.345947,0.741211,0.909682,-0.443366,-0.119631,-0.04554,-0.054857,-0.021845,,,,,,,,,,,,,,,,,,,,,,,,,,,,,,,,,,,,,,,,,,,,,,,,,,,,,,,,,,,,,,,,,
11434,1650415501.50496,1650415501.532991,55.0,0.0,4350.256348,4288.205078,4326.666504,4288.205078,4270.769043,0.0,3.0,68.0,,,,0.0,4.0,0.0,0.0,0.0,4.0,0.0,,,,,,,,,,,,,,,,,,,,,,,,,,,,,,,,,,,,,,,,,,,,,,,,,,,,,,,,,,,,,,,,,,,,,,,,,,,,,,,,,,,,
11435,1650415501.512775,1650415501.540805,56.0,0.0,4346.153809,4286.666504,4343.077147999999,4284.615234000001,4282.563965,0.0,3.0,68.0,,,,0.0,4.0,0.0,0.0,0.0,4.0,0.0,,,,,,,,28.0,0.0,0.066232,-0.571289,0.34619099999999997,0.741211,0.908217,-0.446296,-0.10547000000000001,-0.045624,-0.054937,-0.022736000000000003,,,,,,,,,,,,,,,,,,,,,,,,,,,,,,,,,,,,,,,,,,,,,,,,,,,,,,,,,,,,,,,,,
11436,1650415501.520589,1650415501.5485198,57.0,0.0,4357.436035,4285.128418,4357.94873,4313.333496,4296.410156,0.0,3.0,68.0,,,,0.0,4.0,0.0,0.0,0.0,4.0,0.0,,,,,,,,,,,,,,,,,,,,1.0,0.0,0.0,,,,,,,,,,,,,,,,,,,,,,,,,,,,,,,,10.0,0.0,1.0,0.0,512.0,1.0,2.580241,6.2142230000000005,2.855318,4.700426,3.4095459999999997,79.967102,89.298958,36.517272999999996,16.202168,15.105873999999998,6.178783999999999,5.053166,4.142548000000001,1.9449509999999999,2.50444,1.540196,1.125106,2.65151,1.6481599999999998,1.243394,2.651625,5.4319370000000005,1.47646,5.240488,5.795789
11437,1650415501.528404,1650415501.556335,58.0,0.0,4374.871582,4236.922852000001,4344.102539,4313.333496,4282.563965,0.0,3.0,68.0,,,,0.0,4.0,0.0,0.0,0.0,4.0,0.0,,,,,,,,29.0,0.0,0.066232,-0.571289,0.34619099999999997,0.741211,0.8994280000000001,-0.45361999999999997,-0.11621300000000001,-0.045603,-0.05501,-0.02349,,,,,,,,,,,,,,,,,,,,,,,,,,,,,,,,,,,,,,,,,,,,,,,,,,,,,,,,,,,,,,,,,
11438,1650415501.536218,1650415501.564049,59.0,0.0,4379.487305,4206.666504,4342.05127,4273.846191,4317.436035,0.0,3.0,68.0,,,,0.0,4.0,0.0,0.0,0.0,4.0,0.0,,,,,,,,,,,,,,,,,,,,,,,,,,,,,,,,,,,,,,,,,,,,,,,,,,,,,,,,,,,,,,,,,,,,,,,,,,,,,,,,,,,,
11439,1650415501.544033,1650415501.571764,60.0,0.0,4382.05127,4232.820313,4340.0,4263.077147999999,4351.282227000001,0.0,3.0,68.0,,,,0.0,4.0,0.0,0.0,0.0,4.0,0.0,,,,,,,,30.0,0.0,0.066232,-0.571289,0.34619099999999997,0.741211,0.910658,-0.44385399999999997,-0.11133,-0.045681,-0.055027,-0.021092,,,,,,,,,,,,,,,,,,,,,,,,,,,,,,,,,,,,,,,,,,,,,,,,,,,,,,,,,,,,,,,,,
11440,1650415501.551847,1650415501.5795789,61.0,0.0,4398.974121,4242.05127,4311.794922,4277.94873,4318.974121,0.0,3.0,68.0,,,,0.0,4.0,0.0,0.0,0.0,4.0,0.0,,,,,,,,,,,,,,,,,,,,,,,,,,,,,,,,,,,,,,,,,,,,,,,,,,,,,,10.0,0.0,1.0,0.0,512.0,1.0,,,,,,,,,,,,,,,,,,,,,,,,,
11441,1650415501.5596619,1650415501.587293,62.0,0.0,4390.769043,4239.487305,4310.769043,4286.153809,4316.410156,0.0,3.0,68.0,,,,0.0,4.0,0.0,0.0,0.0,4.0,0.0,,,,,,,,31.0,0.0,0.064943,-0.571289,0.346436,0.741211,0.9121229999999999,-0.428717,-0.10498199999999999,-0.045801,-0.055139,-0.022059,,,,,,,,,,,,,,,,,,,,,,,,,,,,,,,,,,,,,,,,,,,,,,,,,,,,,,,,,,,,,,,,,
11442,1650415501.567476,1650415501.595108,63.0,0.0,4369.743652,4269.743652,4346.666504,4312.307617,4351.282227000001,0.0,3.0,68.0,,,,0.0,4.0,0.0,0.0,0.0,4.0,0.0,,,,,,,,,,,,,,,,,,,,,,,,,,,,,,,,,,,,,,,,,,,,,,,,,,,,,,,,,,,,,,,,,,,,,,,,,,,,,,,,,,,,
11443,1650415501.575291,1650415501.602823,64.0,0.0,4401.025879,4230.256348,4326.666504,4326.153809,4294.871582,450.0,3.0,68.0,,,,0.0,4.0,0.0,0.0,0.0,4.0,0.0,,,,,,,,32.0,0.0,0.06767100000000001,-0.571289,0.346436,0.740967,0.914565,-0.43457700000000005,-0.103029,-0.045860000000000005,-0.055094000000000004,-0.019805,,,,,,,,,,,,,,,,,,,,,,,,,,,,,,,,,,,,,,,,,,,,,,,,,,,,,,,,,,,,,,,,,
11444,1650415501.583106,1650415501.610637,65.0,0.0,4405.128418,4225.128418,4271.282227000001,4291.794922,4270.769043,450.0,3.0,68.0,,,,0.0,4.0,0.0,0.0,0.0,4.0,0.0,,,,,,,,,,,,,,,,,,,,,,,,,,,,,,,,,,,,,,,,,,,,,,,,,,,,,,10.0,0.0,1.0,0.0,512.0,1.0,,,,,,,,,,,,,,,,,,,,,,,,,
11445,1650415501.59092,1650415501.618352,66.0,0.0,4368.205078,4316.410156,4315.384765999999,4282.05127,4337.436035,319.0,3.0,68.0,,,,0.0,2.0,0.0,0.0,0.0,4.0,0.0,,,,,,,,33.0,0.0,0.06767100000000001,-0.571289,0.346436,0.740967,0.900893,-0.448737,-0.112795,-0.045864,-0.055151,-0.017775,,,,,,,,,,,,,,,,,,,,,,,,,,,,,,,,,,,,,,,,,,,,,,,,,,,,,,,,,,,,,,,,,
11446,1650415501.5987349,1650415501.626067,67.0,0.0,4399.487305,4251.794922,4339.487305,4298.974121,4328.205078,450.0,3.0,68.0,,,,0.0,2.0,0.0,0.0,0.0,4.0,0.0,,,,,,,,,,,,,,,,,,,,,,,,,,,,,,,,,,,,,,,,,,,,,,,,,,,,,,,,,,,,,,,,,,,,,,,,,,,,,,,,,,,,
11447,1650415501.606549,1650415501.633882,68.0,0.0,4424.102539,4171.794922,4300.0,4293.333496,4336.922852000001,11.0,3.0,68.0,,,,0.0,2.0,0.0,0.0,0.0,4.0,0.0,,,,,,,,34.0,0.0,0.068477,-0.571045,0.34668000000000004,0.740967,0.893568,-0.445808,-0.104494,-0.045965,-0.055202999999999995,-0.019025,,,,,,,,,,,,,,,,,,,,,,,,,,,,,,,,,,,,,,,,,,,,,,,,,,,,,,,,,,,,,,,,,
11448,1650415501.6143641,1650415501.641596,69.0,0.0,4408.717772999999,4266.666504,4325.128418,4297.436035,4393.846191,450.0,3.0,68.0,,,,0.0,2.0,0.0,0.0,0.0,4.0,0.0,,,,,,,,,,,,,,,,,,,,,,,,,,,,,,,,,,,,,,,,,,,,,,,,,,,,,,10.0,0.0,1.0,0.0,512.0,1.0,,,,,,,,,,,,,,,,,,,,,,,,,
11449,1650415501.6221778,1650415501.649411,70.0,0.0,4420.0,4311.794922,4336.410156,4275.897461,4332.307617,0.0,3.0,68.0,,,,0.0,2.0,0.0,0.0,0.0,4.0,0.0,,,,,,,,35.0,0.0,0.06578200000000001,-0.571045,0.34668000000000004,0.741211,0.8921030000000001,-0.43799499999999997,-0.107424,-0.045958,-0.055249,-0.020199,,,,,,,,,,,,,,,,,,,,,,,,,,,,,,,,,,,,,,,,,,,,,,,,,,,,,,,,,,,,,,,,,
11450,1650415501.629993,1650415501.657226,71.0,0.0,4385.641113000001,4305.128418,4312.820313,4229.743652,4265.128418,450.0,3.0,68.0,,,,0.0,2.0,0.0,0.0,0.0,4.0,0.0,,,,,,,,,,,,,,,,,,,,,,,,,,,,,,,,,,,,,,,,,,,,,,,,,,,,,,,,,,,,,,,,,,,,,,,,,,,,,,,,,,,,
11451,1650415501.6378071,1650415501.66494,72.0,0.0,4345.641113000001,4334.871582,4327.179688,4249.230957,4297.436035,450.0,3.0,68.0,,,,0.0,2.0,0.0,0.0,0.0,4.0,0.0,,,,,,,,36.0,0.0,0.06578200000000001,-0.571045,0.34668000000000004,0.741211,0.908217,-0.438483,-0.106447,-0.046001,-0.05519299999999999,-0.01813,,,,,,,,,,,,,,,,,,,,,,,,,,,,,,,,,,,,,,,,,,,,,,,,,,,,,,,,,,,,,,,,,
11452,1650415501.645622,1650415501.672755,73.0,0.0,4374.358886999999,4300.0,4325.641113000001,4305.128418,4306.666504,0.0,3.0,68.0,,,,0.0,2.0,0.0,0.0,0.0,4.0,0.0,0.972656,0.0,2.0,0.0,0.0,0.0,3.0,,,,,,,,,,,,,1.0,0.0,0.0,,,,,,,,,,,,,,,,,,,,,,,,,,,,,,,,0.0,0.0,1.0,0.0,512.0,1.0,4.2044760000000005,5.642754,2.582373,4.362726,3.4585660000000003,82.102203,91.355438,39.582886,16.416037,14.603311999999999,7.030647,5.535966999999999,3.517354,1.72332,3.059663,1.16954,0.720969,2.196494,1.391504,1.059251,3.7110190000000003,5.537301,1.303382,5.550288,6.088479
11453,1650415501.653436,1650415501.68047,74.0,0.0,4381.025879,4288.717772999999,4323.589844,4306.666504,4293.333496,450.0,3.0,68.0,,,,0.0,2.0,0.0,0.0,0.0,4.0,0.0,,,,,,,,37.0,0.0,0.06578200000000001,-0.571045,0.34668000000000004,0.741211,0.914076,-0.440925,-0.122072,-0.045991000000000004,-0.055094000000000004,-0.019491,,,,,,,,,,,,,,,,,,,,,,,,,,,,,,,,,,,,,,,,,,,,,,,,,,,,,,,,,,,,,,,,,
11454,1650415501.661251,1650415501.688284,75.0,0.0,4363.589844,4307.692383,4343.589844,4302.563965,4302.563965,16286.0,3.0,68.0,,,,0.0,2.0,0.0,0.0,0.0,4.0,0.0,,,,,,,,,,,,,,,,,,,,,,,,,,,,,,,,,,,,,,,,,,,,,,,,,,,,,,,,,,,,,,,,,,,,,,,,,,,,,,,,,,,,
11455,1650415501.669066,1650415501.695999,76.0,0.0,4373.846191,4245.641113000001,4324.102539,4313.846191,4310.769043,450.0,3.0,68.0,,,,0.0,2.0,0.0,0.0,0.0,4.0,0.0,,,,,,,,38.0,0.0,0.068477,-0.571045,0.34668000000000004,0.740967,0.9116350000000001,-0.437507,-0.113283,-0.046031,-0.055004,-0.020716,,,,,,,,,,,,,,,,,,,,,,,,,,,,,,,,,,,,,,,,,,,,,,,,,,,,,,,,,,,,,,,,,
11456,1650415501.6768801,1650415501.703814,77.0,0.0,4392.820313,4228.205078,4306.153809,4307.179688,4322.05127,450.0,3.0,68.0,,,,0.0,2.0,0.0,0.0,0.0,4.0,0.0,,,,,,,,,,,,,,,,,,,,,,,,,,,,,,,,,,,,,,,,,,,,,,,,,,,,,,0.0,0.0,1.0,0.0,512.0,1.0,,,,,,,,,,,,,,,,,,,,,,,,,
11457,1650415501.684695,1650415501.711529,78.0,0.0,4384.615234000001,4260.512695,4310.256348,4304.102539,4320.512695,450.0,3.0,68.0,,,,0.0,2.0,0.0,0.0,0.0,4.0,0.0,,,,,,,,39.0,0.0,0.068477,-0.571045,0.34668000000000004,0.740967,0.9116350000000001,-0.442878,-0.11035299999999999,-0.046066,-0.054924,-0.021769,,,,,,,,,,,,,,,,,,,,,,,,,,,,,,,,,,,,,,,,,,,,,,,,,,,,,,,,,,,,,,,,,
11458,1650415501.692509,1650415501.719343,79.0,0.0,4365.641113000001,4256.922852000001,4313.846191,4298.461426,4323.589844,16286.0,3.0,68.0,,,,0.0,2.0,0.0,0.0,0.0,4.0,0.0,,,,,,,,,,,,,,,,,,,,,,,,,,,,,,,,,,,,,,,,,,,,,,,,,,,,,,,,,,,,,,,,,,,,,,,,,,,,,,,,,,,,
11459,1650415501.700324,1650415501.727058,80.0,0.0,4382.05127,4273.846191,4332.307617,4304.102539,4333.846191,450.0,3.0,68.0,,,,0.0,2.0,0.0,0.0,0.0,4.0,0.0,,,,,,,,40.0,0.0,0.068477,-0.571045,0.34668000000000004,0.740967,0.8994280000000001,-0.43897200000000003,-0.120119,-0.046196,-0.054949,-0.022619999999999998,,,,,,,,,,,,,,,,,,,,,,,,,,,,,,,,,,,,,,,,,,,,,,,,,,,,,,,,,,,,,,,,,
11460,1650415501.708138,1650415501.734873,81.0,0.0,4404.102539,4283.077147999999,4335.384765999999,4315.384765999999,4306.153809,450.0,3.0,68.0,,,,0.0,2.0,0.0,0.0,0.0,4.0,0.0,,,,,,,,,,,,,,,,,,,,,,,,,,,,,,,,,,,,,,,,,,,,,,,,,,,,,,0.0,0.0,1.0,0.0,512.0,1.0,,,,,,,,,,,,,,,,,,,,,,,,,
11461,1650415501.7159529,1650415501.7425869,82.0,0.0,4390.256348,4204.615234000001,4322.563965,4297.94873,4278.461426,450.0,3.0,68.0,,,,0.0,2.0,0.0,0.0,0.0,4.0,0.0,,,,,,,,41.0,0.0,0.068477,-0.571045,0.34668000000000004,0.740967,0.91017,-0.436042,-0.12255999999999999,-0.046215,-0.054874,-0.023532,,,,,,,,,,,,,,,,,,,,,,,,,,,,,,,,,,,,,,,,,,,,,,,,,,,,,,,,,,,,,,,,,
11462,1650415501.723767,1650415501.750402,83.0,0.0,4378.974121,4127.179688,4317.436035,4291.282227000001,4302.05127,16286.0,3.0,68.0,,,,0.0,2.0,0.0,0.0,0.0,4.0,0.0,,,,,,,,,,,,,,,,,,,,,,,,,,,,,,,,,,,,,,,,,,,,,,,,,,,,,,,,,,,,,,,,,,,,,,,,,,,,,,,,,,,,
11463,1650415501.731582,1650415501.758117,84.0,0.0,4377.94873,4169.230957,4317.436035,4302.563965,4314.358886999999,450.0,3.0,68.0,,,,0.0,2.0,0.0,0.0,0.0,4.0,0.0,,,,,,,,42.0,0.0,0.068477,-0.571045,0.34668000000000004,0.740967,0.9116350000000001,-0.442878,-0.11035299999999999,-0.04633,-0.054807,-0.024156999999999998,,,,,,,,,,,,,,,,,,,,,,,,,,,,,,,,,,,,,,,,,,,,,,,,,,,,,,,,,,,,,,,,,
11464,1650415501.739396,1650415501.765832,85.0,0.0,4373.846191,4250.769043,4341.538574,4287.179688,4286.153809,450.0,3.0,68.0,,,,0.0,2.0,0.0,0.0,0.0,4.0,0.0,,,,,,,,,,,,,,,,,,,,,,,,,,,,,,,,,,,,,,,,,,,,,,,,,,,,,,0.0,0.0,1.0,0.0,512.0,1.0,,,,,,,,,,,,,,,,,,,,,,,,,
11465,1650415501.747211,1650415501.773646,86.0,0.0,4400.512695,4260.0,4344.615234000001,4275.897461,4285.641113000001,450.0,3.0,68.0,,,,0.0,2.0,0.0,0.0,0.0,4.0,0.0,,,,,,,,43.0,0.0,0.068477,-0.571045,0.34668000000000004,0.740967,0.91017,-0.436042,-0.12255999999999999,-0.046336,-0.054746,-0.024915,,,,,,,,,,,,,,,,,,,,,,,,,,,,,,,,,,,,,,,,,,,,,,,,,,,,,,,,,,,,,,,,,
11466,1650415501.7550259,1650415501.7813609,87.0,0.0,4409.230957,4244.102539,4321.538574,4301.538574,4325.641113000001,16286.0,3.0,68.0,,,,0.0,2.0,0.0,0.0,0.0,4.0,0.0,,,,,,,,,,,,,,,,,,,,,,,,,,,,,,,,,,,,,,,,,,,,,,,,,,,,,,,,,,,,,,,,,,,,,,,,,,,,,,,,,,,,
11467,1650415501.76284,1650415501.789176,88.0,0.0,4368.205078,4249.230957,4341.538574,4290.256348,4325.641113000001,450.0,3.0,68.0,,,,0.0,2.0,0.0,0.0,0.0,4.0,0.0,,,,,,,,44.0,0.0,0.06640900000000001,-0.571289,0.34668000000000004,0.740967,0.9038219999999999,-0.442878,-0.109377,-0.046439,-0.054838,-0.025549000000000002,,,,,,,,,,,,,,,,,,,,,,,,,,,,,,,,,,,,,,,,,,,,,,,,,,,,,,,,,,,,,,,,,
11468,1650415501.7706552,1650415501.79689,89.0,0.0,4357.436035,4235.384765999999,4325.128418,4266.153809,4283.589844,450.0,3.0,68.0,,,,0.0,2.0,0.0,0.0,0.0,4.0,0.0,,,,,,,,,,,,,,,,,,,,1.0,0.0,0.0,,,,,,,,,,,,,,,,,,,,,,,,,,,,,,,,0.0,0.0,1.0,0.0,512.0,1.0,7.254624000000001,5.006703,2.585416,3.8659589999999997,3.6231660000000003,83.955559,90.357452,41.608212,17.978359,14.60299,8.735377,6.290207,3.296928,1.603906,3.652081,1.061274,0.5886779999999999,1.674551,1.201563,0.8737159999999999,6.311151000000001,5.749707,1.555012,5.574488,6.293543
11469,1650415501.7784688,1650415501.8047051,90.0,0.0,4385.641113000001,4244.102539,4272.307617,4289.230957,4277.436035,450.0,3.0,68.0,,,,0.0,2.0,0.0,0.0,0.0,4.0,0.0,,,,,,,,45.0,0.0,0.06640900000000001,-0.571289,0.34668000000000004,0.740967,0.906264,-0.436042,-0.106447,-0.046482,-0.054823000000000004,-0.022945,,,,,,,,,,,,,,,,,,,,,,,,,,,,,,,,,,,,,,,,,,,,,,,,,,,,,,,,,,,,,,,,,
11470,1650415501.786284,1650415501.81242,91.0,0.0,4391.794922,4286.153809,4310.769043,4308.717772999999,4308.717772999999,16286.0,3.0,68.0,,,,0.0,2.0,0.0,0.0,0.0,4.0,0.0,,,,,,,,,,,,,,,,,,,,,,,,,,,,,,,,,,,,,,,,,,,,,,,,,,,,,,,,,,,,,,,,,,,,,,,,,,,,,,,,,,,,
11471,1650415501.7940981,1650415501.820234,92.0,0.0,4379.487305,4287.179688,4370.256348,4306.153809,4306.153809,450.0,3.0,68.0,,,,0.0,2.0,0.0,0.0,0.0,4.0,0.0,,,,,,,,46.0,0.0,0.06702899999999999,-0.571533,0.34668000000000004,0.7407229999999999,0.902358,-0.436042,-0.10693499999999999,-0.046522,-0.054907000000000004,-0.023776,,,,,,,,,,,,,,,,,,,,,,,,,,,,,,,,,,,,,,,,,,,,,,,,,,,,,,,,,,,,,,,,,
11472,1650415501.801913,1650415501.827949,93.0,0.0,4381.025879,4286.666504,4349.743652,4302.05127,4265.128418,450.0,3.0,68.0,,,,0.0,2.0,0.0,0.0,0.0,4.0,0.0,,,,,,,,,,,,,,,,,,,,,,,,,,,,,,,,,,,,,,,,,,,,,,,,,,,,,,0.0,0.0,1.0,0.0,512.0,1.0,,,,,,,,,,,,,,,,,,,,,,,,,
11473,1650415501.809727,1650415501.8357642,94.0,0.0,4381.538574,4327.692383,4326.666504,4284.615234000001,4257.436035,450.0,3.0,68.0,,,,0.0,2.0,0.0,0.0,0.0,4.0,0.0,,,,,,,,47.0,0.0,0.06702899999999999,-0.571533,0.34668000000000004,0.7407229999999999,0.9043110000000001,-0.43946,-0.104494,-0.046606,-0.054837000000000004,-0.021349,,,,,,,,,,,,,,,,,,,,,,,,,,,,,,,,,,,,,,,,,,,,,,,,,,,,,,,,,,,,,,,,,
11474,1650415501.817542,1650415501.843478,95.0,0.0,4367.179688,4335.384765999999,4336.410156,4274.871582,4273.333496,16286.0,3.0,68.0,,,,0.0,2.0,0.0,0.0,0.0,4.0,0.0,,,,,,,,,,,,,,,,,,,,,,,,,,,,,,,,,,,,,,,,,,,,,,,,,,,,,,,,,,,,,,,,,,,,,,,,,,,,,,,,,,,,
11475,1650415501.825356,1650415501.851293,96.0,0.0,4374.871582,4265.128418,4336.922852000001,4298.461426,4286.153809,450.0,3.0,68.0,,,,0.0,2.0,0.0,0.0,0.0,4.0,0.0,,,,,,,,48.0,0.0,0.064914,-0.5717770000000001,0.34668000000000004,0.7407229999999999,0.9043110000000001,-0.4336,-0.104005,-0.046584,-0.054773,-0.02229,,,,,,,,,,,,,,,,,,,,,,,,,,,,,,,,,,,,,,,,,,,,,,,,,,,,,,,,,,,,,,,,,
11476,1650415501.8331711,1650415501.859008,97.0,0.0,4387.692383,4231.794922,4334.871582,4310.769043,4307.179688,450.0,3.0,68.0,,,,0.0,2.0,0.0,0.0,0.0,4.0,0.0,,,,,,,,,,,,,,,,,,,,,,,,,,,,,,,,,,,,,,,,,,,,,,,,,,,,,,0.0,0.0,1.0,0.0,512.0,1.0,,,,,,,,,,,,,,,,,,,,,,,,,
11477,1650415501.840985,1650415501.866823,98.0,0.0,4371.282227000001,4302.563965,4326.666504,4300.512695,4301.538574,450.0,3.0,68.0,,,,0.0,2.0,0.0,0.0,0.0,4.0,0.0,,,,,,,,49.0,0.0,0.064914,-0.5717770000000001,0.34668000000000004,0.7407229999999999,0.8960100000000001,-0.43799499999999997,-0.099611,-0.046613,-0.054911,-0.02304,,,,,,,,,,,,,,,,,,,,,,,,,,,,,,,,,,,,,,,,,,,,,,,,,,,,,,,,,,,,,,,,,
11478,1650415501.8488,1650415501.874537,99.0,0.0,4356.922852000001,4345.641113000001,4313.846191,4308.205078,4268.717772999999,16286.0,3.0,68.0,,,,0.0,2.0,0.0,0.0,0.0,4.0,0.0,,,,,,,,,,,,,,,,,,,,,,,,,,,,,,,,,,,,,,,,,,,,,,,,,,,,,,,,,,,,,,,,,,,,,,,,,,,,,,,,,,,,
11479,1650415501.856614,1650415501.8823519,100.0,0.0,4368.205078,4311.282227000001,4309.230957,4317.94873,4276.410156,450.0,3.0,68.0,,,,0.0,2.0,0.0,0.0,0.0,4.0,0.0,,,,,,,,50.0,0.0,0.066204,-0.5717770000000001,0.346436,0.7407229999999999,0.8989389999999999,-0.421393,-0.099123,-0.046591,-0.054889,-0.02391,,,,,,,,,,,,,,,,,,,,,,,,,,,,,,,,,,,,,,,,,,,,,,,,,,,,,,,,,,,,,,,,,
11480,1650415501.864429,1650415501.890067,101.0,0.0,4383.077147999999,4317.436035,4315.384765999999,4305.128418,4312.820313,450.0,3.0,68.0,,,,0.0,2.0,0.0,0.0,0.0,4.0,0.0,,,,,,,,,,,,,,,,,,,,,,,,,,,,,,,,,,,,,,,,,,,,,,,,,,,,,,0.0,0.0,1.0,0.0,512.0,1.0,,,,,,,,,,,,,,,,,,,,,,,,,
11481,1650415501.872244,1650415501.897881,102.0,0.0,4389.743652,4328.205078,4327.692383,4291.282227000001,4304.102539,450.0,3.0,68.0,,,,0.0,2.0,0.0,0.0,0.0,4.0,0.0,,,,,,,,51.0,0.0,0.066204,-0.5717770000000001,0.346436,0.7407229999999999,0.910658,-0.437507,-0.104494,-0.045105,-0.054916999999999994,-0.024595,,,,,,,,,,,,,,,,,,,,,,,,,,,,,,,,,,,,,,,,,,,,,,,,,,,,,,,,,,,,,,,,,
11482,1650415501.880058,1650415501.905596,103.0,0.0,4383.589844,4275.384765999999,4326.666504,4303.589844,4277.94873,16286.0,3.0,68.0,,,,0.0,2.0,0.0,0.0,0.0,4.0,0.0,,,,,,,,,,,,,,,,,,,,,,,,,,,,,,,,,,,,,,,,,,,,,,,,,,,,,,,,,,,,,,,,,,,,,,,,,,,,,,,,,,,,
11483,1650415501.887873,1650415501.913411,104.0,0.0,4379.487305,4247.692383,4316.922852000001,4317.94873,4283.589844,450.0,3.0,68.0,,,,0.0,2.0,0.0,0.0,0.0,4.0,0.0,,,,,,,,52.0,0.0,0.067642,-0.5717770000000001,0.34668000000000004,0.740479,0.910658,-0.42188100000000006,-0.105959,-0.045281999999999996,-0.05494299999999999,-0.025261000000000002,,,,,,,,,,,,,,,,,,,,,,,,,,,,,,,,,,,,,,,,,,,,,,,,,,,,,,,,,,,,,,,,,
11484,1650415501.8956869,1650415501.921125,105.0,0.0,4384.615234000001,4268.717772999999,4312.307617,4315.897461,4335.897461,450.0,3.0,68.0,,,,0.0,2.0,0.0,0.0,0.0,4.0,0.0,,,,,,,,,,,,,,,,,,,,1.0,0.0,0.0,,,,,,,,,,,,,,,,,,,,,,,,,,,,,,,,0.0,0.0,1.0,0.0,512.0,1.0,11.771547,4.572244,2.982793,3.324779,3.8735370000000002,86.575859,86.554344,42.230545,19.800933999999998,15.254346,10.781680999999999,7.118873,3.483246,1.586742,4.187631,1.1601569999999999,0.62495,1.235983,1.137558,0.7213579999999999,10.819911,6.074736,2.26199,5.323022,6.3571230000000005
11485,1650415501.903502,1650415501.92884,106.0,0.0,4403.077147999999,4298.974121,4331.282227000001,4309.743652,4367.179688,450.0,3.0,68.0,,,,0.0,2.0,0.0,0.0,0.0,4.0,0.0,,,,,,,,53.0,0.0,0.067642,-0.5717770000000001,0.34668000000000004,0.740479,0.9111469999999999,-0.427741,-0.10009900000000001,-0.045344,-0.054917999999999995,-0.022686,,,,,,,,,,,,,,,,,,,,,,,,,,,,,,,,,,,,,,,,,,,,,,,,,,,,,,,,,,,,,,,,,
11486,1650415501.911316,1650415501.936655,107.0,0.0,4435.384765999999,4293.333496,4320.512695,4304.102539,4308.205078,16286.0,3.0,68.0,,,,0.0,2.0,0.0,0.0,0.0,4.0,0.0,,,,,,,,,,,,,,,,,,,,,,,,,,,,,,,,,,,,,,,,,,,,,,,,,,,,,,,,,,,,,,,,,,,,,,,,,,,,,,,,,,,,
11487,1650415501.919131,1650415501.94437,108.0,0.0,4411.794922,4258.461426,4290.256348,4296.922852000001,4303.077147999999,450.0,3.0,68.0,,,,0.0,2.0,0.0,0.0,0.0,4.0,0.0,,,,,,,,54.0,0.0,0.067642,-0.5717770000000001,0.34668000000000004,0.740479,0.9126120000000001,-0.43018199999999995,-0.10498199999999999,-0.045545999999999996,-0.055041,-0.023493,,,,,,,,,,,,,,,,,,,,,,,,,,,,,,,,,,,,,,,,,,,,,,,,,,,,,,,,,,,,,,,,,
11488,1650415501.926945,1650415501.952184,109.0,0.0,4400.512695,4285.641113000001,4349.230957,4306.153809,4392.820313,450.0,3.0,68.0,,,,0.0,2.0,0.0,0.0,0.0,4.0,0.0,,,,,,,,,,,,,,,,,,,,,,,,,,,,,,,,,,,,,,,,,,,,,,,,,,,,,,0.0,0.0,1.0,0.0,512.0,1.0,,,,,,,,,,,,,,,,,,,,,,,,,
11489,1650415501.9347599,1650415501.959899,110.0,0.0,4472.307617,4329.230957,4406.666504,4324.102539,4402.563965,450.0,3.0,68.0,,,,0.0,2.0,0.0,0.0,0.0,4.0,0.0,,,,,,,,55.0,0.0,0.06637799999999999,-0.5717770000000001,0.34692399999999995,0.740479,0.9087049999999999,-0.41895200000000005,-0.09765800000000001,-0.045630000000000004,-0.054957000000000006,-0.024269,,,,,,,,,,,,,,,,,,,,,,,,,,,,,,,,,,,,,,,,,,,,,,,,,,,,,,,,,,,,,,,,,
11490,1650415501.942574,1650415501.967714,111.0,0.0,4450.256348,4320.0,4374.358886999999,4315.384765999999,4352.820313,16286.0,3.0,68.0,,,,0.0,2.0,0.0,0.0,0.0,4.0,0.0,,,,,,,,,,,,,,,,,,,,,,,,,,,,,,,,,,,,,,,,,,,,,,,,,,,,,,,,,,,,,,,,,,,,,,,,,,,,,,,,,,,,
11491,1650415501.9503891,1650415501.975528,112.0,0.0,4362.563965,4305.641113000001,4397.94873,4304.615234000001,4351.794922,450.0,3.0,68.0,,,,0.0,2.0,0.0,0.0,0.0,4.0,0.0,,,,,,,,56.0,0.0,0.06781000000000001,-0.5717770000000001,0.347168,0.7402340000000001,0.904799,-0.44434300000000004,-0.089357,-0.045706000000000004,-0.055077,-0.021793,,,,,,,,,,,,,,,,,,,,,,,,,,,,,,,,,,,,,,,,,,,,,,,,,,,,,,,,,,,,,,,,,
11492,1650415501.9582028,1650415501.983243,113.0,0.0,4400.512695,4332.307617,4507.692383,4313.333496,4370.769043,450.0,3.0,68.0,,,,0.0,2.0,0.0,0.0,0.0,4.0,0.0,,,,,,,,,,,,,,,,,,,,,,,,,,,,,,,,,,,,,,,,,,,,,,,,,,,,,,0.0,0.0,1.0,0.0,512.0,1.0,,,,,,,,,,,,,,,,,,,,,,,,,
11493,1650415501.966018,1650415501.991058,114.0,0.0,4474.358886999999,4361.025879,4558.461426,4311.794922,4418.461426,450.0,3.0,68.0,,,,0.0,2.0,0.0,0.0,0.0,4.0,0.0,,,,,,,,57.0,0.0,0.06654700000000001,-0.5717770000000001,0.347412,0.7402340000000001,0.91017,-0.451179,-0.106447,-0.045627999999999995,-0.055087,-0.022690000000000002,,,,,,,,,,,,,,,,,,,,,,,,,,,,,,,,,,,,,,,,,,,,,,,,,,,,,,,,,,,,,,,,,
11494,1650415501.9738321,1650415501.9987721,115.0,0.0,4482.05127,4374.358886999999,4502.563965,4297.94873,4537.436035,16286.0,3.0,68.0,,,,0.0,2.0,0.0,0.0,0.0,4.0,0.0,,,,,,,,,,,,,,,,,,,,,,,,,,,,,,,,,,,,,,,,,,,,,,,,,,,,,,,,,,,,,,,,,,,,,,,,,,,,,,,,,,,,
11495,1650415501.981647,1650415502.006487,116.0,0.0,4491.794922,4410.769043,4445.128418,4297.436035,4695.384765999999,450.0,3.0,68.0,,,,0.0,2.0,0.0,0.0,0.0,4.0,0.0,,,,,,,,58.0,0.0,0.067972,-0.5717770000000001,0.347656,0.7399899999999999,0.8999159999999999,-0.44531899999999996,-0.1084,-0.045655,-0.055096000000000006,-0.023546,,,,,,,,,,,,,,,,,,,,,,,,,,,,,,,,,,,,,,,,,,,,,,,,,,,,,,,,,,,,,,,,,
11496,1650415501.989462,1650415502.014302,117.0,0.0,4463.077147999999,4442.563965,4500.512695,4306.153809,4867.692383,450.0,3.0,68.0,,,,0.0,2.0,0.0,0.0,0.0,4.0,0.0,,,,,,,,,,,,,,,,,,,,,,,,,,,,,,,,,,,,,,,,,,,,,,,,,,,,,,0.0,0.0,1.0,0.0,512.0,1.0,,,,,,,,,,,,,,,,,,,,,,,,,
11497,1650415501.997276,1650415502.022017,118.0,0.0,4458.974121,4412.307617,4595.897461,4305.128418,5102.563965,450.0,3.0,68.0,,,,0.0,2.0,0.0,0.0,0.0,4.0,0.0,,,,,,,,59.0,0.0,0.065886,-0.572021,0.347656,0.7399899999999999,0.893568,-0.46045600000000003,-0.11035299999999999,-0.045728,-0.05505499999999999,-0.024413999999999998,,,,,,,,,,,,,,,,,,,,,,,,,,,,,,,,,,,,,,,,,,,,,,,,,,,,,,,,,,,,,,,,,
11498,1650415502.005091,1650415502.0298312,119.0,0.0,4546.666504,4318.461426,4594.358886999999,4287.692383,5432.820313,16286.0,3.0,68.0,,,,0.0,2.0,0.0,0.0,0.0,4.0,0.0,,,,,,,,,,,,,,,,,,,,,,,,,,,,,,,,,,,,,,,,,,,,,,,,,,,,,,,,,,,,,,,,,,,,,,,,,,,,,,,,,,,,
11499,1650415502.0129051,1650415502.037646,120.0,0.0,4493.846191,4220.0,4512.307617,4273.333496,5769.743652,450.0,3.0,68.0,,,,0.0,2.0,0.0,0.0,0.0,4.0,0.0,,,,,,,,60.0,0.0,0.065886,-0.572021,0.347656,0.7399899999999999,0.9087049999999999,-0.42920600000000003,-0.104494,-0.045794,-0.055018,-0.021924000000000003,,,,,,,,,,,,,,,,,,,,,,,,,,,,,,,,,,,,,,,,,,,,,,,,,,,,,,,,,,,,,,,,,
11500,1650415502.02072,1650415502.045361,121.0,0.0,4397.94873,4120.0,4460.512695,4267.179688,6048.205078,450.0,3.0,68.0,,,,0.0,2.0,0.0,0.0,0.0,4.0,0.0,,,,,,,,,,,,,,,,,,,,1.0,0.0,0.0,,,,,,,,,,,,,,,,,,,,,,,,,,,,,,,,0.0,0.0,1.0,0.0,512.0,1.0,16.87422,4.453748,3.7345650000000004,2.846762,4.134037999999999,85.548508,79.736862,40.852798,20.928556,16.351761,12.39921,7.736756,3.8673949999999997,1.636196,4.582107,1.376679,0.802377,1.004356,1.221595,0.639174,16.317497,6.385441999999999,3.4304339999999995,4.922089,6.281242
11501,1650415502.028534,1650415502.053075,122.0,0.0,4536.922852000001,3969.743652,4450.769043,4255.384765999999,6291.794922,450.0,3.0,68.0,,,,0.0,2.0,0.0,0.0,0.0,4.0,0.0,,,,,,,,61.0,0.0,0.065886,-0.572021,0.347656,0.7399899999999999,0.9004040000000001,-0.42627600000000004,-0.10888800000000001,-0.044388,-0.055034000000000007,-0.022759,,,,,,,,,,,,,,,,,,,,,,,,,,,,,,,,,,,,,,,,,,,,,,,,,,,,,,,,,,,,,,,,,
11502,1650415502.036349,1650415502.06079,123.0,0.0,4645.128418,3833.3332520000004,4478.461426,4256.410156,6501.025879,16286.0,3.0,68.0,,,,0.0,2.0,0.0,0.0,0.0,4.0,0.0,,,,,,,,,,,,,,,,,,,,,,,,,,,,,,,,,,,,,,,,,,,,,,,,,,,,,,,,,,,,,,,,,,,,,,,,,,,,,,,,,,,,
11503,1650415502.044163,1650415502.0686052,124.0,0.0,4528.717772999999,3676.4101560000004,4537.94873,4290.256348,6646.153809,450.0,3.0,68.0,,,,0.0,2.0,0.0,0.0,0.0,4.0,0.0,,,,,,,,62.0,0.0,0.065886,-0.572021,0.347656,0.7399899999999999,0.906264,-0.4336,-0.11084200000000001,-0.044539999999999996,-0.055097,-0.023462,,,,,,,,,,,,,,,,,,,,,,,,,,,,,,,,,,,,,,,,,,,,,,,,,,,,,,,,,,,,,,,,,
11504,1650415502.0519779,1650415502.07632,125.0,0.0,4495.897461,3396.4101560000004,4486.666504,4294.358886999999,6746.666504000001,450.0,3.0,68.0,,,,0.0,2.0,0.0,0.0,0.0,4.0,0.0,,,,,,,,,,,,,,,,,,,,,,,,,,,,,,,,,,,,,,,,,,,,,,,,,,,,,,0.0,0.0,1.0,0.0,512.0,1.0,,,,,,,,,,,,,,,,,,,,,,,,,
11505,1650415502.059792,1650415502.084134,126.0,0.0,4620.0,3125.128174,4326.153809,4229.743652,6856.922852,450.0,3.0,68.0,,,,0.0,2.0,0.0,0.0,0.0,4.0,0.0,,,,,,,,63.0,0.0,0.067162,-0.572021,0.347412,0.7399899999999999,0.904799,-0.441413,-0.101076,-0.044724,-0.055104999999999994,-0.024045,,,,,,,,,,,,,,,,,,,,,,,,,,,,,,,,,,,,,,,,,,,,,,,,,,,,,,,,,,,,,,,,,
11506,1650415502.067607,1650415502.091949,127.0,0.0,4664.615234000001,2979.487061,4264.615234000001,4206.666504,6955.384765999999,237.0,3.0,68.0,,,,0.0,2.0,0.0,0.0,0.0,4.0,0.0,,,,,,,,,,,,,,,,,,,,,,,,,,,,,,,,,,,,,,,,,,,,,,,,,,,,,,,,,,,,,,,,,,,,,,,,,,,,,,,,,,,,
11507,1650415502.075421,1650415502.099664,0.0,0.0,4571.794922,2873.846191,4315.897461,4264.102539,6974.871581999999,450.0,3.0,68.0,,,,0.0,2.0,0.0,0.0,0.0,4.0,0.0,,,,,,,,0.0,0.0,0.067162,-0.572021,0.347412,0.7399899999999999,0.9038219999999999,-0.435065,-0.104494,-0.044988,-0.055064,-0.027842000000000002,,,,,,,,,,,,,,,,,,,,,,,,,,,,,,,,,,,,,,,,,,,,,,,,,,,,,,,,,,,,,,,,,
11508,1650415502.083236,1650415502.107478,1.0,0.0,4528.205078,2826.666748,4309.743652,4262.563965,6994.871581999999,450.0,3.0,68.0,,,,0.0,2.0,0.0,0.0,0.0,4.0,0.0,,,,,,,,,,,,,,,,,,,,,,,,,,,,,,,,,,,,,,,,,,,,,,,,,,,,,,0.0,0.0,1.0,0.0,512.0,1.0,,,,,,,,,,,,,,,,,,,,,,,,,
11509,1650415502.0910509,1650415502.115193,2.0,0.0,4616.922852000001,2833.846191,4266.666504,4180.0,7075.384765999999,16142.0,3.0,68.0,,,,0.0,4.0,0.0,0.0,0.0,4.0,0.0,,,,,,,,1.0,0.0,0.068573,-0.572021,0.347656,0.739746,0.9052870000000001,-0.446784,-0.113771,-0.045127999999999995,-0.055124,-0.028085000000000002,,,,,,,,,,,,,,,,,,,,,,,,,,,,,,,,,,,,,,,,,,,,,,,,,,,,,,,,,,,,,,,,,
11510,1650415502.098865,1650415502.122908,3.0,0.0,4705.128418,2669.743652,4337.436035,4218.974121,7117.94873,450.0,3.0,68.0,,,,0.0,4.0,1.0,0.0,0.0,4.0,8.333333,,,,,,,,,,,,,,,,,,,,,,,,,,,,,,,,,,,,,,,,,,,,,,,,,,,,,,,,,,,,,,,,,,,,,,,,,,,,,,,,,,,,
11511,1650415502.1066802,1650415502.130722,4.0,0.0,4717.94873,2330.769287,4456.922852000001,4203.077147999999,7095.897461,158.0,3.0,68.0,,,,0.0,4.0,1.0,0.0,0.0,4.0,8.333333,,,,,,,,2.0,0.0,0.067162,-0.572021,0.347412,0.7399899999999999,0.904799,-0.441413,-0.101076,-0.045254,-0.055129,-0.028206000000000002,,,,,,,,,,,,,,,,,,,,,,,,,,,,,,,,,,,,,,,,,,,,,,,,,,,,,,,,,,,,,,,,,
11512,1650415502.1144938,1650415502.138537,5.0,0.0,4726.153809,2073.333252,4486.153809,3973.8461909999996,7106.666504000001,450.0,3.0,68.0,,,,0.0,4.0,1.0,0.0,0.0,4.0,8.333333,,,,,,,,,,,,,,,,,,,,,,,,,,,,,,,,,,,,,,,,,,,,,,,,,,,,,,0.0,0.0,1.0,0.0,512.0,1.0,,,,,,,,,,,,,,,,,,,,,,,,,
11513,1650415502.122309,1650415502.146252,6.0,0.0,4750.769043,1950.25647,4418.461426,3984.615479,7131.794922,55.0,3.0,68.0,,,,0.0,4.0,1.0,1.0,0.0,4.0,16.666666,,,,,,,,3.0,0.0,0.068573,-0.572021,0.347656,0.739746,0.9043110000000001,-0.46533900000000006,-0.11523599999999999,-0.045367000000000005,-0.055134,-0.028316,,,,,,,,,,,,,,,,,,,,,,,,,,,,,,,,,,,,,,,,,,,,,,,,,,,,,,,,,,,,,,,,,
11514,1650415502.1301231,1650415502.153966,7.0,0.0,4745.128418,1861.538452,4323.077147999999,4294.358886999999,7105.641113,450.0,3.0,68.0,,,,0.0,4.0,1.0,1.0,0.0,4.0,16.666666,,,,,,,,,,,,,,,,,,,,,,,,,,,,,,,,,,,,,,,,,,,,,,,,,,,,,,,,,,,,,,,,,,,,,,,,,,,,,,,,,,,,
11515,1650415502.137938,1650415502.161781,8.0,0.0,4728.717772999999,1798.461548,4255.384765999999,4392.307617,7074.358887,450.0,3.0,68.0,,,,0.0,4.0,1.0,1.0,0.0,4.0,16.666666,,,,,,,,4.0,0.0,0.066505,-0.5722659999999999,0.347656,0.739746,0.905776,-0.45215500000000003,-0.10498199999999999,-0.045420999999999996,-0.05504,-0.025386000000000002,,,,,,,,,,,,,,,,,,,,,,,,,,,,,,,,,,,,,,,,,,,,,,,,,,,,,,,,,,,,,,,,,
11516,1650415502.145752,1650415502.1695962,9.0,0.0,4751.282227000001,1806.153809,4211.282227000001,4269.743652,7091.282227,0.0,3.0,68.0,,,,0.0,4.0,1.0,1.0,0.0,4.0,16.666666,0.972656,0.0,2.0,0.0,0.0,0.0,0.0,,,,,,,,,,,,,1.0,0.0,0.0,1.0,0.5825520000000001,1.181418,0.040732,1.977273,1.0,0.582396,8.691007,2.424867,13.021525,0.6157819999999999,1.0,0.46187700000000004,-0.08341699999999999,-0.28364,0.159333,1.0,0.47445200000000004,0.8319469999999999,-0.6549649999999999,2.53442,1.0,0.546341,5.617548,-37.546634000000005,42.974092999999996,1.0,0.330906,0.563476,0.489072,0.712044,0.0,0.0,1.0,0.0,512.0,1.0,21.298168,4.551298,4.606415,2.506415,4.322794999999999,80.955566,70.430061,37.078098,20.929571,17.442772,13.189157000000002,7.891586,4.207058,1.7399950000000002,4.791771,1.670105,1.125381,1.025164,1.4251989999999999,0.646137,23.109863,6.930541000000001,5.190691,4.5117519999999995,6.13507
11517,1650415502.153567,1650415502.177311,10.0,0.0,4822.05127,1864.102539,4166.666504,4292.307617,7124.615234000001,450.0,3.0,68.0,,,,0.0,4.0,1.0,1.0,0.0,4.0,16.666666,,,,,,,,5.0,0.0,0.06916699999999999,-0.5722659999999999,0.347656,0.739502,0.9077290000000001,-0.430671,-0.106447,-0.045468,-0.055054,-0.022799,,,,,,,,,,,,,,,,,,,,,,,,,,,,,,,,,,,,,,,,,,,,,,,,,,,,,,,,,,,,,,,,,
11518,1650415502.161381,1650415502.185125,11.0,0.0,4857.436035,1885.640991,4169.230957,4348.717772999999,7121.025879000001,16106.0,3.0,68.0,,,,0.0,4.0,1.0,1.0,0.0,4.0,16.666666,,,,,,,,,,,,,,,,,,,,,,,,,,,,,,,,,,,,,,,,,,,,,,,,,,,,,,,,,,,,,,,,,,,,,,,,,,,,,,,,,,,,
11519,1650415502.1691961,1650415502.19294,12.0,0.0,4818.461426,1832.307739,4256.410156,4258.461426,7130.256348000001,450.0,3.0,68.0,,,,0.0,4.0,1.0,1.0,0.0,4.0,16.666666,,,,,,,,6.0,0.0,0.067116,-0.5725100000000001,0.347656,0.739502,0.906264,-0.449226,-0.10547000000000001,-0.045609,-0.054969000000000004,-0.023594999999999998,,,,,,,,,,,,,,,,,,,,,,,,,,,,,,,,,,,,,,,,,,,,,,,,,,,,,,,,,,,,,,,,,
11520,1650415502.17701,1650415502.200655,13.0,0.0,4780.0,1776.410278,4345.128418,4222.563965,7189.230956999999,450.0,3.0,68.0,,,,0.0,4.0,1.0,1.0,0.0,4.0,16.666666,,,,,,,,,,,,,,,,,,,,,,,,,,,,,,,,,,,,,,,,,,,,,,,,,,,,,,0.0,0.0,1.0,0.0,512.0,1.0,,,,,,,,,,,,,,,,,,,,,,,,,
11521,1650415502.184825,1650415502.208469,14.0,0.0,4726.153809,1780.0,4343.077147999999,4289.743652,7194.871581999999,450.0,3.0,68.0,,,,0.0,4.0,1.0,1.0,0.0,4.0,16.666666,,,,,,,,7.0,0.0,0.067116,-0.5725100000000001,0.347656,0.739502,0.901381,-0.43262399999999995,-0.10351700000000001,-0.045687,-0.054988999999999996,-0.021187,,,,,,,,,,,,,,,,,,,,,,,,,,,,,,,,,,,,,,,,,,,,,,,,,,,,,,,,,,,,,,,,,
11522,1650415502.192639,1650415502.216184,15.0,0.0,4714.358886999999,1821.0256350000002,4283.077147999999,4324.615234000001,7174.358887,16106.0,3.0,68.0,,,,0.0,4.0,1.0,1.0,0.0,4.0,16.666666,,,,,,,,,,,,,,,,,,,,,,,,,,,,,,,,,,,,,,,,,,,,,,,,,,,,,,,,,,,,,,,,,,,,,,,,,,,,,,,,,,,,
11523,1650415502.200454,1650415502.223999,16.0,0.0,4746.666504,1860.5128170000003,4249.230957,4296.410156,7165.128418000001,0.0,3.0,68.0,,,,0.0,4.0,1.0,1.0,0.0,4.0,16.666666,,,,,,,,8.0,0.0,0.067116,-0.5725100000000001,0.347656,0.739502,0.910658,-0.451667,-0.09131,-0.045806,-0.054959,-0.022193,,,,,,,,,,,,,,,,,,,,,,,,,,,,,,,,,,,,,,,,,,,,,,,,,,,,,,,,,,,,,,,,,
11524,1650415502.208269,1650415502.231713,17.0,0.0,4694.871582,1883.589722,4266.666504,4305.641113000001,7083.077148,0.0,3.0,68.0,,,,0.0,4.0,1.0,1.0,0.0,4.0,16.666666,,,,,,,,,,,,,,,,,,,,,,,,,,,,,,,,,,,,,,,,,,,,,,,,,,,,,,0.0,0.0,1.0,0.0,512.0,1.0,,,,,,,,,,,,,,,,,,,,,,,,,
11525,1650415502.216083,1650415502.239528,18.0,0.0,4656.922852000001,1893.3333739999998,4282.05127,4324.615234000001,7029.230956999999,0.0,3.0,68.0,,,,0.0,4.0,1.0,1.0,0.0,4.0,16.666666,,,,,,,,9.0,0.0,0.06629199999999999,-0.572754,0.347412,0.739502,0.9121229999999999,-0.425299,-0.09424,-0.045913,-0.054980999999999995,-0.019827,,,,,,,,,,,,,,,,,,,,,,,,,,,,,,,,,,,,,,,,,,,,,,,,,,,,,,,,,,,,,,,,,
11526,1650415502.223898,1650415502.247243,19.0,0.0,4749.230957,1921.538452,4232.820313,4306.666504,7085.641113,0.0,3.0,68.0,,,,0.0,4.0,1.0,1.0,0.0,4.0,16.666666,,,,,,,,,,,,,,,,,,,,,,,,,,,,,,,,,,,,,,,,,,,,,,,,,,,,,,,,,,,,,,,,,,,,,,,,,,,,,,,,,,,,
11527,1650415502.2317119,1650415502.255057,20.0,0.0,4781.538574,1959.4871829999997,4162.05127,4317.94873,7065.641113,0.0,3.0,68.0,,,,0.0,4.0,1.0,1.0,0.0,4.0,16.666666,,,,,,,,10.0,0.0,0.068369,-0.5725100000000001,0.347412,0.739502,0.91017,-0.43018199999999995,-0.098634,-0.046058,-0.055001,-0.020921000000000002,,,,,,,,,,,,,,,,,,,,,,,,,,,,,,,,,,,,,,,,,,,,,,,,,,,,,,,,,,,,,,,,,
11528,1650415502.239527,1650415502.262772,21.0,0.0,4667.692383,1958.461548,4185.128418,4325.641113000001,6914.871581999999,0.0,3.0,68.0,,,,0.0,4.0,1.0,1.0,0.0,4.0,16.666666,,,,,,,,,,,,,,,,,,,,,,,,,,,,,,,,,,,,,,,,,,,,,,,,,,,,,,0.0,0.0,1.0,0.0,512.0,1.0,,,,,,,,,,,,,,,,,,,,,,,,,
11529,1650415502.247341,1650415502.270587,22.0,0.0,4605.641113000001,1941.0256350000002,4287.179688,4317.436035,6814.358887,0.0,3.0,68.0,,,,0.0,4.0,1.0,1.0,0.0,4.0,16.666666,,,,,,,,11.0,0.0,0.066953,-0.5725100000000001,0.347168,0.739746,0.901869,-0.421393,-0.100587,-0.046042,-0.054969000000000004,-0.021856,,,,,,,,,,,,,,,,,,,,,,,,,,,,,,,,,,,,,,,,,,,,,,,,,,,,,,,,,,,,,,,,,
11530,1650415502.255156,1650415502.278302,23.0,0.0,4669.230957,1969.230713,4314.871582,4312.820313,6821.025879000001,0.0,3.0,68.0,,,,0.0,4.0,1.0,1.0,0.0,4.0,16.666666,,,,,,,,,,,,,,,,,,,,,,,,,,,,,,,,,,,,,,,,,,,,,,,,,,,,,,,,,,,,,,,,,,,,,,,,,,,,,,,,,,,,
11531,1650415502.26297,1650415502.2861161,24.0,0.0,4696.410156,2054.3588870000003,4223.589844,4307.692383,6809.743651999999,0.0,3.0,68.0,,,,0.0,4.0,1.0,1.0,0.0,4.0,16.666666,,,,,,,,12.0,0.0,0.068207,-0.5725100000000001,0.34692399999999995,0.739746,0.9160299999999999,-0.44238999999999995,-0.106447,-0.046028,-0.055039,-0.022747,,,,,,,,,,,,,,,,,,,,,,,,,,,,,,,,,,,,,,,,,,,,,,,,,,,,,,,,,,,,,,,,,
11532,1650415502.2707849,1650415502.293831,25.0,0.0,4625.128418,2132.3076170000004,4186.153809,4322.563965,6721.538573999999,0.0,3.0,68.0,,,,0.0,4.0,1.0,1.0,0.0,4.0,16.666666,,,,,,,,,,,,,,,,,,,,1.0,0.0,0.0,,,,,,,,,,,,,,,,,,,,,,,,,,,,,,,,0.0,0.0,1.0,0.0,512.0,1.0,23.72492,4.58303,5.365493,2.364633,4.5211559999999995,81.938301,60.686668000000004,30.992319000000002,19.908604,18.006063,14.509269,7.7068509999999995,4.633198999999999,2.0598349999999996,4.910572,2.100062,1.6769740000000002,1.324423,1.7697169999999998,0.773507,74.172844,11.702044,7.672698,4.211404,6.012719000000001
11533,1650415502.278599,1650415502.301646,26.0,0.0,4579.487305,2138.4614260000003,4242.563965,4336.922852000001,6631.282227000001,0.0,3.0,68.0,,,,0.0,4.0,1.0,1.0,0.0,4.0,16.666666,,,,,,,,13.0,0.0,0.068207,-0.5725100000000001,0.34692399999999995,0.739746,0.908217,-0.423346,-0.11230599999999999,-0.046015,-0.055053,-0.020374,,,,,,,,,,,,,,,,,,,,,,,,,,,,,,,,,,,,,,,,,,,,,,,,,,,,,,,,,,,,,,,,,
11534,1650415502.2864141,1650415502.30936,27.0,0.0,4615.897461,2126.666748,4251.794922,4328.717772999999,6596.410156,0.0,3.0,68.0,,,,0.0,4.0,1.0,1.0,0.0,4.0,16.666666,,,,,,,,,,,,,,,,,,,,,,,,,,,,,,,,,,,,,,,,,,,,,,,,,,,,,,,,,,,,,,,,,,,,,,,,,,,,,,,,,,,,
11535,1650415502.2942278,1650415502.317075,28.0,0.0,4621.025879,2127.179443,4220.0,4323.077147999999,6529.743652,0.0,3.0,68.0,,,,0.0,4.0,1.0,1.0,0.0,4.0,16.666666,,,,,,,,14.0,0.0,0.067393,-0.572754,0.34668000000000004,0.739746,0.9091940000000001,-0.43457700000000005,-0.10693499999999999,-0.04615,-0.055113999999999996,-0.018239,,,,,,,,,,,,,,,,,,,,,,,,,,,,,,,,,,,,,,,,,,,,,,,,,,,,,,,,,,,,,,,,,
11536,1650415502.302043,1650415502.3248901,29.0,0.0,4588.205078,2041.0256350000002,4221.538574,4334.871582,6413.333496,0.0,3.0,68.0,,,,0.0,4.0,1.0,1.0,0.0,4.0,16.666666,,,,,,,,,,,,,,,,,,,,,,,,,,,,,,,,,,,,,,,,,,,,,,,,,,,,,,0.0,0.0,1.0,0.0,512.0,1.0,,,,,,,,,,,,,,,,,,,,,,,,,
11537,1650415502.3098571,1650415502.332604,30.0,0.0,4616.410156,1938.9743649999998,4186.666504,4343.077147999999,6301.025879,0.0,3.0,68.0,,,,0.0,4.0,1.0,1.0,0.0,4.0,16.666666,,,,,,,,15.0,0.0,0.067393,-0.572754,0.34668000000000004,0.739746,0.9038219999999999,-0.43653000000000003,-0.106447,-0.046125,-0.054974,-0.019443000000000002,,,,,,,,,,,,,,,,,,,,,,,,,,,,,,,,,,,,,,,,,,,,,,,,,,,,,,,,,,,,,,,,,
11538,1650415502.317672,1650415502.340419,31.0,0.0,4586.666504,2002.05127,4113.333496,4342.05127,6101.025879,0.0,3.0,68.0,,,,0.0,4.0,1.0,1.0,0.0,4.0,16.666666,,,,,,,,,,,,,,,,,,,,,,,,,,,,,,,,,,,,,,,,,,,,,,,,,,,,,,,,,,,,,,,,,,,,,,,,,,,,,,,,,,,,
11539,1650415502.325487,1650415502.348134,32.0,0.0,4492.307617,2084.102539,4155.897461,4328.205078,5873.846191,0.0,3.0,68.0,,,,0.0,4.0,1.0,1.0,0.0,4.0,16.666666,,,,,,,,16.0,0.0,0.067393,-0.572754,0.34668000000000004,0.739746,0.9126120000000001,-0.43213500000000005,-0.106447,-0.0462,-0.055042999999999995,-0.017303,,,,,,,,,,,,,,,,,,,,,,,,,,,,,,,,,,,,,,,,,,,,,,,,,,,,,,,,,,,,,,,,,
11540,1650415502.333301,1650415502.355948,33.0,0.0,4522.563965,1994.871826,4266.666504,4312.307617,5760.0,0.0,3.0,68.0,,,,0.0,4.0,1.0,1.0,0.0,4.0,16.666666,,,,,,,,,,,,,,,,,,,,,,,,,,,,,,,,,,,,,,,,,,,,,,,,,,,,,,0.0,0.0,1.0,0.0,512.0,1.0,,,,,,,,,,,,,,,,,,,,,,,,,
11541,1650415502.341116,1650415502.3636632,34.0,0.0,4577.436035,1976.410278,4264.615234000001,4331.794922,5578.974121,0.0,3.0,68.0,,,,0.0,4.0,1.0,1.0,0.0,4.0,16.666666,,,,,,,,17.0,0.0,0.067393,-0.572754,0.34668000000000004,0.739746,0.9121229999999999,-0.448737,-0.10254100000000001,-0.046219,-0.05500700000000001,-0.015425999999999999,,,,,,,,,,,,,,,,,,,,,,,,,,,,,,,,,,,,,,,,,,,,,,,,,,,,,,,,,,,,,,,,,
11542,1650415502.3489301,1650415502.3714778,35.0,0.0,4475.384765999999,2161.025635,4227.179688,4316.410156,5316.922852000001,0.0,3.0,68.0,,,,0.0,4.0,1.0,1.0,0.0,4.0,16.666666,,,,,,,,,,,,,,,,,,,,,,,,,,,,,,,,,,,,,,,,,,,,,,,,,,,,,,,,,,,,,,,,,,,,,,,,,,,,,,,,,,,,
11543,1650415502.356745,1650415502.379193,36.0,0.0,4424.102539,2231.281982,4268.205078,4265.128418,5252.820313,0.0,3.0,68.0,,,,0.0,4.0,1.0,1.0,0.0,4.0,16.666666,,,,,,,,18.0,0.0,0.06465800000000001,-0.572754,0.34668000000000004,0.7399899999999999,0.9038219999999999,-0.436042,-0.098146,-0.046187,-0.055024,-0.016911000000000002,,,,,,,,,,,,,,,,,,,,,,,,,,,,,,,,,,,,,,,,,,,,,,,,,,,,,,,,,,,,,,,,,
11544,1650415502.364559,1650415502.387007,37.0,0.0,4524.102539,2231.794922,4275.897461,4283.077147999999,5273.846191,0.0,3.0,68.0,,,,0.0,4.0,1.0,1.0,0.0,4.0,16.666666,,,,,,,,,,,,,,,,,,,,,,,,,,,,,,,,,,,,,,,,,,,,,,,,,,,,,,0.0,0.0,1.0,0.0,512.0,1.0,,,,,,,,,,,,,,,,,,,,,,,,,
11545,1650415502.372374,1650415502.394722,38.0,0.0,4535.384765999999,2358.974365,4261.538574,4315.897461,5160.512695,0.0,3.0,68.0,,,,0.0,4.0,1.0,1.0,0.0,4.0,16.666666,,,,,,,,19.0,0.0,0.066785,-0.5725100000000001,0.34668000000000004,0.7399899999999999,0.9072399999999999,-0.451667,-0.09131,-0.046256,-0.054991,-0.018296,,,,,,,,,,,,,,,,,,,,,,,,,,,,,,,,,,,,,,,,,,,,,,,,,,,,,,,,,,,,,,,,,
11546,1650415502.380188,1650415502.4025369,39.0,0.0,4466.666504,2433.846191,4296.922852000001,4292.307617,5025.641113000001,0.0,3.0,68.0,,,,0.0,4.0,1.0,1.0,0.0,4.0,16.666666,,,,,,,,,,,,,,,,,,,,,,,,,,,,,,,,,,,,,,,,,,,,,,,,,,,,,,,,,,,,,,,,,,,,,,,,,,,,,,,,,,,,
11547,1650415502.3880029,1650415502.410251,40.0,0.0,4464.615234000001,2454.871826,4280.0,4276.410156,4954.871582,0.0,3.0,68.0,,,,0.0,4.0,1.0,1.0,0.0,4.0,16.666666,,,,,,,,20.0,0.0,0.067393,-0.572754,0.34668000000000004,0.739746,0.9121229999999999,-0.448737,-0.10254100000000001,-0.046269,-0.054863,-0.016418000000000002,,,,,,,,,,,,,,,,,,,,,,,,,,,,,,,,,,,,,,,,,,,,,,,,,,,,,,,,,,,,,,,,,
11548,1650415502.395817,1650415502.418066,41.0,0.0,4450.769043,2538.974365,4230.256348,4290.769043,4890.769043,0.0,3.0,68.0,,,,0.0,4.0,1.0,1.0,0.0,4.0,16.666666,,,,,,,,,,,,,,,,,,,,1.0,0.0,0.0,,,,,,,,,,,,,,,,,,,,,,,,,,,,,,,,0.0,0.0,32.0,1.0,1.0,0.0,24.804758,4.307627,5.843151,2.5690880000000003,5.055285,134.626877,53.63383100000001,25.656720999999997,19.402225,17.668105999999998,19.263929,7.988258999999999,6.498591,3.039791,5.175479,3.100367,2.882541,2.248866,2.649738,1.2694,236.799927,26.434624,10.960561,4.084728,5.9862779999999995
11549,1650415502.403632,1650415502.425781,42.0,0.0,4406.153809,2649.743652,4264.102539,4319.487305,4821.025879,0.0,3.0,68.0,,,,0.0,4.0,1.0,1.0,0.0,4.0,16.666666,,,,,,,,21.0,0.0,0.066785,-0.5725100000000001,0.34668000000000004,0.7399899999999999,0.9072399999999999,-0.451667,-0.09131,-0.046329,-0.054845000000000005,-0.017852,,,,,,,,,,,,,,,,,,,,,,,,,,,,,,,,,,,,,,,,,,,,,,,,,,,,,,,,,,,,,,,,,
11550,1650415502.411446,1650415502.433595,43.0,0.0,4426.666504,2794.871826,4300.0,4282.05127,4767.179688,0.0,3.0,68.0,,,,0.0,4.0,1.0,1.0,0.0,4.0,16.666666,,,,,,,,,,,,,,,,,,,,,,,,,,,,,,,,,,,,,,,,,,,,,,,,,,,,,,,,,,,,,,,,,,,,,,,,,,,,,,,,,,,,
11551,1650415502.419261,1650415502.44131,44.0,0.0,4425.128418,2936.923096,4265.128418,4148.205078,4712.820313,0.0,3.0,68.0,,,,0.0,4.0,1.0,1.0,0.0,4.0,16.666666,,,,,,,,22.0,0.0,0.066785,-0.5725100000000001,0.34668000000000004,0.7399899999999999,0.8960100000000001,-0.43457700000000005,-0.10888800000000001,-0.046335,-0.054927,-0.015969,,,,,,,,,,,,,,,,,,,,,,,,,,,,,,,,,,,,,,,,,,,,,,,,,,,,,,,,,,,,,,,,,
11552,1650415502.4270759,1650415502.449125,45.0,0.0,4357.94873,2971.281982,4259.487305,4115.897461,4685.128418,0.0,3.0,68.0,,,,0.0,4.0,1.0,1.0,0.0,4.0,16.666666,,,,,,,,,,,,,,,,,,,,,,,,,,,,,,,,,,,,,,,,,,,,,,,,,,,,,,0.0,0.0,32.0,1.0,1.0,0.0,,,,,,,,,,,,,,,,,,,,,,,,,
11553,1650415502.43489,1650415502.45684,46.0,0.0,4335.897461,3011.794922,4306.666504,4237.94873,4650.256348,0.0,3.0,68.0,,,,0.0,4.0,1.0,1.0,0.0,4.0,16.666666,,,,,,,,23.0,0.0,0.065505,-0.5725100000000001,0.34692399999999995,0.7399899999999999,0.910658,-0.42920600000000003,-0.11230599999999999,-0.046194,-0.054903,-0.017497,,,,,,,,,,,,,,,,,,,,,,,,,,,,,,,,,,,,,,,,,,,,,,,,,,,,,,,,,,,,,,,,,
11554,1650415502.4427052,1650415502.464654,47.0,0.0,4348.717772999999,3114.3588870000003,4319.487305,4283.589844,4590.256348,0.0,3.0,68.0,,,,0.0,4.0,1.0,1.0,0.0,4.0,16.666666,,,,,,,,,,,,,,,,,,,,,,,,,,,,,,,,,,,,,,,,,,,,,,,,,,,,,,,,,,,,,,,,,,,,,,,,,,,,,,,,,,,,
11555,1650415502.4505188,1650415502.472369,48.0,0.0,4350.256348,3222.564209,4254.871582,4264.615234000001,4555.384765999999,0.0,3.0,68.0,,,,0.0,4.0,1.0,1.0,0.0,4.0,16.666666,,,,,,,,24.0,0.0,0.065505,-0.5725100000000001,0.34692399999999995,0.7399899999999999,0.900893,-0.440925,-0.09668099999999999,-0.046262,-0.05488200000000001,-0.018824,,,,,,,,,,,,,,,,,,,,,,,,,,,,,,,,,,,,,,,,,,,,,,,,,,,,,,,,,,,,,,,,,
11556,1650415502.458334,1650415502.480084,49.0,0.0,4363.589844,3376.4101560000004,4217.94873,4300.0,4540.512695,0.0,3.0,68.0,,,,0.0,4.0,1.0,1.0,0.0,4.0,16.666666,,,,,,,,,,,,,,,,,,,,,,,,,,,,,,,,,,,,,,,,,,,,,,,,,,,,,,0.0,0.0,32.0,1.0,1.0,0.0,,,,,,,,,,,,,,,,,,,,,,,,,
11557,1650415502.4661481,1650415502.487898,50.0,0.0,4368.717772999999,3523.076904,4272.307617,4282.05127,4511.282227000001,0.0,3.0,68.0,,,,0.0,4.0,1.0,1.0,0.0,4.0,16.666666,,,,,,,,25.0,0.0,0.067604,-0.5722659999999999,0.34692399999999995,0.7399899999999999,0.9043110000000001,-0.422858,-0.103029,-0.046324000000000004,-0.054814,-0.020018,,,,,,,,,,,,,,,,,,,,,,,,,,,,,,,,,,,,,,,,,,,,,,,,,,,,,,,,,,,,,,,,,
11558,1650415502.473963,1650415502.495613,51.0,0.0,4349.743652,3642.5642090000006,4316.922852000001,4239.487305,4461.538574,0.0,3.0,68.0,,,,0.0,4.0,1.0,1.0,0.0,4.0,16.666666,,,,,,,,,,,,,,,,,,,,,,,,,,,,,,,,,,,,,,,,,,,,,,,,,,,,,,,,,,,,,,,,,,,,,,,,,,,,,,,,,,,,
11559,1650415502.481777,1650415502.503428,52.0,0.0,4350.769043,3771.281982,4305.641113000001,4253.846191,4450.256348,0.0,3.0,68.0,,,,0.0,4.0,1.0,1.0,0.0,4.0,16.666666,,,,,,,,26.0,0.0,0.067604,-0.5722659999999999,0.34692399999999995,0.7399899999999999,0.9209129999999999,-0.431647,-0.102052,-0.04633,-0.054899,-0.021141,,,,,,,,,,,,,,,,,,,,,,,,,,,,,,,,,,,,,,,,,,,,,,,,,,,,,,,,,,,,,,,,,
11560,1650415502.489592,1650415502.511143,53.0,0.0,4361.025879,3833.3332520000004,4297.94873,4266.666504,4449.743652,0.0,3.0,68.0,,,,0.0,4.0,1.0,1.0,0.0,4.0,16.666666,,,,,,,,,,,,,,,,,,,,,,,,,,,,,,,,,,,,,,,,,,,,,,,,,,,,,,0.0,0.0,32.0,1.0,1.0,0.0,,,,,,,,,,,,,,,,,,,,,,,,,
11561,1650415502.497406,1650415502.5189571,54.0,0.0,4315.384765999999,3835.897461,4304.102539,4285.641113000001,4409.743652,0.0,3.0,68.0,,,,0.0,4.0,1.0,1.0,0.0,4.0,16.666666,,,,,,,,27.0,0.0,0.067604,-0.5722659999999999,0.34692399999999995,0.7399899999999999,0.889174,-0.42432299999999995,-0.109865,-0.046336,-0.054927,-0.022152,,,,,,,,,,,,,,,,,,,,,,,,,,,,,,,,,,,,,,,,,,,,,,,,,,,,,,,,,,,,,,,,,
11562,1650415502.5052211,1650415502.5266721,55.0,0.0,4283.589844,3870.256348,4311.794922,4292.820313,4357.436035,0.0,3.0,68.0,,,,0.0,4.0,1.0,1.0,0.0,4.0,16.666666,,,,,,,,,,,,,,,,,,,,,,,,,,,,,,,,,,,,,,,,,,,,,,,,,,,,,,,,,,,,,,,,,,,,,,,,,,,,,,,,,,,,
11563,1650415502.513035,1650415502.534487,56.0,0.0,4336.410156,3944.615479,4302.563965,4274.358886999999,4313.333496,0.0,3.0,68.0,,,,0.0,4.0,1.0,1.0,0.0,4.0,16.666666,,,,,,,,28.0,0.0,0.066995,-0.572021,0.34692399999999995,0.7402340000000001,0.9116350000000001,-0.44238999999999995,-0.1084,-0.046341,-0.055,-0.019888,,,,,,,,,,,,,,,,,,,,,,,,,,,,,,,,,,,,,,,,,,,,,,,,,,,,,,,,,,,,,,,,,
11564,1650415502.52085,1650415502.542201,57.0,0.0,4357.436035,4058.461426,4285.128418,4292.307617,4304.102539,0.0,3.0,68.0,,,,0.0,4.0,1.0,1.0,0.0,4.0,16.666666,,,,,,,,,,,,,,,,,,,,1.0,0.0,0.0,,,,,,,,,,,,,,,,,,,,,,,,,,,,,,,,0.0,0.0,32.0,1.0,1.0,0.0,23.786823000000002,3.844091,6.2070669999999994,3.255243,6.335834999999999,284.36474599999997,53.066368000000004,25.55619,21.357428,16.429130999999998,29.964884,10.100911,12.336601,5.244471,5.860908,5.350935,5.2908610000000005,4.554667,4.693436,2.5404720000000003,597.4874269999999,55.866917,14.697291,4.146026,6.116724
11565,1650415502.528664,1650415502.550016,58.0,0.0,4293.846191,4190.769043,4290.256348,4320.0,4288.205078,0.0,3.0,68.0,,,,0.0,4.0,1.0,1.0,0.0,4.0,16.666666,,,,,,,,29.0,0.0,0.066995,-0.572021,0.34692399999999995,0.7402340000000001,0.9091940000000001,-0.424811,-0.104494,-0.046297000000000005,-0.054920000000000004,-0.020927,,,,,,,,,,,,,,,,,,,,,,,,,,,,,,,,,,,,,,,,,,,,,,,,,,,,,,,,,,,,,,,,,
11566,1650415502.536479,1650415502.5577312,59.0,0.0,4261.025879,4290.769043,4301.025879,4291.282227000001,4252.820313,0.0,3.0,68.0,,,,0.0,4.0,1.0,1.0,0.0,4.0,16.666666,,,,,,,,,,,,,,,,,,,,,,,,,,,,,,,,,,,,,,,,,,,,,,,,,,,,,,,,,,,,,,,,,,,,,,,,,,,,,,,,,,,,
11567,1650415502.5442939,1650415502.5655448,60.0,0.0,4295.384765999999,4325.128418,4292.307617,4286.153809,4248.205078,0.0,3.0,68.0,,,,0.0,4.0,1.0,1.0,0.0,4.0,16.666666,,,,,,,,30.0,0.0,0.066995,-0.572021,0.34692399999999995,0.7402340000000001,0.9077290000000001,-0.437018,-0.11133,-0.046306,-0.054897,-0.018785,,,,,,,,,,,,,,,,,,,,,,,,,,,,,,,,,,,,,,,,,,,,,,,,,,,,,,,,,,,,,,,,,
11568,1650415502.552108,1650415502.57326,61.0,0.0,4295.384765999999,4329.230957,4289.230957,4306.153809,4254.871582,0.0,3.0,68.0,,,,0.0,4.0,1.0,1.0,0.0,4.0,16.666666,,,,,,,,,,,,,,,,,,,,,,,,,,,,,,,,,,,,,,,,,,,,,,,,,,,,,,0.0,0.0,32.0,1.0,1.0,0.0,,,,,,,,,,,,,,,,,,,,,,,,,
11569,1650415502.559923,1650415502.580975,62.0,0.0,4261.538574,4407.179688,4294.358886999999,4272.820313,4209.230957,0.0,3.0,68.0,,,,0.0,4.0,1.0,1.0,0.0,4.0,16.666666,,,,,,,,31.0,0.0,0.066995,-0.572021,0.34692399999999995,0.7402340000000001,0.904799,-0.448737,-0.10888800000000001,-0.046272,-0.055004,-0.015123,,,,,,,,,,,,,,,,,,,,,,,,,,,,,,,,,,,,,,,,,,,,,,,,,,,,,,,,,,,,,,,,,
11570,1650415502.5677369,1650415502.58879,63.0,0.0,4264.615234000001,4502.563965,4293.333496,4255.384765999999,4144.615234000001,0.0,3.0,68.0,,,,0.0,4.0,1.0,1.0,0.0,4.0,16.666666,,,,,,,,,,,,,,,,,,,,,,,,,,,,,,,,,,,,,,,,,,,,,,,,,,,,,,,,,,,,,,,,,,,,,,,,,,,,,,,,,,,,
11571,1650415502.575552,1650415502.596504,64.0,0.0,4291.282227000001,4518.461426,4307.692383,4276.922852000001,4146.153809,450.0,3.0,68.0,,,,0.0,4.0,1.0,1.0,0.0,4.0,16.666666,,,,,,,,32.0,0.0,0.066995,-0.572021,0.34692399999999995,0.7402340000000001,0.914076,-0.44531899999999996,-0.116701,-0.046284,-0.054972,-0.019812,,,,,,,,,,,,,,,,,,,,,,,,,,,,,,,,,,,,,,,,,,,,,,,,,,,,,,,,,,,,,,,,,
11572,1650415502.583366,1650415502.604219,65.0,0.0,4292.307617,4561.538574,4320.512695,4287.692383,4175.897461,450.0,3.0,68.0,,,,0.0,4.0,1.0,1.0,0.0,4.0,16.666666,,,,,,,,,,,,,,,,,,,,,,,,,,,,,,,,,,,,,,,,,,,,,,,,,,,,,,0.0,0.0,32.0,1.0,1.0,0.0,,,,,,,,,,,,,,,,,,,,,,,,,
11573,1650415502.591181,1650415502.612034,66.0,0.0,4283.077147999999,4686.666504,4335.897461,4294.871582,4164.102539,16166.0,3.0,68.0,,,,0.0,4.0,1.0,1.0,0.0,4.0,16.666666,,,,,,,,33.0,0.0,0.06424099999999999,-0.572021,0.34692399999999995,0.740479,0.8969860000000001,-0.437018,-0.11035299999999999,-0.046294,-0.054846000000000006,-0.017733000000000002,,,,,,,,,,,,,,,,,,,,,,,,,,,,,,,,,,,,,,,,,,,,,,,,,,,,,,,,,,,,,,,,,
11574,1650415502.598995,1650415502.619848,67.0,0.0,4276.410156,4769.230957,4357.436035,4294.871582,4118.461426,450.0,3.0,68.0,,,,0.0,4.0,1.0,1.0,0.0,4.0,16.666666,,,,,,,,,,,,,,,,,,,,,,,,,,,,,,,,,,,,,,,,,,,,,,,,,,,,,,,,,,,,,,,,,,,,,,,,,,,,,,,,,,,,
11575,1650415502.6068099,1650415502.627563,68.0,0.0,4252.307617,4794.358886999999,4337.94873,4284.615234000001,4075.897461,27.0,3.0,68.0,,,,0.0,4.0,0.0,1.0,0.0,4.0,8.333333,,,,,,,,34.0,0.0,0.06424099999999999,-0.572021,0.34692399999999995,0.740479,0.903334,-0.44483100000000003,-0.111818,-0.046352,-0.054879,-0.019084999999999998,,,,,,,,,,,,,,,,,,,,,,,,,,,,,,,,,,,,,,,,,,,,,,,,,,,,,,,,,,,,,,,,,
11576,1650415502.614624,1650415502.635378,69.0,0.0,4261.025879,4849.743652,4292.820313,4295.384765999999,4065.1281740000004,450.0,3.0,68.0,,,,0.0,4.0,0.0,1.0,0.0,4.0,8.333333,,,,,,,,,,,,,,,,,,,,,,,,,,,,,,,,,,,,,,,,,,,,,,,,,,,,,,0.0,0.0,32.0,1.0,1.0,0.0,,,,,,,,,,,,,,,,,,,,,,,,,
11577,1650415502.6224391,1650415502.643092,70.0,0.0,4271.282227000001,4877.436035,4288.205078,4307.179688,4062.5642090000006,0.0,3.0,68.0,,,,0.0,4.0,0.0,0.0,0.0,4.0,0.0,,,,,,,,35.0,0.0,0.06637799999999999,-0.5717770000000001,0.34692399999999995,0.740479,0.917983,-0.436042,-0.107424,-0.046307,-0.054811,-0.017079,,,,,,,,,,,,,,,,,,,,,,,,,,,,,,,,,,,,,,,,,,,,,,,,,,,,,,,,,,,,,,,,,
11578,1650415502.6302528,1650415502.650907,71.0,0.0,4218.974121,4852.307617,4299.487305,4297.436035,4032.3076170000004,450.0,3.0,68.0,,,,0.0,4.0,0.0,0.0,0.0,4.0,0.0,,,,,,,,,,,,,,,,,,,,,,,,,,,,,,,,,,,,,,,,,,,,,,,,,,,,,,,,,,,,,,,,,,,,,,,,,,,,,,,,,,,,
11579,1650415502.638068,1650415502.658622,72.0,0.0,4209.743652,4853.333496,4300.0,4302.563965,4012.820557,450.0,3.0,68.0,,,,0.0,4.0,0.0,0.0,0.0,4.0,0.0,,,,,,,,36.0,0.0,0.066995,-0.572021,0.34692399999999995,0.7402340000000001,0.9087049999999999,-0.4336,-0.098634,-0.046314999999999995,-0.054897,-0.018349,,,,,,,,,,,,,,,,,,,,,,,,,,,,,,,,,,,,,,,,,,,,,,,,,,,,,,,,,,,,,,,,,
11580,1650415502.645883,1650415502.666337,73.0,0.0,4281.025879,4870.256348,4320.0,4303.077147999999,4025.641113,0.0,3.0,68.0,,,,0.0,4.0,0.0,0.0,0.0,4.0,0.0,0.972656,0.0,2.0,0.0,0.0,0.0,0.0,,,,,,,,,,,,,1.0,0.0,0.0,,,,,,,,,,,,,,,,,,,,,,,,,,,,,,,,0.0,0.0,32.0,1.0,1.0,0.0,22.647932,3.568368,6.750063000000001,4.474017,8.6052,562.7276,60.823666,33.972725,26.787096000000002,14.697567000000001,46.252396000000005,15.002851000000001,23.942314,8.930199,7.138580999999999,9.055949,9.019283999999999,8.930342999999999,8.316032,4.855214,1144.421509,99.314514,18.233622,4.377,6.489776999999999
11581,1650415502.653697,1650415502.674151,74.0,0.0,4277.94873,4838.974121,4313.333496,4282.563965,3987.179443,450.0,3.0,68.0,,,,0.0,4.0,0.0,0.0,0.0,4.0,0.0,,,,,,,,37.0,0.0,0.06424099999999999,-0.572021,0.34692399999999995,0.740479,0.906752,-0.43018199999999995,-0.10693499999999999,-0.046274,-0.054974,-0.016465999999999998,,,,,,,,,,,,,,,,,,,,,,,,,,,,,,,,,,,,,,,,,,,,,,,,,,,,,,,,,,,,,,,,,
11582,1650415502.661512,1650415502.681966,75.0,0.0,4205.641113000001,4844.102539,4295.897461,4288.717772999999,3913.3332520000004,16073.0,3.0,68.0,,,,0.0,4.0,0.0,0.0,0.0,4.0,0.0,,,,,,,,,,,,,,,,,,,,,,,,,,,,,,,,,,,,,,,,,,,,,,,,,,,,,,,,,,,,,,,,,,,,,,,,,,,,,,,,,,,,
11583,1650415502.669326,1650415502.689681,76.0,0.0,4196.922852000001,4932.307617,4307.692383,4310.769043,3910.7692869999996,450.0,3.0,68.0,,,,0.0,4.0,0.0,0.0,0.0,4.0,0.0,,,,,,,,38.0,0.0,0.06424099999999999,-0.572021,0.34692399999999995,0.740479,0.897963,-0.437507,-0.10498199999999999,-0.046285,-0.05499400000000001,-0.017847,,,,,,,,,,,,,,,,,,,,,,,,,,,,,,,,,,,,,,,,,,,,,,,,,,,,,,,,,,,,,,,,,
11584,1650415502.677141,1650415502.6973948,77.0,0.0,4223.589844,4952.307617,4309.743652,4298.461426,3951.281982,450.0,3.0,68.0,,,,0.0,4.0,0.0,0.0,0.0,4.0,0.0,,,,,,,,,,,,,,,,,,,,,,,,,,,,,,,,,,,,,,,,,,,,,,,,,,,,,,0.0,0.0,32.0,1.0,1.0,0.0,,,,,,,,,,,,,,,,,,,,,,,,,
11585,1650415502.6849551,1650415502.70521,78.0,0.0,4224.615234000001,4886.666504,4298.461426,4277.436035,3939.487061,450.0,3.0,68.0,,,,0.0,4.0,0.0,0.0,0.0,4.0,0.0,,,,,,,,39.0,0.0,0.06637799999999999,-0.5717770000000001,0.34692399999999995,0.740479,0.9038219999999999,-0.43799499999999997,-0.11084200000000001,-0.046294999999999996,-0.055061,-0.01904,,,,,,,,,,,,,,,,,,,,,,,,,,,,,,,,,,,,,,,,,,,,,,,,,,,,,,,,,,,,,,,,,
11586,1650415502.69277,1650415502.712925,79.0,0.0,4220.0,4919.487305,4302.563965,4285.641113000001,3885.1281740000004,16073.0,3.0,68.0,,,,0.0,4.0,0.0,0.0,0.0,4.0,0.0,,,,,,,,,,,,,,,,,,,,,,,,,,,,,,,,,,,,,,,,,,,,,,,,,,,,,,,,,,,,,,,,,,,,,,,,,,,,,,,,,,,,
11587,1650415502.700584,1650415502.7207391,80.0,0.0,4223.589844,4995.897461,4334.358886999999,4300.512695,3861.538574,450.0,3.0,68.0,,,,0.0,4.0,0.0,0.0,0.0,4.0,0.0,,,,,,,,40.0,0.0,0.06637799999999999,-0.5717770000000001,0.34692399999999995,0.740479,0.901869,-0.43018199999999995,-0.093263,-0.046207,-0.055121,-0.020309999999999998,,,,,,,,,,,,,,,,,,,,,,,,,,,,,,,,,,,,,,,,,,,,,,,,,,,,,,,,,,,,,,,,,
11588,1650415502.708399,1650415502.7284539,81.0,0.0,4220.512695,5009.230957,4338.461426,4294.358886999999,3869.2307130000004,450.0,3.0,68.0,,,,0.0,4.0,0.0,0.0,0.0,4.0,0.0,,,,,,,,,,,,,,,,,,,,,,,,,,,,,,,,,,,,,,,,,,,,,,,,,,,,,,0.0,-1.0,32.0,1.0,1.0,0.0,,,,,,,,,,,,,,,,,,,,,,,,,
11589,1650415502.716213,1650415502.736269,82.0,0.0,4215.384765999999,5089.230957,4315.384765999999,4288.205078,3861.538574,450.0,3.0,68.0,,,,0.0,4.0,0.0,0.0,0.0,4.0,0.0,,,,,,,,41.0,0.0,0.063596,-0.5717770000000001,0.34692399999999995,0.7407229999999999,0.9091940000000001,-0.41895200000000005,-0.109865,-0.046274,-0.054979999999999994,-0.018084,,,,,,,,,,,,,,,,,,,,,,,,,,,,,,,,,,,,,,,,,,,,,,,,,,,,,,,,,,,,,,,,,
11590,1650415502.7240279,1650415502.743984,83.0,0.0,4203.589844,5190.256348,4315.897461,4301.025879,3819.487061,16073.0,3.0,68.0,,,,0.0,4.0,0.0,0.0,0.0,4.0,0.0,,,,,,,,,,,,,,,,,,,,,,,,,,,,,,,,,,,,,,,,,,,,,,,,,,,,,,,,,,,,,,,,,,,,,,,,,,,,,,,,,,,,
11591,1650415502.731843,1650415502.7517982,84.0,0.0,4203.077147999999,5134.871582,4341.025879,4307.692383,3806.6667479999996,450.0,3.0,68.0,,,,0.0,4.0,0.0,0.0,0.0,4.0,0.0,,,,,,,,42.0,0.0,0.064914,-0.5717770000000001,0.34668000000000004,0.7407229999999999,0.905776,-0.4336,-0.11084200000000001,-0.046285,-0.055,-0.019254,,,,,,,,,,,,,,,,,,,,,,,,,,,,,,,,,,,,,,,,,,,,,,,,,,,,,,,,,,,,,,,,,
11592,1650415502.739657,1650415502.7595131,85.0,0.0,4237.436035,5045.641113000001,4334.358886999999,4297.94873,3834.8718259999996,450.0,3.0,68.0,,,,0.0,4.0,0.0,0.0,0.0,4.0,0.0,,,,,,,,,,,,,,,,,,,,,,,,,,,,,,,,,,,,,,,,,,,,,,,,,,,,,,0.0,-1.0,32.0,1.0,1.0,0.0,,,,,,,,,,,,,,,,,,,,,,,,,
11593,1650415502.747472,1650415502.767328,86.0,0.0,4245.128418,5074.871582,4326.153809,4293.333496,3828.205078,450.0,3.0,68.0,,,,0.0,4.0,0.0,0.0,0.0,4.0,0.0,,,,,,,,43.0,0.0,0.06637799999999999,-0.5717770000000001,0.34692399999999995,0.740479,0.901869,-0.42969399999999996,-0.10547000000000001,-0.046198,-0.054969000000000004,-0.020454,,,,,,,,,,,,,,,,,,,,,,,,,,,,,,,,,,,,,,,,,,,,,,,,,,,,,,,,,,,,,,,,,
11594,1650415502.755286,1650415502.775042,87.0,0.0,4204.615234000001,5119.487305,4358.461426,4298.974121,3777.9487299999996,16073.0,3.0,68.0,,,,0.0,4.0,0.0,0.0,0.0,4.0,0.0,,,,,,,,,,,,,,,,,,,,,,,,,,,,,,,,,,,,,,,,,,,,,,,,,,,,,,,,,,,,,,,,,,,,,,,,,,,,,,,,,,,,
11595,1650415502.7631009,1650415502.782857,88.0,0.0,4183.589844,5105.641113000001,4361.538574,4300.512695,3750.7692869999996,450.0,3.0,68.0,,,,0.0,4.0,0.0,0.0,0.0,4.0,0.0,,,,,,,,44.0,0.0,0.063596,-0.5717770000000001,0.34692399999999995,0.7407229999999999,0.9043110000000001,-0.442878,-0.11621300000000001,-0.046265,-0.05499,-0.021436,,,,,,,,,,,,,,,,,,,,,,,,,,,,,,,,,,,,,,,,,,,,,,,,,,,,,,,,,,,,,,,,,
11596,1650415502.770915,1650415502.7905722,89.0,0.0,4189.230957,5114.871582,4327.692383,4297.436035,3739.487061,450.0,3.0,68.0,,,,0.0,4.0,0.0,0.0,0.0,4.0,0.0,,,,,,,,,,,,,,,,,,,,1.0,0.0,0.0,,,,,,,,,,,,,,,,,,,,,,,,,,,,,,,,0.0,-1.0,32.0,1.0,1.0,0.0,22.061123000000002,3.841901,7.591237,6.034114,11.685553,939.65271,75.73354300000001,51.148296,35.084362,13.030656,64.225433,22.410915,40.536106,13.681832,8.912317999999999,13.881070999999999,13.551723999999998,15.432813000000001,13.315457,8.064646,1798.1191410000001,148.966629,20.999914,4.763326999999999,7.150625
11597,1650415502.7787302,1650415502.7983859,90.0,0.0,4189.743652,5155.897461,4332.307617,4304.615234000001,3728.718018,450.0,3.0,68.0,,,,0.0,4.0,0.0,0.0,0.0,4.0,0.0,,,,,,,,45.0,0.0,0.063596,-0.5717770000000001,0.34692399999999995,0.7407229999999999,0.906264,-0.441413,-0.104494,-0.046278,-0.05496,-0.019195,,,,,,,,,,,,,,,,,,,,,,,,,,,,,,,,,,,,,,,,,,,,,,,,,,,,,,,,,,,,,,,,,
11598,1650415502.7865438,1650415502.806101,91.0,0.0,4214.871582,5138.461426,4348.717772999999,4303.589844,3753.3332520000004,16073.0,3.0,68.0,,,,0.0,4.0,0.0,0.0,0.0,4.0,0.0,,,,,,,,,,,,,,,,,,,,,,,,,,,,,,,,,,,,,,,,,,,,,,,,,,,,,,,,,,,,,,,,,,,,,,,,,,,,,,,,,,,,
11599,1650415502.794359,1650415502.813916,92.0,0.0,4223.077147999999,5100.0,4334.871582,4282.563965,3752.820557,450.0,3.0,68.0,,,,0.0,4.0,0.0,0.0,0.0,4.0,0.0,,,,,,,,46.0,0.0,0.063596,-0.5717770000000001,0.34692399999999995,0.7407229999999999,0.908217,-0.431647,-0.099123,-0.046337,-0.054980999999999995,-0.020253999999999998,,,,,,,,,,,,,,,,,,,,,,,,,,,,,,,,,,,,,,,,,,,,,,,,,,,,,,,,,,,,,,,,,
11600,1650415502.8021731,1650415502.821631,93.0,0.0,4186.153809,5130.769043,4311.282227000001,4282.05127,3691.794922,450.0,3.0,68.0,,,,0.0,4.0,0.0,0.0,0.0,4.0,0.0,,,,,,,,,,,,,,,,,,,,,,,,,,,,,,,,,,,,,,,,,,,,,,,,,,,,,,0.0,-1.0,32.0,1.0,1.0,0.0,,,,,,,,,,,,,,,,,,,,,,,,,
11601,1650415502.809988,1650415502.829445,94.0,0.0,4177.94873,5153.846191,4322.563965,4300.512695,3688.205078,450.0,3.0,68.0,,,,0.0,4.0,0.0,0.0,0.0,4.0,0.0,,,,,,,,47.0,0.0,0.06575399999999999,-0.571533,0.34692399999999995,0.7407229999999999,0.9038219999999999,-0.43018199999999995,-0.1084,-0.046294,-0.055001,-0.021353,,,,,,,,,,,,,,,,,,,,,,,,,,,,,,,,,,,,,,,,,,,,,,,,,,,,,,,,,,,,,,,,,
11602,1650415502.817802,1650415502.8371599,95.0,0.0,4205.641113000001,5064.615234000001,4334.871582,4292.820313,3730.256348,16073.0,3.0,68.0,,,,0.0,4.0,0.0,0.0,0.0,4.0,0.0,,,,,,,,,,,,,,,,,,,,,,,,,,,,,,,,,,,,,,,,,,,,,,,,,,,,,,,,,,,,,,,,,,,,,,,,,,,,,,,,,,,,
11603,1650415502.825617,1650415502.844875,96.0,0.0,4203.077147999999,5016.410156,4317.436035,4273.333496,3716.923096,450.0,3.0,68.0,,,,0.0,4.0,0.0,0.0,0.0,4.0,0.0,,,,,,,,48.0,0.0,0.063596,-0.5717770000000001,0.34692399999999995,0.7407229999999999,0.906264,-0.441413,-0.104494,-0.046156,-0.055067,-0.019169,,,,,,,,,,,,,,,,,,,,,,,,,,,,,,,,,,,,,,,,,,,,,,,,,,,,,,,,,,,,,,,,,
11604,1650415502.833432,1650415502.852689,97.0,0.0,4182.05127,5108.205078,4319.487305,4280.0,3677.9487299999996,450.0,3.0,68.0,,,,0.0,4.0,0.0,0.0,0.0,4.0,0.0,,,,,,,,,,,,,,,,,,,,,,,,,,,,,,,,,,,,,,,,,,,,,,,,,,,,,,0.0,-1.0,32.0,1.0,1.0,0.0,,,,,,,,,,,,,,,,,,,,,,,,,
11605,1650415502.8412461,1650415502.860404,98.0,0.0,4170.256348,5173.846191,4333.846191,4291.794922,3683.5898439999996,450.0,3.0,68.0,,,,0.0,4.0,0.0,0.0,0.0,4.0,0.0,,,,,,,,49.0,0.0,0.06575399999999999,-0.571533,0.34692399999999995,0.7407229999999999,0.9038219999999999,-0.43018199999999995,-0.1084,-0.046131,-0.055077999999999995,-0.020377000000000003,,,,,,,,,,,,,,,,,,,,,,,,,,,,,,,,,,,,,,,,,,,,,,,,,,,,,,,,,,,,,,,,,
11606,1650415502.849061,1650415502.868219,99.0,0.0,4160.0,5148.717772999999,4317.436035,4292.820313,3675.897461,16073.0,3.0,68.0,,,,0.0,4.0,0.0,0.0,0.0,4.0,0.0,,,,,,,,,,,,,,,,,,,,,,,,,,,,,,,,,,,,,,,,,,,,,,,,,,,,,,,,,,,,,,,,,,,,,,,,,,,,,,,,,,,,
11607,1650415502.856875,1650415502.876033,100.0,0.0,4178.974121,5118.461426,4324.102539,4300.0,3653.3332520000004,450.0,3.0,68.0,,,,0.0,4.0,0.0,0.0,0.0,4.0,0.0,,,,,,,,50.0,0.0,0.06575399999999999,-0.571533,0.34692399999999995,0.7407229999999999,0.894545,-0.43018199999999995,-0.105959,-0.046156,-0.055039,-0.021318,,,,,,,,,,,,,,,,,,,,,,,,,,,,,,,,,,,,,,,,,,,,,,,,,,,,,,,,,,,,,,,,,
11608,1650415502.86469,1650415502.883748,101.0,0.0,4220.512695,5091.794922,4350.769043,4307.179688,3662.5642090000006,450.0,3.0,68.0,,,,0.0,4.0,0.0,0.0,0.0,4.0,0.0,,,,,,,,,,,,,,,,,,,,,,,,,,,,,,,,,,,,,,,,,,,,,,,,,,,,,,0.0,-1.0,32.0,1.0,1.0,0.0,,,,,,,,,,,,,,,,,,,,,,,,,
11609,1650415502.872504,1650415502.891463,102.0,0.0,4205.641113000001,5079.487305,4320.512695,4302.05127,3662.0512700000004,450.0,3.0,68.0,,,,0.0,4.0,0.0,0.0,0.0,4.0,0.0,,,,,,,,51.0,0.0,0.06575399999999999,-0.571533,0.34692399999999995,0.7407229999999999,0.885267,-0.451667,-0.102052,-0.04618,-0.055053,-0.018991,,,,,,,,,,,,,,,,,,,,,,,,,,,,,,,,,,,,,,,,,,,,,,,,,,,,,,,,,,,,,,,,,
11610,1650415502.8803189,1650415502.899277,103.0,0.0,4184.102539,5082.563965,4282.563965,4295.384765999999,3657.4357909999994,16073.0,3.0,68.0,,,,0.0,4.0,0.0,0.0,0.0,4.0,0.0,,,,,,,,,,,,,,,,,,,,,,,,,,,,,,,,,,,,,,,,,,,,,,,,,,,,,,,,,,,,,,,,,,,,,,,,,,,,,,,,,,,,
11611,1650415502.888133,1650415502.906992,104.0,0.0,4221.025879,5047.692383,4323.589844,4297.436035,3684.102539,450.0,3.0,68.0,,,,0.0,4.0,0.0,0.0,0.0,4.0,0.0,,,,,,,,52.0,0.0,0.06575399999999999,-0.571533,0.34692399999999995,0.7407229999999999,0.9028459999999999,-0.43946,-0.101076,-0.046249,-0.055015999999999995,-0.016944999999999998,,,,,,,,,,,,,,,,,,,,,,,,,,,,,,,,,,,,,,,,,,,,,,,,,,,,,,,,,,,,,,,,,
11612,1650415502.895948,1650415502.914807,105.0,0.0,4228.717772999999,5001.025879,4360.0,4299.487305,3688.718018,450.0,3.0,68.0,,,,0.0,4.0,0.0,0.0,0.0,4.0,0.0,,,,,,,,,,,,,,,,,,,,1.0,0.0,0.0,,,,,,,,,,,,,,,,,,,,,,,,,,,,,,,,0.0,-1.0,32.0,0.740263,1.0,0.0,22.471127,4.775526999999999,8.624703,7.544987,14.937064999999999,1326.5314939999998,93.564102,72.78327900000001,44.118542,11.892157000000001,77.9935,30.600367,58.274086,18.379347,10.772771,18.88245,17.775013,23.101460999999997,18.719767,11.519579,2376.209229,191.712234,22.547401,5.315362,8.033373
11613,1650415502.9037619,1650415502.922522,106.0,0.0,4188.205078,4993.333496,4332.307617,4295.897461,3650.7692869999996,450.0,3.0,68.0,,,,0.0,4.0,0.0,0.0,0.0,4.0,0.0,,,,,,,,53.0,0.0,0.064453,-0.571533,0.347168,0.7407229999999999,0.9111469999999999,-0.43994799999999995,-0.11718900000000002,-0.046263,-0.054886000000000004,-0.018229,,,,,,,,,,,,,,,,,,,,,,,,,,,,,,,,,,,,,,,,,,,,,,,,,,,,,,,,,,,,,,,,,
11614,1650415502.911577,1650415502.930336,107.0,0.0,4203.077147999999,4991.282227000001,4306.153809,4300.512695,3648.205078,16073.0,3.0,68.0,,,,0.0,4.0,0.0,0.0,0.0,4.0,0.0,,,,,,,,,,,,,,,,,,,,,,,,,,,,,,,,,,,,,,,,,,,,,,,,,,,,,,,,,,,,,,,,,,,,,,,,,,,,,,,,,,,,
11615,1650415502.919392,1650415502.938151,108.0,0.0,4227.179688,5038.974121,4323.077147999999,4296.922852000001,3667.179443,450.0,3.0,68.0,,,,0.0,4.0,0.0,0.0,0.0,4.0,0.0,,,,,,,,54.0,0.0,0.064453,-0.571533,0.347168,0.7407229999999999,0.9043110000000001,-0.44238999999999995,-0.106447,-0.046227,-0.054817,-0.01958,,,,,,,,,,,,,,,,,,,,,,,,,,,,,,,,,,,,,,,,,,,,,,,,,,,,,,,,,,,,,,,,,
11616,1650415502.927206,1650415502.945866,109.0,0.0,4211.282227000001,5112.820313,4345.641113000001,4286.666504,3633.3332520000004,450.0,3.0,68.0,,,,0.0,4.0,0.0,0.0,0.0,4.0,0.0,,,,,,,,,,,,,,,,,,,,,,,,,,,,,,,,,,,,,,,,,,,,,,,,,,,,,,0.0,-1.0,32.0,0.740263,1.0,0.0,,,,,,,,,,,,,,,,,,,,,,,,,
11617,1650415502.9350212,1650415502.9535801,110.0,0.0,4203.077147999999,5099.487305,4332.820313,4289.230957,3607.179443,450.0,3.0,68.0,,,,0.0,4.0,0.0,0.0,0.0,4.0,0.0,,,,,,,,55.0,0.0,0.067199,-0.571533,0.347168,0.740479,0.8921030000000001,-0.44483100000000003,-0.11084200000000001,-0.046243,-0.054804,-0.017476,,,,,,,,,,,,,,,,,,,,,,,,,,,,,,,,,,,,,,,,,,,,,,,,,,,,,,,,,,,,,,,,,
11618,1650415502.9428349,1650415502.961295,111.0,0.0,4210.256348,5061.538574,4305.128418,4290.769043,3626.6667479999996,16073.0,3.0,68.0,,,,0.0,4.0,0.0,0.0,0.0,4.0,0.0,,,,,,,,,,,,,,,,,,,,,,,,,,,,,,,,,,,,,,,,,,,,,,,,,,,,,,,,,,,,,,,,,,,,,,,,,,,,,,,,,,,,
11619,1650415502.95065,1650415502.96911,112.0,0.0,4221.025879,5012.820313,4305.641113000001,4284.615234000001,3629.743652,450.0,3.0,68.0,,,,0.0,4.0,0.0,0.0,0.0,4.0,0.0,,,,,,,,56.0,0.0,0.067199,-0.571533,0.347168,0.740479,0.917006,-0.43262399999999995,-0.1084,-0.046257,-0.054841999999999995,-0.018853,,,,,,,,,,,,,,,,,,,,,,,,,,,,,,,,,,,,,,,,,,,,,,,,,,,,,,,,,,,,,,,,,
11620,1650415502.9584641,1650415502.976924,113.0,0.0,4231.282227000001,4913.846191,4320.512695,4290.769043,3605.641113,450.0,3.0,68.0,,,,0.0,4.0,0.0,0.0,0.0,4.0,0.0,,,,,,,,,,,,,,,,,,,,,,,,,,,,,,,,,,,,,,,,,,,,,,,,,,,,,,0.0,-1.0,32.0,0.740263,1.0,0.0,,,,,,,,,,,,,,,,,,,,,,,,,
11621,1650415502.9662788,1650415502.9846392,114.0,0.0,4229.743652,4928.717772999999,4321.025879,4296.922852000001,3605.641113,450.0,3.0,68.0,,,,0.0,4.0,0.0,0.0,0.0,4.0,0.0,,,,,,,,57.0,0.0,0.06575399999999999,-0.571533,0.34692399999999995,0.7407229999999999,0.901381,-0.43457700000000005,-0.106447,-0.04627,-0.054875,-0.019947,,,,,,,,,,,,,,,,,,,,,,,,,,,,,,,,,,,,,,,,,,,,,,,,,,,,,,,,,,,,,,,,,
11622,1650415502.974093,1650415502.9924538,115.0,0.0,4237.436035,4982.563965,4308.717772999999,4292.820313,3634.358887,16073.0,3.0,68.0,,,,0.0,4.0,0.0,0.0,0.0,4.0,0.0,,,,,,,,,,,,,,,,,,,,,,,,,,,,,,,,,,,,,,,,,,,,,,,,,,,,,,,,,,,,,,,,,,,,,,,,,,,,,,,,,,,,
11623,1650415502.981908,1650415503.000169,116.0,0.0,4243.077147999999,4890.769043,4310.769043,4295.384765999999,3649.2307130000004,450.0,3.0,68.0,,,,0.0,4.0,0.0,0.0,0.0,4.0,0.0,,,,,,,,58.0,0.0,0.063596,-0.5717770000000001,0.34692399999999995,0.7407229999999999,0.9038219999999999,-0.42969399999999996,-0.098146,-0.046232999999999996,-0.054953999999999996,-0.017903,,,,,,,,,,,,,,,,,,,,,,,,,,,,,,,,,,,,,,,,,,,,,,,,,,,,,,,,,,,,,,,,,
11624,1650415502.989722,1650415503.007883,117.0,0.0,4234.871582,4860.512695,4330.256348,4296.410156,3626.6667479999996,450.0,3.0,68.0,,,,0.0,4.0,0.0,0.0,0.0,4.0,0.0,,,,,,,,,,,,,,,,,,,,,,,,,,,,,,,,,,,,,,,,,,,,,,,,,,,,,,0.0,-1.0,32.0,0.740263,1.0,0.0,,,,,,,,,,,,,,,,,,,,,,,,,
11625,1650415502.997537,1650415503.015698,118.0,0.0,4241.025879,4967.692383,4335.897461,4289.743652,3608.205078,450.0,3.0,68.0,,,,0.0,4.0,0.0,0.0,0.0,4.0,0.0,,,,,,,,59.0,0.0,0.064914,-0.5717770000000001,0.34668000000000004,0.7407229999999999,0.8994280000000001,-0.43018199999999995,-0.106447,-0.046151,-0.054879,-0.01914,,,,,,,,,,,,,,,,,,,,,,,,,,,,,,,,,,,,,,,,,,,,,,,,,,,,,,,,,,,,,,,,,
11626,1650415503.005351,1650415503.0234132,119.0,0.0,4254.358886999999,4973.846191,4321.538574,4295.897461,3629.743652,16073.0,3.0,68.0,,,,0.0,4.0,0.0,0.0,0.0,4.0,0.0,,,,,,,,,,,,,,,,,,,,,,,,,,,,,,,,,,,,,,,,,,,,,,,,,,,,,,,,,,,,,,,,,,,,,,,,,,,,,,,,,,,,
11627,1650415503.013166,1650415503.0312269,120.0,0.0,4249.230957,4933.333496,4326.153809,4297.94873,3650.256348,450.0,3.0,68.0,,,,0.0,4.0,0.0,0.0,0.0,4.0,0.0,,,,,,,,60.0,0.0,0.064914,-0.5717770000000001,0.34668000000000004,0.7407229999999999,0.9028459999999999,-0.44434300000000004,-0.11621300000000001,-0.046175,-0.054909000000000006,-0.020205,,,,,,,,,,,,,,,,,,,,,,,,,,,,,,,,,,,,,,,,,,,,,,,,,,,,,,,,,,,,,,,,,
11628,1650415503.0209801,1650415503.038942,121.0,0.0,4230.769043,4936.922852000001,4326.153809,4296.922852000001,3617.9487299999996,450.0,3.0,68.0,,,,0.0,4.0,0.0,0.0,0.0,4.0,0.0,,,,,,,,,,,,,,,,,,,,1.0,0.0,0.0,,,,,,,,,,,,,,,,,,,,,,,,,,,,,,,,0.0,-1.0,32.0,1.0,1.0,0.0,23.273621,6.123913,9.544291000000001,8.576238,17.459929000000002,1608.7341310000002,108.546829,92.393913,51.071991,11.487665,82.43956,36.949627,71.682571,21.63648,12.143481,22.775311,20.412557999999997,30.081429999999997,23.07094,14.268153,2688.622803,214.482437,22.578602,5.983307,8.949050999999999
11629,1650415503.028795,1650415503.046757,122.0,0.0,4207.692383,4861.538574,4330.256348,4299.487305,3590.7692869999996,450.0,3.0,68.0,,,,0.0,4.0,0.0,0.0,0.0,4.0,0.0,,,,,,,,61.0,0.0,0.064914,-0.5717770000000001,0.34668000000000004,0.7407229999999999,0.8994280000000001,-0.44776099999999996,-0.10547000000000001,-0.046245,-0.054887,-0.021212,,,,,,,,,,,,,,,,,,,,,,,,,,,,,,,,,,,,,,,,,,,,,,,,,,,,,,,,,,,,,,,,,
11630,1650415503.03661,1650415503.0545712,123.0,0.0,4213.846191,4773.846191,4342.563965,4289.230957,3605.1281740000004,16073.0,3.0,68.0,,,,0.0,4.0,0.0,0.0,0.0,4.0,0.0,,,,,,,,,,,,,,,,,,,,,,,,,,,,,,,,,,,,,,,,,,,,,,,,,,,,,,,,,,,,,,,,,,,,,,,,,,,,,,,,,,,,
11631,1650415503.044424,1650415503.062286,124.0,0.0,4249.743652,4799.487305,4322.05127,4285.641113000001,3615.384521,450.0,3.0,68.0,,,,0.0,4.0,0.0,0.0,0.0,4.0,0.0,,,,,,,,62.0,0.0,0.064914,-0.5717770000000001,0.34668000000000004,0.7407229999999999,0.9043110000000001,-0.436042,-0.11767799999999999,-0.04621,-0.054867,-0.022313,,,,,,,,,,,,,,,,,,,,,,,,,,,,,,,,,,,,,,,,,,,,,,,,,,,,,,,,,,,,,,,,,
11632,1650415503.0522392,1650415503.070001,125.0,0.0,4236.410156,4811.282227000001,4304.615234000001,4298.461426,3597.9487299999996,450.0,3.0,68.0,,,,0.0,4.0,0.0,0.0,0.0,4.0,0.0,,,,,,,,,,,,,,,,,,,,,,,,,,,,,,,,,,,,,,,,,,,,,,,,,,,,,,0.0,-1.0,32.0,1.0,1.0,0.0,,,,,,,,,,,,,,,,,,,,,,,,,
11633,1650415503.0600529,1650415503.077816,126.0,0.0,4192.307617,4747.692383,4342.05127,4300.0,3566.1538090000004,450.0,3.0,68.0,,,,0.0,4.0,0.0,0.0,0.0,4.0,0.0,,,,,,,,63.0,0.0,0.064914,-0.5717770000000001,0.34668000000000004,0.7407229999999999,0.914076,-0.44238999999999995,-0.113771,-0.046228,-0.054995,-0.02306,,,,,,,,,,,,,,,,,,,,,,,,,,,,,,,,,,,,,,,,,,,,,,,,,,,,,,,,,,,,,,,,,
11634,1650415503.067868,1650415503.08553,127.0,0.0,4206.666504,4743.589844,4363.077147999999,4297.436035,3557.9487299999996,237.0,3.0,68.0,,,,0.0,4.0,0.0,0.0,0.0,4.0,0.0,,,,,,,,,,,,,,,,,,,,,,,,,,,,,,,,,,,,,,,,,,,,,,,,,,,,,,,,,,,,,,,,,,,,,,,,,,,,,,,,,,,,
11635,1650415503.075682,1650415503.093345,0.0,0.0,4234.358886999999,4802.05127,4346.666504,4304.615234000001,3581.538574,450.0,3.0,68.0,,,,0.0,4.0,0.0,0.0,0.0,4.0,0.0,,,,,,,,0.0,0.0,0.064914,-0.5717770000000001,0.34668000000000004,0.7407229999999999,0.909682,-0.44531899999999996,-0.09765800000000001,-0.046293,-0.055013,-0.020608,,,,,,,,,,,,,,,,,,,,,,,,,,,,,,,,,,,,,,,,,,,,,,,,,,,,,,,,,,,,,,,,,
11636,1650415503.083497,1650415503.10116,1.0,0.0,4229.230957,4859.487305,4334.358886999999,4302.563965,3599.487061,450.0,3.0,68.0,,,,0.0,4.0,0.0,0.0,0.0,4.0,0.0,,,,,,,,,,,,,,,,,,,,,,,,,,,,,,,,,,,,,,,,,,,,,,,,,,,,,,0.0,-1.0,32.0,1.0,1.0,0.0,,,,,,,,,,,,,,,,,,,,,,,,,
11637,1650415503.091311,1650415503.108874,2.0,0.0,4222.563965,4890.256348,4323.077147999999,4295.384765999999,3595.897461,16191.0,3.0,68.0,,,,0.0,4.0,0.0,0.0,0.0,4.0,0.0,,,,,,,,1.0,0.0,0.064914,-0.5717770000000001,0.34668000000000004,0.7407229999999999,0.9004040000000001,-0.443366,-0.11084200000000001,-0.0464,-0.054932,-0.021623,,,,,,,,,,,,,,,,,,,,,,,,,,,,,,,,,,,,,,,,,,,,,,,,,,,,,,,,,,,,,,,,,
11638,1650415503.0991259,1650415503.116689,3.0,0.0,4227.692383,4851.794922,4306.666504,4297.94873,3580.512939,450.0,3.0,68.0,,,,0.0,4.0,0.0,0.0,0.0,4.0,0.0,,,,,,,,,,,,,,,,,,,,,,,,,,,,,,,,,,,,,,,,,,,,,,,,,,,,,,,,,,,,,,,,,,,,,,,,,,,,,,,,,,,,
11639,1650415503.10694,1650415503.124404,4.0,0.0,4231.794922,4820.0,4311.282227000001,4297.94873,3593.8461909999996,131.0,3.0,68.0,,,,0.0,4.0,1.0,0.0,0.0,4.0,8.333333,,,,,,,,2.0,0.0,0.066204,-0.5717770000000001,0.346436,0.7407229999999999,0.906752,-0.433112,-0.099611,-0.046447,-0.054908000000000005,-0.016336,,,,,,,,,,,,,,,,,,,,,,,,,,,,,,,,,,,,,,,,,,,,,,,,,,,,,,,,,,,,,,,,,
11640,1650415503.1147552,1650415503.132119,5.0,0.0,4243.077147999999,4840.512695,4315.384765999999,4299.487305,3624.102539,450.0,3.0,68.0,,,,0.0,4.0,1.0,0.0,0.0,4.0,8.333333,,,,,,,,,,,,,,,,,,,,,,,,,,,,,,,,,,,,,,,,,,,,,,,,,,,,,,0.0,-1.0,32.0,1.0,1.0,0.0,,,,,,,,,,,,,,,,,,,,,,,,,
11641,1650415503.1225688,1650415503.139833,6.0,0.0,4260.0,4824.102539,4309.743652,4301.538574,3635.897461,32.0,3.0,68.0,,,,0.0,4.0,1.0,0.0,0.0,4.0,8.333333,,,,,,,,3.0,0.0,0.066204,-0.5717770000000001,0.346436,0.7407229999999999,0.9072399999999999,-0.43653000000000003,-0.11035299999999999,-0.046441,-0.054935000000000005,-0.017779,,,,,,,,,,,,,,,,,,,,,,,,,,,,,,,,,,,,,,,,,,,,,,,,,,,,,,,,,,,,,,,,,
11642,1650415503.130384,1650415503.147648,7.0,0.0,4267.179688,4786.666504,4308.205078,4298.461426,3629.743652,450.0,3.0,68.0,,,,0.0,4.0,1.0,0.0,0.0,4.0,8.333333,,,,,,,,,,,,,,,,,,,,,,,,,,,,,,,,,,,,,,,,,,,,,,,,,,,,,,,,,,,,,,,,,,,,,,,,,,,,,,,,,,,,
11643,1650415503.138199,1650415503.155463,8.0,0.0,4274.871582,4825.641113000001,4304.102539,4296.922852000001,3629.743652,450.0,3.0,68.0,,,,0.0,4.0,1.0,0.0,0.0,4.0,8.333333,,,,,,,,4.0,0.0,0.064061,-0.572021,0.346436,0.7407229999999999,0.904799,-0.43653000000000003,-0.113771,-0.046387,-0.055008,-0.015903,,,,,,,,,,,,,,,,,,,,,,,,,,,,,,,,,,,,,,,,,,,,,,,,,,,,,,,,,,,,,,,,,
11644,1650415503.146013,1650415503.163177,9.0,0.0,4272.307617,4839.487305,4307.692383,4296.922852000001,3623.076904,0.0,3.0,68.0,,,,0.0,4.0,1.0,0.0,0.0,4.0,8.333333,0.972656,0.0,2.0,0.0,0.0,0.0,0.0,,,,,,,,,,,,,1.0,0.0,0.0,,,,,,,,,,,,,,,,,,,,,,,,,,,,,,,,0.0,-1.0,32.0,0.541331,1.0,0.0,22.741757999999997,7.401679,9.925117,8.827653,18.461367000000003,1691.476929,115.47943899999999,104.33073399999999,53.692463000000004,11.673437,75.67465200000001,39.073833,76.130074,22.402925,12.53314,24.408041,20.600779,34.321678000000006,25.011028,15.445547,2642.434814,209.889038,21.117575,6.6027190000000004,9.633713
11645,1650415503.153828,1650415503.170992,10.0,0.0,4259.487305,4768.717772999999,4310.256348,4298.974121,3604.615479,450.0,3.0,68.0,,,,0.0,4.0,1.0,0.0,0.0,4.0,8.333333,,,,,,,,5.0,0.0,0.064061,-0.572021,0.346436,0.7407229999999999,0.8960100000000001,-0.42920600000000003,-0.118654,-0.046387,-0.055073000000000004,-0.017438,,,,,,,,,,,,,,,,,,,,,,,,,,,,,,,,,,,,,,,,,,,,,,,,,,,,,,,,,,,,,,,,,
11646,1650415503.161642,1650415503.1787071,11.0,0.0,4252.307617,4772.307617,4304.615234000001,4303.077147999999,3603.5898439999996,16179.0,3.0,68.0,,,,0.0,4.0,1.0,0.0,0.0,4.0,8.333333,,,,,,,,,,,,,,,,,,,,,,,,,,,,,,,,,,,,,,,,,,,,,,,,,,,,,,,,,,,,,,,,,,,,,,,,,,,,,,,,,,,,
11647,1650415503.169457,1650415503.186521,12.0,0.0,4254.358886999999,4826.153809,4338.461426,4305.128418,3606.1538090000004,450.0,3.0,68.0,,,,0.0,4.0,1.0,0.0,0.0,4.0,8.333333,,,,,,,,6.0,0.0,0.066204,-0.5717770000000001,0.346436,0.7407229999999999,0.916518,-0.43946,-0.112795,-0.046436,-0.054986,-0.015645,,,,,,,,,,,,,,,,,,,,,,,,,,,,,,,,,,,,,,,,,,,,,,,,,,,,,,,,,,,,,,,,,
11648,1650415503.1772711,1650415503.194236,13.0,0.0,4277.436035,4806.153809,4356.922852000001,4303.589844,3604.615479,450.0,3.0,68.0,,,,0.0,4.0,1.0,0.0,0.0,4.0,8.333333,,,,,,,,,,,,,,,,,,,,,,,,,,,,,,,,,,,,,,,,,,,,,,,,,,,,,,0.0,-1.0,32.0,0.541331,1.0,0.0,,,,,,,,,,,,,,,,,,,,,,,,,
11649,1650415503.185086,1650415503.202051,14.0,0.0,4284.615234000001,4792.820313,4331.282227000001,4302.05127,3601.538574,450.0,3.0,68.0,,,,0.0,4.0,1.0,0.0,0.0,4.0,8.333333,,,,,,,,7.0,0.0,0.064061,-0.572021,0.346436,0.7407229999999999,0.904799,-0.43653000000000003,-0.113771,-0.046382,-0.055054,-0.013983,,,,,,,,,,,,,,,,,,,,,,,,,,,,,,,,,,,,,,,,,,,,,,,,,,,,,,,,,,,,,,,,,
11650,1650415503.1929,1650415503.209765,15.0,0.0,4256.410156,4829.230957,4329.230957,4301.538574,3604.615479,16179.0,3.0,68.0,,,,0.0,4.0,1.0,0.0,0.0,4.0,8.333333,,,,,,,,,,,,,,,,,,,,,,,,,,,,,,,,,,,,,,,,,,,,,,,,,,,,,,,,,,,,,,,,,,,,,,,,,,,,,,,,,,,,
11651,1650415503.200715,1650415503.21758,16.0,0.0,4256.922852000001,4794.358886999999,4351.282227000001,4303.077147999999,3625.641113,0.0,3.0,68.0,,,,0.0,4.0,1.0,0.0,0.0,4.0,8.333333,,,,,,,,8.0,0.0,0.064914,-0.5717770000000001,0.34668000000000004,0.7407229999999999,0.8955209999999999,-0.43799499999999997,-0.11084200000000001,-0.046383,-0.054969000000000004,-0.00946,,,,,,,,,,,,,,,,,,,,,,,,,,,,,,,,,,,,,,,,,,,,,,,,,,,,,,,,,,,,,,,,,
11652,1650415503.208529,1650415503.2252948,17.0,0.0,4266.666504,4705.641113000001,4333.846191,4305.641113000001,3618.974365,0.0,3.0,68.0,,,,0.0,4.0,1.0,0.0,0.0,4.0,8.333333,,,,,,,,,,,,,,,,,,,,,,,,,,,,,,,,,,,,,,,,,,,,,,,,,,,,,,0.0,-1.0,32.0,0.541331,1.0,0.0,,,,,,,,,,,,,,,,,,,,,,,,,
11653,1650415503.2163439,1650415503.23301,18.0,0.0,4251.794922,4722.563965,4323.589844,4304.615234000001,3578.974365,0.0,3.0,68.0,,,,0.0,4.0,1.0,0.0,0.0,4.0,8.333333,,,,,,,,9.0,0.0,0.064914,-0.5717770000000001,0.34668000000000004,0.7407229999999999,0.9150530000000001,-0.44531899999999996,-0.103029,-0.046432,-0.055136000000000004,-0.011590000000000001,,,,,,,,,,,,,,,,,,,,,,,,,,,,,,,,,,,,,,,,,,,,,,,,,,,,,,,,,,,,,,,,,
11654,1650415503.224158,1650415503.240824,19.0,0.0,4252.820313,4792.820313,4366.153809,4303.589844,3583.076904,0.0,3.0,68.0,,,,0.0,4.0,1.0,0.0,0.0,4.0,8.333333,,,,,,,,,,,,,,,,,,,,,,,,,,,,,,,,,,,,,,,,,,,,,,,,,,,,,,,,,,,,,,,,,,,,,,,,,,,,,,,,,,,,
11655,1650415503.231973,1650415503.248539,20.0,0.0,4276.410156,4781.538574,4374.358886999999,4303.589844,3620.0,0.0,3.0,68.0,,,,0.0,4.0,1.0,0.0,0.0,4.0,8.333333,,,,,,,,10.0,0.0,0.064914,-0.5717770000000001,0.34668000000000004,0.7407229999999999,0.8921030000000001,-0.430671,-0.11425999999999999,-0.046428,-0.055090999999999994,-0.013507,,,,,,,,,,,,,,,,,,,,,,,,,,,,,,,,,,,,,,,,,,,,,,,,,,,,,,,,,,,,,,,,,
11656,1650415503.2397869,1650415503.2563539,21.0,0.0,4273.333496,4767.179688,4334.871582,4303.077147999999,3608.718018,0.0,3.0,68.0,,,,0.0,4.0,1.0,0.0,0.0,4.0,8.333333,,,,,,,,,,,,,,,,,,,,,,,,,,,,,,,,,,,,,,,,,,,,,,,,,,,,,,0.0,0.0,32.0,0.541331,1.0,0.0,,,,,,,,,,,,,,,,,,,,,,,,,
11657,1650415503.247602,1650415503.264068,22.0,0.0,4249.230957,4804.615234000001,4318.974121,4303.589844,3582.0512700000004,0.0,3.0,68.0,,,,0.0,4.0,1.0,0.0,0.0,4.0,8.333333,,,,,,,,11.0,0.0,0.064914,-0.5717770000000001,0.34668000000000004,0.7407229999999999,0.8955209999999999,-0.438483,-0.105959,-0.046375,-0.055001999999999995,-0.015281,,,,,,,,,,,,,,,,,,,,,,,,,,,,,,,,,,,,,,,,,,,,,,,,,,,,,,,,,,,,,,,,,
11658,1650415503.255417,1650415503.271883,23.0,0.0,4228.717772999999,4807.692383,4321.538574,4303.077147999999,3588.205078,0.0,3.0,68.0,,,,0.0,4.0,1.0,0.0,0.0,4.0,8.333333,,,,,,,,,,,,,,,,,,,,,,,,,,,,,,,,,,,,,,,,,,,,,,,,,,,,,,,,,,,,,,,,,,,,,,,,,,,,,,,,,,,,
11659,1650415503.263231,1650415503.279598,24.0,0.0,4228.205078,4789.743652,4314.358886999999,4303.077147999999,3589.743652,0.0,3.0,68.0,,,,0.0,4.0,1.0,0.0,0.0,4.0,8.333333,,,,,,,,12.0,0.0,0.062726,-0.572021,0.34668000000000004,0.7407229999999999,0.9150530000000001,-0.440436,-0.109377,-0.046376,-0.055019000000000005,-0.013704,,,,,,,,,,,,,,,,,,,,,,,,,,,,,,,,,,,,,,,,,,,,,,,,,,,,,,,,,,,,,,,,,
11660,1650415503.2710462,1650415503.287412,25.0,0.0,4255.897461,4835.897461,4295.384765999999,4302.563965,3592.820557,0.0,3.0,68.0,,,,0.0,4.0,1.0,0.0,0.0,4.0,8.333333,,,,,,,,,,,,,,,,,,,,1.0,0.0,0.0,,,,,,,,,,,,,,,,,,,,,,,,,,,,,,,,0.0,0.0,1.0,0.0,128.0,1.0,20.5704,8.114939999999999,9.465359,8.259784,17.605204,1548.951294,112.221718,106.84946399999998,51.641861,12.075531,60.0755,36.013397,69.996841,20.430447,11.754468,23.263557000000002,18.242115,34.436611,23.894554,14.664708,2237.700684,179.753876,18.363861,6.935611,9.813244000000001
11661,1650415503.2788599,1650415503.295127,26.0,0.0,4267.692383,4893.846191,4309.230957,4302.563965,3589.743652,0.0,3.0,68.0,,,,0.0,4.0,1.0,0.0,0.0,4.0,8.333333,,,,,,,,13.0,0.0,0.062726,-0.572021,0.34668000000000004,0.7407229999999999,0.901869,-0.42822899999999997,-0.10009900000000001,-0.046377,-0.054938,-0.015459,,,,,,,,,,,,,,,,,,,,,,,,,,,,,,,,,,,,,,,,,,,,,,,,,,,,,,,,,,,,,,,,,
11662,1650415503.286675,1650415503.302942,27.0,0.0,4252.820313,4906.153809,4340.512695,4302.563965,3564.615479,0.0,3.0,68.0,,,,0.0,4.0,1.0,0.0,0.0,4.0,8.333333,,,,,,,,,,,,,,,,,,,,,,,,,,,,,,,,,,,,,,,,,,,,,,,,,,,,,,,,,,,,,,,,,,,,,,,,,,,,,,,,,,,,
11663,1650415503.2944891,1650415503.310657,28.0,0.0,4232.820313,4913.846191,4331.282227000001,4302.563965,3566.6667479999996,0.0,3.0,68.0,,,,0.0,4.0,1.0,0.0,0.0,4.0,8.333333,,,,,,,,14.0,0.0,0.062726,-0.572021,0.34668000000000004,0.7407229999999999,0.8994280000000001,-0.442878,-0.113283,-0.046329,-0.054961,-0.010787999999999999,,,,,,,,,,,,,,,,,,,,,,,,,,,,,,,,,,,,,,,,,,,,,,,,,,,,,,,,,,,,,,,,,
11664,1650415503.3023038,1650415503.3184712,29.0,0.0,4211.282227000001,4905.641113000001,4309.743652,4302.563965,3574.8718259999996,0.0,3.0,68.0,,,,0.0,4.0,1.0,0.0,0.0,4.0,8.333333,,,,,,,,,,,,,,,,,,,,,,,,,,,,,,,,,,,,,,,,,,,,,,,,,,,,,,0.0,0.0,1.0,0.0,128.0,1.0,,,,,,,,,,,,,,,,,,,,,,,,,
11665,1650415503.310118,1650415503.326186,30.0,0.0,4216.922852000001,4861.025879,4310.256348,4302.05127,3554.8718259999996,0.0,3.0,68.0,,,,0.0,4.0,1.0,0.0,0.0,4.0,8.333333,,,,,,,,15.0,0.0,0.065545,-0.572021,0.34668000000000004,0.740479,0.9150530000000001,-0.430671,-0.105959,-0.046383999999999995,-0.054983000000000004,-0.012737,,,,,,,,,,,,,,,,,,,,,,,,,,,,,,,,,,,,,,,,,,,,,,,,,,,,,,,,,,,,,,,,,
11666,1650415503.317933,1650415503.334001,31.0,0.0,4251.794922,4829.743652,4311.282227000001,4302.563965,3565.1281740000004,0.0,3.0,68.0,,,,0.0,4.0,1.0,0.0,0.0,4.0,8.333333,,,,,,,,,,,,,,,,,,,,,,,,,,,,,,,,,,,,,,,,,,,,,,,,,,,,,,,,,,,,,,,,,,,,,,,,,,,,,,,,,,,,
11667,1650415503.325747,1650415503.341715,32.0,0.0,4256.922852000001,4784.615234000001,4287.692383,4302.563965,3593.3332520000004,0.0,3.0,68.0,,,,0.0,4.0,1.0,0.0,0.0,4.0,8.333333,,,,,,,,16.0,0.0,0.066824,-0.572021,0.346436,0.740479,0.906264,-0.43213500000000005,-0.109377,-0.046432999999999995,-0.055050999999999996,-0.014490000000000001,,,,,,,,,,,,,,,,,,,,,,,,,,,,,,,,,,,,,,,,,,,,,,,,,,,,,,,,,,,,,,,,,
11668,1650415503.333562,1650415503.34953,33.0,0.0,4217.94873,4755.897461,4291.794922,4302.563965,3580.512939,0.0,3.0,68.0,,,,0.0,4.0,1.0,0.0,0.0,4.0,8.333333,,,,,,,,,,,,,,,,,,,,,,,,,,,,,,,,,,,,,,,,,,,,,,,,,,,,,,0.0,0.0,1.0,0.0,128.0,1.0,,,,,,,,,,,,,,,,,,,,,,,,,
11669,1650415503.341376,1650415503.357245,34.0,0.0,4238.461426,4793.333496,4322.563965,4303.077147999999,3575.384521,0.0,3.0,68.0,,,,0.0,4.0,1.0,0.0,0.0,4.0,8.333333,,,,,,,,17.0,0.0,0.063378,-0.5722659999999999,0.34668000000000004,0.740479,0.9184709999999999,-0.435065,-0.107424,-0.046575,-0.055064,-0.009916,,,,,,,,,,,,,,,,,,,,,,,,,,,,,,,,,,,,,,,,,,,,,,,,,,,,,,,,,,,,,,,,,
11670,1650415503.349191,1650415503.365059,35.0,0.0,4306.153809,4819.487305,4328.717772999999,4303.589844,3598.974365,0.0,3.0,68.0,,,,0.0,4.0,1.0,0.0,0.0,4.0,8.333333,,,,,,,,,,,,,,,,,,,,,,,,,,,,,,,,,,,,,,,,,,,,,,,,,,,,,,,,,,,,,,,,,,,,,,,,,,,,,,,,,,,,
11671,1650415503.3570051,1650415503.3727741,36.0,0.0,4293.846191,4788.205078,4325.128418,4304.102539,3591.794922,0.0,3.0,68.0,,,,0.0,4.0,1.0,0.0,0.0,4.0,8.333333,,,,,,,,18.0,0.0,0.063378,-0.5722659999999999,0.34668000000000004,0.740479,0.9126120000000001,-0.43653000000000003,-0.10693499999999999,-0.046508,-0.055124,-0.012001000000000001,,,,,,,,,,,,,,,,,,,,,,,,,,,,,,,,,,,,,,,,,,,,,,,,,,,,,,,,,,,,,,,,,
11672,1650415503.36482,1650415503.380589,37.0,0.0,4245.641113000001,4743.589844,4332.307617,4302.05127,3583.076904,0.0,3.0,68.0,,,,0.0,4.0,1.0,0.0,0.0,4.0,8.333333,,,,,,,,,,,,,,,,,,,,,,,,,,,,,,,,,,,,,,,,,,,,,,,,,,,,,,0.0,0.0,1.0,0.0,128.0,1.0,,,,,,,,,,,,,,,,,,,,,,,,,
11673,1650415503.372635,1650415503.388304,38.0,0.0,4273.333496,4744.102539,4345.641113000001,4300.0,3592.3076170000004,0.0,3.0,68.0,,,,0.0,4.0,1.0,0.0,0.0,4.0,8.333333,,,,,,,,19.0,0.0,0.063378,-0.5722659999999999,0.34668000000000004,0.740479,0.9087049999999999,-0.42676400000000003,-0.104494,-0.046495999999999996,-0.055178,-0.013731,,,,,,,,,,,,,,,,,,,,,,,,,,,,,,,,,,,,,,,,,,,,,,,,,,,,,,,,,,,,,,,,,
11674,1650415503.380449,1650415503.396118,39.0,0.0,4301.025879,4783.077147999999,4342.05127,4299.487305,3590.7692869999996,0.0,3.0,68.0,,,,0.0,4.0,1.0,0.0,0.0,4.0,8.333333,,,,,,,,,,,,,,,,,,,,,,,,,,,,,,,,,,,,,,,,,,,,,,,,,,,,,,,,,,,,,,,,,,,,,,,,,,,,,,,,,,,,
11675,1650415503.3882642,1650415503.403833,40.0,0.0,4270.256348,4762.563965,4329.743652,4294.358886999999,3602.0512700000004,0.0,3.0,68.0,,,,0.0,4.0,1.0,0.0,0.0,4.0,8.333333,,,,,,,,20.0,0.0,0.063378,-0.5722659999999999,0.34668000000000004,0.740479,0.8994280000000001,-0.42969399999999996,-0.09668099999999999,-0.046485000000000005,-0.055178,-0.01226,,,,,,,,,,,,,,,,,,,,,,,,,,,,,,,,,,,,,,,,,,,,,,,,,,,,,,,,,,,,,,,,,
11676,1650415503.3960779,1650415503.4115481,41.0,0.0,4271.282227000001,4680.0,4327.692383,4293.846191,3619.487061,0.0,3.0,68.0,,,,0.0,4.0,1.0,0.0,0.0,4.0,8.333333,,,,,,,,,,,,,,,,,,,,1.0,0.0,0.0,,,,,,,,,,,,,,,,,,,,,,,,,,,,,,,,0.0,0.0,1.0,0.0,512.0,1.0,16.702314,8.007629,8.18191,7.10244,15.157639999999999,1221.917358,99.876968,101.436142,45.949135,12.340273,41.154816,28.81349,55.504429,16.426416,10.014516,19.752861,14.081628,30.35693,20.075584,12.192537,1631.341309,134.05748,14.867837,6.8042240000000005,9.338432000000001
11677,1650415503.403893,1650415503.4193618,42.0,0.0,4284.615234000001,4666.153809,4306.666504,4295.384765999999,3610.7692869999996,0.0,3.0,68.0,,,,0.0,4.0,1.0,0.0,0.0,4.0,8.333333,,,,,,,,21.0,0.0,0.065545,-0.572021,0.34668000000000004,0.740479,0.9038219999999999,-0.43799499999999997,-0.11133,-0.046573,-0.055178,-0.014159,,,,,,,,,,,,,,,,,,,,,,,,,,,,,,,,,,,,,,,,,,,,,,,,,,,,,,,,,,,,,,,,,
11678,1650415503.411707,1650415503.427077,43.0,0.0,4268.717772999999,4710.769043,4323.077147999999,4293.333496,3592.3076170000004,0.0,3.0,68.0,,,,0.0,4.0,1.0,0.0,0.0,4.0,8.333333,,,,,,,,,,,,,,,,,,,,,,,,,,,,,,,,,,,,,,,,,,,,,,,,,,,,,,,,,,,,,,,,,,,,,,,,,,,,,,,,,,,,
11679,1650415503.419522,1650415503.434892,44.0,0.0,4283.589844,4720.512695,4366.153809,4296.922852000001,3596.923096,0.0,3.0,68.0,,,,0.0,4.0,1.0,0.0,0.0,4.0,8.333333,,,,,,,,22.0,0.0,0.06424099999999999,-0.572021,0.34692399999999995,0.740479,0.9091940000000001,-0.43408900000000006,-0.093751,-0.046603,-0.055226,-0.012548,,,,,,,,,,,,,,,,,,,,,,,,,,,,,,,,,,,,,,,,,,,,,,,,,,,,,,,,,,,,,,,,,
11680,1650415503.427336,1650415503.442606,45.0,0.0,4311.794922,4747.179688,4354.871582,4303.077147999999,3622.5642090000006,0.0,3.0,68.0,,,,0.0,4.0,1.0,0.0,0.0,4.0,8.333333,,,,,,,,,,,,,,,,,,,,,,,,,,,,,,,,,,,,,,,,,,,,,,,,,,,,,,0.0,0.0,1.0,0.0,512.0,1.0,,,,,,,,,,,,,,,,,,,,,,,,,
11681,1650415503.4351509,1650415503.450421,46.0,0.0,4291.282227000001,4769.743652,4310.769043,4298.461426,3636.923096,0.0,3.0,68.0,,,,0.0,4.0,1.0,0.0,0.0,4.0,8.333333,,,,,,,,23.0,0.0,0.065545,-0.572021,0.34668000000000004,0.740479,0.906752,-0.43653000000000003,-0.114748,-0.046581,-0.055075,-0.014418,,,,,,,,,,,,,,,,,,,,,,,,,,,,,,,,,,,,,,,,,,,,,,,,,,,,,,,,,,,,,,,,,
11682,1650415503.442965,1650415503.4581358,47.0,0.0,4272.820313,4765.128418,4327.692383,4294.358886999999,3635.384521,0.0,3.0,68.0,,,,0.0,4.0,1.0,0.0,0.0,4.0,8.333333,,,,,,,,,,,,,,,,,,,,,,,,,,,,,,,,,,,,,,,,,,,,,,,,,,,,,,,,,,,,,,,,,,,,,,,,,,,,,,,,,,,,
11683,1650415503.4507802,1650415503.465951,48.0,0.0,4296.410156,4789.743652,4356.410156,4299.487305,3632.3076170000004,0.0,3.0,68.0,,,,0.0,4.0,1.0,0.0,0.0,4.0,8.333333,,,,,,,,24.0,0.0,0.065545,-0.572021,0.34668000000000004,0.740479,0.909682,-0.446784,-0.125002,-0.046562,-0.055036,-0.01615,,,,,,,,,,,,,,,,,,,,,,,,,,,,,,,,,,,,,,,,,,,,,,,,,,,,,,,,,,,,,,,,,
11684,1650415503.4585938,1650415503.473665,49.0,0.0,4298.974121,4780.512695,4329.230957,4296.410156,3630.256348,0.0,3.0,68.0,,,,0.0,4.0,1.0,0.0,0.0,4.0,8.333333,,,,,,,,,,,,,,,,,,,,,,,,,,,,,,,,,,,,,,,,,,,,,,,,,,,,,,0.0,0.0,1.0,0.0,512.0,1.0,,,,,,,,,,,,,,,,,,,,,,,,,
11685,1650415503.466409,1650415503.4814801,50.0,0.0,4278.461426,4704.615234000001,4317.436035,4292.307617,3620.512939,0.0,3.0,68.0,,,,0.0,4.0,1.0,0.0,0.0,4.0,8.333333,,,,,,,,25.0,0.0,0.065545,-0.572021,0.34668000000000004,0.740479,0.9077290000000001,-0.455085,-0.106447,-0.046544999999999996,-0.055099,-0.014486,,,,,,,,,,,,,,,,,,,,,,,,,,,,,,,,,,,,,,,,,,,,,,,,,,,,,,,,,,,,,,,,,
11686,1650415503.474224,1650415503.4891949,51.0,0.0,4256.410156,4687.692383,4338.461426,4296.922852000001,3615.897461,0.0,3.0,68.0,,,,0.0,4.0,1.0,0.0,0.0,4.0,8.333333,,,,,,,,,,,,,,,,,,,,,,,,,,,,,,,,,,,,,,,,,,,,,,,,,,,,,,,,,,,,,,,,,,,,,,,,,,,,,,,,,,,,
11687,1650415503.482038,1650415503.497009,52.0,0.0,4253.846191,4709.230957,4343.589844,4297.94873,3615.897461,0.0,3.0,68.0,,,,0.0,4.0,1.0,0.0,0.0,4.0,8.333333,,,,,,,,26.0,0.0,0.065545,-0.572021,0.34668000000000004,0.740479,0.906752,-0.43653000000000003,-0.114748,-0.046529,-0.055156,-0.012988999999999999,,,,,,,,,,,,,,,,,,,,,,,,,,,,,,,,,,,,,,,,,,,,,,,,,,,,,,,,,,,,,,,,,
11688,1650415503.489853,1650415503.504724,53.0,0.0,4266.153809,4702.05127,4322.05127,4295.384765999999,3612.3076170000004,0.0,3.0,68.0,,,,0.0,4.0,1.0,0.0,0.0,4.0,8.333333,,,,,,,,,,,,,,,,,,,,,,,,,,,,,,,,,,,,,,,,,,,,,,,,,,,,,,0.0,0.0,1.0,0.0,512.0,1.0,,,,,,,,,,,,,,,,,,,,,,,,,
11689,1650415503.497667,1650415503.5125391,54.0,0.0,4269.743652,4709.230957,4340.512695,4294.358886999999,3626.6667479999996,0.0,3.0,68.0,,,,0.0,4.0,1.0,0.0,0.0,4.0,8.333333,,,,,,,,27.0,0.0,0.065545,-0.572021,0.34668000000000004,0.740479,0.9077290000000001,-0.455085,-0.106447,-0.046515,-0.055207000000000006,-0.011641,,,,,,,,,,,,,,,,,,,,,,,,,,,,,,,,,,,,,,,,,,,,,,,,,,,,,,,,,,,,,,,,,
11690,1650415503.505482,1650415503.520253,55.0,0.0,4305.641113000001,4713.846191,4355.897461,4296.410156,3652.820557,0.0,3.0,68.0,,,,0.0,4.0,1.0,0.0,0.0,4.0,8.333333,,,,,,,,,,,,,,,,,,,,,,,,,,,,,,,,,,,,,,,,,,,,,,,,,,,,,,,,,,,,,,,,,,,,,,,,,,,,,,,,,,,,
11691,1650415503.5132961,1650415503.528068,56.0,0.0,4350.769043,4707.692383,4288.717772999999,4298.461426,3676.4101560000004,0.0,3.0,68.0,,,,0.0,4.0,1.0,0.0,0.0,4.0,8.333333,,,,,,,,28.0,0.0,0.06424099999999999,-0.572021,0.34692399999999995,0.740479,0.895033,-0.43653000000000003,-0.097169,-0.046452999999999994,-0.055300999999999996,-0.013503999999999999,,,,,,,,,,,,,,,,,,,,,,,,,,,,,,,,,,,,,,,,,,,,,,,,,,,,,,,,,,,,,,,,,
11692,1650415503.521111,1650415503.535783,57.0,0.0,4349.230957,4752.820313,4276.410156,4299.487305,3683.076904,0.0,3.0,68.0,,,,0.0,4.0,1.0,0.0,0.0,4.0,8.333333,,,,,,,,,,,,,,,,,,,,1.0,0.0,0.0,,,,,,,,,,,,,,,,,,,,,,,,,,,,,,,,0.0,0.0,1.0,0.0,512.0,1.0,12.656145,7.107441000000001,6.38237,5.72971,11.862016,831.753784,82.34764100000001,91.477676,38.441227000000005,12.311017,24.414896,19.83231,37.512943,11.661011,7.819066,14.955079999999999,9.378861,23.363892,14.738809,8.822532,993.741699,86.546616,11.137561,6.156966000000001,8.280548
11693,1650415503.528925,1650415503.543498,58.0,0.0,4340.512695,4802.05127,4344.102539,4298.461426,3669.743652,0.0,3.0,68.0,,,,0.0,4.0,1.0,0.0,0.0,4.0,8.333333,,,,,,,,29.0,0.0,0.066995,-0.572021,0.34692399999999995,0.7402340000000001,0.906752,-0.437507,-0.10351700000000001,-0.046447,-0.055289,-0.012105,,,,,,,,,,,,,,,,,,,,,,,,,,,,,,,,,,,,,,,,,,,,,,,,,,,,,,,,,,,,,,,,,
11694,1650415503.53674,1650415503.551312,59.0,0.0,4352.307617,4753.333496,4346.666504,4296.410156,3661.538574,0.0,3.0,68.0,,,,0.0,4.0,1.0,0.0,0.0,4.0,8.333333,,,,,,,,,,,,,,,,,,,,,,,,,,,,,,,,,,,,,,,,,,,,,,,,,,,,,,,,,,,,,,,,,,,,,,,,,,,,,,,,,,,,
11695,1650415503.544554,1650415503.559027,60.0,0.0,4323.589844,4664.615234000001,4307.179688,4301.025879,3672.820557,0.0,3.0,68.0,,,,0.0,4.0,1.0,0.0,0.0,4.0,8.333333,,,,,,,,30.0,0.0,0.066995,-0.572021,0.34692399999999995,0.7402340000000001,0.906752,-0.43799499999999997,-0.107424,-0.046392,-0.055375,-0.01402,,,,,,,,,,,,,,,,,,,,,,,,,,,,,,,,,,,,,,,,,,,,,,,,,,,,,,,,,,,,,,,,,
11696,1650415503.5523689,1650415503.566842,61.0,0.0,4291.282227000001,4641.538574,4323.589844,4296.410156,3674.358887,0.0,3.0,68.0,,,,0.0,4.0,1.0,0.0,0.0,4.0,8.333333,,,,,,,,,,,,,,,,,,,,,,,,,,,,,,,,,,,,,,,,,,,,,,,,,,,,,,0.0,0.0,1.0,0.0,512.0,1.0,,,,,,,,,,,,,,,,,,,,,,,,,
11697,1650415503.560183,1650415503.574556,62.0,0.0,4315.384765999999,4700.0,4337.436035,4277.94873,3669.2307130000004,0.0,3.0,68.0,,,,0.0,4.0,1.0,0.0,0.0,4.0,8.333333,,,,,,,,31.0,0.0,0.066995,-0.572021,0.34692399999999995,0.7402340000000001,0.9131,-0.43897200000000003,-0.101076,-0.046439999999999995,-0.055354999999999994,-0.015792,,,,,,,,,,,,,,,,,,,,,,,,,,,,,,,,,,,,,,,,,,,,,,,,,,,,,,,,,,,,,,,,,
11698,1650415503.567998,1650415503.582371,63.0,0.0,4312.820313,4775.384765999999,4344.615234000001,4280.0,3680.0,0.0,3.0,68.0,,,,0.0,4.0,1.0,0.0,0.0,4.0,8.333333,,,,,,,,,,,,,,,,,,,,,,,,,,,,,,,,,,,,,,,,,,,,,,,,,,,,,,,,,,,,,,,,,,,,,,,,,,,,,,,,,,,,
11699,1650415503.5758119,1650415503.590086,64.0,0.0,4298.461426,4783.589844,4346.666504,4298.461426,3673.8461909999996,450.0,3.0,68.0,,,,0.0,4.0,1.0,0.0,0.0,4.0,8.333333,,,,,,,,32.0,0.0,0.066995,-0.572021,0.34692399999999995,0.7402340000000001,0.91017,-0.440436,-0.106447,-0.046386000000000004,-0.055435000000000005,-0.014115,,,,,,,,,,,,,,,,,,,,,,,,,,,,,,,,,,,,,,,,,,,,,,,,,,,,,,,,,,,,,,,,,
11700,1650415503.583627,1650415503.5979,65.0,0.0,4303.077147999999,4758.461426,4313.333496,4300.0,3658.974365,450.0,3.0,68.0,,,,0.0,4.0,1.0,0.0,0.0,4.0,8.333333,,,,,,,,,,,,,,,,,,,,,,,,,,,,,,,,,,,,,,,,,,,,,,,,,,,,,,0.0,0.0,1.0,0.0,512.0,1.0,,,,,,,,,,,,,,,,,,,,,,,,,
11701,1650415503.591442,1650415503.605715,66.0,0.0,4295.384765999999,4740.0,4293.333496,4293.333496,3663.076904,16217.0,3.0,68.0,,,,0.0,4.0,1.0,0.0,0.0,4.0,8.333333,,,,,,,,33.0,0.0,0.066995,-0.572021,0.34692399999999995,0.7402340000000001,0.903334,-0.435065,-0.11133,-0.046386000000000004,-0.05536,-0.018905,,,,,,,,,,,,,,,,,,,,,,,,,,,,,,,,,,,,,,,,,,,,,,,,,,,,,,,,,,,,,,,,,
11702,1650415503.599256,1650415503.61343,67.0,0.0,4285.128418,4754.871582,4306.666504,4295.384765999999,3682.0512700000004,450.0,3.0,68.0,,,,0.0,4.0,1.0,0.0,0.0,4.0,8.333333,,,,,,,,,,,,,,,,,,,,,,,,,,,,,,,,,,,,,,,,,,,,,,,,,,,,,,,,,,,,,,,,,,,,,,,,,,,,,,,,,,,,
11703,1650415503.6070712,1650415503.621244,68.0,0.0,4316.922852000001,4772.307617,4314.871582,4296.922852000001,3684.615479,161.0,3.0,68.0,,,,0.0,4.0,1.0,0.0,0.0,4.0,8.333333,,,,,,,,34.0,0.0,0.066995,-0.572021,0.34692399999999995,0.7402340000000001,0.8999159999999999,-0.447272,-0.103029,-0.046435000000000004,-0.05524400000000001,-0.020041,,,,,,,,,,,,,,,,,,,,,,,,,,,,,,,,,,,,,,,,,,,,,,,,,,,,,,,,,,,,,,,,,
11704,1650415503.6148849,1650415503.628959,69.0,0.0,4345.641113000001,4757.94873,4302.05127,4296.410156,3674.8718259999996,450.0,3.0,68.0,,,,0.0,4.0,1.0,1.0,0.0,4.0,16.666666,,,,,,,,,,,,,,,,,,,,,,,,,,,,,,,,,,,,,,,,,,,,,,,,,,,,,,0.0,0.0,1.0,0.0,512.0,1.0,,,,,,,,,,,,,,,,,,,,,,,,,
11705,1650415503.6227,1650415503.636774,70.0,0.0,4325.641113000001,4748.205078,4333.333496,4296.922852000001,3694.358887,58.0,3.0,68.0,,,,0.0,4.0,1.0,1.0,0.0,4.0,16.666666,,,,,,,,35.0,0.0,0.066995,-0.572021,0.34692399999999995,0.7402340000000001,0.901869,-0.435065,-0.113771,-0.04643,-0.055189,-0.017988,,,,,,,,,,,,,,,,,,,,,,,,,,,,,,,,,,,,,,,,,,,,,,,,,,,,,,,,,,,,,,,,,
11706,1650415503.6305141,1650415503.644489,71.0,0.0,4328.717772999999,4760.0,4357.436035,4296.410156,3722.5642090000006,450.0,3.0,68.0,,,,0.0,4.0,1.0,1.0,0.0,4.0,16.666666,,,,,,,,,,,,,,,,,,,,,,,,,,,,,,,,,,,,,,,,,,,,,,,,,,,,,,,,,,,,,,,,,,,,,,,,,,,,,,,,,,,,
11707,1650415503.6383288,1650415503.652303,72.0,0.0,4336.922852000001,4744.615234000001,4319.487305,4296.410156,3730.256348,450.0,3.0,68.0,,,,0.0,4.0,1.0,1.0,0.0,4.0,16.666666,,,,,,,,36.0,0.0,0.066339,-0.5722659999999999,0.347168,0.7399899999999999,0.9126120000000001,-0.42969399999999996,-0.101564,-0.046426,-0.055139,-0.019266,,,,,,,,,,,,,,,,,,,,,,,,,,,,,,,,,,,,,,,,,,,,,,,,,,,,,,,,,,,,,,,,,
11708,1650415503.646143,1650415503.660018,73.0,0.0,4322.05127,4664.615234000001,4295.897461,4294.871582,3710.256348,0.0,3.0,68.0,,,,0.0,4.0,1.0,1.0,0.0,4.0,16.666666,1.0,0.0,2.0,0.0,0.0,0.0,0.0,,,,,,,,,,,,,1.0,0.0,0.0,,,,,,,,,,,,,,,,,,,,,,,,,,,,,,,,0.0,0.0,1.0,0.0,512.0,1.0,9.358889,5.707174,4.502019000000001,4.497612,8.597642,476.670898,64.889198,80.682716,30.907207,11.99484,13.299829,11.553446000000001,21.270004,7.403845,5.7395510000000005,10.105405000000001,5.351443,15.50561,9.364266,5.509598,497.36206100000004,48.198291999999995,7.754724,5.110124,6.896094000000001
11709,1650415503.653958,1650415503.667733,74.0,0.0,4326.666504,4648.717772999999,4299.487305,4294.871582,3721.025635,450.0,3.0,68.0,,,,0.0,4.0,1.0,1.0,0.0,4.0,16.666666,,,,,,,,37.0,0.0,0.066339,-0.5722659999999999,0.347168,0.7399899999999999,0.910658,-0.435554,-0.107912,-0.046373000000000004,-0.055191,-0.017193,,,,,,,,,,,,,,,,,,,,,,,,,,,,,,,,,,,,,,,,,,,,,,,,,,,,,,,,,,,,,,,,,
11710,1650415503.661772,1650415503.6755471,75.0,0.0,4347.692383,4748.717772999999,4293.333496,4297.436035,3770.7692869999996,16183.0,3.0,68.0,,,,0.0,4.0,1.0,1.0,0.0,4.0,16.666666,,,,,,,,,,,,,,,,,,,,,,,,,,,,,,,,,,,,,,,,,,,,,,,,,,,,,,,,,,,,,,,,,,,,,,,,,,,,,,,,,,,,
11711,1650415503.669587,1650415503.6832619,76.0,0.0,4334.871582,4800.512695,4297.94873,4296.922852000001,3765.641113,450.0,3.0,68.0,,,,0.0,4.0,1.0,1.0,0.0,4.0,16.666666,,,,,,,,38.0,0.0,0.064198,-0.5725100000000001,0.347168,0.7399899999999999,0.9077290000000001,-0.440925,-0.109865,-0.046375,-0.055140999999999996,-0.01855,,,,,,,,,,,,,,,,,,,,,,,,,,,,,,,,,,,,,,,,,,,,,,,,,,,,,,,,,,,,,,,,,
11712,1650415503.677401,1650415503.6909769,77.0,0.0,4304.615234000001,4715.897461,4333.846191,4294.871582,3704.102539,450.0,3.0,68.0,,,,0.0,4.0,1.0,1.0,0.0,4.0,16.666666,,,,,,,,,,,,,,,,,,,,,,,,,,,,,,,,,,,,,,,,,,,,,,,,,,,,,,0.0,0.0,1.0,0.0,512.0,1.0,,,,,,,,,,,,,,,,,,,,,,,,,
11713,1650415503.685216,1650415503.698792,78.0,0.0,4311.282227000001,4645.128418,4334.358886999999,4296.922852000001,3703.076904,450.0,3.0,68.0,,,,0.0,4.0,1.0,1.0,0.0,4.0,16.666666,,,,,,,,39.0,0.0,0.064198,-0.5725100000000001,0.347168,0.7399899999999999,0.910658,-0.435554,-0.102052,-0.046376,-0.055145000000000007,-0.013569999999999999,,,,,,,,,,,,,,,,,,,,,,,,,,,,,,,,,,,,,,,,,,,,,,,,,,,,,,,,,,,,,,,,,
11714,1650415503.69303,1650415503.7066061,79.0,0.0,4335.897461,4669.230957,4340.512695,4297.436035,3768.718018,16183.0,3.0,68.0,,,,0.0,4.0,1.0,1.0,0.0,4.0,16.666666,,,,,,,,,,,,,,,,,,,,,,,,,,,,,,,,,,,,,,,,,,,,,,,,,,,,,,,,,,,,,,,,,,,,,,,,,,,,,,,,,,,,
11715,1650415503.700845,1650415503.7143211,80.0,0.0,4358.974121,4676.410156,4337.436035,4296.410156,3758.974365,450.0,3.0,68.0,,,,0.0,4.0,1.0,1.0,0.0,4.0,16.666666,,,,,,,,40.0,0.0,0.064198,-0.5725100000000001,0.347168,0.7399899999999999,0.8964979999999999,-0.42822899999999997,-0.104005,-0.046426,-0.05505,-0.012115,,,,,,,,,,,,,,,,,,,,,,,,,,,,,,,,,,,,,,,,,,,,,,,,,,,,,,,,,,,,,,,,,
11716,1650415503.70866,1650415503.722136,81.0,0.0,4320.512695,4671.282227000001,4290.256348,4295.384765999999,3713.8461909999996,450.0,3.0,68.0,,,,0.0,4.0,1.0,1.0,0.0,4.0,16.666666,,,,,,,,,,,,,,,,,,,,,,,,,,,,,,,,,,,,,,,,,,,,,,,,,,,,,,0.0,0.0,1.0,0.0,512.0,1.0,,,,,,,,,,,,,,,,,,,,,,,,,
11717,1650415503.716474,1650415503.72985,82.0,0.0,4285.128418,4683.589844,4310.256348,4297.436035,3716.4101560000004,450.0,3.0,68.0,,,,0.0,4.0,1.0,1.0,0.0,4.0,16.666666,,,,,,,,41.0,0.0,0.068207,-0.5725100000000001,0.34692399999999995,0.739746,0.9087049999999999,-0.435065,-0.10351700000000001,-0.046471,-0.05516,-0.010855,,,,,,,,,,,,,,,,,,,,,,,,,,,,,,,,,,,,,,,,,,,,,,,,,,,,,,,,,,,,,,,,,
11718,1650415503.7242892,1650415503.737665,83.0,0.0,4333.333496,4717.436035,4331.282227000001,4302.05127,3734.358887,16183.0,3.0,68.0,,,,0.0,4.0,1.0,1.0,0.0,4.0,16.666666,,,,,,,,,,,,,,,,,,,,,,,,,,,,,,,,,,,,,,,,,,,,,,,,,,,,,,,,,,,,,,,,,,,,,,,,,,,,,,,,,,,,
11719,1650415503.7321029,1650415503.7453802,84.0,0.0,4366.153809,4767.179688,4304.615234000001,4302.563965,3765.1281740000004,450.0,3.0,68.0,,,,0.0,4.0,1.0,1.0,0.0,4.0,16.666666,,,,,,,,42.0,0.0,0.066125,-0.572754,0.34692399999999995,0.739746,0.9087049999999999,-0.440436,-0.098634,-0.046511000000000004,-0.055162,-0.012844999999999999,,,,,,,,,,,,,,,,,,,,,,,,,,,,,,,,,,,,,,,,,,,,,,,,,,,,,,,,,,,,,,,,,
11720,1650415503.739918,1650415503.7531939,85.0,0.0,4359.487305,4705.128418,4309.743652,4298.461426,3773.8461909999996,450.0,3.0,68.0,,,,0.0,4.0,1.0,1.0,0.0,4.0,16.666666,,,,,,,,,,,,,,,,,,,,,,,,,,,,,,,,,,,,,,,,,,,,,,,,,,,,,,0.0,0.0,1.0,0.0,512.0,1.0,,,,,,,,,,,,,,,,,,,,,,,,,
11721,1650415503.747732,1650415503.760909,86.0,0.0,4357.436035,4608.717772999999,4317.94873,4297.436035,3762.5642090000006,450.0,3.0,68.0,,,,0.0,4.0,1.0,1.0,0.0,4.0,16.666666,,,,,,,,43.0,0.0,0.066125,-0.572754,0.34692399999999995,0.739746,0.9028459999999999,-0.45020200000000005,-0.09765800000000001,-0.046499,-0.055016999999999996,-0.014588,,,,,,,,,,,,,,,,,,,,,,,,,,,,,,,,,,,,,,,,,,,,,,,,,,,,,,,,,,,,,,,,,
11722,1650415503.755547,1650415503.768624,87.0,0.0,4349.743652,4633.333496,4323.077147999999,4297.436035,3772.820557,16183.0,3.0,68.0,,,,0.0,4.0,1.0,1.0,0.0,4.0,16.666666,,,,,,,,,,,,,,,,,,,,,,,,,,,,,,,,,,,,,,,,,,,,,,,,,,,,,,,,,,,,,,,,,,,,,,,,,,,,,,,,,,,,
11723,1650415503.763361,1650415503.776439,88.0,0.0,4332.820313,4645.128418,4332.307617,4296.922852000001,3760.512939,450.0,3.0,68.0,,,,0.0,4.0,1.0,1.0,0.0,4.0,16.666666,,,,,,,,44.0,0.0,0.066125,-0.572754,0.34692399999999995,0.739746,0.9038219999999999,-0.440925,-0.10547000000000001,-0.046488,-0.055033000000000006,-0.016156999999999998,,,,,,,,,,,,,,,,,,,,,,,,,,,,,,,,,,,,,,,,,,,,,,,,,,,,,,,,,,,,,,,,,
11724,1650415503.7711759,1650415503.784253,89.0,0.0,4329.743652,4610.256348,4315.897461,4297.436035,3729.743652,450.0,3.0,68.0,,,,0.0,4.0,1.0,1.0,0.0,4.0,16.666666,,,,,,,,,,,,,,,,,,,,1.0,0.0,0.0,,,,,,,,,,,,,,,,,,,,,,,,,,,,,,,,0.0,0.0,1.0,0.0,1.0,0.0,7.96643,4.338202,3.026846,3.605125,6.013273000000001,237.94317599999997,51.594803000000006,71.511375,24.686113,11.492543,8.180729,5.656738,10.146118,4.422062,4.1806790000000005,6.138336,2.703221,8.721608,5.102357,2.96198,194.74205,23.651632,5.03918,3.9078910000000002,5.491549
11725,1650415503.77899,1650415503.7919679,90.0,0.0,4337.94873,4647.179688,4302.563965,4294.871582,3765.641113,450.0,3.0,68.0,,,,0.0,4.0,1.0,1.0,0.0,4.0,16.666666,,,,,,,,45.0,0.0,0.066125,-0.572754,0.34692399999999995,0.739746,0.897963,-0.44483100000000003,-0.107912,-0.046478,-0.05495,-0.014444,,,,,,,,,,,,,,,,,,,,,,,,,,,,,,,,,,,,,,,,,,,,,,,,,,,,,,,,,,,,,,,,,
11726,1650415503.7868052,1650415503.799683,91.0,0.0,4341.538574,4657.94873,4327.179688,4291.282227000001,3807.179443,16183.0,3.0,68.0,,,,0.0,4.0,1.0,1.0,0.0,4.0,16.666666,,,,,,,,,,,,,,,,,,,,,,,,,,,,,,,,,,,,,,,,,,,,,,,,,,,,,,,,,,,,,,,,,,,,,,,,,,,,,,,,,,,,
11727,1650415503.7946188,1650415503.807497,92.0,0.0,4342.05127,4579.487305,4327.179688,4297.94873,3762.0512700000004,450.0,3.0,68.0,,,,0.0,4.0,1.0,1.0,0.0,4.0,16.666666,,,,,,,,46.0,0.0,0.067393,-0.572754,0.34668000000000004,0.739746,0.9116350000000001,-0.42920600000000003,-0.10009900000000001,-0.046518000000000004,-0.054924,-0.016075,,,,,,,,,,,,,,,,,,,,,,,,,,,,,,,,,,,,,,,,,,,,,,,,,,,,,,,,,,,,,,,,,
11728,1650415503.802434,1650415503.815312,93.0,0.0,4326.153809,4551.282227000001,4293.333496,4305.128418,3749.743652,450.0,3.0,68.0,,,,0.0,4.0,1.0,1.0,0.0,4.0,16.666666,,,,,,,,,,,,,,,,,,,,,,,,,,,,,,,,,,,,,,,,,,,,,,,,,,,,,,0.0,0.0,1.0,0.0,1.0,0.0,,,,,,,,,,,,,,,,,,,,,,,,,
11729,1650415503.810249,1650415503.823027,94.0,0.0,4319.487305,4563.077147999999,4304.615234000001,4304.102539,3786.1538090000004,450.0,3.0,68.0,,,,0.0,4.0,1.0,1.0,0.0,4.0,16.666666,,,,,,,,47.0,0.0,0.067393,-0.572754,0.34668000000000004,0.739746,0.9091940000000001,-0.41992799999999997,-0.100587,-0.046651,-0.054851,-0.017544,,,,,,,,,,,,,,,,,,,,,,,,,,,,,,,,,,,,,,,,,,,,,,,,,,,,,,,,,,,,,,,,,
11730,1650415503.818063,1650415503.830741,95.0,0.0,4322.563965,4561.025879,4306.666504,4303.589844,3779.487061,16183.0,3.0,68.0,,,,0.0,4.0,1.0,1.0,0.0,4.0,16.666666,,,,,,,,,,,,,,,,,,,,,,,,,,,,,,,,,,,,,,,,,,,,,,,,,,,,,,,,,,,,,,,,,,,,,,,,,,,,,,,,,,,,
11731,1650415503.825878,1650415503.838556,96.0,0.0,4324.102539,4593.846191,4301.025879,4305.128418,3779.487061,450.0,3.0,68.0,,,,0.0,4.0,1.0,1.0,0.0,4.0,16.666666,,,,,,,,48.0,0.0,0.067393,-0.572754,0.34668000000000004,0.739746,0.909682,-0.431647,-0.087892,-0.046674,-0.054835,-0.018768,,,,,,,,,,,,,,,,,,,,,,,,,,,,,,,,,,,,,,,,,,,,,,,,,,,,,,,,,,,,,,,,,
11732,1650415503.833692,1650415503.846271,97.0,0.0,4349.230957,4649.230957,4326.153809,4302.05127,3776.4101560000004,450.0,3.0,68.0,,,,0.0,4.0,1.0,1.0,0.0,4.0,16.666666,,,,,,,,,,,,,,,,,,,,,,,,,,,,,,,,,,,,,,,,,,,,,,,,,,,,,,0.0,0.0,1.0,0.0,1.0,0.0,,,,,,,,,,,,,,,,,,,,,,,,,
11733,1650415503.841507,1650415503.854085,98.0,0.0,4347.692383,4693.846191,4333.333496,4294.358886999999,3763.076904,450.0,3.0,68.0,,,,0.0,4.0,1.0,1.0,0.0,4.0,16.666666,,,,,,,,49.0,0.0,0.067393,-0.572754,0.34668000000000004,0.739746,0.908217,-0.41944,-0.095216,-0.046694,-0.05486900000000001,-0.020114,,,,,,,,,,,,,,,,,,,,,,,,,,,,,,,,,,,,,,,,,,,,,,,,,,,,,,,,,,,,,,,,,
11734,1650415503.8493211,1650415503.8618,99.0,0.0,4325.128418,4691.794922,4337.94873,4293.333496,3778.461426,16183.0,3.0,68.0,,,,0.0,4.0,1.0,1.0,0.0,4.0,16.666666,,,,,,,,,,,,,,,,,,,,,,,,,,,,,,,,,,,,,,,,,,,,,,,,,,,,,,,,,,,,,,,,,,,,,,,,,,,,,,,,,,,,
11735,1650415503.857136,1650415503.869615,100.0,0.0,4327.179688,4694.871582,4340.512695,4297.436035,3787.6923829999996,450.0,3.0,68.0,,,,0.0,4.0,1.0,1.0,0.0,4.0,16.666666,,,,,,,,50.0,0.0,0.067393,-0.572754,0.34668000000000004,0.739746,0.9052870000000001,-0.42236999999999997,-0.107912,-0.046517,-0.0549,-0.02113,,,,,,,,,,,,,,,,,,,,,,,,,,,,,,,,,,,,,,,,,,,,,,,,,,,,,,,,,,,,,,,,,
11736,1650415503.86495,1650415503.87733,101.0,0.0,4334.358886999999,4741.025879,4339.487305,4300.512695,3777.4357909999994,450.0,3.0,68.0,,,,0.0,4.0,1.0,1.0,0.0,4.0,16.666666,,,,,,,,,,,,,,,,,,,,,,,,,,,,,,,,,,,,,,,,,,,,,,,,,,,,,,0.0,0.0,1.0,0.0,1.0,0.0,,,,,,,,,,,,,,,,,,,,,,,,,
11737,1650415503.872765,1650415503.885144,102.0,0.0,4334.871582,4712.307617,4311.794922,4302.05127,3776.4101560000004,450.0,3.0,68.0,,,,0.0,4.0,1.0,1.0,0.0,4.0,16.666666,,,,,,,,51.0,0.0,0.067393,-0.572754,0.34668000000000004,0.739746,0.9116350000000001,-0.42676400000000003,-0.09472799999999999,-0.046504000000000004,-0.05483,-0.022044,,,,,,,,,,,,,,,,,,,,,,,,,,,,,,,,,,,,,,,,,,,,,,,,,,,,,,,,,,,,,,,,,
11738,1650415503.880579,1650415503.892859,103.0,0.0,4324.102539,4619.487305,4298.461426,4303.077147999999,3801.538574,16183.0,3.0,68.0,,,,0.0,4.0,1.0,1.0,0.0,4.0,16.666666,,,,,,,,,,,,,,,,,,,,,,,,,,,,,,,,,,,,,,,,,,,,,,,,,,,,,,,,,,,,,,,,,,,,,,,,,,,,,,,,,,,,
11739,1650415503.8883939,1650415503.900674,104.0,0.0,4329.230957,4557.436035,4320.512695,4305.128418,3804.102539,450.0,3.0,68.0,,,,0.0,4.0,1.0,1.0,0.0,4.0,16.666666,,,,,,,,52.0,0.0,0.067393,-0.572754,0.34668000000000004,0.739746,0.9038219999999999,-0.435065,-0.107912,-0.04659,-0.054865,-0.022965,,,,,,,,,,,,,,,,,,,,,,,,,,,,,,,,,,,,,,,,,,,,,,,,,,,,,,,,,,,,,,,,,
11740,1650415503.896209,1650415503.9083881,105.0,0.0,4342.05127,4597.94873,4303.589844,4302.05127,3807.179443,450.0,3.0,68.0,,,,0.0,4.0,1.0,1.0,0.0,4.0,16.666666,,,,,,,,,,,,,,,,,,,,1.0,0.0,0.0,,,,,,,,,,,,,,,,,,,,,,,,,,,,,,,,0.0,0.0,1.0,0.0,1.0,0.0,8.18351,3.556947,2.244711,3.069338,4.340527,111.03971100000001,43.432541,64.365273,20.270626,10.920845,6.9693309999999995,2.54005,4.738786,2.780843,3.269786,3.4074839999999997,1.38749,4.101678,2.397916,1.4075870000000001,62.940979000000006,11.233692999999999,3.232014,2.80572,4.300765
11741,1650415503.904023,1650415503.916203,106.0,0.0,4337.94873,4684.615234000001,4310.256348,4293.846191,3825.1281740000004,450.0,3.0,68.0,,,,0.0,4.0,1.0,1.0,0.0,4.0,16.666666,,,,,,,,53.0,0.0,0.067393,-0.572754,0.34668000000000004,0.739746,0.9052870000000001,-0.42236999999999997,-0.107912,-0.046716,-0.054749,-0.020522,,,,,,,,,,,,,,,,,,,,,,,,,,,,,,,,,,,,,,,,,,,,,,,,,,,,,,,,,,,,,,,,,
11742,1650415503.911838,1650415503.923918,107.0,0.0,4350.256348,4657.94873,4325.641113000001,4292.307617,3823.076904,16183.0,3.0,68.0,,,,0.0,4.0,1.0,1.0,0.0,4.0,16.666666,,,,,,,,,,,,,,,,,,,,,,,,,,,,,,,,,,,,,,,,,,,,,,,,,,,,,,,,,,,,,,,,,,,,,,,,,,,,,,,,,,,,
11743,1650415503.919652,1650415503.931732,108.0,0.0,4359.487305,4608.717772999999,4302.563965,4298.461426,3831.281982,450.0,3.0,68.0,,,,0.0,4.0,1.0,1.0,0.0,4.0,16.666666,,,,,,,,54.0,0.0,0.067393,-0.572754,0.34668000000000004,0.739746,0.9038219999999999,-0.435065,-0.107912,-0.046781,-0.054791999999999993,-0.021595,,,,,,,,,,,,,,,,,,,,,,,,,,,,,,,,,,,,,,,,,,,,,,,,,,,,,,,,,,,,,,,,,
11744,1650415503.927467,1650415503.9394472,109.0,0.0,4349.230957,4656.922852000001,4298.974121,4296.922852000001,3838.461426,450.0,3.0,68.0,,,,0.0,4.0,1.0,1.0,0.0,4.0,16.666666,,,,,,,,,,,,,,,,,,,,,,,,,,,,,,,,,,,,,,,,,,,,,,,,,,,,,,0.0,0.0,1.0,0.0,1.0,0.0,,,,,,,,,,,,,,,,,,,,,,,,,
