,Timestamp,OriginalTimestamp,EEG.Counter,EEG.Interpolated,EEG.AF3,EEG.T7,EEG.Pz,EEG.T8,EEG.AF4,EEG.RawCq,EEG.Battery,EEG.BatteryPercent,MarkerIndex,MarkerType,MarkerValueInt,EEG.MarkerHardware,CQ.AF3,CQ.T7,CQ.Pz,CQ.T8,CQ.AF4,CQ.Overall,EQ.SampleRateQuality,EQ.OVERALL,EQ.AF3,EQ.T7,EQ.Pz,EQ.T8,EQ.AF4,MOT.CounterMems,MOT.InterpolatedMems,MOT.Q0,MOT.Q1,MOT.Q2,MOT.Q3,MOT.AccX,MOT.AccY,MOT.AccZ,MOT.MagX,MOT.MagY,MOT.MagZ,MC.Action,MC.ActionPower,MC.IsActive,PM.Engagement.IsActive,PM.Engagement.Scaled,PM.Engagement.Raw,PM.Engagement.Min,PM.Engagement.Max,PM.Excitement.IsActive,PM.Excitement.Scaled,PM.Excitement.Raw,PM.Excitement.Min,PM.Excitement.Max,PM.LongTermExcitement,PM.Stress.IsActive,PM.Stress.Scaled,PM.Stress.Raw,PM.Stress.Min,PM.Stress.Max,PM.Relaxation.IsActive,PM.Relaxation.Scaled,PM.Relaxation.Raw,PM.Relaxation.Min,PM.Relaxation.Max,PM.Interest.IsActive,PM.Interest.Scaled,PM.Interest.Raw,PM.Interest.Min,PM.Interest.Max,PM.Focus.IsActive,PM.Focus.Scaled,PM.Focus.Raw,PM.Focus.Min,PM.Focus.Max,FE.BlinkWink,FE.HorizontalEyesDirection,FE.UpperFaceAction,FE.UpperFaceActionPower,FE.LowerFaceAction,FE.LowerFaceActionPower,POW.AF3.Theta,POW.AF3.Alpha,POW.AF3.BetaL,POW.AF3.BetaH,POW.AF3.Gamma,POW.T7.Theta,POW.T7.Alpha,POW.T7.BetaL,POW.T7.BetaH,POW.T7.Gamma,POW.Pz.Theta,POW.Pz.Alpha,POW.Pz.BetaL,POW.Pz.BetaH,POW.Pz.Gamma,POW.T8.Theta,POW.T8.Alpha,POW.T8.BetaL,POW.T8.BetaH,POW.T8.Gamma,POW.AF4.Theta,POW.AF4.Alpha,POW.AF4.BetaL,POW.AF4.BetaH,POW.AF4.Gamma
38021,1645652298.430719,1645652298.430868,11.0,0.0,4304.615234000001,4736.922852000001,4275.384765999999,4281.025879,4258.461426,16213.0,3.0,55.0,,,,0.0,4.0,1.0,4.0,0.0,4.0,41.666668,,,,,,,,,,,,,,,,,,,,,,,,,,,,,,,,,,,,,,,,,,,,,,,,,,,,,,,,,,,,,,,,,,,,,,,,,,,,,,,,,,,,
38022,1645652298.438534,1645652298.438583,12.0,0.0,4360.512695,4713.333496,4278.974121,4282.05127,4333.846191,450.0,3.0,55.0,,,,0.0,4.0,1.0,4.0,0.0,4.0,41.666668,,,,,,,,6.0,0.0,0.383027,0.545166,0.22583000000000003,-0.710693,0.961929,-0.091798,-0.314458,-0.019365,-0.04777,-0.027148000000000002,,,,,,,,,,,,,,,,,,,,,,,,,,,,,,,,,,,0.0,0.0,1.0,0.0,1.0,0.0,,,,,,,,,,,,,,,,,,,,,,,,,
38023,1645652298.44635,1645652298.446398,13.0,0.0,4291.794922,4671.794922,4150.769043,4278.461426,4248.717772999999,450.0,3.0,55.0,,,,0.0,4.0,1.0,4.0,0.0,4.0,41.666668,,,,,,,,,,,,,,,,,,,,,,,,,,,,,,,,,,,,,,,,,,,,,,,,,,,,,,,,,,,,,,,,,,,,,,,,,,,,,,,,,,,,
38024,1645652298.454165,1645652298.4541118,14.0,0.0,4318.461426,4663.077147999999,4242.05127,4279.487305,4283.077147999999,450.0,3.0,55.0,,,,0.0,4.0,1.0,4.0,0.0,4.0,41.666668,,,,,,,,7.0,0.0,0.383027,0.545166,0.22583000000000003,-0.710693,0.962417,-0.099611,-0.31104,-0.017672999999999998,-0.047632,-0.030147000000000004,,,,,,,,,,,,,,,,,,,,,,,,,,,,,,,,,,,,,,,,,,,,,,,,,,,,,,,,,,,,,,,,,
38025,1645652298.46198,1645652298.461827,15.0,0.0,4331.794922,4621.025879,4216.922852000001,4278.974121,4287.692383,16213.0,3.0,55.0,,,,0.0,4.0,1.0,4.0,0.0,4.0,41.666668,,,,,,,,,,,,,,,,,,,,,,,,,,,,,,,,,,,,,,,,,,,,,,,,,,,,,,,,,,,,,,,,,,,,,,,,,,,,,,,,,,,,
38026,1645652298.469795,1645652298.469641,16.0,0.0,4310.769043,4611.282227000001,4212.820313,4278.974121,4268.717772999999,0.0,3.0,55.0,,,,0.0,4.0,1.0,4.0,0.0,4.0,41.666668,,,,,,,,8.0,0.0,0.383336,0.545166,0.22607399999999997,-0.710449,0.957046,-0.090822,-0.307622,-0.018493,-0.047605,-0.026545999999999997,,,,,,,,,,,,,,,,,,,,,,,,,,,,,,,,,,,0.0,0.0,1.0,0.0,1.0,0.0,,,,,,,,,,,,,,,,,,,,,,,,,
38027,1645652298.4776099,1645652298.4774551,17.0,0.0,4318.974121,4668.717772999999,4211.794922,4280.512695,4292.820313,0.0,3.0,55.0,,,,0.0,4.0,1.0,4.0,0.0,4.0,41.666668,,,,,,,,,,,,,,,,,,,,,,,,,,,,,,,,,,,,,,,,,,,,,,,,,,,,,,,,,,,,,,,,,,,,,,,,,,,,,,,,,,,,
38028,1645652298.485425,1645652298.48527,18.0,0.0,4312.307617,4674.871582,4209.743652,4280.0,4285.641113000001,0.0,3.0,55.0,,,,0.0,4.0,1.0,4.0,0.0,4.0,41.666668,,,,,,,,9.0,0.0,0.383336,0.545166,0.22607399999999997,-0.710449,0.96144,-0.092287,-0.30518,-0.016888,-0.047581,-0.029457999999999998,,,,,,,,,,,,,,,,,,,,,,,,,,,,,,,,,,,,,,,,,,,,,,,,,,,,,,,,,,,,,,,,,
38029,1645652298.49324,1645652298.493084,19.0,0.0,4319.487305,4629.743652,4234.871582,4277.94873,4285.128418,0.0,3.0,55.0,,,,0.0,4.0,1.0,4.0,0.0,4.0,41.666668,,,,,,,,,,,,,,,,,,,,,,,,,,,,,,,,,,,,,,,,,,,,,,,,,,,,,,,,,,,,,,,,,,,,,,,,,,,,,,,,,,,,
38030,1645652298.501056,1645652298.500899,20.0,0.0,4343.589844,4571.282227000001,4258.461426,4278.974121,4310.256348,0.0,3.0,55.0,,,,0.0,4.0,1.0,4.0,0.0,4.0,41.666668,,,,,,,,10.0,0.0,0.382988,0.5454100000000001,0.22607399999999997,-0.710449,0.9472799999999999,-0.091798,-0.303716,-0.017884999999999998,-0.047608,-0.032225,1.0,0.0,0.0,,,,,,,,,,,,,,,,,,,,,,,,,,,,,,,,0.0,0.0,1.0,0.0,1.0,0.0,3.358629,2.6897860000000002,3.9395839999999995,1.989161,3.015832,25.746610999999998,42.336594,77.941185,9.505165,5.825372,4.033309,3.4589019999999997,4.333595,1.534789,2.051853,0.008097,0.006004,0.006289,0.004838,0.011251,3.5946730000000002,1.7263849999999998,4.007613,2.4079900000000003,2.829093
38031,1645652298.508871,1645652298.508713,21.0,0.0,4347.179688,4536.922852000001,4251.282227000001,4282.563965,4311.794922,0.0,3.0,55.0,,,,0.0,4.0,1.0,4.0,0.0,4.0,41.666668,,,,,,,,,,,,,,,,,,,,,,,,,,,,,,,,,,,,,,,,,,,,,,,,,,,,,,,,,,,,,,,,,,,,,,,,,,,,,,,,,,,,
38032,1645652298.516686,1645652298.516527,22.0,0.0,4327.692383,4592.820313,4215.384765999999,4281.025879,4288.205078,0.0,3.0,55.0,,,,0.0,4.0,1.0,4.0,0.0,4.0,41.666668,,,,,,,,11.0,0.0,0.382988,0.5454100000000001,0.22607399999999997,-0.710449,0.9580219999999999,-0.097169,-0.297856,-0.018538,-0.047535,-0.034667,,,,,,,,,,,,,,,,,,,,,,,,,,,,,,,,,,,,,,,,,,,,,,,,,,,,,,,,,,,,,,,,,
38033,1645652298.524501,1645652298.524242,23.0,0.0,4325.128418,4661.025879,4214.871582,4276.922852000001,4290.769043,0.0,3.0,55.0,,,,0.0,4.0,1.0,4.0,0.0,4.0,41.666668,,,,,,,,,,,,,,,,,,,,,,,,,,,,,,,,,,,,,,,,,,,,,,,,,,,,,,,,,,,,,,,,,,,,,,,,,,,,,,,,,,,,
38034,1645652298.532316,1645652298.532057,24.0,0.0,4326.666504,4562.563965,4231.282227000001,4280.0,4293.846191,0.0,3.0,55.0,,,,0.0,4.0,1.0,4.0,0.0,4.0,41.666668,,,,,,,,12.0,0.0,0.382988,0.5454100000000001,0.22607399999999997,-0.710449,0.977066,-0.09033300000000001,-0.306645,-0.016928,-0.047567,-0.036864,,,,,,,,,,,,,,,,,,,,,,,,,,,,,,,,,,,0.0,0.0,1.0,0.0,1.0,0.0,,,,,,,,,,,,,,,,,,,,,,,,,
38035,1645652298.540131,1645652298.5398722,25.0,0.0,4310.256348,4460.0,4233.333496,4282.05127,4275.897461,0.0,3.0,55.0,,,,0.0,4.0,1.0,4.0,0.0,4.0,41.666668,,,,,,,,,,,,,,,,,,,,,,,,,,,,,,,,,,,,,,,,,,,,,,,,,,,,,,,,,,,,,,,,,,,,,,,,,,,,,,,,,,,,
38036,1645652298.5479472,1645652298.5476859,26.0,0.0,4309.230957,4541.538574,4225.641113000001,4278.974121,4274.871582,0.0,3.0,55.0,,,,0.0,4.0,1.0,4.0,0.0,4.0,41.666668,,,,,,,,13.0,0.0,0.383441,0.5454100000000001,0.22607399999999997,-0.710205,0.964858,-0.08691499999999999,-0.306157,-0.017823,-0.047595,-0.038793,,,,,,,,,,,,,,,,,,,,,,,,,,,,,,,,,,,,,,,,,,,,,,,,,,,,,,,,,,,,,,,,,
38037,1645652298.5557618,1645652298.555501,27.0,0.0,4320.512695,4587.692383,4214.871582,4278.461426,4276.410156,0.0,3.0,55.0,,,,0.0,4.0,1.0,4.0,0.0,4.0,41.666668,,,,,,,,,,,,,,,,,,,,,,,,,,,,,,,,,,,,,,,,,,,,,,,,,,,,,,,,,,,,,,,,,,,,,,,,,,,,,,,,,,,,
38038,1645652298.563577,1645652298.5633152,28.0,0.0,4329.230957,4510.769043,4245.128418,4280.512695,4287.179688,0.0,3.0,55.0,,,,0.0,4.0,1.0,4.0,0.0,4.0,41.666668,,,,,,,,14.0,0.0,0.383441,0.5454100000000001,0.22607399999999997,-0.710205,0.9546040000000001,-0.103029,-0.299321,-0.018580000000000003,-0.047572,-0.034425,,,,,,,,,,,,,,,,,,,,,,,,,,,,,,,,,,,0.0,0.0,1.0,0.0,1.0,0.0,,,,,,,,,,,,,,,,,,,,,,,,,
38039,1645652298.571392,1645652298.57113,29.0,0.0,4315.897461,4498.461426,4256.410156,4279.487305,4291.282227000001,0.0,3.0,55.0,,,,0.0,4.0,1.0,4.0,0.0,4.0,41.666668,,,,,,,,,,,,,,,,,,,,,,,,,,,,,,,,,,,,,,,,,,,,,,,,,,,,,,,,,,,,,,,,,,,,,,,,,,,,,,,,,,,,
38040,1645652298.579207,1645652298.578845,30.0,0.0,4294.358886999999,4517.94873,4232.820313,4278.974121,4277.94873,0.0,3.0,55.0,,,,0.0,4.0,1.0,4.0,0.0,4.0,41.666668,,,,,,,,15.0,0.0,0.383441,0.5454100000000001,0.22607399999999997,-0.710205,0.9629049999999999,-0.11133,-0.310552,-0.019212,-0.047550999999999996,-0.036549,,,,,,,,,,,,,,,,,,,,,,,,,,,,,,,,,,,,,,,,,,,,,,,,,,,,,,,,,,,,,,,,,
38041,1645652298.587022,1645652298.586659,31.0,0.0,4301.538574,4488.717772999999,4210.256348,4279.487305,4266.666504,0.0,3.0,55.0,,,,0.0,4.0,1.0,4.0,0.0,4.0,41.666668,,,,,,,,,,,,,,,,,,,,,,,,,,,,,,,,,,,,,,,,,,,,,,,,,,,,,,,,,,,,,,,,,,,,,,,,,,,,,,,,,,,,
38042,1645652298.5948381,1645652298.594474,32.0,0.0,4333.846191,4506.153809,4244.102539,4277.94873,4286.153809,0.0,3.0,55.0,,,,0.0,4.0,1.0,4.0,0.0,4.0,41.666668,,,,,,,,16.0,0.0,0.383336,0.545166,0.22607399999999997,-0.710449,0.9560690000000001,-0.106447,-0.302739,-0.01983,-0.047581,-0.038607,,,,,,,,,,,,,,,,,,,,,,,,,,,,,,,,,,,0.0,0.0,1.0,0.0,1.0,0.0,,,,,,,,,,,,,,,,,,,,,,,,,
38043,1645652298.602653,1645652298.602289,33.0,0.0,4335.897461,4581.025879,4262.563965,4278.974121,4314.358886999999,0.0,3.0,55.0,,,,0.0,4.0,1.0,4.0,0.0,4.0,41.666668,,,,,,,,,,,,,,,,,,,,,,,,,,,,,,,,,,,,,,,,,,,,,,,,,,,,,,,,,,,,,,,,,,,,,,,,,,,,,,,,,,,,
38044,1645652298.610468,1645652298.610103,34.0,0.0,4311.282227000001,4564.615234000001,4241.538574,4280.0,4298.974121,0.0,3.0,55.0,,,,0.0,4.0,1.0,4.0,0.0,4.0,41.666668,,,,,,,,17.0,0.0,0.383336,0.545166,0.22607399999999997,-0.710449,0.9594870000000001,-0.103029,-0.308598,-0.020337,-0.047657,-0.034258,,,,,,,,,,,,,,,,,,,,,,,,,,,,,,,,,,,,,,,,,,,,,,,,,,,,,,,,,,,,,,,,,
38045,1645652298.618283,1645652298.617918,35.0,0.0,4321.025879,4504.102539,4218.461426,4278.974121,4269.230957,0.0,3.0,55.0,,,,0.0,4.0,1.0,4.0,0.0,4.0,41.666668,,,,,,,,,,,,,,,,,,,,,,,,,,,,,,,,,,,,,,,,,,,,,,,,,,,,,,,,,,,,,,,,,,,,,,,,,,,,,,,,,,,,
38046,1645652298.6260982,1645652298.625733,36.0,0.0,4298.461426,4530.769043,4225.641113000001,4278.461426,4269.230957,0.0,3.0,55.0,,,,0.0,4.0,1.0,4.0,0.0,4.0,41.666668,,,,,,,,18.0,0.0,0.383336,0.545166,0.22607399999999997,-0.710449,0.952651,-0.104494,-0.292973,-0.02094,-0.047677,-0.030247000000000003,1.0,0.0,0.0,,,,,,,,,,,,,,,,,,,,,,,,,,,,,,,,0.0,0.0,32.0,0.036669,1.0,0.0,3.210238,2.870021,3.46699,1.8554549999999999,2.783845,25.901237,42.616287,69.67775,12.423356,5.68925,4.19931,3.133816,3.7168050000000004,1.515533,2.127894,0.026249,0.007944,0.006007,0.005215999999999999,0.01107,3.079054,1.506356,3.401432,2.16155,2.448685
38047,1645652298.633913,1645652298.633547,37.0,0.0,4220.512695,4576.922852000001,4218.461426,4278.461426,4275.897461,0.0,3.0,55.0,,,,0.0,4.0,1.0,4.0,0.0,4.0,41.666668,,,,,,,,,,,,,,,,,,,,,,,,,,,,,,,,,,,,,,,,,,,,,,,,,,,,,,,,,,,,,,,,,,,,,,,,,,,,,,,,,,,,
38048,1645652298.6417289,1645652298.6412618,38.0,0.0,4220.512695,4585.641113000001,4178.974121,4277.436035,4267.692383,0.0,3.0,55.0,,,,0.0,4.0,1.0,4.0,0.0,4.0,41.666668,,,,,,,,19.0,0.0,0.382883,0.545166,0.22607399999999997,-0.710693,0.9746239999999999,-0.10009900000000001,-0.297856,-0.021434,-0.047597,-0.032984,,,,,,,,,,,,,,,,,,,,,,,,,,,,,,,,,,,,,,,,,,,,,,,,,,,,,,,,,,,,,,,,,
38049,1645652298.649544,1645652298.649077,39.0,0.0,4348.205078,4580.0,4193.333496,4278.974121,4296.922852000001,0.0,3.0,55.0,,,,0.0,4.0,1.0,4.0,0.0,4.0,41.666668,,,,,,,,,,,,,,,,,,,,,,,,,,,,,,,,,,,,,,,,,,,,,,,,,,,,,,,,,,,,,,,,,,,,,,,,,,,,,,,,,,,,
38050,1645652298.657359,1645652298.656891,40.0,0.0,4385.641113000001,4572.307617,4245.128418,4280.0,4322.563965,0.0,3.0,55.0,,,,0.0,4.0,1.0,4.0,0.0,4.0,41.666668,,,,,,,,20.0,0.0,0.382679,0.5454100000000001,0.22583000000000003,-0.710693,0.968765,-0.09131,-0.31299299999999997,-0.019437,-0.047573000000000004,-0.035301,,,,,,,,,,,,,,,,,,,,,,,,,,,,,,,,,,,0.0,0.0,32.0,0.036669,1.0,0.0,,,,,,,,,,,,,,,,,,,,,,,,,
38051,1645652298.665174,1645652298.664706,41.0,0.0,4309.230957,4583.077147999999,4249.230957,4279.487305,4314.871582,0.0,3.0,55.0,,,,0.0,4.0,1.0,4.0,0.0,4.0,41.666668,,,,,,,,,,,,,,,,,,,,,,,,,,,,,,,,,,,,,,,,,,,,,,,,,,,,,,,,,,,,,,,,,,,,,,,,,,,,,,,,,,,,
38052,1645652298.6729891,1645652298.672521,42.0,0.0,4302.05127,4567.692383,4203.077147999999,4280.0,4295.384765999999,0.0,3.0,55.0,,,,0.0,4.0,1.0,4.0,0.0,4.0,41.666668,,,,,,,,21.0,0.0,0.383336,0.545166,0.22607399999999997,-0.710449,0.952651,-0.104494,-0.292973,-0.017689,-0.047455000000000004,-0.037435,,,,,,,,,,,,,,,,,,,,,,,,,,,,,,,,,,,,,,,,,,,,,,,,,,,,,,,,,,,,,,,,,
38053,1645652298.680804,1645652298.680235,43.0,0.0,4328.205078,4527.179688,4200.512695,4280.512695,4301.025879,0.0,3.0,55.0,,,,0.0,4.0,1.0,4.0,0.0,4.0,41.666668,,,,,,,,,,,,,,,,,,,,,,,,,,,,,,,,,,,,,,,,,,,,,,,,,,,,,,,,,,,,,,,,,,,,,,,,,,,,,,,,,,,,
38054,1645652298.6886199,1645652298.68805,44.0,0.0,4298.461426,4577.436035,4216.410156,4279.487305,4328.205078,0.0,3.0,55.0,,,,0.0,4.0,1.0,4.0,0.0,4.0,41.666668,,,,,,,,22.0,0.0,0.382679,0.5454100000000001,0.22583000000000003,-0.710693,0.968765,-0.09131,-0.31299299999999997,-0.016066999999999998,-0.047445999999999995,-0.039307,,,,,,,,,,,,,,,,,,,,,,,,,,,,,,,,,,,0.0,0.0,32.0,0.036669,1.0,0.0,,,,,,,,,,,,,,,,,,,,,,,,,
38055,1645652298.696435,1645652298.695864,45.0,0.0,4323.589844,4616.410156,4230.256348,4278.974121,4356.410156,0.0,3.0,55.0,,,,0.0,4.0,1.0,4.0,0.0,4.0,41.666668,,,,,,,,,,,,,,,,,,,,,,,,,,,,,,,,,,,,,,,,,,,,,,,,,,,,,,,,,,,,,,,,,,,,,,,,,,,,,,,,,,,,
38056,1645652298.70425,1645652298.703678,46.0,0.0,4354.871582,4568.205078,4234.358886999999,4279.487305,4355.384765999999,0.0,3.0,55.0,,,,0.0,4.0,1.0,4.0,0.0,4.0,41.666668,,,,,,,,23.0,0.0,0.38257399999999997,0.545166,0.22583000000000003,-0.710938,0.956558,-0.100587,-0.304692,-0.015636,-0.047284,-0.036404,,,,,,,,,,,,,,,,,,,,,,,,,,,,,,,,,,,,,,,,,,,,,,,,,,,,,,,,,,,,,,,,,
38057,1645652298.712065,1645652298.711493,47.0,0.0,4312.307617,4564.102539,4246.666504,4278.974121,4356.410156,0.0,3.0,55.0,,,,0.0,4.0,1.0,4.0,0.0,4.0,41.666668,,,,,,,,,,,,,,,,,,,,,,,,,,,,,,,,,,,,,,,,,,,,,,,,,,,,,,,,,,,,,,,,,,,,,,,,,,,,,,,,,,,,
38058,1645652298.71988,1645652298.719307,48.0,0.0,4378.461426,4541.025879,4234.358886999999,4280.512695,4414.871582,0.0,3.0,55.0,,,,0.0,4.0,1.0,4.0,0.0,4.0,41.666668,,,,,,,,24.0,0.0,0.38211999999999996,0.545166,0.22583000000000003,-0.711182,0.960464,-0.124025,-0.316411,-0.014169999999999999,-0.047438,-0.038379,,,,,,,,,,,,,,,,,,,,,,,,,,,,,,,,,,,0.0,0.0,32.0,0.036669,1.0,0.0,,,,,,,,,,,,,,,,,,,,,,,,,
38059,1645652298.727695,1645652298.727122,49.0,0.0,4560.0,4504.102539,4226.666504,4283.077147999999,4478.974121,0.0,3.0,55.0,,,,0.0,4.0,1.0,4.0,0.0,4.0,41.666668,,,,,,,,,,,,,,,,,,,,,,,,,,,,,,,,,,,,,,,,,,,,,,,,,,,,,,,,,,,,,,,,,,,,,,,,,,,,,,,,,,,,
38060,1645652298.7355099,1645652298.734936,50.0,0.0,4585.128418,4599.487305,4234.871582,4283.077147999999,4502.563965,0.0,3.0,55.0,,,,0.0,4.0,1.0,4.0,0.0,4.0,41.666668,,,,,,,,25.0,0.0,0.38166500000000003,0.545166,0.22583000000000003,-0.711426,0.964858,-0.104494,-0.292485,-0.015243000000000001,-0.047577,-0.034004,,,,,,,,,,,,,,,,,,,,,,,,,,,,,,,,,,,,,,,,,,,,,,,,,,,,,,,,,,,,,,,,,
38061,1645652298.743326,1645652298.742651,51.0,0.0,4480.512695,4679.487305,4241.538574,4281.025879,4485.128418,0.0,3.0,55.0,,,,0.0,4.0,1.0,4.0,0.0,4.0,41.666668,,,,,,,,,,,,,,,,,,,,,,,,,,,,,,,,,,,,,,,,,,,,,,,,,,,,,,,,,,,,,,,,,,,,,,,,,,,,,,,,,,,,
38062,1645652298.751141,1645652298.7504652,52.0,0.0,4450.769043,4607.179688,4209.230957,4281.025879,4463.077147999999,0.0,3.0,55.0,,,,0.0,4.0,1.0,4.0,0.0,4.0,41.666668,1.0,8.333333,3.0,0.0,1.0,0.0,3.0,26.0,0.0,0.38166500000000003,0.545166,0.22583000000000003,-0.711426,0.956558,-0.087404,-0.30225100000000005,-0.016356,-0.047556,-0.036268,1.0,0.0,0.0,,,,,,,,,,,,,,,,,,,,,,,,,,,,,,,,0.0,0.0,32.0,0.1775,1.0,0.0,3.193611,3.204723,3.052033,1.7792709999999998,2.752459,28.029926,47.657352,57.586532999999996,18.330278,6.632194999999999,4.7188870000000005,3.697303,3.475908,1.678006,3.059398,0.074363,0.012095999999999999,0.006470999999999999,0.006429000000000001,0.011999,2.6697759999999997,1.754614,3.094019,1.9419099999999998,2.318228
38063,1645652298.758956,1645652298.75828,53.0,0.0,4436.410156,4567.179688,4181.538574,4282.05127,4460.0,0.0,3.0,55.0,,,,0.0,4.0,1.0,4.0,0.0,4.0,41.666668,,,,,,,,,,,,,,,,,,,,,,,,,,,,,,,,,,,,,,,,,,,,,,,,,,,,,,,,,,,,,,,,,,,,,,,,,,,,,,,,,,,,
38064,1645652298.766771,1645652298.766095,54.0,0.0,4421.538574,4565.128418,4201.538574,4281.538574,4468.205078,0.0,3.0,55.0,,,,0.0,4.0,1.0,4.0,0.0,4.0,41.666668,,,,,,,,27.0,0.0,0.381414,0.544922,0.22607399999999997,-0.71167,0.9423969999999999,-0.092775,-0.30225100000000005,-0.017259,-0.047439,-0.032104,,,,,,,,,,,,,,,,,,,,,,,,,,,,,,,,,,,,,,,,,,,,,,,,,,,,,,,,,,,,,,,,,
38065,1645652298.774586,1645652298.773909,55.0,0.0,4423.077147999999,4542.563965,4214.358886999999,4280.0,4455.897461,0.0,3.0,55.0,,,,0.0,4.0,1.0,4.0,0.0,4.0,41.666668,,,,,,,,,,,,,,,,,,,,,,,,,,,,,,,,,,,,,,,,,,,,,,,,,,,,,,,,,,,,,,,,,,,,,,,,,,,,,,,,,,,,
38066,1645652298.782401,1645652298.781724,56.0,0.0,4391.282227000001,4571.794922,4209.743652,4280.512695,4449.230957,0.0,3.0,55.0,,,,0.0,4.0,1.0,4.0,0.0,4.0,41.666668,,,,,,,,28.0,0.0,0.381414,0.544922,0.22607399999999997,-0.71167,0.9677879999999999,-0.09472799999999999,-0.291508,-0.017975,-0.047383,-0.028258999999999996,,,,,,,,,,,,,,,,,,,,,,,,,,,,,,,,,,,0.0,0.0,32.0,0.1775,1.0,0.0,,,,,,,,,,,,,,,,,,,,,,,,,
38067,1645652298.790217,1645652298.789539,57.0,0.0,4390.256348,4558.974121,4218.461426,4281.025879,4470.769043,0.0,3.0,55.0,,,,0.0,4.0,1.0,4.0,0.0,4.0,41.666668,,,,,,,,,,,,,,,,,,,,,,,,,,,,,,,,,,,,,,,,,,,,,,,,,,,,,,,,,,,,,,,,,,,,,,,,,,,,,,,,,,,,
38068,1645652298.798032,1645652298.797353,58.0,0.0,4467.179688,4540.0,4243.077147999999,4280.512695,4493.846191,0.0,3.0,55.0,,,,0.0,4.0,1.0,4.0,0.0,4.0,41.666668,,,,,,,,29.0,0.0,0.381269,0.544922,0.226318,-0.71167,0.9716950000000001,-0.08838,-0.299321,-0.018716,-0.047381,-0.024847,,,,,,,,,,,,,,,,,,,,,,,,,,,,,,,,,,,,,,,,,,,,,,,,,,,,,,,,,,,,,,,,,
38069,1645652298.8058472,1645652298.805168,59.0,0.0,4453.846191,4595.897461,4240.512695,4280.512695,4474.871582,0.0,3.0,55.0,,,,0.0,4.0,1.0,4.0,0.0,4.0,41.666668,,,,,,,,,,,,,,,,,,,,,,,,,,,,,,,,,,,,,,,,,,,,,,,,,,,,,,,,,,,,,,,,,,,,,,,,,,,,,,,,,,,,
38070,1645652298.8136618,1645652298.812883,60.0,0.0,4382.563965,4604.615234000001,4229.743652,4280.512695,4461.538574,0.0,3.0,55.0,,,,0.0,4.0,1.0,4.0,0.0,4.0,41.666668,,,,,,,,30.0,0.0,0.381269,0.544922,0.226318,-0.71167,0.965835,-0.095705,-0.306157,-0.01704,-0.047330000000000004,-0.027977,,,,,,,,,,,,,,,,,,,,,,,,,,,,,,,,,,,0.0,0.0,32.0,0.1775,1.0,0.0,,,,,,,,,,,,,,,,,,,,,,,,,
38071,1645652298.821477,1645652298.820697,61.0,0.0,4407.179688,4581.025879,4206.666504,4280.512695,4456.410156,0.0,3.0,55.0,,,,0.0,4.0,1.0,4.0,0.0,4.0,41.666668,,,,,,,,,,,,,,,,,,,,,,,,,,,,,,,,,,,,,,,,,,,,,,,,,,,,,,,,,,,,,,,,,,,,,,,,,,,,,,,,,,,,
38072,1645652298.829292,1645652298.828512,62.0,0.0,4436.410156,4547.692383,4207.179688,4280.512695,4431.282227000001,0.0,3.0,55.0,,,,0.0,4.0,1.0,4.0,0.0,4.0,41.666668,,,,,,,,31.0,0.0,0.381269,0.544922,0.226318,-0.71167,0.953628,-0.087404,-0.306157,-0.017825999999999998,-0.047236,-0.024643,,,,,,,,,,,,,,,,,,,,,,,,,,,,,,,,,,,,,,,,,,,,,,,,,,,,,,,,,,,,,,,,,
38073,1645652298.837107,1645652298.8363268,63.0,0.0,4406.153809,4458.461426,4221.538574,4280.512695,4417.94873,0.0,3.0,55.0,,,,0.0,4.0,1.0,4.0,0.0,4.0,41.666668,,,,,,,,,,,,,,,,,,,,,,,,,,,,,,,,,,,,,,,,,,,,,,,,,,,,,,,,,,,,,,,,,,,,,,,,,,,,,,,,,,,,
38074,1645652298.844923,1645652298.844141,64.0,0.0,4409.230957,4502.05127,4226.153809,4281.025879,4426.153809,450.0,3.0,55.0,,,,0.0,4.0,1.0,4.0,0.0,4.0,41.666668,,,,,,,,32.0,0.0,0.381269,0.544922,0.226318,-0.71167,0.960952,-0.104005,-0.299321,-0.018534000000000002,-0.047347,-0.027842000000000002,,,,,,,,,,,,,,,,,,,,,,,,,,,,,,,,,,,10.0,0.0,32.0,0.1775,1.0,0.0,,,,,,,,,,,,,,,,,,,,,,,,,
38075,1645652298.8527381,1645652298.8519561,65.0,0.0,4412.820313,4671.794922,4200.0,4280.512695,4422.563965,450.0,3.0,55.0,,,,0.0,4.0,1.0,4.0,0.0,4.0,41.666668,,,,,,,,,,,,,,,,,,,,,,,,,,,,,,,,,,,,,,,,,,,,,,,,,,,,,,,,,,,,,,,,,,,,,,,,,,,,,,,,,,,,
38076,1645652298.860553,1645652298.859771,66.0,0.0,4370.769043,4648.717772999999,4206.153809,4279.487305,4403.589844,16218.0,3.0,55.0,,,,0.0,4.0,1.0,4.0,0.0,4.0,41.666668,,,,,,,,33.0,0.0,0.38158000000000003,0.544922,0.22656300000000001,-0.711426,0.954116,-0.09765800000000001,-0.300786,-0.019122,-0.047445999999999995,-0.024521,,,,,,,,,,,,,,,,,,,,,,,,,,,,,,,,,,,,,,,,,,,,,,,,,,,,,,,,,,,,,,,,,
38077,1645652298.868368,1645652298.867585,67.0,0.0,4366.666504,4543.589844,4227.692383,4280.512695,4394.871582,450.0,3.0,55.0,,,,0.0,4.0,1.0,4.0,0.0,4.0,41.666668,,,,,,,,,,,,,,,,,,,,,,,,,,,,,,,,,,,,,,,,,,,,,,,,,,,,,,,,,,,,,,,,,,,,,,,,,,,,,,,,,,,,
38078,1645652298.876183,1645652298.8754,68.0,0.0,4372.307617,4594.358886999999,4226.153809,4280.512695,4379.487305,115.0,3.0,55.0,,,,0.0,4.0,1.0,4.0,0.0,4.0,41.666668,,,,,,,,34.0,0.0,0.38158000000000003,0.544922,0.22656300000000001,-0.711426,0.9555809999999999,-0.107424,-0.295903,-0.019749,-0.047535,-0.027732999999999997,1.0,0.0,0.0,,,,,,,,,,,,,,,,,,,,,,,,,,,,,,,,10.0,0.0,32.0,0.283621,1.0,0.0,3.4148709999999998,3.6145669999999996,2.96532,1.890351,3.065851,32.21714,56.423649,45.060444,27.0574,8.876469,5.670122,5.146872,3.543075,2.1513720000000003,5.3055769999999995,0.159314,0.019688999999999998,0.008088,0.008605,0.014978,2.56969,2.35109,2.978169,1.8299,2.55465
38079,1645652298.8839982,1645652298.883215,69.0,0.0,4348.205078,4626.666504,4219.487305,4279.487305,4362.563965,450.0,3.0,55.0,,,,0.0,4.0,1.0,4.0,0.0,4.0,41.666668,,,,,,,,,,,,,,,,,,,,,,,,,,,,,,,,,,,,,,,,,,,,,,,,,,,,,,,,,,,,,,,,,,,,,,,,,,,,,,,,,,,,
38080,1645652298.891813,1645652298.890929,70.0,0.0,4325.128418,4586.666504,4222.563965,4280.0,4343.589844,16174.0,3.0,55.0,,,,0.0,4.0,1.0,4.0,0.0,4.0,41.666668,,,,,,,,35.0,0.0,0.38158000000000003,0.544922,0.22656300000000001,-0.711426,0.957534,-0.100587,-0.31250500000000003,-0.017969,-0.047518,-0.030673000000000002,,,,,,,,,,,,,,,,,,,,,,,,,,,,,,,,,,,,,,,,,,,,,,,,,,,,,,,,,,,,,,,,,
38081,1645652298.8996289,1645652298.8987439,71.0,0.0,4322.563965,4603.077147999999,4221.538574,4280.0,4320.0,450.0,3.0,55.0,,,,0.0,4.0,1.0,4.0,0.0,4.0,41.666668,,,,,,,,,,,,,,,,,,,,,,,,,,,,,,,,,,,,,,,,,,,,,,,,,,,,,,,,,,,,,,,,,,,,,,,,,,,,,,,,,,,,
38082,1645652298.907444,1645652298.906559,72.0,0.0,4307.692383,4638.974121,4204.615234000001,4278.461426,4286.153809,450.0,3.0,55.0,,,,0.0,4.0,1.0,4.0,0.0,4.0,41.666668,,,,,,,,36.0,0.0,0.38192800000000005,0.544678,0.22656300000000001,-0.711426,0.961929,-0.091798,-0.29688000000000003,-0.016954,-0.047454,-0.033172,,,,,,,,,,,,,,,,,,,,,,,,,,,,,,,,,,,10.0,0.0,32.0,0.283621,1.0,0.0,,,,,,,,,,,,,,,,,,,,,,,,,
38083,1645652298.915259,1645652298.9143732,73.0,0.0,4297.436035,4642.05127,4196.410156,4279.487305,4258.461426,0.0,3.0,55.0,,,,0.0,4.0,1.0,4.0,0.0,4.0,41.666668,,,,,,,,,,,,,,,,,,,,,,,,,,,,,,,,,,,,,,,,,,,,,,,,,,,,,,,,,,,,,,,,,,,,,,,,,,,,,,,,,,,,
38084,1645652298.923074,1645652298.922188,74.0,0.0,4295.384765999999,4616.922852000001,4190.256348,4280.512695,4240.512695,450.0,3.0,55.0,,,,0.0,4.0,1.0,4.0,0.0,4.0,41.666668,,,,,,,,37.0,0.0,0.38192800000000005,0.544678,0.22656300000000001,-0.711426,0.960464,-0.097169,-0.307622,-0.015453999999999999,-0.047445,-0.035568,,,,,,,,,,,,,,,,,,,,,,,,,,,,,,,,,,,,,,,,,,,,,,,,,,,,,,,,,,,,,,,,,
38085,1645652298.9308891,1645652298.930002,75.0,0.0,4289.230957,4610.256348,4194.358886999999,4280.512695,4229.743652,16252.0,3.0,55.0,,,,0.0,4.0,1.0,4.0,0.0,4.0,41.666668,,,,,,,,,,,,,,,,,,,,,,,,,,,,,,,,,,,,,,,,,,,,,,,,,,,,,,,,,,,,,,,,,,,,,,,,,,,,,,,,,,,,
38086,1645652298.938704,1645652298.937817,76.0,0.0,4286.153809,4639.487305,4197.436035,4279.487305,4213.846191,450.0,3.0,55.0,,,,0.0,4.0,1.0,4.0,0.0,4.0,41.666668,,,,,,,,38.0,0.0,0.38192800000000005,0.544678,0.22656300000000001,-0.711426,0.9580219999999999,-0.114748,-0.306645,-0.016447,-0.047437,-0.031376,,,,,,,,,,,,,,,,,,,,,,,,,,,,,,,,,,,10.0,0.0,32.0,0.283621,1.0,0.0,,,,,,,,,,,,,,,,,,,,,,,,,
38087,1645652298.9465199,1645652298.945632,77.0,0.0,4303.077147999999,4672.307617,4228.205078,4278.974121,4238.974121,450.0,3.0,55.0,,,,0.0,4.0,1.0,4.0,0.0,4.0,41.666668,,,,,,,,,,,,,,,,,,,,,,,,,,,,,,,,,,,,,,,,,,,,,,,,,,,,,,,,,,,,,,,,,,,,,,,,,,,,,,,,,,,,
38088,1645652298.954335,1645652298.9534461,78.0,0.0,4306.666504,4666.666504,4244.615234000001,4278.974121,4270.769043,450.0,3.0,55.0,,,,0.0,4.0,1.0,4.0,0.0,4.0,41.666668,,,,,,,,39.0,0.0,0.38192800000000005,0.544678,0.22656300000000001,-0.711426,0.957534,-0.09765800000000001,-0.30811,-0.017439,-0.04743,-0.033951999999999996,,,,,,,,,,,,,,,,,,,,,,,,,,,,,,,,,,,,,,,,,,,,,,,,,,,,,,,,,,,,,,,,,
38089,1645652298.96215,1645652298.961261,79.0,0.0,4278.461426,4633.846191,4230.256348,4279.487305,4245.128418,16252.0,3.0,55.0,,,,0.0,4.0,1.0,4.0,0.0,4.0,41.666668,,,,,,,,,,,,,,,,,,,,,,,,,,,,,,,,,,,,,,,,,,,,,,,,,,,,,,,,,,,,,,,,,,,,,,,,,,,,,,,,,,,,
38090,1645652298.969965,1645652298.968976,80.0,0.0,4254.358886999999,4618.461426,4204.102539,4279.487305,4218.461426,450.0,3.0,55.0,,,,0.0,4.0,1.0,4.0,0.0,4.0,41.666668,,,,,,,,40.0,0.0,0.38172399999999995,0.544922,0.226318,-0.711426,0.947768,-0.092775,-0.298833,-0.018234999999999998,-0.047521,-0.036367000000000003,,,,,,,,,,,,,,,,,,,,,,,,,,,,,,,,,,,10.0,0.0,32.0,0.283621,1.0,0.0,,,,,,,,,,,,,,,,,,,,,,,,,
38091,1645652298.97778,1645652298.97679,81.0,0.0,4249.743652,4584.102539,4212.307617,4279.487305,4226.153809,450.0,3.0,55.0,,,,0.0,4.0,1.0,4.0,0.0,4.0,41.666668,,,,,,,,,,,,,,,,,,,,,,,,,,,,,,,,,,,,,,,,,,,,,,,,,,,,,,,,,,,,,,,,,,,,,,,,,,,,,,,,,,,,
38092,1645652298.985595,1645652298.984605,82.0,0.0,4261.538574,4536.922852000001,4221.538574,4280.0,4236.922852000001,450.0,3.0,55.0,,,,0.0,4.0,1.0,4.0,0.0,4.0,41.666668,,,,,,,,41.0,0.0,0.38172399999999995,0.544922,0.226318,-0.711426,0.976089,-0.08838,-0.31396999999999997,-0.01895,-0.047554,-0.032193,,,,,,,,,,,,,,,,,,,,,,,,,,,,,,,,,,,,,,,,,,,,,,,,,,,,,,,,,,,,,,,,,
38093,1645652298.9934099,1645652298.99242,83.0,0.0,4274.358886999999,4558.974121,4228.205078,4279.487305,4243.077147999999,16252.0,3.0,55.0,,,,0.0,4.0,1.0,4.0,0.0,4.0,41.666668,,,,,,,,,,,,,,,,,,,,,,,,,,,,,,,,,,,,,,,,,,,,,,,,,,,,,,,,,,,,,,,,,,,,,,,,,,,,,,,,,,,,
38094,1645652299.001226,1645652299.000234,84.0,0.0,4258.461426,4613.333496,4207.692383,4277.94873,4242.05127,450.0,3.0,55.0,,,,0.0,4.0,1.0,4.0,0.0,4.0,41.666668,,,,,,,,42.0,0.0,0.38172399999999995,0.544922,0.226318,-0.711426,0.9741360000000001,-0.083497,-0.302739,-0.019594,-0.047633,-0.034736,1.0,0.0,0.0,,,,,,,,,,,,,,,,,,,,,,,,,,,,,,,,0.0,0.0,1.0,0.0,512.0,0.96941,4.336309,4.2233480000000005,3.813957,2.351091,3.829353,37.430832,65.770035,34.994339000000004,37.240337,12.146727,6.876092,7.125398,3.727304,2.9422580000000003,8.788525,0.270875,0.030476999999999997,0.010917,0.011387000000000001,0.020036,2.876023,3.161232,3.008322,1.8544669999999999,3.118035
38095,1645652299.009041,1645652299.008049,85.0,0.0,4215.384765999999,4584.615234000001,4176.922852000001,4277.94873,4212.307617,450.0,3.0,55.0,,,,0.0,4.0,1.0,4.0,0.0,4.0,41.666668,,,,,,,,,,,,,,,,,,,,,,,,,,,,,,,,,,,,,,,,,,,,,,,,,,,,,,,,,,,,,,,,,,,,,,,,,,,,,,,,,,,,
38096,1645652299.016856,1645652299.0158641,86.0,0.0,4231.282227000001,4538.461426,4195.384765999999,4278.461426,4218.974121,450.0,3.0,55.0,,,,0.0,4.0,1.0,4.0,0.0,4.0,41.666668,,,,,,,,43.0,0.0,0.381869,0.544922,0.22607399999999997,-0.711426,0.9589989999999999,-0.102052,-0.304204,-0.020174,-0.047751999999999996,-0.036975,,,,,,,,,,,,,,,,,,,,,,,,,,,,,,,,,,,,,,,,,,,,,,,,,,,,,,,,,,,,,,,,,
38097,1645652299.024671,1645652299.0236778,87.0,0.0,4276.922852000001,4558.974121,4220.512695,4278.461426,4252.820313,16252.0,3.0,55.0,,,,0.0,4.0,1.0,4.0,0.0,4.0,41.666668,,,,,,,,,,,,,,,,,,,,,,,,,,,,,,,,,,,,,,,,,,,,,,,,,,,,,,,,,,,,,,,,,,,,,,,,,,,,,,,,,,,,
38098,1645652299.032486,1645652299.031393,88.0,0.0,4279.487305,4568.717772999999,4216.922852000001,4278.461426,4246.666504,450.0,3.0,55.0,,,,0.0,4.0,1.0,4.0,0.0,4.0,41.666668,,,,,,,,44.0,0.0,0.381869,0.544922,0.22607399999999997,-0.711426,0.9560690000000001,-0.09033300000000001,-0.317388,-0.020647,-0.047762,-0.032643,,,,,,,,,,,,,,,,,,,,,,,,,,,,,,,,,,,0.0,0.0,1.0,0.0,512.0,0.96941,,,,,,,,,,,,,,,,,,,,,,,,,
38099,1645652299.040301,1645652299.039208,89.0,0.0,4265.641113000001,4603.077147999999,4218.974121,4278.974121,4232.820313,450.0,3.0,55.0,,,,0.0,4.0,1.0,4.0,0.0,4.0,41.666668,,,,,,,,,,,,,,,,,,,,,,,,,,,,,,,,,,,,,,,,,,,,,,,,,,,,,,,,,,,,,,,,,,,,,,,,,,,,,,,,,,,,
38100,1645652299.048117,1645652299.047022,90.0,0.0,4280.512695,4637.436035,4246.153809,4280.0,4263.077147999999,450.0,3.0,55.0,,,,0.0,4.0,1.0,4.0,0.0,4.0,41.666668,,,,,,,,45.0,0.0,0.382324,0.544922,0.22607399999999997,-0.711182,0.9673,-0.083497,-0.299321,-0.021121,-0.047722,-0.035043,,,,,,,,,,,,,,,,,,,,,,,,,,,,,,,,,,,,,,,,,,,,,,,,,,,,,,,,,,,,,,,,,
38101,1645652299.055932,1645652299.054837,91.0,0.0,4283.077147999999,4606.666504,4234.871582,4280.512695,4256.922852000001,16252.0,3.0,55.0,,,,0.0,4.0,1.0,4.0,0.0,4.0,41.666668,,,,,,,,,,,,,,,,,,,,,,,,,,,,,,,,,,,,,,,,,,,,,,,,,,,,,,,,,,,,,,,,,,,,,,,,,,,,,,,,,,,,
38102,1645652299.0637472,1645652299.0626519,92.0,0.0,4257.94873,4580.512695,4209.230957,4280.0,4213.333496,450.0,3.0,55.0,,,,0.0,4.0,1.0,4.0,0.0,4.0,41.666668,,,,,,,,46.0,0.0,0.381975,0.545166,0.22607399999999997,-0.711182,0.9633940000000001,-0.092287,-0.304692,-0.021450999999999998,-0.047638,-0.030951999999999997,,,,,,,,,,,,,,,,,,,,,,,,,,,,,,,,,,,0.0,0.0,1.0,0.0,512.0,0.96941,,,,,,,,,,,,,,,,,,,,,,,,,
38103,1645652299.0715618,1645652299.070466,93.0,0.0,4249.743652,4588.717772999999,4198.461426,4278.974121,4206.153809,450.0,3.0,55.0,,,,0.0,4.0,1.0,4.0,0.0,4.0,41.666668,,,,,,,,,,,,,,,,,,,,,,,,,,,,,,,,,,,,,,,,,,,,,,,,,,,,,,,,,,,,,,,,,,,,,,,,,,,,,,,,,,,,
38104,1645652299.079377,1645652299.0782812,94.0,0.0,4277.436035,4587.692383,4218.974121,4277.94873,4235.897461,450.0,3.0,55.0,,,,0.0,4.0,1.0,4.0,0.0,4.0,41.666668,,,,,,,,47.0,0.0,0.381975,0.545166,0.22607399999999997,-0.711182,0.9629049999999999,-0.097169,-0.303716,-0.019500999999999998,-0.04761,-0.033569999999999996,,,,,,,,,,,,,,,,,,,,,,,,,,,,,,,,,,,,,,,,,,,,,,,,,,,,,,,,,,,,,,,,,
38105,1645652299.087192,1645652299.086096,95.0,0.0,4280.512695,4589.230957,4220.0,4276.922852000001,4237.94873,16252.0,3.0,55.0,,,,0.0,4.0,1.0,4.0,0.0,4.0,41.666668,,,,,,,,,,,,,,,,,,,,,,,,,,,,,,,,,,,,,,,,,,,,,,,,,,,,,,,,,,,,,,,,,,,,,,,,,,,,,,,,,,,,
38106,1645652299.095008,1645652299.09391,96.0,0.0,4245.128418,4651.794922,4190.256348,4277.94873,4202.563965,450.0,3.0,55.0,,,,0.0,4.0,1.0,4.0,0.0,4.0,41.666668,,,,,,,,48.0,0.0,0.381975,0.545166,0.22607399999999997,-0.711182,0.96144,-0.097169,-0.304692,-0.017746,-0.047682999999999996,-0.035975,,,,,,,,,,,,,,,,,,,,,,,,,,,,,,,,,,,0.0,0.0,1.0,0.0,512.0,0.96941,,,,,,,,,,,,,,,,,,,,,,,,,
38107,1645652299.102823,1645652299.101625,97.0,0.0,4240.0,4693.333496,4163.077147999999,4278.974121,4191.282227000001,450.0,3.0,55.0,,,,0.0,4.0,1.0,4.0,0.0,4.0,41.666668,,,,,,,,,,,,,,,,,,,,,,,,,,,,,,,,,,,,,,,,,,,,,,,,,,,,,,,,,,,,,,,,,,,,,,,,,,,,,,,,,,,,
38108,1645652299.1106381,1645652299.10944,98.0,0.0,4260.512695,4651.282227000001,4191.282227000001,4277.94873,4225.641113000001,450.0,3.0,55.0,,,,0.0,4.0,1.0,4.0,0.0,4.0,41.666668,,,,,,,,49.0,0.0,0.381975,0.545166,0.22607399999999997,-0.711182,0.9633940000000001,-0.092287,-0.304692,-0.018413,-0.047749,-0.037993,,,,,,,,,,,,,,,,,,,,,,,,,,,,,,,,,,,,,,,,,,,,,,,,,,,,,,,,,,,,,,,,,
38109,1645652299.118453,1645652299.117254,99.0,0.0,4270.256348,4646.153809,4210.256348,4278.974121,4262.05127,16252.0,3.0,55.0,,,,0.0,4.0,1.0,4.0,0.0,4.0,41.666668,,,,,,,,,,,,,,,,,,,,,,,,,,,,,,,,,,,,,,,,,,,,,,,,,,,,,,,,,,,,,,,,,,,,,,,,,,,,,,,,,,,,
38110,1645652299.126268,1645652299.125069,100.0,0.0,4270.256348,4674.358886999999,4203.077147999999,4280.0,4255.384765999999,450.0,3.0,55.0,,,,0.0,4.0,1.0,4.0,0.0,4.0,41.666668,,,,,,,,50.0,0.0,0.381975,0.545166,0.22607399999999997,-0.711182,0.96144,-0.097169,-0.304692,-0.016766999999999997,-0.047807999999999996,-0.039955000000000004,1.0,0.0,0.0,,,,,,,,,,,,,,,,,,,,,,,,,,,,,,,,0.0,0.0,1.0,0.0,512.0,1.0,6.469364,5.414778,6.271833999999999,3.2842379999999998,5.06571,42.503784,72.161179,28.512797999999997,46.479465000000005,15.749344,7.9468190000000005,9.038747,3.8820099999999997,3.8967709999999998,12.758446000000001,0.381535,0.042233,0.014533,0.014012,0.025970999999999998,3.7268830000000004,4.0813440000000005,3.310286,2.001086,3.823173
38111,1645652299.134083,1645652299.132884,101.0,0.0,4274.871582,4642.563965,4206.666504,4277.94873,4242.563965,450.0,3.0,55.0,,,,0.0,4.0,1.0,4.0,0.0,4.0,41.666668,,,,,,,,,,,,,,,,,,,,,,,,,,,,,,,,,,,,,,,,,,,,,,,,,,,,,,,,,,,,,,,,,,,,,,,,,,,,,,,,,,,,
38112,1645652299.141899,1645652299.140698,102.0,0.0,4255.384765999999,4636.410156,4201.025879,4278.461426,4233.846191,450.0,3.0,55.0,,,,0.0,4.0,1.0,4.0,0.0,4.0,41.666668,,,,,,,,51.0,0.0,0.381975,0.545166,0.22607399999999997,-0.711182,0.9521629999999999,-0.093263,-0.298833,-0.017629,-0.047764,-0.041673,,,,,,,,,,,,,,,,,,,,,,,,,,,,,,,,,,,,,,,,,,,,,,,,,,,,,,,,,,,,,,,,,
38113,1645652299.149714,1645652299.148513,103.0,0.0,4240.512695,4675.897461,4186.666504,4279.487305,4222.563965,16252.0,3.0,55.0,,,,0.0,4.0,1.0,4.0,0.0,4.0,41.666668,,,,,,,,,,,,,,,,,,,,,,,,,,,,,,,,,,,,,,,,,,,,,,,,,,,,,,,,,,,,,,,,,,,,,,,,,,,,,,,,,,,,
38114,1645652299.1575289,1645652299.156328,104.0,0.0,4236.410156,4627.179688,4191.282227000001,4276.410156,4212.307617,450.0,3.0,55.0,,,,0.0,4.0,1.0,4.0,0.0,4.0,41.666668,,,,,,,,52.0,0.0,0.381975,0.545166,0.22607399999999997,-0.711182,0.9580219999999999,-0.10254100000000001,-0.297856,-0.018405,-0.047773,-0.037017,,,,,,,,,,,,,,,,,,,,,,,,,,,,,,,,,,,0.0,0.0,1.0,0.0,512.0,1.0,,,,,,,,,,,,,,,,,,,,,,,,,
38115,1645652299.165344,1645652299.164142,105.0,0.0,4232.820313,4573.846191,4197.94873,4275.897461,4212.820313,450.0,3.0,55.0,,,,0.0,4.0,1.0,4.0,0.0,4.0,41.666668,,,,,,,,,,,,,,,,,,,,,,,,,,,,,,,,,,,,,,,,,,,,,,,,,,,,,,,,,,,,,,,,,,,,,,,,,,,,,,,,,,,,
38116,1645652299.173159,1645652299.171857,106.0,0.0,4233.846191,4612.820313,4173.846191,4278.461426,4208.717772999999,450.0,3.0,55.0,,,,0.0,4.0,1.0,4.0,0.0,4.0,41.666668,,,,,,,,53.0,0.0,0.38257399999999997,0.545166,0.22583000000000003,-0.710938,0.9673,-0.084962,-0.300786,-0.01676,-0.047682999999999996,-0.039028,,,,,,,,,,,,,,,,,,,,,,,,,,,,,,,,,,,,,,,,,,,,,,,,,,,,,,,,,,,,,,,,,
38117,1645652299.180974,1645652299.179672,107.0,0.0,4259.487305,4604.615234000001,4190.769043,4278.974121,4226.153809,16252.0,3.0,55.0,,,,0.0,4.0,1.0,4.0,0.0,4.0,41.666668,,,,,,,,,,,,,,,,,,,,,,,,,,,,,,,,,,,,,,,,,,,,,,,,,,,,,,,,,,,,,,,,,,,,,,,,,,,,,,,,,,,,
38118,1645652299.1887891,1645652299.187486,108.0,0.0,4289.230957,4563.077147999999,4227.692383,4277.94873,4257.436035,450.0,3.0,55.0,,,,0.0,4.0,1.0,4.0,0.0,4.0,41.666668,,,,,,,,54.0,0.0,0.38257399999999997,0.545166,0.22583000000000003,-0.710938,0.9668120000000001,-0.097169,-0.299809,-0.017623,-0.047651,-0.040741,,,,,,,,,,,,,,,,,,,,,,,,,,,,,,,,,,,0.0,0.0,1.0,0.0,512.0,1.0,,,,,,,,,,,,,,,,,,,,,,,,,
38119,1645652299.196605,1645652299.195301,109.0,0.0,4297.94873,4588.205078,4230.256348,4278.974121,4273.333496,450.0,3.0,55.0,,,,0.0,4.0,1.0,4.0,0.0,4.0,41.666668,,,,,,,,,,,,,,,,,,,,,,,,,,,,,,,,,,,,,,,,,,,,,,,,,,,,,,,,,,,,,,,,,,,,,,,,,,,,,,,,,,,,
38120,1645652299.2044199,1645652299.203116,110.0,0.0,4283.077147999999,4610.769043,4202.05127,4278.974121,4257.94873,450.0,3.0,55.0,,,,0.0,4.0,1.0,4.0,0.0,4.0,41.666668,,,,,,,,55.0,0.0,0.38257399999999997,0.545166,0.22583000000000003,-0.710938,0.960464,-0.106447,-0.30811,-0.0184,-0.047622000000000005,-0.04238,,,,,,,,,,,,,,,,,,,,,,,,,,,,,,,,,,,,,,,,,,,,,,,,,,,,,,,,,,,,,,,,,
38121,1645652299.212235,1645652299.21093,111.0,0.0,4276.410156,4641.538574,4208.717772999999,4277.436035,4241.538574,16252.0,3.0,55.0,,,,0.0,4.0,1.0,4.0,0.0,4.0,41.666668,,,,,,,,,,,,,,,,,,,,,,,,,,,,,,,,,,,,,,,,,,,,,,,,,,,,,,,,,,,,,,,,,,,,,,,,,,,,,,,,,,,,
38122,1645652299.22005,1645652299.218745,112.0,0.0,4272.307617,4693.333496,4200.0,4279.487305,4241.025879,450.0,3.0,55.0,,,,0.0,4.0,1.0,4.0,0.0,4.0,41.666668,,,,,,,,56.0,0.0,0.38257399999999997,0.545166,0.22583000000000003,-0.710938,0.9589989999999999,-0.093263,-0.300298,-0.016755000000000003,-0.047645,-0.037556,,,,,,,,,,,,,,,,,,,,,,,,,,,,,,,,,,,0.0,0.0,1.0,0.0,512.0,1.0,,,,,,,,,,,,,,,,,,,,,,,,,
38123,1645652299.227865,1645652299.226559,113.0,0.0,4260.512695,4657.436035,4196.410156,4281.538574,4244.615234000001,450.0,3.0,55.0,,,,0.0,4.0,1.0,4.0,0.0,4.0,41.666668,,,,,,,,,,,,,,,,,,,,,,,,,,,,,,,,,,,,,,,,,,,,,,,,,,,,,,,,,,,,,,,,,,,,,,,,,,,,,,,,,,,,
38124,1645652299.23568,1645652299.234374,114.0,0.0,4274.358886999999,4583.589844,4211.794922,4279.487305,4250.769043,450.0,3.0,55.0,,,,0.0,4.0,1.0,4.0,0.0,4.0,41.666668,,,,,,,,57.0,0.0,0.38257399999999997,0.545166,0.22583000000000003,-0.710938,0.9560690000000001,-0.095216,-0.298833,-0.015226,-0.047617,-0.039513,,,,,,,,,,,,,,,,,,,,,,,,,,,,,,,,,,,,,,,,,,,,,,,,,,,,,,,,,,,,,,,,,
38125,1645652299.2434962,1645652299.2421892,115.0,0.0,4282.563965,4585.641113000001,4211.794922,4277.436035,4241.025879,16252.0,3.0,55.0,,,,0.0,4.0,1.0,4.0,0.0,4.0,41.666668,,,,,,,,,,,,,,,,,,,,,,,,,,,,,,,,,,,,,,,,,,,,,,,,,,,,,,,,,,,,,,,,,,,,,,,,,,,,,,,,,,,,
38126,1645652299.2513108,1645652299.249903,116.0,0.0,4277.436035,4667.179688,4190.769043,4279.487305,4244.102539,450.0,3.0,55.0,,,,0.0,4.0,1.0,4.0,0.0,4.0,41.666668,1.0,8.333333,3.0,0.0,1.0,0.0,3.0,58.0,0.0,0.38257399999999997,0.545166,0.22583000000000003,-0.710938,0.9585110000000001,-0.10009900000000001,-0.306645,-0.016243,-0.047689999999999996,-0.041177,1.0,0.0,0.0,,,,,,,,,,,,,,,,,,,,,,,,,,,,,,,,0.0,0.0,1.0,0.0,512.0,1.0,10.084759,7.523105999999999,10.556296000000001,4.645995,6.634303999999999,46.289229999999996,72.512199,25.073560999999998,52.297813,18.768328,8.417346,10.292829,4.000536,4.736228,16.036495000000002,0.45638900000000004,0.051444000000000004,0.018129,0.015650999999999998,0.030782,5.681502,4.9757690000000006,4.057225,2.198595,4.422263
38127,1645652299.259126,1645652299.257718,117.0,0.0,4281.025879,4776.410156,4200.512695,4280.512695,4260.512695,450.0,3.0,55.0,,,,0.0,4.0,1.0,4.0,0.0,4.0,41.666668,,,,,,,,,,,,,,,,,,,,,,,,,,,,,,,,,,,,,,,,,,,,,,,,,,,,,,,,,,,,,,,,,,,,,,,,,,,,,,,,,,,,
38128,1645652299.266941,1645652299.265533,118.0,0.0,4285.641113000001,4792.307617,4220.0,4279.487305,4264.102539,450.0,3.0,55.0,,,,0.0,4.0,1.0,4.0,0.0,4.0,41.666668,,,,,,,,59.0,0.0,0.38257399999999997,0.545166,0.22583000000000003,-0.710938,0.96144,-0.098146,-0.302739,-0.017158,-0.047608,-0.036327,,,,,,,,,,,,,,,,,,,,,,,,,,,,,,,,,,,,,,,,,,,,,,,,,,,,,,,,,,,,,,,,,
38129,1645652299.274756,1645652299.2733471,119.0,0.0,4273.333496,4720.0,4208.717772999999,4278.974121,4252.307617,16252.0,3.0,55.0,,,,0.0,4.0,1.0,4.0,0.0,4.0,41.666668,,,,,,,,,,,,,,,,,,,,,,,,,,,,,,,,,,,,,,,,,,,,,,,,,,,,,,,,,,,,,,,,,,,,,,,,,,,,,,,,,,,,
38130,1645652299.282571,1645652299.281162,120.0,0.0,4287.692383,4737.94873,4204.615234000001,4278.461426,4260.512695,450.0,3.0,55.0,,,,0.0,4.0,1.0,4.0,0.0,4.0,41.666668,,,,,,,,60.0,0.0,0.38257399999999997,0.545166,0.22583000000000003,-0.710938,0.961929,-0.09424,-0.303227,-0.017981,-0.047681,-0.038407,,,,,,,,,,,,,,,,,,,,,,,,,,,,,,,,,,,0.0,0.0,1.0,0.0,512.0,1.0,,,,,,,,,,,,,,,,,,,,,,,,,
38131,1645652299.290387,1645652299.288977,121.0,0.0,4296.410156,4788.205078,4198.974121,4279.487305,4251.282227000001,450.0,3.0,55.0,,,,0.0,4.0,1.0,4.0,0.0,4.0,41.666668,,,,,,,,,,,,,,,,,,,,,,,,,,,,,,,,,,,,,,,,,,,,,,,,,,,,,,,,,,,,,,,,,,,,,,,,,,,,,,,,,,,,
38132,1645652299.298202,1645652299.296791,122.0,0.0,4279.487305,4736.410156,4197.436035,4280.0,4233.846191,450.0,3.0,55.0,,,,0.0,4.0,1.0,4.0,0.0,4.0,41.666668,,,,,,,,61.0,0.0,0.382226,0.5454100000000001,0.22583000000000003,-0.710938,0.9716950000000001,-0.09765800000000001,-0.31250500000000003,-0.016475999999999998,-0.047601,-0.040231,,,,,,,,,,,,,,,,,,,,,,,,,,,,,,,,,,,,,,,,,,,,,,,,,,,,,,,,,,,,,,,,,
38133,1645652299.306017,1645652299.304606,123.0,0.0,4284.615234000001,4691.794922,4211.282227000001,4278.974121,4251.794922,16252.0,3.0,55.0,,,,0.0,4.0,1.0,4.0,0.0,4.0,41.666668,,,,,,,,,,,,,,,,,,,,,,,,,,,,,,,,,,,,,,,,,,,,,,,,,,,,,,,,,,,,,,,,,,,,,,,,,,,,,,,,,,,,
38134,1645652299.313832,1645652299.312421,124.0,0.0,4298.974121,4679.487305,4227.692383,4278.974121,4275.384765999999,450.0,3.0,55.0,,,,0.0,4.0,1.0,4.0,0.0,4.0,41.666668,,,,,,,,62.0,0.0,0.382679,0.5454100000000001,0.22583000000000003,-0.710693,0.965347,-0.092775,-0.303716,-0.015072,-0.047479,-0.041921,,,,,,,,,,,,,,,,,,,,,,,,,,,,,,,,,,,0.0,0.0,1.0,0.0,512.0,1.0,,,,,,,,,,,,,,,,,,,,,,,,,
38135,1645652299.3216472,1645652299.3201349,125.0,0.0,4272.307617,4643.077147999999,4203.077147999999,4279.487305,4262.563965,450.0,3.0,55.0,,,,0.0,4.0,0.0,4.0,0.0,4.0,33.333332,,,,,,,,,,,,,,,,,,,,,,,,,,,,,,,,,,,,,,,,,,,,,,,,,,,,,,,,,,,,,,,,,,,,,,,,,,,,,,,,,,,,
38136,1645652299.3294618,1645652299.32795,126.0,0.0,4260.512695,4702.563965,4192.820313,4278.461426,4254.871582,450.0,3.0,55.0,,,,0.0,4.0,0.0,4.0,0.0,4.0,33.333332,,,,,,,,63.0,0.0,0.38237,0.5454100000000001,0.225586,-0.710938,0.965347,-0.08105599999999999,-0.311528,-0.016104,-0.047468,-0.043393,,,,,,,,,,,,,,,,,,,,,,,,,,,,,,,,,,,,,,,,,,,,,,,,,,,,,,,,,,,,,,,,,
38137,1645652299.337278,1645652299.3357651,127.0,0.0,4290.769043,4776.410156,4203.589844,4278.974121,4267.179688,234.0,3.0,55.0,,,,0.0,4.0,0.0,4.0,0.0,4.0,33.333332,,,,,,,,,,,,,,,,,,,,,,,,,,,,,,,,,,,,,,,,,,,,,,,,,,,,,,,,,,,,,,,,,,,,,,,,,,,,,,,,,,,,
38138,1645652299.345093,1645652299.3435788,0.0,0.0,4303.077147999999,4722.563965,4222.05127,4280.512695,4269.230957,450.0,3.0,55.0,,,,0.0,4.0,0.0,4.0,0.0,4.0,33.333332,,,,,,,,0.0,0.0,0.382823,0.5454100000000001,0.225586,-0.710693,0.9663229999999999,-0.092287,-0.300786,-0.017033,-0.047458,-0.044864,,,,,,,,,,,,,,,,,,,,,,,,,,,,,,,,,,,0.0,0.0,1.0,0.0,512.0,1.0,,,,,,,,,,,,,,,,,,,,,,,,,
38139,1645652299.352908,1645652299.351394,1.0,0.0,4280.0,4695.384765999999,4204.102539,4281.025879,4248.717772999999,450.0,3.0,55.0,,,,0.0,4.0,0.0,4.0,0.0,4.0,33.333332,,,,,,,,,,,,,,,,,,,,,,,,,,,,,,,,,,,,,,,,,,,,,,,,,,,,,,,,,,,,,,,,,,,,,,,,,,,,,,,,,,,,
38140,1645652299.360723,1645652299.359209,2.0,0.0,4259.487305,4739.487305,4190.769043,4280.0,4233.333496,16214.0,3.0,55.0,,,,0.0,4.0,0.0,4.0,0.0,4.0,33.333332,,,,,,,,1.0,0.0,0.382823,0.5454100000000001,0.225586,-0.710693,0.973648,-0.103029,-0.303227,-0.015574000000000001,-0.047351,-0.046091,,,,,,,,,,,,,,,,,,,,,,,,,,,,,,,,,,,,,,,,,,,,,,,,,,,,,,,,,,,,,,,,,
38141,1645652299.3685381,1645652299.367023,3.0,0.0,4275.384765999999,4749.743652,4201.025879,4280.0,4252.820313,450.0,3.0,55.0,,,,0.0,4.0,0.0,4.0,0.0,4.0,33.333332,,,,,,,,,,,,,,,,,,,,,,,,,,,,,,,,,,,,,,,,,,,,,,,,,,,,,,,,,,,,,,,,,,,,,,,,,,,,,,,,,,,,
38142,1645652299.376353,1645652299.374838,4.0,0.0,4292.307617,4745.641113000001,4218.461426,4280.512695,4269.743652,0.0,3.0,55.0,,,,0.0,4.0,0.0,4.0,0.0,4.0,33.333332,,,,,,,,2.0,0.0,0.382619,0.545654,0.22534200000000001,-0.710693,0.963882,-0.09424,-0.311528,-0.016409,-0.047352,-0.047292,1.0,0.0,0.0,,,,,,,,,,,,,,,,,,,,,,,,,,,,,,,,0.0,0.0,1.0,0.0,512.0,1.0,14.811539999999999,10.443764,15.995610999999998,6.173268,8.210711,47.928829,65.903824,22.924788,53.083466,20.381222,8.007086,10.56805,4.135979,5.201526,17.522476,0.46974,0.054807,0.020838,0.015791,0.032607,9.176845,5.686454,5.307981,2.371667,4.711716
38143,1645652299.3841689,1645652299.382653,5.0,0.0,4286.666504,4723.589844,4210.769043,4280.0,4260.512695,450.0,3.0,55.0,,,,0.0,4.0,0.0,4.0,0.0,4.0,33.333332,,,,,,,,,,,,,,,,,,,,,,,,,,,,,,,,,,,,,,,,,,,,,,,,,,,,,,,,,,,,,,,,,,,,,,,,,,,,,,,,,,,,
38144,1645652299.391984,1645652299.390467,6.0,0.0,4270.769043,4669.230957,4187.179688,4280.0,4245.641113000001,16135.0,3.0,55.0,,,,0.0,4.0,0.0,4.0,0.0,4.0,33.333332,,,,,,,,3.0,0.0,0.382619,0.545654,0.22534200000000001,-0.710693,0.9643700000000001,-0.099611,-0.31543499999999997,-0.017258000000000003,-0.047304,-0.042026,,,,,,,,,,,,,,,,,,,,,,,,,,,,,,,,,,,,,,,,,,,,,,,,,,,,,,,,,,,,,,,,,
38145,1645652299.399799,1645652299.398182,7.0,0.0,4281.538574,4700.0,4187.179688,4281.025879,4260.0,450.0,3.0,55.0,,,,0.0,4.0,0.0,4.0,0.0,4.0,33.333332,,,,,,,,,,,,,,,,,,,,,,,,,,,,,,,,,,,,,,,,,,,,,,,,,,,,,,,,,,,,,,,,,,,,,,,,,,,,,,,,,,,,
38146,1645652299.407614,1645652299.405997,8.0,0.0,4295.384765999999,4766.153809,4188.205078,4280.0,4265.128418,450.0,3.0,55.0,,,,0.0,4.0,0.0,4.0,0.0,4.0,33.333332,,,,,,,,4.0,0.0,0.382619,0.545654,0.22534200000000001,-0.710693,0.9580219999999999,-0.099611,-0.301762,-0.018072,-0.047359,-0.043634,,,,,,,,,,,,,,,,,,,,,,,,,,,,,,,,,,,0.0,0.0,1.0,0.0,512.0,1.0,,,,,,,,,,,,,,,,,,,,,,,,,
38147,1645652299.4154289,1645652299.413811,9.0,0.0,4296.922852000001,4724.102539,4187.692383,4277.436035,4253.846191,0.0,3.0,55.0,,,,0.0,4.0,0.0,4.0,0.0,4.0,33.333332,,,,,,,,,,,,,,,,,,,,,,,,,,,,,,,,,,,,,,,,,,,,,,,,,,,,,,,,,,,,,,,,,,,,,,,,,,,,,,,,,,,,
38148,1645652299.423244,1645652299.421526,10.0,0.0,4290.769043,4732.307617,4182.05127,4278.461426,4247.179688,450.0,3.0,55.0,,,,0.0,4.0,0.0,4.0,0.0,4.0,33.333332,,,,,,,,5.0,0.0,0.382619,0.545654,0.22534200000000001,-0.710693,0.965835,-0.104005,-0.306645,-0.016362,-0.047408,-0.038733,,,,,,,,,,,,,,,,,,,,,,,,,,,,,,,,,,,,,,,,,,,,,,,,,,,,,,,,,,,,,,,,,
38149,1645652299.431059,1645652299.429341,11.0,0.0,4280.0,4847.692383,4186.153809,4281.025879,4254.358886999999,16219.0,3.0,55.0,,,,0.0,4.0,0.0,4.0,0.0,4.0,33.333332,,,,,,,,,,,,,,,,,,,,,,,,,,,,,,,,,,,,,,,,,,,,,,,,,,,,,,,,,,,,,,,,,,,,,,,,,,,,,,,,,,,,
38150,1645652299.438875,1645652299.437155,12.0,0.0,4268.205078,4843.077147999999,4186.153809,4279.487305,4248.717772999999,450.0,3.0,55.0,,,,0.0,4.0,0.0,4.0,0.0,4.0,33.333332,,,,,,,,6.0,0.0,0.382619,0.545654,0.22534200000000001,-0.710693,0.960952,-0.09424,-0.305669,-0.017166999999999998,-0.04755,-0.040524,,,,,,,,,,,,,,,,,,,,,,,,,,,,,,,,,,,0.0,0.0,1.0,0.0,512.0,1.0,,,,,,,,,,,,,,,,,,,,,,,,,
38151,1645652299.44669,1645652299.44497,13.0,0.0,4275.384765999999,4714.358886999999,4204.615234000001,4278.461426,4253.846191,450.0,3.0,55.0,,,,0.0,4.0,0.0,4.0,0.0,4.0,33.333332,,,,,,,,,,,,,,,,,,,,,,,,,,,,,,,,,,,,,,,,,,,,,,,,,,,,,,,,,,,,,,,,,,,,,,,,,,,,,,,,,,,,
38152,1645652299.454505,1645652299.452785,14.0,0.0,4281.025879,4669.743652,4214.358886999999,4278.974121,4274.358886999999,450.0,3.0,55.0,,,,0.0,4.0,0.0,4.0,0.0,4.0,33.333332,,,,,,,,7.0,0.0,0.382619,0.545654,0.22534200000000001,-0.710693,0.9677879999999999,-0.091798,-0.307134,-0.017843,-0.047532,-0.042087,,,,,,,,,,,,,,,,,,,,,,,,,,,,,,,,,,,,,,,,,,,,,,,,,,,,,,,,,,,,,,,,,
38153,1645652299.4623199,1645652299.460599,15.0,0.0,4268.717772999999,4722.05127,4210.256348,4279.487305,4267.692383,16219.0,3.0,55.0,,,,0.0,4.0,0.0,4.0,0.0,4.0,33.333332,,,,,,,,,,,,,,,,,,,,,,,,,,,,,,,,,,,,,,,,,,,,,,,,,,,,,,,,,,,,,,,,,,,,,,,,,,,,,,,,,,,,
38154,1645652299.470135,1645652299.468414,16.0,0.0,4276.410156,4741.025879,4198.974121,4280.0,4258.461426,0.0,3.0,55.0,,,,0.0,4.0,0.0,4.0,0.0,4.0,33.333332,,,,,,,,8.0,0.0,0.382763,0.545654,0.225098,-0.710693,0.9633940000000001,-0.104494,-0.302739,-0.016205,-0.047563999999999995,-0.04364,,,,,,,,,,,,,,,,,,,,,,,,,,,,,,,,,,,0.0,0.0,1.0,0.0,512.0,1.0,,,,,,,,,,,,,,,,,,,,,,,,,
38155,1645652299.47795,1645652299.476229,17.0,0.0,4303.077147999999,4712.820313,4221.538574,4279.487305,4282.563965,0.0,3.0,55.0,,,,0.0,4.0,0.0,4.0,0.0,4.0,33.333332,,,,,,,,,,,,,,,,,,,,,,,,,,,,,,,,,,,,,,,,,,,,,,,,,,,,,,,,,,,,,,,,,,,,,,,,,,,,,,,,,,,,
38156,1645652299.485766,1645652299.483943,18.0,0.0,4293.846191,4720.512695,4222.05127,4278.974121,4291.282227000001,0.0,3.0,55.0,,,,0.0,4.0,0.0,4.0,0.0,4.0,33.333332,,,,,,,,9.0,0.0,0.382763,0.545654,0.225098,-0.710693,0.9589989999999999,-0.099123,-0.289555,-0.017172999999999997,-0.047689999999999996,-0.044989,,,,,,,,,,,,,,,,,,,,,,,,,,,,,,,,,,,,,,,,,,,,,,,,,,,,,,,,,,,,,,,,,
38157,1645652299.493581,1645652299.491758,19.0,0.0,4266.666504,4741.538574,4202.563965,4280.0,4256.410156,0.0,3.0,55.0,,,,0.0,4.0,0.0,4.0,0.0,4.0,33.333332,,,,,,,,,,,,,,,,,,,,,,,,,,,,,,,,,,,,,,,,,,,,,,,,,,,,,,,,,,,,,,,,,,,,,,,,,,,,,,,,,,,,
38158,1645652299.5013962,1645652299.499573,20.0,0.0,4285.641113000001,4728.205078,4196.410156,4280.0,4241.538574,0.0,3.0,55.0,,,,0.0,4.0,0.0,4.0,0.0,4.0,33.333332,,,,,,,,10.0,0.0,0.382763,0.545654,0.225098,-0.710693,0.9589989999999999,-0.092775,-0.304204,-0.015650999999999998,-0.047804,-0.046106,1.0,0.0,0.0,,,,,,,,,,,,,,,,,,,,,,,,,,,,,,,,0.0,0.0,1.0,0.0,512.0,1.0,19.413563,13.547022,21.2199,7.474585,9.359061,47.798836,53.89809399999999,20.80526,48.945515,20.241388,6.8514029999999995,9.859223,4.3171610000000005,5.159048,16.700317000000002,0.416616,0.050947000000000006,0.022147999999999998,0.014487,0.030670999999999997,13.759610999999998,6.077078,6.907247,2.471892,4.598775
38159,1645652299.5092108,1645652299.507387,21.0,0.0,4284.615234000001,4709.743652,4190.256348,4278.974121,4234.871582,0.0,3.0,55.0,,,,0.0,4.0,0.0,4.0,0.0,4.0,33.333332,,,,,,,,,,,,,,,,,,,,,,,,,,,,,,,,,,,,,,,,,,,,,,,,,,,,,,,,,,,,,,,,,,,,,,,,,,,,,,,,,,,,
38160,1645652299.517026,1645652299.515202,22.0,0.0,4269.230957,4698.461426,4188.717772999999,4279.487305,4235.384765999999,0.0,3.0,55.0,,,,0.0,4.0,0.0,4.0,0.0,4.0,33.333332,,,,,,,,11.0,0.0,0.382763,0.545654,0.225098,-0.710693,0.9550930000000001,-0.086427,-0.303227,-0.016576,-0.047907,-0.047208,,,,,,,,,,,,,,,,,,,,,,,,,,,,,,,,,,,,,,,,,,,,,,,,,,,,,,,,,,,,,,,,,
38161,1645652299.524841,1645652299.523017,23.0,0.0,4302.05127,4706.666504,4218.461426,4280.0,4264.615234000001,0.0,3.0,55.0,,,,0.0,4.0,0.0,4.0,0.0,4.0,33.333332,,,,,,,,,,,,,,,,,,,,,,,,,,,,,,,,,,,,,,,,,,,,,,,,,,,,,,,,,,,,,,,,,,,,,,,,,,,,,,,,,,,,
38162,1645652299.5326571,1645652299.530831,24.0,0.0,4339.487305,4753.333496,4244.615234000001,4279.487305,4287.692383,0.0,3.0,55.0,,,,0.0,4.0,0.0,4.0,0.0,4.0,33.333332,,,,,,,,12.0,0.0,0.382763,0.545654,0.225098,-0.710693,0.9521629999999999,-0.091798,-0.297856,-0.01736,-0.048048,-0.041852,,,,,,,,,,,,,,,,,,,,,,,,,,,,,,,,,,,0.0,0.0,1.0,0.0,512.0,1.0,,,,,,,,,,,,,,,,,,,,,,,,,
38163,1645652299.540472,1645652299.538646,25.0,0.0,4306.666504,4763.589844,4218.974121,4279.487305,4263.589844,0.0,3.0,55.0,,,,0.0,4.0,0.0,4.0,0.0,4.0,33.333332,,,,,,,,,,,,,,,,,,,,,,,,,,,,,,,,,,,,,,,,,,,,,,,,,,,,,,,,,,,,,,,,,,,,,,,,,,,,,,,,,,,,
38164,1645652299.548287,1645652299.54646,26.0,0.0,4282.05127,4701.025879,4213.333496,4278.974121,4263.589844,0.0,3.0,55.0,,,,0.0,4.0,0.0,4.0,0.0,4.0,33.333332,,,,,,,,13.0,0.0,0.382763,0.545654,0.225098,-0.710693,0.9589989999999999,-0.092775,-0.304204,-0.018113999999999998,-0.048076999999999995,-0.037081,,,,,,,,,,,,,,,,,,,,,,,,,,,,,,,,,,,,,,,,,,,,,,,,,,,,,,,,,,,,,,,,,
38165,1645652299.556102,1645652299.554175,27.0,0.0,4304.102539,4715.897461,4223.077147999999,4278.974121,4284.615234000001,0.0,3.0,55.0,,,,0.0,4.0,0.0,4.0,0.0,4.0,33.333332,,,,,,,,,,,,,,,,,,,,,,,,,,,,,,,,,,,,,,,,,,,,,,,,,,,,,,,,,,,,,,,,,,,,,,,,,,,,,,,,,,,,
38166,1645652299.563917,1645652299.56199,28.0,0.0,4302.05127,4739.487305,4215.384765999999,4280.0,4275.384765999999,0.0,3.0,55.0,,,,0.0,4.0,0.0,4.0,0.0,4.0,33.333332,,,,,,,,14.0,0.0,0.382763,0.545654,0.225098,-0.710693,0.9521629999999999,-0.091798,-0.297856,-0.018744,-0.048201,-0.032737999999999996,,,,,,,,,,,,,,,,,,,,,,,,,,,,,,,,,,,0.0,0.0,1.0,0.0,512.0,1.0,,,,,,,,,,,,,,,,,,,,,,,,,
38167,1645652299.571732,1645652299.569804,29.0,0.0,4272.820313,4644.102539,4208.205078,4279.487305,4256.922852000001,0.0,3.0,55.0,,,,0.0,4.0,0.0,4.0,0.0,4.0,33.333332,,,,,,,,,,,,,,,,,,,,,,,,,,,,,,,,,,,,,,,,,,,,,,,,,,,,,,,,,,,,,,,,,,,,,,,,,,,,,,,,,,,,
38168,1645652299.5795481,1645652299.5776188,30.0,0.0,4288.205078,4627.179688,4227.692383,4279.487305,4263.589844,0.0,3.0,55.0,,,,0.0,4.0,0.0,4.0,0.0,4.0,33.333332,,,,,,,,15.0,0.0,0.382763,0.545654,0.225098,-0.710693,0.9707180000000001,-0.104494,-0.298344,-0.019458,-0.048166,-0.035177,,,,,,,,,,,,,,,,,,,,,,,,,,,,,,,,,,,,,,,,,,,,,,,,,,,,,,,,,,,,,,,,,
38169,1645652299.587363,1645652299.585434,31.0,0.0,4309.743652,4737.94873,4216.410156,4280.0,4265.128418,0.0,3.0,55.0,,,,0.0,4.0,0.0,4.0,0.0,4.0,33.333332,,,,,,,,,,,,,,,,,,,,,,,,,,,,,,,,,,,,,,,,,,,,,,,,,,,,,,,,,,,,,,,,,,,,,,,,,,,,,,,,,,,,
38170,1645652299.595178,1645652299.5932481,32.0,0.0,4307.179688,4750.256348,4219.487305,4280.0,4266.153809,0.0,3.0,55.0,,,,0.0,4.0,0.0,4.0,0.0,4.0,33.333332,,,,,,,,16.0,0.0,0.383254,0.5454100000000001,0.224854,-0.710693,0.965835,-0.104494,-0.31250500000000003,-0.020002000000000002,-0.048086000000000004,-0.031074,,,,,,,,,,,,,,,,,,,,,,,,,,,,,,,,,,,0.0,0.0,1.0,0.0,512.0,1.0,,,,,,,,,,,,,,,,,,,,,,,,,
38171,1645652299.602993,1645652299.601063,33.0,0.0,4315.384765999999,4700.0,4235.897461,4280.0,4280.0,0.0,3.0,55.0,,,,0.0,4.0,0.0,4.0,0.0,4.0,33.333332,,,,,,,,,,,,,,,,,,,,,,,,,,,,,,,,,,,,,,,,,,,,,,,,,,,,,,,,,,,,,,,,,,,,,,,,,,,,,,,,,,,,
38172,1645652299.610808,1645652299.608878,34.0,0.0,4305.641113000001,4747.179688,4227.692383,4280.0,4273.846191,0.0,3.0,55.0,,,,0.0,4.0,0.0,4.0,0.0,4.0,33.333332,,,,,,,,17.0,0.0,0.383254,0.5454100000000001,0.224854,-0.710693,0.9487450000000001,-0.102052,-0.30811,-0.020492,-0.04816,-0.033582,,,,,,,,,,,,,,,,,,,,,,,,,,,,,,,,,,,,,,,,,,,,,,,,,,,,,,,,,,,,,,,,,
38173,1645652299.618623,1645652299.616692,35.0,0.0,4281.538574,4765.128418,4197.94873,4280.0,4257.94873,0.0,3.0,55.0,,,,0.0,4.0,0.0,4.0,0.0,4.0,33.333332,,,,,,,,,,,,,,,,,,,,,,,,,,,,,,,,,,,,,,,,,,,,,,,,,,,,,,,,,,,,,,,,,,,,,,,,,,,,,,,,,,,,
38174,1645652299.626439,1645652299.624507,36.0,0.0,4295.384765999999,4702.563965,4204.615234000001,4281.025879,4263.589844,0.0,3.0,55.0,,,,0.0,4.0,0.0,4.0,0.0,4.0,33.333332,,,,,,,,18.0,0.0,0.383254,0.5454100000000001,0.224854,-0.710693,0.9677879999999999,-0.093263,-0.310552,-0.021031,-0.048129000000000005,-0.035937000000000004,1.0,0.0,0.0,,,,,,,,,,,,,,,,,,,,,,,,,,,,,,,,0.0,0.0,1.0,0.0,512.0,1.0,22.577393,15.884248000000001,24.645889,8.151760000000001,9.70632,47.476593,39.520378,18.575533,41.541618,18.675753,5.320376,8.450059,4.532916999999999,4.645949,13.879266000000001,0.315726,0.041143,0.021968,0.012288,0.025649,18.527323000000003,6.109494000000001,8.549088000000001,2.478548,4.133611
38175,1645652299.634254,1645652299.6322222,37.0,0.0,4313.333496,4688.205078,4202.563965,4281.025879,4260.0,0.0,3.0,55.0,,,,0.0,4.0,0.0,4.0,0.0,4.0,33.333332,,,,,,,,,,,,,,,,,,,,,,,,,,,,,,,,,,,,,,,,,,,,,,,,,,,,,,,,,,,,,,,,,,,,,,,,,,,,,,,,,,,,
38176,1645652299.6420689,1645652299.6400359,38.0,0.0,4282.05127,4713.333496,4183.077147999999,4279.487305,4230.769043,0.0,3.0,55.0,,,,0.0,4.0,0.0,4.0,0.0,4.0,33.333332,,,,,,,,19.0,0.0,0.383254,0.5454100000000001,0.224854,-0.710693,0.9633940000000001,-0.10351700000000001,-0.31006300000000003,-0.021369,-0.048102,-0.031806,,,,,,,,,,,,,,,,,,,,,,,,,,,,,,,,,,,,,,,,,,,,,,,,,,,,,,,,,,,,,,,,,
38177,1645652299.649884,1645652299.647851,39.0,0.0,4287.179688,4694.871582,4207.692383,4278.974121,4248.717772999999,0.0,3.0,55.0,,,,0.0,4.0,0.0,4.0,0.0,4.0,33.333332,,,,,,,,,,,,,,,,,,,,,,,,,,,,,,,,,,,,,,,,,,,,,,,,,,,,,,,,,,,,,,,,,,,,,,,,,,,,,,,,,,,,
38178,1645652299.657699,1645652299.655666,40.0,0.0,4321.538574,4672.820313,4243.589844,4279.487305,4291.794922,0.0,3.0,55.0,,,,0.0,4.0,0.0,4.0,0.0,4.0,33.333332,,,,,,,,20.0,0.0,0.38290599999999997,0.545654,0.224854,-0.710693,0.9580219999999999,-0.11621300000000001,-0.317388,-0.019428,-0.048126,-0.034289,,,,,,,,,,,,,,,,,,,,,,,,,,,,,,,,,,,0.0,0.0,1.0,0.0,512.0,1.0,,,,,,,,,,,,,,,,,,,,,,,,,
38179,1645652299.665514,1645652299.66348,41.0,0.0,4316.410156,4663.077147999999,4246.153809,4279.487305,4295.897461,0.0,3.0,55.0,,,,0.0,4.0,0.0,4.0,0.0,4.0,33.333332,,,,,,,,,,,,,,,,,,,,,,,,,,,,,,,,,,,,,,,,,,,,,,,,,,,,,,,,,,,,,,,,,,,,,,,,,,,,,,,,,,,,
38180,1645652299.6733289,1645652299.671295,42.0,0.0,4289.230957,4662.563965,4227.179688,4278.974121,4268.205078,0.0,3.0,55.0,,,,0.0,4.0,0.0,4.0,0.0,4.0,33.333332,,,,,,,,21.0,0.0,0.38290599999999997,0.545654,0.224854,-0.710693,0.963882,-0.103029,-0.31104,-0.020024,-0.048147,-0.036427,,,,,,,,,,,,,,,,,,,,,,,,,,,,,,,,,,,,,,,,,,,,,,,,,,,,,,,,,,,,,,,,,
38181,1645652299.681145,1645652299.67911,43.0,0.0,4295.384765999999,4718.974121,4215.384765999999,4280.512695,4257.436035,0.0,3.0,55.0,,,,0.0,4.0,0.0,4.0,0.0,4.0,33.333332,,,,,,,,,,,,,,,,,,,,,,,,,,,,,,,,,,,,,,,,,,,,,,,,,,,,,,,,,,,,,,,,,,,,,,,,,,,,,,,,,,,,
38182,1645652299.68896,1645652299.686924,44.0,0.0,4310.769043,4724.615234000001,4204.615234000001,4280.0,4251.794922,0.0,3.0,55.0,,,,0.0,4.0,0.0,4.0,0.0,4.0,33.333332,,,,,,,,22.0,0.0,0.383359,0.545654,0.224854,-0.710449,0.96144,-0.10009900000000001,-0.29736799999999997,-0.020413999999999998,-0.048069,-0.032247000000000005,,,,,,,,,,,,,,,,,,,,,,,,,,,,,,,,,,,0.0,0.0,1.0,0.0,512.0,1.0,,,,,,,,,,,,,,,,,,,,,,,,,
38183,1645652299.696775,1645652299.694739,45.0,0.0,4300.512695,4611.282227000001,4222.05127,4277.94873,4254.871582,0.0,3.0,55.0,,,,0.0,4.0,0.0,4.0,0.0,4.0,33.333332,,,,,,,,,,,,,,,,,,,,,,,,,,,,,,,,,,,,,,,,,,,,,,,,,,,,,,,,,,,,,,,,,,,,,,,,,,,,,,,,,,,,
38184,1645652299.70459,1645652299.7024539,46.0,0.0,4264.615234000001,4587.179688,4218.461426,4277.436035,4251.282227000001,0.0,3.0,55.0,,,,0.0,4.0,0.0,4.0,0.0,4.0,33.333332,,,,,,,,23.0,0.0,0.38305,0.545654,0.224609,-0.710693,0.96144,-0.10693499999999999,-0.304204,-0.01847,-0.048096,-0.034687,,,,,,,,,,,,,,,,,,,,,,,,,,,,,,,,,,,,,,,,,,,,,,,,,,,,,,,,,,,,,,,,,
38185,1645652299.712405,1645652299.710268,47.0,0.0,4258.974121,4676.922852000001,4215.897461,4279.487305,4248.205078,0.0,3.0,55.0,,,,0.0,4.0,0.0,4.0,0.0,4.0,33.333332,,,,,,,,,,,,,,,,,,,,,,,,,,,,,,,,,,,,,,,,,,,,,,,,,,,,,,,,,,,,,,,,,,,,,,,,,,,,,,,,,,,,
38186,1645652299.7202199,1645652299.718083,48.0,0.0,4287.179688,4672.820313,4221.025879,4279.487305,4255.897461,0.0,3.0,55.0,,,,0.0,4.0,0.0,4.0,0.0,4.0,33.333332,,,,,,,,24.0,0.0,0.38305,0.545654,0.224609,-0.710693,0.9550930000000001,-0.092287,-0.298344,-0.018918,-0.048072000000000004,-0.030681,,,,,,,,,,,,,,,,,,,,,,,,,,,,,,,,,,,0.0,0.0,1.0,0.0,512.0,1.0,,,,,,,,,,,,,,,,,,,,,,,,,
38187,1645652299.728036,1645652299.725898,49.0,0.0,4308.205078,4656.410156,4225.641113000001,4278.974121,4252.307617,0.0,3.0,55.0,,,,0.0,4.0,0.0,4.0,0.0,4.0,33.333332,,,,,,,,,,,,,,,,,,,,,,,,,,,,,,,,,,,,,,,,,,,,,,,,,,,,,,,,,,,,,,,,,,,,,,,,,,,,,,,,,,,,
38188,1645652299.735851,1645652299.733712,50.0,0.0,4312.820313,4732.307617,4211.794922,4280.0,4248.717772999999,0.0,3.0,55.0,,,,0.0,4.0,0.0,4.0,0.0,4.0,33.333332,,,,,,,,25.0,0.0,0.38305,0.545654,0.224609,-0.710693,0.9555809999999999,-0.097169,-0.301762,-0.017271,-0.048001,-0.033326,,,,,,,,,,,,,,,,,,,,,,,,,,,,,,,,,,,,,,,,,,,,,,,,,,,,,,,,,,,,,,,,,
38189,1645652299.743666,1645652299.7415268,51.0,0.0,4299.487305,4733.846191,4218.461426,4278.974121,4260.512695,0.0,3.0,55.0,,,,0.0,4.0,0.0,4.0,0.0,4.0,33.333332,,,,,,,,,,,,,,,,,,,,,,,,,,,,,,,,,,,,,,,,,,,,,,,,,,,,,,,,,,,,,,,,,,,,,,,,,,,,,,,,,,,,
38190,1645652299.751481,1645652299.749342,52.0,0.0,4310.256348,4686.666504,4229.743652,4277.94873,4288.205078,0.0,3.0,55.0,,,,0.0,4.0,0.0,4.0,0.0,4.0,33.333332,1.0,8.333333,3.0,0.0,1.0,0.0,3.0,26.0,0.0,0.383502,0.545654,0.224609,-0.710449,0.973159,-0.08984500000000001,-0.305669,-0.018034,-0.048035,-0.035657,1.0,0.0,0.0,,,,,,,,,,,,,,,,,,,,,,,,,,,,,,,,0.0,0.0,1.0,0.0,512.0,1.0,23.053316,16.623911,25.140362,7.981578,9.110394,47.927662,26.142412,17.232882999999998,33.279274,16.480864999999998,3.9101449999999995,6.81848,4.71256,3.8412839999999995,10.038986,0.200328,0.028685000000000002,0.020574000000000002,0.009969,0.019292,21.84712,5.830611,9.827148,2.395726,3.477229
38191,1645652299.7592962,1645652299.7571561,53.0,0.0,4325.128418,4695.897461,4230.256348,4279.487305,4293.846191,0.0,3.0,55.0,,,,0.0,4.0,0.0,4.0,0.0,4.0,33.333332,,,,,,,,,,,,,,,,,,,,,,,,,,,,,,,,,,,,,,,,,,,,,,,,,,,,,,,,,,,,,,,,,,,,,,,,,,,,,,,,,,,,
38192,1645652299.7671108,1645652299.764971,54.0,0.0,4311.282227000001,4675.384765999999,4231.794922,4279.487305,4278.974121,0.0,3.0,55.0,,,,0.0,4.0,0.0,4.0,0.0,4.0,33.333332,,,,,,,,27.0,0.0,0.383502,0.545654,0.224609,-0.710449,0.9707180000000001,-0.089357,-0.29102,-0.01877,-0.047968000000000004,-0.031603,,,,,,,,,,,,,,,,,,,,,,,,,,,,,,,,,,,,,,,,,,,,,,,,,,,,,,,,,,,,,,,,,
38193,1645652299.774926,1645652299.772686,55.0,0.0,4302.563965,4672.820313,4233.846191,4278.461426,4277.94873,0.0,3.0,55.0,,,,0.0,4.0,0.0,4.0,0.0,4.0,33.333332,,,,,,,,,,,,,,,,,,,,,,,,,,,,,,,,,,,,,,,,,,,,,,,,,,,,,,,,,,,,,,,,,,,,,,,,,,,,,,,,,,,,
38194,1645652299.782742,1645652299.7805,56.0,0.0,4337.436035,4702.05127,4241.538574,4278.974121,4296.410156,0.0,3.0,55.0,,,,0.0,4.0,0.0,4.0,0.0,4.0,33.333332,,,,,,,,28.0,0.0,0.383502,0.545654,0.224609,-0.710449,0.95314,-0.095705,-0.300786,-0.019383,-0.047907,-0.027857,,,,,,,,,,,,,,,,,,,,,,,,,,,,,,,,,,,0.0,0.0,1.0,0.0,512.0,1.0,,,,,,,,,,,,,,,,,,,,,,,,,
38195,1645652299.7905571,1645652299.788315,57.0,0.0,4323.589844,4665.641113000001,4229.230957,4279.487305,4273.846191,0.0,3.0,55.0,,,,0.0,4.0,0.0,4.0,0.0,4.0,33.333332,,,,,,,,,,,,,,,,,,,,,,,,,,,,,,,,,,,,,,,,,,,,,,,,,,,,,,,,,,,,,,,,,,,,,,,,,,,,,,,,,,,,
38196,1645652299.798372,1645652299.7961302,58.0,0.0,4280.0,4645.128418,4230.256348,4278.461426,4255.384765999999,0.0,3.0,55.0,,,,0.0,4.0,0.0,4.0,0.0,4.0,33.333332,,,,,,,,29.0,0.0,0.38364499999999996,0.545654,0.224365,-0.710449,0.957046,-0.096193,-0.31104,-0.019934999999999998,-0.047902,-0.024485,,,,,,,,,,,,,,,,,,,,,,,,,,,,,,,,,,,,,,,,,,,,,,,,,,,,,,,,,,,,,,,,,
38197,1645652299.806187,1645652299.8039439,59.0,0.0,4303.077147999999,4675.897461,4252.307617,4279.487305,4279.487305,0.0,3.0,55.0,,,,0.0,4.0,0.0,4.0,0.0,4.0,33.333332,,,,,,,,,,,,,,,,,,,,,,,,,,,,,,,,,,,,,,,,,,,,,,,,,,,,,,,,,,,,,,,,,,,,,,,,,,,,,,,,,,,,
38198,1645652299.814002,1645652299.811759,60.0,0.0,4345.128418,4675.384765999999,4264.102539,4281.025879,4301.025879,0.0,3.0,55.0,,,,0.0,4.0,0.0,4.0,0.0,4.0,33.333332,,,,,,,,30.0,0.0,0.383502,0.545654,0.224609,-0.710449,0.9741360000000001,-0.089357,-0.321294,-0.018186,-0.04775,-0.027701,,,,,,,,,,,,,,,,,,,,,,,,,,,,,,,,,,,0.0,0.0,1.0,0.0,512.0,1.0,,,,,,,,,,,,,,,,,,,,,,,,,
38199,1645652299.821817,1645652299.8195732,61.0,0.0,4319.487305,4711.794922,4212.820313,4281.025879,4265.641113000001,0.0,3.0,55.0,,,,0.0,4.0,0.0,4.0,0.0,4.0,33.333332,,,,,,,,,,,,,,,,,,,,,,,,,,,,,,,,,,,,,,,,,,,,,,,,,,,,,,,,,,,,,,,,,,,,,,,,,,,,,,,,,,,,
38200,1645652299.829632,1645652299.827388,62.0,0.0,4284.615234000001,4758.974121,4183.589844,4280.0,4231.794922,0.0,3.0,55.0,,,,0.0,4.0,0.0,4.0,0.0,4.0,33.333332,,,,,,,,31.0,0.0,0.383502,0.545654,0.224609,-0.710449,0.9673,-0.101076,-0.307622,-0.018857,-0.047858,-0.024345,,,,,,,,,,,,,,,,,,,,,,,,,,,,,,,,,,,,,,,,,,,,,,,,,,,,,,,,,,,,,,,,,
38201,1645652299.8374481,1645652299.8353028,63.0,0.0,4301.538574,4668.205078,4215.897461,4278.974121,4256.922852000001,0.0,3.0,55.0,,,,0.0,4.0,0.0,4.0,0.0,4.0,33.333332,,,,,,,,,,,,,,,,,,,,,,,,,,,,,,,,,,,,,,,,,,,,,,,,,,,,,,,,,,,,,,,,,,,,,,,,,,,,,,,,,,,,
38202,1645652299.845263,1645652299.843118,64.0,0.0,4329.743652,4578.461426,4256.410156,4278.974121,4301.025879,450.0,3.0,55.0,,,,0.0,4.0,0.0,4.0,0.0,4.0,33.333332,,,,,,,,32.0,0.0,0.38364499999999996,0.545654,0.224365,-0.710449,0.959976,-0.095705,-0.31104,-0.017216,-0.047858,-0.021373,,,,,,,,,,,,,,,,,,,,,,,,,,,,,,,,,,,0.0,0.0,1.0,0.0,512.0,1.0,,,,,,,,,,,,,,,,,,,,,,,,,
38203,1645652299.853078,1645652299.850933,65.0,0.0,4314.358886999999,4634.358886999999,4223.077147999999,4280.0,4294.871582,450.0,3.0,55.0,,,,0.0,4.0,0.0,4.0,0.0,4.0,33.333332,,,,,,,,,,,,,,,,,,,,,,,,,,,,,,,,,,,,,,,,,,,,,,,,,,,,,,,,,,,,,,,,,,,,,,,,,,,,,,,,,,,,
38204,1645652299.860893,1645652299.858748,66.0,0.0,4285.128418,4703.589844,4197.436035,4279.487305,4254.871582,16237.0,3.0,55.0,,,,0.0,4.0,0.0,4.0,0.0,4.0,33.333332,,,,,,,,33.0,0.0,0.383298,0.545898,0.224365,-0.710449,0.96144,-0.09765800000000001,-0.29736799999999997,-0.015688999999999998,-0.047758999999999996,-0.024998,,,,,,,,,,,,,,,,,,,,,,,,,,,,,,,,,,,,,,,,,,,,,,,,,,,,,,,,,,,,,,,,,
38205,1645652299.868708,1645652299.866562,67.0,0.0,4306.153809,4708.205078,4218.461426,4278.974121,4261.025879,450.0,3.0,55.0,,,,0.0,4.0,0.0,4.0,0.0,4.0,33.333332,,,,,,,,,,,,,,,,,,,,,,,,,,,,,,,,,,,,,,,,,,,,,,,,,,,,,,,,,,,,,,,,,,,,,,,,,,,,,,,,,,,,
38206,1645652299.876523,1645652299.874377,68.0,0.0,4332.820313,4719.487305,4235.897461,4279.487305,4283.589844,10.0,3.0,55.0,,,,0.0,4.0,0.0,4.0,0.0,4.0,33.333332,,,,,,,,34.0,0.0,0.383298,0.545898,0.224365,-0.710449,0.9643700000000001,-0.107424,-0.307134,-0.014218000000000001,-0.047818,-0.028260000000000004,1.0,0.0,0.0,,,,,,,,,,,,,,,,,,,,,,,,,,,,,,,,0.0,0.0,1.0,0.0,512.0,1.0,20.747957,15.409006,22.572292,7.030900999999999,7.736452000000001,49.068092,16.521088,17.756214,26.278057,14.538567,2.9379459999999997,5.355446,4.744944,2.9762060000000004,6.357037999999999,0.10277,0.017348,0.018424,0.00818,0.013537,22.726851999999997,5.3155269999999994,10.367462,2.237905,2.824468
38207,1645652299.884339,1645652299.882192,69.0,0.0,4325.128418,4684.102539,4231.794922,4279.487305,4271.282227000001,450.0,3.0,55.0,,,,0.0,4.0,0.0,4.0,0.0,4.0,33.333332,,,,,,,,,,,,,,,,,,,,,,,,,,,,,,,,,,,,,,,,,,,,,,,,,,,,,,,,,,,,,,,,,,,,,,,,,,,,,,,,,,,,
38208,1645652299.892154,1645652299.890007,70.0,0.0,4309.230957,4573.333496,4232.307617,4277.94873,4249.743652,16166.0,3.0,55.0,,,,0.0,4.0,0.0,4.0,0.0,4.0,33.333332,,,,,,,,35.0,0.0,0.383298,0.545898,0.224365,-0.710449,0.9589989999999999,-0.09668099999999999,-0.29736799999999997,-0.015335,-0.047772,-0.024897,,,,,,,,,,,,,,,,,,,,,,,,,,,,,,,,,,,,,,,,,,,,,,,,,,,,,,,,,,,,,,,,,
38209,1645652299.8999689,1645652299.8978221,71.0,0.0,4330.769043,4574.358886999999,4246.153809,4278.974121,4276.410156,450.0,3.0,55.0,,,,0.0,4.0,0.0,4.0,0.0,4.0,33.333332,,,,,,,,,,,,,,,,,,,,,,,,,,,,,,,,,,,,,,,,,,,,,,,,,,,,,,,,,,,,,,,,,,,,,,,,,,,,,,,,,,,,
38210,1645652299.907784,1645652299.905637,72.0,0.0,4335.384765999999,4684.102539,4243.589844,4281.025879,4300.512695,450.0,3.0,55.0,,,,0.0,4.0,0.0,4.0,0.0,4.0,33.333332,,,,,,,,36.0,0.0,0.383298,0.545898,0.224365,-0.710449,0.956558,-0.100587,-0.304204,-0.016291999999999997,-0.047829,-0.02812,,,,,,,,,,,,,,,,,,,,,,,,,,,,,,,,,,,0.0,0.0,1.0,0.0,512.0,1.0,,,,,,,,,,,,,,,,,,,,,,,,,
38211,1645652299.915599,1645652299.913452,73.0,0.0,4313.846191,4666.153809,4240.0,4280.512695,4284.615234000001,0.0,3.0,55.0,,,,0.0,4.0,0.0,4.0,0.0,4.0,33.333332,,,,,,,,,,,,,,,,,,,,,,,,,,,,,,,,,,,,,,,,,,,,,,,,,,,,,,,,,,,,,,,,,,,,,,,,,,,,,,,,,,,,
38212,1645652299.923414,1645652299.921166,74.0,0.0,4316.922852000001,4592.307617,4235.384765999999,4278.461426,4276.922852000001,450.0,3.0,55.0,,,,0.0,4.0,0.0,4.0,0.0,4.0,33.333332,,,,,,,,37.0,0.0,0.383298,0.545898,0.224365,-0.710449,0.956558,-0.091798,-0.307622,-0.014761000000000002,-0.04788,-0.03107,,,,,,,,,,,,,,,,,,,,,,,,,,,,,,,,,,,,,,,,,,,,,,,,,,,,,,,,,,,,,,,,,
38213,1645652299.9312289,1645652299.928981,75.0,0.0,4328.205078,4687.692383,4225.128418,4278.461426,4286.666504,16226.0,3.0,55.0,,,,0.0,4.0,0.0,4.0,0.0,4.0,33.333332,,,,,,,,,,,,,,,,,,,,,,,,,,,,,,,,,,,,,,,,,,,,,,,,,,,,,,,,,,,,,,,,,,,,,,,,,,,,,,,,,,,,
38214,1645652299.939045,1645652299.9367962,76.0,0.0,4307.692383,4773.333496,4193.333496,4279.487305,4256.922852000001,450.0,3.0,55.0,,,,0.0,4.0,0.0,4.0,0.0,4.0,33.333332,,,,,,,,38.0,0.0,0.383298,0.545898,0.224365,-0.710449,0.961929,-0.098634,-0.299321,-0.015677,-0.047975,-0.033725,,,,,,,,,,,,,,,,,,,,,,,,,,,,,,,,,,,0.0,0.0,1.0,0.0,512.0,1.0,,,,,,,,,,,,,,,,,,,,,,,,,
38215,1645652299.94686,1645652299.9446099,77.0,0.0,4303.589844,4712.307617,4198.461426,4280.0,4236.922852000001,450.0,3.0,55.0,,,,0.0,4.0,0.0,4.0,0.0,4.0,33.333332,,,,,,,,,,,,,,,,,,,,,,,,,,,,,,,,,,,,,,,,,,,,,,,,,,,,,,,,,,,,,,,,,,,,,,,,,,,,,,,,,,,,
38216,1645652299.954675,1645652299.952425,78.0,0.0,4312.307617,4622.563965,4216.410156,4278.461426,4253.846191,450.0,3.0,55.0,,,,0.0,4.0,0.0,4.0,0.0,4.0,33.333332,,,,,,,,39.0,0.0,0.383298,0.545898,0.224365,-0.710449,0.951675,-0.10351700000000001,-0.304692,-0.0166,-0.047865,-0.036065,,,,,,,,,,,,,,,,,,,,,,,,,,,,,,,,,,,,,,,,,,,,,,,,,,,,,,,,,,,,,,,,,
38217,1645652299.96249,1645652299.9602401,79.0,0.0,4294.358886999999,4595.384765999999,4220.0,4277.94873,4256.922852000001,16226.0,3.0,55.0,,,,0.0,4.0,0.0,4.0,0.0,4.0,33.333332,,,,,,,,,,,,,,,,,,,,,,,,,,,,,,,,,,,,,,,,,,,,,,,,,,,,,,,,,,,,,,,,,,,,,,,,,,,,,,,,,,,,
38218,1645652299.970305,1645652299.9680538,80.0,0.0,4292.820313,4654.358886999999,4216.922852000001,4280.512695,4257.436035,450.0,3.0,55.0,,,,0.0,4.0,0.0,4.0,0.0,4.0,33.333332,,,,,,,,40.0,0.0,0.383298,0.545898,0.224365,-0.710449,0.956558,-0.091798,-0.307622,-0.017478999999999998,-0.047962,-0.031922000000000006,,,,,,,,,,,,,,,,,,,,,,,,,,,,,,,,,,,0.0,0.0,1.0,0.0,512.0,1.0,,,,,,,,,,,,,,,,,,,,,,,,,
38219,1645652299.9781199,1645652299.975869,81.0,0.0,4313.846191,4695.384765999999,4232.307617,4280.0,4267.692383,450.0,3.0,55.0,,,,0.0,4.0,0.0,4.0,0.0,4.0,33.333332,,,,,,,,,,,,,,,,,,,,,,,,,,,,,,,,,,,,,,,,,,,,,,,,,,,,,,,,,,,,,,,,,,,,,,,,,,,,,,,,,,,,
38220,1645652299.985936,1645652299.983684,82.0,0.0,4321.025879,4657.436035,4231.794922,4278.974121,4270.769043,450.0,3.0,55.0,,,,0.0,4.0,0.0,4.0,0.0,4.0,33.333332,,,,,,,,41.0,0.0,0.383298,0.545898,0.224365,-0.710449,0.951675,-0.10351700000000001,-0.304692,-0.018221,-0.047853,-0.034442,,,,,,,,,,,,,,,,,,,,,,,,,,,,,,,,,,,,,,,,,,,,,,,,,,,,,,,,,,,,,,,,,
38221,1645652299.993751,1645652299.991398,83.0,0.0,4317.94873,4623.077147999999,4242.05127,4279.487305,4267.179688,16226.0,3.0,55.0,,,,0.0,4.0,0.0,4.0,0.0,4.0,33.333332,,,,,,,,,,,,,,,,,,,,,,,,,,,,,,,,,,,,,,,,,,,,,,,,,,,,,,,,,,,,,,,,,,,,,,,,,,,,,,,,,,,,
38222,1645652300.001566,1645652299.999213,84.0,0.0,4314.358886999999,4651.794922,4235.384765999999,4280.0,4265.641113000001,450.0,3.0,55.0,,,,0.0,4.0,0.0,4.0,0.0,4.0,33.333332,,,,,,,,42.0,0.0,0.383298,0.545898,0.224365,-0.710449,0.957046,-0.099611,-0.295903,-0.018889,-0.047853,-0.036808999999999995,1.0,0.0,0.0,,,,,,,,,,,,,,,,,,,,,,,,,,,,,,,,0.0,0.0,1.0,0.0,512.0,1.0,16.318872,12.565043,17.847906,5.596822,5.995362,49.480442,11.809771000000001,20.385282999999998,21.490251999999998,13.401434,2.436648,4.264473000000001,4.598116,2.2559720000000003,3.684497,0.041018,0.009742,0.015891,0.007178,0.009631,20.74369,4.673307,10.034244000000001,2.04311,2.321142
38223,1645652300.009381,1645652300.0070279,85.0,0.0,4290.769043,4693.846191,4206.153809,4278.461426,4248.717772999999,450.0,3.0,55.0,,,,0.0,4.0,0.0,4.0,0.0,4.0,33.333332,,,,,,,,,,,,,,,,,,,,,,,,,,,,,,,,,,,,,,,,,,,,,,,,,,,,,,,,,,,,,,,,,,,,,,,,,,,,,,,,,,,,
38224,1645652300.0171962,1645652300.014842,86.0,0.0,4293.333496,4698.461426,4217.94873,4278.461426,4250.256348,450.0,3.0,55.0,,,,0.0,4.0,0.0,4.0,0.0,4.0,33.333332,,,,,,,,43.0,0.0,0.38375,0.545898,0.224365,-0.710205,0.963882,-0.107912,-0.298833,-0.019441999999999997,-0.047853,-0.032591,,,,,,,,,,,,,,,,,,,,,,,,,,,,,,,,,,,,,,,,,,,,,,,,,,,,,,,,,,,,,,,,,
38225,1645652300.0250108,1645652300.022657,87.0,0.0,4311.794922,4622.563965,4254.358886999999,4279.487305,4266.153809,16226.0,3.0,55.0,,,,0.0,4.0,0.0,4.0,0.0,4.0,33.333332,,,,,,,,,,,,,,,,,,,,,,,,,,,,,,,,,,,,,,,,,,,,,,,,,,,,,,,,,,,,,,,,,,,,,,,,,,,,,,,,,,,,
38226,1645652300.032827,1645652300.030472,88.0,0.0,4310.769043,4558.974121,4260.0,4279.487305,4268.205078,450.0,3.0,55.0,,,,0.0,4.0,0.0,4.0,0.0,4.0,33.333332,,,,,,,,44.0,0.0,0.38375,0.545898,0.224365,-0.710205,0.965347,-0.092287,-0.302739,-0.020037,-0.047804,-0.035093,,,,,,,,,,,,,,,,,,,,,,,,,,,,,,,,,,,0.0,0.0,1.0,0.0,512.0,1.0,,,,,,,,,,,,,,,,,,,,,,,,,
38227,1645652300.040642,1645652300.038286,89.0,0.0,4301.538574,4637.94873,4234.871582,4278.974121,4263.077147999999,450.0,3.0,55.0,,,,0.0,4.0,0.0,4.0,0.0,4.0,33.333332,,,,,,,,,,,,,,,,,,,,,,,,,,,,,,,,,,,,,,,,,,,,,,,,,,,,,,,,,,,,,,,,,,,,,,,,,,,,,,,,,,,,
38228,1645652300.0484571,1645652300.046101,90.0,0.0,4323.077147999999,4724.102539,4224.102539,4278.974121,4274.871582,450.0,3.0,55.0,,,,0.0,4.0,0.0,4.0,0.0,4.0,33.333332,,,,,,,,45.0,0.0,0.38375,0.545898,0.224365,-0.710205,0.9560690000000001,-0.098634,-0.303716,-0.020669999999999997,-0.047809,-0.031096,,,,,,,,,,,,,,,,,,,,,,,,,,,,,,,,,,,,,,,,,,,,,,,,,,,,,,,,,,,,,,,,,
38229,1645652300.056272,1645652300.053816,91.0,0.0,4337.436035,4694.358886999999,4211.794922,4279.487305,4272.820313,16226.0,3.0,55.0,,,,0.0,4.0,0.0,4.0,0.0,4.0,33.333332,,,,,,,,,,,,,,,,,,,,,,,,,,,,,,,,,,,,,,,,,,,,,,,,,,,,,,,,,,,,,,,,,,,,,,,,,,,,,,,,,,,,
38230,1645652300.064087,1645652300.06163,92.0,0.0,4332.820313,4616.922852000001,4230.256348,4278.974121,4282.05127,450.0,3.0,55.0,,,,0.0,4.0,0.0,4.0,0.0,4.0,33.333332,,,,,,,,46.0,0.0,0.383402,0.546143,0.224365,-0.710205,0.973159,-0.10009900000000001,-0.303716,-0.021141999999999998,-0.047911,-0.027449,,,,,,,,,,,,,,,,,,,,,,,,,,,,,,,,,,,0.0,0.0,1.0,0.0,512.0,1.0,,,,,,,,,,,,,,,,,,,,,,,,,
38231,1645652300.071902,1645652300.069445,93.0,0.0,4332.307617,4612.820313,4249.743652,4280.0,4303.589844,450.0,3.0,55.0,,,,0.0,4.0,0.0,4.0,0.0,4.0,33.333332,,,,,,,,,,,,,,,,,,,,,,,,,,,,,,,,,,,,,,,,,,,,,,,,,,,,,,,,,,,,,,,,,,,,,,,,,,,,,,,,,,,,
38232,1645652300.0797179,1645652300.07726,94.0,0.0,4342.05127,4650.769043,4255.384765999999,4279.487305,4311.794922,450.0,3.0,55.0,,,,0.0,4.0,0.0,4.0,0.0,4.0,33.333332,,,,,,,,47.0,0.0,0.383892,0.545898,0.22412100000000001,-0.710205,0.96144,-0.10009900000000001,-0.29688000000000003,-0.019223,-0.047954000000000004,-0.030368,,,,,,,,,,,,,,,,,,,,,,,,,,,,,,,,,,,,,,,,,,,,,,,,,,,,,,,,,,,,,,,,,
38233,1645652300.087533,1645652300.085074,95.0,0.0,4343.077147999999,4655.384765999999,4236.410156,4277.94873,4303.589844,16226.0,3.0,55.0,,,,0.0,4.0,0.0,4.0,0.0,4.0,33.333332,,,,,,,,,,,,,,,,,,,,,,,,,,,,,,,,,,,,,,,,,,,,,,,,,,,,,,,,,,,,,,,,,,,,,,,,,,,,,,,,,,,,
38234,1645652300.0953481,1645652300.092889,96.0,0.0,4335.897461,4633.846191,4222.05127,4278.461426,4274.871582,450.0,3.0,55.0,,,,0.0,4.0,0.0,4.0,0.0,4.0,33.333332,,,,,,,,48.0,0.0,0.383892,0.545898,0.22412100000000001,-0.710205,0.964858,-0.08838,-0.300786,-0.017398,-0.047944,-0.032996,,,,,,,,,,,,,,,,,,,,,,,,,,,,,,,,,,,0.0,0.0,1.0,0.0,512.0,1.0,,,,,,,,,,,,,,,,,,,,,,,,,
38235,1645652300.103163,1645652300.100704,97.0,0.0,4332.820313,4616.410156,4210.769043,4280.0,4259.487305,450.0,3.0,55.0,,,,0.0,4.0,0.0,4.0,0.0,4.0,33.333332,,,,,,,,,,,,,,,,,,,,,,,,,,,,,,,,,,,,,,,,,,,,,,,,,,,,,,,,,,,,,,,,,,,,,,,,,,,,,,,,,,,,
38236,1645652300.110978,1645652300.108518,98.0,0.0,4336.922852000001,4667.179688,4242.05127,4278.974121,4297.94873,450.0,3.0,55.0,,,,0.0,4.0,0.0,4.0,0.0,4.0,33.333332,,,,,,,,49.0,0.0,0.38375,0.545898,0.224365,-0.710205,0.9663229999999999,-0.087404,-0.306157,-0.018247,-0.047886,-0.029110000000000004,,,,,,,,,,,,,,,,,,,,,,,,,,,,,,,,,,,,,,,,,,,,,,,,,,,,,,,,,,,,,,,,,
38237,1645652300.118793,1645652300.116333,99.0,0.0,4348.205078,4715.897461,4274.358886999999,4278.461426,4332.307617,16226.0,3.0,55.0,,,,0.0,4.0,0.0,4.0,0.0,4.0,33.333332,,,,,,,,,,,,,,,,,,,,,,,,,,,,,,,,,,,,,,,,,,,,,,,,,,,,,,,,,,,,,,,,,,,,,,,,,,,,,,,,,,,,
38238,1645652300.126608,1645652300.1241472,100.0,0.0,4325.641113000001,4633.846191,4255.897461,4280.0,4295.384765999999,450.0,3.0,55.0,,,,0.0,4.0,0.0,4.0,0.0,4.0,33.333332,,,,,,,,50.0,0.0,0.383892,0.545898,0.22412100000000001,-0.710205,0.968765,-0.104005,-0.313481,-0.018961000000000002,-0.047882,-0.025711,1.0,0.0,0.0,,,,,,,,,,,,,,,,,,,,,,,,,,,,,,,,0.0,0.0,1.0,0.0,512.0,1.0,11.216754,8.952943,12.499238,4.080555,4.369564,47.653687,11.093924000000001,24.487434,18.716824,13.179186999999999,2.2035299999999998,3.5507730000000004,4.290883999999999,1.784002,2.258055,0.014039,0.006196,0.01317,0.006848999999999999,0.0077150000000000005,16.570823999999998,4.029204,8.970613,1.8553849999999998,2.021272
38239,1645652300.134424,1645652300.131862,101.0,0.0,4302.563965,4585.641113000001,4217.436035,4279.487305,4267.179688,450.0,3.0,55.0,,,,0.0,4.0,0.0,4.0,0.0,4.0,33.333332,,,,,,,,,,,,,,,,,,,,,,,,,,,,,,,,,,,,,,,,,,,,,,,,,,,,,,,,,,,,,,,,,,,,,,,,,,,,,,,,,,,,
38240,1645652300.142239,1645652300.139677,102.0,0.0,4316.922852000001,4723.589844,4220.0,4279.487305,4284.615234000001,450.0,3.0,55.0,,,,0.0,4.0,0.0,4.0,0.0,4.0,33.333332,,,,,,,,51.0,0.0,0.383892,0.545898,0.22412100000000001,-0.710205,0.9643700000000001,-0.093751,-0.300298,-0.019555,-0.047928,-0.028755000000000003,,,,,,,,,,,,,,,,,,,,,,,,,,,,,,,,,,,,,,,,,,,,,,,,,,,,,,,,,,,,,,,,,
38241,1645652300.150054,1645652300.147492,103.0,0.0,4347.179688,4749.743652,4252.820313,4280.0,4304.615234000001,16226.0,3.0,55.0,,,,0.0,4.0,0.0,4.0,0.0,4.0,33.333332,,,,,,,,,,,,,,,,,,,,,,,,,,,,,,,,,,,,,,,,,,,,,,,,,,,,,,,,,,,,,,,,,,,,,,,,,,,,,,,,,,,,
38242,1645652300.1578689,1645652300.155306,104.0,0.0,4340.0,4621.025879,4248.717772999999,4278.974121,4295.384765999999,450.0,3.0,55.0,,,,0.0,4.0,0.0,4.0,0.0,4.0,33.333332,,,,,,,,52.0,0.0,0.383892,0.545898,0.22412100000000001,-0.710205,0.9629049999999999,-0.112795,-0.307622,-0.017844,-0.047872000000000005,-0.031641,,,,,,,,,,,,,,,,,,,,,,,,,,,,,,,,,,,0.0,0.0,1.0,0.0,512.0,1.0,,,,,,,,,,,,,,,,,,,,,,,,,
38243,1645652300.165684,1645652300.163121,105.0,0.0,4329.230957,4638.461426,4230.256348,4278.974121,4290.769043,450.0,3.0,55.0,,,,0.0,4.0,0.0,4.0,0.0,4.0,33.333332,,,,,,,,,,,,,,,,,,,,,,,,,,,,,,,,,,,,,,,,,,,,,,,,,,,,,,,,,,,,,,,,,,,,,,,,,,,,,,,,,,,,
38244,1645652300.173499,1645652300.170935,106.0,0.0,4336.922852000001,4708.205078,4230.769043,4280.0,4296.410156,450.0,3.0,55.0,,,,0.0,4.0,0.0,4.0,0.0,4.0,33.333332,,,,,,,,53.0,0.0,0.383892,0.545898,0.22412100000000001,-0.710205,0.9560690000000001,-0.102052,-0.31250500000000003,-0.018696,-0.047967,-0.03419,,,,,,,,,,,,,,,,,,,,,,,,,,,,,,,,,,,,,,,,,,,,,,,,,,,,,,,,,,,,,,,,,
38245,1645652300.181315,1645652300.17875,107.0,0.0,4353.846191,4672.820313,4245.641113000001,4279.487305,4309.743652,16226.0,3.0,55.0,,,,0.0,4.0,0.0,4.0,0.0,4.0,33.333332,,,,,,,,,,,,,,,,,,,,,,,,,,,,,,,,,,,,,,,,,,,,,,,,,,,,,,,,,,,,,,,,,,,,,,,,,,,,,,,,,,,,
38246,1645652300.18913,1645652300.186565,108.0,0.0,4347.692383,4639.487305,4221.025879,4278.461426,4292.820313,450.0,3.0,55.0,,,,0.0,4.0,0.0,4.0,0.0,4.0,33.333332,,,,,,,,54.0,0.0,0.383892,0.545898,0.22412100000000001,-0.710205,0.9677879999999999,-0.109865,-0.30811,-0.019366,-0.047858,-0.036387,,,,,,,,,,,,,,,,,,,,,,,,,,,,,,,,,,,0.0,0.0,1.0,0.0,512.0,1.0,,,,,,,,,,,,,,,,,,,,,,,,,
38247,1645652300.196945,1645652300.1943789,109.0,0.0,4320.512695,4656.922852000001,4209.743652,4278.974121,4278.974121,450.0,3.0,55.0,,,,0.0,4.0,0.0,4.0,0.0,4.0,33.333332,,,,,,,,,,,,,,,,,,,,,,,,,,,,,,,,,,,,,,,,,,,,,,,,,,,,,,,,,,,,,,,,,,,,,,,,,,,,,,,,,,,,
38248,1645652300.20476,1645652300.2020938,110.0,0.0,4293.846191,4670.769043,4220.0,4279.487305,4285.128418,450.0,3.0,55.0,,,,0.0,4.0,0.0,4.0,0.0,4.0,33.333332,,,,,,,,55.0,0.0,0.383892,0.545898,0.22412100000000001,-0.710205,0.957046,-0.102052,-0.299321,-0.019968,-0.047906,-0.038363,,,,,,,,,,,,,,,,,,,,,,,,,,,,,,,,,,,,,,,,,,,,,,,,,,,,,,,,,,,,,,,,,
38249,1645652300.212575,1645652300.209909,111.0,0.0,4302.563965,4720.0,4225.641113000001,4278.974121,4275.897461,16226.0,3.0,55.0,,,,0.0,4.0,0.0,4.0,0.0,4.0,33.333332,,,,,,,,,,,,,,,,,,,,,,,,,,,,,,,,,,,,,,,,,,,,,,,,,,,,,,,,,,,,,,,,,,,,,,,,,,,,,,,,,,,,
38250,1645652300.22039,1645652300.2177231,112.0,0.0,4333.333496,4773.333496,4204.615234000001,4277.94873,4267.692383,450.0,3.0,55.0,,,,0.0,4.0,0.0,4.0,0.0,4.0,33.333332,,,,,,,,56.0,0.0,0.383892,0.545898,0.22412100000000001,-0.710205,0.9643700000000001,-0.099611,-0.30225100000000005,-0.020559,-0.048048,-0.033843,,,,,,,,,,,,,,,,,,,,,,,,,,,,,,,,,,,0.0,0.0,1.0,0.0,512.0,1.0,,,,,,,,,,,,,,,,,,,,,,,,,
38251,1645652300.2282062,1645652300.225538,113.0,0.0,4321.025879,4688.717772999999,4205.128418,4278.461426,4256.410156,450.0,3.0,55.0,,,,0.0,4.0,0.0,4.0,0.0,4.0,33.333332,,,,,,,,,,,,,,,,,,,,,,,,,,,,,,,,,,,,,,,,,,,,,,,,,,,,,,,,,,,,,,,,,,,,,,,,,,,,,,,,,,,,
38252,1645652300.236021,1645652300.233353,114.0,0.0,4304.615234000001,4572.820313,4212.307617,4278.974121,4255.384765999999,450.0,3.0,55.0,,,,0.0,4.0,0.0,4.0,0.0,4.0,33.333332,,,,,,,,57.0,0.0,0.383892,0.545898,0.22412100000000001,-0.710205,0.9668120000000001,-0.093751,-0.304692,-0.018601,-0.048076999999999995,-0.036220999999999996,,,,,,,,,,,,,,,,,,,,,,,,,,,,,,,,,,,,,,,,,,,,,,,,,,,,,,,,,,,,,,,,,
38253,1645652300.243836,1645652300.241167,115.0,0.0,4338.461426,4634.871582,4239.487305,4278.461426,4298.974121,16226.0,3.0,55.0,,,,0.0,4.0,0.0,4.0,0.0,4.0,33.333332,,,,,,,,,,,,,,,,,,,,,,,,,,,,,,,,,,,,,,,,,,,,,,,,,,,,,,,,,,,,,,,,,,,,,,,,,,,,,,,,,,,,
38254,1645652300.251651,1645652300.248982,116.0,0.0,4380.512695,4708.717772999999,4267.692383,4281.538574,4341.025879,450.0,3.0,55.0,,,,0.0,4.0,0.0,4.0,0.0,4.0,33.333332,1.0,8.333333,3.0,0.0,1.0,0.0,3.0,58.0,0.0,0.383892,0.545898,0.22412100000000001,-0.710205,0.964858,-0.111818,-0.30225100000000005,-0.019280000000000002,-0.048103,-0.038214,1.0,0.0,0.0,,,,,,,,,,,,,,,,,,,,,,,,,,,,,,,,0.0,0.0,1.0,0.0,512.0,1.0,6.856525,5.574195,7.981476,2.823009,3.215158,42.778137,12.191409,28.702278000000003,17.187792,13.689,2.020843,3.1292560000000003,3.8803050000000003,1.568353,1.769941,0.007703,0.005275,0.010364,0.006843999999999999,0.007097,11.502138,3.468606,7.525109,1.725771,1.898137
38255,1645652300.259466,1645652300.256797,117.0,0.0,4375.897461,4648.205078,4264.615234000001,4282.563965,4320.512695,450.0,3.0,55.0,,,,0.0,4.0,0.0,4.0,0.0,4.0,33.333332,,,,,,,,,,,,,,,,,,,,,,,,,,,,,,,,,,,,,,,,,,,,,,,,,,,,,,,,,,,,,,,,,,,,,,,,,,,,,,,,,,,,
38256,1645652300.267281,1645652300.264611,118.0,0.0,4341.025879,4670.256348,4229.230957,4278.461426,4285.128418,450.0,3.0,55.0,,,,0.0,4.0,0.0,4.0,0.0,4.0,33.333332,,,,,,,,59.0,0.0,0.383892,0.545898,0.22412100000000001,-0.710205,0.957046,-0.103029,-0.317388,-0.01745,-0.048176,-0.033855,,,,,,,,,,,,,,,,,,,,,,,,,,,,,,,,,,,,,,,,,,,,,,,,,,,,,,,,,,,,,,,,,
38257,1645652300.2750971,1645652300.272326,119.0,0.0,4287.179688,4748.205078,4190.769043,4277.94873,4251.282227000001,16226.0,3.0,55.0,,,,0.0,4.0,0.0,4.0,0.0,4.0,33.333332,,,,,,,,,,,,,,,,,,,,,,,,,,,,,,,,,,,,,,,,,,,,,,,,,,,,,,,,,,,,,,,,,,,,,,,,,,,,,,,,,,,,
38258,1645652300.282912,1645652300.280141,120.0,0.0,4286.153809,4660.0,4206.666504,4280.512695,4244.615234000001,450.0,3.0,55.0,,,,0.0,4.0,0.0,4.0,0.0,4.0,33.333332,,,,,,,,60.0,0.0,0.384239,0.545654,0.22412100000000001,-0.710205,0.9589989999999999,-0.10888800000000001,-0.31006300000000003,-0.0159,-0.048143,-0.036183,,,,,,,,,,,,,,,,,,,,,,,,,,,,,,,,,,,0.0,0.0,1.0,0.0,512.0,1.0,,,,,,,,,,,,,,,,,,,,,,,,,
38259,1645652300.290727,1645652300.287955,121.0,0.0,4331.282227000001,4604.102539,4231.794922,4279.487305,4273.333496,450.0,3.0,55.0,,,,0.0,4.0,0.0,4.0,0.0,4.0,33.333332,,,,,,,,,,,,,,,,,,,,,,,,,,,,,,,,,,,,,,,,,,,,,,,,,,,,,,,,,,,,,,,,,,,,,,,,,,,,,,,,,,,,
38260,1645652300.298542,1645652300.29577,122.0,0.0,4325.641113000001,4712.820313,4220.512695,4277.94873,4276.410156,450.0,3.0,55.0,,,,0.0,4.0,0.0,4.0,0.0,4.0,33.333332,,,,,,,,61.0,0.0,0.383892,0.545898,0.22412100000000001,-0.710205,0.960952,-0.10254100000000001,-0.303227,-0.014554,-0.048066000000000005,-0.038278,,,,,,,,,,,,,,,,,,,,,,,,,,,,,,,,,,,,,,,,,,,,,,,,,,,,,,,,,,,,,,,,,
38261,1645652300.3063571,1645652300.303585,123.0,0.0,4308.205078,4734.358886999999,4208.205078,4279.487305,4253.846191,16226.0,3.0,55.0,,,,0.0,4.0,0.0,4.0,0.0,4.0,33.333332,,,,,,,,,,,,,,,,,,,,,,,,,,,,,,,,,,,,,,,,,,,,,,,,,,,,,,,,,,,,,,,,,,,,,,,,,,,,,,,,,,,,
38262,1645652300.314172,1645652300.311399,124.0,0.0,4349.743652,4636.410156,4244.102539,4280.0,4287.179688,450.0,3.0,55.0,,,,0.0,4.0,0.0,4.0,0.0,4.0,33.333332,,,,,,,,62.0,0.0,0.383892,0.545898,0.22412100000000001,-0.710205,0.957046,-0.10351700000000001,-0.299321,-0.015687,-0.048043999999999996,-0.033864,,,,,,,,,,,,,,,,,,,,,,,,,,,,,,,,,,,0.0,0.0,1.0,0.0,512.0,1.0,,,,,,,,,,,,,,,,,,,,,,,,,
38263,1645652300.321988,1645652300.319214,125.0,0.0,4345.641113000001,4598.461426,4241.538574,4279.487305,4292.307617,450.0,3.0,55.0,,,,0.0,4.0,0.0,4.0,0.0,4.0,33.333332,,,,,,,,,,,,,,,,,,,,,,,,,,,,,,,,,,,,,,,,,,,,,,,,,,,,,,,,,,,,,,,,,,,,,,,,,,,,,,,,,,,,
38264,1645652300.329803,1645652300.327029,126.0,0.0,4298.461426,4597.94873,4229.743652,4278.974121,4254.358886999999,450.0,3.0,55.0,,,,0.0,4.0,0.0,4.0,0.0,4.0,33.333332,,,,,,,,63.0,0.0,0.383892,0.545898,0.22412100000000001,-0.710205,0.957534,-0.10254100000000001,-0.305669,-0.016656999999999998,-0.048074,-0.036093,,,,,,,,,,,,,,,,,,,,,,,,,,,,,,,,,,,,,,,,,,,,,,,,,,,,,,,,,,,,,,,,,
38265,1645652300.3376179,1645652300.334843,127.0,0.0,4305.128418,4550.256348,4242.05127,4278.974121,4263.589844,234.0,3.0,55.0,,,,0.0,4.0,0.0,4.0,0.0,4.0,33.333332,,,,,,,,,,,,,,,,,,,,,,,,,,,,,,,,,,,,,,,,,,,,,,,,,,,,,,,,,,,,,,,,,,,,,,,,,,,,,,,,,,,,
38266,1645652300.345433,1645652300.342558,0.0,0.0,4332.820313,4589.230957,4241.025879,4279.487305,4276.410156,450.0,3.0,55.0,,,,0.0,4.0,0.0,4.0,0.0,4.0,33.333332,,,,,,,,0.0,0.0,0.383892,0.545898,0.22412100000000001,-0.710205,0.9707180000000001,-0.092775,-0.302739,-0.017579,-0.048052,-0.031945999999999995,,,,,,,,,,,,,,,,,,,,,,,,,,,,,,,,,,,0.0,0.0,1.0,0.0,512.0,1.0,,,,,,,,,,,,,,,,,,,,,,,,,
38267,1645652300.3532481,1645652300.350373,1.0,0.0,4334.871582,4707.179688,4210.256348,4280.512695,4254.358886999999,450.0,3.0,55.0,,,,0.0,4.0,0.0,4.0,0.0,4.0,33.333332,,,,,,,,,,,,,,,,,,,,,,,,,,,,,,,,,,,,,,,,,,,,,,,,,,,,,,,,,,,,,,,,,,,,,,,,,,,,,,,,,,,,
38268,1645652300.361063,1645652300.3581882,2.0,0.0,4316.410156,4724.102539,4211.282227000001,4279.487305,4244.615234000001,16219.0,3.0,55.0,,,,0.0,4.0,0.0,4.0,0.0,4.0,33.333332,,,,,,,,1.0,0.0,0.383892,0.545898,0.22412100000000001,-0.710205,0.954116,-0.091798,-0.30225100000000005,-0.01587,-0.048081,-0.034513999999999996,,,,,,,,,,,,,,,,,,,,,,,,,,,,,,,,,,,,,,,,,,,,,,,,,,,,,,,,,,,,,,,,,
38269,1645652300.368878,1645652300.365903,3.0,0.0,4307.692383,4673.846191,4224.615234000001,4278.974121,4265.128418,450.0,3.0,55.0,,,,0.0,4.0,0.0,4.0,0.0,4.0,33.333332,,,,,,,,,,,,,,,,,,,,,,,,,,,,,,,,,,,,,,,,,,,,,,,,,,,,,,,,,,,,,,,,,,,,,,,,,,,,,,,,,,,,
38270,1645652300.376694,1645652300.373717,4.0,0.0,4298.974121,4630.769043,4230.256348,4280.512695,4267.692383,5.0,3.0,55.0,,,,0.0,4.0,0.0,4.0,0.0,4.0,33.333332,,,,,,,,2.0,0.0,0.383892,0.545898,0.22412100000000001,-0.710205,0.9580219999999999,-0.095216,-0.303716,-0.016773,-0.048058,-0.036775,1.0,0.0,0.0,,,,,,,,,,,,,,,,,,,,,,,,,,,,,,,,0.0,0.0,1.0,0.0,512.0,1.0,4.074981,3.1714689999999996,5.074502,1.9754740000000002,2.639959,35.197773,13.214663,31.439602,16.338448,14.74876,1.7823790000000002,2.900091,3.42622,1.566139,1.7188,0.007301,0.00507,0.007644,0.006831,0.00692,6.937142999999999,3.044147,6.086549,1.6820689999999998,1.893459
38271,1645652300.384509,1645652300.381532,5.0,0.0,4305.641113000001,4617.436035,4227.692383,4280.0,4265.128418,450.0,3.0,55.0,,,,0.0,4.0,0.0,4.0,0.0,4.0,33.333332,,,,,,,,,,,,,,,,,,,,,,,,,,,,,,,,,,,,,,,,,,,,,,,,,,,,,,,,,,,,,,,,,,,,,,,,,,,,,,,,,,,,
38272,1645652300.392324,1645652300.389347,6.0,0.0,4328.717772999999,4654.871582,4220.512695,4278.461426,4268.205078,16191.0,3.0,55.0,,,,0.0,4.0,0.0,4.0,0.0,4.0,33.333332,,,,,,,,3.0,0.0,0.383892,0.545898,0.22412100000000001,-0.710205,0.9589989999999999,-0.10009900000000001,-0.30518,-0.017634999999999998,-0.048135000000000004,-0.038664,,,,,,,,,,,,,,,,,,,,,,,,,,,,,,,,,,,,,,,,,,,,,,,,,,,,,,,,,,,,,,,,,
38273,1645652300.400139,1645652300.397161,7.0,0.0,4341.538574,4645.128418,4225.128418,4278.461426,4273.846191,450.0,3.0,55.0,,,,0.0,4.0,0.0,4.0,0.0,4.0,33.333332,,,,,,,,,,,,,,,,,,,,,,,,,,,,,,,,,,,,,,,,,,,,,,,,,,,,,,,,,,,,,,,,,,,,,,,,,,,,,,,,,,,,
38274,1645652300.407954,1645652300.404976,8.0,0.0,4321.025879,4575.384765999999,4233.846191,4279.487305,4272.307617,450.0,3.0,55.0,,,,0.0,4.0,0.0,4.0,0.0,4.0,33.333332,,,,,,,,4.0,0.0,0.383892,0.545898,0.22412100000000001,-0.710205,0.954116,-0.091798,-0.30225100000000005,-0.016066999999999998,-0.048058,-0.034163,,,,,,,,,,,,,,,,,,,,,,,,,,,,,,,,,,,0.0,0.0,1.0,0.0,512.0,1.0,,,,,,,,,,,,,,,,,,,,,,,,,
38275,1645652300.4157689,1645652300.412791,9.0,0.0,4327.692383,4626.666504,4240.512695,4279.487305,4275.384765999999,0.0,3.0,55.0,,,,0.0,4.0,0.0,4.0,0.0,4.0,33.333332,,,,,,,,,,,,,,,,,,,,,,,,,,,,,,,,,,,,,,,,,,,,,,,,,,,,,,,,,,,,,,,,,,,,,,,,,,,,,,,,,,,,
38276,1645652300.423585,1645652300.4206052,10.0,0.0,4344.102539,4737.436035,4222.563965,4279.487305,4278.974121,450.0,3.0,55.0,,,,0.0,4.0,0.0,4.0,0.0,4.0,33.333332,,,,,,,,5.0,0.0,0.383892,0.545898,0.22412100000000001,-0.710205,0.9589989999999999,-0.10009900000000001,-0.30518,-0.016999,-0.048135000000000004,-0.036313,,,,,,,,,,,,,,,,,,,,,,,,,,,,,,,,,,,,,,,,,,,,,,,,,,,,,,,,,,,,,,,,,
38277,1645652300.4314,1645652300.42832,11.0,0.0,4318.461426,4708.717772999999,4211.282227000001,4278.974121,4277.94873,16196.0,3.0,55.0,,,,0.0,4.0,0.0,4.0,0.0,4.0,33.333332,,,,,,,,,,,,,,,,,,,,,,,,,,,,,,,,,,,,,,,,,,,,,,,,,,,,,,,,,,,,,,,,,,,,,,,,,,,,,,,,,,,,
38278,1645652300.439215,1645652300.436135,12.0,0.0,4315.384765999999,4617.94873,4224.102539,4279.487305,4282.563965,450.0,3.0,55.0,,,,0.0,4.0,0.0,4.0,0.0,4.0,33.333332,,,,,,,,6.0,0.0,0.383892,0.545898,0.22412100000000001,-0.710205,0.9663229999999999,-0.100587,-0.31201599999999996,-0.01779,-0.048107,-0.038248000000000004,,,,,,,,,,,,,,,,,,,,,,,,,,,,,,,,,,,0.0,0.0,1.0,0.0,512.0,1.0,,,,,,,,,,,,,,,,,,,,,,,,,
38279,1645652300.44703,1645652300.443949,13.0,0.0,4353.846191,4605.128418,4258.974121,4280.0,4301.025879,450.0,3.0,55.0,,,,0.0,4.0,0.0,4.0,0.0,4.0,33.333332,,,,,,,,,,,,,,,,,,,,,,,,,,,,,,,,,,,,,,,,,,,,,,,,,,,,,,,,,,,,,,,,,,,,,,,,,,,,,,,,,,,,
38280,1645652300.454845,1645652300.451764,14.0,0.0,4333.846191,4680.0,4240.512695,4278.974121,4288.717772999999,450.0,3.0,55.0,,,,0.0,4.0,0.0,4.0,0.0,4.0,33.333332,,,,,,,,7.0,0.0,0.383892,0.545898,0.22412100000000001,-0.710205,0.9702299999999999,-0.095705,-0.311528,-0.01855,-0.048179,-0.033886,,,,,,,,,,,,,,,,,,,,,,,,,,,,,,,,,,,,,,,,,,,,,,,,,,,,,,,,,,,,,,,,,
38281,1645652300.46266,1645652300.459579,15.0,0.0,4301.025879,4720.512695,4215.384765999999,4278.461426,4258.974121,16196.0,3.0,55.0,,,,0.0,4.0,0.0,4.0,0.0,4.0,33.333332,,,,,,,,,,,,,,,,,,,,,,,,,,,,,,,,,,,,,,,,,,,,,,,,,,,,,,,,,,,,,,,,,,,,,,,,,,,,,,,,,,,,
38282,1645652300.470476,1645652300.467393,16.0,0.0,4324.615234000001,4655.384765999999,4215.897461,4279.487305,4266.153809,0.0,3.0,55.0,,,,0.0,4.0,0.0,4.0,0.0,4.0,33.333332,,,,,,,,8.0,0.0,0.383892,0.545898,0.22412100000000001,-0.710205,0.9712059999999999,-0.091798,-0.292973,-0.019234,-0.048195,-0.036015,,,,,,,,,,,,,,,,,,,,,,,,,,,,,,,,,,,0.0,0.0,1.0,0.0,512.0,1.0,,,,,,,,,,,,,,,,,,,,,,,,,
38283,1645652300.478291,1645652300.475208,17.0,0.0,4335.897461,4619.487305,4238.461426,4278.461426,4283.589844,0.0,3.0,55.0,,,,0.0,4.0,0.0,4.0,0.0,4.0,33.333332,,,,,,,,,,,,,,,,,,,,,,,,,,,,,,,,,,,,,,,,,,,,,,,,,,,,,,,,,,,,,,,,,,,,,,,,,,,,,,,,,,,,
38284,1645652300.4861062,1645652300.483023,18.0,0.0,4322.05127,4670.256348,4234.871582,4278.974121,4278.461426,0.0,3.0,55.0,,,,0.0,4.0,0.0,4.0,0.0,4.0,33.333332,,,,,,,,9.0,0.0,0.384035,0.545898,0.223877,-0.710205,0.961929,-0.101076,-0.300298,-0.01985,-0.048112,-0.031974,,,,,,,,,,,,,,,,,,,,,,,,,,,,,,,,,,,,,,,,,,,,,,,,,,,,,,,,,,,,,,,,,
38285,1645652300.493921,1645652300.490937,19.0,0.0,4320.512695,4720.512695,4216.922852000001,4280.512695,4261.538574,0.0,3.0,55.0,,,,0.0,4.0,0.0,4.0,0.0,4.0,33.333332,,,,,,,,,,,,,,,,,,,,,,,,,,,,,,,,,,,,,,,,,,,,,,,,,,,,,,,,,,,,,,,,,,,,,,,,,,,,,,,,,,,,
38286,1645652300.501736,1645652300.4987519,20.0,0.0,4323.077147999999,4715.897461,4204.102539,4280.0,4258.461426,0.0,3.0,55.0,,,,0.0,4.0,0.0,4.0,0.0,4.0,33.333332,,,,,,,,10.0,0.0,0.384344,0.545898,0.22412100000000001,-0.709961,0.9550930000000001,-0.10888800000000001,-0.302739,-0.018011000000000003,-0.048037,-0.03449,1.0,0.0,0.0,,,,,,,,,,,,,,,,,,,,,,,,,,,,,,,,0.0,0.0,1.0,0.0,512.0,1.0,2.874874,2.008771,3.7374730000000005,1.494222,2.5249770000000002,26.314734,13.559422,32.040527000000004,16.152922,16.313646,1.542901,2.891061,3.0016849999999997,1.746766,1.783306,0.007056000000000001,0.004664,0.005294,0.006659999999999999,0.006758,3.8488839999999995,2.802797,4.985703,1.7322689999999998,1.964031
38287,1645652300.509551,1645652300.506567,21.0,0.0,4303.077147999999,4687.692383,4209.230957,4278.461426,4260.512695,0.0,3.0,55.0,,,,0.0,4.0,0.0,4.0,0.0,4.0,33.333332,,,,,,,,,,,,,,,,,,,,,,,,,,,,,,,,,,,,,,,,,,,,,,,,,,,,,,,,,,,,,,,,,,,,,,,,,,,,,,,,,,,,
38288,1645652300.517367,1645652300.5143821,22.0,0.0,4298.461426,4686.666504,4218.461426,4278.974121,4265.128418,0.0,3.0,55.0,,,,0.0,4.0,0.0,4.0,0.0,4.0,33.333332,,,,,,,,11.0,0.0,0.383997,0.546143,0.22412100000000001,-0.709961,0.959976,-0.088869,-0.300298,-0.018798,-0.048019,-0.030455,,,,,,,,,,,,,,,,,,,,,,,,,,,,,,,,,,,,,,,,,,,,,,,,,,,,,,,,,,,,,,,,,
38289,1645652300.525182,1645652300.522197,23.0,0.0,4316.922852000001,4695.384765999999,4223.077147999999,4278.974121,4270.256348,0.0,3.0,55.0,,,,0.0,4.0,0.0,4.0,0.0,4.0,33.333332,,,,,,,,,,,,,,,,,,,,,,,,,,,,,,,,,,,,,,,,,,,,,,,,,,,,,,,,,,,,,,,,,,,,,,,,,,,,,,,,,,,,
38290,1645652300.5329971,1645652300.530012,24.0,0.0,4348.205078,4683.077147999999,4242.05127,4278.461426,4288.717772999999,0.0,3.0,55.0,,,,0.0,4.0,0.0,4.0,0.0,4.0,33.333332,,,,,,,,12.0,0.0,0.383997,0.546143,0.22412100000000001,-0.709961,0.9702299999999999,-0.097169,-0.30518,-0.019311000000000002,-0.047904,-0.033122000000000006,,,,,,,,,,,,,,,,,,,,,,,,,,,,,,,,,,,0.0,0.0,1.0,0.0,512.0,1.0,,,,,,,,,,,,,,,,,,,,,,,,,
38291,1645652300.540812,1645652300.537827,25.0,0.0,4353.333496,4663.077147999999,4236.922852000001,4280.0,4286.666504,0.0,3.0,55.0,,,,0.0,4.0,0.0,4.0,0.0,4.0,33.333332,,,,,,,,,,,,,,,,,,,,,,,,,,,,,,,,,,,,,,,,,,,,,,,,,,,,,,,,,,,,,,,,,,,,,,,,,,,,,,,,,,,,
38292,1645652300.548627,1645652300.545641,26.0,0.0,4337.436035,4658.974121,4218.974121,4280.0,4267.179688,0.0,3.0,55.0,,,,0.0,4.0,0.0,4.0,0.0,4.0,33.333332,,,,,,,,13.0,0.0,0.383997,0.546143,0.22412100000000001,-0.709961,0.9550930000000001,-0.103029,-0.300786,-0.017526,-0.047800999999999996,-0.035426,,,,,,,,,,,,,,,,,,,,,,,,,,,,,,,,,,,,,,,,,,,,,,,,,,,,,,,,,,,,,,,,,
38293,1645652300.556442,1645652300.553456,27.0,0.0,4325.641113000001,4657.436035,4223.077147999999,4280.0,4262.05127,0.0,3.0,55.0,,,,0.0,4.0,0.0,4.0,0.0,4.0,33.333332,,,,,,,,,,,,,,,,,,,,,,,,,,,,,,,,,,,,,,,,,,,,,,,,,,,,,,,,,,,,,,,,,,,,,,,,,,,,,,,,,,,,
38294,1645652300.564258,1645652300.5612712,28.0,0.0,4325.128418,4621.538574,4254.871582,4281.025879,4277.436035,0.0,3.0,55.0,,,,0.0,4.0,0.0,4.0,0.0,4.0,33.333332,,,,,,,,14.0,0.0,0.383997,0.546143,0.22412100000000001,-0.709961,0.9550930000000001,-0.11133,-0.295415,-0.015871,-0.047708999999999994,-0.037498000000000004,,,,,,,,,,,,,,,,,,,,,,,,,,,,,,,,,,,0.0,0.0,1.0,0.0,512.0,1.0,,,,,,,,,,,,,,,,,,,,,,,,,
38295,1645652300.572073,1645652300.5690858,29.0,0.0,4320.512695,4585.128418,4245.641113000001,4281.538574,4269.743652,0.0,3.0,55.0,,,,0.0,4.0,0.0,4.0,0.0,4.0,33.333332,,,,,,,,,,,,,,,,,,,,,,,,,,,,,,,,,,,,,,,,,,,,,,,,,,,,,,,,,,,,,,,,,,,,,,,,,,,,,,,,,,,,
38296,1645652300.579888,1645652300.576801,30.0,0.0,4336.922852000001,4660.512695,4231.794922,4279.487305,4262.05127,0.0,3.0,55.0,,,,0.0,4.0,0.0,4.0,0.0,4.0,33.333332,,,,,,,,15.0,0.0,0.384344,0.545898,0.22412100000000001,-0.709961,0.956558,-0.10498199999999999,-0.306645,-0.016774,-0.047723,-0.033065,,,,,,,,,,,,,,,,,,,,,,,,,,,,,,,,,,,,,,,,,,,,,,,,,,,,,,,,,,,,,,,,,
38297,1645652300.587703,1645652300.584616,31.0,0.0,4337.94873,4754.871582,4218.461426,4278.461426,4253.333496,0.0,3.0,55.0,,,,0.0,4.0,0.0,4.0,0.0,4.0,33.333332,,,,,,,,,,,,,,,,,,,,,,,,,,,,,,,,,,,,,,,,,,,,,,,,,,,,,,,,,,,,,,,,,,,,,,,,,,,,,,,,,,,,
38298,1645652300.5955179,1645652300.59243,32.0,0.0,4307.692383,4722.563965,4211.794922,4280.0,4233.846191,0.0,3.0,55.0,,,,0.0,4.0,0.0,4.0,0.0,4.0,33.333332,,,,,,,,16.0,0.0,0.384344,0.545898,0.22412100000000001,-0.709961,0.947768,-0.08984500000000001,-0.299809,-0.017636000000000002,-0.047736,-0.035568999999999996,,,,,,,,,,,,,,,,,,,,,,,,,,,,,,,,,,,0.0,0.0,1.0,0.0,512.0,1.0,,,,,,,,,,,,,,,,,,,,,,,,,
38299,1645652300.603333,1645652300.600245,33.0,0.0,4318.461426,4683.077147999999,4224.102539,4278.974121,4256.922852000001,0.0,3.0,55.0,,,,0.0,4.0,0.0,4.0,0.0,4.0,33.333332,,,,,,,,,,,,,,,,,,,,,,,,,,,,,,,,,,,,,,,,,,,,,,,,,,,,,,,,,,,,,,,,,,,,,,,,,,,,,,,,,,,,
38300,1645652300.611148,1645652300.608059,34.0,0.0,4347.692383,4648.717772999999,4263.589844,4277.94873,4291.282227000001,0.0,3.0,55.0,,,,0.0,4.0,0.0,4.0,0.0,4.0,33.333332,,,,,,,,17.0,0.0,0.384548,0.545654,0.224365,-0.709961,0.9716950000000001,-0.083009,-0.307134,-0.018363,-0.047748,-0.031426,,,,,,,,,,,,,,,,,,,,,,,,,,,,,,,,,,,,,,,,,,,,,,,,,,,,,,,,,,,,,,,,,
38301,1645652300.618964,1645652300.615874,35.0,0.0,4332.820313,4613.846191,4249.230957,4280.0,4272.820313,0.0,3.0,55.0,,,,0.0,4.0,0.0,4.0,0.0,4.0,33.333332,,,,,,,,,,,,,,,,,,,,,,,,,,,,,,,,,,,,,,,,,,,,,,,,,,,,,,,,,,,,,,,,,,,,,,,,,,,,,,,,,,,,
38302,1645652300.6267788,1645652300.6236892,36.0,0.0,4307.179688,4672.307617,4207.692383,4280.0,4238.974121,0.0,3.0,55.0,,,,0.0,4.0,0.0,4.0,0.0,4.0,33.333332,,,,,,,,18.0,0.0,0.384263,0.545654,0.224854,-0.709961,0.9716950000000001,-0.10009900000000001,-0.298344,-0.016722,-0.047661,-0.027649,1.0,0.0,0.0,,,,,,,,,,,,,,,,,,,,,,,,,,,,,,,,0.0,0.0,1.0,0.0,512.0,1.0,2.590307,1.8513830000000002,3.437265,1.277963,2.642064,17.949961,13.20134,30.865128000000002,16.835464,18.335985,1.352711,3.121883,2.720377,2.0880259999999997,1.8910689999999999,0.006529999999999999,0.004369,0.003771,0.006314999999999999,0.006638,2.326043,2.7567,4.414005,1.888608,2.087512
38303,1645652300.634594,1645652300.6315029,37.0,0.0,4333.333496,4658.974121,4225.128418,4277.94873,4257.94873,0.0,3.0,55.0,,,,0.0,4.0,0.0,4.0,0.0,4.0,33.333332,,,,,,,,,,,,,,,,,,,,,,,,,,,,,,,,,,,,,,,,,,,,,,,,,,,,,,,,,,,,,,,,,,,,,,,,,,,,,,,,,,,,
38304,1645652300.642409,1645652300.639318,38.0,0.0,4331.794922,4552.820313,4256.410156,4279.487305,4271.282227000001,0.0,3.0,55.0,,,,0.0,4.0,0.0,4.0,0.0,4.0,33.333332,,,,,,,,19.0,0.0,0.384571,0.545654,0.225098,-0.709717,0.9629049999999999,-0.109377,-0.307622,-0.01754,-0.047777,-0.024249,,,,,,,,,,,,,,,,,,,,,,,,,,,,,,,,,,,,,,,,,,,,,,,,,,,,,,,,,,,,,,,,,
38305,1645652300.650224,1645652300.647033,39.0,0.0,4306.153809,4606.153809,4242.563965,4281.025879,4258.461426,0.0,3.0,55.0,,,,0.0,4.0,0.0,4.0,0.0,4.0,33.333332,,,,,,,,,,,,,,,,,,,,,,,,,,,,,,,,,,,,,,,,,,,,,,,,,,,,,,,,,,,,,,,,,,,,,,,,,,,,,,,,,,,,
38306,1645652300.658039,1645652300.6548471,40.0,0.0,4314.871582,4718.974121,4222.05127,4280.512695,4257.94873,0.0,3.0,55.0,,,,0.0,4.0,0.0,4.0,0.0,4.0,33.333332,,,,,,,,20.0,0.0,0.38442800000000005,0.545654,0.22534200000000001,-0.709717,0.9472799999999999,-0.11230599999999999,-0.309087,-0.016030000000000003,-0.047785,-0.02744,,,,,,,,,,,,,,,,,,,,,,,,,,,,,,,,,,,0.0,0.0,1.0,0.0,512.0,1.0,,,,,,,,,,,,,,,,,,,,,,,,,
38307,1645652300.6658552,1645652300.662662,41.0,0.0,4343.077147999999,4678.974121,4243.589844,4281.025879,4277.436035,0.0,3.0,55.0,,,,0.0,4.0,0.0,4.0,0.0,4.0,33.333332,,,,,,,,,,,,,,,,,,,,,,,,,,,,,,,,,,,,,,,,,,,,,,,,,,,,,,,,,,,,,,,,,,,,,,,,,,,,,,,,,,,,
38308,1645652300.6736698,1645652300.670477,42.0,0.0,4332.820313,4642.05127,4237.436035,4280.512695,4270.256348,0.0,3.0,55.0,,,,0.0,4.0,0.0,4.0,0.0,4.0,33.333332,,,,,,,,21.0,0.0,0.384284,0.545654,0.225586,-0.709717,0.96144,-0.11084200000000001,-0.303227,-0.016916999999999998,-0.047792,-0.02411,,,,,,,,,,,,,,,,,,,,,,,,,,,,,,,,,,,,,,,,,,,,,,,,,,,,,,,,,,,,,,,,,
38309,1645652300.681485,1645652300.678291,43.0,0.0,4314.871582,4684.615234000001,4225.641113000001,4279.487305,4264.615234000001,0.0,3.0,55.0,,,,0.0,4.0,0.0,4.0,0.0,4.0,33.333332,,,,,,,,,,,,,,,,,,,,,,,,,,,,,,,,,,,,,,,,,,,,,,,,,,,,,,,,,,,,,,,,,,,,,,,,,,,,,,,,,,,,
38310,1645652300.6893,1645652300.686106,44.0,0.0,4309.743652,4675.897461,4230.769043,4279.487305,4266.153809,0.0,3.0,55.0,,,,0.0,4.0,0.0,4.0,0.0,4.0,33.333332,,,,,,,,22.0,0.0,0.384284,0.545654,0.225586,-0.709717,0.9546040000000001,-0.105959,-0.302739,-0.015372,-0.047749,-0.021162,,,,,,,,,,,,,,,,,,,,,,,,,,,,,,,,,,,0.0,0.0,1.0,0.0,512.0,1.0,,,,,,,,,,,,,,,,,,,,,,,,,
38311,1645652300.697115,1645652300.693921,45.0,0.0,4294.871582,4630.256348,4233.333496,4278.461426,4243.589844,0.0,3.0,55.0,,,,0.0,4.0,0.0,4.0,0.0,4.0,33.333332,,,,,,,,,,,,,,,,,,,,,,,,,,,,,,,,,,,,,,,,,,,,,,,,,,,,,,,,,,,,,,,,,,,,,,,,,,,,,,,,,,,,
38312,1645652300.70493,1645652300.701735,46.0,0.0,4292.307617,4623.077147999999,4220.0,4278.974121,4225.128418,0.0,3.0,55.0,,,,0.0,4.0,0.0,4.0,0.0,4.0,33.333332,,,,,,,,23.0,0.0,0.38448699999999997,0.5454100000000001,0.22583000000000003,-0.709717,0.949722,-0.093751,-0.306645,-0.013933000000000001,-0.047758999999999996,-0.024758000000000002,,,,,,,,,,,,,,,,,,,,,,,,,,,,,,,,,,,,,,,,,,,,,,,,,,,,,,,,,,,,,,,,,
38313,1645652300.712745,1645652300.70965,47.0,0.0,4333.846191,4695.384765999999,4236.410156,4281.025879,4247.179688,0.0,3.0,55.0,,,,0.0,4.0,0.0,4.0,0.0,4.0,33.333332,,,,,,,,,,,,,,,,,,,,,,,,,,,,,,,,,,,,,,,,,,,,,,,,,,,,,,,,,,,,,,,,,,,,,,,,,,,,,,,,,,,,
38314,1645652300.720561,1645652300.717465,48.0,0.0,4358.974121,4745.128418,4225.128418,4280.0,4261.538574,0.0,3.0,55.0,,,,0.0,4.0,0.0,4.0,0.0,4.0,33.333332,,,,,,,,24.0,0.0,0.384344,0.5454100000000001,0.22607399999999997,-0.709717,0.9546040000000001,-0.112795,-0.31104,-0.015078,-0.047769,-0.027995999999999997,,,,,,,,,,,,,,,,,,,,,,,,,,,,,,,,,,,0.0,0.0,1.0,0.0,512.0,1.0,,,,,,,,,,,,,,,,,,,,,,,,,
38315,1645652300.728376,1645652300.72528,49.0,0.0,4318.461426,4637.436035,4201.025879,4277.436035,4237.94873,0.0,3.0,55.0,,,,0.0,4.0,0.0,4.0,0.0,4.0,33.333332,,,,,,,,,,,,,,,,,,,,,,,,,,,,,,,,,,,,,,,,,,,,,,,,,,,,,,,,,,,,,,,,,,,,,,,,,,,,,,,,,,,,
38316,1645652300.736191,1645652300.733095,50.0,0.0,4286.153809,4523.589844,4212.307617,4277.94873,4240.0,0.0,3.0,55.0,,,,0.0,4.0,0.0,4.0,0.0,4.0,33.333332,,,,,,,,25.0,0.0,0.384344,0.5454100000000001,0.22607399999999997,-0.709717,0.9580219999999999,-0.12255999999999999,-0.302739,-0.016061000000000002,-0.047728,-0.030811,,,,,,,,,,,,,,,,,,,,,,,,,,,,,,,,,,,,,,,,,,,,,,,,,,,,,,,,,,,,,,,,,
38317,1645652300.7440062,1645652300.74091,51.0,0.0,4293.846191,4611.794922,4239.487305,4280.512695,4258.461426,0.0,3.0,55.0,,,,0.0,4.0,0.0,4.0,0.0,4.0,33.333332,,,,,,,,,,,,,,,,,,,,,,,,,,,,,,,,,,,,,,,,,,,,,,,,,,,,,,,,,,,,,,,,,,,,,,,,,,,,,,,,,,,,
38318,1645652300.751821,1645652300.748725,52.0,0.0,4298.974121,4735.897461,4208.205078,4280.512695,4243.589844,0.0,3.0,55.0,,,,0.0,4.0,0.0,4.0,0.0,4.0,33.333332,1.0,33.333332,4.0,0.0,4.0,0.0,4.0,26.0,0.0,0.384096,0.545166,0.226318,-0.709961,0.9487450000000001,-0.098634,-0.295415,-0.017091,-0.04774,-0.027193000000000002,1.0,0.0,0.0,,,,,,,,,,,,,,,,,,,,,,,,,,,,,,,,0.0,0.0,1.0,0.0,512.0,1.0,2.5752650000000004,2.192073,3.6505949999999996,1.284512,2.783502,11.523541999999999,12.24108,28.826203999999997,18.321617,20.619541,1.23299,3.433642,2.6402200000000002,2.5319439999999998,2.009747,0.0056619999999999995,0.004301,0.003252,0.005863,0.006714,1.846786,2.818559,4.361946,2.151999,2.21889
38319,1645652300.759636,1645652300.756539,53.0,0.0,4285.128418,4692.820313,4169.230957,4277.94873,4211.794922,0.0,3.0,55.0,,,,0.0,4.0,0.0,4.0,0.0,4.0,33.333332,,,,,,,,,,,,,,,,,,,,,,,,,,,,,,,,,,,,,,,,,,,,,,,,,,,,,,,,,,,,,,,,,,,,,,,,,,,,,,,,,,,,
38320,1645652300.767451,1645652300.764354,54.0,0.0,4310.769043,4627.692383,4195.897461,4277.436035,4234.871582,0.0,3.0,55.0,,,,0.0,4.0,0.0,4.0,0.0,4.0,33.333332,,,,,,,,27.0,0.0,0.384096,0.545166,0.226318,-0.709961,0.957046,-0.10693499999999999,-0.31396999999999997,-0.015578,-0.047702999999999995,-0.030236000000000002,,,,,,,,,,,,,,,,,,,,,,,,,,,,,,,,,,,,,,,,,,,,,,,,,,,,,,,,,,,,,,,,,
38321,1645652300.775267,1645652300.7721689,55.0,0.0,4342.05127,4600.0,4227.179688,4280.512695,4271.282227000001,0.0,3.0,55.0,,,,0.0,4.0,0.0,4.0,0.0,4.0,33.333332,,,,,,,,,,,,,,,,,,,,,,,,,,,,,,,,,,,,,,,,,,,,,,,,,,,,,,,,,,,,,,,,,,,,,,,,,,,,,,,,,,,,
38322,1645652300.783082,1645652300.779884,56.0,0.0,4333.846191,4583.589844,4223.589844,4280.0,4269.743652,0.0,3.0,55.0,,,,0.0,4.0,0.0,4.0,0.0,4.0,33.333332,,,,,,,,28.0,0.0,0.384344,0.5454100000000001,0.22607399999999997,-0.709717,0.9580219999999999,-0.12255999999999999,-0.302739,-0.01651,-0.047669,-0.032826999999999995,,,,,,,,,,,,,,,,,,,,,,,,,,,,,,,,,,,0.0,0.0,1.0,0.0,512.0,1.0,,,,,,,,,,,,,,,,,,,,,,,,,
38323,1645652300.7908971,1645652300.787699,57.0,0.0,4313.333496,4657.94873,4215.384765999999,4276.922852000001,4259.487305,0.0,3.0,55.0,,,,0.0,4.0,0.0,4.0,0.0,4.0,33.333332,,,,,,,,,,,,,,,,,,,,,,,,,,,,,,,,,,,,,,,,,,,,,,,,,,,,,,,,,,,,,,,,,,,,,,,,,,,,,,,,,,,,
38324,1645652300.798712,1645652300.7955132,58.0,0.0,4318.974121,4706.666504,4227.179688,4278.461426,4270.769043,0.0,3.0,55.0,,,,0.0,4.0,0.0,4.0,0.0,4.0,33.333332,,,,,,,,29.0,0.0,0.384096,0.545166,0.226318,-0.709961,0.9472799999999999,-0.10254100000000001,-0.30518,-0.017398,-0.047687,-0.028959,,,,,,,,,,,,,,,,,,,,,,,,,,,,,,,,,,,,,,,,,,,,,,,,,,,,,,,,,,,,,,,,,
38325,1645652300.806527,1645652300.803328,59.0,0.0,4326.153809,4655.897461,4216.922852000001,4280.512695,4268.717772999999,0.0,3.0,55.0,,,,0.0,4.0,0.0,4.0,0.0,4.0,33.333332,,,,,,,,,,,,,,,,,,,,,,,,,,,,,,,,,,,,,,,,,,,,,,,,,,,,,,,,,,,,,,,,,,,,,,,,,,,,,,,,,,,,
38326,1645652300.814342,1645652300.811142,60.0,0.0,4314.871582,4703.077147999999,4200.0,4278.974121,4259.487305,0.0,3.0,55.0,,,,0.0,4.0,0.0,4.0,0.0,4.0,33.333332,,,,,,,,30.0,0.0,0.384442,0.544922,0.226318,-0.709961,0.9707180000000001,-0.088869,-0.303227,-0.018246000000000002,-0.047704,-0.031727,,,,,,,,,,,,,,,,,,,,,,,,,,,,,,,,,,,0.0,0.0,1.0,0.0,512.0,1.0,,,,,,,,,,,,,,,,,,,,,,,,,
38327,1645652300.822158,1645652300.818957,61.0,0.0,4308.205078,4798.974121,4183.589844,4278.461426,4247.692383,0.0,3.0,55.0,,,,0.0,4.0,0.0,4.0,0.0,4.0,33.333332,,,,,,,,,,,,,,,,,,,,,,,,,,,,,,,,,,,,,,,,,,,,,,,,,,,,,,,,,,,,,,,,,,,,,,,,,,,,,,,,,,,,
38328,1645652300.829973,1645652300.826772,62.0,0.0,4340.512695,4694.871582,4221.025879,4280.0,4263.589844,0.0,3.0,55.0,,,,0.0,4.0,0.0,4.0,0.0,4.0,33.333332,,,,,,,,31.0,0.0,0.384442,0.544922,0.226318,-0.709961,0.9589989999999999,-0.10547000000000001,-0.30518,-0.018813999999999997,-0.04767,-0.028017,,,,,,,,,,,,,,,,,,,,,,,,,,,,,,,,,,,,,,,,,,,,,,,,,,,,,,,,,,,,,,,,,
38329,1645652300.837788,1645652300.834586,63.0,0.0,4354.871582,4532.820313,4259.487305,4278.974121,4301.025879,0.0,3.0,55.0,,,,0.0,4.0,0.0,4.0,0.0,4.0,33.333332,,,,,,,,,,,,,,,,,,,,,,,,,,,,,,,,,,,,,,,,,,,,,,,,,,,,,,,,,,,,,,,,,,,,,,,,,,,,,,,,,,,,
38330,1645652300.845603,1645652300.842401,64.0,0.0,4314.358886999999,4583.589844,4229.230957,4278.974121,4274.358886999999,450.0,3.0,55.0,,,,0.0,4.0,0.0,4.0,0.0,4.0,33.333332,,,,,,,,32.0,0.0,0.384442,0.544922,0.226318,-0.709961,0.9633940000000001,-0.09472799999999999,-0.304692,-0.017177,-0.047639,-0.030782,,,,,,,,,,,,,,,,,,,,,,,,,,,,,,,,,,,0.0,0.0,1.0,0.0,512.0,1.0,,,,,,,,,,,,,,,,,,,,,,,,,
38331,1645652300.8534179,1645652300.850216,65.0,0.0,4306.153809,4711.282227000001,4189.230957,4281.025879,4233.333496,450.0,3.0,55.0,,,,0.0,4.0,0.0,4.0,0.0,4.0,33.333332,,,,,,,,,,,,,,,,,,,,,,,,,,,,,,,,,,,,,,,,,,,,,,,,,,,,,,,,,,,,,,,,,,,,,,,,,,,,,,,,,,,,
38332,1645652300.861233,1645652300.8579302,66.0,0.0,4333.333496,4683.589844,4229.743652,4279.487305,4253.333496,16226.0,3.0,55.0,,,,0.0,4.0,0.0,4.0,0.0,4.0,33.333332,,,,,,,,33.0,0.0,0.38399099999999997,0.544922,0.226318,-0.710205,0.957534,-0.099611,-0.307622,-0.01795,-0.047661,-0.027167,,,,,,,,,,,,,,,,,,,,,,,,,,,,,,,,,,,,,,,,,,,,,,,,,,,,,,,,,,,,,,,,,
38333,1645652300.869048,1645652300.8657448,67.0,0.0,4329.230957,4606.666504,4244.102539,4277.436035,4269.743652,450.0,3.0,55.0,,,,0.0,4.0,0.0,4.0,0.0,4.0,33.333332,,,,,,,,,,,,,,,,,,,,,,,,,,,,,,,,,,,,,,,,,,,,,,,,,,,,,,,,,,,,,,,,,,,,,,,,,,,,,,,,,,,,
38334,1645652300.876864,1645652300.87356,68.0,0.0,4303.589844,4648.717772999999,4214.358886999999,4278.974121,4235.897461,29.0,3.0,55.0,,,,0.0,4.0,0.0,4.0,0.0,4.0,33.333332,,,,,,,,34.0,0.0,0.38399099999999997,0.544922,0.226318,-0.710205,0.9629049999999999,-0.097169,-0.30518,-0.018743,-0.04768,-0.030309,1.0,0.0,0.0,,,,,,,,,,,,,,,,,,,,,,,,,,,,,,,,0.0,0.0,1.0,0.0,512.0,1.0,2.678136,2.667236,4.077837000000001,1.504777,2.860173,7.572846000000001,10.922885,27.066316999999998,20.276329,22.762123000000003,1.183192,3.623565,2.72246,2.977834,2.107998,0.004658,0.004543,0.003527,0.005424,0.007051999999999999,1.943034,2.9054130000000002,4.614358,2.489827,2.304763
38335,1645652300.8846788,1645652300.8813741,69.0,0.0,4322.563965,4685.128418,4216.410156,4280.512695,4234.358886999999,450.0,3.0,55.0,,,,0.0,4.0,0.0,4.0,0.0,4.0,33.333332,,,,,,,,,,,,,,,,,,,,,,,,,,,,,,,,,,,,,,,,,,,,,,,,,,,,,,,,,,,,,,,,,,,,,,,,,,,,,,,,,,,,
38336,1645652300.892494,1645652300.889189,70.0,0.0,4341.538574,4613.333496,4235.384765999999,4278.461426,4268.205078,16196.0,3.0,55.0,,,,0.0,4.0,0.0,4.0,0.0,4.0,33.333332,,,,,,,,35.0,0.0,0.38399099999999997,0.544922,0.226318,-0.710205,0.960464,-0.091798,-0.30811,-0.01931,-0.047648,-0.026789999999999998,,,,,,,,,,,,,,,,,,,,,,,,,,,,,,,,,,,,,,,,,,,,,,,,,,,,,,,,,,,,,,,,,
38337,1645652300.900309,1645652300.897004,71.0,0.0,4318.461426,4597.436035,4227.179688,4277.94873,4266.666504,450.0,3.0,55.0,,,,0.0,4.0,0.0,4.0,0.0,4.0,33.333332,,,,,,,,,,,,,,,,,,,,,,,,,,,,,,,,,,,,,,,,,,,,,,,,,,,,,,,,,,,,,,,,,,,,,,,,,,,,,,,,,,,,
38338,1645652300.908124,1645652300.904818,72.0,0.0,4286.153809,4690.769043,4200.512695,4280.0,4236.410156,450.0,3.0,55.0,,,,0.0,4.0,0.0,4.0,0.0,4.0,33.333332,,,,,,,,36.0,0.0,0.383847,0.544922,0.22656300000000001,-0.710205,0.9712059999999999,-0.089357,-0.29639099999999996,-0.019869,-0.047570999999999995,-0.029775,,,,,,,,,,,,,,,,,,,,,,,,,,,,,,,,,,,0.0,0.0,1.0,0.0,512.0,1.0,,,,,,,,,,,,,,,,,,,,,,,,,
38339,1645652300.915939,1645652300.912633,73.0,0.0,4306.153809,4709.743652,4205.128418,4279.487305,4249.743652,0.0,3.0,55.0,,,,0.0,4.0,0.0,4.0,0.0,4.0,33.333332,,,,,,,,,,,,,,,,,,,,,,,,,,,,,,,,,,,,,,,,,,,,,,,,,,,,,,,,,,,,,,,,,,,,,,,,,,,,,,,,,,,,
38340,1645652300.9237552,1645652300.920448,74.0,0.0,4343.589844,4624.102539,4225.641113000001,4278.974121,4282.05127,450.0,3.0,55.0,,,,0.0,4.0,0.0,4.0,0.0,4.0,33.333332,,,,,,,,37.0,0.0,0.383847,0.544922,0.22656300000000001,-0.710205,0.957534,-0.10254100000000001,-0.291508,-0.018077,-0.047599,-0.032364,,,,,,,,,,,,,,,,,,,,,,,,,,,,,,,,,,,,,,,,,,,,,,,,,,,,,,,,,,,,,,,,,
38341,1645652300.9315698,1645652300.9281619,75.0,0.0,4347.179688,4597.436035,4242.563965,4280.512695,4295.897461,16195.0,3.0,55.0,,,,0.0,4.0,0.0,4.0,0.0,4.0,33.333332,,,,,,,,,,,,,,,,,,,,,,,,,,,,,,,,,,,,,,,,,,,,,,,,,,,,,,,,,,,,,,,,,,,,,,,,,,,,,,,,,,,,
38342,1645652300.939385,1645652300.935977,76.0,0.0,4328.717772999999,4659.487305,4220.512695,4281.025879,4278.461426,450.0,3.0,55.0,,,,0.0,4.0,0.0,4.0,0.0,4.0,33.333332,,,,,,,,38.0,0.0,0.383847,0.544922,0.22656300000000001,-0.710205,0.96144,-0.093751,-0.29443800000000003,-0.01876,-0.047527,-0.034841000000000004,,,,,,,,,,,,,,,,,,,,,,,,,,,,,,,,,,,0.0,0.0,1.0,0.0,512.0,1.0,,,,,,,,,,,,,,,,,,,,,,,,,
38343,1645652300.9472,1645652300.943792,77.0,0.0,4336.410156,4703.589844,4210.769043,4278.974121,4267.692383,450.0,3.0,55.0,,,,0.0,4.0,0.0,4.0,0.0,4.0,33.333332,,,,,,,,,,,,,,,,,,,,,,,,,,,,,,,,,,,,,,,,,,,,,,,,,,,,,,,,,,,,,,,,,,,,,,,,,,,,,,,,,,,,
38344,1645652300.955015,1645652300.951606,78.0,0.0,4352.307617,4720.0,4205.641113000001,4278.974121,4265.128418,450.0,3.0,55.0,,,,0.0,4.0,0.0,4.0,0.0,4.0,33.333332,,,,,,,,39.0,0.0,0.38353899999999996,0.544922,0.226318,-0.710449,0.961929,-0.08691499999999999,-0.30518,-0.019374000000000002,-0.047413,-0.030673000000000002,,,,,,,,,,,,,,,,,,,,,,,,,,,,,,,,,,,,,,,,,,,,,,,,,,,,,,,,,,,,,,,,,
38345,1645652300.96283,1645652300.9594212,79.0,0.0,4341.025879,4653.333496,4205.641113000001,4280.512695,4256.922852000001,16195.0,3.0,55.0,,,,0.0,4.0,0.0,4.0,0.0,4.0,33.333332,,,,,,,,,,,,,,,,,,,,,,,,,,,,,,,,,,,,,,,,,,,,,,,,,,,,,,,,,,,,,,,,,,,,,,,,,,,,,,,,,,,,
38346,1645652300.9706461,1645652300.967236,80.0,0.0,4319.487305,4513.846191,4214.358886999999,4280.0,4261.538574,450.0,3.0,55.0,,,,0.0,4.0,0.0,4.0,0.0,4.0,33.333332,,,,,,,,40.0,0.0,0.38353899999999996,0.544922,0.226318,-0.710449,0.9633940000000001,-0.08984500000000001,-0.302739,-0.017534,-0.047457,-0.033319,,,,,,,,,,,,,,,,,,,,,,,,,,,,,,,,,,,0.0,0.0,1.0,0.0,512.0,1.0,,,,,,,,,,,,,,,,,,,,,,,,,
38347,1645652300.978461,1645652300.97505,81.0,0.0,4333.333496,4521.025879,4245.128418,4278.461426,4286.666504,450.0,3.0,55.0,,,,0.0,4.0,0.0,4.0,0.0,4.0,33.333332,,,,,,,,,,,,,,,,,,,,,,,,,,,,,,,,,,,,,,,,,,,,,,,,,,,,,,,,,,,,,,,,,,,,,,,,,,,,,,,,,,,,
38348,1645652300.986276,1645652300.982865,82.0,0.0,4344.615234000001,4652.307617,4224.102539,4279.487305,4279.487305,450.0,3.0,55.0,,,,0.0,4.0,0.0,4.0,0.0,4.0,33.333332,,,,,,,,41.0,0.0,0.38353899999999996,0.544922,0.226318,-0.710449,0.980972,-0.09472799999999999,-0.29736799999999997,-0.015976,-0.047545,-0.0357,,,,,,,,,,,,,,,,,,,,,,,,,,,,,,,,,,,,,,,,,,,,,,,,,,,,,,,,,,,,,,,,,
38349,1645652300.994091,1645652300.99068,83.0,0.0,4303.589844,4662.05127,4189.230957,4280.512695,4232.307617,16195.0,3.0,55.0,,,,0.0,4.0,0.0,4.0,0.0,4.0,33.333332,,,,,,,,,,,,,,,,,,,,,,,,,,,,,,,,,,,,,,,,,,,,,,,,,,,,,,,,,,,,,,,,,,,,,,,,,,,,,,,,,,,,
38350,1645652301.0019062,1645652300.998394,84.0,0.0,4302.05127,4613.846191,4211.794922,4279.487305,4253.333496,450.0,3.0,55.0,,,,0.0,4.0,0.0,4.0,0.0,4.0,33.333332,,,,,,,,42.0,0.0,0.383683,0.544922,0.22607399999999997,-0.710449,0.959976,-0.101076,-0.31201599999999996,-0.016918,-0.047527,-0.031544,1.0,0.0,0.0,,,,,,,,,,,,,,,,,,,,,,,,,,,,,,,,0.0,0.0,1.0,0.0,512.0,1.0,2.745162,3.040252,4.475805,1.915168,2.870734,5.566982,9.664154,26.259602,22.334684,24.395842000000002,1.183468,3.5502260000000003,2.877965,3.308376,2.168472,0.003766,0.005103,0.004193,0.00511,0.007603,2.1581099999999998,2.927387,4.881368,2.81933,2.3116630000000002
38351,1645652301.009721,1645652301.006209,85.0,0.0,4344.615234000001,4675.384765999999,4243.077147999999,4278.974121,4302.05127,450.0,3.0,55.0,,,,0.0,4.0,0.0,4.0,0.0,4.0,33.333332,,,,,,,,,,,,,,,,,,,,,,,,,,,,,,,,,,,,,,,,,,,,,,,,,,,,,,,,,,,,,,,,,,,,,,,,,,,,,,,,,,,,
38352,1645652301.0175369,1645652301.014024,86.0,0.0,4350.256348,4726.666504,4226.153809,4279.487305,4285.128418,450.0,3.0,55.0,,,,0.0,4.0,0.0,4.0,0.0,4.0,33.333332,,,,,,,,43.0,0.0,0.383683,0.544922,0.22607399999999997,-0.710449,0.969253,-0.09472799999999999,-0.304204,-0.017814,-0.047560000000000005,-0.0342,,,,,,,,,,,,,,,,,,,,,,,,,,,,,,,,,,,,,,,,,,,,,,,,,,,,,,,,,,,,,,,,,
38353,1645652301.025352,1645652301.0218382,87.0,0.0,4313.846191,4649.230957,4203.589844,4277.94873,4245.641113000001,16195.0,3.0,55.0,,,,0.0,4.0,0.0,4.0,0.0,4.0,33.333332,,,,,,,,,,,,,,,,,,,,,,,,,,,,,,,,,,,,,,,,,,,,,,,,,,,,,,,,,,,,,,,,,,,,,,,,,,,,,,,,,,,,
38354,1645652301.033167,1645652301.0296528,88.0,0.0,4317.94873,4586.153809,4226.666504,4277.94873,4266.153809,450.0,3.0,55.0,,,,0.0,4.0,0.0,4.0,0.0,4.0,33.333332,,,,,,,,44.0,0.0,0.383683,0.544922,0.22607399999999997,-0.710449,0.973648,-0.095216,-0.304204,-0.018522999999999998,-0.04754,-0.030243,,,,,,,,,,,,,,,,,,,,,,,,,,,,,,,,,,,0.0,0.0,1.0,0.0,512.0,1.0,,,,,,,,,,,,,,,,,,,,,,,,,
38355,1645652301.040982,1645652301.037468,89.0,0.0,4337.94873,4606.666504,4244.615234000001,4280.512695,4290.256348,450.0,3.0,55.0,,,,0.0,4.0,0.0,4.0,0.0,4.0,33.333332,,,,,,,,,,,,,,,,,,,,,,,,,,,,,,,,,,,,,,,,,,,,,,,,,,,,,,,,,,,,,,,,,,,,,,,,,,,,,,,,,,,,
38356,1645652301.0487971,1645652301.0452821,90.0,0.0,4333.333496,4635.384765999999,4242.563965,4281.025879,4281.025879,450.0,3.0,55.0,,,,0.0,4.0,0.0,4.0,0.0,4.0,33.333332,,,,,,,,45.0,0.0,0.384135,0.544922,0.22607399999999997,-0.710205,0.9712059999999999,-0.085451,-0.31201599999999996,-0.016915,-0.047570999999999995,-0.032981,,,,,,,,,,,,,,,,,,,,,,,,,,,,,,,,,,,,,,,,,,,,,,,,,,,,,,,,,,,,,,,,,
38357,1645652301.056612,1645652301.053097,91.0,0.0,4328.205078,4670.769043,4226.153809,4281.025879,4267.692383,16195.0,3.0,55.0,,,,0.0,4.0,0.0,4.0,0.0,4.0,33.333332,,,,,,,,,,,,,,,,,,,,,,,,,,,,,,,,,,,,,,,,,,,,,,,,,,,,,,,,,,,,,,,,,,,,,,,,,,,,,,,,,,,,
38358,1645652301.0644279,1645652301.060911,92.0,0.0,4333.846191,4688.717772999999,4237.436035,4279.487305,4289.743652,450.0,3.0,55.0,,,,0.0,4.0,0.0,4.0,0.0,4.0,33.333332,,,,,,,,46.0,0.0,0.383683,0.544922,0.22607399999999997,-0.710449,0.969253,-0.09472799999999999,-0.304204,-0.015271999999999999,-0.047648,-0.029097,,,,,,,,,,,,,,,,,,,,,,,,,,,,,,,,,,,0.0,0.0,1.0,0.0,512.0,1.0,,,,,,,,,,,,,,,,,,,,,,,,,
38359,1645652301.072243,1645652301.068626,93.0,0.0,4330.769043,4610.769043,4247.179688,4277.94873,4308.205078,450.0,3.0,55.0,,,,0.0,4.0,0.0,4.0,0.0,4.0,33.333332,,,,,,,,,,,,,,,,,,,,,,,,,,,,,,,,,,,,,,,,,,,,,,,,,,,,,,,,,,,,,,,,,,,,,,,,,,,,,,,,,,,,
38360,1645652301.080058,1645652301.076441,94.0,0.0,4324.615234000001,4576.410156,4234.871582,4280.0,4272.307617,450.0,3.0,55.0,,,,0.0,4.0,0.0,4.0,0.0,4.0,33.333332,,,,,,,,47.0,0.0,0.384135,0.544922,0.22607399999999997,-0.710205,0.9712059999999999,-0.085451,-0.31201599999999996,-0.013988999999999998,-0.047669,-0.031949,,,,,,,,,,,,,,,,,,,,,,,,,,,,,,,,,,,,,,,,,,,,,,,,,,,,,,,,,,,,,,,,,
38361,1645652301.087873,1645652301.0842562,95.0,0.0,4312.307617,4657.94873,4204.615234000001,4280.512695,4233.846191,16195.0,3.0,55.0,,,,0.0,4.0,0.0,4.0,0.0,4.0,33.333332,,,,,,,,,,,,,,,,,,,,,,,,,,,,,,,,,,,,,,,,,,,,,,,,,,,,,,,,,,,,,,,,,,,,,,,,,,,,,,,,,,,,
38362,1645652301.095688,1645652301.0920699,96.0,0.0,4310.769043,4651.282227000001,4229.743652,4278.461426,4262.05127,450.0,3.0,55.0,,,,0.0,4.0,0.0,4.0,0.0,4.0,33.333332,,,,,,,,48.0,0.0,0.383788,0.545166,0.22607399999999997,-0.710205,0.957046,-0.10009900000000001,-0.30518,-0.015178,-0.04754,-0.028217000000000002,,,,,,,,,,,,,,,,,,,,,,,,,,,,,,,,,,,0.0,0.0,1.0,0.0,512.0,1.0,,,,,,,,,,,,,,,,,,,,,,,,,
38363,1645652301.103503,1645652301.099885,97.0,0.0,4326.666504,4597.94873,4251.794922,4279.487305,4293.333496,450.0,3.0,55.0,,,,0.0,4.0,0.0,4.0,0.0,4.0,33.333332,,,,,,,,,,,,,,,,,,,,,,,,,,,,,,,,,,,,,,,,,,,,,,,,,,,,,,,,,,,,,,,,,,,,,,,,,,,,,,,,,,,,
38364,1645652301.1113179,1645652301.107699,98.0,0.0,4313.333496,4662.563965,4232.307617,4280.512695,4268.205078,450.0,3.0,55.0,,,,0.0,4.0,0.0,4.0,0.0,4.0,33.333332,,,,,,,,49.0,0.0,0.383788,0.545166,0.22607399999999997,-0.710205,0.965835,-0.103029,-0.293462,-0.013807,-0.047619999999999996,-0.031010000000000003,,,,,,,,,,,,,,,,,,,,,,,,,,,,,,,,,,,,,,,,,,,,,,,,,,,,,,,,,,,,,,,,,
38365,1645652301.119134,1645652301.115514,99.0,0.0,4306.153809,4690.769043,4218.974121,4279.487305,4263.589844,16195.0,3.0,55.0,,,,0.0,4.0,0.0,4.0,0.0,4.0,33.333332,,,,,,,,,,,,,,,,,,,,,,,,,,,,,,,,,,,,,,,,,,,,,,,,,,,,,,,,,,,,,,,,,,,,,,,,,,,,,,,,,,,,
38366,1645652301.126949,1645652301.123329,100.0,0.0,4335.384765999999,4615.897461,4237.94873,4280.0,4295.384765999999,450.0,3.0,55.0,,,,0.0,4.0,0.0,4.0,0.0,4.0,33.333332,,,,,,,,50.0,0.0,0.383932,0.545166,0.22583000000000003,-0.710205,0.963882,-0.092775,-0.301274,-0.014965000000000001,-0.047644,-0.027275,1.0,0.0,0.0,,,,,,,,,,,,,,,,,,,,,,,,,,,,,,,,0.0,0.0,1.0,0.0,512.0,1.0,2.619434,3.14083,4.63404,2.45923,2.841087,4.648311,9.032645,26.491446999999997,24.335905,25.407047,1.220664,3.1991680000000002,3.0012060000000003,3.458697,2.207504,0.003117,0.005886,0.0048590000000000005,0.004963,0.008312,2.314148,2.8634,4.9067169999999996,3.067848,2.253243
38367,1645652301.134764,1645652301.131043,101.0,0.0,4348.717772999999,4609.743652,4233.846191,4280.512695,4298.461426,450.0,3.0,55.0,,,,0.0,4.0,0.0,4.0,0.0,4.0,33.333332,,,,,,,,,,,,,,,,,,,,,,,,,,,,,,,,,,,,,,,,,,,,,,,,,,,,,,,,,,,,,,,,,,,,,,,,,,,,,,,,,,,,
38368,1645652301.1425788,1645652301.138858,102.0,0.0,4325.641113000001,4661.025879,4220.0,4280.0,4273.846191,450.0,3.0,55.0,,,,0.0,4.0,0.0,4.0,0.0,4.0,33.333332,,,,,,,,51.0,0.0,0.383788,0.545166,0.22607399999999997,-0.710205,0.963882,-0.083009,-0.298344,-0.016008,-0.047616000000000006,-0.030162,,,,,,,,,,,,,,,,,,,,,,,,,,,,,,,,,,,,,,,,,,,,,,,,,,,,,,,,,,,,,,,,,
38369,1645652301.150394,1645652301.146673,103.0,0.0,4330.769043,4689.230957,4224.615234000001,4280.0,4276.410156,16195.0,3.0,55.0,,,,0.0,4.0,0.0,4.0,0.0,4.0,33.333332,,,,,,,,,,,,,,,,,,,,,,,,,,,,,,,,,,,,,,,,,,,,,,,,,,,,,,,,,,,,,,,,,,,,,,,,,,,,,,,,,,,,
38370,1645652301.158209,1645652301.154487,104.0,0.0,4326.153809,4738.974121,4211.794922,4279.487305,4282.563965,450.0,3.0,55.0,,,,0.0,4.0,0.0,4.0,0.0,4.0,33.333332,,,,,,,,52.0,0.0,0.383788,0.545166,0.22607399999999997,-0.710205,0.957534,-0.099611,-0.29736799999999997,-0.016995,-0.047591,-0.026511,,,,,,,,,,,,,,,,,,,,,,,,,,,,,,,,,,,0.0,0.0,1.0,0.0,512.0,1.0,,,,,,,,,,,,,,,,,,,,,,,,,
38371,1645652301.166025,1645652301.162302,105.0,0.0,4316.922852000001,4741.538574,4215.384765999999,4278.974121,4280.512695,450.0,3.0,55.0,,,,0.0,4.0,0.0,4.0,0.0,4.0,33.333332,,,,,,,,,,,,,,,,,,,,,,,,,,,,,,,,,,,,,,,,,,,,,,,,,,,,,,,,,,,,,,,,,,,,,,,,,,,,,,,,,,,,
38372,1645652301.17384,1645652301.170117,106.0,0.0,4310.769043,4668.205078,4212.307617,4279.487305,4249.230957,450.0,3.0,55.0,,,,0.0,4.0,0.0,4.0,0.0,4.0,33.333332,,,,,,,,53.0,0.0,0.383788,0.545166,0.22607399999999997,-0.710205,0.95314,-0.096193,-0.300298,-0.017786,-0.047617,-0.029573000000000002,,,,,,,,,,,,,,,,,,,,,,,,,,,,,,,,,,,,,,,,,,,,,,,,,,,,,,,,,,,,,,,,,
38373,1645652301.1816552,1645652301.177931,107.0,0.0,4299.487305,4666.153809,4199.487305,4280.0,4240.0,16195.0,3.0,55.0,,,,0.0,4.0,0.0,4.0,0.0,4.0,33.333332,,,,,,,,,,,,,,,,,,,,,,,,,,,,,,,,,,,,,,,,,,,,,,,,,,,,,,,,,,,,,,,,,,,,,,,,,,,,,,,,,,,,
38374,1645652301.1894698,1645652301.1857462,108.0,0.0,4313.846191,4729.230957,4213.846191,4279.487305,4274.358886999999,450.0,3.0,55.0,,,,0.0,4.0,0.0,4.0,0.0,4.0,33.333332,,,,,,,,54.0,0.0,0.38348000000000004,0.545166,0.22583000000000003,-0.710449,0.9633940000000001,-0.09765800000000001,-0.302739,-0.018497,-0.047639999999999995,-0.026079,,,,,,,,,,,,,,,,,,,,,,,,,,,,,,,,,,,0.0,0.0,1.0,0.0,512.0,1.0,,,,,,,,,,,,,,,,,,,,,,,,,
38375,1645652301.197285,1645652301.1935608,109.0,0.0,4337.94873,4682.563965,4256.410156,4279.487305,4301.025879,450.0,3.0,55.0,,,,0.0,4.0,0.0,4.0,0.0,4.0,33.333332,,,,,,,,,,,,,,,,,,,,,,,,,,,,,,,,,,,,,,,,,,,,,,,,,,,,,,,,,,,,,,,,,,,,,,,,,,,,,,,,,,,,
