,Timestamp,EEG.Counter,EEG.Interpolated,EEG.AF3,EEG.T7,EEG.Pz,EEG.T8,EEG.AF4,EEG.RawCq,EEG.Battery,EEG.BatteryPercent,MarkerIndex,MarkerType,MarkerValueInt,EEG.MarkerHardware,CQ.AF3,CQ.T7,CQ.Pz,CQ.T8,CQ.AF4,CQ.Overall,EQ.SampleRateQuality,EQ.OVERALL,EQ.AF3,EQ.T7,EQ.Pz,EQ.T8,EQ.AF4,MOT.CounterMems,MOT.InterpolatedMems,MOT.Q0,MOT.Q1,MOT.Q2,MOT.Q3,MOT.AccX,MOT.AccY,MOT.AccZ,MOT.MagX,MOT.MagY,MOT.MagZ,MC.Action,MC.ActionPower,MC.IsActive,PM.Engagement.IsActive,PM.Engagement.Scaled,PM.Engagement.Raw,PM.Engagement.Min,PM.Engagement.Max,PM.Excitement.IsActive,PM.Excitement.Scaled,PM.Excitement.Raw,PM.Excitement.Min,PM.Excitement.Max,PM.LongTermExcitement,PM.Stress.IsActive,PM.Stress.Scaled,PM.Stress.Raw,PM.Stress.Min,PM.Stress.Max,PM.Relaxation.IsActive,PM.Relaxation.Scaled,PM.Relaxation.Raw,PM.Relaxation.Min,PM.Relaxation.Max,PM.Interest.IsActive,PM.Interest.Scaled,PM.Interest.Raw,PM.Interest.Min,PM.Interest.Max,PM.Focus.IsActive,PM.Focus.Scaled,PM.Focus.Raw,PM.Focus.Min,PM.Focus.Max,FE.BlinkWink,FE.HorizontalEyesDirection,FE.UpperFaceAction,FE.UpperFaceActionPower,FE.LowerFaceAction,FE.LowerFaceActionPower,POW.AF3.Theta,POW.AF3.Alpha,POW.AF3.BetaL,POW.AF3.BetaH,POW.AF3.Gamma,POW.T7.Theta,POW.T7.Alpha,POW.T7.BetaL,POW.T7.BetaH,POW.T7.Gamma,POW.Pz.Theta,POW.Pz.Alpha,POW.Pz.BetaL,POW.Pz.BetaH,POW.Pz.Gamma,POW.T8.Theta,POW.T8.Alpha,POW.T8.BetaL,POW.T8.BetaH,POW.T8.Gamma,POW.AF4.Theta,POW.AF4.Alpha,POW.AF4.BetaL,POW.AF4.BetaH,POW.AF4.Gamma
55977,1645585813.705152,13.0,0.0,4341.025879,4251.282227000001,4224.102539,4271.794922,4378.461426,450.0,4.0,82.0,,,,0.0,4.0,2.0,4.0,0.0,4.0,50.0,,,,,,,,,,,,,,,,,,,,,,,,,,,,,,,,,,,,,,,,,,,,,,,,,,,,,,,,,,,,,,,,,,,,,,,,,,,,,,,,,,,,
55978,1645585813.712966,14.0,0.0,4333.846191,4234.358886999999,4220.512695,4267.692383,4384.615234000001,450.0,4.0,82.0,,,,0.0,4.0,2.0,4.0,0.0,4.0,50.0,,,,,,,,7.0,0.0,0.499849,0.5878909999999999,0.308594,-0.5561520000000001,0.9716950000000001,-0.22803099999999998,-0.11816600000000001,-0.037175,-0.027902,-0.026552999999999997,,,,,,,,,,,,,,,,,,,,,,,,,,,,,,,,,,,,,,,,,,,,,,,,,,,,,,,,,,,,,,,,,
55979,1645585813.720781,15.0,0.0,4307.179688,4204.615234000001,4204.615234000001,4275.897461,4350.769043,16214.0,4.0,82.0,,,,0.0,4.0,2.0,4.0,0.0,4.0,50.0,,,,,,,,,,,,,,,,,,,,,,,,,,,,,,,,,,,,,,,,,,,,,,,,,,,,,,,,,,,,,,,,,,,,,,,,,,,,,,,,,,,,
55980,1645585813.7285962,16.0,0.0,4301.025879,4200.512695,4194.871582,4280.512695,4327.179688,0.0,4.0,82.0,,,,0.0,4.0,2.0,4.0,0.0,4.0,50.0,,,,,,,,8.0,0.0,0.5,0.5878909999999999,0.30835,-0.5561520000000001,0.9629049999999999,-0.22803099999999998,-0.128908,-0.037217,-0.027944,-0.028731,,,,,,,,,,,,,,,,,,,,,,,,,,,,,,,,,,,0.0,0.0,1.0,0.0,512.0,1.0,,,,,,,,,,,,,,,,,,,,,,,,,
55981,1645585813.73641,17.0,0.0,4318.461426,4254.358886999999,4201.025879,4277.94873,4340.512695,0.0,4.0,82.0,,,,0.0,4.0,2.0,4.0,0.0,4.0,50.0,,,,,,,,,,,,,,,,,,,,,,,,,,,,,,,,,,,,,,,,,,,,,,,,,,,,,,,,,,,,,,,,,,,,,,,,,,,,,,,,,,,,
55982,1645585813.744225,18.0,0.0,4320.512695,4293.333496,4201.025879,4278.974121,4351.794922,0.0,4.0,82.0,,,,0.0,4.0,2.0,4.0,0.0,4.0,50.0,,,,,,,,9.0,0.0,0.49998400000000004,0.5881350000000001,0.30835,-0.555908,0.9580219999999999,-0.24072600000000002,-0.12255999999999999,-0.037304000000000004,-0.027933,-0.030741,,,,,,,,,,,,,,,,,,,,,,,,,,,,,,,,,,,,,,,,,,,,,,,,,,,,,,,,,,,,,,,,,
55983,1645585813.752039,19.0,0.0,4316.410156,4273.333496,4198.974121,4277.436035,4352.820313,0.0,4.0,82.0,,,,0.0,4.0,2.0,4.0,0.0,4.0,50.0,,,,,,,,,,,,,,,,,,,,,,,,,,,,,,,,,,,,,,,,,,,,,,,,,,,,,,,,,,,,,,,,,,,,,,,,,,,,,,,,,,,,
55984,1645585813.7598538,20.0,0.0,4327.179688,4291.282227000001,4209.230957,4271.282227000001,4355.384765999999,0.0,4.0,82.0,,,,0.0,4.0,2.0,4.0,0.0,4.0,50.0,,,,,,,,10.0,0.0,0.500135,0.5881350000000001,0.308105,-0.555908,0.972183,-0.251469,-0.126467,-0.037334,-0.027874,-0.026152999999999996,,,,,,,,,,,,,,,,,,,,,,,,,,,,,,,,,,,0.0,0.0,1.0,0.0,512.0,1.0,,,,,,,,,,,,,,,,,,,,,,,,,
55985,1645585813.7675688,21.0,0.0,4341.025879,4318.974121,4217.94873,4270.769043,4360.0,0.0,4.0,82.0,,,,0.0,4.0,2.0,4.0,0.0,4.0,50.0,,,,,,,,,,,,,,,,,,,,,,,,,,,,,,,,,,,,,,,,,,,,,,,,,,,,,,,,,,,,,,,,,,,,,,,,,,,,,,,,,,,,
55986,1645585813.775384,22.0,0.0,4344.615234000001,4296.922852000001,4217.436035,4276.922852000001,4362.05127,0.0,4.0,82.0,,,,0.0,4.0,2.0,4.0,0.0,4.0,50.0,,,,,,,,11.0,0.0,0.500135,0.5881350000000001,0.308105,-0.555908,0.975601,-0.235843,-0.13086099999999998,-0.037212999999999996,-0.027821,-0.028372,,,,,,,,,,,,,,,,,,,,,,,,,,,,,,,,,,,,,,,,,,,,,,,,,,,,,,,,,,,,,,,,,
55987,1645585813.783098,23.0,0.0,4349.743652,4304.102539,4217.94873,4281.538574,4358.461426,0.0,4.0,82.0,,,,0.0,4.0,2.0,4.0,0.0,4.0,50.0,,,,,,,,,,,,,,,,,,,,,,,,,,,,,,,,,,,,,,,,,,,,,,,,,,,,,,,,,,,,,,,,,,,,,,,,,,,,,,,,,,,,
55988,1645585813.790913,24.0,0.0,4351.282227000001,4330.769043,4219.487305,4278.974121,4356.410156,0.0,4.0,82.0,,,,0.0,4.0,2.0,4.0,0.0,4.0,50.0,,,,,,,,12.0,0.0,0.500119,0.588379,0.308105,-0.555664,0.9712059999999999,-0.24170300000000003,-0.11718900000000002,-0.037203,-0.027675,-0.024118999999999998,,,,,,,,,,,,,,,,,,,,,,,,,,,,,,,,,,,0.0,0.0,1.0,0.0,512.0,1.0,,,,,,,,,,,,,,,,,,,,,,,,,
55989,1645585813.798728,25.0,0.0,4332.820313,4309.230957,4217.94873,4277.94873,4365.128418,0.0,4.0,82.0,,,,0.0,4.0,2.0,4.0,0.0,4.0,50.0,,,,,,,,,,,,,,,,,,,,,,,,,,,,,,,,,,,,,,,,,,,,,,,,,,,,,,,,,,,,,,,,,,,,,,,,,,,,,,,,,,,,
55990,1645585813.806542,26.0,0.0,4342.563965,4282.563965,4227.179688,4281.025879,4385.128418,0.0,4.0,82.0,,,,0.0,4.0,2.0,4.0,0.0,4.0,50.0,,,,,,,,13.0,0.0,0.500119,0.588379,0.308105,-0.555664,0.9741360000000001,-0.257328,-0.125002,-0.037194,-0.027691000000000004,-0.026639,,,,,,,,,,,,,,,,,,,,,,,,,,,,,,,,,,,,,,,,,,,,,,,,,,,,,,,,,,,,,,,,,
55991,1645585813.814357,27.0,0.0,4360.512695,4292.820313,4226.153809,4278.461426,4389.230957,0.0,4.0,82.0,,,,0.0,4.0,2.0,4.0,0.0,4.0,50.0,,,,,,,,,,,,,,,,,,,,,,,,,,,,,,,,,,,,,,,,,,,,,,,,,,,,,,,,,,,,,,,,,,,,,,,,,,,,,,,,,,,,
55992,1645585813.8221712,28.0,0.0,4332.307617,4316.410156,4210.769043,4273.846191,4375.384765999999,0.0,4.0,82.0,,,,0.0,4.0,2.0,4.0,0.0,4.0,50.0,,,,,,,,14.0,0.0,0.500119,0.588379,0.308105,-0.555664,0.976577,-0.250004,-0.13281500000000002,-0.037233999999999996,-0.027656,-0.028711,1.0,0.0,0.0,,,,,,,,,,,,,,,,,,,,,,,,,,,,,,,,0.0,0.0,1.0,0.0,512.0,1.0,2.422425,5.233184,1.963273,2.2861990000000003,1.6950669999999999,43.246128000000006,23.583557,8.659229,14.38835,11.785178,1.406319,2.213676,1.102657,1.291562,0.5507920000000001,0.12287100000000001,0.105893,0.15601099999999998,0.24465599999999998,0.13784000000000002,4.595435,0.868717,2.4169400000000003,0.935573,0.825414
55993,1645585813.8299859,29.0,0.0,4308.205078,4315.897461,4201.538574,4274.871582,4373.846191,0.0,4.0,82.0,,,,0.0,4.0,2.0,4.0,0.0,4.0,50.0,,,,,,,,,,,,,,,,,,,,,,,,,,,,,,,,,,,,,,,,,,,,,,,,,,,,,,,,,,,,,,,,,,,,,,,,,,,,,,,,,,,,
55994,1645585813.837801,30.0,0.0,4308.205078,4292.820313,4201.025879,4273.333496,4381.025879,0.0,4.0,82.0,,,,0.0,4.0,2.0,4.0,0.0,4.0,50.0,,,,,,,,15.0,0.0,0.50039,0.588379,0.308105,-0.55542,0.9663229999999999,-0.242191,-0.131838,-0.037222000000000005,-0.027674,-0.030772000000000004,,,,,,,,,,,,,,,,,,,,,,,,,,,,,,,,,,,,,,,,,,,,,,,,,,,,,,,,,,,,,,,,,
55995,1645585813.8456151,31.0,0.0,4314.871582,4289.230957,4205.641113000001,4270.769043,4373.846191,0.0,4.0,82.0,,,,0.0,4.0,2.0,4.0,0.0,4.0,50.0,,,,,,,,,,,,,,,,,,,,,,,,,,,,,,,,,,,,,,,,,,,,,,,,,,,,,,,,,,,,,,,,,,,,,,,,,,,,,,,,,,,,
55996,1645585813.8533301,32.0,0.0,4324.102539,4271.282227000001,4207.179688,4270.769043,4383.077147999999,0.0,4.0,82.0,,,,0.0,4.0,2.0,4.0,0.0,4.0,50.0,,,,,,,,16.0,0.0,0.50039,0.588379,0.308105,-0.55542,0.9799950000000001,-0.250004,-0.12060699999999999,-0.037211,-0.027592000000000002,-0.02623,,,,,,,,,,,,,,,,,,,,,,,,,,,,,,,,,,,0.0,0.0,1.0,0.0,512.0,1.0,,,,,,,,,,,,,,,,,,,,,,,,,
55997,1645585813.861145,33.0,0.0,4326.153809,4257.436035,4203.077147999999,4271.794922,4402.563965,0.0,4.0,82.0,,,,0.0,4.0,2.0,4.0,0.0,4.0,50.0,,,,,,,,,,,,,,,,,,,,,,,,,,,,,,,,,,,,,,,,,,,,,,,,,,,,,,,,,,,,,,,,,,,,,,,,,,,,,,,,,,,,
55998,1645585813.868959,34.0,0.0,4331.794922,4347.179688,4201.538574,4274.358886999999,4377.436035,0.0,4.0,82.0,,,,0.0,4.0,2.0,4.0,0.0,4.0,50.0,,,,,,,,17.0,0.0,0.500103,0.588623,0.308105,-0.55542,0.9712059999999999,-0.264652,-0.12060699999999999,-0.037249000000000004,-0.027665,-0.028392,,,,,,,,,,,,,,,,,,,,,,,,,,,,,,,,,,,,,,,,,,,,,,,,,,,,,,,,,,,,,,,,,
55999,1645585813.876774,35.0,0.0,4351.282227000001,4431.794922,4201.025879,4274.358886999999,4359.487305,0.0,4.0,82.0,,,,0.0,4.0,2.0,4.0,0.0,4.0,50.0,,,,,,,,,,,,,,,,,,,,,,,,,,,,,,,,,,,,,,,,,,,,,,,,,,,,,,,,,,,,,,,,,,,,,,,,,,,,,,,,,,,,
56000,1645585813.884589,36.0,0.0,4350.256348,4399.487305,4201.538574,4275.897461,4377.94873,0.0,4.0,82.0,,,,0.0,4.0,2.0,4.0,0.0,4.0,50.0,,,,,,,,18.0,0.0,0.500223,0.588623,0.30835,-0.555176,0.9702299999999999,-0.249027,-0.123049,-0.037284,-0.027583999999999997,-0.030436,,,,,,,,,,,,,,,,,,,,,,,,,,,,,,,,,,,0.0,0.0,1.0,0.0,512.0,1.0,,,,,,,,,,,,,,,,,,,,,,,,,
56001,1645585813.892403,37.0,0.0,4339.487305,4383.077147999999,4212.307617,4280.0,4377.94873,0.0,4.0,82.0,,,,0.0,4.0,2.0,4.0,0.0,4.0,50.0,,,,,,,,,,,,,,,,,,,,,,,,,,,,,,,,,,,,,,,,,,,,,,,,,,,,,,,,,,,,,,,,,,,,,,,,,,,,,,,,,,,,
56002,1645585813.900218,38.0,0.0,4345.641113000001,4437.436035,4211.282227000001,4273.846191,4366.153809,0.0,4.0,82.0,,,,0.0,4.0,2.0,4.0,0.0,4.0,50.0,,,,,,,,19.0,0.0,0.500223,0.588623,0.30835,-0.555176,0.9677879999999999,-0.260258,-0.114748,-0.037267,-0.027658,-0.025927,,,,,,,,,,,,,,,,,,,,,,,,,,,,,,,,,,,,,,,,,,,,,,,,,,,,,,,,,,,,,,,,,
56003,1645585813.908033,39.0,0.0,4330.769043,4437.94873,4191.282227000001,4267.179688,4379.487305,0.0,4.0,82.0,,,,0.0,4.0,2.0,4.0,0.0,4.0,50.0,,,,,,,,,,,,,,,,,,,,,,,,,,,,,,,,,,,,,,,,,,,,,,,,,,,,,,,,,,,,,,,,,,,,,,,,,,,,,,,,,,,,
56004,1645585813.915847,40.0,0.0,4326.666504,4347.179688,4181.025879,4275.897461,4403.077147999999,0.0,4.0,82.0,,,,0.0,4.0,2.0,4.0,0.0,4.0,50.0,,,,,,,,20.0,0.0,0.500223,0.588623,0.30835,-0.555176,0.976577,-0.260746,-0.11523599999999999,-0.037349,-0.027625999999999998,-0.02812,,,,,,,,,,,,,,,,,,,,,,,,,,,,,,,,,,,0.0,0.0,1.0,0.0,512.0,1.0,,,,,,,,,,,,,,,,,,,,,,,,,
56005,1645585813.9235618,41.0,0.0,4353.846191,4318.974121,4187.179688,4281.538574,4410.256348,0.0,4.0,82.0,,,,0.0,4.0,2.0,4.0,0.0,4.0,50.0,,,,,,,,,,,,,,,,,,,,,,,,,,,,,,,,,,,,,,,,,,,,,,,,,,,,,,,,,,,,,,,,,,,,,,,,,,,,,,,,,,,,
56006,1645585813.931377,42.0,0.0,4359.487305,4413.846191,4197.436035,4276.410156,4405.641113000001,0.0,4.0,82.0,,,,0.0,4.0,2.0,4.0,0.0,4.0,50.0,,,,,,,,21.0,0.0,0.500223,0.588623,0.30835,-0.555176,0.9790190000000001,-0.238285,-0.119631,-0.037276,-0.027647,-0.030191000000000003,,,,,,,,,,,,,,,,,,,,,,,,,,,,,,,,,,,,,,,,,,,,,,,,,,,,,,,,,,,,,,,,,
56007,1645585813.939191,43.0,0.0,4357.436035,4492.307617,4200.0,4277.436035,4404.615234000001,0.0,4.0,82.0,,,,0.0,4.0,2.0,4.0,0.0,4.0,50.0,,,,,,,,,,,,,,,,,,,,,,,,,,,,,,,,,,,,,,,,,,,,,,,,,,,,,,,,,,,,,,,,,,,,,,,,,,,,,,,,,,,,
56008,1645585813.947006,44.0,0.0,4337.94873,4480.0,4191.794922,4278.461426,4398.461426,0.0,4.0,82.0,,,,0.0,4.0,2.0,4.0,0.0,4.0,50.0,,,,,,,,22.0,0.0,0.500223,0.588623,0.30835,-0.555176,0.9677879999999999,-0.260258,-0.114748,-0.037211,-0.027666000000000003,-0.025707,1.0,0.0,0.0,,,,,,,,,,,,,,,,,,,,,,,,,,,,,,,,0.0,0.0,1.0,0.0,512.0,1.0,2.8652740000000003,4.544944,2.238961,2.0690939999999998,1.6984299999999999,46.849621,24.813177,10.068379,13.077291,11.263371000000001,1.4316879999999998,2.35988,0.8688969999999999,1.425773,0.57245,0.10293900000000002,0.115827,0.151673,0.22064899999999998,0.1343,3.429854,0.982533,2.575598,0.94001,0.831142
56009,1645585813.954821,45.0,0.0,4314.871582,4448.717772999999,4202.05127,4275.897461,4385.641113000001,0.0,4.0,82.0,,,,0.0,4.0,2.0,4.0,0.0,4.0,50.0,,,,,,,,,,,,,,,,,,,,,,,,,,,,,,,,,,,,,,,,,,,,,,,,,,,,,,,,,,,,,,,,,,,,,,,,,,,,,,,,,,,,
56010,1645585813.962635,46.0,0.0,4342.563965,4429.743652,4215.897461,4278.461426,4380.512695,0.0,4.0,82.0,,,,0.0,4.0,2.0,4.0,0.0,4.0,50.0,,,,,,,,23.0,0.0,0.500223,0.588623,0.30835,-0.555176,0.9790190000000001,-0.238285,-0.119631,-0.037152,-0.027682,-0.028019,,,,,,,,,,,,,,,,,,,,,,,,,,,,,,,,,,,,,,,,,,,,,,,,,,,,,,,,,,,,,,,,,
56011,1645585813.97045,47.0,0.0,4366.153809,4405.128418,4213.846191,4279.487305,4386.666504,0.0,4.0,82.0,,,,0.0,4.0,2.0,4.0,0.0,4.0,50.0,,,,,,,,,,,,,,,,,,,,,,,,,,,,,,,,,,,,,,,,,,,,,,,,,,,,,,,,,,,,,,,,,,,,,,,,,,,,,,,,,,,,
56012,1645585813.978265,48.0,0.0,4342.05127,4386.153809,4212.307617,4278.974121,4395.384765999999,0.0,4.0,82.0,,,,0.0,4.0,2.0,4.0,0.0,4.0,50.0,,,,,,,,24.0,0.0,0.500073,0.588623,0.308594,-0.555176,0.965347,-0.254887,-0.111818,-0.037245,-0.027745999999999996,-0.030001999999999997,,,,,,,,,,,,,,,,,,,,,,,,,,,,,,,,,,,0.0,0.0,1.0,0.0,512.0,1.0,,,,,,,,,,,,,,,,,,,,,,,,,
56013,1645585813.986079,49.0,0.0,4330.769043,4405.641113000001,4210.769043,4278.974121,4410.769043,0.0,4.0,82.0,,,,0.0,4.0,2.0,4.0,0.0,4.0,50.0,,,,,,,,,,,,,,,,,,,,,,,,,,,,,,,,,,,,,,,,,,,,,,,,,,,,,,,,,,,,,,,,,,,,,,,,,,,,,,,,,,,,
56014,1645585813.993794,50.0,0.0,4341.025879,4440.512695,4206.666504,4275.384765999999,4406.666504,0.0,4.0,82.0,,,,0.0,4.0,2.0,4.0,0.0,4.0,50.0,,,,,,,,25.0,0.0,0.499801,0.588623,0.308594,-0.55542,0.980484,-0.252934,-0.12109600000000001,-0.037232,-0.027755000000000002,-0.025684,,,,,,,,,,,,,,,,,,,,,,,,,,,,,,,,,,,,,,,,,,,,,,,,,,,,,,,,,,,,,,,,,
56015,1645585814.001609,51.0,0.0,4344.102539,4445.641113000001,4199.487305,4275.897461,4405.641113000001,0.0,4.0,82.0,,,,0.0,4.0,2.0,4.0,0.0,4.0,50.0,,,,,,,,,,,,,,,,,,,,,,,,,,,,,,,,,,,,,,,,,,,,,,,,,,,,,,,,,,,,,,,,,,,,,,,,,,,,,,,,,,,,
56016,1645585814.009423,52.0,0.0,4344.615234000001,4419.487305,4188.205078,4278.974121,4433.846191,0.0,4.0,82.0,,,,0.0,4.0,2.0,4.0,0.0,4.0,50.0,,,,,,,,26.0,0.0,0.500089,0.588379,0.308594,-0.55542,0.965835,-0.240238,-0.12549000000000002,-0.037219999999999996,-0.027714,-0.028096,,,,,,,,,,,,,,,,,,,,,,,,,,,,,,,,,,,0.0,0.0,1.0,0.0,512.0,1.0,,,,,,,,,,,,,,,,,,,,,,,,,
56017,1645585814.0172381,53.0,0.0,4336.922852000001,4395.897461,4199.487305,4273.846191,4444.102539,0.0,4.0,82.0,,,,0.0,4.0,2.0,4.0,0.0,4.0,50.0,,,,,,,,,,,,,,,,,,,,,,,,,,,,,,,,,,,,,,,,,,,,,,,,,,,,,,,,,,,,,,,,,,,,,,,,,,,,,,,,,,,,
56018,1645585814.025053,54.0,0.0,4348.205078,4388.205078,4225.128418,4273.333496,4429.230957,0.0,4.0,82.0,,,,0.0,4.0,2.0,4.0,0.0,4.0,50.0,,,,,,,,27.0,0.0,0.49981800000000004,0.588379,0.308594,-0.555664,0.972671,-0.243168,-0.121584,-0.037306,-0.027774,-0.030070999999999997,,,,,,,,,,,,,,,,,,,,,,,,,,,,,,,,,,,,,,,,,,,,,,,,,,,,,,,,,,,,,,,,,
56019,1645585814.032867,55.0,0.0,4363.077147999999,4366.153809,4213.846191,4279.487305,4416.922852000001,0.0,4.0,82.0,,,,0.0,4.0,2.0,4.0,0.0,4.0,50.0,,,,,,,,,,,,,,,,,,,,,,,,,,,,,,,,,,,,,,,,,,,,,,,,,,,,,,,,,,,,,,,,,,,,,,,,,,,,,,,,,,,,
56020,1645585814.040682,56.0,0.0,4347.179688,4301.538574,4194.871582,4278.461426,4409.743652,0.0,4.0,82.0,,,,0.0,4.0,2.0,4.0,0.0,4.0,50.0,,,,,,,,28.0,0.0,0.49981800000000004,0.588379,0.308594,-0.555664,0.968277,-0.23975,-0.11230599999999999,-0.037433,-0.027780000000000003,-0.03185,,,,,,,,,,,,,,,,,,,,,,,,,,,,,,,,,,,0.0,0.0,1.0,0.0,512.0,1.0,,,,,,,,,,,,,,,,,,,,,,,,,
56021,1645585814.048497,57.0,0.0,4326.666504,4248.205078,4207.692383,4275.897461,4416.922852000001,0.0,4.0,82.0,,,,0.0,4.0,2.0,4.0,0.0,4.0,50.0,,,,,,,,,,,,,,,,,,,,,,,,,,,,,,,,,,,,,,,,,,,,,,,,,,,,,,,,,,,,,,,,,,,,,,,,,,,,,,,,,,,,
56022,1645585814.056311,58.0,0.0,4312.307617,4242.05127,4204.102539,4276.410156,4430.769043,0.0,4.0,82.0,,,,0.0,4.0,2.0,4.0,0.0,4.0,50.0,,,,,,,,29.0,0.0,0.49981800000000004,0.588379,0.308594,-0.555664,0.9546040000000001,-0.245121,-0.125002,-0.037401,-0.027737,-0.0272,,,,,,,,,,,,,,,,,,,,,,,,,,,,,,,,,,,,,,,,,,,,,,,,,,,,,,,,,,,,,,,,,
56023,1645585814.0640259,59.0,0.0,4301.538574,4272.820313,4195.897461,4273.333496,4421.538574,0.0,4.0,82.0,,,,0.0,4.0,2.0,4.0,0.0,4.0,50.0,,,,,,,,,,,,,,,,,,,,,,,,,,,,,,,,,,,,,,,,,,,,,,,,,,,,,,,,,,,,,,,,,,,,,,,,,,,,,,,,,,,,
56024,1645585814.071841,60.0,0.0,4328.717772999999,4337.94873,4205.641113000001,4271.282227000001,4431.282227000001,0.0,4.0,82.0,,,,0.0,4.0,2.0,4.0,0.0,4.0,50.0,,,,,,,,30.0,0.0,0.499968,0.588379,0.30835,-0.555664,0.968277,-0.245121,-0.12060699999999999,-0.037420999999999996,-0.027745999999999996,-0.029411,1.0,0.0,0.0,,,,,,,,,,,,,,,,,,,,,,,,,,,,,,,,0.0,0.0,1.0,0.0,512.0,1.0,3.205269,4.0769,2.566773,1.689864,1.6786580000000002,51.682010999999996,25.474682,11.976901,11.367433,10.751657000000002,1.3747719999999999,2.395075,0.781008,1.611861,0.5939,0.080733,0.133296,0.142903,0.201328,0.13113699999999998,2.5839369999999997,1.277056,2.98509,1.083413,0.8618049999999999
56025,1645585814.0796552,61.0,0.0,4355.384765999999,4371.794922,4194.871582,4272.820313,4454.871582,0.0,4.0,82.0,,,,0.0,4.0,2.0,4.0,0.0,4.0,50.0,,,,,,,,,,,,,,,,,,,,,,,,,,,,,,,,,,,,,,,,,,,,,,,,,,,,,,,,,,,,,,,,,,,,,,,,,,,,,,,,,,,,
56026,1645585814.0874698,62.0,0.0,4326.153809,4351.794922,4178.461426,4275.384765999999,4423.077147999999,0.0,4.0,82.0,,,,0.0,4.0,2.0,4.0,0.0,4.0,50.0,,,,,,,,31.0,0.0,0.499968,0.588379,0.30835,-0.555664,0.9629049999999999,-0.245121,-0.125978,-0.037389,-0.027657,-0.024957,,,,,,,,,,,,,,,,,,,,,,,,,,,,,,,,,,,,,,,,,,,,,,,,,,,,,,,,,,,,,,,,,
56027,1645585814.095285,63.0,0.0,4315.384765999999,4365.641113000001,4183.077147999999,4279.487305,4413.333496,0.0,4.0,82.0,,,,0.0,4.0,2.0,4.0,0.0,4.0,50.0,,,,,,,,,,,,,,,,,,,,,,,,,,,,,,,,,,,,,,,,,,,,,,,,,,,,,,,,,,,,,,,,,,,,,,,,,,,,,,,,,,,,
56028,1645585814.103099,64.0,0.0,4348.717772999999,4410.256348,4195.897461,4278.461426,4438.974121,450.0,4.0,82.0,,,,0.0,4.0,2.0,4.0,0.0,4.0,50.0,,,,,,,,32.0,0.0,0.499831,0.588623,0.308105,-0.555664,0.9785309999999999,-0.249027,-0.12695499999999998,-0.037264,-0.027724000000000002,-0.027344,,,,,,,,,,,,,,,,,,,,,,,,,,,,,,,,,,,0.0,0.0,1.0,0.0,512.0,1.0,,,,,,,,,,,,,,,,,,,,,,,,,
56029,1645585814.110914,65.0,0.0,4340.0,4376.922852000001,4189.230957,4274.358886999999,4432.820313,450.0,4.0,82.0,,,,0.0,4.0,2.0,4.0,0.0,4.0,50.0,,,,,,,,,,,,,,,,,,,,,,,,,,,,,,,,,,,,,,,,,,,,,,,,,,,,,,,,,,,,,,,,,,,,,,,,,,,,,,,,,,,,
56030,1645585814.118728,66.0,0.0,4317.94873,4270.256348,4185.641113000001,4275.897461,4427.692383,16203.0,4.0,82.0,,,,0.0,4.0,2.0,4.0,0.0,4.0,50.0,,,,,,,,33.0,0.0,0.499845,0.588867,0.30761700000000003,-0.555664,0.9668120000000001,-0.25390999999999997,-0.134768,-0.0372,-0.027783,-0.023193000000000002,,,,,,,,,,,,,,,,,,,,,,,,,,,,,,,,,,,,,,,,,,,,,,,,,,,,,,,,,,,,,,,,,
56031,1645585814.126443,67.0,0.0,4353.333496,4205.641113000001,4206.153809,4280.512695,4453.333496,450.0,4.0,82.0,,,,0.0,4.0,2.0,4.0,0.0,4.0,50.0,,,,,,,,,,,,,,,,,,,,,,,,,,,,,,,,,,,,,,,,,,,,,,,,,,,,,,,,,,,,,,,,,,,,,,,,,,,,,,,,,,,,
56032,1645585814.134258,68.0,0.0,4404.102539,4190.256348,4219.487305,4281.025879,4506.666504,246.0,4.0,82.0,,,,0.0,4.0,2.0,4.0,0.0,4.0,50.0,,,,,,,,34.0,0.0,0.499569,0.5893550000000001,0.307129,-0.555664,0.973159,-0.250492,-0.125002,-0.037337,-0.027739,-0.019409,,,,,,,,,,,,,,,,,,,,,,,,,,,,,,,,,,,0.0,0.0,1.0,0.0,512.0,1.0,,,,,,,,,,,,,,,,,,,,,,,,,
56033,1645585814.142072,69.0,0.0,4421.025879,4132.307617,4208.205078,4277.94873,4558.461426,450.0,4.0,82.0,,,,0.0,4.0,2.0,4.0,0.0,4.0,50.0,,,,,,,,,,,,,,,,,,,,,,,,,,,,,,,,,,,,,,,,,,,,,,,,,,,,,,,,,,,,,,,,,,,,,,,,,,,,,,,,,,,,
56034,1645585814.1498868,70.0,0.0,4433.846191,4021.025635,4205.128418,4277.94873,4610.256348,16203.0,4.0,82.0,,,,0.0,4.0,2.0,4.0,0.0,4.0,50.0,,,,,,,,35.0,0.0,0.49929300000000004,0.5898439999999999,0.306641,-0.555664,0.9897610000000001,-0.245121,-0.128908,-0.037363,-0.027797000000000002,-0.022254,,,,,,,,,,,,,,,,,,,,,,,,,,,,,,,,,,,,,,,,,,,,,,,,,,,,,,,,,,,,,,,,,
56035,1645585814.157702,71.0,0.0,4471.282227000001,3983.5898439999996,4214.358886999999,4281.538574,4692.307617,450.0,4.0,82.0,,,,0.0,4.0,2.0,4.0,0.0,4.0,50.0,,,,,,,,,,,,,,,,,,,,,,,,,,,,,,,,,,,,,,,,,,,,,,,,,,,,,,,,,,,,,,,,,,,,,,,,,,,,,,,,,,,,
56036,1645585814.165516,72.0,0.0,4529.230957,4053.3332520000004,4216.410156,4281.538574,4820.0,450.0,4.0,82.0,,,,0.0,4.0,2.0,4.0,0.0,4.0,50.0,,,,,,,,36.0,0.0,0.499287,0.590332,0.306152,-0.55542,0.975601,-0.258305,-0.12451400000000001,-0.037483999999999996,-0.02785,-0.024862000000000002,,,,,,,,,,,,,,,,,,,,,,,,,,,,,,,,,,,0.0,0.0,1.0,0.0,512.0,1.0,,,,,,,,,,,,,,,,,,,,,,,,,
56037,1645585814.173331,73.0,0.0,4586.153809,4065.641113,4225.641113000001,4280.512695,4965.128418,0.0,4.0,82.0,,,,0.0,4.0,2.0,4.0,0.0,4.0,50.0,,,,,,,,,,,,,,,,,,,,,,,,,,,,,,,,,,,,,,,,,,,,,,,,,,,,,,,,,,,,,,,,,,,,,,,,,,,,,,,,,,,,
56038,1645585814.1811461,74.0,0.0,4609.743652,4057.4357909999994,4230.769043,4281.538574,5060.0,450.0,4.0,82.0,,,,0.0,4.0,2.0,4.0,0.0,4.0,50.0,,,,,,,,37.0,0.0,0.499569,0.590576,0.305664,-0.555176,0.973159,-0.249027,-0.118654,-0.037349,-0.027995,-0.021009,,,,,,,,,,,,,,,,,,,,,,,,,,,,,,,,,,,,,,,,,,,,,,,,,,,,,,,,,,,,,,,,,
56039,1645585814.18896,75.0,0.0,4627.179688,4181.538574,4244.615234000001,4281.538574,5110.769043,16221.0,4.0,82.0,,,,0.0,4.0,2.0,4.0,0.0,4.0,50.0,,,,,,,,,,,,,,,,,,,,,,,,,,,,,,,,,,,,,,,,,,,,,,,,,,,,,,,,,,,,,,,,,,,,,,,,,,,,,,,,,,,,
56040,1645585814.196675,76.0,0.0,4693.846191,4331.794922,4266.153809,4281.538574,5197.436035,450.0,4.0,82.0,,,,0.0,4.0,2.0,4.0,0.0,4.0,50.0,1.0,33.333332,4.0,1.0,4.0,0.0,3.0,38.0,0.0,0.499569,0.590576,0.305664,-0.555176,0.9799950000000001,-0.244633,-0.133303,-0.037277,-0.028027,-0.023693000000000002,1.0,0.0,0.0,,,,,,,,,,,,,,,,,,,,,,,,,,,,,,,,0.0,0.0,1.0,0.0,512.0,1.0,3.362061,4.013458999999999,2.85526,1.263827,1.6417220000000001,57.790156999999994,25.368032,14.14364,9.866283000000001,10.485714999999999,1.2557909999999999,2.349057,0.8345799999999999,1.7711029999999999,0.596028,0.063578,0.149573,0.13142,0.195037,0.12648,2.088514,1.6749450000000001,3.5663120000000004,1.332187,0.900941
56041,1645585814.20449,77.0,0.0,4786.153809,4401.025879,4242.05127,4282.563965,5320.0,450.0,4.0,82.0,,,,0.0,4.0,2.0,4.0,0.0,4.0,50.0,,,,,,,,,,,,,,,,,,,,,,,,,,,,,,,,,,,,,,,,,,,,,,,,,,,,,,,,,,,,,,,,,,,,,,,,,,,,,,,,,,,,
56042,1645585814.2123039,78.0,0.0,4848.205078,4556.922852000001,4221.025879,4282.563965,5372.820313,450.0,4.0,82.0,,,,0.0,4.0,2.0,4.0,0.0,4.0,50.0,,,,,,,,39.0,0.0,0.499691,0.590576,0.305908,-0.554932,0.983902,-0.252934,-0.135256,-0.037308999999999995,-0.028007999999999998,-0.026157999999999997,,,,,,,,,,,,,,,,,,,,,,,,,,,,,,,,,,,,,,,,,,,,,,,,,,,,,,,,,,,,,,,,,
56043,1645585814.220119,79.0,0.0,4909.743652,4803.077147999999,4267.179688,4281.025879,5544.102539,16221.0,4.0,82.0,,,,0.0,4.0,2.0,4.0,0.0,4.0,50.0,,,,,,,,,,,,,,,,,,,,,,,,,,,,,,,,,,,,,,,,,,,,,,,,,,,,,,,,,,,,,,,,,,,,,,,,,,,,,,,,,,,,
56044,1645585814.227934,80.0,0.0,4983.077147999999,4842.05127,4291.794922,4281.538574,5931.794922,450.0,4.0,82.0,,,,0.0,4.0,2.0,4.0,0.0,4.0,50.0,,,,,,,,40.0,0.0,0.49983,0.590332,0.306152,-0.554932,0.979507,-0.265629,-0.133303,-0.037337999999999996,-0.028088,-0.028425,,,,,,,,,,,,,,,,,,,,,,,,,,,,,,,,,,,0.0,0.0,1.0,0.0,512.0,1.0,,,,,,,,,,,,,,,,,,,,,,,,,
56045,1645585814.235748,81.0,0.0,5021.025879,4835.384765999999,4259.487305,4281.538574,6170.769043,450.0,4.0,82.0,,,,0.0,4.0,2.0,4.0,0.0,4.0,50.0,,,,,,,,,,,,,,,,,,,,,,,,,,,,,,,,,,,,,,,,,,,,,,,,,,,,,,,,,,,,,,,,,,,,,,,,,,,,,,,,,,,,
56046,1645585814.2435632,82.0,0.0,5029.743652,5070.256348,4246.153809,4281.538574,6245.641113000001,450.0,4.0,82.0,,,,0.0,4.0,2.0,4.0,0.0,4.0,50.0,,,,,,,,41.0,0.0,0.499801,0.590332,0.306641,-0.554688,0.972671,-0.259281,-0.129397,-0.037413,-0.028062,-0.030465,,,,,,,,,,,,,,,,,,,,,,,,,,,,,,,,,,,,,,,,,,,,,,,,,,,,,,,,,,,,,,,,,
56047,1645585814.2513778,83.0,0.0,5050.769043,5274.871582,4233.846191,4288.205078,6450.769043,16221.0,4.0,82.0,,,,0.0,4.0,2.0,4.0,0.0,4.0,50.0,,,,,,,,,,,,,,,,,,,,,,,,,,,,,,,,,,,,,,,,,,,,,,,,,,,,,,,,,,,,,,,,,,,,,,,,,,,,,,,,,,,,
56048,1645585814.259192,84.0,0.0,5076.410156,5264.615234000001,4211.282227000001,4295.897461,6743.589844,450.0,4.0,82.0,,,,0.0,4.0,2.0,4.0,0.0,4.0,50.0,,,,,,,,42.0,0.0,0.500061,0.5900880000000001,0.307129,-0.554443,0.9668120000000001,-0.254887,-0.12695499999999998,-0.037431,-0.028137,-0.0261,,,,,,,,,,,,,,,,,,,,,,,,,,,,,,,,,,,0.0,0.0,1.0,0.0,512.0,1.0,,,,,,,,,,,,,,,,,,,,,,,,,
56049,1645585814.267007,85.0,0.0,5051.282227000001,5292.820313,4224.102539,4293.846191,6932.307617,450.0,4.0,82.0,,,,0.0,4.0,2.0,4.0,0.0,4.0,50.0,,,,,,,,,,,,,,,,,,,,,,,,,,,,,,,,,,,,,,,,,,,,,,,,,,,,,,,,,,,,,,,,,,,,,,,,,,,,,,,,,,,,
56050,1645585814.274722,86.0,0.0,4974.871582,5465.641113000001,4252.820313,4287.692383,7016.410156,450.0,4.0,82.0,,,,0.0,4.0,2.0,4.0,0.0,4.0,50.0,,,,,,,,43.0,0.0,0.500066,0.5896,0.30761700000000003,-0.554688,0.969741,-0.269047,-0.10888800000000001,-0.037448,-0.028204000000000003,-0.028470999999999996,,,,,,,,,,,,,,,,,,,,,,,,,,,,,,,,,,,,,,,,,,,,,,,,,,,,,,,,,,,,,,,,,
56051,1645585814.282536,87.0,0.0,4913.333496,5644.615234000001,4242.05127,4287.179688,7043.077148,16221.0,4.0,82.0,,,,0.0,4.0,2.0,4.0,0.0,4.0,50.0,,,,,,,,,,,,,,,,,,,,,,,,,,,,,,,,,,,,,,,,,,,,,,,,,,,,,,,,,,,,,,,,,,,,,,,,,,,,,,,,,,,,
56052,1645585814.290351,88.0,0.0,4898.974121,5837.94873,4205.128418,4288.205078,7059.487305,450.0,4.0,82.0,,,,0.0,4.0,2.0,4.0,0.0,4.0,50.0,,,,,,,,44.0,0.0,0.500341,0.5891109999999999,0.308105,-0.554688,0.965347,-0.26807,-0.114748,-0.037561000000000004,-0.028216,-0.024159,,,,,,,,,,,,,,,,,,,,,,,,,,,,,,,,,,,0.0,0.0,1.0,0.0,512.0,1.0,,,,,,,,,,,,,,,,,,,,,,,,,
56053,1645585814.298166,89.0,0.0,4858.461426,6072.307617,4206.153809,4289.743652,7068.717773,450.0,4.0,82.0,,,,0.0,4.0,2.0,4.0,0.0,4.0,50.0,,,,,,,,,,,,,,,,,,,,,,,,,,,,,,,,,,,,,,,,,,,,,,,,,,,,,,,,,,,,,,,,,,,,,,,,,,,,,,,,,,,,
56054,1645585814.30598,90.0,0.0,4747.692383,6338.461426,4237.94873,4289.230957,7000.0,450.0,4.0,82.0,,,,0.0,4.0,2.0,4.0,0.0,4.0,50.0,,,,,,,,45.0,0.0,0.5003270000000001,0.588867,0.308594,-0.554688,0.965835,-0.246586,-0.109377,-0.037418,-0.028275,-0.026576999999999996,,,,,,,,,,,,,,,,,,,,,,,,,,,,,,,,,,,,,,,,,,,,,,,,,,,,,,,,,,,,,,,,,
56055,1645585814.3137949,91.0,0.0,4652.820313,6588.205078,4245.641113000001,4283.589844,6933.333495999999,16221.0,4.0,82.0,,,,0.0,4.0,2.0,4.0,0.0,4.0,50.0,,,,,,,,,,,,,,,,,,,,,,,,,,,,,,,,,,,,,,,,,,,,,,,,,,,,,,,,,,,,,,,,,,,,,,,,,,,,,,,,,,,,
56056,1645585814.32161,92.0,0.0,4615.384765999999,6712.307617,4215.897461,4279.487305,6849.230956999999,450.0,4.0,82.0,,,,0.0,4.0,2.0,4.0,0.0,4.0,50.0,,,,,,,,46.0,0.0,0.500447,0.588867,0.308838,-0.554443,0.9677879999999999,-0.254398,-0.11133,-0.037387000000000004,-0.028182,-0.022601,1.0,0.0,0.0,,,,,,,,,,,,,,,,,,,,,,,,,,,,,,,,0.0,0.0,64.0,0.6419279999999999,1.0,0.0,3.4464309999999996,4.355853,2.983402,0.9244389999999999,1.597307,64.317986,25.057045000000002,16.62886,9.046062,10.535015,1.15867,2.313392,0.97652,1.8307799999999999,0.570863,0.058214,0.155686,0.11873399999999999,0.20188399999999998,0.118495,2.780834,2.202835,4.145844,1.639674,0.9348129999999999
56057,1645585814.329424,93.0,0.0,4574.871582,6700.0,4189.230957,4282.05127,6382.563965,450.0,4.0,82.0,,,,0.0,4.0,2.0,4.0,0.0,4.0,50.0,,,,,,,,,,,,,,,,,,,,,,,,,,,,,,,,,,,,,,,,,,,,,,,,,,,,,,,,,,,,,,,,,,,,,,,,,,,,,,,,,,,,
56058,1645585814.337239,94.0,0.0,4498.974121,6616.922852000001,4202.563965,4282.05127,5596.410156,450.0,4.0,82.0,,,,0.0,4.0,2.0,4.0,0.0,4.0,50.0,,,,,,,,47.0,0.0,0.50016,0.5891109999999999,0.308838,-0.554443,0.96144,-0.260258,-0.113771,-0.037358999999999996,-0.028196,-0.018925,,,,,,,,,,,,,,,,,,,,,,,,,,,,,,,,,,,,,,,,,,,,,,,,,,,,,,,,,,,,,,,,,
56059,1645585814.344954,95.0,0.0,4454.358886999999,6499.487305,4215.384765999999,4280.512695,5076.922852000001,16221.0,4.0,82.0,,,,0.0,4.0,2.0,4.0,0.0,4.0,50.0,,,,,,,,,,,,,,,,,,,,,,,,,,,,,,,,,,,,,,,,,,,,,,,,,,,,,,,,,,,,,,,,,,,,,,,,,,,,,,,,,,,,
56060,1645585814.352768,96.0,0.0,4455.897461,6320.512695,4202.05127,4281.025879,4928.717772999999,450.0,4.0,82.0,,,,0.0,4.0,2.0,4.0,0.0,4.0,50.0,,,,,,,,48.0,0.0,0.49988900000000003,0.5891109999999999,0.308838,-0.554688,0.9751129999999999,-0.259281,-0.118654,-0.037432,-0.028257,-0.021915,,,,,,,,,,,,,,,,,,,,,,,,,,,,,,,,,,,0.0,0.0,64.0,0.6419279999999999,1.0,0.0,,,,,,,,,,,,,,,,,,,,,,,,,
56061,1645585814.360483,97.0,0.0,4406.666504,6074.871582,4192.820313,4281.025879,4792.307617,450.0,4.0,82.0,,,,0.0,4.0,2.0,4.0,0.0,4.0,50.0,,,,,,,,,,,,,,,,,,,,,,,,,,,,,,,,,,,,,,,,,,,,,,,,,,,,,,,,,,,,,,,,,,,,,,,,,,,,,,,,,,,,
56062,1645585814.368298,98.0,0.0,4340.512695,5909.743652,4201.538574,4279.487305,4658.461426,450.0,4.0,82.0,,,,0.0,4.0,2.0,4.0,0.0,4.0,50.0,,,,,,,,49.0,0.0,0.499618,0.5891109999999999,0.308838,-0.554932,0.961929,-0.261234,-0.11035299999999999,-0.037351,-0.028117000000000003,-0.024509,,,,,,,,,,,,,,,,,,,,,,,,,,,,,,,,,,,,,,,,,,,,,,,,,,,,,,,,,,,,,,,,,
56063,1645585814.376112,99.0,0.0,4341.538574,5918.461426,4196.410156,4279.487305,4623.077147999999,16221.0,4.0,82.0,,,,0.0,4.0,2.0,4.0,0.0,4.0,50.0,,,,,,,,,,,,,,,,,,,,,,,,,,,,,,,,,,,,,,,,,,,,,,,,,,,,,,,,,,,,,,,,,,,,,,,,,,,,,,,,,,,,
56064,1645585814.3839269,100.0,0.0,4334.871582,5951.282227000001,4183.077147999999,4281.025879,4548.717772999999,450.0,4.0,82.0,,,,0.0,4.0,2.0,4.0,0.0,4.0,50.0,,,,,,,,50.0,0.0,0.50016,0.5891109999999999,0.308838,-0.554443,0.96144,-0.260258,-0.113771,-0.037278,-0.028137,-0.026941000000000003,,,,,,,,,,,,,,,,,,,,,,,,,,,,,,,,,,,0.0,0.0,64.0,0.6419279999999999,1.0,0.0,,,,,,,,,,,,,,,,,,,,,,,,,
56065,1645585814.391742,101.0,0.0,4281.025879,5935.384765999999,4180.512695,4277.94873,4462.563965,450.0,4.0,82.0,,,,0.0,4.0,2.0,4.0,0.0,4.0,50.0,,,,,,,,,,,,,,,,,,,,,,,,,,,,,,,,,,,,,,,,,,,,,,,,,,,,,,,,,,,,,,,,,,,,,,,,,,,,,,,,,,,,
56066,1645585814.3995562,102.0,0.0,4271.282227000001,5955.384765999999,4169.743652,4277.436035,4458.974121,450.0,4.0,82.0,,,,0.0,4.0,2.0,4.0,0.0,4.0,50.0,,,,,,,,51.0,0.0,0.499618,0.5891109999999999,0.308838,-0.554932,0.961929,-0.261234,-0.11035299999999999,-0.037212,-0.028009,-0.029032,,,,,,,,,,,,,,,,,,,,,,,,,,,,,,,,,,,,,,,,,,,,,,,,,,,,,,,,,,,,,,,,,
56067,1645585814.407371,103.0,0.0,4289.743652,5964.615234000001,4169.743652,4276.922852000001,4465.128418,16221.0,4.0,82.0,,,,0.0,4.0,2.0,4.0,0.0,4.0,50.0,,,,,,,,,,,,,,,,,,,,,,,,,,,,,,,,,,,,,,,,,,,,,,,,,,,,,,,,,,,,,,,,,,,,,,,,,,,,,,,,,,,,
56068,1645585814.415186,104.0,0.0,4251.282227000001,5916.410156,4182.05127,4271.794922,4428.205078,450.0,4.0,82.0,,,,0.0,4.0,2.0,4.0,0.0,4.0,50.0,,,,,,,,52.0,0.0,0.49976899999999996,0.5891109999999999,0.308594,-0.554932,0.972671,-0.260258,-0.10888800000000001,-0.037105,-0.02804,-0.024713,,,,,,,,,,,,,,,,,,,,,,,,,,,,,,,,,,,0.0,0.0,64.0,0.6419279999999999,1.0,0.0,,,,,,,,,,,,,,,,,,,,,,,,,
56069,1645585814.423,105.0,0.0,4225.128418,5902.05127,4175.897461,4273.846191,4386.153809,450.0,4.0,82.0,,,,0.0,4.0,2.0,4.0,0.0,4.0,50.0,,,,,,,,,,,,,,,,,,,,,,,,,,,,,,,,,,,,,,,,,,,,,,,,,,,,,,,,,,,,,,,,,,,,,,,,,,,,,,,,,,,,
56070,1645585814.430715,106.0,0.0,4265.128418,5934.871582,4170.769043,4279.487305,4379.487305,450.0,4.0,82.0,,,,0.0,4.0,2.0,4.0,0.0,4.0,50.0,,,,,,,,53.0,0.0,0.499497,0.5891109999999999,0.308594,-0.555176,0.9863430000000001,-0.234379,-0.11621300000000001,-0.037154,-0.027922000000000002,-0.027027,,,,,,,,,,,,,,,,,,,,,,,,,,,,,,,,,,,,,,,,,,,,,,,,,,,,,,,,,,,,,,,,,
56071,1645585814.43853,107.0,0.0,4289.230957,5915.384765999999,4184.615234000001,4277.436035,4362.563965,16221.0,4.0,82.0,,,,0.0,4.0,2.0,4.0,0.0,4.0,50.0,,,,,,,,,,,,,,,,,,,,,,,,,,,,,,,,,,,,,,,,,,,,,,,,,,,,,,,,,,,,,,,,,,,,,,,,,,,,,,,,,,,,
56072,1645585814.446344,108.0,0.0,4273.333496,5845.641113000001,4186.666504,4278.974121,4320.0,450.0,4.0,82.0,,,,0.0,4.0,2.0,4.0,0.0,4.0,50.0,,,,,,,,54.0,0.0,0.499209,0.5893550000000001,0.308594,-0.555176,0.977554,-0.246586,-0.10009900000000001,-0.037198,-0.027815,-0.022908,1.0,0.0,0.0,,,,,,,,,,,,,,,,,,,,,,,,,,,,,,,,0.0,0.0,64.0,0.616766,1.0,0.0,6.938824,4.805023,2.907435,0.776176,1.567942,86.65793599999999,28.891233000000003,19.592081,9.072826,10.863646000000001,1.231074,2.3318119999999998,1.129631,1.766727,0.529614,0.065075,0.148162,0.106406,0.21433400000000002,0.106636,28.976852,3.936575,5.288435,2.130258,1.0235239999999999
56073,1645585814.454159,109.0,0.0,4277.436035,5802.563965,4180.0,4282.05127,4300.512695,450.0,4.0,82.0,,,,0.0,4.0,2.0,4.0,0.0,4.0,50.0,,,,,,,,,,,,,,,,,,,,,,,,,,,,,,,,,,,,,,,,,,,,,,,,,,,,,,,,,,,,,,,,,,,,,,,,,,,,,,,,,,,,
56074,1645585814.461973,110.0,0.0,4274.358886999999,5777.436035,4184.102539,4270.769043,4294.871582,450.0,4.0,82.0,,,,0.0,4.0,2.0,4.0,0.0,4.0,50.0,,,,,,,,55.0,0.0,0.499497,0.5891109999999999,0.308594,-0.555176,0.9712059999999999,-0.23193699999999998,-0.122072,-0.037043,-0.027866000000000002,-0.025450999999999998,,,,,,,,,,,,,,,,,,,,,,,,,,,,,,,,,,,,,,,,,,,,,,,,,,,,,,,,,,,,,,,,,
56075,1645585814.469788,111.0,0.0,4254.871582,5721.025879,4193.333496,4268.205078,4273.333496,16221.0,4.0,82.0,,,,0.0,4.0,2.0,4.0,0.0,4.0,50.0,,,,,,,,,,,,,,,,,,,,,,,,,,,,,,,,,,,,,,,,,,,,,,,,,,,,,,,,,,,,,,,,,,,,,,,,,,,,,,,,,,,,
56076,1645585814.477603,112.0,0.0,4267.179688,5662.563965,4203.077147999999,4277.94873,4260.512695,450.0,4.0,82.0,,,,0.0,4.0,2.0,4.0,0.0,4.0,50.0,,,,,,,,56.0,0.0,0.499497,0.5891109999999999,0.308594,-0.555176,0.9702299999999999,-0.250004,-0.118654,-0.037001,-0.027911000000000002,-0.027837999999999998,,,,,,,,,,,,,,,,,,,,,,,,,,,,,,,,,,,0.0,0.0,64.0,0.616766,1.0,0.0,,,,,,,,,,,,,,,,,,,,,,,,,
56077,1645585814.485417,113.0,0.0,4307.179688,5654.871582,4203.077147999999,4275.897461,4281.538574,450.0,4.0,82.0,,,,0.0,4.0,2.0,4.0,0.0,4.0,50.0,,,,,,,,,,,,,,,,,,,,,,,,,,,,,,,,,,,,,,,,,,,,,,,,,,,,,,,,,,,,,,,,,,,,,,,,,,,,,,,,,,,,
56078,1645585814.493132,114.0,0.0,4305.641113000001,5625.641113000001,4186.666504,4274.358886999999,4297.436035,450.0,4.0,82.0,,,,0.0,4.0,2.0,4.0,0.0,4.0,50.0,,,,,,,,57.0,0.0,0.499634,0.588867,0.308838,-0.555176,0.968277,-0.250492,-0.116701,-0.037061000000000004,-0.027951999999999998,-0.023687,,,,,,,,,,,,,,,,,,,,,,,,,,,,,,,,,,,,,,,,,,,,,,,,,,,,,,,,,,,,,,,,,
56079,1645585814.500947,115.0,0.0,4247.692383,5541.025879,4188.717772999999,4277.436035,4290.256348,16221.0,4.0,82.0,,,,0.0,4.0,2.0,4.0,0.0,4.0,50.0,,,,,,,,,,,,,,,,,,,,,,,,,,,,,,,,,,,,,,,,,,,,,,,,,,,,,,,,,,,,,,,,,,,,,,,,,,,,,,,,,,,,
56080,1645585814.508761,116.0,0.0,4219.487305,5460.0,4202.563965,4273.846191,4274.358886999999,450.0,4.0,82.0,,,,0.0,4.0,2.0,4.0,0.0,4.0,50.0,,,,,,,,58.0,0.0,0.499363,0.588867,0.308838,-0.55542,0.9741360000000001,-0.251469,-0.12060699999999999,-0.037017,-0.027892,-0.026396,,,,,,,,,,,,,,,,,,,,,,,,,,,,,,,,,,,0.0,-1.0,64.0,0.616766,1.0,0.0,,,,,,,,,,,,,,,,,,,,,,,,,
56081,1645585814.516576,117.0,0.0,4249.743652,5383.589844,4190.256348,4269.743652,4274.358886999999,450.0,4.0,82.0,,,,0.0,4.0,2.0,4.0,0.0,4.0,50.0,,,,,,,,,,,,,,,,,,,,,,,,,,,,,,,,,,,,,,,,,,,,,,,,,,,,,,,,,,,,,,,,,,,,,,,,,,,,,,,,,,,,
56082,1645585814.524391,118.0,0.0,4266.153809,5269.230957,4178.461426,4272.820313,4287.179688,450.0,4.0,82.0,,,,0.0,4.0,2.0,4.0,0.0,4.0,50.0,,,,,,,,59.0,0.0,0.499483,0.588867,0.309082,-0.555176,0.976577,-0.24853899999999998,-0.118654,-0.036976999999999996,-0.027886,-0.02864,,,,,,,,,,,,,,,,,,,,,,,,,,,,,,,,,,,,,,,,,,,,,,,,,,,,,,,,,,,,,,,,,
56083,1645585814.532205,119.0,0.0,4225.128418,5153.846191,4178.974121,4273.846191,4274.871582,16221.0,4.0,82.0,,,,0.0,4.0,2.0,4.0,0.0,4.0,50.0,,,,,,,,,,,,,,,,,,,,,,,,,,,,,,,,,,,,,,,,,,,,,,,,,,,,,,,,,,,,,,,,,,,,,,,,,,,,,,,,,,,,
56084,1645585814.5399199,120.0,0.0,4186.666504,5089.743652,4171.282227000001,4271.794922,4257.436035,450.0,4.0,82.0,,,,0.0,4.0,2.0,4.0,0.0,4.0,50.0,,,,,,,,60.0,0.0,0.498924,0.5891109999999999,0.309082,-0.55542,0.973159,-0.25098000000000004,-0.126467,-0.037088,-0.027880000000000002,-0.024262,,,,,,,,,,,,,,,,,,,,,,,,,,,,,,,,,,,0.0,0.0,64.0,0.616766,1.0,0.0,,,,,,,,,,,,,,,,,,,,,,,,,
56085,1645585814.547735,121.0,0.0,4197.436035,5052.820313,4174.871582,4272.820313,4263.077147999999,450.0,4.0,82.0,,,,0.0,4.0,2.0,4.0,0.0,4.0,50.0,,,,,,,,,,,,,,,,,,,,,,,,,,,,,,,,,,,,,,,,,,,,,,,,,,,,,,,,,,,,,,,,,,,,,,,,,,,,,,,,,,,,
56086,1645585814.555549,122.0,0.0,4225.641113000001,5028.717772999999,4191.794922,4277.436035,4266.666504,450.0,4.0,82.0,,,,0.0,4.0,2.0,4.0,0.0,4.0,50.0,,,,,,,,61.0,0.0,0.499212,0.588867,0.309082,-0.55542,0.969253,-0.243168,-0.11035299999999999,-0.03709,-0.027826999999999998,-0.020371,,,,,,,,,,,,,,,,,,,,,,,,,,,,,,,,,,,,,,,,,,,,,,,,,,,,,,,,,,,,,,,,,
56087,1645585814.563364,123.0,0.0,4223.589844,5000.512695,4194.358886999999,4276.410156,4244.615234000001,16221.0,4.0,82.0,,,,0.0,4.0,2.0,4.0,0.0,4.0,50.0,,,,,,,,,,,,,,,,,,,,,,,,,,,,,,,,,,,,,,,,,,,,,,,,,,,,,,,,,,,,,,,,,,,,,,,,,,,,,,,,,,,,
56088,1645585814.571179,124.0,0.0,4207.179688,4931.794922,4204.615234000001,4270.256348,4241.025879,450.0,4.0,82.0,,,,0.0,4.0,2.0,4.0,0.0,4.0,50.0,,,,,,,,62.0,0.0,0.499212,0.588867,0.309082,-0.55542,0.969253,-0.23975,-0.11767799999999999,-0.037092,-0.027826999999999998,-0.023216999999999998,1.0,0.0,0.0,,,,,,,,,,,,,,,,,,,,,,,,,,,,,,,,0.0,0.0,32.0,0.605378,1.0,0.0,25.731617,5.479856,2.695659,0.8538030000000001,1.597996,158.88652,52.619678,24.533678,9.886672,11.465601,1.660318,2.394087,1.242075,1.627853,0.5071,0.081737,0.130494,0.096435,0.222056,0.092315,230.95446800000002,16.251773999999997,11.454266,4.246294,1.483744
56089,1645585814.578993,125.0,0.0,4216.922852000001,4857.94873,4215.897461,4272.307617,4275.384765999999,450.0,4.0,82.0,,,,0.0,4.0,2.0,4.0,0.0,4.0,50.0,,,,,,,,,,,,,,,,,,,,,,,,,,,,,,,,,,,,,,,,,,,,,,,,,,,,,,,,,,,,,,,,,,,,,,,,,,,,,,,,,,,,
56090,1645585814.586808,126.0,0.0,4221.538574,4834.871582,4211.794922,4274.871582,4295.384765999999,450.0,4.0,82.0,,,,0.0,4.0,2.0,4.0,0.0,4.0,50.0,,,,,,,,63.0,0.0,0.499212,0.588867,0.309082,-0.55542,0.9751129999999999,-0.243168,-0.122072,-0.037045,-0.02773,-0.025729000000000002,,,,,,,,,,,,,,,,,,,,,,,,,,,,,,,,,,,,,,,,,,,,,,,,,,,,,,,,,,,,,,,,,
56091,1645585814.594623,127.0,0.0,4197.94873,4843.077147999999,4213.333496,4270.769043,4284.102539,240.0,4.0,82.0,,,,0.0,4.0,2.0,4.0,0.0,4.0,50.0,,,,,,,,,,,,,,,,,,,,,,,,,,,,,,,,,,,,,,,,,,,,,,,,,,,,,,,,,,,,,,,,,,,,,,,,,,,,,,,,,,,,
56092,1645585814.602437,0.0,0.0,4199.487305,4891.282227000001,4210.256348,4275.384765999999,4295.897461,450.0,4.0,82.0,,,,0.0,4.0,2.0,4.0,0.0,4.0,50.0,,,,,,,,0.0,0.0,0.499212,0.588867,0.309082,-0.55542,0.973159,-0.25195700000000004,-0.12060699999999999,-0.037101,-0.027594,-0.021838,,,,,,,,,,,,,,,,,,,,,,,,,,,,,,,,,,,0.0,0.0,32.0,0.605378,1.0,0.0,,,,,,,,,,,,,,,,,,,,,,,,,
56093,1645585814.610252,1.0,0.0,4226.666504,4921.538574,4183.077147999999,4279.487305,4319.487305,450.0,4.0,82.0,,,,0.0,4.0,2.0,4.0,0.0,4.0,50.0,,,,,,,,,,,,,,,,,,,,,,,,,,,,,,,,,,,,,,,,,,,,,,,,,,,,,,,,,,,,,,,,,,,,,,,,,,,,,,,,,,,,
56094,1645585814.617967,2.0,0.0,4232.820313,4810.256348,4179.487305,4271.794922,4309.230957,16209.0,4.0,82.0,,,,0.0,4.0,2.0,4.0,0.0,4.0,50.0,,,,,,,,1.0,0.0,0.499212,0.588867,0.309082,-0.55542,0.963882,-0.256352,-0.11816600000000001,-0.037052999999999996,-0.027618,-0.018287,,,,,,,,,,,,,,,,,,,,,,,,,,,,,,,,,,,,,,,,,,,,,,,,,,,,,,,,,,,,,,,,,
56095,1645585814.625781,3.0,0.0,4223.589844,4702.563965,4203.589844,4269.230957,4300.512695,450.0,4.0,82.0,,,,0.0,4.0,2.0,4.0,0.0,4.0,50.0,,,,,,,,,,,,,,,,,,,,,,,,,,,,,,,,,,,,,,,,,,,,,,,,,,,,,,,,,,,,,,,,,,,,,,,,,,,,,,,,,,,,
56096,1645585814.6335962,4.0,0.0,4206.153809,4731.794922,4207.692383,4272.820313,4304.102539,210.0,4.0,82.0,,,,0.0,4.0,2.0,4.0,0.0,4.0,50.0,,,,,,,,2.0,0.0,0.499363,0.588867,0.308838,-0.55542,0.976089,-0.255375,-0.113771,-0.037058,-0.027688,-0.021243,,,,,,,,,,,,,,,,,,,,,,,,,,,,,,,,,,,0.0,0.0,32.0,0.605378,1.0,0.0,,,,,,,,,,,,,,,,,,,,,,,,,
56097,1645585814.6414108,5.0,0.0,4200.512695,4735.897461,4209.230957,4272.820313,4295.384765999999,450.0,4.0,82.0,,,,0.0,4.0,2.0,4.0,0.0,4.0,50.0,,,,,,,,,,,,,,,,,,,,,,,,,,,,,,,,,,,,,,,,,,,,,,,,,,,,,,,,,,,,,,,,,,,,,,,,,,,,,,,,,,,,
56098,1645585814.649225,6.0,0.0,4211.282227000001,4622.563965,4219.487305,4270.769043,4290.769043,16222.0,4.0,82.0,,,,0.0,4.0,2.0,4.0,0.0,4.0,50.0,,,,,,,,3.0,0.0,0.499091,0.588867,0.308838,-0.555664,0.9712059999999999,-0.250492,-0.13135,-0.037015,-0.027701999999999997,-0.023855,,,,,,,,,,,,,,,,,,,,,,,,,,,,,,,,,,,,,,,,,,,,,,,,,,,,,,,,,,,,,,,,,
56099,1645585814.65704,7.0,0.0,4200.0,4536.410156,4214.871582,4272.820313,4281.538574,450.0,4.0,82.0,,,,0.0,4.0,2.0,4.0,0.0,4.0,50.0,,,,,,,,,,,,,,,,,,,,,,,,,,,,,,,,,,,,,,,,,,,,,,,,,,,,,,,,,,,,,,,,,,,,,,,,,,,,,,,,,,,,
56100,1645585814.664855,8.0,0.0,4187.179688,4547.692383,4203.077147999999,4273.333496,4253.333496,450.0,4.0,82.0,,,,0.0,4.0,2.0,4.0,0.0,4.0,50.0,,,,,,,,4.0,0.0,0.499242,0.588867,0.308594,-0.555664,0.962417,-0.250004,-0.11767799999999999,-0.037024,-0.027714999999999997,-0.026304,,,,,,,,,,,,,,,,,,,,,,,,,,,,,,,,,,,0.0,0.0,32.0,0.605378,1.0,0.0,,,,,,,,,,,,,,,,,,,,,,,,,
56101,1645585814.672669,9.0,0.0,4202.05127,4563.589844,4201.025879,4271.794922,4251.282227000001,0.0,4.0,82.0,,,,0.0,4.0,2.0,4.0,0.0,4.0,50.0,,,,,,,,,,,,,,,,,,,,,,,,,,,,,,,,,,,,,,,,,,,,,,,,,,,,,,,,,,,,,,,,,,,,,,,,,,,,,,,,,,,,
56102,1645585814.680384,10.0,0.0,4204.102539,4531.282227000001,4208.717772999999,4271.794922,4256.410156,450.0,4.0,82.0,,,,0.0,4.0,2.0,4.0,0.0,4.0,50.0,,,,,,,,5.0,0.0,0.499242,0.588867,0.308594,-0.555664,0.9741360000000001,-0.244633,-0.128908,-0.037032999999999996,-0.027776,-0.028458999999999998,,,,,,,,,,,,,,,,,,,,,,,,,,,,,,,,,,,,,,,,,,,,,,,,,,,,,,,,,,,,,,,,,
56103,1645585814.688199,11.0,0.0,4195.384765999999,4503.077147999999,4226.153809,4271.794922,4244.102539,16214.0,4.0,82.0,,,,0.0,4.0,2.0,4.0,0.0,4.0,50.0,,,,,,,,,,,,,,,,,,,,,,,,,,,,,,,,,,,,,,,,,,,,,,,,,,,,,,,,,,,,,,,,,,,,,,,,,,,,,,,,,,,,
56104,1645585814.6960142,12.0,0.0,4212.820313,4549.230957,4235.384765999999,4271.794922,4248.205078,450.0,4.0,82.0,,,,0.0,4.0,2.0,4.0,0.0,4.0,50.0,1.0,0.0,3.0,0.0,4.0,0.0,0.0,6.0,0.0,0.499242,0.588867,0.308594,-0.555664,0.9716950000000001,-0.253422,-0.112795,-0.037041000000000004,-0.027781999999999998,-0.030545,1.0,0.0,0.0,,,,,,,,,,,,,,,,,,,,,,,,,,,,,,,,0.0,0.0,32.0,0.669708,1.0,0.0,74.911232,6.504753,2.472646,1.112066,1.7432290000000001,333.907135,119.358429,34.106201,11.33959,12.33441,2.4875119999999997,2.43452,1.279747,1.501317,0.545175,0.105048,0.11013800000000001,0.09007799999999999,0.21775300000000003,0.07854900000000001,895.5772710000001,59.40720400000001,30.431171000000003,10.980536,2.820364
56105,1645585814.7038288,13.0,0.0,4213.333496,4562.563965,4221.538574,4271.794922,4235.384765999999,450.0,4.0,82.0,,,,0.0,4.0,2.0,4.0,0.0,4.0,50.0,,,,,,,,,,,,,,,,,,,,,,,,,,,,,,,,,,,,,,,,,,,,,,,,,,,,,,,,,,,,,,,,,,,,,,,,,,,,,,,,,,,,
56106,1645585814.711644,14.0,0.0,4201.538574,4482.563965,4205.641113000001,4271.794922,4200.512695,450.0,4.0,82.0,,,,0.0,4.0,2.0,4.0,0.0,4.0,50.0,,,,,,,,7.0,0.0,0.499242,0.588867,0.308594,-0.555664,0.9716950000000001,-0.258793,-0.111818,-0.037096,-0.027884,-0.026025,,,,,,,,,,,,,,,,,,,,,,,,,,,,,,,,,,,,,,,,,,,,,,,,,,,,,,,,,,,,,,,,,
56107,1645585814.719459,15.0,0.0,4213.333496,4485.128418,4202.563965,4271.794922,4224.615234000001,16214.0,4.0,82.0,,,,0.0,4.0,2.0,4.0,0.0,4.0,50.0,,,,,,,,,,,,,,,,,,,,,,,,,,,,,,,,,,,,,,,,,,,,,,,,,,,,,,,,,,,,,,,,,,,,,,,,,,,,,,,,,,,,
56108,1645585814.727274,16.0,0.0,4206.153809,4542.05127,4209.230957,4271.794922,4266.153809,0.0,4.0,82.0,,,,0.0,4.0,2.0,4.0,0.0,4.0,50.0,,,,,,,,8.0,0.0,0.499258,0.588623,0.308594,-0.555908,0.969741,-0.246586,-0.12109600000000001,-0.037244,-0.027781999999999998,-0.028257,,,,,,,,,,,,,,,,,,,,,,,,,,,,,,,,,,,0.0,0.0,32.0,0.669708,1.0,0.0,,,,,,,,,,,,,,,,,,,,,,,,,
56109,1645585814.735088,17.0,0.0,4204.615234000001,4493.333496,4220.0,4271.794922,4264.615234000001,0.0,4.0,82.0,,,,0.0,4.0,2.0,4.0,0.0,4.0,50.0,,,,,,,,,,,,,,,,,,,,,,,,,,,,,,,,,,,,,,,,,,,,,,,,,,,,,,,,,,,,,,,,,,,,,,,,,,,,,,,,,,,,
56110,1645585814.742903,18.0,0.0,4225.128418,4415.384765999999,4217.94873,4271.794922,4258.974121,0.0,4.0,82.0,,,,0.0,4.0,2.0,4.0,0.0,4.0,50.0,,,,,,,,9.0,0.0,0.499258,0.588623,0.308594,-0.555908,0.9716950000000001,-0.252934,-0.11718900000000002,-0.03728,-0.027787,-0.023966,,,,,,,,,,,,,,,,,,,,,,,,,,,,,,,,,,,,,,,,,,,,,,,,,,,,,,,,,,,,,,,,,
56111,1645585814.7507179,19.0,0.0,4201.025879,4422.05127,4206.153809,4271.794922,4238.974121,0.0,4.0,82.0,,,,0.0,4.0,2.0,4.0,0.0,4.0,50.0,,,,,,,,,,,,,,,,,,,,,,,,,,,,,,,,,,,,,,,,,,,,,,,,,,,,,,,,,,,,,,,,,,,,,,,,,,,,,,,,,,,,
56112,1645585814.758433,20.0,0.0,4182.05127,4466.153809,4203.077147999999,4271.794922,4210.769043,0.0,4.0,82.0,,,,0.0,4.0,2.0,4.0,0.0,4.0,50.0,,,,,,,,10.0,0.0,0.499258,0.588623,0.308594,-0.555908,0.9702299999999999,-0.251469,-0.11767799999999999,-0.037263,-0.027839999999999997,-0.026355,,,,,,,,,,,,,,,,,,,,,,,,,,,,,,,,,,,0.0,0.0,32.0,0.669708,1.0,0.0,,,,,,,,,,,,,,,,,,,,,,,,,
56113,1645585814.766248,21.0,0.0,4210.769043,4483.077147999999,4198.974121,4271.794922,4222.05127,0.0,4.0,82.0,,,,0.0,4.0,2.0,4.0,0.0,4.0,50.0,,,,,,,,,,,,,,,,,,,,,,,,,,,,,,,,,,,,,,,,,,,,,,,,,,,,,,,,,,,,,,,,,,,,,,,,,,,,,,,,,,,,
56114,1645585814.774062,22.0,0.0,4208.717772999999,4454.871582,4187.179688,4271.794922,4237.94873,0.0,4.0,82.0,,,,0.0,4.0,2.0,4.0,0.0,4.0,50.0,,,,,,,,11.0,0.0,0.499258,0.588623,0.308594,-0.555908,0.972183,-0.255863,-0.128908,-0.037344999999999996,-0.027839,-0.028505000000000003,,,,,,,,,,,,,,,,,,,,,,,,,,,,,,,,,,,,,,,,,,,,,,,,,,,,,,,,,,,,,,,,,
56115,1645585814.781777,23.0,0.0,4178.974121,4423.589844,4192.820313,4271.794922,4230.769043,0.0,4.0,82.0,,,,0.0,4.0,2.0,4.0,0.0,4.0,50.0,,,,,,,,,,,,,,,,,,,,,,,,,,,,,,,,,,,,,,,,,,,,,,,,,,,,,,,,,,,,,,,,,,,,,,,,,,,,,,,,,,,,
56116,1645585814.789592,24.0,0.0,4171.794922,4456.922852000001,4200.512695,4271.794922,4251.794922,0.0,4.0,82.0,,,,0.0,4.0,2.0,4.0,0.0,4.0,50.0,,,,,,,,12.0,0.0,0.499546,0.588379,0.308594,-0.555908,0.9751129999999999,-0.24805100000000002,-0.11425999999999999,-0.03737,-0.027839,-0.030586000000000002,,,,,,,,,,,,,,,,,,,,,,,,,,,,,,,,,,,0.0,0.0,32.0,0.669708,1.0,0.0,,,,,,,,,,,,,,,,,,,,,,,,,
56117,1645585814.797306,25.0,0.0,4173.846191,4487.179688,4196.922852000001,4271.794922,4270.769043,0.0,4.0,82.0,,,,0.0,4.0,2.0,4.0,0.0,4.0,50.0,,,,,,,,,,,,,,,,,,,,,,,,,,,,,,,,,,,,,,,,,,,,,,,,,,,,,,,,,,,,,,,,,,,,,,,,,,,,,,,,,,,,
56118,1645585814.805021,26.0,0.0,4205.641113000001,4500.512695,4208.205078,4271.794922,4254.871582,0.0,4.0,82.0,,,,0.0,4.0,2.0,4.0,0.0,4.0,50.0,,,,,,,,13.0,0.0,0.499546,0.588379,0.308594,-0.555908,0.9673,-0.246098,-0.11767799999999999,-0.037295,-0.027837999999999998,-0.026111000000000002,,,,,,,,,,,,,,,,,,,,,,,,,,,,,,,,,,,,,,,,,,,,,,,,,,,,,,,,,,,,,,,,,
56119,1645585814.812836,27.0,0.0,4235.384765999999,4544.102539,4217.94873,4271.794922,4246.153809,0.0,4.0,82.0,,,,0.0,4.0,2.0,4.0,0.0,4.0,50.0,,,,,,,,,,,,,,,,,,,,,,,,,,,,,,,,,,,,,,,,,,,,,,,,,,,,,,,,,,,,,,,,,,,,,,,,,,,,,,,,,,,,
56120,1645585814.82065,28.0,0.0,4215.897461,4530.256348,4214.358886999999,4271.794922,4237.94873,0.0,4.0,82.0,,,,0.0,4.0,2.0,4.0,0.0,4.0,50.0,,,,,,,,14.0,0.0,0.499258,0.588623,0.308594,-0.555908,0.972183,-0.255863,-0.128908,-0.037228,-0.027837,-0.022084,1.0,0.0,0.0,,,,,,,,,,,,,,,,,,,,,,,,,,,,,,,,0.0,0.0,32.0,0.102215,1.0,0.0,160.837097,7.991624000000001,2.346215,1.4751610000000002,2.041944,646.537903,240.670029,49.837238,13.219213,13.388972,3.596223,2.41624,1.241312,1.457191,0.663407,0.130055,0.094902,0.08685599999999999,0.200733,0.068079,2191.5390629999997,150.49298100000001,67.263145,24.644701,5.335563
56121,1645585814.828465,29.0,0.0,4208.205078,4442.05127,4214.871582,4271.794922,4228.717772999999,0.0,4.0,82.0,,,,0.0,4.0,2.0,4.0,0.0,4.0,50.0,,,,,,,,,,,,,,,,,,,,,,,,,,,,,,,,,,,,,,,,,,,,,,,,,,,,,,,,,,,,,,,,,,,,,,,,,,,,,,,,,,,,
56122,1645585814.83628,30.0,0.0,4213.846191,4386.666504,4210.769043,4271.794922,4225.128418,0.0,4.0,82.0,,,,0.0,4.0,2.0,4.0,0.0,4.0,50.0,,,,,,,,15.0,0.0,0.499546,0.588379,0.308594,-0.555908,0.9673,-0.246098,-0.11767799999999999,-0.037167,-0.027837,-0.01846,,,,,,,,,,,,,,,,,,,,,,,,,,,,,,,,,,,,,,,,,,,,,,,,,,,,,,,,,,,,,,,,,
56123,1645585814.844094,31.0,0.0,4190.256348,4381.025879,4198.974121,4271.794922,4213.846191,0.0,4.0,82.0,,,,0.0,4.0,2.0,4.0,0.0,4.0,50.0,,,,,,,,,,,,,,,,,,,,,,,,,,,,,,,,,,,,,,,,,,,,,,,,,,,,,,,,,,,,,,,,,,,,,,,,,,,,,,,,,,,,
56124,1645585814.851909,32.0,0.0,4185.128418,4376.922852000001,4200.512695,4271.794922,4221.025879,0.0,4.0,82.0,,,,0.0,4.0,2.0,4.0,0.0,4.0,50.0,,,,,,,,16.0,0.0,0.499274,0.588379,0.308594,-0.5561520000000001,0.972183,-0.260746,-0.121584,-0.037259,-0.027836,-0.02135,,,,,,,,,,,,,,,,,,,,,,,,,,,,,,,,,,,0.0,0.0,32.0,0.102215,1.0,0.0,,,,,,,,,,,,,,,,,,,,,,,,,
56125,1645585814.859724,33.0,0.0,4201.025879,4370.256348,4201.025879,4271.794922,4240.512695,0.0,4.0,82.0,,,,0.0,4.0,2.0,4.0,0.0,4.0,50.0,,,,,,,,,,,,,,,,,,,,,,,,,,,,,,,,,,,,,,,,,,,,,,,,,,,,,,,,,,,,,,,,,,,,,,,,,,,,,,,,,,,,
56126,1645585814.867538,34.0,0.0,4195.384765999999,4350.769043,4188.205078,4271.794922,4234.358886999999,0.0,4.0,82.0,,,,0.0,4.0,2.0,4.0,0.0,4.0,50.0,,,,,,,,17.0,0.0,0.499425,0.588379,0.30835,-0.5561520000000001,0.980484,-0.25684,-0.13086099999999998,-0.037196,-0.027787,-0.017848,,,,,,,,,,,,,,,,,,,,,,,,,,,,,,,,,,,,,,,,,,,,,,,,,,,,,,,,,,,,,,,,,
56127,1645585814.875253,35.0,0.0,4193.846191,4367.692383,4184.615234000001,4271.794922,4223.589844,0.0,4.0,82.0,,,,0.0,4.0,2.0,4.0,0.0,4.0,50.0,,,,,,,,,,,,,,,,,,,,,,,,,,,,,,,,,,,,,,,,,,,,,,,,,,,,,,,,,,,,,,,,,,,,,,,,,,,,,,,,,,,,
56128,1645585814.883068,36.0,0.0,4218.974121,4469.230957,4201.538574,4271.794922,4235.897461,0.0,4.0,82.0,,,,0.0,4.0,2.0,4.0,0.0,4.0,50.0,,,,,,,,18.0,0.0,0.499425,0.588379,0.30835,-0.5561520000000001,0.9824370000000001,-0.240238,-0.130373,-0.037138,-0.027694,-0.014696,,,,,,,,,,,,,,,,,,,,,,,,,,,,,,,,,,,0.0,0.0,32.0,0.102215,1.0,0.0,,,,,,,,,,,,,,,,,,,,,,,,,
56129,1645585814.890882,37.0,0.0,4225.641113000001,4514.871582,4218.461426,4271.794922,4245.641113000001,0.0,4.0,82.0,,,,0.0,4.0,2.0,4.0,0.0,4.0,50.0,,,,,,,,,,,,,,,,,,,,,,,,,,,,,,,,,,,,,,,,,,,,,,,,,,,,,,,,,,,,,,,,,,,,,,,,,,,,,,,,,,,,
56130,1645585814.8986971,38.0,0.0,4201.538574,4393.333496,4216.410156,4271.794922,4234.358886999999,0.0,4.0,82.0,,,,0.0,4.0,2.0,4.0,0.0,4.0,50.0,,,,,,,,19.0,0.0,0.499274,0.588379,0.308594,-0.5561520000000001,0.9707180000000001,-0.24756199999999998,-0.12549000000000002,-0.037183999999999995,-0.027610000000000003,-0.018012,,,,,,,,,,,,,,,,,,,,,,,,,,,,,,,,,,,,,,,,,,,,,,,,,,,,,,,,,,,,,,,,,
56131,1645585814.906512,39.0,0.0,4195.384765999999,4310.256348,4205.641113000001,4271.794922,4224.615234000001,0.0,4.0,82.0,,,,0.0,4.0,2.0,4.0,0.0,4.0,50.0,,,,,,,,,,,,,,,,,,,,,,,,,,,,,,,,,,,,,,,,,,,,,,,,,,,,,,,,,,,,,,,,,,,,,,,,,,,,,,,,,,,,
56132,1645585814.914326,40.0,0.0,4209.743652,4388.205078,4197.94873,4271.794922,4235.384765999999,0.0,4.0,82.0,,,,0.0,4.0,2.0,4.0,0.0,4.0,50.0,,,,,,,,20.0,0.0,0.499274,0.588379,0.308594,-0.5561520000000001,0.977066,-0.246586,-0.11718900000000002,-0.037226,-0.027632999999999998,-0.014843,,,,,,,,,,,,,,,,,,,,,,,,,,,,,,,,,,,0.0,0.0,32.0,0.102215,1.0,0.0,,,,,,,,,,,,,,,,,,,,,,,,,
56133,1645585814.922141,41.0,0.0,4208.717772999999,4394.358886999999,4200.512695,4271.794922,4236.410156,0.0,4.0,82.0,,,,0.0,4.0,2.0,4.0,0.0,4.0,50.0,,,,,,,,,,,,,,,,,,,,,,,,,,,,,,,,,,,,,,,,,,,,,,,,,,,,,,,,,,,,,,,,,,,,,,,,,,,,,,,,,,,,
56134,1645585814.929956,42.0,0.0,4213.333496,4303.077147999999,4210.256348,4271.794922,4221.538574,0.0,4.0,82.0,,,,0.0,4.0,2.0,4.0,0.0,4.0,50.0,,,,,,,,21.0,0.0,0.499123,0.588379,0.308838,-0.5561520000000001,0.978042,-0.260746,-0.12255999999999999,-0.037312,-0.027652999999999997,-0.018144,,,,,,,,,,,,,,,,,,,,,,,,,,,,,,,,,,,,,,,,,,,,,,,,,,,,,,,,,,,,,,,,,
56135,1645585814.93767,43.0,0.0,4243.589844,4304.102539,4206.666504,4271.794922,4237.436035,0.0,4.0,82.0,,,,0.0,4.0,2.0,4.0,0.0,4.0,50.0,,,,,,,,,,,,,,,,,,,,,,,,,,,,,,,,,,,,,,,,,,,,,,,,,,,,,,,,,,,,,,,,,,,,,,,,,,,,,,,,,,,,
56136,1645585814.9454849,44.0,0.0,4246.666504,4320.0,4191.282227000001,4271.794922,4253.846191,0.0,4.0,82.0,,,,0.0,4.0,2.0,4.0,0.0,4.0,50.0,,,,,,,,22.0,0.0,0.499411,0.5881350000000001,0.308838,-0.5561520000000001,0.9741360000000001,-0.24805100000000002,-0.122072,-0.037292,-0.027622000000000004,-0.014865,1.0,0.0,0.0,,,,,,,,,,,,,,,,,,,,,,,,,,,,,,,,0.0,0.0,32.0,0.023375999999999997,1.0,0.0,270.70248399999997,9.836068,2.330995,1.880033,2.477531,1070.654175,402.716064,70.34251400000001,15.296249,14.451104,4.694376,2.3571400000000002,1.16262,1.514276,0.841074,0.150118,0.087744,0.084156,0.175787,0.061911,4024.742676,287.04629500000004,118.93502,44.626197999999995,8.786731
56137,1645585814.9533,45.0,0.0,4234.358886999999,4298.974121,4208.205078,4271.794922,4243.589844,0.0,4.0,82.0,,,,0.0,4.0,2.0,4.0,0.0,4.0,50.0,,,,,,,,,,,,,,,,,,,,,,,,,,,,,,,,,,,,,,,,,,,,,,,,,,,,,,,,,,,,,,,,,,,,,,,,,,,,,,,,,,,,
56138,1645585814.9611142,46.0,0.0,4250.769043,4327.179688,4234.358886999999,4271.794922,4246.153809,0.0,4.0,82.0,,,,0.0,4.0,2.0,4.0,0.0,4.0,50.0,,,,,,,,23.0,0.0,0.499683,0.5881350000000001,0.308838,-0.555908,0.972671,-0.252445,-0.124025,-0.037322,-0.027692,-0.018164,,,,,,,,,,,,,,,,,,,,,,,,,,,,,,,,,,,,,,,,,,,,,,,,,,,,,,,,,,,,,,,,,
56139,1645585814.9689288,47.0,0.0,4257.94873,4347.692383,4207.179688,4271.794922,4249.743652,0.0,4.0,82.0,,,,0.0,4.0,2.0,4.0,0.0,4.0,50.0,,,,,,,,,,,,,,,,,,,,,,,,,,,,,,,,,,,,,,,,,,,,,,,,,,,,,,,,,,,,,,,,,,,,,,,,,,,,,,,,,,,,
56140,1645585814.976744,48.0,0.0,4230.769043,4280.0,4172.820313,4271.794922,4242.05127,0.0,4.0,82.0,,,,0.0,4.0,2.0,4.0,0.0,4.0,50.0,,,,,,,,24.0,0.0,0.499683,0.5881350000000001,0.308838,-0.555908,0.978042,-0.253422,-0.121584,-0.03735,-0.027657,-0.014882,,,,,,,,,,,,,,,,,,,,,,,,,,,,,,,,,,,0.0,0.0,32.0,0.023375999999999997,1.0,0.0,,,,,,,,,,,,,,,,,,,,,,,,,
56141,1645585814.984558,49.0,0.0,4216.410156,4232.820313,4185.641113000001,4271.794922,4246.666504,0.0,4.0,82.0,,,,0.0,4.0,2.0,4.0,0.0,4.0,50.0,,,,,,,,,,,,,,,,,,,,,,,,,,,,,,,,,,,,,,,,,,,,,,,,,,,,,,,,,,,,,,,,,,,,,,,,,,,,,,,,,,,,
56142,1645585814.992373,50.0,0.0,4211.794922,4297.94873,4195.897461,4271.794922,4241.025879,0.0,4.0,82.0,,,,0.0,4.0,2.0,4.0,0.0,4.0,50.0,,,,,,,,25.0,0.0,0.499683,0.5881350000000001,0.308838,-0.555908,0.976577,-0.25684,-0.11230599999999999,-0.037277,-0.027527999999999997,-0.018228,,,,,,,,,,,,,,,,,,,,,,,,,,,,,,,,,,,,,,,,,,,,,,,,,,,,,,,,,,,,,,,,,
56143,1645585815.000187,51.0,0.0,4191.794922,4334.871582,4189.230957,4271.794922,4222.05127,0.0,4.0,82.0,,,,0.0,4.0,2.0,4.0,0.0,4.0,50.0,,,,,,,,,,,,,,,,,,,,,,,,,,,,,,,,,,,,,,,,,,,,,,,,,,,,,,,,,,,,,,,,,,,,,,,,,,,,,,,,,,,,
56144,1645585815.008002,52.0,0.0,4206.666504,4235.384765999999,4202.563965,4271.794922,4222.563965,0.0,4.0,82.0,,,,0.0,4.0,2.0,4.0,0.0,4.0,50.0,,,,,,,,26.0,0.0,0.49983299999999997,0.5881350000000001,0.308594,-0.555908,0.976577,-0.226566,-0.124025,-0.037308999999999995,-0.027607,-0.021190999999999998,,,,,,,,,,,,,,,,,,,,,,,,,,,,,,,,,,,0.0,0.0,32.0,0.023375999999999997,1.0,0.0,,,,,,,,,,,,,,,,,,,,,,,,,
56145,1645585815.015717,53.0,0.0,4231.282227000001,4176.410156,4216.410156,4271.794922,4229.743652,0.0,4.0,82.0,,,,0.0,4.0,2.0,4.0,0.0,4.0,50.0,,,,,,,,,,,,,,,,,,,,,,,,,,,,,,,,,,,,,,,,,,,,,,,,,,,,,,,,,,,,,,,,,,,,,,,,,,,,,,,,,,,,
56146,1645585815.023531,54.0,0.0,4210.256348,4272.307617,4211.794922,4271.282227000001,4236.922852000001,0.0,4.0,82.0,,,,0.0,4.0,2.0,4.0,0.0,4.0,50.0,,,,,,,,27.0,0.0,0.499562,0.5881350000000001,0.308594,-0.5561520000000001,0.9633940000000001,-0.24853899999999998,-0.12109600000000001,-0.037337999999999996,-0.027630000000000002,-0.023857,,,,,,,,,,,,,,,,,,,,,,,,,,,,,,,,,,,,,,,,,,,,,,,,,,,,,,,,,,,,,,,,,
56147,1645585815.031346,55.0,0.0,4205.128418,4348.717772999999,4213.846191,4270.769043,4245.128418,0.0,4.0,82.0,,,,0.0,4.0,2.0,4.0,0.0,4.0,50.0,,,,,,,,,,,,,,,,,,,,,,,,,,,,,,,,,,,,,,,,,,,,,,,,,,,,,,,,,,,,,,,,,,,,,,,,,,,,,,,,,,,,
56148,1645585815.039161,56.0,0.0,4232.820313,4325.641113000001,4207.692383,4270.769043,4250.769043,0.0,4.0,82.0,,,,0.0,4.0,2.0,4.0,0.0,4.0,50.0,,,,,,,,28.0,0.0,0.499562,0.5881350000000001,0.308594,-0.5561520000000001,0.980972,-0.246098,-0.11621300000000001,-0.037218,-0.027601,-0.026354000000000002,,,,,,,,,,,,,,,,,,,,,,,,,,,,,,,,,,,0.0,0.0,32.0,0.023375999999999997,1.0,0.0,,,,,,,,,,,,,,,,,,,,,,,,,
56149,1645585815.046975,57.0,0.0,4236.922852000001,4285.641113000001,4191.794922,4270.769043,4261.538574,0.0,4.0,82.0,,,,0.0,4.0,2.0,4.0,0.0,4.0,50.0,,,,,,,,,,,,,,,,,,,,,,,,,,,,,,,,,,,,,,,,,,,,,,,,,,,,,,,,,,,,,,,,,,,,,,,,,,,,,,,,,,,,
56150,1645585815.05479,58.0,0.0,4229.743652,4220.0,4199.487305,4270.769043,4266.666504,0.0,4.0,82.0,,,,0.0,4.0,2.0,4.0,0.0,4.0,50.0,,,,,,,,29.0,0.0,0.499712,0.5881350000000001,0.30835,-0.5561520000000001,0.976089,-0.25684,-0.131838,-0.037207,-0.027527,-0.028504,,,,,,,,,,,,,,,,,,,,,,,,,,,,,,,,,,,,,,,,,,,,,,,,,,,,,,,,,,,,,,,,,
56151,1645585815.0626051,59.0,0.0,4232.820313,4207.179688,4202.05127,4270.769043,4256.922852000001,0.0,4.0,82.0,,,,0.0,4.0,2.0,4.0,0.0,4.0,50.0,,,,,,,,,,,,,,,,,,,,,,,,,,,,,,,,,,,,,,,,,,,,,,,,,,,,,,,,,,,,,,,,,,,,,,,,,,,,,,,,,,,,
56152,1645585815.0704188,60.0,0.0,4231.282227000001,4298.461426,4187.692383,4270.769043,4249.230957,0.0,4.0,82.0,,,,0.0,4.0,2.0,4.0,0.0,4.0,50.0,,,,,,,,30.0,0.0,0.49972799999999995,0.5878909999999999,0.30835,-0.556396,0.9673,-0.246098,-0.12451400000000001,-0.037148,-0.027507999999999998,-0.024286000000000002,1.0,0.0,0.0,,,,,,,,,,,,,,,,,,,,,,,,,,,,,,,,0.0,0.0,1.0,0.0,128.0,1.0,378.461578,11.659989,2.3807419999999997,2.266407,2.962903,1511.580811,566.128113,91.250923,17.373184,15.293695999999999,5.4778970000000005,2.32649,1.114431,1.631576,1.020948,0.16008,0.08587,0.07924400000000001,0.1495,0.059115999999999995,5971.662598,440.94348099999996,173.396225,66.609177,12.345851
56153,1645585815.078234,61.0,0.0,4229.230957,4321.025879,4189.743652,4270.769043,4242.05127,0.0,4.0,82.0,,,,0.0,4.0,2.0,4.0,0.0,4.0,50.0,,,,,,,,,,,,,,,,,,,,,,,,,,,,,,,,,,,,,,,,,,,,,,,,,,,,,,,,,,,,,,,,,,,,,,,,,,,,,,,,,,,,
56154,1645585815.085949,62.0,0.0,4229.743652,4243.077147999999,4201.538574,4270.769043,4229.230957,0.0,4.0,82.0,,,,0.0,4.0,2.0,4.0,0.0,4.0,50.0,,,,,,,,31.0,0.0,0.49972799999999995,0.5878909999999999,0.30835,-0.556396,0.98146,-0.24853899999999998,-0.128908,-0.037047000000000004,-0.027443000000000002,-0.026789,,,,,,,,,,,,,,,,,,,,,,,,,,,,,,,,,,,,,,,,,,,,,,,,,,,,,,,,,,,,,,,,,
56155,1645585815.093763,63.0,0.0,4219.487305,4248.717772999999,4197.436035,4270.769043,4228.717772999999,0.0,4.0,82.0,,,,0.0,4.0,2.0,4.0,0.0,4.0,50.0,,,,,,,,,,,,,,,,,,,,,,,,,,,,,,,,,,,,,,,,,,,,,,,,,,,,,,,,,,,,,,,,,,,,,,,,,,,,,,,,,,,,
56156,1645585815.101578,64.0,0.0,4212.307617,4310.256348,4188.205078,4270.769043,4243.589844,450.0,4.0,82.0,,,,0.0,4.0,2.0,4.0,0.0,4.0,50.0,,,,,,,,32.0,0.0,0.49972799999999995,0.5878909999999999,0.30835,-0.556396,0.98439,-0.244144,-0.13916199999999998,-0.037004,-0.027482,-0.022743,,,,,,,,,,,,,,,,,,,,,,,,,,,,,,,,,,,0.0,0.0,1.0,0.0,128.0,1.0,,,,,,,,,,,,,,,,,,,,,,,,,
56157,1645585815.109393,65.0,0.0,4223.077147999999,4289.230957,4187.692383,4270.769043,4247.692383,450.0,4.0,82.0,,,,0.0,4.0,2.0,4.0,0.0,4.0,50.0,,,,,,,,,,,,,,,,,,,,,,,,,,,,,,,,,,,,,,,,,,,,,,,,,,,,,,,,,,,,,,,,,,,,,,,,,,,,,,,,,,,,
56158,1645585815.117207,66.0,0.0,4228.717772999999,4244.102539,4196.410156,4270.769043,4239.487305,16239.0,4.0,82.0,,,,0.0,4.0,2.0,4.0,0.0,4.0,50.0,,,,,,,,33.0,0.0,0.49972799999999995,0.5878909999999999,0.30835,-0.556396,0.978042,-0.242191,-0.125002,-0.037112,-0.027517000000000003,-0.025303,,,,,,,,,,,,,,,,,,,,,,,,,,,,,,,,,,,,,,,,,,,,,,,,,,,,,,,,,,,,,,,,,
56159,1645585815.1250222,67.0,0.0,4211.282227000001,4230.769043,4210.256348,4270.769043,4242.05127,450.0,4.0,82.0,,,,0.0,4.0,2.0,4.0,0.0,4.0,50.0,,,,,,,,,,,,,,,,,,,,,,,,,,,,,,,,,,,,,,,,,,,,,,,,,,,,,,,,,,,,,,,,,,,,,,,,,,,,,,,,,,,,
56160,1645585815.1328368,68.0,0.0,4208.717772999999,4209.743652,4212.820313,4270.769043,4249.230957,242.0,4.0,82.0,,,,0.0,4.0,2.0,4.0,0.0,4.0,50.0,,,,,,,,34.0,0.0,0.49972799999999995,0.5878909999999999,0.30835,-0.556396,0.9834129999999999,-0.235843,-0.11718900000000002,-0.037015,-0.027549,-0.027607,,,,,,,,,,,,,,,,,,,,,,,,,,,,,,,,,,,0.0,0.0,1.0,0.0,128.0,1.0,,,,,,,,,,,,,,,,,,,,,,,,,
56161,1645585815.140651,69.0,0.0,4242.05127,4205.128418,4205.128418,4270.769043,4242.05127,450.0,4.0,82.0,,,,0.0,4.0,2.0,4.0,0.0,4.0,50.0,,,,,,,,,,,,,,,,,,,,,,,,,,,,,,,,,,,,,,,,,,,,,,,,,,,,,,,,,,,,,,,,,,,,,,,,,,,,,,,,,,,,
56162,1645585815.148466,70.0,0.0,4267.692383,4234.358886999999,4203.589844,4270.769043,4224.615234000001,16212.0,4.0,82.0,,,,0.0,4.0,2.0,4.0,0.0,4.0,50.0,,,,,,,,35.0,0.0,0.49957700000000005,0.5878909999999999,0.308594,-0.556396,0.973648,-0.241215,-0.107912,-0.037073,-0.027625999999999998,-0.029631,,,,,,,,,,,,,,,,,,,,,,,,,,,,,,,,,,,,,,,,,,,,,,,,,,,,,,,,,,,,,,,,,
56163,1645585815.156281,71.0,0.0,4269.230957,4213.333496,4209.743652,4270.769043,4232.820313,450.0,4.0,82.0,,,,0.0,4.0,2.0,4.0,0.0,4.0,50.0,,,,,,,,,,,,,,,,,,,,,,,,,,,,,,,,,,,,,,,,,,,,,,,,,,,,,,,,,,,,,,,,,,,,,,,,,,,,,,,,,,,,
56164,1645585815.163995,72.0,0.0,4252.820313,4181.538574,4206.666504,4270.769043,4246.666504,450.0,4.0,82.0,,,,0.0,4.0,2.0,4.0,0.0,4.0,50.0,,,,,,,,36.0,0.0,0.49957700000000005,0.5878909999999999,0.308594,-0.556396,0.9673,-0.25390999999999997,-0.120119,-0.037125,-0.027647,-0.025301,,,,,,,,,,,,,,,,,,,,,,,,,,,,,,,,,,,0.0,0.0,1.0,0.0,128.0,1.0,,,,,,,,,,,,,,,,,,,,,,,,,
56165,1645585815.17181,73.0,0.0,4233.846191,4212.820313,4200.0,4270.769043,4244.102539,0.0,4.0,82.0,,,,0.0,4.0,2.0,4.0,0.0,4.0,50.0,,,,,,,,,,,,,,,,,,,,,,,,,,,,,,,,,,,,,,,,,,,,,,,,,,,,,,,,,,,,,,,,,,,,,,,,,,,,,,,,,,,,
56166,1645585815.179625,74.0,0.0,4236.922852000001,4216.410156,4202.563965,4270.769043,4242.563965,450.0,4.0,82.0,,,,0.0,4.0,2.0,4.0,0.0,4.0,50.0,,,,,,,,37.0,0.0,0.499849,0.5878909999999999,0.308594,-0.5561520000000001,0.977554,-0.24365599999999998,-0.119631,-0.037173000000000005,-0.027714,-0.021306,,,,,,,,,,,,,,,,,,,,,,,,,,,,,,,,,,,,,,,,,,,,,,,,,,,,,,,,,,,,,,,,,
56167,1645585815.187439,75.0,0.0,4235.897461,4177.436035,4194.871582,4270.769043,4241.025879,16222.0,4.0,82.0,,,,0.0,4.0,2.0,4.0,0.0,4.0,50.0,,,,,,,,,,,,,,,,,,,,,,,,,,,,,,,,,,,,,,,,,,,,,,,,,,,,,,,,,,,,,,,,,,,,,,,,,,,,,,,,,,,,
56168,1645585815.1952538,76.0,0.0,4220.0,4154.358886999999,4178.974121,4270.769043,4230.256348,450.0,4.0,82.0,,,,0.0,4.0,2.0,4.0,0.0,4.0,50.0,1.0,0.0,3.0,0.0,4.0,0.0,0.0,38.0,0.0,0.499849,0.5878909999999999,0.308594,-0.5561520000000001,0.9716950000000001,-0.24756199999999998,-0.12255999999999999,-0.037166000000000005,-0.027726,-0.024009,1.0,0.0,0.0,,,,,,,,,,,,,,,,,,,,,,,,,,,,,,,,0.0,0.0,1.0,0.0,128.0,1.0,447.528412,12.878413,2.4490950000000002,2.570408,3.367896,1831.1112059999998,680.407166,106.563347,19.142232999999997,15.79555,5.655001,2.3820919999999997,1.159627,1.734761,1.139529,0.15555,0.083133,0.070125,0.126572,0.057601,7428.550781,566.98407,213.930664,84.01165,14.905101
56169,1645585815.203069,77.0,0.0,4224.102539,4136.410156,4176.922852000001,4270.769043,4238.461426,450.0,4.0,82.0,,,,0.0,4.0,2.0,4.0,0.0,4.0,50.0,,,,,,,,,,,,,,,,,,,,,,,,,,,,,,,,,,,,,,,,,,,,,,,,,,,,,,,,,,,,,,,,,,,,,,,,,,,,,,,,,,,,
56170,1645585815.210883,78.0,0.0,4235.897461,4134.871582,4183.077147999999,4270.769043,4257.94873,450.0,4.0,82.0,,,,0.0,4.0,2.0,4.0,0.0,4.0,50.0,,,,,,,,39.0,0.0,0.499849,0.5878909999999999,0.308594,-0.5561520000000001,0.9663229999999999,-0.246586,-0.12255999999999999,-0.03721,-0.027736,-0.026491000000000004,,,,,,,,,,,,,,,,,,,,,,,,,,,,,,,,,,,,,,,,,,,,,,,,,,,,,,,,,,,,,,,,,
56171,1645585815.218698,79.0,0.0,4231.282227000001,4200.512695,4185.641113000001,4270.769043,4249.230957,16222.0,4.0,82.0,,,,0.0,4.0,2.0,4.0,0.0,4.0,50.0,,,,,,,,,,,,,,,,,,,,,,,,,,,,,,,,,,,,,,,,,,,,,,,,,,,,,,,,,,,,,,,,,,,,,,,,,,,,,,,,,,,,
56172,1645585815.226512,80.0,0.0,4240.512695,4243.077147999999,4186.666504,4270.769043,4244.102539,450.0,4.0,82.0,,,,0.0,4.0,2.0,4.0,0.0,4.0,50.0,,,,,,,,40.0,0.0,0.49972799999999995,0.5878909999999999,0.30835,-0.556396,0.964858,-0.258793,-0.121584,-0.037346,-0.027745999999999996,-0.02853,,,,,,,,,,,,,,,,,,,,,,,,,,,,,,,,,,,0.0,0.0,1.0,0.0,128.0,1.0,,,,,,,,,,,,,,,,,,,,,,,,,
56173,1645585815.2343268,81.0,0.0,4270.256348,4243.077147999999,4191.282227000001,4270.769043,4268.205078,450.0,4.0,82.0,,,,0.0,4.0,2.0,4.0,0.0,4.0,50.0,,,,,,,,,,,,,,,,,,,,,,,,,,,,,,,,,,,,,,,,,,,,,,,,,,,,,,,,,,,,,,,,,,,,,,,,,,,,,,,,,,,,
56174,1645585815.242042,82.0,0.0,4271.282227000001,4282.563965,4190.256348,4270.769043,4264.615234000001,450.0,4.0,82.0,,,,0.0,4.0,2.0,4.0,0.0,4.0,50.0,,,,,,,,41.0,0.0,0.499849,0.5878909999999999,0.308594,-0.5561520000000001,0.9716950000000001,-0.24756199999999998,-0.12255999999999999,-0.037274,-0.027755000000000002,-0.024358,,,,,,,,,,,,,,,,,,,,,,,,,,,,,,,,,,,,,,,,,,,,,,,,,,,,,,,,,,,,,,,,,
56175,1645585815.249857,83.0,0.0,4249.743652,4298.974121,4196.410156,4270.769043,4240.512695,16222.0,4.0,82.0,,,,0.0,4.0,2.0,4.0,0.0,4.0,50.0,,,,,,,,,,,,,,,,,,,,,,,,,,,,,,,,,,,,,,,,,,,,,,,,,,,,,,,,,,,,,,,,,,,,,,,,,,,,,,,,,,,,
56176,1645585815.257671,84.0,0.0,4246.666504,4266.666504,4215.897461,4270.769043,4246.666504,450.0,4.0,82.0,,,,0.0,4.0,2.0,4.0,0.0,4.0,50.0,,,,,,,,42.0,0.0,0.49972799999999995,0.5878909999999999,0.30835,-0.556396,0.964858,-0.258793,-0.121584,-0.037404,-0.027762000000000002,-0.02661,,,,,,,,,,,,,,,,,,,,,,,,,,,,,,,,,,,0.0,0.0,1.0,0.0,128.0,1.0,,,,,,,,,,,,,,,,,,,,,,,,,
56177,1645585815.265486,85.0,0.0,4247.692383,4260.512695,4216.922852000001,4270.769043,4265.641113000001,450.0,4.0,82.0,,,,0.0,4.0,2.0,4.0,0.0,4.0,50.0,,,,,,,,,,,,,,,,,,,,,,,,,,,,,,,,,,,,,,,,,,,,,,,,,,,,,,,,,,,,,,,,,,,,,,,,,,,,,,,,,,,,
56178,1645585815.2733,86.0,0.0,4249.230957,4280.512695,4202.563965,4270.256348,4256.410156,450.0,4.0,82.0,,,,0.0,4.0,2.0,4.0,0.0,4.0,50.0,,,,,,,,43.0,0.0,0.49972799999999995,0.5878909999999999,0.30835,-0.556396,0.973648,-0.258793,-0.112795,-0.037423000000000005,-0.027672000000000002,-0.028734,,,,,,,,,,,,,,,,,,,,,,,,,,,,,,,,,,,,,,,,,,,,,,,,,,,,,,,,,,,,,,,,,
56179,1645585815.281115,87.0,0.0,4268.205078,4283.589844,4198.974121,4271.794922,4254.871582,16222.0,4.0,82.0,,,,0.0,4.0,2.0,4.0,0.0,4.0,50.0,,,,,,,,,,,,,,,,,,,,,,,,,,,,,,,,,,,,,,,,,,,,,,,,,,,,,,,,,,,,,,,,,,,,,,,,,,,,,,,,,,,,
56180,1645585815.2889302,88.0,0.0,4284.615234000001,4260.0,4190.769043,4270.256348,4279.487305,450.0,4.0,82.0,,,,0.0,4.0,2.0,4.0,0.0,4.0,50.0,,,,,,,,44.0,0.0,0.499879,0.5878909999999999,0.308105,-0.556396,0.9702299999999999,-0.241215,-0.107912,-0.037392,-0.027786,-0.030646,,,,,,,,,,,,,,,,,,,,,,,,,,,,,,,,,,,0.0,0.0,1.0,0.0,128.0,1.0,,,,,,,,,,,,,,,,,,,,,,,,,
56181,1645585815.2967439,89.0,0.0,4274.871582,4238.461426,4178.974121,4269.230957,4279.487305,450.0,4.0,82.0,,,,0.0,4.0,2.0,4.0,0.0,4.0,50.0,,,,,,,,,,,,,,,,,,,,,,,,,,,,,,,,,,,,,,,,,,,,,,,,,,,,,,,,,,,,,,,,,,,,,,,,,,,,,,,,,,,,
56182,1645585815.304459,90.0,0.0,4284.102539,4244.102539,4191.282227000001,4275.897461,4275.897461,450.0,4.0,82.0,,,,0.0,4.0,2.0,4.0,0.0,4.0,50.0,,,,,,,,45.0,0.0,0.499879,0.5878909999999999,0.308105,-0.556396,0.9712059999999999,-0.246098,-0.126467,-0.037315,-0.027937,-0.026213999999999998,,,,,,,,,,,,,,,,,,,,,,,,,,,,,,,,,,,,,,,,,,,,,,,,,,,,,,,,,,,,,,,,,
56183,1645585815.312274,91.0,0.0,4305.128418,4267.179688,4203.077147999999,4274.871582,4293.333496,16222.0,4.0,82.0,,,,0.0,4.0,2.0,4.0,0.0,4.0,50.0,,,,,,,,,,,,,,,,,,,,,,,,,,,,,,,,,,,,,,,,,,,,,,,,,,,,,,,,,,,,,,,,,,,,,,,,,,,,,,,,,,,,
56184,1645585815.3200881,92.0,0.0,4306.666504,4260.0,4201.538574,4266.153809,4306.153809,450.0,4.0,82.0,,,,0.0,4.0,2.0,4.0,0.0,4.0,50.0,,,,,,,,46.0,0.0,0.499879,0.5878909999999999,0.308105,-0.556396,0.9663229999999999,-0.250004,-0.13281500000000002,-0.037392,-0.027975,-0.028377999999999997,1.0,0.0,0.0,,,,,,,,,,,,,,,,,,,,,,,,,,,,,,,,0.0,0.0,1.0,0.0,128.0,1.0,456.06469699999997,13.051764,2.534675,2.7284349999999997,3.56587,1922.2996829999997,706.534546,111.32543899999999,20.191019,16.03697,5.1830050000000005,2.513254,1.318191,1.760576,1.163182,0.137769,0.075198,0.056587,0.10768699999999999,0.055351,7897.64502,622.564209,226.624786,90.893051,15.575764000000001
56185,1645585815.327903,93.0,0.0,4294.871582,4230.256348,4207.179688,4268.205078,4307.692383,450.0,4.0,82.0,,,,0.0,4.0,2.0,4.0,0.0,4.0,50.0,,,,,,,,,,,,,,,,,,,,,,,,,,,,,,,,,,,,,,,,,,,,,,,,,,,,,,,,,,,,,,,,,,,,,,,,,,,,,,,,,,,,
56186,1645585815.335718,94.0,0.0,4264.102539,4223.589844,4208.205078,4274.871582,4295.897461,450.0,4.0,82.0,,,,0.0,4.0,2.0,4.0,0.0,4.0,50.0,,,,,,,,47.0,0.0,0.500029,0.5878909999999999,0.307861,-0.556396,0.988296,-0.241215,-0.124025,-0.037364,-0.028058999999999997,-0.030326,,,,,,,,,,,,,,,,,,,,,,,,,,,,,,,,,,,,,,,,,,,,,,,,,,,,,,,,,,,,,,,,,
56187,1645585815.343532,95.0,0.0,4258.974121,4231.282227000001,4205.641113000001,4272.307617,4273.333496,16222.0,4.0,82.0,,,,0.0,4.0,2.0,4.0,0.0,4.0,50.0,,,,,,,,,,,,,,,,,,,,,,,,,,,,,,,,,,,,,,,,,,,,,,,,,,,,,,,,,,,,,,,,,,,,,,,,,,,,,,,,,,,,
56188,1645585815.351347,96.0,0.0,4286.666504,4236.922852000001,4217.94873,4270.256348,4283.077147999999,450.0,4.0,82.0,,,,0.0,4.0,2.0,4.0,0.0,4.0,50.0,,,,,,,,48.0,0.0,0.500179,0.5878909999999999,0.30761700000000003,-0.556396,0.9746239999999999,-0.24853899999999998,-0.13379100000000002,-0.037485000000000004,-0.027987,-0.032126999999999996,,,,,,,,,,,,,,,,,,,,,,,,,,,,,,,,,,,0.0,0.0,1.0,0.0,128.0,1.0,,,,,,,,,,,,,,,,,,,,,,,,,
56189,1645585815.3591619,97.0,0.0,4284.102539,4247.692383,4219.487305,4273.333496,4301.025879,450.0,4.0,82.0,,,,0.0,4.0,2.0,4.0,0.0,4.0,50.0,,,,,,,,,,,,,,,,,,,,,,,,,,,,,,,,,,,,,,,,,,,,,,,,,,,,,,,,,,,,,,,,,,,,,,,,,,,,,,,,,,,,
56190,1645585815.366976,98.0,0.0,4262.563965,4222.563965,4208.205078,4273.333496,4272.307617,450.0,4.0,82.0,,,,0.0,4.0,2.0,4.0,0.0,4.0,50.0,,,,,,,,49.0,0.0,0.500329,0.5878909999999999,0.307373,-0.556396,0.9546040000000001,-0.256352,-0.13379100000000002,-0.037495999999999995,-0.027923000000000003,-0.033846,,,,,,,,,,,,,,,,,,,,,,,,,,,,,,,,,,,,,,,,,,,,,,,,,,,,,,,,,,,,,,,,,
56191,1645585815.374791,99.0,0.0,4280.512695,4196.410156,4203.589844,4271.794922,4254.871582,16222.0,4.0,82.0,,,,0.0,4.0,2.0,4.0,0.0,4.0,50.0,,,,,,,,,,,,,,,,,,,,,,,,,,,,,,,,,,,,,,,,,,,,,,,,,,,,,,,,,,,,,,,,,,,,,,,,,,,,,,,,,,,,
56192,1645585815.3825061,100.0,0.0,4294.358886999999,4273.333496,4198.461426,4271.794922,4266.153809,450.0,4.0,82.0,,,,0.0,4.0,2.0,4.0,0.0,4.0,50.0,,,,,,,,50.0,0.0,0.500329,0.5878909999999999,0.307373,-0.556396,0.968765,-0.24853899999999998,-0.13135,-0.037458,-0.027963,-0.035296,,,,,,,,,,,,,,,,,,,,,,,,,,,,,,,,,,,0.0,0.0,1.0,0.0,128.0,1.0,,,,,,,,,,,,,,,,,,,,,,,,,
56193,1645585815.3903198,101.0,0.0,4267.692383,4335.384765999999,4187.179688,4271.794922,4255.384765999999,450.0,4.0,82.0,,,,0.0,4.0,2.0,4.0,0.0,4.0,50.0,,,,,,,,,,,,,,,,,,,,,,,,,,,,,,,,,,,,,,,,,,,,,,,,,,,,,,,,,,,,,,,,,,,,,,,,,,,,,,,,,,,,
56194,1645585815.398135,102.0,0.0,4266.153809,4276.922852000001,4178.974121,4271.794922,4249.743652,450.0,4.0,82.0,,,,0.0,4.0,2.0,4.0,0.0,4.0,50.0,,,,,,,,51.0,0.0,0.500058,0.5878909999999999,0.307373,-0.5566409999999999,0.972671,-0.246098,-0.127932,-0.037423000000000005,-0.02795,-0.030399000000000002,,,,,,,,,,,,,,,,,,,,,,,,,,,,,,,,,,,,,,,,,,,,,,,,,,,,,,,,,,,,,,,,,
56195,1645585815.40595,103.0,0.0,4288.205078,4222.05127,4180.512695,4271.794922,4274.358886999999,16222.0,4.0,82.0,,,,0.0,4.0,2.0,4.0,0.0,4.0,50.0,,,,,,,,,,,,,,,,,,,,,,,,,,,,,,,,,,,,,,,,,,,,,,,,,,,,,,,,,,,,,,,,,,,,,,,,,,,,,,,,,,,,
56196,1645585815.413764,104.0,0.0,4294.871582,4214.871582,4183.589844,4271.282227000001,4290.256348,450.0,4.0,82.0,,,,0.0,4.0,2.0,4.0,0.0,4.0,50.0,,,,,,,,52.0,0.0,0.500058,0.5878909999999999,0.307373,-0.5566409999999999,0.977066,-0.261723,-0.122072,-0.037489,-0.027938,-0.032242,,,,,,,,,,,,,,,,,,,,,,,,,,,,,,,,,,,0.0,0.0,1.0,0.0,128.0,1.0,,,,,,,,,,,,,,,,,,,,,,,,,
56197,1645585815.421579,105.0,0.0,4282.563965,4248.205078,4188.205078,4271.282227000001,4303.589844,450.0,4.0,82.0,,,,0.0,4.0,2.0,4.0,0.0,4.0,50.0,,,,,,,,,,,,,,,,,,,,,,,,,,,,,,,,,,,,,,,,,,,,,,,,,,,,,,,,,,,,,,,,,,,,,,,,,,,,,,,,,,,,
56198,1645585815.429394,106.0,0.0,4269.230957,4296.922852000001,4196.922852000001,4271.794922,4312.307617,450.0,4.0,82.0,,,,0.0,4.0,2.0,4.0,0.0,4.0,50.0,,,,,,,,53.0,0.0,0.500494,0.587646,0.307129,-0.5566409999999999,0.965347,-0.24756199999999998,-0.13135,-0.0375,-0.027975999999999997,-0.027699,,,,,,,,,,,,,,,,,,,,,,,,,,,,,,,,,,,,,,,,,,,,,,,,,,,,,,,,,,,,,,,,,
56199,1645585815.437208,107.0,0.0,4274.871582,4268.205078,4202.563965,4272.307617,4301.025879,16222.0,4.0,82.0,,,,0.0,4.0,2.0,4.0,0.0,4.0,50.0,,,,,,,,,,,,,,,,,,,,,,,,,,,,,,,,,,,,,,,,,,,,,,,,,,,,,,,,,,,,,,,,,,,,,,,,,,,,,,,,,,,,
56200,1645585815.445023,108.0,0.0,4281.025879,4209.743652,4209.230957,4270.769043,4295.384765999999,450.0,4.0,82.0,,,,0.0,4.0,2.0,4.0,0.0,4.0,50.0,,,,,,,,54.0,0.0,0.500494,0.587646,0.307129,-0.5566409999999999,0.9673,-0.246586,-0.114748,-0.03751,-0.027864,-0.029763,1.0,0.0,0.0,,,,,,,,,,,,,,,,,,,,,,,,,,,,,,,,0.0,0.0,1.0,0.0,128.0,1.0,399.445953,12.184483,2.68281,2.703863,3.4882470000000003,1752.326782,635.444275,104.280785,20.153292,16.225723000000002,4.182528,2.6676860000000002,1.54649,1.689136,1.098023,0.10920999999999999,0.06168200000000001,0.040931,0.0905,0.050905,7205.605956999999,587.822815,206.846344,84.717987,14.111384
56201,1645585815.452738,109.0,0.0,4274.871582,4244.615234000001,4211.794922,4272.820313,4294.358886999999,450.0,4.0,82.0,,,,0.0,4.0,2.0,4.0,0.0,4.0,50.0,,,,,,,,,,,,,,,,,,,,,,,,,,,,,,,,,,,,,,,,,,,,,,,,,,,,,,,,,,,,,,,,,,,,,,,,,,,,,,,,,,,,
56202,1645585815.460552,110.0,0.0,4285.128418,4264.615234000001,4205.128418,4280.0,4289.230957,450.0,4.0,82.0,,,,0.0,4.0,2.0,4.0,0.0,4.0,50.0,,,,,,,,55.0,0.0,0.5003569999999999,0.5878909999999999,0.30688499999999996,-0.5566409999999999,0.972183,-0.255375,-0.12842,-0.037469999999999996,-0.027861,-0.025419999999999998,,,,,,,,,,,,,,,,,,,,,,,,,,,,,,,,,,,,,,,,,,,,,,,,,,,,,,,,,,,,,,,,,
56203,1645585815.468367,111.0,0.0,4300.0,4204.615234000001,4212.307617,4278.461426,4303.589844,16222.0,4.0,82.0,,,,0.0,4.0,2.0,4.0,0.0,4.0,50.0,,,,,,,,,,,,,,,,,,,,,,,,,,,,,,,,,,,,,,,,,,,,,,,,,,,,,,,,,,,,,,,,,,,,,,,,,,,,,,,,,,,,
56204,1645585815.476182,112.0,0.0,4278.461426,4194.358886999999,4225.641113000001,4271.282227000001,4323.589844,450.0,4.0,82.0,,,,0.0,4.0,2.0,4.0,0.0,4.0,50.0,,,,,,,,56.0,0.0,0.500794,0.587646,0.306641,-0.5566409999999999,0.9707180000000001,-0.25390999999999997,-0.12695499999999998,-0.037482999999999995,-0.027956,-0.027663,,,,,,,,,,,,,,,,,,,,,,,,,,,,,,,,,,,0.0,0.0,1.0,0.0,128.0,1.0,,,,,,,,,,,,,,,,,,,,,,,,,
56205,1645585815.4839962,113.0,0.0,4264.102539,4242.05127,4219.487305,4271.282227000001,4313.333496,450.0,4.0,82.0,,,,0.0,4.0,2.0,4.0,0.0,4.0,50.0,,,,,,,,,,,,,,,,,,,,,,,,,,,,,,,,,,,,,,,,,,,,,,,,,,,,,,,,,,,,,,,,,,,,,,,,,,,,,,,,,,,,
56206,1645585815.491811,114.0,0.0,4286.666504,4271.794922,4199.487305,4274.871582,4296.922852000001,450.0,4.0,82.0,,,,0.0,4.0,2.0,4.0,0.0,4.0,50.0,,,,,,,,57.0,0.0,0.5009279999999999,0.5878909999999999,0.306396,-0.556396,0.9716950000000001,-0.261234,-0.124025,-0.037445,-0.027895,-0.023578,,,,,,,,,,,,,,,,,,,,,,,,,,,,,,,,,,,,,,,,,,,,,,,,,,,,,,,,,,,,,,,,,
56207,1645585815.499625,115.0,0.0,4293.846191,4261.538574,4196.410156,4272.820313,4288.717772999999,16222.0,4.0,82.0,,,,0.0,4.0,2.0,4.0,0.0,4.0,50.0,,,,,,,,,,,,,,,,,,,,,,,,,,,,,,,,,,,,,,,,,,,,,,,,,,,,,,,,,,,,,,,,,,,,,,,,,,,,,,,,,,,,
56208,1645585815.50744,116.0,0.0,4275.384765999999,4209.230957,4204.615234000001,4270.256348,4280.512695,450.0,4.0,82.0,,,,0.0,4.0,2.0,4.0,0.0,4.0,50.0,,,,,,,,58.0,0.0,0.5009279999999999,0.5878909999999999,0.306396,-0.556396,0.964858,-0.26318800000000003,-0.133303,-0.037558,-0.027791000000000003,-0.019853,,,,,,,,,,,,,,,,,,,,,,,,,,,,,,,,,,,0.0,0.0,1.0,0.0,128.0,1.0,,,,,,,,,,,,,,,,,,,,,,,,,
56209,1645585815.515255,117.0,0.0,4277.94873,4171.794922,4203.077147999999,4277.436035,4285.641113000001,450.0,4.0,82.0,,,,0.0,4.0,2.0,4.0,0.0,4.0,50.0,,,,,,,,,,,,,,,,,,,,,,,,,,,,,,,,,,,,,,,,,,,,,,,,,,,,,,,,,,,,,,,,,,,,,,,,,,,,,,,,,,,,
56210,1645585815.52297,118.0,0.0,4292.307617,4191.282227000001,4207.179688,4278.461426,4291.282227000001,450.0,4.0,82.0,,,,0.0,4.0,2.0,4.0,0.0,4.0,50.0,,,,,,,,59.0,0.0,0.5009279999999999,0.5878909999999999,0.306396,-0.556396,0.977066,-0.26758200000000004,-0.129397,-0.037562,-0.027893,-0.022702,,,,,,,,,,,,,,,,,,,,,,,,,,,,,,,,,,,,,,,,,,,,,,,,,,,,,,,,,,,,,,,,,
56211,1645585815.530784,119.0,0.0,4293.846191,4186.666504,4227.692383,4269.743652,4297.436035,16222.0,4.0,82.0,,,,0.0,4.0,2.0,4.0,0.0,4.0,50.0,,,,,,,,,,,,,,,,,,,,,,,,,,,,,,,,,,,,,,,,,,,,,,,,,,,,,,,,,,,,,,,,,,,,,,,,,,,,,,,,,,,,
56212,1645585815.538599,120.0,0.0,4294.871582,4117.436035,4240.512695,4267.692383,4331.282227000001,450.0,4.0,82.0,,,,0.0,4.0,2.0,4.0,0.0,4.0,50.0,,,,,,,,60.0,0.0,0.501077,0.5878909999999999,0.306152,-0.556396,0.9790190000000001,-0.260258,-0.136721,-0.037566,-0.027887000000000002,-0.025266,,,,,,,,,,,,,,,,,,,,,,,,,,,,,,,,,,,0.0,0.0,1.0,0.0,128.0,1.0,,,,,,,,,,,,,,,,,,,,,,,,,
56213,1645585815.5464132,121.0,0.0,4287.179688,4108.717772999999,4230.256348,4273.333496,4349.230957,450.0,4.0,82.0,,,,0.0,4.0,2.0,4.0,0.0,4.0,50.0,,,,,,,,,,,,,,,,,,,,,,,,,,,,,,,,,,,,,,,,,,,,,,,,,,,,,,,,,,,,,,,,,,,,,,,,,,,,,,,,,,,,
56214,1645585815.5542278,122.0,0.0,4279.487305,4196.410156,4211.794922,4272.820313,4320.512695,450.0,4.0,82.0,,,,0.0,4.0,2.0,4.0,0.0,4.0,50.0,,,,,,,,61.0,0.0,0.501077,0.5878909999999999,0.306152,-0.556396,0.960952,-0.24805100000000002,-0.136721,-0.037472000000000005,-0.027881,-0.027525,,,,,,,,,,,,,,,,,,,,,,,,,,,,,,,,,,,,,,,,,,,,,,,,,,,,,,,,,,,,,,,,,
56215,1645585815.562043,123.0,0.0,4292.307617,4252.820313,4207.179688,4271.282227000001,4304.102539,16222.0,4.0,82.0,,,,0.0,4.0,2.0,4.0,0.0,4.0,50.0,,,,,,,,,,,,,,,,,,,,,,,,,,,,,,,,,,,,,,,,,,,,,,,,,,,,,,,,,,,,,,,,,,,,,,,,,,,,,,,,,,,,
56216,1645585815.5698571,124.0,0.0,4300.512695,4261.538574,4217.436035,4275.384765999999,4311.794922,450.0,4.0,82.0,,,,0.0,4.0,2.0,4.0,0.0,4.0,50.0,,,,,,,,62.0,0.0,0.501077,0.5878909999999999,0.306152,-0.556396,0.968277,-0.254398,-0.125002,-0.037435,-0.027925,-0.029655,1.0,0.0,0.0,,,,,,,,,,,,,,,,,,,,,,,,,,,,,,,,0.0,0.0,64.0,0.363193,1.0,0.0,298.682343,10.653688,2.962361,2.5032080000000003,3.1534299999999997,1376.69873,492.158264,88.006966,18.834778,16.531839,3.001426,2.818162,1.7726380000000002,1.5427389999999999,0.9784649999999999,0.076784,0.044765,0.026937,0.072383,0.043876,5603.105469,475.268372,161.604523,67.669197,11.030643
56217,1645585815.577672,125.0,0.0,4275.384765999999,4258.461426,4221.025879,4275.384765999999,4300.0,450.0,4.0,82.0,,,,0.0,4.0,2.0,4.0,0.0,4.0,50.0,,,,,,,,,,,,,,,,,,,,,,,,,,,,,,,,,,,,,,,,,,,,,,,,,,,,,,,,,,,,,,,,,,,,,,,,,,,,,,,,,,,,
56218,1645585815.585487,126.0,0.0,4273.333496,4230.256348,4210.256348,4274.358886999999,4298.974121,450.0,4.0,82.0,,,,0.0,4.0,2.0,4.0,0.0,4.0,50.0,,,,,,,,63.0,0.0,0.501077,0.5878909999999999,0.306152,-0.556396,0.9673,-0.25977,-0.128908,-0.037403,-0.027867000000000003,-0.031572,,,,,,,,,,,,,,,,,,,,,,,,,,,,,,,,,,,,,,,,,,,,,,,,,,,,,,,,,,,,,,,,,
56219,1645585815.593301,127.0,0.0,4301.025879,4236.922852000001,4208.717772999999,4274.871582,4311.794922,240.0,4.0,82.0,,,,0.0,4.0,2.0,4.0,0.0,4.0,50.0,,,,,,,,,,,,,,,,,,,,,,,,,,,,,,,,,,,,,,,,,,,,,,,,,,,,,,,,,,,,,,,,,,,,,,,,,,,,,,,,,,,,
56220,1645585815.601016,0.0,0.0,4282.05127,4268.717772999999,4221.538574,4274.871582,4292.307617,450.0,4.0,82.0,,,,0.0,4.0,2.0,4.0,0.0,4.0,50.0,,,,,,,,0.0,0.0,0.5013479999999999,0.5878909999999999,0.306152,-0.5561520000000001,0.9629049999999999,-0.258305,-0.123537,-0.037325,-0.027864,-0.027145999999999997,,,,,,,,,,,,,,,,,,,,,,,,,,,,,,,,,,,0.0,0.0,64.0,0.363193,1.0,0.0,,,,,,,,,,,,,,,,,,,,,,,,,
56221,1645585815.6088312,1.0,0.0,4245.128418,4243.077147999999,4214.358886999999,4274.871582,4278.461426,450.0,4.0,82.0,,,,0.0,4.0,2.0,4.0,0.0,4.0,50.0,,,,,,,,,,,,,,,,,,,,,,,,,,,,,,,,,,,,,,,,,,,,,,,,,,,,,,,,,,,,,,,,,,,,,,,,,,,,,,,,,,,,
56222,1645585815.6166449,2.0,0.0,4268.717772999999,4237.94873,4203.589844,4274.871582,4291.282227000001,16191.0,4.0,82.0,,,,0.0,4.0,2.0,4.0,0.0,4.0,50.0,,,,,,,,1.0,0.0,0.501363,0.587646,0.306152,-0.556396,0.9643700000000001,-0.258305,-0.13916199999999998,-0.037254,-0.027908999999999996,-0.029167000000000002,,,,,,,,,,,,,,,,,,,,,,,,,,,,,,,,,,,,,,,,,,,,,,,,,,,,,,,,,,,,,,,,,
56223,1645585815.62446,3.0,0.0,4291.282227000001,4273.846191,4204.615234000001,4274.871582,4270.769043,450.0,4.0,82.0,,,,0.0,4.0,2.0,4.0,0.0,4.0,50.0,,,,,,,,,,,,,,,,,,,,,,,,,,,,,,,,,,,,,,,,,,,,,,,,,,,,,,,,,,,,,,,,,,,,,,,,,,,,,,,,,,,,
56224,1645585815.632275,4.0,0.0,4280.512695,4256.410156,4207.692383,4274.871582,4245.128418,241.0,4.0,82.0,,,,0.0,4.0,2.0,4.0,0.0,4.0,50.0,,,,,,,,2.0,0.0,0.501363,0.587646,0.306152,-0.556396,0.9746239999999999,-0.250004,-0.121584,-0.037288999999999996,-0.027852999999999996,-0.024835,,,,,,,,,,,,,,,,,,,,,,,,,,,,,,,,,,,0.0,0.0,64.0,0.363193,1.0,0.0,,,,,,,,,,,,,,,,,,,,,,,,,
56225,1645585815.640089,5.0,0.0,4309.743652,4208.205078,4221.538574,4274.871582,4267.692383,450.0,4.0,82.0,,,,0.0,4.0,2.0,4.0,0.0,4.0,50.0,,,,,,,,,,,,,,,,,,,,,,,,,,,,,,,,,,,,,,,,,,,,,,,,,,,,,,,,,,,,,,,,,,,,,,,,,,,,,,,,,,,,
56226,1645585815.647904,6.0,0.0,4323.589844,4201.538574,4221.025879,4274.871582,4283.077147999999,16190.0,4.0,82.0,,,,0.0,4.0,2.0,4.0,0.0,4.0,50.0,,,,,,,,3.0,0.0,0.501363,0.587646,0.306152,-0.556396,0.961929,-0.255863,-0.127443,-0.037369,-0.027851,-0.020935,,,,,,,,,,,,,,,,,,,,,,,,,,,,,,,,,,,,,,,,,,,,,,,,,,,,,,,,,,,,,,,,,
56227,1645585815.655719,7.0,0.0,4284.615234000001,4244.615234000001,4209.743652,4274.871582,4259.487305,450.0,4.0,82.0,,,,0.0,4.0,2.0,4.0,0.0,4.0,50.0,,,,,,,,,,,,,,,,,,,,,,,,,,,,,,,,,,,,,,,,,,,,,,,,,,,,,,,,,,,,,,,,,,,,,,,,,,,,,,,,,,,,
56228,1645585815.663533,8.0,0.0,4273.333496,4241.025879,4207.692383,4274.871582,4261.538574,450.0,4.0,82.0,,,,0.0,4.0,2.0,4.0,0.0,4.0,50.0,,,,,,,,4.0,0.0,0.501077,0.5878909999999999,0.306152,-0.556396,0.9707180000000001,-0.25684,-0.126467,-0.037489,-0.0278,-0.017523,,,,,,,,,,,,,,,,,,,,,,,,,,,,,,,,,,,0.0,0.0,64.0,0.363193,1.0,0.0,,,,,,,,,,,,,,,,,,,,,,,,,
56229,1645585815.671248,9.0,0.0,4276.922852000001,4145.641113000001,4204.102539,4274.871582,4293.846191,0.0,4.0,82.0,,,,0.0,4.0,2.0,4.0,0.0,4.0,50.0,,,,,,,,,,,,,,,,,,,,,,,,,,,,,,,,,,,,,,,,,,,,,,,,,,,,,,,,,,,,,,,,,,,,,,,,,,,,,,,,,,,,
56230,1645585815.679063,10.0,0.0,4254.358886999999,4122.563965,4199.487305,4274.871582,4285.128418,450.0,4.0,82.0,,,,0.0,4.0,2.0,4.0,0.0,4.0,50.0,,,,,,,,5.0,0.0,0.501363,0.587646,0.306152,-0.556396,0.9746239999999999,-0.250004,-0.121584,-0.037451,-0.027852,-0.014403999999999998,,,,,,,,,,,,,,,,,,,,,,,,,,,,,,,,,,,,,,,,,,,,,,,,,,,,,,,,,,,,,,,,,
56231,1645585815.686877,11.0,0.0,4261.538574,4192.820313,4205.641113000001,4274.871582,4265.128418,16194.0,4.0,82.0,,,,0.0,4.0,2.0,4.0,0.0,4.0,50.0,,,,,,,,,,,,,,,,,,,,,,,,,,,,,,,,,,,,,,,,,,,,,,,,,,,,,,,,,,,,,,,,,,,,,,,,,,,,,,,,,,,,
56232,1645585815.694692,12.0,0.0,4291.794922,4202.05127,4207.179688,4274.871582,4264.615234000001,450.0,4.0,82.0,,,,0.0,4.0,2.0,4.0,0.0,4.0,50.0,1.0,0.0,3.0,0.0,4.0,0.0,0.0,6.0,0.0,0.501077,0.5878909999999999,0.306152,-0.556396,0.9707180000000001,-0.25684,-0.126467,-0.037564,-0.027801,-0.011645,1.0,0.0,0.0,,,,,,,,,,,,,,,,,,,,,,,,,,,,,,,,0.0,0.0,64.0,0.290854,1.0,0.0,186.150772,9.026735,3.376953,2.183586,2.664505,915.3287349999999,324.841553,67.77664200000001,16.428936,16.956985,1.986434,2.9788,1.9170599999999998,1.365423,0.8479260000000001,0.047002999999999996,0.027808999999999997,0.01648,0.053207000000000004,0.035518,3637.2089840000003,323.986359,106.16363500000001,45.564438,7.362133999999999
56233,1645585815.702507,13.0,0.0,4295.384765999999,4177.94873,4200.0,4274.871582,4261.538574,450.0,4.0,82.0,,,,0.0,4.0,2.0,4.0,0.0,4.0,50.0,,,,,,,,,,,,,,,,,,,,,,,,,,,,,,,,,,,,,,,,,,,,,,,,,,,,,,,,,,,,,,,,,,,,,,,,,,,,,,,,,,,,
56234,1645585815.7103212,14.0,0.0,4294.871582,4178.974121,4201.538574,4274.871582,4271.794922,450.0,4.0,82.0,,,,0.0,4.0,2.0,4.0,0.0,4.0,50.0,,,,,,,,7.0,0.0,0.5012260000000001,0.5878909999999999,0.305908,-0.556396,0.969741,-0.25977,-0.129885,-0.037616000000000004,-0.027852999999999996,-0.015363,,,,,,,,,,,,,,,,,,,,,,,,,,,,,,,,,,,,,,,,,,,,,,,,,,,,,,,,,,,,,,,,,
56235,1645585815.7181358,15.0,0.0,4295.897461,4195.384765999999,4202.05127,4274.871582,4273.333496,16194.0,4.0,82.0,,,,0.0,4.0,2.0,4.0,0.0,4.0,50.0,,,,,,,,,,,,,,,,,,,,,,,,,,,,,,,,,,,,,,,,,,,,,,,,,,,,,,,,,,,,,,,,,,,,,,,,,,,,,,,,,,,,
56236,1645585815.725951,16.0,0.0,4295.384765999999,4265.641113000001,4205.641113000001,4274.871582,4243.589844,0.0,4.0,82.0,,,,0.0,4.0,2.0,4.0,0.0,4.0,50.0,,,,,,,,8.0,0.0,0.5012260000000001,0.5878909999999999,0.305908,-0.556396,0.9629049999999999,-0.254887,-0.129397,-0.037663,-0.027851,-0.012411,,,,,,,,,,,,,,,,,,,,,,,,,,,,,,,,,,,0.0,0.0,64.0,0.290854,1.0,0.0,,,,,,,,,,,,,,,,,,,,,,,,,
56237,1645585815.7337651,17.0,0.0,4296.922852000001,4280.512695,4211.794922,4274.871582,4248.205078,0.0,4.0,82.0,,,,0.0,4.0,2.0,4.0,0.0,4.0,50.0,,,,,,,,,,,,,,,,,,,,,,,,,,,,,,,,,,,,,,,,,,,,,,,,,,,,,,,,,,,,,,,,,,,,,,,,,,,,,,,,,,,,
56238,1645585815.74148,18.0,0.0,4290.769043,4151.282227000001,4205.128418,4274.871582,4286.153809,0.0,4.0,82.0,,,,0.0,4.0,2.0,4.0,0.0,4.0,50.0,,,,,,,,9.0,0.0,0.501077,0.5878909999999999,0.306152,-0.556396,0.9707180000000001,-0.25684,-0.119631,-0.037656999999999996,-0.027752,-0.015955,,,,,,,,,,,,,,,,,,,,,,,,,,,,,,,,,,,,,,,,,,,,,,,,,,,,,,,,,,,,,,,,,
56239,1645585815.749295,19.0,0.0,4292.820313,4090.7692869999996,4207.179688,4274.871582,4275.384765999999,0.0,4.0,82.0,,,,0.0,4.0,2.0,4.0,0.0,4.0,50.0,,,,,,,,,,,,,,,,,,,,,,,,,,,,,,,,,,,,,,,,,,,,,,,,,,,,,,,,,,,,,,,,,,,,,,,,,,,,,,,,,,,,
56240,1645585815.757009,20.0,0.0,4297.436035,4130.769043,4210.769043,4274.871582,4247.179688,0.0,4.0,82.0,,,,0.0,4.0,2.0,4.0,0.0,4.0,50.0,,,,,,,,10.0,0.0,0.501077,0.5878909999999999,0.306152,-0.556396,0.98146,-0.249516,-0.124025,-0.037602,-0.027760000000000003,-0.013041,,,,,,,,,,,,,,,,,,,,,,,,,,,,,,,,,,,0.0,0.0,64.0,0.290854,1.0,0.0,,,,,,,,,,,,,,,,,,,,,,,,,
56241,1645585815.764824,21.0,0.0,4288.717772999999,4088.205078,4200.512695,4274.871582,4249.230957,0.0,4.0,82.0,,,,0.0,4.0,2.0,4.0,0.0,4.0,50.0,,,,,,,,,,,,,,,,,,,,,,,,,,,,,,,,,,,,,,,,,,,,,,,,,,,,,,,,,,,,,,,,,,,,,,,,,,,,,,,,,,,,
56242,1645585815.772639,22.0,0.0,4288.717772999999,4069.2307130000004,4196.410156,4274.871582,4259.487305,0.0,4.0,82.0,,,,0.0,4.0,2.0,4.0,0.0,4.0,50.0,,,,,,,,11.0,0.0,0.501077,0.5878909999999999,0.306152,-0.556396,0.977066,-0.24560900000000002,-0.122072,-0.037601,-0.027816000000000004,-0.01662,,,,,,,,,,,,,,,,,,,,,,,,,,,,,,,,,,,,,,,,,,,,,,,,,,,,,,,,,,,,,,,,,
56243,1645585815.780453,23.0,0.0,4287.179688,4143.589844,4203.077147999999,4274.871582,4269.230957,0.0,4.0,82.0,,,,0.0,4.0,2.0,4.0,0.0,4.0,50.0,,,,,,,,,,,,,,,,,,,,,,,,,,,,,,,,,,,,,,,,,,,,,,,,,,,,,,,,,,,,,,,,,,,,,,,,,,,,,,,,,,,,
56244,1645585815.7882679,24.0,0.0,4272.820313,4164.102539,4204.102539,4274.871582,4263.589844,0.0,4.0,82.0,,,,0.0,4.0,2.0,4.0,0.0,4.0,50.0,,,,,,,,12.0,0.0,0.5009279999999999,0.5878909999999999,0.306396,-0.556396,0.9741360000000001,-0.242679,-0.13281500000000002,-0.037551999999999995,-0.027769,-0.019743,,,,,,,,,,,,,,,,,,,,,,,,,,,,,,,,,,,0.0,0.0,64.0,0.290854,1.0,0.0,,,,,,,,,,,,,,,,,,,,,,,,,
56245,1645585815.796083,25.0,0.0,4280.512695,4141.025879,4202.563965,4274.871582,4250.769043,0.0,4.0,82.0,,,,0.0,4.0,2.0,4.0,0.0,4.0,50.0,,,,,,,,,,,,,,,,,,,,,,,,,,,,,,,,,,,,,,,,,,,,,,,,,,,,,,,,,,,,,,,,,,,,,,,,,,,,,,,,,,,,
56246,1645585815.8038971,26.0,0.0,4303.077147999999,4154.871582,4200.512695,4274.871582,4257.436035,0.0,4.0,82.0,,,,0.0,4.0,2.0,4.0,0.0,4.0,50.0,,,,,,,,13.0,0.0,0.501199,0.5878909999999999,0.306396,-0.5561520000000001,0.969741,-0.24756199999999998,-0.123049,-0.037459,-0.027824,-0.016304,,,,,,,,,,,,,,,,,,,,,,,,,,,,,,,,,,,,,,,,,,,,,,,,,,,,,,,,,,,,,,,,,
56247,1645585815.811712,27.0,0.0,4289.743652,4162.563965,4202.563965,4274.871582,4254.358886999999,0.0,4.0,82.0,,,,0.0,4.0,2.0,4.0,0.0,4.0,50.0,,,,,,,,,,,,,,,,,,,,,,,,,,,,,,,,,,,,,,,,,,,,,,,,,,,,,,,,,,,,,,,,,,,,,,,,,,,,,,,,,,,,
56248,1645585815.819427,28.0,0.0,4269.743652,4182.563965,4205.641113000001,4274.871582,4227.179688,0.0,4.0,82.0,,,,0.0,4.0,2.0,4.0,0.0,4.0,50.0,,,,,,,,14.0,0.0,0.501336,0.587646,0.306641,-0.5561520000000001,0.9663229999999999,-0.26269899999999996,-0.12109600000000001,-0.037473,-0.027776,-0.013355,1.0,0.0,0.0,,,,,,,,,,,,,,,,,,,,,,,,,,,,,,,,0.0,0.0,64.0,0.271374,1.0,0.0,93.058167,7.761193,3.856358,1.830541,2.163956,501.699158,180.466644,48.920017,13.475427999999999,17.274155,1.3484969999999998,3.1952439999999998,1.920005,1.199581,0.738007,0.024915,0.014761000000000002,0.009771,0.036006,0.028311000000000003,1889.3140870000002,180.418564,56.82165500000001,25.077665,4.167104
56249,1645585815.827241,29.0,0.0,4289.230957,4233.333496,4198.461426,4274.871582,4214.871582,0.0,4.0,82.0,,,,0.0,4.0,2.0,4.0,0.0,4.0,50.0,,,,,,,,,,,,,,,,,,,,,,,,,,,,,,,,,,,,,,,,,,,,,,,,,,,,,,,,,,,,,,,,,,,,,,,,,,,,,,,,,,,,
56250,1645585815.835056,30.0,0.0,4316.410156,4198.974121,4200.0,4274.871582,4219.487305,0.0,4.0,82.0,,,,0.0,4.0,2.0,4.0,0.0,4.0,50.0,,,,,,,,15.0,0.0,0.50105,0.5878909999999999,0.306641,-0.5561520000000001,0.975601,-0.258305,-0.125002,-0.037339,-0.027927999999999998,-0.010653,,,,,,,,,,,,,,,,,,,,,,,,,,,,,,,,,,,,,,,,,,,,,,,,,,,,,,,,,,,,,,,,,
56251,1645585815.8428712,31.0,0.0,4294.358886999999,4178.461426,4204.615234000001,4274.871582,4220.0,0.0,4.0,82.0,,,,0.0,4.0,2.0,4.0,0.0,4.0,50.0,,,,,,,,,,,,,,,,,,,,,,,,,,,,,,,,,,,,,,,,,,,,,,,,,,,,,,,,,,,,,,,,,,,,,,,,,,,,,,,,,,,,
56252,1645585815.850685,32.0,0.0,4260.0,4219.487305,4202.563965,4274.871582,4217.436035,0.0,4.0,82.0,,,,0.0,4.0,2.0,4.0,0.0,4.0,50.0,,,,,,,,16.0,0.0,0.501171,0.5878909999999999,0.30688499999999996,-0.555908,0.984878,-0.25390999999999997,-0.123049,-0.037267,-0.027918000000000002,-0.014469999999999998,,,,,,,,,,,,,,,,,,,,,,,,,,,,,,,,,,,0.0,0.0,64.0,0.271374,1.0,0.0,,,,,,,,,,,,,,,,,,,,,,,,,
56253,1645585815.8585,33.0,0.0,4257.94873,4163.077147999999,4200.0,4274.871582,4205.641113000001,0.0,4.0,82.0,,,,0.0,4.0,2.0,4.0,0.0,4.0,50.0,,,,,,,,,,,,,,,,,,,,,,,,,,,,,,,,,,,,,,,,,,,,,,,,,,,,,,,,,,,,,,,,,,,,,,,,,,,,,,,,,,,,
56254,1645585815.8663142,34.0,0.0,4260.0,4165.128418,4201.025879,4274.871582,4200.512695,0.0,4.0,82.0,,,,0.0,4.0,2.0,4.0,0.0,4.0,50.0,,,,,,,,17.0,0.0,0.501171,0.5878909999999999,0.30688499999999996,-0.555908,0.980484,-0.255863,-0.127443,-0.037301,-0.027958999999999998,-0.017759999999999998,,,,,,,,,,,,,,,,,,,,,,,,,,,,,,,,,,,,,,,,,,,,,,,,,,,,,,,,,,,,,,,,,
56255,1645585815.8741288,35.0,0.0,4269.230957,4288.717772999999,4208.717772999999,4274.871582,4218.461426,0.0,4.0,82.0,,,,0.0,4.0,2.0,4.0,0.0,4.0,50.0,,,,,,,,,,,,,,,,,,,,,,,,,,,,,,,,,,,,,,,,,,,,,,,,,,,,,,,,,,,,,,,,,,,,,,,,,,,,,,,,,,,,
56256,1645585815.881944,36.0,0.0,4294.358886999999,4254.871582,4213.846191,4274.871582,4238.461426,0.0,4.0,82.0,,,,0.0,4.0,2.0,4.0,0.0,4.0,50.0,,,,,,,,18.0,0.0,0.501171,0.5878909999999999,0.30688499999999996,-0.555908,0.973648,-0.255375,-0.11914200000000001,-0.03733,-0.027946,-0.014568000000000001,,,,,,,,,,,,,,,,,,,,,,,,,,,,,,,,,,,0.0,0.0,64.0,0.271374,1.0,0.0,,,,,,,,,,,,,,,,,,,,,,,,,
56257,1645585815.889758,37.0,0.0,4291.794922,4135.384765999999,4204.102539,4274.871582,4233.333496,0.0,4.0,82.0,,,,0.0,4.0,2.0,4.0,0.0,4.0,50.0,,,,,,,,,,,,,,,,,,,,,,,,,,,,,,,,,,,,,,,,,,,,,,,,,,,,,,,,,,,,,,,,,,,,,,,,,,,,,,,,,,,,
56258,1645585815.897473,38.0,0.0,4276.410156,4206.153809,4203.589844,4274.871582,4235.897461,0.0,4.0,82.0,,,,0.0,4.0,2.0,4.0,0.0,4.0,50.0,,,,,,,,19.0,0.0,0.501171,0.5878909999999999,0.30688499999999996,-0.555908,0.977066,-0.260258,-0.127443,-0.037357,-0.027886,-0.017847,,,,,,,,,,,,,,,,,,,,,,,,,,,,,,,,,,,,,,,,,,,,,,,,,,,,,,,,,,,,,,,,,
56259,1645585815.905288,39.0,0.0,4306.666504,4317.94873,4222.05127,4274.871582,4253.333496,0.0,4.0,82.0,,,,0.0,4.0,2.0,4.0,0.0,4.0,50.0,,,,,,,,,,,,,,,,,,,,,,,,,,,,,,,,,,,,,,,,,,,,,,,,,,,,,,,,,,,,,,,,,,,,,,,,,,,,,,,,,,,,
56260,1645585815.913102,40.0,0.0,4318.461426,4332.820313,4211.282227000001,4274.871582,4235.897461,0.0,4.0,82.0,,,,0.0,4.0,2.0,4.0,0.0,4.0,50.0,,,,,,,,20.0,0.0,0.5009,0.5878909999999999,0.30688499999999996,-0.5561520000000001,0.972671,-0.25195700000000004,-0.12060699999999999,-0.03743,-0.027783,-0.020897,,,,,,,,,,,,,,,,,,,,,,,,,,,,,,,,,,,0.0,0.0,64.0,0.271374,1.0,0.0,,,,,,,,,,,,,,,,,,,,,,,,,
56261,1645585815.920917,41.0,0.0,4281.538574,4314.871582,4191.282227000001,4274.871582,4214.358886999999,0.0,4.0,82.0,,,,0.0,4.0,2.0,4.0,0.0,4.0,50.0,,,,,,,,,,,,,,,,,,,,,,,,,,,,,,,,,,,,,,,,,,,,,,,,,,,,,,,,,,,,,,,,,,,,,,,,,,,,,,,,,,,,
56262,1645585815.928732,42.0,0.0,4270.256348,4288.205078,4198.974121,4274.871582,4229.230957,0.0,4.0,82.0,,,,0.0,4.0,2.0,4.0,0.0,4.0,50.0,,,,,,,,21.0,0.0,0.5009,0.5878909999999999,0.30688499999999996,-0.5561520000000001,0.981949,-0.244144,-0.127932,-0.037447,-0.027739,-0.023641,,,,,,,,,,,,,,,,,,,,,,,,,,,,,,,,,,,,,,,,,,,,,,,,,,,,,,,,,,,,,,,,,
56263,1645585815.936546,43.0,0.0,4274.871582,4284.102539,4203.589844,4274.871582,4243.077147999999,0.0,4.0,82.0,,,,0.0,4.0,2.0,4.0,0.0,4.0,50.0,,,,,,,,,,,,,,,,,,,,,,,,,,,,,,,,,,,,,,,,,,,,,,,,,,,,,,,,,,,,,,,,,,,,,,,,,,,,,,,,,,,,
56264,1645585815.944361,44.0,0.0,4271.794922,4284.615234000001,4205.641113000001,4274.871582,4228.717772999999,0.0,4.0,82.0,,,,0.0,4.0,2.0,4.0,0.0,4.0,50.0,,,,,,,,22.0,0.0,0.5009,0.5878909999999999,0.30688499999999996,-0.5561520000000001,0.9716950000000001,-0.242679,-0.12109600000000001,-0.037413,-0.027651,-0.026208999999999996,1.0,0.0,0.0,,,,,,,,,,,,,,,,,,,,,,,,,,,,,,,,0.0,0.0,64.0,0.514054,1.0,0.0,35.012108000000005,6.9875869999999995,4.28362,1.530525,1.769811,221.984848,86.115059,35.157391,10.659341,17.141985000000002,1.105452,3.496386,1.7568840000000001,1.068031,0.6565,0.012702,0.008064,0.006682,0.024557,0.024684,722.5299679999999,77.700294,23.766863,10.839162,2.088232
56265,1645585815.952176,45.0,0.0,4279.487305,4247.179688,4214.871582,4274.871582,4234.358886999999,0.0,4.0,82.0,,,,0.0,4.0,2.0,4.0,0.0,4.0,50.0,,,,,,,,,,,,,,,,,,,,,,,,,,,,,,,,,,,,,,,,,,,,,,,,,,,,,,,,,,,,,,,,,,,,,,,,,,,,,,,,,,,,
56266,1645585815.95999,46.0,0.0,4278.461426,4195.897461,4208.205078,4274.871582,4243.077147999999,0.0,4.0,82.0,,,,0.0,4.0,2.0,4.0,0.0,4.0,50.0,,,,,,,,23.0,0.0,0.5009,0.5878909999999999,0.30688499999999996,-0.5561520000000001,0.977554,-0.24560900000000002,-0.12695499999999998,-0.037383,-0.027669,-0.022172,,,,,,,,,,,,,,,,,,,,,,,,,,,,,,,,,,,,,,,,,,,,,,,,,,,,,,,,,,,,,,,,,
56267,1645585815.967705,47.0,0.0,4264.615234000001,4200.0,4198.974121,4274.871582,4222.05127,0.0,4.0,82.0,,,,0.0,4.0,2.0,4.0,0.0,4.0,50.0,,,,,,,,,,,,,,,,,,,,,,,,,,,,,,,,,,,,,,,,,,,,,,,,,,,,,,,,,,,,,,,,,,,,,,,,,,,,,,,,,,,,
56268,1645585815.97552,48.0,0.0,4278.974121,4240.512695,4203.077147999999,4274.871582,4214.358886999999,0.0,4.0,82.0,,,,0.0,4.0,2.0,4.0,0.0,4.0,50.0,,,,,,,,24.0,0.0,0.500464,0.5881350000000001,0.307129,-0.5561520000000001,0.969741,-0.24170300000000003,-0.11816600000000001,-0.037404,-0.027685,-0.024886000000000002,,,,,,,,,,,,,,,,,,,,,,,,,,,,,,,,,,,0.0,0.0,64.0,0.514054,1.0,0.0,,,,,,,,,,,,,,,,,,,,,,,,,
56269,1645585815.983334,49.0,0.0,4298.974121,4239.487305,4198.461426,4274.871582,4223.077147999999,0.0,4.0,82.0,,,,0.0,4.0,2.0,4.0,0.0,4.0,50.0,,,,,,,,,,,,,,,,,,,,,,,,,,,,,,,,,,,,,,,,,,,,,,,,,,,,,,,,,,,,,,,,,,,,,,,,,,,,,,,,,,,,
56270,1645585815.991149,50.0,0.0,4288.717772999999,4194.871582,4186.666504,4274.871582,4222.563965,0.0,4.0,82.0,,,,0.0,4.0,2.0,4.0,0.0,4.0,50.0,,,,,,,,25.0,0.0,0.500735,0.5881350000000001,0.307129,-0.555908,0.9790190000000001,-0.228519,-0.11230599999999999,-0.037326,-0.0277,-0.027280000000000002,,,,,,,,,,,,,,,,,,,,,,,,,,,,,,,,,,,,,,,,,,,,,,,,,,,,,,,,,,,,,,,,,
56271,1645585815.998964,51.0,0.0,4282.05127,4206.153809,4187.179688,4274.871582,4218.974121,0.0,4.0,82.0,,,,0.0,4.0,2.0,4.0,0.0,4.0,50.0,,,,,,,,,,,,,,,,,,,,,,,,,,,,,,,,,,,,,,,,,,,,,,,,,,,,,,,,,,,,,,,,,,,,,,,,,,,,,,,,,,,,
56272,1645585816.006778,52.0,0.0,4286.153809,4228.717772999999,4192.820313,4274.871582,4227.692383,0.0,4.0,82.0,,,,0.0,4.0,2.0,4.0,0.0,4.0,50.0,,,,,,,,26.0,0.0,0.500735,0.5881350000000001,0.307129,-0.555908,0.973159,-0.257816,-0.12451400000000001,-0.037353,-0.027811000000000002,-0.029338,,,,,,,,,,,,,,,,,,,,,,,,,,,,,,,,,,,0.0,0.0,64.0,0.514054,1.0,0.0,,,,,,,,,,,,,,,,,,,,,,,,,
56273,1645585816.014593,53.0,0.0,4284.102539,4150.256348,4192.820313,4274.871582,4227.692383,0.0,4.0,82.0,,,,0.0,4.0,2.0,4.0,0.0,4.0,50.0,,,,,,,,,,,,,,,,,,,,,,,,,,,,,,,,,,,,,,,,,,,,,,,,,,,,,,,,,,,,,,,,,,,,,,,,,,,,,,,,,,,,
56274,1645585816.022408,54.0,0.0,4282.05127,4126.666504,4188.205078,4274.871582,4217.436035,0.0,4.0,82.0,,,,0.0,4.0,2.0,4.0,0.0,4.0,50.0,,,,,,,,27.0,0.0,0.500464,0.5881350000000001,0.307129,-0.5561520000000001,0.969741,-0.24170300000000003,-0.11816600000000001,-0.037377999999999995,-0.027813,-0.031336,,,,,,,,,,,,,,,,,,,,,,,,,,,,,,,,,,,,,,,,,,,,,,,,,,,,,,,,,,,,,,,,,
56275,1645585816.0302222,55.0,0.0,4282.05127,4231.794922,4189.230957,4274.871582,4211.794922,0.0,4.0,82.0,,,,0.0,4.0,2.0,4.0,0.0,4.0,50.0,,,,,,,,,,,,,,,,,,,,,,,,,,,,,,,,,,,,,,,,,,,,,,,,,,,,,,,,,,,,,,,,,,,,,,,,,,,,,,,,,,,,
56276,1645585816.037937,56.0,0.0,4267.179688,4274.871582,4185.128418,4274.871582,4208.205078,0.0,4.0,82.0,,,,0.0,4.0,2.0,4.0,0.0,4.0,50.0,,,,,,,,28.0,0.0,0.5010060000000001,0.5881350000000001,0.307129,-0.555664,0.956558,-0.24853899999999998,-0.12060699999999999,-0.03742,-0.027817,-0.034752,,,,,,,,,,,,,,,,,,,,,,,,,,,,,,,,,,,0.0,0.0,64.0,0.514054,1.0,0.0,,,,,,,,,,,,,,,,,,,,,,,,,
56277,1645585816.045752,57.0,0.0,4247.692383,4203.589844,4180.512695,4274.871582,4210.769043,0.0,4.0,82.0,,,,0.0,4.0,2.0,4.0,0.0,4.0,50.0,,,,,,,,,,,,,,,,,,,,,,,,,,,,,,,,,,,,,,,,,,,,,,,,,,,,,,,,,,,,,,,,,,,,,,,,,,,,,,,,,,,,
56278,1645585816.053567,58.0,0.0,4250.256348,4163.589844,4189.743652,4274.871582,4210.769043,0.0,4.0,82.0,,,,0.0,4.0,2.0,4.0,0.0,4.0,50.0,,,,,,,,29.0,0.0,0.5010060000000001,0.5881350000000001,0.307129,-0.555664,0.9643700000000001,-0.25977,-0.129397,-0.03734,-0.027916000000000003,-0.036160000000000005,,,,,,,,,,,,,,,,,,,,,,,,,,,,,,,,,,,,,,,,,,,,,,,,,,,,,,,,,,,,,,,,,
56279,1645585816.061382,59.0,0.0,4255.384765999999,4186.666504,4191.282227000001,4274.871582,4213.333496,0.0,4.0,82.0,,,,0.0,4.0,2.0,4.0,0.0,4.0,50.0,,,,,,,,,,,,,,,,,,,,,,,,,,,,,,,,,,,,,,,,,,,,,,,,,,,,,,,,,,,,,,,,,,,,,,,,,,,,,,,,,,,,
56280,1645585816.0691972,60.0,0.0,4249.230957,4212.307617,4191.794922,4274.871582,4209.230957,0.0,4.0,82.0,,,,0.0,4.0,2.0,4.0,0.0,4.0,50.0,,,,,,,,30.0,0.0,0.5010060000000001,0.5881350000000001,0.307129,-0.555664,0.9550930000000001,-0.254887,-0.11914200000000001,-0.037415,-0.02781,-0.031127999999999996,1.0,0.0,0.0,,,,,,,,,,,,,,,,,,,,,,,,,,,,,,,,0.0,0.0,64.0,0.474326,1.0,0.0,9.60666,6.532042,4.540883999999999,1.342092,1.536942,84.181,41.181225,27.437006,8.653332,16.377745,1.131834,3.8210949999999997,1.459867,0.9700350000000001,0.590163,0.009831999999999999,0.007241,0.006823999999999999,0.020253,0.025588,170.746277,24.469960999999998,7.926305999999999,3.811009,1.16696
56281,1645585816.0770118,61.0,0.0,4254.871582,4274.358886999999,4202.05127,4274.871582,4191.282227000001,0.0,4.0,82.0,,,,0.0,4.0,2.0,4.0,0.0,4.0,50.0,,,,,,,,,,,,,,,,,,,,,,,,,,,,,,,,,,,,,,,,,,,,,,,,,,,,,,,,,,,,,,,,,,,,,,,,,,,,,,,,,,,,
56282,1645585816.084827,62.0,0.0,4268.205078,4324.102539,4197.94873,4274.871582,4182.05127,0.0,4.0,82.0,,,,0.0,4.0,2.0,4.0,0.0,4.0,50.0,,,,,,,,31.0,0.0,0.5010060000000001,0.5881350000000001,0.307129,-0.555664,0.9716950000000001,-0.258305,-0.13135,-0.037384,-0.027763,-0.032947000000000004,,,,,,,,,,,,,,,,,,,,,,,,,,,,,,,,,,,,,,,,,,,,,,,,,,,,,,,,,,,,,,,,,
56283,1645585816.092641,63.0,0.0,4262.563965,4280.512695,4182.563965,4274.871582,4181.538574,0.0,4.0,82.0,,,,0.0,4.0,2.0,4.0,0.0,4.0,50.0,,,,,,,,,,,,,,,,,,,,,,,,,,,,,,,,,,,,,,,,,,,,,,,,,,,,,,,,,,,,,,,,,,,,,,,,,,,,,,,,,,,,
56284,1645585816.100456,64.0,0.0,4269.230957,4250.256348,4181.025879,4274.871582,4184.102539,450.0,4.0,82.0,,,,0.0,4.0,2.0,4.0,0.0,4.0,50.0,,,,,,,,32.0,0.0,0.5009899999999999,0.588379,0.307129,-0.55542,0.9707180000000001,-0.242191,-0.123049,-0.037405,-0.027721,-0.029602999999999997,,,,,,,,,,,,,,,,,,,,,,,,,,,,,,,,,,,0.0,0.0,64.0,0.474326,1.0,0.0,,,,,,,,,,,,,,,,,,,,,,,,,
56285,1645585816.1082711,65.0,0.0,4289.230957,4278.461426,4185.128418,4275.384765999999,4197.436035,450.0,4.0,82.0,,,,0.0,4.0,2.0,4.0,0.0,4.0,50.0,,,,,,,,,,,,,,,,,,,,,,,,,,,,,,,,,,,,,,,,,,,,,,,,,,,,,,,,,,,,,,,,,,,,,,,,,,,,,,,,,,,,
56286,1645585816.1159859,66.0,0.0,4285.641113000001,4262.563965,4181.025879,4275.384765999999,4223.077147999999,16211.0,4.0,82.0,,,,0.0,4.0,2.0,4.0,0.0,4.0,50.0,,,,,,,,33.0,0.0,0.5009899999999999,0.588379,0.307129,-0.55542,0.975601,-0.24805100000000002,-0.12255999999999999,-0.037425,-0.027781,-0.031428,,,,,,,,,,,,,,,,,,,,,,,,,,,,,,,,,,,,,,,,,,,,,,,,,,,,,,,,,,,,,,,,,
56287,1645585816.123801,67.0,0.0,4276.922852000001,4236.410156,4180.0,4274.358886999999,4219.487305,450.0,4.0,82.0,,,,0.0,4.0,2.0,4.0,0.0,4.0,50.0,,,,,,,,,,,,,,,,,,,,,,,,,,,,,,,,,,,,,,,,,,,,,,,,,,,,,,,,,,,,,,,,,,,,,,,,,,,,,,,,,,,,
56288,1645585816.131515,68.0,0.0,4289.230957,4276.922852000001,4187.692383,4275.897461,4210.256348,256.0,4.0,82.0,,,,0.0,4.0,2.0,4.0,0.0,4.0,50.0,,,,,,,,34.0,0.0,0.501139,0.588379,0.30688499999999996,-0.55542,0.980484,-0.254887,-0.126467,-0.037393,-0.027884,-0.02682,,,,,,,,,,,,,,,,,,,,,,,,,,,,,,,,,,,0.0,0.0,64.0,0.474326,1.0,0.0,,,,,,,,,,,,,,,,,,,,,,,,,
56289,1645585816.1393301,69.0,0.0,4303.589844,4300.0,4198.974121,4274.871582,4241.538574,450.0,4.0,82.0,,,,0.0,4.0,2.0,4.0,0.0,4.0,50.0,,,,,,,,,,,,,,,,,,,,,,,,,,,,,,,,,,,,,,,,,,,,,,,,,,,,,,,,,,,,,,,,,,,,,,,,,,,,,,,,,,,,
56290,1645585816.147145,70.0,0.0,4285.641113000001,4267.692383,4197.94873,4268.717772999999,4255.897461,16204.0,4.0,82.0,,,,0.0,4.0,2.0,4.0,0.0,4.0,50.0,,,,,,,,35.0,0.0,0.501139,0.588379,0.30688499999999996,-0.55542,0.9668120000000001,-0.270024,-0.127443,-0.037316,-0.027927999999999998,-0.022722,,,,,,,,,,,,,,,,,,,,,,,,,,,,,,,,,,,,,,,,,,,,,,,,,,,,,,,,,,,,,,,,,
56291,1645585816.154959,71.0,0.0,4271.794922,4260.512695,4191.282227000001,4265.641113000001,4227.692383,450.0,4.0,82.0,,,,0.0,4.0,2.0,4.0,0.0,4.0,50.0,,,,,,,,,,,,,,,,,,,,,,,,,,,,,,,,,,,,,,,,,,,,,,,,,,,,,,,,,,,,,,,,,,,,,,,,,,,,,,,,,,,,
56292,1645585816.162774,72.0,0.0,4270.769043,4282.563965,4192.307617,4267.179688,4202.563965,450.0,4.0,82.0,,,,0.0,4.0,2.0,4.0,0.0,4.0,50.0,,,,,,,,36.0,0.0,0.501139,0.588379,0.30688499999999996,-0.55542,0.9751129999999999,-0.254887,-0.131838,-0.037247,-0.027821,-0.025187,,,,,,,,,,,,,,,,,,,,,,,,,,,,,,,,,,,0.0,0.0,64.0,0.474326,1.0,0.0,,,,,,,,,,,,,,,,,,,,,,,,,
56293,1645585816.170589,73.0,0.0,4246.666504,4303.077147999999,4191.282227000001,4267.179688,4192.307617,0.0,4.0,82.0,,,,0.0,4.0,2.0,4.0,0.0,4.0,50.0,,,,,,,,,,,,,,,,,,,,,,,,,,,,,,,,,,,,,,,,,,,,,,,,,,,,,,,,,,,,,,,,,,,,,,,,,,,,,,,,,,,,
56294,1645585816.178403,74.0,0.0,4245.641113000001,4313.846191,4189.743652,4266.666504,4188.205078,450.0,4.0,82.0,,,,0.0,4.0,2.0,4.0,0.0,4.0,50.0,,,,,,,,37.0,0.0,0.501139,0.588379,0.30688499999999996,-0.55542,0.965835,-0.256352,-0.134768,-0.037282,-0.027724000000000002,-0.027502,,,,,,,,,,,,,,,,,,,,,,,,,,,,,,,,,,,,,,,,,,,,,,,,,,,,,,,,,,,,,,,,,
56295,1645585816.186218,75.0,0.0,4292.820313,4325.128418,4183.589844,4268.717772999999,4206.153809,16197.0,4.0,82.0,,,,0.0,4.0,2.0,4.0,0.0,4.0,50.0,,,,,,,,,,,,,,,,,,,,,,,,,,,,,,,,,,,,,,,,,,,,,,,,,,,,,,,,,,,,,,,,,,,,,,,,,,,,,,,,,,,,
56296,1645585816.194032,76.0,0.0,4300.0,4316.922852000001,4173.846191,4268.205078,4216.410156,450.0,4.0,82.0,,,,0.0,4.0,2.0,4.0,0.0,4.0,50.0,1.0,0.0,3.0,0.0,4.0,0.0,0.0,38.0,0.0,0.501289,0.588379,0.306641,-0.55542,0.972183,-0.252934,-0.11621300000000001,-0.037167,-0.027783999999999996,-0.029537,1.0,0.0,0.0,1.0,0.380256,0.553579,-0.16553299999999999,1.7228189999999999,1.0,0.425429,6.4343,1.6870330000000002,13.516022,0.40971199999999997,1.0,0.293311,-0.121597,-0.25719699999999995,0.16699,1.0,0.30382800000000004,0.392102,-0.420847,1.862962,1.0,0.48230500000000004,3.2482029999999997,-20.457283,29.235909000000003,1.0,0.262008,0.54945,0.503428,0.671059,0.0,0.0,1.0,0.0,512.0,1.0,2.943206,6.107518,4.581607,1.278074,1.458572,42.385197,27.584644,24.094085999999997,7.842567,15.146524,1.2443790000000001,4.03418,1.109753,0.8911969999999999,0.5227350000000001,0.012588,0.009401000000000001,0.008966,0.021641,0.029682999999999998,19.819494,7.341842,3.296808,1.7867509999999998,0.997558
56297,1645585816.2017472,77.0,0.0,4274.871582,4265.641113000001,4179.487305,4267.179688,4205.641113000001,450.0,4.0,82.0,,,,0.0,4.0,2.0,4.0,0.0,4.0,50.0,,,,,,,,,,,,,,,,,,,,,,,,,,,,,,,,,,,,,,,,,,,,,,,,,,,,,,,,,,,,,,,,,,,,,,,,,,,,,,,,,,,,
56298,1645585816.2095618,78.0,0.0,4301.025879,4209.743652,4187.179688,4267.692383,4211.794922,450.0,4.0,82.0,,,,0.0,4.0,2.0,4.0,0.0,4.0,50.0,,,,,,,,39.0,0.0,0.501289,0.588379,0.306641,-0.55542,0.965835,-0.252934,-0.12842,-0.037161,-0.027837,-0.031417,,,,,,,,,,,,,,,,,,,,,,,,,,,,,,,,,,,,,,,,,,,,,,,,,,,,,,,,,,,,,,,,,
56299,1645585816.217377,79.0,0.0,4324.615234000001,4228.205078,4189.743652,4267.692383,4219.487305,16197.0,4.0,82.0,,,,0.0,4.0,2.0,4.0,0.0,4.0,50.0,,,,,,,,,,,,,,,,,,,,,,,,,,,,,,,,,,,,,,,,,,,,,,,,,,,,,,,,,,,,,,,,,,,,,,,,,,,,,,,,,,,,
56300,1645585816.225191,80.0,0.0,4304.102539,4315.897461,4197.94873,4267.692383,4214.871582,450.0,4.0,82.0,,,,0.0,4.0,2.0,4.0,0.0,4.0,50.0,,,,,,,,40.0,0.0,0.501139,0.588379,0.30688499999999996,-0.55542,0.9663229999999999,-0.24805100000000002,-0.12695499999999998,-0.037107,-0.027886,-0.033061,,,,,,,,,,,,,,,,,,,,,,,,,,,,,,,,,,,0.0,0.0,1.0,0.0,512.0,1.0,,,,,,,,,,,,,,,,,,,,,,,,,
56301,1645585816.233006,81.0,0.0,4305.128418,4402.05127,4206.153809,4267.692383,4222.563965,450.0,4.0,82.0,,,,0.0,4.0,2.0,4.0,0.0,4.0,50.0,,,,,,,,,,,,,,,,,,,,,,,,,,,,,,,,,,,,,,,,,,,,,,,,,,,,,,,,,,,,,,,,,,,,,,,,,,,,,,,,,,,,
56302,1645585816.24082,82.0,0.0,4316.922852000001,4421.025879,4201.025879,4267.692383,4233.333496,450.0,4.0,82.0,,,,0.0,4.0,2.0,4.0,0.0,4.0,50.0,,,,,,,,41.0,0.0,0.501289,0.588379,0.306641,-0.55542,0.972183,-0.252934,-0.11621300000000001,-0.03701,-0.027929000000000002,-0.034539999999999994,,,,,,,,,,,,,,,,,,,,,,,,,,,,,,,,,,,,,,,,,,,,,,,,,,,,,,,,,,,,,,,,,
56303,1645585816.248635,83.0,0.0,4297.94873,4344.102539,4202.05127,4267.692383,4228.205078,16197.0,4.0,82.0,,,,0.0,4.0,2.0,4.0,0.0,4.0,50.0,,,,,,,,,,,,,,,,,,,,,,,,,,,,,,,,,,,,,,,,,,,,,,,,,,,,,,,,,,,,,,,,,,,,,,,,,,,,,,,,,,,,
56304,1645585816.25645,84.0,0.0,4278.974121,4302.563965,4203.077147999999,4267.692383,4218.461426,450.0,4.0,82.0,,,,0.0,4.0,2.0,4.0,0.0,4.0,50.0,,,,,,,,42.0,0.0,0.501426,0.5881350000000001,0.30688499999999996,-0.55542,0.985367,-0.26514099999999996,-0.13281500000000002,-0.037069,-0.027968,-0.029620999999999998,,,,,,,,,,,,,,,,,,,,,,,,,,,,,,,,,,,0.0,0.0,1.0,0.0,512.0,1.0,,,,,,,,,,,,,,,,,,,,,,,,,
56305,1645585816.264264,85.0,0.0,4275.897461,4356.922852000001,4183.077147999999,4267.692383,4215.897461,450.0,4.0,82.0,,,,0.0,4.0,2.0,4.0,0.0,4.0,50.0,,,,,,,,,,,,,,,,,,,,,,,,,,,,,,,,,,,,,,,,,,,,,,,,,,,,,,,,,,,,,,,,,,,,,,,,,,,,,,,,,,,,
56306,1645585816.2719789,86.0,0.0,4280.0,4355.897461,4168.205078,4267.692383,4207.692383,450.0,4.0,82.0,,,,0.0,4.0,2.0,4.0,0.0,4.0,50.0,,,,,,,,43.0,0.0,0.501276,0.5881350000000001,0.307129,-0.55542,0.9751129999999999,-0.23975,-0.130373,-0.037073,-0.027906,-0.031493,,,,,,,,,,,,,,,,,,,,,,,,,,,,,,,,,,,,,,,,,,,,,,,,,,,,,,,,,,,,,,,,,
56307,1645585816.279794,87.0,0.0,4288.717772999999,4297.436035,4178.461426,4267.692383,4203.077147999999,16197.0,4.0,82.0,,,,0.0,4.0,2.0,4.0,0.0,4.0,50.0,,,,,,,,,,,,,,,,,,,,,,,,,,,,,,,,,,,,,,,,,,,,,,,,,,,,,,,,,,,,,,,,,,,,,,,,,,,,,,,,,,,,
56308,1645585816.287609,88.0,0.0,4296.922852000001,4272.820313,4184.615234000001,4267.692383,4226.153809,450.0,4.0,82.0,,,,0.0,4.0,2.0,4.0,0.0,4.0,50.0,,,,,,,,44.0,0.0,0.5009899999999999,0.588379,0.307129,-0.55542,0.9643700000000001,-0.253422,-0.11572400000000001,-0.037125,-0.027752,-0.033227,,,,,,,,,,,,,,,,,,,,,,,,,,,,,,,,,,,0.0,0.0,1.0,0.0,512.0,1.0,,,,,,,,,,,,,,,,,,,,,,,,,
56309,1645585816.295424,89.0,0.0,4296.922852000001,4249.743652,4186.153809,4267.692383,4237.436035,450.0,4.0,82.0,,,,0.0,4.0,2.0,4.0,0.0,4.0,50.0,,,,,,,,,,,,,,,,,,,,,,,,,,,,,,,,,,,,,,,,,,,,,,,,,,,,,,,,,,,,,,,,,,,,,,,,,,,,,,,,,,,,
56310,1645585816.303239,90.0,0.0,4281.025879,4248.205078,4204.615234000001,4267.692383,4222.05127,450.0,4.0,82.0,,,,0.0,4.0,2.0,4.0,0.0,4.0,50.0,,,,,,,,45.0,0.0,0.501276,0.5881350000000001,0.307129,-0.55542,0.9585110000000001,-0.253422,-0.123049,-0.037173000000000005,-0.027663,-0.028633999999999996,,,,,,,,,,,,,,,,,,,,,,,,,,,,,,,,,,,,,,,,,,,,,,,,,,,,,,,,,,,,,,,,,
56311,1645585816.311054,91.0,0.0,4286.153809,4277.436035,4215.384765999999,4267.692383,4230.256348,16197.0,4.0,82.0,,,,0.0,4.0,2.0,4.0,0.0,4.0,50.0,,,,,,,,,,,,,,,,,,,,,,,,,,,,,,,,,,,,,,,,,,,,,,,,,,,,,,,,,,,,,,,,,,,,,,,,,,,,,,,,,,,,
56312,1645585816.3188689,92.0,0.0,4303.589844,4283.589844,4209.230957,4267.692383,4251.794922,450.0,4.0,82.0,,,,0.0,4.0,2.0,4.0,0.0,4.0,50.0,,,,,,,,46.0,0.0,0.5009899999999999,0.588379,0.307129,-0.55542,0.969741,-0.25684,-0.12109600000000001,-0.037313,-0.027727999999999996,-0.030605,1.0,0.0,0.0,,,,,,,,,,,,,,,,,,,,,,,,,,,,,,,,0.0,0.0,1.0,0.0,512.0,1.0,2.119811,5.587452,4.440081,1.303117,1.4836639999999999,36.441143,26.168097,22.973357999999998,8.240252,13.916234,1.298067,3.989979,0.786961,0.8194440000000001,0.45130299999999995,0.016477000000000002,0.011878,0.011559999999999999,0.025266999999999998,0.033925,6.160257,5.45135,2.600917,1.6351719999999998,1.101884
56313,1645585816.326684,93.0,0.0,4284.615234000001,4295.384765999999,4207.692383,4267.692383,4229.743652,450.0,4.0,82.0,,,,0.0,4.0,2.0,4.0,0.0,4.0,50.0,,,,,,,,,,,,,,,,,,,,,,,,,,,,,,,,,,,,,,,,,,,,,,,,,,,,,,,,,,,,,,,,,,,,,,,,,,,,,,,,,,,,
56314,1645585816.334498,94.0,0.0,4269.743652,4305.641113000001,4208.717772999999,4267.692383,4216.922852000001,450.0,4.0,82.0,,,,0.0,4.0,2.0,4.0,0.0,4.0,50.0,,,,,,,,47.0,0.0,0.500869,0.588379,0.30688499999999996,-0.555664,0.976089,-0.260746,-0.139651,-0.037244,-0.027788,-0.032330000000000005,,,,,,,,,,,,,,,,,,,,,,,,,,,,,,,,,,,,,,,,,,,,,,,,,,,,,,,,,,,,,,,,,
56315,1645585816.3422132,95.0,0.0,4294.358886999999,4289.230957,4192.307617,4267.692383,4243.589844,16197.0,4.0,82.0,,,,0.0,4.0,2.0,4.0,0.0,4.0,50.0,,,,,,,,,,,,,,,,,,,,,,,,,,,,,,,,,,,,,,,,,,,,,,,,,,,,,,,,,,,,,,,,,,,,,,,,,,,,,,,,,,,,
56316,1645585816.350028,96.0,0.0,4308.717772999999,4329.230957,4183.077147999999,4267.692383,4228.205078,450.0,4.0,82.0,,,,0.0,4.0,2.0,4.0,0.0,4.0,50.0,,,,,,,,48.0,0.0,0.500869,0.588379,0.30688499999999996,-0.555664,0.9589989999999999,-0.25684,-0.129885,-0.037182,-0.027645999999999997,-0.034076999999999996,,,,,,,,,,,,,,,,,,,,,,,,,,,,,,,,,,,0.0,0.0,1.0,0.0,512.0,1.0,,,,,,,,,,,,,,,,,,,,,,,,,
56317,1645585816.357843,97.0,0.0,4304.615234000001,4364.102539,4199.487305,4267.692383,4191.282227000001,450.0,4.0,82.0,,,,0.0,4.0,2.0,4.0,0.0,4.0,50.0,,,,,,,,,,,,,,,,,,,,,,,,,,,,,,,,,,,,,,,,,,,,,,,,,,,,,,,,,,,,,,,,,,,,,,,,,,,,,,,,,,,,
56318,1645585816.365658,98.0,0.0,4314.358886999999,4312.307617,4205.641113000001,4267.692383,4214.358886999999,450.0,4.0,82.0,,,,0.0,4.0,2.0,4.0,0.0,4.0,50.0,,,,,,,,49.0,0.0,0.500869,0.588379,0.30688499999999996,-0.555664,0.9746239999999999,-0.250492,-0.13281500000000002,-0.037126,-0.027663999999999998,-0.035601,,,,,,,,,,,,,,,,,,,,,,,,,,,,,,,,,,,,,,,,,,,,,,,,,,,,,,,,,,,,,,,,,
56319,1645585816.373473,99.0,0.0,4302.05127,4306.153809,4189.743652,4267.692383,4239.487305,16197.0,4.0,82.0,,,,0.0,4.0,2.0,4.0,0.0,4.0,50.0,,,,,,,,,,,,,,,,,,,,,,,,,,,,,,,,,,,,,,,,,,,,,,,,,,,,,,,,,,,,,,,,,,,,,,,,,,,,,,,,,,,,
56320,1645585816.381288,100.0,0.0,4287.179688,4367.692383,4188.205078,4267.692383,4228.205078,450.0,4.0,82.0,,,,0.0,4.0,2.0,4.0,0.0,4.0,50.0,,,,,,,,50.0,0.0,0.500582,0.588623,0.30688499999999996,-0.555664,0.9663229999999999,-0.256352,-0.130373,-0.037173000000000005,-0.02773,-0.030625,,,,,,,,,,,,,,,,,,,,,,,,,,,,,,,,,,,0.0,0.0,1.0,0.0,512.0,1.0,,,,,,,,,,,,,,,,,,,,,,,,,
56321,1645585816.389103,101.0,0.0,4304.102539,4349.743652,4191.282227000001,4267.179688,4238.461426,450.0,4.0,82.0,,,,0.0,4.0,2.0,4.0,0.0,4.0,50.0,,,,,,,,,,,,,,,,,,,,,,,,,,,,,,,,,,,,,,,,,,,,,,,,,,,,,,,,,,,,,,,,,,,,,,,,,,,,,,,,,,,,
56322,1645585816.396918,102.0,0.0,4289.743652,4297.436035,4180.512695,4268.205078,4238.974121,450.0,4.0,82.0,,,,0.0,4.0,2.0,4.0,0.0,4.0,50.0,,,,,,,,51.0,0.0,0.500432,0.588623,0.307129,-0.555664,0.975601,-0.24170300000000003,-0.114748,-0.037215,-0.027788999999999998,-0.032494,,,,,,,,,,,,,,,,,,,,,,,,,,,,,,,,,,,,,,,,,,,,,,,,,,,,,,,,,,,,,,,,,
56323,1645585816.404633,103.0,0.0,4267.692383,4312.307617,4182.05127,4267.179688,4205.128418,16197.0,4.0,82.0,,,,0.0,4.0,2.0,4.0,0.0,4.0,50.0,,,,,,,,,,,,,,,,,,,,,,,,,,,,,,,,,,,,,,,,,,,,,,,,,,,,,,,,,,,,,,,,,,,,,,,,,,,,,,,,,,,,
56324,1645585816.412448,104.0,0.0,4284.615234000001,4298.974121,4184.102539,4266.666504,4202.563965,450.0,4.0,82.0,,,,0.0,4.0,2.0,4.0,0.0,4.0,50.0,,,,,,,,52.0,0.0,0.500553,0.588623,0.307373,-0.55542,0.972671,-0.258305,-0.11767799999999999,-0.037107,-0.027842000000000002,-0.034225,,,,,,,,,,,,,,,,,,,,,,,,,,,,,,,,,,,0.0,0.0,1.0,0.0,512.0,1.0,,,,,,,,,,,,,,,,,,,,,,,,,
56325,1645585816.4202619,105.0,0.0,4292.307617,4240.0,4174.358886999999,4270.256348,4215.897461,450.0,4.0,82.0,,,,0.0,4.0,2.0,4.0,0.0,4.0,50.0,,,,,,,,,,,,,,,,,,,,,,,,,,,,,,,,,,,,,,,,,,,,,,,,,,,,,,,,,,,,,,,,,,,,,,,,,,,,,,,,,,,,
56326,1645585816.428077,106.0,0.0,4280.512695,4240.512695,4184.615234000001,4274.871582,4205.641113000001,450.0,4.0,82.0,,,,0.0,4.0,2.0,4.0,0.0,4.0,50.0,,,,,,,,53.0,0.0,0.50069,0.588379,0.30761700000000003,-0.55542,0.977066,-0.235843,-0.118654,-0.037107,-0.027889999999999998,-0.029387,,,,,,,,,,,,,,,,,,,,,,,,,,,,,,,,,,,,,,,,,,,,,,,,,,,,,,,,,,,,,,,,,
56327,1645585816.435892,107.0,0.0,4298.974121,4241.538574,4200.0,4272.307617,4230.769043,16197.0,4.0,82.0,,,,0.0,4.0,2.0,4.0,0.0,4.0,50.0,,,,,,,,,,,,,,,,,,,,,,,,,,,,,,,,,,,,,,,,,,,,,,,,,,,,,,,,,,,,,,,,,,,,,,,,,,,,,,,,,,,,
56328,1645585816.443707,108.0,0.0,4334.871582,4214.871582,4197.436035,4270.256348,4262.563965,450.0,4.0,82.0,,,,0.0,4.0,2.0,4.0,0.0,4.0,50.0,,,,,,,,54.0,0.0,0.50054,0.588379,0.307861,-0.55542,0.978042,-0.238773,-0.120119,-0.037205,-0.027884,-0.024983,1.0,0.0,0.0,,,,,,,,,,,,,,,,,,,,,,,,,,,,,,,,0.0,0.0,1.0,0.0,512.0,1.0,1.907559,5.188573,4.191776,1.353774,1.552969,39.579918,28.821869,22.201303,9.629703999999998,13.173657,1.23414,3.622721,0.551253,0.747095,0.38815900000000003,0.020666,0.013985,0.013463999999999999,0.027619,0.035251,6.565474000000001,5.9151,2.35846,1.632332,1.2293180000000001
56329,1645585816.451522,109.0,0.0,4338.461426,4244.102539,4213.333496,4277.436035,4238.461426,450.0,4.0,82.0,,,,0.0,4.0,2.0,4.0,0.0,4.0,50.0,,,,,,,,,,,,,,,,,,,,,,,,,,,,,,,,,,,,,,,,,,,,,,,,,,,,,,,,,,,,,,,,,,,,,,,,,,,,,,,,,,,,
56330,1645585816.4592369,110.0,0.0,4322.05127,4262.05127,4226.153809,4276.922852000001,4220.512695,450.0,4.0,82.0,,,,0.0,4.0,2.0,4.0,0.0,4.0,50.0,,,,,,,,55.0,0.0,0.500661,0.588379,0.308105,-0.555176,0.977554,-0.25098000000000004,-0.121584,-0.037147,-0.027879,-0.02727,,,,,,,,,,,,,,,,,,,,,,,,,,,,,,,,,,,,,,,,,,,,,,,,,,,,,,,,,,,,,,,,,
56331,1645585816.467052,111.0,0.0,4302.563965,4275.384765999999,4206.666504,4267.692383,4222.563965,16197.0,4.0,82.0,,,,0.0,4.0,2.0,4.0,0.0,4.0,50.0,,,,,,,,,,,,,,,,,,,,,,,,,,,,,,,,,,,,,,,,,,,,,,,,,,,,,,,,,,,,,,,,,,,,,,,,,,,,,,,,,,,,
56332,1645585816.474867,112.0,0.0,4298.461426,4332.820313,4192.820313,4267.692383,4211.794922,450.0,4.0,82.0,,,,0.0,4.0,2.0,4.0,0.0,4.0,50.0,,,,,,,,56.0,0.0,0.500661,0.588379,0.308105,-0.555176,0.9712059999999999,-0.24853899999999998,-0.12255999999999999,-0.037094,-0.028069999999999998,-0.029426,,,,,,,,,,,,,,,,,,,,,,,,,,,,,,,,,,,0.0,0.0,1.0,0.0,512.0,1.0,,,,,,,,,,,,,,,,,,,,,,,,,
56333,1645585816.482682,113.0,0.0,4306.153809,4313.846191,4194.358886999999,4273.333496,4204.102539,450.0,4.0,82.0,,,,0.0,4.0,2.0,4.0,0.0,4.0,50.0,,,,,,,,,,,,,,,,,,,,,,,,,,,,,,,,,,,,,,,,,,,,,,,,,,,,,,,,,,,,,,,,,,,,,,,,,,,,,,,,,,,,
56334,1645585816.4904962,114.0,0.0,4295.897461,4243.077147999999,4191.282227000001,4272.307617,4204.102539,450.0,4.0,82.0,,,,0.0,4.0,2.0,4.0,0.0,4.0,50.0,,,,,,,,57.0,0.0,0.50054,0.588379,0.307861,-0.55542,0.978042,-0.238773,-0.120119,-0.037194,-0.028045999999999998,-0.025019,,,,,,,,,,,,,,,,,,,,,,,,,,,,,,,,,,,,,,,,,,,,,,,,,,,,,,,,,,,,,,,,,
56335,1645585816.498311,115.0,0.0,4290.769043,4282.563965,4196.410156,4271.794922,4217.94873,16197.0,4.0,82.0,,,,0.0,4.0,2.0,4.0,0.0,4.0,50.0,,,,,,,,,,,,,,,,,,,,,,,,,,,,,,,,,,,,,,,,,,,,,,,,,,,,,,,,,,,,,,,,,,,,,,,,,,,,,,,,,,,,
56336,1645585816.506126,116.0,0.0,4302.05127,4334.358886999999,4201.025879,4275.384765999999,4254.871582,450.0,4.0,82.0,,,,0.0,4.0,2.0,4.0,0.0,4.0,50.0,,,,,,,,58.0,0.0,0.500661,0.588379,0.308105,-0.555176,0.9712059999999999,-0.254887,-0.12695499999999998,-0.037283,-0.027877999999999997,-0.021100999999999998,,,,,,,,,,,,,,,,,,,,,,,,,,,,,,,,,,,0.0,0.0,1.0,0.0,512.0,1.0,,,,,,,,,,,,,,,,,,,,,,,,,
56337,1645585816.513941,117.0,0.0,4295.897461,4292.307617,4184.615234000001,4274.871582,4247.692383,450.0,4.0,82.0,,,,0.0,4.0,2.0,4.0,0.0,4.0,50.0,,,,,,,,,,,,,,,,,,,,,,,,,,,,,,,,,,,,,,,,,,,,,,,,,,,,,,,,,,,,,,,,,,,,,,,,,,,,,,,,,,,,
56338,1645585816.5217562,118.0,0.0,4293.846191,4293.333496,4176.410156,4274.358886999999,4207.692383,450.0,4.0,82.0,,,,0.0,4.0,2.0,4.0,0.0,4.0,50.0,,,,,,,,59.0,0.0,0.50039,0.588379,0.308105,-0.55542,0.965835,-0.257816,-0.12255999999999999,-0.037266,-0.027874,-0.023874,,,,,,,,,,,,,,,,,,,,,,,,,,,,,,,,,,,,,,,,,,,,,,,,,,,,,,,,,,,,,,,,,
56339,1645585816.529571,119.0,0.0,4320.512695,4380.512695,4191.282227000001,4275.897461,4228.717772999999,16197.0,4.0,82.0,,,,0.0,4.0,2.0,4.0,0.0,4.0,50.0,,,,,,,,,,,,,,,,,,,,,,,,,,,,,,,,,,,,,,,,,,,,,,,,,,,,,,,,,,,,,,,,,,,,,,,,,,,,,,,,,,,,
56340,1645585816.537286,120.0,0.0,4325.641113000001,4433.846191,4196.922852000001,4274.871582,4252.820313,450.0,4.0,82.0,,,,0.0,4.0,2.0,4.0,0.0,4.0,50.0,,,,,,,,60.0,0.0,0.50039,0.588379,0.308105,-0.55542,0.975601,-0.247074,-0.118654,-0.037299,-0.027918000000000002,-0.02632,,,,,,,,,,,,,,,,,,,,,,,,,,,,,,,,,,,0.0,0.0,1.0,0.0,512.0,1.0,,,,,,,,,,,,,,,,,,,,,,,,,
56341,1645585816.5451,121.0,0.0,4305.641113000001,4371.794922,4189.743652,4274.871582,4224.102539,450.0,4.0,82.0,,,,0.0,4.0,2.0,4.0,0.0,4.0,50.0,,,,,,,,,,,,,,,,,,,,,,,,,,,,,,,,,,,,,,,,,,,,,,,,,,,,,,,,,,,,,,,,,,,,,,,,,,,,,,,,,,,,
56342,1645585816.552915,122.0,0.0,4311.282227000001,4312.820313,4193.333496,4277.94873,4226.153809,450.0,4.0,82.0,,,,0.0,4.0,2.0,4.0,0.0,4.0,50.0,,,,,,,,61.0,0.0,0.50039,0.588379,0.308105,-0.55542,0.962417,-0.252445,-0.12451400000000001,-0.037231,-0.027812,-0.028425,,,,,,,,,,,,,,,,,,,,,,,,,,,,,,,,,,,,,,,,,,,,,,,,,,,,,,,,,,,,,,,,,
56343,1645585816.56073,123.0,0.0,4305.641113000001,4366.153809,4204.102539,4276.922852000001,4250.769043,16197.0,4.0,82.0,,,,0.0,4.0,2.0,4.0,0.0,4.0,50.0,,,,,,,,,,,,,,,,,,,,,,,,,,,,,,,,,,,,,,,,,,,,,,,,,,,,,,,,,,,,,,,,,,,,,,,,,,,,,,,,,,,,
56344,1645585816.568544,124.0,0.0,4287.692383,4421.025879,4215.897461,4269.230957,4221.025879,450.0,4.0,82.0,,,,0.0,4.0,2.0,4.0,0.0,4.0,50.0,,,,,,,,62.0,0.0,0.50054,0.588379,0.307861,-0.55542,0.968765,-0.24853899999999998,-0.13135,-0.037268,-0.027814,-0.024215,1.0,0.0,0.0,,,,,,,,,,,,,,,,,,,,,,,,,,,,,,,,0.0,0.0,64.0,0.213054,1.0,0.0,1.677993,5.148514,3.895714,1.370733,1.619769,39.864964,33.089828000000004,21.356005,11.69852,13.041242,1.063713,3.016741,0.44794799999999996,0.667057,0.344248,0.025925999999999998,0.016027,0.014438,0.026856,0.032293,6.719923,6.1030370000000005,2.187109,1.5883610000000001,1.318616
56345,1645585816.576359,125.0,0.0,4291.794922,4405.641113000001,4214.358886999999,4265.641113000001,4186.666504,450.0,4.0,82.0,,,,0.0,4.0,2.0,4.0,0.0,4.0,50.0,,,,,,,,,,,,,,,,,,,,,,,,,,,,,,,,,,,,,,,,,,,,,,,,,,,,,,,,,,,,,,,,,,,,,,,,,,,,,,,,,,,,
56346,1645585816.584173,126.0,0.0,4278.461426,4352.307617,4202.05127,4268.205078,4193.333496,450.0,4.0,82.0,,,,0.0,4.0,2.0,4.0,0.0,4.0,50.0,,,,,,,,63.0,0.0,0.500119,0.588379,0.308105,-0.555664,0.979507,-0.242679,-0.11621300000000001,-0.037203,-0.027864999999999997,-0.02653,,,,,,,,,,,,,,,,,,,,,,,,,,,,,,,,,,,,,,,,,,,,,,,,,,,,,,,,,,,,,,,,,
56347,1645585816.591988,127.0,0.0,4262.563965,4318.974121,4199.487305,4269.230957,4202.05127,240.0,4.0,82.0,,,,0.0,4.0,2.0,4.0,0.0,4.0,50.0,,,,,,,,,,,,,,,,,,,,,,,,,,,,,,,,,,,,,,,,,,,,,,,,,,,,,,,,,,,,,,,,,,,,,,,,,,,,,,,,,,,,
56348,1645585816.599803,0.0,0.0,4294.871582,4347.692383,4201.538574,4268.205078,4192.307617,450.0,4.0,82.0,,,,0.0,4.0,2.0,4.0,0.0,4.0,50.0,,,,,,,,0.0,0.0,0.500119,0.588379,0.308105,-0.555664,0.9702299999999999,-0.23486700000000002,-0.119631,-0.037194,-0.02791,-0.022461000000000002,,,,,,,,,,,,,,,,,,,,,,,,,,,,,,,,,,,0.0,0.0,64.0,0.213054,1.0,0.0,,,,,,,,,,,,,,,,,,,,,,,,,
56349,1645585816.607518,1.0,0.0,4307.179688,4364.615234000001,4184.102539,4267.692383,4193.846191,450.0,4.0,82.0,,,,0.0,4.0,2.0,4.0,0.0,4.0,50.0,,,,,,,,,,,,,,,,,,,,,,,,,,,,,,,,,,,,,,,,,,,,,,,,,,,,,,,,,,,,,,,,,,,,,,,,,,,,,,,,,,,,
56350,1645585816.615333,2.0,0.0,4289.230957,4298.461426,4185.128418,4269.230957,4216.410156,16228.0,4.0,82.0,,,,0.0,4.0,2.0,4.0,0.0,4.0,50.0,,,,,,,,1.0,0.0,0.500119,0.588379,0.308105,-0.555664,0.977554,-0.254398,-0.12451400000000001,-0.037283,-0.027902999999999997,-0.025195,,,,,,,,,,,,,,,,,,,,,,,,,,,,,,,,,,,,,,,,,,,,,,,,,,,,,,,,,,,,,,,,,
56351,1645585816.623148,3.0,0.0,4305.128418,4276.922852000001,4212.820313,4272.820313,4225.641113000001,450.0,4.0,82.0,,,,0.0,4.0,2.0,4.0,0.0,4.0,50.0,,,,,,,,,,,,,,,,,,,,,,,,,,,,,,,,,,,,,,,,,,,,,,,,,,,,,,,,,,,,,,,,,,,,,,,,,,,,,,,,,,,,
56352,1645585816.630962,4.0,0.0,4320.512695,4348.717772999999,4198.974121,4273.846191,4223.077147999999,273.0,4.0,82.0,,,,0.0,4.0,2.0,4.0,0.0,4.0,50.0,,,,,,,,2.0,0.0,0.500406,0.5881350000000001,0.308105,-0.555664,0.9790190000000001,-0.244633,-0.127443,-0.037266,-0.027798000000000003,-0.021357,,,,,,,,,,,,,,,,,,,,,,,,,,,,,,,,,,,0.0,0.0,64.0,0.213054,1.0,0.0,,,,,,,,,,,,,,,,,,,,,,,,,
56353,1645585816.638777,5.0,0.0,4302.563965,4340.0,4174.358886999999,4271.794922,4221.538574,450.0,4.0,82.0,,,,0.0,4.0,2.0,4.0,0.0,4.0,50.0,,,,,,,,,,,,,,,,,,,,,,,,,,,,,,,,,,,,,,,,,,,,,,,,,,,,,,,,,,,,,,,,,,,,,,,,,,,,,,,,,,,,
