,Timestamp,OriginalTimestamp,EEG.Counter,EEG.Interpolated,EEG.AF3,EEG.T7,EEG.Pz,EEG.T8,EEG.AF4,EEG.RawCq,EEG.Battery,EEG.BatteryPercent,MarkerIndex,MarkerType,MarkerValueInt,EEG.MarkerHardware,CQ.AF3,CQ.T7,CQ.Pz,CQ.T8,CQ.AF4,CQ.Overall,EQ.SampleRateQuality,EQ.OVERALL,EQ.AF3,EQ.T7,EQ.Pz,EQ.T8,EQ.AF4,MOT.CounterMems,MOT.InterpolatedMems,MOT.Q0,MOT.Q1,MOT.Q2,MOT.Q3,MOT.AccX,MOT.AccY,MOT.AccZ,MOT.MagX,MOT.MagY,MOT.MagZ,MC.Action,MC.ActionPower,MC.IsActive,PM.Engagement.IsActive,PM.Engagement.Scaled,PM.Engagement.Raw,PM.Engagement.Min,PM.Engagement.Max,PM.Excitement.IsActive,PM.Excitement.Scaled,PM.Excitement.Raw,PM.Excitement.Min,PM.Excitement.Max,PM.LongTermExcitement,PM.Stress.IsActive,PM.Stress.Scaled,PM.Stress.Raw,PM.Stress.Min,PM.Stress.Max,PM.Relaxation.IsActive,PM.Relaxation.Scaled,PM.Relaxation.Raw,PM.Relaxation.Min,PM.Relaxation.Max,PM.Interest.IsActive,PM.Interest.Scaled,PM.Interest.Raw,PM.Interest.Min,PM.Interest.Max,PM.Focus.IsActive,PM.Focus.Scaled,PM.Focus.Raw,PM.Focus.Min,PM.Focus.Max,FE.BlinkWink,FE.HorizontalEyesDirection,FE.UpperFaceAction,FE.UpperFaceActionPower,FE.LowerFaceAction,FE.LowerFaceActionPower,POW.AF3.Theta,POW.AF3.Alpha,POW.AF3.BetaL,POW.AF3.BetaH,POW.AF3.Gamma,POW.T7.Theta,POW.T7.Alpha,POW.T7.BetaL,POW.T7.BetaH,POW.T7.Gamma,POW.Pz.Theta,POW.Pz.Alpha,POW.Pz.BetaL,POW.Pz.BetaH,POW.Pz.Gamma,POW.T8.Theta,POW.T8.Alpha,POW.T8.BetaL,POW.T8.BetaH,POW.T8.Gamma,POW.AF4.Theta,POW.AF4.Alpha,POW.AF4.BetaL,POW.AF4.BetaH,POW.AF4.Gamma
10727,1650415495.980083,1650415495.991153,116.0,0.0,4348.205078,3969.2307130000004,4270.256348,4263.589844,4343.589844,450.0,3.0,68.0,17.0,1.0,7.0,0.0,4.0,2.0,1.0,0.0,4.0,25.0,,,,,,,,58.0,0.0,0.066384,-0.569336,0.34936500000000004,0.741211,0.9043110000000001,-0.431159,-0.10693499999999999,-0.046096,-0.055462,-0.014903999999999999,,,,,,,,,,,,,,,,,,,,,,,,,,,,,,,,,,,,,,,,,,,,,,,,,,,,,,,,,,,,,,,,,
10728,1650415495.9878972,1650415495.998968,117.0,0.0,4361.025879,4020.512939,4275.897461,4275.384765999999,4363.077147999999,450.0,3.0,68.0,,,,0.0,4.0,2.0,1.0,0.0,4.0,25.0,,,,,,,,,,,,,,,,,,,,,,,,,,,,,,,,,,,,,,,,,,,,,,,,,,,,,,0.0,0.0,1.0,0.0,1.0,0.0,,,,,,,,,,,,,,,,,,,,,,,,,
10729,1650415495.9957118,1650415496.006882,118.0,0.0,4388.717772999999,4077.9487299999996,4305.641113000001,4284.615234000001,4352.307617,450.0,3.0,68.0,,,,0.0,4.0,2.0,1.0,0.0,4.0,25.0,,,,,,,,59.0,0.0,0.068446,-0.569092,0.34936500000000004,0.741211,0.9091940000000001,-0.43457700000000005,-0.11084200000000001,-0.046125,-0.055482000000000004,-0.016441,,,,,,,,,,,,,,,,,,,,,,,,,,,,,,,,,,,,,,,,,,,,,,,,,,,,,,,,,,,,,,,,,
10730,1650415496.003526,1650415496.014697,119.0,0.0,4374.871582,4131.794922,4318.461426,4282.563965,4371.794922,16213.0,3.0,68.0,,,,0.0,4.0,2.0,1.0,0.0,4.0,25.0,,,,,,,,,,,,,,,,,,,,,,,,,,,,,,,,,,,,,,,,,,,,,,,,,,,,,,,,,,,,,,,,,,,,,,,,,,,,,,,,,,,,
10731,1650415496.011341,1650415496.0226119,120.0,0.0,4375.384765999999,4131.794922,4337.436035,4281.025879,4386.153809,450.0,3.0,68.0,,,,0.0,4.0,2.0,1.0,0.0,4.0,25.0,,,,,,,,60.0,0.0,0.06967999999999999,-0.569092,0.349121,0.741211,0.914565,-0.43457700000000005,-0.11425999999999999,-0.046102,-0.055402999999999994,-0.014747999999999999,,,,,,,,,,,,,,,,,,,,,,,,,,,,,,,,,,,,,,,,,,,,,,,,,,,,,,,,,,,,,,,,,
10732,1650415496.019155,1650415496.030426,121.0,0.0,4382.563965,4099.487305,4322.563965,4280.512695,4353.846191,450.0,3.0,68.0,,,,0.0,4.0,2.0,1.0,0.0,4.0,25.0,,,,,,,,,,,,,,,,,,,,1.0,0.0,0.0,,,,,,,,,,,,,,,,,,,,,,,,,,,,,,,,0.0,0.0,1.0,0.0,1.0,0.0,4.884828,3.209851,1.7259950000000002,2.0247889999999997,2.330964,69.12133,30.886571999999997,14.983067000000002,20.484972,8.619189,4.9961839999999995,1.4805620000000002,2.4813490000000002,2.23941,2.300911,4.945566,2.6696470000000003,1.356955,1.311675,1.954991,6.283597,3.031288,0.662755,4.324415,3.1432450000000003
10733,1650415496.02697,1650415496.038341,122.0,0.0,4359.487305,4100.0,4307.179688,4280.0,4343.077147999999,450.0,3.0,68.0,,,,0.0,4.0,2.0,1.0,0.0,4.0,25.0,,,,,,,,61.0,0.0,0.06703300000000001,-0.569092,0.349121,0.741455,0.8916149999999999,-0.42676400000000003,-0.109377,-0.046082,-0.05538,-0.016252000000000003,,,,,,,,,,,,,,,,,,,,,,,,,,,,,,,,,,,,,,,,,,,,,,,,,,,,,,,,,,,,,,,,,
10734,1650415496.034784,1650415496.0461562,123.0,0.0,4369.743652,4069.743652,4317.436035,4283.589844,4374.358886999999,16213.0,3.0,68.0,,,,0.0,4.0,2.0,1.0,0.0,4.0,25.0,,,,,,,,,,,,,,,,,,,,,,,,,,,,,,,,,,,,,,,,,,,,,,,,,,,,,,,,,,,,,,,,,,,,,,,,,,,,,,,,,,,,
10735,1650415496.042599,1650415496.05407,124.0,0.0,4389.230957,4020.512939,4296.410156,4280.0,4383.589844,450.0,3.0,68.0,,,,0.0,4.0,2.0,1.0,0.0,4.0,25.0,,,,,,,,62.0,0.0,0.06703300000000001,-0.569092,0.349121,0.741455,0.8964979999999999,-0.428717,-0.112795,-0.046112,-0.055409,-0.017654,,,,,,,,,,,,,,,,,,,,,,,,,,,,,,,,,,,,,,,,,,,,,,,,,,,,,,,,,,,,,,,,,
10736,1650415496.0504131,1650415496.0618849,125.0,0.0,4387.692383,4023.076904,4306.153809,4275.897461,4380.512695,450.0,3.0,68.0,,,,0.0,4.0,2.0,1.0,0.0,4.0,25.0,,,,,,,,,,,,,,,,,,,,,,,,,,,,,,,,,,,,,,,,,,,,,,,,,,,,,,0.0,0.0,1.0,0.0,1.0,0.0,,,,,,,,,,,,,,,,,,,,,,,,,
10737,1650415496.058228,1650415496.069799,126.0,0.0,4448.717772999999,4041.538574,4353.333496,4289.230957,4412.307617,450.0,3.0,68.0,,,,0.0,4.0,2.0,1.0,0.0,4.0,25.0,,,,,,,,63.0,0.0,0.06890399999999999,-0.569336,0.348877,0.741211,0.905776,-0.442878,-0.11816600000000001,-0.04614,-0.055337,-0.019014,,,,,,,,,,,,,,,,,,,,,,,,,,,,,,,,,,,,,,,,,,,,,,,,,,,,,,,,,,,,,,,,,
10738,1650415496.066043,1650415496.077614,127.0,0.0,4494.358886999999,4064.615479,4284.102539,4288.717772999999,4442.563965,237.0,3.0,68.0,,,,0.0,4.0,2.0,1.0,0.0,4.0,25.0,,,,,,,,,,,,,,,,,,,,,,,,,,,,,,,,,,,,,,,,,,,,,,,,,,,,,,,,,,,,,,,,,,,,,,,,,,,,,,,,,,,,
10739,1650415496.073857,1650415496.085528,0.0,0.0,4426.153809,4116.410156,4247.692383,4264.102539,4443.077147999999,450.0,3.0,68.0,,,,0.0,4.0,2.0,1.0,0.0,4.0,25.0,,,,,,,,0.0,0.0,0.06890399999999999,-0.569336,0.348877,0.741211,0.914076,-0.4336,-0.116701,-0.046165,-0.05537,-0.017064,,,,,,,,,,,,,,,,,,,,,,,,,,,,,,,,,,,,,,,,,,,,,,,,,,,,,,,,,,,,,,,,,
10740,1650415496.081672,1650415496.093343,1.0,0.0,4427.179688,4041.025635,4322.05127,4266.666504,4411.794922,450.0,3.0,68.0,,,,0.0,4.0,2.0,1.0,0.0,4.0,25.0,,,,,,,,,,,,,,,,,,,,,,,,,,,,,,,,,,,,,,,,,,,,,,,,,,,,,,0.0,0.0,1.0,0.0,1.0,0.0,,,,,,,,,,,,,,,,,,,,,,,,,
10741,1650415496.089486,1650415496.101258,2.0,0.0,4481.538574,3909.2307130000004,4312.307617,4286.153809,4392.307617,16233.0,3.0,68.0,,,,0.0,4.0,2.0,1.0,0.0,4.0,25.0,,,,,,,,1.0,0.0,0.06703300000000001,-0.569092,0.349121,0.741455,0.8964979999999999,-0.428717,-0.112795,-0.046138,-0.055448000000000004,-0.015162,,,,,,,,,,,,,,,,,,,,,,,,,,,,,,,,,,,,,,,,,,,,,,,,,,,,,,,,,,,,,,,,,
10742,1650415496.097301,1650415496.109172,3.0,0.0,4428.205078,3977.4357909999994,4303.077147999999,4283.589844,4412.307617,450.0,3.0,68.0,,,,0.0,4.0,4.0,2.0,0.0,4.0,50.0,,,,,,,,,,,,,,,,,,,,,,,,,,,,,,,,,,,,,,,,,,,,,,,,,,,,,,,,,,,,,,,,,,,,,,,,,,,,,,,,,,,,
10743,1650415496.105115,1650415496.116987,4.0,0.0,4390.256348,4020.0,4338.974121,4277.94873,4393.333496,16104.0,3.0,68.0,,,,0.0,4.0,4.0,2.0,0.0,4.0,50.0,,,,,,,,2.0,0.0,0.06890399999999999,-0.569336,0.348877,0.741211,0.914076,-0.4336,-0.116701,-0.046163,-0.055470000000000005,-0.013597,,,,,,,,,,,,,,,,,,,,,,,,,,,,,,,,,,,,,,,,,,,,,,,,,,,,,,,,,,,,,,,,,
10744,1650415496.11293,1650415496.124801,5.0,0.0,4414.871582,3941.538574,4298.974121,4284.102539,4376.922852000001,450.0,3.0,68.0,,,,0.0,4.0,4.0,2.0,0.0,4.0,50.0,,,,,,,,,,,,,,,,,,,,,,,,,,,,,,,,,,,,,,,,,,,,,,,,,,,,,,0.0,0.0,1.0,0.0,1.0,0.0,,,,,,,,,,,,,,,,,,,,,,,,,
10745,1650415496.120744,1650415496.132616,6.0,0.0,4398.974121,4012.820557,4318.974121,4282.563965,4408.205078,294.0,3.0,68.0,,,,0.0,4.0,4.0,2.0,0.0,4.0,50.0,,,,,,,,3.0,0.0,0.06890399999999999,-0.569336,0.348877,0.741211,0.8999159999999999,-0.427741,-0.10547000000000001,-0.046137,-0.055439999999999996,-0.015362,,,,,,,,,,,,,,,,,,,,,,,,,,,,,,,,,,,,,,,,,,,,,,,,,,,,,,,,,,,,,,,,,
10746,1650415496.1285589,1650415496.140531,7.0,0.0,4398.974121,4061.538574,4369.743652,4280.512695,4400.0,450.0,3.0,68.0,,,,0.0,4.0,4.0,2.0,0.0,4.0,50.0,,,,,,,,,,,,,,,,,,,,,,,,,,,,,,,,,,,,,,,,,,,,,,,,,,,,,,,,,,,,,,,,,,,,,,,,,,,,,,,,,,,,
10747,1650415496.136373,1650415496.148345,8.0,0.0,4428.717772999999,3945.1281740000004,4290.256348,4282.563965,4380.0,450.0,3.0,68.0,,,,0.0,4.0,4.0,2.0,0.0,4.0,50.0,,,,,,,,4.0,0.0,0.06890399999999999,-0.569336,0.348877,0.741211,0.904799,-0.42969399999999996,-0.101076,-0.046162,-0.055365,-0.016951,,,,,,,,,,,,,,,,,,,,,,,,,,,,,,,,,,,,,,,,,,,,,,,,,,,,,,,,,,,,,,,,,
10748,1650415496.1441882,1650415496.15626,9.0,0.0,4406.666504,3960.512939,4279.487305,4284.102539,4412.307617,0.0,3.0,68.0,,,,0.0,4.0,4.0,2.0,0.0,4.0,50.0,1.0,8.333333,4.0,1.0,0.0,0.0,3.0,,,,,,,,,,,,,1.0,0.0,0.0,,,,,,,,,,,,,,,,,,,,,,,,,,,,,,,,0.0,0.0,1.0,0.0,512.0,0.757848,4.082862,3.08038,1.498643,1.931804,2.509594,65.795303,29.107390999999996,15.272737,24.682602,8.905799,4.997764,2.13988,2.718064,2.356436,2.4662029999999997,3.917014,2.1590979999999997,1.116595,1.08673,1.5811790000000001,5.577195,3.414331,0.8674940000000001,4.1353290000000005,2.936877
10749,1650415496.1520019,1650415496.164074,10.0,0.0,4401.025879,4045.1281740000004,4349.230957,4282.05127,4402.05127,450.0,3.0,68.0,,,,0.0,4.0,4.0,2.0,0.0,4.0,50.0,,,,,,,,5.0,0.0,0.06890399999999999,-0.569336,0.348877,0.741211,0.9184709999999999,-0.43213500000000005,-0.11572400000000001,-0.046183999999999996,-0.055297000000000006,-0.018331999999999998,,,,,,,,,,,,,,,,,,,,,,,,,,,,,,,,,,,,,,,,,,,,,,,,,,,,,,,,,,,,,,,,,
10750,1650415496.159817,1650415496.171989,11.0,0.0,4441.025879,4003.076904,4282.563965,4279.487305,4374.871582,16274.0,3.0,68.0,,,,0.0,4.0,4.0,2.0,0.0,4.0,50.0,,,,,,,,,,,,,,,,,,,,,,,,,,,,,,,,,,,,,,,,,,,,,,,,,,,,,,,,,,,,,,,,,,,,,,,,,,,,,,,,,,,,
10751,1650415496.167632,1650415496.1798038,12.0,0.0,4415.384765999999,4006.6667479999996,4259.487305,4290.256348,4427.179688,450.0,3.0,68.0,,,,0.0,4.0,4.0,2.0,0.0,4.0,50.0,,,,,,,,6.0,0.0,0.066856,-0.56958,0.348877,0.741211,0.9150530000000001,-0.42822899999999997,-0.107424,-0.046107,-0.055383,-0.01645,,,,,,,,,,,,,,,,,,,,,,,,,,,,,,,,,,,,,,,,,,,,,,,,,,,,,,,,,,,,,,,,,
10752,1650415496.175446,1650415496.187718,13.0,0.0,4387.692383,4012.820557,4338.461426,4292.820313,4415.384765999999,450.0,3.0,68.0,,,,0.0,4.0,4.0,2.0,0.0,4.0,50.0,,,,,,,,,,,,,,,,,,,,,,,,,,,,,,,,,,,,,,,,,,,,,,,,,,,,,,0.0,0.0,1.0,0.0,512.0,0.757848,,,,,,,,,,,,,,,,,,,,,,,,,
10753,1650415496.183261,1650415496.195533,14.0,0.0,4424.102539,3934.8718259999996,4298.974121,4270.256348,4354.358886999999,450.0,3.0,68.0,,,,0.0,4.0,4.0,2.0,0.0,4.0,50.0,,,,,,,,7.0,0.0,0.06951,-0.56958,0.348877,0.740967,0.9077290000000001,-0.42432299999999995,-0.098634,-0.046037,-0.055264999999999995,-0.014756,,,,,,,,,,,,,,,,,,,,,,,,,,,,,,,,,,,,,,,,,,,,,,,,,,,,,,,,,,,,,,,,,
10754,1650415496.191075,1650415496.203447,15.0,0.0,4427.692383,3989.743652,4281.538574,4264.102539,4426.666504,16274.0,3.0,68.0,,,,0.0,4.0,4.0,2.0,0.0,4.0,50.0,,,,,,,,,,,,,,,,,,,,,,,,,,,,,,,,,,,,,,,,,,,,,,,,,,,,,,,,,,,,,,,,,,,,,,,,,,,,,,,,,,,,
10755,1650415496.19889,1650415496.211262,16.0,0.0,4421.025879,4021.025635,4358.974121,4284.102539,4464.102539,0.0,3.0,68.0,,,,0.0,4.0,4.0,2.0,0.0,4.0,50.0,,,,,,,,8.0,0.0,0.06951,-0.56958,0.348877,0.740967,0.9267719999999999,-0.427741,-0.10498199999999999,-0.046072,-0.055207000000000006,-0.016308,,,,,,,,,,,,,,,,,,,,,,,,,,,,,,,,,,,,,,,,,,,,,,,,,,,,,,,,,,,,,,,,,
10756,1650415496.206704,1650415496.219177,17.0,0.0,4431.794922,3874.358887,4325.128418,4288.205078,4364.615234000001,0.0,3.0,68.0,,,,0.0,4.0,4.0,2.0,0.0,4.0,50.0,,,,,,,,,,,,,,,,,,,,,,,,,,,,,,,,,,,,,,,,,,,,,,,,,,,,,,0.0,0.0,1.0,0.0,512.0,0.757848,,,,,,,,,,,,,,,,,,,,,,,,,
10757,1650415496.214519,1650415496.226991,18.0,0.0,4386.153809,3908.718018,4294.871582,4278.974121,4354.358886999999,0.0,3.0,68.0,,,,0.0,4.0,4.0,2.0,0.0,4.0,50.0,,,,,,,,9.0,0.0,0.06951,-0.56958,0.348877,0.740967,0.9043110000000001,-0.43799499999999997,-0.109377,-0.046104,-0.055154999999999996,-0.017656,,,,,,,,,,,,,,,,,,,,,,,,,,,,,,,,,,,,,,,,,,,,,,,,,,,,,,,,,,,,,,,,,
10758,1650415496.222333,1650415496.234906,19.0,0.0,4368.717772999999,4052.820557,4350.256348,4280.512695,4408.205078,0.0,3.0,68.0,,,,0.0,4.0,4.0,2.0,0.0,4.0,50.0,,,,,,,,,,,,,,,,,,,,,,,,,,,,,,,,,,,,,,,,,,,,,,,,,,,,,,,,,,,,,,,,,,,,,,,,,,,,,,,,,,,,
10759,1650415496.230148,1650415496.24282,20.0,0.0,4410.256348,3980.0,4319.487305,4282.563965,4389.230957,0.0,3.0,68.0,,,,0.0,4.0,4.0,2.0,0.0,4.0,50.0,,,,,,,,10.0,0.0,0.06951,-0.56958,0.348877,0.740967,0.9077290000000001,-0.43946,-0.107424,-0.046083,-0.055109000000000005,-0.015793,,,,,,,,,,,,,,,,,,,,,,,,,,,,,,,,,,,,,,,,,,,,,,,,,,,,,,,,,,,,,,,,,
10760,1650415496.237962,1650415496.250635,21.0,0.0,4394.871582,3932.820557,4302.563965,4280.0,4368.717772999999,0.0,3.0,68.0,,,,0.0,4.0,4.0,2.0,0.0,4.0,50.0,,,,,,,,,,,,,,,,,,,,,,,,,,,,,,,,,,,,,,,,,,,,,,,,,,,,,,0.0,0.0,1.0,0.0,512.0,0.757848,,,,,,,,,,,,,,,,,,,,,,,,,
10761,1650415496.245777,1650415496.25855,22.0,0.0,4383.077147999999,4017.9487299999996,4350.769043,4281.025879,4355.384765999999,0.0,3.0,68.0,,,,0.0,4.0,4.0,2.0,0.0,4.0,50.0,,,,,,,,11.0,0.0,0.066856,-0.56958,0.348877,0.741211,0.901869,-0.42920600000000003,-0.112795,-0.046163,-0.055213,-0.014163999999999998,,,,,,,,,,,,,,,,,,,,,,,,,,,,,,,,,,,,,,,,,,,,,,,,,,,,,,,,,,,,,,,,,
10762,1650415496.253591,1650415496.266364,23.0,0.0,4415.384765999999,3999.487061,4294.871582,4286.153809,4362.05127,0.0,3.0,68.0,,,,0.0,4.0,4.0,2.0,0.0,4.0,50.0,,,,,,,,,,,,,,,,,,,,,,,,,,,,,,,,,,,,,,,,,,,,,,,,,,,,,,,,,,,,,,,,,,,,,,,,,,,,,,,,,,,,
10763,1650415496.261406,1650415496.274179,24.0,0.0,4397.94873,3988.205078,4275.897461,4292.307617,4420.512695,0.0,3.0,68.0,,,,0.0,4.0,4.0,2.0,0.0,4.0,50.0,,,,,,,,12.0,0.0,0.065569,-0.56958,0.349121,0.741211,0.898451,-0.449226,-0.095705,-0.046185000000000004,-0.055307,-0.015824,,,,,,,,,,,,,,,,,,,,,,,,,,,,,,,,,,,,,,,,,,,,,,,,,,,,,,,,,,,,,,,,,
10764,1650415496.2692199,1650415496.282093,25.0,0.0,4393.846191,4035.897461,4349.743652,4297.94873,4414.871582,0.0,3.0,68.0,,,,0.0,4.0,4.0,2.0,0.0,4.0,50.0,,,,,,,,,,,,,,,,,,,,1.0,0.0,0.0,,,,,,,,,,,,,,,,,,,,,,,,,,,,,,,,0.0,0.0,1.0,0.0,512.0,0.587244,3.244413,3.017785,1.386234,1.9060970000000002,2.670921,65.70399499999999,29.456512,16.213017999999998,27.376402000000002,9.279886999999999,5.525695,3.1400580000000002,2.961546,2.450364,2.604373,2.76965,1.559025,0.8776309999999999,0.889426,1.1708530000000001,5.056293,3.6554,1.164636,4.153630000000001,2.689491
10765,1650415496.277035,1650415496.289908,26.0,0.0,4413.846191,4042.5642090000006,4319.487305,4286.666504,4362.563965,0.0,3.0,68.0,,,,0.0,4.0,4.0,2.0,0.0,4.0,50.0,,,,,,,,13.0,0.0,0.065569,-0.56958,0.349121,0.741211,0.8994280000000001,-0.445808,-0.103029,-0.046107999999999996,-0.055294,-0.017318,,,,,,,,,,,,,,,,,,,,,,,,,,,,,,,,,,,,,,,,,,,,,,,,,,,,,,,,,,,,,,,,,
10766,1650415496.28485,1650415496.297823,27.0,0.0,4381.025879,4126.666504,4305.128418,4262.05127,4395.384765999999,0.0,3.0,68.0,,,,0.0,4.0,4.0,2.0,0.0,4.0,50.0,,,,,,,,,,,,,,,,,,,,,,,,,,,,,,,,,,,,,,,,,,,,,,,,,,,,,,,,,,,,,,,,,,,,,,,,,,,,,,,,,,,,
10767,1650415496.292664,1650415496.305637,28.0,0.0,4398.974121,4174.871582,4381.538574,4264.615234000001,4404.102539,0.0,3.0,68.0,,,,0.0,4.0,4.0,2.0,0.0,4.0,50.0,,,,,,,,14.0,0.0,0.067656,-0.569336,0.349121,0.741211,0.906264,-0.44971400000000006,-0.09131,-0.046183999999999996,-0.05538,-0.018565,,,,,,,,,,,,,,,,,,,,,,,,,,,,,,,,,,,,,,,,,,,,,,,,,,,,,,,,,,,,,,,,,
10768,1650415496.300479,1650415496.3133519,29.0,0.0,4463.077147999999,4030.256348,4323.589844,4286.666504,4350.769043,0.0,3.0,68.0,,,,0.0,4.0,4.0,2.0,0.0,4.0,50.0,,,,,,,,,,,,,,,,,,,,,,,,,,,,,,,,,,,,,,,,,,,,,,,,,,,,,,0.0,0.0,1.0,0.0,512.0,0.587244,,,,,,,,,,,,,,,,,,,,,,,,,
10769,1650415496.3082929,1650415496.321266,30.0,0.0,4418.461426,4008.205078,4252.307617,4287.692383,4377.94873,0.0,3.0,68.0,,,,0.0,4.0,4.0,2.0,0.0,4.0,50.0,,,,,,,,15.0,0.0,0.067656,-0.569336,0.349121,0.741211,0.904799,-0.45069,-0.10498199999999999,-0.046107,-0.05536,-0.019736,,,,,,,,,,,,,,,,,,,,,,,,,,,,,,,,,,,,,,,,,,,,,,,,,,,,,,,,,,,,,,,,,
10770,1650415496.316108,1650415496.329081,31.0,0.0,4359.487305,4129.230957,4324.102539,4276.922852000001,4401.538574,0.0,3.0,68.0,,,,0.0,4.0,4.0,2.0,0.0,4.0,50.0,,,,,,,,,,,,,,,,,,,,,,,,,,,,,,,,,,,,,,,,,,,,,,,,,,,,,,,,,,,,,,,,,,,,,,,,,,,,,,,,,,,,
10771,1650415496.3239222,1650415496.3368962,32.0,0.0,4374.358886999999,4070.256348,4336.410156,4277.436035,4362.563965,0.0,3.0,68.0,,,,0.0,4.0,4.0,2.0,0.0,4.0,50.0,,,,,,,,16.0,0.0,0.068446,-0.569092,0.34936500000000004,0.741211,0.8960100000000001,-0.44385399999999997,-0.11035299999999999,-0.046135,-0.055340999999999994,-0.020985,,,,,,,,,,,,,,,,,,,,,,,,,,,,,,,,,,,,,,,,,,,,,,,,,,,,,,,,,,,,,,,,,
10772,1650415496.3317368,1650415496.344611,33.0,0.0,4369.230957,3961.025635,4307.179688,4284.102539,4356.922852000001,0.0,3.0,68.0,,,,0.0,4.0,4.0,2.0,0.0,4.0,50.0,,,,,,,,,,,,,,,,,,,,,,,,,,,,,,,,,,,,,,,,,,,,,,,,,,,,,,0.0,0.0,1.0,0.0,512.0,0.587244,,,,,,,,,,,,,,,,,,,,,,,,,
10773,1650415496.339551,1650415496.352525,34.0,0.0,4360.0,3966.6667479999996,4320.0,4285.128418,4352.307617,0.0,3.0,68.0,,,,0.0,4.0,4.0,2.0,0.0,4.0,50.0,,,,,,,,17.0,0.0,0.066558,-0.5688479999999999,0.349609,0.741455,0.9087049999999999,-0.44776099999999996,-0.112795,-0.04616,-0.055276,-0.025088,,,,,,,,,,,,,,,,,,,,,,,,,,,,,,,,,,,,,,,,,,,,,,,,,,,,,,,,,,,,,,,,,
10774,1650415496.347366,1650415496.36034,35.0,0.0,4376.410156,4037.9487299999996,4307.179688,4281.025879,4356.410156,0.0,3.0,68.0,,,,0.0,4.0,4.0,2.0,0.0,4.0,50.0,,,,,,,,,,,,,,,,,,,,,,,,,,,,,,,,,,,,,,,,,,,,,,,,,,,,,,,,,,,,,,,,,,,,,,,,,,,,,,,,,,,,
10775,1650415496.35518,1650415496.368254,36.0,0.0,4384.102539,4150.256348,4332.307617,4281.025879,4387.692383,0.0,3.0,68.0,,,,0.0,4.0,4.0,2.0,0.0,4.0,50.0,,,,,,,,18.0,0.0,0.066558,-0.5688479999999999,0.349609,0.741455,0.9087049999999999,-0.451179,-0.098634,-0.046281,-0.055364,-0.025606,,,,,,,,,,,,,,,,,,,,,,,,,,,,,,,,,,,,,,,,,,,,,,,,,,,,,,,,,,,,,,,,,
10776,1650415496.362995,1650415496.376169,37.0,0.0,4404.102539,4157.94873,4347.692383,4287.179688,4379.487305,0.0,3.0,68.0,,,,0.0,4.0,4.0,2.0,0.0,4.0,50.0,,,,,,,,,,,,,,,,,,,,,,,,,,,,,,,,,,,,,,,,,,,,,,,,,,,,,,0.0,0.0,1.0,0.0,512.0,0.587244,,,,,,,,,,,,,,,,,,,,,,,,,
10777,1650415496.370809,1650415496.383983,38.0,0.0,4410.769043,4092.820557,4292.307617,4285.641113000001,4376.410156,0.0,3.0,68.0,,,,0.0,4.0,4.0,2.0,0.0,4.0,50.0,,,,,,,,19.0,0.0,0.065263,-0.5688479999999999,0.349854,0.741455,0.900893,-0.435554,-0.100587,-0.04634,-0.055345000000000005,-0.02285,,,,,,,,,,,,,,,,,,,,,,,,,,,,,,,,,,,,,,,,,,,,,,,,,,,,,,,,,,,,,,,,,
10778,1650415496.378624,1650415496.391798,39.0,0.0,4393.846191,4110.769043,4312.307617,4278.974121,4406.666504,0.0,3.0,68.0,,,,0.0,4.0,4.0,2.0,0.0,4.0,50.0,,,,,,,,,,,,,,,,,,,,,,,,,,,,,,,,,,,,,,,,,,,,,,,,,,,,,,,,,,,,,,,,,,,,,,,,,,,,,,,,,,,,
10779,1650415496.3864381,1650415496.399713,40.0,0.0,4416.922852000001,4048.718018,4368.717772999999,4281.025879,4367.692383,0.0,3.0,68.0,,,,0.0,4.0,4.0,2.0,0.0,4.0,50.0,,,,,,,,20.0,0.0,0.067357,-0.568604,0.349854,0.741455,0.901381,-0.445808,-0.111818,-0.046394,-0.055376999999999996,-0.026767000000000003,,,,,,,,,,,,,,,,,,,,,,,,,,,,,,,,,,,,,,,,,,,,,,,,,,,,,,,,,,,,,,,,,
10780,1650415496.394253,1650415496.407527,41.0,0.0,4408.717772999999,3903.5898439999996,4325.641113000001,4284.102539,4320.512695,0.0,3.0,68.0,,,,0.0,4.0,4.0,2.0,0.0,4.0,50.0,,,,,,,,,,,,,,,,,,,,1.0,0.0,0.0,,,,,,,,,,,,,,,,,,,,,,,,,,,,,,,,0.0,0.0,1.0,0.0,512.0,0.8932530000000001,2.659981,3.116344,1.49553,1.938661,2.7843869999999997,68.101189,31.243640999999997,17.986429,27.637857,9.815797,6.849112,4.420053,3.144142,2.505317,2.785627,1.7016650000000002,1.00757,0.625498,0.72554,0.810188,4.698008,3.72053,1.5171729999999999,4.2524370000000005,2.44141
10781,1650415496.402068,1650415496.415442,42.0,0.0,4361.025879,3893.8461909999996,4321.025879,4284.615234000001,4375.897461,0.0,3.0,68.0,,,,0.0,4.0,4.0,2.0,0.0,4.0,50.0,,,,,,,,21.0,0.0,0.067357,-0.568604,0.349854,0.741455,0.9077290000000001,-0.44483100000000003,-0.1084,-0.046442000000000004,-0.055357,-0.027166000000000003,,,,,,,,,,,,,,,,,,,,,,,,,,,,,,,,,,,,,,,,,,,,,,,,,,,,,,,,,,,,,,,,,
10782,1650415496.409882,1650415496.4232562,43.0,0.0,4399.487305,3877.9487299999996,4338.461426,4282.05127,4423.077147999999,0.0,3.0,68.0,,,,0.0,4.0,4.0,2.0,0.0,4.0,50.0,,,,,,,,,,,,,,,,,,,,,,,,,,,,,,,,,,,,,,,,,,,,,,,,,,,,,,,,,,,,,,,,,,,,,,,,,,,,,,,,,,,,
10783,1650415496.417697,1650415496.4311712,44.0,0.0,4418.461426,3847.179443,4300.512695,4280.0,4408.717772999999,0.0,3.0,68.0,,,,0.0,4.0,4.0,2.0,0.0,4.0,50.0,,,,,,,,22.0,0.0,0.067357,-0.568604,0.349854,0.741455,0.901869,-0.442878,-0.11718900000000002,-0.046485000000000005,-0.05529,-0.027575,,,,,,,,,,,,,,,,,,,,,,,,,,,,,,,,,,,,,,,,,,,,,,,,,,,,,,,,,,,,,,,,,
10784,1650415496.425511,1650415496.4389858,45.0,0.0,4369.230957,3910.7692869999996,4302.05127,4285.641113000001,4385.128418,0.0,3.0,68.0,,,,0.0,4.0,4.0,2.0,0.0,4.0,50.0,,,,,,,,,,,,,,,,,,,,,,,,,,,,,,,,,,,,,,,,,,,,,,,,,,,,,,0.0,0.0,1.0,0.0,512.0,0.8932530000000001,,,,,,,,,,,,,,,,,,,,,,,,,
10785,1650415496.433326,1650415496.4469,46.0,0.0,4372.820313,3917.4357909999994,4301.025879,4285.641113000001,4374.871582,0.0,3.0,68.0,,,,0.0,4.0,4.0,2.0,0.0,4.0,50.0,,,,,,,,23.0,0.0,0.065263,-0.5688479999999999,0.349854,0.741455,0.900893,-0.43994799999999995,-0.095705,-0.046426999999999996,-0.055278999999999995,-0.024719,,,,,,,,,,,,,,,,,,,,,,,,,,,,,,,,,,,,,,,,,,,,,,,,,,,,,,,,,,,,,,,,,
10786,1650415496.44114,1650415496.454715,47.0,0.0,4385.128418,3942.0512700000004,4308.205078,4282.05127,4406.153809,0.0,3.0,68.0,,,,0.0,4.0,4.0,2.0,0.0,4.0,50.0,,,,,,,,,,,,,,,,,,,,,,,,,,,,,,,,,,,,,,,,,,,,,,,,,,,,,,,,,,,,,,,,,,,,,,,,,,,,,,,,,,,,
10787,1650415496.448955,1650415496.4626288,48.0,0.0,4384.102539,4029.2307130000004,4361.025879,4284.615234000001,4412.307617,0.0,3.0,68.0,,,,0.0,4.0,4.0,2.0,0.0,4.0,50.0,,,,,,,,24.0,0.0,0.067979,-0.5688479999999999,0.349854,0.741211,0.903334,-0.438483,-0.105959,-0.046472,-0.055366,-0.025275,,,,,,,,,,,,,,,,,,,,,,,,,,,,,,,,,,,,,,,,,,,,,,,,,,,,,,,,,,,,,,,,,
10788,1650415496.456769,1650415496.470444,49.0,0.0,4424.615234000001,3969.743652,4332.820313,4287.692383,4373.333496,0.0,3.0,68.0,,,,0.0,4.0,4.0,2.0,0.0,4.0,50.0,,,,,,,,,,,,,,,,,,,,,,,,,,,,,,,,,,,,,,,,,,,,,,,,,,,,,,0.0,0.0,1.0,0.0,512.0,0.8932530000000001,,,,,,,,,,,,,,,,,,,,,,,,,
10789,1650415496.4645839,1650415496.478259,50.0,0.0,4399.487305,3945.1281740000004,4289.230957,4294.358886999999,4382.05127,0.0,3.0,68.0,,,,0.0,4.0,4.0,2.0,0.0,4.0,50.0,,,,,,,,25.0,0.0,0.067979,-0.5688479999999999,0.349854,0.741211,0.9043110000000001,-0.44531899999999996,-0.11084200000000001,-0.046366000000000004,-0.055347,-0.019622,,,,,,,,,,,,,,,,,,,,,,,,,,,,,,,,,,,,,,,,,,,,,,,,,,,,,,,,,,,,,,,,,
10790,1650415496.472398,1650415496.486073,51.0,0.0,4355.384765999999,4050.256348,4339.487305,4292.307617,4397.94873,0.0,3.0,68.0,,,,0.0,4.0,4.0,2.0,0.0,4.0,50.0,,,,,,,,,,,,,,,,,,,,,,,,,,,,,,,,,,,,,,,,,,,,,,,,,,,,,,,,,,,,,,,,,,,,,,,,,,,,,,,,,,,,
10791,1650415496.4802132,1650415496.493788,52.0,0.0,4422.563965,4005.1281740000004,4328.717772999999,4285.641113000001,4391.282227000001,0.0,3.0,68.0,,,,0.0,4.0,4.0,2.0,0.0,4.0,50.0,,,,,,,,26.0,0.0,0.067979,-0.5688479999999999,0.349854,0.741211,0.909682,-0.431647,-0.10547000000000001,-0.046368,-0.055281,-0.020784999999999998,,,,,,,,,,,,,,,,,,,,,,,,,,,,,,,,,,,,,,,,,,,,,,,,,,,,,,,,,,,,,,,,,
10792,1650415496.4880269,1650415496.501703,53.0,0.0,4424.102539,3956.923096,4297.94873,4292.307617,4415.897461,0.0,3.0,68.0,,,,0.0,4.0,4.0,2.0,0.0,4.0,50.0,,,,,,,,,,,,,,,,,,,,,,,,,,,,,,,,,,,,,,,,,,,,,,,,,,,,,,0.0,0.0,1.0,0.0,512.0,0.8932530000000001,,,,,,,,,,,,,,,,,,,,,,,,,
10793,1650415496.495842,1650415496.509517,54.0,0.0,4355.384765999999,3994.358887,4349.743652,4296.922852000001,4385.128418,0.0,3.0,68.0,,,,0.0,4.0,4.0,2.0,0.0,4.0,50.0,,,,,,,,27.0,0.0,0.068595,-0.569092,0.349854,0.740967,0.910658,-0.446784,-0.116701,-0.046419,-0.055173,-0.021783,,,,,,,,,,,,,,,,,,,,,,,,,,,,,,,,,,,,,,,,,,,,,,,,,,,,,,,,,,,,,,,,,
10794,1650415496.503657,1650415496.517432,55.0,0.0,4400.512695,3942.5642090000006,4348.717772999999,4291.794922,4350.256348,0.0,3.0,68.0,,,,0.0,4.0,4.0,2.0,0.0,4.0,50.0,,,,,,,,,,,,,,,,,,,,,,,,,,,,,,,,,,,,,,,,,,,,,,,,,,,,,,,,,,,,,,,,,,,,,,,,,,,,,,,,,,,,
10795,1650415496.511471,1650415496.5252461,56.0,0.0,4422.563965,3986.1538090000004,4339.487305,4290.769043,4444.615234000001,0.0,3.0,68.0,,,,0.0,4.0,4.0,2.0,0.0,4.0,50.0,,,,,,,,28.0,0.0,0.067979,-0.5688479999999999,0.349854,0.741211,0.9043110000000001,-0.44531899999999996,-0.11084200000000001,-0.046367,-0.055174,-0.025806,,,,,,,,,,,,,,,,,,,,,,,,,,,,,,,,,,,,,,,,,,,,,,,,,,,,,,,,,,,,,,,,,
10796,1650415496.519286,1650415496.533061,57.0,0.0,4370.256348,4072.3076170000004,4404.615234000001,4286.666504,4462.05127,0.0,3.0,68.0,,,,0.0,4.0,4.0,2.0,0.0,4.0,50.0,,,,,,,,,,,,,,,,,,,,1.0,0.0,0.0,,,,,,,,,,,,,,,,,,,,,,,,,,,,,,,,0.0,0.0,1.0,0.0,512.0,1.0,2.58797,3.473403,1.8298580000000002,2.01385,2.88423,71.646606,34.396217,20.32102,25.608852,10.740635000000001,8.808929,5.817012,3.2220590000000002,2.5150259999999998,3.153859,0.881804,0.603917,0.402857,0.5996130000000001,0.55913,4.604362,3.6746529999999997,1.850343,4.303253,2.313206
10797,1650415496.5271,1650415496.540776,58.0,0.0,4407.179688,3902.5642090000006,4403.077147999999,4277.436035,4343.077147999999,0.0,3.0,68.0,,,,0.0,4.0,4.0,2.0,0.0,4.0,50.0,,,,,,,,29.0,0.0,0.068595,-0.569092,0.349854,0.740967,0.910658,-0.446784,-0.116701,-0.046418,-0.055076,-0.026300999999999998,,,,,,,,,,,,,,,,,,,,,,,,,,,,,,,,,,,,,,,,,,,,,,,,,,,,,,,,,,,,,,,,,
10798,1650415496.534915,1650415496.54869,59.0,0.0,4437.94873,3795.897461,4338.461426,4280.0,4381.538574,0.0,3.0,68.0,,,,0.0,4.0,4.0,2.0,0.0,4.0,50.0,,,,,,,,,,,,,,,,,,,,,,,,,,,,,,,,,,,,,,,,,,,,,,,,,,,,,,,,,,,,,,,,,,,,,,,,,,,,,,,,,,,,
10799,1650415496.542729,1650415496.556505,60.0,0.0,4380.512695,3983.076904,4360.512695,4283.589844,4501.025879,0.0,3.0,68.0,,,,0.0,4.0,4.0,2.0,0.0,4.0,50.0,,,,,,,,30.0,0.0,0.067338,-0.569092,0.350098,0.740967,0.9043110000000001,-0.431159,-0.092287,-0.046463,-0.055086,-0.026795999999999997,,,,,,,,,,,,,,,,,,,,,,,,,,,,,,,,,,,,,,,,,,,,,,,,,,,,,,,,,,,,,,,,,
10800,1650415496.550544,1650415496.56442,61.0,0.0,4400.0,3989.2307130000004,4400.512695,4281.538574,4465.128418,0.0,3.0,68.0,,,,0.0,4.0,4.0,2.0,0.0,4.0,50.0,,,,,,,,,,,,,,,,,,,,,,,,,,,,,,,,,,,,,,,,,,,,,,,,,,,,,,0.0,0.0,1.0,0.0,512.0,1.0,,,,,,,,,,,,,,,,,,,,,,,,,
10801,1650415496.558358,1650415496.572234,62.0,0.0,4463.077147999999,3811.794922,4369.743652,4284.615234000001,4450.769043,0.0,3.0,68.0,,,,0.0,4.0,4.0,2.0,0.0,4.0,50.0,,,,,,,,31.0,0.0,0.068739,-0.569092,0.350342,0.7407229999999999,0.8964979999999999,-0.42676400000000003,-0.100587,-0.046505,-0.055095000000000005,-0.030318,,,,,,,,,,,,,,,,,,,,,,,,,,,,,,,,,,,,,,,,,,,,,,,,,,,,,,,,,,,,,,,,,
10802,1650415496.566173,1650415496.580149,63.0,0.0,4436.410156,3861.538574,4358.461426,4281.025879,4580.512695,0.0,3.0,68.0,,,,0.0,4.0,4.0,2.0,0.0,4.0,50.0,,,,,,,,,,,,,,,,,,,,,,,,,,,,,,,,,,,,,,,,,,,,,,,,,,,,,,,,,,,,,,,,,,,,,,,,,,,,,,,,,,,,
10803,1650415496.573987,1650415496.587963,64.0,0.0,4393.846191,3962.0512700000004,4416.922852000001,4275.897461,4654.358886999999,450.0,3.0,68.0,,,,0.0,4.0,4.0,2.0,0.0,4.0,50.0,,,,,,,,32.0,0.0,0.068739,-0.569092,0.350342,0.7407229999999999,0.8969860000000001,-0.428717,-0.101564,-0.046444,-0.055103,-0.024161000000000002,,,,,,,,,,,,,,,,,,,,,,,,,,,,,,,,,,,,,,,,,,,,,,,,,,,,,,,,,,,,,,,,,
10804,1650415496.581802,1650415496.595878,65.0,0.0,4441.025879,3898.461426,4464.615234000001,4283.589844,4631.282227000001,450.0,3.0,68.0,,,,0.0,1.0,4.0,2.0,0.0,4.0,25.0,,,,,,,,,,,,,,,,,,,,,,,,,,,,,,,,,,,,,,,,,,,,,,,,,,,,,,0.0,0.0,1.0,0.0,512.0,1.0,,,,,,,,,,,,,,,,,,,,,,,,,
10805,1650415496.589616,1650415496.603693,66.0,0.0,4493.333496,3867.179443,4443.077147999999,4287.179688,4668.205078,62.0,3.0,68.0,,,,0.0,1.0,4.0,2.0,0.0,4.0,25.0,,,,,,,,33.0,0.0,0.066687,-0.569336,0.350342,0.7407229999999999,0.8964979999999999,-0.44190100000000004,-0.09765800000000001,-0.046341,-0.055111,-0.02487,,,,,,,,,,,,,,,,,,,,,,,,,,,,,,,,,,,,,,,,,,,,,,,,,,,,,,,,,,,,,,,,,
10806,1650415496.597431,1650415496.611607,67.0,0.0,4426.666504,3911.281982,4416.922852000001,4255.897461,4791.794922,450.0,3.0,68.0,,,,0.0,1.0,4.0,2.0,0.0,4.0,25.0,,,,,,,,,,,,,,,,,,,,,,,,,,,,,,,,,,,,,,,,,,,,,,,,,,,,,,,,,,,,,,,,,,,,,,,,,,,,,,,,,,,,
10807,1650415496.6052449,1650415496.619522,68.0,0.0,4380.0,3850.256348,4430.769043,4222.563965,4885.128418,116.0,3.0,68.0,,,,0.0,1.0,1.0,1.0,0.0,4.0,16.666666,,,,,,,,34.0,0.0,0.0681,-0.569336,0.350586,0.740479,0.9028459999999999,-0.43408900000000006,-0.111818,-0.046345,-0.055117,-0.022334,,,,,,,,,,,,,,,,,,,,,,,,,,,,,,,,,,,,,,,,,,,,,,,,,,,,,,,,,,,,,,,,,
10808,1650415496.61306,1650415496.627336,69.0,0.0,4446.153809,3740.0,4461.025879,4260.0,4890.769043,450.0,3.0,68.0,,,,0.0,1.0,1.0,1.0,0.0,4.0,16.666666,,,,,,,,,,,,,,,,,,,,,,,,,,,,,,,,,,,,,,,,,,,,,,,,,,,,,,0.0,0.0,1.0,0.0,512.0,1.0,,,,,,,,,,,,,,,,,,,,,,,,,
10809,1650415496.620875,1650415496.635151,70.0,0.0,4469.230957,3756.923096,4446.666504,4300.0,4934.871582,128.0,3.0,68.0,,,,0.0,1.0,1.0,1.0,0.0,4.0,16.666666,,,,,,,,35.0,0.0,0.0681,-0.569336,0.350586,0.740479,0.9072399999999999,-0.423835,-0.104494,-0.044885,-0.055074,-0.023128,,,,,,,,,,,,,,,,,,,,,,,,,,,,,,,,,,,,,,,,,,,,,,,,,,,,,,,,,,,,,,,,,
10810,1650415496.628689,1650415496.642966,71.0,0.0,4419.487305,3791.281982,4384.102539,4278.461426,5081.538574,450.0,3.0,68.0,,,,0.0,1.0,1.0,1.0,0.0,4.0,16.666666,,,,,,,,,,,,,,,,,,,,,,,,,,,,,,,,,,,,,,,,,,,,,,,,,,,,,,,,,,,,,,,,,,,,,,,,,,,,,,,,,,,,
10811,1650415496.636504,1650415496.65078,72.0,0.0,4424.102539,3703.076904,4396.410156,4234.871582,5231.282227000001,450.0,3.0,68.0,,,,0.0,1.0,1.0,1.0,0.0,4.0,16.666666,,,,,,,,36.0,0.0,0.069483,-0.569336,0.35083000000000003,0.7402340000000001,0.901381,-0.446296,-0.09765800000000001,-0.045035000000000006,-0.054987,-0.023843,,,,,,,,,,,,,,,,,,,,,,,,,,,,,,,,,,,,,,,,,,,,,,,,,,,,,,,,,,,,,,,,,
10812,1650415496.6443179,1650415496.658495,73.0,0.0,4479.487305,3584.615479,4487.692383,4181.538574,5344.102539,0.0,3.0,68.0,,,,0.0,1.0,1.0,1.0,0.0,4.0,16.666666,1.0,8.333333,1.0,1.0,0.0,0.0,3.0,,,,,,,,,,,,,1.0,0.0,0.0,,,,,,,,,,,,,,,,,,,,,,,,,,,,,,,,0.0,0.0,1.0,0.0,512.0,1.0,2.935102,4.164635,2.312533,2.106113,3.042823,74.920677,38.975353000000005,22.865282,22.233486,12.328373,10.800994000000001,7.063517,3.189499,2.48707,3.860028,0.377775,0.394453,0.25287,0.516768,0.42308100000000004,4.377488,3.6289849999999997,2.098369,4.2260349999999995,2.448919
10813,1650415496.652133,1650415496.66631,74.0,0.0,4549.230957,3503.5898439999996,4451.794922,4110.256348,5491.282227000001,450.0,3.0,68.0,,,,0.0,1.0,1.0,1.0,0.0,4.0,16.666666,,,,,,,,37.0,0.0,0.067453,-0.56958,0.35083000000000003,0.7402340000000001,0.914076,-0.428717,-0.10693499999999999,-0.045268,-0.055201,-0.024437,,,,,,,,,,,,,,,,,,,,,,,,,,,,,,,,,,,,,,,,,,,,,,,,,,,,,,,,,,,,,,,,,
10814,1650415496.6599472,1650415496.674024,75.0,0.0,4572.307617,3406.6667479999996,4300.0,4115.384765999999,5649.230957,16236.0,3.0,68.0,,,,0.0,1.0,1.0,1.0,0.0,4.0,16.666666,,,,,,,,,,,,,,,,,,,,,,,,,,,,,,,,,,,,,,,,,,,,,,,,,,,,,,,,,,,,,,,,,,,,,,,,,,,,,,,,,,,,
10815,1650415496.6677618,1650415496.6819391,76.0,0.0,4509.743652,3215.384521,4323.589844,4242.563965,5730.769043,450.0,3.0,68.0,,,,0.0,1.0,1.0,1.0,0.0,4.0,16.666666,,,,,,,,38.0,0.0,0.067453,-0.56958,0.35083000000000003,0.7402340000000001,0.8964979999999999,-0.44434300000000004,-0.10547000000000001,-0.045429000000000004,-0.05515,-0.021847,,,,,,,,,,,,,,,,,,,,,,,,,,,,,,,,,,,,,,,,,,,,,,,,,,,,,,,,,,,,,,,,,
10816,1650415496.675576,1650415496.689754,77.0,0.0,4506.666504,2927.6923829999996,4457.436035,4282.05127,5902.563965,450.0,3.0,68.0,,,,0.0,1.0,1.0,1.0,0.0,4.0,16.666666,,,,,,,,,,,,,,,,,,,,,,,,,,,,,,,,,,,,,,,,,,,,,,,,,,,,,,0.0,0.0,1.0,0.0,512.0,1.0,,,,,,,,,,,,,,,,,,,,,,,,,
10817,1650415496.683391,1650415496.697668,78.0,0.0,4577.94873,2703.076904,4420.512695,4192.820313,6259.487305,450.0,3.0,68.0,,,,0.0,1.0,1.0,1.0,0.0,4.0,16.666666,,,,,,,,39.0,0.0,0.07007999999999999,-0.56958,0.35083000000000003,0.7399899999999999,0.906752,-0.440925,-0.10498199999999999,-0.045525,-0.055201,-0.022690000000000002,,,,,,,,,,,,,,,,,,,,,,,,,,,,,,,,,,,,,,,,,,,,,,,,,,,,,,,,,,,,,,,,,
10818,1650415496.691205,1650415496.705483,79.0,0.0,4582.563965,2683.589844,4321.538574,4213.846191,6538.461426,16236.0,3.0,68.0,,,,0.0,1.0,1.0,1.0,0.0,4.0,16.666666,,,,,,,,,,,,,,,,,,,,,,,,,,,,,,,,,,,,,,,,,,,,,,,,,,,,,,,,,,,,,,,,,,,,,,,,,,,,,,,,,,,,
10819,1650415496.69902,1650415496.713397,80.0,0.0,4558.461426,2664.102539,4338.461426,4309.230957,6580.512695,450.0,3.0,68.0,,,,0.0,1.0,1.0,1.0,0.0,4.0,16.666666,,,,,,,,40.0,0.0,0.068847,-0.56958,0.351074,0.7399899999999999,0.9038219999999999,-0.447272,-0.103029,-0.045708,-0.055394000000000006,-0.023399,,,,,,,,,,,,,,,,,,,,,,,,,,,,,,,,,,,,,,,,,,,,,,,,,,,,,,,,,,,,,,,,,
10820,1650415496.706834,1650415496.721212,81.0,0.0,4526.666504,2407.6923829999996,4388.717772999999,4280.0,6521.025879,450.0,3.0,68.0,,,,0.0,1.0,1.0,1.0,0.0,4.0,16.666666,,,,,,,,,,,,,,,,,,,,,,,,,,,,,,,,,,,,,,,,,,,,,,,,,,,,,,0.0,0.0,1.0,0.0,512.0,1.0,,,,,,,,,,,,,,,,,,,,,,,,,
10821,1650415496.714649,1650415496.729027,82.0,0.0,4511.282227000001,2111.281982,4377.94873,4242.563965,6516.410156,450.0,3.0,68.0,,,,0.0,1.0,1.0,1.0,0.0,4.0,16.666666,,,,,,,,41.0,0.0,0.068847,-0.56958,0.351074,0.7399899999999999,0.8999159999999999,-0.440436,-0.098146,-0.045825,-0.055324,-0.024184,,,,,,,,,,,,,,,,,,,,,,,,,,,,,,,,,,,,,,,,,,,,,,,,,,,,,,,,,,,,,,,,,
10822,1650415496.7224631,1650415496.736741,83.0,0.0,4567.692383,1938.9743649999998,4350.256348,4301.538574,6577.94873,16236.0,3.0,68.0,,,,0.0,1.0,1.0,1.0,0.0,4.0,16.666666,,,,,,,,,,,,,,,,,,,,,,,,,,,,,,,,,,,,,,,,,,,,,,,,,,,,,,,,,,,,,,,,,,,,,,,,,,,,,,,,,,,,
10823,1650415496.730278,1650415496.744656,84.0,0.0,4619.487305,1786.6666260000002,4353.846191,4292.307617,6638.974121,450.0,3.0,68.0,,,,0.0,1.0,1.0,1.0,0.0,4.0,16.666666,,,,,,,,42.0,0.0,0.068847,-0.56958,0.351074,0.7399899999999999,0.905776,-0.446784,-0.09424,-0.045881,-0.055407000000000005,-0.021619,,,,,,,,,,,,,,,,,,,,,,,,,,,,,,,,,,,,,,,,,,,,,,,,,,,,,,,,,,,,,,,,,
10824,1650415496.738093,1650415496.7524712,85.0,0.0,4596.410156,1579.487183,4374.871582,4241.538574,6630.256348,450.0,3.0,68.0,,,,0.0,1.0,1.0,1.0,0.0,4.0,16.666666,,,,,,,,,,,,,,,,,,,,,,,,,,,,,,,,,,,,,,,,,,,,,,,,,,,,,,0.0,0.0,1.0,0.0,512.0,1.0,,,,,,,,,,,,,,,,,,,,,,,,,
10825,1650415496.745907,1650415496.760285,86.0,0.0,4551.282227000001,1454.359009,4362.563965,4281.538574,6606.666504,450.0,3.0,68.0,,,,0.0,1.0,1.0,1.0,0.0,4.0,16.666666,,,,,,,,43.0,0.0,0.068847,-0.56958,0.351074,0.7399899999999999,0.8916149999999999,-0.44483100000000003,-0.09472799999999999,-0.045932,-0.055480999999999996,-0.022436,,,,,,,,,,,,,,,,,,,,,,,,,,,,,,,,,,,,,,,,,,,,,,,,,,,,,,,,,,,,,,,,,
10826,1650415496.753722,1650415496.768,87.0,0.0,4556.410156,1474.871826,4351.794922,4318.974121,6646.666504,16236.0,3.0,68.0,,,,0.0,1.0,1.0,1.0,0.0,4.0,16.666666,,,,,,,,,,,,,,,,,,,,,,,,,,,,,,,,,,,,,,,,,,,,,,,,,,,,,,,,,,,,,,,,,,,,,,,,,,,,,,,,,,,,
10827,1650415496.761536,1650415496.775914,88.0,0.0,4628.205078,1436.4102779999998,4408.717772999999,4272.820313,6714.358887,450.0,3.0,68.0,,,,0.0,1.0,1.0,1.0,0.0,4.0,16.666666,,,,,,,,44.0,0.0,0.06679600000000001,-0.569824,0.351074,0.7399899999999999,0.903334,-0.45069,-0.113771,-0.046075,-0.0555,-0.017067,,,,,,,,,,,,,,,,,,,,,,,,,,,,,,,,,,,,,,,,,,,,,,,,,,,,,,,,,,,,,,,,,
10828,1650415496.769351,1650415496.7837288,89.0,0.0,4680.0,1303.076904,4432.820313,4252.307617,6746.666504000001,450.0,3.0,68.0,,,,0.0,1.0,1.0,1.0,0.0,4.0,16.666666,,,,,,,,,,,,,,,,,,,,1.0,0.0,0.0,,,,,,,,,,,,,,,,,,,,,,,,,,,,,,,,0.0,0.0,1.0,0.0,512.0,1.0,3.537862,5.181087000000001,2.820173,2.1975740000000004,3.3538989999999997,78.50643199999999,45.362411,25.900764000000002,18.715788,14.839699,12.093356,7.841537,3.1001830000000004,2.440998,4.959355,0.148028,0.35662,0.186586,0.49282600000000004,0.37399099999999996,4.163298,3.766165,2.2657279999999997,4.044213,2.981814
10829,1650415496.777165,1650415496.7916439,90.0,0.0,4666.666504,1245.128174,4365.641113000001,4284.615234000001,6743.589844,450.0,3.0,68.0,,,,0.0,1.0,1.0,1.0,0.0,4.0,16.666666,,,,,,,,45.0,0.0,0.069448,-0.569824,0.351074,0.739746,0.900893,-0.44776099999999996,-0.11230599999999999,-0.046008999999999994,-0.055419,-0.018338999999999998,,,,,,,,,,,,,,,,,,,,,,,,,,,,,,,,,,,,,,,,,,,,,,,,,,,,,,,,,,,,,,,,,
10830,1650415496.78498,1650415496.799558,91.0,0.0,4666.666504,1271.282104,4304.102539,4268.205078,6752.307617,16236.0,3.0,68.0,,,,0.0,1.0,1.0,1.0,0.0,4.0,16.666666,,,,,,,,,,,,,,,,,,,,,,,,,,,,,,,,,,,,,,,,,,,,,,,,,,,,,,,,,,,,,,,,,,,,,,,,,,,,,,,,,,,,
10831,1650415496.792794,1650415496.807373,92.0,0.0,4705.128418,1271.794922,4290.256348,4250.256348,6805.641113,450.0,3.0,68.0,,,,0.0,1.0,1.0,1.0,0.0,4.0,16.666666,,,,,,,,46.0,0.0,0.069448,-0.569824,0.351074,0.739746,0.9052870000000001,-0.44434300000000004,-0.093751,-0.046144,-0.055346000000000006,-0.016456000000000002,,,,,,,,,,,,,,,,,,,,,,,,,,,,,,,,,,,,,,,,,,,,,,,,,,,,,,,,,,,,,,,,,
10832,1650415496.8006089,1650415496.8152869,93.0,0.0,4715.384765999999,1257.94873,4267.692383,4300.0,6858.974120999999,450.0,3.0,68.0,,,,0.0,1.0,1.0,1.0,0.0,4.0,16.666666,,,,,,,,,,,,,,,,,,,,,,,,,,,,,,,,,,,,,,,,,,,,,,,,,,,,,,0.0,0.0,1.0,0.0,512.0,1.0,,,,,,,,,,,,,,,,,,,,,,,,,
10833,1650415496.808423,1650415496.823102,94.0,0.0,4707.179688,1262.05127,4231.282227000001,4308.717772999999,6860.0,450.0,3.0,68.0,,,,0.0,1.0,1.0,1.0,0.0,4.0,16.666666,,,,,,,,47.0,0.0,0.069448,-0.569824,0.351074,0.739746,0.9077290000000001,-0.44190100000000004,-0.10254100000000001,-0.046169,-0.055279999999999996,-0.017741,,,,,,,,,,,,,,,,,,,,,,,,,,,,,,,,,,,,,,,,,,,,,,,,,,,,,,,,,,,,,,,,,
10834,1650415496.8162382,1650415496.830917,95.0,0.0,4701.025879,1239.487183,4239.487305,4260.0,6836.922852,16236.0,3.0,68.0,,,,0.0,1.0,1.0,1.0,0.0,4.0,16.666666,,,,,,,,,,,,,,,,,,,,,,,,,,,,,,,,,,,,,,,,,,,,,,,,,,,,,,,,,,,,,,,,,,,,,,,,,,,,,,,,,,,,
10835,1650415496.8240519,1650415496.8386312,96.0,0.0,4688.717772999999,1204.102539,4293.846191,4273.333496,6825.128418000001,450.0,3.0,68.0,,,,0.0,1.0,1.0,1.0,0.0,4.0,16.666666,,,,,,,,48.0,0.0,0.067414,-0.570068,0.351074,0.739746,0.9111469999999999,-0.43408900000000006,-0.098146,-0.046142,-0.055172000000000006,-0.018847,,,,,,,,,,,,,,,,,,,,,,,,,,,,,,,,,,,,,,,,,,,,,,,,,,,,,,,,,,,,,,,,,
10836,1650415496.831867,1650415496.846446,97.0,0.0,4647.179688,1201.538452,4301.538574,4325.128418,6773.333495999999,450.0,3.0,68.0,,,,0.0,1.0,1.0,1.0,0.0,4.0,16.666666,,,,,,,,,,,,,,,,,,,,,,,,,,,,,,,,,,,,,,,,,,,,,,,,,,,,,,0.0,0.0,1.0,0.0,512.0,1.0,,,,,,,,,,,,,,,,,,,,,,,,,
10837,1650415496.839682,1650415496.854161,98.0,0.0,4626.666504,1292.820557,4211.282227000001,4328.205078,6701.025879,450.0,3.0,68.0,,,,0.0,1.0,1.0,1.0,0.0,4.0,16.666666,,,,,,,,49.0,0.0,0.068673,-0.570068,0.35083000000000003,0.739746,0.910658,-0.442878,-0.09472799999999999,-0.046166000000000006,-0.05527000000000001,-0.020038999999999998,,,,,,,,,,,,,,,,,,,,,,,,,,,,,,,,,,,,,,,,,,,,,,,,,,,,,,,,,,,,,,,,,
10838,1650415496.847496,1650415496.861975,99.0,0.0,4652.307617,1435.384644,4131.282227000001,4295.384765999999,6694.871582,16236.0,3.0,68.0,,,,0.0,1.0,1.0,1.0,0.0,4.0,16.666666,,,,,,,,,,,,,,,,,,,,,,,,,,,,,,,,,,,,,,,,,,,,,,,,,,,,,,,,,,,,,,,,,,,,,,,,,,,,,,,,,,,,
10839,1650415496.855311,1650415496.86969,100.0,0.0,4645.128418,1428.717896,4203.589844,4283.589844,6711.794922,450.0,3.0,68.0,,,,0.0,1.0,1.0,1.0,0.0,4.0,16.666666,,,,,,,,50.0,0.0,0.069909,-0.570068,0.350586,0.739746,0.9150530000000001,-0.43457700000000005,-0.090822,-0.046188,-0.055261000000000005,-0.021062,,,,,,,,,,,,,,,,,,,,,,,,,,,,,,,,,,,,,,,,,,,,,,,,,,,,,,,,,,,,,,,,,
10840,1650415496.863125,1650415496.877505,101.0,0.0,4583.589844,1319.487183,4309.743652,4296.410156,6622.05127,450.0,3.0,68.0,,,,0.0,1.0,1.0,1.0,0.0,4.0,16.666666,,,,,,,,,,,,,,,,,,,,,,,,,,,,,,,,,,,,,,,,,,,,,,,,,,,,,,0.0,0.0,1.0,0.0,512.0,1.0,,,,,,,,,,,,,,,,,,,,,,,,,
10841,1650415496.87094,1650415496.8852198,102.0,0.0,4541.025879,1401.538452,4224.615234000001,4271.282227000001,6527.692383,450.0,3.0,68.0,,,,0.0,1.0,1.0,1.0,0.0,4.0,16.666666,,,,,,,,51.0,0.0,0.067889,-0.570313,0.350586,0.739746,0.8955209999999999,-0.43653000000000003,-0.08984500000000001,-0.046111,-0.055202999999999995,-0.018907,,,,,,,,,,,,,,,,,,,,,,,,,,,,,,,,,,,,,,,,,,,,,,,,,,,,,,,,,,,,,,,,,
10842,1650415496.878754,1650415496.8931339,103.0,0.0,4545.128418,1543.076904,4132.820313,4236.922852000001,6544.102539,16236.0,3.0,68.0,,,,0.0,1.0,1.0,1.0,0.0,4.0,16.666666,,,,,,,,,,,,,,,,,,,,,,,,,,,,,,,,,,,,,,,,,,,,,,,,,,,,,,,,,,,,,,,,,,,,,,,,,,,,,,,,,,,,
10843,1650415496.886569,1650415496.900949,104.0,0.0,4571.794922,1519.487183,4193.846191,4269.743652,6557.436035,450.0,3.0,68.0,,,,0.0,1.0,1.0,1.0,0.0,4.0,16.666666,,,,,,,,52.0,0.0,0.066474,-0.570313,0.350342,0.7399899999999999,0.906264,-0.43946,-0.10351700000000001,-0.044673000000000004,-0.055152,-0.020044,,,,,,,,,,,,,,,,,,,,,,,,,,,,,,,,,,,,,,,,,,,,,,,,,,,,,,,,,,,,,,,,,
10844,1650415496.894383,1650415496.908863,105.0,0.0,4580.512695,1520.0,4181.025879,4322.563965,6511.282227000001,450.0,3.0,68.0,,,,0.0,1.0,1.0,1.0,0.0,4.0,16.666666,,,,,,,,,,,,,,,,,,,,1.0,0.0,0.0,,,,,,,,,,,,,,,,,,,,,,,,,,,,,,,,0.0,1.0,1.0,0.0,512.0,1.0,3.966478,6.46943,3.2183990000000002,2.285102,3.932029,87.747787,52.81495699999999,29.912066999999997,15.964580999999999,18.413099,12.433142,7.984713,3.085907,2.424856,6.423807,0.286921,0.528093,0.254866,0.63281,0.415767,11.447814,5.176568,2.532546,4.108068,4.061182
10845,1650415496.902198,1650415496.9167778,106.0,0.0,4537.94873,1563.5897220000002,4137.436035,4279.487305,6447.692383,450.0,3.0,68.0,,,,0.0,1.0,1.0,1.0,0.0,4.0,16.666666,,,,,,,,53.0,0.0,0.066474,-0.570313,0.350342,0.7399899999999999,0.9126120000000001,-0.436042,-0.104005,-0.044844999999999996,-0.055251999999999996,-0.021116,,,,,,,,,,,,,,,,,,,,,,,,,,,,,,,,,,,,,,,,,,,,,,,,,,,,,,,,,,,,,,,,,
10846,1650415496.910012,1650415496.924593,107.0,0.0,4526.666504,1555.384644,4187.692383,4215.897461,6376.922852000001,16236.0,3.0,68.0,,,,0.0,1.0,1.0,1.0,0.0,4.0,16.666666,,,,,,,,,,,,,,,,,,,,,,,,,,,,,,,,,,,,,,,,,,,,,,,,,,,,,,,,,,,,,,,,,,,,,,,,,,,,,,,,,,,,
10847,1650415496.917827,1650415496.9324071,108.0,0.0,4521.025879,1604.615356,4158.461426,4244.615234000001,6252.307617,450.0,3.0,68.0,,,,0.0,1.0,1.0,1.0,0.0,4.0,16.666666,,,,,,,,54.0,0.0,0.066474,-0.570313,0.350342,0.7399899999999999,0.905776,-0.423346,-0.104494,-0.045097000000000005,-0.05524400000000001,-0.018907,,,,,,,,,,,,,,,,,,,,,,,,,,,,,,,,,,,,,,,,,,,,,,,,,,,,,,,,,,,,,,,,,
10848,1650415496.925641,1650415496.9403222,109.0,0.0,4454.871582,1657.435913,4109.743652,4289.230957,6053.846191,450.0,3.0,68.0,,,,0.0,1.0,1.0,1.0,0.0,4.0,16.666666,,,,,,,,,,,,,,,,,,,,,,,,,,,,,,,,,,,,,,,,,,,,,,,,,,,,,,0.0,1.0,1.0,0.0,512.0,1.0,,,,,,,,,,,,,,,,,,,,,,,,,
10849,1650415496.933456,1650415496.9481359,110.0,0.0,4453.846191,1656.923096,4177.94873,4269.230957,5874.871582,450.0,3.0,68.0,,,,0.0,1.0,1.0,1.0,0.0,4.0,16.666666,,,,,,,,55.0,0.0,0.067748,-0.570313,0.350098,0.7399899999999999,0.8989389999999999,-0.42920600000000003,-0.106447,-0.045226,-0.055287,-0.016967,,,,,,,,,,,,,,,,,,,,,,,,,,,,,,,,,,,,,,,,,,,,,,,,,,,,,,,,,,,,,,,,,
10850,1650415496.9412699,1650415496.9560509,111.0,0.0,4493.333496,1721.0256350000002,4208.717772999999,4249.230957,5752.307617,16236.0,3.0,68.0,,,,0.0,1.0,1.0,1.0,0.0,4.0,16.666666,,,,,,,,,,,,,,,,,,,,,,,,,,,,,,,,,,,,,,,,,,,,,,,,,,,,,,,,,,,,,,,,,,,,,,,,,,,,,,,,,,,,
10851,1650415496.949085,1650415496.963866,112.0,0.0,4442.05127,1781.0256350000002,4188.205078,4272.307617,5588.205078,450.0,3.0,68.0,,,,0.0,1.0,1.0,1.0,0.0,4.0,16.666666,,,,,,,,56.0,0.0,0.066474,-0.570313,0.350342,0.7399899999999999,0.9126120000000001,-0.436042,-0.104005,-0.045439999999999994,-0.055324,-0.015222,,,,,,,,,,,,,,,,,,,,,,,,,,,,,,,,,,,,,,,,,,,,,,,,,,,,,,,,,,,,,,,,,
10852,1650415496.9569,1650415496.97178,113.0,0.0,4401.025879,1786.6666260000002,4226.666504,4255.384765999999,5418.461426,450.0,3.0,68.0,,,,0.0,1.0,1.0,1.0,0.0,4.0,16.666666,,,,,,,,,,,,,,,,,,,,,,,,,,,,,,,,,,,,,,,,,,,,,,,,,,,,,,0.0,1.0,1.0,0.0,512.0,1.0,,,,,,,,,,,,,,,,,,,,,,,,,
10853,1650415496.964714,1650415496.979595,114.0,0.0,4442.563965,1890.25647,4253.333496,4222.05127,5355.897461,450.0,3.0,68.0,,,,0.0,1.0,1.0,1.0,0.0,4.0,16.666666,,,,,,,,57.0,0.0,0.067748,-0.570313,0.350098,0.7399899999999999,0.8989389999999999,-0.42920600000000003,-0.106447,-0.045534,-0.055358000000000004,-0.013651,,,,,,,,,,,,,,,,,,,,,,,,,,,,,,,,,,,,,,,,,,,,,,,,,,,,,,,,,,,,,,,,,
10854,1650415496.972529,1650415496.987509,115.0,0.0,4450.256348,2027.179443,4274.871582,4242.05127,5307.692383,16236.0,3.0,68.0,,,,0.0,1.0,1.0,1.0,0.0,4.0,16.666666,,,,,,,,,,,,,,,,,,,,,,,,,,,,,,,,,,,,,,,,,,,,,,,,,,,,,,,,,,,,,,,,,,,,,,,,,,,,,,,,,,,,
10855,1650415496.9803429,1650415496.9953241,116.0,0.0,4425.641113000001,2108.718018,4292.820313,4254.358886999999,5216.410156,450.0,3.0,68.0,,,,0.0,1.0,1.0,1.0,0.0,4.0,16.666666,,,,,,,,58.0,0.0,0.067748,-0.570313,0.350098,0.7399899999999999,0.9111469999999999,-0.435065,-0.10693499999999999,-0.045571,-0.05534,-0.015313,,,,,,,,,,,,,,,,,,,,,,,,,,,,,,,,,,,,,,,,,,,,,,,,,,,,,,,,,,,,,,,,,
10856,1650415496.988158,1650415497.0030391,117.0,0.0,4400.512695,2182.05127,4247.692383,4256.922852000001,5165.128418,450.0,3.0,68.0,,,,0.0,1.0,1.0,1.0,0.0,4.0,16.666666,,,,,,,,,,,,,,,,,,,,,,,,,,,,,,,,,,,,,,,,,,,,,,,,,,,,,,0.0,1.0,1.0,0.0,512.0,1.0,,,,,,,,,,,,,,,,,,,,,,,,,
10857,1650415496.9959722,1650415497.0108528,118.0,0.0,4374.358886999999,2273.846191,4215.897461,4274.871582,5133.846191,450.0,3.0,68.0,,,,0.0,1.0,1.0,1.0,0.0,4.0,16.666666,,,,,,,,59.0,0.0,0.067748,-0.570313,0.350098,0.7399899999999999,0.897963,-0.43994799999999995,-0.089357,-0.045653,-0.055373,-0.013635,,,,,,,,,,,,,,,,,,,,,,,,,,,,,,,,,,,,,,,,,,,,,,,,,,,,,,,,,,,,,,,,,
10858,1650415497.0037868,1650415497.018568,119.0,0.0,4358.461426,2384.102539,4241.025879,4270.256348,5035.384765999999,16236.0,3.0,68.0,,,,0.0,1.0,1.0,1.0,0.0,4.0,16.666666,,,,,,,,,,,,,,,,,,,,,,,,,,,,,,,,,,,,,,,,,,,,,,,,,,,,,,,,,,,,,,,,,,,,,,,,,,,,,,,,,,,,
10859,1650415497.011601,1650415497.026383,120.0,0.0,4307.179688,2460.0,4274.358886999999,4245.128418,4933.846191,450.0,3.0,68.0,,,,0.0,1.0,1.0,1.0,0.0,4.0,16.666666,,,,,,,,60.0,0.0,0.066474,-0.570313,0.350342,0.7399899999999999,0.893568,-0.44434300000000004,-0.09765800000000001,-0.045725999999999996,-0.055353,-0.015397,,,,,,,,,,,,,,,,,,,,,,,,,,,,,,,,,,,,,,,,,,,,,,,,,,,,,,,,,,,,,,,,,
10860,1650415497.019416,1650415497.034097,121.0,0.0,4286.153809,2544.102539,4281.538574,4254.871582,4926.666504,450.0,3.0,68.0,,,,0.0,1.0,1.0,1.0,0.0,4.0,16.666666,,,,,,,,,,,,,,,,,,,,1.0,0.0,0.0,,,,,,,,,,,,,,,,,,,,,,,,,,,,,,,,0.0,1.0,32.0,1.0,1.0,0.0,4.714075,7.974017,3.4385760000000003,2.3896330000000003,4.861435,113.864906,60.163818000000006,35.358086,14.580893,22.890949,12.005504,7.59391,3.3044870000000004,2.5513060000000003,8.19473,1.133837,1.081361,0.603694,1.141325,0.642151,37.767849,11.574442,3.514098,5.1939470000000005,5.812888
10861,1650415497.02723,1650415497.042012,122.0,0.0,4331.794922,2670.769287,4245.641113000001,4240.512695,4927.692383,450.0,3.0,68.0,,,,0.0,1.0,1.0,1.0,0.0,4.0,16.666666,,,,,,,,61.0,0.0,0.068536,-0.570068,0.350342,0.7399899999999999,0.9004040000000001,-0.448737,-0.092775,-0.045743,-0.055433,-0.013759,,,,,,,,,,,,,,,,,,,,,,,,,,,,,,,,,,,,,,,,,,,,,,,,,,,,,,,,,,,,,,,,,
10862,1650415497.035045,1650415497.0498269,123.0,0.0,4337.94873,2769.230713,4229.230957,4207.692383,4870.256348,16236.0,3.0,68.0,,,,0.0,1.0,1.0,1.0,0.0,4.0,16.666666,,,,,,,,,,,,,,,,,,,,,,,,,,,,,,,,,,,,,,,,,,,,,,,,,,,,,,,,,,,,,,,,,,,,,,,,,,,,,,,,,,,,
10863,1650415497.04286,1650415497.057741,124.0,0.0,4317.436035,2865.128174,4282.563965,4253.846191,4852.820313,450.0,3.0,68.0,,,,0.0,1.0,1.0,1.0,0.0,4.0,16.666666,,,,,,,,62.0,0.0,0.06665499999999999,-0.569824,0.350586,0.7402340000000001,0.9111469999999999,-0.44434300000000004,-0.101564,-0.045808,-0.055407000000000005,-0.015508000000000001,,,,,,,,,,,,,,,,,,,,,,,,,,,,,,,,,,,,,,,,,,,,,,,,,,,,,,,,,,,,,,,,,
10864,1650415497.050674,1650415497.065556,125.0,0.0,4319.487305,2991.794922,4320.512695,4272.307617,4838.461426,450.0,3.0,68.0,,,,0.0,1.0,1.0,1.0,0.0,4.0,16.666666,,,,,,,,,,,,,,,,,,,,,,,,,,,,,,,,,,,,,,,,,,,,,,,,,,,,,,0.0,1.0,32.0,1.0,1.0,0.0,,,,,,,,,,,,,,,,,,,,,,,,,
10865,1650415497.058489,1650415497.0734699,126.0,0.0,4276.410156,3108.205078,4286.666504,4215.384765999999,4726.153809,450.0,3.0,68.0,,,,0.0,1.0,1.0,1.0,0.0,4.0,16.666666,,,,,,,,63.0,0.0,0.06665499999999999,-0.569824,0.350586,0.7402340000000001,0.9150530000000001,-0.44190100000000004,-0.093751,-0.046012,-0.055336,-0.017083,,,,,,,,,,,,,,,,,,,,,,,,,,,,,,,,,,,,,,,,,,,,,,,,,,,,,,,,,,,,,,,,,
10866,1650415497.066303,1650415497.081285,127.0,0.0,4263.589844,3243.589844,4267.179688,4245.128418,4689.743652,237.0,3.0,68.0,,,,0.0,1.0,1.0,1.0,0.0,4.0,16.666666,,,,,,,,,,,,,,,,,,,,,,,,,,,,,,,,,,,,,,,,,,,,,,,,,,,,,,,,,,,,,,,,,,,,,,,,,,,,,,,,,,,,
10867,1650415497.074118,1650415497.0892,0.0,0.0,4330.769043,3372.820557,4297.436035,4244.615234000001,4765.641113000001,450.0,3.0,68.0,,,,0.0,1.0,1.0,1.0,0.0,4.0,16.666666,,,,,,,,0.0,0.0,0.067453,-0.56958,0.35083000000000003,0.7402340000000001,0.909682,-0.45020200000000005,-0.10498199999999999,-0.04605,-0.055222,-0.015326,,,,,,,,,,,,,,,,,,,,,,,,,,,,,,,,,,,,,,,,,,,,,,,,,,,,,,,,,,,,,,,,,
10868,1650415497.081932,1650415497.097014,1.0,0.0,4357.436035,3410.7692869999996,4317.94873,4113.333496,4766.666504,450.0,3.0,68.0,,,,0.0,1.0,1.0,1.0,0.0,4.0,16.666666,,,,,,,,,,,,,,,,,,,,,,,,,,,,,,,,,,,,,,,,,,,,,,,,,,,,,,0.0,1.0,32.0,1.0,1.0,0.0,,,,,,,,,,,,,,,,,,,,,,,,,
10869,1650415497.089747,1650415497.104929,2.0,0.0,4329.743652,3445.1281740000004,4311.794922,4130.769043,4692.820313,16301.0,3.0,68.0,,,,0.0,4.0,1.0,1.0,0.0,4.0,16.666666,,,,,,,,1.0,0.0,0.067453,-0.56958,0.35083000000000003,0.7402340000000001,0.894545,-0.43897200000000003,-0.11425999999999999,-0.046083,-0.055265999999999996,-0.013597999999999999,,,,,,,,,,,,,,,,,,,,,,,,,,,,,,,,,,,,,,,,,,,,,,,,,,,,,,,,,,,,,,,,,
10870,1650415497.097561,1650415497.112743,3.0,0.0,4291.282227000001,3553.3332520000004,4310.256348,4294.871582,4628.717772999999,450.0,3.0,68.0,,,,0.0,4.0,1.0,1.0,0.0,4.0,16.666666,,,,,,,,,,,,,,,,,,,,,,,,,,,,,,,,,,,,,,,,,,,,,,,,,,,,,,,,,,,,,,,,,,,,,,,,,,,,,,,,,,,,
10871,1650415497.105376,1650415497.120658,4.0,0.0,4281.538574,3637.9487299999996,4318.461426,4313.846191,4594.871582,247.0,3.0,68.0,,,,0.0,4.0,2.0,1.0,0.0,4.0,25.0,,,,,,,,2.0,0.0,0.067453,-0.56958,0.35083000000000003,0.7402340000000001,0.903334,-0.438483,-0.10498199999999999,-0.046113999999999995,-0.055305999999999994,-0.015314,,,,,,,,,,,,,,,,,,,,,,,,,,,,,,,,,,,,,,,,,,,,,,,,,,,,,,,,,,,,,,,,,
10872,1650415497.11319,1650415497.128473,5.0,0.0,4278.461426,3665.641113,4321.025879,4247.692383,4573.333496,450.0,3.0,68.0,,,,0.0,4.0,2.0,1.0,0.0,4.0,25.0,,,,,,,,,,,,,,,,,,,,,,,,,,,,,,,,,,,,,,,,,,,,,,,,,,,,,,0.0,1.0,32.0,1.0,1.0,0.0,,,,,,,,,,,,,,,,,,,,,,,,,
10873,1650415497.121005,1650415497.1363869,6.0,0.0,4223.077147999999,3761.025635,4290.769043,4252.820313,4536.922852000001,301.0,3.0,68.0,,,,0.0,4.0,2.0,2.0,0.0,4.0,33.333332,,,,,,,,3.0,0.0,0.067453,-0.56958,0.35083000000000003,0.7402340000000001,0.898451,-0.440436,-0.101564,-0.046141,-0.055292999999999995,-0.013734,,,,,,,,,,,,,,,,,,,,,,,,,,,,,,,,,,,,,,,,,,,,,,,,,,,,,,,,,,,,,,,,,
10874,1650415497.12882,1650415497.144202,7.0,0.0,4209.230957,3934.358887,4266.666504,4271.794922,4511.794922,450.0,3.0,68.0,,,,0.0,4.0,2.0,2.0,0.0,4.0,33.333332,,,,,,,,,,,,,,,,,,,,,,,,,,,,,,,,,,,,,,,,,,,,,,,,,,,,,,,,,,,,,,,,,,,,,,,,,,,,,,,,,,,,
10875,1650415497.1366339,1650415497.152116,8.0,0.0,4271.282227000001,4032.820557,4295.384765999999,4293.333496,4499.487305,450.0,3.0,68.0,,,,0.0,4.0,2.0,2.0,0.0,4.0,33.333332,,,,,,,,4.0,0.0,0.064718,-0.56958,0.35083000000000003,0.740479,0.9052870000000001,-0.43408900000000006,-0.100587,-0.046264,-0.055282000000000005,-0.015437000000000001,,,,,,,,,,,,,,,,,,,,,,,,,,,,,,,,,,,,,,,,,,,,,,,,,,,,,,,,,,,,,,,,,
10876,1650415497.144449,1650415497.159931,9.0,0.0,4257.94873,4020.0,4310.769043,4309.230957,4458.461426,0.0,3.0,68.0,,,,0.0,4.0,2.0,2.0,0.0,4.0,33.333332,1.0,0.0,1.0,0.0,0.0,0.0,0.0,,,,,,,,,,,,,1.0,0.0,0.0,,,,,,,,,,,,,,,,,,,,,,,,,,,,,,,,0.0,1.0,32.0,1.0,1.0,0.0,6.023983,9.593814,3.4834099999999997,2.586432,6.101163,203.343369,65.448944,42.110797999999996,14.827368,27.764538,11.619266,7.0832,3.8074440000000003,3.005244,10.196089,3.0404259999999996,2.2100619999999997,1.3804239999999999,2.187651,1.192057,107.777428,28.406086,5.913794,8.046146,8.168053
10877,1650415497.1522632,1650415497.167746,10.0,0.0,4186.666504,3988.205078,4283.589844,4269.743652,4414.871582,450.0,3.0,68.0,,,,0.0,4.0,2.0,2.0,0.0,4.0,33.333332,,,,,,,,5.0,0.0,0.066027,-0.56958,0.350586,0.740479,0.8999159999999999,-0.436042,-0.098634,-0.046227,-0.055222,-0.013794999999999998,,,,,,,,,,,,,,,,,,,,,,,,,,,,,,,,,,,,,,,,,,,,,,,,,,,,,,,,,,,,,,,,,
10878,1650415497.160078,1650415497.17556,11.0,0.0,4193.333496,3997.4357909999994,4291.794922,4252.820313,4406.153809,16205.0,3.0,68.0,,,,0.0,4.0,2.0,2.0,0.0,4.0,33.333332,,,,,,,,,,,,,,,,,,,,,,,,,,,,,,,,,,,,,,,,,,,,,,,,,,,,,,,,,,,,,,,,,,,,,,,,,,,,,,,,,,,,
10879,1650415497.167892,1650415497.183275,12.0,0.0,4263.589844,4095.897461,4333.333496,4280.0,4430.769043,450.0,3.0,68.0,,,,0.0,4.0,2.0,2.0,0.0,4.0,33.333332,,,,,,,,6.0,0.0,0.066027,-0.56958,0.350586,0.740479,0.9184709999999999,-0.43994799999999995,-0.11621300000000001,-0.046194,-0.055265999999999996,-0.015443,,,,,,,,,,,,,,,,,,,,,,,,,,,,,,,,,,,,,,,,,,,,,,,,,,,,,,,,,,,,,,,,,
10880,1650415497.175707,1650415497.19119,13.0,0.0,4301.025879,4204.102539,4343.077147999999,4300.0,4451.282227000001,450.0,3.0,68.0,,,,0.0,4.0,2.0,2.0,0.0,4.0,33.333332,,,,,,,,,,,,,,,,,,,,,,,,,,,,,,,,,,,,,,,,,,,,,,,,,,,,,,0.0,1.0,32.0,1.0,1.0,0.0,,,,,,,,,,,,,,,,,,,,,,,,,
10881,1650415497.183521,1650415497.199004,14.0,0.0,4292.820313,4240.512695,4357.436035,4278.974121,4430.769043,450.0,3.0,68.0,,,,0.0,4.0,2.0,2.0,0.0,4.0,33.333332,,,,,,,,7.0,0.0,0.066027,-0.56958,0.350586,0.740479,0.901869,-0.437018,-0.102052,-0.046165,-0.055258,-0.017072999999999998,,,,,,,,,,,,,,,,,,,,,,,,,,,,,,,,,,,,,,,,,,,,,,,,,,,,,,,,,,,,,,,,,
10882,1650415497.191336,1650415497.206919,15.0,0.0,4268.717772999999,4247.692383,4359.487305,4223.589844,4394.871582,16205.0,3.0,68.0,,,,0.0,4.0,2.0,2.0,0.0,4.0,33.333332,,,,,,,,,,,,,,,,,,,,,,,,,,,,,,,,,,,,,,,,,,,,,,,,,,,,,,,,,,,,,,,,,,,,,,,,,,,,,,,,,,,,
10883,1650415497.19915,1650415497.2147331,16.0,0.0,4267.692383,4265.641113000001,4325.641113000001,4207.692383,4382.563965,0.0,3.0,68.0,,,,0.0,4.0,2.0,2.0,0.0,4.0,33.333332,,,,,,,,8.0,0.0,0.0681,-0.569336,0.350586,0.740479,0.879408,-0.45264399999999994,-0.11230599999999999,-0.046187,-0.055298,-0.015268,,,,,,,,,,,,,,,,,,,,,,,,,,,,,,,,,,,,,,,,,,,,,,,,,,,,,,,,,,,,,,,,,
10884,1650415497.206965,1650415497.2226481,17.0,0.0,4288.717772999999,4272.307617,4324.102539,4251.794922,4367.179688,0.0,3.0,68.0,,,,0.0,4.0,2.0,2.0,0.0,4.0,33.333332,,,,,,,,,,,,,,,,,,,,,,,,,,,,,,,,,,,,,,,,,,,,,,,,,,,,,,0.0,1.0,32.0,1.0,1.0,0.0,,,,,,,,,,,,,,,,,,,,,,,,,
10885,1650415497.214779,1650415497.230463,18.0,0.0,4267.179688,4265.641113000001,4333.333496,4278.461426,4321.025879,0.0,3.0,68.0,,,,0.0,4.0,2.0,2.0,0.0,4.0,33.333332,,,,,,,,9.0,0.0,0.0681,-0.569336,0.350586,0.740479,0.9004040000000001,-0.43994799999999995,-0.10351700000000001,-0.046354,-0.055237,-0.016817,,,,,,,,,,,,,,,,,,,,,,,,,,,,,,,,,,,,,,,,,,,,,,,,,,,,,,,,,,,,,,,,,
10886,1650415497.222594,1650415497.2383769,19.0,0.0,4212.307617,4286.153809,4300.512695,4267.179688,4273.846191,0.0,3.0,68.0,,,,0.0,4.0,2.0,2.0,0.0,4.0,33.333332,,,,,,,,,,,,,,,,,,,,,,,,,,,,,,,,,,,,,,,,,,,,,,,,,,,,,,,,,,,,,,,,,,,,,,,,,,,,,,,,,,,,
10887,1650415497.230409,1650415497.246192,20.0,0.0,4203.589844,4352.307617,4280.0,4264.615234000001,4246.153809,0.0,3.0,68.0,,,,0.0,4.0,2.0,2.0,0.0,4.0,33.333332,,,,,,,,10.0,0.0,0.066687,-0.569336,0.350342,0.7407229999999999,0.9126120000000001,-0.44190100000000004,-0.11718900000000002,-0.046307999999999995,-0.055328999999999996,-0.018163,,,,,,,,,,,,,,,,,,,,,,,,,,,,,,,,,,,,,,,,,,,,,,,,,,,,,,,,,,,,,,,,,
10888,1650415497.238223,1650415497.254106,21.0,0.0,4266.153809,4449.743652,4311.282227000001,4290.769043,4271.794922,0.0,3.0,68.0,,,,0.0,4.0,2.0,2.0,0.0,4.0,33.333332,,,,,,,,,,,,,,,,,,,,,,,,,,,,,,,,,,,,,,,,,,,,,,,,,,,,,,0.0,1.0,32.0,1.0,1.0,0.0,,,,,,,,,,,,,,,,,,,,,,,,,
10889,1650415497.2460382,1650415497.2619212,22.0,0.0,4265.128418,4507.692383,4330.769043,4303.077147999999,4279.487305,0.0,3.0,68.0,,,,0.0,4.0,2.0,2.0,0.0,4.0,33.333332,,,,,,,,11.0,0.0,0.066687,-0.569336,0.350342,0.7407229999999999,0.913588,-0.43213500000000005,-0.095216,-0.046267,-0.055314,-0.019472,,,,,,,,,,,,,,,,,,,,,,,,,,,,,,,,,,,,,,,,,,,,,,,,,,,,,,,,,,,,,,,,,
10890,1650415497.253852,1650415497.269836,23.0,0.0,4178.461426,4508.205078,4316.922852000001,4285.128418,4221.538574,0.0,3.0,68.0,,,,0.0,4.0,2.0,2.0,0.0,4.0,33.333332,,,,,,,,,,,,,,,,,,,,,,,,,,,,,,,,,,,,,,,,,,,,,,,,,,,,,,,,,,,,,,,,,,,,,,,,,,,,,,,,,,,,
10891,1650415497.261667,1650415497.27765,24.0,0.0,4197.94873,4508.205078,4318.461426,4262.563965,4198.461426,0.0,3.0,68.0,,,,0.0,4.0,2.0,2.0,0.0,4.0,33.333332,,,,,,,,12.0,0.0,0.066687,-0.569336,0.350342,0.7407229999999999,0.9028459999999999,-0.427741,-0.104005,-0.046182,-0.055349,-0.02065,,,,,,,,,,,,,,,,,,,,,,,,,,,,,,,,,,,,,,,,,,,,,,,,,,,,,,,,,,,,,,,,,
10892,1650415497.269481,1650415497.285465,25.0,0.0,4299.487305,4526.153809,4347.179688,4202.563965,4237.436035,0.0,3.0,68.0,,,,0.0,4.0,2.0,2.0,0.0,4.0,33.333332,,,,,,,,,,,,,,,,,,,,1.0,0.0,0.0,,,,,,,,,,,,,,,,,,,,,,,,,,,,,,,,0.0,1.0,32.0,1.0,1.0,0.0,8.555976,11.124825,3.4309760000000002,2.982732,7.461197,372.49505600000003,66.791534,48.914314000000005,16.643926999999998,32.13752,12.457211000000001,7.083651,4.541819,3.8856589999999995,12.306007000000001,6.034206,3.8674809999999997,2.561676,3.7922379999999998,2.170056,220.64505,59.197407,10.048897,12.820381,10.804476
10893,1650415497.277296,1650415497.29318,26.0,0.0,4326.153809,4513.333496,4356.922852000001,4177.94873,4269.743652,0.0,3.0,68.0,,,,0.0,4.0,2.0,2.0,0.0,4.0,33.333332,,,,,,,,13.0,0.0,0.066687,-0.569336,0.350342,0.7407229999999999,0.8999159999999999,-0.435554,-0.100587,-0.046153,-0.055234000000000005,-0.021612,,,,,,,,,,,,,,,,,,,,,,,,,,,,,,,,,,,,,,,,,,,,,,,,,,,,,,,,,,,,,,,,,
10894,1650415497.28511,1650415497.301094,27.0,0.0,4218.461426,4421.025879,4309.230957,4241.025879,4190.256348,0.0,3.0,68.0,,,,0.0,4.0,2.0,2.0,0.0,4.0,33.333332,,,,,,,,,,,,,,,,,,,,,,,,,,,,,,,,,,,,,,,,,,,,,,,,,,,,,,,,,,,,,,,,,,,,,,,,,,,,,,,,,,,,
10895,1650415497.292925,1650415497.308909,28.0,0.0,4154.358886999999,4412.307617,4262.05127,4263.589844,4087.6923829999996,0.0,3.0,68.0,,,,0.0,4.0,2.0,2.0,0.0,4.0,33.333332,,,,,,,,14.0,0.0,0.066687,-0.569336,0.350342,0.7407229999999999,0.913588,-0.43213500000000005,-0.095216,-0.04603,-0.055228,-0.022478,,,,,,,,,,,,,,,,,,,,,,,,,,,,,,,,,,,,,,,,,,,,,,,,,,,,,,,,,,,,,,,,,
10896,1650415497.300739,1650415497.316723,29.0,0.0,4221.538574,4533.333496,4272.820313,4235.384765999999,4105.641113000001,0.0,3.0,68.0,,,,0.0,4.0,2.0,2.0,0.0,4.0,33.333332,,,,,,,,,,,,,,,,,,,,,,,,,,,,,,,,,,,,,,,,,,,,,,,,,,,,,,0.0,1.0,32.0,1.0,1.0,0.0,,,,,,,,,,,,,,,,,,,,,,,,,
10897,1650415497.308554,1650415497.324438,30.0,0.0,4268.717772999999,4574.358886999999,4309.743652,4265.641113000001,4153.846191,0.0,3.0,68.0,,,,0.0,4.0,2.0,2.0,0.0,4.0,33.333332,,,,,,,,15.0,0.0,0.066687,-0.569336,0.350342,0.7407229999999999,0.897963,-0.43799499999999997,-0.09131,-0.046066,-0.055272,-0.020133,,,,,,,,,,,,,,,,,,,,,,,,,,,,,,,,,,,,,,,,,,,,,,,,,,,,,,,,,,,,,,,,,
10898,1650415497.3163679,1650415497.3323529,31.0,0.0,4246.153809,4582.563965,4328.717772999999,4302.05127,4144.102539,0.0,3.0,68.0,,,,0.0,4.0,2.0,2.0,0.0,4.0,33.333332,,,,,,,,,,,,,,,,,,,,,,,,,,,,,,,,,,,,,,,,,,,,,,,,,,,,,,,,,,,,,,,,,,,,,,,,,,,,,,,,,,,,
10899,1650415497.324183,1650415497.340167,32.0,0.0,4236.922852000001,4637.94873,4317.94873,4281.538574,4114.358886999999,0.0,3.0,68.0,,,,0.0,4.0,2.0,2.0,0.0,4.0,33.333332,,,,,,,,16.0,0.0,0.068739,-0.569092,0.350342,0.7407229999999999,0.901381,-0.440925,-0.104494,-0.046098,-0.055262,-0.021196,,,,,,,,,,,,,,,,,,,,,,,,,,,,,,,,,,,,,,,,,,,,,,,,,,,,,,,,,,,,,,,,,
10900,1650415497.331998,1650415497.347882,33.0,0.0,4245.641113000001,4649.230957,4322.05127,4301.538574,4097.94873,0.0,3.0,68.0,,,,0.0,4.0,2.0,2.0,0.0,4.0,33.333332,,,,,,,,,,,,,,,,,,,,,,,,,,,,,,,,,,,,,,,,,,,,,,,,,,,,,,0.0,1.0,32.0,1.0,1.0,0.0,,,,,,,,,,,,,,,,,,,,,,,,,
10901,1650415497.3398118,1650415497.355797,34.0,0.0,4230.769043,4689.230957,4351.794922,4294.358886999999,4086.6667479999996,0.0,3.0,68.0,,,,0.0,4.0,2.0,2.0,0.0,4.0,33.333332,,,,,,,,17.0,0.0,0.06605599999999999,-0.569092,0.350342,0.740967,0.9004040000000001,-0.44385399999999997,-0.102052,-0.046176,-0.055303,-0.018881000000000002,,,,,,,,,,,,,,,,,,,,,,,,,,,,,,,,,,,,,,,,,,,,,,,,,,,,,,,,,,,,,,,,,
10902,1650415497.347627,1650415497.363611,35.0,0.0,4248.717772999999,4826.153809,4368.717772999999,4224.102539,4126.666504,0.0,3.0,68.0,,,,0.0,4.0,2.0,2.0,0.0,4.0,33.333332,,,,,,,,,,,,,,,,,,,,,,,,,,,,,,,,,,,,,,,,,,,,,,,,,,,,,,,,,,,,,,,,,,,,,,,,,,,,,,,,,,,,
10903,1650415497.355441,1650415497.3714259,36.0,0.0,4263.077147999999,4852.307617,4364.102539,4231.794922,4118.461426,0.0,3.0,68.0,,,,0.0,4.0,2.0,2.0,0.0,4.0,33.333332,,,,,,,,18.0,0.0,0.068126,-0.5688479999999999,0.350342,0.740967,0.903334,-0.44385399999999997,-0.107424,-0.046099,-0.055388,-0.016895,,,,,,,,,,,,,,,,,,,,,,,,,,,,,,,,,,,,,,,,,,,,,,,,,,,,,,,,,,,,,,,,,
10904,1650415497.363256,1650415497.379141,37.0,0.0,4232.820313,4749.230957,4356.922852000001,4307.179688,4036.923096,0.0,3.0,68.0,,,,0.0,4.0,2.0,2.0,0.0,4.0,33.333332,,,,,,,,,,,,,,,,,,,,,,,,,,,,,,,,,,,,,,,,,,,,,,,,,,,,,,0.0,1.0,32.0,1.0,1.0,0.0,,,,,,,,,,,,,,,,,,,,,,,,,
10905,1650415497.37107,1650415497.386955,38.0,0.0,4224.615234000001,4753.333496,4351.794922,4322.05127,4024.102539,0.0,3.0,68.0,,,,0.0,4.0,2.0,2.0,0.0,4.0,33.333332,,,,,,,,19.0,0.0,0.066858,-0.5688479999999999,0.350586,0.740967,0.8896620000000001,-0.43653000000000003,-0.11035299999999999,-0.045982,-0.055415,-0.01208,,,,,,,,,,,,,,,,,,,,,,,,,,,,,,,,,,,,,,,,,,,,,,,,,,,,,,,,,,,,,,,,,
10906,1650415497.378885,1650415497.39467,39.0,0.0,4216.922852000001,4794.358886999999,4350.256348,4262.563965,4038.974365,0.0,3.0,68.0,,,,0.0,4.0,2.0,2.0,0.0,4.0,33.333332,,,,,,,,,,,,,,,,,,,,,,,,,,,,,,,,,,,,,,,,,,,,,,,,,,,,,,,,,,,,,,,,,,,,,,,,,,,,,,,,,,,,
10907,1650415497.386699,1650415497.402485,40.0,0.0,4220.0,4742.05127,4334.871582,4245.128418,4035.897461,0.0,3.0,68.0,,,,0.0,4.0,2.0,2.0,0.0,4.0,33.333332,,,,,,,,20.0,0.0,0.068126,-0.5688479999999999,0.350342,0.740967,0.9043110000000001,-0.437018,-0.1084,-0.046022,-0.055489,-0.014046000000000001,,,,,,,,,,,,,,,,,,,,,,,,,,,,,,,,,,,,,,,,,,,,,,,,,,,,,,,,,,,,,,,,,
10908,1650415497.394514,1650415497.410199,41.0,0.0,4241.025879,4723.589844,4311.282227000001,4282.563965,4037.4357909999994,0.0,3.0,68.0,,,,0.0,4.0,2.0,2.0,0.0,4.0,33.333332,,,,,,,,,,,,,,,,,,,,1.0,0.0,0.0,,,,,,,,,,,,,,,,,,,,,,,,,,,,,,,,0.0,1.0,32.0,0.9867870000000001,1.0,0.0,12.53682,12.424963,3.369534,3.67319,8.66542,613.883972,63.536598,53.991367000000004,19.772631,34.968864,14.993235,8.139567,5.3894589999999996,5.1166730000000005,14.283767000000001,9.726921,5.788937000000001,3.934301,5.796325,3.6027839999999998,371.501801,101.791046,15.555263,18.769951000000002,13.207231
10909,1650415497.402328,1650415497.418014,42.0,0.0,4243.077147999999,4777.94873,4309.230957,4307.179688,4003.076904,0.0,3.0,68.0,,,,0.0,4.0,2.0,2.0,0.0,4.0,33.333332,,,,,,,,21.0,0.0,0.06890399999999999,-0.568604,0.350586,0.740967,0.897963,-0.43262399999999995,-0.105959,-0.046107999999999996,-0.05545800000000001,-0.015669,,,,,,,,,,,,,,,,,,,,,,,,,,,,,,,,,,,,,,,,,,,,,,,,,,,,,,,,,,,,,,,,,
10910,1650415497.410143,1650415497.4257288,43.0,0.0,4242.05127,4809.743652,4328.205078,4290.769043,3969.2307130000004,0.0,3.0,68.0,,,,0.0,4.0,2.0,2.0,0.0,4.0,33.333332,,,,,,,,,,,,,,,,,,,,,,,,,,,,,,,,,,,,,,,,,,,,,,,,,,,,,,,,,,,,,,,,,,,,,,,,,,,,,,,,,,,,
10911,1650415497.417957,1650415497.4336429,44.0,0.0,4275.384765999999,4772.307617,4331.282227000001,4286.153809,4010.7692869999996,0.0,3.0,68.0,,,,0.0,4.0,2.0,2.0,0.0,4.0,33.333332,,,,,,,,22.0,0.0,0.066226,-0.568604,0.350586,0.741211,0.890639,-0.4336,-0.105959,-0.046136,-0.055527,-0.017178,,,,,,,,,,,,,,,,,,,,,,,,,,,,,,,,,,,,,,,,,,,,,,,,,,,,,,,,,,,,,,,,,
10912,1650415497.425772,1650415497.441458,45.0,0.0,4291.282227000001,4771.794922,4317.94873,4310.769043,4052.3076170000004,0.0,3.0,68.0,,,,0.0,4.0,2.0,2.0,0.0,4.0,33.333332,,,,,,,,,,,,,,,,,,,,,,,,,,,,,,,,,,,,,,,,,,,,,,,,,,,,,,0.0,1.0,32.0,0.9867870000000001,1.0,0.0,,,,,,,,,,,,,,,,,,,,,,,,,
10913,1650415497.433586,1650415497.449373,46.0,0.0,4255.384765999999,4834.358886999999,4315.897461,4285.641113000001,3990.256348,0.0,3.0,68.0,,,,0.0,4.0,2.0,2.0,0.0,4.0,33.333332,,,,,,,,23.0,0.0,0.066226,-0.568604,0.350586,0.741211,0.909682,-0.428717,-0.107424,-0.046063,-0.055541,-0.018537,,,,,,,,,,,,,,,,,,,,,,,,,,,,,,,,,,,,,,,,,,,,,,,,,,,,,,,,,,,,,,,,,
10914,1650415497.441401,1650415497.457187,47.0,0.0,4216.410156,4821.025879,4317.436035,4235.897461,3915.384521,0.0,3.0,68.0,,,,0.0,4.0,2.0,2.0,0.0,4.0,33.333332,,,,,,,,,,,,,,,,,,,,,,,,,,,,,,,,,,,,,,,,,,,,,,,,,,,,,,,,,,,,,,,,,,,,,,,,,,,,,,,,,,,,
10915,1650415497.4492161,1650415497.465102,48.0,0.0,4229.743652,4766.666504,4308.717772999999,4248.717772999999,3947.179443,0.0,3.0,68.0,,,,0.0,4.0,2.0,2.0,0.0,4.0,33.333332,,,,,,,,24.0,0.0,0.066226,-0.568604,0.350586,0.741211,0.9043110000000001,-0.431159,-0.109865,-0.046096,-0.05545599999999999,-0.019808000000000003,,,,,,,,,,,,,,,,,,,,,,,,,,,,,,,,,,,,,,,,,,,,,,,,,,,,,,,,,,,,,,,,,
10916,1650415497.45703,1650415497.4729161,49.0,0.0,4273.846191,4798.461426,4322.05127,4290.769043,4003.076904,0.0,3.0,68.0,,,,0.0,4.0,2.0,2.0,0.0,4.0,33.333332,,,,,,,,,,,,,,,,,,,,,,,,,,,,,,,,,,,,,,,,,,,,,,,,,,,,,,0.0,0.0,32.0,0.9867870000000001,1.0,0.0,,,,,,,,,,,,,,,,,,,,,,,,,
10917,1650415497.464845,1650415497.4808311,50.0,0.0,4253.846191,4882.563965,4339.487305,4287.692383,3977.4357909999994,0.0,3.0,68.0,,,,0.0,4.0,2.0,2.0,0.0,4.0,33.333332,,,,,,,,25.0,0.0,0.06687799999999999,-0.5683590000000001,0.350342,0.741455,0.891127,-0.443366,-0.11572400000000001,-0.046125,-0.055526,-0.020806,,,,,,,,,,,,,,,,,,,,,,,,,,,,,,,,,,,,,,,,,,,,,,,,,,,,,,,,,,,,,,,,,
10918,1650415497.4726589,1650415497.488646,51.0,0.0,4241.025879,4945.128418,4358.461426,4275.897461,3957.4357909999994,0.0,3.0,68.0,,,,0.0,4.0,2.0,2.0,0.0,4.0,33.333332,,,,,,,,,,,,,,,,,,,,,,,,,,,,,,,,,,,,,,,,,,,,,,,,,,,,,,,,,,,,,,,,,,,,,,,,,,,,,,,,,,,,
10919,1650415497.480474,1650415497.49646,52.0,0.0,4300.512695,4960.0,4355.897461,4289.230957,3988.205078,0.0,3.0,68.0,,,,0.0,4.0,2.0,2.0,0.0,4.0,33.333332,,,,,,,,26.0,0.0,0.06687799999999999,-0.5683590000000001,0.350342,0.741455,0.9087049999999999,-0.43213500000000005,-0.11572400000000001,-0.046102,-0.055491,-0.018628,,,,,,,,,,,,,,,,,,,,,,,,,,,,,,,,,,,,,,,,,,,,,,,,,,,,,,,,,,,,,,,,,
10920,1650415497.4882882,1650415497.504175,53.0,0.0,4305.641113000001,4932.307617,4331.794922,4293.333496,3988.205078,0.0,3.0,68.0,,,,0.0,4.0,2.0,2.0,0.0,4.0,33.333332,,,,,,,,,,,,,,,,,,,,,,,,,,,,,,,,,,,,,,,,,,,,,,,,,,,,,,0.0,0.0,32.0,0.9867870000000001,1.0,0.0,,,,,,,,,,,,,,,,,,,,,,,,,
10921,1650415497.496103,1650415497.51199,54.0,0.0,4260.0,4909.230957,4313.846191,4283.589844,3936.4101560000004,0.0,3.0,68.0,,,,0.0,4.0,2.0,2.0,0.0,4.0,33.333332,,,,,,,,27.0,0.0,0.06829,-0.5683590000000001,0.350586,0.741211,0.9184709999999999,-0.427253,-0.104494,-0.04618,-0.055508,-0.01989,,,,,,,,,,,,,,,,,,,,,,,,,,,,,,,,,,,,,,,,,,,,,,,,,,,,,,,,,,,,,,,,,
10922,1650415497.503917,1650415497.519804,55.0,0.0,4268.717772999999,4914.871582,4318.974121,4284.615234000001,3927.6923829999996,0.0,3.0,68.0,,,,0.0,4.0,2.0,2.0,0.0,4.0,33.333332,,,,,,,,,,,,,,,,,,,,,,,,,,,,,,,,,,,,,,,,,,,,,,,,,,,,,,,,,,,,,,,,,,,,,,,,,,,,,,,,,,,,
10923,1650415497.511732,1650415497.527719,56.0,0.0,4288.717772999999,4907.179688,4340.0,4288.717772999999,3967.6923829999996,0.0,3.0,68.0,,,,0.0,4.0,2.0,2.0,0.0,4.0,33.333332,,,,,,,,28.0,0.0,0.06687799999999999,-0.5683590000000001,0.350342,0.741455,0.891127,-0.443366,-0.11572400000000001,-0.0462,-0.055573000000000004,-0.020878999999999998,,,,,,,,,,,,,,,,,,,,,,,,,,,,,,,,,,,,,,,,,,,,,,,,,,,,,,,,,,,,,,,,,
10924,1650415497.519546,1650415497.535533,57.0,0.0,4253.333496,4860.0,4337.94873,4253.333496,3949.743652,0.0,3.0,68.0,,,,0.0,4.0,2.0,2.0,0.0,4.0,33.333332,,,,,,,,,,,,,,,,,,,,1.0,0.0,0.0,,,,,,,,,,,,,,,,,,,,,,,,,,,,,,,,0.0,0.0,32.0,0.721299,1.0,0.0,17.239904,13.564988,3.382276,4.676133,9.504373,874.7146,56.85326800000001,55.484303000000004,23.662128,35.445206,18.649063,10.385986,6.251041000000001,6.41059,15.763476999999998,13.311192000000002,7.735384,5.2765059999999995,7.861717,5.399891,525.466187,147.256195,21.259836,24.329222,14.832885000000001
10925,1650415497.527361,1650415497.543248,58.0,0.0,4236.410156,4794.358886999999,4312.820313,4214.871582,3880.512939,0.0,3.0,68.0,,,,0.0,4.0,2.0,2.0,0.0,4.0,33.333332,,,,,,,,29.0,0.0,0.06829,-0.5683590000000001,0.350586,0.741211,0.8964979999999999,-0.427253,-0.104005,-0.046120999999999995,-0.055582000000000006,-0.018645,,,,,,,,,,,,,,,,,,,,,,,,,,,,,,,,,,,,,,,,,,,,,,,,,,,,,,,,,,,,,,,,,
10926,1650415497.535175,1650415497.551063,59.0,0.0,4239.487305,4797.94873,4296.410156,4242.05127,3886.1538090000004,0.0,3.0,68.0,,,,0.0,4.0,2.0,2.0,0.0,4.0,33.333332,,,,,,,,,,,,,,,,,,,,,,,,,,,,,,,,,,,,,,,,,,,,,,,,,,,,,,,,,,,,,,,,,,,,,,,,,,,,,,,,,,,,
10927,1650415497.54299,1650415497.558778,60.0,0.0,4252.820313,4885.128418,4341.025879,4289.743652,3946.6667479999996,0.0,3.0,68.0,,,,0.0,4.0,2.0,2.0,0.0,4.0,33.333332,,,,,,,,30.0,0.0,0.06829,-0.5683590000000001,0.350586,0.741211,0.9077290000000001,-0.430671,-0.107912,-0.046294,-0.055639,-0.019906,,,,,,,,,,,,,,,,,,,,,,,,,,,,,,,,,,,,,,,,,,,,,,,,,,,,,,,,,,,,,,,,,
10928,1650415497.550805,1650415497.566592,61.0,0.0,4287.179688,4914.871582,4351.794922,4293.333496,3905.1281740000004,0.0,3.0,68.0,,,,0.0,4.0,2.0,2.0,0.0,4.0,33.333332,,,,,,,,,,,,,,,,,,,,,,,,,,,,,,,,,,,,,,,,,,,,,,,,,,,,,,0.0,0.0,32.0,0.721299,1.0,0.0,,,,,,,,,,,,,,,,,,,,,,,,,
10929,1650415497.558619,1650415497.574307,62.0,0.0,4278.974121,4886.153809,4292.307617,4282.563965,3851.794922,0.0,3.0,68.0,,,,0.0,4.0,2.0,2.0,0.0,4.0,33.333332,,,,,,,,31.0,0.0,0.06492,-0.568604,0.35083000000000003,0.741211,0.909682,-0.43946,-0.105959,-0.046255000000000004,-0.055642,-0.017866,,,,,,,,,,,,,,,,,,,,,,,,,,,,,,,,,,,,,,,,,,,,,,,,,,,,,,,,,,,,,,,,,
10930,1650415497.566434,1650415497.582222,63.0,0.0,4252.820313,4865.641113000001,4296.410156,4290.769043,3887.6923829999996,0.0,3.0,68.0,,,,0.0,4.0,2.0,2.0,0.0,4.0,33.333332,,,,,,,,,,,,,,,,,,,,,,,,,,,,,,,,,,,,,,,,,,,,,,,,,,,,,,,,,,,,,,,,,,,,,,,,,,,,,,,,,,,,
10931,1650415497.574248,1650415497.590036,64.0,0.0,4242.05127,4845.128418,4329.230957,4295.897461,3908.205078,450.0,3.0,68.0,,,,0.0,4.0,2.0,2.0,0.0,4.0,33.333332,,,,,,,,32.0,0.0,0.06492,-0.568604,0.35083000000000003,0.741211,0.906264,-0.448737,-0.116701,-0.046268000000000004,-0.05569299999999999,-0.012955000000000001,,,,,,,,,,,,,,,,,,,,,,,,,,,,,,,,,,,,,,,,,,,,,,,,,,,,,,,,,,,,,,,,,
10932,1650415497.5820632,1650415497.597851,65.0,0.0,4231.794922,4873.333496,4319.487305,4289.230957,3867.179443,450.0,3.0,68.0,,,,0.0,4.0,2.0,2.0,0.0,4.0,33.333332,,,,,,,,,,,,,,,,,,,,,,,,,,,,,,,,,,,,,,,,,,,,,,,,,,,,,,0.0,0.0,32.0,0.721299,1.0,0.0,,,,,,,,,,,,,,,,,,,,,,,,,
10933,1650415497.589877,1650415497.605566,66.0,0.0,4212.820313,4917.436035,4309.230957,4279.487305,3840.0,16232.0,3.0,68.0,,,,0.0,4.0,2.0,2.0,0.0,4.0,33.333332,,,,,,,,33.0,0.0,0.06890399999999999,-0.568604,0.350586,0.740967,0.9077290000000001,-0.443366,-0.109377,-0.04628,-0.055739,-0.014735,,,,,,,,,,,,,,,,,,,,,,,,,,,,,,,,,,,,,,,,,,,,,,,,,,,,,,,,,,,,,,,,,
10934,1650415497.597692,1650415497.61348,67.0,0.0,4231.794922,4875.384765999999,4340.0,4280.0,3855.897461,450.0,3.0,68.0,,,,0.0,4.0,2.0,2.0,0.0,4.0,33.333332,,,,,,,,,,,,,,,,,,,,,,,,,,,,,,,,,,,,,,,,,,,,,,,,,,,,,,,,,,,,,,,,,,,,,,,,,,,,,,,,,,,,
10935,1650415497.605506,1650415497.621295,68.0,0.0,4287.692383,4865.641113000001,4347.179688,4286.153809,3881.538574,213.0,3.0,68.0,,,,0.0,4.0,2.0,2.0,0.0,4.0,33.333332,,,,,,,,34.0,0.0,0.066226,-0.568604,0.350586,0.741211,0.9028459999999999,-0.44434300000000004,-0.09765800000000001,-0.04634,-0.055634,-0.016191999999999998,,,,,,,,,,,,,,,,,,,,,,,,,,,,,,,,,,,,,,,,,,,,,,,,,,,,,,,,,,,,,,,,,
10936,1650415497.613321,1650415497.629209,69.0,0.0,4298.461426,4968.717772999999,4329.743652,4290.256348,3894.8718259999996,450.0,3.0,68.0,,,,0.0,4.0,2.0,0.0,0.0,4.0,16.666666,,,,,,,,,,,,,,,,,,,,,,,,,,,,,,,,,,,,,,,,,,,,,,,,,,,,,,0.0,0.0,32.0,0.721299,1.0,0.0,,,,,,,,,,,,,,,,,,,,,,,,,
10937,1650415497.621135,1650415497.637024,70.0,0.0,4257.436035,5015.897461,4332.820313,4290.769043,3864.102539,13.0,3.0,68.0,,,,0.0,4.0,2.0,0.0,0.0,4.0,16.666666,,,,,,,,35.0,0.0,0.066226,-0.568604,0.350586,0.741211,0.8994280000000001,-0.44238999999999995,-0.106447,-0.046491000000000005,-0.05549,-0.0176,,,,,,,,,,,,,,,,,,,,,,,,,,,,,,,,,,,,,,,,,,,,,,,,,,,,,,,,,,,,,,,,,
10938,1650415497.62895,1650415497.644939,71.0,0.0,4233.333496,4954.871582,4348.717772999999,4288.717772999999,3850.256348,450.0,3.0,68.0,,,,0.0,4.0,2.0,0.0,0.0,4.0,16.666666,,,,,,,,,,,,,,,,,,,,,,,,,,,,,,,,,,,,,,,,,,,,,,,,,,,,,,,,,,,,,,,,,,,,,,,,,,,,,,,,,,,,
10939,1650415497.636764,1650415497.6527529,72.0,0.0,4260.512695,4925.128418,4341.025879,4286.666504,3860.0,450.0,3.0,68.0,,,,0.0,4.0,2.0,0.0,0.0,4.0,16.666666,,,,,,,,36.0,0.0,0.066226,-0.568604,0.350586,0.741211,0.905776,-0.43262399999999995,-0.098634,-0.046432,-0.055557,-0.018867,,,,,,,,,,,,,,,,,,,,,,,,,,,,,,,,,,,,,,,,,,,,,,,,,,,,,,,,,,,,,,,,,
10940,1650415497.644579,1650415497.660668,73.0,0.0,4266.153809,5004.615234000001,4320.512695,4286.666504,3838.461426,0.0,3.0,68.0,,,,0.0,4.0,2.0,0.0,0.0,4.0,16.666666,1.0,0.0,1.0,0.0,0.0,0.0,0.0,,,,,,,,,,,,,1.0,0.0,0.0,,,,,,,,,,,,,,,,,,,,,,,,,,,,,,,,0.0,0.0,32.0,1.0,1.0,0.0,21.68504,14.652223000000001,3.62489,5.886664,9.946102999999999,1074.6761470000001,49.55267,52.491172999999996,27.554691,33.344615999999995,22.026978,13.380823000000001,7.01444,7.376942999999999,16.345779,15.939897,9.570505,6.460447,9.59796,7.346117,639.264221,182.685669,25.638105,27.746944,15.360725
10941,1650415497.6523929,1650415497.668482,74.0,0.0,4249.230957,5067.179688,4338.461426,4293.846191,3812.820557,450.0,3.0,68.0,,,,0.0,4.0,2.0,0.0,0.0,4.0,16.666666,,,,,,,,37.0,0.0,0.06890399999999999,-0.568604,0.350586,0.740967,0.9052870000000001,-0.446296,-0.103029,-0.046475999999999996,-0.055616,-0.016932,,,,,,,,,,,,,,,,,,,,,,,,,,,,,,,,,,,,,,,,,,,,,,,,,,,,,,,,,,,,,,,,,
10942,1650415497.660208,1650415497.676397,75.0,0.0,4248.205078,5000.512695,4341.538574,4294.358886999999,3820.512939,16199.0,3.0,68.0,,,,0.0,4.0,2.0,0.0,0.0,4.0,16.666666,,,,,,,,,,,,,,,,,,,,,,,,,,,,,,,,,,,,,,,,,,,,,,,,,,,,,,,,,,,,,,,,,,,,,,,,,,,,,,,,,,,,
10943,1650415497.668023,1650415497.684212,76.0,0.0,4223.589844,4909.230957,4316.922852000001,4285.128418,3809.2307130000004,450.0,3.0,68.0,,,,0.0,4.0,2.0,0.0,0.0,4.0,16.666666,,,,,,,,38.0,0.0,0.06890399999999999,-0.568604,0.350586,0.740967,0.91017,-0.433112,-0.10498199999999999,-0.046418,-0.055524000000000004,-0.018216999999999997,,,,,,,,,,,,,,,,,,,,,,,,,,,,,,,,,,,,,,,,,,,,,,,,,,,,,,,,,,,,,,,,,
10944,1650415497.6758368,1650415497.692126,77.0,0.0,4216.410156,4928.717772999999,4316.410156,4284.615234000001,3788.718018,450.0,3.0,68.0,,,,0.0,4.0,2.0,0.0,0.0,4.0,16.666666,,,,,,,,,,,,,,,,,,,,,,,,,,,,,,,,,,,,,,,,,,,,,,,,,,,,,,0.0,0.0,32.0,1.0,1.0,0.0,,,,,,,,,,,,,,,,,,,,,,,,,
10945,1650415497.683652,1650415497.699941,78.0,0.0,4276.410156,4964.615234000001,4328.205078,4312.307617,3840.512939,450.0,3.0,68.0,,,,0.0,4.0,2.0,0.0,0.0,4.0,16.666666,,,,,,,,39.0,0.0,0.066858,-0.5688479999999999,0.350586,0.740967,0.901869,-0.435065,-0.105959,-0.046562,-0.055489,-0.019472,,,,,,,,,,,,,,,,,,,,,,,,,,,,,,,,,,,,,,,,,,,,,,,,,,,,,,,,,,,,,,,,,
10946,1650415497.691466,1650415497.7076552,79.0,0.0,4303.589844,4907.179688,4320.512695,4328.205078,3864.102539,16199.0,3.0,68.0,,,,0.0,4.0,2.0,0.0,0.0,4.0,16.666666,,,,,,,,,,,,,,,,,,,,,,,,,,,,,,,,,,,,,,,,,,,,,,,,,,,,,,,,,,,,,,,,,,,,,,,,,,,,,,,,,,,,
10947,1650415497.699281,1650415497.7154698,80.0,0.0,4254.871582,4880.512695,4330.256348,4297.94873,3821.025635,450.0,3.0,68.0,,,,0.0,4.0,2.0,0.0,0.0,4.0,16.666666,,,,,,,,40.0,0.0,0.065416,-0.5688479999999999,0.350342,0.741211,0.898451,-0.441413,-0.10693499999999999,-0.046544,-0.055409,-0.017427,,,,,,,,,,,,,,,,,,,,,,,,,,,,,,,,,,,,,,,,,,,,,,,,,,,,,,,,,,,,,,,,,
10948,1650415497.707095,1650415497.723185,81.0,0.0,4248.205078,4964.102539,4342.05127,4293.333496,3800.512939,450.0,3.0,68.0,,,,0.0,4.0,2.0,0.0,0.0,4.0,16.666666,,,,,,,,,,,,,,,,,,,,,,,,,,,,,,,,,,,,,,,,,,,,,,,,,,,,,,0.0,0.0,32.0,1.0,1.0,0.0,,,,,,,,,,,,,,,,,,,,,,,,,
10949,1650415497.71491,1650415497.731,82.0,0.0,4267.692383,4998.974121,4314.871582,4308.717772999999,3784.102539,450.0,3.0,68.0,,,,0.0,4.0,2.0,0.0,0.0,4.0,16.666666,,,,,,,,41.0,0.0,0.068126,-0.5688479999999999,0.350342,0.740967,0.9038219999999999,-0.440925,-0.095705,-0.046529,-0.055386000000000005,-0.015586000000000001,,,,,,,,,,,,,,,,,,,,,,,,,,,,,,,,,,,,,,,,,,,,,,,,,,,,,,,,,,,,,,,,,
10950,1650415497.722724,1650415497.738714,83.0,0.0,4237.94873,4954.358886999999,4308.205078,4275.897461,3779.487061,16199.0,3.0,68.0,,,,0.0,4.0,2.0,0.0,0.0,4.0,16.666666,,,,,,,,,,,,,,,,,,,,,,,,,,,,,,,,,,,,,,,,,,,,,,,,,,,,,,,,,,,,,,,,,,,,,,,,,,,,,,,,,,,,
10951,1650415497.730539,1650415497.7465289,84.0,0.0,4237.436035,4977.94873,4348.205078,4251.282227000001,3842.5642090000006,450.0,3.0,68.0,,,,0.0,4.0,2.0,0.0,0.0,4.0,16.666666,,,,,,,,42.0,0.0,0.065416,-0.5688479999999999,0.350342,0.741211,0.9072399999999999,-0.43653000000000003,-0.104494,-0.046515,-0.055365,-0.016957,,,,,,,,,,,,,,,,,,,,,,,,,,,,,,,,,,,,,,,,,,,,,,,,,,,,,,,,,,,,,,,,,
10952,1650415497.738353,1650415497.7542439,85.0,0.0,4277.94873,5022.05127,4351.282227000001,4284.102539,3842.5642090000006,450.0,3.0,68.0,,,,0.0,4.0,2.0,0.0,0.0,4.0,16.666666,,,,,,,,,,,,,,,,,,,,,,,,,,,,,,,,,,,,,,,,,,,,,,,,,,,,,,0.0,0.0,32.0,1.0,1.0,0.0,,,,,,,,,,,,,,,,,,,,,,,,,
10953,1650415497.746168,1650415497.762158,86.0,0.0,4254.358886999999,5043.589844,4312.820313,4296.922852000001,3748.718018,450.0,3.0,68.0,,,,0.0,4.0,2.0,0.0,0.0,4.0,16.666666,,,,,,,,43.0,0.0,0.065416,-0.5688479999999999,0.350342,0.741211,0.909682,-0.460945,-0.101076,-0.046501999999999995,-0.05539500000000001,-0.018289,,,,,,,,,,,,,,,,,,,,,,,,,,,,,,,,,,,,,,,,,,,,,,,,,,,,,,,,,,,,,,,,,
10954,1650415497.753982,1650415497.769973,87.0,0.0,4221.025879,5067.692383,4321.025879,4272.307617,3750.256348,16199.0,3.0,68.0,,,,0.0,4.0,2.0,0.0,0.0,4.0,16.666666,,,,,,,,,,,,,,,,,,,,,,,,,,,,,,,,,,,,,,,,,,,,,,,,,,,,,,,,,,,,,,,,,,,,,,,,,,,,,,,,,,,,
10955,1650415497.761797,1650415497.7778869,88.0,0.0,4258.461426,5041.538574,4342.563965,4290.769043,3821.538574,450.0,3.0,68.0,,,,0.0,4.0,2.0,0.0,0.0,4.0,16.666666,,,,,,,,44.0,0.0,0.065416,-0.5688479999999999,0.350342,0.741211,0.9043110000000001,-0.433112,-0.101076,-0.04649,-0.055373,-0.016363,,,,,,,,,,,,,,,,,,,,,,,,,,,,,,,,,,,,,,,,,,,,,,,,,,,,,,,,,,,,,,,,,
10956,1650415497.769611,1650415497.785702,89.0,0.0,4269.230957,5003.589844,4338.974121,4314.871582,3806.1538090000004,450.0,3.0,68.0,,,,0.0,4.0,2.0,0.0,0.0,4.0,16.666666,,,,,,,,,,,,,,,,,,,,1.0,0.0,0.0,,,,,,,,,,,,,,,,,,,,,,,,,,,,,,,,0.0,0.0,32.0,1.0,1.0,0.0,24.190571,15.558341,4.22735,7.07125,10.093066,1149.745117,44.676144,46.462933,30.641878000000002,29.193644,23.716103,16.298685,7.611960000000001,7.6991309999999995,15.762893,16.99638,11.265986999999999,7.541291999999999,10.695350999999999,9.115997,680.1218259999999,196.515228,27.499397,27.925673,14.872779999999999
10957,1650415497.777426,1650415497.793617,90.0,0.0,4227.179688,5000.0,4335.897461,4283.077147999999,3753.3332520000004,450.0,3.0,68.0,,,,0.0,4.0,2.0,0.0,0.0,4.0,16.666666,,,,,,,,45.0,0.0,0.068126,-0.5688479999999999,0.350342,0.740967,0.8994280000000001,-0.445808,-0.101564,-0.04648,-0.055402,-0.017803,,,,,,,,,,,,,,,,,,,,,,,,,,,,,,,,,,,,,,,,,,,,,,,,,,,,,,,,,,,,,,,,,
10958,1650415497.7852411,1650415497.801431,91.0,0.0,4210.769043,4957.94873,4328.205078,4252.820313,3730.256348,16199.0,3.0,68.0,,,,0.0,4.0,2.0,0.0,0.0,4.0,16.666666,,,,,,,,,,,,,,,,,,,,,,,,,,,,,,,,,,,,,,,,,,,,,,,,,,,,,,,,,,,,,,,,,,,,,,,,,,,,,,,,,,,,
10959,1650415497.793055,1650415497.809246,92.0,0.0,4222.563965,4910.256348,4316.922852000001,4271.282227000001,3736.4101560000004,450.0,3.0,68.0,,,,0.0,4.0,2.0,0.0,0.0,4.0,16.666666,,,,,,,,46.0,0.0,0.068126,-0.5688479999999999,0.350342,0.740967,0.8989389999999999,-0.43799499999999997,-0.103029,-0.046324000000000004,-0.05538,-0.01905,,,,,,,,,,,,,,,,,,,,,,,,,,,,,,,,,,,,,,,,,,,,,,,,,,,,,,,,,,,,,,,,,
10960,1650415497.80087,1650415497.816961,93.0,0.0,4245.128418,4930.769043,4334.871582,4292.820313,3768.205078,450.0,3.0,68.0,,,,0.0,4.0,2.0,0.0,0.0,4.0,16.666666,,,,,,,,,,,,,,,,,,,,,,,,,,,,,,,,,,,,,,,,,,,,,,,,,,,,,,0.0,0.0,32.0,1.0,1.0,0.0,,,,,,,,,,,,,,,,,,,,,,,,,
10961,1650415497.8086839,1650415497.824775,94.0,0.0,4265.641113000001,4905.128418,4361.538574,4284.102539,3773.8461909999996,450.0,3.0,68.0,,,,0.0,4.0,2.0,0.0,0.0,4.0,16.666666,,,,,,,,47.0,0.0,0.066858,-0.5688479999999999,0.350586,0.740967,0.9043110000000001,-0.451179,-0.113771,-0.046331,-0.055262,-0.020172,,,,,,,,,,,,,,,,,,,,,,,,,,,,,,,,,,,,,,,,,,,,,,,,,,,,,,,,,,,,,,,,,
10962,1650415497.816499,1650415497.83249,95.0,0.0,4248.717772999999,4853.333496,4352.307617,4283.589844,3761.025635,16199.0,3.0,68.0,,,,0.0,4.0,2.0,0.0,0.0,4.0,16.666666,,,,,,,,,,,,,,,,,,,,,,,,,,,,,,,,,,,,,,,,,,,,,,,,,,,,,,,,,,,,,,,,,,,,,,,,,,,,,,,,,,,,
10963,1650415497.8243132,1650415497.840405,96.0,0.0,4238.974121,4872.820313,4332.820313,4292.307617,3780.512939,450.0,3.0,68.0,,,,0.0,4.0,2.0,0.0,0.0,4.0,16.666666,,,,,,,,48.0,0.0,0.068126,-0.5688479999999999,0.350342,0.740967,0.8994280000000001,-0.445808,-0.101564,-0.046189999999999995,-0.055302,-0.021231,,,,,,,,,,,,,,,,,,,,,,,,,,,,,,,,,,,,,,,,,,,,,,,,,,,,,,,,,,,,,,,,,
10964,1650415497.832128,1650415497.848219,97.0,0.0,4280.0,4890.769043,4335.384765999999,4286.153809,3795.384521,450.0,3.0,68.0,,,,0.0,4.0,2.0,0.0,0.0,4.0,16.666666,,,,,,,,,,,,,,,,,,,,,,,,,,,,,,,,,,,,,,,,,,,,,,,,,,,,,,0.0,0.0,32.0,1.0,1.0,0.0,,,,,,,,,,,,,,,,,,,,,,,,,
10965,1650415497.839942,1650415497.856134,98.0,0.0,4287.692383,4912.307617,4348.205078,4287.179688,3765.641113,450.0,3.0,68.0,,,,0.0,4.0,2.0,0.0,0.0,4.0,16.666666,,,,,,,,49.0,0.0,0.066858,-0.5688479999999999,0.350586,0.740967,0.9043110000000001,-0.451179,-0.113771,-0.04621,-0.055192,-0.022135,,,,,,,,,,,,,,,,,,,,,,,,,,,,,,,,,,,,,,,,,,,,,,,,,,,,,,,,,,,,,,,,,
10966,1650415497.847757,1650415497.863948,99.0,0.0,4242.05127,4929.230957,4330.769043,4296.410156,3740.512939,16199.0,3.0,68.0,,,,0.0,4.0,2.0,0.0,0.0,4.0,16.666666,,,,,,,,,,,,,,,,,,,,,,,,,,,,,,,,,,,,,,,,,,,,,,,,,,,,,,,,,,,,,,,,,,,,,,,,,,,,,,,,,,,,
10967,1650415497.855571,1650415497.871763,100.0,0.0,4227.179688,4876.922852000001,4308.717772999999,4297.94873,3752.820557,450.0,3.0,68.0,,,,0.0,4.0,2.0,0.0,0.0,4.0,16.666666,,,,,,,,50.0,0.0,0.066858,-0.5688479999999999,0.350586,0.740967,0.9028459999999999,-0.435554,-0.11035299999999999,-0.046227,-0.055140999999999996,-0.019873,,,,,,,,,,,,,,,,,,,,,,,,,,,,,,,,,,,,,,,,,,,,,,,,,,,,,,,,,,,,,,,,,
10968,1650415497.863386,1650415497.879478,101.0,0.0,4252.307617,4870.769043,4327.179688,4293.333496,3759.487061,450.0,3.0,68.0,,,,0.0,4.0,2.0,0.0,0.0,4.0,16.666666,,,,,,,,,,,,,,,,,,,,,,,,,,,,,,,,,,,,,,,,,,,,,,,,,,,,,,0.0,0.0,32.0,1.0,1.0,0.0,,,,,,,,,,,,,,,,,,,,,,,,,
10969,1650415497.8712,1650415497.887392,102.0,0.0,4268.205078,4926.153809,4335.897461,4287.692383,3759.487061,450.0,3.0,68.0,,,,0.0,4.0,2.0,0.0,0.0,4.0,16.666666,,,,,,,,51.0,0.0,0.066858,-0.5688479999999999,0.350586,0.740967,0.908217,-0.443366,-0.10547000000000001,-0.046195,-0.05519400000000001,-0.021011000000000002,,,,,,,,,,,,,,,,,,,,,,,,,,,,,,,,,,,,,,,,,,,,,,,,,,,,,,,,,,,,,,,,,
10970,1650415497.879015,1650415497.895207,103.0,0.0,4261.538574,4876.410156,4304.615234000001,4284.615234000001,3769.2307130000004,16199.0,3.0,68.0,,,,0.0,4.0,2.0,0.0,0.0,4.0,16.666666,,,,,,,,,,,,,,,,,,,,,,,,,,,,,,,,,,,,,,,,,,,,,,,,,,,,,,,,,,,,,,,,,,,,,,,,,,,,,,,,,,,,
10971,1650415497.88683,1650415497.9029222,104.0,0.0,4243.077147999999,4809.743652,4303.589844,4290.256348,3769.743652,450.0,3.0,68.0,,,,0.0,4.0,2.0,0.0,0.0,4.0,16.666666,,,,,,,,52.0,0.0,0.066858,-0.5688479999999999,0.350586,0.740967,0.9131,-0.440925,-0.10888800000000001,-0.046067000000000004,-0.055241,-0.018812,,,,,,,,,,,,,,,,,,,,,,,,,,,,,,,,,,,,,,,,,,,,,,,,,,,,,,,,,,,,,,,,,
10972,1650415497.894644,1650415497.9107358,105.0,0.0,4245.128418,4868.205078,4338.461426,4294.871582,3750.256348,450.0,3.0,68.0,,,,0.0,4.0,2.0,0.0,0.0,4.0,16.666666,,,,,,,,,,,,,,,,,,,,1.0,0.0,0.0,,,,,,,,,,,,,,,,,,,,,,,,,,,,,,,,0.0,0.0,1.0,0.0,512.0,1.0,24.102388,16.007593,5.207248,7.972664,10.072808,1073.607422,43.98386,40.25861,32.143204,24.143879000000002,23.011597000000002,18.208195,7.965464,7.2668539999999995,14.028265,16.347422,12.749835000000001,8.623308,10.986179,10.352875,631.723572,184.075836,26.440817,24.900694,13.774445000000002
10973,1650415497.902459,1650415497.918451,106.0,0.0,4256.922852000001,4888.205078,4342.563965,4285.641113000001,3752.3076170000004,450.0,3.0,68.0,,,,0.0,4.0,2.0,0.0,0.0,4.0,16.666666,,,,,,,,53.0,0.0,0.06605599999999999,-0.569092,0.350342,0.740967,0.897475,-0.437507,-0.098634,-0.046002,-0.055283000000000006,-0.020056,,,,,,,,,,,,,,,,,,,,,,,,,,,,,,,,,,,,,,,,,,,,,,,,,,,,,,,,,,,,,,,,,
10974,1650415497.910273,1650415497.926266,107.0,0.0,4272.820313,4822.563965,4308.205078,4278.974121,3775.384521,16199.0,3.0,68.0,,,,0.0,4.0,2.0,0.0,0.0,4.0,16.666666,,,,,,,,,,,,,,,,,,,,,,,,,,,,,,,,,,,,,,,,,,,,,,,,,,,,,,,,,,,,,,,,,,,,,,,,,,,,,,,,,,,,
10975,1650415497.9180882,1650415497.933981,108.0,0.0,4277.436035,4856.922852000001,4292.307617,4281.538574,3787.179443,450.0,3.0,68.0,,,,0.0,4.0,2.0,0.0,0.0,4.0,16.666666,,,,,,,,54.0,0.0,0.06605599999999999,-0.569092,0.350342,0.740967,0.8955209999999999,-0.43897200000000003,-0.093263,-0.04604,-0.05537,-0.014925,,,,,,,,,,,,,,,,,,,,,,,,,,,,,,,,,,,,,,,,,,,,,,,,,,,,,,,,,,,,,,,,,
10976,1650415497.925902,1650415497.9417949,109.0,0.0,4269.743652,4924.102539,4314.871582,4278.974121,3780.0,450.0,3.0,68.0,,,,0.0,4.0,2.0,0.0,0.0,4.0,16.666666,,,,,,,,,,,,,,,,,,,,,,,,,,,,,,,,,,,,,,,,,,,,,,,,,,,,,,0.0,0.0,1.0,0.0,512.0,1.0,,,,,,,,,,,,,,,,,,,,,,,,,
10977,1650415497.933717,1650415497.9495099,110.0,0.0,4266.153809,4928.205078,4320.0,4281.025879,3771.794922,450.0,3.0,68.0,,,,0.0,4.0,2.0,0.0,0.0,4.0,16.666666,,,,,,,,55.0,0.0,0.06605599999999999,-0.569092,0.350342,0.740967,0.904799,-0.449226,-0.10254100000000001,-0.046075,-0.055449,-0.013286000000000001,,,,,,,,,,,,,,,,,,,,,,,,,,,,,,,,,,,,,,,,,,,,,,,,,,,,,,,,,,,,,,,,,
10978,1650415497.941531,1650415497.957325,111.0,0.0,4263.077147999999,4930.256348,4313.846191,4288.205078,3778.974365,16199.0,3.0,68.0,,,,0.0,4.0,2.0,0.0,0.0,4.0,16.666666,,,,,,,,,,,,,,,,,,,,,,,,,,,,,,,,,,,,,,,,,,,,,,,,,,,,,,,,,,,,,,,,,,,,,,,,,,,,,,,,,,,,
10979,1650415497.949346,1650415497.965039,112.0,0.0,4255.897461,4905.641113000001,4320.512695,4288.205078,3778.974365,450.0,3.0,68.0,,,,0.0,4.0,2.0,0.0,0.0,4.0,16.666666,,,,,,,,56.0,0.0,0.06605599999999999,-0.569092,0.350342,0.740967,0.9004040000000001,-0.44531899999999996,-0.11572400000000001,-0.046155,-0.055421000000000005,-0.015083000000000001,,,,,,,,,,,,,,,,,,,,,,,,,,,,,,,,,,,,,,,,,,,,,,,,,,,,,,,,,,,,,,,,,
10980,1650415497.95716,1650415497.972854,113.0,0.0,4265.641113000001,4865.641113000001,4334.358886999999,4293.333496,3751.281982,450.0,3.0,68.0,,,,0.0,4.0,2.0,0.0,0.0,4.0,16.666666,,,,,,,,,,,,,,,,,,,,,,,,,,,,,,,,,,,,,,,,,,,,,,,,,,,,,,0.0,0.0,1.0,0.0,512.0,1.0,,,,,,,,,,,,,,,,,,,,,,,,,
10981,1650415497.964975,1650415497.980569,114.0,0.0,4257.436035,4870.769043,4334.871582,4295.897461,3734.8718259999996,450.0,3.0,68.0,,,,0.0,4.0,2.0,0.0,0.0,4.0,16.666666,,,,,,,,57.0,0.0,0.06605599999999999,-0.569092,0.350342,0.740967,0.8989389999999999,-0.44824899999999995,-0.105959,-0.046227,-0.055348,-0.016602000000000002,,,,,,,,,,,,,,,,,,,,,,,,,,,,,,,,,,,,,,,,,,,,,,,,,,,,,,,,,,,,,,,,,
10982,1650415497.972789,1650415497.988383,115.0,0.0,4243.077147999999,4884.102539,4334.871582,4282.05127,3769.2307130000004,16199.0,3.0,68.0,,,,0.0,4.0,2.0,0.0,0.0,4.0,16.666666,,,,,,,,,,,,,,,,,,,,,,,,,,,,,,,,,,,,,,,,,,,,,,,,,,,,,,,,,,,,,,,,,,,,,,,,,,,,,,,,,,,,
10983,1650415497.980604,1650415497.996098,116.0,0.0,4269.743652,4883.077147999999,4343.589844,4277.436035,3789.2307130000004,450.0,3.0,68.0,,,,0.0,4.0,2.0,0.0,0.0,4.0,16.666666,,,,,,,,58.0,0.0,0.06605599999999999,-0.569092,0.350342,0.740967,0.9087049999999999,-0.451179,-0.113771,-0.046341,-0.055282000000000005,-0.014844,,,,,,,,,,,,,,,,,,,,,,,,,,,,,,,,,,,,,,,,,,,,,,,,,,,,,,,,,,,,,,,,,
10984,1650415497.9884179,1650415498.004013,117.0,0.0,4283.077147999999,4863.589844,4331.794922,4283.589844,3758.974365,450.0,3.0,68.0,,,,0.0,4.0,2.0,0.0,0.0,4.0,16.666666,,,,,,,,,,,,,,,,,,,,,,,,,,,,,,,,,,,,,,,,,,,,,,,,,,,,,,0.0,0.0,1.0,0.0,512.0,1.0,,,,,,,,,,,,,,,,,,,,,,,,,
10985,1650415497.996233,1650415498.011827,118.0,0.0,4249.230957,4808.205078,4317.436035,4281.025879,3742.0512700000004,450.0,3.0,68.0,,,,0.0,4.0,2.0,0.0,0.0,4.0,16.666666,,,,,,,,59.0,0.0,0.068739,-0.569092,0.350342,0.7407229999999999,0.914076,-0.44385399999999997,-0.101564,-0.046394,-0.055272,-0.016436000000000003,,,,,,,,,,,,,,,,,,,,,,,,,,,,,,,,,,,,,,,,,,,,,,,,,,,,,,,,,,,,,,,,,
10986,1650415498.004048,1650415498.019742,119.0,0.0,4245.641113000001,4770.256348,4320.0,4284.102539,3748.205078,16199.0,3.0,68.0,,,,0.0,4.0,2.0,0.0,0.0,4.0,16.666666,,,,,,,,,,,,,,,,,,,,,,,,,,,,,,,,,,,,,,,,,,,,,,,,,,,,,,,,,,,,,,,,,,,,,,,,,,,,,,,,,,,,
10987,1650415498.0118618,1650415498.027556,120.0,0.0,4267.692383,4782.05127,4322.05127,4291.282227000001,3777.9487299999996,450.0,3.0,68.0,,,,0.0,4.0,2.0,0.0,0.0,4.0,16.666666,,,,,,,,60.0,0.0,0.066687,-0.569336,0.350342,0.7407229999999999,0.9077290000000001,-0.43653000000000003,-0.091798,-0.046442000000000004,-0.055311,-0.017868000000000002,,,,,,,,,,,,,,,,,,,,,,,,,,,,,,,,,,,,,,,,,,,,,,,,,,,,,,,,,,,,,,,,,
10988,1650415498.019677,1650415498.0354712,121.0,0.0,4272.307617,4785.128418,4332.820313,4284.102539,3790.256348,450.0,3.0,68.0,,,,0.0,4.0,2.0,0.0,0.0,4.0,16.666666,,,,,,,,,,,,,,,,,,,,1.0,0.0,0.0,,,,,,,,,,,,,,,,,,,,,,,,,,,,,,,,0.0,0.0,1.0,0.0,512.0,1.0,21.250195,15.656181,6.519591999999999,8.379959,9.943230999999999,862.329773,47.528889,36.061096,31.58758,19.501989000000002,20.194044,18.392498,7.965344,6.211243,11.479542,14.398192000000002,13.853983,9.69614,10.478394999999999,10.788328,514.4505,149.66009499999998,23.036991,19.737003,12.563437
10989,1650415498.027491,1650415498.0432858,122.0,0.0,4284.102539,4765.641113000001,4323.077147999999,4279.487305,3777.9487299999996,450.0,3.0,68.0,,,,0.0,4.0,2.0,0.0,0.0,4.0,16.666666,,,,,,,,61.0,0.0,0.066687,-0.569336,0.350342,0.7407229999999999,0.9028459999999999,-0.44531899999999996,-0.095705,-0.046437,-0.055346000000000006,-0.019207,,,,,,,,,,,,,,,,,,,,,,,,,,,,,,,,,,,,,,,,,,,,,,,,,,,,,,,,,,,,,,,,,
10990,1650415498.035306,1650415498.0512,123.0,0.0,4312.820313,4761.025879,4309.743652,4296.922852000001,3791.794922,16199.0,3.0,68.0,,,,0.0,4.0,2.0,0.0,0.0,4.0,16.666666,,,,,,,,,,,,,,,,,,,,,,,,,,,,,,,,,,,,,,,,,,,,,,,,,,,,,,,,,,,,,,,,,,,,,,,,,,,,,,,,,,,,
10991,1650415498.04312,1650415498.059015,124.0,0.0,4299.487305,4772.820313,4308.717772999999,4294.358886999999,3789.2307130000004,450.0,3.0,68.0,,,,0.0,4.0,2.0,0.0,0.0,4.0,16.666666,,,,,,,,62.0,0.0,0.066687,-0.569336,0.350342,0.7407229999999999,0.8896620000000001,-0.43408900000000006,-0.08984500000000001,-0.046286,-0.055427,-0.020265000000000002,,,,,,,,,,,,,,,,,,,,,,,,,,,,,,,,,,,,,,,,,,,,,,,,,,,,,,,,,,,,,,,,,
10992,1650415498.050935,1650415498.0669289,125.0,0.0,4244.615234000001,4811.282227000001,4299.487305,4262.563965,3758.461426,450.0,3.0,68.0,,,,0.0,4.0,2.0,0.0,0.0,4.0,16.666666,,,,,,,,,,,,,,,,,,,,,,,,,,,,,,,,,,,,,,,,,,,,,,,,,,,,,,0.0,0.0,1.0,0.0,512.0,1.0,,,,,,,,,,,,,,,,,,,,,,,,,
10993,1650415498.058749,1650415498.074744,126.0,0.0,4258.974121,4872.307617,4318.974121,4263.077147999999,3763.5898439999996,450.0,3.0,68.0,,,,0.0,4.0,2.0,0.0,0.0,4.0,16.666666,,,,,,,,63.0,0.0,0.06539099999999999,-0.569336,0.350586,0.7407229999999999,0.9038219999999999,-0.438483,-0.11035299999999999,-0.046198,-0.055402,-0.021314,,,,,,,,,,,,,,,,,,,,,,,,,,,,,,,,,,,,,,,,,,,,,,,,,,,,,,,,,,,,,,,,,
10994,1650415498.066564,1650415498.082459,127.0,0.0,4309.230957,4920.0,4368.205078,4288.717772999999,3793.8461909999996,237.0,3.0,68.0,,,,0.0,4.0,2.0,0.0,0.0,4.0,16.666666,,,,,,,,,,,,,,,,,,,,,,,,,,,,,,,,,,,,,,,,,,,,,,,,,,,,,,,,,,,,,,,,,,,,,,,,,,,,,,,,,,,,
10995,1650415498.074378,1650415498.0902731,0.0,0.0,4283.077147999999,4936.410156,4387.692383,4288.205078,3785.1281740000004,450.0,3.0,68.0,,,,0.0,4.0,2.0,0.0,0.0,4.0,16.666666,,,,,,,,0.0,0.0,0.06539099999999999,-0.569336,0.350586,0.7407229999999999,0.9111469999999999,-0.44483100000000003,-0.11572400000000001,-0.046266,-0.055428,-0.022259,,,,,,,,,,,,,,,,,,,,,,,,,,,,,,,,,,,,,,,,,,,,,,,,,,,,,,,,,,,,,,,,,
10996,1650415498.082193,1650415498.0979881,1.0,0.0,4258.461426,4933.333496,4361.538574,4278.461426,3771.281982,450.0,3.0,68.0,,,,0.0,4.0,2.0,0.0,0.0,4.0,16.666666,,,,,,,,,,,,,,,,,,,,,,,,,,,,,,,,,,,,,,,,,,,,,,,,,,,,,,0.0,0.0,1.0,0.0,512.0,1.0,,,,,,,,,,,,,,,,,,,,,,,,,
10997,1650415498.090007,1650415498.105803,2.0,0.0,4288.205078,4906.666504,4353.846191,4285.641113000001,3780.0,16252.0,3.0,68.0,,,,0.0,4.0,2.0,0.0,0.0,4.0,16.666666,,,,,,,,1.0,0.0,0.06539099999999999,-0.569336,0.350586,0.7407229999999999,0.904799,-0.44531899999999996,-0.10693499999999999,-0.046278,-0.055402999999999994,-0.019984000000000002,,,,,,,,,,,,,,,,,,,,,,,,,,,,,,,,,,,,,,,,,,,,,,,,,,,,,,,,,,,,,,,,,
10998,1650415498.0978222,1650415498.113518,3.0,0.0,4285.128418,4862.563965,4350.769043,4290.769043,3790.256348,450.0,3.0,68.0,,,,0.0,4.0,1.0,0.0,0.0,4.0,8.333333,,,,,,,,,,,,,,,,,,,,,,,,,,,,,,,,,,,,,,,,,,,,,,,,,,,,,,,,,,,,,,,,,,,,,,,,,,,,,,,,,,,,
10999,1650415498.1056368,1650415498.121332,4.0,0.0,4253.846191,4879.487305,4345.128418,4292.307617,3815.897461,134.0,3.0,68.0,,,,0.0,4.0,1.0,0.0,0.0,4.0,8.333333,,,,,,,,2.0,0.0,0.06539099999999999,-0.569336,0.350586,0.7407229999999999,0.897475,-0.44776099999999996,-0.098146,-0.046289,-0.05538,-0.021013,,,,,,,,,,,,,,,,,,,,,,,,,,,,,,,,,,,,,,,,,,,,,,,,,,,,,,,,,,,,,,,,,
11000,1650415498.113451,1650415498.129147,5.0,0.0,4300.0,4935.897461,4356.410156,4294.871582,3816.4101560000004,450.0,3.0,68.0,,,,0.0,4.0,1.0,0.0,0.0,4.0,8.333333,,,,,,,,,,,,,,,,,,,,,,,,,,,,,,,,,,,,,,,,,,,,,,,,,,,,,,0.0,0.0,1.0,0.0,512.0,1.0,,,,,,,,,,,,,,,,,,,,,,,,,
11001,1650415498.1212661,1650415498.136962,6.0,0.0,4345.641113000001,4926.153809,4351.282227000001,4290.769043,3814.358887,17.0,3.0,68.0,,,,0.0,4.0,1.0,0.0,0.0,4.0,8.333333,,,,,,,,3.0,0.0,0.06539099999999999,-0.569336,0.350586,0.7407229999999999,0.897963,-0.43408900000000006,-0.113771,-0.046445,-0.055409,-0.021988,,,,,,,,,,,,,,,,,,,,,,,,,,,,,,,,,,,,,,,,,,,,,,,,,,,,,,,,,,,,,,,,,
11002,1650415498.12908,1650415498.144676,7.0,0.0,4309.230957,4846.666504,4336.922852000001,4289.230957,3829.743652,450.0,3.0,68.0,,,,0.0,4.0,1.0,0.0,0.0,4.0,8.333333,,,,,,,,,,,,,,,,,,,,,,,,,,,,,,,,,,,,,,,,,,,,,,,,,,,,,,,,,,,,,,,,,,,,,,,,,,,,,,,,,,,,
11003,1650415498.136895,1650415498.152591,8.0,0.0,4272.820313,4821.538574,4297.436035,4285.641113000001,3828.205078,450.0,3.0,68.0,,,,0.0,4.0,1.0,0.0,0.0,4.0,8.333333,,,,,,,,4.0,0.0,0.06539099999999999,-0.569336,0.350586,0.7407229999999999,0.9077290000000001,-0.437018,-0.104494,-0.046439,-0.055434000000000004,-0.019740999999999998,,,,,,,,,,,,,,,,,,,,,,,,,,,,,,,,,,,,,,,,,,,,,,,,,,,,,,,,,,,,,,,,,
11004,1650415498.1447089,1650415498.1604052,9.0,0.0,4280.0,4878.461426,4296.922852000001,4281.538574,3819.487061,0.0,3.0,68.0,,,,0.0,4.0,1.0,0.0,0.0,4.0,8.333333,1.0,0.0,1.0,0.0,0.0,0.0,0.0,,,,,,,,,,,,,1.0,0.0,0.0,,,,,,,,,,,,,,,,,,,,,,,,,,,,,,,,0.0,0.0,1.0,0.0,512.0,1.0,16.711451,14.311003,7.969092999999999,8.216922,9.674961999999999,602.556641,53.339176,34.371311,29.057470000000002,16.203198999999998,16.418782999999998,16.792051,7.493327000000001,4.844525,8.675585,11.818121000000001,14.282532000000002,10.561217,9.330123,10.336621000000001,362.047302,104.59736600000001,18.491260999999998,14.032398,11.602087
11005,1650415498.152524,1650415498.16832,10.0,0.0,4303.077147999999,4876.922852000001,4331.794922,4286.153809,3804.102539,450.0,3.0,68.0,,,,0.0,4.0,1.0,0.0,0.0,4.0,8.333333,,,,,,,,5.0,0.0,0.06539099999999999,-0.569336,0.350586,0.7407229999999999,0.897475,-0.44776099999999996,-0.098146,-0.046483,-0.05550599999999999,-0.01762,,,,,,,,,,,,,,,,,,,,,,,,,,,,,,,,,,,,,,,,,,,,,,,,,,,,,,,,,,,,,,,,,
11006,1650415498.1603382,1650415498.176135,11.0,0.0,4295.384765999999,4847.179688,4304.102539,4284.615234000001,3823.5898439999996,16247.0,3.0,68.0,,,,0.0,4.0,1.0,0.0,0.0,4.0,8.333333,,,,,,,,,,,,,,,,,,,,,,,,,,,,,,,,,,,,,,,,,,,,,,,,,,,,,,,,,,,,,,,,,,,,,,,,,,,,,,,,,,,,
11007,1650415498.168153,1650415498.1840491,12.0,0.0,4299.487305,4930.256348,4318.974121,4284.102539,3858.461426,450.0,3.0,68.0,,,,0.0,4.0,1.0,0.0,0.0,4.0,8.333333,,,,,,,,6.0,0.0,0.067483,-0.569092,0.350586,0.7407229999999999,0.9052870000000001,-0.43946,-0.10254100000000001,-0.04662,-0.055522,-0.01576,,,,,,,,,,,,,,,,,,,,,,,,,,,,,,,,,,,,,,,,,,,,,,,,,,,,,,,,,,,,,,,,,
11008,1650415498.175967,1650415498.191864,13.0,0.0,4339.487305,5015.897461,4367.179688,4291.794922,3836.4101560000004,450.0,3.0,68.0,,,,0.0,4.0,1.0,0.0,0.0,4.0,8.333333,,,,,,,,,,,,,,,,,,,,,,,,,,,,,,,,,,,,,,,,,,,,,,,,,,,,,,0.0,0.0,1.0,0.0,512.0,1.0,,,,,,,,,,,,,,,,,,,,,,,,,
11009,1650415498.183782,1650415498.1997778,14.0,0.0,4337.436035,4966.153809,4311.794922,4287.692383,3806.6667479999996,450.0,3.0,68.0,,,,0.0,4.0,1.0,0.0,0.0,4.0,8.333333,,,,,,,,7.0,0.0,0.067483,-0.569092,0.350586,0.7407229999999999,0.9077290000000001,-0.446784,-0.107424,-0.046548,-0.055536,-0.017261000000000002,,,,,,,,,,,,,,,,,,,,,,,,,,,,,,,,,,,,,,,,,,,,,,,,,,,,,,,,,,,,,,,,,
11010,1650415498.191596,1650415498.207593,15.0,0.0,4310.769043,4911.794922,4261.538574,4281.025879,3833.3332520000004,16247.0,3.0,68.0,,,,0.0,4.0,1.0,0.0,0.0,4.0,8.333333,,,,,,,,,,,,,,,,,,,,,,,,,,,,,,,,,,,,,,,,,,,,,,,,,,,,,,,,,,,,,,,,,,,,,,,,,,,,,,,,,,,,
11011,1650415498.199411,1650415498.215508,16.0,0.0,4334.358886999999,4923.077147999999,4316.922852000001,4298.974121,3875.897461,0.0,3.0,68.0,,,,0.0,4.0,1.0,0.0,0.0,4.0,8.333333,,,,,,,,8.0,0.0,0.064747,-0.569092,0.350586,0.740967,0.9004040000000001,-0.436042,-0.114748,-0.04663,-0.055598,-0.015437000000000001,,,,,,,,,,,,,,,,,,,,,,,,,,,,,,,,,,,,,,,,,,,,,,,,,,,,,,,,,,,,,,,,,
11012,1650415498.207226,1650415498.2233222,17.0,0.0,4366.153809,4915.897461,4346.666504,4306.666504,3873.3332520000004,0.0,3.0,68.0,,,,0.0,4.0,1.0,0.0,0.0,4.0,8.333333,,,,,,,,,,,,,,,,,,,,,,,,,,,,,,,,,,,,,,,,,,,,,,,,,,,,,,0.0,0.0,1.0,0.0,512.0,1.0,,,,,,,,,,,,,,,,,,,,,,,,,
11013,1650415498.21504,1650415498.231237,18.0,0.0,4328.717772999999,4924.615234000001,4318.974121,4277.436035,3863.5898439999996,0.0,3.0,68.0,,,,0.0,4.0,1.0,0.0,0.0,4.0,8.333333,,,,,,,,9.0,0.0,0.066858,-0.5688479999999999,0.350586,0.740967,0.8999159999999999,-0.437507,-0.10254100000000001,-0.046702999999999995,-0.055653999999999995,-0.017018000000000002,,,,,,,,,,,,,,,,,,,,,,,,,,,,,,,,,,,,,,,,,,,,,,,,,,,,,,,,,,,,,,,,,
11014,1650415498.222855,1650415498.2390509,19.0,0.0,4302.05127,4937.94873,4342.563965,4266.153809,3847.6923829999996,0.0,3.0,68.0,,,,0.0,4.0,1.0,0.0,0.0,4.0,8.333333,,,,,,,,,,,,,,,,,,,,,,,,,,,,,,,,,,,,,,,,,,,,,,,,,,,,,,,,,,,,,,,,,,,,,,,,,,,,,,,,,,,,
11015,1650415498.230669,1650415498.2469661,20.0,0.0,4345.128418,4901.538574,4350.256348,4285.641113000001,3816.4101560000004,0.0,3.0,68.0,,,,0.0,4.0,1.0,0.0,0.0,4.0,8.333333,,,,,,,,10.0,0.0,0.066858,-0.5688479999999999,0.350586,0.740967,0.901381,-0.45215500000000003,-0.120119,-0.046671,-0.055557,-0.018295,,,,,,,,,,,,,,,,,,,,,,,,,,,,,,,,,,,,,,,,,,,,,,,,,,,,,,,,,,,,,,,,,
11016,1650415498.238484,1650415498.254781,21.0,0.0,4345.641113000001,4854.358886999999,4313.846191,4288.717772999999,3833.3332520000004,0.0,3.0,68.0,,,,0.0,4.0,1.0,0.0,0.0,4.0,8.333333,,,,,,,,,,,,,,,,,,,,,,,,,,,,,,,,,,,,,,,,,,,,,,,,,,,,,,0.0,0.0,1.0,0.0,512.0,1.0,,,,,,,,,,,,,,,,,,,,,,,,,
11017,1650415498.246298,1650415498.262495,22.0,0.0,4309.743652,4840.512695,4324.615234000001,4281.025879,3853.3332520000004,0.0,3.0,68.0,,,,0.0,4.0,1.0,0.0,0.0,4.0,8.333333,,,,,,,,11.0,0.0,0.066858,-0.5688479999999999,0.350586,0.740967,0.908217,-0.441413,-0.11133,-0.046692000000000004,-0.055470000000000005,-0.019542,,,,,,,,,,,,,,,,,,,,,,,,,,,,,,,,,,,,,,,,,,,,,,,,,,,,,,,,,,,,,,,,,
11018,1650415498.2541132,1650415498.27031,23.0,0.0,4322.05127,4890.769043,4349.743652,4287.179688,3818.461426,0.0,3.0,68.0,,,,0.0,4.0,1.0,0.0,0.0,4.0,8.333333,,,,,,,,,,,,,,,,,,,,,,,,,,,,,,,,,,,,,,,,,,,,,,,,,,,,,,,,,,,,,,,,,,,,,,,,,,,,,,,,,,,,
11019,1650415498.261927,1650415498.278025,24.0,0.0,4337.94873,4925.641113000001,4338.461426,4288.717772999999,3814.8718259999996,0.0,3.0,68.0,,,,0.0,4.0,1.0,0.0,0.0,4.0,8.333333,,,,,,,,12.0,0.0,0.067483,-0.569092,0.350586,0.7407229999999999,0.8955209999999999,-0.442878,-0.109377,-0.046613,-0.05549,-0.020713,,,,,,,,,,,,,,,,,,,,,,,,,,,,,,,,,,,,,,,,,,,,,,,,,,,,,,,,,,,,,,,,,
11020,1650415498.269742,1650415498.285839,25.0,0.0,4326.153809,4834.871582,4313.846191,4280.512695,3866.6667479999996,0.0,3.0,68.0,,,,0.0,4.0,1.0,0.0,0.0,4.0,8.333333,,,,,,,,,,,,,,,,,,,,1.0,0.0,0.0,,,,,,,,,,,,,,,,,,,,,,,,,,,,,,,,0.0,0.0,1.0,0.0,512.0,1.0,11.672715,12.01862,9.18853,7.578311,9.180135,358.22525,59.104877,33.815796,25.151502999999998,14.476738000000001,12.803355,13.969094,6.549619,3.5300260000000003,6.189936,9.251746,13.73647,10.888079,7.775702000000001,9.117389999999999,219.23998999999998,61.849906999999995,14.068279,9.232889,10.956406
11021,1650415498.277556,1650415498.2935538,26.0,0.0,4334.871582,4756.922852000001,4308.717772999999,4281.538574,3874.8718259999996,0.0,3.0,68.0,,,,0.0,4.0,1.0,0.0,0.0,4.0,8.333333,,,,,,,,13.0,0.0,0.066202,-0.569092,0.35083000000000003,0.7407229999999999,0.908217,-0.46045600000000003,-0.109865,-0.046541,-0.05550700000000001,-0.021669,,,,,,,,,,,,,,,,,,,,,,,,,,,,,,,,,,,,,,,,,,,,,,,,,,,,,,,,,,,,,,,,,
11022,1650415498.285371,1650415498.301369,27.0,0.0,4350.769043,4786.666504,4325.128418,4283.589844,3854.8718259999996,0.0,3.0,68.0,,,,0.0,4.0,1.0,0.0,0.0,4.0,8.333333,,,,,,,,,,,,,,,,,,,,,,,,,,,,,,,,,,,,,,,,,,,,,,,,,,,,,,,,,,,,,,,,,,,,,,,,,,,,,,,,,,,,
11023,1650415498.293186,1650415498.309084,28.0,0.0,4332.820313,4788.717772999999,4328.717772999999,4286.666504,3853.8461909999996,0.0,3.0,68.0,,,,0.0,4.0,1.0,0.0,0.0,4.0,8.333333,,,,,,,,14.0,0.0,0.066202,-0.569092,0.35083000000000003,0.7407229999999999,0.8964979999999999,-0.43213500000000005,-0.09765800000000001,-0.046624,-0.055523,-0.016377000000000003,,,,,,,,,,,,,,,,,,,,,,,,,,,,,,,,,,,,,,,,,,,,,,,,,,,,,,,,,,,,,,,,,
11024,1650415498.301,1650415498.316998,29.0,0.0,4322.563965,4798.974121,4287.179688,4289.743652,3851.281982,0.0,3.0,68.0,,,,0.0,4.0,1.0,0.0,0.0,4.0,8.333333,,,,,,,,,,,,,,,,,,,,,,,,,,,,,,,,,,,,,,,,,,,,,,,,,,,,,,0.0,0.0,1.0,0.0,512.0,1.0,,,,,,,,,,,,,,,,,,,,,,,,,
11025,1650415498.308815,1650415498.3248131,30.0,0.0,4331.794922,4856.922852000001,4265.641113000001,4285.641113000001,3873.3332520000004,0.0,3.0,68.0,,,,0.0,4.0,1.0,0.0,0.0,4.0,8.333333,,,,,,,,15.0,0.0,0.067483,-0.569092,0.350586,0.7407229999999999,0.8964979999999999,-0.435554,-0.107912,-0.0466,-0.055537,-0.017863999999999998,,,,,,,,,,,,,,,,,,,,,,,,,,,,,,,,,,,,,,,,,,,,,,,,,,,,,,,,,,,,,,,,,
11026,1650415498.316629,1650415498.332727,31.0,0.0,4339.487305,4820.0,4308.717772999999,4284.102539,3879.487061,0.0,3.0,68.0,,,,0.0,4.0,1.0,0.0,0.0,4.0,8.333333,,,,,,,,,,,,,,,,,,,,,,,,,,,,,,,,,,,,,,,,,,,,,,,,,,,,,,,,,,,,,,,,,,,,,,,,,,,,,,,,,,,,
11027,1650415498.324444,1650415498.340542,32.0,0.0,4344.615234000001,4758.974121,4325.128418,4289.230957,3870.7692869999996,0.0,3.0,68.0,,,,0.0,4.0,1.0,0.0,0.0,4.0,8.333333,,,,,,,,16.0,0.0,0.06539099999999999,-0.569336,0.350586,0.7407229999999999,0.9004040000000001,-0.43653000000000003,-0.09765800000000001,-0.046676,-0.05555,-0.019154,,,,,,,,,,,,,,,,,,,,,,,,,,,,,,,,,,,,,,,,,,,,,,,,,,,,,,,,,,,,,,,,,
11028,1650415498.332258,1650415498.348357,33.0,0.0,4357.436035,4784.102539,4313.333496,4289.230957,3896.923096,0.0,3.0,68.0,,,,0.0,4.0,1.0,0.0,0.0,4.0,8.333333,,,,,,,,,,,,,,,,,,,,,,,,,,,,,,,,,,,,,,,,,,,,,,,,,,,,,,0.0,0.0,1.0,0.0,512.0,1.0,,,,,,,,,,,,,,,,,,,,,,,,,
11029,1650415498.340073,1650415498.356071,34.0,0.0,4373.846191,4793.333496,4312.307617,4286.153809,3898.974365,0.0,3.0,68.0,,,,0.0,4.0,1.0,0.0,0.0,4.0,8.333333,,,,,,,,17.0,0.0,0.06539099999999999,-0.569336,0.350586,0.7407229999999999,0.9004040000000001,-0.44776099999999996,-0.1084,-0.046696,-0.05561,-0.020266,,,,,,,,,,,,,,,,,,,,,,,,,,,,,,,,,,,,,,,,,,,,,,,,,,,,,,,,,,,,,,,,,
11030,1650415498.3478868,1650415498.363986,35.0,0.0,4347.692383,4778.461426,4316.410156,4286.666504,3871.794922,0.0,3.0,68.0,,,,0.0,4.0,1.0,0.0,0.0,4.0,8.333333,,,,,,,,,,,,,,,,,,,,,,,,,,,,,,,,,,,,,,,,,,,,,,,,,,,,,,,,,,,,,,,,,,,,,,,,,,,,,,,,,,,,
11031,1650415498.355702,1650415498.3718,36.0,0.0,4330.769043,4800.0,4338.461426,4287.692383,3855.897461,0.0,3.0,68.0,,,,0.0,4.0,1.0,0.0,0.0,4.0,8.333333,,,,,,,,18.0,0.0,0.06539099999999999,-0.569336,0.350586,0.7407229999999999,0.906752,-0.433112,-0.113283,-0.045201,-0.055567,-0.021266999999999998,,,,,,,,,,,,,,,,,,,,,,,,,,,,,,,,,,,,,,,,,,,,,,,,,,,,,,,,,,,,,,,,,
11032,1650415498.363516,1650415498.379715,37.0,0.0,4358.974121,4848.205078,4335.384765999999,4288.205078,3852.3076170000004,0.0,3.0,68.0,,,,0.0,4.0,1.0,0.0,0.0,4.0,8.333333,,,,,,,,,,,,,,,,,,,,,,,,,,,,,,,,,,,,,,,,,,,,,,,,,,,,,,0.0,0.0,1.0,0.0,512.0,1.0,,,,,,,,,,,,,,,,,,,,,,,,,
11033,1650415498.371331,1650415498.38753,38.0,0.0,4347.179688,4885.128418,4329.743652,4288.205078,3887.179443,0.0,3.0,68.0,,,,0.0,4.0,1.0,0.0,0.0,4.0,8.333333,,,,,,,,19.0,0.0,0.06539099999999999,-0.569336,0.350586,0.7407229999999999,0.9087049999999999,-0.441413,-0.11523599999999999,-0.04527,-0.055527999999999994,-0.022167,,,,,,,,,,,,,,,,,,,,,,,,,,,,,,,,,,,,,,,,,,,,,,,,,,,,,,,,,,,,,,,,,
11034,1650415498.379146,1650415498.395444,39.0,0.0,4335.897461,4821.538574,4347.179688,4287.692383,3906.6667479999996,0.0,3.0,68.0,,,,0.0,4.0,1.0,0.0,0.0,4.0,8.333333,,,,,,,,,,,,,,,,,,,,,,,,,,,,,,,,,,,,,,,,,,,,,,,,,,,,,,,,,,,,,,,,,,,,,,,,,,,,,,,,,,,,
11035,1650415498.38696,1650415498.403259,40.0,0.0,4380.0,4770.769043,4298.461426,4288.205078,3880.0,0.0,3.0,68.0,,,,0.0,4.0,1.0,0.0,0.0,4.0,8.333333,,,,,,,,20.0,0.0,0.06539099999999999,-0.569336,0.350586,0.7407229999999999,0.894057,-0.447272,-0.101076,-0.045382,-0.055541999999999994,-0.023125,,,,,,,,,,,,,,,,,,,,,,,,,,,,,,,,,,,,,,,,,,,,,,,,,,,,,,,,,,,,,,,,,
11036,1650415498.394775,1650415498.411173,41.0,0.0,4353.846191,4871.282227000001,4279.487305,4290.769043,3916.4101560000004,0.0,3.0,68.0,,,,0.0,4.0,1.0,0.0,0.0,4.0,8.333333,,,,,,,,,,,,,,,,,,,,1.0,0.0,0.0,,,,,,,,,,,,,,,,,,,,,,,,,,,,,,,,0.0,0.0,1.0,0.0,512.0,1.0,7.46465,9.264428,9.803291999999999,6.672130999999999,8.39535,197.6763,63.313786,32.593384,20.773155,13.891983999999999,9.984366,10.826323,5.27642,2.552538,4.392395,7.0505119999999994,12.08268,10.405178,6.065079,7.41015,111.19986000000002,30.655361,10.523444999999999,6.0663860000000005,10.417773
11037,1650415498.402589,1650415498.418988,42.0,0.0,4305.128418,4879.487305,4352.307617,4287.692383,3940.0,0.0,3.0,68.0,,,,0.0,4.0,1.0,0.0,0.0,4.0,8.333333,,,,,,,,21.0,0.0,0.06539099999999999,-0.569336,0.350586,0.7407229999999999,0.905776,-0.438483,-0.10254100000000001,-0.045482999999999996,-0.055505,-0.020763,,,,,,,,,,,,,,,,,,,,,,,,,,,,,,,,,,,,,,,,,,,,,,,,,,,,,,,,,,,,,,,,,
11038,1650415498.410404,1650415498.426903,43.0,0.0,4342.05127,4802.563965,4337.94873,4284.615234000001,3870.7692869999996,0.0,3.0,68.0,,,,0.0,4.0,1.0,0.0,0.0,4.0,8.333333,,,,,,,,,,,,,,,,,,,,,,,,,,,,,,,,,,,,,,,,,,,,,,,,,,,,,,,,,,,,,,,,,,,,,,,,,,,,,,,,,,,,
11039,1650415498.418218,1650415498.434717,44.0,0.0,4340.512695,4834.358886999999,4302.05127,4296.410156,3877.4357909999994,0.0,3.0,68.0,,,,0.0,4.0,1.0,0.0,0.0,4.0,8.333333,,,,,,,,22.0,0.0,0.06539099999999999,-0.569336,0.350586,0.7407229999999999,0.8955209999999999,-0.440436,-0.109865,-0.045573,-0.05557,-0.021713999999999997,,,,,,,,,,,,,,,,,,,,,,,,,,,,,,,,,,,,,,,,,,,,,,,,,,,,,,,,,,,,,,,,,
11040,1650415498.426033,1650415498.442532,45.0,0.0,4322.563965,4842.563965,4341.538574,4289.743652,3910.7692869999996,0.0,3.0,68.0,,,,0.0,4.0,1.0,0.0,0.0,4.0,8.333333,,,,,,,,,,,,,,,,,,,,,,,,,,,,,,,,,,,,,,,,,,,,,,,,,,,,,,0.0,0.0,1.0,0.0,512.0,1.0,,,,,,,,,,,,,,,,,,,,,,,,,
11041,1650415498.4338472,1650415498.450247,46.0,0.0,4369.230957,4804.615234000001,4306.153809,4260.512695,3864.102539,0.0,3.0,68.0,,,,0.0,4.0,1.0,0.0,0.0,4.0,8.333333,,,,,,,,23.0,0.0,0.06539099999999999,-0.569336,0.350586,0.7407229999999999,0.8994280000000001,-0.43408900000000006,-0.103029,-0.045655,-0.055482000000000004,-0.022619,,,,,,,,,,,,,,,,,,,,,,,,,,,,,,,,,,,,,,,,,,,,,,,,,,,,,,,,,,,,,,,,,
11042,1650415498.4416618,1650415498.458061,47.0,0.0,4368.717772999999,4831.794922,4277.436035,4263.077147999999,3869.743652,0.0,3.0,68.0,,,,0.0,4.0,1.0,0.0,0.0,4.0,8.333333,,,,,,,,,,,,,,,,,,,,,,,,,,,,,,,,,,,,,,,,,,,,,,,,,,,,,,,,,,,,,,,,,,,,,,,,,,,,,,,,,,,,
11043,1650415498.449476,1650415498.4658759,48.0,0.0,4334.358886999999,4813.846191,4327.179688,4287.692383,3903.5898439999996,0.0,3.0,68.0,,,,0.0,4.0,1.0,0.0,0.0,4.0,8.333333,,,,,,,,24.0,0.0,0.066687,-0.569336,0.350342,0.7407229999999999,0.901869,-0.43897200000000003,-0.098634,-0.045728,-0.055402,-0.023482,,,,,,,,,,,,,,,,,,,,,,,,,,,,,,,,,,,,,,,,,,,,,,,,,,,,,,,,,,,,,,,,,
11044,1650415498.4572911,1650415498.473591,49.0,0.0,4327.179688,4797.436035,4304.102539,4297.94873,3894.8718259999996,0.0,3.0,68.0,,,,0.0,4.0,1.0,0.0,0.0,4.0,8.333333,,,,,,,,,,,,,,,,,,,,,,,,,,,,,,,,,,,,,,,,,,,,,,,,,,,,,,0.0,0.0,1.0,0.0,512.0,1.0,,,,,,,,,,,,,,,,,,,,,,,,,
11045,1650415498.465105,1650415498.481405,50.0,0.0,4319.487305,4902.563965,4294.358886999999,4310.256348,3909.743652,0.0,3.0,68.0,,,,0.0,4.0,1.0,0.0,0.0,4.0,8.333333,,,,,,,,25.0,0.0,0.066687,-0.569336,0.350342,0.7407229999999999,0.904799,-0.425299,-0.104494,-0.045794,-0.055429,-0.021036000000000003,,,,,,,,,,,,,,,,,,,,,,,,,,,,,,,,,,,,,,,,,,,,,,,,,,,,,,,,,,,,,,,,,
11046,1650415498.47292,1650415498.48912,51.0,0.0,4347.179688,4924.615234000001,4337.94873,4304.615234000001,3911.281982,0.0,3.0,68.0,,,,0.0,4.0,1.0,0.0,0.0,4.0,8.333333,,,,,,,,,,,,,,,,,,,,,,,,,,,,,,,,,,,,,,,,,,,,,,,,,,,,,,,,,,,,,,,,,,,,,,,,,,,,,,,,,,,,
11047,1650415498.4807339,1650415498.496935,52.0,0.0,4371.794922,4884.615234000001,4301.538574,4271.282227000001,3882.0512700000004,0.0,3.0,68.0,,,,0.0,4.0,1.0,0.0,0.0,4.0,8.333333,,,,,,,,26.0,0.0,0.06539099999999999,-0.569336,0.350586,0.7407229999999999,0.8994280000000001,-0.43408900000000006,-0.103029,-0.045853,-0.055354999999999994,-0.022009,,,,,,,,,,,,,,,,,,,,,,,,,,,,,,,,,,,,,,,,,,,,,,,,,,,,,,,,,,,,,,,,,
11048,1650415498.488549,1650415498.504649,53.0,0.0,4307.179688,4932.307617,4294.358886999999,4273.333496,3885.1281740000004,0.0,3.0,68.0,,,,0.0,4.0,1.0,0.0,0.0,4.0,8.333333,,,,,,,,,,,,,,,,,,,,,,,,,,,,,,,,,,,,,,,,,,,,,,,,,,,,,,0.0,0.0,1.0,0.0,512.0,1.0,,,,,,,,,,,,,,,,,,,,,,,,,
11049,1650415498.496364,1650415498.512464,54.0,0.0,4285.641113000001,4912.820313,4335.384765999999,4295.897461,3889.2307130000004,0.0,3.0,68.0,,,,0.0,4.0,1.0,0.0,0.0,4.0,8.333333,,,,,,,,27.0,0.0,0.066687,-0.569336,0.350342,0.7407229999999999,0.904799,-0.425299,-0.104494,-0.045906999999999996,-0.055386000000000005,-0.01971,,,,,,,,,,,,,,,,,,,,,,,,,,,,,,,,,,,,,,,,,,,,,,,,,,,,,,,,,,,,,,,,,
11050,1650415498.504178,1650415498.5201788,55.0,0.0,4344.615234000001,4857.94873,4304.102539,4291.282227000001,3890.256348,0.0,3.0,68.0,,,,0.0,4.0,1.0,0.0,0.0,4.0,8.333333,,,,,,,,,,,,,,,,,,,,,,,,,,,,,,,,,,,,,,,,,,,,,,,,,,,,,,,,,,,,,,,,,,,,,,,,,,,,,,,,,,,,
11051,1650415498.511993,1650415498.5280929,56.0,0.0,4352.307617,4886.666504,4301.538574,4303.589844,3911.281982,0.0,3.0,68.0,,,,0.0,4.0,1.0,0.0,0.0,4.0,8.333333,,,,,,,,28.0,0.0,0.066687,-0.569336,0.350342,0.7407229999999999,0.9028459999999999,-0.435065,-0.10009900000000001,-0.046002999999999995,-0.055414,-0.020766999999999997,,,,,,,,,,,,,,,,,,,,,,,,,,,,,,,,,,,,,,,,,,,,,,,,,,,,,,,,,,,,,,,,,
11052,1650415498.519807,1650415498.535908,57.0,0.0,4363.589844,4921.538574,4325.641113000001,4282.05127,3915.897461,0.0,3.0,68.0,,,,0.0,4.0,1.0,0.0,0.0,4.0,8.333333,,,,,,,,,,,,,,,,,,,,1.0,0.0,0.0,,,,,,,,,,,,,,,,,,,,,,,,,,,,,,,,0.0,0.0,1.0,0.0,512.0,1.0,4.71176,6.677222,9.60008,5.71025,7.362559,112.559448,65.625519,29.650672999999998,16.799345000000002,13.696063,8.204206,8.167485000000001,3.920943,2.050268,3.34859,5.2432669999999995,9.539308,9.051909,4.409185,5.559238,48.077496000000004,13.376657000000002,8.01644,4.401187,9.671974
11053,1650415498.527622,1650415498.543723,58.0,0.0,4386.666504,4926.153809,4290.769043,4177.436035,3934.358887,0.0,3.0,68.0,,,,0.0,4.0,1.0,0.0,0.0,4.0,8.333333,,,,,,,,29.0,0.0,0.068739,-0.569092,0.350342,0.7407229999999999,0.914565,-0.4336,-0.11133,-0.046091,-0.055340999999999994,-0.018591999999999997,,,,,,,,,,,,,,,,,,,,,,,,,,,,,,,,,,,,,,,,,,,,,,,,,,,,,,,,,,,,,,,,,
11054,1650415498.535436,1650415498.551437,59.0,0.0,4365.641113000001,4898.974121,4321.025879,4172.820313,3946.6667479999996,0.0,3.0,68.0,,,,0.0,4.0,1.0,0.0,0.0,4.0,8.333333,,,,,,,,,,,,,,,,,,,,,,,,,,,,,,,,,,,,,,,,,,,,,,,,,,,,,,,,,,,,,,,,,,,,,,,,,,,,,,,,,,,,
11055,1650415498.543251,1650415498.559352,60.0,0.0,4368.717772999999,4848.205078,4350.769043,4288.717772999999,3890.256348,0.0,3.0,68.0,,,,0.0,4.0,1.0,0.0,0.0,4.0,8.333333,,,,,,,,30.0,0.0,0.068739,-0.569092,0.350342,0.7407229999999999,0.9043110000000001,-0.442878,-0.11767799999999999,-0.04612,-0.055276,-0.019712,,,,,,,,,,,,,,,,,,,,,,,,,,,,,,,,,,,,,,,,,,,,,,,,,,,,,,,,,,,,,,,,,
11056,1650415498.551065,1650415498.567167,61.0,0.0,4364.615234000001,4900.0,4282.05127,4314.358886999999,3895.897461,0.0,3.0,68.0,,,,0.0,4.0,1.0,0.0,0.0,4.0,8.333333,,,,,,,,,,,,,,,,,,,,,,,,,,,,,,,,,,,,,,,,,,,,,,,,,,,,,,0.0,0.0,1.0,0.0,512.0,1.0,,,,,,,,,,,,,,,,,,,,,,,,,
11057,1650415498.55888,1650415498.575081,62.0,0.0,4332.820313,4963.589844,4304.102539,4268.717772999999,3969.2307130000004,0.0,3.0,68.0,,,,0.0,4.0,1.0,0.0,0.0,4.0,8.333333,,,,,,,,31.0,0.0,0.067483,-0.569092,0.350586,0.7407229999999999,0.900893,-0.451667,-0.101076,-0.046098,-0.055412,-0.017692,,,,,,,,,,,,,,,,,,,,,,,,,,,,,,,,,,,,,,,,,,,,,,,,,,,,,,,,,,,,,,,,,
11058,1650415498.566694,1650415498.582896,63.0,0.0,4370.256348,4858.461426,4352.307617,4294.871582,3952.820557,0.0,3.0,68.0,,,,0.0,4.0,1.0,0.0,0.0,4.0,8.333333,,,,,,,,,,,,,,,,,,,,,,,,,,,,,,,,,,,,,,,,,,,,,,,,,,,,,,,,,,,,,,,,,,,,,,,,,,,,,,,,,,,,
11059,1650415498.574509,1650415498.59081,64.0,0.0,4383.589844,4791.282227000001,4294.871582,4315.897461,3924.102539,450.0,3.0,68.0,,,,0.0,4.0,1.0,0.0,0.0,4.0,8.333333,,,,,,,,32.0,0.0,0.067483,-0.569092,0.350586,0.7407229999999999,0.9052870000000001,-0.440436,-0.107424,-0.046176,-0.05534,-0.015825,,,,,,,,,,,,,,,,,,,,,,,,,,,,,,,,,,,,,,,,,,,,,,,,,,,,,,,,,,,,,,,,,
11060,1650415498.582323,1650415498.598625,65.0,0.0,4320.512695,4836.922852000001,4288.717772999999,4289.743652,3939.487061,450.0,3.0,68.0,,,,0.0,4.0,1.0,0.0,0.0,4.0,8.333333,,,,,,,,,,,,,,,,,,,,,,,,,,,,,,,,,,,,,,,,,,,,,,,,,,,,,,0.0,0.0,1.0,0.0,512.0,1.0,,,,,,,,,,,,,,,,,,,,,,,,,
11061,1650415498.5901382,1650415498.60654,66.0,0.0,4334.871582,4833.846191,4312.820313,4301.025879,3917.9487299999996,16365.0,3.0,68.0,,,,0.0,4.0,1.0,0.0,0.0,4.0,8.333333,,,,,,,,33.0,0.0,0.069511,-0.5688479999999999,0.350586,0.7407229999999999,0.9091940000000001,-0.433112,-0.100587,-0.046099,-0.055324,-0.017366999999999997,,,,,,,,,,,,,,,,,,,,,,,,,,,,,,,,,,,,,,,,,,,,,,,,,,,,,,,,,,,,,,,,,
11062,1650415498.597952,1650415498.614354,67.0,0.0,4378.974121,4828.205078,4295.897461,4315.897461,3902.5642090000006,450.0,3.0,68.0,,,,0.0,4.0,1.0,0.0,0.0,4.0,8.333333,,,,,,,,,,,,,,,,,,,,,,,,,,,,,,,,,,,,,,,,,,,,,,,,,,,,,,,,,,,,,,,,,,,,,,,,,,,,,,,,,,,,
11063,1650415498.605767,1650415498.622169,68.0,0.0,4358.461426,4829.743652,4307.692383,4299.487305,3921.025635,256.0,3.0,68.0,,,,0.0,4.0,2.0,0.0,0.0,4.0,16.666666,,,,,,,,34.0,0.0,0.068268,-0.5688479999999999,0.35083000000000003,0.7407229999999999,0.906752,-0.446784,-0.11230599999999999,-0.046176999999999996,-0.055358000000000004,-0.018658,,,,,,,,,,,,,,,,,,,,,,,,,,,,,,,,,,,,,,,,,,,,,,,,,,,,,,,,,,,,,,,,,
11064,1650415498.6135821,1650415498.629983,69.0,0.0,4355.897461,4797.94873,4309.743652,4297.436035,3944.615479,450.0,3.0,68.0,,,,0.0,4.0,2.0,0.0,0.0,4.0,16.666666,,,,,,,,,,,,,,,,,,,,,,,,,,,,,,,,,,,,,,,,,,,,,,,,,,,,,,0.0,0.0,1.0,0.0,512.0,1.0,,,,,,,,,,,,,,,,,,,,,,,,,
11065,1650415498.621396,1650415498.637898,70.0,0.0,4370.256348,4807.692383,4324.102539,4303.589844,3965.641113,16249.0,3.0,68.0,,,,0.0,4.0,2.0,4.0,0.0,4.0,50.0,,,,,,,,35.0,0.0,0.068268,-0.5688479999999999,0.35083000000000003,0.7407229999999999,0.9077290000000001,-0.437507,-0.11084200000000001,-0.0461,-0.055388,-0.016743,,,,,,,,,,,,,,,,,,,,,,,,,,,,,,,,,,,,,,,,,,,,,,,,,,,,,,,,,,,,,,,,,
11066,1650415498.629211,1650415498.645713,71.0,0.0,4356.922852000001,4797.94873,4360.0,4307.179688,3940.0,450.0,3.0,68.0,,,,0.0,4.0,2.0,4.0,0.0,4.0,50.0,,,,,,,,,,,,,,,,,,,,,,,,,,,,,,,,,,,,,,,,,,,,,,,,,,,,,,,,,,,,,,,,,,,,,,,,,,,,,,,,,,,,
11067,1650415498.637025,1650415498.653427,72.0,0.0,4353.333496,4713.846191,4313.333496,4325.641113000001,3928.718018,450.0,3.0,68.0,,,,0.0,4.0,2.0,4.0,0.0,4.0,50.0,,,,,,,,36.0,0.0,0.068268,-0.5688479999999999,0.35083000000000003,0.7407229999999999,0.910658,-0.440925,-0.10547000000000001,-0.046032,-0.05531799999999999,-0.018047999999999998,,,,,,,,,,,,,,,,,,,,,,,,,,,,,,,,,,,,,,,,,,,,,,,,,,,,,,,,,,,,,,,,,
11068,1650415498.64484,1650415498.661242,73.0,0.0,4363.077147999999,4692.307617,4294.871582,4273.846191,3972.3076170000004,0.0,3.0,68.0,,,,0.0,4.0,2.0,4.0,0.0,4.0,50.0,1.0,0.0,1.0,0.0,0.0,0.0,0.0,,,,,,,,,,,,,1.0,0.0,0.0,,,,,,,,,,,,,,,,,,,,,,,,,,,,,,,,0.0,0.0,1.0,0.0,512.0,1.0,3.275075,4.666989,8.572581,4.851413,6.256198,87.413788,65.765984,25.058011999999998,13.862829000000001,13.280655,7.359746,6.369697,2.732224,1.9956450000000001,2.895542,3.758468,6.664556,7.087452000000001,2.9786610000000002,3.8724540000000003,17.655563,6.429688,6.240566,3.6382449999999995,8.557400999999999
11069,1650415498.652654,1650415498.668957,74.0,0.0,4374.871582,4729.230957,4354.871582,4182.05127,3954.358887,450.0,3.0,68.0,,,,0.0,4.0,2.0,4.0,0.0,4.0,50.0,,,,,,,,37.0,0.0,0.068268,-0.5688479999999999,0.35083000000000003,0.7407229999999999,0.8964979999999999,-0.45215500000000003,-0.104005,-0.044601999999999996,-0.055304,-0.019221000000000002,,,,,,,,,,,,,,,,,,,,,,,,,,,,,,,,,,,,,,,,,,,,,,,,,,,,,,,,,,,,,,,,,
11070,1650415498.660469,1650415498.6767712,75.0,0.0,4382.563965,4722.563965,4327.692383,4215.897461,3929.2307130000004,16239.0,3.0,68.0,,,,0.0,4.0,2.0,4.0,0.0,4.0,50.0,,,,,,,,,,,,,,,,,,,,,,,,,,,,,,,,,,,,,,,,,,,,,,,,,,,,,,,,,,,,,,,,,,,,,,,,,,,,,,,,,,,,
11071,1650415498.668283,1650415498.684486,76.0,0.0,4366.666504,4673.333496,4303.077147999999,4304.102539,3966.1538090000004,450.0,3.0,68.0,,,,0.0,4.0,2.0,4.0,0.0,4.0,50.0,,,,,,,,38.0,0.0,0.068268,-0.5688479999999999,0.35083000000000003,0.7407229999999999,0.908217,-0.44238999999999995,-0.10498199999999999,-0.044781,-0.055242999999999993,-0.020424,,,,,,,,,,,,,,,,,,,,,,,,,,,,,,,,,,,,,,,,,,,,,,,,,,,,,,,,,,,,,,,,,
11072,1650415498.676098,1650415498.692301,77.0,0.0,4351.282227000001,4627.179688,4334.871582,4294.358886999999,3942.5642090000006,450.0,3.0,68.0,,,,0.0,4.0,2.0,4.0,0.0,4.0,50.0,,,,,,,,,,,,,,,,,,,,,,,,,,,,,,,,,,,,,,,,,,,,,,,,,,,,,,0.0,0.0,1.0,0.0,512.0,1.0,,,,,,,,,,,,,,,,,,,,,,,,,
11073,1650415498.6839118,1650415498.700016,78.0,0.0,4333.846191,4657.94873,4284.102539,4263.589844,3923.076904,450.0,3.0,68.0,,,,0.0,4.0,2.0,4.0,0.0,4.0,50.0,,,,,,,,39.0,0.0,0.067483,-0.569092,0.350586,0.7407229999999999,0.9072399999999999,-0.44531899999999996,-0.099611,-0.044941,-0.055236,-0.021458,,,,,,,,,,,,,,,,,,,,,,,,,,,,,,,,,,,,,,,,,,,,,,,,,,,,,,,,,,,,,,,,,
11074,1650415498.691727,1650415498.70793,79.0,0.0,4332.307617,4693.333496,4280.0,4286.153809,3967.179443,16239.0,3.0,68.0,,,,0.0,4.0,2.0,4.0,0.0,4.0,50.0,,,,,,,,,,,,,,,,,,,,,,,,,,,,,,,,,,,,,,,,,,,,,,,,,,,,,,,,,,,,,,,,,,,,,,,,,,,,,,,,,,,,
11075,1650415498.699541,1650415498.715745,80.0,0.0,4386.153809,4645.641113000001,4329.743652,4287.692383,3958.974365,450.0,3.0,68.0,,,,0.0,4.0,2.0,4.0,0.0,4.0,50.0,,,,,,,,40.0,0.0,0.067483,-0.569092,0.350586,0.7407229999999999,0.8955209999999999,-0.44531899999999996,-0.099123,-0.045037,-0.055229999999999994,-0.022389,,,,,,,,,,,,,,,,,,,,,,,,,,,,,,,,,,,,,,,,,,,,,,,,,,,,,,,,,,,,,,,,,
11076,1650415498.707356,1650415498.723659,81.0,0.0,4392.307617,4647.692383,4293.333496,4278.461426,3971.794922,450.0,3.0,68.0,,,,0.0,4.0,2.0,4.0,0.0,4.0,50.0,,,,,,,,,,,,,,,,,,,,,,,,,,,,,,,,,,,,,,,,,,,,,,,,,,,,,,0.0,0.0,1.0,0.0,512.0,1.0,,,,,,,,,,,,,,,,,,,,,,,,,
