,Timestamp,OriginalTimestamp,EEG.Counter,EEG.Interpolated,EEG.AF3,EEG.T7,EEG.Pz,EEG.T8,EEG.AF4,EEG.RawCq,EEG.Battery,EEG.BatteryPercent,MarkerIndex,MarkerType,MarkerValueInt,EEG.MarkerHardware,CQ.AF3,CQ.T7,CQ.Pz,CQ.T8,CQ.AF4,CQ.Overall,EQ.SampleRateQuality,EQ.OVERALL,EQ.AF3,EQ.T7,EQ.Pz,EQ.T8,EQ.AF4,MOT.CounterMems,MOT.InterpolatedMems,MOT.Q0,MOT.Q1,MOT.Q2,MOT.Q3,MOT.AccX,MOT.AccY,MOT.AccZ,MOT.MagX,MOT.MagY,MOT.MagZ,MC.Action,MC.ActionPower,MC.IsActive,PM.Engagement.IsActive,PM.Engagement.Scaled,PM.Engagement.Raw,PM.Engagement.Min,PM.Engagement.Max,PM.Excitement.IsActive,PM.Excitement.Scaled,PM.Excitement.Raw,PM.Excitement.Min,PM.Excitement.Max,PM.LongTermExcitement,PM.Stress.IsActive,PM.Stress.Scaled,PM.Stress.Raw,PM.Stress.Min,PM.Stress.Max,PM.Relaxation.IsActive,PM.Relaxation.Scaled,PM.Relaxation.Raw,PM.Relaxation.Min,PM.Relaxation.Max,PM.Interest.IsActive,PM.Interest.Scaled,PM.Interest.Raw,PM.Interest.Min,PM.Interest.Max,PM.Focus.IsActive,PM.Focus.Scaled,PM.Focus.Raw,PM.Focus.Min,PM.Focus.Max,FE.BlinkWink,FE.HorizontalEyesDirection,FE.UpperFaceAction,FE.UpperFaceActionPower,FE.LowerFaceAction,FE.LowerFaceActionPower,POW.AF3.Theta,POW.AF3.Alpha,POW.AF3.BetaL,POW.AF3.BetaH,POW.AF3.Gamma,POW.T7.Theta,POW.T7.Alpha,POW.T7.BetaL,POW.T7.BetaH,POW.T7.Gamma,POW.Pz.Theta,POW.Pz.Alpha,POW.Pz.BetaL,POW.Pz.BetaH,POW.Pz.Gamma,POW.T8.Theta,POW.T8.Alpha,POW.T8.BetaL,POW.T8.BetaH,POW.T8.Gamma,POW.AF4.Theta,POW.AF4.Alpha,POW.AF4.BetaL,POW.AF4.BetaH,POW.AF4.Gamma
7868,1650407628.2670991,1650407628.2605882,10.0,0.0,4356.410156,4692.307617,4300.512695,4275.897461,4376.922852000001,450.0,4.0,86.0,,,,0.0,4.0,0.0,0.0,0.0,4.0,0.0,,,,,,,,5.0,0.0,0.25496199999999997,-0.432129,0.539063,0.6765140000000001,0.8740370000000001,-0.510262,-0.045411,-0.034059,-0.037380000000000004,-0.015431,,,,,,,,,,,,,,,,,,,,,,,,,,,,,,,,,,,0.0,0.0,1.0,0.0,512.0,0.566232,,,,,,,,,,,,,,,,,,,,,,,,,
7869,1650407628.274913,1650407628.2684028,11.0,0.0,4336.410156,4667.692383,4286.666504,4276.410156,4355.384765999999,16221.0,4.0,86.0,,,,0.0,4.0,0.0,0.0,0.0,4.0,0.0,,,,,,,,,,,,,,,,,,,,,,,,,,,,,,,,,,,,,,,,,,,,,,,,,,,,,,,,,,,,,,,,,,,,,,,,,,,,,,,,,,,,
7870,1650407628.282728,1650407628.276117,12.0,0.0,4348.205078,4701.025879,4241.025879,4278.461426,4370.769043,450.0,4.0,86.0,,,,0.0,4.0,0.0,0.0,0.0,4.0,0.0,,,,,,,,6.0,0.0,0.255064,-0.43237299999999995,0.538818,0.6765140000000001,0.8657360000000001,-0.516609,-0.041505,-0.034022000000000004,-0.037353,-0.017159,,,,,,,,,,,,,,,,,,,,,,,,,,,,,,,,,,,,,,,,,,,,,,,,,,,,,,,,,,,,,,,,,
7871,1650407628.290543,1650407628.283932,13.0,0.0,4350.256348,4684.102539,4253.846191,4279.487305,4385.128418,450.0,4.0,86.0,,,,0.0,4.0,0.0,0.0,0.0,4.0,0.0,,,,,,,,,,,,,,,,,,,,,,,,,,,,,,,,,,,,,,,,,,,,,,,,,,,,,,,,,,,,,,,,,,,,,,,,,,,,,,,,,,,,
7872,1650407628.298357,1650407628.291646,14.0,0.0,4346.153809,4605.641113000001,4212.307617,4280.512695,4381.025879,450.0,4.0,86.0,,,,0.0,4.0,0.0,0.0,0.0,4.0,0.0,,,,,,,,7.0,0.0,0.255297,-0.43261700000000003,0.538818,0.6762699999999999,0.8652479999999999,-0.5141680000000001,-0.032227,-0.03394,-0.037328,-0.018764,,,,,,,,,,,,,,,,,,,,,,,,,,,,,,,,,,,0.0,0.0,1.0,0.0,512.0,0.566232,,,,,,,,,,,,,,,,,,,,,,,,,
7873,1650407628.3061721,1650407628.29946,15.0,0.0,4340.512695,4613.846191,4171.282227000001,4280.512695,4350.769043,16221.0,4.0,86.0,,,,0.0,4.0,0.0,0.0,0.0,4.0,0.0,,,,,,,,,,,,,,,,,,,,,,,,,,,,,,,,,,,,,,,,,,,,,,,,,,,,,,,,,,,,,,,,,,,,,,,,,,,,,,,,,,,,
7874,1650407628.3139858,1650407628.307275,16.0,0.0,4343.077147999999,4642.05127,4170.256348,4276.922852000001,4342.563965,0.0,4.0,86.0,,,,0.0,4.0,0.0,0.0,0.0,4.0,0.0,,,,,,,,8.0,0.0,0.25488299999999997,-0.43286099999999994,0.538818,0.6762699999999999,0.861341,-0.515145,-0.041016000000000004,-0.033867,-0.037404,-0.016692,,,,,,,,,,,,,,,,,,,,,,,,,,,,,,,,,,,,,,,,,,,,,,,,,,,,,,,,,,,,,,,,,
7875,1650407628.321801,1650407628.314989,17.0,0.0,4333.333496,4589.230957,4141.025879,4274.871582,4332.820313,0.0,4.0,86.0,,,,0.0,4.0,0.0,0.0,0.0,4.0,0.0,,,,,,,,,,,,,,,,,,,,,,,,,,,,,,,,,,,,,,,,,,,,,,,,,,,,,,,,,,,,,,,,,,,,,,,,,,,,,,,,,,,,
7876,1650407628.329615,1650407628.322804,18.0,0.0,4352.307617,4615.384765999999,4181.025879,4279.487305,4341.538574,0.0,4.0,86.0,,,,0.0,4.0,0.0,0.0,0.0,4.0,0.0,,,,,,,,9.0,0.0,0.254984,-0.433105,0.538574,0.6762699999999999,0.859876,-0.5141680000000001,-0.038575,-0.033849000000000004,-0.037472000000000005,-0.018441,,,,,,,,,,,,,,,,,,,,,,,,,,,,,,,,,,,0.0,0.0,1.0,0.0,512.0,0.566232,,,,,,,,,,,,,,,,,,,,,,,,,
7877,1650407628.33743,1650407628.330618,19.0,0.0,4332.820313,4757.436035,4264.615234000001,4279.487305,4331.282227000001,0.0,4.0,86.0,,,,0.0,4.0,0.0,0.0,0.0,4.0,0.0,,,,,,,,,,,,,,,,,,,,,,,,,,,,,,,,,,,,,,,,,,,,,,,,,,,,,,,,,,,,,,,,,,,,,,,,,,,,,,,,,,,,
7878,1650407628.345245,1650407628.338333,20.0,0.0,4304.102539,4794.871582,4240.512695,4274.871582,4318.974121,0.0,4.0,86.0,,,,0.0,4.0,0.0,0.0,0.0,4.0,0.0,,,,,,,,10.0,0.0,0.254984,-0.433105,0.538574,0.6762699999999999,0.859876,-0.515145,-0.027344,-0.033833999999999996,-0.037387000000000004,-0.019966,,,,,,,,,,,,,,,,,,,,,,,,,,,,,,,,,,,,,,,,,,,,,,,,,,,,,,,,,,,,,,,,,
7879,1650407628.353059,1650407628.3460472,21.0,0.0,4340.512695,4690.769043,4184.615234000001,4280.512695,4351.282227000001,0.0,4.0,86.0,,,,0.0,4.0,0.0,0.0,0.0,4.0,0.0,,,,,,,,,,,,,,,,,,,,,,,,,,,,,,,,,,,,,,,,,,,,,,,,,,,,,,,,,,,,,,,,,,,,,,,,,,,,,,,,,,,,
7880,1650407628.360874,1650407628.3538618,22.0,0.0,4338.974121,4639.487305,4270.769043,4281.538574,4344.102539,0.0,4.0,86.0,,,,0.0,4.0,0.0,0.0,0.0,4.0,0.0,1.0,0.0,4.0,0.0,0.0,0.0,4.0,11.0,0.0,0.255499,-0.433105,0.53833,0.6762699999999999,0.873549,-0.508309,-0.031738999999999996,-0.033819,-0.037360000000000004,-0.017872,1.0,0.0,0.0,,,,,,,,,,,,,,,,,,,,,,,,,,,,,,,,0.0,0.0,1.0,0.0,512.0,0.526026,1.320525,0.7614390000000001,1.685966,1.459651,1.8452490000000001,53.824177,25.13139,19.401201,17.099295,22.383703,30.053549,29.366771999999997,5.417036,6.632289999999999,6.924726,0.023956,0.031776,0.033236,0.032677,0.025887,1.507312,1.9930189999999999,1.363392,1.235108,1.490077
7881,1650407628.368688,1650407628.361676,23.0,0.0,4297.94873,4683.077147999999,4273.333496,4274.871582,4308.717772999999,0.0,4.0,86.0,,,,0.0,4.0,0.0,0.0,0.0,4.0,0.0,,,,,,,,,,,,,,,,,,,,,,,,,,,,,,,,,,,,,,,,,,,,,,,,,,,,,,,,,,,,,,,,,,,,,,,,,,,,,,,,,,,,
7882,1650407628.376503,1650407628.369391,24.0,0.0,4292.820313,4689.230957,4225.641113000001,4273.846191,4302.563965,0.0,4.0,86.0,,,,0.0,4.0,0.0,0.0,0.0,4.0,0.0,,,,,,,,12.0,0.0,0.255499,-0.433105,0.53833,0.6762699999999999,0.867201,-0.522469,-0.044923000000000005,-0.033904000000000004,-0.037335,-0.019405000000000002,,,,,,,,,,,,,,,,,,,,,,,,,,,,,,,,,,,,,,,,,,,,,,,,,,,,,,,,,,,,,,,,,
7883,1650407628.3843179,1650407628.3772051,25.0,0.0,4322.563965,4632.820313,4211.794922,4277.436035,4334.871582,0.0,4.0,86.0,,,,0.0,4.0,0.0,0.0,0.0,4.0,0.0,,,,,,,,,,,,,,,,,,,,,,,,,,,,,,,,,,,,,,,,,,,,,,,,,,,,,,,,,,,,,,,,,,,,,,,,,,,,,,,,,,,,
7884,1650407628.392132,1650407628.384919,26.0,0.0,4295.384765999999,4605.128418,4262.05127,4275.384765999999,4317.94873,0.0,4.0,86.0,,,,0.0,4.0,0.0,0.0,0.0,4.0,0.0,,,,,,,,13.0,0.0,0.255499,-0.433105,0.53833,0.6762699999999999,0.8691540000000001,-0.509285,-0.043458,-0.033981,-0.037361,-0.017269,,,,,,,,,,,,,,,,,,,,,,,,,,,,,,,,,,,0.0,0.0,1.0,0.0,512.0,0.526026,,,,,,,,,,,,,,,,,,,,,,,,,
7885,1650407628.3999472,1650407628.392734,27.0,0.0,4301.025879,4643.077147999999,4255.384765999999,4277.94873,4318.974121,0.0,4.0,86.0,,,,0.0,4.0,0.0,0.0,0.0,4.0,0.0,,,,,,,,,,,,,,,,,,,,,,,,,,,,,,,,,,,,,,,,,,,,,,,,,,,,,,,,,,,,,,,,,,,,,,,,,,,,,,,,,,,,
7886,1650407628.4077609,1650407628.400448,28.0,0.0,4328.717772999999,4633.333496,4228.717772999999,4280.512695,4341.538574,0.0,4.0,86.0,,,,0.0,4.0,0.0,0.0,0.0,4.0,0.0,,,,,,,,14.0,0.0,0.255913,-0.43286099999999994,0.53833,0.6762699999999999,0.862318,-0.501961,-0.047852,-0.033951999999999996,-0.037531,-0.018911,,,,,,,,,,,,,,,,,,,,,,,,,,,,,,,,,,,,,,,,,,,,,,,,,,,,,,,,,,,,,,,,,
7887,1650407628.415576,1650407628.408163,29.0,0.0,4318.461426,4566.153809,4164.102539,4277.436035,4332.307617,0.0,4.0,86.0,,,,0.0,4.0,0.0,0.0,0.0,4.0,0.0,,,,,,,,,,,,,,,,,,,,,,,,,,,,,,,,,,,,,,,,,,,,,,,,,,,,,,,,,,,,,,,,,,,,,,,,,,,,,,,,,,,,
7888,1650407628.423391,1650407628.415977,30.0,0.0,4304.615234000001,4589.743652,4148.205078,4276.410156,4304.615234000001,0.0,4.0,86.0,,,,0.0,4.0,0.0,0.0,0.0,4.0,0.0,,,,,,,,15.0,0.0,0.255913,-0.43286099999999994,0.53833,0.6762699999999999,0.859876,-0.501961,-0.05127,-0.033975,-0.037538,-0.020437999999999998,,,,,,,,,,,,,,,,,,,,,,,,,,,,,,,,,,,0.0,0.0,1.0,0.0,512.0,0.526026,,,,,,,,,,,,,,,,,,,,,,,,,
7889,1650407628.431205,1650407628.423792,31.0,0.0,4338.974121,4721.538574,4170.769043,4278.974121,4335.384765999999,0.0,4.0,86.0,,,,0.0,4.0,0.0,0.0,0.0,4.0,0.0,,,,,,,,,,,,,,,,,,,,,,,,,,,,,,,,,,,,,,,,,,,,,,,,,,,,,,,,,,,,,,,,,,,,,,,,,,,,,,,,,,,,
7890,1650407628.43902,1650407628.4315062,32.0,0.0,4361.025879,4724.102539,4171.794922,4279.487305,4360.512695,0.0,4.0,86.0,,,,0.0,4.0,0.0,0.0,0.0,4.0,0.0,,,,,,,,16.0,0.0,0.255499,-0.433105,0.53833,0.6762699999999999,0.8691540000000001,-0.509285,-0.043458,-0.034044,-0.037495,-0.018297,,,,,,,,,,,,,,,,,,,,,,,,,,,,,,,,,,,,,,,,,,,,,,,,,,,,,,,,,,,,,,,,,
7891,1650407628.446834,1650407628.4392211,33.0,0.0,4345.128418,4600.512695,4195.897461,4276.410156,4344.102539,0.0,4.0,86.0,,,,0.0,4.0,0.0,0.0,0.0,4.0,0.0,,,,,,,,,,,,,,,,,,,,,,,,,,,,,,,,,,,,,,,,,,,,,,,,,,,,,,,,,,,,,,,,,,,,,,,,,,,,,,,,,,,,
7892,1650407628.454649,1650407628.447035,34.0,0.0,4318.461426,4600.512695,4209.230957,4273.846191,4321.538574,0.0,4.0,86.0,,,,0.0,4.0,0.0,0.0,0.0,4.0,0.0,,,,,,,,17.0,0.0,0.255913,-0.43286099999999994,0.53833,0.6762699999999999,0.859876,-0.501961,-0.05127,-0.034058,-0.037505000000000004,-0.019885,,,,,,,,,,,,,,,,,,,,,,,,,,,,,,,,,,,0.0,0.0,1.0,0.0,512.0,0.526026,,,,,,,,,,,,,,,,,,,,,,,,,
7893,1650407628.4624631,1650407628.45475,35.0,0.0,4326.666504,4694.871582,4172.820313,4275.384765999999,4328.205078,0.0,4.0,86.0,,,,0.0,4.0,0.0,0.0,0.0,4.0,0.0,,,,,,,,,,,,,,,,,,,,,,,,,,,,,,,,,,,,,,,,,,,,,,,,,,,,,,,,,,,,,,,,,,,,,,,,,,,,,,,,,,,,
7894,1650407628.470278,1650407628.462564,36.0,0.0,4345.128418,4668.717772999999,4171.282227000001,4277.94873,4337.94873,0.0,4.0,86.0,,,,0.0,4.0,0.0,0.0,0.0,4.0,0.0,,,,,,,,18.0,0.0,0.256325,-0.43261700000000003,0.53833,0.6762699999999999,0.862806,-0.5078199999999999,-0.055665,-0.034069999999999996,-0.037564,-0.021363,,,,,,,,,,,,,,,,,,,,,,,,,,,,,,,,,,,,,,,,,,,,,,,,,,,,,,,,,,,,,,,,,
7895,1650407628.478093,1650407628.470279,37.0,0.0,4343.589844,4542.05127,4265.641113000001,4280.512695,4333.846191,0.0,4.0,86.0,,,,0.0,4.0,0.0,0.0,0.0,4.0,0.0,,,,,,,,,,,,,,,,,,,,,,,,,,,,,,,,,,,,,,,,,,,,,,,,,,,,,,,,,,,,,,,,,,,,,,,,,,,,,,,,,,,,
7896,1650407628.485907,1650407628.478093,38.0,0.0,4347.179688,4545.641113000001,4257.94873,4281.025879,4345.641113000001,0.0,4.0,86.0,,,,0.0,4.0,0.0,0.0,0.0,4.0,0.0,,,,,,,,19.0,0.0,0.256737,-0.43237299999999995,0.53833,0.6762699999999999,0.8603649999999999,-0.513191,-0.053712,-0.033983,-0.037616000000000004,-0.016346,1.0,0.0,0.0,,,,,,,,,,,,,,,,,,,,,,,,,,,,,,,,0.0,0.0,1.0,0.0,512.0,0.541082,1.3685530000000001,0.651027,1.661109,1.400388,1.6977080000000002,41.334140999999995,23.196659,20.01609,16.298458,23.342861,29.511745,28.714959999999998,6.006135,7.607289,7.104975,0.032572000000000004,0.032386,0.025442,0.031554,0.023576,1.529635,2.063668,1.4074309999999999,1.0277610000000001,1.322073
7897,1650407628.493722,1650407628.485807,39.0,0.0,4363.589844,4643.589844,4201.025879,4276.410156,4369.743652,0.0,4.0,86.0,,,,0.0,4.0,0.0,0.0,0.0,4.0,0.0,,,,,,,,,,,,,,,,,,,,,,,,,,,,,,,,,,,,,,,,,,,,,,,,,,,,,,,,,,,,,,,,,,,,,,,,,,,,,,,,,,,,
7898,1650407628.501536,1650407628.493622,40.0,0.0,4357.436035,4620.0,4189.230957,4274.871582,4367.179688,0.0,4.0,86.0,,,,0.0,4.0,0.0,0.0,0.0,4.0,0.0,,,,,,,,20.0,0.0,0.25650500000000004,-0.432129,0.53833,0.6765140000000001,0.8618299999999999,-0.517098,-0.060548000000000005,-0.034003,-0.037565,-0.01813,,,,,,,,,,,,,,,,,,,,,,,,,,,,,,,,,,,,,,,,,,,,,,,,,,,,,,,,,,,,,,,,,
7899,1650407628.509351,1650407628.5013359,41.0,0.0,4318.974121,4537.94873,4261.025879,4278.974121,4331.794922,0.0,4.0,86.0,,,,0.0,4.0,0.0,0.0,0.0,4.0,0.0,,,,,,,,,,,,,,,,,,,,,,,,,,,,,,,,,,,,,,,,,,,,,,,,,,,,,,,,,,,,,,,,,,,,,,,,,,,,,,,,,,,,
7900,1650407628.517165,1650407628.509151,42.0,0.0,4322.563965,4555.384765999999,4260.512695,4281.025879,4335.384765999999,0.0,4.0,86.0,,,,0.0,4.0,0.0,0.0,0.0,4.0,0.0,,,,,,,,21.0,0.0,0.255992,-0.432129,0.538574,0.6765140000000001,0.857923,-0.504891,-0.061524,-0.034118,-0.03752,-0.019686000000000002,,,,,,,,,,,,,,,,,,,,,,,,,,,,,,,,,,,0.0,0.0,1.0,0.0,512.0,0.541082,,,,,,,,,,,,,,,,,,,,,,,,,
7901,1650407628.52498,1650407628.516865,43.0,0.0,4352.307617,4603.589844,4249.230957,4277.94873,4365.128418,0.0,4.0,86.0,,,,0.0,4.0,0.0,0.0,0.0,4.0,0.0,,,,,,,,,,,,,,,,,,,,,,,,,,,,,,,,,,,,,,,,,,,,,,,,,,,,,,,,,,,,,,,,,,,,,,,,,,,,,,,,,,,,
7902,1650407628.532795,1650407628.5246801,44.0,0.0,4372.820313,4574.871582,4227.179688,4278.461426,4371.794922,0.0,4.0,86.0,,,,0.0,4.0,0.0,0.0,0.0,4.0,0.0,,,,,,,,22.0,0.0,0.255992,-0.432129,0.538574,0.6765140000000001,0.862806,-0.516121,-0.049317,-0.034076,-0.037528,-0.014738999999999999,,,,,,,,,,,,,,,,,,,,,,,,,,,,,,,,,,,,,,,,,,,,,,,,,,,,,,,,,,,,,,,,,
7903,1650407628.540609,1650407628.532394,45.0,0.0,4357.94873,4577.436035,4213.333496,4281.025879,4349.230957,0.0,4.0,86.0,,,,0.0,4.0,0.0,0.0,0.0,4.0,0.0,,,,,,,,,,,,,,,,,,,,,,,,,,,,,,,,,,,,,,,,,,,,,,,,,,,,,,,,,,,,,,,,,,,,,,,,,,,,,,,,,,,,
7904,1650407628.548424,1650407628.540209,46.0,0.0,4357.436035,4596.410156,4215.384765999999,4279.487305,4367.179688,0.0,4.0,86.0,,,,0.0,4.0,0.0,0.0,0.0,4.0,0.0,,,,,,,,23.0,0.0,0.256123,-0.432129,0.538818,0.6762699999999999,0.871107,-0.517586,-0.059083000000000004,-0.034135000000000006,-0.037486,-0.016585,,,,,,,,,,,,,,,,,,,,,,,,,,,,,,,,,,,0.0,0.0,1.0,0.0,512.0,0.541082,,,,,,,,,,,,,,,,,,,,,,,,,
7905,1650407628.5562382,1650407628.547923,47.0,0.0,4391.282227000001,4542.563965,4243.589844,4277.94873,4403.589844,0.0,4.0,86.0,,,,0.0,4.0,0.0,0.0,0.0,4.0,0.0,,,,,,,,,,,,,,,,,,,,,,,,,,,,,,,,,,,,,,,,,,,,,,,,,,,,,,,,,,,,,,,,,,,,,,,,,,,,,,,,,,,,
7906,1650407628.5640528,1650407628.555738,48.0,0.0,4405.641113000001,4517.436035,4235.897461,4281.538574,4412.820313,0.0,4.0,86.0,,,,0.0,4.0,0.0,0.0,0.0,4.0,0.0,,,,,,,,24.0,0.0,0.25571,-0.43237299999999995,0.538818,0.6762699999999999,0.881849,-0.524422,-0.06006,-0.03414,-0.037448,-0.018345,,,,,,,,,,,,,,,,,,,,,,,,,,,,,,,,,,,,,,,,,,,,,,,,,,,,,,,,,,,,,,,,,
7907,1650407628.571867,1650407628.563452,49.0,0.0,4353.846191,4582.563965,4190.256348,4283.589844,4381.538574,0.0,4.0,86.0,,,,0.0,4.0,0.0,0.0,0.0,4.0,0.0,,,,,,,,,,,,,,,,,,,,,,,,,,,,,,,,,,,,,,,,,,,,,,,,,,,,,,,,,,,,,,,,,,,,,,,,,,,,,,,,,,,,
7908,1650407628.579682,1650407628.571167,50.0,0.0,4340.512695,4625.128418,4176.922852000001,4281.025879,4380.512695,0.0,4.0,86.0,,,,0.0,4.0,0.0,0.0,0.0,4.0,0.0,,,,,,,,25.0,0.0,0.255841,-0.43237299999999995,0.539063,0.676025,0.8730600000000001,-0.5195390000000001,-0.041505,-0.034192,-0.037462999999999996,-0.019928,,,,,,,,,,,,,,,,,,,,,,,,,,,,,,,,,,,0.0,0.0,1.0,0.0,512.0,0.541082,,,,,,,,,,,,,,,,,,,,,,,,,
7909,1650407628.587497,1650407628.5789812,51.0,0.0,4395.897461,4589.230957,4212.307617,4278.461426,4408.205078,0.0,4.0,86.0,,,,0.0,4.0,0.0,0.0,0.0,4.0,0.0,,,,,,,,,,,,,,,,,,,,,,,,,,,,,,,,,,,,,,,,,,,,,,,,,,,,,,,,,,,,,,,,,,,,,,,,,,,,,,,,,,,,
7910,1650407628.595311,1650407628.586695,52.0,0.0,4425.641113000001,4614.358886999999,4267.179688,4278.974121,4427.692383,0.0,4.0,86.0,,,,0.0,4.0,0.0,0.0,0.0,4.0,0.0,,,,,,,,26.0,0.0,0.255972,-0.43237299999999995,0.539307,0.6757810000000001,0.866224,-0.517098,-0.052247,-0.034142,-0.037379,-0.021305,,,,,,,,,,,,,,,,,,,,,,,,,,,,,,,,,,,,,,,,,,,,,,,,,,,,,,,,,,,,,,,,,
7911,1650407628.603126,1650407628.59451,53.0,0.0,4373.846191,4677.436035,4252.820313,4278.974121,4414.871582,0.0,4.0,86.0,,,,0.0,4.0,0.0,0.0,0.0,4.0,0.0,,,,,,,,,,,,,,,,,,,,,,,,,,,,,,,,,,,,,,,,,,,,,,,,,,,,,,,,,,,,,,,,,,,,,,,,,,,,,,,,,,,,
7912,1650407628.61094,1650407628.602224,54.0,0.0,4349.743652,4622.563965,4216.410156,4280.512695,4393.846191,0.0,4.0,86.0,,,,0.0,4.0,0.0,0.0,0.0,4.0,0.0,,,,,,,,27.0,0.0,0.25535399999999997,-0.432129,0.539795,0.6757810000000001,0.8686659999999999,-0.521981,-0.055177,-0.034145999999999996,-0.037351999999999996,-0.022543,1.0,0.0,0.0,,,,,,,,,,,,,,,,,,,,,,,,,,,,,,,,0.0,0.0,1.0,0.0,512.0,0.8263790000000001,1.306309,0.708458,1.614818,1.46786,1.58998,32.2402,22.191212,20.078749,15.951397,23.529169,30.237190000000002,31.064390000000003,6.678447,9.229485,7.016392999999999,0.043949,0.032626,0.020225,0.029671,0.021572,1.450576,2.047225,1.4354149999999999,0.9385899999999999,1.201035
7913,1650407628.618755,1650407628.610039,55.0,0.0,4415.384765999999,4573.846191,4195.897461,4285.128418,4442.563965,0.0,4.0,86.0,,,,0.0,4.0,0.0,0.0,0.0,4.0,0.0,,,,,,,,,,,,,,,,,,,,,,,,,,,,,,,,,,,,,,,,,,,,,,,,,,,,,,,,,,,,,,,,,,,,,,,,,,,,,,,,,,,,
7914,1650407628.626569,1650407628.617753,56.0,0.0,4443.589844,4622.563965,4245.128418,4284.615234000001,4520.0,0.0,4.0,86.0,,,,0.0,4.0,0.0,0.0,0.0,4.0,0.0,,,,,,,,28.0,0.0,0.25561300000000003,-0.432129,0.540283,0.675293,0.871107,-0.516121,-0.041016000000000004,-0.03415,-0.037426,-0.023658000000000002,,,,,,,,,,,,,,,,,,,,,,,,,,,,,,,,,,,,,,,,,,,,,,,,,,,,,,,,,,,,,,,,,
7915,1650407628.634384,1650407628.625568,57.0,0.0,4409.230957,4602.563965,4242.563965,4282.563965,4555.897461,0.0,4.0,86.0,,,,0.0,4.0,0.0,0.0,0.0,4.0,0.0,,,,,,,,,,,,,,,,,,,,,,,,,,,,,,,,,,,,,,,,,,,,,,,,,,,,,,,,,,,,,,,,,,,,,,,,,,,,,,,,,,,,
7916,1650407628.642199,1650407628.633282,58.0,0.0,4440.512695,4524.615234000001,4251.794922,4286.666504,4627.692383,0.0,4.0,86.0,,,,0.0,4.0,0.0,0.0,0.0,4.0,0.0,,,,,,,,29.0,0.0,0.254992,-0.431885,0.540771,0.675293,0.8584120000000001,-0.5141680000000001,-0.045411,-0.034152999999999996,-0.037492000000000004,-0.02471,,,,,,,,,,,,,,,,,,,,,,,,,,,,,,,,,,,0.0,0.0,1.0,0.0,512.0,0.8263790000000001,,,,,,,,,,,,,,,,,,,,,,,,,
7917,1650407628.650013,1650407628.641097,59.0,0.0,4526.153809,4506.666504,4234.358886999999,4291.282227000001,4795.384765999999,0.0,4.0,86.0,,,,0.0,4.0,0.0,0.0,0.0,4.0,0.0,,,,,,,,,,,,,,,,,,,,,,,,,,,,,,,,,,,,,,,,,,,,,,,,,,,,,,,,,,,,,,,,,,,,,,,,,,,,,,,,,,,,
7918,1650407628.6578279,1650407628.6488109,60.0,0.0,4550.769043,4535.384765999999,4245.641113000001,4286.153809,4999.487305,0.0,4.0,86.0,,,,0.0,4.0,0.0,0.0,0.0,4.0,0.0,,,,,,,,30.0,0.0,0.25563800000000003,-0.431885,0.540771,0.675049,0.873549,-0.521492,-0.042969,-0.034155,-0.037502,-0.025511000000000002,,,,,,,,,,,,,,,,,,,,,,,,,,,,,,,,,,,,,,,,,,,,,,,,,,,,,,,,,,,,,,,,,
7919,1650407628.665642,1650407628.656626,61.0,0.0,4550.769043,4514.871582,4233.846191,4283.589844,5258.461426,0.0,4.0,86.0,,,,0.0,4.0,0.0,0.0,0.0,4.0,0.0,,,,,,,,,,,,,,,,,,,,,,,,,,,,,,,,,,,,,,,,,,,,,,,,,,,,,,,,,,,,,,,,,,,,,,,,,,,,,,,,,,,,
7920,1650407628.6734571,1650407628.66434,62.0,0.0,4576.410156,4347.179688,4181.538574,4290.769043,5530.769043,0.0,4.0,86.0,,,,0.0,4.0,0.0,0.0,0.0,4.0,0.0,,,,,,,,31.0,0.0,0.255353,-0.432129,0.5410159999999999,0.674805,0.859876,-0.520516,-0.036133,-0.034256,-0.037413999999999996,-0.026329,,,,,,,,,,,,,,,,,,,,,,,,,,,,,,,,,,,0.0,0.0,1.0,0.0,512.0,0.8263790000000001,,,,,,,,,,,,,,,,,,,,,,,,,
7921,1650407628.681271,1650407628.672154,63.0,0.0,4631.282227000001,4214.358886999999,4147.179688,4297.436035,5816.410156,0.0,4.0,86.0,,,,0.0,4.0,0.0,0.0,0.0,4.0,0.0,,,,,,,,,,,,,,,,,,,,,,,,,,,,,,,,,,,,,,,,,,,,,,,,,,,,,,,,,,,,,,,,,,,,,,,,,,,,,,,,,,,,
7922,1650407628.689086,1650407628.679869,64.0,0.0,4635.384765999999,4269.230957,4156.410156,4294.358886999999,6079.487305,450.0,4.0,86.0,,,,0.0,4.0,0.0,0.0,0.0,4.0,0.0,,,,,,,,32.0,0.0,0.255353,-0.432129,0.5410159999999999,0.674805,0.875502,-0.516121,-0.049805,-0.034345999999999995,-0.037384,-0.020863999999999997,,,,,,,,,,,,,,,,,,,,,,,,,,,,,,,,,,,,,,,,,,,,,,,,,,,,,,,,,,,,,,,,,
7923,1650407628.696901,1650407628.687784,65.0,0.0,4605.128418,4265.641113000001,4149.743652,4289.743652,6256.922852000001,450.0,4.0,86.0,,,,0.0,4.0,0.0,0.0,0.0,4.0,0.0,,,,,,,,,,,,,,,,,,,,,,,,,,,,,,,,,,,,,,,,,,,,,,,,,,,,,,,,,,,,,,,,,,,,,,,,,,,,,,,,,,,,
7924,1650407628.704715,1650407628.6955981,66.0,0.0,4583.077147999999,4155.384765999999,4156.922852000001,4290.769043,6352.820313,16152.0,4.0,86.0,,,,0.0,4.0,0.0,0.0,0.0,4.0,0.0,,,,,,,,33.0,0.0,0.255353,-0.432129,0.5410159999999999,0.674805,0.8691540000000001,-0.5180739999999999,-0.0542,-0.034329000000000005,-0.037405,-0.022196,,,,,,,,,,,,,,,,,,,,,,,,,,,,,,,,,,,0.0,0.0,1.0,0.0,512.0,0.8263790000000001,,,,,,,,,,,,,,,,,,,,,,,,,
7925,1650407628.7125301,1650407628.7035131,67.0,0.0,4574.358886999999,4167.179688,4210.769043,4290.769043,6400.0,450.0,4.0,86.0,,,,0.0,4.0,0.0,0.0,0.0,4.0,0.0,,,,,,,,,,,,,,,,,,,,,,,,,,,,,,,,,,,,,,,,,,,,,,,,,,,,,,,,,,,,,,,,,,,,,,,,,,,,,,,,,,,,
7926,1650407628.7203438,1650407628.7113268,68.0,0.0,4553.846191,4188.717772999999,4227.179688,4288.205078,6396.922852000001,0.0,4.0,86.0,,,,0.0,4.0,0.0,0.0,0.0,4.0,0.0,,,,,,,,34.0,0.0,0.25494,-0.43237299999999995,0.5410159999999999,0.674805,0.8642709999999999,-0.525399,-0.036133,-0.034314,-0.037376,-0.019878,,,,,,,,,,,,,,,,,,,,,,,,,,,,,,,,,,,,,,,,,,,,,,,,,,,,,,,,,,,,,,,,,
7927,1650407628.728159,1650407628.719042,69.0,0.0,4526.153809,4144.102539,4236.922852000001,4287.179688,6334.358886999999,450.0,4.0,86.0,,,,0.0,4.0,0.0,0.0,0.0,4.0,0.0,,,,,,,,,,,,,,,,,,,,,,,,,,,,,,,,,,,,,,,,,,,,,,,,,,,,,,,,,,,,,,,,,,,,,,,,,,,,,,,,,,,,
7928,1650407628.7359731,1650407628.7269561,70.0,0.0,4492.307617,4222.05127,4234.871582,4287.179688,6285.641113000001,16356.0,4.0,86.0,,,,0.0,4.0,0.0,4.0,0.0,4.0,33.333332,,,,,,,,35.0,0.0,0.255585,-0.43237299999999995,0.5410159999999999,0.674561,0.8608530000000001,-0.51368,-0.037598,-0.03435,-0.037447,-0.017744,1.0,0.0,0.0,,,,,,,,,,,,,,,,,,,,,,,,,,,,,,,,0.0,0.0,1.0,0.0,512.0,1.0,1.2207629999999998,0.889349,1.492211,1.632671,1.535498,26.743113,22.586160999999997,19.144264,15.836155999999999,23.183654999999998,31.904669000000002,36.249687,7.30853,11.010715,6.7102520000000005,0.054698000000000004,0.032602,0.018295,0.02729,0.020308,1.6351149999999999,1.940073,1.4372639999999999,0.95699,1.1429989999999999
7929,1650407628.743788,1650407628.734771,71.0,0.0,4476.922852000001,4307.179688,4233.846191,4289.230957,6239.487305,450.0,4.0,86.0,,,,0.0,4.0,0.0,4.0,0.0,4.0,33.333332,,,,,,,,,,,,,,,,,,,,,,,,,,,,,,,,,,,,,,,,,,,,,,,,,,,,,,,,,,,,,,,,,,,,,,,,,,,,,,,,,,,,
7930,1650407628.751603,1650407628.742686,72.0,0.0,4471.794922,4227.179688,4212.820313,4288.205078,6173.846191,450.0,4.0,86.0,,,,0.0,4.0,0.0,4.0,0.0,4.0,33.333332,,,,,,,,36.0,0.0,0.255585,-0.43237299999999995,0.5410159999999999,0.674561,0.8618299999999999,-0.517098,-0.037598,-0.034283999999999995,-0.03756,-0.022073,,,,,,,,,,,,,,,,,,,,,,,,,,,,,,,,,,,,,,,,,,,,,,,,,,,,,,,,,,,,,,,,,
7931,1650407628.759417,1650407628.7505,73.0,0.0,4425.128418,4212.307617,4264.102539,4283.077147999999,6116.410156,0.0,4.0,86.0,,,,0.0,4.0,0.0,4.0,0.0,4.0,33.333332,,,,,,,,,,,,,,,,,,,,,,,,,,,,,,,,,,,,,,,,,,,,,,,,,,,,,,,,,,,,,,,,,,,,,,,,,,,,,,,,,,,,
7932,1650407628.767232,1650407628.758315,74.0,0.0,4399.487305,4290.256348,4275.384765999999,4282.05127,6091.794922,450.0,4.0,86.0,,,,0.0,4.0,0.0,4.0,0.0,4.0,33.333332,,,,,,,,37.0,0.0,0.25494,-0.43237299999999995,0.5410159999999999,0.674805,0.866712,-0.5141680000000001,-0.047852,-0.034225,-0.037515,-0.023235,,,,,,,,,,,,,,,,,,,,,,,,,,,,,,,,,,,0.0,0.0,1.0,0.0,512.0,1.0,,,,,,,,,,,,,,,,,,,,,,,,,
7933,1650407628.775046,1650407628.766029,75.0,0.0,4403.077147999999,4232.307617,4226.153809,4283.589844,6069.743652,16172.0,4.0,86.0,,,,0.0,4.0,0.0,4.0,0.0,4.0,33.333332,,,,,,,,,,,,,,,,,,,,,,,,,,,,,,,,,,,,,,,,,,,,,,,,,,,,,,,,,,,,,,,,,,,,,,,,,,,,,,,,,,,,
7934,1650407628.782861,1650407628.773944,76.0,0.0,4389.230957,4171.794922,4166.153809,4281.025879,6044.102539,450.0,4.0,86.0,,,,0.0,4.0,0.0,4.0,0.0,4.0,33.333332,,,,,,,,38.0,0.0,0.255044,-0.43261700000000003,0.540771,0.674805,0.8574350000000001,-0.505867,-0.049805,-0.034074,-0.037523,-0.018031000000000002,,,,,,,,,,,,,,,,,,,,,,,,,,,,,,,,,,,,,,,,,,,,,,,,,,,,,,,,,,,,,,,,,
7935,1650407628.7906759,1650407628.781759,77.0,0.0,4375.897461,4292.820313,4223.077147999999,4280.512695,6046.666504,450.0,4.0,86.0,,,,0.0,4.0,0.0,4.0,0.0,4.0,33.333332,,,,,,,,,,,,,,,,,,,,,,,,,,,,,,,,,,,,,,,,,,,,,,,,,,,,,,,,,,,,,,,,,,,,,,,,,,,,,,,,,,,,
7936,1650407628.79849,1650407628.789673,78.0,0.0,4391.794922,4390.256348,4229.230957,4282.05127,6035.897461,450.0,4.0,86.0,,,,0.0,4.0,0.0,4.0,0.0,4.0,33.333332,,,,,,,,39.0,0.0,0.25556100000000004,-0.43261700000000003,0.5405270000000001,0.674805,0.866224,-0.523934,-0.036622,-0.034036000000000004,-0.037531,-0.019646,,,,,,,,,,,,,,,,,,,,,,,,,,,,,,,,,,,0.0,0.0,1.0,0.0,512.0,1.0,,,,,,,,,,,,,,,,,,,,,,,,,
7937,1650407628.8063052,1650407628.797488,79.0,0.0,4373.846191,4309.230957,4153.333496,4281.025879,5965.641113000001,16172.0,4.0,86.0,,,,0.0,4.0,0.0,4.0,0.0,4.0,33.333332,,,,,,,,,,,,,,,,,,,,,,,,,,,,,,,,,,,,,,,,,,,,,,,,,,,,,,,,,,,,,,,,,,,,,,,,,,,,,,,,,,,,
7938,1650407628.8141189,1650407628.805402,80.0,0.0,4363.077147999999,4235.897461,4166.666504,4281.025879,5904.615234000001,450.0,4.0,86.0,,,,0.0,4.0,0.0,4.0,0.0,4.0,33.333332,,,,,,,,40.0,0.0,0.255432,-0.43261700000000003,0.540283,0.675049,0.8603649999999999,-0.521981,-0.041016000000000004,-0.034197000000000005,-0.037635,-0.020953,,,,,,,,,,,,,,,,,,,,,,,,,,,,,,,,,,,,,,,,,,,,,,,,,,,,,,,,,,,,,,,,,
7939,1650407628.821934,1650407628.813217,81.0,0.0,4355.384765999999,4313.846191,4236.922852000001,4280.0,5795.384765999999,450.0,4.0,86.0,,,,0.0,4.0,0.0,4.0,0.0,4.0,33.333332,,,,,,,,,,,,,,,,,,,,,,,,,,,,,,,,,,,,,,,,,,,,,,,,,,,,,,,,,,,,,,,,,,,,,,,,,,,,,,,,,,,,
7940,1650407628.829749,1650407628.821132,82.0,0.0,4332.820313,4485.128418,4241.025879,4276.410156,5634.358886999999,450.0,4.0,86.0,,,,0.0,4.0,0.0,4.0,0.0,4.0,33.333332,,,,,,,,41.0,0.0,0.255535,-0.43286099999999994,0.540039,0.675049,0.8676889999999999,-0.5078199999999999,-0.040527999999999995,-0.034097,-0.037485000000000004,-0.022275,,,,,,,,,,,,,,,,,,,,,,,,,,,,,,,,,,,0.0,0.0,1.0,0.0,512.0,1.0,,,,,,,,,,,,,,,,,,,,,,,,,
7941,1650407628.837563,1650407628.828946,83.0,0.0,4314.358886999999,4536.410156,4189.230957,4275.897461,5465.641113000001,16172.0,4.0,86.0,,,,0.0,4.0,0.0,4.0,0.0,4.0,33.333332,,,,,,,,,,,,,,,,,,,,,,,,,,,,,,,,,,,,,,,,,,,,,,,,,,,,,,,,,,,,,,,,,,,,,,,,,,,,,,,,,,,,
7942,1650407628.845378,1650407628.836861,84.0,0.0,4328.717772999999,4458.461426,4181.025879,4276.922852000001,5313.333496,450.0,4.0,86.0,,,,0.0,4.0,0.0,4.0,0.0,4.0,33.333332,,,,,,,,42.0,0.0,0.25605,-0.43286099999999994,0.539795,0.675049,0.864759,-0.508309,-0.040527999999999995,-0.034057,-0.037495999999999995,-0.023466,,,,,,,,,,,,,,,,,,,,,,,,,,,,,,,,,,,,,,,,,,,,,,,,,,,,,,,,,,,,,,,,,
7943,1650407628.853192,1650407628.844675,85.0,0.0,4325.641113000001,4473.846191,4220.0,4275.897461,5119.487305,450.0,4.0,86.0,,,,0.0,4.0,0.0,4.0,0.0,4.0,33.333332,,,,,,,,,,,,,,,,,,,,,,,,,,,,,,,,,,,,,,,,,,,,,,,,,,,,,,,,,,,,,,,,,,,,,,,,,,,,,,,,,,,,
7944,1650407628.861007,1650407628.85249,86.0,0.0,4298.461426,4543.589844,4294.358886999999,4274.358886999999,4904.102539,450.0,4.0,86.0,,,,0.0,4.0,0.0,4.0,0.0,4.0,33.333332,1.0,0.0,3.0,0.0,0.0,0.0,0.0,43.0,0.0,0.25499099999999997,-0.433105,0.539795,0.675293,0.8642709999999999,-0.516121,-0.040527999999999995,-0.034069,-0.037604000000000005,-0.020924,1.0,0.0,0.0,,,,,,,,,,,,,,,,,,,,,,,,,,,,,,,,0.0,1.0,1.0,0.0,128.0,0.869684,1.70182,1.253328,1.302348,1.8459880000000002,1.580626,25.075632000000002,24.114122000000002,17.300238,15.730765,22.743395,34.097858,43.160168,7.8757600000000005,12.306608,6.37504,0.061328,0.032861,0.019475,0.025412,0.02046,19.108332,3.5679510000000003,1.6481720000000002,1.0590700000000002,1.17439
7945,1650407628.868822,1650407628.8602052,87.0,0.0,4291.282227000001,4557.94873,4270.769043,4274.358886999999,4701.538574,16172.0,4.0,86.0,,,,0.0,4.0,0.0,4.0,0.0,4.0,33.333332,,,,,,,,,,,,,,,,,,,,,,,,,,,,,,,,,,,,,,,,,,,,,,,,,,,,,,,,,,,,,,,,,,,,,,,,,,,,,,,,,,,,
7946,1650407628.876636,1650407628.868119,88.0,0.0,4280.0,4569.230957,4242.563965,4273.846191,4555.897461,450.0,4.0,86.0,,,,0.0,4.0,0.0,4.0,0.0,4.0,33.333332,,,,,,,,44.0,0.0,0.255535,-0.43286099999999994,0.540039,0.675049,0.8676889999999999,-0.5078199999999999,-0.040527999999999995,-0.033983,-0.037457,-0.02225,,,,,,,,,,,,,,,,,,,,,,,,,,,,,,,,,,,,,,,,,,,,,,,,,,,,,,,,,,,,,,,,,
7947,1650407628.884451,1650407628.875934,89.0,0.0,4257.436035,4546.153809,4238.461426,4274.358886999999,4473.333496,450.0,4.0,86.0,,,,0.0,4.0,0.0,4.0,0.0,4.0,33.333332,,,,,,,,,,,,,,,,,,,,,,,,,,,,,,,,,,,,,,,,,,,,,,,,,,,,,,,,,,,,,,,,,,,,,,,,,,,,,,,,,,,,
7948,1650407628.892265,1650407628.8836482,90.0,0.0,4239.487305,4523.077147999999,4257.94873,4273.846191,4436.922852000001,450.0,4.0,86.0,,,,0.0,4.0,0.0,4.0,0.0,4.0,33.333332,,,,,,,,45.0,0.0,0.25499099999999997,-0.433105,0.539795,0.675293,0.8642709999999999,-0.516121,-0.040527999999999995,-0.034002,-0.037569,-0.019829,,,,,,,,,,,,,,,,,,,,,,,,,,,,,,,,,,,0.0,1.0,1.0,0.0,128.0,0.869684,,,,,,,,,,,,,,,,,,,,,,,,,
7949,1650407628.90008,1650407628.891463,91.0,0.0,4248.205078,4577.94873,4226.153809,4274.871582,4466.666504,16172.0,4.0,86.0,,,,0.0,4.0,0.0,4.0,0.0,4.0,33.333332,,,,,,,,,,,,,,,,,,,,,,,,,,,,,,,,,,,,,,,,,,,,,,,,,,,,,,,,,,,,,,,,,,,,,,,,,,,,,,,,,,,,
7950,1650407628.907894,1650407628.8993778,92.0,0.0,4253.333496,4590.256348,4221.538574,4275.897461,4506.153809,450.0,4.0,86.0,,,,0.0,4.0,0.0,4.0,0.0,4.0,33.333332,,,,,,,,46.0,0.0,0.256152,-0.433105,0.539551,0.675049,0.8642709999999999,-0.5141680000000001,-0.03125,-0.034069,-0.037620999999999995,-0.021167,,,,,,,,,,,,,,,,,,,,,,,,,,,,,,,,,,,,,,,,,,,,,,,,,,,,,,,,,,,,,,,,,
7951,1650407628.915709,1650407628.907192,93.0,0.0,4248.205078,4538.461426,4200.0,4273.846191,4522.05127,450.0,4.0,86.0,,,,0.0,4.0,0.0,4.0,0.0,4.0,33.333332,,,,,,,,,,,,,,,,,,,,,,,,,,,,,,,,,,,,,,,,,,,,,,,,,,,,,,,,,,,,,,,,,,,,,,,,,,,,,,,,,,,,
7952,1650407628.9235241,1650407628.914907,94.0,0.0,4217.94873,4582.563965,4172.820313,4270.769043,4503.589844,450.0,4.0,86.0,,,,0.0,4.0,0.0,4.0,0.0,4.0,33.333332,,,,,,,,47.0,0.0,0.255738,-0.43335,0.539551,0.675049,0.8730600000000001,-0.525399,-0.027344,-0.034031,-0.037716,-0.022468000000000002,,,,,,,,,,,,,,,,,,,,,,,,,,,,,,,,,,,0.0,1.0,1.0,0.0,128.0,0.869684,,,,,,,,,,,,,,,,,,,,,,,,,
7953,1650407628.931338,1650407628.922722,95.0,0.0,4202.05127,4666.153809,4171.282227000001,4271.794922,4501.538574,16172.0,4.0,86.0,,,,0.0,4.0,0.0,4.0,0.0,4.0,33.333332,,,,,,,,,,,,,,,,,,,,,,,,,,,,,,,,,,,,,,,,,,,,,,,,,,,,,,,,,,,,,,,,,,,,,,,,,,,,,,,,,,,,
7954,1650407628.939153,1650407628.930436,96.0,0.0,4211.794922,4620.512695,4177.94873,4272.307617,4517.94873,450.0,4.0,86.0,,,,0.0,4.0,0.0,4.0,0.0,4.0,33.333332,,,,,,,,48.0,0.0,0.255738,-0.43335,0.539551,0.675049,0.8681770000000001,-0.513191,-0.038575,-0.034095,-0.037704,-0.02359,,,,,,,,,,,,,,,,,,,,,,,,,,,,,,,,,,,,,,,,,,,,,,,,,,,,,,,,,,,,,,,,,
7955,1650407628.946967,1650407628.938251,97.0,0.0,4249.743652,4550.256348,4152.307617,4273.333496,4555.897461,450.0,4.0,86.0,,,,0.0,4.0,0.0,4.0,0.0,4.0,33.333332,,,,,,,,,,,,,,,,,,,,,,,,,,,,,,,,,,,,,,,,,,,,,,,,,,,,,,,,,,,,,,,,,,,,,,,,,,,,,,,,,,,,
7956,1650407628.954782,1650407628.945965,98.0,0.0,4261.025879,4573.333496,4180.0,4274.871582,4564.102539,450.0,4.0,86.0,,,,0.0,4.0,0.0,4.0,0.0,4.0,33.333332,,,,,,,,49.0,0.0,0.255738,-0.43335,0.539551,0.675049,0.866712,-0.517586,-0.047852,-0.034055,-0.037742000000000005,-0.024600999999999998,,,,,,,,,,,,,,,,,,,,,,,,,,,,,,,,,,,0.0,1.0,1.0,0.0,128.0,0.869684,,,,,,,,,,,,,,,,,,,,,,,,,
7957,1650407628.9625962,1650407628.9537802,99.0,0.0,4249.743652,4627.692383,4263.589844,4273.846191,4548.205078,16172.0,4.0,86.0,,,,0.0,4.0,0.0,4.0,0.0,4.0,33.333332,,,,,,,,,,,,,,,,,,,,,,,,,,,,,,,,,,,,,,,,,,,,,,,,,,,,,,,,,,,,,,,,,,,,,,,,,,,,,,,,,,,,
7958,1650407628.9704108,1650407628.961494,100.0,0.0,4246.666504,4636.410156,4245.641113000001,4272.820313,4548.205078,450.0,4.0,86.0,,,,0.0,4.0,0.0,4.0,0.0,4.0,33.333332,,,,,,,,50.0,0.0,0.255738,-0.43335,0.539551,0.675049,0.8730600000000001,-0.510262,-0.036133,-0.03397,-0.037679000000000004,-0.028244,,,,,,,,,,,,,,,,,,,,,,,,,,,,,,,,,,,,,,,,,,,,,,,,,,,,,,,,,,,,,,,,,
7959,1650407628.978226,1650407628.969409,101.0,0.0,4250.256348,4642.05127,4192.307617,4273.333496,4543.589844,450.0,4.0,86.0,,,,0.0,4.0,0.0,4.0,0.0,4.0,33.333332,,,,,,,,,,,,,,,,,,,,,,,,,,,,,,,,,,,,,,,,,,,,,,,,,,,,,,,,,,,,,,,,,,,,,,,,,,,,,,,,,,,,
7960,1650407628.98604,1650407628.9772232,102.0,0.0,4250.256348,4678.461426,4187.692383,4274.358886999999,4523.589844,450.0,4.0,86.0,,,,0.0,4.0,0.0,4.0,0.0,4.0,33.333332,,,,,,,,51.0,0.0,0.255738,-0.43335,0.539551,0.675049,0.867201,-0.502937,-0.042481,-0.033795,-0.037670999999999996,-0.028789,1.0,0.0,0.0,,,,,,,,,,,,,,,,,,,,,,,,,,,,,,,,0.0,1.0,1.0,0.0,128.0,0.8333,4.842118,2.003168,1.09942,2.055015,1.79519,30.183256,26.361752000000003,15.313785999999999,15.586507999999998,22.672161,36.464912,49.870391999999995,8.292050999999999,12.623759,6.222837,0.063161,0.03348,0.023126,0.025165,0.022704,114.34021000000001,16.832945000000002,2.346997,1.231578,1.319963
7961,1650407628.993855,1650407628.985038,103.0,0.0,4249.743652,4673.846191,4245.128418,4275.384765999999,4514.358886999999,16172.0,4.0,86.0,,,,0.0,4.0,0.0,4.0,0.0,4.0,33.333332,,,,,,,,,,,,,,,,,,,,,,,,,,,,,,,,,,,,,,,,,,,,,,,,,,,,,,,,,,,,,,,,,,,,,,,,,,,,,,,,,,,,
7962,1650407629.001669,1650407628.9927518,104.0,0.0,4233.846191,4612.307617,4252.307617,4272.820313,4487.692383,450.0,4.0,86.0,,,,0.0,4.0,0.0,4.0,0.0,4.0,33.333332,,,,,,,,52.0,0.0,0.256382,-0.43335,0.539551,0.674805,0.8564579999999999,-0.515633,-0.033204000000000004,-0.033736,-0.037663999999999996,-0.029327999999999996,,,,,,,,,,,,,,,,,,,,,,,,,,,,,,,,,,,,,,,,,,,,,,,,,,,,,,,,,,,,,,,,,
7963,1650407629.009484,1650407629.000667,105.0,0.0,4221.025879,4574.358886999999,4271.282227000001,4270.769043,4460.512695,450.0,4.0,86.0,,,,0.0,4.0,0.0,4.0,0.0,4.0,33.333332,,,,,,,,,,,,,,,,,,,,,,,,,,,,,,,,,,,,,,,,,,,,,,,,,,,,,,,,,,,,,,,,,,,,,,,,,,,,,,,,,,,,
7964,1650407629.017298,1650407629.008482,106.0,0.0,4262.563965,4590.769043,4239.487305,4273.333496,4484.615234000001,450.0,4.0,86.0,,,,0.0,4.0,0.0,4.0,0.0,4.0,33.333332,,,,,,,,53.0,0.0,0.256382,-0.43335,0.539551,0.674805,0.87013,-0.521981,-0.039550999999999996,-0.033781,-0.037607999999999996,-0.032499,,,,,,,,,,,,,,,,,,,,,,,,,,,,,,,,,,,0.0,1.0,1.0,0.0,128.0,0.8333,,,,,,,,,,,,,,,,,,,,,,,,,
7965,1650407629.025113,1650407629.016396,107.0,0.0,4272.820313,4632.307617,4218.974121,4273.846191,4484.615234000001,16172.0,4.0,86.0,,,,0.0,4.0,0.0,4.0,0.0,4.0,33.333332,,,,,,,,,,,,,,,,,,,,,,,,,,,,,,,,,,,,,,,,,,,,,,,,,,,,,,,,,,,,,,,,,,,,,,,,,,,,,,,,,,,,
7966,1650407629.032928,1650407629.024211,108.0,0.0,4248.717772999999,4669.230957,4200.0,4270.769043,4462.563965,450.0,4.0,86.0,,,,0.0,4.0,0.0,4.0,0.0,4.0,33.333332,,,,,,,,54.0,0.0,0.255738,-0.43335,0.539551,0.675049,0.861341,-0.505867,-0.037598,-0.033918000000000004,-0.037558999999999995,-0.032667,,,,,,,,,,,,,,,,,,,,,,,,,,,,,,,,,,,,,,,,,,,,,,,,,,,,,,,,,,,,,,,,,
7967,1650407629.040742,1650407629.032125,109.0,0.0,4279.487305,4646.153809,4205.128418,4272.307617,4475.897461,450.0,4.0,86.0,,,,0.0,4.0,0.0,4.0,0.0,4.0,33.333332,,,,,,,,,,,,,,,,,,,,,,,,,,,,,,,,,,,,,,,,,,,,,,,,,,,,,,,,,,,,,,,,,,,,,,,,,,,,,,,,,,,,
7968,1650407629.048557,1650407629.03994,110.0,0.0,4305.128418,4623.077147999999,4200.0,4274.871582,4483.589844,450.0,4.0,86.0,,,,0.0,4.0,0.0,4.0,0.0,4.0,33.333332,,,,,,,,55.0,0.0,0.256382,-0.43335,0.539551,0.674805,0.867201,-0.505867,-0.03418,-0.033944,-0.037563,-0.026422,,,,,,,,,,,,,,,,,,,,,,,,,,,,,,,,,,,0.0,0.0,1.0,0.0,128.0,0.8333,,,,,,,,,,,,,,,,,,,,,,,,,
7969,1650407629.0563712,1650407629.047854,111.0,0.0,4254.358886999999,4685.641113000001,4198.974121,4272.307617,4429.230957,16172.0,4.0,86.0,,,,0.0,4.0,0.0,4.0,0.0,4.0,33.333332,,,,,,,,,,,,,,,,,,,,,,,,,,,,,,,,,,,,,,,,,,,,,,,,,,,,,,,,,,,,,,,,,,,,,,,,,,,,,,,,,,,,
7970,1650407629.0641859,1650407629.0556688,112.0,0.0,4256.922852000001,4700.0,4201.538574,4271.794922,4418.461426,450.0,4.0,86.0,,,,0.0,4.0,0.0,4.0,0.0,4.0,33.333332,,,,,,,,56.0,0.0,0.255738,-0.43335,0.539551,0.675049,0.867201,-0.506355,-0.04004,-0.034017,-0.037517,-0.027246,,,,,,,,,,,,,,,,,,,,,,,,,,,,,,,,,,,,,,,,,,,,,,,,,,,,,,,,,,,,,,,,,
7971,1650407629.072,1650407629.063384,113.0,0.0,4282.563965,4611.282227000001,4170.256348,4275.384765999999,4424.615234000001,450.0,4.0,86.0,,,,0.0,4.0,0.0,4.0,0.0,4.0,33.333332,,,,,,,,,,,,,,,,,,,,,,,,,,,,,,,,,,,,,,,,,,,,,,,,,,,,,,,,,,,,,,,,,,,,,,,,,,,,,,,,,,,,
7972,1650407629.0798151,1650407629.071199,114.0,0.0,4261.538574,4611.794922,4132.307617,4275.897461,4401.538574,450.0,4.0,86.0,,,,0.0,4.0,0.0,4.0,0.0,4.0,33.333332,,,,,,,,57.0,0.0,0.255738,-0.43335,0.539551,0.675049,0.854994,-0.517098,-0.036622,-0.034033,-0.037476999999999996,-0.027989,,,,,,,,,,,,,,,,,,,,,,,,,,,,,,,,,,,0.0,0.0,1.0,0.0,128.0,0.8333,,,,,,,,,,,,,,,,,,,,,,,,,
7973,1650407629.08763,1650407629.079113,115.0,0.0,4258.974121,4670.769043,4159.487305,4272.307617,4387.179688,16172.0,4.0,86.0,,,,0.0,4.0,0.0,4.0,0.0,4.0,33.333332,,,,,,,,,,,,,,,,,,,,,,,,,,,,,,,,,,,,,,,,,,,,,,,,,,,,,,,,,,,,,,,,,,,,,,,,,,,,,,,,,,,,
7974,1650407629.095444,1650407629.086928,116.0,0.0,4294.358886999999,4637.94873,4276.922852000001,4272.307617,4390.769043,450.0,4.0,86.0,,,,0.0,4.0,0.0,4.0,0.0,4.0,33.333332,,,,,,,,58.0,0.0,0.256152,-0.433105,0.539551,0.675049,0.8657360000000001,-0.51368,-0.044923000000000005,-0.034097,-0.037489,-0.024994,,,,,,,,,,,,,,,,,,,,,,,,,,,,,,,,,,,,,,,,,,,,,,,,,,,,,,,,,,,,,,,,,
7975,1650407629.103259,1650407629.094642,117.0,0.0,4292.307617,4628.717772999999,4298.974121,4273.846191,4374.871582,450.0,4.0,86.0,,,,0.0,4.0,0.0,4.0,0.0,4.0,33.333332,,,,,,,,,,,,,,,,,,,,,,,,,,,,,,,,,,,,,,,,,,,,,,,,,,,,,,,,,,,,,,,,,,,,,,,,,,,,,,,,,,,,
7976,1650407629.111073,1650407629.102457,118.0,0.0,4272.307617,4663.077147999999,4242.05127,4271.794922,4360.0,450.0,4.0,86.0,,,,0.0,4.0,0.0,4.0,0.0,4.0,33.333332,,,,,,,,59.0,0.0,0.256794,-0.433105,0.539551,0.674805,0.867201,-0.5141680000000001,-0.052247,-0.034154000000000004,-0.037451,-0.0223,1.0,0.0,0.0,,,,,,,,,,,,,,,,,,,,,,,,,,,,,,,,0.0,0.0,1.0,0.0,128.0,0.893476,12.907444,3.2931800000000004,0.9540040000000001,2.213517,2.205261,47.27335,29.394251,13.995557999999999,15.484060999999999,23.262104,38.574608000000005,54.523872,8.451138,11.901664,6.397308,0.064699,0.033932,0.028179000000000003,0.027092,0.027106,359.101929,59.91379499999999,4.097668,1.485487,1.572225
7977,1650407629.1188881,1650407629.110171,119.0,0.0,4267.179688,4625.641113000001,4213.846191,4273.333496,4349.743652,16172.0,4.0,86.0,,,,0.0,4.0,0.0,4.0,0.0,4.0,33.333332,,,,,,,,,,,,,,,,,,,,,,,,,,,,,,,,,,,,,,,,,,,,,,,,,,,,,,,,,,,,,,,,,,,,,,,,,,,,,,,,,,,,
7978,1650407629.126702,1650407629.117986,120.0,0.0,4274.358886999999,4593.333496,4241.025879,4276.410156,4345.128418,450.0,4.0,86.0,,,,0.0,4.0,0.0,4.0,0.0,4.0,33.333332,,,,,,,,60.0,0.0,0.256281,-0.433105,0.539795,0.674805,0.873549,-0.511727,-0.041993,-0.034156,-0.037417,-0.019874,,,,,,,,,,,,,,,,,,,,,,,,,,,,,,,,,,,,,,,,,,,,,,,,,,,,,,,,,,,,,,,,,
7979,1650407629.134517,1650407629.1257,121.0,0.0,4301.538574,4602.05127,4223.589844,4276.922852000001,4360.512695,450.0,4.0,86.0,,,,0.0,4.0,0.0,4.0,0.0,4.0,33.333332,,,,,,,,,,,,,,,,,,,,,,,,,,,,,,,,,,,,,,,,,,,,,,,,,,,,,,,,,,,,,,,,,,,,,,,,,,,,,,,,,,,,
7980,1650407629.142332,1650407629.1335142,122.0,0.0,4288.717772999999,4598.974121,4270.256348,4275.384765999999,4345.128418,450.0,4.0,86.0,,,,0.0,4.0,0.0,4.0,0.0,4.0,33.333332,,,,,,,,61.0,0.0,0.256693,-0.43286099999999994,0.539795,0.674805,0.8808729999999999,-0.512703,-0.053712,-0.03411,-0.037533,-0.02111,,,,,,,,,,,,,,,,,,,,,,,,,,,,,,,,,,,0.0,0.0,1.0,0.0,128.0,0.893476,,,,,,,,,,,,,,,,,,,,,,,,,
7981,1650407629.150146,1650407629.141229,123.0,0.0,4262.563965,4620.512695,4277.94873,4276.410156,4309.230957,16172.0,4.0,86.0,,,,0.0,4.0,0.0,4.0,0.0,4.0,33.333332,,,,,,,,,,,,,,,,,,,,,,,,,,,,,,,,,,,,,,,,,,,,,,,,,,,,,,,,,,,,,,,,,,,,,,,,,,,,,,,,,,,,
7982,1650407629.157961,1650407629.149144,124.0,0.0,4268.205078,4664.102539,4219.487305,4275.384765999999,4293.846191,450.0,4.0,86.0,,,,0.0,4.0,0.0,4.0,0.0,4.0,33.333332,,,,,,,,62.0,0.0,0.256179,-0.43286099999999994,0.540039,0.674805,0.8686659999999999,-0.515633,-0.038087,-0.033922,-0.037538999999999996,-0.018900999999999998,,,,,,,,,,,,,,,,,,,,,,,,,,,,,,,,,,,,,,,,,,,,,,,,,,,,,,,,,,,,,,,,,
7983,1650407629.165775,1650407629.156958,125.0,0.0,4302.05127,4653.333496,4162.563965,4274.871582,4320.512695,450.0,4.0,86.0,,,,0.0,4.0,0.0,4.0,0.0,4.0,33.333332,,,,,,,,,,,,,,,,,,,,,,,,,,,,,,,,,,,,,,,,,,,,,,,,,,,,,,,,,,,,,,,,,,,,,,,,,,,,,,,,,,,,
7984,1650407629.17359,1650407629.1648731,126.0,0.0,4307.179688,4617.94873,4197.436035,4275.384765999999,4326.153809,450.0,4.0,86.0,,,,0.0,4.0,0.0,4.0,0.0,4.0,33.333332,,,,,,,,63.0,0.0,0.25659099999999996,-0.43261700000000003,0.540039,0.674805,0.864759,-0.508309,-0.047363999999999996,-0.033948,-0.037643,-0.023115,,,,,,,,,,,,,,,,,,,,,,,,,,,,,,,,,,,0.0,0.0,1.0,0.0,128.0,0.893476,,,,,,,,,,,,,,,,,,,,,,,,,
7985,1650407629.1814039,1650407629.1726868,127.0,0.0,4293.333496,4605.128418,4209.230957,4275.384765999999,4302.563965,241.0,4.0,86.0,,,,0.0,4.0,0.0,4.0,0.0,4.0,33.333332,,,,,,,,,,,,,,,,,,,,,,,,,,,,,,,,,,,,,,,,,,,,,,,,,,,,,,,,,,,,,,,,,,,,,,,,,,,,,,,,,,,,
7986,1650407629.189219,1650407629.1806018,0.0,0.0,4272.820313,4585.641113000001,4178.461426,4273.846191,4262.563965,450.0,4.0,86.0,,,,0.0,4.0,0.0,4.0,0.0,4.0,33.333332,,,,,,,,0.0,0.0,0.25659099999999996,-0.43261700000000003,0.540039,0.674805,0.8589,-0.500496,-0.05127,-0.033922,-0.037736,-0.024026,,,,,,,,,,,,,,,,,,,,,,,,,,,,,,,,,,,,,,,,,,,,,,,,,,,,,,,,,,,,,,,,,
7987,1650407629.197034,1650407629.188417,1.0,0.0,4281.538574,4599.487305,4187.692383,4273.846191,4252.307617,450.0,4.0,86.0,,,,0.0,4.0,0.0,4.0,0.0,4.0,33.333332,,,,,,,,,,,,,,,,,,,,,,,,,,,,,,,,,,,,,,,,,,,,,,,,,,,,,,,,,,,,,,,,,,,,,,,,,,,,,,,,,,,,
7988,1650407629.204848,1650407629.196331,2.0,0.0,4289.743652,4647.692383,4224.615234000001,4273.333496,4265.128418,16157.0,4.0,86.0,,,,0.0,4.0,0.0,4.0,0.0,4.0,33.333332,,,,,,,,1.0,0.0,0.257002,-0.43237299999999995,0.540039,0.674805,0.8798959999999999,-0.515633,-0.034668,-0.033899,-0.037722000000000006,-0.018791,,,,,,,,,,,,,,,,,,,,,,,,,,,,,,,,,,,0.0,0.0,1.0,0.0,128.0,0.893476,,,,,,,,,,,,,,,,,,,,,,,,,
7989,1650407629.2126632,1650407629.2041461,3.0,0.0,4300.512695,4650.769043,4234.871582,4273.333496,4289.743652,450.0,4.0,86.0,,,,0.0,4.0,0.0,4.0,0.0,4.0,33.333332,,,,,,,,,,,,,,,,,,,,,,,,,,,,,,,,,,,,,,,,,,,,,,,,,,,,,,,,,,,,,,,,,,,,,,,,,,,,,,,,,,,,
7990,1650407629.2204769,1650407629.21206,4.0,0.0,4305.641113000001,4622.563965,4186.666504,4276.410156,4290.256348,0.0,4.0,86.0,,,,0.0,4.0,0.0,4.0,0.0,4.0,33.333332,,,,,,,,2.0,0.0,0.257002,-0.43237299999999995,0.540039,0.674805,0.8608530000000001,-0.500984,-0.044923000000000005,-0.033927,-0.037759,-0.016766,,,,,,,,,,,,,,,,,,,,,,,,,,,,,,,,,,,,,,,,,,,,,,,,,,,,,,,,,,,,,,,,,
7991,1650407629.228292,1650407629.219875,5.0,0.0,4291.282227000001,4615.897461,4191.794922,4277.94873,4254.871582,450.0,4.0,86.0,,,,0.0,4.0,0.0,4.0,0.0,4.0,33.333332,,,,,,,,,,,,,,,,,,,,,,,,,,,,,,,,,,,,,,,,,,,,,,,,,,,,,,,,,,,,,,,,,,,,,,,,,,,,,,,,,,,,
7992,1650407629.236107,1650407629.2277892,6.0,0.0,4279.487305,4578.461426,4230.769043,4277.436035,4231.282227000001,255.0,4.0,86.0,,,,0.0,4.0,0.0,2.0,0.0,4.0,16.666666,,,,,,,,3.0,0.0,0.257002,-0.43237299999999995,0.540039,0.674805,0.857923,-0.517586,-0.050782,-0.033904000000000004,-0.037694,-0.018507,1.0,0.0,0.0,,,,,,,,,,,,,,,,,,,,,,,,,,,,,,,,0.0,0.0,1.0,0.0,128.0,0.921709,26.370420000000003,5.0907860000000005,0.9004489999999999,2.290781,2.746876,77.827431,33.246033000000004,13.665995,15.501517999999999,24.444094,40.056255,56.201508,8.275418,10.508318,6.878914,0.071174,0.033525,0.033444,0.030694,0.032744,790.56665,147.322449,7.24458,1.8729069999999999,1.8751790000000002
7993,1650407629.243921,1650407629.2356038,7.0,0.0,4306.666504,4532.820313,4260.512695,4276.410156,4253.333496,450.0,4.0,86.0,,,,0.0,4.0,0.0,2.0,0.0,4.0,16.666666,,,,,,,,,,,,,,,,,,,,,,,,,,,,,,,,,,,,,,,,,,,,,,,,,,,,,,,,,,,,,,,,,,,,,,,,,,,,,,,,,,,,
7994,1650407629.251736,1650407629.2435188,8.0,0.0,4316.922852000001,4590.256348,4254.358886999999,4275.384765999999,4253.333496,450.0,4.0,86.0,,,,0.0,4.0,0.0,2.0,0.0,4.0,16.666666,,,,,,,,4.0,0.0,0.257002,-0.43237299999999995,0.540039,0.674805,0.861341,-0.512215,-0.053223,-0.033882,-0.037683999999999995,-0.013824000000000001,,,,,,,,,,,,,,,,,,,,,,,,,,,,,,,,,,,,,,,,,,,,,,,,,,,,,,,,,,,,,,,,,
7995,1650407629.25955,1650407629.251333,9.0,0.0,4289.230957,4646.153809,4293.846191,4274.871582,4213.333496,0.0,4.0,86.0,,,,0.0,4.0,0.0,2.0,0.0,4.0,16.666666,,,,,,,,,,,,,,,,,,,,,,,,,,,,,,,,,,,,,,,,,,,,,,,,,,,,,,,,,,,,,,,,,,,,,,,,,,,,,,,,,,,,
7996,1650407629.267365,1650407629.259248,10.0,0.0,4275.897461,4577.94873,4293.333496,4276.922852000001,4192.820313,450.0,4.0,86.0,,,,0.0,4.0,0.0,2.0,0.0,4.0,16.666666,,,,,,,,5.0,0.0,0.257002,-0.43237299999999995,0.540039,0.674805,0.864759,-0.5039140000000001,-0.052247,-0.033863,-0.037676,-0.015909,,,,,,,,,,,,,,,,,,,,,,,,,,,,,,,,,,,0.0,0.0,1.0,0.0,128.0,0.921709,,,,,,,,,,,,,,,,,,,,,,,,,
7997,1650407629.27518,1650407629.2671618,11.0,0.0,4291.282227000001,4549.743652,4282.05127,4277.436035,4212.307617,16185.0,4.0,86.0,,,,0.0,4.0,0.0,2.0,0.0,4.0,16.666666,,,,,,,,,,,,,,,,,,,,,,,,,,,,,,,,,,,,,,,,,,,,,,,,,,,,,,,,,,,,,,,,,,,,,,,,,,,,,,,,,,,,
7998,1650407629.282994,1650407629.274977,12.0,0.0,4303.077147999999,4592.307617,4263.589844,4275.384765999999,4221.538574,450.0,4.0,86.0,,,,0.0,4.0,0.0,2.0,0.0,4.0,16.666666,,,,,,,,6.0,0.0,0.257002,-0.43237299999999995,0.540039,0.674805,0.8691540000000001,-0.5097729999999999,-0.048829000000000004,-0.033944,-0.037619,-0.017736000000000002,,,,,,,,,,,,,,,,,,,,,,,,,,,,,,,,,,,,,,,,,,,,,,,,,,,,,,,,,,,,,,,,,
7999,1650407629.290809,1650407629.282892,13.0,0.0,4309.743652,4569.743652,4230.256348,4276.410156,4196.410156,450.0,4.0,86.0,,,,0.0,4.0,0.0,2.0,0.0,4.0,16.666666,,,,,,,,,,,,,,,,,,,,,,,,,,,,,,,,,,,,,,,,,,,,,,,,,,,,,,,,,,,,,,,,,,,,,,,,,,,,,,,,,,,,
8000,1650407629.298623,1650407629.2907062,14.0,0.0,4329.230957,4542.05127,4166.153809,4279.487305,4186.666504,450.0,4.0,86.0,,,,0.0,4.0,0.0,2.0,0.0,4.0,16.666666,,,,,,,,7.0,0.0,0.257002,-0.43237299999999995,0.540039,0.674805,0.87013,-0.502937,-0.05712999999999999,-0.033919,-0.037666000000000005,-0.015865,,,,,,,,,,,,,,,,,,,,,,,,,,,,,,,,,,,0.0,0.0,1.0,0.0,128.0,0.921709,,,,,,,,,,,,,,,,,,,,,,,,,
8001,1650407629.306438,1650407629.298521,15.0,0.0,4314.871582,4577.436035,4176.922852000001,4276.410156,4169.743652,16185.0,4.0,86.0,,,,0.0,4.0,0.0,2.0,0.0,4.0,16.666666,,,,,,,,,,,,,,,,,,,,,,,,,,,,,,,,,,,,,,,,,,,,,,,,,,,,,,,,,,,,,,,,,,,,,,,,,,,,,,,,,,,,
8002,1650407629.314252,1650407629.306235,16.0,0.0,4315.897461,4605.128418,4193.846191,4274.871582,4161.025879,0.0,4.0,86.0,,,,0.0,4.0,0.0,2.0,0.0,4.0,16.666666,,,,,,,,8.0,0.0,0.257002,-0.43237299999999995,0.540039,0.674805,0.864759,-0.5039140000000001,-0.052247,-0.033944999999999996,-0.037610000000000005,-0.014131999999999999,,,,,,,,,,,,,,,,,,,,,,,,,,,,,,,,,,,,,,,,,,,,,,,,,,,,,,,,,,,,,,,,,
8003,1650407629.322067,1650407629.31405,17.0,0.0,4341.025879,4609.230957,4211.282227000001,4277.94873,4170.769043,0.0,4.0,86.0,,,,0.0,4.0,0.0,2.0,0.0,4.0,16.666666,,,,,,,,,,,,,,,,,,,,,,,,,,,,,,,,,,,,,,,,,,,,,,,,,,,,,,,,,,,,,,,,,,,,,,,,,,,,,,,,,,,,
8004,1650407629.3298821,1650407629.321764,18.0,0.0,4346.153809,4582.05127,4262.05127,4279.487305,4168.717772999999,0.0,4.0,86.0,,,,0.0,4.0,0.0,2.0,0.0,4.0,16.666666,,,,,,,,9.0,0.0,0.257002,-0.43237299999999995,0.540039,0.674805,0.87013,-0.502937,-0.05712999999999999,-0.03392,-0.037658,-0.012620999999999999,,,,,,,,,,,,,,,,,,,,,,,,,,,,,,,,,,,0.0,0.0,1.0,0.0,128.0,0.921709,,,,,,,,,,,,,,,,,,,,,,,,,
8005,1650407629.337696,1650407629.329679,19.0,0.0,4289.743652,4549.743652,4267.692383,4275.897461,4112.820313,0.0,4.0,86.0,,,,0.0,4.0,0.0,2.0,0.0,4.0,16.666666,,,,,,,,,,,,,,,,,,,,,,,,,,,,,,,,,,,,,,,,,,,,,,,,,,,,,,,,,,,,,,,,,,,,,,,,,,,,,,,,,,,,
8006,1650407629.345511,1650407629.337493,20.0,0.0,4263.077147999999,4575.897461,4256.922852000001,4272.307617,4082.5642090000006,0.0,4.0,86.0,,,,0.0,4.0,0.0,2.0,0.0,4.0,16.666666,,,,,,,,10.0,0.0,0.257002,-0.43237299999999995,0.540039,0.674805,0.867201,-0.504891,-0.04004,-0.033946,-0.037603,-0.011212,,,,,,,,,,,,,,,,,,,,,,,,,,,,,,,,,,,,,,,,,,,,,,,,,,,,,,,,,,,,,,,,,
8007,1650407629.353325,1650407629.345308,21.0,0.0,4291.282227000001,4603.077147999999,4265.128418,4270.769043,4106.153809,0.0,4.0,86.0,,,,0.0,4.0,0.0,2.0,0.0,4.0,16.666666,,,,,,,,,,,,,,,,,,,,,,,,,,,,,,,,,,,,,,,,,,,,,,,,,,,,,,,,,,,,,,,,,,,,,,,,,,,,,,,,,,,,
8008,1650407629.36114,1650407629.353023,22.0,0.0,4304.102539,4587.692383,4292.820313,4272.820313,4125.128418,0.0,4.0,86.0,,,,0.0,4.0,0.0,2.0,0.0,4.0,16.666666,1.0,0.0,3.0,0.0,0.0,0.0,0.0,11.0,0.0,0.257002,-0.43237299999999995,0.540039,0.674805,0.8657360000000001,-0.525887,-0.050782,-0.033969,-0.037603,-0.01346,1.0,0.0,0.0,,,,,,,,,,,,,,,,,,,,,,,,,,,,,,,,0.0,0.0,1.0,0.0,128.0,0.145958,42.964577,7.065684,0.955675,2.2800119999999997,3.2844660000000006,116.593452,37.217822999999996,14.152763,15.68396,25.761152,40.845406,55.194851,7.8067020000000005,9.099675,7.491686,0.084414,0.032021,0.037584,0.034595,0.038038,1367.23938,275.569427,11.516867,2.4378450000000003,2.1424830000000004
8009,1650407629.368954,1650407629.3609369,23.0,0.0,4311.794922,4628.205078,4237.94873,4275.897461,4134.358886999999,0.0,4.0,86.0,,,,0.0,4.0,0.0,2.0,0.0,4.0,16.666666,,,,,,,,,,,,,,,,,,,,,,,,,,,,,,,,,,,,,,,,,,,,,,,,,,,,,,,,,,,,,,,,,,,,,,,,,,,,,,,,,,,,
8010,1650407629.3767688,1650407629.368752,24.0,0.0,4333.846191,4669.743652,4221.025879,4279.487305,4151.794922,0.0,4.0,86.0,,,,0.0,4.0,0.0,2.0,0.0,4.0,16.666666,,,,,,,,12.0,0.0,0.257412,-0.432129,0.540039,0.674805,0.854994,-0.515145,-0.049317,-0.034088,-0.037552999999999996,-0.012065000000000001,,,,,,,,,,,,,,,,,,,,,,,,,,,,,,,,,,,,,,,,,,,,,,,,,,,,,,,,,,,,,,,,,
8011,1650407629.384584,1650407629.376666,25.0,0.0,4337.436035,4569.230957,4223.077147999999,4280.512695,4148.717772999999,0.0,4.0,86.0,,,,0.0,4.0,0.0,2.0,0.0,4.0,16.666666,,,,,,,,,,,,,,,,,,,,,,,,,,,,,,,,,,,,,,,,,,,,,,,,,,,,,,,,,,,,,,,,,,,,,,,,,,,,,,,,,,,,
8012,1650407629.392398,1650407629.384481,26.0,0.0,4315.384765999999,4474.871582,4246.666504,4277.94873,4123.077147999999,0.0,4.0,86.0,,,,0.0,4.0,0.0,2.0,0.0,4.0,16.666666,,,,,,,,13.0,0.0,0.256771,-0.432129,0.540039,0.675049,0.863783,-0.506844,-0.042481,-0.034048,-0.037509,-0.010761,,,,,,,,,,,,,,,,,,,,,,,,,,,,,,,,,,,0.0,0.0,1.0,0.0,128.0,0.145958,,,,,,,,,,,,,,,,,,,,,,,,,
8013,1650407629.400213,1650407629.3923962,27.0,0.0,4338.461426,4526.153809,4231.282227000001,4276.922852000001,4143.077147999999,0.0,4.0,86.0,,,,0.0,4.0,0.0,2.0,0.0,4.0,16.666666,,,,,,,,,,,,,,,,,,,,,,,,,,,,,,,,,,,,,,,,,,,,,,,,,,,,,,,,,,,,,,,,,,,,,,,,,,,,,,,,,,,,
8014,1650407629.408027,1650407629.40031,28.0,0.0,4363.589844,4598.461426,4241.538574,4277.436035,4160.512695,0.0,4.0,86.0,,,,0.0,4.0,0.0,2.0,0.0,4.0,16.666666,,,,,,,,14.0,0.0,0.257412,-0.432129,0.540039,0.674805,0.873549,-0.5302819999999999,-0.060548000000000005,-0.034061,-0.037567,-0.013054,,,,,,,,,,,,,,,,,,,,,,,,,,,,,,,,,,,,,,,,,,,,,,,,,,,,,,,,,,,,,,,,,
8015,1650407629.415842,1650407629.408125,29.0,0.0,4345.641113000001,4577.436035,4230.256348,4276.922852000001,4148.205078,0.0,4.0,86.0,,,,0.0,4.0,0.0,2.0,0.0,4.0,16.666666,,,,,,,,,,,,,,,,,,,,,,,,,,,,,,,,,,,,,,,,,,,,,,,,,,,,,,,,,,,,,,,,,,,,,,,,,,,,,,,,,,,,
8016,1650407629.423656,1650407629.415939,30.0,0.0,4332.307617,4528.205078,4205.128418,4276.922852000001,4134.358886999999,0.0,4.0,86.0,,,,0.0,4.0,0.0,2.0,0.0,4.0,16.666666,,,,,,,,15.0,0.0,0.257412,-0.432129,0.540039,0.674805,0.8750129999999999,-0.511238,-0.044433999999999994,-0.034024,-0.03757,-0.015216,,,,,,,,,,,,,,,,,,,,,,,,,,,,,,,,,,,0.0,0.0,1.0,0.0,128.0,0.145958,,,,,,,,,,,,,,,,,,,,,,,,,
8017,1650407629.431471,1650407629.423754,31.0,0.0,4348.205078,4556.922852000001,4195.897461,4276.922852000001,4141.025879,0.0,4.0,86.0,,,,0.0,4.0,0.0,2.0,0.0,4.0,16.666666,,,,,,,,,,,,,,,,,,,,,,,,,,,,,,,,,,,,,,,,,,,,,,,,,,,,,,,,,,,,,,,,,,,,,,,,,,,,,,,,,,,,
8018,1650407629.439286,1650407629.431469,32.0,0.0,4318.461426,4575.384765999999,4206.666504,4274.871582,4118.974121,0.0,4.0,86.0,,,,0.0,4.0,0.0,2.0,0.0,4.0,16.666666,,,,,,,,16.0,0.0,0.257412,-0.432129,0.540039,0.674805,0.877943,-0.504891,-0.039550999999999996,-0.034089,-0.037524,-0.010862,,,,,,,,,,,,,,,,,,,,,,,,,,,,,,,,,,,,,,,,,,,,,,,,,,,,,,,,,,,,,,,,,
8019,1650407629.4471,1650407629.439183,33.0,0.0,4318.974121,4530.256348,4212.307617,4277.436035,4126.153809,0.0,4.0,86.0,,,,0.0,4.0,0.0,2.0,0.0,4.0,16.666666,,,,,,,,,,,,,,,,,,,,,,,,,,,,,,,,,,,,,,,,,,,,,,,,,,,,,,,,,,,,,,,,,,,,,,,,,,,,,,,,,,,,
8020,1650407629.454915,1650407629.4469981,34.0,0.0,4348.205078,4534.871582,4216.922852000001,4281.025879,4148.205078,0.0,4.0,86.0,,,,0.0,4.0,0.0,2.0,0.0,4.0,16.666666,,,,,,,,17.0,0.0,0.257002,-0.43237299999999995,0.540039,0.674805,0.861341,-0.500984,-0.041993,-0.034049,-0.037531,-0.006797,,,,,,,,,,,,,,,,,,,,,,,,,,,,,,,,,,,0.0,0.0,1.0,0.0,128.0,0.145958,,,,,,,,,,,,,,,,,,,,,,,,,
8021,1650407629.462729,1650407629.454713,35.0,0.0,4340.512695,4595.384765999999,4219.487305,4277.436035,4140.0,0.0,4.0,86.0,,,,0.0,4.0,0.0,2.0,0.0,4.0,16.666666,,,,,,,,,,,,,,,,,,,,,,,,,,,,,,,,,,,,,,,,,,,,,,,,,,,,,,,,,,,,,,,,,,,,,,,,,,,,,,,,,,,,
8022,1650407629.4705439,1650407629.462527,36.0,0.0,4312.820313,4642.05127,4190.256348,4274.871582,4122.05127,0.0,4.0,86.0,,,,0.0,4.0,0.0,2.0,0.0,4.0,16.666666,,,,,,,,18.0,0.0,0.256488,-0.43237299999999995,0.540283,0.674805,0.872084,-0.507332,-0.041505,-0.034111,-0.037538,-0.009438,,,,,,,,,,,,,,,,,,,,,,,,,,,,,,,,,,,,,,,,,,,,,,,,,,,,,,,,,,,,,,,,,
8023,1650407629.478358,1650407629.470242,37.0,0.0,4328.717772999999,4661.538574,4218.461426,4275.897461,4132.307617,0.0,4.0,86.0,,,,0.0,4.0,0.0,2.0,0.0,4.0,16.666666,,,,,,,,,,,,,,,,,,,,,,,,,,,,,,,,,,,,,,,,,,,,,,,,,,,,,,,,,,,,,,,,,,,,,,,,,,,,,,,,,,,,
8024,1650407629.4861732,1650407629.478056,38.0,0.0,4344.615234000001,4597.436035,4244.102539,4278.974121,4136.922852000001,0.0,4.0,86.0,,,,0.0,4.0,0.0,2.0,0.0,4.0,16.666666,,,,,,,,19.0,0.0,0.257412,-0.432129,0.540039,0.674805,0.8652479999999999,-0.506355,-0.043946,-0.034118,-0.037495,-0.008395999999999999,1.0,0.0,0.0,,,,,,,,,,,,,,,,,,,,,,,,,,,,,,,,0.0,0.0,64.0,0.96298,1.0,0.0,58.24419399999999,8.710353,1.107008,2.194844,3.674731,153.560013,39.963428,14.805057999999999,16.05245,26.559872,41.12664,52.55471,7.226714,8.327459,7.995778,0.101233,0.02988,0.03992,0.037252,0.041335000000000004,1965.268188,417.994019,15.978155,3.160272,2.309333
8025,1650407629.493988,1650407629.4857712,39.0,0.0,4342.563965,4490.769043,4249.230957,4282.563965,4125.128418,0.0,4.0,86.0,,,,0.0,4.0,0.0,2.0,0.0,4.0,16.666666,,,,,,,,,,,,,,,,,,,,,,,,,,,,,,,,,,,,,,,,,,,,,,,,,,,,,,,,,,,,,,,,,,,,,,,,,,,,,,,,,,,,
8026,1650407629.501802,1650407629.4935849,40.0,0.0,4347.692383,4532.307617,4233.333496,4282.563965,4106.666504,0.0,4.0,86.0,,,,0.0,4.0,0.0,2.0,0.0,4.0,16.666666,,,,,,,,20.0,0.0,0.256257,-0.432129,0.540283,0.675049,0.8525520000000001,-0.520027,-0.046387,-0.034124,-0.037603,-0.004676,,,,,,,,,,,,,,,,,,,,,,,,,,,,,,,,,,,,,,,,,,,,,,,,,,,,,,,,,,,,,,,,,
8027,1650407629.509617,1650407629.5013,41.0,0.0,4340.512695,4624.102539,4266.153809,4280.0,4087.6923829999996,0.0,4.0,86.0,,,,0.0,4.0,0.0,2.0,0.0,4.0,16.666666,,,,,,,,,,,,,,,,,,,,,,,,,,,,,,,,,,,,,,,,,,,,,,,,,,,,,,,,,,,,,,,,,,,,,,,,,,,,,,,,,,,,
8028,1650407629.517431,1650407629.509114,42.0,0.0,4338.461426,4569.230957,4253.846191,4280.0,4093.3332520000004,0.0,4.0,86.0,,,,0.0,4.0,0.0,2.0,0.0,4.0,16.666666,,,,,,,,21.0,0.0,0.256257,-0.432129,0.540283,0.675049,0.8657360000000001,-0.5180739999999999,-0.041993,-0.034032,-0.037603,-0.004013,,,,,,,,,,,,,,,,,,,,,,,,,,,,,,,,,,,0.0,0.0,64.0,0.96298,1.0,0.0,,,,,,,,,,,,,,,,,,,,,,,,,
8029,1650407629.5252461,1650407629.516829,43.0,0.0,4339.487305,4530.769043,4243.589844,4279.487305,4093.3332520000004,0.0,4.0,86.0,,,,0.0,4.0,0.0,2.0,0.0,4.0,16.666666,,,,,,,,,,,,,,,,,,,,,,,,,,,,,,,,,,,,,,,,,,,,,,,,,,,,,,,,,,,,,,,,,,,,,,,,,,,,,,,,,,,,
8030,1650407629.53306,1650407629.524643,44.0,0.0,4340.512695,4613.846191,4234.871582,4276.410156,4086.6667479999996,0.0,4.0,86.0,,,,0.0,4.0,0.0,2.0,0.0,4.0,16.666666,,,,,,,,22.0,0.0,0.256257,-0.432129,0.540283,0.675049,0.851087,-0.514656,-0.035157,-0.034096,-0.037602,-0.009715000000000001,,,,,,,,,,,,,,,,,,,,,,,,,,,,,,,,,,,,,,,,,,,,,,,,,,,,,,,,,,,,,,,,,
8031,1650407629.540875,1650407629.532457,45.0,0.0,4336.922852000001,4635.897461,4240.512695,4276.922852000001,4080.512939,0.0,4.0,86.0,,,,0.0,4.0,0.0,2.0,0.0,4.0,16.666666,,,,,,,,,,,,,,,,,,,,,,,,,,,,,,,,,,,,,,,,,,,,,,,,,,,,,,,,,,,,,,,,,,,,,,,,,,,,,,,,,,,,
8032,1650407629.54869,1650407629.540172,46.0,0.0,4364.102539,4541.025879,4206.153809,4279.487305,4101.538574,0.0,4.0,86.0,,,,0.0,4.0,0.0,2.0,0.0,4.0,16.666666,,,,,,,,23.0,0.0,0.256668,-0.431885,0.540283,0.675049,0.8657360000000001,-0.5234449999999999,-0.045411,-0.034104,-0.037504,-0.012064,,,,,,,,,,,,,,,,,,,,,,,,,,,,,,,,,,,0.0,0.0,64.0,0.96298,1.0,0.0,,,,,,,,,,,,,,,,,,,,,,,,,
8033,1650407629.556504,1650407629.547986,47.0,0.0,4381.538574,4500.0,4184.615234000001,4280.0,4111.794922,0.0,4.0,86.0,,,,0.0,4.0,0.0,2.0,0.0,4.0,16.666666,,,,,,,,,,,,,,,,,,,,,,,,,,,,,,,,,,,,,,,,,,,,,,,,,,,,,,,,,,,,,,,,,,,,,,,,,,,,,,,,,,,,
8034,1650407629.564319,1650407629.555901,48.0,0.0,4378.974121,4583.077147999999,4184.102539,4281.025879,4100.0,0.0,4.0,86.0,,,,0.0,4.0,0.0,2.0,0.0,4.0,16.666666,,,,,,,,24.0,0.0,0.256668,-0.431885,0.540283,0.675049,0.871107,-0.513191,-0.045411,-0.034112,-0.037562,-0.014227000000000002,,,,,,,,,,,,,,,,,,,,,,,,,,,,,,,,,,,,,,,,,,,,,,,,,,,,,,,,,,,,,,,,,
8035,1650407629.572133,1650407629.563716,49.0,0.0,4363.589844,4598.974121,4193.333496,4278.974121,4080.0,0.0,4.0,86.0,,,,0.0,4.0,0.0,2.0,0.0,4.0,16.666666,,,,,,,,,,,,,,,,,,,,,,,,,,,,,,,,,,,,,,,,,,,,,,,,,,,,,,,,,,,,,,,,,,,,,,,,,,,,,,,,,,,,
8036,1650407629.579948,1650407629.57163,50.0,0.0,4373.846191,4486.666504,4220.512695,4277.94873,4092.3076170000004,0.0,4.0,86.0,,,,0.0,4.0,0.0,2.0,0.0,4.0,16.666666,,,,,,,,25.0,0.0,0.256668,-0.431885,0.540283,0.675049,0.8652479999999999,-0.523934,-0.0542,-0.034168000000000004,-0.037566,-0.012609,,,,,,,,,,,,,,,,,,,,,,,,,,,,,,,,,,,0.0,0.0,64.0,0.96298,1.0,0.0,,,,,,,,,,,,,,,,,,,,,,,,,
8037,1650407629.5877619,1650407629.579445,51.0,0.0,4373.333496,4467.179688,4216.410156,4279.487305,4094.358887,0.0,4.0,86.0,,,,0.0,4.0,0.0,2.0,0.0,4.0,16.666666,,,,,,,,,,,,,,,,,,,,,,,,,,,,,,,,,,,,,,,,,,,,,,,,,,,,,,,,,,,,,,,,,,,,,,,,,,,,,,,,,,,,
8038,1650407629.595577,1650407629.587359,52.0,0.0,4370.769043,4569.230957,4218.461426,4281.025879,4078.461426,0.0,4.0,86.0,,,,0.0,4.0,0.0,2.0,0.0,4.0,16.666666,,,,,,,,26.0,0.0,0.256154,-0.431885,0.5405270000000001,0.675049,0.867201,-0.525887,-0.036622,-0.034266000000000005,-0.03752,-0.01462,,,,,,,,,,,,,,,,,,,,,,,,,,,,,,,,,,,,,,,,,,,,,,,,,,,,,,,,,,,,,,,,,
8039,1650407629.603392,1650407629.595174,53.0,0.0,4404.615234000001,4595.897461,4243.589844,4282.563965,4096.922852000001,0.0,4.0,86.0,,,,0.0,4.0,0.0,2.0,0.0,4.0,16.666666,,,,,,,,,,,,,,,,,,,,,,,,,,,,,,,,,,,,,,,,,,,,,,,,,,,,,,,,,,,,,,,,,,,,,,,,,,,,,,,,,,,,
8040,1650407629.611206,1650407629.6030881,54.0,0.0,4409.743652,4574.871582,4277.94873,4279.487305,4116.410156,0.0,4.0,86.0,,,,0.0,4.0,0.0,2.0,0.0,4.0,16.666666,,,,,,,,27.0,0.0,0.256796,-0.431885,0.5405270000000001,0.674805,0.857923,-0.51075,-0.042969,-0.034258,-0.037577,-0.016576,1.0,0.0,0.0,,,,,,,,,,,,,,,,,,,,,,,,,,,,,,,,0.0,0.0,64.0,0.748247,1.0,0.0,67.16404,9.591001,1.341156,2.06815,3.825457,175.15429699999999,40.20715,14.985635999999998,16.631527,26.270794,41.115631,49.447247,6.879021000000001,8.464386,8.19122,0.114347,0.028187,0.04099,0.037846,0.041562,2414.35498,533.382935,19.367262,3.9323949999999996,2.3663119999999997
8041,1650407629.6190212,1650407629.610903,55.0,0.0,4371.794922,4607.692383,4232.307617,4275.897461,4092.3076170000004,0.0,4.0,86.0,,,,0.0,4.0,0.0,2.0,0.0,4.0,16.666666,,,,,,,,,,,,,,,,,,,,,,,,,,,,,,,,,,,,,,,,,,,,,,,,,,,,,,,,,,,,,,,,,,,,,,,,,,,,,,,,,,,,
8042,1650407629.6268349,1650407629.618818,56.0,0.0,4367.692383,4586.153809,4220.0,4277.436035,4087.6923829999996,0.0,4.0,86.0,,,,0.0,4.0,0.0,2.0,0.0,4.0,16.666666,,,,,,,,28.0,0.0,0.256796,-0.431885,0.5405270000000001,0.674805,0.879408,-0.502937,-0.036622,-0.034299,-0.037579,-0.018336,,,,,,,,,,,,,,,,,,,,,,,,,,,,,,,,,,,,,,,,,,,,,,,,,,,,,,,,,,,,,,,,,
8043,1650407629.63465,1650407629.626632,57.0,0.0,4404.615234000001,4529.230957,4211.794922,4284.615234000001,4124.102539,0.0,4.0,86.0,,,,0.0,4.0,0.0,2.0,0.0,4.0,16.666666,,,,,,,,,,,,,,,,,,,,,,,,,,,,,,,,,,,,,,,,,,,,,,,,,,,,,,,,,,,,,,,,,,,,,,,,,,,,,,,,,,,,
8044,1650407629.642465,1650407629.634347,58.0,0.0,4395.897461,4581.538574,4236.922852000001,4284.102539,4114.358886999999,0.0,4.0,86.0,,,,0.0,4.0,0.0,2.0,0.0,4.0,16.666666,,,,,,,,29.0,0.0,0.256282,-0.431885,0.540771,0.674805,0.862806,-0.505867,-0.044923000000000005,-0.034385,-0.037630000000000004,-0.013572999999999998,,,,,,,,,,,,,,,,,,,,,,,,,,,,,,,,,,,0.0,0.0,64.0,0.748247,1.0,0.0,,,,,,,,,,,,,,,,,,,,,,,,,
8045,1650407629.6502788,1650407629.6421618,59.0,0.0,4370.769043,4599.487305,4228.717772999999,4280.512695,4089.2307130000004,0.0,4.0,86.0,,,,0.0,4.0,0.0,2.0,0.0,4.0,16.666666,,,,,,,,,,,,,,,,,,,,,,,,,,,,,,,,,,,,,,,,,,,,,,,,,,,,,,,,,,,,,,,,,,,,,,,,,,,,,,,,,,,,
8046,1650407629.658094,1650407629.6498759,60.0,0.0,4382.05127,4498.461426,4199.487305,4283.077147999999,4078.974365,0.0,4.0,86.0,,,,0.0,4.0,0.0,2.0,0.0,4.0,16.666666,,,,,,,,30.0,0.0,0.256282,-0.431885,0.540771,0.674805,0.8764780000000001,-0.508797,-0.036622,-0.034315,-0.037578,-0.015536000000000001,,,,,,,,,,,,,,,,,,,,,,,,,,,,,,,,,,,,,,,,,,,,,,,,,,,,,,,,,,,,,,,,,
8047,1650407629.665908,1650407629.657691,61.0,0.0,4400.512695,4499.487305,4167.692383,4283.589844,4080.512939,0.0,4.0,86.0,,,,0.0,4.0,0.0,2.0,0.0,4.0,16.666666,,,,,,,,,,,,,,,,,,,,,,,,,,,,,,,,,,,,,,,,,,,,,,,,,,,,,,,,,,,,,,,,,,,,,,,,,,,,,,,,,,,,
8048,1650407629.673723,1650407629.665405,62.0,0.0,4377.436035,4584.102539,4193.846191,4278.974121,4078.974365,0.0,4.0,86.0,,,,0.0,4.0,0.0,2.0,0.0,4.0,16.666666,,,,,,,,31.0,0.0,0.256282,-0.431885,0.540771,0.674805,0.8652479999999999,-0.509285,-0.039063,-0.034351,-0.03758,-0.017351,,,,,,,,,,,,,,,,,,,,,,,,,,,,,,,,,,,0.0,0.0,64.0,0.748247,1.0,0.0,,,,,,,,,,,,,,,,,,,,,,,,,
8049,1650407629.681538,1650407629.673219,63.0,0.0,4372.820313,4586.153809,4217.94873,4280.512695,4089.743652,0.0,4.0,86.0,,,,0.0,4.0,0.0,2.0,0.0,4.0,16.666666,,,,,,,,,,,,,,,,,,,,,,,,,,,,,,,,,,,,,,,,,,,,,,,,,,,,,,,,,,,,,,,,,,,,,,,,,,,,,,,,,,,,
8050,1650407629.689352,1650407629.680934,64.0,0.0,4380.512695,4570.769043,4228.717772999999,4283.077147999999,4075.384521,450.0,4.0,86.0,,,,0.0,4.0,0.0,2.0,0.0,4.0,16.666666,,,,,,,,32.0,0.0,0.256282,-0.431885,0.540771,0.674805,0.862806,-0.505867,-0.044923000000000005,-0.034431,-0.037631,-0.012687,,,,,,,,,,,,,,,,,,,,,,,,,,,,,,,,,,,,,,,,,,,,,,,,,,,,,,,,,,,,,,,,,
8051,1650407629.697167,1650407629.6887481,65.0,0.0,4387.179688,4596.922852000001,4203.589844,4281.025879,4067.179443,450.0,4.0,86.0,,,,0.0,4.0,0.0,2.0,0.0,4.0,16.666666,,,,,,,,,,,,,,,,,,,,,,,,,,,,,,,,,,,,,,,,,,,,,,,,,,,,,,,,,,,,,,,,,,,,,,,,,,,,,,,,,,,,
8052,1650407629.704981,1650407629.696463,66.0,0.0,4376.922852000001,4610.256348,4175.384765999999,4280.0,4065.641113,16128.0,4.0,86.0,,,,0.0,4.0,0.0,2.0,0.0,4.0,16.666666,,,,,,,,33.0,0.0,0.256282,-0.431885,0.540771,0.674805,0.8589,-0.518563,-0.042481,-0.034357,-0.037725,-0.008439,,,,,,,,,,,,,,,,,,,,,,,,,,,,,,,,,,,0.0,0.0,64.0,0.748247,1.0,0.0,,,,,,,,,,,,,,,,,,,,,,,,,
8053,1650407629.7127962,1650407629.704377,67.0,0.0,4386.153809,4610.256348,4201.538574,4281.025879,4070.7692869999996,450.0,4.0,86.0,,,,0.0,4.0,0.0,2.0,0.0,4.0,16.666666,,,,,,,,,,,,,,,,,,,,,,,,,,,,,,,,,,,,,,,,,,,,,,,,,,,,,,,,,,,,,,,,,,,,,,,,,,,,,,,,,,,,
8054,1650407629.7206109,1650407629.712192,68.0,0.0,4389.230957,4568.717772999999,4189.743652,4282.05127,4060.512939,0.0,4.0,86.0,,,,0.0,4.0,0.0,2.0,0.0,4.0,16.666666,,,,,,,,34.0,0.0,0.256282,-0.431885,0.540771,0.674805,0.875502,-0.512215,-0.047363999999999996,-0.034486,-0.037761,-0.010867,,,,,,,,,,,,,,,,,,,,,,,,,,,,,,,,,,,,,,,,,,,,,,,,,,,,,,,,,,,,,,,,,
8055,1650407629.728425,1650407629.720107,69.0,0.0,4362.563965,4502.05127,4191.794922,4284.615234000001,4026.1538090000004,450.0,4.0,86.0,,,,0.0,4.0,0.0,2.0,0.0,4.0,16.666666,,,,,,,,,,,,,,,,,,,,,,,,,,,,,,,,,,,,,,,,,,,,,,,,,,,,,,,,,,,,,,,,,,,,,,,,,,,,,,,,,,,,
8056,1650407629.7362401,1650407629.727921,70.0,0.0,4341.538574,4494.871582,4215.897461,4284.615234000001,3993.8461909999996,196.0,4.0,86.0,,,,0.0,4.0,0.0,2.0,0.0,4.0,16.666666,,,,,,,,35.0,0.0,0.256282,-0.431885,0.540771,0.674805,0.873549,-0.511727,-0.045411,-0.034456,-0.037696,-0.006899,1.0,0.0,0.0,,,,,,,,,,,,,,,,,,,,,,,,,,,,,,,,0.0,0.0,64.0,0.47453,1.0,0.0,66.543701,9.544788,1.653444,1.9473189999999998,3.7312190000000003,174.175201,37.344112,14.352929000000001,17.388206,24.706472,40.995723999999996,46.667721,7.112457000000001,9.277076,8.00014,0.11695499999999999,0.028515,0.041743,0.03682,0.038758,2565.869873,583.3330080000001,20.655792,4.581517,2.3523560000000003
8057,1650407629.7440538,1650407629.735736,71.0,0.0,4347.179688,4515.897461,4253.846191,4281.025879,4009.2307130000004,450.0,4.0,86.0,,,,0.0,4.0,0.0,2.0,0.0,4.0,16.666666,,,,,,,,,,,,,,,,,,,,,,,,,,,,,,,,,,,,,,,,,,,,,,,,,,,,,,,,,,,,,,,,,,,,,,,,,,,,,,,,,,,,
8058,1650407629.751869,1650407629.74345,72.0,0.0,4351.794922,4529.230957,4218.974121,4280.0,4029.2307130000004,450.0,4.0,86.0,,,,0.0,4.0,0.0,2.0,0.0,4.0,16.666666,,,,,,,,36.0,0.0,0.256282,-0.431885,0.540771,0.674805,0.866224,-0.514656,-0.044923000000000005,-0.034428,-0.037589,-0.00953,,,,,,,,,,,,,,,,,,,,,,,,,,,,,,,,,,,,,,,,,,,,,,,,,,,,,,,,,,,,,,,,,
8059,1650407629.759683,1650407629.751365,73.0,0.0,4337.94873,4558.974121,4255.384765999999,4280.512695,4009.743652,0.0,4.0,86.0,,,,0.0,4.0,0.0,2.0,0.0,4.0,16.666666,,,,,,,,,,,,,,,,,,,,,,,,,,,,,,,,,,,,,,,,,,,,,,,,,,,,,,,,,,,,,,,,,,,,,,,,,,,,,,,,,,,,
8060,1650407629.767498,1650407629.75918,74.0,0.0,4356.410156,4600.0,4308.205078,4282.563965,4024.102539,450.0,4.0,86.0,,,,0.0,4.0,0.0,2.0,0.0,4.0,16.666666,,,,,,,,37.0,0.0,0.256178,-0.431641,0.5410159999999999,0.674805,0.869642,-0.513191,-0.043946,-0.034257,-0.037541000000000005,-0.011848000000000001,,,,,,,,,,,,,,,,,,,,,,,,,,,,,,,,,,,0.0,0.0,64.0,0.47453,1.0,0.0,,,,,,,,,,,,,,,,,,,,,,,,,
8061,1650407629.7753131,1650407629.766994,75.0,0.0,4389.743652,4657.94873,4286.666504,4284.615234000001,4047.6923829999996,16137.0,4.0,86.0,,,,0.0,4.0,0.0,2.0,0.0,4.0,16.666666,,,,,,,,,,,,,,,,,,,,,,,,,,,,,,,,,,,,,,,,,,,,,,,,,,,,,,,,,,,,,,,,,,,,,,,,,,,,,,,,,,,,
8062,1650407629.783127,1650407629.774709,76.0,0.0,4389.743652,4678.974121,4178.974121,4281.538574,4030.256348,450.0,4.0,86.0,,,,0.0,4.0,0.0,2.0,0.0,4.0,16.666666,,,,,,,,38.0,0.0,0.256693,-0.431641,0.540771,0.674805,0.8525520000000001,-0.500984,-0.047363999999999996,-0.034249,-0.037545999999999996,-0.014033000000000002,,,,,,,,,,,,,,,,,,,,,,,,,,,,,,,,,,,,,,,,,,,,,,,,,,,,,,,,,,,,,,,,,
8063,1650407629.790942,1650407629.782623,77.0,0.0,4345.128418,4627.179688,4166.666504,4279.487305,3989.2307130000004,450.0,4.0,86.0,,,,0.0,4.0,0.0,2.0,0.0,4.0,16.666666,,,,,,,,,,,,,,,,,,,,,,,,,,,,,,,,,,,,,,,,,,,,,,,,,,,,,,,,,,,,,,,,,,,,,,,,,,,,,,,,,,,,
8064,1650407629.7987561,1650407629.7904382,78.0,0.0,4333.333496,4597.436035,4180.0,4279.487305,3987.6923829999996,450.0,4.0,86.0,,,,0.0,4.0,0.0,2.0,0.0,4.0,16.666666,,,,,,,,39.0,0.0,0.256178,-0.431641,0.5410159999999999,0.674805,0.866224,-0.504891,-0.053223,-0.034242,-0.037454,-0.01595,,,,,,,,,,,,,,,,,,,,,,,,,,,,,,,,,,,0.0,0.0,64.0,0.47453,1.0,0.0,,,,,,,,,,,,,,,,,,,,,,,,,
8065,1650407629.806571,1650407629.798353,79.0,0.0,4343.077147999999,4596.410156,4151.282227000001,4280.0,3996.923096,16137.0,4.0,86.0,,,,0.0,4.0,0.0,2.0,0.0,4.0,16.666666,,,,,,,,,,,,,,,,,,,,,,,,,,,,,,,,,,,,,,,,,,,,,,,,,,,,,,,,,,,,,,,,,,,,,,,,,,,,,,,,,,,,
8066,1650407629.814385,1650407629.806167,80.0,0.0,4363.077147999999,4577.94873,4147.179688,4278.461426,4004.615479,450.0,4.0,86.0,,,,0.0,4.0,0.0,2.0,0.0,4.0,16.666666,,,,,,,,40.0,0.0,0.256178,-0.431641,0.5410159999999999,0.674805,0.8603649999999999,-0.49121800000000004,-0.030762,-0.034236,-0.037517,-0.017724,,,,,,,,,,,,,,,,,,,,,,,,,,,,,,,,,,,,,,,,,,,,,,,,,,,,,,,,,,,,,,,,,
8067,1650407629.8222,1650407629.8140821,81.0,0.0,4355.384765999999,4610.256348,4170.769043,4275.384765999999,3990.7692869999996,450.0,4.0,86.0,,,,0.0,4.0,0.0,2.0,0.0,4.0,16.666666,,,,,,,,,,,,,,,,,,,,,,,,,,,,,,,,,,,,,,,,,,,,,,,,,,,,,,,,,,,,,,,,,,,,,,,,,,,,,,,,,,,,
8068,1650407629.830015,1650407629.821896,82.0,0.0,4334.358886999999,4667.179688,4203.077147999999,4274.871582,3971.794922,450.0,4.0,86.0,,,,0.0,4.0,0.0,2.0,0.0,4.0,16.666666,,,,,,,,41.0,0.0,0.256178,-0.431641,0.5410159999999999,0.674805,0.866712,-0.5141680000000001,-0.046387,-0.034279000000000004,-0.037574,-0.015805,,,,,,,,,,,,,,,,,,,,,,,,,,,,,,,,,,,0.0,0.0,64.0,0.47453,1.0,0.0,,,,,,,,,,,,,,,,,,,,,,,,,
8069,1650407629.8378289,1650407629.8296108,83.0,0.0,4336.410156,4641.025879,4258.974121,4275.897461,3977.4357909999994,16137.0,4.0,86.0,,,,0.0,4.0,0.0,2.0,0.0,4.0,16.666666,,,,,,,,,,,,,,,,,,,,,,,,,,,,,,,,,,,,,,,,,,,,,,,,,,,,,,,,,,,,,,,,,,,,,,,,,,,,,,,,,,,,
8070,1650407629.845644,1650407629.837426,84.0,0.0,4370.256348,4624.615234000001,4306.666504,4276.922852000001,4019.487061,450.0,4.0,86.0,,,,0.0,4.0,0.0,2.0,0.0,4.0,16.666666,,,,,,,,42.0,0.0,0.256178,-0.431641,0.5410159999999999,0.674805,0.862806,-0.51368,-0.04004,-0.034416,-0.037577,-0.017544999999999998,,,,,,,,,,,,,,,,,,,,,,,,,,,,,,,,,,,,,,,,,,,,,,,,,,,,,,,,,,,,,,,,,
8071,1650407629.853458,1650407629.84514,85.0,0.0,4369.743652,4654.358886999999,4268.205078,4277.436035,4032.820557,450.0,4.0,86.0,,,,0.0,4.0,0.0,2.0,0.0,4.0,16.666666,,,,,,,,,,,,,,,,,,,,,,,,,,,,,,,,,,,,,,,,,,,,,,,,,,,,,,,,,,,,,,,,,,,,,,,,,,,,,,,,,,,,
8072,1650407629.861273,1650407629.852955,86.0,0.0,4346.153809,4614.358886999999,4249.230957,4280.0,4015.384521,450.0,4.0,86.0,,,,0.0,4.0,0.0,2.0,0.0,4.0,16.666666,1.0,0.0,3.0,0.0,0.0,0.0,0.0,43.0,0.0,0.256178,-0.431641,0.5410159999999999,0.674805,0.8642709999999999,-0.51368,-0.039550999999999996,-0.034343,-0.037481,-0.015643999999999998,1.0,0.0,0.0,,,,,,,,,,,,,,,,,,,,,,,,,,,,,,,,0.0,0.0,1.0,0.0,512.0,0.8124939999999999,56.640854000000004,8.715296,2.0155849999999997,1.8630529999999998,3.463145,149.011902,31.768559999999997,13.069305,18.180403,22.201898999999997,40.621426,44.445071999999996,8.068814999999999,10.220278,7.4690970000000005,0.10628499999999999,0.032075,0.043267,0.03558,0.034091,2376.95459,550.242981,19.490728,4.916135,2.321383
8073,1650407629.869087,1650407629.860669,87.0,0.0,4367.179688,4570.769043,4209.230957,4283.589844,4023.076904,16137.0,4.0,86.0,,,,0.0,4.0,0.0,2.0,0.0,4.0,16.666666,,,,,,,,,,,,,,,,,,,,,,,,,,,,,,,,,,,,,,,,,,,,,,,,,,,,,,,,,,,,,,,,,,,,,,,,,,,,,,,,,,,,
8074,1650407629.8769019,1650407629.868484,88.0,0.0,4373.333496,4616.922852000001,4205.128418,4281.025879,4024.102539,450.0,4.0,86.0,,,,0.0,4.0,0.0,2.0,0.0,4.0,16.666666,,,,,,,,44.0,0.0,0.256178,-0.431641,0.5410159999999999,0.674805,0.8730600000000001,-0.5097729999999999,-0.025879000000000003,-0.034181,-0.037493,-0.017449,,,,,,,,,,,,,,,,,,,,,,,,,,,,,,,,,,,,,,,,,,,,,,,,,,,,,,,,,,,,,,,,,
8075,1650407629.884717,1650407629.876198,89.0,0.0,4343.589844,4624.615234000001,4214.871582,4277.436035,4004.102539,450.0,4.0,86.0,,,,0.0,4.0,0.0,2.0,0.0,4.0,16.666666,,,,,,,,,,,,,,,,,,,,,,,,,,,,,,,,,,,,,,,,,,,,,,,,,,,,,,,,,,,,,,,,,,,,,,,,,,,,,,,,,,,,
8076,1650407629.8925312,1650407629.8840132,90.0,0.0,4326.666504,4572.307617,4232.820313,4277.436035,3994.8718259999996,450.0,4.0,86.0,,,,0.0,4.0,0.0,2.0,0.0,4.0,16.666666,,,,,,,,45.0,0.0,0.256178,-0.431641,0.5410159999999999,0.674805,0.871107,-0.516121,-0.044433999999999994,-0.034181,-0.037455,-0.012773999999999999,,,,,,,,,,,,,,,,,,,,,,,,,,,,,,,,,,,0.0,0.0,1.0,0.0,512.0,0.8124939999999999,,,,,,,,,,,,,,,,,,,,,,,,,
8077,1650407629.900346,1650407629.891727,91.0,0.0,4349.230957,4593.333496,4191.282227000001,4279.487305,4023.076904,16137.0,4.0,86.0,,,,0.0,4.0,0.0,2.0,0.0,4.0,16.666666,,,,,,,,,,,,,,,,,,,,,,,,,,,,,,,,,,,,,,,,,,,,,,,,,,,,,,,,,,,,,,,,,,,,,,,,,,,,,,,,,,,,
8078,1650407629.90816,1650407629.899642,92.0,0.0,4363.589844,4651.282227000001,4190.256348,4281.025879,4028.205078,450.0,4.0,86.0,,,,0.0,4.0,0.0,2.0,0.0,4.0,16.666666,,,,,,,,46.0,0.0,0.256178,-0.431641,0.5410159999999999,0.674805,0.876967,-0.515145,-0.036133,-0.034181,-0.037469,-0.014865999999999999,,,,,,,,,,,,,,,,,,,,,,,,,,,,,,,,,,,,,,,,,,,,,,,,,,,,,,,,,,,,,,,,,
8079,1650407629.915975,1650407629.9074562,93.0,0.0,4361.538574,4671.794922,4238.461426,4281.025879,4024.615479,450.0,4.0,86.0,,,,0.0,4.0,0.0,2.0,0.0,4.0,16.666666,,,,,,,,,,,,,,,,,,,,,,,,,,,,,,,,,,,,,,,,,,,,,,,,,,,,,,,,,,,,,,,,,,,,,,,,,,,,,,,,,,,,
8080,1650407629.923789,1650407629.915271,94.0,0.0,4338.461426,4679.487305,4256.922852000001,4278.974121,4012.820557,450.0,4.0,86.0,,,,0.0,4.0,0.0,2.0,0.0,4.0,16.666666,,,,,,,,47.0,0.0,0.256178,-0.431641,0.5410159999999999,0.674805,0.863294,-0.509285,-0.039063,-0.034082999999999995,-0.037482,-0.013233000000000002,,,,,,,,,,,,,,,,,,,,,,,,,,,,,,,,,,,0.0,0.0,1.0,0.0,512.0,0.8124939999999999,,,,,,,,,,,,,,,,,,,,,,,,,
8081,1650407629.931604,1650407629.922985,95.0,0.0,4346.666504,4686.153809,4180.512695,4277.94873,4009.2307130000004,16137.0,4.0,86.0,,,,0.0,4.0,0.0,2.0,0.0,4.0,16.666666,,,,,,,,,,,,,,,,,,,,,,,,,,,,,,,,,,,,,,,,,,,,,,,,,,,,,,,,,,,,,,,,,,,,,,,,,,,,,,,,,,,,
8082,1650407629.939419,1650407629.9308,96.0,0.0,4359.487305,4702.563965,4153.846191,4279.487305,4008.205078,450.0,4.0,86.0,,,,0.0,4.0,0.0,2.0,0.0,4.0,16.666666,,,,,,,,48.0,0.0,0.256589,-0.431396,0.5410159999999999,0.674805,0.857923,-0.512215,-0.041016000000000004,-0.034141000000000005,-0.037396,-0.018111000000000002,,,,,,,,,,,,,,,,,,,,,,,,,,,,,,,,,,,,,,,,,,,,,,,,,,,,,,,,,,,,,,,,,
8083,1650407629.947233,1650407629.938514,97.0,0.0,4349.230957,4717.94873,4224.102539,4280.512695,3998.974365,450.0,4.0,86.0,,,,0.0,4.0,0.0,2.0,0.0,4.0,16.666666,,,,,,,,,,,,,,,,,,,,,,,,,,,,,,,,,,,,,,,,,,,,,,,,,,,,,,,,,,,,,,,,,,,,,,,,,,,,,,,,,,,,
8084,1650407629.955048,1650407629.946429,98.0,0.0,4332.307617,4697.436035,4247.179688,4276.922852000001,3988.718018,450.0,4.0,86.0,,,,0.0,4.0,0.0,2.0,0.0,4.0,16.666666,,,,,,,,49.0,0.0,0.256589,-0.431396,0.5410159999999999,0.674805,0.862806,-0.498054,-0.044433999999999994,-0.034096,-0.037465,-0.019718,,,,,,,,,,,,,,,,,,,,,,,,,,,,,,,,,,,0.0,0.0,1.0,0.0,512.0,0.8124939999999999,,,,,,,,,,,,,,,,,,,,,,,,,
8085,1650407629.962862,1650407629.954243,99.0,0.0,4341.538574,4681.538574,4204.615234000001,4276.410156,4002.0512700000004,16137.0,4.0,86.0,,,,0.0,4.0,0.0,2.0,0.0,4.0,16.666666,,,,,,,,,,,,,,,,,,,,,,,,,,,,,,,,,,,,,,,,,,,,,,,,,,,,,,,,,,,,,,,,,,,,,,,,,,,,,,,,,,,,
8086,1650407629.970677,1650407629.962158,100.0,0.0,4340.0,4682.563965,4154.358886999999,4280.512695,3995.384521,450.0,4.0,86.0,,,,0.0,4.0,0.0,2.0,0.0,4.0,16.666666,,,,,,,,50.0,0.0,0.256178,-0.431641,0.5410159999999999,0.674805,0.863294,-0.509285,-0.039063,-0.034007,-0.037478,-0.0176,,,,,,,,,,,,,,,,,,,,,,,,,,,,,,,,,,,,,,,,,,,,,,,,,,,,,,,,,,,,,,,,,
8087,1650407629.978491,1650407629.969973,101.0,0.0,4332.307617,4661.025879,4175.897461,4278.461426,3992.3076170000004,450.0,4.0,86.0,,,,0.0,4.0,0.0,2.0,0.0,4.0,16.666666,,,,,,,,,,,,,,,,,,,,,,,,,,,,,,,,,,,,,,,,,,,,,,,,,,,,,,,,,,,,,,,,,,,,,,,,,,,,,,,,,,,,
8088,1650407629.986306,1650407629.977887,102.0,0.0,4347.179688,4623.077147999999,4206.153809,4274.871582,4013.8461909999996,450.0,4.0,86.0,,,,0.0,4.0,0.0,2.0,0.0,4.0,16.666666,,,,,,,,51.0,0.0,0.256589,-0.431396,0.5410159999999999,0.674805,0.862806,-0.498054,-0.044433999999999994,-0.033976,-0.037538999999999996,-0.019258,1.0,0.0,0.0,,,,,,,,,,,,,,,,,,,,,,,,,,,,,,,,0.0,0.0,1.0,0.0,512.0,0.991208,41.038113,7.460253999999999,2.376401,1.8280619999999999,3.129702,109.998352,24.910557,11.978817999999999,18.807548999999998,19.496906,39.803492999999996,42.76395,9.787201,10.741446,6.709442,0.086498,0.038547000000000005,0.046119,0.035821,0.029352,1902.425049,445.930695,16.406509,4.82718,2.309298
8089,1650407629.994121,1650407629.985702,103.0,0.0,4356.922852000001,4622.05127,4242.05127,4275.897461,4012.3076170000004,16137.0,4.0,86.0,,,,0.0,4.0,0.0,2.0,0.0,4.0,16.666666,,,,,,,,,,,,,,,,,,,,,,,,,,,,,,,,,,,,,,,,,,,,,,,,,,,,,,,,,,,,,,,,,,,,,,,,,,,,,,,,,,,,
8090,1650407630.001935,1650407629.993417,104.0,0.0,4348.717772999999,4661.025879,4236.922852000001,4277.94873,3997.9487299999996,450.0,4.0,86.0,,,,0.0,4.0,0.0,2.0,0.0,4.0,16.666666,,,,,,,,52.0,0.0,0.256589,-0.431396,0.5410159999999999,0.674805,0.866712,-0.5141680000000001,-0.036622,-0.033947000000000005,-0.037643,-0.020652,,,,,,,,,,,,,,,,,,,,,,,,,,,,,,,,,,,,,,,,,,,,,,,,,,,,,,,,,,,,,,,,,
8091,1650407630.00975,1650407630.001231,105.0,0.0,4347.179688,4686.666504,4249.230957,4277.436035,4010.256348,450.0,4.0,86.0,,,,0.0,4.0,0.0,2.0,0.0,4.0,16.666666,,,,,,,,,,,,,,,,,,,,,,,,,,,,,,,,,,,,,,,,,,,,,,,,,,,,,,,,,,,,,,,,,,,,,,,,,,,,,,,,,,,,
8092,1650407630.017564,1650407630.009146,106.0,0.0,4344.615234000001,4664.102539,4237.94873,4277.436035,4012.3076170000004,450.0,4.0,86.0,,,,0.0,4.0,0.0,2.0,0.0,4.0,16.666666,,,,,,,,53.0,0.0,0.256589,-0.431396,0.5410159999999999,0.674805,0.863783,-0.507332,-0.041993,-0.033971,-0.037638,-0.021956,,,,,,,,,,,,,,,,,,,,,,,,,,,,,,,,,,,0.0,0.0,1.0,0.0,512.0,0.991208,,,,,,,,,,,,,,,,,,,,,,,,,
8093,1650407630.025379,1650407630.01696,107.0,0.0,4317.436035,4643.077147999999,4244.102539,4276.410156,3984.615479,16137.0,4.0,86.0,,,,0.0,4.0,0.0,2.0,0.0,4.0,16.666666,,,,,,,,,,,,,,,,,,,,,,,,,,,,,,,,,,,,,,,,,,,,,,,,,,,,,,,,,,,,,,,,,,,,,,,,,,,,,,,,,,,,
8094,1650407630.0331929,1650407630.024675,108.0,0.0,4330.769043,4666.153809,4196.922852000001,4274.358886999999,4006.6667479999996,450.0,4.0,86.0,,,,0.0,4.0,0.0,2.0,0.0,4.0,16.666666,,,,,,,,54.0,0.0,0.256999,-0.43115200000000004,0.5410159999999999,0.674805,0.872084,-0.520516,-0.042481,-0.033992,-0.037585,-0.016880000000000003,,,,,,,,,,,,,,,,,,,,,,,,,,,,,,,,,,,,,,,,,,,,,,,,,,,,,,,,,,,,,,,,,
8095,1650407630.041008,1650407630.032489,109.0,0.0,4350.256348,4683.077147999999,4192.307617,4274.871582,4037.4357909999994,450.0,4.0,86.0,,,,0.0,4.0,0.0,2.0,0.0,4.0,16.666666,,,,,,,,,,,,,,,,,,,,,,,,,,,,,,,,,,,,,,,,,,,,,,,,,,,,,,,,,,,,,,,,,,,,,,,,,,,,,,,,,,,,
8096,1650407630.048823,1650407630.0402038,110.0,0.0,4345.641113000001,4665.128418,4230.769043,4278.974121,4037.9487299999996,450.0,4.0,86.0,,,,0.0,4.0,0.0,2.0,0.0,4.0,16.666666,,,,,,,,55.0,0.0,0.256484,-0.43115200000000004,0.5412600000000001,0.674805,0.8686659999999999,-0.510262,-0.038575,-0.033864,-0.037587,-0.018706999999999998,,,,,,,,,,,,,,,,,,,,,,,,,,,,,,,,,,,0.0,0.0,1.0,0.0,512.0,0.991208,,,,,,,,,,,,,,,,,,,,,,,,,
8097,1650407630.0566368,1650407630.048018,111.0,0.0,4331.794922,4675.897461,4239.487305,4278.461426,4039.487061,16137.0,4.0,86.0,,,,0.0,4.0,0.0,2.0,0.0,4.0,16.666666,,,,,,,,,,,,,,,,,,,,,,,,,,,,,,,,,,,,,,,,,,,,,,,,,,,,,,,,,,,,,,,,,,,,,,,,,,,,,,,,,,,,
8098,1650407630.064452,1650407630.055733,112.0,0.0,4360.512695,4697.436035,4183.589844,4277.94873,4076.4101560000004,450.0,4.0,86.0,,,,0.0,4.0,0.0,2.0,0.0,4.0,16.666666,,,,,,,,56.0,0.0,0.256484,-0.43115200000000004,0.5412600000000001,0.674805,0.8603649999999999,-0.51075,-0.044923000000000005,-0.033993,-0.037587999999999996,-0.013907,,,,,,,,,,,,,,,,,,,,,,,,,,,,,,,,,,,,,,,,,,,,,,,,,,,,,,,,,,,,,,,,,
8099,1650407630.072266,1650407630.0635471,113.0,0.0,4379.487305,4618.974121,4173.333496,4280.512695,4092.3076170000004,450.0,4.0,86.0,,,,0.0,4.0,0.0,2.0,0.0,4.0,16.666666,,,,,,,,,,,,,,,,,,,,,,,,,,,,,,,,,,,,,,,,,,,,,,,,,,,,,,,,,,,,,,,,,,,,,,,,,,,,,,,,,,,,
8100,1650407630.080081,1650407630.071262,114.0,0.0,4371.282227000001,4541.025879,4240.512695,4283.077147999999,4090.7692869999996,450.0,4.0,86.0,,,,0.0,4.0,0.0,2.0,0.0,4.0,16.666666,,,,,,,,57.0,0.0,0.257126,-0.43115200000000004,0.5412600000000001,0.674561,0.867201,-0.51075,-0.051759000000000006,-0.034061,-0.03754,-0.015788,,,,,,,,,,,,,,,,,,,,,,,,,,,,,,,,,,,0.0,0.0,1.0,0.0,512.0,0.991208,,,,,,,,,,,,,,,,,,,,,,,,,
8101,1650407630.087896,1650407630.079176,115.0,0.0,4343.077147999999,4641.538574,4256.410156,4280.0,4081.538574,16137.0,4.0,86.0,,,,0.0,4.0,0.0,2.0,0.0,4.0,16.666666,,,,,,,,,,,,,,,,,,,,,,,,,,,,,,,,,,,,,,,,,,,,,,,,,,,,,,,,,,,,,,,,,,,,,,,,,,,,,,,,,,,,
8102,1650407630.09571,1650407630.086991,116.0,0.0,4333.846191,4707.692383,4223.077147999999,4277.436035,4085.641113,450.0,4.0,86.0,,,,0.0,4.0,0.0,2.0,0.0,4.0,16.666666,,,,,,,,58.0,0.0,0.257126,-0.43115200000000004,0.5412600000000001,0.674561,0.864759,-0.5180739999999999,-0.046387,-0.033926,-0.037497,-0.014062,,,,,,,,,,,,,,,,,,,,,,,,,,,,,,,,,,,,,,,,,,,,,,,,,,,,,,,,,,,,,,,,,
8103,1650407630.103525,1650407630.0949051,117.0,0.0,4337.436035,4618.974121,4174.358886999999,4277.436035,4087.179443,450.0,4.0,86.0,,,,0.0,4.0,0.0,2.0,0.0,4.0,16.666666,,,,,,,,,,,,,,,,,,,,,,,,,,,,,,,,,,,,,,,,,,,,,,,,,,,,,,,,,,,,,,,,,,,,,,,,,,,,,,,,,,,,
8104,1650407630.111339,1650407630.10272,118.0,0.0,4336.410156,4620.512695,4210.769043,4277.436035,4091.281982,450.0,4.0,86.0,,,,0.0,4.0,0.0,2.0,0.0,4.0,16.666666,,,,,,,,59.0,0.0,0.257126,-0.43115200000000004,0.5412600000000001,0.674561,0.8730600000000001,-0.512703,-0.044923000000000005,-0.033951999999999996,-0.037654,-0.015977,1.0,0.0,0.0,,,,,,,,,,,,,,,,,,,,,,,,,,,,,,,,0.0,0.0,1.0,0.0,512.0,0.820031,24.833945999999997,6.149445,2.666575,1.8393119999999998,2.827862,69.459549,18.413662,12.439186999999999,19.011029999999998,17.315828,38.011398,41.690681,12.320516,10.483206,5.878806,0.065638,0.046443,0.050097,0.038422000000000005,0.026079,1309.120117,305.743652,12.506717,4.347411,2.316691
8105,1650407630.119154,1650407630.110635,119.0,0.0,4348.205078,4690.256348,4247.179688,4280.0,4106.153809,16137.0,4.0,86.0,,,,0.0,4.0,0.0,2.0,0.0,4.0,16.666666,,,,,,,,,,,,,,,,,,,,,,,,,,,,,,,,,,,,,,,,,,,,,,,,,,,,,,,,,,,,,,,,,,,,,,,,,,,,,,,,,,,,
8106,1650407630.1269689,1650407630.118449,120.0,0.0,4348.205078,4645.128418,4281.025879,4279.487305,4098.461426,450.0,4.0,86.0,,,,0.0,4.0,0.0,2.0,0.0,4.0,16.666666,,,,,,,,60.0,0.0,0.255968,-0.43115200000000004,0.541504,0.674805,0.863294,-0.5234449999999999,-0.035157,-0.034023000000000005,-0.037697,-0.011595999999999999,,,,,,,,,,,,,,,,,,,,,,,,,,,,,,,,,,,,,,,,,,,,,,,,,,,,,,,,,,,,,,,,,
8107,1650407630.134783,1650407630.126364,121.0,0.0,4330.256348,4592.307617,4287.692383,4277.436035,4090.7692869999996,450.0,4.0,86.0,,,,0.0,4.0,0.0,2.0,0.0,4.0,16.666666,,,,,,,,,,,,,,,,,,,,,,,,,,,,,,,,,,,,,,,,,,,,,,,,,,,,,,,,,,,,,,,,,,,,,,,,,,,,,,,,,,,,
8108,1650407630.1425982,1650407630.134178,122.0,0.0,4314.358886999999,4651.794922,4292.820313,4275.384765999999,4083.5898439999996,450.0,4.0,86.0,,,,0.0,4.0,0.0,2.0,0.0,4.0,16.666666,,,,,,,,61.0,0.0,0.256379,-0.430908,0.541504,0.674805,0.854994,-0.5180739999999999,-0.053223,-0.034234,-0.037638,-0.013805000000000001,,,,,,,,,,,,,,,,,,,,,,,,,,,,,,,,,,,0.0,0.0,1.0,0.0,512.0,0.820031,,,,,,,,,,,,,,,,,,,,,,,,,
8109,1650407630.1504118,1650407630.142093,123.0,0.0,4337.94873,4706.153809,4232.820313,4275.897461,4097.94873,16137.0,4.0,86.0,,,,0.0,4.0,0.0,2.0,0.0,4.0,16.666666,,,,,,,,,,,,,,,,,,,,,,,,,,,,,,,,,,,,,,,,,,,,,,,,,,,,,,,,,,,,,,,,,,,,,,,,,,,,,,,,,,,,
8110,1650407630.158227,1650407630.149908,124.0,0.0,4365.641113000001,4670.769043,4215.897461,4278.974121,4123.589844,450.0,4.0,86.0,,,,0.0,4.0,0.0,2.0,0.0,4.0,16.666666,,,,,,,,62.0,0.0,0.256379,-0.430908,0.541504,0.674805,0.8691540000000001,-0.504402,-0.041993,-0.034277999999999996,-0.037634,-0.018528,,,,,,,,,,,,,,,,,,,,,,,,,,,,,,,,,,,,,,,,,,,,,,,,,,,,,,,,,,,,,,,,,
8111,1650407630.166041,1650407630.1578221,125.0,0.0,4366.153809,4624.102539,4229.743652,4281.538574,4141.538574,450.0,4.0,86.0,,,,0.0,4.0,0.0,2.0,0.0,4.0,16.666666,,,,,,,,,,,,,,,,,,,,,,,,,,,,,,,,,,,,,,,,,,,,,,,,,,,,,,,,,,,,,,,,,,,,,,,,,,,,,,,,,,,,
8112,1650407630.173856,1650407630.165637,126.0,0.0,4323.077147999999,4630.256348,4217.436035,4278.461426,4105.128418,450.0,4.0,86.0,,,,0.0,4.0,0.0,2.0,0.0,4.0,16.666666,,,,,,,,63.0,0.0,0.256379,-0.430908,0.541504,0.674805,0.863294,-0.533211,-0.043946,-0.034219,-0.037728,-0.020045,,,,,,,,,,,,,,,,,,,,,,,,,,,,,,,,,,,0.0,0.0,1.0,0.0,512.0,0.820031,,,,,,,,,,,,,,,,,,,,,,,,,
8113,1650407630.1816711,1650407630.173551,127.0,0.0,4315.897461,4647.179688,4177.94873,4275.897461,4086.6667479999996,241.0,4.0,86.0,,,,0.0,4.0,0.0,2.0,0.0,4.0,16.666666,,,,,,,,,,,,,,,,,,,,,,,,,,,,,,,,,,,,,,,,,,,,,,,,,,,,,,,,,,,,,,,,,,,,,,,,,,,,,,,,,,,,
8114,1650407630.189485,1650407630.181366,0.0,0.0,4330.769043,4648.717772999999,4182.563965,4277.94873,4111.794922,450.0,4.0,86.0,,,,0.0,4.0,0.0,2.0,0.0,4.0,16.666666,,,,,,,,0.0,0.0,0.256379,-0.430908,0.541504,0.674805,0.8642709999999999,-0.521004,-0.044923000000000005,-0.034118,-0.037715,-0.021409,,,,,,,,,,,,,,,,,,,,,,,,,,,,,,,,,,,,,,,,,,,,,,,,,,,,,,,,,,,,,,,,,
8115,1650407630.1973,1650407630.189081,1.0,0.0,4327.692383,4700.0,4193.333496,4278.974121,4127.179688,450.0,4.0,86.0,,,,0.0,4.0,0.0,2.0,0.0,4.0,16.666666,,,,,,,,,,,,,,,,,,,,,,,,,,,,,,,,,,,,,,,,,,,,,,,,,,,,,,,,,,,,,,,,,,,,,,,,,,,,,,,,,,,,
8116,1650407630.2051141,1650407630.196895,2.0,0.0,4327.179688,4700.0,4156.410156,4277.436035,4124.615234000001,16145.0,4.0,86.0,,,,0.0,4.0,0.0,2.0,0.0,4.0,16.666666,,,,,,,,1.0,0.0,0.256379,-0.430908,0.541504,0.674805,0.867201,-0.519051,-0.056152999999999995,-0.034124,-0.037655,-0.022638,,,,,,,,,,,,,,,,,,,,,,,,,,,,,,,,,,,0.0,0.0,1.0,0.0,512.0,0.820031,,,,,,,,,,,,,,,,,,,,,,,,,
8117,1650407630.212929,1650407630.2046099,3.0,0.0,4347.692383,4608.717772999999,4161.025879,4277.94873,4140.0,450.0,4.0,86.0,,,,0.0,4.0,0.0,2.0,0.0,4.0,16.666666,,,,,,,,,,,,,,,,,,,,,,,,,,,,,,,,,,,,,,,,,,,,,,,,,,,,,,,,,,,,,,,,,,,,,,,,,,,,,,,,,,,,
8118,1650407630.220744,1650407630.212424,4.0,0.0,4344.102539,4604.615234000001,4211.282227000001,4278.461426,4133.846191,0.0,4.0,86.0,,,,0.0,4.0,0.0,2.0,0.0,4.0,16.666666,,,,,,,,2.0,0.0,0.257021,-0.430908,0.541504,0.674561,0.862806,-0.520027,-0.049317,-0.034129,-0.0376,-0.020325,,,,,,,,,,,,,,,,,,,,,,,,,,,,,,,,,,,,,,,,,,,,,,,,,,,,,,,,,,,,,,,,,
8119,1650407630.228558,1650407630.220139,5.0,0.0,4337.436035,4673.333496,4281.025879,4276.922852000001,4127.179688,450.0,4.0,86.0,,,,0.0,4.0,0.0,2.0,0.0,4.0,16.666666,,,,,,,,,,,,,,,,,,,,,,,,,,,,,,,,,,,,,,,,,,,,,,,,,,,,,,,,,,,,,,,,,,,,,,,,,,,,,,,,,,,,
8120,1650407630.236373,1650407630.2280529,6.0,0.0,4348.205078,4684.615234000001,4274.871582,4277.436035,4142.05127,0.0,4.0,86.0,,,,0.0,4.0,0.0,0.0,0.0,4.0,0.0,,,,,,,,3.0,0.0,0.25661100000000003,-0.43115200000000004,0.541504,0.674561,0.8608530000000001,-0.507332,-0.042481,-0.034135000000000006,-0.037502,-0.015412,1.0,0.0,0.0,,,,,,,,,,,,,,,,,,,,,,,,,,,,,,,,0.0,0.0,64.0,0.18925699999999998,1.0,0.0,12.354133000000001,5.027378,2.8490919999999997,1.8710240000000002,2.606179,38.28389,13.860133,15.509023999999998,18.588594,15.965561,35.112907,41.144745,15.500919,9.449079,5.187028,0.051099,0.053376,0.054491,0.042873,0.024916999999999998,750.897949,172.313065,8.999234,3.6318580000000003,2.314737
8121,1650407630.2441869,1650407630.235868,7.0,0.0,4341.025879,4704.102539,4264.102539,4276.922852000001,4147.692383,450.0,4.0,86.0,,,,0.0,4.0,0.0,0.0,0.0,4.0,0.0,,,,,,,,,,,,,,,,,,,,,,,,,,,,,,,,,,,,,,,,,,,,,,,,,,,,,,,,,,,,,,,,,,,,,,,,,,,,,,,,,,,,
8122,1650407630.252002,1650407630.243783,8.0,0.0,4314.871582,4698.461426,4250.769043,4273.846191,4132.820313,450.0,4.0,86.0,,,,0.0,4.0,0.0,0.0,0.0,4.0,0.0,,,,,,,,4.0,0.0,0.25661100000000003,-0.43115200000000004,0.541504,0.674561,0.8642709999999999,-0.505379,-0.049805,-0.034187999999999996,-0.037512000000000004,-0.017141999999999998,,,,,,,,,,,,,,,,,,,,,,,,,,,,,,,,,,,,,,,,,,,,,,,,,,,,,,,,,,,,,,,,,
8123,1650407630.259816,1650407630.2515972,9.0,0.0,4312.820313,4651.794922,4269.230957,4273.333496,4118.461426,0.0,4.0,86.0,,,,0.0,4.0,0.0,0.0,0.0,4.0,0.0,,,,,,,,,,,,,,,,,,,,,,,,,,,,,,,,,,,,,,,,,,,,,,,,,,,,,,,,,,,,,,,,,,,,,,,,,,,,,,,,,,,,
8124,1650407630.267631,1650407630.259512,10.0,0.0,4344.102539,4656.922852000001,4254.871582,4275.384765999999,4144.102539,450.0,4.0,86.0,,,,0.0,4.0,0.0,0.0,0.0,4.0,0.0,,,,,,,,5.0,0.0,0.25661100000000003,-0.43115200000000004,0.541504,0.674561,0.8657360000000001,-0.517586,-0.041016000000000004,-0.034333999999999996,-0.037472000000000005,-0.018747999999999997,,,,,,,,,,,,,,,,,,,,,,,,,,,,,,,,,,,0.0,0.0,64.0,0.18925699999999998,1.0,0.0,,,,,,,,,,,,,,,,,,,,,,,,,
8125,1650407630.2754462,1650407630.2673259,11.0,0.0,4352.307617,4657.436035,4265.641113000001,4277.436035,4169.230957,16217.0,4.0,86.0,,,,0.0,4.0,0.0,0.0,0.0,4.0,0.0,,,,,,,,,,,,,,,,,,,,,,,,,,,,,,,,,,,,,,,,,,,,,,,,,,,,,,,,,,,,,,,,,,,,,,,,,,,,,,,,,,,,
8126,1650407630.2832599,1650407630.275141,12.0,0.0,4351.282227000001,4588.205078,4220.0,4279.487305,4172.307617,450.0,4.0,86.0,,,,0.0,4.0,0.0,0.0,0.0,4.0,0.0,,,,,,,,6.0,0.0,0.25661100000000003,-0.43115200000000004,0.541504,0.674561,0.867201,-0.514656,-0.039550999999999996,-0.034318,-0.037533,-0.016776,,,,,,,,,,,,,,,,,,,,,,,,,,,,,,,,,,,,,,,,,,,,,,,,,,,,,,,,,,,,,,,,,
8127,1650407630.291075,1650407630.282856,13.0,0.0,4345.128418,4565.641113000001,4170.769043,4279.487305,4148.205078,450.0,4.0,86.0,,,,0.0,4.0,0.0,0.0,0.0,4.0,0.0,,,,,,,,,,,,,,,,,,,,,,,,,,,,,,,,,,,,,,,,,,,,,,,,,,,,,,,,,,,,,,,,,,,,,,,,,,,,,,,,,,,,
8128,1650407630.2988892,1650407630.2907698,14.0,0.0,4359.487305,4613.846191,4164.102539,4277.436035,4155.384765999999,450.0,4.0,86.0,,,,0.0,4.0,0.0,0.0,0.0,4.0,0.0,,,,,,,,7.0,0.0,0.25661100000000003,-0.43115200000000004,0.541504,0.674561,0.878431,-0.524422,-0.046876,-0.034305,-0.037589,-0.015000999999999999,,,,,,,,,,,,,,,,,,,,,,,,,,,,,,,,,,,0.0,0.0,64.0,0.18925699999999998,1.0,0.0,,,,,,,,,,,,,,,,,,,,,,,,,
8129,1650407630.3067038,1650407630.298585,15.0,0.0,4351.282227000001,4615.384765999999,4186.666504,4276.410156,4157.436035,16217.0,4.0,86.0,,,,0.0,4.0,0.0,0.0,0.0,4.0,0.0,,,,,,,,,,,,,,,,,,,,,,,,,,,,,,,,,,,,,,,,,,,,,,,,,,,,,,,,,,,,,,,,,,,,,,,,,,,,,,,,,,,,
8130,1650407630.314518,1650407630.306499,16.0,0.0,4325.128418,4577.436035,4202.563965,4277.94873,4132.307617,0.0,4.0,86.0,,,,0.0,4.0,0.0,0.0,0.0,4.0,0.0,,,,,,,,8.0,0.0,0.257021,-0.430908,0.541504,0.674561,0.864759,-0.505379,-0.041016000000000004,-0.034292,-0.03759,-0.01687,,,,,,,,,,,,,,,,,,,,,,,,,,,,,,,,,,,,,,,,,,,,,,,,,,,,,,,,,,,,,,,,,
8131,1650407630.322333,1650407630.3143141,17.0,0.0,4320.0,4575.384765999999,4216.410156,4279.487305,4123.589844,0.0,4.0,86.0,,,,0.0,4.0,0.0,0.0,0.0,4.0,0.0,,,,,,,,,,,,,,,,,,,,,,,,,,,,,,,,,,,,,,,,,,,,,,,,,,,,,,,,,,,,,,,,,,,,,,,,,,,,,,,,,,,,
8132,1650407630.330148,1650407630.322228,18.0,0.0,4346.153809,4608.205078,4209.743652,4277.94873,4154.358886999999,0.0,4.0,86.0,,,,0.0,4.0,0.0,0.0,0.0,4.0,0.0,,,,,,,,9.0,0.0,0.257021,-0.430908,0.541504,0.674561,0.8608530000000001,-0.508797,-0.039063,-0.03433,-0.037542,-0.015036,,,,,,,,,,,,,,,,,,,,,,,,,,,,,,,,,,,0.0,0.0,64.0,0.18925699999999998,1.0,0.0,,,,,,,,,,,,,,,,,,,,,,,,,
8133,1650407630.337962,1650407630.330043,19.0,0.0,4332.820313,4641.538574,4175.897461,4275.384765999999,4153.846191,0.0,4.0,86.0,,,,0.0,4.0,0.0,0.0,0.0,4.0,0.0,,,,,,,,,,,,,,,,,,,,,,,,,,,,,,,,,,,,,,,,,,,,,,,,,,,,,,,,,,,,,,,,,,,,,,,,,,,,,,,,,,,,
8134,1650407630.345777,1650407630.337958,20.0,0.0,4328.717772999999,4669.743652,4205.128418,4278.461426,4161.538574,0.0,4.0,86.0,,,,0.0,4.0,0.0,0.0,0.0,4.0,0.0,,,,,,,,10.0,0.0,0.257021,-0.430908,0.541504,0.674561,0.862806,-0.506844,-0.043946,-0.034266000000000005,-0.037596,-0.016902,,,,,,,,,,,,,,,,,,,,,,,,,,,,,,,,,,,,,,,,,,,,,,,,,,,,,,,,,,,,,,,,,
8135,1650407630.353591,1650407630.345772,21.0,0.0,4356.922852000001,4659.487305,4220.512695,4282.05127,4177.94873,0.0,4.0,86.0,,,,0.0,4.0,0.0,0.0,0.0,4.0,0.0,,,,,,,,,,,,,,,,,,,,,,,,,,,,,,,,,,,,,,,,,,,,,,,,,,,,,,,,,,,,,,,,,,,,,,,,,,,,,,,,,,,,
8136,1650407630.361406,1650407630.3536868,22.0,0.0,4331.794922,4612.307617,4240.512695,4277.436035,4142.05127,0.0,4.0,86.0,,,,0.0,4.0,0.0,0.0,0.0,4.0,0.0,1.0,0.0,4.0,0.0,0.0,0.0,0.0,11.0,0.0,0.257021,-0.430908,0.541504,0.674561,0.863294,-0.5195390000000001,-0.043946,-0.034257,-0.037596,-0.018581,1.0,0.0,0.0,,,,,,,,,,,,,,,,,,,,,,,,,,,,,,,,0.0,0.0,64.0,0.372083,1.0,0.0,5.3559779999999995,4.125113,2.953929,1.905073,2.454342,20.825649,12.246962,20.964071,17.43449,15.307414000000001,31.809019,41.008967999999996,18.873066,8.031782000000002,4.815873000000001,0.04686,0.057116999999999994,0.057887,0.047376999999999996,0.025526,352.240814,75.911194,6.638969,2.8954009999999997,2.2669770000000002
8137,1650407630.36922,1650407630.361502,23.0,0.0,4289.230957,4586.666504,4259.487305,4272.820313,4104.102539,0.0,4.0,86.0,,,,0.0,4.0,0.0,0.0,0.0,4.0,0.0,,,,,,,,,,,,,,,,,,,,,,,,,,,,,,,,,,,,,,,,,,,,,,,,,,,,,,,,,,,,,,,,,,,,,,,,,,,,,,,,,,,,
8138,1650407630.377035,1650407630.369216,24.0,0.0,4311.282227000001,4550.769043,4285.128418,4275.384765999999,4115.384765999999,0.0,4.0,86.0,,,,0.0,4.0,0.0,0.0,0.0,4.0,0.0,,,,,,,,12.0,0.0,0.257021,-0.430908,0.541504,0.674561,0.8681770000000001,-0.509285,-0.041505,-0.03425,-0.037596,-0.020141,,,,,,,,,,,,,,,,,,,,,,,,,,,,,,,,,,,,,,,,,,,,,,,,,,,,,,,,,,,,,,,,,
8139,1650407630.38485,1650407630.377131,25.0,0.0,4348.205078,4496.922852000001,4245.128418,4280.0,4139.487305,0.0,4.0,86.0,,,,0.0,4.0,0.0,0.0,0.0,4.0,0.0,,,,,,,,,,,,,,,,,,,,,,,,,,,,,,,,,,,,,,,,,,,,,,,,,,,,,,,,,,,,,,,,,,,,,,,,,,,,,,,,,,,,
8140,1650407630.392664,1650407630.384945,26.0,0.0,4344.615234000001,4523.077147999999,4229.230957,4282.563965,4138.461426,0.0,4.0,86.0,,,,0.0,4.0,0.0,0.0,0.0,4.0,0.0,,,,,,,,13.0,0.0,0.257021,-0.430908,0.541504,0.674561,0.866224,-0.500008,-0.031738999999999996,-0.034339999999999996,-0.037548000000000005,-0.021544999999999998,,,,,,,,,,,,,,,,,,,,,,,,,,,,,,,,,,,0.0,0.0,64.0,0.372083,1.0,0.0,,,,,,,,,,,,,,,,,,,,,,,,,
8141,1650407630.4004788,1650407630.39276,27.0,0.0,4357.436035,4570.256348,4201.025879,4280.512695,4153.333496,0.0,4.0,86.0,,,,0.0,4.0,0.0,0.0,0.0,4.0,0.0,,,,,,,,,,,,,,,,,,,,,,,,,,,,,,,,,,,,,,,,,,,,,,,,,,,,,,,,,,,,,,,,,,,,,,,,,,,,,,,,,,,,
8142,1650407630.408293,1650407630.400475,28.0,0.0,4369.230957,4541.538574,4202.563965,4276.410156,4164.615234000001,0.0,4.0,86.0,,,,0.0,4.0,0.0,0.0,0.0,4.0,0.0,,,,,,,,14.0,0.0,0.257021,-0.430908,0.541504,0.674561,0.863294,-0.5195390000000001,-0.043946,-0.034324,-0.037602,-0.019195,,,,,,,,,,,,,,,,,,,,,,,,,,,,,,,,,,,,,,,,,,,,,,,,,,,,,,,,,,,,,,,,,
8143,1650407630.416108,1650407630.408289,29.0,0.0,4369.230957,4548.205078,4218.974121,4277.436035,4173.333496,0.0,4.0,86.0,,,,0.0,4.0,0.0,0.0,0.0,4.0,0.0,,,,,,,,,,,,,,,,,,,,,,,,,,,,,,,,,,,,,,,,,,,,,,,,,,,,,,,,,,,,,,,,,,,,,,,,,,,,,,,,,,,,
8144,1650407630.423922,1650407630.416004,30.0,0.0,4354.871582,4571.282227000001,4252.307617,4279.487305,4172.820313,0.0,4.0,86.0,,,,0.0,4.0,0.0,0.0,0.0,4.0,0.0,,,,,,,,15.0,0.0,0.257021,-0.430908,0.541504,0.674561,0.866224,-0.500008,-0.031738999999999996,-0.034408,-0.037552999999999996,-0.020693,,,,,,,,,,,,,,,,,,,,,,,,,,,,,,,,,,,0.0,0.0,64.0,0.372083,1.0,0.0,,,,,,,,,,,,,,,,,,,,,,,,,
8145,1650407630.431737,1650407630.4238179,31.0,0.0,4354.358886999999,4568.717772999999,4236.410156,4280.0,4181.025879,0.0,4.0,86.0,,,,0.0,4.0,0.0,0.0,0.0,4.0,0.0,,,,,,,,,,,,,,,,,,,,,,,,,,,,,,,,,,,,,,,,,,,,,,,,,,,,,,,,,,,,,,,,,,,,,,,,,,,,,,,,,,,,
8146,1650407630.439552,1650407630.4315321,32.0,0.0,4350.769043,4628.205078,4203.077147999999,4281.025879,4191.282227000001,0.0,4.0,86.0,,,,0.0,4.0,0.0,0.0,0.0,4.0,0.0,,,,,,,,16.0,0.0,0.257021,-0.430908,0.541504,0.674561,0.866224,-0.5234449999999999,-0.047852,-0.034385,-0.037557,-0.022042,,,,,,,,,,,,,,,,,,,,,,,,,,,,,,,,,,,,,,,,,,,,,,,,,,,,,,,,,,,,,,,,,
8147,1650407630.447366,1650407630.4394472,33.0,0.0,4356.922852000001,4655.384765999999,4203.589844,4282.563965,4201.025879,0.0,4.0,86.0,,,,0.0,4.0,0.0,0.0,0.0,4.0,0.0,,,,,,,,,,,,,,,,,,,,,,,,,,,,,,,,,,,,,,,,,,,,,,,,,,,,,,,,,,,,,,,,,,,,,,,,,,,,,,,,,,,,
8148,1650407630.4551811,1650407630.4472618,34.0,0.0,4361.025879,4570.769043,4202.563965,4280.512695,4195.897461,0.0,4.0,86.0,,,,0.0,4.0,0.0,0.0,0.0,4.0,0.0,,,,,,,,17.0,0.0,0.257021,-0.430908,0.541504,0.674561,0.863294,-0.513191,-0.046387,-0.034316,-0.037659,-0.016957,,,,,,,,,,,,,,,,,,,,,,,,,,,,,,,,,,,0.0,0.0,64.0,0.372083,1.0,0.0,,,,,,,,,,,,,,,,,,,,,,,,,
8149,1650407630.4629948,1650407630.455076,35.0,0.0,4345.641113000001,4544.102539,4221.025879,4278.974121,4182.05127,0.0,4.0,86.0,,,,0.0,4.0,0.0,0.0,0.0,4.0,0.0,,,,,,,,,,,,,,,,,,,,,,,,,,,,,,,,,,,,,,,,,,,,,,,,,,,,,,,,,,,,,,,,,,,,,,,,,,,,,,,,,,,,
8150,1650407630.47081,1650407630.462791,36.0,0.0,4331.794922,4587.179688,4260.512695,4277.94873,4169.743652,0.0,4.0,86.0,,,,0.0,4.0,0.0,0.0,0.0,4.0,0.0,,,,,,,,18.0,0.0,0.256379,-0.430908,0.541504,0.674805,0.8618299999999999,-0.524422,-0.030762,-0.034351,-0.037702,-0.018678999999999998,,,,,,,,,,,,,,,,,,,,,,,,,,,,,,,,,,,,,,,,,,,,,,,,,,,,,,,,,,,,,,,,,
8151,1650407630.478624,1650407630.470705,37.0,0.0,4355.384765999999,4546.153809,4289.743652,4277.436035,4190.769043,0.0,4.0,86.0,,,,0.0,4.0,0.0,0.0,0.0,4.0,0.0,,,,,,,,,,,,,,,,,,,,,,,,,,,,,,,,,,,,,,,,,,,,,,,,,,,,,,,,,,,,,,,,,,,,,,,,,,,,,,,,,,,,
8152,1650407630.486439,1650407630.47852,38.0,0.0,4361.538574,4533.846191,4228.717772999999,4280.0,4204.102539,0.0,4.0,86.0,,,,0.0,4.0,0.0,0.0,0.0,4.0,0.0,,,,,,,,19.0,0.0,0.256789,-0.43066400000000005,0.541504,0.674805,0.8535290000000001,-0.5195390000000001,-0.041993,-0.034431,-0.037642,-0.016616,1.0,0.0,0.0,,,,,,,,,,,,,,,,,,,,,,,,,,,,,,,,0.0,0.0,1.0,0.0,512.0,0.741402,2.923238,3.353881,3.03788,1.9320490000000001,2.329046,15.2019,13.464068,27.264979999999998,15.715273999999999,14.926706,28.912228000000002,41.03347,21.733089,6.766097,4.8637239999999995,0.052070000000000005,0.05666,0.058958,0.049982,0.027010000000000003,130.10501100000002,24.448923,5.50116,2.315027,2.155383
8153,1650407630.4942539,1650407630.486435,39.0,0.0,4344.615234000001,4637.436035,4208.717772999999,4282.05127,4198.461426,0.0,4.0,86.0,,,,0.0,4.0,0.0,0.0,0.0,4.0,0.0,,,,,,,,,,,,,,,,,,,,,,,,,,,,,,,,,,,,,,,,,,,,,,,,,,,,,,,,,,,,,,,,,,,,,,,,,,,,,,,,,,,,
8154,1650407630.502068,1650407630.494249,40.0,0.0,4370.256348,4625.641113000001,4212.307617,4280.0,4222.563965,0.0,4.0,86.0,,,,0.0,4.0,0.0,0.0,0.0,4.0,0.0,,,,,,,,20.0,0.0,0.25743,-0.43066400000000005,0.541504,0.674561,0.8691540000000001,-0.517586,-0.047363999999999996,-0.034406,-0.037589,-0.012074,,,,,,,,,,,,,,,,,,,,,,,,,,,,,,,,,,,,,,,,,,,,,,,,,,,,,,,,,,,,,,,,,
8155,1650407630.509883,1650407630.5021641,41.0,0.0,4390.769043,4517.436035,4245.641113000001,4280.512695,4236.410156,0.0,4.0,86.0,,,,0.0,4.0,0.0,0.0,0.0,4.0,0.0,,,,,,,,,,,,,,,,,,,,,,,,,,,,,,,,,,,,,,,,,,,,,,,,,,,,,,,,,,,,,,,,,,,,,,,,,,,,,,,,,,,,
8156,1650407630.517697,1650407630.5099778,42.0,0.0,4366.666504,4533.333496,4266.666504,4281.538574,4221.025879,0.0,4.0,86.0,,,,0.0,4.0,0.0,0.0,0.0,4.0,0.0,,,,,,,,21.0,0.0,0.256916,-0.43066400000000005,0.541748,0.674561,0.8584120000000001,-0.517098,-0.042481,-0.034481,-0.037541000000000005,-0.010817,,,,,,,,,,,,,,,,,,,,,,,,,,,,,,,,,,,0.0,0.0,1.0,0.0,512.0,0.741402,,,,,,,,,,,,,,,,,,,,,,,,,
8157,1650407630.525512,1650407630.517893,43.0,0.0,4343.589844,4621.025879,4281.538574,4281.025879,4204.615234000001,0.0,4.0,86.0,,,,0.0,4.0,0.0,0.0,0.0,4.0,0.0,,,,,,,,,,,,,,,,,,,,,,,,,,,,,,,,,,,,,,,,,,,,,,,,,,,,,,,,,,,,,,,,,,,,,,,,,,,,,,,,,,,,
8158,1650407630.5333269,1650407630.525708,44.0,0.0,4359.487305,4657.436035,4195.384765999999,4281.025879,4211.794922,0.0,4.0,86.0,,,,0.0,4.0,0.0,0.0,0.0,4.0,0.0,,,,,,,,22.0,0.0,0.256916,-0.43066400000000005,0.541748,0.674561,0.854505,-0.518563,-0.049317,-0.034401999999999995,-0.037449,-0.013202,,,,,,,,,,,,,,,,,,,,,,,,,,,,,,,,,,,,,,,,,,,,,,,,,,,,,,,,,,,,,,,,,
8159,1650407630.541141,1650407630.5335221,45.0,0.0,4368.205078,4629.230957,4149.230957,4280.0,4209.743652,0.0,4.0,86.0,,,,0.0,4.0,0.0,0.0,0.0,4.0,0.0,,,,,,,,,,,,,,,,,,,,,,,,,,,,,,,,,,,,,,,,,,,,,,,,,,,,,,,,,,,,,,,,,,,,,,,,,,,,,,,,,,,,
8160,1650407630.5489562,1650407630.5412369,46.0,0.0,4384.102539,4542.563965,4213.846191,4281.025879,4223.589844,0.0,4.0,86.0,,,,0.0,4.0,0.0,0.0,0.0,4.0,0.0,,,,,,,,23.0,0.0,0.256916,-0.43066400000000005,0.541748,0.674561,0.864759,-0.508797,-0.039063,-0.034429,-0.037415,-0.015203,,,,,,,,,,,,,,,,,,,,,,,,,,,,,,,,,,,0.0,0.0,1.0,0.0,512.0,0.741402,,,,,,,,,,,,,,,,,,,,,,,,,
8161,1650407630.5567698,1650407630.5489519,47.0,0.0,4375.897461,4526.153809,4237.436035,4280.512695,4216.410156,0.0,4.0,86.0,,,,0.0,4.0,0.0,0.0,0.0,4.0,0.0,,,,,,,,,,,,,,,,,,,,,,,,,,,,,,,,,,,,,,,,,,,,,,,,,,,,,,,,,,,,,,,,,,,,,,,,,,,,,,,,,,,,
8162,1650407630.564585,1650407630.556766,48.0,0.0,4356.922852000001,4649.743652,4149.743652,4277.436035,4189.230957,0.0,4.0,86.0,,,,0.0,4.0,0.0,0.0,0.0,4.0,0.0,,,,,,,,24.0,0.0,0.256916,-0.43066400000000005,0.541748,0.674561,0.863783,-0.512703,-0.047852,-0.034453,-0.037531,-0.013634,,,,,,,,,,,,,,,,,,,,,,,,,,,,,,,,,,,,,,,,,,,,,,,,,,,,,,,,,,,,,,,,,
8163,1650407630.5724,1650407630.564481,49.0,0.0,4341.538574,4674.358886999999,4095.897461,4277.436035,4180.0,0.0,4.0,86.0,,,,0.0,4.0,0.0,0.0,0.0,4.0,0.0,,,,,,,,,,,,,,,,,,,,,,,,,,,,,,,,,,,,,,,,,,,,,,,,,,,,,,,,,,,,,,,,,,,,,,,,,,,,,,,,,,,,
8164,1650407630.580214,1650407630.5722961,50.0,0.0,4332.820313,4576.922852000001,4140.0,4279.487305,4198.974121,0.0,4.0,86.0,,,,0.0,4.0,0.0,0.0,0.0,4.0,0.0,,,,,,,,25.0,0.0,0.256506,-0.430908,0.541748,0.674561,0.8564579999999999,-0.52491,-0.054688,-0.034475,-0.037636,-0.015590999999999999,,,,,,,,,,,,,,,,,,,,,,,,,,,,,,,,,,,0.0,0.0,1.0,0.0,512.0,0.741402,,,,,,,,,,,,,,,,,,,,,,,,,
8165,1650407630.588029,1650407630.58001,51.0,0.0,4327.692383,4573.846191,4164.102539,4277.94873,4198.974121,0.0,4.0,86.0,,,,0.0,4.0,0.0,0.0,0.0,4.0,0.0,,,,,,,,,,,,,,,,,,,,,,,,,,,,,,,,,,,,,,,,,,,,,,,,,,,,,,,,,,,,,,,,,,,,,,,,,,,,,,,,,,,,
8166,1650407630.595843,1650407630.587825,52.0,0.0,4344.102539,4633.846191,4179.487305,4275.384765999999,4202.05127,0.0,4.0,86.0,,,,0.0,4.0,0.0,0.0,0.0,4.0,0.0,,,,,,,,26.0,0.0,0.256506,-0.430908,0.541748,0.674561,0.862318,-0.520516,-0.045899,-0.034444999999999996,-0.037681,-0.020184,,,,,,,,,,,,,,,,,,,,,,,,,,,,,,,,,,,,,,,,,,,,,,,,,,,,,,,,,,,,,,,,,
8167,1650407630.603658,1650407630.595539,53.0,0.0,4352.307617,4616.922852000001,4211.794922,4276.410156,4208.717772999999,0.0,4.0,86.0,,,,0.0,4.0,0.0,0.0,0.0,4.0,0.0,,,,,,,,,,,,,,,,,,,,,,,,,,,,,,,,,,,,,,,,,,,,,,,,,,,,,,,,,,,,,,,,,,,,,,,,,,,,,,,,,,,,
8168,1650407630.6114721,1650407630.603354,54.0,0.0,4348.205078,4569.743652,4295.897461,4276.922852000001,4211.794922,0.0,4.0,86.0,,,,0.0,4.0,0.0,0.0,0.0,4.0,0.0,,,,,,,,27.0,0.0,0.255863,-0.430908,0.541748,0.674805,0.8530399999999999,-0.512703,-0.052247,-0.03437,-0.037673000000000005,-0.021535,1.0,0.0,0.0,,,,,,,,,,,,,,,,,,,,,,,,,,,,,,,,0.0,0.0,64.0,0.124511,1.0,0.0,2.681838,2.655341,3.1461099999999997,1.959907,2.201066,15.426756,16.471714000000002,32.318508,13.807018,14.404,27.053261,41.091446000000005,23.345995000000002,6.120528,5.261014,0.062,0.052552999999999996,0.057073,0.049854,0.028564999999999997,40.53849,6.016687,5.123272,1.9747720000000002,1.998114
8169,1650407630.619287,1650407630.611068,55.0,0.0,4350.256348,4602.563965,4302.563965,4276.410156,4212.820313,0.0,4.0,86.0,,,,0.0,4.0,0.0,0.0,0.0,4.0,0.0,,,,,,,,,,,,,,,,,,,,,,,,,,,,,,,,,,,,,,,,,,,,,,,,,,,,,,,,,,,,,,,,,,,,,,,,,,,,,,,,,,,,
8170,1650407630.627102,1650407630.618983,56.0,0.0,4343.589844,4662.05127,4243.077147999999,4276.922852000001,4201.538574,0.0,4.0,86.0,,,,0.0,4.0,0.0,0.0,0.0,4.0,0.0,,,,,,,,28.0,0.0,0.256506,-0.430908,0.541748,0.674561,0.8681770000000001,-0.51368,-0.050294,-0.034351,-0.037616000000000004,-0.022799,,,,,,,,,,,,,,,,,,,,,,,,,,,,,,,,,,,,,,,,,,,,,,,,,,,,,,,,,,,,,,,,,
8171,1650407630.634916,1650407630.626797,57.0,0.0,4354.358886999999,4630.256348,4183.077147999999,4279.487305,4210.256348,0.0,4.0,86.0,,,,0.0,4.0,0.0,0.0,0.0,4.0,0.0,,,,,,,,,,,,,,,,,,,,,,,,,,,,,,,,,,,,,,,,,,,,,,,,,,,,,,,,,,,,,,,,,,,,,,,,,,,,,,,,,,,,
8172,1650407630.642731,1650407630.6346118,58.0,0.0,4363.589844,4593.846191,4240.0,4280.512695,4225.641113000001,0.0,4.0,86.0,,,,0.0,4.0,0.0,0.0,0.0,4.0,0.0,,,,,,,,29.0,0.0,0.256506,-0.430908,0.541748,0.674561,0.864759,-0.5195390000000001,-0.04004,-0.034333999999999996,-0.037614,-0.024035,,,,,,,,,,,,,,,,,,,,,,,,,,,,,,,,,,,0.0,0.0,64.0,0.124511,1.0,0.0,,,,,,,,,,,,,,,,,,,,,,,,,
8173,1650407630.650545,1650407630.6423259,59.0,0.0,4350.256348,4657.436035,4261.538574,4280.0,4228.717772999999,0.0,4.0,86.0,,,,0.0,4.0,0.0,0.0,0.0,4.0,0.0,,,,,,,,,,,,,,,,,,,,,,,,,,,,,,,,,,,,,,,,,,,,,,,,,,,,,,,,,,,,,,,,,,,,,,,,,,,,,,,,,,,,
8174,1650407630.65836,1650407630.650241,60.0,0.0,4328.717772999999,4660.512695,4243.077147999999,4279.487305,4210.769043,0.0,4.0,86.0,,,,0.0,4.0,0.0,0.0,0.0,4.0,0.0,,,,,,,,30.0,0.0,0.256506,-0.430908,0.541748,0.674561,0.8652479999999999,-0.511727,-0.044923000000000005,-0.03427,-0.037564,-0.021436,,,,,,,,,,,,,,,,,,,,,,,,,,,,,,,,,,,,,,,,,,,,,,,,,,,,,,,,,,,,,,,,,
8175,1650407630.666174,1650407630.658056,61.0,0.0,4334.871582,4573.333496,4203.589844,4278.461426,4203.589844,0.0,4.0,86.0,,,,0.0,4.0,0.0,0.0,0.0,4.0,0.0,,,,,,,,,,,,,,,,,,,,,,,,,,,,,,,,,,,,,,,,,,,,,,,,,,,,,,,,,,,,,,,,,,,,,,,,,,,,,,,,,,,,
8176,1650407630.673989,1650407630.6659698,62.0,0.0,4329.230957,4566.666504,4192.820313,4277.94873,4193.846191,0.0,4.0,86.0,,,,0.0,4.0,0.0,0.0,0.0,4.0,0.0,,,,,,,,31.0,0.0,0.256506,-0.430908,0.541748,0.674561,0.857923,-0.51075,-0.0542,-0.034212,-0.037519,-0.022662,,,,,,,,,,,,,,,,,,,,,,,,,,,,,,,,,,,0.0,0.0,64.0,0.124511,1.0,0.0,,,,,,,,,,,,,,,,,,,,,,,,,
8177,1650407630.681804,1650407630.673785,63.0,0.0,4350.769043,4573.333496,4166.666504,4280.0,4208.717772999999,0.0,4.0,86.0,,,,0.0,4.0,0.0,0.0,0.0,4.0,0.0,,,,,,,,,,,,,,,,,,,,,,,,,,,,,,,,,,,,,,,,,,,,,,,,,,,,,,,,,,,,,,,,,,,,,,,,,,,,,,,,,,,,
8178,1650407630.6896179,1650407630.681699,64.0,0.0,4369.743652,4511.794922,4144.615234000001,4280.0,4213.846191,450.0,4.0,86.0,,,,0.0,4.0,0.0,0.0,0.0,4.0,0.0,,,,,,,,32.0,0.0,0.256506,-0.430908,0.541748,0.674561,0.857923,-0.517098,-0.046876,-0.034208999999999996,-0.037624,-0.017466,,,,,,,,,,,,,,,,,,,,,,,,,,,,,,,,,,,,,,,,,,,,,,,,,,,,,,,,,,,,,,,,,
8179,1650407630.697433,1650407630.6895142,65.0,0.0,4355.384765999999,4516.922852000001,4183.077147999999,4278.974121,4208.205078,450.0,4.0,86.0,,,,0.0,4.0,0.0,0.0,0.0,4.0,0.0,,,,,,,,,,,,,,,,,,,,,,,,,,,,,,,,,,,,,,,,,,,,,,,,,,,,,,,,,,,,,,,,,,,,,,,,,,,,,,,,,,,,
8180,1650407630.7052472,1650407630.697429,66.0,0.0,4337.94873,4600.512695,4233.846191,4276.922852000001,4214.358886999999,16225.0,4.0,86.0,,,,0.0,4.0,0.0,0.0,0.0,4.0,0.0,,,,,,,,33.0,0.0,0.25599,-0.430908,0.541992,0.674561,0.8652479999999999,-0.520027,-0.032715,-0.034157,-0.037622,-0.019088,,,,,,,,,,,,,,,,,,,,,,,,,,,,,,,,,,,0.0,0.0,64.0,0.124511,1.0,0.0,,,,,,,,,,,,,,,,,,,,,,,,,
8181,1650407630.7130618,1650407630.705343,67.0,0.0,4342.05127,4644.615234000001,4262.05127,4274.871582,4231.282227000001,450.0,4.0,86.0,,,,0.0,4.0,0.0,0.0,0.0,4.0,0.0,,,,,,,,,,,,,,,,,,,,,,,,,,,,,,,,,,,,,,,,,,,,,,,,,,,,,,,,,,,,,,,,,,,,,,,,,,,,,,,,,,,,
8182,1650407630.720876,1650407630.713158,68.0,0.0,4323.589844,4667.692383,4235.897461,4274.871582,4215.384765999999,31.0,4.0,86.0,,,,0.0,4.0,0.0,0.0,0.0,4.0,0.0,,,,,,,,34.0,0.0,0.256506,-0.430908,0.541748,0.674561,0.864759,-0.515145,-0.049805,-0.034362000000000004,-0.037568,-0.024646,,,,,,,,,,,,,,,,,,,,,,,,,,,,,,,,,,,,,,,,,,,,,,,,,,,,,,,,,,,,,,,,,
8183,1650407630.728691,1650407630.721072,69.0,0.0,4302.05127,4697.94873,4233.333496,4275.897461,4202.05127,450.0,4.0,86.0,,,,0.0,4.0,0.0,0.0,0.0,4.0,0.0,,,,,,,,,,,,,,,,,,,,,,,,,,,,,,,,,,,,,,,,,,,,,,,,,,,,,,,,,,,,,,,,,,,,,,,,,,,,,,,,,,,,
8184,1650407630.736506,1650407630.7288868,70.0,0.0,4300.0,4629.743652,4238.974121,4277.436035,4207.179688,28.0,4.0,86.0,,,,0.0,4.0,0.0,0.0,0.0,4.0,0.0,,,,,,,,35.0,0.0,0.256506,-0.430908,0.541748,0.674561,0.8652479999999999,-0.521981,-0.045411,-0.034392,-0.037523,-0.025649,1.0,0.0,0.0,,,,,,,,,,,,,,,,,,,,,,,,,,,,,,,,0.0,0.0,1.0,0.0,512.0,0.500302,2.680466,2.118518,3.2772660000000005,2.01044,2.07819,16.322982999999997,19.950314000000002,34.313282,12.185176,13.543931,26.750866,41.393265,23.154161,6.350726,5.781155,0.070893,0.046819,0.052137,0.047628,0.029814999999999998,15.095021,2.403609,4.955262,1.8625009999999997,1.837611
8185,1650407630.74432,1650407630.736801,71.0,0.0,4306.666504,4536.922852000001,4285.641113000001,4279.487305,4200.512695,450.0,4.0,86.0,,,,0.0,4.0,0.0,0.0,0.0,4.0,0.0,,,,,,,,,,,,,,,,,,,,,,,,,,,,,,,,,,,,,,,,,,,,,,,,,,,,,,,,,,,,,,,,,,,,,,,,,,,,,,,,,,,,
8186,1650407630.752135,1650407630.744616,72.0,0.0,4324.615234000001,4578.974121,4291.794922,4280.512695,4195.384765999999,450.0,4.0,86.0,,,,0.0,4.0,0.0,0.0,0.0,4.0,0.0,,,,,,,,36.0,0.0,0.256506,-0.430908,0.541748,0.674561,0.8681770000000001,-0.51075,-0.045899,-0.034371,-0.037627999999999995,-0.022937,,,,,,,,,,,,,,,,,,,,,,,,,,,,,,,,,,,,,,,,,,,,,,,,,,,,,,,,,,,,,,,,,
8187,1650407630.759949,1650407630.752531,73.0,0.0,4332.820313,4627.179688,4284.615234000001,4278.974121,4189.230957,0.0,4.0,86.0,,,,0.0,4.0,0.0,0.0,0.0,4.0,0.0,,,,,,,,,,,,,,,,,,,,,,,,,,,,,,,,,,,,,,,,,,,,,,,,,,,,,,,,,,,,,,,,,,,,,,,,,,,,,,,,,,,,
8188,1650407630.767764,1650407630.760345,74.0,0.0,4330.769043,4588.205078,4265.641113000001,4277.436035,4191.794922,450.0,4.0,86.0,,,,0.0,4.0,0.0,0.0,0.0,4.0,0.0,,,,,,,,37.0,0.0,0.25661100000000003,-0.43115200000000004,0.541504,0.674561,0.8593879999999999,-0.516609,-0.05127,-0.034401,-0.037527,-0.024062,,,,,,,,,,,,,,,,,,,,,,,,,,,,,,,,,,,0.0,0.0,1.0,0.0,512.0,0.500302,,,,,,,,,,,,,,,,,,,,,,,,,
8189,1650407630.775578,1650407630.76826,75.0,0.0,4309.743652,4614.871582,4273.846191,4275.384765999999,4181.538574,16204.0,4.0,86.0,,,,0.0,4.0,0.0,0.0,0.0,4.0,0.0,,,,,,,,,,,,,,,,,,,,,,,,,,,,,,,,,,,,,,,,,,,,,,,,,,,,,,,,,,,,,,,,,,,,,,,,,,,,,,,,,,,,
8190,1650407630.783393,1650407630.776174,76.0,0.0,4311.282227000001,4657.436035,4254.358886999999,4274.871582,4179.487305,450.0,4.0,86.0,,,,0.0,4.0,0.0,0.0,0.0,4.0,0.0,,,,,,,,38.0,0.0,0.25661100000000003,-0.43115200000000004,0.541504,0.674561,0.87013,-0.522957,-0.050782,-0.034379,-0.037534,-0.025025,,,,,,,,,,,,,,,,,,,,,,,,,,,,,,,,,,,,,,,,,,,,,,,,,,,,,,,,,,,,,,,,,
8191,1650407630.791208,1650407630.783989,77.0,0.0,4317.94873,4633.846191,4257.94873,4275.384765999999,4190.769043,450.0,4.0,86.0,,,,0.0,4.0,0.0,0.0,0.0,4.0,0.0,,,,,,,,,,,,,,,,,,,,,,,,,,,,,,,,,,,,,,,,,,,,,,,,,,,,,,,,,,,,,,,,,,,,,,,,,,,,,,,,,,,,
8192,1650407630.799022,1650407630.791904,78.0,0.0,4322.563965,4614.358886999999,4219.487305,4275.897461,4209.743652,450.0,4.0,86.0,,,,0.0,4.0,0.0,0.0,0.0,4.0,0.0,,,,,,,,39.0,0.0,0.25661100000000003,-0.43115200000000004,0.541504,0.674561,0.8686659999999999,-0.517586,-0.050782,-0.034408,-0.037541000000000005,-0.025842,,,,,,,,,,,,,,,,,,,,,,,,,,,,,,,,,,,0.0,0.0,1.0,0.0,512.0,0.500302,,,,,,,,,,,,,,,,,,,,,,,,,
8193,1650407630.8068368,1650407630.799718,79.0,0.0,4324.102539,4575.384765999999,4185.128418,4276.922852000001,4201.025879,16204.0,4.0,86.0,,,,0.0,4.0,0.0,0.0,0.0,4.0,0.0,,,,,,,,,,,,,,,,,,,,,,,,,,,,,,,,,,,,,,,,,,,,,,,,,,,,,,,,,,,,,,,,,,,,,,,,,,,,,,,,,,,,
8194,1650407630.814651,1650407630.807633,80.0,0.0,4329.743652,4564.615234000001,4229.230957,4276.922852000001,4196.410156,450.0,4.0,86.0,,,,0.0,4.0,0.0,0.0,0.0,4.0,0.0,,,,,,,,40.0,0.0,0.2562,-0.431396,0.541504,0.674561,0.854505,-0.517098,-0.042969,-0.034385,-0.037498000000000004,-0.026579000000000002,,,,,,,,,,,,,,,,,,,,,,,,,,,,,,,,,,,,,,,,,,,,,,,,,,,,,,,,,,,,,,,,,
8195,1650407630.822466,1650407630.815447,81.0,0.0,4311.282227000001,4661.538574,4267.179688,4276.410156,4192.820313,450.0,4.0,86.0,,,,0.0,4.0,0.0,0.0,0.0,4.0,0.0,,,,,,,,,,,,,,,,,,,,,,,,,,,,,,,,,,,,,,,,,,,,,,,,,,,,,,,,,,,,,,,,,,,,,,,,,,,,,,,,,,,,
8196,1650407630.83028,1650407630.823262,82.0,0.0,4303.589844,4756.922852000001,4211.282227000001,4275.384765999999,4189.230957,450.0,4.0,86.0,,,,0.0,4.0,0.0,0.0,0.0,4.0,0.0,,,,,,,,41.0,0.0,0.2562,-0.431396,0.541504,0.674561,0.870619,-0.508797,-0.049805,-0.034365,-0.037459,-0.021089,,,,,,,,,,,,,,,,,,,,,,,,,,,,,,,,,,,0.0,0.0,1.0,0.0,512.0,0.500302,,,,,,,,,,,,,,,,,,,,,,,,,
8197,1650407630.838095,1650407630.831177,83.0,0.0,4308.205078,4726.666504,4130.769043,4275.897461,4188.205078,16204.0,4.0,86.0,,,,0.0,4.0,0.0,0.0,0.0,4.0,0.0,,,,,,,,,,,,,,,,,,,,,,,,,,,,,,,,,,,,,,,,,,,,,,,,,,,,,,,,,,,,,,,,,,,,,,,,,,,,,,,,,,,,
8198,1650407630.84591,1650407630.839091,84.0,0.0,4316.922852000001,4621.025879,4169.230957,4276.922852000001,4215.897461,450.0,4.0,86.0,,,,0.0,4.0,0.0,0.0,0.0,4.0,0.0,,,,,,,,42.0,0.0,0.25661100000000003,-0.43115200000000004,0.541504,0.674561,0.8686659999999999,-0.517586,-0.050782,-0.034395,-0.037473,-0.0223,,,,,,,,,,,,,,,,,,,,,,,,,,,,,,,,,,,,,,,,,,,,,,,,,,,,,,,,,,,,,,,,,
8199,1650407630.853724,1650407630.846906,85.0,0.0,4327.692383,4576.922852000001,4212.307617,4277.436035,4244.102539,450.0,4.0,86.0,,,,0.0,4.0,0.0,0.0,0.0,4.0,0.0,,,,,,,,,,,,,,,,,,,,,,,,,,,,,,,,,,,,,,,,,,,,,,,,,,,,,,,,,,,,,,,,,,,,,,,,,,,,,,,,,,,,
8200,1650407630.8615391,1650407630.8547199,86.0,0.0,4342.563965,4640.512695,4236.410156,4278.461426,4245.641113000001,450.0,4.0,86.0,,,,0.0,4.0,0.0,0.0,0.0,4.0,0.0,1.0,0.0,4.0,0.0,0.0,0.0,1.0,43.0,0.0,0.2562,-0.431396,0.541504,0.674561,0.870619,-0.508797,-0.049805,-0.034373,-0.037436000000000004,-0.017238,1.0,0.0,0.0,,,,,,,,,,,,,,,,,,,,,,,,,,,,,,,,0.0,0.0,1.0,0.0,512.0,0.473446,2.412024,1.839064,3.3985980000000002,2.106117,1.977023,16.223051,23.27338,32.741966,11.316175,12.551814,28.055389,42.145053999999995,21.043156,7.441768,6.171053,0.074478,0.04213,0.044906,0.044873,0.030744999999999998,12.481255,2.102445,4.760122,1.928402,1.706252
8201,1650407630.8693528,1650407630.862635,87.0,0.0,4338.974121,4666.666504,4240.0,4280.0,4231.794922,16204.0,4.0,86.0,,,,0.0,4.0,0.0,0.0,0.0,4.0,0.0,,,,,,,,,,,,,,,,,,,,,,,,,,,,,,,,,,,,,,,,,,,,,,,,,,,,,,,,,,,,,,,,,,,,,,,,,,,,,,,,,,,,
8202,1650407630.877168,1650407630.87045,88.0,0.0,4340.512695,4565.641113000001,4281.538574,4282.05127,4230.769043,450.0,4.0,86.0,,,,0.0,4.0,0.0,0.0,0.0,4.0,0.0,,,,,,,,44.0,0.0,0.25555700000000003,-0.431396,0.541504,0.674805,0.8593879999999999,-0.5141680000000001,-0.046387,-0.034354,-0.037453,-0.018883,,,,,,,,,,,,,,,,,,,,,,,,,,,,,,,,,,,,,,,,,,,,,,,,,,,,,,,,,,,,,,,,,
8203,1650407630.884982,1650407630.878364,89.0,0.0,4366.153809,4550.256348,4301.538574,4283.077147999999,4247.179688,450.0,4.0,86.0,,,,0.0,4.0,0.0,0.0,0.0,4.0,0.0,,,,,,,,,,,,,,,,,,,,,,,,,,,,,,,,,,,,,,,,,,,,,,,,,,,,,,,,,,,,,,,,,,,,,,,,,,,,,,,,,,,,
8204,1650407630.892797,1650407630.8862789,90.0,0.0,4355.897461,4658.461426,4289.230957,4280.512695,4225.128418,450.0,4.0,86.0,,,,0.0,4.0,0.0,0.0,0.0,4.0,0.0,,,,,,,,45.0,0.0,0.25555700000000003,-0.431396,0.541504,0.674805,0.857923,-0.5097729999999999,-0.045899,-0.034337,-0.037418,-0.014113999999999998,,,,,,,,,,,,,,,,,,,,,,,,,,,,,,,,,,,0.0,0.0,1.0,0.0,512.0,0.473446,,,,,,,,,,,,,,,,,,,,,,,,,
8205,1650407630.9006119,1650407630.894093,91.0,0.0,4344.102539,4692.820313,4186.153809,4276.410156,4208.205078,16204.0,4.0,86.0,,,,0.0,4.0,0.0,0.0,0.0,4.0,0.0,,,,,,,,,,,,,,,,,,,,,,,,,,,,,,,,,,,,,,,,,,,,,,,,,,,,,,,,,,,,,,,,,,,,,,,,,,,,,,,,,,,,
8206,1650407630.908426,1650407630.902008,92.0,0.0,4347.692383,4670.256348,4157.94873,4275.384765999999,4221.025879,450.0,4.0,86.0,,,,0.0,4.0,0.0,0.0,0.0,4.0,0.0,,,,,,,,46.0,0.0,0.25555700000000003,-0.431396,0.541504,0.674805,0.859876,-0.5195390000000001,-0.044923000000000005,-0.034419,-0.037534,-0.01617,,,,,,,,,,,,,,,,,,,,,,,,,,,,,,,,,,,,,,,,,,,,,,,,,,,,,,,,,,,,,,,,,
8207,1650407630.916241,1650407630.909823,93.0,0.0,4350.256348,4675.897461,4211.794922,4278.461426,4231.794922,450.0,4.0,86.0,,,,0.0,4.0,0.0,0.0,0.0,4.0,0.0,,,,,,,,,,,,,,,,,,,,,,,,,,,,,,,,,,,,,,,,,,,,,,,,,,,,,,,,,,,,,,,,,,,,,,,,,,,,,,,,,,,,
8208,1650407630.924055,1650407630.917737,94.0,0.0,4331.282227000001,4689.230957,4223.589844,4278.974121,4208.205078,450.0,4.0,86.0,,,,0.0,4.0,0.0,0.0,0.0,4.0,0.0,,,,,,,,47.0,0.0,0.25555700000000003,-0.431396,0.541504,0.674805,0.854505,-0.513191,-0.033692,-0.034395,-0.03754,-0.017922,,,,,,,,,,,,,,,,,,,,,,,,,,,,,,,,,,,0.0,0.0,1.0,0.0,512.0,0.473446,,,,,,,,,,,,,,,,,,,,,,,,,
8209,1650407630.93187,1650407630.925552,95.0,0.0,4354.358886999999,4687.692383,4155.384765999999,4277.94873,4221.538574,16204.0,4.0,86.0,,,,0.0,4.0,0.0,0.0,0.0,4.0,0.0,,,,,,,,,,,,,,,,,,,,,,,,,,,,,,,,,,,,,,,,,,,,,,,,,,,,,,,,,,,,,,,,,,,,,,,,,,,,,,,,,,,,
8210,1650407630.9396849,1650407630.933466,96.0,0.0,4374.358886999999,4669.743652,4133.846191,4278.974121,4244.102539,450.0,4.0,86.0,,,,0.0,4.0,0.0,0.0,0.0,4.0,0.0,,,,,,,,48.0,0.0,0.25555700000000003,-0.431396,0.541504,0.674805,0.8642709999999999,-0.5195390000000001,-0.053223,-0.034373,-0.037497,-0.013297999999999999,,,,,,,,,,,,,,,,,,,,,,,,,,,,,,,,,,,,,,,,,,,,,,,,,,,,,,,,,,,,,,,,,
8211,1650407630.947499,1650407630.941281,97.0,0.0,4357.94873,4654.871582,4167.179688,4281.025879,4238.974121,450.0,4.0,86.0,,,,0.0,4.0,0.0,0.0,0.0,4.0,0.0,,,,,,,,,,,,,,,,,,,,,,,,,,,,,,,,,,,,,,,,,,,,,,,,,,,,,,,,,,,,,,,,,,,,,,,,,,,,,,,,,,,,
8212,1650407630.9553142,1650407630.949195,98.0,0.0,4350.769043,4641.025879,4165.641113000001,4279.487305,4220.512695,450.0,4.0,86.0,,,,0.0,4.0,0.0,0.0,0.0,4.0,0.0,,,,,,,,49.0,0.0,0.255968,-0.43115200000000004,0.541504,0.674805,0.861341,-0.526375,-0.050782,-0.034402999999999996,-0.037556,-0.018071,,,,,,,,,,,,,,,,,,,,,,,,,,,,,,,,,,,0.0,0.0,1.0,0.0,512.0,0.473446,,,,,,,,,,,,,,,,,,,,,,,,,
8213,1650407630.9631279,1650407630.95701,99.0,0.0,4367.179688,4656.922852000001,4182.05127,4275.897461,4226.666504,16204.0,4.0,86.0,,,,0.0,4.0,0.0,0.0,0.0,4.0,0.0,,,,,,,,,,,,,,,,,,,,,,,,,,,,,,,,,,,,,,,,,,,,,,,,,,,,,,,,,,,,,,,,,,,,,,,,,,,,,,,,,,,,
8214,1650407630.970943,1650407630.964925,100.0,0.0,4364.615234000001,4688.205078,4224.615234000001,4275.897461,4229.230957,450.0,4.0,86.0,,,,0.0,4.0,0.0,0.0,0.0,4.0,0.0,,,,,,,,50.0,0.0,0.255968,-0.43115200000000004,0.541504,0.674805,0.861341,-0.517586,-0.042969,-0.034283,-0.037512000000000004,-0.019536,,,,,,,,,,,,,,,,,,,,,,,,,,,,,,,,,,,,,,,,,,,,,,,,,,,,,,,,,,,,,,,,,
8215,1650407630.978758,1650407630.972739,101.0,0.0,4360.0,4692.820313,4285.128418,4277.436035,4227.692383,450.0,4.0,86.0,,,,0.0,4.0,0.0,0.0,0.0,4.0,0.0,,,,,,,,,,,,,,,,,,,,,,,,,,,,,,,,,,,,,,,,,,,,,,,,,,,,,,,,,,,,,,,,,,,,,,,,,,,,,,,,,,,,
8216,1650407630.986572,1650407630.980654,102.0,0.0,4351.794922,4675.897461,4271.794922,4278.974121,4225.128418,450.0,4.0,86.0,,,,0.0,4.0,0.0,0.0,0.0,4.0,0.0,,,,,,,,51.0,0.0,0.255968,-0.43115200000000004,0.541504,0.674805,0.873549,-0.5097729999999999,-0.047852,-0.034273000000000005,-0.037618,-0.014653,1.0,0.0,0.0,,,,,,,,,,,,,,,,,,,,,,,,,,,,,,,,0.0,0.0,1.0,0.0,512.0,0.431382,2.154449,1.8728900000000002,3.4620629999999997,2.2527459999999997,1.889933,15.028936999999999,26.174503,28.470743,11.446771,11.89667,30.787453000000003,43.494545,17.389874,9.159705,6.304344,0.070966,0.040275,0.036433999999999994,0.043185,0.03123,11.149156,2.292839,4.400449,2.0982,1.6037190000000001
8217,1650407630.994387,1650407630.988568,103.0,0.0,4325.641113000001,4672.307617,4231.282227000001,4278.974121,4211.794922,16204.0,4.0,86.0,,,,0.0,4.0,0.0,0.0,0.0,4.0,0.0,,,,,,,,,,,,,,,,,,,,,,,,,,,,,,,,,,,,,,,,,,,,,,,,,,,,,,,,,,,,,,,,,,,,,,,,,,,,,,,,,,,,
8218,1650407631.002201,1650407630.996383,104.0,0.0,4335.897461,4672.307617,4196.922852000001,4279.487305,4228.717772999999,450.0,4.0,86.0,,,,0.0,4.0,0.0,0.0,0.0,4.0,0.0,,,,,,,,52.0,0.0,0.255968,-0.43115200000000004,0.541504,0.674805,0.863783,-0.504402,-0.05127,-0.034214999999999995,-0.037616000000000004,-0.016556,,,,,,,,,,,,,,,,,,,,,,,,,,,,,,,,,,,,,,,,,,,,,,,,,,,,,,,,,,,,,,,,,
8219,1650407631.010016,1650407631.004198,105.0,0.0,4365.128418,4646.153809,4254.358886999999,4280.512695,4247.179688,450.0,4.0,86.0,,,,0.0,4.0,0.0,0.0,0.0,4.0,0.0,,,,,,,,,,,,,,,,,,,,,,,,,,,,,,,,,,,,,,,,,,,,,,,,,,,,,,,,,,,,,,,,,,,,,,,,,,,,,,,,,,,,
8220,1650407631.0178301,1650407631.012112,106.0,0.0,4354.358886999999,4626.666504,4270.256348,4281.538574,4231.794922,450.0,4.0,86.0,,,,0.0,4.0,0.0,0.0,0.0,4.0,0.0,,,,,,,,53.0,0.0,0.255968,-0.43115200000000004,0.541504,0.674805,0.8608530000000001,-0.515633,-0.04004,-0.034162,-0.037663,-0.014754,,,,,,,,,,,,,,,,,,,,,,,,,,,,,,,,,,,0.0,0.0,1.0,0.0,512.0,0.431382,,,,,,,,,,,,,,,,,,,,,,,,,
8221,1650407631.025645,1650407631.020027,107.0,0.0,4318.461426,4642.563965,4280.512695,4278.974121,4214.871582,16204.0,4.0,86.0,,,,0.0,4.0,0.0,0.0,0.0,4.0,0.0,,,,,,,,,,,,,,,,,,,,,,,,,,,,,,,,,,,,,,,,,,,,,,,,,,,,,,,,,,,,,,,,,,,,,,,,,,,,,,,,,,,,
8222,1650407631.03346,1650407631.027841,108.0,0.0,4347.179688,4649.743652,4254.871582,4277.436035,4238.461426,450.0,4.0,86.0,,,,0.0,4.0,0.0,0.0,0.0,4.0,0.0,,,,,,,,54.0,0.0,0.25555700000000003,-0.431396,0.541504,0.674805,0.854505,-0.514656,-0.049805,-0.034213,-0.037656999999999996,-0.016697,,,,,,,,,,,,,,,,,,,,,,,,,,,,,,,,,,,,,,,,,,,,,,,,,,,,,,,,,,,,,,,,,
8223,1650407631.041274,1650407631.035756,109.0,0.0,4366.666504,4615.384765999999,4207.692383,4280.0,4235.384765999999,450.0,4.0,86.0,,,,0.0,4.0,0.0,0.0,0.0,4.0,0.0,,,,,,,,,,,,,,,,,,,,,,,,,,,,,,,,,,,,,,,,,,,,,,,,,,,,,,,,,,,,,,,,,,,,,,,,,,,,,,,,,,,,
8224,1650407631.049089,1650407631.043571,110.0,0.0,4362.05127,4589.743652,4194.871582,4282.05127,4232.307617,450.0,4.0,86.0,,,,0.0,4.0,0.0,0.0,0.0,4.0,0.0,,,,,,,,55.0,0.0,0.25555700000000003,-0.431396,0.541504,0.674805,0.873549,-0.516121,-0.043946,-0.034161000000000004,-0.0377,-0.018299,,,,,,,,,,,,,,,,,,,,,,,,,,,,,,,,,,,0.0,0.0,1.0,0.0,512.0,0.431382,,,,,,,,,,,,,,,,,,,,,,,,,
