,Timestamp,OriginalTimestamp,EEG.Counter,EEG.Interpolated,EEG.AF3,EEG.T7,EEG.Pz,EEG.T8,EEG.AF4,EEG.RawCq,EEG.Battery,EEG.BatteryPercent,MarkerIndex,MarkerType,MarkerValueInt,EEG.MarkerHardware,CQ.AF3,CQ.T7,CQ.Pz,CQ.T8,CQ.AF4,CQ.Overall,EQ.SampleRateQuality,EQ.OVERALL,EQ.AF3,EQ.T7,EQ.Pz,EQ.T8,EQ.AF4,MOT.CounterMems,MOT.InterpolatedMems,MOT.Q0,MOT.Q1,MOT.Q2,MOT.Q3,MOT.AccX,MOT.AccY,MOT.AccZ,MOT.MagX,MOT.MagY,MOT.MagZ,MC.Action,MC.ActionPower,MC.IsActive,PM.Engagement.IsActive,PM.Engagement.Scaled,PM.Engagement.Raw,PM.Engagement.Min,PM.Engagement.Max,PM.Excitement.IsActive,PM.Excitement.Scaled,PM.Excitement.Raw,PM.Excitement.Min,PM.Excitement.Max,PM.LongTermExcitement,PM.Stress.IsActive,PM.Stress.Scaled,PM.Stress.Raw,PM.Stress.Min,PM.Stress.Max,PM.Relaxation.IsActive,PM.Relaxation.Scaled,PM.Relaxation.Raw,PM.Relaxation.Min,PM.Relaxation.Max,PM.Interest.IsActive,PM.Interest.Scaled,PM.Interest.Raw,PM.Interest.Min,PM.Interest.Max,PM.Focus.IsActive,PM.Focus.Scaled,PM.Focus.Raw,PM.Focus.Min,PM.Focus.Max,FE.BlinkWink,FE.HorizontalEyesDirection,FE.UpperFaceAction,FE.UpperFaceActionPower,FE.LowerFaceAction,FE.LowerFaceActionPower,POW.AF3.Theta,POW.AF3.Alpha,POW.AF3.BetaL,POW.AF3.BetaH,POW.AF3.Gamma,POW.T7.Theta,POW.T7.Alpha,POW.T7.BetaL,POW.T7.BetaH,POW.T7.Gamma,POW.Pz.Theta,POW.Pz.Alpha,POW.Pz.BetaL,POW.Pz.BetaH,POW.Pz.Gamma,POW.T8.Theta,POW.T8.Alpha,POW.T8.BetaL,POW.T8.BetaH,POW.T8.Gamma,POW.AF4.Theta,POW.AF4.Alpha,POW.AF4.BetaL,POW.AF4.BetaH,POW.AF4.Gamma
49232,1650406687.988688,1650406687.99897,35.0,0.0,4247.692383,5188.717772999999,4314.871582,4284.102539,4336.410156,0.0,4.0,91.0,,,,0.0,4.0,0.0,0.0,0.0,4.0,0.0,,,,,,,,,,,,,,,,,,,,,,,,,,,,,,,,,,,,,,,,,,,,,,,,,,,,,,,,,,,,,,,,,,,,,,,,,,,,,,,,,,,,
49233,1650406687.9965029,1650406688.006785,36.0,0.0,4245.641113000001,4896.922852000001,4402.563965,4282.563965,4329.230957,0.0,4.0,91.0,,,,0.0,4.0,0.0,0.0,0.0,4.0,0.0,,,,,,,,18.0,0.0,0.631077,0.6149899999999999,0.358398,-0.30835,0.833509,-0.564462,0.012695999999999999,-0.020472,-0.050308,-0.010966,1.0,0.0,0.0,,,,,,,,,,,,,,,,,,,,,,,,,,,,,,,,0.0,0.0,1.0,0.0,512.0,1.0,12.760536,16.979803,55.848461,9.593908,9.066446000000001,290.750854,713.490051,1816.348267,149.468307,252.642609,143.190567,297.40792799999997,526.662842,38.789711,47.372444,0.37441399999999997,0.365952,1.226711,0.104924,0.137826,10.724121,13.687088000000001,63.324470999999996,5.321784,6.713527
49234,1650406688.004317,1650406688.014499,37.0,0.0,4348.717772999999,4518.974121,4364.102539,4273.333496,4283.077147999999,0.0,4.0,91.0,,,,0.0,4.0,0.0,0.0,0.0,4.0,0.0,,,,,,,,,,,,,,,,,,,,,,,,,,,,,,,,,,,,,,,,,,,,,,,,,,,,,,,,,,,,,,,,,,,,,,,,,,,,,,,,,,,,
49235,1650406688.012132,1650406688.022314,38.0,0.0,4421.538574,4535.897461,4214.871582,4275.384765999999,4288.205078,0.0,4.0,91.0,,,,0.0,4.0,0.0,0.0,0.0,4.0,0.0,,,,,,,,19.0,0.0,0.6307,0.6152340000000001,0.358643,-0.30835,0.8330209999999999,-0.5815520000000001,0.021973,-0.019109,-0.050306000000000003,-0.009137000000000001,,,,,,,,,,,,,,,,,,,,,,,,,,,,,,,,,,,,,,,,,,,,,,,,,,,,,,,,,,,,,,,,,
49236,1650406688.019947,1650406688.0300288,39.0,0.0,4350.769043,4513.846191,4152.307617,4277.94873,4268.717772999999,0.0,4.0,91.0,,,,0.0,4.0,0.0,0.0,0.0,4.0,0.0,,,,,,,,,,,,,,,,,,,,,,,,,,,,,,,,,,,,,,,,,,,,,,,,,,,,,,,,,,,,,,,,,,,,,,,,,,,,,,,,,,,,
49237,1650406688.027761,1650406688.037844,40.0,0.0,4328.205078,4486.666504,4123.589844,4277.94873,4274.358886999999,0.0,4.0,91.0,,,,0.0,4.0,0.0,0.0,0.0,4.0,0.0,,,,,,,,20.0,0.0,0.6307,0.6152340000000001,0.358643,-0.30835,0.8403450000000001,-0.56788,0.01709,-0.017881,-0.050256,-0.010567,,,,,,,,,,,,,,,,,,,,,,,,,,,,,,,,,,,0.0,0.0,1.0,0.0,512.0,1.0,,,,,,,,,,,,,,,,,,,,,,,,,
49238,1650406688.0355759,1650406688.045558,41.0,0.0,4323.589844,4614.358886999999,4145.128418,4287.692383,4255.384765999999,0.0,4.0,91.0,,,,0.0,4.0,0.0,0.0,0.0,4.0,0.0,,,,,,,,,,,,,,,,,,,,,,,,,,,,,,,,,,,,,,,,,,,,,,,,,,,,,,,,,,,,,,,,,,,,,,,,,,,,,,,,,,,,
49239,1650406688.04339,1650406688.053473,42.0,0.0,4306.153809,4612.307617,4136.410156,4294.358886999999,4214.871582,0.0,4.0,91.0,,,,0.0,4.0,0.0,0.0,0.0,4.0,0.0,,,,,,,,21.0,0.0,0.630681,0.6152340000000001,0.358887,-0.308105,0.8213020000000001,-0.575204,0.028808999999999998,-0.018241999999999998,-0.050113,-0.012001000000000001,,,,,,,,,,,,,,,,,,,,,,,,,,,,,,,,,,,,,,,,,,,,,,,,,,,,,,,,,,,,,,,,,
49240,1650406688.0512052,1650406688.061287,43.0,0.0,4288.717772999999,4983.077147999999,4133.333496,4283.589844,4312.820313,0.0,4.0,91.0,,,,0.0,4.0,0.0,0.0,0.0,4.0,0.0,,,,,,,,,,,,,,,,,,,,,,,,,,,,,,,,,,,,,,,,,,,,,,,,,,,,,,,,,,,,,,,,,,,,,,,,,,,,,,,,,,,,
49241,1650406688.0590189,1650406688.069202,44.0,0.0,4246.666504,5193.333496,4250.256348,4283.589844,4404.102539,0.0,4.0,91.0,,,,0.0,4.0,0.0,0.0,0.0,4.0,0.0,,,,,,,,22.0,0.0,0.6308,0.6152340000000001,0.358887,-0.307861,0.826673,-0.573739,0.035644999999999996,-0.018615,-0.050131,-0.010068,,,,,,,,,,,,,,,,,,,,,,,,,,,,,,,,,,,0.0,0.0,1.0,0.0,512.0,1.0,,,,,,,,,,,,,,,,,,,,,,,,,
49242,1650406688.066834,1650406688.077017,45.0,0.0,4258.974121,4374.358886999999,4283.077147999999,4286.153809,4252.307617,0.0,4.0,91.0,,,,0.0,4.0,0.0,0.0,0.0,4.0,0.0,,,,,,,,,,,,,,,,,,,,,,,,,,,,,,,,,,,,,,,,,,,,,,,,,,,,,,,,,,,,,,,,,,,,,,,,,,,,,,,,,,,,
49243,1650406688.0746481,1650406688.0849311,46.0,0.0,4335.384765999999,4097.94873,4145.641113000001,4276.922852000001,4195.897461,0.0,4.0,91.0,,,,0.0,4.0,0.0,0.0,0.0,4.0,0.0,,,,,,,,23.0,0.0,0.6306609999999999,0.6152340000000001,0.359131,-0.307861,0.819348,-0.568368,0.023438,-0.018951,-0.050099,-0.011356,,,,,,,,,,,,,,,,,,,,,,,,,,,,,,,,,,,,,,,,,,,,,,,,,,,,,,,,,,,,,,,,,
49244,1650406688.082463,1650406688.092746,47.0,0.0,4311.282227000001,4664.615234000001,4140.0,4283.077147999999,4278.461426,0.0,4.0,91.0,,,,0.0,4.0,0.0,0.0,0.0,4.0,0.0,,,,,,,,,,,,,,,,,,,,,,,,,,,,,,,,,,,,,,,,,,,,,,,,,,,,,,,,,,,,,,,,,,,,,,,,,,,,,,,,,,,,
49245,1650406688.090277,1650406688.1006598,48.0,0.0,4288.717772999999,4761.538574,4255.384765999999,4289.230957,4261.025879,0.0,4.0,91.0,,,,0.0,4.0,0.0,0.0,0.0,4.0,0.0,,,,,,,,24.0,0.0,0.630641,0.6152340000000001,0.359375,-0.30761700000000003,0.819348,-0.579599,0.02002,-0.019204,-0.050167,-0.009391,,,,,,,,,,,,,,,,,,,,,,,,,,,,,,,,,,,0.0,0.0,1.0,0.0,512.0,1.0,,,,,,,,,,,,,,,,,,,,,,,,,
49246,1650406688.098092,1650406688.108475,49.0,0.0,4303.589844,4727.692383,4182.05127,4286.666504,4253.846191,0.0,4.0,91.0,,,,0.0,4.0,0.0,0.0,0.0,4.0,0.0,,,,,,,,,,,,,,,,,,,,,,,,,,,,,,,,,,,,,,,,,,,,,,,,,,,,,,,,,,,,,,,,,,,,,,,,,,,,,,,,,,,,
49247,1650406688.105906,1650406688.11639,50.0,0.0,4252.820313,4792.820313,4177.94873,4287.692383,4230.256348,0.0,4.0,91.0,,,,0.0,4.0,0.0,0.0,0.0,4.0,0.0,,,,,,,,25.0,0.0,0.630641,0.6152340000000001,0.359375,-0.30761700000000003,0.8208129999999999,-0.578134,0.015625,-0.017967,-0.05018,-0.010795,,,,,,,,,,,,,,,,,,,,,,,,,,,,,,,,,,,,,,,,,,,,,,,,,,,,,,,,,,,,,,,,,
49248,1650406688.1137211,1650406688.124204,51.0,0.0,4284.615234000001,4870.769043,4191.282227000001,4286.153809,4243.077147999999,0.0,4.0,91.0,,,,0.0,4.0,0.0,0.0,0.0,4.0,0.0,,,,,,,,,,,,,,,,,,,,,,,,,,,,,,,,,,,,,,,,,,,,,,,,,,,,,,,,,,,,,,,,,,,,,,,,,,,,,,,,,,,,
49249,1650406688.121535,1650406688.132119,52.0,0.0,4326.153809,5096.922852000001,4183.077147999999,4284.102539,4336.410156,0.0,4.0,91.0,,,,0.0,4.0,0.0,0.0,0.0,4.0,0.0,,,,,,,,26.0,0.0,0.630641,0.6152340000000001,0.359375,-0.30761700000000003,0.81886,-0.576669,0.025879000000000003,-0.018465000000000002,-0.05024,-0.011962,1.0,0.0,0.0,,,,,,,,,,,,,,,,,,,,,,,,,,,,,,,,0.0,0.0,1.0,0.0,512.0,1.0,10.231157000000001,15.831923000000002,65.733437,12.064832000000001,8.986108,240.142456,584.132751,2147.6870120000003,180.078613,276.955536,104.746246,315.509247,591.2637940000001,49.87619,47.030739000000004,0.307623,0.32317199999999996,1.393324,0.116273,0.150238,8.445694,12.880684,71.28690300000001,6.091169,7.735218
49250,1650406688.12935,1650406688.139933,53.0,0.0,4352.307617,4965.641113000001,4245.641113000001,4283.077147999999,4378.461426,0.0,4.0,91.0,,,,0.0,4.0,0.0,0.0,0.0,4.0,0.0,,,,,,,,,,,,,,,,,,,,,,,,,,,,,,,,,,,,,,,,,,,,,,,,,,,,,,,,,,,,,,,,,,,,,,,,,,,,,,,,,,,,
49251,1650406688.137165,1650406688.1478481,54.0,0.0,4375.897461,4698.461426,4326.666504,4274.871582,4294.871582,0.0,4.0,91.0,,,,0.0,4.0,0.0,0.0,0.0,4.0,0.0,,,,,,,,27.0,0.0,0.630641,0.6152340000000001,0.359375,-0.30761700000000003,0.8222780000000001,-0.572274,0.021485,-0.018914,-0.050245,-0.009936,,,,,,,,,,,,,,,,,,,,,,,,,,,,,,,,,,,,,,,,,,,,,,,,,,,,,,,,,,,,,,,,,
49252,1650406688.144979,1650406688.155663,55.0,0.0,4388.717772999999,4649.230957,4243.077147999999,4275.384765999999,4291.282227000001,0.0,4.0,91.0,,,,0.0,4.0,0.0,0.0,0.0,4.0,0.0,,,,,,,,,,,,,,,,,,,,,,,,,,,,,,,,,,,,,,,,,,,,,,,,,,,,,,,,,,,,,,,,,,,,,,,,,,,,,,,,,,,,
49253,1650406688.152794,1650406688.1635768,56.0,0.0,4345.641113000001,4389.743652,4169.743652,4284.102539,4296.922852000001,0.0,4.0,91.0,,,,0.0,4.0,0.0,0.0,0.0,4.0,0.0,,,,,,,,28.0,0.0,0.63076,0.6152340000000001,0.359375,-0.307373,0.8208129999999999,-0.586435,0.018067,-0.019219999999999998,-0.05025,-0.008161,,,,,,,,,,,,,,,,,,,,,,,,,,,,,,,,,,,0.0,0.0,1.0,0.0,512.0,1.0,,,,,,,,,,,,,,,,,,,,,,,,,
49254,1650406688.160608,1650406688.171392,57.0,0.0,4342.05127,4188.205078,4143.589844,4285.128418,4262.05127,0.0,4.0,91.0,,,,0.0,4.0,0.0,0.0,0.0,4.0,0.0,,,,,,,,,,,,,,,,,,,,,,,,,,,,,,,,,,,,,,,,,,,,,,,,,,,,,,,,,,,,,,,,,,,,,,,,,,,,,,,,,,,,
49255,1650406688.168423,1650406688.179107,58.0,0.0,4373.846191,4386.153809,4098.974121,4284.102539,4284.615234000001,0.0,4.0,91.0,,,,0.0,4.0,0.0,0.0,0.0,4.0,0.0,,,,,,,,29.0,0.0,0.63076,0.6152340000000001,0.359375,-0.307373,0.823255,-0.570809,0.029297000000000004,-0.019593,-0.050303,-0.009640000000000001,,,,,,,,,,,,,,,,,,,,,,,,,,,,,,,,,,,,,,,,,,,,,,,,,,,,,,,,,,,,,,,,,
49256,1650406688.1762369,1650406688.187021,59.0,0.0,4365.128418,4570.256348,4085.1281740000004,4287.692383,4325.641113000001,0.0,4.0,91.0,,,,0.0,4.0,0.0,0.0,0.0,4.0,0.0,,,,,,,,,,,,,,,,,,,,,,,,,,,,,,,,,,,,,,,,,,,,,,,,,,,,,,,,,,,,,,,,,,,,,,,,,,,,,,,,,,,,
49257,1650406688.184052,1650406688.194836,60.0,0.0,4318.974121,4584.615234000001,4127.179688,4289.743652,4281.025879,0.0,4.0,91.0,,,,0.0,4.0,0.0,0.0,0.0,4.0,0.0,,,,,,,,30.0,0.0,0.63076,0.6152340000000001,0.359375,-0.307373,0.832044,-0.57911,0.013184,-0.018415,-0.050205,-0.010922,,,,,,,,,,,,,,,,,,,,,,,,,,,,,,,,,,,0.0,0.0,1.0,0.0,512.0,1.0,,,,,,,,,,,,,,,,,,,,,,,,,
49258,1650406688.191866,1650406688.20275,61.0,0.0,4297.94873,4682.563965,4128.205078,4288.717772999999,4247.692383,0.0,4.0,91.0,,,,0.0,4.0,0.0,0.0,0.0,4.0,0.0,,,,,,,,,,,,,,,,,,,,,,,,,,,,,,,,,,,,,,,,,,,,,,,,,,,,,,,,,,,,,,,,,,,,,,,,,,,,,,,,,,,,
49259,1650406688.199681,1650406688.210565,62.0,0.0,4308.717772999999,4867.692383,4126.666504,4286.666504,4308.205078,0.0,4.0,91.0,,,,0.0,4.0,0.0,0.0,0.0,4.0,0.0,,,,,,,,31.0,0.0,0.63076,0.6152340000000001,0.359375,-0.307373,0.820325,-0.573739,0.020996,-0.018819,-0.050263,-0.008951,,,,,,,,,,,,,,,,,,,,,,,,,,,,,,,,,,,,,,,,,,,,,,,,,,,,,,,,,,,,,,,,,
49260,1650406688.207495,1650406688.218479,63.0,0.0,4334.871582,4984.615234000001,4228.205078,4284.102539,4354.358886999999,0.0,4.0,91.0,,,,0.0,4.0,0.0,0.0,0.0,4.0,0.0,,,,,,,,,,,,,,,,,,,,,,,,,,,,,,,,,,,,,,,,,,,,,,,,,,,,,,,,,,,,,,,,,,,,,,,,,,,,,,,,,,,,
49261,1650406688.2153099,1650406688.226294,64.0,0.0,4349.743652,4953.333496,4266.153809,4284.615234000001,4338.461426,450.0,4.0,91.0,,,,0.0,4.0,0.0,0.0,0.0,4.0,0.0,,,,,,,,32.0,0.0,0.630899,0.6152340000000001,0.359131,-0.307373,0.8222780000000001,-0.583017,0.01709,-0.017572,-0.050314,-0.010302,,,,,,,,,,,,,,,,,,,,,,,,,,,,,,,,,,,0.0,0.0,1.0,0.0,512.0,1.0,,,,,,,,,,,,,,,,,,,,,,,,,
49262,1650406688.223124,1650406688.234109,65.0,0.0,4339.487305,4783.589844,4290.256348,4282.563965,4307.692383,450.0,4.0,91.0,,,,0.0,4.0,0.0,0.0,0.0,4.0,0.0,,,,,,,,,,,,,,,,,,,,,,,,,,,,,,,,,,,,,,,,,,,,,,,,,,,,,,,,,,,,,,,,,,,,,,,,,,,,,,,,,,,,
49263,1650406688.2309391,1650406688.241823,66.0,0.0,4362.563965,4875.384765999999,4310.256348,4278.461426,4329.230957,16183.0,4.0,91.0,,,,0.0,4.0,0.0,0.0,0.0,4.0,0.0,,,,,,,,33.0,0.0,0.630899,0.6152340000000001,0.359131,-0.307373,0.826673,-0.572274,0.019043,-0.01645,-0.05041,-0.011664,,,,,,,,,,,,,,,,,,,,,,,,,,,,,,,,,,,,,,,,,,,,,,,,,,,,,,,,,,,,,,,,,
49264,1650406688.2387538,1650406688.249638,67.0,0.0,4370.256348,5012.820313,4333.846191,4281.538574,4344.102539,450.0,4.0,91.0,,,,0.0,4.0,0.0,0.0,0.0,4.0,0.0,,,,,,,,,,,,,,,,,,,,,,,,,,,,,,,,,,,,,,,,,,,,,,,,,,,,,,,,,,,,,,,,,,,,,,,,,,,,,,,,,,,,
49265,1650406688.246568,1650406688.2573528,68.0,0.0,4364.615234000001,4732.307617,4341.025879,4281.538574,4335.897461,19.0,4.0,91.0,,,,0.0,4.0,0.0,0.0,0.0,4.0,0.0,1.0,0.0,3.0,0.0,0.0,0.0,1.0,34.0,0.0,0.63076,0.6152340000000001,0.359375,-0.307373,0.820325,-0.573739,0.020996,-0.017002,-0.05035,-0.009618999999999999,1.0,0.0,0.0,,,,,,,,,,,,,,,,,,,,,,,,,,,,,,,,0.0,0.0,1.0,0.0,512.0,1.0,8.516129,17.569872,71.63027199999999,14.880293,8.634974,198.758484,568.286926,2348.650635,209.649643,286.23580899999996,71.81130999999999,339.07662999999997,604.263306,61.251377000000005,44.863186,0.24363400000000002,0.355174,1.446407,0.128195,0.158089,7.164957000000001,14.475551999999999,74.174904,7.073828999999999,8.505166000000001
49266,1650406688.254383,1650406688.265168,69.0,0.0,4380.0,4464.102539,4322.563965,4275.384765999999,4315.384765999999,450.0,4.0,91.0,,,,0.0,4.0,0.0,0.0,0.0,4.0,0.0,,,,,,,,,,,,,,,,,,,,,,,,,,,,,,,,,,,,,,,,,,,,,,,,,,,,,,,,,,,,,,,,,,,,,,,,,,,,,,,,,,,,
49267,1650406688.262197,1650406688.272882,70.0,0.0,4406.666504,4486.666504,4184.615234000001,4276.410156,4296.922852000001,0.0,4.0,91.0,,,,0.0,4.0,0.0,0.0,0.0,4.0,0.0,,,,,,,,35.0,0.0,0.630899,0.6152340000000001,0.359131,-0.307373,0.826673,-0.572274,0.019043,-0.015937,-0.050442,-0.01105,,,,,,,,,,,,,,,,,,,,,,,,,,,,,,,,,,,,,,,,,,,,,,,,,,,,,,,,,,,,,,,,,
49268,1650406688.270012,1650406688.280797,71.0,0.0,4381.025879,4510.769043,4125.128418,4283.077147999999,4292.307617,450.0,4.0,91.0,,,,0.0,4.0,0.0,0.0,0.0,4.0,0.0,,,,,,,,,,,,,,,,,,,,,,,,,,,,,,,,,,,,,,,,,,,,,,,,,,,,,,,,,,,,,,,,,,,,,,,,,,,,,,,,,,,,
49269,1650406688.277826,1650406688.288611,72.0,0.0,4386.666504,4311.794922,4138.461426,4285.641113000001,4304.102539,450.0,4.0,91.0,,,,0.0,4.0,0.0,0.0,0.0,4.0,0.0,,,,,,,,36.0,0.0,0.63078,0.6152340000000001,0.359131,-0.30761700000000003,0.835462,-0.586923,0.011719,-0.016589,-0.050329,-0.012288,,,,,,,,,,,,,,,,,,,,,,,,,,,,,,,,,,,0.0,0.0,1.0,0.0,512.0,1.0,,,,,,,,,,,,,,,,,,,,,,,,,
49270,1650406688.285641,1650406688.296426,73.0,0.0,4382.05127,4401.025879,4110.769043,4285.128418,4295.897461,0.0,4.0,91.0,,,,0.0,4.0,0.0,0.0,0.0,4.0,0.0,,,,,,,,,,,,,,,,,,,,,,,,,,,,,,,,,,,,,,,,,,,,,,,,,,,,,,,,,,,,,,,,,,,,,,,,,,,,,,,,,,,,
49271,1650406688.2934551,1650406688.304141,74.0,0.0,4341.025879,4562.05127,4092.3076170000004,4288.205078,4282.05127,450.0,4.0,91.0,,,,0.0,4.0,0.0,0.0,0.0,4.0,0.0,,,,,,,,37.0,0.0,0.63078,0.6152340000000001,0.359131,-0.30761700000000003,0.8247200000000001,-0.579599,0.021485,-0.017128,-0.050276999999999995,-0.01023,,,,,,,,,,,,,,,,,,,,,,,,,,,,,,,,,,,,,,,,,,,,,,,,,,,,,,,,,,,,,,,,,
49272,1650406688.30127,1650406688.312055,75.0,0.0,4390.769043,4468.205078,4124.102539,4284.102539,4309.230957,16209.0,4.0,91.0,,,,0.0,4.0,0.0,0.0,0.0,4.0,0.0,,,,,,,,,,,,,,,,,,,,,,,,,,,,,,,,,,,,,,,,,,,,,,,,,,,,,,,,,,,,,,,,,,,,,,,,,,,,,,,,,,,,
49273,1650406688.309084,1650406688.31987,76.0,0.0,4424.615234000001,4537.436035,4116.410156,4282.563965,4347.692383,450.0,4.0,91.0,,,,0.0,4.0,0.0,0.0,0.0,4.0,0.0,,,,,,,,38.0,0.0,0.630919,0.6152340000000001,0.358887,-0.30761700000000003,0.8330209999999999,-0.571786,0.025391,-0.017612,-0.050327,-0.011453,,,,,,,,,,,,,,,,,,,,,,,,,,,,,,,,,,,0.0,0.0,1.0,0.0,512.0,1.0,,,,,,,,,,,,,,,,,,,,,,,,,
49274,1650406688.316899,1650406688.327785,77.0,0.0,4357.94873,4532.307617,4084.102539,4287.179688,4290.256348,450.0,4.0,91.0,,,,0.0,4.0,0.0,0.0,0.0,4.0,0.0,,,,,,,,,,,,,,,,,,,,,,,,,,,,,,,,,,,,,,,,,,,,,,,,,,,,,,,,,,,,,,,,,,,,,,,,,,,,,,,,,,,,
49275,1650406688.324713,1650406688.335599,78.0,0.0,4362.563965,4590.256348,4089.743652,4286.153809,4281.538574,450.0,4.0,91.0,,,,0.0,4.0,0.0,0.0,0.0,4.0,0.0,,,,,,,,39.0,0.0,0.630681,0.615479,0.358887,-0.30761700000000003,0.823255,-0.585458,0.021973,-0.016534,-0.050226,-0.012505,,,,,,,,,,,,,,,,,,,,,,,,,,,,,,,,,,,,,,,,,,,,,,,,,,,,,,,,,,,,,,,,,
49276,1650406688.3325279,1650406688.3433142,79.0,0.0,4391.282227000001,4677.94873,4128.717772999999,4287.179688,4305.641113000001,16209.0,4.0,91.0,,,,0.0,4.0,0.0,0.0,0.0,4.0,0.0,,,,,,,,,,,,,,,,,,,,,,,,,,,,,,,,,,,,,,,,,,,,,,,,,,,,,,,,,,,,,,,,,,,,,,,,,,,,,,,,,,,,
49277,1650406688.340343,1650406688.3511288,80.0,0.0,4372.820313,4623.077147999999,4154.358886999999,4286.666504,4289.743652,450.0,4.0,91.0,,,,0.0,4.0,0.0,0.0,0.0,4.0,0.0,,,,,,,,40.0,0.0,0.630681,0.615479,0.358887,-0.30761700000000003,0.818372,-0.588388,0.019532,-0.015466999999999998,-0.050233,-0.013597999999999999,,,,,,,,,,,,,,,,,,,,,,,,,,,,,,,,,,,0.0,0.0,1.0,0.0,512.0,1.0,,,,,,,,,,,,,,,,,,,,,,,,,
49278,1650406688.348157,1650406688.3588428,81.0,0.0,4357.436035,4689.743652,4103.077147999999,4286.153809,4302.05127,450.0,4.0,91.0,,,,0.0,4.0,0.0,0.0,0.0,4.0,0.0,,,,,,,,,,,,,,,,,,,,,,,,,,,,,,,,,,,,,,,,,,,,,,,,,,,,,,,,,,,,,,,,,,,,,,,,,,,,,,,,,,,,
49279,1650406688.355972,1650406688.366658,82.0,0.0,4368.717772999999,4784.615234000001,4103.589844,4287.179688,4324.102539,450.0,4.0,91.0,,,,0.0,4.0,0.0,0.0,0.0,4.0,0.0,,,,,,,,41.0,0.0,0.6308,0.6152340000000001,0.358887,-0.307861,0.8252079999999999,-0.581064,0.019532,-0.016118,-0.050288,-0.011408,,,,,,,,,,,,,,,,,,,,,,,,,,,,,,,,,,,,,,,,,,,,,,,,,,,,,,,,,,,,,,,,,
49280,1650406688.363786,1650406688.374373,83.0,0.0,4354.871582,4809.230957,4120.512695,4288.717772999999,4305.641113000001,16209.0,4.0,91.0,,,,0.0,4.0,0.0,0.0,0.0,4.0,0.0,,,,,,,,,,,,,,,,,,,,,,,,,,,,,,,,,,,,,,,,,,,,,,,,,,,,,,,,,,,,,,,,,,,,,,,,,,,,,,,,,,,,
49281,1650406688.3716009,1650406688.382187,84.0,0.0,4325.641113000001,4822.05127,4101.538574,4286.666504,4272.820313,450.0,4.0,91.0,,,,0.0,4.0,0.0,0.0,0.0,4.0,0.0,,,,,,,,42.0,0.0,0.6308,0.6152340000000001,0.358887,-0.307861,0.818372,-0.592294,0.019043,-0.01685,-0.050337,-0.012611,1.0,0.0,0.0,,,,,,,,,,,,,,,,,,,,,,,,,,,,,,,,0.0,0.0,1.0,0.0,512.0,1.0,8.452361999999999,22.318079,73.206787,17.170771,8.135369,185.509201,677.804871,2386.96875,232.252518,281.84225499999997,53.497955000000005,368.765198,568.447815,70.028954,41.793446,0.208713,0.47381899999999993,1.383417,0.138022,0.15983599999999998,6.751326,18.091845000000003,71.750923,8.000604,8.957294000000001
49282,1650406688.379415,1650406688.3899019,85.0,0.0,4338.974121,4860.512695,4102.563965,4287.179688,4294.358886999999,450.0,4.0,91.0,,,,0.0,4.0,0.0,0.0,0.0,4.0,0.0,,,,,,,,,,,,,,,,,,,,,,,,,,,,,,,,,,,,,,,,,,,,,,,,,,,,,,,,,,,,,,,,,,,,,,,,,,,,,,,,,,,,
49283,1650406688.3872302,1650406688.397717,86.0,0.0,4354.871582,4753.333496,4149.230957,4288.717772999999,4296.922852000001,450.0,4.0,91.0,,,,0.0,4.0,0.0,0.0,0.0,4.0,0.0,,,,,,,,43.0,0.0,0.630681,0.6152340000000001,0.358887,-0.308105,0.8330209999999999,-0.574716,0.015137000000000001,-0.017362,-0.050332999999999996,-0.010422,,,,,,,,,,,,,,,,,,,,,,,,,,,,,,,,,,,,,,,,,,,,,,,,,,,,,,,,,,,,,,,,,
49284,1650406688.3950438,1650406688.405432,87.0,0.0,4356.410156,4712.820313,4089.743652,4287.692383,4298.461426,16209.0,4.0,91.0,,,,0.0,4.0,0.0,0.0,0.0,4.0,0.0,,,,,,,,,,,,,,,,,,,,,,,,,,,,,,,,,,,,,,,,,,,,,,,,,,,,,,,,,,,,,,,,,,,,,,,,,,,,,,,,,,,,
49285,1650406688.402859,1650406688.4132462,88.0,0.0,4325.128418,4753.846191,4077.4357909999994,4289.230957,4281.538574,450.0,4.0,91.0,,,,0.0,4.0,0.0,0.0,0.0,4.0,0.0,,,,,,,,44.0,0.0,0.6308189999999999,0.6152340000000001,0.358643,-0.308105,0.828626,-0.563973,0.019043,-0.016261,-0.050231,-0.011773,,,,,,,,,,,,,,,,,,,,,,,,,,,,,,,,,,,0.0,0.0,1.0,0.0,512.0,1.0,,,,,,,,,,,,,,,,,,,,,,,,,
49286,1650406688.4106731,1650406688.420961,89.0,0.0,4332.307617,4685.641113000001,4110.769043,4291.282227000001,4281.538574,450.0,4.0,91.0,,,,0.0,4.0,0.0,0.0,0.0,4.0,0.0,,,,,,,,,,,,,,,,,,,,,,,,,,,,,,,,,,,,,,,,,,,,,,,,,,,,,,,,,,,,,,,,,,,,,,,,,,,,,,,,,,,,
49287,1650406688.418488,1650406688.428776,90.0,0.0,4365.641113000001,4692.820313,4066.1538090000004,4291.282227000001,4323.077147999999,450.0,4.0,91.0,,,,0.0,4.0,0.0,0.0,0.0,4.0,0.0,,,,,,,,45.0,0.0,0.6308189999999999,0.6152340000000001,0.358643,-0.308105,0.81886,-0.57911,0.020508000000000002,-0.016978,-0.050238,-0.009814,,,,,,,,,,,,,,,,,,,,,,,,,,,,,,,,,,,,,,,,,,,,,,,,,,,,,,,,,,,,,,,,,
49288,1650406688.426302,1650406688.43649,91.0,0.0,4400.0,4710.769043,3992.3076170000004,4290.256348,4353.846191,16209.0,4.0,91.0,,,,0.0,4.0,0.0,0.0,0.0,4.0,0.0,,,,,,,,,,,,,,,,,,,,,,,,,,,,,,,,,,,,,,,,,,,,,,,,,,,,,,,,,,,,,,,,,,,,,,,,,,,,,,,,,,,,
49289,1650406688.434117,1650406688.4443052,92.0,0.0,4377.436035,4606.666504,4060.0,4289.743652,4306.153809,450.0,4.0,91.0,,,,0.0,4.0,0.0,0.0,0.0,4.0,0.0,,,,,,,,46.0,0.0,0.6308189999999999,0.6152340000000001,0.358643,-0.308105,0.8213020000000001,-0.568368,0.011719,-0.017429,-0.050145999999999996,-0.007954000000000001,,,,,,,,,,,,,,,,,,,,,,,,,,,,,,,,,,,0.0,0.0,1.0,0.0,512.0,1.0,,,,,,,,,,,,,,,,,,,,,,,,,
49290,1650406688.441932,1650406688.45202,93.0,0.0,4343.077147999999,4514.358886999999,4127.692383,4289.230957,4260.512695,450.0,4.0,91.0,,,,0.0,4.0,0.0,0.0,0.0,4.0,0.0,,,,,,,,,,,,,,,,,,,,,,,,,,,,,,,,,,,,,,,,,,,,,,,,,,,,,,,,,,,,,,,,,,,,,,,,,,,,,,,,,,,,
49291,1650406688.4497461,1650406688.459934,94.0,0.0,4348.205078,4563.589844,4099.487305,4286.153809,4262.563965,450.0,4.0,91.0,,,,0.0,4.0,0.0,0.0,0.0,4.0,0.0,,,,,,,,47.0,0.0,0.6305810000000001,0.615479,0.358643,-0.308105,0.832044,-0.575204,0.023438,-0.01637,-0.050112000000000004,-0.009453,,,,,,,,,,,,,,,,,,,,,,,,,,,,,,,,,,,,,,,,,,,,,,,,,,,,,,,,,,,,,,,,,
49292,1650406688.457561,1650406688.467749,95.0,0.0,4360.0,4691.282227000001,4116.922852000001,4284.102539,4260.0,16209.0,4.0,91.0,,,,0.0,4.0,0.0,0.0,0.0,4.0,0.0,,,,,,,,,,,,,,,,,,,,,,,,,,,,,,,,,,,,,,,,,,,,,,,,,,,,,,,,,,,,,,,,,,,,,,,,,,,,,,,,,,,,
49293,1650406688.465375,1650406688.475564,96.0,0.0,4370.769043,4753.333496,4134.358886999999,4285.641113000001,4273.846191,450.0,4.0,91.0,,,,0.0,4.0,0.0,0.0,0.0,4.0,0.0,,,,,,,,48.0,0.0,0.6305810000000001,0.615479,0.358643,-0.308105,0.827649,-0.566415,0.020508000000000002,-0.015366999999999999,-0.05013,-0.010851999999999999,,,,,,,,,,,,,,,,,,,,,,,,,,,,,,,,,,,0.0,0.0,1.0,0.0,512.0,1.0,,,,,,,,,,,,,,,,,,,,,,,,,
49294,1650406688.47319,1650406688.483278,97.0,0.0,4377.436035,4775.384765999999,4128.717772999999,4288.717772999999,4300.512695,450.0,4.0,91.0,,,,0.0,4.0,0.0,0.0,0.0,4.0,0.0,,,,,,,,,,,,,,,,,,,,,,,,,,,,,,,,,,,,,,,,,,,,,,,,,,,,,,,,,,,,,,,,,,,,,,,,,,,,,,,,,,,,
49295,1650406688.481004,1650406688.491193,98.0,0.0,4361.025879,4763.589844,4082.5642090000006,4287.179688,4270.256348,450.0,4.0,91.0,,,,0.0,4.0,0.0,0.0,0.0,4.0,0.0,,,,,,,,49.0,0.0,0.63072,0.615479,0.358398,-0.308105,0.814466,-0.5732510000000001,0.034668,-0.016028,-0.050097,-0.008985,,,,,,,,,,,,,,,,,,,,,,,,,,,,,,,,,,,,,,,,,,,,,,,,,,,,,,,,,,,,,,,,,
49296,1650406688.488819,1650406688.499008,99.0,0.0,4347.179688,4794.358886999999,4092.820557,4281.538574,4244.102539,16209.0,4.0,91.0,,,,0.0,4.0,0.0,0.0,0.0,4.0,0.0,,,,,,,,,,,,,,,,,,,,,,,,,,,,,,,,,,,,,,,,,,,,,,,,,,,,,,,,,,,,,,,,,,,,,,,,,,,,,,,,,,,,
49297,1650406688.496633,1650406688.506922,100.0,0.0,4394.871582,4797.94873,4090.256348,4283.077147999999,4304.102539,450.0,4.0,91.0,,,,0.0,4.0,0.0,0.0,0.0,4.0,0.0,,,,,,,,50.0,0.0,0.6308590000000001,0.615479,0.358154,-0.308105,0.828626,-0.578134,0.021485,-0.016671000000000002,-0.050117,-0.007403,1.0,0.0,0.0,,,,,,,,,,,,,,,,,,,,,,,,,,,,,,,,0.0,0.0,1.0,0.0,512.0,1.0,10.20485,28.742941,70.724915,18.204054,7.616892999999999,208.789673,878.344116,2265.12915,244.22937000000002,269.35143999999997,53.323036,397.260223,498.11749299999997,73.326172,38.354031,0.21380500000000002,0.648,1.229109,0.14291700000000002,0.154923,6.792364999999999,22.304228,64.799301,8.654347,9.209444
49298,1650406688.504448,1650406688.514737,101.0,0.0,4417.436035,4746.153809,4101.025879,4289.230957,4327.692383,450.0,4.0,91.0,,,,0.0,4.0,0.0,0.0,0.0,4.0,0.0,,,,,,,,,,,,,,,,,,,,,,,,,,,,,,,,,,,,,,,,,,,,,,,,,,,,,,,,,,,,,,,,,,,,,,,,,,,,,,,,,,,,
49299,1650406688.5122619,1650406688.522651,102.0,0.0,4434.358886999999,4786.666504,4100.0,4286.666504,4325.128418,450.0,4.0,91.0,,,,0.0,4.0,0.0,0.0,0.0,4.0,0.0,,,,,,,,51.0,0.0,0.6308590000000001,0.615479,0.358154,-0.308105,0.81593,-0.577646,0.027832,-0.017200999999999998,-0.049988,-0.009056,,,,,,,,,,,,,,,,,,,,,,,,,,,,,,,,,,,,,,,,,,,,,,,,,,,,,,,,,,,,,,,,,
49300,1650406688.520077,1650406688.530466,103.0,0.0,4515.897461,4794.871582,4123.077147999999,4284.102539,4386.153809,16209.0,4.0,91.0,,,,0.0,4.0,0.0,0.0,0.0,4.0,0.0,,,,,,,,,,,,,,,,,,,,,,,,,,,,,,,,,,,,,,,,,,,,,,,,,,,,,,,,,,,,,,,,,,,,,,,,,,,,,,,,,,,,
49301,1650406688.527891,1650406688.538181,104.0,0.0,4625.641113000001,4796.410156,4100.512695,4290.256348,4488.717772999999,450.0,4.0,91.0,,,,0.0,4.0,0.0,0.0,0.0,4.0,0.0,,,,,,,,52.0,0.0,0.630997,0.615479,0.35791,-0.308105,0.818372,-0.5879,0.009276999999999999,-0.016214,-0.04997,-0.010543,,,,,,,,,,,,,,,,,,,,,,,,,,,,,,,,,,,0.0,0.0,1.0,0.0,512.0,1.0,,,,,,,,,,,,,,,,,,,,,,,,,
49302,1650406688.535706,1650406688.545995,105.0,0.0,4676.410156,4985.128418,4181.025879,4293.333496,4545.128418,450.0,4.0,91.0,,,,0.0,4.0,0.0,0.0,0.0,4.0,0.0,,,,,,,,,,,,,,,,,,,,,,,,,,,,,,,,,,,,,,,,,,,,,,,,,,,,,,,,,,,,,,,,,,,,,,,,,,,,,,,,,,,,
49303,1650406688.54352,1650406688.55371,106.0,0.0,4736.410156,5154.871582,4284.102539,4297.94873,4610.256348,450.0,4.0,91.0,,,,0.0,4.0,0.0,0.0,0.0,4.0,0.0,,,,,,,,53.0,0.0,0.6307590000000001,0.6157229999999999,0.35791,-0.308105,0.819837,-0.571298,0.014159999999999999,-0.015276,-0.050002,-0.011783,,,,,,,,,,,,,,,,,,,,,,,,,,,,,,,,,,,,,,,,,,,,,,,,,,,,,,,,,,,,,,,,,
49304,1650406688.5513349,1650406688.561525,107.0,0.0,4774.358886999999,5036.410156,4249.743652,4308.717772999999,4648.205078,16209.0,4.0,91.0,,,,0.0,4.0,0.0,0.0,0.0,4.0,0.0,,,,,,,,,,,,,,,,,,,,,,,,,,,,,,,,,,,,,,,,,,,,,,,,,,,,,,,,,,,,,,,,,,,,,,,,,,,,,,,,,,,,
49305,1650406688.55915,1650406688.5692391,108.0,0.0,4798.974121,4842.563965,4222.05127,4309.743652,4646.153809,450.0,4.0,91.0,,,,0.0,4.0,0.0,0.0,0.0,4.0,0.0,,,,,,,,54.0,0.0,0.63064,0.6157229999999999,0.35791,-0.30835,0.8217899999999999,-0.583993,0.017578,-0.015995,-0.05008,-0.009677,,,,,,,,,,,,,,,,,,,,,,,,,,,,,,,,,,,0.0,0.0,1.0,0.0,512.0,1.0,,,,,,,,,,,,,,,,,,,,,,,,,
49306,1650406688.5669641,1650406688.577054,109.0,0.0,4831.282227000001,4965.641113000001,4251.282227000001,4301.538574,4669.743652,450.0,4.0,91.0,,,,0.0,4.0,0.0,0.0,0.0,4.0,0.0,,,,,,,,,,,,,,,,,,,,,,,,,,,,,,,,,,,,,,,,,,,,,,,,,,,,,,,,,,,,,,,,,,,,,,,,,,,,,,,,,,,,
49307,1650406688.5747788,1650406688.584769,110.0,0.0,4821.025879,5037.94873,4208.717772999999,4305.641113000001,4683.589844,450.0,4.0,91.0,,,,0.0,4.0,0.0,0.0,0.0,4.0,0.0,,,,,,,,55.0,0.0,0.630778,0.6157229999999999,0.357666,-0.30835,0.817884,-0.5771569999999999,0.018067,-0.016544,-0.05015,-0.010956,,,,,,,,,,,,,,,,,,,,,,,,,,,,,,,,,,,,,,,,,,,,,,,,,,,,,,,,,,,,,,,,,
49308,1650406688.582593,1650406688.592583,111.0,0.0,4777.94873,4722.563965,4148.205078,4311.794922,4634.358886999999,16209.0,4.0,91.0,,,,0.0,4.0,0.0,0.0,0.0,4.0,0.0,,,,,,,,,,,,,,,,,,,,,,,,,,,,,,,,,,,,,,,,,,,,,,,,,,,,,,,,,,,,,,,,,,,,,,,,,,,,,,,,,,,,
49309,1650406688.590408,1650406688.600298,112.0,0.0,4793.333496,4466.153809,4133.846191,4306.153809,4611.794922,450.0,4.0,91.0,,,,0.0,4.0,0.0,0.0,0.0,4.0,0.0,,,,,,,,56.0,0.0,0.63052,0.6157229999999999,0.35791,-0.308594,0.8217899999999999,-0.5669029999999999,0.011231,-0.017086,-0.050164999999999994,-0.008981,,,,,,,,,,,,,,,,,,,,,,,,,,,,,,,,,,,0.0,0.0,1.0,0.0,512.0,1.0,,,,,,,,,,,,,,,,,,,,,,,,,
49310,1650406688.598222,1650406688.608113,113.0,0.0,4795.384765999999,4737.436035,4068.718018,4301.538574,4648.205078,450.0,4.0,91.0,,,,0.0,4.0,0.0,0.0,0.0,4.0,0.0,,,,,,,,,,,,,,,,,,,,,,,,,,,,,,,,,,,,,,,,,,,,,,,,,,,,,,,,,,,,,,,,,,,,,,,,,,,,,,,,,,,,
49311,1650406688.606037,1650406688.615828,114.0,0.0,4726.153809,5033.846191,4207.692383,4302.05127,4652.820313,450.0,4.0,91.0,,,,0.0,4.0,0.0,0.0,0.0,4.0,0.0,,,,,,,,57.0,0.0,0.63064,0.6157229999999999,0.35791,-0.30835,0.839368,-0.568856,0.009276999999999999,-0.017672999999999998,-0.050129,-0.010378,,,,,,,,,,,,,,,,,,,,,,,,,,,,,,,,,,,,,,,,,,,,,,,,,,,,,,,,,,,,,,,,,
49312,1650406688.613851,1650406688.623742,115.0,0.0,4694.358886999999,4896.410156,4365.641113000001,4304.615234000001,4633.846191,16209.0,4.0,91.0,,,,0.0,4.0,0.0,0.0,0.0,4.0,0.0,,,,,,,,,,,,,,,,,,,,,,,,,,,,,,,,,,,,,,,,,,,,,,,,,,,,,,,,,,,,,,,,,,,,,,,,,,,,,,,,,,,,
49313,1650406688.621666,1650406688.631557,116.0,0.0,4669.230957,4731.282227000001,4289.743652,4305.128418,4598.461426,450.0,4.0,91.0,,,,0.0,4.0,0.0,0.0,0.0,4.0,0.0,,,,,,,,58.0,0.0,0.630778,0.6157229999999999,0.357666,-0.30835,0.847669,-0.585458,0.014649,-0.0182,-0.050194,-0.011585999999999999,1.0,0.0,0.0,,,,,,,,,,,,,,,,,,,,,,,,,,,,,,,,0.0,0.0,1.0,0.0,512.0,0.980618,13.516259,34.839455,64.824348,17.622341,7.11504,273.300964,1109.807495,2020.2510989999998,244.709229,254.67430099999999,68.167542,414.677002,413.629425,69.686401,34.603195,0.25093499999999996,0.8237059999999999,1.026461,0.140605,0.143958,6.980973,25.573814000000002,55.004635,8.944533999999999,9.425775999999999
49314,1650406688.6294801,1650406688.639471,117.0,0.0,4614.358886999999,4647.179688,4145.641113000001,4300.0,4535.384765999999,450.0,4.0,91.0,,,,0.0,4.0,0.0,0.0,0.0,4.0,0.0,,,,,,,,,,,,,,,,,,,,,,,,,,,,,,,,,,,,,,,,,,,,,,,,,,,,,,,,,,,,,,,,,,,,,,,,,,,,,,,,,,,,
49315,1650406688.637295,1650406688.647286,118.0,0.0,4538.461426,4563.077147999999,4176.922852000001,4290.256348,4457.94873,450.0,4.0,91.0,,,,0.0,4.0,0.0,0.0,0.0,4.0,0.0,,,,,,,,59.0,0.0,0.630778,0.6157229999999999,0.357666,-0.30835,0.827649,-0.578134,0.021485,-0.018578,-0.050058,-0.009646,,,,,,,,,,,,,,,,,,,,,,,,,,,,,,,,,,,,,,,,,,,,,,,,,,,,,,,,,,,,,,,,,
49316,1650406688.645109,1650406688.655201,119.0,0.0,4455.384765999999,4562.563965,4204.102539,4282.563965,4393.333496,16209.0,4.0,91.0,,,,0.0,4.0,0.0,0.0,0.0,4.0,0.0,,,,,,,,,,,,,,,,,,,,,,,,,,,,,,,,,,,,,,,,,,,,,,,,,,,,,,,,,,,,,,,,,,,,,,,,,,,,,,,,,,,,
49317,1650406688.652924,1650406688.6630151,120.0,0.0,4389.743652,4672.307617,4213.846191,4280.0,4341.025879,450.0,4.0,91.0,,,,0.0,4.0,0.0,0.0,0.0,4.0,0.0,,,,,,,,60.0,0.0,0.630778,0.6157229999999999,0.357666,-0.30835,0.8169069999999999,-0.586435,0.014649,-0.018966,-0.050032,-0.010928,,,,,,,,,,,,,,,,,,,,,,,,,,,,,,,,,,,10.0,0.0,1.0,0.0,512.0,0.980618,,,,,,,,,,,,,,,,,,,,,,,,,
49318,1650406688.660739,1650406688.6709301,121.0,0.0,4383.589844,4737.94873,4214.358886999999,4280.512695,4334.358886999999,450.0,4.0,91.0,,,,0.0,4.0,0.0,0.0,0.0,4.0,0.0,,,,,,,,,,,,,,,,,,,,,,,,,,,,,,,,,,,,,,,,,,,,,,,,,,,,,,,,,,,,,,,,,,,,,,,,,,,,,,,,,,,,
49319,1650406688.6685529,1650406688.6787438,122.0,0.0,4355.384765999999,4720.512695,4187.692383,4276.410156,4309.743652,450.0,4.0,91.0,,,,0.0,4.0,0.0,0.0,0.0,4.0,0.0,,,,,,,,61.0,0.0,0.630778,0.6157229999999999,0.357666,-0.30835,0.813001,-0.583017,0.014649,-0.017703999999999998,-0.050059,-0.012228,,,,,,,,,,,,,,,,,,,,,,,,,,,,,,,,,,,,,,,,,,,,,,,,,,,,,,,,,,,,,,,,,
49320,1650406688.676368,1650406688.686659,123.0,0.0,4315.384765999999,4700.512695,4144.102539,4275.897461,4273.846191,16209.0,4.0,91.0,,,,0.0,4.0,0.0,0.0,0.0,4.0,0.0,,,,,,,,,,,,,,,,,,,,,,,,,,,,,,,,,,,,,,,,,,,,,,,,,,,,,,,,,,,,,,,,,,,,,,,,,,,,,,,,,,,,
49321,1650406688.684182,1650406688.694474,124.0,0.0,4304.615234000001,4731.282227000001,4103.589844,4278.974121,4257.94873,450.0,4.0,91.0,,,,0.0,4.0,0.0,0.0,0.0,4.0,0.0,,,,,,,,62.0,0.0,0.630778,0.6157229999999999,0.357666,-0.30835,0.827649,-0.578134,0.021485,-0.018229,-0.050082,-0.010126000000000001,,,,,,,,,,,,,,,,,,,,,,,,,,,,,,,,,,,10.0,0.0,1.0,0.0,512.0,0.980618,,,,,,,,,,,,,,,,,,,,,,,,,
49322,1650406688.691997,1650406688.702388,125.0,0.0,4286.153809,4869.230957,4095.384521,4284.102539,4253.846191,450.0,4.0,91.0,,,,0.0,4.0,0.0,0.0,0.0,4.0,0.0,,,,,,,,,,,,,,,,,,,,,,,,,,,,,,,,,,,,,,,,,,,,,,,,,,,,,,,,,,,,,,,,,,,,,,,,,,,,,,,,,,,,
49323,1650406688.699811,1650406688.710203,126.0,0.0,4251.794922,4863.589844,4124.615234000001,4284.615234000001,4209.743652,450.0,4.0,91.0,,,,0.0,4.0,0.0,0.0,0.0,4.0,0.0,,,,,,,,63.0,0.0,0.630778,0.6157229999999999,0.357666,-0.30835,0.813001,-0.583017,0.014649,-0.017041,-0.050102999999999995,-0.011506,,,,,,,,,,,,,,,,,,,,,,,,,,,,,,,,,,,,,,,,,,,,,,,,,,,,,,,,,,,,,,,,,
49324,1650406688.7076259,1650406688.718117,127.0,0.0,4235.384765999999,4837.94873,4122.05127,4276.410156,4196.410156,242.0,4.0,91.0,,,,0.0,4.0,0.0,0.0,0.0,4.0,0.0,,,,,,,,,,,,,,,,,,,,,,,,,,,,,,,,,,,,,,,,,,,,,,,,,,,,,,,,,,,,,,,,,,,,,,,,,,,,,,,,,,,,
49325,1650406688.71544,1650406688.7259321,0.0,0.0,4188.205078,4946.153809,4071.281982,4277.436035,4195.897461,450.0,4.0,91.0,,,,0.0,4.0,0.0,0.0,0.0,4.0,0.0,,,,,,,,0.0,0.0,0.630797,0.6157229999999999,0.35742199999999996,-0.308594,0.8213020000000001,-0.576669,0.018555000000000002,-0.017632,-0.050122,-0.009477,,,,,,,,,,,,,,,,,,,,,,,,,,,,,,,,,,,10.0,0.0,1.0,0.0,512.0,0.980618,,,,,,,,,,,,,,,,,,,,,,,,,
49326,1650406688.7232552,1650406688.733647,1.0,0.0,4167.179688,4944.615234000001,4095.897461,4280.512695,4164.102539,450.0,4.0,91.0,,,,0.0,4.0,0.0,0.0,0.0,4.0,0.0,,,,,,,,,,,,,,,,,,,,,,,,,,,,,,,,,,,,,,,,,,,,,,,,,,,,,,,,,,,,,,,,,,,,,,,,,,,,,,,,,,,,
49327,1650406688.7310688,1650406688.741561,2.0,0.0,4176.922852000001,5014.358886999999,4093.8461909999996,4277.94873,4190.769043,16280.0,4.0,91.0,,,,0.0,4.0,0.0,0.0,0.0,4.0,0.0,,,,,,,,1.0,0.0,0.630797,0.6157229999999999,0.35742199999999996,-0.308594,0.813001,-0.5786220000000001,0.011231,-0.018066,-0.050138999999999996,-0.01097,,,,,,,,,,,,,,,,,,,,,,,,,,,,,,,,,,,,,,,,,,,,,,,,,,,,,,,,,,,,,,,,,
49328,1650406688.738884,1650406688.749376,3.0,0.0,4166.153809,5064.102539,4132.820313,4281.025879,4213.333496,450.0,4.0,91.0,,,,0.0,4.0,0.0,0.0,0.0,4.0,0.0,,,,,,,,,,,,,,,,,,,,,,,,,,,,,,,,,,,,,,,,,,,,,,,,,,,,,,,,,,,,,,,,,,,,,,,,,,,,,,,,,,,,
49329,1650406688.7466981,1650406688.757191,4.0,0.0,4209.230957,5071.794922,4170.256348,4284.102539,4218.461426,1.0,4.0,91.0,,,,0.0,4.0,0.0,0.0,0.0,4.0,0.0,1.0,0.0,3.0,0.0,0.0,0.0,1.0,2.0,0.0,0.630678,0.6157229999999999,0.35742199999999996,-0.308838,0.8369270000000001,-0.586435,0.001953,-0.018408,-0.050253,-0.012119,1.0,0.0,0.0,,,,,,,,,,,,,,,,,,,,,,,,,,,,,,,,10.0,0.0,1.0,0.0,512.0,1.0,19.328381,38.48172,56.383739,15.569667,6.590597,376.383179,1307.4823,1711.0605469999998,236.457916,240.912567,90.516319,411.528046,331.894104,60.12281,30.426901,0.309884,0.947098,0.815755,0.130195,0.128583,8.295507,26.90085,44.419891,8.938796,9.690515
49330,1650406688.754513,1650406688.764905,5.0,0.0,4236.410156,5231.282227000001,4269.743652,4275.897461,4257.94873,450.0,4.0,91.0,,,,0.0,4.0,0.0,0.0,0.0,4.0,0.0,,,,,,,,,,,,,,,,,,,,,,,,,,,,,,,,,,,,,,,,,,,,,,,,,,,,,,,,,,,,,,,,,,,,,,,,,,,,,,,,,,,,
49331,1650406688.762328,1650406688.7727199,6.0,0.0,4202.05127,5153.846191,4380.512695,4270.769043,4261.025879,8.0,4.0,91.0,,,,0.0,4.0,0.0,0.0,0.0,4.0,0.0,,,,,,,,3.0,0.0,0.630678,0.6157229999999999,0.35742199999999996,-0.308838,0.8217899999999999,-0.569345,0.014649,-0.01725,-0.050207999999999996,-0.013349000000000001,,,,,,,,,,,,,,,,,,,,,,,,,,,,,,,,,,,,,,,,,,,,,,,,,,,,,,,,,,,,,,,,,
49332,1650406688.770142,1650406688.7804348,7.0,0.0,4205.641113000001,4758.974121,4395.897461,4269.230957,4166.153809,450.0,4.0,91.0,,,,0.0,4.0,0.0,0.0,0.0,4.0,0.0,,,,,,,,,,,,,,,,,,,,,,,,,,,,,,,,,,,,,,,,,,,,,,,,,,,,,,,,,,,,,,,,,,,,,,,,,,,,,,,,,,,,
49333,1650406688.777957,1650406688.788249,8.0,0.0,4252.820313,4753.333496,4198.461426,4267.179688,4141.538574,450.0,4.0,91.0,,,,0.0,4.0,0.0,0.0,0.0,4.0,0.0,,,,,,,,4.0,0.0,0.630678,0.6157229999999999,0.35742199999999996,-0.308838,0.819348,-0.568368,0.011719,-0.017723,-0.050119,-0.01426,,,,,,,,,,,,,,,,,,,,,,,,,,,,,,,,,,,10.0,0.0,1.0,0.0,512.0,1.0,,,,,,,,,,,,,,,,,,,,,,,,,
49334,1650406688.7857711,1650406688.795964,9.0,0.0,4217.436035,4938.461426,4080.0,4274.871582,4158.461426,0.0,4.0,91.0,,,,0.0,4.0,0.0,0.0,0.0,4.0,0.0,,,,,,,,,,,,,,,,,,,,,,,,,,,,,,,,,,,,,,,,,,,,,,,,,,,,,,,,,,,,,,,,,,,,,,,,,,,,,,,,,,,,
49335,1650406688.793586,1650406688.803779,10.0,0.0,4194.871582,4860.512695,4103.077147999999,4281.025879,4164.615234000001,450.0,4.0,91.0,,,,0.0,4.0,0.0,0.0,0.0,4.0,0.0,,,,,,,,5.0,0.0,0.630678,0.6157229999999999,0.35742199999999996,-0.308838,0.8364389999999999,-0.571298,0.015625,-0.018197,-0.050087,-0.012004,,,,,,,,,,,,,,,,,,,,,,,,,,,,,,,,,,,,,,,,,,,,,,,,,,,,,,,,,,,,,,,,,
49336,1650406688.8014,1650406688.811493,11.0,0.0,4212.307617,4893.333496,4080.512939,4281.025879,4189.230957,16179.0,4.0,91.0,,,,0.0,4.0,0.0,0.0,0.0,4.0,0.0,,,,,,,,,,,,,,,,,,,,,,,,,,,,,,,,,,,,,,,,,,,,,,,,,,,,,,,,,,,,,,,,,,,,,,,,,,,,,,,,,,,,
49337,1650406688.809215,1650406688.819308,12.0,0.0,4213.846191,5071.282227000001,4055.384521,4283.077147999999,4211.282227000001,450.0,4.0,91.0,,,,0.0,4.0,0.0,0.0,0.0,4.0,0.0,,,,,,,,6.0,0.0,0.630797,0.6157229999999999,0.35742199999999996,-0.308594,0.81886,-0.571786,0.025879000000000003,-0.018672,-0.049962,-0.01305,,,,,,,,,,,,,,,,,,,,,,,,,,,,,,,,,,,0.0,0.0,1.0,0.0,512.0,1.0,,,,,,,,,,,,,,,,,,,,,,,,,
49338,1650406688.817029,1650406688.827023,13.0,0.0,4185.128418,5115.897461,4101.025879,4280.512695,4209.743652,450.0,4.0,91.0,,,,0.0,4.0,0.0,0.0,0.0,4.0,0.0,,,,,,,,,,,,,,,,,,,,,,,,,,,,,,,,,,,,,,,,,,,,,,,,,,,,,,,,,,,,,,,,,,,,,,,,,,,,,,,,,,,,
49339,1650406688.824844,1650406688.8349369,14.0,0.0,4214.358886999999,5080.0,4176.922852000001,4276.922852000001,4232.307617,450.0,4.0,91.0,,,,0.0,4.0,0.0,0.0,0.0,4.0,0.0,,,,,,,,7.0,0.0,0.630678,0.6157229999999999,0.35742199999999996,-0.308838,0.8291139999999999,-0.58204,0.007812999999999999,-0.019002,-0.049946,-0.014088999999999999,,,,,,,,,,,,,,,,,,,,,,,,,,,,,,,,,,,,,,,,,,,,,,,,,,,,,,,,,,,,,,,,,
49340,1650406688.832658,1650406688.842752,15.0,0.0,4260.0,5147.179688,4218.974121,4279.487305,4255.384765999999,16179.0,4.0,91.0,,,,0.0,4.0,0.0,0.0,0.0,4.0,0.0,,,,,,,,,,,,,,,,,,,,,,,,,,,,,,,,,,,,,,,,,,,,,,,,,,,,,,,,,,,,,,,,,,,,,,,,,,,,,,,,,,,,
49341,1650406688.840473,1650406688.850667,16.0,0.0,4213.333496,5161.025879,4313.333496,4280.512695,4227.179688,0.0,4.0,91.0,,,,0.0,4.0,0.0,0.0,0.0,4.0,0.0,,,,,,,,8.0,0.0,0.630678,0.6157229999999999,0.35742199999999996,-0.308838,0.81593,-0.586923,0.01709,-0.019397,-0.049932,-0.015072,,,,,,,,,,,,,,,,,,,,,,,,,,,,,,,,,,,0.0,0.0,1.0,0.0,512.0,1.0,,,,,,,,,,,,,,,,,,,,,,,,,
49342,1650406688.8482869,1650406688.8584812,17.0,0.0,4214.871582,5010.256348,4366.666504,4275.384765999999,4200.0,0.0,4.0,91.0,,,,0.0,4.0,0.0,0.0,0.0,4.0,0.0,,,,,,,,,,,,,,,,,,,,,,,,,,,,,,,,,,,,,,,,,,,,,,,,,,,,,,,,,,,,,,,,,,,,,,,,,,,,,,,,,,,,
49343,1650406688.856102,1650406688.866296,18.0,0.0,4300.512695,4962.05127,4318.974121,4271.794922,4220.512695,0.0,4.0,91.0,,,,0.0,4.0,0.0,0.0,0.0,4.0,0.0,,,,,,,,9.0,0.0,0.630578,0.615967,0.357178,-0.308838,0.8325319999999999,-0.5786220000000001,0.009766,-0.019801,-0.049968,-0.012784,,,,,,,,,,,,,,,,,,,,,,,,,,,,,,,,,,,,,,,,,,,,,,,,,,,,,,,,,,,,,,,,,
49344,1650406688.8639169,1650406688.874011,19.0,0.0,4297.436035,4961.538574,4200.512695,4272.820313,4233.846191,0.0,4.0,91.0,,,,0.0,4.0,0.0,0.0,0.0,4.0,0.0,,,,,,,,,,,,,,,,,,,,,,,,,,,,,,,,,,,,,,,,,,,,,,,,,,,,,,,,,,,,,,,,,,,,,,,,,,,,,,,,,,,,
49345,1650406688.871731,1650406688.881825,20.0,0.0,4253.846191,4794.871582,4196.410156,4274.358886999999,4201.538574,0.0,4.0,91.0,,,,0.0,4.0,0.0,0.0,0.0,4.0,0.0,,,,,,,,10.0,0.0,0.630458,0.615967,0.357178,-0.309082,0.8256959999999999,-0.572274,0.017578,-0.020066999999999998,-0.050001,-0.010578,1.0,0.0,0.0,,,,,,,,,,,,,,,,,,,,,,,,,,,,,,,,0.0,0.0,1.0,0.0,512.0,1.0,34.510544,38.686809999999994,46.450008000000004,12.735155,6.014329,507.16983,1421.8188480000001,1396.776367,223.31120299999998,227.830566,111.907455,384.636902,260.13037099999997,47.584209,25.924910999999998,0.407947,0.981667,0.625182,0.113626,0.11165699999999999,17.221907,26.219275,34.835876,8.745586,9.938528999999999
49346,1650406688.8795462,1650406688.88964,21.0,0.0,4298.974121,4664.615234000001,4168.717772999999,4277.436035,4201.538574,0.0,4.0,91.0,,,,0.0,4.0,0.0,0.0,0.0,4.0,0.0,,,,,,,,,,,,,,,,,,,,,,,,,,,,,,,,,,,,,,,,,,,,,,,,,,,,,,,,,,,,,,,,,,,,,,,,,,,,,,,,,,,,
49347,1650406688.8873599,1650406688.897455,22.0,0.0,4279.487305,4775.897461,4096.410156,4278.974121,4203.589844,0.0,4.0,91.0,,,,0.0,4.0,0.0,0.0,0.0,4.0,0.0,,,,,,,,11.0,0.0,0.630458,0.615967,0.357178,-0.309082,0.8291139999999999,-0.58204,0.015625,-0.018695,-0.049981,-0.011815,,,,,,,,,,,,,,,,,,,,,,,,,,,,,,,,,,,,,,,,,,,,,,,,,,,,,,,,,,,,,,,,,
49348,1650406688.895175,1650406688.905169,23.0,0.0,4225.128418,4770.769043,4089.743652,4280.0,4163.589844,0.0,4.0,91.0,,,,0.0,4.0,0.0,0.0,0.0,4.0,0.0,,,,,,,,,,,,,,,,,,,,,,,,,,,,,,,,,,,,,,,,,,,,,,,,,,,,,,,,,,,,,,,,,,,,,,,,,,,,,,,,,,,,
49349,1650406688.9029891,1650406688.913084,24.0,0.0,4261.538574,4730.256348,4131.794922,4277.436035,4167.692383,0.0,4.0,91.0,,,,0.0,4.0,0.0,0.0,0.0,4.0,0.0,,,,,,,,12.0,0.0,0.63032,0.615967,0.35742199999999996,-0.309082,0.816419,-0.571786,0.003418,-0.019218,-0.050012,-0.012928,,,,,,,,,,,,,,,,,,,,,,,,,,,,,,,,,,,0.0,0.0,1.0,0.0,512.0,1.0,,,,,,,,,,,,,,,,,,,,,,,,,
49350,1650406688.9108038,1650406688.920898,25.0,0.0,4267.179688,4837.436035,4096.922852000001,4280.0,4216.410156,0.0,4.0,91.0,,,,0.0,4.0,0.0,0.0,0.0,4.0,0.0,,,,,,,,,,,,,,,,,,,,,,,,,,,,,,,,,,,,,,,,,,,,,,,,,,,,,,,,,,,,,,,,,,,,,,,,,,,,,,,,,,,,
49351,1650406688.918618,1650406688.9286132,26.0,0.0,4218.974121,4761.025879,4099.487305,4284.615234000001,4173.846191,0.0,4.0,91.0,,,,0.0,4.0,0.0,0.0,0.0,4.0,0.0,,,,,,,,13.0,0.0,0.63032,0.615967,0.35742199999999996,-0.309082,0.81886,-0.570809,0.008301000000000001,-0.017931,-0.050041,-0.013881999999999999,,,,,,,,,,,,,,,,,,,,,,,,,,,,,,,,,,,,,,,,,,,,,,,,,,,,,,,,,,,,,,,,,
49352,1650406688.926433,1650406688.9364278,27.0,0.0,4231.794922,4789.230957,4100.512695,4285.128418,4172.307617,0.0,4.0,91.0,,,,0.0,4.0,0.0,0.0,0.0,4.0,0.0,,,,,,,,,,,,,,,,,,,,,,,,,,,,,,,,,,,,,,,,,,,,,,,,,,,,,,,,,,,,,,,,,,,,,,,,,,,,,,,,,,,,
49353,1650406688.934247,1650406688.944142,28.0,0.0,4193.333496,5018.974121,4083.5898439999996,4283.077147999999,4213.333496,0.0,4.0,91.0,,,,0.0,4.0,0.0,0.0,0.0,4.0,0.0,,,,,,,,14.0,0.0,0.630062,0.616211,0.357666,-0.308838,0.8364389999999999,-0.5629970000000001,0.028321,-0.016822,-0.050115,-0.014886000000000002,,,,,,,,,,,,,,,,,,,,,,,,,,,,,,,,,,,0.0,0.0,1.0,0.0,512.0,1.0,,,,,,,,,,,,,,,,,,,,,,,,,
49354,1650406688.942062,1650406688.951957,29.0,0.0,4178.974121,5154.871582,4149.230957,4280.512695,4227.179688,0.0,4.0,91.0,,,,0.0,4.0,0.0,0.0,0.0,4.0,0.0,,,,,,,,,,,,,,,,,,,,,,,,,,,,,,,,,,,,,,,,,,,,,,,,,,,,,,,,,,,,,,,,,,,,,,,,,,,,,,,,,,,,
49355,1650406688.949876,1650406688.959672,30.0,0.0,4223.077147999999,5224.102539,4224.102539,4282.05127,4254.358886999999,0.0,4.0,91.0,,,,0.0,4.0,0.0,0.0,0.0,4.0,0.0,,,,,,,,15.0,0.0,0.630162,0.615967,0.35791,-0.308838,0.8291139999999999,-0.571298,0.02002,-0.017337,-0.050133,-0.015643999999999998,,,,,,,,,,,,,,,,,,,,,,,,,,,,,,,,,,,,,,,,,,,,,,,,,,,,,,,,,,,,,,,,,
49356,1650406688.957691,1650406688.967486,31.0,0.0,4225.128418,5034.358886999999,4278.974121,4282.563965,4252.307617,0.0,4.0,91.0,,,,0.0,4.0,0.0,0.0,0.0,4.0,0.0,,,,,,,,,,,,,,,,,,,,,,,,,,,,,,,,,,,,,,,,,,,,,,,,,,,,,,,,,,,,,,,,,,,,,,,,,,,,,,,,,,,,
49357,1650406688.9655051,1650406688.975201,32.0,0.0,4248.205078,4851.282227000001,4326.153809,4274.358886999999,4226.153809,0.0,4.0,91.0,,,,0.0,4.0,0.0,0.0,0.0,4.0,0.0,,,,,,,,16.0,0.0,0.630282,0.615967,0.35791,-0.308594,0.818372,-0.568856,0.012206999999999999,-0.016238,-0.050149,-0.016374,,,,,,,,,,,,,,,,,,,,,,,,,,,,,,,,,,,0.0,0.0,1.0,0.0,512.0,1.0,,,,,,,,,,,,,,,,,,,,,,,,,
49358,1650406688.97332,1650406688.983016,33.0,0.0,4307.692383,4955.897461,4402.05127,4273.333496,4250.769043,0.0,4.0,91.0,,,,0.0,4.0,0.0,0.0,0.0,4.0,0.0,,,,,,,,,,,,,,,,,,,,,,,,,,,,,,,,,,,,,,,,,,,,,,,,,,,,,,,,,,,,,,,,,,,,,,,,,,,,,,,,,,,,
49359,1650406688.981135,1650406688.990731,34.0,0.0,4315.384765999999,4845.128418,4361.538574,4279.487305,4272.820313,0.0,4.0,91.0,,,,0.0,4.0,0.0,0.0,0.0,4.0,0.0,,,,,,,,17.0,0.0,0.630143,0.615967,0.358154,-0.308594,0.8291139999999999,-0.572274,0.018067,-0.016811000000000003,-0.050163,-0.017032,,,,,,,,,,,,,,,,,,,,,,,,,,,,,,,,,,,,,,,,,,,,,,,,,,,,,,,,,,,,,,,,,
49360,1650406688.988949,1650406688.9986448,35.0,0.0,4293.846191,4560.512695,4258.461426,4275.384765999999,4230.769043,0.0,4.0,91.0,,,,0.0,4.0,0.0,0.0,0.0,4.0,0.0,,,,,,,,,,,,,,,,,,,,,,,,,,,,,,,,,,,,,,,,,,,,,,,,,,,,,,,,,,,,,,,,,,,,,,,,,,,,,,,,,,,,
49361,1650406688.996764,1650406689.00646,36.0,0.0,4287.179688,4653.846191,4143.077147999999,4274.358886999999,4205.128418,0.0,4.0,91.0,,,,0.0,4.0,0.0,0.0,0.0,4.0,0.0,,,,,,,,18.0,0.0,0.630263,0.615967,0.358154,-0.30835,0.8330209999999999,-0.5927819999999999,0.019532,-0.017327000000000002,-0.050127,-0.014644999999999998,1.0,0.0,0.0,,,,,,,,,,,,,,,,,,,,,,,,,,,,,,,,0.0,0.0,1.0,0.0,512.0,1.0,69.815308,35.786118,36.279812,9.850928,5.397169,646.6882929999999,1420.655029,1111.3713380000002,206.316574,212.88847400000003,126.40846299999998,337.81933599999996,200.427231,35.340225,21.558783,0.584856,0.923464,0.47214799999999996,0.095691,0.096636,43.303921,23.990157999999997,27.516529,8.37058,9.976228
49362,1650406689.0045779,1650406689.014374,37.0,0.0,4242.05127,4763.077147999999,4140.512695,4284.615234000001,4191.282227000001,0.0,4.0,91.0,,,,0.0,4.0,0.0,0.0,0.0,4.0,0.0,,,,,,,,,,,,,,,,,,,,,,,,,,,,,,,,,,,,,,,,,,,,,,,,,,,,,,,,,,,,,,,,,,,,,,,,,,,,,,,,,,,,
49363,1650406689.012393,1650406689.0221891,38.0,0.0,4218.974121,4660.512695,4127.179688,4287.179688,4191.282227000001,0.0,4.0,91.0,,,,0.0,4.0,0.0,0.0,0.0,4.0,0.0,,,,,,,,19.0,0.0,0.630263,0.615967,0.358154,-0.30835,0.8325319999999999,-0.579599,0.023438,-0.017841,-0.050144,-0.015524000000000001,,,,,,,,,,,,,,,,,,,,,,,,,,,,,,,,,,,,,,,,,,,,,,,,,,,,,,,,,,,,,,,,,
49364,1650406689.020207,1650406689.030103,39.0,0.0,4225.128418,4757.94873,4102.05127,4283.077147999999,4196.410156,0.0,4.0,91.0,,,,0.0,4.0,0.0,0.0,0.0,4.0,0.0,,,,,,,,,,,,,,,,,,,,,,,,,,,,,,,,,,,,,,,,,,,,,,,,,,,,,,,,,,,,,,,,,,,,,,,,,,,,,,,,,,,,
49365,1650406689.028022,1650406689.0379179,40.0,0.0,4261.025879,4941.538574,4091.794922,4286.666504,4246.153809,0.0,4.0,91.0,,,,0.0,4.0,0.0,0.0,0.0,4.0,0.0,,,,,,,,20.0,0.0,0.630024,0.616211,0.358154,-0.30835,0.813001,-0.579599,0.018555000000000002,-0.018401,-0.05011,-0.013191,,,,,,,,,,,,,,,,,,,,,,,,,,,,,,,,,,,0.0,0.0,1.0,0.0,512.0,1.0,,,,,,,,,,,,,,,,,,,,,,,,,
49366,1650406689.035836,1650406689.045833,41.0,0.0,4262.563965,5050.256348,4139.487305,4287.692383,4301.538574,0.0,4.0,91.0,,,,0.0,4.0,0.0,0.0,0.0,4.0,0.0,,,,,,,,,,,,,,,,,,,,,,,,,,,,,,,,,,,,,,,,,,,,,,,,,,,,,,,,,,,,,,,,,,,,,,,,,,,,,,,,,,,,
49367,1650406689.0436509,1650406689.053647,42.0,0.0,4249.743652,5069.230957,4188.717772999999,4282.05127,4295.384765999999,0.0,4.0,91.0,,,,0.0,4.0,0.0,0.0,0.0,4.0,0.0,,,,,,,,21.0,0.0,0.630163,0.616211,0.35791,-0.30835,0.811048,-0.5815520000000001,0.016114,-0.017244,-0.050177,-0.014118,,,,,,,,,,,,,,,,,,,,,,,,,,,,,,,,,,,,,,,,,,,,,,,,,,,,,,,,,,,,,,,,,
49368,1650406689.051465,1650406689.0615618,43.0,0.0,4283.077147999999,5044.615234000001,4242.563965,4276.410156,4257.94873,0.0,4.0,91.0,,,,0.0,4.0,0.0,0.0,0.0,4.0,0.0,,,,,,,,,,,,,,,,,,,,,,,,,,,,,,,,,,,,,,,,,,,,,,,,,,,,,,,,,,,,,,,,,,,,,,,,,,,,,,,,,,,,
49369,1650406689.0592802,1650406689.069377,44.0,0.0,4309.743652,4966.153809,4318.461426,4277.436035,4266.666504,0.0,4.0,91.0,,,,0.0,4.0,0.0,0.0,0.0,4.0,0.0,,,,,,,,22.0,0.0,0.630163,0.616211,0.35791,-0.30835,0.818372,-0.573739,0.015625,-0.017815,-0.050091000000000004,-0.011826999999999999,,,,,,,,,,,,,,,,,,,,,,,,,,,,,,,,,,,0.0,0.0,1.0,0.0,512.0,1.0,,,,,,,,,,,,,,,,,,,,,,,,,
49370,1650406689.0670938,1650406689.077291,45.0,0.0,4282.05127,4621.538574,4340.0,4277.436035,4238.461426,0.0,4.0,91.0,,,,0.0,4.0,0.0,0.0,0.0,4.0,0.0,,,,,,,,,,,,,,,,,,,,,,,,,,,,,,,,,,,,,,,,,,,,,,,,,,,,,,,,,,,,,,,,,,,,,,,,,,,,,,,,,,,,
49371,1650406689.074909,1650406689.0851061,46.0,0.0,4297.436035,4420.512695,4236.922852000001,4274.871582,4203.589844,0.0,4.0,91.0,,,,0.0,4.0,0.0,0.0,0.0,4.0,0.0,,,,,,,,23.0,0.0,0.630282,0.616211,0.35791,-0.308105,0.8213020000000001,-0.583505,0.021485,-0.016814,-0.050112000000000004,-0.009912,,,,,,,,,,,,,,,,,,,,,,,,,,,,,,,,,,,,,,,,,,,,,,,,,,,,,,,,,,,,,,,,,
49372,1650406689.082724,1650406689.09282,47.0,0.0,4316.922852000001,4630.769043,4089.743652,4276.922852000001,4229.230957,0.0,4.0,91.0,,,,0.0,4.0,0.0,0.0,0.0,4.0,0.0,,,,,,,,,,,,,,,,,,,,,,,,,,,,,,,,,,,,,,,,,,,,,,,,,,,,,,,,,,,,,,,,,,,,,,,,,,,,,,,,,,,,
49373,1650406689.090538,1650406689.100635,48.0,0.0,4282.563965,4677.94873,4108.717772999999,4282.05127,4227.179688,0.0,4.0,91.0,,,,0.0,4.0,0.0,0.0,0.0,4.0,0.0,,,,,,,,24.0,0.0,0.630282,0.616211,0.35791,-0.308105,0.81593,-0.576181,0.023926,-0.015816999999999998,-0.05013,-0.011216,,,,,,,,,,,,,,,,,,,,,,,,,,,,,,,,,,,0.0,0.0,1.0,0.0,512.0,1.0,,,,,,,,,,,,,,,,,,,,,,,,,
49374,1650406689.098353,1650406689.10835,49.0,0.0,4299.487305,4532.307617,4125.128418,4282.563965,4217.436035,0.0,4.0,91.0,,,,0.0,4.0,0.0,0.0,0.0,4.0,0.0,,,,,,,,,,,,,,,,,,,,,,,,,,,,,,,,,,,,,,,,,,,,,,,,,,,,,,,,,,,,,,,,,,,,,,,,,,,,,,,,,,,,
49375,1650406689.106167,1650406689.116164,50.0,0.0,4316.922852000001,4681.538574,4110.769043,4282.05127,4256.922852000001,0.0,4.0,91.0,,,,0.0,4.0,0.0,0.0,0.0,4.0,0.0,,,,,,,,25.0,0.0,0.630282,0.616211,0.35791,-0.308105,0.823743,-0.588388,0.030762,-0.016481,-0.050195,-0.01234,,,,,,,,,,,,,,,,,,,,,,,,,,,,,,,,,,,,,,,,,,,,,,,,,,,,,,,,,,,,,,,,,
49376,1650406689.113982,1650406689.123879,51.0,0.0,4296.922852000001,4666.153809,4120.512695,4285.641113000001,4256.922852000001,0.0,4.0,91.0,,,,0.0,4.0,0.0,0.0,0.0,4.0,0.0,,,,,,,,,,,,,,,,,,,,,,,,,,,,,,,,,,,,,,,,,,,,,,,,,,,,,,,,,,,,,,,,,,,,,,,,,,,,,,,,,,,,
49377,1650406689.1217961,1650406689.1316938,52.0,0.0,4299.487305,4522.563965,4123.589844,4282.563965,4221.025879,0.0,4.0,91.0,,,,0.0,4.0,0.0,0.0,0.0,4.0,0.0,,,,,,,,26.0,0.0,0.630282,0.616211,0.35791,-0.308105,0.8213020000000001,-0.583505,0.021485,-0.015565,-0.050254,-0.013548,1.0,0.0,0.0,,,,,,,,,,,,,,,,,,,,,,,,,,,,,,,,0.0,0.0,1.0,0.0,512.0,1.0,130.804276,31.031065,27.194934999999997,7.454366,4.833903,765.744324,1305.032959,871.373535,187.054565,193.567017,130.77796899999998,281.432648,153.308823,26.441568,18.060036,0.852615,0.801227,0.363795,0.083316,0.08594500000000001,91.720795,21.093801000000003,23.321363,7.831875,9.598207
49378,1650406689.129611,1650406689.139409,53.0,0.0,4282.563965,4668.205078,4111.282227000001,4281.538574,4222.563965,0.0,4.0,91.0,,,,0.0,4.0,0.0,0.0,0.0,4.0,0.0,,,,,,,,,,,,,,,,,,,,,,,,,,,,,,,,,,,,,,,,,,,,,,,,,,,,,,,,,,,,,,,,,,,,,,,,,,,,,,,,,,,,
49379,1650406689.137425,1650406689.147223,54.0,0.0,4251.794922,4815.384765999999,4166.666504,4285.128418,4226.666504,0.0,4.0,91.0,,,,0.0,4.0,0.0,0.0,0.0,4.0,0.0,,,,,,,,27.0,0.0,0.630282,0.616211,0.35791,-0.308105,0.823743,-0.588388,0.030762,-0.016255000000000002,-0.050307,-0.014438999999999999,,,,,,,,,,,,,,,,,,,,,,,,,,,,,,,,,,,,,,,,,,,,,,,,,,,,,,,,,,,,,,,,,
49380,1650406689.14524,1650406689.154938,55.0,0.0,4275.384765999999,4815.897461,4174.358886999999,4289.230957,4232.307617,0.0,4.0,91.0,,,,0.0,4.0,0.0,0.0,0.0,4.0,0.0,,,,,,,,,,,,,,,,,,,,,,,,,,,,,,,,,,,,,,,,,,,,,,,,,,,,,,,,,,,,,,,,,,,,,,,,,,,,,,,,,,,,
49381,1650406689.153054,1650406689.1627529,56.0,0.0,4319.487305,4721.025879,4135.897461,4289.743652,4238.974121,0.0,4.0,91.0,,,,0.0,4.0,0.0,0.0,0.0,4.0,0.0,,,,,,,,28.0,0.0,0.630043,0.616455,0.35791,-0.308105,0.826673,-0.59913,0.025391,-0.016876,-0.050354,-0.01236,,,,,,,,,,,,,,,,,,,,,,,,,,,,,,,,,,,0.0,0.0,1.0,0.0,512.0,1.0,,,,,,,,,,,,,,,,,,,,,,,,,
49382,1650406689.160869,1650406689.170467,57.0,0.0,4327.179688,4769.743652,4086.6667479999996,4287.179688,4271.794922,0.0,4.0,91.0,,,,0.0,4.0,0.0,0.0,0.0,4.0,0.0,,,,,,,,,,,,,,,,,,,,,,,,,,,,,,,,,,,,,,,,,,,,,,,,,,,,,,,,,,,,,,,,,,,,,,,,,,,,,,,,,,,,
49383,1650406689.168683,1650406689.178382,58.0,0.0,4271.794922,4768.717772999999,4072.820557,4287.179688,4227.179688,0.0,4.0,91.0,,,,0.0,4.0,0.0,0.0,0.0,4.0,0.0,,,,,,,,29.0,0.0,0.630163,0.616455,0.35791,-0.307861,0.8247200000000001,-0.60206,0.025391,-0.017385,-0.050495,-0.013419,,,,,,,,,,,,,,,,,,,,,,,,,,,,,,,,,,,,,,,,,,,,,,,,,,,,,,,,,,,,,,,,,
49384,1650406689.176498,1650406689.186197,59.0,0.0,4263.589844,4673.333496,4073.3332520000004,4286.666504,4191.794922,0.0,4.0,91.0,,,,0.0,4.0,0.0,0.0,0.0,4.0,0.0,,,,,,,,,,,,,,,,,,,,,,,,,,,,,,,,,,,,,,,,,,,,,,,,,,,,,,,,,,,,,,,,,,,,,,,,,,,,,,,,,,,,
49385,1650406689.1843119,1650406689.1941109,60.0,0.0,4268.205078,4774.871582,4061.538574,4286.153809,4220.512695,0.0,4.0,91.0,,,,0.0,4.0,0.0,0.0,0.0,4.0,0.0,,,,,,,,30.0,0.0,0.630301,0.616455,0.357666,-0.307861,0.8222780000000001,-0.583505,0.014159999999999999,-0.017844,-0.050377,-0.011295999999999999,,,,,,,,,,,,,,,,,,,,,,,,,,,,,,,,,,,0.0,0.0,1.0,0.0,512.0,1.0,,,,,,,,,,,,,,,,,,,,,,,,,
49386,1650406689.192127,1650406689.201926,61.0,0.0,4264.102539,4934.871582,4024.102539,4284.615234000001,4253.333496,0.0,4.0,91.0,,,,0.0,4.0,0.0,0.0,0.0,4.0,0.0,,,,,,,,,,,,,,,,,,,,,,,,,,,,,,,,,,,,,,,,,,,,,,,,,,,,,,,,,,,,,,,,,,,,,,,,,,,,,,,,,,,,
49387,1650406689.1999419,1650406689.20984,62.0,0.0,4282.563965,4863.589844,4025.641113,4287.179688,4253.333496,0.0,4.0,91.0,,,,0.0,4.0,0.0,0.0,0.0,4.0,0.0,,,,,,,,31.0,0.0,0.630182,0.616455,0.357666,-0.308105,0.8169069999999999,-0.57911,0.025879000000000003,-0.018257,-0.050369,-0.012412999999999999,,,,,,,,,,,,,,,,,,,,,,,,,,,,,,,,,,,,,,,,,,,,,,,,,,,,,,,,,,,,,,,,,
49388,1650406689.207756,1650406689.2176552,63.0,0.0,4310.769043,4693.333496,4103.077147999999,4288.205078,4236.922852000001,0.0,4.0,91.0,,,,0.0,4.0,0.0,0.0,0.0,4.0,0.0,,,,,,,,,,,,,,,,,,,,,,,,,,,,,,,,,,,,,,,,,,,,,,,,,,,,,,,,,,,,,,,,,,,,,,,,,,,,,,,,,,,,
49389,1650406689.2155712,1650406689.2254698,64.0,0.0,4290.769043,4794.358886999999,4114.871582,4284.615234000001,4230.256348,450.0,4.0,91.0,,,,0.0,4.0,0.0,0.0,0.0,4.0,0.0,,,,,,,,32.0,0.0,0.630182,0.616455,0.357666,-0.308105,0.808606,-0.585946,0.02295,-0.018629,-0.05041,-0.013416999999999998,,,,,,,,,,,,,,,,,,,,,,,,,,,,,,,,,,,0.0,0.0,1.0,0.0,512.0,1.0,,,,,,,,,,,,,,,,,,,,,,,,,
49390,1650406689.2233849,1650406689.233184,65.0,0.0,4274.871582,4916.922852000001,4123.589844,4284.615234000001,4246.153809,450.0,4.0,91.0,,,,0.0,4.0,0.0,0.0,0.0,4.0,0.0,,,,,,,,,,,,,,,,,,,,,,,,,,,,,,,,,,,,,,,,,,,,,,,,,,,,,,,,,,,,,,,,,,,,,,,,,,,,,,,,,,,,
49391,1650406689.2312,1650406689.241099,66.0,0.0,4297.436035,4827.179688,4109.743652,4287.179688,4259.487305,16257.0,4.0,91.0,,,,0.0,4.0,0.0,0.0,0.0,4.0,0.0,,,,,,,,33.0,0.0,0.630182,0.616455,0.357666,-0.308105,0.818372,-0.591318,0.016114,-0.017547,-0.050447000000000006,-0.011197,,,,,,,,,,,,,,,,,,,,,,,,,,,,,,,,,,,,,,,,,,,,,,,,,,,,,,,,,,,,,,,,,
49392,1650406689.2390141,1650406689.248914,67.0,0.0,4288.205078,4723.589844,4102.05127,4285.128418,4210.769043,450.0,4.0,91.0,,,,0.0,4.0,0.0,0.0,0.0,4.0,0.0,,,,,,,,,,,,,,,,,,,,,,,,,,,,,,,,,,,,,,,,,,,,,,,,,,,,,,,,,,,,,,,,,,,,,,,,,,,,,,,,,,,,
49393,1650406689.2468288,1650406689.2568278,68.0,0.0,4283.077147999999,4827.692383,4078.974365,4283.589844,4230.256348,0.0,4.0,91.0,,,,0.0,4.0,0.0,0.0,0.0,4.0,0.0,1.0,0.0,3.0,0.0,0.0,0.0,1.0,34.0,0.0,0.630182,0.616455,0.357666,-0.308105,0.812024,-0.576181,0.018067,-0.018038,-0.050383,-0.009198,1.0,0.0,0.0,,,,,,,,,,,,,,,,,,,,,,,,,,,,,,,,0.0,0.0,1.0,0.0,512.0,1.0,210.568939,26.06222,20.092163,5.73068,4.430238,833.277466,1112.1015630000002,673.5310059999999,165.649017,169.557648,124.34295700000001,231.91131600000003,119.50425700000001,22.008748999999998,15.96478,1.168776,0.66233,0.29526199999999997,0.080055,0.080286,157.18396,18.543398,22.072998000000002,7.15525,8.714497
49394,1650406689.254643,1650406689.264643,69.0,0.0,4293.846191,4861.025879,4155.384765999999,4288.205078,4276.410156,450.0,4.0,91.0,,,,0.0,4.0,0.0,0.0,0.0,4.0,0.0,,,,,,,,,,,,,,,,,,,,,,,,,,,,,,,,,,,,,,,,,,,,,,,,,,,,,,,,,,,,,,,,,,,,,,,,,,,,,,,,,,,,
49395,1650406689.262458,1650406689.272557,70.0,0.0,4300.0,4823.589844,4180.0,4289.230957,4292.307617,1.0,4.0,91.0,,,,0.0,4.0,0.0,0.0,0.0,4.0,0.0,,,,,,,,35.0,0.0,0.630043,0.616455,0.35791,-0.308105,0.820325,-0.585458,0.0058590000000000005,-0.018481,-0.050325,-0.010622,,,,,,,,,,,,,,,,,,,,,,,,,,,,,,,,,,,,,,,,,,,,,,,,,,,,,,,,,,,,,,,,,
49396,1650406689.270272,1650406689.2803721,71.0,0.0,4253.846191,4887.692383,4198.461426,4285.641113000001,4276.922852000001,450.0,4.0,91.0,,,,0.0,4.0,0.0,0.0,0.0,4.0,0.0,,,,,,,,,,,,,,,,,,,,,,,,,,,,,,,,,,,,,,,,,,,,,,,,,,,,,,,,,,,,,,,,,,,,,,,,,,,,,,,,,,,,
49397,1650406689.278087,1650406689.288087,72.0,0.0,4257.436035,4982.05127,4227.179688,4283.589844,4277.94873,450.0,4.0,91.0,,,,0.0,4.0,0.0,0.0,0.0,4.0,0.0,,,,,,,,36.0,0.0,0.630043,0.616455,0.35791,-0.308105,0.819837,-0.581064,0.014159999999999999,-0.017315999999999998,-0.050322000000000006,-0.011904000000000001,,,,,,,,,,,,,,,,,,,,,,,,,,,,,,,,,,,0.0,0.0,1.0,0.0,512.0,1.0,,,,,,,,,,,,,,,,,,,,,,,,,
49398,1650406689.285901,1650406689.295901,73.0,0.0,4293.333496,5011.794922,4273.333496,4284.615234000001,4294.871582,0.0,4.0,91.0,,,,0.0,4.0,0.0,0.0,0.0,4.0,0.0,,,,,,,,,,,,,,,,,,,,,,,,,,,,,,,,,,,,,,,,,,,,,,,,,,,,,,,,,,,,,,,,,,,,,,,,,,,,,,,,,,,,
49399,1650406689.293716,1650406689.303816,74.0,0.0,4320.512695,5002.563965,4293.333496,4283.589844,4313.333496,450.0,4.0,91.0,,,,0.0,4.0,0.0,0.0,0.0,4.0,0.0,,,,,,,,37.0,0.0,0.630163,0.616211,0.35791,-0.30835,0.815442,-0.5771569999999999,0.029297000000000004,-0.017733000000000002,-0.05027,-0.009834,,,,,,,,,,,,,,,,,,,,,,,,,,,,,,,,,,,,,,,,,,,,,,,,,,,,,,,,,,,,,,,,,
49400,1650406689.3015301,1650406689.3117301,75.0,0.0,4283.077147999999,5147.692383,4250.256348,4284.102539,4328.205078,16189.0,4.0,91.0,,,,0.0,4.0,0.0,0.0,0.0,4.0,0.0,,,,,,,,,,,,,,,,,,,,,,,,,,,,,,,,,,,,,,,,,,,,,,,,,,,,,,,,,,,,,,,,,,,,,,,,,,,,,,,,,,,,
49401,1650406689.309345,1650406689.319545,76.0,0.0,4294.871582,4981.538574,4287.179688,4286.666504,4319.487305,450.0,4.0,91.0,,,,0.0,4.0,0.0,0.0,0.0,4.0,0.0,,,,,,,,38.0,0.0,0.630163,0.616211,0.35791,-0.30835,0.820325,-0.579599,0.020508000000000002,-0.016546,-0.050322000000000006,-0.011195,,,,,,,,,,,,,,,,,,,,,,,,,,,,,,,,,,,0.0,0.0,1.0,0.0,512.0,1.0,,,,,,,,,,,,,,,,,,,,,,,,,
49402,1650406689.31716,1650406689.32736,77.0,0.0,4389.230957,4745.128418,4359.487305,4277.436035,4309.230957,450.0,4.0,91.0,,,,0.0,4.0,0.0,0.0,0.0,4.0,0.0,,,,,,,,,,,,,,,,,,,,,,,,,,,,,,,,,,,,,,,,,,,,,,,,,,,,,,,,,,,,,,,,,,,,,,,,,,,,,,,,,,,,
49403,1650406689.324974,1650406689.335074,78.0,0.0,4380.0,4836.410156,4302.563965,4274.358886999999,4296.922852000001,450.0,4.0,91.0,,,,0.0,4.0,0.0,0.0,0.0,4.0,0.0,,,,,,,,39.0,0.0,0.630163,0.616211,0.35791,-0.30835,0.8222780000000001,-0.576181,0.024903,-0.015624,-0.050319,-0.012320999999999999,,,,,,,,,,,,,,,,,,,,,,,,,,,,,,,,,,,,,,,,,,,,,,,,,,,,,,,,,,,,,,,,,
49404,1650406689.332789,1650406689.342889,79.0,0.0,4334.871582,4696.410156,4156.410156,4276.922852000001,4257.436035,16189.0,4.0,91.0,,,,0.0,4.0,0.0,0.0,0.0,4.0,0.0,,,,,,,,,,,,,,,,,,,,,,,,,,,,,,,,,,,,,,,,,,,,,,,,,,,,,,,,,,,,,,,,,,,,,,,,,,,,,,,,,,,,
49405,1650406689.3406029,1650406689.3506038,80.0,0.0,4366.666504,4513.333496,4045.641113,4274.871582,4246.153809,450.0,4.0,91.0,,,,0.0,4.0,0.0,0.0,0.0,4.0,0.0,,,,,,,,40.0,0.0,0.630163,0.616211,0.35791,-0.30835,0.8281379999999999,-0.58497,0.026368,-0.01621,-0.050316,-0.013433,,,,,,,,,,,,,,,,,,,,,,,,,,,,,,,,,,,0.0,0.0,1.0,0.0,512.0,1.0,,,,,,,,,,,,,,,,,,,,,,,,,
49406,1650406689.348418,1650406689.358419,81.0,0.0,4369.743652,4562.563965,4041.538574,4277.94873,4240.512695,450.0,4.0,91.0,,,,0.0,4.0,0.0,0.0,0.0,4.0,0.0,,,,,,,,,,,,,,,,,,,,,,,,,,,,,,,,,,,,,,,,,,,,,,,,,,,,,,,,,,,,,,,,,,,,,,,,,,,,,,,,,,,,
49407,1650406689.356232,1650406689.366133,82.0,0.0,4311.282227000001,4597.436035,4149.743652,4281.538574,4221.025879,450.0,4.0,91.0,,,,0.0,4.0,0.0,0.0,0.0,4.0,0.0,,,,,,,,41.0,0.0,0.630163,0.616211,0.35791,-0.30835,0.8222780000000001,-0.570809,0.025391,-0.016933,-0.050363,-0.011308,,,,,,,,,,,,,,,,,,,,,,,,,,,,,,,,,,,,,,,,,,,,,,,,,,,,,,,,,,,,,,,,,
49408,1650406689.364047,1650406689.373948,83.0,0.0,4284.615234000001,4540.512695,4154.871582,4280.512695,4195.897461,16189.0,4.0,91.0,,,,0.0,4.0,0.0,0.0,0.0,4.0,0.0,,,,,,,,,,,,,,,,,,,,,,,,,,,,,,,,,,,,,,,,,,,,,,,,,,,,,,,,,,,,,,,,,,,,,,,,,,,,,,,,,,,,
49409,1650406689.371861,1650406689.381663,84.0,0.0,4287.179688,4667.179688,4081.538574,4284.102539,4193.333496,450.0,4.0,91.0,,,,0.0,4.0,0.0,0.0,0.0,4.0,0.0,,,,,,,,42.0,0.0,0.630043,0.616211,0.35791,-0.308594,0.8256959999999999,-0.575692,0.024903,-0.017437,-0.050258,-0.012473,1.0,0.0,0.0,,,,,,,,,,,,,,,,,,,,,,,,,,,,,,,,0.0,0.0,1.0,0.0,512.0,1.0,290.578583,22.467907,15.434876000000001,4.622783999999999,4.210876,833.760437,912.750122,514.317932,143.246445,143.37666299999998,111.442101,205.85339399999998,101.094673,21.379719,15.169964000000002,1.445051,0.556838,0.257658,0.08393099999999999,0.078304,224.238693,17.131912,22.779413,6.486623000000001,7.421696000000001
49410,1650406689.3796759,1650406689.389577,85.0,0.0,4298.461426,4783.589844,4092.820557,4291.282227000001,4237.436035,450.0,4.0,91.0,,,,0.0,4.0,0.0,0.0,0.0,4.0,0.0,,,,,,,,,,,,,,,,,,,,,,,,,,,,,,,,,,,,,,,,,,,,,,,,,,,,,,,,,,,,,,,,,,,,,,,,,,,,,,,,,,,,
49411,1650406689.38749,1650406689.397392,86.0,0.0,4298.461426,4726.666504,4204.102539,4289.230957,4243.077147999999,450.0,4.0,91.0,,,,0.0,4.0,0.0,0.0,0.0,4.0,0.0,,,,,,,,43.0,0.0,0.630043,0.616211,0.35791,-0.308594,0.8208129999999999,-0.578134,0.027344,-0.017841,-0.050262,-0.013569,,,,,,,,,,,,,,,,,,,,,,,,,,,,,,,,,,,,,,,,,,,,,,,,,,,,,,,,,,,,,,,,,
49412,1650406689.3953052,1650406689.405206,87.0,0.0,4273.333496,4817.436035,4184.102539,4286.666504,4250.256348,16189.0,4.0,91.0,,,,0.0,4.0,0.0,0.0,0.0,4.0,0.0,,,,,,,,,,,,,,,,,,,,,,,,,,,,,,,,,,,,,,,,,,,,,,,,,,,,,,,,,,,,,,,,,,,,,,,,,,,,,,,,,,,,
49413,1650406689.4031188,1650406689.4129212,88.0,0.0,4275.384765999999,4865.128418,4226.666504,4286.666504,4272.307617,450.0,4.0,91.0,,,,0.0,4.0,0.0,0.0,0.0,4.0,0.0,,,,,,,,44.0,0.0,0.630162,0.615967,0.35791,-0.308838,0.81886,-0.577646,0.0058590000000000005,-0.018206,-0.050363,-0.014458000000000002,,,,,,,,,,,,,,,,,,,,,,,,,,,,,,,,,,,0.0,0.0,1.0,0.0,512.0,1.0,,,,,,,,,,,,,,,,,,,,,,,,,
49414,1650406689.410934,1650406689.420836,89.0,0.0,4308.205078,4958.461426,4263.589844,4284.615234000001,4312.307617,450.0,4.0,91.0,,,,0.0,4.0,0.0,0.0,0.0,4.0,0.0,,,,,,,,,,,,,,,,,,,,,,,,,,,,,,,,,,,,,,,,,,,,,,,,,,,,,,,,,,,,,,,,,,,,,,,,,,,,,,,,,,,,
49415,1650406689.418749,1650406689.42865,90.0,0.0,4267.692383,5023.589844,4256.922852000001,4285.128418,4292.307617,450.0,4.0,91.0,,,,0.0,4.0,0.0,0.0,0.0,4.0,0.0,,,,,,,,45.0,0.0,0.630301,0.615967,0.357666,-0.308838,0.8222780000000001,-0.5771569999999999,0.021485,-0.018631,-0.050307,-0.015307,,,,,,,,,,,,,,,,,,,,,,,,,,,,,,,,,,,,,,,,,,,,,,,,,,,,,,,,,,,,,,,,,
49416,1650406689.426563,1650406689.436565,91.0,0.0,4290.769043,4900.0,4295.384765999999,4282.05127,4284.615234000001,16189.0,4.0,91.0,,,,0.0,4.0,0.0,0.0,0.0,4.0,0.0,,,,,,,,,,,,,,,,,,,,,,,,,,,,,,,,,,,,,,,,,,,,,,,,,,,,,,,,,,,,,,,,,,,,,,,,,,,,,,,,,,,,
49417,1650406689.434378,1650406689.44438,92.0,0.0,4324.102539,5062.05127,4271.282227000001,4280.0,4338.974121,450.0,4.0,91.0,,,,0.0,4.0,0.0,0.0,0.0,4.0,0.0,,,,,,,,46.0,0.0,0.630301,0.615967,0.357666,-0.308838,0.8281379999999999,-0.569345,0.019043,-0.017403000000000002,-0.050354,-0.012898,,,,,,,,,,,,,,,,,,,,,,,,,,,,,,,,,,,0.0,0.0,1.0,0.0,512.0,1.0,,,,,,,,,,,,,,,,,,,,,,,,,
49418,1650406689.442192,1650406689.4522939,93.0,0.0,4290.769043,5011.282227000001,4301.538574,4285.128418,4329.743652,450.0,4.0,91.0,,,,0.0,4.0,0.0,0.0,0.0,4.0,0.0,,,,,,,,,,,,,,,,,,,,,,,,,,,,,,,,,,,,,,,,,,,,,,,,,,,,,,,,,,,,,,,,,,,,,,,,,,,,,,,,,,,,
49419,1650406689.450007,1650406689.460109,94.0,0.0,4330.256348,4428.717772999999,4336.922852000001,4277.94873,4253.846191,450.0,4.0,91.0,,,,0.0,4.0,0.0,0.0,0.0,4.0,0.0,,,,,,,,47.0,0.0,0.630162,0.615967,0.35791,-0.308838,0.839368,-0.570321,0.008301000000000001,-0.01786,-0.050397000000000004,-0.010729,,,,,,,,,,,,,,,,,,,,,,,,,,,,,,,,,,,,,,,,,,,,,,,,,,,,,,,,,,,,,,,,,
49420,1650406689.4578211,1650406689.4679232,95.0,0.0,4388.717772999999,4283.589844,4153.846191,4269.230957,4227.179688,16189.0,4.0,91.0,,,,0.0,4.0,0.0,0.0,0.0,4.0,0.0,,,,,,,,,,,,,,,,,,,,,,,,,,,,,,,,,,,,,,,,,,,,,,,,,,,,,,,,,,,,,,,,,,,,,,,,,,,,,,,,,,,,
49421,1650406689.465636,1650406689.475738,96.0,0.0,4348.205078,4589.743652,3966.6667479999996,4280.0,4231.794922,450.0,4.0,91.0,,,,0.0,4.0,0.0,0.0,0.0,4.0,0.0,,,,,,,,48.0,0.0,0.630181,0.615967,0.357666,-0.309082,0.828626,-0.583505,0.013184,-0.018271000000000003,-0.050387,-0.012048999999999999,,,,,,,,,,,,,,,,,,,,,,,,,,,,,,,,,,,0.0,0.0,1.0,0.0,512.0,1.0,,,,,,,,,,,,,,,,,,,,,,,,,
49422,1650406689.47345,1650406689.4836528,97.0,0.0,4312.307617,4571.282227000001,4087.179443,4287.692383,4210.256348,450.0,4.0,91.0,,,,0.0,4.0,0.0,0.0,0.0,4.0,0.0,,,,,,,,,,,,,,,,,,,,,,,,,,,,,,,,,,,,,,,,,,,,,,,,,,,,,,,,,,,,,,,,,,,,,,,,,,,,,,,,,,,,
49423,1650406689.481265,1650406689.491467,98.0,0.0,4315.384765999999,4476.922852000001,4143.077147999999,4283.077147999999,4194.871582,450.0,4.0,91.0,,,,0.0,4.0,0.0,0.0,0.0,4.0,0.0,,,,,,,,49.0,0.0,0.630181,0.615967,0.357666,-0.309082,0.8222780000000001,-0.58204,0.029786,-0.018593000000000002,-0.050378,-0.010014,,,,,,,,,,,,,,,,,,,,,,,,,,,,,,,,,,,,,,,,,,,,,,,,,,,,,,,,,,,,,,,,,
49424,1650406689.489079,1650406689.499382,99.0,0.0,4292.820313,4630.769043,4057.9487299999996,4285.128418,4195.897461,16189.0,4.0,91.0,,,,0.0,4.0,0.0,0.0,0.0,4.0,0.0,,,,,,,,,,,,,,,,,,,,,,,,,,,,,,,,,,,,,,,,,,,,,,,,,,,,,,,,,,,,,,,,,,,,,,,,,,,,,,,,,,,,
49425,1650406689.496894,1650406689.5071962,100.0,0.0,4303.589844,4750.256348,4103.589844,4291.282227000001,4233.333496,450.0,4.0,91.0,,,,0.0,4.0,0.0,0.0,0.0,4.0,0.0,,,,,,,,50.0,0.0,0.630061,0.615967,0.357666,-0.30932600000000005,0.816419,-0.580575,0.007324,-0.017466,-0.050418,-0.008182,1.0,0.0,0.0,,,,,,,,,,,,,,,,,,,,,,,,,,,,,,,,0.0,0.0,1.0,0.0,512.0,1.0,346.19570899999997,21.059510999999997,12.891435000000001,4.006443,4.132249,771.433899,774.614136,396.539368,124.68186999999999,119.35693400000001,96.97686800000001,208.159454,97.321701,23.014389,14.985577,1.578229,0.509662,0.239738,0.091313,0.077477,272.126617,17.216444,24.120384,6.029053,6.000116
49426,1650406689.504708,1650406689.515111,101.0,0.0,4289.230957,4812.820313,4289.230957,4287.692383,4262.563965,450.0,4.0,91.0,,,,0.0,4.0,0.0,0.0,0.0,4.0,0.0,,,,,,,,,,,,,,,,,,,,,,,,,,,,,,,,,,,,,,,,,,,,,,,,,,,,,,,,,,,,,,,,,,,,,,,,,,,,,,,,,,,,
49427,1650406689.512523,1650406689.522926,102.0,0.0,4275.384765999999,4873.846191,4328.205078,4283.589844,4260.0,450.0,4.0,91.0,,,,0.0,4.0,0.0,0.0,0.0,4.0,0.0,,,,,,,,51.0,0.0,0.630061,0.615967,0.357666,-0.30932600000000005,0.8252079999999999,-0.5815520000000001,0.019043,-0.016403,-0.050406,-0.009757,,,,,,,,,,,,,,,,,,,,,,,,,,,,,,,,,,,,,,,,,,,,,,,,,,,,,,,,,,,,,,,,,
49428,1650406689.5203369,1650406689.5306401,103.0,0.0,4305.128418,4987.692383,4304.102539,4282.05127,4274.871582,16189.0,4.0,91.0,,,,0.0,4.0,0.0,0.0,0.0,4.0,0.0,,,,,,,,,,,,,,,,,,,,,,,,,,,,,,,,,,,,,,,,,,,,,,,,,,,,,,,,,,,,,,,,,,,,,,,,,,,,,,,,,,,,
49429,1650406689.528152,1650406689.538455,104.0,0.0,4336.410156,4895.384765999999,4336.410156,4280.0,4311.794922,450.0,4.0,91.0,,,,0.0,4.0,0.0,0.0,0.0,4.0,0.0,,,,,,,,52.0,0.0,0.629941,0.615967,0.357666,-0.30956999999999996,0.8325319999999999,-0.583505,0.014159999999999999,-0.017057,-0.050394,-0.011125,,,,,,,,,,,,,,,,,,,,,,,,,,,,,,,,,,,0.0,0.0,1.0,0.0,512.0,1.0,,,,,,,,,,,,,,,,,,,,,,,,,
49430,1650406689.5359669,1650406689.54617,105.0,0.0,4343.077147999999,4571.794922,4376.410156,4274.871582,4267.179688,450.0,4.0,91.0,,,,0.0,4.0,0.0,0.0,0.0,4.0,0.0,,,,,,,,,,,,,,,,,,,,,,,,,,,,,,,,,,,,,,,,,,,,,,,,,,,,,,,,,,,,,,,,,,,,,,,,,,,,,,,,,,,,
49431,1650406689.543781,1650406689.553984,106.0,0.0,4370.256348,4389.230957,4265.128418,4274.358886999999,4227.179688,450.0,4.0,91.0,,,,0.0,4.0,0.0,0.0,0.0,4.0,0.0,,,,,,,,53.0,0.0,0.629941,0.615967,0.357666,-0.30956999999999996,0.835462,-0.574716,0.020508000000000002,-0.0175,-0.050433,-0.012405,,,,,,,,,,,,,,,,,,,,,,,,,,,,,,,,,,,,,,,,,,,,,,,,,,,,,,,,,,,,,,,,,
49432,1650406689.5515962,1650406689.561699,107.0,0.0,4385.128418,4324.615234000001,4142.05127,4277.436035,4264.615234000001,16189.0,4.0,91.0,,,,0.0,4.0,0.0,0.0,0.0,4.0,0.0,,,,,,,,,,,,,,,,,,,,,,,,,,,,,,,,,,,,,,,,,,,,,,,,,,,,,,,,,,,,,,,,,,,,,,,,,,,,,,,,,,,,
49433,1650406689.5594099,1650406689.569514,108.0,0.0,4369.230957,4282.05127,4099.487305,4280.512695,4269.743652,450.0,4.0,91.0,,,,0.0,4.0,0.0,0.0,0.0,4.0,0.0,,,,,,,,54.0,0.0,0.630061,0.615967,0.357666,-0.30932600000000005,0.8252079999999999,-0.5815520000000001,0.019043,-0.016531,-0.05037,-0.013508000000000001,,,,,,,,,,,,,,,,,,,,,,,,,,,,,,,,,,,0.0,0.0,1.0,0.0,512.0,1.0,,,,,,,,,,,,,,,,,,,,,,,,,
49434,1650406689.567225,1650406689.577229,109.0,0.0,4318.974121,4449.743652,4028.205078,4282.05127,4195.384765999999,450.0,4.0,91.0,,,,0.0,4.0,0.0,0.0,0.0,4.0,0.0,,,,,,,,,,,,,,,,,,,,,,,,,,,,,,,,,,,,,,,,,,,,,,,,,,,,,,,,,,,,,,,,,,,,,,,,,,,,,,,,,,,,
49435,1650406689.5750391,1650406689.585043,110.0,0.0,4289.743652,4597.94873,4024.102539,4285.641113000001,4176.922852000001,450.0,4.0,91.0,,,,0.0,4.0,0.0,0.0,0.0,4.0,0.0,,,,,,,,55.0,0.0,0.629941,0.615967,0.357666,-0.30956999999999996,0.835462,-0.574716,0.020508000000000002,-0.017027,-0.050412,-0.01455,,,,,,,,,,,,,,,,,,,,,,,,,,,,,,,,,,,,,,,,,,,,,,,,,,,,,,,,,,,,,,,,,
49436,1650406689.5828538,1650406689.592758,111.0,0.0,4309.230957,4461.025879,4076.4101560000004,4285.641113000001,4196.922852000001,16189.0,4.0,91.0,,,,0.0,4.0,0.0,0.0,0.0,4.0,0.0,,,,,,,,,,,,,,,,,,,,,,,,,,,,,,,,,,,,,,,,,,,,,,,,,,,,,,,,,,,,,,,,,,,,,,,,,,,,,,,,,,,,
49437,1650406689.590668,1650406689.600673,112.0,0.0,4308.205078,4541.538574,4066.6667479999996,4283.077147999999,4198.461426,450.0,4.0,91.0,,,,0.0,4.0,0.0,0.0,0.0,4.0,0.0,,,,,,,,56.0,0.0,0.629941,0.615967,0.357666,-0.30956999999999996,0.8305790000000001,-0.571786,0.012695999999999999,-0.01757,-0.050302,-0.012265,,,,,,,,,,,,,,,,,,,,,,,,,,,,,,,,,,,0.0,0.0,1.0,0.0,512.0,1.0,,,,,,,,,,,,,,,,,,,,,,,,,
49438,1650406689.598483,1650406689.608487,113.0,0.0,4312.820313,4567.692383,4071.281982,4287.692383,4207.179688,450.0,4.0,91.0,,,,0.0,4.0,0.0,0.0,0.0,4.0,0.0,,,,,,,,,,,,,,,,,,,,,,,,,,,,,,,,,,,,,,,,,,,,,,,,,,,,,,,,,,,,,,,,,,,,,,,,,,,,,,,,,,,,
49439,1650406689.606297,1650406689.616402,114.0,0.0,4355.384765999999,4433.333496,4120.0,4288.205078,4237.94873,450.0,4.0,91.0,,,,0.0,4.0,0.0,0.0,0.0,4.0,0.0,,,,,,,,57.0,0.0,0.63008,0.615967,0.35742199999999996,-0.30956999999999996,0.8169069999999999,-0.5732510000000001,0.010742,-0.016546,-0.05035,-0.013431,,,,,,,,,,,,,,,,,,,,,,,,,,,,,,,,,,,,,,,,,,,,,,,,,,,,,,,,,,,,,,,,,
49440,1650406689.614112,1650406689.624216,115.0,0.0,4318.974121,4509.230957,4063.5898439999996,4286.153809,4226.153809,16189.0,4.0,91.0,,,,0.0,4.0,0.0,0.0,0.0,4.0,0.0,,,,,,,,,,,,,,,,,,,,,,,,,,,,,,,,,,,,,,,,,,,,,,,,,,,,,,,,,,,,,,,,,,,,,,,,,,,,,,,,,,,,
49441,1650406689.621926,1650406689.632131,116.0,0.0,4265.641113000001,4588.717772999999,4094.8718259999996,4286.666504,4187.692383,450.0,4.0,91.0,,,,0.0,4.0,0.0,0.0,0.0,4.0,0.0,,,,,,,,58.0,0.0,0.63008,0.615967,0.35742199999999996,-0.30956999999999996,0.81593,-0.575692,0.013672,-0.01704,-0.050393,-0.014481,1.0,0.0,0.0,,,,,,,,,,,,,,,,,,,,,,,,,,,,,,,,0.0,0.0,1.0,0.0,512.0,1.0,359.04003900000004,21.891975,11.555492999999998,3.777422,4.132839,665.42218,734.148315,313.101807,111.13726799999999,101.082756,86.22464000000001,230.438721,102.331627,25.019917,14.714851000000001,1.5120930000000001,0.5156569999999999,0.226566,0.098151,0.07588400000000001,285.04837000000003,18.665751,24.636778,5.796309,4.775512
49442,1650406689.629741,1650406689.639946,117.0,0.0,4296.410156,4644.102539,4146.666504,4290.256348,4223.077147999999,450.0,4.0,91.0,,,,0.0,4.0,0.0,0.0,0.0,4.0,0.0,,,,,,,,,,,,,,,,,,,,,,,,,,,,,,,,,,,,,,,,,,,,,,,,,,,,,,,,,,,,,,,,,,,,,,,,,,,,,,,,,,,,
49443,1650406689.6375551,1650406689.64786,118.0,0.0,4308.205078,4616.922852000001,4193.333496,4291.794922,4227.692383,450.0,4.0,91.0,,,,0.0,4.0,0.0,0.0,0.0,4.0,0.0,,,,,,,,59.0,0.0,0.63008,0.615967,0.35742199999999996,-0.30956999999999996,0.8296020000000001,-0.583993,0.012695999999999999,-0.017533,-0.050383,-0.015375999999999999,,,,,,,,,,,,,,,,,,,,,,,,,,,,,,,,,,,,,,,,,,,,,,,,,,,,,,,,,,,,,,,,,
49444,1650406689.64537,1650406689.655675,119.0,0.0,4294.358886999999,4645.641113000001,4190.769043,4288.717772999999,4223.589844,16189.0,4.0,91.0,,,,0.0,4.0,0.0,0.0,0.0,4.0,0.0,,,,,,,,,,,,,,,,,,,,,,,,,,,,,,,,,,,,,,,,,,,,,,,,,,,,,,,,,,,,,,,,,,,,,,,,,,,,,,,,,,,,
49445,1650406689.653185,1650406689.663489,120.0,0.0,4287.692383,4679.487305,4233.333496,4288.205078,4244.102539,450.0,4.0,91.0,,,,0.0,4.0,0.0,0.0,0.0,4.0,0.0,,,,,,,,60.0,0.0,0.63008,0.615967,0.35742199999999996,-0.30956999999999996,0.819348,-0.573739,0.021973,-0.018026,-0.050276999999999995,-0.013009,,,,,,,,,,,,,,,,,,,,,,,,,,,,,,,,,,,0.0,0.0,1.0,0.0,512.0,1.0,,,,,,,,,,,,,,,,,,,,,,,,,
49446,1650406689.660999,1650406689.6712039,121.0,0.0,4322.05127,4667.692383,4261.538574,4288.205078,4295.897461,450.0,4.0,91.0,,,,0.0,4.0,0.0,0.0,0.0,4.0,0.0,,,,,,,,,,,,,,,,,,,,,,,,,,,,,,,,,,,,,,,,,,,,,,,,,,,,,,,,,,,,,,,,,,,,,,,,,,,,,,,,,,,,
49447,1650406689.668814,1650406689.679118,122.0,0.0,4322.563965,4657.94873,4278.974121,4290.256348,4296.410156,450.0,4.0,91.0,,,,0.0,4.0,0.0,0.0,0.0,4.0,0.0,,,,,,,,61.0,0.0,0.63008,0.615967,0.35742199999999996,-0.30956999999999996,0.8305790000000001,-0.572763,0.02295,-0.016809,-0.050277999999999996,-0.0141,,,,,,,,,,,,,,,,,,,,,,,,,,,,,,,,,,,,,,,,,,,,,,,,,,,,,,,,,,,,,,,,,
49448,1650406689.6766279,1650406689.686933,123.0,0.0,4301.538574,4680.512695,4302.05127,4289.230957,4282.05127,16189.0,4.0,91.0,,,,0.0,4.0,0.0,0.0,0.0,4.0,0.0,,,,,,,,,,,,,,,,,,,,,,,,,,,,,,,,,,,,,,,,,,,,,,,,,,,,,,,,,,,,,,,,,,,,,,,,,,,,,,,,,,,,
49449,1650406689.684443,1650406689.694648,124.0,0.0,4290.256348,4685.128418,4318.461426,4286.153809,4275.897461,450.0,4.0,91.0,,,,0.0,4.0,0.0,0.0,0.0,4.0,0.0,,,,,,,,62.0,0.0,0.6299600000000001,0.615967,0.35742199999999996,-0.309814,0.819348,-0.579599,0.013184,-0.017374,-0.050182,-0.011811,,,,,,,,,,,,,,,,,,,,,,,,,,,,,,,,,,,0.0,0.0,1.0,0.0,512.0,1.0,,,,,,,,,,,,,,,,,,,,,,,,,
49450,1650406689.692257,1650406689.702462,125.0,0.0,4316.410156,4621.538574,4352.820313,4286.153809,4269.230957,450.0,4.0,91.0,,,,0.0,4.0,0.0,0.0,0.0,4.0,0.0,,,,,,,,,,,,,,,,,,,,,,,,,,,,,,,,,,,,,,,,,,,,,,,,,,,,,,,,,,,,,,,,,,,,,,,,,,,,,,,,,,,,
49451,1650406689.700072,1650406689.710377,126.0,0.0,4294.358886999999,4779.487305,4316.922852000001,4286.153809,4284.615234000001,450.0,4.0,91.0,,,,0.0,4.0,0.0,0.0,0.0,4.0,0.0,,,,,,,,63.0,0.0,0.6298600000000001,0.616211,0.357178,-0.309814,0.823255,-0.580575,0.013672,-0.017883,-0.050145,-0.012925,,,,,,,,,,,,,,,,,,,,,,,,,,,,,,,,,,,,,,,,,,,,,,,,,,,,,,,,,,,,,,,,,
49452,1650406689.707886,1650406689.718292,127.0,0.0,4276.410156,4728.717772999999,4342.563965,4285.641113000001,4273.333496,242.0,4.0,91.0,,,,0.0,4.0,0.0,0.0,0.0,4.0,0.0,,,,,,,,,,,,,,,,,,,,,,,,,,,,,,,,,,,,,,,,,,,,,,,,,,,,,,,,,,,,,,,,,,,,,,,,,,,,,,,,,,,,
49453,1650406689.7157009,1650406689.7261062,0.0,0.0,4357.436035,4661.538574,4370.256348,4282.05127,4275.384765999999,450.0,4.0,91.0,,,,0.0,4.0,0.0,0.0,0.0,4.0,0.0,,,,,,,,0.0,0.0,0.629721,0.616211,0.35742199999999996,-0.309814,0.831556,-0.577646,0.013184,-0.018292,-0.050207999999999996,-0.0109,,,,,,,,,,,,,,,,,,,,,,,,,,,,,,,,,,,0.0,0.0,1.0,0.0,512.0,1.0,,,,,,,,,,,,,,,,,,,,,,,,,
49454,1650406689.723515,1650406689.7340212,1.0,0.0,4356.922852000001,4938.974121,4332.820313,4283.077147999999,4296.410156,450.0,4.0,91.0,,,,0.0,4.0,0.0,0.0,0.0,4.0,0.0,,,,,,,,,,,,,,,,,,,,,,,,,,,,,,,,,,,,,,,,,,,,,,,,,,,,,,,,,,,,,,,,,,,,,,,,,,,,,,,,,,,,
49455,1650406689.7313302,1650406689.7418349,2.0,0.0,4330.769043,4705.128418,4273.846191,4278.974121,4287.692383,16209.0,4.0,91.0,,,,0.0,4.0,0.0,0.0,0.0,4.0,0.0,,,,,,,,1.0,0.0,0.629721,0.616211,0.35742199999999996,-0.309814,0.823255,-0.568368,0.004883,-0.018758,-0.050266000000000005,-0.011959000000000001,,,,,,,,,,,,,,,,,,,,,,,,,,,,,,,,,,,,,,,,,,,,,,,,,,,,,,,,,,,,,,,,,
49456,1650406689.7391438,1650406689.74975,3.0,0.0,4397.436035,4223.077147999999,4185.641113000001,4271.794922,4265.128418,450.0,4.0,91.0,,,,0.0,4.0,0.0,0.0,0.0,4.0,0.0,,,,,,,,,,,,,,,,,,,,,,,,,,,,,,,,,,,,,,,,,,,,,,,,,,,,,,,,,,,,,,,,,,,,,,,,,,,,,,,,,,,,
49457,1650406689.746959,1650406689.757565,4.0,0.0,4401.538574,4332.820313,4055.384521,4277.436035,4246.666504,1.0,4.0,91.0,,,,0.0,4.0,0.0,0.0,0.0,4.0,0.0,1.0,0.0,3.0,0.0,0.0,0.0,3.0,2.0,0.0,0.629582,0.616211,0.357666,-0.309814,0.831067,-0.567391,0.027344,-0.017613999999999998,-0.050171,-0.013009,1.0,0.0,0.0,,,,,,,,,,,,,,,,,,,,,,,,,,,,,,,,0.0,0.0,1.0,0.0,512.0,1.0,324.468658,24.201407999999997,10.772022,3.9139239999999997,4.169866000000001,555.241455,787.001038,257.350616,101.543808,89.948715,83.14044200000001,258.390869,109.36635600000001,26.216209000000003,14.241670999999998,1.266722,0.5521229999999999,0.20955500000000002,0.10119199999999999,0.073232,258.414337,21.112015,23.456203,5.689826,3.9703160000000004
49458,1650406689.754774,1650406689.7654788,5.0,0.0,4315.384765999999,4571.794922,4062.5642090000006,4285.641113000001,4230.769043,450.0,4.0,91.0,,,,0.0,4.0,0.0,0.0,0.0,4.0,0.0,,,,,,,,,,,,,,,,,,,,,,,,,,,,,,,,,,,,,,,,,,,,,,,,,,,,,,,,,,,,,,,,,,,,,,,,,,,,,,,,,,,,
49459,1650406689.762588,1650406689.773294,6.0,0.0,4352.307617,4318.461426,4101.538574,4286.666504,4242.05127,0.0,4.0,91.0,,,,0.0,4.0,0.0,0.0,0.0,4.0,0.0,,,,,,,,3.0,0.0,0.629582,0.616211,0.357666,-0.309814,0.8330209999999999,-0.579599,0.024903,-0.018197,-0.050183,-0.014052,,,,,,,,,,,,,,,,,,,,,,,,,,,,,,,,,,,,,,,,,,,,,,,,,,,,,,,,,,,,,,,,,
49460,1650406689.770403,1650406689.781108,7.0,0.0,4398.461426,4215.897461,4091.794922,4283.589844,4258.461426,450.0,4.0,91.0,,,,0.0,4.0,0.0,0.0,0.0,4.0,0.0,,,,,,,,,,,,,,,,,,,,,,,,,,,,,,,,,,,,,,,,,,,,,,,,,,,,,,,,,,,,,,,,,,,,,,,,,,,,,,,,,,,,
49461,1650406689.778217,1650406689.7888231,8.0,0.0,4353.333496,4335.897461,4091.794922,4287.179688,4256.922852000001,450.0,4.0,91.0,,,,0.0,4.0,0.0,0.0,0.0,4.0,0.0,,,,,,,,4.0,0.0,0.629582,0.616211,0.357666,-0.309814,0.813489,-0.5786220000000001,0.020996,-0.018721,-0.050194,-0.011963,,,,,,,,,,,,,,,,,,,,,,,,,,,,,,,,,,,0.0,0.0,1.0,0.0,512.0,1.0,,,,,,,,,,,,,,,,,,,,,,,,,
49462,1650406689.786032,1650406689.796638,9.0,0.0,4341.025879,4328.717772999999,4151.794922,4288.717772999999,4247.692383,0.0,4.0,91.0,,,,0.0,4.0,0.0,0.0,0.0,4.0,0.0,,,,,,,,,,,,,,,,,,,,,,,,,,,,,,,,,,,,,,,,,,,,,,,,,,,,,,,,,,,,,,,,,,,,,,,,,,,,,,,,,,,,
49463,1650406689.7938461,1650406689.804353,10.0,0.0,4344.615234000001,4451.794922,4161.538574,4287.692383,4264.102539,450.0,4.0,91.0,,,,0.0,4.0,0.0,0.0,0.0,4.0,0.0,,,,,,,,5.0,0.0,0.629803,0.615967,0.35791,-0.30956999999999996,0.8222780000000001,-0.576181,0.012695999999999999,-0.018948,-0.050204,-0.013062,,,,,,,,,,,,,,,,,,,,,,,,,,,,,,,,,,,,,,,,,,,,,,,,,,,,,,,,,,,,,,,,,
49464,1650406689.801661,1650406689.812267,11.0,0.0,4315.897461,4464.102539,4196.922852000001,4288.717772999999,4249.743652,16152.0,4.0,91.0,,,,0.0,4.0,0.0,0.0,0.0,4.0,0.0,,,,,,,,,,,,,,,,,,,,,,,,,,,,,,,,,,,,,,,,,,,,,,,,,,,,,,,,,,,,,,,,,,,,,,,,,,,,,,,,,,,,
49465,1650406689.809475,1650406689.820082,12.0,0.0,4321.538574,4440.512695,4260.0,4290.256348,4261.025879,450.0,4.0,91.0,,,,0.0,4.0,0.0,0.0,0.0,4.0,0.0,,,,,,,,6.0,0.0,0.629803,0.615967,0.35791,-0.30956999999999996,0.827161,-0.585458,0.023926,-0.019251,-0.050115,-0.01405,,,,,,,,,,,,,,,,,,,,,,,,,,,,,,,,,,,0.0,0.0,1.0,0.0,512.0,1.0,,,,,,,,,,,,,,,,,,,,,,,,,
49466,1650406689.81729,1650406689.827996,13.0,0.0,4337.436035,4534.871582,4304.102539,4289.743652,4289.230957,450.0,4.0,91.0,,,,0.0,4.0,0.0,0.0,0.0,4.0,0.0,,,,,,,,,,,,,,,,,,,,,,,,,,,,,,,,,,,,,,,,,,,,,,,,,,,,,,,,,,,,,,,,,,,,,,,,,,,,,,,,,,,,
49467,1650406689.825104,1650406689.835811,14.0,0.0,4351.794922,4617.94873,4333.333496,4285.128418,4305.128418,450.0,4.0,91.0,,,,0.0,4.0,0.0,0.0,0.0,4.0,0.0,,,,,,,,7.0,0.0,0.629803,0.615967,0.35791,-0.30956999999999996,0.81593,-0.584482,0.019043,-0.018058,-0.050084,-0.011767,,,,,,,,,,,,,,,,,,,,,,,,,,,,,,,,,,,,,,,,,,,,,,,,,,,,,,,,,,,,,,,,,
49468,1650406689.832919,1650406689.843725,15.0,0.0,4345.128418,4558.974121,4251.794922,4286.666504,4278.974121,16152.0,4.0,91.0,,,,0.0,4.0,0.0,0.0,0.0,4.0,0.0,,,,,,,,,,,,,,,,,,,,,,,,,,,,,,,,,,,,,,,,,,,,,,,,,,,,,,,,,,,,,,,,,,,,,,,,,,,,,,,,,,,,
49469,1650406689.840733,1650406689.85154,16.0,0.0,4331.794922,4451.794922,4237.436035,4286.666504,4243.077147999999,0.0,4.0,91.0,,,,0.0,4.0,0.0,0.0,0.0,4.0,0.0,,,,,,,,8.0,0.0,0.629803,0.615967,0.35791,-0.30956999999999996,0.81593,-0.571298,0.016602000000000002,-0.018499,-0.050154000000000004,-0.012981999999999999,,,,,,,,,,,,,,,,,,,,,,,,,,,,,,,,,,,0.0,0.0,1.0,0.0,512.0,1.0,,,,,,,,,,,,,,,,,,,,,,,,,
49470,1650406689.848548,1650406689.859255,17.0,0.0,4343.589844,4501.538574,4248.205078,4285.641113000001,4265.641113000001,0.0,4.0,91.0,,,,0.0,4.0,0.0,0.0,0.0,4.0,0.0,,,,,,,,,,,,,,,,,,,,,,,,,,,,,,,,,,,,,,,,,,,,,,,,,,,,,,,,,,,,,,,,,,,,,,,,,,,,,,,,,,,,
49471,1650406689.8563619,1650406689.86707,18.0,0.0,4350.769043,4517.436035,4256.922852000001,4287.692383,4275.384765999999,0.0,4.0,91.0,,,,0.0,4.0,0.0,0.0,0.0,4.0,0.0,,,,,,,,9.0,0.0,0.629564,0.616211,0.35791,-0.30956999999999996,0.8213020000000001,-0.576669,0.03125,-0.018846,-0.050071,-0.013978999999999998,,,,,,,,,,,,,,,,,,,,,,,,,,,,,,,,,,,,,,,,,,,,,,,,,,,,,,,,,,,,,,,,,
49472,1650406689.864177,1650406689.874984,19.0,0.0,4316.410156,4533.846191,4232.307617,4288.205078,4244.615234000001,0.0,4.0,91.0,,,,0.0,4.0,0.0,0.0,0.0,4.0,0.0,,,,,,,,,,,,,,,,,,,,,,,,,,,,,,,,,,,,,,,,,,,,,,,,,,,,,,,,,,,,,,,,,,,,,,,,,,,,,,,,,,,,
49473,1650406689.871992,1650406689.882799,20.0,0.0,4295.897461,4490.769043,4256.410156,4287.692383,4208.717772999999,0.0,4.0,91.0,,,,0.0,4.0,0.0,0.0,0.0,4.0,0.0,,,,,,,,10.0,0.0,0.629564,0.616211,0.35791,-0.30956999999999996,0.818372,-0.57911,0.024413999999999998,-0.017644999999999997,-0.050142,-0.014974000000000001,1.0,0.0,0.0,,,,,,,,,,,,,,,,,,,,,,,,,,,,,,,,0.0,0.0,1.0,0.0,512.0,1.0,254.18078599999998,26.779211,10.203144,4.277915,4.211762,473.42715499999997,903.087402,228.907852,95.267342,84.763992,91.775879,281.433441,113.08506000000001,26.162397,13.891737,0.933791,0.597329,0.18865,0.097959,0.07026900000000001,202.3647,24.482670000000002,20.530853,5.618698999999999,3.6046839999999998
49474,1650406689.879806,1650406689.8905132,21.0,0.0,4339.487305,4458.461426,4230.769043,4288.205078,4265.128418,0.0,4.0,91.0,,,,0.0,4.0,0.0,0.0,0.0,4.0,0.0,,,,,,,,,,,,,,,,,,,,,,,,,,,,,,,,,,,,,,,,,,,,,,,,,,,,,,,,,,,,,,,,,,,,,,,,,,,,,,,,,,,,
49475,1650406689.8876212,1650406689.8983278,22.0,0.0,4342.563965,4511.282227000001,4227.179688,4289.743652,4308.717772999999,0.0,4.0,91.0,,,,0.0,4.0,0.0,0.0,0.0,4.0,0.0,,,,,,,,11.0,0.0,0.629784,0.615967,0.358154,-0.30932600000000005,0.812512,-0.58497,0.026856,-0.018078,-0.050108,-0.012695,,,,,,,,,,,,,,,,,,,,,,,,,,,,,,,,,,,,,,,,,,,,,,,,,,,,,,,,,,,,,,,,,
49476,1650406689.8954349,1650406689.906043,23.0,0.0,4332.307617,4701.025879,4238.974121,4287.692383,4304.102539,0.0,4.0,91.0,,,,0.0,4.0,0.0,0.0,0.0,4.0,0.0,,,,,,,,,,,,,,,,,,,,,,,,,,,,,,,,,,,,,,,,,,,,,,,,,,,,,,,,,,,,,,,,,,,,,,,,,,,,,,,,,,,,
49477,1650406689.90325,1650406689.913858,24.0,0.0,4304.615234000001,4908.717772999999,4252.820313,4287.179688,4307.692383,0.0,4.0,91.0,,,,0.0,4.0,0.0,0.0,0.0,4.0,0.0,,,,,,,,12.0,0.0,0.629784,0.615967,0.358154,-0.30932600000000005,0.819837,-0.5786220000000001,0.023438,-0.018466999999999997,-0.050078,-0.013818,,,,,,,,,,,,,,,,,,,,,,,,,,,,,,,,,,,0.0,0.0,1.0,0.0,512.0,1.0,,,,,,,,,,,,,,,,,,,,,,,,,
49478,1650406689.9110641,1650406689.921572,25.0,0.0,4336.922852000001,4768.205078,4255.384765999999,4286.153809,4324.102539,0.0,4.0,91.0,,,,0.0,4.0,0.0,0.0,0.0,4.0,0.0,,,,,,,,,,,,,,,,,,,,,,,,,,,,,,,,,,,,,,,,,,,,,,,,,,,,,,,,,,,,,,,,,,,,,,,,,,,,,,,,,,,,
49479,1650406689.9188788,1650406689.9293869,26.0,0.0,4383.077147999999,4792.307617,4244.615234000001,4281.025879,4307.692383,0.0,4.0,91.0,,,,0.0,4.0,0.0,0.0,0.0,4.0,0.0,,,,,,,,13.0,0.0,0.629645,0.615967,0.358398,-0.30932600000000005,0.8256959999999999,-0.58497,0.033692,-0.017304,-0.050148000000000005,-0.014828999999999998,,,,,,,,,,,,,,,,,,,,,,,,,,,,,,,,,,,,,,,,,,,,,,,,,,,,,,,,,,,,,,,,,
49480,1650406689.926693,1650406689.9371018,27.0,0.0,4374.871582,4888.205078,4274.871582,4281.025879,4281.538574,0.0,4.0,91.0,,,,0.0,4.0,0.0,0.0,0.0,4.0,0.0,,,,,,,,,,,,,,,,,,,,,,,,,,,,,,,,,,,,,,,,,,,,,,,,,,,,,,,,,,,,,,,,,,,,,,,,,,,,,,,,,,,,
49481,1650406689.934508,1650406689.944916,28.0,0.0,4387.692383,4550.769043,4353.846191,4278.461426,4292.307617,0.0,4.0,91.0,,,,0.0,4.0,0.0,0.0,0.0,4.0,0.0,,,,,,,,14.0,0.0,0.629525,0.615967,0.358398,-0.30956999999999996,0.81886,-0.576181,0.025879000000000003,-0.017771000000000002,-0.050163,-0.015739,,,,,,,,,,,,,,,,,,,,,,,,,,,,,,,,,,,0.0,0.0,1.0,0.0,512.0,1.0,,,,,,,,,,,,,,,,,,,,,,,,,
49482,1650406689.942322,1650406689.952631,29.0,0.0,4433.333496,4343.077147999999,4298.974121,4277.436035,4312.820313,0.0,4.0,91.0,,,,0.0,4.0,0.0,0.0,0.0,4.0,0.0,,,,,,,,,,,,,,,,,,,,,,,,,,,,,,,,,,,,,,,,,,,,,,,,,,,,,,,,,,,,,,,,,,,,,,,,,,,,,,,,,,,,
49483,1650406689.950137,1650406689.9604461,30.0,0.0,4391.794922,4553.333496,4113.333496,4282.563965,4266.153809,0.0,4.0,91.0,,,,0.0,4.0,0.0,0.0,0.0,4.0,0.0,,,,,,,,15.0,0.0,0.629505,0.6157229999999999,0.358643,-0.309814,0.8261850000000001,-0.572763,0.02002,-0.018191,-0.050176,-0.016509,,,,,,,,,,,,,,,,,,,,,,,,,,,,,,,,,,,,,,,,,,,,,,,,,,,,,,,,,,,,,,,,,
49484,1650406689.957951,1650406689.96816,31.0,0.0,4332.307617,4629.743652,4136.410156,4286.666504,4226.153809,0.0,4.0,91.0,,,,0.0,4.0,0.0,0.0,0.0,4.0,0.0,,,,,,,,,,,,,,,,,,,,,,,,,,,,,,,,,,,,,,,,,,,,,,,,,,,,,,,,,,,,,,,,,,,,,,,,,,,,,,,,,,,,
49485,1650406689.965766,1650406689.975975,32.0,0.0,4361.025879,4524.102539,4246.153809,4287.692383,4252.820313,0.0,4.0,91.0,,,,0.0,4.0,0.0,0.0,0.0,4.0,0.0,,,,,,,,16.0,0.0,0.629384,0.6157229999999999,0.358643,-0.31005900000000003,0.823743,-0.589853,0.01709,-0.018569,-0.050187999999999997,-0.017103999999999998,,,,,,,,,,,,,,,,,,,,,,,,,,,,,,,,,,,0.0,0.0,1.0,0.0,512.0,1.0,,,,,,,,,,,,,,,,,,,,,,,,,
49486,1650406689.9735801,1650406689.98369,33.0,0.0,4353.846191,4639.487305,4250.769043,4289.743652,4265.128418,0.0,4.0,91.0,,,,0.0,4.0,0.0,0.0,0.0,4.0,0.0,,,,,,,,,,,,,,,,,,,,,,,,,,,,,,,,,,,,,,,,,,,,,,,,,,,,,,,,,,,,,,,,,,,,,,,,,,,,,,,,,,,,
49487,1650406689.981395,1650406689.9916039,34.0,0.0,4324.615234000001,4678.461426,4233.333496,4291.282227000001,4245.641113000001,0.0,4.0,91.0,,,,0.0,4.0,0.0,0.0,0.0,4.0,0.0,,,,,,,,17.0,0.0,0.629264,0.6157229999999999,0.358643,-0.310303,0.823743,-0.585458,0.013184,-0.019007,-0.050198,-0.014466,,,,,,,,,,,,,,,,,,,,,,,,,,,,,,,,,,,,,,,,,,,,,,,,,,,,,,,,,,,,,,,,,
49488,1650406689.98921,1650406689.999419,35.0,0.0,4329.743652,4661.025879,4295.384765999999,4286.666504,4235.897461,0.0,4.0,91.0,,,,0.0,4.0,0.0,0.0,0.0,4.0,0.0,,,,,,,,,,,,,,,,,,,,,,,,,,,,,,,,,,,,,,,,,,,,,,,,,,,,,,,,,,,,,,,,,,,,,,,,,,,,,,,,,,,,
49489,1650406689.997024,1650406690.007334,36.0,0.0,4327.179688,4750.256348,4257.436035,4287.692383,4255.384765999999,0.0,4.0,91.0,,,,0.0,4.0,0.0,0.0,0.0,4.0,0.0,,,,,,,,18.0,0.0,0.629505,0.6157229999999999,0.358643,-0.309814,0.8261850000000001,-0.572763,0.02002,-0.01779,-0.050158999999999995,-0.012287000000000001,1.0,0.0,0.0,,,,,,,,,,,,,,,,,,,,,,,,,,,,,,,,0.0,0.0,1.0,0.0,512.0,1.0,171.28225700000002,28.499426,9.693588,4.626101,4.257867,440.360443,1031.771362,221.718521,91.98877,83.505302,116.933044,293.82171600000004,110.45069099999999,25.115076000000002,14.026282,0.6323979999999999,0.633189,0.166627,0.08874299999999999,0.067816,137.163834,28.560492,16.424431,5.485659,3.520512
49490,1650406690.004839,1650406690.0151482,37.0,0.0,4333.333496,4712.820313,4215.897461,4289.743652,4262.563965,0.0,4.0,91.0,,,,0.0,4.0,0.0,0.0,0.0,4.0,0.0,,,,,,,,,,,,,,,,,,,,,,,,,,,,,,,,,,,,,,,,,,,,,,,,,,,,,,,,,,,,,,,,,,,,,,,,,,,,,,,,,,,,
49491,1650406690.0126529,1650406690.0230632,38.0,0.0,4340.0,4749.743652,4186.153809,4290.256348,4286.666504,0.0,4.0,91.0,,,,0.0,4.0,0.0,0.0,0.0,4.0,0.0,,,,,,,,19.0,0.0,0.629264,0.6157229999999999,0.358643,-0.310303,0.823743,-0.585458,0.013184,-0.018306,-0.050172,-0.01013,,,,,,,,,,,,,,,,,,,,,,,,,,,,,,,,,,,,,,,,,,,,,,,,,,,,,,,,,,,,,,,,,
49492,1650406690.020468,1650406690.0308769,39.0,0.0,4300.0,4795.897461,4165.128418,4288.205078,4257.436035,0.0,4.0,91.0,,,,0.0,4.0,0.0,0.0,0.0,4.0,0.0,,,,,,,,,,,,,,,,,,,,,,,,,,,,,,,,,,,,,,,,,,,,,,,,,,,,,,,,,,,,,,,,,,,,,,,,,,,,,,,,,,,,
49493,1650406690.028282,1650406690.038792,40.0,0.0,4319.487305,4845.641113000001,4132.820313,4284.615234000001,4264.615234000001,0.0,4.0,91.0,,,,0.0,4.0,0.0,0.0,0.0,4.0,0.0,,,,,,,,20.0,0.0,0.629023,0.6157229999999999,0.358643,-0.310791,0.81593,-0.568368,0.021973,-0.01711,-0.050087,-0.011315,,,,,,,,,,,,,,,,,,,,,,,,,,,,,,,,,,,0.0,0.0,1.0,0.0,512.0,1.0,,,,,,,,,,,,,,,,,,,,,,,,,
49494,1650406690.036097,1650406690.046607,41.0,0.0,4339.487305,4844.615234000001,4120.0,4287.692383,4281.538574,0.0,4.0,91.0,,,,0.0,4.0,0.0,0.0,0.0,4.0,0.0,,,,,,,,,,,,,,,,,,,,,,,,,,,,,,,,,,,,,,,,,,,,,,,,,,,,,,,,,,,,,,,,,,,,,,,,,,,,,,,,,,,,
49495,1650406690.043911,1650406690.054521,42.0,0.0,4330.256348,4782.563965,4108.205078,4289.230957,4283.589844,0.0,4.0,91.0,,,,0.0,4.0,0.0,0.0,0.0,4.0,0.0,,,,,,,,21.0,0.0,0.6289020000000001,0.6157229999999999,0.358643,-0.311035,0.8217899999999999,-0.583017,0.018555000000000002,-0.016034,-0.050108,-0.012478,,,,,,,,,,,,,,,,,,,,,,,,,,,,,,,,,,,,,,,,,,,,,,,,,,,,,,,,,,,,,,,,,
49496,1650406690.0517259,1650406690.062336,43.0,0.0,4334.358886999999,4797.436035,4093.8461909999996,4287.179688,4306.666504,0.0,4.0,91.0,,,,0.0,4.0,0.0,0.0,0.0,4.0,0.0,,,,,,,,,,,,,,,,,,,,,,,,,,,,,,,,,,,,,,,,,,,,,,,,,,,,,,,,,,,,,,,,,,,,,,,,,,,,,,,,,,,,
49497,1650406690.05954,1650406690.070051,44.0,0.0,4366.666504,4799.487305,4072.820557,4286.666504,4312.820313,0.0,4.0,91.0,,,,0.0,4.0,0.0,0.0,0.0,4.0,0.0,,,,,,,,22.0,0.0,0.628782,0.6157229999999999,0.358643,-0.311279,0.827161,-0.576181,0.02295,-0.016628,-0.050126,-0.010498,,,,,,,,,,,,,,,,,,,,,,,,,,,,,,,,,,,0.0,0.0,1.0,0.0,512.0,1.0,,,,,,,,,,,,,,,,,,,,,,,,,
49498,1650406690.0673552,1650406690.0778651,45.0,0.0,4351.794922,4870.769043,4076.4101560000004,4287.179688,4312.820313,0.0,4.0,91.0,,,,0.0,4.0,0.0,0.0,0.0,4.0,0.0,,,,,,,,,,,,,,,,,,,,,,,,,,,,,,,,,,,,,,,,,,,,,,,,,,,,,,,,,,,,,,,,,,,,,,,,,,,,,,,,,,,,
49499,1650406690.0751688,1650406690.08558,46.0,0.0,4332.820313,4852.307617,4187.692383,4287.179688,4300.512695,0.0,4.0,91.0,,,,0.0,4.0,0.0,0.0,0.0,4.0,0.0,,,,,,,,23.0,0.0,0.6286609999999999,0.6157229999999999,0.358643,-0.311523,0.817884,-0.577646,0.013184,-0.017211,-0.050094,-0.011792,,,,,,,,,,,,,,,,,,,,,,,,,,,,,,,,,,,,,,,,,,,,,,,,,,,,,,,,,,,,,,,,,
49500,1650406690.082984,1650406690.093395,47.0,0.0,4359.487305,4868.717772999999,4250.256348,4284.615234000001,4294.358886999999,0.0,4.0,91.0,,,,0.0,4.0,0.0,0.0,0.0,4.0,0.0,,,,,,,,,,,,,,,,,,,,,,,,,,,,,,,,,,,,,,,,,,,,,,,,,,,,,,,,,,,,,,,,,,,,,,,,,,,,,,,,,,,,
49501,1650406690.090799,1650406690.101109,48.0,0.0,4358.461426,4863.077147999999,4285.641113000001,4283.077147999999,4282.563965,0.0,4.0,91.0,,,,0.0,4.0,0.0,0.0,0.0,4.0,0.0,,,,,,,,24.0,0.0,0.6286579999999999,0.615479,0.358643,-0.312012,0.8242309999999999,-0.580575,0.015137000000000001,-0.016174,-0.050261,-0.009978,,,,,,,,,,,,,,,,,,,,,,,,,,,,,,,,,,,0.0,0.0,1.0,0.0,512.0,1.0,,,,,,,,,,,,,,,,,,,,,,,,,
49502,1650406690.098613,1650406690.108924,49.0,0.0,4371.794922,4855.897461,4283.589844,4283.077147999999,4303.077147999999,0.0,4.0,91.0,,,,0.0,4.0,0.0,0.0,0.0,4.0,0.0,,,,,,,,,,,,,,,,,,,,,,,,,,,,,,,,,,,,,,,,,,,,,,,,,,,,,,,,,,,,,,,,,,,,,,,,,,,,,,,,,,,,
49503,1650406690.106428,1650406690.1166391,50.0,0.0,4347.692383,4872.820313,4337.94873,4285.641113000001,4304.102539,0.0,4.0,91.0,,,,0.0,4.0,0.0,0.0,0.0,4.0,0.0,,,,,,,,25.0,0.0,0.628397,0.615479,0.358887,-0.312256,0.834974,-0.589853,0.015625,-0.01524,-0.050263999999999996,-0.011226,,,,,,,,,,,,,,,,,,,,,,,,,,,,,,,,,,,,,,,,,,,,,,,,,,,,,,,,,,,,,,,,,
49504,1650406690.114242,1650406690.1244528,51.0,0.0,4357.94873,4709.230957,4357.436035,4284.102539,4287.179688,0.0,4.0,91.0,,,,0.0,4.0,0.0,0.0,0.0,4.0,0.0,,,,,,,,,,,,,,,,,,,,,,,,,,,,,,,,,,,,,,,,,,,,,,,,,,,,,,,,,,,,,,,,,,,,,,,,,,,,,,,,,,,,
49505,1650406690.122057,1650406690.132168,52.0,0.0,4390.256348,4729.743652,4323.589844,4279.487305,4285.128418,0.0,4.0,91.0,,,,0.0,4.0,0.0,0.0,0.0,4.0,0.0,,,,,,,,26.0,0.0,0.628154,0.615479,0.358887,-0.312744,0.828626,-0.5771569999999999,0.02295,-0.015913,-0.050267,-0.009322,1.0,0.0,0.0,,,,,,,,,,,,,,,,,,,,,,,,,,,,,,,,0.0,0.0,1.0,0.0,512.0,1.0,98.803947,28.889233,9.349422,4.783853,4.346378,458.33245800000003,1124.231445,227.14433300000002,90.36039,84.895775,160.917389,294.278839,101.281525,23.585501,14.713448999999999,0.450251,0.650836,0.145998,0.07623200000000001,0.06632300000000001,82.951691,32.771103000000004,12.108503,5.192444,3.535509
49506,1650406690.1298711,1650406690.139983,53.0,0.0,4392.307617,4696.922852000001,4302.05127,4277.94873,4271.794922,0.0,4.0,91.0,,,,0.0,4.0,0.0,0.0,0.0,4.0,0.0,,,,,,,,,,,,,,,,,,,,,,,,,,,,,,,,,,,,,,,,,,,,,,,,,,,,,,,,,,,,,,,,,,,,,,,,,,,,,,,,,,,,
49507,1650406690.137686,1650406690.147697,54.0,0.0,4371.794922,4423.077147999999,4294.871582,4277.436035,4247.692383,0.0,4.0,91.0,,,,0.0,4.0,0.0,0.0,0.0,4.0,0.0,,,,,,,,27.0,0.0,0.628393,0.6152340000000001,0.358887,-0.312744,0.827649,-0.5879,0.024413999999999998,-0.016568,-0.050318,-0.010685,,,,,,,,,,,,,,,,,,,,,,,,,,,,,,,,,,,,,,,,,,,,,,,,,,,,,,,,,,,,,,,,,
49508,1650406690.1455,1650406690.155612,55.0,0.0,4396.410156,4274.358886999999,4157.94873,4279.487305,4256.922852000001,0.0,4.0,91.0,,,,0.0,4.0,0.0,0.0,0.0,4.0,0.0,,,,,,,,,,,,,,,,,,,,,,,,,,,,,,,,,,,,,,,,,,,,,,,,,,,,,,,,,,,,,,,,,,,,,,,,,,,,,,,,,,,,
49509,1650406690.153315,1650406690.1634269,56.0,0.0,4422.05127,4491.794922,4042.0512700000004,4284.102539,4283.077147999999,0.0,4.0,91.0,,,,0.0,4.0,0.0,0.0,0.0,4.0,0.0,,,,,,,,28.0,0.0,0.628132,0.6152340000000001,0.359131,-0.312988,0.847181,-0.590341,0.038575,-0.015595,-0.050316,-0.011863,,,,,,,,,,,,,,,,,,,,,,,,,,,,,,,,,,,0.0,0.0,1.0,0.0,512.0,1.0,,,,,,,,,,,,,,,,,,,,,,,,,
49510,1650406690.161129,1650406690.171341,57.0,0.0,4393.333496,4526.153809,4094.358887,4288.205078,4281.025879,0.0,4.0,91.0,,,,0.0,4.0,0.0,0.0,0.0,4.0,0.0,,,,,,,,,,,,,,,,,,,,,,,,,,,,,,,,,,,,,,,,,,,,,,,,,,,,,,,,,,,,,,,,,,,,,,,,,,,,,,,,,,,,
49511,1650406690.168944,1650406690.179156,58.0,0.0,4380.512695,4344.102539,4113.333496,4285.641113000001,4251.282227000001,0.0,4.0,91.0,,,,0.0,4.0,0.0,0.0,0.0,4.0,0.0,,,,,,,,29.0,0.0,0.6282270000000001,0.614746,0.359375,-0.313477,0.838392,-0.58497,0.018067,-0.016281999999999998,-0.050363,-0.013068999999999999,,,,,,,,,,,,,,,,,,,,,,,,,,,,,,,,,,,,,,,,,,,,,,,,,,,,,,,,,,,,,,,,,
49512,1650406690.176758,1650406690.18707,59.0,0.0,4391.282227000001,4508.205078,4065.1281740000004,4286.666504,4271.282227000001,0.0,4.0,91.0,,,,0.0,4.0,0.0,0.0,0.0,4.0,0.0,,,,,,,,,,,,,,,,,,,,,,,,,,,,,,,,,,,,,,,,,,,,,,,,,,,,,,,,,,,,,,,,,,,,,,,,,,,,,,,,,,,,
49513,1650406690.184573,1650406690.194885,60.0,0.0,4383.077147999999,4617.436035,4086.6667479999996,4288.717772999999,4278.974121,0.0,4.0,91.0,,,,0.0,4.0,0.0,0.0,0.0,4.0,0.0,,,,,,,,30.0,0.0,0.6280819999999999,0.614502,0.359619,-0.313965,0.819837,-0.574228,0.027832,-0.016753,-0.050307,-0.010981,,,,,,,,,,,,,,,,,,,,,,,,,,,,,,,,,,,0.0,0.0,1.0,0.0,512.0,1.0,,,,,,,,,,,,,,,,,,,,,,,,,
49514,1650406690.1923869,1650406690.2028,61.0,0.0,4354.871582,4629.743652,4101.538574,4285.641113000001,4255.384765999999,0.0,4.0,91.0,,,,0.0,4.0,0.0,0.0,0.0,4.0,0.0,,,,,,,,,,,,,,,,,,,,,,,,,,,,,,,,,,,,,,,,,,,,,,,,,,,,,,,,,,,,,,,,,,,,,,,,,,,,,,,,,,,,
49515,1650406690.200202,1650406690.210614,62.0,0.0,4365.128418,4608.717772999999,4073.8461909999996,4287.179688,4257.94873,0.0,4.0,91.0,,,,0.0,4.0,0.0,0.0,0.0,4.0,0.0,,,,,,,,31.0,0.0,0.628158,0.6140140000000001,0.360107,-0.314209,0.839857,-0.5927819999999999,0.045411,-0.017324000000000003,-0.050158999999999995,-0.012178,,,,,,,,,,,,,,,,,,,,,,,,,,,,,,,,,,,,,,,,,,,,,,,,,,,,,,,,,,,,,,,,,
49516,1650406690.208017,1650406690.2184289,63.0,0.0,4390.256348,4627.692383,4063.076904,4287.692383,4277.436035,0.0,4.0,91.0,,,,0.0,4.0,0.0,0.0,0.0,4.0,0.0,,,,,,,,,,,,,,,,,,,,,,,,,,,,,,,,,,,,,,,,,,,,,,,,,,,,,,,,,,,,,,,,,,,,,,,,,,,,,,,,,,,,
49517,1650406690.215831,1650406690.226143,64.0,0.0,4348.205078,4659.487305,4063.076904,4286.153809,4250.256348,450.0,4.0,91.0,,,,0.0,4.0,0.0,0.0,0.0,4.0,0.0,,,,,,,,32.0,0.0,0.628111,0.613525,0.360596,-0.314697,0.8291139999999999,-0.595224,0.034668,-0.017789,-0.050173,-0.013304,,,,,,,,,,,,,,,,,,,,,,,,,,,,,,,,,,,0.0,0.0,1.0,0.0,512.0,1.0,,,,,,,,,,,,,,,,,,,,,,,,,
49518,1650406690.2236462,1650406690.234058,65.0,0.0,4327.179688,4554.358886999999,4072.820557,4283.589844,4221.025879,450.0,4.0,91.0,,,,0.0,4.0,0.0,0.0,0.0,4.0,0.0,,,,,,,,,,,,,,,,,,,,,,,,,,,,,,,,,,,,,,,,,,,,,,,,,,,,,,,,,,,,,,,,,,,,,,,,,,,,,,,,,,,,
49519,1650406690.2314599,1650406690.241873,66.0,0.0,4377.436035,4538.974121,4043.5898439999996,4284.615234000001,4272.820313,16187.0,4.0,91.0,,,,0.0,4.0,0.0,0.0,0.0,4.0,0.0,,,,,,,,33.0,0.0,0.628062,0.6130369999999999,0.361084,-0.315186,0.833509,-0.589853,0.043946,-0.016693,-0.050136,-0.014219999999999998,,,,,,,,,,,,,,,,,,,,,,,,,,,,,,,,,,,,,,,,,,,,,,,,,,,,,,,,,,,,,,,,,
49520,1650406690.239275,1650406690.2497869,67.0,0.0,4384.102539,4610.769043,4013.8461909999996,4284.102539,4291.282227000001,450.0,4.0,91.0,,,,0.0,4.0,0.0,0.0,0.0,4.0,0.0,,,,,,,,,,,,,,,,,,,,,,,,,,,,,,,,,,,,,,,,,,,,,,,,,,,,,,,,,,,,,,,,,,,,,,,,,,,,,,,,,,,,
49521,1650406690.2470891,1650406690.257602,68.0,0.0,4364.102539,4640.0,3985.1281740000004,4284.615234000001,4269.230957,0.0,4.0,91.0,,,,0.0,4.0,0.0,0.0,0.0,4.0,0.0,1.0,0.0,3.0,0.0,0.0,0.0,3.0,34.0,0.0,0.62803,0.612549,0.36132800000000004,-0.315918,0.8256959999999999,-0.5815520000000001,0.024413999999999998,-0.017269999999999997,-0.050151999999999995,-0.012015999999999999,1.0,0.0,0.0,,,,,,,,,,,,,,,,,,,,,,,,,,,,,,,,0.0,0.0,1.0,0.0,512.0,0.89565,51.178734000000006,27.903434999999998,9.298467,4.712562999999999,4.516045,512.868958,1148.0786130000001,240.98168900000002,89.578926,88.77729000000001,220.105911,283.57913199999996,87.89292900000001,22.088810000000002,15.690434,0.40665300000000004,0.647696,0.130322,0.06468099999999999,0.065548,50.738533000000004,36.144847999999996,8.568497,4.766237,3.571829
49522,1650406690.2549038,1650406690.265317,69.0,0.0,4344.102539,4554.871582,4018.461426,4285.128418,4236.922852000001,450.0,4.0,91.0,,,,0.0,4.0,0.0,0.0,0.0,4.0,0.0,,,,,,,,,,,,,,,,,,,,,,,,,,,,,,,,,,,,,,,,,,,,,,,,,,,,,,,,,,,,,,,,,,,,,,,,,,,,,,,,,,,,
49523,1650406690.262718,1650406690.2731311,70.0,0.0,4357.436035,4549.230957,4001.025635,4284.102539,4262.563965,0.0,4.0,91.0,,,,0.0,4.0,0.0,0.0,0.0,4.0,0.0,,,,,,,,35.0,0.0,0.6278560000000001,0.612061,0.36181599999999997,-0.31665,0.826673,-0.579599,0.035644999999999996,-0.016325,-0.050166,-0.013061000000000001,,,,,,,,,,,,,,,,,,,,,,,,,,,,,,,,,,,,,,,,,,,,,,,,,,,,,,,,,,,,,,,,,
49524,1650406690.270533,1650406690.280846,71.0,0.0,4354.871582,4572.307617,4018.974365,4286.153809,4269.743652,450.0,4.0,91.0,,,,0.0,4.0,0.0,0.0,0.0,4.0,0.0,,,,,,,,,,,,,,,,,,,,,,,,,,,,,,,,,,,,,,,,,,,,,,,,,,,,,,,,,,,,,,,,,,,,,,,,,,,,,,,,,,,,
49525,1650406690.278347,1650406690.28876,72.0,0.0,4327.179688,4543.589844,4065.641113,4288.205078,4241.025879,450.0,4.0,91.0,,,,0.0,4.0,0.0,0.0,0.0,4.0,0.0,,,,,,,,36.0,0.0,0.6275569999999999,0.611572,0.36230500000000004,-0.317627,0.827161,-0.585458,0.038575,-0.016987000000000002,-0.050179,-0.01405,,,,,,,,,,,,,,,,,,,,,,,,,,,,,,,,,,,0.0,0.0,1.0,0.0,512.0,0.89565,,,,,,,,,,,,,,,,,,,,,,,,,
49526,1650406690.286162,1650406690.296575,73.0,0.0,4311.794922,4609.230957,4095.897461,4286.153809,4242.05127,0.0,4.0,91.0,,,,0.0,4.0,0.0,0.0,0.0,4.0,0.0,,,,,,,,,,,,,,,,,,,,,,,,,,,,,,,,,,,,,,,,,,,,,,,,,,,,,,,,,,,,,,,,,,,,,,,,,,,,,,,,,,,,
49527,1650406690.293976,1650406690.30439,74.0,0.0,4342.05127,4731.794922,4081.025635,4284.615234000001,4281.538574,450.0,4.0,91.0,,,,0.0,4.0,0.0,0.0,0.0,4.0,0.0,,,,,,,,37.0,0.0,0.627273,0.611084,0.36254899999999995,-0.318848,0.820325,-0.587411,0.031738999999999996,-0.016069999999999997,-0.050092000000000005,-0.011912,,,,,,,,,,,,,,,,,,,,,,,,,,,,,,,,,,,,,,,,,,,,,,,,,,,,,,,,,,,,,,,,,
49528,1650406690.301791,1650406690.3121052,75.0,0.0,4334.358886999999,4782.05127,4088.205078,4286.153809,4277.436035,16157.0,4.0,91.0,,,,0.0,4.0,0.0,0.0,0.0,4.0,0.0,,,,,,,,,,,,,,,,,,,,,,,,,,,,,,,,,,,,,,,,,,,,,,,,,,,,,,,,,,,,,,,,,,,,,,,,,,,,,,,,,,,,
49529,1650406690.3096051,1650406690.3199189,76.0,0.0,4316.410156,4752.307617,4145.128418,4286.666504,4253.846191,450.0,4.0,91.0,,,,0.0,4.0,0.0,0.0,0.0,4.0,0.0,,,,,,,,38.0,0.0,0.626985,0.610596,0.362793,-0.32006799999999996,0.834974,-0.579599,0.028321,-0.014511000000000001,-0.050015,-0.013113999999999999,,,,,,,,,,,,,,,,,,,,,,,,,,,,,,,,,,,0.0,0.0,1.0,0.0,512.0,0.89565,,,,,,,,,,,,,,,,,,,,,,,,,
49530,1650406690.31742,1650406690.327634,77.0,0.0,4352.820313,4716.922852000001,4088.205078,4286.153809,4278.461426,450.0,4.0,91.0,,,,0.0,4.0,0.0,0.0,0.0,4.0,0.0,,,,,,,,,,,,,,,,,,,,,,,,,,,,,,,,,,,,,,,,,,,,,,,,,,,,,,,,,,,,,,,,,,,,,,,,,,,,,,,,,,,,
49531,1650406690.325235,1650406690.335449,78.0,0.0,4349.230957,4678.974121,4037.4357909999994,4284.102539,4270.769043,450.0,4.0,91.0,,,,0.0,4.0,0.0,0.0,0.0,4.0,0.0,,,,,,,,39.0,0.0,0.626206,0.610352,0.363037,-0.321777,0.839857,-0.576181,0.014159999999999999,-0.015258,-0.049994,-0.014195,,,,,,,,,,,,,,,,,,,,,,,,,,,,,,,,,,,,,,,,,,,,,,,,,,,,,,,,,,,,,,,,,
49532,1650406690.333049,1650406690.343163,79.0,0.0,4320.0,4607.179688,4049.743652,4283.077147999999,4240.512695,16157.0,4.0,91.0,,,,0.0,4.0,0.0,0.0,0.0,4.0,0.0,,,,,,,,,,,,,,,,,,,,,,,,,,,,,,,,,,,,,,,,,,,,,,,,,,,,,,,,,,,,,,,,,,,,,,,,,,,,,,,,,,,,
49533,1650406690.3408642,1650406690.351078,80.0,0.0,4314.358886999999,4561.025879,4143.077147999999,4282.563965,4228.205078,450.0,4.0,91.0,,,,0.0,4.0,0.0,0.0,0.0,4.0,0.0,,,,,,,,40.0,0.0,0.6259279999999999,0.609863,0.363037,-0.32324200000000003,0.8501110000000001,-0.555184,0.02295,-0.015978,-0.049926,-0.015216999999999998,,,,,,,,,,,,,,,,,,,,,,,,,,,,,,,,,,,0.0,0.0,1.0,0.0,512.0,0.89565,,,,,,,,,,,,,,,,,,,,,,,,,
49534,1650406690.3486779,1650406690.358892,81.0,0.0,4320.512695,4565.128418,4151.794922,4282.05127,4247.179688,450.0,4.0,91.0,,,,0.0,4.0,0.0,0.0,0.0,4.0,0.0,,,,,,,,,,,,,,,,,,,,,,,,,,,,,,,,,,,,,,,,,,,,,,,,,,,,,,,,,,,,,,,,,,,,,,,,,,,,,,,,,,,,
49535,1650406690.356493,1650406690.366707,82.0,0.0,4316.410156,4544.102539,4154.871582,4282.05127,4248.717772999999,450.0,4.0,91.0,,,,0.0,4.0,0.0,0.0,0.0,4.0,0.0,,,,,,,,41.0,0.0,0.626985,0.610596,0.362793,-0.32006799999999996,0.834974,-0.579599,0.028321,-0.014428999999999999,-0.049865,-0.016087999999999998,,,,,,,,,,,,,,,,,,,,,,,,,,,,,,,,,,,,,,,,,,,,,,,,,,,,,,,,,,,,,,,,,
49536,1650406690.364307,1650406690.374422,83.0,0.0,4350.256348,4508.205078,4157.436035,4285.641113000001,4260.0,16157.0,4.0,91.0,,,,0.0,4.0,0.0,0.0,0.0,4.0,0.0,,,,,,,,,,,,,,,,,,,,,,,,,,,,,,,,,,,,,,,,,,,,,,,,,,,,,,,,,,,,,,,,,,,,,,,,,,,,,,,,,,,,
49537,1650406690.372122,1650406690.382336,84.0,0.0,4346.666504,4412.820313,4200.0,4285.641113000001,4247.692383,450.0,4.0,91.0,,,,0.0,4.0,0.0,0.0,0.0,4.0,0.0,,,,,,,,42.0,0.0,0.625265,0.6096189999999999,0.363281,-0.324707,0.8296020000000001,-0.548348,0.035157,-0.015183000000000002,-0.049811,-0.013747,1.0,0.0,0.0,,,,,,,,,,,,,,,,,,,,,,,,,,,,,,,,0.0,0.0,1.0,0.0,512.0,0.692991,29.278553000000002,25.717229999999997,9.288739,4.447779,4.747946,579.306335,1098.9841310000002,256.924866,88.589394,94.281296,284.828735,264.18457,73.11116,20.907419,16.464973,0.45886800000000005,0.623378,0.120726,0.056757,0.064321,39.003277000000004,37.584518,6.2602910000000005,4.3243279999999995,3.5906879999999997
49538,1650406690.379936,1650406690.390151,85.0,0.0,4315.384765999999,4369.743652,4178.461426,4280.512695,4249.230957,450.0,4.0,91.0,,,,0.0,4.0,0.0,0.0,0.0,4.0,0.0,,,,,,,,,,,,,,,,,,,,,,,,,,,,,,,,,,,,,,,,,,,,,,,,,,,,,,,,,,,,,,,,,,,,,,,,,,,,,,,,,,,,
49539,1650406690.3877509,1650406690.398066,86.0,0.0,4306.153809,4540.512695,4140.0,4280.512695,4274.871582,450.0,4.0,91.0,,,,0.0,4.0,0.0,0.0,0.0,4.0,0.0,,,,,,,,43.0,0.0,0.624979,0.6091310000000001,0.363281,-0.32617199999999996,0.832044,-0.541024,0.027832,-0.014397,-0.049664,-0.014765,,,,,,,,,,,,,,,,,,,,,,,,,,,,,,,,,,,,,,,,,,,,,,,,,,,,,,,,,,,,,,,,,
49540,1650406690.395565,1650406690.40588,87.0,0.0,4332.820313,4708.205078,4139.487305,4286.153809,4306.666504,16157.0,4.0,91.0,,,,0.0,4.0,0.0,0.0,0.0,4.0,0.0,,,,,,,,,,,,,,,,,,,,,,,,,,,,,,,,,,,,,,,,,,,,,,,,,,,,,,,,,,,,,,,,,,,,,,,,,,,,,,,,,,,,
49541,1650406690.4033802,1650406690.4136949,88.0,0.0,4327.179688,4598.461426,4163.077147999999,4288.205078,4281.025879,450.0,4.0,91.0,,,,0.0,4.0,0.0,0.0,0.0,4.0,0.0,,,,,,,,44.0,0.0,0.624276,0.608643,0.36377,-0.327881,0.83595,-0.544442,0.019532,-0.015203999999999999,-0.049629,-0.01573,,,,,,,,,,,,,,,,,,,,,,,,,,,,,,,,,,,0.0,0.0,1.0,0.0,512.0,0.692991,,,,,,,,,,,,,,,,,,,,,,,,,
49542,1650406690.4111938,1650406690.421409,89.0,0.0,4307.179688,4543.077147999999,4144.615234000001,4286.153809,4258.461426,450.0,4.0,91.0,,,,0.0,4.0,0.0,0.0,0.0,4.0,0.0,,,,,,,,,,,,,,,,,,,,,,,,,,,,,,,,,,,,,,,,,,,,,,,,,,,,,,,,,,,,,,,,,,,,,,,,,,,,,,,,,,,,
49543,1650406690.419009,1650406690.429324,90.0,0.0,4283.077147999999,4682.05127,4140.512695,4284.615234000001,4257.436035,450.0,4.0,91.0,,,,0.0,4.0,0.0,0.0,0.0,4.0,0.0,,,,,,,,45.0,0.0,0.623838,0.608154,0.364014,-0.329346,0.832044,-0.521004,0.010742,-0.016125,-0.049598,-0.0165,,,,,,,,,,,,,,,,,,,,,,,,,,,,,,,,,,,,,,,,,,,,,,,,,,,,,,,,,,,,,,,,,
49544,1650406690.426824,1650406690.437139,91.0,0.0,4300.512695,4675.384765999999,4200.512695,4281.538574,4260.0,16157.0,4.0,91.0,,,,0.0,4.0,0.0,0.0,0.0,4.0,0.0,,,,,,,,,,,,,,,,,,,,,,,,,,,,,,,,,,,,,,,,,,,,,,,,,,,,,,,,,,,,,,,,,,,,,,,,,,,,,,,,,,,,
49545,1650406690.434638,1650406690.4448528,92.0,0.0,4352.820313,4609.230957,4163.077147999999,4281.538574,4299.487305,450.0,4.0,91.0,,,,0.0,4.0,0.0,0.0,0.0,4.0,0.0,,,,,,,,46.0,0.0,0.623171,0.6079100000000001,0.364014,-0.33105500000000004,0.8501110000000001,-0.5097729999999999,0.016602000000000002,-0.01671,-0.049472,-0.017145,,,,,,,,,,,,,,,,,,,,,,,,,,,,,,,,,,,0.0,0.0,1.0,0.0,512.0,0.692991,,,,,,,,,,,,,,,,,,,,,,,,,
49546,1650406690.442453,1650406690.452668,93.0,0.0,4357.436035,4591.794922,4111.794922,4281.538574,4299.487305,450.0,4.0,91.0,,,,0.0,4.0,0.0,0.0,0.0,4.0,0.0,,,,,,,,,,,,,,,,,,,,,,,,,,,,,,,,,,,,,,,,,,,,,,,,,,,,,,,,,,,,,,,,,,,,,,,,,,,,,,,,,,,,
49547,1650406690.450267,1650406690.460383,94.0,0.0,4332.307617,4591.282227000001,4149.743652,4278.974121,4256.410156,450.0,4.0,91.0,,,,0.0,4.0,0.0,0.0,0.0,4.0,0.0,,,,,,,,47.0,0.0,0.6229020000000001,0.607666,0.36377,-0.332275,0.854994,-0.5297930000000001,0.001465,-0.015087999999999999,-0.049457,-0.017677000000000002,,,,,,,,,,,,,,,,,,,,,,,,,,,,,,,,,,,,,,,,,,,,,,,,,,,,,,,,,,,,,,,,,
49548,1650406690.458082,1650406690.468197,95.0,0.0,4303.077147999999,4546.666504,4242.563965,4277.94873,4219.487305,16157.0,4.0,91.0,,,,0.0,4.0,0.0,0.0,0.0,4.0,0.0,,,,,,,,,,,,,,,,,,,,,,,,,,,,,,,,,,,,,,,,,,,,,,,,,,,,,,,,,,,,,,,,,,,,,,,,,,,,,,,,,,,,
49549,1650406690.4658961,1650406690.476112,96.0,0.0,4355.384765999999,4571.282227000001,4168.717772999999,4280.0,4291.282227000001,450.0,4.0,91.0,,,,0.0,4.0,0.0,0.0,0.0,4.0,0.0,,,,,,,,48.0,0.0,0.6222489999999999,0.607666,0.36377,-0.333496,0.8247200000000001,-0.531746,0.011231,-0.015971,-0.049394,-0.015226,,,,,,,,,,,,,,,,,,,,,,,,,,,,,,,,,,,0.0,0.0,1.0,0.0,512.0,0.692991,,,,,,,,,,,,,,,,,,,,,,,,,
49550,1650406690.473711,1650406690.483927,97.0,0.0,4373.846191,4546.153809,4088.718018,4281.538574,4301.025879,450.0,4.0,91.0,,,,0.0,4.0,0.0,0.0,0.0,4.0,0.0,,,,,,,,,,,,,,,,,,,,,,,,,,,,,,,,,,,,,,,,,,,,,,,,,,,,,,,,,,,,,,,,,,,,,,,,,,,,,,,,,,,,
49551,1650406690.481525,1650406690.491641,98.0,0.0,4353.333496,4500.0,3909.743652,4280.512695,4255.384765999999,450.0,4.0,91.0,,,,0.0,4.0,0.0,0.0,0.0,4.0,0.0,,,,,,,,49.0,0.0,0.621879,0.607666,0.363281,-0.334717,0.8325319999999999,-0.515145,0.007812999999999999,-0.016718,-0.049337,-0.015998,,,,,,,,,,,,,,,,,,,,,,,,,,,,,,,,,,,,,,,,,,,,,,,,,,,,,,,,,,,,,,,,,
49552,1650406690.48934,1650406690.4994562,99.0,0.0,4317.436035,4611.794922,3946.1538090000004,4280.0,4259.487305,16157.0,4.0,91.0,,,,0.0,4.0,0.0,0.0,0.0,4.0,0.0,,,,,,,,,,,,,,,,,,,,,,,,,,,,,,,,,,,,,,,,,,,,,,,,,,,,,,,,,,,,,,,,,,,,,,,,,,,,,,,,,,,,
49553,1650406690.497154,1650406690.5071712,100.0,0.0,4324.102539,4589.743652,4051.794922,4282.563965,4282.563965,450.0,4.0,91.0,,,,0.0,4.0,0.0,0.0,0.0,4.0,0.0,,,,,,,,50.0,0.0,0.621267,0.6079100000000001,0.362793,-0.335938,0.8305790000000001,-0.536629,-0.000488,-0.017585,-0.049238,-0.013666,1.0,0.0,0.0,,,,,,,,,,,,,,,,,,,,,,,,,,,,,,,,0.0,0.0,1.0,0.0,512.0,0.663176,23.464499,22.745176,8.932217,4.05294,4.972301,632.887878,993.8425289999999,264.817169,85.654488,99.143906,342.31134,239.48957799999997,58.94815799999999,20.041035,16.545555,0.53288,0.578448,0.114514,0.052695000000000006,0.061149,37.888252,36.418873,5.017282,3.9418550000000003,3.555187
49554,1650406690.504969,1650406690.5149848,101.0,0.0,4308.717772999999,4528.717772999999,3853.8461909999996,4281.538574,4235.897461,450.0,4.0,91.0,,,,0.0,4.0,0.0,0.0,0.0,4.0,0.0,,,,,,,,,,,,,,,,,,,,,,,,,,,,,,,,,,,,,,,,,,,,,,,,,,,,,,,,,,,,,,,,,,,,,,,,,,,,,,,,,,,,
49555,1650406690.512783,1650406690.5227,102.0,0.0,4301.538574,4533.846191,3705.641113,4277.94873,4212.820313,450.0,4.0,91.0,,,,0.0,4.0,0.0,0.0,0.0,4.0,0.0,,,,,,,,51.0,0.0,0.620926,0.608154,0.362061,-0.336914,0.8364389999999999,-0.525887,0.009276999999999999,-0.016559,-0.049294,-0.014643000000000002,,,,,,,,,,,,,,,,,,,,,,,,,,,,,,,,,,,,,,,,,,,,,,,,,,,,,,,,,,,,,,,,,
49556,1650406690.520598,1650406690.530615,103.0,0.0,4328.205078,4423.077147999999,3647.179443,4280.0,4228.717772999999,16157.0,4.0,91.0,,,,0.0,4.0,0.0,0.0,0.0,4.0,0.0,,,,,,,,,,,,,,,,,,,,,,,,,,,,,,,,,,,,,,,,,,,,,,,,,,,,,,,,,,,,,,,,,,,,,,,,,,,,,,,,,,,,
49557,1650406690.5284119,1650406690.538429,104.0,0.0,4322.563965,4351.794922,3483.076904,4281.025879,4202.05127,450.0,4.0,91.0,,,,0.0,4.0,0.0,0.0,0.0,4.0,0.0,,,,,,,,52.0,0.0,0.620583,0.608398,0.36132800000000004,-0.337891,0.8452280000000001,-0.540047,-0.000488,-0.014952000000000002,-0.049248,-0.015522,,,,,,,,,,,,,,,,,,,,,,,,,,,,,,,,,,,0.0,0.0,1.0,0.0,512.0,0.663176,,,,,,,,,,,,,,,,,,,,,,,,,
49558,1650406690.536227,1650406690.546344,105.0,0.0,4302.05127,4499.487305,3386.1538090000004,4278.974121,4192.307617,450.0,4.0,91.0,,,,0.0,4.0,0.0,0.0,0.0,4.0,0.0,,,,,,,,,,,,,,,,,,,,,,,,,,,,,,,,,,,,,,,,,,,,,,,,,,,,,,,,,,,,,,,,,,,,,,,,,,,,,,,,,,,,
49559,1650406690.544042,1650406690.554158,106.0,0.0,4298.461426,4534.871582,3588.718018,4279.487305,4212.820313,450.0,4.0,91.0,,,,0.0,4.0,0.0,0.0,0.0,4.0,0.0,,,,,,,,53.0,0.0,0.620273,0.608887,0.360352,-0.338623,0.846693,-0.537118,0.012206999999999999,-0.014188999999999998,-0.049157,-0.016363,,,,,,,,,,,,,,,,,,,,,,,,,,,,,,,,,,,,,,,,,,,,,,,,,,,,,,,,,,,,,,,,,
49560,1650406690.551856,1650406690.562073,107.0,0.0,4293.846191,4497.436035,3781.025635,4279.487305,4209.743652,16157.0,4.0,91.0,,,,0.0,4.0,0.0,0.0,0.0,4.0,0.0,,,,,,,,,,,,,,,,,,,,,,,,,,,,,,,,,,,,,,,,,,,,,,,,,,,,,,,,,,,,,,,,,,,,,,,,,,,,,,,,,,,,
49561,1650406690.5596712,1650406690.569888,108.0,0.0,4263.589844,4588.717772999999,4012.820557,4278.461426,4181.538574,450.0,4.0,91.0,,,,0.0,4.0,0.0,0.0,0.0,4.0,0.0,,,,,,,,54.0,0.0,0.620093,0.609375,0.359375,-0.339111,0.834485,-0.545419,-0.001465,-0.015163,-0.049075,-0.01707,,,,,,,,,,,,,,,,,,,,,,,,,,,,,,,,,,,0.0,0.0,1.0,0.0,512.0,0.663176,,,,,,,,,,,,,,,,,,,,,,,,,
49562,1650406690.5674849,1650406690.577802,109.0,0.0,4287.692383,4510.256348,4101.025879,4276.410156,4190.769043,450.0,4.0,91.0,,,,0.0,4.0,0.0,0.0,0.0,4.0,0.0,,,,,,,,,,,,,,,,,,,,,,,,,,,,,,,,,,,,,,,,,,,,,,,,,,,,,,,,,,,,,,,,,,,,,,,,,,,,,,,,,,,,
49563,1650406690.5753,1650406690.585617,110.0,0.0,4320.0,4385.641113000001,4140.512695,4275.384765999999,4212.820313,450.0,4.0,91.0,,,,0.0,4.0,0.0,0.0,0.0,4.0,0.0,,,,,,,,55.0,0.0,0.619636,0.609863,0.358643,-0.339844,0.842298,-0.559579,0.008301000000000001,-0.015941999999999998,-0.049148000000000004,-0.014533,,,,,,,,,,,,,,,,,,,,,,,,,,,,,,,,,,,,,,,,,,,,,,,,,,,,,,,,,,,,,,,,,
49564,1650406690.5831141,1650406690.5935311,111.0,0.0,4298.461426,4416.922852000001,4123.589844,4280.0,4214.871582,16157.0,4.0,91.0,,,,0.0,4.0,0.0,0.0,0.0,4.0,0.0,,,,,,,,,,,,,,,,,,,,,,,,,,,,,,,,,,,,,,,,,,,,,,,,,,,,,,,,,,,,,,,,,,,,,,,,,,,,,,,,,,,,
49565,1650406690.5909288,1650406690.601346,112.0,0.0,4267.692383,4461.025879,3890.7692869999996,4282.563965,4198.461426,450.0,4.0,91.0,,,,0.0,4.0,0.0,0.0,0.0,4.0,0.0,,,,,,,,56.0,0.0,0.619451,0.610352,0.357666,-0.340332,0.8330209999999999,-0.556649,0.007324,-0.016789,-0.049117,-0.015521,,,,,,,,,,,,,,,,,,,,,,,,,,,,,,,,,,,0.0,0.0,1.0,0.0,512.0,0.663176,,,,,,,,,,,,,,,,,,,,,,,,,
49566,1650406690.598743,1650406690.609261,113.0,0.0,4320.512695,4520.0,3684.102539,4279.487305,4254.871582,450.0,4.0,91.0,,,,0.0,4.0,0.0,0.0,0.0,4.0,0.0,,,,,,,,,,,,,,,,,,,,,,,,,,,,,,,,,,,,,,,,,,,,,,,,,,,,,,,,,,,,,,,,,,,,,,,,,,,,,,,,,,,,
49567,1650406690.606558,1650406690.617075,114.0,0.0,4340.0,4589.743652,3732.3076170000004,4279.487305,4278.974121,450.0,4.0,91.0,,,,0.0,4.0,0.0,0.0,0.0,4.0,0.0,,,,,,,,57.0,0.0,0.6190899999999999,0.610596,0.357178,-0.341064,0.8486459999999999,-0.576181,-0.001953,-0.017503,-0.049039,-0.016313,,,,,,,,,,,,,,,,,,,,,,,,,,,,,,,,,,,,,,,,,,,,,,,,,,,,,,,,,,,,,,,,,
49568,1650406690.614372,1650406690.62489,115.0,0.0,4325.128418,4623.077147999999,3738.974365,4281.538574,4261.025879,16157.0,4.0,91.0,,,,0.0,4.0,0.0,0.0,0.0,4.0,0.0,,,,,,,,,,,,,,,,,,,,,,,,,,,,,,,,,,,,,,,,,,,,,,,,,,,,,,,,,,,,,,,,,,,,,,,,,,,,,,,,,,,,
49569,1650406690.622187,1650406690.632705,116.0,0.0,4327.692383,4644.102539,3712.3076170000004,4279.487305,4263.589844,450.0,4.0,91.0,,,,0.0,4.0,0.0,0.0,0.0,4.0,0.0,,,,,,,,58.0,0.0,0.618726,0.6108399999999999,0.356689,-0.34179699999999996,0.849622,-0.574228,0.0,-0.018096,-0.04892,-0.017074000000000002,1.0,0.0,0.0,,,,,,,,,,,,,,,,,,,,,,,,,,,,,,,,0.0,0.0,1.0,0.0,512.0,0.14181400000000002,23.101372,19.536699,8.005094999999999,3.5916910000000004,5.099521,652.204529,857.5889279999999,256.146271,79.470718,100.770325,379.752747,212.04510499999998,46.301097999999996,19.315205,15.74756,0.570725,0.5140939999999999,0.107623,0.05064,0.055345000000000005,37.459686,32.396553000000004,4.383035,3.629942,3.462715
49570,1650406690.630001,1650406690.640419,117.0,0.0,4358.461426,4620.512695,3783.5898439999996,4278.974121,4298.974121,450.0,4.0,91.0,,,,0.0,4.0,0.0,0.0,0.0,4.0,0.0,,,,,,,,,,,,,,,,,,,,,,,,,,,,,,,,,,,,,,,,,,,,,,,,,,,,,,,,,,,,,,,,,,,,,,,,,,,,,,,,,,,,
49571,1650406690.637816,1650406690.648234,118.0,0.0,4367.692383,4574.358886999999,3782.0512700000004,4282.05127,4301.025879,450.0,4.0,91.0,,,,0.0,4.0,0.0,0.0,0.0,4.0,0.0,,,,,,,,59.0,0.0,0.619451,0.610352,0.357666,-0.340332,0.8330209999999999,-0.556649,0.007324,-0.018777000000000002,-0.048911,-0.014537000000000001,,,,,,,,,,,,,,,,,,,,,,,,,,,,,,,,,,,,,,,,,,,,,,,,,,,,,,,,,,,,,,,,,
49572,1650406690.6456301,1650406690.655949,119.0,0.0,4343.589844,4512.820313,3784.615479,4282.05127,4266.666504,16157.0,4.0,91.0,,,,0.0,4.0,0.0,0.0,0.0,4.0,0.0,,,,,,,,,,,,,,,,,,,,,,,,,,,,,,,,,,,,,,,,,,,,,,,,,,,,,,,,,,,,,,,,,,,,,,,,,,,,,,,,,,,,
49573,1650406690.653445,1650406690.663763,120.0,0.0,4322.05127,4442.563965,3747.6923829999996,4281.025879,4242.05127,450.0,4.0,91.0,,,,0.0,4.0,0.0,0.0,0.0,4.0,0.0,,,,,,,,60.0,0.0,0.618726,0.6108399999999999,0.356689,-0.34179699999999996,0.849622,-0.574228,0.0,-0.019243,-0.048805,-0.015475999999999998,,,,,,,,,,,,,,,,,,,,,,,,,,,,,,,,,,,0.0,0.0,1.0,0.0,512.0,0.14181400000000002,,,,,,,,,,,,,,,,,,,,,,,,,
49574,1650406690.66126,1650406690.671478,121.0,0.0,4326.666504,4465.641113000001,3696.4101560000004,4280.512695,4248.717772999999,450.0,4.0,91.0,,,,0.0,4.0,0.0,0.0,0.0,4.0,0.0,,,,,,,,,,,,,,,,,,,,,,,,,,,,,,,,,,,,,,,,,,,,,,,,,,,,,,,,,,,,,,,,,,,,,,,,,,,,,,,,,,,,
49575,1650406690.669074,1650406690.679293,122.0,0.0,4341.538574,4537.436035,3700.0,4281.025879,4271.282227000001,450.0,4.0,91.0,,,,0.0,4.0,0.0,0.0,0.0,4.0,0.0,,,,,,,,61.0,0.0,0.618221,0.611084,0.35644499999999996,-0.342529,0.843275,-0.570321,-0.003418,-0.019662,-0.048856000000000004,-0.013147,,,,,,,,,,,,,,,,,,,,,,,,,,,,,,,,,,,,,,,,,,,,,,,,,,,,,,,,,,,,,,,,,
49576,1650406690.6768892,1650406690.687007,123.0,0.0,4331.794922,4580.512695,3691.794922,4282.05127,4271.794922,16157.0,4.0,91.0,,,,0.0,4.0,0.0,0.0,0.0,4.0,0.0,,,,,,,,,,,,,,,,,,,,,,,,,,,,,,,,,,,,,,,,,,,,,,,,,,,,,,,,,,,,,,,,,,,,,,,,,,,,,,,,,,,,
49577,1650406690.6847029,1650406690.694922,124.0,0.0,4357.94873,4562.05127,3695.384521,4283.077147999999,4294.358886999999,450.0,4.0,91.0,,,,0.0,4.0,0.0,0.0,0.0,4.0,0.0,,,,,,,,62.0,0.0,0.617578,0.611328,0.35620100000000005,-0.343506,0.8520639999999999,-0.564462,0.0063479999999999995,-0.018477,-0.048951,-0.014225,,,,,,,,,,,,,,,,,,,,,,,,,,,,,,,,,,,0.0,0.0,1.0,0.0,512.0,0.14181400000000002,,,,,,,,,,,,,,,,,,,,,,,,,
49578,1650406690.692518,1650406690.7027369,125.0,0.0,4384.615234000001,4577.94873,3706.6667479999996,4282.563965,4317.436035,450.0,4.0,91.0,,,,0.0,4.0,0.0,0.0,0.0,4.0,0.0,,,,,,,,,,,,,,,,,,,,,,,,,,,,,,,,,,,,,,,,,,,,,,,,,,,,,,,,,,,,,,,,,,,,,,,,,,,,,,,,,,,,
49579,1650406690.700332,1650406690.710651,126.0,0.0,4354.358886999999,4678.974121,3689.2307130000004,4281.538574,4308.205078,450.0,4.0,91.0,,,,0.0,4.0,0.0,0.0,0.0,4.0,0.0,,,,,,,,63.0,0.0,0.616933,0.611572,0.355957,-0.344482,0.851087,-0.577646,0.002441,-0.018974,-0.048889999999999996,-0.01207,,,,,,,,,,,,,,,,,,,,,,,,,,,,,,,,,,,,,,,,,,,,,,,,,,,,,,,,,,,,,,,,,
49580,1650406690.708147,1650406690.718466,127.0,0.0,4340.0,4635.897461,3692.3076170000004,4281.538574,4291.794922,242.0,4.0,91.0,,,,0.0,4.0,0.0,0.0,0.0,4.0,0.0,,,,,,,,,,,,,,,,,,,,,,,,,,,,,,,,,,,,,,,,,,,,,,,,,,,,,,,,,,,,,,,,,,,,,,,,,,,,,,,,,,,,
49581,1650406690.715961,1650406690.72638,0.0,0.0,4386.153809,4491.282227000001,3675.384521,4281.025879,4300.512695,450.0,4.0,91.0,,,,0.0,4.0,0.0,0.0,0.0,4.0,0.0,,,,,,,,0.0,0.0,0.6161439999999999,0.611816,0.355957,-0.345459,0.8418100000000001,-0.5615319999999999,0.003418,-0.019469,-0.048982,-0.013207,,,,,,,,,,,,,,,,,,,,,,,,,,,,,,,,,,,0.0,0.0,1.0,0.0,512.0,0.14181400000000002,,,,,,,,,,,,,,,,,,,,,,,,,
49582,1650406690.7237759,1650406690.734195,1.0,0.0,4397.94873,4511.794922,3708.205078,4280.0,4297.94873,450.0,4.0,91.0,,,,0.0,4.0,0.0,0.0,0.0,4.0,0.0,,,,,,,,,,,,,,,,,,,,,,,,,,,,,,,,,,,,,,,,,,,,,,,,,,,,,,,,,,,,,,,,,,,,,,,,,,,,,,,,,,,,
49583,1650406690.73159,1650406690.74211,2.0,0.0,4372.820313,4568.205078,3744.102539,4280.512695,4289.230957,16185.0,4.0,91.0,,,,0.0,4.0,0.0,0.0,0.0,4.0,0.0,,,,,,,,1.0,0.0,0.615733,0.611816,0.355957,-0.34619099999999997,0.849134,-0.550301,-0.003906,-0.019816999999999998,-0.048869,-0.011154,,,,,,,,,,,,,,,,,,,,,,,,,,,,,,,,,,,,,,,,,,,,,,,,,,,,,,,,,,,,,,,,,
49584,1650406690.7394052,1650406690.749924,3.0,0.0,4351.282227000001,4504.102539,3764.615479,4281.025879,4270.256348,450.0,4.0,91.0,,,,0.0,4.0,0.0,0.0,0.0,4.0,0.0,,,,,,,,,,,,,,,,,,,,,,,,,,,,,,,,,,,,,,,,,,,,,,,,,,,,,,,,,,,,,,,,,,,,,,,,,,,,,,,,,,,,
49585,1650406690.7472188,1650406690.757839,4.0,0.0,4363.077147999999,4501.025879,3685.641113,4280.512695,4280.0,17.0,4.0,91.0,,,,0.0,4.0,0.0,0.0,0.0,4.0,0.0,1.0,0.0,3.0,0.0,0.0,0.0,3.0,2.0,0.0,0.6152880000000001,0.611572,0.355957,-0.347412,0.851087,-0.541024,0.000488,-0.017981999999999998,-0.048816000000000005,-0.012431000000000001,1.0,0.0,0.0,,,,,,,,,,,,,,,,,,,,,,,,,,,,,,,,0.0,0.0,1.0,0.0,512.0,0.086357,22.731325,16.21455,6.629303,3.118362,5.064404,631.4747309999999,711.9315190000001,229.16612200000003,70.247574,97.617561,392.418274,186.992294,36.552921000000005,18.866820999999998,14.412594,0.560783,0.43845100000000004,0.0975,0.048826,0.04761,33.901268,25.861731,4.004625,3.3589879999999996,3.3450580000000003
49586,1650406690.755034,1650406690.765653,5.0,0.0,4395.384765999999,4521.025879,3633.8461909999996,4282.05127,4316.410156,450.0,4.0,91.0,,,,0.0,4.0,0.0,0.0,0.0,4.0,0.0,,,,,,,,,,,,,,,,,,,,,,,,,,,,,,,,,,,,,,,,,,,,,,,,,,,,,,,,,,,,,,,,,,,,,,,,,,,,,,,,,,,,
49587,1650406690.762849,1650406690.773568,6.0,0.0,4410.256348,4443.077147999999,3635.897461,4282.563965,4322.05127,0.0,4.0,91.0,,,,0.0,4.0,0.0,0.0,0.0,4.0,0.0,,,,,,,,3.0,0.0,0.615116,0.611328,0.355957,-0.348145,0.8447389999999999,-0.540536,-0.000977,-0.016281,-0.04872,-0.013531999999999999,,,,,,,,,,,,,,,,,,,,,,,,,,,,,,,,,,,,,,,,,,,,,,,,,,,,,,,,,,,,,,,,,
49588,1650406690.770663,1650406690.781383,7.0,0.0,4385.641113000001,4412.307617,3631.794922,4281.025879,4294.871582,450.0,4.0,91.0,,,,0.0,4.0,0.0,0.0,0.0,4.0,0.0,,,,,,,,,,,,,,,,,,,,,,,,,,,,,,,,,,,,,,,,,,,,,,,,,,,,,,,,,,,,,,,,,,,,,,,,,,,,,,,,,,,,
49589,1650406690.778478,1650406690.789297,8.0,0.0,4360.512695,4476.410156,3660.512939,4282.05127,4289.743652,450.0,4.0,91.0,,,,0.0,4.0,0.0,0.0,0.0,4.0,0.0,,,,,,,,4.0,0.0,0.6146659999999999,0.611084,0.355957,-0.34936500000000004,0.8408329999999999,-0.544442,0.016114,-0.014750999999999998,-0.048731000000000003,-0.014571,,,,,,,,,,,,,,,,,,,,,,,,,,,,,,,,,,,0.0,0.0,1.0,0.0,512.0,0.086357,,,,,,,,,,,,,,,,,,,,,,,,,
49590,1650406690.786292,1650406690.797112,9.0,0.0,4378.461426,4516.410156,3656.4101560000004,4288.205078,4323.077147999999,0.0,4.0,91.0,,,,0.0,4.0,0.0,0.0,0.0,4.0,0.0,,,,,,,,,,,,,,,,,,,,,,,,,,,,,,,,,,,,,,,,,,,,,,,,,,,,,,,,,,,,,,,,,,,,,,,,,,,,,,,,,,,,
