,Timestamp,OriginalTimestamp,EEG.Counter,EEG.Interpolated,EEG.AF3,EEG.T7,EEG.Pz,EEG.T8,EEG.AF4,EEG.RawCq,EEG.Battery,EEG.BatteryPercent,MarkerIndex,MarkerType,MarkerValueInt,EEG.MarkerHardware,CQ.AF3,CQ.T7,CQ.Pz,CQ.T8,CQ.AF4,CQ.Overall,EQ.SampleRateQuality,EQ.OVERALL,EQ.AF3,EQ.T7,EQ.Pz,EQ.T8,EQ.AF4,MOT.CounterMems,MOT.InterpolatedMems,MOT.Q0,MOT.Q1,MOT.Q2,MOT.Q3,MOT.AccX,MOT.AccY,MOT.AccZ,MOT.MagX,MOT.MagY,MOT.MagZ,MC.Action,MC.ActionPower,MC.IsActive,PM.Engagement.IsActive,PM.Engagement.Scaled,PM.Engagement.Raw,PM.Engagement.Min,PM.Engagement.Max,PM.Excitement.IsActive,PM.Excitement.Scaled,PM.Excitement.Raw,PM.Excitement.Min,PM.Excitement.Max,PM.LongTermExcitement,PM.Stress.IsActive,PM.Stress.Scaled,PM.Stress.Raw,PM.Stress.Min,PM.Stress.Max,PM.Relaxation.IsActive,PM.Relaxation.Scaled,PM.Relaxation.Raw,PM.Relaxation.Min,PM.Relaxation.Max,PM.Interest.IsActive,PM.Interest.Scaled,PM.Interest.Raw,PM.Interest.Min,PM.Interest.Max,PM.Focus.IsActive,PM.Focus.Scaled,PM.Focus.Raw,PM.Focus.Min,PM.Focus.Max,FE.BlinkWink,FE.HorizontalEyesDirection,FE.UpperFaceAction,FE.UpperFaceActionPower,FE.LowerFaceAction,FE.LowerFaceActionPower,POW.AF3.Theta,POW.AF3.Alpha,POW.AF3.BetaL,POW.AF3.BetaH,POW.AF3.Gamma,POW.T7.Theta,POW.T7.Alpha,POW.T7.BetaL,POW.T7.BetaH,POW.T7.Gamma,POW.Pz.Theta,POW.Pz.Alpha,POW.Pz.BetaL,POW.Pz.BetaH,POW.Pz.Gamma,POW.T8.Theta,POW.T8.Alpha,POW.T8.BetaL,POW.T8.BetaH,POW.T8.Gamma,POW.AF4.Theta,POW.AF4.Alpha,POW.AF4.BetaL,POW.AF4.BetaH,POW.AF4.Gamma
11335,1645649562.458172,1645649562.479901,115.0,0.0,4259.487305,4251.794922,4305.128418,4293.846191,4137.436035,256.0,3.0,64.0,18.0,1.0,2.0,0.0,4.0,0.0,0.0,0.0,2.0,0.0,,,,,,,,,,,,,,,,,,,,,,,,,,,,,,,,,,,,,,,,,,,,,,,,,,,,,,0.0,0.0,1.0,0.0,512.0,1.0,,,,,,,,,,,,,,,,,,,,,,,,,
11336,1645649562.4659882,1645649562.487715,116.0,0.0,4385.128418,4082.5642090000006,4337.436035,4286.666504,4128.205078,450.0,3.0,64.0,,,,0.0,4.0,0.0,0.0,0.0,2.0,0.0,,,,,,,,58.0,0.0,0.7169300000000001,0.44824200000000003,0.400146,-0.353516,0.891127,-0.35352100000000003,-0.257328,-0.013034,-0.054163,-0.028783,,,,,,,,,,,,,,,,,,,,,,,,,,,,,,,,,,,,,,,,,,,,,,,,,,,,,,,,,,,,,,,,,
11337,1645649562.473804,1645649562.4955301,117.0,0.0,4462.05127,4104.615234000001,4354.358886999999,4276.922852000001,4163.589844,450.0,3.0,64.0,,,,0.0,4.0,0.0,0.0,0.0,2.0,0.0,,,,,,,,,,,,,,,,,,,,,,,,,,,,,,,,,,,,,,,,,,,,,,,,,,,,,,,,,,,,,,,,,,,,,,,,,,,,,,,,,,,,
11338,1645649562.4816198,1645649562.503344,118.0,0.0,4454.358886999999,4339.487305,4273.333496,4276.922852000001,4216.410156,450.0,3.0,64.0,,,,0.0,4.0,0.0,0.0,0.0,2.0,0.0,,,,,,,,59.0,0.0,0.716809,0.44824200000000003,0.400146,-0.35375999999999996,0.8969860000000001,-0.356939,-0.272465,-0.013683,-0.05416699999999999,-0.025269999999999997,,,,,,,,,,,,,,,,,,,,,,,,,,,,,,,,,,,,,,,,,,,,,,,,,,,,,,,,,,,,,,,,,
11339,1645649562.489436,1645649562.511059,119.0,0.0,4456.410156,4503.589844,4211.794922,4275.897461,4207.179688,256.0,3.0,64.0,,,,0.0,4.0,0.0,0.0,0.0,2.0,0.0,,,,,,,,,,,,,,,,,,,,,,,,,,,,,,,,,,,,,,,,,,,,,,,,,,,,,,0.0,0.0,1.0,0.0,512.0,1.0,,,,,,,,,,,,,,,,,,,,,,,,,
11340,1645649562.497251,1645649562.518873,120.0,0.0,4449.230957,4650.256348,4181.538574,4276.410156,4205.128418,450.0,3.0,64.0,,,,0.0,4.0,0.0,0.0,0.0,2.0,0.0,,,,,,,,60.0,0.0,0.716809,0.44824200000000003,0.400146,-0.35375999999999996,0.8916149999999999,-0.358404,-0.279789,-0.012706,-0.05417,-0.028308999999999997,,,,,,,,,,,,,,,,,,,,,,,,,,,,,,,,,,,,,,,,,,,,,,,,,,,,,,,,,,,,,,,,,
11341,1645649562.505067,1645649562.526687,121.0,0.0,4414.871582,5086.153809,4132.307617,4278.974121,4249.743652,450.0,3.0,64.0,,,,0.0,4.0,0.0,0.0,0.0,2.0,0.0,,,,,,,,,,,,,,,,,,,,,,,,,,,,,,,,,,,,,,,,,,,,,,,,,,,,,,,,,,,,,,,,,,,,,,,,,,,,,,,,,,,,
11342,1645649562.512883,1645649562.534502,122.0,0.0,4453.846191,5195.384765999999,4131.794922,4282.05127,4316.922852000001,450.0,3.0,64.0,,,,0.0,4.0,0.0,0.0,0.0,2.0,0.0,,,,,,,,61.0,0.0,0.716946,0.44824200000000003,0.399902,-0.35375999999999996,0.903334,-0.37109899999999996,-0.283696,-0.013437000000000001,-0.054075,-0.024794999999999998,,,,,,,,,,,,,,,,,,,,,,,,,,,,,,,,,,,,,,,,,,,,,,,,,,,,,,,,,,,,,,,,,
11343,1645649562.520699,1645649562.542316,123.0,0.0,4409.743652,4972.820313,4166.666504,4284.615234000001,4316.922852000001,256.0,3.0,64.0,,,,0.0,4.0,0.0,0.0,0.0,2.0,0.0,,,,,,,,,,,,,,,,,,,,,,,,,,,,,,,,,,,,,,,,,,,,,,,,,,,,,,0.0,0.0,1.0,0.0,512.0,1.0,,,,,,,,,,,,,,,,,,,,,,,,,
11344,1645649562.528515,1645649562.550131,124.0,0.0,4359.487305,4856.922852000001,4134.871582,4286.666504,4306.153809,450.0,3.0,64.0,,,,0.0,4.0,0.0,0.0,0.0,2.0,0.0,,,,,,,,62.0,0.0,0.716809,0.44824200000000003,0.400146,-0.35375999999999996,0.8969860000000001,-0.356939,-0.272465,-0.013949000000000001,-0.054137,-0.021778,,,,,,,,,,,,,,,,,,,,,,,,,,,,,,,,,,,,,,,,,,,,,,,,,,,,,,,,,,,,,,,,,
11345,1645649562.536331,1645649562.557945,125.0,0.0,4361.025879,4418.974121,4154.871582,4290.256348,4245.128418,450.0,3.0,64.0,,,,0.0,4.0,0.0,0.0,0.0,2.0,0.0,,,,,,,,,,,,,,,,,,,,,,,,,,,,,,,,,,,,,,,,,,,,,,,,,,,,,,,,,,,,,,,,,,,,,,,,,,,,,,,,,,,,
11346,1645649562.544146,1645649562.565759,126.0,0.0,4404.615234000001,4151.794922,4281.538574,4290.769043,4248.717772999999,450.0,3.0,64.0,,,,0.0,4.0,0.0,0.0,0.0,2.0,0.0,,,,,,,,63.0,0.0,0.716946,0.44824200000000003,0.399902,-0.35375999999999996,0.903334,-0.37109899999999996,-0.283696,-0.014556,-0.054045,-0.018917,,,,,,,,,,,,,,,,,,,,,,,,,,,,,,,,,,,,,,,,,,,,,,,,,,,,,,,,,,,,,,,,,
11347,1645649562.551962,1645649562.573474,127.0,0.0,4517.436035,4481.025879,4307.692383,4279.487305,4316.410156,236.0,3.0,64.0,,,,0.0,2.0,4.0,0.0,0.0,2.0,16.666666,,,,,,,,,,,,,,,,,,,,1.0,0.0,0.0,,,,,,,,,,,,,,,,,,,,,,,,,,,,,,,,0.0,0.0,1.0,0.0,512.0,1.0,110.674522,148.98783899999998,49.963264,38.511726,9.340447,977.273743,2206.683594,1194.5507810000001,468.696259,159.801971,98.53235600000001,100.057289,10.298615,18.734007000000002,4.824105,0.23070700000000002,0.34477800000000003,0.21154099999999998,0.070457,0.050529000000000004,95.30648000000001,109.417847,49.687084000000006,28.679471999999997,13.123510000000001
11348,1645649562.559778,1645649562.581288,0.0,0.0,4567.692383,4698.461426,4255.384765999999,4274.358886999999,4323.077147999999,450.0,3.0,64.0,,,,0.0,2.0,4.0,0.0,0.0,2.0,16.666666,,,,,,,,0.0,0.0,0.716793,0.44848599999999994,0.399902,-0.35375999999999996,0.8994280000000001,-0.361334,-0.270512,-0.015102,-0.054110000000000005,-0.022591,,,,,,,,,,,,,,,,,,,,,,,,,,,,,,,,,,,,,,,,,,,,,,,,,,,,,,,,,,,,,,,,,
11349,1645649562.567594,1645649562.589103,1.0,0.0,4388.205078,4887.692383,4193.846191,4280.512695,4282.563965,450.0,3.0,64.0,,,,0.0,2.0,4.0,0.0,0.0,2.0,16.666666,,,,,,,,,,,,,,,,,,,,,,,,,,,,,,,,,,,,,,,,,,,,,,,,,,,,,,,,,,,,,,,,,,,,,,,,,,,,,,,,,,,,
11350,1645649562.57541,1645649562.596917,2.0,0.0,4293.333496,5149.230957,4234.871582,4281.538574,4279.487305,240.0,3.0,64.0,,,,0.0,2.0,4.0,0.0,0.0,2.0,16.666666,,,,,,,,1.0,0.0,0.716793,0.44848599999999994,0.399902,-0.35375999999999996,0.8994280000000001,-0.37598200000000004,-0.284672,-0.015496000000000001,-0.05407000000000001,-0.019746,,,,,,,,,,,,,,,,,,,,,,,,,,,,,,,,,,,,,,,,,,,,,,,,,,,,,,,,,,,,,,,,,
11351,1645649562.583226,1645649562.604732,3.0,0.0,4311.794922,5123.589844,4280.0,4284.102539,4231.282227000001,450.0,3.0,64.0,,,,0.0,2.0,4.0,0.0,0.0,2.0,16.666666,,,,,,,,,,,,,,,,,,,,,,,,,,,,,,,,,,,,,,,,,,,,,,,,,,,,,,0.0,0.0,1.0,0.0,512.0,1.0,,,,,,,,,,,,,,,,,,,,,,,,,
11352,1645649562.591041,1645649562.6125462,4.0,0.0,4233.846191,4859.487305,4249.230957,4287.692383,4164.102539,16173.0,3.0,64.0,,,,0.0,2.0,4.0,0.0,0.0,2.0,16.666666,,,,,,,,2.0,0.0,0.716793,0.44848599999999994,0.399902,-0.35375999999999996,0.8955209999999999,-0.365728,-0.29443800000000003,-0.0159,-0.05418099999999999,-0.023288999999999997,,,,,,,,,,,,,,,,,,,,,,,,,,,,,,,,,,,,,,,,,,,,,,,,,,,,,,,,,,,,,,,,,
11353,1645649562.598857,1645649562.62036,5.0,0.0,4185.128418,4502.563965,4218.974121,4288.717772999999,4146.666504,450.0,3.0,64.0,,,,0.0,2.0,4.0,0.0,0.0,2.0,16.666666,,,,,,,,,,,,,,,,,,,,,,,,,,,,,,,,,,,,,,,,,,,,,,,,,,,,,,,,,,,,,,,,,,,,,,,,,,,,,,,,,,,,
11354,1645649562.606673,1645649562.628175,6.0,0.0,4257.94873,4392.820313,4276.410156,4292.307617,4171.794922,0.0,3.0,64.0,,,,0.0,2.0,4.0,0.0,0.0,2.0,16.666666,,,,,,,,3.0,0.0,0.716672,0.44848599999999994,0.399902,-0.354004,0.904799,-0.35547399999999996,-0.283696,-0.016165000000000002,-0.054085,-0.026527,,,,,,,,,,,,,,,,,,,,,,,,,,,,,,,,,,,,,,,,,,,,,,,,,,,,,,,,,,,,,,,,,
11355,1645649562.614489,1645649562.635989,7.0,0.0,4413.846191,4391.282227000001,4273.846191,4289.230957,4205.128418,450.0,3.0,64.0,,,,0.0,2.0,4.0,0.0,0.0,2.0,16.666666,,,,,,,,,,,,,,,,,,,,,,,,,,,,,,,,,,,,,,,,,,,,,,,,,,,,,,0.0,0.0,1.0,0.0,512.0,1.0,,,,,,,,,,,,,,,,,,,,,,,,,
11356,1645649562.6223052,1645649562.6438038,8.0,0.0,4516.410156,4081.538574,4274.871582,4280.0,4191.794922,450.0,3.0,64.0,,,,0.0,2.0,4.0,0.0,0.0,2.0,16.666666,,,,,,,,4.0,0.0,0.716809,0.44848599999999994,0.399658,-0.354004,0.8994280000000001,-0.364263,-0.29395,-0.016404,-0.054048,-0.02949,,,,,,,,,,,,,,,,,,,,,,,,,,,,,,,,,,,,,,,,,,,,,,,,,,,,,,,,,,,,,,,,,
11357,1645649562.630121,1645649562.6515179,9.0,0.0,4524.102539,4243.589844,4232.307617,4277.94873,4243.077147999999,0.0,3.0,64.0,,,,0.0,2.0,4.0,0.0,0.0,4.0,16.666666,,,,,,,,,,,,,,,,,,,,,,,,,,,,,,,,,,,,,,,,,,,,,,,,,,,,,,,,,,,,,,,,,,,,,,,,,,,,,,,,,,,,
11358,1645649562.6379359,1645649562.659333,10.0,0.0,4533.333496,4904.102539,4165.641113000001,4276.922852000001,4337.436035,450.0,3.0,64.0,,,,0.0,2.0,4.0,0.0,0.0,4.0,16.666666,,,,,,,,5.0,0.0,0.716929,0.44848599999999994,0.399658,-0.35375999999999996,0.897475,-0.358404,-0.293462,-0.015155000000000002,-0.054063,-0.032254000000000005,,,,,,,,,,,,,,,,,,,,,,,,,,,,,,,,,,,,,,,,,,,,,,,,,,,,,,,,,,,,,,,,,
11359,1645649562.645752,1645649562.6671472,11.0,0.0,4492.820313,4912.820313,4184.615234000001,4277.94873,4350.256348,16114.0,3.0,64.0,,,,0.0,2.0,4.0,0.0,0.0,4.0,16.666666,,,,,,,,,,,,,,,,,,,,,,,,,,,,,,,,,,,,,,,,,,,,,,,,,,,,,,0.0,0.0,1.0,0.0,512.0,1.0,,,,,,,,,,,,,,,,,,,,,,,,,
11360,1645649562.653568,1645649562.6749609,12.0,0.0,4296.922852000001,4805.128418,4217.94873,4285.641113000001,4301.025879,450.0,3.0,64.0,,,,0.0,2.0,4.0,0.0,0.0,4.0,16.666666,,,,,,,,6.0,0.0,0.716929,0.44848599999999994,0.399658,-0.35375999999999996,0.901869,-0.35938000000000003,-0.285161,-0.015591999999999998,-0.054125,-0.034644,,,,,,,,,,,,,,,,,,,,,,,,,,,,,,,,,,,,,,,,,,,,,,,,,,,,,,,,,,,,,,,,,
11361,1645649562.6613839,1645649562.682776,13.0,0.0,4289.230957,4891.282227000001,4201.538574,4288.717772999999,4337.94873,450.0,3.0,64.0,,,,0.0,2.0,4.0,0.0,0.0,4.0,16.666666,,,,,,,,,,,,,,,,,,,,,,,,,,,,,,,,,,,,,,,,,,,,,,,,,,,,,,,,,,,,,,,,,,,,,,,,,,,,,,,,,,,,
11362,1645649562.6692,1645649562.6905901,14.0,0.0,4365.128418,4422.563965,4196.410156,4287.692383,4272.820313,450.0,3.0,64.0,,,,0.0,2.0,4.0,0.0,0.0,4.0,16.666666,,,,,,,,7.0,0.0,0.7169449999999999,0.44848599999999994,0.399414,-0.354004,0.9043110000000001,-0.359869,-0.29443800000000003,-0.014325999999999998,-0.05413300000000001,-0.036746,,,,,,,,,,,,,,,,,,,,,,,,,,,,,,,,,,,,,,,,,,,,,,,,,,,,,,,,,,,,,,,,,
11363,1645649562.677016,1645649562.698405,15.0,0.0,4344.615234000001,4050.256348,4227.179688,4288.205078,4132.820313,16114.0,3.0,64.0,,,,0.0,2.0,4.0,0.0,0.0,4.0,16.666666,,,,,,,,,,,,,,,,,,,,1.0,0.0,0.0,,,,,,,,,,,,,,,,,,,,,,,,,,,,,,,,0.0,0.0,1.0,0.0,512.0,1.0,94.13718399999999,149.515366,78.862808,34.820007000000004,12.609241,992.4251710000001,2634.8479,1779.8540039999998,543.690735,200.93515,100.775711,101.070465,14.733204999999998,15.880494,5.810023,0.222173,0.439992,0.355151,0.083372,0.058911,112.39821599999999,123.44474,66.140152,30.727503000000002,12.927952000000001
11364,1645649562.684832,1645649562.706219,16.0,0.0,4373.333496,4436.922852000001,4222.05127,4280.512695,4113.333496,0.0,3.0,64.0,,,,0.0,2.0,4.0,0.0,0.0,4.0,16.666666,,,,,,,,8.0,0.0,0.7169449999999999,0.44848599999999994,0.399414,-0.354004,0.8964979999999999,-0.36084499999999997,-0.292973,-0.014894999999999999,-0.054091,-0.032387,,,,,,,,,,,,,,,,,,,,,,,,,,,,,,,,,,,,,,,,,,,,,,,,,,,,,,,,,,,,,,,,,
11365,1645649562.692647,1645649562.7140331,17.0,0.0,4430.769043,4679.487305,4277.436035,4276.922852000001,4215.384765999999,0.0,3.0,64.0,,,,0.0,2.0,4.0,0.0,0.0,4.0,16.666666,,,,,,,,,,,,,,,,,,,,,,,,,,,,,,,,,,,,,,,,,,,,,,,,,,,,,,,,,,,,,,,,,,,,,,,,,,,,,,,,,,,,
11366,1645649562.700463,1645649562.721748,18.0,0.0,4409.743652,4247.179688,4341.025879,4277.436035,4239.487305,0.0,3.0,64.0,,,,0.0,2.0,4.0,0.0,0.0,4.0,16.666666,,,,,,,,9.0,0.0,0.7169449999999999,0.44848599999999994,0.399414,-0.354004,0.91017,-0.356451,-0.287602,-0.015359000000000001,-0.054003999999999996,-0.034714999999999996,,,,,,,,,,,,,,,,,,,,,,,,,,,,,,,,,,,,,,,,,,,,,,,,,,,,,,,,,,,,,,,,,
11367,1645649562.708279,1645649562.7295618,19.0,0.0,4426.666504,4090.7692869999996,4348.205078,4277.94873,4183.589844,0.0,3.0,64.0,,,,0.0,2.0,4.0,0.0,0.0,4.0,16.666666,,,,,,,,,,,,,,,,,,,,,,,,,,,,,,,,,,,,,,,,,,,,,,,,,,,,,,0.0,0.0,1.0,0.0,512.0,1.0,,,,,,,,,,,,,,,,,,,,,,,,,
11368,1645649562.716095,1645649562.737377,20.0,0.0,4438.974121,4801.025879,4233.333496,4277.94873,4180.0,0.0,3.0,64.0,,,,0.0,2.0,4.0,0.0,0.0,4.0,16.666666,,,,,,,,10.0,0.0,0.7169449999999999,0.44848599999999994,0.399414,-0.354004,0.9116350000000001,-0.36328699999999997,-0.286625,-0.014066999999999998,-0.054072,-0.036957,,,,,,,,,,,,,,,,,,,,,,,,,,,,,,,,,,,,,,,,,,,,,,,,,,,,,,,,,,,,,,,,,
11369,1645649562.723911,1645649562.745191,21.0,0.0,4392.820313,5292.820313,4197.436035,4275.897461,4206.666504,0.0,3.0,64.0,,,,0.0,2.0,4.0,0.0,0.0,4.0,16.666666,,,,,,,,,,,,,,,,,,,,,,,,,,,,,,,,,,,,,,,,,,,,,,,,,,,,,,,,,,,,,,,,,,,,,,,,,,,,,,,,,,,,
11370,1645649562.731727,1645649562.753006,22.0,0.0,4329.230957,5017.436035,4238.461426,4281.025879,4198.974121,0.0,3.0,64.0,,,,0.0,2.0,4.0,0.0,0.0,4.0,16.666666,,,,,,,,11.0,0.0,0.7169449999999999,0.44848599999999994,0.399414,-0.354004,0.897475,-0.36914600000000003,-0.290044,-0.014565,-0.054036,-0.032675,,,,,,,,,,,,,,,,,,,,,,,,,,,,,,,,,,,,,,,,,,,,,,,,,,,,,,,,,,,,,,,,,
11371,1645649562.739542,1645649562.76082,23.0,0.0,4243.589844,4912.307617,4218.461426,4286.666504,4207.179688,0.0,3.0,64.0,,,,0.0,2.0,4.0,0.0,0.0,4.0,16.666666,,,,,,,,,,,,,,,,,,,,,,,,,,,,,,,,,,,,,,,,,,,,,,,,,,,,,,0.0,0.0,1.0,0.0,512.0,1.0,,,,,,,,,,,,,,,,,,,,,,,,,
11372,1645649562.747358,1645649562.768634,24.0,0.0,4272.307617,4828.717772999999,4155.384765999999,4287.179688,4246.666504,0.0,3.0,64.0,,,,0.0,2.0,4.0,0.0,0.0,4.0,16.666666,,,,,,,,12.0,0.0,0.7169449999999999,0.44848599999999994,0.399414,-0.354004,0.8955209999999999,-0.350103,-0.289067,-0.015013,-0.05415,-0.02887,,,,,,,,,,,,,,,,,,,,,,,,,,,,,,,,,,,,,,,,,,,,,,,,,,,,,,,,,,,,,,,,,
11373,1645649562.755174,1645649562.776449,25.0,0.0,4330.769043,4278.974121,4195.384765999999,4291.282227000001,4203.589844,0.0,3.0,64.0,,,,0.0,2.0,4.0,0.0,0.0,4.0,16.666666,,,,,,,,,,,,,,,,,,,,,,,,,,,,,,,,,,,,,,,,,,,,,,,,,,,,,,,,,,,,,,,,,,,,,,,,,,,,,,,,,,,,
11374,1645649562.76299,1645649562.7842631,26.0,0.0,4395.897461,4245.641113000001,4226.153809,4292.820313,4218.461426,0.0,3.0,64.0,,,,0.0,2.0,4.0,0.0,0.0,4.0,16.666666,,,,,,,,13.0,0.0,0.7169449999999999,0.44848599999999994,0.399414,-0.354004,0.8930799999999999,-0.36817,-0.28809,-0.013853,-0.054301999999999996,-0.03155,,,,,,,,,,,,,,,,,,,,,,,,,,,,,,,,,,,,,,,,,,,,,,,,,,,,,,,,,,,,,,,,,
11375,1645649562.770806,1645649562.791978,27.0,0.0,4559.487305,4638.974121,4203.589844,4276.922852000001,4256.922852000001,0.0,3.0,64.0,,,,0.0,2.0,4.0,0.0,0.0,4.0,16.666666,,,,,,,,,,,,,,,,,,,,,,,,,,,,,,,,,,,,,,,,,,,,,,,,,,,,,,0.0,0.0,1.0,0.0,512.0,1.0,,,,,,,,,,,,,,,,,,,,,,,,,
11376,1645649562.7786222,1645649562.799792,28.0,0.0,4616.922852000001,4765.128418,4194.871582,4273.846191,4286.666504,0.0,3.0,64.0,,,,0.0,2.0,4.0,0.0,0.0,4.0,16.666666,,,,,,,,14.0,0.0,0.717065,0.44848599999999994,0.399414,-0.35375999999999996,0.89015,-0.37158800000000003,-0.285161,-0.014372,-0.05424299999999999,-0.027808999999999997,,,,,,,,,,,,,,,,,,,,,,,,,,,,,,,,,,,,,,,,,,,,,,,,,,,,,,,,,,,,,,,,,
11377,1645649562.7864368,1645649562.807607,29.0,0.0,4433.333496,5046.153809,4198.461426,4286.666504,4360.512695,0.0,3.0,64.0,,,,0.0,2.0,4.0,0.0,0.0,4.0,16.666666,,,,,,,,,,,,,,,,,,,,,,,,,,,,,,,,,,,,,,,,,,,,,,,,,,,,,,,,,,,,,,,,,,,,,,,,,,,,,,,,,,,,
11378,1645649562.7942529,1645649562.815421,30.0,0.0,4370.769043,5033.846191,4223.589844,4290.256348,4367.692383,0.0,3.0,64.0,,,,0.0,2.0,4.0,0.0,0.0,4.0,16.666666,,,,,,,,15.0,0.0,0.717169,0.44873,0.39916999999999997,-0.353516,0.8994280000000001,-0.357427,-0.289067,-0.014741999999999998,-0.054189999999999995,-0.030643,,,,,,,,,,,,,,,,,,,,,,,,,,,,,,,,,,,,,,,,,,,,,,,,,,,,,,,,,,,,,,,,,
11379,1645649562.802069,1645649562.823235,31.0,0.0,4376.922852000001,4460.0,4244.615234000001,4290.256348,4186.153809,0.0,3.0,64.0,,,,0.0,2.0,4.0,0.0,0.0,4.0,16.666666,0.972656,0.0,1.0,0.0,0.0,0.0,0.0,,,,,,,,,,,,,1.0,0.0,0.0,,,,,,,,,,,,,,,,,,,,,,,,,,,,,,,,0.0,0.0,1.0,0.0,512.0,1.0,80.62915799999999,144.08367900000002,114.235771,31.979774,16.216877,1056.854614,2842.893555,2508.499023,654.403809,239.27580299999997,104.200958,100.393272,20.765369,12.965775,6.897078,0.21708200000000002,0.509307,0.537251,0.10308599999999998,0.069819,133.821579,136.518768,80.260857,31.460062,12.465734
11380,1645649562.809885,1645649562.83105,32.0,0.0,4347.692383,4255.897461,4288.717772999999,4289.743652,4158.461426,0.0,3.0,64.0,,,,0.0,2.0,4.0,0.0,0.0,4.0,16.666666,,,,,,,,16.0,0.0,0.717256,0.448975,0.39916999999999997,-0.353027,0.8896620000000001,-0.36230999999999997,-0.289555,-0.015318,-0.054190999999999996,-0.033292,,,,,,,,,,,,,,,,,,,,,,,,,,,,,,,,,,,,,,,,,,,,,,,,,,,,,,,,,,,,,,,,,
11381,1645649562.8177009,1645649562.838864,33.0,0.0,4342.563965,4179.487305,4291.282227000001,4283.077147999999,4254.358886999999,0.0,3.0,64.0,,,,0.0,2.0,4.0,0.0,0.0,4.0,16.666666,,,,,,,,,,,,,,,,,,,,,,,,,,,,,,,,,,,,,,,,,,,,,,,,,,,,,,,,,,,,,,,,,,,,,,,,,,,,,,,,,,,,
11382,1645649562.825517,1645649562.846679,34.0,0.0,4369.743652,3893.3332520000004,4275.897461,4282.05127,4183.077147999999,0.0,3.0,64.0,,,,0.0,2.0,4.0,0.0,0.0,4.0,16.666666,,,,,,,,17.0,0.0,0.717294,0.44970699999999997,0.398926,-0.35229499999999997,0.8842909999999999,-0.355962,-0.288579,-0.014128,-0.054192,-0.029327999999999996,,,,,,,,,,,,,,,,,,,,,,,,,,,,,,,,,,,,,,,,,,,,,,,,,,,,,,,,,,,,,,,,,
11383,1645649562.833332,1645649562.854493,35.0,0.0,4428.717772999999,4350.769043,4249.230957,4281.538574,4124.615234000001,0.0,3.0,64.0,,,,0.0,2.0,4.0,0.0,0.0,4.0,16.666666,,,,,,,,,,,,,,,,,,,,,,,,,,,,,,,,,,,,,,,,,,,,,,,,,,,,,,0.0,0.0,1.0,0.0,512.0,1.0,,,,,,,,,,,,,,,,,,,,,,,,,
11384,1645649562.8411481,1645649562.862307,36.0,0.0,4508.205078,5105.641113000001,4253.846191,4280.0,4275.897461,0.0,3.0,64.0,,,,0.0,2.0,4.0,0.0,0.0,4.0,16.666666,,,,,,,,18.0,0.0,0.717279,0.45068400000000003,0.398926,-0.351074,0.89015,-0.353033,-0.281254,-0.013253000000000001,-0.054046000000000004,-0.032059,,,,,,,,,,,,,,,,,,,,,,,,,,,,,,,,,,,,,,,,,,,,,,,,,,,,,,,,,,,,,,,,,
11385,1645649562.848964,1645649562.870022,37.0,0.0,4508.205078,4627.179688,4230.769043,4287.179688,4353.846191,0.0,3.0,64.0,,,,0.0,2.0,4.0,0.0,0.0,4.0,16.666666,,,,,,,,,,,,,,,,,,,,,,,,,,,,,,,,,,,,,,,,,,,,,,,,,,,,,,,,,,,,,,,,,,,,,,,,,,,,,,,,,,,,
11386,1645649562.85678,1645649562.877836,38.0,0.0,4520.512695,3933.3332520000004,4282.563965,4293.846191,4311.282227000001,0.0,3.0,64.0,,,,0.0,2.0,4.0,0.0,0.0,4.0,16.666666,,,,,,,,19.0,0.0,0.7174659999999999,0.451172,0.39868200000000004,-0.350342,0.8930799999999999,-0.372564,-0.277836,-0.013880000000000002,-0.054013,-0.03442,,,,,,,,,,,,,,,,,,,,,,,,,,,,,,,,,,,,,,,,,,,,,,,,,,,,,,,,,,,,,,,,,
11387,1645649562.8645961,1645649562.8856509,39.0,0.0,4990.256348,4269.743652,4305.128418,4294.871582,4416.922852000001,0.0,3.0,64.0,,,,0.0,2.0,4.0,0.0,0.0,4.0,16.666666,,,,,,,,,,,,,,,,,,,,,,,,,,,,,,,,,,,,,,,,,,,,,,,,,,,,,,0.0,0.0,1.0,0.0,512.0,1.0,,,,,,,,,,,,,,,,,,,,,,,,,
11388,1645649562.872412,1645649562.893465,40.0,0.0,5277.94873,4765.128418,4242.563965,4301.538574,4550.769043,0.0,3.0,64.0,,,,0.0,2.0,4.0,0.0,0.0,4.0,16.666666,,,,,,,,20.0,0.0,0.717463,0.45214799999999994,0.398438,-0.34936500000000004,0.8916149999999999,-0.386725,-0.285649,-0.014494,-0.053983,-0.030392000000000002,,,,,,,,,,,,,,,,,,,,,,,,,,,,,,,,,,,,,,,,,,,,,,,,,,,,,,,,,,,,,,,,,
11389,1645649562.8802269,1645649562.901279,41.0,0.0,5806.666504,4707.692383,4190.769043,4324.615234000001,4591.794922,0.0,3.0,64.0,,,,0.0,2.0,4.0,0.0,0.0,4.0,16.666666,,,,,,,,,,,,,,,,,,,,,,,,,,,,,,,,,,,,,,,,,,,,,,,,,,,,,,,,,,,,,,,,,,,,,,,,,,,,,,,,,,,,
11390,1645649562.888043,1645649562.9090939,42.0,0.0,6596.922852000001,4547.692383,4246.666504,4354.871582,4647.179688,0.0,3.0,64.0,,,,0.0,2.0,4.0,0.0,0.0,4.0,16.666666,,,,,,,,21.0,0.0,0.717647,0.452637,0.39819299999999996,-0.34863299999999997,0.8999159999999999,-0.37793499999999997,-0.28076599999999996,-0.014998,-0.054102,-0.026767000000000003,,,,,,,,,,,,,,,,,,,,,,,,,,,,,,,,,,,,,,,,,,,,,,,,,,,,,,,,,,,,,,,,,
11391,1645649562.895859,1645649562.916908,43.0,0.0,7213.333495999999,4646.153809,4276.922852000001,4401.538574,4843.077147999999,0.0,3.0,64.0,,,,0.0,2.0,4.0,0.0,0.0,4.0,16.666666,,,,,,,,,,,,,,,,,,,,,,,,,,,,,,,,,,,,,,,,,,,,,,,,,,,,,,0.0,0.0,1.0,0.0,512.0,1.0,,,,,,,,,,,,,,,,,,,,,,,,,
11392,1645649562.903675,1645649562.9247231,44.0,0.0,7575.897461,4783.589844,4218.461426,4448.717772999999,4963.589844,0.0,3.0,64.0,,,,0.0,2.0,4.0,0.0,0.0,4.0,16.666666,,,,,,,,22.0,0.0,0.717692,0.45336899999999997,0.39770500000000003,-0.348145,0.9121229999999999,-0.37793499999999997,-0.281254,-0.015451,-0.054209,-0.029802999999999996,,,,,,,,,,,,,,,,,,,,,,,,,,,,,,,,,,,,,,,,,,,,,,,,,,,,,,,,,,,,,,,,,
11393,1645649562.911491,1645649562.9325368,45.0,0.0,7848.205078,4815.897461,4159.487305,4476.922852000001,5025.128418,0.0,3.0,64.0,,,,0.0,2.0,4.0,0.0,0.0,4.0,16.666666,,,,,,,,,,,,,,,,,,,,,,,,,,,,,,,,,,,,,,,,,,,,,,,,,,,,,,,,,,,,,,,,,,,,,,,,,,,,,,,,,,,,
11394,1645649562.919307,1645649562.940252,46.0,0.0,7927.692383,4746.153809,4168.205078,4500.0,5094.871582,0.0,3.0,64.0,,,,0.0,2.0,4.0,0.0,0.0,4.0,16.666666,,,,,,,,23.0,0.0,0.717775,0.453613,0.39770500000000003,-0.347656,0.909682,-0.383307,-0.271489,-0.014297,-0.05430599999999999,-0.032536,,,,,,,,,,,,,,,,,,,,,,,,,,,,,,,,,,,,,,,,,,,,,,,,,,,,,,,,,,,,,,,,,
11395,1645649562.927122,1645649562.948066,47.0,0.0,7736.410156,4687.179688,4241.538574,4510.256348,5181.538574,0.0,3.0,64.0,,,,0.0,2.0,4.0,0.0,0.0,4.0,16.666666,,,,,,,,,,,,,,,,,,,,1.0,0.0,0.0,,,,,,,,,,,,,,,,,,,,,,,,,,,,,,,,0.0,0.0,1.0,0.0,512.0,0.6154890000000001,75.677513,133.408356,153.426315,31.038458000000002,19.534231,1161.3863529999999,2746.7182620000003,3303.9213870000003,785.393738,270.844849,108.03440900000001,99.107162,28.382471000000002,10.281103,7.952519000000001,0.21618400000000002,0.530623,0.738321,0.127576,0.082912,155.214066,147.625412,89.318703,30.679185999999998,11.825328
11396,1645649562.9349382,1645649562.955781,48.0,0.0,7838.974120999999,4703.077147999999,4271.282227000001,4518.461426,5215.897461,0.0,3.0,64.0,,,,0.0,2.0,4.0,0.0,0.0,4.0,16.666666,,,,,,,,24.0,0.0,0.717874,0.45385699999999995,0.397461,-0.347412,0.900893,-0.387701,-0.27881300000000003,-0.014772,-0.054393,-0.034946,,,,,,,,,,,,,,,,,,,,,,,,,,,,,,,,,,,,,,,,,,,,,,,,,,,,,,,,,,,,,,,,,
11397,1645649562.9427538,1645649562.963595,49.0,0.0,7781.538573999999,4756.922852000001,4262.05127,4514.871582,5213.333496,0.0,3.0,64.0,,,,0.0,2.0,4.0,0.0,0.0,4.0,16.666666,,,,,,,,,,,,,,,,,,,,,,,,,,,,,,,,,,,,,,,,,,,,,,,,,,,,,,,,,,,,,,,,,,,,,,,,,,,,,,,,,,,,
11398,1645649562.9505699,1645649562.971409,50.0,0.0,7768.717773,4802.05127,4228.717772999999,4519.487305,5257.94873,0.0,3.0,64.0,,,,0.0,2.0,4.0,0.0,0.0,4.0,16.666666,,,,,,,,25.0,0.0,0.717692,0.45336899999999997,0.39770500000000003,-0.348145,0.9121229999999999,-0.37793499999999997,-0.281254,-0.015199,-0.054423,-0.030817,,,,,,,,,,,,,,,,,,,,,,,,,,,,,,,,,,,,,,,,,,,,,,,,,,,,,,,,,,,,,,,,,
11399,1645649562.958386,1645649562.979224,51.0,0.0,7771.282227,4777.94873,4277.436035,4518.461426,5310.256348,0.0,3.0,64.0,,,,0.0,2.0,4.0,0.0,0.0,4.0,16.666666,,,,,,,,,,,,,,,,,,,,,,,,,,,,,,,,,,,,,,,,,,,,,,,,,,,,,,0.0,0.0,1.0,0.0,512.0,0.6154890000000001,,,,,,,,,,,,,,,,,,,,,,,,,
11400,1645649562.966202,1645649562.9870381,52.0,0.0,7768.717773,4790.256348,4257.436035,4519.487305,5314.358886999999,0.0,3.0,64.0,,,,0.0,2.0,4.0,0.0,0.0,4.0,16.666666,,,,,,,,26.0,0.0,0.717874,0.45385699999999995,0.397461,-0.347412,0.900893,-0.387701,-0.27881300000000003,-0.015583000000000001,-0.054498000000000005,-0.033399,,,,,,,,,,,,,,,,,,,,,,,,,,,,,,,,,,,,,,,,,,,,,,,,,,,,,,,,,,,,,,,,,
11401,1645649562.9740179,1645649562.994853,53.0,0.0,7769.230956999999,4783.589844,4237.436035,4519.487305,5284.615234000001,0.0,3.0,64.0,,,,0.0,2.0,4.0,0.0,0.0,4.0,16.666666,,,,,,,,,,,,,,,,,,,,,,,,,,,,,,,,,,,,,,,,,,,,,,,,,,,,,,,,,,,,,,,,,,,,,,,,,,,,,,,,,,,,
11402,1645649562.981834,1645649563.002667,54.0,0.0,7770.256348000001,4730.256348,4249.230957,4517.94873,5304.615234000001,0.0,3.0,64.0,,,,0.0,2.0,4.0,0.0,0.0,4.0,16.666666,,,,,,,,27.0,0.0,0.7177560000000001,0.45385699999999995,0.397461,-0.347656,0.9028459999999999,-0.386725,-0.277348,-0.015929,-0.054516999999999996,-0.035772000000000005,,,,,,,,,,,,,,,,,,,,,,,,,,,,,,,,,,,,,,,,,,,,,,,,,,,,,,,,,,,,,,,,,
11403,1645649562.989649,1645649563.010481,55.0,0.0,7770.769043000001,4711.282227000001,4263.589844,4521.025879,5335.897461,0.0,3.0,64.0,,,,0.0,2.0,4.0,0.0,0.0,4.0,16.666666,,,,,,,,,,,,,,,,,,,,,,,,,,,,,,,,,,,,,,,,,,,,,,,,,,,,,,0.0,0.0,1.0,0.0,512.0,0.6154890000000001,,,,,,,,,,,,,,,,,,,,,,,,,
11404,1645649562.9974651,1645649563.018296,56.0,0.0,7770.256348000001,4733.846191,4181.025879,4521.025879,5336.922852000001,0.0,3.0,64.0,,,,0.0,2.0,4.0,0.0,0.0,4.0,16.666666,,,,,,,,28.0,0.0,0.71791,0.453613,0.397461,-0.347656,0.882826,-0.395514,-0.27686,-0.014629,-0.054534000000000006,-0.037908,,,,,,,,,,,,,,,,,,,,,,,,,,,,,,,,,,,,,,,,,,,,,,,,,,,,,,,,,,,,,,,,,
11405,1645649563.005281,1645649563.02601,57.0,0.0,7770.256348000001,4732.307617,4154.871582,4520.512695,5293.846191,0.0,3.0,64.0,,,,0.0,2.0,4.0,0.0,0.0,4.0,16.666666,,,,,,,,,,,,,,,,,,,,,,,,,,,,,,,,,,,,,,,,,,,,,,,,,,,,,,,,,,,,,,,,,,,,,,,,,,,,,,,,,,,,
11406,1645649563.013097,1645649563.033825,58.0,0.0,7770.256348000001,4697.436035,4210.256348,4520.0,5307.179688,0.0,3.0,64.0,,,,0.0,2.0,4.0,0.0,0.0,4.0,16.666666,,,,,,,,29.0,0.0,0.717882,0.45288100000000003,0.39770500000000003,-0.348389,0.8955209999999999,-0.40235,-0.271977,-0.015071000000000001,-0.05455,-0.033531,,,,,,,,,,,,,,,,,,,,,,,,,,,,,,,,,,,,,,,,,,,,,,,,,,,,,,,,,,,,,,,,,
11407,1645649563.0209131,1645649563.041639,59.0,0.0,7770.256348000001,4687.179688,4224.102539,4522.563965,5364.615234000001,0.0,3.0,64.0,,,,0.0,2.0,4.0,0.0,0.0,4.0,16.666666,,,,,,,,,,,,,,,,,,,,,,,,,,,,,,,,,,,,,,,,,,,,,,,,,,,,,,0.0,0.0,1.0,0.0,512.0,0.6154890000000001,,,,,,,,,,,,,,,,,,,,,,,,,
11408,1645649563.028729,1645649563.049454,60.0,0.0,7770.256348000001,4693.846191,4177.436035,4522.563965,5359.487305,0.0,3.0,64.0,,,,0.0,2.0,4.0,0.0,0.0,4.0,16.666666,,,,,,,,30.0,0.0,0.717888,0.451904,0.397949,-0.34936500000000004,0.894057,-0.40576799999999996,-0.272465,-0.013954,-0.05471,-0.035745,,,,,,,,,,,,,,,,,,,,,,,,,,,,,,,,,,,,,,,,,,,,,,,,,,,,,,,,,,,,,,,,,
11409,1645649563.0365438,1645649563.057268,61.0,0.0,7770.256348000001,4716.410156,4142.05127,4522.05127,5254.358886999999,0.0,3.0,64.0,,,,0.0,2.0,4.0,0.0,0.0,4.0,16.666666,,,,,,,,,,,,,,,,,,,,,,,,,,,,,,,,,,,,,,,,,,,,,,,,,,,,,,,,,,,,,,,,,,,,,,,,,,,,,,,,,,,,
11410,1645649563.04436,1645649563.065082,62.0,0.0,7777.94873,4751.282227000001,4194.871582,4520.512695,5219.487305,0.0,3.0,64.0,,,,0.0,2.0,4.0,0.0,0.0,4.0,16.666666,,,,,,,,31.0,0.0,0.717755,0.450928,0.398438,-0.350342,0.8872209999999999,-0.379889,-0.277836,-0.012852,-0.05470800000000001,-0.037883,,,,,,,,,,,,,,,,,,,,,,,,,,,,,,,,,,,,,,,,,,,,,,,,,,,,,,,,,,,,,,,,,
11411,1645649563.052176,1645649563.072897,63.0,0.0,7801.538573999999,4739.487305,4230.256348,4520.0,5218.974121,0.0,3.0,64.0,,,,0.0,2.0,4.0,0.0,0.0,4.0,16.666666,,,,,,,,,,,,,,,,,,,,1.0,0.0,0.0,,,,,,,,,,,,,,,,,,,,,,,,,,,,,,,,0.0,0.0,1.0,0.0,512.0,0.32511100000000004,120.959579,135.008759,195.915482,32.294193,21.974199,1272.172852,2378.709717,4069.533447,910.7723390000001,295.449615,110.599731,98.036484,36.89716,8.114681,8.887209,0.32085199999999997,0.5119630000000001,0.929984,0.151886,0.096429,173.203384,157.811295,92.541832,28.630423999999998,11.201356
11412,1645649563.059992,1645649563.080711,64.0,0.0,7775.897461,4648.205078,4244.102539,4518.461426,5175.384765999999,450.0,3.0,64.0,,,,0.0,2.0,4.0,0.0,0.0,4.0,16.666666,,,,,,,,32.0,0.0,0.7176020000000001,0.45019499999999996,0.39868200000000004,-0.35131799999999996,0.9028459999999999,-0.366217,-0.297856,-0.012006000000000001,-0.054608000000000004,-0.03971,,,,,,,,,,,,,,,,,,,,,,,,,,,,,,,,,,,,,,,,,,,,,,,,,,,,,,,,,,,,,,,,,
11413,1645649563.067808,1645649563.088526,65.0,0.0,7849.230956999999,4629.743652,4232.820313,4500.0,5076.922852000001,450.0,3.0,64.0,,,,0.0,2.0,4.0,0.0,0.0,4.0,16.666666,,,,,,,,,,,,,,,,,,,,,,,,,,,,,,,,,,,,,,,,,,,,,,,,,,,,,,,,,,,,,,,,,,,,,,,,,,,,,,,,,,,,
11414,1645649563.075624,1645649563.09624,66.0,0.0,7849.743651999999,4774.358886999999,4236.922852000001,4488.205078,4978.461426,0.0,3.0,64.0,,,,0.0,0.0,1.0,0.0,0.0,2.0,0.0,,,,,,,,33.0,0.0,0.717533,0.44970699999999997,0.398926,-0.35180700000000004,0.892592,-0.376959,-0.293462,-0.011147,-0.054665,-0.041402999999999995,,,,,,,,,,,,,,,,,,,,,,,,,,,,,,,,,,,,,,,,,,,,,,,,,,,,,,,,,,,,,,,,,
11415,1645649563.083439,1645649563.104054,67.0,0.0,7642.05127,4751.794922,4260.0,4462.563965,4836.922852000001,450.0,3.0,64.0,,,,0.0,0.0,1.0,0.0,0.0,2.0,0.0,,,,,,,,,,,,,,,,,,,,,,,,,,,,,,,,,,,,,,,,,,,,,,,,,,,,,,0.0,0.0,1.0,0.0,512.0,0.32511100000000004,,,,,,,,,,,,,,,,,,,,,,,,,
11416,1645649563.0912552,1645649563.1118689,68.0,0.0,7569.743651999999,4529.230957,4354.358886999999,4431.282227000001,4772.820313,63.0,3.0,64.0,,,,0.0,0.0,1.0,0.0,0.0,2.0,0.0,,,,,,,,34.0,0.0,0.7176,0.449219,0.398926,-0.35229499999999997,0.8955209999999999,-0.364752,-0.286625,-0.011888,-0.05461900000000001,-0.042878,,,,,,,,,,,,,,,,,,,,,,,,,,,,,,,,,,,,,,,,,,,,,,,,,,,,,,,,,,,,,,,,,
11417,1645649563.099071,1645649563.119683,69.0,0.0,6998.461426000001,4483.589844,4348.205078,4404.102539,4721.538574,450.0,3.0,64.0,,,,0.0,0.0,1.0,0.0,0.0,2.0,0.0,,,,,,,,,,,,,,,,,,,,,,,,,,,,,,,,,,,,,,,,,,,,,,,,,,,,,,,,,,,,,,,,,,,,,,,,,,,,,,,,,,,,
11418,1645649563.1068869,1645649563.1274981,70.0,0.0,6435.384765999999,4613.333496,4249.743652,4392.820313,4563.589844,0.0,3.0,64.0,,,,0.0,0.0,1.0,0.0,0.0,2.0,0.0,,,,,,,,35.0,0.0,0.71748,0.449219,0.398926,-0.352539,0.9028459999999999,-0.359869,-0.292485,-0.011139,-0.054528,-0.044206,,,,,,,,,,,,,,,,,,,,,,,,,,,,,,,,,,,,,,,,,,,,,,,,,,,,,,,,,,,,,,,,,
11419,1645649563.114703,1645649563.1353118,71.0,0.0,5931.794922,4686.153809,4188.205078,4372.307617,4474.871582,450.0,3.0,64.0,,,,0.0,0.0,1.0,0.0,0.0,2.0,0.0,,,,,,,,,,,,,,,,,,,,,,,,,,,,,,,,,,,,,,,,,,,,,,,,,,,,,,0.0,0.0,1.0,0.0,512.0,0.32511100000000004,,,,,,,,,,,,,,,,,,,,,,,,,
11420,1645649563.122519,1645649563.143127,72.0,0.0,5597.436035,4767.692383,4202.563965,4354.358886999999,4581.538574,450.0,3.0,64.0,,,,0.0,0.0,1.0,0.0,0.0,2.0,0.0,,,,,,,,36.0,0.0,0.717377,0.448975,0.39916999999999997,-0.352783,0.908217,-0.36035700000000004,-0.288579,-0.011929,-0.054495,-0.045498000000000004,,,,,,,,,,,,,,,,,,,,,,,,,,,,,,,,,,,,,,,,,,,,,,,,,,,,,,,,,,,,,,,,,
11421,1645649563.1303349,1645649563.1509411,73.0,0.0,5121.025879,4780.512695,4226.153809,4349.743652,4625.641113000001,0.0,3.0,64.0,,,,0.0,0.0,1.0,0.0,0.0,2.0,0.0,,,,,,,,,,,,,,,,,,,,,,,,,,,,,,,,,,,,,,,,,,,,,,,,,,,,,,,,,,,,,,,,,,,,,,,,,,,,,,,,,,,,
11422,1645649563.13815,1645649563.158755,74.0,0.0,4825.641113000001,4366.666504,4260.0,4342.05127,4458.461426,450.0,3.0,64.0,,,,0.0,0.0,1.0,0.0,0.0,2.0,0.0,,,,,,,,37.0,0.0,0.717241,0.448975,0.399414,-0.352783,0.9038219999999999,-0.359869,-0.287602,-0.012689,-0.054465999999999994,-0.040362,,,,,,,,,,,,,,,,,,,,,,,,,,,,,,,,,,,,,,,,,,,,,,,,,,,,,,,,,,,,,,,,,
11423,1645649563.145966,1645649563.16657,75.0,0.0,4626.153809,4218.974121,4268.205078,4333.333496,4422.563965,285.0,3.0,64.0,,,,0.0,0.0,1.0,0.0,0.0,2.0,0.0,,,,,,,,,,,,,,,,,,,,,,,,,,,,,,,,,,,,,,,,,,,,,,,,,,,,,,0.0,0.0,1.0,0.0,512.0,0.32511100000000004,,,,,,,,,,,,,,,,,,,,,,,,,
11424,1645649563.1537821,1645649563.174284,76.0,0.0,4388.717772999999,4872.307617,4207.692383,4316.410156,4550.769043,450.0,3.0,64.0,,,,0.0,0.0,1.0,0.0,0.0,2.0,0.0,,,,,,,,38.0,0.0,0.717377,0.448975,0.39916999999999997,-0.352783,0.891127,-0.37158800000000003,-0.27881300000000003,-0.013325,-0.05439,-0.041844,,,,,,,,,,,,,,,,,,,,,,,,,,,,,,,,,,,,,,,,,,,,,,,,,,,,,,,,,,,,,,,,,
11425,1645649563.161598,1645649563.182099,77.0,0.0,4325.641113000001,5226.666504,4154.358886999999,4309.743652,4576.410156,450.0,3.0,64.0,,,,0.0,0.0,1.0,0.0,0.0,2.0,0.0,,,,,,,,,,,,,,,,,,,,,,,,,,,,,,,,,,,,,,,,,,,,,,,,,,,,,,,,,,,,,,,,,,,,,,,,,,,,,,,,,,,,
11426,1645649563.169414,1645649563.189913,78.0,0.0,4049.2307130000004,4485.128418,4192.820313,4305.641113000001,4364.102539,450.0,3.0,64.0,,,,0.0,0.0,1.0,0.0,0.0,2.0,0.0,,,,,,,,39.0,0.0,0.717121,0.448975,0.399414,-0.353027,0.877943,-0.36914600000000003,-0.271489,-0.013799,-0.054274,-0.043226,,,,,,,,,,,,,,,,,,,,,,,,,,,,,,,,,,,,,,,,,,,,,,,,,,,,,,,,,,,,,,,,,
11427,1645649563.1772301,1645649563.197727,79.0,0.0,3911.281982,4063.5898439999996,4257.94873,4306.153809,4285.641113000001,285.0,3.0,64.0,,,,0.0,0.0,1.0,0.0,0.0,2.0,0.0,,,,,,,,,,,,,,,,,,,,1.0,0.0,0.0,,,,,,,,,,,,,,,,,,,,,,,,,,,,,,,,0.0,0.0,1.0,0.0,512.0,0.306155,388.971405,181.990997,243.66657999999998,35.748577000000004,23.29344,1339.704834,1865.078247,4691.058105,1007.648926,317.60784900000004,110.553772,97.30477900000001,44.688266999999996,6.696866,9.675811,1.235479,0.598072,1.113574,0.176835,0.10766700000000001,189.51207,165.580139,90.996277,25.812286,10.864780999999999
11428,1645649563.185045,1645649563.205542,80.0,0.0,3732.820557,4812.820313,4221.025879,4307.179688,4431.282227000001,450.0,3.0,64.0,,,,0.0,0.0,1.0,0.0,0.0,2.0,0.0,,,,,,,,40.0,0.0,0.717121,0.448975,0.399414,-0.353027,0.904799,-0.363775,-0.279789,-0.014322999999999999,-0.054265999999999995,-0.044469999999999996,,,,,,,,,,,,,,,,,,,,,,,,,,,,,,,,,,,,,,,,,,,,,,,,,,,,,,,,,,,,,,,,,
11429,1645649563.1928608,1645649563.213356,81.0,0.0,3634.358887,5233.333496,4221.025879,4303.589844,4486.153809,450.0,3.0,64.0,,,,0.0,0.0,1.0,0.0,0.0,2.0,0.0,,,,,,,,,,,,,,,,,,,,,,,,,,,,,,,,,,,,,,,,,,,,,,,,,,,,,,,,,,,,,,,,,,,,,,,,,,,,,,,,,,,,
11430,1645649563.200677,1645649563.2211711,82.0,0.0,3521.025635,4855.897461,4282.05127,4303.589844,4310.769043,450.0,3.0,64.0,,,,0.0,0.0,1.0,0.0,0.0,2.0,0.0,,,,,,,,41.0,0.0,0.717121,0.448975,0.399414,-0.353027,0.898451,-0.375494,-0.279789,-0.014747,-0.054308,-0.03929,,,,,,,,,,,,,,,,,,,,,,,,,,,,,,,,,,,,,,,,,,,,,,,,,,,,,,,,,,,,,,,,,
11431,1645649563.208493,1645649563.228985,83.0,0.0,3303.076904,4734.871582,4285.641113000001,4304.615234000001,4150.769043,285.0,3.0,64.0,,,,0.0,0.0,1.0,0.0,0.0,2.0,0.0,,,,,,,,,,,,,,,,,,,,,,,,,,,,,,,,,,,,,,,,,,,,,,,,,,,,,,0.0,0.0,1.0,0.0,512.0,0.306155,,,,,,,,,,,,,,,,,,,,,,,,,
11432,1645649563.216309,1645649563.2368,84.0,0.0,3203.076904,5062.563965,4218.974121,4296.410156,4223.077147999999,450.0,3.0,64.0,,,,0.0,0.0,1.0,0.0,0.0,2.0,0.0,,,,,,,,42.0,0.0,0.717121,0.448975,0.399414,-0.353027,0.8916149999999999,-0.364752,-0.279789,-0.015274000000000001,-0.054298,-0.034824,,,,,,,,,,,,,,,,,,,,,,,,,,,,,,,,,,,,,,,,,,,,,,,,,,,,,,,,,,,,,,,,,
11433,1645649563.224125,1645649563.244514,85.0,0.0,3190.769287,5145.128418,4261.025879,4289.743652,4376.922852000001,450.0,3.0,64.0,,,,0.0,0.0,1.0,0.0,0.0,2.0,0.0,,,,,,,,,,,,,,,,,,,,,,,,,,,,,,,,,,,,,,,,,,,,,,,,,,,,,,,,,,,,,,,,,,,,,,,,,,,,,,,,,,,,
11434,1645649563.23194,1645649563.252328,86.0,0.0,3230.769287,5004.102539,4282.563965,4289.743652,4337.436035,450.0,3.0,64.0,,,,0.0,0.0,1.0,0.0,0.0,2.0,0.0,,,,,,,,43.0,0.0,0.717,0.448975,0.399414,-0.353271,0.887709,-0.367193,-0.280278,-0.014039,-0.054288,-0.037055000000000005,,,,,,,,,,,,,,,,,,,,,,,,,,,,,,,,,,,,,,,,,,,,,,,,,,,,,,,,,,,,,,,,,
11435,1645649563.239756,1645649563.260143,87.0,0.0,3229.230713,4845.641113000001,4247.692383,4279.487305,4201.538574,285.0,3.0,64.0,,,,0.0,0.0,1.0,0.0,0.0,2.0,0.0,,,,,,,,,,,,,,,,,,,,,,,,,,,,,,,,,,,,,,,,,,,,,,,,,,,,,,0.0,0.0,1.0,0.0,512.0,0.306155,,,,,,,,,,,,,,,,,,,,,,,,,
11436,1645649563.2475722,1645649563.267957,88.0,0.0,3190.256348,4465.128418,4208.205078,4275.384765999999,4201.025879,450.0,3.0,64.0,,,,0.0,0.0,1.0,0.0,0.0,2.0,0.0,,,,,,,,44.0,0.0,0.717,0.448975,0.399414,-0.353271,0.8994280000000001,-0.361822,-0.288579,-0.012977,-0.054327999999999994,-0.032666,,,,,,,,,,,,,,,,,,,,,,,,,,,,,,,,,,,,,,,,,,,,,,,,,,,,,,,,,,,,,,,,,
11437,1645649563.255388,1645649563.275772,89.0,0.0,3063.076904,4235.384765999999,4232.820313,4290.256348,4204.102539,450.0,3.0,64.0,,,,0.0,0.0,1.0,0.0,0.0,2.0,0.0,,,,,,,,,,,,,,,,,,,,,,,,,,,,,,,,,,,,,,,,,,,,,,,,,,,,,,,,,,,,,,,,,,,,,,,,,,,,,,,,,,,,
11438,1645649563.2632039,1645649563.283586,90.0,0.0,3033.846191,4727.179688,4226.153809,4296.922852000001,4219.487305,450.0,3.0,64.0,,,,0.0,0.0,1.0,0.0,0.0,2.0,0.0,,,,,,,,45.0,0.0,0.717,0.448975,0.399414,-0.353271,0.895033,-0.362799,-0.270024,-0.01207,-0.054314999999999995,-0.035063,,,,,,,,,,,,,,,,,,,,,,,,,,,,,,,,,,,,,,,,,,,,,,,,,,,,,,,,,,,,,,,,,
11439,1645649563.27102,1645649563.2914,91.0,0.0,3078.4614260000003,5384.615234000001,4151.282227000001,4280.0,4321.538574,285.0,3.0,64.0,,,,0.0,0.0,1.0,0.0,0.0,2.0,0.0,,,,,,,,,,,,,,,,,,,,,,,,,,,,,,,,,,,,,,,,,,,,,,,,,,,,,,0.0,0.0,1.0,0.0,512.0,0.306155,,,,,,,,,,,,,,,,,,,,,,,,,
11440,1645649563.278835,1645649563.299215,92.0,0.0,3084.615479,4974.871582,4162.05127,4269.743652,4326.153809,450.0,3.0,64.0,,,,0.0,0.0,1.0,0.0,0.0,2.0,0.0,,,,,,,,46.0,0.0,0.717,0.448975,0.399414,-0.353271,0.9043110000000001,-0.358404,-0.277836,-0.011156000000000001,-0.054255,-0.037221,,,,,,,,,,,,,,,,,,,,,,,,,,,,,,,,,,,,,,,,,,,,,,,,,,,,,,,,,,,,,,,,,
11441,1645649563.286651,1645649563.307029,93.0,0.0,2963.076904,4305.641113000001,4265.641113000001,4282.563965,4182.563965,450.0,3.0,64.0,,,,0.0,0.0,1.0,0.0,0.0,2.0,0.0,,,,,,,,,,,,,,,,,,,,,,,,,,,,,,,,,,,,,,,,,,,,,,,,,,,,,,,,,,,,,,,,,,,,,,,,,,,,,,,,,,,,
11442,1645649563.294467,1645649563.314744,94.0,0.0,2925.128174,4610.769043,4274.358886999999,4287.692383,4238.974121,450.0,3.0,64.0,,,,0.0,0.0,1.0,0.0,0.0,2.0,0.0,,,,,,,,47.0,0.0,0.717136,0.448975,0.39916999999999997,-0.353271,0.9052870000000001,-0.382818,-0.28174299999999997,-0.011847,-0.054298,-0.039066000000000004,,,,,,,,,,,,,,,,,,,,,,,,,,,,,,,,,,,,,,,,,,,,,,,,,,,,,,,,,,,,,,,,,
11443,1645649563.302283,1645649563.322558,95.0,0.0,3055.384521,4774.871582,4235.384765999999,4270.769043,4297.94873,285.0,3.0,64.0,,,,0.0,0.0,1.0,0.0,0.0,2.0,0.0,0.972656,0.0,0.0,0.0,0.0,0.0,0.0,,,,,,,,,,,,,1.0,0.0,0.0,,,,,,,,,,,,,,,,,,,,,,,,,,,,,,,,0.0,0.0,1.0,0.0,512.0,0.36309600000000003,1069.4178470000002,306.111298,298.518524,41.579741999999996,23.66094,1340.082642,1345.343384,5040.633789,1055.7696529999998,341.84295699999996,107.174904,95.87252,49.799252,6.145616,10.349409,3.7245800000000004,1.012934,1.315986,0.20864000000000002,0.11408399999999999,215.06797799999998,170.159988,86.48569499999999,22.757072,11.10276
11444,1645649563.3100991,1645649563.330373,96.0,0.0,3031.281982,4480.0,4294.358886999999,4265.641113000001,4211.282227000001,450.0,3.0,64.0,,,,0.0,0.0,1.0,0.0,0.0,2.0,0.0,,,,,,,,48.0,0.0,0.717136,0.448975,0.39916999999999997,-0.353271,0.8921030000000001,-0.364752,-0.28174299999999997,-0.012616,-0.054288,-0.034622,,,,,,,,,,,,,,,,,,,,,,,,,,,,,,,,,,,,,,,,,,,,,,,,,,,,,,,,,,,,,,,,,
11445,1645649563.317915,1645649563.338187,97.0,0.0,2896.923096,4857.436035,4291.282227000001,4272.820313,4233.333496,450.0,3.0,64.0,,,,0.0,0.0,1.0,0.0,0.0,2.0,0.0,,,,,,,,,,,,,,,,,,,,,,,,,,,,,,,,,,,,,,,,,,,,,,,,,,,,,,,,,,,,,,,,,,,,,,,,,,,,,,,,,,,,
11446,1645649563.32573,1645649563.346001,98.0,0.0,2927.6923829999996,5220.0,4285.641113000001,4269.743652,4304.102539,450.0,3.0,64.0,,,,0.0,0.0,1.0,0.0,0.0,2.0,0.0,,,,,,,,49.0,0.0,0.717136,0.448975,0.39916999999999997,-0.353271,0.8994280000000001,-0.382818,-0.285161,-0.013356,-0.05413300000000001,-0.036775,,,,,,,,,,,,,,,,,,,,,,,,,,,,,,,,,,,,,,,,,,,,,,,,,,,,,,,,,,,,,,,,,
11447,1645649563.3335462,1645649563.353816,99.0,0.0,2903.589844,4927.692383,4300.0,4271.794922,4191.282227000001,285.0,3.0,64.0,,,,0.0,0.0,1.0,0.0,0.0,2.0,0.0,,,,,,,,,,,,,,,,,,,,,,,,,,,,,,,,,,,,,,,,,,,,,,,,,,,,,,0.0,0.0,1.0,0.0,512.0,0.36309600000000003,,,,,,,,,,,,,,,,,,,,,,,,,
11448,1645649563.341362,1645649563.36163,100.0,0.0,2760.512939,4663.589844,4300.0,4278.461426,4118.461426,450.0,3.0,64.0,,,,0.0,0.0,1.0,0.0,0.0,2.0,0.0,,,,,,,,50.0,0.0,0.717016,0.448975,0.39916999999999997,-0.353516,0.89015,-0.377447,-0.27686,-0.013827,-0.054189,-0.038664,,,,,,,,,,,,,,,,,,,,,,,,,,,,,,,,,,,,,,,,,,,,,,,,,,,,,,,,,,,,,,,,,
11449,1645649563.3491778,1645649563.3694448,101.0,0.0,2791.281982,4574.871582,4269.743652,4274.871582,4166.153809,450.0,3.0,64.0,,,,0.0,0.0,1.0,0.0,0.0,2.0,0.0,,,,,,,,,,,,,,,,,,,,,,,,,,,,,,,,,,,,,,,,,,,,,,,,,,,,,,,,,,,,,,,,,,,,,,,,,,,,,,,,,,,,
11450,1645649563.356994,1645649563.377259,102.0,0.0,2846.666748,4449.230957,4291.794922,4270.769043,4126.153809,450.0,3.0,64.0,,,,0.0,0.0,1.0,0.0,0.0,2.0,0.0,,,,,,,,51.0,0.0,0.717016,0.448975,0.39916999999999997,-0.353516,0.889174,-0.372076,-0.285161,-0.0143,-0.054189999999999995,-0.040462,,,,,,,,,,,,,,,,,,,,,,,,,,,,,,,,,,,,,,,,,,,,,,,,,,,,,,,,,,,,,,,,,
11451,1645649563.36481,1645649563.384974,103.0,0.0,2802.564209,4431.794922,4264.615234000001,4274.358886999999,4074.8718259999996,285.0,3.0,64.0,,,,0.0,0.0,1.0,0.0,0.0,2.0,0.0,,,,,,,,,,,,,,,,,,,,,,,,,,,,,,,,,,,,,,,,,,,,,,,,,,,,,,0.0,0.0,1.0,0.0,512.0,0.36309600000000003,,,,,,,,,,,,,,,,,,,,,,,,,
11452,1645649563.372625,1645649563.3927882,104.0,0.0,2802.05127,4468.205078,4245.128418,4271.282227000001,4122.563965,450.0,3.0,64.0,,,,0.0,0.0,1.0,0.0,0.0,2.0,0.0,,,,,,,,52.0,0.0,0.717016,0.448975,0.39916999999999997,-0.353516,0.906264,-0.36914600000000003,-0.291997,-0.014872,-0.054141999999999996,-0.035781,,,,,,,,,,,,,,,,,,,,,,,,,,,,,,,,,,,,,,,,,,,,,,,,,,,,,,,,,,,,,,,,,
11453,1645649563.380441,1645649563.4006019,105.0,0.0,2840.0,4352.820313,4229.743652,4268.205078,4159.487305,450.0,3.0,64.0,,,,0.0,0.0,1.0,0.0,0.0,2.0,0.0,,,,,,,,,,,,,,,,,,,,,,,,,,,,,,,,,,,,,,,,,,,,,,,,,,,,,,,,,,,,,,,,,,,,,,,,,,,,,,,,,,,,
11454,1645649563.388257,1645649563.408317,106.0,0.0,2825.128174,4441.538574,4203.589844,4269.743652,4167.692383,450.0,3.0,64.0,,,,0.0,0.0,1.0,0.0,0.0,2.0,0.0,,,,,,,,53.0,0.0,0.717016,0.448975,0.39916999999999997,-0.353516,0.89015,-0.377447,-0.27686,-0.015338,-0.054148,-0.03147,,,,,,,,,,,,,,,,,,,,,,,,,,,,,,,,,,,,,,,,,,,,,,,,,,,,,,,,,,,,,,,,,
11455,1645649563.396073,1645649563.416131,107.0,0.0,2872.820557,4437.436035,4204.102539,4267.179688,4209.743652,285.0,3.0,64.0,,,,0.0,0.0,1.0,0.0,0.0,2.0,0.0,,,,,,,,,,,,,,,,,,,,,,,,,,,,,,,,,,,,,,,,,,,,,,,,,,,,,,0.0,0.0,1.0,0.0,512.0,0.36309600000000003,,,,,,,,,,,,,,,,,,,,,,,,,
11456,1645649563.4038892,1645649563.4239461,108.0,0.0,2877.435791,4350.769043,4211.794922,4267.692383,4190.256348,450.0,3.0,64.0,,,,0.0,0.0,1.0,0.0,0.0,2.0,0.0,,,,,,,,54.0,0.0,0.717016,0.448975,0.39916999999999997,-0.353516,0.906264,-0.36914600000000003,-0.291997,-0.015806,-0.054104,-0.027688,,,,,,,,,,,,,,,,,,,,,,,,,,,,,,,,,,,,,,,,,,,,,,,,,,,,,,,,,,,,,,,,,
11457,1645649563.411705,1645649563.43176,109.0,0.0,2877.435791,4584.615234000001,4189.743652,4268.717772999999,4210.769043,450.0,3.0,64.0,,,,0.0,0.0,1.0,0.0,0.0,2.0,0.0,,,,,,,,,,,,,,,,,,,,,,,,,,,,,,,,,,,,,,,,,,,,,,,,,,,,,,,,,,,,,,,,,,,,,,,,,,,,,,,,,,,,
11458,1645649563.419521,1645649563.439575,110.0,0.0,2900.512939,4439.487305,4195.384765999999,4262.05127,4187.179688,450.0,3.0,64.0,,,,0.0,0.0,1.0,0.0,0.0,2.0,0.0,,,,,,,,55.0,0.0,0.716863,0.449219,0.39916999999999997,-0.353516,0.91017,-0.364752,-0.269047,-0.014566999999999998,-0.054113999999999995,-0.030583999999999997,,,,,,,,,,,,,,,,,,,,,,,,,,,,,,,,,,,,,,,,,,,,,,,,,,,,,,,,,,,,,,,,,
11459,1645649563.427336,1645649563.4473891,111.0,0.0,2869.743652,4310.256348,4241.538574,4261.025879,4154.358886999999,285.0,3.0,64.0,,,,0.0,0.0,1.0,0.0,0.0,2.0,0.0,,,,,,,,,,,,,,,,,,,,1.0,0.0,0.0,,,,,,,,,,,,,,,,,,,,,,,,,,,,,,,,0.0,0.0,32.0,0.975612,1.0,0.0,2322.05835,530.3797,358.42224100000004,49.516762,23.519194,1258.453857,915.668335,5020.28125,1045.6073,372.37323,100.738297,92.614418,50.698006,6.52232,10.949591999999999,8.336524,1.9170669999999999,1.55695,0.251226,0.11504500000000001,259.81494100000003,170.682861,80.437538,19.822627999999998,12.324676
11460,1645649563.435152,1645649563.4552028,112.0,0.0,2841.5385739999997,4853.846191,4227.179688,4262.563965,4196.410156,450.0,3.0,64.0,,,,0.0,0.0,1.0,0.0,0.0,2.0,0.0,,,,,,,,56.0,0.0,0.716863,0.449219,0.39916999999999997,-0.353516,0.8989389999999999,-0.354009,-0.27686,-0.015015,-0.054220000000000004,-0.026842,,,,,,,,,,,,,,,,,,,,,,,,,,,,,,,,,,,,,,,,,,,,,,,,,,,,,,,,,,,,,,,,,
11461,1645649563.442968,1645649563.462918,113.0,0.0,2866.153809,5196.410156,4258.461426,4262.563965,4272.307617,450.0,3.0,64.0,,,,0.0,0.0,1.0,0.0,0.0,2.0,0.0,,,,,,,,,,,,,,,,,,,,,,,,,,,,,,,,,,,,,,,,,,,,,,,,,,,,,,,,,,,,,,,,,,,,,,,,,,,,,,,,,,,,
11462,1645649563.450784,1645649563.470732,114.0,0.0,2841.5385739999997,4938.461426,4293.846191,4261.025879,4254.871582,450.0,3.0,64.0,,,,0.0,0.0,1.0,0.0,0.0,2.0,0.0,,,,,,,,57.0,0.0,0.716863,0.449219,0.39916999999999997,-0.353516,0.9052870000000001,-0.362799,-0.288579,-0.015368999999999999,-0.05416900000000001,-0.029773,,,,,,,,,,,,,,,,,,,,,,,,,,,,,,,,,,,,,,,,,,,,,,,,,,,,,,,,,,,,,,,,,
11463,1645649563.4586,1645649563.478547,115.0,0.0,2816.923096,4794.871582,4312.820313,4264.102539,4212.307617,285.0,3.0,64.0,,,,0.0,0.0,1.0,0.0,0.0,2.0,0.0,,,,,,,,,,,,,,,,,,,,,,,,,,,,,,,,,,,,,,,,,,,,,,,,,,,,,,0.0,0.0,32.0,0.975612,1.0,0.0,,,,,,,,,,,,,,,,,,,,,,,,,
11464,1645649563.4664161,1645649563.486361,116.0,0.0,2809.743652,4888.205078,4326.153809,4266.153809,4214.871582,450.0,3.0,64.0,,,,0.0,0.0,1.0,0.0,0.0,2.0,0.0,,,,,,,,58.0,0.0,0.716863,0.449219,0.39916999999999997,-0.353516,0.9072399999999999,-0.373541,-0.290532,-0.015785,-0.054221000000000005,-0.026161,,,,,,,,,,,,,,,,,,,,,,,,,,,,,,,,,,,,,,,,,,,,,,,,,,,,,,,,,,,,,,,,,
11465,1645649563.474231,1645649563.494175,117.0,0.0,2800.0,4744.615234000001,4358.974121,4265.641113000001,4178.974121,450.0,3.0,64.0,,,,0.0,0.0,1.0,0.0,0.0,2.0,0.0,,,,,,,,,,,,,,,,,,,,,,,,,,,,,,,,,,,,,,,,,,,,,,,,,,,,,,,,,,,,,,,,,,,,,,,,,,,,,,,,,,,,
11466,1645649563.482047,1645649563.50199,118.0,0.0,2814.871826,4603.077147999999,4321.538574,4267.692383,4152.307617,450.0,3.0,64.0,,,,0.0,0.0,1.0,0.0,0.0,2.0,0.0,,,,,,,,59.0,0.0,0.716863,0.449219,0.39916999999999997,-0.353516,0.889174,-0.354009,-0.275883,-0.014646000000000001,-0.054268,-0.029111,,,,,,,,,,,,,,,,,,,,,,,,,,,,,,,,,,,,,,,,,,,,,,,,,,,,,,,,,,,,,,,,,
11467,1645649563.4898632,1645649563.509804,119.0,0.0,2836.923096,4526.666504,4291.282227000001,4267.179688,4142.563965,285.0,3.0,64.0,,,,0.0,0.0,1.0,0.0,0.0,2.0,0.0,,,,,,,,,,,,,,,,,,,,,,,,,,,,,,,,,,,,,,,,,,,,,,,,,,,,,,0.0,0.0,32.0,0.975612,1.0,0.0,,,,,,,,,,,,,,,,,,,,,,,,,
11468,1645649563.497679,1645649563.517619,120.0,0.0,2842.564209,4332.820313,4270.256348,4265.641113000001,4136.410156,450.0,3.0,64.0,,,,0.0,0.0,1.0,0.0,0.0,2.0,0.0,,,,,,,,60.0,0.0,0.7169989999999999,0.449219,0.398926,-0.353516,0.8994280000000001,-0.350591,-0.27881300000000003,-0.013522999999999999,-0.054261000000000004,-0.031913,,,,,,,,,,,,,,,,,,,,,,,,,,,,,,,,,,,,,,,,,,,,,,,,,,,,,,,,,,,,,,,,,
11469,1645649563.5054948,1645649563.525433,121.0,0.0,2824.615479,4392.820313,4248.717772999999,4266.666504,4156.410156,450.0,3.0,64.0,,,,0.0,0.0,1.0,0.0,0.0,2.0,0.0,,,,,,,,,,,,,,,,,,,,,,,,,,,,,,,,,,,,,,,,,,,,,,,,,,,,,,,,,,,,,,,,,,,,,,,,,,,,,,,,,,,,
11470,1645649563.513311,1645649563.533248,122.0,0.0,2866.153809,4604.102539,4229.230957,4265.128418,4202.05127,450.0,3.0,64.0,,,,0.0,0.0,1.0,0.0,0.0,2.0,0.0,,,,,,,,61.0,0.0,0.7169989999999999,0.449219,0.398926,-0.353516,0.8921030000000001,-0.376959,-0.283696,-0.014173,-0.054157000000000004,-0.034337,,,,,,,,,,,,,,,,,,,,,,,,,,,,,,,,,,,,,,,,,,,,,,,,,,,,,,,,,,,,,,,,,
11471,1645649563.521127,1645649563.540962,123.0,0.0,2896.923096,4465.641113000001,4230.769043,4259.487305,4184.102539,285.0,3.0,64.0,,,,0.0,2.0,1.0,0.0,0.0,2.0,8.333333,,,,,,,,,,,,,,,,,,,,,,,,,,,,,,,,,,,,,,,,,,,,,,,,,,,,,,0.0,0.0,32.0,0.975612,1.0,0.0,,,,,,,,,,,,,,,,,,,,,,,,,
11472,1645649563.528942,1645649563.548776,124.0,0.0,2883.076904,4347.692383,4215.897461,4258.461426,4199.487305,450.0,3.0,64.0,,,,0.0,2.0,1.0,0.0,0.0,2.0,8.333333,,,,,,,,62.0,0.0,0.716878,0.449219,0.398926,-0.35375999999999996,0.8930799999999999,-0.36035700000000004,-0.288579,-0.014709,-0.054162,-0.036616,,,,,,,,,,,,,,,,,,,,,,,,,,,,,,,,,,,,,,,,,,,,,,,,,,,,,,,,,,,,,,,,,
11473,1645649563.536758,1645649563.556591,125.0,0.0,2866.666748,4824.102539,4182.563965,4256.410156,4238.461426,450.0,3.0,64.0,,,,0.0,2.0,1.0,0.0,0.0,2.0,8.333333,,,,,,,,,,,,,,,,,,,,,,,,,,,,,,,,,,,,,,,,,,,,,,,,,,,,,,,,,,,,,,,,,,,,,,,,,,,,,,,,,,,,
11474,1645649563.544574,1645649563.564405,126.0,0.0,2890.769287,5172.820313,4168.717772999999,4253.333496,4222.05127,450.0,3.0,64.0,,,,0.0,2.0,1.0,0.0,0.0,2.0,8.333333,,,,,,,,63.0,0.0,0.716878,0.449219,0.398926,-0.35375999999999996,0.9043110000000001,-0.373053,-0.286625,-0.015191,-0.054165,-0.032271,,,,,,,,,,,,,,,,,,,,,,,,,,,,,,,,,,,,,,,,,,,,,,,,,,,,,,,,,,,,,,,,,
11475,1645649563.55239,1645649563.5722198,127.0,0.0,2816.923096,4989.230957,4165.641113000001,4260.0,4173.333496,236.0,3.0,64.0,,,,0.0,2.0,1.0,0.0,0.0,2.0,8.333333,,,,,,,,,,,,,,,,,,,,1.0,0.0,0.0,,,,,,,,,,,,,,,,,,,,,,,,,,,,,,,,0.0,0.0,1.0,0.0,512.0,0.48448,4087.282471,836.297791,417.63284300000004,58.021488,23.358307,1119.672974,614.604126,4609.424316,992.096558,413.269806,92.308769,87.216766,46.969303000000004,7.719173,11.478541,14.577135,3.246372,1.822418,0.299846,0.113632,321.885651,166.826538,73.04965200000001,17.484554,15.123669
11476,1645649563.560206,1645649563.580034,0.0,0.0,2802.564209,4895.384765999999,4190.256348,4265.128418,4228.717772999999,450.0,3.0,64.0,,,,0.0,2.0,1.0,0.0,0.0,2.0,8.333333,,,,,,,,0.0,0.0,0.716725,0.449463,0.398926,-0.35375999999999996,0.8960100000000001,-0.372564,-0.294926,-0.015674,-0.05416900000000001,-0.034562,,,,,,,,,,,,,,,,,,,,,,,,,,,,,,,,,,,,,,,,,,,,,,,,,,,,,,,,,,,,,,,,,
11477,1645649563.568022,1645649563.587848,1.0,0.0,2889.743652,4659.487305,4213.333496,4263.077147999999,4173.846191,450.0,3.0,64.0,,,,0.0,2.0,1.0,0.0,0.0,2.0,8.333333,,,,,,,,,,,,,,,,,,,,,,,,,,,,,,,,,,,,,,,,,,,,,,,,,,,,,,,,,,,,,,,,,,,,,,,,,,,,,,,,,,,,
11478,1645649563.575837,1645649563.595663,2.0,0.0,2901.025635,4317.94873,4264.615234000001,4263.077147999999,4089.743652,205.0,3.0,64.0,,,,0.0,2.0,1.0,0.0,0.0,2.0,8.333333,,,,,,,,1.0,0.0,0.716878,0.449219,0.398926,-0.35375999999999996,0.905776,-0.375006,-0.28809,-0.016059999999999998,-0.054123000000000004,-0.036574,,,,,,,,,,,,,,,,,,,,,,,,,,,,,,,,,,,,,,,,,,,,,,,,,,,,,,,,,,,,,,,,,
11479,1645649563.583653,1645649563.6033769,3.0,0.0,2864.615479,4265.641113000001,4264.615234000001,4261.025879,4073.8461909999996,450.0,3.0,64.0,,,,0.0,2.0,2.0,1.0,0.0,2.0,25.0,,,,,,,,,,,,,,,,,,,,,,,,,,,,,,,,,,,,,,,,,,,,,,,,,,,,,,0.0,0.0,1.0,0.0,512.0,0.48448,,,,,,,,,,,,,,,,,,,,,,,,,
11480,1645649563.591469,1645649563.611192,4.0,0.0,2886.153809,4396.922852000001,4264.102539,4260.0,4067.6923829999996,166.0,3.0,64.0,,,,0.0,2.0,2.0,1.0,0.0,2.0,25.0,,,,,,,,2.0,0.0,0.716725,0.449463,0.398926,-0.35375999999999996,0.9004040000000001,-0.362799,-0.281254,-0.016505000000000002,-0.054277,-0.038482999999999996,,,,,,,,,,,,,,,,,,,,,,,,,,,,,,,,,,,,,,,,,,,,,,,,,,,,,,,,,,,,,,,,,
11481,1645649563.599285,1645649563.6190062,5.0,0.0,2912.3076170000004,4469.743652,4251.794922,4256.922852000001,4093.3332520000004,450.0,3.0,64.0,,,,0.0,2.0,2.0,1.0,0.0,2.0,25.0,,,,,,,,,,,,,,,,,,,,,,,,,,,,,,,,,,,,,,,,,,,,,,,,,,,,,,,,,,,,,,,,,,,,,,,,,,,,,,,,,,,,
11482,1645649563.607101,1645649563.626821,6.0,0.0,2950.769287,4264.102539,4289.743652,4252.307617,4060.0,124.0,3.0,64.0,,,,0.0,2.0,2.0,1.0,0.0,2.0,25.0,,,,,,,,3.0,0.0,0.716878,0.449219,0.398926,-0.35375999999999996,0.908217,-0.375006,-0.292973,-0.015605,-0.054394000000000005,-0.035547,,,,,,,,,,,,,,,,,,,,,,,,,,,,,,,,,,,,,,,,,,,,,,,,,,,,,,,,,,,,,,,,,
11483,1645649563.614917,1645649563.634635,7.0,0.0,2910.256348,4471.794922,4274.871582,4259.487305,4069.743652,450.0,3.0,64.0,,,,0.0,2.0,2.0,1.0,0.0,2.0,25.0,,,,,,,,,,,,,,,,,,,,,,,,,,,,,,,,,,,,,,,,,,,,,,,,,,,,,,0.0,0.0,1.0,0.0,512.0,0.48448,,,,,,,,,,,,,,,,,,,,,,,,,
11484,1645649563.622733,1645649563.6424491,8.0,0.0,2884.102539,5313.846191,4209.743652,4263.077147999999,4246.153809,450.0,3.0,64.0,,,,0.0,2.0,2.0,1.0,0.0,2.0,25.0,,,,,,,,4.0,0.0,0.716758,0.449219,0.398926,-0.354004,0.9043110000000001,-0.353033,-0.282719,-0.016047,-0.054424,-0.037705,,,,,,,,,,,,,,,,,,,,,,,,,,,,,,,,,,,,,,,,,,,,,,,,,,,,,,,,,,,,,,,,,
11485,1645649563.630548,1645649563.650264,9.0,0.0,3025.128174,5076.922852000001,4220.512695,4255.897461,4312.307617,0.0,3.0,64.0,,,,0.0,2.0,2.0,1.0,0.0,2.0,25.0,,,,,,,,,,,,,,,,,,,,,,,,,,,,,,,,,,,,,,,,,,,,,,,,,,,,,,,,,,,,,,,,,,,,,,,,,,,,,,,,,,,,
11486,1645649563.638364,1645649563.658078,10.0,0.0,3016.410156,4140.0,4295.897461,4262.05127,4155.384765999999,450.0,3.0,64.0,,,,0.0,2.0,2.0,1.0,0.0,2.0,25.0,,,,,,,,5.0,0.0,0.716758,0.449219,0.398926,-0.354004,0.9091940000000001,-0.37793499999999997,-0.29688000000000003,-0.016395,-0.054401,-0.0333,,,,,,,,,,,,,,,,,,,,,,,,,,,,,,,,,,,,,,,,,,,,,,,,,,,,,,,,,,,,,,,,,
11487,1645649563.6461802,1645649563.665893,11.0,0.0,2934.871826,4516.922852000001,4242.05127,4268.205078,4208.717772999999,270.0,3.0,64.0,,,,0.0,2.0,2.0,1.0,0.0,2.0,25.0,,,,,,,,,,,,,,,,,,,,,,,,,,,,,,,,,,,,,,,,,,,,,,,,,,,,,,0.0,0.0,1.0,0.0,512.0,0.48448,,,,,,,,,,,,,,,,,,,,,,,,,
11488,1645649563.653996,1645649563.673607,12.0,0.0,3032.3076170000004,4925.641113000001,4174.358886999999,4251.282227000001,4291.282227000001,450.0,3.0,64.0,,,,0.0,2.0,2.0,1.0,0.0,2.0,25.0,,,,,,,,6.0,0.0,0.716911,0.448975,0.398926,-0.354004,0.893568,-0.367681,-0.295903,-0.016758000000000002,-0.05442999999999999,-0.035683,,,,,,,,,,,,,,,,,,,,,,,,,,,,,,,,,,,,,,,,,,,,,,,,,,,,,,,,,,,,,,,,,
11489,1645649563.6618118,1645649563.681422,13.0,0.0,3031.794922,4490.769043,4201.025879,4247.179688,4173.846191,450.0,3.0,64.0,,,,0.0,2.0,2.0,1.0,0.0,2.0,25.0,,,,,,,,,,,,,,,,,,,,,,,,,,,,,,,,,,,,,,,,,,,,,,,,,,,,,,,,,,,,,,,,,,,,,,,,,,,,,,,,,,,,
11490,1645649563.669628,1645649563.689236,14.0,0.0,2858.4614260000003,4805.128418,4174.871582,4260.0,4173.846191,450.0,3.0,64.0,,,,0.0,2.0,2.0,1.0,0.0,2.0,25.0,,,,,,,,7.0,0.0,0.716911,0.448975,0.398926,-0.354004,0.91017,-0.36035700000000004,-0.278325,-0.016986,-0.054407000000000004,-0.031382,,,,,,,,,,,,,,,,,,,,,,,,,,,,,,,,,,,,,,,,,,,,,,,,,,,,,,,,,,,,,,,,,
11491,1645649563.677443,1645649563.69705,15.0,0.0,2935.897461,5131.794922,4152.820313,4257.94873,4282.563965,270.0,3.0,64.0,,,,0.0,2.0,2.0,1.0,0.0,2.0,25.0,,,,,,,,,,,,,,,,,,,,1.0,0.0,0.0,,,,,,,,,,,,,,,,,,,,,,,,,,,,,,,,0.0,0.0,1.0,0.0,512.0,1.0,6016.543945,1158.465698,465.649231,65.047325,23.433434,970.975281,424.52310199999994,3870.7773439999996,920.3220210000001,464.863434,83.822067,80.012024,39.408859,9.398372,11.856178,21.137898999999997,4.686202,2.0558,0.3414,0.115344,390.256073,158.523697,63.876872999999996,16.292372,19.740382999999998
11492,1645649563.6852589,1645649563.704865,16.0,0.0,3047.6923829999996,4381.025879,4222.563965,4254.871582,4175.384765999999,0.0,3.0,64.0,,,,0.0,2.0,2.0,1.0,0.0,2.0,25.0,,,,,,,,8.0,0.0,0.716775,0.448975,0.39916999999999997,-0.354004,0.890639,-0.361822,-0.283696,-0.015727,-0.054386000000000004,-0.033957,,,,,,,,,,,,,,,,,,,,,,,,,,,,,,,,,,,,,,,,,,,,,,,,,,,,,,,,,,,,,,,,,
11493,1645649563.693075,1645649563.712679,17.0,0.0,2952.3076170000004,4236.410156,4289.743652,4264.102539,4090.256348,0.0,3.0,64.0,,,,0.0,2.0,2.0,1.0,0.0,2.0,25.0,,,,,,,,,,,,,,,,,,,,,,,,,,,,,,,,,,,,,,,,,,,,,,,,,,,,,,,,,,,,,,,,,,,,,,,,,,,,,,,,,,,,
11494,1645649563.700891,1645649563.720494,18.0,0.0,2955.384521,4874.871582,4215.384765999999,4256.410156,4137.94873,0.0,3.0,64.0,,,,0.0,2.0,2.0,1.0,0.0,2.0,25.0,,,,,,,,9.0,0.0,0.716775,0.448975,0.39916999999999997,-0.354004,0.8916149999999999,-0.37891199999999997,-0.290532,-0.016059,-0.05436799999999999,-0.036128,,,,,,,,,,,,,,,,,,,,,,,,,,,,,,,,,,,,,,,,,,,,,,,,,,,,,,,,,,,,,,,,,
11495,1645649563.708707,1645649563.728308,19.0,0.0,3107.179443,4571.282227000001,4233.333496,4242.05127,4150.769043,0.0,3.0,64.0,,,,0.0,2.0,2.0,1.0,0.0,2.0,25.0,,,,,,,,,,,,,,,,,,,,,,,,,,,,,,,,,,,,,,,,,,,,,,,,,,,,,,0.0,0.0,1.0,0.0,512.0,1.0,,,,,,,,,,,,,,,,,,,,,,,,,
11496,1645649563.716523,1645649563.7361221,20.0,0.0,3030.256348,4231.282227000001,4343.077147999999,4255.384765999999,4129.230957,0.0,3.0,64.0,,,,0.0,2.0,2.0,1.0,0.0,2.0,25.0,,,,,,,,10.0,0.0,0.716896,0.448975,0.39916999999999997,-0.35375999999999996,0.903334,-0.36328699999999997,-0.28174299999999997,-0.016406,-0.0544,-0.038130000000000004,,,,,,,,,,,,,,,,,,,,,,,,,,,,,,,,,,,,,,,,,,,,,,,,,,,,,,,,,,,,,,,,,
11497,1645649563.724338,1645649563.743937,21.0,0.0,2891.281982,4931.282227000001,4352.307617,4269.743652,4201.538574,0.0,3.0,64.0,,,,0.0,2.0,2.0,1.0,0.0,2.0,25.0,,,,,,,,,,,,,,,,,,,,,,,,,,,,,,,,,,,,,,,,,,,,,,,,,,,,,,,,,,,,,,,,,,,,,,,,,,,,,,,,,,,,
11498,1645649563.732154,1645649563.751651,22.0,0.0,3028.718018,4950.256348,4267.692383,4256.922852000001,4220.512695,0.0,3.0,64.0,,,,0.0,2.0,2.0,1.0,0.0,2.0,25.0,,,,,,,,11.0,0.0,0.716896,0.448975,0.39916999999999997,-0.35375999999999996,0.8955209999999999,-0.370611,-0.281254,-0.016669999999999997,-0.054429,-0.033682,,,,,,,,,,,,,,,,,,,,,,,,,,,,,,,,,,,,,,,,,,,,,,,,,,,,,,,,,,,,,,,,,
11499,1645649563.73997,1645649563.759466,23.0,0.0,3179.487061,4086.1538090000004,4332.307617,4247.692383,4065.641113,0.0,3.0,64.0,,,,0.0,2.0,2.0,1.0,0.0,2.0,25.0,,,,,,,,,,,,,,,,,,,,,,,,,,,,,,,,,,,,,,,,,,,,,,,,,,,,,,0.0,0.0,1.0,0.0,512.0,1.0,,,,,,,,,,,,,,,,,,,,,,,,,
11500,1645649563.747786,1645649563.76728,24.0,0.0,3043.589844,4258.974121,4332.820313,4261.538574,4017.9487299999996,0.0,3.0,64.0,,,,0.0,2.0,2.0,1.0,0.0,2.0,25.0,,,,,,,,12.0,0.0,0.7170479999999999,0.44873,0.39916999999999997,-0.35375999999999996,0.891127,-0.359869,-0.28174299999999997,-0.016809,-0.054454999999999996,-0.035929,,,,,,,,,,,,,,,,,,,,,,,,,,,,,,,,,,,,,,,,,,,,,,,,,,,,,,,,,,,,,,,,,
11501,1645649563.755602,1645649563.775095,25.0,0.0,2931.281982,5155.897461,4192.307617,4267.692383,4150.769043,0.0,3.0,64.0,,,,0.0,2.0,2.0,1.0,0.0,2.0,25.0,,,,,,,,,,,,,,,,,,,,,,,,,,,,,,,,,,,,,,,,,,,,,,,,,,,,,,,,,,,,,,,,,,,,,,,,,,,,,,,,,,,,
11502,1645649563.763418,1645649563.782909,26.0,0.0,3091.281982,4962.563965,4129.230957,4253.333496,4225.128418,0.0,3.0,64.0,,,,0.0,2.0,2.0,1.0,0.0,2.0,25.0,,,,,,,,13.0,0.0,0.716912,0.44873,0.399414,-0.35375999999999996,0.901869,-0.36524,-0.279301,-0.017130000000000003,-0.054429,-0.038049,,,,,,,,,,,,,,,,,,,,,,,,,,,,,,,,,,,,,,,,,,,,,,,,,,,,,,,,,,,,,,,,,
11503,1645649563.771233,1645649563.790723,27.0,0.0,3182.564209,4109.230957,4186.666504,4247.179688,4094.8718259999996,0.0,3.0,64.0,,,,0.0,2.0,2.0,1.0,0.0,2.0,25.0,,,,,,,,,,,,,,,,,,,,,,,,,,,,,,,,,,,,,,,,,,,,,,,,,,,,,,0.0,0.0,1.0,0.0,512.0,1.0,,,,,,,,,,,,,,,,,,,,,,,,,
11504,1645649563.779049,1645649563.798538,28.0,0.0,3086.153809,4155.384765999999,4203.077147999999,4261.538574,4038.461426,0.0,3.0,64.0,,,,0.0,2.0,2.0,1.0,0.0,2.0,25.0,,,,,,,,14.0,0.0,0.716912,0.44873,0.399414,-0.35375999999999996,0.902358,-0.381353,-0.279301,-0.017224,-0.054357,-0.03986,,,,,,,,,,,,,,,,,,,,,,,,,,,,,,,,,,,,,,,,,,,,,,,,,,,,,,,,,,,,,,,,,
11505,1645649563.786865,1645649563.806352,29.0,0.0,2988.718018,4975.897461,4155.384765999999,4264.102539,4120.512695,0.0,3.0,64.0,,,,0.0,2.0,2.0,1.0,0.0,2.0,25.0,,,,,,,,,,,,,,,,,,,,,,,,,,,,,,,,,,,,,,,,,,,,,,,,,,,,,,,,,,,,,,,,,,,,,,,,,,,,,,,,,,,,
11506,1645649563.794681,1645649563.814067,30.0,0.0,3082.05127,5232.820313,4158.461426,4251.282227000001,4226.153809,0.0,3.0,64.0,,,,0.0,2.0,2.0,1.0,0.0,2.0,25.0,,,,,,,,15.0,0.0,0.7170479999999999,0.44873,0.39916999999999997,-0.35375999999999996,0.895033,-0.357427,-0.287602,-0.017455000000000002,-0.054292999999999994,-0.035288,,,,,,,,,,,,,,,,,,,,,,,,,,,,,,,,,,,,,,,,,,,,,,,,,,,,,,,,,,,,,,,,,
11507,1645649563.8024971,1645649563.821881,31.0,0.0,3223.589844,4594.358886999999,4229.230957,4249.743652,4207.692383,0.0,3.0,64.0,,,,0.0,2.0,2.0,1.0,0.0,2.0,25.0,0.972656,0.0,0.0,0.0,0.0,0.0,0.0,,,,,,,,,,,,,1.0,0.0,0.0,1.0,0.296477,0.520105,-0.339812,2.100294,1.0,0.104075,3.352646,2.049201,11.17808,0.104905,1.0,0.49291499999999994,-0.08532999999999999,-0.334868,0.17558900000000002,1.0,0.7028270000000001,1.325433,-0.781033,2.402159,1.0,0.582943,32.970642,-104.750341,137.92003400000002,1.0,0.143843,0.517505,0.490026,0.681183,0.0,0.0,1.0,0.0,512.0,1.0,7618.892578,1404.505981,487.842651,68.712952,23.621376,850.8234859999999,336.870026,2943.249023,848.98999,521.901428,77.98290300000001,71.968124,29.912252000000002,11.026838,11.933114,26.174170999999998,5.7866480000000005,2.1771979999999997,0.360646,0.12434500000000001,443.812653,147.88591,52.947052,16.500044,25.62047
11508,1645649563.810313,1645649563.8296962,32.0,0.0,3214.871826,4195.897461,4294.871582,4258.974121,4108.205078,0.0,3.0,64.0,,,,0.0,2.0,2.0,1.0,0.0,2.0,25.0,,,,,,,,16.0,0.0,0.716928,0.44873,0.39916999999999997,-0.354004,0.893568,-0.37158800000000003,-0.287602,-0.0161,-0.054284000000000006,-0.037423000000000005,,,,,,,,,,,,,,,,,,,,,,,,,,,,,,,,,,,,,,,,,,,,,,,,,,,,,,,,,,,,,,,,,
11509,1645649563.8181279,1645649563.8375099,33.0,0.0,3058.4614260000003,4564.102539,4255.897461,4263.077147999999,4107.179688,0.0,3.0,64.0,,,,0.0,2.0,2.0,1.0,0.0,2.0,25.0,,,,,,,,,,,,,,,,,,,,,,,,,,,,,,,,,,,,,,,,,,,,,,,,,,,,,,,,,,,,,,,,,,,,,,,,,,,,,,,,,,,,
11510,1645649563.825944,1645649563.845324,34.0,0.0,3067.179443,4978.974121,4246.666504,4263.077147999999,4226.666504,0.0,3.0,64.0,,,,0.0,2.0,2.0,1.0,0.0,2.0,25.0,,,,,,,,17.0,0.0,0.716912,0.44873,0.399414,-0.35375999999999996,0.902358,-0.381353,-0.279301,-0.016297,-0.054225999999999996,-0.039296,,,,,,,,,,,,,,,,,,,,,,,,,,,,,,,,,,,,,,,,,,,,,,,,,,,,,,,,,,,,,,,,,
11511,1645649563.83376,1645649563.8531392,35.0,0.0,3226.153809,4918.461426,4256.410156,4256.410156,4194.871582,0.0,3.0,64.0,,,,0.0,2.0,2.0,1.0,0.0,2.0,25.0,,,,,,,,,,,,,,,,,,,,,,,,,,,,,,,,,,,,,,,,,,,,,,,,,,,,,,0.0,0.0,1.0,0.0,512.0,1.0,,,,,,,,,,,,,,,,,,,,,,,,,
11512,1645649563.8415759,1645649563.8609529,36.0,0.0,3245.128174,4651.794922,4256.922852000001,4245.128418,4081.025635,0.0,3.0,64.0,,,,0.0,2.0,2.0,1.0,0.0,2.0,25.0,,,,,,,,18.0,0.0,0.716928,0.44873,0.39916999999999997,-0.354004,0.893568,-0.37158800000000003,-0.287602,-0.015058000000000002,-0.054224,-0.041031,,,,,,,,,,,,,,,,,,,,,,,,,,,,,,,,,,,,,,,,,,,,,,,,,,,,,,,,,,,,,,,,,
11513,1645649563.849392,1645649563.868768,37.0,0.0,3118.974365,4493.333496,4229.743652,4251.282227000001,4051.281982,0.0,3.0,64.0,,,,0.0,2.0,2.0,1.0,0.0,2.0,25.0,,,,,,,,,,,,,,,,,,,,,,,,,,,,,,,,,,,,,,,,,,,,,,,,,,,,,,,,,,,,,,,,,,,,,,,,,,,,,,,,,,,,
11514,1645649563.857208,1645649563.8765821,38.0,0.0,3058.4614260000003,4510.256348,4242.563965,4264.102539,4018.974365,0.0,3.0,64.0,,,,0.0,2.0,2.0,1.0,0.0,2.0,25.0,,,,,,,,19.0,0.0,0.717064,0.44873,0.398926,-0.354004,0.887709,-0.366217,-0.282719,-0.015553999999999998,-0.054173,-0.042494,,,,,,,,,,,,,,,,,,,,,,,,,,,,,,,,,,,,,,,,,,,,,,,,,,,,,,,,,,,,,,,,,
11515,1645649563.8650231,1645649563.884396,39.0,0.0,3071.281982,4913.846191,4223.589844,4263.589844,4093.3332520000004,0.0,3.0,64.0,,,,0.0,2.0,2.0,1.0,0.0,2.0,25.0,,,,,,,,,,,,,,,,,,,,,,,,,,,,,,,,,,,,,,,,,,,,,,,,,,,,,,0.0,0.0,1.0,0.0,512.0,1.0,,,,,,,,,,,,,,,,,,,,,,,,,
11516,1645649563.872839,1645649563.8921108,40.0,0.0,3107.6923829999996,5387.179688,4197.436035,4255.384765999999,4275.897461,0.0,3.0,64.0,,,,0.0,2.0,2.0,1.0,0.0,2.0,25.0,,,,,,,,20.0,0.0,0.716943,0.44873,0.398926,-0.354248,0.897963,-0.35938000000000003,-0.295415,-0.015854,-0.054175,-0.043811,,,,,,,,,,,,,,,,,,,,,,,,,,,,,,,,,,,,,,,,,,,,,,,,,,,,,,,,,,,,,,,,,
11517,1645649563.880655,1645649563.899925,41.0,0.0,3218.974365,5018.974121,4203.589844,4252.820313,4269.743652,0.0,3.0,64.0,,,,0.0,2.0,2.0,1.0,0.0,2.0,25.0,,,,,,,,,,,,,,,,,,,,,,,,,,,,,,,,,,,,,,,,,,,,,,,,,,,,,,,,,,,,,,,,,,,,,,,,,,,,,,,,,,,,
11518,1645649563.8884711,1645649563.90764,42.0,0.0,3262.05127,4174.871582,4281.538574,4254.358886999999,4082.5642090000006,0.0,3.0,64.0,,,,0.0,2.0,2.0,1.0,0.0,2.0,25.0,,,,,,,,21.0,0.0,0.717064,0.44873,0.398926,-0.354004,0.91017,-0.36524,-0.285649,-0.016368,-0.054275,-0.045143,,,,,,,,,,,,,,,,,,,,,,,,,,,,,,,,,,,,,,,,,,,,,,,,,,,,,,,,,,,,,,,,,
11519,1645649563.896287,1645649563.915454,43.0,0.0,3165.6411129999997,4264.102539,4255.897461,4257.94873,4098.461426,0.0,3.0,64.0,,,,0.0,2.0,2.0,1.0,0.0,2.0,25.0,,,,,,,,,,,,,,,,,,,,,,,,,,,,,,,,,,,,,,,,,,,,,,,,,,,,,,0.0,0.0,1.0,0.0,512.0,1.0,,,,,,,,,,,,,,,,,,,,,,,,,
11520,1645649563.904103,1645649563.923269,44.0,0.0,3102.05127,4952.307617,4147.692383,4260.512695,4237.436035,0.0,3.0,64.0,,,,0.0,2.0,2.0,1.0,0.0,2.0,25.0,,,,,,,,22.0,0.0,0.717064,0.44873,0.398926,-0.354004,0.902358,-0.36084499999999997,-0.285161,-0.015024000000000001,-0.05417,-0.039994,,,,,,,,,,,,,,,,,,,,,,,,,,,,,,,,,,,,,,,,,,,,,,,,,,,,,,,,,,,,,,,,,
11521,1645649563.9119189,1645649563.931083,45.0,0.0,3227.179443,5009.743652,4143.589844,4257.94873,4277.436035,0.0,3.0,64.0,,,,0.0,2.0,2.0,1.0,0.0,2.0,25.0,,,,,,,,,,,,,,,,,,,,,,,,,,,,,,,,,,,,,,,,,,,,,,,,,,,,,,,,,,,,,,,,,,,,,,,,,,,,,,,,,,,,
11522,1645649563.919734,1645649563.938798,46.0,0.0,3303.589844,4885.128418,4148.205078,4249.230957,4182.05127,0.0,3.0,64.0,,,,0.0,2.0,2.0,1.0,0.0,2.0,25.0,,,,,,,,23.0,0.0,0.717064,0.44873,0.398926,-0.354004,0.906264,-0.368658,-0.287114,-0.013961000000000001,-0.054173,-0.041512,,,,,,,,,,,,,,,,,,,,,,,,,,,,,,,,,,,,,,,,,,,,,,,,,,,,,,,,,,,,,,,,,
11523,1645649563.92755,1645649563.946612,47.0,0.0,3288.718018,4855.897461,4154.358886999999,4245.128418,4133.333496,0.0,3.0,64.0,,,,0.0,2.0,2.0,1.0,0.0,2.0,25.0,,,,,,,,,,,,,,,,,,,,1.0,0.0,0.0,,,,,,,,,,,,,,,,,,,,,,,,,,,,,,,,0.0,0.0,1.0,0.0,512.0,1.0,8370.836914,1496.192261,474.215454,67.470253,23.757862,767.154785,362.754639,2017.716675,788.6853639999999,580.058105,77.068916,64.74876400000001,20.721532999999997,12.120085000000001,11.637174,28.001146000000002,6.1574029999999995,2.125321,0.349351,0.142455,460.925476,136.987671,41.654362,17.860142,31.524689000000002
11524,1645649563.935366,1645649563.954426,48.0,0.0,3270.769287,4430.256348,4245.128418,4251.794922,4115.897461,0.0,3.0,64.0,,,,0.0,2.0,2.0,1.0,0.0,2.0,25.0,,,,,,,,24.0,0.0,0.717064,0.44873,0.398926,-0.354004,0.8916149999999999,-0.369635,-0.28174299999999997,-0.014469999999999998,-0.054176,-0.043074,,,,,,,,,,,,,,,,,,,,,,,,,,,,,,,,,,,,,,,,,,,,,,,,,,,,,,,,,,,,,,,,,
11525,1645649563.943182,1645649563.962141,49.0,0.0,3267.6923829999996,4246.153809,4324.615234000001,4262.05127,4075.897461,0.0,3.0,64.0,,,,0.0,2.0,2.0,1.0,0.0,2.0,25.0,,,,,,,,,,,,,,,,,,,,,,,,,,,,,,,,,,,,,,,,,,,,,,,,,,,,,,,,,,,,,,,,,,,,,,,,,,,,,,,,,,,,
11526,1645649563.950998,1645649563.969955,50.0,0.0,3194.3588870000003,4577.436035,4289.230957,4264.615234000001,4044.615479,0.0,3.0,64.0,,,,0.0,2.0,2.0,1.0,0.0,2.0,25.0,,,,,,,,25.0,0.0,0.716928,0.44873,0.39916999999999997,-0.354004,0.898451,-0.369635,-0.277348,-0.014927000000000001,-0.054178,-0.038083,,,,,,,,,,,,,,,,,,,,,,,,,,,,,,,,,,,,,,,,,,,,,,,,,,,,,,,,,,,,,,,,,
11527,1645649563.9588141,1645649563.9777699,51.0,0.0,3132.3076170000004,4683.589844,4302.05127,4262.05127,4082.0512700000004,0.0,3.0,64.0,,,,0.0,2.0,2.0,1.0,0.0,2.0,25.0,,,,,,,,,,,,,,,,,,,,,,,,,,,,,,,,,,,,,,,,,,,,,,,,,,,,,,0.0,0.0,1.0,0.0,512.0,1.0,,,,,,,,,,,,,,,,,,,,,,,,,
11528,1645649563.9666288,1645649563.985584,52.0,0.0,3138.974365,4748.717772999999,4271.282227000001,4258.461426,4101.025879,0.0,3.0,64.0,,,,0.0,2.0,2.0,1.0,0.0,2.0,25.0,,,,,,,,26.0,0.0,0.71696,0.44848599999999994,0.39916999999999997,-0.354248,0.8960100000000001,-0.372076,-0.284672,-0.01529,-0.054083000000000006,-0.033689,,,,,,,,,,,,,,,,,,,,,,,,,,,,,,,,,,,,,,,,,,,,,,,,,,,,,,,,,,,,,,,,,
11529,1645649563.9744449,1645649563.993398,53.0,0.0,3172.3076170000004,4961.538574,4223.589844,4255.384765999999,4119.487305,0.0,3.0,64.0,,,,0.0,2.0,2.0,1.0,0.0,2.0,25.0,,,,,,,,,,,,,,,,,,,,,,,,,,,,,,,,,,,,,,,,,,,,,,,,,,,,,,,,,,,,,,,,,,,,,,,,,,,,,,,,,,,,
11530,1645649563.982261,1645649564.001213,54.0,0.0,3237.435791,4925.641113000001,4192.820313,4251.282227000001,4156.410156,0.0,3.0,64.0,,,,0.0,2.0,2.0,1.0,0.0,2.0,25.0,,,,,,,,27.0,0.0,0.7166710000000001,0.44873,0.399414,-0.354248,0.8955209999999999,-0.364263,-0.283696,-0.015763,-0.053997,-0.035983999999999995,,,,,,,,,,,,,,,,,,,,,,,,,,,,,,,,,,,,,,,,,,,,,,,,,,,,,,,,,,,,,,,,,
11531,1645649563.990077,1645649564.009027,55.0,0.0,3345.6411129999997,4643.077147999999,4211.794922,4244.102539,4152.820313,0.0,3.0,64.0,,,,0.0,2.0,2.0,1.0,0.0,2.0,25.0,,,,,,,,,,,,,,,,,,,,,,,,,,,,,,,,,,,,,,,,,,,,,,,,,,,,,,0.0,0.0,1.0,0.0,512.0,1.0,,,,,,,,,,,,,,,,,,,,,,,,,
11532,1645649563.9978929,1645649564.016742,56.0,0.0,3395.897461,4233.846191,4270.256348,4245.641113000001,4122.05127,0.0,3.0,64.0,,,,0.0,2.0,2.0,1.0,0.0,2.0,25.0,,,,,,,,28.0,0.0,0.716824,0.44848599999999994,0.399414,-0.354248,0.902358,-0.36084499999999997,-0.275395,-0.016091,-0.054016999999999996,-0.0318,,,,,,,,,,,,,,,,,,,,,,,,,,,,,,,,,,,,,,,,,,,,,,,,,,,,,,,,,,,,,,,,,
11533,1645649564.005709,1645649564.0245562,57.0,0.0,3325.6411129999997,4016.923096,4358.974121,4258.461426,4053.8461909999996,0.0,3.0,64.0,,,,0.0,2.0,2.0,1.0,0.0,2.0,25.0,,,,,,,,,,,,,,,,,,,,,,,,,,,,,,,,,,,,,,,,,,,,,,,,,,,,,,,,,,,,,,,,,,,,,,,,,,,,,,,,,,,,
11534,1645649564.013524,1645649564.032371,58.0,0.0,3249.743652,4433.333496,4283.589844,4266.666504,4063.076904,0.0,3.0,64.0,,,,0.0,2.0,2.0,1.0,0.0,2.0,25.0,,,,,,,,29.0,0.0,0.716688,0.44848599999999994,0.399658,-0.354248,0.8999159999999999,-0.364263,-0.287602,-0.016337,-0.053889,-0.028082999999999997,,,,,,,,,,,,,,,,,,,,,,,,,,,,,,,,,,,,,,,,,,,,,,,,,,,,,,,,,,,,,,,,,
11535,1645649564.0213401,1645649564.040185,59.0,0.0,3265.6411129999997,4889.230957,4144.102539,4263.589844,4137.94873,0.0,3.0,64.0,,,,0.0,2.0,2.0,1.0,0.0,2.0,25.0,,,,,,,,,,,,,,,,,,,,,,,,,,,,,,,,,,,,,,,,,,,,,,,,,,,,,,0.0,0.0,1.0,0.0,512.0,1.0,,,,,,,,,,,,,,,,,,,,,,,,,
11536,1645649564.029156,1645649564.047999,60.0,0.0,3367.179443,4764.102539,4156.410156,4263.077147999999,4189.743652,0.0,3.0,64.0,,,,0.0,2.0,2.0,1.0,0.0,2.0,25.0,,,,,,,,30.0,0.0,0.716841,0.44824200000000003,0.399658,-0.354248,0.900893,-0.362799,-0.284184,-0.015045,-0.053969,-0.024737000000000002,,,,,,,,,,,,,,,,,,,,,,,,,,,,,,,,,,,,,,,,,,,,,,,,,,,,,,,,,,,,,,,,,
11537,1645649564.036972,1645649564.055814,61.0,0.0,3354.871826,4694.871582,4214.871582,4265.128418,4127.179688,0.0,3.0,64.0,,,,0.0,2.0,2.0,1.0,0.0,2.0,25.0,,,,,,,,,,,,,,,,,,,,,,,,,,,,,,,,,,,,,,,,,,,,,,,,,,,,,,,,,,,,,,,,,,,,,,,,,,,,,,,,,,,,
11538,1645649564.0447881,1645649564.063628,62.0,0.0,3268.205078,4980.512695,4178.974121,4263.589844,4101.025879,0.0,3.0,64.0,,,,0.0,2.0,2.0,1.0,0.0,2.0,25.0,,,,,,,,31.0,0.0,0.7169770000000001,0.44824200000000003,0.399414,-0.354248,0.893568,-0.361334,-0.291997,-0.014029,-0.05409,-0.027879,,,,,,,,,,,,,,,,,,,,,,,,,,,,,,,,,,,,,,,,,,,,,,,,,,,,,,,,,,,,,,,,,
11539,1645649564.052604,1645649564.071443,63.0,0.0,3243.589844,5062.05127,4150.256348,4259.487305,4198.461426,0.0,3.0,64.0,,,,0.0,2.0,2.0,1.0,0.0,2.0,25.0,,,,,,,,,,,,,,,,,,,,1.0,0.0,0.0,,,,,,,,,,,,,,,,,,,,,,,,,,,,,,,,0.0,0.0,1.0,0.0,512.0,1.0,8057.748047,1402.4807130000002,422.53857400000004,60.843212,24.217344,700.9207150000001,513.984558,1262.703491,749.313538,643.391968,81.410675,60.54311800000001,13.676241000000001,12.425499,11.099245,26.123358,5.6641330000000005,1.8910259999999999,0.312355,0.170481,433.571014,128.530701,32.142604999999996,19.866873000000002,36.232166
11540,1645649564.0604188,1645649564.079257,64.0,0.0,3338.4614260000003,4902.563965,4236.922852000001,4257.436035,4309.743652,450.0,3.0,64.0,,,,0.0,2.0,2.0,1.0,0.0,2.0,25.0,,,,,,,,32.0,0.0,0.716841,0.44824200000000003,0.399658,-0.354248,0.9087049999999999,-0.36230999999999997,-0.28809,-0.014579,-0.054198,-0.024406999999999998,,,,,,,,,,,,,,,,,,,,,,,,,,,,,,,,,,,,,,,,,,,,,,,,,,,,,,,,,,,,,,,,,
11541,1645649564.068235,1645649564.086972,65.0,0.0,3390.7692869999996,4921.538574,4262.563965,4257.436035,4279.487305,450.0,3.0,64.0,,,,0.0,2.0,2.0,1.0,0.0,2.0,25.0,,,,,,,,,,,,,,,,,,,,,,,,,,,,,,,,,,,,,,,,,,,,,,,,,,,,,,,,,,,,,,,,,,,,,,,,,,,,,,,,,,,,
11542,1645649564.076051,1645649564.094786,66.0,0.0,3382.5642090000006,4990.256348,4244.102539,4256.922852000001,4214.871582,201.0,3.0,64.0,,,,0.0,2.0,2.0,1.0,0.0,2.0,25.0,,,,,,,,33.0,0.0,0.716993,0.44799799999999995,0.399658,-0.354248,0.8999159999999999,-0.372564,-0.28809,-0.013413999999999999,-0.05415,-0.027533,,,,,,,,,,,,,,,,,,,,,,,,,,,,,,,,,,,,,,,,,,,,,,,,,,,,,,,,,,,,,,,,,
11543,1645649564.083867,1645649564.1026,67.0,0.0,3390.256348,4840.512695,4216.410156,4249.743652,4170.769043,450.0,3.0,64.0,,,,0.0,2.0,2.0,1.0,0.0,2.0,25.0,,,,,,,,,,,,,,,,,,,,,,,,,,,,,,,,,,,,,,,,,,,,,,,,,,,,,,0.0,0.0,1.0,0.0,512.0,1.0,,,,,,,,,,,,,,,,,,,,,,,,,
11544,1645649564.091683,1645649564.110315,68.0,0.0,3465.1281740000004,4607.692383,4234.358886999999,4243.589844,4127.179688,102.0,3.0,64.0,,,,0.0,2.0,1.0,0.0,0.0,2.0,8.333333,,,,,,,,34.0,0.0,0.716993,0.44799799999999995,0.399658,-0.354248,0.9043110000000001,-0.366217,-0.29639099999999996,-0.014124000000000001,-0.05405700000000001,-0.030395,,,,,,,,,,,,,,,,,,,,,,,,,,,,,,,,,,,,,,,,,,,,,,,,,,,,,,,,,,,,,,,,,
11545,1645649564.099499,1645649564.118129,69.0,0.0,3494.8718259999996,4376.410156,4303.589844,4249.743652,4085.641113,450.0,3.0,64.0,,,,0.0,2.0,1.0,0.0,0.0,2.0,8.333333,,,,,,,,,,,,,,,,,,,,,,,,,,,,,,,,,,,,,,,,,,,,,,,,,,,,,,,,,,,,,,,,,,,,,,,,,,,,,,,,,,,,
11546,1645649564.107315,1645649564.125944,70.0,0.0,3425.1281740000004,4231.794922,4405.128418,4260.0,4045.641113,20.0,3.0,64.0,,,,0.0,2.0,1.0,0.0,0.0,2.0,8.333333,,,,,,,,35.0,0.0,0.716993,0.44799799999999995,0.399658,-0.354248,0.891127,-0.364263,-0.279789,-0.013248,-0.054071,-0.032922,,,,,,,,,,,,,,,,,,,,,,,,,,,,,,,,,,,,,,,,,,,,,,,,,,,,,,,,,,,,,,,,,
11547,1645649564.1151311,1645649564.133758,71.0,0.0,3386.1538090000004,4276.922852000001,4363.589844,4261.538574,4016.4101560000004,450.0,3.0,64.0,,,,0.0,2.0,1.0,0.0,0.0,2.0,8.333333,,,,,,,,,,,,,,,,,,,,,,,,,,,,,,,,,,,,,,,,,,,,,,,,,,,,,,0.0,0.0,1.0,0.0,512.0,1.0,,,,,,,,,,,,,,,,,,,,,,,,,
11548,1645649564.122946,1645649564.141573,72.0,0.0,3405.641113,4262.563965,4288.205078,4259.487305,4064.615479,450.0,3.0,64.0,,,,0.0,2.0,1.0,0.0,0.0,2.0,8.333333,,,,,,,,36.0,0.0,0.716993,0.44799799999999995,0.399658,-0.354248,0.895033,-0.366705,-0.287114,-0.012168,-0.054035,-0.035294,,,,,,,,,,,,,,,,,,,,,,,,,,,,,,,,,,,,,,,,,,,,,,,,,,,,,,,,,,,,,,,,,
11549,1645649564.1307619,1645649564.149387,73.0,0.0,3399.487061,4237.94873,4241.025879,4261.538574,4138.461426,0.0,3.0,64.0,,,,0.0,2.0,1.0,0.0,0.0,2.0,8.333333,,,,,,,,,,,,,,,,,,,,,,,,,,,,,,,,,,,,,,,,,,,,,,,,,,,,,,,,,,,,,,,,,,,,,,,,,,,,,,,,,,,,
11550,1645649564.138578,1645649564.157201,74.0,0.0,3403.5898439999996,4666.666504,4176.410156,4262.05127,4139.487305,450.0,3.0,64.0,,,,0.0,2.0,1.0,0.0,0.0,2.0,8.333333,,,,,,,,37.0,0.0,0.716857,0.44799799999999995,0.399902,-0.354248,0.910658,-0.357427,-0.29395,-0.012855000000000002,-0.05415,-0.037232999999999995,,,,,,,,,,,,,,,,,,,,,,,,,,,,,,,,,,,,,,,,,,,,,,,,,,,,,,,,,,,,,,,,,
11551,1645649564.146394,1645649564.165016,75.0,0.0,3482.5642090000006,4865.641113000001,4164.615234000001,4262.05127,4180.512695,263.0,3.0,64.0,,,,0.0,2.0,1.0,0.0,0.0,2.0,8.333333,,,,,,,,,,,,,,,,,,,,,,,,,,,,,,,,,,,,,,,,,,,,,,,,,,,,,,0.0,0.0,1.0,0.0,512.0,1.0,,,,,,,,,,,,,,,,,,,,,,,,,
11552,1645649564.1542099,1645649564.17273,76.0,0.0,3493.8461909999996,4551.282227000001,4253.333496,4266.153809,4190.256348,450.0,3.0,64.0,,,,0.0,2.0,1.0,0.0,0.0,2.0,8.333333,,,,,,,,38.0,0.0,0.716857,0.44799799999999995,0.399902,-0.354248,0.909682,-0.348638,-0.283696,-0.011912,-0.054105999999999994,-0.039125,,,,,,,,,,,,,,,,,,,,,,,,,,,,,,,,,,,,,,,,,,,,,,,,,,,,,,,,,,,,,,,,,
11553,1645649564.162026,1645649564.1805449,77.0,0.0,3454.358887,4483.077147999999,4257.436035,4267.692383,4178.461426,450.0,3.0,64.0,,,,0.0,2.0,1.0,0.0,0.0,2.0,8.333333,,,,,,,,,,,,,,,,,,,,,,,,,,,,,,,,,,,,,,,,,,,,,,,,,,,,,,,,,,,,,,,,,,,,,,,,,,,,,,,,,,,,
11554,1645649564.169841,1645649564.188359,78.0,0.0,3427.6923829999996,4578.974121,4167.179688,4262.05127,4146.666504,450.0,3.0,64.0,,,,0.0,2.0,1.0,0.0,0.0,2.0,8.333333,,,,,,,,39.0,0.0,0.716978,0.44799799999999995,0.399902,-0.354004,0.894545,-0.366705,-0.285649,-0.012771,-0.054018,-0.034627,,,,,,,,,,,,,,,,,,,,,,,,,,,,,,,,,,,,,,,,,,,,,,,,,,,,,,,,,,,,,,,,,
11555,1645649564.1776571,1645649564.196173,79.0,0.0,3470.7692869999996,4325.128418,4195.897461,4261.025879,4121.025879,263.0,3.0,64.0,,,,0.0,2.0,1.0,0.0,0.0,2.0,8.333333,,,,,,,,,,,,,,,,,,,,1.0,0.0,0.0,,,,,,,,,,,,,,,,,,,,,,,,,,,,,,,,0.0,0.0,1.0,0.0,512.0,1.0,6772.055664,1153.1290279999998,341.83596800000004,50.169059999999995,25.786964,629.8112179999999,758.101318,767.882446,739.443665,719.349854,88.923958,60.968472,9.802032,12.020575,10.565072,21.139143,4.480889,1.524694,0.264994,0.20715,366.108337,123.313324,25.764402,22.024067000000002,39.180668
11556,1645649564.185473,1645649564.203988,80.0,0.0,3455.384521,4323.077147999999,4265.641113000001,4264.102539,4121.025879,450.0,3.0,64.0,,,,0.0,2.0,1.0,0.0,0.0,2.0,8.333333,,,,,,,,40.0,0.0,0.716873,0.447754,0.400146,-0.354248,0.897963,-0.361822,-0.276371,-0.01335,-0.054036,-0.036975,,,,,,,,,,,,,,,,,,,,,,,,,,,,,,,,,,,,,,,,,,,,,,,,,,,,,,,,,,,,,,,,,
11557,1645649564.193289,1645649564.211802,81.0,0.0,3451.794922,4614.871582,4280.512695,4264.102539,4149.743652,450.0,3.0,64.0,,,,0.0,2.0,1.0,0.0,0.0,2.0,8.333333,,,,,,,,,,,,,,,,,,,,,,,,,,,,,,,,,,,,,,,,,,,,,,,,,,,,,,,,,,,,,,,,,,,,,,,,,,,,,,,,,,,,
11558,1645649564.201105,1645649564.219617,82.0,0.0,3467.6923829999996,4451.794922,4287.692383,4262.563965,4113.846191,450.0,3.0,64.0,,,,0.0,2.0,1.0,0.0,0.0,2.0,8.333333,,,,,,,,41.0,0.0,0.716857,0.44799799999999995,0.399902,-0.354248,0.909682,-0.348638,-0.283696,-0.012356,-0.054002999999999995,-0.038893000000000004,,,,,,,,,,,,,,,,,,,,,,,,,,,,,,,,,,,,,,,,,,,,,,,,,,,,,,,,,,,,,,,,,
11559,1645649564.2089212,1645649564.227431,83.0,0.0,3467.6923829999996,4262.05127,4331.794922,4262.05127,4091.281982,263.0,3.0,64.0,,,,0.0,2.0,1.0,0.0,0.0,2.0,8.333333,,,,,,,,,,,,,,,,,,,,,,,,,,,,,,,,,,,,,,,,,,,,,,,,,,,,,,0.0,0.0,1.0,0.0,512.0,1.0,,,,,,,,,,,,,,,,,,,,,,,,,
11560,1645649564.2167358,1645649564.2352462,84.0,0.0,3421.025635,4396.410156,4289.743652,4262.05127,4060.512939,450.0,3.0,64.0,,,,0.0,2.0,1.0,0.0,0.0,2.0,8.333333,,,,,,,,42.0,0.0,0.7169939999999999,0.447754,0.400146,-0.354004,0.8955209999999999,-0.361822,-0.281254,-0.013074,-0.054023,-0.034369,,,,,,,,,,,,,,,,,,,,,,,,,,,,,,,,,,,,,,,,,,,,,,,,,,,,,,,,,,,,,,,,,
11561,1645649564.224552,1645649564.24296,85.0,0.0,3393.8461909999996,4305.128418,4277.436035,4261.538574,4016.4101560000004,450.0,3.0,64.0,,,,0.0,2.0,1.0,0.0,0.0,2.0,8.333333,,,,,,,,,,,,,,,,,,,,,,,,,,,,,,,,,,,,,,,,,,,,,,,,,,,,,,,,,,,,,,,,,,,,,,,,,,,,,,,,,,,,
11562,1645649564.232368,1645649564.250774,86.0,0.0,3475.897461,4018.461426,4326.666504,4260.512695,4065.641113,450.0,3.0,64.0,,,,0.0,2.0,1.0,0.0,0.0,2.0,8.333333,,,,,,,,43.0,0.0,0.7169939999999999,0.447754,0.400146,-0.354004,0.9038219999999999,-0.370611,-0.278325,-0.013622,-0.053943,-0.030297,,,,,,,,,,,,,,,,,,,,,,,,,,,,,,,,,,,,,,,,,,,,,,,,,,,,,,,,,,,,,,,,,
11563,1645649564.240184,1645649564.258589,87.0,0.0,3559.487061,4118.974121,4378.461426,4261.538574,4108.205078,263.0,3.0,64.0,,,,0.0,2.0,1.0,0.0,0.0,2.0,8.333333,,,,,,,,,,,,,,,,,,,,,,,,,,,,,,,,,,,,,,,,,,,,,,,,,,,,,,0.0,0.0,1.0,0.0,512.0,1.0,,,,,,,,,,,,,,,,,,,,,,,,,
11564,1645649564.248,1645649564.266403,88.0,0.0,3545.1281740000004,4153.333496,4338.974121,4263.077147999999,4054.8718259999996,450.0,3.0,64.0,,,,0.0,2.0,1.0,0.0,0.0,2.0,8.333333,,,,,,,,44.0,0.0,0.7169939999999999,0.447754,0.400146,-0.354004,0.908217,-0.351568,-0.28174299999999997,-0.014163999999999998,-0.053969,-0.02673,,,,,,,,,,,,,,,,,,,,,,,,,,,,,,,,,,,,,,,,,,,,,,,,,,,,,,,,,,,,,,,,,
11565,1645649564.255816,1645649564.274218,89.0,0.0,3515.897461,4086.1538090000004,4272.820313,4262.05127,4063.076904,450.0,3.0,64.0,,,,0.0,2.0,1.0,0.0,0.0,2.0,8.333333,,,,,,,,,,,,,,,,,,,,,,,,,,,,,,,,,,,,,,,,,,,,,,,,,,,,,,,,,,,,,,,,,,,,,,,,,,,,,,,,,,,,
11566,1645649564.263631,1645649564.282032,90.0,0.0,3560.0,4286.666504,4194.871582,4260.512695,4150.769043,450.0,3.0,64.0,,,,0.0,2.0,1.0,0.0,0.0,2.0,8.333333,,,,,,,,45.0,0.0,0.717146,0.44751,0.400146,-0.354004,0.909682,-0.364263,-0.277348,-0.013090000000000001,-0.053943,-0.029624,,,,,,,,,,,,,,,,,,,,,,,,,,,,,,,,,,,,,,,,,,,,,,,,,,,,,,,,,,,,,,,,,
11567,1645649564.2714472,1645649564.2898462,91.0,0.0,3570.7692869999996,4313.333496,4179.487305,4260.512695,4123.077147999999,263.0,3.0,64.0,,,,0.0,2.0,1.0,0.0,0.0,2.0,8.333333,,,,,,,,,,,,,,,,,,,,,,,,,,,,,,,,,,,,,,,,,,,,,,,,,,,,,,0.0,0.0,1.0,0.0,512.0,1.0,,,,,,,,,,,,,,,,,,,,,,,,,
11568,1645649564.279263,1645649564.2976608,92.0,0.0,3635.897461,4137.94873,4228.717772999999,4259.487305,4141.538574,450.0,3.0,64.0,,,,0.0,2.0,1.0,0.0,0.0,2.0,8.333333,,,,,,,,46.0,0.0,0.71701,0.44751,0.400391,-0.354004,0.891127,-0.364752,-0.287114,-0.013734,-0.05392,-0.026075,,,,,,,,,,,,,,,,,,,,,,,,,,,,,,,,,,,,,,,,,,,,,,,,,,,,,,,,,,,,,,,,,
11569,1645649564.2870789,1645649564.305475,93.0,0.0,3683.5898439999996,3938.461426,4298.461426,4258.461426,4164.615234000001,450.0,3.0,64.0,,,,0.0,2.0,1.0,0.0,0.0,2.0,8.333333,,,,,,,,,,,,,,,,,,,,,,,,,,,,,,,,,,,,,,,,,,,,,,,,,,,,,,,,,,,,,,,,,,,,,,,,,,,,,,,,,,,,
11570,1645649564.294895,1645649564.31329,94.0,0.0,3657.4357909999994,4217.436035,4298.461426,4260.512695,4189.230957,450.0,3.0,64.0,,,,0.0,2.0,1.0,0.0,0.0,2.0,8.333333,,,,,,,,47.0,0.0,0.71701,0.44751,0.400391,-0.354004,0.9052870000000001,-0.376471,-0.279789,-0.014216,-0.053948,-0.029082999999999998,,,,,,,,,,,,,,,,,,,,,,,,,,,,,,,,,,,,,,,,,,,,,,,,,,,,,,,,,,,,,,,,,
11571,1645649564.302711,1645649564.321004,95.0,0.0,3659.487061,4767.179688,4191.794922,4253.846191,4201.538574,263.0,3.0,64.0,,,,0.0,2.0,1.0,0.0,0.0,2.0,8.333333,1.0,0.0,0.0,0.0,0.0,0.0,0.0,,,,,,,,,,,,,1.0,0.0,0.0,,,,,,,,,,,,,,,,,,,,,,,,,,,,,,,,0.0,0.0,1.0,0.0,512.0,1.0,4937.633301,825.726318,248.24551400000001,38.404339,29.054215999999997,555.0780639999999,1022.833191,527.507935,764.135437,810.924194,96.985588,66.05806,9.368243,11.469136,10.319064,14.743518,3.0032509999999997,1.120264,0.228442,0.248087,280.474365,121.420105,22.595955,24.028772,40.580405999999996
11572,1645649564.310526,1645649564.328819,96.0,0.0,3687.6923829999996,4897.94873,4123.589844,4249.743652,4208.717772999999,450.0,3.0,64.0,,,,0.0,2.0,1.0,0.0,0.0,2.0,8.333333,,,,,,,,48.0,0.0,0.716874,0.44751,0.40063499999999996,-0.354004,0.901381,-0.366705,-0.282231,-0.014844999999999999,-0.053924,-0.025491,,,,,,,,,,,,,,,,,,,,,,,,,,,,,,,,,,,,,,,,,,,,,,,,,,,,,,,,,,,,,,,,,
11573,1645649564.318342,1645649564.336633,97.0,0.0,3643.5898439999996,4888.205078,4145.128418,4254.871582,4295.897461,450.0,3.0,64.0,,,,0.0,2.0,1.0,0.0,0.0,2.0,8.333333,,,,,,,,,,,,,,,,,,,,,,,,,,,,,,,,,,,,,,,,,,,,,,,,,,,,,,,,,,,,,,,,,,,,,,,,,,,,,,,,,,,,
11574,1645649564.326158,1645649564.3444471,98.0,0.0,3623.076904,4971.794922,4248.717772999999,4258.974121,4371.282227000001,450.0,3.0,64.0,,,,0.0,2.0,1.0,0.0,0.0,2.0,8.333333,,,,,,,,49.0,0.0,0.717026,0.447266,0.40063499999999996,-0.354004,0.906752,-0.368658,-0.28809,-0.015314,-0.054098,-0.028460000000000003,,,,,,,,,,,,,,,,,,,,,,,,,,,,,,,,,,,,,,,,,,,,,,,,,,,,,,,,,,,,,,,,,
11575,1645649564.3339741,1645649564.352262,99.0,0.0,3552.3076170000004,4887.179688,4261.538574,4262.05127,4195.897461,263.0,3.0,64.0,,,,0.0,2.0,1.0,0.0,0.0,2.0,8.333333,,,,,,,,,,,,,,,,,,,,,,,,,,,,,,,,,,,,,,,,,,,,,,,,,,,,,,0.0,0.0,1.0,0.0,512.0,1.0,,,,,,,,,,,,,,,,,,,,,,,,,
11576,1645649564.34179,1645649564.360076,100.0,0.0,3467.6923829999996,4451.282227000001,4270.769043,4266.666504,4032.820557,450.0,3.0,64.0,,,,0.0,2.0,1.0,0.0,0.0,2.0,8.333333,,,,,,,,50.0,0.0,0.716874,0.44751,0.40063499999999996,-0.354004,0.894545,-0.368658,-0.275395,-0.014173,-0.054060000000000004,-0.031278,,,,,,,,,,,,,,,,,,,,,,,,,,,,,,,,,,,,,,,,,,,,,,,,,,,,,,,,,,,,,,,,,
11577,1645649564.349606,1645649564.367891,101.0,0.0,3530.256348,4174.358886999999,4322.05127,4267.179688,4095.897461,450.0,3.0,64.0,,,,0.0,2.0,1.0,0.0,0.0,2.0,8.333333,,,,,,,,,,,,,,,,,,,,,,,,,,,,,,,,,,,,,,,,,,,,,,,,,,,,,,,,,,,,,,,,,,,,,,,,,,,,,,,,,,,,
11578,1645649564.357422,1645649564.375705,102.0,0.0,3617.4357909999994,4254.358886999999,4374.871582,4264.615234000001,4107.179688,450.0,3.0,64.0,,,,0.0,2.0,1.0,0.0,0.0,2.0,8.333333,,,,,,,,51.0,0.0,0.717026,0.447266,0.40063499999999996,-0.354004,0.903334,-0.363775,-0.289555,-0.014758000000000002,-0.054074000000000004,-0.027514999999999998,,,,,,,,,,,,,,,,,,,,,,,,,,,,,,,,,,,,,,,,,,,,,,,,,,,,,,,,,,,,,,,,,
11579,1645649564.365237,1645649564.383519,103.0,0.0,3632.820557,4130.769043,4343.589844,4263.589844,4045.1281740000004,263.0,3.0,64.0,,,,0.0,2.0,1.0,0.0,0.0,2.0,8.333333,,,,,,,,,,,,,,,,,,,,,,,,,,,,,,,,,,,,,,,,,,,,,,,,,,,,,,0.0,0.0,1.0,0.0,512.0,1.0,,,,,,,,,,,,,,,,,,,,,,,,,
11580,1645649564.3730528,1645649564.391334,104.0,0.0,3622.5642090000006,3936.4101560000004,4306.666504,4263.077147999999,4078.974365,450.0,3.0,64.0,,,,0.0,2.0,1.0,0.0,0.0,2.0,8.333333,,,,,,,,52.0,0.0,0.716753,0.44751,0.40063499999999996,-0.354248,0.8930799999999999,-0.36084499999999997,-0.285161,-0.015137000000000001,-0.053988999999999995,-0.030476999999999997,,,,,,,,,,,,,,,,,,,,,,,,,,,,,,,,,,,,,,,,,,,,,,,,,,,,,,,,,,,,,,,,,
11581,1645649564.380869,1645649564.399048,105.0,0.0,3666.6667479999996,4304.615234000001,4221.538574,4258.974121,4167.179688,450.0,3.0,64.0,,,,0.0,2.0,1.0,0.0,0.0,2.0,8.333333,,,,,,,,,,,,,,,,,,,,,,,,,,,,,,,,,,,,,,,,,,,,,,,,,,,,,,,,,,,,,,,,,,,,,,,,,,,,,,,,,,,,
11582,1645649564.388685,1645649564.406863,106.0,0.0,3770.7692869999996,4727.179688,4154.358886999999,4252.307617,4180.512695,450.0,3.0,64.0,,,,0.0,2.0,1.0,0.0,0.0,2.0,8.333333,,,,,,,,53.0,0.0,0.716906,0.447266,0.40063499999999996,-0.354248,0.8964979999999999,-0.36230999999999997,-0.287602,-0.015528,-0.053765999999999994,-0.033093,,,,,,,,,,,,,,,,,,,,,,,,,,,,,,,,,,,,,,,,,,,,,,,,,,,,,,,,,,,,,,,,,
11583,1645649564.396501,1645649564.414577,107.0,0.0,3810.7692869999996,4726.153809,4162.563965,4254.358886999999,4235.897461,263.0,3.0,64.0,,,,0.0,2.0,1.0,0.0,0.0,2.0,8.333333,,,,,,,,,,,,,,,,,,,,,,,,,,,,,,,,,,,,,,,,,,,,,,,,,,,,,,0.0,0.0,1.0,0.0,512.0,1.0,,,,,,,,,,,,,,,,,,,,,,,,,
11584,1645649564.404317,1645649564.422392,108.0,0.0,3781.538574,5028.717772999999,4161.538574,4259.487305,4371.794922,450.0,3.0,64.0,,,,0.0,2.0,1.0,0.0,0.0,2.0,8.333333,,,,,,,,54.0,0.0,0.716906,0.447266,0.40063499999999996,-0.354248,0.8921030000000001,-0.358404,-0.284184,-0.015928,-0.053858,-0.035399,,,,,,,,,,,,,,,,,,,,,,,,,,,,,,,,,,,,,,,,,,,,,,,,,,,,,,,,,,,,,,,,,
11585,1645649564.412132,1645649564.430206,109.0,0.0,3813.8461909999996,5175.897461,4141.025879,4260.512695,4365.128418,450.0,3.0,64.0,,,,0.0,2.0,1.0,0.0,0.0,2.0,8.333333,,,,,,,,,,,,,,,,,,,,,,,,,,,,,,,,,,,,,,,,,,,,,,,,,,,,,,,,,,,,,,,,,,,,,,,,,,,,,,,,,,,,
11586,1645649564.419948,1645649564.4380212,110.0,0.0,3713.8461909999996,4721.538574,4169.230957,4266.153809,4146.666504,450.0,3.0,64.0,,,,0.0,2.0,1.0,0.0,0.0,2.0,8.333333,,,,,,,,55.0,0.0,0.716753,0.44751,0.40063499999999996,-0.354248,0.8930799999999999,-0.36084499999999997,-0.285161,-0.016191,-0.053795,-0.037572,,,,,,,,,,,,,,,,,,,,,,,,,,,,,,,,,,,,,,,,,,,,,,,,,,,,,,,,,,,,,,,,,
11587,1645649564.4277642,1645649564.4458349,111.0,0.0,3657.4357909999994,4644.102539,4222.563965,4269.743652,4124.102539,263.0,3.0,64.0,,,,0.0,2.0,1.0,0.0,0.0,2.0,8.333333,,,,,,,,,,,,,,,,,,,,1.0,0.0,0.0,,,,,,,,,,,,,,,,,,,,,,,,,,,,,,,,0.0,0.0,1.0,0.0,512.0,1.0,3083.293945,511.32772800000004,160.602417,28.961267,33.856987,500.959137,1234.477539,457.95815999999996,822.7648929999999,907.4974369999999,103.293564,74.013763,11.635019,11.859769,10.572922,8.717309,1.675154,0.776179,0.21843400000000002,0.285842,199.677597,121.59095,22.568195000000003,25.728996,40.953369
11588,1645649564.43558,1645649564.453549,112.0,0.0,3770.256348,4380.512695,4288.205078,4260.512695,4205.641113000001,450.0,3.0,64.0,,,,0.0,2.0,1.0,0.0,0.0,2.0,8.333333,,,,,,,,56.0,0.0,0.716906,0.447266,0.40063499999999996,-0.354248,0.906752,-0.352056,-0.285649,-0.016475999999999998,-0.053835,-0.033229,,,,,,,,,,,,,,,,,,,,,,,,,,,,,,,,,,,,,,,,,,,,,,,,,,,,,,,,,,,,,,,,,
11589,1645649564.443396,1645649564.461364,113.0,0.0,3801.538574,3940.0,4371.794922,4256.410156,4191.282227000001,450.0,3.0,64.0,,,,0.0,2.0,1.0,0.0,0.0,2.0,8.333333,,,,,,,,,,,,,,,,,,,,,,,,,,,,,,,,,,,,,,,,,,,,,,,,,,,,,,,,,,,,,,,,,,,,,,,,,,,,,,,,,,,,
11590,1645649564.451212,1645649564.469178,114.0,0.0,3729.743652,4351.794922,4302.563965,4254.358886999999,4172.307617,450.0,3.0,64.0,,,,0.0,2.0,1.0,0.0,0.0,2.0,8.333333,,,,,,,,57.0,0.0,0.716906,0.447266,0.40063499999999996,-0.354248,0.893568,-0.358892,-0.28320700000000004,-0.016782,-0.053823,-0.029418,,,,,,,,,,,,,,,,,,,,,,,,,,,,,,,,,,,,,,,,,,,,,,,,,,,,,,,,,,,,,,,,,
11591,1645649564.459027,1645649564.476993,115.0,0.0,3754.8718259999996,4757.94873,4205.128418,4251.282227000001,4173.333496,263.0,3.0,64.0,,,,0.0,2.0,1.0,0.0,0.0,2.0,8.333333,,,,,,,,,,,,,,,,,,,,,,,,,,,,,,,,,,,,,,,,,,,,,,,,,,,,,,0.0,0.0,1.0,0.0,512.0,1.0,,,,,,,,,,,,,,,,,,,,,,,,,
11592,1645649564.466843,1645649564.484807,116.0,0.0,3791.794922,4872.820313,4187.179688,4254.358886999999,4221.025879,450.0,3.0,64.0,,,,0.0,2.0,1.0,0.0,0.0,2.0,8.333333,,,,,,,,58.0,0.0,0.716785,0.447266,0.40063499999999996,-0.35449200000000003,0.8964979999999999,-0.365728,-0.29639099999999996,-0.015591999999999998,-0.053860000000000005,-0.031994,,,,,,,,,,,,,,,,,,,,,,,,,,,,,,,,,,,,,,,,,,,,,,,,,,,,,,,,,,,,,,,,,
11593,1645649564.474659,1645649564.4926212,117.0,0.0,3803.076904,5062.05127,4256.922852000001,4257.436035,4308.717772999999,450.0,3.0,64.0,,,,0.0,2.0,1.0,0.0,0.0,2.0,8.333333,,,,,,,,,,,,,,,,,,,,,,,,,,,,,,,,,,,,,,,,,,,,,,,,,,,,,,,,,,,,,,,,,,,,,,,,,,,,,,,,,,,,
11594,1645649564.482475,1645649564.5004358,118.0,0.0,3752.3076170000004,5022.05127,4249.743652,4261.538574,4246.153809,450.0,3.0,64.0,,,,0.0,2.0,1.0,0.0,0.0,2.0,8.333333,,,,,,,,59.0,0.0,0.716785,0.447266,0.40063499999999996,-0.35449200000000003,0.901869,-0.361334,-0.29688000000000003,-0.014472,-0.053797000000000005,-0.034459,,,,,,,,,,,,,,,,,,,,,,,,,,,,,,,,,,,,,,,,,,,,,,,,,,,,,,,,,,,,,,,,,
11595,1645649564.490291,1645649564.50825,119.0,0.0,3649.2307130000004,4937.94873,4220.0,4266.666504,4163.077147999999,263.0,3.0,64.0,,,,0.0,2.0,1.0,0.0,0.0,2.0,8.333333,,,,,,,,,,,,,,,,,,,,,,,,,,,,,,,,,,,,,,,,,,,,,,,,,,,,,,0.0,0.0,1.0,0.0,512.0,1.0,,,,,,,,,,,,,,,,,,,,,,,,,
11596,1645649564.498107,1645649564.5160651,120.0,0.0,3703.5898439999996,4605.128418,4257.94873,4265.641113000001,4204.615234000001,450.0,3.0,64.0,,,,0.0,2.0,1.0,0.0,0.0,2.0,8.333333,,,,,,,,60.0,0.0,0.716785,0.447266,0.40063499999999996,-0.35449200000000003,0.9004040000000001,-0.364752,-0.286625,-0.014929,-0.053837,-0.030329000000000002,,,,,,,,,,,,,,,,,,,,,,,,,,,,,,,,,,,,,,,,,,,,,,,,,,,,,,,,,,,,,,,,,
11597,1645649564.505922,1645649564.5238788,121.0,0.0,3783.5898439999996,3986.1538090000004,4352.820313,4268.205078,4151.794922,450.0,3.0,64.0,,,,0.0,2.0,1.0,0.0,0.0,2.0,8.333333,,,,,,,,,,,,,,,,,,,,,,,,,,,,,,,,,,,,,,,,,,,,,,,,,,,,,,,,,,,,,,,,,,,,,,,,,,,,,,,,,,,,
11598,1645649564.5137382,1645649564.531594,122.0,0.0,3810.7692869999996,4277.436035,4297.436035,4269.743652,4133.333496,450.0,3.0,64.0,,,,0.0,2.0,1.0,0.0,0.0,2.0,8.333333,,,,,,,,61.0,0.0,0.7166170000000001,0.44751,0.400879,-0.354248,0.901869,-0.36328699999999997,-0.277836,-0.013680000000000001,-0.053825,-0.03296,,,,,,,,,,,,,,,,,,,,,,,,,,,,,,,,,,,,,,,,,,,,,,,,,,,,,,,,,,,,,,,,,
11599,1645649564.521554,1645649564.539408,123.0,0.0,3903.5898439999996,4906.666504,4142.563965,4253.333496,4215.384765999999,263.0,3.0,64.0,,,,0.0,2.0,1.0,0.0,0.0,2.0,8.333333,,,,,,,,,,,,,,,,,,,,,,,,,,,,,,,,,,,,,,,,,,,,,,,,,,,,,,0.0,0.0,1.0,0.0,512.0,1.0,,,,,,,,,,,,,,,,,,,,,,,,,
11600,1645649564.5293698,1645649564.5472221,124.0,0.0,3903.5898439999996,4625.128418,4105.641113000001,4248.205078,4235.384765999999,450.0,3.0,64.0,,,,0.0,2.0,1.0,0.0,0.0,2.0,8.333333,,,,,,,,62.0,0.0,0.716753,0.44751,0.40063499999999996,-0.354248,0.9038219999999999,-0.369635,-0.279301,-0.014266,-0.053813,-0.02903,,,,,,,,,,,,,,,,,,,,,,,,,,,,,,,,,,,,,,,,,,,,,,,,,,,,,,,,,,,,,,,,,
11601,1645649564.537186,1645649564.555037,125.0,0.0,3742.5642090000006,4703.589844,4174.358886999999,4264.615234000001,4256.922852000001,450.0,3.0,64.0,,,,0.0,2.0,1.0,0.0,0.0,2.0,8.333333,,,,,,,,,,,,,,,,,,,,,,,,,,,,,,,,,,,,,,,,,,,,,,,,,,,,,,,,,,,,,,,,,,,,,,,,,,,,,,,,,,,,
11602,1645649564.545002,1645649564.562851,126.0,0.0,3762.0512700000004,5096.922852000001,4217.94873,4265.641113000001,4333.333496,450.0,3.0,64.0,,,,0.0,2.0,1.0,0.0,0.0,2.0,8.333333,,,,,,,,63.0,0.0,0.716616,0.447754,0.400391,-0.35449200000000003,0.8969860000000001,-0.36328699999999997,-0.282719,-0.014695,-0.053852,-0.031791,,,,,,,,,,,,,,,,,,,,,,,,,,,,,,,,,,,,,,,,,,,,,,,,,,,,,,,,,,,,,,,,,
11603,1645649564.552817,1645649564.570666,127.0,0.0,3829.2307130000004,4357.436035,4217.436035,4256.410156,4181.538574,236.0,3.0,64.0,,,,0.0,2.0,1.0,0.0,0.0,2.0,8.333333,,,,,,,,,,,,,,,,,,,,1.0,0.0,0.0,,,,,,,,,,,,,,,,,,,,,,,,,,,,,,,,0.0,0.0,1.0,0.0,512.0,1.0,1614.814209,275.494263,93.185982,24.165703,39.003864,497.872345,1360.49292,446.45169100000004,905.377808,982.730408,107.159447,82.684593,15.272544,14.363835,11.339764,4.3128459999999995,0.789392,0.551795,0.23496199999999998,0.311237,142.52891499999998,122.94713600000001,25.52705,27.0709,40.626389
11604,1645649564.560633,1645649564.57848,0.0,0.0,3791.281982,3932.3076170000004,4206.666504,4262.05127,4083.5898439999996,450.0,3.0,64.0,,,,0.0,2.0,1.0,0.0,0.0,2.0,8.333333,,,,,,,,0.0,0.0,0.7164470000000001,0.44824200000000003,0.400146,-0.35449200000000003,0.908217,-0.358404,-0.288579,-0.015128999999999998,-0.053789,-0.034178,,,,,,,,,,,,,,,,,,,,,,,,,,,,,,,,,,,,,,,,,,,,,,,,,,,,,,,,,,,,,,,,,
11605,1645649564.568449,1645649564.586294,1.0,0.0,3818.974365,4909.230957,4176.922852000001,4262.05127,4262.563965,450.0,3.0,64.0,,,,0.0,2.0,1.0,0.0,0.0,2.0,8.333333,,,,,,,,,,,,,,,,,,,,,,,,,,,,,,,,,,,,,,,,,,,,,,,,,,,,,,,,,,,,,,,,,,,,,,,,,,,,,,,,,,,,
11606,1645649564.576265,1645649564.594009,2.0,0.0,3930.7692869999996,5336.922852000001,4227.179688,4252.307617,4364.102539,201.0,3.0,64.0,,,,0.0,2.0,1.0,1.0,0.0,2.0,16.666666,,,,,,,,1.0,0.0,0.71631,0.44848599999999994,0.399902,-0.354736,0.906264,-0.36035700000000004,-0.285161,-0.015824,-0.053827999999999994,-0.032059,,,,,,,,,,,,,,,,,,,,,,,,,,,,,,,,,,,,,,,,,,,,,,,,,,,,,,,,,,,,,,,,,
11607,1645649564.5840812,1645649564.601823,3.0,0.0,3812.3076170000004,4571.794922,4271.282227000001,4259.487305,4181.025879,450.0,3.0,64.0,,,,0.0,2.0,1.0,1.0,0.0,2.0,16.666666,,,,,,,,,,,,,,,,,,,,,,,,,,,,,,,,,,,,,,,,,,,,,,,,,,,,,,0.0,0.0,1.0,0.0,512.0,1.0,,,,,,,,,,,,,,,,,,,,,,,,,
11608,1645649564.591897,1645649564.609638,4.0,0.0,3654.8718259999996,4471.282227000001,4267.692383,4272.307617,4064.102539,126.0,3.0,64.0,,,,0.0,2.0,1.0,1.0,0.0,2.0,16.666666,,,,,,,,2.0,0.0,0.716616,0.447754,0.400391,-0.35449200000000003,0.8969860000000001,-0.36328699999999997,-0.282719,-0.016146,-0.053963,-0.028219,,,,,,,,,,,,,,,,,,,,,,,,,,,,,,,,,,,,,,,,,,,,,,,,,,,,,,,,,,,,,,,,,
11609,1645649564.599712,1645649564.617452,5.0,0.0,3812.820557,4914.871582,4251.794922,4262.05127,4141.538574,450.0,3.0,64.0,,,,0.0,2.0,1.0,1.0,0.0,2.0,16.666666,,,,,,,,,,,,,,,,,,,,,,,,,,,,,,,,,,,,,,,,,,,,,,,,,,,,,,,,,,,,,,,,,,,,,,,,,,,,,,,,,,,,
11610,1645649564.607528,1645649564.625267,6.0,0.0,4011.794922,4494.358886999999,4316.922852000001,4249.230957,4183.589844,98.0,3.0,64.0,,,,0.0,2.0,1.0,1.0,0.0,2.0,16.666666,,,,,,,,3.0,0.0,0.716173,0.44873,0.399658,-0.35498,0.882826,-0.354498,-0.278325,-0.016436000000000003,-0.054084,-0.024762,,,,,,,,,,,,,,,,,,,,,,,,,,,,,,,,,,,,,,,,,,,,,,,,,,,,,,,,,,,,,,,,,
11611,1645649564.615344,1645649564.633081,7.0,0.0,3916.923096,4346.153809,4274.358886999999,4260.512695,4171.282227000001,450.0,3.0,64.0,,,,0.0,2.0,1.0,1.0,0.0,2.0,16.666666,,,,,,,,,,,,,,,,,,,,,,,,,,,,,,,,,,,,,,,,,,,,,,,,,,,,,,0.0,0.0,1.0,0.0,512.0,1.0,,,,,,,,,,,,,,,,,,,,,,,,,
11612,1645649564.62316,1645649564.6407962,8.0,0.0,3742.5642090000006,5124.102539,4176.922852000001,4269.743652,4204.102539,450.0,3.0,64.0,,,,0.0,2.0,1.0,1.0,0.0,2.0,16.666666,,,,,,,,4.0,0.0,0.716188,0.44873,0.399414,-0.355225,0.9004040000000001,-0.353033,-0.282231,-0.016697,-0.054096000000000005,-0.027852,,,,,,,,,,,,,,,,,,,,,,,,,,,,,,,,,,,,,,,,,,,,,,,,,,,,,,,,,,,,,,,,,
11613,1645649564.630976,1645649564.6486099,9.0,0.0,3786.1538090000004,4871.282227000001,4218.974121,4264.615234000001,4242.563965,0.0,3.0,64.0,,,,0.0,2.0,1.0,1.0,0.0,2.0,16.666666,,,,,,,,,,,,,,,,,,,,,,,,,,,,,,,,,,,,,,,,,,,,,,,,,,,,,,,,,,,,,,,,,,,,,,,,,,,,,,,,,,,,
11614,1645649564.638792,1645649564.656424,10.0,0.0,3914.8718259999996,3734.358887,4349.743652,4262.563965,4175.897461,450.0,3.0,64.0,,,,0.0,2.0,1.0,1.0,0.0,2.0,16.666666,,,,,,,,5.0,0.0,0.7160350000000001,0.448975,0.399414,-0.355225,0.9087049999999999,-0.355962,-0.289067,-0.016881999999999998,-0.054105999999999994,-0.030633999999999998,,,,,,,,,,,,,,,,,,,,,,,,,,,,,,,,,,,,,,,,,,,,,,,,,,,,,,,,,,,,,,,,,
11615,1645649564.646608,1645649564.6642392,11.0,0.0,3962.5642090000006,4022.5642090000006,4267.179688,4267.692383,4138.461426,276.0,3.0,64.0,,,,0.0,2.0,1.0,1.0,0.0,2.0,16.666666,,,,,,,,,,,,,,,,,,,,,,,,,,,,,,,,,,,,,,,,,,,,,,,,,,,,,,0.0,0.0,1.0,0.0,512.0,1.0,,,,,,,,,,,,,,,,,,,,,,,,,
11616,1645649564.654424,1645649564.6720529,12.0,0.0,3897.9487299999996,5227.692383,4091.794922,4269.230957,4247.692383,450.0,3.0,64.0,,,,0.0,2.0,1.0,1.0,0.0,2.0,16.666666,,,,,,,,6.0,0.0,0.71605,0.448975,0.39916999999999997,-0.355469,0.9087049999999999,-0.359869,-0.272465,-0.017245,-0.054067,-0.033283,,,,,,,,,,,,,,,,,,,,,,,,,,,,,,,,,,,,,,,,,,,,,,,,,,,,,,,,,,,,,,,,,
11617,1645649564.662239,1645649564.679868,13.0,0.0,3895.384521,5043.589844,4158.974121,4266.153809,4347.692383,450.0,3.0,64.0,,,,0.0,2.0,1.0,1.0,0.0,2.0,16.666666,,,,,,,,,,,,,,,,,,,,,,,,,,,,,,,,,,,,,,,,,,,,,,,,,,,,,,,,,,,,,,,,,,,,,,,,,,,,,,,,,,,,
11618,1645649564.6700552,1645649564.687682,14.0,0.0,4000.0,3934.358887,4324.102539,4261.538574,4264.102539,450.0,3.0,64.0,,,,0.0,2.0,1.0,1.0,0.0,2.0,16.666666,,,,,,,,7.0,0.0,0.71605,0.448975,0.39916999999999997,-0.355469,0.902358,-0.34912600000000005,-0.291508,-0.016009,-0.054030999999999996,-0.02932,,,,,,,,,,,,,,,,,,,,,,,,,,,,,,,,,,,,,,,,,,,,,,,,,,,,,,,,,,,,,,,,,
11619,1645649564.677871,1645649564.695496,15.0,0.0,4069.743652,3933.8461909999996,4285.128418,4260.512695,4196.410156,276.0,3.0,64.0,,,,0.0,2.0,1.0,1.0,0.0,2.0,16.666666,,,,,,,,,,,,,,,,,,,,1.0,0.0,0.0,,,,,,,,,,,,,,,,,,,,,,,,,,,,,,,,0.0,0.0,1.0,0.0,512.0,1.0,701.5145259999999,137.361664,51.732071000000005,23.98856,42.647568,561.048523,1439.62146,460.550537,980.164185,1004.0289310000001,108.48677099999999,90.446701,19.984935999999998,19.449959,12.411143,1.8106349999999998,0.39203699999999997,0.45335699999999995,0.26266100000000003,0.315992,113.496605,125.881905,32.420658,27.848827000000004,39.599407
11620,1645649564.6856868,1645649564.703311,16.0,0.0,3892.3076170000004,4701.025879,4164.102539,4268.205078,4163.077147999999,0.0,3.0,64.0,,,,0.0,2.0,1.0,1.0,0.0,2.0,16.666666,,,,,,,,8.0,0.0,0.7163069999999999,0.448975,0.398926,-0.355225,0.9038219999999999,-0.381353,-0.293462,-0.014652000000000002,-0.054048,-0.032003,,,,,,,,,,,,,,,,,,,,,,,,,,,,,,,,,,,,,,,,,,,,,,,,,,,,,,,,,,,,,,,,,
11621,1645649564.693503,1645649564.711025,17.0,0.0,3790.256348,4802.563965,4240.0,4273.846191,4160.512695,0.0,3.0,64.0,,,,0.0,2.0,1.0,1.0,0.0,2.0,16.666666,,,,,,,,,,,,,,,,,,,,,,,,,,,,,,,,,,,,,,,,,,,,,,,,,,,,,,,,,,,,,,,,,,,,,,,,,,,,,,,,,,,,
11622,1645649564.701319,1645649564.7188401,18.0,0.0,3978.461426,4763.589844,4324.102539,4263.077147999999,4214.871582,0.0,3.0,64.0,,,,0.0,2.0,1.0,1.0,0.0,2.0,16.666666,,,,,,,,9.0,0.0,0.7163069999999999,0.448975,0.398926,-0.355225,0.9043110000000001,-0.37158800000000003,-0.275395,-0.01514,-0.053966,-0.034272000000000004,,,,,,,,,,,,,,,,,,,,,,,,,,,,,,,,,,,,,,,,,,,,,,,,,,,,,,,,,,,,,,,,,
11623,1645649564.709134,1645649564.7266538,19.0,0.0,4117.436035,5095.384765999999,4298.461426,4252.307617,4278.461426,0.0,3.0,64.0,,,,0.0,2.0,1.0,1.0,0.0,2.0,16.666666,,,,,,,,,,,,,,,,,,,,,,,,,,,,,,,,,,,,,,,,,,,,,,,,,,,,,,0.0,0.0,1.0,0.0,512.0,1.0,,,,,,,,,,,,,,,,,,,,,,,,,
11624,1645649564.71695,1645649564.734469,20.0,0.0,3946.1538090000004,4670.769043,4270.769043,4261.538574,4169.230957,0.0,3.0,64.0,,,,0.0,2.0,1.0,1.0,0.0,2.0,16.666666,,,,,,,,10.0,0.0,0.7163069999999999,0.448975,0.398926,-0.355225,0.9155409999999999,-0.367193,-0.288579,-0.015628,-0.054087,-0.036411,,,,,,,,,,,,,,,,,,,,,,,,,,,,,,,,,,,,,,,,,,,,,,,,,,,,,,,,,,,,,,,,,
11625,1645649564.724766,1645649564.742283,21.0,0.0,3800.512939,3855.897461,4338.461426,4274.358886999999,4036.923096,0.0,3.0,64.0,,,,0.0,2.0,1.0,1.0,0.0,2.0,16.666666,,,,,,,,,,,,,,,,,,,,,,,,,,,,,,,,,,,,,,,,,,,,,,,,,,,,,,,,,,,,,,,,,,,,,,,,,,,,,,,,,,,,
11626,1645649564.732582,1645649564.750097,22.0,0.0,3874.358887,4430.769043,4277.436035,4269.743652,4119.487305,0.0,3.0,64.0,,,,0.0,2.0,1.0,1.0,0.0,2.0,16.666666,,,,,,,,11.0,0.0,0.7163069999999999,0.448975,0.398926,-0.355225,0.903334,-0.382818,-0.29639099999999996,-0.014358000000000001,-0.054049,-0.038433999999999996,,,,,,,,,,,,,,,,,,,,,,,,,,,,,,,,,,,,,,,,,,,,,,,,,,,,,,,,,,,,,,,,,
11627,1645649564.740398,1645649564.757912,23.0,0.0,3893.8461909999996,5426.666504,4182.05127,4261.538574,4250.256348,0.0,3.0,64.0,,,,0.0,2.0,1.0,1.0,0.0,2.0,16.666666,,,,,,,,,,,,,,,,,,,,,,,,,,,,,,,,,,,,,,,,,,,,,,,,,,,,,,0.0,0.0,1.0,0.0,512.0,1.0,,,,,,,,,,,,,,,,,,,,,,,,,
11628,1645649564.748214,1645649564.765726,24.0,0.0,3872.820557,4730.769043,4236.922852000001,4264.102539,4212.307617,0.0,3.0,64.0,,,,0.0,2.0,1.0,1.0,0.0,2.0,16.666666,,,,,,,,12.0,0.0,0.716443,0.448975,0.39868200000000004,-0.355225,0.8955209999999999,-0.36817,-0.279789,-0.014827000000000002,-0.054211,-0.033907,,,,,,,,,,,,,,,,,,,,,,,,,,,,,,,,,,,,,,,,,,,,,,,,,,,,,,,,,,,,,,,,,
11629,1645649564.756029,1645649564.773541,25.0,0.0,3948.205078,3633.8461909999996,4338.461426,4266.666504,4084.102539,0.0,3.0,64.0,,,,0.0,2.0,1.0,1.0,0.0,2.0,16.666666,,,,,,,,,,,,,,,,,,,,,,,,,,,,,,,,,,,,,,,,,,,,,,,,,,,,,,,,,,,,,,,,,,,,,,,,,,,,,,,,,,,,
11630,1645649564.763845,1645649564.7813551,26.0,0.0,3993.8461909999996,4207.179688,4225.128418,4268.717772999999,4121.538574,0.0,3.0,64.0,,,,0.0,2.0,1.0,1.0,0.0,2.0,16.666666,,,,,,,,13.0,0.0,0.71629,0.449219,0.39868200000000004,-0.355225,0.8896620000000001,-0.381353,-0.279301,-0.015297,-0.05421,-0.036034,,,,,,,,,,,,,,,,,,,,,,,,,,,,,,,,,,,,,,,,,,,,,,,,,,,,,,,,,,,,,,,,,
11631,1645649564.771661,1645649564.789069,27.0,0.0,3914.8718259999996,5047.692383,4094.358887,4273.333496,4184.615234000001,0.0,3.0,64.0,,,,0.0,2.0,1.0,1.0,0.0,2.0,16.666666,,,,,,,,,,,,,,,,,,,,,,,,,,,,,,,,,,,,,,,,,,,,,,,,,,,,,,0.0,0.0,1.0,0.0,512.0,1.0,,,,,,,,,,,,,,,,,,,,,,,,,
11632,1645649564.779477,1645649564.796884,28.0,0.0,3944.615479,4841.025879,4137.94873,4270.769043,4241.538574,0.0,3.0,64.0,,,,0.0,2.0,1.0,1.0,0.0,2.0,16.666666,,,,,,,,14.0,0.0,0.71629,0.449219,0.39868200000000004,-0.355225,0.890639,-0.35938000000000003,-0.277348,-0.015623,-0.054209,-0.038045999999999996,,,,,,,,,,,,,,,,,,,,,,,,,,,,,,,,,,,,,,,,,,,,,,,,,,,,,,,,,,,,,,,,,
11633,1645649564.787293,1645649564.804598,29.0,0.0,4027.6923829999996,4861.538574,4176.410156,4263.077147999999,4372.820313,0.0,3.0,64.0,,,,0.0,2.0,1.0,1.0,0.0,2.0,16.666666,,,,,,,,,,,,,,,,,,,,,,,,,,,,,,,,,,,,,,,,,,,,,,,,,,,,,,,,,,,,,,,,,,,,,,,,,,,,,,,,,,,,
11634,1645649564.795109,1645649564.812413,30.0,0.0,4037.9487299999996,5106.666504,4143.077147999999,4262.05127,4405.641113000001,0.0,3.0,64.0,,,,0.0,2.0,1.0,1.0,0.0,2.0,16.666666,,,,,,,,15.0,0.0,0.71629,0.449219,0.39868200000000004,-0.355225,0.906264,-0.367681,-0.286137,-0.014402000000000002,-0.054208000000000006,-0.033509,,,,,,,,,,,,,,,,,,,,,,,,,,,,,,,,,,,,,,,,,,,,,,,,,,,,,,,,,,,,,,,,,
11635,1645649564.802925,1645649564.820227,31.0,0.0,4039.487061,4580.0,4160.0,4259.487305,4194.871582,0.0,3.0,64.0,,,,0.0,2.0,1.0,1.0,0.0,2.0,16.666666,1.0,0.0,0.0,0.0,0.0,0.0,0.0,,,,,,,,,,,,,1.0,0.0,0.0,,,,,,,,,,,,,,,,,,,,,,,,,,,,,,,,0.0,0.0,1.0,0.0,512.0,1.0,250.913147,77.78698,33.730090999999994,26.683730999999998,43.280331,678.022583,1523.2579349999999,553.105835,1012.585754,955.676208,107.93028999999999,96.942284,26.466998999999998,26.351921,13.528714,0.697551,0.32463200000000003,0.450901,0.2832,0.29724,105.10949699999999,130.91618300000002,43.922222,27.989826,37.788937
11636,1645649564.81074,1645649564.828042,32.0,0.0,4068.205078,4226.666504,4214.871582,4257.436035,4125.641113000001,0.0,3.0,64.0,,,,0.0,2.0,1.0,1.0,0.0,2.0,16.666666,,,,,,,,16.0,0.0,0.71629,0.449219,0.39868200000000004,-0.355225,0.8896620000000001,-0.381353,-0.279301,-0.014915000000000001,-0.05425599999999999,-0.029523,,,,,,,,,,,,,,,,,,,,,,,,,,,,,,,,,,,,,,,,,,,,,,,,,,,,,,,,,,,,,,,,,
11637,1645649564.818556,1645649564.835856,33.0,0.0,3960.512939,4424.615234000001,4229.230957,4269.230957,4175.897461,0.0,3.0,64.0,,,,0.0,2.0,1.0,1.0,0.0,2.0,16.666666,,,,,,,,,,,,,,,,,,,,,,,,,,,,,,,,,,,,,,,,,,,,,,,,,,,,,,,,,,,,,,,,,,,,,,,,,,,,,,,,,,,,
11638,1645649564.8263721,1645649564.8435712,34.0,0.0,3889.2307130000004,4411.794922,4258.974121,4277.94873,4132.307617,0.0,3.0,64.0,,,,0.0,2.0,1.0,1.0,0.0,2.0,16.666666,,,,,,,,17.0,0.0,0.716169,0.449219,0.39868200000000004,-0.355469,0.901381,-0.361334,-0.289555,-0.015328,-0.05425,-0.025936,,,,,,,,,,,,,,,,,,,,,,,,,,,,,,,,,,,,,,,,,,,,,,,,,,,,,,,,,,,,,,,,,
11639,1645649564.834188,1645649564.8513849,35.0,0.0,3986.6667479999996,4717.436035,4221.538574,4265.641113000001,4183.077147999999,0.0,3.0,64.0,,,,0.0,2.0,1.0,1.0,0.0,2.0,16.666666,,,,,,,,,,,,,,,,,,,,,,,,,,,,,,,,,,,,,,,,,,,,,,,,,,,,,,0.0,0.0,1.0,0.0,512.0,1.0,,,,,,,,,,,,,,,,,,,,,,,,,
11640,1645649564.8420038,1645649564.859099,36.0,0.0,4062.5642090000006,5317.94873,4205.641113000001,4258.461426,4324.102539,0.0,3.0,64.0,,,,0.0,2.0,1.0,1.0,0.0,2.0,16.666666,,,,,,,,18.0,0.0,0.716169,0.449219,0.39868200000000004,-0.355469,0.8960100000000001,-0.36914600000000003,-0.286137,-0.015602000000000001,-0.054245,-0.028957999999999998,,,,,,,,,,,,,,,,,,,,,,,,,,,,,,,,,,,,,,,,,,,,,,,,,,,,,,,,,,,,,,,,,
11641,1645649564.84982,1645649564.866914,37.0,0.0,4004.102539,4802.563965,4240.0,4263.589844,4181.025879,0.0,3.0,64.0,,,,0.0,2.0,1.0,1.0,0.0,2.0,16.666666,,,,,,,,,,,,,,,,,,,,,,,,,,,,,,,,,,,,,,,,,,,,,,,,,,,,,,,,,,,,,,,,,,,,,,,,,,,,,,,,,,,,
11642,1645649564.857635,1645649564.874728,38.0,0.0,3953.8461909999996,3918.974365,4251.282227000001,4261.538574,3966.1538090000004,0.0,3.0,64.0,,,,0.0,2.0,1.0,1.0,0.0,2.0,16.666666,,,,,,,,19.0,0.0,0.716169,0.449219,0.39868200000000004,-0.355469,0.886732,-0.37158800000000003,-0.291997,-0.014384000000000001,-0.054241,-0.025330000000000002,,,,,,,,,,,,,,,,,,,,,,,,,,,,,,,,,,,,,,,,,,,,,,,,,,,,,,,,,,,,,,,,,
11643,1645649564.8654509,1645649564.882543,39.0,0.0,3955.897461,4371.794922,4193.846191,4264.615234000001,4102.563965,0.0,3.0,64.0,,,,0.0,2.0,1.0,1.0,0.0,2.0,16.666666,,,,,,,,,,,,,,,,,,,,,,,,,,,,,,,,,,,,,,,,,,,,,,,,,,,,,,0.0,0.0,1.0,0.0,512.0,1.0,,,,,,,,,,,,,,,,,,,,,,,,,
11644,1645649564.873267,1645649564.890357,40.0,0.0,3912.3076170000004,4974.358886999999,4253.333496,4275.897461,4278.974121,0.0,3.0,64.0,,,,0.0,2.0,1.0,1.0,0.0,2.0,16.666666,,,,,,,,20.0,0.0,0.716169,0.449219,0.39868200000000004,-0.355469,0.9087049999999999,-0.35547399999999996,-0.29688000000000003,-0.014801,-0.054237,-0.028412,,,,,,,,,,,,,,,,,,,,,,,,,,,,,,,,,,,,,,,,,,,,,,,,,,,,,,,,,,,,,,,,,
11645,1645649564.881083,1645649564.8981712,41.0,0.0,3917.4357909999994,4782.05127,4264.615234000001,4269.743652,4280.512695,0.0,3.0,64.0,,,,0.0,2.0,1.0,1.0,0.0,2.0,16.666666,,,,,,,,,,,,,,,,,,,,,,,,,,,,,,,,,,,,,,,,,,,,,,,,,,,,,,,,,,,,,,,,,,,,,,,,,,,,,,,,,,,,
11646,1645649564.888899,1645649564.9059858,42.0,0.0,4003.076904,4938.461426,4172.307617,4259.487305,4287.692383,0.0,3.0,64.0,,,,0.0,2.0,1.0,1.0,0.0,2.0,16.666666,,,,,,,,21.0,0.0,0.716272,0.449463,0.398438,-0.355225,0.897475,-0.36817,-0.290044,-0.015274000000000001,-0.054233,-0.024936,,,,,,,,,,,,,,,,,,,,,,,,,,,,,,,,,,,,,,,,,,,,,,,,,,,,,,,,,,,,,,,,,
11647,1645649564.896715,1645649564.9138,43.0,0.0,4112.307617,5011.794922,4168.205078,4264.102539,4309.230957,0.0,3.0,64.0,,,,0.0,2.0,1.0,1.0,0.0,2.0,16.666666,,,,,,,,,,,,,,,,,,,,,,,,,,,,,,,,,,,,,,,,,,,,,,,,,,,,,,0.0,0.0,1.0,0.0,512.0,1.0,,,,,,,,,,,,,,,,,,,,,,,,,
11648,1645649564.90453,1645649564.921515,44.0,0.0,4162.563965,4361.025879,4221.538574,4261.538574,4239.487305,0.0,3.0,64.0,,,,0.0,2.0,1.0,1.0,0.0,2.0,16.666666,,,,,,,,22.0,0.0,0.716408,0.449463,0.39819299999999996,-0.355225,0.886244,-0.376471,-0.274907,-0.014088,-0.05418099999999999,-0.028058,,,,,,,,,,,,,,,,,,,,,,,,,,,,,,,,,,,,,,,,,,,,,,,,,,,,,,,,,,,,,,,,,
11649,1645649564.9123461,1645649564.929329,45.0,0.0,4161.538574,4046.6667479999996,4210.769043,4257.94873,4190.769043,0.0,3.0,64.0,,,,0.0,2.0,1.0,1.0,0.0,2.0,16.666666,,,,,,,,,,,,,,,,,,,,,,,,,,,,,,,,,,,,,,,,,,,,,,,,,,,,,,,,,,,,,,,,,,,,,,,,,,,,,,,,,,,,
11650,1645649564.920162,1645649564.937144,46.0,0.0,4144.615234000001,4265.641113000001,4239.487305,4269.230957,4218.461426,0.0,3.0,64.0,,,,0.0,2.0,1.0,1.0,0.0,2.0,16.666666,,,,,,,,23.0,0.0,0.716255,0.44970699999999997,0.39819299999999996,-0.355225,0.9004040000000001,-0.375006,-0.282231,-0.014584,-0.054183,-0.030867000000000002,,,,,,,,,,,,,,,,,,,,,,,,,,,,,,,,,,,,,,,,,,,,,,,,,,,,,,,,,,,,,,,,,
11651,1645649564.927978,1645649564.944958,47.0,0.0,4211.282227000001,4203.077147999999,4303.589844,4277.436035,4275.897461,0.0,3.0,64.0,,,,0.0,2.0,1.0,1.0,0.0,2.0,16.666666,,,,,,,,,,,,,,,,,,,,1.0,0.0,0.0,,,,,,,,,,,,,,,,,,,,,,,,,,,,,,,,0.0,0.0,1.0,0.0,512.0,1.0,90.858017,64.447739,30.428772,30.156893,40.995509999999996,818.3479,1634.9646,778.5458980000001,1002.5594480000001,861.6264039999999,106.41023999999999,102.552536,35.081486,33.345268,14.704768,0.316276,0.370229,0.49938,0.28577199999999997,0.26162199999999997,106.075172,137.919739,59.670464,28.124834000000003,35.404556
11652,1645649564.9357939,1645649564.9527721,48.0,0.0,4211.794922,4089.2307130000004,4253.333496,4273.333496,4243.077147999999,0.0,3.0,64.0,,,,0.0,2.0,1.0,1.0,0.0,2.0,16.666666,,,,,,,,24.0,0.0,0.716134,0.44970699999999997,0.39819299999999996,-0.355469,0.9028459999999999,-0.361822,-0.28076599999999996,-0.014931999999999999,-0.054185000000000004,-0.033395999999999995,,,,,,,,,,,,,,,,,,,,,,,,,,,,,,,,,,,,,,,,,,,,,,,,,,,,,,,,,,,,,,,,,
11653,1645649564.94361,1645649564.960587,49.0,0.0,4127.692383,4287.179688,4231.794922,4274.871582,4249.230957,0.0,3.0,64.0,,,,0.0,2.0,1.0,1.0,0.0,2.0,16.666666,,,,,,,,,,,,,,,,,,,,,,,,,,,,,,,,,,,,,,,,,,,,,,,,,,,,,,,,,,,,,,,,,,,,,,,,,,,,,,,,,,,,
11654,1645649564.951425,1645649564.968401,50.0,0.0,4084.615479,4395.897461,4291.794922,4280.0,4273.846191,0.0,3.0,64.0,,,,0.0,2.0,1.0,1.0,0.0,2.0,16.666666,,,,,,,,25.0,0.0,0.716013,0.44970699999999997,0.39819299999999996,-0.355713,0.898451,-0.357916,-0.28076599999999996,-0.015294,-0.054186,-0.02947,,,,,,,,,,,,,,,,,,,,,,,,,,,,,,,,,,,,,,,,,,,,,,,,,,,,,,,,,,,,,,,,,
11655,1645649564.959241,1645649564.976216,51.0,0.0,4103.589844,4509.743652,4295.384765999999,4280.0,4267.179688,0.0,3.0,64.0,,,,0.0,2.0,1.0,1.0,0.0,2.0,16.666666,,,,,,,,,,,,,,,,,,,,,,,,,,,,,,,,,,,,,,,,,,,,,,,,,,,,,,0.0,0.0,1.0,0.0,512.0,1.0,,,,,,,,,,,,,,,,,,,,,,,,,
11656,1645649564.967057,1645649564.98403,52.0,0.0,4078.974365,4848.205078,4236.410156,4277.436035,4293.333496,0.0,3.0,64.0,,,,0.0,2.0,1.0,1.0,0.0,2.0,16.666666,,,,,,,,26.0,0.0,0.715738,0.44995100000000005,0.39819299999999996,-0.355957,0.8881969999999999,-0.368658,-0.286625,-0.015669,-0.054188,-0.025986000000000002,,,,,,,,,,,,,,,,,,,,,,,,,,,,,,,,,,,,,,,,,,,,,,,,,,,,,,,,,,,,,,,,,
11657,1645649564.974873,1645649564.991745,53.0,0.0,4087.6923829999996,4982.563965,4316.410156,4274.358886999999,4365.128418,0.0,3.0,64.0,,,,0.0,2.0,1.0,1.0,0.0,2.0,16.666666,,,,,,,,,,,,,,,,,,,,,,,,,,,,,,,,,,,,,,,,,,,,,,,,,,,,,,,,,,,,,,,,,,,,,,,,,,,,,,,,,,,,
11658,1645649564.9826891,1645649564.999559,54.0,0.0,4100.512695,4962.563965,4335.897461,4271.794922,4363.589844,0.0,3.0,64.0,,,,0.0,2.0,1.0,1.0,0.0,2.0,16.666666,,,,,,,,27.0,0.0,0.7158909999999999,0.44970699999999997,0.39819299999999996,-0.355957,0.9004040000000001,-0.367193,-0.284184,-0.016007,-0.054286,-0.029051999999999998,,,,,,,,,,,,,,,,,,,,,,,,,,,,,,,,,,,,,,,,,,,,,,,,,,,,,,,,,,,,,,,,,
11659,1645649564.990505,1645649565.007373,55.0,0.0,4081.538574,4964.102539,4282.563965,4271.794922,4315.897461,0.0,3.0,64.0,,,,0.0,2.0,1.0,1.0,0.0,2.0,16.666666,,,,,,,,,,,,,,,,,,,,,,,,,,,,,,,,,,,,,,,,,,,,,,,,,,,,,,0.0,0.0,1.0,0.0,512.0,1.0,,,,,,,,,,,,,,,,,,,,,,,,,
11660,1645649564.9983199,1645649565.015188,56.0,0.0,4220.512695,4984.615234000001,4254.871582,4267.179688,4338.974121,0.0,3.0,64.0,,,,0.0,2.0,1.0,1.0,0.0,2.0,16.666666,,,,,,,,28.0,0.0,0.7158909999999999,0.44970699999999997,0.39819299999999996,-0.355957,0.8999159999999999,-0.368658,-0.28809,-0.016359000000000002,-0.05417999999999999,-0.031762,,,,,,,,,,,,,,,,,,,,,,,,,,,,,,,,,,,,,,,,,,,,,,,,,,,,,,,,,,,,,,,,,
11661,1645649565.006136,1645649565.023002,57.0,0.0,4325.128418,4963.077147999999,4252.820313,4263.077147999999,4318.461426,0.0,3.0,64.0,,,,0.0,2.0,1.0,1.0,0.0,2.0,16.666666,,,,,,,,,,,,,,,,,,,,,,,,,,,,,,,,,,,,,,,,,,,,,,,,,,,,,,,,,,,,,,,,,,,,,,,,,,,,,,,,,,,,
11662,1645649565.013952,1645649565.030817,58.0,0.0,4296.410156,4775.897461,4211.794922,4263.589844,4294.358886999999,0.0,3.0,64.0,,,,0.0,2.0,1.0,1.0,0.0,2.0,16.666666,,,,,,,,29.0,0.0,0.7160449999999999,0.449463,0.39819299999999996,-0.355957,0.890639,-0.37158800000000003,-0.288579,-0.015016,-0.05418200000000001,-0.027902,,,,,,,,,,,,,,,,,,,,,,,,,,,,,,,,,,,,,,,,,,,,,,,,,,,,,,,,,,,,,,,,,
11663,1645649565.0217679,1645649565.038631,59.0,0.0,4331.282227000001,4492.307617,4221.538574,4261.538574,4321.025879,0.0,3.0,64.0,,,,0.0,2.0,1.0,1.0,0.0,2.0,16.666666,,,,,,,,,,,,,,,,,,,,,,,,,,,,,,,,,,,,,,,,,,,,,,,,,,,,,,0.0,0.0,1.0,0.0,512.0,1.0,,,,,,,,,,,,,,,,,,,,,,,,,
11664,1645649565.029584,1645649565.046445,60.0,0.0,4389.230957,4177.436035,4237.94873,4262.05127,4326.153809,0.0,3.0,64.0,,,,0.0,2.0,1.0,1.0,0.0,2.0,16.666666,,,,,,,,30.0,0.0,0.7160449999999999,0.449463,0.39819299999999996,-0.355957,0.922377,-0.36328699999999997,-0.286137,-0.013856,-0.054184,-0.030775999999999998,,,,,,,,,,,,,,,,,,,,,,,,,,,,,,,,,,,,,,,,,,,,,,,,,,,,,,,,,,,,,,,,,
11665,1645649565.0374,1645649565.05426,61.0,0.0,4213.333496,4094.8718259999996,4186.666504,4271.794922,4243.077147999999,0.0,3.0,64.0,,,,0.0,2.0,1.0,1.0,0.0,2.0,16.666666,,,,,,,,,,,,,,,,,,,,,,,,,,,,,,,,,,,,,,,,,,,,,,,,,,,,,,,,,,,,,,,,,,,,,,,,,,,,,,,,,,,,
11666,1645649565.0452151,1645649565.061974,62.0,0.0,4081.538574,4185.128418,4168.205078,4279.487305,4207.692383,0.0,3.0,64.0,,,,0.0,2.0,1.0,1.0,0.0,2.0,16.666666,,,,,,,,31.0,0.0,0.7160449999999999,0.449463,0.39819299999999996,-0.355957,0.9116350000000001,-0.37598200000000004,-0.286137,-0.014522,-0.054186,-0.033363,,,,,,,,,,,,,,,,,,,,,,,,,,,,,,,,,,,,,,,,,,,,,,,,,,,,,,,,,,,,,,,,,
11667,1645649565.053031,1645649565.0697892,63.0,0.0,4149.743652,4272.307617,4193.333496,4276.922852000001,4261.025879,0.0,3.0,64.0,,,,0.0,2.0,1.0,1.0,0.0,2.0,16.666666,,,,,,,,,,,,,,,,,,,,1.0,0.0,0.0,,,,,,,,,,,,,,,,,,,,,,,,,,,,,,,,0.0,0.0,1.0,0.0,512.0,1.0,57.765223999999996,68.76374100000001,34.089653000000006,33.631504,37.628979,930.605591,1746.7957760000002,1137.15625,989.2514039999999,779.795227,104.138008,106.93944499999999,45.004314,38.487919,16.274573999999998,0.263245,0.413008,0.56374,0.272752,0.223268,107.000351,143.97306799999998,77.379631,29.845381,32.976131
11668,1645649565.060847,1645649565.0776029,64.0,0.0,4203.077147999999,4282.563965,4242.563965,4275.384765999999,4274.871582,450.0,3.0,64.0,,,,0.0,2.0,1.0,1.0,0.0,2.0,16.666666,,,,,,,,32.0,0.0,0.7160449999999999,0.449463,0.39819299999999996,-0.355957,0.8999159999999999,-0.370611,-0.285161,-0.015022999999999998,-0.054236,-0.029439999999999997,,,,,,,,,,,,,,,,,,,,,,,,,,,,,,,,,,,,,,,,,,,,,,,,,,,,,,,,,,,,,,,,,
11669,1645649565.0686631,1645649565.085418,65.0,0.0,4168.717772999999,4236.922852000001,4291.282227000001,4276.922852000001,4189.743652,450.0,3.0,64.0,,,,0.0,2.0,1.0,1.0,0.0,2.0,16.666666,,,,,,,,,,,,,,,,,,,,,,,,,,,,,,,,,,,,,,,,,,,,,,,,,,,,,,,,,,,,,,,,,,,,,,,,,,,,,,,,,,,,
11670,1645649565.076479,1645649565.093132,66.0,0.0,4172.307617,4307.179688,4321.538574,4277.94873,4198.974121,16256.0,3.0,64.0,,,,0.0,4.0,1.0,1.0,0.0,2.0,16.666666,,,,,,,,33.0,0.0,0.7160449999999999,0.449463,0.39819299999999996,-0.355957,0.9131,-0.370611,-0.289067,-0.015425,-0.054232,-0.032112,,,,,,,,,,,,,,,,,,,,,,,,,,,,,,,,,,,,,,,,,,,,,,,,,,,,,,,,,,,,,,,,,
11671,1645649565.084295,1645649565.100847,67.0,0.0,4136.922852000001,4178.974121,4287.692383,4278.461426,4145.641113000001,450.0,3.0,64.0,,,,0.0,4.0,4.0,1.0,0.0,2.0,25.0,,,,,,,,,,,,,,,,,,,,,,,,,,,,,,,,,,,,,,,,,,,,,,,,,,,,,,0.0,0.0,1.0,0.0,512.0,1.0,,,,,,,,,,,,,,,,,,,,,,,,,
11672,1645649565.0921109,1645649565.108661,68.0,0.0,4083.5898439999996,4210.769043,4274.871582,4277.94873,4093.8461909999996,16129.0,3.0,64.0,,,,0.0,4.0,4.0,1.0,0.0,2.0,25.0,,,,,,,,34.0,0.0,0.716166,0.449463,0.39819299999999996,-0.355713,0.903334,-0.373541,-0.300298,-0.015933000000000003,-0.054229,-0.034565,,,,,,,,,,,,,,,,,,,,,,,,,,,,,,,,,,,,,,,,,,,,,,,,,,,,,,,,,,,,,,,,,
11673,1645649565.099926,1645649565.116475,69.0,0.0,4036.923096,4529.743652,4281.025879,4278.974121,4175.384765999999,450.0,3.0,64.0,,,,0.0,4.0,4.0,1.0,0.0,2.0,25.0,,,,,,,,,,,,,,,,,,,,,,,,,,,,,,,,,,,,,,,,,,,,,,,,,,,,,,,,,,,,,,,,,,,,,,,,,,,,,,,,,,,,
11674,1645649565.107742,1645649565.12419,70.0,0.0,4038.974365,4638.974121,4270.256348,4277.94873,4183.077147999999,232.0,3.0,64.0,,,,0.0,4.0,4.0,2.0,0.0,2.0,33.333332,,,,,,,,35.0,0.0,0.716166,0.449463,0.39819299999999996,-0.355713,0.897963,-0.368658,-0.29395,-0.016342,-0.054176999999999996,-0.036821,,,,,,,,,,,,,,,,,,,,,,,,,,,,,,,,,,,,,,,,,,,,,,,,,,,,,,,,,,,,,,,,,
11675,1645649565.115558,1645649565.132004,71.0,0.0,4089.743652,4832.307617,4194.358886999999,4274.358886999999,4187.179688,450.0,3.0,64.0,,,,0.0,4.0,4.0,2.0,0.0,2.0,33.333332,,,,,,,,,,,,,,,,,,,,,,,,,,,,,,,,,,,,,,,,,,,,,,,,,,,,,,0.0,0.0,1.0,0.0,512.0,1.0,,,,,,,,,,,,,,,,,,,,,,,,,
11676,1645649565.123374,1645649565.139719,72.0,0.0,4118.974121,4951.794922,4259.487305,4272.820313,4295.384765999999,450.0,3.0,64.0,,,,0.0,4.0,4.0,2.0,0.0,4.0,50.0,,,,,,,,36.0,0.0,0.715909,0.449463,0.398438,-0.355957,0.894057,-0.365728,-0.279301,-0.016562999999999998,-0.05413099999999999,-0.032553,,,,,,,,,,,,,,,,,,,,,,,,,,,,,,,,,,,,,,,,,,,,,,,,,,,,,,,,,,,,,,,,,
11677,1645649565.13119,1645649565.147533,73.0,0.0,4096.410156,4945.641113000001,4278.974121,4271.794922,4355.384765999999,0.0,3.0,64.0,,,,0.0,4.0,4.0,2.0,0.0,4.0,50.0,,,,,,,,,,,,,,,,,,,,,,,,,,,,,,,,,,,,,,,,,,,,,,,,,,,,,,,,,,,,,,,,,,,,,,,,,,,,,,,,,,,,
11678,1645649565.1390061,1645649565.155348,74.0,0.0,4079.487061,4948.205078,4207.692383,4270.769043,4286.153809,450.0,3.0,64.0,,,,0.0,4.0,4.0,2.0,0.0,4.0,50.0,,,,,,,,37.0,0.0,0.716166,0.449463,0.39819299999999996,-0.355713,0.903334,-0.373541,-0.300298,-0.016909,-0.054138,-0.028663,,,,,,,,,,,,,,,,,,,,,,,,,,,,,,,,,,,,,,,,,,,,,,,,,,,,,,,,,,,,,,,,,
11679,1645649565.146821,1645649565.163162,75.0,0.0,4240.512695,4999.487305,4183.589844,4269.230957,4297.94873,16380.0,3.0,64.0,,,,0.0,4.0,4.0,2.0,0.0,4.0,50.0,,,,,,,,,,,,,,,,,,,,,,,,,,,,,,,,,,,,,,,,,,,,,,,,,,,,,,0.0,0.0,1.0,0.0,512.0,1.0,,,,,,,,,,,,,,,,,,,,,,,,,
11680,1645649565.1546369,1645649565.170976,76.0,0.0,4316.410156,5150.256348,4166.666504,4264.615234000001,4323.077147999999,450.0,3.0,64.0,,,,0.0,4.0,4.0,2.0,0.0,4.0,50.0,,,,,,,,38.0,0.0,0.715909,0.449463,0.398438,-0.355957,0.894057,-0.365728,-0.279301,-0.017072999999999998,-0.054095000000000004,-0.025211,,,,,,,,,,,,,,,,,,,,,,,,,,,,,,,,,,,,,,,,,,,,,,,,,,,,,,,,,,,,,,,,,
11681,1645649565.162453,1645649565.178791,77.0,0.0,4254.871582,4931.794922,4145.128418,4264.102539,4287.692383,450.0,3.0,64.0,,,,0.0,4.0,4.0,2.0,0.0,4.0,50.0,,,,,,,,,,,,,,,,,,,,,,,,,,,,,,,,,,,,,,,,,,,,,,,,,,,,,,,,,,,,,,,,,,,,,,,,,,,,,,,,,,,,
11682,1645649565.170269,1645649565.186605,78.0,0.0,4277.436035,4311.794922,4198.974121,4264.615234000001,4250.256348,450.0,3.0,64.0,,,,0.0,4.0,4.0,2.0,0.0,4.0,50.0,,,,,,,,39.0,0.0,0.715909,0.449463,0.398438,-0.355957,0.897475,-0.36230999999999997,-0.284184,-0.017269999999999997,-0.054105999999999994,-0.028207,,,,,,,,,,,,,,,,,,,,,,,,,,,,,,,,,,,,,,,,,,,,,,,,,,,,,,,,,,,,,,,,,
11683,1645649565.1780849,1645649565.1944199,79.0,0.0,4323.589844,3945.641113,4261.025879,4264.615234000001,4250.769043,16380.0,3.0,64.0,,,,0.0,4.0,4.0,2.0,0.0,4.0,50.0,,,,,,,,,,,,,,,,,,,,1.0,0.0,0.0,,,,,,,,,,,,,,,,,,,,,,,,,,,,,,,,0.0,0.0,1.0,0.0,512.0,1.0,67.94493100000001,72.778397,38.697426,37.288551,35.474426,967.365295,1800.395142,1548.8383789999998,1027.341919,769.899841,100.696632,109.47338899999998,54.071663,40.414913,18.578051000000002,0.273904,0.41427299999999995,0.614356,0.25578,0.196958,103.400253,146.959686,92.796707,35.086059999999996,31.18729
