,Timestamp,OriginalTimestamp,EEG.Counter,EEG.Interpolated,EEG.AF3,EEG.T7,EEG.Pz,EEG.T8,EEG.AF4,EEG.RawCq,EEG.Battery,EEG.BatteryPercent,MarkerIndex,MarkerType,MarkerValueInt,EEG.MarkerHardware,CQ.AF3,CQ.T7,CQ.Pz,CQ.T8,CQ.AF4,CQ.Overall,EQ.SampleRateQuality,EQ.OVERALL,EQ.AF3,EQ.T7,EQ.Pz,EQ.T8,EQ.AF4,MOT.CounterMems,MOT.InterpolatedMems,MOT.Q0,MOT.Q1,MOT.Q2,MOT.Q3,MOT.AccX,MOT.AccY,MOT.AccZ,MOT.MagX,MOT.MagY,MOT.MagZ,MC.Action,MC.ActionPower,MC.IsActive,PM.Engagement.IsActive,PM.Engagement.Scaled,PM.Engagement.Raw,PM.Engagement.Min,PM.Engagement.Max,PM.Excitement.IsActive,PM.Excitement.Scaled,PM.Excitement.Raw,PM.Excitement.Min,PM.Excitement.Max,PM.LongTermExcitement,PM.Stress.IsActive,PM.Stress.Scaled,PM.Stress.Raw,PM.Stress.Min,PM.Stress.Max,PM.Relaxation.IsActive,PM.Relaxation.Scaled,PM.Relaxation.Raw,PM.Relaxation.Min,PM.Relaxation.Max,PM.Interest.IsActive,PM.Interest.Scaled,PM.Interest.Raw,PM.Interest.Min,PM.Interest.Max,PM.Focus.IsActive,PM.Focus.Scaled,PM.Focus.Raw,PM.Focus.Min,PM.Focus.Max,FE.BlinkWink,FE.HorizontalEyesDirection,FE.UpperFaceAction,FE.UpperFaceActionPower,FE.LowerFaceAction,FE.LowerFaceActionPower,POW.AF3.Theta,POW.AF3.Alpha,POW.AF3.BetaL,POW.AF3.BetaH,POW.AF3.Gamma,POW.T7.Theta,POW.T7.Alpha,POW.T7.BetaL,POW.T7.BetaH,POW.T7.Gamma,POW.Pz.Theta,POW.Pz.Alpha,POW.Pz.BetaL,POW.Pz.BetaH,POW.Pz.Gamma,POW.T8.Theta,POW.T8.Alpha,POW.T8.BetaL,POW.T8.BetaH,POW.T8.Gamma,POW.AF4.Theta,POW.AF4.Alpha,POW.AF4.BetaL,POW.AF4.BetaH,POW.AF4.Gamma
36909,1650406591.6901689,1650406591.6781301,0.0,0.0,4241.538574,4767.179688,4403.077147999999,4290.256348,4222.563965,450.0,4.0,91.0,,,,0.0,4.0,0.0,1.0,0.0,4.0,8.333333,,,,,,,,0.0,0.0,0.660054,0.6035159999999999,0.34863299999999997,-0.280273,0.796887,-0.590829,-0.035157,-0.018595,-0.051088,-0.016111,,,,,,,,,,,,,,,,,,,,,,,,,,,,,,,,,,,0.0,0.0,1.0,0.0,512.0,1.0,,,,,,,,,,,,,,,,,,,,,,,,,
36910,1650406591.697984,1650406591.686044,1.0,0.0,4430.769043,4541.538574,4349.230957,4265.641113000001,4228.205078,450.0,4.0,91.0,,,,0.0,4.0,0.0,1.0,0.0,4.0,8.333333,,,,,,,,,,,,,,,,,,,,,,,,,,,,,,,,,,,,,,,,,,,,,,,,,,,,,,,,,,,,,,,,,,,,,,,,,,,,,,,,,,,,
36911,1650406591.7057981,1650406591.693859,2.0,0.0,4420.0,4590.256348,4218.461426,4270.769043,4251.794922,16180.0,4.0,91.0,,,,0.0,4.0,0.0,1.0,0.0,4.0,8.333333,,,,,,,,1.0,0.0,0.65983,0.6037600000000001,0.34863299999999997,-0.280273,0.810559,-0.593759,-0.036622,-0.018981,-0.051302,-0.013816,,,,,,,,,,,,,,,,,,,,,,,,,,,,,,,,,,,,,,,,,,,,,,,,,,,,,,,,,,,,,,,,,
36912,1650406591.713613,1650406591.701773,3.0,0.0,4246.666504,4908.717772999999,4253.333496,4295.384765999999,4271.282227000001,450.0,4.0,91.0,,,,0.0,4.0,0.0,1.0,0.0,4.0,8.333333,,,,,,,,,,,,,,,,,,,,,,,,,,,,,,,,,,,,,,,,,,,,,,,,,,,,,,,,,,,,,,,,,,,,,,,,,,,,,,,,,,,,
36913,1650406591.721427,1650406591.7095869,4.0,0.0,4280.512695,4886.153809,4455.897461,4296.922852000001,4315.384765999999,41.0,4.0,91.0,,,,0.0,4.0,0.0,1.0,0.0,4.0,8.333333,1.0,0.0,0.0,0.0,0.0,0.0,0.0,2.0,0.0,0.659934,0.6037600000000001,0.34863299999999997,-0.280029,0.817395,-0.605478,-0.032227,-0.019232,-0.05125,-0.014875999999999999,1.0,0.0,0.0,,,,,,,,,,,,,,,,,,,,,,,,,,,,,,,,0.0,0.0,1.0,0.0,512.0,1.0,158.53860500000002,48.027187,10.265182000000001,66.30635799999999,43.195572,404.952606,167.100372,575.394592,2158.236816,1383.251709,51.315697,105.559486,49.514256,224.785019,112.019699,0.318177,0.260558,0.29501700000000003,1.29596,0.595489,56.050284999999995,18.286932,12.369716,81.231483,53.982178000000005
36914,1650406591.729242,1650406591.7173018,5.0,0.0,4442.05127,4473.333496,4485.641113000001,4274.358886999999,4278.974121,450.0,4.0,91.0,,,,0.0,4.0,0.0,1.0,0.0,4.0,8.333333,,,,,,,,,,,,,,,,,,,,,,,,,,,,,,,,,,,,,,,,,,,,,,,,,,,,,,,,,,,,,,,,,,,,,,,,,,,,,,,,,,,,
36915,1650406591.737056,1650406591.725116,6.0,0.0,4424.102539,4358.461426,4096.922852000001,4270.769043,4204.615234000001,110.0,4.0,91.0,,,,0.0,4.0,0.0,1.0,0.0,4.0,8.333333,,,,,,,,3.0,0.0,0.660038,0.6037600000000001,0.34863299999999997,-0.279785,0.8095829999999999,-0.601083,-0.024413999999999998,-0.019457,-0.051301,-0.012656,,,,,,,,,,,,,,,,,,,,,,,,,,,,,,,,,,,,,,,,,,,,,,,,,,,,,,,,,,,,,,,,,
36916,1650406591.7448711,1650406591.73283,7.0,0.0,4222.563965,4901.025879,3905.1281740000004,4290.769043,4236.410156,450.0,4.0,91.0,,,,0.0,4.0,0.0,1.0,0.0,4.0,8.333333,,,,,,,,,,,,,,,,,,,,,,,,,,,,,,,,,,,,,,,,,,,,,,,,,,,,,,,,,,,,,,,,,,,,,,,,,,,,,,,,,,,,
36917,1650406591.752685,1650406591.740644,8.0,0.0,4178.974121,5140.0,4235.897461,4294.358886999999,4316.922852000001,450.0,4.0,91.0,,,,0.0,4.0,0.0,1.0,0.0,4.0,8.333333,,,,,,,,4.0,0.0,0.660038,0.6037600000000001,0.34863299999999997,-0.279785,0.80177,-0.607919,-0.03125,-0.018047999999999998,-0.0512,-0.010756,,,,,,,,,,,,,,,,,,,,,,,,,,,,,,,,,,,0.0,0.0,1.0,0.0,512.0,1.0,,,,,,,,,,,,,,,,,,,,,,,,,
36918,1650406591.7605,1650406591.748359,9.0,0.0,4300.512695,4369.743652,4443.077147999999,4277.436035,4235.384765999999,0.0,4.0,91.0,,,,0.0,4.0,0.0,1.0,0.0,4.0,8.333333,,,,,,,,,,,,,,,,,,,,,,,,,,,,,,,,,,,,,,,,,,,,,,,,,,,,,,,,,,,,,,,,,,,,,,,,,,,,,,,,,,,,
36919,1650406591.7683141,1650406591.7561731,10.0,0.0,4367.692383,3880.0,4224.615234000001,4275.384765999999,4137.94873,450.0,4.0,91.0,,,,0.0,4.0,0.0,1.0,0.0,4.0,8.333333,,,,,,,,5.0,0.0,0.660038,0.6037600000000001,0.34863299999999997,-0.279785,0.797375,-0.606455,-0.023926,-0.016927,-0.051304999999999996,-0.012121999999999999,,,,,,,,,,,,,,,,,,,,,,,,,,,,,,,,,,,,,,,,,,,,,,,,,,,,,,,,,,,,,,,,,
36920,1650406591.776129,1650406591.763887,11.0,0.0,4346.153809,4796.922852000001,4124.615234000001,4283.077147999999,4247.692383,16188.0,4.0,91.0,,,,0.0,4.0,0.0,1.0,0.0,4.0,8.333333,,,,,,,,,,,,,,,,,,,,,,,,,,,,,,,,,,,,,,,,,,,,,,,,,,,,,,,,,,,,,,,,,,,,,,,,,,,,,,,,,,,,
36921,1650406591.783944,1650406591.7717009,12.0,0.0,4292.820313,5584.615234000001,4295.897461,4278.974121,4363.589844,450.0,4.0,91.0,,,,0.0,4.0,0.0,1.0,0.0,4.0,8.333333,,,,,,,,6.0,0.0,0.660038,0.6037600000000001,0.34863299999999997,-0.279785,0.78175,-0.605966,-0.021973,-0.017383000000000003,-0.05135,-0.013253000000000001,,,,,,,,,,,,,,,,,,,,,,,,,,,,,,,,,,,0.0,0.0,1.0,0.0,512.0,1.0,,,,,,,,,,,,,,,,,,,,,,,,,
36922,1650406591.791758,1650406591.7794151,13.0,0.0,4273.846191,4770.769043,4228.717772999999,4282.563965,4287.179688,450.0,4.0,91.0,,,,0.0,4.0,0.0,1.0,0.0,4.0,8.333333,,,,,,,,,,,,,,,,,,,,,,,,,,,,,,,,,,,,,,,,,,,,,,,,,,,,,,,,,,,,,,,,,,,,,,,,,,,,,,,,,,,,
36923,1650406591.799573,1650406591.7873302,14.0,0.0,4302.05127,3827.6923829999996,4123.589844,4292.820313,4155.897461,450.0,4.0,91.0,,,,0.0,4.0,0.0,1.0,0.0,4.0,8.333333,,,,,,,,7.0,0.0,0.660038,0.6037600000000001,0.34863299999999997,-0.279785,0.7983520000000001,-0.613291,-0.04004,-0.017891,-0.051293,-0.01432,,,,,,,,,,,,,,,,,,,,,,,,,,,,,,,,,,,,,,,,,,,,,,,,,,,,,,,,,,,,,,,,,
36924,1650406591.8073869,1650406591.7951438,15.0,0.0,4391.794922,4443.077147999999,4203.589844,4285.128418,4234.871582,16188.0,4.0,91.0,,,,0.0,4.0,0.0,1.0,0.0,4.0,8.333333,,,,,,,,,,,,,,,,,,,,,,,,,,,,,,,,,,,,,,,,,,,,,,,,,,,,,,,,,,,,,,,,,,,,,,,,,,,,,,,,,,,,
36925,1650406591.815202,1650406591.802959,16.0,0.0,4385.128418,5483.077147999999,4200.512695,4273.333496,4367.692383,0.0,4.0,91.0,,,,0.0,4.0,0.0,1.0,0.0,4.0,8.333333,,,,,,,,8.0,0.0,0.660038,0.6037600000000001,0.34863299999999997,-0.279785,0.800305,-0.590341,-0.024413999999999998,-0.018299,-0.051241999999999996,-0.012254000000000001,,,,,,,,,,,,,,,,,,,,,,,,,,,,,,,,,,,0.0,0.0,1.0,0.0,512.0,1.0,,,,,,,,,,,,,,,,,,,,,,,,,
36926,1650406591.823016,1650406591.810673,17.0,0.0,4313.846191,5085.128418,3998.974365,4283.077147999999,4328.205078,0.0,4.0,91.0,,,,0.0,4.0,0.0,1.0,0.0,4.0,8.333333,,,,,,,,,,,,,,,,,,,,,,,,,,,,,,,,,,,,,,,,,,,,,,,,,,,,,,,,,,,,,,,,,,,,,,,,,,,,,,,,,,,,
36927,1650406591.830831,1650406591.8185868,18.0,0.0,4281.538574,4039.487061,4099.487305,4294.871582,4164.102539,0.0,4.0,91.0,,,,0.0,4.0,0.0,1.0,0.0,4.0,8.333333,,,,,,,,9.0,0.0,0.6599430000000001,0.604004,0.348389,-0.279785,0.793469,-0.607919,-0.036622,-0.017202000000000002,-0.051147000000000005,-0.01347,,,,,,,,,,,,,,,,,,,,,,,,,,,,,,,,,,,,,,,,,,,,,,,,,,,,,,,,,,,,,,,,,
36928,1650406591.838645,1650406591.826402,19.0,0.0,4340.512695,4235.897461,4384.615234000001,4289.743652,4196.410156,0.0,4.0,91.0,,,,0.0,4.0,0.0,1.0,0.0,4.0,8.333333,,,,,,,,,,,,,,,,,,,,,,,,,,,,,,,,,,,,,,,,,,,,,,,,,,,,,,,,,,,,,,,,,,,,,,,,,,,,,,,,,,,,
36929,1650406591.8464599,1650406591.834316,20.0,0.0,4413.333496,5140.512695,4260.0,4274.871582,4368.205078,0.0,4.0,91.0,,,,0.0,4.0,0.0,1.0,0.0,4.0,8.333333,,,,,,,,10.0,0.0,0.6599430000000001,0.604004,0.348389,-0.279785,0.807141,-0.606943,-0.029297000000000004,-0.016116,-0.051160000000000004,-0.014466999999999999,1.0,0.0,0.0,,,,,,,,,,,,,,,,,,,,,,,,,,,,,,,,0.0,0.0,1.0,0.0,512.0,1.0,127.40956100000001,43.078342,9.796252,72.669533,43.633232,369.492615,193.15074199999998,540.99115,2386.790039,1273.8903810000002,46.11063,109.41535900000001,35.511749,216.23455800000002,113.87244399999999,0.278993,0.25102800000000003,0.351606,1.487221,0.655872,46.11203,13.664957999999999,13.562701,88.39304399999999,48.521454
36930,1650406591.854274,1650406591.8421302,21.0,0.0,4408.205078,5193.846191,3876.4101560000004,4275.897461,4371.794922,0.0,4.0,91.0,,,,0.0,4.0,0.0,1.0,0.0,4.0,8.333333,,,,,,,,,,,,,,,,,,,,,,,,,,,,,,,,,,,,,,,,,,,,,,,,,,,,,,,,,,,,,,,,,,,,,,,,,,,,,,,,,,,,
36931,1650406591.8620892,1650406591.850045,22.0,0.0,4288.717772999999,4575.384765999999,3928.205078,4296.922852000001,4201.025879,0.0,4.0,91.0,,,,0.0,4.0,0.0,1.0,0.0,4.0,8.333333,,,,,,,,11.0,0.0,0.6599430000000001,0.604004,0.348389,-0.279785,0.7954220000000001,-0.606943,-0.027344,-0.016702,-0.05121900000000001,-0.01551,,,,,,,,,,,,,,,,,,,,,,,,,,,,,,,,,,,,,,,,,,,,,,,,,,,,,,,,,,,,,,,,,
36932,1650406591.8699028,1650406591.857859,23.0,0.0,4238.974121,4416.922852000001,4296.922852000001,4302.05127,4160.512695,0.0,4.0,91.0,,,,0.0,4.0,0.0,1.0,0.0,4.0,8.333333,,,,,,,,,,,,,,,,,,,,,,,,,,,,,,,,,,,,,,,,,,,,,,,,,,,,,,,,,,,,,,,,,,,,,,,,,,,,,,,,,,,,
36933,1650406591.877718,1650406591.865773,24.0,0.0,4337.94873,4871.794922,4344.615234000001,4276.410156,4265.641113000001,0.0,4.0,91.0,,,,0.0,4.0,0.0,1.0,0.0,4.0,8.333333,,,,,,,,12.0,0.0,0.6599430000000001,0.604004,0.348389,-0.279785,0.804211,-0.606455,-0.029297000000000004,-0.01718,-0.051225,-0.013276,,,,,,,,,,,,,,,,,,,,,,,,,,,,,,,,,,,0.0,0.0,1.0,0.0,512.0,1.0,,,,,,,,,,,,,,,,,,,,,,,,,
36934,1650406591.885533,1650406591.873588,25.0,0.0,4388.717772999999,5155.384765999999,4088.718018,4268.717772999999,4316.410156,0.0,4.0,91.0,,,,0.0,4.0,0.0,1.0,0.0,4.0,8.333333,,,,,,,,,,,,,,,,,,,,,,,,,,,,,,,,,,,,,,,,,,,,,,,,,,,,,,,,,,,,,,,,,,,,,,,,,,,,,,,,,,,,
36935,1650406591.893347,1650406591.881502,26.0,0.0,4293.846191,4715.384765999999,4031.281982,4292.307617,4235.897461,0.0,4.0,91.0,,,,0.0,4.0,0.0,1.0,0.0,4.0,8.333333,,,,,,,,13.0,0.0,0.6599430000000001,0.604004,0.348389,-0.279785,0.807141,-0.606943,-0.029297000000000004,-0.017611,-0.051376,-0.011313,,,,,,,,,,,,,,,,,,,,,,,,,,,,,,,,,,,,,,,,,,,,,,,,,,,,,,,,,,,,,,,,,
36936,1650406591.901162,1650406591.889316,27.0,0.0,4275.384765999999,4224.615234000001,4142.563965,4297.94873,4169.743652,0.0,4.0,91.0,,,,0.0,4.0,0.0,1.0,0.0,4.0,8.333333,,,,,,,,,,,,,,,,,,,,,,,,,,,,,,,,,,,,,,,,,,,,,,,,,,,,,,,,,,,,,,,,,,,,,,,,,,,,,,,,,,,,
36937,1650406591.908976,1650406591.897131,28.0,0.0,4366.153809,4775.897461,4170.256348,4280.512695,4262.563965,0.0,4.0,91.0,,,,0.0,4.0,0.0,1.0,0.0,4.0,8.333333,,,,,,,,14.0,0.0,0.6599430000000001,0.604004,0.348389,-0.279785,0.804211,-0.606455,-0.029297000000000004,-0.017998,-0.051365,-0.009498000000000001,,,,,,,,,,,,,,,,,,,,,,,,,,,,,,,,,,,0.0,0.0,1.0,0.0,512.0,1.0,,,,,,,,,,,,,,,,,,,,,,,,,
36938,1650406591.916791,1650406591.904945,29.0,0.0,4333.846191,5498.461426,4229.230957,4278.461426,4374.871582,0.0,4.0,91.0,,,,0.0,4.0,0.0,1.0,0.0,4.0,8.333333,,,,,,,,,,,,,,,,,,,,,,,,,,,,,,,,,,,,,,,,,,,,,,,,,,,,,,,,,,,,,,,,,,,,,,,,,,,,,,,,,,,,
36939,1650406591.9246051,1650406591.912659,30.0,0.0,4247.179688,4888.205078,4236.922852000001,4288.205078,4303.077147999999,0.0,4.0,91.0,,,,0.0,4.0,0.0,1.0,0.0,4.0,8.333333,,,,,,,,15.0,0.0,0.6599430000000001,0.604004,0.348389,-0.279785,0.808118,-0.611826,-0.017578,-0.018444,-0.051404,-0.010892,,,,,,,,,,,,,,,,,,,,,,,,,,,,,,,,,,,,,,,,,,,,,,,,,,,,,,,,,,,,,,,,,
36940,1650406591.93242,1650406591.920473,31.0,0.0,4324.102539,3914.8718259999996,4185.128418,4281.538574,4169.743652,0.0,4.0,91.0,,,,0.0,4.0,0.0,1.0,0.0,4.0,8.333333,,,,,,,,,,,,,,,,,,,,,,,,,,,,,,,,,,,,,,,,,,,,,,,,,,,,,,,,,,,,,,,,,,,,,,,,,,,,,,,,,,,,
36941,1650406591.940234,1650406591.928187,32.0,0.0,4404.615234000001,4364.102539,4122.563965,4273.333496,4218.974121,0.0,4.0,91.0,,,,0.0,4.0,0.0,1.0,0.0,4.0,8.333333,,,,,,,,16.0,0.0,0.6599430000000001,0.604004,0.348389,-0.279785,0.805188,-0.6128020000000001,-0.026856,-0.0187,-0.051489,-0.009168,,,,,,,,,,,,,,,,,,,,,,,,,,,,,,,,,,,0.0,0.0,1.0,0.0,512.0,1.0,,,,,,,,,,,,,,,,,,,,,,,,,
36942,1650406591.948049,1650406591.936002,33.0,0.0,4321.025879,5451.794922,4123.589844,4281.538574,4367.692383,0.0,4.0,91.0,,,,0.0,4.0,0.0,1.0,0.0,4.0,8.333333,,,,,,,,,,,,,,,,,,,,,,,,,,,,,,,,,,,,,,,,,,,,,,,,,,,,,,,,,,,,,,,,,,,,,,,,,,,,,,,,,,,,
36943,1650406591.955863,1650406591.943716,34.0,0.0,4293.846191,5104.102539,4153.846191,4290.256348,4380.512695,0.0,4.0,91.0,,,,0.0,4.0,0.0,1.0,0.0,4.0,8.333333,,,,,,,,17.0,0.0,0.660072,0.604004,0.348145,-0.279785,0.797864,-0.602548,-0.033692,-0.018928999999999998,-0.051418,-0.010643999999999999,,,,,,,,,,,,,,,,,,,,,,,,,,,,,,,,,,,,,,,,,,,,,,,,,,,,,,,,,,,,,,,,,
36944,1650406591.963678,1650406591.95153,35.0,0.0,4383.589844,3937.9487299999996,4284.102539,4284.102539,4218.974121,0.0,4.0,91.0,,,,0.0,4.0,0.0,1.0,0.0,4.0,8.333333,,,,,,,,,,,,,,,,,,,,,,,,,,,,,,,,,,,,,,,,,,,,,,,,,,,,,,,,,,,,,,,,,,,,,,,,,,,,,,,,,,,,
36945,1650406591.971492,1650406591.959244,36.0,0.0,4395.384765999999,4088.205078,4316.410156,4276.922852000001,4189.743652,0.0,4.0,91.0,,,,0.0,4.0,0.0,1.0,0.0,4.0,8.333333,,,,,,,,18.0,0.0,0.660072,0.604004,0.348145,-0.279785,0.805188,-0.5888760000000001,-0.021973,-0.019234,-0.051354,-0.008896,1.0,0.0,0.0,,,,,,,,,,,,,,,,,,,,,,,,,,,,,,,,0.0,0.0,1.0,0.0,512.0,1.0,88.808922,37.658588,10.841194999999999,78.821198,46.151053999999995,308.435516,202.977249,469.787201,2564.121582,1204.0157470000001,39.871849,115.20257600000001,30.15033,220.943283,121.50882,0.21893200000000002,0.22240500000000002,0.39912,1.638713,0.726002,34.447571,11.143957,14.918467999999999,93.74427800000001,43.979439
36946,1650406591.979307,1650406591.967058,37.0,0.0,4283.589844,5118.461426,4272.307617,4286.153809,4337.436035,0.0,4.0,91.0,,,,0.0,4.0,0.0,1.0,0.0,4.0,8.333333,,,,,,,,,,,,,,,,,,,,,,,,,,,,,,,,,,,,,,,,,,,,,,,,,,,,,,,,,,,,,,,,,,,,,,,,,,,,,,,,,,,,
36947,1650406591.987121,1650406591.974973,38.0,0.0,4316.922852000001,5016.410156,4409.743652,4295.897461,4369.743652,0.0,4.0,91.0,,,,0.0,4.0,0.0,1.0,0.0,4.0,8.333333,,,,,,,,19.0,0.0,0.660201,0.604004,0.3479,-0.279785,0.792493,-0.5879,-0.019532,-0.017994,-0.0512,-0.007469,,,,,,,,,,,,,,,,,,,,,,,,,,,,,,,,,,,,,,,,,,,,,,,,,,,,,,,,,,,,,,,,,
36948,1650406591.994936,1650406591.982787,39.0,0.0,4508.717772999999,4318.461426,4470.256348,4282.563965,4291.794922,0.0,4.0,91.0,,,,0.0,4.0,0.0,1.0,0.0,4.0,8.333333,,,,,,,,,,,,,,,,,,,,,,,,,,,,,,,,,,,,,,,,,,,,,,,,,,,,,,,,,,,,,,,,,,,,,,,,,,,,,,,,,,,,
36949,1650406592.0027509,1650406591.990602,40.0,0.0,4621.538574,4427.692383,4159.487305,4279.487305,4348.717772999999,0.0,4.0,91.0,,,,0.0,4.0,0.0,1.0,0.0,4.0,8.333333,,,,,,,,20.0,0.0,0.659977,0.604248,0.3479,-0.279785,0.794446,-0.601083,-0.030762,-0.01678,-0.051254999999999995,-0.009261,,,,,,,,,,,,,,,,,,,,,,,,,,,,,,,,,,,0.0,0.0,1.0,0.0,512.0,1.0,,,,,,,,,,,,,,,,,,,,,,,,,
36950,1650406592.010565,1650406591.998516,41.0,0.0,4601.025879,4626.666504,3958.974365,4301.538574,4436.922852000001,0.0,4.0,91.0,,,,0.0,4.0,0.0,1.0,0.0,4.0,8.333333,,,,,,,,,,,,,,,,,,,,,,,,,,,,,,,,,,,,,,,,,,,,,,,,,,,,,,,,,,,,,,,,,,,,,,,,,,,,,,,,,,,,
36951,1650406592.0183802,1650406592.0064301,42.0,0.0,4636.922852000001,4383.077147999999,4085.1281740000004,4313.333496,4465.641113000001,0.0,4.0,91.0,,,,0.0,4.0,0.0,1.0,0.0,4.0,8.333333,,,,,,,,21.0,0.0,0.659754,0.604492,0.3479,-0.279785,0.816419,-0.597665,-0.027344,-0.0173,-0.051355,-0.010826,,,,,,,,,,,,,,,,,,,,,,,,,,,,,,,,,,,,,,,,,,,,,,,,,,,,,,,,,,,,,,,,,
36952,1650406592.0261939,1650406592.014245,43.0,0.0,4726.153809,4371.794922,4127.179688,4305.128418,4501.025879,0.0,4.0,91.0,,,,0.0,4.0,0.0,1.0,0.0,4.0,8.333333,,,,,,,,,,,,,,,,,,,,,,,,,,,,,,,,,,,,,,,,,,,,,,,,,,,,,,,,,,,,,,,,,,,,,,,,,,,,,,,,,,,,
36953,1650406592.034009,1650406592.022159,44.0,0.0,4765.641113000001,4576.410156,4041.538574,4305.641113000001,4563.077147999999,0.0,4.0,91.0,,,,0.0,4.0,0.0,1.0,0.0,4.0,8.333333,,,,,,,,22.0,0.0,0.659754,0.604492,0.3479,-0.279785,0.8139770000000001,-0.606455,-0.019043,-0.017816,-0.051444000000000004,-0.009108,,,,,,,,,,,,,,,,,,,,,,,,,,,,,,,,,,,0.0,0.0,1.0,0.0,512.0,1.0,,,,,,,,,,,,,,,,,,,,,,,,,
36954,1650406592.0418231,1650406592.029973,45.0,0.0,4797.436035,4410.769043,4050.7692869999996,4311.282227000001,4607.179688,0.0,4.0,91.0,,,,0.0,4.0,0.0,1.0,0.0,4.0,8.333333,,,,,,,,,,,,,,,,,,,,,,,,,,,,,,,,,,,,,,,,,,,,,,,,,,,,,,,,,,,,,,,,,,,,,,,,,,,,,,,,,,,,
36955,1650406592.049638,1650406592.037888,46.0,0.0,4801.025879,4252.820313,4118.461426,4306.153809,4605.641113000001,0.0,4.0,91.0,,,,0.0,4.0,0.0,1.0,0.0,4.0,8.333333,,,,,,,,23.0,0.0,0.6598569999999999,0.604492,0.3479,-0.279541,0.8061649999999999,-0.607919,-0.030274000000000002,-0.01828,-0.051378,-0.010737,,,,,,,,,,,,,,,,,,,,,,,,,,,,,,,,,,,,,,,,,,,,,,,,,,,,,,,,,,,,,,,,,
36956,1650406592.057452,1650406592.045702,47.0,0.0,4807.179688,4377.436035,4117.94873,4301.538574,4601.025879,0.0,4.0,91.0,,,,0.0,4.0,0.0,1.0,0.0,4.0,8.333333,,,,,,,,,,,,,,,,,,,,,,,,,,,,,,,,,,,,,,,,,,,,,,,,,,,,,,,,,,,,,,,,,,,,,,,,,,,,,,,,,,,,
36957,1650406592.065267,1650406592.053616,48.0,0.0,4836.922852000001,4486.153809,4129.743652,4305.128418,4648.205078,0.0,4.0,91.0,,,,0.0,4.0,0.0,1.0,0.0,4.0,8.333333,,,,,,,,24.0,0.0,0.6598569999999999,0.604492,0.3479,-0.279541,0.810559,-0.601083,-0.032715,-0.017038,-0.051366999999999996,-0.012202,,,,,,,,,,,,,,,,,,,,,,,,,,,,,,,,,,,0.0,0.0,1.0,0.0,512.0,1.0,,,,,,,,,,,,,,,,,,,,,,,,,
36958,1650406592.073081,1650406592.0614312,49.0,0.0,4834.871582,4452.820313,4144.102539,4303.077147999999,4667.692383,0.0,4.0,91.0,,,,0.0,4.0,0.0,1.0,0.0,4.0,8.333333,,,,,,,,,,,,,,,,,,,,,,,,,,,,,,,,,,,,,,,,,,,,,,,,,,,,,,,,,,,,,,,,,,,,,,,,,,,,,,,,,,,,
36959,1650406592.0808961,1650406592.069345,50.0,0.0,4773.846191,4534.871582,4185.128418,4294.358886999999,4600.0,0.0,4.0,91.0,,,,0.0,4.0,0.0,1.0,0.0,4.0,8.333333,,,,,,,,25.0,0.0,0.6598569999999999,0.604492,0.3479,-0.279541,0.7959109999999999,-0.601572,-0.022461000000000002,-0.017532,-0.05140599999999999,-0.013423,,,,,,,,,,,,,,,,,,,,,,,,,,,,,,,,,,,,,,,,,,,,,,,,,,,,,,,,,,,,,,,,,
36960,1650406592.08871,1650406592.077159,51.0,0.0,4729.743652,4595.384765999999,4166.666504,4296.410156,4581.538574,0.0,4.0,91.0,,,,0.0,4.0,0.0,1.0,0.0,4.0,8.333333,,,,,,,,,,,,,,,,,,,,,,,,,,,,,,,,,,,,,,,,,,,,,,,,,,,,,,,,,,,,,,,,,,,,,,,,,,,,,,,,,,,,
36961,1650406592.096525,1650406592.084974,52.0,0.0,4694.871582,4438.974121,4190.256348,4296.410156,4578.974121,0.0,4.0,91.0,,,,0.0,4.0,0.0,1.0,0.0,4.0,8.333333,,,,,,,,26.0,0.0,0.659728,0.604492,0.348145,-0.279541,0.806653,-0.617197,-0.022461000000000002,-0.018025,-0.051440999999999994,-0.014571,1.0,0.0,0.0,,,,,,,,,,,,,,,,,,,,,,,,,,,,,,,,0.0,0.0,1.0,0.0,512.0,1.0,52.677364000000004,32.010456,12.680936,83.456352,51.258666999999996,243.327637,194.276489,382.843842,2645.150879,1226.135864,35.207454999999996,124.153,31.410419,226.93042000000003,135.272598,0.154074,0.18645599999999998,0.422379,1.698032,0.8094640000000001,22.841116,9.677085,15.516622,95.619576,42.269775
36962,1650406592.1043391,1650406592.092688,53.0,0.0,4632.307617,4402.563965,4180.512695,4293.846191,4522.563965,0.0,4.0,91.0,,,,0.0,4.0,0.0,1.0,0.0,4.0,8.333333,,,,,,,,,,,,,,,,,,,,,,,,,,,,,,,,,,,,,,,,,,,,,,,,,,,,,,,,,,,,,,,,,,,,,,,,,,,,,,,,,,,,
36963,1650406592.112154,1650406592.100602,54.0,0.0,4560.0,4566.153809,4155.384765999999,4299.487305,4460.0,0.0,4.0,91.0,,,,0.0,4.0,0.0,1.0,0.0,4.0,8.333333,,,,,,,,27.0,0.0,0.659728,0.604492,0.348145,-0.279541,0.80177,-0.613779,-0.02002,-0.01842,-0.051424,-0.012528000000000001,,,,,,,,,,,,,,,,,,,,,,,,,,,,,,,,,,,,,,,,,,,,,,,,,,,,,,,,,,,,,,,,,
36964,1650406592.119969,1650406592.108417,55.0,0.0,4508.205078,4770.769043,4132.820313,4301.025879,4458.974121,0.0,4.0,91.0,,,,0.0,4.0,0.0,1.0,0.0,4.0,8.333333,,,,,,,,,,,,,,,,,,,,,,,,,,,,,,,,,,,,,,,,,,,,,,,,,,,,,,,,,,,,,,,,,,,,,,,,,,,,,,,,,,,,
36965,1650406592.127783,1650406592.116331,56.0,0.0,4415.897461,4608.717772999999,4122.05127,4298.461426,4381.538574,0.0,4.0,91.0,,,,0.0,4.0,0.0,1.0,0.0,4.0,8.333333,,,,,,,,28.0,0.0,0.6595989999999999,0.604492,0.348389,-0.279541,0.793957,-0.604013,-0.019043,-0.018775,-0.05136,-0.013813999999999998,,,,,,,,,,,,,,,,,,,,,,,,,,,,,,,,,,,0.0,0.0,1.0,0.0,512.0,1.0,,,,,,,,,,,,,,,,,,,,,,,,,
36966,1650406592.135598,1650406592.124146,57.0,0.0,4373.846191,4396.922852000001,4201.538574,4298.974121,4303.077147999999,0.0,4.0,91.0,,,,0.0,4.0,0.0,1.0,0.0,4.0,8.333333,,,,,,,,,,,,,,,,,,,,,,,,,,,,,,,,,,,,,,,,,,,,,,,,,,,,,,,,,,,,,,,,,,,,,,,,,,,,,,,,,,,,
36967,1650406592.1434119,1650406592.13206,58.0,0.0,4388.205078,4898.461426,4275.384765999999,4288.717772999999,4356.922852000001,0.0,4.0,91.0,,,,0.0,4.0,0.0,1.0,0.0,4.0,8.333333,,,,,,,,29.0,0.0,0.659496,0.604492,0.348389,-0.279785,0.794446,-0.598642,-0.033204000000000004,-0.019241,-0.0514,-0.011748999999999999,,,,,,,,,,,,,,,,,,,,,,,,,,,,,,,,,,,,,,,,,,,,,,,,,,,,,,,,,,,,,,,,,
36968,1650406592.151227,1650406592.139874,59.0,0.0,4364.615234000001,5394.358886999999,4120.0,4273.846191,4409.743652,0.0,4.0,91.0,,,,0.0,4.0,0.0,1.0,0.0,4.0,8.333333,,,,,,,,,,,,,,,,,,,,,,,,,,,,,,,,,,,,,,,,,,,,,,,,,,,,,,,,,,,,,,,,,,,,,,,,,,,,,,,,,,,,
36969,1650406592.159041,1650406592.147789,60.0,0.0,4261.025879,5006.153809,3944.615479,4286.153809,4319.487305,0.0,4.0,91.0,,,,0.0,4.0,0.0,1.0,0.0,4.0,8.333333,,,,,,,,30.0,0.0,0.659745,0.604248,0.348145,-0.280029,0.8012819999999999,-0.602548,-0.03125,-0.019514,-0.051436,-0.013065,,,,,,,,,,,,,,,,,,,,,,,,,,,,,,,,,,,0.0,0.0,1.0,0.0,512.0,1.0,,,,,,,,,,,,,,,,,,,,,,,,,
36970,1650406592.166856,1650406592.155603,61.0,0.0,4209.743652,4568.205078,4208.717772999999,4301.538574,4222.05127,0.0,4.0,91.0,,,,0.0,4.0,0.0,1.0,0.0,4.0,8.333333,,,,,,,,,,,,,,,,,,,,,,,,,,,,,,,,,,,,,,,,,,,,,,,,,,,,,,,,,,,,,,,,,,,,,,,,,,,,,,,,,,,,
36971,1650406592.17467,1650406592.163517,62.0,0.0,4256.922852000001,4603.077147999999,4489.230957,4282.05127,4205.641113000001,0.0,4.0,91.0,,,,0.0,4.0,0.0,1.0,0.0,4.0,8.333333,,,,,,,,31.0,0.0,0.659616,0.604248,0.348389,-0.280029,0.812512,-0.605478,-0.026856,-0.01976,-0.051370000000000006,-0.011123000000000001,,,,,,,,,,,,,,,,,,,,,,,,,,,,,,,,,,,,,,,,,,,,,,,,,,,,,,,,,,,,,,,,,
36972,1650406592.1824849,1650406592.1713321,63.0,0.0,4293.333496,4381.025879,4352.820313,4258.461426,4150.769043,0.0,4.0,91.0,,,,0.0,4.0,0.0,1.0,0.0,4.0,8.333333,,,,,,,,,,,,,,,,,,,,,,,,,,,,,,,,,,,,,,,,,,,,,,,,,,,,,,,,,,,,,,,,,,,,,,,,,,,,,,,,,,,,
36973,1650406592.190299,1650406592.1792462,64.0,0.0,4272.820313,4597.436035,4099.487305,4264.615234000001,4183.077147999999,450.0,4.0,91.0,,,,0.0,4.0,0.0,1.0,0.0,4.0,8.333333,,,,,,,,32.0,0.0,0.65972,0.604248,0.348389,-0.279785,0.803723,-0.605478,-0.023438,-0.018468000000000002,-0.051312,-0.012355,,,,,,,,,,,,,,,,,,,,,,,,,,,,,,,,,,,0.0,0.0,1.0,0.0,512.0,1.0,,,,,,,,,,,,,,,,,,,,,,,,,
36974,1650406592.1981142,1650406592.1870599,65.0,0.0,4254.871582,5260.512695,4152.307617,4276.410156,4311.282227000001,450.0,4.0,91.0,,,,0.0,4.0,0.0,1.0,0.0,4.0,8.333333,,,,,,,,,,,,,,,,,,,,,,,,,,,,,,,,,,,,,,,,,,,,,,,,,,,,,,,,,,,,,,,,,,,,,,,,,,,,,,,,,,,,
36975,1650406592.2059278,1650406592.194975,66.0,0.0,4232.820313,5151.794922,4196.410156,4276.922852000001,4311.282227000001,16140.0,4.0,91.0,,,,0.0,4.0,0.0,1.0,0.0,4.0,8.333333,,,,,,,,33.0,0.0,0.659616,0.604248,0.348389,-0.280029,0.8076300000000001,-0.590829,-0.029297000000000004,-0.017256,-0.051161,-0.013512,,,,,,,,,,,,,,,,,,,,,,,,,,,,,,,,,,,,,,,,,,,,,,,,,,,,,,,,,,,,,,,,,
36976,1650406592.213743,1650406592.202889,67.0,0.0,4106.666504,4819.487305,4175.897461,4284.102539,4186.666504,450.0,4.0,91.0,,,,0.0,4.0,0.0,1.0,0.0,4.0,8.333333,,,,,,,,,,,,,,,,,,,,,,,,,,,,,,,,,,,,,,,,,,,,,,,,,,,,,,,,,,,,,,,,,,,,,,,,,,,,,,,,,,,,
36977,1650406592.221558,1650406592.210703,68.0,0.0,4097.436035,4714.871582,4271.794922,4288.205078,4160.512695,0.0,4.0,91.0,,,,0.0,4.0,0.0,1.0,0.0,4.0,8.333333,1.0,0.0,0.0,0.0,0.0,0.0,0.0,34.0,0.0,0.659968,0.604004,0.348145,-0.280029,0.796887,-0.6030369999999999,-0.023926,-0.017728,-0.051172,-0.014650999999999999,1.0,0.0,0.0,,,,,,,,,,,,,,,,,,,,,,,,,,,,,,,,0.0,0.0,1.0,0.0,512.0,1.0,27.461592,26.445334999999996,14.477607999999998,84.729599,58.232147,193.583725,170.904907,302.528351,2593.682373,1366.46814,35.305038,135.186508,36.341938,223.77674900000002,154.234482,0.10745299999999999,0.153824,0.41304700000000005,1.628914,0.9074059999999999,13.664470000000001,8.998775,14.864754999999999,92.639206,44.089016
36978,1650406592.229372,1650406592.218618,69.0,0.0,4235.897461,4232.307617,4371.282227000001,4277.436035,4158.974121,450.0,4.0,91.0,,,,0.0,4.0,0.0,1.0,0.0,4.0,8.333333,,,,,,,,,,,,,,,,,,,,,,,,,,,,,,,,,,,,,,,,,,,,,,,,,,,,,,,,,,,,,,,,,,,,,,,,,,,,,,,,,,,,
36979,1650406592.237187,1650406592.226432,70.0,0.0,4269.743652,4215.384765999999,4331.794922,4272.820313,4156.410156,134.0,4.0,91.0,,,,0.0,4.0,0.0,1.0,0.0,4.0,8.333333,,,,,,,,35.0,0.0,0.659968,0.604004,0.348145,-0.280029,0.799329,-0.605966,-0.023926,-0.018054,-0.05123099999999999,-0.012648999999999999,,,,,,,,,,,,,,,,,,,,,,,,,,,,,,,,,,,,,,,,,,,,,,,,,,,,,,,,,,,,,,,,,
36980,1650406592.245001,1650406592.2343462,71.0,0.0,4232.307617,5052.820313,4231.794922,4271.282227000001,4226.153809,450.0,4.0,91.0,,,,0.0,4.0,0.0,1.0,0.0,4.0,8.333333,,,,,,,,,,,,,,,,,,,,,,,,,,,,,,,,,,,,,,,,,,,,,,,,,,,,,,,,,,,,,,,,,,,,,,,,,,,,,,,,,,,,
36981,1650406592.252816,1650406592.242161,72.0,0.0,4273.846191,5208.717772999999,4020.512939,4272.307617,4280.0,450.0,4.0,91.0,,,,0.0,4.0,0.0,1.0,0.0,4.0,8.333333,,,,,,,,36.0,0.0,0.6598649999999999,0.604004,0.348145,-0.280273,0.800305,-0.606455,-0.033204000000000004,-0.018446,-0.051235,-0.013825,,,,,,,,,,,,,,,,,,,,,,,,,,,,,,,,,,,0.0,0.0,1.0,0.0,512.0,1.0,,,,,,,,,,,,,,,,,,,,,,,,,
36982,1650406592.2606301,1650406592.250075,73.0,0.0,4207.179688,4888.205078,3968.718018,4282.05127,4257.436035,0.0,4.0,91.0,,,,0.0,4.0,0.0,1.0,0.0,4.0,8.333333,,,,,,,,,,,,,,,,,,,,,,,,,,,,,,,,,,,,,,,,,,,,,,,,,,,,,,,,,,,,,,,,,,,,,,,,,,,,,,,,,,,,
36983,1650406592.268445,1650406592.25789,74.0,0.0,4105.128418,4961.538574,4204.102539,4287.179688,4244.102539,450.0,4.0,91.0,,,,0.0,4.0,0.0,1.0,0.0,4.0,8.333333,,,,,,,,37.0,0.0,0.6598649999999999,0.604004,0.348145,-0.280273,0.810559,-0.606455,-0.037598,-0.017236,-0.05114,-0.014933000000000002,,,,,,,,,,,,,,,,,,,,,,,,,,,,,,,,,,,,,,,,,,,,,,,,,,,,,,,,,,,,,,,,,
36984,1650406592.276259,1650406592.2658038,75.0,0.0,4143.589844,4574.358886999999,4257.436035,4283.077147999999,4154.358886999999,16144.0,4.0,91.0,,,,0.0,4.0,0.0,1.0,0.0,4.0,8.333333,,,,,,,,,,,,,,,,,,,,,,,,,,,,,,,,,,,,,,,,,,,,,,,,,,,,,,,,,,,,,,,,,,,,,,,,,,,,,,,,,,,,
36985,1650406592.284074,1650406592.273618,76.0,0.0,4186.666504,4121.025879,4180.0,4279.487305,4060.512939,450.0,4.0,91.0,,,,0.0,4.0,0.0,1.0,0.0,4.0,8.333333,,,,,,,,38.0,0.0,0.65989,0.604004,0.3479,-0.280518,0.812512,-0.609384,-0.020508000000000002,-0.01771,-0.051153,-0.015979,,,,,,,,,,,,,,,,,,,,,,,,,,,,,,,,,,,0.0,0.0,1.0,0.0,512.0,1.0,,,,,,,,,,,,,,,,,,,,,,,,,
36986,1650406592.291888,1650406592.281533,77.0,0.0,4247.179688,4534.358886999999,4266.153809,4273.333496,4140.512695,450.0,4.0,91.0,,,,0.0,4.0,0.0,1.0,0.0,4.0,8.333333,,,,,,,,,,,,,,,,,,,,,,,,,,,,,,,,,,,,,,,,,,,,,,,,,,,,,,,,,,,,,,,,,,,,,,,,,,,,,,,,,,,,
36987,1650406592.299703,1650406592.2893472,78.0,0.0,4382.05127,4841.538574,4288.205078,4267.179688,4246.666504,450.0,4.0,91.0,,,,0.0,4.0,0.0,1.0,0.0,4.0,8.333333,,,,,,,,39.0,0.0,0.659786,0.604004,0.3479,-0.280762,0.800793,-0.598154,-0.029297000000000004,-0.018185,-0.051164999999999995,-0.016919999999999998,,,,,,,,,,,,,,,,,,,,,,,,,,,,,,,,,,,,,,,,,,,,,,,,,,,,,,,,,,,,,,,,,
36988,1650406592.307517,1650406592.297261,79.0,0.0,4341.538574,4846.666504,4138.974121,4275.384765999999,4276.922852000001,16144.0,4.0,91.0,,,,0.0,4.0,0.0,1.0,0.0,4.0,8.333333,,,,,,,,,,,,,,,,,,,,,,,,,,,,,,,,,,,,,,,,,,,,,,,,,,,,,,,,,,,,,,,,,,,,,,,,,,,,,,,,,,,,
36989,1650406592.315332,1650406592.305076,80.0,0.0,4137.436035,5249.743652,4205.128418,4285.641113000001,4306.666504,450.0,4.0,91.0,,,,0.0,4.0,0.0,1.0,0.0,4.0,8.333333,,,,,,,,40.0,0.0,0.659786,0.604004,0.3479,-0.280762,0.812512,-0.584482,-0.016114,-0.017001,-0.051176,-0.014544999999999999,,,,,,,,,,,,,,,,,,,,,,,,,,,,,,,,,,,0.0,0.0,1.0,0.0,512.0,1.0,,,,,,,,,,,,,,,,,,,,,,,,,
36990,1650406592.323146,1650406592.31299,81.0,0.0,4140.512695,4998.974121,4285.128418,4283.589844,4267.179688,450.0,4.0,91.0,,,,0.0,4.0,0.0,1.0,0.0,4.0,8.333333,,,,,,,,,,,,,,,,,,,,,,,,,,,,,,,,,,,,,,,,,,,,,,,,,,,,,,,,,,,,,,,,,,,,,,,,,,,,,,,,,,,,
36991,1650406592.330961,1650406592.3208039,82.0,0.0,4260.0,4004.615479,4273.846191,4276.922852000001,4131.794922,450.0,4.0,91.0,,,,0.0,4.0,0.0,1.0,0.0,4.0,8.333333,,,,,,,,41.0,0.0,0.65989,0.604004,0.3479,-0.280518,0.812512,-0.609384,-0.020508000000000002,-0.017499,-0.051185,-0.012504000000000001,,,,,,,,,,,,,,,,,,,,,,,,,,,,,,,,,,,,,,,,,,,,,,,,,,,,,,,,,,,,,,,,,
36992,1650406592.3387759,1650406592.328719,83.0,0.0,4277.436035,4198.974121,4326.153809,4274.871582,4160.512695,16144.0,4.0,91.0,,,,0.0,4.0,0.0,1.0,0.0,4.0,8.333333,,,,,,,,,,,,,,,,,,,,,,,,,,,,,,,,,,,,,,,,,,,,,,,,,,,,,,,,,,,,,,,,,,,,,,,,,,,,,,,,,,,,
36993,1650406592.34659,1650406592.336533,84.0,0.0,4315.897461,5121.538574,4240.0,4272.820313,4292.820313,450.0,4.0,91.0,,,,0.0,4.0,0.0,1.0,0.0,4.0,8.333333,,,,,,,,42.0,0.0,0.659786,0.604004,0.3479,-0.280762,0.812512,-0.584482,-0.016114,-0.016384,-0.051193999999999996,-0.01057,1.0,0.0,0.0,,,,,,,,,,,,,,,,,,,,,,,,,,,,,,,,0.0,0.0,1.0,0.0,512.0,1.0,27.733877000000003,22.029041,15.542311999999999,81.136787,65.056976,171.746399,141.379974,239.43778999999998,2400.5239260000003,1606.211914,42.987858,146.59127800000002,43.505573,207.07836899999998,174.769455,0.121768,0.138474,0.375171,1.434763,1.010284,13.648967,9.40243,12.951494,84.440186,48.527569
36994,1650406592.3544052,1650406592.3444471,85.0,0.0,4359.487305,5095.384765999999,3886.6667479999996,4275.897461,4289.230957,450.0,4.0,91.0,,,,0.0,4.0,0.0,1.0,0.0,4.0,8.333333,,,,,,,,,,,,,,,,,,,,,,,,,,,,,,,,,,,,,,,,,,,,,,,,,,,,,,,,,,,,,,,,,,,,,,,,,,,,,,,,,,,,
36995,1650406592.3622189,1650406592.352262,86.0,0.0,4217.436035,4873.846191,3932.3076170000004,4284.102539,4226.153809,450.0,4.0,91.0,,,,0.0,4.0,0.0,1.0,0.0,4.0,8.333333,,,,,,,,43.0,0.0,0.659682,0.604004,0.3479,-0.281006,0.823743,-0.608896,-0.041505,-0.016894,-0.051200999999999997,-0.011955,,,,,,,,,,,,,,,,,,,,,,,,,,,,,,,,,,,,,,,,,,,,,,,,,,,,,,,,,,,,,,,,,
36996,1650406592.370034,1650406592.360176,87.0,0.0,4130.256348,4928.205078,4286.153809,4285.128418,4223.589844,16144.0,4.0,91.0,,,,0.0,4.0,0.0,1.0,0.0,4.0,8.333333,,,,,,,,,,,,,,,,,,,,,,,,,,,,,,,,,,,,,,,,,,,,,,,,,,,,,,,,,,,,,,,,,,,,,,,,,,,,,,,,,,,,
36997,1650406592.3778481,1650406592.367991,88.0,0.0,4190.256348,4572.820313,4236.410156,4285.641113000001,4148.717772999999,450.0,4.0,91.0,,,,0.0,4.0,0.0,1.0,0.0,4.0,8.333333,,,,,,,,44.0,0.0,0.659682,0.604004,0.3479,-0.281006,0.8056760000000001,-0.6045010000000001,-0.025391,-0.01745,-0.051111000000000004,-0.010124,,,,,,,,,,,,,,,,,,,,,,,,,,,,,,,,,,,0.0,0.0,1.0,0.0,512.0,1.0,,,,,,,,,,,,,,,,,,,,,,,,,
36998,1650406592.385663,1650406592.375905,89.0,0.0,4237.436035,4345.641113000001,4095.897461,4290.769043,4099.487305,450.0,4.0,91.0,,,,0.0,4.0,0.0,1.0,0.0,4.0,8.333333,,,,,,,,,,,,,,,,,,,,,,,,,,,,,,,,,,,,,,,,,,,,,,,,,,,,,,,,,,,,,,,,,,,,,,,,,,,,,,,,,,,,
36999,1650406592.393477,1650406592.3838189,90.0,0.0,4303.077147999999,4540.512695,4302.05127,4278.461426,4170.769043,450.0,4.0,91.0,,,,0.0,4.0,0.0,1.0,0.0,4.0,8.333333,,,,,,,,45.0,0.0,0.659682,0.604004,0.3479,-0.281006,0.810071,-0.59913,-0.030274000000000002,-0.017854,-0.051175,-0.011553,,,,,,,,,,,,,,,,,,,,,,,,,,,,,,,,,,,,,,,,,,,,,,,,,,,,,,,,,,,,,,,,,
37000,1650406592.401292,1650406592.391634,91.0,0.0,4377.436035,4563.077147999999,4360.0,4260.512695,4227.179688,16144.0,4.0,91.0,,,,0.0,4.0,0.0,1.0,0.0,4.0,8.333333,,,,,,,,,,,,,,,,,,,,,,,,,,,,,,,,,,,,,,,,,,,,,,,,,,,,,,,,,,,,,,,,,,,,,,,,,,,,,,,,,,,,
37001,1650406592.409106,1650406592.399548,92.0,0.0,4255.384765999999,4729.230957,4156.922852000001,4273.846191,4205.641113000001,450.0,4.0,91.0,,,,0.0,4.0,0.0,1.0,0.0,4.0,8.333333,,,,,,,,46.0,0.0,0.659682,0.604004,0.3479,-0.281006,0.806653,-0.60206,-0.023926,-0.018363,-0.051087,-0.009812000000000001,,,,,,,,,,,,,,,,,,,,,,,,,,,,,,,,,,,0.0,0.0,1.0,0.0,512.0,1.0,,,,,,,,,,,,,,,,,,,,,,,,,
37002,1650406592.4169211,1650406592.407362,93.0,0.0,4116.410156,4991.282227000001,4221.025879,4294.871582,4194.871582,450.0,4.0,91.0,,,,0.0,4.0,0.0,1.0,0.0,4.0,8.333333,,,,,,,,,,,,,,,,,,,,,,,,,,,,,,,,,,,,,,,,,,,,,,,,,,,,,,,,,,,,,,,,,,,,,,,,,,,,,,,,,,,,
37003,1650406592.424735,1650406592.415277,94.0,0.0,4221.538574,4333.333496,4342.05127,4286.153809,4178.461426,450.0,4.0,91.0,,,,0.0,4.0,0.0,1.0,0.0,4.0,8.333333,,,,,,,,47.0,0.0,0.659905,0.6037600000000001,0.3479,-0.281006,0.80177,-0.600595,-0.036622,-0.017113,-0.051105000000000005,-0.011271999999999999,,,,,,,,,,,,,,,,,,,,,,,,,,,,,,,,,,,,,,,,,,,,,,,,,,,,,,,,,,,,,,,,,
37004,1650406592.43255,1650406592.423091,95.0,0.0,4341.025879,3631.281982,4301.538574,4271.282227000001,4153.333496,16144.0,4.0,91.0,,,,0.0,4.0,0.0,1.0,0.0,4.0,8.333333,,,,,,,,,,,,,,,,,,,,,,,,,,,,,,,,,,,,,,,,,,,,,,,,,,,,,,,,,,,,,,,,,,,,,,,,,,,,,,,,,,,,
37005,1650406592.4403641,1650406592.431005,96.0,0.0,4298.461426,4375.384765999999,4261.538574,4272.820313,4218.974121,450.0,4.0,91.0,,,,0.0,4.0,0.0,1.0,0.0,4.0,8.333333,,,,,,,,48.0,0.0,0.659801,0.6037600000000001,0.3479,-0.28125,0.802258,-0.596201,-0.026856,-0.016036,-0.051122,-0.012684,,,,,,,,,,,,,,,,,,,,,,,,,,,,,,,,,,,0.0,0.0,1.0,0.0,512.0,1.0,,,,,,,,,,,,,,,,,,,,,,,,,
37006,1650406592.448179,1650406592.43882,97.0,0.0,4261.538574,5427.179688,4207.692383,4276.410156,4314.871582,450.0,4.0,91.0,,,,0.0,4.0,0.0,1.0,0.0,4.0,8.333333,,,,,,,,,,,,,,,,,,,,,,,,,,,,,,,,,,,,,,,,,,,,,,,,,,,,,,,,,,,,,,,,,,,,,,,,,,,,,,,,,,,,
37007,1650406592.455994,1650406592.446734,98.0,0.0,4314.358886999999,5080.0,4032.3076170000004,4280.512695,4296.922852000001,450.0,4.0,91.0,,,,0.0,4.0,0.0,1.0,0.0,4.0,8.333333,,,,,,,,49.0,0.0,0.659673,0.6037600000000001,0.348145,-0.28125,0.8056760000000001,-0.612314,-0.035644999999999996,-0.016630000000000002,-0.051039,-0.013857,,,,,,,,,,,,,,,,,,,,,,,,,,,,,,,,,,,,,,,,,,,,,,,,,,,,,,,,,,,,,,,,,
37008,1650406592.463808,1650406592.4545481,99.0,0.0,4275.384765999999,4227.692383,4064.102539,4292.307617,4165.128418,16144.0,4.0,91.0,,,,0.0,4.0,0.0,1.0,0.0,4.0,8.333333,,,,,,,,,,,,,,,,,,,,,,,,,,,,,,,,,,,,,,,,,,,,,,,,,,,,,,,,,,,,,,,,,,,,,,,,,,,,,,,,,,,,
37009,1650406592.471623,1650406592.4624631,100.0,0.0,4236.922852000001,4362.563965,4289.230957,4291.282227000001,4153.846191,450.0,4.0,91.0,,,,0.0,4.0,0.0,1.0,0.0,4.0,8.333333,,,,,,,,50.0,0.0,0.659673,0.6037600000000001,0.348145,-0.28125,0.8047,-0.598642,-0.036133,-0.015553,-0.051013,-0.014962,1.0,0.0,0.0,,,,,,,,,,,,,,,,,,,,,,,,,,,,,,,,0.0,0.0,1.0,0.0,512.0,1.0,64.343071,19.298244,15.585951999999999,72.836189,69.283638,177.50698899999998,112.164955,193.215057,2108.1455079999996,1885.949707,58.286854000000005,156.102524,52.012581,181.463501,191.8078,0.227307,0.153148,0.3212,1.167549,1.099234,29.244339,10.727122,10.162671000000001,72.610474,53.646938
37010,1650406592.4794369,1650406592.470277,101.0,0.0,4348.205078,4698.974121,4375.897461,4271.282227000001,4231.794922,450.0,4.0,91.0,,,,0.0,4.0,0.0,1.0,0.0,4.0,8.333333,,,,,,,,,,,,,,,,,,,,,,,,,,,,,,,,,,,,,,,,,,,,,,,,,,,,,,,,,,,,,,,,,,,,,,,,,,,,,,,,,,,,
37011,1650406592.487252,1650406592.478191,102.0,0.0,4391.282227000001,4605.641113000001,4129.743652,4268.717772999999,4249.743652,450.0,4.0,91.0,,,,0.0,4.0,0.0,1.0,0.0,4.0,8.333333,,,,,,,,51.0,0.0,0.659568,0.6037600000000001,0.348145,-0.281494,0.81886,-0.5927819999999999,-0.036622,-0.016194999999999998,-0.05099,-0.015907,,,,,,,,,,,,,,,,,,,,,,,,,,,,,,,,,,,,,,,,,,,,,,,,,,,,,,,,,,,,,,,,,
37012,1650406592.495066,1650406592.486006,103.0,0.0,4230.256348,4894.358886999999,3973.8461909999996,4287.692383,4266.153809,16144.0,4.0,91.0,,,,0.0,4.0,0.0,1.0,0.0,4.0,8.333333,,,,,,,,,,,,,,,,,,,,,,,,,,,,,,,,,,,,,,,,,,,,,,,,,,,,,,,,,,,,,,,,,,,,,,,,,,,,,,,,,,,,
37013,1650406592.502881,1650406592.4939198,104.0,0.0,4188.205078,5003.077147999999,4203.589844,4291.282227000001,4294.871582,450.0,4.0,91.0,,,,0.0,4.0,0.0,1.0,0.0,4.0,8.333333,,,,,,,,52.0,0.0,0.659568,0.6037600000000001,0.348145,-0.281494,0.797375,-0.592294,-0.03125,-0.016822,-0.050969,-0.013682,,,,,,,,,,,,,,,,,,,,,,,,,,,,,,,,,,,0.0,0.0,1.0,0.0,512.0,1.0,,,,,,,,,,,,,,,,,,,,,,,,,
37014,1650406592.510695,1650406592.501834,105.0,0.0,4275.897461,4233.333496,4351.282227000001,4284.102539,4193.333496,450.0,4.0,91.0,,,,0.0,4.0,0.0,1.0,0.0,4.0,8.333333,,,,,,,,,,,,,,,,,,,,,,,,,,,,,,,,,,,,,,,,,,,,,,,,,,,,,,,,,,,,,,,,,,,,,,,,,,,,,,,,,,,,
37015,1650406592.5185099,1650406592.509649,106.0,0.0,4300.512695,3968.205078,4243.589844,4287.179688,4124.102539,450.0,4.0,91.0,,,,0.0,4.0,0.0,1.0,0.0,4.0,8.333333,,,,,,,,53.0,0.0,0.659568,0.6037600000000001,0.348145,-0.281494,0.8056760000000001,-0.59913,-0.027832,-0.017434,-0.051048,-0.014706,,,,,,,,,,,,,,,,,,,,,,,,,,,,,,,,,,,,,,,,,,,,,,,,,,,,,,,,,,,,,,,,,
37016,1650406592.526324,1650406592.517563,107.0,0.0,4341.025879,4534.871582,4279.487305,4281.538574,4194.358886999999,16144.0,4.0,91.0,,,,0.0,4.0,0.0,1.0,0.0,4.0,8.333333,,,,,,,,,,,,,,,,,,,,,,,,,,,,,,,,,,,,,,,,,,,,,,,,,,,,,,,,,,,,,,,,,,,,,,,,,,,,,,,,,,,,
37017,1650406592.5341392,1650406592.525378,108.0,0.0,4428.205078,4664.102539,4323.589844,4266.666504,4258.974121,450.0,4.0,91.0,,,,0.0,4.0,0.0,1.0,0.0,4.0,8.333333,,,,,,,,54.0,0.0,0.659568,0.6037600000000001,0.348145,-0.281494,0.8012819999999999,-0.5888760000000001,-0.025391,-0.017888,-0.051022000000000005,-0.012601000000000001,,,,,,,,,,,,,,,,,,,,,,,,,,,,,,,,,,,0.0,0.0,1.0,0.0,512.0,1.0,,,,,,,,,,,,,,,,,,,,,,,,,
37018,1650406592.5419528,1650406592.533192,109.0,0.0,4342.05127,4702.563965,4150.256348,4274.871582,4276.410156,450.0,4.0,91.0,,,,0.0,4.0,0.0,1.0,0.0,4.0,8.333333,,,,,,,,,,,,,,,,,,,,,,,,,,,,,,,,,,,,,,,,,,,,,,,,,,,,,,,,,,,,,,,,,,,,,,,,,,,,,,,,,,,,
37019,1650406592.549768,1650406592.541106,110.0,0.0,4172.307617,5047.692383,4245.641113000001,4293.846191,4272.307617,450.0,4.0,91.0,,,,0.0,4.0,0.0,1.0,0.0,4.0,8.333333,,,,,,,,55.0,0.0,0.659568,0.6037600000000001,0.348145,-0.281494,0.8047,-0.60206,-0.027344,-0.016588,-0.051095,-0.010608,,,,,,,,,,,,,,,,,,,,,,,,,,,,,,,,,,,,,,,,,,,,,,,,,,,,,,,,,,,,,,,,,
37020,1650406592.557583,1650406592.548921,111.0,0.0,4229.743652,4633.333496,4481.538574,4287.692383,4232.820313,16144.0,4.0,91.0,,,,0.0,4.0,0.0,1.0,0.0,4.0,8.333333,,,,,,,,,,,,,,,,,,,,,,,,,,,,,,,,,,,,,,,,,,,,,,,,,,,,,,,,,,,,,,,,,,,,,,,,,,,,,,,,,,,,
37021,1650406592.565397,1650406592.556835,112.0,0.0,4404.102539,3891.281982,4358.974121,4270.769043,4180.0,450.0,4.0,91.0,,,,0.0,4.0,0.0,1.0,0.0,4.0,8.333333,,,,,,,,56.0,0.0,0.659801,0.6037600000000001,0.3479,-0.28125,0.808118,-0.608896,-0.030274000000000002,-0.017126,-0.051064,-0.011989,,,,,,,,,,,,,,,,,,,,,,,,,,,,,,,,,,,0.0,0.0,1.0,0.0,512.0,1.0,,,,,,,,,,,,,,,,,,,,,,,,,
37022,1650406592.573212,1650406592.564649,113.0,0.0,4397.94873,4323.077147999999,4052.3076170000004,4274.358886999999,4220.0,450.0,4.0,91.0,,,,0.0,4.0,0.0,1.0,0.0,4.0,8.333333,,,,,,,,,,,,,,,,,,,,,,,,,,,,,,,,,,,,,,,,,,,,,,,,,,,,,,,,,,,,,,,,,,,,,,,,,,,,,,,,,,,,
37023,1650406592.581026,1650406592.572364,114.0,0.0,4253.846191,5287.179688,4099.487305,4286.666504,4327.692383,450.0,4.0,91.0,,,,0.0,4.0,0.0,1.0,0.0,4.0,8.333333,,,,,,,,57.0,0.0,0.659578,0.604004,0.3479,-0.28125,0.808606,-0.605966,-0.027344,-0.017611,-0.051134,-0.013182,,,,,,,,,,,,,,,,,,,,,,,,,,,,,,,,,,,,,,,,,,,,,,,,,,,,,,,,,,,,,,,,,
37024,1650406592.588841,1650406592.580178,115.0,0.0,4254.871582,5135.897461,4312.307617,4286.666504,4346.666504,16144.0,4.0,91.0,,,,0.0,4.0,0.0,1.0,0.0,4.0,8.333333,,,,,,,,,,,,,,,,,,,,,,,,,,,,,,,,,,,,,,,,,,,,,,,,,,,,,,,,,,,,,,,,,,,,,,,,,,,,,,,,,,,,
37025,1650406592.5966551,1650406592.587893,116.0,0.0,4338.974121,4156.922852000001,4320.0,4279.487305,4190.769043,450.0,4.0,91.0,,,,0.0,4.0,0.0,1.0,0.0,4.0,8.333333,,,,,,,,58.0,0.0,0.659474,0.604004,0.3479,-0.281494,0.8012819999999999,-0.612314,-0.032227,-0.018047,-0.051245000000000006,-0.014306000000000001,1.0,0.0,0.0,,,,,,,,,,,,,,,,,,,,,,,,,,,,,,,,0.0,0.0,1.0,0.0,512.0,1.0,137.717392,18.159979,14.877719,62.147652,68.991501,201.875397,88.77847299999999,161.177231,1799.067505,2119.35498,77.948738,162.01364099999998,60.793834999999994,155.76007099999998,200.131866,0.418479,0.204691,0.268081,0.9018219999999999,1.146939,62.796046999999994,12.607564,7.206801,60.37844499999999,57.199028000000006
37026,1650406592.60447,1650406592.595807,117.0,0.0,4377.436035,4098.974121,4112.820313,4282.05127,4154.871582,450.0,4.0,91.0,,,,0.0,4.0,0.0,1.0,0.0,4.0,8.333333,,,,,,,,,,,,,,,,,,,,,,,,,,,,,,,,,,,,,,,,,,,,,,,,,,,,,,,,,,,,,,,,,,,,,,,,,,,,,,,,,,,,
37027,1650406592.612284,1650406592.603622,118.0,0.0,4374.871582,5059.487305,4080.512939,4282.05127,4319.487305,450.0,4.0,91.0,,,,0.0,4.0,0.0,1.0,0.0,4.0,8.333333,,,,,,,,59.0,0.0,0.6596029999999999,0.604004,0.347656,-0.281494,0.805188,-0.609873,-0.028808999999999998,-0.016877,-0.051247,-0.012192,,,,,,,,,,,,,,,,,,,,,,,,,,,,,,,,,,,,,,,,,,,,,,,,,,,,,,,,,,,,,,,,,
37028,1650406592.620099,1650406592.611536,119.0,0.0,4357.436035,5292.307617,4169.230957,4281.025879,4362.05127,16144.0,4.0,91.0,,,,0.0,4.0,0.0,1.0,0.0,4.0,8.333333,,,,,,,,,,,,,,,,,,,,,,,,,,,,,,,,,,,,,,,,,,,,,,,,,,,,,,,,,,,,,,,,,,,,,,,,,,,,,,,,,,,,
37029,1650406592.627913,1650406592.61935,120.0,0.0,4274.358886999999,4531.794922,4157.436035,4293.333496,4188.717772999999,450.0,4.0,91.0,,,,0.0,4.0,0.0,1.0,0.0,4.0,8.333333,,,,,,,,60.0,0.0,0.6594979999999999,0.604004,0.347656,-0.281738,0.790539,-0.6049899999999999,-0.034668,-0.015872999999999998,-0.051299000000000004,-0.013413999999999999,,,,,,,,,,,,,,,,,,,,,,,,,,,,,,,,,,,0.0,0.0,1.0,0.0,512.0,1.0,,,,,,,,,,,,,,,,,,,,,,,,,
37030,1650406592.635728,1650406592.627265,121.0,0.0,4253.333496,4252.307617,4209.743652,4300.0,4126.666504,450.0,4.0,91.0,,,,0.0,4.0,0.0,1.0,0.0,4.0,8.333333,,,,,,,,,,,,,,,,,,,,,,,,,,,,,,,,,,,,,,,,,,,,,,,,,,,,,,,,,,,,,,,,,,,,,,,,,,,,,,,,,,,,
37031,1650406592.643542,1650406592.6351788,122.0,0.0,4384.102539,4643.077147999999,4319.487305,4282.05127,4220.0,450.0,4.0,91.0,,,,0.0,4.0,0.0,1.0,0.0,4.0,8.333333,,,,,,,,61.0,0.0,0.6593939999999999,0.604004,0.347656,-0.281982,0.815442,-0.595224,-0.026368,-0.016337,-0.051345,-0.014563,,,,,,,,,,,,,,,,,,,,,,,,,,,,,,,,,,,,,,,,,,,,,,,,,,,,,,,,,,,,,,,,,
37032,1650406592.651357,1650406592.642993,123.0,0.0,4466.153809,4791.282227000001,4223.589844,4266.666504,4273.333496,16144.0,4.0,91.0,,,,0.0,4.0,0.0,1.0,0.0,4.0,8.333333,,,,,,,,,,,,,,,,,,,,,,,,,,,,,,,,,,,,,,,,,,,,,,,,,,,,,,,,,,,,,,,,,,,,,,,,,,,,,,,,,,,,
37033,1650406592.659171,1650406592.650808,124.0,0.0,4315.384765999999,4774.358886999999,4043.076904,4282.05127,4235.384765999999,450.0,4.0,91.0,,,,0.0,4.0,0.0,1.0,0.0,4.0,8.333333,,,,,,,,62.0,0.0,0.6593939999999999,0.604004,0.347656,-0.281982,0.799329,-0.595712,-0.03125,-0.016803,-0.051288,-0.012423,,,,,,,,,,,,,,,,,,,,,,,,,,,,,,,,,,,0.0,0.0,1.0,0.0,512.0,1.0,,,,,,,,,,,,,,,,,,,,,,,,,
37034,1650406592.666986,1650406592.6587222,125.0,0.0,4170.769043,4830.769043,4213.846191,4297.436035,4212.307617,450.0,4.0,91.0,,,,0.0,4.0,0.0,1.0,0.0,4.0,8.333333,,,,,,,,,,,,,,,,,,,,,,,,,,,,,,,,,,,,,,,,,,,,,,,,,,,,,,,,,,,,,,,,,,,,,,,,,,,,,,,,,,,,
37035,1650406592.6748009,1650406592.6665359,126.0,0.0,4275.897461,4413.333496,4504.102539,4287.179688,4223.589844,450.0,4.0,91.0,,,,0.0,4.0,0.0,1.0,0.0,4.0,8.333333,,,,,,,,63.0,0.0,0.659265,0.604004,0.3479,-0.281982,0.813489,-0.599619,-0.027344,-0.017271,-0.051238,-0.01372,,,,,,,,,,,,,,,,,,,,,,,,,,,,,,,,,,,,,,,,,,,,,,,,,,,,,,,,,,,,,,,,,
37036,1650406592.682615,1650406592.6744509,127.0,0.0,4405.128418,3878.974365,4411.282227000001,4269.743652,4173.333496,242.0,4.0,91.0,,,,0.0,4.0,0.0,1.0,0.0,4.0,8.333333,,,,,,,,,,,,,,,,,,,,,,,,,,,,,,,,,,,,,,,,,,,,,,,,,,,,,,,,,,,,,,,,,,,,,,,,,,,,,,,,,,,,
37037,1650406592.6904302,1650406592.682265,0.0,0.0,4348.205078,4381.025879,4063.076904,4272.307617,4175.897461,450.0,4.0,91.0,,,,0.0,4.0,0.0,1.0,0.0,4.0,8.333333,,,,,,,,0.0,0.0,0.659265,0.604004,0.3479,-0.281982,0.7954220000000001,-0.600595,-0.033692,-0.017692,-0.051192,-0.014788999999999998,,,,,,,,,,,,,,,,,,,,,,,,,,,,,,,,,,,0.0,0.0,1.0,0.0,512.0,1.0,,,,,,,,,,,,,,,,,,,,,,,,,
37038,1650406592.6982439,1650406592.6901789,1.0,0.0,4226.153809,5306.153809,4130.256348,4288.717772999999,4302.05127,450.0,4.0,91.0,,,,0.0,4.0,0.0,1.0,0.0,4.0,8.333333,,,,,,,,,,,,,,,,,,,,,,,,,,,,,,,,,,,,,,,,,,,,,,,,,,,,,,,,,,,,,,,,,,,,,,,,,,,,,,,,,,,,
37039,1650406592.706059,1650406592.697994,2.0,0.0,4241.538574,4944.102539,4464.615234000001,4290.769043,4346.666504,16153.0,4.0,91.0,,,,0.0,4.0,0.0,1.0,0.0,4.0,8.333333,,,,,,,,1.0,0.0,0.659161,0.604004,0.3479,-0.282227,0.810071,-0.614755,-0.028321,-0.018119999999999997,-0.051151,-0.012627,,,,,,,,,,,,,,,,,,,,,,,,,,,,,,,,,,,,,,,,,,,,,,,,,,,,,,,,,,,,,,,,,
37040,1650406592.7138731,1650406592.705908,3.0,0.0,4330.769043,3877.4357909999994,4475.384765999999,4274.871582,4185.128418,450.0,4.0,91.0,,,,0.0,4.0,0.0,1.0,0.0,4.0,8.333333,,,,,,,,,,,,,,,,,,,,,,,,,,,,,,,,,,,,,,,,,,,,,,,,,,,,,,,,,,,,,,,,,,,,,,,,,,,,,,,,,,,,
37041,1650406592.721688,1650406592.713723,4.0,0.0,4340.512695,4060.0,4100.512695,4270.769043,4139.487305,0.0,4.0,91.0,,,,0.0,4.0,0.0,1.0,0.0,4.0,8.333333,1.0,0.0,0.0,0.0,0.0,0.0,0.0,2.0,0.0,0.659161,0.604004,0.3479,-0.282227,0.794934,-0.5947359999999999,-0.025391,-0.018456999999999998,-0.051114,-0.010631999999999999,1.0,0.0,0.0,,,,,,,,,,,,,,,,,,,,,,,,,,,,,,,,0.0,0.0,1.0,0.0,512.0,1.0,234.14949,18.11869,13.7695,53.439831000000005,63.997234,233.893631,74.58626600000001,141.119843,1576.823242,2235.412354,95.63353000000001,164.45820600000002,68.57965899999999,138.40026899999998,197.328583,0.646623,0.287664,0.22617600000000002,0.7112890000000001,1.133155,109.27774,14.562122,4.739808999999999,51.418427,57.634205
37042,1650406592.729502,1650406592.721637,5.0,0.0,4245.641113000001,5109.743652,4016.923096,4284.102539,4295.384765999999,450.0,4.0,91.0,,,,0.0,4.0,0.0,0.0,0.0,4.0,0.0,,,,,,,,,,,,,,,,,,,,,,,,,,,,,,,,,,,,,,,,,,,,,,,,,,,,,,,,,,,,,,,,,,,,,,,,,,,,,,,,,,,,
37043,1650406592.737317,1650406592.729451,6.0,0.0,4236.922852000001,5005.641113000001,4277.94873,4289.230957,4330.256348,0.0,4.0,91.0,,,,0.0,4.0,0.0,0.0,0.0,4.0,0.0,,,,,,,,3.0,0.0,0.659032,0.604004,0.348145,-0.282227,0.7983520000000001,-0.608896,-0.030274000000000002,-0.018857,-0.051179,-0.008934000000000001,,,,,,,,,,,,,,,,,,,,,,,,,,,,,,,,,,,,,,,,,,,,,,,,,,,,,,,,,,,,,,,,,
37044,1650406592.745131,1650406592.737166,7.0,0.0,4303.077147999999,3924.615479,4366.153809,4282.563965,4164.615234000001,450.0,4.0,91.0,,,,0.0,4.0,0.0,0.0,0.0,4.0,0.0,,,,,,,,,,,,,,,,,,,,,,,,,,,,,,,,,,,,,,,,,,,,,,,,,,,,,,,,,,,,,,,,,,,,,,,,,,,,,,,,,,,,
37045,1650406592.7529461,1650406592.74498,8.0,0.0,4333.333496,3811.794922,4270.256348,4283.589844,4112.820313,450.0,4.0,91.0,,,,0.0,4.0,0.0,0.0,0.0,4.0,0.0,,,,,,,,4.0,0.0,0.659032,0.604004,0.348145,-0.282227,0.8012819999999999,-0.613291,-0.028321,-0.017606,-0.051188,-0.010433,,,,,,,,,,,,,,,,,,,,,,,,,,,,,,,,,,,0.0,0.0,1.0,0.0,512.0,1.0,,,,,,,,,,,,,,,,,,,,,,,,,
37046,1650406592.76076,1650406592.7526948,9.0,0.0,4361.538574,4742.05127,4230.769043,4280.0,4234.871582,0.0,4.0,91.0,,,,0.0,4.0,0.0,0.0,0.0,4.0,0.0,,,,,,,,,,,,,,,,,,,,,,,,,,,,,,,,,,,,,,,,,,,,,,,,,,,,,,,,,,,,,,,,,,,,,,,,,,,,,,,,,,,,
37047,1650406592.768575,1650406592.760509,10.0,0.0,4428.205078,5180.0,4139.487305,4272.307617,4343.589844,450.0,4.0,91.0,,,,0.0,4.0,0.0,0.0,0.0,4.0,0.0,,,,,,,,5.0,0.0,0.659161,0.604004,0.3479,-0.282227,0.794934,-0.5947359999999999,-0.025391,-0.018141,-0.051196,-0.008804000000000001,,,,,,,,,,,,,,,,,,,,,,,,,,,,,,,,,,,,,,,,,,,,,,,,,,,,,,,,,,,,,,,,,
37048,1650406592.7763891,1650406592.768224,11.0,0.0,4374.358886999999,4685.128418,3985.641113,4286.666504,4268.205078,16148.0,4.0,91.0,,,,0.0,4.0,0.0,0.0,0.0,4.0,0.0,,,,,,,,,,,,,,,,,,,,,,,,,,,,,,,,,,,,,,,,,,,,,,,,,,,,,,,,,,,,,,,,,,,,,,,,,,,,,,,,,,,,
37049,1650406592.784204,1650406592.776138,12.0,0.0,4245.128418,4304.615234000001,4179.487305,4302.563965,4148.717772999999,450.0,4.0,91.0,,,,0.0,4.0,0.0,0.0,0.0,4.0,0.0,,,,,,,,6.0,0.0,0.659032,0.604004,0.348145,-0.282227,0.8012819999999999,-0.613291,-0.028321,-0.016961,-0.051203,-0.010316,,,,,,,,,,,,,,,,,,,,,,,,,,,,,,,,,,,0.0,0.0,1.0,0.0,512.0,1.0,,,,,,,,,,,,,,,,,,,,,,,,,
37050,1650406592.792019,1650406592.783952,13.0,0.0,4295.384765999999,4506.666504,4480.0,4286.666504,4177.94873,450.0,4.0,91.0,,,,0.0,4.0,0.0,0.0,0.0,4.0,0.0,,,,,,,,,,,,,,,,,,,,,,,,,,,,,,,,,,,,,,,,,,,,,,,,,,,,,,,,,,,,,,,,,,,,,,,,,,,,,,,,,,,,
37051,1650406592.799833,1650406592.791867,14.0,0.0,4438.974121,4628.205078,4306.666504,4265.128418,4235.897461,450.0,4.0,91.0,,,,0.0,4.0,0.0,0.0,0.0,4.0,0.0,,,,,,,,7.0,0.0,0.659032,0.604004,0.348145,-0.282227,0.812512,-0.614267,-0.031738999999999996,-0.01756,-0.051210000000000006,-0.008698000000000001,,,,,,,,,,,,,,,,,,,,,,,,,,,,,,,,,,,,,,,,,,,,,,,,,,,,,,,,,,,,,,,,,
37052,1650406592.807648,1650406592.799681,15.0,0.0,4404.615234000001,4729.230957,3944.615479,4272.820313,4259.487305,16148.0,4.0,91.0,,,,0.0,4.0,0.0,0.0,0.0,4.0,0.0,,,,,,,,,,,,,,,,,,,,,,,,,,,,,,,,,,,,,,,,,,,,,,,,,,,,,,,,,,,,,,,,,,,,,,,,,,,,,,,,,,,,
37053,1650406592.8154619,1650406592.807595,16.0,0.0,4243.077147999999,5042.563965,4100.512695,4291.794922,4318.974121,0.0,4.0,91.0,,,,0.0,4.0,0.0,0.0,0.0,4.0,0.0,,,,,,,,8.0,0.0,0.658927,0.604004,0.348145,-0.282471,0.800305,-0.593759,-0.033204000000000004,-0.018197,-0.051167000000000004,-0.010319,,,,,,,,,,,,,,,,,,,,,,,,,,,,,,,,,,,0.0,0.0,1.0,0.0,512.0,1.0,,,,,,,,,,,,,,,,,,,,,,,,,
37054,1650406592.823277,1650406592.81541,17.0,0.0,4209.230957,4683.589844,4438.461426,4291.282227000001,4305.641113000001,0.0,4.0,91.0,,,,0.0,4.0,0.0,0.0,0.0,4.0,0.0,,,,,,,,,,,,,,,,,,,,,,,,,,,,,,,,,,,,,,,,,,,,,,,,,,,,,,,,,,,,,,,,,,,,,,,,,,,,,,,,,,,,
37055,1650406592.831091,1650406592.823324,18.0,0.0,4323.589844,3747.179443,4398.974121,4273.846191,4158.461426,0.0,4.0,91.0,,,,0.0,4.0,0.0,0.0,0.0,4.0,0.0,,,,,,,,9.0,0.0,0.658822,0.604004,0.348145,-0.282715,0.8095829999999999,-0.60206,-0.03418,-0.018672,-0.05108,-0.011728,,,,,,,,,,,,,,,,,,,,,,,,,,,,,,,,,,,,,,,,,,,,,,,,,,,,,,,,,,,,,,,,,
37056,1650406592.838906,1650406592.8311381,19.0,0.0,4390.769043,3960.0,4067.6923829999996,4272.307617,4177.94873,0.0,4.0,91.0,,,,0.0,4.0,0.0,0.0,0.0,4.0,0.0,,,,,,,,,,,,,,,,,,,,,,,,,,,,,,,,,,,,,,,,,,,,,,,,,,,,,,,,,,,,,,,,,,,,,,,,,,,,,,,,,,,,
37057,1650406592.84672,1650406592.839053,20.0,0.0,4280.512695,5138.974121,4038.461426,4287.692383,4341.538574,0.0,4.0,91.0,,,,0.0,4.0,0.0,0.0,0.0,4.0,0.0,,,,,,,,10.0,0.0,0.658822,0.604004,0.348145,-0.282715,0.8213020000000001,-0.601572,-0.039550999999999996,-0.017488,-0.051148,-0.009872,1.0,0.0,0.0,,,,,,,,,,,,,,,,,,,,,,,,,,,,,,,,0.0,0.0,1.0,0.0,512.0,1.0,330.07824700000003,18.235518,12.591139,50.881947,55.729,263.833221,72.481049,129.903976,1518.838867,2197.418457,106.535446,165.221207,73.578987,133.328049,185.10613999999998,0.849442,0.381365,0.196651,0.640379,1.054474,158.551224,16.137558,3.080421,48.234013,54.314102
37058,1650406592.8545349,1650406592.846867,21.0,0.0,4223.077147999999,5042.563965,4290.256348,4291.282227000001,4352.307617,0.0,4.0,91.0,,,,0.0,4.0,0.0,0.0,0.0,4.0,0.0,,,,,,,,,,,,,,,,,,,,,,,,,,,,,,,,,,,,,,,,,,,,,,,,,,,,,,,,,,,,,,,,,,,,,,,,,,,,,,,,,,,,
37059,1650406592.862349,1650406592.8547812,22.0,0.0,4334.871582,3865.1281740000004,4393.846191,4278.461426,4201.025879,0.0,4.0,91.0,,,,0.0,4.0,0.0,0.0,0.0,4.0,0.0,,,,,,,,11.0,0.0,0.658822,0.604004,0.348145,-0.282715,0.813001,-0.60206,-0.028808999999999998,-0.017986000000000002,-0.051209000000000005,-0.011326000000000001,,,,,,,,,,,,,,,,,,,,,,,,,,,,,,,,,,,,,,,,,,,,,,,,,,,,,,,,,,,,,,,,,
37060,1650406592.8701642,1650406592.862596,23.0,0.0,4401.025879,3807.6923829999996,4244.102539,4275.384765999999,4166.666504,0.0,4.0,91.0,,,,0.0,4.0,0.0,0.0,0.0,4.0,0.0,,,,,,,,,,,,,,,,,,,,,,,,,,,,,,,,,,,,,,,,,,,,,,,,,,,,,,,,,,,,,,,,,,,,,,,,,,,,,,,,,,,,
37061,1650406592.8779778,1650406592.8705099,24.0,0.0,4282.05127,4904.615234000001,4211.282227000001,4285.641113000001,4304.102539,0.0,4.0,91.0,,,,0.0,4.0,0.0,0.0,0.0,4.0,0.0,,,,,,,,12.0,0.0,0.6586930000000001,0.604004,0.348389,-0.282715,0.813489,-0.596689,-0.02295,-0.018433,-0.051117,-0.012586,,,,,,,,,,,,,,,,,,,,,,,,,,,,,,,,,,,0.0,0.0,1.0,0.0,512.0,1.0,,,,,,,,,,,,,,,,,,,,,,,,,
37062,1650406592.885793,1650406592.878325,25.0,0.0,4226.666504,5148.717772999999,4280.0,4289.743652,4373.846191,0.0,4.0,91.0,,,,0.0,4.0,0.0,0.0,0.0,4.0,0.0,,,,,,,,,,,,,,,,,,,,,,,,,,,,,,,,,,,,,,,,,,,,,,,,,,,,,,,,,,,,,,,,,,,,,,,,,,,,,,,,,,,,
37063,1650406592.893608,1650406592.886239,26.0,0.0,4283.077147999999,4141.025879,4197.436035,4286.153809,4216.922852000001,0.0,4.0,91.0,,,,0.0,4.0,0.0,0.0,0.0,4.0,0.0,,,,,,,,13.0,0.0,0.6586930000000001,0.604004,0.348389,-0.282715,0.807141,-0.586923,-0.024413999999999998,-0.018738,-0.051084,-0.010742,,,,,,,,,,,,,,,,,,,,,,,,,,,,,,,,,,,,,,,,,,,,,,,,,,,,,,,,,,,,,,,,,
37064,1650406592.901422,1650406592.894053,27.0,0.0,4313.333496,3707.179443,4228.205078,4286.153809,4114.871582,0.0,4.0,91.0,,,,0.0,4.0,0.0,0.0,0.0,4.0,0.0,,,,,,,,,,,,,,,,,,,,,,,,,,,,,,,,,,,,,,,,,,,,,,,,,,,,,,,,,,,,,,,,,,,,,,,,,,,,,,,,,,,,
37065,1650406592.909237,1650406592.901968,28.0,0.0,4354.358886999999,4600.0,4338.974121,4282.563965,4267.179688,0.0,4.0,91.0,,,,0.0,4.0,0.0,0.0,0.0,4.0,0.0,,,,,,,,14.0,0.0,0.658564,0.604004,0.34863299999999997,-0.282715,0.8012819999999999,-0.591806,-0.026856,-0.019111000000000003,-0.051151,-0.008984,,,,,,,,,,,,,,,,,,,,,,,,,,,,,,,,,,,0.0,0.0,1.0,0.0,512.0,1.0,,,,,,,,,,,,,,,,,,,,,,,,,
37066,1650406592.917051,1650406592.909782,29.0,0.0,4404.615234000001,5297.436035,4181.538574,4273.333496,4402.563965,0.0,4.0,91.0,,,,0.0,4.0,0.0,0.0,0.0,4.0,0.0,,,,,,,,,,,,,,,,,,,,,,,,,,,,,,,,,,,,,,,,,,,,,,,,,,,,,,,,,,,,,,,,,,,,,,,,,,,,,,,,,,,,
37067,1650406592.924866,1650406592.9174962,30.0,0.0,4349.743652,4766.153809,3965.1281740000004,4284.615234000001,4290.256348,0.0,4.0,91.0,,,,0.0,4.0,0.0,0.0,0.0,4.0,0.0,,,,,,,,15.0,0.0,0.658669,0.604004,0.34863299999999997,-0.282471,0.80177,-0.595224,-0.036622,-0.019348,-0.051261,-0.010576,,,,,,,,,,,,,,,,,,,,,,,,,,,,,,,,,,,,,,,,,,,,,,,,,,,,,,,,,,,,,,,,,
37068,1650406592.9326801,1650406592.925411,31.0,0.0,4256.410156,4168.205078,4103.589844,4305.641113000001,4156.410156,0.0,4.0,91.0,,,,0.0,4.0,0.0,0.0,0.0,4.0,0.0,,,,,,,,,,,,,,,,,,,,,,,,,,,,,,,,,,,,,,,,,,,,,,,,,,,,,,,,,,,,,,,,,,,,,,,,,,,,,,,,,,,,
37069,1650406592.940495,1650406592.933225,32.0,0.0,4313.333496,4282.05127,4354.871582,4292.307617,4208.717772999999,0.0,4.0,91.0,,,,0.0,4.0,0.0,0.0,0.0,4.0,0.0,,,,,,,,16.0,0.0,0.658788,0.6037600000000001,0.34863299999999997,-0.282715,0.8139770000000001,-0.584482,-0.026856,-0.019659,-0.051262,-0.008786,,,,,,,,,,,,,,,,,,,,,,,,,,,,,,,,,,,0.0,0.0,1.0,0.0,512.0,1.0,,,,,,,,,,,,,,,,,,,,,,,,,
37070,1650406592.948309,1650406592.94114,33.0,0.0,4415.897461,4172.307617,4391.794922,4266.153809,4241.538574,0.0,4.0,91.0,,,,0.0,4.0,0.0,0.0,0.0,4.0,0.0,,,,,,,,,,,,,,,,,,,,,,,,,,,,,,,,,,,,,,,,,,,,,,,,,,,,,,,,,,,,,,,,,,,,,,,,,,,,,,,,,,,,
37071,1650406592.956124,1650406592.9489539,34.0,0.0,4425.641113000001,4171.794922,4170.256348,4269.743652,4236.410156,0.0,4.0,91.0,,,,0.0,4.0,0.0,0.0,0.0,4.0,0.0,,,,,,,,17.0,0.0,0.658659,0.6037600000000001,0.348877,-0.282715,0.804211,-0.614267,-0.024413999999999998,-0.01994,-0.051213999999999996,-0.010348999999999999,,,,,,,,,,,,,,,,,,,,,,,,,,,,,,,,,,,,,,,,,,,,,,,,,,,,,,,,,,,,,,,,,
37072,1650406592.963938,1650406592.956868,35.0,0.0,4371.794922,5050.256348,4111.794922,4284.102539,4344.615234000001,0.0,4.0,91.0,,,,0.0,4.0,0.0,0.0,0.0,4.0,0.0,,,,,,,,,,,,,,,,,,,,,,,,,,,,,,,,,,,,,,,,,,,,,,,,,,,,,,,,,,,,,,,,,,,,,,,,,,,,,,,,,,,,
37073,1650406592.971753,1650406592.964683,36.0,0.0,4358.461426,5200.0,4283.077147999999,4284.615234000001,4403.589844,0.0,4.0,91.0,,,,0.0,4.0,0.0,0.0,0.0,4.0,0.0,,,,,,,,18.0,0.0,0.658435,0.604004,0.348877,-0.282715,0.807141,-0.6128020000000001,-0.031738999999999996,-0.020143,-0.051122,-0.00863,1.0,0.0,0.0,,,,,,,,,,,,,,,,,,,,,,,,,,,,,,,,0.0,0.0,1.0,0.0,512.0,1.0,397.157654,17.518167000000002,11.429308,56.104977000000005,46.78503,284.187103,82.87712900000001,123.600029,1634.18103,2030.9465329999998,109.228096,164.76852399999999,74.238312,138.733047,169.776947,0.970766,0.45828900000000006,0.173066,0.687133,0.9343049999999999,196.704224,16.994528,2.133184,50.893097,48.003840999999994
37074,1650406592.979567,1650406592.9725971,37.0,0.0,4358.461426,3985.1281740000004,4352.307617,4282.563965,4222.563965,0.0,4.0,91.0,,,,0.0,4.0,0.0,0.0,0.0,4.0,0.0,,,,,,,,,,,,,,,,,,,,,,,,,,,,,,,,,,,,,,,,,,,,,,,,,,,,,,,,,,,,,,,,,,,,,,,,,,,,,,,,,,,,
37075,1650406592.987382,1650406592.980411,38.0,0.0,4361.025879,3743.5898439999996,4277.94873,4284.102539,4144.102539,0.0,4.0,91.0,,,,0.0,4.0,0.0,0.0,0.0,4.0,0.0,,,,,,,,19.0,0.0,0.65833,0.604004,0.348877,-0.282959,0.797864,-0.605478,-0.024413999999999998,-0.018666,-0.05099,-0.010111,,,,,,,,,,,,,,,,,,,,,,,,,,,,,,,,,,,,,,,,,,,,,,,,,,,,,,,,,,,,,,,,,
37076,1650406592.995196,1650406592.988326,39.0,0.0,4363.077147999999,4957.94873,4244.102539,4278.461426,4293.333496,0.0,4.0,91.0,,,,0.0,4.0,0.0,0.0,0.0,4.0,0.0,,,,,,,,,,,,,,,,,,,,,,,,,,,,,,,,,,,,,,,,,,,,,,,,,,,,,,,,,,,,,,,,,,,,,,,,,,,,,,,,,,,,
37077,1650406593.003011,1650406592.99614,40.0,0.0,4392.820313,5297.436035,4053.8461909999996,4278.974121,4371.282227000001,0.0,4.0,91.0,,,,0.0,4.0,0.0,0.0,0.0,4.0,0.0,,,,,,,,20.0,0.0,0.658459,0.604004,0.34863299999999997,-0.282959,0.797864,-0.6049899999999999,-0.033204000000000004,-0.018948,-0.051018,-0.008465,,,,,,,,,,,,,,,,,,,,,,,,,,,,,,,,,,,0.0,0.0,1.0,0.0,512.0,1.0,,,,,,,,,,,,,,,,,,,,,,,,,
37078,1650406593.0108259,1650406593.0040538,41.0,0.0,4372.820313,4321.025879,3901.538574,4292.820313,4245.128418,0.0,4.0,91.0,,,,0.0,4.0,0.0,0.0,0.0,4.0,0.0,,,,,,,,,,,,,,,,,,,,,,,,,,,,,,,,,,,,,,,,,,,,,,,,,,,,,,,,,,,,,,,,,,,,,,,,,,,,,,,,,,,,
37079,1650406593.01864,1650406593.011869,42.0,0.0,4311.794922,3936.4101560000004,4202.563965,4298.974121,4161.538574,0.0,4.0,91.0,,,,0.0,4.0,0.0,0.0,0.0,4.0,0.0,,,,,,,,21.0,0.0,0.658354,0.604004,0.34863299999999997,-0.28320300000000004,0.808118,-0.599619,-0.020996,-0.01925,-0.050995,-0.010158,,,,,,,,,,,,,,,,,,,,,,,,,,,,,,,,,,,,,,,,,,,,,,,,,,,,,,,,,,,,,,,,,
37080,1650406593.0264552,1650406593.0196831,43.0,0.0,4352.820313,4539.487305,4453.846191,4282.05127,4231.282227000001,0.0,4.0,91.0,,,,0.0,4.0,0.0,0.0,0.0,4.0,0.0,,,,,,,,,,,,,,,,,,,,,,,,,,,,,,,,,,,,,,,,,,,,,,,,,,,,,,,,,,,,,,,,,,,,,,,,,,,,,,,,,,,,
37081,1650406593.0342689,1650406593.0273972,44.0,0.0,4460.512695,4921.025879,4187.692383,4266.666504,4306.153809,0.0,4.0,91.0,,,,0.0,4.0,0.0,0.0,0.0,4.0,0.0,,,,,,,,22.0,0.0,0.658354,0.604004,0.34863299999999997,-0.28320300000000004,0.809094,-0.595712,-0.021973,-0.019522,-0.051071,-0.008409,,,,,,,,,,,,,,,,,,,,,,,,,,,,,,,,,,,0.0,0.0,1.0,0.0,512.0,1.0,,,,,,,,,,,,,,,,,,,,,,,,,
37082,1650406593.042084,1650406593.035312,45.0,0.0,4408.205078,4747.692383,3877.4357909999994,4283.077147999999,4276.922852000001,0.0,4.0,91.0,,,,0.0,4.0,0.0,0.0,0.0,4.0,0.0,,,,,,,,,,,,,,,,,,,,,,,,,,,,,,,,,,,,,,,,,,,,,,,,,,,,,,,,,,,,,,,,,,,,,,,,,,,,,,,,,,,,
37083,1650406593.0498981,1650406593.043226,46.0,0.0,4268.205078,4548.717772999999,4054.8718259999996,4305.128418,4237.94873,0.0,4.0,91.0,,,,0.0,4.0,0.0,0.0,0.0,4.0,0.0,,,,,,,,23.0,0.0,0.6583439999999999,0.6037600000000001,0.348877,-0.283447,0.8056760000000001,-0.587411,-0.020996,-0.018205000000000002,-0.051091000000000004,-0.01001,,,,,,,,,,,,,,,,,,,,,,,,,,,,,,,,,,,,,,,,,,,,,,,,,,,,,,,,,,,,,,,,,
37084,1650406593.057713,1650406593.05104,47.0,0.0,4320.512695,4435.897461,4368.717772999999,4292.820313,4264.102539,0.0,4.0,91.0,,,,0.0,4.0,0.0,0.0,0.0,4.0,0.0,,,,,,,,,,,,,,,,,,,,,,,,,,,,,,,,,,,,,,,,,,,,,,,,,,,,,,,,,,,,,,,,,,,,,,,,,,,,,,,,,,,,
37085,1650406593.065527,1650406593.058855,48.0,0.0,4468.717772999999,4257.436035,4381.538574,4267.692383,4253.846191,0.0,4.0,91.0,,,,0.0,4.0,0.0,0.0,0.0,4.0,0.0,,,,,,,,24.0,0.0,0.6583439999999999,0.6037600000000001,0.348877,-0.283447,0.802747,-0.597665,-0.020996,-0.016433,-0.051108999999999995,-0.011401999999999999,,,,,,,,,,,,,,,,,,,,,,,,,,,,,,,,,,,0.0,0.0,1.0,0.0,512.0,1.0,,,,,,,,,,,,,,,,,,,,,,,,,
37086,1650406593.073342,1650406593.0665689,49.0,0.0,4440.512695,4461.025879,4124.615234000001,4273.333496,4274.358886999999,0.0,4.0,91.0,,,,0.0,4.0,0.0,0.0,0.0,4.0,0.0,,,,,,,,,,,,,,,,,,,,,,,,,,,,,,,,,,,,,,,,,,,,,,,,,,,,,,,,,,,,,,,,,,,,,,,,,,,,,,,,,,,,
37087,1650406593.081156,1650406593.0744839,50.0,0.0,4283.077147999999,5081.025879,4101.538574,4292.307617,4371.794922,0.0,4.0,91.0,,,,0.0,4.0,0.0,0.0,0.0,4.0,0.0,,,,,,,,25.0,0.0,0.658239,0.6037600000000001,0.348877,-0.28369099999999997,0.803723,-0.600107,-0.026856,-0.016937999999999998,-0.051174000000000004,-0.012801,,,,,,,,,,,,,,,,,,,,,,,,,,,,,,,,,,,,,,,,,,,,,,,,,,,,,,,,,,,,,,,,,
37088,1650406593.0889711,1650406593.082298,51.0,0.0,4271.794922,4938.461426,4292.820313,4291.794922,4384.615234000001,0.0,4.0,91.0,,,,0.0,4.0,0.0,0.0,0.0,4.0,0.0,,,,,,,,,,,,,,,,,,,,,,,,,,,,,,,,,,,,,,,,,,,,,,,,,,,,,,,,,,,,,,,,,,,,,,,,,,,,,,,,,,,,
37089,1650406593.096785,1650406593.090112,52.0,0.0,4393.333496,3908.205078,4371.794922,4281.538574,4232.820313,0.0,4.0,91.0,,,,0.0,4.0,0.0,0.0,0.0,4.0,0.0,,,,,,,,26.0,0.0,0.658239,0.6037600000000001,0.348877,-0.28369099999999997,0.80177,-0.602548,-0.03418,-0.017491,-0.051135,-0.010837000000000001,1.0,0.0,0.0,,,,,,,,,,,,,,,,,,,,,,,,,,,,,,,,0.0,0.0,1.0,0.0,512.0,1.0,412.265656,15.604232999999999,10.400400999999999,66.99051700000001,40.150822,290.684631,103.869461,119.596512,1856.488525,1835.457153,105.03130300000001,161.498184,69.948196,149.188828,160.530365,0.974405,0.492396,0.149813,0.806774,0.8183279999999999,210.76355,17.05175,1.6422900000000002,56.957618999999994,41.215569
37090,1650406593.1046,1650406593.097827,53.0,0.0,4430.256348,3811.281982,4261.538574,4281.538574,4202.563965,0.0,4.0,91.0,,,,0.0,4.0,0.0,0.0,0.0,4.0,0.0,,,,,,,,,,,,,,,,,,,,,,,,,,,,,,,,,,,,,,,,,,,,,,,,,,,,,,,,,,,,,,,,,,,,,,,,,,,,,,,,,,,,
37091,1650406593.1124141,1650406593.1056411,54.0,0.0,4308.205078,4988.205078,4241.025879,4285.641113000001,4343.589844,0.0,4.0,91.0,,,,0.0,4.0,0.0,0.0,0.0,4.0,0.0,,,,,,,,27.0,0.0,0.658133,0.6037600000000001,0.348877,-0.283936,0.819348,-0.592294,-0.022461000000000002,-0.017988,-0.051148,-0.009167,,,,,,,,,,,,,,,,,,,,,,,,,,,,,,,,,,,,,,,,,,,,,,,,,,,,,,,,,,,,,,,,,
37092,1650406593.120229,1650406593.113356,55.0,0.0,4262.05127,5204.615234000001,4287.179688,4286.666504,4380.0,0.0,4.0,91.0,,,,0.0,4.0,0.0,0.0,0.0,4.0,0.0,,,,,,,,,,,,,,,,,,,,,,,,,,,,,,,,,,,,,,,,,,,,,,,,,,,,,,,,,,,,,,,,,,,,,,,,,,,,,,,,,,,,
37093,1650406593.128044,1650406593.1211698,56.0,0.0,4343.589844,4062.5642090000006,4302.563965,4287.179688,4226.153809,0.0,4.0,91.0,,,,0.0,4.0,0.0,0.0,0.0,4.0,0.0,,,,,,,,28.0,0.0,0.658133,0.6037600000000001,0.348877,-0.283936,0.811048,-0.593271,-0.025391,-0.016873,-0.051160000000000004,-0.010692,,,,,,,,,,,,,,,,,,,,,,,,,,,,,,,,,,,0.0,0.0,1.0,0.0,512.0,1.0,,,,,,,,,,,,,,,,,,,,,,,,,
37094,1650406593.135858,1650406593.128885,57.0,0.0,4394.871582,3755.897461,4255.897461,4286.666504,4169.743652,0.0,4.0,91.0,,,,0.0,4.0,0.0,0.0,0.0,4.0,0.0,,,,,,,,,,,,,,,,,,,,,,,,,,,,,,,,,,,,,,,,,,,,,,,,,,,,,,,,,,,,,,,,,,,,,,,,,,,,,,,,,,,,
37095,1650406593.143673,1650406593.136799,58.0,0.0,4340.0,4821.538574,4186.153809,4287.179688,4328.717772999999,0.0,4.0,91.0,,,,0.0,4.0,0.0,0.0,0.0,4.0,0.0,,,,,,,,29.0,0.0,0.658028,0.6037600000000001,0.348877,-0.28418000000000004,0.808118,-0.5947359999999999,-0.027344,-0.017334,-0.051171,-0.00889,,,,,,,,,,,,,,,,,,,,,,,,,,,,,,,,,,,,,,,,,,,,,,,,,,,,,,,,,,,,,,,,,
37096,1650406593.1514869,1650406593.1447132,59.0,0.0,4304.615234000001,5319.487305,4235.897461,4289.743652,4446.666504,0.0,4.0,91.0,,,,0.0,4.0,0.0,0.0,0.0,4.0,0.0,,,,,,,,,,,,,,,,,,,,,,,,,,,,,,,,,,,,,,,,,,,,,,,,,,,,,,,,,,,,,,,,,,,,,,,,,,,,,,,,,,,,
37097,1650406593.159302,1650406593.152528,60.0,0.0,4343.589844,4326.153809,4353.846191,4289.230957,4323.077147999999,0.0,4.0,91.0,,,,0.0,4.0,0.0,0.0,0.0,4.0,0.0,,,,,,,,30.0,0.0,0.658028,0.6037600000000001,0.348877,-0.28418000000000004,0.8169069999999999,-0.593759,-0.024413999999999998,-0.017797999999999998,-0.050986000000000004,-0.010394,,,,,,,,,,,,,,,,,,,,,,,,,,,,,,,,,,,0.0,0.0,1.0,0.0,512.0,1.0,,,,,,,,,,,,,,,,,,,,,,,,,
37098,1650406593.167116,1650406593.1604419,61.0,0.0,4391.794922,3585.1281740000004,4322.05127,4281.025879,4164.102539,0.0,4.0,91.0,,,,0.0,4.0,0.0,0.0,0.0,4.0,0.0,,,,,,,,,,,,,,,,,,,,,,,,,,,,,,,,,,,,,,,,,,,,,,,,,,,,,,,,,,,,,,,,,,,,,,,,,,,,,,,,,,,,
37099,1650406593.174931,1650406593.1683571,62.0,0.0,4393.846191,4491.282227000001,4158.974121,4278.974121,4249.230957,0.0,4.0,91.0,,,,0.0,4.0,0.0,0.0,0.0,4.0,0.0,,,,,,,,31.0,0.0,0.658157,0.6037600000000001,0.34863299999999997,-0.28418000000000004,0.8095829999999999,-0.591318,-0.019532,-0.016653,-0.050966000000000004,-0.008671,,,,,,,,,,,,,,,,,,,,,,,,,,,,,,,,,,,,,,,,,,,,,,,,,,,,,,,,,,,,,,,,,
37100,1650406593.182745,1650406593.176171,63.0,0.0,4322.563965,5470.256348,4264.102539,4288.205078,4417.94873,0.0,4.0,91.0,,,,0.0,4.0,0.0,0.0,0.0,4.0,0.0,,,,,,,,,,,,,,,,,,,,,,,,,,,,,,,,,,,,,,,,,,,,,,,,,,,,,,,,,,,,,,,,,,,,,,,,,,,,,,,,,,,,
37101,1650406593.1905599,1650406593.183986,64.0,0.0,4292.820313,4725.128418,4443.589844,4289.743652,4361.538574,450.0,4.0,91.0,,,,0.0,4.0,0.0,0.0,0.0,4.0,0.0,,,,,,,,32.0,0.0,0.6580520000000001,0.6037600000000001,0.34863299999999997,-0.28442399999999995,0.812512,-0.5947359999999999,-0.022461000000000002,-0.015622,-0.050947000000000006,-0.010245,,,,,,,,,,,,,,,,,,,,,,,,,,,,,,,,,,,0.0,0.0,1.0,0.0,512.0,1.0,,,,,,,,,,,,,,,,,,,,,,,,,
37102,1650406593.198374,1650406593.1919,65.0,0.0,4389.743652,3658.974365,4364.615234000001,4277.436035,4197.436035,450.0,4.0,91.0,,,,0.0,4.0,0.0,0.0,0.0,4.0,0.0,,,,,,,,,,,,,,,,,,,,,,,,,,,,,,,,,,,,,,,,,,,,,,,,,,,,,,,,,,,,,,,,,,,,,,,,,,,,,,,,,,,,
37103,1650406593.2061892,1650406593.1997151,66.0,0.0,4430.769043,4168.717772999999,4071.794922,4274.358886999999,4232.307617,16199.0,4.0,91.0,,,,0.0,4.0,0.0,0.0,0.0,4.0,0.0,,,,,,,,33.0,0.0,0.658028,0.6037600000000001,0.348877,-0.28418000000000004,0.8169069999999999,-0.593759,-0.024413999999999998,-0.014744,-0.050882,-0.008586,,,,,,,,,,,,,,,,,,,,,,,,,,,,,,,,,,,,,,,,,,,,,,,,,,,,,,,,,,,,,,,,,
37104,1650406593.2140028,1650406593.207629,67.0,0.0,4265.641113000001,5139.487305,4056.923096,4289.230957,4346.666504,450.0,4.0,91.0,,,,0.0,4.0,0.0,0.0,0.0,4.0,0.0,,,,,,,,,,,,,,,,,,,,,,,,,,,,,,,,,,,,,,,,,,,,,,,,,,,,,,,,,,,,,,,,,,,,,,,,,,,,,,,,,,,,
37105,1650406593.221818,1650406593.215443,68.0,0.0,4257.436035,4865.641113000001,4317.436035,4296.410156,4362.563965,0.0,4.0,91.0,,,,0.0,4.0,0.0,0.0,0.0,4.0,0.0,1.0,0.0,0.0,0.0,0.0,0.0,0.0,34.0,0.0,0.6580520000000001,0.6037600000000001,0.34863299999999997,-0.28442399999999995,0.812512,-0.5947359999999999,-0.022461000000000002,-0.013904,-0.050872,-0.010169,1.0,0.0,0.0,0.0,,,-0.7839020000000001,2.1859509999999998,0.0,,,0.9410719999999999,8.100042,,0.0,,,-0.35128400000000004,0.21708400000000003,0.0,,,-0.5260819999999999,3.0115830000000003,0.0,,,-69.72580500000001,97.129719,0.0,,,0.42413500000000004,0.6972149999999999,0.0,0.0,1.0,0.0,512.0,1.0,370.444458,12.815139,9.522078,78.33094799999999,37.819077,284.885895,129.983734,117.321266,2070.954102,1742.917358,97.642464,152.743637,61.360209999999995,157.64399699999998,165.24473600000002,0.866857,0.47080200000000005,0.127778,0.9316120000000001,0.752935,195.951294,16.442995,1.501154,62.72654300000001,37.230682
37106,1650406593.229633,1650406593.223358,69.0,0.0,4475.384765999999,4009.2307130000004,4420.512695,4280.0,4293.333496,450.0,4.0,91.0,,,,0.0,4.0,0.0,0.0,0.0,4.0,0.0,,,,,,,,,,,,,,,,,,,,,,,,,,,,,,,,,,,,,,,,,,,,,,,,,,,,,,,,,,,,,,,,,,,,,,,,,,,,,,,,,,,,
37107,1650406593.237447,1650406593.231172,70.0,0.0,4501.025879,4075.897461,4254.358886999999,4271.794922,4269.230957,0.0,4.0,91.0,,,,0.0,4.0,0.0,0.0,0.0,4.0,0.0,,,,,,,,35.0,0.0,0.6580520000000001,0.6037600000000001,0.34863299999999997,-0.28442399999999995,0.8115359999999999,-0.5971770000000001,-0.035157,-0.014809000000000001,-0.050961,-0.008565999999999999,,,,,,,,,,,,,,,,,,,,,,,,,,,,,,,,,,,,,,,,,,,,,,,,,,,,,,,,,,,,,,,,,
37108,1650406593.245262,1650406593.239086,71.0,0.0,4269.230957,4873.846191,4159.487305,4286.153809,4304.615234000001,450.0,4.0,91.0,,,,0.0,4.0,0.0,0.0,0.0,4.0,0.0,,,,,,,,,,,,,,,,,,,,,,,,,,,,,,,,,,,,,,,,,,,,,,,,,,,,,,,,,,,,,,,,,,,,,,,,,,,,,,,,,,,,
37109,1650406593.253076,1650406593.246901,72.0,0.0,4230.256348,4918.461426,4291.282227000001,4297.94873,4345.128418,450.0,4.0,91.0,,,,0.0,4.0,0.0,0.0,0.0,4.0,0.0,,,,,,,,36.0,0.0,0.657946,0.6037600000000001,0.34863299999999997,-0.284668,0.814466,-0.590829,-0.032715,-0.01406,-0.050992,-0.010248,,,,,,,,,,,,,,,,,,,,,,,,,,,,,,,,,,,0.0,0.0,1.0,0.0,512.0,1.0,,,,,,,,,,,,,,,,,,,,,,,,,
37110,1650406593.260891,1650406593.254815,73.0,0.0,4422.563965,4053.3332520000004,4410.769043,4285.641113000001,4305.641113000001,0.0,4.0,91.0,,,,0.0,4.0,0.0,0.0,0.0,4.0,0.0,,,,,,,,,,,,,,,,,,,,,,,,,,,,,,,,,,,,,,,,,,,,,,,,,,,,,,,,,,,,,,,,,,,,,,,,,,,,,,,,,,,,
37111,1650406593.2687051,1650406593.26263,74.0,0.0,4495.384765999999,3851.281982,4305.641113000001,4272.820313,4280.0,450.0,4.0,91.0,,,,0.0,4.0,0.0,0.0,0.0,4.0,0.0,,,,,,,,37.0,0.0,0.6580520000000001,0.6037600000000001,0.34863299999999997,-0.28442399999999995,0.808606,-0.592294,-0.03125,-0.014754,-0.051117,-0.008491,,,,,,,,,,,,,,,,,,,,,,,,,,,,,,,,,,,,,,,,,,,,,,,,,,,,,,,,,,,,,,,,,
37112,1650406593.27652,1650406593.270544,75.0,0.0,4353.333496,4668.717772999999,4160.512695,4283.589844,4314.871582,16183.0,4.0,91.0,,,,0.0,4.0,0.0,0.0,0.0,4.0,0.0,,,,,,,,,,,,,,,,,,,,,,,,,,,,,,,,,,,,,,,,,,,,,,,,,,,,,,,,,,,,,,,,,,,,,,,,,,,,,,,,,,,,
37113,1650406593.284334,1650406593.278358,76.0,0.0,4257.436035,4966.153809,4261.538574,4301.538574,4332.307617,450.0,4.0,91.0,,,,0.0,4.0,0.0,0.0,0.0,4.0,0.0,,,,,,,,38.0,0.0,0.6580520000000001,0.6037600000000001,0.34863299999999997,-0.28442399999999995,0.8056760000000001,-0.589364,-0.024413999999999998,-0.015475999999999998,-0.051181,-0.010034999999999999,,,,,,,,,,,,,,,,,,,,,,,,,,,,,,,,,,,0.0,0.0,1.0,0.0,512.0,1.0,,,,,,,,,,,,,,,,,,,,,,,,,
37114,1650406593.292149,1650406593.286273,77.0,0.0,4352.820313,4104.102539,4443.077147999999,4296.410156,4302.05127,450.0,4.0,91.0,,,,0.0,4.0,0.0,0.0,0.0,4.0,0.0,,,,,,,,,,,,,,,,,,,,,,,,,,,,,,,,,,,,,,,,,,,,,,,,,,,,,,,,,,,,,,,,,,,,,,,,,,,,,,,,,,,,
37115,1650406593.299963,1650406593.294087,78.0,0.0,4476.410156,3502.0512700000004,4358.461426,4275.897461,4264.102539,450.0,4.0,91.0,,,,0.0,4.0,0.0,0.0,0.0,4.0,0.0,,,,,,,,39.0,0.0,0.6580520000000001,0.6037600000000001,0.34863299999999997,-0.28442399999999995,0.805188,-0.593271,-0.027832,-0.014612,-0.051239,-0.011473,,,,,,,,,,,,,,,,,,,,,,,,,,,,,,,,,,,,,,,,,,,,,,,,,,,,,,,,,,,,,,,,,
37116,1650406593.307778,1650406593.302001,79.0,0.0,4449.230957,4285.128418,4076.923096,4277.436035,4307.179688,16183.0,4.0,91.0,,,,0.0,4.0,0.0,0.0,0.0,4.0,0.0,,,,,,,,,,,,,,,,,,,,,,,,,,,,,,,,,,,,,,,,,,,,,,,,,,,,,,,,,,,,,,,,,,,,,,,,,,,,,,,,,,,,
37117,1650406593.315592,1650406593.309916,80.0,0.0,4321.538574,5249.230957,4135.384765999999,4295.384765999999,4401.538574,450.0,4.0,91.0,,,,0.0,4.0,0.0,0.0,0.0,4.0,0.0,,,,,,,,40.0,0.0,0.6580520000000001,0.6037600000000001,0.34863299999999997,-0.28442399999999995,0.799329,-0.595712,-0.021973,-0.015347999999999999,-0.051193,-0.009593,,,,,,,,,,,,,,,,,,,,,,,,,,,,,,,,,,,0.0,0.0,1.0,0.0,512.0,1.0,,,,,,,,,,,,,,,,,,,,,,,,,
37118,1650406593.323407,1650406593.31783,81.0,0.0,4304.615234000001,4710.769043,4434.358886999999,4294.871582,4378.461426,450.0,4.0,91.0,,,,0.0,4.0,0.0,0.0,0.0,4.0,0.0,,,,,,,,,,,,,,,,,,,,,,,,,,,,,,,,,,,,,,,,,,,,,,,,,,,,,,,,,,,,,,,,,,,,,,,,,,,,,,,,,,,,
37119,1650406593.331221,1650406593.325645,82.0,0.0,4416.922852000001,3601.025635,4480.512695,4276.922852000001,4229.743652,450.0,4.0,91.0,,,,0.0,4.0,0.0,0.0,0.0,4.0,0.0,,,,,,,,41.0,0.0,0.657946,0.6037600000000001,0.34863299999999997,-0.284668,0.806653,-0.595712,-0.021485,-0.01646,-0.051066,-0.006476000000000001,,,,,,,,,,,,,,,,,,,,,,,,,,,,,,,,,,,,,,,,,,,,,,,,,,,,,,,,,,,,,,,,,
37120,1650406593.339036,1650406593.33356,83.0,0.0,4452.820313,3938.461426,4124.615234000001,4275.897461,4228.717772999999,16183.0,4.0,91.0,,,,0.0,4.0,0.0,0.0,0.0,4.0,0.0,,,,,,,,,,,,,,,,,,,,,,,,,,,,,,,,,,,,,,,,,,,,,,,,,,,,,,,,,,,,,,,,,,,,,,,,,,,,,,,,,,,,
37121,1650406593.3468509,1650406593.341374,84.0,0.0,4313.846191,5096.922852000001,4013.8461909999996,4288.205078,4357.436035,450.0,4.0,91.0,,,,0.0,4.0,0.0,0.0,0.0,4.0,0.0,,,,,,,,42.0,0.0,0.657946,0.6037600000000001,0.34863299999999997,-0.284668,0.812024,-0.606943,-0.028321,-0.017011000000000002,-0.051038,-0.005145,1.0,0.0,0.0,,,,,,,,,,,,,,,,,,,,,,,,,,,,,,,,0.0,0.0,1.0,0.0,512.0,1.0,287.217133,9.948013000000001,8.783739,84.29287,40.017685,268.703827,153.438477,115.086823,2161.2189940000003,1850.9051510000002,91.226295,136.410065,50.371014,159.312698,186.073425,0.693409,0.400256,0.108234,0.998381,0.764238,157.646103,15.396996,1.5655350000000001,64.769836,38.508835
37122,1650406593.354665,1650406593.3492892,85.0,0.0,4287.179688,4991.794922,4268.717772999999,4293.846191,4395.897461,450.0,4.0,91.0,,,,0.0,4.0,0.0,0.0,0.0,4.0,0.0,,,,,,,,,,,,,,,,,,,,,,,,,,,,,,,,,,,,,,,,,,,,,,,,,,,,,,,,,,,,,,,,,,,,,,,,,,,,,,,,,,,,
37123,1650406593.3624802,1650406593.3571029,86.0,0.0,4403.077147999999,3818.974365,4365.641113000001,4290.769043,4269.230957,450.0,4.0,91.0,,,,0.0,4.0,0.0,0.0,0.0,4.0,0.0,,,,,,,,43.0,0.0,0.658041,0.6035159999999999,0.348877,-0.284668,0.818372,-0.5927819999999999,-0.025879000000000003,-0.017508000000000003,-0.051061,-0.007072,,,,,,,,,,,,,,,,,,,,,,,,,,,,,,,,,,,,,,,,,,,,,,,,,,,,,,,,,,,,,,,,,
37124,1650406593.3702939,1650406593.365018,87.0,0.0,4449.230957,3695.384521,4241.025879,4285.641113000001,4210.256348,16183.0,4.0,91.0,,,,0.0,4.0,0.0,0.0,0.0,4.0,0.0,,,,,,,,,,,,,,,,,,,,,,,,,,,,,,,,,,,,,,,,,,,,,,,,,,,,,,,,,,,,,,,,,,,,,,,,,,,,,,,,,,,,
37125,1650406593.378109,1650406593.372833,88.0,0.0,4385.128418,4915.384765999999,4214.358886999999,4283.077147999999,4349.230957,450.0,4.0,91.0,,,,0.0,4.0,0.0,0.0,0.0,4.0,0.0,,,,,,,,44.0,0.0,0.65817,0.6035159999999999,0.34863299999999997,-0.284668,0.8056760000000001,-0.590341,-0.025879000000000003,-0.018052000000000002,-0.051032999999999995,-0.00573,,,,,,,,,,,,,,,,,,,,,,,,,,,,,,,,,,,0.0,0.0,1.0,0.0,512.0,1.0,,,,,,,,,,,,,,,,,,,,,,,,,
37126,1650406593.3859231,1650406593.380747,89.0,0.0,4336.410156,5317.94873,4247.692383,4290.769043,4450.769043,450.0,4.0,91.0,,,,0.0,4.0,0.0,0.0,0.0,4.0,0.0,,,,,,,,,,,,,,,,,,,,,,,,,,,,,,,,,,,,,,,,,,,,,,,,,,,,,,,,,,,,,,,,,,,,,,,,,,,,,,,,,,,,
37127,1650406593.393738,1650406593.388562,90.0,0.0,4333.333496,4208.717772999999,4206.153809,4293.846191,4288.205078,450.0,4.0,91.0,,,,0.0,4.0,0.0,0.0,0.0,4.0,0.0,,,,,,,,45.0,0.0,0.658065,0.6035159999999999,0.34863299999999997,-0.284912,0.794934,-0.597665,-0.032715,-0.018493,-0.051106,-0.004376,,,,,,,,,,,,,,,,,,,,,,,,,,,,,,,,,,,,,,,,,,,,,,,,,,,,,,,,,,,,,,,,,
37128,1650406593.401552,1650406593.396476,91.0,0.0,4387.692383,3671.794922,4202.05127,4283.077147999999,4176.410156,16183.0,4.0,91.0,,,,0.0,4.0,0.0,0.0,0.0,4.0,0.0,,,,,,,,,,,,,,,,,,,,,,,,,,,,,,,,,,,,,,,,,,,,,,,,,,,,,,,,,,,,,,,,,,,,,,,,,,,,,,,,,,,,
37129,1650406593.409367,1650406593.404291,92.0,0.0,4404.102539,4686.153809,4205.128418,4282.563965,4349.743652,450.0,4.0,91.0,,,,0.0,4.0,0.0,0.0,0.0,4.0,0.0,,,,,,,,46.0,0.0,0.658065,0.6035159999999999,0.34863299999999997,-0.284912,0.808118,-0.592294,-0.030274000000000002,-0.018841,-0.051122,-0.006379999999999999,,,,,,,,,,,,,,,,,,,,,,,,,,,,,,,,,,,0.0,0.0,1.0,0.0,512.0,1.0,,,,,,,,,,,,,,,,,,,,,,,,,
37130,1650406593.417181,1650406593.4122062,93.0,0.0,4307.692383,5364.102539,4218.974121,4293.846191,4466.666504,450.0,4.0,91.0,,,,0.0,4.0,0.0,0.0,0.0,4.0,0.0,,,,,,,,,,,,,,,,,,,,,,,,,,,,,,,,,,,,,,,,,,,,,,,,,,,,,,,,,,,,,,,,,,,,,,,,,,,,,,,,,,,,
37131,1650406593.4249961,1650406593.4200199,94.0,0.0,4287.179688,4495.897461,4290.769043,4289.743652,4323.077147999999,450.0,4.0,91.0,,,,0.0,4.0,0.0,0.0,0.0,4.0,0.0,,,,,,,,47.0,0.0,0.657959,0.6035159999999999,0.34863299999999997,-0.285156,0.817884,-0.586435,-0.023926,-0.01764,-0.051235,-0.008183,,,,,,,,,,,,,,,,,,,,,,,,,,,,,,,,,,,,,,,,,,,,,,,,,,,,,,,,,,,,,,,,,
37132,1650406593.43281,1650406593.427935,95.0,0.0,4401.025879,3681.025635,4262.05127,4278.974121,4180.0,16183.0,4.0,91.0,,,,0.0,4.0,0.0,0.0,0.0,4.0,0.0,,,,,,,,,,,,,,,,,,,,,,,,,,,,,,,,,,,,,,,,,,,,,,,,,,,,,,,,,,,,,,,,,,,,,,,,,,,,,,,,,,,,
37133,1650406593.440625,1650406593.435749,96.0,0.0,4411.282227000001,4385.128418,4081.538574,4282.563965,4260.0,450.0,4.0,91.0,,,,0.0,4.0,0.0,0.0,0.0,4.0,0.0,,,,,,,,48.0,0.0,0.657959,0.6035159999999999,0.34863299999999997,-0.285156,0.814954,-0.600107,-0.028808999999999998,-0.018122,-0.051189,-0.009757,,,,,,,,,,,,,,,,,,,,,,,,,,,,,,,,,,,0.0,0.0,1.0,0.0,512.0,1.0,,,,,,,,,,,,,,,,,,,,,,,,,
37134,1650406593.44844,1650406593.443664,97.0,0.0,4308.717772999999,5301.025879,4104.615234000001,4286.153809,4396.922852000001,450.0,4.0,91.0,,,,0.0,4.0,0.0,0.0,0.0,4.0,0.0,,,,,,,,,,,,,,,,,,,,,,,,,,,,,,,,,,,,,,,,,,,,,,,,,,,,,,,,,,,,,,,,,,,,,,,,,,,,,,,,,,,,
37135,1650406593.456254,1650406593.451479,98.0,0.0,4289.230957,4916.922852000001,4208.205078,4285.641113000001,4349.230957,450.0,4.0,91.0,,,,0.0,4.0,0.0,0.0,0.0,4.0,0.0,,,,,,,,49.0,0.0,0.6577350000000001,0.6037600000000001,0.34863299999999997,-0.285156,0.811048,-0.572274,-0.021973,-0.018459,-0.051198,-0.011174,,,,,,,,,,,,,,,,,,,,,,,,,,,,,,,,,,,,,,,,,,,,,,,,,,,,,,,,,,,,,,,,,
37136,1650406593.464069,1650406593.459293,99.0,0.0,4297.94873,4250.769043,4194.871582,4297.94873,4193.333496,16183.0,4.0,91.0,,,,0.0,4.0,0.0,0.0,0.0,4.0,0.0,,,,,,,,,,,,,,,,,,,,,,,,,,,,,,,,,,,,,,,,,,,,,,,,,,,,,,,,,,,,,,,,,,,,,,,,,,,,,,,,,,,,
37137,1650406593.471883,1650406593.467208,100.0,0.0,4326.666504,4320.512695,4196.922852000001,4300.512695,4189.230957,450.0,4.0,91.0,,,,0.0,4.0,0.0,0.0,0.0,4.0,0.0,,,,,,,,50.0,0.0,0.657629,0.6037600000000001,0.34863299999999997,-0.2854,0.806653,-0.598154,-0.024413999999999998,-0.01881,-0.051156,-0.009422,1.0,0.0,0.0,,,,,,,,,,,,,,,,,,,,,,,,,,,,,,,,0.0,0.0,1.0,0.0,512.0,1.0,190.463089,7.637678999999999,8.08509,81.203171,45.554184,246.902954,166.851456,110.919113,2053.665039,2186.073486,87.84581,113.427299,39.753665999999996,152.976089,218.23167400000003,0.511609,0.305203,0.09138500000000001,0.9726100000000001,0.84814,108.596092,14.120435999999998,1.686263,61.084911,45.573204
37138,1650406593.479698,1650406593.475022,101.0,0.0,4416.410156,4369.743652,4321.025879,4274.871582,4246.153809,450.0,4.0,91.0,,,,0.0,4.0,0.0,0.0,0.0,4.0,0.0,,,,,,,,,,,,,,,,,,,,,,,,,,,,,,,,,,,,,,,,,,,,,,,,,,,,,,,,,,,,,,,,,,,,,,,,,,,,,,,,,,,,
37139,1650406593.4875119,1650406593.4829369,102.0,0.0,4460.512695,4288.205078,4280.0,4268.205078,4273.333496,450.0,4.0,91.0,,,,0.0,4.0,0.0,0.0,0.0,4.0,0.0,,,,,,,,51.0,0.0,0.657629,0.6037600000000001,0.34863299999999997,-0.2854,0.810559,-0.591318,-0.025879000000000003,-0.019224,-0.051216,-0.010873,,,,,,,,,,,,,,,,,,,,,,,,,,,,,,,,,,,,,,,,,,,,,,,,,,,,,,,,,,,,,,,,,
37140,1650406593.495327,1650406593.490752,103.0,0.0,4340.0,4674.871582,4171.794922,4292.307617,4320.512695,16183.0,4.0,91.0,,,,0.0,4.0,0.0,0.0,0.0,4.0,0.0,,,,,,,,,,,,,,,,,,,,,,,,,,,,,,,,,,,,,,,,,,,,,,,,,,,,,,,,,,,,,,,,,,,,,,,,,,,,,,,,,,,,
37141,1650406593.503141,1650406593.498666,104.0,0.0,4265.641113000001,4822.05127,4237.94873,4298.974121,4348.717772999999,450.0,4.0,91.0,,,,0.0,4.0,0.0,0.0,0.0,4.0,0.0,,,,,,,,52.0,0.0,0.657629,0.6037600000000001,0.34863299999999997,-0.2854,0.803235,-0.607919,-0.02002,-0.018034,-0.051173,-0.012276,,,,,,,,,,,,,,,,,,,,,,,,,,,,,,,,,,,0.0,0.0,1.0,0.0,512.0,1.0,,,,,,,,,,,,,,,,,,,,,,,,,
37142,1650406593.510956,1650406593.5064812,105.0,0.0,4350.256348,4065.1281740000004,4333.846191,4285.128418,4262.563965,450.0,4.0,91.0,,,,0.0,4.0,0.0,0.0,0.0,4.0,0.0,,,,,,,,,,,,,,,,,,,,,,,,,,,,,,,,,,,,,,,,,,,,,,,,,,,,,,,,,,,,,,,,,,,,,,,,,,,,,,,,,,,,
37143,1650406593.51877,1650406593.514395,106.0,0.0,4428.205078,3669.2307130000004,4305.128418,4282.563965,4228.205078,450.0,4.0,91.0,,,,0.0,4.0,0.0,0.0,0.0,4.0,0.0,,,,,,,,53.0,0.0,0.657758,0.6037600000000001,0.348389,-0.2854,0.814954,-0.604013,-0.025391,-0.018574,-0.051085000000000005,-0.010413,,,,,,,,,,,,,,,,,,,,,,,,,,,,,,,,,,,,,,,,,,,,,,,,,,,,,,,,,,,,,,,,,
37144,1650406593.5265849,1650406593.52221,107.0,0.0,4356.410156,4617.94873,4222.563965,4287.179688,4338.461426,16183.0,4.0,91.0,,,,0.0,4.0,0.0,0.0,0.0,4.0,0.0,,,,,,,,,,,,,,,,,,,,,,,,,,,,,,,,,,,,,,,,,,,,,,,,,,,,,,,,,,,,,,,,,,,,,,,,,,,,,,,,,,,,
37145,1650406593.534399,1650406593.530124,108.0,0.0,4276.922852000001,5413.333496,4220.512695,4287.179688,4425.128418,450.0,4.0,91.0,,,,0.0,4.0,0.0,0.0,0.0,4.0,0.0,,,,,,,,54.0,0.0,0.657758,0.6037600000000001,0.348389,-0.2854,0.8115359999999999,-0.600595,-0.038087,-0.018914,-0.051055,-0.008639,,,,,,,,,,,,,,,,,,,,,,,,,,,,,,,,,,,0.0,0.0,1.0,0.0,512.0,1.0,,,,,,,,,,,,,,,,,,,,,,,,,
37146,1650406593.5422142,1650406593.537939,109.0,0.0,4316.410156,4569.230957,4220.512695,4285.128418,4325.128418,450.0,4.0,91.0,,,,0.0,4.0,0.0,0.0,0.0,4.0,0.0,,,,,,,,,,,,,,,,,,,,,,,,,,,,,,,,,,,,,,,,,,,,,,,,,,,,,,,,,,,,,,,,,,,,,,,,,,,,,,,,,,,,
37147,1650406593.5500278,1650406593.5458539,110.0,0.0,4332.307617,3626.6667479999996,4222.563965,4285.128418,4147.692383,450.0,4.0,91.0,,,,0.0,4.0,0.0,0.0,0.0,4.0,0.0,,,,,,,,55.0,0.0,0.65764,0.604004,0.348389,-0.285156,0.812512,-0.587411,-0.037110000000000004,-0.017755,-0.051026999999999996,-0.010168,,,,,,,,,,,,,,,,,,,,,,,,,,,,,,,,,,,,,,,,,,,,,,,,,,,,,,,,,,,,,,,,,
37148,1650406593.557843,1650406593.553668,111.0,0.0,4331.282227000001,4342.563965,4216.410156,4283.077147999999,4180.0,16183.0,4.0,91.0,,,,0.0,4.0,0.0,0.0,0.0,4.0,0.0,,,,,,,,,,,,,,,,,,,,,,,,,,,,,,,,,,,,,,,,,,,,,,,,,,,,,,,,,,,,,,,,,,,,,,,,,,,,,,,,,,,,
37149,1650406593.565658,1650406593.561483,112.0,0.0,4432.820313,5195.384765999999,4208.717772999999,4276.922852000001,4356.922852000001,450.0,4.0,91.0,,,,0.0,4.0,0.0,0.0,0.0,4.0,0.0,,,,,,,,56.0,0.0,0.6575340000000001,0.604004,0.348389,-0.2854,0.8076300000000001,-0.6049899999999999,-0.029786,-0.018177000000000002,-0.0511,-0.011593000000000001,,,,,,,,,,,,,,,,,,,,,,,,,,,,,,,,,,,0.0,0.0,1.0,0.0,512.0,1.0,,,,,,,,,,,,,,,,,,,,,,,,,
37150,1650406593.573472,1650406593.569397,113.0,0.0,4446.666504,4837.436035,4091.794922,4280.512695,4363.589844,450.0,4.0,91.0,,,,0.0,4.0,0.0,0.0,0.0,4.0,0.0,,,,,,,,,,,,,,,,,,,,,,,,,,,,,,,,,,,,,,,,,,,,,,,,,,,,,,,,,,,,,,,,,,,,,,,,,,,,,,,,,,,,
37151,1650406593.581287,1650406593.577312,114.0,0.0,4249.230957,4544.615234000001,4122.563965,4295.897461,4224.615234000001,450.0,4.0,91.0,,,,0.0,4.0,0.0,0.0,0.0,4.0,0.0,,,,,,,,57.0,0.0,0.6575340000000001,0.604004,0.348389,-0.2854,0.81593,-0.605966,-0.023438,-0.018508,-0.051117,-0.012875,,,,,,,,,,,,,,,,,,,,,,,,,,,,,,,,,,,,,,,,,,,,,,,,,,,,,,,,,,,,,,,,,
37152,1650406593.589101,1650406593.585126,115.0,0.0,4219.487305,4512.307617,4347.179688,4295.897461,4220.0,16183.0,4.0,91.0,,,,0.0,4.0,0.0,0.0,0.0,4.0,0.0,,,,,,,,,,,,,,,,,,,,,,,,,,,,,,,,,,,,,,,,,,,,,,,,,,,,,,,,,,,,,,,,,,,,,,,,,,,,,,,,,,,,
37153,1650406593.596916,1650406593.593041,116.0,0.0,4420.512695,3935.384521,4431.282227000001,4277.436035,4264.102539,450.0,4.0,91.0,,,,0.0,4.0,0.0,0.0,0.0,4.0,0.0,,,,,,,,58.0,0.0,0.6573100000000001,0.604248,0.348389,-0.2854,0.800793,-0.6049899999999999,-0.024903,-0.018854,-0.051084,-0.010953000000000001,1.0,0.0,0.0,,,,,,,,,,,,,,,,,,,,,,,,,,,,,,,,0.0,0.0,1.0,0.0,512.0,1.0,107.63951899999999,6.142695,7.273302,69.345886,52.736565,222.060089,166.880463,104.68490600000001,1761.1468510000002,2702.232422,85.92173000000001,87.17482,31.767965000000004,141.49563600000002,252.43432599999997,0.366823,0.21605,0.078913,0.864066,0.9741629999999999,63.548576000000004,12.706517999999999,1.877764,52.128921999999996,56.803093000000004
37154,1650406593.6047301,1650406593.600956,117.0,0.0,4473.333496,3913.8461909999996,4264.615234000001,4275.897461,4280.512695,450.0,4.0,91.0,,,,0.0,4.0,0.0,0.0,0.0,4.0,0.0,,,,,,,,,,,,,,,,,,,,,,,,,,,,,,,,,,,,,,,,,,,,,,,,,,,,,,,,,,,,,,,,,,,,,,,,,,,,,,,,,,,,
37155,1650406593.612545,1650406593.60877,118.0,0.0,4291.282227000001,4878.461426,4229.230957,4288.205078,4340.512695,450.0,4.0,91.0,,,,0.0,4.0,0.0,0.0,0.0,4.0,0.0,,,,,,,,59.0,0.0,0.65718,0.604248,0.34863299999999997,-0.2854,0.814466,-0.5947359999999999,-0.025391,-0.017653,-0.051102999999999996,-0.012395999999999999,,,,,,,,,,,,,,,,,,,,,,,,,,,,,,,,,,,,,,,,,,,,,,,,,,,,,,,,,,,,,,,,,
37156,1650406593.620359,1650406593.616585,119.0,0.0,4208.717772999999,5054.871582,4264.102539,4290.769043,4363.589844,16183.0,4.0,91.0,,,,0.0,4.0,0.0,0.0,0.0,4.0,0.0,,,,,,,,,,,,,,,,,,,,,,,,,,,,,,,,,,,,,,,,,,,,,,,,,,,,,,,,,,,,,,,,,,,,,,,,,,,,,,,,,,,,
37157,1650406593.628174,1650406593.624499,120.0,0.0,4317.94873,4093.8461909999996,4207.692383,4290.256348,4256.922852000001,450.0,4.0,91.0,,,,0.0,4.0,0.0,0.0,0.0,4.0,0.0,,,,,,,,60.0,0.0,0.65718,0.604248,0.34863299999999997,-0.2854,0.8095829999999999,-0.605478,-0.034668,-0.016472999999999998,-0.051168,-0.013549,,,,,,,,,,,,,,,,,,,,,,,,,,,,,,,,,,,0.0,0.0,1.0,0.0,512.0,1.0,,,,,,,,,,,,,,,,,,,,,,,,,
37158,1650406593.635988,1650406593.632314,121.0,0.0,4410.256348,3805.1281740000004,4226.666504,4291.282227000001,4231.282227000001,450.0,4.0,91.0,,,,0.0,4.0,0.0,0.0,0.0,4.0,0.0,,,,,,,,,,,,,,,,,,,,,,,,,,,,,,,,,,,,,,,,,,,,,,,,,,,,,,,,,,,,,,,,,,,,,,,,,,,,,,,,,,,,
37159,1650406593.643803,1650406593.640229,122.0,0.0,4329.230957,4782.05127,4260.0,4285.128418,4334.358886999999,450.0,4.0,91.0,,,,0.0,4.0,0.0,0.0,0.0,4.0,0.0,,,,,,,,61.0,0.0,0.6573100000000001,0.604248,0.348389,-0.2854,0.800793,-0.6049899999999999,-0.024903,-0.015509,-0.051081,-0.014734,,,,,,,,,,,,,,,,,,,,,,,,,,,,,,,,,,,,,,,,,,,,,,,,,,,,,,,,,,,,,,,,,
37160,1650406593.651617,1650406593.648043,123.0,0.0,4240.0,5400.0,4177.94873,4282.563965,4388.205078,16183.0,4.0,91.0,,,,0.0,4.0,0.0,0.0,0.0,4.0,0.0,,,,,,,,,,,,,,,,,,,,,,,,,,,,,,,,,,,,,,,,,,,,,,,,,,,,,,,,,,,,,,,,,,,,,,,,,,,,,,,,,,,,
37161,1650406593.659432,1650406593.655958,124.0,0.0,4281.538574,4547.692383,4174.358886999999,4288.205078,4291.282227000001,450.0,4.0,91.0,,,,0.0,4.0,0.0,0.0,0.0,4.0,0.0,,,,,,,,62.0,0.0,0.65718,0.604248,0.34863299999999997,-0.2854,0.8095829999999999,-0.605478,-0.034668,-0.014544,-0.051149,-0.015653,,,,,,,,,,,,,,,,,,,,,,,,,,,,,,,,,,,0.0,0.0,1.0,0.0,512.0,1.0,,,,,,,,,,,,,,,,,,,,,,,,,
37162,1650406593.667247,1650406593.663772,125.0,0.0,4369.743652,3667.6923829999996,4261.025879,4285.641113000001,4165.128418,450.0,4.0,91.0,,,,0.0,4.0,0.0,0.0,0.0,4.0,0.0,,,,,,,,,,,,,,,,,,,,,,,,,,,,,,,,,,,,,,,,,,,,,,,,,,,,,,,,,,,,,,,,,,,,,,,,,,,,,,,,,,,,
37163,1650406593.675061,1650406593.671687,126.0,0.0,4384.615234000001,4412.307617,4178.974121,4280.512695,4240.0,450.0,4.0,91.0,,,,0.0,4.0,0.0,0.0,0.0,4.0,0.0,,,,,,,,63.0,0.0,0.657204,0.604248,0.348389,-0.285645,0.800305,-0.601083,-0.031738999999999996,-0.015385,-0.051112,-0.016578,,,,,,,,,,,,,,,,,,,,,,,,,,,,,,,,,,,,,,,,,,,,,,,,,,,,,,,,,,,,,,,,,
37164,1650406593.6828759,1650406593.679502,127.0,0.0,4307.692383,5480.0,4201.025879,4283.077147999999,4397.94873,242.0,4.0,91.0,,,,0.0,4.0,0.0,0.0,0.0,4.0,0.0,,,,,,,,,,,,,,,,,,,,,,,,,,,,,,,,,,,,,,,,,,,,,,,,,,,,,,,,,,,,,,,,,,,,,,,,,,,,,,,,,,,,
37165,1650406593.69069,1650406593.687416,0.0,0.0,4280.512695,4876.410156,4310.256348,4285.128418,4351.794922,450.0,4.0,91.0,,,,0.0,4.0,0.0,0.0,0.0,4.0,0.0,,,,,,,,0.0,0.0,0.657204,0.604248,0.348389,-0.285645,0.796887,-0.609384,-0.024903,-0.014481,-0.051079,-0.01741,,,,,,,,,,,,,,,,,,,,,,,,,,,,,,,,,,,0.0,0.0,1.0,0.0,512.0,1.0,,,,,,,,,,,,,,,,,,,,,,,,,
37166,1650406593.6985052,1650406593.695231,1.0,0.0,4333.333496,3719.487061,4248.717772999999,4287.179688,4196.410156,450.0,4.0,91.0,,,,0.0,4.0,0.0,0.0,0.0,4.0,0.0,,,,,,,,,,,,,,,,,,,,,,,,,,,,,,,,,,,,,,,,,,,,,,,,,,,,,,,,,,,,,,,,,,,,,,,,,,,,,,,,,,,,
37167,1650406593.7063189,1650406593.703145,2.0,0.0,4405.641113000001,3905.1281740000004,4157.436035,4285.128418,4210.769043,16225.0,4.0,91.0,,,,0.0,4.0,0.0,0.0,0.0,4.0,0.0,,,,,,,,1.0,0.0,0.657204,0.604248,0.348389,-0.285645,0.8076300000000001,-0.600595,-0.02295,-0.01523,-0.051,-0.014888,,,,,,,,,,,,,,,,,,,,,,,,,,,,,,,,,,,,,,,,,,,,,,,,,,,,,,,,,,,,,,,,,
37168,1650406593.714134,1650406593.71106,3.0,0.0,4461.538574,4539.487305,4250.256348,4273.333496,4278.974121,450.0,4.0,91.0,,,,0.0,4.0,0.0,0.0,0.0,4.0,0.0,,,,,,,,,,,,,,,,,,,,,,,,,,,,,,,,,,,,,,,,,,,,,,,,,,,,,,,,,,,,,,,,,,,,,,,,,,,,,,,,,,,,
37169,1650406593.7219481,1650406593.718875,4.0,0.0,4442.05127,4530.256348,4247.692383,4273.333496,4283.077147999999,12.0,4.0,91.0,,,,0.0,4.0,0.0,0.0,0.0,4.0,0.0,1.0,0.0,0.0,0.0,0.0,0.0,0.0,2.0,0.0,0.657098,0.604248,0.348389,-0.285889,0.810559,-0.590829,-0.029786,-0.015856,-0.05093,-0.01589,1.0,0.0,0.0,,,,,,,,,,,,,,,,,,,,,,,,,,,,,,,,0.0,0.0,1.0,0.0,512.0,1.0,53.325565000000005,5.304709,6.361754,52.604668000000004,59.877678,197.647064,154.435806,97.868988,1374.869263,3304.883057,82.465889,62.748592,26.864867999999998,129.01622,277.885712,0.272185,0.155323,0.071362,0.715543,1.097291,31.591753000000004,11.250772,2.146958,40.644581,69.28273
37170,1650406593.729763,1650406593.726689,5.0,0.0,4296.410156,4680.0,4200.0,4288.717772999999,4309.743652,450.0,4.0,91.0,,,,0.0,4.0,0.0,0.0,0.0,4.0,0.0,,,,,,,,,,,,,,,,,,,,,,,,,,,,,,,,,,,,,,,,,,,,,,,,,,,,,,,,,,,,,,,,,,,,,,,,,,,,,,,,,,,,
37171,1650406593.737577,1650406593.734603,6.0,0.0,4254.871582,4825.641113000001,4298.461426,4292.820313,4347.692383,0.0,4.0,91.0,,,,0.0,4.0,0.0,0.0,0.0,4.0,0.0,,,,,,,,3.0,0.0,0.657098,0.604248,0.348389,-0.285889,0.810559,-0.5888760000000001,-0.020508000000000002,-0.016516,-0.050866,-0.016791,,,,,,,,,,,,,,,,,,,,,,,,,,,,,,,,,,,,,,,,,,,,,,,,,,,,,,,,,,,,,,,,,
37172,1650406593.745392,1650406593.742518,7.0,0.0,4345.641113000001,4139.487305,4391.282227000001,4283.077147999999,4239.487305,450.0,4.0,91.0,,,,0.0,4.0,0.0,0.0,0.0,4.0,0.0,,,,,,,,,,,,,,,,,,,,,,,,,,,,,,,,,,,,,,,,,,,,,,,,,,,,,,,,,,,,,,,,,,,,,,,,,,,,,,,,,,,,
37173,1650406593.753206,1650406593.750333,8.0,0.0,4356.410156,3888.718018,4292.307617,4281.538574,4167.692383,450.0,4.0,91.0,,,,0.0,4.0,0.0,0.0,0.0,4.0,0.0,,,,,,,,4.0,0.0,0.657098,0.604248,0.348389,-0.285889,0.809094,-0.5927819999999999,-0.022461000000000002,-0.017062,-0.050907,-0.014428,,,,,,,,,,,,,,,,,,,,,,,,,,,,,,,,,,,0.0,0.0,1.0,0.0,512.0,1.0,,,,,,,,,,,,,,,,,,,,,,,,,
37174,1650406593.7610211,1650406593.7582471,9.0,0.0,4287.179688,4921.538574,4155.897461,4283.589844,4309.230957,0.0,4.0,91.0,,,,0.0,4.0,0.0,0.0,0.0,4.0,0.0,,,,,,,,,,,,,,,,,,,,,,,,,,,,,,,,,,,,,,,,,,,,,,,,,,,,,,,,,,,,,,,,,,,,,,,,,,,,,,,,,,,,
37175,1650406593.768836,1650406593.766062,10.0,0.0,4266.666504,5382.05127,4145.128418,4284.102539,4418.461426,450.0,4.0,91.0,,,,0.0,4.0,0.0,0.0,0.0,4.0,0.0,,,,,,,,5.0,0.0,0.6568729999999999,0.604492,0.348389,-0.285889,0.8047,-0.592294,-0.03418,-0.017553,-0.050943,-0.012399,,,,,,,,,,,,,,,,,,,,,,,,,,,,,,,,,,,,,,,,,,,,,,,,,,,,,,,,,,,,,,,,,
37176,1650406593.77665,1650406593.773976,11.0,0.0,4275.384765999999,4413.333496,4227.179688,4287.692383,4258.974121,16208.0,4.0,91.0,,,,0.0,4.0,0.0,0.0,0.0,4.0,0.0,,,,,,,,,,,,,,,,,,,,,,,,,,,,,,,,,,,,,,,,,,,,,,,,,,,,,,,,,,,,,,,,,,,,,,,,,,,,,,,,,,,,
37177,1650406593.784465,1650406593.781791,12.0,0.0,4339.487305,3872.3076170000004,4212.307617,4284.615234000001,4139.487305,450.0,4.0,91.0,,,,0.0,4.0,0.0,0.0,0.0,4.0,0.0,,,,,,,,6.0,0.0,0.6568729999999999,0.604492,0.348389,-0.285889,0.823743,-0.580575,-0.03418,-0.016433,-0.050927,-0.013552000000000002,,,,,,,,,,,,,,,,,,,,,,,,,,,,,,,,,,,0.0,0.0,1.0,0.0,512.0,1.0,,,,,,,,,,,,,,,,,,,,,,,,,
37178,1650406593.792279,1650406593.789706,13.0,0.0,4343.589844,4666.666504,4018.461426,4282.05127,4253.333496,450.0,4.0,91.0,,,,0.0,4.0,0.0,0.0,0.0,4.0,0.0,,,,,,,,,,,,,,,,,,,,,,,,,,,,,,,,,,,,,,,,,,,,,,,,,,,,,,,,,,,,,,,,,,,,,,,,,,,,,,,,,,,,
37179,1650406593.800094,1650406593.79752,14.0,0.0,4216.922852000001,5212.820313,4095.897461,4291.282227000001,4329.230957,450.0,4.0,91.0,,,,0.0,4.0,0.0,0.0,0.0,4.0,0.0,,,,,,,,7.0,0.0,0.6568729999999999,0.604492,0.348389,-0.285889,0.808606,-0.593759,-0.026368,-0.017034999999999998,-0.050961,-0.011512999999999999,,,,,,,,,,,,,,,,,,,,,,,,,,,,,,,,,,,,,,,,,,,,,,,,,,,,,,,,,,,,,,,,,
37180,1650406593.807908,1650406593.805435,15.0,0.0,4211.282227000001,4388.717772999999,4404.102539,4290.256348,4247.179688,16208.0,4.0,91.0,,,,0.0,4.0,0.0,0.0,0.0,4.0,0.0,,,,,,,,,,,,,,,,,,,,,,,,,,,,,,,,,,,,,,,,,,,,,,,,,,,,,,,,,,,,,,,,,,,,,,,,,,,,,,,,,,,,
37181,1650406593.815723,1650406593.813249,16.0,0.0,4383.077147999999,3525.1281740000004,4433.846191,4271.794922,4184.615234000001,0.0,4.0,91.0,,,,0.0,4.0,0.0,0.0,0.0,4.0,0.0,,,,,,,,8.0,0.0,0.6568729999999999,0.604492,0.348389,-0.285889,0.802258,-0.587411,-0.030274000000000002,-0.017529,-0.050992,-0.009776,,,,,,,,,,,,,,,,,,,,,,,,,,,,,,,,,,,0.0,0.0,1.0,0.0,512.0,1.0,,,,,,,,,,,,,,,,,,,,,,,,,
37182,1650406593.8235369,1650406593.8211641,17.0,0.0,4440.512695,4101.538574,4120.512695,4273.333496,4271.282227000001,0.0,4.0,91.0,,,,0.0,4.0,0.0,0.0,0.0,4.0,0.0,,,,,,,,,,,,,,,,,,,,,,,,,,,,,,,,,,,,,,,,,,,,,,,,,,,,,,,,,,,,,,,,,,,,,,,,,,,,,,,,,,,,
37183,1650406593.831352,1650406593.828979,18.0,0.0,4282.563965,5169.743652,4091.794922,4291.794922,4349.743652,0.0,4.0,91.0,,,,0.0,4.0,0.0,0.0,0.0,4.0,0.0,,,,,,,,9.0,0.0,0.6570020000000001,0.604492,0.348145,-0.285889,0.805188,-0.601572,-0.03418,-0.018022,-0.051068999999999996,-0.008017,,,,,,,,,,,,,,,,,,,,,,,,,,,,,,,,,,,,,,,,,,,,,,,,,,,,,,,,,,,,,,,,,
37184,1650406593.839166,1650406593.836893,19.0,0.0,4234.358886999999,4862.05127,4333.333496,4290.256348,4305.641113000001,0.0,4.0,91.0,,,,0.0,4.0,0.0,0.0,0.0,4.0,0.0,,,,,,,,,,,,,,,,,,,,,,,,,,,,,,,,,,,,,,,,,,,,,,,,,,,,,,,,,,,,,,,,,,,,,,,,,,,,,,,,,,,,
37185,1650406593.846981,1650406593.844708,20.0,0.0,4356.410156,3754.358887,4421.025879,4273.846191,4186.666504,0.0,4.0,91.0,,,,0.0,4.0,0.0,0.0,0.0,4.0,0.0,,,,,,,,10.0,0.0,0.6570020000000001,0.604492,0.348145,-0.285889,0.819837,-0.6045010000000001,-0.028321,-0.016953,-0.051039999999999995,-0.009755,1.0,0.0,0.0,,,,,,,,,,,,,,,,,,,,,,,,,,,,,,,,0.0,0.0,1.0,0.0,512.0,1.0,26.966661,4.834091,5.538517,36.420517,65.842712,176.616196,137.09021,90.720665,1020.091614,3885.6054689999996,75.043091,45.007702,24.261264999999998,118.742752,286.027802,0.216741,0.128642,0.067521,0.5801890000000001,1.1772559999999999,14.423448,10.077309,2.468948,30.147932,80.066261
37186,1650406593.854795,1650406593.852622,21.0,0.0,4423.077147999999,3925.641113,4301.025879,4274.871582,4218.461426,0.0,4.0,91.0,,,,0.0,4.0,0.0,0.0,0.0,4.0,0.0,,,,,,,,,,,,,,,,,,,,,,,,,,,,,,,,,,,,,,,,,,,,,,,,,,,,,,,,,,,,,,,,,,,,,,,,,,,,,,,,,,,,
37187,1650406593.8626099,1650406593.8605368,22.0,0.0,4330.256348,5054.358886999999,4231.282227000001,4288.205078,4385.128418,0.0,4.0,91.0,,,,0.0,4.0,0.0,0.0,0.0,4.0,0.0,,,,,,,,11.0,0.0,0.6571319999999999,0.604492,0.3479,-0.285889,0.810071,-0.608896,-0.02295,-0.017455000000000002,-0.051063,-0.01122,,,,,,,,,,,,,,,,,,,,,,,,,,,,,,,,,,,,,,,,,,,,,,,,,,,,,,,,,,,,,,,,,
37188,1650406593.870424,1650406593.868352,23.0,0.0,4280.512695,5047.692383,4313.333496,4291.794922,4412.820313,0.0,4.0,91.0,,,,0.0,4.0,0.0,0.0,0.0,4.0,0.0,,,,,,,,,,,,,,,,,,,,,,,,,,,,,,,,,,,,,,,,,,,,,,,,,,,,,,,,,,,,,,,,,,,,,,,,,,,,,,,,,,,,
37189,1650406593.8782392,1650406593.876266,24.0,0.0,4379.487305,3978.974365,4407.179688,4283.589844,4267.692383,0.0,4.0,91.0,,,,0.0,4.0,0.0,0.0,0.0,4.0,0.0,,,,,,,,12.0,0.0,0.657367,0.604492,0.347656,-0.285645,0.8076300000000001,-0.6030369999999999,-0.021485,-0.017906000000000002,-0.051035000000000004,-0.009464,,,,,,,,,,,,,,,,,,,,,,,,,,,,,,,,,,,0.0,0.0,1.0,0.0,512.0,1.0,,,,,,,,,,,,,,,,,,,,,,,,,
37190,1650406593.8860538,1650406593.8840811,25.0,0.0,4455.897461,3911.794922,4291.794922,4279.487305,4253.846191,0.0,4.0,91.0,,,,0.0,4.0,0.0,0.0,0.0,4.0,0.0,,,,,,,,,,,,,,,,,,,,,,,,,,,,,,,,,,,,,,,,,,,,,,,,,,,,,,,,,,,,,,,,,,,,,,,,,,,,,,,,,,,,
37191,1650406593.893868,1650406593.891995,26.0,0.0,4342.05127,4756.410156,4120.512695,4288.205078,4342.05127,0.0,4.0,91.0,,,,0.0,4.0,0.0,0.0,0.0,4.0,0.0,,,,,,,,13.0,0.0,0.6572720000000001,0.6047359999999999,0.347412,-0.285645,0.811048,-0.587411,-0.029297000000000004,-0.018411,-0.05101,-0.011105,,,,,,,,,,,,,,,,,,,,,,,,,,,,,,,,,,,,,,,,,,,,,,,,,,,,,,,,,,,,,,,,,
37192,1650406593.901683,1650406593.89981,27.0,0.0,4229.230957,4882.563965,4278.974121,4297.436035,4310.256348,0.0,4.0,91.0,,,,0.0,4.0,0.0,0.0,0.0,4.0,0.0,,,,,,,,,,,,,,,,,,,,,,,,,,,,,,,,,,,,,,,,,,,,,,,,,,,,,,,,,,,,,,,,,,,,,,,,,,,,,,,,,,,,
37193,1650406593.909497,1650406593.9077241,28.0,0.0,4338.461426,4574.871582,4479.487305,4286.666504,4257.436035,0.0,4.0,91.0,,,,0.0,4.0,0.0,0.0,0.0,4.0,0.0,,,,,,,,14.0,0.0,0.657165,0.6047359999999999,0.347412,-0.285889,0.8047,-0.602548,-0.024903,-0.018767,-0.051036,-0.012485,,,,,,,,,,,,,,,,,,,,,,,,,,,,,,,,,,,0.0,0.0,1.0,0.0,512.0,1.0,,,,,,,,,,,,,,,,,,,,,,,,,
37194,1650406593.917312,1650406593.915539,29.0,0.0,4493.333496,4706.153809,4238.461426,4269.230957,4311.282227000001,0.0,4.0,91.0,,,,0.0,4.0,0.0,0.0,0.0,4.0,0.0,,,,,,,,,,,,,,,,,,,,,,,,,,,,,,,,,,,,,,,,,,,,,,,,,,,,,,,,,,,,,,,,,,,,,,,,,,,,,,,,,,,,
37195,1650406593.925126,1650406593.9234538,30.0,0.0,4430.256348,4892.820313,3870.256348,4280.0,4335.897461,0.0,4.0,91.0,,,,0.0,4.0,0.0,0.0,0.0,4.0,0.0,,,,,,,,15.0,0.0,0.657165,0.6047359999999999,0.347412,-0.285889,0.8208129999999999,-0.598642,-0.03418,-0.019332,-0.050962,-0.013727000000000001,,,,,,,,,,,,,,,,,,,,,,,,,,,,,,,,,,,,,,,,,,,,,,,,,,,,,,,,,,,,,,,,,
37196,1650406593.932941,1650406593.931268,31.0,0.0,4261.538574,4741.538574,4003.5898439999996,4301.538574,4283.589844,0.0,4.0,91.0,,,,0.0,4.0,0.0,0.0,0.0,4.0,0.0,,,,,,,,,,,,,,,,,,,,,,,,,,,,,,,,,,,,,,,,,,,,,,,,,,,,,,,,,,,,,,,,,,,,,,,,,,,,,,,,,,,,
37197,1650406593.9407551,1650406593.939183,32.0,0.0,4283.589844,4466.666504,4343.589844,4291.282227000001,4264.615234000001,0.0,4.0,91.0,,,,0.0,4.0,0.0,0.0,0.0,4.0,0.0,,,,,,,,16.0,0.0,0.6573899999999999,0.604492,0.347412,-0.285889,0.8095829999999999,-0.604013,-0.029297000000000004,-0.019596000000000002,-0.050944,-0.011622,,,,,,,,,,,,,,,,,,,,,,,,,,,,,,,,,,,0.0,0.0,1.0,0.0,512.0,1.0,,,,,,,,,,,,,,,,,,,,,,,,,
37198,1650406593.94857,1650406593.9469972,33.0,0.0,4441.025879,4171.794922,4393.333496,4267.692383,4254.871582,0.0,4.0,91.0,,,,0.0,4.0,0.0,0.0,0.0,4.0,0.0,,,,,,,,,,,,,,,,,,,,,,,,,,,,,,,,,,,,,,,,,,,,,,,,,,,,,,,,,,,,,,,,,,,,,,,,,,,,,,,,,,,,
37199,1650406593.956384,1650406593.954912,34.0,0.0,4471.794922,4380.512695,4106.666504,4272.307617,4308.717772999999,0.0,4.0,91.0,,,,0.0,4.0,0.0,0.0,0.0,4.0,0.0,,,,,,,,17.0,0.0,0.6573899999999999,0.604492,0.347412,-0.285889,0.799329,-0.597665,-0.021973,-0.019834,-0.050976,-0.009825,,,,,,,,,,,,,,,,,,,,,,,,,,,,,,,,,,,,,,,,,,,,,,,,,,,,,,,,,,,,,,,,,
37200,1650406593.964199,1650406593.962727,35.0,0.0,4313.846191,5127.179688,4035.384521,4290.769043,4407.692383,0.0,4.0,91.0,,,,0.0,4.0,0.0,0.0,0.0,4.0,0.0,,,,,,,,,,,,,,,,,,,,,,,,,,,,,,,,,,,,,,,,,,,,,,,,,,,,,,,,,,,,,,,,,,,,,,,,,,,,,,,,,,,,
37201,1650406593.972013,1650406593.970641,36.0,0.0,4231.282227000001,4987.692383,4278.461426,4291.282227000001,4363.589844,0.0,4.0,91.0,,,,0.0,4.0,0.0,0.0,0.0,4.0,0.0,,,,,,,,18.0,0.0,0.6573899999999999,0.604492,0.347412,-0.285889,0.814466,-0.600107,-0.032227,-0.020048,-0.051151999999999996,-0.011284,1.0,0.0,0.0,,,,,,,,,,,,,,,,,,,,,,,,,,,,,,,,0.0,0.0,1.0,0.0,512.0,1.0,17.43136,4.586264,4.961041000000001,24.880726,70.17205799999999,160.629196,128.250732,82.039146,780.624451,4362.713379,63.65855,36.119122,23.185833,110.863174,273.875946,0.178634,0.126202,0.065337,0.49069799999999997,1.191786,7.506419,9.636321,2.768055,22.914732,87.359543
37202,1650406593.979828,1650406593.978456,37.0,0.0,4338.461426,3951.281982,4407.179688,4280.0,4202.05127,0.0,4.0,91.0,,,,0.0,4.0,0.0,0.0,0.0,4.0,0.0,,,,,,,,,,,,,,,,,,,,,,,,,,,,,,,,,,,,,,,,,,,,,,,,,,,,,,,,,,,,,,,,,,,,,,,,,,,,,,,,,,,,
37203,1650406593.987643,1650406593.9863698,38.0,0.0,4435.897461,3904.102539,4247.692383,4280.512695,4236.922852000001,0.0,4.0,91.0,,,,0.0,4.0,0.0,0.0,0.0,4.0,0.0,,,,,,,,19.0,0.0,0.657519,0.604492,0.347168,-0.285889,0.8047,-0.6045010000000001,-0.018067,-0.02024,-0.051164,-0.012646,,,,,,,,,,,,,,,,,,,,,,,,,,,,,,,,,,,,,,,,,,,,,,,,,,,,,,,,,,,,,,,,,
37204,1650406593.995457,1650406593.994185,39.0,0.0,4314.358886999999,4947.692383,4165.641113000001,4291.282227000001,4373.333496,0.0,4.0,91.0,,,,0.0,4.0,0.0,0.0,0.0,4.0,0.0,,,,,,,,,,,,,,,,,,,,,,,,,,,,,,,,,,,,,,,,,,,,,,,,,,,,,,,,,,,,,,,,,,,,,,,,,,,,,,,,,,,,
37205,1650406594.003272,1650406594.0021,40.0,0.0,4225.128418,5032.820313,4280.0,4292.820313,4356.410156,0.0,4.0,91.0,,,,0.0,4.0,0.0,0.0,0.0,4.0,0.0,,,,,,,,20.0,0.0,0.657519,0.604492,0.347168,-0.285889,0.817395,-0.604013,-0.036622,-0.020365,-0.051126,-0.010648999999999999,,,,,,,,,,,,,,,,,,,,,,,,,,,,,,,,,,,0.0,0.0,1.0,0.0,512.0,1.0,,,,,,,,,,,,,,,,,,,,,,,,,
37206,1650406594.011086,1650406594.0099142,41.0,0.0,4368.717772999999,3979.487061,4408.205078,4281.025879,4255.897461,0.0,4.0,91.0,,,,0.0,4.0,0.0,0.0,0.0,4.0,0.0,,,,,,,,,,,,,,,,,,,,,,,,,,,,,,,,,,,,,,,,,,,,,,,,,,,,,,,,,,,,,,,,,,,,,,,,,,,,,,,,,,,,
37207,1650406594.0189009,1650406594.017829,42.0,0.0,4482.563965,3764.615479,4373.333496,4274.358886999999,4270.769043,0.0,4.0,91.0,,,,0.0,4.0,0.0,0.0,0.0,4.0,0.0,,,,,,,,21.0,0.0,0.657519,0.604492,0.347168,-0.285889,0.819348,-0.614267,-0.02295,-0.020574000000000002,-0.051091000000000004,-0.012074,,,,,,,,,,,,,,,,,,,,,,,,,,,,,,,,,,,,,,,,,,,,,,,,,,,,,,,,,,,,,,,,,
37208,1650406594.026715,1650406594.025743,43.0,0.0,4331.794922,4713.333496,4203.589844,4284.615234000001,4338.461426,0.0,4.0,91.0,,,,0.0,4.0,0.0,0.0,0.0,4.0,0.0,,,,,,,,,,,,,,,,,,,,,,,,,,,,,,,,,,,,,,,,,,,,,,,,,,,,,,,,,,,,,,,,,,,,,,,,,,,,,,,,,,,,
37209,1650406594.0345302,1650406594.033558,44.0,0.0,4207.179688,5182.563965,4249.743652,4295.384765999999,4348.717772999999,0.0,4.0,91.0,,,,0.0,4.0,0.0,0.0,0.0,4.0,0.0,,,,,,,,22.0,0.0,0.657625,0.604492,0.347168,-0.285645,0.810559,-0.591318,-0.043458,-0.019298,-0.05106,-0.010085,,,,,,,,,,,,,,,,,,,,,,,,,,,,,,,,,,,0.0,0.0,1.0,0.0,512.0,1.0,,,,,,,,,,,,,,,,,,,,,,,,,
37210,1650406594.0423439,1650406594.041472,45.0,0.0,4309.743652,4392.820313,4496.922852000001,4285.641113000001,4278.461426,0.0,4.0,91.0,,,,0.0,4.0,0.0,0.0,0.0,4.0,0.0,,,,,,,,,,,,,,,,,,,,,,,,,,,,,,,,,,,,,,,,,,,,,,,,,,,,,,,,,,,,,,,,,,,,,,,,,,,,,,,,,,,,
37211,1650406594.050159,1650406594.0492868,46.0,0.0,4427.692383,3765.641113,4448.717772999999,4270.256348,4211.794922,0.0,4.0,91.0,,,,0.0,4.0,0.0,0.0,0.0,4.0,0.0,,,,,,,,23.0,0.0,0.657519,0.604492,0.347168,-0.285889,0.7983520000000001,-0.614267,-0.026856,-0.018052000000000002,-0.050983999999999995,-0.011518,,,,,,,,,,,,,,,,,,,,,,,,,,,,,,,,,,,,,,,,,,,,,,,,,,,,,,,,,,,,,,,,,
37212,1650406594.0579731,1650406594.0572019,47.0,0.0,4371.794922,4434.871582,4057.9487299999996,4275.897461,4255.384765999999,0.0,4.0,91.0,,,,0.0,4.0,0.0,0.0,0.0,4.0,0.0,,,,,,,,,,,,,,,,,,,,,,,,,,,,,,,,,,,,,,,,,,,,,,,,,,,,,,,,,,,,,,,,,,,,,,,,,,,,,,,,,,,,
37213,1650406594.065788,1650406594.065016,48.0,0.0,4233.333496,5227.692383,4069.2307130000004,4295.384765999999,4343.589844,0.0,4.0,91.0,,,,0.0,4.0,0.0,0.0,0.0,4.0,0.0,,,,,,,,24.0,0.0,0.657648,0.604492,0.34692399999999995,-0.285889,0.817884,-0.5888760000000001,-0.025391,-0.016978999999999998,-0.050963999999999995,-0.012808000000000002,,,,,,,,,,,,,,,,,,,,,,,,,,,,,,,,,,,0.0,0.0,1.0,0.0,512.0,1.0,,,,,,,,,,,,,,,,,,,,,,,,,
37214,1650406594.073602,1650406594.072931,49.0,0.0,4265.641113000001,4821.025879,4444.102539,4292.307617,4357.436035,0.0,4.0,91.0,,,,0.0,4.0,0.0,0.0,0.0,4.0,0.0,,,,,,,,,,,,,,,,,,,,,,,,,,,,,,,,,,,,,,,,,,,,,,,,,,,,,,,,,,,,,,,,,,,,,,,,,,,,,,,,,,,,
37215,1650406594.081417,1650406594.0807462,50.0,0.0,4413.846191,3965.641113,4494.871582,4271.282227000001,4251.282227000001,0.0,4.0,91.0,,,,0.0,4.0,0.0,0.0,0.0,4.0,0.0,,,,,,,,25.0,0.0,0.657625,0.604492,0.347168,-0.285645,0.810559,-0.591318,-0.043458,-0.017381,-0.051092,-0.010843,,,,,,,,,,,,,,,,,,,,,,,,,,,,,,,,,,,,,,,,,,,,,,,,,,,,,,,,,,,,,,,,,
37216,1650406594.089232,1650406594.08866,51.0,0.0,4445.128418,4223.077147999999,4101.025879,4271.282227000001,4242.05127,0.0,4.0,91.0,,,,0.0,4.0,0.0,0.0,0.0,4.0,0.0,,,,,,,,,,,,,,,,,,,,,,,,,,,,,,,,,,,,,,,,,,,,,,,,,,,,,,,,,,,,,,,,,,,,,,,,,,,,,,,,,,,,
37217,1650406594.0970461,1650406594.096475,52.0,0.0,4304.102539,5194.871582,4008.718018,4289.743652,4372.820313,0.0,4.0,91.0,,,,0.0,4.0,0.0,0.0,0.0,4.0,0.0,,,,,,,,26.0,0.0,0.657648,0.604492,0.34692399999999995,-0.285889,0.817884,-0.5888760000000001,-0.025391,-0.016375,-0.051061,-0.012201,1.0,0.0,0.0,,,,,,,,,,,,,,,,,,,,,,,,,,,,,,,,0.0,0.0,1.0,0.0,512.0,1.0,13.758828,4.762365,4.763708,19.422441,72.989456,150.503876,141.390839,73.39978,674.130005,4699.052734000001,51.685696,35.318042999999996,23.300507,103.91020999999999,245.178238,0.148509,0.129838,0.06298200000000001,0.44973900000000006,1.142164,5.298229,10.173207000000001,2.96687,19.375322,90.90430500000001
37218,1650406594.104861,1650406594.104389,53.0,0.0,4272.307617,5080.512695,4320.512695,4294.358886999999,4407.179688,0.0,4.0,91.0,,,,0.0,4.0,0.0,0.0,0.0,4.0,0.0,,,,,,,,,,,,,,,,,,,,,,,,,,,,,,,,,,,,,,,,,,,,,,,,,,,,,,,,,,,,,,,,,,,,,,,,,,,,,,,,,,,,
37219,1650406594.112675,1650406594.1122038,54.0,0.0,4395.897461,4078.974365,4458.974121,4276.922852000001,4265.641113000001,0.0,4.0,91.0,,,,0.0,4.0,0.0,0.0,0.0,4.0,0.0,,,,,,,,27.0,0.0,0.657423,0.6047359999999999,0.34692399999999995,-0.285889,0.794934,-0.59913,-0.029786,-0.016984,-0.050983999999999995,-0.013519999999999999,,,,,,,,,,,,,,,,,,,,,,,,,,,,,,,,,,,,,,,,,,,,,,,,,,,,,,,,,,,,,,,,,
37220,1650406594.12049,1650406594.120019,55.0,0.0,4440.512695,4022.5642090000006,4267.692383,4271.282227000001,4232.820313,0.0,4.0,91.0,,,,0.0,4.0,0.0,0.0,0.0,4.0,0.0,,,,,,,,,,,,,,,,,,,,,,,,,,,,,,,,,,,,,,,,,,,,,,,,,,,,,,,,,,,,,,,,,,,,,,,,,,,,,,,,,,,,
37221,1650406594.128304,1650406594.127933,56.0,0.0,4298.461426,4887.179688,4153.846191,4286.666504,4320.0,0.0,4.0,91.0,,,,0.0,4.0,0.0,0.0,0.0,4.0,0.0,,,,,,,,28.0,0.0,0.657317,0.6047359999999999,0.34692399999999995,-0.28613299999999997,0.8061649999999999,-0.601083,-0.032227,-0.015823,-0.050963999999999995,-0.01456,,,,,,,,,,,,,,,,,,,,,,,,,,,,,,,,,,,0.0,0.0,1.0,0.0,512.0,1.0,,,,,,,,,,,,,,,,,,,,,,,,,
37222,1650406594.136119,1650406594.135847,57.0,0.0,4211.282227000001,4953.333496,4289.743652,4295.384765999999,4305.641113000001,0.0,4.0,91.0,,,,0.0,4.0,0.0,0.0,0.0,4.0,0.0,,,,,,,,,,,,,,,,,,,,,,,,,,,,,,,,,,,,,,,,,,,,,,,,,,,,,,,,,,,,,,,,,,,,,,,,,,,,,,,,,,,,
37223,1650406594.143933,1650406594.143662,58.0,0.0,4345.128418,4098.974121,4417.436035,4282.563965,4222.563965,0.0,4.0,91.0,,,,0.0,4.0,0.0,0.0,0.0,4.0,0.0,,,,,,,,29.0,0.0,0.657317,0.6047359999999999,0.34692399999999995,-0.28613299999999997,0.8095829999999999,-0.591318,-0.030274000000000002,-0.016486,-0.050946,-0.012372,,,,,,,,,,,,,,,,,,,,,,,,,,,,,,,,,,,,,,,,,,,,,,,,,,,,,,,,,,,,,,,,,
37224,1650406594.151748,1650406594.151577,59.0,0.0,4484.615234000001,3930.256348,4354.358886999999,4271.794922,4254.358886999999,0.0,4.0,91.0,,,,0.0,4.0,0.0,0.0,0.0,4.0,0.0,,,,,,,,,,,,,,,,,,,,,,,,,,,,,,,,,,,,,,,,,,,,,,,,,,,,,,,,,,,,,,,,,,,,,,,,,,,,,,,,,,,,
37225,1650406594.1595619,1650406594.159391,60.0,0.0,4375.897461,4766.153809,4203.589844,4282.563965,4343.077147999999,0.0,4.0,91.0,,,,0.0,4.0,0.0,0.0,0.0,4.0,0.0,,,,,,,,30.0,0.0,0.657211,0.6047359999999999,0.34692399999999995,-0.286377,0.809094,-0.601083,-0.025879000000000003,-0.017034999999999998,-0.050881,-0.013478,,,,,,,,,,,,,,,,,,,,,,,,,,,,,,,,,,,0.0,0.0,1.0,0.0,512.0,1.0,,,,,,,,,,,,,,,,,,,,,,,,,
37226,1650406594.167377,1650406594.167306,61.0,0.0,4222.05127,5173.846191,4258.974121,4295.384765999999,4349.743652,0.0,4.0,91.0,,,,0.0,4.0,0.0,0.0,0.0,4.0,0.0,,,,,,,,,,,,,,,,,,,,,,,,,,,,,,,,,,,,,,,,,,,,,,,,,,,,,,,,,,,,,,,,,,,,,,,,,,,,,,,,,,,,
37227,1650406594.175191,1650406594.1751199,62.0,0.0,4292.307617,4475.897461,4445.641113000001,4286.153809,4269.230957,0.0,4.0,91.0,,,,0.0,4.0,0.0,0.0,0.0,4.0,0.0,,,,,,,,31.0,0.0,0.657211,0.6047359999999999,0.34692399999999995,-0.286377,0.802258,-0.590341,-0.03125,-0.017431,-0.05092,-0.011447,,,,,,,,,,,,,,,,,,,,,,,,,,,,,,,,,,,,,,,,,,,,,,,,,,,,,,,,,,,,,,,,,
37228,1650406594.183006,1650406594.183035,63.0,0.0,4428.717772999999,3871.794922,4383.077147999999,4268.205078,4198.974121,0.0,4.0,91.0,,,,0.0,4.0,0.0,0.0,0.0,4.0,0.0,,,,,,,,,,,,,,,,,,,,,,,,,,,,,,,,,,,,,,,,,,,,,,,,,,,,,,,,,,,,,,,,,,,,,,,,,,,,,,,,,,,,
37229,1650406594.1908212,1650406594.19085,64.0,0.0,4405.128418,4434.358886999999,4072.3076170000004,4275.897461,4265.128418,450.0,4.0,91.0,,,,0.0,4.0,0.0,0.0,0.0,4.0,0.0,,,,,,,,32.0,0.0,0.657211,0.6047359999999999,0.34692399999999995,-0.286377,0.8095829999999999,-0.590341,-0.021485,-0.017884999999999998,-0.050808,-0.009521,,,,,,,,,,,,,,,,,,,,,,,,,,,,,,,,,,,0.0,0.0,1.0,0.0,512.0,1.0,,,,,,,,,,,,,,,,,,,,,,,,,
37230,1650406594.1986349,1650406594.198764,65.0,0.0,4305.641113000001,5157.436035,4102.563965,4295.384765999999,4385.128418,450.0,4.0,91.0,,,,0.0,4.0,0.0,0.0,0.0,4.0,0.0,,,,,,,,,,,,,,,,,,,,,,,,,,,,,,,,,,,,,,,,,,,,,,,,,,,,,,,,,,,,,,,,,,,,,,,,,,,,,,,,,,,,
37231,1650406594.20645,1650406594.2066789,66.0,0.0,4313.846191,4650.769043,4372.307617,4295.384765999999,4365.641113000001,16199.0,4.0,91.0,,,,0.0,4.0,1.0,0.0,0.0,4.0,8.333333,,,,,,,,33.0,0.0,0.6573289999999999,0.604492,0.34692399999999995,-0.286621,0.8169069999999999,-0.5879,-0.02002,-0.018244999999999997,-0.050854,-0.007983,,,,,,,,,,,,,,,,,,,,,,,,,,,,,,,,,,,,,,,,,,,,,,,,,,,,,,,,,,,,,,,,,
37232,1650406594.2142642,1650406594.214493,67.0,0.0,4360.512695,3818.461426,4440.0,4287.692383,4251.282227000001,450.0,4.0,91.0,,,,0.0,4.0,1.0,0.0,0.0,4.0,8.333333,,,,,,,,,,,,,,,,,,,,,,,,,,,,,,,,,,,,,,,,,,,,,,,,,,,,,,,,,,,,,,,,,,,,,,,,,,,,,,,,,,,,
37233,1650406594.2220788,1650406594.222308,68.0,0.0,4368.717772999999,3816.923096,4320.512695,4287.692383,4236.410156,79.0,4.0,91.0,,,,0.0,4.0,1.0,0.0,0.0,4.0,8.333333,1.0,0.0,0.0,0.0,0.0,0.0,0.0,34.0,0.0,0.6572,0.604492,0.347168,-0.286621,0.815442,-0.61622,-0.025391,-0.017006999999999998,-0.050847,-0.009724,1.0,0.0,0.0,,,,,,,,,,,,,,,,,,,,,,,,,,,,,,,,0.0,0.0,1.0,0.0,512.0,1.0,11.715587,5.459280000000001,4.956966,18.620957999999998,74.84940300000001,152.011002,180.541443,68.600266,659.2506099999999,4888.905761999999,44.22065,39.607224,24.700838,95.486809,209.239059,0.128662,0.128868,0.058539999999999995,0.43616800000000006,1.0514649999999999,4.799107,11.653462,3.087914,18.518734,91.398949
37234,1650406594.229893,1650406594.230223,69.0,0.0,4341.025879,4043.5898439999996,4351.794922,4288.205078,4250.769043,450.0,4.0,91.0,,,,0.0,4.0,1.0,0.0,0.0,4.0,8.333333,,,,,,,,,,,,,,,,,,,,,,,,,,,,,,,,,,,,,,,,,,,,,,,,,,,,,,,,,,,,,,,,,,,,,,,,,,,,,,,,,,,,
37235,1650406594.237708,1650406594.2380369,70.0,0.0,4376.410156,3933.3332520000004,4407.179688,4286.666504,4241.538574,0.0,4.0,91.0,,,,0.0,4.0,1.0,0.0,0.0,4.0,8.333333,,,,,,,,35.0,0.0,0.6572,0.604492,0.347168,-0.286621,0.803235,-0.592294,-0.01709,-0.017503,-0.050743,-0.00797,,,,,,,,,,,,,,,,,,,,,,,,,,,,,,,,,,,,,,,,,,,,,,,,,,,,,,,,,,,,,,,,,
37236,1650406594.245522,1650406594.245952,71.0,0.0,4371.794922,3899.487061,4333.333496,4290.256348,4210.256348,450.0,4.0,91.0,,,,0.0,4.0,1.0,0.0,0.0,4.0,8.333333,,,,,,,,,,,,,,,,,,,,,,,,,,,,,,,,,,,,,,,,,,,,,,,,,,,,,,,,,,,,,,,,,,,,,,,,,,,,,,,,,,,,
37237,1650406594.253337,1650406594.253866,72.0,0.0,4318.461426,4171.282227000001,4351.282227000001,4292.820313,4205.641113000001,450.0,4.0,91.0,,,,0.0,4.0,1.0,0.0,0.0,4.0,8.333333,,,,,,,,36.0,0.0,0.657094,0.604492,0.347168,-0.28686500000000004,0.8061649999999999,-0.593271,-0.037110000000000004,-0.016388,-0.050698,-0.009712,,,,,,,,,,,,,,,,,,,,,,,,,,,,,,,,,,,0.0,0.0,1.0,0.0,512.0,1.0,,,,,,,,,,,,,,,,,,,,,,,,,
37238,1650406594.261151,1650406594.261681,73.0,0.0,4368.717772999999,4490.769043,4466.666504,4279.487305,4229.743652,0.0,4.0,91.0,,,,0.0,4.0,1.0,0.0,0.0,4.0,8.333333,,,,,,,,,,,,,,,,,,,,,,,,,,,,,,,,,,,,,,,,,,,,,,,,,,,,,,,,,,,,,,,,,,,,,,,,,,,,,,,,,,,,
37239,1650406594.268966,1650406594.269595,74.0,0.0,4447.179688,4833.333496,4288.205078,4266.666504,4276.410156,450.0,4.0,91.0,,,,0.0,4.0,1.0,0.0,0.0,4.0,8.333333,,,,,,,,37.0,0.0,0.657094,0.604492,0.347168,-0.28686500000000004,0.822766,-0.595712,-0.033204000000000004,-0.015433,-0.050706,-0.008057,,,,,,,,,,,,,,,,,,,,,,,,,,,,,,,,,,,,,,,,,,,,,,,,,,,,,,,,,,,,,,,,,
37240,1650406594.2767801,1650406594.27741,75.0,0.0,4346.153809,4971.282227000001,3932.820557,4281.025879,4260.0,16268.0,4.0,91.0,,,,0.0,4.0,1.0,0.0,0.0,4.0,8.333333,,,,,,,,,,,,,,,,,,,,,,,,,,,,,,,,,,,,,,,,,,,,,,,,,,,,,,,,,,,,,,,,,,,,,,,,,,,,,,,,,,,,
37241,1650406594.284595,1650406594.285325,76.0,0.0,4229.743652,4860.0,4047.6923829999996,4301.025879,4212.820313,450.0,4.0,91.0,,,,0.0,4.0,1.0,0.0,0.0,4.0,8.333333,,,,,,,,38.0,0.0,0.657094,0.604492,0.347168,-0.28686500000000004,0.814466,-0.589853,-0.033692,-0.014573,-0.050664999999999995,-0.009742,,,,,,,,,,,,,,,,,,,,,,,,,,,,,,,,,,,0.0,0.0,1.0,0.0,512.0,1.0,,,,,,,,,,,,,,,,,,,,,,,,,
37242,1650406594.292409,1650406594.293139,77.0,0.0,4338.974121,4952.307617,4376.410156,4289.230957,4251.794922,450.0,4.0,91.0,,,,0.0,4.0,1.0,0.0,0.0,4.0,8.333333,,,,,,,,,,,,,,,,,,,,,,,,,,,,,,,,,,,,,,,,,,,,,,,,,,,,,,,,,,,,,,,,,,,,,,,,,,,,,,,,,,,,
37243,1650406594.300224,1650406594.301054,78.0,0.0,4457.94873,5174.358886999999,4298.974121,4269.230957,4317.436035,450.0,4.0,91.0,,,,0.0,4.0,1.0,0.0,0.0,4.0,8.333333,,,,,,,,39.0,0.0,0.656964,0.604492,0.347412,-0.28686500000000004,0.8095829999999999,-0.600595,-0.030762,-0.015362,-0.050677,-0.011209,,,,,,,,,,,,,,,,,,,,,,,,,,,,,,,,,,,,,,,,,,,,,,,,,,,,,,,,,,,,,,,,,
37244,1650406594.308039,1650406594.308868,79.0,0.0,4347.692383,5145.641113000001,4042.5642090000006,4278.974121,4300.0,16268.0,4.0,91.0,,,,0.0,4.0,1.0,0.0,0.0,4.0,8.333333,,,,,,,,,,,,,,,,,,,,,,,,,,,,,,,,,,,,,,,,,,,,,,,,,,,,,,,,,,,,,,,,,,,,,,,,,,,,,,,,,,,,
37245,1650406594.3158529,1650406594.316783,80.0,0.0,4194.358886999999,4846.153809,4163.589844,4298.461426,4204.102539,450.0,4.0,91.0,,,,0.0,4.0,1.0,0.0,0.0,4.0,8.333333,,,,,,,,40.0,0.0,0.6568579999999999,0.604492,0.347412,-0.287109,0.7959109999999999,-0.60206,-0.025391,-0.015974000000000002,-0.050687,-0.012579,,,,,,,,,,,,,,,,,,,,,,,,,,,,,,,,,,,0.0,0.0,1.0,0.0,512.0,1.0,,,,,,,,,,,,,,,,,,,,,,,,,
37246,1650406594.323668,1650406594.324598,81.0,0.0,4287.692383,4694.871582,4364.102539,4293.333496,4194.871582,450.0,4.0,91.0,,,,0.0,4.0,1.0,0.0,0.0,4.0,8.333333,,,,,,,,,,,,,,,,,,,,,,,,,,,,,,,,,,,,,,,,,,,,,,,,,,,,,,,,,,,,,,,,,,,,,,,,,,,,,,,,,,,,
37247,1650406594.331482,1650406594.332512,82.0,0.0,4483.589844,4740.0,4352.820313,4270.769043,4275.384765999999,450.0,4.0,91.0,,,,0.0,4.0,1.0,0.0,0.0,4.0,8.333333,,,,,,,,41.0,0.0,0.6568579999999999,0.604492,0.347412,-0.287109,0.797864,-0.585458,-0.033204000000000004,-0.015109000000000001,-0.050746,-0.013859999999999999,,,,,,,,,,,,,,,,,,,,,,,,,,,,,,,,,,,,,,,,,,,,,,,,,,,,,,,,,,,,,,,,,
37248,1650406594.339297,1650406594.340327,83.0,0.0,4458.974121,4850.256348,4164.615234000001,4271.794922,4302.05127,16268.0,4.0,91.0,,,,0.0,4.0,1.0,0.0,0.0,4.0,8.333333,,,,,,,,,,,,,,,,,,,,,,,,,,,,,,,,,,,,,,,,,,,,,,,,,,,,,,,,,,,,,,,,,,,,,,,,,,,,,,,,,,,,
37249,1650406594.347111,1650406594.348241,84.0,0.0,4247.179688,4911.282227000001,4136.410156,4294.871582,4213.846191,450.0,4.0,91.0,,,,0.0,4.0,1.0,0.0,0.0,4.0,8.333333,,,,,,,,42.0,0.0,0.656964,0.604492,0.347412,-0.28686500000000004,0.817395,-0.600595,-0.020996,-0.015893,-0.050749,-0.011888,1.0,0.0,0.0,,,,,,,,,,,,,,,,,,,,,,,,,,,,,,,,0.0,0.0,1.0,0.0,512.0,1.0,11.612303,6.633089,5.424271,19.848564,76.623352,171.022964,237.13064599999998,68.87898299999999,676.789185,4945.722168,44.986488,45.062534,27.500557,85.504349,178.119553,0.11732000000000001,0.12232699999999999,0.052070000000000005,0.425387,0.95631,4.921003,13.303784,3.178661,18.970194,89.748154
37250,1650406594.3549259,1650406594.356056,85.0,0.0,4229.743652,4854.358886999999,4344.102539,4296.410156,4181.025879,450.0,4.0,91.0,,,,0.0,4.0,1.0,0.0,0.0,4.0,8.333333,,,,,,,,,,,,,,,,,,,,,,,,,,,,,,,,,,,,,,,,,,,,,,,,,,,,,,,,,,,,,,,,,,,,,,,,,,,,,,,,,,,,
37251,1650406594.36274,1650406594.363971,86.0,0.0,4419.487305,4882.05127,4435.384765999999,4273.333496,4251.282227000001,450.0,4.0,91.0,,,,0.0,4.0,1.0,0.0,0.0,4.0,8.333333,,,,,,,,43.0,0.0,0.657094,0.604492,0.347168,-0.28686500000000004,0.7983520000000001,-0.5947359999999999,-0.035157,-0.01655,-0.050948,-0.013141,,,,,,,,,,,,,,,,,,,,,,,,,,,,,,,,,,,,,,,,,,,,,,,,,,,,,,,,,,,,,,,,,
37252,1650406594.3705552,1650406594.371785,87.0,0.0,4464.615234000001,5011.282227000001,4175.897461,4267.179688,4305.641113000001,16268.0,4.0,91.0,,,,0.0,4.0,1.0,0.0,0.0,4.0,8.333333,,,,,,,,,,,,,,,,,,,,,,,,,,,,,,,,,,,,,,,,,,,,,,,,,,,,,,,,,,,,,,,,,,,,,,,,,,,,,,,,,,,,
37253,1650406594.3783689,1650406594.3797,88.0,0.0,4269.230957,5181.538574,4005.1281740000004,4287.179688,4288.205078,450.0,4.0,91.0,,,,0.0,4.0,1.0,0.0,0.0,4.0,8.333333,,,,,,,,44.0,0.0,0.657116,0.604492,0.34692399999999995,-0.287109,0.819837,-0.600107,-0.023926,-0.017092,-0.050980000000000004,-0.014268000000000001,,,,,,,,,,,,,,,,,,,,,,,,,,,,,,,,,,,0.0,0.0,1.0,0.0,512.0,1.0,,,,,,,,,,,,,,,,,,,,,,,,,
37254,1650406594.386184,1650406594.387514,89.0,0.0,4201.025879,5197.436035,4251.282227000001,4297.94873,4283.589844,450.0,4.0,91.0,,,,0.0,4.0,1.0,0.0,0.0,4.0,8.333333,,,,,,,,,,,,,,,,,,,,,,,,,,,,,,,,,,,,,,,,,,,,,,,,,,,,,,,,,,,,,,,,,,,,,,,,,,,,,,,,,,,,
37255,1650406594.3939981,1650406594.395429,90.0,0.0,4335.384765999999,4870.256348,4523.077147999999,4281.025879,4238.461426,450.0,4.0,91.0,,,,0.0,4.0,1.0,0.0,0.0,4.0,8.333333,,,,,,,,45.0,0.0,0.657245,0.604492,0.34668000000000004,-0.287109,0.802747,-0.592294,-0.014649,-0.017483000000000002,-0.051058,-0.012304,,,,,,,,,,,,,,,,,,,,,,,,,,,,,,,,,,,,,,,,,,,,,,,,,,,,,,,,,,,,,,,,,
37256,1650406594.401813,1650406594.403244,91.0,0.0,4402.05127,4774.871582,4373.333496,4265.641113000001,4192.820313,16268.0,4.0,91.0,,,,0.0,4.0,1.0,0.0,0.0,4.0,8.333333,,,,,,,,,,,,,,,,,,,,,,,,,,,,,,,,,,,,,,,,,,,,,,,,,,,,,,,,,,,,,,,,,,,,,,,,,,,,,,,,,,,,
37257,1650406594.409628,1650406594.411158,92.0,0.0,4338.974121,5175.384765999999,3996.923096,4281.025879,4263.589844,450.0,4.0,91.0,,,,0.0,4.0,1.0,0.0,0.0,4.0,8.333333,,,,,,,,46.0,0.0,0.657267,0.604492,0.346436,-0.287354,0.79884,-0.596201,-0.027344,-0.017981,-0.051079,-0.013465999999999999,,,,,,,,,,,,,,,,,,,,,,,,,,,,,,,,,,,0.0,0.0,1.0,0.0,512.0,1.0,,,,,,,,,,,,,,,,,,,,,,,,,
37258,1650406594.417442,1650406594.418973,93.0,0.0,4265.641113000001,5298.974121,4015.384521,4302.05127,4297.436035,450.0,4.0,91.0,,,,0.0,4.0,1.0,0.0,0.0,4.0,8.333333,,,,,,,,,,,,,,,,,,,,,,,,,,,,,,,,,,,,,,,,,,,,,,,,,,,,,,,,,,,,,,,,,,,,,,,,,,,,,,,,,,,,
37259,1650406594.425257,1650406594.4268868,94.0,0.0,4270.769043,5052.307617,4360.512695,4286.666504,4206.666504,450.0,4.0,91.0,,,,0.0,4.0,1.0,0.0,0.0,4.0,8.333333,,,,,,,,47.0,0.0,0.657267,0.604492,0.346436,-0.287354,0.8139770000000001,-0.596201,-0.030274000000000002,-0.01838,-0.051049000000000004,-0.014561000000000001,,,,,,,,,,,,,,,,,,,,,,,,,,,,,,,,,,,,,,,,,,,,,,,,,,,,,,,,,,,,,,,,,
37260,1650406594.4330711,1650406594.434802,95.0,0.0,4355.897461,5043.077147999999,4428.717772999999,4259.487305,4158.974121,16268.0,4.0,91.0,,,,0.0,4.0,1.0,0.0,0.0,4.0,8.333333,,,,,,,,,,,,,,,,,,,,,,,,,,,,,,,,,,,,,,,,,,,,,,,,,,,,,,,,,,,,,,,,,,,,,,,,,,,,,,,,,,,,
37261,1650406594.440886,1650406594.442617,96.0,0.0,4349.743652,5313.846191,4106.666504,4266.666504,4237.436035,450.0,4.0,91.0,,,,0.0,4.0,1.0,0.0,0.0,4.0,8.333333,,,,,,,,48.0,0.0,0.657245,0.604492,0.34668000000000004,-0.287109,0.802747,-0.592294,-0.014649,-0.018641,-0.05112,-0.012568000000000001,,,,,,,,,,,,,,,,,,,,,,,,,,,,,,,,,,,0.0,0.0,1.0,0.0,512.0,1.0,,,,,,,,,,,,,,,,,,,,,,,,,
37262,1650406594.4487,1650406594.450531,97.0,0.0,4203.077147999999,5435.384765999999,4089.743652,4291.282227000001,4305.641113000001,450.0,4.0,91.0,,,,0.0,4.0,1.0,0.0,0.0,4.0,8.333333,,,,,,,,,,,,,,,,,,,,,,,,,,,,,,,,,,,,,,,,,,,,,,,,,,,,,,,,,,,,,,,,,,,,,,,,,,,,,,,,,,,,
37263,1650406594.456515,1650406594.4583461,98.0,0.0,4212.820313,5307.692383,4374.871582,4290.769043,4291.794922,450.0,4.0,91.0,,,,0.0,4.0,1.0,0.0,0.0,4.0,8.333333,,,,,,,,49.0,0.0,0.657289,0.604492,0.34619099999999997,-0.287598,0.8076300000000001,-0.586923,-0.042969,-0.018926,-0.051087,-0.010627,,,,,,,,,,,,,,,,,,,,,,,,,,,,,,,,,,,,,,,,,,,,,,,,,,,,,,,,,,,,,,,,,
37264,1650406594.464329,1650406594.46626,99.0,0.0,4373.333496,5264.102539,4447.179688,4268.717772999999,4218.461426,16268.0,4.0,91.0,,,,0.0,4.0,1.0,0.0,0.0,4.0,8.333333,,,,,,,,,,,,,,,,,,,,,,,,,,,,,,,,,,,,,,,,,,,,,,,,,,,,,,,,,,,,,,,,,,,,,,,,,,,,,,,,,,,,
