,Timestamp,OriginalTimestamp,EEG.Counter,EEG.Interpolated,EEG.AF3,EEG.T7,EEG.Pz,EEG.T8,EEG.AF4,EEG.RawCq,EEG.Battery,EEG.BatteryPercent,MarkerIndex,MarkerType,MarkerValueInt,EEG.MarkerHardware,CQ.AF3,CQ.T7,CQ.Pz,CQ.T8,CQ.AF4,CQ.Overall,EQ.SampleRateQuality,EQ.OVERALL,EQ.AF3,EQ.T7,EQ.Pz,EQ.T8,EQ.AF4,MOT.CounterMems,MOT.InterpolatedMems,MOT.Q0,MOT.Q1,MOT.Q2,MOT.Q3,MOT.AccX,MOT.AccY,MOT.AccZ,MOT.MagX,MOT.MagY,MOT.MagZ,MC.Action,MC.ActionPower,MC.IsActive,PM.Engagement.IsActive,PM.Engagement.Scaled,PM.Engagement.Raw,PM.Engagement.Min,PM.Engagement.Max,PM.Excitement.IsActive,PM.Excitement.Scaled,PM.Excitement.Raw,PM.Excitement.Min,PM.Excitement.Max,PM.LongTermExcitement,PM.Stress.IsActive,PM.Stress.Scaled,PM.Stress.Raw,PM.Stress.Min,PM.Stress.Max,PM.Relaxation.IsActive,PM.Relaxation.Scaled,PM.Relaxation.Raw,PM.Relaxation.Min,PM.Relaxation.Max,PM.Interest.IsActive,PM.Interest.Scaled,PM.Interest.Raw,PM.Interest.Min,PM.Interest.Max,PM.Focus.IsActive,PM.Focus.Scaled,PM.Focus.Raw,PM.Focus.Min,PM.Focus.Max,FE.BlinkWink,FE.HorizontalEyesDirection,FE.UpperFaceAction,FE.UpperFaceActionPower,FE.LowerFaceAction,FE.LowerFaceActionPower,POW.AF3.Theta,POW.AF3.Alpha,POW.AF3.BetaL,POW.AF3.BetaH,POW.AF3.Gamma,POW.T7.Theta,POW.T7.Alpha,POW.T7.BetaL,POW.T7.BetaH,POW.T7.Gamma,POW.Pz.Theta,POW.Pz.Alpha,POW.Pz.BetaL,POW.Pz.BetaH,POW.Pz.Gamma,POW.T8.Theta,POW.T8.Alpha,POW.T8.BetaL,POW.T8.BetaH,POW.T8.Gamma,POW.AF4.Theta,POW.AF4.Alpha,POW.AF4.BetaL,POW.AF4.BetaH,POW.AF4.Gamma
28211,1645817501.231673,1645817501.278475,68.0,0.0,4311.282227000001,4558.461426,4195.384765999999,4272.820313,4261.538574,69.0,1.0,15.0,28.0,1.0,2.0,0.0,4.0,1.0,4.0,1.0,4.0,50.0,,,,,,,,34.0,0.0,0.06055700000000001,0.616699,-0.23290999999999998,-0.749512,0.9077290000000001,-0.435554,-0.143069,-0.03379,-0.033815,-0.03178,,,,,,,,,,,,,,,,,,,,,,,,,,,,,,,,,,,,,,,,,,,,,,,,,,,,,,,,,,,,,,,,,
28212,1645817501.239486,1645817501.286289,69.0,0.0,4320.0,4407.179688,4223.077147999999,4333.846191,4266.666504,450.0,1.0,15.0,,,,0.0,4.0,1.0,4.0,1.0,4.0,50.0,,,,,,,,,,,,,,,,,,,,,,,,,,,,,,,,,,,,,,,,,,,,,,,,,,,,,,,,,,,,,,,,,,,,,,,,,,,,,,,,,,,,
28213,1645817501.247299,1645817501.294103,70.0,0.0,4354.358886999999,4644.102539,4186.153809,4248.205078,4341.538574,16112.0,1.0,15.0,,,,0.0,4.0,1.0,4.0,1.0,4.0,50.0,,,,,,,,35.0,0.0,0.058017,0.616943,-0.23290999999999998,-0.749512,0.9038219999999999,-0.431159,-0.127443,-0.033780000000000004,-0.033802,-0.034022000000000004,,,,,,,,,,,,,,,,,,,,,,,,,,,,,,,,,,,,,,,,,,,,,,,,,,,,,,,,,,,,,,,,,
28214,1645817501.2551131,1645817501.301918,71.0,0.0,4360.0,4691.282227000001,4172.307617,4205.641113000001,4338.461426,450.0,1.0,15.0,,,,0.0,4.0,1.0,4.0,1.0,4.0,50.0,,,,,,,,,,,,,,,,,,,,,,,,,,,,,,,,,,,,,,,,,,,,,,,,,,,,,,0.0,0.0,1.0,0.0,512.0,1.0,,,,,,,,,,,,,,,,,,,,,,,,,
28215,1645817501.2629259,1645817501.309732,72.0,0.0,4378.461426,4714.871582,4167.692383,4225.128418,4303.077147999999,450.0,1.0,15.0,,,,0.0,4.0,1.0,4.0,1.0,4.0,50.0,,,,,,,,36.0,0.0,0.057027999999999995,0.616943,-0.233154,-0.749512,0.9077290000000001,-0.43262399999999995,-0.137697,-0.033918000000000004,-0.033839999999999995,-0.036039999999999996,,,,,,,,,,,,,,,,,,,,,,,,,,,,,,,,,,,,,,,,,,,,,,,,,,,,,,,,,,,,,,,,,
28216,1645817501.27074,1645817501.317547,73.0,0.0,4351.794922,4637.94873,4178.974121,4272.820313,4287.179688,44.0,1.0,15.0,,,,0.0,4.0,1.0,4.0,1.0,4.0,50.0,,,,,,,,,,,,,,,,,,,,,,,,,,,,,,,,,,,,,,,,,,,,,,,,,,,,,,,,,,,,,,,,,,,,,,,,,,,,,,,,,,,,
28217,1645817501.278553,1645817501.3252609,74.0,0.0,4334.358886999999,4369.743652,4229.743652,4335.897461,4249.743652,450.0,1.0,15.0,,,,0.0,4.0,1.0,4.0,1.0,4.0,50.0,,,,,,,,37.0,0.0,0.06015,0.616943,-0.233154,-0.749268,0.901869,-0.43408900000000006,-0.143557,-0.033895,-0.033972,-0.037807,,,,,,,,,,,,,,,,,,,,,,,,,,,,,,,,,,,,,,,,,,,,,,,,,,,,,,,,,,,,,,,,,
28218,1645817501.286366,1645817501.333076,75.0,0.0,4358.461426,4463.589844,4222.05127,4308.205078,4274.358886999999,16256.0,1.0,15.0,,,,0.0,4.0,1.0,4.0,1.0,4.0,50.0,,,,,,,,,,,,,,,,,,,,,,,,,,,,,,,,,,,,,,,,,,,,,,,,,,,,,,0.0,0.0,1.0,0.0,512.0,1.0,,,,,,,,,,,,,,,,,,,,,,,,,
28219,1645817501.2941802,1645817501.34089,76.0,0.0,4316.410156,4612.307617,4168.717772999999,4235.384765999999,4315.384765999999,450.0,1.0,15.0,,,,0.0,4.0,1.0,4.0,1.0,4.0,50.0,,,,,,,,38.0,0.0,0.06015,0.616943,-0.233154,-0.749268,0.91017,-0.436042,-0.150881,-0.033875,-0.033993,-0.03305,,,,,,,,,,,,,,,,,,,,,,,,,,,,,,,,,,,,,,,,,,,,,,,,,,,,,,,,,,,,,,,,,
28220,1645817501.301993,1645817501.3487039,77.0,0.0,4303.077147999999,4529.743652,4171.282227000001,4224.615234000001,4268.205078,450.0,1.0,15.0,,,,0.0,4.0,1.0,4.0,1.0,4.0,50.0,,,,,,,,,,,,,,,,,,,,,,,,,,,,,,,,,,,,,,,,,,,,,,,,,,,,,,,,,,,,,,,,,,,,,,,,,,,,,,,,,,,,
28221,1645817501.309807,1645817501.356519,78.0,0.0,4375.384765999999,4615.384765999999,4199.487305,4247.692383,4259.487305,450.0,1.0,15.0,,,,0.0,4.0,1.0,4.0,1.0,4.0,50.0,,,,,,,,39.0,0.0,0.058571000000000005,0.617188,-0.23290999999999998,-0.749268,0.9043110000000001,-0.420417,-0.131838,-0.033808,-0.034011,-0.035116,,,,,,,,,,,,,,,,,,,,,,,,,,,,,,,,,,,,,,,,,,,,,,,,,,,,,,,,,,,,,,,,,
28222,1645817501.31762,1645817501.364333,79.0,0.0,4377.436035,4597.436035,4216.922852000001,4291.794922,4301.025879,16256.0,1.0,15.0,,,,0.0,4.0,1.0,4.0,1.0,4.0,50.0,,,,,,,,,,,,,,,,,,,,1.0,0.0,0.0,,,,,,,,,,,,,,,,,,,,,,,,,,,,,,,,0.0,0.0,1.0,0.0,512.0,1.0,8.090261,5.055813,2.156629,3.8487449999999996,19.138061999999998,37.193142,33.204029,59.701553000000004,71.876747,353.82034300000004,3.7747129999999998,4.489743,3.239248,7.845687,11.354804,3.4395550000000004,5.452989,2.984353,12.400023,24.305553,2.636806,3.603342,3.159035,4.061446,13.993163000000001
28223,1645817501.325433,1645817501.372148,80.0,0.0,4320.512695,4432.820313,4209.743652,4303.077147999999,4291.282227000001,450.0,1.0,15.0,,,,0.0,4.0,1.0,4.0,1.0,4.0,50.0,,,,,,,,40.0,0.0,0.059533,0.617188,-0.23266599999999998,-0.749268,0.910658,-0.42920600000000003,-0.128908,-0.033845,-0.033979,-0.037024,,,,,,,,,,,,,,,,,,,,,,,,,,,,,,,,,,,,,,,,,,,,,,,,,,,,,,,,,,,,,,,,,
28224,1645817501.3332472,1645817501.379962,81.0,0.0,4308.717772999999,4582.05127,4176.410156,4249.230957,4292.820313,450.0,1.0,15.0,,,,0.0,4.0,1.0,4.0,1.0,4.0,50.0,,,,,,,,,,,,,,,,,,,,,,,,,,,,,,,,,,,,,,,,,,,,,,,,,,,,,,,,,,,,,,,,,,,,,,,,,,,,,,,,,,,,
28225,1645817501.34106,1645817501.387677,82.0,0.0,4335.384765999999,4752.820313,4164.615234000001,4214.871582,4320.0,450.0,1.0,15.0,,,,0.0,4.0,1.0,4.0,1.0,4.0,50.0,,,,,,,,41.0,0.0,0.057375,0.617188,-0.232422,-0.749512,0.906752,-0.43018199999999995,-0.12109600000000001,-0.03383,-0.033951,-0.038693,,,,,,,,,,,,,,,,,,,,,,,,,,,,,,,,,,,,,,,,,,,,,,,,,,,,,,,,,,,,,,,,,
28226,1645817501.348874,1645817501.3954911,83.0,0.0,4352.307617,4713.846191,4157.436035,4226.153809,4317.94873,16256.0,1.0,15.0,,,,0.0,4.0,1.0,4.0,1.0,4.0,50.0,,,,,,,,,,,,,,,,,,,,,,,,,,,,,,,,,,,,,,,,,,,,,,,,,,,,,,0.0,0.0,1.0,0.0,512.0,1.0,,,,,,,,,,,,,,,,,,,,,,,,,
28227,1645817501.3566868,1645817501.403305,84.0,0.0,4358.461426,4661.025879,4157.436035,4242.563965,4309.743652,450.0,1.0,15.0,,,,0.0,4.0,1.0,4.0,1.0,4.0,50.0,,,,,,,,42.0,0.0,0.058355,0.617188,-0.23217800000000002,-0.749512,0.9043110000000001,-0.425299,-0.13916199999999998,-0.033914,-0.033974000000000004,-0.040195,,,,,,,,,,,,,,,,,,,,,,,,,,,,,,,,,,,,,,,,,,,,,,,,,,,,,,,,,,,,,,,,,
28228,1645817501.3645,1645817501.41112,85.0,0.0,4383.589844,4584.615234000001,4204.102539,4264.102539,4293.846191,450.0,1.0,15.0,,,,0.0,4.0,1.0,4.0,1.0,4.0,50.0,,,,,,,,,,,,,,,,,,,,,,,,,,,,,,,,,,,,,,,,,,,,,,,,,,,,,,,,,,,,,,,,,,,,,,,,,,,,,,,,,,,,
28229,1645817501.372314,1645817501.4189339,86.0,0.0,4391.282227000001,4594.358886999999,4217.436035,4268.717772999999,4286.153809,450.0,1.0,15.0,,,,0.0,4.0,1.0,4.0,1.0,4.0,50.0,,,,,,,,43.0,0.0,0.059317999999999996,0.617188,-0.231934,-0.749512,0.897963,-0.421393,-0.131838,-0.03394,-0.033944999999999996,-0.041595,,,,,,,,,,,,,,,,,,,,,,,,,,,,,,,,,,,,,,,,,,,,,,,,,,,,,,,,,,,,,,,,,
28230,1645817501.380127,1645817501.426749,87.0,0.0,4328.205078,4554.358886999999,4190.769043,4273.846191,4285.128418,16256.0,1.0,15.0,,,,0.0,4.0,1.0,4.0,1.0,4.0,50.0,,,,,,,,,,,,,,,,,,,,,,,,,,,,,,,,,,,,,,,,,,,,,,,,,,,,,,0.0,0.0,1.0,0.0,512.0,1.0,,,,,,,,,,,,,,,,,,,,,,,,,
28231,1645817501.3879411,1645817501.4345632,88.0,0.0,4310.256348,4484.102539,4183.077147999999,4265.128418,4277.94873,450.0,1.0,15.0,,,,0.0,4.0,1.0,4.0,1.0,4.0,50.0,,,,,,,,44.0,0.0,0.059317999999999996,0.617188,-0.231934,-0.749512,0.910658,-0.42627600000000004,-0.13281500000000002,-0.034013,-0.03392,-0.042905,,,,,,,,,,,,,,,,,,,,,,,,,,,,,,,,,,,,,,,,,,,,,,,,,,,,,,,,,,,,,,,,,
28232,1645817501.3957539,1645817501.4423769,89.0,0.0,4334.871582,4744.102539,4131.794922,4194.871582,4295.384765999999,450.0,1.0,15.0,,,,0.0,4.0,1.0,4.0,1.0,4.0,50.0,,,,,,,,,,,,,,,,,,,,,,,,,,,,,,,,,,,,,,,,,,,,,,,,,,,,,,,,,,,,,,,,,,,,,,,,,,,,,,,,,,,,
28233,1645817501.403567,1645817501.450192,90.0,0.0,4312.307617,4726.153809,4125.641113000001,4227.692383,4296.410156,450.0,1.0,15.0,,,,0.0,4.0,1.0,4.0,1.0,4.0,50.0,,,,,,,,45.0,0.0,0.056720000000000007,0.617432,-0.231934,-0.749512,0.8886850000000001,-0.43799499999999997,-0.141604,-0.033981,-0.033946,-0.037784,,,,,,,,,,,,,,,,,,,,,,,,,,,,,,,,,,,,,,,,,,,,,,,,,,,,,,,,,,,,,,,,,
28234,1645817501.411381,1645817501.4580061,91.0,0.0,4337.94873,4372.307617,4217.436035,4332.307617,4260.512695,16256.0,1.0,15.0,,,,0.0,4.0,1.0,4.0,1.0,4.0,50.0,,,,,,,,,,,,,,,,,,,,,,,,,,,,,,,,,,,,,,,,,,,,,,,,,,,,,,0.0,0.0,1.0,0.0,512.0,1.0,,,,,,,,,,,,,,,,,,,,,,,,,
28235,1645817501.419194,1645817501.4657211,92.0,0.0,4363.589844,4495.897461,4214.871582,4301.025879,4279.487305,450.0,1.0,15.0,,,,0.0,4.0,1.0,4.0,1.0,4.0,50.0,,,,,,,,46.0,0.0,0.056720000000000007,0.617432,-0.231934,-0.749512,0.902358,-0.43897200000000003,-0.141604,-0.034000999999999997,-0.03397,-0.039376999999999995,,,,,,,,,,,,,,,,,,,,,,,,,,,,,,,,,,,,,,,,,,,,,,,,,,,,,,,,,,,,,,,,,
28236,1645817501.427008,1645817501.473535,93.0,0.0,4310.256348,4704.615234000001,4153.846191,4235.384765999999,4300.0,450.0,1.0,15.0,,,,0.0,4.0,1.0,4.0,1.0,4.0,50.0,,,,,,,,,,,,,,,,,,,,,,,,,,,,,,,,,,,,,,,,,,,,,,,,,,,,,,,,,,,,,,,,,,,,,,,,,,,,,,,,,,,,
28237,1645817501.4348211,1645817501.48135,94.0,0.0,4328.717772999999,4681.025879,4174.871582,4225.641113000001,4286.666504,450.0,1.0,15.0,,,,0.0,4.0,1.0,4.0,1.0,4.0,50.0,,,,,,,,47.0,0.0,0.056720000000000007,0.617432,-0.231934,-0.749512,0.8989389999999999,-0.430671,-0.126467,-0.034068,-0.033942,-0.040908,,,,,,,,,,,,,,,,,,,,,,,,,,,,,,,,,,,,,,,,,,,,,,,,,,,,,,,,,,,,,,,,,
28238,1645817501.4426339,1645817501.489164,95.0,0.0,4382.563965,4678.974121,4206.666504,4225.641113000001,4303.077147999999,16256.0,1.0,15.0,,,,0.0,4.0,1.0,4.0,1.0,4.0,50.0,,,,,,,,,,,,,,,,,,,,1.0,0.0,0.0,,,,,,,,,,,,,,,,,,,,,,,,,,,,,,,,0.0,0.0,1.0,0.0,512.0,1.0,8.831716,5.377717,2.571666,4.363475,18.215158,51.378971,37.961796,68.327522,84.888603,351.96868900000004,4.701046,4.669667,4.173029,9.348335,10.578610000000001,4.826926,6.6447899999999995,2.943045,14.061342999999999,23.810192,2.874118,2.9360009999999996,2.905545,3.87201,13.248423
28239,1645817501.450448,1645817501.496978,96.0,0.0,4357.436035,4637.436035,4215.384765999999,4250.256348,4302.05127,450.0,1.0,15.0,,,,0.0,4.0,1.0,4.0,1.0,4.0,50.0,,,,,,,,48.0,0.0,0.056720000000000007,0.617432,-0.231934,-0.749512,0.9091940000000001,-0.431647,-0.12842,-0.034128,-0.033966,-0.04214,,,,,,,,,,,,,,,,,,,,,,,,,,,,,,,,,,,,,,,,,,,,,,,,,,,,,,,,,,,,,,,,,
28240,1645817501.458261,1645817501.504793,97.0,0.0,4338.461426,4592.307617,4226.153809,4285.641113000001,4268.205078,450.0,1.0,15.0,,,,0.0,4.0,1.0,4.0,1.0,4.0,50.0,,,,,,,,,,,,,,,,,,,,,,,,,,,,,,,,,,,,,,,,,,,,,,,,,,,,,,,,,,,,,,,,,,,,,,,,,,,,,,,,,,,,
28241,1645817501.466075,1645817501.512607,98.0,0.0,4343.589844,4524.615234000001,4217.94873,4310.256348,4258.461426,450.0,1.0,15.0,,,,0.0,4.0,1.0,4.0,1.0,4.0,50.0,,,,,,,,49.0,0.0,0.056720000000000007,0.617432,-0.231934,-0.749512,0.9072399999999999,-0.415534,-0.130373,-0.034035,-0.033987,-0.043345999999999996,,,,,,,,,,,,,,,,,,,,,,,,,,,,,,,,,,,,,,,,,,,,,,,,,,,,,,,,,,,,,,,,,
28242,1645817501.4738882,1645817501.520422,99.0,0.0,4319.487305,4473.333496,4177.94873,4290.256348,4272.820313,16256.0,1.0,15.0,,,,0.0,4.0,1.0,4.0,1.0,4.0,50.0,,,,,,,,,,,,,,,,,,,,,,,,,,,,,,,,,,,,,,,,,,,,,,,,,,,,,,0.0,0.0,1.0,0.0,512.0,1.0,,,,,,,,,,,,,,,,,,,,,,,,,
28243,1645817501.481701,1645817501.528236,100.0,0.0,4297.94873,4645.641113000001,4133.846191,4229.743652,4305.128418,450.0,1.0,15.0,,,,0.0,4.0,1.0,4.0,1.0,4.0,50.0,,,,,,,,50.0,0.0,0.057709,0.617432,-0.23168899999999998,-0.749512,0.9038219999999999,-0.42236999999999997,-0.126467,-0.034148000000000005,-0.034006,-0.044431,,,,,,,,,,,,,,,,,,,,,,,,,,,,,,,,,,,,,,,,,,,,,,,,,,,,,,,,,,,,,,,,,
28244,1645817501.489515,1645817501.53605,101.0,0.0,4316.410156,4708.205078,4149.743652,4236.410156,4315.384765999999,450.0,1.0,15.0,,,,0.0,4.0,1.0,4.0,1.0,4.0,50.0,,,,,,,,,,,,,,,,,,,,,,,,,,,,,,,,,,,,,,,,,,,,,,,,,,,,,,,,,,,,,,,,,,,,,,,,,,,,,,,,,,,,
28245,1645817501.497328,1645817501.543765,102.0,0.0,4360.512695,4591.794922,4197.94873,4267.692383,4289.743652,450.0,1.0,15.0,,,,0.0,4.0,1.0,4.0,1.0,4.0,50.0,,,,,,,,51.0,0.0,0.056720000000000007,0.617432,-0.231934,-0.749512,0.9091940000000001,-0.431647,-0.12842,-0.034151,-0.033975,-0.04531,,,,,,,,,,,,,,,,,,,,,,,,,,,,,,,,,,,,,,,,,,,,,,,,,,,,,,,,,,,,,,,,,
28246,1645817501.505142,1645817501.551579,103.0,0.0,4369.230957,4606.666504,4201.025879,4254.358886999999,4295.897461,16256.0,1.0,15.0,,,,0.0,4.0,1.0,4.0,1.0,4.0,50.0,,,,,,,,,,,,,,,,,,,,,,,,,,,,,,,,,,,,,,,,,,,,,,,,,,,,,,0.0,0.0,1.0,0.0,512.0,1.0,,,,,,,,,,,,,,,,,,,,,,,,,
28247,1645817501.5129552,1645817501.559394,104.0,0.0,4338.461426,4476.922852000001,4205.128418,4297.436035,4303.589844,450.0,1.0,15.0,,,,0.0,4.0,1.0,4.0,1.0,4.0,50.0,,,,,,,,52.0,0.0,0.057709,0.617432,-0.23168899999999998,-0.749512,0.9038219999999999,-0.42236999999999997,-0.126467,-0.034251,-0.033995,-0.046199000000000004,,,,,,,,,,,,,,,,,,,,,,,,,,,,,,,,,,,,,,,,,,,,,,,,,,,,,,,,,,,,,,,,,
28248,1645817501.520769,1645817501.567208,105.0,0.0,4358.461426,4440.512695,4215.384765999999,4304.615234000001,4308.205078,450.0,1.0,15.0,,,,0.0,4.0,1.0,4.0,1.0,4.0,50.0,,,,,,,,,,,,,,,,,,,,,,,,,,,,,,,,,,,,,,,,,,,,,,,,,,,,,,,,,,,,,,,,,,,,,,,,,,,,,,,,,,,,
28249,1645817501.528582,1645817501.575023,106.0,0.0,4356.922852000001,4673.333496,4173.333496,4227.692383,4330.769043,450.0,1.0,15.0,,,,0.0,4.0,1.0,4.0,1.0,4.0,50.0,,,,,,,,53.0,0.0,0.057709,0.617432,-0.23168899999999998,-0.749512,0.902358,-0.422858,-0.129397,-0.034293000000000004,-0.033916,-0.040798,,,,,,,,,,,,,,,,,,,,,,,,,,,,,,,,,,,,,,,,,,,,,,,,,,,,,,,,,,,,,,,,,
28250,1645817501.5363948,1645817501.5828369,107.0,0.0,4324.102539,4629.230957,4164.615234000001,4243.589844,4297.94873,16256.0,1.0,15.0,,,,0.0,4.0,1.0,4.0,1.0,4.0,50.0,,,,,,,,,,,,,,,,,,,,,,,,,,,,,,,,,,,,,,,,,,,,,,,,,,,,,,0.0,0.0,1.0,0.0,512.0,1.0,,,,,,,,,,,,,,,,,,,,,,,,,
28251,1645817501.544209,1645817501.590651,108.0,0.0,4370.256348,4630.769043,4185.128418,4270.256348,4289.743652,450.0,1.0,15.0,,,,0.0,4.0,1.0,4.0,1.0,4.0,50.0,,,,,,,,54.0,0.0,0.057709,0.617432,-0.23168899999999998,-0.749512,0.8964979999999999,-0.431647,-0.135256,-0.034233,-0.033894,-0.042236,,,,,,,,,,,,,,,,,,,,,,,,,,,,,,,,,,,,,,,,,,,,,,,,,,,,,,,,,,,,,,,,,
28252,1645817501.552022,1645817501.598466,109.0,0.0,4387.692383,4693.333496,4189.230957,4270.256348,4336.410156,450.0,1.0,15.0,,,,0.0,4.0,1.0,4.0,1.0,4.0,50.0,,,,,,,,,,,,,,,,,,,,,,,,,,,,,,,,,,,,,,,,,,,,,,,,,,,,,,,,,,,,,,,,,,,,,,,,,,,,,,,,,,,,
28253,1645817501.559836,1645817501.6061802,110.0,0.0,4335.897461,4444.102539,4208.205078,4311.794922,4308.717772999999,450.0,1.0,15.0,,,,0.0,4.0,1.0,4.0,1.0,4.0,50.0,,,,,,,,55.0,0.0,0.057709,0.617432,-0.23168899999999998,-0.749512,0.9028459999999999,-0.435554,-0.134768,-0.034179,-0.033776,-0.037133,,,,,,,,,,,,,,,,,,,,,,,,,,,,,,,,,,,,,,,,,,,,,,,,,,,,,,,,,,,,,,,,,
28254,1645817501.5676491,1645817501.6139948,111.0,0.0,4334.871582,4502.563965,4195.897461,4284.102539,4292.307617,16256.0,1.0,15.0,,,,0.0,4.0,1.0,4.0,1.0,4.0,50.0,,,,,,,,,,,,,,,,,,,,1.0,0.0,0.0,,,,,,,,,,,,,,,,,,,,,,,,,,,,,,,,0.0,0.0,1.0,0.0,512.0,1.0,8.767816999999999,5.321917,3.128699,4.858146,16.769951000000002,65.633636,40.119606,75.640961,111.370773,337.495209,5.480253,4.269228,5.079761,11.277676,9.645280999999999,6.1336949999999995,7.2545589999999995,3.0371919999999997,17.746172,23.181267000000002,3.006911,2.445379,2.6124490000000002,3.7749300000000003,12.422011999999999
28255,1645817501.5754619,1645817501.621809,112.0,0.0,4353.333496,4739.487305,4163.077147999999,4227.179688,4333.333496,450.0,1.0,15.0,,,,0.0,4.0,1.0,4.0,1.0,4.0,50.0,,,,,,,,56.0,0.0,0.057709,0.617432,-0.23168899999999998,-0.749512,0.901381,-0.431159,-0.13135,-0.034179,-0.033768,-0.038791,,,,,,,,,,,,,,,,,,,,,,,,,,,,,,,,,,,,,,,,,,,,,,,,,,,,,,,,,,,,,,,,,
28256,1645817501.583276,1645817501.629623,113.0,0.0,4357.436035,4613.846191,4192.307617,4254.358886999999,4305.128418,450.0,1.0,15.0,,,,0.0,4.0,1.0,4.0,1.0,4.0,50.0,,,,,,,,,,,,,,,,,,,,,,,,,,,,,,,,,,,,,,,,,,,,,,,,,,,,,,,,,,,,,,,,,,,,,,,,,,,,,,,,,,,,
28257,1645817501.591089,1645817501.637438,114.0,0.0,4372.307617,4521.025879,4230.256348,4288.205078,4264.615234000001,450.0,1.0,15.0,,,,0.0,4.0,1.0,4.0,1.0,4.0,50.0,,,,,,,,57.0,0.0,0.057709,0.617432,-0.23168899999999998,-0.749512,0.921401,-0.4336,-0.140139,-0.034081,-0.033760000000000005,-0.040332,,,,,,,,,,,,,,,,,,,,,,,,,,,,,,,,,,,,,,,,,,,,,,,,,,,,,,,,,,,,,,,,,
28258,1645817501.598902,1645817501.645252,115.0,0.0,4366.153809,4537.94873,4228.205078,4318.461426,4275.384765999999,16256.0,1.0,15.0,,,,0.0,4.0,1.0,4.0,1.0,4.0,50.0,,,,,,,,,,,,,,,,,,,,,,,,,,,,,,,,,,,,,,,,,,,,,,,,,,,,,,0.0,0.0,1.0,0.0,512.0,1.0,,,,,,,,,,,,,,,,,,,,,,,,,
28259,1645817501.606716,1645817501.6530669,116.0,0.0,4341.025879,4527.179688,4216.922852000001,4329.230957,4295.897461,450.0,1.0,15.0,,,,0.0,4.0,1.0,4.0,1.0,4.0,50.0,,,,,,,,58.0,0.0,0.057709,0.617432,-0.23168899999999998,-0.749512,0.904799,-0.435554,-0.14111500000000002,-0.034189,-0.033753,-0.03542,,,,,,,,,,,,,,,,,,,,,,,,,,,,,,,,,,,,,,,,,,,,,,,,,,,,,,,,,,,,,,,,,
28260,1645817501.614529,1645817501.660881,117.0,0.0,4321.538574,4568.205078,4198.461426,4278.461426,4310.256348,450.0,1.0,15.0,,,,0.0,4.0,1.0,4.0,1.0,4.0,50.0,,,,,,,,,,,,,,,,,,,,,,,,,,,,,,,,,,,,,,,,,,,,,,,,,,,,,,,,,,,,,,,,,,,,,,,,,,,,,,,,,,,,
28261,1645817501.622343,1645817501.668695,118.0,0.0,4343.077147999999,4556.922852000001,4186.666504,4244.102539,4314.358886999999,450.0,1.0,15.0,,,,0.0,4.0,1.0,4.0,1.0,4.0,50.0,,,,,,,,59.0,0.0,0.057285,0.617676,-0.231934,-0.749268,0.900893,-0.42969399999999996,-0.14111500000000002,-0.034138999999999996,-0.033747000000000006,-0.037249000000000004,,,,,,,,,,,,,,,,,,,,,,,,,,,,,,,,,,,,,,,,,,,,,,,,,,,,,,,,,,,,,,,,,
28262,1645817501.630156,1645817501.6765099,119.0,0.0,4397.436035,4682.563965,4175.897461,4233.333496,4327.692383,16256.0,1.0,15.0,,,,0.0,4.0,1.0,4.0,1.0,4.0,50.0,,,,,,,,,,,,,,,,,,,,,,,,,,,,,,,,,,,,,,,,,,,,,,,,,,,,,,0.0,0.0,1.0,0.0,512.0,1.0,,,,,,,,,,,,,,,,,,,,,,,,,
28263,1645817501.637969,1645817501.6842241,120.0,0.0,4383.589844,4734.358886999999,4181.538574,4261.025879,4337.436035,450.0,1.0,15.0,,,,0.0,4.0,1.0,4.0,1.0,4.0,50.0,,,,,,,,60.0,0.0,0.057285,0.617676,-0.231934,-0.749268,0.906752,-0.43018199999999995,-0.131838,-0.034095,-0.033693,-0.032597,,,,,,,,,,,,,,,,,,,,,,,,,,,,,,,,,,,,,,,,,,,,,,,,,,,,,,,,,,,,,,,,,
28264,1645817501.645783,1645817501.692039,121.0,0.0,4325.128418,4364.102539,4219.487305,4344.615234000001,4264.102539,450.0,1.0,15.0,,,,0.0,4.0,1.0,4.0,1.0,4.0,50.0,,,,,,,,,,,,,,,,,,,,,,,,,,,,,,,,,,,,,,,,,,,,,,,,,,,,,,,,,,,,,,,,,,,,,,,,,,,,,,,,,,,,
28265,1645817501.6535962,1645817501.699853,122.0,0.0,4333.333496,4412.820313,4203.589844,4289.743652,4249.230957,450.0,1.0,15.0,,,,0.0,4.0,1.0,4.0,1.0,4.0,50.0,,,,,,,,61.0,0.0,0.059859,0.617432,-0.231934,-0.749268,0.8955209999999999,-0.424811,-0.140627,-0.034005,-0.033741,-0.034806000000000004,,,,,,,,,,,,,,,,,,,,,,,,,,,,,,,,,,,,,,,,,,,,,,,,,,,,,,,,,,,,,,,,,
28266,1645817501.6614099,1645817501.707668,123.0,0.0,4335.384765999999,4751.282227000001,4164.615234000001,4184.615234000001,4335.897461,16256.0,1.0,15.0,,,,0.0,4.0,1.0,4.0,1.0,4.0,50.0,,,,,,,,,,,,,,,,,,,,,,,,,,,,,,,,,,,,,,,,,,,,,,,,,,,,,,0.0,0.0,1.0,0.0,512.0,1.0,,,,,,,,,,,,,,,,,,,,,,,,,
28267,1645817501.669223,1645817501.715482,124.0,0.0,4341.025879,4534.871582,4212.307617,4255.897461,4324.615234000001,450.0,1.0,15.0,,,,0.0,4.0,1.0,4.0,1.0,4.0,50.0,,,,,,,,62.0,0.0,0.059859,0.617432,-0.231934,-0.749268,0.902358,-0.43897200000000003,-0.13086099999999998,-0.033974000000000004,-0.033688,-0.030494999999999998,,,,,,,,,,,,,,,,,,,,,,,,,,,,,,,,,,,,,,,,,,,,,,,,,,,,,,,,,,,,,,,,,
28268,1645817501.677036,1645817501.7232962,125.0,0.0,4393.846191,4537.436035,4227.692383,4286.666504,4287.692383,450.0,1.0,15.0,,,,0.0,4.0,1.0,4.0,1.0,4.0,50.0,,,,,,,,,,,,,,,,,,,,,,,,,,,,,,,,,,,,,,,,,,,,,,,,,,,,,,,,,,,,,,,,,,,,,,,,,,,,,,,,,,,,
28269,1645817501.68485,1645817501.731111,126.0,0.0,4357.94873,4744.615234000001,4188.717772999999,4257.436035,4312.307617,450.0,1.0,15.0,,,,0.0,4.0,1.0,4.0,1.0,4.0,50.0,,,,,,,,63.0,0.0,0.057285,0.617676,-0.231934,-0.749268,0.901381,-0.431647,-0.12060699999999999,-0.034044,-0.033737,-0.032866,,,,,,,,,,,,,,,,,,,,,,,,,,,,,,,,,,,,,,,,,,,,,,,,,,,,,,,,,,,,,,,,,
28270,1645817501.6926632,1645817501.738925,127.0,0.0,4301.025879,4470.769043,4213.846191,4319.487305,4291.794922,233.0,1.0,15.0,,,,0.0,4.0,1.0,4.0,1.0,4.0,50.0,0.972656,8.333333,1.0,0.0,1.0,0.0,1.0,,,,,,,,,,,,,1.0,0.0,0.0,,,,,,,,,,,,,,,,,,,,,,,,,,,,,,,,0.0,0.0,1.0,0.0,512.0,1.0,7.835152000000001,4.8375,3.7056139999999997,5.352109,14.946473000000001,75.27903,40.539612,80.020012,150.053345,309.183868,5.8836949999999995,3.405979,5.834953,13.470095,8.585666,6.944763000000001,7.090279,3.21426,23.202599,22.207943,3.031401,2.296128,2.3574319999999997,3.791205,11.500417
28271,1645817501.700477,1645817501.74674,0.0,0.0,4355.384765999999,4502.05127,4215.897461,4294.358886999999,4291.282227000001,450.0,1.0,15.0,,,,0.0,4.0,1.0,4.0,1.0,4.0,50.0,,,,,,,,0.0,0.0,0.057285,0.617676,-0.231934,-0.749268,0.8921030000000001,-0.424811,-0.123537,-0.034008,-0.033732,-0.035048,,,,,,,,,,,,,,,,,,,,,,,,,,,,,,,,,,,,,,,,,,,,,,,,,,,,,,,,,,,,,,,,,
28272,1645817501.70829,1645817501.754454,1.0,0.0,4397.94873,4800.0,4188.205078,4205.128418,4338.974121,450.0,1.0,15.0,,,,0.0,4.0,0.0,4.0,0.0,4.0,33.333332,,,,,,,,,,,,,,,,,,,,,,,,,,,,,,,,,,,,,,,,,,,,,,,,,,,,,,,,,,,,,,,,,,,,,,,,,,,,,,,,,,,,
28273,1645817501.7161028,1645817501.762269,2.0,0.0,4365.641113000001,4614.358886999999,4225.128418,4254.871582,4305.128418,16205.0,1.0,15.0,,,,0.0,4.0,0.0,4.0,0.0,4.0,33.333332,,,,,,,,1.0,0.0,0.053996,0.617676,-0.231934,-0.749512,0.901869,-0.433112,-0.137209,-0.033977,-0.033826,-0.036963,,,,,,,,,,,,,,,,,,,,,,,,,,,,,,,,,,,,,,,,,,,,,,,,,,,,,,,,,,,,,,,,,
28274,1645817501.723917,1645817501.770083,3.0,0.0,4341.025879,4474.871582,4235.384765999999,4313.846191,4255.897461,450.0,1.0,15.0,,,,0.0,4.0,0.0,4.0,0.0,4.0,33.333332,,,,,,,,,,,,,,,,,,,,,,,,,,,,,,,,,,,,,,,,,,,,,,,,,,,,,,0.0,0.0,1.0,0.0,512.0,1.0,,,,,,,,,,,,,,,,,,,,,,,,,
28275,1645817501.73173,1645817501.7778971,4.0,0.0,4346.153809,4594.871582,4203.589844,4296.410156,4285.128418,0.0,1.0,15.0,,,,0.0,4.0,0.0,4.0,0.0,4.0,33.333332,,,,,,,,2.0,0.0,0.053996,0.617676,-0.231934,-0.749512,0.8955209999999999,-0.421393,-0.13281500000000002,-0.034046,-0.033813,-0.032388,,,,,,,,,,,,,,,,,,,,,,,,,,,,,,,,,,,,,,,,,,,,,,,,,,,,,,,,,,,,,,,,,
28276,1645817501.739544,1645817501.785712,5.0,0.0,4357.436035,4615.384765999999,4206.153809,4288.717772999999,4332.820313,450.0,1.0,15.0,,,,0.0,4.0,0.0,4.0,0.0,4.0,33.333332,,,,,,,,,,,,,,,,,,,,,,,,,,,,,,,,,,,,,,,,,,,,,,,,,,,,,,,,,,,,,,,,,,,,,,,,,,,,,,,,,,,,
28277,1645817501.7473571,1645817501.793526,6.0,0.0,4336.410156,4627.179688,4194.358886999999,4284.102539,4329.230957,16101.0,1.0,15.0,,,,0.0,4.0,0.0,4.0,0.0,4.0,33.333332,,,,,,,,3.0,0.0,0.055035,0.617676,-0.23168899999999998,-0.749512,0.9052870000000001,-0.427253,-0.139651,-0.034108,-0.033752,-0.034569,,,,,,,,,,,,,,,,,,,,,,,,,,,,,,,,,,,,,,,,,,,,,,,,,,,,,,,,,,,,,,,,,
28278,1645817501.7551699,1645817501.801341,7.0,0.0,4336.410156,4693.846191,4168.717772999999,4251.794922,4314.871582,450.0,1.0,15.0,,,,0.0,4.0,0.0,4.0,0.0,4.0,33.333332,,,,,,,,,,,,,,,,,,,,,,,,,,,,,,,,,,,,,,,,,,,,,,,,,,,,,,0.0,0.0,1.0,0.0,512.0,1.0,,,,,,,,,,,,,,,,,,,,,,,,,
28279,1645817501.762984,1645817501.809155,8.0,0.0,4377.436035,4776.922852000001,4173.333496,4207.179688,4344.615234000001,450.0,1.0,15.0,,,,0.0,4.0,0.0,4.0,0.0,4.0,33.333332,,,,,,,,4.0,0.0,0.055035,0.617676,-0.23168899999999998,-0.749512,0.9121229999999999,-0.42676400000000003,-0.13916199999999998,-0.034067,-0.033746,-0.030282,,,,,,,,,,,,,,,,,,,,,,,,,,,,,,,,,,,,,,,,,,,,,,,,,,,,,,,,,,,,,,,,,
28280,1645817501.770797,1645817501.816969,9.0,0.0,4360.512695,4703.077147999999,4196.922852000001,4238.461426,4326.153809,18.0,1.0,15.0,,,,0.0,4.0,0.0,4.0,0.0,4.0,33.333332,,,,,,,,,,,,,,,,,,,,,,,,,,,,,,,,,,,,,,,,,,,,,,,,,,,,,,,,,,,,,,,,,,,,,,,,,,,,,,,,,,,,
28281,1645817501.778611,1645817501.824684,10.0,0.0,4331.794922,4447.179688,4224.102539,4330.256348,4236.410156,450.0,1.0,15.0,,,,0.0,4.0,0.0,4.0,0.0,4.0,33.333332,,,,,,,,5.0,0.0,0.055615,0.61792,-0.23168899999999998,-0.749268,0.909682,-0.41992799999999997,-0.134768,-0.034078,-0.033838,-0.032772,,,,,,,,,,,,,,,,,,,,,,,,,,,,,,,,,,,,,,,,,,,,,,,,,,,,,,,,,,,,,,,,,
28282,1645817501.786424,1645817501.832498,11.0,0.0,4354.871582,4517.94873,4217.436035,4297.436035,4267.179688,16214.0,1.0,15.0,,,,0.0,4.0,0.0,4.0,0.0,4.0,33.333332,,,,,,,,,,,,,,,,,,,,,,,,,,,,,,,,,,,,,,,,,,,,,,,,,,,,,,0.0,0.0,1.0,0.0,512.0,1.0,,,,,,,,,,,,,,,,,,,,,,,,,
28283,1645817501.794238,1645817501.8403132,12.0,0.0,4330.256348,4686.153809,4203.077147999999,4221.538574,4351.282227000001,450.0,1.0,15.0,,,,0.0,4.0,0.0,4.0,0.0,4.0,33.333332,,,,,,,,6.0,0.0,0.055615,0.61792,-0.23168899999999998,-0.749268,0.890639,-0.41699899999999995,-0.12842,-0.034137,-0.033921,-0.034866,,,,,,,,,,,,,,,,,,,,,,,,,,,,,,,,,,,,,,,,,,,,,,,,,,,,,,,,,,,,,,,,,
28284,1645817501.802051,1645817501.848127,13.0,0.0,4319.487305,4627.179688,4214.871582,4241.025879,4315.384765999999,450.0,1.0,15.0,,,,0.0,4.0,0.0,4.0,0.0,4.0,33.333332,,,,,,,,,,,,,,,,,,,,,,,,,,,,,,,,,,,,,,,,,,,,,,,,,,,,,,,,,,,,,,,,,,,,,,,,,,,,,,,,,,,,
28285,1645817501.809864,1645817501.855942,14.0,0.0,4357.94873,4732.820313,4187.692383,4234.358886999999,4282.563965,450.0,1.0,15.0,,,,0.0,4.0,0.0,4.0,0.0,4.0,33.333332,,,,,,,,7.0,0.0,0.055615,0.61792,-0.23168899999999998,-0.749268,0.8999159999999999,-0.417487,-0.129885,-0.034239,-0.033849000000000004,-0.0305,,,,,,,,,,,,,,,,,,,,,,,,,,,,,,,,,,,,,,,,,,,,,,,,,,,,,,,,,,,,,,,,,
28286,1645817501.817678,1645817501.863756,15.0,0.0,4345.641113000001,4702.05127,4198.974121,4255.384765999999,4297.94873,16214.0,1.0,15.0,,,,0.0,4.0,0.0,4.0,0.0,4.0,33.333332,,,,,,,,,,,,,,,,,,,,1.0,0.0,0.0,,,,,,,,,,,,,,,,,,,,,,,,,,,,,,,,0.0,0.0,1.0,0.0,512.0,1.0,6.197561,4.0957360000000005,4.208833,5.844476,12.989947,76.896919,40.649208,80.173927,193.555695,270.24920699999996,5.786002,2.363443,6.396316000000001,15.559779,7.493475999999999,6.9653350000000005,6.249319,3.378111,29.343628000000002,20.735058,2.935092,2.519982,2.197556,3.8565199999999997,10.455680000000001
28287,1645817501.825491,1645817501.8715699,16.0,0.0,4336.922852000001,4504.615234000001,4252.820313,4318.974121,4289.230957,0.0,1.0,15.0,,,,0.0,4.0,0.0,4.0,0.0,4.0,33.333332,,,,,,,,8.0,0.0,0.056052,0.617676,-0.23144499999999998,-0.749512,0.9111469999999999,-0.415045,-0.141604,-0.034184,-0.033833999999999996,-0.032820999999999996,,,,,,,,,,,,,,,,,,,,,,,,,,,,,,,,,,,,,,,,,,,,,,,,,,,,,,,,,,,,,,,,,
28288,1645817501.8333051,1645817501.879385,17.0,0.0,4337.94873,4623.077147999999,4215.384765999999,4292.307617,4303.077147999999,0.0,1.0,15.0,,,,0.0,4.0,0.0,4.0,0.0,4.0,33.333332,,,,,,,,,,,,,,,,,,,,,,,,,,,,,,,,,,,,,,,,,,,,,,,,,,,,,,,,,,,,,,,,,,,,,,,,,,,,,,,,,,,,
28289,1645817501.8411179,1645817501.887199,18.0,0.0,4328.205078,4694.358886999999,4166.666504,4250.769043,4322.05127,0.0,1.0,15.0,,,,0.0,4.0,0.0,4.0,0.0,4.0,33.333332,,,,,,,,9.0,0.0,0.05329400000000001,0.61792,-0.23144499999999998,-0.749512,0.9043110000000001,-0.42969399999999996,-0.140139,-0.034135000000000006,-0.033917,-0.034910000000000004,,,,,,,,,,,,,,,,,,,,,,,,,,,,,,,,,,,,,,,,,,,,,,,,,,,,,,,,,,,,,,,,,
28290,1645817501.848931,1645817501.8949142,19.0,0.0,4364.102539,4621.538574,4180.0,4249.743652,4311.794922,0.0,1.0,15.0,,,,0.0,4.0,0.0,4.0,0.0,4.0,33.333332,,,,,,,,,,,,,,,,,,,,,,,,,,,,,,,,,,,,,,,,,,,,,,,,,,,,,,0.0,0.0,1.0,0.0,512.0,1.0,,,,,,,,,,,,,,,,,,,,,,,,,
28291,1645817501.856745,1645817501.9027278,20.0,0.0,4387.692383,4709.230957,4189.230957,4222.563965,4310.769043,0.0,1.0,15.0,,,,0.0,4.0,0.0,4.0,0.0,4.0,33.333332,,,,,,,,10.0,0.0,0.05329400000000001,0.61792,-0.23144499999999998,-0.749512,0.902358,-0.42920600000000003,-0.140139,-0.034042,-0.033992,-0.036888,,,,,,,,,,,,,,,,,,,,,,,,,,,,,,,,,,,,,,,,,,,,,,,,,,,,,,,,,,,,,,,,,
28292,1645817501.864558,1645817501.910543,21.0,0.0,4371.282227000001,4739.487305,4213.333496,4223.077147999999,4306.666504,0.0,1.0,15.0,,,,0.0,4.0,0.0,4.0,0.0,4.0,33.333332,,,,,,,,,,,,,,,,,,,,,,,,,,,,,,,,,,,,,,,,,,,,,,,,,,,,,,,,,,,,,,,,,,,,,,,,,,,,,,,,,,,,
28293,1645817501.8723722,1645817501.9183571,22.0,0.0,4352.307617,4634.871582,4233.333496,4271.794922,4301.025879,0.0,1.0,15.0,,,,0.0,4.0,0.0,4.0,0.0,4.0,33.333332,,,,,,,,11.0,0.0,0.054342999999999995,0.61792,-0.23120100000000002,-0.749512,0.9126120000000001,-0.431647,-0.13086099999999998,-0.034056,-0.033962,-0.032369,,,,,,,,,,,,,,,,,,,,,,,,,,,,,,,,,,,,,,,,,,,,,,,,,,,,,,,,,,,,,,,,,
28294,1645817501.880185,1645817501.926171,23.0,0.0,4297.94873,4488.205078,4206.666504,4315.384765999999,4273.846191,0.0,1.0,15.0,,,,0.0,4.0,0.0,4.0,0.0,4.0,33.333332,,,,,,,,,,,,,,,,,,,,,,,,,,,,,,,,,,,,,,,,,,,,,,,,,,,,,,0.0,0.0,1.0,0.0,512.0,1.0,,,,,,,,,,,,,,,,,,,,,,,,,
28295,1645817501.887998,1645817501.933986,24.0,0.0,4288.717772999999,4465.128418,4184.102539,4297.436035,4258.974121,0.0,1.0,15.0,,,,0.0,4.0,0.0,4.0,0.0,4.0,33.333332,,,,,,,,12.0,0.0,0.054342999999999995,0.61792,-0.23120100000000002,-0.749512,0.908217,-0.420417,-0.13379100000000002,-0.033873,-0.033935,-0.034503,,,,,,,,,,,,,,,,,,,,,,,,,,,,,,,,,,,,,,,,,,,,,,,,,,,,,,,,,,,,,,,,,
28296,1645817501.8958118,1645817501.9418,25.0,0.0,4329.230957,4778.974121,4149.230957,4197.94873,4311.794922,0.0,1.0,15.0,,,,0.0,4.0,0.0,4.0,0.0,4.0,33.333332,,,,,,,,,,,,,,,,,,,,,,,,,,,,,,,,,,,,,,,,,,,,,,,,,,,,,,,,,,,,,,,,,,,,,,,,,,,,,,,,,,,,
28297,1645817501.903625,1645817501.949615,26.0,0.0,4301.025879,4738.974121,4158.461426,4207.692383,4314.871582,0.0,1.0,15.0,,,,0.0,4.0,0.0,4.0,0.0,4.0,33.333332,,,,,,,,13.0,0.0,0.057611,0.61792,-0.23120100000000002,-0.749268,0.8921030000000001,-0.42432299999999995,-0.137209,-0.033806,-0.034008,-0.036522000000000006,,,,,,,,,,,,,,,,,,,,,,,,,,,,,,,,,,,,,,,,,,,,,,,,,,,,,,,,,,,,,,,,,
28298,1645817501.9114392,1645817501.9573288,27.0,0.0,4311.794922,4317.436035,4236.922852000001,4325.641113000001,4253.333496,0.0,1.0,15.0,,,,0.0,4.0,0.0,4.0,0.0,4.0,33.333332,,,,,,,,,,,,,,,,,,,,,,,,,,,,,,,,,,,,,,,,,,,,,,,,,,,,,,0.0,0.0,1.0,0.0,512.0,1.0,,,,,,,,,,,,,,,,,,,,,,,,,
28299,1645817501.919252,1645817501.965143,28.0,0.0,4362.05127,4508.717772999999,4218.974121,4304.102539,4286.153809,0.0,1.0,15.0,,,,0.0,4.0,0.0,4.0,0.0,4.0,33.333332,,,,,,,,14.0,0.0,0.057611,0.61792,-0.23120100000000002,-0.749268,0.900893,-0.424811,-0.126467,-0.033795,-0.034026,-0.038339,,,,,,,,,,,,,,,,,,,,,,,,,,,,,,,,,,,,,,,,,,,,,,,,,,,,,,,,,,,,,,,,,
28300,1645817501.9270651,1645817501.972958,29.0,0.0,4297.436035,4736.922852000001,4145.641113000001,4228.717772999999,4316.922852000001,0.0,1.0,15.0,,,,0.0,4.0,0.0,4.0,0.0,4.0,33.333332,,,,,,,,,,,,,,,,,,,,,,,,,,,,,,,,,,,,,,,,,,,,,,,,,,,,,,,,,,,,,,,,,,,,,,,,,,,,,,,,,,,,
28301,1645817501.9348788,1645817501.980772,30.0,0.0,4293.846191,4536.922852000001,4171.794922,4236.922852000001,4273.333496,0.0,1.0,15.0,,,,0.0,4.0,0.0,4.0,0.0,4.0,33.333332,,,,,,,,15.0,0.0,0.054342999999999995,0.61792,-0.23120100000000002,-0.749512,0.908217,-0.420417,-0.13379100000000002,-0.033783999999999995,-0.033992,-0.040022,,,,,,,,,,,,,,,,,,,,,,,,,,,,,,,,,,,,,,,,,,,,,,,,,,,,,,,,,,,,,,,,,
28302,1645817501.942692,1645817501.988587,31.0,0.0,4374.871582,4619.487305,4199.487305,4250.769043,4286.153809,0.0,1.0,15.0,,,,0.0,4.0,0.0,4.0,0.0,4.0,33.333332,,,,,,,,,,,,,,,,,,,,1.0,0.0,0.0,,,,,,,,,,,,,,,,,,,,,,,,,,,,,,,,0.0,0.0,1.0,0.0,512.0,1.0,4.374436,3.3802190000000003,4.600238,6.3178589999999994,11.140503,69.888634,41.189316,75.26673100000001,230.886246,226.90103100000002,5.291819,1.471509,6.7763919999999995,17.078878,6.461522,6.212786,5.0572919999999995,3.4146400000000003,34.702754999999996,18.741264,2.827918,3.002879,2.174423,3.9072459999999998,9.282924000000001
28303,1645817501.950506,1645817501.996401,32.0,0.0,4337.94873,4670.769043,4198.974121,4305.641113000001,4298.974121,0.0,1.0,15.0,,,,0.0,4.0,0.0,4.0,0.0,4.0,33.333332,,,,,,,,16.0,0.0,0.057611,0.61792,-0.23120100000000002,-0.749268,0.900893,-0.424811,-0.126467,-0.033775,-0.034011,-0.041489,,,,,,,,,,,,,,,,,,,,,,,,,,,,,,,,,,,,,,,,,,,,,,,,,,,,,,,,,,,,,,,,,
28304,1645817501.958319,1645817502.004216,33.0,0.0,4292.307617,4483.589844,4217.436035,4341.538574,4269.230957,0.0,1.0,15.0,,,,0.0,4.0,0.0,4.0,0.0,4.0,33.333332,,,,,,,,,,,,,,,,,,,,,,,,,,,,,,,,,,,,,,,,,,,,,,,,,,,,,,,,,,,,,,,,,,,,,,,,,,,,,,,,,,,,
28305,1645817501.966132,1645817502.0120301,34.0,0.0,4320.512695,4610.256348,4194.871582,4266.666504,4309.743652,0.0,1.0,15.0,,,,0.0,4.0,0.0,4.0,0.0,4.0,33.333332,,,,,,,,17.0,0.0,0.05492999999999999,0.618164,-0.23120100000000002,-0.749268,0.9077290000000001,-0.417975,-0.13281500000000002,-0.033864,-0.033979,-0.036461,,,,,,,,,,,,,,,,,,,,,,,,,,,,,,,,,,,,,,,,,,,,,,,,,,,,,,,,,,,,,,,,,
28306,1645817501.973946,1645817502.019844,35.0,0.0,4332.820313,4718.974121,4173.846191,4224.102539,4346.666504,0.0,1.0,15.0,,,,0.0,4.0,0.0,4.0,0.0,4.0,33.333332,,,,,,,,,,,,,,,,,,,,,,,,,,,,,,,,,,,,,,,,,,,,,,,,,,,,,,0.0,0.0,1.0,0.0,512.0,1.0,,,,,,,,,,,,,,,,,,,,,,,,,
28307,1645817501.981759,1645817502.027559,36.0,0.0,4348.205078,4614.871582,4202.05127,4233.846191,4308.717772999999,0.0,1.0,15.0,,,,0.0,4.0,0.0,4.0,0.0,4.0,33.333332,,,,,,,,18.0,0.0,0.05492999999999999,0.618164,-0.23120100000000002,-0.749268,0.903334,-0.41944,-0.137209,-0.033895999999999996,-0.033999,-0.038235000000000005,,,,,,,,,,,,,,,,,,,,,,,,,,,,,,,,,,,,,,,,,,,,,,,,,,,,,,,,,,,,,,,,,
28308,1645817501.989572,1645817502.035373,37.0,0.0,4356.410156,4658.461426,4220.0,4240.0,4288.205078,0.0,1.0,15.0,,,,0.0,4.0,0.0,4.0,0.0,4.0,33.333332,,,,,,,,,,,,,,,,,,,,,,,,,,,,,,,,,,,,,,,,,,,,,,,,,,,,,,,,,,,,,,,,,,,,,,,,,,,,,,,,,,,,
28309,1645817501.997386,1645817502.043188,38.0,0.0,4309.743652,4506.666504,4227.179688,4321.025879,4269.230957,0.0,1.0,15.0,,,,0.0,4.0,0.0,4.0,0.0,4.0,33.333332,,,,,,,,19.0,0.0,0.05492999999999999,0.618164,-0.23120100000000002,-0.749268,0.906752,-0.431647,-0.133303,-0.033729,-0.034066,-0.033533,,,,,,,,,,,,,,,,,,,,,,,,,,,,,,,,,,,,,,,,,,,,,,,,,,,,,,,,,,,,,,,,,
28310,1645817502.005199,1645817502.051002,39.0,0.0,4315.897461,4392.307617,4212.820313,4332.820313,4266.153809,0.0,1.0,15.0,,,,0.0,4.0,0.0,4.0,0.0,4.0,33.333332,,,,,,,,,,,,,,,,,,,,,,,,,,,,,,,,,,,,,,,,,,,,,,,,,,,,,,0.0,0.0,1.0,0.0,512.0,1.0,,,,,,,,,,,,,,,,,,,,,,,,,
28311,1645817502.0130131,1645817502.058816,40.0,0.0,4337.94873,4738.974121,4142.05127,4209.743652,4332.820313,0.0,1.0,15.0,,,,0.0,4.0,0.0,4.0,0.0,4.0,33.333332,,,,,,,,20.0,0.0,0.055948000000000005,0.618164,-0.23095700000000002,-0.749268,0.9091940000000001,-0.424811,-0.130373,-0.033677,-0.034029000000000004,-0.035648,,,,,,,,,,,,,,,,,,,,,,,,,,,,,,,,,,,,,,,,,,,,,,,,,,,,,,,,,,,,,,,,,
28312,1645817502.0208259,1645817502.066631,41.0,0.0,4304.102539,4678.461426,4152.307617,4229.743652,4332.820313,0.0,1.0,15.0,,,,0.0,4.0,0.0,4.0,0.0,4.0,33.333332,,,,,,,,,,,,,,,,,,,,,,,,,,,,,,,,,,,,,,,,,,,,,,,,,,,,,,,,,,,,,,,,,,,,,,,,,,,,,,,,,,,,
28313,1645817502.028639,1645817502.074445,42.0,0.0,4337.436035,4291.282227000001,4242.563965,4345.128418,4242.05127,0.0,1.0,15.0,,,,0.0,4.0,0.0,4.0,0.0,4.0,33.333332,,,,,,,,21.0,0.0,0.055948000000000005,0.618164,-0.23095700000000002,-0.749268,0.901381,-0.41895200000000005,-0.141604,-0.033629,-0.033897000000000004,-0.031301999999999996,,,,,,,,,,,,,,,,,,,,,,,,,,,,,,,,,,,,,,,,,,,,,,,,,,,,,,,,,,,,,,,,,
28314,1645817502.036453,1645817502.08226,43.0,0.0,4374.871582,4525.128418,4207.179688,4288.205078,4265.128418,0.0,1.0,15.0,,,,0.0,4.0,0.0,4.0,0.0,4.0,33.333332,,,,,,,,,,,,,,,,,,,,,,,,,,,,,,,,,,,,,,,,,,,,,,,,,,,,,,0.0,0.0,1.0,0.0,512.0,1.0,,,,,,,,,,,,,,,,,,,,,,,,,
28315,1645817502.044266,1645817502.090074,44.0,0.0,4307.692383,4702.563965,4132.307617,4206.153809,4340.0,0.0,1.0,15.0,,,,0.0,4.0,0.0,4.0,0.0,4.0,33.333332,,,,,,,,22.0,0.0,0.055948000000000005,0.618164,-0.23095700000000002,-0.749268,0.898451,-0.42969399999999996,-0.140139,-0.033636,-0.03373,-0.033494,,,,,,,,,,,,,,,,,,,,,,,,,,,,,,,,,,,,,,,,,,,,,,,,,,,,,,,,,,,,,,,,,
28316,1645817502.0520802,1645817502.097889,45.0,0.0,4313.333496,4521.025879,4162.563965,4233.846191,4303.589844,0.0,1.0,15.0,,,,0.0,4.0,0.0,4.0,0.0,4.0,33.333332,,,,,,,,,,,,,,,,,,,,,,,,,,,,,,,,,,,,,,,,,,,,,,,,,,,,,,,,,,,,,,,,,,,,,,,,,,,,,,,,,,,,
28317,1645817502.059893,1645817502.105603,46.0,0.0,4393.333496,4733.333496,4175.384765999999,4230.769043,4275.384765999999,0.0,1.0,15.0,,,,0.0,4.0,0.0,4.0,0.0,4.0,33.333332,,,,,,,,23.0,0.0,0.056946000000000004,0.618164,-0.230713,-0.749268,0.910658,-0.424811,-0.138186,-0.033641000000000004,-0.033873,-0.029314999999999997,,,,,,,,,,,,,,,,,,,,,,,,,,,,,,,,,,,,,,,,,,,,,,,,,,,,,,,,,,,,,,,,,
28318,1645817502.067706,1645817502.113417,47.0,0.0,4345.641113000001,4760.512695,4160.512695,4261.025879,4287.692383,0.0,1.0,15.0,,,,0.0,4.0,0.0,4.0,0.0,4.0,33.333332,,,,,,,,,,,,,,,,,,,,1.0,0.0,0.0,,,,,,,,,,,,,,,,,,,,,,,,,,,,,,,,0.0,0.0,1.0,0.0,512.0,1.0,2.8315040000000002,2.935551,4.88638,6.735303999999999,9.542069,56.701603000000006,42.607227,66.048912,252.42944300000002,186.090347,4.592,0.99972,7.030746000000001,17.646573999999998,5.555007,4.968338,3.897994,3.268184,38.131733000000004,16.416431,2.725342,3.5403879999999996,2.3162220000000002,3.9828129999999997,8.058284
28319,1645817502.07552,1645817502.121232,48.0,0.0,4291.282227000001,4351.282227000001,4192.307617,4337.94873,4262.563965,0.0,1.0,15.0,,,,0.0,4.0,0.0,4.0,0.0,4.0,33.333332,,,,,,,,24.0,0.0,0.054230999999999994,0.618408,-0.230713,-0.749268,0.913588,-0.41846300000000003,-0.12549000000000002,-0.033694999999999996,-0.033855,-0.031852,,,,,,,,,,,,,,,,,,,,,,,,,,,,,,,,,,,,,,,,,,,,,,,,,,,,,,,,,,,,,,,,,
28320,1645817502.083333,1645817502.1290462,49.0,0.0,4349.743652,4532.307617,4173.333496,4275.897461,4274.871582,0.0,1.0,15.0,,,,0.0,4.0,0.0,4.0,0.0,4.0,33.333332,,,,,,,,,,,,,,,,,,,,,,,,,,,,,,,,,,,,,,,,,,,,,,,,,,,,,,,,,,,,,,,,,,,,,,,,,,,,,,,,,,,,
28321,1645817502.0911472,1645817502.1368608,50.0,0.0,4359.487305,4876.922852000001,4115.384765999999,4170.769043,4315.897461,0.0,1.0,15.0,,,,0.0,4.0,0.0,4.0,0.0,4.0,33.333332,,,,,,,,25.0,0.0,0.055259,0.618408,-0.230469,-0.749268,0.91017,-0.433112,-0.12842,-0.033792,-0.033936,-0.034038,,,,,,,,,,,,,,,,,,,,,,,,,,,,,,,,,,,,,,,,,,,,,,,,,,,,,,,,,,,,,,,,,
28322,1645817502.09896,1645817502.144675,51.0,0.0,4324.102539,4566.666504,4157.94873,4218.974121,4273.333496,0.0,1.0,15.0,,,,0.0,4.0,0.0,4.0,0.0,4.0,33.333332,,,,,,,,,,,,,,,,,,,,,,,,,,,,,,,,,,,,,,,,,,,,,,,,,,,,,,0.0,0.0,1.0,0.0,512.0,1.0,,,,,,,,,,,,,,,,,,,,,,,,,
28323,1645817502.106774,1645817502.152489,52.0,0.0,4349.230957,4424.102539,4213.333496,4291.282227000001,4247.692383,0.0,1.0,15.0,,,,0.0,4.0,0.0,4.0,0.0,4.0,33.333332,,,,,,,,26.0,0.0,0.055259,0.618408,-0.230469,-0.749268,0.906752,-0.424811,-0.121584,-0.033782,-0.034009,-0.029755,,,,,,,,,,,,,,,,,,,,,,,,,,,,,,,,,,,,,,,,,,,,,,,,,,,,,,,,,,,,,,,,,
28324,1645817502.1145868,1645817502.1603038,53.0,0.0,4325.128418,4654.358886999999,4170.256348,4265.641113000001,4288.205078,0.0,1.0,15.0,,,,0.0,4.0,0.0,4.0,0.0,4.0,33.333332,,,,,,,,,,,,,,,,,,,,,,,,,,,,,,,,,,,,,,,,,,,,,,,,,,,,,,,,,,,,,,,,,,,,,,,,,,,,,,,,,,,,
28325,1645817502.1224,1645817502.168118,54.0,0.0,4293.333496,4506.153809,4160.512695,4249.230957,4280.512695,0.0,1.0,15.0,,,,0.0,4.0,0.0,4.0,0.0,4.0,33.333332,,,,,,,,27.0,0.0,0.055259,0.618408,-0.230469,-0.749268,0.9043110000000001,-0.425299,-0.136721,-0.033969,-0.034026999999999995,-0.032053,,,,,,,,,,,,,,,,,,,,,,,,,,,,,,,,,,,,,,,,,,,,,,,,,,,,,,,,,,,,,,,,,
28326,1645817502.130214,1645817502.175833,55.0,0.0,4375.897461,4417.436035,4216.922852000001,4254.358886999999,4272.307617,0.0,1.0,15.0,,,,0.0,4.0,0.0,4.0,0.0,4.0,33.333332,,,,,,,,,,,,,,,,,,,,,,,,,,,,,,,,,,,,,,,,,,,,,,,,,,,,,,0.0,0.0,1.0,0.0,512.0,1.0,,,,,,,,,,,,,,,,,,,,,,,,,
28327,1645817502.138027,1645817502.1836472,56.0,0.0,4396.410156,4674.871582,4221.538574,4258.461426,4315.897461,0.0,1.0,15.0,,,,0.0,4.0,0.0,4.0,0.0,4.0,33.333332,,,,,,,,28.0,0.0,0.055259,0.618408,-0.230469,-0.749268,0.904799,-0.423346,-0.137697,-0.033941000000000006,-0.033944,-0.034219,,,,,,,,,,,,,,,,,,,,,,,,,,,,,,,,,,,,,,,,,,,,,,,,,,,,,,,,,,,,,,,,,
28328,1645817502.1458411,1645817502.1914618,57.0,0.0,4289.743652,4569.230957,4191.794922,4289.743652,4294.871582,0.0,1.0,15.0,,,,0.0,4.0,0.0,4.0,0.0,4.0,33.333332,,,,,,,,,,,,,,,,,,,,,,,,,,,,,,,,,,,,,,,,,,,,,,,,,,,,,,,,,,,,,,,,,,,,,,,,,,,,,,,,,,,,
28329,1645817502.1536539,1645817502.199276,58.0,0.0,4303.589844,4390.769043,4177.436035,4281.025879,4254.358886999999,0.0,1.0,15.0,,,,0.0,4.0,0.0,4.0,0.0,4.0,33.333332,,,,,,,,29.0,0.0,0.056267,0.618408,-0.230225,-0.749268,0.901381,-0.41895200000000005,-0.133303,-0.033818,-0.033919,-0.029967,,,,,,,,,,,,,,,,,,,,,,,,,,,,,,,,,,,,,,,,,,,,,,,,,,,,,,,,,,,,,,,,,
28330,1645817502.161467,1645817502.2070901,59.0,0.0,4388.717772999999,4711.282227000001,4137.436035,4227.692383,4294.871582,0.0,1.0,15.0,,,,0.0,4.0,0.0,4.0,0.0,4.0,33.333332,,,,,,,,,,,,,,,,,,,,,,,,,,,,,,,,,,,,,,,,,,,,,,,,,,,,,,0.0,0.0,1.0,0.0,512.0,1.0,,,,,,,,,,,,,,,,,,,,,,,,,
28331,1645817502.169281,1645817502.214905,60.0,0.0,4346.153809,4753.846191,4144.102539,4264.102539,4295.897461,0.0,1.0,15.0,,,,0.0,4.0,0.0,4.0,0.0,4.0,33.333332,,,,,,,,30.0,0.0,0.053515999999999994,0.6186520000000001,-0.230225,-0.749268,0.9087049999999999,-0.422858,-0.134279,-0.033855,-0.033799,-0.026188999999999997,,,,,,,,,,,,,,,,,,,,,,,,,,,,,,,,,,,,,,,,,,,,,,,,,,,,,,,,,,,,,,,,,
28332,1645817502.177094,1645817502.222719,61.0,0.0,4318.461426,4430.769043,4208.717772999999,4323.077147999999,4254.358886999999,0.0,1.0,15.0,,,,0.0,4.0,0.0,4.0,0.0,4.0,33.333332,,,,,,,,,,,,,,,,,,,,,,,,,,,,,,,,,,,,,,,,,,,,,,,,,,,,,,,,,,,,,,,,,,,,,,,,,,,,,,,,,,,,
28333,1645817502.184908,1645817502.230534,62.0,0.0,4363.077147999999,4554.358886999999,4193.846191,4270.769043,4305.128418,0.0,1.0,15.0,,,,0.0,4.0,0.0,4.0,0.0,4.0,33.333332,,,,,,,,31.0,0.0,0.053515999999999994,0.6186520000000001,-0.230225,-0.749268,0.909682,-0.42236999999999997,-0.141604,-0.033985,-0.03369,-0.028893000000000002,,,,,,,,,,,,,,,,,,,,,,,,,,,,,,,,,,,,,,,,,,,,,,,,,,,,,,,,,,,,,,,,,
28334,1645817502.1927211,1645817502.238348,63.0,0.0,4340.0,4701.538574,4148.205078,4206.153809,4344.102539,0.0,1.0,15.0,,,,0.0,4.0,0.0,4.0,0.0,4.0,33.333332,0.972656,8.333333,1.0,0.0,1.0,0.0,1.0,,,,,,,,,,,,,1.0,0.0,0.0,,,,,,,,,,,,,,,,,,,,,,,,,,,,,,,,0.0,0.0,1.0,0.0,512.0,1.0,1.8527080000000002,2.862638,5.068944999999999,7.057579,8.256947,41.534409000000004,44.034023,54.356926,253.65976,153.77758799999998,3.903239,1.01223,7.155406,17.140003,4.837345,3.629197,3.028693,2.952091,39.197151,14.209722,2.678584,3.939223,2.555609,4.174554,6.9705
28335,1645817502.2005339,1645817502.246063,64.0,0.0,4331.282227000001,4566.666504,4179.487305,4209.230957,4291.794922,450.0,1.0,15.0,,,,0.0,4.0,0.0,4.0,0.0,4.0,33.333332,,,,,,,,32.0,0.0,0.052454999999999995,0.6186520000000001,-0.230469,-0.749268,0.898451,-0.408698,-0.137209,-0.033956,-0.033642,-0.031375,,,,,,,,,,,,,,,,,,,,,,,,,,,,,,,,,,,,,,,,,,,,,,,,,,,,,,,,,,,,,,,,,
28336,1645817502.208348,1645817502.253877,65.0,0.0,4360.0,4661.538574,4184.102539,4248.205078,4266.666504,450.0,1.0,15.0,,,,0.0,4.0,0.0,4.0,0.0,4.0,33.333332,,,,,,,,,,,,,,,,,,,,,,,,,,,,,,,,,,,,,,,,,,,,,,,,,,,,,,,,,,,,,,,,,,,,,,,,,,,,,,,,,,,,
28337,1645817502.216161,1645817502.261691,66.0,0.0,4313.846191,4615.897461,4174.871582,4333.846191,4258.974121,16162.0,1.0,15.0,,,,0.0,4.0,0.0,4.0,0.0,4.0,33.333332,,,,,,,,33.0,0.0,0.055833,0.6186520000000001,-0.230469,-0.749023,0.9087049999999999,-0.416022,-0.13281500000000002,-0.033929,-0.033647,-0.033657,,,,,,,,,,,,,,,,,,,,,,,,,,,,,,,,,,,,,,,,,,,,,,,,,,,,,,,,,,,,,,,,,
28338,1645817502.223975,1645817502.269506,67.0,0.0,4278.974121,4375.897461,4198.974121,4345.641113000001,4242.563965,450.0,1.0,15.0,,,,0.0,4.0,0.0,4.0,0.0,4.0,33.333332,,,,,,,,,,,,,,,,,,,,,,,,,,,,,,,,,,,,,,,,,,,,,,,,,,,,,,0.0,0.0,1.0,0.0,512.0,1.0,,,,,,,,,,,,,,,,,,,,,,,,,
28339,1645817502.2317882,1645817502.27732,68.0,0.0,4308.717772999999,4603.589844,4165.128418,4241.025879,4296.922852000001,2.0,1.0,15.0,,,,0.0,4.0,0.0,4.0,0.0,4.0,33.333332,,,,,,,,34.0,0.0,0.055833,0.6186520000000001,-0.230469,-0.749023,0.9116350000000001,-0.41992799999999997,-0.129397,-0.033857,-0.0337,-0.029559,,,,,,,,,,,,,,,,,,,,,,,,,,,,,,,,,,,,,,,,,,,,,,,,,,,,,,,,,,,,,,,,,
28340,1645817502.239601,1645817502.285135,69.0,0.0,4333.846191,4686.666504,4162.05127,4242.05127,4331.794922,450.0,1.0,15.0,,,,0.0,4.0,0.0,4.0,0.0,4.0,33.333332,,,,,,,,,,,,,,,,,,,,,,,,,,,,,,,,,,,,,,,,,,,,,,,,,,,,,,,,,,,,,,,,,,,,,,,,,,,,,,,,,,,,
28341,1645817502.247415,1645817502.292949,70.0,0.0,4368.205078,4376.410156,4224.102539,4308.717772999999,4266.666504,16141.0,1.0,15.0,,,,0.0,4.0,0.0,4.0,0.0,4.0,33.333332,,,,,,,,35.0,0.0,0.054814999999999996,0.6186520000000001,-0.230713,-0.749023,0.917006,-0.409674,-0.14648699999999998,-0.033888999999999996,-0.033602,-0.031974,,,,,,,,,,,,,,,,,,,,,,,,,,,,,,,,,,,,,,,,,,,,,,,,,,,,,,,,,,,,,,,,,
28342,1645817502.255228,1645817502.3007631,71.0,0.0,4372.307617,4486.666504,4216.410156,4268.205078,4253.846191,450.0,1.0,15.0,,,,0.0,4.0,0.0,4.0,0.0,4.0,33.333332,,,,,,,,,,,,,,,,,,,,,,,,,,,,,,,,,,,,,,,,,,,,,,,,,,,,,,0.0,0.0,1.0,0.0,512.0,1.0,,,,,,,,,,,,,,,,,,,,,,,,,
28343,1645817502.263042,1645817502.308578,72.0,0.0,4324.102539,4606.666504,4197.436035,4275.897461,4292.307617,450.0,1.0,15.0,,,,0.0,4.0,0.0,4.0,0.0,4.0,33.333332,,,,,,,,36.0,0.0,0.054814999999999996,0.6186520000000001,-0.230713,-0.749023,0.906752,-0.427253,-0.136233,-0.033918000000000004,-0.033611,-0.027995999999999997,,,,,,,,,,,,,,,,,,,,,,,,,,,,,,,,,,,,,,,,,,,,,,,,,,,,,,,,,,,,,,,,,
28344,1645817502.2708552,1645817502.316292,73.0,0.0,4350.769043,4507.692383,4211.282227000001,4304.102539,4309.743652,50.0,1.0,15.0,,,,0.0,4.0,0.0,4.0,1.0,4.0,41.666668,,,,,,,,,,,,,,,,,,,,,,,,,,,,,,,,,,,,,,,,,,,,,,,,,,,,,,,,,,,,,,,,,,,,,,,,,,,,,,,,,,,,
28345,1645817502.278668,1645817502.324107,74.0,0.0,4371.282227000001,4664.102539,4165.641113000001,4238.461426,4329.743652,450.0,1.0,15.0,,,,0.0,4.0,0.0,4.0,1.0,4.0,41.666668,,,,,,,,37.0,0.0,0.056516,0.618408,-0.23095700000000002,-0.749023,0.8994280000000001,-0.42920600000000003,-0.13281500000000002,-0.033847,-0.033569999999999996,-0.030616,,,,,,,,,,,,,,,,,,,,,,,,,,,,,,,,,,,,,,,,,,,,,,,,,,,,,,,,,,,,,,,,,
28346,1645817502.286482,1645817502.331921,75.0,0.0,4333.333496,4643.077147999999,4171.282227000001,4251.282227000001,4321.025879,16202.0,1.0,15.0,,,,0.0,4.0,0.0,4.0,1.0,4.0,41.666668,,,,,,,,,,,,,,,,,,,,,,,,,,,,,,,,,,,,,,,,,,,,,,,,,,,,,,0.0,0.0,1.0,0.0,512.0,1.0,,,,,,,,,,,,,,,,,,,,,,,,,
28347,1645817502.2942948,1645817502.339736,76.0,0.0,4364.102539,4485.641113000001,4230.256348,4303.077147999999,4291.794922,450.0,1.0,15.0,,,,0.0,4.0,0.0,4.0,1.0,4.0,41.666668,,,,,,,,38.0,0.0,0.056516,0.618408,-0.23095700000000002,-0.749023,0.894057,-0.423346,-0.135744,-0.033977999999999994,-0.033484,-0.026724,,,,,,,,,,,,,,,,,,,,,,,,,,,,,,,,,,,,,,,,,,,,,,,,,,,,,,,,,,,,,,,,,
28348,1645817502.302109,1645817502.34755,77.0,0.0,4369.743652,4656.410156,4198.461426,4271.794922,4300.0,450.0,1.0,15.0,,,,0.0,4.0,0.0,4.0,1.0,4.0,41.666668,,,,,,,,,,,,,,,,,,,,,,,,,,,,,,,,,,,,,,,,,,,,,,,,,,,,,,,,,,,,,,,,,,,,,,,,,,,,,,,,,,,,
28349,1645817502.309922,1645817502.355364,78.0,0.0,4318.461426,4659.487305,4187.692383,4271.282227000001,4302.563965,450.0,1.0,15.0,,,,0.0,4.0,0.0,4.0,1.0,4.0,41.666668,,,,,,,,39.0,0.0,0.05318099999999999,0.618408,-0.23095700000000002,-0.749268,0.8994280000000001,-0.423346,-0.12695499999999998,-0.033998,-0.033554,-0.029521,,,,,,,,,,,,,,,,,,,,,,,,,,,,,,,,,,,,,,,,,,,,,,,,,,,,,,,,,,,,,,,,,
28350,1645817502.317735,1645817502.363179,79.0,0.0,4342.563965,4559.487305,4210.769043,4277.94873,4291.282227000001,16202.0,1.0,15.0,,,,0.0,4.0,0.0,4.0,1.0,4.0,41.666668,,,,,,,,,,,,,,,,,,,,1.0,0.0,0.0,,,,,,,,,,,,,,,,,,,,,,,,,,,,,,,,0.0,0.0,1.0,0.0,512.0,1.0,1.420579,3.069922,5.14197,7.23002,7.286589,28.223627,44.310223,42.244663,236.51695299999997,133.23613,3.429641,1.372636,7.082125,15.752324,4.370717,2.55387,2.501531,2.592304,38.212975,12.576278,2.6432599999999997,4.054130000000001,2.793575,4.564348000000001,6.22285
28351,1645817502.3255491,1645817502.370993,80.0,0.0,4358.461426,4716.922852000001,4164.102539,4208.205078,4291.282227000001,450.0,1.0,15.0,,,,0.0,4.0,0.0,4.0,1.0,4.0,41.666668,,,,,,,,40.0,0.0,0.055509,0.618408,-0.23120100000000002,-0.749023,0.917983,-0.420417,-0.132326,-0.034016000000000005,-0.033519,-0.031989,,,,,,,,,,,,,,,,,,,,,,,,,,,,,,,,,,,,,,,,,,,,,,,,,,,,,,,,,,,,,,,,,
28352,1645817502.3333619,1645817502.378808,81.0,0.0,4321.025879,4638.974121,4167.692383,4226.153809,4258.974121,450.0,1.0,15.0,,,,0.0,4.0,0.0,4.0,1.0,4.0,41.666668,,,,,,,,,,,,,,,,,,,,,,,,,,,,,,,,,,,,,,,,,,,,,,,,,,,,,,,,,,,,,,,,,,,,,,,,,,,,,,,,,,,,
28353,1645817502.341176,1645817502.386622,82.0,0.0,4339.487305,4534.871582,4211.794922,4294.358886999999,4251.282227000001,450.0,1.0,15.0,,,,0.0,4.0,0.0,4.0,1.0,4.0,41.666668,,,,,,,,41.0,0.0,0.053891999999999995,0.618164,-0.23144499999999998,-0.749268,0.9160299999999999,-0.422858,-0.134768,-0.034033,-0.033389999999999996,-0.034259,,,,,,,,,,,,,,,,,,,,,,,,,,,,,,,,,,,,,,,,,,,,,,,,,,,,,,,,,,,,,,,,,
28354,1645817502.348989,1645817502.394337,83.0,0.0,4337.94873,4640.0,4189.743652,4283.077147999999,4292.820313,16202.0,1.0,15.0,,,,0.0,4.0,0.0,4.0,1.0,4.0,41.666668,,,,,,,,,,,,,,,,,,,,,,,,,,,,,,,,,,,,,,,,,,,,,,,,,,,,,,0.0,0.0,1.0,0.0,512.0,1.0,,,,,,,,,,,,,,,,,,,,,,,,,
28355,1645817502.356802,1645817502.4021509,84.0,0.0,4316.410156,4564.615234000001,4176.922852000001,4253.333496,4303.077147999999,450.0,1.0,15.0,,,,0.0,4.0,0.0,4.0,1.0,4.0,41.666668,,,,,,,,42.0,0.0,0.056188,0.618164,-0.23168899999999998,-0.749023,0.913588,-0.425299,-0.142092,-0.034047,-0.033469,-0.029856,,,,,,,,,,,,,,,,,,,,,,,,,,,,,,,,,,,,,,,,,,,,,,,,,,,,,,,,,,,,,,,,,
28356,1645817502.364616,1645817502.409965,85.0,0.0,4360.0,4656.410156,4174.871582,4222.05127,4318.974121,450.0,1.0,15.0,,,,0.0,4.0,0.0,4.0,1.0,4.0,41.666668,,,,,,,,,,,,,,,,,,,,,,,,,,,,,,,,,,,,,,,,,,,,,,,,,,,,,,,,,,,,,,,,,,,,,,,,,,,,,,,,,,,,
28357,1645817502.372429,1645817502.4177802,86.0,0.0,4372.820313,4789.743652,4171.794922,4229.743652,4338.461426,450.0,1.0,15.0,,,,0.0,4.0,0.0,4.0,1.0,4.0,41.666668,,,,,,,,43.0,0.0,0.055509,0.618408,-0.23120100000000002,-0.749023,0.917983,-0.420417,-0.132326,-0.034061,-0.033442,-0.032291,,,,,,,,,,,,,,,,,,,,,,,,,,,,,,,,,,,,,,,,,,,,,,,,,,,,,,,,,,,,,,,,,
28358,1645817502.380242,1645817502.4255939,87.0,0.0,4353.846191,4471.282227000001,4221.538574,4299.487305,4271.794922,16202.0,1.0,15.0,,,,0.0,4.0,0.0,4.0,1.0,4.0,41.666668,,,,,,,,,,,,,,,,,,,,,,,,,,,,,,,,,,,,,,,,,,,,,,,,,,,,,,0.0,0.0,1.0,0.0,512.0,1.0,,,,,,,,,,,,,,,,,,,,,,,,,
28359,1645817502.388056,1645817502.433409,88.0,0.0,4365.128418,4367.179688,4229.230957,4301.025879,4258.461426,450.0,1.0,15.0,,,,0.0,4.0,0.0,4.0,1.0,4.0,41.666668,,,,,,,,44.0,0.0,0.056188,0.618164,-0.23168899999999998,-0.749023,0.913588,-0.425299,-0.142092,-0.034073,-0.033516000000000004,-0.028085000000000002,,,,,,,,,,,,,,,,,,,,,,,,,,,,,,,,,,,,,,,,,,,,,,,,,,,,,,,,,,,,,,,,,
28360,1645817502.395869,1645817502.4412231,89.0,0.0,4339.487305,4612.820313,4178.461426,4234.358886999999,4336.410156,450.0,1.0,15.0,,,,0.0,4.0,0.0,4.0,1.0,4.0,41.666668,,,,,,,,,,,,,,,,,,,,,,,,,,,,,,,,,,,,,,,,,,,,,,,,,,,,,,,,,,,,,,,,,,,,,,,,,,,,,,,,,,,,
28361,1645817502.403683,1645817502.4490368,90.0,0.0,4337.436035,4708.717772999999,4168.205078,4197.436035,4341.538574,450.0,1.0,15.0,,,,0.0,4.0,0.0,4.0,1.0,4.0,41.666668,,,,,,,,45.0,0.0,0.057842,0.61792,-0.231934,-0.749023,0.9052870000000001,-0.416022,-0.13086099999999998,-0.034082999999999995,-0.033583,-0.024544,,,,,,,,,,,,,,,,,,,,,,,,,,,,,,,,,,,,,,,,,,,,,,,,,,,,,,,,,,,,,,,,,
28362,1645817502.4114962,1645817502.456852,91.0,0.0,4380.0,4743.077147999999,4163.077147999999,4196.410156,4304.615234000001,16202.0,1.0,15.0,,,,0.0,4.0,0.0,4.0,1.0,4.0,41.666668,,,,,,,,,,,,,,,,,,,,,,,,,,,,,,,,,,,,,,,,,,,,,,,,,,,,,,0.0,0.0,1.0,0.0,512.0,1.0,,,,,,,,,,,,,,,,,,,,,,,,,
28363,1645817502.4193099,1645817502.4646661,92.0,0.0,4389.230957,4655.897461,4175.897461,4243.077147999999,4312.307617,450.0,1.0,15.0,,,,0.0,4.0,0.0,4.0,1.0,4.0,41.666668,,,,,,,,46.0,0.0,0.054588,0.61792,-0.231934,-0.749268,0.901869,-0.42627600000000004,-0.13281500000000002,-0.034044,-0.033593,-0.027558,,,,,,,,,,,,,,,,,,,,,,,,,,,,,,,,,,,,,,,,,,,,,,,,,,,,,,,,,,,,,,,,,
28364,1645817502.427123,1645817502.472381,93.0,0.0,4403.077147999999,4474.358886999999,4223.077147999999,4309.743652,4322.563965,450.0,1.0,15.0,,,,0.0,4.0,0.0,4.0,1.0,4.0,41.666668,,,,,,,,,,,,,,,,,,,,,,,,,,,,,,,,,,,,,,,,,,,,,,,,,,,,,,,,,,,,,,,,,,,,,,,,,,,,,,,,,,,,
28365,1645817502.434936,1645817502.4801948,94.0,0.0,4446.153809,4486.153809,4232.820313,4331.282227000001,4326.666504,450.0,1.0,15.0,,,,0.0,4.0,0.0,4.0,1.0,4.0,41.666668,,,,,,,,47.0,0.0,0.056853999999999995,0.61792,-0.23217800000000002,-0.749023,0.89015,-0.42969399999999996,-0.127443,-0.034107,-0.033602999999999994,-0.023924,,,,,,,,,,,,,,,,,,,,,,,,,,,,,,,,,,,,,,,,,,,,,,,,,,,,,,,,,,,,,,,,,
28366,1645817502.44275,1645817502.48801,95.0,0.0,4504.615234000001,4558.974121,4215.384765999999,4311.794922,4367.179688,16202.0,1.0,15.0,,,,0.0,4.0,0.0,4.0,1.0,4.0,41.666668,,,,,,,,,,,,,,,,,,,,1.0,0.0,0.0,,,,,,,,,,,,,,,,,,,,,,,,,,,,,,,,0.0,0.0,1.0,0.0,512.0,1.0,1.3561239999999999,3.388755,5.107094,7.152609,6.6804440000000005,18.90029,43.167938,31.5821,207.43090800000002,125.83944699999999,3.261766,1.8484479999999999,6.7313279999999995,13.857023000000002,4.239573,1.9066,2.1935990000000003,2.343512,35.83012,11.863068,2.577433,3.852291,2.9245,5.143239,5.935212
28367,1645817502.4505632,1645817502.495824,96.0,0.0,4583.077147999999,4512.820313,4220.0,4293.846191,4417.436035,450.0,1.0,15.0,,,,0.0,4.0,0.0,4.0,1.0,4.0,41.666668,,,,,,,,48.0,0.0,0.056853999999999995,0.61792,-0.23217800000000002,-0.749023,0.9155409999999999,-0.440436,-0.13281500000000002,-0.034114,-0.033563,-0.020652,,,,,,,,,,,,,,,,,,,,,,,,,,,,,,,,,,,,,,,,,,,,,,,,,,,,,,,,,,,,,,,,,
28368,1645817502.458377,1645817502.503638,97.0,0.0,4651.794922,4534.871582,4211.794922,4272.820313,4456.922852000001,450.0,1.0,15.0,,,,0.0,4.0,0.0,4.0,1.0,4.0,41.666668,,,,,,,,,,,,,,,,,,,,,,,,,,,,,,,,,,,,,,,,,,,,,,,,,,,,,,,,,,,,,,,,,,,,,,,,,,,,,,,,,,,,
28369,1645817502.46619,1645817502.511453,98.0,0.0,4700.0,4579.487305,4204.102539,4264.615234000001,4492.820313,450.0,1.0,15.0,,,,0.0,4.0,0.0,4.0,1.0,4.0,41.666668,,,,,,,,49.0,0.0,0.056853999999999995,0.61792,-0.23217800000000002,-0.749023,0.9111469999999999,-0.41846300000000003,-0.12695499999999998,-0.034072000000000005,-0.033576,-0.024056,,,,,,,,,,,,,,,,,,,,,,,,,,,,,,,,,,,,,,,,,,,,,,,,,,,,,,,,,,,,,,,,,
28370,1645817502.4740028,1645817502.519267,99.0,0.0,4761.025879,4519.487305,4222.05127,4292.820313,4501.025879,16202.0,1.0,15.0,,,,0.0,4.0,0.0,4.0,1.0,4.0,41.666668,,,,,,,,,,,,,,,,,,,,,,,,,,,,,,,,,,,,,,,,,,,,,,,,,,,,,,0.0,0.0,1.0,0.0,512.0,1.0,,,,,,,,,,,,,,,,,,,,,,,,,
28371,1645817502.481817,1645817502.527082,100.0,0.0,4798.974121,4474.358886999999,4233.846191,4319.487305,4500.0,450.0,1.0,15.0,,,,0.0,4.0,0.0,4.0,1.0,4.0,41.666668,,,,,,,,50.0,0.0,0.055847,0.61792,-0.232422,-0.749023,0.89015,-0.42236999999999997,-0.127932,-0.034082999999999995,-0.033637,-0.027119,,,,,,,,,,,,,,,,,,,,,,,,,,,,,,,,,,,,,,,,,,,,,,,,,,,,,,,,,,,,,,,,,
28372,1645817502.48963,1645817502.5348961,101.0,0.0,4831.282227000001,4494.358886999999,4241.025879,4310.769043,4525.128418,450.0,1.0,15.0,,,,0.0,4.0,0.0,4.0,1.0,4.0,41.666668,,,,,,,,,,,,,,,,,,,,,,,,,,,,,,,,,,,,,,,,,,,,,,,,,,,,,,,,,,,,,,,,,,,,,,,,,,,,,,,,,,,,
28373,1645817502.497444,1645817502.54271,102.0,0.0,4888.205078,4599.487305,4243.589844,4291.794922,4569.230957,450.0,1.0,15.0,,,,0.0,4.0,0.0,4.0,1.0,4.0,41.666668,,,,,,,,51.0,0.0,0.05527000000000001,0.617676,-0.232422,-0.749268,0.904799,-0.424811,-0.135256,-0.034092000000000004,-0.033496,-0.023577,,,,,,,,,,,,,,,,,,,,,,,,,,,,,,,,,,,,,,,,,,,,,,,,,,,,,,,,,,,,,,,,,
28374,1645817502.5052571,1645817502.550425,103.0,0.0,4905.641113000001,4667.179688,4230.769043,4276.922852000001,4601.538574,16202.0,1.0,15.0,,,,0.0,4.0,0.0,4.0,1.0,4.0,41.666668,,,,,,,,,,,,,,,,,,,,,,,,,,,,,,,,,,,,,,,,,,,,,,,,,,,,,,0.0,0.0,1.0,0.0,512.0,1.0,,,,,,,,,,,,,,,,,,,,,,,,,
28375,1645817502.5130699,1645817502.558239,104.0,0.0,4883.589844,4693.333496,4200.512695,4241.538574,4627.179688,450.0,1.0,15.0,,,,0.0,4.0,0.0,4.0,1.0,4.0,41.666668,,,,,,,,52.0,0.0,0.054233,0.617676,-0.23266599999999998,-0.749268,0.910658,-0.4336,-0.13086099999999998,-0.034101,-0.033466,-0.026639,,,,,,,,,,,,,,,,,,,,,,,,,,,,,,,,,,,,,,,,,,,,,,,,,,,,,,,,,,,,,,,,,
28376,1645817502.520884,1645817502.5660539,105.0,0.0,4878.974121,4656.410156,4199.487305,4229.743652,4649.743652,450.0,1.0,15.0,,,,0.0,4.0,0.0,4.0,1.0,4.0,41.666668,,,,,,,,,,,,,,,,,,,,,,,,,,,,,,,,,,,,,,,,,,,,,,,,,,,,,,,,,,,,,,,,,,,,,,,,,,,,,,,,,,,,
28377,1645817502.528697,1645817502.573868,106.0,0.0,4898.461426,4517.94873,4251.794922,4292.307617,4625.128418,450.0,1.0,15.0,,,,0.0,4.0,0.0,4.0,1.0,4.0,41.666668,,,,,,,,53.0,0.0,0.054233,0.617676,-0.23266599999999998,-0.749268,0.902358,-0.42236999999999997,-0.138186,-0.034011,-0.033635000000000005,-0.023194,,,,,,,,,,,,,,,,,,,,,,,,,,,,,,,,,,,,,,,,,,,,,,,,,,,,,,,,,,,,,,,,,
28378,1645817502.536511,1645817502.581682,107.0,0.0,4923.077147999999,4556.410156,4277.94873,4323.077147999999,4612.307617,16202.0,1.0,15.0,,,,0.0,4.0,0.0,4.0,1.0,4.0,41.666668,,,,,,,,,,,,,,,,,,,,,,,,,,,,,,,,,,,,,,,,,,,,,,,,,,,,,,0.0,0.0,1.0,0.0,512.0,1.0,,,,,,,,,,,,,,,,,,,,,,,,,
28379,1645817502.544324,1645817502.589497,108.0,0.0,4938.974121,4738.461426,4232.307617,4249.743652,4649.230957,450.0,1.0,15.0,,,,0.0,4.0,0.0,4.0,1.0,4.0,41.666668,,,,,,,,54.0,0.0,0.054233,0.617676,-0.23266599999999998,-0.749268,0.9209129999999999,-0.416022,-0.142092,-0.033979,-0.033739,-0.026393,,,,,,,,,,,,,,,,,,,,,,,,,,,,,,,,,,,,,,,,,,,,,,,,,,,,,,,,,,,,,,,,,
28380,1645817502.552137,1645817502.597311,109.0,0.0,4953.333496,4742.563965,4210.769043,4210.256348,4684.615234000001,450.0,1.0,15.0,,,,0.0,4.0,0.0,4.0,1.0,4.0,41.666668,,,,,,,,,,,,,,,,,,,,,,,,,,,,,,,,,,,,,,,,,,,,,,,,,,,,,,,,,,,,,,,,,,,,,,,,,,,,,,,,,,,,
28381,1645817502.559951,1645817502.605126,110.0,0.0,4964.615234000001,4568.717772999999,4256.410156,4277.94873,4687.692383,450.0,1.0,15.0,,,,0.0,4.0,0.0,4.0,1.0,4.0,41.666668,,,,,,,,55.0,0.0,0.056946000000000004,0.617432,-0.23266599999999998,-0.749268,0.9116350000000001,-0.42432299999999995,-0.143557,-0.033852999999999994,-0.033685,-0.028977999999999997,,,,,,,,,,,,,,,,,,,,,,,,,,,,,,,,,,,,,,,,,,,,,,,,,,,,,,,,,,,,,,,,,
28382,1645817502.567764,1645817502.61294,111.0,0.0,4965.641113000001,4517.94873,4289.230957,4331.282227000001,4673.333496,16202.0,1.0,15.0,,,,0.0,4.0,0.0,4.0,1.0,4.0,41.666668,,,,,,,,,,,,,,,,,,,,1.0,0.0,0.0,,,,,,,,,,,,,,,,,,,,,,,,,,,,,,,,0.0,0.0,1.0,0.0,512.0,1.0,1.6509479999999999,3.7192199999999995,4.961785,6.745692999999999,6.549816000000001,13.806988,41.791359,23.245079,173.97387700000002,131.59816,3.382778,2.220481,6.092912,11.873464,4.517597,1.663513,1.9694060000000002,2.318883,32.717296999999995,12.213973,2.5247029999999997,3.448128,2.883181,5.788864,6.099569
28383,1645817502.575578,1645817502.620655,112.0,0.0,4979.487305,4648.205078,4257.94873,4283.077147999999,4677.436035,450.0,1.0,15.0,,,,0.0,4.0,0.0,4.0,1.0,4.0,41.666668,,,,,,,,56.0,0.0,0.056946000000000004,0.617432,-0.23266599999999998,-0.749268,0.894545,-0.435065,-0.134768,-0.033886,-0.033686,-0.0315,,,,,,,,,,,,,,,,,,,,,,,,,,,,,,,,,,,,,,,,,,,,,,,,,,,,,,,,,,,,,,,,,
28384,1645817502.583391,1645817502.628469,113.0,0.0,5000.0,4716.922852000001,4222.05127,4245.641113000001,4701.025879,450.0,1.0,15.0,,,,0.0,4.0,0.0,4.0,1.0,4.0,41.666668,,,,,,,,,,,,,,,,,,,,,,,,,,,,,,,,,,,,,,,,,,,,,,,,,,,,,,,,,,,,,,,,,,,,,,,,,,,,,,,,,,,,
28385,1645817502.5912051,1645817502.636283,114.0,0.0,5010.256348,4647.179688,4250.256348,4286.666504,4715.384765999999,450.0,1.0,15.0,,,,0.0,4.0,0.0,4.0,1.0,4.0,41.666668,,,,,,,,57.0,0.0,0.056946000000000004,0.617432,-0.23266599999999998,-0.749268,0.902358,-0.42969399999999996,-0.134279,-0.033866,-0.033687,-0.02752,,,,,,,,,,,,,,,,,,,,,,,,,,,,,,,,,,,,,,,,,,,,,,,,,,,,,,,,,,,,,,,,,
28386,1645817502.5990179,1645817502.644098,115.0,0.0,5029.743652,4653.846191,4284.615234000001,4300.0,4723.077147999999,16202.0,1.0,15.0,,,,0.0,4.0,0.0,4.0,1.0,4.0,41.666668,,,,,,,,,,,,,,,,,,,,,,,,,,,,,,,,,,,,,,,,,,,,,,,,,,,,,,0.0,0.0,1.0,0.0,512.0,1.0,,,,,,,,,,,,,,,,,,,,,,,,,
28387,1645817502.606831,1645817502.651912,116.0,0.0,5038.974121,4727.692383,4257.436035,4256.410156,4743.589844,450.0,1.0,15.0,,,,0.0,4.0,0.0,4.0,1.0,4.0,41.666668,,,,,,,,58.0,0.0,0.056946000000000004,0.617432,-0.23266599999999998,-0.749268,0.903334,-0.41992799999999997,-0.132326,-0.033750999999999996,-0.033687,-0.030237,,,,,,,,,,,,,,,,,,,,,,,,,,,,,,,,,,,,,,,,,,,,,,,,,,,,,,,,,,,,,,,,,
28388,1645817502.614645,1645817502.6597269,117.0,0.0,5006.666504,4624.615234000001,4249.230957,4279.487305,4737.94873,450.0,1.0,15.0,,,,0.0,4.0,0.0,4.0,1.0,4.0,41.666668,,,,,,,,,,,,,,,,,,,,,,,,,,,,,,,,,,,,,,,,,,,,,,,,,,,,,,,,,,,,,,,,,,,,,,,,,,,,,,,,,,,,
28389,1645817502.622458,1645817502.667541,118.0,0.0,5016.922852000001,4547.179688,4291.282227000001,4325.641113000001,4721.025879,450.0,1.0,15.0,,,,0.0,4.0,0.0,4.0,1.0,4.0,41.666668,,,,,,,,59.0,0.0,0.055938999999999996,0.617432,-0.23290999999999998,-0.749268,0.9150530000000001,-0.420417,-0.13916199999999998,-0.033745,-0.033736,-0.032632999999999995,,,,,,,,,,,,,,,,,,,,,,,,,,,,,,,,,,,,,,,,,,,,,,,,,,,,,,,,,,,,,,,,,
28390,1645817502.6302712,1645817502.6753552,119.0,0.0,5064.615234000001,4661.538574,4279.487305,4271.794922,4765.641113000001,16202.0,1.0,15.0,,,,0.0,4.0,0.0,4.0,1.0,4.0,41.666668,,,,,,,,,,,,,,,,,,,,,,,,,,,,,,,,,,,,,,,,,,,,,,,,,,,,,,0.0,0.0,1.0,0.0,512.0,1.0,,,,,,,,,,,,,,,,,,,,,,,,,
28391,1645817502.638085,1645817502.6831698,120.0,0.0,5038.461426,4648.205078,4247.179688,4241.025879,4791.794922,450.0,1.0,15.0,,,,0.0,4.0,0.0,4.0,1.0,4.0,41.666668,,,,,,,,60.0,0.0,0.055938999999999996,0.617432,-0.23290999999999998,-0.749268,0.9038219999999999,-0.431159,-0.140627,-0.033789,-0.033732,-0.02854,,,,,,,,,,,,,,,,,,,,,,,,,,,,,,,,,,,,,,,,,,,,,,,,,,,,,,,,,,,,,,,,,
28392,1645817502.645898,1645817502.690984,121.0,0.0,5007.692383,4514.871582,4284.615234000001,4316.410156,4739.487305,450.0,1.0,15.0,,,,0.0,4.0,0.0,4.0,1.0,4.0,41.666668,,,,,,,,,,,,,,,,,,,,,,,,,,,,,,,,,,,,,,,,,,,,,,,,,,,,,,,,,,,,,,,,,,,,,,,,,,,,,,,,,,,,
28393,1645817502.6537118,1645817502.698699,122.0,0.0,5056.922852000001,4545.128418,4312.307617,4324.615234000001,4734.358886999999,450.0,1.0,15.0,,,,0.0,4.0,0.0,4.0,1.0,4.0,41.666668,,,,,,,,61.0,0.0,0.056946000000000004,0.617432,-0.23266599999999998,-0.749268,0.905776,-0.425788,-0.137209,-0.033779,-0.033727999999999994,-0.024905,,,,,,,,,,,,,,,,,,,,,,,,,,,,,,,,,,,,,,,,,,,,,,,,,,,,,,,,,,,,,,,,,
28394,1645817502.661525,1645817502.7065132,123.0,0.0,5068.205078,4567.692383,4278.974121,4267.692383,4773.333496,16202.0,1.0,15.0,,,,0.0,4.0,0.0,4.0,1.0,4.0,41.666668,,,,,,,,,,,,,,,,,,,,,,,,,,,,,,,,,,,,,,,,,,,,,,,,,,,,,,0.0,0.0,1.0,0.0,512.0,1.0,,,,,,,,,,,,,,,,,,,,,,,,,
28395,1645817502.669338,1645817502.7143278,124.0,0.0,5020.512695,4533.333496,4275.897461,4291.794922,4758.974121,450.0,1.0,15.0,,,,0.0,4.0,0.0,4.0,1.0,4.0,41.666668,,,,,,,,62.0,0.0,0.056946000000000004,0.617432,-0.23266599999999998,-0.749268,0.898451,-0.42822899999999997,-0.13086099999999998,-0.03377,-0.033773000000000004,-0.027833999999999998,,,,,,,,,,,,,,,,,,,,,,,,,,,,,,,,,,,,,,,,,,,,,,,,,,,,,,,,,,,,,,,,,
28396,1645817502.677152,1645817502.722142,125.0,0.0,5024.102539,4660.0,4285.641113000001,4297.94873,4737.436035,450.0,1.0,15.0,,,,0.0,4.0,0.0,4.0,1.0,4.0,41.666668,,,,,,,,,,,,,,,,,,,,,,,,,,,,,,,,,,,,,,,,,,,,,,,,,,,,,,,,,,,,,,,,,,,,,,,,,,,,,,,,,,,,
28397,1645817502.6849651,1645817502.7299562,126.0,0.0,5046.153809,4757.436035,4245.128418,4251.282227000001,4742.05127,450.0,1.0,15.0,,,,0.0,4.0,0.0,4.0,1.0,4.0,41.666668,,,,,,,,63.0,0.0,0.057934000000000006,0.617432,-0.232422,-0.749268,0.898451,-0.427253,-0.142092,-0.033811,-0.033667,-0.030470999999999998,,,,,,,,,,,,,,,,,,,,,,,,,,,,,,,,,,,,,,,,,,,,,,,,,,,,,,,,,,,,,,,,,
28398,1645817502.6927788,1645817502.737771,127.0,0.0,5028.717772999999,4659.487305,4231.282227000001,4266.153809,4714.871582,233.0,1.0,15.0,,,,0.0,4.0,0.0,4.0,1.0,4.0,41.666668,1.0,8.333333,1.0,0.0,3.0,0.0,3.0,,,,,,,,,,,,,1.0,0.0,0.0,,,,,,,,,,,,,,,,,,,,,,,,,,,,,,,,0.0,0.0,1.0,0.0,512.0,0.9947469999999999,4.057211,4.186563,4.664796,6.049403,6.884780999999999,12.072522,42.123833000000005,17.612989000000002,142.757202,147.503601,3.700257,2.405174,5.24831,10.125765,5.162653,1.749241,1.818802,2.619332,29.435422999999997,13.423607999999998,2.96569,3.132719,2.678379,6.372996,6.547439
28399,1645817502.700592,1645817502.745585,0.0,0.0,5032.820313,4616.922852000001,4270.256348,4280.512695,4704.102539,450.0,1.0,15.0,,,,0.0,4.0,0.0,4.0,1.0,4.0,41.666668,,,,,,,,0.0,0.0,0.057934000000000006,0.617432,-0.232422,-0.749268,0.898451,-0.427253,-0.125978,-0.033750999999999996,-0.03367,-0.032795,,,,,,,,,,,,,,,,,,,,,,,,,,,,,,,,,,,,,,,,,,,,,,,,,,,,,,,,,,,,,,,,,
28400,1645817502.708405,1645817502.7534,1.0,0.0,5028.717772999999,4678.974121,4268.205078,4237.94873,4726.666504,450.0,1.0,15.0,,,,0.0,4.0,0.0,4.0,1.0,4.0,41.666668,,,,,,,,,,,,,,,,,,,,,,,,,,,,,,,,,,,,,,,,,,,,,,,,,,,,,,,,,,,,,,,,,,,,,,,,,,,,,,,,,,,,
28401,1645817502.716219,1645817502.761214,2.0,0.0,4976.922852000001,4602.563965,4260.512695,4260.512695,4708.717772999999,16172.0,1.0,15.0,,,,0.0,4.0,0.0,4.0,1.0,4.0,41.666668,,,,,,,,1.0,0.0,0.05890499999999999,0.617432,-0.23217800000000002,-0.749268,0.9052870000000001,-0.428717,-0.135256,-0.033745,-0.033623,-0.034838,,,,,,,,,,,,,,,,,,,,,,,,,,,,,,,,,,,,,,,,,,,,,,,,,,,,,,,,,,,,,,,,,
28402,1645817502.724032,1645817502.768929,3.0,0.0,4974.871582,4512.820313,4296.922852000001,4319.487305,4676.922852000001,450.0,1.0,15.0,,,,0.0,4.0,1.0,2.0,0.0,4.0,25.0,,,,,,,,,,,,,,,,,,,,,,,,,,,,,,,,,,,,,,,,,,,,,,,,,,,,,,10.0,0.0,1.0,0.0,512.0,0.9947469999999999,,,,,,,,,,,,,,,,,,,,,,,,,
28403,1645817502.731846,1645817502.776743,4.0,0.0,5017.94873,4644.102539,4293.333496,4289.743652,4675.384765999999,96.0,1.0,15.0,,,,0.0,4.0,1.0,2.0,0.0,4.0,25.0,,,,,,,,2.0,0.0,0.053996,0.617676,-0.231934,-0.749512,0.905776,-0.42676400000000003,-0.13086099999999998,-0.033788,-0.033532,-0.036774,,,,,,,,,,,,,,,,,,,,,,,,,,,,,,,,,,,,,,,,,,,,,,,,,,,,,,,,,,,,,,,,,
28404,1645817502.739659,1645817502.784557,5.0,0.0,5000.0,4709.230957,4256.410156,4249.743652,4666.666504,450.0,1.0,15.0,,,,0.0,4.0,1.0,2.0,0.0,4.0,25.0,,,,,,,,,,,,,,,,,,,,,,,,,,,,,,,,,,,,,,,,,,,,,,,,,,,,,,,,,,,,,,,,,,,,,,,,,,,,,,,,,,,,
28405,1645817502.747472,1645817502.792372,6.0,0.0,4922.563965,4503.077147999999,4258.974121,4288.205078,4611.794922,287.0,1.0,15.0,,,,0.0,4.0,1.0,2.0,0.0,4.0,25.0,,,,,,,,3.0,0.0,0.057709,0.617432,-0.23168899999999998,-0.749512,0.898451,-0.440436,-0.127443,-0.033826999999999996,-0.033597,-0.038613999999999996,,,,,,,,,,,,,,,,,,,,,,,,,,,,,,,,,,,,,,,,,,,,,,,,,,,,,,,,,,,,,,,,,
28406,1645817502.755286,1645817502.800186,7.0,0.0,4859.487305,4406.666504,4272.307617,4317.94873,4546.153809,450.0,1.0,15.0,,,,0.0,4.0,1.0,2.0,0.0,4.0,25.0,,,,,,,,,,,,,,,,,,,,,,,,,,,,,,,,,,,,,,,,,,,,,,,,,,,,,,10.0,0.0,1.0,0.0,512.0,0.9947469999999999,,,,,,,,,,,,,,,,,,,,,,,,,
28407,1645817502.763099,1645817502.808001,8.0,0.0,4829.743652,4583.589844,4254.871582,4290.769043,4514.358886999999,450.0,1.0,15.0,,,,0.0,4.0,1.0,2.0,0.0,4.0,25.0,,,,,,,,4.0,0.0,0.056052,0.617676,-0.23144499999999998,-0.749512,0.9043110000000001,-0.42627600000000004,-0.136721,-0.033863,-0.033558,-0.040075,,,,,,,,,,,,,,,,,,,,,,,,,,,,,,,,,,,,,,,,,,,,,,,,,,,,,,,,,,,,,,,,,
28408,1645817502.7709131,1645817502.815815,9.0,0.0,4812.820313,4713.333496,4223.589844,4252.307617,4516.922852000001,18.0,1.0,15.0,,,,0.0,4.0,1.0,2.0,0.0,4.0,25.0,,,,,,,,,,,,,,,,,,,,,,,,,,,,,,,,,,,,,,,,,,,,,,,,,,,,,,,,,,,,,,,,,,,,,,,,,,,,,,,,,,,,
28409,1645817502.7787259,1645817502.823629,10.0,0.0,4773.333496,4692.820313,4194.871582,4238.461426,4491.794922,450.0,1.0,15.0,,,,0.0,4.0,1.0,2.0,0.0,4.0,25.0,,,,,,,,5.0,0.0,0.055035,0.617676,-0.23168899999999998,-0.749512,0.9072399999999999,-0.431647,-0.13281500000000002,-0.033846,-0.033522,-0.041488,,,,,,,,,,,,,,,,,,,,,,,,,,,,,,,,,,,,,,,,,,,,,,,,,,,,,,,,,,,,,,,,,
28410,1645817502.786539,1645817502.831444,11.0,0.0,4692.820313,4702.05127,4174.358886999999,4224.615234000001,4436.410156,16132.0,1.0,15.0,,,,0.0,4.0,1.0,2.0,0.0,4.0,25.0,,,,,,,,,,,,,,,,,,,,,,,,,,,,,,,,,,,,,,,,,,,,,,,,,,,,,,10.0,0.0,1.0,0.0,512.0,0.9947469999999999,,,,,,,,,,,,,,,,,,,,,,,,,
28411,1645817502.794353,1645817502.839158,12.0,0.0,4620.512695,4685.641113000001,4181.538574,4201.025879,4404.102539,450.0,1.0,15.0,,,,0.0,4.0,1.0,2.0,0.0,4.0,25.0,,,,,,,,6.0,0.0,0.057709,0.617432,-0.23168899999999998,-0.749512,0.898451,-0.440436,-0.127443,-0.03383,-0.033539,-0.036509,,,,,,,,,,,,,,,,,,,,,,,,,,,,,,,,,,,,,,,,,,,,,,,,,,,,,,,,,,,,,,,,,
28412,1645817502.802166,1645817502.846973,13.0,0.0,4599.487305,4690.256348,4196.922852000001,4176.922852000001,4407.692383,450.0,1.0,15.0,,,,0.0,4.0,1.0,2.0,0.0,4.0,25.0,,,,,,,,,,,,,,,,,,,,,,,,,,,,,,,,,,,,,,,,,,,,,,,,,,,,,,,,,,,,,,,,,,,,,,,,,,,,,,,,,,,,
28413,1645817502.8099802,1645817502.8547869,14.0,0.0,4560.512695,4673.846191,4209.230957,4189.230957,4378.974121,450.0,1.0,15.0,,,,0.0,4.0,1.0,2.0,0.0,4.0,25.0,,,,,,,,7.0,0.0,0.055035,0.617676,-0.23168899999999998,-0.749512,0.9072399999999999,-0.431647,-0.13281500000000002,-0.033816000000000006,-0.033506,-0.038278,,,,,,,,,,,,,,,,,,,,,,,,,,,,,,,,,,,,,,,,,,,,,,,,,,,,,,,,,,,,,,,,,
28414,1645817502.817793,1645817502.862602,15.0,0.0,4511.282227000001,4604.102539,4229.743652,4238.974121,4321.025879,16132.0,1.0,15.0,,,,0.0,4.0,1.0,2.0,0.0,4.0,25.0,,,,,,,,,,,,,,,,,,,,1.0,0.0,0.0,,,,,,,,,,,,,,,,,,,,,,,,,,,,,,,,10.0,0.0,1.0,0.0,512.0,1.0,10.766367,5.234285,4.19538,5.214082,7.489324000000001,13.739270999999999,45.104645,14.083425,117.563652,167.2108,4.040228,2.379931,4.3300529999999995,8.753437,6.008682,2.1705740000000002,1.8052139999999999,3.241561,26.331995000000003,15.014812,4.02493,3.164498,2.359433,6.8347940000000005,7.034394
28415,1645817502.825606,1645817502.870416,16.0,0.0,4468.717772999999,4660.0,4220.0,4249.743652,4303.077147999999,0.0,1.0,15.0,,,,0.0,4.0,1.0,2.0,0.0,4.0,25.0,,,,,,,,8.0,0.0,0.055035,0.617676,-0.23168899999999998,-0.749512,0.918959,-0.42188100000000006,-0.13379100000000002,-0.033804,-0.033524,-0.03362,,,,,,,,,,,,,,,,,,,,,,,,,,,,,,,,,,,,,,,,,,,,,,,,,,,,,,,,,,,,,,,,,
28416,1645817502.83342,1645817502.87823,17.0,0.0,4376.922852000001,4564.102539,4201.025879,4297.436035,4257.436035,0.0,1.0,15.0,,,,0.0,4.0,1.0,2.0,0.0,4.0,25.0,,,,,,,,,,,,,,,,,,,,,,,,,,,,,,,,,,,,,,,,,,,,,,,,,,,,,,,,,,,,,,,,,,,,,,,,,,,,,,,,,,,,
28417,1645817502.841233,1645817502.886045,18.0,0.0,4269.230957,4334.358886999999,4174.871582,4343.589844,4154.871582,0.0,1.0,15.0,,,,0.0,4.0,1.0,2.0,0.0,4.0,25.0,,,,,,,,9.0,0.0,0.057709,0.617432,-0.23168899999999998,-0.749512,0.8969860000000001,-0.44238999999999995,-0.135744,-0.033793000000000004,-0.033492,-0.03558,,,,,,,,,,,,,,,,,,,,,,,,,,,,,,,,,,,,,,,,,,,,,,,,,,,,,,,,,,,,,,,,,
28418,1645817502.8490472,1645817502.893859,19.0,0.0,4241.538574,4617.94873,4104.615234000001,4221.538574,4142.05127,0.0,1.0,15.0,,,,0.0,4.0,1.0,2.0,0.0,4.0,25.0,,,,,,,,,,,,,,,,,,,,,,,,,,,,,,,,,,,,,,,,,,,,,,,,,,,,,,10.0,0.0,1.0,0.0,512.0,1.0,,,,,,,,,,,,,,,,,,,,,,,,,
28419,1645817502.85686,1645817502.901674,20.0,0.0,4243.589844,4910.256348,4095.897461,4151.282227000001,4185.641113000001,0.0,1.0,15.0,,,,0.0,4.0,1.0,2.0,0.0,4.0,25.0,,,,,,,,10.0,0.0,0.056052,0.617676,-0.23144499999999998,-0.749512,0.9077290000000001,-0.41944,-0.13135,-0.033734,-0.033561,-0.031143,,,,,,,,,,,,,,,,,,,,,,,,,,,,,,,,,,,,,,,,,,,,,,,,,,,,,,,,,,,,,,,,,
28420,1645817502.864674,1645817502.9094882,21.0,0.0,4173.333496,4462.563965,4185.128418,4288.205078,4128.717772999999,0.0,1.0,15.0,,,,0.0,4.0,1.0,2.0,0.0,4.0,25.0,,,,,,,,,,,,,,,,,,,,,,,,,,,,,,,,,,,,,,,,,,,,,,,,,,,,,,,,,,,,,,,,,,,,,,,,,,,,,,,,,,,,
28421,1645817502.8724868,1645817502.917203,22.0,0.0,4123.589844,4174.871582,4208.717772999999,4334.871582,4064.102539,0.0,1.0,15.0,,,,0.0,4.0,1.0,2.0,0.0,4.0,25.0,,,,,,,,11.0,0.0,0.056052,0.617676,-0.23144499999999998,-0.749512,0.900893,-0.425788,-0.13135,-0.033779,-0.033477,-0.027199,,,,,,,,,,,,,,,,,,,,,,,,,,,,,,,,,,,,,,,,,,,,,,,,,,,,,,,,,,,,,,,,,
28422,1645817502.8803,1645817502.9250169,23.0,0.0,4157.94873,4543.589844,4157.436035,4236.922852000001,4081.538574,0.0,1.0,15.0,,,,0.0,4.0,1.0,2.0,0.0,4.0,25.0,,,,,,,,,,,,,,,,,,,,,,,,,,,,,,,,,,,,,,,,,,,,,,,,,,,,,,0.0,0.0,1.0,0.0,512.0,1.0,,,,,,,,,,,,,,,,,,,,,,,,,
28423,1645817502.888114,1645817502.932831,24.0,0.0,4167.179688,4682.05127,4166.666504,4248.205078,4115.897461,0.0,1.0,15.0,,,,0.0,4.0,1.0,2.0,0.0,4.0,25.0,,,,,,,,12.0,0.0,0.057051,0.617676,-0.23120100000000002,-0.749512,0.91017,-0.417487,-0.13135,-0.033819,-0.033547,-0.023698,,,,,,,,,,,,,,,,,,,,,,,,,,,,,,,,,,,,,,,,,,,,,,,,,,,,,,,,,,,,,,,,,
28424,1645817502.895927,1645817502.9406462,25.0,0.0,4084.102539,4635.897461,4151.794922,4261.025879,4136.410156,0.0,1.0,15.0,,,,0.0,4.0,1.0,2.0,0.0,4.0,25.0,,,,,,,,,,,,,,,,,,,,,,,,,,,,,,,,,,,,,,,,,,,,,,,,,,,,,,,,,,,,,,,,,,,,,,,,,,,,,,,,,,,,
28425,1645817502.9037411,1645817502.9484599,26.0,0.0,4051.281982,4617.94873,4140.512695,4236.410156,4121.025879,0.0,1.0,15.0,,,,0.0,4.0,1.0,2.0,0.0,4.0,25.0,,,,,,,,13.0,0.0,0.057051,0.617676,-0.23120100000000002,-0.749512,0.9091940000000001,-0.41699899999999995,-0.137697,-0.033806,-0.033561,-0.02665,,,,,,,,,,,,,,,,,,,,,,,,,,,,,,,,,,,,,,,,,,,,,,,,,,,,,,,,,,,,,,,,,
28426,1645817502.9115539,1645817502.956275,27.0,0.0,4098.461426,4369.743652,4208.205078,4309.230957,4082.0512700000004,0.0,1.0,15.0,,,,0.0,4.0,1.0,2.0,0.0,4.0,25.0,,,,,,,,,,,,,,,,,,,,,,,,,,,,,,,,,,,,,,,,,,,,,,,,,,,,,,0.0,0.0,1.0,0.0,512.0,1.0,,,,,,,,,,,,,,,,,,,,,,,,,
28427,1645817502.919367,1645817502.9640892,28.0,0.0,4104.615234000001,4257.94873,4228.205078,4361.025879,4081.025635,0.0,1.0,15.0,,,,0.0,4.0,1.0,2.0,0.0,4.0,25.0,,,,,,,,14.0,0.0,0.054342999999999995,0.61792,-0.23120100000000002,-0.749512,0.894545,-0.41065100000000004,-0.138186,-0.033795,-0.033574,-0.029405,,,,,,,,,,,,,,,,,,,,,,,,,,,,,,,,,,,,,,,,,,,,,,,,,,,,,,,,,,,,,,,,,
28428,1645817502.927181,1645817502.9719028,29.0,0.0,4097.436035,4551.282227000001,4175.897461,4289.230957,4088.718018,0.0,1.0,15.0,,,,0.0,4.0,1.0,2.0,0.0,4.0,25.0,,,,,,,,,,,,,,,,,,,,,,,,,,,,,,,,,,,,,,,,,,,,,,,,,,,,,,,,,,,,,,,,,,,,,,,,,,,,,,,,,,,,
28429,1645817502.934994,1645817502.979718,30.0,0.0,4101.025879,4847.692383,4123.589844,4191.794922,4100.0,0.0,1.0,15.0,,,,0.0,4.0,1.0,2.0,0.0,4.0,25.0,,,,,,,,15.0,0.0,0.055372000000000005,0.61792,-0.23095700000000002,-0.749512,0.906752,-0.41699899999999995,-0.12842,-0.033832999999999995,-0.033635000000000005,-0.025586,,,,,,,,,,,,,,,,,,,,,,,,,,,,,,,,,,,,,,,,,,,,,,,,,,,,,,,,,,,,,,,,,
28430,1645817502.942808,1645817502.9875321,31.0,0.0,4061.025635,4853.333496,4097.94873,4178.974121,4147.692383,0.0,1.0,15.0,,,,0.0,4.0,1.0,2.0,0.0,4.0,25.0,,,,,,,,,,,,,,,,,,,,1.0,0.0,0.0,,,,,,,,,,,,,,,,,,,,,,,,,,,,,,,,0.0,0.0,1.0,0.0,512.0,1.0,25.823919,7.298661999999999,3.6104510000000003,4.4437940000000005,8.039945,18.769262,50.270855,11.612247,99.922539,182.390396,4.314919000000001,2.281772,3.510937,7.763800999999999,6.794239999999999,3.07841,2.0233630000000002,4.07408,23.616556,16.353094,6.371718,3.6811769999999995,2.004127,7.166034,7.313321000000001
28431,1645817502.9506211,1645817502.9952471,32.0,0.0,4023.5898439999996,4584.102539,4144.102539,4267.692383,4156.922852000001,0.0,1.0,15.0,,,,0.0,4.0,1.0,2.0,0.0,4.0,25.0,,,,,,,,16.0,0.0,0.055372000000000005,0.61792,-0.23095700000000002,-0.749512,0.914565,-0.425299,-0.127932,-0.033868,-0.033444999999999996,-0.028398000000000003,,,,,,,,,,,,,,,,,,,,,,,,,,,,,,,,,,,,,,,,,,,,,,,,,,,,,,,,,,,,,,,,,
28432,1645817502.9584339,1645817503.003061,33.0,0.0,4044.102539,4354.871582,4216.410156,4309.743652,4114.871582,0.0,1.0,15.0,,,,0.0,4.0,1.0,2.0,0.0,4.0,25.0,,,,,,,,,,,,,,,,,,,,,,,,,,,,,,,,,,,,,,,,,,,,,,,,,,,,,,,,,,,,,,,,,,,,,,,,,,,,,,,,,,,,
28433,1645817502.966248,1645817503.010876,34.0,0.0,4087.6923829999996,4403.077147999999,4233.846191,4270.769043,4085.1281740000004,0.0,1.0,15.0,,,,0.0,4.0,1.0,2.0,0.0,4.0,25.0,,,,,,,,17.0,0.0,0.058583,0.61792,-0.23095700000000002,-0.749268,0.9121229999999999,-0.42090500000000003,-0.138186,-0.03385,-0.03347,-0.030979000000000003,,,,,,,,,,,,,,,,,,,,,,,,,,,,,,,,,,,,,,,,,,,,,,,,,,,,,,,,,,,,,,,,,
28434,1645817502.974061,1645817503.01869,35.0,0.0,4125.641113000001,4566.666504,4218.974121,4245.128418,4103.077147999999,0.0,1.0,15.0,,,,0.0,4.0,1.0,2.0,0.0,4.0,25.0,,,,,,,,,,,,,,,,,,,,,,,,,,,,,,,,,,,,,,,,,,,,,,,,,,,,,,0.0,0.0,1.0,0.0,512.0,1.0,,,,,,,,,,,,,,,,,,,,,,,,,
28435,1645817502.981875,1645817503.0265038,36.0,0.0,4135.897461,4703.589844,4193.846191,4233.846191,4166.666504,0.0,1.0,15.0,,,,0.0,4.0,1.0,2.0,0.0,4.0,25.0,,,,,,,,18.0,0.0,0.058583,0.61792,-0.23095700000000002,-0.749268,0.910658,-0.428717,-0.144045,-0.033833999999999996,-0.033443,-0.033301,,,,,,,,,,,,,,,,,,,,,,,,,,,,,,,,,,,,,,,,,,,,,,,,,,,,,,,,,,,,,,,,,
28436,1645817502.9896882,1645817503.034319,37.0,0.0,4088.718018,4792.820313,4150.769043,4211.282227000001,4183.589844,0.0,1.0,15.0,,,,0.0,4.0,1.0,2.0,0.0,4.0,25.0,,,,,,,,,,,,,,,,,,,,,,,,,,,,,,,,,,,,,,,,,,,,,,,,,,,,,,,,,,,,,,,,,,,,,,,,,,,,,,,,,,,,
28437,1645817502.997501,1645817503.042133,38.0,0.0,4009.743652,4606.153809,4159.487305,4276.922852000001,4102.05127,0.0,1.0,15.0,,,,0.0,4.0,1.0,2.0,0.0,4.0,25.0,,,,,,,,19.0,0.0,0.058583,0.61792,-0.23095700000000002,-0.749268,0.906264,-0.43018199999999995,-0.125002,-0.033868999999999996,-0.033419,-0.029189,,,,,,,,,,,,,,,,,,,,,,,,,,,,,,,,,,,,,,,,,,,,,,,,,,,,,,,,,,,,,,,,,
28438,1645817503.005315,1645817503.049948,39.0,0.0,4023.076904,4477.436035,4195.897461,4310.256348,4074.8718259999996,0.0,1.0,15.0,,,,0.0,4.0,1.0,2.0,0.0,4.0,25.0,,,,,,,,,,,,,,,,,,,,,,,,,,,,,,,,,,,,,,,,,,,,,,,,,,,,,,0.0,0.0,1.0,0.0,512.0,1.0,,,,,,,,,,,,,,,,,,,,,,,,,
28439,1645817503.013128,1645817503.057762,40.0,0.0,4107.179688,4678.461426,4181.538574,4223.589844,4132.307617,0.0,1.0,15.0,,,,0.0,4.0,1.0,2.0,0.0,4.0,25.0,,,,,,,,20.0,0.0,0.055948000000000005,0.618164,-0.23095700000000002,-0.749268,0.908217,-0.423835,-0.138186,-0.033802,-0.033496,-0.031689999999999996,,,,,,,,,,,,,,,,,,,,,,,,,,,,,,,,,,,,,,,,,,,,,,,,,,,,,,,,,,,,,,,,,
28440,1645817503.020941,1645817503.065576,41.0,0.0,4113.333496,4762.563965,4148.717772999999,4211.282227000001,4145.641113000001,0.0,1.0,15.0,,,,0.0,4.0,1.0,2.0,0.0,4.0,25.0,,,,,,,,,,,,,,,,,,,,,,,,,,,,,,,,,,,,,,,,,,,,,,,,,,,,,,,,,,,,,,,,,,,,,,,,,,,,,,,,,,,,
28441,1645817503.0287552,1645817503.073291,42.0,0.0,4081.025635,4741.025879,4137.94873,4250.769043,4145.128418,0.0,1.0,15.0,,,,0.0,4.0,1.0,2.0,0.0,4.0,25.0,,,,,,,,21.0,0.0,0.058164,0.618164,-0.23120100000000002,-0.749023,0.903334,-0.435554,-0.129885,-0.033888999999999996,-0.033564,-0.034039,,,,,,,,,,,,,,,,,,,,,,,,,,,,,,,,,,,,,,,,,,,,,,,,,,,,,,,,,,,,,,,,,
28442,1645817503.036568,1645817503.081105,43.0,0.0,4079.487061,4753.333496,4157.94873,4225.128418,4164.102539,0.0,1.0,15.0,,,,0.0,4.0,1.0,2.0,0.0,4.0,25.0,,,,,,,,,,,,,,,,,,,,,,,,,,,,,,,,,,,,,,,,,,,,,,,,,,,,,,0.0,0.0,1.0,0.0,512.0,1.0,,,,,,,,,,,,,,,,,,,,,,,,,
28443,1645817503.044382,1645817503.0889199,44.0,0.0,4041.538574,4578.974121,4179.487305,4220.512695,4126.153809,0.0,1.0,15.0,,,,0.0,4.0,1.0,2.0,0.0,4.0,25.0,,,,,,,,22.0,0.0,0.057611,0.61792,-0.23120100000000002,-0.749268,0.897475,-0.427253,-0.135744,-0.033868999999999996,-0.033479,-0.036153,,,,,,,,,,,,,,,,,,,,,,,,,,,,,,,,,,,,,,,,,,,,,,,,,,,,,,,,,,,,,,,,,
28444,1645817503.0521948,1645817503.096734,45.0,0.0,4018.461426,4330.769043,4198.974121,4311.282227000001,4074.8718259999996,0.0,1.0,15.0,,,,0.0,4.0,1.0,2.0,0.0,4.0,25.0,,,,,,,,,,,,,,,,,,,,,,,,,,,,,,,,,,,,,,,,,,,,,,,,,,,,,,,,,,,,,,,,,,,,,,,,,,,,,,,,,,,,
28445,1645817503.060008,1645817503.104549,46.0,0.0,4075.897461,4314.871582,4208.205078,4335.897461,4066.1538090000004,0.0,1.0,15.0,,,,0.0,4.0,1.0,2.0,0.0,4.0,25.0,,,,,,,,23.0,0.0,0.057611,0.61792,-0.23120100000000002,-0.749268,0.894545,-0.423346,-0.125978,-0.033754,-0.033598,-0.031707,,,,,,,,,,,,,,,,,,,,,,,,,,,,,,,,,,,,,,,,,,,,,,,,,,,,,,,,,,,,,,,,,
28446,1645817503.067822,1645817503.112363,47.0,0.0,4124.102539,4551.282227000001,4184.615234000001,4224.102539,4086.1538090000004,0.0,1.0,15.0,,,,0.0,4.0,1.0,2.0,0.0,4.0,25.0,,,,,,,,,,,,,,,,,,,,1.0,0.0,0.0,,,,,,,,,,,,,,,,,,,,,,,,,,,,,,,,0.0,0.0,1.0,0.0,512.0,0.993807,51.637192,10.321539,3.014797,3.927178,8.219180999999999,27.431101,57.09324599999999,9.764532,90.590866,186.203506,4.469203,2.338375,2.996327,7.1199520000000005,7.2469149999999996,4.572913,2.594439,4.9528620000000005,21.379475,16.887726,10.901207000000001,4.614626,1.715041,7.342199000000001,7.2145600000000005
28447,1645817503.075635,1645817503.120177,48.0,0.0,4124.102539,4807.179688,4151.794922,4174.871582,4144.615234000001,0.0,1.0,15.0,,,,0.0,4.0,1.0,2.0,0.0,4.0,25.0,,,,,,,,24.0,0.0,0.060703,0.61792,-0.23120100000000002,-0.749023,0.9077290000000001,-0.43897200000000003,-0.14844000000000002,-0.033943,-0.033559,-0.034006,,,,,,,,,,,,,,,,,,,,,,,,,,,,,,,,,,,,,,,,,,,,,,,,,,,,,,,,,,,,,,,,,
28448,1645817503.0834491,1645817503.127992,49.0,0.0,4100.0,4842.563965,4148.717772999999,4225.641113000001,4210.256348,0.0,1.0,15.0,,,,0.0,4.0,1.0,2.0,0.0,4.0,25.0,,,,,,,,,,,,,,,,,,,,,,,,,,,,,,,,,,,,,,,,,,,,,,,,,,,,,,,,,,,,,,,,,,,,,,,,,,,,,,,,,,,,
28449,1645817503.0912619,1645817503.135706,50.0,0.0,4058.974365,4557.436035,4173.846191,4258.974121,4170.769043,0.0,1.0,15.0,,,,0.0,4.0,1.0,2.0,0.0,4.0,25.0,,,,,,,,25.0,0.0,0.059766,0.61792,-0.23144499999999998,-0.749023,0.913588,-0.423346,-0.12842,-0.033918000000000004,-0.033572000000000005,-0.029824,,,,,,,,,,,,,,,,,,,,,,,,,,,,,,,,,,,,,,,,,,,,,,,,,,,,,,,,,,,,,,,,,
28450,1645817503.099075,1645817503.143521,51.0,0.0,4043.5898439999996,4288.205078,4197.436035,4258.461426,4070.256348,0.0,1.0,15.0,,,,0.0,4.0,1.0,2.0,0.0,4.0,25.0,,,,,,,,,,,,,,,,,,,,,,,,,,,,,,,,,,,,,,,,,,,,,,,,,,,,,,0.0,0.0,1.0,0.0,512.0,0.993807,,,,,,,,,,,,,,,,,,,,,,,,,
28451,1645817503.106889,1645817503.151335,52.0,0.0,4085.1281740000004,4403.077147999999,4191.794922,4251.794922,4080.512939,0.0,1.0,15.0,,,,0.0,4.0,1.0,2.0,0.0,4.0,25.0,,,,,,,,26.0,0.0,0.057185,0.618164,-0.23144499999999998,-0.749023,0.900893,-0.428717,-0.138186,-0.033895,-0.033583999999999996,-0.032213,,,,,,,,,,,,,,,,,,,,,,,,,,,,,,,,,,,,,,,,,,,,,,,,,,,,,,,,,,,,,,,,,
28452,1645817503.114702,1645817503.15905,53.0,0.0,4140.0,4700.512695,4160.0,4219.487305,4144.615234000001,0.0,1.0,15.0,,,,0.0,4.0,1.0,2.0,0.0,4.0,25.0,,,,,,,,,,,,,,,,,,,,,,,,,,,,,,,,,,,,,,,,,,,,,,,,,,,,,,,,,,,,,,,,,,,,,,,,,,,,,,,,,,,,
28453,1645817503.122516,1645817503.1668642,54.0,0.0,4125.128418,4681.538574,4150.256348,4244.615234000001,4134.358886999999,0.0,1.0,15.0,,,,0.0,4.0,1.0,2.0,0.0,4.0,25.0,,,,,,,,27.0,0.0,0.057185,0.618164,-0.23144499999999998,-0.749023,0.9043110000000001,-0.42432299999999995,-0.13086099999999998,-0.033924,-0.033448,-0.034362000000000004,,,,,,,,,,,,,,,,,,,,,,,,,,,,,,,,,,,,,,,,,,,,,,,,,,,,,,,,,,,,,,,,,
28454,1645817503.130329,1645817503.1746778,55.0,0.0,4062.5642090000006,4622.563965,4140.512695,4279.487305,4136.922852000001,0.0,1.0,15.0,,,,0.0,4.0,1.0,2.0,0.0,4.0,25.0,,,,,,,,,,,,,,,,,,,,,,,,,,,,,,,,,,,,,,,,,,,,,,,,,,,,,,0.0,0.0,1.0,0.0,512.0,0.993807,,,,,,,,,,,,,,,,,,,,,,,,,
28455,1645817503.138142,1645817503.182493,56.0,0.0,4062.5642090000006,4691.794922,4136.922852000001,4255.384765999999,4178.974121,0.0,1.0,15.0,,,,0.0,4.0,1.0,2.0,0.0,4.0,25.0,,,,,,,,28.0,0.0,0.059766,0.61792,-0.23144499999999998,-0.749023,0.9038219999999999,-0.425788,-0.126467,-0.033949,-0.033473,-0.036444,,,,,,,,,,,,,,,,,,,,,,,,,,,,,,,,,,,,,,,,,,,,,,,,,,,,,,,,,,,,,,,,,
28456,1645817503.145956,1645817503.1903071,57.0,0.0,4097.436035,4393.846191,4188.205078,4300.512695,4135.897461,0.0,1.0,15.0,,,,0.0,4.0,1.0,2.0,0.0,4.0,25.0,,,,,,,,,,,,,,,,,,,,,,,,,,,,,,,,,,,,,,,,,,,,,,,,,,,,,,,,,,,,,,,,,,,,,,,,,,,,,,,,,,,,
28457,1645817503.153769,1645817503.198122,58.0,0.0,4123.077147999999,4154.358886999999,4218.974121,4318.974121,4089.743652,0.0,1.0,15.0,,,,0.0,4.0,1.0,2.0,0.0,4.0,25.0,,,,,,,,29.0,0.0,0.057185,0.618164,-0.23144499999999998,-0.749023,0.902358,-0.423835,-0.134279,-0.033973,-0.033495,-0.038171,,,,,,,,,,,,,,,,,,,,,,,,,,,,,,,,,,,,,,,,,,,,,,,,,,,,,,,,,,,,,,,,,
28458,1645817503.161583,1645817503.2058358,59.0,0.0,4153.333496,4522.563965,4173.846191,4198.461426,4131.282227000001,0.0,1.0,15.0,,,,0.0,4.0,0.0,2.0,0.0,4.0,16.666666,,,,,,,,,,,,,,,,,,,,,,,,,,,,,,,,,,,,,,,,,,,,,,,,,,,,,,0.0,0.0,1.0,0.0,512.0,0.993807,,,,,,,,,,,,,,,,,,,,,,,,,
28459,1645817503.1693962,1645817503.213651,60.0,0.0,4164.102539,4824.615234000001,4128.717772999999,4146.666504,4174.871582,0.0,1.0,15.0,,,,0.0,4.0,0.0,2.0,0.0,4.0,16.666666,,,,,,,,30.0,0.0,0.060298000000000004,0.618164,-0.23144499999999998,-0.748779,0.903334,-0.427741,-0.136233,-0.034042,-0.033464999999999995,-0.033475,,,,,,,,,,,,,,,,,,,,,,,,,,,,,,,,,,,,,,,,,,,,,,,,,,,,,,,,,,,,,,,,,
28460,1645817503.1772099,1645817503.221465,61.0,0.0,4142.563965,4728.717772999999,4114.871582,4225.128418,4181.025879,0.0,1.0,15.0,,,,0.0,4.0,0.0,2.0,0.0,4.0,16.666666,,,,,,,,,,,,,,,,,,,,,,,,,,,,,,,,,,,,,,,,,,,,,,,,,,,,,,,,,,,,,,,,,,,,,,,,,,,,,,,,,,,,
28461,1645817503.185023,1645817503.2292788,62.0,0.0,4113.846191,4667.179688,4115.384765999999,4272.820313,4187.692383,0.0,1.0,15.0,,,,0.0,4.0,0.0,2.0,0.0,4.0,16.666666,,,,,,,,31.0,0.0,0.059352999999999996,0.618164,-0.23168899999999998,-0.748779,0.900893,-0.43897200000000003,-0.127932,-0.034105,-0.033438999999999997,-0.035547,,,,,,,,,,,,,,,,,,,,,,,,,,,,,,,,,,,,,,,,,,,,,,,,,,,,,,,,,,,,,,,,,
28462,1645817503.192836,1645817503.237094,63.0,0.0,4070.256348,4527.179688,4142.05127,4295.897461,4158.461426,0.0,1.0,15.0,,,,0.0,4.0,0.0,2.0,0.0,4.0,16.666666,1.0,8.333333,1.0,0.0,2.0,0.0,3.0,,,,,,,,,,,,,1.0,0.0,0.0,,,,,,,,,,,,,,,,,,,,,,,,,,,,,,,,0.0,0.0,1.0,0.0,512.0,1.0,87.197449,13.737244,2.555073,3.8570330000000004,7.886624,38.856808,64.451141,9.647675,91.64076999999999,176.63121,4.458451999999999,2.785114,3.024493,6.854311,7.197614,6.600716,3.609722,5.841005,19.633357999999998,16.427742000000002,18.081001,5.760314,1.612503,7.379695,6.741728999999999
28463,1645817503.20065,1645817503.244908,64.0,0.0,4047.6923829999996,4272.820313,4175.384765999999,4285.128418,4098.461426,450.0,1.0,15.0,,,,0.0,4.0,0.0,2.0,0.0,4.0,16.666666,,,,,,,,32.0,0.0,0.058391,0.618164,-0.231934,-0.748779,0.8921030000000001,-0.42920600000000003,-0.137697,-0.034112,-0.033464999999999995,-0.037364,,,,,,,,,,,,,,,,,,,,,,,,,,,,,,,,,,,,,,,,,,,,,,,,,,,,,,,,,,,,,,,,,
28464,1645817503.2084632,1645817503.252723,65.0,0.0,4098.974121,4265.641113000001,4187.179688,4187.692383,4097.436035,450.0,1.0,15.0,,,,0.0,4.0,0.0,2.0,0.0,4.0,16.666666,,,,,,,,,,,,,,,,,,,,,,,,,,,,,,,,,,,,,,,,,,,,,,,,,,,,,,,,,,,,,,,,,,,,,,,,,,,,,,,,,,,,
28465,1645817503.216277,1645817503.260537,66.0,0.0,4184.102539,4478.461426,4197.436035,4154.358886999999,4147.179688,16166.0,1.0,15.0,,,,0.0,4.0,0.0,2.0,0.0,4.0,16.666666,,,,,,,,33.0,0.0,0.058391,0.618164,-0.231934,-0.748779,0.9077290000000001,-0.433112,-0.121584,-0.033973,-0.033487,-0.032748,,,,,,,,,,,,,,,,,,,,,,,,,,,,,,,,,,,,,,,,,,,,,,,,,,,,,,,,,,,,,,,,,
28466,1645817503.22409,1645817503.268351,67.0,0.0,4195.897461,4686.666504,4186.666504,4226.153809,4186.666504,450.0,1.0,15.0,,,,0.0,4.0,0.0,2.0,0.0,4.0,16.666666,,,,,,,,,,,,,,,,,,,,,,,,,,,,,,,,,,,,,,,,,,,,,,,,,,,,,,0.0,0.0,1.0,0.0,512.0,1.0,,,,,,,,,,,,,,,,,,,,,,,,,
28467,1645817503.2319028,1645817503.276166,68.0,0.0,4135.897461,4801.025879,4140.0,4242.05127,4207.692383,0.0,1.0,15.0,,,,0.0,4.0,0.0,2.0,0.0,4.0,16.666666,,,,,,,,34.0,0.0,0.059352999999999996,0.618164,-0.23168899999999998,-0.748779,0.900893,-0.43897200000000003,-0.127932,-0.033895999999999996,-0.033458999999999996,-0.028643000000000002,,,,,,,,,,,,,,,,,,,,,,,,,,,,,,,,,,,,,,,,,,,,,,,,,,,,,,,,,,,,,,,,,
28468,1645817503.239717,1645817503.28388,69.0,0.0,4092.820557,4754.871582,4114.871582,4251.794922,4188.717772999999,450.0,1.0,15.0,,,,0.0,4.0,0.0,4.0,1.0,4.0,41.666668,,,,,,,,,,,,,,,,,,,,,,,,,,,,,,,,,,,,,,,,,,,,,,,,,,,,,,,,,,,,,,,,,,,,,,,,,,,,,,,,,,,,
28469,1645817503.24753,1645817503.2916949,70.0,0.0,4072.3076170000004,4474.358886999999,4145.128418,4389.230957,4117.94873,16078.0,1.0,15.0,,,,0.0,4.0,0.0,4.0,1.0,4.0,41.666668,,,,,,,,35.0,0.0,0.058391,0.618164,-0.231934,-0.748779,0.9077290000000001,-0.433112,-0.121584,-0.033777999999999996,-0.033482,-0.0249,,,,,,,,,,,,,,,,,,,,,,,,,,,,,,,,,,,,,,,,,,,,,,,,,,,,,,,,,,,,,,,,,
28470,1645817503.255344,1645817503.299509,71.0,0.0,4093.3332520000004,4343.077147999999,4182.05127,4287.179688,4124.615234000001,450.0,1.0,15.0,,,,0.0,4.0,0.0,4.0,1.0,4.0,41.666668,,,,,,,,,,,,,,,,,,,,,,,,,,,,,,,,,,,,,,,,,,,,,,,,,,,,,,0.0,0.0,1.0,0.0,512.0,1.0,,,,,,,,,,,,,,,,,,,,,,,,,
28471,1645817503.2631571,1645817503.307324,72.0,0.0,4179.487305,4561.538574,4186.666504,4129.743652,4178.974121,450.0,1.0,15.0,,,,0.0,4.0,0.0,4.0,1.0,4.0,41.666668,,,,,,,,36.0,0.0,0.058391,0.618164,-0.231934,-0.748779,0.904799,-0.423346,-0.12060699999999999,-0.033818,-0.033552,-0.021580000000000002,,,,,,,,,,,,,,,,,,,,,,,,,,,,,,,,,,,,,,,,,,,,,,,,,,,,,,,,,,,,,,,,,
28472,1645817503.2709699,1645817503.315138,73.0,0.0,4188.205078,4813.846191,4143.589844,4353.846191,4181.538574,50.0,1.0,15.0,,,,0.0,4.0,0.0,4.0,1.0,4.0,41.666668,,,,,,,,,,,,,,,,,,,,,,,,,,,,,,,,,,,,,,,,,,,,,,,,,,,,,,,,,,,,,,,,,,,,,,,,,,,,,,,,,,,,
28473,1645817503.278784,1645817503.322952,74.0,0.0,4073.8461909999996,4756.922852000001,4094.358887,4064.615479,4167.692383,450.0,1.0,15.0,,,,0.0,4.0,0.0,4.0,1.0,4.0,41.666668,,,,,,,,37.0,0.0,0.057413,0.618164,-0.23217800000000002,-0.748779,0.889174,-0.425299,-0.12842,-0.034000999999999997,-0.033664,-0.024842,,,,,,,,,,,,,,,,,,,,,,,,,,,,,,,,,,,,,,,,,,,,,,,,,,,,,,,,,,,,,,,,,
28474,1645817503.286597,1645817503.330767,75.0,0.0,4074.358887,4612.820313,4057.4357909999994,3712.3076170000004,4129.230957,16156.0,1.0,15.0,,,,0.0,4.0,0.0,4.0,1.0,4.0,41.666668,,,,,,,,,,,,,,,,,,,,,,,,,,,,,,,,,,,,,,,,,,,,,,,,,,,,,,0.0,0.0,1.0,0.0,512.0,1.0,,,,,,,,,,,,,,,,,,,,,,,,,
28475,1645817503.294411,1645817503.338581,76.0,0.0,4156.410156,4730.769043,4039.487061,4444.615234000001,4110.769043,450.0,1.0,15.0,,,,0.0,4.0,0.0,4.0,1.0,4.0,41.666668,,,,,,,,38.0,0.0,0.059984,0.61792,-0.23217800000000002,-0.748779,0.901381,-0.433112,-0.131838,-0.03397,-0.033666,-0.021528,,,,,,,,,,,,,,,,,,,,,,,,,,,,,,,,,,,,,,,,,,,,,,,,,,,,,,,,,,,,,,,,,
28476,1645817503.302224,1645817503.3463962,77.0,0.0,4122.563965,4722.05127,4116.410156,4986.153809,4167.692383,450.0,1.0,15.0,,,,0.0,4.0,0.0,4.0,1.0,4.0,41.666668,,,,,,,,,,,,,,,,,,,,,,,,,,,,,,,,,,,,,,,,,,,,,,,,,,,,,,,,,,,,,,,,,,,,,,,,,,,,,,,,,,,,
28477,1645817503.310037,1645817503.35411,78.0,0.0,4078.974365,4439.487305,4204.615234000001,4406.153809,4175.897461,450.0,1.0,15.0,,,,0.0,4.0,0.0,4.0,1.0,4.0,41.666668,,,,,,,,39.0,0.0,0.05903099999999999,0.61792,-0.232422,-0.748779,0.903334,-0.435065,-0.122072,-0.033942,-0.033571,-0.024893000000000002,,,,,,,,,,,,,,,,,,,,,,,,,,,,,,,,,,,,,,,,,,,,,,,,,,,,,,,,,,,,,,,,,
28478,1645817503.317851,1645817503.361924,79.0,0.0,4144.102539,4286.153809,4209.743652,4127.692383,4109.743652,16156.0,1.0,15.0,,,,0.0,4.0,0.0,4.0,1.0,4.0,41.666668,,,,,,,,,,,,,,,,,,,,1.0,0.0,0.0,,,,,,,,,,,,,,,,,,,,,,,,,,,,,,,,0.0,0.0,1.0,0.0,512.0,1.0,126.904198,16.555538000000002,2.319338,4.501306,7.1622520000000005,51.531353,71.121338,13.465366,109.60807,157.736679,4.3282739999999995,3.7120269999999995,3.789109,7.206896,6.680072,8.91266,4.976374,6.8485059999999995,18.660006,15.307402,27.570742,6.808585000000001,1.757206,7.491582000000001,6.081686
28479,1645817503.325664,1645817503.369739,80.0,0.0,4204.102539,4393.333496,4206.666504,4415.384765999999,4126.666504,450.0,1.0,15.0,,,,0.0,4.0,0.0,4.0,1.0,4.0,41.666668,,,,,,,,40.0,0.0,0.060603,0.617676,-0.23266599999999998,-0.748779,0.902358,-0.43457700000000005,-0.131838,-0.033966,-0.033535,-0.021622,,,,,,,,,,,,,,,,,,,,,,,,,,,,,,,,,,,,,,,,,,,,,,,,,,,,,,,,,,,,,,,,,
28480,1645817503.333478,1645817503.377553,81.0,0.0,4189.230957,4640.512695,4195.897461,4283.077147999999,4212.307617,450.0,1.0,15.0,,,,0.0,4.0,0.0,4.0,1.0,4.0,41.666668,,,,,,,,,,,,,,,,,,,,,,,,,,,,,,,,,,,,,,,,,,,,,,,,,,,,,,,,,,,,,,,,,,,,,,,,,,,,,,,,,,,,
28481,1645817503.341291,1645817503.3853679,82.0,0.0,4176.410156,4792.820313,4142.05127,4133.333496,4240.512695,450.0,1.0,15.0,,,,0.0,4.0,0.0,4.0,1.0,4.0,41.666668,,,,,,,,41.0,0.0,0.057507,0.617676,-0.23266599999999998,-0.749023,0.8955209999999999,-0.435554,-0.137697,-0.033889999999999997,-0.03355,-0.024831,,,,,,,,,,,,,,,,,,,,,,,,,,,,,,,,,,,,,,,,,,,,,,,,,,,,,,,,,,,,,,,,,
28482,1645817503.349104,1645817503.393182,83.0,0.0,4149.743652,4561.538574,4152.307617,4265.128418,4195.384765999999,16156.0,1.0,15.0,,,,0.0,4.0,0.0,4.0,1.0,4.0,41.666668,,,,,,,,,,,,,,,,,,,,,,,,,,,,,,,,,,,,,,,,,,,,,,,,,,,,,,0.0,0.0,1.0,0.0,512.0,1.0,,,,,,,,,,,,,,,,,,,,,,,,,
28483,1645817503.3569179,1645817503.4009962,84.0,0.0,4125.641113000001,4282.05127,4193.846191,4305.641113000001,4132.820313,450.0,1.0,15.0,,,,0.0,4.0,0.0,4.0,1.0,4.0,41.666668,,,,,,,,42.0,0.0,0.056510000000000005,0.617676,-0.23290999999999998,-0.749023,0.906264,-0.425299,-0.13379100000000002,-0.033821,-0.033564,-0.02767,,,,,,,,,,,,,,,,,,,,,,,,,,,,,,,,,,,,,,,,,,,,,,,,,,,,,,,,,,,,,,,,,
28484,1645817503.364731,1645817503.4088109,85.0,0.0,4168.717772999999,4566.153809,4152.820313,4256.410156,4140.512695,450.0,1.0,15.0,,,,0.0,4.0,0.0,4.0,1.0,4.0,41.666668,,,,,,,,,,,,,,,,,,,,,,,,,,,,,,,,,,,,,,,,,,,,,,,,,,,,,,,,,,,,,,,,,,,,,,,,,,,,,,,,,,,,
28485,1645817503.372545,1645817503.416625,86.0,0.0,4198.974121,4811.794922,4142.05127,4205.128418,4187.692383,450.0,1.0,15.0,,,,0.0,4.0,0.0,4.0,1.0,4.0,41.666668,,,,,,,,43.0,0.0,0.059118,0.617432,-0.23290999999999998,-0.749023,0.9052870000000001,-0.44434300000000004,-0.129397,-0.033759,-0.033527999999999995,-0.030274000000000002,,,,,,,,,,,,,,,,,,,,,,,,,,,,,,,,,,,,,,,,,,,,,,,,,,,,,,,,,,,,,,,,,
28486,1645817503.380358,1645817503.4244401,87.0,0.0,4138.974121,4681.025879,4149.743652,4238.461426,4194.871582,16156.0,1.0,15.0,,,,0.0,4.0,0.0,4.0,1.0,4.0,41.666668,,,,,,,,,,,,,,,,,,,,,,,,,,,,,,,,,,,,,,,,,,,,,,,,,,,,,,0.0,0.0,1.0,0.0,512.0,1.0,,,,,,,,,,,,,,,,,,,,,,,,,
28487,1645817503.3881712,1645817503.432154,88.0,0.0,4110.769043,4531.794922,4142.563965,4283.077147999999,4167.692383,450.0,1.0,15.0,,,,0.0,4.0,0.0,4.0,1.0,4.0,41.666668,,,,,,,,44.0,0.0,0.059118,0.617432,-0.23290999999999998,-0.749023,0.8960100000000001,-0.44190100000000004,-0.127932,-0.033753,-0.033545,-0.032667,,,,,,,,,,,,,,,,,,,,,,,,,,,,,,,,,,,,,,,,,,,,,,,,,,,,,,,,,,,,,,,,,
28488,1645817503.395985,1645817503.439969,89.0,0.0,4154.358886999999,4347.179688,4185.128418,4319.487305,4126.153809,450.0,1.0,15.0,,,,0.0,4.0,0.0,4.0,1.0,4.0,41.666668,,,,,,,,,,,,,,,,,,,,,,,,,,,,,,,,,,,,,,,,,,,,,,,,,,,,,,,,,,,,,,,,,,,,,,,,,,,,,,,,,,,,
28489,1645817503.403798,1645817503.447783,90.0,0.0,4179.487305,4402.563965,4175.897461,4274.871582,4136.922852000001,450.0,1.0,15.0,,,,0.0,4.0,0.0,4.0,1.0,4.0,41.666668,,,,,,,,45.0,0.0,0.056946000000000004,0.617432,-0.23266599999999998,-0.749268,0.8999159999999999,-0.42969399999999996,-0.132326,-0.033746,-0.033559,-0.028520999999999998,,,,,,,,,,,,,,,,,,,,,,,,,,,,,,,,,,,,,,,,,,,,,,,,,,,,,,,,,,,,,,,,,
28490,1645817503.4116108,1645817503.4555972,91.0,0.0,4195.897461,4777.94873,4102.563965,4199.487305,4196.410156,16156.0,1.0,15.0,,,,0.0,4.0,0.0,4.0,1.0,4.0,41.666668,,,,,,,,,,,,,,,,,,,,,,,,,,,,,,,,,,,,,,,,,,,,,,,,,,,,,,0.0,0.0,1.0,0.0,512.0,1.0,,,,,,,,,,,,,,,,,,,,,,,,,
28491,1645817503.419425,1645817503.4634118,92.0,0.0,4189.230957,4821.538574,4122.563965,4243.077147999999,4212.307617,450.0,1.0,15.0,,,,0.0,4.0,0.0,4.0,1.0,4.0,41.666668,,,,,,,,46.0,0.0,0.059533,0.617188,-0.23266599999999998,-0.749268,0.9184709999999999,-0.440436,-0.129397,-0.033839,-0.033524,-0.030992000000000002,,,,,,,,,,,,,,,,,,,,,,,,,,,,,,,,,,,,,,,,,,,,,,,,,,,,,,,,,,,,,,,,,
28492,1645817503.427238,1645817503.471226,93.0,0.0,4126.666504,4501.538574,4185.641113000001,4284.615234000001,4164.615234000001,450.0,1.0,15.0,,,,0.0,4.0,0.0,4.0,1.0,4.0,41.666668,,,,,,,,,,,,,,,,,,,,,,,,,,,,,,,,,,,,,,,,,,,,,,,,,,,,,,,,,,,,,,,,,,,,,,,,,,,,,,,,,,,,
28493,1645817503.435052,1645817503.479041,94.0,0.0,4143.077147999999,4376.410156,4213.846191,4262.563965,4140.0,450.0,1.0,15.0,,,,0.0,4.0,0.0,4.0,1.0,4.0,41.666668,,,,,,,,47.0,0.0,0.057375,0.617188,-0.232422,-0.749512,0.904799,-0.4336,-0.13281500000000002,-0.033873,-0.033541,-0.033312,,,,,,,,,,,,,,,,,,,,,,,,,,,,,,,,,,,,,,,,,,,,,,,,,,,,,,,,,,,,,,,,,
28494,1645817503.4428651,1645817503.486855,95.0,0.0,4216.410156,4486.666504,4222.563965,4266.666504,4172.307617,16156.0,1.0,15.0,,,,0.0,4.0,0.0,4.0,1.0,4.0,41.666668,,,,,,,,,,,,,,,,,,,,1.0,0.0,0.0,,,,,,,,,,,,,,,,,,,,,,,,,,,,,,,,0.0,0.0,1.0,0.0,512.0,1.0,159.537628,17.891491000000002,2.338908,6.264419999999999,6.351995,63.50795,76.47269399999999,22.824713,154.48703,137.27075200000002,4.151991000000001,5.075844999999999,5.320776,8.488812,5.8754669999999996,10.977621000000001,6.481466,8.498509,19.205382999999998,14.555871,37.314358,7.489159,2.165552,8.115464,5.50569
28495,1645817503.4506779,1645817503.494669,96.0,0.0,4192.307617,4711.282227000001,4160.0,4239.487305,4226.666504,450.0,1.0,15.0,,,,0.0,4.0,0.0,4.0,1.0,4.0,41.666668,,,,,,,,48.0,0.0,0.057375,0.617188,-0.232422,-0.749512,0.901381,-0.42969399999999996,-0.134768,-0.033855,-0.033652999999999995,-0.035401,,,,,,,,,,,,,,,,,,,,,,,,,,,,,,,,,,,,,,,,,,,,,,,,,,,,,,,,,,,,,,,,,
28496,1645817503.458492,1645817503.502384,97.0,0.0,4146.153809,4833.846191,4097.94873,4181.538574,4248.717772999999,450.0,1.0,15.0,,,,0.0,4.0,0.0,4.0,1.0,4.0,41.666668,,,,,,,,,,,,,,,,,,,,,,,,,,,,,,,,,,,,,,,,,,,,,,,,,,,,,,,,,,,,,,,,,,,,,,,,,,,,,,,,,,,,
28497,1645817503.466305,1645817503.510198,98.0,0.0,4152.820313,4527.179688,4165.128418,4251.794922,4196.410156,450.0,1.0,15.0,,,,0.0,4.0,0.0,4.0,1.0,4.0,41.666668,,,,,,,,49.0,0.0,0.057375,0.617188,-0.232422,-0.749512,0.8886850000000001,-0.43262399999999995,-0.136233,-0.033887,-0.033755,-0.030933,,,,,,,,,,,,,,,,,,,,,,,,,,,,,,,,,,,,,,,,,,,,,,,,,,,,,,,,,,,,,,,,,
28498,1645817503.474119,1645817503.518013,99.0,0.0,4176.410156,4265.128418,4222.563965,4331.794922,4149.230957,16156.0,1.0,15.0,,,,0.0,4.0,0.0,4.0,1.0,4.0,41.666668,,,,,,,,,,,,,,,,,,,,,,,,,,,,,,,,,,,,,,,,,,,,,,,,,,,,,,0.0,0.0,1.0,0.0,512.0,1.0,,,,,,,,,,,,,,,,,,,,,,,,,
28499,1645817503.481932,1645817503.525827,100.0,0.0,4231.794922,4595.384765999999,4168.205078,4237.436035,4187.692383,450.0,1.0,15.0,,,,0.0,4.0,0.0,4.0,1.0,4.0,41.666668,,,,,,,,50.0,0.0,0.057375,0.617188,-0.232422,-0.749512,0.897963,-0.423346,-0.145998,-0.033917,-0.033749,-0.033309,,,,,,,,,,,,,,,,,,,,,,,,,,,,,,,,,,,,,,,,,,,,,,,,,,,,,,,,,,,,,,,,,
28500,1645817503.489746,1645817503.533642,101.0,0.0,4256.410156,4914.871582,4140.512695,4160.0,4232.307617,450.0,1.0,15.0,,,,0.0,4.0,0.0,4.0,1.0,4.0,41.666668,,,,,,,,,,,,,,,,,,,,,,,,,,,,,,,,,,,,,,,,,,,,,,,,,,,,,,,,,,,,,,,,,,,,,,,,,,,,,,,,,,,,
28501,1645817503.497559,1645817503.541456,102.0,0.0,4178.974121,4671.794922,4177.94873,4252.307617,4225.641113000001,450.0,1.0,15.0,,,,0.0,4.0,0.0,4.0,1.0,4.0,41.666668,,,,,,,,51.0,0.0,0.056808000000000004,0.616943,-0.232422,-0.7497560000000001,0.910658,-0.425788,-0.14844000000000002,-0.033845,-0.033743,-0.029148,,,,,,,,,,,,,,,,,,,,,,,,,,,,,,,,,,,,,,,,,,,,,,,,,,,,,,,,,,,,,,,,,
28502,1645817503.505372,1645817503.54927,103.0,0.0,4147.692383,4425.641113000001,4202.05127,4300.0,4222.05127,16156.0,1.0,15.0,,,,0.0,4.0,0.0,4.0,1.0,4.0,41.666668,,,,,,,,,,,,,,,,,,,,,,,,,,,,,,,,,,,,,,,,,,,,,,,,,,,,,,0.0,0.0,1.0,0.0,512.0,1.0,,,,,,,,,,,,,,,,,,,,,,,,,
28503,1645817503.513186,1645817503.557085,104.0,0.0,4218.974121,4542.05127,4206.153809,4250.769043,4192.307617,450.0,1.0,15.0,,,,0.0,4.0,0.0,4.0,1.0,4.0,41.666668,,,,,,,,52.0,0.0,0.056808000000000004,0.616943,-0.232422,-0.7497560000000001,0.902358,-0.422858,-0.13281500000000002,-0.03383,-0.033689,-0.031604,,,,,,,,,,,,,,,,,,,,,,,,,,,,,,,,,,,,,,,,,,,,,,,,,,,,,,,,,,,,,,,,,
28504,1645817503.520999,1645817503.564899,105.0,0.0,4223.077147999999,4665.641113000001,4180.0,4251.794922,4161.538574,450.0,1.0,15.0,,,,0.0,4.0,0.0,4.0,1.0,4.0,41.666668,,,,,,,,,,,,,,,,,,,,,,,,,,,,,,,,,,,,,,,,,,,,,,,,,,,,,,,,,,,,,,,,,,,,,,,,,,,,,,,,,,,,
28505,1645817503.5288131,1645817503.572614,106.0,0.0,4143.077147999999,4710.769043,4123.077147999999,4245.641113000001,4212.307617,450.0,1.0,15.0,,,,0.0,4.0,0.0,4.0,1.0,4.0,41.666668,,,,,,,,53.0,0.0,0.056808000000000004,0.616943,-0.232422,-0.7497560000000001,0.889174,-0.41992799999999997,-0.12842,-0.033865,-0.033689,-0.027565,,,,,,,,,,,,,,,,,,,,,,,,,,,,,,,,,,,,,,,,,,,,,,,,,,,,,,,,,,,,,,,,,
28506,1645817503.5366259,1645817503.580428,107.0,0.0,4139.487305,4621.538574,4145.641113000001,4234.871582,4244.615234000001,16156.0,1.0,15.0,,,,0.0,4.0,0.0,4.0,1.0,4.0,41.666668,,,,,,,,,,,,,,,,,,,,,,,,,,,,,,,,,,,,,,,,,,,,,,,,,,,,,,0.0,0.0,1.0,0.0,512.0,1.0,,,,,,,,,,,,,,,,,,,,,,,,,
28507,1645817503.544439,1645817503.588243,108.0,0.0,4207.179688,4285.128418,4244.615234000001,4317.94873,4183.589844,450.0,1.0,15.0,,,,0.0,4.0,0.0,4.0,1.0,4.0,41.666668,,,,,,,,54.0,0.0,0.056808000000000004,0.616943,-0.232422,-0.7497560000000001,0.8833139999999999,-0.421393,-0.137209,-0.033895999999999996,-0.033738,-0.030180000000000002,,,,,,,,,,,,,,,,,,,,,,,,,,,,,,,,,,,,,,,,,,,,,,,,,,,,,,,,,,,,,,,,,
28508,1645817503.552253,1645817503.596057,109.0,0.0,4234.358886999999,4306.153809,4228.205078,4319.487305,4179.487305,450.0,1.0,15.0,,,,0.0,4.0,0.0,4.0,1.0,4.0,41.666668,,,,,,,,,,,,,,,,,,,,,,,,,,,,,,,,,,,,,,,,,,,,,,,,,,,,,,,,,,,,,,,,,,,,,,,,,,,,,,,,,,,,
28509,1645817503.560066,1645817503.603871,110.0,0.0,4201.025879,4758.461426,4112.820313,4197.94873,4253.846191,450.0,1.0,15.0,,,,0.0,4.0,0.0,4.0,1.0,4.0,41.666668,,,,,,,,55.0,0.0,0.056808000000000004,0.616943,-0.232422,-0.7497560000000001,0.904799,-0.421393,-0.133303,-0.033875999999999996,-0.033734,-0.032582,,,,,,,,,,,,,,,,,,,,,,,,,,,,,,,,,,,,,,,,,,,,,,,,,,,,,,,,,,,,,,,,,
28510,1645817503.5678802,1645817503.611686,111.0,0.0,4154.871582,4704.102539,4111.794922,4228.205078,4240.0,16156.0,1.0,15.0,,,,0.0,4.0,0.0,4.0,1.0,4.0,41.666668,,,,,,,,,,,,,,,,,,,,1.0,0.0,0.0,,,,,,,,,,,,,,,,,,,,,,,,,,,,,,,,0.0,0.0,1.0,0.0,512.0,1.0,177.57650800000002,17.379864,2.616162,9.435333,5.804836,73.276161,80.828979,37.358715000000004,233.98500099999998,123.244904,4.11754,6.880885,7.336529,10.91836,5.017338,12.608880000000001,8.536058,12.648495,23.718872,17.324253,45.650684000000005,7.674359,2.779348,9.671055,5.24737
28511,1645817503.575693,1645817503.6195,112.0,0.0,4136.410156,4318.461426,4170.256348,4334.358886999999,4144.615234000001,450.0,1.0,15.0,,,,0.0,4.0,0.0,4.0,1.0,4.0,41.666668,,,,,,,,56.0,0.0,0.056808000000000004,0.616943,-0.232422,-0.7497560000000001,0.903334,-0.427741,-0.134279,-0.033906,-0.033777999999999996,-0.034743,,,,,,,,,,,,,,,,,,,,,,,,,,,,,,,,,,,,,,,,,,,,,,,,,,,,,,,,,,,,,,,,,
28512,1645817503.583506,1645817503.627315,113.0,0.0,4200.512695,4422.563965,4177.436035,4287.179688,4132.307617,450.0,1.0,15.0,,,,0.0,4.0,0.0,4.0,1.0,4.0,41.666668,,,,,,,,,,,,,,,,,,,,,,,,,,,,,,,,,,,,,,,,,,,,,,,,,,,,,,,,,,,,,,,,,,,,,,,,,,,,,,,,,,,,
28513,1645817503.59132,1645817503.635129,114.0,0.0,4266.666504,4706.666504,4177.436035,4217.94873,4204.102539,450.0,1.0,15.0,,,,0.0,4.0,0.0,4.0,1.0,4.0,41.666668,,,,,,,,57.0,0.0,0.054091,0.617188,-0.232422,-0.7497560000000001,0.9199360000000001,-0.41406899999999996,-0.133303,-0.033836,-0.033819,-0.030389999999999997,,,,,,,,,,,,,,,,,,,,,,,,,,,,,,,,,,,,,,,,,,,,,,,,,,,,,,,,,,,,,,,,,
28514,1645817503.599133,1645817503.642844,115.0,0.0,4211.794922,4795.897461,4143.077147999999,4222.563965,4242.05127,16156.0,1.0,15.0,,,,0.0,4.0,0.0,4.0,1.0,4.0,41.666668,,,,,,,,,,,,,,,,,,,,,,,,,,,,,,,,,,,,,,,,,,,,,,,,,,,,,,0.0,0.0,1.0,0.0,512.0,1.0,,,,,,,,,,,,,,,,,,,,,,,,,
28515,1645817503.6069472,1645817503.650658,116.0,0.0,4145.641113000001,4697.94873,4110.256348,4225.128418,4219.487305,450.0,1.0,15.0,,,,0.0,4.0,0.0,4.0,1.0,4.0,41.666668,,,,,,,,58.0,0.0,0.054091,0.617188,-0.232422,-0.7497560000000001,0.905776,-0.42627600000000004,-0.12255999999999999,-0.033871,-0.033806,-0.026619,,,,,,,,,,,,,,,,,,,,,,,,,,,,,,,,,,,,,,,,,,,,,,,,,,,,,,,,,,,,,,,,,
28516,1645817503.61476,1645817503.658472,117.0,0.0,4192.307617,4394.358886999999,4186.153809,4252.820313,4173.846191,450.0,1.0,15.0,,,,0.0,4.0,0.0,4.0,1.0,4.0,41.666668,,,,,,,,,,,,,,,,,,,,,,,,,,,,,,,,,,,,,,,,,,,,,,,,,,,,,,,,,,,,,,,,,,,,,,,,,,,,,,,,,,,,
28517,1645817503.6225731,1645817503.666287,118.0,0.0,4233.333496,4358.974121,4224.102539,4283.077147999999,4167.179688,450.0,1.0,15.0,,,,0.0,4.0,0.0,4.0,1.0,4.0,41.666668,,,,,,,,59.0,0.0,0.055129,0.617188,-0.23217800000000002,-0.7497560000000001,0.9072399999999999,-0.430671,-0.131838,-0.033755,-0.033746,-0.029376999999999997,,,,,,,,,,,,,,,,,,,,,,,,,,,,,,,,,,,,,,,,,,,,,,,,,,,,,,,,,,,,,,,,,
28518,1645817503.6303868,1645817503.6741009,119.0,0.0,4184.615234000001,4769.743652,4118.974121,4241.025879,4217.94873,16156.0,1.0,15.0,,,,0.0,4.0,0.0,4.0,1.0,4.0,41.666668,,,,,,,,,,,,,,,,,,,,,,,,,,,,,,,,,,,,,,,,,,,,,,,,,,,,,,0.0,0.0,1.0,0.0,512.0,1.0,,,,,,,,,,,,,,,,,,,,,,,,,
28519,1645817503.6382,1645817503.681916,120.0,0.0,4167.179688,4761.538574,4105.128418,4247.179688,4236.410156,450.0,1.0,15.0,,,,0.0,4.0,0.0,4.0,1.0,4.0,41.666668,,,,,,,,60.0,0.0,0.055129,0.617188,-0.23217800000000002,-0.7497560000000001,0.8994280000000001,-0.41406899999999996,-0.124025,-0.033846,-0.033789,-0.031810000000000005,,,,,,,,,,,,,,,,,,,,,,,,,,,,,,,,,,,,,,,,,,,,,,,,,,,,,,,,,,,,,,,,,
28520,1645817503.646014,1645817503.6897302,121.0,0.0,4210.769043,4257.94873,4213.846191,4342.05127,4168.205078,450.0,1.0,15.0,,,,0.0,4.0,0.0,4.0,1.0,4.0,41.666668,,,,,,,,,,,,,,,,,,,,,,,,,,,,,,,,,,,,,,,,,,,,,,,,,,,,,,,,,,,,,,,,,,,,,,,,,,,,,,,,,,,,
28521,1645817503.653827,1645817503.6975439,122.0,0.0,4224.615234000001,4348.717772999999,4196.410156,4301.025879,4157.436035,450.0,1.0,15.0,,,,0.0,4.0,0.0,4.0,1.0,4.0,41.666668,,,,,,,,61.0,0.0,0.057375,0.617188,-0.232422,-0.749512,0.894545,-0.42236999999999997,-0.126467,-0.033831,-0.033632999999999996,-0.027799,,,,,,,,,,,,,,,,,,,,,,,,,,,,,,,,,,,,,,,,,,,,,,,,,,,,,,,,,,,,,,,,,
28522,1645817503.66164,1645817503.705359,123.0,0.0,4193.333496,4856.922852000001,4091.794922,4165.641113000001,4245.128418,16156.0,1.0,15.0,,,,0.0,4.0,0.0,4.0,1.0,4.0,41.666668,,,,,,,,,,,,,,,,,,,,,,,,,,,,,,,,,,,,,,,,,,,,,,,,,,,,,,0.0,0.0,1.0,0.0,512.0,1.0,,,,,,,,,,,,,,,,,,,,,,,,,
28523,1645817503.6694539,1645817503.7131732,124.0,0.0,4185.641113000001,4673.333496,4128.717772999999,4236.922852000001,4256.922852000001,450.0,1.0,15.0,,,,0.0,4.0,0.0,4.0,1.0,4.0,41.666668,,,,,,,,62.0,0.0,0.055129,0.617188,-0.23217800000000002,-0.7497560000000001,0.9072399999999999,-0.430671,-0.131838,-0.033866,-0.033589999999999995,-0.024043000000000002,,,,,,,,,,,,,,,,,,,,,,,,,,,,,,,,,,,,,,,,,,,,,,,,,,,,,,,,,,,,,,,,,
28524,1645817503.677267,1645817503.7208881,125.0,0.0,4204.102539,4113.846191,4226.666504,4392.307617,4157.94873,450.0,1.0,15.0,,,,0.0,4.0,1.0,4.0,1.0,4.0,50.0,,,,,,,,,,,,,,,,,,,,,,,,,,,,,,,,,,,,,,,,,,,,,,,,,,,,,,,,,,,,,,,,,,,,,,,,,,,,,,,,,,,,
28525,1645817503.685081,1645817503.728702,126.0,0.0,4241.538574,4348.205078,4200.0,4298.974121,4153.846191,450.0,1.0,15.0,,,,0.0,4.0,1.0,4.0,1.0,4.0,50.0,,,,,,,,63.0,0.0,0.057375,0.617188,-0.232422,-0.749512,0.894545,-0.42236999999999997,-0.126467,-0.033848,-0.033454000000000005,-0.020808,,,,,,,,,,,,,,,,,,,,,,,,,,,,,,,,,,,,,,,,,,,,,,,,,,,,,,,,,,,,,,,,,
28526,1645817503.692894,1645817503.736517,127.0,0.0,4263.589844,4912.820313,4125.641113000001,4146.153809,4257.436035,233.0,1.0,15.0,,,,0.0,4.0,1.0,4.0,1.0,4.0,50.0,1.0,8.333333,1.0,0.0,1.0,0.0,1.0,,,,,,,,,,,,,1.0,0.0,0.0,,,,,,,,,,,,,,,,,,,,,,,,,,,,,,,,0.0,0.0,1.0,0.0,512.0,1.0,173.991348,15.370419,3.170197,13.792339000000002,5.781345,79.89715600000001,84.412666,55.432331000000005,343.193054,121.26531200000001,4.35283,9.190253,9.353116,14.437176999999998,4.313251999999999,14.263589999999999,12.376876,21.964949,35.578751000000004,27.898272,49.768867,7.416562,3.458989,12.240713000000001,5.4707989999999995
28527,1645817503.700707,1645817503.7443311,0.0,0.0,4200.0,4738.461426,4130.256348,4238.461426,4261.538574,450.0,1.0,15.0,,,,0.0,4.0,1.0,4.0,1.0,4.0,50.0,,,,,,,,0.0,0.0,0.057375,0.617188,-0.232422,-0.749512,0.9028459999999999,-0.422858,-0.138186,-0.033832999999999995,-0.033624,-0.024099000000000002,,,,,,,,,,,,,,,,,,,,,,,,,,,,,,,,,,,,,,,,,,,,,,,,,,,,,,,,,,,,,,,,,
28528,1645817503.7085211,1645817503.7521448,1.0,0.0,4153.846191,4413.846191,4155.384765999999,4312.307617,4201.025879,450.0,1.0,15.0,,,,0.0,4.0,1.0,4.0,1.0,4.0,50.0,,,,,,,,,,,,,,,,,,,,,,,,,,,,,,,,,,,,,,,,,,,,,,,,,,,,,,,,,,,,,,,,,,,,,,,,,,,,,,,,,,,,
28529,1645817503.7163339,1645817503.75996,2.0,0.0,4216.922852000001,4486.153809,4170.256348,4230.256348,4181.025879,16149.0,1.0,15.0,,,,0.0,4.0,1.0,4.0,1.0,4.0,50.0,,,,,,,,1.0,0.0,0.057375,0.617188,-0.232422,-0.749512,0.9091940000000001,-0.41846300000000003,-0.134279,-0.033964999999999995,-0.033582,-0.027011,,,,,,,,,,,,,,,,,,,,,,,,,,,,,,,,,,,,,,,,,,,,,,,,,,,,,,,,,,,,,,,,,
28530,1645817503.724148,1645817503.767774,3.0,0.0,4276.410156,4625.128418,4175.897461,4208.717772999999,4183.589844,450.0,1.0,15.0,,,,0.0,4.0,1.0,4.0,1.0,4.0,50.0,,,,,,,,,,,,,,,,,,,,,,,,,,,,,,,,,,,,,,,,,,,,,,,,,,,,,,0.0,0.0,1.0,0.0,512.0,1.0,,,,,,,,,,,,,,,,,,,,,,,,,
28531,1645817503.731961,1645817503.775589,4.0,0.0,4235.384765999999,4775.897461,4131.794922,4234.871582,4230.256348,47.0,1.0,15.0,,,,0.0,4.0,1.0,4.0,1.0,4.0,50.0,,,,,,,,2.0,0.0,0.057375,0.617188,-0.232422,-0.749512,0.9072399999999999,-0.43408900000000006,-0.12842,-0.034036000000000004,-0.033642,-0.02348,,,,,,,,,,,,,,,,,,,,,,,,,,,,,,,,,,,,,,,,,,,,,,,,,,,,,,,,,,,,,,,,,
28532,1645817503.739774,1645817503.783403,5.0,0.0,4205.128418,4796.410156,4114.358886999999,4206.666504,4281.025879,450.0,1.0,15.0,,,,0.0,4.0,1.0,4.0,1.0,4.0,50.0,,,,,,,,,,,,,,,,,,,,,,,,,,,,,,,,,,,,,,,,,,,,,,,,,,,,,,,,,,,,,,,,,,,,,,,,,,,,,,,,,,,,
28533,1645817503.7475882,1645817503.791117,6.0,0.0,4244.102539,4465.128418,4190.256348,4243.077147999999,4224.102539,16129.0,1.0,15.0,,,,0.0,4.0,1.0,4.0,1.0,4.0,50.0,,,,,,,,3.0,0.0,0.056376,0.617188,-0.23266599999999998,-0.749512,0.8964979999999999,-0.431159,-0.131838,-0.034000999999999997,-0.033696,-0.026552,,,,,,,,,,,,,,,,,,,,,,,,,,,,,,,,,,,,,,,,,,,,,,,,,,,,,,,,,,,,,,,,,
28534,1645817503.755401,1645817503.798932,7.0,0.0,4267.179688,4350.769043,4216.410156,4304.615234000001,4178.461426,450.0,1.0,15.0,,,,0.0,4.0,1.0,4.0,1.0,4.0,50.0,,,,,,,,,,,,,,,,,,,,,,,,,,,,,,,,,,,,,,,,,,,,,,,,,,,,,,0.0,0.0,1.0,0.0,512.0,1.0,,,,,,,,,,,,,,,,,,,,,,,,,
28535,1645817503.763215,1645817503.806746,8.0,0.0,4234.871582,4741.025879,4130.769043,4255.897461,4258.461426,450.0,1.0,15.0,,,,0.0,4.0,1.0,4.0,1.0,4.0,50.0,,,,,,,,4.0,0.0,0.056376,0.617188,-0.23266599999999998,-0.749512,0.8969860000000001,-0.42627600000000004,-0.120119,-0.034019,-0.033645999999999995,-0.023116,,,,,,,,,,,,,,,,,,,,,,,,,,,,,,,,,,,,,,,,,,,,,,,,,,,,,,,,,,,,,,,,,
28536,1645817503.771028,1645817503.814561,9.0,0.0,4206.153809,4761.025879,4117.436035,4230.256348,4271.794922,73.0,1.0,15.0,,,,0.0,4.0,1.0,4.0,1.0,4.0,50.0,,,,,,,,,,,,,,,,,,,,,,,,,,,,,,,,,,,,,,,,,,,,,,,,,,,,,,,,,,,,,,,,,,,,,,,,,,,,,,,,,,,,
28537,1645817503.778841,1645817503.822375,10.0,0.0,4235.384765999999,4380.0,4198.461426,4300.0,4172.820313,450.0,1.0,15.0,,,,0.0,4.0,1.0,4.0,1.0,4.0,50.0,,,,,,,,5.0,0.0,0.056376,0.617188,-0.23266599999999998,-0.749512,0.901869,-0.427253,-0.125002,-0.034083999999999996,-0.033651,-0.026224,,,,,,,,,,,,,,,,,,,,,,,,,,,,,,,,,,,,,,,,,,,,,,,,,,,,,,,,,,,,,,,,,
28538,1645817503.7866552,1645817503.83019,11.0,0.0,4264.615234000001,4464.615234000001,4189.743652,4296.922852000001,4182.563965,16173.0,1.0,15.0,,,,0.0,4.0,1.0,4.0,1.0,4.0,50.0,,,,,,,,,,,,,,,,,,,,,,,,,,,,,,,,,,,,,,,,,,,,,,,,,,,,,,0.0,0.0,1.0,0.0,512.0,1.0,,,,,,,,,,,,,,,,,,,,,,,,,
28539,1645817503.794468,1645817503.8380039,12.0,0.0,4227.692383,4775.384765999999,4108.205078,4207.692383,4272.307617,450.0,1.0,15.0,,,,0.0,4.0,1.0,4.0,1.0,4.0,50.0,,,,,,,,6.0,0.0,0.055359000000000005,0.617188,-0.23290999999999998,-0.749512,0.908217,-0.43213500000000005,-0.127932,-0.034094,-0.033655000000000004,-0.029022000000000003,,,,,,,,,,,,,,,,,,,,,,,,,,,,,,,,,,,,,,,,,,,,,,,,,,,,,,,,,,,,,,,,,
28540,1645817503.802282,1645817503.845818,13.0,0.0,4204.615234000001,4585.641113000001,4142.563965,4231.282227000001,4254.358886999999,450.0,1.0,15.0,,,,0.0,4.0,1.0,4.0,1.0,4.0,50.0,,,,,,,,,,,,,,,,,,,,,,,,,,,,,,,,,,,,,,,,,,,,,,,,,,,,,,,,,,,,,,,,,,,,,,,,,,,,,,,,,,,,
28541,1645817503.8100948,1645817503.853633,14.0,0.0,4247.179688,4209.230957,4231.282227000001,4334.358886999999,4173.846191,450.0,1.0,15.0,,,,0.0,4.0,1.0,4.0,1.0,4.0,50.0,,,,,,,,7.0,0.0,0.055359000000000005,0.617188,-0.23290999999999998,-0.749512,0.8916149999999999,-0.42676400000000003,-0.13086099999999998,-0.034053,-0.03361,-0.031539,,,,,,,,,,,,,,,,,,,,,,,,,,,,,,,,,,,,,,,,,,,,,,,,,,,,,,,,,,,,,,,,,
28542,1645817503.817908,1645817503.861447,15.0,0.0,4286.666504,4467.179688,4180.0,4264.615234000001,4188.205078,16173.0,1.0,15.0,,,,0.0,4.0,1.0,4.0,1.0,4.0,50.0,,,,,,,,,,,,,,,,,,,,1.0,0.0,0.0,,,,,,,,,,,,,,,,,,,,,,,,,,,,,,,,0.0,0.0,1.0,0.0,512.0,1.0,151.702972,12.609552,3.9140629999999996,18.516813,6.433436,82.974457,87.374931,73.78897099999999,461.022705,135.075989,4.913409,11.858685000000001,10.755532,18.520398999999998,4.009412,16.5061,19.127596,37.834423,56.184273,48.559399,49.091910999999996,6.891839,4.021889,15.395132,6.247325
28543,1645817503.825722,1645817503.8691618,16.0,0.0,4259.487305,4942.05127,4076.923096,4142.563965,4255.897461,0.0,1.0,15.0,,,,0.0,4.0,1.0,4.0,1.0,4.0,50.0,,,,,,,,8.0,0.0,0.058571000000000005,0.617188,-0.23290999999999998,-0.749268,0.9043110000000001,-0.43262399999999995,-0.125002,-0.034017,-0.033618,-0.027555,,,,,,,,,,,,,,,,,,,,,,,,,,,,,,,,,,,,,,,,,,,,,,,,,,,,,,,,,,,,,,,,,
28544,1645817503.833535,1645817503.876976,17.0,0.0,4190.256348,4715.897461,4108.717772999999,4243.589844,4253.333496,0.0,1.0,15.0,,,,0.0,4.0,1.0,4.0,1.0,4.0,50.0,,,,,,,,,,,,,,,,,,,,,,,,,,,,,,,,,,,,,,,,,,,,,,,,,,,,,,,,,,,,,,,,,,,,,,,,,,,,,,,,,,,,
28545,1645817503.8413491,1645817503.88479,18.0,0.0,4169.743652,4295.897461,4173.846191,4341.538574,4190.256348,0.0,1.0,15.0,,,,0.0,4.0,1.0,4.0,1.0,4.0,50.0,,,,,,,,9.0,0.0,0.057590999999999996,0.617188,-0.233154,-0.749268,0.900893,-0.443366,-0.131838,-0.033985,-0.033674,-0.030073000000000003,,,,,,,,,,,,,,,,,,,,,,,,,,,,,,,,,,,,,,,,,,,,,,,,,,,,,,,,,,,,,,,,,
28546,1645817503.8491619,1645817503.8925052,19.0,0.0,4251.282227000001,4512.820313,4164.102539,4224.615234000001,4183.589844,0.0,1.0,15.0,,,,0.0,4.0,1.0,4.0,1.0,4.0,50.0,,,,,,,,,,,,,,,,,,,,,,,,,,,,,,,,,,,,,,,,,,,,,,,,,,,,,,0.0,0.0,1.0,0.0,512.0,1.0,,,,,,,,,,,,,,,,,,,,,,,,,
28547,1645817503.856975,1645817503.9003189,20.0,0.0,4323.077147999999,4860.0,4160.0,4175.897461,4258.461426,0.0,1.0,15.0,,,,0.0,4.0,1.0,4.0,1.0,4.0,50.0,,,,,,,,10.0,0.0,0.054322,0.617188,-0.233154,-0.749512,0.908217,-0.425788,-0.12842,-0.034053,-0.033725,-0.032486,,,,,,,,,,,,,,,,,,,,,,,,,,,,,,,,,,,,,,,,,,,,,,,,,,,,,,,,,,,,,,,,,
28548,1645817503.864789,1645817503.908134,21.0,0.0,4249.230957,4670.256348,4160.0,4292.820313,4272.820313,0.0,1.0,15.0,,,,0.0,4.0,1.0,4.0,1.0,4.0,50.0,,,,,,,,,,,,,,,,,,,,,,,,,,,,,,,,,,,,,,,,,,,,,,,,,,,,,,,,,,,,,,,,,,,,,,,,,,,,,,,,,,,,
28549,1645817503.872602,1645817503.9159482,22.0,0.0,4186.153809,4438.461426,4127.692383,4290.769043,4209.743652,0.0,1.0,15.0,,,,0.0,4.0,1.0,4.0,1.0,4.0,50.0,,,,,,,,11.0,0.0,0.054322,0.617188,-0.233154,-0.749512,0.9087049999999999,-0.4336,-0.136721,-0.034066,-0.033673,-0.034609,,,,,,,,,,,,,,,,,,,,,,,,,,,,,,,,,,,,,,,,,,,,,,,,,,,,,,,,,,,,,,,,,
28550,1645817503.880416,1645817503.923763,23.0,0.0,4281.538574,4560.0,4146.153809,4221.025879,4188.205078,0.0,1.0,15.0,,,,0.0,4.0,1.0,4.0,1.0,4.0,50.0,,,,,,,,,,,,,,,,,,,,,,,,,,,,,,,,,,,,,,,,,,,,,,,,,,,,,,0.0,0.0,1.0,0.0,512.0,1.0,,,,,,,,,,,,,,,,,,,,,,,,,
28551,1645817503.888229,1645817503.931577,24.0,0.0,4326.666504,4717.436035,4174.871582,4237.94873,4222.563965,0.0,1.0,15.0,,,,0.0,4.0,1.0,4.0,1.0,4.0,50.0,,,,,,,,12.0,0.0,0.057027999999999995,0.616943,-0.233154,-0.749512,0.900893,-0.42236999999999997,-0.131838,-0.034076999999999996,-0.033625999999999996,-0.030269,,,,,,,,,,,,,,,,,,,,,,,,,,,,,,,,,,,,,,,,,,,,,,,,,,,,,,,,,,,,,,,,,
28552,1645817503.896042,1645817503.939391,25.0,0.0,4218.461426,4672.820313,4138.974121,4248.205078,4255.384765999999,0.0,1.0,15.0,,,,0.0,4.0,1.0,4.0,1.0,4.0,50.0,,,,,,,,,,,,,,,,,,,,,,,,,,,,,,,,,,,,,,,,,,,,,,,,,,,,,,,,,,,,,,,,,,,,,,,,,,,,,,,,,,,,
28553,1645817503.903856,1645817503.9471061,26.0,0.0,4188.717772999999,4490.256348,4143.589844,4246.153809,4248.717772999999,0.0,1.0,15.0,,,,0.0,4.0,1.0,4.0,1.0,4.0,50.0,,,,,,,,13.0,0.0,0.05602000000000001,0.616943,-0.233398,-0.749512,0.910658,-0.43213500000000005,-0.13379100000000002,-0.034136,-0.033632,-0.032612999999999996,,,,,,,,,,,,,,,,,,,,,,,,,,,,,,,,,,,,,,,,,,,,,,,,,,,,,,,,,,,,,,,,,
28554,1645817503.911669,1645817503.9549198,27.0,0.0,4306.666504,4470.256348,4208.205078,4267.179688,4214.358886999999,0.0,1.0,15.0,,,,0.0,4.0,1.0,4.0,1.0,4.0,50.0,,,,,,,,,,,,,,,,,,,,,,,,,,,,,,,,,,,,,,,,,,,,,,,,,,,,,,0.0,0.0,1.0,0.0,512.0,1.0,,,,,,,,,,,,,,,,,,,,,,,,,
28555,1645817503.919483,1645817503.962735,28.0,0.0,4337.94873,4716.410156,4192.820313,4215.384765999999,4237.94873,0.0,1.0,15.0,,,,0.0,4.0,1.0,4.0,1.0,4.0,50.0,,,,,,,,14.0,0.0,0.05602000000000001,0.616943,-0.233398,-0.749512,0.902358,-0.43799499999999997,-0.14257999999999998,-0.034043000000000004,-0.033589999999999995,-0.034869,,,,,,,,,,,,,,,,,,,,,,,,,,,,,,,,,,,,,,,,,,,,,,,,,,,,,,,,,,,,,,,,,
28556,1645817503.9272962,1645817503.970549,29.0,0.0,4221.025879,4782.563965,4120.512695,4147.692383,4284.102539,0.0,1.0,15.0,,,,0.0,4.0,1.0,4.0,1.0,4.0,50.0,,,,,,,,,,,,,,,,,,,,,,,,,,,,,,,,,,,,,,,,,,,,,,,,,,,,,,,,,,,,,,,,,,,,,,,,,,,,,,,,,,,,
28557,1645817503.9351099,1645817503.978364,30.0,0.0,4201.025879,4465.128418,4152.820313,4236.922852000001,4246.153809,0.0,1.0,15.0,,,,0.0,4.0,1.0,4.0,1.0,4.0,50.0,,,,,,,,15.0,0.0,0.05602000000000001,0.616943,-0.233398,-0.749512,0.909682,-0.43408900000000006,-0.14257999999999998,-0.033958999999999996,-0.0336,-0.036802999999999995,,,,,,,,,,,,,,,,,,,,,,,,,,,,,,,,,,,,,,,,,,,,,,,,,,,,,,,,,,,,,,,,,
28558,1645817503.942923,1645817503.986178,31.0,0.0,4314.358886999999,4403.589844,4214.358886999999,4309.230957,4215.384765999999,0.0,1.0,15.0,,,,0.0,4.0,1.0,4.0,1.0,4.0,50.0,,,,,,,,,,,,,,,,,,,,1.0,0.0,0.0,,,,,,,,,,,,,,,,,,,,,,,,,,,,,,,,0.0,0.0,1.0,0.0,512.0,1.0,116.80158200000001,9.961884,4.726234,22.360794,7.747696,82.340958,89.84026300000001,87.882545,556.961426,167.833267,5.583182,14.426031,11.005322,22.275717,4.427308,19.416487,28.665665,58.449847999999996,82.84315500000001,77.14694200000001,43.365826,6.288057,4.309492,18.261805,7.598936
28559,1645817503.950736,1645817503.993992,32.0,0.0,4315.897461,4713.333496,4169.743652,4251.282227000001,4260.0,0.0,1.0,15.0,,,,0.0,4.0,1.0,4.0,1.0,4.0,50.0,,,,,,,,16.0,0.0,0.053263,0.617188,-0.233398,-0.749512,0.9004040000000001,-0.42822899999999997,-0.13086099999999998,-0.033884,-0.033658,-0.038493,,,,,,,,,,,,,,,,,,,,,,,,,,,,,,,,,,,,,,,,,,,,,,,,,,,,,,,,,,,,,,,,,
28560,1645817503.95855,1645817504.001807,33.0,0.0,4209.743652,4689.743652,4114.358886999999,4233.333496,4247.692383,0.0,1.0,15.0,,,,0.0,4.0,1.0,4.0,1.0,4.0,50.0,,,,,,,,,,,,,,,,,,,,,,,,,,,,,,,,,,,,,,,,,,,,,,,,,,,,,,,,,,,,,,,,,,,,,,,,,,,,,,,,,,,,
28561,1645817503.9663632,1645817504.0096211,34.0,0.0,4241.538574,4389.743652,4178.461426,4287.179688,4192.820313,0.0,1.0,15.0,,,,0.0,4.0,1.0,4.0,1.0,4.0,50.0,,,,,,,,17.0,0.0,0.053263,0.617188,-0.233398,-0.749512,0.9077290000000001,-0.41944,-0.119631,-0.033816000000000006,-0.033612,-0.040162,,,,,,,,,,,,,,,,,,,,,,,,,,,,,,,,,,,,,,,,,,,,,,,,,,,,,,,,,,,,,,,,,
28562,1645817503.974177,1645817504.017436,35.0,0.0,4336.410156,4479.487305,4227.692383,4294.358886999999,4220.512695,0.0,1.0,15.0,,,,0.0,4.0,1.0,4.0,1.0,4.0,50.0,,,,,,,,,,,,,,,,,,,,,,,,,,,,,,,,,,,,,,,,,,,,,,,,,,,,,,0.0,0.0,1.0,0.0,512.0,1.0,,,,,,,,,,,,,,,,,,,,,,,,,
