,Timestamp,OriginalTimestamp,EEG.Counter,EEG.Interpolated,EEG.AF3,EEG.T7,EEG.Pz,EEG.T8,EEG.AF4,EEG.RawCq,EEG.Battery,EEG.BatteryPercent,MarkerIndex,MarkerType,MarkerValueInt,EEG.MarkerHardware,CQ.AF3,CQ.T7,CQ.Pz,CQ.T8,CQ.AF4,CQ.Overall,EQ.SampleRateQuality,EQ.OVERALL,EQ.AF3,EQ.T7,EQ.Pz,EQ.T8,EQ.AF4,MOT.CounterMems,MOT.InterpolatedMems,MOT.Q0,MOT.Q1,MOT.Q2,MOT.Q3,MOT.AccX,MOT.AccY,MOT.AccZ,MOT.MagX,MOT.MagY,MOT.MagZ,MC.Action,MC.ActionPower,MC.IsActive,PM.Engagement.IsActive,PM.Engagement.Scaled,PM.Engagement.Raw,PM.Engagement.Min,PM.Engagement.Max,PM.Excitement.IsActive,PM.Excitement.Scaled,PM.Excitement.Raw,PM.Excitement.Min,PM.Excitement.Max,PM.LongTermExcitement,PM.Stress.IsActive,PM.Stress.Scaled,PM.Stress.Raw,PM.Stress.Min,PM.Stress.Max,PM.Relaxation.IsActive,PM.Relaxation.Scaled,PM.Relaxation.Raw,PM.Relaxation.Min,PM.Relaxation.Max,PM.Interest.IsActive,PM.Interest.Scaled,PM.Interest.Raw,PM.Interest.Min,PM.Interest.Max,PM.Focus.IsActive,PM.Focus.Scaled,PM.Focus.Raw,PM.Focus.Min,PM.Focus.Max,FE.BlinkWink,FE.HorizontalEyesDirection,FE.UpperFaceAction,FE.UpperFaceActionPower,FE.LowerFaceAction,FE.LowerFaceActionPower,POW.AF3.Theta,POW.AF3.Alpha,POW.AF3.BetaL,POW.AF3.BetaH,POW.AF3.Gamma,POW.T7.Theta,POW.T7.Alpha,POW.T7.BetaL,POW.T7.BetaH,POW.T7.Gamma,POW.Pz.Theta,POW.Pz.Alpha,POW.Pz.BetaL,POW.Pz.BetaH,POW.Pz.Gamma,POW.T8.Theta,POW.T8.Alpha,POW.T8.BetaL,POW.T8.BetaH,POW.T8.Gamma,POW.AF4.Theta,POW.AF4.Alpha,POW.AF4.BetaL,POW.AF4.BetaH,POW.AF4.Gamma
27371,1645817494.668416,1645817494.70909,124.0,0.0,4293.846191,4312.307617,4201.025879,4294.358886999999,4244.102539,450.0,1.0,15.0,27.0,1.0,2.0,0.0,4.0,0.0,2.0,0.0,4.0,16.666666,,,,,,,,62.0,0.0,0.064348,0.6191409999999999,-0.228516,-0.7485350000000001,0.8881969999999999,-0.442878,-0.13135,-0.034187,-0.033882999999999996,-0.028825,,,,,,,,,,,,,,,,,,,,,,,,,,,,,,,,,,,,,,,,,,,,,,,,,,,,,,,,,,,,,,,,,
27372,1645817494.676229,1645817494.716905,125.0,0.0,4324.102539,4255.897461,4238.974121,4343.589844,4235.384765999999,450.0,1.0,15.0,,,,0.0,4.0,0.0,2.0,0.0,4.0,16.666666,,,,,,,,,,,,,,,,,,,,,,,,,,,,,,,,,,,,,,,,,,,,,,,,,,,,,,,,,,,,,,,,,,,,,,,,,,,,,,,,,,,,
27373,1645817494.684042,1645817494.724719,126.0,0.0,4270.256348,4697.436035,4152.820313,4229.743652,4278.461426,450.0,1.0,15.0,,,,0.0,4.0,0.0,2.0,0.0,4.0,16.666666,,,,,,,,63.0,0.0,0.064348,0.6191409999999999,-0.228516,-0.7485350000000001,0.885267,-0.43018199999999995,-0.12549000000000002,-0.034138,-0.033864,-0.031313,,,,,,,,,,,,,,,,,,,,,,,,,,,,,,,,,,,,,,,,,,,,,,,,,,,,,,,,,,,,,,,,,
27374,1645817494.6918561,1645817494.732434,127.0,0.0,4240.0,4634.871582,4120.0,4190.256348,4236.410156,233.0,1.0,15.0,,,,0.0,4.0,0.0,4.0,0.0,4.0,33.333332,1.0,8.333333,1.0,0.0,1.0,0.0,1.0,,,,,,,,,,,,,1.0,0.0,0.0,,,,,,,,,,,,,,,,,,,,,,,,,,,,,,,,0.0,0.0,1.0,0.0,512.0,1.0,14.571451999999999,4.359385,2.080918,6.214949,18.199368,29.51333,28.032367999999998,68.18145799999999,84.750763,397.136658,3.677519,2.3164830000000003,2.877938,6.0465279999999995,15.039001,6.277888,8.383780999999999,14.974520000000002,12.783552,28.624781,7.836121,3.6697260000000003,1.7030299999999998,9.024966000000001,14.930513000000001
27375,1645817494.699669,1645817494.740249,0.0,0.0,4336.410156,4550.769043,4169.743652,4237.436035,4231.794922,450.0,1.0,15.0,,,,0.0,4.0,0.0,4.0,0.0,4.0,33.333332,,,,,,,,0.0,0.0,0.06665499999999999,0.618896,-0.228516,-0.7485350000000001,0.8994280000000001,-0.425299,-0.139651,-0.034142,-0.033847,-0.033553,,,,,,,,,,,,,,,,,,,,,,,,,,,,,,,,,,,,,,,,,,,,,,,,,,,,,,,,,,,,,,,,,
27376,1645817494.707483,1645817494.748063,1.0,0.0,4337.436035,4734.871582,4180.0,4274.871582,4285.641113000001,450.0,1.0,15.0,,,,0.0,4.0,0.0,4.0,0.0,4.0,33.333332,,,,,,,,,,,,,,,,,,,,,,,,,,,,,,,,,,,,,,,,,,,,,,,,,,,,,,,,,,,,,,,,,,,,,,,,,,,,,,,,,,,,
27377,1645817494.715296,1645817494.755878,2.0,0.0,4239.487305,4482.05127,4182.563965,4322.05127,4252.307617,16197.0,1.0,15.0,,,,0.0,4.0,0.0,4.0,0.0,4.0,33.333332,,,,,,,,1.0,0.0,0.063854,0.618896,-0.228516,-0.748779,0.903334,-0.422858,-0.127443,-0.034194999999999996,-0.033783,-0.035667000000000004,,,,,,,,,,,,,,,,,,,,,,,,,,,,,,,,,,,,,,,,,,,,,,,,,,,,,,,,,,,,,,,,,
27378,1645817494.723109,1645817494.7636929,3.0,0.0,4302.563965,4274.871582,4214.358886999999,4309.230957,4223.077147999999,450.0,1.0,15.0,,,,0.0,4.0,0.0,4.0,0.0,4.0,33.333332,,,,,,,,,,,,,,,,,,,,,,,,,,,,,,,,,,,,,,,,,,,,,,,,,,,,,,0.0,0.0,1.0,0.0,512.0,1.0,,,,,,,,,,,,,,,,,,,,,,,,,
27379,1645817494.730923,1645817494.771507,4.0,0.0,4397.94873,4701.538574,4188.717772999999,4225.641113000001,4274.358886999999,0.0,1.0,15.0,,,,0.0,4.0,0.0,4.0,0.0,4.0,33.333332,,,,,,,,2.0,0.0,0.064348,0.6191409999999999,-0.228516,-0.7485350000000001,0.885267,-0.43018199999999995,-0.12549000000000002,-0.034047,-0.033822000000000005,-0.031319,,,,,,,,,,,,,,,,,,,,,,,,,,,,,,,,,,,,,,,,,,,,,,,,,,,,,,,,,,,,,,,,,
27380,1645817494.738736,1645817494.7793221,5.0,0.0,4296.410156,4790.769043,4147.692383,4260.0,4279.487305,450.0,1.0,15.0,,,,0.0,4.0,0.0,4.0,0.0,4.0,33.333332,,,,,,,,,,,,,,,,,,,,,,,,,,,,,,,,,,,,,,,,,,,,,,,,,,,,,,,,,,,,,,,,,,,,,,,,,,,,,,,,,,,,
27381,1645817494.74655,1645817494.787137,6.0,0.0,4224.615234000001,4352.307617,4163.077147999999,4328.205078,4228.717772999999,16106.0,1.0,15.0,,,,0.0,4.0,0.0,4.0,0.0,4.0,33.333332,,,,,,,,3.0,0.0,0.063854,0.618896,-0.228516,-0.748779,0.903334,-0.422858,-0.127443,-0.034109,-0.033761,-0.033656,,,,,,,,,,,,,,,,,,,,,,,,,,,,,,,,,,,,,,,,,,,,,,,,,,,,,,,,,,,,,,,,,
27382,1645817494.754363,1645817494.794951,7.0,0.0,4329.230957,4406.666504,4171.794922,4236.410156,4218.974121,450.0,1.0,15.0,,,,0.0,4.0,0.0,4.0,0.0,4.0,33.333332,,,,,,,,,,,,,,,,,,,,,,,,,,,,,,,,,,,,,,,,,,,,,,,,,,,,,,0.0,0.0,1.0,0.0,512.0,1.0,,,,,,,,,,,,,,,,,,,,,,,,,
27383,1645817494.762176,1645817494.802766,8.0,0.0,4377.94873,4812.307617,4155.384765999999,4153.846191,4270.256348,450.0,1.0,15.0,,,,0.0,4.0,0.0,4.0,0.0,4.0,33.333332,,,,,,,,4.0,0.0,0.064721,0.618896,-0.228271,-0.748779,0.9077290000000001,-0.436042,-0.131838,-0.034067,-0.033656,-0.029508999999999997,,,,,,,,,,,,,,,,,,,,,,,,,,,,,,,,,,,,,,,,,,,,,,,,,,,,,,,,,,,,,,,,,
27384,1645817494.76999,1645817494.810481,9.0,0.0,4271.794922,4697.436035,4162.05127,4235.897461,4295.384765999999,43.0,1.0,15.0,,,,0.0,4.0,0.0,4.0,1.0,4.0,41.666668,,,,,,,,,,,,,,,,,,,,,,,,,,,,,,,,,,,,,,,,,,,,,,,,,,,,,,,,,,,,,,,,,,,,,,,,,,,,,,,,,,,,
27385,1645817494.777803,1645817494.818295,10.0,0.0,4238.461426,4457.436035,4164.615234000001,4281.538574,4253.846191,450.0,1.0,15.0,,,,0.0,4.0,0.0,4.0,1.0,4.0,41.666668,,,,,,,,5.0,0.0,0.064721,0.618896,-0.228271,-0.748779,0.898451,-0.433112,-0.131838,-0.03403,-0.03366,-0.031978,,,,,,,,,,,,,,,,,,,,,,,,,,,,,,,,,,,,,,,,,,,,,,,,,,,,,,,,,,,,,,,,,
27386,1645817494.7856169,1645817494.82611,11.0,0.0,4342.05127,4746.666504,4137.94873,4193.333496,4249.230957,16189.0,1.0,15.0,,,,0.0,4.0,0.0,4.0,1.0,4.0,41.666668,,,,,,,,,,,,,,,,,,,,,,,,,,,,,,,,,,,,,,,,,,,,,,,,,,,,,,0.0,0.0,1.0,0.0,512.0,1.0,,,,,,,,,,,,,,,,,,,,,,,,,
27387,1645817494.79343,1645817494.833925,12.0,0.0,4360.512695,4881.538574,4149.743652,4190.256348,4297.436035,450.0,1.0,15.0,,,,0.0,4.0,0.0,4.0,1.0,4.0,41.666668,,,,,,,,6.0,0.0,0.065576,0.618896,-0.228027,-0.748779,0.887709,-0.443366,-0.133303,-0.034094,-0.033614,-0.034249,,,,,,,,,,,,,,,,,,,,,,,,,,,,,,,,,,,,,,,,,,,,,,,,,,,,,,,,,,,,,,,,,
27388,1645817494.801243,1645817494.8417392,13.0,0.0,4266.153809,4403.589844,4202.05127,4330.256348,4246.666504,450.0,1.0,15.0,,,,0.0,4.0,0.0,4.0,1.0,4.0,41.666668,,,,,,,,,,,,,,,,,,,,,,,,,,,,,,,,,,,,,,,,,,,,,,,,,,,,,,,,,,,,,,,,,,,,,,,,,,,,,,,,,,,,
27389,1645817494.809057,1645817494.8495538,14.0,0.0,4259.487305,4316.922852000001,4181.025879,4326.666504,4193.333496,450.0,1.0,15.0,,,,0.0,4.0,0.0,4.0,1.0,4.0,41.666668,,,,,,,,7.0,0.0,0.06360700000000001,0.618896,-0.22778299999999999,-0.749023,0.906264,-0.427253,-0.138186,-0.034005,-0.033573,-0.036195,,,,,,,,,,,,,,,,,,,,,,,,,,,,,,,,,,,,,,,,,,,,,,,,,,,,,,,,,,,,,,,,,
27390,1645817494.81687,1645817494.857369,15.0,0.0,4318.461426,4805.641113000001,4119.487305,4173.333496,4297.94873,16189.0,1.0,15.0,,,,0.0,4.0,0.0,4.0,1.0,4.0,41.666668,,,,,,,,,,,,,,,,,,,,1.0,0.0,0.0,,,,,,,,,,,,,,,,,,,,,,,,,,,,,,,,0.0,0.0,1.0,0.0,512.0,1.0,29.704945000000002,7.546372,2.000253,5.981251,16.835466,29.905632,31.402287,52.73593100000001,89.330475,375.56774900000005,3.2450419999999998,2.437453,2.511368,5.750032,14.404689999999999,5.319439,7.878094,13.999920999999999,13.439598000000002,27.679962,11.980896000000001,3.502906,1.833653,9.476716999999999,14.423874
27391,1645817494.824684,1645817494.865183,16.0,0.0,4313.846191,4738.974121,4169.230957,4199.487305,4353.846191,0.0,1.0,15.0,,,,0.0,4.0,0.0,4.0,1.0,4.0,41.666668,,,,,,,,8.0,0.0,0.064475,0.618896,-0.227539,-0.749023,0.9087049999999999,-0.43946,-0.13086099999999998,-0.034071,-0.033536,-0.031648,,,,,,,,,,,,,,,,,,,,,,,,,,,,,,,,,,,,,,,,,,,,,,,,,,,,,,,,,,,,,,,,,
27392,1645817494.8324971,1645817494.872998,17.0,0.0,4309.230957,4348.717772999999,4248.205078,4321.025879,4255.384765999999,0.0,1.0,15.0,,,,0.0,4.0,0.0,4.0,1.0,4.0,41.666668,,,,,,,,,,,,,,,,,,,,,,,,,,,,,,,,,,,,,,,,,,,,,,,,,,,,,,,,,,,,,,,,,,,,,,,,,,,,,,,,,,,,
27393,1645817494.8403099,1645817494.880812,18.0,0.0,4320.0,4593.846191,4184.102539,4242.05127,4240.512695,0.0,1.0,15.0,,,,0.0,4.0,0.0,4.0,1.0,4.0,41.666668,,,,,,,,9.0,0.0,0.06533,0.618896,-0.22729499999999997,-0.749023,0.906264,-0.437507,-0.135744,-0.034131,-0.033552,-0.033951999999999996,,,,,,,,,,,,,,,,,,,,,,,,,,,,,,,,,,,,,,,,,,,,,,,,,,,,,,,,,,,,,,,,,
27394,1645817494.848124,1645817494.888527,19.0,0.0,4272.820313,4890.769043,4109.230957,4121.538574,4325.128418,0.0,1.0,15.0,,,,0.0,4.0,0.0,4.0,1.0,4.0,41.666668,,,,,,,,,,,,,,,,,,,,,,,,,,,,,,,,,,,,,,,,,,,,,,,,,,,,,,0.0,0.0,1.0,0.0,512.0,1.0,,,,,,,,,,,,,,,,,,,,,,,,,
27395,1645817494.855937,1645817494.896342,20.0,0.0,4272.820313,4521.538574,4215.384765999999,4233.333496,4293.846191,0.0,1.0,15.0,,,,0.0,4.0,0.0,4.0,1.0,4.0,41.666668,,,,,,,,10.0,0.0,0.066174,0.618896,-0.22705100000000003,-0.749023,0.8955209999999999,-0.443366,-0.13135,-0.034233,-0.033566000000000006,-0.035879,,,,,,,,,,,,,,,,,,,,,,,,,,,,,,,,,,,,,,,,,,,,,,,,,,,,,,,,,,,,,,,,,
27396,1645817494.863751,1645817494.904156,21.0,0.0,4335.384765999999,4298.461426,4287.179688,4348.717772999999,4206.153809,0.0,1.0,15.0,,,,0.0,4.0,0.0,4.0,1.0,4.0,41.666668,,,,,,,,,,,,,,,,,,,,,,,,,,,,,,,,,,,,,,,,,,,,,,,,,,,,,,,,,,,,,,,,,,,,,,,,,,,,,,,,,,,,
27397,1645817494.8715641,1645817494.9118712,22.0,0.0,4311.282227000001,4669.230957,4174.871582,4281.025879,4246.666504,0.0,1.0,15.0,,,,0.0,4.0,0.0,4.0,1.0,4.0,41.666668,,,,,,,,11.0,0.0,0.064218,0.618896,-0.226807,-0.749268,0.8833139999999999,-0.436042,-0.141604,-0.03413,-0.033578,-0.03776,,,,,,,,,,,,,,,,,,,,,,,,,,,,,,,,,,,,,,,,,,,,,,,,,,,,,,,,,,,,,,,,,
27398,1645817494.879377,1645817494.9196858,23.0,0.0,4271.794922,4771.794922,4133.333496,4224.615234000001,4321.025879,0.0,1.0,15.0,,,,0.0,4.0,0.0,4.0,1.0,4.0,41.666668,,,,,,,,,,,,,,,,,,,,,,,,,,,,,,,,,,,,,,,,,,,,,,,,,,,,,,0.0,0.0,1.0,0.0,512.0,1.0,,,,,,,,,,,,,,,,,,,,,,,,,
27399,1645817494.887191,1645817494.927401,24.0,0.0,4335.384765999999,4460.0,4235.897461,4269.230957,4278.974121,0.0,1.0,15.0,,,,0.0,4.0,0.0,4.0,1.0,4.0,41.666668,,,,,,,,12.0,0.0,0.064582,0.6186520000000001,-0.22656300000000001,-0.749512,0.893568,-0.438483,-0.143557,-0.034135000000000006,-0.033638,-0.033154,,,,,,,,,,,,,,,,,,,,,,,,,,,,,,,,,,,,,,,,,,,,,,,,,,,,,,,,,,,,,,,,,
27400,1645817494.8950038,1645817494.935115,25.0,0.0,4361.025879,4492.307617,4242.05127,4287.692383,4229.230957,0.0,1.0,15.0,,,,0.0,4.0,0.0,4.0,1.0,4.0,41.666668,,,,,,,,,,,,,,,,,,,,,,,,,,,,,,,,,,,,,,,,,,,,,,,,,,,,,,,,,,,,,,,,,,,,,,,,,,,,,,,,,,,,
27401,1645817494.902818,1645817494.94293,26.0,0.0,4261.025879,4727.692383,4142.05127,4255.384765999999,4272.820313,0.0,1.0,15.0,,,,0.0,4.0,0.0,4.0,1.0,4.0,41.666668,,,,,,,,13.0,0.0,0.064582,0.6186520000000001,-0.22656300000000001,-0.749512,0.898451,-0.43408900000000006,-0.148928,-0.034091,-0.033644,-0.029008999999999997,,,,,,,,,,,,,,,,,,,,,,,,,,,,,,,,,,,,,,,,,,,,,,,,,,,,,,,,,,,,,,,,,
27402,1645817494.910631,1645817494.9507449,27.0,0.0,4233.333496,4524.615234000001,4155.384765999999,4265.128418,4294.871582,0.0,1.0,15.0,,,,0.0,4.0,0.0,4.0,1.0,4.0,41.666668,,,,,,,,,,,,,,,,,,,,,,,,,,,,,,,,,,,,,,,,,,,,,,,,,,,,,,0.0,0.0,1.0,0.0,512.0,1.0,,,,,,,,,,,,,,,,,,,,,,,,,
27403,1645817494.9184449,1645817494.958559,28.0,0.0,4350.769043,4411.794922,4248.717772999999,4281.538574,4282.05127,0.0,1.0,15.0,,,,0.0,4.0,0.0,4.0,1.0,4.0,41.666668,,,,,,,,14.0,0.0,0.065433,0.6186520000000001,-0.226318,-0.749512,0.904799,-0.43408900000000006,-0.151369,-0.0341,-0.033746,-0.031528,,,,,,,,,,,,,,,,,,,,,,,,,,,,,,,,,,,,,,,,,,,,,,,,,,,,,,,,,,,,,,,,,
27404,1645817494.926258,1645817494.966274,29.0,0.0,4389.230957,4704.615234000001,4255.897461,4269.230957,4311.282227000001,0.0,1.0,15.0,,,,0.0,4.0,0.0,4.0,1.0,4.0,41.666668,,,,,,,,,,,,,,,,,,,,,,,,,,,,,,,,,,,,,,,,,,,,,,,,,,,,,,,,,,,,,,,,,,,,,,,,,,,,,,,,,,,,
27405,1645817494.934071,1645817494.9740891,30.0,0.0,4274.358886999999,4614.358886999999,4206.153809,4295.897461,4285.641113000001,0.0,1.0,15.0,,,,0.0,4.0,0.0,4.0,1.0,4.0,41.666668,,,,,,,,15.0,0.0,0.065433,0.6186520000000001,-0.226318,-0.749512,0.9111469999999999,-0.425299,-0.14111500000000002,-0.034157,-0.033887,-0.033893,,,,,,,,,,,,,,,,,,,,,,,,,,,,,,,,,,,,,,,,,,,,,,,,,,,,,,,,,,,,,,,,,
27406,1645817494.941885,1645817494.9819028,31.0,0.0,4266.666504,4349.230957,4204.615234000001,4309.743652,4230.769043,0.0,1.0,15.0,,,,0.0,4.0,0.0,4.0,1.0,4.0,41.666668,,,,,,,,,,,,,,,,,,,,1.0,0.0,0.0,,,,,,,,,,,,,,,,,,,,,,,,,,,,,,,,0.0,0.0,1.0,0.0,512.0,1.0,49.874264000000004,11.746767,2.004994,5.509853,15.100516,33.793537,37.167767,37.80162,97.066238,349.494354,2.8481099999999997,2.417771,2.155541,6.2113,13.527184,4.244397,7.4516350000000005,12.678766,14.885489000000002,26.523394,17.086998,3.684743,2.231344,9.786764999999999,13.534923999999998
27407,1645817494.949698,1645817494.989718,32.0,0.0,4389.230957,4692.820313,4203.077147999999,4238.974121,4283.589844,0.0,1.0,15.0,,,,0.0,4.0,0.0,4.0,1.0,4.0,41.666668,,,,,,,,16.0,0.0,0.065433,0.6186520000000001,-0.226318,-0.749512,0.8994280000000001,-0.43262399999999995,-0.143557,-0.034158999999999995,-0.033868,-0.035875,,,,,,,,,,,,,,,,,,,,,,,,,,,,,,,,,,,,,,,,,,,,,,,,,,,,,,,,,,,,,,,,,
27408,1645817494.957512,1645817494.997533,33.0,0.0,4352.820313,4924.615234000001,4166.666504,4232.820313,4328.205078,0.0,1.0,15.0,,,,0.0,4.0,0.0,4.0,1.0,4.0,41.666668,,,,,,,,,,,,,,,,,,,,,,,,,,,,,,,,,,,,,,,,,,,,,,,,,,,,,,,,,,,,,,,,,,,,,,,,,,,,,,,,,,,,
27409,1645817494.965325,1645817495.005347,34.0,0.0,4261.025879,4461.025879,4192.820313,4346.153809,4258.461426,0.0,1.0,15.0,,,,0.0,4.0,0.0,4.0,1.0,4.0,41.666668,,,,,,,,17.0,0.0,0.065433,0.6186520000000001,-0.226318,-0.749512,0.898451,-0.41260399999999997,-0.143069,-0.034064,-0.03385,-0.031408,,,,,,,,,,,,,,,,,,,,,,,,,,,,,,,,,,,,,,,,,,,,,,,,,,,,,,,,,,,,,,,,,
27410,1645817494.973138,1645817495.013162,35.0,0.0,4350.256348,4451.794922,4221.025879,4308.717772999999,4262.563965,0.0,1.0,15.0,,,,0.0,4.0,0.0,4.0,1.0,4.0,41.666668,,,,,,,,,,,,,,,,,,,,,,,,,,,,,,,,,,,,,,,,,,,,,,,,,,,,,,0.0,0.0,1.0,0.0,512.0,1.0,,,,,,,,,,,,,,,,,,,,,,,,,
27411,1645817494.980952,1645817495.020977,36.0,0.0,4375.384765999999,4889.743652,4161.538574,4174.871582,4327.179688,0.0,1.0,15.0,,,,0.0,4.0,0.0,4.0,1.0,4.0,41.666668,,,,,,,,18.0,0.0,0.065433,0.6186520000000001,-0.226318,-0.749512,0.8994280000000001,-0.417975,-0.145998,-0.034075,-0.033833999999999996,-0.033833999999999996,,,,,,,,,,,,,,,,,,,,,,,,,,,,,,,,,,,,,,,,,,,,,,,,,,,,,,,,,,,,,,,,,
27412,1645817494.988765,1645817495.028791,37.0,0.0,4277.94873,4596.410156,4184.615234000001,4260.0,4278.974121,0.0,1.0,15.0,,,,0.0,4.0,0.0,4.0,1.0,4.0,41.666668,,,,,,,,,,,,,,,,,,,,,,,,,,,,,,,,,,,,,,,,,,,,,,,,,,,,,,,,,,,,,,,,,,,,,,,,,,,,,,,,,,,,
27413,1645817494.996578,1645817495.036606,38.0,0.0,4301.538574,4261.538574,4264.102539,4385.128418,4250.256348,0.0,1.0,15.0,,,,0.0,4.0,0.0,4.0,1.0,4.0,41.666668,,,,,,,,19.0,0.0,0.065433,0.6186520000000001,-0.226318,-0.749512,0.9004040000000001,-0.41846300000000003,-0.142092,-0.033988,-0.033722,-0.029523,,,,,,,,,,,,,,,,,,,,,,,,,,,,,,,,,,,,,,,,,,,,,,,,,,,,,,,,,,,,,,,,,
27414,1645817495.004392,1645817495.044321,39.0,0.0,4331.794922,4640.512695,4188.205078,4313.333496,4314.871582,0.0,1.0,15.0,,,,0.0,4.0,0.0,4.0,1.0,4.0,41.666668,,,,,,,,,,,,,,,,,,,,,,,,,,,,,,,,,,,,,,,,,,,,,,,,,,,,,,0.0,0.0,1.0,0.0,512.0,1.0,,,,,,,,,,,,,,,,,,,,,,,,,
27415,1645817495.0122051,1645817495.052135,40.0,0.0,4289.230957,4758.461426,4125.128418,4237.436035,4337.94873,0.0,1.0,15.0,,,,0.0,4.0,0.0,4.0,1.0,4.0,41.666668,,,,,,,,20.0,0.0,0.06591799999999999,0.618896,-0.226318,-0.749268,0.9028459999999999,-0.41944,-0.144045,-0.033957999999999995,-0.033622000000000006,-0.03199,,,,,,,,,,,,,,,,,,,,,,,,,,,,,,,,,,,,,,,,,,,,,,,,,,,,,,,,,,,,,,,,,
27416,1645817495.020019,1645817495.05995,41.0,0.0,4346.153809,4458.461426,4233.333496,4283.077147999999,4302.05127,0.0,1.0,15.0,,,,0.0,4.0,0.0,4.0,1.0,4.0,41.666668,,,,,,,,,,,,,,,,,,,,,,,,,,,,,,,,,,,,,,,,,,,,,,,,,,,,,,,,,,,,,,,,,,,,,,,,,,,,,,,,,,,,
27417,1645817495.027832,1645817495.067765,42.0,0.0,4384.102539,4563.589844,4265.128418,4302.563965,4289.743652,0.0,1.0,15.0,,,,0.0,4.0,0.0,4.0,1.0,4.0,41.666668,,,,,,,,21.0,0.0,0.064447,0.6191409999999999,-0.22607399999999997,-0.749268,0.905776,-0.420417,-0.134768,-0.034029000000000004,-0.033678,-0.027961,,,,,,,,,,,,,,,,,,,,,,,,,,,,,,,,,,,,,,,,,,,,,,,,,,,,,,,,,,,,,,,,,
27418,1645817495.035645,1645817495.075579,43.0,0.0,4268.717772999999,4672.307617,4177.94873,4289.230957,4281.025879,0.0,1.0,15.0,,,,0.0,4.0,0.0,4.0,1.0,4.0,41.666668,,,,,,,,,,,,,,,,,,,,,,,,,,,,,,,,,,,,,,,,,,,,,,,,,,,,,,0.0,0.0,1.0,0.0,512.0,1.0,,,,,,,,,,,,,,,,,,,,,,,,,
27419,1645817495.043459,1645817495.083394,44.0,0.0,4268.205078,4463.589844,4191.282227000001,4286.666504,4270.769043,0.0,1.0,15.0,,,,0.0,4.0,0.0,4.0,1.0,4.0,41.666668,,,,,,,,22.0,0.0,0.06578099999999999,0.6193850000000001,-0.22583000000000003,-0.749023,0.9091940000000001,-0.431647,-0.134279,-0.033996,-0.033679,-0.030683,,,,,,,,,,,,,,,,,,,,,,,,,,,,,,,,,,,,,,,,,,,,,,,,,,,,,,,,,,,,,,,,,
27420,1645817495.0512722,1645817495.091209,45.0,0.0,4397.94873,4594.871582,4232.307617,4254.871582,4295.384765999999,0.0,1.0,15.0,,,,0.0,4.0,0.0,4.0,1.0,4.0,41.666668,,,,,,,,,,,,,,,,,,,,,,,,,,,,,,,,,,,,,,,,,,,,,,,,,,,,,,,,,,,,,,,,,,,,,,,,,,,,,,,,,,,,
27421,1645817495.0590858,1645817495.099023,46.0,0.0,4381.025879,4792.307617,4210.256348,4274.871582,4320.512695,0.0,1.0,15.0,,,,0.0,4.0,0.0,4.0,1.0,4.0,41.666668,,,,,,,,23.0,0.0,0.064303,0.619629,-0.225586,-0.749023,0.917494,-0.417975,-0.144533,-0.033917,-0.03368,-0.033035,,,,,,,,,,,,,,,,,,,,,,,,,,,,,,,,,,,,,,,,,,,,,,,,,,,,,,,,,,,,,,,,,
27422,1645817495.066899,1645817495.106838,47.0,0.0,4294.358886999999,4532.820313,4218.461426,4349.230957,4295.897461,0.0,1.0,15.0,,,,0.0,4.0,0.0,4.0,1.0,4.0,41.666668,,,,,,,,,,,,,,,,,,,,1.0,0.0,0.0,,,,,,,,,,,,,,,,,,,,,,,,,,,,,,,,0.0,0.0,1.0,0.0,512.0,1.0,69.975121,15.786059,2.035837,4.767024,13.482569,39.846443,43.355556,27.12258,107.22718,323.838196,2.663158,2.2772509999999997,1.8809,7.432282000000001,12.499358,3.3869519999999995,7.215250999999999,11.495731,16.873039000000002,25.309467,21.710615,4.093889,2.7975630000000002,9.758223,12.487877000000001
27423,1645817495.0747118,1645817495.114553,48.0,0.0,4330.256348,4480.512695,4215.897461,4326.666504,4292.820313,0.0,1.0,15.0,,,,0.0,4.0,0.0,4.0,1.0,4.0,41.666668,,,,,,,,24.0,0.0,0.065636,0.619873,-0.22534200000000001,-0.748779,0.909682,-0.433112,-0.118654,-0.033992,-0.033779,-0.035052999999999994,,,,,,,,,,,,,,,,,,,,,,,,,,,,,,,,,,,,,,,,,,,,,,,,,,,,,,,,,,,,,,,,,
27424,1645817495.082526,1645817495.122367,49.0,0.0,4367.692383,4708.717772999999,4181.025879,4273.333496,4347.179688,0.0,1.0,15.0,,,,0.0,4.0,0.0,4.0,1.0,4.0,41.666668,,,,,,,,,,,,,,,,,,,,,,,,,,,,,,,,,,,,,,,,,,,,,,,,,,,,,,,,,,,,,,,,,,,,,,,,,,,,,,,,,,,,
27425,1645817495.090339,1645817495.130182,50.0,0.0,4337.94873,4591.282227000001,4213.846191,4314.358886999999,4326.666504,0.0,1.0,15.0,,,,0.0,4.0,0.0,4.0,1.0,4.0,41.666668,,,,,,,,25.0,0.0,0.06415,0.620117,-0.225098,-0.748779,0.905776,-0.43018199999999995,-0.13086099999999998,-0.034011,-0.033819,-0.030572000000000002,,,,,,,,,,,,,,,,,,,,,,,,,,,,,,,,,,,,,,,,,,,,,,,,,,,,,,,,,,,,,,,,,
27426,1645817495.0981529,1645817495.1379962,51.0,0.0,4353.333496,4593.333496,4236.922852000001,4306.666504,4262.05127,0.0,1.0,15.0,,,,0.0,4.0,0.0,4.0,1.0,4.0,41.666668,,,,,,,,,,,,,,,,,,,,,,,,,,,,,,,,,,,,,,,,,,,,,,,,,,,,,,0.0,0.0,1.0,0.0,512.0,1.0,,,,,,,,,,,,,,,,,,,,,,,,,
27427,1645817495.105966,1645817495.1458108,52.0,0.0,4338.974121,4835.897461,4187.692383,4257.94873,4300.0,0.0,1.0,15.0,,,,0.0,4.0,0.0,4.0,1.0,4.0,41.666668,,,,,,,,26.0,0.0,0.067755,0.620117,-0.224854,-0.7485350000000001,0.905776,-0.435065,-0.13135,-0.034174,-0.033807,-0.032934,,,,,,,,,,,,,,,,,,,,,,,,,,,,,,,,,,,,,,,,,,,,,,,,,,,,,,,,,,,,,,,,,
27428,1645817495.1137788,1645817495.153626,53.0,0.0,4273.846191,4655.897461,4179.487305,4289.743652,4324.615234000001,0.0,1.0,15.0,,,,0.0,4.0,0.0,4.0,1.0,4.0,41.666668,,,,,,,,,,,,,,,,,,,,,,,,,,,,,,,,,,,,,,,,,,,,,,,,,,,,,,,,,,,,,,,,,,,,,,,,,,,,,,,,,,,,
27429,1645817495.121593,1645817495.1614401,54.0,0.0,4324.102539,4592.820313,4198.974121,4270.769043,4290.769043,0.0,1.0,15.0,,,,0.0,4.0,0.0,4.0,1.0,4.0,41.666668,,,,,,,,27.0,0.0,0.065482,0.6203609999999999,-0.224854,-0.7485350000000001,0.901381,-0.42969399999999996,-0.122072,-0.034126,-0.033795,-0.035061,,,,,,,,,,,,,,,,,,,,,,,,,,,,,,,,,,,,,,,,,,,,,,,,,,,,,,,,,,,,,,,,,
27430,1645817495.129406,1645817495.169255,55.0,0.0,4383.077147999999,4845.128418,4186.666504,4216.410156,4309.230957,0.0,1.0,15.0,,,,0.0,4.0,0.0,4.0,1.0,4.0,41.666668,,,,,,,,,,,,,,,,,,,,,,,,,,,,,,,,,,,,,,,,,,,,,,,,,,,,,,0.0,0.0,1.0,0.0,512.0,1.0,,,,,,,,,,,,,,,,,,,,,,,,,
27431,1645817495.13722,1645817495.17707,56.0,0.0,4312.307617,4608.717772999999,4209.230957,4296.922852000001,4282.563965,0.0,1.0,15.0,,,,0.0,4.0,0.0,4.0,1.0,4.0,41.666668,,,,,,,,28.0,0.0,0.065957,0.6206050000000001,-0.224854,-0.748291,0.891127,-0.43457700000000005,-0.118654,-0.034131,-0.033785,-0.036975,,,,,,,,,,,,,,,,,,,,,,,,,,,,,,,,,,,,,,,,,,,,,,,,,,,,,,,,,,,,,,,,,
27432,1645817495.1450331,1645817495.184784,57.0,0.0,4270.256348,4431.282227000001,4214.358886999999,4347.692383,4227.692383,0.0,1.0,15.0,,,,0.0,4.0,0.0,4.0,1.0,4.0,41.666668,,,,,,,,,,,,,,,,,,,,,,,,,,,,,,,,,,,,,,,,,,,,,,,,,,,,,,,,,,,,,,,,,,,,,,,,,,,,,,,,,,,,
27433,1645817495.152846,1645817495.192599,58.0,0.0,4301.025879,4714.358886999999,4183.077147999999,4289.743652,4292.820313,0.0,1.0,15.0,,,,0.0,4.0,0.0,4.0,1.0,4.0,41.666668,,,,,,,,29.0,0.0,0.066427,0.62085,-0.224854,-0.748047,0.897963,-0.417975,-0.11621300000000001,-0.034136,-0.033824,-0.032398,,,,,,,,,,,,,,,,,,,,,,,,,,,,,,,,,,,,,,,,,,,,,,,,,,,,,,,,,,,,,,,,,
27434,1645817495.16066,1645817495.2004142,59.0,0.0,4332.307617,4689.230957,4203.589844,4277.436035,4346.666504,0.0,1.0,15.0,,,,0.0,4.0,0.0,4.0,1.0,4.0,41.666668,,,,,,,,,,,,,,,,,,,,,,,,,,,,,,,,,,,,,,,,,,,,,,,,,,,,,,0.0,0.0,1.0,0.0,512.0,1.0,,,,,,,,,,,,,,,,,,,,,,,,,
27435,1645817495.168473,1645817495.2082279,60.0,0.0,4368.717772999999,4640.512695,4197.436035,4255.384765999999,4297.436035,0.0,1.0,15.0,,,,0.0,4.0,0.0,4.0,1.0,4.0,41.666668,,,,,,,,30.0,0.0,0.065482,0.6203609999999999,-0.224854,-0.7485350000000001,0.901381,-0.42969399999999996,-0.122072,-0.034141000000000005,-0.033811,-0.02828,,,,,,,,,,,,,,,,,,,,,,,,,,,,,,,,,,,,,,,,,,,,,,,,,,,,,,,,,,,,,,,,,
27436,1645817495.176287,1645817495.216043,61.0,0.0,4368.717772999999,4756.410156,4167.179688,4248.205078,4273.333496,0.0,1.0,15.0,,,,0.0,4.0,0.0,4.0,1.0,4.0,41.666668,,,,,,,,,,,,,,,,,,,,,,,,,,,,,,,,,,,,,,,,,,,,,,,,,,,,,,,,,,,,,,,,,,,,,,,,,,,,,,,,,,,,
27437,1645817495.1841,1645817495.223858,62.0,0.0,4343.589844,4438.461426,4219.487305,4337.94873,4267.179688,0.0,1.0,15.0,,,,0.0,4.0,0.0,4.0,1.0,4.0,41.666668,,,,,,,,31.0,0.0,0.066427,0.62085,-0.224854,-0.748047,0.897963,-0.417975,-0.11621300000000001,-0.034145,-0.033848,-0.024572999999999998,,,,,,,,,,,,,,,,,,,,,,,,,,,,,,,,,,,,,,,,,,,,,,,,,,,,,,,,,,,,,,,,,
27438,1645817495.1919131,1645817495.231672,63.0,0.0,4366.666504,4355.384765999999,4226.666504,4308.717772999999,4269.230957,0.0,1.0,15.0,,,,0.0,4.0,0.0,4.0,1.0,4.0,41.666668,1.0,8.333333,1.0,0.0,1.0,0.0,1.0,,,,,,,,,,,,,1.0,0.0,0.0,,,,,,,,,,,,,,,,,,,,,,,,,,,,,,,,0.0,0.0,1.0,0.0,512.0,1.0,83.34162099999999,18.283312,2.0293419999999998,3.9111839999999995,12.662056,45.586452,47.449496999999994,21.955532,117.895859,306.69931,2.729318,2.068204,1.742402,9.145381,11.638567,2.964311,7.152138000000001,10.727905,18.781026999999998,24.522686,24.303143,4.499299,3.356292,9.278106,11.615704
27439,1645817495.199727,1645817495.239487,64.0,0.0,4344.102539,4771.794922,4131.282227000001,4190.256348,4303.077147999999,450.0,1.0,15.0,,,,0.0,4.0,0.0,4.0,1.0,4.0,41.666668,,,,,,,,32.0,0.0,0.065595,0.62085,-0.225098,-0.748047,0.906752,-0.431159,-0.125978,-0.034197000000000005,-0.033832,-0.027536,,,,,,,,,,,,,,,,,,,,,,,,,,,,,,,,,,,,,,,,,,,,,,,,,,,,,,,,,,,,,,,,,
27440,1645817495.20754,1645817495.247302,65.0,0.0,4299.487305,4701.025879,4149.230957,4254.358886999999,4284.615234000001,450.0,1.0,15.0,,,,0.0,4.0,0.0,4.0,1.0,4.0,41.666668,,,,,,,,,,,,,,,,,,,,,,,,,,,,,,,,,,,,,,,,,,,,,,,,,,,,,,,,,,,,,,,,,,,,,,,,,,,,,,,,,,,,
27441,1645817495.215354,1645817495.2552161,66.0,0.0,4372.820313,4535.384765999999,4236.922852000001,4323.589844,4265.641113000001,16168.0,1.0,15.0,,,,0.0,4.0,0.0,4.0,0.0,4.0,33.333332,,,,,,,,33.0,0.0,0.065595,0.62085,-0.225098,-0.748047,0.887709,-0.445808,-0.120119,-0.034244,-0.033721,-0.030202,,,,,,,,,,,,,,,,,,,,,,,,,,,,,,,,,,,,,,,,,,,,,,,,,,,,,,,,,,,,,,,,,
27442,1645817495.223167,1645817495.263031,67.0,0.0,4400.512695,4767.179688,4201.538574,4258.974121,4309.230957,450.0,1.0,15.0,,,,0.0,4.0,0.0,4.0,0.0,4.0,33.333332,,,,,,,,,,,,,,,,,,,,,,,,,,,,,,,,,,,,,,,,,,,,,,,,,,,,,,0.0,0.0,1.0,0.0,512.0,1.0,,,,,,,,,,,,,,,,,,,,,,,,,
27443,1645817495.230981,1645817495.270845,68.0,0.0,4304.615234000001,4614.871582,4147.179688,4257.94873,4283.589844,0.0,1.0,15.0,,,,0.0,4.0,0.0,4.0,0.0,4.0,33.333332,,,,,,,,34.0,0.0,0.064751,0.62085,-0.22534200000000001,-0.748047,0.900893,-0.43018199999999995,-0.107912,-0.034384,-0.033718,-0.026351999999999997,,,,,,,,,,,,,,,,,,,,,,,,,,,,,,,,,,,,,,,,,,,,,,,,,,,,,,,,,,,,,,,,,
27444,1645817495.2387938,1645817495.27866,69.0,0.0,4326.666504,4416.922852000001,4179.487305,4280.0,4237.436035,450.0,1.0,15.0,,,,0.0,4.0,0.0,4.0,0.0,4.0,33.333332,,,,,,,,,,,,,,,,,,,,,,,,,,,,,,,,,,,,,,,,,,,,,,,,,,,,,,,,,,,,,,,,,,,,,,,,,,,,,,,,,,,,
27445,1645817495.246607,1645817495.286475,70.0,0.0,4409.743652,4684.102539,4203.077147999999,4262.563965,4277.94873,16073.0,1.0,15.0,,,,0.0,4.0,0.0,4.0,0.0,4.0,33.333332,,,,,,,,35.0,0.0,0.066225,0.6206050000000001,-0.225586,-0.748047,0.8989389999999999,-0.43897200000000003,-0.11425999999999999,-0.034364,-0.033813,-0.029137,,,,,,,,,,,,,,,,,,,,,,,,,,,,,,,,,,,,,,,,,,,,,,,,,,,,,,,,,,,,,,,,,
27446,1645817495.254421,1645817495.294289,71.0,0.0,4362.563965,4573.333496,4198.461426,4335.897461,4264.102539,450.0,1.0,15.0,,,,0.0,4.0,0.0,4.0,0.0,4.0,33.333332,,,,,,,,,,,,,,,,,,,,,,,,,,,,,,,,,,,,,,,,,,,,,,,,,,,,,,0.0,0.0,1.0,0.0,512.0,1.0,,,,,,,,,,,,,,,,,,,,,,,,,
27447,1645817495.262234,1645817495.302104,72.0,0.0,4333.333496,4361.538574,4187.692383,4349.743652,4235.384765999999,450.0,1.0,15.0,,,,0.0,4.0,0.0,4.0,0.0,4.0,33.333332,,,,,,,,36.0,0.0,0.065387,0.6206050000000001,-0.22583000000000003,-0.748047,0.8969860000000001,-0.442878,-0.12842,-0.034394,-0.033703,-0.031643,,,,,,,,,,,,,,,,,,,,,,,,,,,,,,,,,,,,,,,,,,,,,,,,,,,,,,,,,,,,,,,,,
27448,1645817495.2700481,1645817495.3099189,73.0,0.0,4367.692383,4705.641113000001,4150.256348,4237.94873,4315.897461,9.0,1.0,15.0,,,,0.0,4.0,0.0,4.0,0.0,4.0,33.333332,,,,,,,,,,,,,,,,,,,,,,,,,,,,,,,,,,,,,,,,,,,,,,,,,,,,,,,,,,,,,,,,,,,,,,,,,,,,,,,,,,,,
27449,1645817495.2778609,1645817495.317733,74.0,0.0,4367.179688,4766.153809,4149.743652,4243.077147999999,4337.436035,450.0,1.0,15.0,,,,0.0,4.0,0.0,4.0,0.0,4.0,33.333332,,,,,,,,37.0,0.0,0.066844,0.6203609999999999,-0.22607399999999997,-0.748047,0.895033,-0.43897200000000003,-0.12060699999999999,-0.034275,-0.0338,-0.033899,,,,,,,,,,,,,,,,,,,,,,,,,,,,,,,,,,,,,,,,,,,,,,,,,,,,,,,,,,,,,,,,,
27450,1645817495.285674,1645817495.325548,75.0,0.0,4397.436035,4606.666504,4191.794922,4287.692383,4276.410156,16188.0,1.0,15.0,,,,0.0,4.0,0.0,4.0,0.0,4.0,33.333332,,,,,,,,,,,,,,,,,,,,,,,,,,,,,,,,,,,,,,,,,,,,,,,,,,,,,,0.0,0.0,1.0,0.0,512.0,1.0,,,,,,,,,,,,,,,,,,,,,,,,,
27451,1645817495.293488,1645817495.3332632,76.0,0.0,4421.025879,4757.436035,4197.94873,4250.256348,4290.256348,450.0,1.0,15.0,,,,0.0,4.0,0.0,4.0,0.0,4.0,33.333332,,,,,,,,38.0,0.0,0.064689,0.620117,-0.22656300000000001,-0.748291,0.885756,-0.43799499999999997,-0.12695499999999998,-0.034119,-0.033838,-0.035831,,,,,,,,,,,,,,,,,,,,,,,,,,,,,,,,,,,,,,,,,,,,,,,,,,,,,,,,,,,,,,,,,
27452,1645817495.301301,1645817495.3410769,77.0,0.0,4357.94873,4581.025879,4198.461426,4287.179688,4272.307617,450.0,1.0,15.0,,,,0.0,4.0,0.0,4.0,0.0,4.0,33.333332,,,,,,,,,,,,,,,,,,,,,,,,,,,,,,,,,,,,,,,,,,,,,,,,,,,,,,,,,,,,,,,,,,,,,,,,,,,,,,,,,,,,
27453,1645817495.309115,1645817495.348892,78.0,0.0,4329.743652,4372.820313,4187.179688,4315.897461,4220.512695,450.0,1.0,15.0,,,,0.0,4.0,0.0,4.0,0.0,4.0,33.333332,,,,,,,,39.0,0.0,0.06615700000000001,0.619873,-0.226807,-0.748291,0.893568,-0.42920600000000003,-0.124025,-0.034125,-0.033823,-0.03757,,,,,,,,,,,,,,,,,,,,,,,,,,,,,,,,,,,,,,,,,,,,,,,,,,,,,,,,,,,,,,,,,
27454,1645817495.316928,1645817495.356707,79.0,0.0,4331.794922,4729.230957,4122.05127,4226.666504,4274.871582,16188.0,1.0,15.0,,,,0.0,4.0,0.0,4.0,0.0,4.0,33.333332,,,,,,,,,,,,,,,,,,,,1.0,0.0,0.0,,,,,,,,,,,,,,,,,,,,,,,,,,,,,,,,0.0,0.0,1.0,0.0,512.0,1.0,85.22496,18.318571,1.9234099999999998,3.194037,13.241747,48.829838,48.067242,21.626949,125.773872,306.71939100000003,3.00585,1.859561,1.748587,10.77117,11.397692999999999,2.983666,7.209938,10.450205,19.715031,24.795784,23.907511,4.630105,3.688107,8.374478,11.22085
27455,1645817495.3247411,1645817495.364521,80.0,0.0,4331.282227000001,4794.871582,4138.974121,4218.461426,4313.333496,450.0,1.0,15.0,,,,0.0,4.0,0.0,4.0,0.0,4.0,33.333332,,,,,,,,40.0,0.0,0.064831,0.619629,-0.22705100000000003,-0.7485350000000001,0.897475,-0.431159,-0.126467,-0.034082,-0.033908,-0.032983,,,,,,,,,,,,,,,,,,,,,,,,,,,,,,,,,,,,,,,,,,,,,,,,,,,,,,,,,,,,,,,,,
27456,1645817495.332555,1645817495.372336,81.0,0.0,4375.897461,4571.282227000001,4211.282227000001,4290.256348,4263.589844,450.0,1.0,15.0,,,,0.0,4.0,0.0,4.0,0.0,4.0,33.333332,,,,,,,,,,,,,,,,,,,,,,,,,,,,,,,,,,,,,,,,,,,,,,,,,,,,,,,,,,,,,,,,,,,,,,,,,,,,,,,,,,,,
27457,1645817495.340368,1645817495.380151,82.0,0.0,4375.897461,4609.230957,4206.153809,4299.487305,4242.05127,450.0,1.0,15.0,,,,0.0,4.0,0.0,4.0,0.0,4.0,33.333332,,,,,,,,41.0,0.0,0.066651,0.6191409999999999,-0.22705100000000003,-0.748779,0.909682,-0.442878,-0.124025,-0.033993999999999996,-0.033886,-0.035105000000000004,,,,,,,,,,,,,,,,,,,,,,,,,,,,,,,,,,,,,,,,,,,,,,,,,,,,,,,,,,,,,,,,,
27458,1645817495.348182,1645817495.387965,83.0,0.0,4345.641113000001,4509.743652,4204.102539,4307.692383,4252.307617,16188.0,1.0,15.0,,,,0.0,4.0,0.0,4.0,0.0,4.0,33.333332,,,,,,,,,,,,,,,,,,,,,,,,,,,,,,,,,,,,,,,,,,,,,,,,,,,,,,0.0,0.0,1.0,0.0,512.0,1.0,,,,,,,,,,,,,,,,,,,,,,,,,
27459,1645817495.355995,1645817495.39578,84.0,0.0,4384.102539,4497.94873,4203.077147999999,4295.384765999999,4287.179688,450.0,1.0,15.0,,,,0.0,4.0,0.0,4.0,0.0,4.0,33.333332,,,,,,,,42.0,0.0,0.066174,0.618896,-0.22705100000000003,-0.749023,0.8964979999999999,-0.43653000000000003,-0.134279,-0.034013,-0.033916,-0.030667000000000003,,,,,,,,,,,,,,,,,,,,,,,,,,,,,,,,,,,,,,,,,,,,,,,,,,,,,,,,,,,,,,,,,
27460,1645817495.363808,1645817495.403694,85.0,0.0,4382.563965,4695.384765999999,4153.333496,4223.589844,4324.615234000001,450.0,1.0,15.0,,,,0.0,4.0,0.0,4.0,0.0,4.0,33.333332,,,,,,,,,,,,,,,,,,,,,,,,,,,,,,,,,,,,,,,,,,,,,,,,,,,,,,,,,,,,,,,,,,,,,,,,,,,,,,,,,,,,
27461,1645817495.371622,1645817495.411509,86.0,0.0,4346.666504,4577.94873,4166.153809,4214.871582,4280.0,450.0,1.0,15.0,,,,0.0,4.0,0.0,4.0,0.0,4.0,33.333332,,,,,,,,43.0,0.0,0.064841,0.6186520000000001,-0.22729499999999997,-0.749268,0.908217,-0.430671,-0.129885,-0.034029000000000004,-0.033893,-0.032922,,,,,,,,,,,,,,,,,,,,,,,,,,,,,,,,,,,,,,,,,,,,,,,,,,,,,,,,,,,,,,,,,
27462,1645817495.379435,1645817495.419324,87.0,0.0,4374.871582,4525.128418,4208.205078,4257.436035,4237.436035,16188.0,1.0,15.0,,,,0.0,4.0,0.0,4.0,0.0,4.0,33.333332,,,,,,,,,,,,,,,,,,,,,,,,,,,,,,,,,,,,,,,,,,,,,,,,,,,,,,0.0,0.0,1.0,0.0,512.0,1.0,,,,,,,,,,,,,,,,,,,,,,,,,
27463,1645817495.387248,1645817495.427138,88.0,0.0,4352.820313,4593.333496,4180.512695,4302.05127,4256.922852000001,450.0,1.0,15.0,,,,0.0,4.0,0.0,4.0,0.0,4.0,33.333332,,,,,,,,44.0,0.0,0.065203,0.618408,-0.22705100000000003,-0.749512,0.9072399999999999,-0.43213500000000005,-0.154299,-0.034045,-0.033824,-0.028849,,,,,,,,,,,,,,,,,,,,,,,,,,,,,,,,,,,,,,,,,,,,,,,,,,,,,,,,,,,,,,,,,
27464,1645817495.395062,1645817495.434953,89.0,0.0,4305.128418,4434.871582,4162.563965,4313.846191,4254.358886999999,450.0,1.0,15.0,,,,0.0,4.0,0.0,4.0,0.0,4.0,33.333332,,,,,,,,,,,,,,,,,,,,,,,,,,,,,,,,,,,,,,,,,,,,,,,,,,,,,,,,,,,,,,,,,,,,,,,,,,,,,,,,,,,,
27465,1645817495.402875,1645817495.4427679,90.0,0.0,4367.179688,4592.820313,4165.641113000001,4246.153809,4279.487305,450.0,1.0,15.0,,,,0.0,4.0,0.0,4.0,0.0,4.0,33.333332,,,,,,,,45.0,0.0,0.064709,0.618164,-0.22705100000000003,-0.7497560000000001,0.886244,-0.441413,-0.152346,-0.034009,-0.033811,-0.031432999999999996,,,,,,,,,,,,,,,,,,,,,,,,,,,,,,,,,,,,,,,,,,,,,,,,,,,,,,,,,,,,,,,,,
27466,1645817495.410689,1645817495.450582,91.0,0.0,4412.820313,4785.128418,4168.205078,4224.615234000001,4313.846191,16188.0,1.0,15.0,,,,0.0,4.0,0.0,4.0,0.0,4.0,33.333332,,,,,,,,,,,,,,,,,,,,,,,,,,,,,,,,,,,,,,,,,,,,,,,,,,,,,,0.0,0.0,1.0,0.0,512.0,1.0,,,,,,,,,,,,,,,,,,,,,,,,,
27467,1645817495.4185019,1645817495.4583972,92.0,0.0,4385.128418,4446.666504,4214.358886999999,4305.641113000001,4254.871582,450.0,1.0,15.0,,,,0.0,4.0,0.0,4.0,0.0,4.0,33.333332,,,,,,,,46.0,0.0,0.061814999999999995,0.618164,-0.22705100000000003,-0.75,0.8999159999999999,-0.43262399999999995,-0.147951,-0.034075,-0.033799,-0.033661,,,,,,,,,,,,,,,,,,,,,,,,,,,,,,,,,,,,,,,,,,,,,,,,,,,,,,,,,,,,,,,,,
27468,1645817495.426315,1645817495.4662118,93.0,0.0,4360.512695,4413.846191,4205.128418,4297.436035,4234.358886999999,450.0,1.0,15.0,,,,0.0,4.0,0.0,4.0,0.0,4.0,33.333332,,,,,,,,,,,,,,,,,,,,,,,,,,,,,,,,,,,,,,,,,,,,,,,,,,,,,,,,,,,,,,,,,,,,,,,,,,,,,,,,,,,,
27469,1645817495.434129,1645817495.4741259,94.0,0.0,4319.487305,4664.102539,4144.102539,4231.282227000001,4282.05127,450.0,1.0,15.0,,,,0.0,4.0,0.0,4.0,0.0,4.0,33.333332,,,,,,,,47.0,0.0,0.06421,0.61792,-0.22705100000000003,-0.75,0.894545,-0.43018199999999995,-0.150393,-0.034037,-0.033886,-0.029416,,,,,,,,,,,,,,,,,,,,,,,,,,,,,,,,,,,,,,,,,,,,,,,,,,,,,,,,,,,,,,,,,
27470,1645817495.441942,1645817495.481941,95.0,0.0,4340.512695,4583.077147999999,4155.384765999999,4235.897461,4268.205078,16188.0,1.0,15.0,,,,0.0,4.0,0.0,4.0,0.0,4.0,33.333332,,,,,,,,,,,,,,,,,,,,1.0,0.0,0.0,,,,,,,,,,,,,,,,,,,,,,,,,,,,,,,,0.0,0.0,1.0,0.0,512.0,1.0,75.024796,15.969101,1.741269,2.834581,15.402184,48.532162,45.587303000000006,24.561487,127.663155,327.546631,3.351871,1.696021,1.872796,11.660544999999999,12.072034,3.1844580000000002,7.270027000000001,10.556359,19.031958,26.443878,20.567660999999998,4.38103,3.663464,7.236567,11.431769000000001
27471,1645817495.4497561,1645817495.4897552,96.0,0.0,4406.666504,4691.282227000001,4162.563965,4212.820313,4262.05127,450.0,1.0,15.0,,,,0.0,4.0,0.0,4.0,0.0,4.0,33.333332,,,,,,,,48.0,0.0,0.063705,0.617676,-0.22705100000000003,-0.7502439999999999,0.91017,-0.425788,-0.148928,-0.0341,-0.033964,-0.031845,,,,,,,,,,,,,,,,,,,,,,,,,,,,,,,,,,,,,,,,,,,,,,,,,,,,,,,,,,,,,,,,,
27472,1645817495.457569,1645817495.49757,97.0,0.0,4361.025879,4749.230957,4158.974121,4238.461426,4282.05127,450.0,1.0,15.0,,,,0.0,4.0,0.0,4.0,0.0,4.0,33.333332,,,,,,,,,,,,,,,,,,,,,,,,,,,,,,,,,,,,,,,,,,,,,,,,,,,,,,,,,,,,,,,,,,,,,,,,,,,,,,,,,,,,
27473,1645817495.465382,1645817495.505385,98.0,0.0,4308.205078,4341.538574,4210.769043,4346.666504,4234.871582,450.0,1.0,15.0,,,,0.0,4.0,0.0,4.0,0.0,4.0,33.333332,,,,,,,,49.0,0.0,0.062189,0.61792,-0.226807,-0.7502439999999999,0.9043110000000001,-0.41406899999999996,-0.144533,-0.034206,-0.033986,-0.034032,,,,,,,,,,,,,,,,,,,,,,,,,,,,,,,,,,,,,,,,,,,,,,,,,,,,,,,,,,,,,,,,,
27474,1645817495.473196,1645817495.513199,99.0,0.0,4362.563965,4412.820313,4193.333496,4303.077147999999,4235.897461,16188.0,1.0,15.0,,,,0.0,4.0,0.0,4.0,0.0,4.0,33.333332,,,,,,,,,,,,,,,,,,,,,,,,,,,,,,,,,,,,,,,,,,,,,,,,,,,,,,0.0,0.0,1.0,0.0,512.0,1.0,,,,,,,,,,,,,,,,,,,,,,,,,
27475,1645817495.481009,1645817495.521014,100.0,0.0,4345.128418,4773.846191,4107.692383,4190.769043,4278.974121,450.0,1.0,15.0,,,,0.0,4.0,0.0,4.0,0.0,4.0,33.333332,,,,,,,,50.0,0.0,0.062189,0.61792,-0.226807,-0.7502439999999999,0.901381,-0.416022,-0.147463,-0.034252,-0.033956,-0.036049,,,,,,,,,,,,,,,,,,,,,,,,,,,,,,,,,,,,,,,,,,,,,,,,,,,,,,,,,,,,,,,,,
27476,1645817495.488823,1645817495.5288289,101.0,0.0,4296.922852000001,4545.641113000001,4145.641113000001,4232.307617,4225.641113000001,450.0,1.0,15.0,,,,0.0,4.0,0.0,4.0,0.0,4.0,33.333332,,,,,,,,,,,,,,,,,,,,,,,,,,,,,,,,,,,,,,,,,,,,,,,,,,,,,,,,,,,,,,,,,,,,,,,,,,,,,,,,,,,,
27477,1645817495.496636,1645817495.536643,102.0,0.0,4347.692383,4472.820313,4200.0,4264.615234000001,4200.512695,450.0,1.0,15.0,,,,0.0,4.0,0.0,4.0,0.0,4.0,33.333332,,,,,,,,51.0,0.0,0.063072,0.61792,-0.22656300000000001,-0.7502439999999999,0.897475,-0.433112,-0.140139,-0.034196,-0.03393,-0.037913,,,,,,,,,,,,,,,,,,,,,,,,,,,,,,,,,,,,,,,,,,,,,,,,,,,,,,,,,,,,,,,,,
27478,1645817495.5044491,1645817495.544458,103.0,0.0,4332.820313,4724.102539,4148.205078,4250.769043,4261.025879,16188.0,1.0,15.0,,,,0.0,4.0,0.0,4.0,0.0,4.0,33.333332,,,,,,,,,,,,,,,,,,,,,,,,,,,,,,,,,,,,,,,,,,,,,,,,,,,,,,0.0,0.0,1.0,0.0,512.0,1.0,,,,,,,,,,,,,,,,,,,,,,,,,
27479,1645817495.512263,1645817495.5521731,104.0,0.0,4295.384765999999,4606.153809,4137.94873,4273.333496,4275.897461,450.0,1.0,15.0,,,,0.0,4.0,0.0,4.0,0.0,4.0,33.333332,,,,,,,,52.0,0.0,0.063943,0.61792,-0.226318,-0.7502439999999999,0.905776,-0.41113900000000003,-0.130373,-0.034194,-0.033906,-0.039541,,,,,,,,,,,,,,,,,,,,,,,,,,,,,,,,,,,,,,,,,,,,,,,,,,,,,,,,,,,,,,,,,
27480,1645817495.520076,1645817495.5599868,105.0,0.0,4382.563965,4647.179688,4163.589844,4202.563965,4276.410156,450.0,1.0,15.0,,,,0.0,4.0,0.0,4.0,0.0,4.0,33.333332,,,,,,,,,,,,,,,,,,,,,,,,,,,,,,,,,,,,,,,,,,,,,,,,,,,,,,,,,,,,,,,,,,,,,,,,,,,,,,,,,,,,
27481,1645817495.52789,1645817495.567802,106.0,0.0,4405.641113000001,4861.025879,4144.615234000001,4161.538574,4288.717772999999,450.0,1.0,15.0,,,,0.0,4.0,0.0,4.0,0.0,4.0,33.333332,,,,,,,,53.0,0.0,0.061538,0.618164,-0.226318,-0.7502439999999999,0.905776,-0.41992799999999997,-0.157229,-0.034144,-0.033787,-0.034707999999999996,,,,,,,,,,,,,,,,,,,,,,,,,,,,,,,,,,,,,,,,,,,,,,,,,,,,,,,,,,,,,,,,,
27482,1645817495.535703,1645817495.575617,107.0,0.0,4322.05127,4490.769043,4161.025879,4307.692383,4233.846191,16188.0,1.0,15.0,,,,0.0,4.0,0.0,4.0,0.0,4.0,33.333332,,,,,,,,,,,,,,,,,,,,,,,,,,,,,,,,,,,,,,,,,,,,,,,,,,,,,,0.0,0.0,1.0,0.0,512.0,1.0,,,,,,,,,,,,,,,,,,,,,,,,,
27483,1645817495.5435169,1645817495.583431,108.0,0.0,4338.461426,4307.692383,4183.077147999999,4351.794922,4228.717772999999,450.0,1.0,15.0,,,,0.0,4.0,0.0,4.0,0.0,4.0,33.333332,,,,,,,,54.0,0.0,0.062429,0.618164,-0.22607399999999997,-0.7502439999999999,0.904799,-0.411627,-0.153811,-0.034294,-0.033777999999999996,-0.036608999999999996,,,,,,,,,,,,,,,,,,,,,,,,,,,,,,,,,,,,,,,,,,,,,,,,,,,,,,,,,,,,,,,,,
27484,1645817495.55133,1645817495.5912461,109.0,0.0,4369.743652,4711.794922,4142.05127,4236.922852000001,4303.077147999999,450.0,1.0,15.0,,,,0.0,4.0,0.0,4.0,0.0,4.0,33.333332,,,,,,,,,,,,,,,,,,,,,,,,,,,,,,,,,,,,,,,,,,,,,,,,,,,,,,,,,,,,,,,,,,,,,,,,,,,,,,,,,,,,
27485,1645817495.559143,1645817495.599061,110.0,0.0,4356.410156,4753.846191,4148.717772999999,4221.025879,4306.666504,450.0,1.0,15.0,,,,0.0,4.0,0.0,4.0,0.0,4.0,33.333332,,,,,,,,55.0,0.0,0.06529700000000001,0.618164,-0.22607399999999997,-0.75,0.9072399999999999,-0.42969399999999996,-0.143557,-0.034234,-0.03372,-0.032167,,,,,,,,,,,,,,,,,,,,,,,,,,,,,,,,,,,,,,,,,,,,,,,,,,,,,,,,,,,,,,,,,
27486,1645817495.566957,1645817495.606875,111.0,0.0,4394.358886999999,4632.307617,4179.487305,4240.0,4257.94873,16188.0,1.0,15.0,,,,0.0,4.0,0.0,4.0,0.0,4.0,33.333332,,,,,,,,,,,,,,,,,,,,1.0,0.0,0.0,,,,,,,,,,,,,,,,,,,,,,,,,,,,,,,,0.0,0.0,1.0,0.0,512.0,1.0,56.391045,12.198014,1.570557,2.924112,18.650396,45.231625,41.330681,29.360657,122.284264,362.897827,3.609147,1.594741,2.054975,11.408861,13.522554999999999,3.273701,7.2929889999999995,10.805474,16.608879,29.065182,15.344167,3.8711839999999995,3.3478209999999997,6.1757040000000005,12.128507
27487,1645817495.57477,1645817495.61459,112.0,0.0,4385.128418,4697.436035,4169.743652,4244.102539,4247.692383,450.0,1.0,15.0,,,,0.0,4.0,0.0,4.0,0.0,4.0,33.333332,,,,,,,,56.0,0.0,0.062942,0.618408,-0.22607399999999997,-0.75,0.8999159999999999,-0.421393,-0.139651,-0.034082,-0.033669,-0.034419,,,,,,,,,,,,,,,,,,,,,,,,,,,,,,,,,,,,,,,,,,,,,,,,,,,,,,,,,,,,,,,,,
27488,1645817495.582584,1645817495.622405,113.0,0.0,4318.461426,4533.333496,4182.563965,4325.128418,4228.717772999999,450.0,1.0,15.0,,,,0.0,4.0,0.0,4.0,0.0,4.0,33.333332,,,,,,,,,,,,,,,,,,,,,,,,,,,,,,,,,,,,,,,,,,,,,,,,,,,,,,,,,,,,,,,,,,,,,,,,,,,,,,,,,,,,
27489,1645817495.5903971,1645817495.630219,114.0,0.0,4325.641113000001,4554.358886999999,4169.230957,4295.384765999999,4250.256348,450.0,1.0,15.0,,,,0.0,4.0,0.0,4.0,0.0,4.0,33.333332,,,,,,,,57.0,0.0,0.062942,0.618408,-0.22607399999999997,-0.75,0.9052870000000001,-0.42188100000000006,-0.131838,-0.034141000000000005,-0.033573,-0.030244,,,,,,,,,,,,,,,,,,,,,,,,,,,,,,,,,,,,,,,,,,,,,,,,,,,,,,,,,,,,,,,,,
27490,1645817495.5982099,1645817495.6380339,115.0,0.0,4331.794922,4794.358886999999,4129.743652,4169.230957,4302.563965,16188.0,1.0,15.0,,,,0.0,4.0,0.0,4.0,0.0,4.0,33.333332,,,,,,,,,,,,,,,,,,,,,,,,,,,,,,,,,,,,,,,,,,,,,,,,,,,,,,0.0,0.0,1.0,0.0,512.0,1.0,,,,,,,,,,,,,,,,,,,,,,,,,
27491,1645817495.606024,1645817495.645849,116.0,0.0,4332.307617,4720.512695,4172.820313,4204.615234000001,4291.794922,450.0,1.0,15.0,,,,0.0,4.0,0.0,4.0,0.0,4.0,33.333332,,,,,,,,58.0,0.0,0.06529700000000001,0.618164,-0.22607399999999997,-0.75,0.9072399999999999,-0.42969399999999996,-0.143557,-0.034145,-0.033585000000000004,-0.026292000000000003,,,,,,,,,,,,,,,,,,,,,,,,,,,,,,,,,,,,,,,,,,,,,,,,,,,,,,,,,,,,,,,,,
27492,1645817495.613837,1645817495.6536632,117.0,0.0,4381.538574,4644.102539,4207.179688,4294.871582,4270.256348,450.0,1.0,15.0,,,,0.0,4.0,0.0,4.0,0.0,4.0,33.333332,,,,,,,,,,,,,,,,,,,,,,,,,,,,,,,,,,,,,,,,,,,,,,,,,,,,,,,,,,,,,,,,,,,,,,,,,,,,,,,,,,,,
27493,1645817495.621651,1645817495.661478,118.0,0.0,4374.358886999999,4568.717772999999,4189.743652,4328.717772999999,4247.179688,450.0,1.0,15.0,,,,0.0,4.0,0.0,4.0,0.0,4.0,33.333332,,,,,,,,59.0,0.0,0.062942,0.618408,-0.22607399999999997,-0.75,0.9052870000000001,-0.42188100000000006,-0.131838,-0.034197000000000005,-0.033498,-0.022931,,,,,,,,,,,,,,,,,,,,,,,,,,,,,,,,,,,,,,,,,,,,,,,,,,,,,,,,,,,,,,,,,
27494,1645817495.6294641,1645817495.669292,119.0,0.0,4342.05127,4396.410156,4203.589844,4329.230957,4230.769043,16188.0,1.0,15.0,,,,0.0,4.0,0.0,4.0,0.0,4.0,33.333332,,,,,,,,,,,,,,,,,,,,,,,,,,,,,,,,,,,,,,,,,,,,,,,,,,,,,,0.0,0.0,1.0,0.0,512.0,1.0,,,,,,,,,,,,,,,,,,,,,,,,,
27495,1645817495.637277,1645817495.677107,120.0,0.0,4346.153809,4631.794922,4174.871582,4256.410156,4282.563965,450.0,1.0,15.0,,,,0.0,4.0,0.0,4.0,0.0,4.0,33.333332,,,,,,,,60.0,0.0,0.063813,0.618408,-0.22583000000000003,-0.75,0.889174,-0.430671,-0.134768,-0.034147000000000004,-0.033615,-0.026008999999999997,,,,,,,,,,,,,,,,,,,,,,,,,,,,,,,,,,,,,,,,,,,,,,,,,,,,,,,,,,,,,,,,,
27496,1645817495.645091,1645817495.685022,121.0,0.0,4325.641113000001,4789.230957,4129.743652,4206.666504,4301.025879,450.0,1.0,15.0,,,,0.0,4.0,0.0,4.0,0.0,4.0,33.333332,,,,,,,,,,,,,,,,,,,,,,,,,,,,,,,,,,,,,,,,,,,,,,,,,,,,,,,,,,,,,,,,,,,,,,,,,,,,,,,,,,,,
27497,1645817495.6529038,1645817495.692836,122.0,0.0,4347.692383,4532.820313,4190.256348,4257.436035,4245.641113000001,450.0,1.0,15.0,,,,0.0,4.0,0.0,4.0,0.0,4.0,33.333332,,,,,,,,61.0,0.0,0.063813,0.618408,-0.22583000000000003,-0.75,0.910658,-0.433112,-0.120119,-0.03415,-0.033525,-0.022675,,,,,,,,,,,,,,,,,,,,,,,,,,,,,,,,,,,,,,,,,,,,,,,,,,,,,,,,,,,,,,,,,
27498,1645817495.660718,1645817495.700651,123.0,0.0,4397.436035,4574.871582,4230.256348,4294.358886999999,4244.102539,16188.0,1.0,15.0,,,,0.0,4.0,0.0,4.0,0.0,4.0,33.333332,,,,,,,,,,,,,,,,,,,,,,,,,,,,,,,,,,,,,,,,,,,,,,,,,,,,,,0.0,0.0,1.0,0.0,512.0,1.0,,,,,,,,,,,,,,,,,,,,,,,,,
27499,1645817495.668531,1645817495.708466,124.0,0.0,4345.641113000001,4584.102539,4204.102539,4317.436035,4249.743652,450.0,1.0,15.0,,,,0.0,4.0,0.0,4.0,0.0,4.0,33.333332,,,,,,,,62.0,0.0,0.064671,0.618408,-0.225586,-0.75,0.897963,-0.423835,-0.131838,-0.034299,-0.033444,-0.025827999999999997,,,,,,,,,,,,,,,,,,,,,,,,,,,,,,,,,,,,,,,,,,,,,,,,,,,,,,,,,,,,,,,,,
27500,1645817495.676344,1645817495.71628,125.0,0.0,4334.871582,4406.153809,4195.897461,4312.307617,4237.94873,450.0,1.0,15.0,,,,0.0,4.0,0.0,4.0,0.0,4.0,33.333332,,,,,,,,,,,,,,,,,,,,,,,,,,,,,,,,,,,,,,,,,,,,,,,,,,,,,,,,,,,,,,,,,,,,,,,,,,,,,,,,,,,,
27501,1645817495.684158,1645817495.7240949,126.0,0.0,4392.307617,4762.563965,4136.922852000001,4200.512695,4295.897461,450.0,1.0,15.0,,,,0.0,4.0,0.0,4.0,0.0,4.0,33.333332,,,,,,,,63.0,0.0,0.063169,0.6186520000000001,-0.22534200000000001,-0.75,0.9052870000000001,-0.42676400000000003,-0.131838,-0.034288,-0.033469,-0.028664999999999996,,,,,,,,,,,,,,,,,,,,,,,,,,,,,,,,,,,,,,,,,,,,,,,,,,,,,,,,,,,,,,,,,
27502,1645817495.691971,1645817495.73191,127.0,0.0,4347.179688,4846.666504,4121.025879,4207.179688,4297.436035,233.0,1.0,15.0,,,,0.0,4.0,0.0,4.0,0.0,4.0,33.333332,1.0,8.333333,1.0,0.0,1.0,0.0,1.0,,,,,,,,,,,,,1.0,0.0,0.0,,,,,,,,,,,,,,,,,,,,,,,,,,,,,,,,0.0,0.0,1.0,0.0,512.0,1.0,35.520615,8.402268,1.491306,3.434893,21.926651,40.869865000000004,36.706165000000006,33.99511,111.497368,398.194092,3.688531,1.538155,2.207072,10.168975,15.173782999999998,3.120263,7.214291,10.953407,13.171123999999999,31.618761,9.881569,3.330167,2.929037,5.499855999999999,12.95613
27503,1645817495.699785,1645817495.739724,0.0,0.0,4310.769043,4313.333496,4214.358886999999,4354.358886999999,4206.153809,450.0,1.0,15.0,,,,0.0,4.0,0.0,4.0,0.0,4.0,33.333332,,,,,,,,0.0,0.0,0.063169,0.6186520000000001,-0.22534200000000001,-0.75,0.9004040000000001,-0.41699899999999995,-0.129885,-0.034326,-0.033442,-0.03117,,,,,,,,,,,,,,,,,,,,,,,,,,,,,,,,,,,,,,,,,,,,,,,,,,,,,,,,,,,,,,,,,
27504,1645817495.707598,1645817495.747539,1.0,0.0,4348.205078,4413.846191,4215.384765999999,4320.0,4231.282227000001,450.0,1.0,15.0,,,,0.0,4.0,0.0,4.0,0.0,4.0,33.333332,,,,,,,,,,,,,,,,,,,,,,,,,,,,,,,,,,,,,,,,,,,,,,,,,,,,,,,,,,,,,,,,,,,,,,,,,,,,,,,,,,,,
27505,1645817495.715411,1645817495.755353,2.0,0.0,4321.538574,4770.769043,4156.922852000001,4192.307617,4299.487305,16214.0,1.0,15.0,,,,0.0,4.0,0.0,4.0,0.0,4.0,33.333332,,,,,,,,1.0,0.0,0.063169,0.6186520000000001,-0.22534200000000001,-0.75,0.9155409999999999,-0.41406899999999996,-0.138674,-0.03436,-0.033419,-0.033522,,,,,,,,,,,,,,,,,,,,,,,,,,,,,,,,,,,,,,,,,,,,,,,,,,,,,,,,,,,,,,,,,
27506,1645817495.723225,1645817495.7631679,3.0,0.0,4329.743652,4603.077147999999,4194.871582,4203.077147999999,4287.179688,450.0,1.0,15.0,,,,0.0,4.0,0.0,4.0,0.0,4.0,33.333332,,,,,,,,,,,,,,,,,,,,,,,,,,,,,,,,,,,,,,,,,,,,,,,,,,,,,,0.0,0.0,1.0,0.0,512.0,1.0,,,,,,,,,,,,,,,,,,,,,,,,,
27507,1645817495.731038,1645817495.770983,4.0,0.0,4387.692383,4613.333496,4202.05127,4257.94873,4295.897461,40.0,1.0,15.0,,,,0.0,4.0,0.0,4.0,0.0,4.0,33.333332,,,,,,,,2.0,0.0,0.063674,0.618896,-0.22534200000000001,-0.7497560000000001,0.8960100000000001,-0.42822899999999997,-0.136721,-0.034342000000000004,-0.033544,-0.029291,,,,,,,,,,,,,,,,,,,,,,,,,,,,,,,,,,,,,,,,,,,,,,,,,,,,,,,,,,,,,,,,,
27508,1645817495.738852,1645817495.7787971,5.0,0.0,4347.692383,4702.563965,4178.461426,4315.897461,4285.128418,450.0,1.0,15.0,,,,0.0,4.0,0.0,4.0,0.0,4.0,33.333332,,,,,,,,,,,,,,,,,,,,,,,,,,,,,,,,,,,,,,,,,,,,,,,,,,,,,,,,,,,,,,,,,,,,,,,,,,,,,,,,,,,,
27509,1645817495.746665,1645817495.7866118,6.0,0.0,4318.461426,4533.846191,4209.230957,4338.461426,4237.436035,16063.0,1.0,15.0,,,,0.0,4.0,0.0,4.0,0.0,4.0,33.333332,,,,,,,,3.0,0.0,0.063674,0.618896,-0.22534200000000001,-0.7497560000000001,0.917494,-0.41260399999999997,-0.137209,-0.034276999999999995,-0.033558,-0.031684,,,,,,,,,,,,,,,,,,,,,,,,,,,,,,,,,,,,,,,,,,,,,,,,,,,,,,,,,,,,,,,,,
27510,1645817495.754478,1645817495.794427,7.0,0.0,4353.333496,4608.717772999999,4191.794922,4254.358886999999,4280.0,450.0,1.0,15.0,,,,0.0,4.0,0.0,4.0,0.0,4.0,33.333332,,,,,,,,,,,,,,,,,,,,,,,,,,,,,,,,,,,,,,,,,,,,,,,,,,,,,,0.0,0.0,1.0,0.0,512.0,1.0,,,,,,,,,,,,,,,,,,,,,,,,,
27511,1645817495.762292,1645817495.802241,8.0,0.0,4344.615234000001,4674.871582,4154.871582,4207.179688,4334.358886999999,450.0,1.0,15.0,,,,0.0,4.0,0.0,4.0,0.0,4.0,33.333332,,,,,,,,4.0,0.0,0.063674,0.618896,-0.22534200000000001,-0.7497560000000001,0.914076,-0.407721,-0.137209,-0.034218,-0.033523000000000004,-0.027733999999999998,,,,,,,,,,,,,,,,,,,,,,,,,,,,,,,,,,,,,,,,,,,,,,,,,,,,,,,,,,,,,,,,,
27512,1645817495.7701051,1645817495.810056,9.0,0.0,4368.205078,4611.282227000001,4194.358886999999,4249.743652,4297.94873,0.0,1.0,15.0,,,,0.0,4.0,0.0,4.0,0.0,4.0,33.333332,,,,,,,,,,,,,,,,,,,,,,,,,,,,,,,,,,,,,,,,,,,,,,,,,,,,,,,,,,,,,,,,,,,,,,,,,,,,,,,,,,,,
27513,1645817495.7779179,1645817495.817871,10.0,0.0,4406.153809,4748.205078,4210.256348,4267.179688,4273.846191,450.0,1.0,15.0,,,,0.0,4.0,0.0,4.0,0.0,4.0,33.333332,,,,,,,,5.0,0.0,0.062803,0.618896,-0.225586,-0.7497560000000001,0.9028459999999999,-0.41260399999999997,-0.129397,-0.034263,-0.033637,-0.030331999999999998,,,,,,,,,,,,,,,,,,,,,,,,,,,,,,,,,,,,,,,,,,,,,,,,,,,,,,,,,,,,,,,,,
27514,1645817495.785732,1645817495.825685,11.0,0.0,4349.743652,4620.512695,4184.615234000001,4300.512695,4266.153809,16225.0,1.0,15.0,,,,0.0,4.0,0.0,4.0,0.0,4.0,33.333332,,,,,,,,,,,,,,,,,,,,,,,,,,,,,,,,,,,,,,,,,,,,,,,,,,,,,,0.0,0.0,1.0,0.0,512.0,1.0,,,,,,,,,,,,,,,,,,,,,,,,,
27515,1645817495.793545,1645817495.8336,12.0,0.0,4314.871582,4435.384765999999,4169.230957,4317.94873,4251.282227000001,450.0,1.0,15.0,,,,0.0,4.0,0.0,4.0,0.0,4.0,33.333332,,,,,,,,6.0,0.0,0.06229199999999999,0.6186520000000001,-0.225586,-0.75,0.909682,-0.425788,-0.12451400000000001,-0.034206,-0.033643,-0.032621,,,,,,,,,,,,,,,,,,,,,,,,,,,,,,,,,,,,,,,,,,,,,,,,,,,,,,,,,,,,,,,,,
27516,1645817495.801359,1645817495.841415,13.0,0.0,4334.358886999999,4624.615234000001,4166.153809,4289.230957,4277.436035,450.0,1.0,15.0,,,,0.0,4.0,0.0,4.0,0.0,4.0,33.333332,,,,,,,,,,,,,,,,,,,,,,,,,,,,,,,,,,,,,,,,,,,,,,,,,,,,,,,,,,,,,,,,,,,,,,,,,,,,,,,,,,,,
27517,1645817495.8091722,1645817495.8492289,14.0,0.0,4367.692383,4704.102539,4191.282227000001,4299.487305,4317.94873,450.0,1.0,15.0,,,,0.0,4.0,0.0,4.0,0.0,4.0,33.333332,,,,,,,,7.0,0.0,0.06229199999999999,0.6186520000000001,-0.225586,-0.75,0.906752,-0.433112,-0.127932,-0.034106,-0.033745,-0.034828,,,,,,,,,,,,,,,,,,,,,,,,,,,,,,,,,,,,,,,,,,,,,,,,,,,,,,,,,,,,,,,,,
27518,1645817495.816985,1645817495.8569438,15.0,0.0,4404.615234000001,4725.128418,4187.179688,4276.922852000001,4336.410156,16225.0,1.0,15.0,,,,0.0,4.0,0.0,4.0,0.0,4.0,33.333332,,,,,,,,,,,,,,,,,,,,1.0,0.0,0.0,,,,,,,,,,,,,,,,,,,,,,,,,,,,,,,,0.0,0.0,1.0,0.0,512.0,1.0,18.352489000000002,5.696597,1.5382129999999998,4.280818,24.089727,37.390476,32.316132,36.989311,100.276337,417.890625,3.56675,1.487004,2.268423,8.590034,16.318647,2.744052,6.924872,10.809275,10.14407,33.027718,5.557958999999999,2.947819,2.614341,5.400944,13.490214000000002
27519,1645817495.824799,1645817495.864759,16.0,0.0,4382.563965,4744.615234000001,4176.922852000001,4245.128418,4299.487305,0.0,1.0,15.0,,,,0.0,4.0,0.0,4.0,0.0,4.0,33.333332,,,,,,,,8.0,0.0,0.06229199999999999,0.6186520000000001,-0.225586,-0.75,0.905776,-0.43018199999999995,-0.137697,-0.034260000000000006,-0.03374,-0.030514999999999997,,,,,,,,,,,,,,,,,,,,,,,,,,,,,,,,,,,,,,,,,,,,,,,,,,,,,,,,,,,,,,,,,
27520,1645817495.8326118,1645817495.8725731,17.0,0.0,4352.307617,4543.589844,4209.230957,4293.333496,4236.410156,0.0,1.0,15.0,,,,0.0,4.0,0.0,4.0,0.0,4.0,33.333332,,,,,,,,,,,,,,,,,,,,,,,,,,,,,,,,,,,,,,,,,,,,,,,,,,,,,,,,,,,,,,,,,,,,,,,,,,,,,,,,,,,,
27521,1645817495.840426,1645817495.880388,18.0,0.0,4360.0,4508.205078,4214.358886999999,4314.358886999999,4259.487305,0.0,1.0,15.0,,,,0.0,4.0,0.0,4.0,0.0,4.0,33.333332,,,,,,,,9.0,0.0,0.06229199999999999,0.6186520000000001,-0.225586,-0.75,0.905776,-0.423346,-0.129885,-0.034203,-0.033783999999999995,-0.032882999999999996,,,,,,,,,,,,,,,,,,,,,,,,,,,,,,,,,,,,,,,,,,,,,,,,,,,,,,,,,,,,,,,,,
27522,1645817495.848239,1645817495.888202,19.0,0.0,4347.179688,4598.974121,4186.153809,4269.230957,4296.410156,0.0,1.0,15.0,,,,0.0,4.0,0.0,4.0,0.0,4.0,33.333332,,,,,,,,,,,,,,,,,,,,,,,,,,,,,,,,,,,,,,,,,,,,,,,,,,,,,,0.0,0.0,1.0,0.0,512.0,1.0,,,,,,,,,,,,,,,,,,,,,,,,,
27523,1645817495.8560529,1645817495.896017,20.0,0.0,4353.846191,4588.717772999999,4173.333496,4234.871582,4276.922852000001,0.0,1.0,15.0,,,,0.0,4.0,0.0,4.0,0.0,4.0,33.333332,,,,,,,,10.0,0.0,0.063813,0.618408,-0.22583000000000003,-0.75,0.905776,-0.42090500000000003,-0.132326,-0.034151999999999995,-0.033775,-0.028716000000000002,,,,,,,,,,,,,,,,,,,,,,,,,,,,,,,,,,,,,,,,,,,,,,,,,,,,,,,,,,,,,,,,,
27524,1645817495.863866,1645817495.903832,21.0,0.0,4377.94873,4670.769043,4156.922852000001,4222.563965,4272.820313,0.0,1.0,15.0,,,,0.0,4.0,0.0,4.0,0.0,4.0,33.333332,,,,,,,,,,,,,,,,,,,,,,,,,,,,,,,,,,,,,,,,,,,,,,,,,,,,,,,,,,,,,,,,,,,,,,,,,,,,,,,,,,,,
27525,1645817495.8716788,1645817495.911746,22.0,0.0,4365.641113000001,4658.974121,4177.436035,4264.102539,4274.358886999999,0.0,1.0,15.0,,,,0.0,4.0,0.0,4.0,0.0,4.0,33.333332,,,,,,,,11.0,0.0,0.062942,0.618408,-0.22607399999999997,-0.75,0.9072399999999999,-0.433112,-0.134279,-0.034106,-0.033718,-0.031216000000000004,,,,,,,,,,,,,,,,,,,,,,,,,,,,,,,,,,,,,,,,,,,,,,,,,,,,,,,,,,,,,,,,,
27526,1645817495.879493,1645817495.919561,23.0,0.0,4364.615234000001,4544.615234000001,4217.436035,4321.025879,4269.743652,0.0,1.0,15.0,,,,0.0,4.0,0.0,4.0,0.0,4.0,33.333332,,,,,,,,,,,,,,,,,,,,,,,,,,,,,,,,,,,,,,,,,,,,,,,,,,,,,,0.0,0.0,1.0,0.0,512.0,1.0,,,,,,,,,,,,,,,,,,,,,,,,,
27527,1645817495.887306,1645817495.927376,24.0,0.0,4367.692383,4546.153809,4203.589844,4323.589844,4280.512695,0.0,1.0,15.0,,,,0.0,4.0,0.0,4.0,0.0,4.0,33.333332,,,,,,,,12.0,0.0,0.062059,0.618408,-0.226318,-0.75,0.897475,-0.42627600000000004,-0.13281500000000002,-0.034211,-0.033714999999999995,-0.033513999999999995,,,,,,,,,,,,,,,,,,,,,,,,,,,,,,,,,,,,,,,,,,,,,,,,,,,,,,,,,,,,,,,,,
27528,1645817495.89512,1645817495.93519,25.0,0.0,4357.94873,4563.077147999999,4179.487305,4291.794922,4291.282227000001,0.0,1.0,15.0,,,,0.0,4.0,0.0,4.0,0.0,4.0,33.333332,,,,,,,,,,,,,,,,,,,,,,,,,,,,,,,,,,,,,,,,,,,,,,,,,,,,,,,,,,,,,,,,,,,,,,,,,,,,,,,,,,,,
27529,1645817495.9029331,1645817495.943005,26.0,0.0,4351.794922,4684.615234000001,4153.846191,4241.025879,4309.743652,0.0,1.0,15.0,,,,0.0,4.0,0.0,4.0,0.0,4.0,33.333332,,,,,,,,13.0,0.0,0.064445,0.618164,-0.226318,-0.75,0.9038219999999999,-0.41944,-0.13379100000000002,-0.034207999999999995,-0.033713,-0.035533999999999996,,,,,,,,,,,,,,,,,,,,,,,,,,,,,,,,,,,,,,,,,,,,,,,,,,,,,,,,,,,,,,,,,
27530,1645817495.910746,1645817495.95082,27.0,0.0,4344.615234000001,4751.282227000001,4139.487305,4224.102539,4315.384765999999,0.0,1.0,15.0,,,,0.0,4.0,0.0,4.0,0.0,4.0,33.333332,,,,,,,,,,,,,,,,,,,,,,,,,,,,,,,,,,,,,,,,,,,,,,,,,,,,,,0.0,0.0,1.0,0.0,512.0,1.0,,,,,,,,,,,,,,,,,,,,,,,,,
27531,1645817495.91856,1645817495.958634,28.0,0.0,4373.333496,4643.077147999999,4175.897461,4251.282227000001,4275.897461,0.0,1.0,15.0,,,,0.0,4.0,0.0,4.0,0.0,4.0,33.333332,,,,,,,,14.0,0.0,0.064445,0.618164,-0.226318,-0.75,0.897475,-0.41895200000000005,-0.14257999999999998,-0.034205,-0.033711,-0.037401,,,,,,,,,,,,,,,,,,,,,,,,,,,,,,,,,,,,,,,,,,,,,,,,,,,,,,,,,,,,,,,,,
27532,1645817495.926373,1645817495.966449,29.0,0.0,4398.461426,4656.922852000001,4194.871582,4260.512695,4264.102539,0.0,1.0,15.0,,,,0.0,4.0,0.0,4.0,0.0,4.0,33.333332,,,,,,,,,,,,,,,,,,,,,,,,,,,,,,,,,,,,,,,,,,,,,,,,,,,,,,,,,,,,,,,,,,,,,,,,,,,,,,,,,,,,
27533,1645817495.934187,1645817495.9742632,30.0,0.0,4352.307617,4533.333496,4182.05127,4289.230957,4263.589844,0.0,1.0,15.0,,,,0.0,4.0,0.0,4.0,0.0,4.0,33.333332,,,,,,,,15.0,0.0,0.061538,0.618164,-0.226318,-0.7502439999999999,0.8921030000000001,-0.41651000000000005,-0.134279,-0.034105,-0.033562,-0.032782,,,,,,,,,,,,,,,,,,,,,,,,,,,,,,,,,,,,,,,,,,,,,,,,,,,,,,,,,,,,,,,,,
27534,1645817495.942,1645817495.9820778,31.0,0.0,4344.102539,4401.538574,4166.666504,4288.205078,4262.563965,0.0,1.0,15.0,,,,0.0,4.0,0.0,4.0,0.0,4.0,33.333332,,,,,,,,,,,,,,,,,,,,1.0,0.0,0.0,,,,,,,,,,,,,,,,,,,,,,,,,,,,,,,,0.0,0.0,1.0,0.0,512.0,1.0,7.895625,4.490569,1.703689,5.370529,24.401594,35.756382,28.173115000000003,37.982498,95.31304200000001,412.931,3.2703450000000003,1.408865,2.204659,7.458739,16.446827,2.268957,6.363293,10.410152,9.126255,32.820446000000004,3.0663080000000003,2.814698,2.50841,5.981469000000001,13.401941
27535,1645817495.9498131,1645817495.989793,32.0,0.0,4364.102539,4692.307617,4121.538574,4225.128418,4305.641113000001,0.0,1.0,15.0,,,,0.0,4.0,0.0,4.0,0.0,4.0,33.333332,,,,,,,,16.0,0.0,0.063943,0.61792,-0.226318,-0.7502439999999999,0.91017,-0.435554,-0.14551,-0.034161000000000004,-0.033624,-0.035021,,,,,,,,,,,,,,,,,,,,,,,,,,,,,,,,,,,,,,,,,,,,,,,,,,,,,,,,,,,,,,,,,
27536,1645817495.957627,1645817495.997608,33.0,0.0,4345.128418,4746.153809,4127.692383,4231.282227000001,4294.871582,0.0,1.0,15.0,,,,0.0,4.0,0.0,4.0,0.0,4.0,33.333332,,,,,,,,,,,,,,,,,,,,,,,,,,,,,,,,,,,,,,,,,,,,,,,,,,,,,,,,,,,,,,,,,,,,,,,,,,,,,,,,,,,,
27537,1645817495.96544,1645817496.005422,34.0,0.0,4373.846191,4552.820313,4182.563965,4269.743652,4250.256348,0.0,1.0,15.0,,,,0.0,4.0,0.0,4.0,0.0,4.0,33.333332,,,,,,,,17.0,0.0,0.063943,0.61792,-0.226318,-0.7502439999999999,0.9072399999999999,-0.44190100000000004,-0.136721,-0.034212,-0.03368,-0.030688999999999998,,,,,,,,,,,,,,,,,,,,,,,,,,,,,,,,,,,,,,,,,,,,,,,,,,,,,,,,,,,,,,,,,
27538,1645817495.973254,1645817496.013237,35.0,0.0,4381.025879,4635.384765999999,4171.794922,4261.025879,4274.871582,0.0,1.0,15.0,,,,0.0,4.0,0.0,4.0,0.0,4.0,33.333332,,,,,,,,,,,,,,,,,,,,,,,,,,,,,,,,,,,,,,,,,,,,,,,,,,,,,,0.0,0.0,1.0,0.0,512.0,1.0,,,,,,,,,,,,,,,,,,,,,,,,,
27539,1645817495.981067,1645817496.021051,36.0,0.0,4327.179688,4568.717772999999,4160.0,4286.153809,4273.846191,0.0,1.0,15.0,,,,0.0,4.0,0.0,4.0,0.0,4.0,33.333332,,,,,,,,18.0,0.0,0.063072,0.61792,-0.22656300000000001,-0.7502439999999999,0.900893,-0.430671,-0.136721,-0.034208999999999996,-0.033681,-0.032991,,,,,,,,,,,,,,,,,,,,,,,,,,,,,,,,,,,,,,,,,,,,,,,,,,,,,,,,,,,,,,,,,
27540,1645817495.988881,1645817496.028866,37.0,0.0,4353.846191,4555.384765999999,4164.102539,4279.487305,4269.743652,0.0,1.0,15.0,,,,0.0,4.0,0.0,4.0,0.0,4.0,33.333332,,,,,,,,,,,,,,,,,,,,,,,,,,,,,,,,,,,,,,,,,,,,,,,,,,,,,,,,,,,,,,,,,,,,,,,,,,,,,,,,,,,,
27541,1645817495.9966938,1645817496.036681,38.0,0.0,4372.307617,4767.692383,4129.230957,4206.666504,4319.487305,0.0,1.0,15.0,,,,0.0,4.0,0.0,4.0,0.0,4.0,33.333332,,,,,,,,19.0,0.0,0.063072,0.61792,-0.22656300000000001,-0.7502439999999999,0.8969860000000001,-0.43408900000000006,-0.142092,-0.034255,-0.033731,-0.035210000000000005,,,,,,,,,,,,,,,,,,,,,,,,,,,,,,,,,,,,,,,,,,,,,,,,,,,,,,,,,,,,,,,,,
27542,1645817496.004507,1645817496.0444949,39.0,0.0,4335.384765999999,4558.974121,4171.282227000001,4236.410156,4290.769043,0.0,1.0,15.0,,,,0.0,4.0,0.0,4.0,0.0,4.0,33.333332,,,,,,,,,,,,,,,,,,,,,,,,,,,,,,,,,,,,,,,,,,,,,,,,,,,,,,0.0,0.0,1.0,0.0,512.0,1.0,,,,,,,,,,,,,,,,,,,,,,,,,
27543,1645817496.012321,1645817496.05231,40.0,0.0,4366.666504,4400.0,4240.0,4294.358886999999,4248.205078,0.0,1.0,15.0,,,,0.0,4.0,0.0,4.0,0.0,4.0,33.333332,,,,,,,,20.0,0.0,0.06542,0.617676,-0.22656300000000001,-0.7502439999999999,0.901869,-0.42920600000000003,-0.125002,-0.034247,-0.033825,-0.030858999999999998,,,,,,,,,,,,,,,,,,,,,,,,,,,,,,,,,,,,,,,,,,,,,,,,,,,,,,,,,,,,,,,,,
27544,1645817496.020134,1645817496.060225,41.0,0.0,4357.94873,4669.230957,4183.589844,4273.333496,4298.461426,0.0,1.0,15.0,,,,0.0,4.0,0.0,4.0,0.0,4.0,33.333332,,,,,,,,,,,,,,,,,,,,,,,,,,,,,,,,,,,,,,,,,,,,,,,,,,,,,,,,,,,,,,,,,,,,,,,,,,,,,,,,,,,,
27545,1645817496.0279472,1645817496.0680392,42.0,0.0,4292.307617,4676.922852000001,4123.077147999999,4241.538574,4289.230957,0.0,1.0,15.0,,,,0.0,4.0,0.0,4.0,0.0,4.0,33.333332,,,,,,,,21.0,0.0,0.061666,0.617676,-0.226807,-0.750488,0.897475,-0.440925,-0.137209,-0.034137,-0.03379,-0.02962,,,,,,,,,,,,,,,,,,,,,,,,,,,,,,,,,,,,,,,,,,,,,,,,,,,,,,,,,,,,,,,,,
27546,1645817496.0357609,1645817496.0758538,43.0,0.0,4356.410156,4696.410156,4148.717772999999,4195.384765999999,4255.384765999999,0.0,1.0,15.0,,,,0.0,4.0,0.0,4.0,0.0,4.0,33.333332,,,,,,,,,,,,,,,,,,,,,,,,,,,,,,,,,,,,,,,,,,,,,,,,,,,,,,0.0,0.0,1.0,0.0,512.0,1.0,,,,,,,,,,,,,,,,,,,,,,,,,
27547,1645817496.043574,1645817496.083669,44.0,0.0,4414.871582,4832.820313,4173.846191,4195.897461,4303.077147999999,0.0,1.0,15.0,,,,0.0,4.0,0.0,4.0,0.0,4.0,33.333332,,,,,,,,22.0,0.0,0.063072,0.61792,-0.22656300000000001,-0.7502439999999999,0.8969860000000001,-0.43408900000000006,-0.142092,-0.034044,-0.033780000000000004,-0.032126,,,,,,,,,,,,,,,,,,,,,,,,,,,,,,,,,,,,,,,,,,,,,,,,,,,,,,,,,,,,,,,,,
27548,1645817496.051388,1645817496.091483,45.0,0.0,4336.922852000001,4440.0,4183.077147999999,4307.179688,4268.717772999999,0.0,1.0,15.0,,,,0.0,4.0,0.0,4.0,0.0,4.0,33.333332,,,,,,,,,,,,,,,,,,,,,,,,,,,,,,,,,,,,,,,,,,,,,,,,,,,,,,,,,,,,,,,,,,,,,,,,,,,,,,,,,,,,
27549,1645817496.059201,1645817496.099298,46.0,0.0,4312.820313,4291.794922,4162.563965,4324.615234000001,4220.0,0.0,1.0,15.0,,,,0.0,4.0,0.0,4.0,0.0,4.0,33.333332,,,,,,,,23.0,0.0,0.061666,0.617676,-0.226807,-0.750488,0.897475,-0.440925,-0.137209,-0.033960000000000004,-0.033673,-0.034285,,,,,,,,,,,,,,,,,,,,,,,,,,,,,,,,,,,,,,,,,,,,,,,,,,,,,,,,,,,,,,,,,
27550,1645817496.067014,1645817496.107112,47.0,0.0,4344.102539,4727.692383,4122.563965,4219.487305,4300.512695,0.0,1.0,15.0,,,,0.0,4.0,0.0,4.0,0.0,4.0,33.333332,,,,,,,,,,,,,,,,,,,,1.0,0.0,0.0,,,,,,,,,,,,,,,,,,,,,,,,,,,,,,,,0.0,0.0,1.0,0.0,512.0,1.0,3.5735019999999995,4.424328,1.932768,6.624586,22.799072,35.394089,23.960302,37.510368,101.473465,384.782806,2.859248,1.293966,2.0164869999999997,7.237691000000001,15.451406,1.851736,5.555962,9.927064999999999,11.112176,31.289634999999997,2.09068,2.852981,2.567263,7.264433,12.611005
27551,1645817496.074828,1645817496.114927,48.0,0.0,4360.0,4785.128418,4129.743652,4210.256348,4338.974121,0.0,1.0,15.0,,,,0.0,4.0,0.0,4.0,0.0,4.0,33.333332,,,,,,,,24.0,0.0,0.061666,0.617676,-0.226807,-0.750488,0.901869,-0.425299,-0.146975,-0.033982,-0.033625999999999996,-0.036423000000000004,,,,,,,,,,,,,,,,,,,,,,,,,,,,,,,,,,,,,,,,,,,,,,,,,,,,,,,,,,,,,,,,,
27552,1645817496.0826411,1645817496.122842,49.0,0.0,4384.615234000001,4689.743652,4131.794922,4244.102539,4293.333496,0.0,1.0,15.0,,,,0.0,4.0,0.0,4.0,0.0,4.0,33.333332,,,,,,,,,,,,,,,,,,,,,,,,,,,,,,,,,,,,,,,,,,,,,,,,,,,,,,,,,,,,,,,,,,,,,,,,,,,,,,,,,,,,
27553,1645817496.090455,1645817496.130657,50.0,0.0,4373.333496,4683.077147999999,4149.230957,4267.179688,4282.563965,0.0,1.0,15.0,,,,0.0,4.0,0.0,4.0,0.0,4.0,33.333332,,,,,,,,25.0,0.0,0.064064,0.617432,-0.226807,-0.750488,0.8999159999999999,-0.421393,-0.137209,-0.034002,-0.033632999999999996,-0.031902,,,,,,,,,,,,,,,,,,,,,,,,,,,,,,,,,,,,,,,,,,,,,,,,,,,,,,,,,,,,,,,,,
27554,1645817496.098268,1645817496.138472,51.0,0.0,4364.615234000001,4455.897461,4207.692383,4325.641113000001,4286.153809,0.0,1.0,15.0,,,,0.0,4.0,0.0,4.0,0.0,4.0,33.333332,,,,,,,,,,,,,,,,,,,,,,,,,,,,,,,,,,,,,,,,,,,,,,,,,,,,,,0.0,0.0,1.0,0.0,512.0,1.0,,,,,,,,,,,,,,,,,,,,,,,,,
27555,1645817496.106081,1645817496.146287,52.0,0.0,4400.0,4437.436035,4195.384765999999,4317.94873,4305.641113000001,0.0,1.0,15.0,,,,0.0,4.0,0.0,4.0,0.0,4.0,33.333332,,,,,,,,26.0,0.0,0.064064,0.617432,-0.226807,-0.750488,0.905776,-0.425788,-0.137209,-0.034019,-0.033688,-0.034132,,,,,,,,,,,,,,,,,,,,,,,,,,,,,,,,,,,,,,,,,,,,,,,,,,,,,,,,,,,,,,,,,
27556,1645817496.113895,1645817496.154101,53.0,0.0,4444.615234000001,4607.179688,4148.717772999999,4248.717772999999,4360.0,0.0,1.0,15.0,,,,0.0,4.0,0.0,4.0,0.0,4.0,33.333332,,,,,,,,,,,,,,,,,,,,,,,,,,,,,,,,,,,,,,,,,,,,,,,,,,,,,,,,,,,,,,,,,,,,,,,,,,,,,,,,,,,,
27557,1645817496.121708,1645817496.161916,54.0,0.0,4529.743652,4555.384765999999,4170.256348,4242.05127,4391.282227000001,0.0,1.0,15.0,,,,0.0,4.0,0.0,4.0,0.0,4.0,33.333332,,,,,,,,27.0,0.0,0.064569,0.617676,-0.226807,-0.7502439999999999,0.904799,-0.43018199999999995,-0.13086099999999998,-0.034036000000000004,-0.033737,-0.02984,,,,,,,,,,,,,,,,,,,,,,,,,,,,,,,,,,,,,,,,,,,,,,,,,,,,,,,,,,,,,,,,,
27558,1645817496.129522,1645817496.1697311,55.0,0.0,4645.641113000001,4684.102539,4177.436035,4240.512695,4429.743652,0.0,1.0,15.0,,,,0.0,4.0,0.0,4.0,0.0,4.0,33.333332,,,,,,,,,,,,,,,,,,,,,,,,,,,,,,,,,,,,,,,,,,,,,,,,,,,,,,0.0,0.0,1.0,0.0,512.0,1.0,,,,,,,,,,,,,,,,,,,,,,,,,
27559,1645817496.137335,1645817496.177546,56.0,0.0,4696.922852000001,4866.153809,4153.846191,4209.743652,4496.410156,0.0,1.0,15.0,,,,0.0,4.0,0.0,4.0,0.0,4.0,33.333332,,,,,,,,28.0,0.0,0.064064,0.617432,-0.226807,-0.750488,0.902358,-0.427253,-0.140139,-0.034000999999999997,-0.033732,-0.032276,,,,,,,,,,,,,,,,,,,,,,,,,,,,,,,,,,,,,,,,,,,,,,,,,,,,,,,,,,,,,,,,,
27560,1645817496.145148,1645817496.185361,57.0,0.0,4712.307617,4645.128418,4164.102539,4225.641113000001,4514.358886999999,0.0,1.0,15.0,,,,0.0,4.0,0.0,4.0,0.0,4.0,33.333332,,,,,,,,,,,,,,,,,,,,,,,,,,,,,,,,,,,,,,,,,,,,,,,,,,,,,,,,,,,,,,,,,,,,,,,,,,,,,,,,,,,,
27561,1645817496.152962,1645817496.193176,58.0,0.0,4749.230957,4488.205078,4174.358886999999,4278.974121,4508.205078,0.0,1.0,15.0,,,,0.0,4.0,0.0,4.0,0.0,4.0,33.333332,,,,,,,,29.0,0.0,0.064064,0.617432,-0.226807,-0.750488,0.8808729999999999,-0.427253,-0.138674,-0.03397,-0.033826,-0.034468,,,,,,,,,,,,,,,,,,,,,,,,,,,,,,,,,,,,,,,,,,,,,,,,,,,,,,,,,,,,,,,,,
27562,1645817496.160775,1645817496.20109,59.0,0.0,4794.871582,4568.717772999999,4189.743652,4308.717772999999,4547.692383,0.0,1.0,15.0,,,,0.0,4.0,0.0,4.0,0.0,4.0,33.333332,,,,,,,,,,,,,,,,,,,,,,,,,,,,,,,,,,,,,,,,,,,,,,,,,,,,,,0.0,0.0,1.0,0.0,512.0,1.0,,,,,,,,,,,,,,,,,,,,,,,,,
27563,1645817496.168589,1645817496.208905,60.0,0.0,4822.563965,4540.0,4230.256348,4313.846191,4568.205078,0.0,1.0,15.0,,,,0.0,4.0,0.0,4.0,0.0,4.0,33.333332,,,,,,,,30.0,0.0,0.065535,0.617188,-0.22705100000000003,-0.750488,0.9052870000000001,-0.431647,-0.137697,-0.033991,-0.033666,-0.030142000000000002,,,,,,,,,,,,,,,,,,,,,,,,,,,,,,,,,,,,,,,,,,,,,,,,,,,,,,,,,,,,,,,,,
27564,1645817496.1764019,1645817496.2167199,61.0,0.0,4838.461426,4512.307617,4241.025879,4304.615234000001,4556.410156,0.0,1.0,15.0,,,,0.0,4.0,0.0,4.0,0.0,4.0,33.333332,,,,,,,,,,,,,,,,,,,,,,,,,,,,,,,,,,,,,,,,,,,,,,,,,,,,,,,,,,,,,,,,,,,,,,,,,,,,,,,,,,,,
27565,1645817496.184215,1645817496.224534,62.0,0.0,4885.128418,4647.692383,4220.512695,4287.692383,4579.487305,0.0,1.0,15.0,,,,0.0,4.0,0.0,4.0,0.0,4.0,33.333332,,,,,,,,31.0,0.0,0.062677,0.617188,-0.22705100000000003,-0.750732,0.9087049999999999,-0.428717,-0.152346,-0.034010000000000006,-0.033766000000000004,-0.026298000000000002,,,,,,,,,,,,,,,,,,,,,,,,,,,,,,,,,,,,,,,,,,,,,,,,,,,,,,,,,,,,,,,,,
27566,1645817496.192029,1645817496.232349,63.0,0.0,4926.153809,4761.538574,4203.077147999999,4253.846191,4632.307617,0.0,1.0,15.0,,,,0.0,4.0,0.0,4.0,0.0,4.0,33.333332,1.0,8.333333,1.0,0.0,1.0,0.0,1.0,,,,,,,,,,,,,1.0,0.0,0.0,,,,,,,,,,,,,,,,,,,,,,,,,,,,,,,,0.0,0.0,1.0,0.0,512.0,1.0,2.65786,4.742989,2.142384,7.875338,19.835295000000002,35.004428999999995,19.467776999999998,36.575981,118.053078,343.180359,2.446084,1.1693799999999999,1.749975,7.874105,13.642832,1.612486,4.613092,9.445803999999999,15.778570000000002,29.222741999999997,1.9621169999999999,2.911295,2.656399,9.063884,11.350956
27567,1645817496.199842,1645817496.240164,64.0,0.0,4878.974121,4647.692383,4205.128418,4239.487305,4625.128418,450.0,1.0,15.0,,,,0.0,4.0,0.0,4.0,0.0,4.0,33.333332,,,,,,,,32.0,0.0,0.065535,0.617188,-0.22705100000000003,-0.750488,0.917006,-0.425788,-0.142092,-0.033929,-0.033759,-0.022887,,,,,,,,,,,,,,,,,,,,,,,,,,,,,,,,,,,,,,,,,,,,,,,,,,,,,,,,,,,,,,,,,
27568,1645817496.2076561,1645817496.247978,65.0,0.0,4838.461426,4541.025879,4223.077147999999,4276.922852000001,4583.589844,450.0,1.0,15.0,,,,0.0,4.0,0.0,4.0,0.0,4.0,33.333332,,,,,,,,,,,,,,,,,,,,,,,,,,,,,,,,,,,,,,,,,,,,,,,,,,,,,,,,,,,,,,,,,,,,,,,,,,,,,,,,,,,,
27569,1645817496.215469,1645817496.2557929,66.0,0.0,4867.692383,4651.794922,4221.538574,4302.05127,4578.974121,16139.0,1.0,15.0,,,,0.0,4.0,0.0,4.0,0.0,4.0,33.333332,,,,,,,,33.0,0.0,0.064683,0.617188,-0.22729499999999997,-0.750488,0.9087049999999999,-0.430671,-0.135744,-0.033955,-0.033899,-0.025969,,,,,,,,,,,,,,,,,,,,,,,,,,,,,,,,,,,,,,,,,,,,,,,,,,,,,,,,,,,,,,,,,
27570,1645817496.223282,1645817496.263608,67.0,0.0,4880.512695,4736.922852000001,4206.666504,4254.358886999999,4600.512695,450.0,1.0,15.0,,,,0.0,4.0,0.0,4.0,0.0,4.0,33.333332,,,,,,,,,,,,,,,,,,,,,,,,,,,,,,,,,,,,,,,,,,,,,,,,,,,,,,0.0,0.0,1.0,0.0,512.0,1.0,,,,,,,,,,,,,,,,,,,,,,,,,
27571,1645817496.231096,1645817496.271522,68.0,0.0,4856.410156,4649.743652,4204.102539,4201.025879,4614.871582,126.0,1.0,15.0,,,,0.0,4.0,1.0,4.0,0.0,4.0,41.666668,,,,,,,,34.0,0.0,0.064683,0.617188,-0.22729499999999997,-0.750488,0.906752,-0.42822899999999997,-0.139651,-0.033977,-0.033878,-0.022591,,,,,,,,,,,,,,,,,,,,,,,,,,,,,,,,,,,,,,,,,,,,,,,,,,,,,,,,,,,,,,,,,
27572,1645817496.238909,1645817496.279337,69.0,0.0,4844.615234000001,4612.307617,4211.282227000001,4238.461426,4618.974121,450.0,1.0,15.0,,,,0.0,4.0,1.0,4.0,0.0,4.0,41.666668,,,,,,,,,,,,,,,,,,,,,,,,,,,,,,,,,,,,,,,,,,,,,,,,,,,,,,,,,,,,,,,,,,,,,,,,,,,,,,,,,,,,
27573,1645817496.246723,1645817496.2871509,70.0,0.0,4830.256348,4609.230957,4208.717772999999,4310.769043,4607.692383,16140.0,1.0,15.0,,,,0.0,4.0,1.0,4.0,0.0,4.0,41.666668,,,,,,,,35.0,0.0,0.064683,0.617188,-0.22729499999999997,-0.750488,0.8994280000000001,-0.437507,-0.13086099999999998,-0.033997,-0.033811,-0.019551,,,,,,,,,,,,,,,,,,,,,,,,,,,,,,,,,,,,,,,,,,,,,,,,,,,,,,,,,,,,,,,,,
27574,1645817496.254536,1645817496.294966,71.0,0.0,4825.641113000001,4529.743652,4223.589844,4340.0,4588.717772999999,450.0,1.0,15.0,,,,0.0,4.0,1.0,4.0,0.0,4.0,41.666668,,,,,,,,,,,,,,,,,,,,,,,,,,,,,,,,,,,,,,,,,,,,,,,,,,,,,,0.0,0.0,1.0,0.0,512.0,1.0,,,,,,,,,,,,,,,,,,,,,,,,,
27575,1645817496.2623491,1645817496.302781,72.0,0.0,4876.922852000001,4576.922852000001,4252.820313,4307.692383,4605.641113000001,450.0,1.0,15.0,,,,0.0,4.0,1.0,4.0,0.0,4.0,41.666668,,,,,,,,36.0,0.0,0.062310000000000004,0.617432,-0.22729499999999997,-0.750488,0.8969860000000001,-0.42676400000000003,-0.140139,-0.034016000000000005,-0.033701,-0.023016,,,,,,,,,,,,,,,,,,,,,,,,,,,,,,,,,,,,,,,,,,,,,,,,,,,,,,,,,,,,,,,,,
27576,1645817496.270163,1645817496.310595,73.0,0.0,4912.820313,4724.102539,4238.974121,4241.538574,4641.538574,0.0,1.0,15.0,,,,0.0,4.0,1.0,4.0,0.0,4.0,41.666668,,,,,,,,,,,,,,,,,,,,,,,,,,,,,,,,,,,,,,,,,,,,,,,,,,,,,,,,,,,,,,,,,,,,,,,,,,,,,,,,,,,,
27577,1645817496.277976,1645817496.31841,74.0,0.0,4873.846191,4729.743652,4201.025879,4202.563965,4652.307617,450.0,1.0,15.0,,,,0.0,4.0,1.0,4.0,0.0,4.0,41.666668,,,,,,,,37.0,0.0,0.062310000000000004,0.617432,-0.22729499999999997,-0.750488,0.900893,-0.42432299999999995,-0.132326,-0.033934,-0.033749,-0.026232,,,,,,,,,,,,,,,,,,,,,,,,,,,,,,,,,,,,,,,,,,,,,,,,,,,,,,,,,,,,,,,,,
27578,1645817496.28579,1645817496.326225,75.0,0.0,4839.487305,4647.179688,4196.922852000001,4224.102539,4650.256348,16163.0,1.0,15.0,,,,0.0,4.0,1.0,4.0,0.0,4.0,41.666668,,,,,,,,,,,,,,,,,,,,,,,,,,,,,,,,,,,,,,,,,,,,,,,,,,,,,,10.0,0.0,1.0,0.0,512.0,1.0,,,,,,,,,,,,,,,,,,,,,,,,,
27579,1645817496.293603,1645817496.334039,76.0,0.0,4845.641113000001,4595.897461,4227.179688,4263.589844,4645.641113000001,450.0,1.0,15.0,,,,0.0,4.0,1.0,4.0,0.0,4.0,41.666668,,,,,,,,38.0,0.0,0.062310000000000004,0.617432,-0.22729499999999997,-0.750488,0.914076,-0.420417,-0.138674,-0.033958999999999996,-0.033743,-0.022779,,,,,,,,,,,,,,,,,,,,,,,,,,,,,,,,,,,,,,,,,,,,,,,,,,,,,,,,,,,,,,,,,
27580,1645817496.3014169,1645817496.3418539,77.0,0.0,4843.077147999999,4505.128418,4266.153809,4294.358886999999,4630.256348,450.0,1.0,15.0,,,,0.0,4.0,1.0,4.0,0.0,4.0,41.666668,,,,,,,,,,,,,,,,,,,,,,,,,,,,,,,,,,,,,,,,,,,,,,,,,,,,,,,,,,,,,,,,,,,,,,,,,,,,,,,,,,,,
27581,1645817496.30923,1645817496.349768,78.0,0.0,4849.230957,4493.846191,4273.846191,4309.743652,4621.538574,450.0,1.0,15.0,,,,0.0,4.0,1.0,4.0,0.0,4.0,41.666668,,,,,,,,39.0,0.0,0.062310000000000004,0.617432,-0.22729499999999997,-0.750488,0.910658,-0.435065,-0.134768,-0.033932,-0.033738,-0.025872000000000003,,,,,,,,,,,,,,,,,,,,,,,,,,,,,,,,,,,,,,,,,,,,,,,,,,,,,,,,,,,,,,,,,
27582,1645817496.317043,1645817496.357583,79.0,0.0,4889.230957,4665.641113000001,4225.641113000001,4284.102539,4634.358886999999,16163.0,1.0,15.0,,,,0.0,4.0,1.0,4.0,0.0,4.0,41.666668,,,,,,,,,,,,,,,,,,,,1.0,0.0,0.0,,,,,,,,,,,,,,,,,,,,,,,,,,,,,,,,10.0,0.0,1.0,0.0,512.0,1.0,3.200356,5.028365,2.24733,8.892123,16.343945,33.489521,15.018588000000001,36.04258,140.866302,298.971497,2.119571,1.100801,1.485314,8.971416,11.531438,1.586187,3.721993,8.957504,21.733301,27.2146,2.229443,2.924872,2.643343,11.003071,9.972483
27583,1645817496.324857,1645817496.365398,80.0,0.0,4912.307617,4758.461426,4190.256348,4233.333496,4663.077147999999,450.0,1.0,15.0,,,,0.0,4.0,1.0,4.0,0.0,4.0,41.666668,,,,,,,,40.0,0.0,0.064683,0.617188,-0.22729499999999997,-0.750488,0.900893,-0.431647,-0.144533,-0.033957,-0.033734,-0.022455000000000003,,,,,,,,,,,,,,,,,,,,,,,,,,,,,,,,,,,,,,,,,,,,,,,,,,,,,,,,,,,,,,,,,
27584,1645817496.33267,1645817496.3732119,81.0,0.0,4877.94873,4666.153809,4202.563965,4244.615234000001,4672.307617,450.0,1.0,15.0,,,,0.0,4.0,1.0,4.0,0.0,4.0,41.666668,,,,,,,,,,,,,,,,,,,,,,,,,,,,,,,,,,,,,,,,,,,,,,,,,,,,,,,,,,,,,,,,,,,,,,,,,,,,,,,,,,,,
27585,1645817496.340484,1645817496.381027,82.0,0.0,4852.820313,4542.05127,4228.205078,4321.538574,4667.179688,450.0,1.0,15.0,,,,0.0,4.0,1.0,4.0,0.0,4.0,41.666668,,,,,,,,41.0,0.0,0.064683,0.617188,-0.22729499999999997,-0.750488,0.901381,-0.42822899999999997,-0.129397,-0.033882,-0.033826999999999996,-0.025677999999999996,,,,,,,,,,,,,,,,,,,,,,,,,,,,,,,,,,,,,,,,,,,,,,,,,,,,,,,,,,,,,,,,,
27586,1645817496.348297,1645817496.388842,83.0,0.0,4888.205078,4505.641113000001,4267.692383,4354.358886999999,4666.153809,16163.0,1.0,15.0,,,,0.0,4.0,1.0,4.0,0.0,4.0,41.666668,,,,,,,,,,,,,,,,,,,,,,,,,,,,,,,,,,,,,,,,,,,,,,,,,,,,,,10.0,0.0,1.0,0.0,512.0,1.0,,,,,,,,,,,,,,,,,,,,,,,,,
27587,1645817496.3561099,1645817496.396656,84.0,0.0,4918.974121,4582.05127,4295.897461,4305.641113000001,4673.333496,450.0,1.0,15.0,,,,0.0,4.0,1.0,4.0,0.0,4.0,41.666668,,,,,,,,42.0,0.0,0.064683,0.617188,-0.22729499999999997,-0.750488,0.8921030000000001,-0.42676400000000003,-0.134768,-0.033912,-0.033814,-0.028579000000000004,,,,,,,,,,,,,,,,,,,,,,,,,,,,,,,,,,,,,,,,,,,,,,,,,,,,,,,,,,,,,,,,,
27588,1645817496.363924,1645817496.4044712,85.0,0.0,4891.282227000001,4695.384765999999,4252.820313,4242.05127,4691.282227000001,450.0,1.0,15.0,,,,0.0,4.0,1.0,4.0,0.0,4.0,41.666668,,,,,,,,,,,,,,,,,,,,,,,,,,,,,,,,,,,,,,,,,,,,,,,,,,,,,,,,,,,,,,,,,,,,,,,,,,,,,,,,,,,,
27589,1645817496.371737,1645817496.412286,86.0,0.0,4867.179688,4685.128418,4210.256348,4247.179688,4701.538574,450.0,1.0,15.0,,,,0.0,4.0,1.0,4.0,0.0,4.0,41.666668,,,,,,,,43.0,0.0,0.063819,0.617188,-0.227539,-0.750488,0.9155409999999999,-0.424811,-0.138674,-0.033841,-0.033753,-0.024842,,,,,,,,,,,,,,,,,,,,,,,,,,,,,,,,,,,,,,,,,,,,,,,,,,,,,,,,,,,,,,,,,
27590,1645817496.379551,1645817496.4202,87.0,0.0,4871.282227000001,4569.743652,4241.538574,4302.563965,4690.769043,16163.0,1.0,15.0,,,,0.0,4.0,1.0,4.0,0.0,4.0,41.666668,,,,,,,,,,,,,,,,,,,,,,,,,,,,,,,,,,,,,,,,,,,,,,,,,,,,,,10.0,0.0,1.0,0.0,512.0,1.0,,,,,,,,,,,,,,,,,,,,,,,,,
27591,1645817496.3873641,1645817496.428015,88.0,0.0,4874.871582,4521.025879,4291.282227000001,4330.256348,4679.487305,450.0,1.0,15.0,,,,0.0,4.0,1.0,4.0,0.0,4.0,41.666668,,,,,,,,44.0,0.0,0.063819,0.617188,-0.227539,-0.750488,0.914565,-0.409186,-0.146975,-0.033875,-0.033746,-0.021478999999999998,,,,,,,,,,,,,,,,,,,,,,,,,,,,,,,,,,,,,,,,,,,,,,,,,,,,,,,,,,,,,,,,,
27592,1645817496.395177,1645817496.435829,89.0,0.0,4885.128418,4608.205078,4280.0,4285.641113000001,4683.589844,450.0,1.0,15.0,,,,0.0,4.0,1.0,4.0,0.0,4.0,41.666668,,,,,,,,,,,,,,,,,,,,,,,,,,,,,,,,,,,,,,,,,,,,,,,,,,,,,,,,,,,,,,,,,,,,,,,,,,,,,,,,,,,,
27593,1645817496.402991,1645817496.443644,90.0,0.0,4885.128418,4752.307617,4219.487305,4229.230957,4683.077147999999,450.0,1.0,15.0,,,,0.0,4.0,1.0,4.0,0.0,4.0,41.666668,,,,,,,,45.0,0.0,0.063306,0.616943,-0.227539,-0.750732,0.9043110000000001,-0.425299,-0.136233,-0.033856,-0.03379,-0.024702,,,,,,,,,,,,,,,,,,,,,,,,,,,,,,,,,,,,,,,,,,,,,,,,,,,,,,,,,,,,,,,,,
27594,1645817496.4108038,1645817496.451459,91.0,0.0,4875.384765999999,4715.897461,4209.230957,4241.538574,4696.922852000001,16163.0,1.0,15.0,,,,0.0,4.0,1.0,4.0,0.0,4.0,41.666668,,,,,,,,,,,,,,,,,,,,,,,,,,,,,,,,,,,,,,,,,,,,,,,,,,,,,,10.0,0.0,1.0,0.0,512.0,1.0,,,,,,,,,,,,,,,,,,,,,,,,,
27595,1645817496.418617,1645817496.459273,92.0,0.0,4865.641113000001,4537.94873,4267.179688,4301.538574,4703.077147999999,450.0,1.0,15.0,,,,0.0,4.0,1.0,4.0,0.0,4.0,41.666668,,,,,,,,46.0,0.0,0.063306,0.616943,-0.227539,-0.750732,0.903334,-0.431159,-0.14111500000000002,-0.033888999999999996,-0.033780000000000004,-0.027652,,,,,,,,,,,,,,,,,,,,,,,,,,,,,,,,,,,,,,,,,,,,,,,,,,,,,,,,,,,,,,,,,
27596,1645817496.426431,1645817496.467088,93.0,0.0,4880.512695,4547.692383,4302.563965,4317.94873,4690.769043,450.0,1.0,15.0,,,,0.0,4.0,1.0,4.0,0.0,4.0,41.666668,,,,,,,,,,,,,,,,,,,,,,,,,,,,,,,,,,,,,,,,,,,,,,,,,,,,,,,,,,,,,,,,,,,,,,,,,,,,,,,,,,,,
27597,1645817496.434244,1645817496.4749029,94.0,0.0,4920.512695,4729.230957,4286.666504,4268.205078,4724.102539,450.0,1.0,15.0,,,,0.0,4.0,1.0,4.0,0.0,4.0,41.666668,,,,,,,,47.0,0.0,0.063306,0.616943,-0.227539,-0.750732,0.909682,-0.420417,-0.143069,-0.033868999999999996,-0.033722,-0.030257999999999997,,,,,,,,,,,,,,,,,,,,,,,,,,,,,,,,,,,,,,,,,,,,,,,,,,,,,,,,,,,,,,,,,
27598,1645817496.442058,1645817496.482717,95.0,0.0,4924.615234000001,4733.333496,4287.179688,4238.974121,4758.974121,16163.0,1.0,15.0,,,,0.0,4.0,1.0,4.0,0.0,4.0,41.666668,,,,,,,,,,,,,,,,,,,,1.0,0.0,0.0,,,,,,,,,,,,,,,,,,,,,,,,,,,,,,,,0.0,0.0,1.0,0.0,512.0,1.0,7.6117729999999995,5.355439,2.2849619999999997,9.468946,13.059839,30.326475,11.177256,36.428699,164.58284,258.740021,1.974464,1.166798,1.307299,10.056326,9.575882,1.7203529999999998,3.136409,8.533952000000001,27.239922999999997,25.364565,3.6289849999999997,2.912893,2.570865,12.619375,8.717483
27599,1645817496.449871,1645817496.490632,96.0,0.0,4874.358886999999,4549.743652,4305.641113000001,4276.922852000001,4710.256348,450.0,1.0,15.0,,,,0.0,4.0,1.0,4.0,0.0,4.0,41.666668,,,,,,,,48.0,0.0,0.063306,0.616943,-0.227539,-0.750732,0.906752,-0.420417,-0.143557,-0.033851,-0.033768,-0.026402,,,,,,,,,,,,,,,,,,,,,,,,,,,,,,,,,,,,,,,,,,,,,,,,,,,,,,,,,,,,,,,,,
27600,1645817496.457684,1645817496.4984472,97.0,0.0,4847.692383,4486.666504,4293.846191,4325.128418,4647.692383,450.0,1.0,15.0,,,,0.0,4.0,1.0,4.0,0.0,4.0,41.666668,,,,,,,,,,,,,,,,,,,,,,,,,,,,,,,,,,,,,,,,,,,,,,,,,,,,,,,,,,,,,,,,,,,,,,,,,,,,,,,,,,,,
27601,1645817496.465498,1645817496.5062618,98.0,0.0,4867.179688,4605.641113000001,4256.410156,4305.641113000001,4645.641113000001,450.0,1.0,15.0,,,,0.0,4.0,1.0,4.0,0.0,4.0,41.666668,,,,,,,,49.0,0.0,0.063306,0.616943,-0.227539,-0.750732,0.906752,-0.42822899999999997,-0.143557,-0.033884,-0.033712,-0.029182,,,,,,,,,,,,,,,,,,,,,,,,,,,,,,,,,,,,,,,,,,,,,,,,,,,,,,,,,,,,,,,,,
27602,1645817496.473311,1645817496.514077,99.0,0.0,4879.487305,4736.922852000001,4243.589844,4236.922852000001,4674.358886999999,16163.0,1.0,15.0,,,,0.0,4.0,1.0,4.0,0.0,4.0,41.666668,,,,,,,,,,,,,,,,,,,,,,,,,,,,,,,,,,,,,,,,,,,,,,,,,,,,,,10.0,0.0,1.0,0.0,512.0,1.0,,,,,,,,,,,,,,,,,,,,,,,,,
27603,1645817496.481125,1645817496.521892,100.0,0.0,4876.922852000001,4677.94873,4247.179688,4238.974121,4683.077147999999,450.0,1.0,15.0,,,,0.0,4.0,1.0,4.0,0.0,4.0,41.666668,,,,,,,,50.0,0.0,0.063306,0.616943,-0.227539,-0.750732,0.909682,-0.420417,-0.143069,-0.033865,-0.033710000000000004,-0.025481999999999998,,,,,,,,,,,,,,,,,,,,,,,,,,,,,,,,,,,,,,,,,,,,,,,,,,,,,,,,,,,,,,,,,
27604,1645817496.488938,1645817496.529707,101.0,0.0,4872.820313,4536.410156,4231.794922,4314.358886999999,4666.153809,450.0,1.0,15.0,,,,0.0,4.0,1.0,4.0,0.0,4.0,41.666668,,,,,,,,,,,,,,,,,,,,,,,,,,,,,,,,,,,,,,,,,,,,,,,,,,,,,,,,,,,,,,,,,,,,,,,,,,,,,,,,,,,,
27605,1645817496.496751,1645817496.5375211,102.0,0.0,4886.666504,4561.025879,4242.563965,4338.461426,4666.666504,450.0,1.0,15.0,,,,0.0,4.0,1.0,4.0,0.0,4.0,41.666668,,,,,,,,51.0,0.0,0.063306,0.616943,-0.227539,-0.750732,0.906752,-0.42822899999999997,-0.143557,-0.033897000000000004,-0.033658999999999994,-0.028354,,,,,,,,,,,,,,,,,,,,,,,,,,,,,,,,,,,,,,,,,,,,,,,,,,,,,,,,,,,,,,,,,
27606,1645817496.504565,1645817496.545336,103.0,0.0,4927.692383,4627.692383,4291.282227000001,4305.641113000001,4694.358886999999,16163.0,1.0,15.0,,,,0.0,4.0,1.0,4.0,0.0,4.0,41.666668,,,,,,,,,,,,,,,,,,,,,,,,,,,,,,,,,,,,,,,,,,,,,,,,,,,,,,10.0,0.0,1.0,0.0,512.0,1.0,,,,,,,,,,,,,,,,,,,,,,,,,
27607,1645817496.512378,1645817496.553151,104.0,0.0,4941.025879,4625.641113000001,4294.358886999999,4270.256348,4700.512695,450.0,1.0,15.0,,,,0.0,4.0,1.0,4.0,0.0,4.0,41.666668,,,,,,,,52.0,0.0,0.063306,0.616943,-0.227539,-0.750732,0.9028459999999999,-0.42920600000000003,-0.14111500000000002,-0.033875999999999996,-0.033662,-0.030938999999999998,,,,,,,,,,,,,,,,,,,,,,,,,,,,,,,,,,,,,,,,,,,,,,,,,,,,,,,,,,,,,,,,,
27608,1645817496.520192,1645817496.560966,105.0,0.0,4907.692383,4661.538574,4262.563965,4248.717772999999,4683.077147999999,450.0,1.0,15.0,,,,0.0,4.0,1.0,4.0,0.0,4.0,41.666668,,,,,,,,,,,,,,,,,,,,,,,,,,,,,,,,,,,,,,,,,,,,,,,,,,,,,,,,,,,,,,,,,,,,,,,,,,,,,,,,,,,,
27609,1645817496.5280051,1645817496.568881,106.0,0.0,4876.410156,4660.512695,4271.794922,4265.128418,4676.922852000001,450.0,1.0,15.0,,,,0.0,4.0,1.0,4.0,0.0,4.0,41.666668,,,,,,,,53.0,0.0,0.063306,0.616943,-0.227539,-0.750732,0.897475,-0.41699899999999995,-0.14941600000000002,-0.033809,-0.033812,-0.026966000000000004,,,,,,,,,,,,,,,,,,,,,,,,,,,,,,,,,,,,,,,,,,,,,,,,,,,,,,,,,,,,,,,,,
27610,1645817496.5358179,1645817496.576695,107.0,0.0,4869.743652,4557.436035,4308.717772999999,4310.769043,4653.333496,16163.0,1.0,15.0,,,,0.0,4.0,1.0,4.0,0.0,4.0,41.666668,,,,,,,,,,,,,,,,,,,,,,,,,,,,,,,,,,,,,,,,,,,,,,,,,,,,,,10.0,0.0,1.0,0.0,512.0,1.0,,,,,,,,,,,,,,,,,,,,,,,,,
27611,1645817496.543632,1645817496.58461,108.0,0.0,4886.153809,4600.0,4295.897461,4293.846191,4622.05127,450.0,1.0,15.0,,,,0.0,4.0,1.0,4.0,0.0,4.0,41.666668,,,,,,,,54.0,0.0,0.063306,0.616943,-0.227539,-0.750732,0.8930799999999999,-0.436042,-0.14990499999999998,-0.033846,-0.033849000000000004,-0.029592,,,,,,,,,,,,,,,,,,,,,,,,,,,,,,,,,,,,,,,,,,,,,,,,,,,,,,,,,,,,,,,,,
27612,1645817496.551445,1645817496.592424,109.0,0.0,4913.333496,4752.307617,4243.077147999999,4227.179688,4636.922852000001,450.0,1.0,15.0,,,,0.0,4.0,1.0,4.0,0.0,4.0,41.666668,,,,,,,,,,,,,,,,,,,,,,,,,,,,,,,,,,,,,,,,,,,,,,,,,,,,,,,,,,,,,,,,,,,,,,,,,,,,,,,,,,,,
27613,1645817496.559259,1645817496.600239,110.0,0.0,4904.615234000001,4705.641113000001,4217.94873,4209.743652,4648.717772999999,450.0,1.0,15.0,,,,0.0,4.0,1.0,4.0,0.0,4.0,41.666668,,,,,,,,55.0,0.0,0.063306,0.616943,-0.227539,-0.750732,0.8921030000000001,-0.43457700000000005,-0.143069,-0.033879,-0.033735,-0.032004000000000005,,,,,,,,,,,,,,,,,,,,,,,,,,,,,,,,,,,,,,,,,,,,,,,,,,,,,,,,,,,,,,,,,
27614,1645817496.5670722,1645817496.608054,111.0,0.0,4841.538574,4543.077147999999,4219.487305,4263.077147999999,4602.05127,16163.0,1.0,15.0,,,,0.0,4.0,1.0,4.0,0.0,4.0,41.666668,,,,,,,,,,,,,,,,,,,,1.0,0.0,0.0,,,,,,,,,,,,,,,,,,,,,,,,,,,,,,,,10.0,0.0,1.0,0.0,512.0,1.0,20.945578,6.009809,2.400321,9.569968,10.409423,25.897137,8.357181,38.061909,186.57518000000002,224.045456,2.103713,1.415404,1.296561,10.884476,8.008610000000001,1.927648,3.056863,8.308286,31.39188,23.437244,7.786867999999999,3.001388,2.583656,13.530683999999999,7.6673789999999995
27615,1645817496.574885,1645817496.6158679,112.0,0.0,4808.717772999999,4503.589844,4230.256348,4325.641113000001,4571.794922,450.0,1.0,15.0,,,,0.0,4.0,1.0,4.0,0.0,4.0,41.666668,,,,,,,,56.0,0.0,0.063306,0.616943,-0.227539,-0.750732,0.905776,-0.425788,-0.144533,-0.033763,-0.033780000000000004,-0.034272000000000004,,,,,,,,,,,,,,,,,,,,,,,,,,,,,,,,,,,,,,,,,,,,,,,,,,,,,,,,,,,,,,,,,
27616,1645817496.582699,1645817496.623683,113.0,0.0,4823.589844,4524.102539,4251.282227000001,4334.358886999999,4582.05127,450.0,1.0,15.0,,,,0.0,4.0,1.0,4.0,0.0,4.0,41.666668,,,,,,,,,,,,,,,,,,,,,,,,,,,,,,,,,,,,,,,,,,,,,,,,,,,,,,,,,,,,,,,,,,,,,,,,,,,,,,,,,,,,
27617,1645817496.5905118,1645817496.631498,114.0,0.0,4830.769043,4554.358886999999,4275.384765999999,4306.666504,4564.102539,450.0,1.0,15.0,,,,0.0,4.0,1.0,4.0,0.0,4.0,41.666668,,,,,,,,57.0,0.0,0.063306,0.616943,-0.227539,-0.750732,0.9091940000000001,-0.409674,-0.125002,-0.033756,-0.033819999999999996,-0.036167000000000005,,,,,,,,,,,,,,,,,,,,,,,,,,,,,,,,,,,,,,,,,,,,,,,,,,,,,,,,,,,,,,,,,
27618,1645817496.598326,1645817496.639312,115.0,0.0,4797.94873,4587.179688,4273.333496,4275.897461,4512.307617,16163.0,1.0,15.0,,,,0.0,4.0,1.0,4.0,0.0,4.0,41.666668,,,,,,,,,,,,,,,,,,,,,,,,,,,,,,,,,,,,,,,,,,,,,,,,,,,,,,10.0,0.0,1.0,0.0,512.0,1.0,,,,,,,,,,,,,,,,,,,,,,,,,
27619,1645817496.606139,1645817496.647127,116.0,0.0,4752.307617,4593.846191,4251.282227000001,4257.436035,4489.743652,450.0,1.0,15.0,,,,0.0,4.0,1.0,4.0,0.0,4.0,41.666668,,,,,,,,58.0,0.0,0.06088,0.617188,-0.227539,-0.750732,0.9004040000000001,-0.41699899999999995,-0.141604,-0.033701,-0.033856,-0.037873000000000004,,,,,,,,,,,,,,,,,,,,,,,,,,,,,,,,,,,,,,,,,,,,,,,,,,,,,,,,,,,,,,,,,
27620,1645817496.6139529,1645817496.655042,117.0,0.0,4697.94873,4612.307617,4244.102539,4260.0,4491.282227000001,450.0,1.0,15.0,,,,0.0,4.0,1.0,4.0,0.0,4.0,41.666668,,,,,,,,,,,,,,,,,,,,,,,,,,,,,,,,,,,,,,,,,,,,,,,,,,,,,,,,,,,,,,,,,,,,,,,,,,,,,,,,,,,,
27621,1645817496.621766,1645817496.662856,118.0,0.0,4652.820313,4654.358886999999,4267.692383,4258.974121,4456.410156,450.0,1.0,15.0,,,,0.0,4.0,1.0,4.0,0.0,4.0,41.666668,,,,,,,,59.0,0.0,0.064683,0.617188,-0.22729499999999997,-0.750488,0.894057,-0.423346,-0.129885,-0.0337,-0.033888,-0.033256,,,,,,,,,,,,,,,,,,,,,,,,,,,,,,,,,,,,,,,,,,,,,,,,,,,,,,,,,,,,,,,,,
27622,1645817496.6295788,1645817496.670671,119.0,0.0,4572.307617,4721.025879,4241.538574,4225.128418,4375.384765999999,16163.0,1.0,15.0,,,,0.0,4.0,1.0,4.0,0.0,4.0,41.666668,,,,,,,,,,,,,,,,,,,,,,,,,,,,,,,,,,,,,,,,,,,,,,,,,,,,,,0.0,0.0,1.0,0.0,512.0,1.0,,,,,,,,,,,,,,,,,,,,,,,,,
27623,1645817496.637393,1645817496.678485,120.0,0.0,4428.205078,4585.641113000001,4185.128418,4263.589844,4283.077147999999,450.0,1.0,15.0,,,,0.0,4.0,1.0,4.0,0.0,4.0,41.666668,,,,,,,,60.0,0.0,0.064683,0.617188,-0.22729499999999997,-0.750488,0.917494,-0.42676400000000003,-0.134768,-0.033846,-0.033722,-0.035399,,,,,,,,,,,,,,,,,,,,,,,,,,,,,,,,,,,,,,,,,,,,,,,,,,,,,,,,,,,,,,,,,
27624,1645817496.645206,1645817496.6863,121.0,0.0,4359.487305,4382.563965,4196.922852000001,4351.794922,4233.333496,450.0,1.0,15.0,,,,0.0,4.0,1.0,4.0,0.0,4.0,41.666668,,,,,,,,,,,,,,,,,,,,,,,,,,,,,,,,,,,,,,,,,,,,,,,,,,,,,,,,,,,,,,,,,,,,,,,,,,,,,,,,,,,,
27625,1645817496.65302,1645817496.694115,122.0,0.0,4354.871582,4611.794922,4173.846191,4281.025879,4242.563965,450.0,1.0,15.0,,,,0.0,4.0,1.0,4.0,0.0,4.0,41.666668,,,,,,,,61.0,0.0,0.063194,0.617432,-0.22705100000000003,-0.750488,0.913588,-0.43213500000000005,-0.129397,-0.03383,-0.033768,-0.031029,,,,,,,,,,,,,,,,,,,,,,,,,,,,,,,,,,,,,,,,,,,,,,,,,,,,,,,,,,,,,,,,,
27626,1645817496.6608331,1645817496.7019289,123.0,0.0,4275.897461,4820.512695,4107.179688,4162.05127,4226.666504,16163.0,1.0,15.0,,,,0.0,4.0,1.0,4.0,0.0,4.0,41.666668,,,,,,,,,,,,,,,,,,,,,,,,,,,,,,,,,,,,,,,,,,,,,,,,,,,,,,0.0,0.0,1.0,0.0,512.0,1.0,,,,,,,,,,,,,,,,,,,,,,,,,
27627,1645817496.668646,1645817496.709744,124.0,0.0,4232.820313,4498.461426,4173.846191,4231.794922,4151.282227000001,450.0,1.0,15.0,,,,0.0,4.0,1.0,4.0,0.0,4.0,41.666668,,,,,,,,62.0,0.0,0.063194,0.617432,-0.22705100000000003,-0.750488,0.8960100000000001,-0.43994799999999995,-0.144045,-0.033816000000000006,-0.033663,-0.027145,,,,,,,,,,,,,,,,,,,,,,,,,,,,,,,,,,,,,,,,,,,,,,,,,,,,,,,,,,,,,,,,,
27628,1645817496.67646,1645817496.717559,125.0,0.0,4262.05127,4384.615234000001,4244.102539,4302.05127,4140.0,450.0,1.0,15.0,,,,0.0,4.0,1.0,4.0,0.0,4.0,41.666668,,,,,,,,,,,,,,,,,,,,,,,,,,,,,,,,,,,,,,,,,,,,,,,,,,,,,,,,,,,,,,,,,,,,,,,,,,,,,,,,,,,,
27629,1645817496.684273,1645817496.7254732,126.0,0.0,4184.615234000001,4796.410156,4146.153809,4206.666504,4190.256348,450.0,1.0,15.0,,,,0.0,4.0,0.0,4.0,0.0,4.0,33.333332,,,,,,,,63.0,0.0,0.063194,0.617432,-0.22705100000000003,-0.750488,0.8969860000000001,-0.43408900000000006,-0.136721,-0.033852999999999994,-0.033714,-0.0236,,,,,,,,,,,,,,,,,,,,,,,,,,,,,,,,,,,,,,,,,,,,,,,,,,,,,,,,,,,,,,,,,
27630,1645817496.692087,1645817496.733288,127.0,0.0,4071.281982,4741.538574,4120.512695,4214.871582,4138.461426,233.0,1.0,15.0,,,,0.0,4.0,0.0,4.0,0.0,4.0,33.333332,1.0,8.333333,1.0,0.0,1.0,0.0,3.0,,,,,,,,,,,,,1.0,0.0,0.0,,,,,,,,,,,,,,,,,,,,,,,,,,,,,,,,0.0,0.0,1.0,0.0,512.0,1.0,44.482025,7.1733910000000005,2.750771,9.329975,8.467455000000001,21.042517,6.630872999999999,41.013615,204.88639799999999,193.067398,2.437116,1.887816,1.564434,11.447218,6.818447999999999,2.125909,3.50556,8.401384,33.946774,21.121302,14.966085000000001,3.291544,2.8075740000000002,13.542648999999999,6.780819
27631,1645817496.6999,1645817496.741103,0.0,0.0,4058.461426,4329.230957,4213.846191,4341.538574,4026.1538090000004,450.0,1.0,15.0,,,,0.0,4.0,0.0,4.0,0.0,4.0,33.333332,,,,,,,,0.0,0.0,0.060761,0.617676,-0.22705100000000003,-0.750488,0.8994280000000001,-0.431647,-0.138674,-0.033934,-0.033615,-0.026660000000000003,,,,,,,,,,,,,,,,,,,,,,,,,,,,,,,,,,,,,,,,,,,,,,,,,,,,,,,,,,,,,,,,,
27632,1645817496.7077131,1645817496.748917,1.0,0.0,4052.820557,4262.563965,4234.871582,4377.436035,4003.076904,450.0,1.0,15.0,,,,0.0,4.0,0.0,4.0,0.0,4.0,33.333332,,,,,,,,,,,,,,,,,,,,,,,,,,,,,,,,,,,,,,,,,,,,,,,,,,,,,,,,,,,,,,,,,,,,,,,,,,,,,,,,,,,,
27633,1645817496.715527,1645817496.756732,2.0,0.0,4041.025635,4398.974121,4190.769043,4283.589844,4028.205078,16067.0,1.0,15.0,,,,0.0,4.0,0.0,4.0,0.0,4.0,33.333332,,,,,,,,1.0,0.0,0.060761,0.617676,-0.22705100000000003,-0.750488,0.909682,-0.42676400000000003,-0.137697,-0.03391,-0.033622000000000006,-0.029414,,,,,,,,,,,,,,,,,,,,,,,,,,,,,,,,,,,,,,,,,,,,,,,,,,,,,,,,,,,,,,,,,
27634,1645817496.72334,1645817496.7645462,3.0,0.0,4063.5898439999996,4454.358886999999,4192.820313,4221.538574,4032.3076170000004,450.0,1.0,15.0,,,,0.0,4.0,0.0,4.0,0.0,4.0,33.333332,,,,,,,,,,,,,,,,,,,,,,,,,,,,,,,,,,,,,,,,,,,,,,,,,,,,,,0.0,0.0,1.0,0.0,512.0,1.0,,,,,,,,,,,,,,,,,,,,,,,,,
27635,1645817496.731154,1645817496.772361,4.0,0.0,4061.025635,4514.358886999999,4200.512695,4228.205078,4030.7692869999996,2.0,1.0,15.0,,,,0.0,4.0,0.0,4.0,0.0,4.0,33.333332,,,,,,,,2.0,0.0,0.063705,0.617676,-0.22705100000000003,-0.7502439999999999,0.897475,-0.422858,-0.134768,-0.033986,-0.033678,-0.02574,,,,,,,,,,,,,,,,,,,,,,,,,,,,,,,,,,,,,,,,,,,,,,,,,,,,,,,,,,,,,,,,,
27636,1645817496.738967,1645817496.780176,5.0,0.0,4046.1538090000004,4610.769043,4177.94873,4229.743652,4035.897461,450.0,1.0,15.0,,,,0.0,4.0,0.0,4.0,0.0,4.0,33.333332,,,,,,,,,,,,,,,,,,,,,,,,,,,,,,,,,,,,,,,,,,,,,,,,,,,,,,,,,,,,,,,,,,,,,,,,,,,,,,,,,,,,
27637,1645817496.7467802,1645817496.78799,6.0,0.0,4027.6923829999996,4682.563965,4154.358886999999,4218.974121,4039.487061,16228.0,1.0,15.0,,,,0.0,4.0,0.0,4.0,0.0,4.0,33.333332,,,,,,,,3.0,0.0,0.063705,0.617676,-0.22705100000000003,-0.7502439999999999,0.897963,-0.425299,-0.135256,-0.034005,-0.033582,-0.028586,,,,,,,,,,,,,,,,,,,,,,,,,,,,,,,,,,,,,,,,,,,,,,,,,,,,,,,,,,,,,,,,,
27638,1645817496.7545938,1645817496.795905,7.0,0.0,3998.974365,4729.743652,4141.025879,4230.769043,4047.6923829999996,450.0,1.0,15.0,,,,0.0,4.0,0.0,4.0,2.0,4.0,50.0,,,,,,,,,,,,,,,,,,,,,,,,,,,,,,,,,,,,,,,,,,,,,,,,,,,,,,0.0,0.0,1.0,0.0,512.0,1.0,,,,,,,,,,,,,,,,,,,,,,,,,
27639,1645817496.762407,1645817496.80372,8.0,0.0,3993.8461909999996,4777.436035,4126.666504,4242.05127,4073.3332520000004,450.0,1.0,15.0,,,,0.0,4.0,0.0,4.0,2.0,4.0,50.0,,,,,,,,4.0,0.0,0.063705,0.617676,-0.22705100000000003,-0.7502439999999999,0.8969860000000001,-0.42236999999999997,-0.13281500000000002,-0.033974000000000004,-0.033593,-0.031148000000000002,,,,,,,,,,,,,,,,,,,,,,,,,,,,,,,,,,,,,,,,,,,,,,,,,,,,,,,,,,,,,,,,,
27640,1645817496.770221,1645817496.811535,9.0,0.0,3976.923096,4827.179688,4113.846191,4231.282227000001,4107.179688,165.0,1.0,15.0,,,,0.0,4.0,0.0,4.0,2.0,4.0,50.0,,,,,,,,,,,,,,,,,,,,,,,,,,,,,,,,,,,,,,,,,,,,,,,,,,,,,,,,,,,,,,,,,,,,,,,,,,,,,,,,,,,,
27641,1645817496.778034,1645817496.81935,10.0,0.0,3949.743652,4738.974121,4141.538574,4244.102539,4101.025879,450.0,1.0,15.0,,,,0.0,4.0,0.0,4.0,2.0,4.0,50.0,,,,,,,,5.0,0.0,0.063705,0.617676,-0.22705100000000003,-0.7502439999999999,0.909682,-0.421393,-0.13916199999999998,-0.033946,-0.033554,-0.033551,,,,,,,,,,,,,,,,,,,,,,,,,,,,,,,,,,,,,,,,,,,,,,,,,,,,,,,,,,,,,,,,,
27642,1645817496.7858472,1645817496.8271651,11.0,0.0,3944.615479,4490.256348,4184.615234000001,4283.589844,4050.256348,16159.0,1.0,15.0,,,,0.0,4.0,0.0,4.0,2.0,4.0,50.0,,,,,,,,,,,,,,,,,,,,,,,,,,,,,,,,,,,,,,,,,,,,,,,,,,,,,,0.0,0.0,1.0,0.0,512.0,1.0,,,,,,,,,,,,,,,,,,,,,,,,,
27643,1645817496.7936609,1645817496.83498,12.0,0.0,3955.897461,4324.102539,4201.025879,4287.692383,4020.512939,450.0,1.0,15.0,,,,0.0,4.0,0.0,4.0,2.0,4.0,50.0,,,,,,,,6.0,0.0,0.061666,0.617676,-0.226807,-0.750488,0.917494,-0.43408900000000006,-0.13281500000000002,-0.033969,-0.033519,-0.035664,,,,,,,,,,,,,,,,,,,,,,,,,,,,,,,,,,,,,,,,,,,,,,,,,,,,,,,,,,,,,,,,,
27644,1645817496.801474,1645817496.842794,13.0,0.0,3986.1538090000004,4330.769043,4209.743652,4266.153809,4034.358887,450.0,1.0,15.0,,,,0.0,4.0,0.0,4.0,2.0,4.0,50.0,,,,,,,,,,,,,,,,,,,,,,,,,,,,,,,,,,,,,,,,,,,,,,,,,,,,,,,,,,,,,,,,,,,,,,,,,,,,,,,,,,,,
27645,1645817496.8092868,1645817496.850609,14.0,0.0,4025.641113,4418.974121,4211.282227000001,4257.436035,4048.718018,450.0,1.0,15.0,,,,0.0,4.0,0.0,4.0,2.0,4.0,50.0,,,,,,,,7.0,0.0,0.061666,0.617676,-0.226807,-0.750488,0.9111469999999999,-0.425788,-0.138674,-0.033941000000000006,-0.033585000000000004,-0.037469,,,,,,,,,,,,,,,,,,,,,,,,,,,,,,,,,,,,,,,,,,,,,,,,,,,,,,,,,,,,,,,,,
27646,1645817496.817101,1645817496.858424,15.0,0.0,4019.487061,4495.384765999999,4189.743652,4257.436035,4038.461426,16159.0,1.0,15.0,,,,0.0,4.0,0.0,4.0,2.0,4.0,50.0,,,,,,,,,,,,,,,,,,,,1.0,0.0,0.0,,,,,,,,,,,,,,,,,,,,,,,,,,,,,,,,0.0,0.0,1.0,0.0,512.0,0.850144,73.213531,8.544633000000001,3.366778,9.03077,7.127339999999999,16.732338000000002,6.011532,44.477295,216.88218700000002,164.240433,2.840622,2.710076,2.269078,11.838992,5.868603,2.2987580000000003,4.327141,8.821703,34.972225,18.366539000000003,23.677605,3.7372989999999997,3.263543,12.707207,5.996231
27647,1645817496.824914,1645817496.866239,16.0,0.0,4011.281982,4610.769043,4162.05127,4225.641113000001,4055.384521,0.0,1.0,15.0,,,,0.0,4.0,0.0,4.0,2.0,4.0,50.0,,,,,,,,8.0,0.0,0.060098,0.61792,-0.22656300000000001,-0.750488,0.918959,-0.42676400000000003,-0.143557,-0.033964999999999995,-0.033693,-0.032794,,,,,,,,,,,,,,,,,,,,,,,,,,,,,,,,,,,,,,,,,,,,,,,,,,,,,,,,,,,,,,,,,
27648,1645817496.832728,1645817496.8741539,17.0,0.0,4041.025635,4735.897461,4156.410156,4189.230957,4093.3332520000004,0.0,1.0,15.0,,,,0.0,4.0,0.0,4.0,2.0,4.0,50.0,,,,,,,,,,,,,,,,,,,,,,,,,,,,,,,,,,,,,,,,,,,,,,,,,,,,,,,,,,,,,,,,,,,,,,,,,,,,,,,,,,,,
27649,1645817496.8405411,1645817496.881968,18.0,0.0,4054.358887,4766.666504,4156.410156,4209.230957,4105.128418,0.0,1.0,15.0,,,,0.0,4.0,0.0,4.0,2.0,4.0,50.0,,,,,,,,9.0,0.0,0.060098,0.61792,-0.22656300000000001,-0.750488,0.894545,-0.431647,-0.140627,-0.033987,-0.033644,-0.034886,,,,,,,,,,,,,,,,,,,,,,,,,,,,,,,,,,,,,,,,,,,,,,,,,,,,,,,,,,,,,,,,,
27650,1645817496.8483539,1645817496.889883,19.0,0.0,4031.794922,4712.820313,4153.846191,4253.333496,4107.692383,0.0,1.0,15.0,,,,0.0,4.0,0.0,4.0,2.0,4.0,50.0,,,,,,,,,,,,,,,,,,,,,,,,,,,,,,,,,,,,,,,,,,,,,,,,,,,,,,0.0,0.0,1.0,0.0,512.0,0.850144,,,,,,,,,,,,,,,,,,,,,,,,,
27651,1645817496.856168,1645817496.897697,20.0,0.0,4018.974365,4728.717772999999,4145.128418,4251.282227000001,4128.717772999999,0.0,1.0,15.0,,,,0.0,4.0,0.0,4.0,2.0,4.0,50.0,,,,,,,,10.0,0.0,0.060098,0.61792,-0.22656300000000001,-0.750488,0.906264,-0.423346,-0.135256,-0.033908999999999995,-0.033649,-0.030567,,,,,,,,,,,,,,,,,,,,,,,,,,,,,,,,,,,,,,,,,,,,,,,,,,,,,,,,,,,,,,,,,
27652,1645817496.863981,1645817496.9055119,21.0,0.0,4009.743652,4843.589844,4102.05127,4203.589844,4130.769043,0.0,1.0,15.0,,,,0.0,4.0,0.0,4.0,2.0,4.0,50.0,,,,,,,,,,,,,,,,,,,,,,,,,,,,,,,,,,,,,,,,,,,,,,,,,,,,,,,,,,,,,,,,,,,,,,,,,,,,,,,,,,,,
27653,1645817496.871795,1645817496.913327,22.0,0.0,3973.8461909999996,4885.641113000001,4067.6923829999996,4170.256348,4110.256348,0.0,1.0,15.0,,,,0.0,4.0,0.0,4.0,2.0,4.0,50.0,,,,,,,,11.0,0.0,0.060098,0.61792,-0.22656300000000001,-0.750488,0.91017,-0.42432299999999995,-0.147951,-0.033887,-0.033652999999999995,-0.026632,,,,,,,,,,,,,,,,,,,,,,,,,,,,,,,,,,,,,,,,,,,,,,,,,,,,,,,,,,,,,,,,,
27654,1645817496.879608,1645817496.921141,23.0,0.0,3919.487061,4763.077147999999,4093.8461909999996,4224.615234000001,4106.153809,0.0,1.0,15.0,,,,0.0,4.0,0.0,4.0,2.0,4.0,50.0,,,,,,,,,,,,,,,,,,,,,,,,,,,,,,,,,,,,,,,,,,,,,,,,,,,,,,0.0,0.0,1.0,0.0,512.0,0.850144,,,,,,,,,,,,,,,,,,,,,,,,,
27655,1645817496.8874211,1645817496.928956,24.0,0.0,3928.205078,4639.487305,4121.538574,4275.897461,4107.692383,0.0,1.0,15.0,,,,0.0,4.0,0.0,4.0,2.0,4.0,50.0,,,,,,,,12.0,0.0,0.060098,0.61792,-0.22656300000000001,-0.750488,0.9111469999999999,-0.421393,-0.134768,-0.033964999999999995,-0.033657,-0.029339999999999998,,,,,,,,,,,,,,,,,,,,,,,,,,,,,,,,,,,,,,,,,,,,,,,,,,,,,,,,,,,,,,,,,
27656,1645817496.895235,1645817496.9367712,25.0,0.0,3953.8461909999996,4575.384765999999,4112.307617,4256.922852000001,4085.641113,0.0,1.0,15.0,,,,0.0,4.0,0.0,4.0,2.0,4.0,50.0,,,,,,,,,,,,,,,,,,,,,,,,,,,,,,,,,,,,,,,,,,,,,,,,,,,,,,,,,,,,,,,,,,,,,,,,,,,,,,,,,,,,
27657,1645817496.903048,1645817496.9445848,26.0,0.0,3934.358887,4520.0,4116.410156,4272.820313,4056.923096,0.0,1.0,15.0,,,,0.0,4.0,0.0,4.0,2.0,4.0,50.0,,,,,,,,13.0,0.0,0.063072,0.61792,-0.22656300000000001,-0.7502439999999999,0.916518,-0.41406899999999996,-0.143557,-0.033987,-0.033513999999999995,-0.031826,,,,,,,,,,,,,,,,,,,,,,,,,,,,,,,,,,,,,,,,,,,,,,,,,,,,,,,,,,,,,,,,,
27658,1645817496.910862,1645817496.9525,27.0,0.0,3922.0512700000004,4482.563965,4121.025879,4309.230957,4059.487061,0.0,1.0,15.0,,,,0.0,4.0,0.0,4.0,2.0,4.0,50.0,,,,,,,,,,,,,,,,,,,,,,,,,,,,,,,,,,,,,,,,,,,,,,,,,,,,,,0.0,0.0,1.0,0.0,512.0,0.850144,,,,,,,,,,,,,,,,,,,,,,,,,
27659,1645817496.918675,1645817496.960315,28.0,0.0,3952.820557,4379.487305,4134.358886999999,4327.179688,4074.8718259999996,0.0,1.0,15.0,,,,0.0,4.0,0.0,4.0,2.0,4.0,50.0,,,,,,,,14.0,0.0,0.060098,0.61792,-0.22656300000000001,-0.750488,0.91017,-0.42432299999999995,-0.147951,-0.033957,-0.033532,-0.027763999999999997,,,,,,,,,,,,,,,,,,,,,,,,,,,,,,,,,,,,,,,,,,,,,,,,,,,,,,,,,,,,,,,,,
27660,1645817496.926489,1645817496.96813,29.0,0.0,4004.615479,4322.563965,4188.717772999999,4309.230957,4085.1281740000004,0.0,1.0,15.0,,,,0.0,4.0,0.0,4.0,2.0,4.0,50.0,,,,,,,,,,,,,,,,,,,,,,,,,,,,,,,,,,,,,,,,,,,,,,,,,,,,,,,,,,,,,,,,,,,,,,,,,,,,,,,,,,,,
27661,1645817496.9343019,1645817496.975945,30.0,0.0,4031.794922,4533.333496,4188.717772999999,4231.794922,4093.8461909999996,0.0,1.0,15.0,,,,0.0,4.0,0.0,4.0,2.0,4.0,50.0,,,,,,,,15.0,0.0,0.063072,0.61792,-0.22656300000000001,-0.7502439999999999,0.916518,-0.41406899999999996,-0.143557,-0.033979,-0.033402,-0.030407999999999998,,,,,,,,,,,,,,,,,,,,,,,,,,,,,,,,,,,,,,,,,,,,,,,,,,,,,,,,,,,,,,,,,
27662,1645817496.942115,1645817496.9837599,31.0,0.0,4022.5642090000006,4620.0,4152.820313,4219.487305,4084.615479,0.0,1.0,15.0,,,,0.0,4.0,0.0,4.0,2.0,4.0,50.0,,,,,,,,,,,,,,,,,,,,1.0,0.0,0.0,,,,,,,,,,,,,,,,,,,,,,,,,,,,,,,,0.0,0.0,1.0,0.0,512.0,1.0,101.87616700000001,9.813379,4.239305,8.954089,6.247387000000001,13.561009,7.9670119999999995,48.956558,219.804031,138.725845,3.193089,4.168398000000001,3.441339,12.117783,5.10616,2.439293,5.362583,9.545129,34.738667,15.599585000000001,32.234989,4.354336,4.017169,11.32477,5.315471
27663,1645817496.949929,1645817496.991575,32.0,0.0,4011.794922,4472.307617,4164.102539,4274.871582,4069.743652,0.0,1.0,15.0,,,,0.0,4.0,0.0,4.0,2.0,4.0,50.0,,,,,,,,16.0,0.0,0.060633000000000006,0.618164,-0.22656300000000001,-0.7502439999999999,0.910658,-0.41260399999999997,-0.13379100000000002,-0.033902,-0.033283999999999994,-0.026635000000000002,,,,,,,,,,,,,,,,,,,,,,,,,,,,,,,,,,,,,,,,,,,,,,,,,,,,,,,,,,,,,,,,,
27664,1645817496.957742,1645817496.9993892,33.0,0.0,4030.256348,4473.846191,4185.641113000001,4300.0,4083.076904,0.0,1.0,15.0,,,,0.0,4.0,0.0,4.0,2.0,4.0,50.0,,,,,,,,,,,,,,,,,,,,,,,,,,,,,,,,,,,,,,,,,,,,,,,,,,,,,,,,,,,,,,,,,,,,,,,,,,,,,,,,,,,,
27665,1645817496.9655561,1645817497.0072038,34.0,0.0,4049.2307130000004,4700.512695,4148.205078,4226.666504,4110.769043,0.0,1.0,15.0,,,,0.0,4.0,0.0,4.0,2.0,4.0,50.0,,,,,,,,17.0,0.0,0.060633000000000006,0.618164,-0.22656300000000001,-0.7502439999999999,0.9072399999999999,-0.420417,-0.134279,-0.03393,-0.033325,-0.029342,,,,,,,,,,,,,,,,,,,,,,,,,,,,,,,,,,,,,,,,,,,,,,,,,,,,,,,,,,,,,,,,,
27666,1645817496.973369,1645817497.015019,35.0,0.0,4044.102539,4758.974121,4122.05127,4199.487305,4116.922852000001,0.0,1.0,15.0,,,,0.0,4.0,0.0,4.0,2.0,4.0,50.0,,,,,,,,,,,,,,,,,,,,,,,,,,,,,,,,,,,,,,,,,,,,,,,,,,,,,,0.0,0.0,1.0,0.0,512.0,1.0,,,,,,,,,,,,,,,,,,,,,,,,,
27667,1645817496.981182,1645817497.022834,36.0,0.0,4046.6667479999996,4742.563965,4131.282227000001,4229.230957,4111.794922,0.0,1.0,15.0,,,,0.0,4.0,0.0,4.0,2.0,4.0,50.0,,,,,,,,18.0,0.0,0.063582,0.618164,-0.22656300000000001,-0.75,0.916518,-0.42969399999999996,-0.13916199999999998,-0.033955,-0.033313,-0.031876999999999996,,,,,,,,,,,,,,,,,,,,,,,,,,,,,,,,,,,,,,,,,,,,,,,,,,,,,,,,,,,,,,,,,
27668,1645817496.988996,1645817497.030749,37.0,0.0,4049.2307130000004,4873.333496,4118.461426,4209.230957,4127.179688,0.0,1.0,15.0,,,,0.0,4.0,0.0,4.0,2.0,4.0,50.0,,,,,,,,,,,,,,,,,,,,,,,,,,,,,,,,,,,,,,,,,,,,,,,,,,,,,,,,,,,,,,,,,,,,,,,,,,,,,,,,,,,,
27669,1645817496.996809,1645817497.038563,38.0,0.0,4020.0,4941.025879,4089.743652,4196.410156,4152.820313,0.0,1.0,15.0,,,,0.0,4.0,0.0,4.0,2.0,4.0,50.0,,,,,,,,19.0,0.0,0.061161,0.618408,-0.22656300000000001,-0.75,0.906752,-0.428717,-0.134279,-0.03388,-0.033351,-0.03406,,,,,,,,,,,,,,,,,,,,,,,,,,,,,,,,,,,,,,,,,,,,,,,,,,,,,,,,,,,,,,,,,
27670,1645817497.004623,1645817497.046378,39.0,0.0,3982.5642090000006,4832.307617,4079.487061,4218.461426,4154.871582,0.0,1.0,15.0,,,,0.0,4.0,0.0,4.0,2.0,4.0,50.0,,,,,,,,,,,,,,,,,,,,,,,,,,,,,,,,,,,,,,,,,,,,,,,,,,,,,,0.0,0.0,1.0,0.0,512.0,1.0,,,,,,,,,,,,,,,,,,,,,,,,,
27671,1645817497.012436,1645817497.054193,40.0,0.0,3954.358887,4650.769043,4095.384521,4241.025879,4128.205078,0.0,1.0,15.0,,,,0.0,4.0,0.0,4.0,2.0,4.0,50.0,,,,,,,,20.0,0.0,0.061161,0.618408,-0.22656300000000001,-0.75,0.9028459999999999,-0.41944,-0.131838,-0.03391,-0.033336000000000005,-0.036074,,,,,,,,,,,,,,,,,,,,,,,,,,,,,,,,,,,,,,,,,,,,,,,,,,,,,,,,,,,,,,,,,
27672,1645817497.0202491,1645817497.062007,41.0,0.0,3945.1281740000004,4558.974121,4113.333496,4249.230957,4094.8718259999996,0.0,1.0,15.0,,,,0.0,4.0,0.0,4.0,2.0,4.0,50.0,,,,,,,,,,,,,,,,,,,,,,,,,,,,,,,,,,,,,,,,,,,,,,,,,,,,,,,,,,,,,,,,,,,,,,,,,,,,,,,,,,,,
27673,1645817497.028063,1645817497.069822,42.0,0.0,3938.461426,4451.794922,4131.794922,4288.205078,4073.3332520000004,0.0,1.0,15.0,,,,0.0,4.0,0.0,4.0,2.0,4.0,50.0,,,,,,,,21.0,0.0,0.061161,0.618408,-0.22656300000000001,-0.75,0.9043110000000001,-0.427741,-0.129397,-0.033839,-0.03342,-0.037936000000000004,,,,,,,,,,,,,,,,,,,,,,,,,,,,,,,,,,,,,,,,,,,,,,,,,,,,,,,,,,,,,,,,,
27674,1645817497.035876,1645817497.077637,43.0,0.0,3965.641113,4376.410156,4163.589844,4329.230957,4072.3076170000004,0.0,1.0,15.0,,,,0.0,4.0,0.0,4.0,2.0,4.0,50.0,,,,,,,,,,,,,,,,,,,,,,,,,,,,,,,,,,,,,,,,,,,,,,,,,,,,,,0.0,0.0,1.0,0.0,512.0,1.0,,,,,,,,,,,,,,,,,,,,,,,,,
27675,1645817497.04369,1645817497.085451,44.0,0.0,4010.7692869999996,4359.487305,4203.077147999999,4313.846191,4080.512939,0.0,1.0,15.0,,,,0.0,4.0,0.0,4.0,2.0,4.0,50.0,,,,,,,,22.0,0.0,0.061161,0.618408,-0.22656300000000001,-0.75,0.897963,-0.427253,-0.12255999999999999,-0.033873,-0.033301,-0.039513,,,,,,,,,,,,,,,,,,,,,,,,,,,,,,,,,,,,,,,,,,,,,,,,,,,,,,,,,,,,,,,,,
27676,1645817497.051503,1645817497.093266,45.0,0.0,4012.3076170000004,4207.179688,4234.358886999999,4316.922852000001,4064.102539,0.0,1.0,15.0,,,,0.0,4.0,0.0,4.0,2.0,4.0,50.0,,,,,,,,,,,,,,,,,,,,,,,,,,,,,,,,,,,,,,,,,,,,,,,,,,,,,,,,,,,,,,,,,,,,,,,,,,,,,,,,,,,,
27677,1645817497.059316,1645817497.101181,46.0,0.0,4010.256348,4275.897461,4202.563965,4290.256348,4068.205078,0.0,1.0,15.0,,,,0.0,4.0,0.0,4.0,2.0,4.0,50.0,,,,,,,,23.0,0.0,0.061161,0.618408,-0.22656300000000001,-0.75,0.901869,-0.420417,-0.12451400000000001,-0.033904000000000004,-0.033291,-0.040933,,,,,,,,,,,,,,,,,,,,,,,,,,,,,,,,,,,,,,,,,,,,,,,,,,,,,,,,,,,,,,,,,
27678,1645817497.06713,1645817497.108995,47.0,0.0,4062.5642090000006,4654.871582,4152.307617,4261.538574,4082.5642090000006,0.0,1.0,15.0,,,,0.0,4.0,0.0,4.0,2.0,4.0,50.0,,,,,,,,,,,,,,,,,,,,1.0,0.0,0.0,,,,,,,,,,,,,,,,,,,,,,,,,,,,,,,,0.0,0.0,1.0,0.0,512.0,1.0,125.526253,10.900151,5.428814,9.189630000000001,5.6869559999999995,12.272748,20.839092,57.307731999999994,210.76681499999998,119.251244,3.474111,6.724736,4.96186,12.184014,4.624416,2.5160259999999997,6.629481,10.635475999999999,33.422424,13.476398000000001,39.494877,5.240108,5.182319000000001,9.776877,4.794694
27679,1645817497.074943,1645817497.1168098,48.0,0.0,4093.8461909999996,4885.641113000001,4130.256348,4228.205078,4109.230957,0.0,1.0,15.0,,,,0.0,4.0,0.0,4.0,2.0,4.0,50.0,,,,,,,,24.0,0.0,0.061161,0.618408,-0.22656300000000001,-0.75,0.904799,-0.417975,-0.129397,-0.033932,-0.033283,-0.042358,,,,,,,,,,,,,,,,,,,,,,,,,,,,,,,,,,,,,,,,,,,,,,,,,,,,,,,,,,,,,,,,,
27680,1645817497.082757,1645817497.124625,49.0,0.0,4029.2307130000004,4846.666504,4094.8718259999996,4167.692383,4158.974121,0.0,1.0,15.0,,,,0.0,4.0,0.0,4.0,2.0,4.0,50.0,,,,,,,,,,,,,,,,,,,,,,,,,,,,,,,,,,,,,,,,,,,,,,,,,,,,,,,,,,,,,,,,,,,,,,,,,,,,,,,,,,,,
27681,1645817497.09057,1645817497.13244,50.0,0.0,3953.8461909999996,4711.794922,4089.743652,4211.794922,4163.077147999999,0.0,1.0,15.0,,,,0.0,4.0,0.0,4.0,2.0,4.0,50.0,,,,,,,,25.0,0.0,0.062705,0.618164,-0.226807,-0.75,0.906264,-0.43262399999999995,-0.133303,-0.033956,-0.033177,-0.043493000000000004,,,,,,,,,,,,,,,,,,,,,,,,,,,,,,,,,,,,,,,,,,,,,,,,,,,,,,,,,,,,,,,,,
27682,1645817497.098383,1645817497.140255,51.0,0.0,3962.5642090000006,4504.102539,4150.769043,4310.769043,4108.717772999999,0.0,1.0,15.0,,,,0.0,4.0,0.0,4.0,2.0,4.0,50.0,,,,,,,,,,,,,,,,,,,,,,,,,,,,,,,,,,,,,,,,,,,,,,,,,,,,,,0.0,0.0,1.0,0.0,512.0,1.0,,,,,,,,,,,,,,,,,,,,,,,,,
27683,1645817497.106197,1645817497.1480699,52.0,0.0,4005.641113,4411.282227000001,4165.641113000001,4273.333496,4096.922852000001,0.0,1.0,15.0,,,,0.0,4.0,0.0,4.0,2.0,4.0,50.0,,,,,,,,26.0,0.0,0.062705,0.618164,-0.226807,-0.75,0.917983,-0.440436,-0.137209,-0.033881,-0.03318,-0.038411,,,,,,,,,,,,,,,,,,,,,,,,,,,,,,,,,,,,,,,,,,,,,,,,,,,,,,,,,,,,,,,,,
27684,1645817497.1140099,1645817497.155885,53.0,0.0,4002.0512700000004,4459.487305,4130.769043,4197.436035,4119.487305,0.0,1.0,15.0,,,,0.0,4.0,0.0,4.0,2.0,4.0,50.0,,,,,,,,,,,,,,,,,,,,,,,,,,,,,,,,,,,,,,,,,,,,,,,,,,,,,,,,,,,,,,,,,,,,,,,,,,,,,,,,,,,,
27685,1645817497.121824,1645817497.1637,54.0,0.0,3978.461426,4314.871582,4177.436035,4285.641113000001,4099.487305,0.0,1.0,15.0,,,,0.0,4.0,0.0,4.0,2.0,4.0,50.0,,,,,,,,27.0,0.0,0.061814999999999995,0.618164,-0.22705100000000003,-0.75,0.9150530000000001,-0.42188100000000006,-0.141604,-0.033960000000000004,-0.033231000000000004,-0.03999,,,,,,,,,,,,,,,,,,,,,,,,,,,,,,,,,,,,,,,,,,,,,,,,,,,,,,,,,,,,,,,,,
27686,1645817497.129637,1645817497.171515,55.0,0.0,3995.897461,4207.692383,4225.128418,4336.410156,4084.102539,0.0,1.0,15.0,,,,0.0,4.0,0.0,4.0,2.0,4.0,50.0,,,,,,,,,,,,,,,,,,,,,,,,,,,,,,,,,,,,,,,,,,,,,,,,,,,,,,0.0,0.0,1.0,0.0,512.0,1.0,,,,,,,,,,,,,,,,,,,,,,,,,
27687,1645817497.13745,1645817497.1794288,56.0,0.0,4022.0512700000004,4324.102539,4200.512695,4280.0,4077.4357909999994,0.0,1.0,15.0,,,,0.0,4.0,0.0,4.0,2.0,4.0,50.0,,,,,,,,28.0,0.0,0.058778,0.618164,-0.22705100000000003,-0.7502439999999999,0.9043110000000001,-0.43457700000000005,-0.130373,-0.033982,-0.033277,-0.041411,,,,,,,,,,,,,,,,,,,,,,,,,,,,,,,,,,,,,,,,,,,,,,,,,,,,,,,,,,,,,,,,,
27688,1645817497.1452641,1645817497.187244,57.0,0.0,4037.4357909999994,4328.205078,4198.461426,4312.307617,4051.281982,0.0,1.0,15.0,,,,0.0,4.0,0.0,4.0,2.0,4.0,50.0,,,,,,,,,,,,,,,,,,,,,,,,,,,,,,,,,,,,,,,,,,,,,,,,,,,,,,,,,,,,,,,,,,,,,,,,,,,,,,,,,,,,
27689,1645817497.153077,1645817497.195058,58.0,0.0,4080.0,4299.487305,4217.94873,4353.846191,4049.743652,0.0,1.0,15.0,,,,0.0,4.0,0.0,4.0,2.0,4.0,50.0,,,,,,,,29.0,0.0,0.060911,0.618164,-0.22729499999999997,-0.75,0.9072399999999999,-0.42236999999999997,-0.13379100000000002,-0.034002,-0.033318,-0.036489,,,,,,,,,,,,,,,,,,,,,,,,,,,,,,,,,,,,,,,,,,,,,,,,,,,,,,,,,,,,,,,,,
27690,1645817497.160891,1645817497.202873,59.0,0.0,4115.897461,4595.897461,4169.743652,4259.487305,4101.025879,0.0,1.0,15.0,,,,0.0,4.0,0.0,4.0,2.0,4.0,50.0,,,,,,,,,,,,,,,,,,,,,,,,,,,,,,,,,,,,,,,,,,,,,,,,,,,,,,0.0,0.0,1.0,0.0,512.0,1.0,,,,,,,,,,,,,,,,,,,,,,,,,
27691,1645817497.1687038,1645817497.210688,60.0,0.0,4112.820313,4871.794922,4121.025879,4180.512695,4149.743652,0.0,1.0,15.0,,,,0.0,4.0,0.0,4.0,2.0,4.0,50.0,,,,,,,,30.0,0.0,0.058380999999999995,0.618408,-0.22729499999999997,-0.75,0.906264,-0.422858,-0.135256,-0.033971,-0.033356,-0.03826,,,,,,,,,,,,,,,,,,,,,,,,,,,,,,,,,,,,,,,,,,,,,,,,,,,,,,,,,,,,,,,,,
27692,1645817497.176517,1645817497.218502,61.0,0.0,4089.743652,4757.94873,4132.307617,4228.717772999999,4160.0,0.0,1.0,15.0,,,,0.0,4.0,0.0,4.0,2.0,4.0,50.0,,,,,,,,,,,,,,,,,,,,,,,,,,,,,,,,,,,,,,,,,,,,,,,,,,,,,,,,,,,,,,,,,,,,,,,,,,,,,,,,,,,,
27693,1645817497.184331,1645817497.226317,62.0,0.0,4023.5898439999996,4692.307617,4117.94873,4269.230957,4157.436035,0.0,1.0,15.0,,,,0.0,4.0,0.0,4.0,2.0,4.0,50.0,,,,,,,,31.0,0.0,0.061437,0.618408,-0.22729499999999997,-0.7497560000000001,0.9077290000000001,-0.427253,-0.136721,-0.033943,-0.033243,-0.039952,,,,,,,,,,,,,,,,,,,,,,,,,,,,,,,,,,,,,,,,,,,,,,,,,,,,,,,,,,,,,,,,,
27694,1645817497.192144,1645817497.234132,63.0,0.0,4023.076904,4722.05127,4123.589844,4284.615234000001,4134.871582,0.0,1.0,15.0,,,,0.0,4.0,0.0,4.0,2.0,4.0,50.0,1.0,8.333333,1.0,0.0,3.0,0.0,3.0,,,,,,,,,,,,,1.0,0.0,0.0,,,,,,,,,,,,,,,,,,,,,,,,,,,,,,,,0.0,0.0,1.0,0.0,512.0,1.0,141.137741,12.50491,7.002611999999999,9.641214,5.321421,16.35482,61.961548,74.229538,190.328033,107.80041499999999,3.923059,10.973395,6.498208,11.87974,4.525101,2.639836,8.344766,12.03378,31.208206,12.480608,44.887562,6.661767,6.889482000000001,8.408978,4.484474
27695,1645817497.1999571,1645817497.241946,64.0,0.0,4090.256348,4555.897461,4185.641113000001,4281.025879,4115.897461,450.0,1.0,15.0,,,,0.0,4.0,0.0,4.0,2.0,4.0,50.0,,,,,,,,32.0,0.0,0.058927,0.6186520000000001,-0.22729499999999997,-0.7497560000000001,0.923842,-0.43213500000000005,-0.122072,-0.033868999999999996,-0.033288,-0.041328,,,,,,,,,,,,,,,,,,,,,,,,,,,,,,,,,,,,,,,,,,,,,,,,,,,,,,,,,,,,,,,,,
27696,1645817497.207771,1645817497.2497609,65.0,0.0,4110.256348,4441.025879,4201.025879,4256.922852000001,4138.461426,450.0,1.0,15.0,,,,0.0,4.0,0.0,4.0,2.0,4.0,50.0,,,,,,,,,,,,,,,,,,,,,,,,,,,,,,,,,,,,,,,,,,,,,,,,,,,,,,,,,,,,,,,,,,,,,,,,,,,,,,,,,,,,
27697,1645817497.215584,1645817497.257675,66.0,0.0,4107.179688,4646.153809,4151.282227000001,4246.666504,4146.153809,16204.0,1.0,15.0,,,,0.0,4.0,1.0,2.0,0.0,4.0,25.0,,,,,,,,33.0,0.0,0.058927,0.6186520000000001,-0.22729499999999997,-0.7497560000000001,0.897963,-0.41260399999999997,-0.127443,-0.033851,-0.033327999999999997,-0.042664,,,,,,,,,,,,,,,,,,,,,,,,,,,,,,,,,,,,,,,,,,,,,,,,,,,,,,,,,,,,,,,,,
27698,1645817497.223398,1645817497.26549,67.0,0.0,4122.05127,4888.205078,4122.05127,4214.871582,4152.307617,450.0,1.0,15.0,,,,0.0,4.0,1.0,2.0,0.0,4.0,25.0,,,,,,,,,,,,,,,,,,,,,,,,,,,,,,,,,,,,,,,,,,,,,,,,,,,,,,0.0,0.0,1.0,0.0,512.0,1.0,,,,,,,,,,,,,,,,,,,,,,,,,
27699,1645817497.231211,1645817497.2733052,68.0,0.0,4086.1538090000004,4841.538574,4128.205078,4196.410156,4185.641113000001,65.0,1.0,15.0,,,,0.0,4.0,1.0,2.0,0.0,4.0,25.0,,,,,,,,34.0,0.0,0.059861000000000004,0.6186520000000001,-0.22705100000000003,-0.7497560000000001,0.9028459999999999,-0.41358100000000003,-0.129397,-0.033884,-0.033365,-0.037616000000000004,,,,,,,,,,,,,,,,,,,,,,,,,,,,,,,,,,,,,,,,,,,,,,,,,,,,,,,,,,,,,,,,,
27700,1645817497.239025,1645817497.2811189,69.0,0.0,4034.8718259999996,4624.102539,4140.0,4236.410156,4185.641113000001,450.0,1.0,15.0,,,,0.0,4.0,1.0,2.0,0.0,4.0,25.0,,,,,,,,,,,,,,,,,,,,,,,,,,,,,,,,,,,,,,,,,,,,,,,,,,,,,,,,,,,,,,,,,,,,,,,,,,,,,,,,,,,,
27701,1645817497.246838,1645817497.288934,70.0,0.0,4040.512939,4426.666504,4170.256348,4270.769043,4140.512695,264.0,1.0,15.0,,,,0.0,4.0,1.0,2.0,0.0,4.0,25.0,,,,,,,,35.0,0.0,0.059861000000000004,0.6186520000000001,-0.22705100000000003,-0.7497560000000001,0.895033,-0.427741,-0.136233,-0.033865,-0.033397,-0.039177,,,,,,,,,,,,,,,,,,,,,,,,,,,,,,,,,,,,,,,,,,,,,,,,,,,,,,,,,,,,,,,,,
27702,1645817497.254651,1645817497.296749,71.0,0.0,4056.923096,4355.897461,4189.230957,4268.205078,4126.666504,450.0,1.0,15.0,,,,0.0,4.0,1.0,2.0,0.0,4.0,25.0,,,,,,,,,,,,,,,,,,,,,,,,,,,,,,,,,,,,,,,,,,,,,,,,,,,,,,0.0,0.0,1.0,0.0,512.0,1.0,,,,,,,,,,,,,,,,,,,,,,,,,
27703,1645817497.262465,1645817497.304563,72.0,0.0,4070.256348,4294.871582,4204.102539,4308.717772999999,4122.563965,450.0,1.0,15.0,,,,0.0,4.0,1.0,2.0,0.0,4.0,25.0,,,,,,,,36.0,0.0,0.059323,0.618408,-0.22705100000000003,-0.75,0.9116350000000001,-0.41455699999999995,-0.12109600000000001,-0.033895999999999996,-0.033427,-0.040581,,,,,,,,,,,,,,,,,,,,,,,,,,,,,,,,,,,,,,,,,,,,,,,,,,,,,,,,,,,,,,,,,
27704,1645817497.270278,1645817497.312378,73.0,0.0,4108.717772999999,4264.615234000001,4237.94873,4378.974121,4085.1281740000004,0.0,1.0,15.0,,,,0.0,4.0,1.0,2.0,0.0,4.0,25.0,,,,,,,,,,,,,,,,,,,,,,,,,,,,,,,,,,,,,,,,,,,,,,,,,,,,,,,,,,,,,,,,,,,,,,,,,,,,,,,,,,,,
27705,1645817497.278092,1645817497.320193,74.0,0.0,4132.820313,4529.230957,4202.563965,4308.205078,4103.589844,450.0,1.0,15.0,,,,0.0,4.0,1.0,2.0,0.0,4.0,25.0,,,,,,,,37.0,0.0,0.06025,0.618408,-0.226807,-0.75,0.9052870000000001,-0.41455699999999995,-0.137697,-0.033974000000000004,-0.033356,-0.041992,,,,,,,,,,,,,,,,,,,,,,,,,,,,,,,,,,,,,,,,,,,,,,,,,,,,,,,,,,,,,,,,,
27706,1645817497.2859051,1645817497.328107,75.0,0.0,4119.487305,4849.743652,4113.846191,4165.641113000001,4188.205078,16366.0,1.0,15.0,,,,0.0,4.0,1.0,2.0,0.0,4.0,25.0,,,,,,,,,,,,,,,,,,,,,,,,,,,,,,,,,,,,,,,,,,,,,,,,,,,,,,0.0,0.0,1.0,0.0,512.0,1.0,,,,,,,,,,,,,,,,,,,,,,,,,
27707,1645817497.2937179,1645817497.335922,76.0,0.0,4086.1538090000004,4811.794922,4100.512695,4181.538574,4207.692383,450.0,1.0,15.0,,,,0.0,4.0,1.0,2.0,0.0,4.0,25.0,,,,,,,,38.0,0.0,0.06025,0.618408,-0.226807,-0.75,0.9004040000000001,-0.417975,-0.144045,-0.033944999999999996,-0.033389,-0.043115,,,,,,,,,,,,,,,,,,,,,,,,,,,,,,,,,,,,,,,,,,,,,,,,,,,,,,,,,,,,,,,,,
27708,1645817497.301532,1645817497.343737,77.0,0.0,4071.281982,4653.846191,4146.666504,4297.436035,4154.358886999999,450.0,1.0,15.0,,,,0.0,4.0,1.0,2.0,0.0,4.0,25.0,,,,,,,,,,,,,,,,,,,,,,,,,,,,,,,,,,,,,,,,,,,,,,,,,,,,,,,,,,,,,,,,,,,,,,,,,,,,,,,,,,,,
27709,1645817497.309345,1645817497.351552,78.0,0.0,4110.256348,4535.897461,4196.922852000001,4326.153809,4140.512695,450.0,1.0,15.0,,,,0.0,4.0,1.0,2.0,0.0,4.0,25.0,,,,,,,,39.0,0.0,0.06025,0.618408,-0.226807,-0.75,0.9160299999999999,-0.417487,-0.134279,-0.033969,-0.033273000000000004,-0.038022,,,,,,,,,,,,,,,,,,,,,,,,,,,,,,,,,,,,,,,,,,,,,,,,,,,,,,,,,,,,,,,,,
27710,1645817497.317159,1645817497.359367,79.0,0.0,4142.563965,4318.461426,4231.282227000001,4292.820313,4140.0,16366.0,1.0,15.0,,,,0.0,4.0,1.0,2.0,0.0,4.0,25.0,,,,,,,,,,,,,,,,,,,,1.0,0.0,0.0,,,,,,,,,,,,,,,,,,,,,,,,,,,,,,,,0.0,0.0,1.0,0.0,512.0,1.0,149.46670500000002,15.938801000000002,8.953438,10.069415,5.049057,31.410051,153.28419499999998,106.024651,162.16777,103.574844,4.8609279999999995,17.405857,7.764622,11.074369,4.767938,3.045625,11.023358,13.602615,28.147959000000004,12.592582,48.964619,9.066828,9.153358,7.3672949999999995,4.369692
27711,1645817497.3249722,1645817497.367182,80.0,0.0,4137.94873,4366.666504,4196.922852000001,4275.897461,4113.333496,450.0,1.0,15.0,,,,0.0,4.0,1.0,2.0,0.0,4.0,25.0,,,,,,,,40.0,0.0,0.06025,0.618408,-0.226807,-0.75,0.9043110000000001,-0.424811,-0.131838,-0.033941000000000006,-0.033315,-0.039689,,,,,,,,,,,,,,,,,,,,,,,,,,,,,,,,,,,,,,,,,,,,,,,,,,,,,,,,,,,,,,,,,
27712,1645817497.332785,1645817497.3749971,81.0,0.0,4148.205078,4825.641113000001,4115.897461,4234.358886999999,4153.846191,450.0,1.0,15.0,,,,0.0,4.0,1.0,2.0,0.0,4.0,25.0,,,,,,,,,,,,,,,,,,,,,,,,,,,,,,,,,,,,,,,,,,,,,,,,,,,,,,,,,,,,,,,,,,,,,,,,,,,,,,,,,,,,
27713,1645817497.340599,1645817497.382812,82.0,0.0,4145.128418,4914.358886999999,4128.205078,4223.589844,4218.461426,450.0,1.0,15.0,,,,0.0,4.0,1.0,2.0,0.0,4.0,25.0,,,,,,,,41.0,0.0,0.057129,0.618408,-0.226807,-0.7502439999999999,0.917006,-0.42432299999999995,-0.137209,-0.033964999999999995,-0.033304,-0.041238,,,,,,,,,,,,,,,,,,,,,,,,,,,,,,,,,,,,,,,,,,,,,,,,,,,,,,,,,,,,,,,,,
27714,1645817497.3484118,1645817497.390626,83.0,0.0,4088.205078,4580.512695,4174.358886999999,4240.0,4190.256348,16366.0,1.0,15.0,,,,0.0,4.0,1.0,2.0,0.0,4.0,25.0,,,,,,,,,,,,,,,,,,,,,,,,,,,,,,,,,,,,,,,,,,,,,,,,,,,,,,0.0,0.0,1.0,0.0,512.0,1.0,,,,,,,,,,,,,,,,,,,,,,,,,
27715,1645817497.356226,1645817497.398441,84.0,0.0,4083.5898439999996,4411.282227000001,4179.487305,4264.102539,4147.179688,450.0,1.0,15.0,,,,0.0,4.0,1.0,2.0,0.0,4.0,25.0,,,,,,,,42.0,0.0,0.06025,0.618408,-0.226807,-0.75,0.9160299999999999,-0.417487,-0.134279,-0.034083999999999996,-0.033391000000000004,-0.042631999999999996,,,,,,,,,,,,,,,,,,,,,,,,,,,,,,,,,,,,,,,,,,,,,,,,,,,,,,,,,,,,,,,,,
27716,1645817497.364039,1645817497.406356,85.0,0.0,4153.333496,4347.179688,4200.0,4319.487305,4140.512695,450.0,1.0,15.0,,,,0.0,4.0,1.0,2.0,0.0,4.0,25.0,,,,,,,,,,,,,,,,,,,,,,,,,,,,,,,,,,,,,,,,,,,,,,,,,,,,,,,,,,,,,,,,,,,,,,,,,,,,,,,,,,,,
27717,1645817497.3718529,1645817497.414171,86.0,0.0,4193.846191,4431.794922,4199.487305,4277.436035,4151.282227000001,450.0,1.0,15.0,,,,0.0,4.0,1.0,2.0,0.0,4.0,25.0,,,,,,,,43.0,0.0,0.057129,0.618408,-0.226807,-0.7502439999999999,0.917006,-0.42432299999999995,-0.137209,-0.034094,-0.033373,-0.043886,,,,,,,,,,,,,,,,,,,,,,,,,,,,,,,,,,,,,,,,,,,,,,,,,,,,,,,,,,,,,,,,,
27718,1645817497.379666,1645817497.422085,87.0,0.0,4195.897461,4758.974121,4157.94873,4209.230957,4188.717772999999,16366.0,1.0,15.0,,,,0.0,4.0,1.0,2.0,0.0,4.0,25.0,,,,,,,,,,,,,,,,,,,,,,,,,,,,,,,,,,,,,,,,,,,,,,,,,,,,,,0.0,0.0,1.0,0.0,512.0,1.0,,,,,,,,,,,,,,,,,,,,,,,,,
27719,1645817497.3874788,1645817497.4299,88.0,0.0,4167.179688,4914.358886999999,4123.589844,4241.538574,4223.077147999999,450.0,1.0,15.0,,,,0.0,4.0,1.0,2.0,0.0,4.0,25.0,,,,,,,,44.0,0.0,0.057129,0.618408,-0.226807,-0.7502439999999999,0.9004040000000001,-0.41944,-0.134768,-0.034005,-0.033356,-0.038619,,,,,,,,,,,,,,,,,,,,,,,,,,,,,,,,,,,,,,,,,,,,,,,,,,,,,,,,,,,,,,,,,
27720,1645817497.395293,1645817497.437715,89.0,0.0,4110.256348,4647.692383,4129.743652,4254.358886999999,4200.512695,450.0,1.0,15.0,,,,0.0,4.0,1.0,2.0,0.0,4.0,25.0,,,,,,,,,,,,,,,,,,,,,,,,,,,,,,,,,,,,,,,,,,,,,,,,,,,,,,,,,,,,,,,,,,,,,,,,,,,,,,,,,,,,
27721,1645817497.403106,1645817497.4455302,90.0,0.0,4113.333496,4285.128418,4195.384765999999,4278.461426,4134.871582,450.0,1.0,15.0,,,,0.0,4.0,1.0,2.0,0.0,4.0,25.0,,,,,,,,45.0,0.0,0.060633000000000006,0.618164,-0.22656300000000001,-0.7502439999999999,0.9233540000000001,-0.41651000000000005,-0.137697,-0.034022000000000004,-0.033389,-0.040128,,,,,,,,,,,,,,,,,,,,,,,,,,,,,,,,,,,,,,,,,,,,,,,,,,,,,,,,,,,,,,,,,
27722,1645817497.410919,1645817497.4533448,91.0,0.0,4172.307617,4361.538574,4208.717772999999,4314.358886999999,4120.0,16366.0,1.0,15.0,,,,0.0,4.0,1.0,2.0,0.0,4.0,25.0,,,,,,,,,,,,,,,,,,,,,,,,,,,,,,,,,,,,,,,,,,,,,,,,,,,,,,0.0,0.0,1.0,0.0,512.0,1.0,,,,,,,,,,,,,,,,,,,,,,,,,
