,Timestamp,OriginalTimestamp,EEG.Counter,EEG.Interpolated,EEG.AF3,EEG.T7,EEG.Pz,EEG.T8,EEG.AF4,EEG.RawCq,EEG.Battery,EEG.BatteryPercent,MarkerIndex,MarkerType,MarkerValueInt,EEG.MarkerHardware,CQ.AF3,CQ.T7,CQ.Pz,CQ.T8,CQ.AF4,CQ.Overall,EQ.SampleRateQuality,EQ.OVERALL,EQ.AF3,EQ.T7,EQ.Pz,EQ.T8,EQ.AF4,MOT.CounterMems,MOT.InterpolatedMems,MOT.Q0,MOT.Q1,MOT.Q2,MOT.Q3,MOT.AccX,MOT.AccY,MOT.AccZ,MOT.MagX,MOT.MagY,MOT.MagZ,MC.Action,MC.ActionPower,MC.IsActive,PM.Engagement.IsActive,PM.Engagement.Scaled,PM.Engagement.Raw,PM.Engagement.Min,PM.Engagement.Max,PM.Excitement.IsActive,PM.Excitement.Scaled,PM.Excitement.Raw,PM.Excitement.Min,PM.Excitement.Max,PM.LongTermExcitement,PM.Stress.IsActive,PM.Stress.Scaled,PM.Stress.Raw,PM.Stress.Min,PM.Stress.Max,PM.Relaxation.IsActive,PM.Relaxation.Scaled,PM.Relaxation.Raw,PM.Relaxation.Min,PM.Relaxation.Max,PM.Interest.IsActive,PM.Interest.Scaled,PM.Interest.Raw,PM.Interest.Min,PM.Interest.Max,PM.Focus.IsActive,PM.Focus.Scaled,PM.Focus.Raw,PM.Focus.Min,PM.Focus.Max,FE.BlinkWink,FE.HorizontalEyesDirection,FE.UpperFaceAction,FE.UpperFaceActionPower,FE.LowerFaceAction,FE.LowerFaceActionPower,POW.AF3.Theta,POW.AF3.Alpha,POW.AF3.BetaL,POW.AF3.BetaH,POW.AF3.Gamma,POW.T7.Theta,POW.T7.Alpha,POW.T7.BetaL,POW.T7.BetaH,POW.T7.Gamma,POW.Pz.Theta,POW.Pz.Alpha,POW.Pz.BetaL,POW.Pz.BetaH,POW.Pz.Gamma,POW.T8.Theta,POW.T8.Alpha,POW.T8.BetaL,POW.T8.BetaH,POW.T8.Gamma,POW.AF4.Theta,POW.AF4.Alpha,POW.AF4.BetaL,POW.AF4.BetaH,POW.AF4.Gamma
8450,1650413575.358495,1650413575.388946,102.0,0.0,4335.384765999999,4642.563965,4209.230957,4281.538574,4262.05127,450.0,3.0,73.0,,,,0.0,4.0,0.0,4.0,0.0,4.0,33.333332,,,,,,,,51.0,0.0,0.275392,-0.42675799999999997,0.49902299999999994,0.702148,0.891127,-0.458503,-0.13086099999999998,-0.044891,-0.0565,-0.023765,,,,,,,,,,,,,,,,,,,,,,,,,,,,,,,,,,,,,,,,,,,,,,,,,,,,,,,,,,,,,,,,,
8451,1650413575.366309,1650413575.396661,103.0,0.0,4342.563965,4648.205078,4223.589844,4281.538574,4272.307617,16201.0,3.0,73.0,,,,0.0,4.0,0.0,4.0,0.0,4.0,33.333332,,,,,,,,,,,,,,,,,,,,,,,,,,,,,,,,,,,,,,,,,,,,,,,,,,,,,,,,,,,,,,,,,,,,,,,,,,,,,,,,,,,,
8452,1650413575.374123,1650413575.404475,104.0,0.0,4336.410156,4635.897461,4238.974121,4281.538574,4288.717772999999,450.0,3.0,73.0,,,,0.0,4.0,0.0,4.0,0.0,4.0,33.333332,,,,,,,,52.0,0.0,0.275392,-0.42675799999999997,0.49902299999999994,0.702148,0.878431,-0.46582700000000005,-0.141604,-0.045284,-0.056514999999999996,-0.024611,,,,,,,,,,,,,,,,,,,,,,,,,,,,,,,,,,,,,,,,,,,,,,,,,,,,,,,,,,,,,,,,,
8453,1650413575.381938,1650413575.41219,105.0,0.0,4323.077147999999,4634.871582,4226.153809,4281.538574,4289.230957,450.0,3.0,73.0,,,,0.0,4.0,0.0,4.0,0.0,4.0,33.333332,,,,,,,,,,,,,,,,,,,,1.0,0.0,0.0,,,,,,,,,,,,,,,,,,,,,,,,,,,,,,,,0.0,0.0,1.0,0.0,512.0,1.0,3.8782160000000006,0.53897,1.269868,2.613152,1.969139,4.426527,8.007750999999999,5.507243,10.768496,12.579936,1.7330919999999999,2.458278,2.3443970000000003,2.090691,1.8111110000000001,0.0009289999999999999,0.000352,0.0001,6.500000000000001e-05,1.1e-05,5.131176,1.236602,1.5696370000000002,2.993208,2.346939
8454,1650413575.3897529,1650413575.420005,106.0,0.0,4330.256348,4590.256348,4220.512695,4281.538574,4284.615234000001,450.0,3.0,73.0,,,,0.0,4.0,0.0,4.0,0.0,4.0,33.333332,,,,,,,,53.0,0.0,0.275392,-0.42675799999999997,0.49902299999999994,0.702148,0.881849,-0.46826899999999994,-0.144533,-0.044028,-0.056380999999999994,-0.022101,,,,,,,,,,,,,,,,,,,,,,,,,,,,,,,,,,,,,,,,,,,,,,,,,,,,,,,,,,,,,,,,,
8455,1650413575.397567,1650413575.4277189,107.0,0.0,4338.974121,4551.794922,4222.563965,4281.538574,4266.666504,16201.0,3.0,73.0,,,,0.0,4.0,0.0,4.0,0.0,4.0,33.333332,,,,,,,,,,,,,,,,,,,,,,,,,,,,,,,,,,,,,,,,,,,,,,,,,,,,,,,,,,,,,,,,,,,,,,,,,,,,,,,,,,,,
8456,1650413575.405382,1650413575.435534,108.0,0.0,4316.922852000001,4614.871582,4200.0,4281.538574,4246.153809,450.0,3.0,73.0,,,,0.0,4.0,0.0,4.0,0.0,4.0,33.333332,,,,,,,,54.0,0.0,0.27576999999999996,-0.42651400000000006,0.49902299999999994,0.702148,0.8803850000000001,-0.47363999999999995,-0.144533,-0.042799000000000004,-0.056309000000000005,-0.023162000000000002,,,,,,,,,,,,,,,,,,,,,,,,,,,,,,,,,,,,,,,,,,,,,,,,,,,,,,,,,,,,,,,,,
8457,1650413575.413196,1650413575.443249,109.0,0.0,4307.179688,4655.897461,4198.974121,4281.538574,4258.974121,450.0,3.0,73.0,,,,0.0,4.0,0.0,4.0,0.0,4.0,33.333332,,,,,,,,,,,,,,,,,,,,,,,,,,,,,,,,,,,,,,,,,,,,,,,,,,,,,,0.0,0.0,1.0,0.0,512.0,1.0,,,,,,,,,,,,,,,,,,,,,,,,,
8458,1650413575.421011,1650413575.4510632,110.0,0.0,4336.922852000001,4624.102539,4234.358886999999,4281.538574,4296.922852000001,450.0,3.0,73.0,,,,0.0,4.0,0.0,4.0,0.0,4.0,33.333332,,,,,,,,55.0,0.0,0.275328,-0.42651400000000006,0.49926800000000005,0.702148,0.886732,-0.482429,-0.140139,-0.043206,-0.056294000000000004,-0.024118,,,,,,,,,,,,,,,,,,,,,,,,,,,,,,,,,,,,,,,,,,,,,,,,,,,,,,,,,,,,,,,,,
8459,1650413575.428825,1650413575.458778,111.0,0.0,4351.794922,4631.794922,4235.897461,4281.538574,4301.025879,16201.0,3.0,73.0,,,,0.0,4.0,0.0,4.0,0.0,4.0,33.333332,,,,,,,,,,,,,,,,,,,,,,,,,,,,,,,,,,,,,,,,,,,,,,,,,,,,,,,,,,,,,,,,,,,,,,,,,,,,,,,,,,,,
8460,1650413575.43664,1650413575.466593,112.0,0.0,4339.487305,4660.512695,4203.077147999999,4281.538574,4271.282227000001,450.0,3.0,73.0,,,,0.0,4.0,0.0,4.0,0.0,4.0,33.333332,,,,,,,,56.0,0.0,0.27526300000000004,-0.42627,0.499512,0.702148,0.8872209999999999,-0.47657,-0.146975,-0.043573,-0.05628,-0.025075,,,,,,,,,,,,,,,,,,,,,,,,,,,,,,,,,,,,,,,,,,,,,,,,,,,,,,,,,,,,,,,,,
8461,1650413575.444454,1650413575.474407,113.0,0.0,4327.692383,4646.666504,4198.974121,4281.538574,4255.897461,450.0,3.0,73.0,,,,0.0,4.0,0.0,4.0,0.0,4.0,33.333332,,,,,,,,,,,,,,,,,,,,,,,,,,,,,,,,,,,,,,,,,,,,,,,,,,,,,,0.0,0.0,1.0,0.0,512.0,1.0,,,,,,,,,,,,,,,,,,,,,,,,,
8462,1650413575.4522688,1650413575.482222,114.0,0.0,4317.436035,4626.153809,4213.333496,4281.538574,4263.077147999999,450.0,3.0,73.0,,,,0.0,4.0,0.0,4.0,0.0,4.0,33.333332,,,,,,,,57.0,0.0,0.27526300000000004,-0.42627,0.499512,0.702148,0.895033,-0.477546,-0.144045,-0.043904,-0.056316,-0.02247,,,,,,,,,,,,,,,,,,,,,,,,,,,,,,,,,,,,,,,,,,,,,,,,,,,,,,,,,,,,,,,,,
8463,1650413575.460083,1650413575.490037,115.0,0.0,4313.846191,4594.871582,4210.256348,4281.538574,4261.025879,16201.0,3.0,73.0,,,,0.0,4.0,0.0,4.0,0.0,4.0,33.333332,,,,,,,,,,,,,,,,,,,,,,,,,,,,,,,,,,,,,,,,,,,,,,,,,,,,,,,,,,,,,,,,,,,,,,,,,,,,,,,,,,,,
8464,1650413575.4678981,1650413575.497851,116.0,0.0,4327.179688,4560.0,4210.256348,4281.538574,4244.102539,450.0,3.0,73.0,,,,0.0,4.0,0.0,4.0,0.0,4.0,33.333332,,,,,,,,58.0,0.0,0.275198,-0.426025,0.49975600000000003,0.702148,0.8691540000000001,-0.47071,-0.152834,-0.044152,-0.056299,-0.023494,,,,,,,,,,,,,,,,,,,,,,,,,,,,,,,,,,,,,,,,,,,,,,,,,,,,,,,,,,,,,,,,,
8465,1650413575.4757118,1650413575.505666,117.0,0.0,4329.230957,4595.897461,4220.512695,4281.538574,4254.871582,450.0,3.0,73.0,,,,0.0,4.0,0.0,4.0,0.0,4.0,33.333332,,,,,,,,,,,,,,,,,,,,,,,,,,,,,,,,,,,,,,,,,,,,,,,,,,,,,,0.0,0.0,1.0,0.0,512.0,1.0,,,,,,,,,,,,,,,,,,,,,,,,,
8466,1650413575.483527,1650413575.5134811,118.0,0.0,4307.179688,4642.05127,4214.358886999999,4281.538574,4272.820313,450.0,3.0,73.0,,,,0.0,4.0,0.0,4.0,0.0,4.0,33.333332,,,,,,,,59.0,0.0,0.27619699999999997,-0.425781,0.49975600000000003,0.701904,0.885267,-0.46826899999999994,-0.14111500000000002,-0.044424,-0.056285,-0.024513999999999998,,,,,,,,,,,,,,,,,,,,,,,,,,,,,,,,,,,,,,,,,,,,,,,,,,,,,,,,,,,,,,,,,
8467,1650413575.491341,1650413575.5212948,119.0,0.0,4302.563965,4642.563965,4200.0,4281.538574,4258.974121,16201.0,3.0,73.0,,,,0.0,4.0,0.0,4.0,0.0,4.0,33.333332,,,,,,,,,,,,,,,,,,,,,,,,,,,,,,,,,,,,,,,,,,,,,,,,,,,,,,,,,,,,,,,,,,,,,,,,,,,,,,,,,,,,
8468,1650413575.499156,1650413575.52911,120.0,0.0,4321.538574,4635.384765999999,4206.153809,4281.538574,4251.794922,450.0,3.0,73.0,,,,0.0,4.0,0.0,4.0,0.0,4.0,33.333332,,,,,,,,60.0,0.0,0.27581999999999995,-0.426025,0.49975600000000003,0.701904,0.8798959999999999,-0.457527,-0.14941600000000002,-0.044767,-0.056369,-0.025286000000000003,,,,,,,,,,,,,,,,,,,,,,,,,,,,,,,,,,,,,,,,,,,,,,,,,,,,,,,,,,,,,,,,,
8469,1650413575.50697,1650413575.536925,121.0,0.0,4329.743652,4599.487305,4216.922852000001,4281.538574,4268.205078,450.0,3.0,73.0,,,,0.0,4.0,0.0,4.0,0.0,4.0,33.333332,,,,,,,,,,,,,,,,,,,,1.0,0.0,0.0,,,,,,,,,,,,,,,,,,,,,,,,,,,,,,,,0.0,0.0,1.0,0.0,512.0,1.0,3.9956199999999997,0.583151,1.271363,2.378053,1.796702,4.119730000000001,8.421588,6.628806,11.706471,13.462366000000001,1.346234,2.426796,2.3908110000000002,2.243547,1.606558,0.002677,0.001039,0.000272,0.00018999999999999998,3.3e-05,5.894164,1.331497,1.688567,2.724999,2.204863
8470,1650413575.514785,1650413575.544739,122.0,0.0,4328.717772999999,4563.589844,4213.846191,4281.538574,4281.538574,450.0,3.0,73.0,,,,0.0,4.0,0.0,4.0,0.0,4.0,33.333332,,,,,,,,61.0,0.0,0.27581999999999995,-0.426025,0.49975600000000003,0.701904,0.8750129999999999,-0.46778100000000006,-0.134279,-0.045027,-0.056348,-0.022659000000000002,,,,,,,,,,,,,,,,,,,,,,,,,,,,,,,,,,,,,,,,,,,,,,,,,,,,,,,,,,,,,,,,,
8471,1650413575.522599,1650413575.552554,123.0,0.0,4329.230957,4604.615234000001,4208.717772999999,4281.538574,4279.487305,16201.0,3.0,73.0,,,,0.0,4.0,0.0,4.0,0.0,4.0,33.333332,,,,,,,,,,,,,,,,,,,,,,,,,,,,,,,,,,,,,,,,,,,,,,,,,,,,,,,,,,,,,,,,,,,,,,,,,,,,,,,,,,,,
8472,1650413575.530414,1650413575.560369,124.0,0.0,4330.769043,4627.179688,4215.384765999999,4281.538574,4269.743652,450.0,3.0,73.0,,,,0.0,4.0,0.0,4.0,0.0,4.0,33.333332,,,,,,,,62.0,0.0,0.27581999999999995,-0.426025,0.49975600000000003,0.701904,0.872084,-0.44971400000000006,-0.146975,-0.045212,-0.056426,-0.023714,,,,,,,,,,,,,,,,,,,,,,,,,,,,,,,,,,,,,,,,,,,,,,,,,,,,,,,,,,,,,,,,,
8473,1650413575.538228,1650413575.568283,125.0,0.0,4339.487305,4581.538574,4228.205078,4281.538574,4262.563965,450.0,3.0,73.0,,,,0.0,4.0,0.0,4.0,0.0,4.0,33.333332,,,,,,,,,,,,,,,,,,,,,,,,,,,,,,,,,,,,,,,,,,,,,,,,,,,,,,0.0,0.0,1.0,0.0,512.0,1.0,,,,,,,,,,,,,,,,,,,,,,,,,
8474,1650413575.546043,1650413575.576098,126.0,0.0,4338.461426,4579.487305,4223.077147999999,4281.538574,4263.077147999999,450.0,3.0,73.0,,,,0.0,4.0,0.0,4.0,0.0,4.0,33.333332,,,,,,,,63.0,0.0,0.27564099999999997,-0.426025,0.499512,0.702148,0.876967,-0.46582700000000005,-0.14551,-0.045476,-0.05635,-0.021294,,,,,,,,,,,,,,,,,,,,,,,,,,,,,,,,,,,,,,,,,,,,,,,,,,,,,,,,,,,,,,,,,
8475,1650413575.553857,1650413575.583913,127.0,0.0,4327.179688,4587.692383,4218.974121,4281.538574,4273.333496,238.0,3.0,73.0,,,,0.0,4.0,0.0,4.0,0.0,4.0,33.333332,,,,,,,,,,,,,,,,,,,,,,,,,,,,,,,,,,,,,,,,,,,,,,,,,,,,,,,,,,,,,,,,,,,,,,,,,,,,,,,,,,,,
8476,1650413575.561672,1650413575.591728,0.0,0.0,4330.256348,4569.743652,4229.230957,4281.538574,4283.589844,450.0,3.0,73.0,,,,0.0,4.0,0.0,4.0,0.0,4.0,33.333332,,,,,,,,0.0,0.0,0.27526300000000004,-0.42627,0.499512,0.702148,0.8730600000000001,-0.473152,-0.13379100000000002,-0.045567,-0.056379,-0.022338,,,,,,,,,,,,,,,,,,,,,,,,,,,,,,,,,,,,,,,,,,,,,,,,,,,,,,,,,,,,,,,,,
8477,1650413575.5694869,1650413575.599643,1.0,0.0,4332.820313,4580.512695,4228.717772999999,4281.538574,4272.820313,450.0,3.0,73.0,,,,0.0,4.0,0.0,4.0,0.0,4.0,33.333332,,,,,,,,,,,,,,,,,,,,,,,,,,,,,,,,,,,,,,,,,,,,,,,,,,,,,,0.0,0.0,1.0,0.0,512.0,1.0,,,,,,,,,,,,,,,,,,,,,,,,,
8478,1650413575.577301,1650413575.607558,2.0,0.0,4323.589844,4600.0,4222.05127,4281.538574,4254.358886999999,16218.0,3.0,73.0,,,,0.0,4.0,0.0,4.0,0.0,4.0,33.333332,,,,,,,,1.0,0.0,0.27526300000000004,-0.42627,0.499512,0.702148,0.8813610000000001,-0.484871,-0.135744,-0.045698,-0.056308000000000004,-0.026306,,,,,,,,,,,,,,,,,,,,,,,,,,,,,,,,,,,,,,,,,,,,,,,,,,,,,,,,,,,,,,,,,
8479,1650413575.585116,1650413575.6153722,3.0,0.0,4314.871582,4579.487305,4228.717772999999,4281.538574,4265.641113000001,450.0,3.0,73.0,,,,0.0,4.0,0.0,4.0,0.0,4.0,33.333332,,,,,,,,,,,,,,,,,,,,,,,,,,,,,,,,,,,,,,,,,,,,,,,,,,,,,,,,,,,,,,,,,,,,,,,,,,,,,,,,,,,,
8480,1650413575.59293,1650413575.6231868,4.0,0.0,4317.436035,4546.666504,4236.922852000001,4281.538574,4281.538574,0.0,3.0,73.0,,,,0.0,4.0,0.0,4.0,0.0,4.0,33.333332,,,,,,,,2.0,0.0,0.27508299999999997,-0.42627,0.49926800000000005,0.702393,0.8842909999999999,-0.47559300000000004,-0.139651,-0.045718,-0.056340999999999995,-0.026898000000000002,,,,,,,,,,,,,,,,,,,,,,,,,,,,,,,,,,,,,,,,,,,,,,,,,,,,,,,,,,,,,,,,,
8481,1650413575.600745,1650413575.6311018,5.0,0.0,4323.589844,4565.128418,4222.563965,4281.538574,4257.94873,450.0,3.0,73.0,,,,0.0,4.0,0.0,4.0,0.0,4.0,33.333332,,,,,,,,,,,,,,,,,,,,,,,,,,,,,,,,,,,,,,,,,,,,,,,,,,,,,,0.0,0.0,1.0,0.0,512.0,1.0,,,,,,,,,,,,,,,,,,,,,,,,,
8482,1650413575.608559,1650413575.639017,6.0,0.0,4312.307617,4574.358886999999,4202.563965,4281.538574,4232.820313,16074.0,3.0,73.0,,,,0.0,4.0,0.0,4.0,0.0,4.0,33.333332,,,,,,,,3.0,0.0,0.27508299999999997,-0.42627,0.49926800000000005,0.702393,0.893568,-0.47363999999999995,-0.143557,-0.044369,-0.056322000000000004,-0.027382,,,,,,,,,,,,,,,,,,,,,,,,,,,,,,,,,,,,,,,,,,,,,,,,,,,,,,,,,,,,,,,,,
8483,1650413575.616373,1650413575.646832,7.0,0.0,4294.358886999999,4508.205078,4200.0,4281.538574,4231.282227000001,450.0,3.0,73.0,,,,0.0,4.0,0.0,4.0,0.0,4.0,33.333332,,,,,,,,,,,,,,,,,,,,,,,,,,,,,,,,,,,,,,,,,,,,,,,,,,,,,,,,,,,,,,,,,,,,,,,,,,,,,,,,,,,,
8484,1650413575.6241882,1650413575.654747,8.0,0.0,4304.615234000001,4419.487305,4215.897461,4281.538574,4241.538574,450.0,3.0,73.0,,,,0.0,4.0,0.0,4.0,0.0,4.0,33.333332,,,,,,,,4.0,0.0,0.27552600000000005,-0.42627,0.49902299999999994,0.702393,0.882338,-0.467292,-0.136233,-0.044571,-0.056451999999999995,-0.028013,,,,,,,,,,,,,,,,,,,,,,,,,,,,,,,,,,,,,,,,,,,,,,,,,,,,,,,,,,,,,,,,,
8485,1650413575.6320019,1650413575.662561,9.0,0.0,4318.974121,4401.025879,4225.641113000001,4281.538574,4256.922852000001,0.0,3.0,73.0,,,,0.0,4.0,0.0,4.0,0.0,4.0,33.333332,1.0,33.333332,4.0,0.0,4.0,0.0,4.0,,,,,,,,,,,,,1.0,0.0,0.0,,,,,,,,,,,,,,,,,,,,,,,,,,,,,,,,0.0,0.0,1.0,0.0,512.0,1.0,3.8931480000000005,0.6736810000000001,1.219848,2.0544540000000002,1.627002,3.9110449999999997,8.234162,7.646329,12.457921,13.573909,1.143282,2.259086,2.320178,2.373304,1.385294,0.0055049999999999995,0.0021899999999999997,0.00056,0.000397,7.099999999999999e-05,6.470597,1.457259,1.721743,2.38029,2.076986
8486,1650413575.639817,1650413575.670476,10.0,0.0,4303.589844,4492.820313,4214.871582,4281.538574,4254.871582,450.0,3.0,73.0,,,,0.0,4.0,0.0,4.0,0.0,4.0,33.333332,,,,,,,,5.0,0.0,0.275706,-0.42627,0.49926800000000005,0.702148,0.862806,-0.488777,-0.132326,-0.044801,-0.056373,-0.022233000000000003,,,,,,,,,,,,,,,,,,,,,,,,,,,,,,,,,,,,,,,,,,,,,,,,,,,,,,,,,,,,,,,,,
8487,1650413575.6476321,1650413575.678291,11.0,0.0,4309.743652,4592.820313,4216.410156,4281.538574,4252.307617,16201.0,3.0,73.0,,,,0.0,4.0,0.0,4.0,0.0,4.0,33.333332,,,,,,,,,,,,,,,,,,,,,,,,,,,,,,,,,,,,,,,,,,,,,,,,,,,,,,,,,,,,,,,,,,,,,,,,,,,,,,,,,,,,
8488,1650413575.655446,1650413575.686206,12.0,0.0,4334.358886999999,4593.846191,4222.05127,4281.538574,4263.077147999999,450.0,3.0,73.0,,,,0.0,4.0,0.0,4.0,0.0,4.0,33.333332,,,,,,,,6.0,0.0,0.27608299999999997,-0.426025,0.49926800000000005,0.702148,0.89015,-0.47363999999999995,-0.145022,-0.045106,-0.056351,-0.023281,,,,,,,,,,,,,,,,,,,,,,,,,,,,,,,,,,,,,,,,,,,,,,,,,,,,,,,,,,,,,,,,,
8489,1650413575.663261,1650413575.694021,13.0,0.0,4329.743652,4587.179688,4215.897461,4281.538574,4265.641113000001,450.0,3.0,73.0,,,,0.0,4.0,0.0,4.0,0.0,4.0,33.333332,,,,,,,,,,,,,,,,,,,,,,,,,,,,,,,,,,,,,,,,,,,,,,,,,,,,,,0.0,0.0,1.0,0.0,512.0,1.0,,,,,,,,,,,,,,,,,,,,,,,,,
8490,1650413575.671075,1650413575.701936,14.0,0.0,4324.102539,4621.025879,4215.384765999999,4281.538574,4271.282227000001,450.0,3.0,73.0,,,,0.0,4.0,0.0,4.0,0.0,4.0,33.333332,,,,,,,,7.0,0.0,0.27564099999999997,-0.426025,0.499512,0.702148,0.885756,-0.474617,-0.147463,-0.045283,-0.056478,-0.024225,,,,,,,,,,,,,,,,,,,,,,,,,,,,,,,,,,,,,,,,,,,,,,,,,,,,,,,,,,,,,,,,,
8491,1650413575.67889,1650413575.70975,15.0,0.0,4329.230957,4585.641113000001,4216.410156,4281.538574,4272.307617,16201.0,3.0,73.0,,,,0.0,4.0,0.0,4.0,0.0,4.0,33.333332,,,,,,,,,,,,,,,,,,,,,,,,,,,,,,,,,,,,,,,,,,,,,,,,,,,,,,,,,,,,,,,,,,,,,,,,,,,,,,,,,,,,
8492,1650413575.686704,1650413575.717665,16.0,0.0,4338.974121,4560.512695,4217.436035,4281.538574,4271.282227000001,0.0,3.0,73.0,,,,0.0,4.0,0.0,4.0,0.0,4.0,33.333332,,,,,,,,8.0,0.0,0.276018,-0.425781,0.499512,0.702148,0.8886850000000001,-0.464851,-0.140139,-0.04554,-0.056494,-0.025025,,,,,,,,,,,,,,,,,,,,,,,,,,,,,,,,,,,,,,,,,,,,,,,,,,,,,,,,,,,,,,,,,
8493,1650413575.694519,1650413575.72548,17.0,0.0,4350.256348,4621.025879,4228.717772999999,4281.538574,4284.615234000001,0.0,3.0,73.0,,,,0.0,4.0,0.0,4.0,0.0,4.0,33.333332,,,,,,,,,,,,,,,,,,,,,,,,,,,,,,,,,,,,,,,,,,,,,,,,,,,,,,0.0,0.0,1.0,0.0,512.0,1.0,,,,,,,,,,,,,,,,,,,,,,,,,
8494,1650413575.702333,1650413575.7333949,18.0,0.0,4354.358886999999,4611.282227000001,4242.05127,4281.538574,4296.922852000001,0.0,3.0,73.0,,,,0.0,4.0,0.0,4.0,0.0,4.0,33.333332,,,,,,,,9.0,0.0,0.27557600000000004,-0.425781,0.49975600000000003,0.702148,0.8921030000000001,-0.47071,-0.135256,-0.045674,-0.05646,-0.025745,,,,,,,,,,,,,,,,,,,,,,,,,,,,,,,,,,,,,,,,,,,,,,,,,,,,,,,,,,,,,,,,,
8495,1650413575.710148,1650413575.74121,19.0,0.0,4344.102539,4566.153809,4232.307617,4281.538574,4288.205078,0.0,3.0,73.0,,,,0.0,4.0,0.0,4.0,0.0,4.0,33.333332,,,,,,,,,,,,,,,,,,,,,,,,,,,,,,,,,,,,,,,,,,,,,,,,,,,,,,,,,,,,,,,,,,,,,,,,,,,,,,,,,,,,
8496,1650413575.717962,1650413575.749025,20.0,0.0,4338.974121,4620.0,4220.0,4281.538574,4289.743652,0.0,3.0,73.0,,,,0.0,4.0,0.0,4.0,0.0,4.0,33.333332,,,,,,,,10.0,0.0,0.27564099999999997,-0.426025,0.499512,0.702148,0.885756,-0.474617,-0.147463,-0.045892,-0.056527,-0.023122,,,,,,,,,,,,,,,,,,,,,,,,,,,,,,,,,,,,,,,,,,,,,,,,,,,,,,,,,,,,,,,,,
8497,1650413575.725777,1650413575.7569392,21.0,0.0,4336.410156,4653.846191,4223.077147999999,4281.538574,4286.666504,0.0,3.0,73.0,,,,0.0,4.0,0.0,4.0,0.0,4.0,33.333332,,,,,,,,,,,,,,,,,,,,,,,,,,,,,,,,,,,,,,,,,,,,,,,,,,,,,,0.0,0.0,1.0,0.0,512.0,1.0,,,,,,,,,,,,,,,,,,,,,,,,,
8498,1650413575.733591,1650413575.7647538,22.0,0.0,4311.282227000001,4609.743652,4211.794922,4281.538574,4250.256348,0.0,3.0,73.0,,,,0.0,4.0,0.0,4.0,0.0,4.0,33.333332,,,,,,,,11.0,0.0,0.27557600000000004,-0.425781,0.49975600000000003,0.702148,0.8921030000000001,-0.47071,-0.135256,-0.045989999999999996,-0.05649,-0.024031999999999998,,,,,,,,,,,,,,,,,,,,,,,,,,,,,,,,,,,,,,,,,,,,,,,,,,,,,,,,,,,,,,,,,
8499,1650413575.741406,1650413575.772569,23.0,0.0,4306.153809,4572.307617,4200.0,4281.538574,4246.153809,0.0,3.0,73.0,,,,0.0,4.0,0.0,4.0,0.0,4.0,33.333332,,,,,,,,,,,,,,,,,,,,,,,,,,,,,,,,,,,,,,,,,,,,,,,,,,,,,,,,,,,,,,,,,,,,,,,,,,,,,,,,,,,,
8500,1650413575.74922,1650413575.780483,24.0,0.0,4345.641113000001,4600.512695,4220.0,4281.538574,4285.128418,0.0,3.0,73.0,,,,0.0,4.0,0.0,4.0,0.0,4.0,33.333332,,,,,,,,12.0,0.0,0.275953,-0.425537,0.49975600000000003,0.702148,0.876967,-0.475105,-0.138186,-0.044565,-0.056603,-0.024949000000000002,,,,,,,,,,,,,,,,,,,,,,,,,,,,,,,,,,,,,,,,,,,,,,,,,,,,,,,,,,,,,,,,,
8501,1650413575.757035,1650413575.788398,25.0,0.0,4371.794922,4647.692383,4241.025879,4281.538574,4304.102539,0.0,3.0,73.0,,,,0.0,4.0,0.0,4.0,0.0,4.0,33.333332,,,,,,,,,,,,,,,,,,,,1.0,0.0,0.0,,,,,,,,,,,,,,,,,,,,,,,,,,,,,,,,0.0,0.0,1.0,0.0,512.0,1.0,3.619595,0.799258,1.142244,1.722388,1.480769,3.753346,7.3680520000000005,8.511747,13.018441000000001,12.748705000000001,1.1231,1.976994,2.144809,2.459803,1.1995129999999998,0.009035,0.0036340000000000005,0.0009310000000000001,0.000654,0.00011899999999999999,6.709898,1.554715,1.663686,2.082391,1.988317
8502,1650413575.764849,1650413575.7962132,26.0,0.0,4341.025879,4625.128418,4216.410156,4281.538574,4279.487305,0.0,3.0,73.0,,,,0.0,4.0,0.0,4.0,0.0,4.0,33.333332,,,,,,,,13.0,0.0,0.275953,-0.425537,0.49975600000000003,0.702148,0.874525,-0.47803500000000004,-0.135256,-0.044893999999999996,-0.056558000000000004,-0.025824,,,,,,,,,,,,,,,,,,,,,,,,,,,,,,,,,,,,,,,,,,,,,,,,,,,,,,,,,,,,,,,,,
8503,1650413575.772664,1650413575.804128,27.0,0.0,4324.102539,4630.769043,4203.077147999999,4281.025879,4272.307617,0.0,3.0,73.0,,,,0.0,4.0,0.0,4.0,0.0,4.0,33.333332,,,,,,,,,,,,,,,,,,,,,,,,,,,,,,,,,,,,,,,,,,,,,,,,,,,,,,,,,,,,,,,,,,,,,,,,,,,,,,,,,,,,
8504,1650413575.780478,1650413575.811943,28.0,0.0,4375.384765999999,4708.205078,4229.230957,4281.538574,4329.743652,0.0,3.0,73.0,,,,0.0,4.0,0.0,4.0,0.0,4.0,33.333332,,,,,,,,14.0,0.0,0.275953,-0.425537,0.49975600000000003,0.702148,0.8730600000000001,-0.462409,-0.134768,-0.045141,-0.056566,-0.020263,,,,,,,,,,,,,,,,,,,,,,,,,,,,,,,,,,,,,,,,,,,,,,,,,,,,,,,,,,,,,,,,,
8505,1650413575.788293,1650413575.819758,29.0,0.0,4413.846191,4716.410156,4220.512695,4281.538574,4365.128418,0.0,3.0,73.0,,,,0.0,4.0,0.0,4.0,0.0,4.0,33.333332,,,,,,,,,,,,,,,,,,,,,,,,,,,,,,,,,,,,,,,,,,,,,,,,,,,,,,0.0,0.0,1.0,0.0,512.0,1.0,,,,,,,,,,,,,,,,,,,,,,,,,
8506,1650413575.796107,1650413575.827672,30.0,0.0,4430.256348,4625.128418,4195.384765999999,4280.512695,4354.358886999999,0.0,3.0,73.0,,,,0.0,4.0,0.0,4.0,0.0,4.0,33.333332,,,,,,,,15.0,0.0,0.275708,-0.42529300000000003,0.49975600000000003,0.702393,0.866712,-0.468757,-0.140139,-0.045412,-0.056574,-0.021508000000000003,,,,,,,,,,,,,,,,,,,,,,,,,,,,,,,,,,,,,,,,,,,,,,,,,,,,,,,,,,,,,,,,,
8507,1650413575.8039222,1650413575.835487,31.0,0.0,4519.487305,4580.512695,4218.461426,4282.563965,4429.743652,0.0,3.0,73.0,,,,0.0,4.0,0.0,4.0,0.0,4.0,33.333332,,,,,,,,,,,,,,,,,,,,,,,,,,,,,,,,,,,,,,,,,,,,,,,,,,,,,,,,,,,,,,,,,,,,,,,,,,,,,,,,,,,,
8508,1650413575.8117359,1650413575.843402,32.0,0.0,4668.205078,4602.563965,4245.641113000001,4286.666504,4590.256348,0.0,3.0,73.0,,,,0.0,4.0,0.0,4.0,0.0,4.0,33.333332,,,,,,,,16.0,0.0,0.275708,-0.42529300000000003,0.49975600000000003,0.702393,0.869642,-0.474617,-0.139651,-0.045656,-0.056531,-0.022726,,,,,,,,,,,,,,,,,,,,,,,,,,,,,,,,,,,,,,,,,,,,,,,,,,,,,,,,,,,,,,,,,
8509,1650413575.819551,1650413575.851217,33.0,0.0,4765.128418,4586.666504,4231.282227000001,4287.179688,4672.820313,0.0,3.0,73.0,,,,0.0,4.0,0.0,4.0,0.0,4.0,33.333332,,,,,,,,,,,,,,,,,,,,,,,,,,,,,,,,,,,,,,,,,,,,,,,,,,,,,,0.0,0.0,1.0,0.0,512.0,1.0,,,,,,,,,,,,,,,,,,,,,,,,,
8510,1650413575.827366,1650413575.859132,34.0,0.0,4827.179688,4581.025879,4232.307617,4287.179688,4702.563965,0.0,3.0,73.0,,,,0.0,4.0,0.0,4.0,0.0,4.0,33.333332,,,,,,,,17.0,0.0,0.275708,-0.42529300000000003,0.49975600000000003,0.702393,0.8774549999999999,-0.472663,-0.138186,-0.045729,-0.056494,-0.023628,,,,,,,,,,,,,,,,,,,,,,,,,,,,,,,,,,,,,,,,,,,,,,,,,,,,,,,,,,,,,,,,,
8511,1650413575.83518,1650413575.8669472,35.0,0.0,4914.871582,4636.922852000001,4255.384765999999,4291.794922,4778.461426,0.0,3.0,73.0,,,,0.0,4.0,0.0,4.0,0.0,4.0,33.333332,,,,,,,,,,,,,,,,,,,,,,,,,,,,,,,,,,,,,,,,,,,,,,,,,,,,,,,,,,,,,,,,,,,,,,,,,,,,,,,,,,,,
8512,1650413575.842995,1650413575.874861,36.0,0.0,4983.589844,4703.077147999999,4253.333496,4296.922852000001,4820.512695,0.0,3.0,73.0,,,,0.0,4.0,0.0,4.0,0.0,4.0,33.333332,,,,,,,,18.0,0.0,0.275528,-0.42529300000000003,0.499512,0.702637,0.882338,-0.480476,-0.14941600000000002,-0.045941,-0.056557,-0.024439,,,,,,,,,,,,,,,,,,,,,,,,,,,,,,,,,,,,,,,,,,,,,,,,,,,,,,,,,,,,,,,,,
8513,1650413575.850809,1650413575.882776,37.0,0.0,4986.666504,4674.871582,4242.05127,4296.922852000001,4797.94873,0.0,3.0,73.0,,,,0.0,4.0,0.0,4.0,0.0,4.0,33.333332,,,,,,,,,,,,,,,,,,,,,,,,,,,,,,,,,,,,,,,,,,,,,,,,,,,,,,0.0,0.0,1.0,0.0,512.0,1.0,,,,,,,,,,,,,,,,,,,,,,,,,
8514,1650413575.858624,1650413575.890591,38.0,0.0,4980.512695,4590.769043,4251.282227000001,4296.410156,4803.589844,0.0,3.0,73.0,,,,0.0,4.0,0.0,4.0,0.0,4.0,33.333332,,,,,,,,19.0,0.0,0.275528,-0.42529300000000003,0.499512,0.702637,0.885756,-0.48096400000000006,-0.14111500000000002,-0.044521,-0.056663,-0.025218,,,,,,,,,,,,,,,,,,,,,,,,,,,,,,,,,,,,,,,,,,,,,,,,,,,,,,,,,,,,,,,,,
8515,1650413575.8664382,1650413575.8985062,39.0,0.0,5003.077147999999,4594.358886999999,4251.282227000001,4296.922852000001,4822.05127,0.0,3.0,73.0,,,,0.0,4.0,0.0,4.0,0.0,4.0,33.333332,,,,,,,,,,,,,,,,,,,,,,,,,,,,,,,,,,,,,,,,,,,,,,,,,,,,,,,,,,,,,,,,,,,,,,,,,,,,,,,,,,,,
8516,1650413575.8742518,1650413575.906321,40.0,0.0,5003.589844,4644.102539,4229.230957,4297.436035,4801.538574,0.0,3.0,73.0,,,,0.0,4.0,0.0,4.0,0.0,4.0,33.333332,,,,,,,,20.0,0.0,0.275528,-0.42529300000000003,0.499512,0.702637,0.882826,-0.47901099999999996,-0.143069,-0.044708,-0.056612,-0.025869999999999997,,,,,,,,,,,,,,,,,,,,,,,,,,,,,,,,,,,,,,,,,,,,,,,,,,,,,,,,,,,,,,,,,
8517,1650413575.882067,1650413575.9142349,41.0,0.0,4997.436035,4635.897461,4240.0,4297.436035,4801.538574,0.0,3.0,73.0,,,,0.0,4.0,0.0,4.0,0.0,4.0,33.333332,,,,,,,,,,,,,,,,,,,,1.0,0.0,0.0,,,,,,,,,,,,,,,,,,,,,,,,,,,,,,,,0.0,0.0,1.0,0.0,512.0,0.509963,3.249454,0.921924,1.060324,1.44116,1.3629930000000001,3.5972989999999996,6.1575,9.366429,13.612357999999999,11.186345,1.225808,1.621408,1.8878169999999999,2.480336,1.078087,0.012277,0.004985,0.001297,0.000895,0.000165,6.544631,1.516218,1.553215,1.905643,1.94776
8518,1650413575.8898811,1650413575.92205,42.0,0.0,5008.717772999999,4597.94873,4255.384765999999,4296.922852000001,4811.794922,0.0,3.0,73.0,,,,0.0,4.0,0.0,4.0,0.0,4.0,33.333332,,,,,,,,21.0,0.0,0.275528,-0.42529300000000003,0.499512,0.702637,0.885756,-0.47363999999999995,-0.13379100000000002,-0.044973,-0.056664,-0.026505,,,,,,,,,,,,,,,,,,,,,,,,,,,,,,,,,,,,,,,,,,,,,,,,,,,,,,,,,,,,,,,,,
8519,1650413575.897696,1650413575.929965,43.0,0.0,5008.205078,4610.256348,4238.974121,4296.922852000001,4792.820313,0.0,3.0,73.0,,,,0.0,4.0,0.0,4.0,0.0,4.0,33.333332,,,,,,,,,,,,,,,,,,,,,,,,,,,,,,,,,,,,,,,,,,,,,,,,,,,,,,,,,,,,,,,,,,,,,,,,,,,,,,,,,,,,
8520,1650413575.905511,1650413575.9377801,44.0,0.0,5018.461426,4648.205078,4244.102539,4297.436035,4803.077147999999,0.0,3.0,73.0,,,,0.0,4.0,0.0,4.0,0.0,4.0,33.333332,,,,,,,,22.0,0.0,0.27615,-0.42529300000000003,0.499512,0.702393,0.8886850000000001,-0.46924499999999997,-0.13916199999999998,-0.04531,-0.056759000000000004,-0.020925,,,,,,,,,,,,,,,,,,,,,,,,,,,,,,,,,,,,,,,,,,,,,,,,,,,,,,,,,,,,,,,,,
8521,1650413575.913325,1650413575.945695,45.0,0.0,5040.0,4632.820313,4271.282227000001,4297.436035,4836.410156,0.0,3.0,73.0,,,,0.0,4.0,0.0,4.0,0.0,4.0,33.333332,,,,,,,,,,,,,,,,,,,,,,,,,,,,,,,,,,,,,,,,,,,,,,,,,,,,,,0.0,0.0,1.0,0.0,512.0,0.509963,,,,,,,,,,,,,,,,,,,,,,,,,
8522,1650413575.92114,1650413575.95351,46.0,0.0,5027.692383,4610.256348,4262.05127,4296.922852000001,4825.128418,0.0,3.0,73.0,,,,0.0,4.0,0.0,4.0,0.0,4.0,33.333332,,,,,,,,23.0,0.0,0.27615,-0.42529300000000003,0.499512,0.702393,0.881849,-0.47901099999999996,-0.139651,-0.045467,-0.05665,-0.015903,,,,,,,,,,,,,,,,,,,,,,,,,,,,,,,,,,,,,,,,,,,,,,,,,,,,,,,,,,,,,,,,,
8523,1650413575.928954,1650413575.961424,47.0,0.0,5008.717772999999,4654.358886999999,4233.333496,4297.436035,4802.05127,0.0,3.0,73.0,,,,0.0,4.0,0.0,4.0,0.0,4.0,33.333332,,,,,,,,,,,,,,,,,,,,,,,,,,,,,,,,,,,,,,,,,,,,,,,,,,,,,,,,,,,,,,,,,,,,,,,,,,,,,,,,,,,,
8524,1650413575.936769,1650413575.969239,48.0,0.0,5034.358886999999,4674.358886999999,4250.256348,4297.436035,4816.410156,0.0,3.0,73.0,,,,0.0,4.0,0.0,4.0,0.0,4.0,33.333332,,,,,,,,24.0,0.0,0.27597,-0.42529300000000003,0.49926800000000005,0.702637,0.863294,-0.474128,-0.14111500000000002,-0.045656,-0.056454,-0.014215,,,,,,,,,,,,,,,,,,,,,,,,,,,,,,,,,,,,,,,,,,,,,,,,,,,,,,,,,,,,,,,,,
8525,1650413575.944583,1650413575.977154,49.0,0.0,5029.743652,4643.589844,4281.538574,4297.436035,4826.153809,0.0,3.0,73.0,,,,0.0,4.0,0.0,4.0,0.0,4.0,33.333332,,,,,,,,,,,,,,,,,,,,,,,,,,,,,,,,,,,,,,,,,,,,,,,,,,,,,,0.0,0.0,1.0,0.0,512.0,0.509963,,,,,,,,,,,,,,,,,,,,,,,,,
8526,1650413575.952398,1650413575.984969,50.0,0.0,4983.077147999999,4669.230957,4262.05127,4296.922852000001,4806.666504,0.0,3.0,73.0,,,,0.0,4.0,0.0,4.0,0.0,4.0,33.333332,,,,,,,,25.0,0.0,0.276035,-0.425537,0.49902299999999994,0.702637,0.893568,-0.473152,-0.148928,-0.045729,-0.056521,-0.016065,,,,,,,,,,,,,,,,,,,,,,,,,,,,,,,,,,,,,,,,,,,,,,,,,,,,,,,,,,,,,,,,,
8527,1650413575.960212,1650413575.992884,51.0,0.0,4982.563965,4686.666504,4232.820313,4296.922852000001,4795.897461,0.0,3.0,73.0,,,,0.0,4.0,0.0,4.0,0.0,4.0,33.333332,,,,,,,,,,,,,,,,,,,,,,,,,,,,,,,,,,,,,,,,,,,,,,,,,,,,,,,,,,,,,,,,,,,,,,,,,,,,,,,,,,,,
8528,1650413575.9680269,1650413576.000699,52.0,0.0,4988.205078,4591.282227000001,4250.256348,4297.436035,4792.307617,0.0,3.0,73.0,,,,0.0,4.0,0.0,4.0,0.0,4.0,33.333332,,,,,,,,26.0,0.0,0.276035,-0.425537,0.49902299999999994,0.702637,0.892592,-0.467292,-0.151858,-0.045844,-0.05653300000000001,-0.014263,,,,,,,,,,,,,,,,,,,,,,,,,,,,,,,,,,,,,,,,,,,,,,,,,,,,,,,,,,,,,,,,,
8529,1650413575.975841,1650413576.008613,53.0,0.0,4947.692383,4547.179688,4267.692383,4296.922852000001,4769.743652,0.0,3.0,73.0,,,,0.0,4.0,0.0,4.0,0.0,4.0,33.333332,,,,,,,,,,,,,,,,,,,,,,,,,,,,,,,,,,,,,,,,,,,,,,,,,,,,,,0.0,0.0,1.0,0.0,512.0,0.509963,,,,,,,,,,,,,,,,,,,,,,,,,
8530,1650413575.9836562,1650413576.016428,54.0,0.0,4930.769043,4636.922852000001,4249.230957,4295.897461,4748.717772999999,0.0,3.0,73.0,,,,0.0,4.0,0.0,4.0,0.0,4.0,33.333332,,,,,,,,27.0,0.0,0.277096,-0.425537,0.498779,0.702393,0.889174,-0.464363,-0.15674100000000002,-0.045947,-0.056642,-0.012739,,,,,,,,,,,,,,,,,,,,,,,,,,,,,,,,,,,,,,,,,,,,,,,,,,,,,,,,,,,,,,,,,
8531,1650413575.9914699,1650413576.024343,55.0,0.0,4962.05127,4651.282227000001,4257.436035,4297.436035,4768.205078,0.0,3.0,73.0,,,,0.0,4.0,0.0,4.0,0.0,4.0,33.333332,,,,,,,,,,,,,,,,,,,,,,,,,,,,,,,,,,,,,,,,,,,,,,,,,,,,,,,,,,,,,,,,,,,,,,,,,,,,,,,,,,,,
8532,1650413575.999285,1650413576.032258,56.0,0.0,4964.102539,4620.0,4285.128418,4298.461426,4795.384765999999,0.0,3.0,73.0,,,,0.0,4.0,0.0,4.0,0.0,4.0,33.333332,,,,,,,,28.0,0.0,0.277096,-0.425537,0.498779,0.702393,0.894545,-0.47657,-0.14844000000000002,-0.04604,-0.05674,-0.014639,,,,,,,,,,,,,,,,,,,,,,,,,,,,,,,,,,,,,,,,,,,,,,,,,,,,,,,,,,,,,,,,,
8533,1650413576.007099,1650413576.0400732,57.0,0.0,4925.128418,4662.563965,4275.384765999999,4297.94873,4770.256348,0.0,3.0,73.0,,,,0.0,4.0,0.0,4.0,0.0,4.0,33.333332,,,,,,,,,,,,,,,,,,,,1.0,0.0,0.0,,,,,,,,,,,,,,,,,,,,,,,,,,,,,,,,0.0,0.0,1.0,0.0,512.0,0.44627799999999995,4.307691999999999,1.079511,1.064243,1.245917,1.279044,3.8450580000000003,5.465832,10.38804,14.545957999999999,9.376174,1.347122,1.265582,1.5935469999999998,2.422798,1.0216120000000002,0.015038999999999999,0.00606,0.00162,0.001046,0.00022,7.088972999999999,1.3845120000000002,1.51684,1.8637240000000002,1.954955
8534,1650413576.014914,1650413576.0479882,58.0,0.0,4898.461426,4699.487305,4242.563965,4296.922852000001,4721.025879,0.0,3.0,73.0,,,,0.0,4.0,0.0,4.0,0.0,4.0,33.333332,,,,,,,,29.0,0.0,0.277096,-0.425537,0.498779,0.702393,0.885267,-0.47071,-0.135744,-0.046075,-0.056729999999999996,-0.019377000000000002,,,,,,,,,,,,,,,,,,,,,,,,,,,,,,,,,,,,,,,,,,,,,,,,,,,,,,,,,,,,,,,,,
8535,1650413576.022728,1650413576.0558019,59.0,0.0,4895.384765999999,4665.641113000001,4230.256348,4296.922852000001,4716.922852000001,0.0,3.0,73.0,,,,0.0,4.0,0.0,4.0,0.0,4.0,33.333332,,,,,,,,,,,,,,,,,,,,,,,,,,,,,,,,,,,,,,,,,,,,,,,,,,,,,,,,,,,,,,,,,,,,,,,,,,,,,,,,,,,,
8536,1650413576.0305429,1650413576.063717,60.0,0.0,4878.461426,4588.717772999999,4253.333496,4295.897461,4734.358886999999,0.0,3.0,73.0,,,,0.0,4.0,0.0,4.0,0.0,4.0,33.333332,,,,,,,,30.0,0.0,0.277096,-0.425537,0.498779,0.702393,0.8764780000000001,-0.458991,-0.137209,-0.046155,-0.05677000000000001,-0.02071,,,,,,,,,,,,,,,,,,,,,,,,,,,,,,,,,,,,,,,,,,,,,,,,,,,,,,,,,,,,,,,,,
8537,1650413576.038357,1650413576.071532,61.0,0.0,4832.307617,4563.589844,4274.358886999999,4296.410156,4711.282227000001,0.0,3.0,73.0,,,,0.0,4.0,0.0,4.0,0.0,4.0,33.333332,,,,,,,,,,,,,,,,,,,,,,,,,,,,,,,,,,,,,,,,,,,,,,,,,,,,,,0.0,0.0,1.0,0.0,512.0,0.44627799999999995,,,,,,,,,,,,,,,,,,,,,,,,,
8538,1650413576.0461721,1650413576.079447,62.0,0.0,4805.128418,4593.846191,4262.05127,4295.384765999999,4689.743652,0.0,3.0,73.0,,,,0.0,4.0,0.0,4.0,0.0,4.0,33.333332,,,,,,,,31.0,0.0,0.277535,-0.425537,0.49853500000000006,0.702393,0.887709,-0.472175,-0.134279,-0.046227,-0.056708,-0.021911,,,,,,,,,,,,,,,,,,,,,,,,,,,,,,,,,,,,,,,,,,,,,,,,,,,,,,,,,,,,,,,,,
8539,1650413576.0539858,1650413576.087262,63.0,0.0,4809.230957,4586.666504,4255.384765999999,4290.769043,4695.384765999999,0.0,3.0,73.0,,,,0.0,4.0,0.0,4.0,0.0,4.0,33.333332,,,,,,,,,,,,,,,,,,,,,,,,,,,,,,,,,,,,,,,,,,,,,,,,,,,,,,,,,,,,,,,,,,,,,,,,,,,,,,,,,,,,
8540,1650413576.061801,1650413576.095177,64.0,0.0,4790.769043,4562.05127,4281.538574,4289.230957,4676.410156,450.0,3.0,73.0,,,,0.0,4.0,0.0,4.0,0.0,4.0,33.333332,,,,,,,,32.0,0.0,0.277291,-0.42529300000000003,0.49853500000000006,0.702637,0.8833139999999999,-0.462898,-0.14551,-0.044827,-0.05675,-0.02304,,,,,,,,,,,,,,,,,,,,,,,,,,,,,,,,,,,,,,,,,,,,,,,,,,,,,,,,,,,,,,,,,
8541,1650413576.0696151,1650413576.102991,65.0,0.0,4731.794922,4619.487305,4284.102539,4292.820313,4631.282227000001,450.0,3.0,73.0,,,,0.0,4.0,0.0,4.0,0.0,4.0,33.333332,,,,,,,,,,,,,,,,,,,,,,,,,,,,,,,,,,,,,,,,,,,,,,,,,,,,,,0.0,0.0,1.0,0.0,512.0,0.44627799999999995,,,,,,,,,,,,,,,,,,,,,,,,,
8542,1650413576.07743,1650413576.1109061,66.0,0.0,4668.205078,4656.922852000001,4250.256348,4292.307617,4596.922852000001,16180.0,3.0,73.0,,,,0.0,4.0,0.0,4.0,0.0,4.0,33.333332,,,,,,,,33.0,0.0,0.277729,-0.42529300000000003,0.498291,0.702637,0.8886850000000001,-0.462409,-0.132326,-0.04513,-0.056739,-0.020541,,,,,,,,,,,,,,,,,,,,,,,,,,,,,,,,,,,,,,,,,,,,,,,,,,,,,,,,,,,,,,,,,
8543,1650413576.085245,1650413576.118721,67.0,0.0,4607.692383,4582.563965,4251.794922,4288.205078,4573.846191,450.0,3.0,73.0,,,,0.0,4.0,0.0,4.0,0.0,4.0,33.333332,,,,,,,,,,,,,,,,,,,,,,,,,,,,,,,,,,,,,,,,,,,,,,,,,,,,,,,,,,,,,,,,,,,,,,,,,,,,,,,,,,,,
8544,1650413576.093059,1650413576.126636,68.0,0.0,4544.102539,4562.05127,4267.179688,4287.179688,4534.871582,16.0,3.0,73.0,,,,0.0,4.0,0.0,4.0,0.0,4.0,33.333332,,,,,,,,34.0,0.0,0.277729,-0.42529300000000003,0.498291,0.702637,0.885756,-0.461921,-0.144533,-0.045353,-0.056680999999999995,-0.021709,,,,,,,,,,,,,,,,,,,,,,,,,,,,,,,,,,,,,,,,,,,,,,,,,,,,,,,,,,,,,,,,,
8545,1650413576.100874,1650413576.134451,69.0,0.0,4495.897461,4653.846191,4243.589844,4287.692383,4469.230957,450.0,3.0,73.0,,,,0.0,4.0,0.0,4.0,0.0,4.0,33.333332,,,,,,,,,,,,,,,,,,,,,,,,,,,,,,,,,,,,,,,,,,,,,,,,,,,,,,0.0,0.0,1.0,0.0,512.0,0.44627799999999995,,,,,,,,,,,,,,,,,,,,,,,,,
8546,1650413576.108688,1650413576.142366,70.0,0.0,4467.692383,4688.717772999999,4229.743652,4286.666504,4420.512695,16137.0,3.0,73.0,,,,0.0,4.0,0.0,4.0,0.0,4.0,33.333332,,,,,,,,35.0,0.0,0.277729,-0.42529300000000003,0.498291,0.702637,0.8847790000000001,-0.484382,-0.142092,-0.045554000000000004,-0.056677,-0.016609,,,,,,,,,,,,,,,,,,,,,,,,,,,,,,,,,,,,,,,,,,,,,,,,,,,,,,,,,,,,,,,,,
8547,1650413576.116502,1650413576.15018,71.0,0.0,4421.025879,4607.179688,4229.230957,4287.692383,4395.384765999999,450.0,3.0,73.0,,,,0.0,4.0,0.0,4.0,0.0,4.0,33.333332,,,,,,,,,,,,,,,,,,,,,,,,,,,,,,,,,,,,,,,,,,,,,,,,,,,,,,,,,,,,,,,,,,,,,,,,,,,,,,,,,,,,
8548,1650413576.124317,1650413576.158095,72.0,0.0,4357.94873,4542.563965,4213.333496,4286.666504,4359.487305,450.0,3.0,73.0,,,,0.0,4.0,0.0,4.0,0.0,4.0,33.333332,,,,,,,,36.0,0.0,0.277729,-0.42529300000000003,0.498291,0.702637,0.8989389999999999,-0.464851,-0.14941600000000002,-0.045637,-0.056722,-0.011872,,,,,,,,,,,,,,,,,,,,,,,,,,,,,,,,,,,,,,,,,,,,,,,,,,,,,,,,,,,,,,,,,
8549,1650413576.132131,1650413576.16591,73.0,0.0,4336.410156,4582.05127,4225.641113000001,4282.563965,4333.333496,0.0,3.0,73.0,,,,0.0,4.0,0.0,4.0,0.0,4.0,33.333332,1.0,25.0,3.0,0.0,4.0,0.0,3.0,,,,,,,,,,,,,1.0,0.0,0.0,,,,,,,,,,,,,,,,,,,,,,,,,,,,,,,,0.0,0.0,64.0,1.0,1.0,0.0,13.254102,2.0891,1.376978,1.152951,1.2462790000000001,5.009386,6.220104,11.689304,15.895514000000002,7.871874000000001,1.4300549999999999,0.972195,1.303898,2.283168,1.01366,0.019793,0.007370999999999999,0.001957,0.001086,0.00036899999999999997,12.731133999999999,1.945483,1.7374560000000001,1.942941,2.0129509999999997
8550,1650413576.139946,1650413576.173825,74.0,0.0,4327.179688,4628.205078,4242.05127,4282.05127,4316.922852000001,450.0,3.0,73.0,,,,0.0,4.0,0.0,4.0,0.0,4.0,33.333332,,,,,,,,37.0,0.0,0.27810300000000004,-0.42504899999999995,0.498291,0.702637,0.8916149999999999,-0.46533900000000006,-0.15820599999999999,-0.045712,-0.056763,-0.010587000000000001,,,,,,,,,,,,,,,,,,,,,,,,,,,,,,,,,,,,,,,,,,,,,,,,,,,,,,,,,,,,,,,,,
8551,1650413576.1477609,1650413576.1816401,75.0,0.0,4283.077147999999,4599.487305,4222.05127,4282.563965,4273.333496,16211.0,3.0,73.0,,,,0.0,4.0,0.0,4.0,0.0,4.0,33.333332,,,,,,,,,,,,,,,,,,,,,,,,,,,,,,,,,,,,,,,,,,,,,,,,,,,,,,,,,,,,,,,,,,,,,,,,,,,,,,,,,,,,
8552,1650413576.155575,1650413576.1895552,76.0,0.0,4237.436035,4571.282227000001,4208.205078,4281.025879,4230.256348,450.0,3.0,73.0,,,,0.0,4.0,0.0,4.0,0.0,4.0,33.333332,,,,,,,,38.0,0.0,0.277729,-0.42529300000000003,0.498291,0.702637,0.8847790000000001,-0.484382,-0.142092,-0.045829,-0.056652999999999995,-0.009431,,,,,,,,,,,,,,,,,,,,,,,,,,,,,,,,,,,,,,,,,,,,,,,,,,,,,,,,,,,,,,,,,
8553,1650413576.16339,1650413576.1973689,77.0,0.0,4210.256348,4605.641113000001,4203.077147999999,4281.025879,4206.153809,450.0,3.0,73.0,,,,0.0,4.0,0.0,4.0,0.0,4.0,33.333332,,,,,,,,,,,,,,,,,,,,,,,,,,,,,,,,,,,,,,,,,,,,,,,,,,,,,,0.0,0.0,64.0,1.0,1.0,0.0,,,,,,,,,,,,,,,,,,,,,,,,,
8554,1650413576.1712039,1650413576.2052839,78.0,0.0,4182.563965,4611.794922,4196.410156,4282.563965,4168.717772999999,450.0,3.0,73.0,,,,0.0,4.0,0.0,4.0,0.0,4.0,33.333332,,,,,,,,39.0,0.0,0.27810300000000004,-0.42504899999999995,0.498291,0.702637,0.8916149999999999,-0.46533900000000006,-0.15820599999999999,-0.045885,-0.056701,-0.00839,,,,,,,,,,,,,,,,,,,,,,,,,,,,,,,,,,,,,,,,,,,,,,,,,,,,,,,,,,,,,,,,,
8555,1650413576.179019,1650413576.2131991,79.0,0.0,4167.692383,4574.871582,4214.871582,4282.563965,4146.666504,16211.0,3.0,73.0,,,,0.0,4.0,0.0,4.0,0.0,4.0,33.333332,,,,,,,,,,,,,,,,,,,,,,,,,,,,,,,,,,,,,,,,,,,,,,,,,,,,,,,,,,,,,,,,,,,,,,,,,,,,,,,,,,,,
8556,1650413576.186833,1650413576.221014,80.0,0.0,4161.025879,4550.769043,4225.128418,4281.538574,4152.820313,450.0,3.0,73.0,,,,0.0,4.0,0.0,4.0,0.0,4.0,33.333332,,,,,,,,40.0,0.0,0.277665,-0.42504899999999995,0.49853500000000006,0.702637,0.897475,-0.477058,-0.138674,-0.044469999999999996,-0.056744,-0.010870999999999999,,,,,,,,,,,,,,,,,,,,,,,,,,,,,,,,,,,,,,,,,,,,,,,,,,,,,,,,,,,,,,,,,
8557,1650413576.194648,1650413576.2289288,81.0,0.0,4152.307617,4553.846191,4214.871582,4281.025879,4142.05127,450.0,3.0,73.0,,,,0.0,4.0,0.0,4.0,0.0,4.0,33.333332,,,,,,,,,,,,,,,,,,,,,,,,,,,,,,,,,,,,,,,,,,,,,,,,,,,,,,0.0,0.0,64.0,1.0,1.0,0.0,,,,,,,,,,,,,,,,,,,,,,,,,
8558,1650413576.202462,1650413576.236743,82.0,0.0,4167.179688,4582.05127,4234.871582,4280.512695,4133.333496,450.0,3.0,73.0,,,,0.0,4.0,0.0,4.0,0.0,4.0,33.333332,,,,,,,,41.0,0.0,0.277665,-0.42504899999999995,0.49853500000000006,0.702637,0.87892,-0.47559300000000004,-0.14941600000000002,-0.044711,-0.056733000000000006,-0.006806,,,,,,,,,,,,,,,,,,,,,,,,,,,,,,,,,,,,,,,,,,,,,,,,,,,,,,,,,,,,,,,,,
8559,1650413576.2102768,1650413576.244658,83.0,0.0,4177.436035,4623.077147999999,4253.333496,4280.512695,4142.05127,16211.0,3.0,73.0,,,,0.0,4.0,0.0,4.0,0.0,4.0,33.333332,,,,,,,,,,,,,,,,,,,,,,,,,,,,,,,,,,,,,,,,,,,,,,,,,,,,,,,,,,,,,,,,,,,,,,,,,,,,,,,,,,,,
8560,1650413576.218091,1650413576.252473,84.0,0.0,4154.358886999999,4610.256348,4241.025879,4280.512695,4125.641113000001,450.0,3.0,73.0,,,,0.0,4.0,0.0,4.0,0.0,4.0,33.333332,,,,,,,,42.0,0.0,0.277665,-0.42504899999999995,0.49853500000000006,0.702637,0.864759,-0.464363,-0.14648699999999998,-0.045025,-0.056577999999999996,-0.009348,,,,,,,,,,,,,,,,,,,,,,,,,,,,,,,,,,,,,,,,,,,,,,,,,,,,,,,,,,,,,,,,,
8561,1650413576.2259061,1650413576.2603881,85.0,0.0,4133.333496,4578.461426,4227.692383,4280.512695,4091.794922,450.0,3.0,73.0,,,,0.0,4.0,0.0,4.0,0.0,4.0,33.333332,,,,,,,,,,,,,,,,,,,,,,,,,,,,,,,,,,,,,,,,,,,,,,,,,,,,,,0.0,0.0,64.0,1.0,1.0,0.0,,,,,,,,,,,,,,,,,,,,,,,,,
8562,1650413576.2337198,1650413576.268203,86.0,0.0,4137.436035,4604.102539,4224.102539,4280.512695,4084.102539,450.0,3.0,73.0,,,,0.0,4.0,0.0,4.0,0.0,4.0,33.333332,,,,,,,,43.0,0.0,0.277665,-0.42504899999999995,0.49853500000000006,0.702637,0.878431,-0.47071,-0.14844000000000002,-0.045259,-0.056584,-0.0054340000000000005,,,,,,,,,,,,,,,,,,,,,,,,,,,,,,,,,,,,,,,,,,,,,,,,,,,,,,,,,,,,,,,,,
8563,1650413576.241535,1650413576.276118,87.0,0.0,4132.820313,4594.358886999999,4222.05127,4280.512695,4078.461426,16211.0,3.0,73.0,,,,0.0,4.0,0.0,4.0,0.0,4.0,33.333332,,,,,,,,,,,,,,,,,,,,,,,,,,,,,,,,,,,,,,,,,,,,,,,,,,,,,,,,,,,,,,,,,,,,,,,,,,,,,,,,,,,,
8564,1650413576.249349,1650413576.283932,88.0,0.0,4124.615234000001,4569.230957,4221.025879,4280.512695,4074.8718259999996,450.0,3.0,73.0,,,,0.0,4.0,0.0,4.0,0.0,4.0,33.333332,,,,,,,,44.0,0.0,0.277665,-0.42504899999999995,0.49853500000000006,0.702637,0.889174,-0.47071,-0.147951,-0.04542,-0.056589999999999994,-0.011092,,,,,,,,,,,,,,,,,,,,,,,,,,,,,,,,,,,,,,,,,,,,,,,,,,,,,,,,,,,,,,,,,
8565,1650413576.257164,1650413576.291847,89.0,0.0,4144.615234000001,4604.102539,4228.205078,4280.512695,4107.179688,450.0,3.0,73.0,,,,0.0,4.0,0.0,4.0,0.0,4.0,33.333332,,,,,,,,,,,,,,,,,,,,1.0,0.0,0.0,,,,,,,,,,,,,,,,,,,,,,,,,,,,,,,,0.0,0.0,64.0,1.0,1.0,0.0,37.207108000000005,5.212226,2.253041,1.172115,1.2938969999999999,7.358565,8.885109,13.398779000000001,17.442007,7.097844,1.485075,0.77518,1.0802399999999999,2.083646,1.04304,0.03223,0.009828,0.002483,0.0010630000000000001,0.000781,29.220465,4.348195,2.4094990000000003,2.12688,2.130419
8566,1650413576.264978,1650413576.2996619,90.0,0.0,4151.282227000001,4605.641113000001,4225.128418,4280.512695,4120.512695,450.0,3.0,73.0,,,,0.0,4.0,0.0,4.0,0.0,4.0,33.333332,,,,,,,,45.0,0.0,0.277665,-0.42504899999999995,0.49853500000000006,0.702637,0.8838030000000001,-0.45410900000000004,-0.14990499999999998,-0.044101,-0.056546000000000006,-0.013206,,,,,,,,,,,,,,,,,,,,,,,,,,,,,,,,,,,,,,,,,,,,,,,,,,,,,,,,,,,,,,,,,
8567,1650413576.272793,1650413576.307577,91.0,0.0,4129.230957,4600.0,4210.256348,4280.512695,4081.025635,16211.0,3.0,73.0,,,,0.0,4.0,0.0,4.0,0.0,4.0,33.333332,,,,,,,,,,,,,,,,,,,,,,,,,,,,,,,,,,,,,,,,,,,,,,,,,,,,,,,,,,,,,,,,,,,,,,,,,,,,,,,,,,,,
8568,1650413576.280607,1650413576.315392,92.0,0.0,4114.358886999999,4626.153809,4202.05127,4280.512695,4047.179443,450.0,3.0,73.0,,,,0.0,4.0,0.0,4.0,0.0,4.0,33.333332,,,,,,,,46.0,0.0,0.277665,-0.42504899999999995,0.49853500000000006,0.702637,0.8886850000000001,-0.475105,-0.145022,-0.04433,-0.056555999999999995,-0.009004,,,,,,,,,,,,,,,,,,,,,,,,,,,,,,,,,,,,,,,,,,,,,,,,,,,,,,,,,,,,,,,,,
8569,1650413576.288422,1650413576.323307,93.0,0.0,4110.769043,4587.179688,4194.871582,4280.512695,4040.512939,450.0,3.0,73.0,,,,0.0,4.0,0.0,4.0,0.0,4.0,33.333332,,,,,,,,,,,,,,,,,,,,,,,,,,,,,,,,,,,,,,,,,,,,,,,,,,,,,,0.0,0.0,64.0,1.0,1.0,0.0,,,,,,,,,,,,,,,,,,,,,,,,,
8570,1650413576.296236,1650413576.331221,94.0,0.0,4104.102539,4546.153809,4186.666504,4280.512695,4046.6667479999996,450.0,3.0,73.0,,,,0.0,4.0,0.0,4.0,0.0,4.0,33.333332,,,,,,,,47.0,0.0,0.277665,-0.42504899999999995,0.49853500000000006,0.702637,0.878431,-0.466316,-0.140627,-0.044584,-0.056613,-0.011375,,,,,,,,,,,,,,,,,,,,,,,,,,,,,,,,,,,,,,,,,,,,,,,,,,,,,,,,,,,,,,,,,
8571,1650413576.304051,1650413576.339036,95.0,0.0,4108.205078,4584.615234000001,4206.666504,4280.512695,4068.205078,16211.0,3.0,73.0,,,,0.0,4.0,0.0,4.0,0.0,4.0,33.333332,,,,,,,,,,,,,,,,,,,,,,,,,,,,,,,,,,,,,,,,,,,,,,,,,,,,,,,,,,,,,,,,,,,,,,,,,,,,,,,,,,,,
8572,1650413576.311865,1650413576.346951,96.0,0.0,4122.05127,4579.487305,4230.256348,4280.512695,4078.974365,450.0,3.0,73.0,,,,0.0,4.0,0.0,4.0,0.0,4.0,33.333332,,,,,,,,48.0,0.0,0.277665,-0.42504899999999995,0.49853500000000006,0.702637,0.8813610000000001,-0.47071,-0.132326,-0.044813,-0.056567,-0.01014,,,,,,,,,,,,,,,,,,,,,,,,,,,,,,,,,,,,,,,,,,,,,,,,,,,,,,,,,,,,,,,,,
8573,1650413576.31968,1650413576.3547661,97.0,0.0,4121.538574,4574.871582,4208.205078,4280.512695,4064.615479,450.0,3.0,73.0,,,,0.0,4.0,0.0,4.0,0.0,4.0,33.333332,,,,,,,,,,,,,,,,,,,,,,,,,,,,,,,,,,,,,,,,,,,,,,,,,,,,,,0.0,0.0,64.0,1.0,1.0,0.0,,,,,,,,,,,,,,,,,,,,,,,,,
8574,1650413576.3274949,1650413576.362581,98.0,0.0,4121.538574,4685.128418,4195.384765999999,4280.512695,4065.641113,450.0,3.0,73.0,,,,0.0,4.0,0.0,4.0,0.0,4.0,33.333332,,,,,,,,49.0,0.0,0.278038,-0.42480500000000004,0.49853500000000006,0.702637,0.8916149999999999,-0.47168699999999997,-0.145998,-0.04502,-0.056672,-0.012398000000000001,,,,,,,,,,,,,,,,,,,,,,,,,,,,,,,,,,,,,,,,,,,,,,,,,,,,,,,,,,,,,,,,,
8575,1650413576.335309,1650413576.370496,99.0,0.0,4125.128418,4696.410156,4217.94873,4280.512695,4065.641113,16211.0,3.0,73.0,,,,0.0,4.0,0.0,4.0,0.0,4.0,33.333332,,,,,,,,,,,,,,,,,,,,,,,,,,,,,,,,,,,,,,,,,,,,,,,,,,,,,,,,,,,,,,,,,,,,,,,,,,,,,,,,,,,,
8576,1650413576.343124,1650413576.37831,100.0,0.0,4120.512695,4550.256348,4222.05127,4280.512695,4052.3076170000004,450.0,3.0,73.0,,,,0.0,4.0,0.0,4.0,0.0,4.0,33.333332,,,,,,,,50.0,0.0,0.278038,-0.42480500000000004,0.49853500000000006,0.702637,0.89015,-0.46973400000000004,-0.147463,-0.045254,-0.056669000000000004,-0.014428999999999999,,,,,,,,,,,,,,,,,,,,,,,,,,,,,,,,,,,,,,,,,,,,,,,,,,,,,,,,,,,,,,,,,
8577,1650413576.350938,1650413576.386225,101.0,0.0,4117.94873,4533.333496,4212.820313,4280.512695,4063.5898439999996,450.0,3.0,73.0,,,,0.0,4.0,0.0,4.0,0.0,4.0,33.333332,,,,,,,,,,,,,,,,,,,,,,,,,,,,,,,,,,,,,,,,,,,,,,,,,,,,,,0.0,0.0,64.0,1.0,1.0,0.0,,,,,,,,,,,,,,,,,,,,,,,,,
8578,1650413576.358753,1650413576.39404,102.0,0.0,4123.077147999999,4623.077147999999,4215.384765999999,4280.512695,4072.3076170000004,450.0,3.0,73.0,,,,0.0,4.0,0.0,4.0,0.0,4.0,33.333332,,,,,,,,51.0,0.0,0.27742100000000003,-0.42480500000000004,0.49853500000000006,0.7028810000000001,0.882826,-0.46387399999999995,-0.145022,-0.045465,-0.056665999999999994,-0.019041,,,,,,,,,,,,,,,,,,,,,,,,,,,,,,,,,,,,,,,,,,,,,,,,,,,,,,,,,,,,,,,,,
8579,1650413576.366567,1650413576.4019551,103.0,0.0,4122.05127,4604.615234000001,4209.743652,4280.512695,4052.3076170000004,16211.0,3.0,73.0,,,,0.0,4.0,0.0,4.0,0.0,4.0,33.333332,,,,,,,,,,,,,,,,,,,,,,,,,,,,,,,,,,,,,,,,,,,,,,,,,,,,,,,,,,,,,,,,,,,,,,,,,,,,,,,,,,,,
8580,1650413576.374381,1650413576.40977,104.0,0.0,4127.179688,4568.717772999999,4208.717772999999,4280.512695,4056.4101560000004,450.0,3.0,73.0,,,,0.0,4.0,0.0,4.0,0.0,4.0,33.333332,,,,,,,,52.0,0.0,0.27742100000000003,-0.42480500000000004,0.49853500000000006,0.7028810000000001,0.8916149999999999,-0.490242,-0.147463,-0.044141,-0.056615,-0.023338,,,,,,,,,,,,,,,,,,,,,,,,,,,,,,,,,,,,,,,,,,,,,,,,,,,,,,,,,,,,,,,,,
8581,1650413576.3821962,1650413576.417485,105.0,0.0,4145.641113000001,4573.333496,4228.205078,4280.512695,4079.487061,450.0,3.0,73.0,,,,0.0,4.0,0.0,4.0,0.0,4.0,33.333332,,,,,,,,,,,,,,,,,,,,1.0,0.0,0.0,,,,,,,,,,,,,,,,,,,,,,,,,,,,,,,,0.0,0.0,64.0,1.0,1.0,0.0,78.93002299999999,11.05151,3.84208,1.2975780000000001,1.441265,10.458993,13.063614,15.566054000000001,18.794399,7.23371,1.570921,0.664292,0.984409,1.863838,1.115807,0.05558300000000001,0.01414,0.003361,0.001135,0.0016710000000000002,59.612648,9.225149,3.60955,2.392383,2.308019
8582,1650413576.3900099,1650413576.4254,106.0,0.0,4158.461426,4583.077147999999,4229.230957,4280.512695,4076.923096,450.0,3.0,73.0,,,,0.0,4.0,0.0,4.0,0.0,4.0,33.333332,,,,,,,,53.0,0.0,0.277794,-0.42456099999999997,0.49853500000000006,0.7028810000000001,0.8764780000000001,-0.464363,-0.145998,-0.04295,-0.05656900000000001,-0.024227000000000002,,,,,,,,,,,,,,,,,,,,,,,,,,,,,,,,,,,,,,,,,,,,,,,,,,,,,,,,,,,,,,,,,
8583,1650413576.397825,1650413576.433214,107.0,0.0,4154.871582,4580.0,4209.230957,4280.512695,4080.512939,16211.0,3.0,73.0,,,,0.0,4.0,0.0,4.0,0.0,4.0,33.333332,,,,,,,,,,,,,,,,,,,,,,,,,,,,,,,,,,,,,,,,,,,,,,,,,,,,,,,,,,,,,,,,,,,,,,,,,,,,,,,,,,,,
8584,1650413576.4056401,1650413576.441129,108.0,0.0,4144.102539,4550.769043,4210.256348,4280.512695,4092.820557,450.0,3.0,73.0,,,,0.0,4.0,0.0,4.0,0.0,4.0,33.333332,,,,,,,,54.0,0.0,0.277794,-0.42456099999999997,0.49853500000000006,0.7028810000000001,0.8808729999999999,-0.46533900000000006,-0.145998,-0.043391000000000006,-0.056576,-0.027859,,,,,,,,,,,,,,,,,,,,,,,,,,,,,,,,,,,,,,,,,,,,,,,,,,,,,,,,,,,,,,,,,
8585,1650413576.4134538,1650413576.4489439,109.0,0.0,4130.256348,4556.922852000001,4221.025879,4280.512695,4067.6923829999996,450.0,3.0,73.0,,,,0.0,4.0,0.0,4.0,0.0,4.0,33.333332,,,,,,,,,,,,,,,,,,,,,,,,,,,,,,,,,,,,,,,,,,,,,,,,,,,,,,0.0,0.0,64.0,1.0,1.0,0.0,,,,,,,,,,,,,,,,,,,,,,,,,
8586,1650413576.421269,1650413576.456759,110.0,0.0,4133.846191,4597.94873,4213.333496,4280.512695,4055.384521,450.0,3.0,73.0,,,,0.0,4.0,0.0,4.0,0.0,4.0,33.333332,,,,,,,,55.0,0.0,0.277729,-0.42431599999999997,0.498779,0.7028810000000001,0.881849,-0.46533900000000006,-0.14111500000000002,-0.04374,-0.056632,-0.028345,,,,,,,,,,,,,,,,,,,,,,,,,,,,,,,,,,,,,,,,,,,,,,,,,,,,,,,,,,,,,,,,,
8587,1650413576.429083,1650413576.464474,111.0,0.0,4154.871582,4575.384765999999,4206.666504,4280.512695,4082.5642090000006,16211.0,3.0,73.0,,,,0.0,4.0,0.0,4.0,0.0,4.0,33.333332,,,,,,,,,,,,,,,,,,,,,,,,,,,,,,,,,,,,,,,,,,,,,,,,,,,,,,,,,,,,,,,,,,,,,,,,,,,,,,,,,,,,
8588,1650413576.436898,1650413576.472289,112.0,0.0,4168.205078,4558.461426,4212.820313,4280.512695,4103.589844,450.0,3.0,73.0,,,,0.0,4.0,0.0,4.0,0.0,4.0,33.333332,,,,,,,,56.0,0.0,0.277729,-0.42431599999999997,0.498779,0.7028810000000001,0.873549,-0.460945,-0.143557,-0.0442,-0.056633,-0.025363999999999998,,,,,,,,,,,,,,,,,,,,,,,,,,,,,,,,,,,,,,,,,,,,,,,,,,,,,,,,,,,,,,,,,
8589,1650413576.444712,1650413576.480104,113.0,0.0,4172.307617,4651.794922,4218.974121,4280.512695,4101.538574,450.0,3.0,73.0,,,,0.0,4.0,0.0,4.0,0.0,4.0,33.333332,,,,,,,,,,,,,,,,,,,,,,,,,,,,,,,,,,,,,,,,,,,,,,,,,,,,,,0.0,0.0,64.0,1.0,1.0,0.0,,,,,,,,,,,,,,,,,,,,,,,,,
8590,1650413576.452527,1650413576.488019,114.0,0.0,4154.871582,4653.846191,4211.794922,4280.512695,4076.923096,450.0,3.0,73.0,,,,0.0,4.0,0.0,4.0,0.0,4.0,33.333332,,,,,,,,57.0,0.0,0.277663,-0.424072,0.49902299999999994,0.7028810000000001,0.8730600000000001,-0.467292,-0.151858,-0.044467,-0.056633,-0.026099,,,,,,,,,,,,,,,,,,,,,,,,,,,,,,,,,,,,,,,,,,,,,,,,,,,,,,,,,,,,,,,,,
8591,1650413576.460341,1650413576.495833,115.0,0.0,4124.102539,4572.820313,4200.512695,4280.512695,4056.4101560000004,16211.0,3.0,73.0,,,,0.0,4.0,0.0,4.0,0.0,4.0,33.333332,,,,,,,,,,,,,,,,,,,,,,,,,,,,,,,,,,,,,,,,,,,,,,,,,,,,,,,,,,,,,,,,,,,,,,,,,,,,,,,,,,,,
8592,1650413576.468156,1650413576.503748,116.0,0.0,4114.871582,4601.025879,4197.94873,4280.512695,4063.5898439999996,450.0,3.0,73.0,,,,0.0,4.0,0.0,4.0,0.0,4.0,33.333332,,,,,,,,58.0,0.0,0.277663,-0.424072,0.49902299999999994,0.7028810000000001,0.886732,-0.47901099999999996,-0.147463,-0.044757,-0.056585,-0.026810000000000004,,,,,,,,,,,,,,,,,,,,,,,,,,,,,,,,,,,,,,,,,,,,,,,,,,,,,,,,,,,,,,,,,
8593,1650413576.47597,1650413576.511563,117.0,0.0,4134.358886999999,4642.563965,4203.077147999999,4280.512695,4087.6923829999996,450.0,3.0,73.0,,,,0.0,4.0,0.0,4.0,0.0,4.0,33.333332,,,,,,,,,,,,,,,,,,,,,,,,,,,,,,,,,,,,,,,,,,,,,,,,,,,,,,0.0,0.0,64.0,1.0,1.0,0.0,,,,,,,,,,,,,,,,,,,,,,,,,
8594,1650413576.483785,1650413576.5194778,118.0,0.0,4149.743652,4596.410156,4211.794922,4280.512695,4089.2307130000004,450.0,3.0,73.0,,,,0.0,4.0,0.0,4.0,0.0,4.0,33.333332,,,,,,,,59.0,0.0,0.278036,-0.423828,0.49902299999999994,0.7028810000000001,0.879408,-0.47168699999999997,-0.143557,-0.04492,-0.056639999999999996,-0.021248,,,,,,,,,,,,,,,,,,,,,,,,,,,,,,,,,,,,,,,,,,,,,,,,,,,,,,,,,,,,,,,,,
8595,1650413576.491599,1650413576.527293,119.0,0.0,4138.461426,4548.205078,4216.922852000001,4280.512695,4070.7692869999996,16211.0,3.0,73.0,,,,0.0,4.0,0.0,4.0,0.0,4.0,33.333332,,,,,,,,,,,,,,,,,,,,,,,,,,,,,,,,,,,,,,,,,,,,,,,,,,,,,,,,,,,,,,,,,,,,,,,,,,,,,,,,,,,,
8596,1650413576.499414,1650413576.535208,120.0,0.0,4137.436035,4603.077147999999,4209.743652,4280.512695,4066.1538090000004,450.0,3.0,73.0,,,,0.0,4.0,0.0,4.0,0.0,4.0,33.333332,,,,,,,,60.0,0.0,0.277597,-0.423828,0.49926800000000005,0.7028810000000001,0.866224,-0.4795,-0.13916199999999998,-0.045116,-0.056639999999999996,-0.019074,,,,,,,,,,,,,,,,,,,,,,,,,,,,,,,,,,,,,,,,,,,,,,,,,,,,,,,,,,,,,,,,,
8597,1650413576.507228,1650413576.5430222,121.0,0.0,4156.410156,4637.436035,4206.153809,4280.512695,4084.615479,450.0,3.0,73.0,,,,0.0,4.0,0.0,4.0,0.0,4.0,33.333332,,,,,,,,,,,,,,,,,,,,1.0,0.0,0.0,,,,,,,,,,,,,,,,,,,,,,,,,,,,,,,,0.0,0.0,64.0,1.0,1.0,0.0,133.49391200000002,18.9167,5.999693,1.5081440000000002,1.674614,13.426119,17.554081,17.937817000000003,19.505613,8.138562,1.8202770000000001,0.620275,1.045125,1.660777,1.238489,0.08788,0.020064,0.004653,0.001504,0.003148,100.73041500000001,16.054531,5.188129,2.7246259999999998,2.5179400000000003
8598,1650413576.515043,1650413576.550937,122.0,0.0,4162.05127,4588.205078,4214.871582,4280.512695,4115.897461,450.0,3.0,73.0,,,,0.0,4.0,0.0,4.0,0.0,4.0,33.333332,,,,,,,,61.0,0.0,0.277969,-0.423584,0.49926800000000005,0.7028810000000001,0.8652479999999999,-0.46778100000000006,-0.136233,-0.045389,-0.056738,-0.020388999999999997,,,,,,,,,,,,,,,,,,,,,,,,,,,,,,,,,,,,,,,,,,,,,,,,,,,,,,,,,,,,,,,,,
8599,1650413576.522857,1650413576.558752,123.0,0.0,4149.230957,4586.153809,4216.922852000001,4280.512695,4105.128418,16211.0,3.0,73.0,,,,0.0,4.0,0.0,4.0,0.0,4.0,33.333332,,,,,,,,,,,,,,,,,,,,,,,,,,,,,,,,,,,,,,,,,,,,,,,,,,,,,,,,,,,,,,,,,,,,,,,,,,,,,,,,,,,,
8600,1650413576.530672,1650413576.566567,124.0,0.0,4154.871582,4623.077147999999,4225.128418,4280.512695,4072.3076170000004,450.0,3.0,73.0,,,,0.0,4.0,0.0,4.0,0.0,4.0,33.333332,,,,,,,,62.0,0.0,0.277903,-0.42333999999999994,0.499512,0.7028810000000001,0.8842909999999999,-0.461433,-0.145998,-0.045538,-0.056826,-0.021622,,,,,,,,,,,,,,,,,,,,,,,,,,,,,,,,,,,,,,,,,,,,,,,,,,,,,,,,,,,,,,,,,
8601,1650413576.538486,1650413576.574382,125.0,0.0,4154.871582,4596.922852000001,4230.256348,4280.512695,4072.3076170000004,450.0,3.0,73.0,,,,0.0,4.0,0.0,4.0,0.0,4.0,33.333332,,,,,,,,,,,,,,,,,,,,,,,,,,,,,,,,,,,,,,,,,,,,,,,,,,,,,,0.0,0.0,64.0,1.0,1.0,0.0,,,,,,,,,,,,,,,,,,,,,,,,,
8602,1650413576.546301,1650413576.582097,126.0,0.0,4131.282227000001,4581.025879,4207.179688,4280.512695,4087.6923829999996,450.0,3.0,73.0,,,,0.0,4.0,0.0,4.0,0.0,4.0,33.333332,,,,,,,,63.0,0.0,0.277903,-0.42333999999999994,0.499512,0.7028810000000001,0.89015,-0.46338599999999996,-0.146975,-0.045721,-0.056856,-0.022731,,,,,,,,,,,,,,,,,,,,,,,,,,,,,,,,,,,,,,,,,,,,,,,,,,,,,,,,,,,,,,,,,
8603,1650413576.554115,1650413576.5900118,127.0,0.0,4147.179688,4638.461426,4205.128418,4280.512695,4096.410156,238.0,3.0,73.0,,,,0.0,4.0,0.0,4.0,0.0,4.0,33.333332,,,,,,,,,,,,,,,,,,,,,,,,,,,,,,,,,,,,,,,,,,,,,,,,,,,,,,,,,,,,,,,,,,,,,,,,,,,,,,,,,,,,
8604,1650413576.5619302,1650413576.597827,0.0,0.0,4184.102539,4638.461426,4234.358886999999,4280.512695,4108.205078,450.0,3.0,73.0,,,,0.0,4.0,0.0,4.0,0.0,4.0,33.333332,,,,,,,,0.0,0.0,0.277903,-0.42333999999999994,0.499512,0.7028810000000001,0.8808729999999999,-0.462409,-0.14990499999999998,-0.045933999999999996,-0.056835000000000004,-0.020361,,,,,,,,,,,,,,,,,,,,,,,,,,,,,,,,,,,,,,,,,,,,,,,,,,,,,,,,,,,,,,,,,
8605,1650413576.5697439,1650413576.605741,1.0,0.0,4188.205078,4594.358886999999,4244.102539,4280.512695,4135.384765999999,450.0,3.0,73.0,,,,0.0,4.0,0.0,4.0,0.0,4.0,33.333332,,,,,,,,,,,,,,,,,,,,,,,,,,,,,,,,,,,,,,,,,,,,,,,,,,,,,,0.0,0.0,64.0,1.0,1.0,0.0,,,,,,,,,,,,,,,,,,,,,,,,,
8606,1650413576.577559,1650413576.6135561,2.0,0.0,4172.307617,4603.077147999999,4228.717772999999,4280.512695,4123.589844,16206.0,3.0,73.0,,,,0.0,4.0,0.0,4.0,0.0,4.0,33.333332,,,,,,,,1.0,0.0,0.277836,-0.423096,0.49975600000000003,0.7028810000000001,0.8964979999999999,-0.478523,-0.14111500000000002,-0.046028,-0.056815,-0.021596,,,,,,,,,,,,,,,,,,,,,,,,,,,,,,,,,,,,,,,,,,,,,,,,,,,,,,,,,,,,,,,,,
8607,1650413576.585374,1650413576.6214712,3.0,0.0,4163.589844,4636.410156,4223.077147999999,4280.512695,4090.256348,450.0,3.0,73.0,,,,0.0,4.0,0.0,4.0,0.0,4.0,33.333332,,,,,,,,,,,,,,,,,,,,,,,,,,,,,,,,,,,,,,,,,,,,,,,,,,,,,,,,,,,,,,,,,,,,,,,,,,,,,,,,,,,,
8608,1650413576.593188,1650413576.629286,4.0,0.0,4163.077147999999,4654.871582,4218.974121,4280.512695,4092.3076170000004,0.0,3.0,73.0,,,,0.0,4.0,0.0,4.0,0.0,4.0,33.333332,,,,,,,,2.0,0.0,0.277903,-0.42333999999999994,0.499512,0.7028810000000001,0.89015,-0.46338599999999996,-0.146975,-0.046064,-0.056847,-0.019339,,,,,,,,,,,,,,,,,,,,,,,,,,,,,,,,,,,,,,,,,,,,,,,,,,,,,,,,,,,,,,,,,
8609,1650413576.601003,1650413576.637201,5.0,0.0,4155.897461,4622.563965,4210.769043,4280.512695,4084.102539,450.0,3.0,73.0,,,,0.0,4.0,0.0,4.0,0.0,4.0,33.333332,,,,,,,,,,,,,,,,,,,,,,,,,,,,,,,,,,,,,,,,,,,,,,,,,,,,,,0.0,0.0,64.0,1.0,1.0,0.0,,,,,,,,,,,,,,,,,,,,,,,,,
8610,1650413576.608817,1650413576.645016,6.0,0.0,4141.538574,4600.0,4206.153809,4280.512695,4057.4357909999994,16105.0,3.0,73.0,,,,0.0,4.0,0.0,4.0,0.0,4.0,33.333332,,,,,,,,3.0,0.0,0.277836,-0.423096,0.49975600000000003,0.7028810000000001,0.8964979999999999,-0.478523,-0.14111500000000002,-0.046145,-0.056826,-0.020676,,,,,,,,,,,,,,,,,,,,,,,,,,,,,,,,,,,,,,,,,,,,,,,,,,,,,,,,,,,,,,,,,
8611,1650413576.616631,1650413576.65293,7.0,0.0,4144.615234000001,4610.769043,4209.743652,4280.512695,4084.102539,450.0,3.0,73.0,,,,0.0,4.0,0.0,4.0,0.0,4.0,33.333332,,,,,,,,,,,,,,,,,,,,,,,,,,,,,,,,,,,,,,,,,,,,,,,,,,,,,,,,,,,,,,,,,,,,,,,,,,,,,,,,,,,,
8612,1650413576.6244462,1650413576.660745,8.0,0.0,4164.615234000001,4628.717772999999,4219.487305,4280.512695,4120.0,450.0,3.0,73.0,,,,0.0,4.0,0.0,4.0,0.0,4.0,33.333332,,,,,,,,4.0,0.0,0.277836,-0.423096,0.49975600000000003,0.7028810000000001,0.889174,-0.46338599999999996,-0.141604,-0.046267,-0.056905,-0.021978,,,,,,,,,,,,,,,,,,,,,,,,,,,,,,,,,,,,,,,,,,,,,,,,,,,,,,,,,,,,,,,,,
8613,1650413576.6322598,1650413576.66866,9.0,0.0,4163.589844,4624.102539,4224.615234000001,4280.512695,4084.102539,0.0,3.0,73.0,,,,0.0,4.0,0.0,4.0,0.0,4.0,33.333332,1.0,25.0,3.0,0.0,4.0,0.0,3.0,,,,,,,,,,,,,1.0,0.0,0.0,,,,,,,,,,,,,,,,,,,,,,,,,,,,,,,,0.0,0.0,64.0,0.763117,1.0,0.0,187.637497,26.775288,8.280837,1.773468,1.93088,15.270760000000001,20.913315,19.933168,19.313595,9.489127,2.34108,0.64683,1.244866,1.493643,1.394274,0.12090699999999999,0.026235,0.00621,0.002269,0.005059,142.927338,23.078489,6.8096570000000005,3.111193,2.699017
8614,1650413576.640075,1650413576.676475,10.0,0.0,4148.205078,4595.384765999999,4217.94873,4280.512695,4053.8461909999996,450.0,3.0,73.0,,,,0.0,4.0,0.0,4.0,0.0,4.0,33.333332,,,,,,,,5.0,0.0,0.277396,-0.423096,0.5,0.7028810000000001,0.8808729999999999,-0.477546,-0.147463,-0.046425,-0.056879,-0.019584999999999998,,,,,,,,,,,,,,,,,,,,,,,,,,,,,,,,,,,,,,,,,,,,,,,,,,,,,,,,,,,,,,,,,
8615,1650413576.64789,1650413576.68439,11.0,0.0,4152.820313,4592.307617,4207.692383,4280.512695,4080.512939,16202.0,3.0,73.0,,,,0.0,4.0,0.0,4.0,0.0,4.0,33.333332,,,,,,,,,,,,,,,,,,,,,,,,,,,,,,,,,,,,,,,,,,,,,,,,,,,,,,,,,,,,,,,,,,,,,,,,,,,,,,,,,,,,
8616,1650413576.655704,1650413576.6922052,12.0,0.0,4170.256348,4614.871582,4207.692383,4280.512695,4091.281982,450.0,3.0,73.0,,,,0.0,4.0,0.0,4.0,0.0,4.0,33.333332,,,,,,,,6.0,0.0,0.277217,-0.423096,0.49975600000000003,0.703125,0.882338,-0.489754,-0.140627,-0.046519,-0.056854999999999996,-0.0208,,,,,,,,,,,,,,,,,,,,,,,,,,,,,,,,,,,,,,,,,,,,,,,,,,,,,,,,,,,,,,,,,
8617,1650413576.663519,1650413576.700119,13.0,0.0,4176.922852000001,4615.897461,4211.794922,4280.512695,4077.4357909999994,450.0,3.0,73.0,,,,0.0,4.0,0.0,4.0,0.0,4.0,33.333332,,,,,,,,,,,,,,,,,,,,,,,,,,,,,,,,,,,,,,,,,,,,,,,,,,,,,,0.0,0.0,64.0,0.763117,1.0,0.0,,,,,,,,,,,,,,,,,,,,,,,,,
8618,1650413576.671333,1650413576.707934,14.0,0.0,4163.077147999999,4627.179688,4198.974121,4280.512695,4073.3332520000004,450.0,3.0,73.0,,,,0.0,4.0,0.0,4.0,0.0,4.0,33.333332,,,,,,,,7.0,0.0,0.277217,-0.423096,0.49975600000000003,0.703125,0.8813610000000001,-0.48145299999999996,-0.138186,-0.046604,-0.056932,-0.022088999999999998,,,,,,,,,,,,,,,,,,,,,,,,,,,,,,,,,,,,,,,,,,,,,,,,,,,,,,,,,,,,,,,,,
8619,1650413576.679148,1650413576.715849,15.0,0.0,4159.487305,4671.282227000001,4194.358886999999,4280.512695,4088.205078,16202.0,3.0,73.0,,,,0.0,4.0,0.0,4.0,0.0,4.0,33.333332,,,,,,,,,,,,,,,,,,,,,,,,,,,,,,,,,,,,,,,,,,,,,,,,,,,,,,,,,,,,,,,,,,,,,,,,,,,,,,,,,,,,
8620,1650413576.686962,1650413576.723664,16.0,0.0,4185.128418,4667.179688,4217.94873,4280.512695,4110.769043,0.0,3.0,73.0,,,,0.0,4.0,0.0,4.0,0.0,4.0,33.333332,,,,,,,,8.0,0.0,0.27765700000000004,-0.423096,0.499512,0.703125,0.877943,-0.481941,-0.131838,-0.04668,-0.056804999999999994,-0.023103,,,,,,,,,,,,,,,,,,,,,,,,,,,,,,,,,,,,,,,,,,,,,,,,,,,,,,,,,,,,,,,,,
8621,1650413576.694777,1650413576.731479,17.0,0.0,4198.461426,4625.128418,4225.641113000001,4280.512695,4117.436035,0.0,3.0,73.0,,,,0.0,4.0,0.0,4.0,0.0,4.0,33.333332,,,,,,,,,,,,,,,,,,,,,,,,,,,,,,,,,,,,,,,,,,,,,,,,,,,,,,0.0,0.0,64.0,0.763117,1.0,0.0,,,,,,,,,,,,,,,,,,,,,,,,,
8622,1650413576.702591,1650413576.739294,18.0,0.0,4181.025879,4647.179688,4201.025879,4280.512695,4104.615234000001,0.0,3.0,73.0,,,,0.0,4.0,0.0,4.0,0.0,4.0,33.333332,,,,,,,,9.0,0.0,0.27765700000000004,-0.423096,0.499512,0.703125,0.8730600000000001,-0.47168699999999997,-0.154299,-0.046699,-0.05674,-0.023967,,,,,,,,,,,,,,,,,,,,,,,,,,,,,,,,,,,,,,,,,,,,,,,,,,,,,,,,,,,,,,,,,
8623,1650413576.710406,1650413576.747009,19.0,0.0,4182.05127,4666.153809,4201.025879,4280.512695,4109.230957,0.0,3.0,73.0,,,,0.0,4.0,0.0,4.0,0.0,4.0,33.333332,,,,,,,,,,,,,,,,,,,,,,,,,,,,,,,,,,,,,,,,,,,,,,,,,,,,,,,,,,,,,,,,,,,,,,,,,,,,,,,,,,,,
8624,1650413576.71822,1650413576.754923,20.0,0.0,4200.512695,4647.692383,4220.512695,4281.025879,4126.666504,0.0,3.0,73.0,,,,0.0,4.0,0.0,4.0,0.0,4.0,33.333332,,,,,,,,10.0,0.0,0.27765700000000004,-0.423096,0.499512,0.703125,0.8872209999999999,-0.48926499999999995,-0.158694,-0.046717,-0.056729999999999996,-0.018688999999999997,,,,,,,,,,,,,,,,,,,,,,,,,,,,,,,,,,,,,,,,,,,,,,,,,,,,,,,,,,,,,,,,,
8625,1650413576.7260349,1650413576.762738,21.0,0.0,4191.794922,4651.282227000001,4220.512695,4281.538574,4123.077147999999,0.0,3.0,73.0,,,,0.0,4.0,0.0,4.0,0.0,4.0,33.333332,,,,,,,,,,,,,,,,,,,,,,,,,,,,,,,,,,,,,,,,,,,,,,,,,,,,,,0.0,0.0,64.0,0.763117,1.0,0.0,,,,,,,,,,,,,,,,,,,,,,,,,
8626,1650413576.733849,1650413576.770653,22.0,0.0,4181.025879,4633.333496,4209.230957,4281.538574,4115.384765999999,0.0,3.0,73.0,,,,0.0,4.0,0.0,4.0,0.0,4.0,33.333332,,,,,,,,11.0,0.0,0.27765700000000004,-0.423096,0.499512,0.703125,0.8813610000000001,-0.47559300000000004,-0.153811,-0.046683999999999996,-0.056721,-0.020141,,,,,,,,,,,,,,,,,,,,,,,,,,,,,,,,,,,,,,,,,,,,,,,,,,,,,,,,,,,,,,,,,
8627,1650413576.7416642,1650413576.778468,23.0,0.0,4202.05127,4606.153809,4214.871582,4281.538574,4130.256348,0.0,3.0,73.0,,,,0.0,4.0,0.0,4.0,0.0,4.0,33.333332,,,,,,,,,,,,,,,,,,,,,,,,,,,,,,,,,,,,,,,,,,,,,,,,,,,,,,,,,,,,,,,,,,,,,,,,,,,,,,,,,,,,
8628,1650413576.7494779,1650413576.786383,24.0,0.0,4214.358886999999,4622.05127,4222.563965,4281.538574,4132.307617,0.0,3.0,73.0,,,,0.0,4.0,0.0,4.0,0.0,4.0,33.333332,,,,,,,,12.0,0.0,0.27765700000000004,-0.423096,0.499512,0.703125,0.889174,-0.46973400000000004,-0.154299,-0.046654,-0.056762,-0.021349,,,,,,,,,,,,,,,,,,,,,,,,,,,,,,,,,,,,,,,,,,,,,,,,,,,,,,,,,,,,,,,,,
8629,1650413576.757293,1650413576.794198,25.0,0.0,4188.205078,4637.94873,4208.717772999999,4281.538574,4110.256348,0.0,3.0,73.0,,,,0.0,4.0,0.0,4.0,0.0,4.0,33.333332,,,,,,,,,,,,,,,,,,,,1.0,0.0,0.0,,,,,,,,,,,,,,,,,,,,,,,,,,,,,,,,0.0,0.0,1.0,0.0,512.0,1.0,224.92669700000002,32.077034000000005,10.107883000000001,2.08043,2.117667,15.355576999999998,22.155313,20.960863,18.276267999999998,10.939893,3.095825,0.73955,1.522246,1.3759219999999999,1.5436,0.143671,0.03065,0.007677,0.003319,0.006967,172.991882,27.994711,8.079794999999999,3.559925,2.774148
8630,1650413576.765107,1650413576.802012,26.0,0.0,4179.487305,4642.05127,4198.974121,4281.538574,4118.974121,0.0,3.0,73.0,,,,0.0,4.0,0.0,4.0,0.0,4.0,33.333332,,,,,,,,13.0,0.0,0.27827399999999997,-0.423096,0.499512,0.7028810000000001,0.8842909999999999,-0.467292,-0.14844000000000002,-0.046676999999999996,-0.056652,-0.019165,,,,,,,,,,,,,,,,,,,,,,,,,,,,,,,,,,,,,,,,,,,,,,,,,,,,,,,,,,,,,,,,,
8631,1650413576.772922,1650413576.809727,27.0,0.0,4212.820313,4678.974121,4207.692383,4281.538574,4145.128418,0.0,3.0,73.0,,,,0.0,4.0,0.0,4.0,0.0,4.0,33.333332,,,,,,,,,,,,,,,,,,,,,,,,,,,,,,,,,,,,,,,,,,,,,,,,,,,,,,,,,,,,,,,,,,,,,,,,,,,,,,,,,,,,
8632,1650413576.780736,1650413576.817642,28.0,0.0,4226.666504,4677.94873,4216.922852000001,4281.538574,4143.589844,0.0,3.0,73.0,,,,0.0,4.0,0.0,4.0,0.0,4.0,33.333332,,,,,,,,14.0,0.0,0.277903,-0.42333999999999994,0.499512,0.7028810000000001,0.889174,-0.46338599999999996,-0.138674,-0.046843,-0.056602,-0.020569,,,,,,,,,,,,,,,,,,,,,,,,,,,,,,,,,,,,,,,,,,,,,,,,,,,,,,,,,,,,,,,,,
8633,1650413576.788551,1650413576.825457,29.0,0.0,4204.102539,4608.205078,4227.692383,4281.538574,4131.794922,0.0,3.0,73.0,,,,0.0,4.0,0.0,4.0,0.0,4.0,33.333332,,,,,,,,,,,,,,,,,,,,,,,,,,,,,,,,,,,,,,,,,,,,,,,,,,,,,,0.0,0.0,1.0,0.0,512.0,1.0,,,,,,,,,,,,,,,,,,,,,,,,,
8634,1650413576.796365,1650413576.833372,30.0,0.0,4192.820313,4560.0,4236.922852000001,4281.538574,4128.717772999999,0.0,3.0,73.0,,,,0.0,4.0,0.0,4.0,0.0,4.0,33.333332,,,,,,,,15.0,0.0,0.278341,-0.42333999999999994,0.49926800000000005,0.7028810000000001,0.8686659999999999,-0.481941,-0.14551,-0.045333,-0.056557,-0.018366,,,,,,,,,,,,,,,,,,,,,,,,,,,,,,,,,,,,,,,,,,,,,,,,,,,,,,,,,,,,,,,,,
8635,1650413576.8041801,1650413576.841187,31.0,0.0,4225.128418,4545.641113000001,4245.128418,4281.538574,4146.153809,0.0,3.0,73.0,,,,0.0,4.0,0.0,4.0,0.0,4.0,33.333332,,,,,,,,,,,,,,,,,,,,,,,,,,,,,,,,,,,,,,,,,,,,,,,,,,,,,,,,,,,,,,,,,,,,,,,,,,,,,,,,,,,,
8636,1650413576.8119938,1650413576.849102,32.0,0.0,4237.436035,4553.333496,4255.384765999999,4281.538574,4158.461426,0.0,3.0,73.0,,,,0.0,4.0,0.0,4.0,0.0,4.0,33.333332,,,,,,,,16.0,0.0,0.27816199999999996,-0.42333999999999994,0.49902299999999994,0.703125,0.873549,-0.457038,-0.141604,-0.045487,-0.056517,-0.019801,,,,,,,,,,,,,,,,,,,,,,,,,,,,,,,,,,,,,,,,,,,,,,,,,,,,,,,,,,,,,,,,,
8637,1650413576.819809,1650413576.856916,33.0,0.0,4201.538574,4604.615234000001,4247.692383,4281.538574,4140.512695,0.0,3.0,73.0,,,,0.0,4.0,0.0,4.0,0.0,4.0,33.333332,,,,,,,,,,,,,,,,,,,,,,,,,,,,,,,,,,,,,,,,,,,,,,,,,,,,,,0.0,0.0,1.0,0.0,512.0,1.0,,,,,,,,,,,,,,,,,,,,,,,,,
8638,1650413576.8276231,1650413576.864731,34.0,0.0,4189.230957,4637.94873,4225.128418,4281.538574,4128.717772999999,0.0,3.0,73.0,,,,0.0,4.0,0.0,4.0,0.0,4.0,33.333332,,,,,,,,17.0,0.0,0.27816199999999996,-0.42333999999999994,0.49902299999999994,0.703125,0.8759899999999999,-0.46778100000000006,-0.145022,-0.045626,-0.056528999999999996,-0.017723,,,,,,,,,,,,,,,,,,,,,,,,,,,,,,,,,,,,,,,,,,,,,,,,,,,,,,,,,,,,,,,,,
8639,1650413576.835438,1650413576.872446,35.0,0.0,4217.436035,4598.974121,4235.384765999999,4281.538574,4155.897461,0.0,3.0,73.0,,,,0.0,4.0,0.0,4.0,0.0,4.0,33.333332,,,,,,,,,,,,,,,,,,,,,,,,,,,,,,,,,,,,,,,,,,,,,,,,,,,,,,,,,,,,,,,,,,,,,,,,,,,,,,,,,,,,
8640,1650413576.843253,1650413576.880261,36.0,0.0,4232.307617,4553.846191,4257.94873,4281.538574,4171.282227000001,0.0,3.0,73.0,,,,0.0,4.0,0.0,4.0,0.0,4.0,33.333332,,,,,,,,18.0,0.0,0.27779,-0.423584,0.49902299999999994,0.703125,0.874525,-0.46924499999999997,-0.155276,-0.044286,-0.056491999999999994,-0.01932,,,,,,,,,,,,,,,,,,,,,,,,,,,,,,,,,,,,,,,,,,,,,,,,,,,,,,,,,,,,,,,,,
8641,1650413576.851067,1650413576.888176,37.0,0.0,4223.077147999999,4572.307617,4237.94873,4281.538574,4149.230957,0.0,3.0,73.0,,,,0.0,4.0,0.0,4.0,0.0,4.0,33.333332,,,,,,,,,,,,,,,,,,,,,,,,,,,,,,,,,,,,,,,,,,,,,,,,,,,,,,0.0,0.0,1.0,0.0,512.0,1.0,,,,,,,,,,,,,,,,,,,,,,,,,
8642,1650413576.858882,1650413576.8959901,38.0,0.0,4227.692383,4615.384765999999,4235.897461,4281.538574,4160.0,0.0,3.0,73.0,,,,0.0,4.0,0.0,4.0,0.0,4.0,33.333332,,,,,,,,19.0,0.0,0.278845,-0.423584,0.498779,0.7028810000000001,0.8798959999999999,-0.47901099999999996,-0.153811,-0.043177999999999994,-0.056603999999999995,-0.020659999999999998,,,,,,,,,,,,,,,,,,,,,,,,,,,,,,,,,,,,,,,,,,,,,,,,,,,,,,,,,,,,,,,,,
8643,1650413576.8666961,1650413576.903805,39.0,0.0,4238.974121,4643.589844,4257.436035,4281.538574,4190.256348,0.0,3.0,73.0,,,,0.0,4.0,0.0,4.0,0.0,4.0,33.333332,,,,,,,,,,,,,,,,,,,,,,,,,,,,,,,,,,,,,,,,,,,,,,,,,,,,,,,,,,,,,,,,,,,,,,,,,,,,,,,,,,,,
8644,1650413576.87451,1650413576.91172,40.0,0.0,4226.666504,4626.153809,4229.743652,4281.538574,4170.769043,0.0,3.0,73.0,,,,0.0,4.0,0.0,4.0,0.0,4.0,33.333332,,,,,,,,20.0,0.0,0.278407,-0.423584,0.49902299999999994,0.7028810000000001,0.87892,-0.46533900000000006,-0.144045,-0.043499,-0.05670599999999999,-0.021963,,,,,,,,,,,,,,,,,,,,,,,,,,,,,,,,,,,,,,,,,,,,,,,,,,,,,,,,,,,,,,,,,
8645,1650413576.882325,1650413576.919535,41.0,0.0,4205.641113000001,4577.436035,4193.333496,4281.538574,4132.307617,0.0,3.0,73.0,,,,0.0,4.0,0.0,4.0,0.0,4.0,33.333332,,,,,,,,,,,,,,,,,,,,1.0,0.0,0.0,,,,,,,,,,,,,,,,,,,,,,,,,,,,,,,,0.0,0.0,1.0,0.0,512.0,1.0,232.919342,32.944069,10.969745,2.4049650000000002,2.15417,13.774165,21.142070999999998,20.688599,16.658369,12.191286,3.944866,0.862554,1.7798150000000001,1.313644,1.634678,0.14768299999999998,0.031611,0.008608,0.004351,0.008307,181.087433,29.073332,8.646587,4.055079,2.695105
8646,1650413576.890139,1650413576.92725,42.0,0.0,4207.179688,4564.615234000001,4209.230957,4281.538574,4139.487305,0.0,3.0,73.0,,,,0.0,4.0,0.0,4.0,0.0,4.0,33.333332,,,,,,,,21.0,0.0,0.278407,-0.423584,0.49902299999999994,0.7028810000000001,0.8808729999999999,-0.466316,-0.14551,-0.043836,-0.056748,-0.023038,,,,,,,,,,,,,,,,,,,,,,,,,,,,,,,,,,,,,,,,,,,,,,,,,,,,,,,,,,,,,,,,,
8647,1650413576.897954,1650413576.935065,43.0,0.0,4235.384765999999,4581.025879,4238.461426,4281.538574,4173.846191,0.0,3.0,73.0,,,,0.0,4.0,0.0,4.0,0.0,4.0,33.333332,,,,,,,,,,,,,,,,,,,,,,,,,,,,,,,,,,,,,,,,,,,,,,,,,,,,,,,,,,,,,,,,,,,,,,,,,,,,,,,,,,,,
8648,1650413576.9057689,1650413576.94278,44.0,0.0,4236.922852000001,4586.153809,4231.282227000001,4281.538574,4167.692383,0.0,3.0,73.0,,,,0.0,4.0,0.0,4.0,0.0,4.0,33.333332,,,,,,,,22.0,0.0,0.278407,-0.423584,0.49902299999999994,0.7028810000000001,0.8740370000000001,-0.461921,-0.129885,-0.04414,-0.056786,-0.023957,,,,,,,,,,,,,,,,,,,,,,,,,,,,,,,,,,,,,,,,,,,,,,,,,,,,,,,,,,,,,,,,,
8649,1650413576.913583,1650413576.950595,45.0,0.0,4208.717772999999,4604.102539,4206.153809,4281.538574,4136.410156,0.0,3.0,73.0,,,,0.0,4.0,0.0,4.0,0.0,4.0,33.333332,,,,,,,,,,,,,,,,,,,,,,,,,,,,,,,,,,,,,,,,,,,,,,,,,,,,,,0.0,0.0,1.0,0.0,512.0,1.0,,,,,,,,,,,,,,,,,,,,,,,,,
8650,1650413576.9213982,1650413576.95831,46.0,0.0,4202.05127,4634.871582,4193.846191,4281.538574,4129.743652,0.0,3.0,73.0,,,,0.0,4.0,0.0,4.0,0.0,4.0,33.333332,,,,,,,,23.0,0.0,0.278407,-0.423584,0.49902299999999994,0.7028810000000001,0.882338,-0.457038,-0.138186,-0.044414,-0.056723,-0.024833,,,,,,,,,,,,,,,,,,,,,,,,,,,,,,,,,,,,,,,,,,,,,,,,,,,,,,,,,,,,,,,,,
8651,1650413576.9292119,1650413576.966125,47.0,0.0,4227.692383,4650.256348,4210.256348,4281.538574,4153.846191,0.0,3.0,73.0,,,,0.0,4.0,0.0,4.0,0.0,4.0,33.333332,,,,,,,,,,,,,,,,,,,,,,,,,,,,,,,,,,,,,,,,,,,,,,,,,,,,,,,,,,,,,,,,,,,,,,,,,,,,,,,,,,,,
8652,1650413576.937027,1650413576.97384,48.0,0.0,4242.563965,4662.563965,4236.410156,4281.538574,4170.769043,0.0,3.0,73.0,,,,0.0,4.0,0.0,4.0,0.0,4.0,33.333332,,,,,,,,24.0,0.0,0.278407,-0.423584,0.49902299999999994,0.7028810000000001,0.887709,-0.466804,-0.146975,-0.044758,-0.056813,-0.022300999999999998,,,,,,,,,,,,,,,,,,,,,,,,,,,,,,,,,,,,,,,,,,,,,,,,,,,,,,,,,,,,,,,,,
8653,1650413576.944841,1650413576.981654,49.0,0.0,4224.615234000001,4641.025879,4231.282227000001,4281.538574,4164.102539,0.0,3.0,73.0,,,,0.0,4.0,0.0,4.0,0.0,4.0,33.333332,,,,,,,,,,,,,,,,,,,,,,,,,,,,,,,,,,,,,,,,,,,,,,,,,,,,,,0.0,0.0,1.0,0.0,512.0,1.0,,,,,,,,,,,,,,,,,,,,,,,,,
8654,1650413576.952656,1650413576.989369,50.0,0.0,4209.230957,4604.615234000001,4209.230957,4281.538574,4160.512695,0.0,3.0,73.0,,,,0.0,4.0,0.0,4.0,0.0,4.0,33.333332,,,,,,,,25.0,0.0,0.278845,-0.423584,0.498779,0.7028810000000001,0.876967,-0.471199,-0.14257999999999998,-0.043552999999999994,-0.056795000000000005,-0.023489,,,,,,,,,,,,,,,,,,,,,,,,,,,,,,,,,,,,,,,,,,,,,,,,,,,,,,,,,,,,,,,,,
8655,1650413576.96047,1650413576.997284,51.0,0.0,4218.461426,4620.512695,4204.615234000001,4281.538574,4172.307617,0.0,3.0,73.0,,,,0.0,4.0,0.0,4.0,0.0,4.0,33.333332,,,,,,,,,,,,,,,,,,,,,,,,,,,,,,,,,,,,,,,,,,,,,,,,,,,,,,,,,,,,,,,,,,,,,,,,,,,,,,,,,,,,
8656,1650413576.9682848,1650413577.005199,52.0,0.0,4246.153809,4664.102539,4221.025879,4281.538574,4191.794922,0.0,3.0,73.0,,,,0.0,4.0,0.0,4.0,0.0,4.0,33.333332,,,,,,,,26.0,0.0,0.278845,-0.423584,0.498779,0.7028810000000001,0.889174,-0.477058,-0.154788,-0.043886,-0.056731,-0.024411000000000002,,,,,,,,,,,,,,,,,,,,,,,,,,,,,,,,,,,,,,,,,,,,,,,,,,,,,,,,,,,,,,,,,
8657,1650413576.976099,1650413577.013014,53.0,0.0,4255.897461,4654.358886999999,4231.794922,4281.538574,4184.615234000001,0.0,3.0,73.0,,,,0.0,4.0,0.0,4.0,0.0,4.0,33.333332,,,,,,,,,,,,,,,,,,,,,,,,,,,,,,,,,,,,,,,,,,,,,,,,,,,,,,0.0,0.0,1.0,0.0,512.0,1.0,,,,,,,,,,,,,,,,,,,,,,,,,
8658,1650413576.9839141,1650413577.020829,54.0,0.0,4230.256348,4602.563965,4219.487305,4281.538574,4167.179688,0.0,3.0,73.0,,,,0.0,4.0,0.0,4.0,0.0,4.0,33.333332,,,,,,,,27.0,0.0,0.278845,-0.423584,0.498779,0.7028810000000001,0.8842909999999999,-0.46533900000000006,-0.157717,-0.044185,-0.056625,-0.01904,,,,,,,,,,,,,,,,,,,,,,,,,,,,,,,,,,,,,,,,,,,,,,,,,,,,,,,,,,,,,,,,,
8659,1650413576.9917278,1650413577.028744,55.0,0.0,4233.846191,4573.846191,4217.436035,4281.538574,4199.487305,0.0,3.0,73.0,,,,0.0,4.0,0.0,4.0,0.0,4.0,33.333332,,,,,,,,,,,,,,,,,,,,,,,,,,,,,,,,,,,,,,,,,,,,,,,,,,,,,,,,,,,,,,,,,,,,,,,,,,,,,,,,,,,,
8660,1650413576.999543,1650413577.036558,56.0,0.0,4268.205078,4580.0,4234.358886999999,4281.538574,4230.769043,0.0,3.0,73.0,,,,0.0,4.0,0.0,4.0,0.0,4.0,33.333332,,,,,,,,28.0,0.0,0.278845,-0.423584,0.498779,0.7028810000000001,0.8759899999999999,-0.47608100000000003,-0.146975,-0.044405,-0.056675,-0.02324,,,,,,,,,,,,,,,,,,,,,,,,,,,,,,,,,,,,,,,,,,,,,,,,,,,,,,,,,,,,,,,,,
8661,1650413577.0073571,1650413577.044473,57.0,0.0,4251.282227000001,4581.025879,4228.717772999999,4281.538574,4197.94873,0.0,3.0,73.0,,,,0.0,4.0,0.0,4.0,0.0,4.0,33.333332,,,,,,,,,,,,,,,,,,,,1.0,0.0,0.0,,,,,,,,,,,,,,,,,,,,,,,,,,,,,,,,0.0,0.0,1.0,0.0,512.0,1.0,209.619537,29.080365999999998,10.636194999999999,2.691461,2.019919,11.308626,18.528353,19.107364999999998,14.767648999999999,12.993443,4.655390000000001,0.979972,1.914641,1.294622,1.628718,0.131077,0.028544999999999997,0.008674,0.004997,0.008634000000000001,164.67756699999998,25.953966,8.371728,4.517681,2.476982
8662,1650413577.015172,1650413577.052288,58.0,0.0,4228.205078,4581.025879,4219.487305,4281.538574,4185.641113000001,0.0,3.0,73.0,,,,0.0,4.0,0.0,4.0,0.0,4.0,33.333332,,,,,,,,29.0,0.0,0.278845,-0.423584,0.498779,0.7028810000000001,0.8842909999999999,-0.462898,-0.152834,-0.043138,-0.056672,-0.024188,,,,,,,,,,,,,,,,,,,,,,,,,,,,,,,,,,,,,,,,,,,,,,,,,,,,,,,,,,,,,,,,,
8663,1650413577.022986,1650413577.0602028,59.0,0.0,4254.871582,4601.025879,4234.358886999999,4281.538574,4209.230957,0.0,3.0,73.0,,,,0.0,4.0,0.0,4.0,0.0,4.0,33.333332,,,,,,,,,,,,,,,,,,,,,,,,,,,,,,,,,,,,,,,,,,,,,,,,,,,,,,,,,,,,,,,,,,,,,,,,,,,,,,,,,,,,
8664,1650413577.030801,1650413577.068018,60.0,0.0,4248.717772999999,4594.871582,4232.307617,4281.538574,4187.692383,0.0,3.0,73.0,,,,0.0,4.0,0.0,4.0,0.0,4.0,33.333332,,,,,,,,30.0,0.0,0.278845,-0.423584,0.498779,0.7028810000000001,0.8842909999999999,-0.46533900000000006,-0.157717,-0.043463,-0.056718,-0.027824,,,,,,,,,,,,,,,,,,,,,,,,,,,,,,,,,,,,,,,,,,,,,,,,,,,,,,,,,,,,,,,,,
8665,1650413577.038615,1650413577.075933,61.0,0.0,4215.897461,4556.922852000001,4208.717772999999,4281.538574,4171.282227000001,0.0,3.0,73.0,,,,0.0,4.0,0.0,4.0,0.0,4.0,33.333332,,,,,,,,,,,,,,,,,,,,,,,,,,,,,,,,,,,,,,,,,,,,,,,,,,,,,,0.0,0.0,1.0,0.0,512.0,1.0,,,,,,,,,,,,,,,,,,,,,,,,,
8666,1650413577.04643,1650413577.0837471,62.0,0.0,4247.692383,4568.205078,4221.025879,4281.538574,4213.333496,0.0,3.0,73.0,,,,0.0,4.0,0.0,4.0,0.0,4.0,33.333332,,,,,,,,31.0,0.0,0.278845,-0.423584,0.498779,0.7028810000000001,0.8842909999999999,-0.462898,-0.152834,-0.042291,-0.05671,-0.028312999999999998,,,,,,,,,,,,,,,,,,,,,,,,,,,,,,,,,,,,,,,,,,,,,,,,,,,,,,,,,,,,,,,,,
8667,1650413577.054244,1650413577.091662,63.0,0.0,4276.922852000001,4585.641113000001,4251.282227000001,4281.538574,4230.769043,0.0,3.0,73.0,,,,0.0,4.0,0.0,4.0,0.0,4.0,33.333332,,,,,,,,,,,,,,,,,,,,,,,,,,,,,,,,,,,,,,,,,,,,,,,,,,,,,,,,,,,,,,,,,,,,,,,,,,,,,,,,,,,,
8668,1650413577.062059,1650413577.099477,64.0,0.0,4238.461426,4547.179688,4240.0,4281.538574,4194.358886999999,450.0,3.0,73.0,,,,0.0,4.0,0.0,4.0,0.0,4.0,33.333332,,,,,,,,32.0,0.0,0.278845,-0.423584,0.498779,0.7028810000000001,0.8813610000000001,-0.460945,-0.143069,-0.0427,-0.056752,-0.031536,,,,,,,,,,,,,,,,,,,,,,,,,,,,,,,,,,,,,,,,,,,,,,,,,,,,,,,,,,,,,,,,,
8669,1650413577.069873,1650413577.107192,65.0,0.0,4225.641113000001,4558.974121,4213.846191,4281.538574,4185.128418,450.0,3.0,73.0,,,,0.0,4.0,0.0,4.0,0.0,4.0,33.333332,,,,,,,,,,,,,,,,,,,,,,,,,,,,,,,,,,,,,,,,,,,,,,,,,,,,,,0.0,0.0,1.0,0.0,512.0,1.0,,,,,,,,,,,,,,,,,,,,,,,,,
8670,1650413577.077688,1650413577.115007,66.0,0.0,4260.0,4629.230957,4213.333496,4281.538574,4211.794922,16185.0,3.0,73.0,,,,0.0,4.0,0.0,4.0,0.0,4.0,33.333332,,,,,,,,33.0,0.0,0.278845,-0.423584,0.498779,0.7028810000000001,0.8838030000000001,-0.47657,-0.14257999999999998,-0.041604,-0.056692,-0.031654,,,,,,,,,,,,,,,,,,,,,,,,,,,,,,,,,,,,,,,,,,,,,,,,,,,,,,,,,,,,,,,,,
8671,1650413577.0855029,1650413577.1227221,67.0,0.0,4268.717772999999,4613.846191,4226.153809,4281.538574,4223.077147999999,450.0,3.0,73.0,,,,0.0,4.0,0.0,4.0,0.0,4.0,33.333332,,,,,,,,,,,,,,,,,,,,,,,,,,,,,,,,,,,,,,,,,,,,,,,,,,,,,,,,,,,,,,,,,,,,,,,,,,,,,,,,,,,,
8672,1650413577.093317,1650413577.130537,68.0,0.0,4251.282227000001,4578.461426,4228.205078,4281.538574,4208.205078,0.0,3.0,73.0,,,,0.0,4.0,0.0,4.0,0.0,4.0,33.333332,,,,,,,,34.0,0.0,0.278845,-0.423584,0.498779,0.7028810000000001,0.882826,-0.48096400000000006,-0.145998,-0.042229,-0.056687,-0.025657,,,,,,,,,,,,,,,,,,,,,,,,,,,,,,,,,,,,,,,,,,,,,,,,,,,,,,,,,,,,,,,,,
8673,1650413577.101132,1650413577.138252,69.0,0.0,4234.871582,4625.128418,4214.871582,4281.538574,4191.282227000001,450.0,3.0,73.0,,,,0.0,4.0,0.0,4.0,0.0,4.0,33.333332,,,,,,,,,,,,,,,,,,,,,,,,,,,,,,,,,,,,,,,,,,,,,,,,,,,,,,0.0,0.0,1.0,0.0,512.0,1.0,,,,,,,,,,,,,,,,,,,,,,,,,
8674,1650413577.108946,1650413577.146067,70.0,0.0,4242.05127,4618.461426,4212.820313,4281.538574,4203.589844,16112.0,3.0,73.0,,,,0.0,4.0,0.0,4.0,0.0,4.0,33.333332,,,,,,,,35.0,0.0,0.278845,-0.423584,0.498779,0.7028810000000001,0.8847790000000001,-0.46924499999999997,-0.145998,-0.042644999999999995,-0.056731,-0.026411,,,,,,,,,,,,,,,,,,,,,,,,,,,,,,,,,,,,,,,,,,,,,,,,,,,,,,,,,,,,,,,,,
8675,1650413577.11676,1650413577.1537821,71.0,0.0,4258.461426,4540.512695,4229.743652,4281.538574,4227.179688,450.0,3.0,73.0,,,,0.0,4.0,0.0,4.0,0.0,4.0,33.333332,,,,,,,,,,,,,,,,,,,,,,,,,,,,,,,,,,,,,,,,,,,,,,,,,,,,,,,,,,,,,,,,,,,,,,,,,,,,,,,,,,,,
8676,1650413577.124575,1650413577.1616962,72.0,0.0,4257.94873,4552.820313,4242.563965,4281.538574,4240.512695,450.0,3.0,73.0,,,,0.0,4.0,0.0,4.0,0.0,4.0,33.333332,,,,,,,,36.0,0.0,0.278845,-0.423584,0.498779,0.7028810000000001,0.878431,-0.46533900000000006,-0.144533,-0.043213999999999995,-0.05682,-0.026993,,,,,,,,,,,,,,,,,,,,,,,,,,,,,,,,,,,,,,,,,,,,,,,,,,,,,,,,,,,,,,,,,
8677,1650413577.132389,1650413577.1695108,73.0,0.0,4251.794922,4594.358886999999,4227.692383,4281.538574,4230.769043,0.0,3.0,73.0,,,,0.0,4.0,0.0,4.0,0.0,4.0,33.333332,1.0,25.0,3.0,0.0,4.0,0.0,3.0,,,,,,,,,,,,,1.0,0.0,0.0,,,,,,,,,,,,,,,,,,,,,,,,,,,,,,,,0.0,0.0,1.0,0.0,512.0,1.0,163.096375,21.888451,9.257056,2.878366,1.7778880000000001,9.041207,15.541035,16.562051999999998,12.934426,13.167259,5.073799,1.0523200000000001,1.8781,1.303618,1.5263200000000001,0.09977899999999999,0.022334,0.007784,0.005004,0.007825,129.583038,19.7966,7.377939,4.83867,2.201793
8678,1650413577.140204,1650413577.1774259,74.0,0.0,4258.461426,4581.025879,4215.384765999999,4281.538574,4210.256348,450.0,3.0,73.0,,,,0.0,4.0,0.0,4.0,0.0,4.0,33.333332,,,,,,,,37.0,0.0,0.278845,-0.423584,0.498779,0.7028810000000001,0.8813610000000001,-0.451667,-0.151369,-0.043581,-0.056704,-0.027565,,,,,,,,,,,,,,,,,,,,,,,,,,,,,,,,,,,,,,,,,,,,,,,,,,,,,,,,,,,,,,,,,
8679,1650413577.148018,1650413577.185241,75.0,0.0,4275.897461,4603.077147999999,4230.769043,4281.538574,4225.641113000001,16183.0,3.0,73.0,,,,0.0,4.0,0.0,4.0,0.0,4.0,33.333332,,,,,,,,,,,,,,,,,,,,,,,,,,,,,,,,,,,,,,,,,,,,,,,,,,,,,,,,,,,,,,,,,,,,,,,,,,,,,,,,,,,,
8680,1650413577.155833,1650413577.193156,76.0,0.0,4296.922852000001,4669.743652,4246.666504,4281.538574,4269.230957,450.0,3.0,73.0,,,,0.0,4.0,0.0,4.0,0.0,4.0,33.333332,,,,,,,,38.0,0.0,0.278407,-0.423584,0.49902299999999994,0.7028810000000001,0.8833139999999999,-0.46387399999999995,-0.143557,-0.043959,-0.056698,-0.024711,,,,,,,,,,,,,,,,,,,,,,,,,,,,,,,,,,,,,,,,,,,,,,,,,,,,,,,,,,,,,,,,,
8681,1650413577.1636481,1650413577.2009711,77.0,0.0,4291.282227000001,4689.230957,4251.794922,4281.538574,4271.282227000001,450.0,3.0,73.0,,,,0.0,4.0,0.0,4.0,0.0,4.0,33.333332,,,,,,,,,,,,,,,,,,,,,,,,,,,,,,,,,,,,,,,,,,,,,,,,,,,,,,0.0,0.0,1.0,0.0,512.0,1.0,,,,,,,,,,,,,,,,,,,,,,,,,
8682,1650413577.1714618,1650413577.208885,78.0,0.0,4255.897461,4644.615234000001,4239.487305,4281.538574,4229.743652,450.0,3.0,73.0,,,,0.0,4.0,0.0,4.0,0.0,4.0,33.333332,,,,,,,,39.0,0.0,0.278407,-0.423584,0.49902299999999994,0.7028810000000001,0.8847790000000001,-0.46533900000000006,-0.144045,-0.044348,-0.05664400000000001,-0.022191,,,,,,,,,,,,,,,,,,,,,,,,,,,,,,,,,,,,,,,,,,,,,,,,,,,,,,,,,,,,,,,,,
8683,1650413577.179277,1650413577.2167,79.0,0.0,4247.692383,4635.897461,4209.743652,4281.538574,4223.589844,16183.0,3.0,73.0,,,,0.0,4.0,0.0,4.0,0.0,4.0,33.333332,,,,,,,,,,,,,,,,,,,,,,,,,,,,,,,,,,,,,,,,,,,,,,,,,,,,,,,,,,,,,,,,,,,,,,,,,,,,,,,,,,,,
8684,1650413577.187091,1650413577.224615,80.0,0.0,4270.769043,4655.384765999999,4207.692383,4281.538574,4257.94873,450.0,3.0,73.0,,,,0.0,4.0,0.0,4.0,0.0,4.0,33.333332,,,,,,,,40.0,0.0,0.278407,-0.423584,0.49902299999999994,0.7028810000000001,0.873549,-0.468757,-0.13916199999999998,-0.044601,-0.056595000000000006,-0.023195,,,,,,,,,,,,,,,,,,,,,,,,,,,,,,,,,,,,,,,,,,,,,,,,,,,,,,,,,,,,,,,,,
8685,1650413577.194906,1650413577.23243,81.0,0.0,4283.589844,4650.256348,4234.358886999999,4281.538574,4272.307617,450.0,3.0,73.0,,,,0.0,4.0,0.0,4.0,0.0,4.0,33.333332,,,,,,,,,,,,,,,,,,,,,,,,,,,,,,,,,,,,,,,,,,,,,,,,,,,,,,0.0,0.0,1.0,0.0,512.0,1.0,,,,,,,,,,,,,,,,,,,,,,,,,
8686,1650413577.20272,1650413577.240345,82.0,0.0,4281.025879,4627.692383,4245.128418,4281.538574,4256.922852000001,450.0,3.0,73.0,,,,0.0,4.0,0.0,4.0,0.0,4.0,33.333332,,,,,,,,41.0,0.0,0.27779,-0.423584,0.49902299999999994,0.703125,0.891127,-0.48389399999999994,-0.143557,-0.045024,-0.05655,-0.020778,,,,,,,,,,,,,,,,,,,,,,,,,,,,,,,,,,,,,,,,,,,,,,,,,,,,,,,,,,,,,,,,,
8687,1650413577.210535,1650413577.24816,83.0,0.0,4267.179688,4598.974121,4232.307617,4281.538574,4236.922852000001,16183.0,3.0,73.0,,,,0.0,4.0,0.0,4.0,0.0,4.0,33.333332,,,,,,,,,,,,,,,,,,,,,,,,,,,,,,,,,,,,,,,,,,,,,,,,,,,,,,,,,,,,,,,,,,,,,,,,,,,,,,,,,,,,
8688,1650413577.218349,1650413577.256074,84.0,0.0,4253.846191,4580.0,4220.512695,4281.538574,4231.282227000001,450.0,3.0,73.0,,,,0.0,4.0,0.0,4.0,0.0,4.0,33.333332,,,,,,,,42.0,0.0,0.27779,-0.423584,0.49902299999999994,0.703125,0.874525,-0.48731199999999997,-0.135744,-0.045160000000000006,-0.056608000000000006,-0.018650999999999997,,,,,,,,,,,,,,,,,,,,,,,,,,,,,,,,,,,,,,,,,,,,,,,,,,,,,,,,,,,,,,,,,
8689,1650413577.226164,1650413577.263889,85.0,0.0,4253.846191,4571.282227000001,4220.512695,4281.538574,4234.871582,450.0,3.0,73.0,,,,0.0,4.0,0.0,4.0,0.0,4.0,33.333332,,,,,,,,,,,,,,,,,,,,,,,,,,,,,,,,,,,,,,,,,,,,,,,,,,,,,,0.0,0.0,1.0,0.0,512.0,1.0,,,,,,,,,,,,,,,,,,,,,,,,,
8690,1650413577.233978,1650413577.2716038,86.0,0.0,4258.461426,4579.487305,4232.820313,4281.538574,4250.769043,450.0,3.0,73.0,,,,0.0,4.0,0.0,4.0,0.0,4.0,33.333332,,,,,,,,43.0,0.0,0.27779,-0.423584,0.49902299999999994,0.703125,0.8969860000000001,-0.47071,-0.142092,-0.045332,-0.056563,-0.020009,,,,,,,,,,,,,,,,,,,,,,,,,,,,,,,,,,,,,,,,,,,,,,,,,,,,,,,,,,,,,,,,,
8691,1650413577.241793,1650413577.279419,87.0,0.0,4267.179688,4625.641113000001,4231.794922,4281.538574,4268.717772999999,16183.0,3.0,73.0,,,,0.0,4.0,0.0,4.0,0.0,4.0,33.333332,,,,,,,,,,,,,,,,,,,,,,,,,,,,,,,,,,,,,,,,,,,,,,,,,,,,,,,,,,,,,,,,,,,,,,,,,,,,,,,,,,,,
8692,1650413577.249607,1650413577.287134,88.0,0.0,4271.282227000001,4680.0,4206.153809,4281.538574,4260.0,450.0,3.0,73.0,,,,0.0,4.0,0.0,4.0,0.0,4.0,33.333332,,,,,,,,44.0,0.0,0.27822800000000003,-0.423584,0.498779,0.703125,0.885267,-0.48389399999999994,-0.146975,-0.043972000000000004,-0.056571,-0.021182,,,,,,,,,,,,,,,,,,,,,,,,,,,,,,,,,,,,,,,,,,,,,,,,,,,,,,,,,,,,,,,,,
8693,1650413577.257422,1650413577.294949,89.0,0.0,4270.256348,4653.846191,4212.307617,4281.538574,4253.846191,450.0,3.0,73.0,,,,0.0,4.0,0.0,4.0,0.0,4.0,33.333332,,,,,,,,,,,,,,,,,,,,1.0,0.0,0.0,,,,,,,,,,,,,,,,,,,,,,,,,,,,,,,,0.0,0.0,1.0,0.0,512.0,1.0,108.86905700000001,13.765235999999998,7.2956199999999995,2.918637,1.5538,7.931885,13.227151000000001,13.743013000000001,11.485696,12.635074000000001,5.16334,1.0592709999999999,1.68267,1.3267799999999998,1.3762889999999999,0.064287,0.014924000000000002,0.006145,0.004354,0.006144,87.828461,12.678994,5.982258,4.908191,1.988907
8694,1650413577.265236,1650413577.302664,90.0,0.0,4282.563965,4583.077147999999,4249.230957,4281.538574,4266.153809,450.0,3.0,73.0,,,,0.0,4.0,0.0,4.0,0.0,4.0,33.333332,,,,,,,,45.0,0.0,0.277856,-0.423828,0.498779,0.703125,0.889174,-0.4795,-0.157717,-0.044213999999999996,-0.056675,-0.019015,,,,,,,,,,,,,,,,,,,,,,,,,,,,,,,,,,,,,,,,,,,,,,,,,,,,,,,,,,,,,,,,,
8695,1650413577.273051,1650413577.3105788,91.0,0.0,4295.897461,4577.436035,4253.333496,4281.538574,4276.922852000001,16183.0,3.0,73.0,,,,0.0,4.0,0.0,4.0,0.0,4.0,33.333332,,,,,,,,,,,,,,,,,,,,,,,,,,,,,,,,,,,,,,,,,,,,,,,,,,,,,,,,,,,,,,,,,,,,,,,,,,,,,,,,,,,,
8696,1650413577.280865,1650413577.318394,92.0,0.0,4293.333496,4595.384765999999,4243.589844,4281.538574,4278.461426,450.0,3.0,73.0,,,,0.0,4.0,0.0,4.0,0.0,4.0,33.333332,,,,,,,,46.0,0.0,0.277856,-0.423828,0.498779,0.703125,0.876967,-0.472175,-0.14551,-0.04448,-0.05677000000000001,-0.020238,,,,,,,,,,,,,,,,,,,,,,,,,,,,,,,,,,,,,,,,,,,,,,,,,,,,,,,,,,,,,,,,,
8697,1650413577.28868,1650413577.326309,93.0,0.0,4288.205078,4606.666504,4250.769043,4281.538574,4271.794922,450.0,3.0,73.0,,,,0.0,4.0,0.0,4.0,0.0,4.0,33.333332,,,,,,,,,,,,,,,,,,,,,,,,,,,,,,,,,,,,,,,,,,,,,,,,,,,,,,0.0,0.0,1.0,0.0,512.0,1.0,,,,,,,,,,,,,,,,,,,,,,,,,
8698,1650413577.296494,1650413577.3341231,94.0,0.0,4288.205078,4632.307617,4250.769043,4281.538574,4273.333496,450.0,3.0,73.0,,,,0.0,4.0,0.0,4.0,0.0,4.0,33.333332,,,,,,,,47.0,0.0,0.277238,-0.423828,0.498779,0.7033689999999999,0.8921030000000001,-0.47559300000000004,-0.147951,-0.044719999999999996,-0.056708,-0.018019,,,,,,,,,,,,,,,,,,,,,,,,,,,,,,,,,,,,,,,,,,,,,,,,,,,,,,,,,,,,,,,,,
8699,1650413577.304309,1650413577.341938,95.0,0.0,4287.692383,4633.846191,4244.615234000001,4281.538574,4287.179688,16183.0,3.0,73.0,,,,0.0,4.0,0.0,4.0,0.0,4.0,33.333332,,,,,,,,,,,,,,,,,,,,,,,,,,,,,,,,,,,,,,,,,,,,,,,,,,,,,,,,,,,,,,,,,,,,,,,,,,,,,,,,,,,,
8700,1650413577.312123,1650413577.349653,96.0,0.0,4294.358886999999,4608.717772999999,4244.102539,4281.538574,4286.153809,450.0,3.0,73.0,,,,0.0,4.0,0.0,4.0,0.0,4.0,33.333332,,,,,,,,48.0,0.0,0.27822800000000003,-0.423584,0.498779,0.703125,0.8833139999999999,-0.47901099999999996,-0.144045,-0.043422,-0.056652999999999995,-0.019538,,,,,,,,,,,,,,,,,,,,,,,,,,,,,,,,,,,,,,,,,,,,,,,,,,,,,,,,,,,,,,,,,
8701,1650413577.3199382,1650413577.357568,97.0,0.0,4303.077147999999,4608.717772999999,4244.615234000001,4281.538574,4276.410156,450.0,3.0,73.0,,,,0.0,4.0,0.0,4.0,0.0,4.0,33.333332,,,,,,,,,,,,,,,,,,,,,,,,,,,,,,,,,,,,,,,,,,,,,,,,,,,,,,0.0,0.0,1.0,0.0,512.0,1.0,,,,,,,,,,,,,,,,,,,,,,,,,
8702,1650413577.3277519,1650413577.365383,98.0,0.0,4307.692383,4611.282227000001,4253.846191,4281.538574,4299.487305,450.0,3.0,73.0,,,,0.0,4.0,0.0,4.0,0.0,4.0,33.333332,,,,,,,,49.0,0.0,0.27822800000000003,-0.423584,0.498779,0.703125,0.8764780000000001,-0.457527,-0.139651,-0.043913,-0.056651,-0.020904,,,,,,,,,,,,,,,,,,,,,,,,,,,,,,,,,,,,,,,,,,,,,,,,,,,,,,,,,,,,,,,,,
8703,1650413577.335567,1650413577.373198,99.0,0.0,4280.0,4580.512695,4236.922852000001,4281.538574,4291.794922,16183.0,3.0,73.0,,,,0.0,4.0,0.0,4.0,0.0,4.0,33.333332,,,,,,,,,,,,,,,,,,,,,,,,,,,,,,,,,,,,,,,,,,,,,,,,,,,,,,,,,,,,,,,,,,,,,,,,,,,,,,,,,,,,
8704,1650413577.3433821,1650413577.380913,100.0,0.0,4239.487305,4593.333496,4198.461426,4281.538574,4235.897461,450.0,3.0,73.0,,,,0.0,4.0,0.0,4.0,0.0,4.0,33.333332,,,,,,,,50.0,0.0,0.277856,-0.423828,0.498779,0.703125,0.8715950000000001,-0.473152,-0.138674,-0.044307,-0.056748,-0.018765,,,,,,,,,,,,,,,,,,,,,,,,,,,,,,,,,,,,,,,,,,,,,,,,,,,,,,,,,,,,,,,,,
8705,1650413577.351196,1650413577.388828,101.0,0.0,4254.871582,4622.05127,4214.871582,4281.538574,4243.077147999999,450.0,3.0,73.0,,,,0.0,4.0,0.0,4.0,0.0,4.0,33.333332,,,,,,,,,,,,,,,,,,,,,,,,,,,,,,,,,,,,,,,,,,,,,,,,,,,,,,0.0,0.0,1.0,0.0,512.0,1.0,,,,,,,,,,,,,,,,,,,,,,,,,
8706,1650413577.35901,1650413577.396642,102.0,0.0,4301.538574,4570.769043,4261.538574,4281.538574,4299.487305,450.0,3.0,73.0,,,,0.0,4.0,0.0,4.0,0.0,4.0,33.333332,,,,,,,,51.0,0.0,0.277856,-0.423828,0.498779,0.703125,0.8969860000000001,-0.482429,-0.144045,-0.044662,-0.056688999999999996,-0.013861000000000002,,,,,,,,,,,,,,,,,,,,,,,,,,,,,,,,,,,,,,,,,,,,,,,,,,,,,,,,,,,,,,,,,
8707,1650413577.366825,1650413577.404557,103.0,0.0,4303.077147999999,4525.128418,4256.922852000001,4281.538574,4298.974121,16183.0,3.0,73.0,,,,0.0,4.0,0.0,4.0,0.0,4.0,33.333332,,,,,,,,,,,,,,,,,,,,,,,,,,,,,,,,,,,,,,,,,,,,,,,,,,,,,,,,,,,,,,,,,,,,,,,,,,,,,,,,,,,,
8708,1650413577.374639,1650413577.412372,104.0,0.0,4270.256348,4551.282227000001,4223.589844,4281.538574,4254.871582,450.0,3.0,73.0,,,,0.0,4.0,0.0,4.0,0.0,4.0,33.333332,,,,,,,,52.0,0.0,0.277856,-0.423828,0.498779,0.703125,0.881849,-0.466804,-0.155276,-0.044981,-0.056684000000000005,-0.015795,,,,,,,,,,,,,,,,,,,,,,,,,,,,,,,,,,,,,,,,,,,,,,,,,,,,,,,,,,,,,,,,,
8709,1650413577.382454,1650413577.420187,105.0,0.0,4282.563965,4572.820313,4232.307617,4281.538574,4269.230957,450.0,3.0,73.0,,,,0.0,4.0,0.0,4.0,0.0,4.0,33.333332,,,,,,,,,,,,,,,,,,,,1.0,0.0,0.0,,,,,,,,,,,,,,,,,,,,,,,,,,,,,,,,0.0,0.0,1.0,0.0,512.0,1.0,61.435607999999995,6.963135,5.304246,2.7863290000000003,1.4749940000000001,8.571417,12.013529,11.370273,10.596524,11.473308,5.004671,1.003549,1.395993,1.352286,1.254702,0.034318,0.008324,0.004220000000000001,0.003261,0.004117,50.848309,6.586542999999999,4.558668,4.667517,1.94233
8710,1650413577.390268,1650413577.427902,106.0,0.0,4309.743652,4575.897461,4252.307617,4281.538574,4319.487305,450.0,3.0,73.0,,,,0.0,4.0,0.0,4.0,0.0,4.0,33.333332,,,,,,,,53.0,0.0,0.27866599999999997,-0.423584,0.49853500000000006,0.703125,0.8657360000000001,-0.47608100000000003,-0.14257999999999998,-0.04517,-0.056728999999999995,-0.017536000000000003,,,,,,,,,,,,,,,,,,,,,,,,,,,,,,,,,,,,,,,,,,,,,,,,,,,,,,,,,,,,,,,,,
8711,1650413577.398083,1650413577.435716,107.0,0.0,4297.94873,4612.307617,4235.897461,4281.538574,4316.410156,16183.0,3.0,73.0,,,,0.0,4.0,0.0,4.0,0.0,4.0,33.333332,,,,,,,,,,,,,,,,,,,,,,,,,,,,,,,,,,,,,,,,,,,,,,,,,,,,,,,,,,,,,,,,,,,,,,,,,,,,,,,,,,,,
8712,1650413577.405898,1650413577.4434311,108.0,0.0,4285.128418,4639.487305,4216.922852000001,4281.538574,4287.179688,450.0,3.0,73.0,,,,0.0,4.0,0.0,4.0,0.0,4.0,33.333332,,,,,,,,54.0,0.0,0.278294,-0.423828,0.49853500000000006,0.703125,0.8964979999999999,-0.46045600000000003,-0.152346,-0.045439,-0.056671000000000006,-0.015587,,,,,,,,,,,,,,,,,,,,,,,,,,,,,,,,,,,,,,,,,,,,,,,,,,,,,,,,,,,,,,,,,
8713,1650413577.413712,1650413577.451246,109.0,0.0,4299.487305,4626.666504,4230.256348,4281.538574,4294.871582,450.0,3.0,73.0,,,,0.0,4.0,0.0,4.0,0.0,4.0,33.333332,,,,,,,,,,,,,,,,,,,,,,,,,,,,,,,,,,,,,,,,,,,,,,,,,,,,,,0.0,0.0,1.0,0.0,512.0,1.0,,,,,,,,,,,,,,,,,,,,,,,,,
8714,1650413577.421527,1650413577.45906,110.0,0.0,4313.333496,4616.922852000001,4239.487305,4281.538574,4318.974121,450.0,3.0,73.0,,,,0.0,4.0,0.0,4.0,0.0,4.0,33.333332,,,,,,,,55.0,0.0,0.277856,-0.423828,0.498779,0.703125,0.897963,-0.462898,-0.155764,-0.045582,-0.05657,-0.020132,,,,,,,,,,,,,,,,,,,,,,,,,,,,,,,,,,,,,,,,,,,,,,,,,,,,,,,,,,,,,,,,,
8715,1650413577.429341,1650413577.466775,111.0,0.0,4316.922852000001,4610.256348,4236.922852000001,4281.538574,4321.538574,16183.0,3.0,73.0,,,,0.0,4.0,0.0,4.0,0.0,4.0,33.333332,,,,,,,,,,,,,,,,,,,,,,,,,,,,,,,,,,,,,,,,,,,,,,,,,,,,,,,,,,,,,,,,,,,,,,,,,,,,,,,,,,,,
8716,1650413577.437156,1650413577.47459,112.0,0.0,4329.230957,4612.820313,4242.05127,4281.538574,4324.615234000001,450.0,3.0,73.0,,,,0.0,4.0,0.0,4.0,0.0,4.0,33.333332,,,,,,,,56.0,0.0,0.277856,-0.423828,0.498779,0.703125,0.885756,-0.47022200000000003,-0.156252,-0.045712,-0.056528999999999996,-0.021342,,,,,,,,,,,,,,,,,,,,,,,,,,,,,,,,,,,,,,,,,,,,,,,,,,,,,,,,,,,,,,,,,
8717,1650413577.44497,1650413577.482305,113.0,0.0,4331.282227000001,4616.922852000001,4239.487305,4281.538574,4330.256348,450.0,3.0,73.0,,,,0.0,4.0,0.0,4.0,0.0,4.0,33.333332,,,,,,,,,,,,,,,,,,,,,,,,,,,,,,,,,,,,,,,,,,,,,,,,,,,,,,0.0,0.0,1.0,0.0,512.0,1.0,,,,,,,,,,,,,,,,,,,,,,,,,
8718,1650413577.452785,1650413577.49012,114.0,0.0,4321.025879,4604.615234000001,4239.487305,4281.538574,4322.05127,450.0,3.0,73.0,,,,0.0,4.0,0.0,4.0,0.0,4.0,33.333332,,,,,,,,57.0,0.0,0.277856,-0.423828,0.498779,0.703125,0.8803850000000001,-0.47559300000000004,-0.14941600000000002,-0.045779,-0.056491,-0.022528,,,,,,,,,,,,,,,,,,,,,,,,,,,,,,,,,,,,,,,,,,,,,,,,,,,,,,,,,,,,,,,,,
8719,1650413577.460599,1650413577.497835,115.0,0.0,4323.589844,4581.025879,4253.846191,4281.538574,4317.94873,16183.0,3.0,73.0,,,,0.0,4.0,0.0,4.0,0.0,4.0,33.333332,,,,,,,,,,,,,,,,,,,,,,,,,,,,,,,,,,,,,,,,,,,,,,,,,,,,,,,,,,,,,,,,,,,,,,,,,,,,,,,,,,,,
8720,1650413577.468414,1650413577.50565,116.0,0.0,4327.179688,4565.128418,4243.077147999999,4281.538574,4314.358886999999,450.0,3.0,73.0,,,,0.0,4.0,0.0,4.0,0.0,4.0,33.333332,,,,,,,,58.0,0.0,0.277856,-0.423828,0.498779,0.703125,0.897963,-0.462898,-0.155764,-0.045889,-0.056701,-0.023547,,,,,,,,,,,,,,,,,,,,,,,,,,,,,,,,,,,,,,,,,,,,,,,,,,,,,,,,,,,,,,,,,
8721,1650413577.476228,1650413577.513365,117.0,0.0,4313.846191,4593.333496,4226.153809,4281.538574,4301.025879,450.0,3.0,73.0,,,,0.0,4.0,0.0,4.0,0.0,4.0,33.333332,,,,,,,,,,,,,,,,,,,,,,,,,,,,,,,,,,,,,,,,,,,,,,,,,,,,,,0.0,0.0,1.0,0.0,512.0,1.0,,,,,,,,,,,,,,,,,,,,,,,,,
8722,1650413577.484043,1650413577.5211802,118.0,0.0,4298.974121,4625.128418,4236.922852000001,4281.538574,4288.205078,450.0,3.0,73.0,,,,0.0,4.0,0.0,4.0,0.0,4.0,33.333332,,,,,,,,59.0,0.0,0.277856,-0.423828,0.498779,0.703125,0.8803850000000001,-0.47559300000000004,-0.14941600000000002,-0.045939,-0.056647,-0.024512,,,,,,,,,,,,,,,,,,,,,,,,,,,,,,,,,,,,,,,,,,,,,,,,,,,,,,,,,,,,,,,,,
8723,1650413577.491857,1650413577.528895,119.0,0.0,4314.358886999999,4582.05127,4243.589844,4281.538574,4295.384765999999,16183.0,3.0,73.0,,,,0.0,4.0,0.0,4.0,0.0,4.0,33.333332,,,,,,,,,,,,,,,,,,,,,,,,,,,,,,,,,,,,,,,,,,,,,,,,,,,,,,,,,,,,,,,,,,,,,,,,,,,,,,,,,,,,
8724,1650413577.4996722,1650413577.53671,120.0,0.0,4323.077147999999,4525.128418,4226.666504,4281.538574,4301.025879,450.0,3.0,73.0,,,,0.0,4.0,0.0,4.0,0.0,4.0,33.333332,,,,,,,,60.0,0.0,0.277484,-0.424072,0.498779,0.703125,0.867201,-0.47071,-0.143557,-0.046081,-0.056597,-0.019229,,,,,,,,,,,,,,,,,,,,,,,,,,,,,,,,,,,,,,,,,,,,,,,,,,,,,,,,,,,,,,,,,
8725,1650413577.5074859,1650413577.544425,121.0,0.0,4291.794922,4575.384765999999,4213.333496,4281.538574,4294.358886999999,450.0,3.0,73.0,,,,0.0,4.0,0.0,4.0,0.0,4.0,33.333332,,,,,,,,,,,,,,,,,,,,1.0,0.0,0.0,,,,,,,,,,,,,,,,,,,,,,,,,,,,,,,,0.0,0.0,64.0,0.578238,1.0,0.0,29.434140999999997,2.731568,3.6874029999999998,2.501689,1.600963,10.847984,11.748171000000001,10.14034,10.291421000000001,9.906746,4.744382,0.9235399999999999,1.113644,1.3711309999999999,1.226477,0.015055,0.0038,0.002493,0.00206,0.00229,25.791534,2.680758,3.367263,4.1505529999999995,2.100587
8726,1650413577.515301,1650413577.55234,122.0,0.0,4278.974121,4649.230957,4210.256348,4281.538574,4293.846191,450.0,3.0,73.0,,,,0.0,4.0,0.0,4.0,0.0,4.0,33.333332,,,,,,,,61.0,0.0,0.277484,-0.424072,0.498779,0.703125,0.8642709999999999,-0.467292,-0.129885,-0.046258,-0.056553,-0.020578,,,,,,,,,,,,,,,,,,,,,,,,,,,,,,,,,,,,,,,,,,,,,,,,,,,,,,,,,,,,,,,,,
8727,1650413577.5231152,1650413577.560154,123.0,0.0,4301.025879,4609.230957,4210.769043,4281.538574,4292.307617,16183.0,3.0,73.0,,,,0.0,4.0,0.0,4.0,0.0,4.0,33.333332,,,,,,,,,,,,,,,,,,,,,,,,,,,,,,,,,,,,,,,,,,,,,,,,,,,,,,,,,,,,,,,,,,,,,,,,,,,,,,,,,,,,
8728,1650413577.53093,1650413577.568069,124.0,0.0,4312.820313,4569.743652,4224.615234000001,4281.538574,4303.589844,450.0,3.0,73.0,,,,0.0,4.0,0.0,4.0,0.0,4.0,33.333332,,,,,,,,62.0,0.0,0.276864,-0.424072,0.498779,0.7033689999999999,0.882338,-0.46924499999999997,-0.152346,-0.046271,-0.056464,-0.015590000000000001,,,,,,,,,,,,,,,,,,,,,,,,,,,,,,,,,,,,,,,,,,,,,,,,,,,,,,,,,,,,,,,,,
8729,1650413577.538744,1650413577.5758839,125.0,0.0,4304.615234000001,4600.512695,4231.282227000001,4281.538574,4321.538574,450.0,3.0,73.0,,,,0.0,4.0,0.0,4.0,0.0,4.0,33.333332,,,,,,,,,,,,,,,,,,,,,,,,,,,,,,,,,,,,,,,,,,,,,,,,,,,,,,0.0,0.0,64.0,0.578238,1.0,0.0,,,,,,,,,,,,,,,,,,,,,,,,,
8730,1650413577.546559,1650413577.5837991,126.0,0.0,4299.487305,4615.384765999999,4224.615234000001,4281.538574,4309.743652,450.0,3.0,73.0,,,,0.0,4.0,0.0,4.0,0.0,4.0,33.333332,,,,,,,,63.0,0.0,0.277304,-0.424072,0.49853500000000006,0.7033689999999999,0.870619,-0.479988,-0.143557,-0.046332,-0.056531,-0.017254,,,,,,,,,,,,,,,,,,,,,,,,,,,,,,,,,,,,,,,,,,,,,,,,,,,,,,,,,,,,,,,,,
8731,1650413577.554373,1650413577.591614,127.0,0.0,4290.256348,4578.461426,4229.230957,4281.538574,4287.179688,238.0,3.0,73.0,,,,0.0,4.0,0.0,4.0,0.0,4.0,33.333332,,,,,,,,,,,,,,,,,,,,,,,,,,,,,,,,,,,,,,,,,,,,,,,,,,,,,,,,,,,,,,,,,,,,,,,,,,,,,,,,,,,,
8732,1650413577.5621881,1650413577.5995288,0.0,0.0,4278.974121,4557.94873,4233.846191,4281.538574,4292.820313,450.0,3.0,73.0,,,,0.0,4.0,0.0,4.0,0.0,4.0,33.333332,,,,,,,,0.0,0.0,0.277304,-0.424072,0.49853500000000006,0.7033689999999999,0.874525,-0.484382,-0.147951,-0.046337,-0.056541999999999995,-0.01548,,,,,,,,,,,,,,,,,,,,,,,,,,,,,,,,,,,,,,,,,,,,,,,,,,,,,,,,,,,,,,,,,
8733,1650413577.5700018,1650413577.607343,1.0,0.0,4295.897461,4593.333496,4231.282227000001,4281.538574,4307.692383,450.0,3.0,73.0,,,,0.0,4.0,0.0,4.0,0.0,4.0,33.333332,,,,,,,,,,,,,,,,,,,,,,,,,,,,,,,,,,,,,,,,,,,,,,,,,,,,,,0.0,0.0,64.0,0.578238,1.0,0.0,,,,,,,,,,,,,,,,,,,,,,,,,
8734,1650413577.577817,1650413577.615258,2.0,0.0,4318.974121,4624.615234000001,4242.05127,4281.538574,4311.282227000001,16188.0,3.0,73.0,,,,0.0,4.0,0.0,4.0,0.0,4.0,33.333332,,,,,,,,1.0,0.0,0.277677,-0.423828,0.49853500000000006,0.7033689999999999,0.8798959999999999,-0.47657,-0.136721,-0.046488999999999996,-0.056503,-0.013784999999999999,,,,,,,,,,,,,,,,,,,,,,,,,,,,,,,,,,,,,,,,,,,,,,,,,,,,,,,,,,,,,,,,,
8735,1650413577.5856311,1650413577.623073,3.0,0.0,4314.871582,4626.153809,4244.102539,4281.538574,4313.333496,450.0,3.0,73.0,,,,0.0,4.0,0.0,4.0,0.0,4.0,33.333332,,,,,,,,,,,,,,,,,,,,,,,,,,,,,,,,,,,,,,,,,,,,,,,,,,,,,,,,,,,,,,,,,,,,,,,,,,,,,,,,,,,,
8736,1650413577.593446,1650413577.6309881,4.0,0.0,4301.538574,4606.153809,4229.743652,4281.538574,4309.743652,0.0,3.0,73.0,,,,0.0,4.0,0.0,4.0,0.0,4.0,33.333332,,,,,,,,2.0,0.0,0.277856,-0.423828,0.498779,0.703125,0.878431,-0.486336,-0.14648699999999998,-0.046576,-0.056517,-0.012309,,,,,,,,,,,,,,,,,,,,,,,,,,,,,,,,,,,,,,,,,,,,,,,,,,,,,,,,,,,,,,,,,
8737,1650413577.601261,1650413577.638803,5.0,0.0,4308.205078,4588.717772999999,4239.487305,4281.538574,4304.102539,450.0,3.0,73.0,,,,0.0,4.0,0.0,4.0,0.0,4.0,33.333332,,,,,,,,,,,,,,,,,,,,,,,,,,,,,,,,,,,,,,,,,,,,,,,,,,,,,,0.0,0.0,64.0,0.578238,1.0,0.0,,,,,,,,,,,,,,,,,,,,,,,,,
8738,1650413577.609075,1650413577.646718,6.0,0.0,4314.871582,4588.205078,4252.307617,4281.538574,4317.436035,16105.0,3.0,73.0,,,,0.0,4.0,0.0,4.0,0.0,4.0,33.333332,,,,,,,,3.0,0.0,0.277484,-0.424072,0.498779,0.703125,0.886244,-0.46338599999999996,-0.14551,-0.046704,-0.056627,-0.014252,,,,,,,,,,,,,,,,,,,,,,,,,,,,,,,,,,,,,,,,,,,,,,,,,,,,,,,,,,,,,,,,,
8739,1650413577.616889,1650413577.654532,7.0,0.0,4302.05127,4612.307617,4229.743652,4281.538574,4328.717772999999,450.0,3.0,73.0,,,,0.0,4.0,0.0,4.0,0.0,4.0,33.333332,,,,,,,,,,,,,,,,,,,,,,,,,,,,,,,,,,,,,,,,,,,,,,,,,,,,,,,,,,,,,,,,,,,,,,,,,,,,,,,,,,,,
8740,1650413577.624704,1650413577.662447,8.0,0.0,4305.128418,4620.512695,4213.333496,4281.538574,4330.256348,450.0,3.0,73.0,,,,0.0,4.0,0.0,4.0,0.0,4.0,33.333332,,,,,,,,4.0,0.0,0.277856,-0.423828,0.498779,0.703125,0.887709,-0.46826899999999994,-0.13135,-0.046672000000000005,-0.056628,-0.009995,,,,,,,,,,,,,,,,,,,,,,,,,,,,,,,,,,,,,,,,,,,,,,,,,,,,,,,,,,,,,,,,,
8741,1650413577.632518,1650413577.6702619,9.0,0.0,4329.230957,4576.922852000001,4236.410156,4281.538574,4334.871582,0.0,3.0,73.0,,,,0.0,4.0,0.0,4.0,0.0,4.0,33.333332,1.0,25.0,3.0,0.0,4.0,0.0,3.0,,,,,,,,,,,,,1.0,0.0,0.0,,,,,,,,,,,,,,,,,,,,,,,,,,,,,,,,0.0,0.0,64.0,0.454426,1.0,0.0,12.829756,0.9827170000000001,2.573177,2.142627,1.893618,13.940942000000001,12.044661999999999,10.396321,10.450096,8.242005,4.472196,0.8703649999999999,0.91637,1.383983,1.317149,0.005925,0.0014550000000000001,0.001253,0.001062,0.001009,12.869746000000001,0.964041,2.497358,3.472403,2.4226240000000003
8742,1650413577.640333,1650413577.6779768,10.0,0.0,4329.743652,4565.128418,4256.410156,4281.538574,4332.307617,450.0,3.0,73.0,,,,0.0,4.0,0.0,4.0,0.0,4.0,33.333332,,,,,,,,5.0,0.0,0.27810100000000004,-0.424072,0.498779,0.7028810000000001,0.8969860000000001,-0.464851,-0.148928,-0.046595,-0.05662999999999999,-0.012218000000000001,,,,,,,,,,,,,,,,,,,,,,,,,,,,,,,,,,,,,,,,,,,,,,,,,,,,,,,,,,,,,,,,,
8743,1650413577.648147,1650413577.685792,11.0,0.0,4307.179688,4603.077147999999,4242.563965,4281.538574,4314.358886999999,16201.0,3.0,73.0,,,,0.0,4.0,0.0,4.0,0.0,4.0,33.333332,,,,,,,,,,,,,,,,,,,,,,,,,,,,,,,,,,,,,,,,,,,,,,,,,,,,,,,,,,,,,,,,,,,,,,,,,,,,,,,,,,,,
8744,1650413577.655962,1650413577.693507,12.0,0.0,4306.666504,4618.974121,4224.615234000001,4281.538574,4319.487305,450.0,3.0,73.0,,,,0.0,4.0,0.0,4.0,0.0,4.0,33.333332,,,,,,,,6.0,0.0,0.277856,-0.423828,0.498779,0.703125,0.87892,-0.46778100000000006,-0.14941600000000002,-0.045108999999999996,-0.056630999999999994,-0.017197,,,,,,,,,,,,,,,,,,,,,,,,,,,,,,,,,,,,,,,,,,,,,,,,,,,,,,,,,,,,,,,,,
8745,1650413577.6637769,1650413577.701422,13.0,0.0,4329.230957,4603.077147999999,4230.769043,4281.538574,4346.153809,450.0,3.0,73.0,,,,0.0,4.0,0.0,4.0,0.0,4.0,33.333332,,,,,,,,,,,,,,,,,,,,,,,,,,,,,,,,,,,,,,,,,,,,,,,,,,,,,,0.0,0.0,64.0,0.454426,1.0,0.0,,,,,,,,,,,,,,,,,,,,,,,,,
8746,1650413577.671591,1650413577.7092369,14.0,0.0,4325.641113000001,4608.717772999999,4235.384765999999,4281.538574,4340.512695,450.0,3.0,73.0,,,,0.0,4.0,0.0,4.0,0.0,4.0,33.333332,,,,,,,,7.0,0.0,0.277856,-0.423828,0.498779,0.703125,0.8593879999999999,-0.46387399999999995,-0.144045,-0.045286,-0.056534,-0.018847,,,,,,,,,,,,,,,,,,,,,,,,,,,,,,,,,,,,,,,,,,,,,,,,,,,,,,,,,,,,,,,,,
8747,1650413577.6794062,1650413577.717052,15.0,0.0,4311.794922,4628.205078,4233.846191,4281.538574,4325.128418,16201.0,3.0,73.0,,,,0.0,4.0,0.0,4.0,0.0,4.0,33.333332,,,,,,,,,,,,,,,,,,,,,,,,,,,,,,,,,,,,,,,,,,,,,,,,,,,,,,,,,,,,,,,,,,,,,,,,,,,,,,,,,,,,
8748,1650413577.6872199,1650413577.724767,16.0,0.0,4312.820313,4608.717772999999,4235.384765999999,4281.538574,4325.128418,0.0,3.0,73.0,,,,0.0,4.0,0.0,4.0,0.0,4.0,33.333332,,,,,,,,8.0,0.0,0.277856,-0.423828,0.498779,0.703125,0.875502,-0.461921,-0.151858,-0.045494,-0.056398000000000004,-0.020283000000000002,,,,,,,,,,,,,,,,,,,,,,,,,,,,,,,,,,,,,,,,,,,,,,,,,,,,,,,,,,,,,,,,,
8749,1650413577.695035,1650413577.732681,17.0,0.0,4302.05127,4589.743652,4223.077147999999,4281.538574,4312.307617,0.0,3.0,73.0,,,,0.0,4.0,0.0,4.0,0.0,4.0,33.333332,,,,,,,,,,,,,,,,,,,,,,,,,,,,,,,,,,,,,,,,,,,,,,,,,,,,,,0.0,0.0,64.0,0.454426,1.0,0.0,,,,,,,,,,,,,,,,,,,,,,,,,
8750,1650413577.702849,1650413577.7404962,18.0,0.0,4298.461426,4591.282227000001,4225.128418,4281.538574,4312.820313,0.0,3.0,73.0,,,,0.0,4.0,0.0,4.0,0.0,4.0,33.333332,,,,,,,,9.0,0.0,0.277856,-0.423828,0.498779,0.703125,0.882338,-0.467292,-0.142092,-0.045534,-0.056423,-0.021526,,,,,,,,,,,,,,,,,,,,,,,,,,,,,,,,,,,,,,,,,,,,,,,,,,,,,,,,,,,,,,,,,
8751,1650413577.710664,1650413577.748411,19.0,0.0,4317.436035,4600.512695,4251.282227000001,4281.538574,4334.358886999999,0.0,3.0,73.0,,,,0.0,4.0,0.0,4.0,0.0,4.0,33.333332,,,,,,,,,,,,,,,,,,,,,,,,,,,,,,,,,,,,,,,,,,,,,,,,,,,,,,,,,,,,,,,,,,,,,,,,,,,,,,,,,,,,
8752,1650413577.718478,1650413577.756226,20.0,0.0,4323.589844,4614.871582,4256.922852000001,4281.538574,4339.487305,0.0,3.0,73.0,,,,0.0,4.0,0.0,4.0,0.0,4.0,33.333332,,,,,,,,10.0,0.0,0.277856,-0.423828,0.498779,0.703125,0.889174,-0.47363999999999995,-0.156252,-0.044252,-0.056445,-0.022791,,,,,,,,,,,,,,,,,,,,,,,,,,,,,,,,,,,,,,,,,,,,,,,,,,,,,,,,,,,,,,,,,
8753,1650413577.726293,1650413577.764141,21.0,0.0,4321.538574,4636.922852000001,4236.922852000001,4281.538574,4337.94873,0.0,3.0,73.0,,,,0.0,4.0,0.0,4.0,0.0,4.0,33.333332,,,,,,,,,,,,,,,,,,,,,,,,,,,,,,,,,,,,,,,,,,,,,,,,,,,,,,0.0,0.0,64.0,0.454426,1.0,0.0,,,,,,,,,,,,,,,,,,,,,,,,,
8754,1650413577.734107,1650413577.771956,22.0,0.0,4320.0,4621.025879,4230.256348,4281.538574,4336.410156,0.0,3.0,73.0,,,,0.0,4.0,0.0,4.0,0.0,4.0,33.333332,,,,,,,,11.0,0.0,0.277044,-0.424072,0.49902299999999994,0.703125,0.886244,-0.477546,-0.155276,-0.044612,-0.056513,-0.020413999999999998,,,,,,,,,,,,,,,,,,,,,,,,,,,,,,,,,,,,,,,,,,,,,,,,,,,,,,,,,,,,,,,,,
8755,1650413577.7419221,1650413577.77987,23.0,0.0,4305.641113000001,4584.615234000001,4235.897461,4281.538574,4309.743652,0.0,3.0,73.0,,,,0.0,4.0,0.0,4.0,0.0,4.0,33.333332,,,,,,,,,,,,,,,,,,,,,,,,,,,,,,,,,,,,,,,,,,,,,,,,,,,,,,,,,,,,,,,,,,,,,,,,,,,,,,,,,,,,
8756,1650413577.7497358,1650413577.787685,24.0,0.0,4302.05127,4586.666504,4231.794922,4281.538574,4309.230957,0.0,3.0,73.0,,,,0.0,4.0,0.0,4.0,0.0,4.0,33.333332,,,,,,,,12.0,0.0,0.277044,-0.424072,0.49902299999999994,0.703125,0.885756,-0.47803500000000004,-0.157717,-0.044789999999999996,-0.056477,-0.021741999999999997,,,,,,,,,,,,,,,,,,,,,,,,,,,,,,,,,,,,,,,,,,,,,,,,,,,,,,,,,,,,,,,,,
8757,1650413577.757551,1650413577.7956,25.0,0.0,4314.871582,4595.897461,4222.563965,4281.538574,4338.974121,0.0,3.0,73.0,,,,0.0,4.0,0.0,4.0,0.0,4.0,33.333332,,,,,,,,,,,,,,,,,,,,1.0,0.0,0.0,,,,,,,,,,,,,,,,,,,,,,,,,,,,,,,,0.0,0.0,1.0,0.0,512.0,0.9945959999999999,6.139302,0.663048,1.8736169999999999,1.8165919999999998,2.238571,16.880236,12.774782,11.866126,10.816875,6.7866539999999995,4.233025,0.873425,0.8337110000000001,1.390451,1.50033,0.0027140000000000003,0.000556,0.000536,0.000424,0.000323,7.847008,0.596951,1.9071150000000001,2.766864,2.8098650000000003
8758,1650413577.7653651,1650413577.803415,26.0,0.0,4304.102539,4607.179688,4210.256348,4281.538574,4330.256348,0.0,3.0,73.0,,,,0.0,4.0,0.0,4.0,0.0,4.0,33.333332,,,,,,,,13.0,0.0,0.277044,-0.424072,0.49902299999999994,0.703125,0.8916149999999999,-0.466804,-0.150881,-0.045194,-0.056396,-0.016443,,,,,,,,,,,,,,,,,,,,,,,,,,,,,,,,,,,,,,,,,,,,,,,,,,,,,,,,,,,,,,,,,
8759,1650413577.77318,1650413577.81133,27.0,0.0,4287.179688,4614.358886999999,4211.794922,4281.538574,4305.641113000001,0.0,3.0,73.0,,,,0.0,4.0,0.0,4.0,0.0,4.0,33.333332,,,,,,,,,,,,,,,,,,,,,,,,,,,,,,,,,,,,,,,,,,,,,,,,,,,,,,,,,,,,,,,,,,,,,,,,,,,,,,,,,,,,
8760,1650413577.780994,1650413577.819145,28.0,0.0,4303.589844,4592.820313,4225.641113000001,4281.538574,4304.102539,0.0,3.0,73.0,,,,0.0,4.0,0.0,4.0,0.0,4.0,33.333332,,,,,,,,14.0,0.0,0.276604,-0.424072,0.49926800000000005,0.703125,0.878431,-0.471199,-0.14941600000000002,-0.045362,-0.056372000000000005,-0.021,,,,,,,,,,,,,,,,,,,,,,,,,,,,,,,,,,,,,,,,,,,,,,,,,,,,,,,,,,,,,,,,,
8761,1650413577.788809,1650413577.82686,29.0,0.0,4310.769043,4583.077147999999,4230.256348,4281.538574,4313.333496,0.0,3.0,73.0,,,,0.0,4.0,0.0,4.0,0.0,4.0,33.333332,,,,,,,,,,,,,,,,,,,,,,,,,,,,,,,,,,,,,,,,,,,,,,,,,,,,,,0.0,0.0,1.0,0.0,512.0,0.9945959999999999,,,,,,,,,,,,,,,,,,,,,,,,,
8762,1650413577.796623,1650413577.8346741,30.0,0.0,4296.410156,4600.512695,4227.692383,4281.538574,4338.461426,0.0,3.0,73.0,,,,0.0,4.0,0.0,4.0,0.0,4.0,33.333332,,,,,,,,15.0,0.0,0.277044,-0.424072,0.49902299999999994,0.703125,0.885756,-0.47803500000000004,-0.157717,-0.044,-0.056399,-0.015921,,,,,,,,,,,,,,,,,,,,,,,,,,,,,,,,,,,,,,,,,,,,,,,,,,,,,,,,,,,,,,,,,
8763,1650413577.804438,1650413577.842389,31.0,0.0,4303.589844,4587.692383,4233.846191,4281.538574,4349.743652,0.0,3.0,73.0,,,,0.0,4.0,0.0,4.0,0.0,4.0,33.333332,,,,,,,,,,,,,,,,,,,,,,,,,,,,,,,,,,,,,,,,,,,,,,,,,,,,,,,,,,,,,,,,,,,,,,,,,,,,,,,,,,,,
8764,1650413577.812252,1650413577.850204,32.0,0.0,4322.05127,4586.153809,4240.512695,4281.538574,4328.205078,0.0,3.0,73.0,,,,0.0,4.0,0.0,4.0,0.0,4.0,33.333332,,,,,,,,16.0,0.0,0.276604,-0.424072,0.49926800000000005,0.703125,0.874525,-0.472663,-0.144045,-0.044287,-0.056472,-0.011351,,,,,,,,,,,,,,,,,,,,,,,,,,,,,,,,,,,,,,,,,,,,,,,,,,,,,,,,,,,,,,,,,
8765,1650413577.820067,1650413577.857919,33.0,0.0,4318.461426,4628.717772999999,4233.846191,4281.538574,4327.179688,0.0,3.0,73.0,,,,0.0,4.0,0.0,4.0,0.0,4.0,33.333332,,,,,,,,,,,,,,,,,,,,,,,,,,,,,,,,,,,,,,,,,,,,,,,,,,,,,,0.0,0.0,1.0,0.0,512.0,0.9945959999999999,,,,,,,,,,,,,,,,,,,,,,,,,
8766,1650413577.827881,1650413577.865834,34.0,0.0,4304.615234000001,4618.974121,4229.230957,4281.538574,4341.538574,0.0,3.0,73.0,,,,0.0,4.0,0.0,4.0,0.0,4.0,33.333332,,,,,,,,17.0,0.0,0.276604,-0.424072,0.49926800000000005,0.703125,0.8847790000000001,-0.48096400000000006,-0.147463,-0.044693000000000004,-0.056586000000000004,-0.013438,,,,,,,,,,,,,,,,,,,,,,,,,,,,,,,,,,,,,,,,,,,,,,,,,,,,,,,,,,,,,,,,,
8767,1650413577.835696,1650413577.8736491,35.0,0.0,4298.461426,4570.769043,4234.358886999999,4281.538574,4320.512695,0.0,3.0,73.0,,,,0.0,4.0,0.0,4.0,0.0,4.0,33.333332,,,,,,,,,,,,,,,,,,,,,,,,,,,,,,,,,,,,,,,,,,,,,,,,,,,,,,,,,,,,,,,,,,,,,,,,,,,,,,,,,,,,
8768,1650413577.8435109,1650413577.8815641,36.0,0.0,4293.846191,4576.410156,4238.461426,4281.538574,4301.538574,0.0,3.0,73.0,,,,0.0,4.0,0.0,4.0,0.0,4.0,33.333332,,,,,,,,18.0,0.0,0.276229,-0.42431599999999997,0.49926800000000005,0.703125,0.877943,-0.46973400000000004,-0.138186,-0.044911,-0.056542999999999996,-0.018296,,,,,,,,,,,,,,,,,,,,,,,,,,,,,,,,,,,,,,,,,,,,,,,,,,,,,,,,,,,,,,,,,
8769,1650413577.851325,1650413577.889379,37.0,0.0,4288.717772999999,4621.538574,4230.769043,4281.538574,4312.307617,0.0,3.0,73.0,,,,0.0,4.0,0.0,4.0,0.0,4.0,33.333332,,,,,,,,,,,,,,,,,,,,,,,,,,,,,,,,,,,,,,,,,,,,,,,,,,,,,,0.0,0.0,1.0,0.0,512.0,0.9945959999999999,,,,,,,,,,,,,,,,,,,,,,,,,
8770,1650413577.859139,1650413577.8972929,38.0,0.0,4304.102539,4646.666504,4225.128418,4281.538574,4333.846191,0.0,3.0,73.0,,,,0.0,4.0,0.0,4.0,0.0,4.0,33.333332,,,,,,,,19.0,0.0,0.276229,-0.42431599999999997,0.49926800000000005,0.703125,0.876967,-0.48340600000000006,-0.135256,-0.045107,-0.056651,-0.01964,,,,,,,,,,,,,,,,,,,,,,,,,,,,,,,,,,,,,,,,,,,,,,,,,,,,,,,,,,,,,,,,,
8771,1650413577.8669538,1650413577.905108,39.0,0.0,4322.563965,4622.563965,4240.512695,4281.538574,4348.717772999999,0.0,3.0,73.0,,,,0.0,4.0,0.0,4.0,0.0,4.0,33.333332,,,,,,,,,,,,,,,,,,,,,,,,,,,,,,,,,,,,,,,,,,,,,,,,,,,,,,,,,,,,,,,,,,,,,,,,,,,,,,,,,,,,
8772,1650413577.874768,1650413577.913023,40.0,0.0,4312.307617,4609.743652,4242.05127,4281.538574,4326.153809,0.0,3.0,73.0,,,,0.0,4.0,0.0,4.0,0.0,4.0,33.333332,,,,,,,,20.0,0.0,0.276229,-0.42431599999999997,0.49926800000000005,0.703125,0.878431,-0.477546,-0.144045,-0.045333,-0.056698,-0.023877000000000002,,,,,,,,,,,,,,,,,,,,,,,,,,,,,,,,,,,,,,,,,,,,,,,,,,,,,,,,,,,,,,,,,
8773,1650413577.882583,1650413577.920838,41.0,0.0,4297.94873,4636.410156,4233.846191,4281.538574,4310.256348,0.0,3.0,73.0,,,,0.0,4.0,0.0,4.0,0.0,4.0,33.333332,,,,,,,,,,,,,,,,,,,,1.0,0.0,0.0,,,,,,,,,,,,,,,,,,,,,,,,,,,,,,,,0.0,0.0,1.0,0.0,512.0,1.0,3.948458,0.6931430000000001,1.430334,1.611739,2.5049259999999998,18.887075,13.861004000000001,13.691258,11.080625,5.76941,3.985467,0.94165,0.840677,1.382226,1.71125,0.001469,0.00027,0.00020899999999999998,0.000129,6.500000000000001e-05,6.169249,0.659734,1.510192,2.162961,3.150937
8774,1650413577.890397,1650413577.928753,42.0,0.0,4308.205078,4661.025879,4243.589844,4281.538574,4337.94873,0.0,3.0,73.0,,,,0.0,4.0,0.0,4.0,0.0,4.0,33.333332,,,,,,,,21.0,0.0,0.276229,-0.42431599999999997,0.49926800000000005,0.703125,0.8774549999999999,-0.48926499999999995,-0.14990499999999998,-0.045438,-0.05664400000000001,-0.024761000000000002,,,,,,,,,,,,,,,,,,,,,,,,,,,,,,,,,,,,,,,,,,,,,,,,,,,,,,,,,,,,,,,,,
8775,1650413577.898212,1650413577.936568,43.0,0.0,4305.641113000001,4675.897461,4244.615234000001,4281.538574,4349.743652,0.0,3.0,73.0,,,,0.0,4.0,0.0,4.0,0.0,4.0,33.333332,,,,,,,,,,,,,,,,,,,,,,,,,,,,,,,,,,,,,,,,,,,,,,,,,,,,,,,,,,,,,,,,,,,,,,,,,,,,,,,,,,,,
8776,1650413577.906026,1650413577.944482,44.0,0.0,4296.922852000001,4628.205078,4240.0,4281.538574,4328.205078,0.0,3.0,73.0,,,,0.0,4.0,0.0,4.0,0.0,4.0,33.333332,,,,,,,,22.0,0.0,0.276229,-0.42431599999999997,0.49926800000000005,0.703125,0.871107,-0.464363,-0.14257999999999998,-0.045485000000000005,-0.05669299999999999,-0.025459,,,,,,,,,,,,,,,,,,,,,,,,,,,,,,,,,,,,,,,,,,,,,,,,,,,,,,,,,,,,,,,,,
8777,1650413577.913841,1650413577.952297,45.0,0.0,4311.282227000001,4574.358886999999,4247.179688,4281.538574,4315.897461,0.0,3.0,73.0,,,,0.0,4.0,0.0,4.0,0.0,4.0,33.333332,,,,,,,,,,,,,,,,,,,,,,,,,,,,,,,,,,,,,,,,,,,,,,,,,,,,,,0.0,0.0,1.0,0.0,512.0,1.0,,,,,,,,,,,,,,,,,,,,,,,,,
8778,1650413577.9216561,1650413577.960212,46.0,0.0,4320.0,4628.205078,4240.0,4281.538574,4332.820313,0.0,3.0,73.0,,,,0.0,4.0,0.0,4.0,0.0,4.0,33.333332,,,,,,,,23.0,0.0,0.275854,-0.42456099999999997,0.49926800000000005,0.703125,0.889174,-0.48389399999999994,-0.126467,-0.045721,-0.056687,-0.026136000000000003,,,,,,,,,,,,,,,,,,,,,,,,,,,,,,,,,,,,,,,,,,,,,,,,,,,,,,,,,,,,,,,,,
8779,1650413577.9294698,1650413577.9680269,47.0,0.0,4316.922852000001,4678.461426,4220.0,4281.538574,4356.922852000001,0.0,3.0,73.0,,,,0.0,4.0,0.0,4.0,0.0,4.0,33.333332,,,,,,,,,,,,,,,,,,,,,,,,,,,,,,,,,,,,,,,,,,,,,,,,,,,,,,,,,,,,,,,,,,,,,,,,,,,,,,,,,,,,
8780,1650413577.937285,1650413577.975942,48.0,0.0,4323.589844,4635.384765999999,4233.333496,4281.538574,4364.615234000001,0.0,3.0,73.0,,,,0.0,4.0,0.0,4.0,0.0,4.0,33.333332,,,,,,,,24.0,0.0,0.276229,-0.42431599999999997,0.49926800000000005,0.703125,0.8803850000000001,-0.45996800000000004,-0.144045,-0.045933999999999996,-0.056683000000000004,-0.023424,,,,,,,,,,,,,,,,,,,,,,,,,,,,,,,,,,,,,,,,,,,,,,,,,,,,,,,,,,,,,,,,,
8781,1650413577.945099,1650413577.983757,49.0,0.0,4315.897461,4621.538574,4238.461426,4281.538574,4332.307617,0.0,3.0,73.0,,,,0.0,4.0,0.0,4.0,0.0,4.0,33.333332,,,,,,,,,,,,,,,,,,,,,,,,,,,,,,,,,,,,,,,,,,,,,,,,,,,,,,0.0,0.0,1.0,0.0,512.0,1.0,,,,,,,,,,,,,,,,,,,,,,,,,
8782,1650413577.952914,1650413577.991671,50.0,0.0,4310.256348,4641.025879,4213.333496,4281.538574,4307.692383,0.0,3.0,73.0,,,,0.0,4.0,0.0,4.0,0.0,4.0,33.333332,,,,,,,,25.0,0.0,0.27685,-0.42431599999999997,0.49926800000000005,0.7028810000000001,0.882826,-0.47022200000000003,-0.145998,-0.044613,-0.05662999999999999,-0.024256,,,,,,,,,,,,,,,,,,,,,,,,,,,,,,,,,,,,,,,,,,,,,,,,,,,,,,,,,,,,,,,,,
8783,1650413577.960728,1650413577.999486,51.0,0.0,4332.820313,4590.256348,4220.512695,4281.538574,4330.256348,0.0,3.0,73.0,,,,0.0,4.0,0.0,4.0,0.0,4.0,33.333332,,,,,,,,,,,,,,,,,,,,,,,,,,,,,,,,,,,,,,,,,,,,,,,,,,,,,,,,,,,,,,,,,,,,,,,,,,,,,,,,,,,,
8784,1650413577.968543,1650413578.007201,52.0,0.0,4330.256348,4537.94873,4237.436035,4281.538574,4337.436035,0.0,3.0,73.0,,,,0.0,4.0,0.0,4.0,0.0,4.0,33.333332,,,,,,,,26.0,0.0,0.27685,-0.42431599999999997,0.49926800000000005,0.7028810000000001,0.89015,-0.472663,-0.145998,-0.044692,-0.056728999999999995,-0.025004,,,,,,,,,,,,,,,,,,,,,,,,,,,,,,,,,,,,,,,,,,,,,,,,,,,,,,,,,,,,,,,,,
8785,1650413577.976357,1650413578.015016,53.0,0.0,4308.205078,4552.820313,4230.256348,4281.538574,4335.384765999999,0.0,3.0,73.0,,,,0.0,4.0,0.0,4.0,0.0,4.0,33.333332,,,,,,,,,,,,,,,,,,,,,,,,,,,,,,,,,,,,,,,,,,,,,,,,,,,,,,0.0,0.0,1.0,0.0,512.0,1.0,,,,,,,,,,,,,,,,,,,,,,,,,
8786,1650413577.984172,1650413578.022731,54.0,0.0,4313.333496,4639.487305,4205.128418,4281.538574,4343.589844,0.0,3.0,73.0,,,,0.0,4.0,0.0,4.0,0.0,4.0,33.333332,,,,,,,,27.0,0.0,0.276034,-0.42456099999999997,0.499512,0.7028810000000001,0.8842909999999999,-0.48145299999999996,-0.135256,-0.044911,-0.056671000000000006,-0.022455000000000003,,,,,,,,,,,,,,,,,,,,,,,,,,,,,,,,,,,,,,,,,,,,,,,,,,,,,,,,,,,,,,,,,
8787,1650413577.991986,1650413578.0305462,55.0,0.0,4324.615234000001,4700.512695,4200.512695,4281.538574,4335.384765999999,0.0,3.0,73.0,,,,0.0,4.0,0.0,4.0,0.0,4.0,33.333332,,,,,,,,,,,,,,,,,,,,,,,,,,,,,,,,,,,,,,,,,,,,,,,,,,,,,,,,,,,,,,,,,,,,,,,,,,,,,,,,,,,,
8788,1650413577.999801,1650413578.038261,56.0,0.0,4322.05127,4661.538574,4224.615234000001,4281.538574,4315.897461,0.0,3.0,73.0,,,,0.0,4.0,0.0,4.0,0.0,4.0,33.333332,,,,,,,,28.0,0.0,0.276034,-0.42456099999999997,0.499512,0.7028810000000001,0.8740370000000001,-0.47608100000000003,-0.14990499999999998,-0.043642,-0.056619,-0.023481000000000002,,,,,,,,,,,,,,,,,,,,,,,,,,,,,,,,,,,,,,,,,,,,,,,,,,,,,,,,,,,,,,,,,
8789,1650413578.007615,1650413578.046076,57.0,0.0,4320.512695,4612.307617,4228.205078,4281.538574,4320.0,0.0,3.0,73.0,,,,0.0,4.0,0.0,4.0,0.0,4.0,33.333332,,,,,,,,,,,,,,,,,,,,1.0,0.0,0.0,,,,,,,,,,,,,,,,,,,,,,,,,,,,,,,,0.0,0.0,1.0,0.0,512.0,1.0,3.6349489999999998,0.757217,1.1551930000000001,1.56428,2.601696,19.54549,14.897599,14.912901000000002,10.973621000000001,5.251461,3.673325,1.07384,0.890424,1.3473549999999999,1.879203,0.0006360000000000001,0.000174,9.300000000000001e-05,4.3e-05,1.2e-05,5.527122,0.80257,1.26576,1.755797,3.353656
8790,1650413578.01543,1650413578.053791,58.0,0.0,4328.717772999999,4572.820313,4217.436035,4281.538574,4342.563965,0.0,3.0,73.0,,,,0.0,4.0,0.0,4.0,0.0,4.0,33.333332,,,,,,,,29.0,0.0,0.276034,-0.42456099999999997,0.499512,0.7028810000000001,0.8798959999999999,-0.468757,-0.144533,-0.042501,-0.056670000000000005,-0.024404,,,,,,,,,,,,,,,,,,,,,,,,,,,,,,,,,,,,,,,,,,,,,,,,,,,,,,,,,,,,,,,,,
8791,1650413578.023244,1650413578.0616062,59.0,0.0,4331.282227000001,4566.666504,4234.358886999999,4281.538574,4346.153809,0.0,3.0,73.0,,,,0.0,4.0,0.0,4.0,0.0,4.0,33.333332,,,,,,,,,,,,,,,,,,,,,,,,,,,,,,,,,,,,,,,,,,,,,,,,,,,,,,,,,,,,,,,,,,,,,,,,,,,,,,,,,,,,
8792,1650413578.031059,1650413578.0693212,60.0,0.0,4341.025879,4613.333496,4257.94873,4281.538574,4344.615234000001,0.0,3.0,73.0,,,,0.0,4.0,0.0,4.0,0.0,4.0,33.333332,,,,,,,,30.0,0.0,0.276034,-0.42456099999999997,0.499512,0.7028810000000001,0.8750129999999999,-0.472663,-0.160159,-0.043036000000000005,-0.056764999999999996,-0.025236,,,,,,,,,,,,,,,,,,,,,,,,,,,,,,,,,,,,,,,,,,,,,,,,,,,,,,,,,,,,,,,,,
8793,1650413578.038873,1650413578.077136,61.0,0.0,4348.717772999999,4609.230957,4238.461426,4281.538574,4342.05127,0.0,3.0,73.0,,,,0.0,4.0,0.0,4.0,0.0,4.0,33.333332,,,,,,,,,,,,,,,,,,,,,,,,,,,,,,,,,,,,,,,,,,,,,,,,,,,,,,0.0,0.0,1.0,0.0,512.0,1.0,,,,,,,,,,,,,,,,,,,,,,,,,
8794,1650413578.046688,1650413578.084851,62.0,0.0,4323.589844,4555.897461,4213.333496,4281.538574,4322.05127,0.0,3.0,73.0,,,,0.0,4.0,0.0,4.0,0.0,4.0,33.333332,,,,,,,,31.0,0.0,0.276034,-0.42456099999999997,0.499512,0.7028810000000001,0.8740370000000001,-0.47608100000000003,-0.14990499999999998,-0.041955,-0.056704,-0.025983,,,,,,,,,,,,,,,,,,,,,,,,,,,,,,,,,,,,,,,,,,,,,,,,,,,,,,,,,,,,,,,,,
8795,1650413578.054502,1650413578.092765,63.0,0.0,4318.461426,4590.769043,4235.384765999999,4281.538574,4328.717772999999,0.0,3.0,73.0,,,,0.0,4.0,0.0,4.0,0.0,4.0,33.333332,,,,,,,,,,,,,,,,,,,,,,,,,,,,,,,,,,,,,,,,,,,,,,,,,,,,,,,,,,,,,,,,,,,,,,,,,,,,,,,,,,,,
8796,1650413578.062317,1650413578.10058,64.0,0.0,4366.666504,4630.256348,4267.179688,4281.538574,4370.256348,450.0,3.0,73.0,,,,0.0,4.0,0.0,4.0,0.0,4.0,33.333332,,,,,,,,32.0,0.0,0.2761,-0.42480500000000004,0.49926800000000005,0.7028810000000001,0.882338,-0.47608100000000003,-0.147951,-0.042496,-0.056795000000000005,-0.020406999999999998,,,,,,,,,,,,,,,,,,,,,,,,,,,,,,,,,,,,,,,,,,,,,,,,,,,,,,,,,,,,,,,,,
8797,1650413578.070131,1650413578.1083949,65.0,0.0,4372.307617,4564.102539,4254.358886999999,4281.538574,4362.05127,450.0,3.0,73.0,,,,0.0,4.0,0.0,4.0,0.0,4.0,33.333332,,,,,,,,,,,,,,,,,,,,,,,,,,,,,,,,,,,,,,,,,,,,,,,,,,,,,,0.0,0.0,1.0,0.0,512.0,1.0,,,,,,,,,,,,,,,,,,,,,,,,,
8798,1650413578.0779462,1650413578.1161098,66.0,0.0,4312.307617,4521.025879,4211.282227000001,4281.538574,4304.102539,16194.0,3.0,73.0,,,,0.0,4.0,0.0,4.0,0.0,4.0,33.333332,,,,,,,,33.0,0.0,0.276721,-0.42480500000000004,0.49926800000000005,0.702637,0.879408,-0.47559300000000004,-0.146975,-0.042983,-0.056682,-0.021637,,,,,,,,,,,,,,,,,,,,,,,,,,,,,,,,,,,,,,,,,,,,,,,,,,,,,,,,,,,,,,,,,
8799,1650413578.0857599,1650413578.123925,67.0,0.0,4291.282227000001,4560.0,4190.256348,4281.538574,4294.358886999999,450.0,3.0,73.0,,,,0.0,4.0,0.0,4.0,0.0,4.0,33.333332,,,,,,,,,,,,,,,,,,,,,,,,,,,,,,,,,,,,,,,,,,,,,,,,,,,,,,,,,,,,,,,,,,,,,,,,,,,,,,,,,,,,
