,Timestamp,EEG.Counter,EEG.Interpolated,EEG.AF3,EEG.T7,EEG.Pz,EEG.T8,EEG.AF4,EEG.RawCq,EEG.Battery,EEG.BatteryPercent,MarkerIndex,MarkerType,MarkerValueInt,EEG.MarkerHardware,CQ.AF3,CQ.T7,CQ.Pz,CQ.T8,CQ.AF4,CQ.Overall,EQ.SampleRateQuality,EQ.OVERALL,EQ.AF3,EQ.T7,EQ.Pz,EQ.T8,EQ.AF4,MOT.CounterMems,MOT.InterpolatedMems,MOT.Q0,MOT.Q1,MOT.Q2,MOT.Q3,MOT.AccX,MOT.AccY,MOT.AccZ,MOT.MagX,MOT.MagY,MOT.MagZ,MC.Action,MC.ActionPower,MC.IsActive,PM.Engagement.IsActive,PM.Engagement.Scaled,PM.Engagement.Raw,PM.Engagement.Min,PM.Engagement.Max,PM.Excitement.IsActive,PM.Excitement.Scaled,PM.Excitement.Raw,PM.Excitement.Min,PM.Excitement.Max,PM.LongTermExcitement,PM.Stress.IsActive,PM.Stress.Scaled,PM.Stress.Raw,PM.Stress.Min,PM.Stress.Max,PM.Relaxation.IsActive,PM.Relaxation.Scaled,PM.Relaxation.Raw,PM.Relaxation.Min,PM.Relaxation.Max,PM.Interest.IsActive,PM.Interest.Scaled,PM.Interest.Raw,PM.Interest.Min,PM.Interest.Max,PM.Focus.IsActive,PM.Focus.Scaled,PM.Focus.Raw,PM.Focus.Min,PM.Focus.Max,FE.BlinkWink,FE.HorizontalEyesDirection,FE.UpperFaceAction,FE.UpperFaceActionPower,FE.LowerFaceAction,FE.LowerFaceActionPower,POW.AF3.Theta,POW.AF3.Alpha,POW.AF3.BetaL,POW.AF3.BetaH,POW.AF3.Gamma,POW.T7.Theta,POW.T7.Alpha,POW.T7.BetaL,POW.T7.BetaH,POW.T7.Gamma,POW.Pz.Theta,POW.Pz.Alpha,POW.Pz.BetaL,POW.Pz.BetaH,POW.Pz.Gamma,POW.T8.Theta,POW.T8.Alpha,POW.T8.BetaL,POW.T8.BetaH,POW.T8.Gamma,POW.AF4.Theta,POW.AF4.Alpha,POW.AF4.BetaL,POW.AF4.BetaH,POW.AF4.Gamma
40708,1645492597.417263,120.0,0.0,4275.897461,4294.871582,4141.025879,4153.846191,4247.179688,450.0,4.0,82.0,,,,0.0,4.0,1.0,4.0,4.0,4.0,75.0,,,,,,,,60.0,0.0,0.579252,-0.17114300000000002,0.6452640000000001,0.46777299999999994,0.909682,-0.417487,-0.11084200000000001,-0.033767,-0.037449,-0.02866,,,,,,,,,,,,,,,,,,,,,,,,,,,,,,,,,,,,,,,,,,,,,,,,,,,,,,,,,,,,,,,,,
40709,1645492597.425077,121.0,0.0,4247.179688,4305.641113000001,4131.794922,4121.025879,4196.410156,450.0,4.0,82.0,,,,0.0,4.0,1.0,4.0,4.0,4.0,75.0,,,,,,,,,,,,,,,,,,,,,,,,,,,,,,,,,,,,,,,,,,,,,,,,,,,,,,,,,,,,,,,,,,,,,,,,,,,,,,,,,,,,
40710,1645492597.4328911,122.0,0.0,4288.205078,4333.333496,4178.974121,4142.05127,4237.436035,450.0,4.0,82.0,,,,0.0,4.0,1.0,4.0,4.0,4.0,75.0,,,,,,,,61.0,0.0,0.579324,-0.170898,0.6452640000000001,0.46777299999999994,0.9194479999999999,-0.406256,-0.100587,-0.033808,-0.037415,-0.02472,,,,,,,,,,,,,,,,,,,,,,,,,,,,,,,,,,,0.0,0.0,1.0,0.0,512.0,1.0,,,,,,,,,,,,,,,,,,,,,,,,,
40711,1645492597.440705,123.0,0.0,4282.05127,4320.512695,4190.256348,4151.794922,4263.077147999999,16231.0,4.0,82.0,,,,0.0,4.0,1.0,4.0,4.0,4.0,75.0,,,,,,,,,,,,,,,,,,,,,,,,,,,,,,,,,,,,,,,,,,,,,,,,,,,,,,,,,,,,,,,,,,,,,,,,,,,,,,,,,,,,
40712,1645492597.448519,124.0,0.0,4249.230957,4314.871582,4176.922852000001,4144.102539,4232.307617,450.0,4.0,82.0,,,,0.0,4.0,1.0,4.0,4.0,4.0,75.0,,,,,,,,62.0,0.0,0.579596,-0.170898,0.6450199999999999,0.46777299999999994,0.917494,-0.41358100000000003,-0.114748,-0.033845,-0.037433999999999995,-0.027472000000000003,,,,,,,,,,,,,,,,,,,,,,,,,,,,,,,,,,,,,,,,,,,,,,,,,,,,,,,,,,,,,,,,,
40713,1645492597.456333,125.0,0.0,4235.897461,4335.384765999999,4172.820313,4133.333496,4220.0,450.0,4.0,82.0,,,,0.0,4.0,1.0,4.0,4.0,4.0,75.0,,,,,,,,,,,,,,,,,,,,,,,,,,,,,,,,,,,,,,,,,,,,,,,,,,,,,,,,,,,,,,,,,,,,,,,,,,,,,,,,,,,,
40714,1645492597.464148,126.0,0.0,4244.615234000001,4281.025879,4167.179688,4109.230957,4243.077147999999,450.0,4.0,82.0,,,,0.0,4.0,1.0,4.0,4.0,4.0,75.0,,,,,,,,63.0,0.0,0.5796680000000001,-0.170654,0.6450199999999999,0.46777299999999994,0.918959,-0.413092,-0.107912,-0.033732,-0.037401,-0.023553,1.0,0.0,0.0,,,,,,,,,,,,,,,,,,,,,,,,,,,,,,,,10.0,0.0,1.0,0.0,512.0,1.0,276.58056600000003,82.47393000000001,34.617123,30.961275,28.199654,235.90563999999998,141.655441,40.812744,31.87838,18.790820999999998,21.520346,10.194455,9.735892999999999,10.672609,18.705111,79.15943100000001,43.046783000000005,23.536526000000002,21.703888,24.643404,125.332718,44.825935,34.217037,26.159008,30.437687
40715,1645492597.471962,127.0,0.0,4263.589844,4203.589844,4176.410156,4091.281982,4255.897461,240.0,4.0,82.0,,,,0.0,4.0,1.0,4.0,4.0,4.0,75.0,,,,,,,,,,,,,,,,,,,,,,,,,,,,,,,,,,,,,,,,,,,,,,,,,,,,,,,,,,,,,,,,,,,,,,,,,,,,,,,,,,,,
40716,1645492597.479776,0.0,0.0,4278.974121,4263.077147999999,4205.641113000001,4128.717772999999,4260.0,450.0,4.0,82.0,,,,0.0,4.0,1.0,4.0,4.0,4.0,75.0,,,,,,,,0.0,0.0,0.579396,-0.170654,0.6452640000000001,0.46777299999999994,0.929702,-0.409674,-0.11767799999999999,-0.033777,-0.037372,-0.026179,,,,,,,,,,,,,,,,,,,,,,,,,,,,,,,,,,,,,,,,,,,,,,,,,,,,,,,,,,,,,,,,,
40717,1645492597.48749,1.0,0.0,4256.922852000001,4322.563965,4182.563965,4143.077147999999,4256.922852000001,450.0,4.0,82.0,,,,0.0,4.0,1.0,4.0,4.0,4.0,75.0,,,,,,,,,,,,,,,,,,,,,,,,,,,,,,,,,,,,,,,,,,,,,,,,,,,,,,,,,,,,,,,,,,,,,,,,,,,,,,,,,,,,
40718,1645492597.495305,2.0,0.0,4226.153809,4230.769043,4138.974121,4095.384521,4238.974121,16209.0,4.0,82.0,,,,0.0,4.0,1.0,4.0,4.0,4.0,75.0,,,,,,,,1.0,0.0,0.579396,-0.170654,0.6452640000000001,0.46777299999999994,0.917006,-0.41992799999999997,-0.109865,-0.033769,-0.037346,-0.022633,,,,,,,,,,,,,,,,,,,,,,,,,,,,,,,,,,,10.0,0.0,1.0,0.0,512.0,1.0,,,,,,,,,,,,,,,,,,,,,,,,,
40719,1645492597.503119,3.0,0.0,4293.333496,4218.461426,4214.358886999999,4143.077147999999,4298.974121,450.0,4.0,82.0,,,,0.0,4.0,1.0,4.0,4.0,4.0,75.0,,,,,,,,,,,,,,,,,,,,,,,,,,,,,,,,,,,,,,,,,,,,,,,,,,,,,,,,,,,,,,,,,,,,,,,,,,,,,,,,,,,,
40720,1645492597.5109339,4.0,0.0,4354.871582,4315.384765999999,4270.256348,4216.410156,4353.846191,154.0,4.0,82.0,,,,0.0,4.0,1.0,4.0,4.0,4.0,75.0,,,,,,,,2.0,0.0,0.579124,-0.170654,0.645508,0.46777299999999994,0.922377,-0.413092,-0.11084200000000001,-0.03381,-0.037176,-0.025497,,,,,,,,,,,,,,,,,,,,,,,,,,,,,,,,,,,,,,,,,,,,,,,,,,,,,,,,,,,,,,,,,
40721,1645492597.518748,5.0,0.0,4321.025879,4309.230957,4193.846191,4167.179688,4290.769043,450.0,4.0,82.0,,,,0.0,4.0,1.0,4.0,4.0,4.0,75.0,,,,,,,,,,,,,,,,,,,,,,,,,,,,,,,,,,,,,,,,,,,,,,,,,,,,,,,,,,,,,,,,,,,,,,,,,,,,,,,,,,,,
40722,1645492597.5265632,6.0,0.0,4310.256348,4257.94873,4158.461426,4145.641113000001,4249.743652,16090.0,4.0,82.0,,,,0.0,4.0,1.0,4.0,4.0,4.0,75.0,,,,,,,,3.0,0.0,0.579124,-0.170654,0.645508,0.46777299999999994,0.914565,-0.400397,-0.10498199999999999,-0.033993,-0.037218,-0.021775,,,,,,,,,,,,,,,,,,,,,,,,,,,,,,,,,,,10.0,0.0,1.0,0.0,512.0,1.0,,,,,,,,,,,,,,,,,,,,,,,,,
40723,1645492597.5343769,7.0,0.0,4333.333496,4270.769043,4202.563965,4207.179688,4281.025879,450.0,4.0,82.0,,,,0.0,4.0,1.0,4.0,4.0,4.0,75.0,,,,,,,,,,,,,,,,,,,,,,,,,,,,,,,,,,,,,,,,,,,,,,,,,,,,,,,,,,,,,,,,,,,,,,,,,,,,,,,,,,,,
40724,1645492597.542191,8.0,0.0,4340.512695,4286.666504,4218.461426,4227.179688,4317.436035,450.0,4.0,82.0,,,,0.0,4.0,1.0,4.0,4.0,4.0,75.0,,,,,,,,4.0,0.0,0.579052,-0.170898,0.645508,0.46777299999999994,0.9126120000000001,-0.42090500000000003,-0.11767799999999999,-0.034012,-0.037207,-0.018522999999999998,,,,,,,,,,,,,,,,,,,,,,,,,,,,,,,,,,,,,,,,,,,,,,,,,,,,,,,,,,,,,,,,,
40725,1645492597.5500062,9.0,0.0,4404.102539,4289.743652,4250.256348,4254.871582,4383.077147999999,16203.0,4.0,82.0,,,,0.0,4.0,1.0,4.0,4.0,4.0,75.0,,,,,,,,,,,,,,,,,,,,,,,,,,,,,,,,,,,,,,,,,,,,,,,,,,,,,,,,,,,,,,,,,,,,,,,,,,,,,,,,,,,,
40726,1645492597.55772,10.0,0.0,4466.666504,4298.461426,4283.077147999999,4298.461426,4437.436035,450.0,4.0,82.0,,,,0.0,4.0,1.0,4.0,4.0,4.0,75.0,,,,,,,,5.0,0.0,0.579052,-0.170898,0.645508,0.46777299999999994,0.908217,-0.41260399999999997,-0.1084,-0.03398,-0.037246,-0.021749,,,,,,,,,,,,,,,,,,,,,,,,,,,,,,,,,,,10.0,0.0,1.0,0.0,512.0,1.0,,,,,,,,,,,,,,,,,,,,,,,,,
40727,1645492597.565535,11.0,0.0,4380.0,4251.794922,4211.282227000001,4222.05127,4359.487305,16202.0,4.0,82.0,,,,0.0,4.0,1.0,4.0,4.0,4.0,75.0,,,,,,,,,,,,,,,,,,,,,,,,,,,,,,,,,,,,,,,,,,,,,,,,,,,,,,,,,,,,,,,,,,,,,,,,,,,,,,,,,,,,
40728,1645492597.57335,12.0,0.0,4300.0,4228.205078,4184.102539,4144.102539,4292.820313,450.0,4.0,82.0,,,,0.0,4.0,1.0,4.0,4.0,4.0,75.0,,,,,,,,6.0,0.0,0.57898,-0.17114300000000002,0.645508,0.46777299999999994,0.905776,-0.404791,-0.11230599999999999,-0.034,-0.037086,-0.018549,,,,,,,,,,,,,,,,,,,,,,,,,,,,,,,,,,,,,,,,,,,,,,,,,,,,,,,,,,,,,,,,,
40729,1645492597.5811641,13.0,0.0,4345.641113000001,4293.846191,4240.0,4178.974121,4345.128418,450.0,4.0,82.0,,,,0.0,4.0,1.0,4.0,4.0,4.0,75.0,,,,,,,,,,,,,,,,,,,,,,,,,,,,,,,,,,,,,,,,,,,,,,,,,,,,,,,,,,,,,,,,,,,,,,,,,,,,,,,,,,,,
40730,1645492597.588979,14.0,0.0,4325.641113000001,4301.025879,4204.102539,4156.410156,4320.512695,450.0,4.0,82.0,,,,0.0,4.0,1.0,4.0,4.0,4.0,75.0,,,,,,,,7.0,0.0,0.579177,-0.17114300000000002,0.645508,0.467529,0.9072399999999999,-0.417975,-0.11230599999999999,-0.034018,-0.037137,-0.02187,1.0,0.0,0.0,,,,,,,,,,,,,,,,,,,,,,,,,,,,,,,,10.0,0.0,1.0,0.0,512.0,1.0,253.73561099999998,77.31195100000001,33.627769,32.408367,29.513367,271.503632,162.3871,43.504574,34.337856,18.631193,29.210539,10.418391999999999,9.937318,11.565635,18.774687,102.228859,44.339615,23.466116,22.143604,26.118816,143.47929399999998,44.491318,33.202042,28.524241999999997,30.852287
40731,1645492597.596794,15.0,0.0,4235.897461,4240.0,4131.794922,4074.8718259999996,4215.384765999999,16202.0,4.0,82.0,,,,0.0,4.0,1.0,4.0,4.0,4.0,75.0,,,,,,,,,,,,,,,,,,,,,,,,,,,,,,,,,,,,,,,,,,,,,,,,,,,,,,,,,,,,,,,,,,,,,,,,,,,,,,,,,,,,
40732,1645492597.604608,16.0,0.0,4272.307617,4276.410156,4176.410156,4123.077147999999,4230.256348,0.0,4.0,82.0,,,,0.0,4.0,1.0,4.0,4.0,4.0,75.0,,,,,,,,8.0,0.0,0.578833,-0.17138699999999998,0.645752,0.467529,0.914076,-0.40576799999999996,-0.104005,-0.034082999999999995,-0.037135,-0.024908,,,,,,,,,,,,,,,,,,,,,,,,,,,,,,,,,,,,,,,,,,,,,,,,,,,,,,,,,,,,,,,,,
40733,1645492597.612423,17.0,0.0,4358.461426,4305.641113000001,4239.487305,4213.333496,4310.769043,0.0,4.0,82.0,,,,0.0,4.0,1.0,4.0,4.0,4.0,75.0,,,,,,,,,,,,,,,,,,,,,,,,,,,,,,,,,,,,,,,,,,,,,,,,,,,,,,,,,,,,,,,,,,,,,,,,,,,,,,,,,,,,
40734,1645492597.620238,18.0,0.0,4333.333496,4216.410156,4198.461426,4178.974121,4293.846191,0.0,4.0,82.0,,,,0.0,4.0,1.0,4.0,4.0,4.0,75.0,,,,,,,,9.0,0.0,0.578833,-0.17138699999999998,0.645752,0.467529,0.913588,-0.392584,-0.11816600000000001,-0.033995,-0.037181,-0.027445999999999998,,,,,,,,,,,,,,,,,,,,,,,,,,,,,,,,,,,0.0,0.0,1.0,0.0,512.0,1.0,,,,,,,,,,,,,,,,,,,,,,,,,
40735,1645492597.6279519,19.0,0.0,4274.871582,4195.897461,4136.922852000001,4109.743652,4216.410156,0.0,4.0,82.0,,,,0.0,4.0,1.0,4.0,4.0,4.0,75.0,,,,,,,,,,,,,,,,,,,,,,,,,,,,,,,,,,,,,,,,,,,,,,,,,,,,,,,,,,,,,,,,,,,,,,,,,,,,,,,,,,,,
40736,1645492597.635767,20.0,0.0,4244.615234000001,4265.128418,4121.538574,4076.923096,4172.820313,0.0,4.0,82.0,,,,0.0,4.0,1.0,4.0,4.0,4.0,75.0,,,,,,,,10.0,0.0,0.578757,-0.17138699999999998,0.645996,0.46728500000000006,0.9150530000000001,-0.409186,-0.11230599999999999,-0.033916,-0.037272,-0.023530000000000002,,,,,,,,,,,,,,,,,,,,,,,,,,,,,,,,,,,,,,,,,,,,,,,,,,,,,,,,,,,,,,,,,
40737,1645492597.643582,21.0,0.0,4221.538574,4260.0,4127.179688,4043.076904,4174.871582,0.0,4.0,82.0,,,,0.0,4.0,1.0,4.0,4.0,4.0,75.0,,,,,,,,,,,,,,,,,,,,,,,,,,,,,,,,,,,,,,,,,,,,,,,,,,,,,,,,,,,,,,,,,,,,,,,,,,,,,,,,,,,,
40738,1645492597.651396,22.0,0.0,4222.563965,4215.897461,4128.205078,4028.718018,4180.0,0.0,4.0,82.0,,,,0.0,4.0,1.0,4.0,4.0,4.0,75.0,,,,,,,,11.0,0.0,0.578485,-0.17138699999999998,0.6462399999999999,0.46728500000000006,0.918959,-0.41260399999999997,-0.10693499999999999,-0.033845,-0.0375,-0.026304,,,,,,,,,,,,,,,,,,,,,,,,,,,,,,,,,,,0.0,0.0,1.0,0.0,512.0,1.0,,,,,,,,,,,,,,,,,,,,,,,,,
40739,1645492597.659211,23.0,0.0,4202.05127,4214.358886999999,4113.846191,4024.102539,4137.94873,0.0,4.0,82.0,,,,0.0,4.0,1.0,4.0,4.0,4.0,75.0,,,,,,,,,,,,,,,,,,,,,,,,,,,,,,,,,,,,,,,,,,,,,,,,,,,,,,,,,,,,,,,,,,,,,,,,,,,,,,,,,,,,
40740,1645492597.667026,24.0,0.0,4172.307617,4201.538574,4113.333496,4011.281982,4118.974121,0.0,4.0,82.0,,,,0.0,4.0,1.0,4.0,4.0,4.0,75.0,,,,,,,,12.0,0.0,0.578288,-0.17138699999999998,0.6462399999999999,0.467529,0.9038219999999999,-0.42188100000000006,-0.087404,-0.033781,-0.037509,-0.028702999999999996,,,,,,,,,,,,,,,,,,,,,,,,,,,,,,,,,,,,,,,,,,,,,,,,,,,,,,,,,,,,,,,,,
40741,1645492597.67484,25.0,0.0,4228.717772999999,4191.794922,4143.589844,4050.256348,4190.256348,0.0,4.0,82.0,,,,0.0,4.0,1.0,4.0,4.0,4.0,75.0,,,,,,,,,,,,,,,,,,,,,,,,,,,,,,,,,,,,,,,,,,,,,,,,,,,,,,,,,,,,,,,,,,,,,,,,,,,,,,,,,,,,
40742,1645492597.682655,26.0,0.0,4246.153809,4229.743652,4133.333496,4083.076904,4204.615234000001,0.0,4.0,82.0,,,,0.0,4.0,1.0,4.0,4.0,4.0,75.0,,,,,,,,13.0,0.0,0.57809,-0.17138699999999998,0.6462399999999999,0.46777299999999994,0.8999159999999999,-0.42822899999999997,-0.101564,-0.033772,-0.037469999999999996,-0.030911,,,,,,,,,,,,,,,,,,,,,,,,,,,,,,,,,,,0.0,0.0,1.0,0.0,512.0,1.0,,,,,,,,,,,,,,,,,,,,,,,,,
40743,1645492597.69047,27.0,0.0,4166.666504,4258.461426,4092.820557,4023.076904,4121.025879,0.0,4.0,82.0,,,,0.0,4.0,1.0,4.0,4.0,4.0,75.0,,,,,,,,,,,,,,,,,,,,,,,,,,,,,,,,,,,,,,,,,,,,,,,,,,,,,,,,,,,,,,,,,,,,,,,,,,,,,,,,,,,,
40744,1645492597.698185,28.0,0.0,4184.102539,4306.666504,4128.717772999999,4008.205078,4140.512695,0.0,4.0,82.0,,,,0.0,4.0,1.0,4.0,4.0,4.0,75.0,,,,,,,,14.0,0.0,0.578162,-0.17114300000000002,0.6462399999999999,0.46777299999999994,0.897475,-0.41944,-0.1084,-0.033813,-0.037482,-0.026697000000000002,,,,,,,,,,,,,,,,,,,,,,,,,,,,,,,,,,,,,,,,,,,,,,,,,,,,,,,,,,,,,,,,,
40745,1645492597.7059991,29.0,0.0,4254.871582,4402.563965,4168.717772999999,4069.2307130000004,4219.487305,0.0,4.0,82.0,,,,0.0,4.0,1.0,4.0,4.0,4.0,75.0,,,,,,,,,,,,,,,,,,,,,,,,,,,,,,,,,,,,,,,,,,,,,,,,,,,,,,,,,,,,,,,,,,,,,,,,,,,,,,,,,,,,
40746,1645492597.713814,30.0,0.0,4204.615234000001,4422.05127,4116.410156,4052.3076170000004,4166.666504,0.0,4.0,82.0,,,,0.0,4.0,1.0,4.0,4.0,4.0,75.0,1.0,25.0,1.0,1.0,1.0,1.0,1.0,15.0,0.0,0.578288,-0.17138699999999998,0.6462399999999999,0.467529,0.9038219999999999,-0.42188100000000006,-0.087404,-0.033849000000000004,-0.037445,-0.022904,1.0,0.0,0.0,,,,,,,,,,,,,,,,,,,,,,,,,,,,,,,,0.0,0.0,1.0,0.0,512.0,1.0,230.114227,68.10141800000001,32.254673,31.895033,28.437742,281.794983,161.27829,42.2127,33.785011,17.259726,37.819611,11.162719000000001,10.603378,12.271955,17.328382,129.84493999999998,45.307693,23.60146,22.869717,25.881769,164.580246,42.642143,32.127907,29.883333,28.790333
40747,1645492597.721629,31.0,0.0,4155.384765999999,4391.282227000001,4102.05127,4004.102539,4093.8461909999996,0.0,4.0,82.0,,,,0.0,4.0,1.0,4.0,4.0,4.0,75.0,,,,,,,,,,,,,,,,,,,,,,,,,,,,,,,,,,,,,,,,,,,,,,,,,,,,,,,,,,,,,,,,,,,,,,,,,,,,,,,,,,,,
40748,1645492597.729444,32.0,0.0,4227.692383,4446.666504,4160.512695,4053.8461909999996,4158.974121,0.0,4.0,82.0,,,,0.0,4.0,1.0,4.0,4.0,4.0,75.0,,,,,,,,16.0,0.0,0.578162,-0.17114300000000002,0.6462399999999999,0.46777299999999994,0.897475,-0.41944,-0.1084,-0.033882,-0.03746,-0.01949,,,,,,,,,,,,,,,,,,,,,,,,,,,,,,,,,,,,,,,,,,,,,,,,,,,,,,,,,,,,,,,,,
40749,1645492597.737259,33.0,0.0,4262.563965,4468.717772999999,4157.94873,4112.820313,4206.153809,0.0,4.0,82.0,,,,0.0,4.0,1.0,4.0,4.0,4.0,75.0,,,,,,,,,,,,,,,,,,,,,,,,,,,,,,,,,,,,,,,,,,,,,,,,,,,,,,,,,,,,,,,,,,,,,,,,,,,,,,,,,,,,
40750,1645492597.745074,34.0,0.0,4218.974121,4420.0,4119.487305,4092.820557,4145.641113000001,0.0,4.0,82.0,,,,0.0,4.0,1.0,4.0,4.0,4.0,75.0,,,,,,,,17.0,0.0,0.578162,-0.17114300000000002,0.6462399999999999,0.46777299999999994,0.9194479999999999,-0.42236999999999997,-0.09765800000000001,-0.033912,-0.037425,-0.022619999999999998,,,,,,,,,,,,,,,,,,,,,,,,,,,,,,,,,,,0.0,0.0,1.0,0.0,512.0,1.0,,,,,,,,,,,,,,,,,,,,,,,,,
40751,1645492597.7528892,35.0,0.0,4261.025879,4468.205078,4166.153809,4108.205078,4169.743652,0.0,4.0,82.0,,,,0.0,4.0,1.0,4.0,4.0,4.0,75.0,,,,,,,,,,,,,,,,,,,,,,,,,,,,,,,,,,,,,,,,,,,,,,,,,,,,,,,,,,,,,,,,,,,,,,,,,,,,,,,,,,,,
40752,1645492597.7607038,36.0,0.0,4366.666504,4552.307617,4240.512695,4203.589844,4297.94873,0.0,4.0,82.0,,,,0.0,4.0,1.0,4.0,4.0,4.0,75.0,,,,,,,,18.0,0.0,0.578162,-0.17114300000000002,0.6462399999999999,0.46777299999999994,0.9121229999999999,-0.41455699999999995,-0.099123,-0.033889999999999997,-0.037394,-0.025436,,,,,,,,,,,,,,,,,,,,,,,,,,,,,,,,,,,,,,,,,,,,,,,,,,,,,,,,,,,,,,,,,
40753,1645492597.768518,37.0,0.0,4424.615234000001,4558.974121,4280.0,4305.128418,4384.102539,0.0,4.0,82.0,,,,0.0,4.0,1.0,4.0,4.0,4.0,75.0,,,,,,,,,,,,,,,,,,,,,,,,,,,,,,,,,,,,,,,,,,,,,,,,,,,,,,,,,,,,,,,,,,,,,,,,,,,,,,,,,,,,
40754,1645492597.776233,38.0,0.0,4432.820313,4558.461426,4291.282227000001,4334.358886999999,4387.179688,0.0,4.0,82.0,,,,0.0,4.0,1.0,4.0,4.0,4.0,75.0,,,,,,,,19.0,0.0,0.578162,-0.17114300000000002,0.6462399999999999,0.46777299999999994,0.926284,-0.417975,-0.098146,-0.034017,-0.037364999999999995,-0.028117000000000003,,,,,,,,,,,,,,,,,,,,,,,,,,,,,,,,,,,0.0,0.0,1.0,0.0,512.0,1.0,,,,,,,,,,,,,,,,,,,,,,,,,
40755,1645492597.784048,39.0,0.0,4384.102539,4539.487305,4225.641113000001,4252.820313,4318.974121,0.0,4.0,82.0,,,,0.0,4.0,1.0,4.0,4.0,4.0,75.0,,,,,,,,,,,,,,,,,,,,,,,,,,,,,,,,,,,,,,,,,,,,,,,,,,,,,,,,,,,,,,,,,,,,,,,,,,,,,,,,,,,,
40756,1645492597.791763,40.0,0.0,4294.871582,4487.179688,4144.102539,4149.743652,4233.333496,0.0,4.0,82.0,,,,0.0,4.0,1.0,4.0,4.0,4.0,75.0,,,,,,,,20.0,0.0,0.578288,-0.17138699999999998,0.6462399999999999,0.467529,0.8964979999999999,-0.41651000000000005,-0.106447,-0.034082,-0.037389,-0.024231,,,,,,,,,,,,,,,,,,,,,,,,,,,,,,,,,,,,,,,,,,,,,,,,,,,,,,,,,,,,,,,,,
40757,1645492597.799579,41.0,0.0,4290.769043,4512.820313,4187.692383,4172.307617,4252.307617,0.0,4.0,82.0,,,,0.0,4.0,1.0,4.0,4.0,4.0,75.0,,,,,,,,,,,,,,,,,,,,,,,,,,,,,,,,,,,,,,,,,,,,,,,,,,,,,,,,,,,,,,,,,,,,,,,,,,,,,,,,,,,,
40758,1645492597.807394,42.0,0.0,4352.820313,4575.897461,4244.102539,4251.282227000001,4314.358886999999,0.0,4.0,82.0,,,,0.0,4.0,1.0,4.0,4.0,4.0,75.0,,,,,,,,21.0,0.0,0.578288,-0.17138699999999998,0.6462399999999999,0.467529,0.9111469999999999,-0.425788,-0.101564,-0.034043000000000004,-0.037312,-0.020782,,,,,,,,,,,,,,,,,,,,,,,,,,,,,,,,,,,0.0,0.0,1.0,0.0,512.0,1.0,,,,,,,,,,,,,,,,,,,,,,,,,
40759,1645492597.815209,43.0,0.0,4296.410156,4557.94873,4158.461426,4192.820313,4229.743652,0.0,4.0,82.0,,,,0.0,4.0,1.0,4.0,4.0,4.0,75.0,,,,,,,,,,,,,,,,,,,,,,,,,,,,,,,,,,,,,,,,,,,,,,,,,,,,,,,,,,,,,,,,,,,,,,,,,,,,,,,,,,,,
40760,1645492597.8229241,44.0,0.0,4186.666504,4514.871582,4089.743652,4082.0512700000004,4104.102539,0.0,4.0,82.0,,,,0.0,4.0,1.0,4.0,4.0,4.0,75.0,,,,,,,,22.0,0.0,0.5785600000000001,-0.17138699999999998,0.645996,0.467529,0.914565,-0.407721,-0.09765800000000001,-0.034106,-0.037292,-0.023929,,,,,,,,,,,,,,,,,,,,,,,,,,,,,,,,,,,,,,,,,,,,,,,,,,,,,,,,,,,,,,,,,
40761,1645492597.830738,45.0,0.0,4248.717772999999,4529.743652,4176.922852000001,4129.743652,4177.436035,0.0,4.0,82.0,,,,0.0,4.0,1.0,4.0,4.0,4.0,75.0,,,,,,,,,,,,,,,,,,,,,,,,,,,,,,,,,,,,,,,,,,,,,,,,,,,,,,,,,,,,,,,,,,,,,,,,,,,,,,,,,,,,
40762,1645492597.838553,46.0,0.0,4411.794922,4587.692383,4295.897461,4280.512695,4347.692383,0.0,4.0,82.0,,,,0.0,4.0,1.0,4.0,4.0,4.0,75.0,,,,,,,,23.0,0.0,0.5785600000000001,-0.17138699999999998,0.645996,0.467529,0.916518,-0.40528000000000003,-0.11133,-0.034015,-0.037370999999999995,-0.026614,1.0,0.0,0.0,,,,,,,,,,,,,,,,,,,,,,,,,,,,,,,,0.0,0.0,1.0,0.0,512.0,1.0,214.117264,57.576981,29.755888,28.814246999999998,25.104244,261.032898,138.80751,37.011532,30.256092,15.245965,45.808997999999995,11.899067,11.149744,12.318332,14.816969,156.527298,45.418797,22.993748,23.006527,23.811356,184.256622,39.438576,30.168784999999996,28.957115,24.74436
40763,1645492597.846367,47.0,0.0,4478.974121,4612.307617,4322.563965,4370.769043,4416.922852000001,0.0,4.0,82.0,,,,0.0,4.0,1.0,4.0,4.0,4.0,75.0,,,,,,,,,,,,,,,,,,,,,,,,,,,,,,,,,,,,,,,,,,,,,,,,,,,,,,,,,,,,,,,,,,,,,,,,,,,,,,,,,,,,
40764,1645492597.854182,48.0,0.0,4440.0,4567.179688,4259.487305,4334.358886999999,4370.256348,0.0,4.0,82.0,,,,0.0,4.0,1.0,4.0,4.0,4.0,75.0,,,,,,,,24.0,0.0,0.5785600000000001,-0.17138699999999998,0.645996,0.467529,0.922377,-0.41992799999999997,-0.106447,-0.033983,-0.037199,-0.022732,,,,,,,,,,,,,,,,,,,,,,,,,,,,,,,,,,,,,,,,,,,,,,,,,,,,,,,,,,,,,,,,,
40765,1645492597.8619962,49.0,0.0,4337.94873,4509.230957,4169.230957,4214.358886999999,4266.153809,0.0,4.0,82.0,,,,0.0,4.0,1.0,4.0,4.0,4.0,75.0,,,,,,,,,,,,,,,,,,,,,,,,,,,,,,,,,,,,,,,,,,,,,,,,,,,,,,,,,,,,,,,,,,,,,,,,,,,,,,,,,,,,
40766,1645492597.8698099,50.0,0.0,4236.922852000001,4518.461426,4137.436035,4133.333496,4205.128418,0.0,4.0,82.0,,,,0.0,4.0,1.0,4.0,4.0,4.0,75.0,,,,,,,,25.0,0.0,0.578488,-0.171631,0.645996,0.467529,0.920424,-0.42236999999999997,-0.101076,-0.0341,-0.037287,-0.019482,,,,,,,,,,,,,,,,,,,,,,,,,,,,,,,,,,,10.0,0.0,1.0,0.0,512.0,1.0,,,,,,,,,,,,,,,,,,,,,,,,,
40767,1645492597.877526,51.0,0.0,4229.230957,4556.922852000001,4153.846191,4134.871582,4217.436035,0.0,4.0,82.0,,,,0.0,4.0,1.0,4.0,4.0,4.0,75.0,,,,,,,,,,,,,,,,,,,,,,,,,,,,,,,,,,,,,,,,,,,,,,,,,,,,,,,,,,,,,,,,,,,,,,,,,,,,,,,,,,,,
40768,1645492597.885341,52.0,0.0,4234.871582,4519.487305,4136.410156,4095.384521,4184.102539,0.0,4.0,82.0,,,,0.0,4.0,1.0,4.0,4.0,4.0,75.0,,,,,,,,26.0,0.0,0.578488,-0.171631,0.645996,0.467529,0.925307,-0.409186,-0.11230599999999999,-0.03406,-0.037319,-0.022759,,,,,,,,,,,,,,,,,,,,,,,,,,,,,,,,,,,,,,,,,,,,,,,,,,,,,,,,,,,,,,,,,
40769,1645492597.893157,53.0,0.0,4223.077147999999,4487.179688,4141.025879,4067.179443,4177.94873,0.0,4.0,82.0,,,,0.0,4.0,1.0,4.0,4.0,4.0,75.0,,,,,,,,,,,,,,,,,,,,,,,,,,,,,,,,,,,,,,,,,,,,,,,,,,,,,,,,,,,,,,,,,,,,,,,,,,,,,,,,,,,,
40770,1645492597.9009721,54.0,0.0,4298.974121,4525.641113000001,4209.230957,4166.666504,4290.256348,0.0,4.0,82.0,,,,0.0,4.0,1.0,4.0,4.0,4.0,75.0,,,,,,,,27.0,0.0,0.5785600000000001,-0.17138699999999998,0.645996,0.467529,0.9155409999999999,-0.41846300000000003,-0.104005,-0.03412,-0.037249000000000004,-0.025658999999999998,,,,,,,,,,,,,,,,,,,,,,,,,,,,,,,,,,,10.0,0.0,1.0,0.0,512.0,1.0,,,,,,,,,,,,,,,,,,,,,,,,,
40771,1645492597.908787,55.0,0.0,4361.538574,4526.153809,4226.666504,4206.666504,4320.0,0.0,4.0,82.0,,,,0.0,4.0,1.0,4.0,4.0,4.0,75.0,,,,,,,,,,,,,,,,,,,,,,,,,,,,,,,,,,,,,,,,,,,,,,,,,,,,,,,,,,,,,,,,,,,,,,,,,,,,,,,,,,,,
40772,1645492597.9166028,56.0,0.0,4310.769043,4484.102539,4172.307617,4132.820313,4224.102539,0.0,4.0,82.0,,,,0.0,4.0,1.0,4.0,4.0,4.0,75.0,,,,,,,,28.0,0.0,0.578757,-0.17138699999999998,0.645996,0.46728500000000006,0.921889,-0.415045,-0.10693499999999999,-0.034078,-0.037235000000000004,-0.028366000000000002,,,,,,,,,,,,,,,,,,,,,,,,,,,,,,,,,,,,,,,,,,,,,,,,,,,,,,,,,,,,,,,,,
40773,1645492597.924418,57.0,0.0,4298.461426,4511.282227000001,4169.743652,4151.794922,4226.666504,0.0,4.0,82.0,,,,0.0,4.0,1.0,4.0,4.0,4.0,75.0,,,,,,,,,,,,,,,,,,,,,,,,,,,,,,,,,,,,,,,,,,,,,,,,,,,,,,,,,,,,,,,,,,,,,,,,,,,,,,,,,,,,
40774,1645492597.932233,58.0,0.0,4327.692383,4541.025879,4203.589844,4213.333496,4286.666504,0.0,4.0,82.0,,,,0.0,4.0,1.0,4.0,4.0,4.0,75.0,,,,,,,,29.0,0.0,0.578488,-0.171631,0.645996,0.467529,0.9184709999999999,-0.40283800000000003,-0.100587,-0.034088,-0.03732,-0.024406999999999998,,,,,,,,,,,,,,,,,,,,,,,,,,,,,,,,,,,10.0,0.0,1.0,0.0,512.0,1.0,,,,,,,,,,,,,,,,,,,,,,,,,
40775,1645492597.940049,59.0,0.0,4309.230957,4527.179688,4205.641113000001,4188.717772999999,4266.153809,0.0,4.0,82.0,,,,0.0,4.0,1.0,4.0,4.0,4.0,75.0,,,,,,,,,,,,,,,,,,,,,,,,,,,,,,,,,,,,,,,,,,,,,,,,,,,,,,,,,,,,,,,,,,,,,,,,,,,,,,,,,,,,
40776,1645492597.947864,60.0,0.0,4301.025879,4536.410156,4183.589844,4168.205078,4233.333496,0.0,4.0,82.0,,,,0.0,4.0,1.0,4.0,4.0,4.0,75.0,,,,,,,,30.0,0.0,0.578488,-0.171631,0.645996,0.467529,0.920424,-0.392584,-0.09668099999999999,-0.034097,-0.037348,-0.027142000000000003,,,,,,,,,,,,,,,,,,,,,,,,,,,,,,,,,,,,,,,,,,,,,,,,,,,,,,,,,,,,,,,,,
40777,1645492597.9555788,61.0,0.0,4317.436035,4532.820313,4172.820313,4185.128418,4233.846191,0.0,4.0,82.0,,,,0.0,4.0,1.0,4.0,4.0,4.0,75.0,,,,,,,,,,,,,,,,,,,,,,,,,,,,,,,,,,,,,,,,,,,,,,,,,,,,,,,,,,,,,,,,,,,,,,,,,,,,,,,,,,,,
40778,1645492597.963394,62.0,0.0,4316.410156,4497.94873,4181.025879,4158.974121,4244.615234000001,0.0,4.0,82.0,,,,0.0,4.0,1.0,4.0,4.0,4.0,75.0,,,,,,,,31.0,0.0,0.578488,-0.171631,0.645996,0.467529,0.921889,-0.415534,-0.10498199999999999,-0.034105,-0.037422000000000004,-0.023451,1.0,0.0,0.0,,,,,,,,,,,,,,,,,,,,,,,,,,,,,,,,10.0,0.0,64.0,0.139843,1.0,0.0,208.187241,49.364101,26.807777,23.815619,20.530003,213.32852200000002,102.601219,29.121588,24.917839,13.258838,51.947777,12.586806,11.370952,11.670816,12.070304,177.534073,44.946999,21.938299,22.182185999999998,20.517363,197.833267,36.481613,27.674658,25.844975,19.997513
40779,1645492597.971209,63.0,0.0,4295.897461,4486.666504,4181.538574,4126.666504,4251.794922,0.0,4.0,82.0,,,,0.0,4.0,1.0,4.0,4.0,4.0,75.0,,,,,,,,,,,,,,,,,,,,,,,,,,,,,,,,,,,,,,,,,,,,,,,,,,,,,,,,,,,,,,,,,,,,,,,,,,,,,,,,,,,,
40780,1645492597.979024,64.0,0.0,4266.666504,4481.538574,4157.436035,4123.589844,4233.846191,450.0,4.0,82.0,,,,0.0,4.0,1.0,4.0,4.0,4.0,75.0,,,,,,,,32.0,0.0,0.578415,-0.171875,0.645996,0.467529,0.918959,-0.415534,-0.095705,-0.034015,-0.037391,-0.026233,,,,,,,,,,,,,,,,,,,,,,,,,,,,,,,,,,,,,,,,,,,,,,,,,,,,,,,,,,,,,,,,,
40781,1645492597.986839,65.0,0.0,4245.641113000001,4485.128418,4156.922852000001,4118.461426,4211.794922,450.0,4.0,82.0,,,,0.0,4.0,1.0,4.0,4.0,4.0,75.0,,,,,,,,,,,,,,,,,,,,,,,,,,,,,,,,,,,,,,,,,,,,,,,,,,,,,,,,,,,,,,,,,,,,,,,,,,,,,,,,,,,,
40782,1645492597.994654,66.0,0.0,4235.897461,4512.307617,4173.333496,4115.384765999999,4196.922852000001,16226.0,4.0,82.0,,,,0.0,4.0,1.0,4.0,4.0,4.0,75.0,,,,,,,,33.0,0.0,0.578415,-0.171875,0.645996,0.467529,0.9155409999999999,-0.410163,-0.10351700000000001,-0.034081,-0.037411,-0.022389,,,,,,,,,,,,,,,,,,,,,,,,,,,,,,,,,,,10.0,0.0,64.0,0.139843,1.0,0.0,,,,,,,,,,,,,,,,,,,,,,,,,
40783,1645492598.0024679,67.0,0.0,4266.153809,4528.205078,4178.461426,4142.05127,4212.307617,450.0,4.0,82.0,,,,0.0,4.0,1.0,4.0,4.0,4.0,75.0,,,,,,,,,,,,,,,,,,,,,,,,,,,,,,,,,,,,,,,,,,,,,,,,,,,,,,,,,,,,,,,,,,,,,,,,,,,,,,,,,,,,
40784,1645492598.010283,68.0,0.0,4333.846191,4524.615234000001,4198.974121,4185.641113000001,4257.94873,52.0,4.0,82.0,,,,0.0,4.0,1.0,4.0,4.0,4.0,75.0,,,,,,,,34.0,0.0,0.578415,-0.171875,0.645996,0.467529,0.914076,-0.41846300000000003,-0.106447,-0.034042,-0.037332,-0.025228,,,,,,,,,,,,,,,,,,,,,,,,,,,,,,,,,,,,,,,,,,,,,,,,,,,,,,,,,,,,,,,,,
40785,1645492598.018098,69.0,0.0,4325.128418,4488.717772999999,4197.436035,4166.666504,4248.717772999999,450.0,4.0,82.0,,,,0.0,4.0,1.0,4.0,4.0,4.0,75.0,,,,,,,,,,,,,,,,,,,,,,,,,,,,,,,,,,,,,,,,,,,,,,,,,,,,,,,,,,,,,,,,,,,,,,,,,,,,,,,,,,,,
40786,1645492598.025813,70.0,0.0,4237.436035,4553.333496,4156.922852000001,4111.282227000001,4181.025879,16082.0,4.0,82.0,,,,0.0,4.0,1.0,4.0,4.0,4.0,75.0,,,,,,,,35.0,0.0,0.578415,-0.171875,0.645996,0.467529,0.9155409999999999,-0.422858,-0.100587,-0.03386,-0.037358999999999996,-0.027783999999999996,,,,,,,,,,,,,,,,,,,,,,,,,,,,,,,,,,,0.0,0.0,64.0,0.139843,1.0,0.0,,,,,,,,,,,,,,,,,,,,,,,,,
40787,1645492598.033628,71.0,0.0,4267.179688,4820.0,4187.692383,4169.230957,4211.794922,450.0,4.0,82.0,,,,0.0,4.0,1.0,4.0,4.0,4.0,75.0,,,,,,,,,,,,,,,,,,,,,,,,,,,,,,,,,,,,,,,,,,,,,,,,,,,,,,,,,,,,,,,,,,,,,,,,,,,,,,,,,,,,
40788,1645492598.041442,72.0,0.0,4370.256348,5003.589844,4235.384765999999,4258.974121,4311.282227000001,450.0,4.0,82.0,,,,0.0,4.0,1.0,4.0,4.0,4.0,75.0,,,,,,,,36.0,0.0,0.578415,-0.171875,0.645996,0.467529,0.916518,-0.41260399999999997,-0.100587,-0.033941000000000006,-0.037383,-0.023882,,,,,,,,,,,,,,,,,,,,,,,,,,,,,,,,,,,,,,,,,,,,,,,,,,,,,,,,,,,,,,,,,
40789,1645492598.0491571,73.0,0.0,4338.974121,4931.794922,4181.538574,4203.077147999999,4287.179688,16211.0,4.0,82.0,,,,0.0,4.0,1.0,4.0,4.0,4.0,75.0,,,,,,,,,,,,,,,,,,,,,,,,,,,,,,,,,,,,,,,,,,,,,,,,,,,,,,,,,,,,,,,,,,,,,,,,,,,,,,,,,,,,
40790,1645492598.056971,74.0,0.0,4260.0,4882.05127,4134.358886999999,4120.512695,4204.102539,450.0,4.0,82.0,,,,0.0,4.0,1.0,4.0,4.0,4.0,75.0,,,,,,,,37.0,0.0,0.578415,-0.171875,0.645996,0.467529,0.9131,-0.41455699999999995,-0.101076,-0.033964999999999995,-0.037356,-0.026621,,,,,,,,,,,,,,,,,,,,,,,,,,,,,,,,,,,0.0,0.0,64.0,0.139843,1.0,0.0,,,,,,,,,,,,,,,,,,,,,,,,,
40791,1645492598.064786,75.0,0.0,4262.05127,4944.102539,4153.333496,4130.256348,4208.205078,16206.0,4.0,82.0,,,,0.0,4.0,1.0,4.0,4.0,4.0,75.0,,,,,,,,,,,,,,,,,,,,,,,,,,,,,,,,,,,,,,,,,,,,,,,,,,,,,,,,,,,,,,,,,,,,,,,,,,,,,,,,,,,,
40792,1645492598.0726,76.0,0.0,4292.820313,4946.153809,4169.743652,4140.512695,4249.743652,450.0,4.0,82.0,,,,0.0,4.0,1.0,4.0,4.0,4.0,75.0,,,,,,,,38.0,0.0,0.578688,-0.171875,0.645752,0.467529,0.9126120000000001,-0.40235,-0.103029,-0.033839999999999995,-0.037380000000000004,-0.029086,,,,,,,,,,,,,,,,,,,,,,,,,,,,,,,,,,,,,,,,,,,,,,,,,,,,,,,,,,,,,,,,,
40793,1645492598.080414,77.0,0.0,4293.846191,4933.846191,4171.282227000001,4135.897461,4248.717772999999,450.0,4.0,82.0,,,,0.0,4.0,1.0,4.0,4.0,4.0,75.0,,,,,,,,,,,,,,,,,,,,,,,,,,,,,,,,,,,,,,,,,,,,,,,,,,,,,,,,,,,,,,,,,,,,,,,,,,,,,,,,,,,,
40794,1645492598.0881288,78.0,0.0,4266.153809,4942.563965,4161.025879,4155.897461,4230.256348,450.0,4.0,82.0,,,,0.0,4.0,1.0,4.0,4.0,4.0,75.0,,,,,,,,39.0,0.0,0.578615,-0.172119,0.645752,0.467529,0.9184709999999999,-0.401373,-0.109377,-0.033923,-0.037255,-0.031353,1.0,0.0,0.0,,,,,,,,,,,,,,,,,,,,,,,,,,,,,,,,0.0,0.0,1.0,0.0,1.0,0.0,207.97203100000002,44.661919,25.322819,18.570564,16.206572,155.532639,64.196609,20.830548999999998,19.552204,11.783335000000001,55.26429,13.209356,11.828289,10.784696,9.963519999999999,188.534775,43.72057,22.279629,20.835821,17.121212,201.900909,34.748314,26.436003000000003,21.966776,16.095509
40795,1645492598.095943,79.0,0.0,4224.615234000001,4887.692383,4123.077147999999,4134.871582,4206.153809,16206.0,4.0,82.0,,,,0.0,4.0,1.0,4.0,4.0,4.0,75.0,,,,,,,,,,,,,,,,,,,,,,,,,,,,,,,,,,,,,,,,,,,,,,,,,,,,,,,,,,,,,,,,,,,,,,,,,,,,,,,,,,,,
40796,1645492598.103758,80.0,0.0,4254.358886999999,4854.871582,4158.461426,4128.205078,4226.153809,450.0,4.0,82.0,,,,0.0,4.0,1.0,4.0,4.0,4.0,75.0,,,,,,,,40.0,0.0,0.578615,-0.172119,0.645752,0.467529,0.9184709999999999,-0.408698,-0.095705,-0.033802,-0.037387000000000004,-0.033198000000000005,,,,,,,,,,,,,,,,,,,,,,,,,,,,,,,,,,,,,,,,,,,,,,,,,,,,,,,,,,,,,,,,,
40797,1645492598.111572,81.0,0.0,4349.743652,4899.487305,4245.641113000001,4217.436035,4306.666504,450.0,4.0,82.0,,,,0.0,4.0,1.0,4.0,4.0,4.0,75.0,,,,,,,,,,,,,,,,,,,,,,,,,,,,,,,,,,,,,,,,,,,,,,,,,,,,,,,,,,,,,,,,,,,,,,,,,,,,,,,,,,,,
40798,1645492598.119386,82.0,0.0,4370.769043,4908.205078,4236.410156,4264.102539,4331.282227000001,450.0,4.0,82.0,,,,0.0,4.0,1.0,4.0,4.0,4.0,75.0,,,,,,,,41.0,0.0,0.578688,-0.171875,0.645752,0.467529,0.8989389999999999,-0.408209,-0.098634,-0.033839999999999995,-0.037408,-0.028707,,,,,,,,,,,,,,,,,,,,,,,,,,,,,,,,,,,0.0,0.0,1.0,0.0,1.0,0.0,,,,,,,,,,,,,,,,,,,,,,,,,
40799,1645492598.127201,83.0,0.0,4330.256348,4829.743652,4174.358886999999,4218.461426,4286.153809,16206.0,4.0,82.0,,,,0.0,4.0,1.0,4.0,4.0,4.0,75.0,,,,,,,,,,,,,,,,,,,,,,,,,,,,,,,,,,,,,,,,,,,,,,,,,,,,,,,,,,,,,,,,,,,,,,,,,,,,,,,,,,,,
40800,1645492598.135015,84.0,0.0,4298.461426,4781.025879,4160.0,4172.307617,4239.487305,450.0,4.0,82.0,,,,0.0,4.0,1.0,4.0,4.0,4.0,75.0,,,,,,,,42.0,0.0,0.578688,-0.171875,0.645752,0.467529,0.914565,-0.41065100000000004,-0.10888800000000001,-0.033874,-0.03733,-0.030963,,,,,,,,,,,,,,,,,,,,,,,,,,,,,,,,,,,,,,,,,,,,,,,,,,,,,,,,,,,,,,,,,
40801,1645492598.1428301,85.0,0.0,4311.794922,4808.205078,4203.589844,4198.461426,4266.153809,450.0,4.0,82.0,,,,0.0,4.0,1.0,4.0,4.0,4.0,75.0,,,,,,,,,,,,,,,,,,,,,,,,,,,,,,,,,,,,,,,,,,,,,,,,,,,,,,,,,,,,,,,,,,,,,,,,,,,,,,,,,,,,
40802,1645492598.150644,86.0,0.0,4407.692383,4852.820313,4259.487305,4272.820313,4367.692383,450.0,4.0,82.0,,,,0.0,4.0,1.0,4.0,4.0,4.0,75.0,,,,,,,,43.0,0.0,0.578615,-0.172119,0.645752,0.467529,0.9184709999999999,-0.408698,-0.095705,-0.033856,-0.037259,-0.026793,,,,,,,,,,,,,,,,,,,,,,,,,,,,,,,,,,,0.0,0.0,1.0,0.0,1.0,0.0,,,,,,,,,,,,,,,,,,,,,,,,,
40803,1645492598.158359,87.0,0.0,4488.205078,4844.102539,4274.358886999999,4317.436035,4426.666504,16206.0,4.0,82.0,,,,0.0,4.0,1.0,4.0,4.0,4.0,75.0,,,,,,,,,,,,,,,,,,,,,,,,,,,,,,,,,,,,,,,,,,,,,,,,,,,,,,,,,,,,,,,,,,,,,,,,,,,,,,,,,,,,
40804,1645492598.166174,88.0,0.0,4431.794922,4785.641113000001,4235.897461,4282.05127,4367.692383,450.0,4.0,82.0,,,,0.0,4.0,1.0,4.0,4.0,4.0,75.0,,,,,,,,44.0,0.0,0.578688,-0.171875,0.645752,0.467529,0.914565,-0.41065100000000004,-0.10888800000000001,-0.033888,-0.037195,-0.02924,,,,,,,,,,,,,,,,,,,,,,,,,,,,,,,,,,,,,,,,,,,,,,,,,,,,,,,,,,,,,,,,,
40805,1645492598.173989,89.0,0.0,4345.641113000001,4805.128418,4201.025879,4204.615234000001,4302.563965,450.0,4.0,82.0,,,,0.0,4.0,1.0,4.0,4.0,4.0,75.0,,,,,,,,,,,,,,,,,,,,,,,,,,,,,,,,,,,,,,,,,,,,,,,,,,,,,,,,,,,,,,,,,,,,,,,,,,,,,,,,,,,,
40806,1645492598.181804,90.0,0.0,4353.333496,4818.461426,4202.05127,4187.179688,4321.538574,450.0,4.0,82.0,,,,0.0,4.0,1.0,4.0,4.0,4.0,75.0,,,,,,,,45.0,0.0,0.5791569999999999,-0.171875,0.645508,0.46728500000000006,0.922377,-0.408698,-0.099123,-0.033895,-0.037086,-0.027225,,,,,,,,,,,,,,,,,,,,,,,,,,,,,,,,,,,0.0,0.0,1.0,0.0,1.0,0.0,,,,,,,,,,,,,,,,,,,,,,,,,
40807,1645492598.189619,91.0,0.0,4397.436035,4613.333496,4227.692383,4242.05127,4356.922852000001,16206.0,4.0,82.0,,,,0.0,4.0,1.0,4.0,4.0,4.0,75.0,,,,,,,,,,,,,,,,,,,,,,,,,,,,,,,,,,,,,,,,,,,,,,,,,,,,,,,,,,,,,,,,,,,,,,,,,,,,,,,,,,,,
40808,1645492598.197434,92.0,0.0,4429.743652,4367.179688,4268.717772999999,4323.589844,4389.743652,450.0,4.0,82.0,,,,0.0,4.0,1.0,4.0,4.0,4.0,75.0,,,,,,,,46.0,0.0,0.57923,-0.171631,0.645508,0.46728500000000006,0.9194479999999999,-0.406744,-0.11084200000000001,-0.033875,-0.037137,-0.023428,,,,,,,,,,,,,,,,,,,,,,,,,,,,,,,,,,,,,,,,,,,,,,,,,,,,,,,,,,,,,,,,,
40809,1645492598.205248,93.0,0.0,4467.692383,4352.820313,4296.410156,4367.179688,4426.153809,450.0,4.0,82.0,,,,0.0,4.0,1.0,4.0,4.0,4.0,75.0,,,,,,,,,,,,,,,,,,,,,,,,,,,,,,,,,,,,,,,,,,,,,,,,,,,,,,,,,,,,,,,,,,,,,,,,,,,,,,,,,,,,
40810,1645492598.213063,94.0,0.0,4501.538574,4406.153809,4289.230957,4353.333496,4437.94873,450.0,4.0,82.0,,,,0.0,4.0,1.0,4.0,4.0,4.0,75.0,1.0,16.666666,1.0,0.0,1.0,1.0,1.0,47.0,0.0,0.579033,-0.171631,0.645508,0.467529,0.914076,-0.415534,-0.101076,-0.033905000000000005,-0.037086,-0.026163,1.0,0.0,0.0,,,,,,,,,,,,,,,,,,,,,,,,,,,,,,,,0.0,0.0,1.0,0.0,1.0,0.0,204.437668,42.638355,27.366365000000002,14.898376999999998,13.403362,103.795395,34.049991999999996,14.451669,15.631056,11.018105,55.485523,13.760279999999998,13.445035,10.274517,9.050328,188.763916,41.968277,26.116239999999998,19.731642,14.737303,194.358292,34.242455,28.553625,19.064646,14.176260000000001
40811,1645492598.220779,95.0,0.0,4466.666504,4324.102539,4234.871582,4307.692383,4374.871582,16206.0,4.0,82.0,,,,0.0,4.0,1.0,4.0,4.0,4.0,75.0,,,,,,,,,,,,,,,,,,,,,,,,,,,,,,,,,,,,,,,,,,,,,,,,,,,,,,,,,,,,,,,,,,,,,,,,,,,,,,,,,,,,
40812,1645492598.228595,96.0,0.0,4379.487305,4255.384765999999,4182.563965,4234.358886999999,4292.307617,450.0,4.0,82.0,,,,0.0,4.0,1.0,4.0,4.0,4.0,75.0,,,,,,,,48.0,0.0,0.5793050000000001,-0.171631,0.6452640000000001,0.467529,0.9121229999999999,-0.409186,-0.11718900000000002,-0.033884,-0.037088,-0.022424,,,,,,,,,,,,,,,,,,,,,,,,,,,,,,,,,,,,,,,,,,,,,,,,,,,,,,,,,,,,,,,,,
40813,1645492598.2364109,97.0,0.0,4391.282227000001,4288.205078,4231.794922,4247.692383,4343.077147999999,450.0,4.0,82.0,,,,0.0,4.0,1.0,4.0,4.0,4.0,75.0,,,,,,,,,,,,,,,,,,,,,,,,,,,,,,,,,,,,,,,,,,,,,,,,,,,,,,,,,,,,,,,,,,,,,,,,,,,,,,,,,,,,
40814,1645492598.244227,98.0,0.0,4453.333496,4312.820313,4282.563965,4314.871582,4411.282227000001,450.0,4.0,82.0,,,,0.0,4.0,1.0,4.0,4.0,4.0,75.0,,,,,,,,49.0,0.0,0.5795020000000001,-0.171631,0.6452640000000001,0.46728500000000006,0.9116350000000001,-0.41113900000000003,-0.107912,-0.033913,-0.037139,-0.025309,,,,,,,,,,,,,,,,,,,,,,,,,,,,,,,,,,,0.0,0.0,1.0,0.0,1.0,0.0,,,,,,,,,,,,,,,,,,,,,,,,,
40815,1645492598.252043,99.0,0.0,4421.025879,4329.743652,4250.256348,4287.692383,4374.358886999999,16206.0,4.0,82.0,,,,0.0,4.0,1.0,4.0,4.0,4.0,75.0,,,,,,,,,,,,,,,,,,,,,,,,,,,,,,,,,,,,,,,,,,,,,,,,,,,,,,,,,,,,,,,,,,,,,,,,,,,,,,,,,,,,
40816,1645492598.259858,100.0,0.0,4375.897461,4357.436035,4227.692383,4224.615234000001,4350.256348,450.0,4.0,82.0,,,,0.0,4.0,1.0,4.0,4.0,4.0,75.0,,,,,,,,50.0,0.0,0.579574,-0.17138699999999998,0.6452640000000001,0.46728500000000006,0.9248190000000001,-0.401862,-0.1084,-0.03394,-0.037087,-0.027856,,,,,,,,,,,,,,,,,,,,,,,,,,,,,,,,,,,,,,,,,,,,,,,,,,,,,,,,,,,,,,,,,
40817,1645492598.267674,101.0,0.0,4405.128418,4349.743652,4238.974121,4241.538574,4364.615234000001,450.0,4.0,82.0,,,,0.0,4.0,1.0,4.0,4.0,4.0,75.0,,,,,,,,,,,,,,,,,,,,,,,,,,,,,,,,,,,,,,,,,,,,,,,,,,,,,,,,,,,,,,,,,,,,,,,,,,,,,,,,,,,,
40818,1645492598.27549,102.0,0.0,4377.436035,4298.974121,4205.128418,4253.333496,4313.846191,450.0,4.0,82.0,,,,0.0,4.0,1.0,4.0,4.0,4.0,75.0,,,,,,,,51.0,0.0,0.579574,-0.17138699999999998,0.6452640000000001,0.46728500000000006,0.922866,-0.41846300000000003,-0.11816600000000001,-0.033866,-0.037139,-0.023899,,,,,,,,,,,,,,,,,,,,,,,,,,,,,,,,,,,10.0,0.0,1.0,0.0,1.0,0.0,,,,,,,,,,,,,,,,,,,,,,,,,
40819,1645492598.2833061,103.0,0.0,4328.717772999999,4275.384765999999,4185.641113000001,4215.384765999999,4283.589844,16206.0,4.0,82.0,,,,0.0,4.0,1.0,4.0,4.0,4.0,75.0,,,,,,,,,,,,,,,,,,,,,,,,,,,,,,,,,,,,,,,,,,,,,,,,,,,,,,,,,,,,,,,,,,,,,,,,,,,,,,,,,,,,
40820,1645492598.291122,104.0,0.0,4387.179688,4302.05127,4238.461426,4233.846191,4355.897461,450.0,4.0,82.0,,,,0.0,4.0,1.0,4.0,4.0,4.0,75.0,,,,,,,,52.0,0.0,0.5795020000000001,-0.171631,0.6452640000000001,0.46728500000000006,0.910658,-0.41699899999999995,-0.11035299999999999,-0.033750999999999996,-0.037087,-0.026685000000000004,,,,,,,,,,,,,,,,,,,,,,,,,,,,,,,,,,,,,,,,,,,,,,,,,,,,,,,,,,,,,,,,,
40821,1645492598.298837,105.0,0.0,4418.461426,4288.717772999999,4253.846191,4267.692383,4380.0,450.0,4.0,82.0,,,,0.0,4.0,1.0,4.0,4.0,4.0,75.0,,,,,,,,,,,,,,,,,,,,,,,,,,,,,,,,,,,,,,,,,,,,,,,,,,,,,,,,,,,,,,,,,,,,,,,,,,,,,,,,,,,,
40822,1645492598.306653,106.0,0.0,4373.333496,4222.05127,4213.846191,4231.794922,4313.846191,450.0,4.0,82.0,,,,0.0,4.0,1.0,4.0,4.0,4.0,75.0,,,,,,,,53.0,0.0,0.579773,-0.171631,0.6450199999999999,0.46728500000000006,0.918959,-0.41895200000000005,-0.113283,-0.033843,-0.037089,-0.029094,,,,,,,,,,,,,,,,,,,,,,,,,,,,,,,,,,,10.0,0.0,1.0,0.0,1.0,0.0,,,,,,,,,,,,,,,,,,,,,,,,,
40823,1645492598.3144689,107.0,0.0,4367.692383,4202.05127,4193.333496,4194.871582,4287.692383,16206.0,4.0,82.0,,,,0.0,4.0,1.0,4.0,4.0,4.0,75.0,,,,,,,,,,,,,,,,,,,,,,,,,,,,,,,,,,,,,,,,,,,,,,,,,,,,,,,,,,,,,,,,,,,,,,,,,,,,,,,,,,,,
40824,1645492598.322284,108.0,0.0,4386.666504,4215.384765999999,4202.563965,4210.256348,4318.461426,450.0,4.0,82.0,,,,0.0,4.0,1.0,4.0,4.0,4.0,75.0,,,,,,,,54.0,0.0,0.579773,-0.171631,0.6450199999999999,0.46728500000000006,0.914565,-0.416022,-0.11425999999999999,-0.033877,-0.037189,-0.025013,,,,,,,,,,,,,,,,,,,,,,,,,,,,,,,,,,,,,,,,,,,,,,,,,,,,,,,,,,,,,,,,,
40825,1645492598.3301,109.0,0.0,4371.282227000001,4227.692383,4205.128418,4225.641113000001,4323.589844,450.0,4.0,82.0,,,,0.0,4.0,1.0,4.0,4.0,4.0,75.0,,,,,,,,,,,,,,,,,,,,,,,,,,,,,,,,,,,,,,,,,,,,,,,,,,,,,,,,,,,,,,,,,,,,,,,,,,,,,,,,,,,,
40826,1645492598.337915,110.0,0.0,4365.641113000001,4279.487305,4218.974121,4228.205078,4323.589844,450.0,4.0,82.0,,,,0.0,4.0,1.0,4.0,4.0,4.0,75.0,,,,,,,,55.0,0.0,0.5798979999999999,-0.171875,0.6450199999999999,0.467041,0.922377,-0.411627,-0.111818,-0.033809,-0.037181,-0.021486,1.0,0.0,0.0,,,,,,,,,,,,,,,,,,,,,,,,,,,,,,,,10.0,0.0,1.0,0.0,1.0,0.0,190.98556499999998,41.656574,33.723831,13.803701,12.620961999999999,70.544342,19.196146,11.006928,13.752649,10.961865,52.99404499999999,14.268814,16.667648,10.457718,9.360228,179.431671,40.702133,34.031094,19.345420999999998,13.961082000000001,176.392044,34.357079,34.797382,18.116804000000002,14.511098
40827,1645492598.345731,111.0,0.0,4388.717772999999,4305.641113000001,4238.974121,4247.179688,4354.358886999999,16206.0,4.0,82.0,,,,0.0,4.0,1.0,4.0,4.0,4.0,75.0,,,,,,,,,,,,,,,,,,,,,,,,,,,,,,,,,,,,,,,,,,,,,,,,,,,,,,,,,,,,,,,,,,,,,,,,,,,,,,,,,,,,
40828,1645492598.353547,112.0,0.0,4376.410156,4263.589844,4205.128418,4218.974121,4328.717772999999,450.0,4.0,82.0,,,,0.0,4.0,1.0,4.0,4.0,4.0,75.0,,,,,,,,56.0,0.0,0.5798979999999999,-0.171875,0.6450199999999999,0.467041,0.926284,-0.407721,-0.119631,-0.033749,-0.037272,-0.018262999999999998,,,,,,,,,,,,,,,,,,,,,,,,,,,,,,,,,,,,,,,,,,,,,,,,,,,,,,,,,,,,,,,,,
40829,1645492598.361362,113.0,0.0,4346.666504,4235.897461,4156.410156,4141.538574,4271.282227000001,450.0,4.0,82.0,,,,0.0,4.0,1.0,4.0,4.0,4.0,75.0,,,,,,,,,,,,,,,,,,,,,,,,,,,,,,,,,,,,,,,,,,,,,,,,,,,,,,,,,,,,,,,,,,,,,,,,,,,,,,,,,,,,
40830,1645492598.3691778,114.0,0.0,4353.846191,4226.153809,4162.563965,4130.769043,4286.153809,450.0,4.0,82.0,,,,0.0,4.0,1.0,4.0,4.0,4.0,75.0,,,,,,,,57.0,0.0,0.579825,-0.172119,0.6450199999999999,0.467041,0.917494,-0.407233,-0.11572400000000001,-0.033694,-0.037207,-0.021564,,,,,,,,,,,,,,,,,,,,,,,,,,,,,,,,,,,10.0,0.0,1.0,0.0,1.0,0.0,,,,,,,,,,,,,,,,,,,,,,,,,
40831,1645492598.376893,115.0,0.0,4425.641113000001,4240.512695,4222.05127,4225.641113000001,4354.871582,16206.0,4.0,82.0,,,,0.0,4.0,1.0,4.0,4.0,4.0,75.0,,,,,,,,,,,,,,,,,,,,,,,,,,,,,,,,,,,,,,,,,,,,,,,,,,,,,,,,,,,,,,,,,,,,,,,,,,,,,,,,,,,,
40832,1645492598.384708,116.0,0.0,4438.461426,4284.615234000001,4245.128418,4278.974121,4376.922852000001,450.0,4.0,82.0,,,,0.0,4.0,1.0,4.0,4.0,4.0,75.0,,,,,,,,58.0,0.0,0.5799489999999999,-0.17236300000000002,0.6450199999999999,0.466797,0.9184709999999999,-0.410163,-0.113283,-0.033596,-0.037295,-0.018285,,,,,,,,,,,,,,,,,,,,,,,,,,,,,,,,,,,,,,,,,,,,,,,,,,,,,,,,,,,,,,,,,
40833,1645492598.392523,117.0,0.0,4374.871582,4275.897461,4226.153809,4244.102539,4361.025879,450.0,4.0,82.0,,,,0.0,4.0,1.0,4.0,4.0,4.0,75.0,,,,,,,,,,,,,,,,,,,,,,,,,,,,,,,,,,,,,,,,,,,,,,,,,,,,,,,,,,,,,,,,,,,,,,,,,,,,,,,,,,,,
40834,1645492598.4003382,118.0,0.0,4390.769043,4229.743652,4233.846191,4222.563965,4361.025879,450.0,4.0,82.0,,,,0.0,4.0,1.0,4.0,4.0,4.0,75.0,,,,,,,,59.0,0.0,0.580146,-0.17236300000000002,0.6450199999999999,0.466553,0.9126120000000001,-0.401373,-0.109865,-0.033557,-0.037325,-0.021681,,,,,,,,,,,,,,,,,,,,,,,,,,,,,,,,,,,10.0,0.0,1.0,0.0,1.0,0.0,,,,,,,,,,,,,,,,,,,,,,,,,
40835,1645492598.4081519,119.0,0.0,4428.205078,4212.307617,4235.384765999999,4226.666504,4354.358886999999,16206.0,4.0,82.0,,,,0.0,4.0,1.0,4.0,4.0,4.0,75.0,,,,,,,,,,,,,,,,,,,,,,,,,,,,,,,,,,,,,,,,,,,,,,,,,,,,,,,,,,,,,,,,,,,,,,,,,,,,,,,,,,,,
40836,1645492598.415967,120.0,0.0,4367.179688,4184.615234000001,4191.794922,4188.717772999999,4302.563965,450.0,4.0,82.0,,,,0.0,4.0,1.0,4.0,4.0,4.0,75.0,,,,,,,,60.0,0.0,0.580345,-0.17260699999999998,0.644775,0.466553,0.9277489999999999,-0.409674,-0.099123,-0.033473,-0.037302999999999996,-0.018536,,,,,,,,,,,,,,,,,,,,,,,,,,,,,,,,,,,,,,,,,,,,,,,,,,,,,,,,,,,,,,,,,
40837,1645492598.423782,121.0,0.0,4313.333496,4176.922852000001,4173.333496,4153.846191,4254.358886999999,450.0,4.0,82.0,,,,0.0,4.0,1.0,4.0,4.0,4.0,75.0,,,,,,,,,,,,,,,,,,,,,,,,,,,,,,,,,,,,,,,,,,,,,,,,,,,,,,,,,,,,,,,,,,,,,,,,,,,,,,,,,,,,
40838,1645492598.431597,122.0,0.0,4411.794922,4240.0,4238.974121,4264.615234000001,4335.384765999999,450.0,4.0,82.0,,,,0.0,4.0,1.0,4.0,4.0,4.0,75.0,,,,,,,,61.0,0.0,0.5801970000000001,-0.172852,0.6450199999999999,0.46630900000000003,0.917006,-0.410163,-0.100587,-0.033495,-0.037382,-0.02181,,,,,,,,,,,,,,,,,,,,,,,,,,,,,,,,,,,0.0,0.0,1.0,0.0,1.0,0.0,,,,,,,,,,,,,,,,,,,,,,,,,
40839,1645492598.4393132,123.0,0.0,4513.846191,4258.974121,4293.333496,4384.102539,4450.769043,16206.0,4.0,82.0,,,,0.0,4.0,1.0,4.0,4.0,4.0,75.0,,,,,,,,,,,,,,,,,,,,,,,,,,,,,,,,,,,,,,,,,,,,,,,,,,,,,,,,,,,,,,,,,,,,,,,,,,,,,,,,,,,,
40840,1645492598.447129,124.0,0.0,4424.615234000001,4217.436035,4241.538574,4302.563965,4408.717772999999,450.0,4.0,82.0,,,,0.0,4.0,1.0,4.0,4.0,4.0,75.0,,,,,,,,62.0,0.0,0.5801970000000001,-0.172852,0.6450199999999999,0.46630900000000003,0.923842,-0.393561,-0.10547000000000001,-0.033514999999999996,-0.037355,-0.024658000000000003,,,,,,,,,,,,,,,,,,,,,,,,,,,,,,,,,,,,,,,,,,,,,,,,,,,,,,,,,,,,,,,,,
40841,1645492598.4549448,125.0,0.0,4305.128418,4238.974121,4172.820313,4173.333496,4302.05127,450.0,4.0,82.0,,,,0.0,4.0,1.0,4.0,4.0,4.0,75.0,,,,,,,,,,,,,,,,,,,,,,,,,,,,,,,,,,,,,,,,,,,,,,,,,,,,,,,,,,,,,,,,,,,,,,,,,,,,,,,,,,,,
40842,1645492598.46276,126.0,0.0,4332.307617,4293.333496,4167.179688,4162.05127,4278.974121,450.0,4.0,82.0,,,,0.0,4.0,1.0,4.0,4.0,4.0,75.0,,,,,,,,63.0,0.0,0.5801970000000001,-0.172852,0.6450199999999999,0.46630900000000003,0.914076,-0.42090500000000003,-0.109377,-0.033532,-0.037427999999999996,-0.027368,1.0,0.0,0.0,,,,,,,,,,,,,,,,,,,,,,,,,,,,,,,,0.0,0.0,1.0,0.0,1.0,0.0,167.129517,41.040966,43.010021,15.337385000000001,13.504013,66.933456,22.416723,10.975292,13.80215,11.588937,48.414967,14.78098,20.994322,11.322061999999999,10.449595,163.089554,41.006332,44.258595,19.885984,14.655303,151.053848,34.477325,43.690434,19.139902,16.476709
40843,1645492598.470576,127.0,0.0,4384.102539,4280.512695,4186.666504,4179.487305,4292.307617,240.0,4.0,82.0,,,,0.0,4.0,1.0,4.0,4.0,4.0,75.0,,,,,,,,,,,,,,,,,,,,,,,,,,,,,,,,,,,,,,,,,,,,,,,,,,,,,,,,,,,,,,,,,,,,,,,,,,,,,,,,,,,,
40844,1645492598.478392,0.0,0.0,4368.717772999999,4246.666504,4183.589844,4173.333496,4301.025879,450.0,4.0,82.0,,,,0.0,4.0,1.0,4.0,4.0,4.0,75.0,,,,,,,,0.0,0.0,0.5801970000000001,-0.172852,0.6450199999999999,0.46630900000000003,0.917006,-0.41406899999999996,-0.107912,-0.033597,-0.037445,-0.029758,,,,,,,,,,,,,,,,,,,,,,,,,,,,,,,,,,,,,,,,,,,,,,,,,,,,,,,,,,,,,,,,,
40845,1645492598.486208,1.0,0.0,4355.897461,4265.641113000001,4183.589844,4197.436035,4311.794922,450.0,4.0,82.0,,,,0.0,4.0,1.0,4.0,4.0,4.0,75.0,,,,,,,,,,,,,,,,,,,,,,,,,,,,,,,,,,,,,,,,,,,,,,,,,,,,,,,,,,,,,,,,,,,,,,,,,,,,,,,,,,,,
40846,1645492598.494024,2.0,0.0,4331.282227000001,4331.794922,4186.153809,4214.358886999999,4280.0,16204.0,4.0,82.0,,,,0.0,4.0,1.0,4.0,4.0,4.0,75.0,,,,,,,,1.0,0.0,0.5801970000000001,-0.172852,0.6450199999999999,0.46630900000000003,0.9126120000000001,-0.404303,-0.11133,-0.033607,-0.037411,-0.031958,,,,,,,,,,,,,,,,,,,,,,,,,,,,,,,,,,,0.0,0.0,1.0,0.0,1.0,0.0,,,,,,,,,,,,,,,,,,,,,,,,,
40847,1645492598.50184,3.0,0.0,4307.692383,4414.358886999999,4191.282227000001,4204.102539,4256.922852000001,450.0,4.0,82.0,,,,0.0,4.0,1.0,4.0,4.0,4.0,75.0,,,,,,,,,,,,,,,,,,,,,,,,,,,,,,,,,,,,,,,,,,,,,,,,,,,,,,,,,,,,,,,,,,,,,,,,,,,,,,,,,,,,
40848,1645492598.509656,4.0,0.0,4323.589844,4433.333496,4189.230957,4196.922852000001,4274.871582,113.0,4.0,82.0,,,,0.0,4.0,1.0,4.0,4.0,4.0,75.0,,,,,,,,2.0,0.0,0.580393,-0.172852,0.6450199999999999,0.46606400000000003,0.903334,-0.41358100000000003,-0.10254100000000001,-0.033615,-0.03743,-0.033987,,,,,,,,,,,,,,,,,,,,,,,,,,,,,,,,,,,,,,,,,,,,,,,,,,,,,,,,,,,,,,,,,
40849,1645492598.5173712,5.0,0.0,4337.94873,4424.615234000001,4187.692383,4188.205078,4271.282227000001,450.0,4.0,82.0,,,,0.0,4.0,1.0,4.0,4.0,4.0,75.0,,,,,,,,,,,,,,,,,,,,,,,,,,,,,,,,,,,,,,,,,,,,,,,,,,,,,,,,,,,,,,,,,,,,,,,,,,,,,,,,,,,,
40850,1645492598.525187,6.0,0.0,4398.974121,4475.384765999999,4257.94873,4261.025879,4322.05127,16089.0,4.0,82.0,,,,0.0,4.0,1.0,4.0,4.0,4.0,75.0,,,,,,,,3.0,0.0,0.58032,-0.173096,0.6450199999999999,0.46606400000000003,0.9121229999999999,-0.411627,-0.113283,-0.033623,-0.037398,-0.029464999999999998,,,,,,,,,,,,,,,,,,,,,,,,,,,,,,,,,,,0.0,0.0,1.0,0.0,1.0,0.0,,,,,,,,,,,,,,,,,,,,,,,,,
40851,1645492598.533002,7.0,0.0,4466.153809,4510.256348,4311.282227000001,4361.025879,4394.871582,450.0,4.0,82.0,,,,0.0,4.0,1.0,4.0,4.0,4.0,75.0,,,,,,,,,,,,,,,,,,,,,,,,,,,,,,,,,,,,,,,,,,,,,,,,,,,,,,,,,,,,,,,,,,,,,,,,,,,,,,,,,,,,
40852,1645492598.540818,8.0,0.0,4422.05127,4477.436035,4238.461426,4308.205078,4351.282227000001,450.0,4.0,82.0,,,,0.0,4.0,1.0,4.0,4.0,4.0,75.0,,,,,,,,4.0,0.0,0.58032,-0.173096,0.6450199999999999,0.46606400000000003,0.9077290000000001,-0.40235,-0.10351700000000001,-0.033679,-0.037369,-0.025445,,,,,,,,,,,,,,,,,,,,,,,,,,,,,,,,,,,,,,,,,,,,,,,,,,,,,,,,,,,,,,,,,
40853,1645492598.548634,9.0,0.0,4341.538574,4418.974121,4161.538574,4169.230957,4257.94873,16205.0,4.0,82.0,,,,0.0,4.0,1.0,4.0,4.0,4.0,75.0,,,,,,,,,,,,,,,,,,,,,,,,,,,,,,,,,,,,,,,,,,,,,,,,,,,,,,,,,,,,,,,,,,,,,,,,,,,,,,,,,,,,
40854,1645492598.556449,10.0,0.0,4365.641113000001,4407.179688,4205.641113000001,4168.717772999999,4269.743652,450.0,4.0,82.0,,,,0.0,4.0,1.0,4.0,4.0,4.0,75.0,,,,,,,,5.0,0.0,0.580516,-0.173096,0.6450199999999999,0.46581999999999996,0.914076,-0.410163,-0.103029,-0.033729,-0.037392,-0.028027,,,,,,,,,,,,,,,,,,,,,,,,,,,,,,,,,,,0.0,0.0,1.0,0.0,1.0,0.0,,,,,,,,,,,,,,,,,,,,,,,,,
40855,1645492598.564265,11.0,0.0,4484.615234000001,4482.563965,4292.307617,4318.974121,4387.692383,16180.0,4.0,82.0,,,,0.0,4.0,1.0,4.0,4.0,4.0,75.0,,,,,,,,,,,,,,,,,,,,,,,,,,,,,,,,,,,,,,,,,,,,,,,,,,,,,,,,,,,,,,,,,,,,,,,,,,,,,,,,,,,,
40856,1645492598.5720801,12.0,0.0,4540.0,4551.794922,4293.846191,4366.153809,4440.0,450.0,4.0,82.0,,,,0.0,4.0,1.0,4.0,4.0,4.0,75.0,,,,,,,,6.0,0.0,0.580516,-0.173096,0.6450199999999999,0.46581999999999996,0.9072399999999999,-0.401373,-0.102052,-0.033823,-0.03751,-0.030254000000000003,,,,,,,,,,,,,,,,,,,,,,,,,,,,,,,,,,,,,,,,,,,,,,,,,,,,,,,,,,,,,,,,,
40857,1645492598.5798962,13.0,0.0,4456.922852000001,4520.512695,4214.871582,4255.897461,4336.410156,450.0,4.0,82.0,,,,0.0,4.0,1.0,4.0,4.0,4.0,75.0,,,,,,,,,,,,,,,,,,,,,,,,,,,,,,,,,,,,,,,,,,,,,,,,,,,,,,,,,,,,,,,,,,,,,,,,,,,,,,,,,,,,
40858,1645492598.5877118,14.0,0.0,4365.641113000001,4463.589844,4163.589844,4186.666504,4241.025879,450.0,4.0,82.0,,,,0.0,4.0,1.0,4.0,4.0,4.0,75.0,,,,,,,,7.0,0.0,0.58032,-0.173096,0.6450199999999999,0.46606400000000003,0.9077290000000001,-0.40235,-0.10351700000000001,-0.033907,-0.037469999999999996,-0.032404,1.0,0.0,0.0,,,,,,,,,,,,,,,,,,,,,,,,,,,,,,,,0.0,0.0,1.0,0.0,512.0,1.0,138.596359,40.556915000000004,51.861973,18.782770000000003,15.148314000000001,91.907318,42.446739,13.933931,15.387220999999998,12.859834,42.426617,15.333885,25.058836,12.744619,11.643785000000001,141.866425,43.628674,53.279472,21.467121,16.089958,122.987816,33.932728000000004,51.871193,21.610641,18.904729999999997
40859,1645492598.595427,15.0,0.0,4435.384765999999,4483.589844,4227.692383,4237.94873,4340.0,16180.0,4.0,82.0,,,,0.0,4.0,1.0,4.0,4.0,4.0,75.0,,,,,,,,,,,,,,,,,,,,,,,,,,,,,,,,,,,,,,,,,,,,,,,,,,,,,,,,,,,,,,,,,,,,,,,,,,,,,,,,,,,,
40860,1645492598.603242,16.0,0.0,4578.461426,4500.512695,4296.922852000001,4313.333496,4477.436035,0.0,4.0,82.0,,,,0.0,4.0,1.0,4.0,4.0,4.0,75.0,,,,,,,,8.0,0.0,0.580516,-0.173096,0.6450199999999999,0.46581999999999996,0.9072399999999999,-0.401373,-0.102052,-0.033983,-0.037581,-0.034193,,,,,,,,,,,,,,,,,,,,,,,,,,,,,,,,,,,,,,,,,,,,,,,,,,,,,,,,,,,,,,,,,
40861,1645492598.611057,17.0,0.0,4621.025879,4490.769043,4247.179688,4296.410156,4458.974121,0.0,4.0,82.0,,,,0.0,4.0,1.0,4.0,4.0,4.0,75.0,,,,,,,,,,,,,,,,,,,,,,,,,,,,,,,,,,,,,,,,,,,,,,,,,,,,,,,,,,,,,,,,,,,,,,,,,,,,,,,,,,,,
40862,1645492598.6188722,18.0,0.0,4633.333496,4553.846191,4233.846191,4238.974121,4465.128418,0.0,4.0,82.0,,,,0.0,4.0,1.0,4.0,4.0,4.0,75.0,,,,,,,,9.0,0.0,0.580393,-0.172852,0.6450199999999999,0.46606400000000003,0.9194479999999999,-0.393072,-0.104494,-0.034003,-0.037485000000000004,-0.029749,,,,,,,,,,,,,,,,,,,,,,,,,,,,,,,,,,,0.0,0.0,1.0,0.0,512.0,1.0,,,,,,,,,,,,,,,,,,,,,,,,,
40863,1645492598.6266868,19.0,0.0,4722.05127,4633.846191,4289.230957,4251.282227000001,4587.692383,0.0,4.0,82.0,,,,0.0,4.0,1.0,4.0,4.0,4.0,75.0,,,,,,,,,,,,,,,,,,,,,,,,,,,,,,,,,,,,,,,,,,,,,,,,,,,,,,,,,,,,,,,,,,,,,,,,,,,,,,,,,,,,
40864,1645492598.634502,20.0,0.0,4842.563965,4565.128418,4237.436035,4278.461426,4633.846191,0.0,4.0,82.0,,,,0.0,4.0,1.0,4.0,4.0,4.0,75.0,,,,,,,,10.0,0.0,0.579799,-0.17236300000000002,0.645508,0.46630900000000003,0.929702,-0.39942,-0.10547000000000001,-0.034069999999999996,-0.037594,-0.03195,,,,,,,,,,,,,,,,,,,,,,,,,,,,,,,,,,,,,,,,,,,,,,,,,,,,,,,,,,,,,,,,,
40865,1645492598.642318,21.0,0.0,4952.820313,4485.641113000001,4195.384765999999,4291.794922,4668.717772999999,0.0,4.0,82.0,,,,0.0,4.0,1.0,4.0,4.0,4.0,75.0,,,,,,,,,,,,,,,,,,,,,,,,,,,,,,,,,,,,,,,,,,,,,,,,,,,,,,,,,,,,,,,,,,,,,,,,,,,,,,,,,,,,
40866,1645492598.650133,22.0,0.0,5117.94873,4622.05127,4343.589844,4368.717772999999,4887.179688,0.0,4.0,82.0,,,,0.0,4.0,1.0,4.0,4.0,4.0,75.0,,,,,,,,11.0,0.0,0.5794239999999999,-0.17138699999999998,0.645752,0.466797,0.9199360000000001,-0.37793499999999997,-0.118654,-0.034081,-0.037643,-0.027632,,,,,,,,,,,,,,,,,,,,,,,,,,,,,,,,,,,0.0,0.0,1.0,0.0,512.0,1.0,,,,,,,,,,,,,,,,,,,,,,,,,
40867,1645492598.657948,23.0,0.0,5259.487305,4736.410156,4397.436035,4401.538574,5010.769043,0.0,4.0,82.0,,,,0.0,4.0,1.0,4.0,4.0,4.0,75.0,,,,,,,,,,,,,,,,,,,,,,,,,,,,,,,,,,,,,,,,,,,,,,,,,,,,,,,,,,,,,,,,,,,,,,,,,,,,,,,,,,,,
40868,1645492598.665664,24.0,0.0,5273.333496,4666.153809,4247.692383,4306.666504,4849.230957,0.0,4.0,82.0,,,,0.0,4.0,1.0,4.0,4.0,4.0,75.0,,,,,,,,12.0,0.0,0.579099,-0.170898,0.645996,0.467041,0.917006,-0.40235,-0.095216,-0.034138999999999996,-0.037687,-0.030044,,,,,,,,,,,,,,,,,,,,,,,,,,,,,,,,,,,,,,,,,,,,,,,,,,,,,,,,,,,,,,,,,
40869,1645492598.6734788,25.0,0.0,5380.512695,4666.666504,4207.692383,4228.717772999999,4762.05127,0.0,4.0,82.0,,,,0.0,4.0,1.0,4.0,4.0,4.0,75.0,,,,,,,,,,,,,,,,,,,,,,,,,,,,,,,,,,,,,,,,,,,,,,,,,,,,,,,,,,,,,,,,,,,,,,,,,,,,,,,,,,,,
40870,1645492598.681295,26.0,0.0,5687.692383,4789.743652,4274.871582,4214.871582,4894.871582,0.0,4.0,82.0,,,,0.0,4.0,1.0,4.0,4.0,4.0,75.0,,,,,,,,13.0,0.0,0.578773,-0.17040999999999998,0.6462399999999999,0.46728500000000006,0.920424,-0.39697899999999997,-0.104494,-0.034192,-0.037727,-0.026014,,,,,,,,,,,,,,,,,,,,,,,,,,,,,,,,,,,0.0,0.0,1.0,0.0,512.0,1.0,,,,,,,,,,,,,,,,,,,,,,,,,
40871,1645492598.68911,27.0,0.0,6051.794922,4881.538574,4293.846191,4238.461426,5026.153809,0.0,4.0,82.0,,,,0.0,4.0,1.0,4.0,4.0,4.0,75.0,,,,,,,,,,,,,,,,,,,,,,,,,,,,,,,,,,,,,,,,,,,,,,,,,,,,,,,,,,,,,,,,,,,,,,,,,,,,,,,,,,,,
40872,1645492598.6969259,28.0,0.0,6392.820313,4935.897461,4326.153809,4333.846191,5106.153809,0.0,4.0,82.0,,,,0.0,4.0,1.0,4.0,4.0,4.0,75.0,,,,,,,,14.0,0.0,0.578451,-0.170166,0.6462399999999999,0.46777299999999994,0.9350729999999999,-0.395514,-0.11621300000000001,-0.034289,-0.037714,-0.028589,,,,,,,,,,,,,,,,,,,,,,,,,,,,,,,,,,,,,,,,,,,,,,,,,,,,,,,,,,,,,,,,,
40873,1645492598.704742,29.0,0.0,6643.589844,4996.410156,4362.05127,4381.538574,5161.538574,0.0,4.0,82.0,,,,0.0,4.0,1.0,4.0,4.0,4.0,75.0,,,,,,,,,,,,,,,,,,,,,,,,,,,,,,,,,,,,,,,,,,,,,,,,,,,,,,,,,,,,,,,,,,,,,,,,,,,,,,,,,,,,
40874,1645492598.712557,30.0,0.0,6775.384765999999,5052.307617,4316.922852000001,4301.538574,5159.487305,0.0,4.0,82.0,,,,0.0,4.0,1.0,4.0,4.0,4.0,75.0,1.0,16.666666,1.0,0.0,1.0,1.0,1.0,15.0,0.0,0.578253,-0.170166,0.6462399999999999,0.46801800000000005,0.9233540000000001,-0.416022,-0.10888800000000001,-0.034277999999999996,-0.037752,-0.024656,1.0,0.0,0.0,,,,,,,,,,,,,,,,,,,,,,,,,,,,,,,,0.0,0.0,1.0,0.0,512.0,0.257343,110.533745,40.129383000000004,56.721405000000004,23.056189,16.682389999999998,136.936035,74.952202,18.77569,17.976774,14.519276999999999,35.812969,15.772654000000001,27.303079999999998,14.556656,12.312968,118.199348,47.644329,57.733624,24.284672,17.386492,96.007324,32.396793,55.945015000000005,24.852024,20.666082
40875,1645492598.7203732,31.0,0.0,6904.102539,5132.307617,4300.0,4296.922852000001,5205.128418,0.0,4.0,82.0,,,,0.0,4.0,1.0,4.0,4.0,4.0,75.0,,,,,,,,,,,,,,,,,,,,,,,,,,,,,,,,,,,,,,,,,,,,,,,,,,,,,,,,,,,,,,,,,,,,,,,,,,,,,,,,,,,,
40876,1645492598.728188,32.0,0.0,6989.743651999999,5176.922852000001,4315.897461,4334.871582,5262.563965,0.0,4.0,82.0,,,,0.0,4.0,1.0,4.0,4.0,4.0,75.0,,,,,,,,16.0,0.0,0.578055,-0.170166,0.6462399999999999,0.468262,0.9131,-0.421393,-0.11035299999999999,-0.034268,-0.037687,-0.027317,,,,,,,,,,,,,,,,,,,,,,,,,,,,,,,,,,,,,,,,,,,,,,,,,,,,,,,,,,,,,,,,,
40877,1645492598.7360039,33.0,0.0,6882.05127,5142.05127,4239.487305,4214.871582,5152.307617,0.0,4.0,82.0,,,,0.0,4.0,1.0,4.0,4.0,4.0,75.0,,,,,,,,,,,,,,,,,,,,,,,,,,,,,,,,,,,,,,,,,,,,,,,,,,,,,,,,,,,,,,,,,,,,,,,,,,,,,,,,,,,,
40878,1645492598.7437189,34.0,0.0,6746.153809,5156.922852000001,4167.179688,4119.487305,5011.282227000001,0.0,4.0,82.0,,,,0.0,4.0,1.0,4.0,4.0,4.0,75.0,,,,,,,,17.0,0.0,0.577731,-0.169922,0.6462399999999999,0.46875,0.906264,-0.395514,-0.10351700000000001,-0.034211,-0.037630000000000004,-0.029664,,,,,,,,,,,,,,,,,,,,,,,,,,,,,,,,,,,0.0,0.0,1.0,0.0,512.0,0.257343,,,,,,,,,,,,,,,,,,,,,,,,,
40879,1645492598.751535,35.0,0.0,6713.846191,5232.820313,4231.282227000001,4242.563965,5093.846191,0.0,4.0,82.0,,,,0.0,4.0,1.0,4.0,4.0,4.0,75.0,,,,,,,,,,,,,,,,,,,,,,,,,,,,,,,,,,,,,,,,,,,,,,,,,,,,,,,,,,,,,,,,,,,,,,,,,,,,,,,,,,,,
40880,1645492598.75935,36.0,0.0,6661.025879,5239.487305,4333.846191,4396.922852000001,5256.922852000001,0.0,4.0,82.0,,,,0.0,4.0,1.0,4.0,4.0,4.0,75.0,,,,,,,,18.0,0.0,0.577731,-0.169922,0.6462399999999999,0.46875,0.9272600000000001,-0.43994799999999995,-0.11523599999999999,-0.034207999999999995,-0.037529,-0.031775,,,,,,,,,,,,,,,,,,,,,,,,,,,,,,,,,,,,,,,,,,,,,,,,,,,,,,,,,,,,,,,,,
40881,1645492598.767165,37.0,0.0,6501.025879,5159.487305,4308.205078,4359.487305,5203.589844,0.0,4.0,82.0,,,,0.0,4.0,1.0,4.0,4.0,4.0,75.0,,,,,,,,,,,,,,,,,,,,,,,,,,,,,,,,,,,,,,,,,,,,,,,,,,,,,,,,,,,,,,,,,,,,,,,,,,,,,,,,,,,,
40882,1645492598.774981,38.0,0.0,6237.94873,5087.179688,4175.384765999999,4221.025879,4995.897461,0.0,4.0,82.0,,,,0.0,4.0,1.0,4.0,4.0,4.0,75.0,,,,,,,,19.0,0.0,0.577933,-0.170166,0.645996,0.46875,0.9043110000000001,-0.42236999999999997,-0.099611,-0.034156,-0.037585,-0.027426,,,,,,,,,,,,,,,,,,,,,,,,,,,,,,,,,,,0.0,0.0,1.0,0.0,512.0,0.257343,,,,,,,,,,,,,,,,,,,,,,,,,
40883,1645492598.7827961,39.0,0.0,6037.94873,5098.974121,4117.436035,4150.769043,4898.974121,0.0,4.0,82.0,,,,0.0,4.0,1.0,4.0,4.0,4.0,75.0,,,,,,,,,,,,,,,,,,,,,,,,,,,,,,,,,,,,,,,,,,,,,,,,,,,,,,,,,,,,,,,,,,,,,,,,,,,,,,,,,,,,
40884,1645492598.790612,40.0,0.0,5968.717772999999,5148.717772999999,4175.384765999999,4180.0,4931.794922,0.0,4.0,82.0,,,,0.0,4.0,1.0,4.0,4.0,4.0,75.0,,,,,,,,20.0,0.0,0.57813,-0.170166,0.645996,0.46850600000000003,0.906752,-0.431159,-0.101564,-0.03411,-0.037683999999999995,-0.029858999999999997,,,,,,,,,,,,,,,,,,,,,,,,,,,,,,,,,,,,,,,,,,,,,,,,,,,,,,,,,,,,,,,,,
40885,1645492598.7984269,41.0,0.0,5777.94873,5077.436035,4196.410156,4216.922852000001,4878.461426,0.0,4.0,82.0,,,,0.0,4.0,1.0,4.0,4.0,4.0,75.0,,,,,,,,,,,,,,,,,,,,,,,,,,,,,,,,,,,,,,,,,,,,,,,,,,,,,,,,,,,,,,,,,,,,,,,,,,,,,,,,,,,,
40886,1645492598.806143,42.0,0.0,5427.179688,4905.641113000001,4156.922852000001,4177.436035,4746.666504,0.0,4.0,82.0,,,,0.0,4.0,1.0,4.0,4.0,4.0,75.0,,,,,,,,21.0,0.0,0.578529,-0.17040999999999998,0.645752,0.468262,0.918959,-0.431159,-0.100587,-0.034068,-0.037626,-0.032049,,,,,,,,,,,,,,,,,,,,,,,,,,,,,,,,,,,0.0,0.0,1.0,0.0,512.0,0.257343,,,,,,,,,,,,,,,,,,,,,,,,,
40887,1645492598.813959,43.0,0.0,5207.692383,4865.128418,4175.897461,4132.307617,4720.512695,0.0,4.0,82.0,,,,0.0,4.0,1.0,4.0,4.0,4.0,75.0,,,,,,,,,,,,,,,,,,,,,,,,,,,,,,,,,,,,,,,,,,,,,,,,,,,,,,,,,,,,,,,,,,,,,,,,,,,,,,,,,,,,
40888,1645492598.821775,44.0,0.0,5178.461426,4916.410156,4242.563965,4181.538574,4769.230957,0.0,4.0,82.0,,,,0.0,4.0,1.0,4.0,4.0,4.0,75.0,,,,,,,,22.0,0.0,0.578655,-0.170654,0.645752,0.46801800000000005,0.908217,-0.423346,-0.107912,-0.034079000000000005,-0.037575,-0.034069,,,,,,,,,,,,,,,,,,,,,,,,,,,,,,,,,,,,,,,,,,,,,,,,,,,,,,,,,,,,,,,,,
40889,1645492598.82959,45.0,0.0,5141.538574,4846.153809,4249.230957,4295.384765999999,4747.692383,0.0,4.0,82.0,,,,0.0,4.0,1.0,4.0,4.0,4.0,75.0,,,,,,,,,,,,,,,,,,,,,,,,,,,,,,,,,,,,,,,,,,,,,,,,,,,,,,,,,,,,,,,,,,,,,,,,,,,,,,,,,,,,
40890,1645492598.8374062,46.0,0.0,5060.0,4720.0,4229.230957,4377.436035,4689.230957,0.0,4.0,82.0,,,,0.0,4.0,1.0,4.0,4.0,4.0,75.0,,,,,,,,23.0,0.0,0.579052,-0.170898,0.645508,0.46777299999999994,0.916518,-0.420417,-0.1084,-0.034187,-0.037675,-0.03574,1.0,0.0,0.0,,,,,,,,,,,,,,,,,,,,,,,,,,,,,,,,0.0,0.0,1.0,0.0,512.0,0.247011,88.83330500000001,38.298653,55.409786,27.421096999999996,17.63628,185.589279,112.449028,23.878553,21.014456,16.178652,29.15036,15.770847,26.704287,16.710432,12.203575,93.719719,50.860572999999995,55.769028000000006,28.55505,18.017834,72.293755,30.054846,53.990986,28.697699,21.203692999999998
40891,1645492598.845222,47.0,0.0,4950.769043,4672.820313,4237.94873,4352.307617,4669.743652,0.0,4.0,82.0,,,,0.0,4.0,1.0,4.0,4.0,4.0,75.0,,,,,,,,,,,,,,,,,,,,,,,,,,,,,,,,,,,,,,,,,,,,,,,,,,,,,,,,,,,,,,,,,,,,,,,,,,,,,,,,,,,,
40892,1645492598.853038,48.0,0.0,4764.615234000001,4626.666504,4222.563965,4243.077147999999,4611.794922,0.0,4.0,82.0,,,,0.0,4.0,1.0,4.0,4.0,4.0,75.0,,,,,,,,24.0,0.0,0.579177,-0.17114300000000002,0.645508,0.467529,0.914076,-0.420417,-0.099611,-0.034186,-0.037569,-0.030994,,,,,,,,,,,,,,,,,,,,,,,,,,,,,,,,,,,,,,,,,,,,,,,,,,,,,,,,,,,,,,,,,
40893,1645492598.860854,49.0,0.0,4571.794922,4512.820313,4172.307617,4132.307617,4476.410156,0.0,4.0,82.0,,,,0.0,4.0,1.0,4.0,4.0,4.0,75.0,,,,,,,,,,,,,,,,,,,,,,,,,,,,,,,,,,,,,,,,,,,,,,,,,,,,,,,,,,,,,,,,,,,,,,,,,,,,,,,,,,,,
40894,1645492598.86867,50.0,0.0,4484.102539,4438.461426,4168.205078,4095.384521,4380.512695,0.0,4.0,82.0,,,,0.0,4.0,1.0,4.0,4.0,4.0,75.0,,,,,,,,25.0,0.0,0.5793020000000001,-0.17138699999999998,0.645508,0.46728500000000006,0.918959,-0.417487,-0.107912,-0.034186,-0.037523,-0.032973,,,,,,,,,,,,,,,,,,,,,,,,,,,,,,,,,,,0.0,0.0,1.0,0.0,512.0,0.247011,,,,,,,,,,,,,,,,,,,,,,,,,
40895,1645492598.8764849,51.0,0.0,4467.692383,4444.102539,4204.102539,4144.615234000001,4400.0,0.0,4.0,82.0,,,,0.0,4.0,1.0,4.0,4.0,4.0,75.0,,,,,,,,,,,,,,,,,,,,,,,,,,,,,,,,,,,,,,,,,,,,,,,,,,,,,,,,,,,,,,,,,,,,,,,,,,,,,,,,,,,,
40896,1645492598.884201,52.0,0.0,4414.358886999999,4437.94873,4205.641113000001,4193.846191,4409.743652,0.0,4.0,82.0,,,,0.0,4.0,1.0,4.0,4.0,4.0,75.0,,,,,,,,26.0,0.0,0.57923,-0.171631,0.645508,0.46728500000000006,0.9121229999999999,-0.409674,-0.107912,-0.034087,-0.037482,-0.034803,,,,,,,,,,,,,,,,,,,,,,,,,,,,,,,,,,,,,,,,,,,,,,,,,,,,,,,,,,,,,,,,,
40897,1645492598.892017,53.0,0.0,4343.589844,4410.256348,4200.512695,4176.922852000001,4356.922852000001,0.0,4.0,82.0,,,,0.0,4.0,1.0,4.0,4.0,4.0,75.0,,,,,,,,,,,,,,,,,,,,,,,,,,,,,,,,,,,,,,,,,,,,,,,,,,,,,,,,,,,,,,,,,,,,,,,,,,,,,,,,,,,,
40898,1645492598.899832,54.0,0.0,4268.205078,4397.436035,4193.333496,4109.743652,4294.871582,0.0,4.0,82.0,,,,0.0,4.0,1.0,4.0,4.0,4.0,75.0,,,,,,,,27.0,0.0,0.579427,-0.171631,0.645508,0.467041,0.9233540000000001,-0.408209,-0.10693499999999999,-0.034145,-0.037445,-0.030151,,,,,,,,,,,,,,,,,,,,,,,,,,,,,,,,,,,0.0,0.0,1.0,0.0,512.0,0.247011,,,,,,,,,,,,,,,,,,,,,,,,,
40899,1645492598.907648,55.0,0.0,4216.922852000001,4371.282227000001,4187.692383,4115.897461,4282.05127,0.0,4.0,82.0,,,,0.0,4.0,1.0,4.0,4.0,4.0,75.0,,,,,,,,,,,,,,,,,,,,,,,,,,,,,,,,,,,,,,,,,,,,,,,,,,,,,,,,,,,,,,,,,,,,,,,,,,,,,,,,,,,,
40900,1645492598.915463,56.0,0.0,4228.205078,4341.538574,4222.05127,4187.692383,4305.641113000001,0.0,4.0,82.0,,,,0.0,4.0,1.0,4.0,4.0,4.0,75.0,,,,,,,,28.0,0.0,0.5793020000000001,-0.17138699999999998,0.645508,0.46728500000000006,0.918959,-0.417487,-0.107912,-0.0341,-0.037411,-0.026061,,,,,,,,,,,,,,,,,,,,,,,,,,,,,,,,,,,,,,,,,,,,,,,,,,,,,,,,,,,,,,,,,
40901,1645492598.9232788,57.0,0.0,4253.846191,4356.410156,4262.05127,4204.615234000001,4318.461426,0.0,4.0,82.0,,,,0.0,4.0,1.0,4.0,4.0,4.0,75.0,,,,,,,,,,,,,,,,,,,,,,,,,,,,,,,,,,,,,,,,,,,,,,,,,,,,,,,,,,,,,,,,,,,,,,,,,,,,,,,,,,,,
40902,1645492598.931095,58.0,0.0,4268.205078,4359.487305,4267.692383,4222.563965,4348.205078,0.0,4.0,82.0,,,,0.0,4.0,1.0,4.0,4.0,4.0,75.0,,,,,,,,29.0,0.0,0.579427,-0.171631,0.645508,0.467041,0.9199360000000001,-0.40283800000000003,-0.109865,-0.034108,-0.03743,-0.022234999999999998,,,,,,,,,,,,,,,,,,,,,,,,,,,,,,,,,,,0.0,0.0,1.0,0.0,512.0,0.247011,,,,,,,,,,,,,,,,,,,,,,,,,
40903,1645492598.93891,59.0,0.0,4250.769043,4310.256348,4252.820313,4241.025879,4355.384765999999,0.0,4.0,82.0,,,,0.0,4.0,1.0,4.0,4.0,4.0,75.0,,,,,,,,,,,,,,,,,,,,,,,,,,,,,,,,,,,,,,,,,,,,,,,,,,,,,,,,,,,,,,,,,,,,,,,,,,,,,,,,,,,,
40904,1645492598.946726,60.0,0.0,4200.0,4257.436035,4240.512695,4186.666504,4315.897461,0.0,4.0,82.0,,,,0.0,4.0,1.0,4.0,4.0,4.0,75.0,,,,,,,,30.0,0.0,0.579427,-0.171631,0.645508,0.467041,0.914076,-0.407721,-0.098146,-0.034018,-0.037349,-0.024943,,,,,,,,,,,,,,,,,,,,,,,,,,,,,,,,,,,,,,,,,,,,,,,,,,,,,,,,,,,,,,,,,
40905,1645492598.954441,61.0,0.0,4143.077147999999,4242.05127,4227.692383,4137.94873,4284.102539,0.0,4.0,82.0,,,,0.0,4.0,2.0,4.0,4.0,4.0,83.333336,,,,,,,,,,,,,,,,,,,,,,,,,,,,,,,,,,,,,,,,,,,,,,,,,,,,,,,,,,,,,,,,,,,,,,,,,,,,,,,,,,,,
40906,1645492598.9622571,62.0,0.0,4088.205078,4257.94873,4205.128418,4162.563965,4261.025879,0.0,4.0,82.0,,,,0.0,4.0,2.0,4.0,4.0,4.0,83.333336,,,,,,,,31.0,0.0,0.579699,-0.171631,0.6452640000000001,0.467041,0.9150530000000001,-0.39942,-0.11230599999999999,-0.034033999999999995,-0.037374,-0.021325,1.0,0.0,0.0,,,,,,,,,,,,,,,,,,,,,,,,,,,,,,,,0.0,0.0,32.0,0.493695,1.0,0.0,138.542038,37.151047,49.790962,31.6199,18.058214000000003,225.67245499999999,145.269028,27.659785999999997,23.799205999999998,17.538973000000002,23.092499,14.985268,23.366663,19.225029,11.614295,69.825806,50.84388,48.520515,34.26638,18.091808,55.913605000000004,27.19537,46.955311,33.363234999999996,20.887401999999998
40907,1645492598.970072,63.0,0.0,4042.5642090000006,4225.128418,4188.717772999999,4157.436035,4210.256348,0.0,4.0,82.0,,,,0.0,4.0,2.0,4.0,4.0,4.0,83.333336,,,,,,,,,,,,,,,,,,,,,,,,,,,,,,,,,,,,,,,,,,,,,,,,,,,,,,,,,,,,,,,,,,,,,,,,,,,,,,,,,,,,
40908,1645492598.977887,64.0,0.0,4008.718018,4154.358886999999,4160.512695,4070.256348,4135.384765999999,450.0,4.0,82.0,,,,0.0,4.0,2.0,4.0,4.0,4.0,83.333336,,,,,,,,32.0,0.0,0.579699,-0.171631,0.6452640000000001,0.467041,0.914076,-0.40381500000000004,-0.118654,-0.034,-0.037299,-0.024319999999999998,,,,,,,,,,,,,,,,,,,,,,,,,,,,,,,,,,,,,,,,,,,,,,,,,,,,,,,,,,,,,,,,,
40909,1645492598.985703,65.0,0.0,3969.743652,4195.897461,4136.410156,4015.897461,4091.794922,450.0,4.0,82.0,,,,0.0,4.0,2.0,4.0,4.0,4.0,83.333336,,,,,,,,,,,,,,,,,,,,,,,,,,,,,,,,,,,,,,,,,,,,,,,,,,,,,,,,,,,,,,,,,,,,,,,,,,,,,,,,,,,,
40910,1645492598.9935179,66.0,0.0,3907.179443,4251.794922,4129.743652,4010.7692869999996,4061.025635,16234.0,4.0,82.0,,,,0.0,4.0,2.0,4.0,4.0,4.0,83.333336,,,,,,,,33.0,0.0,0.579699,-0.171631,0.6452640000000001,0.467041,0.926284,-0.410163,-0.11084200000000001,-0.034067,-0.037329,-0.020716,,,,,,,,,,,,,,,,,,,,,,,,,,,,,,,,,,,0.0,0.0,32.0,0.493695,1.0,0.0,,,,,,,,,,,,,,,,,,,,,,,,,
40911,1645492599.001334,67.0,0.0,3802.5642090000006,4152.820313,4077.4357909999994,3917.4357909999994,3970.256348,450.0,4.0,82.0,,,,0.0,4.0,2.0,4.0,4.0,4.0,83.333336,,,,,,,,,,,,,,,,,,,,,,,,,,,,,,,,,,,,,,,,,,,,,,,,,,,,,,,,,,,,,,,,,,,,,,,,,,,,,,,,,,,,
40912,1645492599.009149,68.0,0.0,3686.6667479999996,4071.281982,3994.358887,3789.2307130000004,3849.2307130000004,236.0,4.0,82.0,,,,0.0,4.0,2.0,4.0,4.0,4.0,83.333336,,,,,,,,34.0,0.0,0.579699,-0.171631,0.6452640000000001,0.467041,0.906752,-0.409186,-0.109865,-0.034078,-0.037307,-0.023819999999999997,,,,,,,,,,,,,,,,,,,,,,,,,,,,,,,,,,,,,,,,,,,,,,,,,,,,,,,,,,,,,,,,,
40913,1645492599.016864,69.0,0.0,3617.9487299999996,4090.256348,3969.2307130000004,3764.615479,3784.615479,450.0,4.0,82.0,,,,0.0,4.0,2.0,4.0,4.0,4.0,83.333336,,,,,,,,,,,,,,,,,,,,,,,,,,,,,,,,,,,,,,,,,,,,,,,,,,,,,,,,,,,,,,,,,,,,,,,,,,,,,,,,,,,,
40914,1645492599.024679,70.0,0.0,3610.256348,4079.487061,3992.3076170000004,3782.0512700000004,3787.6923829999996,16057.0,4.0,82.0,,,,0.0,4.0,2.0,4.0,4.0,4.0,83.333336,,,,,,,,35.0,0.0,0.579699,-0.171631,0.6452640000000001,0.467041,0.917494,-0.420417,-0.11133,-0.034039,-0.037287,-0.026663,,,,,,,,,,,,,,,,,,,,,,,,,,,,,,,,,,,0.0,0.0,32.0,0.493695,1.0,0.0,,,,,,,,,,,,,,,,,,,,,,,,,
40915,1645492599.0324938,71.0,0.0,3673.8461909999996,4083.076904,4036.923096,3800.512939,3845.1281740000004,450.0,4.0,82.0,,,,0.0,4.0,2.0,4.0,4.0,4.0,83.333336,,,,,,,,,,,,,,,,,,,,,,,,,,,,,,,,,,,,,,,,,,,,,,,,,,,,,,,,,,,,,,,,,,,,,,,,,,,,,,,,,,,,
40916,1645492599.040309,72.0,0.0,3769.2307130000004,4145.641113000001,4100.512695,3877.9487299999996,3943.5898439999996,450.0,4.0,82.0,,,,0.0,4.0,2.0,4.0,4.0,4.0,83.333336,,,,,,,,36.0,0.0,0.5795020000000001,-0.171631,0.6452640000000001,0.46728500000000006,0.921889,-0.41944,-0.114748,-0.034005,-0.037416000000000005,-0.029026,,,,,,,,,,,,,,,,,,,,,,,,,,,,,,,,,,,,,,,,,,,,,,,,,,,,,,,,,,,,,,,,,
40917,1645492599.0481231,73.0,0.0,3814.358887,4162.563965,4126.666504,3945.1281740000004,3998.974365,16181.0,4.0,82.0,,,,0.0,4.0,2.0,4.0,4.0,4.0,83.333336,,,,,,,,,,,,,,,,,,,,,,,,,,,,,,,,,,,,,,,,,,,,,,,,,,,,,,,,,,,,,,,,,,,,,,,,,,,,,,,,,,,,
40918,1645492599.055938,74.0,0.0,3825.641113,4124.615234000001,4122.563965,3965.641113,4000.512939,450.0,4.0,82.0,,,,0.0,4.0,2.0,4.0,4.0,4.0,83.333336,,,,,,,,37.0,0.0,0.5795020000000001,-0.171631,0.6452640000000001,0.46728500000000006,0.9121229999999999,-0.431159,-0.104005,-0.033973,-0.037433999999999995,-0.025,,,,,,,,,,,,,,,,,,,,,,,,,,,,,,,,,,,0.0,0.0,32.0,0.493695,1.0,0.0,,,,,,,,,,,,,,,,,,,,,,,,,
40919,1645492599.063654,75.0,0.0,3847.6923829999996,4127.179688,4142.563965,4002.5642090000006,4023.076904,16250.0,4.0,82.0,,,,0.0,4.0,2.0,4.0,4.0,4.0,83.333336,,,,,,,,,,,,,,,,,,,,,,,,,,,,,,,,,,,,,,,,,,,,,,,,,,,,,,,,,,,,,,,,,,,,,,,,,,,,,,,,,,,,
40920,1645492599.07147,76.0,0.0,3809.2307130000004,4174.871582,4125.128418,3986.6667479999996,4011.794922,450.0,4.0,82.0,,,,0.0,4.0,2.0,4.0,4.0,4.0,83.333336,,,,,,,,38.0,0.0,0.579626,-0.171875,0.6452640000000001,0.467041,0.905776,-0.423346,-0.113283,-0.033944999999999996,-0.037451,-0.027579000000000003,,,,,,,,,,,,,,,,,,,,,,,,,,,,,,,,,,,,,,,,,,,,,,,,,,,,,,,,,,,,,,,,,
40921,1645492599.0792859,77.0,0.0,3746.1538090000004,4186.666504,4080.0,3914.358887,3947.6923829999996,450.0,4.0,82.0,,,,0.0,4.0,2.0,4.0,4.0,4.0,83.333336,,,,,,,,,,,,,,,,,,,,,,,,,,,,,,,,,,,,,,,,,,,,,,,,,,,,,,,,,,,,,,,,,,,,,,,,,,,,,,,,,,,,
40922,1645492599.087102,78.0,0.0,3776.923096,4153.846191,4109.743652,3940.0,3946.6667479999996,450.0,4.0,82.0,,,,0.0,4.0,2.0,4.0,4.0,4.0,83.333336,,,,,,,,39.0,0.0,0.579429,-0.171875,0.6452640000000001,0.46728500000000006,0.9155409999999999,-0.407721,-0.100587,-0.03392,-0.037514,-0.029948000000000002,1.0,0.0,0.0,,,,,,,,,,,,,,,,,,,,,,,,,,,,,,,,0.0,0.0,32.0,0.440198,1.0,0.0,404.134491,42.993942,45.564598,35.75407,18.399078,262.30725099999995,163.37025500000001,28.97172,25.534809,18.449238,18.82456,13.432170000000001,18.434664,22.007414,11.169575,49.181656,46.995575,39.867321000000004,41.174679,18.186447,55.705414000000005,24.973368,38.162312,38.926556,20.782692
40923,1645492599.094918,79.0,0.0,3822.0512700000004,4150.769043,4144.102539,3993.3332520000004,3997.9487299999996,16250.0,4.0,82.0,,,,0.0,4.0,2.0,4.0,4.0,4.0,83.333336,,,,,,,,,,,,,,,,,,,,,,,,,,,,,,,,,,,,,,,,,,,,,,,,,,,,,,,,,,,,,,,,,,,,,,,,,,,,,,,,,,,,
40924,1645492599.102733,80.0,0.0,3804.102539,4168.717772999999,4124.102539,3985.641113,4014.358887,450.0,4.0,82.0,,,,0.0,4.0,2.0,4.0,4.0,4.0,83.333336,,,,,,,,40.0,0.0,0.579554,-0.172119,0.6452640000000001,0.467041,0.929213,-0.403326,-0.103029,-0.033946,-0.037425,-0.025976,,,,,,,,,,,,,,,,,,,,,,,,,,,,,,,,,,,,,,,,,,,,,,,,,,,,,,,,,,,,,,,,,
40925,1645492599.110549,81.0,0.0,3813.8461909999996,4169.230957,4134.871582,4011.281982,4012.820557,450.0,4.0,82.0,,,,0.0,4.0,2.0,4.0,4.0,4.0,83.333336,,,,,,,,,,,,,,,,,,,,,,,,,,,,,,,,,,,,,,,,,,,,,,,,,,,,,,,,,,,,,,,,,,,,,,,,,,,,,,,,,,,,
40926,1645492599.118365,82.0,0.0,3871.281982,4183.589844,4194.358886999999,4064.615479,4049.743652,450.0,4.0,82.0,,,,0.0,4.0,2.0,4.0,4.0,4.0,83.333336,,,,,,,,41.0,0.0,0.579481,-0.17236300000000002,0.6452640000000001,0.467041,0.9233540000000001,-0.40381500000000004,-0.113771,-0.033969,-0.037393,-0.022256,,,,,,,,,,,,,,,,,,,,,,,,,,,,,,,,,,,0.0,0.0,32.0,0.440198,1.0,0.0,,,,,,,,,,,,,,,,,,,,,,,,,
40927,1645492599.1261811,83.0,0.0,3892.3076170000004,4210.769043,4203.589844,4069.2307130000004,4092.820557,16250.0,4.0,82.0,,,,0.0,4.0,2.0,4.0,4.0,4.0,83.333336,,,,,,,,,,,,,,,,,,,,,,,,,,,,,,,,,,,,,,,,,,,,,,,,,,,,,,,,,,,,,,,,,,,,,,,,,,,,,,,,,,,,
40928,1645492599.133997,84.0,0.0,3895.384521,4208.205078,4172.820313,4068.718018,4097.94873,450.0,4.0,82.0,,,,0.0,4.0,2.0,4.0,4.0,4.0,83.333336,,,,,,,,42.0,0.0,0.579481,-0.17236300000000002,0.6452640000000001,0.467041,0.910658,-0.40381500000000004,-0.098146,-0.033893,-0.037462999999999996,-0.025157,,,,,,,,,,,,,,,,,,,,,,,,,,,,,,,,,,,,,,,,,,,,,,,,,,,,,,,,,,,,,,,,,
40929,1645492599.141712,85.0,0.0,3913.3332520000004,4200.512695,4180.512695,4097.94873,4086.6667479999996,450.0,4.0,82.0,,,,0.0,4.0,2.0,4.0,4.0,4.0,83.333336,,,,,,,,,,,,,,,,,,,,,,,,,,,,,,,,,,,,,,,,,,,,,,,,,,,,,,,,,,,,,,,,,,,,,,,,,,,,,,,,,,,,
40930,1645492599.149528,86.0,0.0,3958.974365,4251.794922,4231.794922,4145.128418,4146.666504,450.0,4.0,82.0,,,,0.0,4.0,2.0,4.0,4.0,4.0,83.333336,,,,,,,,43.0,0.0,0.579408,-0.17260699999999998,0.6452640000000001,0.467041,0.9160299999999999,-0.416022,-0.107424,-0.033922,-0.037426999999999995,-0.027768,,,,,,,,,,,,,,,,,,,,,,,,,,,,,,,,,,,0.0,0.0,32.0,0.440198,1.0,0.0,,,,,,,,,,,,,,,,,,,,,,,,,
40931,1645492599.1573439,87.0,0.0,4072.820557,4335.897461,4306.153809,4247.692383,4303.077147999999,16250.0,4.0,82.0,,,,0.0,4.0,2.0,4.0,4.0,4.0,83.333336,,,,,,,,,,,,,,,,,,,,,,,,,,,,,,,,,,,,,,,,,,,,,,,,,,,,,,,,,,,,,,,,,,,,,,,,,,,,,,,,,,,,
40932,1645492599.165159,88.0,0.0,4097.436035,4324.615234000001,4290.256348,4270.769043,4312.307617,450.0,4.0,82.0,,,,0.0,4.0,2.0,4.0,4.0,4.0,83.333336,,,,,,,,44.0,0.0,0.579481,-0.17236300000000002,0.6452640000000001,0.467041,0.9233540000000001,-0.40381500000000004,-0.113771,-0.033947000000000005,-0.037396,-0.023869,,,,,,,,,,,,,,,,,,,,,,,,,,,,,,,,,,,,,,,,,,,,,,,,,,,,,,,,,,,,,,,,,
40933,1645492599.172975,89.0,0.0,3956.4101560000004,4221.538574,4180.512695,4147.692383,4138.974121,450.0,4.0,82.0,,,,0.0,4.0,2.0,4.0,4.0,4.0,83.333336,,,,,,,,,,,,,,,,,,,,,,,,,,,,,,,,,,,,,,,,,,,,,,,,,,,,,,,,,,,,,,,,,,,,,,,,,,,,,,,,,,,,
40934,1645492599.18079,90.0,0.0,3904.615479,4219.487305,4165.641113000001,4106.666504,4104.615234000001,450.0,4.0,82.0,,,,0.0,4.0,2.0,4.0,4.0,4.0,83.333336,,,,,,,,45.0,0.0,0.5795319999999999,-0.172852,0.6452640000000001,0.466797,0.9038219999999999,-0.409674,-0.114748,-0.033922,-0.037367000000000004,-0.020406999999999998,,,,,,,,,,,,,,,,,,,,,,,,,,,,,,,,,,,0.0,0.0,32.0,0.440198,1.0,0.0,,,,,,,,,,,,,,,,,,,,,,,,,
40935,1645492599.188606,91.0,0.0,3996.923096,4313.846191,4252.307617,4186.666504,4226.153809,16250.0,4.0,82.0,,,,0.0,4.0,2.0,4.0,4.0,4.0,83.333336,,,,,,,,,,,,,,,,,,,,,,,,,,,,,,,,,,,,,,,,,,,,,,,,,,,,,,,,,,,,,,,,,,,,,,,,,,,,,,,,,,,,
40936,1645492599.196422,92.0,0.0,4042.5642090000006,4333.846191,4287.692383,4261.025879,4270.769043,450.0,4.0,82.0,,,,0.0,4.0,2.0,4.0,4.0,4.0,83.333336,,,,,,,,46.0,0.0,0.5795319999999999,-0.172852,0.6452640000000001,0.466797,0.93019,-0.40576799999999996,-0.104494,-0.033997,-0.03739,-0.023494,,,,,,,,,,,,,,,,,,,,,,,,,,,,,,,,,,,,,,,,,,,,,,,,,,,,,,,,,,,,,,,,,
40937,1645492599.204237,93.0,0.0,4017.9487299999996,4303.589844,4258.461426,4267.179688,4222.05127,450.0,4.0,82.0,,,,0.0,4.0,2.0,4.0,4.0,4.0,83.333336,,,,,,,,,,,,,,,,,,,,,,,,,,,,,,,,,,,,,,,,,,,,,,,,,,,,,,,,,,,,,,,,,,,,,,,,,,,,,,,,,,,,
40938,1645492599.211953,94.0,0.0,4032.820557,4318.461426,4246.153809,4245.128418,4223.077147999999,450.0,4.0,82.0,,,,0.0,4.0,2.0,4.0,4.0,4.0,83.333336,1.0,0.0,0.0,0.0,1.0,1.0,0.0,47.0,0.0,0.5796560000000001,-0.173096,0.6452640000000001,0.466553,0.9243309999999999,-0.390631,-0.111818,-0.034015,-0.037362,-0.026076,1.0,0.0,0.0,1.0,0.412596,0.726753,0.008856000000000001,1.6781990000000002,1.0,0.483778,11.553167,4.591907,18.210514,0.5004270000000001,1.0,0.297101,-0.096996,-0.292615,0.341848,1.0,0.198569,0.344515,-0.240988,2.668916,1.0,0.5789810000000001,10.870495,-25.757156,39.030173,1.0,0.37406300000000003,0.581807,0.505777,0.705583,0.0,0.0,32.0,0.411211,1.0,0.0,1021.282959,63.614555,47.8853,40.045811,19.106775,298.39736899999997,160.88188200000002,27.454453000000004,25.67831,18.896441,18.426651,11.697564,13.396778,24.718079,11.402202,36.277649,41.297852,33.861813,48.565929,18.874781,82.005974,25.340277,31.156368,44.885323,21.915545
40939,1645492599.219768,95.0,0.0,4099.487305,4326.666504,4269.230957,4298.461426,4298.461426,16250.0,4.0,82.0,,,,0.0,4.0,2.0,4.0,4.0,4.0,83.333336,,,,,,,,,,,,,,,,,,,,,,,,,,,,,,,,,,,,,,,,,,,,,,,,,,,,,,,,,,,,,,,,,,,,,,,,,,,,,,,,,,,,
40940,1645492599.227583,96.0,0.0,4100.512695,4254.358886999999,4267.179688,4333.333496,4307.179688,450.0,4.0,82.0,,,,0.0,4.0,2.0,4.0,4.0,4.0,83.333336,,,,,,,,48.0,0.0,0.579387,-0.17334000000000002,0.6452640000000001,0.466797,0.916518,-0.389654,-0.107912,-0.033983,-0.037386,-0.028644,,,,,,,,,,,,,,,,,,,,,,,,,,,,,,,,,,,,,,,,,,,,,,,,,,,,,,,,,,,,,,,,,
40941,1645492599.235399,97.0,0.0,4029.743652,4191.282227000001,4231.794922,4249.743652,4220.0,450.0,4.0,82.0,,,,0.0,4.0,2.0,4.0,4.0,4.0,83.333336,,,,,,,,,,,,,,,,,,,,,,,,,,,,,,,,,,,,,,,,,,,,,,,,,,,,,,,,,,,,,,,,,,,,,,,,,,,,,,,,,,,,
40942,1645492599.2432141,98.0,0.0,3963.5898439999996,4212.307617,4177.94873,4145.641113000001,4143.077147999999,450.0,4.0,82.0,,,,0.0,4.0,2.0,4.0,4.0,4.0,83.333336,,,,,,,,49.0,0.0,0.579387,-0.17334000000000002,0.6452640000000001,0.466797,0.9160299999999999,-0.40576799999999996,-0.09668099999999999,-0.033905000000000005,-0.037308999999999995,-0.024753999999999998,,,,,,,,,,,,,,,,,,,,,,,,,,,,,,,,,,,0.0,0.0,32.0,0.411211,1.0,0.0,,,,,,,,,,,,,,,,,,,,,,,,,
40943,1645492599.25103,99.0,0.0,3923.076904,4276.922852000001,4145.128418,4113.846191,4117.94873,16250.0,4.0,82.0,,,,0.0,4.0,2.0,4.0,4.0,4.0,83.333336,,,,,,,,,,,,,,,,,,,,,,,,,,,,,,,,,,,,,,,,,,,,,,,,,,,,,,,,,,,,,,,,,,,,,,,,,,,,,,,,,,,,
40944,1645492599.2588449,100.0,0.0,3946.6667479999996,4353.846191,4189.743652,4131.282227000001,4154.358886999999,450.0,4.0,82.0,,,,0.0,4.0,2.0,4.0,4.0,4.0,83.333336,,,,,,,,50.0,0.0,0.579387,-0.17334000000000002,0.6452640000000001,0.466797,0.9150530000000001,-0.410163,-0.10547000000000001,-0.033882999999999996,-0.037288999999999996,-0.027504,,,,,,,,,,,,,,,,,,,,,,,,,,,,,,,,,,,,,,,,,,,,,,,,,,,,,,,,,,,,,,,,,
40945,1645492599.26666,101.0,0.0,4015.897461,4421.025879,4250.256348,4172.307617,4222.563965,450.0,4.0,82.0,,,,0.0,4.0,2.0,4.0,4.0,4.0,83.333336,,,,,,,,,,,,,,,,,,,,,,,,,,,,,,,,,,,,,,,,,,,,,,,,,,,,,,,,,,,,,,,,,,,,,,,,,,,,,,,,,,,,
40946,1645492599.274476,102.0,0.0,3974.358887,4393.846191,4185.641113000001,4150.256348,4169.230957,450.0,4.0,82.0,,,,0.0,4.0,2.0,4.0,4.0,4.0,83.333336,,,,,,,,51.0,0.0,0.579263,-0.173096,0.6452640000000001,0.467041,0.9111469999999999,-0.423346,-0.107424,-0.033913,-0.037223,-0.023581,,,,,,,,,,,,,,,,,,,,,,,,,,,,,,,,,,,12.0,0.0,32.0,0.411211,1.0,0.0,,,,,,,,,,,,,,,,,,,,,,,,,
40947,1645492599.282191,103.0,0.0,3869.743652,4324.102539,4110.256348,4084.615479,4054.358887,16250.0,4.0,82.0,,,,0.0,4.0,2.0,4.0,4.0,4.0,83.333336,,,,,,,,,,,,,,,,,,,,,,,,,,,,,,,,,,,,,,,,,,,,,,,,,,,,,,,,,,,,,,,,,,,,,,,,,,,,,,,,,,,,
40948,1645492599.290007,104.0,0.0,3952.3076170000004,4388.717772999999,4210.769043,4155.384765999999,4138.461426,450.0,4.0,82.0,,,,0.0,4.0,2.0,4.0,4.0,4.0,83.333336,,,,,,,,52.0,0.0,0.579336,-0.172852,0.6452640000000001,0.467041,0.9131,-0.422858,-0.101076,-0.03394,-0.03726,-0.026399000000000002,,,,,,,,,,,,,,,,,,,,,,,,,,,,,,,,,,,,,,,,,,,,,,,,,,,,,,,,,,,,,,,,,
40949,1645492599.297823,105.0,0.0,4081.025635,4503.589844,4285.128418,4258.974121,4266.666504,450.0,4.0,82.0,,,,0.0,4.0,2.0,4.0,4.0,4.0,83.333336,,,,,,,,,,,,,,,,,,,,,,,,,,,,,,,,,,,,,,,,,,,,,,,,,,,,,,,,,,,,,,,,,,,,,,,,,,,,,,,,,,,,
40950,1645492599.305638,106.0,0.0,4034.8718259999996,4507.179688,4209.230957,4228.205078,4202.563965,450.0,4.0,82.0,,,,0.0,4.0,2.0,4.0,4.0,4.0,83.333336,,,,,,,,53.0,0.0,0.579408,-0.17260699999999998,0.6452640000000001,0.467041,0.9131,-0.41455699999999995,-0.10693499999999999,-0.033964,-0.037245,-0.022587,,,,,,,,,,,,,,,,,,,,,,,,,,,,,,,,,,,12.0,0.0,32.0,0.411211,1.0,0.0,,,,,,,,,,,,,,,,,,,,,,,,,
40951,1645492599.313454,107.0,0.0,3961.025635,4490.769043,4171.794922,4169.743652,4123.589844,16250.0,4.0,82.0,,,,0.0,4.0,2.0,4.0,4.0,4.0,83.333336,,,,,,,,,,,,,,,,,,,,,,,,,,,,,,,,,,,,,,,,,,,,,,,,,,,,,,,,,,,,,,,,,,,,,,,,,,,,,,,,,,,,
40952,1645492599.321269,108.0,0.0,3986.6667479999996,4536.922852000001,4208.717772999999,4184.615234000001,4154.871582,450.0,4.0,82.0,,,,0.0,4.0,2.0,4.0,4.0,4.0,83.333336,,,,,,,,54.0,0.0,0.579408,-0.17260699999999998,0.6452640000000001,0.467041,0.91017,-0.409186,-0.113283,-0.033937,-0.037183,-0.019254,,,,,,,,,,,,,,,,,,,,,,,,,,,,,,,,,,,,,,,,,,,,,,,,,,,,,,,,,,,,,,,,,
40953,1645492599.3290849,109.0,0.0,4028.205078,4558.974121,4204.615234000001,4218.974121,4174.358886999999,450.0,4.0,82.0,,,,0.0,4.0,2.0,4.0,4.0,4.0,83.333336,,,,,,,,,,,,,,,,,,,,,,,,,,,,,,,,,,,,,,,,,,,,,,,,,,,,,,,,,,,,,,,,,,,,,,,,,,,,,,,,,,,,
40954,1645492599.336901,110.0,0.0,4016.4101560000004,4517.94873,4187.692383,4202.563965,4142.05127,450.0,4.0,82.0,,,,0.0,4.0,2.0,4.0,4.0,4.0,83.333336,,,,,,,,55.0,0.0,0.579481,-0.17236300000000002,0.6452640000000001,0.467041,0.914076,-0.412116,-0.111818,-0.033961,-0.037176,-0.022456,1.0,0.0,0.0,,,,,,,,,,,,,,,,,,,,,,,,,,,,,,,,12.0,0.0,32.0,0.25056100000000003,1.0,0.0,1997.883789,103.720444,59.350947999999995,44.504096999999994,20.261736,335.286224,138.99173000000002,23.770645000000002,24.191565,18.966389000000003,24.276295,11.253573,10.028328,26.864325,12.430916,36.337315000000004,38.311443,34.020672,55.234894,20.351748999999998,140.933105,31.676142,29.020334000000002,50.190857,24.576442999999998
40955,1645492599.344716,111.0,0.0,3989.2307130000004,4473.846191,4197.436035,4149.230957,4127.179688,16250.0,4.0,82.0,,,,0.0,4.0,2.0,4.0,4.0,4.0,83.333336,,,,,,,,,,,,,,,,,,,,,,,,,,,,,,,,,,,,,,,,,,,,,,,,,,,,,,,,,,,,,,,,,,,,,,,,,,,,,,,,,,,,
40956,1645492599.3525321,112.0,0.0,3998.461426,4491.282227000001,4204.102539,4135.384765999999,4155.384765999999,450.0,4.0,82.0,,,,0.0,4.0,2.0,4.0,4.0,4.0,83.333336,,,,,,,,56.0,0.0,0.579753,-0.17236300000000002,0.6450199999999999,0.467041,0.917006,-0.41992799999999997,-0.103029,-0.033983,-0.037218,-0.025240000000000002,,,,,,,,,,,,,,,,,,,,,,,,,,,,,,,,,,,,,,,,,,,,,,,,,,,,,,,,,,,,,,,,,
40957,1645492599.3602471,113.0,0.0,4061.538574,4564.615234000001,4231.794922,4235.384765999999,4226.153809,450.0,4.0,82.0,,,,0.0,4.0,2.0,4.0,4.0,4.0,83.333336,,,,,,,,,,,,,,,,,,,,,,,,,,,,,,,,,,,,,,,,,,,,,,,,,,,,,,,,,,,,,,,,,,,,,,,,,,,,,,,,,,,,
40958,1645492599.368063,114.0,0.0,4095.897461,4557.436035,4260.0,4319.487305,4265.641113000001,450.0,4.0,82.0,,,,0.0,4.0,2.0,4.0,4.0,4.0,83.333336,,,,,,,,57.0,0.0,0.579753,-0.17236300000000002,0.6450199999999999,0.467041,0.91017,-0.415534,-0.102052,-0.033905000000000005,-0.037207,-0.021641999999999998,,,,,,,,,,,,,,,,,,,,,,,,,,,,,,,,,,,12.0,0.0,32.0,0.25056100000000003,1.0,0.0,,,,,,,,,,,,,,,,,,,,,,,,,
40959,1645492599.3758779,115.0,0.0,4100.0,4502.05127,4261.538574,4294.358886999999,4252.307617,16250.0,4.0,82.0,,,,0.0,4.0,2.0,4.0,4.0,4.0,83.333336,,,,,,,,,,,,,,,,,,,,,,,,,,,,,,,,,,,,,,,,,,,,,,,,,,,,,,,,,,,,,,,,,,,,,,,,,,,,,,,,,,,,
40960,1645492599.383693,116.0,0.0,4130.256348,4544.102539,4257.94873,4264.102539,4255.897461,450.0,4.0,82.0,,,,0.0,4.0,2.0,4.0,4.0,4.0,83.333336,,,,,,,,58.0,0.0,0.580024,-0.17236300000000002,0.644775,0.467041,0.917983,-0.413092,-0.1084,-0.033933,-0.037295,-0.024604,,,,,,,,,,,,,,,,,,,,,,,,,,,,,,,,,,,,,,,,,,,,,,,,,,,,,,,,,,,,,,,,,
40961,1645492599.391509,117.0,0.0,4120.512695,4585.641113000001,4236.922852000001,4267.179688,4241.538574,450.0,4.0,82.0,,,,0.0,4.0,2.0,4.0,4.0,4.0,83.333336,,,,,,,,,,,,,,,,,,,,,,,,,,,,,,,,,,,,,,,,,,,,,,,,,,,,,,,,,,,,,,,,,,,,,,,,,,,,,,,,,,,,
40962,1645492599.399324,118.0,0.0,4107.692383,4571.794922,4244.615234000001,4289.230957,4223.077147999999,450.0,4.0,82.0,,,,0.0,4.0,2.0,4.0,4.0,4.0,83.333336,,,,,,,,59.0,0.0,0.580024,-0.17236300000000002,0.644775,0.467041,0.9121229999999999,-0.398444,-0.11133,-0.034006,-0.037276,-0.027222000000000003,,,,,,,,,,,,,,,,,,,,,,,,,,,,,,,,,,,12.0,0.0,32.0,0.25056100000000003,1.0,0.0,,,,,,,,,,,,,,,,,,,,,,,,,
40963,1645492599.407139,119.0,0.0,4172.820313,4594.871582,4297.94873,4346.666504,4288.205078,16250.0,4.0,82.0,,,,0.0,4.0,2.0,4.0,4.0,4.0,83.333336,,,,,,,,,,,,,,,,,,,,,,,,,,,,,,,,,,,,,,,,,,,,,,,,,,,,,,,,,,,,,,,,,,,,,,,,,,,,,,,,,,,,
40964,1645492599.4149551,120.0,0.0,4169.743652,4604.615234000001,4275.384765999999,4344.615234000001,4300.512695,450.0,4.0,82.0,,,,0.0,4.0,2.0,4.0,4.0,4.0,83.333336,,,,,,,,60.0,0.0,0.580492,-0.17236300000000002,0.6445310000000001,0.466797,0.918959,-0.41699899999999995,-0.107424,-0.033975,-0.037211,-0.029626999999999997,,,,,,,,,,,,,,,,,,,,,,,,,,,,,,,,,,,,,,,,,,,,,,,,,,,,,,,,,,,,,,,,,
40965,1645492599.422671,121.0,0.0,4089.743652,4548.205078,4210.256348,4257.436035,4205.641113000001,450.0,4.0,82.0,,,,0.0,4.0,2.0,4.0,4.0,4.0,83.333336,,,,,,,,,,,,,,,,,,,,,,,,,,,,,,,,,,,,,,,,,,,,,,,,,,,,,,,,,,,,,,,,,,,,,,,,,,,,,,,,,,,,
40966,1645492599.430487,122.0,0.0,4109.743652,4517.94873,4240.0,4228.717772999999,4207.692383,450.0,4.0,82.0,,,,0.0,4.0,2.0,4.0,4.0,4.0,83.333336,,,,,,,,61.0,0.0,0.580492,-0.17236300000000002,0.6445310000000001,0.466797,0.9160299999999999,-0.41113900000000003,-0.11572400000000001,-0.034142,-0.03725,-0.025541,,,,,,,,,,,,,,,,,,,,,,,,,,,,,,,,,,,12.0,0.0,32.0,0.25056100000000003,1.0,0.0,,,,,,,,,,,,,,,,,,,,,,,,,
40967,1645492599.438303,123.0,0.0,4135.384765999999,4561.538574,4270.256348,4242.05127,4264.615234000001,16250.0,4.0,82.0,,,,0.0,4.0,2.0,4.0,4.0,4.0,83.333336,,,,,,,,,,,,,,,,,,,,,,,,,,,,,,,,,,,,,,,,,,,,,,,,,,,,,,,,,,,,,,,,,,,,,,,,,,,,,,,,,,,,
40968,1645492599.4461188,124.0,0.0,4069.743652,4560.0,4223.589844,4223.589844,4227.692383,450.0,4.0,82.0,,,,0.0,4.0,2.0,4.0,4.0,4.0,83.333336,,,,,,,,62.0,0.0,0.5805640000000001,-0.172119,0.6445310000000001,0.466797,0.910658,-0.412116,-0.10547000000000001,-0.034145999999999996,-0.037529,-0.021962,,,,,,,,,,,,,,,,,,,,,,,,,,,,,,,,,,,,,,,,,,,,,,,,,,,,,,,,,,,,,,,,,
40969,1645492599.453834,125.0,0.0,4012.3076170000004,4473.846191,4183.589844,4186.666504,4154.358886999999,450.0,4.0,82.0,,,,0.0,4.0,2.0,4.0,4.0,4.0,83.333336,,,,,,,,,,,,,,,,,,,,,,,,,,,,,,,,,,,,,,,,,,,,,,,,,,,,,,,,,,,,,,,,,,,,,,,,,,,,,,,,,,,,
40970,1645492599.461649,126.0,0.0,4000.0,4562.05127,4181.025879,4161.538574,4130.256348,450.0,4.0,82.0,,,,0.0,4.0,2.0,4.0,4.0,4.0,83.333336,,,,,,,,63.0,0.0,0.580492,-0.17236300000000002,0.6445310000000001,0.466797,0.918959,-0.41699899999999995,-0.107424,-0.0341,-0.037584,-0.01874,1.0,0.0,0.0,,,,,,,,,,,,,,,,,,,,,,,,,,,,,,,,12.0,0.0,1.0,0.0,512.0,0.730228,3145.274658,159.675049,77.652672,48.527954,21.522130999999998,370.633759,105.60734599999999,19.241768,21.666225,18.774469,37.317524,13.392710000000001,9.273966,27.863863000000002,13.89567,53.208358999999994,42.089119000000004,40.899689,59.676368999999994,22.246054,225.74401899999998,46.180382,32.458221,53.454041000000004,28.118686999999998
40971,1645492599.469465,127.0,0.0,4056.4101560000004,4887.692383,4225.128418,4228.717772999999,4191.794922,240.0,4.0,82.0,,,,0.0,4.0,2.0,4.0,4.0,4.0,83.333336,,,,,,,,,,,,,,,,,,,,,,,,,,,,,,,,,,,,,,,,,,,,,,,,,,,,,,,,,,,,,,,,,,,,,,,,,,,,,,,,,,,,
40972,1645492599.4772801,0.0,0.0,4096.410156,5067.692383,4244.102539,4267.179688,4222.05127,450.0,4.0,82.0,,,,0.0,4.0,2.0,4.0,4.0,4.0,83.333336,,,,,,,,0.0,0.0,0.5805640000000001,-0.172119,0.6445310000000001,0.466797,0.910658,-0.412116,-0.10547000000000001,-0.034108,-0.03783,-0.015841,,,,,,,,,,,,,,,,,,,,,,,,,,,,,,,,,,,,,,,,,,,,,,,,,,,,,,,,,,,,,,,,,
40973,1645492599.485095,1.0,0.0,4015.384521,4958.974121,4175.897461,4135.897461,4128.717772999999,450.0,4.0,82.0,,,,0.0,4.0,2.0,4.0,4.0,4.0,83.333336,,,,,,,,,,,,,,,,,,,,,,,,,,,,,,,,,,,,,,,,,,,,,,,,,,,,,,,,,,,,,,,,,,,,,,,,,,,,,,,,,,,,
40974,1645492599.49281,2.0,0.0,3993.8461909999996,4899.487305,4148.717772999999,4085.641113,4092.820557,16214.0,4.0,82.0,,,,0.0,4.0,2.0,4.0,4.0,4.0,83.333336,,,,,,,,1.0,0.0,0.5805640000000001,-0.172119,0.6445310000000001,0.466797,0.928725,-0.413092,-0.11572400000000001,-0.034213,-0.037807,-0.019334999999999998,,,,,,,,,,,,,,,,,,,,,,,,,,,,,,,,,,,0.0,0.0,1.0,0.0,512.0,0.730228,,,,,,,,,,,,,,,,,,,,,,,,,
40975,1645492599.500526,3.0,0.0,4076.923096,4952.820313,4201.538574,4201.025879,4162.563965,450.0,4.0,82.0,,,,0.0,4.0,1.0,4.0,4.0,4.0,75.0,,,,,,,,,,,,,,,,,,,,,,,,,,,,,,,,,,,,,,,,,,,,,,,,,,,,,,,,,,,,,,,,,,,,,,,,,,,,,,,,,,,,
40976,1645492599.508343,4.0,0.0,4034.8718259999996,4915.897461,4195.384765999999,4171.282227000001,4141.025879,139.0,4.0,82.0,,,,0.0,4.0,1.0,4.0,4.0,4.0,75.0,,,,,,,,2.0,0.0,0.580688,-0.17236300000000002,0.6445310000000001,0.466553,0.9184709999999999,-0.406744,-0.11621300000000001,-0.034210000000000004,-0.037737,-0.016327,,,,,,,,,,,,,,,,,,,,,,,,,,,,,,,,,,,,,,,,,,,,,,,,,,,,,,,,,,,,,,,,,
40977,1645492599.516159,5.0,0.0,3963.076904,4841.025879,4167.179688,4065.641113,4087.6923829999996,450.0,4.0,82.0,,,,0.0,4.0,1.0,4.0,4.0,4.0,75.0,,,,,,,,,,,,,,,,,,,,,,,,,,,,,,,,,,,,,,,,,,,,,,,,,,,,,,,,,,,,,,,,,,,,,,,,,,,,,,,,,,,,
40978,1645492599.523975,6.0,0.0,4003.5898439999996,4803.589844,4176.410156,4103.589844,4104.615234000001,16080.0,4.0,82.0,,,,0.0,4.0,1.0,4.0,4.0,4.0,75.0,,,,,,,,3.0,0.0,0.580492,-0.17236300000000002,0.6445310000000001,0.466797,0.9150530000000001,-0.398932,-0.116701,-0.034109,-0.037723,-0.01987,,,,,,,,,,,,,,,,,,,,,,,,,,,,,,,,,,,0.0,0.0,1.0,0.0,512.0,0.730228,,,,,,,,,,,,,,,,,,,,,,,,,
40979,1645492599.531791,7.0,0.0,4041.025635,4797.436035,4175.897461,4137.436035,4126.153809,450.0,4.0,82.0,,,,0.0,4.0,1.0,4.0,4.0,4.0,75.0,,,,,,,,,,,,,,,,,,,,,,,,,,,,,,,,,,,,,,,,,,,,,,,,,,,,,,,,,,,,,,,,,,,,,,,,,,,,,,,,,,,,
40980,1645492599.539607,8.0,0.0,4053.3332520000004,4838.461426,4190.256348,4122.563965,4166.666504,450.0,4.0,82.0,,,,0.0,4.0,1.0,4.0,4.0,4.0,75.0,,,,,,,,4.0,0.0,0.5804199999999999,-0.17260699999999998,0.6445310000000001,0.466797,0.914565,-0.41260399999999997,-0.11133,-0.034019,-0.037662,-0.023108,,,,,,,,,,,,,,,,,,,,,,,,,,,,,,,,,,,,,,,,,,,,,,,,,,,,,,,,,,,,,,,,,
40981,1645492599.5474231,9.0,0.0,4046.1538090000004,4861.538574,4195.384765999999,4127.692383,4176.922852000001,16211.0,4.0,82.0,,,,0.0,4.0,1.0,4.0,4.0,4.0,75.0,,,,,,,,,,,,,,,,,,,,,,,,,,,,,,,,,,,,,,,,,,,,,,,,,,,,,,,,,,,,,,,,,,,,,,,,,,,,,,,,,,,,
40982,1645492599.555239,10.0,0.0,4037.9487299999996,4854.871582,4206.666504,4152.307617,4161.538574,450.0,4.0,82.0,,,,0.0,4.0,1.0,4.0,4.0,4.0,75.0,,,,,,,,5.0,0.0,0.580691,-0.17260699999999998,0.6442869999999999,0.466797,0.921401,-0.407721,-0.104005,-0.034083999999999996,-0.037752999999999995,-0.019576,,,,,,,,,,,,,,,,,,,,,,,,,,,,,,,,,,,0.0,0.0,1.0,0.0,512.0,0.730228,,,,,,,,,,,,,,,,,,,,,,,,,
40983,1645492599.563055,11.0,0.0,4096.922852000001,4867.692383,4260.0,4231.794922,4230.256348,16239.0,4.0,82.0,,,,0.0,4.0,1.0,4.0,4.0,4.0,75.0,,,,,,,,,,,,,,,,,,,,,,,,,,,,,,,,,,,,,,,,,,,,,,,,,,,,,,,,,,,,,,,,,,,,,,,,,,,,,,,,,,,,
40984,1645492599.570871,12.0,0.0,4120.0,4866.153809,4257.436035,4265.128418,4257.94873,450.0,4.0,82.0,,,,0.0,4.0,1.0,4.0,4.0,4.0,75.0,,,,,,,,6.0,0.0,0.580494,-0.17260699999999998,0.6442869999999999,0.467041,0.917006,-0.41113900000000003,-0.10254100000000001,-0.034044,-0.037835,-0.022746000000000002,,,,,,,,,,,,,,,,,,,,,,,,,,,,,,,,,,,,,,,,,,,,,,,,,,,,,,,,,,,,,,,,,
40985,1645492599.5785868,13.0,0.0,4030.7692869999996,4851.282227000001,4177.436035,4162.563965,4141.538574,450.0,4.0,82.0,,,,0.0,4.0,1.0,4.0,4.0,4.0,75.0,,,,,,,,,,,,,,,,,,,,,,,,,,,,,,,,,,,,,,,,,,,,,,,,,,,,,,,,,,,,,,,,,,,,,,,,,,,,,,,,,,,,
40986,1645492599.586402,14.0,0.0,3972.3076170000004,4885.128418,4154.871582,4091.281982,4075.384521,450.0,4.0,82.0,,,,0.0,4.0,1.0,4.0,4.0,4.0,75.0,,,,,,,,7.0,0.0,0.580494,-0.17260699999999998,0.6442869999999999,0.467041,0.917006,-0.41455699999999995,-0.112795,-0.034009,-0.037763,-0.025549000000000002,1.0,0.0,0.0,,,,,,,,,,,,,,,,,,,,,,,,,,,,,,,,0.0,0.0,1.0,0.0,512.0,1.0,4144.820801,217.899048,96.14698,51.075893,22.42485,393.52340699999996,71.057755,15.359562,19.163173999999998,18.412403,55.860580000000006,18.406841,10.808094,27.3232,15.231209,85.771774,53.898502,51.858528,60.614605000000005,23.839071,317.255951,67.74337,39.311398,53.598721,31.398739000000003
40987,1645492599.594217,15.0,0.0,4030.7692869999996,4904.615234000001,4204.102539,4151.794922,4147.692383,16239.0,4.0,82.0,,,,0.0,4.0,1.0,4.0,4.0,4.0,75.0,,,,,,,,,,,,,,,,,,,,,,,,,,,,,,,,,,,,,,,,,,,,,,,,,,,,,,,,,,,,,,,,,,,,,,,,,,,,,,,,,,,,
40988,1645492599.602033,16.0,0.0,4101.025879,4894.871582,4242.563965,4220.512695,4213.846191,0.0,4.0,82.0,,,,0.0,4.0,1.0,4.0,4.0,4.0,75.0,,,,,,,,8.0,0.0,0.5802229999999999,-0.17260699999999998,0.6445310000000001,0.467041,0.9091940000000001,-0.41944,-0.11523599999999999,-0.034075,-0.037844,-0.021823,,,,,,,,,,,,,,,,,,,,,,,,,,,,,,,,,,,,,,,,,,,,,,,,,,,,,,,,,,,,,,,,,
40989,1645492599.609848,17.0,0.0,4098.974121,4877.94873,4244.102539,4230.769043,4218.974121,0.0,4.0,82.0,,,,0.0,4.0,1.0,4.0,4.0,4.0,75.0,,,,,,,,,,,,,,,,,,,,,,,,,,,,,,,,,,,,,,,,,,,,,,,,,,,,,,,,,,,,,,,,,,,,,,,,,,,,,,,,,,,,
40990,1645492599.6176631,18.0,0.0,4068.718018,4808.205078,4202.05127,4193.333496,4190.769043,0.0,4.0,82.0,,,,0.0,4.0,1.0,4.0,4.0,4.0,75.0,,,,,,,,9.0,0.0,0.580492,-0.17236300000000002,0.6445310000000001,0.466797,0.920424,-0.413092,-0.099123,-0.033988,-0.037722000000000006,-0.024816,,,,,,,,,,,,,,,,,,,,,,,,,,,,,,,,,,,0.0,0.0,1.0,0.0,512.0,1.0,,,,,,,,,,,,,,,,,,,,,,,,,
40991,1645492599.625479,19.0,0.0,4032.820557,4786.153809,4144.102539,4103.589844,4121.025879,0.0,4.0,82.0,,,,0.0,4.0,1.0,4.0,4.0,4.0,75.0,,,,,,,,,,,,,,,,,,,,,,,,,,,,,,,,,,,,,,,,,,,,,,,,,,,,,,,,,,,,,,,,,,,,,,,,,,,,,,,,,,,,
40992,1645492599.6332939,20.0,0.0,4016.4101560000004,4769.743652,4159.487305,4086.6667479999996,4108.205078,0.0,4.0,82.0,,,,0.0,4.0,1.0,4.0,4.0,4.0,75.0,,,,,,,,10.0,0.0,0.580492,-0.17236300000000002,0.6445310000000001,0.466797,0.9272600000000001,-0.410163,-0.10254100000000001,-0.034007,-0.037661,-0.02126,,,,,,,,,,,,,,,,,,,,,,,,,,,,,,,,,,,,,,,,,,,,,,,,,,,,,,,,,,,,,,,,,
40993,1645492599.64111,21.0,0.0,4061.025635,4560.512695,4227.179688,4175.384765999999,4206.666504,0.0,4.0,82.0,,,,0.0,4.0,1.0,4.0,4.0,4.0,75.0,,,,,,,,,,,,,,,,,,,,,,,,,,,,,,,,,,,,,,,,,,,,,,,,,,,,,,,,,,,,,,,,,,,,,,,,,,,,,,,,,,,,
40994,1645492599.648825,22.0,0.0,4102.563965,4353.846191,4240.512695,4204.102539,4246.666504,0.0,4.0,82.0,,,,0.0,4.0,1.0,4.0,4.0,4.0,75.0,,,,,,,,11.0,0.0,0.580492,-0.17236300000000002,0.6445310000000001,0.466797,0.9155409999999999,-0.41944,-0.11523599999999999,-0.033878,-0.037654,-0.024261,,,,,,,,,,,,,,,,,,,,,,,,,,,,,,,,,,,0.0,0.0,1.0,0.0,512.0,1.0,,,,,,,,,,,,,,,,,,,,,,,,,
40995,1645492599.656641,23.0,0.0,4108.205078,4389.230957,4233.333496,4190.256348,4224.102539,0.0,4.0,82.0,,,,0.0,4.0,1.0,4.0,4.0,4.0,75.0,,,,,,,,,,,,,,,,,,,,,,,,,,,,,,,,,,,,,,,,,,,,,,,,,,,,,,,,,,,,,,,,,,,,,,,,,,,,,,,,,,,,
40996,1645492599.664457,24.0,0.0,4151.794922,4471.794922,4280.0,4272.307617,4280.512695,0.0,4.0,82.0,,,,0.0,4.0,1.0,4.0,4.0,4.0,75.0,,,,,,,,12.0,0.0,0.580492,-0.17236300000000002,0.6445310000000001,0.466797,0.906264,-0.408698,-0.112795,-0.033811,-0.0376,-0.026962,,,,,,,,,,,,,,,,,,,,,,,,,,,,,,,,,,,,,,,,,,,,,,,,,,,,,,,,,,,,,,,,,
40997,1645492599.6722732,25.0,0.0,4166.153809,4417.94873,4275.384765999999,4305.128418,4286.666504,0.0,4.0,82.0,,,,0.0,4.0,1.0,4.0,4.0,4.0,75.0,,,,,,,,,,,,,,,,,,,,,,,,,,,,,,,,,,,,,,,,,,,,,,,,,,,,,,,,,,,,,,,,,,,,,,,,,,,,,,,,,,,,
40998,1645492599.680089,26.0,0.0,4088.205078,4360.512695,4199.487305,4187.692383,4185.128418,0.0,4.0,82.0,,,,0.0,4.0,1.0,4.0,4.0,4.0,75.0,,,,,,,,13.0,0.0,0.580492,-0.17236300000000002,0.6445310000000001,0.466797,0.9126120000000001,-0.409186,-0.121584,-0.033993999999999996,-0.0376,-0.029344,,,,,,,,,,,,,,,,,,,,,,,,,,,,,,,,,,,0.0,0.0,1.0,0.0,512.0,1.0,,,,,,,,,,,,,,,,,,,,,,,,,
40999,1645492599.687905,27.0,0.0,4060.512939,4410.256348,4181.025879,4123.589844,4163.589844,0.0,4.0,82.0,,,,0.0,4.0,1.0,4.0,4.0,4.0,75.0,,,,,,,,,,,,,,,,,,,,,,,,,,,,,,,,,,,,,,,,,,,,,,,,,,,,,,,,,,,,,,,,,,,,,,,,,,,,,,,,,,,,
41000,1645492599.69572,28.0,0.0,4087.6923829999996,4469.743652,4188.717772999999,4138.974121,4182.563965,0.0,4.0,82.0,,,,0.0,4.0,1.0,4.0,4.0,4.0,75.0,,,,,,,,14.0,0.0,0.580492,-0.17236300000000002,0.6445310000000001,0.466797,0.9194479999999999,-0.41358100000000003,-0.11621300000000001,-0.034061,-0.0376,-0.025287,,,,,,,,,,,,,,,,,,,,,,,,,,,,,,,,,,,,,,,,,,,,,,,,,,,,,,,,,,,,,,,,,
41001,1645492599.703536,29.0,0.0,4099.487305,4464.615234000001,4196.922852000001,4154.871582,4168.205078,0.0,4.0,82.0,,,,0.0,4.0,1.0,4.0,4.0,4.0,75.0,,,,,,,,,,,,,,,,,,,,,,,,,,,,,,,,,,,,,,,,,,,,,,,,,,,,,,,,,,,,,,,,,,,,,,,,,,,,,,,,,,,,
41002,1645492599.7113519,30.0,0.0,4131.794922,4447.179688,4223.077147999999,4194.871582,4214.358886999999,0.0,4.0,82.0,,,,0.0,4.0,1.0,4.0,4.0,4.0,75.0,1.0,0.0,0.0,0.0,1.0,0.0,0.0,15.0,0.0,0.580296,-0.17236300000000002,0.6445310000000001,0.467041,0.904799,-0.411627,-0.11572400000000001,-0.033927,-0.037502,-0.027885000000000004,1.0,0.0,0.0,,,,,,,,,,,,,,,,,,,,,,,,,,,,,,,,0.0,0.0,1.0,0.0,512.0,1.0,4657.97998,260.283875,107.309196,51.132934999999996,22.666161,397.64263900000003,45.305347,13.797617,17.695463,18.055525,76.008957,24.976034,13.433926999999999,25.245108,15.983957,128.781799,70.812836,62.666191000000005,57.645741,24.521873,391.181732,91.054314,46.17498,50.423286,33.370041
41003,1645492599.719068,31.0,0.0,4187.179688,4461.025879,4245.128418,4235.897461,4284.615234000001,0.0,4.0,82.0,,,,0.0,4.0,1.0,4.0,4.0,4.0,75.0,,,,,,,,,,,,,,,,,,,,,,,,,,,,,,,,,,,,,,,,,,,,,,,,,,,,,,,,,,,,,,,,,,,,,,,,,,,,,,,,,,,,
41004,1645492599.726884,32.0,0.0,4225.128418,4483.589844,4260.512695,4241.025879,4301.025879,0.0,4.0,82.0,,,,0.0,4.0,1.0,4.0,4.0,4.0,75.0,,,,,,,,16.0,0.0,0.580368,-0.172119,0.6445310000000001,0.467041,0.921401,-0.417487,-0.104005,-0.033951999999999996,-0.037462999999999996,-0.030175,,,,,,,,,,,,,,,,,,,,,,,,,,,,,,,,,,,,,,,,,,,,,,,,,,,,,,,,,,,,,,,,,
41005,1645492599.7347,33.0,0.0,4192.820313,4476.410156,4241.025879,4201.538574,4274.871582,0.0,4.0,82.0,,,,0.0,4.0,1.0,4.0,4.0,4.0,75.0,,,,,,,,,,,,,,,,,,,,,,,,,,,,,,,,,,,,,,,,,,,,,,,,,,,,,,,,,,,,,,,,,,,,,,,,,,,,,,,,,,,,
41006,1645492599.742517,34.0,0.0,4119.487305,4436.410156,4186.666504,4154.358886999999,4225.128418,0.0,4.0,82.0,,,,0.0,4.0,1.0,4.0,4.0,4.0,75.0,,,,,,,,17.0,0.0,0.580368,-0.172119,0.6445310000000001,0.467041,0.917494,-0.40528000000000003,-0.10498199999999999,-0.033975,-0.03733,-0.025985,,,,,,,,,,,,,,,,,,,,,,,,,,,,,,,,,,,0.0,0.0,1.0,0.0,512.0,1.0,,,,,,,,,,,,,,,,,,,,,,,,,
41007,1645492599.750333,35.0,0.0,4108.717772999999,4435.897461,4187.179688,4160.512695,4218.974121,0.0,4.0,82.0,,,,0.0,4.0,1.0,4.0,4.0,4.0,75.0,,,,,,,,,,,,,,,,,,,,,,,,,,,,,,,,,,,,,,,,,,,,,,,,,,,,,,,,,,,,,,,,,,,,,,,,,,,,,,,,,,,,
41008,1645492599.758149,36.0,0.0,4088.205078,4477.436035,4192.820313,4155.384765999999,4203.077147999999,0.0,4.0,82.0,,,,0.0,4.0,1.0,4.0,4.0,4.0,75.0,,,,,,,,18.0,0.0,0.58044,-0.171875,0.6445310000000001,0.467041,0.9199360000000001,-0.408209,-0.103029,-0.033849000000000004,-0.037259,-0.028562999999999998,,,,,,,,,,,,,,,,,,,,,,,,,,,,,,,,,,,,,,,,,,,,,,,,,,,,,,,,,,,,,,,,,
41009,1645492599.765965,37.0,0.0,4013.3332520000004,4466.666504,4145.128418,4102.05127,4127.692383,0.0,4.0,82.0,,,,0.0,4.0,1.0,4.0,4.0,4.0,75.0,,,,,,,,,,,,,,,,,,,,,,,,,,,,,,,,,,,,,,,,,,,,,,,,,,,,,,,,,,,,,,,,,,,,,,,,,,,,,,,,,,,,
41010,1645492599.773781,38.0,0.0,4069.743652,4426.666504,4187.179688,4144.102539,4176.410156,0.0,4.0,82.0,,,,0.0,4.0,1.0,4.0,4.0,4.0,75.0,,,,,,,,19.0,0.0,0.580244,-0.171875,0.6445310000000001,0.46728500000000006,0.9121229999999999,-0.41699899999999995,-0.109865,-0.033736,-0.037244,-0.030833,,,,,,,,,,,,,,,,,,,,,,,,,,,,,,,,,,,0.0,0.0,1.0,0.0,512.0,1.0,,,,,,,,,,,,,,,,,,,,,,,,,
41011,1645492599.7815971,39.0,0.0,4179.487305,4412.820313,4257.436035,4228.717772999999,4279.487305,0.0,4.0,82.0,,,,0.0,4.0,1.0,4.0,4.0,4.0,75.0,,,,,,,,,,,,,,,,,,,,,,,,,,,,,,,,,,,,,,,,,,,,,,,,,,,,,,,,,,,,,,,,,,,,,,,,,,,,,,,,,,,,
41012,1645492599.789413,40.0,0.0,4153.333496,4395.384765999999,4225.641113000001,4210.256348,4238.974121,0.0,4.0,82.0,,,,0.0,4.0,1.0,4.0,4.0,4.0,75.0,,,,,,,,20.0,0.0,0.5803159999999999,-0.171631,0.6445310000000001,0.46728500000000006,0.909682,-0.41406899999999996,-0.099611,-0.033780000000000004,-0.037231,-0.032827999999999996,,,,,,,,,,,,,,,,,,,,,,,,,,,,,,,,,,,,,,,,,,,,,,,,,,,,,,,,,,,,,,,,,
41013,1645492599.797129,41.0,0.0,4135.897461,4387.692383,4211.794922,4193.846191,4208.717772999999,0.0,4.0,82.0,,,,0.0,4.0,1.0,4.0,4.0,4.0,75.0,,,,,,,,,,,,,,,,,,,,,,,,,,,,,,,,,,,,,,,,,,,,,,,,,,,,,,,,,,,,,,,,,,,,,,,,,,,,,,,,,,,,
41014,1645492599.804944,42.0,0.0,4186.666504,4362.563965,4238.974121,4209.230957,4265.641113000001,0.0,4.0,82.0,,,,0.0,4.0,1.0,4.0,4.0,4.0,75.0,,,,,,,,21.0,0.0,0.5803159999999999,-0.171631,0.6445310000000001,0.46728500000000006,0.9150530000000001,-0.408209,-0.113771,-0.033918000000000004,-0.037364999999999995,-0.028374,,,,,,,,,,,,,,,,,,,,,,,,,,,,,,,,,,,10.0,0.0,1.0,0.0,512.0,1.0,,,,,,,,,,,,,,,,,,,,,,,,,
41015,1645492599.8127599,43.0,0.0,4168.717772999999,4316.410156,4213.846191,4193.333496,4256.410156,0.0,4.0,82.0,,,,0.0,4.0,1.0,4.0,4.0,4.0,75.0,,,,,,,,,,,,,,,,,,,,,,,,,,,,,,,,,,,,,,,,,,,,,,,,,,,,,,,,,,,,,,,,,,,,,,,,,,,,,,,,,,,,
41016,1645492599.820576,44.0,0.0,4132.307617,4313.333496,4189.230957,4182.563965,4210.769043,0.0,4.0,82.0,,,,0.0,4.0,1.0,4.0,4.0,4.0,75.0,,,,,,,,22.0,0.0,0.5803159999999999,-0.171631,0.6445310000000001,0.46728500000000006,0.9194479999999999,-0.41260399999999997,-0.103029,-0.034091,-0.03734,-0.030761,,,,,,,,,,,,,,,,,,,,,,,,,,,,,,,,,,,,,,,,,,,,,,,,,,,,,,,,,,,,,,,,,
41017,1645492599.828391,45.0,0.0,4149.230957,4323.077147999999,4191.794922,4154.358886999999,4211.794922,0.0,4.0,82.0,,,,0.0,4.0,1.0,4.0,4.0,4.0,75.0,,,,,,,,,,,,,,,,,,,,,,,,,,,,,,,,,,,,,,,,,,,,,,,,,,,,,,,,,,,,,,,,,,,,,,,,,,,,,,,,,,,,
41018,1645492599.836207,46.0,0.0,4133.333496,4297.436035,4175.897461,4091.794922,4194.358886999999,0.0,4.0,82.0,,,,0.0,4.0,1.0,4.0,4.0,4.0,75.0,,,,,,,,23.0,0.0,0.5803159999999999,-0.171631,0.6445310000000001,0.46728500000000006,0.9184709999999999,-0.423835,-0.101564,-0.034099000000000004,-0.037317,-0.032958,1.0,0.0,0.0,,,,,,,,,,,,,,,,,,,,,,,,,,,,,,,,10.0,0.0,1.0,0.0,512.0,1.0,4520.130371,272.088104,106.518898,48.266037,22.221115,380.607147,35.998272,16.427448000000002,17.865435,18.011938,93.112053,30.871429,15.652735,22.060614,15.972572,174.099762,87.293182,69.242676,51.542229,24.153994,428.81213399999996,108.98523700000001,49.978840000000005,44.699856,33.52393
41019,1645492599.844022,47.0,0.0,4100.0,4281.025879,4176.410156,4102.563965,4185.128418,0.0,4.0,82.0,,,,0.0,4.0,1.0,4.0,4.0,4.0,75.0,,,,,,,,,,,,,,,,,,,,,,,,,,,,,,,,,,,,,,,,,,,,,,,,,,,,,,,,,,,,,,,,,,,,,,,,,,,,,,,,,,,,
41020,1645492599.851838,48.0,0.0,4076.923096,4316.410156,4187.692383,4138.974121,4178.461426,0.0,4.0,82.0,,,,0.0,4.0,1.0,4.0,4.0,4.0,75.0,,,,,,,,24.0,0.0,0.58012,-0.171631,0.6445310000000001,0.467529,0.905776,-0.415534,-0.11621300000000001,-0.034010000000000006,-0.037295999999999996,-0.034741,,,,,,,,,,,,,,,,,,,,,,,,,,,,,,,,,,,,,,,,,,,,,,,,,,,,,,,,,,,,,,,,,
41021,1645492599.859654,49.0,0.0,4076.4101560000004,4332.307617,4175.897461,4113.333496,4154.871582,0.0,4.0,82.0,,,,0.0,4.0,1.0,4.0,4.0,4.0,75.0,,,,,,,,,,,,,,,,,,,,,,,,,,,,,,,,,,,,,,,,,,,,,,,,,,,,,,,,,,,,,,,,,,,,,,,,,,,,,,,,,,,,
41022,1645492599.86737,50.0,0.0,4147.179688,4309.743652,4197.94873,4133.333496,4210.769043,0.0,4.0,82.0,,,,0.0,4.0,1.0,4.0,4.0,4.0,75.0,,,,,,,,25.0,0.0,0.580391,-0.171631,0.6442869999999999,0.467529,0.9155409999999999,-0.417975,-0.100587,-0.033977999999999994,-0.037375,-0.030095,,,,,,,,,,,,,,,,,,,,,,,,,,,,,,,,,,,10.0,0.0,1.0,0.0,512.0,1.0,,,,,,,,,,,,,,,,,,,,,,,,,
41023,1645492599.875186,51.0,0.0,4184.615234000001,4323.589844,4216.922852000001,4173.333496,4260.512695,0.0,4.0,82.0,,,,0.0,4.0,1.0,4.0,4.0,4.0,75.0,,,,,,,,,,,,,,,,,,,,,,,,,,,,,,,,,,,,,,,,,,,,,,,,,,,,,,,,,,,,,,,,,,,,,,,,,,,,,,,,,,,,
41024,1645492599.883002,52.0,0.0,4106.153809,4361.538574,4174.871582,4111.282227000001,4173.333496,0.0,4.0,82.0,,,,0.0,4.0,1.0,4.0,4.0,4.0,75.0,,,,,,,,26.0,0.0,0.5803159999999999,-0.171631,0.6445310000000001,0.46728500000000006,0.9184709999999999,-0.423835,-0.101564,-0.033901,-0.037446,-0.026060000000000003,,,,,,,,,,,,,,,,,,,,,,,,,,,,,,,,,,,,,,,,,,,,,,,,,,,,,,,,,,,,,,,,,
41025,1645492599.8908179,53.0,0.0,4079.487061,4377.94873,4164.102539,4067.6923829999996,4124.615234000001,0.0,4.0,82.0,,,,0.0,4.0,1.0,4.0,4.0,4.0,75.0,,,,,,,,,,,,,,,,,,,,,,,,,,,,,,,,,,,,,,,,,,,,,,,,,,,,,,,,,,,,,,,,,,,,,,,,,,,,,,,,,,,,
41026,1645492599.898634,54.0,0.0,4158.974121,4389.230957,4208.205078,4132.820313,4217.94873,0.0,4.0,82.0,,,,0.0,4.0,1.0,4.0,4.0,4.0,75.0,,,,,,,,27.0,0.0,0.580391,-0.171631,0.6442869999999999,0.467529,0.9155409999999999,-0.417975,-0.100587,-0.03388,-0.03751,-0.022282,,,,,,,,,,,,,,,,,,,,,,,,,,,,,,,,,,,10.0,0.0,1.0,0.0,512.0,1.0,,,,,,,,,,,,,,,,,,,,,,,,,
41027,1645492599.90645,55.0,0.0,4182.05127,4396.922852000001,4212.820313,4170.769043,4262.563965,0.0,4.0,82.0,,,,0.0,4.0,1.0,4.0,4.0,4.0,75.0,,,,,,,,,,,,,,,,,,,,,,,,,,,,,,,,,,,,,,,,,,,,,,,,,,,,,,,,,,,,,,,,,,,,,,,,,,,,,,,,,,,,
41028,1645492599.914266,56.0,0.0,4161.025879,4365.641113000001,4187.179688,4124.102539,4219.487305,0.0,4.0,82.0,,,,0.0,4.0,1.0,4.0,4.0,4.0,75.0,,,,,,,,28.0,0.0,0.580391,-0.171631,0.6442869999999999,0.467529,0.9131,-0.408209,-0.107424,-0.033861,-0.037469999999999996,-0.025181,,,,,,,,,,,,,,,,,,,,,,,,,,,,,,,,,,,,,,,,,,,,,,,,,,,,,,,,,,,,,,,,,
41029,1645492599.922082,57.0,0.0,4153.846191,4344.615234000001,4172.820313,4075.384521,4192.820313,0.0,4.0,82.0,,,,0.0,4.0,1.0,4.0,4.0,4.0,75.0,,,,,,,,,,,,,,,,,,,,,,,,,,,,,,,,,,,,,,,,,,,,,,,,,,,,,,,,,,,,,,,,,,,,,,,,,,,,,,,,,,,,
41030,1645492599.929898,58.0,0.0,4109.743652,4348.717772999999,4153.846191,4067.179443,4185.128418,0.0,4.0,82.0,,,,0.0,4.0,1.0,4.0,4.0,4.0,75.0,,,,,,,,29.0,0.0,0.579923,-0.171631,0.6445310000000001,0.46777299999999994,0.9131,-0.41846300000000003,-0.107424,-0.033795,-0.037433999999999995,-0.027741000000000002,,,,,,,,,,,,,,,,,,,,,,,,,,,,,,,,,,,10.0,0.0,1.0,0.0,512.0,1.0,,,,,,,,,,,,,,,,,,,,,,,,,
41031,1645492599.9376152,59.0,0.0,4111.282227000001,4323.077147999999,4177.436035,4115.897461,4221.025879,0.0,4.0,82.0,,,,0.0,4.0,2.0,4.0,4.0,4.0,83.333336,,,,,,,,,,,,,,,,,,,,,,,,,,,,,,,,,,,,,,,,,,,,,,,,,,,,,,,,,,,,,,,,,,,,,,,,,,,,,,,,,,,,
41032,1645492599.945432,60.0,0.0,4196.922852000001,4307.179688,4227.179688,4185.641113000001,4276.410156,0.0,4.0,82.0,,,,0.0,4.0,2.0,4.0,4.0,4.0,83.333336,,,,,,,,30.0,0.0,0.579923,-0.171631,0.6445310000000001,0.46777299999999994,0.913588,-0.41406899999999996,-0.116701,-0.033833999999999996,-0.037499,-0.030045,,,,,,,,,,,,,,,,,,,,,,,,,,,,,,,,,,,,,,,,,,,,,,,,,,,,,,,,,,,,,,,,,
41033,1645492599.953248,61.0,0.0,4240.0,4355.384765999999,4243.077147999999,4235.384765999999,4297.94873,0.0,4.0,82.0,,,,0.0,4.0,2.0,4.0,4.0,4.0,83.333336,,,,,,,,,,,,,,,,,,,,,,,,,,,,,,,,,,,,,,,,,,,,,,,,,,,,,,,,,,,,,,,,,,,,,,,,,,,,,,,,,,,,
41034,1645492599.961065,62.0,0.0,4236.410156,4404.615234000001,4251.794922,4283.077147999999,4328.717772999999,0.0,4.0,82.0,,,,0.0,4.0,2.0,4.0,4.0,4.0,83.333336,,,,,,,,31.0,0.0,0.58012,-0.171631,0.6445310000000001,0.467529,0.9150530000000001,-0.409674,-0.113771,-0.033868,-0.037509,-0.025869,1.0,0.0,0.0,,,,,,,,,,,,,,,,,,,,,,,,,,,,,,,,0.0,0.0,1.0,0.0,512.0,1.0,3774.8857420000004,250.221252,95.074493,42.846073,21.280142,348.906921,46.410843,24.454767,19.583433,18.599224,102.727936,34.193199,16.781507,18.4921,15.309773000000002,211.21614100000002,98.088539,69.945091,43.844955,23.072723,420.727264,116.341682,50.024189,37.833675,32.008564
41035,1645492599.9688811,63.0,0.0,4292.820313,4393.333496,4299.487305,4323.077147999999,4386.153809,0.0,4.0,82.0,,,,0.0,4.0,2.0,4.0,4.0,4.0,83.333336,,,,,,,,,,,,,,,,,,,,,,,,,,,,,,,,,,,,,,,,,,,,,,,,,,,,,,,,,,,,,,,,,,,,,,,,,,,,,,,,,,,,
41036,1645492599.9766982,64.0,0.0,4349.743652,4385.641113000001,4315.384765999999,4316.410156,4397.436035,450.0,4.0,82.0,,,,0.0,4.0,2.0,4.0,4.0,4.0,83.333336,,,,,,,,32.0,0.0,0.58012,-0.171631,0.6445310000000001,0.467529,0.922377,-0.415045,-0.121584,-0.0339,-0.037469,-0.022109999999999998,,,,,,,,,,,,,,,,,,,,,,,,,,,,,,,,,,,,,,,,,,,,,,,,,,,,,,,,,,,,,,,,,
41037,1645492599.984514,65.0,0.0,4296.410156,4422.563965,4248.717772999999,4251.282227000001,4328.717772999999,450.0,4.0,82.0,,,,0.0,4.0,2.0,4.0,4.0,4.0,83.333336,,,,,,,,,,,,,,,,,,,,,,,,,,,,,,,,,,,,,,,,,,,,,,,,,,,,,,,,,,,,,,,,,,,,,,,,,,,,,,,,,,,,
41038,1645492599.992331,66.0,0.0,4199.487305,4390.256348,4169.230957,4170.769043,4226.666504,16216.0,4.0,82.0,,,,0.0,4.0,2.0,4.0,4.0,4.0,83.333336,,,,,,,,33.0,0.0,0.580047,-0.171875,0.6445310000000001,0.467529,0.918959,-0.401373,-0.107912,-0.033928,-0.037385,-0.024928,,,,,,,,,,,,,,,,,,,,,,,,,,,,,,,,,,,0.0,0.0,1.0,0.0,512.0,1.0,,,,,,,,,,,,,,,,,,,,,,,,,
41039,1645492600.000147,67.0,0.0,4175.897461,4292.820313,4159.487305,4116.922852000001,4185.641113000001,450.0,4.0,82.0,,,,0.0,4.0,2.0,4.0,4.0,4.0,83.333336,,,,,,,,,,,,,,,,,,,,,,,,,,,,,,,,,,,,,,,,,,,,,,,,,,,,,,,,,,,,,,,,,,,,,,,,,,,,,,,,,,,,
41040,1645492600.0079641,68.0,0.0,4194.871582,4282.563965,4186.153809,4124.102539,4222.05127,172.0,4.0,82.0,,,,0.0,4.0,2.0,4.0,4.0,4.0,83.333336,,,,,,,,34.0,0.0,0.5797760000000001,-0.171875,0.644775,0.467529,0.921889,-0.401862,-0.11767799999999999,-0.033953,-0.037357,-0.027464999999999996,,,,,,,,,,,,,,,,,,,,,,,,,,,,,,,,,,,,,,,,,,,,,,,,,,,,,,,,,,,,,,,,,
41041,1645492600.01578,69.0,0.0,4182.05127,4324.615234000001,4178.974121,4163.589844,4232.820313,450.0,4.0,82.0,,,,0.0,4.0,2.0,4.0,4.0,4.0,83.333336,,,,,,,,,,,,,,,,,,,,,,,,,,,,,,,,,,,,,,,,,,,,,,,,,,,,,,,,,,,,,,,,,,,,,,,,,,,,,,,,,,,,
41042,1645492600.023597,70.0,0.0,4178.974121,4291.794922,4177.436035,4153.846191,4212.307617,16068.0,4.0,82.0,,,,0.0,4.0,2.0,4.0,4.0,4.0,83.333336,,,,,,,,35.0,0.0,0.5797760000000001,-0.171875,0.644775,0.467529,0.91017,-0.400885,-0.09765800000000001,-0.034024,-0.037381,-0.023594999999999998,,,,,,,,,,,,,,,,,,,,,,,,,,,,,,,,,,,0.0,0.0,1.0,0.0,512.0,1.0,,,,,,,,,,,,,,,,,,,,,,,,,
41043,1645492600.0313132,71.0,0.0,4195.897461,4245.641113000001,4195.897461,4111.282227000001,4227.179688,450.0,4.0,82.0,,,,0.0,4.0,2.0,4.0,4.0,4.0,83.333336,,,,,,,,,,,,,,,,,,,,,,,,,,,,,,,,,,,,,,,,,,,,,,,,,,,,,,,,,,,,,,,,,,,,,,,,,,,,,,,,,,,,
41044,1645492600.039029,72.0,0.0,4185.128418,4310.769043,4190.769043,4118.461426,4238.461426,450.0,4.0,82.0,,,,0.0,4.0,2.0,4.0,4.0,4.0,83.333336,,,,,,,,36.0,0.0,0.5797760000000001,-0.171875,0.644775,0.467529,0.9116350000000001,-0.416022,-0.098634,-0.033894,-0.037403,-0.026363,,,,,,,,,,,,,,,,,,,,,,,,,,,,,,,,,,,,,,,,,,,,,,,,,,,,,,,,,,,,,,,,,
41045,1645492600.0468462,73.0,0.0,4161.025879,4406.666504,4188.717772999999,4172.307617,4230.769043,16193.0,4.0,82.0,,,,0.0,4.0,2.0,4.0,4.0,4.0,83.333336,,,,,,,,,,,,,,,,,,,,,,,,,,,,,,,,,,,,,,,,,,,,,,,,,,,,,,,,,,,,,,,,,,,,,,,,,,,,,,,,,,,,
41046,1645492600.0546632,74.0,0.0,4157.436035,4442.563965,4203.077147999999,4157.436035,4216.922852000001,450.0,4.0,82.0,,,,0.0,4.0,2.0,4.0,4.0,4.0,83.333336,,,,,,,,37.0,0.0,0.579579,-0.171875,0.644775,0.46777299999999994,0.9243309999999999,-0.42236999999999997,-0.099123,-0.033971,-0.037471,-0.028854,,,,,,,,,,,,,,,,,,,,,,,,,,,,,,,,,,,10.0,0.0,1.0,0.0,512.0,1.0,,,,,,,,,,,,,,,,,,,,,,,,,
41047,1645492600.062479,75.0,0.0,4172.820313,4434.358886999999,4201.025879,4114.358886999999,4196.922852000001,16204.0,4.0,82.0,,,,0.0,4.0,2.0,4.0,4.0,4.0,83.333336,,,,,,,,,,,,,,,,,,,,,,,,,,,,,,,,,,,,,,,,,,,,,,,,,,,,,,,,,,,,,,,,,,,,,,,,,,,,,,,,,,,,
41048,1645492600.070296,76.0,0.0,4187.179688,4427.179688,4196.410156,4160.512695,4197.436035,450.0,4.0,82.0,,,,0.0,4.0,2.0,4.0,4.0,4.0,83.333336,,,,,,,,38.0,0.0,0.579651,-0.171631,0.644775,0.46777299999999994,0.9077290000000001,-0.427253,-0.103029,-0.033992,-0.037435,-0.031045999999999997,,,,,,,,,,,,,,,,,,,,,,,,,,,,,,,,,,,,,,,,,,,,,,,,,,,,,,,,,,,,,,,,,
41049,1645492600.078112,77.0,0.0,4183.589844,4468.717772999999,4203.077147999999,4191.794922,4213.333496,450.0,4.0,82.0,,,,0.0,4.0,2.0,4.0,4.0,4.0,83.333336,,,,,,,,,,,,,,,,,,,,,,,,,,,,,,,,,,,,,,,,,,,,,,,,,,,,,,,,,,,,,,,,,,,,,,,,,,,,,,,,,,,,
41050,1645492600.085929,78.0,0.0,4170.769043,4534.871582,4208.717772999999,4163.077147999999,4218.461426,450.0,4.0,82.0,,,,0.0,4.0,2.0,4.0,4.0,4.0,83.333336,,,,,,,,39.0,0.0,0.579651,-0.171631,0.644775,0.46777299999999994,0.901869,-0.421393,-0.10498199999999999,-0.034011,-0.0375,-0.032922,1.0,0.0,0.0,,,,,,,,,,,,,,,,,,,,,,,,,,,,,,,,10.0,0.0,1.0,0.0,512.0,1.0,2690.564941,203.040222,78.700546,36.198227,20.137756,317.252686,73.590546,37.392399,22.157612,19.896444,101.941376,33.909442999999996,17.103359,15.392564000000002,14.277849,229.15458700000002,99.850212,66.097626,36.578876,21.848507,371.321594,111.27163700000001,47.80341,31.590961,29.487717
41051,1645492600.093745,79.0,0.0,4182.563965,4538.974121,4207.692383,4167.692383,4217.436035,16204.0,4.0,82.0,,,,0.0,4.0,2.0,4.0,4.0,4.0,83.333336,,,,,,,,,,,,,,,,,,,,,,,,,,,,,,,,,,,,,,,,,,,,,,,,,,,,,,,,,,,,,,,,,,,,,,,,,,,,,,,,,,,,
41052,1645492600.101461,80.0,0.0,4210.769043,4483.589844,4208.205078,4195.897461,4227.179688,450.0,4.0,82.0,,,,0.0,4.0,2.0,4.0,4.0,4.0,83.333336,,,,,,,,40.0,0.0,0.579454,-0.171631,0.644775,0.46801800000000005,0.916518,-0.42432299999999995,-0.1084,-0.034076999999999996,-0.03751,-0.034806000000000004,,,,,,,,,,,,,,,,,,,,,,,,,,,,,,,,,,,,,,,,,,,,,,,,,,,,,,,,,,,,,,,,,
41053,1645492600.109278,81.0,0.0,4216.922852000001,4494.358886999999,4207.179688,4186.666504,4232.307617,450.0,4.0,82.0,,,,0.0,4.0,2.0,4.0,4.0,4.0,83.333336,,,,,,,,,,,,,,,,,,,,,,,,,,,,,,,,,,,,,,,,,,,,,,,,,,,,,,,,,,,,,,,,,,,,,,,,,,,,,,,,,,,,
41054,1645492600.117094,82.0,0.0,4202.563965,4537.436035,4204.102539,4167.692383,4223.077147999999,450.0,4.0,82.0,,,,0.0,4.0,2.0,4.0,4.0,4.0,83.333336,,,,,,,,41.0,0.0,0.579723,-0.17138699999999998,0.644775,0.46777299999999994,0.917006,-0.415045,-0.109377,-0.034087,-0.037568,-0.036452,,,,,,,,,,,,,,,,,,,,,,,,,,,,,,,,,,,10.0,0.0,1.0,0.0,512.0,1.0,,,,,,,,,,,,,,,,,,,,,,,,,
41055,1645492600.1249099,83.0,0.0,4191.794922,4540.512695,4205.128418,4176.410156,4214.871582,16204.0,4.0,82.0,,,,0.0,4.0,2.0,4.0,4.0,4.0,83.333336,,,,,,,,,,,,,,,,,,,,,,,,,,,,,,,,,,,,,,,,,,,,,,,,,,,,,,,,,,,,,,,,,,,,,,,,,,,,,,,,,,,,
41056,1645492600.132726,84.0,0.0,4182.05127,4580.512695,4201.538574,4176.922852000001,4210.769043,450.0,4.0,82.0,,,,0.0,4.0,2.0,4.0,4.0,4.0,83.333336,,,,,,,,42.0,0.0,0.579723,-0.17138699999999998,0.644775,0.46777299999999994,0.9155409999999999,-0.417975,-0.11035299999999999,-0.034096,-0.037571,-0.031733,,,,,,,,,,,,,,,,,,,,,,,,,,,,,,,,,,,,,,,,,,,,,,,,,,,,,,,,,,,,,,,,,
41057,1645492600.140542,85.0,0.0,4156.922852000001,4626.153809,4191.794922,4174.358886999999,4192.307617,450.0,4.0,82.0,,,,0.0,4.0,2.0,4.0,4.0,4.0,83.333336,,,,,,,,,,,,,,,,,,,,,,,,,,,,,,,,,,,,,,,,,,,,,,,,,,,,,,,,,,,,,,,,,,,,,,,,,,,,,,,,,,,,
41058,1645492600.148358,86.0,0.0,4178.974121,4606.153809,4214.358886999999,4203.077147999999,4197.94873,450.0,4.0,82.0,,,,0.0,4.0,2.0,4.0,4.0,4.0,83.333336,,,,,,,,43.0,0.0,0.579723,-0.17138699999999998,0.644775,0.46777299999999994,0.922866,-0.41260399999999997,-0.10254100000000001,-0.034105,-0.037574,-0.033638,,,,,,,,,,,,,,,,,,,,,,,,,,,,,,,,,,,10.0,0.0,1.0,0.0,512.0,1.0,,,,,,,,,,,,,,,,,,,,,,,,,
41059,1645492600.156174,87.0,0.0,4241.538574,4566.153809,4245.128418,4233.846191,4254.358886999999,16204.0,4.0,82.0,,,,0.0,4.0,2.0,4.0,4.0,4.0,83.333336,,,,,,,,,,,,,,,,,,,,,,,,,,,,,,,,,,,,,,,,,,,,,,,,,,,,,,,,,,,,,,,,,,,,,,,,,,,,,,,,,,,,
41060,1645492600.16399,88.0,0.0,4247.179688,4580.0,4233.333496,4225.641113000001,4270.769043,450.0,4.0,82.0,,,,0.0,4.0,2.0,4.0,4.0,4.0,83.333336,,,,,,,,44.0,0.0,0.579723,-0.17138699999999998,0.644775,0.46777299999999994,0.9194479999999999,-0.41944,-0.107424,-0.034112,-0.037625,-0.035401,,,,,,,,,,,,,,,,,,,,,,,,,,,,,,,,,,,,,,,,,,,,,,,,,,,,,,,,,,,,,,,,,
41061,1645492600.171806,89.0,0.0,4226.666504,4612.820313,4220.512695,4219.487305,4234.871582,450.0,4.0,82.0,,,,0.0,4.0,2.0,4.0,4.0,4.0,83.333336,,,,,,,,,,,,,,,,,,,,,,,,,,,,,,,,,,,,,,,,,,,,,,,,,,,,,,,,,,,,,,,,,,,,,,,,,,,,,,,,,,,,
41062,1645492600.179522,90.0,0.0,4246.666504,4627.692383,4233.846191,4251.794922,4236.922852000001,450.0,4.0,82.0,,,,0.0,4.0,2.0,4.0,4.0,4.0,83.333336,,,,,,,,45.0,0.0,0.5799949999999999,-0.17138699999999998,0.6445310000000001,0.46777299999999994,0.914565,-0.401373,-0.10547000000000001,-0.034069999999999996,-0.037524,-0.037086,,,,,,,,,,,,,,,,,,,,,,,,,,,,,,,,,,,10.0,0.0,1.0,0.0,512.0,1.0,,,,,,,,,,,,,,,,,,,,,,,,,
41063,1645492600.187338,91.0,0.0,4239.487305,4633.333496,4203.589844,4220.512695,4224.615234000001,16204.0,4.0,82.0,,,,0.0,4.0,2.0,4.0,4.0,4.0,83.333336,,,,,,,,,,,,,,,,,,,,,,,,,,,,,,,,,,,,,,,,,,,,,,,,,,,,,,,,,,,,,,,,,,,,,,,,,,,,,,,,,,,,
41064,1645492600.195154,92.0,0.0,4201.025879,4651.282227000001,4157.436035,4140.0,4172.307617,450.0,4.0,82.0,,,,0.0,4.0,2.0,4.0,4.0,4.0,83.333336,,,,,,,,46.0,0.0,0.580067,-0.17114300000000002,0.6445310000000001,0.46777299999999994,0.920424,-0.41651000000000005,-0.109377,-0.034081,-0.037531999999999996,-0.038504000000000004,,,,,,,,,,,,,,,,,,,,,,,,,,,,,,,,,,,,,,,,,,,,,,,,,,,,,,,,,,,,,,,,,
41065,1645492600.20297,93.0,0.0,4234.871582,4692.820313,4193.846191,4157.94873,4218.974121,450.0,4.0,82.0,,,,0.0,4.0,2.0,4.0,4.0,4.0,83.333336,,,,,,,,,,,,,,,,,,,,,,,,,,,,,,,,,,,,,,,,,,,,,,,,,,,,,,,,,,,,,,,,,,,,,,,,,,,,,,,,,,,,
41066,1645492600.210785,94.0,0.0,4289.230957,4696.922852000001,4237.94873,4219.487305,4304.102539,450.0,4.0,82.0,,,,0.0,4.0,2.0,4.0,4.0,4.0,83.333336,1.0,8.333333,0.0,0.0,1.0,1.0,1.0,47.0,0.0,0.580067,-0.17114300000000002,0.6445310000000001,0.46777299999999994,0.9160299999999999,-0.408209,-0.11230599999999999,-0.034042,-0.037489999999999996,-0.039731999999999996,1.0,0.0,0.0,,,,,,,,,,,,,,,,,,,,,,,,,,,,,,,,0.0,0.0,1.0,0.0,512.0,1.0,1598.639771,146.366348,63.407585,29.993233,18.995235,294.917664,110.021904,52.580372,24.405567,21.571779,91.052513,30.414268,17.23275,13.339787,13.108113000000001,223.11256400000002,92.7463,60.352066,31.311237,20.847996,295.842987,95.72835500000001,45.24297,27.237846,26.698694
41067,1645492600.218601,95.0,0.0,4258.461426,4664.615234000001,4220.0,4200.0,4271.794922,16204.0,4.0,82.0,,,,0.0,4.0,2.0,4.0,4.0,4.0,83.333336,,,,,,,,,,,,,,,,,,,,,,,,,,,,,,,,,,,,,,,,,,,,,,,,,,,,,,,,,,,,,,,,,,,,,,,,,,,,,,,,,,,,
41068,1645492600.226417,96.0,0.0,4193.333496,4637.94873,4184.615234000001,4151.282227000001,4202.05127,450.0,4.0,82.0,,,,0.0,4.0,2.0,4.0,4.0,4.0,83.333336,,,,,,,,48.0,0.0,0.5801390000000001,-0.170898,0.6445310000000001,0.46777299999999994,0.914565,-0.408698,-0.114748,-0.034105,-0.037452,-0.034587,,,,,,,,,,,,,,,,,,,,,,,,,,,,,,,,,,,,,,,,,,,,,,,,,,,,,,,,,,,,,,,,,
41069,1645492600.234233,97.0,0.0,4225.641113000001,4659.487305,4209.230957,4195.384765999999,4231.794922,450.0,4.0,82.0,,,,0.0,4.0,2.0,4.0,4.0,4.0,83.333336,,,,,,,,,,,,,,,,,,,,,,,,,,,,,,,,,,,,,,,,,,,,,,,,,,,,,,,,,,,,,,,,,,,,,,,,,,,,,,,,,,,,
41070,1645492600.242049,98.0,0.0,4324.102539,4688.205078,4254.358886999999,4274.358886999999,4301.025879,450.0,4.0,82.0,,,,0.0,4.0,2.0,4.0,4.0,4.0,83.333336,,,,,,,,49.0,0.0,0.5801390000000001,-0.170898,0.6445310000000001,0.46777299999999994,0.917494,-0.409186,-0.098146,-0.034112,-0.037418,-0.036255,,,,,,,,,,,,,,,,,,,,,,,,,,,,,,,,,,,0.0,0.0,1.0,0.0,512.0,1.0,,,,,,,,,,,,,,,,,,,,,,,,,
41071,1645492600.2497652,99.0,0.0,4317.94873,4643.589844,4219.487305,4247.179688,4287.179688,16204.0,4.0,82.0,,,,0.0,4.0,2.0,4.0,4.0,4.0,83.333336,,,,,,,,,,,,,,,,,,,,,,,,,,,,,,,,,,,,,,,,,,,,,,,,,,,,,,,,,,,,,,,,,,,,,,,,,,,,,,,,,,,,
41072,1645492600.257581,100.0,0.0,4224.102539,4597.94873,4159.487305,4168.717772999999,4227.179688,450.0,4.0,82.0,,,,0.0,4.0,2.0,4.0,4.0,4.0,83.333336,,,,,,,,50.0,0.0,0.580336,-0.170898,0.6445310000000001,0.467529,0.932143,-0.40528000000000003,-0.11133,-0.034168000000000004,-0.037483999999999996,-0.031555,,,,,,,,,,,,,,,,,,,,,,,,,,,,,,,,,,,,,,,,,,,,,,,,,,,,,,,,,,,,,,,,,
41073,1645492600.265396,101.0,0.0,4216.410156,4615.384765999999,4190.256348,4168.717772999999,4218.974121,450.0,4.0,82.0,,,,0.0,4.0,2.0,4.0,4.0,4.0,83.333336,,,,,,,,,,,,,,,,,,,,,,,,,,,,,,,,,,,,,,,,,,,,,,,,,,,,,,,,,,,,,,,,,,,,,,,,,,,,,,,,,,,,
41074,1645492600.273212,102.0,0.0,4268.717772999999,4630.256348,4244.102539,4194.871582,4258.461426,450.0,4.0,82.0,,,,0.0,4.0,2.0,4.0,4.0,4.0,83.333336,,,,,,,,51.0,0.0,0.580264,-0.17114300000000002,0.6445310000000001,0.467529,0.9243309999999999,-0.40235,-0.112795,-0.034169,-0.037447,-0.033576,,,,,,,,,,,,,,,,,,,,,,,,,,,,,,,,,,,0.0,0.0,1.0,0.0,512.0,1.0,,,,,,,,,,,,,,,,,,,,,,,,,
41075,1645492600.281028,103.0,0.0,4237.94873,4608.205078,4204.102539,4159.487305,4247.179688,16204.0,4.0,82.0,,,,0.0,4.0,2.0,4.0,4.0,4.0,83.333336,,,,,,,,,,,,,,,,,,,,,,,,,,,,,,,,,,,,,,,,,,,,,,,,,,,,,,,,,,,,,,,,,,,,,,,,,,,,,,,,,,,,
41076,1645492600.2888439,104.0,0.0,4193.846191,4594.871582,4164.615234000001,4147.179688,4200.512695,450.0,4.0,82.0,,,,0.0,4.0,2.0,4.0,4.0,4.0,83.333336,,,,,,,,52.0,0.0,0.580264,-0.17114300000000002,0.6445310000000001,0.467529,0.914076,-0.394049,-0.10351700000000001,-0.034219,-0.037413,-0.029144,,,,,,,,,,,,,,,,,,,,,,,,,,,,,,,,,,,,,,,,,,,,,,,,,,,,,,,,,,,,,,,,,
41077,1645492600.29666,105.0,0.0,4203.077147999999,4580.512695,4185.641113000001,4154.358886999999,4193.846191,450.0,4.0,82.0,,,,0.0,4.0,2.0,4.0,4.0,4.0,83.333336,,,,,,,,,,,,,,,,,,,,,,,,,,,,,,,,,,,,,,,,,,,,,,,,,,,,,,,,,,,,,,,,,,,,,,,,,,,,,,,,,,,,
