,Timestamp,OriginalTimestamp,EEG.Counter,EEG.Interpolated,EEG.AF3,EEG.T7,EEG.Pz,EEG.T8,EEG.AF4,EEG.RawCq,EEG.Battery,EEG.BatteryPercent,MarkerIndex,MarkerType,MarkerValueInt,EEG.MarkerHardware,CQ.AF3,CQ.T7,CQ.Pz,CQ.T8,CQ.AF4,CQ.Overall,EQ.SampleRateQuality,EQ.OVERALL,EQ.AF3,EQ.T7,EQ.Pz,EQ.T8,EQ.AF4,MOT.CounterMems,MOT.InterpolatedMems,MOT.Q0,MOT.Q1,MOT.Q2,MOT.Q3,MOT.AccX,MOT.AccY,MOT.AccZ,MOT.MagX,MOT.MagY,MOT.MagZ,MC.Action,MC.ActionPower,MC.IsActive,PM.Engagement.IsActive,PM.Engagement.Scaled,PM.Engagement.Raw,PM.Engagement.Min,PM.Engagement.Max,PM.Excitement.IsActive,PM.Excitement.Scaled,PM.Excitement.Raw,PM.Excitement.Min,PM.Excitement.Max,PM.LongTermExcitement,PM.Stress.IsActive,PM.Stress.Scaled,PM.Stress.Raw,PM.Stress.Min,PM.Stress.Max,PM.Relaxation.IsActive,PM.Relaxation.Scaled,PM.Relaxation.Raw,PM.Relaxation.Min,PM.Relaxation.Max,PM.Interest.IsActive,PM.Interest.Scaled,PM.Interest.Raw,PM.Interest.Min,PM.Interest.Max,PM.Focus.IsActive,PM.Focus.Scaled,PM.Focus.Raw,PM.Focus.Min,PM.Focus.Max,FE.BlinkWink,FE.HorizontalEyesDirection,FE.UpperFaceAction,FE.UpperFaceActionPower,FE.LowerFaceAction,FE.LowerFaceActionPower,POW.AF3.Theta,POW.AF3.Alpha,POW.AF3.BetaL,POW.AF3.BetaH,POW.AF3.Gamma,POW.T7.Theta,POW.T7.Alpha,POW.T7.BetaL,POW.T7.BetaH,POW.T7.Gamma,POW.Pz.Theta,POW.Pz.Alpha,POW.Pz.BetaL,POW.Pz.BetaH,POW.Pz.Gamma,POW.T8.Theta,POW.T8.Alpha,POW.T8.BetaL,POW.T8.BetaH,POW.T8.Gamma,POW.AF4.Theta,POW.AF4.Alpha,POW.AF4.BetaL,POW.AF4.BetaH,POW.AF4.Gamma
4861,1645494552.125646,1645494552.140038,75.0,0.0,4277.436035,2870.256348,4209.230957,4280.0,4301.538574,16189.0,4.0,77.0,6.0,1.0,2.0,0.0,4.0,4.0,4.0,0.0,4.0,66.666664,,,,,,,,,,,,,,,,,,,,,,,,,,,,,,,,,,,,,,,,,,,,,,,,,,,,,,,,,,,,,,,,,,,,,,,,,,,,,,,,,,,,
4862,1645494552.13346,1645494552.147752,76.0,0.0,4275.897461,2896.410156,4211.282227000001,4280.512695,4282.05127,450.0,4.0,77.0,,,,0.0,4.0,4.0,4.0,0.0,4.0,66.666664,,,,,,,,38.0,0.0,0.493899,-0.22314499999999998,0.62085,0.5664060000000001,0.8764780000000001,-0.478523,-0.137209,-0.033125,-0.039383999999999995,-0.031013,,,,,,,,,,,,,,,,,,,,,,,,,,,,,,,,,,,0.0,0.0,1.0,0.0,128.0,0.498771,,,,,,,,,,,,,,,,,,,,,,,,,
4863,1645494552.141276,1645494552.155567,77.0,0.0,4293.846191,2906.666748,4214.358886999999,4281.025879,4280.512695,450.0,4.0,77.0,,,,0.0,4.0,4.0,4.0,0.0,4.0,66.666664,,,,,,,,,,,,,,,,,,,,,,,,,,,,,,,,,,,,,,,,,,,,,,,,,,,,,,,,,,,,,,,,,,,,,,,,,,,,,,,,,,,,
4864,1645494552.14909,1645494552.163382,78.0,0.0,4293.333496,2909.230713,4215.384765999999,4280.512695,4296.922852000001,450.0,4.0,77.0,,,,0.0,4.0,4.0,4.0,0.0,4.0,66.666664,,,,,,,,39.0,0.0,0.493899,-0.22314499999999998,0.62085,0.5664060000000001,0.876967,-0.489754,-0.131838,-0.033181999999999996,-0.03945,-0.026739999999999996,,,,,,,,,,,,,,,,,,,,,,,,,,,,,,,,,,,,,,,,,,,,,,,,,,,,,,,,,,,,,,,,,
4865,1645494552.1569052,1645494552.171196,79.0,0.0,4285.128418,2930.256348,4221.538574,4280.0,4298.974121,16189.0,4.0,77.0,,,,0.0,4.0,4.0,4.0,0.0,4.0,66.666664,,,,,,,,,,,,,,,,,,,,,,,,,,,,,,,,,,,,,,,,,,,,,,,,,,,,,,,,,,,,,,,,,,,,,,,,,,,,,,,,,,,,
4866,1645494552.1647198,1645494552.1790109,80.0,0.0,4293.846191,2929.230713,4223.077147999999,4281.025879,4301.538574,450.0,4.0,77.0,,,,0.0,4.0,4.0,4.0,0.0,4.0,66.666664,,,,,,,,40.0,0.0,0.493899,-0.22314499999999998,0.62085,0.5664060000000001,0.8657360000000001,-0.48340600000000006,-0.132326,-0.033282,-0.039411,-0.029095,1.0,0.0,0.0,,,,,,,,,,,,,,,,,,,,,,,,,,,,,,,,0.0,0.0,1.0,0.0,128.0,1.0,2.468239,1.206919,0.770025,0.9234559999999999,0.673135,22.321144,4.854055000000001,3.623496,2.653032,2.7361619999999998,1.149363,0.79138,0.557901,0.258913,0.272254,0.000215,0.000125,7.8e-05,5.3e-05,5e-05,3.162134,1.491096,0.235922,0.447945,0.9055129999999999
4867,1645494552.172535,1645494552.186826,81.0,0.0,4278.461426,2895.897461,4222.05127,4282.05127,4293.333496,450.0,4.0,77.0,,,,0.0,4.0,4.0,4.0,0.0,4.0,66.666664,,,,,,,,,,,,,,,,,,,,,,,,,,,,,,,,,,,,,,,,,,,,,,,,,,,,,,,,,,,,,,,,,,,,,,,,,,,,,,,,,,,,
4868,1645494552.18035,1645494552.19464,82.0,0.0,4251.282227000001,2874.3588870000003,4221.025879,4281.025879,4275.384765999999,450.0,4.0,77.0,,,,0.0,4.0,4.0,4.0,0.0,4.0,66.666664,,,,,,,,41.0,0.0,0.493899,-0.22314499999999998,0.62085,0.5664060000000001,0.8833139999999999,-0.484871,-0.14648699999999998,-0.033274,-0.039474,-0.025112,,,,,,,,,,,,,,,,,,,,,,,,,,,,,,,,,,,,,,,,,,,,,,,,,,,,,,,,,,,,,,,,,
4869,1645494552.188165,1645494552.202455,83.0,0.0,4260.0,2867.6923829999996,4224.615234000001,4278.974121,4276.410156,16189.0,4.0,77.0,,,,0.0,4.0,4.0,4.0,0.0,4.0,66.666664,,,,,,,,,,,,,,,,,,,,,,,,,,,,,,,,,,,,,,,,,,,,,,,,,,,,,,,,,,,,,,,,,,,,,,,,,,,,,,,,,,,,
4870,1645494552.19598,1645494552.210269,84.0,0.0,4265.641113000001,2851.794922,4233.846191,4279.487305,4282.563965,450.0,4.0,77.0,,,,0.0,4.0,4.0,4.0,0.0,4.0,66.666664,,,,,,,,42.0,0.0,0.493899,-0.22314499999999998,0.62085,0.5664060000000001,0.863294,-0.495613,-0.129397,-0.033267000000000005,-0.039432999999999996,-0.027679000000000002,,,,,,,,,,,,,,,,,,,,,,,,,,,,,,,,,,,0.0,0.0,1.0,0.0,128.0,1.0,,,,,,,,,,,,,,,,,,,,,,,,,
4871,1645494552.203795,1645494552.217984,85.0,0.0,4247.692383,2834.871826,4234.871582,4280.0,4274.358886999999,450.0,4.0,77.0,,,,0.0,4.0,4.0,4.0,0.0,4.0,66.666664,,,,,,,,,,,,,,,,,,,,,,,,,,,,,,,,,,,,,,,,,,,,,,,,,,,,,,,,,,,,,,,,,,,,,,,,,,,,,,,,,,,,
4872,1645494552.21161,1645494552.225799,86.0,0.0,4243.077147999999,2841.5385739999997,4235.384765999999,4279.487305,4268.717772999999,450.0,4.0,77.0,,,,0.0,4.0,4.0,4.0,0.0,4.0,66.666664,,,,,,,,43.0,0.0,0.493899,-0.22314499999999998,0.62085,0.5664060000000001,0.873549,-0.477546,-0.139651,-0.033358,-0.039396,-0.029939999999999998,,,,,,,,,,,,,,,,,,,,,,,,,,,,,,,,,,,,,,,,,,,,,,,,,,,,,,,,,,,,,,,,,
4873,1645494552.219425,1645494552.233614,87.0,0.0,4249.230957,2844.615479,4234.358886999999,4278.461426,4272.307617,16189.0,4.0,77.0,,,,0.0,4.0,4.0,4.0,0.0,4.0,66.666664,,,,,,,,,,,,,,,,,,,,,,,,,,,,,,,,,,,,,,,,,,,,,,,,,,,,,,,,,,,,,,,,,,,,,,,,,,,,,,,,,,,,
4874,1645494552.22724,1645494552.241428,88.0,0.0,4253.846191,2848.718018,4241.025879,4278.974121,4275.897461,450.0,4.0,77.0,,,,0.0,4.0,4.0,4.0,0.0,4.0,66.666664,,,,,,,,44.0,0.0,0.49378900000000003,-0.22338899999999998,0.62085,0.5664060000000001,0.876967,-0.473152,-0.137209,-0.033392000000000005,-0.039363,-0.025725,,,,,,,,,,,,,,,,,,,,,,,,,,,,,,,,,,,0.0,0.0,1.0,0.0,128.0,1.0,,,,,,,,,,,,,,,,,,,,,,,,,
4875,1645494552.235055,1645494552.249243,89.0,0.0,4253.333496,2889.230713,4244.615234000001,4278.974121,4267.692383,450.0,4.0,77.0,,,,0.0,4.0,4.0,4.0,0.0,4.0,66.666664,,,,,,,,,,,,,,,,,,,,,,,,,,,,,,,,,,,,,,,,,,,,,,,,,,,,,,,,,,,,,,,,,,,,,,,,,,,,,,,,,,,,
4876,1645494552.2428699,1645494552.257057,90.0,0.0,4236.922852000001,2915.384521,4239.487305,4278.974121,4251.794922,450.0,4.0,77.0,,,,0.0,4.0,4.0,4.0,0.0,4.0,66.666664,,,,,,,,45.0,0.0,0.49378900000000003,-0.22338899999999998,0.62085,0.5664060000000001,0.8715950000000001,-0.489754,-0.135744,-0.03347,-0.039284,-0.028377999999999997,,,,,,,,,,,,,,,,,,,,,,,,,,,,,,,,,,,,,,,,,,,,,,,,,,,,,,,,,,,,,,,,,
4877,1645494552.250685,1645494552.264872,91.0,0.0,4230.256348,2900.0,4236.410156,4278.974121,4245.128418,16189.0,4.0,77.0,,,,0.0,4.0,4.0,4.0,0.0,4.0,66.666664,,,,,,,,,,,,,,,,,,,,,,,,,,,,,,,,,,,,,,,,,,,,,,,,,,,,,,,,,,,,,,,,,,,,,,,,,,,,,,,,,,,,
4878,1645494552.2585,1645494552.272687,92.0,0.0,4242.563965,2904.615479,4248.205078,4278.974121,4251.794922,450.0,4.0,77.0,,,,0.0,4.0,4.0,4.0,0.0,4.0,66.666664,,,,,,,,46.0,0.0,0.493899,-0.22314499999999998,0.62085,0.5664060000000001,0.873549,-0.477546,-0.139651,-0.033346,-0.039262,-0.024465999999999998,,,,,,,,,,,,,,,,,,,,,,,,,,,,,,,,,,,0.0,0.0,1.0,0.0,128.0,1.0,,,,,,,,,,,,,,,,,,,,,,,,,
4879,1645494552.266315,1645494552.280501,93.0,0.0,4250.769043,2938.974365,4251.794922,4278.974121,4261.538574,450.0,4.0,77.0,,,,0.0,4.0,4.0,4.0,0.0,4.0,66.666664,,,,,,,,,,,,,,,,,,,,,,,,,,,,,,,,,,,,,,,,,,,,,,,,,,,,,,,,,,,,,,,,,,,,,,,,,,,,,,,,,,,,
4880,1645494552.27413,1645494552.288316,94.0,0.0,4249.230957,2941.5385739999997,4256.922852000001,4278.974121,4260.512695,450.0,4.0,77.0,,,,0.0,4.0,4.0,4.0,0.0,4.0,66.666664,,,,,,,,47.0,0.0,0.49378900000000003,-0.22338899999999998,0.62085,0.5664060000000001,0.8715950000000001,-0.489754,-0.135744,-0.03343,-0.039193,-0.027244,,,,,,,,,,,,,,,,,,,,,,,,,,,,,,,,,,,,,,,,,,,,,,,,,,,,,,,,,,,,,,,,,
4881,1645494552.281945,1645494552.296031,95.0,0.0,4240.0,2943.076904,4254.358886999999,4278.974121,4248.205078,16189.0,4.0,77.0,,,,0.0,4.0,4.0,4.0,0.0,4.0,66.666664,,,,,,,,,,,,,,,,,,,,,,,,,,,,,,,,,,,,,,,,,,,,,,,,,,,,,,,,,,,,,,,,,,,,,,,,,,,,,,,,,,,,
4882,1645494552.2897599,1645494552.303845,96.0,0.0,4232.307617,2963.076904,4236.410156,4278.974121,4241.538574,450.0,4.0,77.0,,,,0.0,4.0,4.0,4.0,0.0,4.0,66.666664,,,,,,,,48.0,0.0,0.49378900000000003,-0.22338899999999998,0.62085,0.5664060000000001,0.878431,-0.48340600000000006,-0.14257999999999998,-0.033358,-0.039229,-0.029598000000000003,1.0,0.0,0.0,,,,,,,,,,,,,,,,,,,,,,,,,,,,,,,,0.0,0.0,1.0,0.0,128.0,1.0,2.3095830000000004,1.45723,0.713132,0.824751,0.729639,18.716476,4.8166269999999995,3.7391919999999996,2.613444,2.9084060000000003,1.034248,0.80658,0.5380020000000001,0.349445,0.297187,0.000138,7.900000000000001e-05,4.3e-05,2.3e-05,3.2e-05,3.0836810000000003,1.382096,0.23641399999999999,0.496176,0.9435819999999999
4883,1645494552.297575,1645494552.31166,97.0,0.0,4237.436035,2956.923096,4230.256348,4278.974121,4254.358886999999,450.0,4.0,77.0,,,,0.0,4.0,4.0,4.0,0.0,4.0,66.666664,,,,,,,,,,,,,,,,,,,,,,,,,,,,,,,,,,,,,,,,,,,,,,,,,,,,,,,,,,,,,,,,,,,,,,,,,,,,,,,,,,,,
4884,1645494552.3053901,1645494552.319475,98.0,0.0,4242.563965,2967.6923829999996,4247.692383,4278.974121,4256.922852000001,450.0,4.0,77.0,,,,0.0,4.0,4.0,4.0,0.0,4.0,66.666664,,,,,,,,49.0,0.0,0.493508,-0.22338899999999998,0.62085,0.56665,0.8750129999999999,-0.49170699999999995,-0.140139,-0.033343,-0.039212000000000004,-0.025466,,,,,,,,,,,,,,,,,,,,,,,,,,,,,,,,,,,,,,,,,,,,,,,,,,,,,,,,,,,,,,,,,
4885,1645494552.313205,1645494552.327289,99.0,0.0,4241.025879,2995.384521,4256.922852000001,4278.974121,4241.538574,16189.0,4.0,77.0,,,,0.0,4.0,4.0,4.0,0.0,4.0,66.666664,,,,,,,,,,,,,,,,,,,,,,,,,,,,,,,,,,,,,,,,,,,,,,,,,,,,,,,,,,,,,,,,,,,,,,,,,,,,,,,,,,,,
4886,1645494552.32102,1645494552.335104,100.0,0.0,4238.461426,2969.743652,4256.410156,4278.974121,4247.179688,450.0,4.0,77.0,,,,0.0,4.0,4.0,4.0,0.0,4.0,66.666664,,,,,,,,50.0,0.0,0.493508,-0.22338899999999998,0.62085,0.56665,0.871107,-0.484382,-0.127932,-0.033426,-0.039149,-0.028095,,,,,,,,,,,,,,,,,,,,,,,,,,,,,,,,,,,0.0,0.0,1.0,0.0,128.0,1.0,,,,,,,,,,,,,,,,,,,,,,,,,
4887,1645494552.328834,1645494552.3429189,101.0,0.0,4236.922852000001,2944.102539,4263.077147999999,4278.974121,4262.563965,450.0,4.0,77.0,,,,0.0,4.0,4.0,4.0,0.0,4.0,66.666664,,,,,,,,,,,,,,,,,,,,,,,,,,,,,,,,,,,,,,,,,,,,,,,,,,,,,,,,,,,,,,,,,,,,,,,,,,,,,,,,,,,,
4888,1645494552.33665,1645494552.350733,102.0,0.0,4227.179688,2970.769287,4260.0,4278.974121,4251.794922,450.0,4.0,77.0,,,,0.0,4.0,4.0,4.0,0.0,4.0,66.666664,,,,,,,,51.0,0.0,0.493201,-0.22338899999999998,0.6210939999999999,0.56665,0.887709,-0.506355,-0.138674,-0.033404,-0.039238,-0.024163,,,,,,,,,,,,,,,,,,,,,,,,,,,,,,,,,,,,,,,,,,,,,,,,,,,,,,,,,,,,,,,,,
4889,1645494552.344464,1645494552.3585482,103.0,0.0,4220.0,2975.897461,4256.410156,4278.974121,4241.538574,16189.0,4.0,77.0,,,,0.0,4.0,4.0,4.0,0.0,4.0,66.666664,,,,,,,,,,,,,,,,,,,,,,,,,,,,,,,,,,,,,,,,,,,,,,,,,,,,,,,,,,,,,,,,,,,,,,,,,,,,,,,,,,,,
4890,1645494552.352279,1645494552.3662632,104.0,0.0,4224.615234000001,2964.102539,4264.615234000001,4278.974121,4240.512695,450.0,4.0,77.0,,,,0.0,4.0,4.0,4.0,0.0,4.0,66.666664,,,,,,,,52.0,0.0,0.493201,-0.22338899999999998,0.6210939999999999,0.56665,0.876967,-0.496101,-0.12695499999999998,-0.033384,-0.039123000000000005,-0.026922,,,,,,,,,,,,,,,,,,,,,,,,,,,,,,,,,,,0.0,0.0,1.0,0.0,128.0,1.0,,,,,,,,,,,,,,,,,,,,,,,,,
4891,1645494552.3600938,1645494552.3740768,105.0,0.0,4229.230957,2998.4614260000003,4268.717772999999,4278.974121,4235.897461,450.0,4.0,77.0,,,,0.0,4.0,4.0,4.0,0.0,4.0,66.666664,,,,,,,,,,,,,,,,,,,,,,,,,,,,,,,,,,,,,,,,,,,,,,,,,,,,,,,,,,,,,,,,,,,,,,,,,,,,,,,,,,,,
4892,1645494552.367909,1645494552.381892,106.0,0.0,4231.282227000001,2995.384521,4255.897461,4278.461426,4235.897461,450.0,4.0,77.0,,,,0.0,4.0,4.0,4.0,0.0,4.0,66.666664,,,,,,,,53.0,0.0,0.493201,-0.22338899999999998,0.6210939999999999,0.56665,0.863783,-0.496101,-0.142092,-0.033268,-0.039068,-0.029307999999999997,,,,,,,,,,,,,,,,,,,,,,,,,,,,,,,,,,,,,,,,,,,,,,,,,,,,,,,,,,,,,,,,,
4893,1645494552.375724,1645494552.389707,107.0,0.0,4240.512695,2941.025635,4263.589844,4279.487305,4237.436035,16189.0,4.0,77.0,,,,0.0,4.0,4.0,4.0,0.0,4.0,66.666664,,,,,,,,,,,,,,,,,,,,,,,,,,,,,,,,,,,,,,,,,,,,,,,,,,,,,,,,,,,,,,,,,,,,,,,,,,,,,,,,,,,,
4894,1645494552.383539,1645494552.397521,108.0,0.0,4252.307617,2939.487061,4279.487305,4278.461426,4231.282227000001,450.0,4.0,77.0,,,,0.0,4.0,4.0,4.0,0.0,4.0,66.666664,,,,,,,,54.0,0.0,0.493371,-0.223633,0.6210939999999999,0.5664060000000001,0.874525,-0.48389399999999994,-0.136721,-0.033262,-0.039263,-0.031407,,,,,,,,,,,,,,,,,,,,,,,,,,,,,,,,,,,0.0,0.0,1.0,0.0,128.0,1.0,,,,,,,,,,,,,,,,,,,,,,,,,
4895,1645494552.3913538,1645494552.405336,109.0,0.0,4244.102539,2949.743652,4277.436035,4276.922852000001,4228.205078,450.0,4.0,77.0,,,,0.0,4.0,4.0,4.0,0.0,4.0,66.666664,,,,,,,,,,,,,,,,,,,,,,,,,,,,,,,,,,,,,,,,,,,,,,,,,,,,,,,,,,,,,,,,,,,,,,,,,,,,,,,,,,,,
4896,1645494552.399169,1645494552.413151,110.0,0.0,4233.846191,2933.846191,4261.538574,4278.461426,4229.230957,450.0,4.0,77.0,,,,0.0,4.0,4.0,4.0,0.0,4.0,66.666664,,,,,,,,55.0,0.0,0.493371,-0.223633,0.6210939999999999,0.5664060000000001,0.870619,-0.48584700000000003,-0.126467,-0.033354,-0.03934,-0.033344,,,,,,,,,,,,,,,,,,,,,,,,,,,,,,,,,,,,,,,,,,,,,,,,,,,,,,,,,,,,,,,,,
4897,1645494552.406984,1645494552.420965,111.0,0.0,4246.666504,2957.94873,4263.077147999999,4279.487305,4234.358886999999,16189.0,4.0,77.0,,,,0.0,4.0,4.0,4.0,0.0,4.0,66.666664,,,,,,,,,,,,,,,,,,,,,,,,,,,,,,,,,,,,,,,,,,,,,,,,,,,,,,,,,,,,,,,,,,,,,,,,,,,,,,,,,,,,
4898,1645494552.414799,1645494552.42878,112.0,0.0,4252.307617,2973.846191,4269.743652,4277.436035,4249.230957,450.0,4.0,77.0,,,,0.0,4.0,4.0,4.0,0.0,4.0,66.666664,,,,,,,,56.0,0.0,0.49298000000000003,-0.223877,0.6210939999999999,0.56665,0.8759899999999999,-0.484871,-0.138186,-0.03329,-0.039361,-0.028887,1.0,0.0,0.0,,,,,,,,,,,,,,,,,,,,,,,,,,,,,,,,0.0,0.0,1.0,0.0,128.0,1.0,2.275405,1.8304349999999998,0.664239,0.777576,0.786309,19.415654999999997,4.936791,4.510873,2.710109,3.0895,0.935675,0.803438,0.51635,0.45141000000000003,0.323969,0.00024300000000000002,0.00011999999999999999,5.6999999999999996e-05,3.2e-05,6.4e-05,2.794194,1.287608,0.266727,0.609963,0.963807
4899,1645494552.422614,1645494552.4364948,113.0,0.0,4237.94873,2944.102539,4271.282227000001,4278.461426,4244.102539,450.0,4.0,77.0,,,,0.0,4.0,4.0,4.0,0.0,4.0,66.666664,,,,,,,,,,,,,,,,,,,,,,,,,,,,,,,,,,,,,,,,,,,,,,,,,,,,,,,,,,,,,,,,,,,,,,,,,,,,,,,,,,,,
4900,1645494552.430429,1645494552.444309,114.0,0.0,4224.102539,2962.05127,4270.769043,4281.025879,4231.794922,450.0,4.0,77.0,,,,0.0,4.0,4.0,4.0,0.0,4.0,66.666664,,,,,,,,57.0,0.0,0.49298000000000003,-0.223877,0.6210939999999999,0.56665,0.877943,-0.49707799999999996,-0.129397,-0.033428,-0.03938,-0.031076,,,,,,,,,,,,,,,,,,,,,,,,,,,,,,,,,,,,,,,,,,,,,,,,,,,,,,,,,,,,,,,,,
4901,1645494552.4382439,1645494552.452124,115.0,0.0,4228.717772999999,3002.564209,4271.282227000001,4280.512695,4248.717772999999,16189.0,4.0,77.0,,,,0.0,4.0,4.0,4.0,0.0,4.0,66.666664,,,,,,,,,,,,,,,,,,,,,,,,,,,,,,,,,,,,,,,,,,,,,,,,,,,,,,,,,,,,,,,,,,,,,,,,,,,,,,,,,,,,
4902,1645494552.446059,1645494552.459939,116.0,0.0,4237.94873,2968.205078,4278.461426,4278.974121,4252.820313,450.0,4.0,77.0,,,,0.0,4.0,4.0,4.0,0.0,4.0,66.666664,,,,,,,,58.0,0.0,0.49298000000000003,-0.223877,0.6210939999999999,0.56665,0.8681770000000001,-0.49073,-0.127443,-0.033503,-0.0393,-0.033047,,,,,,,,,,,,,,,,,,,,,,,,,,,,,,,,,,,0.0,0.0,1.0,0.0,128.0,1.0,,,,,,,,,,,,,,,,,,,,,,,,,
4903,1645494552.453874,1645494552.467753,117.0,0.0,4237.436035,2926.666748,4283.589844,4279.487305,4229.743652,450.0,4.0,77.0,,,,0.0,4.0,4.0,4.0,0.0,4.0,66.666664,,,,,,,,,,,,,,,,,,,,,,,,,,,,,,,,,,,,,,,,,,,,,,,,,,,,,,,,,,,,,,,,,,,,,,,,,,,,,,,,,,,,
4904,1645494552.461689,1645494552.475568,118.0,0.0,4238.461426,2960.0,4286.153809,4280.0,4220.0,450.0,4.0,77.0,,,,0.0,4.0,4.0,4.0,0.0,4.0,66.666664,,,,,,,,59.0,0.0,0.49326000000000003,-0.223877,0.6210939999999999,0.5664060000000001,0.8750129999999999,-0.49170699999999995,-0.12695499999999998,-0.033424,-0.039325,-0.034869,,,,,,,,,,,,,,,,,,,,,,,,,,,,,,,,,,,,,,,,,,,,,,,,,,,,,,,,,,,,,,,,,
4905,1645494552.4695039,1645494552.483383,119.0,0.0,4238.974121,2959.487061,4276.410156,4280.512695,4222.563965,16189.0,4.0,77.0,,,,0.0,4.0,4.0,4.0,0.0,4.0,66.666664,,,,,,,,,,,,,,,,,,,,,,,,,,,,,,,,,,,,,,,,,,,,,,,,,,,,,,,,,,,,,,,,,,,,,,,,,,,,,,,,,,,,
4906,1645494552.477319,1645494552.491197,120.0,0.0,4240.512695,2881.5385739999997,4270.769043,4279.487305,4223.589844,450.0,4.0,77.0,,,,0.0,4.0,4.0,4.0,0.0,4.0,66.666664,,,,,,,,60.0,0.0,0.493371,-0.223633,0.6210939999999999,0.5664060000000001,0.8686659999999999,-0.4878,-0.13135,-0.033305,-0.039299,-0.036363,,,,,,,,,,,,,,,,,,,,,,,,,,,,,,,,,,,0.0,0.0,1.0,0.0,128.0,1.0,,,,,,,,,,,,,,,,,,,,,,,,,
4907,1645494552.485134,1645494552.499012,121.0,0.0,4247.179688,2878.4614260000003,4281.025879,4278.461426,4229.230957,450.0,4.0,77.0,,,,0.0,4.0,4.0,4.0,0.0,4.0,66.666664,,,,,,,,,,,,,,,,,,,,,,,,,,,,,,,,,,,,,,,,,,,,,,,,,,,,,,,,,,,,,,,,,,,,,,,,,,,,,,,,,,,,
4908,1645494552.492949,1645494552.506826,122.0,0.0,4244.615234000001,2956.923096,4288.205078,4278.974121,4232.307617,450.0,4.0,77.0,,,,0.0,4.0,4.0,4.0,0.0,4.0,66.666664,,,,,,,,61.0,0.0,0.493371,-0.223633,0.6210939999999999,0.5664060000000001,0.869642,-0.48926499999999995,-0.135256,-0.033392000000000005,-0.039275,-0.037902,,,,,,,,,,,,,,,,,,,,,,,,,,,,,,,,,,,,,,,,,,,,,,,,,,,,,,,,,,,,,,,,,
4909,1645494552.5007641,1645494552.514541,123.0,0.0,4246.153809,2974.3588870000003,4275.384765999999,4278.974121,4218.461426,16189.0,4.0,77.0,,,,0.0,4.0,2.0,4.0,0.0,4.0,50.0,,,,,,,,,,,,,,,,,,,,,,,,,,,,,,,,,,,,,,,,,,,,,,,,,,,,,,,,,,,,,,,,,,,,,,,,,,,,,,,,,,,,
4910,1645494552.508579,1645494552.522356,124.0,0.0,4255.384765999999,2947.179443,4269.743652,4278.461426,4211.794922,450.0,4.0,77.0,,,,0.0,4.0,2.0,4.0,0.0,4.0,50.0,,,,,,,,62.0,0.0,0.493371,-0.223633,0.6210939999999999,0.5664060000000001,0.8725719999999999,-0.48731199999999997,-0.12842,-0.033373,-0.039254000000000004,-0.032989,,,,,,,,,,,,,,,,,,,,,,,,,,,,,,,,,,,0.0,0.0,1.0,0.0,128.0,1.0,,,,,,,,,,,,,,,,,,,,,,,,,
4911,1645494552.516394,1645494552.53017,125.0,0.0,4247.179688,2954.3588870000003,4276.410156,4279.487305,4226.666504,450.0,4.0,77.0,,,,0.0,4.0,2.0,4.0,0.0,4.0,50.0,,,,,,,,,,,,,,,,,,,,,,,,,,,,,,,,,,,,,,,,,,,,,,,,,,,,,,,,,,,,,,,,,,,,,,,,,,,,,,,,,,,,
4912,1645494552.524208,1645494552.5379848,126.0,0.0,4234.358886999999,2960.512939,4283.589844,4278.974121,4234.358886999999,450.0,4.0,77.0,,,,0.0,4.0,2.0,4.0,0.0,4.0,50.0,,,,,,,,63.0,0.0,0.49378900000000003,-0.22338899999999998,0.62085,0.5664060000000001,0.871107,-0.484382,-0.136721,-0.033259,-0.039284,-0.03472,,,,,,,,,,,,,,,,,,,,,,,,,,,,,,,,,,,,,,,,,,,,,,,,,,,,,,,,,,,,,,,,,
4913,1645494552.532024,1645494552.5458,127.0,0.0,4236.922852000001,2960.0,4276.410156,4276.410156,4226.153809,239.0,4.0,77.0,,,,0.0,4.0,2.0,4.0,0.0,4.0,50.0,,,,,,,,,,,,,,,,,,,,,,,,,,,,,,,,,,,,,,,,,,,,,,,,,,,,,,,,,,,,,,,,,,,,,,,,,,,,,,,,,,,,
4914,1645494552.539838,1645494552.5536141,0.0,0.0,4237.436035,2990.769287,4276.922852000001,4277.436035,4218.974121,450.0,4.0,77.0,,,,0.0,4.0,2.0,4.0,0.0,4.0,50.0,0.972656,33.333332,4.0,0.0,4.0,0.0,4.0,0.0,0.0,0.49378900000000003,-0.22338899999999998,0.62085,0.5664060000000001,0.8691540000000001,-0.488777,-0.132326,-0.033448,-0.039262,-0.036326,1.0,0.0,0.0,,,,,,,,,,,,,,,,,,,,,,,,,,,,,,,,0.0,0.0,1.0,0.0,128.0,0.465132,2.4793849999999997,2.264703,0.679821,0.786413,0.8227459999999999,15.693853,5.443332,5.7105809999999995,2.841887,3.222299,0.8069689999999999,0.751842,0.49773500000000004,0.5416340000000001,0.346505,0.000625,0.000263,0.00011499999999999999,9.6e-05,0.00018700000000000002,2.77743,1.176833,0.324773,0.782263,0.9635670000000001
4915,1645494552.547653,1645494552.561429,1.0,0.0,4236.922852000001,2989.743652,4295.384765999999,4280.512695,4221.538574,450.0,4.0,77.0,,,,0.0,4.0,2.0,4.0,0.0,4.0,50.0,,,,,,,,,,,,,,,,,,,,,,,,,,,,,,,,,,,,,,,,,,,,,,,,,,,,,,,,,,,,,,,,,,,,,,,,,,,,,,,,,,,,
4916,1645494552.555468,1645494552.569244,2.0,0.0,4249.743652,2944.102539,4306.666504,4279.487305,4228.717772999999,16124.0,4.0,77.0,,,,0.0,4.0,2.0,4.0,0.0,4.0,50.0,,,,,,,,1.0,0.0,0.49378900000000003,-0.22338899999999998,0.62085,0.5664060000000001,0.8686659999999999,-0.4878,-0.13135,-0.033473,-0.039193,-0.037771,,,,,,,,,,,,,,,,,,,,,,,,,,,,,,,,,,,,,,,,,,,,,,,,,,,,,,,,,,,,,,,,,
4917,1645494552.563283,1645494552.577058,3.0,0.0,4252.820313,2932.3076170000004,4296.410156,4277.436035,4237.94873,450.0,4.0,77.0,,,,0.0,4.0,2.0,4.0,0.0,4.0,50.0,,,,,,,,,,,,,,,,,,,,,,,,,,,,,,,,,,,,,,,,,,,,,,,,,,,,,,,,,,,,,,,,,,,,,,,,,,,,,,,,,,,,
4918,1645494552.571098,1645494552.584873,4.0,0.0,4240.512695,2959.487061,4289.230957,4278.461426,4243.589844,289.0,4.0,77.0,,,,0.0,4.0,2.0,4.0,0.0,4.0,50.0,,,,,,,,2.0,0.0,0.49378900000000003,-0.22338899999999998,0.62085,0.5664060000000001,0.8686659999999999,-0.48584700000000003,-0.140139,-0.033446,-0.039229,-0.039169999999999996,,,,,,,,,,,,,,,,,,,,,,,,,,,,,,,,,,,0.0,0.0,1.0,0.0,128.0,0.465132,,,,,,,,,,,,,,,,,,,,,,,,,
4919,1645494552.578913,1645494552.5925882,5.0,0.0,4238.974121,2985.6411129999997,4292.820313,4279.487305,4235.384765999999,450.0,4.0,77.0,,,,0.0,4.0,2.0,4.0,0.0,4.0,50.0,,,,,,,,,,,,,,,,,,,,,,,,,,,,,,,,,,,,,,,,,,,,,,,,,,,,,,,,,,,,,,,,,,,,,,,,,,,,,,,,,,,,
4920,1645494552.5867279,1645494552.6004019,6.0,0.0,4243.077147999999,2991.281982,4287.179688,4279.487305,4222.563965,16187.0,4.0,77.0,,,,0.0,4.0,2.0,4.0,0.0,4.0,50.0,,,,,,,,3.0,0.0,0.49378900000000003,-0.22338899999999998,0.62085,0.5664060000000001,0.870619,-0.49170699999999995,-0.14990499999999998,-0.033422,-0.039261000000000004,-0.040331,,,,,,,,,,,,,,,,,,,,,,,,,,,,,,,,,,,,,,,,,,,,,,,,,,,,,,,,,,,,,,,,,
4921,1645494552.594543,1645494552.608217,7.0,0.0,4249.743652,2985.128174,4286.666504,4279.487305,4223.077147999999,450.0,4.0,77.0,,,,0.0,4.0,2.0,4.0,0.0,4.0,50.0,,,,,,,,,,,,,,,,,,,,,,,,,,,,,,,,,,,,,,,,,,,,,,,,,,,,,,,,,,,,,,,,,,,,,,,,,,,,,,,,,,,,
4922,1645494552.602358,1645494552.6160321,8.0,0.0,4260.0,2973.333252,4289.230957,4279.487305,4227.179688,450.0,4.0,77.0,,,,0.0,4.0,2.0,4.0,0.0,4.0,50.0,,,,,,,,4.0,0.0,0.494069,-0.22338899999999998,0.62085,0.5661619999999999,0.882826,-0.504402,-0.138186,-0.0334,-0.039192000000000005,-0.035077,,,,,,,,,,,,,,,,,,,,,,,,,,,,,,,,,,,0.0,0.0,1.0,0.0,128.0,0.465132,,,,,,,,,,,,,,,,,,,,,,,,,
4923,1645494552.610173,1645494552.623846,9.0,0.0,4263.077147999999,2970.769287,4291.282227000001,4280.512695,4227.692383,0.0,4.0,77.0,,,,0.0,4.0,2.0,4.0,0.0,4.0,50.0,,,,,,,,,,,,,,,,,,,,,,,,,,,,,,,,,,,,,,,,,,,,,,,,,,,,,,,,,,,,,,,,,,,,,,,,,,,,,,,,,,,,
4924,1645494552.617988,1645494552.631661,10.0,0.0,4253.333496,2975.897461,4288.717772999999,4280.512695,4223.589844,450.0,4.0,77.0,,,,0.0,4.0,2.0,4.0,0.0,4.0,50.0,,,,,,,,5.0,0.0,0.494069,-0.22338899999999998,0.62085,0.5661619999999999,0.8740370000000001,-0.482918,-0.12695499999999998,-0.03338,-0.039082,-0.036697,,,,,,,,,,,,,,,,,,,,,,,,,,,,,,,,,,,,,,,,,,,,,,,,,,,,,,,,,,,,,,,,,
4925,1645494552.625803,1645494552.639476,11.0,0.0,4248.205078,2968.205078,4293.333496,4280.0,4215.897461,16188.0,4.0,77.0,,,,0.0,4.0,2.0,4.0,0.0,4.0,50.0,,,,,,,,,,,,,,,,,,,,,,,,,,,,,,,,,,,,,,,,,,,,,,,,,,,,,,,,,,,,,,,,,,,,,,,,,,,,,,,,,,,,
4926,1645494552.6336179,1645494552.64729,12.0,0.0,4265.641113000001,2973.333252,4298.461426,4280.512695,4217.436035,450.0,4.0,77.0,,,,0.0,4.0,2.0,4.0,0.0,4.0,50.0,,,,,,,,6.0,0.0,0.493958,-0.223633,0.62085,0.5661619999999999,0.867201,-0.500496,-0.12695499999999998,-0.033411,-0.039178,-0.038202999999999994,,,,,,,,,,,,,,,,,,,,,,,,,,,,,,,,,,,0.0,0.0,1.0,0.0,128.0,0.465132,,,,,,,,,,,,,,,,,,,,,,,,,
4927,1645494552.641433,1645494552.655105,13.0,0.0,4272.307617,2995.384521,4301.025879,4280.512695,4225.128418,450.0,4.0,77.0,,,,0.0,4.0,2.0,4.0,0.0,4.0,50.0,,,,,,,,,,,,,,,,,,,,,,,,,,,,,,,,,,,,,,,,,,,,,,,,,,,,,,,,,,,,,,,,,,,,,,,,,,,,,,,,,,,,
4928,1645494552.6492481,1645494552.6628199,14.0,0.0,4258.974121,3001.025635,4289.743652,4280.0,4225.641113000001,450.0,4.0,77.0,,,,0.0,4.0,2.0,4.0,0.0,4.0,50.0,,,,,,,,7.0,0.0,0.494154,-0.223877,0.6206050000000001,0.5661619999999999,0.8774549999999999,-0.493172,-0.12695499999999998,-0.033438999999999997,-0.039215,-0.033357,,,,,,,,,,,,,,,,,,,,,,,,,,,,,,,,,,,,,,,,,,,,,,,,,,,,,,,,,,,,,,,,,
4929,1645494552.657063,1645494552.670634,15.0,0.0,4265.128418,3003.589844,4287.692383,4280.512695,4235.897461,16188.0,4.0,77.0,,,,0.0,4.0,2.0,4.0,0.0,4.0,50.0,,,,,,,,,,,,,,,,,,,,,,,,,,,,,,,,,,,,,,,,,,,,,,,,,,,,,,,,,,,,,,,,,,,,,,,,,,,,,,,,,,,,
4930,1645494552.664878,1645494552.678449,16.0,0.0,4282.05127,3018.974365,4298.974121,4280.512695,4249.743652,0.0,4.0,77.0,,,,0.0,4.0,2.0,4.0,0.0,4.0,50.0,,,,,,,,8.0,0.0,0.49443400000000004,-0.223877,0.6206050000000001,0.565918,0.8750129999999999,-0.504891,-0.139651,-0.033269,-0.0392,-0.0351,1.0,0.0,0.0,,,,,,,,,,,,,,,,,,,,,,,,,,,,,,,,0.0,0.0,1.0,0.0,128.0,0.642554,2.7741599999999997,2.676837,0.791985,0.8302719999999999,0.828995,17.338564,6.38649,7.0545160000000005,2.906462,3.266541,0.729524,0.65098,0.477796,0.59992,0.360106,0.001351,0.000496,0.000218,0.000223,0.00045599999999999997,2.697368,1.058283,0.41339,0.9761280000000001,0.9417719999999999
4931,1645494552.672693,1645494552.686264,17.0,0.0,4272.820313,3014.871826,4303.077147999999,4278.461426,4230.256348,0.0,4.0,77.0,,,,0.0,4.0,2.0,4.0,0.0,4.0,50.0,,,,,,,,,,,,,,,,,,,,,,,,,,,,,,,,,,,,,,,,,,,,,,,,,,,,,,,,,,,,,,,,,,,,,,,,,,,,,,,,,,,,
4932,1645494552.680508,1645494552.694078,18.0,0.0,4255.384765999999,2997.435791,4294.358886999999,4277.94873,4209.230957,0.0,4.0,77.0,,,,0.0,4.0,2.0,4.0,0.0,4.0,50.0,,,,,,,,9.0,0.0,0.49432299999999996,-0.22412100000000001,0.6206050000000001,0.565918,0.870619,-0.486336,-0.135256,-0.033263,-0.039186,-0.036717,,,,,,,,,,,,,,,,,,,,,,,,,,,,,,,,,,,,,,,,,,,,,,,,,,,,,,,,,,,,,,,,,
4933,1645494552.688323,1645494552.7018929,19.0,0.0,4265.128418,3014.3588870000003,4286.666504,4279.487305,4233.846191,0.0,4.0,77.0,,,,0.0,4.0,2.0,4.0,0.0,4.0,50.0,,,,,,,,,,,,,,,,,,,,,,,,,,,,,,,,,,,,,,,,,,,,,,,,,,,,,,,,,,,,,,,,,,,,,,,,,,,,,,,,,,,,
4934,1645494552.6961381,1645494552.709708,20.0,0.0,4274.358886999999,3038.974365,4293.333496,4278.974121,4249.230957,0.0,4.0,77.0,,,,0.0,4.0,2.0,4.0,0.0,4.0,50.0,,,,,,,,10.0,0.0,0.494154,-0.223877,0.6206050000000001,0.5661619999999999,0.8774549999999999,-0.493172,-0.12695499999999998,-0.033257,-0.039076,-0.031873,,,,,,,,,,,,,,,,,,,,,,,,,,,,,,,,,,,0.0,0.0,1.0,0.0,128.0,0.642554,,,,,,,,,,,,,,,,,,,,,,,,,
4935,1645494552.703953,1645494552.7175221,21.0,0.0,4272.820313,3037.435791,4303.589844,4278.461426,4221.538574,0.0,4.0,77.0,,,,0.0,4.0,2.0,4.0,0.0,4.0,50.0,,,,,,,,,,,,,,,,,,,,,,,,,,,,,,,,,,,,,,,,,,,,,,,,,,,,,,,,,,,,,,,,,,,,,,,,,,,,,,,,,,,,
4936,1645494552.711768,1645494552.725337,22.0,0.0,4270.769043,3030.256348,4299.487305,4279.487305,4208.717772999999,0.0,4.0,77.0,,,,0.0,4.0,2.0,4.0,0.0,4.0,50.0,,,,,,,,11.0,0.0,0.49432299999999996,-0.22412100000000001,0.6206050000000001,0.565918,0.870619,-0.486336,-0.135256,-0.033252,-0.039075,-0.033813,,,,,,,,,,,,,,,,,,,,,,,,,,,,,,,,,,,,,,,,,,,,,,,,,,,,,,,,,,,,,,,,,
4937,1645494552.719582,1645494552.733052,23.0,0.0,4256.922852000001,3027.179443,4287.179688,4281.025879,4226.153809,0.0,4.0,77.0,,,,0.0,4.0,2.0,4.0,0.0,4.0,50.0,,,,,,,,,,,,,,,,,,,,,,,,,,,,,,,,,,,,,,,,,,,,,,,,,,,,,,,,,,,,,,,,,,,,,,,,,,,,,,,,,,,,
4938,1645494552.7273982,1645494552.740866,24.0,0.0,4260.0,3037.435791,4297.94873,4281.538574,4234.871582,0.0,4.0,77.0,,,,0.0,4.0,2.0,4.0,0.0,4.0,50.0,,,,,,,,12.0,0.0,0.49463,-0.22412100000000001,0.6203609999999999,0.565918,0.8535290000000001,-0.48926499999999995,-0.132326,-0.033296,-0.039123000000000005,-0.035559,,,,,,,,,,,,,,,,,,,,,,,,,,,,,,,,,,,0.0,0.0,1.0,0.0,128.0,0.642554,,,,,,,,,,,,,,,,,,,,,,,,,
4939,1645494552.7352118,1645494552.748681,25.0,0.0,4281.025879,3042.05127,4311.794922,4281.025879,4216.922852000001,0.0,4.0,77.0,,,,0.0,4.0,2.0,4.0,0.0,4.0,50.0,,,,,,,,,,,,,,,,,,,,,,,,,,,,,,,,,,,,,,,,,,,,,,,,,,,,,,,,,,,,,,,,,,,,,,,,,,,,,,,,,,,,
4940,1645494552.743027,1645494552.7564962,26.0,0.0,4284.102539,3017.94873,4303.077147999999,4279.487305,4208.205078,0.0,4.0,77.0,,,,0.0,4.0,2.0,4.0,0.0,4.0,50.0,,,,,,,,13.0,0.0,0.49479799999999996,-0.224365,0.6203609999999999,0.565674,0.8652479999999999,-0.48389399999999994,-0.139651,-0.033139999999999996,-0.03897,-0.03088,,,,,,,,,,,,,,,,,,,,,,,,,,,,,,,,,,,,,,,,,,,,,,,,,,,,,,,,,,,,,,,,,
4941,1645494552.750842,1645494552.76431,27.0,0.0,4287.179688,3016.410156,4288.205078,4278.461426,4218.461426,0.0,4.0,77.0,,,,0.0,4.0,2.0,4.0,0.0,4.0,50.0,,,,,,,,,,,,,,,,,,,,,,,,,,,,,,,,,,,,,,,,,,,,,,,,,,,,,,,,,,,,,,,,,,,,,,,,,,,,,,,,,,,,
4942,1645494552.758657,1645494552.772125,28.0,0.0,4303.589844,3049.743652,4293.333496,4278.461426,4218.974121,0.0,4.0,77.0,,,,0.0,4.0,2.0,4.0,0.0,4.0,50.0,,,,,,,,14.0,0.0,0.49507700000000004,-0.224365,0.6203609999999999,0.56543,0.8652479999999999,-0.489754,-0.136721,-0.033195,-0.038882,-0.032919,,,,,,,,,,,,,,,,,,,,,,,,,,,,,,,,,,,0.0,0.0,1.0,0.0,128.0,0.642554,,,,,,,,,,,,,,,,,,,,,,,,,
4943,1645494552.766472,1645494552.7799392,29.0,0.0,4297.436035,3033.846191,4298.974121,4280.0,4229.743652,0.0,4.0,77.0,,,,0.0,4.0,2.0,4.0,0.0,4.0,50.0,,,,,,,,,,,,,,,,,,,,,,,,,,,,,,,,,,,,,,,,,,,,,,,,,,,,,,,,,,,,,,,,,,,,,,,,,,,,,,,,,,,,
4944,1645494552.774287,1645494552.7877538,30.0,0.0,4286.666504,3002.564209,4303.077147999999,4281.538574,4252.820313,0.0,4.0,77.0,,,,0.0,4.0,2.0,4.0,0.0,4.0,50.0,,,,,,,,15.0,0.0,0.495245,-0.224609,0.6203609999999999,0.565186,0.886732,-0.474617,-0.137697,-0.033195999999999996,-0.038851,-0.034754,,,,,,,,,,,,,,,,,,,,,,,,,,,,,,,,,,,,,,,,,,,,,,,,,,,,,,,,,,,,,,,,,
4945,1645494552.7821019,1645494552.795569,31.0,0.0,4299.487305,3036.410156,4297.94873,4280.512695,4242.05127,0.0,4.0,77.0,,,,0.0,4.0,2.0,4.0,0.0,4.0,50.0,,,,,,,,,,,,,,,,,,,,,,,,,,,,,,,,,,,,,,,,,,,,,,,,,,,,,,,,,,,,,,,,,,,,,,,,,,,,,,,,,,,,
4946,1645494552.789917,1645494552.803383,32.0,0.0,4316.922852000001,3080.512939,4294.871582,4280.0,4218.974121,0.0,4.0,77.0,,,,0.0,4.0,2.0,4.0,0.0,4.0,50.0,,,,,,,,16.0,0.0,0.495245,-0.224609,0.6203609999999999,0.565186,0.8881969999999999,-0.477546,-0.129397,-0.033246,-0.038872000000000004,-0.036406,1.0,0.0,0.0,,,,,,,,,,,,,,,,,,,,,,,,,,,,,,,,0.0,0.0,64.0,0.244983,1.0,0.0,3.009608,2.9777259999999997,0.966621,0.875035,0.805916,15.652142999999999,7.727328,8.112457000000001,2.863203,3.23921,0.6149220000000001,0.52649,0.443267,0.615938,0.363288,0.002516,0.0008119999999999999,0.00035800000000000003,0.00042199999999999996,0.000951,2.88783,0.977188,0.525141,1.1354739999999999,0.9000040000000001
4947,1645494552.797732,1645494552.811098,33.0,0.0,4328.717772999999,3072.3076170000004,4292.820313,4280.512695,4240.512695,0.0,4.0,77.0,,,,0.0,4.0,2.0,4.0,0.0,4.0,50.0,,,,,,,,,,,,,,,,,,,,,,,,,,,,,,,,,,,,,,,,,,,,,,,,,,,,,,,,,,,,,,,,,,,,,,,,,,,,,,,,,,,,
4948,1645494552.805547,1645494552.818913,34.0,0.0,4323.077147999999,3050.256348,4287.179688,4280.512695,4262.05127,0.0,4.0,77.0,,,,0.0,4.0,2.0,4.0,0.0,4.0,50.0,,,,,,,,17.0,0.0,0.494939,-0.224609,0.6206050000000001,0.565186,0.87892,-0.484382,-0.14257999999999998,-0.033339,-0.038891,-0.037941,,,,,,,,,,,,,,,,,,,,,,,,,,,,,,,,,,,,,,,,,,,,,,,,,,,,,,,,,,,,,,,,,
4949,1645494552.813362,1645494552.826727,35.0,0.0,4338.461426,3071.281982,4291.282227000001,4280.0,4266.153809,0.0,4.0,77.0,,,,0.0,4.0,2.0,4.0,0.0,4.0,50.0,,,,,,,,,,,,,,,,,,,,,,,,,,,,,,,,,,,,,,,,,,,,,,,,,,,,,,,,,,,,,,,,,,,,,,,,,,,,,,,,,,,,
4950,1645494552.821177,1645494552.834542,36.0,0.0,4412.820313,3094.871826,4294.871582,4280.0,4305.128418,0.0,4.0,77.0,,,,0.0,4.0,2.0,4.0,0.0,4.0,50.0,,,,,,,,18.0,0.0,0.494633,-0.224609,0.62085,0.565186,0.8730600000000001,-0.46338599999999996,-0.127443,-0.033374,-0.038957,-0.039225,,,,,,,,,,,,,,,,,,,,,,,,,,,,,,,,,,,0.0,0.0,64.0,0.244983,1.0,0.0,,,,,,,,,,,,,,,,,,,,,,,,,
4951,1645494552.828992,1645494552.842357,37.0,0.0,4464.102539,3084.615479,4290.256348,4281.538574,4331.794922,0.0,4.0,77.0,,,,0.0,4.0,2.0,4.0,0.0,4.0,50.0,,,,,,,,,,,,,,,,,,,,,,,,,,,,,,,,,,,,,,,,,,,,,,,,,,,,,,,,,,,,,,,,,,,,,,,,,,,,,,,,,,,,
4952,1645494552.836807,1645494552.850171,38.0,0.0,4502.05127,3095.384521,4293.846191,4281.025879,4357.94873,0.0,4.0,77.0,,,,0.0,4.0,2.0,4.0,0.0,4.0,50.0,,,,,,,,19.0,0.0,0.49376499999999995,-0.223877,0.621582,0.56543,0.879408,-0.457038,-0.12842,-0.033260000000000005,-0.038919,-0.034131,,,,,,,,,,,,,,,,,,,,,,,,,,,,,,,,,,,,,,,,,,,,,,,,,,,,,,,,,,,,,,,,,
4953,1645494552.8446221,1645494552.857986,39.0,0.0,4636.410156,3166.153809,4320.0,4280.0,4462.05127,0.0,4.0,77.0,,,,0.0,4.0,2.0,4.0,0.0,4.0,50.0,,,,,,,,,,,,,,,,,,,,,,,,,,,,,,,,,,,,,,,,,,,,,,,,,,,,,,,,,,,,,,,,,,,,,,,,,,,,,,,,,,,,
4954,1645494552.852437,1645494552.8658009,40.0,0.0,4758.974121,3229.230713,4317.436035,4284.615234000001,4537.94873,0.0,4.0,77.0,,,,0.0,4.0,2.0,4.0,0.0,4.0,50.0,,,,,,,,20.0,0.0,0.49303199999999997,-0.2229,0.62207,0.565918,0.8676889999999999,-0.45655,-0.12695499999999998,-0.033254,-0.039080000000000004,-0.035795999999999994,,,,,,,,,,,,,,,,,,,,,,,,,,,,,,,,,,,0.0,0.0,64.0,0.244983,1.0,0.0,,,,,,,,,,,,,,,,,,,,,,,,,
4955,1645494552.860252,1645494552.8735151,41.0,0.0,4757.94873,3247.6923829999996,4300.512695,4287.179688,4514.871582,0.0,4.0,77.0,,,,0.0,4.0,2.0,4.0,0.0,4.0,50.0,,,,,,,,,,,,,,,,,,,,,,,,,,,,,,,,,,,,,,,,,,,,,,,,,,,,,,,,,,,,,,,,,,,,,,,,,,,,,,,,,,,,
4956,1645494552.868067,1645494552.88133,42.0,0.0,4837.436035,3291.281982,4317.436035,4285.641113000001,4522.563965,0.0,4.0,77.0,,,,0.0,4.0,2.0,4.0,0.0,4.0,50.0,,,,,,,,21.0,0.0,0.49181499999999995,-0.22168000000000002,0.622803,0.56665,0.863783,-0.46533900000000006,-0.134768,-0.0332,-0.039176,-0.030994999999999998,,,,,,,,,,,,,,,,,,,,,,,,,,,,,,,,,,,,,,,,,,,,,,,,,,,,,,,,,,,,,,,,,
4957,1645494552.8758821,1645494552.889045,43.0,0.0,5172.820313,3358.974365,4334.871582,4290.256348,4615.897461,0.0,4.0,77.0,,,,0.0,4.0,2.0,4.0,0.0,4.0,50.0,,,,,,,,,,,,,,,,,,,,,,,,,,,,,,,,,,,,,,,,,,,,,,,,,,,,,,,,,,,,,,,,,,,,,,,,,,,,,,,,,,,,
4958,1645494552.883697,1645494552.896859,44.0,0.0,5516.922852000001,3400.512939,4333.846191,4298.461426,4702.05127,0.0,4.0,77.0,,,,0.0,4.0,2.0,4.0,0.0,4.0,50.0,,,,,,,,22.0,0.0,0.490762,-0.220703,0.6235350000000001,0.5671390000000001,0.8896620000000001,-0.475105,-0.127443,-0.033103,-0.039262,-0.026773,,,,,,,,,,,,,,,,,,,,,,,,,,,,,,,,,,,0.0,0.0,64.0,0.244983,1.0,0.0,,,,,,,,,,,,,,,,,,,,,,,,,
4959,1645494552.891512,1645494552.904674,45.0,0.0,5893.846191,3437.9487299999996,4354.871582,4304.102539,4745.128418,0.0,4.0,77.0,,,,0.0,4.0,2.0,4.0,0.0,4.0,50.0,,,,,,,,,,,,,,,,,,,,,,,,,,,,,,,,,,,,,,,,,,,,,,,,,,,,,,,,,,,,,,,,,,,,,,,,,,,,,,,,,,,,
4960,1645494552.899327,1645494552.9124892,46.0,0.0,6709.230957,3520.512939,4365.128418,4318.461426,4819.487305,0.0,4.0,77.0,,,,0.0,4.0,2.0,4.0,0.0,4.0,50.0,,,,,,,,23.0,0.0,0.48973199999999995,-0.219727,0.624023,0.567871,0.8525520000000001,-0.501472,-0.125978,-0.033113,-0.039389,-0.029125,,,,,,,,,,,,,,,,,,,,,,,,,,,,,,,,,,,,,,,,,,,,,,,,,,,,,,,,,,,,,,,,,
4961,1645494552.907142,1645494552.9203029,47.0,0.0,7620.0,3614.8718259999996,4344.102539,4347.179688,4960.0,0.0,4.0,77.0,,,,0.0,4.0,2.0,4.0,0.0,4.0,50.0,,,,,,,,,,,,,,,,,,,,,,,,,,,,,,,,,,,,,,,,,,,,,,,,,,,,,,,,,,,,,,,,,,,,,,,,,,,,,,,,,,,,
4962,1645494552.914956,1645494552.928118,48.0,0.0,7925.641113,3684.102539,4338.461426,4381.538574,5141.538574,0.0,4.0,77.0,,,,0.0,4.0,2.0,4.0,0.0,4.0,50.0,,,,,,,,24.0,0.0,0.48886999999999997,-0.218994,0.624512,0.5683590000000001,0.863294,-0.511238,-0.133303,-0.033073000000000005,-0.039502999999999996,-0.031339,1.0,0.0,0.0,,,,,,,,,,,,,,,,,,,,,,,,,,,,,,,,0.0,0.0,64.0,1.0,1.0,0.0,3.084495,3.135479,1.131987,0.892683,0.762626,19.033901,9.105983,8.606003999999999,2.753225,3.200352,0.548292,0.421833,0.394072,0.594843,0.35944299999999996,0.004351,0.00121,0.0005269999999999999,0.000712,0.001743,2.842457,0.963622,0.637706,1.214789,0.8446030000000001
4963,1645494552.9227722,1645494552.935933,49.0,0.0,7816.922852,3871.281982,4367.179688,4410.769043,5322.05127,0.0,4.0,77.0,,,,0.0,4.0,2.0,4.0,0.0,4.0,50.0,,,,,,,,,,,,,,,,,,,,,,,,,,,,,,,,,,,,,,,,,,,,,,,,,,,,,,,,,,,,,,,,,,,,,,,,,,,,,,,,,,,,
4964,1645494552.9305859,1645494552.943747,50.0,0.0,7814.871581999999,4213.333496,4360.0,4430.769043,5417.436035,0.0,4.0,77.0,,,,0.0,4.0,2.0,4.0,0.0,4.0,50.0,,,,,,,,25.0,0.0,0.487721,-0.21826199999999998,0.625,0.569092,0.8803850000000001,-0.513191,-0.127932,-0.033037000000000004,-0.039556,-0.033283999999999994,,,,,,,,,,,,,,,,,,,,,,,,,,,,,,,,,,,,,,,,,,,,,,,,,,,,,,,,,,,,,,,,,
4965,1645494552.938401,1645494552.951562,51.0,0.0,7845.128418000001,4756.922852000001,4324.102539,4448.717772999999,5477.436035,0.0,4.0,77.0,,,,0.0,4.0,2.0,4.0,0.0,4.0,50.0,,,,,,,,,,,,,,,,,,,,,,,,,,,,,,,,,,,,,,,,,,,,,,,,,,,,,,,,,,,,,,,,,,,,,,,,,,,,,,,,,,,,
4966,1645494552.946216,1645494552.959277,52.0,0.0,7791.794922,5828.717772999999,4330.769043,4466.666504,5635.384765999999,0.0,4.0,77.0,,,,0.0,4.0,2.0,4.0,0.0,4.0,50.0,,,,,,,,26.0,0.0,0.48734099999999997,-0.217773,0.6252439999999999,0.569336,0.862806,-0.532235,-0.131838,-0.033005,-0.039702,-0.035033999999999996,,,,,,,,,,,,,,,,,,,,,,,,,,,,,,,,,,,0.0,0.0,64.0,1.0,1.0,0.0,,,,,,,,,,,,,,,,,,,,,,,,,
4967,1645494552.954031,1645494552.967091,53.0,0.0,7771.282227,7149.230956999999,4353.333496,4475.384765999999,5774.871582,0.0,4.0,77.0,,,,0.0,4.0,2.0,4.0,0.0,4.0,50.0,,,,,,,,,,,,,,,,,,,,,,,,,,,,,,,,,,,,,,,,,,,,,,,,,,,,,,,,,,,,,,,,,,,,,,,,,,,,,,,,,,,,
4968,1645494552.961846,1645494552.974906,54.0,0.0,7772.307617,7835.897461,4336.922852000001,4480.512695,5748.717772999999,0.0,4.0,77.0,,,,0.0,4.0,2.0,4.0,0.0,4.0,50.0,,,,,,,,27.0,0.0,0.487137,-0.217529,0.625488,0.569336,0.8608530000000001,-0.521981,-0.138186,-0.033074,-0.039785,-0.03656,,,,,,,,,,,,,,,,,,,,,,,,,,,,,,,,,,,,,,,,,,,,,,,,,,,,,,,,,,,,,,,,,
4969,1645494552.969661,1645494552.982721,55.0,0.0,7772.820312999999,7845.128418000001,4302.563965,4489.743652,5747.179688,0.0,4.0,77.0,,,,0.0,4.0,2.0,4.0,0.0,4.0,50.0,,,,,,,,,,,,,,,,,,,,,,,,,,,,,,,,,,,,,,,,,,,,,,,,,,,,,,,,,,,,,,,,,,,,,,,,,,,,,,,,,,,,
4970,1645494552.977476,1645494552.990535,56.0,0.0,7771.282227,7825.128418000001,4308.717772999999,4495.384765999999,5874.358886999999,0.0,4.0,77.0,,,,0.0,4.0,2.0,4.0,0.0,4.0,50.0,,,,,,,,28.0,0.0,0.487422,-0.217529,0.625488,0.569092,0.849134,-0.541024,-0.13281500000000002,-0.033184,-0.039810000000000005,-0.037933,,,,,,,,,,,,,,,,,,,,,,,,,,,,,,,,,,,0.0,0.0,64.0,1.0,1.0,0.0,,,,,,,,,,,,,,,,,,,,,,,,,
4971,1645494552.985291,1645494552.99835,57.0,0.0,7771.282227,7855.897461,4313.846191,4493.846191,5914.358886999999,0.0,4.0,77.0,,,,0.0,4.0,2.0,4.0,0.0,4.0,50.0,,,,,,,,,,,,,,,,,,,,,,,,,,,,,,,,,,,,,,,,,,,,,,,,,,,,,,,,,,,,,,,,,,,,,,,,,,,,,,,,,,,,
4972,1645494552.9931061,1645494553.006165,58.0,0.0,7772.820312999999,7753.846191,4301.025879,4493.846191,5855.897461,0.0,4.0,77.0,,,,0.0,4.0,2.0,4.0,0.0,4.0,50.0,,,,,,,,29.0,0.0,0.48831800000000003,-0.21826199999999998,0.6247560000000001,0.5688479999999999,0.8486459999999999,-0.522957,-0.127932,-0.033186,-0.039882,-0.039267,,,,,,,,,,,,,,,,,,,,,,,,,,,,,,,,,,,,,,,,,,,,,,,,,,,,,,,,,,,,,,,,,
4973,1645494553.000921,1645494553.013979,59.0,0.0,7772.307617,7657.436035,4292.820313,4496.410156,5830.769043,0.0,4.0,77.0,,,,0.0,4.0,2.0,4.0,0.0,4.0,50.0,,,,,,,,,,,,,,,,,,,,,,,,,,,,,,,,,,,,,,,,,,,,,,,,,,,,,,,,,,,,,,,,,,,,,,,,,,,,,,,,,,,,
4974,1645494553.008736,1645494553.0217938,60.0,0.0,7772.307617,7620.0,4286.153809,4495.384765999999,5821.538574,0.0,4.0,77.0,,,,0.0,4.0,2.0,4.0,0.0,4.0,50.0,,,,,,,,30.0,0.0,0.490071,-0.219727,0.6235350000000001,0.5681149999999999,0.854994,-0.532235,-0.11133,-0.033188,-0.039947,-0.034168000000000004,,,,,,,,,,,,,,,,,,,,,,,,,,,,,,,,,,,0.0,0.0,64.0,1.0,1.0,0.0,,,,,,,,,,,,,,,,,,,,,,,,,
4975,1645494553.016551,1645494553.029609,61.0,0.0,7772.307617,7580.0,4271.282227000001,4494.358886999999,5791.282227000001,0.0,4.0,77.0,,,,0.0,4.0,2.0,4.0,0.0,4.0,50.0,,,,,,,,,,,,,,,,,,,,,,,,,,,,,,,,,,,,,,,,,,,,,,,,,,,,,,,,,,,,,,,,,,,,,,,,,,,,,,,,,,,,
4976,1645494553.024366,1645494553.037323,62.0,0.0,7774.358887,7537.94873,4258.974121,4493.333496,5752.307617,0.0,4.0,77.0,,,,0.0,4.0,2.0,4.0,0.0,4.0,50.0,,,,,,,,31.0,0.0,0.49152700000000005,-0.221191,0.622314,0.567627,0.8559700000000001,-0.521981,-0.12695499999999998,-0.033238,-0.039858,-0.035927,,,,,,,,,,,,,,,,,,,,,,,,,,,,,,,,,,,,,,,,,,,,,,,,,,,,,,,,,,,,,,,,,
4977,1645494553.032181,1645494553.0451381,63.0,0.0,7789.230956999999,7505.641113,4239.487305,4486.666504,5715.384765999999,0.0,4.0,77.0,,,,0.0,4.0,2.0,4.0,0.0,4.0,50.0,,,,,,,,,,,,,,,,,,,,,,,,,,,,,,,,,,,,,,,,,,,,,,,,,,,,,,,,,,,,,,,,,,,,,,,,,,,,,,,,,,,,
4978,1645494553.0399961,1645494553.052953,64.0,0.0,7809.743651999999,7480.0,4228.717772999999,4471.794922,5618.974121,450.0,4.0,77.0,,,,0.0,4.0,2.0,4.0,0.0,4.0,50.0,1.0,0.0,0.0,0.0,4.0,0.0,1.0,32.0,0.0,0.492096,-0.22192399999999998,0.621826,0.567383,0.866224,-0.442878,-0.133303,-0.033283999999999994,-0.039779,-0.03126,1.0,0.0,0.0,,,,,,,,,,,,,,,,,,,,,,,,,,,,,,,,0.0,0.0,64.0,0.19095299999999998,1.0,0.0,18.503126,6.692378999999999,2.6834990000000003,1.1166,0.776595,20.823908,10.612402000000001,8.461022999999999,2.7760380000000002,3.221506,0.467034,0.36701500000000004,0.344722,0.55087,0.357156,0.030202,0.005959000000000001,0.00182,0.001284,0.0028539999999999998,3.4452529999999997,1.170331,0.763174,1.197028,0.803663
4979,1645494553.047811,1645494553.060767,65.0,0.0,7806.153809,7437.436035,4226.666504,4448.717772999999,5449.230957,450.0,4.0,77.0,,,,0.0,4.0,2.0,4.0,0.0,4.0,50.0,,,,,,,,,,,,,,,,,,,,,,,,,,,,,,,,,,,,,,,,,,,,,,,,,,,,,,,,,,,,,,,,,,,,,,,,,,,,,,,,,,,,
4980,1645494553.055626,1645494553.068482,66.0,0.0,7827.692383,7373.333495999999,4224.615234000001,4420.0,5279.487305,230.0,4.0,77.0,,,,0.0,2.0,2.0,4.0,0.0,4.0,33.333332,,,,,,,,33.0,0.0,0.492295,-0.22216799999999998,0.621582,0.567383,0.877943,-0.436042,-0.144533,-0.033325,-0.039805,-0.033164,,,,,,,,,,,,,,,,,,,,,,,,,,,,,,,,,,,,,,,,,,,,,,,,,,,,,,,,,,,,,,,,,
4981,1645494553.063441,1645494553.076297,67.0,0.0,7826.666504000001,7303.077148,4223.589844,4394.871582,5109.743652,450.0,4.0,77.0,,,,0.0,2.0,2.0,4.0,0.0,4.0,33.333332,,,,,,,,,,,,,,,,,,,,,,,,,,,,,,,,,,,,,,,,,,,,,,,,,,,,,,,,,,,,,,,,,,,,,,,,,,,,,,,,,,,,
4982,1645494553.0712562,1645494553.084111,68.0,0.0,7593.846191,7251.794922,4213.846191,4375.897461,4903.077147999999,238.0,4.0,77.0,,,,0.0,2.0,2.0,4.0,0.0,4.0,33.333332,,,,,,,,34.0,0.0,0.492663,-0.222656,0.6213380000000001,0.5671390000000001,0.8813610000000001,-0.5234449999999999,-0.13135,-0.03341,-0.03978,-0.028724,,,,,,,,,,,,,,,,,,,,,,,,,,,,,,,,,,,0.0,0.0,64.0,0.19095299999999998,1.0,0.0,,,,,,,,,,,,,,,,,,,,,,,,,
4983,1645494553.079071,1645494553.091826,69.0,0.0,7119.487305,7212.307617,4187.692383,4363.077147999999,4714.871582,450.0,4.0,77.0,,,,0.0,2.0,2.0,4.0,0.0,4.0,33.333332,,,,,,,,,,,,,,,,,,,,,,,,,,,,,,,,,,,,,,,,,,,,,,,,,,,,,,,,,,,,,,,,,,,,,,,,,,,,,,,,,,,,
4984,1645494553.086886,1645494553.099641,70.0,0.0,6610.256348,7137.94873,4177.436035,4352.820313,4603.589844,16109.0,4.0,77.0,,,,0.0,2.0,2.0,4.0,0.0,4.0,33.333332,,,,,,,,35.0,0.0,0.493142,-0.2229,0.6210939999999999,0.5668949999999999,0.8730600000000001,-0.511238,-0.144533,-0.033438,-0.039854,-0.030979000000000003,,,,,,,,,,,,,,,,,,,,,,,,,,,,,,,,,,,,,,,,,,,,,,,,,,,,,,,,,,,,,,,,,
4985,1645494553.094701,1645494553.107455,71.0,0.0,6149.743652,7016.410156,4211.282227000001,4340.512695,4515.384765999999,450.0,4.0,77.0,,,,0.0,2.0,2.0,4.0,0.0,4.0,33.333332,,,,,,,,,,,,,,,,,,,,,,,,,,,,,,,,,,,,,,,,,,,,,,,,,,,,,,,,,,,,,,,,,,,,,,,,,,,,,,,,,,,,
4986,1645494553.102516,1645494553.11527,72.0,0.0,5766.153809,6884.615234000001,4215.897461,4331.794922,4421.538574,450.0,4.0,77.0,,,,0.0,2.0,2.0,4.0,0.0,4.0,33.333332,,,,,,,,36.0,0.0,0.493312,-0.22314499999999998,0.6210939999999999,0.56665,0.8686659999999999,-0.490242,-0.141604,-0.033317,-0.039824,-0.033056999999999996,,,,,,,,,,,,,,,,,,,,,,,,,,,,,,,,,,,0.0,0.0,64.0,0.19095299999999998,1.0,0.0,,,,,,,,,,,,,,,,,,,,,,,,,
4987,1645494553.11033,1645494553.122985,73.0,0.0,5508.205078,6780.0,4170.256348,4333.333496,4342.563965,0.0,4.0,77.0,,,,0.0,2.0,2.0,4.0,0.0,4.0,33.333332,,,,,,,,,,,,,,,,,,,,,,,,,,,,,,,,,,,,,,,,,,,,,,,,,,,,,,,,,,,,,,,,,,,,,,,,,,,,,,,,,,,,
4988,1645494553.1181462,1645494553.130799,74.0,0.0,5283.077147999999,6691.282227000001,4153.333496,4331.794922,4272.820313,450.0,4.0,77.0,,,,0.0,2.0,2.0,4.0,0.0,4.0,33.333332,,,,,,,,37.0,0.0,0.49359200000000003,-0.22314499999999998,0.6210939999999999,0.5664060000000001,0.8798959999999999,-0.48389399999999994,-0.147463,-0.033208,-0.039797000000000006,-0.034878,,,,,,,,,,,,,,,,,,,,,,,,,,,,,,,,,,,,,,,,,,,,,,,,,,,,,,,,,,,,,,,,,
4989,1645494553.1259599,1645494553.1386142,75.0,0.0,5045.128418,6599.487305,4194.871582,4320.512695,4230.256348,16279.0,4.0,77.0,,,,0.0,2.0,2.0,4.0,0.0,4.0,33.333332,,,,,,,,,,,,,,,,,,,,,,,,,,,,,,,,,,,,,,,,,,,,,,,,,,,,,,,,,,,,,,,,,,,,,,,,,,,,,,,,,,,,
4990,1645494553.133775,1645494553.1464288,76.0,0.0,4873.333496,6487.692383,4211.794922,4315.897461,4218.974121,450.0,4.0,77.0,,,,0.0,2.0,2.0,4.0,0.0,4.0,33.333332,,,,,,,,38.0,0.0,0.493142,-0.2229,0.6210939999999999,0.5668949999999999,0.8730600000000001,-0.511238,-0.144533,-0.033158999999999994,-0.039869999999999996,-0.03642,,,,,,,,,,,,,,,,,,,,,,,,,,,,,,,,,,,0.0,0.0,64.0,0.19095299999999998,1.0,0.0,,,,,,,,,,,,,,,,,,,,,,,,,
4991,1645494553.14159,1645494553.154243,77.0,0.0,4740.512695,6351.282227000001,4207.692383,4318.461426,4201.538574,450.0,4.0,77.0,,,,0.0,2.0,2.0,4.0,0.0,4.0,33.333332,,,,,,,,,,,,,,,,,,,,,,,,,,,,,,,,,,,,,,,,,,,,,,,,,,,,,,,,,,,,,,,,,,,,,,,,,,,,,,,,,,,,
4992,1645494553.149405,1645494553.162058,78.0,0.0,4585.128418,6222.563965,4234.871582,4315.384765999999,4162.563965,450.0,4.0,77.0,,,,0.0,2.0,2.0,4.0,0.0,4.0,33.333332,,,,,,,,39.0,0.0,0.49359200000000003,-0.22314499999999998,0.6210939999999999,0.5664060000000001,0.8798959999999999,-0.48389399999999994,-0.147463,-0.033066000000000005,-0.039838,-0.037905,,,,,,,,,,,,,,,,,,,,,,,,,,,,,,,,,,,,,,,,,,,,,,,,,,,,,,,,,,,,,,,,,
4993,1645494553.15722,1645494553.169873,79.0,0.0,4445.128418,6136.922852000001,4256.922852000001,4309.743652,4123.589844,16279.0,4.0,77.0,,,,0.0,2.0,2.0,4.0,0.0,4.0,33.333332,,,,,,,,,,,,,,,,,,,,,,,,,,,,,,,,,,,,,,,,,,,,,,,,,,,,,,,,,,,,,,,,,,,,,,,,,,,,,,,,,,,,
4994,1645494553.165035,1645494553.177687,80.0,0.0,4341.025879,6062.05127,4238.974121,4308.205078,4108.205078,450.0,4.0,77.0,,,,0.0,2.0,2.0,4.0,0.0,4.0,33.333332,,,,,,,,40.0,0.0,0.493762,-0.22338899999999998,0.6210939999999999,0.5661619999999999,0.873549,-0.47559300000000004,-0.136233,-0.032982,-0.039858,-0.032942,1.0,0.0,0.0,,,,,,,,,,,,,,,,,,,,,,,,,,,,,,,,0.0,0.0,64.0,0.202264,1.0,0.0,173.333145,39.140381,16.081957,3.5465519999999997,1.340386,156.348022,45.926594,18.344020999999998,5.827458999999999,3.5947120000000004,0.560258,0.375044,0.305354,0.498221,0.371703,0.442351,0.047472,0.010846,0.003421,0.004435000000000001,13.0672,2.0092939999999997,1.0083030000000002,1.106895,0.880141
4995,1645494553.17285,1645494553.185502,81.0,0.0,4241.538574,5980.512695,4237.94873,4307.692383,4101.025879,450.0,4.0,77.0,,,,0.0,2.0,2.0,4.0,0.0,4.0,33.333332,,,,,,,,,,,,,,,,,,,,,,,,,,,,,,,,,,,,,,,,,,,,,,,,,,,,,,,,,,,,,,,,,,,,,,,,,,,,,,,,,,,,
4996,1645494553.180665,1645494553.193217,82.0,0.0,4141.025879,5908.717772999999,4253.846191,4305.128418,4084.615479,450.0,4.0,77.0,,,,0.0,2.0,2.0,4.0,0.0,4.0,33.333332,,,,,,,,41.0,0.0,0.493651,-0.223633,0.6210939999999999,0.5661619999999999,0.882338,-0.489754,-0.141604,-0.032906,-0.039779,-0.034824,,,,,,,,,,,,,,,,,,,,,,,,,,,,,,,,,,,,,,,,,,,,,,,,,,,,,,,,,,,,,,,,,
4997,1645494553.1884801,1645494553.201031,83.0,0.0,4056.923096,5828.717772999999,4252.307617,4301.538574,4071.281982,16279.0,4.0,77.0,,,,0.0,2.0,2.0,4.0,0.0,4.0,33.333332,,,,,,,,,,,,,,,,,,,,,,,,,,,,,,,,,,,,,,,,,,,,,,,,,,,,,,,,,,,,,,,,,,,,,,,,,,,,,,,,,,,,
4998,1645494553.196295,1645494553.208846,84.0,0.0,3995.897461,5751.282227000001,4256.410156,4301.538574,4070.256348,450.0,4.0,77.0,,,,0.0,2.0,2.0,4.0,0.0,4.0,33.333332,,,,,,,,42.0,0.0,0.493651,-0.223633,0.6210939999999999,0.5661619999999999,0.871107,-0.47901099999999996,-0.13135,-0.032985,-0.039805,-0.03017,,,,,,,,,,,,,,,,,,,,,,,,,,,,,,,,,,,0.0,0.0,64.0,0.202264,1.0,0.0,,,,,,,,,,,,,,,,,,,,,,,,,
4999,1645494553.20411,1645494553.216661,85.0,0.0,3939.487061,5721.538574,4275.384765999999,4303.589844,4065.641113,450.0,4.0,77.0,,,,0.0,2.0,2.0,4.0,0.0,4.0,33.333332,,,,,,,,,,,,,,,,,,,,,,,,,,,,,,,,,,,,,,,,,,,,,,,,,,,,,,,,,,,,,,,,,,,,,,,,,,,,,,,,,,,,
5000,1645494553.211925,1645494553.224475,86.0,0.0,3874.8718259999996,5691.794922,4284.615234000001,4301.025879,4062.0512700000004,450.0,4.0,77.0,,,,0.0,2.0,2.0,4.0,0.0,4.0,33.333332,,,,,,,,43.0,0.0,0.49384700000000004,-0.223877,0.62085,0.5661619999999999,0.8750129999999999,-0.481941,-0.12695499999999998,-0.032909,-0.039731,-0.032231,,,,,,,,,,,,,,,,,,,,,,,,,,,,,,,,,,,,,,,,,,,,,,,,,,,,,,,,,,,,,,,,,
5001,1645494553.2197402,1645494553.23229,87.0,0.0,3810.256348,5604.102539,4274.871582,4297.94873,4070.256348,16279.0,4.0,77.0,,,,0.0,2.0,2.0,4.0,0.0,4.0,33.333332,,,,,,,,,,,,,,,,,,,,,,,,,,,,,,,,,,,,,,,,,,,,,,,,,,,,,,,,,,,,,,,,,,,,,,,,,,,,,,,,,,,,
5002,1645494553.227555,1645494553.240104,88.0,0.0,3762.0512700000004,5517.436035,4282.563965,4297.436035,4061.025635,450.0,4.0,77.0,,,,0.0,2.0,2.0,4.0,0.0,4.0,33.333332,,,,,,,,44.0,0.0,0.49343000000000004,-0.22412100000000001,0.6210939999999999,0.5661619999999999,0.867201,-0.48340600000000006,-0.14648699999999998,-0.032876999999999997,-0.039701,-0.035756,,,,,,,,,,,,,,,,,,,,,,,,,,,,,,,,,,,0.0,0.0,64.0,0.202264,1.0,0.0,,,,,,,,,,,,,,,,,,,,,,,,,
5003,1645494553.23537,1645494553.2479188,89.0,0.0,3712.3076170000004,5453.846191,4296.410156,4297.436035,4036.4101560000004,450.0,4.0,77.0,,,,0.0,2.0,2.0,4.0,0.0,4.0,33.333332,,,,,,,,,,,,,,,,,,,,,,,,,,,,,,,,,,,,,,,,,,,,,,,,,,,,,,,,,,,,,,,,,,,,,,,,,,,,,,,,,,,,
5004,1645494553.243185,1645494553.255734,90.0,0.0,3652.3076170000004,5390.769043,4288.717772999999,4295.897461,4038.461426,450.0,4.0,77.0,,,,0.0,2.0,2.0,4.0,0.0,4.0,33.333332,,,,,,,,45.0,0.0,0.49343000000000004,-0.22412100000000001,0.6210939999999999,0.5661619999999999,0.873549,-0.488777,-0.12451400000000001,-0.033007999999999996,-0.039638,-0.030958999999999997,,,,,,,,,,,,,,,,,,,,,,,,,,,,,,,,,,,,,,,,,,,,,,,,,,,,,,,,,,,,,,,,,
5005,1645494553.251,1645494553.2635481,91.0,0.0,3612.820557,5351.282227000001,4272.820313,4294.871582,4041.538574,16279.0,4.0,77.0,,,,0.0,2.0,2.0,4.0,0.0,4.0,33.333332,,,,,,,,,,,,,,,,,,,,,,,,,,,,,,,,,,,,,,,,,,,,,,,,,,,,,,,,,,,,,,,,,,,,,,,,,,,,,,,,,,,,
5006,1645494553.258815,1645494553.2712631,92.0,0.0,3594.358887,5319.487305,4287.179688,4291.794922,4030.256348,450.0,4.0,77.0,,,,0.0,2.0,2.0,4.0,0.0,4.0,33.333332,,,,,,,,46.0,0.0,0.49331899999999995,-0.224365,0.6210939999999999,0.5661619999999999,0.8759899999999999,-0.474617,-0.13916199999999998,-0.032978,-0.039483,-0.026739999999999996,,,,,,,,,,,,,,,,,,,,,,,,,,,,,,,,,,,0.0,0.0,64.0,0.202264,1.0,0.0,,,,,,,,,,,,,,,,,,,,,,,,,
5007,1645494553.2666302,1645494553.279078,93.0,0.0,3561.025635,5262.563965,4294.358886999999,4287.179688,4042.5642090000006,450.0,4.0,77.0,,,,0.0,2.0,2.0,4.0,0.0,4.0,33.333332,,,,,,,,,,,,,,,,,,,,,,,,,,,,,,,,,,,,,,,,,,,,,,,,,,,,,,,,,,,,,,,,,,,,,,,,,,,,,,,,,,,,
5008,1645494553.2744448,1645494553.286892,94.0,0.0,3513.3332520000004,5215.384765999999,4284.102539,4286.666504,4057.4357909999994,450.0,4.0,77.0,,,,0.0,2.0,2.0,4.0,0.0,4.0,33.333332,,,,,,,,47.0,0.0,0.49331899999999995,-0.224365,0.6210939999999999,0.5661619999999999,0.878431,-0.49121800000000004,-0.122072,-0.032902999999999995,-0.039587,-0.029291,,,,,,,,,,,,,,,,,,,,,,,,,,,,,,,,,,,,,,,,,,,,,,,,,,,,,,,,,,,,,,,,,
5009,1645494553.28226,1645494553.294707,95.0,0.0,3476.4101560000004,5197.436035,4284.615234000001,4288.717772999999,4051.281982,16279.0,4.0,77.0,,,,0.0,2.0,2.0,4.0,0.0,4.0,33.333332,,,,,,,,,,,,,,,,,,,,,,,,,,,,,,,,,,,,,,,,,,,,,,,,,,,,,,,,,,,,,,,,,,,,,,,,,,,,,,,,,,,,
5010,1645494553.290075,1645494553.3025222,96.0,0.0,3442.0512700000004,5180.512695,4295.384765999999,4288.717772999999,4044.102539,450.0,4.0,77.0,,,,0.0,2.0,2.0,4.0,0.0,4.0,33.333332,,,,,,,,48.0,0.0,0.49331899999999995,-0.224365,0.6210939999999999,0.5661619999999999,0.8750129999999999,-0.481941,-0.12695499999999998,-0.032836000000000004,-0.039535,-0.031439999999999996,1.0,0.0,0.0,,,,,,,,,,,,,,,,,,,,,,,,,,,,,,,,0.0,0.0,32.0,0.272864,1.0,0.0,604.868042,146.031174,64.557632,11.750364,3.31112,792.069336,219.31478900000002,70.741173,19.62471,5.054636,1.002693,0.433359,0.28383400000000003,0.45254700000000003,0.42315,2.104654,0.216937,0.038419,0.010613,0.006904,55.424801,5.307654,1.5325229999999999,1.037526,1.250752
5011,1645494553.29789,1645494553.3103359,97.0,0.0,3402.5642090000006,5152.307617,4284.615234000001,4285.128418,4043.5898439999996,450.0,4.0,77.0,,,,0.0,2.0,2.0,4.0,0.0,4.0,33.333332,,,,,,,,,,,,,,,,,,,,,,,,,,,,,,,,,,,,,,,,,,,,,,,,,,,,,,,,,,,,,,,,,,,,,,,,,,,,,,,,,,,,
5012,1645494553.3057039,1645494553.318151,98.0,0.0,3375.897461,5103.589844,4275.897461,4282.05127,4047.179443,450.0,4.0,77.0,,,,0.0,2.0,2.0,4.0,0.0,4.0,33.333332,,,,,,,,49.0,0.0,0.49331899999999995,-0.224365,0.6210939999999999,0.5661619999999999,0.8691540000000001,-0.47559300000000004,-0.125978,-0.033068,-0.039439,-0.033423,,,,,,,,,,,,,,,,,,,,,,,,,,,,,,,,,,,,,,,,,,,,,,,,,,,,,,,,,,,,,,,,,
5013,1645494553.31352,1645494553.3259661,99.0,0.0,3360.0,5036.410156,4291.794922,4282.05127,4058.461426,16279.0,4.0,77.0,,,,0.0,2.0,2.0,4.0,0.0,4.0,33.333332,,,,,,,,,,,,,,,,,,,,,,,,,,,,,,,,,,,,,,,,,,,,,,,,,,,,,,,,,,,,,,,,,,,,,,,,,,,,,,,,,,,,
5014,1645494553.321334,1645494553.333681,100.0,0.0,3328.205078,5008.205078,4305.128418,4283.077147999999,4055.384521,450.0,4.0,77.0,,,,0.0,2.0,2.0,4.0,0.0,4.0,33.333332,,,,,,,,50.0,0.0,0.49331899999999995,-0.224365,0.6210939999999999,0.5661619999999999,0.8813610000000001,-0.477058,-0.128908,-0.032935,-0.039548,-0.035158999999999996,,,,,,,,,,,,,,,,,,,,,,,,,,,,,,,,,,,0.0,0.0,32.0,0.272864,1.0,0.0,,,,,,,,,,,,,,,,,,,,,,,,,
5015,1645494553.329149,1645494553.341496,101.0,0.0,3293.333252,4996.410156,4293.846191,4283.589844,4043.5898439999996,450.0,4.0,77.0,,,,0.0,2.0,2.0,4.0,0.0,4.0,33.333332,,,,,,,,,,,,,,,,,,,,,,,,,,,,,,,,,,,,,,,,,,,,,,,,,,,,,,,,,,,,,,,,,,,,,,,,,,,,,,,,,,,,
5016,1645494553.3369641,1645494553.34931,102.0,0.0,3284.615479,4955.384765999999,4281.538574,4282.563965,4058.461426,450.0,4.0,77.0,,,,0.0,2.0,2.0,4.0,0.0,4.0,33.333332,,,,,,,,51.0,0.0,0.49303800000000003,-0.224365,0.6210939999999999,0.5664060000000001,0.871107,-0.478523,-0.141604,-0.032962,-0.039597,-0.036819,,,,,,,,,,,,,,,,,,,,,,,,,,,,,,,,,,,,,,,,,,,,,,,,,,,,,,,,,,,,,,,,,
5017,1645494553.344779,1645494553.357125,103.0,0.0,3281.025635,4927.179688,4286.666504,4281.025879,4068.718018,16279.0,4.0,77.0,,,,0.0,2.0,2.0,4.0,0.0,4.0,33.333332,,,,,,,,,,,,,,,,,,,,,,,,,,,,,,,,,,,,,,,,,,,,,,,,,,,,,,,,,,,,,,,,,,,,,,,,,,,,,,,,,,,,
5018,1645494553.352594,1645494553.36494,104.0,0.0,3253.846191,4914.871582,4293.846191,4281.538574,4053.3332520000004,450.0,4.0,77.0,,,,0.0,2.0,2.0,4.0,0.0,4.0,33.333332,,,,,,,,52.0,0.0,0.493149,-0.22412100000000001,0.6210939999999999,0.5664060000000001,0.8608530000000001,-0.500008,-0.132326,-0.033083999999999995,-0.039543,-0.031965,,,,,,,,,,,,,,,,,,,,,,,,,,,,,,,,,,,0.0,0.0,32.0,0.272864,1.0,0.0,,,,,,,,,,,,,,,,,,,,,,,,,
5019,1645494553.360409,1645494553.372755,105.0,0.0,3236.410156,4882.563965,4304.102539,4282.563965,4049.743652,450.0,4.0,77.0,,,,0.0,2.0,2.0,4.0,0.0,4.0,33.333332,,,,,,,,,,,,,,,,,,,,,,,,,,,,,,,,,,,,,,,,,,,,,,,,,,,,,,,,,,,,,,,,,,,,,,,,,,,,,,,,,,,,
5020,1645494553.368224,1645494553.38057,106.0,0.0,3235.897461,4839.487305,4300.512695,4282.05127,4053.3332520000004,450.0,4.0,77.0,,,,0.0,2.0,2.0,4.0,0.0,4.0,33.333332,,,,,,,,53.0,0.0,0.49286899999999995,-0.22412100000000001,0.6210939999999999,0.56665,0.867201,-0.479988,-0.129885,-0.033144,-0.039593,-0.027548000000000003,,,,,,,,,,,,,,,,,,,,,,,,,,,,,,,,,,,,,,,,,,,,,,,,,,,,,,,,,,,,,,,,,
5021,1645494553.376039,1645494553.388385,107.0,0.0,3215.384521,4809.230957,4293.846191,4282.05127,4047.179443,16279.0,4.0,77.0,,,,0.0,2.0,2.0,4.0,0.0,4.0,33.333332,,,,,,,,,,,,,,,,,,,,,,,,,,,,,,,,,,,,,,,,,,,,,,,,,,,,,,,,,,,,,,,,,,,,,,,,,,,,,,,,,,,,
5022,1645494553.383854,1645494553.3962,108.0,0.0,3195.897461,4802.563965,4283.589844,4282.563965,4051.281982,450.0,4.0,77.0,,,,0.0,2.0,2.0,4.0,0.0,4.0,33.333332,,,,,,,,54.0,0.0,0.49298000000000003,-0.223877,0.6210939999999999,0.56665,0.864759,-0.489754,-0.14111500000000002,-0.033248,-0.039638,-0.029823000000000002,,,,,,,,,,,,,,,,,,,,,,,,,,,,,,,,,,,0.0,0.0,32.0,0.272864,1.0,0.0,,,,,,,,,,,,,,,,,,,,,,,,,
5023,1645494553.391669,1645494553.403915,109.0,0.0,3187.6923829999996,4773.333496,4272.820313,4281.025879,4074.8718259999996,450.0,4.0,77.0,,,,0.0,2.0,2.0,4.0,0.0,4.0,33.333332,,,,,,,,,,,,,,,,,,,,,,,,,,,,,,,,,,,,,,,,,,,,,,,,,,,,,,,,,,,,,,,,,,,,,,,,,,,,,,,,,,,,
5024,1645494553.399484,1645494553.41173,110.0,0.0,3183.589844,4710.769043,4279.487305,4280.512695,4078.461426,450.0,4.0,77.0,,,,0.0,2.0,2.0,4.0,0.0,4.0,33.333332,,,,,,,,55.0,0.0,0.49298000000000003,-0.223877,0.6210939999999999,0.56665,0.876967,-0.49366000000000004,-0.134279,-0.033292,-0.039629000000000004,-0.025668,,,,,,,,,,,,,,,,,,,,,,,,,,,,,,,,,,,,,,,,,,,,,,,,,,,,,,,,,,,,,,,,,
5025,1645494553.407299,1645494553.419545,111.0,0.0,3196.923096,4697.94873,4300.0,4280.512695,4066.6667479999996,16279.0,4.0,77.0,,,,0.0,2.0,2.0,4.0,0.0,4.0,33.333332,,,,,,,,,,,,,,,,,,,,,,,,,,,,,,,,,,,,,,,,,,,,,,,,,,,,,,,,,,,,,,,,,,,,,,,,,,,,,,,,,,,,
5026,1645494553.4151142,1645494553.4273589,112.0,0.0,3199.487061,4727.179688,4286.153809,4280.512695,4084.102539,450.0,4.0,77.0,,,,0.0,2.0,2.0,4.0,0.0,4.0,33.333332,,,,,,,,56.0,0.0,0.493091,-0.223633,0.6210939999999999,0.56665,0.874525,-0.49170699999999995,-0.135744,-0.033186,-0.03967,-0.028229,1.0,0.0,0.0,,,,,,,,,,,,,,,,,,,,,,,,,,,,,,,,0.0,0.0,32.0,0.352996,1.0,0.0,1433.948486,367.248169,168.949875,28.478075,7.280024000000001,2341.69751,634.915833,198.478897,51.698784,8.274206,2.063001,0.521097,0.293188,0.43274300000000004,0.5306270000000001,6.213947,0.614294,0.096085,0.026638,0.010877,170.15020800000002,13.479865,2.536829,1.122343,2.0476520000000002
5027,1645494553.4229288,1645494553.435174,113.0,0.0,3172.820557,4703.589844,4273.846191,4280.512695,4093.8461909999996,450.0,4.0,77.0,,,,0.0,2.0,2.0,4.0,0.0,4.0,33.333332,,,,,,,,,,,,,,,,,,,,,,,,,,,,,,,,,,,,,,,,,,,,,,,,,,,,,,,,,,,,,,,,,,,,,,,,,,,,,,,,,,,,
5028,1645494553.430744,1645494553.442989,114.0,0.0,3165.128174,4643.077147999999,4281.538574,4280.0,4083.5898439999996,450.0,4.0,77.0,,,,0.0,2.0,2.0,4.0,0.0,4.0,33.333332,,,,,,,,57.0,0.0,0.493091,-0.223633,0.6210939999999999,0.56665,0.8691540000000001,-0.503426,-0.142092,-0.033188,-0.039658,-0.024234000000000002,,,,,,,,,,,,,,,,,,,,,,,,,,,,,,,,,,,,,,,,,,,,,,,,,,,,,,,,,,,,,,,,,
5029,1645494553.438559,1645494553.450804,115.0,0.0,3170.256348,4621.025879,4267.692383,4279.487305,4095.897461,16279.0,4.0,77.0,,,,0.0,2.0,2.0,4.0,0.0,4.0,33.333332,,,,,,,,,,,,,,,,,,,,,,,,,,,,,,,,,,,,,,,,,,,,,,,,,,,,,,,,,,,,,,,,,,,,,,,,,,,,,,,,,,,,
5030,1645494553.446374,1645494553.4586189,116.0,0.0,3158.974365,4645.128418,4276.410156,4280.0,4107.179688,450.0,4.0,77.0,,,,0.0,2.0,2.0,4.0,0.0,4.0,33.333332,,,,,,,,58.0,0.0,0.493091,-0.223633,0.6210939999999999,0.56665,0.890639,-0.4878,-0.124025,-0.033092,-0.039599,-0.020638999999999998,,,,,,,,,,,,,,,,,,,,,,,,,,,,,,,,,,,0.0,0.0,32.0,0.352996,1.0,0.0,,,,,,,,,,,,,,,,,,,,,,,,,
5031,1645494553.454189,1645494553.466434,117.0,0.0,3164.102539,4651.282227000001,4298.461426,4278.461426,4097.94873,450.0,4.0,77.0,,,,0.0,2.0,2.0,4.0,0.0,4.0,33.333332,,,,,,,,,,,,,,,,,,,,,,,,,,,,,,,,,,,,,,,,,,,,,,,,,,,,,,,,,,,,,,,,,,,,,,,,,,,,,,,,,,,,
5032,1645494553.462004,1645494553.4742491,118.0,0.0,3161.5385739999997,4601.538574,4276.410156,4280.0,4100.512695,450.0,4.0,77.0,,,,0.0,2.0,2.0,4.0,0.0,4.0,33.333332,,,,,,,,59.0,0.0,0.493091,-0.223633,0.6210939999999999,0.56665,0.8740370000000001,-0.497566,-0.127932,-0.032956,-0.039495999999999996,-0.023653,,,,,,,,,,,,,,,,,,,,,,,,,,,,,,,,,,,,,,,,,,,,,,,,,,,,,,,,,,,,,,,,,
5033,1645494553.4698188,1645494553.481964,119.0,0.0,3138.974365,4553.333496,4267.179688,4281.025879,4108.205078,16279.0,4.0,77.0,,,,0.0,2.0,2.0,4.0,0.0,4.0,33.333332,,,,,,,,,,,,,,,,,,,,,,,,,,,,,,,,,,,,,,,,,,,,,,,,,,,,,,,,,,,,,,,,,,,,,,,,,,,,,,,,,,,,
5034,1645494553.477634,1645494553.489779,120.0,0.0,3150.769287,4546.666504,4290.769043,4271.794922,4112.307617,450.0,4.0,77.0,,,,0.0,2.0,2.0,4.0,0.0,4.0,33.333332,,,,,,,,60.0,0.0,0.49298000000000003,-0.223877,0.6210939999999999,0.56665,0.8759899999999999,-0.48828900000000003,-0.144045,-0.032882999999999996,-0.039501999999999995,-0.026219,,,,,,,,,,,,,,,,,,,,,,,,,,,,,,,,,,,0.0,0.0,32.0,0.352996,1.0,0.0,,,,,,,,,,,,,,,,,,,,,,,,,
5035,1645494553.485449,1645494553.497593,121.0,0.0,3149.230713,4521.025879,4277.436035,4270.769043,4121.025879,450.0,4.0,77.0,,,,0.0,2.0,2.0,4.0,0.0,4.0,33.333332,,,,,,,,,,,,,,,,,,,,,,,,,,,,,,,,,,,,,,,,,,,,,,,,,,,,,,,,,,,,,,,,,,,,,,,,,,,,,,,,,,,,
5036,1645494553.493264,1645494553.505408,122.0,0.0,3123.076904,4501.025879,4280.0,4281.538574,4118.461426,450.0,4.0,77.0,,,,0.0,2.0,2.0,4.0,0.0,4.0,33.333332,,,,,,,,61.0,0.0,0.492672,-0.223877,0.6213380000000001,0.56665,0.873549,-0.496101,-0.134279,-0.032915,-0.039458,-0.022522999999999998,,,,,,,,,,,,,,,,,,,,,,,,,,,,,,,,,,,,,,,,,,,,,,,,,,,,,,,,,,,,,,,,,
5037,1645494553.5010788,1645494553.513223,123.0,0.0,3154.871826,4522.05127,4301.025879,4277.94873,4107.179688,16279.0,4.0,77.0,,,,0.0,2.0,2.0,4.0,0.0,4.0,33.333332,,,,,,,,,,,,,,,,,,,,,,,,,,,,,,,,,,,,,,,,,,,,,,,,,,,,,,,,,,,,,,,,,,,,,,,,,,,,,,,,,,,,
5038,1645494553.508894,1645494553.521038,124.0,0.0,3183.076904,4499.487305,4281.538574,4272.820313,4113.333496,450.0,4.0,77.0,,,,0.0,2.0,2.0,4.0,0.0,4.0,33.333332,,,,,,,,62.0,0.0,0.49256099999999997,-0.22412100000000001,0.6213380000000001,0.56665,0.879408,-0.495125,-0.142092,-0.032895,-0.03937,-0.0253,,,,,,,,,,,,,,,,,,,,,,,,,,,,,,,,,,,0.0,0.0,32.0,0.352996,1.0,0.0,,,,,,,,,,,,,,,,,,,,,,,,,
5039,1645494553.516708,1645494553.528853,125.0,0.0,3160.0,4458.461426,4274.871582,4278.461426,4123.077147999999,450.0,4.0,77.0,,,,0.0,2.0,2.0,4.0,0.0,4.0,33.333332,,,,,,,,,,,,,,,,,,,,,,,,,,,,,,,,,,,,,,,,,,,,,,,,,,,,,,,,,,,,,,,,,,,,,,,,,,,,,,,,,,,,
5040,1645494553.524523,1645494553.536668,126.0,0.0,3172.3076170000004,4454.358886999999,4303.589844,4274.358886999999,4135.384765999999,450.0,4.0,77.0,,,,0.0,2.0,2.0,4.0,0.0,4.0,33.333332,,,,,,,,63.0,0.0,0.49303800000000003,-0.224365,0.6210939999999999,0.5664060000000001,0.8759899999999999,-0.486824,-0.137697,-0.032926,-0.039339,-0.0278,,,,,,,,,,,,,,,,,,,,,,,,,,,,,,,,,,,,,,,,,,,,,,,,,,,,,,,,,,,,,,,,,
5041,1645494553.532339,1645494553.544483,127.0,0.0,3193.846191,4413.846191,4274.358886999999,4266.666504,4159.487305,239.0,4.0,77.0,,,,0.0,2.0,2.0,4.0,0.0,4.0,33.333332,,,,,,,,,,,,,,,,,,,,,,,,,,,,,,,,,,,,,,,,,,,,,,,,,,,,,,,,,,,,,,,,,,,,,,,,,,,,,,,,,,,,
5042,1645494553.540153,1645494553.552198,0.0,0.0,3167.179443,4358.461426,4260.0,4271.794922,4161.538574,450.0,4.0,77.0,,,,0.0,4.0,4.0,4.0,0.0,4.0,66.666664,1.0,0.0,0.0,0.0,4.0,0.0,1.0,0.0,0.0,0.49292700000000006,-0.224609,0.6210939999999999,0.5664060000000001,0.863294,-0.48828900000000003,-0.136233,-0.032905000000000004,-0.039311,-0.030147000000000004,1.0,0.0,0.0,,,,,,,,,,,,,,,,,,,,,,,,,,,,,,,,0.0,0.0,32.0,0.29404,1.0,0.0,2624.595703,699.9855349999999,329.158539,52.96991,12.973445,4768.438965,1307.125977,406.20507799999996,102.64632399999999,13.229366,3.6930400000000003,0.611943,0.35189699999999996,0.454196,0.699362,13.034403999999999,1.264537,0.18423499999999998,0.052461,0.016668000000000002,383.38268999999997,27.643009000000003,4.036164,1.4466809999999999,3.228685
5043,1645494553.547968,1645494553.560013,1.0,0.0,3171.281982,4370.769043,4297.94873,4273.846191,4150.769043,450.0,4.0,77.0,,,,0.0,4.0,4.0,4.0,0.0,4.0,66.666664,,,,,,,,,,,,,,,,,,,,,,,,,,,,,,,,,,,,,,,,,,,,,,,,,,,,,,,,,,,,,,,,,,,,,,,,,,,,,,,,,,,,
5044,1645494553.555783,1645494553.567828,2.0,0.0,3198.974365,4363.589844,4278.974121,4270.769043,4178.974121,16179.0,4.0,77.0,,,,0.0,4.0,4.0,4.0,0.0,4.0,66.666664,,,,,,,,1.0,0.0,0.49292700000000006,-0.224609,0.6210939999999999,0.5664060000000001,0.871107,-0.48389399999999994,-0.134279,-0.032935,-0.039383999999999995,-0.025960000000000004,,,,,,,,,,,,,,,,,,,,,,,,,,,,,,,,,,,,,,,,,,,,,,,,,,,,,,,,,,,,,,,,,
5045,1645494553.5635982,1645494553.575642,3.0,0.0,3187.6923829999996,4303.589844,4252.820313,4274.358886999999,4197.436035,450.0,4.0,77.0,,,,0.0,4.0,4.0,4.0,0.0,4.0,66.666664,,,,,,,,,,,,,,,,,,,,,,,,,,,,,,,,,,,,,,,,,,,,,,,,,,,,,,,,,,,,,,,,,,,,,,,,,,,,,,,,,,,,
5046,1645494553.571413,1645494553.583457,4.0,0.0,3184.615479,4296.410156,4287.179688,4275.897461,4157.436035,16128.0,4.0,77.0,,,,0.0,4.0,4.0,4.0,0.0,4.0,66.666664,,,,,,,,2.0,0.0,0.49303800000000003,-0.224365,0.6210939999999999,0.5664060000000001,0.8759899999999999,-0.486824,-0.137697,-0.032864,-0.03945,-0.028442000000000002,,,,,,,,,,,,,,,,,,,,,,,,,,,,,,,,,,,0.0,0.0,32.0,0.29404,1.0,0.0,,,,,,,,,,,,,,,,,,,,,,,,,
5047,1645494553.579228,1645494553.591272,5.0,0.0,3192.3076170000004,4284.615234000001,4281.538574,4274.358886999999,4141.025879,450.0,4.0,77.0,,,,0.0,4.0,4.0,4.0,0.0,4.0,66.666664,,,,,,,,,,,,,,,,,,,,,,,,,,,,,,,,,,,,,,,,,,,,,,,,,,,,,,,,,,,,,,,,,,,,,,,,,,,,,,,,,,,,
5048,1645494553.587043,1645494553.599087,6.0,0.0,3176.923096,4220.0,4242.05127,4274.871582,4176.922852000001,16074.0,4.0,77.0,,,,0.0,4.0,4.0,4.0,0.0,4.0,66.666664,,,,,,,,3.0,0.0,0.49292700000000006,-0.224609,0.6210939999999999,0.5664060000000001,0.871107,-0.48389399999999994,-0.134279,-0.032898000000000004,-0.039508999999999996,-0.024426,,,,,,,,,,,,,,,,,,,,,,,,,,,,,,,,,,,,,,,,,,,,,,,,,,,,,,,,,,,,,,,,,
5049,1645494553.594858,1645494553.606902,7.0,0.0,3185.128174,4224.615234000001,4271.282227000001,4274.871582,4173.846191,450.0,4.0,77.0,,,,0.0,4.0,4.0,4.0,0.0,4.0,66.666664,,,,,,,,,,,,,,,,,,,,,,,,,,,,,,,,,,,,,,,,,,,,,,,,,,,,,,,,,,,,,,,,,,,,,,,,,,,,,,,,,,,,
5050,1645494553.602673,1645494553.614717,8.0,0.0,3208.718018,4235.897461,4277.436035,4274.871582,4160.0,450.0,4.0,77.0,,,,0.0,4.0,4.0,4.0,0.0,4.0,66.666664,,,,,,,,4.0,0.0,0.49278900000000003,-0.224854,0.6213380000000001,0.5661619999999999,0.861341,-0.488777,-0.127932,-0.032929,-0.039464,-0.027208,,,,,,,,,,,,,,,,,,,,,,,,,,,,,,,,,,,0.0,0.0,32.0,0.29404,1.0,0.0,,,,,,,,,,,,,,,,,,,,,,,,,
5051,1645494553.6104882,1645494553.622432,9.0,0.0,3197.435791,4160.0,4241.538574,4274.871582,4175.384765999999,0.0,4.0,77.0,,,,0.0,4.0,4.0,4.0,0.0,4.0,66.666664,,,,,,,,,,,,,,,,,,,,,,,,,,,,,,,,,,,,,,,,,,,,,,,,,,,,,,,,,,,,,,,,,,,,,,,,,,,,,,,,,,,,
5052,1645494553.6183028,1645494553.630247,10.0,0.0,3192.3076170000004,4131.282227000001,4261.025879,4274.871582,4156.410156,450.0,4.0,77.0,,,,0.0,4.0,4.0,4.0,0.0,4.0,66.666664,,,,,,,,5.0,0.0,0.493069,-0.224854,0.6213380000000001,0.565918,0.8872209999999999,-0.49073,-0.13086099999999998,-0.032956,-0.039473,-0.029613999999999998,,,,,,,,,,,,,,,,,,,,,,,,,,,,,,,,,,,,,,,,,,,,,,,,,,,,,,,,,,,,,,,,,
5053,1645494553.626118,1645494553.638062,11.0,0.0,3215.897461,4147.179688,4285.128418,4274.871582,4147.179688,16237.0,4.0,77.0,,,,0.0,4.0,4.0,4.0,0.0,4.0,66.666664,,,,,,,,,,,,,,,,,,,,,,,,,,,,,,,,,,,,,,,,,,,,,,,,,,,,,,,,,,,,,,,,,,,,,,,,,,,,,,,,,,,,
5054,1645494553.633933,1645494553.645876,12.0,0.0,3222.05127,4093.8461909999996,4259.487305,4274.871582,4182.563965,450.0,4.0,77.0,,,,0.0,4.0,4.0,4.0,0.0,4.0,66.666664,,,,,,,,6.0,0.0,0.493069,-0.224854,0.6213380000000001,0.565918,0.8725719999999999,-0.475105,-0.143557,-0.032981,-0.039334,-0.025481,,,,,,,,,,,,,,,,,,,,,,,,,,,,,,,,,,,0.0,0.0,32.0,0.29404,1.0,0.0,,,,,,,,,,,,,,,,,,,,,,,,,
5055,1645494553.641748,1645494553.653691,13.0,0.0,3223.076904,4042.0512700000004,4260.0,4274.871582,4190.256348,450.0,4.0,77.0,,,,0.0,4.0,4.0,4.0,0.0,4.0,66.666664,,,,,,,,,,,,,,,,,,,,,,,,,,,,,,,,,,,,,,,,,,,,,,,,,,,,,,,,,,,,,,,,,,,,,,,,,,,,,,,,,,,,
5056,1645494553.649563,1645494553.661506,14.0,0.0,3242.05127,4040.0,4273.846191,4275.384765999999,4177.436035,450.0,4.0,77.0,,,,0.0,4.0,4.0,4.0,0.0,4.0,66.666664,,,,,,,,7.0,0.0,0.492958,-0.225098,0.6213380000000001,0.565918,0.876967,-0.474617,-0.132326,-0.032906,-0.039356,-0.028011,,,,,,,,,,,,,,,,,,,,,,,,,,,,,,,,,,,,,,,,,,,,,,,,,,,,,,,,,,,,,,,,,
5057,1645494553.657378,1645494553.669321,15.0,0.0,3246.666748,4045.641113,4267.179688,4274.871582,4182.563965,16237.0,4.0,77.0,,,,0.0,4.0,4.0,4.0,0.0,4.0,66.666664,,,,,,,,,,,,,,,,,,,,,,,,,,,,,,,,,,,,,,,,,,,,,,,,,,,,,,,,,,,,,,,,,,,,,,,,,,,,,,,,,,,,
5058,1645494553.665193,1645494553.677136,16.0,0.0,3237.435791,4056.4101560000004,4258.461426,4274.358886999999,4195.384765999999,0.0,4.0,77.0,,,,0.0,4.0,4.0,4.0,0.0,4.0,66.666664,,,,,,,,8.0,0.0,0.49293000000000003,-0.225098,0.621582,0.565674,0.8774549999999999,-0.472663,-0.12695499999999998,-0.032935,-0.039327,-0.024136,1.0,0.0,0.0,,,,,,,,,,,,,,,,,,,,,,,,,,,,,,,,0.0,0.0,32.0,0.143565,1.0,0.0,3932.0581049999996,1082.297974,514.727173,80.049408,19.10202,7697.361816,2111.653076,655.516113,162.926208,18.944078,5.890407,0.689937,0.469276,0.527551,0.9103959999999999,21.65159,2.0638349999999996,0.288373,0.084069,0.023877000000000002,672.3488769999999,46.042355,5.764125,1.987154,4.538653
5059,1645494553.673008,1645494553.684951,17.0,0.0,3244.615479,4044.102539,4257.94873,4275.897461,4214.871582,0.0,4.0,77.0,,,,0.0,4.0,4.0,4.0,0.0,4.0,66.666664,,,,,,,,,,,,,,,,,,,,,,,,,,,,,,,,,,,,,,,,,,,,,,,,,,,,,,,,,,,,,,,,,,,,,,,,,,,,,,,,,,,,
5060,1645494553.680823,1645494553.692666,18.0,0.0,3253.846191,4030.256348,4258.461426,4274.358886999999,4212.307617,0.0,4.0,77.0,,,,0.0,4.0,4.0,4.0,0.0,4.0,66.666664,,,,,,,,9.0,0.0,0.49265,-0.225098,0.621582,0.565918,0.876967,-0.475105,-0.12451400000000001,-0.03306,-0.0393,-0.026898000000000002,,,,,,,,,,,,,,,,,,,,,,,,,,,,,,,,,,,,,,,,,,,,,,,,,,,,,,,,,,,,,,,,,
5061,1645494553.688638,1645494553.700481,19.0,0.0,3250.256348,4070.7692869999996,4254.358886999999,4267.692383,4187.179688,0.0,4.0,77.0,,,,0.0,4.0,4.0,4.0,0.0,4.0,66.666664,,,,,,,,,,,,,,,,,,,,,,,,,,,,,,,,,,,,,,,,,,,,,,,,,,,,,,,,,,,,,,,,,,,,,,,,,,,,,,,,,,,,
5062,1645494553.6964529,1645494553.708296,20.0,0.0,3254.3588870000003,4086.1538090000004,4243.077147999999,4265.128418,4196.410156,0.0,4.0,77.0,,,,0.0,4.0,4.0,4.0,0.0,4.0,66.666664,,,,,,,,10.0,0.0,0.49265,-0.225098,0.621582,0.565918,0.8750129999999999,-0.48731199999999997,-0.114748,-0.033172,-0.039374,-0.029287,,,,,,,,,,,,,,,,,,,,,,,,,,,,,,,,,,,0.0,0.0,32.0,0.143565,1.0,0.0,,,,,,,,,,,,,,,,,,,,,,,,,
5063,1645494553.704268,1645494553.716111,21.0,0.0,3270.769287,4041.025635,4241.538574,4267.692383,4214.358886999999,0.0,4.0,77.0,,,,0.0,4.0,4.0,4.0,0.0,4.0,66.666664,,,,,,,,,,,,,,,,,,,,,,,,,,,,,,,,,,,,,,,,,,,,,,,,,,,,,,,,,,,,,,,,,,,,,,,,,,,,,,,,,,,,
5064,1645494553.712083,1645494553.723925,22.0,0.0,3271.281982,4021.025635,4253.333496,4267.692383,4208.717772999999,0.0,4.0,77.0,,,,0.0,4.0,4.0,4.0,0.0,4.0,66.666664,,,,,,,,11.0,0.0,0.49236899999999995,-0.225098,0.621582,0.5661619999999999,0.8642709999999999,-0.484871,-0.144533,-0.033322000000000004,-0.039392,-0.031436,,,,,,,,,,,,,,,,,,,,,,,,,,,,,,,,,,,,,,,,,,,,,,,,,,,,,,,,,,,,,,,,,
5065,1645494553.719898,1645494553.73174,23.0,0.0,3257.94873,4036.923096,4253.846191,4266.153809,4223.077147999999,0.0,4.0,77.0,,,,0.0,4.0,4.0,4.0,0.0,4.0,66.666664,,,,,,,,,,,,,,,,,,,,,,,,,,,,,,,,,,,,,,,,,,,,,,,,,,,,,,,,,,,,,,,,,,,,,,,,,,,,,,,,,,,,
5066,1645494553.727713,1645494553.7395551,24.0,0.0,3263.076904,4037.9487299999996,4255.384765999999,4267.179688,4230.256348,0.0,4.0,77.0,,,,0.0,4.0,4.0,4.0,0.0,4.0,66.666664,,,,,,,,12.0,0.0,0.49236899999999995,-0.225098,0.621582,0.5661619999999999,0.862318,-0.49121800000000004,-0.114748,-0.033407,-0.039359,-0.033468,,,,,,,,,,,,,,,,,,,,,,,,,,,,,,,,,,,0.0,0.0,32.0,0.143565,1.0,0.0,,,,,,,,,,,,,,,,,,,,,,,,,
5067,1645494553.735527,1645494553.74737,25.0,0.0,3272.3076170000004,4017.9487299999996,4262.05127,4266.666504,4198.461426,0.0,4.0,77.0,,,,0.0,4.0,4.0,4.0,0.0,4.0,66.666664,,,,,,,,,,,,,,,,,,,,,,,,,,,,,,,,,,,,,,,,,,,,,,,,,,,,,,,,,,,,,,,,,,,,,,,,,,,,,,,,,,,,
5068,1645494553.743342,1645494553.755185,26.0,0.0,3272.3076170000004,4003.5898439999996,4266.153809,4266.153809,4194.358886999999,0.0,4.0,77.0,,,,0.0,4.0,4.0,4.0,0.0,4.0,66.666664,,,,,,,,13.0,0.0,0.4922,-0.224854,0.621582,0.5664060000000001,0.8764780000000001,-0.49659,-0.138186,-0.033338,-0.039329,-0.035151,,,,,,,,,,,,,,,,,,,,,,,,,,,,,,,,,,,,,,,,,,,,,,,,,,,,,,,,,,,,,,,,,
5069,1645494553.751157,1645494553.7629,27.0,0.0,3272.3076170000004,3997.9487299999996,4244.102539,4266.666504,4203.589844,0.0,4.0,77.0,,,,0.0,4.0,4.0,4.0,0.0,4.0,66.666664,,,,,,,,,,,,,,,,,,,,,,,,,,,,,,,,,,,,,,,,,,,,,,,,,,,,,,,,,,,,,,,,,,,,,,,,,,,,,,,,,,,,
5070,1645494553.7589722,1645494553.770715,28.0,0.0,3275.897461,3977.4357909999994,4230.769043,4267.179688,4181.025879,0.0,4.0,77.0,,,,0.0,4.0,4.0,4.0,0.0,4.0,66.666664,,,,,,,,14.0,0.0,0.49248100000000006,-0.224854,0.621582,0.5661619999999999,0.864759,-0.482918,-0.125978,-0.033374,-0.039352,-0.036860000000000004,,,,,,,,,,,,,,,,,,,,,,,,,,,,,,,,,,,0.0,0.0,32.0,0.143565,1.0,0.0,,,,,,,,,,,,,,,,,,,,,,,,,
5071,1645494553.7667868,1645494553.7785301,29.0,0.0,3285.128174,3960.0,4243.077147999999,4267.692383,4177.94873,0.0,4.0,77.0,,,,0.0,4.0,4.0,4.0,0.0,4.0,66.666664,,,,,,,,,,,,,,,,,,,,,,,,,,,,,,,,,,,,,,,,,,,,,,,,,,,,,,,,,,,,,,,,,,,,,,,,,,,,,,,,,,,,
5072,1645494553.774602,1645494553.786345,30.0,0.0,3290.256348,3964.615479,4238.974121,4267.179688,4203.589844,0.0,4.0,77.0,,,,0.0,4.0,4.0,4.0,0.0,4.0,66.666664,,,,,,,,15.0,0.0,0.49236899999999995,-0.225098,0.621582,0.5661619999999999,0.87013,-0.496101,-0.13379100000000002,-0.033405000000000004,-0.039274,-0.038301,,,,,,,,,,,,,,,,,,,,,,,,,,,,,,,,,,,,,,,,,,,,,,,,,,,,,,,,,,,,,,,,,
5073,1645494553.782417,1645494553.794159,31.0,0.0,3304.102539,3960.512939,4222.05127,4267.179688,4203.589844,0.0,4.0,77.0,,,,0.0,4.0,4.0,4.0,0.0,4.0,66.666664,,,,,,,,,,,,,,,,,,,,,,,,,,,,,,,,,,,,,,,,,,,,,,,,,,,,,,,,,,,,,,,,,,,,,,,,,,,,,,,,,,,,
5074,1645494553.790232,1645494553.801974,32.0,0.0,3329.743652,3935.384521,4236.922852000001,4267.179688,4186.666504,0.0,4.0,77.0,,,,0.0,4.0,4.0,4.0,0.0,4.0,66.666664,,,,,,,,16.0,0.0,0.49236899999999995,-0.225098,0.621582,0.5661619999999999,0.8574350000000001,-0.49073,-0.13135,-0.033336000000000005,-0.039252999999999996,-0.033397,1.0,0.0,0.0,,,,,,,,,,,,,,,,,,,,,,,,,,,,,,,,0.0,0.0,64.0,0.2783,1.0,0.0,5044.481934,1408.994385,673.063965,101.78649899999999,23.810947,10236.319336,2819.9921879999997,875.390076,215.195023,23.768703,7.912596000000001,0.7421770000000001,0.632637,0.649429,1.131549,29.832765999999996,2.7974759999999996,0.381188,0.113658,0.031682,979.54541,64.14924599999999,7.2953779999999995,2.600402,5.589224
5075,1645494553.798047,1645494553.8097892,33.0,0.0,3326.666748,3913.3332520000004,4236.410156,4267.179688,4186.153809,0.0,4.0,77.0,,,,0.0,4.0,4.0,4.0,0.0,4.0,66.666664,,,,,,,,,,,,,,,,,,,,,,,,,,,,,,,,,,,,,,,,,,,,,,,,,,,,,,,,,,,,,,,,,,,,,,,,,,,,,,,,,,,,
5076,1645494553.805862,1645494553.8176038,34.0,0.0,3310.769287,3920.0,4212.820313,4267.179688,4189.743652,0.0,4.0,77.0,,,,0.0,4.0,4.0,4.0,0.0,4.0,66.666664,,,,,,,,17.0,0.0,0.49265,-0.225098,0.621582,0.565918,0.877943,-0.48340600000000006,-0.129885,-0.033225,-0.039087000000000004,-0.035136,,,,,,,,,,,,,,,,,,,,,,,,,,,,,,,,,,,,,,,,,,,,,,,,,,,,,,,,,,,,,,,,,
5077,1645494553.8136768,1645494553.825419,35.0,0.0,3321.025635,3929.743652,4216.922852000001,4267.179688,4203.077147999999,0.0,4.0,77.0,,,,0.0,4.0,4.0,4.0,0.0,4.0,66.666664,,,,,,,,,,,,,,,,,,,,,,,,,,,,,,,,,,,,,,,,,,,,,,,,,,,,,,,,,,,,,,,,,,,,,,,,,,,,,,,,,,,,
5078,1645494553.821492,1645494553.833134,36.0,0.0,3319.487061,3900.512939,4233.846191,4267.179688,4215.384765999999,0.0,4.0,77.0,,,,0.0,4.0,4.0,4.0,0.0,4.0,66.666664,,,,,,,,18.0,0.0,0.49253800000000003,-0.22534200000000001,0.621582,0.565918,0.872084,-0.479988,-0.127443,-0.033125999999999996,-0.039085,-0.030400999999999997,,,,,,,,,,,,,,,,,,,,,,,,,,,,,,,,,,,0.0,0.0,64.0,0.2783,1.0,0.0,,,,,,,,,,,,,,,,,,,,,,,,,
5079,1645494553.829307,1645494553.840949,37.0,0.0,3306.153809,3870.256348,4237.94873,4267.179688,4208.205078,0.0,4.0,77.0,,,,0.0,4.0,4.0,4.0,0.0,4.0,66.666664,,,,,,,,,,,,,,,,,,,,,,,,,,,,,,,,,,,,,,,,,,,,,,,,,,,,,,,,,,,,,,,,,,,,,,,,,,,,,,,,,,,,
5080,1645494553.837122,1645494553.8487642,38.0,0.0,3321.5385739999997,3872.820557,4225.128418,4267.179688,4198.974121,0.0,4.0,77.0,,,,0.0,4.0,4.0,4.0,0.0,4.0,66.666664,,,,,,,,19.0,0.0,0.49281800000000003,-0.22534200000000001,0.621582,0.565674,0.8740370000000001,-0.488777,-0.136233,-0.033181999999999996,-0.039229,-0.032391,,,,,,,,,,,,,,,,,,,,,,,,,,,,,,,,,,,,,,,,,,,,,,,,,,,,,,,,,,,,,,,,,
5081,1645494553.8449368,1645494553.8565788,39.0,0.0,3334.871826,3876.4101560000004,4215.384765999999,4267.179688,4194.358886999999,0.0,4.0,77.0,,,,0.0,4.0,4.0,4.0,0.0,4.0,66.666664,,,,,,,,,,,,,,,,,,,,,,,,,,,,,,,,,,,,,,,,,,,,,,,,,,,,,,,,,,,,,,,,,,,,,,,,,,,,,,,,,,,,
5082,1645494553.852752,1645494553.864394,40.0,0.0,3330.769287,3862.5642090000006,4216.410156,4267.179688,4203.077147999999,0.0,4.0,77.0,,,,0.0,4.0,4.0,4.0,0.0,4.0,66.666664,,,,,,,,20.0,0.0,0.49281800000000003,-0.22534200000000001,0.621582,0.565674,0.8838030000000001,-0.490242,-0.139651,-0.033136,-0.039262,-0.028027999999999997,,,,,,,,,,,,,,,,,,,,,,,,,,,,,,,,,,,0.0,0.0,64.0,0.2783,1.0,0.0,,,,,,,,,,,,,,,,,,,,,,,,,
5083,1645494553.860567,1645494553.872208,41.0,0.0,3339.487061,3860.0,4217.436035,4267.179688,4218.461426,0.0,4.0,77.0,,,,0.0,4.0,4.0,4.0,0.0,4.0,66.666664,,,,,,,,,,,,,,,,,,,,,,,,,,,,,,,,,,,,,,,,,,,,,,,,,,,,,,,,,,,,,,,,,,,,,,,,,,,,,,,,,,,,
5084,1645494553.868382,1645494553.880023,42.0,0.0,3344.102539,3866.6667479999996,4211.282227000001,4267.179688,4206.666504,0.0,4.0,77.0,,,,0.0,4.0,4.0,4.0,0.0,4.0,66.666664,,,,,,,,21.0,0.0,0.49281800000000003,-0.22534200000000001,0.621582,0.565674,0.870619,-0.482918,-0.123537,-0.03324,-0.039242,-0.024054,,,,,,,,,,,,,,,,,,,,,,,,,,,,,,,,,,,,,,,,,,,,,,,,,,,,,,,,,,,,,,,,,
5085,1645494553.876197,1645494553.8878381,43.0,0.0,3351.281982,3871.794922,4225.128418,4267.179688,4204.102539,0.0,4.0,77.0,,,,0.0,4.0,4.0,4.0,0.0,4.0,66.666664,,,,,,,,,,,,,,,,,,,,,,,,,,,,,,,,,,,,,,,,,,,,,,,,,,,,,,,,,,,,,,,,,,,,,,,,,,,,,,,,,,,,
5086,1645494553.884012,1645494553.895653,44.0,0.0,3367.179443,3861.538574,4225.128418,4267.179688,4229.743652,0.0,4.0,77.0,,,,0.0,4.0,4.0,4.0,0.0,4.0,66.666664,,,,,,,,22.0,0.0,0.49293000000000003,-0.225098,0.621582,0.565674,0.875502,-0.479988,-0.130373,-0.033139,-0.039320999999999995,-0.026824,,,,,,,,,,,,,,,,,,,,,,,,,,,,,,,,,,,0.0,0.0,64.0,0.2783,1.0,0.0,,,,,,,,,,,,,,,,,,,,,,,,,
5087,1645494553.8918269,1645494553.903468,45.0,0.0,3369.2307130000004,3827.179443,4214.871582,4267.179688,4223.077147999999,0.0,4.0,77.0,,,,0.0,4.0,4.0,4.0,0.0,4.0,66.666664,,,,,,,,,,,,,,,,,,,,,,,,,,,,,,,,,,,,,,,,,,,,,,,,,,,,,,,,,,,,,,,,,,,,,,,,,,,,,,,,,,,,
5088,1645494553.899642,1645494553.911183,46.0,0.0,3374.8718259999996,3785.641113,4218.974121,4267.692383,4200.512695,0.0,4.0,77.0,,,,0.0,4.0,4.0,4.0,0.0,4.0,66.666664,,,,,,,,23.0,0.0,0.49281800000000003,-0.22534200000000001,0.621582,0.565674,0.8847790000000001,-0.48584700000000003,-0.13086099999999998,-0.033243,-0.039198000000000004,-0.022969999999999997,,,,,,,,,,,,,,,,,,,,,,,,,,,,,,,,,,,,,,,,,,,,,,,,,,,,,,,,,,,,,,,,,
5089,1645494553.907457,1645494553.918998,47.0,0.0,3390.7692869999996,3736.4101560000004,4215.897461,4267.179688,4212.307617,0.0,4.0,77.0,,,,0.0,4.0,4.0,4.0,0.0,4.0,66.666664,,,,,,,,,,,,,,,,,,,,,,,,,,,,,,,,,,,,,,,,,,,,,,,,,,,,,,,,,,,,,,,,,,,,,,,,,,,,,,,,,,,,
5090,1645494553.915272,1645494553.9268131,48.0,0.0,3394.8718259999996,3696.4101560000004,4194.358886999999,4267.179688,4230.256348,0.0,4.0,77.0,,,,0.0,4.0,4.0,4.0,0.0,4.0,66.666664,,,,,,,,24.0,0.0,0.49270699999999995,-0.225586,0.621582,0.565674,0.881849,-0.477546,-0.13135,-0.033288,-0.039136000000000004,-0.025751,1.0,0.0,0.0,,,,,,,,,,,,,,,,,,,,,,,,,,,,,,,,0.0,0.0,1.0,0.0,128.0,1.0,5572.52832,1574.491333,751.883728,110.91703799999999,25.502573,11578.083008,3194.419189,991.221191,241.78826899999999,26.077901999999998,9.487422,0.763418,0.806936,0.793288,1.334778,34.917427,3.229056,0.434101,0.132832,0.039085,1205.818726,76.312386,8.136672,3.086436,6.037947
5091,1645494553.923087,1645494553.934628,49.0,0.0,3394.8718259999996,3697.9487299999996,4208.205078,4267.692383,4222.563965,0.0,4.0,77.0,,,,0.0,4.0,4.0,4.0,0.0,4.0,66.666664,,,,,,,,,,,,,,,,,,,,,,,,,,,,,,,,,,,,,,,,,,,,,,,,,,,,,,,,,,,,,,,,,,,,,,,,,,,,,,,,,,,,
5092,1645494553.930901,1645494553.942442,50.0,0.0,3408.718018,3719.487061,4243.589844,4267.179688,4207.179688,0.0,4.0,77.0,,,,0.0,4.0,4.0,4.0,0.0,4.0,66.666664,,,,,,,,25.0,0.0,0.49270699999999995,-0.225586,0.621582,0.565674,0.8686659999999999,-0.481941,-0.12695499999999998,-0.033132999999999996,-0.039127999999999996,-0.022053,,,,,,,,,,,,,,,,,,,,,,,,,,,,,,,,,,,,,,,,,,,,,,,,,,,,,,,,,,,,,,,,,
5093,1645494553.938717,1645494553.950257,51.0,0.0,3427.6923829999996,3689.2307130000004,4223.589844,4266.153809,4215.897461,0.0,4.0,77.0,,,,0.0,4.0,4.0,4.0,0.0,4.0,66.666664,,,,,,,,,,,,,,,,,,,,,,,,,,,,,,,,,,,,,,,,,,,,,,,,,,,,,,,,,,,,,,,,,,,,,,,,,,,,,,,,,,,,
5094,1645494553.946531,1645494553.9580722,52.0,0.0,3425.1281740000004,3627.179443,4190.769043,4265.128418,4240.0,0.0,4.0,77.0,,,,0.0,4.0,4.0,4.0,0.0,4.0,66.666664,,,,,,,,26.0,0.0,0.493015,-0.225586,0.6213380000000001,0.565674,0.857923,-0.467292,-0.118654,-0.033042,-0.039122000000000004,-0.025023,,,,,,,,,,,,,,,,,,,,,,,,,,,,,,,,,,,0.0,0.0,1.0,0.0,128.0,1.0,,,,,,,,,,,,,,,,,,,,,,,,,
5095,1645494553.9543462,1645494553.9658868,53.0,0.0,3416.4101560000004,3618.974365,4213.846191,4265.641113000001,4234.358886999999,0.0,4.0,77.0,,,,0.0,4.0,4.0,4.0,0.0,4.0,66.666664,,,,,,,,,,,,,,,,,,,,,,,,,,,,,,,,,,,,,,,,,,,,,,,,,,,,,,,,,,,,,,,,,,,,,,,,,,,,,,,,,,,,
5096,1645494553.9621608,1645494553.973702,54.0,0.0,3424.615479,3613.8461909999996,4231.282227000001,4265.641113000001,4225.641113000001,0.0,4.0,77.0,,,,0.0,4.0,4.0,4.0,0.0,4.0,66.666664,,,,,,,,27.0,0.0,0.493015,-0.225586,0.6213380000000001,0.565674,0.8715950000000001,-0.474128,-0.125978,-0.033058,-0.039067000000000005,-0.027745999999999996,,,,,,,,,,,,,,,,,,,,,,,,,,,,,,,,,,,,,,,,,,,,,,,,,,,,,,,,,,,,,,,,,
5097,1645494553.969976,1645494553.981517,55.0,0.0,3427.179443,3571.281982,4195.897461,4265.641113000001,4252.820313,0.0,4.0,77.0,,,,0.0,4.0,4.0,4.0,0.0,4.0,66.666664,,,,,,,,,,,,,,,,,,,,,,,,,,,,,,,,,,,,,,,,,,,,,,,,,,,,,,,,,,,,,,,,,,,,,,,,,,,,,,,,,,,,
5098,1645494553.977791,1645494553.989232,56.0,0.0,3423.076904,3551.794922,4192.820313,4265.641113000001,4256.922852000001,0.0,4.0,77.0,,,,0.0,4.0,4.0,4.0,0.0,4.0,66.666664,,,,,,,,28.0,0.0,0.493015,-0.225586,0.6213380000000001,0.565674,0.8881969999999999,-0.48535900000000004,-0.121584,-0.033171,-0.039018000000000004,-0.029952,,,,,,,,,,,,,,,,,,,,,,,,,,,,,,,,,,,0.0,0.0,1.0,0.0,128.0,1.0,,,,,,,,,,,,,,,,,,,,,,,,,
5099,1645494553.985606,1645494553.9970472,57.0,0.0,3445.1281740000004,3540.512939,4231.794922,4265.641113000001,4237.436035,0.0,4.0,77.0,,,,0.0,4.0,4.0,4.0,0.0,4.0,66.666664,,,,,,,,,,,,,,,,,,,,,,,,,,,,,,,,,,,,,,,,,,,,,,,,,,,,,,,,,,,,,,,,,,,,,,,,,,,,,,,,,,,,
5100,1645494553.993421,1645494554.004762,58.0,0.0,3480.0,3492.820557,4232.307617,4265.641113000001,4253.846191,0.0,4.0,77.0,,,,0.0,4.0,4.0,4.0,0.0,4.0,66.666664,,,,,,,,29.0,0.0,0.493015,-0.225586,0.6213380000000001,0.565674,0.857923,-0.467292,-0.118654,-0.033223,-0.039070999999999995,-0.025882,,,,,,,,,,,,,,,,,,,,,,,,,,,,,,,,,,,,,,,,,,,,,,,,,,,,,,,,,,,,,,,,,
5101,1645494554.001236,1645494554.012577,59.0,0.0,3474.8718259999996,3450.7692869999996,4191.282227000001,4265.641113000001,4262.563965,0.0,4.0,77.0,,,,0.0,4.0,4.0,4.0,0.0,4.0,66.666664,,,,,,,,,,,,,,,,,,,,,,,,,,,,,,,,,,,,,,,,,,,,,,,,,,,,,,,,,,,,,,,,,,,,,,,,,,,,,,,,,,,,
5102,1645494554.009051,1645494554.020392,60.0,0.0,3460.0,3460.512939,4206.153809,4265.641113000001,4237.94873,0.0,4.0,77.0,,,,0.0,4.0,4.0,4.0,0.0,4.0,66.666664,,,,,,,,30.0,0.0,0.493015,-0.225586,0.6213380000000001,0.565674,0.8881969999999999,-0.48535900000000004,-0.121584,-0.033318,-0.039022,-0.028275,,,,,,,,,,,,,,,,,,,,,,,,,,,,,,,,,,,0.0,0.0,1.0,0.0,128.0,1.0,,,,,,,,,,,,,,,,,,,,,,,,,
5103,1645494554.016866,1645494554.028206,61.0,0.0,3476.923096,3487.6923829999996,4233.333496,4265.641113000001,4232.820313,0.0,4.0,77.0,,,,0.0,4.0,4.0,4.0,0.0,4.0,66.666664,,,,,,,,,,,,,,,,,,,,,,,,,,,,,,,,,,,,,,,,,,,,,,,,,,,,,,,,,,,,,,,,,,,,,,,,,,,,,,,,,,,,
5104,1645494554.024681,1645494554.036021,62.0,0.0,3489.2307130000004,3458.461426,4200.512695,4265.641113000001,4246.153809,0.0,4.0,77.0,,,,0.0,4.0,4.0,4.0,0.0,4.0,66.666664,,,,,,,,31.0,0.0,0.493015,-0.225586,0.6213380000000001,0.565674,0.879408,-0.489754,-0.127932,-0.033356,-0.038977,-0.024324000000000002,,,,,,,,,,,,,,,,,,,,,,,,,,,,,,,,,,,,,,,,,,,,,,,,,,,,,,,,,,,,,,,,,
5105,1645494554.032496,1645494554.0438359,63.0,0.0,3485.641113,3410.7692869999996,4183.077147999999,4265.641113000001,4243.077147999999,0.0,4.0,77.0,,,,0.0,4.0,4.0,4.0,0.0,4.0,66.666664,,,,,,,,,,,,,,,,,,,,,,,,,,,,,,,,,,,,,,,,,,,,,,,,,,,,,,,,,,,,,,,,,,,,,,,,,,,,,,,,,,,,
5106,1645494554.0403109,1645494554.051651,64.0,0.0,3494.8718259999996,3430.7692869999996,4221.025879,4265.641113000001,4247.692383,450.0,4.0,77.0,,,,0.0,4.0,4.0,4.0,0.0,4.0,66.666664,1.0,0.0,0.0,0.0,4.0,0.0,1.0,32.0,0.0,0.493015,-0.225586,0.6213380000000001,0.565674,0.890639,-0.477546,-0.135744,-0.033438,-0.039083,-0.027116,1.0,0.0,0.0,1.0,0.435258,0.6727449999999999,-0.408963,2.016693,1.0,0.273037,8.872044,1.9793060000000002,23.606798,0.222322,1.0,0.316897,-0.125169,-0.288247,0.208013,1.0,0.241446,0.097622,-0.8043560000000001,2.680257,1.0,0.5134350000000001,6.569177000000001,-47.50847,59.848445,1.0,0.3873,0.5595939999999999,0.472174,0.683082,0.0,0.0,1.0,0.0,128.0,1.0,5388.874022999999,1522.3845210000002,723.4662480000001,104.23715200000001,23.580107,11223.994141,3101.315918,961.7239380000001,233.13983199999998,25.058441000000002,9.970080000000001,0.761646,0.9457639999999999,0.918234,1.499859,35.194664,3.208703,0.430307,0.136104,0.044998,1280.922607,78.309593,8.009834,3.2809,5.750222
5107,1645494554.048126,1645494554.0594661,65.0,0.0,3510.256348,3450.256348,4210.769043,4265.641113000001,4265.641113000001,450.0,4.0,77.0,,,,0.0,4.0,4.0,4.0,0.0,4.0,66.666664,,,,,,,,,,,,,,,,,,,,,,,,,,,,,,,,,,,,,,,,,,,,,,,,,,,,,,,,,,,,,,,,,,,,,,,,,,,,,,,,,,,,
5108,1645494554.055941,1645494554.0673811,66.0,0.0,3510.256348,3416.4101560000004,4181.025879,4265.641113000001,4259.487305,16216.0,4.0,77.0,,,,0.0,4.0,4.0,4.0,0.0,4.0,66.666664,,,,,,,,33.0,0.0,0.493015,-0.225586,0.6213380000000001,0.565674,0.886244,-0.489754,-0.138674,-0.033512,-0.039032,-0.029385,,,,,,,,,,,,,,,,,,,,,,,,,,,,,,,,,,,,,,,,,,,,,,,,,,,,,,,,,,,,,,,,,
5109,1645494554.063756,1645494554.075196,67.0,0.0,3514.358887,3430.7692869999996,4208.717772999999,4265.641113000001,4252.307617,450.0,4.0,77.0,,,,0.0,4.0,4.0,4.0,0.0,4.0,66.666664,,,,,,,,,,,,,,,,,,,,,,,,,,,,,,,,,,,,,,,,,,,,,,,,,,,,,,,,,,,,,,,,,,,,,,,,,,,,,,,,,,,,
5110,1645494554.071571,1645494554.083011,68.0,0.0,3529.743652,3464.615479,4217.94873,4265.641113000001,4266.153809,16140.0,4.0,77.0,,,,0.0,4.0,4.0,4.0,0.0,4.0,66.666664,,,,,,,,34.0,0.0,0.493126,-0.22534200000000001,0.6213380000000001,0.565674,0.870619,-0.48096400000000006,-0.13135,-0.033530000000000004,-0.039035,-0.031476,,,,,,,,,,,,,,,,,,,,,,,,,,,,,,,,,,,0.0,0.0,1.0,0.0,128.0,1.0,,,,,,,,,,,,,,,,,,,,,,,,,
5111,1645494554.079386,1645494554.090826,69.0,0.0,3531.281982,3415.897461,4204.615234000001,4265.641113000001,4268.717772999999,450.0,4.0,77.0,,,,0.0,4.0,4.0,4.0,0.0,4.0,66.666664,,,,,,,,,,,,,,,,,,,,,,,,,,,,,,,,,,,,,,,,,,,,,,,,,,,,,,,,,,,,,,,,,,,,,,,,,,,,,,,,,,,,
5112,1645494554.0872009,1645494554.098641,70.0,0.0,3531.794922,3374.8718259999996,4203.077147999999,4265.641113000001,4258.974121,16112.0,4.0,77.0,,,,0.0,4.0,4.0,4.0,0.0,4.0,66.666664,,,,,,,,35.0,0.0,0.49340600000000007,-0.22534200000000001,0.6213380000000001,0.56543,0.881849,-0.48389399999999994,-0.133303,-0.033498,-0.039037999999999996,-0.027254,,,,,,,,,,,,,,,,,,,,,,,,,,,,,,,,,,,,,,,,,,,,,,,,,,,,,,,,,,,,,,,,,
5113,1645494554.095016,1645494554.106457,71.0,0.0,3544.102539,3399.487061,4198.974121,4265.641113000001,4265.641113000001,450.0,4.0,77.0,,,,0.0,4.0,4.0,4.0,0.0,4.0,66.666664,,,,,,,,,,,,,,,,,,,,,,,,,,,,,,,,,,,,,,,,,,,,,,,,,,,,,,,,,,,,,,,,,,,,,,,,,,,,,,,,,,,,
5114,1645494554.1028311,1645494554.114272,72.0,0.0,3548.718018,3428.205078,4195.897461,4265.641113000001,4272.307617,450.0,4.0,77.0,,,,0.0,4.0,4.0,4.0,0.0,4.0,66.666664,,,,,,,,36.0,0.0,0.49340600000000007,-0.22534200000000001,0.6213380000000001,0.56543,0.866712,-0.48731199999999997,-0.131838,-0.033468,-0.039041,-0.029606999999999998,,,,,,,,,,,,,,,,,,,,,,,,,,,,,,,,,,,0.0,0.0,1.0,0.0,128.0,1.0,,,,,,,,,,,,,,,,,,,,,,,,,
5115,1645494554.110646,1645494554.122087,73.0,0.0,3543.076904,3431.794922,4205.641113000001,4265.641113000001,4260.0,0.0,4.0,77.0,,,,0.0,4.0,4.0,4.0,0.0,4.0,66.666664,,,,,,,,,,,,,,,,,,,,,,,,,,,,,,,,,,,,,,,,,,,,,,,,,,,,,,,,,,,,,,,,,,,,,,,,,,,,,,,,,,,,
5116,1645494554.118461,1645494554.129902,74.0,0.0,3544.615479,3400.512939,4191.794922,4265.641113000001,4263.077147999999,450.0,4.0,77.0,,,,0.0,4.0,4.0,4.0,0.0,4.0,66.666664,,,,,,,,37.0,0.0,0.493126,-0.22534200000000001,0.6213380000000001,0.565674,0.8725719999999999,-0.474128,-0.13379100000000002,-0.033491,-0.039092,-0.031725,,,,,,,,,,,,,,,,,,,,,,,,,,,,,,,,,,,,,,,,,,,,,,,,,,,,,,,,,,,,,,,,,
5117,1645494554.126275,1645494554.137717,75.0,0.0,3557.4357909999994,3376.923096,4180.512695,4265.641113000001,4290.256348,16229.0,4.0,77.0,,,,0.0,4.0,4.0,4.0,0.0,4.0,66.666664,,,,,,,,,,,,,,,,,,,,,,,,,,,,,,,,,,,,,,,,,,,,,,,,,,,,,,,,,,,,,,,,,,,,,,,,,,,,,,,,,,,,
5118,1645494554.134091,1645494554.145432,76.0,0.0,3566.1538090000004,3391.281982,4197.94873,4265.641113000001,4293.846191,450.0,4.0,77.0,,,,0.0,4.0,4.0,4.0,0.0,4.0,66.666664,,,,,,,,38.0,0.0,0.492987,-0.225586,0.621582,0.56543,0.866224,-0.474128,-0.135256,-0.03356,-0.039138,-0.033727999999999994,,,,,,,,,,,,,,,,,,,,,,,,,,,,,,,,,,,0.0,0.0,1.0,0.0,128.0,1.0,,,,,,,,,,,,,,,,,,,,,,,,,
5119,1645494554.141905,1645494554.153247,77.0,0.0,3569.2307130000004,3386.6667479999996,4208.717772999999,4265.641113000001,4272.307617,450.0,4.0,77.0,,,,0.0,4.0,4.0,4.0,0.0,4.0,66.666664,,,,,,,,,,,,,,,,,,,,,,,,,,,,,,,,,,,,,,,,,,,,,,,,,,,,,,,,,,,,,,,,,,,,,,,,,,,,,,,,,,,,
5120,1645494554.14972,1645494554.161062,78.0,0.0,3559.487061,3344.615479,4196.922852000001,4265.641113000001,4258.974121,450.0,4.0,77.0,,,,0.0,4.0,4.0,4.0,0.0,4.0,66.666664,,,,,,,,39.0,0.0,0.493015,-0.225586,0.6213380000000001,0.565674,0.867201,-0.48731199999999997,-0.13916199999999998,-0.033524,-0.039277,-0.029086,,,,,,,,,,,,,,,,,,,,,,,,,,,,,,,,,,,,,,,,,,,,,,,,,,,,,,,,,,,,,,,,,
5121,1645494554.157535,1645494554.168877,79.0,0.0,3545.641113,3327.6923829999996,4187.692383,4265.641113000001,4257.436035,16229.0,4.0,77.0,,,,0.0,4.0,4.0,4.0,0.0,4.0,66.666664,,,,,,,,,,,,,,,,,,,,,,,,,,,,,,,,,,,,,,,,,,,,,,,,,,,,,,,,,,,,,,,,,,,,,,,,,,,,,,,,,,,,
5122,1645494554.16535,1645494554.176692,80.0,0.0,3564.615479,3338.974365,4185.641113000001,4265.641113000001,4264.102539,450.0,4.0,77.0,,,,0.0,4.0,4.0,4.0,0.0,4.0,66.666664,,,,,,,,40.0,0.0,0.493183,-0.22583000000000003,0.6213380000000001,0.56543,0.8808729999999999,-0.478523,-0.136721,-0.033394,-0.039255,-0.025054,1.0,0.0,0.0,,,,,,,,,,,,,,,,,,,,,,,,,,,,,,,,0.0,0.0,1.0,0.0,128.0,1.0,4534.373047,1271.798096,598.06012,84.159729,18.754099,9290.385742,2574.77002,798.013184,192.487778,21.078098,9.343009,0.752473,1.00278,0.985825,1.619155,30.518562,2.744756,0.372035,0.12331800000000001,0.048411,1175.354736,69.401398,6.952105,3.128693,4.858443
5123,1645494554.173165,1645494554.184506,81.0,0.0,3593.8461909999996,3337.435791,4196.410156,4265.641113000001,4275.384765999999,450.0,4.0,77.0,,,,0.0,4.0,4.0,4.0,0.0,4.0,66.666664,,,,,,,,,,,,,,,,,,,,,,,,,,,,,,,,,,,,,,,,,,,,,,,,,,,,,,,,,,,,,,,,,,,,,,,,,,,,,,,,,,,,
5124,1645494554.18098,1645494554.192321,82.0,0.0,3593.8461909999996,3309.230713,4197.436035,4265.641113000001,4277.436035,450.0,4.0,77.0,,,,0.0,4.0,4.0,4.0,0.0,4.0,66.666664,,,,,,,,41.0,0.0,0.493183,-0.22583000000000003,0.6213380000000001,0.56543,0.878431,-0.492683,-0.12549000000000002,-0.033473,-0.039187,-0.027676,,,,,,,,,,,,,,,,,,,,,,,,,,,,,,,,,,,,,,,,,,,,,,,,,,,,,,,,,,,,,,,,,
5125,1645494554.1887949,1645494554.200136,83.0,0.0,3587.179443,3295.897461,4195.384765999999,4265.641113000001,4266.153809,16229.0,4.0,77.0,,,,0.0,4.0,4.0,4.0,0.0,4.0,66.666664,,,,,,,,,,,,,,,,,,,,,,,,,,,,,,,,,,,,,,,,,,,,,,,,,,,,,,,,,,,,,,,,,,,,,,,,,,,,,,,,,,,,
5126,1645494554.19661,1645494554.207951,84.0,0.0,3600.0,3334.871826,4193.846191,4265.641113000001,4270.769043,450.0,4.0,77.0,,,,0.0,4.0,4.0,4.0,0.0,4.0,66.666664,,,,,,,,42.0,0.0,0.492903,-0.22583000000000003,0.6213380000000001,0.565674,0.875502,-0.481941,-0.142092,-0.033544,-0.039077,-0.029986000000000002,,,,,,,,,,,,,,,,,,,,,,,,,,,,,,,,,,,0.0,0.0,1.0,0.0,128.0,1.0,,,,,,,,,,,,,,,,,,,,,,,,,
5127,1645494554.204425,1645494554.215766,85.0,0.0,3617.9487299999996,3354.871826,4189.230957,4265.641113000001,4295.384765999999,450.0,4.0,77.0,,,,0.0,4.0,4.0,4.0,0.0,4.0,66.666664,,,,,,,,,,,,,,,,,,,,,,,,,,,,,,,,,,,,,,,,,,,,,,,,,,,,,,,,,,,,,,,,,,,,,,,,,,,,,,,,,,,,
5128,1645494554.21224,1645494554.223481,86.0,0.0,3625.1281740000004,3323.589844,4197.94873,4265.641113000001,4301.538574,450.0,4.0,77.0,,,,0.0,4.0,4.0,4.0,0.0,4.0,66.666664,,,,,,,,43.0,0.0,0.49321000000000004,-0.22583000000000003,0.6210939999999999,0.565674,0.8774549999999999,-0.484382,-0.119631,-0.033558,-0.039125,-0.025767,,,,,,,,,,,,,,,,,,,,,,,,,,,,,,,,,,,,,,,,,,,,,,,,,,,,,,,,,,,,,,,,,
5129,1645494554.220055,1645494554.231296,87.0,0.0,3623.076904,3284.102539,4186.666504,4265.641113000001,4295.384765999999,16229.0,4.0,77.0,,,,0.0,4.0,4.0,4.0,0.0,4.0,66.666664,,,,,,,,,,,,,,,,,,,,,,,,,,,,,,,,,,,,,,,,,,,,,,,,,,,,,,,,,,,,,,,,,,,,,,,,,,,,,,,,,,,,
5130,1645494554.22787,1645494554.239111,88.0,0.0,3618.974365,3228.205078,4166.666504,4265.641113000001,4303.589844,450.0,4.0,77.0,,,,0.0,4.0,4.0,4.0,0.0,4.0,66.666664,,,,,,,,44.0,0.0,0.49321000000000004,-0.22583000000000003,0.6210939999999999,0.565674,0.877943,-0.49463599999999996,-0.140139,-0.033474000000000004,-0.039167,-0.02822,,,,,,,,,,,,,,,,,,,,,,,,,,,,,,,,,,,0.0,0.0,1.0,0.0,128.0,1.0,,,,,,,,,,,,,,,,,,,,,,,,,
5131,1645494554.2356849,1645494554.246926,89.0,0.0,3615.897461,3194.871826,4176.410156,4265.641113000001,4304.102539,450.0,4.0,77.0,,,,0.0,4.0,4.0,4.0,0.0,4.0,66.666664,,,,,,,,,,,,,,,,,,,,,,,,,,,,,,,,,,,,,,,,,,,,,,,,,,,,,,,,,,,,,,,,,,,,,,,,,,,,,,,,,,,,
5132,1645494554.2435,1645494554.254741,90.0,0.0,3614.358887,3196.410156,4195.897461,4265.641113000001,4286.153809,450.0,4.0,77.0,,,,0.0,4.0,4.0,4.0,0.0,4.0,66.666664,,,,,,,,45.0,0.0,0.49321000000000004,-0.22583000000000003,0.6210939999999999,0.565674,0.8759899999999999,-0.481941,-0.134768,-0.033447000000000005,-0.039206,-0.030427,,,,,,,,,,,,,,,,,,,,,,,,,,,,,,,,,,,,,,,,,,,,,,,,,,,,,,,,,,,,,,,,,
5133,1645494554.251315,1645494554.2625551,91.0,0.0,3618.461426,3166.153809,4182.563965,4265.641113000001,4288.205078,16229.0,4.0,77.0,,,,0.0,4.0,4.0,4.0,0.0,4.0,66.666664,,,,,,,,,,,,,,,,,,,,,,,,,,,,,,,,,,,,,,,,,,,,,,,,,,,,,,,,,,,,,,,,,,,,,,,,,,,,,,,,,,,,
5134,1645494554.25913,1645494554.27037,92.0,0.0,3621.025635,3148.205078,4177.436035,4265.641113000001,4300.0,450.0,4.0,77.0,,,,0.0,4.0,4.0,4.0,0.0,4.0,66.666664,,,,,,,,46.0,0.0,0.49321000000000004,-0.22583000000000003,0.6210939999999999,0.565674,0.872084,-0.48096400000000006,-0.134768,-0.033423,-0.039191000000000004,-0.026212,,,,,,,,,,,,,,,,,,,,,,,,,,,,,,,,,,,0.0,0.0,1.0,0.0,128.0,1.0,,,,,,,,,,,,,,,,,,,,,,,,,
5135,1645494554.266945,1645494554.278185,93.0,0.0,3623.076904,3185.6411129999997,4186.153809,4265.641113000001,4286.666504,450.0,4.0,77.0,,,,0.0,4.0,4.0,4.0,0.0,4.0,66.666664,,,,,,,,,,,,,,,,,,,,,,,,,,,,,,,,,,,,,,,,,,,,,,,,,,,,,,,,,,,,,,,,,,,,,,,,,,,,,,,,,,,,
5136,1645494554.27476,1645494554.2859,94.0,0.0,3637.9487299999996,3193.333252,4191.282227000001,4265.641113000001,4284.102539,450.0,4.0,77.0,,,,0.0,4.0,4.0,4.0,0.0,4.0,66.666664,,,,,,,,47.0,0.0,0.493518,-0.22583000000000003,0.62085,0.565674,0.8759899999999999,-0.477058,-0.127932,-0.03345,-0.039179000000000005,-0.028620999999999997,,,,,,,,,,,,,,,,,,,,,,,,,,,,,,,,,,,,,,,,,,,,,,,,,,,,,,,,,,,,,,,,,
5137,1645494554.282575,1645494554.293715,95.0,0.0,3650.256348,3156.410156,4189.743652,4265.641113000001,4296.922852000001,16229.0,4.0,77.0,,,,0.0,4.0,4.0,4.0,0.0,4.0,66.666664,,,,,,,,,,,,,,,,,,,,,,,,,,,,,,,,,,,,,,,,,,,,,,,,,,,,,,,,,,,,,,,,,,,,,,,,,,,,,,,,,,,,
5138,1645494554.29039,1645494554.3015301,96.0,0.0,3647.179443,3147.179443,4184.102539,4265.641113000001,4282.563965,450.0,4.0,77.0,,,,0.0,4.0,4.0,4.0,0.0,4.0,66.666664,,,,,,,,48.0,0.0,0.493629,-0.225586,0.62085,0.565674,0.8764780000000001,-0.492683,-0.135256,-0.033425,-0.039216,-0.030788,1.0,0.0,0.0,,,,,,,,,,,,,,,,,,,,,,,,,,,,,,,,0.0,0.0,1.0,0.0,128.0,1.0,3304.060303,907.30011,418.804688,57.537009999999995,12.676734,6476.554688,1801.20813,558.085205,134.100327,15.526472,7.784003,0.7490020000000001,0.9615530000000001,0.97793,1.707281,22.562212,1.999882,0.27979899999999996,0.099446,0.048606,925.064026,52.679244999999995,5.359233000000001,2.687569,3.695615
5139,1645494554.2982051,1645494554.309345,97.0,0.0,3653.3332520000004,3160.512939,4175.897461,4265.641113000001,4276.922852000001,450.0,4.0,77.0,,,,0.0,4.0,4.0,4.0,0.0,4.0,66.666664,,,,,,,,,,,,,,,,,,,,,,,,,,,,,,,,,,,,,,,,,,,,,,,,,,,,,,,,,,,,,,,,,,,,,,,,,,,,,,,,,,,,
5140,1645494554.30602,1645494554.31716,98.0,0.0,3660.0,3160.0,4175.384765999999,4265.641113000001,4317.436035,450.0,4.0,77.0,,,,0.0,4.0,4.0,4.0,0.0,4.0,66.666664,,,,,,,,49.0,0.0,0.49332200000000004,-0.225586,0.6210939999999999,0.565674,0.877943,-0.480476,-0.125002,-0.033402999999999995,-0.039298,-0.032885000000000005,,,,,,,,,,,,,,,,,,,,,,,,,,,,,,,,,,,,,,,,,,,,,,,,,,,,,,,,,,,,,,,,,
5141,1645494554.313835,1645494554.324975,99.0,0.0,3666.1538090000004,3139.487061,4172.307617,4265.641113000001,4341.538574,16229.0,4.0,77.0,,,,0.0,4.0,4.0,4.0,0.0,4.0,66.666664,,,,,,,,,,,,,,,,,,,,,,,,,,,,,,,,,,,,,,,,,,,,,,,,,,,,,,,,,,,,,,,,,,,,,,,,,,,,,,,,,,,,
5142,1645494554.321649,1645494554.332789,100.0,0.0,3695.384521,3121.5385739999997,4177.436035,4265.641113000001,4323.077147999999,450.0,4.0,77.0,,,,0.0,4.0,4.0,4.0,0.0,4.0,66.666664,,,,,,,,50.0,0.0,0.493349,-0.225586,0.62085,0.565918,0.8886850000000001,-0.48340600000000006,-0.145998,-0.033333999999999996,-0.039324,-0.034723000000000004,,,,,,,,,,,,,,,,,,,,,,,,,,,,,,,,,,,0.0,0.0,1.0,0.0,128.0,1.0,,,,,,,,,,,,,,,,,,,,,,,,,
5143,1645494554.3294652,1645494554.3406038,101.0,0.0,3702.5642090000006,3135.384521,4185.128418,4265.641113000001,4313.333496,450.0,4.0,77.0,,,,0.0,4.0,4.0,4.0,0.0,4.0,66.666664,,,,,,,,,,,,,,,,,,,,,,,,,,,,,,,,,,,,,,,,,,,,,,,,,,,,,,,,,,,,,,,,,,,,,,,,,,,,,,,,,,,,
5144,1645494554.3372788,1645494554.348419,102.0,0.0,3685.1281740000004,3148.718018,4172.307617,4265.641113000001,4311.282227000001,450.0,4.0,77.0,,,,0.0,4.0,4.0,4.0,0.0,4.0,66.666664,,,,,,,,51.0,0.0,0.493349,-0.225586,0.62085,0.565918,0.8730600000000001,-0.482918,-0.13281500000000002,-0.033419,-0.039249,-0.036232,,,,,,,,,,,,,,,,,,,,,,,,,,,,,,,,,,,,,,,,,,,,,,,,,,,,,,,,,,,,,,,,,
5145,1645494554.345094,1645494554.356234,103.0,0.0,3685.1281740000004,3126.153809,4163.077147999999,4265.641113000001,4294.871582,16229.0,4.0,77.0,,,,0.0,4.0,4.0,4.0,0.0,4.0,66.666664,,,,,,,,,,,,,,,,,,,,,,,,,,,,,,,,,,,,,,,,,,,,,,,,,,,,,,,,,,,,,,,,,,,,,,,,,,,,,,,,,,,,
5146,1645494554.352909,1645494554.363949,104.0,0.0,3683.076904,3082.05127,4160.512695,4265.641113000001,4296.922852000001,450.0,4.0,77.0,,,,0.0,4.0,4.0,4.0,0.0,4.0,66.666664,,,,,,,,52.0,0.0,0.493349,-0.225586,0.62085,0.565918,0.877943,-0.486336,-0.131838,-0.033446,-0.039279,-0.031485,,,,,,,,,,,,,,,,,,,,,,,,,,,,,,,,,,,0.0,0.0,1.0,0.0,128.0,1.0,,,,,,,,,,,,,,,,,,,,,,,,,
5147,1645494554.360724,1645494554.371764,105.0,0.0,3676.4101560000004,3088.718018,4164.102539,4265.641113000001,4316.410156,450.0,4.0,77.0,,,,0.0,4.0,4.0,4.0,0.0,4.0,66.666664,,,,,,,,,,,,,,,,,,,,,,,,,,,,,,,,,,,,,,,,,,,,,,,,,,,,,,,,,,,,,,,,,,,,,,,,,,,,,,,,,,,,
5148,1645494554.368539,1645494554.3795788,106.0,0.0,3688.718018,3130.769287,4180.512695,4265.641113000001,4310.769043,450.0,4.0,77.0,,,,0.0,4.0,4.0,4.0,0.0,4.0,66.666664,,,,,,,,53.0,0.0,0.493349,-0.225586,0.62085,0.565918,0.8847790000000001,-0.49707799999999996,-0.14257999999999998,-0.033373,-0.039404,-0.033464,,,,,,,,,,,,,,,,,,,,,,,,,,,,,,,,,,,,,,,,,,,,,,,,,,,,,,,,,,,,,,,,,
5149,1645494554.376354,1645494554.387394,107.0,0.0,3707.179443,3136.410156,4194.358886999999,4265.641113000001,4311.282227000001,16229.0,4.0,77.0,,,,0.0,4.0,4.0,4.0,0.0,4.0,66.666664,,,,,,,,,,,,,,,,,,,,,,,,,,,,,,,,,,,,,,,,,,,,,,,,,,,,,,,,,,,,,,,,,,,,,,,,,,,,,,,,,,,,
5150,1645494554.3841689,1645494554.395209,108.0,0.0,3710.256348,3126.153809,4182.563965,4265.641113000001,4337.436035,450.0,4.0,77.0,,,,0.0,4.0,4.0,4.0,0.0,4.0,66.666664,,,,,,,,54.0,0.0,0.493069,-0.225586,0.62085,0.5661619999999999,0.8691540000000001,-0.508309,-0.135256,-0.033503,-0.03937,-0.028897000000000003,,,,,,,,,,,,,,,,,,,,,,,,,,,,,,,,,,,0.0,0.0,1.0,0.0,128.0,1.0,,,,,,,,,,,,,,,,,,,,,,,,,
5151,1645494554.391984,1645494554.403024,109.0,0.0,3709.743652,3130.769287,4169.230957,4265.641113000001,4337.94873,450.0,4.0,77.0,,,,0.0,4.0,4.0,4.0,0.0,4.0,66.666664,,,,,,,,,,,,,,,,,,,,,,,,,,,,,,,,,,,,,,,,,,,,,,,,,,,,,,,,,,,,,,,,,,,,,,,,,,,,,,,,,,,,
5152,1645494554.399799,1645494554.4108381,110.0,0.0,3702.5642090000006,3126.153809,4168.205078,4265.641113000001,4304.102539,450.0,4.0,77.0,,,,0.0,4.0,4.0,4.0,0.0,4.0,66.666664,,,,,,,,55.0,0.0,0.493349,-0.225586,0.62085,0.565918,0.8881969999999999,-0.48828900000000003,-0.136721,-0.033569999999999996,-0.039437,-0.031037000000000002,,,,,,,,,,,,,,,,,,,,,,,,,,,,,,,,,,,,,,,,,,,,,,,,,,,,,,,,,,,,,,,,,
5153,1645494554.407614,1645494554.418653,111.0,0.0,3703.5898439999996,3127.179443,4178.974121,4265.641113000001,4300.0,16229.0,4.0,77.0,,,,0.0,4.0,4.0,4.0,0.0,4.0,66.666664,,,,,,,,,,,,,,,,,,,,,,,,,,,,,,,,,,,,,,,,,,,,,,,,,,,,,,,,,,,,,,,,,,,,,,,,,,,,,,,,,,,,
5154,1645494554.4154289,1645494554.426468,112.0,0.0,3731.281982,3141.5385739999997,4184.102539,4265.641113000001,4325.641113000001,450.0,4.0,77.0,,,,0.0,4.0,4.0,4.0,0.0,4.0,66.666664,,,,,,,,56.0,0.0,0.493349,-0.225586,0.62085,0.565918,0.875502,-0.495125,-0.143069,-0.033387,-0.039399,-0.026761,1.0,0.0,0.0,,,,,,,,,,,,,,,,,,,,,,,,,,,,,,,,0.0,0.0,1.0,0.0,128.0,1.0,2054.018311,540.213928,241.160538,32.37048,7.154303,3665.6198729999996,1028.050293,318.75705,76.589058,10.152906,5.6567620000000005,0.754061,0.8421059999999999,0.905267,1.7912599999999999,13.884160999999999,1.211998,0.18208,0.07209299999999999,0.045369,614.362,33.590633000000004,3.724451,2.10725,2.628372
5155,1645494554.423244,1645494554.4341831,113.0,0.0,3748.205078,3132.3076170000004,4181.025879,4265.641113000001,4325.128418,450.0,4.0,77.0,,,,0.0,4.0,4.0,4.0,0.0,4.0,66.666664,,,,,,,,,,,,,,,,,,,,,,,,,,,,,,,,,,,,,,,,,,,,,,,,,,,,,,,,,,,,,,,,,,,,,,,,,,,,,,,,,,,,
5156,1645494554.431059,1645494554.441998,114.0,0.0,3745.1281740000004,3141.5385739999997,4175.897461,4265.641113000001,4316.922852000001,450.0,4.0,77.0,,,,0.0,4.0,4.0,4.0,0.0,4.0,66.666664,,,,,,,,57.0,0.0,0.493069,-0.225586,0.62085,0.5661619999999999,0.8691540000000001,-0.508309,-0.135256,-0.033418,-0.039366000000000005,-0.022913,,,,,,,,,,,,,,,,,,,,,,,,,,,,,,,,,,,,,,,,,,,,,,,,,,,,,,,,,,,,,,,,,
5157,1645494554.438874,1645494554.4498131,115.0,0.0,3740.0,3176.923096,4172.820313,4265.641113000001,4322.05127,16229.0,4.0,77.0,,,,0.0,4.0,4.0,4.0,0.0,4.0,66.666664,,,,,,,,,,,,,,,,,,,,,,,,,,,,,,,,,,,,,,,,,,,,,,,,,,,,,,,,,,,,,,,,,,,,,,,,,,,,,,,,,,,,
5158,1645494554.4466891,1645494554.457628,116.0,0.0,3741.025635,3158.4614260000003,4169.230957,4265.641113000001,4329.743652,450.0,4.0,77.0,,,,0.0,4.0,4.0,4.0,0.0,4.0,66.666664,,,,,,,,58.0,0.0,0.493349,-0.225586,0.62085,0.565918,0.875502,-0.495125,-0.143069,-0.03325,-0.039336,-0.01945,,,,,,,,,,,,,,,,,,,,,,,,,,,,,,,,,,,0.0,0.0,1.0,0.0,128.0,1.0,,,,,,,,,,,,,,,,,,,,,,,,,
5159,1645494554.454504,1645494554.465443,117.0,0.0,3751.794922,3114.3588870000003,4171.282227000001,4265.641113000001,4335.384765999999,450.0,4.0,77.0,,,,0.0,4.0,4.0,4.0,0.0,4.0,66.666664,,,,,,,,,,,,,,,,,,,,,,,,,,,,,,,,,,,,,,,,,,,,,,,,,,,,,,,,,,,,,,,,,,,,,,,,,,,,,,,,,,,,
5160,1645494554.462319,1645494554.473258,118.0,0.0,3761.025635,3100.512939,4180.512695,4265.641113000001,4337.436035,450.0,4.0,77.0,,,,0.0,4.0,4.0,4.0,0.0,4.0,66.666664,,,,,,,,59.0,0.0,0.493349,-0.225586,0.62085,0.565918,0.869642,-0.48731199999999997,-0.133303,-0.033245,-0.039258999999999995,-0.022729,,,,,,,,,,,,,,,,,,,,,,,,,,,,,,,,,,,,,,,,,,,,,,,,,,,,,,,,,,,,,,,,,
5161,1645494554.470134,1645494554.4810722,119.0,0.0,3761.538574,3083.076904,4171.794922,4265.641113000001,4343.589844,16229.0,4.0,77.0,,,,0.0,4.0,4.0,4.0,0.0,4.0,66.666664,,,,,,,,,,,,,,,,,,,,,,,,,,,,,,,,,,,,,,,,,,,,,,,,,,,,,,,,,,,,,,,,,,,,,,,,,,,,,,,,,,,,
5162,1645494554.4779491,1645494554.4888868,120.0,0.0,3762.0512700000004,3049.230713,4164.615234000001,4265.641113000001,4345.641113000001,450.0,4.0,77.0,,,,0.0,4.0,4.0,4.0,0.0,4.0,66.666664,,,,,,,,60.0,0.0,0.493461,-0.22534200000000001,0.62085,0.565918,0.866224,-0.49170699999999995,-0.128908,-0.033241,-0.039337000000000004,-0.019285,,,,,,,,,,,,,,,,,,,,,,,,,,,,,,,,,,,0.0,0.0,1.0,0.0,128.0,1.0,,,,,,,,,,,,,,,,,,,,,,,,,
5163,1645494554.485764,1645494554.496702,121.0,0.0,3766.1538090000004,3031.794922,4175.384765999999,4265.641113000001,4329.230957,450.0,4.0,77.0,,,,0.0,4.0,4.0,4.0,0.0,4.0,66.666664,,,,,,,,,,,,,,,,,,,,,,,,,,,,,,,,,,,,,,,,,,,,,,,,,,,,,,,,,,,,,,,,,,,,,,,,,,,,,,,,,,,,
5164,1645494554.493579,1645494554.504417,122.0,0.0,3765.641113,3022.05127,4186.666504,4265.641113000001,4316.410156,450.0,4.0,77.0,,,,0.0,4.0,4.0,4.0,0.0,4.0,66.666664,,,,,,,,61.0,0.0,0.493741,-0.22534200000000001,0.62085,0.565674,0.8691540000000001,-0.481941,-0.142092,-0.033139999999999996,-0.039408,-0.016184,,,,,,,,,,,,,,,,,,,,,,,,,,,,,,,,,,,,,,,,,,,,,,,,,,,,,,,,,,,,,,,,,
5165,1645494554.501394,1645494554.512232,123.0,0.0,3763.5898439999996,3008.205078,4172.307617,4265.641113000001,4325.641113000001,16229.0,4.0,77.0,,,,0.0,4.0,4.0,4.0,0.0,4.0,66.666664,,,,,,,,,,,,,,,,,,,,,,,,,,,,,,,,,,,,,,,,,,,,,,,,,,,,,,,,,,,,,,,,,,,,,,,,,,,,,,,,,,,,
5166,1645494554.509209,1645494554.5200472,124.0,0.0,3765.1281740000004,3006.153809,4168.205078,4265.641113000001,4329.230957,450.0,4.0,77.0,,,,0.0,4.0,4.0,4.0,0.0,4.0,66.666664,,,,,,,,62.0,0.0,0.493741,-0.22534200000000001,0.62085,0.565674,0.8872209999999999,-0.477546,-0.15332300000000001,-0.033,-0.03952,-0.019594999999999998,,,,,,,,,,,,,,,,,,,,,,,,,,,,,,,,,,,0.0,0.0,1.0,0.0,128.0,1.0,,,,,,,,,,,,,,,,,,,,,,,,,
5167,1645494554.517023,1645494554.5278618,125.0,0.0,3765.1281740000004,3010.769287,4178.974121,4265.641113000001,4317.436035,450.0,4.0,77.0,,,,0.0,4.0,4.0,4.0,0.0,4.0,66.666664,,,,,,,,,,,,,,,,,,,,,,,,,,,,,,,,,,,,,,,,,,,,,,,,,,,,,,,,,,,,,,,,,,,,,,,,,,,,,,,,,,,,
5168,1645494554.5248392,1645494554.535677,126.0,0.0,3762.5642090000006,3004.102539,4179.487305,4265.641113000001,4310.769043,450.0,4.0,77.0,,,,0.0,4.0,4.0,4.0,0.0,4.0,66.666664,,,,,,,,63.0,0.0,0.493741,-0.22534200000000001,0.62085,0.565674,0.890639,-0.48828900000000003,-0.133303,-0.03302,-0.039523,-0.022763,,,,,,,,,,,,,,,,,,,,,,,,,,,,,,,,,,,,,,,,,,,,,,,,,,,,,,,,,,,,,,,,,
5169,1645494554.5326529,1645494554.543492,127.0,0.0,3766.6667479999996,3006.153809,4171.282227000001,4265.641113000001,4310.256348,239.0,4.0,77.0,,,,0.0,4.0,4.0,4.0,0.0,4.0,66.666664,,,,,,,,,,,,,,,,,,,,,,,,,,,,,,,,,,,,,,,,,,,,,,,,,,,,,,,,,,,,,,,,,,,,,,,,,,,,,,,,,,,,
5170,1645494554.540468,1645494554.551307,0.0,0.0,3778.461426,3017.435791,4170.256348,4265.641113000001,4311.794922,450.0,4.0,77.0,,,,0.0,4.0,4.0,4.0,0.0,4.0,66.666664,1.0,0.0,0.0,0.0,4.0,0.0,1.0,0.0,0.0,0.49360200000000004,-0.225586,0.6210939999999999,0.56543,0.8808729999999999,-0.48535900000000004,-0.147463,-0.033087,-0.039428,-0.025613999999999998,1.0,0.0,0.0,,,,,,,,,,,,,,,,,,,,,,,,,,,,,,,,0.0,0.0,1.0,0.0,128.0,1.0,1063.9782710000002,258.395538,108.329247,14.334881,3.368967,1578.402466,449.432892,140.489044,34.259434000000006,6.2814440000000005,3.714483,0.7605729999999999,0.693142,0.800457,1.885111,6.807302,0.586123,0.10276800000000001,0.048011,0.039111,332.296112,17.47896,2.463596,1.5623120000000001,1.895277
5171,1645494554.548283,1645494554.5591211,1.0,0.0,3783.5898439999996,2989.743652,4163.589844,4265.641113000001,4317.436035,450.0,4.0,77.0,,,,0.0,4.0,4.0,4.0,0.0,4.0,66.666664,,,,,,,,,,,,,,,,,,,,,,,,,,,,,,,,,,,,,,,,,,,,,,,,,,,,,,,,,,,,,,,,,,,,,,,,,,,,,,,,,,,,
5172,1645494554.556098,1645494554.566936,2.0,0.0,3776.923096,2954.871826,4160.0,4265.641113000001,4324.615234000001,16214.0,4.0,77.0,,,,0.0,4.0,4.0,4.0,0.0,4.0,66.666664,,,,,,,,1.0,0.0,0.49360200000000004,-0.225586,0.6210939999999999,0.56543,0.8798959999999999,-0.490242,-0.136721,-0.03305,-0.039343,-0.028130000000000002,,,,,,,,,,,,,,,,,,,,,,,,,,,,,,,,,,,,,,,,,,,,,,,,,,,,,,,,,,,,,,,,,
5173,1645494554.563913,1645494554.574651,3.0,0.0,3786.1538090000004,2992.820557,4167.692383,4265.641113000001,4341.025879,450.0,4.0,77.0,,,,0.0,4.0,4.0,4.0,0.0,4.0,66.666664,,,,,,,,,,,,,,,,,,,,,,,,,,,,,,,,,,,,,,,,,,,,,,,,,,,,,,,,,,,,,,,,,,,,,,,,,,,,,,,,,,,,
5174,1645494554.571728,1645494554.5824661,4.0,0.0,3809.743652,3049.230713,4164.102539,4265.641113000001,4355.384765999999,16157.0,4.0,77.0,,,,0.0,4.0,4.0,4.0,0.0,4.0,66.666664,,,,,,,,2.0,0.0,0.493295,-0.225586,0.6213380000000001,0.56543,0.8725719999999999,-0.47901099999999996,-0.12695499999999998,-0.033163,-0.039363999999999996,-0.030493,,,,,,,,,,,,,,,,,,,,,,,,,,,,,,,,,,,0.0,0.0,1.0,0.0,128.0,1.0,,,,,,,,,,,,,,,,,,,,,,,,,
5175,1645494554.5795429,1645494554.590281,5.0,0.0,3809.743652,3064.102539,4160.512695,4265.641113000001,4346.666504,450.0,4.0,77.0,,,,0.0,4.0,4.0,4.0,0.0,4.0,66.666664,,,,,,,,,,,,,,,,,,,,,,,,,,,,,,,,,,,,,,,,,,,,,,,,,,,,,,,,,,,,,,,,,,,,,,,,,,,,,,,,,,,,
5176,1645494554.587358,1645494554.5980961,6.0,0.0,3800.0,3080.0,4156.410156,4265.641113000001,4331.282227000001,16120.0,4.0,77.0,,,,0.0,4.0,4.0,4.0,0.0,4.0,66.666664,,,,,,,,3.0,0.0,0.493295,-0.225586,0.6213380000000001,0.56543,0.8838030000000001,-0.4795,-0.129397,-0.033069,-0.03948,-0.026272000000000004,,,,,,,,,,,,,,,,,,,,,,,,,,,,,,,,,,,,,,,,,,,,,,,,,,,,,,,,,,,,,,,,,
5177,1645494554.5951731,1645494554.605911,7.0,0.0,3801.538574,3093.846191,4149.743652,4265.641113000001,4324.615234000001,450.0,4.0,77.0,,,,0.0,4.0,4.0,4.0,0.0,4.0,66.666664,,,,,,,,,,,,,,,,,,,,,,,,,,,,,,,,,,,,,,,,,,,,,,,,,,,,,,,,,,,,,,,,,,,,,,,,,,,,,,,,,,,,
5178,1645494554.602988,1645494554.613726,8.0,0.0,3786.1538090000004,3086.666748,4145.128418,4265.641113000001,4310.769043,450.0,4.0,77.0,,,,0.0,4.0,4.0,4.0,0.0,4.0,66.666664,,,,,,,,4.0,0.0,0.49332200000000004,-0.225586,0.6210939999999999,0.565674,0.8715950000000001,-0.478523,-0.119631,-0.033083,-0.039438,-0.028723000000000002,,,,,,,,,,,,,,,,,,,,,,,,,,,,,,,,,,,0.0,0.0,1.0,0.0,128.0,1.0,,,,,,,,,,,,,,,,,,,,,,,,,
5179,1645494554.610803,1645494554.621541,9.0,0.0,3773.3332520000004,3119.487061,4146.666504,4265.641113000001,4293.846191,0.0,4.0,77.0,,,,0.0,4.0,4.0,4.0,0.0,4.0,66.666664,,,,,,,,,,,,,,,,,,,,,,,,,,,,,,,,,,,,,,,,,,,,,,,,,,,,,,,,,,,,,,,,,,,,,,,,,,,,,,,,,,,,
5180,1645494554.618618,1645494554.6293552,10.0,0.0,3793.8461909999996,3163.076904,4148.717772999999,4265.641113000001,4306.666504,450.0,4.0,77.0,,,,0.0,4.0,4.0,4.0,0.0,4.0,66.666664,,,,,,,,5.0,0.0,0.493042,-0.225586,0.6210939999999999,0.565918,0.870619,-0.474617,-0.125978,-0.033144,-0.039352,-0.024679,,,,,,,,,,,,,,,,,,,,,,,,,,,,,,,,,,,,,,,,,,,,,,,,,,,,,,,,,,,,,,,,,
5181,1645494554.626433,1645494554.6371698,11.0,0.0,3806.6667479999996,3146.153809,4157.94873,4265.641113000001,4322.563965,16226.0,4.0,77.0,,,,0.0,4.0,4.0,4.0,0.0,4.0,66.666664,,,,,,,,,,,,,,,,,,,,,,,,,,,,,,,,,,,,,,,,,,,,,,,,,,,,,,,,,,,,,,,,,,,,,,,,,,,,,,,,,,,,
5182,1645494554.634248,1645494554.644985,12.0,0.0,3794.358887,3123.589844,4157.94873,4265.641113000001,4297.94873,450.0,4.0,77.0,,,,0.0,4.0,4.0,4.0,0.0,4.0,66.666664,,,,,,,,6.0,0.0,0.493154,-0.22534200000000001,0.6210939999999999,0.565918,0.8593879999999999,-0.492683,-0.138186,-0.033101,-0.039372000000000004,-0.021039,,,,,,,,,,,,,,,,,,,,,,,,,,,,,,,,,,,0.0,0.0,1.0,0.0,128.0,1.0,,,,,,,,,,,,,,,,,,,,,,,,,
5183,1645494554.6420631,1645494554.6527,13.0,0.0,3793.8461909999996,3138.4614260000003,4156.922852000001,4265.641113000001,4280.0,450.0,4.0,77.0,,,,0.0,4.0,4.0,4.0,0.0,4.0,66.666664,,,,,,,,,,,,,,,,,,,,,,,,,,,,,,,,,,,,,,,,,,,,,,,,,,,,,,,,,,,,,,,,,,,,,,,,,,,,,,,,,,,,
5184,1645494554.649878,1645494554.660515,14.0,0.0,3798.461426,3140.0,4156.410156,4265.641113000001,4288.717772999999,450.0,4.0,77.0,,,,0.0,4.0,4.0,4.0,0.0,4.0,66.666664,,,,,,,,7.0,0.0,0.49326499999999995,-0.225098,0.6210939999999999,0.565918,0.8657360000000001,-0.506355,-0.125978,-0.033062,-0.039292,-0.017959,,,,,,,,,,,,,,,,,,,,,,,,,,,,,,,,,,,,,,,,,,,,,,,,,,,,,,,,,,,,,,,,,
5185,1645494554.657693,1645494554.6683302,15.0,0.0,3796.923096,3117.94873,4149.743652,4265.641113000001,4282.05127,16226.0,4.0,77.0,,,,0.0,4.0,4.0,4.0,0.0,4.0,66.666664,,,,,,,,,,,,,,,,,,,,,,,,,,,,,,,,,,,,,,,,,,,,,,,,,,,,,,,,,,,,,,,,,,,,,,,,,,,,,,,,,,,,
5186,1645494554.665508,1645494554.6761448,16.0,0.0,3812.820557,3110.256348,4138.974121,4265.641113000001,4275.897461,0.0,4.0,77.0,,,,0.0,4.0,4.0,4.0,0.0,4.0,66.666664,,,,,,,,8.0,0.0,0.49326499999999995,-0.225098,0.6210939999999999,0.565918,0.8759899999999999,-0.49170699999999995,-0.132326,-0.033027999999999995,-0.039318,-0.021339,1.0,0.0,0.0,,,,,,,,,,,,,,,,,,,,,,,,,,,,,,,,0.0,0.0,1.0,0.0,128.0,1.0,449.853729,94.085724,34.668442,4.818512999999999,1.4902229999999999,451.390472,134.20945700000001,44.043240000000004,11.795288000000001,4.312387,2.1306580000000004,0.760786,0.565856,0.7038989999999999,1.97071,2.471848,0.21316999999999997,0.052257000000000005,0.030545999999999997,0.030817,137.548691,7.341582000000001,1.768241,1.18585,1.528944
5187,1645494554.6733232,1645494554.68396,17.0,0.0,3825.1281740000004,3105.6411129999997,4145.128418,4265.641113000001,4285.641113000001,0.0,4.0,77.0,,,,0.0,4.0,4.0,4.0,0.0,4.0,66.666664,,,,,,,,,,,,,,,,,,,,,,,,,,,,,,,,,,,,,,,,,,,,,,,,,,,,,,,,,,,,,,,,,,,,,,,,,,,,,,,,,,,,
5188,1645494554.681138,1645494554.691775,18.0,0.0,3816.4101560000004,3102.05127,4152.307617,4265.641113000001,4284.615234000001,0.0,4.0,77.0,,,,0.0,4.0,4.0,4.0,0.0,4.0,66.666664,,,,,,,,9.0,0.0,0.49354499999999996,-0.225098,0.6210939999999999,0.565674,0.8691540000000001,-0.47657,-0.137697,-0.033241,-0.039389999999999994,-0.017935,,,,,,,,,,,,,,,,,,,,,,,,,,,,,,,,,,,,,,,,,,,,,,,,,,,,,,,,,,,,,,,,,
5189,1645494554.688953,1645494554.69959,19.0,0.0,3823.5898439999996,3120.0,4148.205078,4265.641113000001,4276.410156,0.0,4.0,77.0,,,,0.0,4.0,4.0,4.0,0.0,4.0,66.666664,,,,,,,,,,,,,,,,,,,,,,,,,,,,,,,,,,,,,,,,,,,,,,,,,,,,,,,,,,,,,,,,,,,,,,,,,,,,,,,,,,,,
5190,1645494554.696768,1645494554.707404,20.0,0.0,3830.256348,3116.410156,4132.307617,4265.641113000001,4275.384765999999,0.0,4.0,77.0,,,,0.0,4.0,4.0,4.0,0.0,4.0,66.666664,,,,,,,,10.0,0.0,0.49354499999999996,-0.225098,0.6210939999999999,0.565674,0.8740370000000001,-0.49366000000000004,-0.13135,-0.033286,-0.039309,-0.021317,,,,,,,,,,,,,,,,,,,,,,,,,,,,,,,,,,,0.0,0.0,1.0,0.0,128.0,1.0,,,,,,,,,,,,,,,,,,,,,,,,,
5191,1645494554.704583,1645494554.715219,21.0,0.0,3822.0512700000004,3094.3588870000003,4126.153809,4265.641113000001,4272.820313,0.0,4.0,77.0,,,,0.0,4.0,4.0,4.0,0.0,4.0,66.666664,,,,,,,,,,,,,,,,,,,,,,,,,,,,,,,,,,,,,,,,,,,,,,,,,,,,,,,,,,,,,,,,,,,,,,,,,,,,,,,,,,,,
5192,1645494554.712397,1645494554.722934,22.0,0.0,3819.487061,3109.743652,4143.077147999999,4265.641113000001,4278.461426,0.0,4.0,77.0,,,,0.0,4.0,4.0,4.0,0.0,4.0,66.666664,,,,,,,,11.0,0.0,0.49354499999999996,-0.225098,0.6210939999999999,0.565674,0.886244,-0.47901099999999996,-0.121584,-0.033131,-0.039235,-0.018111000000000002,,,,,,,,,,,,,,,,,,,,,,,,,,,,,,,,,,,,,,,,,,,,,,,,,,,,,,,,,,,,,,,,,
5193,1645494554.7202132,1645494554.7307491,23.0,0.0,3823.5898439999996,3135.384521,4144.102539,4265.641113000001,4296.410156,0.0,4.0,77.0,,,,0.0,4.0,4.0,4.0,0.0,4.0,66.666664,,,,,,,,,,,,,,,,,,,,,,,,,,,,,,,,,,,,,,,,,,,,,,,,,,,,,,,,,,,,,,,,,,,,,,,,,,,,,,,,,,,,
5194,1645494554.7280269,1645494554.738564,24.0,0.0,3835.897461,3110.256348,4139.487305,4265.641113000001,4306.666504,0.0,4.0,77.0,,,,0.0,4.0,4.0,4.0,0.0,4.0,66.666664,,,,,,,,12.0,0.0,0.49385200000000007,-0.225098,0.62085,0.565674,0.882338,-0.48145299999999996,-0.138186,-0.033187,-0.039218,-0.021379,,,,,,,,,,,,,,,,,,,,,,,,,,,,,,,,,,,0.0,0.0,1.0,0.0,128.0,1.0,,,,,,,,,,,,,,,,,,,,,,,,,
5195,1645494554.735842,1645494554.746379,25.0,0.0,3852.820557,3056.410156,4147.179688,4265.641113000001,4302.563965,0.0,4.0,77.0,,,,0.0,4.0,4.0,4.0,0.0,4.0,66.666664,,,,,,,,,,,,,,,,,,,,,,,,,,,,,,,,,,,,,,,,,,,,,,,,,,,,,,,,,,,,,,,,,,,,,,,,,,,,,,,,,,,,
5196,1645494554.743657,1645494554.754194,26.0,0.0,3853.8461909999996,3023.076904,4154.871582,4265.641113000001,4296.410156,0.0,4.0,77.0,,,,0.0,4.0,4.0,4.0,0.0,4.0,66.666664,,,,,,,,13.0,0.0,0.49385200000000007,-0.225098,0.62085,0.565674,0.8803850000000001,-0.48584700000000003,-0.123537,-0.033335000000000004,-0.039154,-0.02427,,,,,,,,,,,,,,,,,,,,,,,,,,,,,,,,,,,,,,,,,,,,,,,,,,,,,,,,,,,,,,,,,
5197,1645494554.751472,1645494554.762009,27.0,0.0,3843.5898439999996,3021.5385739999997,4146.666504,4265.641113000001,4294.358886999999,0.0,4.0,77.0,,,,0.0,4.0,4.0,4.0,0.0,4.0,66.666664,,,,,,,,,,,,,,,,,,,,,,,,,,,,,,,,,,,,,,,,,,,,,,,,,,,,,,,,,,,,,,,,,,,,,,,,,,,,,,,,,,,,
5198,1645494554.7592869,1645494554.769824,28.0,0.0,3847.6923829999996,3048.718018,4143.077147999999,4265.641113000001,4292.307617,0.0,4.0,77.0,,,,0.0,4.0,4.0,4.0,0.0,4.0,66.666664,,,,,,,,14.0,0.0,0.493963,-0.224854,0.62085,0.565674,0.8774549999999999,-0.492683,-0.135744,-0.033273000000000004,-0.039047000000000005,-0.02072,,,,,,,,,,,,,,,,,,,,,,,,,,,,,,,,,,,0.0,0.0,1.0,0.0,128.0,1.0,,,,,,,,,,,,,,,,,,,,,,,,,
5199,1645494554.767102,1645494554.7776382,29.0,0.0,3854.358887,3058.4614260000003,4138.461426,4265.641113000001,4283.077147999999,0.0,4.0,77.0,,,,0.0,4.0,4.0,4.0,0.0,4.0,66.666664,,,,,,,,,,,,,,,,,,,,,,,,,,,,,,,,,,,,,,,,,,,,,,,,,,,,,,,,,,,,,,,,,,,,,,,,,,,,,,,,,,,,
5200,1645494554.774917,1645494554.7854528,30.0,0.0,3855.384521,3030.769287,4138.461426,4265.641113000001,4281.538574,0.0,4.0,77.0,,,,0.0,4.0,4.0,4.0,0.0,4.0,66.666664,,,,,,,,15.0,0.0,0.493963,-0.224854,0.62085,0.565674,0.8676889999999999,-0.47071,-0.132326,-0.033315,-0.039,-0.023726,,,,,,,,,,,,,,,,,,,,,,,,,,,,,,,,,,,,,,,,,,,,,,,,,,,,,,,,,,,,,,,,,
5201,1645494554.782732,1645494554.793168,31.0,0.0,3861.025635,3029.230713,4137.94873,4265.641113000001,4286.153809,0.0,4.0,77.0,,,,0.0,4.0,4.0,4.0,0.0,4.0,66.666664,,,,,,,,,,,,,,,,,,,,,,,,,,,,,,,,,,,,,,,,,,,,,,,,,,,,,,,,,,,,,,,,,,,,,,,,,,,,,,,,,,,,
5202,1645494554.7905471,1645494554.800983,32.0,0.0,3865.641113,3055.897461,4142.563965,4265.641113000001,4280.0,0.0,4.0,77.0,,,,0.0,4.0,4.0,4.0,0.0,4.0,66.666664,,,,,,,,16.0,0.0,0.493963,-0.224854,0.62085,0.565674,0.8759899999999999,-0.484382,-0.151369,-0.033255,-0.039006,-0.020133,1.0,0.0,0.0,,,,,,,,,,,,,,,,,,,,,,,,,,,,,,,,0.0,0.0,1.0,0.0,128.0,0.9142110000000001,145.629257,24.807264,7.225179,1.487798,0.8814870000000001,77.203873,26.013004000000002,11.526125,4.519563,3.727845,1.177926,0.750356,0.485853,0.645764,2.002586,0.6047680000000001,0.05845499999999999,0.026693,0.019302,0.021807,39.732166,3.088025,1.557527,1.017574,1.397291
5203,1645494554.798362,1645494554.808798,33.0,0.0,3876.4101560000004,3061.5385739999997,4148.205078,4265.641113000001,4285.128418,0.0,4.0,77.0,,,,0.0,4.0,4.0,4.0,0.0,4.0,66.666664,,,,,,,,,,,,,,,,,,,,,,,,,,,,,,,,,,,,,,,,,,,,,,,,,,,,,,,,,,,,,,,,,,,,,,,,,,,,,,,,,,,,
5204,1645494554.806177,1645494554.8166132,34.0,0.0,3879.487061,3067.179443,4138.974121,4265.641113000001,4296.922852000001,0.0,4.0,77.0,,,,0.0,4.0,4.0,4.0,0.0,4.0,66.666664,,,,,,,,17.0,0.0,0.49399,-0.224854,0.6206050000000001,0.565918,0.8881969999999999,-0.478523,-0.130373,-0.033299,-0.039061,-0.023198,,,,,,,,,,,,,,,,,,,,,,,,,,,,,,,,,,,,,,,,,,,,,,,,,,,,,,,,,,,,,,,,,
5205,1645494554.813992,1645494554.8244278,35.0,0.0,3880.512939,3079.487061,4128.205078,4265.641113000001,4295.897461,0.0,4.0,77.0,,,,0.0,4.0,4.0,4.0,0.0,4.0,66.666664,,,,,,,,,,,,,,,,,,,,,,,,,,,,,,,,,,,,,,,,,,,,,,,,,,,,,,,,,,,,,,,,,,,,,,,,,,,,,,,,,,,,
5206,1645494554.8218071,1645494554.832243,36.0,0.0,3898.974365,3068.205078,4141.538574,4265.641113000001,4297.94873,0.0,4.0,77.0,,,,0.0,4.0,4.0,4.0,0.0,4.0,66.666664,,,,,,,,18.0,0.0,0.49399,-0.224854,0.6206050000000001,0.565918,0.878431,-0.478523,-0.139651,-0.033338,-0.039012,-0.025956,,,,,,,,,,,,,,,,,,,,,,,,,,,,,,,,,,,0.0,0.0,1.0,0.0,128.0,0.9142110000000001,,,,,,,,,,,,,,,,,,,,,,,,,
