,Timestamp,EEG.Counter,EEG.Interpolated,EEG.AF3,EEG.T7,EEG.Pz,EEG.T8,EEG.AF4,EEG.RawCq,EEG.Battery,EEG.BatteryPercent,MarkerIndex,MarkerType,MarkerValueInt,EEG.MarkerHardware,CQ.AF3,CQ.T7,CQ.Pz,CQ.T8,CQ.AF4,CQ.Overall,EQ.SampleRateQuality,EQ.OVERALL,EQ.AF3,EQ.T7,EQ.Pz,EQ.T8,EQ.AF4,MOT.CounterMems,MOT.InterpolatedMems,MOT.Q0,MOT.Q1,MOT.Q2,MOT.Q3,MOT.AccX,MOT.AccY,MOT.AccZ,MOT.MagX,MOT.MagY,MOT.MagZ,MC.Action,MC.ActionPower,MC.IsActive,PM.Engagement.IsActive,PM.Engagement.Scaled,PM.Engagement.Raw,PM.Engagement.Min,PM.Engagement.Max,PM.Excitement.IsActive,PM.Excitement.Scaled,PM.Excitement.Raw,PM.Excitement.Min,PM.Excitement.Max,PM.LongTermExcitement,PM.Stress.IsActive,PM.Stress.Scaled,PM.Stress.Raw,PM.Stress.Min,PM.Stress.Max,PM.Relaxation.IsActive,PM.Relaxation.Scaled,PM.Relaxation.Raw,PM.Relaxation.Min,PM.Relaxation.Max,PM.Interest.IsActive,PM.Interest.Scaled,PM.Interest.Raw,PM.Interest.Min,PM.Interest.Max,PM.Focus.IsActive,PM.Focus.Scaled,PM.Focus.Raw,PM.Focus.Min,PM.Focus.Max,FE.BlinkWink,FE.HorizontalEyesDirection,FE.UpperFaceAction,FE.UpperFaceActionPower,FE.LowerFaceAction,FE.LowerFaceActionPower,POW.AF3.Theta,POW.AF3.Alpha,POW.AF3.BetaL,POW.AF3.BetaH,POW.AF3.Gamma,POW.T7.Theta,POW.T7.Alpha,POW.T7.BetaL,POW.T7.BetaH,POW.T7.Gamma,POW.Pz.Theta,POW.Pz.Alpha,POW.Pz.BetaL,POW.Pz.BetaH,POW.Pz.Gamma,POW.T8.Theta,POW.T8.Alpha,POW.T8.BetaL,POW.T8.BetaH,POW.T8.Gamma,POW.AF4.Theta,POW.AF4.Alpha,POW.AF4.BetaL,POW.AF4.BetaH,POW.AF4.Gamma
42259,1645492047.716309,60.0,0.0,4513.333496,5008.205078,4255.384765999999,4070.256348,4517.436035,0.0,4.0,86.0,18.0,1.0,2.0,0.0,4.0,0.0,4.0,4.0,4.0,66.666664,,,,,,,,30.0,0.0,0.594577,-0.157227,0.6442869999999999,0.45458999999999994,0.921401,-0.41846300000000003,-0.128908,-0.033756,-0.037994,-0.027192,,,,,,,,,,,,,,,,,,,,,,,,,,,,,,,,,,,,,,,,,,,,,,,,,,,,,,,,,,,,,,,,,
42260,1645492047.724124,61.0,0.0,4504.102539,4917.436035,4235.384765999999,4042.0512700000004,4468.205078,0.0,4.0,86.0,,,,0.0,4.0,0.0,4.0,4.0,4.0,66.666664,,,,,,,,,,,,,,,,,,,,,,,,,,,,,,,,,,,,,,,,,,,,,,,,,,,,,,,,,,,,,,,,,,,,,,,,,,,,,,,,,,,,
42261,1645492047.73194,62.0,0.0,4491.794922,4916.410156,4219.487305,4053.8461909999996,4448.717772999999,0.0,4.0,86.0,,,,0.0,4.0,0.0,4.0,4.0,4.0,66.666664,,,,,,,,31.0,0.0,0.594499,-0.157227,0.6445310000000001,0.454346,0.921401,-0.42236999999999997,-0.116701,-0.033652,-0.038051999999999996,-0.029697,,,,,,,,,,,,,,,,,,,,,,,,,,,,,,,,,,,,,,,,,,,,,,,,,,,,,,,,,,,,,,,,,
42262,1645492047.739855,63.0,0.0,4492.307617,5033.846191,4209.230957,4040.512939,4472.307617,0.0,4.0,86.0,,,,0.0,4.0,0.0,4.0,4.0,4.0,66.666664,,,,,,,,,,,,,,,,,,,,,,,,,,,,,,,,,,,,,,,,,,,,,,,,,,,,,,10.0,0.0,1.0,0.0,512.0,1.0,,,,,,,,,,,,,,,,,,,,,,,,,
42263,1645492047.7476711,64.0,0.0,4452.307617,5057.436035,4196.922852000001,3968.718018,4436.410156,450.0,4.0,86.0,,,,0.0,4.0,0.0,4.0,4.0,4.0,66.666664,,,,,,,,32.0,0.0,0.594499,-0.157227,0.6445310000000001,0.454346,0.9126120000000001,-0.39697899999999997,-0.14111500000000002,-0.033705,-0.037958,-0.025702,,,,,,,,,,,,,,,,,,,,,,,,,,,,,,,,,,,,,,,,,,,,,,,,,,,,,,,,,,,,,,,,,
42264,1645492047.755486,65.0,0.0,4418.974121,4946.666504,4209.230957,3968.718018,4411.282227000001,450.0,4.0,86.0,,,,0.0,4.0,0.0,4.0,4.0,4.0,66.666664,,,,,,,,,,,,,,,,,,,,,,,,,,,,,,,,,,,,,,,,,,,,,,,,,,,,,,,,,,,,,,,,,,,,,,,,,,,,,,,,,,,,
42265,1645492047.7633018,66.0,0.0,4478.461426,4935.384765999999,4248.717772999999,4050.7692869999996,4483.077147999999,16218.0,4.0,86.0,,,,0.0,4.0,0.0,4.0,4.0,4.0,66.666664,,,,,,,,33.0,0.0,0.5946859999999999,-0.157227,0.6445310000000001,0.45410200000000006,0.9121229999999999,-0.406256,-0.125002,-0.033655000000000004,-0.037922000000000004,-0.028308,,,,,,,,,,,,,,,,,,,,,,,,,,,,,,,,,,,,,,,,,,,,,,,,,,,,,,,,,,,,,,,,,
42266,1645492047.771117,67.0,0.0,4542.563965,5029.230957,4267.692383,4066.6667479999996,4532.307617,450.0,4.0,86.0,,,,0.0,4.0,0.0,4.0,4.0,4.0,66.666664,,,,,,,,,,,,,,,,,,,,1.0,0.0,0.0,,,,,,,,,,,,,,,,,,,,,,,,,,,,,,,,10.0,0.0,1.0,0.0,512.0,1.0,108.486298,76.980827,39.88702,30.816240000000004,16.950360999999997,38.252853,3.699857,12.003736,9.777536999999999,7.149753,43.788589,31.089531,19.393938000000002,14.439708999999999,7.054755,142.904938,86.425125,35.987411,41.993431,17.13662,129.804642,82.929939,43.957657,32.552096999999996,15.964104
42267,1645492047.778933,68.0,0.0,4516.410156,5024.615234000001,4255.384765999999,4035.384521,4502.05127,0.0,4.0,86.0,,,,0.0,4.0,0.0,4.0,4.0,4.0,66.666664,,,,,,,,34.0,0.0,0.594807,-0.157471,0.6445310000000001,0.45385699999999995,0.917983,-0.39697899999999997,-0.131838,-0.03361,-0.037841,-0.030799,,,,,,,,,,,,,,,,,,,,,,,,,,,,,,,,,,,,,,,,,,,,,,,,,,,,,,,,,,,,,,,,,
42268,1645492047.7867491,69.0,0.0,4515.897461,4963.589844,4268.717772999999,4089.743652,4523.077147999999,450.0,4.0,86.0,,,,0.0,4.0,0.0,4.0,4.0,4.0,66.666664,,,,,,,,,,,,,,,,,,,,,,,,,,,,,,,,,,,,,,,,,,,,,,,,,,,,,,,,,,,,,,,,,,,,,,,,,,,,,,,,,,,,
42269,1645492047.794564,70.0,0.0,4605.128418,4961.538574,4317.436035,4176.922852000001,4624.615234000001,16065.0,4.0,86.0,,,,0.0,4.0,0.0,4.0,4.0,4.0,66.666664,,,,,,,,35.0,0.0,0.594929,-0.15771500000000002,0.6445310000000001,0.453613,0.93019,-0.394049,-0.118654,-0.033716,-0.037816,-0.026645,,,,,,,,,,,,,,,,,,,,,,,,,,,,,,,,,,,,,,,,,,,,,,,,,,,,,,,,,,,,,,,,,
42270,1645492047.80238,71.0,0.0,4628.205078,4953.846191,4314.871582,4157.436035,4641.538574,450.0,4.0,86.0,,,,0.0,4.0,0.0,4.0,4.0,4.0,66.666664,,,,,,,,,,,,,,,,,,,,,,,,,,,,,,,,,,,,,,,,,,,,,,,,,,,,,,10.0,0.0,1.0,0.0,512.0,1.0,,,,,,,,,,,,,,,,,,,,,,,,,
42271,1645492047.8102949,72.0,0.0,4553.333496,4895.897461,4258.461426,4072.3076170000004,4554.871582,450.0,4.0,86.0,,,,0.0,4.0,0.0,4.0,4.0,4.0,66.666664,,,,,,,,36.0,0.0,0.594743,-0.15771500000000002,0.6445310000000001,0.45385699999999995,0.925795,-0.392584,-0.125978,-0.033664,-0.037843,-0.022955,,,,,,,,,,,,,,,,,,,,,,,,,,,,,,,,,,,,,,,,,,,,,,,,,,,,,,,,,,,,,,,,,
42272,1645492047.818111,73.0,0.0,4510.256348,4865.641113000001,4222.563965,4025.1281740000004,4495.384765999999,16214.0,4.0,86.0,,,,0.0,4.0,0.0,4.0,4.0,4.0,66.666664,,,,,,,,,,,,,,,,,,,,,,,,,,,,,,,,,,,,,,,,,,,,,,,,,,,,,,,,,,,,,,,,,,,,,,,,,,,,,,,,,,,,
42273,1645492047.825927,74.0,0.0,4529.743652,4903.589844,4228.205078,4023.076904,4488.717772999999,450.0,4.0,86.0,,,,0.0,4.0,0.0,4.0,4.0,4.0,66.666664,,,,,,,,37.0,0.0,0.594413,-0.157959,0.644775,0.45385699999999995,0.920424,-0.393561,-0.105959,-0.033667,-0.037917,-0.025932999999999998,,,,,,,,,,,,,,,,,,,,,,,,,,,,,,,,,,,,,,,,,,,,,,,,,,,,,,,,,,,,,,,,,
42274,1645492047.833742,75.0,0.0,4545.641113000001,4952.307617,4248.717772999999,4060.0,4514.871582,16194.0,4.0,86.0,,,,0.0,4.0,0.0,4.0,4.0,4.0,66.666664,,,,,,,,,,,,,,,,,,,,,,,,,,,,,,,,,,,,,,,,,,,,,,,,,,,,,,0.0,0.0,1.0,0.0,512.0,1.0,,,,,,,,,,,,,,,,,,,,,,,,,
42275,1645492047.841558,76.0,0.0,4525.641113000001,4972.307617,4252.307617,4073.8461909999996,4530.256348,450.0,4.0,86.0,,,,0.0,4.0,0.0,4.0,4.0,4.0,66.666664,,,,,,,,38.0,0.0,0.594162,-0.158203,0.644775,0.45410200000000006,0.9194479999999999,-0.39453699999999997,-0.10888800000000001,-0.033572000000000005,-0.037982,-0.028564999999999997,,,,,,,,,,,,,,,,,,,,,,,,,,,,,,,,,,,,,,,,,,,,,,,,,,,,,,,,,,,,,,,,,
42276,1645492047.849373,77.0,0.0,4536.922852000001,5005.128418,4250.256348,4061.538574,4531.794922,450.0,4.0,86.0,,,,0.0,4.0,0.0,4.0,4.0,4.0,66.666664,,,,,,,,,,,,,,,,,,,,,,,,,,,,,,,,,,,,,,,,,,,,,,,,,,,,,,,,,,,,,,,,,,,,,,,,,,,,,,,,,,,,
42277,1645492047.8571892,78.0,0.0,4544.615234000001,5007.692383,4244.102539,4050.7692869999996,4517.436035,450.0,4.0,86.0,,,,0.0,4.0,0.0,4.0,4.0,4.0,66.666664,,,,,,,,39.0,0.0,0.594162,-0.158203,0.644775,0.45410200000000006,0.9194479999999999,-0.400885,-0.109377,-0.033583999999999996,-0.037895,-0.024536000000000002,,,,,,,,,,,,,,,,,,,,,,,,,,,,,,,,,,,,,,,,,,,,,,,,,,,,,,,,,,,,,,,,,
42278,1645492047.865005,79.0,0.0,4485.128418,4931.282227000001,4227.179688,4018.461426,4483.589844,16194.0,4.0,86.0,,,,0.0,4.0,0.0,4.0,4.0,4.0,66.666664,,,,,,,,,,,,,,,,,,,,,,,,,,,,,,,,,,,,,,,,,,,,,,,,,,,,,,10.0,0.0,1.0,0.0,512.0,1.0,,,,,,,,,,,,,,,,,,,,,,,,,
42279,1645492047.87282,80.0,0.0,4457.436035,4901.538574,4230.769043,4004.102539,4474.358886999999,450.0,4.0,86.0,,,,0.0,4.0,0.0,4.0,4.0,4.0,66.666664,,,,,,,,40.0,0.0,0.594413,-0.157959,0.644775,0.45385699999999995,0.920424,-0.393561,-0.105959,-0.033692,-0.037963,-0.027306999999999998,,,,,,,,,,,,,,,,,,,,,,,,,,,,,,,,,,,,,,,,,,,,,,,,,,,,,,,,,,,,,,,,,
42280,1645492047.880636,81.0,0.0,4486.666504,4922.563965,4230.769043,4007.6923829999996,4484.102539,450.0,4.0,86.0,,,,0.0,4.0,0.0,4.0,4.0,4.0,66.666664,,,,,,,,,,,,,,,,,,,,,,,,,,,,,,,,,,,,,,,,,,,,,,,,,,,,,,,,,,,,,,,,,,,,,,,,,,,,,,,,,,,,
42281,1645492047.888551,82.0,0.0,4456.922852000001,4936.410156,4190.256348,3970.256348,4457.94873,450.0,4.0,86.0,,,,0.0,4.0,0.0,4.0,4.0,4.0,66.666664,,,,,,,,41.0,0.0,0.594162,-0.158203,0.644775,0.45410200000000006,0.9194479999999999,-0.400885,-0.109377,-0.033692,-0.037877999999999995,-0.023405000000000002,,,,,,,,,,,,,,,,,,,,,,,,,,,,,,,,,,,,,,,,,,,,,,,,,,,,,,,,,,,,,,,,,
42282,1645492047.896367,83.0,0.0,4401.025879,4968.205078,4170.256348,3924.102539,4409.743652,16194.0,4.0,86.0,,,,0.0,4.0,0.0,4.0,4.0,4.0,66.666664,,,,,,,,,,,,,,,,,,,,1.0,0.0,0.0,,,,,,,,,,,,,,,,,,,,,,,,,,,,,,,,10.0,0.0,1.0,0.0,512.0,1.0,136.068176,67.70483399999999,39.827090999999996,32.230389,17.784891000000002,33.898410999999996,3.238891,13.286025,10.966405,7.721177000000001,52.351444,27.782457,19.634754,15.943072,7.332451,173.940674,80.698929,36.77187,45.013363,18.135707999999997,168.558441,75.404106,43.83345,34.501633,16.912268
42283,1645492047.904182,84.0,0.0,4408.717772999999,4997.94873,4198.974121,3913.8461909999996,4398.461426,450.0,4.0,86.0,,,,0.0,4.0,0.0,4.0,4.0,4.0,66.666664,,,,,,,,42.0,0.0,0.593775,-0.157959,0.6450199999999999,0.454346,0.9150530000000001,-0.410163,-0.114748,-0.033643,-0.03785,-0.01999,,,,,,,,,,,,,,,,,,,,,,,,,,,,,,,,,,,,,,,,,,,,,,,,,,,,,,,,,,,,,,,,,
42284,1645492047.911998,85.0,0.0,4432.307617,4995.384765999999,4209.230957,3918.974365,4412.820313,450.0,4.0,86.0,,,,0.0,4.0,0.0,4.0,4.0,4.0,66.666664,,,,,,,,,,,,,,,,,,,,,,,,,,,,,,,,,,,,,,,,,,,,,,,,,,,,,,,,,,,,,,,,,,,,,,,,,,,,,,,,,,,,
42285,1645492047.919814,86.0,0.0,4421.025879,4974.358886999999,4179.487305,3935.384521,4399.487305,450.0,4.0,86.0,,,,0.0,4.0,0.0,4.0,4.0,4.0,66.666664,,,,,,,,43.0,0.0,0.593775,-0.157959,0.6450199999999999,0.454346,0.9126120000000001,-0.399908,-0.106447,-0.033746,-0.037776,-0.023167,,,,,,,,,,,,,,,,,,,,,,,,,,,,,,,,,,,,,,,,,,,,,,,,,,,,,,,,,,,,,,,,,
42286,1645492047.927629,87.0,0.0,4403.589844,4989.743652,4162.05127,3938.461426,4358.974121,16194.0,4.0,86.0,,,,0.0,4.0,0.0,4.0,4.0,4.0,66.666664,,,,,,,,,,,,,,,,,,,,,,,,,,,,,,,,,,,,,,,,,,,,,,,,,,,,,,10.0,0.0,1.0,0.0,512.0,1.0,,,,,,,,,,,,,,,,,,,,,,,,,
42287,1645492047.9354448,88.0,0.0,4415.384765999999,5030.256348,4176.922852000001,3917.9487299999996,4354.358886999999,450.0,4.0,86.0,,,,0.0,4.0,0.0,4.0,4.0,4.0,66.666664,,,,,,,,44.0,0.0,0.593588,-0.157959,0.6450199999999999,0.45458999999999994,0.9077290000000001,-0.41651000000000005,-0.114748,-0.033741,-0.037709,-0.019727,,,,,,,,,,,,,,,,,,,,,,,,,,,,,,,,,,,,,,,,,,,,,,,,,,,,,,,,,,,,,,,,,
42288,1645492047.94326,89.0,0.0,4482.05127,5033.333496,4225.128418,3976.4101560000004,4435.384765999999,450.0,4.0,86.0,,,,0.0,4.0,0.0,4.0,4.0,4.0,66.666664,,,,,,,,,,,,,,,,,,,,,,,,,,,,,,,,,,,,,,,,,,,,,,,,,,,,,,,,,,,,,,,,,,,,,,,,,,,,,,,,,,,,
42289,1645492047.951176,90.0,0.0,4508.205078,5004.102539,4240.0,4028.718018,4467.179688,450.0,4.0,86.0,,,,0.0,4.0,0.0,4.0,4.0,4.0,66.666664,,,,,,,,45.0,0.0,0.593588,-0.157959,0.6450199999999999,0.45458999999999994,0.9150530000000001,-0.41358100000000003,-0.107912,-0.033736,-0.037747,-0.023028,,,,,,,,,,,,,,,,,,,,,,,,,,,,,,,,,,,,,,,,,,,,,,,,,,,,,,,,,,,,,,,,,
42290,1645492047.958992,91.0,0.0,4472.820313,4992.820313,4213.846191,3974.358887,4399.487305,16194.0,4.0,86.0,,,,0.0,4.0,0.0,4.0,4.0,4.0,66.666664,,,,,,,,,,,,,,,,,,,,,,,,,,,,,,,,,,,,,,,,,,,,,,,,,,,,,,10.0,0.0,1.0,0.0,512.0,1.0,,,,,,,,,,,,,,,,,,,,,,,,,
42291,1645492047.966907,92.0,0.0,4517.94873,4974.871582,4230.769043,3968.205078,4426.153809,450.0,4.0,86.0,,,,0.0,4.0,0.0,4.0,4.0,4.0,66.666664,,,,,,,,46.0,0.0,0.593588,-0.157959,0.6450199999999999,0.45458999999999994,0.9072399999999999,-0.41358100000000003,-0.103029,-0.033683,-0.037683,-0.025851999999999997,,,,,,,,,,,,,,,,,,,,,,,,,,,,,,,,,,,,,,,,,,,,,,,,,,,,,,,,,,,,,,,,,
42292,1645492047.974723,93.0,0.0,4581.025879,4945.128418,4263.077147999999,4038.974365,4518.461426,450.0,4.0,86.0,,,,0.0,4.0,0.0,4.0,4.0,4.0,66.666664,,,,,,,,,,,,,,,,,,,,,,,,,,,,,,,,,,,,,,,,,,,,,,,,,,,,,,,,,,,,,,,,,,,,,,,,,,,,,,,,,,,,
42293,1645492047.982538,94.0,0.0,4467.692383,5014.871582,4192.820313,3976.4101560000004,4424.102539,450.0,4.0,86.0,,,,0.0,4.0,0.0,4.0,4.0,4.0,66.666664,,,,,,,,47.0,0.0,0.593853,-0.157959,0.644775,0.45458999999999994,0.9248190000000001,-0.413092,-0.109377,-0.033781,-0.037724,-0.028589,,,,,,,,,,,,,,,,,,,,,,,,,,,,,,,,,,,,,,,,,,,,,,,,,,,,,,,,,,,,,,,,,
42294,1645492047.9903538,95.0,0.0,4313.846191,5085.641113000001,4099.487305,3825.1281740000004,4243.077147999999,16194.0,4.0,86.0,,,,0.0,4.0,0.0,4.0,4.0,4.0,66.666664,,,,,,,,,,,,,,,,,,,,,,,,,,,,,,,,,,,,,,,,,,,,,,,,,,,,,,10.0,0.0,1.0,0.0,512.0,1.0,,,,,,,,,,,,,,,,,,,,,,,,,
42295,1645492047.998169,96.0,0.0,4363.589844,5000.512695,4130.256348,3853.8461909999996,4271.794922,450.0,4.0,86.0,,,,0.0,4.0,0.0,4.0,4.0,4.0,66.666664,,,,,,,,48.0,0.0,0.593853,-0.157959,0.644775,0.45458999999999994,0.9126120000000001,-0.400885,-0.10498199999999999,-0.03387,-0.037711,-0.024705,,,,,,,,,,,,,,,,,,,,,,,,,,,,,,,,,,,,,,,,,,,,,,,,,,,,,,,,,,,,,,,,,
42296,1645492048.005985,97.0,0.0,4461.025879,4908.205078,4185.641113000001,3958.461426,4378.974121,450.0,4.0,86.0,,,,0.0,4.0,0.0,4.0,4.0,4.0,66.666664,,,,,,,,,,,,,,,,,,,,,,,,,,,,,,,,,,,,,,,,,,,,,,,,,,,,,,,,,,,,,,,,,,,,,,,,,,,,,,,,,,,,
42297,1645492048.0138009,98.0,0.0,4404.615234000001,4932.820313,4151.282227000001,3914.358887,4330.769043,450.0,4.0,86.0,,,,0.0,4.0,0.0,4.0,4.0,4.0,66.666664,,,,,,,,49.0,0.0,0.593975,-0.158203,0.644775,0.454346,0.9077290000000001,-0.41113900000000003,-0.118654,-0.033852,-0.0377,-0.027507999999999998,,,,,,,,,,,,,,,,,,,,,,,,,,,,,,,,,,,,,,,,,,,,,,,,,,,,,,,,,,,,,,,,,
42298,1645492048.021616,99.0,0.0,4332.307617,4955.897461,4116.410156,3840.512939,4268.205078,16194.0,4.0,86.0,,,,0.0,4.0,0.0,4.0,4.0,4.0,66.666664,,,,,,,,,,,,,,,,,,,,1.0,0.0,0.0,,,,,,,,,,,,,,,,,,,,,,,,,,,,,,,,0.0,0.0,1.0,0.0,512.0,1.0,161.809616,61.363785,41.407753,33.748962,18.281351,28.098059000000003,2.724021,13.983296,12.170705,8.793797,58.316242,24.216542999999998,21.047937,16.872770000000003,7.6277029999999995,200.177032,73.15681500000001,38.669342,45.734825,19.188047,200.34993,69.049118,45.324096999999995,35.738087,17.904020000000003
42299,1645492048.029432,100.0,0.0,4348.205078,4950.256348,4134.358886999999,3857.4357909999994,4296.410156,450.0,4.0,86.0,,,,0.0,4.0,0.0,4.0,4.0,4.0,66.666664,,,,,,,,50.0,0.0,0.59424,-0.158203,0.6445310000000001,0.454346,0.9131,-0.399908,-0.11425999999999999,-0.033885000000000005,-0.037787,-0.029883999999999997,,,,,,,,,,,,,,,,,,,,,,,,,,,,,,,,,,,,,,,,,,,,,,,,,,,,,,,,,,,,,,,,,
42300,1645492048.037347,101.0,0.0,4354.358886999999,4974.871582,4145.641113000001,3865.1281740000004,4307.692383,450.0,4.0,86.0,,,,0.0,4.0,0.0,4.0,4.0,4.0,66.666664,,,,,,,,,,,,,,,,,,,,,,,,,,,,,,,,,,,,,,,,,,,,,,,,,,,,,,,,,,,,,,,,,,,,,,,,,,,,,,,,,,,,
42301,1645492048.0451632,102.0,0.0,4382.05127,4964.615234000001,4177.436035,3900.0,4337.94873,450.0,4.0,86.0,,,,0.0,4.0,0.0,4.0,4.0,4.0,66.666664,,,,,,,,51.0,0.0,0.59424,-0.158203,0.6445310000000001,0.454346,0.9131,-0.397955,-0.12255999999999999,-0.033817,-0.037866000000000004,-0.032169,,,,,,,,,,,,,,,,,,,,,,,,,,,,,,,,,,,,,,,,,,,,,,,,,,,,,,,,,,,,,,,,,
42302,1645492048.052979,103.0,0.0,4489.743652,4923.077147999999,4234.358886999999,4030.256348,4441.025879,16194.0,4.0,86.0,,,,0.0,4.0,0.0,4.0,4.0,4.0,66.666664,,,,,,,,,,,,,,,,,,,,,,,,,,,,,,,,,,,,,,,,,,,,,,,,,,,,,,0.0,0.0,1.0,0.0,512.0,1.0,,,,,,,,,,,,,,,,,,,,,,,,,
42303,1645492048.0607939,104.0,0.0,4516.410156,4930.256348,4218.974121,4058.461426,4448.717772999999,450.0,4.0,86.0,,,,0.0,4.0,0.0,4.0,4.0,4.0,66.666664,,,,,,,,52.0,0.0,0.5945050000000001,-0.158203,0.6442869999999999,0.454346,0.9150530000000001,-0.39453699999999997,-0.11084200000000001,-0.033755,-0.037937,-0.034079000000000005,,,,,,,,,,,,,,,,,,,,,,,,,,,,,,,,,,,,,,,,,,,,,,,,,,,,,,,,,,,,,,,,,
42304,1645492048.06861,105.0,0.0,4460.0,4983.077147999999,4178.461426,3952.820557,4377.436035,450.0,4.0,86.0,,,,0.0,4.0,0.0,4.0,4.0,4.0,66.666664,,,,,,,,,,,,,,,,,,,,,,,,,,,,,,,,,,,,,,,,,,,,,,,,,,,,,,,,,,,,,,,,,,,,,,,,,,,,,,,,,,,,
42305,1645492048.076425,106.0,0.0,4452.307617,5013.333496,4189.743652,3928.718018,4390.256348,450.0,4.0,86.0,,,,0.0,4.0,0.0,4.0,4.0,4.0,66.666664,,,,,,,,53.0,0.0,0.5945699999999999,-0.157959,0.6442869999999999,0.454346,0.9209129999999999,-0.409186,-0.121584,-0.0337,-0.038001,-0.035896,,,,,,,,,,,,,,,,,,,,,,,,,,,,,,,,,,,,,,,,,,,,,,,,,,,,,,,,,,,,,,,,,
42306,1645492048.084241,107.0,0.0,4454.358886999999,4953.846191,4197.436035,3983.5898439999996,4414.871582,16194.0,4.0,86.0,,,,0.0,4.0,0.0,4.0,4.0,4.0,66.666664,,,,,,,,,,,,,,,,,,,,,,,,,,,,,,,,,,,,,,,,,,,,,,,,,,,,,,0.0,0.0,1.0,0.0,512.0,1.0,,,,,,,,,,,,,,,,,,,,,,,,,
42307,1645492048.092057,108.0,0.0,4433.846191,4885.641113000001,4184.615234000001,3989.743652,4373.333496,450.0,4.0,86.0,,,,0.0,4.0,0.0,4.0,4.0,4.0,66.666664,,,,,,,,54.0,0.0,0.5945699999999999,-0.157959,0.6442869999999999,0.454346,0.917983,-0.404791,-0.11816600000000001,-0.033748,-0.03796,-0.031281,,,,,,,,,,,,,,,,,,,,,,,,,,,,,,,,,,,,,,,,,,,,,,,,,,,,,,,,,,,,,,,,,
42308,1645492048.099872,109.0,0.0,4451.794922,4904.102539,4187.179688,3970.7692869999996,4369.230957,450.0,4.0,86.0,,,,0.0,4.0,0.0,4.0,4.0,4.0,66.666664,,,,,,,,,,,,,,,,,,,,,,,,,,,,,,,,,,,,,,,,,,,,,,,,,,,,,,,,,,,,,,,,,,,,,,,,,,,,,,,,,,,,
42309,1645492048.107788,110.0,0.0,4464.102539,4937.436035,4185.128418,3951.794922,4407.692383,450.0,4.0,86.0,,,,0.0,4.0,0.0,4.0,4.0,4.0,66.666664,,,,,,,,55.0,0.0,0.5945699999999999,-0.157959,0.6442869999999999,0.454346,0.9233540000000001,-0.40283800000000003,-0.124025,-0.033791,-0.038022,-0.033280000000000004,,,,,,,,,,,,,,,,,,,,,,,,,,,,,,,,,,,,,,,,,,,,,,,,,,,,,,,,,,,,,,,,,
42310,1645492048.115603,111.0,0.0,4436.410156,4927.179688,4173.333496,3932.3076170000004,4400.512695,16194.0,4.0,86.0,,,,0.0,4.0,0.0,4.0,4.0,4.0,66.666664,,,,,,,,,,,,,,,,,,,,,,,,,,,,,,,,,,,,,,,,,,,,,,,,,,,,,,0.0,0.0,1.0,0.0,512.0,1.0,,,,,,,,,,,,,,,,,,,,,,,,,
42311,1645492048.123419,112.0,0.0,4437.436035,4903.077147999999,4180.0,3952.820557,4386.666504,450.0,4.0,86.0,,,,0.0,4.0,0.0,4.0,4.0,4.0,66.666664,,,,,,,,56.0,0.0,0.594956,-0.158203,0.644043,0.45410200000000006,0.9194479999999999,-0.410163,-0.130373,-0.03383,-0.037931,-0.028975,,,,,,,,,,,,,,,,,,,,,,,,,,,,,,,,,,,,,,,,,,,,,,,,,,,,,,,,,,,,,,,,,
42312,1645492048.131234,113.0,0.0,4480.512695,4884.615234000001,4201.025879,3992.3076170000004,4416.410156,450.0,4.0,86.0,,,,0.0,4.0,0.0,4.0,4.0,4.0,66.666664,,,,,,,,,,,,,,,,,,,,,,,,,,,,,,,,,,,,,,,,,,,,,,,,,,,,,,,,,,,,,,,,,,,,,,,,,,,,,,,,,,,,
42313,1645492048.13905,114.0,0.0,4538.974121,4901.538574,4228.717772999999,4024.615479,4465.128418,450.0,4.0,86.0,,,,0.0,4.0,0.0,4.0,4.0,4.0,66.666664,,,,,,,,57.0,0.0,0.59502,-0.157959,0.644043,0.45410200000000006,0.9194479999999999,-0.409674,-0.11816600000000001,-0.033914,-0.037849,-0.025004,,,,,,,,,,,,,,,,,,,,,,,,,,,,,,,,,,,,,,,,,,,,,,,,,,,,,,,,,,,,,,,,,
42314,1645492048.146866,115.0,0.0,4572.820313,4926.666504,4247.692383,4054.8718259999996,4492.820313,16194.0,4.0,86.0,,,,0.0,4.0,0.0,4.0,4.0,4.0,66.666664,1.0,16.666666,1.0,0.0,2.0,1.0,1.0,,,,,,,,,,,,,1.0,0.0,0.0,,,,,,,,,,,,,,,,,,,,,,,,,,,,,,,,0.0,0.0,1.0,0.0,512.0,1.0,180.215256,58.98974200000001,43.400271999999994,34.417961,17.966684,21.195581,2.318412,14.490741,13.113396,10.143568,60.830707999999994,21.716232,22.932451,16.763605,7.656217999999999,216.382843,66.545265,40.746326,43.55928,19.566689999999998,219.011475,64.78196700000001,47.216068,35.636982,18.276497
42315,1645492048.154681,116.0,0.0,4547.692383,4925.128418,4235.384765999999,4047.6923829999996,4496.922852000001,450.0,4.0,86.0,,,,0.0,4.0,0.0,4.0,4.0,4.0,66.666664,,,,,,,,58.0,0.0,0.594956,-0.158203,0.644043,0.45410200000000006,0.9160299999999999,-0.399908,-0.113771,-0.033794,-0.037775,-0.021478,,,,,,,,,,,,,,,,,,,,,,,,,,,,,,,,,,,,,,,,,,,,,,,,,,,,,,,,,,,,,,,,,
42316,1645492048.162497,117.0,0.0,4526.666504,4958.461426,4229.230957,4027.179443,4500.512695,450.0,4.0,86.0,,,,0.0,4.0,0.0,4.0,4.0,4.0,66.666664,,,,,,,,,,,,,,,,,,,,,,,,,,,,,,,,,,,,,,,,,,,,,,,,,,,,,,,,,,,,,,,,,,,,,,,,,,,,,,,,,,,,
42317,1645492048.170312,118.0,0.0,4524.615234000001,5018.461426,4228.717772999999,4032.820557,4482.05127,450.0,4.0,86.0,,,,0.0,4.0,0.0,4.0,4.0,4.0,66.666664,,,,,,,,59.0,0.0,0.594956,-0.158203,0.644043,0.45410200000000006,0.917006,-0.40235,-0.13281500000000002,-0.033882,-0.037855,-0.018305000000000002,,,,,,,,,,,,,,,,,,,,,,,,,,,,,,,,,,,,,,,,,,,,,,,,,,,,,,,,,,,,,,,,,
42318,1645492048.178128,119.0,0.0,4475.384765999999,5032.820313,4201.025879,4001.538574,4438.461426,16194.0,4.0,86.0,,,,0.0,4.0,0.0,4.0,4.0,4.0,66.666664,,,,,,,,,,,,,,,,,,,,,,,,,,,,,,,,,,,,,,,,,,,,,,,,,,,,,,0.0,0.0,1.0,0.0,512.0,1.0,,,,,,,,,,,,,,,,,,,,,,,,,
42319,1645492048.186044,120.0,0.0,4423.077147999999,4984.102539,4169.743652,3947.6923829999996,4418.974121,450.0,4.0,86.0,,,,0.0,4.0,0.0,4.0,4.0,4.0,66.666664,,,,,,,,60.0,0.0,0.5952850000000001,-0.157959,0.643799,0.45410200000000006,0.922377,-0.408209,-0.122072,-0.033912,-0.037926999999999995,-0.021699,,,,,,,,,,,,,,,,,,,,,,,,,,,,,,,,,,,,,,,,,,,,,,,,,,,,,,,,,,,,,,,,,
42320,1645492048.193859,121.0,0.0,4430.256348,4892.307617,4164.615234000001,3943.5898439999996,4412.820313,450.0,4.0,86.0,,,,0.0,4.0,0.0,4.0,4.0,4.0,66.666664,,,,,,,,,,,,,,,,,,,,,,,,,,,,,,,,,,,,,,,,,,,,,,,,,,,,,,,,,,,,,,,,,,,,,,,,,,,,,,,,,,,,
42321,1645492048.201675,122.0,0.0,4453.333496,4866.666504,4171.794922,3963.076904,4402.05127,450.0,4.0,86.0,,,,0.0,4.0,0.0,4.0,4.0,4.0,66.666664,,,,,,,,61.0,0.0,0.59522,-0.158203,0.643799,0.45410200000000006,0.932631,-0.39942,-0.118654,-0.033938,-0.037943,-0.018552000000000003,,,,,,,,,,,,,,,,,,,,,,,,,,,,,,,,,,,,,,,,,,,,,,,,,,,,,,,,,,,,,,,,,
42322,1645492048.20949,123.0,0.0,4412.820313,4898.974121,4154.358886999999,3937.9487299999996,4394.358886999999,16194.0,4.0,86.0,,,,0.0,4.0,0.0,4.0,4.0,4.0,66.666664,,,,,,,,,,,,,,,,,,,,,,,,,,,,,,,,,,,,,,,,,,,,,,,,,,,,,,0.0,0.0,1.0,0.0,512.0,1.0,,,,,,,,,,,,,,,,,,,,,,,,,
42323,1645492048.2173061,124.0,0.0,4345.641113000001,4871.282227000001,4123.077147999999,3864.615479,4351.282227000001,450.0,4.0,86.0,,,,0.0,4.0,0.0,4.0,4.0,4.0,66.666664,,,,,,,,62.0,0.0,0.59522,-0.158203,0.643799,0.45410200000000006,0.9365379999999999,-0.406256,-0.113771,-0.033914,-0.038055,-0.021971,,,,,,,,,,,,,,,,,,,,,,,,,,,,,,,,,,,,,,,,,,,,,,,,,,,,,,,,,,,,,,,,,
42324,1645492048.225122,125.0,0.0,4391.282227000001,4842.05127,4152.307617,3882.0512700000004,4335.897461,450.0,4.0,86.0,,,,0.0,4.0,0.0,4.0,4.0,4.0,66.666664,,,,,,,,,,,,,,,,,,,,,,,,,,,,,,,,,,,,,,,,,,,,,,,,,,,,,,,,,,,,,,,,,,,,,,,,,,,,,,,,,,,,
42325,1645492048.2329369,126.0,0.0,4464.615234000001,4899.487305,4188.205078,3985.1281740000004,4381.025879,450.0,4.0,86.0,,,,0.0,4.0,0.0,4.0,4.0,4.0,66.666664,,,,,,,,63.0,0.0,0.5952850000000001,-0.157959,0.643799,0.45410200000000006,0.922377,-0.408209,-0.122072,-0.03394,-0.038107,-0.024998,,,,,,,,,,,,,,,,,,,,,,,,,,,,,,,,,,,,,,,,,,,,,,,,,,,,,,,,,,,,,,,,,
42326,1645492048.240753,127.0,0.0,4381.538574,4918.974121,4141.025879,3956.4101560000004,4350.256348,241.0,4.0,86.0,,,,0.0,4.0,0.0,4.0,4.0,4.0,66.666664,,,,,,,,,,,,,,,,,,,,,,,,,,,,,,,,,,,,,,,,,,,,,,,,,,,,,,10.0,0.0,1.0,0.0,512.0,1.0,,,,,,,,,,,,,,,,,,,,,,,,,
42327,1645492048.248568,0.0,0.0,4289.230957,4838.974121,4107.692383,3862.0512700000004,4272.820313,450.0,4.0,86.0,,,,0.0,4.0,0.0,4.0,4.0,4.0,66.666664,,,,,,,,0.0,0.0,0.595155,-0.158447,0.643799,0.45410200000000006,0.918959,-0.401373,-0.127443,-0.033964,-0.038105,-0.021522,,,,,,,,,,,,,,,,,,,,,,,,,,,,,,,,,,,,,,,,,,,,,,,,,,,,,,,,,,,,,,,,,
42328,1645492048.256484,1.0,0.0,4336.922852000001,4803.077147999999,4144.102539,3911.794922,4285.641113000001,450.0,4.0,86.0,,,,0.0,4.0,0.0,4.0,4.0,4.0,66.666664,,,,,,,,,,,,,,,,,,,,,,,,,,,,,,,,,,,,,,,,,,,,,,,,,,,,,,,,,,,,,,,,,,,,,,,,,,,,,,,,,,,,
42329,1645492048.264299,2.0,0.0,4422.05127,4885.128418,4173.333496,3994.8718259999996,4369.230957,16245.0,4.0,86.0,,,,0.0,4.0,0.0,4.0,4.0,4.0,66.666664,,,,,,,,1.0,0.0,0.5954189999999999,-0.158447,0.643555,0.45410200000000006,0.9150530000000001,-0.40576799999999996,-0.129885,-0.034035,-0.038054000000000004,-0.024594,,,,,,,,,,,,,,,,,,,,,,,,,,,,,,,,,,,,,,,,,,,,,,,,,,,,,,,,,,,,,,,,,
42330,1645492048.272115,3.0,0.0,4452.820313,4942.563965,4181.538574,3968.205078,4416.410156,450.0,4.0,86.0,,,,0.0,4.0,0.0,4.0,4.0,4.0,66.666664,,,,,,,,,,,,,,,,,,,,1.0,0.0,0.0,,,,,,,,,,,,,,,,,,,,,,,,,,,,,,,,10.0,0.0,1.0,0.0,512.0,1.0,188.105377,60.942974,44.190273,33.481730999999996,16.801147,15.404225,2.228466,15.381864000000002,13.784638000000001,11.446073,59.852787,21.183975,24.298748,15.457587,7.322556,219.75386,63.117073,42.066792,38.816952,18.928526,222.11798100000001,63.11418199999999,48.033749,33.810852000000004,17.829367
42331,1645492048.279931,4.0,0.0,4408.717772999999,4858.461426,4170.769043,3919.487061,4385.641113000001,2.0,4.0,86.0,,,,0.0,4.0,0.0,4.0,4.0,4.0,66.666664,,,,,,,,2.0,0.0,0.59554,-0.158691,0.643555,0.45385699999999995,0.922377,-0.398932,-0.120119,-0.034000999999999997,-0.038155,-0.027408999999999996,,,,,,,,,,,,,,,,,,,,,,,,,,,,,,,,,,,,,,,,,,,,,,,,,,,,,,,,,,,,,,,,,
42332,1645492048.2877462,5.0,0.0,4353.846191,4793.846191,4132.820313,3907.179443,4337.94873,450.0,4.0,86.0,,,,0.0,4.0,0.0,4.0,4.0,4.0,66.666664,,,,,,,,,,,,,,,,,,,,,,,,,,,,,,,,,,,,,,,,,,,,,,,,,,,,,,,,,,,,,,,,,,,,,,,,,,,,,,,,,,,,
42333,1645492048.295562,6.0,0.0,4423.077147999999,4869.743652,4162.05127,3945.641113,4383.589844,16068.0,4.0,86.0,,,,0.0,4.0,0.0,4.0,4.0,4.0,66.666664,,,,,,,,3.0,0.0,0.59554,-0.158691,0.643555,0.45385699999999995,0.9233540000000001,-0.406744,-0.129397,-0.033872,-0.038197,-0.02999,,,,,,,,,,,,,,,,,,,,,,,,,,,,,,,,,,,,,,,,,,,,,,,,,,,,,,,,,,,,,,,,,
42334,1645492048.303377,7.0,0.0,4544.102539,4937.436035,4251.794922,4040.0,4515.897461,450.0,4.0,86.0,,,,0.0,4.0,0.0,4.0,4.0,4.0,66.666664,,,,,,,,,,,,,,,,,,,,,,,,,,,,,,,,,,,,,,,,,,,,,,,,,,,,,,10.0,0.0,1.0,0.0,512.0,1.0,,,,,,,,,,,,,,,,,,,,,,,,,
42335,1645492048.311193,8.0,0.0,4536.922852000001,4876.410156,4252.307617,4081.025635,4549.743652,450.0,4.0,86.0,,,,0.0,4.0,0.0,4.0,4.0,4.0,66.666664,,,,,,,,4.0,0.0,0.595804,-0.158691,0.643311,0.45385699999999995,0.922377,-0.399908,-0.127443,-0.033854,-0.038038999999999996,-0.032216,,,,,,,,,,,,,,,,,,,,,,,,,,,,,,,,,,,,,,,,,,,,,,,,,,,,,,,,,,,,,,,,,
42336,1645492048.319009,9.0,0.0,4433.333496,4809.743652,4155.897461,3991.281982,4432.820313,16203.0,4.0,86.0,,,,0.0,4.0,0.0,4.0,4.0,4.0,66.666664,,,,,,,,,,,,,,,,,,,,,,,,,,,,,,,,,,,,,,,,,,,,,,,,,,,,,,,,,,,,,,,,,,,,,,,,,,,,,,,,,,,,
42337,1645492048.326924,10.0,0.0,4336.922852000001,4838.461426,4081.538574,3842.5642090000006,4311.794922,450.0,4.0,86.0,,,,0.0,4.0,0.0,4.0,4.0,4.0,66.666664,,,,,,,,5.0,0.0,0.595804,-0.158691,0.643311,0.45385699999999995,0.9077290000000001,-0.395514,-0.118654,-0.033789,-0.037995,-0.034268,,,,,,,,,,,,,,,,,,,,,,,,,,,,,,,,,,,,,,,,,,,,,,,,,,,,,,,,,,,,,,,,,
42338,1645492048.33474,11.0,0.0,4268.205078,4862.563965,4066.1538090000004,3775.384521,4267.179688,16221.0,4.0,86.0,,,,0.0,4.0,0.0,4.0,4.0,4.0,66.666664,,,,,,,,,,,,,,,,,,,,,,,,,,,,,,,,,,,,,,,,,,,,,,,,,,,,,,10.0,0.0,1.0,0.0,512.0,1.0,,,,,,,,,,,,,,,,,,,,,,,,,
42339,1645492048.342555,12.0,0.0,4298.974121,4831.794922,4111.794922,3843.5898439999996,4302.563965,450.0,4.0,86.0,,,,0.0,4.0,0.0,4.0,4.0,4.0,66.666664,,,,,,,,6.0,0.0,0.5959899999999999,-0.158691,0.643311,0.453613,0.9155409999999999,-0.39942,-0.12060699999999999,-0.033632999999999996,-0.03776,-0.029863999999999998,,,,,,,,,,,,,,,,,,,,,,,,,,,,,,,,,,,,,,,,,,,,,,,,,,,,,,,,,,,,,,,,,
42340,1645492048.3503711,13.0,0.0,4445.641113000001,4815.384765999999,4190.256348,3968.205078,4400.512695,450.0,4.0,86.0,,,,0.0,4.0,0.0,4.0,4.0,4.0,66.666664,,,,,,,,,,,,,,,,,,,,,,,,,,,,,,,,,,,,,,,,,,,,,,,,,,,,,,,,,,,,,,,,,,,,,,,,,,,,,,,,,,,,
42341,1645492048.358187,14.0,0.0,4549.743652,4855.897461,4217.436035,4028.718018,4476.410156,450.0,4.0,86.0,,,,0.0,4.0,0.0,4.0,4.0,4.0,66.666664,,,,,,,,7.0,0.0,0.5959899999999999,-0.158691,0.643311,0.453613,0.9111469999999999,-0.394049,-0.109377,-0.033589999999999995,-0.037793,-0.032103,,,,,,,,,,,,,,,,,,,,,,,,,,,,,,,,,,,,,,,,,,,,,,,,,,,,,,,,,,,,,,,,,
42342,1645492048.3660018,15.0,0.0,4490.256348,4910.256348,4173.333496,4003.076904,4442.05127,16221.0,4.0,86.0,,,,0.0,4.0,0.0,4.0,4.0,4.0,66.666664,,,,,,,,,,,,,,,,,,,,,,,,,,,,,,,,,,,,,,,,,,,,,,,,,,,,,,10.0,0.0,1.0,0.0,512.0,1.0,,,,,,,,,,,,,,,,,,,,,,,,,
42343,1645492048.373818,16.0,0.0,4395.897461,4935.384765999999,4145.641113000001,3969.743652,4367.179688,0.0,4.0,86.0,,,,0.0,4.0,0.0,4.0,4.0,4.0,66.666664,,,,,,,,8.0,0.0,0.596188,-0.158936,0.643066,0.453613,0.9306780000000001,-0.40235,-0.11718900000000002,-0.033551,-0.037773,-0.027867000000000003,,,,,,,,,,,,,,,,,,,,,,,,,,,,,,,,,,,,,,,,,,,,,,,,,,,,,,,,,,,,,,,,,
42344,1645492048.381633,17.0,0.0,4433.846191,4911.794922,4178.974121,3969.743652,4390.256348,0.0,4.0,86.0,,,,0.0,4.0,0.0,4.0,4.0,4.0,66.666664,,,,,,,,,,,,,,,,,,,,,,,,,,,,,,,,,,,,,,,,,,,,,,,,,,,,,,,,,,,,,,,,,,,,,,,,,,,,,,,,,,,,
42345,1645492048.3894491,18.0,0.0,4526.666504,4847.692383,4213.333496,3989.2307130000004,4486.666504,0.0,4.0,86.0,,,,0.0,4.0,0.0,4.0,4.0,4.0,66.666664,,,,,,,,9.0,0.0,0.5962529999999999,-0.158691,0.643066,0.453613,0.916518,-0.39942,-0.132326,-0.033468,-0.037756,-0.030305000000000002,,,,,,,,,,,,,,,,,,,,,,,,,,,,,,,,,,,,,,,,,,,,,,,,,,,,,,,,,,,,,,,,,
42346,1645492048.397265,19.0,0.0,4522.05127,4794.871582,4193.333496,3994.8718259999996,4507.179688,0.0,4.0,86.0,,,,0.0,4.0,0.0,4.0,4.0,4.0,66.666664,,,,,,,,,,,,,,,,,,,,1.0,0.0,0.0,,,,,,,,,,,,,,,,,,,,,,,,,,,,,,,,0.0,0.0,1.0,0.0,512.0,1.0,183.92875700000002,65.77407099999999,42.156223,30.976557,15.132589999999999,11.457081,2.66767,17.073898,14.467355,12.382364,55.586346,22.534065,24.106939,13.285060000000001,6.72618,208.596939,62.789921,41.32711,32.757553,17.449703,208.799911,63.439354,46.292922999999995,30.515905,16.817591
42347,1645492048.40518,20.0,0.0,4447.692383,4775.897461,4119.487305,3961.538574,4413.333496,0.0,4.0,86.0,,,,0.0,4.0,0.0,4.0,4.0,4.0,66.666664,,,,,,,,10.0,0.0,0.596318,-0.158447,0.643066,0.453613,0.917983,-0.383307,-0.13086099999999998,-0.033441000000000005,-0.037739999999999996,-0.032499,,,,,,,,,,,,,,,,,,,,,,,,,,,,,,,,,,,,,,,,,,,,,,,,,,,,,,,,,,,,,,,,,
42348,1645492048.412996,21.0,0.0,4434.358886999999,4795.897461,4077.9487299999996,3903.076904,4356.410156,0.0,4.0,86.0,,,,0.0,4.0,0.0,4.0,4.0,4.0,66.666664,,,,,,,,,,,,,,,,,,,,,,,,,,,,,,,,,,,,,,,,,,,,,,,,,,,,,,,,,,,,,,,,,,,,,,,,,,,,,,,,,,,,
42349,1645492048.420811,22.0,0.0,4514.358886999999,4829.230957,4116.922852000001,3917.9487299999996,4441.538574,0.0,4.0,86.0,,,,0.0,4.0,0.0,4.0,4.0,4.0,66.666664,,,,,,,,11.0,0.0,0.596184,-0.157959,0.643311,0.453613,0.9209129999999999,-0.385748,-0.130373,-0.033514999999999996,-0.037775,-0.034474,,,,,,,,,,,,,,,,,,,,,,,,,,,,,,,,,,,,,,,,,,,,,,,,,,,,,,,,,,,,,,,,,
42350,1645492048.428627,23.0,0.0,4564.615234000001,4856.410156,4124.615234000001,3962.0512700000004,4515.384765999999,0.0,4.0,86.0,,,,0.0,4.0,0.0,4.0,4.0,4.0,66.666664,,,,,,,,,,,,,,,,,,,,,,,,,,,,,,,,,,,,,,,,,,,,,,,,,,,,,,0.0,0.0,1.0,0.0,512.0,1.0,,,,,,,,,,,,,,,,,,,,,,,,,
42351,1645492048.436442,24.0,0.0,4578.461426,4866.666504,4108.205078,3951.281982,4524.102539,0.0,4.0,86.0,,,,0.0,4.0,0.0,4.0,4.0,4.0,66.666664,,,,,,,,12.0,0.0,0.595851,-0.157227,0.643799,0.453613,0.922377,-0.38477100000000003,-0.133303,-0.033533,-0.037806,-0.030148,,,,,,,,,,,,,,,,,,,,,,,,,,,,,,,,,,,,,,,,,,,,,,,,,,,,,,,,,,,,,,,,,
42352,1645492048.444258,25.0,0.0,4680.512695,4817.94873,4176.410156,4005.1281740000004,4631.282227000001,0.0,4.0,86.0,,,,0.0,4.0,0.0,4.0,4.0,4.0,66.666664,,,,,,,,,,,,,,,,,,,,,,,,,,,,,,,,,,,,,,,,,,,,,,,,,,,,,,,,,,,,,,,,,,,,,,,,,,,,,,,,,,,,
42353,1645492048.452074,26.0,0.0,4800.0,4772.820313,4202.563965,4081.025635,4777.436035,0.0,4.0,86.0,,,,0.0,4.0,0.0,4.0,4.0,4.0,66.666664,,,,,,,,13.0,0.0,0.5953430000000001,-0.15673800000000002,0.644043,0.45410200000000006,0.9243309999999999,-0.354986,-0.118654,-0.033549,-0.037883,-0.026106999999999998,,,,,,,,,,,,,,,,,,,,,,,,,,,,,,,,,,,,,,,,,,,,,,,,,,,,,,,,,,,,,,,,,
42354,1645492048.4598892,27.0,0.0,4850.256348,4841.538574,4130.256348,4037.4357909999994,4793.846191,0.0,4.0,86.0,,,,0.0,4.0,0.0,4.0,4.0,4.0,66.666664,,,,,,,,,,,,,,,,,,,,,,,,,,,,,,,,,,,,,,,,,,,,,,,,,,,,,,0.0,0.0,1.0,0.0,512.0,1.0,,,,,,,,,,,,,,,,,,,,,,,,,
42355,1645492048.467705,28.0,0.0,5005.128418,4873.333496,4139.487305,4025.1281740000004,4818.461426,0.0,4.0,86.0,,,,0.0,4.0,0.0,4.0,4.0,4.0,66.666664,,,,,,,,14.0,0.0,0.594634,-0.156006,0.6445310000000001,0.45458999999999994,0.9111469999999999,-0.37158800000000003,-0.11767799999999999,-0.033612,-0.037854,-0.028720999999999997,,,,,,,,,,,,,,,,,,,,,,,,,,,,,,,,,,,,,,,,,,,,,,,,,,,,,,,,,,,,,,,,,
42356,1645492048.47562,29.0,0.0,5295.897461,4740.512695,4225.128418,4131.794922,4954.871582,0.0,4.0,86.0,,,,0.0,4.0,0.0,4.0,4.0,4.0,66.666664,,,,,,,,,,,,,,,,,,,,,,,,,,,,,,,,,,,,,,,,,,,,,,,,,,,,,,,,,,,,,,,,,,,,,,,,,,,,,,,,,,,,
42357,1645492048.4834359,30.0,0.0,5549.743652,4692.820313,4205.128418,4133.333496,4995.384765999999,0.0,4.0,86.0,,,,0.0,4.0,0.0,4.0,4.0,4.0,66.666664,,,,,,,,15.0,0.0,0.594187,-0.155273,0.644775,0.455078,0.938491,-0.415534,-0.11425999999999999,-0.033669,-0.037975,-0.031318,,,,,,,,,,,,,,,,,,,,,,,,,,,,,,,,,,,,,,,,,,,,,,,,,,,,,,,,,,,,,,,,,
42358,1645492048.491252,31.0,0.0,5944.102539,4853.846191,4140.512695,4067.179443,4958.974121,0.0,4.0,86.0,,,,0.0,4.0,0.0,4.0,4.0,4.0,66.666664,,,,,,,,,,,,,,,,,,,,,,,,,,,,,,,,,,,,,,,,,,,,,,,,,,,,,,0.0,0.0,1.0,0.0,512.0,1.0,,,,,,,,,,,,,,,,,,,,,,,,,
42359,1645492048.499067,32.0,0.0,6601.538574,4934.871582,4136.410156,4125.128418,5020.512695,0.0,4.0,86.0,,,,0.0,4.0,0.0,4.0,4.0,4.0,66.666664,,,,,,,,16.0,0.0,0.593675,-0.15478499999999998,0.6450199999999999,0.45556599999999997,0.9194479999999999,-0.408698,-0.119631,-0.033671,-0.037986,-0.033509,,,,,,,,,,,,,,,,,,,,,,,,,,,,,,,,,,,,,,,,,,,,,,,,,,,,,,,,,,,,,,,,,
42360,1645492048.506883,33.0,0.0,7164.102539,4846.153809,4130.256348,4175.384765999999,5091.794922,0.0,4.0,86.0,,,,0.0,4.0,0.0,4.0,4.0,4.0,66.666664,,,,,,,,,,,,,,,,,,,,,,,,,,,,,,,,,,,,,,,,,,,,,,,,,,,,,,,,,,,,,,,,,,,,,,,,,,,,,,,,,,,,
42361,1645492048.514698,34.0,0.0,7478.461426000001,4856.922852000001,4141.538574,4184.615234000001,5139.487305,0.0,4.0,86.0,,,,0.0,4.0,0.0,4.0,4.0,4.0,66.666664,,,,,,,,17.0,0.0,0.594634,-0.156006,0.6445310000000001,0.45458999999999994,0.9111469999999999,-0.37158800000000003,-0.11767799999999999,-0.033722,-0.037948,-0.035382,,,,,,,,,,,,,,,,,,,,,,,,,,,,,,,,,,,,,,,,,,,,,,,,,,,,,,,,,,,,,,,,,
42362,1645492048.522514,35.0,0.0,7683.589844,4999.487305,4152.820313,4225.128418,5207.692383,0.0,4.0,86.0,,,,0.0,4.0,0.0,4.0,4.0,4.0,66.666664,,,,,,,,,,,,,,,,,,,,1.0,0.0,0.0,,,,,,,,,,,,,,,,,,,,,,,,,,,,,,,,0.0,0.0,1.0,0.0,512.0,0.321328,167.797256,71.78166999999999,37.525154,27.705133,13.523026000000002,10.060432,4.189225,19.486492000000002,15.376532999999998,12.793663,48.70153,25.154631,22.161735999999998,10.888199,6.076903,183.960083,64.621361,38.186253,27.085938,15.694114,182.62493899999998,65.45639,42.057598,26.529987,15.728329
42363,1645492048.5303302,36.0,0.0,7798.974120999999,5024.615234000001,4115.384765999999,4224.102539,5250.256348,0.0,4.0,86.0,,,,0.0,4.0,0.0,4.0,4.0,4.0,66.666664,,,,,,,,18.0,0.0,0.593675,-0.15478499999999998,0.6450199999999999,0.45556599999999997,0.9194479999999999,-0.408698,-0.119631,-0.033719,-0.037961,-0.037167,,,,,,,,,,,,,,,,,,,,,,,,,,,,,,,,,,,,,,,,,,,,,,,,,,,,,,,,,,,,,,,,,
42364,1645492048.5381448,37.0,0.0,7830.769043000001,4915.384765999999,4103.589844,4202.05127,5285.641113000001,0.0,4.0,86.0,,,,0.0,4.0,0.0,4.0,4.0,4.0,66.666664,,,,,,,,,,,,,,,,,,,,,,,,,,,,,,,,,,,,,,,,,,,,,,,,,,,,,,,,,,,,,,,,,,,,,,,,,,,,,,,,,,,,
42365,1645492048.546061,38.0,0.0,7811.282227,4910.769043,4143.589844,4233.333496,5325.128418,0.0,4.0,86.0,,,,0.0,4.0,0.0,4.0,4.0,4.0,66.666664,,,,,,,,19.0,0.0,0.593831,-0.15478499999999998,0.6445310000000001,0.45605500000000004,0.8881969999999999,-0.407721,-0.118654,-0.033716,-0.037974,-0.032473,,,,,,,,,,,,,,,,,,,,,,,,,,,,,,,,,,,,,,,,,,,,,,,,,,,,,,,,,,,,,,,,,
42366,1645492048.553876,39.0,0.0,7717.94873,4985.128418,4134.871582,4236.410156,5292.307617,0.0,4.0,86.0,,,,0.0,4.0,0.0,4.0,4.0,4.0,66.666664,,,,,,,,,,,,,,,,,,,,,,,,,,,,,,,,,,,,,,,,,,,,,,,,,,,,,,0.0,0.0,1.0,0.0,512.0,0.321328,,,,,,,,,,,,,,,,,,,,,,,,,
42367,1645492048.561692,40.0,0.0,7581.025879000001,4958.974121,4090.7692869999996,4196.922852000001,5244.615234000001,0.0,4.0,86.0,,,,0.0,4.0,0.0,4.0,4.0,4.0,66.666664,,,,,,,,20.0,0.0,0.594046,-0.155273,0.644043,0.45629899999999995,0.9131,-0.427741,-0.12842,-0.033616,-0.038132,-0.034499,,,,,,,,,,,,,,,,,,,,,,,,,,,,,,,,,,,,,,,,,,,,,,,,,,,,,,,,,,,,,,,,,
42368,1645492048.5695071,41.0,0.0,7372.307617,4912.820313,4101.538574,4166.666504,5220.0,0.0,4.0,86.0,,,,0.0,4.0,0.0,4.0,4.0,4.0,66.666664,,,,,,,,,,,,,,,,,,,,,,,,,,,,,,,,,,,,,,,,,,,,,,,,,,,,,,,,,,,,,,,,,,,,,,,,,,,,,,,,,,,,
42369,1645492048.577323,42.0,0.0,6991.794922,4981.538574,4098.461426,4101.025879,5095.384765999999,0.0,4.0,86.0,,,,0.0,4.0,0.0,4.0,4.0,4.0,66.666664,,,,,,,,21.0,0.0,0.5944470000000001,-0.15576199999999998,0.643555,0.45629899999999995,0.9233540000000001,-0.437507,-0.116701,-0.033624,-0.038176,-0.029925999999999998,,,,,,,,,,,,,,,,,,,,,,,,,,,,,,,,,,,,,,,,,,,,,,,,,,,,,,,,,,,,,,,,,
42370,1645492048.585139,43.0,0.0,6560.0,5007.692383,4046.6667479999996,4056.923096,4943.589844,0.0,4.0,86.0,,,,0.0,4.0,0.0,4.0,4.0,4.0,66.666664,,,,,,,,,,,,,,,,,,,,,,,,,,,,,,,,,,,,,,,,,,,,,,,,,,,,,,0.0,0.0,1.0,0.0,512.0,0.321328,,,,,,,,,,,,,,,,,,,,,,,,,
42371,1645492048.592954,44.0,0.0,6210.256348,4882.563965,4054.358887,4095.897461,4897.94873,0.0,4.0,86.0,,,,0.0,4.0,0.0,4.0,4.0,4.0,66.666664,,,,,,,,22.0,0.0,0.5951569999999999,-0.156494,0.643066,0.45581099999999997,0.905776,-0.436042,-0.119631,-0.033631,-0.038118,-0.032012,,,,,,,,,,,,,,,,,,,,,,,,,,,,,,,,,,,,,,,,,,,,,,,,,,,,,,,,,,,,,,,,,
42372,1645492048.60077,45.0,0.0,5863.077147999999,4794.871582,4126.666504,4109.743652,4862.05127,0.0,4.0,86.0,,,,0.0,4.0,0.0,4.0,4.0,4.0,66.666664,,,,,,,,,,,,,,,,,,,,,,,,,,,,,,,,,,,,,,,,,,,,,,,,,,,,,,,,,,,,,,,,,,,,,,,,,,,,,,,,,,,,
42373,1645492048.608585,46.0,0.0,5547.692383,4772.820313,4133.846191,4064.615479,4751.794922,0.0,4.0,86.0,,,,0.0,4.0,0.0,4.0,4.0,4.0,66.666664,,,,,,,,23.0,0.0,0.595917,-0.15673800000000002,0.642822,0.455078,0.9199360000000001,-0.42920600000000003,-0.127443,-0.033539,-0.038262,-0.034083999999999996,,,,,,,,,,,,,,,,,,,,,,,,,,,,,,,,,,,,,,,,,,,,,,,,,,,,,,,,,,,,,,,,,
42374,1645492048.616501,47.0,0.0,5402.05127,4738.974121,4070.7692869999996,4062.5642090000006,4651.282227000001,0.0,4.0,86.0,,,,0.0,4.0,0.0,4.0,4.0,4.0,66.666664,,,,,,,,,,,,,,,,,,,,,,,,,,,,,,,,,,,,,,,,,,,,,,,,,,,,,,0.0,0.0,1.0,0.0,512.0,0.321328,,,,,,,,,,,,,,,,,,,,,,,,,
42375,1645492048.624317,48.0,0.0,5326.666504,4741.025879,4077.9487299999996,4094.8718259999996,4615.897461,0.0,4.0,86.0,,,,0.0,4.0,0.0,4.0,4.0,4.0,66.666664,,,,,,,,24.0,0.0,0.596597,-0.15698199999999998,0.642822,0.45410200000000006,0.914076,-0.407721,-0.130373,-0.033652,-0.038146,-0.035949,,,,,,,,,,,,,,,,,,,,,,,,,,,,,,,,,,,,,,,,,,,,,,,,,,,,,,,,,,,,,,,,,
42376,1645492048.632132,49.0,0.0,5142.05127,4764.615234000001,4104.102539,4069.743652,4548.205078,0.0,4.0,86.0,,,,0.0,4.0,0.0,4.0,4.0,4.0,66.666664,,,,,,,,,,,,,,,,,,,,,,,,,,,,,,,,,,,,,,,,,,,,,,,,,,,,,,,,,,,,,,,,,,,,,,,,,,,,,,,,,,,,
42377,1645492048.6399481,50.0,0.0,4953.846191,4718.461426,4072.820557,4034.358887,4430.769043,0.0,4.0,86.0,,,,0.0,4.0,0.0,4.0,4.0,4.0,66.666664,,,,,,,,25.0,0.0,0.596968,-0.15698199999999998,0.642822,0.453613,0.9272600000000001,-0.392096,-0.13379100000000002,-0.033656,-0.03814,-0.037579,,,,,,,,,,,,,,,,,,,,,,,,,,,,,,,,,,,,,,,,,,,,,,,,,,,,,,,,,,,,,,,,,
42378,1645492048.647763,51.0,0.0,4898.974121,4648.717772999999,4076.923096,4054.8718259999996,4393.846191,0.0,4.0,86.0,,,,0.0,4.0,0.0,4.0,4.0,4.0,66.666664,1.0,8.333333,0.0,0.0,2.0,1.0,1.0,,,,,,,,,,,,,1.0,0.0,0.0,,,,,,,,,,,,,,,,,,,,,,,,,,,,,,,,0.0,0.0,1.0,0.0,512.0,0.237537,153.718445,76.566841,32.248321999999995,24.958845,12.549656,10.735892,7.288639999999999,22.248846,16.377626,12.808119999999999,40.51041,28.418139,19.296091,9.02378,5.58707,149.501175,67.687737,33.966805,23.420574,14.289554,147.338165,69.087982,37.295258000000004,23.051435,15.015505
42379,1645492048.6555789,52.0,0.0,4856.922852000001,4650.256348,4112.820313,4076.4101560000004,4418.461426,0.0,4.0,86.0,,,,0.0,4.0,0.0,4.0,4.0,4.0,66.666664,,,,,,,,26.0,0.0,0.597403,-0.15673800000000002,0.642822,0.453125,0.931167,-0.383307,-0.12255999999999999,-0.033415,-0.038135,-0.039095,,,,,,,,,,,,,,,,,,,,,,,,,,,,,,,,,,,,,,,,,,,,,,,,,,,,,,,,,,,,,,,,,
42380,1645492048.663394,53.0,0.0,4717.94873,4665.641113000001,4092.3076170000004,4044.615479,4376.922852000001,0.0,4.0,86.0,,,,0.0,4.0,0.0,4.0,4.0,4.0,66.666664,,,,,,,,,,,,,,,,,,,,,,,,,,,,,,,,,,,,,,,,,,,,,,,,,,,,,,,,,,,,,,,,,,,,,,,,,,,,,,,,,,,,
42381,1645492048.67121,54.0,0.0,4554.871582,4629.743652,4051.794922,3996.923096,4293.333496,0.0,4.0,86.0,,,,0.0,4.0,0.0,4.0,4.0,4.0,66.666664,,,,,,,,27.0,0.0,0.597204,-0.156494,0.643066,0.453125,0.923842,-0.382818,-0.129397,-0.033443,-0.038130000000000004,-0.03416,,,,,,,,,,,,,,,,,,,,,,,,,,,,,,,,,,,,,,,,,,,,,,,,,,,,,,,,,,,,,,,,,
42382,1645492048.679026,55.0,0.0,4433.333496,4562.563965,4049.2307130000004,3949.743652,4224.615234000001,0.0,4.0,86.0,,,,0.0,4.0,0.0,4.0,4.0,4.0,66.666664,,,,,,,,,,,,,,,,,,,,,,,,,,,,,,,,,,,,,,,,,,,,,,,,,,,,,,0.0,0.0,1.0,0.0,512.0,0.237537,,,,,,,,,,,,,,,,,,,,,,,,,
42383,1645492048.686841,56.0,0.0,4339.487305,4556.410156,4045.641113,3898.461426,4173.333496,0.0,4.0,86.0,,,,0.0,4.0,0.0,4.0,4.0,4.0,66.666664,,,,,,,,28.0,0.0,0.597467,-0.156494,0.642822,0.453125,0.922866,-0.383307,-0.11425999999999999,-0.033517,-0.038175,-0.036066,,,,,,,,,,,,,,,,,,,,,,,,,,,,,,,,,,,,,,,,,,,,,,,,,,,,,,,,,,,,,,,,,
42384,1645492048.694757,57.0,0.0,4295.384765999999,4590.256348,4053.8461909999996,3906.1538090000004,4185.641113000001,0.0,4.0,86.0,,,,0.0,4.0,0.0,4.0,4.0,4.0,66.666664,,,,,,,,,,,,,,,,,,,,,,,,,,,,,,,,,,,,,,,,,,,,,,,,,,,,,,,,,,,,,,,,,,,,,,,,,,,,,,,,,,,,
42385,1645492048.702572,58.0,0.0,4258.974121,4564.615234000001,4070.7692869999996,3934.358887,4189.230957,0.0,4.0,86.0,,,,0.0,4.0,0.0,4.0,4.0,4.0,66.666664,,,,,,,,29.0,0.0,0.597282,-0.156494,0.642822,0.45336899999999997,0.9272600000000001,-0.384283,-0.12451400000000001,-0.033533999999999994,-0.038068,-0.031337000000000004,,,,,,,,,,,,,,,,,,,,,,,,,,,,,,,,,,,,,,,,,,,,,,,,,,,,,,,,,,,,,,,,,
42386,1645492048.7103882,59.0,0.0,4207.179688,4539.487305,4075.384521,3912.3076170000004,4145.128418,0.0,4.0,86.0,,,,0.0,4.0,0.0,4.0,4.0,4.0,66.666664,,,,,,,,,,,,,,,,,,,,,,,,,,,,,,,,,,,,,,,,,,,,,,,,,,,,,,0.0,0.0,1.0,0.0,512.0,0.237537,,,,,,,,,,,,,,,,,,,,,,,,,
42387,1645492048.718204,60.0,0.0,4217.94873,4558.461426,4088.718018,3917.4357909999994,4178.461426,0.0,4.0,86.0,,,,0.0,4.0,0.0,4.0,4.0,4.0,66.666664,,,,,,,,30.0,0.0,0.597282,-0.156494,0.642822,0.45336899999999997,0.9160299999999999,-0.384283,-0.121584,-0.033599000000000004,-0.037972000000000006,-0.033476,,,,,,,,,,,,,,,,,,,,,,,,,,,,,,,,,,,,,,,,,,,,,,,,,,,,,,,,,,,,,,,,,
42388,1645492048.726019,61.0,0.0,4230.256348,4579.487305,4095.384521,3945.1281740000004,4236.410156,0.0,4.0,86.0,,,,0.0,4.0,0.0,4.0,4.0,4.0,66.666664,,,,,,,,,,,,,,,,,,,,,,,,,,,,,,,,,,,,,,,,,,,,,,,,,,,,,,,,,,,,,,,,,,,,,,,,,,,,,,,,,,,,
42389,1645492048.733835,62.0,0.0,4166.666504,4583.077147999999,4078.974365,3883.5898439999996,4212.307617,0.0,4.0,86.0,,,,0.0,4.0,0.0,4.0,4.0,4.0,66.666664,,,,,,,,31.0,0.0,0.597218,-0.15673800000000002,0.642822,0.45336899999999997,0.902358,-0.406256,-0.139651,-0.033657,-0.037935,-0.029006,,,,,,,,,,,,,,,,,,,,,,,,,,,,,,,,,,,,,,,,,,,,,,,,,,,,,,,,,,,,,,,,,
42390,1645492048.74165,63.0,0.0,4097.436035,4560.0,4072.3076170000004,3792.820557,4180.512695,0.0,4.0,86.0,,,,0.0,4.0,0.0,4.0,4.0,4.0,66.666664,,,,,,,,,,,,,,,,,,,,,,,,,,,,,,,,,,,,,,,,,,,,,,,,,,,,,,0.0,0.0,1.0,0.0,512.0,0.237537,,,,,,,,,,,,,,,,,,,,,,,,,
42391,1645492048.749466,64.0,0.0,4121.025879,4538.974121,4121.538574,3849.743652,4233.846191,450.0,4.0,86.0,,,,0.0,4.0,0.0,4.0,4.0,4.0,66.666664,,,,,,,,32.0,0.0,0.596891,-0.15698199999999998,0.643066,0.45336899999999997,0.9184709999999999,-0.397467,-0.12255999999999999,-0.033661,-0.037999,-0.031427,,,,,,,,,,,,,,,,,,,,,,,,,,,,,,,,,,,,,,,,,,,,,,,,,,,,,,,,,,,,,,,,,
42392,1645492048.757381,65.0,0.0,4171.794922,4565.128418,4168.717772999999,3956.4101560000004,4276.922852000001,450.0,4.0,86.0,,,,0.0,4.0,0.0,4.0,4.0,4.0,66.666664,,,,,,,,,,,,,,,,,,,,,,,,,,,,,,,,,,,,,,,,,,,,,,,,,,,,,,,,,,,,,,,,,,,,,,,,,,,,,,,,,,,,
42393,1645492048.765197,66.0,0.0,4108.205078,4580.0,4132.820313,3914.358887,4214.871582,16172.0,4.0,86.0,,,,0.0,4.0,0.0,4.0,4.0,4.0,66.666664,,,,,,,,33.0,0.0,0.596826,-0.157227,0.643066,0.45336899999999997,0.9126120000000001,-0.409674,-0.11523599999999999,-0.033664,-0.037959,-0.027211000000000003,,,,,,,,,,,,,,,,,,,,,,,,,,,,,,,,,,,,,,,,,,,,,,,,,,,,,,,,,,,,,,,,,
42394,1645492048.773013,67.0,0.0,3987.179443,4544.615234000001,4079.487061,3814.8718259999996,4148.717772999999,450.0,4.0,86.0,,,,0.0,4.0,0.0,4.0,4.0,4.0,66.666664,,,,,,,,,,,,,,,,,,,,1.0,0.0,0.0,,,,,,,,,,,,,,,,,,,,,,,,,,,,,,,,0.0,0.0,1.0,0.0,512.0,0.194072,374.496307,92.024834,31.435413,24.537603,12.651477,13.800898000000002,11.85758,25.084107999999997,17.165768,12.874384,32.028339,31.661081,16.823227,8.381361,5.414574,113.198898,71.131973,30.867207,22.778786,13.629447,119.601929,74.192574,34.812061,21.377634,14.928394
42395,1645492048.780828,68.0,0.0,3974.8718259999996,4543.077147999999,4107.692383,3839.487061,4168.205078,0.0,4.0,86.0,,,,0.0,4.0,0.0,4.0,4.0,4.0,66.666664,,,,,,,,34.0,0.0,0.596826,-0.157227,0.643066,0.45336899999999997,0.9150530000000001,-0.40576799999999996,-0.12109600000000001,-0.033763999999999995,-0.037923,-0.023513,,,,,,,,,,,,,,,,,,,,,,,,,,,,,,,,,,,,,,,,,,,,,,,,,,,,,,,,,,,,,,,,,
42396,1645492048.7886438,69.0,0.0,3994.358887,4598.974121,4148.717772999999,3900.512939,4177.94873,450.0,4.0,86.0,,,,0.0,4.0,0.0,4.0,4.0,4.0,66.666664,,,,,,,,,,,,,,,,,,,,,,,,,,,,,,,,,,,,,,,,,,,,,,,,,,,,,,,,,,,,,,,,,,,,,,,,,,,,,,,,,,,,
42397,1645492048.796459,70.0,0.0,3926.6667479999996,4617.436035,4114.871582,3852.3076170000004,4127.179688,16136.0,4.0,86.0,,,,0.0,4.0,0.0,4.0,4.0,4.0,66.666664,,,,,,,,35.0,0.0,0.596762,-0.157471,0.643066,0.45336899999999997,0.9209129999999999,-0.39014299999999996,-0.123049,-0.033658999999999994,-0.037842,-0.026435000000000004,,,,,,,,,,,,,,,,,,,,,,,,,,,,,,,,,,,,,,,,,,,,,,,,,,,,,,,,,,,,,,,,,
42398,1645492048.804275,71.0,0.0,3852.820557,4562.05127,4053.8461909999996,3766.1538090000004,4078.461426,450.0,4.0,86.0,,,,0.0,4.0,0.0,4.0,4.0,4.0,66.666664,,,,,,,,,,,,,,,,,,,,,,,,,,,,,,,,,,,,,,,,,,,,,,,,,,,,,,0.0,0.0,1.0,0.0,512.0,0.194072,,,,,,,,,,,,,,,,,,,,,,,,,
42399,1645492048.812091,72.0,0.0,3800.512939,4524.102539,4025.1281740000004,3734.358887,4027.179443,450.0,4.0,86.0,,,,0.0,4.0,0.0,4.0,4.0,4.0,66.666664,,,,,,,,36.0,0.0,0.596499,-0.157471,0.643311,0.45336899999999997,0.9355610000000001,-0.404303,-0.11425999999999999,-0.033711,-0.037768,-0.029064999999999997,,,,,,,,,,,,,,,,,,,,,,,,,,,,,,,,,,,,,,,,,,,,,,,,,,,,,,,,,,,,,,,,,
42400,1645492048.819906,73.0,0.0,3753.8461909999996,4535.897461,4026.6667479999996,3717.4357909999994,3999.487061,16232.0,4.0,86.0,,,,0.0,4.0,0.0,4.0,4.0,4.0,66.666664,,,,,,,,,,,,,,,,,,,,,,,,,,,,,,,,,,,,,,,,,,,,,,,,,,,,,,,,,,,,,,,,,,,,,,,,,,,,,,,,,,,,
42401,1645492048.827722,74.0,0.0,3744.102539,4533.846191,4046.6667479999996,3692.3076170000004,4031.794922,450.0,4.0,86.0,,,,0.0,4.0,0.0,4.0,4.0,4.0,66.666664,,,,,,,,37.0,0.0,0.596499,-0.157471,0.643311,0.45336899999999997,0.900893,-0.403326,-0.123537,-0.033563,-0.0378,-0.031383,,,,,,,,,,,,,,,,,,,,,,,,,,,,,,,,,,,,,,,,,,,,,,,,,,,,,,,,,,,,,,,,,
42402,1645492048.8356369,75.0,0.0,3710.256348,4506.666504,4041.025635,3679.487061,4032.820557,16185.0,4.0,86.0,,,,0.0,4.0,0.0,4.0,4.0,4.0,66.666664,,,,,,,,,,,,,,,,,,,,,,,,,,,,,,,,,,,,,,,,,,,,,,,,,,,,,,0.0,0.0,1.0,0.0,512.0,0.194072,,,,,,,,,,,,,,,,,,,,,,,,,
42403,1645492048.843453,76.0,0.0,3631.794922,4527.692383,4000.0,3666.6667479999996,3965.1281740000004,450.0,4.0,86.0,,,,0.0,4.0,0.0,4.0,4.0,4.0,66.666664,,,,,,,,38.0,0.0,0.596499,-0.157471,0.643311,0.45336899999999997,0.93019,-0.395514,-0.111818,-0.033381,-0.037877999999999995,-0.03347,,,,,,,,,,,,,,,,,,,,,,,,,,,,,,,,,,,,,,,,,,,,,,,,,,,,,,,,,,,,,,,,,
42404,1645492048.851269,77.0,0.0,3676.4101560000004,4604.102539,4030.256348,3711.281982,3988.205078,450.0,4.0,86.0,,,,0.0,4.0,0.0,4.0,4.0,4.0,66.666664,,,,,,,,,,,,,,,,,,,,,,,,,,,,,,,,,,,,,,,,,,,,,,,,,,,,,,,,,,,,,,,,,,,,,,,,,,,,,,,,,,,,
42405,1645492048.859084,78.0,0.0,3808.205078,4645.641113000001,4133.333496,3843.5898439999996,4123.077147999999,450.0,4.0,86.0,,,,0.0,4.0,0.0,4.0,4.0,4.0,66.666664,,,,,,,,39.0,0.0,0.597012,-0.157227,0.643066,0.453125,0.9199360000000001,-0.39502600000000004,-0.125978,-0.033264999999999996,-0.037995999999999995,-0.035347,,,,,,,,,,,,,,,,,,,,,,,,,,,,,,,,,,,,,,,,,,,,,,,,,,,,,,,,,,,,,,,,,
42406,1645492048.8669,79.0,0.0,3786.6667479999996,4617.436035,4143.589844,3901.025635,4147.179688,16185.0,4.0,86.0,,,,0.0,4.0,0.0,4.0,4.0,4.0,66.666664,,,,,,,,,,,,,,,,,,,,,,,,,,,,,,,,,,,,,,,,,,,,,,,,,,,,,,0.0,0.0,1.0,0.0,512.0,0.194072,,,,,,,,,,,,,,,,,,,,,,,,,
42407,1645492048.874715,80.0,0.0,3697.4357909999994,4590.256348,4084.615479,3835.897461,4073.3332520000004,450.0,4.0,86.0,,,,0.0,4.0,0.0,4.0,4.0,4.0,66.666664,,,,,,,,40.0,0.0,0.596826,-0.157227,0.643066,0.45336899999999997,0.932631,-0.400885,-0.125978,-0.033259,-0.038054000000000004,-0.030836000000000002,,,,,,,,,,,,,,,,,,,,,,,,,,,,,,,,,,,,,,,,,,,,,,,,,,,,,,,,,,,,,,,,,
42408,1645492048.8825312,81.0,0.0,3731.281982,4610.769043,4095.897461,3818.974365,4094.358887,450.0,4.0,86.0,,,,0.0,4.0,0.0,4.0,4.0,4.0,66.666664,,,,,,,,,,,,,,,,,,,,,,,,,,,,,,,,,,,,,,,,,,,,,,,,,,,,,,,,,,,,,,,,,,,,,,,,,,,,,,,,,,,,
42409,1645492048.890347,82.0,0.0,3763.5898439999996,4648.205078,4107.692383,3829.2307130000004,4127.692383,450.0,4.0,86.0,,,,0.0,4.0,0.0,4.0,4.0,4.0,66.666664,,,,,,,,41.0,0.0,0.5965630000000001,-0.157227,0.643311,0.45336899999999997,0.9267719999999999,-0.39649,-0.12549000000000002,-0.033205,-0.037911,-0.033172,,,,,,,,,,,,,,,,,,,,,,,,,,,,,,,,,,,,,,,,,,,,,,,,,,,,,,,,,,,,,,,,,
42410,1645492048.898162,83.0,0.0,3694.8718259999996,4628.205078,4053.3332520000004,3768.718018,4058.974365,16185.0,4.0,86.0,,,,0.0,4.0,0.0,4.0,4.0,4.0,66.666664,,,,,,,,,,,,,,,,,,,,1.0,0.0,0.0,,,,,,,,,,,,,,,,,,,,,,,,,,,,,,,,0.0,0.0,32.0,0.658288,1.0,0.0,1315.8596189999998,146.045471,40.526875,27.867523,13.903138,20.275705,17.119965,27.907602,17.471685,13.512992,24.622976,34.049828000000005,15.685676,9.18464,5.588175,84.498825,73.778595,30.408455,24.957655,13.618701000000001,128.775513,80.16375699999999,35.831455,22.037668,15.349228
42411,1645492048.906077,84.0,0.0,3666.6667479999996,4579.487305,4040.0,3775.897461,4025.641113,450.0,4.0,86.0,,,,0.0,4.0,0.0,4.0,4.0,4.0,66.666664,,,,,,,,42.0,0.0,0.5965630000000001,-0.157227,0.643311,0.45336899999999997,0.9199360000000001,-0.39942,-0.12842,-0.033107,-0.038026,-0.03508,,,,,,,,,,,,,,,,,,,,,,,,,,,,,,,,,,,,,,,,,,,,,,,,,,,,,,,,,,,,,,,,,
42412,1645492048.913893,85.0,0.0,3688.205078,4566.666504,4071.281982,3834.358887,4060.512939,450.0,4.0,86.0,,,,0.0,4.0,0.0,4.0,4.0,4.0,66.666664,,,,,,,,,,,,,,,,,,,,,,,,,,,,,,,,,,,,,,,,,,,,,,,,,,,,,,,,,,,,,,,,,,,,,,,,,,,,,,,,,,,,
42413,1645492048.921708,86.0,0.0,3677.9487299999996,4557.436035,4070.256348,3805.1281740000004,4055.897461,450.0,4.0,86.0,,,,0.0,4.0,0.0,4.0,4.0,4.0,66.666664,,,,,,,,43.0,0.0,0.596378,-0.157227,0.643311,0.453613,0.932631,-0.404791,-0.11621300000000001,-0.033068,-0.038031999999999996,-0.036748,,,,,,,,,,,,,,,,,,,,,,,,,,,,,,,,,,,,,,,,,,,,,,,,,,,,,,,,,,,,,,,,,
42414,1645492048.929524,87.0,0.0,3676.4101560000004,4562.05127,4064.615479,3786.1538090000004,4027.179443,16185.0,4.0,86.0,,,,0.0,4.0,0.0,4.0,4.0,4.0,66.666664,,,,,,,,,,,,,,,,,,,,,,,,,,,,,,,,,,,,,,,,,,,,,,,,,,,,,,0.0,0.0,32.0,0.658288,1.0,0.0,,,,,,,,,,,,,,,,,,,,,,,,,
42415,1645492048.937339,88.0,0.0,3662.0512700000004,4586.153809,4063.5898439999996,3815.897461,4013.3332520000004,450.0,4.0,86.0,,,,0.0,4.0,0.0,4.0,4.0,4.0,66.666664,,,,,,,,44.0,0.0,0.596192,-0.157227,0.643311,0.45385699999999995,0.917494,-0.39649,-0.12842,-0.033032,-0.038038,-0.032048,,,,,,,,,,,,,,,,,,,,,,,,,,,,,,,,,,,,,,,,,,,,,,,,,,,,,,,,,,,,,,,,,
42416,1645492048.945154,89.0,0.0,3621.025635,4594.871582,4054.8718259999996,3809.2307130000004,4023.076904,450.0,4.0,86.0,,,,0.0,4.0,0.0,4.0,4.0,4.0,66.666664,,,,,,,,,,,,,,,,,,,,,,,,,,,,,,,,,,,,,,,,,,,,,,,,,,,,,,,,,,,,,,,,,,,,,,,,,,,,,,,,,,,,
42417,1645492048.95297,90.0,0.0,3602.5642090000006,4603.077147999999,4040.0,3785.1281740000004,4025.641113,450.0,4.0,86.0,,,,0.0,4.0,0.0,4.0,4.0,4.0,66.666664,,,,,,,,45.0,0.0,0.5965630000000001,-0.157227,0.643311,0.45336899999999997,0.9199360000000001,-0.39942,-0.12842,-0.032951999999999995,-0.03814,-0.034068,,,,,,,,,,,,,,,,,,,,,,,,,,,,,,,,,,,,,,,,,,,,,,,,,,,,,,,,,,,,,,,,,
42418,1645492048.960785,91.0,0.0,3596.4101560000004,4635.384765999999,4025.641113,3788.205078,3990.256348,16185.0,4.0,86.0,,,,0.0,4.0,0.0,4.0,4.0,4.0,66.666664,,,,,,,,,,,,,,,,,,,,,,,,,,,,,,,,,,,,,,,,,,,,,,,,,,,,,,0.0,0.0,32.0,0.658288,1.0,0.0,,,,,,,,,,,,,,,,,,,,,,,,,
42419,1645492048.9687,92.0,0.0,3613.3332520000004,4622.563965,4045.1281740000004,3811.794922,3995.384521,450.0,4.0,86.0,,,,0.0,4.0,0.0,4.0,4.0,4.0,66.666664,,,,,,,,46.0,0.0,0.596192,-0.157227,0.643311,0.45385699999999995,0.917494,-0.39649,-0.12842,-0.032928,-0.038135,-0.029635,,,,,,,,,,,,,,,,,,,,,,,,,,,,,,,,,,,,,,,,,,,,,,,,,,,,,,,,,,,,,,,,,
42420,1645492048.976516,93.0,0.0,3688.205078,4592.820313,4094.8718259999996,3859.487061,4092.3076170000004,450.0,4.0,86.0,,,,0.0,4.0,0.0,4.0,4.0,4.0,66.666664,,,,,,,,,,,,,,,,,,,,,,,,,,,,,,,,,,,,,,,,,,,,,,,,,,,,,,,,,,,,,,,,,,,,,,,,,,,,,,,,,,,,
42421,1645492048.984432,94.0,0.0,3717.9487299999996,4618.974121,4091.794922,3893.8461909999996,4126.153809,450.0,4.0,86.0,,,,0.0,4.0,0.0,4.0,4.0,4.0,66.666664,,,,,,,,47.0,0.0,0.596006,-0.157227,0.643311,0.45410200000000006,0.9160299999999999,-0.41651000000000005,-0.122072,-0.033005,-0.038130000000000004,-0.031799,,,,,,,,,,,,,,,,,,,,,,,,,,,,,,,,,,,,,,,,,,,,,,,,,,,,,,,,,,,,,,,,,
42422,1645492048.992248,95.0,0.0,3648.718018,4605.128418,4047.6923829999996,3865.1281740000004,4044.615479,16185.0,4.0,86.0,,,,0.0,4.0,0.0,4.0,4.0,4.0,66.666664,,,,,,,,,,,,,,,,,,,,,,,,,,,,,,,,,,,,,,,,,,,,,,,,,,,,,,0.0,0.0,32.0,0.658288,1.0,0.0,,,,,,,,,,,,,,,,,,,,,,,,,
42423,1645492049.0000632,96.0,0.0,3616.923096,4574.871582,4039.487061,3814.358887,4016.923096,450.0,4.0,86.0,,,,0.0,4.0,0.0,4.0,4.0,4.0,66.666664,,,,,,,,48.0,0.0,0.596006,-0.157227,0.643311,0.45410200000000006,0.9131,-0.410163,-0.127932,-0.033122000000000006,-0.038077,-0.027594,,,,,,,,,,,,,,,,,,,,,,,,,,,,,,,,,,,,,,,,,,,,,,,,,,,,,,,,,,,,,,,,,
42424,1645492049.007879,97.0,0.0,3666.6667479999996,4577.436035,4055.384521,3796.923096,4065.641113,450.0,4.0,86.0,,,,0.0,4.0,0.0,4.0,4.0,4.0,66.666664,,,,,,,,,,,,,,,,,,,,,,,,,,,,,,,,,,,,,,,,,,,,,,,,,,,,,,,,,,,,,,,,,,,,,,,,,,,,,,,,,,,,
42425,1645492049.0156949,98.0,0.0,3684.102539,4584.615234000001,4063.5898439999996,3828.718018,4079.487061,450.0,4.0,86.0,,,,0.0,4.0,0.0,4.0,4.0,4.0,66.666664,,,,,,,,49.0,0.0,0.5956779999999999,-0.157471,0.643555,0.45410200000000006,0.925307,-0.400885,-0.12549000000000002,-0.033179,-0.038127,-0.029912,,,,,,,,,,,,,,,,,,,,,,,,,,,,,,,,,,,,,,,,,,,,,,,,,,,,,,,,,,,,,,,,,
42426,1645492049.023511,99.0,0.0,3682.0512700000004,4603.589844,4076.923096,3890.256348,4073.3332520000004,16185.0,4.0,86.0,,,,0.0,4.0,0.0,4.0,4.0,4.0,66.666664,,,,,,,,,,,,,,,,,,,,1.0,0.0,0.0,,,,,,,,,,,,,,,,,,,,,,,,,,,,,,,,0.0,0.0,32.0,0.64627,1.0,0.0,3363.874756,260.009338,62.120121,35.031025,15.971043,32.784458,21.835375,30.591827000000002,17.10869,14.948215,19.028548999999998,34.748138,15.974819,11.065059,6.0238059999999995,66.50788100000001,74.123161,32.805367,28.678304999999998,13.880045,192.489334,85.310516,39.703078999999995,24.441226999999998,15.910503
42427,1645492049.031327,100.0,0.0,3710.256348,4604.615234000001,4084.102539,3893.3332520000004,4093.3332520000004,450.0,4.0,86.0,,,,0.0,4.0,0.0,4.0,4.0,4.0,66.666664,,,,,,,,50.0,0.0,0.5956779999999999,-0.157471,0.643555,0.45410200000000006,0.920424,-0.408698,-0.12060699999999999,-0.03323,-0.038171,-0.025945,,,,,,,,,,,,,,,,,,,,,,,,,,,,,,,,,,,,,,,,,,,,,,,,,,,,,,,,,,,,,,,,,
42428,1645492049.039143,101.0,0.0,3749.2307130000004,4576.410156,4091.281982,3882.0512700000004,4146.153809,450.0,4.0,86.0,,,,0.0,4.0,0.0,4.0,4.0,4.0,66.666664,,,,,,,,,,,,,,,,,,,,,,,,,,,,,,,,,,,,,,,,,,,,,,,,,,,,,,,,,,,,,,,,,,,,,,,,,,,,,,,,,,,,
42429,1645492049.047058,102.0,0.0,3763.076904,4544.102539,4097.94873,3913.8461909999996,4168.205078,450.0,4.0,86.0,,,,0.0,4.0,0.0,4.0,4.0,4.0,66.666664,,,,,,,,51.0,0.0,0.5956130000000001,-0.15771500000000002,0.643555,0.45410200000000006,0.91017,-0.398444,-0.131838,-0.033277,-0.038114,-0.028624,,,,,,,,,,,,,,,,,,,,,,,,,,,,,,,,,,,,,,,,,,,,,,,,,,,,,,,,,,,,,,,,,
42430,1645492049.054874,103.0,0.0,3737.4357909999994,4551.282227000001,4098.461426,3946.6667479999996,4131.794922,16185.0,4.0,86.0,,,,0.0,4.0,0.0,4.0,4.0,4.0,66.666664,,,,,,,,,,,,,,,,,,,,,,,,,,,,,,,,,,,,,,,,,,,,,,,,,,,,,,0.0,0.0,32.0,0.64627,1.0,0.0,,,,,,,,,,,,,,,,,,,,,,,,,
42431,1645492049.062689,104.0,0.0,3760.0,4589.743652,4128.205078,3974.358887,4147.692383,450.0,4.0,86.0,,,,0.0,4.0,0.0,4.0,4.0,4.0,66.666664,,,,,,,,52.0,0.0,0.595877,-0.15771500000000002,0.643311,0.45410200000000006,0.925307,-0.398444,-0.111818,-0.033367,-0.03816,-0.030839,,,,,,,,,,,,,,,,,,,,,,,,,,,,,,,,,,,,,,,,,,,,,,,,,,,,,,,,,,,,,,,,,
42432,1645492049.0705051,105.0,0.0,3828.718018,4591.282227000001,4140.512695,3985.1281740000004,4201.025879,450.0,4.0,86.0,,,,0.0,4.0,0.0,4.0,4.0,4.0,66.666664,,,,,,,,,,,,,,,,,,,,,,,,,,,,,,,,,,,,,,,,,,,,,,,,,,,,,,,,,,,,,,,,,,,,,,,,,,,,,,,,,,,,
42433,1645492049.078321,106.0,0.0,3804.102539,4537.94873,4100.0,3956.4101560000004,4175.384765999999,450.0,4.0,86.0,,,,0.0,4.0,0.0,4.0,4.0,4.0,66.666664,,,,,,,,53.0,0.0,0.595812,-0.157959,0.643311,0.45410200000000006,0.9194479999999999,-0.394049,-0.107912,-0.033351,-0.038153,-0.032931,,,,,,,,,,,,,,,,,,,,,,,,,,,,,,,,,,,,,,,,,,,,,,,,,,,,,,,,,,,,,,,,,
42434,1645492049.0861359,107.0,0.0,3709.2307130000004,4536.922852000001,4064.102539,3897.4357909999994,4100.0,16185.0,4.0,86.0,,,,0.0,4.0,0.0,4.0,4.0,4.0,66.666664,,,,,,,,,,,,,,,,,,,,,,,,,,,,,,,,,,,,,,,,,,,,,,,,,,,,,,0.0,0.0,32.0,0.64627,1.0,0.0,,,,,,,,,,,,,,,,,,,,,,,,,
42435,1645492049.093952,108.0,0.0,3690.256348,4622.05127,4060.0,3863.5898439999996,4064.102539,450.0,4.0,86.0,,,,0.0,4.0,0.0,4.0,4.0,4.0,66.666664,,,,,,,,54.0,0.0,0.59567,-0.158203,0.643555,0.45385699999999995,0.917983,-0.40283800000000003,-0.123537,-0.033385000000000005,-0.038097000000000006,-0.034863,,,,,,,,,,,,,,,,,,,,,,,,,,,,,,,,,,,,,,,,,,,,,,,,,,,,,,,,,,,,,,,,,
42436,1645492049.101767,109.0,0.0,3715.897461,4628.205078,4065.1281740000004,3884.615479,4087.179443,450.0,4.0,86.0,,,,0.0,4.0,0.0,4.0,4.0,4.0,66.666664,,,,,,,,,,,,,,,,,,,,,,,,,,,,,,,,,,,,,,,,,,,,,,,,,,,,,,,,,,,,,,,,,,,,,,,,,,,,,,,,,,,,
42437,1645492049.109583,110.0,0.0,3749.2307130000004,4559.487305,4105.128418,3963.5898439999996,4175.897461,450.0,4.0,86.0,,,,0.0,4.0,0.0,4.0,4.0,4.0,66.666664,,,,,,,,55.0,0.0,0.595856,-0.158203,0.643555,0.453613,0.9052870000000001,-0.406744,-0.11816600000000001,-0.033464,-0.038096,-0.030449,,,,,,,,,,,,,,,,,,,,,,,,,,,,,,,,,,,,,,,,,,,,,,,,,,,,,,,,,,,,,,,,,
42438,1645492049.1174982,111.0,0.0,3817.4357909999994,4572.307617,4137.94873,4021.538574,4238.974121,16185.0,4.0,86.0,,,,0.0,4.0,0.0,4.0,4.0,4.0,66.666664,,,,,,,,,,,,,,,,,,,,,,,,,,,,,,,,,,,,,,,,,,,,,,,,,,,,,,0.0,0.0,32.0,0.64627,1.0,0.0,,,,,,,,,,,,,,,,,,,,,,,,,
42439,1645492049.125314,112.0,0.0,3794.358887,4625.641113000001,4083.5898439999996,3928.205078,4152.820313,450.0,4.0,86.0,,,,0.0,4.0,0.0,4.0,4.0,4.0,66.666664,,,,,,,,56.0,0.0,0.595791,-0.158447,0.643555,0.453613,0.9267719999999999,-0.398932,-0.12060699999999999,-0.033536,-0.038045999999999996,-0.032629000000000005,,,,,,,,,,,,,,,,,,,,,,,,,,,,,,,,,,,,,,,,,,,,,,,,,,,,,,,,,,,,,,,,,
42440,1645492049.13313,113.0,0.0,3742.0512700000004,4613.846191,4071.281982,3875.384521,4113.846191,450.0,4.0,86.0,,,,0.0,4.0,0.0,4.0,4.0,4.0,66.666664,,,,,,,,,,,,,,,,,,,,,,,,,,,,,,,,,,,,,,,,,,,,,,,,,,,,,,,,,,,,,,,,,,,,,,,,,,,,,,,,,,,,
42441,1645492049.140945,114.0,0.0,3780.0,4557.436035,4127.692383,3956.923096,4202.563965,450.0,4.0,86.0,,,,0.0,4.0,0.0,4.0,4.0,4.0,66.666664,,,,,,,,57.0,0.0,0.595726,-0.158691,0.643555,0.453613,0.913588,-0.404303,-0.11572400000000001,-0.033551,-0.037953,-0.028487000000000002,,,,,,,,,,,,,,,,,,,,,,,,,,,,,,,,,,,,,,,,,,,,,,,,,,,,,,,,,,,,,,,,,
42442,1645492049.148761,115.0,0.0,3795.897461,4535.897461,4117.436035,3971.281982,4208.717772999999,16185.0,4.0,86.0,,,,0.0,4.0,0.0,4.0,4.0,4.0,66.666664,1.0,8.333333,0.0,0.0,3.0,1.0,1.0,,,,,,,,,,,,,1.0,0.0,0.0,,,,,,,,,,,,,,,,,,,,,,,,,,,,,,,,10.0,0.0,32.0,0.635336,1.0,0.0,6462.57959,430.23467999999997,92.6325,44.234348,18.290876,51.481651,24.759106,32.776009,16.05014,16.908274,15.923504999999999,33.586452,17.079575,13.197242999999999,6.595836,59.656403000000005,72.060486,36.944237,32.121338,14.077860999999999,310.756073,88.55083499999999,44.26918,27.114981,16.264208
42443,1645492049.156576,116.0,0.0,3775.897461,4571.794922,4079.487061,3906.6667479999996,4139.487305,450.0,4.0,86.0,,,,0.0,4.0,0.0,4.0,4.0,4.0,66.666664,,,,,,,,58.0,0.0,0.59611,-0.158936,0.643311,0.45336899999999997,0.920424,-0.401862,-0.123537,-0.033614,-0.038015,-0.024613,,,,,,,,,,,,,,,,,,,,,,,,,,,,,,,,,,,,,,,,,,,,,,,,,,,,,,,,,,,,,,,,,
42444,1645492049.164392,117.0,0.0,3770.256348,4588.717772999999,4079.487061,3880.512939,4126.666504,450.0,4.0,86.0,,,,0.0,4.0,0.0,4.0,4.0,4.0,66.666664,,,,,,,,,,,,,,,,,,,,,,,,,,,,,,,,,,,,,,,,,,,,,,,,,,,,,,,,,,,,,,,,,,,,,,,,,,,,,,,,,,,,
42445,1645492049.172208,118.0,0.0,3764.102539,4573.846191,4083.076904,3917.4357909999994,4138.461426,450.0,4.0,86.0,,,,0.0,4.0,0.0,4.0,4.0,4.0,66.666664,,,,,,,,59.0,0.0,0.59611,-0.158936,0.643311,0.45336899999999997,0.9116350000000001,-0.40235,-0.10888800000000001,-0.033622000000000006,-0.038022,-0.027474000000000002,,,,,,,,,,,,,,,,,,,,,,,,,,,,,,,,,,,,,,,,,,,,,,,,,,,,,,,,,,,,,,,,,
42446,1645492049.180023,119.0,0.0,3804.615479,4585.641113000001,4114.358886999999,3978.461426,4168.205078,16185.0,4.0,86.0,,,,0.0,4.0,0.0,4.0,4.0,4.0,66.666664,,,,,,,,,,,,,,,,,,,,,,,,,,,,,,,,,,,,,,,,,,,,,,,,,,,,,,10.0,0.0,32.0,0.635336,1.0,0.0,,,,,,,,,,,,,,,,,,,,,,,,,
42447,1645492049.1879392,120.0,0.0,3884.615479,4583.077147999999,4163.589844,4001.025635,4242.563965,450.0,4.0,86.0,,,,0.0,4.0,0.0,4.0,4.0,4.0,66.666664,,,,,,,,60.0,0.0,0.5962310000000001,-0.15918,0.643311,0.453125,0.9116350000000001,-0.406744,-0.125002,-0.033629,-0.037833,-0.029901999999999998,,,,,,,,,,,,,,,,,,,,,,,,,,,,,,,,,,,,,,,,,,,,,,,,,,,,,,,,,,,,,,,,,
42448,1645492049.1957538,121.0,0.0,3860.512939,4523.589844,4142.05127,3956.4101560000004,4233.333496,450.0,4.0,86.0,,,,0.0,4.0,0.0,4.0,4.0,4.0,66.666664,,,,,,,,,,,,,,,,,,,,,,,,,,,,,,,,,,,,,,,,,,,,,,,,,,,,,,,,,,,,,,,,,,,,,,,,,,,,,,,,,,,,
42449,1645492049.20357,122.0,0.0,3798.974365,4529.743652,4099.487305,3941.025635,4168.205078,450.0,4.0,86.0,,,,0.0,4.0,0.0,4.0,4.0,4.0,66.666664,,,,,,,,61.0,0.0,0.596494,-0.15918,0.643066,0.453125,0.9248190000000001,-0.41699899999999995,-0.123537,-0.033635000000000005,-0.037761,-0.025983999999999997,,,,,,,,,,,,,,,,,,,,,,,,,,,,,,,,,,,,,,,,,,,,,,,,,,,,,,,,,,,,,,,,,
42450,1645492049.211386,123.0,0.0,3814.358887,4586.153809,4101.538574,3970.256348,4170.256348,16185.0,4.0,86.0,,,,0.0,4.0,0.0,4.0,4.0,4.0,66.666664,,,,,,,,,,,,,,,,,,,,,,,,,,,,,,,,,,,,,,,,,,,,,,,,,,,,,,10.0,0.0,32.0,0.635336,1.0,0.0,,,,,,,,,,,,,,,,,,,,,,,,,
42451,1645492049.219201,124.0,0.0,3751.281982,4540.512695,4057.4357909999994,3895.897461,4107.692383,450.0,4.0,86.0,,,,0.0,4.0,0.0,4.0,4.0,4.0,66.666664,,,,,,,,62.0,0.0,0.596429,-0.159424,0.643066,0.453125,0.9184709999999999,-0.388678,-0.11718900000000002,-0.03369,-0.037745,-0.028513,,,,,,,,,,,,,,,,,,,,,,,,,,,,,,,,,,,,,,,,,,,,,,,,,,,,,,,,,,,,,,,,,
42452,1645492049.227017,125.0,0.0,3678.461426,4508.717772999999,4036.4101560000004,3836.4101560000004,4050.256348,450.0,4.0,86.0,,,,0.0,4.0,0.0,4.0,4.0,4.0,66.666664,,,,,,,,,,,,,,,,,,,,,,,,,,,,,,,,,,,,,,,,,,,,,,,,,,,,,,,,,,,,,,,,,,,,,,,,,,,,,,,,,,,,
42453,1645492049.234832,126.0,0.0,3798.974365,4595.384765999999,4124.102539,3930.256348,4183.589844,450.0,4.0,86.0,,,,0.0,4.0,0.0,4.0,4.0,4.0,66.666664,,,,,,,,63.0,0.0,0.596614,-0.159424,0.643066,0.45288100000000003,0.9267719999999999,-0.401373,-0.12549000000000002,-0.033641000000000004,-0.03773,-0.024734,,,,,,,,,,,,,,,,,,,,,,,,,,,,,,,,,,,,,,,,,,,,,,,,,,,,,,,,,,,,,,,,,
42454,1645492049.2426481,127.0,0.0,3919.487061,4605.128418,4166.666504,3995.384521,4287.179688,241.0,4.0,86.0,,,,0.0,4.0,0.0,4.0,4.0,4.0,66.666664,,,,,,,,,,,,,,,,,,,,,,,,,,,,,,,,,,,,,,,,,,,,,,,,,,,,,,10.0,0.0,32.0,0.635336,1.0,0.0,,,,,,,,,,,,,,,,,,,,,,,,,
42455,1645492049.250464,0.0,0.0,3851.281982,4508.205078,4102.05127,3946.1538090000004,4181.538574,450.0,4.0,86.0,,,,0.0,4.0,0.0,4.0,4.0,4.0,66.666664,,,,,,,,0.0,0.0,0.596614,-0.159424,0.643066,0.45288100000000003,0.922377,-0.375494,-0.12549000000000002,-0.033597,-0.037619,-0.027583,,,,,,,,,,,,,,,,,,,,,,,,,,,,,,,,,,,,,,,,,,,,,,,,,,,,,,,,,,,,,,,,,
42456,1645492049.258379,1.0,0.0,3785.1281740000004,4495.384765999999,4064.615479,3922.5642090000006,4109.743652,450.0,4.0,86.0,,,,0.0,4.0,0.0,4.0,4.0,4.0,66.666664,,,,,,,,,,,,,,,,,,,,,,,,,,,,,,,,,,,,,,,,,,,,,,,,,,,,,,,,,,,,,,,,,,,,,,,,,,,,,,,,,,,,
42457,1645492049.2661948,2.0,0.0,3834.358887,4541.538574,4089.743652,3945.1281740000004,4172.820313,16132.0,4.0,86.0,,,,0.0,4.0,0.0,4.0,4.0,4.0,66.666664,,,,,,,,1.0,0.0,0.596877,-0.159424,0.642822,0.45288100000000003,0.9121229999999999,-0.389654,-0.12255999999999999,-0.033558,-0.037568,-0.03,,,,,,,,,,,,,,,,,,,,,,,,,,,,,,,,,,,,,,,,,,,,,,,,,,,,,,,,,,,,,,,,,
42458,1645492049.27401,3.0,0.0,3849.2307130000004,4537.436035,4096.922852000001,3930.7692869999996,4189.743652,450.0,4.0,86.0,,,,0.0,4.0,0.0,4.0,4.0,4.0,66.666664,,,,,,,,,,,,,,,,,,,,1.0,0.0,0.0,,,,,,,,,,,,,,,,,,,,,,,,,,,,,,,,10.0,0.0,32.0,0.291829,1.0,0.0,9931.095703,621.9882809999999,123.096046,52.546642000000006,20.24193,72.12928000000001,25.407201999999998,34.07008,14.494968,18.686447,15.140749,31.144175,18.064761999999998,14.683012,7.170691000000001,59.600327,69.249977,41.161629,33.769489,14.07504,452.10733,90.018875,47.189278,28.487782,16.256532999999997
42459,1645492049.281826,4.0,0.0,3797.4357909999994,4512.820313,4068.205078,3901.538574,4141.538574,0.0,4.0,86.0,,,,0.0,4.0,0.0,4.0,4.0,4.0,66.666664,,,,,,,,2.0,0.0,0.596877,-0.159424,0.642822,0.45288100000000003,0.9248190000000001,-0.389166,-0.123537,-0.033474000000000004,-0.037669,-0.025975,,,,,,,,,,,,,,,,,,,,,,,,,,,,,,,,,,,,,,,,,,,,,,,,,,,,,,,,,,,,,,,,,
42460,1645492049.289641,5.0,0.0,3772.820557,4484.615234000001,4047.6923829999996,3871.281982,4123.589844,450.0,4.0,86.0,,,,0.0,4.0,0.0,4.0,4.0,4.0,66.666664,,,,,,,,,,,,,,,,,,,,,,,,,,,,,,,,,,,,,,,,,,,,,,,,,,,,,,,,,,,,,,,,,,,,,,,,,,,,,,,,,,,,
42461,1645492049.297457,6.0,0.0,3828.718018,4474.871582,4096.922852000001,3908.205078,4171.282227000001,16156.0,4.0,86.0,,,,0.0,4.0,0.0,4.0,4.0,4.0,66.666664,,,,,,,,3.0,0.0,0.596877,-0.159424,0.642822,0.45288100000000003,0.9184709999999999,-0.400397,-0.12451400000000001,-0.033349000000000004,-0.037564,-0.02245,,,,,,,,,,,,,,,,,,,,,,,,,,,,,,,,,,,,,,,,,,,,,,,,,,,,,,,,,,,,,,,,,
42462,1645492049.305273,7.0,0.0,3897.9487299999996,4498.461426,4146.153809,3997.4357909999994,4226.153809,450.0,4.0,86.0,,,,0.0,4.0,0.0,4.0,4.0,4.0,66.666664,,,,,,,,,,,,,,,,,,,,,,,,,,,,,,,,,,,,,,,,,,,,,,,,,,,,,,0.0,0.0,32.0,0.291829,1.0,0.0,,,,,,,,,,,,,,,,,,,,,,,,,
42463,1645492049.3130882,8.0,0.0,3836.923096,4501.538574,4079.487061,3934.358887,4169.230957,450.0,4.0,86.0,,,,0.0,4.0,0.0,4.0,4.0,4.0,66.666664,,,,,,,,4.0,0.0,0.596955,-0.159424,0.642578,0.453125,0.917006,-0.387701,-0.125002,-0.033431999999999996,-0.037665,-0.025429,,,,,,,,,,,,,,,,,,,,,,,,,,,,,,,,,,,,,,,,,,,,,,,,,,,,,,,,,,,,,,,,,
42464,1645492049.320904,9.0,0.0,3726.6667479999996,4462.05127,4004.615479,3798.974365,4057.9487299999996,16175.0,4.0,86.0,,,,0.0,4.0,0.0,4.0,4.0,4.0,66.666664,,,,,,,,,,,,,,,,,,,,,,,,,,,,,,,,,,,,,,,,,,,,,,,,,,,,,,,,,,,,,,,,,,,,,,,,,,,,,,,,,,,,
42465,1645492049.328719,10.0,0.0,3753.8461909999996,4470.769043,4051.794922,3818.974365,4059.487061,450.0,4.0,86.0,,,,0.0,4.0,0.0,4.0,4.0,4.0,66.666664,,,,,,,,5.0,0.0,0.59714,-0.159424,0.642578,0.45288100000000003,0.9126120000000001,-0.391608,-0.121584,-0.033507,-0.037707,-0.021959,,,,,,,,,,,,,,,,,,,,,,,,,,,,,,,,,,,,,,,,,,,,,,,,,,,,,,,,,,,,,,,,,
42466,1645492049.3366349,11.0,0.0,3813.8461909999996,4537.436035,4094.8718259999996,3874.8718259999996,4114.358886999999,16128.0,4.0,86.0,,,,0.0,4.0,0.0,4.0,4.0,4.0,66.666664,,,,,,,,,,,,,,,,,,,,,,,,,,,,,,,,,,,,,,,,,,,,,,,,,,,,,,0.0,0.0,32.0,0.291829,1.0,0.0,,,,,,,,,,,,,,,,,,,,,,,,,
42467,1645492049.344451,12.0,0.0,3783.076904,4557.94873,4064.102539,3851.281982,4111.794922,450.0,4.0,86.0,,,,0.0,4.0,0.0,4.0,4.0,4.0,66.666664,,,,,,,,6.0,0.0,0.59714,-0.159424,0.642578,0.45288100000000003,0.929213,-0.41406899999999996,-0.127443,-0.033477,-0.037794,-0.018737,,,,,,,,,,,,,,,,,,,,,,,,,,,,,,,,,,,,,,,,,,,,,,,,,,,,,,,,,,,,,,,,,
42468,1645492049.352266,13.0,0.0,3764.615479,4508.205078,4050.7692869999996,3862.5642090000006,4108.205078,450.0,4.0,86.0,,,,0.0,4.0,0.0,4.0,4.0,4.0,66.666664,,,,,,,,,,,,,,,,,,,,,,,,,,,,,,,,,,,,,,,,,,,,,,,,,,,,,,,,,,,,,,,,,,,,,,,,,,,,,,,,,,,,
42469,1645492049.3600821,14.0,0.0,3788.205078,4468.205078,4051.281982,3878.974365,4102.05127,450.0,4.0,86.0,,,,0.0,4.0,0.0,4.0,4.0,4.0,66.666664,,,,,,,,7.0,0.0,0.597205,-0.15918,0.642578,0.45288100000000003,0.9155409999999999,-0.396002,-0.129885,-0.033352,-0.037676999999999995,-0.015887000000000002,,,,,,,,,,,,,,,,,,,,,,,,,,,,,,,,,,,,,,,,,,,,,,,,,,,,,,,,,,,,,,,,,
42470,1645492049.367897,15.0,0.0,3782.5642090000006,4490.769043,4026.1538090000004,3832.3076170000004,4073.3332520000004,16128.0,4.0,86.0,,,,0.0,4.0,0.0,4.0,4.0,4.0,66.666664,,,,,,,,,,,,,,,,,,,,,,,,,,,,,,,,,,,,,,,,,,,,,,,,,,,,,,0.0,0.0,32.0,0.291829,1.0,0.0,,,,,,,,,,,,,,,,,,,,,,,,,
42471,1645492049.375713,16.0,0.0,3772.820557,4501.025879,4010.7692869999996,3792.820557,4074.8718259999996,0.0,4.0,86.0,,,,0.0,4.0,0.0,4.0,4.0,4.0,66.666664,,,,,,,,8.0,0.0,0.597653,-0.15918,0.642334,0.452637,0.9160299999999999,-0.403326,-0.14111500000000002,-0.033386,-0.03762,-0.019377000000000002,,,,,,,,,,,,,,,,,,,,,,,,,,,,,,,,,,,,,,,,,,,,,,,,,,,,,,,,,,,,,,,,,
42472,1645492049.383529,17.0,0.0,3837.9487299999996,4466.153809,4070.256348,3856.923096,4142.05127,0.0,4.0,86.0,,,,0.0,4.0,0.0,4.0,4.0,4.0,66.666664,,,,,,,,,,,,,,,,,,,,,,,,,,,,,,,,,,,,,,,,,,,,,,,,,,,,,,,,,,,,,,,,,,,,,,,,,,,,,,,,,,,,
42473,1645492049.3913438,18.0,0.0,3933.3332520000004,4482.563965,4147.179688,3967.179443,4234.871582,0.0,4.0,86.0,,,,0.0,4.0,0.0,4.0,4.0,4.0,66.666664,,,,,,,,9.0,0.0,0.59714,-0.159424,0.642578,0.45288100000000003,0.929213,-0.41406899999999996,-0.127443,-0.033368,-0.037471,-0.022664,,,,,,,,,,,,,,,,,,,,,,,,,,,,,,,,,,,,,,,,,,,,,,,,,,,,,,,,,,,,,,,,,
42474,1645492049.39916,19.0,0.0,3937.9487299999996,4536.922852000001,4132.820313,3960.0,4250.256348,0.0,4.0,86.0,,,,0.0,4.0,0.0,4.0,4.0,4.0,66.666664,,,,,,,,,,,,,,,,,,,,1.0,0.0,0.0,,,,,,,,,,,,,,,,,,,,,,,,,,,,,,,,0.0,0.0,1.0,0.0,512.0,1.0,12789.087891,779.047546,143.194839,57.184158,21.310816,90.05024,24.13018,34.043732,12.674447,19.499414,16.020811,28.162917999999998,18.12339,14.951931,7.629044,62.618366,67.142403,43.889111,32.902221999999995,13.945115,579.167358,89.215202,46.637619,27.680309,15.982564000000002
42475,1645492049.407075,20.0,0.0,3867.179443,4510.769043,4071.794922,3860.512939,4167.692383,0.0,4.0,86.0,,,,0.0,4.0,0.0,4.0,4.0,4.0,66.666664,,,,,,,,10.0,0.0,0.597653,-0.15918,0.642334,0.452637,0.9160299999999999,-0.403326,-0.14111500000000002,-0.0334,-0.037435,-0.025476,,,,,,,,,,,,,,,,,,,,,,,,,,,,,,,,,,,,,,,,,,,,,,,,,,,,,,,,,,,,,,,,,
42476,1645492049.414891,21.0,0.0,3843.5898439999996,4448.717772999999,4071.794922,3845.1281740000004,4122.563965,0.0,4.0,86.0,,,,0.0,4.0,0.0,4.0,4.0,4.0,66.666664,,,,,,,,,,,,,,,,,,,,,,,,,,,,,,,,,,,,,,,,,,,,,,,,,,,,,,,,,,,,,,,,,,,,,,,,,,,,,,,,,,,,
42477,1645492049.4227061,22.0,0.0,3867.6923829999996,4475.897461,4096.410156,3911.281982,4157.436035,0.0,4.0,86.0,,,,0.0,4.0,0.0,4.0,4.0,4.0,66.666664,,,,,,,,11.0,0.0,0.597838,-0.15918,0.642334,0.45239300000000005,0.933608,-0.39453699999999997,-0.124025,-0.033477999999999994,-0.0375,-0.028152999999999997,,,,,,,,,,,,,,,,,,,,,,,,,,,,,,,,,,,,,,,,,,,,,,,,,,,,,,,,,,,,,,,,,
42478,1645492049.430522,23.0,0.0,3846.6667479999996,4511.282227000001,4062.0512700000004,3881.025635,4130.769043,0.0,4.0,86.0,,,,0.0,4.0,0.0,4.0,4.0,4.0,66.666664,,,,,,,,,,,,,,,,,,,,,,,,,,,,,,,,,,,,,,,,,,,,,,,,,,,,,,0.0,0.0,1.0,0.0,512.0,1.0,,,,,,,,,,,,,,,,,,,,,,,,,
42479,1645492049.438338,24.0,0.0,3800.512939,4440.0,4023.5898439999996,3788.718018,4055.897461,0.0,4.0,86.0,,,,0.0,4.0,0.0,4.0,4.0,4.0,66.666664,,,,,,,,12.0,0.0,0.597575,-0.15918,0.642578,0.45239300000000005,0.9267719999999999,-0.385748,-0.125002,-0.033451,-0.03751,-0.024312,,,,,,,,,,,,,,,,,,,,,,,,,,,,,,,,,,,,,,,,,,,,,,,,,,,,,,,,,,,,,,,,,
42480,1645492049.446153,25.0,0.0,3788.718018,4375.897461,4026.1538090000004,3788.205078,4041.025635,0.0,4.0,86.0,,,,0.0,4.0,0.0,4.0,4.0,4.0,66.666664,,,,,,,,,,,,,,,,,,,,,,,,,,,,,,,,,,,,,,,,,,,,,,,,,,,,,,,,,,,,,,,,,,,,,,,,,,,,,,,,,,,,
42481,1645492049.453969,26.0,0.0,3773.8461909999996,4413.333496,4008.205078,3788.205078,4033.8461909999996,0.0,4.0,86.0,,,,0.0,4.0,0.0,4.0,4.0,4.0,66.666664,,,,,,,,13.0,0.0,0.5977600000000001,-0.15918,0.642578,0.45214799999999994,0.9267719999999999,-0.395514,-0.128908,-0.033377,-0.037469999999999996,-0.027105,,,,,,,,,,,,,,,,,,,,,,,,,,,,,,,,,,,,,,,,,,,,,,,,,,,,,,,,,,,,,,,,,
42482,1645492049.461784,27.0,0.0,3750.7692869999996,4454.358886999999,3993.8461909999996,3733.8461909999996,4013.3332520000004,0.0,4.0,86.0,,,,0.0,4.0,0.0,4.0,4.0,4.0,66.666664,,,,,,,,,,,,,,,,,,,,,,,,,,,,,,,,,,,,,,,,,,,,,,,,,,,,,,0.0,0.0,1.0,0.0,512.0,1.0,,,,,,,,,,,,,,,,,,,,,,,,,
42483,1645492049.4696,28.0,0.0,3815.384521,4455.897461,4071.281982,3809.743652,4080.0,0.0,4.0,86.0,,,,0.0,4.0,0.0,4.0,4.0,4.0,66.666664,,,,,,,,14.0,0.0,0.5977600000000001,-0.15918,0.642578,0.45214799999999994,0.923842,-0.389654,-0.122072,-0.03336,-0.037482999999999995,-0.029717,,,,,,,,,,,,,,,,,,,,,,,,,,,,,,,,,,,,,,,,,,,,,,,,,,,,,,,,,,,,,,,,,
42484,1645492049.477516,29.0,0.0,3900.512939,4468.717772999999,4147.179688,3962.5642090000006,4166.153809,0.0,4.0,86.0,,,,0.0,4.0,0.0,4.0,4.0,4.0,66.666664,,,,,,,,,,,,,,,,,,,,,,,,,,,,,,,,,,,,,,,,,,,,,,,,,,,,,,,,,,,,,,,,,,,,,,,,,,,,,,,,,,,,
42485,1645492049.485331,30.0,0.0,3872.820557,4488.717772999999,4098.974121,3936.4101560000004,4145.641113000001,0.0,4.0,86.0,,,,0.0,4.0,0.0,4.0,4.0,4.0,66.666664,,,,,,,,15.0,0.0,0.597575,-0.15918,0.642578,0.45239300000000005,0.917983,-0.388678,-0.11133,-0.033295,-0.037348,-0.031824,,,,,,,,,,,,,,,,,,,,,,,,,,,,,,,,,,,,,,,,,,,,,,,,,,,,,,,,,,,,,,,,,
42486,1645492049.4931471,31.0,0.0,3830.7692869999996,4471.282227000001,4052.820557,3843.5898439999996,4100.512695,0.0,4.0,86.0,,,,0.0,4.0,0.0,4.0,4.0,4.0,66.666664,,,,,,,,,,,,,,,,,,,,,,,,,,,,,,,,,,,,,,,,,,,,,,,,,,,,,,0.0,0.0,1.0,0.0,512.0,1.0,,,,,,,,,,,,,,,,,,,,,,,,,
42487,1645492049.500962,32.0,0.0,3845.641113,4438.461426,4080.0,3864.615479,4090.7692869999996,0.0,4.0,86.0,,,,0.0,4.0,0.0,4.0,4.0,4.0,66.666664,,,,,,,,16.0,0.0,0.597575,-0.15918,0.642578,0.45239300000000005,0.9209129999999999,-0.394049,-0.123537,-0.033433,-0.037471,-0.033817,,,,,,,,,,,,,,,,,,,,,,,,,,,,,,,,,,,,,,,,,,,,,,,,,,,,,,,,,,,,,,,,,
42488,1645492049.5087779,33.0,0.0,3779.487061,4425.128418,4045.1281740000004,3828.205078,4029.2307130000004,0.0,4.0,86.0,,,,0.0,4.0,0.0,4.0,4.0,4.0,66.666664,,,,,,,,,,,,,,,,,,,,,,,,,,,,,,,,,,,,,,,,,,,,,,,,,,,,,,,,,,,,,,,,,,,,,,,,,,,,,,,,,,,,
42489,1645492049.516594,34.0,0.0,3679.487061,4414.871582,3973.3332520000004,3714.8718259999996,3940.0,0.0,4.0,86.0,,,,0.0,4.0,0.0,4.0,4.0,4.0,66.666664,,,,,,,,17.0,0.0,0.59739,-0.15918,0.642578,0.452637,0.9209129999999999,-0.38721300000000003,-0.124025,-0.033458999999999996,-0.037630000000000004,-0.035807,,,,,,,,,,,,,,,,,,,,,,,,,,,,,,,,,,,,,,,,,,,,,,,,,,,,,,,,,,,,,,,,,
42490,1645492049.524409,35.0,0.0,3774.358887,4431.282227000001,4042.5642090000006,3776.4101560000004,4009.2307130000004,0.0,4.0,86.0,,,,0.0,4.0,0.0,4.0,4.0,4.0,66.666664,,,,,,,,,,,,,,,,,,,,1.0,0.0,0.0,,,,,,,,,,,,,,,,,,,,,,,,,,,,,,,,0.0,0.0,1.0,0.0,512.0,1.0,14028.722656,848.9302369999999,146.410202,56.675143999999996,21.312626,97.07242600000001,21.819628,32.248428000000004,10.852172999999999,18.949023999999998,17.808070999999998,25.084429,17.143677,14.054078,7.9052679999999995,64.728188,65.677162,44.625401000000004,29.970501000000002,13.872482000000002,645.636169,85.392944,42.995391999999995,25.091042,15.724248999999999
42491,1645492049.532225,36.0,0.0,3984.102539,4458.974121,4196.922852000001,3984.102539,4203.077147999999,0.0,4.0,86.0,,,,0.0,4.0,0.0,4.0,4.0,4.0,66.666664,,,,,,,,18.0,0.0,0.59739,-0.15918,0.642578,0.452637,0.921889,-0.389166,-0.11767799999999999,-0.033482,-0.037529,-0.031201,,,,,,,,,,,,,,,,,,,,,,,,,,,,,,,,,,,,,,,,,,,,,,,,,,,,,,,,,,,,,,,,,
42492,1645492049.54004,37.0,0.0,4088.718018,4446.666504,4248.205078,4081.025635,4307.692383,0.0,4.0,86.0,,,,0.0,4.0,0.0,4.0,4.0,4.0,66.666664,,,,,,,,,,,,,,,,,,,,,,,,,,,,,,,,,,,,,,,,,,,,,,,,,,,,,,,,,,,,,,,,,,,,,,,,,,,,,,,,,,,,
42493,1645492049.547856,38.0,0.0,4120.512695,4448.717772999999,4238.461426,4112.307617,4340.0,0.0,4.0,86.0,,,,0.0,4.0,0.0,4.0,4.0,4.0,66.666664,,,,,,,,19.0,0.0,0.59727,-0.158936,0.642578,0.45288100000000003,0.906752,-0.395514,-0.13135,-0.033503,-0.037536,-0.033402999999999995,,,,,,,,,,,,,,,,,,,,,,,,,,,,,,,,,,,,,,,,,,,,,,,,,,,,,,,,,,,,,,,,,
42494,1645492049.555771,39.0,0.0,4125.641113000001,4500.512695,4232.307617,4180.512695,4347.179688,0.0,4.0,86.0,,,,0.0,4.0,0.0,4.0,4.0,4.0,66.666664,,,,,,,,,,,,,,,,,,,,,,,,,,,,,,,,,,,,,,,,,,,,,,,,,,,,,,0.0,0.0,1.0,0.0,512.0,1.0,,,,,,,,,,,,,,,,,,,,,,,,,
42495,1645492049.563587,40.0,0.0,4030.256348,4513.846191,4158.461426,4127.692383,4237.94873,0.0,4.0,86.0,,,,0.0,4.0,0.0,4.0,4.0,4.0,66.666664,,,,,,,,20.0,0.0,0.59727,-0.158936,0.642578,0.45288100000000003,0.916518,-0.408698,-0.12549000000000002,-0.033619,-0.037493,-0.029183999999999998,,,,,,,,,,,,,,,,,,,,,,,,,,,,,,,,,,,,,,,,,,,,,,,,,,,,,,,,,,,,,,,,,
42496,1645492049.571403,41.0,0.0,3877.9487299999996,4476.410156,4044.615479,3923.5898439999996,4072.820557,0.0,4.0,86.0,,,,0.0,4.0,0.0,4.0,4.0,4.0,66.666664,,,,,,,,,,,,,,,,,,,,,,,,,,,,,,,,,,,,,,,,,,,,,,,,,,,,,,,,,,,,,,,,,,,,,,,,,,,,,,,,,,,,
42497,1645492049.579218,42.0,0.0,3810.7692869999996,4466.153809,4013.8461909999996,3823.076904,4007.6923829999996,0.0,4.0,86.0,,,,0.0,4.0,0.0,4.0,4.0,4.0,66.666664,,,,,,,,21.0,0.0,0.5973350000000001,-0.158691,0.642578,0.45288100000000003,0.9209129999999999,-0.42090500000000003,-0.127932,-0.033578,-0.037602,-0.025240000000000002,,,,,,,,,,,,,,,,,,,,,,,,,,,,,,,,,,,,,,,,,,,,,,,,,,,,,,,,,,,,,,,,,
42498,1645492049.587034,43.0,0.0,3821.025635,4450.769043,4042.0512700000004,3887.6923829999996,3998.974365,0.0,4.0,86.0,,,,0.0,4.0,0.0,4.0,4.0,4.0,66.666664,,,,,,,,,,,,,,,,,,,,,,,,,,,,,,,,,,,,,,,,,,,,,,,,,,,,,,0.0,0.0,1.0,0.0,512.0,1.0,,,,,,,,,,,,,,,,,,,,,,,,,
42499,1645492049.594849,44.0,0.0,3822.5642090000006,4417.94873,4049.743652,3912.3076170000004,3981.538574,0.0,4.0,86.0,,,,0.0,4.0,0.0,4.0,4.0,4.0,66.666664,,,,,,,,22.0,0.0,0.5975199999999999,-0.158691,0.642578,0.452637,0.913588,-0.41065100000000004,-0.125978,-0.033638,-0.03765,-0.027941000000000004,,,,,,,,,,,,,,,,,,,,,,,,,,,,,,,,,,,,,,,,,,,,,,,,,,,,,,,,,,,,,,,,,
42500,1645492049.602665,45.0,0.0,3818.974365,4414.358886999999,4044.102539,3855.897461,3994.358887,0.0,4.0,86.0,,,,0.0,4.0,0.0,4.0,4.0,4.0,66.666664,,,,,,,,,,,,,,,,,,,,,,,,,,,,,,,,,,,,,,,,,,,,,,,,,,,,,,,,,,,,,,,,,,,,,,,,,,,,,,,,,,,,
42501,1645492049.610481,46.0,0.0,3826.1538090000004,4431.794922,4031.281982,3835.897461,4011.281982,0.0,4.0,86.0,,,,0.0,4.0,0.0,4.0,4.0,4.0,66.666664,,,,,,,,23.0,0.0,0.597585,-0.158447,0.642578,0.452637,0.9277489999999999,-0.399908,-0.11230599999999999,-0.033692,-0.037694,-0.03042,,,,,,,,,,,,,,,,,,,,,,,,,,,,,,,,,,,,,,,,,,,,,,,,,,,,,,,,,,,,,,,,,
42502,1645492049.618396,47.0,0.0,3813.8461909999996,4456.922852000001,4011.281982,3855.384521,3987.179443,0.0,4.0,86.0,,,,0.0,4.0,0.0,4.0,4.0,4.0,66.666664,,,,,,,,,,,,,,,,,,,,,,,,,,,,,,,,,,,,,,,,,,,,,,,,,,,,,,0.0,0.0,1.0,0.0,512.0,1.0,,,,,,,,,,,,,,,,,,,,,,,,,
42503,1645492049.626212,48.0,0.0,3785.1281740000004,4477.94873,4015.897461,3849.2307130000004,3950.7692869999996,0.0,4.0,86.0,,,,0.0,4.0,0.0,4.0,4.0,4.0,66.666664,,,,,,,,24.0,0.0,0.597585,-0.158447,0.642578,0.452637,0.9209129999999999,-0.39502600000000004,-0.126467,-0.033692,-0.037635,-0.026400999999999997,,,,,,,,,,,,,,,,,,,,,,,,,,,,,,,,,,,,,,,,,,,,,,,,,,,,,,,,,,,,,,,,,
42504,1645492049.634027,49.0,0.0,3835.384521,4477.436035,4064.102539,3885.1281740000004,3997.9487299999996,0.0,4.0,86.0,,,,0.0,4.0,0.0,4.0,4.0,4.0,66.666664,,,,,,,,,,,,,,,,,,,,,,,,,,,,,,,,,,,,,,,,,,,,,,,,,,,,,,,,,,,,,,,,,,,,,,,,,,,,,,,,,,,,
42505,1645492049.641843,50.0,0.0,3927.179443,4462.05127,4103.589844,3967.179443,4086.1538090000004,0.0,4.0,86.0,,,,0.0,4.0,0.0,4.0,4.0,4.0,66.666664,,,,,,,,25.0,0.0,0.597847,-0.158447,0.642334,0.452637,0.9194479999999999,-0.383795,-0.11133,-0.033692,-0.037632,-0.028986,,,,,,,,,,,,,,,,,,,,,,,,,,,,,,,,,,,,,,,,,,,,,,,,,,,,,,,,,,,,,,,,,
42506,1645492049.649658,51.0,0.0,3898.974365,4461.538574,4061.025635,3933.8461909999996,4049.743652,0.0,4.0,86.0,,,,0.0,4.0,0.0,4.0,4.0,4.0,66.666664,1.0,8.333333,0.0,0.0,3.0,1.0,1.0,,,,,,,,,,,,,1.0,0.0,0.0,,,,,,,,,,,,,,,,,,,,,,,,,,,,,,,,0.0,0.0,1.0,0.0,512.0,1.0,13257.615234,806.4833980000001,131.962799,51.413166,20.426037,92.835373,19.329876000000002,28.651718,9.168118,17.185053,19.412834,22.359056,15.618958,12.669978,8.009008,64.047943,64.249313,43.904243,26.534658,14.02639,633.760437,78.895279,38.155674,22.233442,15.75777
42507,1645492049.657474,52.0,0.0,3813.8461909999996,4458.461426,4013.3332520000004,3825.641113,3966.1538090000004,0.0,4.0,86.0,,,,0.0,4.0,0.0,4.0,4.0,4.0,66.666664,,,,,,,,26.0,0.0,0.597727,-0.158203,0.642334,0.45288100000000003,0.9233540000000001,-0.39502600000000004,-0.124025,-0.033643,-0.037579,-0.031361,,,,,,,,,,,,,,,,,,,,,,,,,,,,,,,,,,,,,,,,,,,,,,,,,,,,,,,,,,,,,,,,,
42508,1645492049.66529,53.0,0.0,3850.7692869999996,4447.692383,4059.487061,3857.4357909999994,4026.6667479999996,0.0,4.0,86.0,,,,0.0,4.0,0.0,4.0,4.0,4.0,66.666664,,,,,,,,,,,,,,,,,,,,,,,,,,,,,,,,,,,,,,,,,,,,,,,,,,,,,,,,,,,,,,,,,,,,,,,,,,,,,,,,,,,,
42509,1645492049.673105,54.0,0.0,3928.718018,4483.589844,4100.512695,3984.615479,4106.153809,0.0,4.0,86.0,,,,0.0,4.0,0.0,4.0,4.0,4.0,66.666664,,,,,,,,27.0,0.0,0.597792,-0.157959,0.642334,0.45288100000000003,0.925795,-0.400397,-0.130373,-0.033648000000000004,-0.037581,-0.033645,,,,,,,,,,,,,,,,,,,,,,,,,,,,,,,,,,,,,,,,,,,,,,,,,,,,,,,,,,,,,,,,,
42510,1645492049.680921,55.0,0.0,3915.897461,4529.230957,4073.3332520000004,3999.487061,4062.0512700000004,0.0,4.0,86.0,,,,0.0,4.0,0.0,4.0,4.0,4.0,66.666664,,,,,,,,,,,,,,,,,,,,,,,,,,,,,,,,,,,,,,,,,,,,,,,,,,,,,,0.0,0.0,1.0,0.0,512.0,1.0,,,,,,,,,,,,,,,,,,,,,,,,,
42511,1645492049.688736,56.0,0.0,3891.281982,4511.282227000001,4053.3332520000004,3935.897461,4029.743652,0.0,4.0,86.0,,,,0.0,4.0,0.0,4.0,4.0,4.0,66.666664,,,,,,,,28.0,0.0,0.597792,-0.157959,0.642334,0.45288100000000003,0.932143,-0.393072,-0.118654,-0.033604,-0.037485000000000004,-0.035602999999999996,,,,,,,,,,,,,,,,,,,,,,,,,,,,,,,,,,,,,,,,,,,,,,,,,,,,,,,,,,,,,,,,,
42512,1645492049.696652,57.0,0.0,3947.179443,4493.846191,4088.718018,3984.102539,4105.641113000001,0.0,4.0,86.0,,,,0.0,4.0,0.0,4.0,4.0,4.0,66.666664,,,,,,,,,,,,,,,,,,,,,,,,,,,,,,,,,,,,,,,,,,,,,,,,,,,,,,,,,,,,,,,,,,,,,,,,,,,,,,,,,,,,
42513,1645492049.704468,58.0,0.0,4049.743652,4494.871582,4156.922852000001,4148.205078,4210.256348,0.0,4.0,86.0,,,,0.0,4.0,0.0,4.0,4.0,4.0,66.666664,,,,,,,,29.0,0.0,0.597529,-0.157959,0.642578,0.45288100000000003,0.9282370000000001,-0.40381500000000004,-0.13281500000000002,-0.033613,-0.037497,-0.037462,,,,,,,,,,,,,,,,,,,,,,,,,,,,,,,,,,,,,,,,,,,,,,,,,,,,,,,,,,,,,,,,,
42514,1645492049.712283,59.0,0.0,4103.589844,4444.102539,4195.897461,4225.641113000001,4248.205078,0.0,4.0,86.0,,,,0.0,4.0,0.0,4.0,4.0,4.0,66.666664,,,,,,,,,,,,,,,,,,,,,,,,,,,,,,,,,,,,,,,,,,,,,,,,,,,,,,0.0,0.0,1.0,0.0,512.0,1.0,,,,,,,,,,,,,,,,,,,,,,,,,
42515,1645492049.720099,60.0,0.0,4056.4101560000004,4415.897461,4151.282227000001,4157.436035,4198.974121,0.0,4.0,86.0,,,,0.0,4.0,0.0,4.0,4.0,4.0,66.666664,,,,,,,,30.0,0.0,0.59765,-0.158203,0.642578,0.452637,0.922866,-0.395514,-0.12109600000000001,-0.033572000000000005,-0.037604000000000005,-0.038941,,,,,,,,,,,,,,,,,,,,,,,,,,,,,,,,,,,,,,,,,,,,,,,,,,,,,,,,,,,,,,,,,
42516,1645492049.727914,61.0,0.0,3945.1281740000004,4460.0,4067.6923829999996,4075.384521,4106.153809,0.0,4.0,86.0,,,,0.0,4.0,0.0,4.0,4.0,4.0,66.666664,,,,,,,,,,,,,,,,,,,,,,,,,,,,,,,,,,,,,,,,,,,,,,,,,,,,,,,,,,,,,,,,,,,,,,,,,,,,,,,,,,,,
42517,1645492049.7357302,62.0,0.0,3905.641113,4475.897461,4042.0512700000004,4036.4101560000004,4054.358887,0.0,4.0,86.0,,,,0.0,4.0,0.0,4.0,4.0,4.0,66.666664,,,,,,,,31.0,0.0,0.59765,-0.158203,0.642578,0.452637,0.917006,-0.393561,-0.112795,-0.033486,-0.037457,-0.034069999999999996,,,,,,,,,,,,,,,,,,,,,,,,,,,,,,,,,,,,,,,,,,,,,,,,,,,,,,,,,,,,,,,,,
42518,1645492049.743546,63.0,0.0,3931.281982,4423.589844,4052.820557,3990.256348,4036.4101560000004,0.0,4.0,86.0,,,,0.0,4.0,0.0,4.0,4.0,4.0,66.666664,,,,,,,,,,,,,,,,,,,,,,,,,,,,,,,,,,,,,,,,,,,,,,,,,,,,,,0.0,0.0,1.0,0.0,512.0,1.0,,,,,,,,,,,,,,,,,,,,,,,,,
42519,1645492049.751361,64.0,0.0,3852.820557,4387.179688,4010.256348,3913.8461909999996,3971.794922,450.0,4.0,86.0,,,,0.0,4.0,0.0,4.0,4.0,4.0,66.666664,,,,,,,,32.0,0.0,0.5974649999999999,-0.158203,0.642578,0.45288100000000003,0.909682,-0.397467,-0.116701,-0.033507,-0.037569,-0.035887999999999996,,,,,,,,,,,,,,,,,,,,,,,,,,,,,,,,,,,,,,,,,,,,,,,,,,,,,,,,,,,,,,,,,
42520,1645492049.7592769,65.0,0.0,3739.487061,4412.307617,3956.4101560000004,3862.0512700000004,3910.256348,450.0,4.0,86.0,,,,0.0,4.0,0.0,4.0,4.0,4.0,66.666664,,,,,,,,,,,,,,,,,,,,,,,,,,,,,,,,,,,,,,,,,,,,,,,,,,,,,,,,,,,,,,,,,,,,,,,,,,,,,,,,,,,,
42521,1645492049.767092,66.0,0.0,3780.512939,4429.743652,3989.743652,3902.5642090000006,3952.3076170000004,16099.0,4.0,86.0,,,,0.0,4.0,0.0,4.0,4.0,4.0,66.666664,,,,,,,,33.0,0.0,0.5974649999999999,-0.158203,0.642578,0.45288100000000003,0.925795,-0.399908,-0.120119,-0.033379,-0.037620999999999995,-0.031225,,,,,,,,,,,,,,,,,,,,,,,,,,,,,,,,,,,,,,,,,,,,,,,,,,,,,,,,,,,,,,,,,
42522,1645492049.774908,67.0,0.0,3875.897461,4387.692383,4051.281982,3956.923096,4020.512939,450.0,4.0,86.0,,,,0.0,4.0,0.0,4.0,4.0,4.0,66.666664,,,,,,,,,,,,,,,,,,,,1.0,0.0,0.0,,,,,,,,,,,,,,,,,,,,,,,,,,,,,,,,10.0,0.0,1.0,0.0,512.0,1.0,10711.124023,667.9334719999999,106.70914499999999,43.790329,19.059214,76.053146,17.102697,23.941269000000002,7.676183999999999,14.799917,20.504095,20.192091,14.892864000000001,11.799447,8.028554,60.239006,62.240134999999995,43.938869,24.661381,14.518096,543.757141,70.880318,35.656326,21.018404,16.159012
42523,1645492049.782723,68.0,0.0,3821.538574,4375.384765999999,4009.743652,3915.384521,3963.5898439999996,0.0,4.0,86.0,,,,0.0,4.0,0.0,4.0,4.0,4.0,66.666664,,,,,,,,34.0,0.0,0.59728,-0.158203,0.642578,0.453125,0.9150530000000001,-0.38721300000000003,-0.123049,-0.033605,-0.037472000000000005,-0.033326999999999996,,,,,,,,,,,,,,,,,,,,,,,,,,,,,,,,,,,,,,,,,,,,,,,,,,,,,,,,,,,,,,,,,
42524,1645492049.790539,69.0,0.0,3757.4357909999994,4418.461426,3966.6667479999996,3898.974365,3905.1281740000004,450.0,4.0,86.0,,,,0.0,4.0,0.0,4.0,4.0,4.0,66.666664,,,,,,,,,,,,,,,,,,,,,,,,,,,,,,,,,,,,,,,,,,,,,,,,,,,,,,,,,,,,,,,,,,,,,,,,,,,,,,,,,,,,
42525,1645492049.798355,70.0,0.0,3848.718018,4398.974121,4032.820557,3984.615479,3989.2307130000004,16257.0,4.0,86.0,,,,0.0,4.0,0.0,4.0,4.0,4.0,66.666664,,,,,,,,35.0,0.0,0.59728,-0.158203,0.642578,0.453125,0.917494,-0.40528000000000003,-0.11133,-0.033614,-0.037582,-0.035219,,,,,,,,,,,,,,,,,,,,,,,,,,,,,,,,,,,,,,,,,,,,,,,,,,,,,,,,,,,,,,,,,
42526,1645492049.80617,71.0,0.0,3944.102539,4377.436035,4082.0512700000004,4014.8718259999996,4074.8718259999996,450.0,4.0,86.0,,,,0.0,4.0,0.0,4.0,4.0,4.0,66.666664,,,,,,,,,,,,,,,,,,,,,,,,,,,,,,,,,,,,,,,,,,,,,,,,,,,,,,10.0,0.0,1.0,0.0,512.0,1.0,,,,,,,,,,,,,,,,,,,,,,,,,
42527,1645492049.8139858,72.0,0.0,4002.0512700000004,4449.230957,4119.487305,4042.5642090000006,4132.307617,450.0,4.0,86.0,,,,0.0,4.0,0.0,4.0,4.0,4.0,66.666664,,,,,,,,36.0,0.0,0.5974649999999999,-0.158203,0.642578,0.45288100000000003,0.9267719999999999,-0.40576799999999996,-0.13281500000000002,-0.033622000000000006,-0.037633,-0.036922,,,,,,,,,,,,,,,,,,,,,,,,,,,,,,,,,,,,,,,,,,,,,,,,,,,,,,,,,,,,,,,,,
42528,1645492049.821801,73.0,0.0,4171.282227000001,4494.358886999999,4250.769043,4262.563965,4296.410156,16262.0,4.0,86.0,,,,0.0,4.0,0.0,4.0,4.0,4.0,66.666664,,,,,,,,,,,,,,,,,,,,,,,,,,,,,,,,,,,,,,,,,,,,,,,,,,,,,,,,,,,,,,,,,,,,,,,,,,,,,,,,,,,,
42529,1645492049.829617,74.0,0.0,4407.692383,4475.897461,4376.410156,4534.358886999999,4524.615234000001,450.0,4.0,86.0,,,,0.0,4.0,0.0,4.0,4.0,4.0,66.666664,,,,,,,,37.0,0.0,0.59728,-0.158203,0.642578,0.453125,0.9150530000000001,-0.38721300000000003,-0.123049,-0.033531,-0.037629,-0.038551999999999996,,,,,,,,,,,,,,,,,,,,,,,,,,,,,,,,,,,,,,,,,,,,,,,,,,,,,,,,,,,,,,,,,
42530,1645492049.837533,75.0,0.0,4489.743652,4492.307617,4353.333496,4572.307617,4611.282227000001,16136.0,4.0,86.0,,,,0.0,4.0,0.0,4.0,4.0,4.0,66.666664,,,,,,,,,,,,,,,,,,,,,,,,,,,,,,,,,,,,,,,,,,,,,,,,,,,,,,10.0,0.0,1.0,0.0,512.0,1.0,,,,,,,,,,,,,,,,,,,,,,,,,
42531,1645492049.8453481,76.0,0.0,4384.102539,4498.461426,4272.820313,4437.436035,4512.307617,450.0,4.0,86.0,,,,0.0,4.0,0.0,4.0,4.0,4.0,66.666664,,,,,,,,38.0,0.0,0.5974649999999999,-0.158203,0.642578,0.45288100000000003,0.9267719999999999,-0.40576799999999996,-0.13281500000000002,-0.033547,-0.037675,-0.039921,,,,,,,,,,,,,,,,,,,,,,,,,,,,,,,,,,,,,,,,,,,,,,,,,,,,,,,,,,,,,,,,,
42532,1645492049.853164,77.0,0.0,4364.102539,4450.769043,4306.666504,4441.025879,4491.282227000001,450.0,4.0,86.0,,,,0.0,4.0,0.0,4.0,4.0,4.0,66.666664,,,,,,,,,,,,,,,,,,,,,,,,,,,,,,,,,,,,,,,,,,,,,,,,,,,,,,,,,,,,,,,,,,,,,,,,,,,,,,,,,,,,
42533,1645492049.8609788,78.0,0.0,4500.0,4425.128418,4378.974121,4574.871582,4624.102539,450.0,4.0,86.0,,,,0.0,4.0,0.0,4.0,4.0,4.0,66.666664,,,,,,,,39.0,0.0,0.597202,-0.158203,0.642822,0.45288100000000003,0.9272600000000001,-0.399908,-0.124025,-0.033464,-0.037716,-0.034904000000000004,,,,,,,,,,,,,,,,,,,,,,,,,,,,,,,,,,,,,,,,,,,,,,,,,,,,,,,,,,,,,,,,,
42534,1645492049.868795,79.0,0.0,4434.871582,4405.641113000001,4292.307617,4497.94873,4542.05127,16136.0,4.0,86.0,,,,0.0,4.0,0.0,4.0,4.0,4.0,66.666664,,,,,,,,,,,,,,,,,,,,,,,,,,,,,,,,,,,,,,,,,,,,,,,,,,,,,,10.0,0.0,1.0,0.0,512.0,1.0,,,,,,,,,,,,,,,,,,,,,,,,,
42535,1645492049.876611,80.0,0.0,4188.717772999999,4381.025879,4162.563965,4281.025879,4286.666504,450.0,4.0,86.0,,,,0.0,4.0,0.0,4.0,4.0,4.0,66.666664,,,,,,,,40.0,0.0,0.597267,-0.157959,0.642822,0.45288100000000003,0.9150530000000001,-0.398932,-0.11084200000000001,-0.033438,-0.037607,-0.036588999999999997,,,,,,,,,,,,,,,,,,,,,,,,,,,,,,,,,,,,,,,,,,,,,,,,,,,,,,,,,,,,,,,,,
42536,1645492049.8844259,81.0,0.0,4190.769043,4418.461426,4205.128418,4294.358886999999,4310.256348,450.0,4.0,86.0,,,,0.0,4.0,0.0,4.0,4.0,4.0,66.666664,,,,,,,,,,,,,,,,,,,,,,,,,,,,,,,,,,,,,,,,,,,,,,,,,,,,,,,,,,,,,,,,,,,,,,,,,,,,,,,,,,,,
42537,1645492049.892242,82.0,0.0,4305.641113000001,4461.025879,4255.384765999999,4366.666504,4430.769043,450.0,4.0,86.0,,,,0.0,4.0,0.0,4.0,4.0,4.0,66.666664,,,,,,,,41.0,0.0,0.597267,-0.157959,0.642822,0.45288100000000003,0.9091940000000001,-0.409186,-0.114748,-0.033415,-0.037606,-0.031905,,,,,,,,,,,,,,,,,,,,,,,,,,,,,,,,,,,,,,,,,,,,,,,,,,,,,,,,,,,,,,,,,
42538,1645492049.900057,83.0,0.0,4187.179688,4444.615234000001,4167.692383,4224.615234000001,4297.436035,16136.0,4.0,86.0,,,,0.0,4.0,0.0,4.0,4.0,4.0,66.666664,,,,,,,,,,,,,,,,,,,,1.0,0.0,0.0,,,,,,,,,,,,,,,,,,,,,,,,,,,,,,,,10.0,0.0,1.0,0.0,512.0,1.0,7306.962401999999,477.93521100000004,82.733818,37.226933,17.714254,54.584217,15.081081,19.488094,6.377102,12.508778,21.915546,18.396393,16.729359,12.346764,8.100391,57.736343000000005,58.405853,48.153133000000004,25.96781,15.435787,414.525299,62.298634,39.604939,22.872116000000002,16.806042
42539,1645492049.9078732,84.0,0.0,4064.615479,4440.512695,4119.487305,4116.922852000001,4177.436035,450.0,4.0,86.0,,,,0.0,4.0,0.0,4.0,4.0,4.0,66.666664,,,,,,,,42.0,0.0,0.597267,-0.157959,0.642822,0.45288100000000003,0.920424,-0.400885,-0.12451400000000001,-0.033442,-0.037654,-0.033939,,,,,,,,,,,,,,,,,,,,,,,,,,,,,,,,,,,,,,,,,,,,,,,,,,,,,,,,,,,,,,,,,
42540,1645492049.9157882,85.0,0.0,4123.077147999999,4454.871582,4151.282227000001,4167.692383,4236.410156,450.0,4.0,86.0,,,,0.0,4.0,0.0,4.0,4.0,4.0,66.666664,,,,,,,,,,,,,,,,,,,,,,,,,,,,,,,,,,,,,,,,,,,,,,,,,,,,,,,,,,,,,,,,,,,,,,,,,,,,,,,,,,,,
42541,1645492049.923604,86.0,0.0,4170.769043,4429.743652,4147.179688,4180.0,4271.282227000001,450.0,4.0,86.0,,,,0.0,4.0,0.0,4.0,4.0,4.0,66.666664,,,,,,,,43.0,0.0,0.597146,-0.15771500000000002,0.642822,0.453125,0.9209129999999999,-0.39942,-0.12109600000000001,-0.033516000000000004,-0.037648,-0.029618000000000002,,,,,,,,,,,,,,,,,,,,,,,,,,,,,,,,,,,,,,,,,,,,,,,,,,,,,,,,,,,,,,,,,
42542,1645492049.9314198,87.0,0.0,4113.333496,4395.897461,4111.282227000001,4136.410156,4222.05127,16136.0,4.0,86.0,,,,0.0,4.0,0.0,4.0,4.0,4.0,66.666664,,,,,,,,,,,,,,,,,,,,,,,,,,,,,,,,,,,,,,,,,,,,,,,,,,,,,,0.0,0.0,1.0,0.0,512.0,1.0,,,,,,,,,,,,,,,,,,,,,,,,,
42543,1645492049.939235,88.0,0.0,4093.8461909999996,4414.871582,4123.077147999999,4157.94873,4214.871582,450.0,4.0,86.0,,,,0.0,4.0,0.0,4.0,4.0,4.0,66.666664,,,,,,,,44.0,0.0,0.597146,-0.15771500000000002,0.642822,0.453125,0.917494,-0.397955,-0.12451400000000001,-0.033485,-0.037643,-0.025582,,,,,,,,,,,,,,,,,,,,,,,,,,,,,,,,,,,,,,,,,,,,,,,,,,,,,,,,,,,,,,,,,
42544,1645492049.947051,89.0,0.0,4182.05127,4451.794922,4176.410156,4228.717772999999,4287.692383,450.0,4.0,86.0,,,,0.0,4.0,0.0,4.0,4.0,4.0,66.666664,,,,,,,,,,,,,,,,,,,,,,,,,,,,,,,,,,,,,,,,,,,,,,,,,,,,,,,,,,,,,,,,,,,,,,,,,,,,,,,,,,,,
42545,1645492049.954866,90.0,0.0,4167.692383,4433.846191,4151.282227000001,4195.897461,4252.307617,450.0,4.0,86.0,,,,0.0,4.0,0.0,4.0,4.0,4.0,66.666664,,,,,,,,45.0,0.0,0.597146,-0.15771500000000002,0.642822,0.453125,0.9150530000000001,-0.395514,-0.114748,-0.033554,-0.037639,-0.021998,,,,,,,,,,,,,,,,,,,,,,,,,,,,,,,,,,,,,,,,,,,,,,,,,,,,,,,,,,,,,,,,,
42546,1645492049.962682,91.0,0.0,4087.179443,4408.717772999999,4118.974121,4130.256348,4170.769043,16136.0,4.0,86.0,,,,0.0,4.0,0.0,4.0,4.0,4.0,66.666664,,,,,,,,,,,,,,,,,,,,,,,,,,,,,,,,,,,,,,,,,,,,,,,,,,,,,,0.0,0.0,1.0,0.0,512.0,1.0,,,,,,,,,,,,,,,,,,,,,,,,,
42547,1645492049.970498,92.0,0.0,4182.563965,4431.794922,4188.717772999999,4202.05127,4275.897461,450.0,4.0,86.0,,,,0.0,4.0,0.0,4.0,4.0,4.0,66.666664,,,,,,,,46.0,0.0,0.59721,-0.157471,0.642822,0.453125,0.921401,-0.400885,-0.126467,-0.033519,-0.037683999999999995,-0.024974,,,,,,,,,,,,,,,,,,,,,,,,,,,,,,,,,,,,,,,,,,,,,,,,,,,,,,,,,,,,,,,,,
42548,1645492049.978413,93.0,0.0,4234.871582,4422.563965,4189.743652,4212.820313,4317.436035,450.0,4.0,86.0,,,,0.0,4.0,0.0,4.0,4.0,4.0,66.666664,,,,,,,,,,,,,,,,,,,,,,,,,,,,,,,,,,,,,,,,,,,,,,,,,,,,,,,,,,,,,,,,,,,,,,,,,,,,,,,,,,,,
42549,1645492049.986229,94.0,0.0,4072.820557,4397.94873,4086.6667479999996,4053.8461909999996,4146.666504,450.0,4.0,86.0,,,,0.0,4.0,0.0,4.0,4.0,4.0,66.666664,,,,,,,,47.0,0.0,0.59721,-0.157471,0.642822,0.453125,0.9150530000000001,-0.401373,-0.12695499999999998,-0.033537,-0.037626,-0.0215,,,,,,,,,,,,,,,,,,,,,,,,,,,,,,,,,,,,,,,,,,,,,,,,,,,,,,,,,,,,,,,,,
42550,1645492049.994045,95.0,0.0,3987.179443,4397.94873,4071.794922,4005.641113,4090.256348,16136.0,4.0,86.0,,,,0.0,4.0,0.0,4.0,4.0,4.0,66.666664,,,,,,,,,,,,,,,,,,,,,,,,,,,,,,,,,,,,,,,,,,,,,,,,,,,,,,0.0,0.0,1.0,0.0,512.0,1.0,,,,,,,,,,,,,,,,,,,,,,,,,
42551,1645492050.0018609,96.0,0.0,4023.5898439999996,4337.436035,4092.820557,4029.2307130000004,4130.256348,450.0,4.0,86.0,,,,0.0,4.0,0.0,4.0,4.0,4.0,66.666664,,,,,,,,48.0,0.0,0.597275,-0.157227,0.642822,0.453125,0.913588,-0.407721,-0.12451400000000001,-0.033552,-0.037721,-0.018276,,,,,,,,,,,,,,,,,,,,,,,,,,,,,,,,,,,,,,,,,,,,,,,,,,,,,,,,,,,,,,,,,
42552,1645492050.0097759,97.0,0.0,4042.0512700000004,4333.846191,4101.025879,3978.974365,4117.436035,450.0,4.0,86.0,,,,0.0,4.0,0.0,4.0,4.0,4.0,66.666664,,,,,,,,,,,,,,,,,,,,,,,,,,,,,,,,,,,,,,,,,,,,,,,,,,,,,,,,,,,,,,,,,,,,,,,,,,,,,,,,,,,,
42553,1645492050.017592,98.0,0.0,4164.102539,4441.538574,4220.0,4077.4357909999994,4248.205078,450.0,4.0,86.0,,,,0.0,4.0,0.0,4.0,4.0,4.0,66.666664,,,,,,,,49.0,0.0,0.597154,-0.15698199999999998,0.642822,0.45336899999999997,0.9038219999999999,-0.41113900000000003,-0.133303,-0.033664,-0.03766,-0.021721999999999998,,,,,,,,,,,,,,,,,,,,,,,,,,,,,,,,,,,,,,,,,,,,,,,,,,,,,,,,,,,,,,,,,
42554,1645492050.025407,99.0,0.0,4248.205078,4444.615234000001,4261.538574,4200.0,4357.94873,16136.0,4.0,86.0,,,,0.0,4.0,0.0,4.0,4.0,4.0,66.666664,,,,,,,,,,,,,,,,,,,,1.0,0.0,0.0,,,,,,,,,,,,,,,,,,,,,,,,,,,,,,,,0.0,0.0,1.0,0.0,512.0,1.0,4064.016357,290.544403,70.064041,34.247665000000005,16.887629999999998,33.615883000000004,12.974993,16.563351,5.3449290000000005,10.780066,26.596892999999998,16.961599,21.870857,14.574053,8.384028,67.456451,52.966099,58.517936999999996,30.724237,16.934082,289.065521,54.22235500000001,51.538654,27.906941999999997,17.543907
42555,1645492050.033222,100.0,0.0,4078.974365,4371.794922,4086.6667479999996,4044.102539,4162.563965,450.0,4.0,86.0,,,,0.0,4.0,0.0,4.0,4.0,4.0,66.666664,,,,,,,,50.0,0.0,0.5973390000000001,-0.15698199999999998,0.642822,0.453125,0.918959,-0.40235,-0.122072,-0.033618,-0.037703,-0.024872,,,,,,,,,,,,,,,,,,,,,,,,,,,,,,,,,,,,,,,,,,,,,,,,,,,,,,,,,,,,,,,,,
42556,1645492050.041038,101.0,0.0,3953.3332520000004,4380.0,4007.6923829999996,3878.974365,4003.5898439999996,450.0,4.0,86.0,,,,0.0,4.0,0.0,4.0,4.0,4.0,66.666664,,,,,,,,,,,,,,,,,,,,,,,,,,,,,,,,,,,,,,,,,,,,,,,,,,,,,,,,,,,,,,,,,,,,,,,,,,,,,,,,,,,,
42557,1645492050.048853,102.0,0.0,4101.538574,4395.384765999999,4156.410156,4013.3332520000004,4163.589844,450.0,4.0,86.0,,,,0.0,4.0,0.0,4.0,4.0,4.0,66.666664,,,,,,,,51.0,0.0,0.5973390000000001,-0.15698199999999998,0.642822,0.453125,0.9243309999999999,-0.406744,-0.123049,-0.033772,-0.03779,-0.027608999999999998,,,,,,,,,,,,,,,,,,,,,,,,,,,,,,,,,,,,,,,,,,,,,,,,,,,,,,,,,,,,,,,,,
42558,1645492050.056668,103.0,0.0,4244.615234000001,4372.307617,4238.461426,4189.743652,4339.487305,16136.0,4.0,86.0,,,,0.0,4.0,0.0,4.0,4.0,4.0,66.666664,,,,,,,,,,,,,,,,,,,,,,,,,,,,,,,,,,,,,,,,,,,,,,,,,,,,,,0.0,0.0,1.0,0.0,512.0,1.0,,,,,,,,,,,,,,,,,,,,,,,,,
42559,1645492050.064484,104.0,0.0,4235.384765999999,4386.666504,4201.538574,4170.769043,4340.512695,450.0,4.0,86.0,,,,0.0,4.0,0.0,4.0,4.0,4.0,66.666664,,,,,,,,52.0,0.0,0.597154,-0.15698199999999998,0.642822,0.45336899999999997,0.909682,-0.407233,-0.12842,-0.033812,-0.037868,-0.023921,,,,,,,,,,,,,,,,,,,,,,,,,,,,,,,,,,,,,,,,,,,,,,,,,,,,,,,,,,,,,,,,,
42560,1645492050.072299,105.0,0.0,4309.230957,4405.128418,4256.410156,4200.512695,4390.256348,450.0,4.0,86.0,,,,0.0,4.0,0.0,4.0,4.0,4.0,66.666664,,,,,,,,,,,,,,,,,,,,,,,,,,,,,,,,,,,,,,,,,,,,,,,,,,,,,,,,,,,,,,,,,,,,,,,,,,,,,,,,,,,,
42561,1645492050.080215,106.0,0.0,4372.307617,4404.615234000001,4285.641113000001,4274.358886999999,4441.025879,450.0,4.0,86.0,,,,0.0,4.0,0.0,4.0,4.0,4.0,66.666664,,,,,,,,53.0,0.0,0.597403,-0.15673800000000002,0.642822,0.453125,0.9248190000000001,-0.401373,-0.123537,-0.033703,-0.03789,-0.026753,,,,,,,,,,,,,,,,,,,,,,,,,,,,,,,,,,,,,,,,,,,,,,,,,,,,,,,,,,,,,,,,,
42562,1645492050.08803,107.0,0.0,4226.153809,4418.974121,4157.94873,4155.384765999999,4302.563965,16136.0,4.0,86.0,,,,0.0,4.0,0.0,4.0,4.0,4.0,66.666664,,,,,,,,,,,,,,,,,,,,,,,,,,,,,,,,,,,,,,,,,,,,,,,,,,,,,,0.0,0.0,1.0,0.0,512.0,1.0,,,,,,,,,,,,,,,,,,,,,,,,,
42563,1645492050.0958462,108.0,0.0,4079.487061,4401.025879,4067.6923829999996,3977.4357909999994,4142.563965,450.0,4.0,86.0,,,,0.0,4.0,0.0,4.0,4.0,4.0,66.666664,,,,,,,,54.0,0.0,0.597218,-0.15673800000000002,0.642822,0.45336899999999997,0.9004040000000001,-0.406744,-0.12549000000000002,-0.033701999999999996,-0.037812,-0.023053,,,,,,,,,,,,,,,,,,,,,,,,,,,,,,,,,,,,,,,,,,,,,,,,,,,,,,,,,,,,,,,,,
42564,1645492050.1036608,109.0,0.0,4156.410156,4390.256348,4144.615234000001,4029.2307130000004,4189.230957,450.0,4.0,86.0,,,,0.0,4.0,0.0,4.0,4.0,4.0,66.666664,,,,,,,,,,,,,,,,,,,,,,,,,,,,,,,,,,,,,,,,,,,,,,,,,,,,,,,,,,,,,,,,,,,,,,,,,,,,,,,,,,,,
42565,1645492050.111477,110.0,0.0,4311.794922,4415.897461,4260.0,4216.410156,4346.666504,450.0,4.0,86.0,,,,0.0,4.0,0.0,4.0,4.0,4.0,66.666664,,,,,,,,55.0,0.0,0.597218,-0.15673800000000002,0.642822,0.45336899999999997,0.8999159999999999,-0.406256,-0.11914200000000001,-0.03375,-0.037791000000000005,-0.026021,,,,,,,,,,,,,,,,,,,,,,,,,,,,,,,,,,,,,,,,,,,,,,,,,,,,,,,,,,,,,,,,,
42566,1645492050.119293,111.0,0.0,4345.128418,4414.871582,4282.05127,4260.512695,4408.717772999999,16136.0,4.0,86.0,,,,0.0,4.0,0.0,4.0,4.0,4.0,66.666664,,,,,,,,,,,,,,,,,,,,,,,,,,,,,,,,,,,,,,,,,,,,,,,,,,,,,,0.0,0.0,1.0,0.0,512.0,1.0,,,,,,,,,,,,,,,,,,,,,,,,,
42567,1645492050.127108,112.0,0.0,4344.102539,4389.230957,4262.05127,4238.461426,4398.974121,450.0,4.0,86.0,,,,0.0,4.0,0.0,4.0,4.0,4.0,66.666664,,,,,,,,56.0,0.0,0.597218,-0.15673800000000002,0.642822,0.45336899999999997,0.914565,-0.40283800000000003,-0.116701,-0.033645999999999995,-0.03782,-0.028643000000000002,,,,,,,,,,,,,,,,,,,,,,,,,,,,,,,,,,,,,,,,,,,,,,,,,,,,,,,,,,,,,,,,,
42568,1645492050.134924,113.0,0.0,4444.102539,4422.563965,4292.307617,4317.94873,4463.589844,450.0,4.0,86.0,,,,0.0,4.0,0.0,4.0,4.0,4.0,66.666664,,,,,,,,,,,,,,,,,,,,,,,,,,,,,,,,,,,,,,,,,,,,,,,,,,,,,,,,,,,,,,,,,,,,,,,,,,,,,,,,,,,,
42569,1645492050.142739,114.0,0.0,4521.538574,4454.358886999999,4331.282227000001,4391.282227000001,4551.794922,450.0,4.0,86.0,,,,0.0,4.0,0.0,4.0,4.0,4.0,66.666664,,,,,,,,57.0,0.0,0.597218,-0.15673800000000002,0.642822,0.45336899999999997,0.918959,-0.406744,-0.12060699999999999,-0.0337,-0.037798000000000005,-0.024803,,,,,,,,,,,,,,,,,,,,,,,,,,,,,,,,,,,,,,,,,,,,,,,,,,,,,,,,,,,,,,,,,
42570,1645492050.150655,115.0,0.0,4475.384765999999,4381.538574,4317.94873,4365.128418,4537.436035,16136.0,4.0,86.0,,,,0.0,4.0,0.0,4.0,4.0,4.0,66.666664,1.0,0.0,0.0,0.0,1.0,0.0,0.0,,,,,,,,,,,,,1.0,0.0,0.0,,,,,,,,,,,,,,,,,,,,,,,,,,,,,,,,0.0,0.0,1.0,0.0,512.0,1.0,1790.050781,156.34729,72.172928,35.328827000000004,17.137596,20.533058,10.847063,15.896866000000001,4.690476,9.657275,40.931042,17.481907,29.699578999999996,17.988312,9.076698,108.14218100000001,52.375462,74.903999,37.783524,19.350409,224.90090899999998,51.972134000000004,70.21624,34.872952000000005,18.514116
42571,1645492050.15847,116.0,0.0,4496.410156,4341.025879,4338.461426,4411.282227000001,4568.205078,450.0,4.0,86.0,,,,0.0,4.0,0.0,4.0,4.0,4.0,66.666664,,,,,,,,58.0,0.0,0.597403,-0.15673800000000002,0.642822,0.453125,0.917006,-0.395514,-0.139651,-0.03365,-0.037876,-0.021443,,,,,,,,,,,,,,,,,,,,,,,,,,,,,,,,,,,,,,,,,,,,,,,,,,,,,,,,,,,,,,,,,
42572,1645492050.166286,117.0,0.0,4588.205078,4385.128418,4369.230957,4492.307617,4651.282227000001,450.0,4.0,86.0,,,,0.0,4.0,0.0,4.0,4.0,4.0,66.666664,,,,,,,,,,,,,,,,,,,,,,,,,,,,,,,,,,,,,,,,,,,,,,,,,,,,,,,,,,,,,,,,,,,,,,,,,,,,,,,,,,,,
42573,1645492050.174102,118.0,0.0,4525.128418,4399.487305,4303.077147999999,4388.205078,4567.692383,450.0,4.0,86.0,,,,0.0,4.0,0.0,4.0,4.0,4.0,66.666664,,,,,,,,59.0,0.0,0.597403,-0.15673800000000002,0.642822,0.453125,0.9248190000000001,-0.397467,-0.11523599999999999,-0.033605,-0.037946,-0.024475,,,,,,,,,,,,,,,,,,,,,,,,,,,,,,,,,,,,,,,,,,,,,,,,,,,,,,,,,,,,,,,,,
42574,1645492050.181917,119.0,0.0,4408.717772999999,4402.05127,4236.410156,4273.846191,4440.0,16136.0,4.0,86.0,,,,0.0,4.0,0.0,4.0,4.0,4.0,66.666664,,,,,,,,,,,,,,,,,,,,,,,,,,,,,,,,,,,,,,,,,,,,,,,,,,,,,,0.0,0.0,1.0,0.0,512.0,1.0,,,,,,,,,,,,,,,,,,,,,,,,,
42575,1645492050.189733,120.0,0.0,4382.05127,4415.897461,4227.179688,4266.666504,4415.384765999999,450.0,4.0,86.0,,,,0.0,4.0,0.0,4.0,4.0,4.0,66.666664,,,,,,,,60.0,0.0,0.597403,-0.15673800000000002,0.642822,0.453125,0.926284,-0.40283800000000003,-0.137209,-0.033516000000000004,-0.03796,-0.021197,,,,,,,,,,,,,,,,,,,,,,,,,,,,,,,,,,,,,,,,,,,,,,,,,,,,,,,,,,,,,,,,,
42576,1645492050.1975482,121.0,0.0,4399.487305,4389.230957,4249.743652,4270.769043,4434.358886999999,450.0,4.0,86.0,,,,0.0,4.0,0.0,4.0,4.0,4.0,66.666664,,,,,,,,,,,,,,,,,,,,,,,,,,,,,,,,,,,,,,,,,,,,,,,,,,,,,,,,,,,,,,,,,,,,,,,,,,,,,,,,,,,,
42577,1645492050.205364,122.0,0.0,4407.179688,4378.974121,4255.897461,4263.589844,4448.717772999999,450.0,4.0,86.0,,,,0.0,4.0,0.0,4.0,4.0,4.0,66.666664,,,,,,,,61.0,0.0,0.5973390000000001,-0.15698199999999998,0.642822,0.453125,0.917494,-0.38721300000000003,-0.13086099999999998,-0.033533999999999994,-0.038021,-0.024302,,,,,,,,,,,,,,,,,,,,,,,,,,,,,,,,,,,,,,,,,,,,,,,,,,,,,,,,,,,,,,,,,
42578,1645492050.21318,123.0,0.0,4372.307617,4417.94873,4221.538574,4233.333496,4412.307617,16136.0,4.0,86.0,,,,0.0,4.0,0.0,4.0,4.0,4.0,66.666664,,,,,,,,,,,,,,,,,,,,,,,,,,,,,,,,,,,,,,,,,,,,,,,,,,,,,,0.0,0.0,1.0,0.0,512.0,1.0,,,,,,,,,,,,,,,,,,,,,,,,,
42579,1645492050.2210948,124.0,0.0,4311.794922,4402.563965,4188.717772999999,4190.256348,4330.769043,450.0,4.0,86.0,,,,0.0,4.0,0.0,4.0,4.0,4.0,66.666664,,,,,,,,62.0,0.0,0.597154,-0.15698199999999998,0.642822,0.45336899999999997,0.9277489999999999,-0.392584,-0.128908,-0.033696,-0.038077,-0.027097000000000003,,,,,,,,,,,,,,,,,,,,,,,,,,,,,,,,,,,,,,,,,,,,,,,,,,,,,,,,,,,,,,,,,
42580,1645492050.228911,125.0,0.0,4311.794922,4393.333496,4195.384765999999,4191.282227000001,4327.179688,450.0,4.0,86.0,,,,0.0,4.0,0.0,4.0,4.0,4.0,66.666664,,,,,,,,,,,,,,,,,,,,,,,,,,,,,,,,,,,,,,,,,,,,,,,,,,,,,,,,,,,,,,,,,,,,,,,,,,,,,,,,,,,,
42581,1645492050.236726,126.0,0.0,4389.230957,4440.512695,4243.589844,4255.897461,4426.153809,450.0,4.0,86.0,,,,0.0,4.0,0.0,4.0,4.0,4.0,66.666664,,,,,,,,63.0,0.0,0.597218,-0.15673800000000002,0.642822,0.45336899999999997,0.9150530000000001,-0.391119,-0.12060699999999999,-0.033696,-0.038078,-0.029612,,,,,,,,,,,,,,,,,,,,,,,,,,,,,,,,,,,,,,,,,,,,,,,,,,,,,,,,,,,,,,,,,
42582,1645492050.244542,127.0,0.0,4424.102539,4380.0,4269.230957,4288.717772999999,4464.102539,241.0,4.0,86.0,,,,0.0,4.0,0.0,4.0,4.0,4.0,66.666664,,,,,,,,,,,,,,,,,,,,,,,,,,,,,,,,,,,,,,,,,,,,,,,,,,,,,,12.0,0.0,1.0,0.0,512.0,1.0,,,,,,,,,,,,,,,,,,,,,,,,,
42583,1645492050.252358,0.0,0.0,4386.153809,4270.256348,4252.307617,4262.563965,4412.820313,450.0,4.0,86.0,,,,0.0,4.0,0.0,4.0,4.0,4.0,66.666664,,,,,,,,0.0,0.0,0.597218,-0.15673800000000002,0.642822,0.45336899999999997,0.909682,-0.407721,-0.12109600000000001,-0.033694999999999996,-0.038079,-0.025528,,,,,,,,,,,,,,,,,,,,,,,,,,,,,,,,,,,,,,,,,,,,,,,,,,,,,,,,,,,,,,,,,
42584,1645492050.260173,1.0,1.0,4366.987305,4271.602539,4236.217772999999,4238.269043,4389.422852000001,450.0,4.0,86.0,,,,0.0,4.0,0.0,4.0,4.0,4.0,66.666664,,,,,,,,,,,,,,,,,,,,,,,,,,,,,,,,,,,,,,,,,,,,,,,,,,,,,,,,,,,,,,,,,,,,,,,,,,,,,,,,,,,,
42585,1645492050.2679892,2.0,1.0,4347.820313,4272.94873,4220.128418,4213.974121,4366.025879,16099.0,4.0,86.0,,,,0.0,4.0,0.0,4.0,4.0,4.0,66.666664,,,,,,,,1.0,1.0,0.597171,-0.15673800000000002,0.642822,0.45343,0.909926,-0.404181,-0.123293,-0.033694999999999996,-0.038054000000000004,-0.024621,,,,,,,,,,,,,,,,,,,,,,,,,,,,,,,,,,,,,,,,,,,,,,,,,,,,,,,,,,,,,,,,,
42586,1645492050.2758038,3.0,1.0,4328.653809,4274.294922,4204.038574,4189.679688,4342.628418,450.0,4.0,86.0,,,,0.0,4.0,0.0,4.0,4.0,4.0,66.666664,,,,,,,,,,,,,,,,,,,,1.0,0.0,0.0,,,,,,,,,,,,,,,,,,,,,,,,,,,,,,,,12.0,0.0,1.0,0.0,512.0,1.0,676.0156860000001,96.288689,84.480988,39.392418,18.966688,15.935927,9.23855,17.092577,4.444571,8.883787,69.944099,21.677134,38.175606,21.848732000000002,10.368088,194.802933,64.680328,93.813683,45.490833,23.061293,247.361313,62.101337,91.06268299999999,42.249573,20.210743
42587,1645492050.2836199,4.0,1.0,4309.487305,4275.641113000001,4187.94873,4165.384765999999,4319.230957,0.0,4.0,86.0,,,,0.0,4.0,0.0,4.0,4.0,4.0,66.666664,,,,,,,,2.0,1.0,0.597125,-0.15673800000000002,0.642822,0.453491,0.91017,-0.40064099999999997,-0.12549000000000002,-0.033694999999999996,-0.03803,-0.023714,,,,,,,,,,,,,,,,,,,,,,,,,,,,,,,,,,,,,,,,,,,,,,,,,,,,,,,,,,,,,,,,,
42588,1645492050.291436,5.0,1.0,4290.320313,4276.987305,4171.858886999999,4141.089844,4295.833496,450.0,4.0,86.0,,,,0.0,4.0,0.0,4.0,4.0,4.0,66.666664,,,,,,,,,,,,,,,,,,,,,,,,,,,,,,,,,,,,,,,,,,,,,,,,,,,,,,,,,,,,,,,,,,,,,,,,,,,,,,,,,,,,
42589,1645492050.299251,6.0,1.0,4271.153809,4278.333496,4155.769043,4116.794922,4272.436035,16257.0,4.0,86.0,,,,0.0,4.0,0.0,4.0,4.0,4.0,66.666664,,,,,,,,3.0,1.0,0.597079,-0.15673800000000002,0.642822,0.45355200000000007,0.910414,-0.39710100000000004,-0.127687,-0.033694999999999996,-0.038006,-0.022807,,,,,,,,,,,,,,,,,,,,,,,,,,,,,,,,,,,,,,,,,,,,,,,,,,,,,,,,,,,,,,,,,
42590,1645492050.307067,7.0,1.0,4251.987305,4279.679688,4139.679688,4092.5,4249.038574,450.0,4.0,86.0,,,,0.0,4.0,0.0,4.0,4.0,4.0,66.666664,,,,,,,,,,,,,,,,,,,,,,,,,,,,,,,,,,,,,,,,,,,,,,,,,,,,,,12.0,0.0,1.0,0.0,512.0,1.0,,,,,,,,,,,,,,,,,,,,,,,,,
42591,1645492050.314882,8.0,0.0,4232.820313,4281.025879,4123.589844,4068.205078,4225.641113000001,450.0,4.0,86.0,,,,0.0,4.0,0.0,4.0,4.0,4.0,66.666664,,,,,,,,4.0,0.0,0.597032,-0.15673800000000002,0.642822,0.453613,0.910658,-0.393561,-0.129885,-0.033694999999999996,-0.037982,-0.021901,,,,,,,,,,,,,,,,,,,,,,,,,,,,,,,,,,,,,,,,,,,,,,,,,,,,,,,,,,,,,,,,,
42592,1645492050.322698,9.0,0.0,4192.307617,4219.487305,4105.641113000001,4050.256348,4181.538574,16203.0,4.0,86.0,,,,0.0,4.0,0.0,4.0,4.0,4.0,66.666664,,,,,,,,,,,,,,,,,,,,,,,,,,,,,,,,,,,,,,,,,,,,,,,,,,,,,,,,,,,,,,,,,,,,,,,,,,,,,,,,,,,,
42593,1645492050.330514,10.0,0.0,4258.461426,4287.179688,4169.743652,4132.307617,4239.487305,450.0,4.0,86.0,,,,0.0,4.0,0.0,4.0,4.0,4.0,66.666664,,,,,,,,5.0,0.0,0.596847,-0.15673800000000002,0.642822,0.45385699999999995,0.917006,-0.406744,-0.12695499999999998,-0.033694999999999996,-0.037943,-0.018734,,,,,,,,,,,,,,,,,,,,,,,,,,,,,,,,,,,,,,,,,,,,,,,,,,,,,,,,,,,,,,,,,
42594,1645492050.3383288,11.0,0.0,4358.461426,4305.641113000001,4213.333496,4173.846191,4329.230957,16193.0,4.0,86.0,,,,0.0,4.0,0.0,4.0,4.0,4.0,66.666664,,,,,,,,,,,,,,,,,,,,,,,,,,,,,,,,,,,,,,,,,,,,,,,,,,,,,,12.0,0.0,1.0,0.0,512.0,1.0,,,,,,,,,,,,,,,,,,,,,,,,,
42595,1645492050.346044,12.0,0.0,4339.487305,4267.692383,4172.307617,4114.358886999999,4308.205078,450.0,4.0,86.0,,,,0.0,4.0,0.0,4.0,4.0,4.0,66.666664,,,,,,,,6.0,0.0,0.596847,-0.15673800000000002,0.642822,0.45385699999999995,0.897475,-0.400397,-0.119631,-0.033694,-0.037860000000000005,-0.021988,,,,,,,,,,,,,,,,,,,,,,,,,,,,,,,,,,,,,,,,,,,,,,,,,,,,,,,,,,,,,,,,,
42596,1645492050.353858,13.0,0.0,4271.794922,4302.05127,4142.05127,4087.179443,4232.820313,450.0,4.0,86.0,,,,0.0,4.0,0.0,4.0,4.0,4.0,66.666664,,,,,,,,,,,,,,,,,,,,,,,,,,,,,,,,,,,,,,,,,,,,,,,,,,,,,,,,,,,,,,,,,,,,,,,,,,,,,,,,,,,,
42597,1645492050.3616722,14.0,0.0,4308.717772999999,4310.256348,4192.820313,4162.05127,4263.589844,450.0,4.0,86.0,,,,0.0,4.0,0.0,4.0,4.0,4.0,66.666664,,,,,,,,7.0,0.0,0.596847,-0.15673800000000002,0.642822,0.45385699999999995,0.9194479999999999,-0.411627,-0.12842,-0.033597,-0.037883,-0.018763,,,,,,,,,,,,,,,,,,,,,,,,,,,,,,,,,,,,,,,,,,,,,,,,,,,,,,,,,,,,,,,,,
42598,1645492050.3694868,15.0,0.0,4411.794922,4279.487305,4250.256348,4260.0,4368.717772999999,16193.0,4.0,86.0,,,,0.0,4.0,0.0,4.0,4.0,4.0,66.666664,,,,,,,,,,,,,,,,,,,,,,,,,,,,,,,,,,,,,,,,,,,,,,,,,,,,,,12.0,0.0,1.0,0.0,512.0,1.0,,,,,,,,,,,,,,,,,,,,,,,,,
42599,1645492050.377301,16.0,0.0,4449.743652,4313.846191,4238.974121,4308.717772999999,4394.358886999999,0.0,4.0,86.0,,,,0.0,4.0,0.0,4.0,4.0,4.0,66.666664,,,,,,,,8.0,0.0,0.596968,-0.15698199999999998,0.642822,0.453613,0.917006,-0.407721,-0.120119,-0.033606,-0.037952,-0.022112,,,,,,,,,,,,,,,,,,,,,,,,,,,,,,,,,,,,,,,,,,,,,,,,,,,,,,,,,,,,,,,,,
42600,1645492050.385116,17.0,0.0,4298.974121,4297.94873,4125.641113000001,4189.230957,4221.025879,0.0,4.0,86.0,,,,0.0,4.0,0.0,4.0,4.0,4.0,66.666664,,,,,,,,,,,,,,,,,,,,,,,,,,,,,,,,,,,,,,,,,,,,,,,,,,,,,,,,,,,,,,,,,,,,,,,,,,,,,,,,,,,,
42601,1645492050.39293,18.0,0.0,4149.743652,4229.230957,4054.8718259999996,4035.897461,4076.923096,0.0,4.0,86.0,,,,0.0,4.0,0.0,4.0,4.0,4.0,66.666664,,,,,,,,9.0,0.0,0.596968,-0.15698199999999998,0.642822,0.453613,0.9194479999999999,-0.398444,-0.11523599999999999,-0.033468,-0.037868,-0.025174000000000002,,,,,,,,,,,,,,,,,,,,,,,,,,,,,,,,,,,,,,,,,,,,,,,,,,,,,,,,,,,,,,,,,
42602,1645492050.400744,19.0,0.0,4236.410156,4259.487305,4119.487305,4098.974121,4164.102539,0.0,4.0,86.0,,,,0.0,4.0,0.0,4.0,4.0,4.0,66.666664,,,,,,,,,,,,,,,,,,,,1.0,0.0,0.0,,,,,,,,,,,,,,,,,,,,,,,,,,,,,,,,12.0,0.0,1.0,0.0,512.0,1.0,413.791382,97.408417,97.29923199999999,45.036884,22.497341,17.720325,8.580728,19.054247,4.544907,8.161378,112.355644,29.764467,44.507351,25.705412,12.279232,320.920166,93.356491,109.253799,52.663403,28.001469,345.164642,87.061966,107.8032,49.430873999999996,23.059126000000003
42603,1645492050.408559,20.0,0.0,4301.025879,4335.897461,4141.025879,4174.358886999999,4222.05127,0.0,4.0,86.0,,,,0.0,4.0,0.0,4.0,4.0,4.0,66.666664,,,,,,,,10.0,0.0,0.5970449999999999,-0.15698199999999998,0.642578,0.45385699999999995,0.922377,-0.40283800000000003,-0.130373,-0.033393,-0.03789,-0.02793,,,,,,,,,,,,,,,,,,,,,,,,,,,,,,,,,,,,,,,,,,,,,,,,,,,,,,,,,,,,,,,,,
42604,1645492050.416373,21.0,0.0,4238.461426,4343.589844,4115.384765999999,4137.94873,4189.230957,0.0,4.0,86.0,,,,0.0,4.0,0.0,4.0,4.0,4.0,66.666664,,,,,,,,,,,,,,,,,,,,,,,,,,,,,,,,,,,,,,,,,,,,,,,,,,,,,,,,,,,,,,,,,,,,,,,,,,,,,,,,,,,,
42605,1645492050.424088,22.0,0.0,4291.794922,4296.410156,4169.743652,4180.512695,4258.461426,0.0,4.0,86.0,,,,0.0,4.0,0.0,4.0,4.0,4.0,66.666664,,,,,,,,11.0,0.0,0.5970449999999999,-0.15698199999999998,0.642578,0.45385699999999995,0.9272600000000001,-0.393072,-0.12451400000000001,-0.033472,-0.037909,-0.024161000000000002,,,,,,,,,,,,,,,,,,,,,,,,,,,,,,,,,,,,,,,,,,,,,,,,,,,,,,,,,,,,,,,,,
42606,1645492050.431902,23.0,0.0,4374.358886999999,4281.025879,4204.102539,4245.128418,4306.666504,0.0,4.0,86.0,,,,0.0,4.0,0.0,4.0,4.0,4.0,66.666664,,,,,,,,,,,,,,,,,,,,,,,,,,,,,,,,,,,,,,,,,,,,,,,,,,,,,,0.0,0.0,1.0,0.0,512.0,1.0,,,,,,,,,,,,,,,,,,,,,,,,,
42607,1645492050.439717,24.0,0.0,4246.153809,4327.179688,4119.487305,4124.102539,4173.846191,0.0,4.0,86.0,,,,0.0,4.0,0.0,4.0,4.0,4.0,66.666664,,,,,,,,12.0,0.0,0.597372,-0.15673800000000002,0.642334,0.45385699999999995,0.910658,-0.40528000000000003,-0.122072,-0.033444999999999996,-0.037926999999999995,-0.027018,,,,,,,,,,,,,,,,,,,,,,,,,,,,,,,,,,,,,,,,,,,,,,,,,,,,,,,,,,,,,,,,,
42608,1645492050.447531,25.0,0.0,4177.94873,4382.05127,4101.025879,4048.718018,4142.05127,0.0,4.0,86.0,,,,0.0,4.0,0.0,4.0,4.0,4.0,66.666664,,,,,,,,,,,,,,,,,,,,,,,,,,,,,,,,,,,,,,,,,,,,,,,,,,,,,,,,,,,,,,,,,,,,,,,,,,,,,,,,,,,,
42609,1645492050.455345,26.0,0.0,4266.153809,4365.128418,4149.743652,4124.615234000001,4225.128418,0.0,4.0,86.0,,,,0.0,4.0,0.0,4.0,4.0,4.0,66.666664,,,,,,,,13.0,0.0,0.597372,-0.15673800000000002,0.642334,0.45385699999999995,0.9233540000000001,-0.39502600000000004,-0.13135,-0.033372000000000006,-0.037845,-0.029589999999999998,,,,,,,,,,,,,,,,,,,,,,,,,,,,,,,,,,,,,,,,,,,,,,,,,,,,,,,,,,,,,,,,,
42610,1645492050.46316,27.0,0.0,4203.077147999999,4299.487305,4111.282227000001,4087.6923829999996,4132.820313,0.0,4.0,86.0,,,,0.0,4.0,0.0,4.0,4.0,4.0,66.666664,,,,,,,,,,,,,,,,,,,,,,,,,,,,,,,,,,,,,,,,,,,,,,,,,,,,,,0.0,0.0,1.0,0.0,512.0,1.0,,,,,,,,,,,,,,,,,,,,,,,,,
42611,1645492050.470974,28.0,0.0,4125.128418,4286.153809,4103.077147999999,4007.6923829999996,4049.743652,0.0,4.0,86.0,,,,0.0,4.0,0.0,4.0,4.0,4.0,66.666664,,,,,,,,14.0,0.0,0.597372,-0.15673800000000002,0.642334,0.45385699999999995,0.914565,-0.404791,-0.136721,-0.033355,-0.037918,-0.031904,,,,,,,,,,,,,,,,,,,,,,,,,,,,,,,,,,,,,,,,,,,,,,,,,,,,,,,,,,,,,,,,,
42612,1645492050.478789,29.0,0.0,4227.179688,4306.666504,4177.436035,4062.0512700000004,4153.333496,0.0,4.0,86.0,,,,0.0,4.0,0.0,4.0,4.0,4.0,66.666664,,,,,,,,,,,,,,,,,,,,,,,,,,,,,,,,,,,,,,,,,,,,,,,,,,,,,,,,,,,,,,,,,,,,,,,,,,,,,,,,,,,,
42613,1645492050.486603,30.0,0.0,4309.230957,4318.461426,4215.897461,4169.230957,4229.230957,0.0,4.0,86.0,,,,0.0,4.0,0.0,4.0,4.0,4.0,66.666664,,,,,,,,15.0,0.0,0.597372,-0.15673800000000002,0.642334,0.45385699999999995,0.9243309999999999,-0.403326,-0.12255999999999999,-0.033389,-0.037935,-0.027639999999999998,,,,,,,,,,,,,,,,,,,,,,,,,,,,,,,,,,,,,,,,,,,,,,,,,,,,,,,,,,,,,,,,,
42614,1645492050.494318,31.0,0.0,4231.282227000001,4323.589844,4184.102539,4149.230957,4153.333496,0.0,4.0,86.0,,,,0.0,4.0,0.0,4.0,4.0,4.0,66.666664,,,,,,,,,,,,,,,,,,,,,,,,,,,,,,,,,,,,,,,,,,,,,,,,,,,,,,0.0,0.0,1.0,0.0,512.0,1.0,,,,,,,,,,,,,,,,,,,,,,,,,
42615,1645492050.502132,32.0,0.0,4217.436035,4351.282227000001,4180.0,4103.077147999999,4162.05127,0.0,4.0,86.0,,,,0.0,4.0,0.0,4.0,4.0,4.0,66.666664,,,,,,,,16.0,0.0,0.597372,-0.15673800000000002,0.642334,0.45385699999999995,0.91017,-0.393072,-0.129397,-0.033517,-0.037853,-0.0301,,,,,,,,,,,,,,,,,,,,,,,,,,,,,,,,,,,,,,,,,,,,,,,,,,,,,,,,,,,,,,,,,
42616,1645492050.509946,33.0,0.0,4263.589844,4351.282227000001,4166.666504,4100.512695,4216.922852000001,0.0,4.0,86.0,,,,0.0,4.0,0.0,4.0,4.0,4.0,66.666664,,,,,,,,,,,,,,,,,,,,,,,,,,,,,,,,,,,,,,,,,,,,,,,,,,,,,,,,,,,,,,,,,,,,,,,,,,,,,,,,,,,,
42617,1645492050.517761,34.0,0.0,4174.358886999999,4292.820313,4098.974121,4026.1538090000004,4102.05127,0.0,4.0,86.0,,,,0.0,4.0,0.0,4.0,4.0,4.0,66.666664,,,,,,,,17.0,0.0,0.597308,-0.15698199999999998,0.642334,0.45385699999999995,0.921401,-0.392584,-0.127932,-0.033437,-0.037925,-0.026260000000000002,,,,,,,,,,,,,,,,,,,,,,,,,,,,,,,,,,,,,,,,,,,,,,,,,,,,,,,,,,,,,,,,,
42618,1645492050.525575,35.0,0.0,4116.410156,4263.589844,4102.05127,3996.4101560000004,4045.641113,0.0,4.0,86.0,,,,0.0,4.0,0.0,4.0,4.0,4.0,66.666664,,,,,,,,,,,,,,,,,,,,1.0,0.0,0.0,,,,,,,,,,,,,,,,,,,,,,,,,,,,,,,,0.0,0.0,1.0,0.0,512.0,1.0,493.762848,128.96641499999998,101.42648299999999,51.14999,27.313368,22.065367000000002,8.977683,20.538086,4.914732,7.379892999999999,159.27607700000002,40.260075,46.304039,29.416078999999996,14.57215,460.540009,134.268204,115.300781,58.71315799999999,33.424427,472.951416,122.883354,114.888481,56.537514,27.054592
42619,1645492050.53339,36.0,0.0,4185.641113000001,4301.538574,4145.641113000001,4065.1281740000004,4140.0,0.0,4.0,86.0,,,,0.0,4.0,0.0,4.0,4.0,4.0,66.666664,,,,,,,,18.0,0.0,0.597308,-0.15698199999999998,0.642334,0.45385699999999995,0.931167,-0.401862,-0.11621300000000001,-0.033462,-0.037941,-0.028957,,,,,,,,,,,,,,,,,,,,,,,,,,,,,,,,,,,,,,,,,,,,,,,,,,,,,,,,,,,,,,,,,
42620,1645492050.541204,37.0,0.0,4201.538574,4338.461426,4122.563965,4090.256348,4136.922852000001,0.0,4.0,86.0,,,,0.0,4.0,0.0,4.0,4.0,4.0,66.666664,,,,,,,,,,,,,,,,,,,,,,,,,,,,,,,,,,,,,,,,,,,,,,,,,,,,,,,,,,,,,,,,,,,,,,,,,,,,,,,,,,,,
42621,1645492050.549018,38.0,0.0,4172.820313,4331.794922,4118.974121,4080.0,4095.384521,0.0,4.0,86.0,,,,0.0,4.0,0.0,4.0,4.0,4.0,66.666664,,,,,,,,19.0,0.0,0.597123,-0.15698199999999998,0.642334,0.45410200000000006,0.910658,-0.398932,-0.135744,-0.033533999999999994,-0.037857999999999996,-0.025034999999999998,,,,,,,,,,,,,,,,,,,,,,,,,,,,,,,,,,,,,,,,,,,,,,,,,,,,,,,,,,,,,,,,,
42622,1645492050.556833,39.0,0.0,4189.230957,4328.205078,4148.717772999999,4109.230957,4153.846191,0.0,4.0,86.0,,,,0.0,4.0,0.0,4.0,4.0,4.0,66.666664,,,,,,,,,,,,,,,,,,,,,,,,,,,,,,,,,,,,,,,,,,,,,,,,,,,,,,0.0,0.0,1.0,0.0,512.0,1.0,,,,,,,,,,,,,,,,,,,,,,,,,
42623,1645492050.564547,40.0,0.0,4160.512695,4339.487305,4118.974121,4097.436035,4150.769043,0.0,4.0,86.0,,,,0.0,4.0,0.0,4.0,4.0,4.0,66.666664,,,,,,,,20.0,0.0,0.597123,-0.15698199999999998,0.642334,0.45410200000000006,0.913588,-0.39453699999999997,-0.12695499999999998,-0.033500999999999996,-0.037832,-0.021653,,,,,,,,,,,,,,,,,,,,,,,,,,,,,,,,,,,,,,,,,,,,,,,,,,,,,,,,,,,,,,,,,
42624,1645492050.572362,41.0,0.0,4197.94873,4339.487305,4142.05127,4126.666504,4154.358886999999,0.0,4.0,86.0,,,,0.0,4.0,0.0,4.0,4.0,4.0,66.666664,,,,,,,,,,,,,,,,,,,,,,,,,,,,,,,,,,,,,,,,,,,,,,,,,,,,,,,,,,,,,,,,,,,,,,,,,,,,,,,,,,,,
