,Timestamp,OriginalTimestamp,EEG.Counter,EEG.Interpolated,EEG.AF3,EEG.T7,EEG.Pz,EEG.T8,EEG.AF4,EEG.RawCq,EEG.Battery,EEG.BatteryPercent,MarkerIndex,MarkerType,MarkerValueInt,EEG.MarkerHardware,CQ.AF3,CQ.T7,CQ.Pz,CQ.T8,CQ.AF4,CQ.Overall,EQ.SampleRateQuality,EQ.OVERALL,EQ.AF3,EQ.T7,EQ.Pz,EQ.T8,EQ.AF4,MOT.CounterMems,MOT.InterpolatedMems,MOT.Q0,MOT.Q1,MOT.Q2,MOT.Q3,MOT.AccX,MOT.AccY,MOT.AccZ,MOT.MagX,MOT.MagY,MOT.MagZ,MC.Action,MC.ActionPower,MC.IsActive,PM.Engagement.IsActive,PM.Engagement.Scaled,PM.Engagement.Raw,PM.Engagement.Min,PM.Engagement.Max,PM.Excitement.IsActive,PM.Excitement.Scaled,PM.Excitement.Raw,PM.Excitement.Min,PM.Excitement.Max,PM.LongTermExcitement,PM.Stress.IsActive,PM.Stress.Scaled,PM.Stress.Raw,PM.Stress.Min,PM.Stress.Max,PM.Relaxation.IsActive,PM.Relaxation.Scaled,PM.Relaxation.Raw,PM.Relaxation.Min,PM.Relaxation.Max,PM.Interest.IsActive,PM.Interest.Scaled,PM.Interest.Raw,PM.Interest.Min,PM.Interest.Max,PM.Focus.IsActive,PM.Focus.Scaled,PM.Focus.Raw,PM.Focus.Min,PM.Focus.Max,FE.BlinkWink,FE.HorizontalEyesDirection,FE.UpperFaceAction,FE.UpperFaceActionPower,FE.LowerFaceAction,FE.LowerFaceActionPower,POW.AF3.Theta,POW.AF3.Alpha,POW.AF3.BetaL,POW.AF3.BetaH,POW.AF3.Gamma,POW.T7.Theta,POW.T7.Alpha,POW.T7.BetaL,POW.T7.BetaH,POW.T7.Gamma,POW.Pz.Theta,POW.Pz.Alpha,POW.Pz.BetaL,POW.Pz.BetaH,POW.Pz.Gamma,POW.T8.Theta,POW.T8.Alpha,POW.T8.BetaL,POW.T8.BetaH,POW.T8.Gamma,POW.AF4.Theta,POW.AF4.Alpha,POW.AF4.BetaL,POW.AF4.BetaH,POW.AF4.Gamma
1178,1645900008.590616,1645900008.597694,69.0,0.0,4294.871582,4589.230957,4242.05127,4182.05127,4249.743652,450.0,1.0,15.0,,,,0.0,2.0,0.0,0.0,2.0,2.0,16.666666,,,,,,,,,,,,,,,,,,,,,,,,,,,,,,,,,,,,,,,,,,,,,,,,,,,,,,,,,,,,,,,,,,,,,,,,,,,,,,,,,,,,
1179,1645900008.598429,1645900008.605509,70.0,0.0,4405.641113000001,4574.358886999999,4232.307617,4192.307617,4336.922852000001,0.0,1.0,15.0,,,,0.0,2.0,0.0,0.0,2.0,2.0,16.666666,,,,,,,,35.0,0.0,0.731266,0.160156,0.65918,0.071289,0.9399559999999999,-0.327642,-0.07128999999999999,-0.032909,-0.030266,-0.014322,1.0,0.0,0.0,,,,,,,,,,,,,,,,,,,,,,,,,,,,,,,,0.0,0.0,32.0,0.027385000000000003,1.0,0.0,8.125356,26.068127,19.713844,19.229078,4.510657,30.904789,100.970955,34.43095,16.672262,18.852209,16.410322,77.384956,73.780823,167.37600700000002,30.683596,6.5957550000000005,13.366056,6.349907,14.221632000000001,5.3083849999999995,6.229638,34.689678,13.062027,16.168034,4.769952
1180,1645900008.606242,1645900008.613423,71.0,0.0,4328.717772999999,4556.922852000001,4272.820313,4152.820313,4303.589844,450.0,1.0,15.0,,,,0.0,2.0,0.0,0.0,2.0,2.0,16.666666,,,,,,,,,,,,,,,,,,,,,,,,,,,,,,,,,,,,,,,,,,,,,,,,,,,,,,,,,,,,,,,,,,,,,,,,,,,,,,,,,,,,
1181,1645900008.6140552,1645900008.621238,72.0,0.0,4254.358886999999,4590.256348,4309.230957,4090.256348,4224.102539,450.0,1.0,15.0,,,,0.0,2.0,0.0,0.0,2.0,2.0,16.666666,,,,,,,,36.0,0.0,0.731236,0.1604,0.65918,0.07104500000000001,0.947768,-0.327153,-0.070314,-0.032889999999999996,-0.030218000000000002,-0.015281999999999999,,,,,,,,,,,,,,,,,,,,,,,,,,,,,,,,,,,,,,,,,,,,,,,,,,,,,,,,,,,,,,,,,
1182,1645900008.621868,1645900008.629153,73.0,0.0,4325.128418,4661.538574,4133.846191,4107.179688,4225.128418,301.0,1.0,15.0,,,,0.0,2.0,0.0,0.0,4.0,2.0,16.666666,,,,,,,,,,,,,,,,,,,,,,,,,,,,,,,,,,,,,,,,,,,,,,,,,,,,,,,,,,,,,,,,,,,,,,,,,,,,,,,,,,,,
1183,1645900008.629681,1645900008.636968,74.0,0.0,4345.128418,4664.615234000001,3896.923096,4183.589844,4259.487305,450.0,1.0,15.0,,,,0.0,2.0,0.0,0.0,4.0,2.0,16.666666,,,,,,,,37.0,0.0,0.73129,0.160156,0.65918,0.07104500000000001,0.952651,-0.323247,-0.078126,-0.032823000000000005,-0.030224,-0.013119,,,,,,,,,,,,,,,,,,,,,,,,,,,,,,,,,,,0.0,0.0,32.0,0.027385000000000003,1.0,0.0,,,,,,,,,,,,,,,,,,,,,,,,,
1184,1645900008.637495,1645900008.644783,75.0,0.0,4297.94873,4618.974121,3944.102539,4180.512695,4265.128418,317.0,1.0,15.0,,,,0.0,2.0,0.0,0.0,4.0,2.0,16.666666,,,,,,,,,,,,,,,,,,,,,,,,,,,,,,,,,,,,,,,,,,,,,,,,,,,,,,,,,,,,,,,,,,,,,,,,,,,,,,,,,,,,
1185,1645900008.645308,1645900008.6525981,76.0,0.0,4354.871582,4643.077147999999,4172.307617,4142.05127,4290.769043,450.0,1.0,15.0,,,,0.0,2.0,0.0,0.0,4.0,2.0,16.666666,,,,,,,,38.0,0.0,0.73129,0.160156,0.65918,0.07104500000000001,0.94435,-0.324712,-0.07470800000000001,-0.032862,-0.030277,-0.0142,,,,,,,,,,,,,,,,,,,,,,,,,,,,,,,,,,,,,,,,,,,,,,,,,,,,,,,,,,,,,,,,,
1186,1645900008.653121,1645900008.660512,77.0,0.0,4381.025879,4672.820313,4266.666504,4116.410156,4306.153809,450.0,1.0,15.0,,,,0.0,2.0,0.0,0.0,4.0,2.0,16.666666,,,,,,,,,,,,,,,,,,,,,,,,,,,,,,,,,,,,,,,,,,,,,,,,,,,,,,,,,,,,,,,,,,,,,,,,,,,,,,,,,,,,
1187,1645900008.660934,1645900008.6683269,78.0,0.0,4306.153809,4593.333496,4091.794922,4137.94873,4282.563965,450.0,1.0,15.0,,,,0.0,2.0,0.0,0.0,4.0,2.0,16.666666,,,,,,,,39.0,0.0,0.73151,0.160156,0.658936,0.07104500000000001,0.9550930000000001,-0.335454,-0.086427,-0.032847,-0.030277,-0.015124,,,,,,,,,,,,,,,,,,,,,,,,,,,,,,,,,,,0.0,0.0,32.0,0.027385000000000003,1.0,0.0,,,,,,,,,,,,,,,,,,,,,,,,,
1188,1645900008.6687472,1645900008.6762419,79.0,0.0,4286.666504,4462.05127,3944.102539,4228.205078,4259.487305,317.0,1.0,15.0,,,,0.0,2.0,0.0,0.0,4.0,2.0,16.666666,,,,,,,,,,,,,,,,,,,,,,,,,,,,,,,,,,,,,,,,,,,,,,,,,,,,,,,,,,,,,,,,,,,,,,,,,,,,,,,,,,,,
1189,1645900008.67656,1645900008.684057,80.0,0.0,4357.436035,4503.589844,4066.6667479999996,4232.820313,4255.897461,450.0,1.0,15.0,,,,0.0,2.0,0.0,0.0,4.0,2.0,16.666666,,,,,,,,40.0,0.0,0.73129,0.160156,0.65918,0.07104500000000001,0.952651,-0.323247,-0.078126,-0.032882999999999996,-0.030227999999999998,-0.012781,,,,,,,,,,,,,,,,,,,,,,,,,,,,,,,,,,,,,,,,,,,,,,,,,,,,,,,,,,,,,,,,,
1190,1645900008.6843731,1645900008.6918721,81.0,0.0,4418.461426,4679.487305,4170.769043,4148.717772999999,4282.05127,450.0,1.0,15.0,,,,0.0,2.0,0.0,0.0,4.0,2.0,16.666666,,,,,,,,,,,,,,,,,,,,,,,,,,,,,,,,,,,,,,,,,,,,,,,,,,,,,,,,,,,,,,,,,,,,,,,,,,,,,,,,,,,,
1191,1645900008.6921859,1645900008.699687,82.0,0.0,4390.256348,4724.615234000001,4043.5898439999996,4144.615234000001,4306.666504,450.0,1.0,15.0,,,,0.0,2.0,0.0,0.0,4.0,2.0,16.666666,,,,,,,,41.0,0.0,0.73151,0.160156,0.658936,0.07104500000000001,0.9550930000000001,-0.335454,-0.086427,-0.032866,-0.030232,-0.013847,,,,,,,,,,,,,,,,,,,,,,,,,,,,,,,,,,,0.0,0.0,32.0,0.027385000000000003,1.0,0.0,,,,,,,,,,,,,,,,,,,,,,,,,
1192,1645900008.699999,1645900008.707502,83.0,0.0,4329.743652,4635.897461,3985.1281740000004,4195.384765999999,4316.922852000001,317.0,1.0,15.0,,,,0.0,2.0,0.0,0.0,4.0,2.0,16.666666,,,,,,,,,,,,,,,,,,,,,,,,,,,,,,,,,,,,,,,,,,,,,,,,,,,,,,,,,,,,,,,,,,,,,,,,,,,,,,,,,,,,
1193,1645900008.7078118,1645900008.715317,84.0,0.0,4345.128418,4617.436035,4036.4101560000004,4193.846191,4309.230957,450.0,1.0,15.0,,,,0.0,2.0,0.0,0.0,4.0,2.0,16.666666,,,,,,,,42.0,0.0,0.731563,0.159912,0.658936,0.07104500000000001,0.946792,-0.32422399999999996,-0.095705,-0.032802,-0.030237,-0.014855000000000002,,,,,,,,,,,,,,,,,,,,,,,,,,,,,,,,,,,,,,,,,,,,,,,,,,,,,,,,,,,,,,,,,
1194,1645900008.715625,1645900008.723131,85.0,0.0,4347.692383,4625.128418,4095.384521,4202.05127,4256.410156,450.0,1.0,15.0,,,,0.0,2.0,0.0,0.0,4.0,2.0,16.666666,,,,,,,,,,,,,,,,,,,,,,,,,,,,,,,,,,,,,,,,,,,,,,,,,,,,,,,,,,,,,,,,,,,,,,,,,,,,,,,,,,,,
1195,1645900008.723438,1645900008.7310462,86.0,0.0,4311.794922,4524.102539,4196.410156,4248.205078,4250.256348,450.0,1.0,15.0,,,,0.0,2.0,0.0,0.0,4.0,2.0,16.666666,1.0,16.666666,2.0,0.0,0.0,2.0,2.0,43.0,0.0,0.731563,0.159912,0.658936,0.07104500000000001,0.9463030000000001,-0.334478,-0.07910299999999999,-0.032793,-0.030192,-0.012539,1.0,0.0,0.0,,,,,,,,,,,,,,,,,,,,,,,,,,,,,,,,0.0,0.0,32.0,0.023752000000000002,1.0,0.0,7.58437,26.190248,18.979532,19.144669,4.588051999999999,28.476748999999998,84.295158,43.466812,19.912313,19.380831,16.584909,72.229118,61.236984,167.63140900000002,31.019353999999996,5.267311,10.789344999999999,7.181125,13.743035999999998,5.052505,7.47659,40.170918,13.676017000000002,16.735538000000002,4.623496
1196,1645900008.731252,1645900008.7388608,87.0,0.0,4316.410156,4492.307617,4300.0,4212.307617,4276.410156,317.0,1.0,15.0,,,,0.0,2.0,0.0,0.0,4.0,2.0,16.666666,,,,,,,,,,,,,,,,,,,,,,,,,,,,,,,,,,,,,,,,,,,,,,,,,,,,,,,,,,,,,,,,,,,,,,,,,,,,,,,,,,,,
1197,1645900008.739065,1645900008.746676,88.0,0.0,4325.128418,4588.717772999999,4201.538574,4168.205078,4248.205078,450.0,1.0,15.0,,,,0.0,2.0,0.0,0.0,4.0,2.0,16.666666,,,,,,,,44.0,0.0,0.731563,0.159912,0.658936,0.07104500000000001,0.945815,-0.32959499999999997,-0.076173,-0.032786,-0.030249,-0.013775999999999998,,,,,,,,,,,,,,,,,,,,,,,,,,,,,,,,,,,,,,,,,,,,,,,,,,,,,,,,,,,,,,,,,
1198,1645900008.746878,1645900008.754491,89.0,0.0,4299.487305,4634.871582,4011.794922,4156.922852000001,4215.384765999999,450.0,1.0,15.0,,,,0.0,2.0,0.0,0.0,4.0,2.0,16.666666,,,,,,,,,,,,,,,,,,,,,,,,,,,,,,,,,,,,,,,,,,,,,,,,,,,,,,,,,,,,,,,,,,,,,,,,,,,,,,,,,,,,
1199,1645900008.7546911,1645900008.762306,90.0,0.0,4328.205078,4666.153809,4066.6667479999996,4133.333496,4253.333496,450.0,1.0,15.0,,,,0.0,2.0,0.0,0.0,4.0,2.0,16.666666,,,,,,,,45.0,0.0,0.731563,0.159912,0.658936,0.07104500000000001,0.936049,-0.332525,-0.083009,-0.032681,-0.030202,-0.014791,,,,,,,,,,,,,,,,,,,,,,,,,,,,,,,,,,,0.0,0.0,32.0,0.023752000000000002,1.0,0.0,,,,,,,,,,,,,,,,,,,,,,,,,
1200,1645900008.7625039,1645900008.770121,91.0,0.0,4365.641113000001,4705.641113000001,4262.05127,4127.179688,4274.358886999999,317.0,1.0,15.0,,,,0.0,2.0,0.0,0.0,4.0,2.0,16.666666,,,,,,,,,,,,,,,,,,,,,,,,,,,,,,,,,,,,,,,,,,,,,,,,,,,,,,,,,,,,,,,,,,,,,,,,,,,,,,,,,,,,
1201,1645900008.770317,1645900008.777936,92.0,0.0,4329.230957,4655.384765999999,4332.307617,4157.94873,4283.077147999999,450.0,1.0,15.0,,,,0.0,2.0,0.0,0.0,4.0,2.0,16.666666,,,,,,,,46.0,0.0,0.731539,0.159912,0.658936,0.071289,0.937026,-0.334478,-0.077638,-0.032831,-0.030257999999999997,-0.015607,,,,,,,,,,,,,,,,,,,,,,,,,,,,,,,,,,,,,,,,,,,,,,,,,,,,,,,,,,,,,,,,,
1202,1645900008.77813,1645900008.78575,93.0,0.0,4295.897461,4587.179688,4168.205078,4199.487305,4321.025879,450.0,1.0,15.0,,,,0.0,2.0,0.0,0.0,4.0,2.0,16.666666,,,,,,,,,,,,,,,,,,,,,,,,,,,,,,,,,,,,,,,,,,,,,,,,,,,,,,,,,,,,,,,,,,,,,,,,,,,,,,,,,,,,
1203,1645900008.785943,1645900008.793565,94.0,0.0,4327.692383,4586.153809,4056.4101560000004,4235.384765999999,4312.820313,450.0,1.0,15.0,,,,0.0,2.0,0.0,0.0,4.0,2.0,16.666666,,,,,,,,47.0,0.0,0.731539,0.159912,0.658936,0.071289,0.9546040000000001,-0.333013,-0.093263,-0.03277,-0.030162,-0.016438,,,,,,,,,,,,,,,,,,,,,,,,,,,,,,,,,,,0.0,0.0,32.0,0.023752000000000002,1.0,0.0,,,,,,,,,,,,,,,,,,,,,,,,,
1204,1645900008.793756,1645900008.8013802,95.0,0.0,4391.282227000001,4587.692383,4153.846191,4246.153809,4287.692383,317.0,1.0,15.0,,,,0.0,2.0,0.0,0.0,4.0,2.0,16.666666,,,,,,,,,,,,,,,,,,,,,,,,,,,,,,,,,,,,,,,,,,,,,,,,,,,,,,,,,,,,,,,,,,,,,,,,,,,,,,,,,,,,
1205,1645900008.801569,1645900008.8091948,96.0,0.0,4411.794922,4591.282227000001,4267.692383,4183.589844,4274.358886999999,450.0,1.0,15.0,,,,0.0,2.0,0.0,0.0,4.0,2.0,16.666666,,,,,,,,48.0,0.0,0.731539,0.159912,0.658936,0.071289,0.9560690000000001,-0.327642,-0.083986,-0.032764999999999996,-0.030125,-0.017236,,,,,,,,,,,,,,,,,,,,,,,,,,,,,,,,,,,,,,,,,,,,,,,,,,,,,,,,,,,,,,,,,
1206,1645900008.809382,1645900008.81711,97.0,0.0,4386.666504,4601.025879,4197.94873,4143.589844,4307.692383,450.0,1.0,15.0,,,,0.0,2.0,0.0,0.0,4.0,2.0,16.666666,,,,,,,,,,,,,,,,,,,,,,,,,,,,,,,,,,,,,,,,,,,,,,,,,,,,,,,,,,,,,,,,,,,,,,,,,,,,,,,,,,,,
1207,1645900008.8171961,1645900008.824925,98.0,0.0,4328.205078,4573.333496,4123.077147999999,4162.05127,4343.077147999999,450.0,1.0,15.0,,,,0.0,2.0,0.0,0.0,4.0,2.0,16.666666,,,,,,,,49.0,0.0,0.731539,0.159912,0.658936,0.071289,0.951675,-0.326177,-0.08447400000000001,-0.032809,-0.030139,-0.017905,,,,,,,,,,,,,,,,,,,,,,,,,,,,,,,,,,,0.0,0.0,32.0,0.023752000000000002,1.0,0.0,,,,,,,,,,,,,,,,,,,,,,,,,
1208,1645900008.8250089,1645900008.83274,99.0,0.0,4310.769043,4589.230957,4068.718018,4187.692383,4300.0,317.0,1.0,15.0,,,,0.0,2.0,0.0,0.0,4.0,2.0,16.666666,,,,,,,,,,,,,,,,,,,,,,,,,,,,,,,,,,,,,,,,,,,,,,,,,,,,,,,,,,,,,,,,,,,,,,,,,,,,,,,,,,,,
1209,1645900008.832822,1645900008.8405552,100.0,0.0,4309.230957,4598.461426,4062.5642090000006,4184.615234000001,4189.230957,450.0,1.0,15.0,,,,0.0,2.0,0.0,0.0,4.0,2.0,16.666666,,,,,,,,50.0,0.0,0.731539,0.159912,0.658936,0.071289,0.945327,-0.330083,-0.072755,-0.032897,-0.030152999999999996,-0.01548,,,,,,,,,,,,,,,,,,,,,,,,,,,,,,,,,,,,,,,,,,,,,,,,,,,,,,,,,,,,,,,,,
1210,1645900008.840635,1645900008.848369,101.0,0.0,4306.153809,4552.820313,4179.487305,4162.05127,4189.230957,450.0,1.0,15.0,,,,0.0,2.0,0.0,0.0,4.0,2.0,16.666666,,,,,,,,,,,,,,,,,,,,,,,,,,,,,,,,,,,,,,,,,,,,,,,,,,,,,,,,,,,,,,,,,,,,,,,,,,,,,,,,,,,,
1211,1645900008.848448,1645900008.856184,102.0,0.0,4323.077147999999,4588.717772999999,4215.384765999999,4127.179688,4256.410156,450.0,1.0,15.0,,,,0.0,2.0,0.0,0.0,4.0,2.0,16.666666,,,,,,,,51.0,0.0,0.731759,0.159912,0.658691,0.071289,0.9560690000000001,-0.338872,-0.075196,-0.03283,-0.030311,-0.016276,1.0,0.0,0.0,,,,,,,,,,,,,,,,,,,,,,,,,,,,,,,,0.0,0.0,32.0,0.023268,1.0,0.0,7.374103999999999,26.528311,17.831263,19.332031,4.9180470000000005,26.704382,70.416985,56.87011700000001,24.765238,19.396044,17.527737,70.637268,53.2453,165.676727,32.447399,4.48939,10.957683,8.746928,13.877471,5.054151,9.687593,41.879887,14.220405,17.463612,4.4334940000000005
1212,1645900008.856261,1645900008.8639991,103.0,0.0,4351.282227000001,4636.410156,4071.281982,4150.769043,4235.897461,317.0,1.0,15.0,,,,0.0,2.0,0.0,0.0,4.0,2.0,16.666666,,,,,,,,,,,,,,,,,,,,,,,,,,,,,,,,,,,,,,,,,,,,,,,,,,,,,,,,,,,,,,,,,,,,,,,,,,,,,,,,,,,,
1213,1645900008.864074,1645900008.871814,104.0,0.0,4342.563965,4584.615234000001,4044.615479,4186.666504,4208.205078,450.0,1.0,15.0,,,,0.0,2.0,0.0,0.0,4.0,2.0,16.666666,,,,,,,,52.0,0.0,0.7317060000000001,0.160156,0.658691,0.071289,0.9428850000000001,-0.327642,-0.080079,-0.032867,-0.030307999999999998,-0.017041,,,,,,,,,,,,,,,,,,,,,,,,,,,,,,,,,,,,,,,,,,,,,,,,,,,,,,,,,,,,,,,,,
1214,1645900008.871887,1645900008.879629,105.0,0.0,4320.0,4602.05127,4140.0,4164.102539,4225.641113000001,450.0,1.0,15.0,,,,0.0,2.0,0.0,0.0,4.0,2.0,16.666666,,,,,,,,,,,,,,,,,,,,,,,,,,,,,,,,,,,,,,,,,,,,,,,,,,,,,,,,,,,,,,,,,,,,,,,,,,,,,,,,,,,,
1215,1645900008.8797,1645900008.887544,106.0,0.0,4323.077147999999,4668.717772999999,4149.743652,4151.282227000001,4220.512695,450.0,1.0,15.0,,,,0.0,2.0,0.0,0.0,4.0,2.0,16.666666,,,,,,,,53.0,0.0,0.7317060000000001,0.160156,0.658691,0.071289,0.9677879999999999,-0.35108,-0.082521,-0.032852,-0.030256,-0.017728999999999998,,,,,,,,,,,,,,,,,,,,,,,,,,,,,,,,,,,0.0,0.0,32.0,0.023268,1.0,0.0,,,,,,,,,,,,,,,,,,,,,,,,,
1216,1645900008.8875132,1645900008.895359,107.0,0.0,4316.410156,4607.179688,4242.563965,4142.05127,4240.512695,317.0,1.0,15.0,,,,0.0,2.0,0.0,0.0,4.0,2.0,16.666666,,,,,,,,,,,,,,,,,,,,,,,,,,,,,,,,,,,,,,,,,,,,,,,,,,,,,,,,,,,,,,,,,,,,,,,,,,,,,,,,,,,,
1217,1645900008.895326,1645900008.903173,108.0,0.0,4299.487305,4567.179688,4365.128418,4109.743652,4312.820313,450.0,1.0,15.0,,,,0.0,2.0,0.0,0.0,4.0,2.0,16.666666,,,,,,,,54.0,0.0,0.7316520000000001,0.1604,0.658691,0.071289,0.9555809999999999,-0.346197,-0.078614,-0.032936,-0.030257,-0.015224000000000001,,,,,,,,,,,,,,,,,,,,,,,,,,,,,,,,,,,,,,,,,,,,,,,,,,,,,,,,,,,,,,,,,
1218,1645900008.903139,1645900008.910988,109.0,0.0,4266.666504,4633.846191,4316.410156,4124.615234000001,4307.179688,450.0,1.0,15.0,,,,0.0,2.0,0.0,0.0,4.0,2.0,16.666666,,,,,,,,,,,,,,,,,,,,,,,,,,,,,,,,,,,,,,,,,,,,,,,,,,,,,,,,,,,,,,,,,,,,,,,,,,,,,,,,,,,,
1219,1645900008.9109519,1645900008.9189029,110.0,0.0,4223.077147999999,4616.922852000001,4100.512695,4196.922852000001,4246.666504,450.0,1.0,15.0,,,,0.0,2.0,0.0,0.0,4.0,2.0,16.666666,,,,,,,,55.0,0.0,0.731676,0.1604,0.658691,0.07104500000000001,0.941421,-0.334966,-0.082521,-0.032963,-0.03021,-0.016045,,,,,,,,,,,,,,,,,,,,,,,,,,,,,,,,,,,0.0,0.0,32.0,0.023268,1.0,0.0,,,,,,,,,,,,,,,,,,,,,,,,,
1220,1645900008.918765,1645900008.926718,111.0,0.0,4236.410156,4544.102539,4064.102539,4205.641113000001,4225.641113000001,317.0,1.0,15.0,,,,0.0,2.0,0.0,0.0,4.0,2.0,16.666666,,,,,,,,,,,,,,,,,,,,,,,,,,,,,,,,,,,,,,,,,,,,,,,,,,,,,,,,,,,,,,,,,,,,,,,,,,,,,,,,,,,,
1221,1645900008.926579,1645900008.934533,112.0,0.0,4336.410156,4637.436035,4198.461426,4161.538574,4254.358886999999,450.0,1.0,15.0,,,,0.0,2.0,0.0,0.0,4.0,2.0,16.666666,,,,,,,,56.0,0.0,0.731676,0.1604,0.658691,0.07104500000000001,0.9511860000000001,-0.331548,-0.076661,-0.032938,-0.030168,-0.016881999999999998,,,,,,,,,,,,,,,,,,,,,,,,,,,,,,,,,,,,,,,,,,,,,,,,,,,,,,,,,,,,,,,,,
1222,1645900008.934392,1645900008.942348,113.0,0.0,4382.05127,4781.538574,4252.820313,4131.282227000001,4266.153809,450.0,1.0,15.0,,,,0.0,2.0,0.0,0.0,4.0,2.0,16.666666,,,,,,,,,,,,,,,,,,,,,,,,,,,,,,,,,,,,,,,,,,,,,,,,,,,,,,,,,,,,,,,,,,,,,,,,,,,,,,,,,,,,
1223,1645900008.9422052,1645900008.9501631,114.0,0.0,4341.025879,4701.025879,4175.384765999999,4115.897461,4286.666504,450.0,1.0,15.0,,,,0.0,2.0,0.0,0.0,4.0,2.0,16.666666,,,,,,,,57.0,0.0,0.731676,0.1604,0.658691,0.07104500000000001,0.9589989999999999,-0.32959499999999997,-0.085451,-0.032916,-0.030177999999999996,-0.017537999999999998,,,,,,,,,,,,,,,,,,,,,,,,,,,,,,,,,,,0.0,0.0,32.0,0.023268,1.0,0.0,,,,,,,,,,,,,,,,,,,,,,,,,
1224,1645900008.950018,1645900008.957978,115.0,0.0,4317.436035,4573.333496,4134.358886999999,4108.205078,4308.205078,317.0,1.0,15.0,,,,0.0,2.0,0.0,0.0,4.0,2.0,16.666666,,,,,,,,,,,,,,,,,,,,,,,,,,,,,,,,,,,,,,,,,,,,,,,,,,,,,,,,,,,,,,,,,,,,,,,,,,,,,,,,,,,,
1225,1645900008.9578311,1645900008.965792,116.0,0.0,4340.0,4630.769043,4054.8718259999996,4144.615234000001,4282.563965,450.0,1.0,15.0,,,,0.0,2.0,0.0,0.0,4.0,2.0,16.666666,,,,,,,,58.0,0.0,0.731676,0.1604,0.658691,0.07104500000000001,0.9511860000000001,-0.31201599999999996,-0.075685,-0.032847,-0.030237,-0.015003,,,,,,,,,,,,,,,,,,,,,,,,,,,,,,,,,,,,,,,,,,,,,,,,,,,,,,,,,,,,,,,,,
1226,1645900008.965644,1645900008.973607,117.0,0.0,4299.487305,4649.230957,4034.358887,4182.563965,4226.666504,450.0,1.0,15.0,,,,0.0,2.0,0.0,0.0,4.0,2.0,16.666666,,,,,,,,,,,,,,,,,,,,,,,,,,,,,,,,,,,,,,,,,,,,,,,,,,,,,,,,,,,,,,,,,,,,,,,,,,,,,,,,,,,,
1227,1645900008.973457,1645900008.9814222,118.0,0.0,4265.641113000001,4498.974121,4210.256348,4164.615234000001,4234.871582,450.0,1.0,15.0,,,,0.0,2.0,0.0,0.0,4.0,2.0,16.666666,,,,,,,,59.0,0.0,0.731456,0.1604,0.658936,0.07104500000000001,0.9463030000000001,-0.335454,-0.08447400000000001,-0.032785,-0.030289,-0.015846000000000002,1.0,0.0,0.0,,,,,,,,,,,,,,,,,,,,,,,,,,,,,,,,0.0,0.0,32.0,0.021037,1.0,0.0,7.615267,27.157459000000003,16.182369,19.973095,5.565592,24.281281,60.670143,70.002151,30.084244,19.316206,20.800695,70.094025,50.026989,161.358459,35.869690000000006,4.187382,13.151492000000001,10.749342,14.798269,5.285526,12.21839,39.089733,13.993360000000001,18.422714000000003,4.3208459999999995
1228,1645900008.9812698,1645900008.989337,119.0,0.0,4314.358886999999,4457.436035,4292.307617,4140.0,4256.410156,317.0,1.0,15.0,,,,0.0,2.0,0.0,0.0,4.0,2.0,16.666666,,,,,,,,,,,,,,,,,,,,,,,,,,,,,,,,,,,,,,,,,,,,,,,,,,,,,,,,,,,,,,,,,,,,,,,,,,,,,,,,,,,,
1229,1645900008.989083,1645900008.9971519,120.0,0.0,4324.615234000001,4542.05127,4151.282227000001,4187.179688,4224.102539,450.0,1.0,15.0,,,,0.0,2.0,0.0,0.0,4.0,2.0,16.666666,,,,,,,,60.0,0.0,0.73151,0.160156,0.658936,0.07104500000000001,0.9555809999999999,-0.326177,-0.081544,-0.032777999999999995,-0.030288,-0.016654,,,,,,,,,,,,,,,,,,,,,,,,,,,,,,,,,,,,,,,,,,,,,,,,,,,,,,,,,,,,,,,,,
1230,1645900008.996896,1645900009.004967,121.0,0.0,4296.410156,4596.410156,4056.923096,4202.05127,4223.589844,450.0,1.0,15.0,,,,0.0,2.0,0.0,0.0,4.0,2.0,16.666666,,,,,,,,,,,,,,,,,,,,,,,,,,,,,,,,,,,,,,,,,,,,,,,,,,,,,,,,,,,,,,,,,,,,,,,,,,,,,,,,,,,,
1231,1645900009.004709,1645900009.012782,122.0,0.0,4324.615234000001,4647.692383,4110.256348,4141.538574,4249.743652,450.0,1.0,15.0,,,,0.0,2.0,0.0,0.0,4.0,2.0,16.666666,,,,,,,,61.0,0.0,0.73151,0.160156,0.658936,0.07104500000000001,0.9404440000000001,-0.325689,-0.093751,-0.032723,-0.030238,-0.014256,,,,,,,,,,,,,,,,,,,,,,,,,,,,,,,,,,,0.0,0.0,32.0,0.021037,1.0,0.0,,,,,,,,,,,,,,,,,,,,,,,,,
1232,1645900009.012523,1645900009.020597,123.0,0.0,4372.820313,4649.743652,4134.871582,4138.974121,4230.769043,317.0,1.0,15.0,,,,0.0,2.0,0.0,0.0,4.0,2.0,16.666666,,,,,,,,,,,,,,,,,,,,,,,,,,,,,,,,,,,,,,,,,,,,,,,,,,,,,,,,,,,,,,,,,,,,,,,,,,,,,,,,,,,,
1233,1645900009.020336,1645900009.028411,124.0,0.0,4375.897461,4619.487305,4193.333496,4177.94873,4225.128418,450.0,1.0,15.0,,,,0.0,2.0,0.0,0.0,4.0,2.0,16.666666,,,,,,,,62.0,0.0,0.73173,0.160156,0.658691,0.07104500000000001,0.938491,-0.346197,-0.083009,-0.032722,-0.030241000000000004,-0.015222999999999999,,,,,,,,,,,,,,,,,,,,,,,,,,,,,,,,,,,,,,,,,,,,,,,,,,,,,,,,,,,,,,,,,
1234,1645900009.0281491,1645900009.036226,125.0,0.0,4370.769043,4660.0,4273.333496,4168.205078,4276.410156,450.0,1.0,15.0,,,,0.0,2.0,0.0,0.0,4.0,2.0,16.666666,,,,,,,,,,,,,,,,,,,,,,,,,,,,,,,,,,,,,,,,,,,,,,,,,,,,,,,,,,,,,,,,,,,,,,,,,,,,,,,,,,,,
1235,1645900009.0359619,1645900009.044041,126.0,0.0,4334.358886999999,4681.025879,4288.717772999999,4133.333496,4307.692383,450.0,1.0,15.0,,,,0.0,2.0,0.0,0.0,4.0,2.0,16.666666,,,,,,,,63.0,0.0,0.731539,0.159912,0.658936,0.071289,0.9463030000000001,-0.326665,-0.075196,-0.032722,-0.030293,-0.013016999999999999,,,,,,,,,,,,,,,,,,,,,,,,,,,,,,,,,,,0.0,0.0,32.0,0.021037,1.0,0.0,,,,,,,,,,,,,,,,,,,,,,,,,
1236,1645900009.043775,1645900009.051856,127.0,0.0,4273.333496,4552.307617,4136.922852000001,4163.077147999999,4291.282227000001,233.0,1.0,15.0,,,,0.0,2.0,0.0,0.0,4.0,2.0,16.666666,,,,,,,,,,,,,,,,,,,,,,,,,,,,,,,,,,,,,,,,,,,,,,,,,,,,,,,,,,,,,,,,,,,,,,,,,,,,,,,,,,,,
1237,1645900009.051588,1645900009.0596712,0.0,0.0,4263.077147999999,4469.743652,4098.974121,4232.307617,4241.025879,450.0,1.0,15.0,,,,0.0,2.0,0.0,0.0,4.0,2.0,16.666666,,,,,,,,0.0,0.0,0.731539,0.159912,0.658936,0.071289,0.9546040000000001,-0.319829,-0.07910299999999999,-0.032721,-0.030242,-0.014059,,,,,,,,,,,,,,,,,,,,,,,,,,,,,,,,,,,,,,,,,,,,,,,,,,,,,,,,,,,,,,,,,
1238,1645900009.059401,1645900009.067586,1.0,0.0,4328.717772999999,4591.794922,4236.922852000001,4245.128418,4237.94873,450.0,1.0,15.0,,,,0.0,2.0,0.0,0.0,4.0,2.0,16.666666,,,,,,,,,,,,,,,,,,,,,,,,,,,,,,,,,,,,,,,,,,,,,,,,,,,,,,,,,,,,,,,,,,,,,,,,,,,,,,,,,,,,
1239,1645900009.067214,1645900009.075401,2.0,0.0,4381.538574,4732.820313,4262.563965,4151.282227000001,4266.666504,264.0,1.0,15.0,,,,0.0,2.0,0.0,0.0,4.0,2.0,16.666666,,,,,,,,1.0,0.0,0.7313189999999999,0.159912,0.65918,0.071289,0.9511860000000001,-0.33350100000000005,-0.088869,-0.03272,-0.030197,-0.012068,,,,,,,,,,,,,,,,,,,,,,,,,,,,,,,,,,,0.0,0.0,32.0,0.021037,1.0,0.0,,,,,,,,,,,,,,,,,,,,,,,,,
1240,1645900009.075027,1645900009.083216,3.0,0.0,4363.077147999999,4741.025879,4151.282227000001,4096.922852000001,4292.820313,450.0,1.0,15.0,,,,0.0,2.0,0.0,0.0,4.0,2.0,16.666666,,,,,,,,,,,,,,,,,,,,,,,,,,,,,,,,,,,,,,,,,,,,,,,,,,,,,,,,,,,,,,,,,,,,,,,,,,,,,,,,,,,,
1241,1645900009.08284,1645900009.0910301,4.0,0.0,4302.563965,4650.769043,4131.282227000001,4145.128418,4316.410156,0.0,1.0,15.0,,,,0.0,2.0,0.0,0.0,4.0,2.0,16.666666,,,,,,,,2.0,0.0,0.7312960000000001,0.159912,0.65918,0.071533,0.9677879999999999,-0.33984899999999996,-0.083497,-0.032866,-0.030156,-0.01008,,,,,,,,,,,,,,,,,,,,,,,,,,,,,,,,,,,,,,,,,,,,,,,,,,,,,,,,,,,,,,,,,
1242,1645900009.090653,1645900009.098845,5.0,0.0,4295.897461,4604.615234000001,4060.0,4195.897461,4301.025879,450.0,1.0,15.0,,,,0.0,2.0,0.0,0.0,4.0,2.0,16.666666,,,,,,,,,,,,,,,,,,,,,,,,,,,,,,,,,,,,,,,,,,,,,,,,,,,,,,,,,,,,,,,,,,,,,,,,,,,,,,,,,,,,
1243,1645900009.098466,1645900009.10666,6.0,0.0,4298.974121,4594.871582,3989.2307130000004,4192.820313,4239.487305,0.0,1.0,15.0,,,,0.0,2.0,0.0,0.0,4.0,2.0,16.666666,,,,,,,,3.0,0.0,0.7312420000000001,0.160156,0.65918,0.071533,0.9472799999999999,-0.330083,-0.08105599999999999,-0.029629000000000003,-0.030168,-0.011464,1.0,0.0,0.0,,,,,,,,,,,,,,,,,,,,,,,,,,,,,,,,0.0,0.0,32.0,0.021748,1.0,0.0,8.315049,27.552345000000003,14.076557000000001,20.843075,6.50477,20.867369,54.197479,77.888565,34.734272,19.567249,28.233472999999996,68.170464,51.961208,155.85437,41.699612,4.378744,16.064732,12.930664,16.313084,5.695822,14.582625,32.953114,12.714349,19.497129,4.388934
1244,1645900009.106279,1645900009.114475,7.0,0.0,4291.282227000001,4540.0,4165.641113000001,4171.794922,4238.461426,450.0,1.0,15.0,,,,0.0,2.0,0.0,0.0,4.0,2.0,16.666666,,,,,,,,,,,,,,,,,,,,,,,,,,,,,,,,,,,,,,,,,,,,,,,,,,,,,,,,,,,,,,,,,,,,,,,,,,,,,,,,,,,,
1245,1645900009.1140919,1645900009.1222901,8.0,0.0,4321.538574,4548.205078,4310.256348,4157.94873,4280.512695,450.0,1.0,15.0,,,,0.0,2.0,0.0,0.0,4.0,2.0,16.666666,,,,,,,,4.0,0.0,0.7313189999999999,0.159912,0.65918,0.071289,0.9511860000000001,-0.33350100000000005,-0.088869,-0.02984,-0.030177999999999996,-0.009537,,,,,,,,,,,,,,,,,,,,,,,,,,,,,,,,,,,,,,,,,,,,,,,,,,,,,,,,,,,,,,,,,
1246,1645900009.121906,1645900009.130105,9.0,0.0,4332.307617,4641.025879,4193.333496,4161.538574,4271.282227000001,16130.0,1.0,15.0,,,,0.0,2.0,0.0,0.0,4.0,2.0,16.666666,,,,,,,,,,,,,,,,,,,,,,,,,,,,,,,,,,,,,,,,,,,,,,,,,,,,,,,,,,,,,,,,,,,,,,,,,,,,,,,,,,,,
1247,1645900009.129719,1645900009.13802,10.0,0.0,4292.820313,4631.282227000001,4054.8718259999996,4176.922852000001,4263.077147999999,450.0,1.0,15.0,,,,0.0,2.0,0.0,0.0,4.0,2.0,16.666666,,,,,,,,5.0,0.0,0.7312420000000001,0.160156,0.65918,0.071533,0.9472799999999999,-0.330083,-0.08105599999999999,-0.026904,-0.030188,-0.010975,,,,,,,,,,,,,,,,,,,,,,,,,,,,,,,,,,,0.0,0.0,32.0,0.021748,1.0,0.0,,,,,,,,,,,,,,,,,,,,,,,,,
1248,1645900009.137532,1645900009.145834,11.0,0.0,4295.897461,4564.615234000001,4065.1281740000004,4203.077147999999,4247.692383,296.0,1.0,15.0,,,,0.0,2.0,0.0,0.0,4.0,2.0,16.666666,,,,,,,,,,,,,,,,,,,,,,,,,,,,,,,,,,,,,,,,,,,,,,,,,,,,,,,,,,,,,,,,,,,,,,,,,,,,,,,,,,,,
1249,1645900009.145345,1645900009.153649,12.0,0.0,4387.179688,4681.538574,4110.256348,4217.436035,4240.512695,450.0,1.0,15.0,,,,0.0,2.0,0.0,0.0,4.0,2.0,16.666666,,,,,,,,6.0,0.0,0.731165,0.1604,0.65918,0.071777,0.93019,-0.33105999999999997,-0.072755,-0.027388,-0.030244999999999998,-0.012270999999999999,,,,,,,,,,,,,,,,,,,,,,,,,,,,,,,,,,,,,,,,,,,,,,,,,,,,,,,,,,,,,,,,,
1250,1645900009.153158,1645900009.161464,13.0,0.0,4437.436035,4793.333496,4162.05127,4178.974121,4321.025879,450.0,1.0,15.0,,,,0.0,2.0,0.0,0.0,4.0,2.0,16.666666,,,,,,,,,,,,,,,,,,,,,,,,,,,,,,,,,,,,,,,,,,,,,,,,,,,,,,,,,,,,,,,,,,,,,,,,,,,,,,,,,,,,
1251,1645900009.1609712,1645900009.1692789,14.0,0.0,4457.94873,4622.563965,4111.794922,4187.692383,4394.358886999999,450.0,1.0,15.0,,,,0.0,2.0,0.0,0.0,4.0,2.0,16.666666,,,,,,,,7.0,0.0,0.731141,0.1604,0.65918,0.072021,0.9423969999999999,-0.334478,-0.070314,-0.028067,-0.030199,-0.010262,,,,,,,,,,,,,,,,,,,,,,,,,,,,,,,,,,,0.0,0.0,32.0,0.021748,1.0,0.0,,,,,,,,,,,,,,,,,,,,,,,,,
1252,1645900009.168784,1645900009.177094,15.0,0.0,4572.820313,4478.461426,4108.205078,4227.692383,4382.05127,296.0,1.0,15.0,,,,0.0,2.0,0.0,0.0,4.0,2.0,16.666666,,,,,,,,,,,,,,,,,,,,,,,,,,,,,,,,,,,,,,,,,,,,,,,,,,,,,,,,,,,,,,,,,,,,,,,,,,,,,,,,,,,,
1253,1645900009.176597,1645900009.1849089,16.0,0.0,4684.102539,4570.769043,4147.179688,4224.615234000001,4418.461426,0.0,1.0,15.0,,,,0.0,2.0,0.0,0.0,4.0,2.0,16.666666,,,,,,,,8.0,0.0,0.731087,0.160645,0.65918,0.072021,0.9331200000000001,-0.320806,-0.083497,-0.028482999999999998,-0.030060000000000003,-0.01158,,,,,,,,,,,,,,,,,,,,,,,,,,,,,,,,,,,,,,,,,,,,,,,,,,,,,,,,,,,,,,,,,
1254,1645900009.1844099,1645900009.192724,17.0,0.0,4671.794922,4643.589844,4171.282227000001,4222.563965,4472.820313,0.0,1.0,15.0,,,,0.0,2.0,0.0,0.0,4.0,2.0,16.666666,,,,,,,,,,,,,,,,,,,,,,,,,,,,,,,,,,,,,,,,,,,,,,,,,,,,,,,,,,,,,,,,,,,,,,,,,,,,,,,,,,,,
1255,1645900009.192223,1645900009.200539,18.0,0.0,4687.692383,4597.94873,4137.436035,4208.205078,4502.05127,0.0,1.0,15.0,,,,0.0,2.0,0.0,0.0,4.0,2.0,16.666666,,,,,,,,9.0,0.0,0.731033,0.160889,0.65918,0.072021,0.9521629999999999,-0.337407,-0.06347799999999999,-0.028857,-0.030081999999999998,-0.009641,,,,,,,,,,,,,,,,,,,,,,,,,,,,,,,,,,,0.0,0.0,32.0,0.021748,1.0,0.0,,,,,,,,,,,,,,,,,,,,,,,,,
1256,1645900009.200036,1645900009.208453,19.0,0.0,4748.205078,4582.563965,4176.922852000001,4159.487305,4551.794922,0.0,1.0,15.0,,,,0.0,2.0,0.0,0.0,4.0,2.0,16.666666,,,,,,,,,,,,,,,,,,,,,,,,,,,,,,,,,,,,,,,,,,,,,,,,,,,,,,,,,,,,,,,,,,,,,,,,,,,,,,,,,,,,
1257,1645900009.207849,1645900009.216268,20.0,0.0,4754.871582,4633.333496,4231.794922,4167.692383,4602.05127,0.0,1.0,15.0,,,,0.0,2.0,0.0,0.0,4.0,2.0,16.666666,,,,,,,,10.0,0.0,0.731033,0.160889,0.65918,0.072021,0.9550930000000001,-0.33789600000000003,-0.064942,-0.029341000000000002,-0.030101,-0.01102,,,,,,,,,,,,,,,,,,,,,,,,,,,,,,,,,,,,,,,,,,,,,,,,,,,,,,,,,,,,,,,,,
1258,1645900009.2156632,1645900009.224083,21.0,0.0,4736.410156,4650.256348,4245.641113000001,4178.461426,4593.333496,0.0,1.0,15.0,,,,0.0,2.0,0.0,0.0,4.0,2.0,16.666666,,,,,,,,,,,,,,,,,,,,,,,,,,,,,,,,,,,,,,,,,,,,,,,,,,,,,,,,,,,,,,,,,,,,,,,,,,,,,,,,,,,,
1259,1645900009.223476,1645900009.231898,22.0,0.0,4762.05127,4636.410156,4223.077147999999,4177.94873,4607.692383,0.0,1.0,15.0,,,,0.0,2.0,0.0,0.0,4.0,2.0,16.666666,1.0,16.666666,2.0,0.0,0.0,2.0,2.0,11.0,0.0,0.73098,0.161133,0.65918,0.072021,0.949233,-0.34815,-0.081544,-0.029776,-0.030167000000000003,-0.012311,1.0,0.0,0.0,1.0,0.459808,0.834541,-0.5084069999999999,2.4996669999999996,1.0,0.131993,4.389586,1.233206,26.204183999999998,0.262923,1.0,0.395957,-0.092158,-0.269957,0.17775,1.0,0.46280600000000005,1.560555,-0.173275,3.7202330000000003,1.0,0.48653500000000005,12.012708,-70.788614,99.715838,1.0,0.149693,0.456316,0.425994,0.707709,0.0,0.0,32.0,0.154615,1.0,0.0,9.511198,27.120794,12.184365,21.506317000000003,7.585635000000001,17.176109,49.707119,78.359718,37.929882,20.348608,40.657139,63.660656,57.857273,151.856049,49.269199,4.952428,18.581125,15.107153,17.919882,6.2004660000000005,16.610584,25.936741,10.700835000000001,20.452258999999998,4.667815
1260,1645900009.2312891,1645900009.2397132,23.0,0.0,4805.641113000001,4623.077147999999,4175.897461,4235.897461,4671.282227000001,0.0,1.0,15.0,,,,0.0,2.0,0.0,0.0,4.0,2.0,16.666666,,,,,,,,,,,,,,,,,,,,,,,,,,,,,,,,,,,,,,,,,,,,,,,,,,,,,,,,,,,,,,,,,,,,,,,,,,,,,,,,,,,,
1261,1645900009.239102,1645900009.2475278,24.0,0.0,4880.0,4602.563965,4152.307617,4235.384765999999,4690.256348,0.0,1.0,15.0,,,,0.0,2.0,0.0,0.0,4.0,2.0,16.666666,,,,,,,,12.0,0.0,0.7312,0.161133,0.658936,0.072021,0.938003,-0.34521999999999997,-0.083986,-0.030168,-0.030275,-0.010298999999999999,,,,,,,,,,,,,,,,,,,,,,,,,,,,,,,,,,,,,,,,,,,,,,,,,,,,,,,,,,,,,,,,,
1262,1645900009.246915,1645900009.255343,25.0,0.0,4929.743652,4555.897461,4088.205078,4150.256348,4683.589844,0.0,1.0,15.0,,,,0.0,2.0,0.0,0.0,4.0,2.0,16.666666,,,,,,,,,,,,,,,,,,,,,,,,,,,,,,,,,,,,,,,,,,,,,,,,,,,,,,,,,,,,,,,,,,,,,,,,,,,,,,,,,,,,
1263,1645900009.2547278,1645900009.263158,26.0,0.0,4870.769043,4511.282227000001,4157.436035,4177.94873,4690.769043,0.0,1.0,15.0,,,,0.0,2.0,0.0,0.0,4.0,2.0,16.666666,,,,,,,,13.0,0.0,0.7312,0.161133,0.658936,0.072021,0.946792,-0.32861799999999997,-0.067872,-0.030325,-0.030324,-0.008536,,,,,,,,,,,,,,,,,,,,,,,,,,,,,,,,,,,0.0,0.0,32.0,0.154615,1.0,0.0,,,,,,,,,,,,,,,,,,,,,,,,,
1264,1645900009.262541,1645900009.270973,27.0,0.0,4824.615234000001,4545.641113000001,4245.641113000001,4271.794922,4721.538574,0.0,1.0,15.0,,,,0.0,2.0,0.0,0.0,4.0,2.0,16.666666,,,,,,,,,,,,,,,,,,,,,,,,,,,,,,,,,,,,,,,,,,,,,,,,,,,,,,,,,,,,,,,,,,,,,,,,,,,,,,,,,,,,
1265,1645900009.2703538,1645900009.278787,28.0,0.0,4831.794922,4618.461426,4108.205078,4276.410156,4722.05127,0.0,1.0,15.0,,,,0.0,2.0,0.0,0.0,4.0,2.0,16.666666,,,,,,,,14.0,0.0,0.731176,0.161133,0.658936,0.072266,0.9521629999999999,-0.333013,-0.07324299999999999,-0.030612999999999998,-0.03027,-0.010026,,,,,,,,,,,,,,,,,,,,,,,,,,,,,,,,,,,,,,,,,,,,,,,,,,,,,,,,,,,,,,,,,
1266,1645900009.278167,1645900009.286702,29.0,0.0,4797.94873,4665.641113000001,4021.538574,4238.974121,4678.461426,0.0,1.0,15.0,,,,0.0,2.0,0.0,0.0,4.0,2.0,16.666666,,,,,,,,,,,,,,,,,,,,,,,,,,,,,,,,,,,,,,,,,,,,,,,,,,,,,,,,,,,,,,,,,,,,,,,,,,,,,,,,,,,,
1267,1645900009.28598,1645900009.294517,30.0,0.0,4711.794922,4647.179688,4143.077147999999,4203.589844,4638.974121,0.0,1.0,15.0,,,,0.0,2.0,0.0,0.0,4.0,2.0,16.666666,,,,,,,,15.0,0.0,0.731122,0.161377,0.658936,0.072266,0.941421,-0.322759,-0.08203300000000001,-0.030774,-0.030222000000000002,-0.011415999999999999,,,,,,,,,,,,,,,,,,,,,,,,,,,,,,,,,,,0.0,0.0,32.0,0.154615,1.0,0.0,,,,,,,,,,,,,,,,,,,,,,,,,
1268,1645900009.293793,1645900009.302332,31.0,0.0,4736.410156,4614.871582,4138.974121,4186.666504,4645.128418,0.0,1.0,15.0,,,,0.0,2.0,0.0,0.0,4.0,2.0,16.666666,,,,,,,,,,,,,,,,,,,,,,,,,,,,,,,,,,,,,,,,,,,,,,,,,,,,,,,,,,,,,,,,,,,,,,,,,,,,,,,,,,,,
1269,1645900009.3016071,1645900009.310147,32.0,0.0,4793.333496,4658.461426,4090.256348,4189.743652,4647.179688,0.0,1.0,15.0,,,,0.0,2.0,0.0,0.0,4.0,2.0,16.666666,,,,,,,,16.0,0.0,0.731122,0.161377,0.658936,0.072266,0.941421,-0.33350100000000005,-0.076173,-0.031017000000000003,-0.030226999999999997,-0.012667,,,,,,,,,,,,,,,,,,,,,,,,,,,,,,,,,,,,,,,,,,,,,,,,,,,,,,,,,,,,,,,,,
1270,1645900009.3094199,1645900009.317962,33.0,0.0,4722.05127,4706.666504,4157.436035,4215.384765999999,4616.410156,0.0,1.0,15.0,,,,0.0,2.0,0.0,0.0,4.0,2.0,16.666666,,,,,,,,,,,,,,,,,,,,,,,,,,,,,,,,,,,,,,,,,,,,,,,,,,,,,,,,,,,,,,,,,,,,,,,,,,,,,,,,,,,,
1271,1645900009.3172321,1645900009.325777,34.0,0.0,4668.717772999999,4721.025879,4115.897461,4200.0,4592.307617,0.0,1.0,15.0,,,,0.0,2.0,0.0,0.0,4.0,2.0,16.666666,,,,,,,,17.0,0.0,0.731068,0.16162100000000001,0.658936,0.072266,0.939467,-0.326177,-0.080568,-0.031187,-0.030232,-0.010668,,,,,,,,,,,,,,,,,,,,,,,,,,,,,,,,,,,10.0,0.0,32.0,0.154615,1.0,0.0,,,,,,,,,,,,,,,,,,,,,,,,,
1272,1645900009.325046,1645900009.333592,35.0,0.0,4678.974121,4687.692383,4028.205078,4170.256348,4579.487305,0.0,1.0,15.0,,,,0.0,2.0,0.0,0.0,4.0,2.0,16.666666,,,,,,,,,,,,,,,,,,,,,,,,,,,,,,,,,,,,,,,,,,,,,,,,,,,,,,,,,,,,,,,,,,,,,,,,,,,,,,,,,,,,
1273,1645900009.332859,1645900009.341406,36.0,0.0,4606.153809,4674.871582,4107.692383,4132.820313,4520.512695,0.0,1.0,15.0,,,,0.0,2.0,0.0,0.0,4.0,2.0,16.666666,,,,,,,,18.0,0.0,0.731312,0.16162100000000001,0.658691,0.072021,0.957046,-0.354498,-0.090822,-0.03134,-0.030187000000000002,-0.012043,,,,,,,,,,,,,,,,,,,,,,,,,,,,,,,,,,,,,,,,,,,,,,,,,,,,,,,,,,,,,,,,,
1274,1645900009.340672,1645900009.349221,37.0,0.0,4552.307617,4762.05127,4092.820557,4118.974121,4501.025879,0.0,1.0,15.0,,,,0.0,2.0,0.0,0.0,4.0,2.0,16.666666,,,,,,,,,,,,,,,,,,,,,,,,,,,,,,,,,,,,,,,,,,,,,,,,,,,,,,,,,,,,,,,,,,,,,,,,,,,,,,,,,,,,
1275,1645900009.348485,1645900009.357136,38.0,0.0,4590.769043,4789.230957,4068.205078,4160.0,4538.461426,0.0,1.0,15.0,,,,0.0,2.0,0.0,0.0,4.0,2.0,16.666666,,,,,,,,19.0,0.0,0.731116,0.16162100000000001,0.658936,0.071777,0.941421,-0.350591,-0.082521,-0.031428,-0.030244999999999998,-0.013328999999999999,1.0,0.0,0.0,,,,,,,,,,,,,,,,,,,,,,,,,,,,,,,,10.0,0.0,32.0,0.27469499999999997,1.0,0.0,12.276326,25.43046,11.443072,21.624095999999998,8.583917999999999,14.69338,46.223377,74.155365,39.504532,21.664804,56.555653,56.775047,65.458145,151.96438600000002,56.89514499999999,5.698855,19.988306,17.096829999999997,19.105127,6.733177,18.656841,20.173588,8.603105000000001,21.045322,5.105173000000001
1276,1645900009.356298,1645900009.364951,39.0,0.0,4593.333496,4701.025879,4164.102539,4178.461426,4556.410156,0.0,1.0,15.0,,,,0.0,2.0,0.0,0.0,4.0,2.0,16.666666,,,,,,,,,,,,,,,,,,,,,,,,,,,,,,,,,,,,,,,,,,,,,,,,,,,,,,,,,,,,,,,,,,,,,,,,,,,,,,,,,,,,
1277,1645900009.364111,1645900009.372766,40.0,0.0,4539.487305,4677.436035,4114.871582,4142.563965,4529.230957,0.0,1.0,15.0,,,,0.0,2.0,0.0,0.0,4.0,2.0,16.666666,,,,,,,,20.0,0.0,0.73136,0.16162100000000001,0.658691,0.071533,0.933608,-0.338384,-0.089357,-0.031459,-0.030247000000000003,-0.011262999999999999,,,,,,,,,,,,,,,,,,,,,,,,,,,,,,,,,,,,,,,,,,,,,,,,,,,,,,,,,,,,,,,,,
1278,1645900009.371924,1645900009.3805811,41.0,0.0,4525.641113000001,4780.512695,4066.6667479999996,4097.94873,4492.820313,0.0,1.0,15.0,,,,0.0,2.0,0.0,0.0,4.0,2.0,16.666666,,,,,,,,,,,,,,,,,,,,,,,,,,,,,,,,,,,,,,,,,,,,,,,,,,,,,,,,,,,,,,,,,,,,,,,,,,,,,,,,,,,,
1279,1645900009.379737,1645900009.388396,42.0,0.0,4503.589844,4823.077147999999,4225.128418,4096.410156,4459.487305,0.0,1.0,15.0,,,,0.0,2.0,0.0,0.0,4.0,2.0,16.666666,,,,,,,,21.0,0.0,0.731218,0.161377,0.658936,0.071289,0.933608,-0.331548,-0.075196,-0.03178,-0.030201,-0.01253,,,,,,,,,,,,,,,,,,,,,,,,,,,,,,,,,,,10.0,0.0,32.0,0.27469499999999997,1.0,0.0,,,,,,,,,,,,,,,,,,,,,,,,,
1280,1645900009.38755,1645900009.39621,43.0,0.0,4389.743652,4710.769043,4268.205078,4136.410156,4391.282227000001,0.0,1.0,15.0,,,,0.0,2.0,0.0,0.0,4.0,2.0,16.666666,,,,,,,,,,,,,,,,,,,,,,,,,,,,,,,,,,,,,,,,,,,,,,,,,,,,,,,,,,,,,,,,,,,,,,,,,,,,,,,,,,,,
1281,1645900009.395363,1645900009.404025,44.0,0.0,4278.461426,4609.743652,4024.102539,4173.846191,4328.205078,0.0,1.0,15.0,,,,0.0,2.0,0.0,0.0,4.0,2.0,16.666666,,,,,,,,22.0,0.0,0.731295,0.161133,0.658936,0.07104500000000001,0.952651,-0.317388,-0.087404,-0.031825,-0.030257,-0.013766999999999998,,,,,,,,,,,,,,,,,,,,,,,,,,,,,,,,,,,,,,,,,,,,,,,,,,,,,,,,,,,,,,,,,
1282,1645900009.403176,1645900009.41184,45.0,0.0,4297.436035,4651.794922,4004.615479,4166.153809,4302.05127,0.0,1.0,15.0,,,,0.0,2.0,0.0,0.0,4.0,2.0,16.666666,,,,,,,,,,,,,,,,,,,,,,,,,,,,,,,,,,,,,,,,,,,,,,,,,,,,,,,,,,,,,,,,,,,,,,,,,,,,,,,,,,,,
1283,1645900009.41099,1645900009.419655,46.0,0.0,4360.512695,4750.256348,4200.512695,4116.922852000001,4293.846191,0.0,1.0,15.0,,,,0.0,2.0,0.0,0.0,4.0,2.0,16.666666,,,,,,,,23.0,0.0,0.731325,0.160889,0.658936,0.071289,0.9546040000000001,-0.326665,-0.078614,-0.031865,-0.030307999999999998,-0.014734,,,,,,,,,,,,,,,,,,,,,,,,,,,,,,,,,,,10.0,0.0,32.0,0.27469499999999997,1.0,0.0,,,,,,,,,,,,,,,,,,,,,,,,,
1284,1645900009.418803,1645900009.4275699,47.0,0.0,4288.717772999999,4678.461426,4281.025879,4068.205078,4272.307617,0.0,1.0,15.0,,,,0.0,2.0,0.0,0.0,4.0,2.0,16.666666,,,,,,,,,,,,,,,,,,,,,,,,,,,,,,,,,,,,,,,,,,,,,,,,,,,,,,,,,,,,,,,,,,,,,,,,,,,,,,,,,,,,
1285,1645900009.426616,1645900009.435385,48.0,0.0,4233.333496,4603.077147999999,4213.333496,4060.0,4266.153809,0.0,1.0,15.0,,,,0.0,2.0,0.0,0.0,4.0,2.0,16.666666,,,,,,,,24.0,0.0,0.7316229999999999,0.160645,0.658691,0.07104500000000001,0.9463030000000001,-0.311528,-0.088869,-0.032048,-0.030256,-0.015653,,,,,,,,,,,,,,,,,,,,,,,,,,,,,,,,,,,,,,,,,,,,,,,,,,,,,,,,,,,,,,,,,
1286,1645900009.434429,1645900009.4432,49.0,0.0,4241.025879,4637.436035,4215.897461,4085.1281740000004,4251.794922,0.0,1.0,15.0,,,,0.0,2.0,0.0,0.0,4.0,2.0,16.666666,,,,,,,,,,,,,,,,,,,,,,,,,,,,,,,,,,,,,,,,,,,,,,,,,,,,,,,,,,,,,,,,,,,,,,,,,,,,,,,,,,,,
1287,1645900009.442242,1645900009.451015,50.0,0.0,4211.282227000001,4614.871582,4256.410156,4094.8718259999996,4237.436035,0.0,1.0,15.0,,,,0.0,2.0,0.0,0.0,4.0,2.0,16.666666,,,,,,,,25.0,0.0,0.731676,0.1604,0.658691,0.07104500000000001,0.932631,-0.327153,-0.070802,-0.032212,-0.030257,-0.013307,,,,,,,,,,,,,,,,,,,,,,,,,,,,,,,,,,,10.0,0.0,32.0,0.27469499999999997,1.0,0.0,,,,,,,,,,,,,,,,,,,,,,,,,
1288,1645900009.4500551,1645900009.458829,51.0,0.0,4161.538574,4576.410156,4227.179688,4080.512939,4226.153809,0.0,1.0,15.0,,,,0.0,2.0,0.0,0.0,4.0,2.0,16.666666,,,,,,,,,,,,,,,,,,,,,,,,,,,,,,,,,,,,,,,,,,,,,,,,,,,,,,,,,,,,,,,,,,,,,,,,,,,,,,,,,,,,
1289,1645900009.4578679,1645900009.466644,52.0,0.0,4169.743652,4612.307617,4170.256348,4091.794922,4214.358886999999,0.0,1.0,15.0,,,,0.0,2.0,0.0,0.0,4.0,2.0,16.666666,,,,,,,,26.0,0.0,0.73173,0.160156,0.658691,0.07104500000000001,0.952651,-0.33350100000000005,-0.097169,-0.032263,-0.03021,-0.011146,,,,,,,,,,,,,,,,,,,,,,,,,,,,,,,,,,,,,,,,,,,,,,,,,,,,,,,,,,,,,,,,,
1290,1645900009.465681,1645900009.474459,53.0,0.0,4163.589844,4640.0,4184.615234000001,4081.025635,4201.025879,0.0,1.0,15.0,,,,0.0,2.0,0.0,0.0,4.0,2.0,16.666666,,,,,,,,,,,,,,,,,,,,,,,,,,,,,,,,,,,,,,,,,,,,,,,,,,,,,,,,,,,,,,,,,,,,,,,,,,,,,,,,,,,,
1291,1645900009.473494,1645900009.482274,54.0,0.0,4143.589844,4610.256348,4164.615234000001,4072.820557,4185.128418,0.0,1.0,15.0,,,,0.0,2.0,0.0,0.0,4.0,2.0,16.666666,,,,,,,,27.0,0.0,0.73151,0.160156,0.658936,0.07104500000000001,0.9389790000000001,-0.33105999999999997,-0.083986,-0.03221,-0.030168,-0.012424,1.0,0.0,0.0,,,,,,,,,,,,,,,,,,,,,,,,,,,,,,,,0.0,0.0,32.0,0.259367,1.0,0.0,20.987305,22.502516,12.775927000000001,21.141043,9.272160000000001,14.455461999999999,42.389595,70.896469,39.589458,23.439633999999998,72.56845899999999,48.137634000000006,71.68051899999999,156.224808,62.445454000000005,6.379455,19.909639000000002,18.566527999999998,19.58145,7.236299000000001,22.791183,16.725719,6.995233,21.039054999999998,5.574066999999999
1292,1645900009.481307,1645900009.4900892,55.0,0.0,4145.641113000001,4594.871582,4129.743652,4112.820313,4151.794922,0.0,1.0,15.0,,,,0.0,2.0,0.0,0.0,4.0,2.0,16.666666,,,,,,,,,,,,,,,,,,,,,,,,,,,,,,,,,,,,,,,,,,,,,,,,,,,,,,,,,,,,,,,,,,,,,,,,,,,,,,,,,,,,
1293,1645900009.48912,1645900009.4979038,56.0,0.0,4140.0,4616.922852000001,4178.974121,4133.333496,4143.077147999999,0.0,1.0,15.0,,,,0.0,2.0,0.0,0.0,4.0,2.0,16.666666,,,,,,,,28.0,0.0,0.73151,0.160156,0.658936,0.07104500000000001,0.963882,-0.32959499999999997,-0.085451,-0.032261,-0.03013,-0.0104,,,,,,,,,,,,,,,,,,,,,,,,,,,,,,,,,,,,,,,,,,,,,,,,,,,,,,,,,,,,,,,,,
1294,1645900009.496933,1645900009.5058188,57.0,0.0,4095.897461,4582.563965,4222.563965,4115.897461,4160.0,0.0,1.0,15.0,,,,0.0,2.0,0.0,0.0,4.0,2.0,16.666666,,,,,,,,,,,,,,,,,,,,,,,,,,,,,,,,,,,,,,,,,,,,,,,,,,,,,,,,,,,,,,,,,,,,,,,,,,,,,,,,,,,,
1295,1645900009.5047472,1645900009.513634,58.0,0.0,4076.923096,4517.436035,4196.410156,4114.871582,4144.615234000001,0.0,1.0,15.0,,,,0.0,2.0,0.0,0.0,4.0,2.0,16.666666,,,,,,,,29.0,0.0,0.73151,0.160156,0.658936,0.07104500000000001,0.953628,-0.338872,-0.083986,-0.032404,-0.030095,-0.011802,,,,,,,,,,,,,,,,,,,,,,,,,,,,,,,,,,,0.0,0.0,32.0,0.259367,1.0,0.0,,,,,,,,,,,,,,,,,,,,,,,,,
1296,1645900009.51256,1645900009.5214481,59.0,0.0,4108.717772999999,4512.820313,4174.358886999999,4158.974121,4156.410156,0.0,1.0,15.0,,,,0.0,2.0,0.0,0.0,4.0,2.0,16.666666,,,,,,,,,,,,,,,,,,,,,,,,,,,,,,,,,,,,,,,,,,,,,,,,,,,,,,,,,,,,,,,,,,,,,,,,,,,,,,,,,,,,
1297,1645900009.520373,1645900009.529263,60.0,0.0,4129.230957,4593.333496,4161.025879,4159.487305,4194.871582,0.0,1.0,15.0,,,,0.0,2.0,0.0,0.0,4.0,2.0,16.666666,,,,,,,,30.0,0.0,0.73151,0.160156,0.658936,0.07104500000000001,0.9389790000000001,-0.317388,-0.07715,-0.032533,-0.030113,-0.009889,,,,,,,,,,,,,,,,,,,,,,,,,,,,,,,,,,,,,,,,,,,,,,,,,,,,,,,,,,,,,,,,,
1298,1645900009.5281858,1645900009.537078,61.0,0.0,4116.922852000001,4605.128418,4117.94873,4140.512695,4204.102539,0.0,1.0,15.0,,,,0.0,2.0,0.0,0.0,4.0,2.0,16.666666,,,,,,,,,,,,,,,,,,,,,,,,,,,,,,,,,,,,,,,,,,,,,,,,,,,,,,,,,,,,,,,,,,,,,,,,,,,,,,,,,,,,
1299,1645900009.535999,1645900009.544893,62.0,0.0,4110.256348,4582.563965,4120.0,4174.871582,4175.897461,0.0,1.0,15.0,,,,0.0,2.0,0.0,0.0,4.0,2.0,16.666666,,,,,,,,31.0,0.0,0.73151,0.160156,0.658936,0.07104500000000001,0.945815,-0.322759,-0.082521,-0.032551,-0.030129000000000003,-0.011342,,,,,,,,,,,,,,,,,,,,,,,,,,,,,,,,,,,0.0,0.0,32.0,0.259367,1.0,0.0,,,,,,,,,,,,,,,,,,,,,,,,,
1300,1645900009.5438118,1645900009.552708,63.0,0.0,4107.179688,4564.615234000001,4097.94873,4213.846191,4177.436035,0.0,1.0,15.0,,,,0.0,2.0,0.0,0.0,4.0,2.0,16.666666,,,,,,,,,,,,,,,,,,,,,,,,,,,,,,,,,,,,,,,,,,,,,,,,,,,,,,,,,,,,,,,,,,,,,,,,,,,,,,,,,,,,
1301,1645900009.551625,1645900009.560523,64.0,0.0,4089.743652,4518.974121,4096.410156,4177.436035,4203.077147999999,450.0,1.0,15.0,,,,0.0,2.0,0.0,0.0,4.0,2.0,16.666666,,,,,,,,32.0,0.0,0.73151,0.160156,0.658936,0.07104500000000001,0.953628,-0.338872,-0.083986,-0.03247,-0.030241000000000004,-0.009573,,,,,,,,,,,,,,,,,,,,,,,,,,,,,,,,,,,,,,,,,,,,,,,,,,,,,,,,,,,,,,,,,
1302,1645900009.559438,1645900009.5683382,65.0,0.0,4097.94873,4505.641113000001,4071.794922,4187.692383,4207.692383,450.0,1.0,15.0,,,,0.0,2.0,0.0,0.0,4.0,2.0,16.666666,,,,,,,,,,,,,,,,,,,,,,,,,,,,,,,,,,,,,,,,,,,,,,,,,,,,,,,,,,,,,,,,,,,,,,,,,,,,,,,,,,,,
1303,1645900009.567251,1645900009.576253,66.0,0.0,4126.153809,4543.077147999999,4077.9487299999996,4228.205078,4180.0,301.0,1.0,15.0,,,,0.0,2.0,0.0,0.0,4.0,2.0,16.666666,,,,,,,,33.0,0.0,0.73151,0.160156,0.658936,0.07104500000000001,0.945815,-0.322759,-0.082521,-0.032494,-0.030244999999999998,-0.011056999999999999,,,,,,,,,,,,,,,,,,,,,,,,,,,,,,,,,,,0.0,0.0,32.0,0.259367,1.0,0.0,,,,,,,,,,,,,,,,,,,,,,,,,
1304,1645900009.575064,1645900009.584067,67.0,0.0,4133.846191,4487.692383,4091.281982,4216.410156,4139.487305,450.0,1.0,15.0,,,,0.0,2.0,0.0,0.0,4.0,2.0,16.666666,,,,,,,,,,,,,,,,,,,,,,,,,,,,,,,,,,,,,,,,,,,,,,,,,,,,,,,,,,,,,,,,,,,,,,,,,,,,,,,,,,,,
1305,1645900009.582877,1645900009.591882,68.0,0.0,4153.333496,4431.282227000001,4103.077147999999,4168.717772999999,4112.307617,26.0,1.0,15.0,,,,0.0,2.0,0.0,0.0,4.0,2.0,16.666666,,,,,,,,34.0,0.0,0.73151,0.160156,0.658936,0.07104500000000001,0.9472799999999999,-0.323735,-0.083986,-0.032516,-0.03015,-0.012393000000000001,,,,,,,,,,,,,,,,,,,,,,,,,,,,,,,,,,,,,,,,,,,,,,,,,,,,,,,,,,,,,,,,,
1306,1645900009.5906901,1645900009.599697,69.0,0.0,4164.102539,4511.282227000001,4171.794922,4170.256348,4117.94873,450.0,1.0,15.0,,,,0.0,2.0,0.0,0.0,4.0,2.0,16.666666,,,,,,,,,,,,,,,,,,,,,,,,,,,,,,,,,,,,,,,,,,,,,,,,,,,,,,,,,,,,,,,,,,,,,,,,,,,,,,,,,,,,
1307,1645900009.5985029,1645900009.607512,70.0,0.0,4154.358886999999,4598.461426,4233.846191,4173.846191,4153.333496,0.0,1.0,15.0,,,,0.0,2.0,0.0,0.0,4.0,2.0,16.666666,,,,,,,,35.0,0.0,0.73151,0.160156,0.658936,0.07104500000000001,0.940932,-0.336431,-0.07910299999999999,-0.032536,-0.030211000000000002,-0.010372,1.0,0.0,0.0,,,,,,,,,,,,,,,,,,,,,,,,,,,,,,,,0.0,0.0,32.0,0.321253,1.0,0.0,38.570881,18.931168,16.448195000000002,20.363262,9.531661,16.594793,37.208462,72.975571,38.405685,25.578035,84.97419000000001,39.034954,73.227249,160.878159,64.268745,6.826258,18.422476,19.115574,19.434801,7.595689,30.882897999999997,15.146512,6.171541,20.250053,5.922696
1308,1645900009.606317,1645900009.615327,71.0,0.0,4162.563965,4565.641113000001,4250.769043,4154.871582,4219.487305,450.0,1.0,15.0,,,,0.0,2.0,0.0,0.0,4.0,2.0,16.666666,,,,,,,,,,,,,,,,,,,,,,,,,,,,,,,,,,,,,,,,,,,,,,,,,,,,,,,,,,,,,,,,,,,,,,,,,,,,,,,,,,,,
1309,1645900009.61413,1645900009.623142,72.0,0.0,4182.563965,4513.846191,4176.922852000001,4154.871582,4235.384765999999,450.0,1.0,15.0,,,,0.0,2.0,0.0,0.0,4.0,2.0,16.666666,,,,,,,,36.0,0.0,0.73151,0.160156,0.658936,0.07104500000000001,0.9487450000000001,-0.324712,-0.078126,-0.032457,-0.030217,-0.011825,,,,,,,,,,,,,,,,,,,,,,,,,,,,,,,,,,,,,,,,,,,,,,,,,,,,,,,,,,,,,,,,,
1310,1645900009.621943,1645900009.6309571,73.0,0.0,4167.179688,4538.461426,4115.384765999999,4173.333496,4174.358886999999,16068.0,1.0,15.0,,,,0.0,2.0,0.0,0.0,4.0,2.0,16.666666,,,,,,,,,,,,,,,,,,,,,,,,,,,,,,,,,,,,,,,,,,,,,,,,,,,,,,,,,,,,,,,,,,,,,,,,,,,,,,,,,,,,
1311,1645900009.629756,1645900009.638772,74.0,0.0,4162.563965,4605.128418,4053.8461909999996,4185.641113000001,4141.538574,450.0,1.0,15.0,,,,0.0,2.0,0.0,0.0,4.0,2.0,16.666666,,,,,,,,37.0,0.0,0.731486,0.160156,0.658936,0.071289,0.952651,-0.336919,-0.079591,-0.032482,-0.030125,-0.013035,,,,,,,,,,,,,,,,,,,,,,,,,,,,,,,,,,,0.0,0.0,32.0,0.321253,1.0,0.0,,,,,,,,,,,,,,,,,,,,,,,,,
1312,1645900009.637569,1645900009.6466858,75.0,0.0,4183.589844,4628.205078,4102.563965,4147.692383,4170.256348,16114.0,1.0,15.0,,,,0.0,2.0,0.0,0.0,4.0,4.0,16.666666,,,,,,,,,,,,,,,,,,,,,,,,,,,,,,,,,,,,,,,,,,,,,,,,,,,,,,,,,,,,,,,,,,,,,,,,,,,,,,,,,,,,
1313,1645900009.645382,1645900009.654501,76.0,0.0,4199.487305,4597.436035,4196.410156,4135.897461,4164.615234000001,450.0,1.0,15.0,,,,0.0,2.0,0.0,0.0,4.0,4.0,16.666666,,,,,,,,38.0,0.0,0.73151,0.160156,0.658936,0.07104500000000001,0.9306780000000001,-0.338872,-0.079591,-0.032555,-0.030139999999999997,-0.014271,,,,,,,,,,,,,,,,,,,,,,,,,,,,,,,,,,,,,,,,,,,,,,,,,,,,,,,,,,,,,,,,,
1314,1645900009.653195,1645900009.662416,77.0,0.0,4204.615234000001,4552.307617,4170.256348,4171.794922,4147.179688,450.0,1.0,15.0,,,,0.0,2.0,0.0,0.0,4.0,4.0,16.666666,,,,,,,,,,,,,,,,,,,,,,,,,,,,,,,,,,,,,,,,,,,,,,,,,,,,,,,,,,,,,,,,,,,,,,,,,,,,,,,,,,,,
1315,1645900009.6610081,1645900009.670231,78.0,0.0,4196.922852000001,4524.615234000001,4075.384521,4174.871582,4166.153809,450.0,1.0,15.0,,,,0.0,2.0,0.0,0.0,4.0,4.0,16.666666,,,,,,,,39.0,0.0,0.73151,0.160156,0.658936,0.07104500000000001,0.940932,-0.32910700000000004,-0.083497,-0.032473,-0.030154000000000004,-0.012159999999999999,,,,,,,,,,,,,,,,,,,,,,,,,,,,,,,,,,,0.0,0.0,32.0,0.321253,1.0,0.0,,,,,,,,,,,,,,,,,,,,,,,,,
1316,1645900009.668821,1645900009.678046,79.0,0.0,4160.512695,4556.410156,4107.179688,4140.0,4135.897461,16114.0,1.0,15.0,,,,0.0,2.0,0.0,0.0,4.0,4.0,16.666666,,,,,,,,,,,,,,,,,,,,,,,,,,,,,,,,,,,,,,,,,,,,,,,,,,,,,,,,,,,,,,,,,,,,,,,,,,,,,,,,,,,,
1317,1645900009.676634,1645900009.6858609,80.0,0.0,4156.410156,4586.153809,4127.179688,4155.897461,4111.282227000001,450.0,1.0,15.0,,,,0.0,2.0,0.0,0.0,4.0,4.0,16.666666,,,,,,,,40.0,0.0,0.731563,0.159912,0.658936,0.07104500000000001,0.9580219999999999,-0.338384,-0.082521,-0.032448000000000005,-0.030068,-0.013337,,,,,,,,,,,,,,,,,,,,,,,,,,,,,,,,,,,,,,,,,,,,,,,,,,,,,,,,,,,,,,,,,
1318,1645900009.684447,1645900009.693676,81.0,0.0,4165.641113000001,4555.384765999999,4164.615234000001,4191.794922,4145.641113000001,450.0,1.0,15.0,,,,0.0,2.0,0.0,0.0,4.0,4.0,16.666666,,,,,,,,,,,,,,,,,,,,,,,,,,,,,,,,,,,,,,,,,,,,,,,,,,,,,,,,,,,,,,,,,,,,,,,,,,,,,,,,,,,,
1319,1645900009.69226,1645900009.70149,82.0,0.0,4181.538574,4583.589844,4264.615234000001,4192.307617,4171.282227000001,450.0,1.0,15.0,,,,0.0,2.0,0.0,0.0,4.0,4.0,16.666666,,,,,,,,41.0,0.0,0.731563,0.159912,0.658936,0.07104500000000001,0.9550930000000001,-0.31787600000000005,-0.09131,-0.032425999999999996,-0.030284,-0.011271,,,,,,,,,,,,,,,,,,,,,,,,,,,,,,,,,,,0.0,0.0,32.0,0.321253,1.0,0.0,,,,,,,,,,,,,,,,,,,,,,,,,
1320,1645900009.700074,1645900009.709305,83.0,0.0,4192.820313,4652.307617,4327.692383,4176.922852000001,4168.205078,16114.0,1.0,15.0,,,,0.0,2.0,0.0,0.0,4.0,4.0,16.666666,,,,,,,,,,,,,,,,,,,,,,,,,,,,,,,,,,,,,,,,,,,,,,,,,,,,,,,,,,,,,,,,,,,,,,,,,,,,,,,,,,,,
1321,1645900009.707887,1645900009.71712,84.0,0.0,4197.94873,4585.641113000001,4236.410156,4174.871582,4181.025879,450.0,1.0,15.0,,,,0.0,2.0,0.0,0.0,4.0,4.0,16.666666,,,,,,,,42.0,0.0,0.731563,0.159912,0.658936,0.07104500000000001,0.952651,-0.332036,-0.085451,-0.032406,-0.030233999999999997,-0.012439,,,,,,,,,,,,,,,,,,,,,,,,,,,,,,,,,,,,,,,,,,,,,,,,,,,,,,,,,,,,,,,,,
1322,1645900009.7157,1645900009.725035,85.0,0.0,4173.333496,4463.077147999999,4261.025879,4156.922852000001,4162.563965,450.0,1.0,15.0,,,,0.0,2.0,0.0,0.0,4.0,4.0,16.666666,,,,,,,,,,,,,,,,,,,,,,,,,,,,,,,,,,,,,,,,,,,,,,,,,,,,,,,,,,,,,,,,,,,,,,,,,,,,,,,,,,,,
1323,1645900009.7235131,1645900009.73285,86.0,0.0,4144.615234000001,4431.794922,4320.0,4154.358886999999,4132.820313,450.0,1.0,15.0,,,,0.0,2.0,0.0,0.0,4.0,4.0,16.666666,1.0,16.666666,2.0,0.0,0.0,2.0,2.0,43.0,0.0,0.731593,0.159668,0.658936,0.071289,0.951675,-0.33105999999999997,-0.075685,-0.032388,-0.030287,-0.010462,1.0,0.0,0.0,,,,,,,,,,,,,,,,,,,,,,,,,,,,,,,,0.0,0.0,32.0,0.279358,1.0,0.0,64.408073,15.747470000000002,21.780191000000002,19.763128,9.408605999999999,21.069347,30.746384000000003,80.77433,36.002579,27.903698,91.257103,30.961557,68.879852,160.863022,62.017548,7.133703,16.095505,18.441051,19.029073999999998,7.678489,43.552078,14.585726000000001,6.12116,18.681841,6.020037
1324,1645900009.7313259,1645900009.740665,87.0,0.0,4132.307617,4433.846191,4234.871582,4173.333496,4142.05127,16114.0,1.0,15.0,,,,0.0,2.0,0.0,0.0,4.0,4.0,16.666666,,,,,,,,,,,,,,,,,,,,,,,,,,,,,,,,,,,,,,,,,,,,,,,,,,,,,,,,,,,,,,,,,,,,,,,,,,,,,,,,,,,,
1325,1645900009.739139,1645900009.74848,88.0,0.0,4155.384765999999,4501.538574,4250.256348,4171.282227000001,4169.230957,450.0,1.0,15.0,,,,0.0,2.0,0.0,0.0,4.0,4.0,16.666666,,,,,,,,44.0,0.0,0.731593,0.159668,0.658936,0.071289,0.945815,-0.32813000000000003,-0.083497,-0.03247,-0.030286,-0.011809,,,,,,,,,,,,,,,,,,,,,,,,,,,,,,,,,,,,,,,,,,,,,,,,,,,,,,,,,,,,,,,,,
1326,1645900009.746952,1645900009.756295,89.0,0.0,4164.615234000001,4591.794922,4376.410156,4157.94873,4194.871582,450.0,1.0,15.0,,,,0.0,2.0,0.0,0.0,4.0,4.0,16.666666,,,,,,,,,,,,,,,,,,,,,,,,,,,,,,,,,,,,,,,,,,,,,,,,,,,,,,,,,,,,,,,,,,,,,,,,,,,,,,,,,,,,
1327,1645900009.754765,1645900009.764109,90.0,0.0,4153.846191,4570.769043,4366.153809,4156.410156,4183.589844,450.0,1.0,15.0,,,,0.0,2.0,0.0,0.0,4.0,4.0,16.666666,,,,,,,,45.0,0.0,0.731593,0.159668,0.658936,0.071289,0.95314,-0.32813000000000003,-0.071778,-0.032397,-0.030333,-0.012972,,,,,,,,,,,,,,,,,,,,,,,,,,,,,,,,,,,0.0,0.0,32.0,0.279358,1.0,0.0,,,,,,,,,,,,,,,,,,,,,,,,,
1328,1645900009.762578,1645900009.771924,91.0,0.0,4181.538574,4545.641113000001,4235.384765999999,4151.282227000001,4184.102539,16114.0,1.0,15.0,,,,0.0,2.0,0.0,0.0,4.0,4.0,16.666666,,,,,,,,,,,,,,,,,,,,,,,,,,,,,,,,,,,,,,,,,,,,,,,,,,,,,,,,,,,,,,,,,,,,,,,,,,,,,,,,,,,,
1329,1645900009.770391,1645900009.7797391,92.0,0.0,4220.0,4572.307617,4244.615234000001,4128.717772999999,4227.179688,450.0,1.0,15.0,,,,0.0,2.0,0.0,0.0,4.0,4.0,16.666666,,,,,,,,46.0,0.0,0.731646,0.159424,0.658936,0.071289,0.9546040000000001,-0.330571,-0.086427,-0.032477,-0.030132,-0.014066999999999998,,,,,,,,,,,,,,,,,,,,,,,,,,,,,,,,,,,,,,,,,,,,,,,,,,,,,,,,,,,,,,,,,
1330,1645900009.778204,1645900009.7875538,93.0,0.0,4207.692383,4575.384765999999,4334.358886999999,4094.358887,4273.333496,450.0,1.0,15.0,,,,0.0,2.0,0.0,0.0,4.0,4.0,16.666666,,,,,,,,,,,,,,,,,,,,,,,,,,,,,,,,,,,,,,,,,,,,,,,,,,,,,,,,,,,,,,,,,,,,,,,,,,,,,,,,,,,,
1331,1645900009.786018,1645900009.795469,94.0,0.0,4155.384765999999,4586.153809,4316.410156,4104.102539,4233.333496,450.0,1.0,15.0,,,,0.0,2.0,0.0,0.0,4.0,4.0,16.666666,,,,,,,,47.0,0.0,0.731646,0.159424,0.658936,0.071289,0.946792,-0.313481,-0.08203300000000001,-0.032451999999999995,-0.030097000000000002,-0.011879,,,,,,,,,,,,,,,,,,,,,,,,,,,,,,,,,,,0.0,0.0,32.0,0.279358,1.0,0.0,,,,,,,,,,,,,,,,,,,,,,,,,
1332,1645900009.793831,1645900009.803284,95.0,0.0,4136.410156,4621.025879,4229.743652,4171.282227000001,4196.922852000001,16114.0,1.0,15.0,,,,0.0,2.0,0.0,0.0,4.0,4.0,16.666666,,,,,,,,,,,,,,,,,,,,,,,,,,,,,,,,,,,,,,,,,,,,,,,,,,,,,,,,,,,,,,,,,,,,,,,,,,,,,,,,,,,,
1333,1645900009.801643,1645900009.811099,96.0,0.0,4135.384765999999,4596.922852000001,4191.794922,4213.333496,4192.307617,450.0,1.0,15.0,,,,0.0,2.0,0.0,0.0,4.0,4.0,16.666666,,,,,,,,48.0,0.0,0.731646,0.159424,0.658936,0.071289,0.945815,-0.335454,-0.072755,-0.03243,-0.030017000000000002,-0.012986000000000001,,,,,,,,,,,,,,,,,,,,,,,,,,,,,,,,,,,,,,,,,,,,,,,,,,,,,,,,,,,,,,,,,
1334,1645900009.809457,1645900009.8189142,97.0,0.0,4135.384765999999,4540.0,4120.0,4200.0,4206.666504,450.0,1.0,15.0,,,,0.0,2.0,0.0,0.0,4.0,4.0,16.666666,,,,,,,,,,,,,,,,,,,,,,,,,,,,,,,,,,,,,,,,,,,,,,,,,,,,,,,,,,,,,,,,,,,,,,,,,,,,,,,,,,,,
1335,1645900009.81727,1645900009.8267279,98.0,0.0,4143.077147999999,4533.333496,4014.8718259999996,4191.794922,4209.743652,450.0,1.0,15.0,,,,0.0,2.0,0.0,0.0,4.0,4.0,16.666666,,,,,,,,49.0,0.0,0.731646,0.159424,0.658936,0.071289,0.9340959999999999,-0.316411,-0.08203300000000001,-0.03241,-0.029945,-0.014031,,,,,,,,,,,,,,,,,,,,,,,,,,,,,,,,,,,0.0,0.0,32.0,0.279358,1.0,0.0,,,,,,,,,,,,,,,,,,,,,,,,,
1336,1645900009.825083,1645900009.834543,99.0,0.0,4186.153809,4558.974121,3981.025635,4225.128418,4181.025879,16114.0,1.0,15.0,,,,0.0,2.0,0.0,0.0,4.0,4.0,16.666666,,,,,,,,,,,,,,,,,,,,,,,,,,,,,,,,,,,,,,,,,,,,,,,,,,,,,,,,,,,,,,,,,,,,,,,,,,,,,,,,,,,,
1337,1645900009.832896,1645900009.842358,100.0,0.0,4222.563965,4521.025879,4071.281982,4233.333496,4135.384765999999,450.0,1.0,15.0,,,,0.0,2.0,0.0,0.0,4.0,4.0,16.666666,,,,,,,,50.0,0.0,0.731402,0.159424,0.65918,0.071533,0.95021,-0.321782,-0.079591,-0.032391,-0.030076,-0.015069999999999998,,,,,,,,,,,,,,,,,,,,,,,,,,,,,,,,,,,,,,,,,,,,,,,,,,,,,,,,,,,,,,,,,
1338,1645900009.840709,1645900009.850173,101.0,0.0,4228.717772999999,4515.897461,4133.846191,4193.846191,4146.153809,450.0,1.0,15.0,,,,0.0,2.0,0.0,0.0,4.0,4.0,16.666666,,,,,,,,,,,,,,,,,,,,,,,,,,,,,,,,,,,,,,,,,,,,,,,,,,,,,,,,,,,,,,,,,,,,,,,,,,,,,,,,,,,,
1339,1645900009.8485222,1645900009.857988,102.0,0.0,4224.615234000001,4593.846191,4173.846191,4178.974121,4183.077147999999,450.0,1.0,15.0,,,,0.0,2.0,0.0,0.0,4.0,4.0,16.666666,,,,,,,,51.0,0.0,0.731402,0.159424,0.65918,0.071533,0.960952,-0.32861799999999997,-0.082521,-0.032424,-0.030095999999999998,-0.015906,1.0,0.0,0.0,,,,,,,,,,,,,,,,,,,,,,,,,,,,,,,,0.0,0.0,32.0,0.099178,1.0,0.0,93.496887,13.650455,27.135834000000003,19.577957,9.051774,27.482864000000003,24.158144,90.806557,32.601406,30.084566,91.161064,24.544067000000002,60.578888,152.583267,56.629974,7.826675999999999,13.63325,16.527084,18.659245000000002,7.408753999999999,58.664425,14.371711999999999,6.701560000000001,16.555723,5.812015
1340,1645900009.856335,1645900009.865803,103.0,0.0,4228.717772999999,4559.487305,4265.641113000001,4222.563965,4204.102539,16114.0,1.0,15.0,,,,0.0,2.0,0.0,0.0,4.0,4.0,16.666666,,,,,,,,,,,,,,,,,,,,,,,,,,,,,,,,,,,,,,,,,,,,,,,,,,,,,,,,,,,,,,,,,,,,,,,,,,,,,,,,,,,,
1341,1645900009.8641481,1645900009.873718,104.0,0.0,4224.102539,4466.153809,4287.692383,4211.794922,4207.179688,450.0,1.0,15.0,,,,0.0,2.0,0.0,0.0,4.0,4.0,16.666666,,,,,,,,52.0,0.0,0.731402,0.159424,0.65918,0.071533,0.962417,-0.321294,-0.087404,-0.032501999999999996,-0.030162,-0.013486000000000001,,,,,,,,,,,,,,,,,,,,,,,,,,,,,,,,,,,,,,,,,,,,,,,,,,,,,,,,,,,,,,,,,
1342,1645900009.8719609,1645900009.881532,105.0,0.0,4205.641113000001,4529.230957,4213.333496,4147.692383,4208.205078,450.0,1.0,15.0,,,,0.0,2.0,0.0,0.0,4.0,4.0,16.666666,,,,,,,,,,,,,,,,,,,,,,,,,,,,,,,,,,,,,,,,,,,,,,,,,,,,,,,,,,,,,,,,,,,,,,,,,,,,,,,,,,,,
1343,1645900009.879774,1645900009.889347,106.0,0.0,4209.743652,4596.922852000001,4176.410156,4169.230957,4207.179688,450.0,1.0,15.0,,,,0.0,2.0,0.0,0.0,4.0,4.0,16.666666,,,,,,,,53.0,0.0,0.731378,0.159424,0.65918,0.071777,0.9546040000000001,-0.32910700000000004,-0.072755,-0.032572000000000004,-0.030125,-0.014530000000000001,,,,,,,,,,,,,,,,,,,,,,,,,,,,,,,,,,,0.0,0.0,32.0,0.099178,1.0,0.0,,,,,,,,,,,,,,,,,,,,,,,,,
1344,1645900009.8875868,1645900009.897162,107.0,0.0,4226.153809,4525.128418,4179.487305,4226.153809,4190.256348,16114.0,1.0,15.0,,,,0.0,2.0,0.0,0.0,4.0,4.0,16.666666,,,,,,,,,,,,,,,,,,,,,,,,,,,,,,,,,,,,,,,,,,,,,,,,,,,,,,,,,,,,,,,,,,,,,,,,,,,,,,,,,,,,
1345,1645900009.895401,1645900009.9049768,108.0,0.0,4231.794922,4501.025879,4071.794922,4216.410156,4173.333496,450.0,1.0,15.0,,,,0.0,2.0,0.0,0.0,4.0,4.0,16.666666,,,,,,,,54.0,0.0,0.731325,0.159668,0.65918,0.071777,0.938491,-0.344244,-0.077638,-0.032635000000000004,-0.030042000000000003,-0.012296,,,,,,,,,,,,,,,,,,,,,,,,,,,,,,,,,,,,,,,,,,,,,,,,,,,,,,,,,,,,,,,,,
1346,1645900009.903214,1645900009.912792,109.0,0.0,4228.205078,4551.282227000001,4034.358887,4195.897461,4167.179688,450.0,1.0,15.0,,,,0.0,2.0,0.0,0.0,4.0,4.0,16.666666,,,,,,,,,,,,,,,,,,,,,,,,,,,,,,,,,,,,,,,,,,,,,,,,,,,,,,,,,,,,,,,,,,,,,,,,,,,,,,,,,,,,
1347,1645900009.911027,1645900009.920607,110.0,0.0,4232.820313,4561.538574,4089.2307130000004,4231.794922,4168.205078,450.0,1.0,15.0,,,,0.0,2.0,0.0,0.0,4.0,4.0,16.666666,,,,,,,,55.0,0.0,0.731301,0.159668,0.65918,0.072021,0.926284,-0.352056,-0.081544,-0.032692,-0.030163,-0.013361000000000001,,,,,,,,,,,,,,,,,,,,,,,,,,,,,,,,,,,0.0,0.0,32.0,0.099178,1.0,0.0,,,,,,,,,,,,,,,,,,,,,,,,,
1348,1645900009.91884,1645900009.928422,111.0,0.0,4248.205078,4571.794922,4168.205078,4257.94873,4160.0,16114.0,1.0,15.0,,,,0.0,2.0,0.0,0.0,4.0,4.0,16.666666,,,,,,,,,,,,,,,,,,,,,,,,,,,,,,,,,,,,,,,,,,,,,,,,,,,,,,,,,,,,,,,,,,,,,,,,,,,,,,,,,,,,
1349,1645900009.926653,1645900009.9362369,112.0,0.0,4286.666504,4572.307617,4220.0,4250.769043,4170.256348,450.0,1.0,15.0,,,,0.0,2.0,0.0,0.0,4.0,4.0,16.666666,,,,,,,,56.0,0.0,0.731301,0.159668,0.65918,0.072021,0.945327,-0.323735,-0.077638,-0.032743,-0.030125,-0.014417,,,,,,,,,,,,,,,,,,,,,,,,,,,,,,,,,,,,,,,,,,,,,,,,,,,,,,,,,,,,,,,,,
1350,1645900009.9344661,1645900009.944151,113.0,0.0,4295.897461,4524.102539,4255.384765999999,4213.846191,4185.641113000001,450.0,1.0,15.0,,,,0.0,2.0,0.0,0.0,4.0,4.0,16.666666,,,,,,,,,,,,,,,,,,,,,,,,,,,,,,,,,,,,,,,,,,,,,,,,,,,,,,,,,,,,,,,,,,,,,,,,,,,,,,,,,,,,
1351,1645900009.9422789,1645900009.951966,114.0,0.0,4306.153809,4524.102539,4263.077147999999,4172.820313,4214.871582,450.0,1.0,15.0,,,,0.0,2.0,0.0,0.0,4.0,4.0,16.666666,,,,,,,,57.0,0.0,0.731301,0.159668,0.65918,0.072021,0.944839,-0.339361,-0.07470800000000001,-0.032692,-0.030091000000000003,-0.012243,,,,,,,,,,,,,,,,,,,,,,,,,,,,,,,,,,,0.0,0.0,32.0,0.099178,1.0,0.0,,,,,,,,,,,,,,,,,,,,,,,,,
1352,1645900009.950092,1645900009.9597812,115.0,0.0,4326.153809,4595.384765999999,4247.692383,4149.743652,4222.563965,16114.0,1.0,15.0,,,,0.0,2.0,0.0,0.0,4.0,4.0,16.666666,,,,,,,,,,,,,,,,,,,,,,,,,,,,,,,,,,,,,,,,,,,,,,,,,,,,,,,,,,,,,,,,,,,,,,,,,,,,,,,,,,,,
1353,1645900009.957905,1645900009.967596,116.0,0.0,4302.563965,4631.282227000001,4163.589844,4162.563965,4216.410156,450.0,1.0,15.0,,,,0.0,2.0,0.0,0.0,4.0,4.0,16.666666,,,,,,,,58.0,0.0,0.731325,0.159668,0.65918,0.071777,0.9472799999999999,-0.332525,-0.086427,-0.032743,-0.030061,-0.013265,,,,,,,,,,,,,,,,,,,,,,,,,,,,,,,,,,,,,,,,,,,,,,,,,,,,,,,,,,,,,,,,,
1354,1645900009.965718,1645900009.975411,117.0,0.0,4276.410156,4631.794922,4085.1281740000004,4135.897461,4224.102539,450.0,1.0,15.0,,,,0.0,2.0,0.0,0.0,4.0,4.0,16.666666,,,,,,,,,,,,,,,,,,,,,,,,,,,,,,,,,,,,,,,,,,,,,,,,,,,,,,,,,,,,,,,,,,,,,,,,,,,,,,,,,,,,
1355,1645900009.973531,1645900009.983226,118.0,0.0,4289.743652,4637.436035,4048.205078,4118.974121,4215.384765999999,450.0,1.0,15.0,,,,0.0,2.0,0.0,0.0,4.0,4.0,16.666666,,,,,,,,59.0,0.0,0.731272,0.159912,0.65918,0.071777,0.9521629999999999,-0.325689,-0.079591,-0.03274,-0.029983999999999997,-0.01438,1.0,0.0,0.0,,,,,,,,,,,,,,,,,,,,,,,,,,,,,,,,0.0,0.0,32.0,0.040579000000000004,1.0,0.0,116.333931,12.800811999999999,30.586747999999996,19.565924,8.607733,35.126499,18.443476,97.13460500000001,28.491476000000002,31.594960999999998,87.31012,20.65905,51.454556,135.400833,49.72797,9.399337,11.536778,13.700925,18.331485999999998,6.823494,72.218575,14.389641000000001,7.789733,14.275868,5.32961
1356,1645900009.981344,1645900009.991041,119.0,0.0,4253.846191,4654.871582,4103.077147999999,4162.05127,4198.974121,16114.0,1.0,15.0,,,,0.0,2.0,0.0,0.0,4.0,4.0,16.666666,,,,,,,,,,,,,,,,,,,,,,,,,,,,,,,,,,,,,,,,,,,,,,,,,,,,,,,,,,,,,,,,,,,,,,,,,,,,,,,,,,,,
1357,1645900009.989158,1645900009.998856,120.0,0.0,4213.846191,4696.410156,4178.461426,4187.692383,4188.717772999999,450.0,1.0,15.0,,,,0.0,2.0,0.0,0.0,4.0,4.0,16.666666,,,,,,,,60.0,0.0,0.731301,0.159668,0.65918,0.072021,0.944839,-0.339361,-0.07470800000000001,-0.032786,-0.029916,-0.015286000000000001,,,,,,,,,,,,,,,,,,,,,,,,,,,,,,,,,,,,,,,,,,,,,,,,,,,,,,,,,,,,,,,,,
1358,1645900009.9969711,1645900010.0066712,121.0,0.0,4238.974121,4649.230957,4164.615234000001,4189.230957,4185.641113000001,450.0,1.0,15.0,,,,0.0,2.0,0.0,0.0,4.0,4.0,16.666666,,,,,,,,,,,,,,,,,,,,,,,,,,,,,,,,,,,,,,,,,,,,,,,,,,,,,,,,,,,,,,,,,,,,,,,,,,,,,,,,,,,,
1359,1645900010.0047839,1645900010.014585,122.0,0.0,4258.461426,4523.589844,4246.666504,4177.94873,4219.487305,450.0,1.0,15.0,,,,0.0,2.0,0.0,0.0,4.0,4.0,16.666666,,,,,,,,61.0,0.0,0.731272,0.159912,0.65918,0.071777,0.9521629999999999,-0.325689,-0.079591,-0.032779,-0.029854000000000002,-0.016199,,,,,,,,,,,,,,,,,,,,,,,,,,,,,,,,,,,0.0,0.0,32.0,0.040579000000000004,1.0,0.0,,,,,,,,,,,,,,,,,,,,,,,,,
1360,1645900010.012597,1645900010.0224,123.0,0.0,4238.974121,4565.641113000001,4364.102539,4140.0,4267.692383,16114.0,1.0,15.0,,,,0.0,2.0,0.0,0.0,4.0,4.0,16.666666,,,,,,,,,,,,,,,,,,,,,,,,,,,,,,,,,,,,,,,,,,,,,,,,,,,,,,,,,,,,,,,,,,,,,,,,,,,,,,,,,,,,
1361,1645900010.02041,1645900010.030215,124.0,0.0,4211.282227000001,4647.179688,4265.641113000001,4148.717772999999,4232.820313,450.0,1.0,15.0,,,,0.0,2.0,0.0,0.0,4.0,4.0,16.666666,,,,,,,,62.0,0.0,0.731468,0.159912,0.658936,0.072021,0.9438620000000001,-0.331548,-0.078126,-0.032822000000000004,-0.029896,-0.013944,,,,,,,,,,,,,,,,,,,,,,,,,,,,,,,,,,,,,,,,,,,,,,,,,,,,,,,,,,,,,,,,,
1362,1645900010.028223,1645900010.0380301,125.0,0.0,4223.077147999999,4534.871582,4121.025879,4208.205078,4221.538574,450.0,1.0,15.0,,,,0.0,2.0,0.0,0.0,4.0,4.0,16.666666,,,,,,,,,,,,,,,,,,,,,,,,,,,,,,,,,,,,,,,,,,,,,,,,,,,,,,,,,,,,,,,,,,,,,,,,,,,,,,,,,,,,
1363,1645900010.036036,1645900010.045845,126.0,0.0,4244.102539,4444.102539,4180.512695,4214.871582,4267.179688,450.0,1.0,15.0,,,,0.0,2.0,0.0,0.0,4.0,4.0,16.666666,,,,,,,,63.0,0.0,0.731468,0.159912,0.658936,0.072021,0.947768,-0.327153,-0.083009,-0.032762,-0.029981999999999998,-0.014844999999999999,,,,,,,,,,,,,,,,,,,,,,,,,,,,,,,,,,,0.0,0.0,32.0,0.040579000000000004,1.0,0.0,,,,,,,,,,,,,,,,,,,,,,,,,
1364,1645900010.043849,1645900010.05366,127.0,0.0,4265.641113000001,4529.230957,4124.615234000001,4205.128418,4225.641113000001,233.0,1.0,15.0,,,,0.0,2.0,0.0,0.0,4.0,4.0,16.666666,,,,,,,,,,,,,,,,,,,,,,,,,,,,,,,,,,,,,,,,,,,,,,,,,,,,,,,,,,,,,,,,,,,,,,,,,,,,,,,,,,,,
1365,1645900010.051662,1645900010.061475,0.0,0.0,4289.743652,4598.974121,4077.9487299999996,4192.307617,4151.282227000001,450.0,1.0,15.0,,,,0.0,2.0,0.0,0.0,4.0,4.0,16.666666,,,,,,,,0.0,0.0,0.731468,0.159912,0.658936,0.072021,0.9511860000000001,-0.321782,-0.084962,-0.032757999999999995,-0.030012,-0.012725,,,,,,,,,,,,,,,,,,,,,,,,,,,,,,,,,,,,,,,,,,,,,,,,,,,,,,,,,,,,,,,,,
1366,1645900010.059475,1645900010.069289,1.0,0.0,4340.0,4598.974121,4226.153809,4150.256348,4211.282227000001,450.0,1.0,15.0,,,,0.0,2.0,0.0,0.0,4.0,4.0,16.666666,,,,,,,,,,,,,,,,,,,,,,,,,,,,,,,,,,,,,,,,,,,,,,,,,,,,,,,,,,,,,,,,,,,,,,,,,,,,,,,,,,,,
1367,1645900010.0672882,1645900010.0771039,2.0,0.0,4355.897461,4643.077147999999,4261.025879,4126.153809,4274.871582,271.0,1.0,15.0,,,,0.0,2.0,0.0,0.0,4.0,4.0,16.666666,,,,,,,,1.0,0.0,0.731468,0.159912,0.658936,0.072021,0.9506979999999999,-0.319829,-0.080568,-0.032802,-0.029989,-0.013797,,,,,,,,,,,,,,,,,,,,,,,,,,,,,,,,,,,0.0,0.0,32.0,0.040579000000000004,1.0,0.0,,,,,,,,,,,,,,,,,,,,,,,,,
1368,1645900010.0751019,1645900010.084919,3.0,0.0,4293.333496,4695.897461,4064.102539,4152.307617,4247.179688,450.0,1.0,15.0,,,,0.0,2.0,0.0,0.0,4.0,4.0,16.666666,,,,,,,,,,,,,,,,,,,,,,,,,,,,,,,,,,,,,,,,,,,,,,,,,,,,,,,,,,,,,,,,,,,,,,,,,,,,,,,,,,,,
1369,1645900010.082914,1645900010.092834,4.0,0.0,4222.563965,4686.666504,4006.1538090000004,4142.05127,4209.743652,95.0,1.0,15.0,,,,0.0,2.0,1.0,0.0,2.0,4.0,25.0,,,,,,,,2.0,0.0,0.73139,0.160156,0.658936,0.072266,0.9438620000000001,-0.330571,-0.093263,-0.032695999999999996,-0.029870999999999998,-0.01481,,,,,,,,,,,,,,,,,,,,,,,,,,,,,,,,,,,,,,,,,,,,,,,,,,,,,,,,,,,,,,,,,
1370,1645900010.090728,1645900010.100649,5.0,0.0,4222.05127,4609.743652,4121.538574,4151.282227000001,4198.461426,450.0,1.0,15.0,,,,0.0,2.0,1.0,0.0,2.0,4.0,25.0,,,,,,,,,,,,,,,,,,,,,,,,,,,,,,,,,,,,,,,,,,,,,,,,,,,,,,,,,,,,,,,,,,,,,,,,,,,,,,,,,,,,
1371,1645900010.098541,1645900010.108464,6.0,0.0,4263.077147999999,4545.641113000001,4170.769043,4189.743652,4193.846191,0.0,1.0,15.0,,,,0.0,2.0,1.0,0.0,2.0,4.0,25.0,,,,,,,,3.0,0.0,0.73139,0.160156,0.658936,0.072266,0.949722,-0.31543499999999997,-0.079591,-0.032698000000000005,-0.029814,-0.012596,1.0,0.0,0.0,,,,,,,,,,,,,,,,,,,,,,,,,,,,,,,,0.0,0.0,32.0,0.036512,1.0,0.0,126.021988,13.089439,30.899221,19.280081,8.139103,42.102654,14.188804000000001,94.997879,24.190233,31.873571000000002,84.63105,20.701752,44.698452,112.016853,42.985316999999995,11.844102000000001,10.183077,10.551147,17.796201999999997,6.059945,80.565926,14.977820000000001,9.269915,12.258333,4.668476999999999
1372,1645900010.106354,1645900010.116279,7.0,0.0,4273.846191,4567.692383,4210.256348,4173.333496,4208.717772999999,450.0,1.0,15.0,,,,0.0,2.0,1.0,0.0,2.0,4.0,25.0,,,,,,,,,,,,,,,,,,,,,,,,,,,,,,,,,,,,,,,,,,,,,,,,,,,,,,,,,,,,,,,,,,,,,,,,,,,,,,,,,,,,
1373,1645900010.114167,1645900010.124094,8.0,0.0,4252.820313,4582.563965,4297.436035,4141.025879,4206.153809,450.0,1.0,15.0,,,,0.0,2.0,1.0,0.0,2.0,4.0,25.0,,,,,,,,4.0,0.0,0.731337,0.1604,0.658936,0.072266,0.956558,-0.332036,-0.087892,-0.032602,-0.029957,-0.013729,,,,,,,,,,,,,,,,,,,,,,,,,,,,,,,,,,,,,,,,,,,,,,,,,,,,,,,,,,,,,,,,,
1374,1645900010.1219802,1645900010.131908,9.0,0.0,4253.846191,4547.179688,4317.94873,4146.153809,4196.922852000001,236.0,1.0,15.0,,,,0.0,2.0,1.0,0.0,2.0,4.0,25.0,,,,,,,,,,,,,,,,,,,,,,,,,,,,,,,,,,,,,,,,,,,,,,,,,,,,,,,,,,,,,,,,,,,,,,,,,,,,,,,,,,,,
1375,1645900010.129793,1645900010.139723,10.0,0.0,4266.153809,4548.717772999999,4258.974121,4172.820313,4214.871582,450.0,1.0,15.0,,,,0.0,2.0,1.0,0.0,2.0,4.0,25.0,,,,,,,,5.0,0.0,0.731337,0.1604,0.658936,0.072266,0.949233,-0.34473200000000004,-0.075196,-0.032662000000000004,-0.029939999999999998,-0.011623999999999999,,,,,,,,,,,,,,,,,,,,,,,,,,,,,,,,,,,0.0,0.0,32.0,0.036512,1.0,0.0,,,,,,,,,,,,,,,,,,,,,,,,,
1376,1645900010.1376061,1645900010.1475382,11.0,0.0,4254.358886999999,4585.128418,4184.615234000001,4184.615234000001,4217.94873,16186.0,1.0,15.0,,,,0.0,2.0,1.0,0.0,2.0,4.0,25.0,,,,,,,,,,,,,,,,,,,,,,,,,,,,,,,,,,,,,,,,,,,,,,,,,,,,,,,,,,,,,,,,,,,,,,,,,,,,,,,,,,,,
1377,1645900010.145419,1645900010.155453,12.0,0.0,4239.487305,4548.205078,4073.3332520000004,4180.0,4198.461426,450.0,1.0,15.0,,,,0.0,2.0,1.0,0.0,2.0,4.0,25.0,,,,,,,,6.0,0.0,0.731117,0.1604,0.65918,0.072266,0.9350729999999999,-0.32813000000000003,-0.07470800000000001,-0.029445,-0.029876,-0.012756,,,,,,,,,,,,,,,,,,,,,,,,,,,,,,,,,,,,,,,,,,,,,,,,,,,,,,,,,,,,,,,,,
1378,1645900010.153232,1645900010.1632679,13.0,0.0,4245.641113000001,4559.487305,4048.718018,4155.897461,4163.589844,450.0,1.0,15.0,,,,0.0,2.0,1.0,0.0,2.0,4.0,25.0,,,,,,,,,,,,,,,,,,,,,,,,,,,,,,,,,,,,,,,,,,,,,,,,,,,,,,,,,,,,,,,,,,,,,,,,,,,,,,,,,,,,
1379,1645900010.1610448,1645900010.171083,14.0,0.0,4276.410156,4633.846191,4069.743652,4183.077147999999,4139.487305,450.0,1.0,15.0,,,,0.0,2.0,1.0,0.0,2.0,4.0,25.0,,,,,,,,7.0,0.0,0.731117,0.1604,0.65918,0.072266,0.940932,-0.32813000000000003,-0.077638,-0.029625,-0.029916,-0.010699,,,,,,,,,,,,,,,,,,,,,,,,,,,,,,,,,,,0.0,0.0,32.0,0.036512,1.0,0.0,,,,,,,,,,,,,,,,,,,,,,,,,
1380,1645900010.168858,1645900010.178998,15.0,0.0,4296.410156,4590.256348,4159.487305,4219.487305,4147.692383,16186.0,1.0,15.0,,,,0.0,2.0,1.0,0.0,2.0,4.0,25.0,,,,,,,,,,,,,,,,,,,,,,,,,,,,,,,,,,,,,,,,,,,,,,,,,,,,,,,,,,,,,,,,,,,,,,,,,,,,,,,,,,,,
1381,1645900010.176671,1645900010.186812,16.0,0.0,4310.256348,4575.384765999999,4225.641113000001,4164.102539,4203.077147999999,0.0,1.0,15.0,,,,0.0,2.0,1.0,0.0,2.0,4.0,25.0,,,,,,,,8.0,0.0,0.73117,0.160156,0.65918,0.072266,0.9506979999999999,-0.32813000000000003,-0.082521,-0.029934,-0.03,-0.008945999999999999,,,,,,,,,,,,,,,,,,,,,,,,,,,,,,,,,,,,,,,,,,,,,,,,,,,,,,,,,,,,,,,,,
1382,1645900010.184485,1645900010.194627,17.0,0.0,4290.769043,4668.717772999999,4212.820313,4129.230957,4222.05127,0.0,1.0,15.0,,,,0.0,2.0,1.0,0.0,2.0,4.0,25.0,,,,,,,,,,,,,,,,,,,,,,,,,,,,,,,,,,,,,,,,,,,,,,,,,,,,,,,,,,,,,,,,,,,,,,,,,,,,,,,,,,,,
1383,1645900010.192298,1645900010.202442,18.0,0.0,4281.538574,4661.025879,4196.922852000001,4170.256348,4230.256348,0.0,1.0,15.0,,,,0.0,2.0,1.0,0.0,2.0,4.0,25.0,,,,,,,,9.0,0.0,0.73117,0.160156,0.65918,0.072266,0.952651,-0.330571,-0.073732,-0.030164,-0.030076,-0.010542000000000001,,,,,,,,,,,,,,,,,,,,,,,,,,,,,,,,,,,0.0,0.0,32.0,0.036512,1.0,0.0,,,,,,,,,,,,,,,,,,,,,,,,,
1384,1645900010.200111,1645900010.210257,19.0,0.0,4278.974121,4630.256348,4238.974121,4150.256348,4270.769043,0.0,1.0,15.0,,,,0.0,2.0,1.0,0.0,2.0,4.0,25.0,,,,,,,,,,,,,,,,,,,,,,,,,,,,,,,,,,,,,,,,,,,,,,,,,,,,,,,,,,,,,,,,,,,,,,,,,,,,,,,,,,,,
1385,1645900010.2079241,1645900010.2180722,20.0,0.0,4266.153809,4682.05127,4130.769043,4150.256348,4278.461426,0.0,1.0,15.0,,,,0.0,2.0,1.0,0.0,2.0,4.0,25.0,,,,,,,,10.0,0.0,0.73117,0.160156,0.65918,0.072266,0.9589989999999999,-0.336431,-0.08203300000000001,-0.030468000000000002,-0.030047000000000004,-0.01188,,,,,,,,,,,,,,,,,,,,,,,,,,,,,,,,,,,,,,,,,,,,,,,,,,,,,,,,,,,,,,,,,
1386,1645900010.2157369,1645900010.2258868,21.0,0.0,4251.282227000001,4570.769043,4055.384521,4231.794922,4223.077147999999,0.0,1.0,15.0,,,,0.0,2.0,1.0,0.0,2.0,4.0,25.0,,,,,,,,,,,,,,,,,,,,,,,,,,,,,,,,,,,,,,,,,,,,,,,,,,,,,,,,,,,,,,,,,,,,,,,,,,,,,,,,,,,,
1387,1645900010.22355,1645900010.233702,22.0,0.0,4267.179688,4460.0,4249.743652,4231.794922,4212.307617,0.0,1.0,15.0,,,,0.0,2.0,1.0,0.0,2.0,4.0,25.0,1.0,16.666666,2.0,0.0,0.0,2.0,2.0,11.0,0.0,0.73117,0.160156,0.65918,0.072266,0.956558,-0.325689,-0.07128999999999999,-0.030789999999999998,-0.03007,-0.00996,1.0,0.0,0.0,,,,,,,,,,,,,,,,,,,,,,,,,,,,,,,,0.0,0.0,32.0,0.034813,1.0,0.0,118.15293100000001,13.886695000000001,28.003281,18.277155,7.590895,47.170025,11.71315,83.849503,20.560389,30.641523,87.51619699999999,26.372809999999998,45.332676,86.99942800000001,37.466266999999995,14.848931,9.855129,7.693855,16.725986,5.31354,81.160606,16.350683,11.038264,10.761221,3.974928
1388,1645900010.231363,1645900010.241617,23.0,0.0,4304.102539,4644.615234000001,4347.692383,4134.871582,4236.410156,0.0,1.0,15.0,,,,0.0,2.0,1.0,0.0,2.0,4.0,25.0,,,,,,,,,,,,,,,,,,,,,,,,,,,,,,,,,,,,,,,,,,,,,,,,,,,,,,,,,,,,,,,,,,,,,,,,,,,,,,,,,,,,
1389,1645900010.239176,1645900010.2494311,24.0,0.0,4296.410156,4775.897461,4161.538574,4138.461426,4202.563965,0.0,1.0,15.0,,,,0.0,2.0,1.0,0.0,2.0,4.0,25.0,,,,,,,,12.0,0.0,0.73117,0.160156,0.65918,0.072266,0.951675,-0.330083,-0.08691499999999999,-0.031031,-0.030188,-0.011356,,,,,,,,,,,,,,,,,,,,,,,,,,,,,,,,,,,,,,,,,,,,,,,,,,,,,,,,,,,,,,,,,
1390,1645900010.246989,1645900010.257246,25.0,0.0,4263.589844,4669.230957,4010.7692869999996,4186.153809,4185.128418,0.0,1.0,15.0,,,,0.0,2.0,1.0,0.0,2.0,4.0,25.0,,,,,,,,,,,,,,,,,,,,,,,,,,,,,,,,,,,,,,,,,,,,,,,,,,,,,,,,,,,,,,,,,,,,,,,,,,,,,,,,,,,,
1391,1645900010.254802,1645900010.265061,26.0,0.0,4287.692383,4613.846191,4023.076904,4137.94873,4214.358886999999,0.0,1.0,15.0,,,,0.0,2.0,1.0,0.0,2.0,4.0,25.0,,,,,,,,13.0,0.0,0.73095,0.160156,0.659424,0.072266,0.9399559999999999,-0.33789600000000003,-0.077638,-0.0312,-0.030099,-0.009488,,,,,,,,,,,,,,,,,,,,,,,,,,,,,,,,,,,0.0,0.0,32.0,0.034813,1.0,0.0,,,,,,,,,,,,,,,,,,,,,,,,,
1392,1645900010.262615,1645900010.272876,27.0,0.0,4320.0,4618.974121,4036.4101560000004,4085.641113,4200.0,0.0,1.0,15.0,,,,0.0,2.0,1.0,0.0,2.0,4.0,25.0,,,,,,,,,,,,,,,,,,,,,,,,,,,,,,,,,,,,,,,,,,,,,,,,,,,,,,,,,,,,,,,,,,,,,,,,,,,,,,,,,,,,
1393,1645900010.270429,1645900010.280691,28.0,0.0,4297.94873,4578.974121,4145.641113000001,4079.487061,4190.769043,0.0,1.0,15.0,,,,0.0,2.0,1.0,0.0,2.0,4.0,25.0,,,,,,,,14.0,0.0,0.73095,0.160156,0.659424,0.072266,0.939467,-0.34473200000000004,-0.085451,-0.031351,-0.030019,-0.010883,,,,,,,,,,,,,,,,,,,,,,,,,,,,,,,,,,,,,,,,,,,,,,,,,,,,,,,,,,,,,,,,,
1394,1645900010.278242,1645900010.288506,29.0,0.0,4290.769043,4596.922852000001,4288.717772999999,4103.077147999999,4249.743652,0.0,1.0,15.0,,,,0.0,2.0,1.0,0.0,2.0,4.0,25.0,,,,,,,,,,,,,,,,,,,,,,,,,,,,,,,,,,,,,,,,,,,,,,,,,,,,,,,,,,,,,,,,,,,,,,,,,,,,,,,,,,,,
1395,1645900010.286054,1645900010.2963212,30.0,0.0,4285.641113000001,4639.487305,4281.538574,4143.589844,4263.077147999999,0.0,1.0,15.0,,,,0.0,2.0,1.0,0.0,2.0,4.0,25.0,,,,,,,,15.0,0.0,0.73095,0.160156,0.659424,0.072266,0.9389790000000001,-0.340337,-0.087404,-0.031389999999999994,-0.030093,-0.012187,,,,,,,,,,,,,,,,,,,,,,,,,,,,,,,,,,,0.0,0.0,32.0,0.034813,1.0,0.0,,,,,,,,,,,,,,,,,,,,,,,,,
1396,1645900010.293868,1645900010.304136,31.0,0.0,4234.358886999999,4578.974121,4144.102539,4177.94873,4224.102539,0.0,1.0,15.0,,,,0.0,2.0,1.0,0.0,2.0,4.0,25.0,,,,,,,,,,,,,,,,,,,,,,,,,,,,,,,,,,,,,,,,,,,,,,,,,,,,,,,,,,,,,,,,,,,,,,,,,,,,,,,,,,,,
1397,1645900010.301681,1645900010.31195,32.0,0.0,4186.666504,4511.282227000001,4098.974121,4178.461426,4201.538574,0.0,1.0,15.0,,,,0.0,2.0,1.0,0.0,2.0,4.0,25.0,,,,,,,,16.0,0.0,0.730979,0.159912,0.659424,0.07251,0.944839,-0.32959499999999997,-0.06884900000000001,-0.031474,-0.030208999999999996,-0.010139,,,,,,,,,,,,,,,,,,,,,,,,,,,,,,,,,,,,,,,,,,,,,,,,,,,,,,,,,,,,,,,,,
1398,1645900010.309494,1645900010.319865,33.0,0.0,4221.538574,4510.256348,4078.461426,4205.641113000001,4199.487305,0.0,1.0,15.0,,,,0.0,2.0,1.0,0.0,2.0,4.0,25.0,,,,,,,,,,,,,,,,,,,,,,,,,,,,,,,,,,,,,,,,,,,,,,,,,,,,,,,,,,,,,,,,,,,,,,,,,,,,,,,,,,,,
1399,1645900010.317307,1645900010.32768,34.0,0.0,4279.487305,4511.282227000001,4143.077147999999,4213.333496,4174.871582,0.0,1.0,15.0,,,,0.0,2.0,1.0,0.0,2.0,4.0,25.0,,,,,,,,17.0,0.0,0.730979,0.159912,0.659424,0.07251,0.9555809999999999,-0.331548,-0.066896,-0.031647,-0.030264,-0.008392,,,,,,,,,,,,,,,,,,,,,,,,,,,,,,,,,,,0.0,0.0,32.0,0.034813,1.0,0.0,,,,,,,,,,,,,,,,,,,,,,,,,
1400,1645900010.32512,1645900010.335495,35.0,0.0,4318.461426,4580.0,4278.461426,4136.410156,4197.94873,0.0,1.0,15.0,,,,0.0,2.0,1.0,0.0,2.0,4.0,25.0,,,,,,,,,,,,,,,,,,,,,,,,,,,,,,,,,,,,,,,,,,,,,,,,,,,,,,,,,,,,,,,,,,,,,,,,,,,,,,,,,,,,
1401,1645900010.332933,1645900010.3433099,36.0,0.0,4308.205078,4675.897461,4261.025879,4095.384521,4246.153809,0.0,1.0,15.0,,,,0.0,2.0,1.0,0.0,2.0,4.0,25.0,,,,,,,,18.0,0.0,0.730979,0.159912,0.659424,0.07251,0.952651,-0.32959499999999997,-0.07910299999999999,-0.031754000000000004,-0.030216000000000003,-0.009897,,,,,,,,,,,,,,,,,,,,,,,,,,,,,,,,,,,,,,,,,,,,,,,,,,,,,,,,,,,,,,,,,
1402,1645900010.3407462,1645900010.351125,37.0,0.0,4284.615234000001,4626.666504,4123.077147999999,4159.487305,4249.230957,0.0,1.0,15.0,,,,0.0,2.0,1.0,0.0,2.0,4.0,25.0,,,,,,,,,,,,,,,,,,,,,,,,,,,,,,,,,,,,,,,,,,,,,,,,,,,,,,,,,,,,,,,,,,,,,,,,,,,,,,,,,,,,
1403,1645900010.348559,1645900010.3589401,38.0,0.0,4308.717772999999,4585.641113000001,4072.3076170000004,4177.436035,4236.922852000001,0.0,1.0,15.0,,,,0.0,2.0,1.0,0.0,2.0,4.0,25.0,,,,,,,,19.0,0.0,0.730979,0.159912,0.659424,0.07251,0.941909,-0.339361,-0.077638,-0.03185,-0.030173000000000002,-0.011202,1.0,0.0,0.0,,,,,,,,,,,,,,,,,,,,,,,,,,,,,,,,0.0,0.0,32.0,0.028176,1.0,0.0,95.925247,14.753302,23.081369,16.473720999999998,6.860778,49.387074,11.584049,67.654358,18.451279,28.114458000000003,96.918098,39.745956,57.771416,65.355118,33.314087,17.514534,10.645633,5.566625,15.004757000000001,4.731678,74.604416,18.289894,13.060925,9.799302,3.400521
1404,1645900010.356372,1645900010.366755,39.0,0.0,4335.384765999999,4686.153809,4043.5898439999996,4152.307617,4233.846191,0.0,1.0,15.0,,,,0.0,2.0,1.0,0.0,2.0,4.0,25.0,,,,,,,,,,,,,,,,,,,,,,,,,,,,,,,,,,,,,,,,,,,,,,,,,,,,,,,,,,,,,,,,,,,,,,,,,,,,,,,,,,,,
1405,1645900010.3641849,1645900010.374569,40.0,0.0,4286.153809,4658.461426,4027.179443,4161.025879,4203.589844,0.0,1.0,15.0,,,,0.0,2.0,1.0,0.0,2.0,4.0,25.0,,,,,,,,20.0,0.0,0.730979,0.159912,0.659424,0.07251,0.953628,-0.335454,-0.079591,-0.032034,-0.030182999999999998,-0.00935,,,,,,,,,,,,,,,,,,,,,,,,,,,,,,,,,,,,,,,,,,,,,,,,,,,,,,,,,,,,,,,,,
1406,1645900010.371998,1645900010.382484,41.0,0.0,4254.358886999999,4575.897461,4098.974121,4136.410156,4181.025879,0.0,1.0,15.0,,,,0.0,2.0,1.0,0.0,2.0,4.0,25.0,,,,,,,,,,,,,,,,,,,,,,,,,,,,,,,,,,,,,,,,,,,,,,,,,,,,,,,,,,,,,,,,,,,,,,,,,,,,,,,,,,,,
1407,1645900010.379812,1645900010.390299,42.0,0.0,4285.641113000001,4701.538574,4137.436035,4128.717772999999,4212.820313,0.0,1.0,15.0,,,,0.0,2.0,1.0,0.0,2.0,4.0,25.0,,,,,,,,21.0,0.0,0.730902,0.160156,0.659424,0.072754,0.945815,-0.33984899999999996,-0.073732,-0.032004000000000005,-0.030144,-0.010905,,,,,,,,,,,,,,,,,,,,,,,,,,,,,,,,,,,0.0,0.0,32.0,0.028176,1.0,0.0,,,,,,,,,,,,,,,,,,,,,,,,,
1408,1645900010.387625,1645900010.398114,43.0,0.0,4268.717772999999,4708.717772999999,4193.333496,4188.717772999999,4245.128418,0.0,1.0,15.0,,,,0.0,2.0,1.0,0.0,2.0,4.0,25.0,,,,,,,,,,,,,,,,,,,,,,,,,,,,,,,,,,,,,,,,,,,,,,,,,,,,,,,,,,,,,,,,,,,,,,,,,,,,,,,,,,,,
1409,1645900010.3954382,1645900010.4059289,44.0,0.0,4228.205078,4516.410156,4299.487305,4178.461426,4262.563965,0.0,1.0,15.0,,,,0.0,2.0,1.0,0.0,2.0,4.0,25.0,,,,,,,,22.0,0.0,0.730902,0.160156,0.659424,0.072754,0.9404440000000001,-0.333989,-0.075685,-0.032076,-0.030108,-0.012109,,,,,,,,,,,,,,,,,,,,,,,,,,,,,,,,,,,,,,,,,,,,,,,,,,,,,,,,,,,,,,,,,
1410,1645900010.403251,1645900010.413744,45.0,0.0,4230.769043,4527.692383,4281.025879,4116.922852000001,4243.077147999999,0.0,1.0,15.0,,,,0.0,2.0,1.0,0.0,2.0,4.0,25.0,,,,,,,,,,,,,,,,,,,,,,,,,,,,,,,,,,,,,,,,,,,,,,,,,,,,,,,,,,,,,,,,,,,,,,,,,,,,,,,,,,,,
1411,1645900010.4110641,1645900010.421559,46.0,0.0,4228.205078,4635.384765999999,4092.3076170000004,4158.974121,4206.666504,0.0,1.0,15.0,,,,0.0,2.0,1.0,0.0,2.0,4.0,25.0,,,,,,,,23.0,0.0,0.730955,0.159912,0.659424,0.072754,0.9472799999999999,-0.33350100000000005,-0.07422000000000001,-0.032188,-0.030076,-0.013241999999999999,,,,,,,,,,,,,,,,,,,,,,,,,,,,,,,,,,,0.0,0.0,32.0,0.028176,1.0,0.0,,,,,,,,,,,,,,,,,,,,,,,,,
1412,1645900010.418877,1645900010.429374,47.0,0.0,4229.230957,4543.077147999999,4044.615479,4207.179688,4194.871582,0.0,1.0,15.0,,,,0.0,2.0,1.0,0.0,2.0,4.0,25.0,,,,,,,,,,,,,,,,,,,,,,,,,,,,,,,,,,,,,,,,,,,,,,,,,,,,,,,,,,,,,,,,,,,,,,,,,,,,,,,,,,,,
1413,1645900010.42669,1645900010.4371881,48.0,0.0,4304.102539,4474.871582,4109.230957,4168.717772999999,4189.230957,0.0,1.0,15.0,,,,0.0,2.0,1.0,0.0,2.0,4.0,25.0,,,,,,,,24.0,0.0,0.730902,0.160156,0.659424,0.072754,0.945815,-0.33984899999999996,-0.073732,-0.032192,-0.030144,-0.014213,,,,,,,,,,,,,,,,,,,,,,,,,,,,,,,,,,,,,,,,,,,,,,,,,,,,,,,,,,,,,,,,,
1414,1645900010.4345028,1645900010.445003,49.0,0.0,4336.410156,4572.820313,4182.563965,4114.358886999999,4169.743652,0.0,1.0,15.0,,,,0.0,2.0,1.0,0.0,2.0,4.0,25.0,,,,,,,,,,,,,,,,,,,,,,,,,,,,,,,,,,,,,,,,,,,,,,,,,,,,,,,,,,,,,,,,,,,,,,,,,,,,,,,,,,,,
1415,1645900010.442316,1645900010.452818,50.0,0.0,4336.922852000001,4658.461426,4214.358886999999,4106.153809,4203.077147999999,0.0,1.0,15.0,,,,0.0,2.0,1.0,0.0,2.0,4.0,25.0,,,,,,,,25.0,0.0,0.730955,0.159912,0.659424,0.072754,0.9472799999999999,-0.33350100000000005,-0.07422000000000001,-0.032293,-0.030108,-0.015135,,,,,,,,,,,,,,,,,,,,,,,,,,,,,,,,,,,0.0,0.0,32.0,0.028176,1.0,0.0,,,,,,,,,,,,,,,,,,,,,,,,,
1416,1645900010.4501288,1645900010.460733,51.0,0.0,4349.743652,4663.589844,4221.025879,4124.102539,4248.717772999999,0.0,1.0,15.0,,,,0.0,2.0,1.0,0.0,2.0,4.0,25.0,,,,,,,,,,,,,,,,,,,,,,,,,,,,,,,,,,,,,,,,,,,,,,,,,,,,,,,,,,,,,,,,,,,,,,,,,,,,,,,,,,,,
1417,1645900010.457942,1645900010.468548,52.0,0.0,4325.128418,4645.641113000001,4144.615234000001,4143.589844,4264.102539,0.0,1.0,15.0,,,,0.0,2.0,1.0,0.0,2.0,4.0,25.0,,,,,,,,26.0,0.0,0.730979,0.159912,0.659424,0.07251,0.95021,-0.333013,-0.07715,-0.032238,-0.030026999999999998,-0.012743,,,,,,,,,,,,,,,,,,,,,,,,,,,,,,,,,,,,,,,,,,,,,,,,,,,,,,,,,,,,,,,,,
1418,1645900010.465755,1645900010.4763632,53.0,0.0,4280.0,4656.410156,4065.641113,4131.282227000001,4263.077147999999,0.0,1.0,15.0,,,,0.0,2.0,1.0,0.0,2.0,4.0,25.0,,,,,,,,,,,,,,,,,,,,,,,,,,,,,,,,,,,,,,,,,,,,,,,,,,,,,,,,,,,,,,,,,,,,,,,,,,,,,,,,,,,,
1419,1645900010.473569,1645900010.4841778,54.0,0.0,4260.0,4637.94873,4066.1538090000004,4156.410156,4235.897461,0.0,1.0,15.0,,,,0.0,2.0,1.0,0.0,2.0,4.0,25.0,,,,,,,,27.0,0.0,0.730979,0.159912,0.659424,0.07251,0.949233,-0.338384,-0.07910299999999999,-0.032237,-0.029954,-0.013861000000000002,1.0,0.0,0.0,,,,,,,,,,,,,,,,,,,,,,,,,,,,,,,,0.0,0.0,1.0,0.0,512.0,0.28635900000000003,66.507942,15.976460999999999,17.86968,14.196612,5.9007,49.126129,14.60265,50.994289,17.986679000000002,24.968531,109.04547099999999,61.349113,80.767601,51.291579999999996,30.035840999999998,19.100655,12.460981,4.392273,12.897047,4.412434999999999,62.774391,20.113924,15.141494,9.201921,3.0610779999999997
1420,1645900010.4813821,1645900010.491993,55.0,0.0,4237.436035,4588.717772999999,4098.461426,4173.333496,4211.282227000001,0.0,1.0,15.0,,,,0.0,2.0,1.0,0.0,2.0,4.0,25.0,,,,,,,,,,,,,,,,,,,,,,,,,,,,,,,,,,,,,,,,,,,,,,,,,,,,,,,,,,,,,,,,,,,,,,,,,,,,,,,,,,,,
1421,1645900010.4891949,1645900010.4998071,56.0,0.0,4258.974121,4617.94873,4150.769043,4126.153809,4231.282227000001,0.0,1.0,15.0,,,,0.0,2.0,1.0,0.0,2.0,4.0,25.0,,,,,,,,28.0,0.0,0.7311989999999999,0.159912,0.65918,0.07251,0.9423969999999999,-0.339361,-0.077638,-0.032285,-0.029986000000000002,-0.011694,,,,,,,,,,,,,,,,,,,,,,,,,,,,,,,,,,,,,,,,,,,,,,,,,,,,,,,,,,,,,,,,,
1422,1645900010.497008,1645900010.507622,57.0,0.0,4298.974121,4640.512695,4228.717772999999,4121.538574,4240.512695,0.0,1.0,15.0,,,,0.0,2.0,1.0,0.0,2.0,4.0,25.0,,,,,,,,,,,,,,,,,,,,,,,,,,,,,,,,,,,,,,,,,,,,,,,,,,,,,,,,,,,,,,,,,,,,,,,,,,,,,,,,,,,,
1423,1645900010.504821,1645900010.515437,58.0,0.0,4261.025879,4592.820313,4325.128418,4143.589844,4215.384765999999,0.0,1.0,15.0,,,,0.0,2.0,1.0,0.0,2.0,4.0,25.0,,,,,,,,29.0,0.0,0.7311989999999999,0.159912,0.65918,0.07251,0.9472799999999999,-0.316411,-0.080568,-0.032474,-0.029966000000000003,-0.012868000000000001,,,,,,,,,,,,,,,,,,,,,,,,,,,,,,,,,,,0.0,0.0,1.0,0.0,512.0,0.28635900000000003,,,,,,,,,,,,,,,,,,,,,,,,,
1424,1645900010.512634,1645900010.523252,59.0,0.0,4225.641113000001,4612.307617,4340.0,4120.512695,4212.820313,0.0,1.0,15.0,,,,0.0,2.0,1.0,0.0,2.0,4.0,25.0,,,,,,,,,,,,,,,,,,,,,,,,,,,,,,,,,,,,,,,,,,,,,,,,,,,,,,,,,,,,,,,,,,,,,,,,,,,,,,,,,,,,
1425,1645900010.520447,1645900010.531067,60.0,0.0,4238.974121,4651.794922,4242.563965,4108.717772999999,4224.615234000001,0.0,1.0,15.0,,,,0.0,2.0,1.0,0.0,2.0,4.0,25.0,,,,,,,,30.0,0.0,0.731175,0.159912,0.65918,0.072754,0.952651,-0.323247,-0.08203300000000001,-0.032596,-0.029948000000000002,-0.013974,,,,,,,,,,,,,,,,,,,,,,,,,,,,,,,,,,,,,,,,,,,,,,,,,,,,,,,,,,,,,,,,,
1426,1645900010.52826,1645900010.538982,61.0,0.0,4226.666504,4588.205078,4129.743652,4139.487305,4226.153809,0.0,1.0,15.0,,,,0.0,4.0,1.0,0.0,2.0,4.0,25.0,,,,,,,,,,,,,,,,,,,,,,,,,,,,,,,,,,,,,,,,,,,,,,,,,,,,,,,,,,,,,,,,,,,,,,,,,,,,,,,,,,,,
1427,1645900010.536073,1645900010.546797,62.0,0.0,4221.538574,4592.307617,4144.615234000001,4150.256348,4213.333496,0.0,1.0,15.0,,,,0.0,4.0,1.0,0.0,2.0,4.0,25.0,,,,,,,,31.0,0.0,0.731122,0.160156,0.65918,0.072754,0.951675,-0.339361,-0.080079,-0.032608,-0.029932,-0.011893,,,,,,,,,,,,,,,,,,,,,,,,,,,,,,,,,,,0.0,0.0,1.0,0.0,512.0,0.28635900000000003,,,,,,,,,,,,,,,,,,,,,,,,,
1428,1645900010.543886,1645900010.554611,63.0,0.0,4264.102539,4632.307617,4125.128418,4171.794922,4189.743652,0.0,1.0,15.0,,,,0.0,4.0,1.0,0.0,2.0,4.0,25.0,,,,,,,,,,,,,,,,,,,,,,,,,,,,,,,,,,,,,,,,,,,,,,,,,,,,,,,,,,,,,,,,,,,,,,,,,,,,,,,,,,,,
1429,1645900010.551699,1645900010.562426,64.0,0.0,4284.615234000001,4543.077147999999,4106.153809,4210.256348,4164.615234000001,450.0,1.0,15.0,,,,0.0,4.0,1.0,0.0,2.0,4.0,25.0,,,,,,,,32.0,0.0,0.7310439999999999,0.1604,0.65918,0.07299800000000001,0.957046,-0.32910700000000004,-0.082521,-0.032764999999999996,-0.029868000000000002,-0.010020000000000001,,,,,,,,,,,,,,,,,,,,,,,,,,,,,,,,,,,,,,,,,,,,,,,,,,,,,,,,,,,,,,,,,
1430,1645900010.559513,1645900010.570241,65.0,0.0,4311.282227000001,4549.743652,4192.820313,4195.384765999999,4217.94873,450.0,1.0,15.0,,,,0.0,4.0,1.0,0.0,2.0,4.0,25.0,,,,,,,,,,,,,,,,,,,,,,,,,,,,,,,,,,,,,,,,,,,,,,,,,,,,,,,,,,,,,,,,,,,,,,,,,,,,,,,,,,,,
1431,1645900010.567325,1645900010.578056,66.0,0.0,4321.538574,4707.692383,4273.333496,4136.410156,4270.769043,16106.0,1.0,15.0,,,,0.0,4.0,1.0,0.0,2.0,4.0,25.0,,,,,,,,33.0,0.0,0.7310439999999999,0.1604,0.65918,0.07299800000000001,0.948257,-0.320806,-0.08203300000000001,-0.032663,-0.029908999999999998,-0.011411,,,,,,,,,,,,,,,,,,,,,,,,,,,,,,,,,,,0.0,0.0,1.0,0.0,512.0,0.28635900000000003,,,,,,,,,,,,,,,,,,,,,,,,,
1432,1645900010.575138,1645900010.585871,67.0,0.0,4286.153809,4726.666504,4171.282227000001,4125.641113000001,4272.307617,450.0,1.0,15.0,,,,0.0,4.0,1.0,0.0,2.0,4.0,25.0,,,,,,,,,,,,,,,,,,,,,,,,,,,,,,,,,,,,,,,,,,,,,,,,,,,,,,,,,,,,,,,,,,,,,,,,,,,,,,,,,,,,
1433,1645900010.582952,1645900010.5936859,68.0,0.0,4248.205078,4623.589844,4090.256348,4149.743652,4268.205078,109.0,1.0,15.0,,,,0.0,4.0,1.0,0.0,2.0,4.0,25.0,,,,,,,,34.0,0.0,0.731019,0.1604,0.65918,0.073242,0.9433739999999999,-0.336919,-0.072755,-0.032668,-0.029848000000000003,-0.009488,,,,,,,,,,,,,,,,,,,,,,,,,,,,,,,,,,,,,,,,,,,,,,,,,,,,,,,,,,,,,,,,,
1434,1645900010.590765,1645900010.601601,69.0,0.0,4240.0,4583.077147999999,4113.333496,4171.794922,4265.128418,450.0,1.0,15.0,,,,0.0,4.0,1.0,0.0,2.0,4.0,25.0,,,,,,,,,,,,,,,,,,,,,,,,,,,,,,,,,,,,,,,,,,,,,,,,,,,,,,,,,,,,,,,,,,,,,,,,,,,,,,,,,,,,
1435,1645900010.598578,1645900010.609416,70.0,0.0,4244.615234000001,4600.512695,4138.974121,4147.179688,4261.025879,2.0,1.0,15.0,,,,0.0,4.0,1.0,0.0,2.0,4.0,25.0,,,,,,,,35.0,0.0,0.7312390000000001,0.1604,0.658936,0.073242,0.9521629999999999,-0.331548,-0.089357,-0.032624,-0.029842,-0.007758,1.0,0.0,0.0,,,,,,,,,,,,,,,,,,,,,,,,,,,,,,,,0.0,0.0,1.0,0.0,512.0,0.250779,39.280163,18.103711999999998,13.989552999999999,12.059237,4.800282,47.332603000000006,21.387145999999998,37.432396000000004,18.827751,22.141257999999997,117.53398100000001,88.247856,107.98301699999999,47.429398,27.212453999999997,19.278898,15.156134,4.400124,10.869194,4.405686,49.259411,21.124813,17.144358,8.717424000000001,2.9995279999999998
1436,1645900010.606391,1645900010.6172302,71.0,0.0,4257.94873,4606.666504,4140.0,4111.794922,4268.205078,450.0,1.0,15.0,,,,0.0,4.0,1.0,0.0,2.0,4.0,25.0,,,,,,,,,,,,,,,,,,,,,,,,,,,,,,,,,,,,,,,,,,,,,,,,,,,,,,,,,,,,,,,,,,,,,,,,,,,,,,,,,,,,
1437,1645900010.614204,1645900010.6250448,72.0,0.0,4255.384765999999,4541.538574,4162.05127,4128.717772999999,4235.897461,450.0,1.0,15.0,,,,0.0,4.0,1.0,0.0,2.0,4.0,25.0,,,,,,,,36.0,0.0,0.731019,0.1604,0.65918,0.073242,0.9589989999999999,-0.332525,-0.084962,-0.032682,-0.029787,-0.009326000000000001,,,,,,,,,,,,,,,,,,,,,,,,,,,,,,,,,,,,,,,,,,,,,,,,,,,,,,,,,,,,,,,,,
1438,1645900010.622017,1645900010.63286,73.0,0.0,4256.922852000001,4456.410156,4264.615234000001,4161.025879,4206.153809,156.0,1.0,15.0,,,,0.0,4.0,1.0,0.0,2.0,4.0,25.0,,,,,,,,,,,,,,,,,,,,,,,,,,,,,,,,,,,,,,,,,,,,,,,,,,,,,,,,,,,,,,,,,,,,,,,,,,,,,,,,,,,,
1439,1645900010.6298301,1645900010.640675,74.0,0.0,4277.436035,4512.307617,4322.563965,4156.922852000001,4250.256348,450.0,1.0,15.0,,,,0.0,4.0,1.0,0.0,2.0,4.0,25.0,,,,,,,,37.0,0.0,0.731019,0.1604,0.65918,0.073242,0.9560690000000001,-0.31787600000000005,-0.089357,-0.032587,-0.029689,-0.010786,,,,,,,,,,,,,,,,,,,,,,,,,,,,,,,,,,,0.0,0.0,1.0,0.0,512.0,0.250779,,,,,,,,,,,,,,,,,,,,,,,,,
1440,1645900010.6376429,1645900010.64849,75.0,0.0,4248.205078,4610.769043,4221.538574,4130.769043,4257.94873,16078.0,1.0,15.0,,,,0.0,4.0,1.0,0.0,2.0,4.0,25.0,,,,,,,,,,,,,,,,,,,,,,,,,,,,,,,,,,,,,,,,,,,,,,,,,,,,,,,,,,,,,,,,,,,,,,,,,,,,,,,,,,,,
1441,1645900010.645456,1645900010.656305,76.0,0.0,4201.025879,4561.538574,4088.205078,4135.897461,4195.384765999999,450.0,1.0,15.0,,,,0.0,4.0,1.0,0.0,2.0,4.0,25.0,,,,,,,,38.0,0.0,0.730995,0.1604,0.65918,0.073486,0.9643700000000001,-0.352056,-0.067384,-0.0326,-0.029845,-0.0121,,,,,,,,,,,,,,,,,,,,,,,,,,,,,,,,,,,,,,,,,,,,,,,,,,,,,,,,,,,,,,,,,
1442,1645900010.653269,1645900010.66412,77.0,0.0,4203.077147999999,4523.589844,4122.05127,4138.974121,4163.077147999999,450.0,1.0,15.0,,,,0.0,4.0,1.0,0.0,2.0,4.0,25.0,,,,,,,,,,,,,,,,,,,,,,,,,,,,,,,,,,,,,,,,,,,,,,,,,,,,,,,,,,,,,,,,,,,,,,,,,,,,,,,,,,,,
1443,1645900010.661082,1645900010.6719348,78.0,0.0,4220.0,4562.563965,4124.102539,4139.487305,4162.05127,450.0,1.0,15.0,,,,0.0,4.0,1.0,0.0,2.0,4.0,25.0,,,,,,,,39.0,0.0,0.730941,0.160645,0.65918,0.073486,0.941909,-0.34473200000000004,-0.079591,-0.032563,-0.029838999999999997,-0.01006,,,,,,,,,,,,,,,,,,,,,,,,,,,,,,,,,,,0.0,0.0,1.0,0.0,512.0,0.250779,,,,,,,,,,,,,,,,,,,,,,,,,
1444,1645900010.6688962,1645900010.679849,79.0,0.0,4232.307617,4556.410156,4121.025879,4155.897461,4151.794922,16078.0,1.0,15.0,,,,0.0,4.0,1.0,0.0,2.0,4.0,25.0,,,,,,,,,,,,,,,,,,,,,,,,,,,,,,,,,,,,,,,,,,,,,,,,,,,,,,,,,,,,,,,,,,,,,,,,,,,,,,,,,,,,
1445,1645900010.676709,1645900010.687664,80.0,0.0,4301.025879,4590.769043,4224.615234000001,4158.974121,4183.077147999999,450.0,1.0,15.0,,,,0.0,4.0,1.0,0.0,2.0,4.0,25.0,,,,,,,,40.0,0.0,0.730721,0.160645,0.659424,0.073486,0.937514,-0.334478,-0.072267,-0.032529,-0.029833999999999996,-0.011447,,,,,,,,,,,,,,,,,,,,,,,,,,,,,,,,,,,,,,,,,,,,,,,,,,,,,,,,,,,,,,,,,
1446,1645900010.6845222,1645900010.695479,81.0,0.0,4339.487305,4680.512695,4295.384765999999,4134.871582,4209.743652,450.0,1.0,15.0,,,,0.0,4.0,1.0,0.0,2.0,4.0,25.0,,,,,,,,,,,,,,,,,,,,,,,,,,,,,,,,,,,,,,,,,,,,,,,,,,,,,,,,,,,,,,,,,,,,,,,,,,,,,,,,,,,,
1447,1645900010.692335,1645900010.703394,82.0,0.0,4309.230957,4704.615234000001,4231.282227000001,4094.8718259999996,4234.358886999999,450.0,1.0,15.0,,,,0.0,4.0,1.0,0.0,2.0,4.0,25.0,,,,,,,,41.0,0.0,0.730721,0.160645,0.659424,0.073486,0.9340959999999999,-0.334478,-0.078614,-0.032548,-0.029878,-0.009521,,,,,,,,,,,,,,,,,,,,,,,,,,,,,,,,,,,0.0,0.0,1.0,0.0,512.0,0.250779,,,,,,,,,,,,,,,,,,,,,,,,,
1448,1645900010.700148,1645900010.711209,83.0,0.0,4291.794922,4649.743652,4153.846191,4063.076904,4249.230957,16078.0,1.0,15.0,,,,0.0,4.0,1.0,0.0,2.0,4.0,25.0,,,,,,,,,,,,,,,,,,,,,,,,,,,,,,,,,,,,,,,,,,,,,,,,,,,,,,,,,,,,,,,,,,,,,,,,,,,,,,,,,,,,
1449,1645900010.7079608,1645900010.719024,84.0,0.0,4292.307617,4585.128418,4058.974365,4111.794922,4242.05127,450.0,1.0,15.0,,,,0.0,4.0,1.0,0.0,2.0,4.0,25.0,,,,,,,,42.0,0.0,0.730966,0.160645,0.65918,0.073242,0.956558,-0.34473200000000004,-0.076173,-0.032612999999999996,-0.029869,-0.010912,,,,,,,,,,,,,,,,,,,,,,,,,,,,,,,,,,,,,,,,,,,,,,,,,,,,,,,,,,,,,,,,,
1450,1645900010.715774,1645900010.726839,85.0,0.0,4269.743652,4571.794922,4060.512939,4155.897461,4234.871582,450.0,1.0,15.0,,,,0.0,4.0,1.0,0.0,2.0,4.0,25.0,,,,,,,,,,,,,,,,,,,,,,,,,,,,,,,,,,,,,,,,,,,,,,,,,,,,,,,,,,,,,,,,,,,,,,,,,,,,,,,,,,,,
1451,1645900010.7235868,1645900010.734654,86.0,0.0,4285.128418,4593.333496,4128.717772999999,4131.794922,4225.641113000001,450.0,1.0,15.0,,,,0.0,4.0,1.0,0.0,2.0,4.0,25.0,1.0,16.666666,2.0,0.0,0.0,2.0,2.0,43.0,0.0,0.730746,0.160645,0.659424,0.073242,0.95021,-0.333989,-0.079591,-0.032673,-0.02986,-0.008990999999999999,1.0,0.0,0.0,,,,,,,,,,,,,,,,,,,,,,,,,,,,,,,,0.0,0.0,1.0,0.0,512.0,0.25668,20.751867,21.421144,11.846007,10.550871,3.798882,45.479541999999995,31.7155,28.191570000000002,20.624788,20.490211,117.24029499999999,114.89563000000001,131.940674,54.770782,24.917706,18.213009,18.158669,5.597416,9.372314999999999,4.7076910000000005,36.794914,20.862209,18.846891,8.310345,3.173393
1452,1645900010.7314,1645900010.7424679,87.0,0.0,4300.0,4553.333496,4133.846191,4128.205078,4190.256348,16078.0,1.0,15.0,,,,0.0,4.0,1.0,0.0,2.0,4.0,25.0,,,,,,,,,,,,,,,,,,,,,,,,,,,,,,,,,,,,,,,,,,,,,,,,,,,,,,,,,,,,,,,,,,,,,,,,,,,,,,,,,,,,
1453,1645900010.739213,1645900010.750283,88.0,0.0,4274.871582,4498.461426,4193.846191,4168.205078,4192.307617,450.0,1.0,15.0,,,,0.0,4.0,1.0,0.0,2.0,4.0,25.0,,,,,,,,44.0,0.0,0.73077,0.160645,0.659424,0.07299800000000001,0.953628,-0.33105999999999997,-0.072755,-0.032677,-0.029901999999999998,-0.010435999999999999,,,,,,,,,,,,,,,,,,,,,,,,,,,,,,,,,,,,,,,,,,,,,,,,,,,,,,,,,,,,,,,,,
1454,1645900010.747026,1645900010.7580981,89.0,0.0,4265.128418,4531.794922,4306.153809,4160.0,4227.692383,450.0,1.0,15.0,,,,0.0,4.0,1.0,0.0,2.0,4.0,25.0,,,,,,,,,,,,,,,,,,,,,,,,,,,,,,,,,,,,,,,,,,,,,,,,,,,,,,,,,,,,,,,,,,,,,,,,,,,,,,,,,,,,
1455,1645900010.754839,1645900010.765913,90.0,0.0,4265.128418,4568.717772999999,4260.0,4159.487305,4195.384765999999,450.0,1.0,15.0,,,,0.0,4.0,1.0,0.0,2.0,4.0,25.0,,,,,,,,45.0,0.0,0.730799,0.1604,0.659424,0.073242,0.940932,-0.32959499999999997,-0.07422000000000001,-0.032777999999999995,-0.029889999999999996,-0.00866,,,,,,,,,,,,,,,,,,,,,,,,,,,,,,,,,,,0.0,0.0,1.0,0.0,512.0,0.25668,,,,,,,,,,,,,,,,,,,,,,,,,
1456,1645900010.7626529,1645900010.773728,91.0,0.0,4255.897461,4584.615234000001,4103.589844,4185.641113000001,4162.05127,16078.0,1.0,15.0,,,,0.0,4.0,1.0,0.0,2.0,4.0,25.0,,,,,,,,,,,,,,,,,,,,,,,,,,,,,,,,,,,,,,,,,,,,,,,,,,,,,,,,,,,,,,,,,,,,,,,,,,,,,,,,,,,,
1457,1645900010.7704651,1645900010.781643,92.0,0.0,4291.282227000001,4633.846191,4103.077147999999,4132.820313,4196.922852000001,450.0,1.0,15.0,,,,0.0,4.0,1.0,0.0,2.0,4.0,25.0,,,,,,,,46.0,0.0,0.730799,0.1604,0.659424,0.073242,0.937514,-0.340826,-0.080568,-0.032820999999999996,-0.029929,-0.010235,,,,,,,,,,,,,,,,,,,,,,,,,,,,,,,,,,,,,,,,,,,,,,,,,,,,,,,,,,,,,,,,,
1458,1645900010.7782788,1645900010.789458,93.0,0.0,4353.333496,4645.641113000001,4174.358886999999,4114.871582,4222.563965,450.0,1.0,15.0,,,,0.0,4.0,1.0,0.0,2.0,4.0,25.0,,,,,,,,,,,,,,,,,,,,,,,,,,,,,,,,,,,,,,,,,,,,,,,,,,,,,,,,,,,,,,,,,,,,,,,,,,,,,,,,,,,,
1459,1645900010.786092,1645900010.797272,94.0,0.0,4341.538574,4647.692383,4235.897461,4147.692383,4219.487305,450.0,1.0,15.0,,,,0.0,4.0,1.0,0.0,2.0,4.0,25.0,,,,,,,,47.0,0.0,0.730799,0.1604,0.659424,0.073242,0.949233,-0.341314,-0.07422000000000001,-0.032713,-0.029914,-0.008479,,,,,,,,,,,,,,,,,,,,,,,,,,,,,,,,,,,0.0,0.0,1.0,0.0,512.0,0.25668,,,,,,,,,,,,,,,,,,,,,,,,,
1460,1645900010.793905,1645900010.805187,95.0,0.0,4313.333496,4647.179688,4236.922852000001,4122.05127,4262.563965,16078.0,1.0,15.0,,,,0.0,4.0,1.0,0.0,2.0,4.0,25.0,,,,,,,,,,,,,,,,,,,,,,,,,,,,,,,,,,,,,,,,,,,,,,,,,,,,,,,,,,,,,,,,,,,,,,,,,,,,,,,,,,,,
1461,1645900010.801718,1645900010.8130019,96.0,0.0,4286.666504,4585.641113000001,4211.282227000001,4130.769043,4288.717772999999,450.0,1.0,15.0,,,,0.0,4.0,1.0,0.0,2.0,4.0,25.0,,,,,,,,48.0,0.0,0.730799,0.1604,0.659424,0.073242,0.969741,-0.326665,-0.084962,-0.032713,-0.029852999999999998,-0.010024,,,,,,,,,,,,,,,,,,,,,,,,,,,,,,,,,,,,,,,,,,,,,,,,,,,,,,,,,,,,,,,,,
1462,1645900010.809531,1645900010.820817,97.0,0.0,4265.641113000001,4523.589844,4103.589844,4231.282227000001,4230.256348,450.0,1.0,15.0,,,,0.0,4.0,1.0,0.0,2.0,4.0,25.0,,,,,,,,,,,,,,,,,,,,,,,,,,,,,,,,,,,,,,,,,,,,,,,,,,,,,,,,,,,,,,,,,,,,,,,,,,,,,,,,,,,,
1463,1645900010.817344,1645900010.828632,98.0,0.0,4288.205078,4533.846191,4089.743652,4205.641113000001,4156.410156,450.0,1.0,15.0,,,,0.0,4.0,1.0,0.0,2.0,4.0,25.0,,,,,,,,49.0,0.0,0.730799,0.1604,0.659424,0.073242,0.948257,-0.34815,-0.07715,-0.02949,-0.029992,-0.011414,,,,,,,,,,,,,,,,,,,,,,,,,,,,,,,,,,,0.0,0.0,1.0,0.0,512.0,0.25668,,,,,,,,,,,,,,,,,,,,,,,,,
1464,1645900010.825157,1645900010.836447,99.0,0.0,4355.897461,4608.717772999999,4235.897461,4090.7692869999996,4189.743652,16078.0,1.0,15.0,,,,0.0,4.0,1.0,0.0,2.0,4.0,25.0,,,,,,,,,,,,,,,,,,,,,,,,,,,,,,,,,,,,,,,,,,,,,,,,,,,,,,,,,,,,,,,,,,,,,,,,,,,,,,,,,,,,
1465,1645900010.83297,1645900010.844262,100.0,0.0,4380.512695,4689.230957,4275.897461,4079.487061,4248.717772999999,450.0,1.0,15.0,,,,0.0,4.0,1.0,0.0,2.0,4.0,25.0,,,,,,,,50.0,0.0,0.730966,0.160645,0.65918,0.073242,0.9340959999999999,-0.331548,-0.072267,-0.029862,-0.030021,-0.012665000000000001,,,,,,,,,,,,,,,,,,,,,,,,,,,,,,,,,,,,,,,,,,,,,,,,,,,,,,,,,,,,,,,,,
1466,1645900010.840783,1645900010.852176,101.0,0.0,4340.0,4688.717772999999,4134.358886999999,4133.846191,4244.615234000001,450.0,1.0,15.0,,,,0.0,4.0,1.0,0.0,2.0,4.0,25.0,,,,,,,,,,,,,,,,,,,,,,,,,,,,,,,,,,,,,,,,,,,,,,,,,,,,,,,,,,,,,,,,,,,,,,,,,,,,,,,,,,,,
1467,1645900010.848596,1645900010.859991,102.0,0.0,4308.717772999999,4649.230957,4067.6923829999996,4127.692383,4223.077147999999,450.0,1.0,15.0,,,,0.0,4.0,1.0,0.0,2.0,4.0,25.0,,,,,,,,51.0,0.0,0.730966,0.160645,0.65918,0.073242,0.956558,-0.33984899999999996,-0.081544,-0.030147000000000004,-0.030045999999999996,-0.010764,1.0,0.0,0.0,,,,,,,,,,,,,,,,,,,,,,,,,,,,,,,,0.0,0.0,1.0,0.0,512.0,0.284612,12.834052,26.032269,11.042099,9.915131,3.136591,44.324455,44.367584,22.805605,23.157551,20.426651,105.948074,135.59712199999998,145.629471,72.372261,23.504925,16.519389999999998,20.621634,7.823295,8.660354,5.237508999999999,27.389165999999996,19.651773000000002,20.123398,8.131733,3.462074
1468,1645900010.856409,1645900010.867806,103.0,0.0,4327.179688,4629.743652,4062.5642090000006,4124.102539,4213.333496,16078.0,1.0,15.0,,,,0.0,4.0,1.0,0.0,2.0,4.0,25.0,,,,,,,,,,,,,,,,,,,,,,,,,,,,,,,,,,,,,,,,,,,,,,,,,,,,,,,,,,,,,,,,,,,,,,,,,,,,,,,,,,,,
1469,1645900010.864223,1645900010.875621,104.0,0.0,4331.282227000001,4567.179688,4097.94873,4169.230957,4202.05127,450.0,1.0,15.0,,,,0.0,4.0,1.0,0.0,2.0,4.0,25.0,,,,,,,,52.0,0.0,0.730799,0.1604,0.659424,0.073242,0.948257,-0.34815,-0.07715,-0.030306,-0.030069,-0.009004,,,,,,,,,,,,,,,,,,,,,,,,,,,,,,,,,,,,,,,,,,,,,,,,,,,,,,,,,,,,,,,,,
1470,1645900010.872036,1645900010.883436,105.0,0.0,4326.153809,4524.615234000001,4254.358886999999,4170.256348,4236.922852000001,450.0,1.0,15.0,,,,0.0,4.0,1.0,0.0,2.0,4.0,25.0,,,,,,,,,,,,,,,,,,,,,,,,,,,,,,,,,,,,,,,,,,,,,,,,,,,,,,,,,,,,,,,,,,,,,,,,,,,,,,,,,,,,
1471,1645900010.879849,1645900010.891251,106.0,0.0,4355.897461,4583.077147999999,4337.94873,4133.846191,4289.230957,450.0,1.0,15.0,,,,0.0,4.0,1.0,0.0,2.0,4.0,25.0,,,,,,,,53.0,0.0,0.730966,0.160645,0.65918,0.073242,0.956558,-0.33984899999999996,-0.081544,-0.030547,-0.030088999999999998,-0.007469,,,,,,,,,,,,,,,,,,,,,,,,,,,,,,,,,,,0.0,0.0,1.0,0.0,512.0,0.284612,,,,,,,,,,,,,,,,,,,,,,,,,
1472,1645900010.887662,1645900010.899066,107.0,0.0,4348.717772999999,4595.897461,4247.179688,4175.384765999999,4268.205078,16078.0,1.0,15.0,,,,0.0,4.0,1.0,0.0,2.0,4.0,25.0,,,,,,,,,,,,,,,,,,,,,,,,,,,,,,,,,,,,,,,,,,,,,,,,,,,,,,,,,,,,,,,,,,,,,,,,,,,,,,,,,,,,
1473,1645900010.895475,1645900010.906881,108.0,0.0,4320.512695,4582.05127,4109.743652,4225.128418,4235.384765999999,450.0,1.0,15.0,,,,0.0,4.0,1.0,0.0,2.0,4.0,25.0,,,,,,,,54.0,0.0,0.730937,0.160889,0.65918,0.07299800000000001,0.945815,-0.339361,-0.09033300000000001,-0.030862,-0.030108,-0.009212,,,,,,,,,,,,,,,,,,,,,,,,,,,,,,,,,,,,,,,,,,,,,,,,,,,,,,,,,,,,,,,,,
1474,1645900010.9032881,1645900010.914696,109.0,0.0,4370.256348,4677.94873,4128.205078,4141.025879,4242.563965,450.0,1.0,15.0,,,,0.0,4.0,1.0,0.0,2.0,4.0,25.0,,,,,,,,,,,,,,,,,,,,,,,,,,,,,,,,,,,,,,,,,,,,,,,,,,,,,,,,,,,,,,,,,,,,,,,,,,,,,,,,,,,,
1475,1645900010.9111009,1645900010.92261,110.0,0.0,4420.512695,4715.897461,4233.333496,4055.897461,4275.897461,450.0,1.0,15.0,,,,0.0,4.0,1.0,0.0,2.0,4.0,25.0,,,,,,,,55.0,0.0,0.730937,0.160889,0.65918,0.07299800000000001,0.936049,-0.334478,-0.080079,-0.031047,-0.030026999999999998,-0.010586,,,,,,,,,,,,,,,,,,,,,,,,,,,,,,,,,,,0.0,0.0,1.0,0.0,512.0,0.284612,,,,,,,,,,,,,,,,,,,,,,,,,
1476,1645900010.918914,1645900010.930425,111.0,0.0,4346.666504,4632.820313,4299.487305,4091.794922,4297.94873,16078.0,1.0,15.0,,,,0.0,4.0,1.0,0.0,2.0,4.0,25.0,,,,,,,,,,,,,,,,,,,,,,,,,,,,,,,,,,,,,,,,,,,,,,,,,,,,,,,,,,,,,,,,,,,,,,,,,,,,,,,,,,,,
1477,1645900010.926727,1645900010.93824,112.0,0.0,4267.692383,4574.871582,4177.94873,4168.205078,4276.922852000001,450.0,1.0,15.0,,,,0.0,4.0,1.0,0.0,2.0,4.0,25.0,,,,,,,,56.0,0.0,0.731015,0.160645,0.65918,0.072754,0.951675,-0.331548,-0.083497,-0.031214,-0.030050999999999998,-0.008795,,,,,,,,,,,,,,,,,,,,,,,,,,,,,,,,,,,,,,,,,,,,,,,,,,,,,,,,,,,,,,,,,
1478,1645900010.93454,1645900010.9460552,113.0,0.0,4291.282227000001,4544.102539,4098.461426,4192.307617,4218.974121,450.0,1.0,15.0,,,,0.0,4.0,1.0,0.0,2.0,4.0,25.0,,,,,,,,,,,,,,,,,,,,,,,,,,,,,,,,,,,,,,,,,,,,,,,,,,,,,,,,,,,,,,,,,,,,,,,,,,,,,,,,,,,,
1479,1645900010.942353,1645900010.9538698,114.0,0.0,4381.025879,4572.820313,4179.487305,4175.897461,4223.077147999999,450.0,1.0,15.0,,,,0.0,4.0,1.0,0.0,2.0,4.0,25.0,,,,,,,,57.0,0.0,0.731015,0.160645,0.65918,0.072754,0.948257,-0.336919,-0.083009,-0.031266,-0.030074,-0.007183,,,,,,,,,,,,,,,,,,,,,,,,,,,,,,,,,,,0.0,0.0,1.0,0.0,512.0,0.284612,,,,,,,,,,,,,,,,,,,,,,,,,
1480,1645900010.950166,1645900010.961685,115.0,0.0,4400.512695,4624.615234000001,4240.512695,4136.922852000001,4244.102539,16078.0,1.0,15.0,,,,0.0,4.0,1.0,0.0,2.0,4.0,25.0,,,,,,,,,,,,,,,,,,,,,,,,,,,,,,,,,,,,,,,,,,,,,,,,,,,,,,,,,,,,,,,,,,,,,,,,,,,,,,,,,,,,
1481,1645900010.9579802,1645900010.9695,116.0,0.0,4349.743652,4597.94873,4209.743652,4112.307617,4240.512695,450.0,1.0,15.0,,,,0.0,4.0,1.0,0.0,2.0,4.0,25.0,,,,,,,,58.0,0.0,0.731039,0.160645,0.65918,0.07251,0.9550930000000001,-0.32422399999999996,-0.089357,-0.031411,-0.030045,-0.005732,,,,,,,,,,,,,,,,,,,,,,,,,,,,,,,,,,,,,,,,,,,,,,,,,,,,,,,,,,,,,,,,,
1482,1645900010.965793,1645900010.977315,117.0,0.0,4331.282227000001,4603.589844,4184.102539,4099.487305,4262.05127,450.0,1.0,15.0,,,,0.0,4.0,1.0,0.0,2.0,4.0,25.0,,,,,,,,,,,,,,,,,,,,,,,,,,,,,,,,,,,,,,,,,,,,,,,,,,,,,,,,,,,,,,,,,,,,,,,,,,,,,,,,,,,,
1483,1645900010.973606,1645900010.9851289,118.0,0.0,4356.922852000001,4693.846191,4085.641113,4098.974121,4283.589844,450.0,1.0,15.0,,,,0.0,4.0,1.0,0.0,2.0,4.0,25.0,,,,,,,,59.0,0.0,0.731092,0.1604,0.65918,0.07251,0.9463030000000001,-0.323735,-0.080568,-0.03159,-0.02997,-0.007601,1.0,0.0,0.0,,,,,,,,,,,,,,,,,,,,,,,,,,,,,,,,0.0,0.0,1.0,0.0,512.0,0.304796,12.358753,31.519484000000002,11.043075,10.097961,2.885087,43.549637,57.666779000000005,20.24824,25.924364,21.705311,85.911827,145.574112,144.952423,96.856255,23.059988,14.725394,21.909848999999998,10.76909,8.642433,5.837333999999999,20.878298,18.394604,20.734351999999998,8.294731,3.721086
1484,1645900010.9814188,1645900010.992944,119.0,0.0,4326.666504,4649.743652,4024.102539,4116.922852000001,4236.922852000001,16078.0,1.0,15.0,,,,0.0,4.0,1.0,0.0,2.0,4.0,25.0,,,,,,,,,,,,,,,,,,,,,,,,,,,,,,,,,,,,,,,,,,,,,,,,,,,,,,,,,,,,,,,,,,,,,,,,,,,,,,,,,,,,
1485,1645900010.989232,1645900011.000759,120.0,0.0,4299.487305,4537.94873,4200.0,4121.538574,4226.153809,450.0,1.0,15.0,,,,0.0,4.0,1.0,0.0,2.0,4.0,25.0,,,,,,,,60.0,0.0,0.730896,0.1604,0.659424,0.072266,0.954116,-0.320806,-0.077638,-0.031751999999999996,-0.029902999999999996,-0.006108,,,,,,,,,,,,,,,,,,,,,,,,,,,,,,,,,,,,,,,,,,,,,,,,,,,,,,,,,,,,,,,,,
1486,1645900010.997045,1645900011.008674,121.0,0.0,4354.871582,4622.563965,4296.922852000001,4111.282227000001,4281.025879,450.0,1.0,15.0,,,,0.0,4.0,1.0,0.0,2.0,4.0,25.0,,,,,,,,,,,,,,,,,,,,,,,,,,,,,,,,,,,,,,,,,,,,,,,,,,,,,,,,,,,,,,,,,,,,,,,,,,,,,,,,,,,,
1487,1645900011.004858,1645900011.016489,122.0,0.0,4378.974121,4720.0,4127.692383,4145.128418,4257.436035,450.0,1.0,15.0,,,,0.0,4.0,1.0,0.0,2.0,4.0,25.0,,,,,,,,61.0,0.0,0.730896,0.1604,0.659424,0.072266,0.9365379999999999,-0.340826,-0.078614,-0.031799,-0.029939999999999998,-0.007890000000000001,,,,,,,,,,,,,,,,,,,,,,,,,,,,,,,,,,,0.0,0.0,1.0,0.0,512.0,0.304796,,,,,,,,,,,,,,,,,,,,,,,,,
1488,1645900011.012671,1645900011.024304,123.0,0.0,4330.256348,4637.436035,4055.384521,4182.05127,4193.846191,16078.0,1.0,15.0,,,,0.0,4.0,1.0,0.0,2.0,4.0,25.0,,,,,,,,,,,,,,,,,,,,,,,,,,,,,,,,,,,,,,,,,,,,,,,,,,,,,,,,,,,,,,,,,,,,,,,,,,,,,,,,,,,,
1489,1645900011.020484,1645900011.032119,124.0,0.0,4321.538574,4595.384765999999,4155.897461,4150.769043,4185.641113000001,450.0,1.0,15.0,,,,0.0,4.0,1.0,0.0,2.0,4.0,25.0,,,,,,,,62.0,0.0,0.730896,0.1604,0.659424,0.072266,0.948257,-0.326665,-0.079591,-0.031891,-0.030022000000000004,-0.006368,,,,,,,,,,,,,,,,,,,,,,,,,,,,,,,,,,,,,,,,,,,,,,,,,,,,,,,,,,,,,,,,,
1490,1645900011.0282972,1645900011.039933,125.0,0.0,4355.897461,4668.205078,4110.769043,4113.333496,4211.794922,450.0,1.0,15.0,,,,0.0,4.0,1.0,0.0,2.0,4.0,25.0,,,,,,,,,,,,,,,,,,,,,,,,,,,,,,,,,,,,,,,,,,,,,,,,,,,,,,,,,,,,,,,,,,,,,,,,,,,,,,,,,,,,
1491,1645900011.03611,1645900011.047748,126.0,0.0,4357.436035,4642.563965,4146.666504,4113.846191,4266.666504,450.0,1.0,15.0,,,,0.0,4.0,1.0,0.0,2.0,4.0,25.0,,,,,,,,63.0,0.0,0.7308720000000001,0.1604,0.659424,0.07251,0.946792,-0.333013,-0.087892,-0.032022,-0.029998,-0.008075,,,,,,,,,,,,,,,,,,,,,,,,,,,,,,,,,,,0.0,0.0,1.0,0.0,512.0,0.304796,,,,,,,,,,,,,,,,,,,,,,,,,
1492,1645900011.043924,1645900011.055563,127.0,0.0,4362.563965,4542.05127,4329.230957,4113.333496,4331.794922,233.0,1.0,15.0,,,,0.0,4.0,1.0,0.0,2.0,4.0,25.0,,,,,,,,,,,,,,,,,,,,,,,,,,,,,,,,,,,,,,,,,,,,,,,,,,,,,,,,,,,,,,,,,,,,,,,,,,,,,,,,,,,,
1493,1645900011.0517359,1645900011.0633779,0.0,0.0,4343.589844,4578.461426,4341.538574,4101.538574,4315.384765999999,450.0,1.0,15.0,,,,0.0,4.0,1.0,0.0,2.0,4.0,25.0,,,,,,,,0.0,0.0,0.7309260000000001,0.160156,0.659424,0.07251,0.9438620000000001,-0.321782,-0.084962,-0.032238,-0.029976999999999997,-0.00966,,,,,,,,,,,,,,,,,,,,,,,,,,,,,,,,,,,,,,,,,,,,,,,,,,,,,,,,,,,,,,,,,
1494,1645900011.059549,1645900011.0712929,1.0,0.0,4293.333496,4607.692383,4114.358886999999,4156.922852000001,4257.94873,450.0,1.0,15.0,,,,0.0,4.0,0.0,0.0,4.0,4.0,33.333332,,,,,,,,,,,,,,,,,,,,,,,,,,,,,,,,,,,,,,,,,,,,,,,,,,,,,,,,,,,,,,,,,,,,,,,,,,,,,,,,,,,,
1495,1645900011.067363,1645900011.079108,2.0,0.0,4286.153809,4517.436035,4130.256348,4241.025879,4219.487305,16060.0,1.0,15.0,,,,0.0,4.0,0.0,0.0,4.0,4.0,33.333332,,,,,,,,1.0,0.0,0.730902,0.160156,0.659424,0.072754,0.95314,-0.324712,-0.08105599999999999,-0.032286,-0.02986,-0.011087,,,,,,,,,,,,,,,,,,,,,,,,,,,,,,,,,,,0.0,0.0,1.0,0.0,512.0,0.304796,,,,,,,,,,,,,,,,,,,,,,,,,
1496,1645900011.075176,1645900011.0869231,3.0,0.0,4347.692383,4544.615234000001,4318.461426,4224.615234000001,4228.205078,450.0,1.0,15.0,,,,0.0,4.0,0.0,0.0,4.0,4.0,33.333332,,,,,,,,,,,,,,,,,,,,,,,,,,,,,,,,,,,,,,,,,,,,,,,,,,,,,,,,,,,,,,,,,,,,,,,,,,,,,,,,,,,,
1497,1645900011.082989,1645900011.094738,4.0,0.0,4383.077147999999,4696.410156,4283.589844,4101.025879,4280.0,0.0,1.0,15.0,,,,0.0,4.0,0.0,0.0,4.0,4.0,33.333332,,,,,,,,2.0,0.0,0.730902,0.160156,0.659424,0.072754,0.9511860000000001,-0.325689,-0.080079,-0.032329000000000004,-0.029852999999999998,-0.009295,,,,,,,,,,,,,,,,,,,,,,,,,,,,,,,,,,,,,,,,,,,,,,,,,,,,,,,,,,,,,,,,,
1498,1645900011.090802,1645900011.102552,5.0,0.0,4357.94873,4714.358886999999,4089.743652,4089.2307130000004,4314.358886999999,450.0,1.0,15.0,,,,0.0,4.0,0.0,0.0,4.0,4.0,33.333332,,,,,,,,,,,,,,,,,,,,,,,,,,,,,,,,,,,,,,,,,,,,,,,,,,,,,,,,,,,,,,,,,,,,,,,,,,,,,,,,,,,,
1499,1645900011.098615,1645900011.110367,6.0,0.0,4305.641113000001,4632.820313,4026.1538090000004,4176.410156,4285.641113000001,11.0,1.0,15.0,,,,0.0,4.0,0.0,0.0,4.0,4.0,33.333332,,,,,,,,3.0,0.0,0.730877,0.160156,0.659424,0.07299800000000001,0.9511860000000001,-0.32910700000000004,-0.071778,-0.032319,-0.029944,-0.010758,1.0,0.0,0.0,,,,,,,,,,,,,,,,,,,,,,,,,,,,,,,,0.0,0.0,1.0,0.0,512.0,0.305127,14.512314000000002,36.672806,11.569474000000001,10.838275,2.940661,42.16967,69.555672,20.474937,28.032089000000003,23.582819,62.417182999999994,143.122345,131.175522,123.419357,23.240816,13.044983,21.669651,13.933608999999999,8.947995,6.36236,16.487572,17.935284,20.453863000000002,8.793087,3.86429
1500,1645900011.106428,1645900011.118182,7.0,0.0,4323.077147999999,4596.922852000001,4128.205078,4154.358886999999,4286.666504,450.0,1.0,15.0,,,,0.0,4.0,0.0,0.0,4.0,4.0,33.333332,,,,,,,,,,,,,,,,,,,,,,,,,,,,,,,,,,,,,,,,,,,,,,,,,,,,,,,,,,,,,,,,,,,,,,,,,,,,,,,,,,,,
1501,1645900011.1142411,1645900011.125997,8.0,0.0,4376.410156,4589.230957,4226.153809,4087.179443,4288.205078,450.0,1.0,15.0,,,,0.0,4.0,0.0,0.0,4.0,4.0,33.333332,,,,,,,,4.0,0.0,0.730877,0.160156,0.659424,0.07299800000000001,0.93019,-0.33105999999999997,-0.087892,-0.032358,-0.029782,-0.008901000000000001,,,,,,,,,,,,,,,,,,,,,,,,,,,,,,,,,,,,,,,,,,,,,,,,,,,,,,,,,,,,,,,,,
1502,1645900011.1220539,1645900011.133812,9.0,0.0,4352.307617,4595.897461,4243.589844,4111.282227000001,4252.307617,317.0,1.0,15.0,,,,0.0,4.0,0.0,0.0,4.0,4.0,33.333332,,,,,,,,,,,,,,,,,,,,,,,,,,,,,,,,,,,,,,,,,,,,,,,,,,,,,,,,,,,,,,,,,,,,,,,,,,,,,,,,,,,,
1503,1645900011.129867,1645900011.1416268,10.0,0.0,4324.615234000001,4588.717772999999,4192.820313,4142.05127,4243.077147999999,450.0,1.0,15.0,,,,0.0,4.0,0.0,0.0,4.0,4.0,33.333332,,,,,,,,5.0,0.0,0.730902,0.160156,0.659424,0.072754,0.9399559999999999,-0.342779,-0.086427,-0.032345,-0.029782,-0.007181,,,,,,,,,,,,,,,,,,,,,,,,,,,,,,,,,,,0.0,0.0,1.0,0.0,512.0,0.305127,,,,,,,,,,,,,,,,,,,,,,,,,
1504,1645900011.13768,1645900011.149542,11.0,0.0,4354.871582,4558.974121,4095.897461,4144.615234000001,4218.461426,16064.0,1.0,15.0,,,,0.0,4.0,0.0,0.0,4.0,4.0,33.333332,,,,,,,,,,,,,,,,,,,,,,,,,,,,,,,,,,,,,,,,,,,,,,,,,,,,,,,,,,,,,,,,,,,,,,,,,,,,,,,,,,,,
1505,1645900011.145493,1645900011.157357,12.0,0.0,4350.769043,4561.538574,4034.8718259999996,4164.615234000001,4184.102539,450.0,1.0,15.0,,,,0.0,4.0,0.0,0.0,4.0,4.0,33.333332,,,,,,,,6.0,0.0,0.7308479999999999,0.1604,0.659424,0.072754,0.95314,-0.323735,-0.078126,-0.03248,-0.029831,-0.008904,,,,,,,,,,,,,,,,,,,,,,,,,,,,,,,,,,,,,,,,,,,,,,,,,,,,,,,,,,,,,,,,,
1506,1645900011.153307,1645900011.1651711,13.0,0.0,4313.846191,4615.897461,4101.538574,4140.512695,4193.846191,450.0,1.0,15.0,,,,0.0,4.0,0.0,0.0,4.0,4.0,33.333332,,,,,,,,,,,,,,,,,,,,,,,,,,,,,,,,,,,,,,,,,,,,,,,,,,,,,,,,,,,,,,,,,,,,,,,,,,,,,,,,,,,,
1507,1645900011.16112,1645900011.172986,14.0,0.0,4333.333496,4640.0,4133.846191,4126.666504,4229.230957,450.0,1.0,15.0,,,,0.0,4.0,0.0,0.0,4.0,4.0,33.333332,,,,,,,,7.0,0.0,0.7308479999999999,0.1604,0.659424,0.072754,0.953628,-0.342779,-0.07715,-0.032503,-0.029827,-0.007232,,,,,,,,,,,,,,,,,,,,,,,,,,,,,,,,,,,0.0,0.0,1.0,0.0,512.0,0.305127,,,,,,,,,,,,,,,,,,,,,,,,,
1508,1645900011.168933,1645900011.180801,15.0,0.0,4355.384765999999,4584.615234000001,4163.077147999999,4167.692383,4248.717772999999,16064.0,1.0,15.0,,,,0.0,4.0,0.0,0.0,4.0,4.0,33.333332,,,,,,,,,,,,,,,,,,,,,,,,,,,,,,,,,,,,,,,,,,,,,,,,,,,,,,,,,,,,,,,,,,,,,,,,,,,,,,,,,,,,
1509,1645900011.1767461,1645900011.188616,16.0,0.0,4353.333496,4561.538574,4261.538574,4149.743652,4286.153809,0.0,1.0,15.0,,,,0.0,4.0,0.0,0.0,4.0,4.0,33.333332,,,,,,,,8.0,0.0,0.7308720000000001,0.1604,0.659424,0.07251,0.9399559999999999,-0.337407,-0.08447400000000001,-0.029301999999999998,-0.029969,-0.008853,,,,,,,,,,,,,,,,,,,,,,,,,,,,,,,,,,,,,,,,,,,,,,,,,,,,,,,,,,,,,,,,,
1510,1645900011.1845589,1645900011.1964312,17.0,0.0,4331.282227000001,4623.077147999999,4283.077147999999,4074.8718259999996,4301.538574,0.0,1.0,15.0,,,,0.0,4.0,0.0,0.0,4.0,4.0,33.333332,,,,,,,,,,,,,,,,,,,,,,,,,,,,,,,,,,,,,,,,,,,,,,,,,,,,,,,,,,,,,,,,,,,,,,,,,,,,,,,,,,,,
1511,1645900011.192372,1645900011.204246,18.0,0.0,4288.717772999999,4640.0,4097.436035,4121.025879,4283.589844,0.0,1.0,15.0,,,,0.0,4.0,0.0,0.0,4.0,4.0,33.333332,,,,,,,,9.0,0.0,0.730819,0.160645,0.659424,0.07251,0.9423969999999999,-0.33350100000000005,-0.08105599999999999,-0.029741000000000004,-0.030097000000000002,-0.007186,,,,,,,,,,,,,,,,,,,,,,,,,,,,,,,,,,,0.0,0.0,1.0,0.0,512.0,0.305127,,,,,,,,,,,,,,,,,,,,,,,,,
1512,1645900011.200185,1645900011.212061,19.0,0.0,4266.666504,4553.846191,4103.077147999999,4213.846191,4254.871582,0.0,1.0,15.0,,,,0.0,4.0,0.0,0.0,4.0,4.0,33.333332,,,,,,,,,,,,,,,,,,,,,,,,,,,,,,,,,,,,,,,,,,,,,,,,,,,,,,,,,,,,,,,,,,,,,,,,,,,,,,,,,,,,
1513,1645900011.207998,1645900011.219976,20.0,0.0,4330.769043,4597.436035,4283.077147999999,4188.205078,4254.871582,0.0,1.0,15.0,,,,0.0,4.0,0.0,0.0,4.0,4.0,33.333332,,,,,,,,10.0,0.0,0.731039,0.160645,0.65918,0.07251,0.9438620000000001,-0.326177,-0.075685,-0.029941000000000002,-0.030066000000000002,-0.00886,,,,,,,,,,,,,,,,,,,,,,,,,,,,,,,,,,,,,,,,,,,,,,,,,,,,,,,,,,,,,,,,,
1514,1645900011.215811,1645900011.22779,21.0,0.0,4372.307617,4706.666504,4292.820313,4134.358886999999,4266.153809,0.0,1.0,15.0,,,,0.0,4.0,0.0,0.0,4.0,4.0,33.333332,,,,,,,,,,,,,,,,,,,,,,,,,,,,,,,,,,,,,,,,,,,,,,,,,,,,,,,,,,,,,,,,,,,,,,,,,,,,,,,,,,,,
1515,1645900011.223624,1645900011.235605,22.0,0.0,4346.153809,4644.102539,4190.256348,4150.769043,4268.717772999999,0.0,1.0,15.0,,,,0.0,4.0,0.0,0.0,4.0,4.0,33.333332,1.0,16.666666,2.0,0.0,0.0,2.0,2.0,11.0,0.0,0.731015,0.160645,0.65918,0.072754,0.9423969999999999,-0.330571,-0.087404,-0.030316000000000003,-0.030184,-0.007291,1.0,0.0,0.0,,,,,,,,,,,,,,,,,,,,,,,,,,,,,,,,0.0,0.0,32.0,0.028269,1.0,0.0,16.125529999999998,40.092265999999995,12.42653,11.938919,3.1522419999999998,39.456123,77.96067,24.255499,28.847626,25.167179,41.689091,129.06445300000001,109.574074,147.371307,23.683138,11.584266,20.05109,16.841852,9.261536999999999,6.757839,13.600798999999999,18.694520999999998,19.176666,9.546111999999999,3.90613
1516,1645900011.231437,1645900011.24342,23.0,0.0,4346.153809,4602.563965,4170.769043,4133.333496,4270.256348,0.0,1.0,15.0,,,,0.0,4.0,0.0,0.0,4.0,4.0,33.333332,,,,,,,,,,,,,,,,,,,,,,,,,,,,,,,,,,,,,,,,,,,,,,,,,,,,,,,,,,,,,,,,,,,,,,,,,,,,,,,,,,,,
1517,1645900011.23925,1645900011.251235,24.0,0.0,4373.333496,4703.589844,4108.717772999999,4095.897461,4267.179688,0.0,1.0,15.0,,,,0.0,4.0,0.0,0.0,4.0,4.0,33.333332,,,,,,,,12.0,0.0,0.731015,0.160645,0.65918,0.072754,0.95021,-0.325689,-0.079591,-0.030507,-0.030144999999999998,-0.009003,,,,,,,,,,,,,,,,,,,,,,,,,,,,,,,,,,,,,,,,,,,,,,,,,,,,,,,,,,,,,,,,,
1518,1645900011.247064,1645900011.25905,25.0,0.0,4341.025879,4710.769043,3978.461426,4114.871582,4237.94873,0.0,1.0,15.0,,,,0.0,4.0,0.0,0.0,4.0,4.0,33.333332,,,,,,,,,,,,,,,,,,,,,,,,,,,,,,,,,,,,,,,,,,,,,,,,,,,,,,,,,,,,,,,,,,,,,,,,,,,,,,,,,,,,
1519,1645900011.2548769,1645900011.266865,26.0,0.0,4310.769043,4609.230957,4070.256348,4088.718018,4227.179688,0.0,1.0,15.0,,,,0.0,4.0,0.0,0.0,4.0,4.0,33.333332,,,,,,,,13.0,0.0,0.7309899999999999,0.160645,0.65918,0.07299800000000001,0.9506979999999999,-0.342779,-0.078614,-0.030679,-0.030206,-0.007320999999999999,,,,,,,,,,,,,,,,,,,,,,,,,,,,,,,,,,,0.0,0.0,32.0,0.028269,1.0,0.0,,,,,,,,,,,,,,,,,,,,,,,,,
1520,1645900011.26269,1645900011.2746801,27.0,0.0,4347.179688,4620.512695,4267.179688,4034.8718259999996,4266.153809,0.0,1.0,15.0,,,,0.0,4.0,0.0,0.0,4.0,4.0,33.333332,,,,,,,,,,,,,,,,,,,,,,,,,,,,,,,,,,,,,,,,,,,,,,,,,,,,,,,,,,,,,,,,,,,,,,,,,,,,,,,,,,,,
1521,1645900011.270503,1645900011.282495,28.0,0.0,4352.820313,4649.230957,4245.128418,4096.922852000001,4274.358886999999,0.0,1.0,15.0,,,,0.0,4.0,0.0,0.0,4.0,4.0,33.333332,,,,,,,,14.0,0.0,0.730937,0.160889,0.65918,0.07299800000000001,0.949233,-0.33105999999999997,-0.08105599999999999,-0.030833999999999997,-0.030213,-0.009031,,,,,,,,,,,,,,,,,,,,,,,,,,,,,,,,,,,,,,,,,,,,,,,,,,,,,,,,,,,,,,,,,
1522,1645900011.278316,1645900011.290309,29.0,0.0,4315.897461,4583.589844,4080.0,4185.128418,4259.487305,0.0,1.0,15.0,,,,0.0,4.0,0.0,0.0,4.0,4.0,33.333332,,,,,,,,,,,,,,,,,,,,,,,,,,,,,,,,,,,,,,,,,,,,,,,,,,,,,,,,,,,,,,,,,,,,,,,,,,,,,,,,,,,,
1523,1645900011.286129,1645900011.298224,30.0,0.0,4292.820313,4574.871582,4072.820557,4177.436035,4238.974121,0.0,1.0,15.0,,,,0.0,4.0,0.0,0.0,4.0,4.0,33.333332,,,,,,,,15.0,0.0,0.731015,0.160645,0.65918,0.072754,0.95021,-0.325689,-0.079591,-0.031070999999999998,-0.03017,-0.007345999999999999,,,,,,,,,,,,,,,,,,,,,,,,,,,,,,,,,,,0.0,0.0,32.0,0.028269,1.0,0.0,,,,,,,,,,,,,,,,,,,,,,,,,
1524,1645900011.293942,1645900011.306039,31.0,0.0,4333.333496,4649.743652,4132.307617,4166.666504,4234.871582,0.0,1.0,15.0,,,,0.0,4.0,0.0,0.0,4.0,4.0,33.333332,,,,,,,,,,,,,,,,,,,,,,,,,,,,,,,,,,,,,,,,,,,,,,,,,,,,,,,,,,,,,,,,,,,,,,,,,,,,,,,,,,,,
1525,1645900011.3017552,1645900011.313854,32.0,0.0,4389.743652,4703.589844,4176.410156,4151.282227000001,4267.692383,0.0,1.0,15.0,,,,0.0,4.0,0.0,0.0,4.0,4.0,33.333332,,,,,,,,16.0,0.0,0.730937,0.160889,0.65918,0.07299800000000001,0.949233,-0.33105999999999997,-0.08105599999999999,-0.031186000000000002,-0.030181,-0.009053,,,,,,,,,,,,,,,,,,,,,,,,,,,,,,,,,,,,,,,,,,,,,,,,,,,,,,,,,,,,,,,,,
1526,1645900011.309568,1645900011.3216689,33.0,0.0,4351.282227000001,4674.358886999999,4153.846191,4133.846191,4296.410156,0.0,1.0,15.0,,,,0.0,4.0,0.0,0.0,4.0,4.0,33.333332,,,,,,,,,,,,,,,,,,,,,,,,,,,,,,,,,,,,,,,,,,,,,,,,,,,,,,,,,,,,,,,,,,,,,,,,,,,,,,,,,,,,
1527,1645900011.3173811,1645900011.329484,34.0,0.0,4265.641113000001,4593.333496,4130.256348,4160.512695,4263.077147999999,0.0,1.0,15.0,,,,0.0,4.0,0.0,0.0,4.0,4.0,33.333332,,,,,,,,17.0,0.0,0.730912,0.160889,0.65918,0.073242,0.9404440000000001,-0.33105999999999997,-0.083009,-0.03129,-0.030141,-0.007318000000000001,,,,,,,,,,,,,,,,,,,,,,,,,,,,,,,,,,,0.0,0.0,32.0,0.028269,1.0,0.0,,,,,,,,,,,,,,,,,,,,,,,,,
1528,1645900011.325194,1645900011.337299,35.0,0.0,4288.205078,4535.897461,4111.282227000001,4221.538574,4225.128418,0.0,1.0,15.0,,,,0.0,4.0,0.0,0.0,4.0,4.0,33.333332,,,,,,,,,,,,,,,,,,,,,,,,,,,,,,,,,,,,,,,,,,,,,,,,,,,,,,,,,,,,,,,,,,,,,,,,,,,,,,,,,,,,
1529,1645900011.333007,1645900011.345114,36.0,0.0,4337.436035,4524.615234000001,4219.487305,4229.743652,4217.94873,0.0,1.0,15.0,,,,0.0,4.0,0.0,0.0,4.0,4.0,33.333332,,,,,,,,18.0,0.0,0.730912,0.160889,0.65918,0.073242,0.940932,-0.343267,-0.07910299999999999,-0.031432999999999996,-0.030154000000000004,-0.008979000000000001,,,,,,,,,,,,,,,,,,,,,,,,,,,,,,,,,,,,,,,,,,,,,,,,,,,,,,,,,,,,,,,,,
1530,1645900011.3408198,1645900011.352928,37.0,0.0,4340.0,4547.692383,4363.077147999999,4171.794922,4244.102539,0.0,1.0,15.0,,,,0.0,4.0,0.0,0.0,4.0,4.0,33.333332,,,,,,,,,,,,,,,,,,,,,,,,,,,,,,,,,,,,,,,,,,,,,,,,,,,,,,,,,,,,,,,,,,,,,,,,,,,,,,,,,,,,
1531,1645900011.348634,1645900011.360743,38.0,0.0,4339.487305,4598.974121,4294.871582,4120.512695,4255.897461,0.0,1.0,15.0,,,,0.0,4.0,0.0,0.0,4.0,4.0,33.333332,,,,,,,,19.0,0.0,0.730912,0.160889,0.65918,0.073242,0.95314,-0.32422399999999996,-0.080079,-0.031512,-0.030166000000000002,-0.007348,1.0,0.0,0.0,,,,,,,,,,,,,,,,,,,,,,,,,,,,,,,,0.0,0.0,32.0,0.021269999999999997,1.0,0.0,15.673487,40.203884,13.274263000000001,13.206917,3.440381,35.173851,81.41024,32.172215,28.253290000000003,25.841314,28.350196999999998,107.10781899999999,87.3405,164.67533899999998,24.450718,10.202766,17.568937,19.394838,9.527969,7.064038,12.484399,20.31469,17.199642,10.482591000000001,3.928807
1532,1645900011.356447,1645900011.368658,39.0,0.0,4325.641113000001,4652.307617,4132.820313,4141.025879,4244.615234000001,0.0,1.0,15.0,,,,0.0,4.0,0.0,0.0,4.0,4.0,33.333332,,,,,,,,,,,,,,,,,,,,,,,,,,,,,,,,,,,,,,,,,,,,,,,,,,,,,,,,,,,,,,,,,,,,,,,,,,,,,,,,,,,,
