,Timestamp,OriginalTimestamp,EEG.Counter,EEG.Interpolated,EEG.AF3,EEG.T7,EEG.Pz,EEG.T8,EEG.AF4,EEG.RawCq,EEG.Battery,EEG.BatteryPercent,MarkerIndex,MarkerType,MarkerValueInt,EEG.MarkerHardware,CQ.AF3,CQ.T7,CQ.Pz,CQ.T8,CQ.AF4,CQ.Overall,EQ.SampleRateQuality,EQ.OVERALL,EQ.AF3,EQ.T7,EQ.Pz,EQ.T8,EQ.AF4,MOT.CounterMems,MOT.InterpolatedMems,MOT.Q0,MOT.Q1,MOT.Q2,MOT.Q3,MOT.AccX,MOT.AccY,MOT.AccZ,MOT.MagX,MOT.MagY,MOT.MagZ,MC.Action,MC.ActionPower,MC.IsActive,PM.Engagement.IsActive,PM.Engagement.Scaled,PM.Engagement.Raw,PM.Engagement.Min,PM.Engagement.Max,PM.Excitement.IsActive,PM.Excitement.Scaled,PM.Excitement.Raw,PM.Excitement.Min,PM.Excitement.Max,PM.LongTermExcitement,PM.Stress.IsActive,PM.Stress.Scaled,PM.Stress.Raw,PM.Stress.Min,PM.Stress.Max,PM.Relaxation.IsActive,PM.Relaxation.Scaled,PM.Relaxation.Raw,PM.Relaxation.Min,PM.Relaxation.Max,PM.Interest.IsActive,PM.Interest.Scaled,PM.Interest.Raw,PM.Interest.Min,PM.Interest.Max,PM.Focus.IsActive,PM.Focus.Scaled,PM.Focus.Raw,PM.Focus.Min,PM.Focus.Max,FE.BlinkWink,FE.HorizontalEyesDirection,FE.UpperFaceAction,FE.UpperFaceActionPower,FE.LowerFaceAction,FE.LowerFaceActionPower,POW.AF3.Theta,POW.AF3.Alpha,POW.AF3.BetaL,POW.AF3.BetaH,POW.AF3.Gamma,POW.T7.Theta,POW.T7.Alpha,POW.T7.BetaL,POW.T7.BetaH,POW.T7.Gamma,POW.Pz.Theta,POW.Pz.Alpha,POW.Pz.BetaL,POW.Pz.BetaH,POW.Pz.Gamma,POW.T8.Theta,POW.T8.Alpha,POW.T8.BetaL,POW.T8.BetaH,POW.T8.Gamma,POW.AF4.Theta,POW.AF4.Alpha,POW.AF4.BetaL,POW.AF4.BetaH,POW.AF4.Gamma
33008,1645900257.280968,1645900257.34208,27.0,0.0,4297.436035,4522.563965,4196.922852000001,4132.820313,4237.94873,0.0,1.0,15.0,43.0,1.0,2.0,0.0,4.0,1.0,1.0,4.0,4.0,50.0,,,,,,,,,,,,,,,,,,,,,,,,,,,,,,,,,,,,,,,,,,,,,,,,,,,,,,,,,,,,,,,,,,,,,,,,,,,,,,,,,,,,
33009,1645900257.2887812,1645900257.349995,28.0,0.0,4300.0,4522.05127,4245.128418,4115.384765999999,4298.974121,0.0,1.0,15.0,,,,0.0,4.0,1.0,1.0,4.0,4.0,50.0,,,,,,,,14.0,0.0,0.717592,0.19751,0.658691,0.11035199999999999,0.898451,-0.440436,-0.061524,-0.029344,-0.034031,-0.011174,,,,,,,,,,,,,,,,,,,,,,,,,,,,,,,,,,,,,,,,,,,,,,,,,,,,,,,,,,,,,,,,,
33010,1645900257.296594,1645900257.35781,29.0,0.0,4311.794922,4455.897461,4260.0,4140.0,4296.410156,0.0,1.0,15.0,,,,0.0,4.0,1.0,1.0,4.0,4.0,50.0,,,,,,,,,,,,,,,,,,,,,,,,,,,,,,,,,,,,,,,,,,,,,,,,,,,,,,,,,,,,,,,,,,,,,,,,,,,,,,,,,,,,
33011,1645900257.3044071,1645900257.365624,30.0,0.0,4336.922852000001,4504.615234000001,4246.666504,4142.563965,4254.358886999999,0.0,1.0,15.0,,,,0.0,4.0,1.0,1.0,4.0,4.0,50.0,,,,,,,,15.0,0.0,0.717562,0.19775399999999999,0.658691,0.110107,0.9087049999999999,-0.435065,-0.05712999999999999,-0.029681,-0.034046,-0.012303,,,,,,,,,,,,,,,,,,,,,,,,,,,,,,,,,,,0.0,0.0,1.0,0.0,512.0,0.413783,,,,,,,,,,,,,,,,,,,,,,,,,
33012,1645900257.3122199,1645900257.373439,31.0,0.0,4342.05127,4562.05127,4247.692383,4146.153809,4229.743652,0.0,1.0,15.0,,,,0.0,4.0,1.0,1.0,4.0,4.0,50.0,,,,,,,,,,,,,,,,,,,,,,,,,,,,,,,,,,,,,,,,,,,,,,,,,,,,,,,,,,,,,,,,,,,,,,,,,,,,,,,,,,,,
33013,1645900257.320034,1645900257.381254,32.0,0.0,4324.102539,4525.128418,4287.179688,4131.282227000001,4238.461426,0.0,1.0,15.0,,,,0.0,4.0,1.0,1.0,4.0,4.0,50.0,,,,,,,,16.0,0.0,0.717562,0.19775399999999999,0.658691,0.110107,0.905776,-0.423835,-0.058595,-0.029838,-0.034108,-0.010145,,,,,,,,,,,,,,,,,,,,,,,,,,,,,,,,,,,,,,,,,,,,,,,,,,,,,,,,,,,,,,,,,
33014,1645900257.327847,1645900257.389068,33.0,0.0,4300.0,4470.256348,4205.641113000001,4164.102539,4267.692383,0.0,1.0,15.0,,,,0.0,4.0,1.0,1.0,4.0,4.0,50.0,,,,,,,,,,,,,,,,,,,,,,,,,,,,,,,,,,,,,,,,,,,,,,,,,,,,,,,,,,,,,,,,,,,,,,,,,,,,,,,,,,,,
33015,1645900257.33566,1645900257.396883,34.0,0.0,4290.256348,4446.153809,4168.717772999999,4224.102539,4253.333496,0.0,1.0,15.0,,,,0.0,4.0,1.0,1.0,4.0,4.0,50.0,,,,,,,,17.0,0.0,0.717562,0.19775399999999999,0.658691,0.110107,0.9004040000000001,-0.43653000000000003,-0.054688,-0.030077,-0.034164,-0.011376,,,,,,,,,,,,,,,,,,,,,,,,,,,,,,,,,,,0.0,0.0,1.0,0.0,512.0,0.413783,,,,,,,,,,,,,,,,,,,,,,,,,
33016,1645900257.343473,1645900257.4046972,35.0,0.0,4297.436035,4482.563965,4238.974121,4194.871582,4249.743652,0.0,1.0,15.0,,,,0.0,4.0,1.0,1.0,4.0,4.0,50.0,,,,,,,,,,,,,,,,,,,,,,,,,,,,,,,,,,,,,,,,,,,,,,,,,,,,,,,,,,,,,,,,,,,,,,,,,,,,,,,,,,,,
33017,1645900257.351286,1645900257.4125118,36.0,0.0,4278.974121,4532.820313,4185.128418,4146.153809,4291.794922,0.0,1.0,15.0,,,,0.0,4.0,1.0,1.0,4.0,4.0,50.0,,,,,,,,18.0,0.0,0.717562,0.19775399999999999,0.658691,0.110107,0.9116350000000001,-0.423835,-0.053223,-0.030341000000000003,-0.034068,-0.012485,,,,,,,,,,,,,,,,,,,,,,,,,,,,,,,,,,,,,,,,,,,,,,,,,,,,,,,,,,,,,,,,,
33018,1645900257.359099,1645900257.420327,37.0,0.0,4296.922852000001,4540.512695,4056.4101560000004,4180.0,4315.897461,0.0,1.0,15.0,,,,0.0,4.0,1.0,1.0,4.0,4.0,50.0,,,,,,,,,,,,,,,,,,,,,,,,,,,,,,,,,,,,,,,,,,,,,,,,,,,,,,,,,,,,,,,,,,,,,,,,,,,,,,,,,,,,
33019,1645900257.366912,1645900257.428042,38.0,0.0,4362.05127,4587.692383,4068.205078,4149.230957,4269.230957,0.0,1.0,15.0,,,,0.0,4.0,1.0,1.0,4.0,4.0,50.0,,,,,,,,19.0,0.0,0.717562,0.19775399999999999,0.658691,0.110107,0.922377,-0.431159,-0.044433999999999994,-0.030432,-0.034079000000000005,-0.010406,1.0,0.0,0.0,,,,,,,,,,,,,,,,,,,,,,,,,,,,,,,,0.0,0.0,32.0,0.026246,1.0,0.0,2.8408740000000003,20.522209,10.382802,6.4315809999999995,3.2873449999999997,43.342746999999996,93.42028,46.957298,43.741489,23.791185000000002,41.02187,49.670837,28.994356,74.1604,28.180008,11.500031,24.572563,13.652218,17.426765,8.381564,6.762841000000001,13.143298000000001,8.83463,8.637922,3.6475800000000005
33020,1645900257.374725,1645900257.435856,39.0,0.0,4360.0,4637.94873,4115.384765999999,4072.3076170000004,4241.025879,0.0,1.0,15.0,,,,0.0,4.0,1.0,1.0,4.0,4.0,50.0,,,,,,,,,,,,,,,,,,,,,,,,,,,,,,,,,,,,,,,,,,,,,,,,,,,,,,,,,,,,,,,,,,,,,,,,,,,,,,,,,,,,
33021,1645900257.382538,1645900257.443671,40.0,0.0,4290.769043,4544.102539,4085.1281740000004,4126.666504,4237.94873,0.0,1.0,15.0,,,,0.0,4.0,1.0,1.0,4.0,4.0,50.0,,,,,,,,20.0,0.0,0.717562,0.19775399999999999,0.658691,0.110107,0.9038219999999999,-0.435065,-0.050294,-0.030562,-0.034089999999999995,-0.011661,,,,,,,,,,,,,,,,,,,,,,,,,,,,,,,,,,,,,,,,,,,,,,,,,,,,,,,,,,,,,,,,,
33022,1645900257.390351,1645900257.451485,41.0,0.0,4303.077147999999,4448.717772999999,4188.205078,4180.0,4250.256348,0.0,1.0,15.0,,,,0.0,4.0,1.0,1.0,4.0,4.0,50.0,,,,,,,,,,,,,,,,,,,,,,,,,,,,,,,,,,,,,,,,,,,,,,,,,,,,,,,,,,,,,,,,,,,,,,,,,,,,,,,,,,,,
33023,1645900257.398164,1645900257.4593,42.0,0.0,4321.538574,4433.846191,4320.512695,4122.05127,4273.846191,0.0,1.0,15.0,,,,0.0,4.0,1.0,1.0,4.0,4.0,50.0,,,,,,,,21.0,0.0,0.717562,0.19775399999999999,0.658691,0.110107,0.9155409999999999,-0.435065,-0.050294,-0.030777999999999996,-0.034147000000000004,-0.012740999999999999,,,,,,,,,,,,,,,,,,,,,,,,,,,,,,,,,,,0.0,0.0,32.0,0.026246,1.0,0.0,,,,,,,,,,,,,,,,,,,,,,,,,
33024,1645900257.405977,1645900257.467115,43.0,0.0,4283.077147999999,4337.94873,4117.94873,4133.846191,4213.846191,0.0,1.0,15.0,,,,0.0,4.0,1.0,1.0,4.0,4.0,50.0,,,,,,,,,,,,,,,,,,,,,,,,,,,,,,,,,,,,,,,,,,,,,,,,,,,,,,,,,,,,,,,,,,,,,,,,,,,,,,,,,,,,
33025,1645900257.413791,1645900257.4749289,44.0,0.0,4320.0,4362.563965,3952.820557,4160.512695,4211.282227000001,0.0,1.0,15.0,,,,0.0,4.0,1.0,1.0,4.0,4.0,50.0,,,,,,,,22.0,0.0,0.717525,0.19775399999999999,0.658691,0.11035199999999999,0.9131,-0.428717,-0.051759000000000006,-0.030971,-0.0342,-0.013713,,,,,,,,,,,,,,,,,,,,,,,,,,,,,,,,,,,,,,,,,,,,,,,,,,,,,,,,,,,,,,,,,
33026,1645900257.421604,1645900257.482744,45.0,0.0,4340.512695,4498.974121,4228.717772999999,4128.205078,4310.256348,0.0,1.0,15.0,,,,0.0,4.0,1.0,1.0,4.0,4.0,50.0,,,,,,,,,,,,,,,,,,,,,,,,,,,,,,,,,,,,,,,,,,,,,,,,,,,,,,,,,,,,,,,,,,,,,,,,,,,,,,,,,,,,
33027,1645900257.429417,1645900257.490559,46.0,0.0,4321.025879,4542.05127,4352.820313,4141.538574,4336.922852000001,0.0,1.0,15.0,,,,0.0,4.0,1.0,1.0,4.0,4.0,50.0,,,,,,,,23.0,0.0,0.717525,0.19775399999999999,0.658691,0.11035199999999999,0.914565,-0.42969399999999996,-0.055177,-0.031195,-0.034149,-0.014783000000000001,,,,,,,,,,,,,,,,,,,,,,,,,,,,,,,,,,,0.0,0.0,32.0,0.026246,1.0,0.0,,,,,,,,,,,,,,,,,,,,,,,,,
33028,1645900257.43723,1645900257.498373,47.0,0.0,4324.102539,4574.358886999999,4250.256348,4142.563965,4296.922852000001,0.0,1.0,15.0,,,,0.0,4.0,1.0,1.0,4.0,4.0,50.0,,,,,,,,,,,,,,,,,,,,,,,,,,,,,,,,,,,,,,,,,,,,,,,,,,,,,,,,,,,,,,,,,,,,,,,,,,,,,,,,,,,,
33029,1645900257.445043,1645900257.506088,48.0,0.0,4349.230957,4598.461426,4236.922852000001,4130.769043,4278.974121,0.0,1.0,15.0,,,,0.0,4.0,1.0,1.0,4.0,4.0,50.0,,,,,,,,24.0,0.0,0.717525,0.19775399999999999,0.658691,0.11035199999999999,0.9038219999999999,-0.44434300000000004,-0.061036,-0.028124,-0.034102999999999994,-0.012426000000000001,,,,,,,,,,,,,,,,,,,,,,,,,,,,,,,,,,,,,,,,,,,,,,,,,,,,,,,,,,,,,,,,,
33030,1645900257.452856,1645900257.513903,49.0,0.0,4367.692383,4627.692383,4303.589844,4115.897461,4272.307617,0.0,1.0,15.0,,,,0.0,4.0,1.0,1.0,4.0,4.0,50.0,,,,,,,,,,,,,,,,,,,,,,,,,,,,,,,,,,,,,,,,,,,,,,,,,,,,,,,,,,,,,,,,,,,,,,,,,,,,,,,,,,,,
33031,1645900257.460669,1645900257.521717,50.0,0.0,4335.897461,4565.641113000001,4225.641113000001,4147.179688,4265.128418,0.0,1.0,15.0,,,,0.0,4.0,1.0,1.0,4.0,4.0,50.0,,,,,,,,25.0,0.0,0.717525,0.19775399999999999,0.658691,0.11035199999999999,0.904799,-0.442878,-0.055665,-0.028730000000000002,-0.034111,-0.013478,,,,,,,,,,,,,,,,,,,,,,,,,,,,,,,,,,,0.0,0.0,32.0,0.026246,1.0,0.0,,,,,,,,,,,,,,,,,,,,,,,,,
33032,1645900257.468482,1645900257.529532,51.0,0.0,4310.256348,4468.717772999999,4208.205078,4201.538574,4249.743652,0.0,1.0,15.0,,,,0.0,4.0,1.0,1.0,4.0,4.0,50.0,,,,,,,,,,,,,,,,,,,,,,,,,,,,,,,,,,,,,,,,,,,,,,,,,,,,,,,,,,,,,,,,,,,,,,,,,,,,,,,,,,,,
33033,1645900257.476295,1645900257.537347,52.0,0.0,4334.871582,4518.974121,4314.871582,4209.743652,4251.794922,0.0,1.0,15.0,,,,0.0,4.0,1.0,1.0,4.0,4.0,50.0,,,,,,,,26.0,0.0,0.717457,0.197998,0.658691,0.11035199999999999,0.898451,-0.446296,-0.059083000000000004,-0.029079,-0.034069,-0.014474,,,,,,,,,,,,,,,,,,,,,,,,,,,,,,,,,,,,,,,,,,,,,,,,,,,,,,,,,,,,,,,,,
33034,1645900257.484108,1645900257.545161,53.0,0.0,4315.384765999999,4542.05127,4283.077147999999,4184.102539,4242.05127,0.0,1.0,15.0,,,,0.0,4.0,1.0,1.0,4.0,4.0,50.0,,,,,,,,,,,,,,,,,,,,,,,,,,,,,,,,,,,,,,,,,,,,,,,,,,,,,,,,,,,,,,,,,,,,,,,,,,,,,,,,,,,,
33035,1645900257.4919212,1645900257.552976,54.0,0.0,4274.871582,4532.307617,4196.410156,4160.512695,4244.102539,0.0,1.0,15.0,,,,0.0,4.0,1.0,1.0,4.0,4.0,50.0,,,,,,,,27.0,0.0,0.717457,0.197998,0.658691,0.11035199999999999,0.9160299999999999,-0.427253,-0.058106,-0.029394,-0.03408,-0.012148,1.0,0.0,0.0,,,,,,,,,,,,,,,,,,,,,,,,,,,,,,,,0.0,0.0,32.0,0.025337000000000002,1.0,0.0,2.783052,19.757893,12.352466999999999,5.760851000000001,3.035027,53.255584999999996,94.648338,54.394397999999995,40.515041,18.392366,53.796733999999994,52.910934,37.460991,70.60799399999999,24.176743,12.524515,24.996861,15.142067,14.301673000000001,7.294049,6.513662999999999,13.249479000000001,10.109877000000001,7.972198,2.7854919999999996
33036,1645900257.4997349,1645900257.560891,55.0,0.0,4276.410156,4552.307617,4186.666504,4146.153809,4250.769043,0.0,1.0,15.0,,,,0.0,4.0,1.0,1.0,4.0,4.0,50.0,,,,,,,,,,,,,,,,,,,,,,,,,,,,,,,,,,,,,,,,,,,,,,,,,,,,,,,,,,,,,,,,,,,,,,,,,,,,,,,,,,,,
33037,1645900257.507548,1645900257.568706,56.0,0.0,4294.358886999999,4550.769043,4143.077147999999,4128.717772999999,4253.333496,0.0,1.0,15.0,,,,0.0,4.0,1.0,1.0,4.0,4.0,50.0,,,,,,,,28.0,0.0,0.717525,0.19775399999999999,0.658691,0.11035199999999999,0.893568,-0.415534,-0.045899,-0.026504000000000003,-0.034138999999999996,-0.013179,,,,,,,,,,,,,,,,,,,,,,,,,,,,,,,,,,,,,,,,,,,,,,,,,,,,,,,,,,,,,,,,,
33038,1645900257.5153608,1645900257.57652,57.0,0.0,4288.717772999999,4567.179688,4091.281982,4119.487305,4258.461426,0.0,1.0,15.0,,,,0.0,4.0,1.0,1.0,4.0,4.0,50.0,,,,,,,,,,,,,,,,,,,,,,,,,,,,,,,,,,,,,,,,,,,,,,,,,,,,,,,,,,,,,,,,,,,,,,,,,,,,,,,,,,,,
33039,1645900257.523174,1645900257.5843349,58.0,0.0,4335.384765999999,4662.563965,4074.8718259999996,4107.692383,4282.05127,0.0,1.0,15.0,,,,0.0,4.0,1.0,1.0,4.0,4.0,50.0,,,,,,,,29.0,0.0,0.717525,0.19775399999999999,0.658691,0.11035199999999999,0.9126120000000001,-0.435065,-0.057617999999999996,-0.023902,-0.03429,-0.014107,,,,,,,,,,,,,,,,,,,,,,,,,,,,,,,,,,,0.0,0.0,32.0,0.025337000000000002,1.0,0.0,,,,,,,,,,,,,,,,,,,,,,,,,
33040,1645900257.530987,1645900257.59215,59.0,0.0,4356.410156,4666.153809,4085.641113,4118.974121,4299.487305,0.0,1.0,15.0,,,,0.0,4.0,1.0,1.0,4.0,4.0,50.0,,,,,,,,,,,,,,,,,,,,,,,,,,,,,,,,,,,,,,,,,,,,,,,,,,,,,,,,,,,,,,,,,,,,,,,,,,,,,,,,,,,,
33041,1645900257.5388,1645900257.599965,60.0,0.0,4290.256348,4515.384765999999,4182.563965,4195.384765999999,4260.0,0.0,1.0,15.0,,,,0.0,4.0,1.0,1.0,4.0,4.0,50.0,,,,,,,,30.0,0.0,0.717457,0.197998,0.658691,0.11035199999999999,0.901381,-0.43897200000000003,-0.067872,-0.024735,-0.034181,-0.014796,,,,,,,,,,,,,,,,,,,,,,,,,,,,,,,,,,,,,,,,,,,,,,,,,,,,,,,,,,,,,,,,,
33042,1645900257.546613,1645900257.60778,61.0,0.0,4288.717772999999,4535.384765999999,4245.641113000001,4183.589844,4270.769043,0.0,1.0,15.0,,,,0.0,4.0,1.0,1.0,4.0,4.0,50.0,,,,,,,,,,,,,,,,,,,,,,,,,,,,,,,,,,,,,,,,,,,,,,,,,,,,,,,,,,,,,,,,,,,,,,,,,,,,,,,,,,,,
33043,1645900257.554426,1645900257.6155949,62.0,0.0,4323.077147999999,4620.0,4220.512695,4084.102539,4306.153809,0.0,1.0,15.0,,,,0.0,4.0,1.0,1.0,4.0,4.0,50.0,,,,,,,,31.0,0.0,0.71742,0.197998,0.658691,0.110596,0.9052870000000001,-0.43262399999999995,-0.053712,-0.025581,-0.034181,-0.015562999999999999,,,,,,,,,,,,,,,,,,,,,,,,,,,,,,,,,,,0.0,0.0,32.0,0.025337000000000002,1.0,0.0,,,,,,,,,,,,,,,,,,,,,,,,,
33044,1645900257.5622392,1645900257.62341,63.0,0.0,4342.05127,4565.641113000001,4168.205078,4090.7692869999996,4275.384765999999,0.0,1.0,15.0,,,,0.0,4.0,1.0,1.0,4.0,4.0,50.0,,,,,,,,,,,,,,,,,,,,,,,,,,,,,,,,,,,,,,,,,,,,,,,,,,,,,,,,,,,,,,,,,,,,,,,,,,,,,,,,,,,,
33045,1645900257.570052,1645900257.631225,64.0,0.0,4370.769043,4577.94873,4224.102539,4152.307617,4256.922852000001,450.0,1.0,15.0,,,,0.0,4.0,1.0,1.0,4.0,4.0,50.0,,,,,,,,32.0,0.0,0.717525,0.19775399999999999,0.658691,0.11035199999999999,0.9126120000000001,-0.435065,-0.057617999999999996,-0.026295,-0.034132,-0.013078999999999999,,,,,,,,,,,,,,,,,,,,,,,,,,,,,,,,,,,,,,,,,,,,,,,,,,,,,,,,,,,,,,,,,
33046,1645900257.5778651,1645900257.6391392,65.0,0.0,4376.922852000001,4565.128418,4285.128418,4175.384765999999,4281.025879,450.0,1.0,15.0,,,,0.0,4.0,1.0,1.0,4.0,4.0,50.0,,,,,,,,,,,,,,,,,,,,,,,,,,,,,,,,,,,,,,,,,,,,,,,,,,,,,,,,,,,,,,,,,,,,,,,,,,,,,,,,,,,,
33047,1645900257.5856779,1645900257.6469538,66.0,0.0,4334.871582,4442.563965,4281.025879,4168.205078,4250.769043,16182.0,1.0,15.0,,,,0.0,4.0,1.0,1.0,4.0,4.0,50.0,,,,,,,,33.0,0.0,0.71742,0.197998,0.658691,0.110596,0.9052870000000001,-0.43262399999999995,-0.053712,-0.026986000000000003,-0.034137,-0.014016999999999998,,,,,,,,,,,,,,,,,,,,,,,,,,,,,,,,,,,0.0,0.0,32.0,0.025337000000000002,1.0,0.0,,,,,,,,,,,,,,,,,,,,,,,,,
33048,1645900257.593491,1645900257.6548688,67.0,0.0,4303.077147999999,4428.205078,4163.077147999999,4177.94873,4235.897461,450.0,1.0,15.0,,,,0.0,4.0,0.0,0.0,2.0,4.0,16.666666,,,,,,,,,,,,,,,,,,,,,,,,,,,,,,,,,,,,,,,,,,,,,,,,,,,,,,,,,,,,,,,,,,,,,,,,,,,,,,,,,,,,
33049,1645900257.6013038,1645900257.662684,68.0,0.0,4301.025879,4534.871582,4154.358886999999,4189.743652,4284.615234000001,2.0,1.0,15.0,,,,0.0,4.0,0.0,0.0,2.0,4.0,16.666666,,,,,,,,34.0,0.0,0.71742,0.197998,0.658691,0.110596,0.8989389999999999,-0.43994799999999995,-0.059571000000000006,-0.027558999999999997,-0.034043000000000004,-0.014861000000000001,,,,,,,,,,,,,,,,,,,,,,,,,,,,,,,,,,,,,,,,,,,,,,,,,,,,,,,,,,,,,,,,,
33050,1645900257.609118,1645900257.670499,69.0,0.0,4295.384765999999,4571.794922,4270.769043,4210.256348,4302.563965,450.0,1.0,15.0,,,,0.0,4.0,0.0,0.0,2.0,4.0,16.666666,,,,,,,,,,,,,,,,,,,,,,,,,,,,,,,,,,,,,,,,,,,,,,,,,,,,,,,,,,,,,,,,,,,,,,,,,,,,,,,,,,,,
33051,1645900257.616931,1645900257.678314,70.0,0.0,4286.153809,4563.077147999999,4212.820313,4216.922852000001,4277.436035,13.0,1.0,15.0,,,,0.0,4.0,0.0,0.0,2.0,4.0,16.666666,,,,,,,,35.0,0.0,0.717681,0.197998,0.658447,0.11035199999999999,0.8999159999999999,-0.43213500000000005,-0.038575,-0.028026,-0.034106,-0.012496,1.0,0.0,0.0,,,,,,,,,,,,,,,,,,,,,,,,,,,,,,,,0.0,0.0,32.0,0.027262,1.0,0.0,3.149252,17.351799,13.972095000000001,5.283379,2.975374,65.15825699999999,89.024124,61.206210999999996,38.519703,14.188217999999999,77.629692,58.423389,45.258010999999996,63.422951,22.270301999999997,14.171457,24.706232,16.723717,12.072158,6.330869,6.596819,12.583977,11.232831,7.694493,2.238269
33052,1645900257.624744,1645900257.6861289,71.0,0.0,4295.384765999999,4600.512695,4105.128418,4163.077147999999,4304.102539,450.0,1.0,15.0,,,,0.0,4.0,0.0,0.0,2.0,4.0,16.666666,,,,,,,,,,,,,,,,,,,,,,,,,,,,,,,,,,,,,,,,,,,,,,,,,,,,,,,,,,,,,,,,,,,,,,,,,,,,,,,,,,,,
33053,1645900257.632557,1645900257.693944,72.0,0.0,4308.205078,4589.743652,4104.615234000001,4124.102539,4304.615234000001,450.0,1.0,15.0,,,,0.0,4.0,0.0,0.0,2.0,4.0,16.666666,,,,,,,,36.0,0.0,0.717681,0.197998,0.658447,0.11035199999999999,0.9150530000000001,-0.43897200000000003,-0.059571000000000006,-0.028592000000000003,-0.034065,-0.013590999999999999,,,,,,,,,,,,,,,,,,,,,,,,,,,,,,,,,,,,,,,,,,,,,,,,,,,,,,,,,,,,,,,,,
33054,1645900257.64037,1645900257.701758,73.0,0.0,4339.487305,4614.871582,4110.769043,4128.205078,4272.307617,219.0,1.0,15.0,,,,0.0,4.0,0.0,0.0,2.0,4.0,16.666666,,,,,,,,,,,,,,,,,,,,,,,,,,,,,,,,,,,,,,,,,,,,,,,,,,,,,,,,,,,,,,,,,,,,,,,,,,,,,,,,,,,,
33055,1645900257.648183,1645900257.709673,74.0,0.0,4331.282227000001,4630.769043,4136.410156,4120.0,4268.205078,450.0,1.0,15.0,,,,0.0,4.0,0.0,0.0,2.0,4.0,16.666666,,,,,,,,37.0,0.0,0.717681,0.197998,0.658447,0.11035199999999999,0.9004040000000001,-0.44238999999999995,-0.060548000000000005,-0.028857999999999998,-0.034026999999999995,-0.011304,,,,,,,,,,,,,,,,,,,,,,,,,,,,,,,,,,,0.0,0.0,32.0,0.027262,1.0,0.0,,,,,,,,,,,,,,,,,,,,,,,,,
33056,1645900257.655996,1645900257.717488,75.0,0.0,4313.846191,4594.871582,4142.05127,4103.077147999999,4263.589844,16150.0,1.0,15.0,,,,0.0,4.0,0.0,0.0,2.0,4.0,16.666666,,,,,,,,,,,,,,,,,,,,,,,,,,,,,,,,,,,,,,,,,,,,,,,,,,,,,,,,,,,,,,,,,,,,,,,,,,,,,,,,,,,,
33057,1645900257.663809,1645900257.725303,76.0,0.0,4308.205078,4589.230957,4143.077147999999,4133.333496,4278.461426,450.0,1.0,15.0,,,,0.0,4.0,0.0,0.0,2.0,4.0,16.666666,,,,,,,,38.0,0.0,0.7176140000000001,0.198242,0.658447,0.11035199999999999,0.897475,-0.446296,-0.062501,-0.029244,-0.034091,-0.009197,,,,,,,,,,,,,,,,,,,,,,,,,,,,,,,,,,,,,,,,,,,,,,,,,,,,,,,,,,,,,,,,,
33058,1645900257.671622,1645900257.733118,77.0,0.0,4307.179688,4562.05127,4155.897461,4199.487305,4271.282227000001,450.0,1.0,15.0,,,,0.0,4.0,0.0,0.0,2.0,4.0,16.666666,,,,,,,,,,,,,,,,,,,,,,,,,,,,,,,,,,,,,,,,,,,,,,,,,,,,,,,,,,,,,,,,,,,,,,,,,,,,,,,,,,,,
33059,1645900257.679435,1645900257.740933,78.0,0.0,4321.025879,4586.666504,4132.307617,4191.282227000001,4269.230957,450.0,1.0,15.0,,,,0.0,4.0,0.0,0.0,2.0,4.0,16.666666,,,,,,,,39.0,0.0,0.7176140000000001,0.198242,0.658447,0.11035199999999999,0.903334,-0.44971400000000006,-0.047363999999999996,-0.029542000000000002,-0.0341,-0.010572,,,,,,,,,,,,,,,,,,,,,,,,,,,,,,,,,,,0.0,0.0,32.0,0.027262,1.0,0.0,,,,,,,,,,,,,,,,,,,,,,,,,
33060,1645900257.687248,1645900257.748748,79.0,0.0,4284.102539,4593.333496,4151.794922,4169.230957,4280.512695,16150.0,1.0,15.0,,,,0.0,4.0,0.0,0.0,2.0,4.0,16.666666,,,,,,,,,,,,,,,,,,,,,,,,,,,,,,,,,,,,,,,,,,,,,,,,,,,,,,,,,,,,,,,,,,,,,,,,,,,,,,,,,,,,
33061,1645900257.695062,1645900257.7565632,80.0,0.0,4280.512695,4603.589844,4196.922852000001,4144.615234000001,4294.871582,450.0,1.0,15.0,,,,0.0,4.0,0.0,0.0,2.0,4.0,16.666666,,,,,,,,40.0,0.0,0.717838,0.198242,0.658203,0.11035199999999999,0.904799,-0.43408900000000006,-0.071778,-0.029811,-0.034011,-0.011761,,,,,,,,,,,,,,,,,,,,,,,,,,,,,,,,,,,,,,,,,,,,,,,,,,,,,,,,,,,,,,,,,
33062,1645900257.702875,1645900257.7643769,81.0,0.0,4291.794922,4630.256348,4205.641113000001,4098.461426,4295.384765999999,450.0,1.0,15.0,,,,0.0,4.0,0.0,0.0,2.0,4.0,16.666666,,,,,,,,,,,,,,,,,,,,,,,,,,,,,,,,,,,,,,,,,,,,,,,,,,,,,,,,,,,,,,,,,,,,,,,,,,,,,,,,,,,,
33063,1645900257.710688,1645900257.772192,82.0,0.0,4322.563965,4667.692383,4083.5898439999996,4112.820313,4295.384765999999,450.0,1.0,15.0,,,,0.0,4.0,0.0,0.0,2.0,4.0,16.666666,,,,,,,,41.0,0.0,0.717733,0.198486,0.658203,0.110596,0.910658,-0.435554,-0.062501,-0.030003,-0.034027999999999996,-0.009755,,,,,,,,,,,,,,,,,,,,,,,,,,,,,,,,,,,0.0,0.0,32.0,0.027262,1.0,0.0,,,,,,,,,,,,,,,,,,,,,,,,,
33064,1645900257.718501,1645900257.780107,83.0,0.0,4365.128418,4728.717772999999,4115.384765999999,4097.94873,4324.102539,16150.0,1.0,15.0,,,,0.0,4.0,0.0,0.0,2.0,4.0,16.666666,,,,,,,,,,,,,,,,,,,,,,,,,,,,,,,,,,,,,,,,,,,,,,,,,,,,,,,,,,,,,,,,,,,,,,,,,,,,,,,,,,,,
33065,1645900257.726314,1645900257.7879221,84.0,0.0,4353.846191,4604.615234000001,4188.717772999999,4113.333496,4316.410156,450.0,1.0,15.0,,,,0.0,4.0,0.0,0.0,2.0,4.0,16.666666,,,,,,,,42.0,0.0,0.717733,0.198486,0.658203,0.110596,0.8989389999999999,-0.43213500000000005,-0.0542,-0.030226,-0.034092000000000004,-0.007998,,,,,,,,,,,,,,,,,,,,,,,,,,,,,,,,,,,,,,,,,,,,,,,,,,,,,,,,,,,,,,,,,
33066,1645900257.734127,1645900257.795737,85.0,0.0,4347.179688,4474.871582,4204.102539,4162.05127,4258.461426,450.0,1.0,15.0,,,,0.0,4.0,0.0,0.0,2.0,4.0,16.666666,,,,,,,,,,,,,,,,,,,,,,,,,,,,,,,,,,,,,,,,,,,,,,,,,,,,,,,,,,,,,,,,,,,,,,,,,,,,,,,,,,,,
33067,1645900257.74194,1645900257.803552,86.0,0.0,4353.846191,4548.205078,4270.256348,4158.974121,4253.333496,450.0,1.0,15.0,,,,0.0,4.0,0.0,0.0,2.0,4.0,16.666666,1.0,16.666666,3.0,0.0,0.0,2.0,3.0,43.0,0.0,0.717695,0.198486,0.658203,0.11084000000000001,0.9077290000000001,-0.43799499999999997,-0.051759000000000006,-0.030524000000000003,-0.034052,-0.009493000000000001,1.0,0.0,0.0,,,,,,,,,,,,,,,,,,,,,,,,,,,,,,,,0.0,0.0,32.0,0.031945,1.0,0.0,3.825972,14.126764000000001,15.011916000000001,5.014492,3.061269,76.10041,80.130768,67.60112,37.245059999999995,11.67345,112.35183,66.900513,49.730644,53.948485999999995,22.399763,16.372723,23.893461,18.13789,10.929322,5.5853019999999995,6.932906,11.464309,12.258567999999999,7.732708000000001,2.076877
33068,1645900257.749753,1645900257.811367,87.0,0.0,4301.025879,4555.384765999999,4238.974121,4145.128418,4265.641113000001,16150.0,1.0,15.0,,,,0.0,4.0,0.0,0.0,2.0,4.0,16.666666,,,,,,,,,,,,,,,,,,,,,,,,,,,,,,,,,,,,,,,,,,,,,,,,,,,,,,,,,,,,,,,,,,,,,,,,,,,,,,,,,,,,
33069,1645900257.757566,1645900257.819181,88.0,0.0,4281.025879,4473.846191,4197.436035,4172.307617,4253.846191,450.0,1.0,15.0,,,,0.0,4.0,0.0,0.0,2.0,4.0,16.666666,,,,,,,,44.0,0.0,0.717763,0.198242,0.658203,0.11084000000000001,0.901869,-0.43799499999999997,-0.058595,-0.030645,-0.034162,-0.010839,,,,,,,,,,,,,,,,,,,,,,,,,,,,,,,,,,,,,,,,,,,,,,,,,,,,,,,,,,,,,,,,,
33070,1645900257.765379,1645900257.826996,89.0,0.0,4327.692383,4544.102539,4246.153809,4163.589844,4263.589844,450.0,1.0,15.0,,,,0.0,4.0,0.0,0.0,2.0,4.0,16.666666,,,,,,,,,,,,,,,,,,,,,,,,,,,,,,,,,,,,,,,,,,,,,,,,,,,,,,,,,,,,,,,,,,,,,,,,,,,,,,,,,,,,
33071,1645900257.773192,1645900257.834811,90.0,0.0,4325.641113000001,4623.589844,4191.282227000001,4125.128418,4278.974121,450.0,1.0,15.0,,,,0.0,4.0,0.0,0.0,2.0,4.0,16.666666,,,,,,,,45.0,0.0,0.717763,0.198242,0.658203,0.11084000000000001,0.9004040000000001,-0.438483,-0.052735000000000004,-0.030754000000000004,-0.034115,-0.011855,,,,,,,,,,,,,,,,,,,,,,,,,,,,,,,,,,,0.0,0.0,32.0,0.031945,1.0,0.0,,,,,,,,,,,,,,,,,,,,,,,,,
33072,1645900257.7810051,1645900257.842626,91.0,0.0,4301.025879,4582.05127,4054.8718259999996,4125.641113000001,4236.410156,16150.0,1.0,15.0,,,,0.0,4.0,0.0,0.0,2.0,4.0,16.666666,,,,,,,,,,,,,,,,,,,,,,,,,,,,,,,,,,,,,,,,,,,,,,,,,,,,,,,,,,,,,,,,,,,,,,,,,,,,,,,,,,,,
33073,1645900257.788818,1645900257.850541,92.0,0.0,4321.025879,4589.743652,4118.974121,4123.077147999999,4210.256348,450.0,1.0,15.0,,,,0.0,4.0,0.0,0.0,2.0,4.0,16.666666,,,,,,,,46.0,0.0,0.717763,0.198242,0.658203,0.11084000000000001,0.901381,-0.435554,-0.058106,-0.030999000000000002,-0.034219,-0.012915000000000001,,,,,,,,,,,,,,,,,,,,,,,,,,,,,,,,,,,,,,,,,,,,,,,,,,,,,,,,,,,,,,,,,
33074,1645900257.796631,1645900257.858356,93.0,0.0,4313.846191,4592.307617,4186.666504,4151.282227000001,4261.538574,450.0,1.0,15.0,,,,0.0,4.0,0.0,0.0,2.0,4.0,16.666666,,,,,,,,,,,,,,,,,,,,,,,,,,,,,,,,,,,,,,,,,,,,,,,,,,,,,,,,,,,,,,,,,,,,,,,,,,,,,,,,,,,,
33075,1645900257.804445,1645900257.8661711,94.0,0.0,4295.384765999999,4554.358886999999,4149.743652,4196.922852000001,4284.615234000001,450.0,1.0,15.0,,,,0.0,4.0,0.0,0.0,2.0,4.0,16.666666,,,,,,,,47.0,0.0,0.717763,0.198242,0.658203,0.11084000000000001,0.9004040000000001,-0.44190100000000004,-0.050782,-0.031024,-0.034362000000000004,-0.013821,,,,,,,,,,,,,,,,,,,,,,,,,,,,,,,,,,,0.0,0.0,32.0,0.031945,1.0,0.0,,,,,,,,,,,,,,,,,,,,,,,,,
33076,1645900257.812258,1645900257.873986,95.0,0.0,4331.794922,4604.615234000001,4190.769043,4172.820313,4292.307617,16150.0,1.0,15.0,,,,0.0,4.0,0.0,0.0,2.0,4.0,16.666666,,,,,,,,,,,,,,,,,,,,,,,,,,,,,,,,,,,,,,,,,,,,,,,,,,,,,,,,,,,,,,,,,,,,,,,,,,,,,,,,,,,,
33077,1645900257.820071,1645900257.8818,96.0,0.0,4365.128418,4692.820313,4210.256348,4129.230957,4298.461426,450.0,1.0,15.0,,,,0.0,4.0,0.0,0.0,2.0,4.0,16.666666,,,,,,,,48.0,0.0,0.717763,0.198242,0.658203,0.11084000000000001,0.9038219999999999,-0.43213500000000005,-0.060548000000000005,-0.031194,-0.034295,-0.011511,,,,,,,,,,,,,,,,,,,,,,,,,,,,,,,,,,,,,,,,,,,,,,,,,,,,,,,,,,,,,,,,,
33078,1645900257.827884,1645900257.889615,97.0,0.0,4384.615234000001,4773.333496,4103.589844,4112.307617,4311.282227000001,450.0,1.0,15.0,,,,0.0,4.0,0.0,0.0,2.0,4.0,16.666666,,,,,,,,,,,,,,,,,,,,,,,,,,,,,,,,,,,,,,,,,,,,,,,,,,,,,,,,,,,,,,,,,,,,,,,,,,,,,,,,,,,,
33079,1645900257.8356972,1645900257.8974302,98.0,0.0,4345.641113000001,4712.307617,4124.615234000001,4105.128418,4321.538574,450.0,1.0,15.0,,,,0.0,4.0,0.0,0.0,2.0,4.0,16.666666,,,,,,,,49.0,0.0,0.717763,0.198242,0.658203,0.11084000000000001,0.918959,-0.430671,-0.0542,-0.031346,-0.034381,-0.012606000000000001,,,,,,,,,,,,,,,,,,,,,,,,,,,,,,,,,,,0.0,0.0,32.0,0.031945,1.0,0.0,,,,,,,,,,,,,,,,,,,,,,,,,
33080,1645900257.84351,1645900257.9052448,99.0,0.0,4331.794922,4567.692383,4203.077147999999,4093.3332520000004,4322.05127,16150.0,1.0,15.0,,,,0.0,4.0,0.0,0.0,2.0,4.0,16.666666,,,,,,,,,,,,,,,,,,,,,,,,,,,,,,,,,,,,,,,,,,,,,,,,,,,,,,,,,,,,,,,,,,,,,,,,,,,,,,,,,,,,
33081,1645900257.8513231,1645900257.9131598,100.0,0.0,4363.077147999999,4628.205078,4185.641113000001,4081.538574,4307.179688,450.0,1.0,15.0,,,,0.0,4.0,0.0,0.0,2.0,4.0,16.666666,,,,,,,,50.0,0.0,0.717986,0.198242,0.657959,0.11084000000000001,0.8999159999999999,-0.431647,-0.062013,-0.031336,-0.034508,-0.013543000000000001,,,,,,,,,,,,,,,,,,,,,,,,,,,,,,,,,,,,,,,,,,,,,,,,,,,,,,,,,,,,,,,,,
33082,1645900257.8591359,1645900257.920975,101.0,0.0,4369.230957,4719.487305,4083.076904,4138.461426,4291.282227000001,450.0,1.0,15.0,,,,0.0,4.0,0.0,0.0,2.0,4.0,16.666666,,,,,,,,,,,,,,,,,,,,,,,,,,,,,,,,,,,,,,,,,,,,,,,,,,,,,,,,,,,,,,,,,,,,,,,,,,,,,,,,,,,,
33083,1645900257.866949,1645900257.92879,102.0,0.0,4381.025879,4689.230957,4096.922852000001,4159.487305,4287.692383,450.0,1.0,15.0,,,,0.0,4.0,0.0,0.0,2.0,4.0,16.666666,,,,,,,,51.0,0.0,0.717949,0.198242,0.657959,0.11108399999999999,0.908217,-0.437507,-0.062013,-0.031425,-0.034377,-0.011406999999999999,1.0,0.0,0.0,,,,,,,,,,,,,,,,,,,,,,,,,,,,,,,,0.0,0.0,1.0,0.0,512.0,0.49468199999999996,4.716891,11.116064999999999,15.402571,4.8993519999999995,3.2262459999999997,82.814339,72.27153,73.999268,35.866306,10.811732000000001,153.87886,77.31452900000001,49.148586,44.186401000000004,24.138544,18.862289,22.736603,19.237404,10.533238,5.129327,7.311724000000001,10.412175999999999,13.133389999999999,7.8677600000000005,2.28042
33084,1645900257.8747618,1645900257.936605,103.0,0.0,4401.538574,4697.436035,4135.384765999999,4121.025879,4287.692383,16150.0,1.0,15.0,,,,0.0,4.0,0.0,0.0,2.0,4.0,16.666666,,,,,,,,,,,,,,,,,,,,,,,,,,,,,,,,,,,,,,,,,,,,,,,,,,,,,,,,,,,,,,,,,,,,,,,,,,,,,,,,,,,,
33085,1645900257.882575,1645900257.944419,104.0,0.0,4404.102539,4769.743652,4084.615479,4103.077147999999,4292.307617,450.0,1.0,15.0,,,,0.0,4.0,0.0,0.0,2.0,4.0,16.666666,,,,,,,,52.0,0.0,0.717949,0.198242,0.657959,0.11108399999999999,0.905776,-0.422858,-0.053712,-0.031554,-0.034455,-0.012464,,,,,,,,,,,,,,,,,,,,,,,,,,,,,,,,,,,,,,,,,,,,,,,,,,,,,,,,,,,,,,,,,
33086,1645900257.890388,1645900257.952234,105.0,0.0,4424.102539,4755.897461,4124.615234000001,4118.974121,4302.05127,450.0,1.0,15.0,,,,0.0,4.0,0.0,0.0,2.0,4.0,16.666666,,,,,,,,,,,,,,,,,,,,,,,,,,,,,,,,,,,,,,,,,,,,,,,,,,,,,,,,,,,,,,,,,,,,,,,,,,,,,,,,,,,,
33087,1645900257.898202,1645900257.960049,106.0,0.0,4457.94873,4677.94873,4186.666504,4143.077147999999,4294.358886999999,450.0,1.0,15.0,,,,0.0,4.0,0.0,0.0,2.0,4.0,16.666666,,,,,,,,53.0,0.0,0.717949,0.198242,0.657959,0.11108399999999999,0.890639,-0.43994799999999995,-0.049317,-0.031573000000000004,-0.034428,-0.013463999999999999,,,,,,,,,,,,,,,,,,,,,,,,,,,,,,,,,,,0.0,0.0,1.0,0.0,512.0,0.49468199999999996,,,,,,,,,,,,,,,,,,,,,,,,,
33088,1645900257.9060152,1645900257.967864,107.0,0.0,4472.307617,4663.077147999999,4177.436035,4155.897461,4312.307617,16150.0,1.0,15.0,,,,0.0,4.0,0.0,0.0,2.0,4.0,16.666666,,,,,,,,,,,,,,,,,,,,,,,,,,,,,,,,,,,,,,,,,,,,,,,,,,,,,,,,,,,,,,,,,,,,,,,,,,,,,,,,,,,,
33089,1645900257.913828,1645900257.975679,108.0,0.0,4470.769043,4669.230957,4131.282227000001,4162.563965,4325.641113000001,450.0,1.0,15.0,,,,0.0,4.0,0.0,0.0,2.0,4.0,16.666666,,,,,,,,54.0,0.0,0.717911,0.198242,0.657959,0.111328,0.901869,-0.43897200000000003,-0.055665,-0.031736,-0.034402999999999996,-0.011287,,,,,,,,,,,,,,,,,,,,,,,,,,,,,,,,,,,,,,,,,,,,,,,,,,,,,,,,,,,,,,,,,
33090,1645900257.921641,1645900257.983494,109.0,0.0,4469.230957,4674.358886999999,4199.487305,4123.077147999999,4318.974121,450.0,1.0,15.0,,,,0.0,4.0,0.0,0.0,2.0,4.0,16.666666,,,,,,,,,,,,,,,,,,,,,,,,,,,,,,,,,,,,,,,,,,,,,,,,,,,,,,,,,,,,,,,,,,,,,,,,,,,,,,,,,,,,
33091,1645900257.9294538,1645900257.991309,110.0,0.0,4465.128418,4640.512695,4247.179688,4106.153809,4335.897461,450.0,1.0,15.0,,,,0.0,4.0,0.0,0.0,2.0,4.0,16.666666,,,,,,,,55.0,0.0,0.717843,0.198486,0.657959,0.111328,0.9004040000000001,-0.431159,-0.050782,-0.031883,-0.034381,-0.012453,,,,,,,,,,,,,,,,,,,,,,,,,,,,,,,,,,,0.0,0.0,1.0,0.0,512.0,0.49468199999999996,,,,,,,,,,,,,,,,,,,,,,,,,
33092,1645900257.937267,1645900257.999223,111.0,0.0,4460.0,4644.615234000001,4246.153809,4133.333496,4333.846191,16150.0,1.0,15.0,,,,0.0,4.0,0.0,0.0,2.0,4.0,16.666666,,,,,,,,,,,,,,,,,,,,,,,,,,,,,,,,,,,,,,,,,,,,,,,,,,,,,,,,,,,,,,,,,,,,,,,,,,,,,,,,,,,,
33093,1645900257.94508,1645900258.007038,112.0,0.0,4435.897461,4713.333496,4228.717772999999,4129.230957,4326.153809,450.0,1.0,15.0,,,,0.0,4.0,0.0,0.0,2.0,4.0,16.666666,,,,,,,,56.0,0.0,0.717911,0.198242,0.657959,0.111328,0.9052870000000001,-0.43946,-0.042481,-0.031966,-0.034408999999999995,-0.013503,,,,,,,,,,,,,,,,,,,,,,,,,,,,,,,,,,,,,,,,,,,,,,,,,,,,,,,,,,,,,,,,,
33094,1645900257.952893,1645900258.014853,113.0,0.0,4392.307617,4705.128418,4203.077147999999,4105.641113000001,4328.205078,450.0,1.0,15.0,,,,0.0,4.0,0.0,0.0,2.0,4.0,16.666666,,,,,,,,,,,,,,,,,,,,,,,,,,,,,,,,,,,,,,,,,,,,,,,,,,,,,,,,,,,,,,,,,,,,,,,,,,,,,,,,,,,,
33095,1645900257.960706,1645900258.022667,114.0,0.0,4373.333496,4662.05127,4133.846191,4145.641113000001,4331.282227000001,450.0,1.0,15.0,,,,0.0,4.0,0.0,0.0,2.0,4.0,16.666666,,,,,,,,57.0,0.0,0.717949,0.198242,0.657959,0.11108399999999999,0.9116350000000001,-0.443366,-0.054688,-0.031943,-0.034533,-0.01435,,,,,,,,,,,,,,,,,,,,,,,,,,,,,,,,,,,0.0,0.0,1.0,0.0,512.0,0.49468199999999996,,,,,,,,,,,,,,,,,,,,,,,,,
33096,1645900257.968519,1645900258.030482,115.0,0.0,4357.94873,4682.05127,4107.179688,4186.153809,4323.077147999999,16150.0,1.0,15.0,,,,0.0,4.0,0.0,0.0,2.0,4.0,16.666666,,,,,,,,,,,,,,,,,,,,,,,,,,,,,,,,,,,,,,,,,,,,,,,,,,,,,,,,,,,,,,,,,,,,,,,,,,,,,,,,,,,,
33097,1645900257.976332,1645900258.0382972,116.0,0.0,4343.589844,4690.256348,4097.94873,4175.384765999999,4335.384765999999,450.0,1.0,15.0,,,,0.0,4.0,0.0,0.0,2.0,4.0,16.666666,,,,,,,,58.0,0.0,0.717949,0.198242,0.657959,0.11108399999999999,0.9199360000000001,-0.430671,-0.053712,-0.031972,-0.0344,-0.015161,,,,,,,,,,,,,,,,,,,,,,,,,,,,,,,,,,,,,,,,,,,,,,,,,,,,,,,,,,,,,,,,,
33098,1645900257.984146,1645900258.0461109,117.0,0.0,4332.307617,4652.307617,4093.8461909999996,4169.743652,4316.922852000001,450.0,1.0,15.0,,,,0.0,4.0,0.0,0.0,2.0,4.0,16.666666,,,,,,,,,,,,,,,,,,,,,,,,,,,,,,,,,,,,,,,,,,,,,,,,,,,,,,,,,,,,,,,,,,,,,,,,,,,,,,,,,,,,
33099,1645900257.991959,1645900258.053926,118.0,0.0,4330.256348,4667.692383,4098.974121,4189.230957,4285.128418,450.0,1.0,15.0,,,,0.0,4.0,0.0,0.0,2.0,4.0,16.666666,,,,,,,,59.0,0.0,0.717843,0.198486,0.657959,0.111328,0.9316549999999999,-0.430671,-0.057617999999999996,-0.032046,-0.034427,-0.012815,1.0,0.0,0.0,,,,,,,,,,,,,,,,,,,,,,,,,,,,,,,,0.0,0.0,1.0,0.0,512.0,0.534826,5.762002,9.159444,15.315663,4.90402,3.4027489999999996,83.00026700000001,68.507942,80.774055,33.792168,11.209209,193.696457,87.188286,43.566326000000004,36.054961999999996,26.904858,21.087738,21.396763,20.294384,10.30037,5.005804,7.455432000000001,9.871499,13.615538,7.802022,2.733466
33100,1645900257.999772,1645900258.061841,119.0,0.0,4323.077147999999,4705.128418,4146.153809,4172.307617,4278.461426,16150.0,1.0,15.0,,,,0.0,4.0,0.0,0.0,2.0,4.0,16.666666,,,,,,,,,,,,,,,,,,,,,,,,,,,,,,,,,,,,,,,,,,,,,,,,,,,,,,,,,,,,,,,,,,,,,,,,,,,,,,,,,,,,
33101,1645900258.007585,1645900258.0696552,120.0,0.0,4317.436035,4669.230957,4208.717772999999,4143.589844,4267.692383,450.0,1.0,15.0,,,,0.0,4.0,0.0,0.0,2.0,4.0,16.666666,,,,,,,,60.0,0.0,0.717949,0.198242,0.657959,0.11108399999999999,0.9116350000000001,-0.443366,-0.054688,-0.032113,-0.034549,-0.010508,,,,,,,,,,,,,,,,,,,,,,,,,,,,,,,,,,,,,,,,,,,,,,,,,,,,,,,,,,,,,,,,,
33102,1645900258.015398,1645900258.0774698,121.0,0.0,4326.666504,4613.846191,4219.487305,4142.05127,4254.871582,450.0,1.0,15.0,,,,0.0,4.0,0.0,0.0,2.0,4.0,16.666666,,,,,,,,,,,,,,,,,,,,,,,,,,,,,,,,,,,,,,,,,,,,,,,,,,,,,,,,,,,,,,,,,,,,,,,,,,,,,,,,,,,,
33103,1645900258.023211,1645900258.085285,122.0,0.0,4349.230957,4638.974121,4225.641113000001,4156.410156,4256.410156,450.0,1.0,15.0,,,,0.0,4.0,0.0,0.0,2.0,4.0,16.666666,,,,,,,,61.0,0.0,0.717843,0.198486,0.657959,0.111328,0.9316549999999999,-0.430671,-0.057617999999999996,-0.032173,-0.034561,-0.008627,,,,,,,,,,,,,,,,,,,,,,,,,,,,,,,,,,,0.0,0.0,1.0,0.0,512.0,0.534826,,,,,,,,,,,,,,,,,,,,,,,,,
33104,1645900258.031024,1645900258.0931,123.0,0.0,4357.436035,4674.358886999999,4229.743652,4162.05127,4260.0,16150.0,1.0,15.0,,,,0.0,4.0,0.0,0.0,2.0,4.0,16.666666,,,,,,,,,,,,,,,,,,,,,,,,,,,,,,,,,,,,,,,,,,,,,,,,,,,,,,,,,,,,,,,,,,,,,,,,,,,,,,,,,,,,
33105,1645900258.038837,1645900258.100915,124.0,0.0,4348.717772999999,4655.897461,4246.666504,4148.205078,4270.256348,450.0,1.0,15.0,,,,0.0,4.0,0.0,0.0,2.0,4.0,16.666666,,,,,,,,62.0,0.0,0.717843,0.198486,0.657959,0.111328,0.9052870000000001,-0.44238999999999995,-0.039063,-0.03213,-0.034474,-0.010011,,,,,,,,,,,,,,,,,,,,,,,,,,,,,,,,,,,,,,,,,,,,,,,,,,,,,,,,,,,,,,,,,
33106,1645900258.04665,1645900258.10873,125.0,0.0,4363.077147999999,4629.230957,4213.846191,4153.846191,4273.846191,450.0,1.0,15.0,,,,0.0,4.0,0.0,0.0,2.0,4.0,16.666666,,,,,,,,,,,,,,,,,,,,,,,,,,,,,,,,,,,,,,,,,,,,,,,,,,,,,,,,,,,,,,,,,,,,,,,,,,,,,,,,,,,,
33107,1645900258.0544631,1645900258.116545,126.0,0.0,4377.94873,4655.384765999999,4250.769043,4134.358886999999,4272.307617,450.0,1.0,15.0,,,,0.0,4.0,0.0,0.0,2.0,4.0,16.666666,,,,,,,,63.0,0.0,0.717843,0.198486,0.657959,0.111328,0.8847790000000001,-0.44531899999999996,-0.059571000000000006,-0.032091,-0.034444,-0.008081999999999999,,,,,,,,,,,,,,,,,,,,,,,,,,,,,,,,,,,0.0,0.0,1.0,0.0,512.0,0.534826,,,,,,,,,,,,,,,,,,,,,,,,,
33108,1645900258.062276,1645900258.1243598,127.0,0.0,4375.384765999999,4673.846191,4263.589844,4113.846191,4290.256348,233.0,1.0,15.0,,,,0.0,4.0,0.0,0.0,2.0,4.0,16.666666,,,,,,,,,,,,,,,,,,,,,,,,,,,,,,,,,,,,,,,,,,,,,,,,,,,,,,,,,,,,,,,,,,,,,,,,,,,,,,,,,,,,
33109,1645900258.070089,1645900258.132274,0.0,0.0,4364.102539,4636.410156,4237.94873,4143.589844,4291.282227000001,450.0,1.0,15.0,,,,0.0,4.0,1.0,0.0,4.0,4.0,41.666668,,,,,,,,0.0,0.0,0.717881,0.198486,0.657959,0.11108399999999999,0.8969860000000001,-0.44190100000000004,-0.041505,-0.032152999999999994,-0.034516000000000005,-0.00952,,,,,,,,,,,,,,,,,,,,,,,,,,,,,,,,,,,,,,,,,,,,,,,,,,,,,,,,,,,,,,,,,
33110,1645900258.0779018,1645900258.140089,1.0,0.0,4397.436035,4692.820313,4227.692383,4135.897461,4308.205078,450.0,1.0,15.0,,,,0.0,4.0,1.0,0.0,4.0,4.0,41.666668,,,,,,,,,,,,,,,,,,,,,,,,,,,,,,,,,,,,,,,,,,,,,,,,,,,,,,,,,,,,,,,,,,,,,,,,,,,,,,,,,,,,
33111,1645900258.085715,1645900258.147904,2.0,0.0,4414.871582,4775.384765999999,4187.692383,4100.512695,4343.589844,16213.0,1.0,15.0,,,,0.0,4.0,1.0,0.0,4.0,4.0,41.666668,,,,,,,,1.0,0.0,0.717881,0.198486,0.657959,0.11108399999999999,0.9038219999999999,-0.449226,-0.050782,-0.032112,-0.034531,-0.007591,,,,,,,,,,,,,,,,,,,,,,,,,,,,,,,,,,,0.0,0.0,1.0,0.0,512.0,0.534826,,,,,,,,,,,,,,,,,,,,,,,,,
33112,1645900258.093529,1645900258.155719,3.0,0.0,4388.717772999999,4691.794922,4097.436035,4176.922852000001,4369.743652,450.0,1.0,15.0,,,,0.0,4.0,1.0,0.0,4.0,4.0,41.666668,,,,,,,,,,,,,,,,,,,,,,,,,,,,,,,,,,,,,,,,,,,,,,,,,,,,,,,,,,,,,,,,,,,,,,,,,,,,,,,,,,,,
33113,1645900258.101342,1645900258.163534,4.0,0.0,4370.769043,4621.025879,4095.384521,4256.410156,4369.743652,87.0,1.0,15.0,,,,0.0,4.0,1.0,0.0,4.0,4.0,41.666668,,,,,,,,2.0,0.0,0.7178140000000001,0.19873,0.657959,0.11108399999999999,0.9043110000000001,-0.430671,-0.058106,-0.032123,-0.034349,-0.006002,,,,,,,,,,,,,,,,,,,,,,,,,,,,,,,,,,,,,,,,,,,,,,,,,,,,,,,,,,,,,,,,,
33114,1645900258.1091552,1645900258.171349,5.0,0.0,4393.333496,4678.974121,4120.512695,4226.153809,4362.563965,450.0,1.0,15.0,,,,0.0,4.0,1.0,0.0,4.0,4.0,41.666668,,,,,,,,,,,,,,,,,,,,,,,,,,,,,,,,,,,,,,,,,,,,,,,,,,,,,,,,,,,,,,,,,,,,,,,,,,,,,,,,,,,,
33115,1645900258.116968,1645900258.1791642,6.0,0.0,4404.615234000001,4654.871582,4141.538574,4198.974121,4341.025879,0.0,1.0,15.0,,,,0.0,4.0,1.0,0.0,4.0,4.0,41.666668,,,,,,,,3.0,0.0,0.717776,0.19873,0.657959,0.111328,0.9126120000000001,-0.42822899999999997,-0.051759000000000006,-0.032133999999999996,-0.034332,-0.007648,1.0,0.0,0.0,,,,,,,,,,,,,,,,,,,,,,,,,,,,,,,,0.0,0.0,1.0,0.0,512.0,0.395982,7.032545,8.659017,14.95834,5.0323139999999995,3.5245040000000003,77.168701,69.550606,87.356087,31.140068,12.330344,221.710648,94.35186800000001,34.873177,30.675625,29.971977000000003,22.371145000000002,19.921736,21.784298,9.849916,5.173825,7.3938619999999995,10.144356,13.481485000000001,7.336297999999999,3.257155
33116,1645900258.1247811,1645900258.1869788,7.0,0.0,4435.384765999999,4569.743652,4204.102539,4230.769043,4350.769043,450.0,1.0,15.0,,,,0.0,4.0,1.0,0.0,4.0,4.0,41.666668,,,,,,,,,,,,,,,,,,,,,,,,,,,,,,,,,,,,,,,,,,,,,,,,,,,,,,,,,,,,,,,,,,,,,,,,,,,,,,,,,,,,
33117,1645900258.1325939,1645900258.194794,8.0,0.0,4535.897461,4556.922852000001,4227.179688,4236.922852000001,4385.641113000001,450.0,1.0,15.0,,,,0.0,4.0,1.0,0.0,4.0,4.0,41.666668,,,,,,,,4.0,0.0,0.717776,0.19873,0.657959,0.111328,0.917006,-0.435065,-0.053223,-0.032143,-0.034366,-0.009226999999999999,,,,,,,,,,,,,,,,,,,,,,,,,,,,,,,,,,,,,,,,,,,,,,,,,,,,,,,,,,,,,,,,,
33118,1645900258.140407,1645900258.202608,9.0,0.0,4649.743652,4620.0,4118.974121,4229.743652,4407.179688,16059.0,1.0,15.0,,,,0.0,4.0,1.0,0.0,4.0,4.0,41.666668,,,,,,,,,,,,,,,,,,,,,,,,,,,,,,,,,,,,,,,,,,,,,,,,,,,,,,,,,,,,,,,,,,,,,,,,,,,,,,,,,,,,
33119,1645900258.1482198,1645900258.210423,10.0,0.0,4724.615234000001,4696.922852000001,4066.1538090000004,4217.94873,4463.589844,450.0,1.0,15.0,,,,0.0,4.0,1.0,0.0,4.0,4.0,41.666668,,,,,,,,5.0,0.0,0.717776,0.19873,0.657959,0.111328,0.9126120000000001,-0.4336,-0.055665,-0.032151,-0.034299,-0.007474,,,,,,,,,,,,,,,,,,,,,,,,,,,,,,,,,,,0.0,0.0,1.0,0.0,512.0,0.395982,,,,,,,,,,,,,,,,,,,,,,,,,
33120,1645900258.156033,1645900258.218338,11.0,0.0,4761.538574,4732.820313,4219.487305,4180.512695,4534.871582,289.0,1.0,15.0,,,,0.0,4.0,1.0,0.0,4.0,2.0,25.0,,,,,,,,,,,,,,,,,,,,,,,,,,,,,,,,,,,,,,,,,,,,,,,,,,,,,,,,,,,,,,,,,,,,,,,,,,,,,,,,,,,,
33121,1645900258.163846,1645900258.226152,12.0,0.0,4761.025879,4720.0,4300.512695,4183.077147999999,4552.307617,450.0,1.0,15.0,,,,0.0,4.0,1.0,0.0,4.0,2.0,25.0,,,,,,,,6.0,0.0,0.717806,0.198486,0.657959,0.111572,0.9077290000000001,-0.43213500000000005,-0.061524,-0.032257,-0.034384,-0.00907,,,,,,,,,,,,,,,,,,,,,,,,,,,,,,,,,,,,,,,,,,,,,,,,,,,,,,,,,,,,,,,,,
33122,1645900258.171659,1645900258.234067,13.0,0.0,4755.897461,4715.897461,4237.94873,4224.102539,4543.589844,450.0,1.0,15.0,,,,0.0,4.0,1.0,0.0,4.0,2.0,25.0,,,,,,,,,,,,,,,,,,,,,,,,,,,,,,,,,,,,,,,,,,,,,,,,,,,,,,,,,,,,,,,,,,,,,,,,,,,,,,,,,,,,
33123,1645900258.1794732,1645900258.241882,14.0,0.0,4775.897461,4698.461426,4206.153809,4237.436035,4563.077147999999,450.0,1.0,15.0,,,,0.0,4.0,1.0,0.0,4.0,2.0,25.0,,,,,,,,7.0,0.0,0.7177680000000001,0.198486,0.657959,0.11181600000000001,0.9038219999999999,-0.445808,-0.046387,-0.032205000000000004,-0.034315,-0.010458,,,,,,,,,,,,,,,,,,,,,,,,,,,,,,,,,,,0.0,0.0,1.0,0.0,512.0,0.395982,,,,,,,,,,,,,,,,,,,,,,,,,
33124,1645900258.187286,1645900258.249697,15.0,0.0,4770.256348,4654.871582,4213.333496,4198.461426,4579.487305,289.0,1.0,15.0,,,,0.0,4.0,1.0,0.0,4.0,2.0,25.0,,,,,,,,,,,,,,,,,,,,,,,,,,,,,,,,,,,,,,,,,,,,,,,,,,,,,,,,,,,,,,,,,,,,,,,,,,,,,,,,,,,,
33125,1645900258.195099,1645900258.2575119,16.0,0.0,4753.846191,4642.563965,4073.3332520000004,4201.538574,4583.077147999999,0.0,1.0,15.0,,,,0.0,4.0,1.0,0.0,4.0,2.0,25.0,,,,,,,,8.0,0.0,0.7177,0.19873,0.657959,0.11181600000000001,0.8994280000000001,-0.43946,-0.052247,-0.032158,-0.034302,-0.011659000000000001,,,,,,,,,,,,,,,,,,,,,,,,,,,,,,,,,,,,,,,,,,,,,,,,,,,,,,,,,,,,,,,,,
33126,1645900258.2029119,1645900258.265327,17.0,0.0,4758.461426,4598.461426,4044.102539,4247.179688,4576.922852000001,0.0,1.0,15.0,,,,0.0,4.0,1.0,0.0,4.0,2.0,25.0,,,,,,,,,,,,,,,,,,,,,,,,,,,,,,,,,,,,,,,,,,,,,,,,,,,,,,,,,,,,,,,,,,,,,,,,,,,,,,,,,,,,
33127,1645900258.210725,1645900258.273242,18.0,0.0,4795.384765999999,4591.282227000001,4220.0,4215.897461,4586.153809,0.0,1.0,15.0,,,,0.0,4.0,1.0,0.0,4.0,2.0,25.0,,,,,,,,9.0,0.0,0.7176319999999999,0.198975,0.657959,0.11181600000000001,0.9052870000000001,-0.438483,-0.053223,-0.032214,-0.034338,-0.00976,,,,,,,,,,,,,,,,,,,,,,,,,,,,,,,,,,,0.0,0.0,1.0,0.0,512.0,0.395982,,,,,,,,,,,,,,,,,,,,,,,,,
33128,1645900258.218538,1645900258.2810562,19.0,0.0,4824.102539,4703.589844,4263.589844,4125.128418,4613.333496,0.0,1.0,15.0,,,,0.0,4.0,1.0,0.0,4.0,2.0,25.0,,,,,,,,,,,,,,,,,,,,,,,,,,,,,,,,,,,,,,,,,,,,,,,,,,,,,,,,,,,,,,,,,,,,,,,,,,,,,,,,,,,,
33129,1645900258.226351,1645900258.288871,20.0,0.0,4823.589844,4717.94873,4153.846191,4155.897461,4631.282227000001,0.0,1.0,15.0,,,,0.0,4.0,1.0,0.0,4.0,2.0,25.0,,,,,,,,10.0,0.0,0.717788,0.199219,0.6577149999999999,0.11181600000000001,0.894057,-0.43897200000000003,-0.048829000000000004,-0.032166,-0.034274,-0.007808,,,,,,,,,,,,,,,,,,,,,,,,,,,,,,,,,,,,,,,,,,,,,,,,,,,,,,,,,,,,,,,,,
33130,1645900258.234164,1645900258.296686,21.0,0.0,4791.282227000001,4603.589844,4155.384765999999,4233.846191,4580.512695,0.0,1.0,15.0,,,,0.0,4.0,1.0,0.0,4.0,2.0,25.0,,,,,,,,,,,,,,,,,,,,,,,,,,,,,,,,,,,,,,,,,,,,,,,,,,,,,,,,,,,,,,,,,,,,,,,,,,,,,,,,,,,,
33131,1645900258.241977,1645900258.304501,22.0,0.0,4808.717772999999,4632.307617,4122.05127,4216.410156,4578.461426,0.0,1.0,15.0,,,,0.0,4.0,1.0,0.0,4.0,2.0,25.0,1.0,16.666666,3.0,0.0,0.0,2.0,2.0,11.0,0.0,0.717653,0.199707,0.6577149999999999,0.11181600000000001,0.9150530000000001,-0.442878,-0.065919,-0.032221,-0.034263999999999996,-0.006148,1.0,0.0,0.0,,,,,,,,,,,,,,,,,,,,,,,,,,,,,,,,0.0,0.0,1.0,0.0,512.0,0.316143,9.356221000000001,9.529699,14.254617999999999,5.223676,3.530444,68.243156,73.06144,91.24270600000001,28.481243,13.727592000000001,230.30700699999997,97.757286,26.038823999999998,27.889747999999997,32.464787,22.29221,18.167282,23.64451,9.134736,5.4831900000000005,7.467335,11.159627,12.595526,6.4866839999999995,3.664733
33132,1645900258.24979,1645900258.312316,23.0,0.0,4850.256348,4698.461426,4095.384521,4215.897461,4658.461426,0.0,1.0,15.0,,,,0.0,4.0,1.0,0.0,4.0,2.0,25.0,,,,,,,,,,,,,,,,,,,,,,,,,,,,,,,,,,,,,,,,,,,,,,,,,,,,,,,,,,,,,,,,,,,,,,,,,,,,,,,,,,,,
33133,1645900258.257603,1645900258.320131,24.0,0.0,4844.102539,4596.922852000001,4169.230957,4263.589844,4656.922852000001,0.0,1.0,15.0,,,,0.0,4.0,1.0,0.0,4.0,2.0,25.0,,,,,,,,12.0,0.0,0.717517,0.200195,0.6577149999999999,0.11181600000000001,0.9043110000000001,-0.446296,-0.058106,-0.032173,-0.034109,-0.007828,,,,,,,,,,,,,,,,,,,,,,,,,,,,,,,,,,,,,,,,,,,,,,,,,,,,,,,,,,,,,,,,,
33134,1645900258.265416,1645900258.3279462,25.0,0.0,4864.102539,4590.256348,4226.666504,4199.487305,4616.922852000001,0.0,1.0,15.0,,,,0.0,4.0,1.0,0.0,4.0,2.0,25.0,,,,,,,,,,,,,,,,,,,,,,,,,,,,,,,,,,,,,,,,,,,,,,,,,,,,,,,,,,,,,,,,,,,,,,,,,,,,,,,,,,,,
33135,1645900258.273229,1645900258.3357608,26.0,0.0,4923.589844,4741.025879,4223.077147999999,4149.230957,4672.820313,0.0,1.0,15.0,,,,0.0,4.0,1.0,0.0,4.0,2.0,25.0,,,,,,,,13.0,0.0,0.717604,0.200684,0.657471,0.11181600000000001,0.900893,-0.440436,-0.062989,-0.032276,-0.034068,-0.009389,,,,,,,,,,,,,,,,,,,,,,,,,,,,,,,,,,,0.0,0.0,1.0,0.0,512.0,0.316143,,,,,,,,,,,,,,,,,,,,,,,,,
33136,1645900258.281042,1645900258.343576,27.0,0.0,4952.307617,4784.102539,4185.641113000001,4209.743652,4724.102539,0.0,1.0,15.0,,,,0.0,4.0,1.0,0.0,4.0,2.0,25.0,,,,,,,,,,,,,,,,,,,,,,,,,,,,,,,,,,,,,,,,,,,,,,,,,,,,,,,,,,,,,,,,,,,,,,,,,,,,,,,,,,,,
33137,1645900258.288856,1645900258.35129,28.0,0.0,4966.153809,4756.410156,4161.538574,4220.0,4696.410156,0.0,1.0,15.0,,,,0.0,4.0,1.0,0.0,4.0,2.0,25.0,,,,,,,,14.0,0.0,0.717642,0.200684,0.657471,0.111572,0.914076,-0.443366,-0.057617999999999996,-0.032222,-0.033981,-0.007571,,,,,,,,,,,,,,,,,,,,,,,,,,,,,,,,,,,,,,,,,,,,,,,,,,,,,,,,,,,,,,,,,
33138,1645900258.296669,1645900258.359105,29.0,0.0,5007.179688,4806.153809,4142.05127,4186.666504,4707.692383,0.0,1.0,15.0,,,,0.0,4.0,1.0,0.0,4.0,2.0,25.0,,,,,,,,,,,,,,,,,,,,,,,,,,,,,,,,,,,,,,,,,,,,,,,,,,,,,,,,,,,,,,,,,,,,,,,,,,,,,,,,,,,,
33139,1645900258.304482,1645900258.36692,30.0,0.0,5004.615234000001,4843.077147999999,4166.666504,4173.333496,4749.230957,0.0,1.0,15.0,,,,0.0,4.0,1.0,0.0,4.0,2.0,25.0,,,,,,,,15.0,0.0,0.717642,0.200684,0.657471,0.111572,0.9004040000000001,-0.44776099999999996,-0.067872,-0.029049000000000002,-0.034099000000000004,-0.009059999999999999,,,,,,,,,,,,,,,,,,,,,,,,,,,,,,,,,,,0.0,0.0,1.0,0.0,512.0,0.316143,,,,,,,,,,,,,,,,,,,,,,,,,
33140,1645900258.312295,1645900258.374734,31.0,0.0,4982.563965,4768.717772999999,4131.282227000001,4156.922852000001,4772.820313,0.0,1.0,15.0,,,,0.0,4.0,1.0,0.0,4.0,2.0,25.0,,,,,,,,,,,,,,,,,,,,,,,,,,,,,,,,,,,,,,,,,,,,,,,,,,,,,,,,,,,,,,,,,,,,,,,,,,,,,,,,,,,,
33141,1645900258.320108,1645900258.382549,32.0,0.0,5005.128418,4691.794922,4159.487305,4177.94873,4780.0,0.0,1.0,15.0,,,,0.0,4.0,1.0,0.0,4.0,2.0,25.0,,,,,,,,16.0,0.0,0.7177100000000001,0.200439,0.657471,0.111572,0.914076,-0.431647,-0.046387,-0.029367,-0.034058,-0.010303,,,,,,,,,,,,,,,,,,,,,,,,,,,,,,,,,,,,,,,,,,,,,,,,,,,,,,,,,,,,,,,,,
33142,1645900258.3279212,1645900258.3903642,33.0,0.0,4994.871582,4681.025879,4177.436035,4263.589844,4764.102539,0.0,1.0,15.0,,,,0.0,4.0,1.0,0.0,4.0,2.0,25.0,,,,,,,,,,,,,,,,,,,,,,,,,,,,,,,,,,,,,,,,,,,,,,,,,,,,,,,,,,,,,,,,,,,,,,,,,,,,,,,,,,,,
33143,1645900258.335734,1645900258.3981779,34.0,0.0,4948.205078,4685.128418,4166.153809,4245.641113000001,4735.384765999999,0.0,1.0,15.0,,,,0.0,4.0,1.0,0.0,4.0,2.0,25.0,,,,,,,,17.0,0.0,0.717778,0.200195,0.657471,0.111572,0.903334,-0.44531899999999996,-0.058106,-0.02975,-0.034022000000000004,-0.011519,,,,,,,,,,,,,,,,,,,,,,,,,,,,,,,,,,,0.0,0.0,1.0,0.0,512.0,0.316143,,,,,,,,,,,,,,,,,,,,,,,,,
33144,1645900258.343547,1645900258.405993,35.0,0.0,4920.0,4724.615234000001,4162.563965,4187.692383,4737.94873,0.0,1.0,15.0,,,,0.0,4.0,1.0,0.0,4.0,2.0,25.0,,,,,,,,,,,,,,,,,,,,,,,,,,,,,,,,,,,,,,,,,,,,,,,,,,,,,,,,,,,,,,,,,,,,,,,,,,,,,,,,,,,,
33145,1645900258.3513598,1645900258.413807,36.0,0.0,4872.307617,4745.641113000001,4181.538574,4221.538574,4729.743652,0.0,1.0,15.0,,,,0.0,4.0,1.0,0.0,4.0,2.0,25.0,,,,,,,,18.0,0.0,0.717778,0.200195,0.657471,0.111572,0.895033,-0.440436,-0.054688,-0.029998,-0.033989,-0.009634,,,,,,,,,,,,,,,,,,,,,,,,,,,,,,,,,,,,,,,,,,,,,,,,,,,,,,,,,,,,,,,,,
33146,1645900258.359173,1645900258.4217222,37.0,0.0,4848.205078,4701.025879,4183.589844,4236.922852000001,4724.102539,0.0,1.0,15.0,,,,0.0,4.0,1.0,0.0,4.0,2.0,25.0,,,,,,,,,,,,,,,,,,,,,,,,,,,,,,,,,,,,,,,,,,,,,,,,,,,,,,,,,,,,,,,,,,,,,,,,,,,,,,,,,,,,
33147,1645900258.366986,1645900258.4295368,38.0,0.0,4846.666504,4717.94873,4173.333496,4184.615234000001,4735.384765999999,0.0,1.0,15.0,,,,0.0,4.0,1.0,0.0,4.0,2.0,25.0,,,,,,,,19.0,0.0,0.717846,0.199951,0.657471,0.111572,0.902358,-0.443366,-0.043946,-0.027047,-0.033958999999999996,-0.010868000000000001,1.0,0.0,0.0,,,,,,,,,,,,,,,,,,,,,,,,,,,,,,,,0.0,0.0,1.0,0.0,512.0,0.258353,14.650704000000001,11.952675,13.285917999999999,5.370221,3.381293,59.563931000000004,75.24945100000001,89.886116,26.150660000000002,15.072092999999999,217.189987,97.193275,19.642360999999998,26.671946000000002,33.5009,20.983734,16.138482999999997,25.464779,8.237153999999999,5.73926,8.463482,12.658591,11.048142,5.45176,3.8090620000000004
33148,1645900258.374799,1645900258.437351,39.0,0.0,4811.282227000001,4752.820313,4230.256348,4158.461426,4724.615234000001,0.0,1.0,15.0,,,,0.0,4.0,1.0,0.0,4.0,2.0,25.0,,,,,,,,,,,,,,,,,,,,,,,,,,,,,,,,,,,,,,,,,,,,,,,,,,,,,,,,,,,,,,,,,,,,,,,,,,,,,,,,,,,,
33149,1645900258.3826132,1645900258.445166,40.0,0.0,4749.230957,4679.487305,4269.230957,4138.974121,4664.102539,0.0,1.0,15.0,,,,0.0,4.0,1.0,0.0,4.0,2.0,25.0,,,,,,,,20.0,0.0,0.717914,0.199707,0.657471,0.111572,0.9043110000000001,-0.440436,-0.05127,-0.027565,-0.033882999999999996,-0.008805,,,,,,,,,,,,,,,,,,,,,,,,,,,,,,,,,,,,,,,,,,,,,,,,,,,,,,,,,,,,,,,,,
33150,1645900258.390426,1645900258.452981,41.0,0.0,4706.666504,4641.538574,4161.025879,4124.615234000001,4599.487305,0.0,1.0,15.0,,,,0.0,4.0,1.0,0.0,4.0,2.0,25.0,,,,,,,,,,,,,,,,,,,,,,,,,,,,,,,,,,,,,,,,,,,,,,,,,,,,,,,,,,,,,,,,,,,,,,,,,,,,,,,,,,,,
33151,1645900258.3982391,1645900258.460795,42.0,0.0,4620.0,4698.461426,4026.1538090000004,4161.538574,4559.487305,0.0,1.0,15.0,,,,0.0,4.0,1.0,0.0,4.0,2.0,25.0,,,,,,,,21.0,0.0,0.717759,0.199463,0.6577149999999999,0.111572,0.9038219999999999,-0.427253,-0.059571000000000006,-0.02808,-0.03406,-0.01017,,,,,,,,,,,,,,,,,,,,,,,,,,,,,,,,,,,10.0,0.0,1.0,0.0,512.0,0.258353,,,,,,,,,,,,,,,,,,,,,,,,,
33152,1645900258.4060519,1645900258.46861,43.0,0.0,4522.563965,4668.205078,4081.538574,4173.846191,4527.179688,0.0,1.0,15.0,,,,0.0,4.0,1.0,0.0,4.0,2.0,25.0,,,,,,,,,,,,,,,,,,,,,,,,,,,,,,,,,,,,,,,,,,,,,,,,,,,,,,,,,,,,,,,,,,,,,,,,,,,,,,,,,,,,
33153,1645900258.413865,1645900258.476425,44.0,0.0,4482.563965,4600.0,4187.179688,4103.589844,4482.563965,0.0,1.0,15.0,,,,0.0,4.0,1.0,0.0,4.0,2.0,25.0,,,,,,,,22.0,0.0,0.717759,0.199463,0.6577149999999999,0.111572,0.9077290000000001,-0.427253,-0.044433999999999994,-0.028495,-0.034072000000000005,-0.008372,,,,,,,,,,,,,,,,,,,,,,,,,,,,,,,,,,,,,,,,,,,,,,,,,,,,,,,,,,,,,,,,,
33154,1645900258.4216778,1645900258.484239,45.0,0.0,4429.230957,4584.102539,4261.538574,4076.4101560000004,4434.358886999999,0.0,1.0,15.0,,,,0.0,4.0,1.0,0.0,4.0,2.0,25.0,,,,,,,,,,,,,,,,,,,,,,,,,,,,,,,,,,,,,,,,,,,,,,,,,,,,,,,,,,,,,,,,,,,,,,,,,,,,,,,,,,,,
33155,1645900258.429491,1645900258.492154,46.0,0.0,4376.410156,4588.205078,4226.666504,4128.717772999999,4393.846191,0.0,1.0,15.0,,,,0.0,4.0,1.0,0.0,4.0,2.0,25.0,,,,,,,,23.0,0.0,0.7178640000000001,0.199219,0.6577149999999999,0.111328,0.9111469999999999,-0.437018,-0.056152999999999995,-0.028917,-0.034033999999999995,-0.006705,,,,,,,,,,,,,,,,,,,,,,,,,,,,,,,,,,,10.0,0.0,1.0,0.0,512.0,0.258353,,,,,,,,,,,,,,,,,,,,,,,,,
33156,1645900258.437304,1645900258.499969,47.0,0.0,4351.794922,4652.307617,4232.820313,4126.666504,4370.256348,0.0,1.0,15.0,,,,0.0,4.0,1.0,0.0,4.0,2.0,25.0,,,,,,,,,,,,,,,,,,,,,,,,,,,,,,,,,,,,,,,,,,,,,,,,,,,,,,,,,,,,,,,,,,,,,,,,,,,,,,,,,,,,
33157,1645900258.445117,1645900258.507784,48.0,0.0,4295.384765999999,4594.871582,4310.769043,4127.692383,4324.615234000001,0.0,1.0,15.0,,,,0.0,4.0,1.0,0.0,4.0,2.0,25.0,,,,,,,,24.0,0.0,0.717759,0.199463,0.6577149999999999,0.111572,0.9038219999999999,-0.427253,-0.059571000000000006,-0.029248000000000003,-0.034194999999999996,-0.005155,,,,,,,,,,,,,,,,,,,,,,,,,,,,,,,,,,,,,,,,,,,,,,,,,,,,,,,,,,,,,,,,,
33158,1645900258.45293,1645900258.515599,49.0,0.0,4262.05127,4476.410156,4260.512695,4138.974121,4238.461426,0.0,1.0,15.0,,,,0.0,4.0,1.0,0.0,4.0,2.0,25.0,,,,,,,,,,,,,,,,,,,,,,,,,,,,,,,,,,,,,,,,,,,,,,,,,,,,,,,,,,,,,,,,,,,,,,,,,,,,,,,,,,,,
33159,1645900258.460743,1645900258.5234132,50.0,0.0,4248.205078,4576.410156,4172.820313,4087.179443,4234.871582,0.0,1.0,15.0,,,,0.0,4.0,1.0,0.0,4.0,2.0,25.0,,,,,,,,25.0,0.0,0.7178640000000001,0.199219,0.6577149999999999,0.111328,0.9111469999999999,-0.437018,-0.056152999999999995,-0.029595,-0.034145,-0.00381,,,,,,,,,,,,,,,,,,,,,,,,,,,,,,,,,,,10.0,0.0,1.0,0.0,512.0,0.258353,,,,,,,,,,,,,,,,,,,,,,,,,
33160,1645900258.4685571,1645900258.5312278,51.0,0.0,4119.487305,4605.641113000001,4217.94873,4095.897461,4266.666504,0.0,1.0,15.0,,,,0.0,4.0,1.0,0.0,4.0,2.0,25.0,,,,,,,,,,,,,,,,,,,,,,,,,,,,,,,,,,,,,,,,,,,,,,,,,,,,,,,,,,,,,,,,,,,,,,,,,,,,,,,,,,,,
33161,1645900258.4763699,1645900258.539043,52.0,0.0,4075.897461,4493.333496,4147.692383,4166.153809,4230.256348,0.0,1.0,15.0,,,,0.0,4.0,1.0,0.0,4.0,2.0,25.0,,,,,,,,26.0,0.0,0.7178260000000001,0.199219,0.6577149999999999,0.111572,0.914565,-0.43262399999999995,-0.053712,-0.029858,-0.034295,-0.00255,,,,,,,,,,,,,,,,,,,,,,,,,,,,,,,,,,,,,,,,,,,,,,,,,,,,,,,,,,,,,,,,,
33162,1645900258.4841821,1645900258.546858,53.0,0.0,4185.128418,4646.666504,4067.6923829999996,4069.2307130000004,4194.871582,0.0,1.0,15.0,,,,0.0,4.0,1.0,0.0,4.0,2.0,25.0,,,,,,,,,,,,,,,,,,,,,,,,,,,,,,,,,,,,,,,,,,,,,,,,,,,,,,,,,,,,,,,,,,,,,,,,,,,,,,,,,,,,
33163,1645900258.491996,1645900258.554673,54.0,0.0,4156.922852000001,4719.487305,4185.641113000001,3997.9487299999996,4202.563965,0.0,1.0,15.0,,,,0.0,4.0,1.0,0.0,4.0,2.0,25.0,,,,,,,,27.0,0.0,0.71805,0.199219,0.657471,0.111572,0.9077290000000001,-0.448737,-0.038575,-0.030144,-0.034283,-0.004492,1.0,0.0,0.0,,,,,,,,,,,,,,,,,,,,,,,,,,,,,,,,10.0,0.0,1.0,0.0,512.0,0.184025,23.773018,16.432254999999998,12.629433,5.440135,3.097848,53.665381999999994,73.76773100000001,82.76226,24.191269000000002,16.171554999999998,186.17111200000002,93.802246,16.762712,26.301521,32.551517,19.146158,14.273607,26.681440000000002,7.411900999999999,5.836951,10.316603,14.473482999999998,9.155273,4.464408000000001,3.64817
33164,1645900258.499809,1645900258.562488,55.0,0.0,4021.025635,4343.077147999999,4192.307617,4153.846191,4109.743652,0.0,1.0,15.0,,,,0.0,4.0,1.0,0.0,4.0,2.0,25.0,,,,,,,,,,,,,,,,,,,,,,,,,,,,,,,,,,,,,,,,,,,,,,,,,,,,,,,,,,,,,,,,,,,,,,,,,,,,,,,,,,,,
33165,1645900258.507622,1645900258.570402,56.0,0.0,4064.615479,4329.230957,4092.820557,4153.846191,4059.487061,0.0,1.0,15.0,,,,0.0,4.0,1.0,0.0,4.0,2.0,25.0,,,,,,,,28.0,0.0,0.71805,0.199219,0.657471,0.111572,0.905776,-0.44971400000000006,-0.059571000000000006,-0.03045,-0.034322000000000005,-0.003164,,,,,,,,,,,,,,,,,,,,,,,,,,,,,,,,,,,,,,,,,,,,,,,,,,,,,,,,,,,,,,,,,
33166,1645900258.515435,1645900258.578217,57.0,0.0,4097.436035,4733.333496,4191.794922,3971.794922,4166.153809,0.0,1.0,15.0,,,,0.0,4.0,1.0,0.0,4.0,2.0,25.0,,,,,,,,,,,,,,,,,,,,,,,,,,,,,,,,,,,,,,,,,,,,,,,,,,,,,,,,,,,,,,,,,,,,,,,,,,,,,,,,,,,,
33167,1645900258.523248,1645900258.586032,58.0,0.0,4018.974365,4689.743652,4161.025879,4034.8718259999996,4166.153809,0.0,1.0,15.0,,,,0.0,4.0,1.0,0.0,4.0,2.0,25.0,,,,,,,,29.0,0.0,0.718206,0.199463,0.657227,0.111572,0.910658,-0.43799499999999997,-0.056641,-0.030626999999999998,-0.034308,-0.0019199999999999998,,,,,,,,,,,,,,,,,,,,,,,,,,,,,,,,,,,10.0,0.0,1.0,0.0,512.0,0.184025,,,,,,,,,,,,,,,,,,,,,,,,,
33168,1645900258.531061,1645900258.593846,59.0,0.0,4057.4357909999994,4511.794922,3998.461426,4134.871582,4090.7692869999996,0.0,1.0,15.0,,,,0.0,4.0,1.0,0.0,4.0,2.0,25.0,,,,,,,,,,,,,,,,,,,,,,,,,,,,,,,,,,,,,,,,,,,,,,,,,,,,,,,,,,,,,,,,,,,,,,,,,,,,,,,,,,,,
33169,1645900258.538874,1645900258.601661,60.0,0.0,4102.563965,4629.230957,4205.128418,4036.4101560000004,4149.230957,0.0,1.0,15.0,,,,0.0,4.0,1.0,0.0,4.0,2.0,25.0,,,,,,,,30.0,0.0,0.718206,0.199463,0.657227,0.111572,0.901381,-0.44385399999999997,-0.041016000000000004,-0.027613,-0.034392,-0.0038759999999999997,,,,,,,,,,,,,,,,,,,,,,,,,,,,,,,,,,,,,,,,,,,,,,,,,,,,,,,,,,,,,,,,,
33170,1645900258.546687,1645900258.609476,61.0,0.0,4044.615479,4600.0,4396.410156,4048.718018,4181.538574,0.0,1.0,15.0,,,,0.0,4.0,1.0,0.0,4.0,2.0,25.0,,,,,,,,,,,,,,,,,,,,,,,,,,,,,,,,,,,,,,,,,,,,,,,,,,,,,,,,,,,,,,,,,,,,,,,,,,,,,,,,,,,,
33171,1645900258.5545,1645900258.61729,62.0,0.0,4082.0512700000004,4485.128418,4172.307617,4147.692383,4100.0,0.0,1.0,15.0,,,,0.0,4.0,1.0,0.0,4.0,2.0,25.0,,,,,,,,31.0,0.0,0.718138,0.199707,0.657227,0.111572,0.906264,-0.45264399999999994,-0.056641,-0.02246,-0.034391000000000005,-0.007417,,,,,,,,,,,,,,,,,,,,,,,,,,,,,,,,,,,0.0,0.0,1.0,0.0,512.0,0.184025,,,,,,,,,,,,,,,,,,,,,,,,,
33172,1645900258.562313,1645900258.6251051,63.0,0.0,4149.743652,4595.384765999999,4000.512939,4103.077147999999,4117.436035,0.0,1.0,15.0,,,,0.0,4.0,1.0,0.0,4.0,2.0,25.0,,,,,,,,,,,,,,,,,,,,,,,,,,,,,,,,,,,,,,,,,,,,,,,,,,,,,,,,,,,,,,,,,,,,,,,,,,,,,,,,,,,,
33173,1645900258.570126,1645900258.63302,64.0,0.0,4018.461426,4603.589844,4180.512695,4078.461426,4166.666504,450.0,1.0,15.0,,,,0.0,2.0,1.0,0.0,4.0,2.0,25.0,,,,,,,,32.0,0.0,0.718399,0.199707,0.656982,0.111328,0.898451,-0.438483,-0.056152999999999995,-0.023436000000000002,-0.034321,-0.008922,,,,,,,,,,,,,,,,,,,,,,,,,,,,,,,,,,,,,,,,,,,,,,,,,,,,,,,,,,,,,,,,,
33174,1645900258.57794,1645900258.640835,65.0,0.0,3940.512939,4421.025879,4190.769043,4176.410156,4097.94873,450.0,1.0,15.0,,,,0.0,2.0,1.0,0.0,4.0,2.0,25.0,,,,,,,,,,,,,,,,,,,,,,,,,,,,,,,,,,,,,,,,,,,,,,,,,,,,,,,,,,,,,,,,,,,,,,,,,,,,,,,,,,,,
33175,1645900258.585753,1645900258.64865,66.0,0.0,4096.410156,4458.974121,4061.538574,4130.769043,4021.025635,277.0,1.0,15.0,,,,0.0,2.0,1.0,0.0,4.0,2.0,25.0,,,,,,,,33.0,0.0,0.718437,0.199707,0.656982,0.11108399999999999,0.9004040000000001,-0.430671,-0.049805,-0.024315,-0.034258,-0.007053,,,,,,,,,,,,,,,,,,,,,,,,,,,,,,,,,,,0.0,0.0,1.0,0.0,512.0,0.184025,,,,,,,,,,,,,,,,,,,,,,,,,
33176,1645900258.593566,1645900258.656564,67.0,0.0,4158.974121,4657.94873,4156.410156,4015.384521,4068.718018,450.0,1.0,15.0,,,,0.0,2.0,0.0,0.0,4.0,2.0,16.666666,,,,,,,,,,,,,,,,,,,,,,,,,,,,,,,,,,,,,,,,,,,,,,,,,,,,,,,,,,,,,,,,,,,,,,,,,,,,,,,,,,,,
33177,1645900258.601379,1645900258.664379,68.0,0.0,4002.0512700000004,4691.794922,4316.410156,4033.8461909999996,4142.563965,12.0,1.0,15.0,,,,0.0,2.0,0.0,0.0,4.0,2.0,16.666666,,,,,,,,34.0,0.0,0.718437,0.199707,0.656982,0.11108399999999999,0.904799,-0.440925,-0.048829000000000004,-0.021933,-0.034446,-0.008496,,,,,,,,,,,,,,,,,,,,,,,,,,,,,,,,,,,,,,,,,,,,,,,,,,,,,,,,,,,,,,,,,
33178,1645900258.609192,1645900258.672194,69.0,0.0,3948.205078,4505.128418,4181.538574,4111.282227000001,4127.692383,450.0,1.0,15.0,,,,0.0,2.0,0.0,0.0,4.0,2.0,16.666666,,,,,,,,,,,,,,,,,,,,,,,,,,,,,,,,,,,,,,,,,,,,,,,,,,,,,,,,,,,,,,,,,,,,,,,,,,,,,,,,,,,,
33179,1645900258.617005,1645900258.680009,70.0,0.0,4068.205078,4332.820313,4055.897461,4156.922852000001,4030.256348,0.0,1.0,15.0,,,,0.0,2.0,0.0,0.0,4.0,2.0,16.666666,,,,,,,,35.0,0.0,0.718698,0.199707,0.656738,0.11084000000000001,0.921889,-0.44483100000000003,-0.039550999999999996,-0.022962,-0.034517,-0.006768000000000001,1.0,0.0,0.0,,,,,,,,,,,,,,,,,,,,,,,,,,,,,,,,0.0,0.0,1.0,0.0,512.0,0.195757,40.004951,22.910104999999998,12.996310000000001,5.426563,2.766634,51.204654999999995,68.566055,71.83068100000001,22.342049,17.002356,146.647949,89.953461,16.644789000000003,26.902396999999997,29.695663,17.613583,12.952451,26.756573,6.860784,5.857394,14.397601000000002,16.169659,7.421525,3.7212650000000003,3.2796190000000003
33180,1645900258.624818,1645900258.687924,71.0,0.0,4135.384765999999,4466.153809,4261.025879,4150.769043,4026.1538090000004,450.0,1.0,15.0,,,,0.0,2.0,0.0,0.0,4.0,1.0,8.333333,,,,,,,,,,,,,,,,,,,,,,,,,,,,,,,,,,,,,,,,,,,,,,,,,,,,,,,,,,,,,,,,,,,,,,,,,,,,,,,,,,,,
33181,1645900258.632631,1645900258.695739,72.0,0.0,4048.205078,4707.692383,4394.871582,4093.8461909999996,4131.282227000001,450.0,1.0,15.0,,,,0.0,2.0,0.0,0.0,4.0,1.0,8.333333,,,,,,,,36.0,0.0,0.718698,0.199707,0.656738,0.11084000000000001,0.9038219999999999,-0.43262399999999995,-0.056152999999999995,-0.023938,-0.034483,-0.008386,,,,,,,,,,,,,,,,,,,,,,,,,,,,,,,,,,,,,,,,,,,,,,,,,,,,,,,,,,,,,,,,,
33182,1645900258.640444,1645900258.703553,73.0,0.0,4015.897461,4655.897461,4102.05127,4086.1538090000004,4140.0,16148.0,1.0,15.0,,,,0.0,2.0,0.0,0.0,4.0,1.0,8.333333,,,,,,,,,,,,,,,,,,,,,,,,,,,,,,,,,,,,,,,,,,,,,,,,,,,,,,,,,,,,,,,,,,,,,,,,,,,,,,,,,,,,
33183,1645900258.648257,1645900258.711368,74.0,0.0,4108.205078,4500.0,3941.538574,4114.871582,4069.2307130000004,450.0,1.0,15.0,,,,0.0,2.0,0.0,0.0,4.0,1.0,8.333333,,,,,,,,37.0,0.0,0.718698,0.199707,0.656738,0.11084000000000001,0.901381,-0.435554,-0.053223,-0.021593,-0.034648000000000005,-0.009696,,,,,,,,,,,,,,,,,,,,,,,,,,,,,,,,,,,0.0,0.0,1.0,0.0,512.0,0.195757,,,,,,,,,,,,,,,,,,,,,,,,,
33184,1645900258.65607,1645900258.719183,75.0,0.0,4109.743652,4539.487305,4286.153809,4091.281982,4085.1281740000004,83.0,1.0,15.0,,,,0.0,2.0,0.0,0.0,4.0,1.0,8.333333,,,,,,,,,,,,,,,,,,,,,,,,,,,,,,,,,,,,,,,,,,,,,,,,,,,,,,,,,,,,,,,,,,,,,,,,,,,,,,,,,,,,
33185,1645900258.663883,1645900258.726998,76.0,0.0,4045.1281740000004,4626.666504,4384.102539,4073.3332520000004,4128.717772999999,450.0,1.0,15.0,,,,0.0,2.0,0.0,0.0,4.0,1.0,8.333333,,,,,,,,38.0,0.0,0.718735,0.199707,0.656738,0.110596,0.908217,-0.44238999999999995,-0.064454,-0.022607,-0.034601,-0.011021,,,,,,,,,,,,,,,,,,,,,,,,,,,,,,,,,,,,,,,,,,,,,,,,,,,,,,,,,,,,,,,,,
33186,1645900258.6716971,1645900258.734813,77.0,0.0,4113.846191,4693.846191,4136.922852000001,4079.487061,4122.05127,450.0,1.0,15.0,,,,0.0,2.0,0.0,0.0,4.0,1.0,8.333333,,,,,,,,,,,,,,,,,,,,,,,,,,,,,,,,,,,,,,,,,,,,,,,,,,,,,,,,,,,,,,,,,,,,,,,,,,,,,,,,,,,,
33187,1645900258.6795099,1645900258.7426279,78.0,0.0,4168.717772999999,4737.436035,4184.102539,4065.1281740000004,4142.563965,450.0,1.0,15.0,,,,0.0,2.0,0.0,0.0,4.0,1.0,8.333333,,,,,,,,39.0,0.0,0.718735,0.199707,0.656738,0.110596,0.901869,-0.42969399999999996,-0.070802,-0.023618,-0.034559,-0.012165,,,,,,,,,,,,,,,,,,,,,,,,,,,,,,,,,,,0.0,0.0,1.0,0.0,512.0,0.195757,,,,,,,,,,,,,,,,,,,,,,,,,
33188,1645900258.687323,1645900258.7505429,79.0,0.0,4037.4357909999994,4546.153809,4334.871582,4122.563965,4116.410156,83.0,1.0,15.0,,,,0.0,2.0,0.0,0.0,4.0,1.0,8.333333,,,,,,,,,,,,,,,,,,,,,,,,,,,,,,,,,,,,,,,,,,,,,,,,,,,,,,,,,,,,,,,,,,,,,,,,,,,,,,,,,,,,
33189,1645900258.6951358,1645900258.758358,80.0,0.0,4030.256348,4438.974121,4109.230957,4172.820313,4051.794922,450.0,1.0,15.0,,,,0.0,2.0,0.0,0.0,4.0,1.0,8.333333,,,,,,,,40.0,0.0,0.718735,0.199707,0.656738,0.110596,0.9087049999999999,-0.44483100000000003,-0.059571000000000006,-0.024625,-0.034520999999999996,-0.013291999999999998,,,,,,,,,,,,,,,,,,,,,,,,,,,,,,,,,,,,,,,,,,,,,,,,,,,,,,,,,,,,,,,,,
33190,1645900258.702949,1645900258.7661722,81.0,0.0,4192.307617,4694.871582,4099.487305,4060.512939,4126.153809,450.0,1.0,15.0,,,,0.0,2.0,0.0,0.0,4.0,1.0,8.333333,,,,,,,,,,,,,,,,,,,,,,,,,,,,,,,,,,,,,,,,,,,,,,,,,,,,,,,,,,,,,,,,,,,,,,,,,,,,,,,,,,,,
33191,1645900258.710762,1645900258.7739868,82.0,0.0,4184.615234000001,4716.410156,4384.102539,4035.384521,4205.128418,450.0,1.0,15.0,,,,0.0,2.0,0.0,0.0,4.0,1.0,8.333333,,,,,,,,41.0,0.0,0.718958,0.199707,0.6564939999999999,0.110596,0.9043110000000001,-0.446296,-0.049317,-0.025287999999999998,-0.034536000000000004,-0.011133,,,,,,,,,,,,,,,,,,,,,,,,,,,,,,,,,,,0.0,0.0,1.0,0.0,512.0,0.195757,,,,,,,,,,,,,,,,,,,,,,,,,
33192,1645900258.718575,1645900258.781802,83.0,0.0,4089.743652,4380.0,4326.666504,4167.692383,4081.538574,83.0,1.0,15.0,,,,0.0,2.0,0.0,0.0,4.0,1.0,8.333333,,,,,,,,,,,,,,,,,,,,,,,,,,,,,,,,,,,,,,,,,,,,,,,,,,,,,,,,,,,,,,,,,,,,,,,,,,,,,,,,,,,,
33193,1645900258.726388,1645900258.789617,84.0,0.0,4151.794922,4429.743652,4139.487305,4169.743652,4041.025635,450.0,1.0,15.0,,,,0.0,2.0,0.0,0.0,4.0,1.0,8.333333,,,,,,,,42.0,0.0,0.718958,0.199707,0.6564939999999999,0.110596,0.9052870000000001,-0.437507,-0.062989,-0.025981999999999998,-0.034451999999999997,-0.012364,,,,,,,,,,,,,,,,,,,,,,,,,,,,,,,,,,,,,,,,,,,,,,,,,,,,,,,,,,,,,,,,,
33194,1645900258.734201,1645900258.797432,85.0,0.0,4144.615234000001,4738.974121,4241.538574,4072.820557,4175.897461,450.0,1.0,15.0,,,,0.0,2.0,0.0,0.0,4.0,1.0,8.333333,,,,,,,,,,,,,,,,,,,,,,,,,,,,,,,,,,,,,,,,,,,,,,,,,,,,,,,,,,,,,,,,,,,,,,,,,,,,,,,,,,,,
33195,1645900258.7420142,1645900258.805247,86.0,0.0,4047.6923829999996,4600.512695,4170.769043,4128.717772999999,4180.0,450.0,1.0,15.0,,,,0.0,2.0,0.0,0.0,4.0,1.0,8.333333,1.0,8.333333,1.0,0.0,0.0,1.0,1.0,43.0,0.0,0.719026,0.199463,0.6564939999999999,0.110596,0.9091940000000001,-0.44190100000000004,-0.055665,-0.026606,-0.034522000000000004,-0.013422,1.0,0.0,0.0,,,,,,,,,,,,,,,,,,,,,,,,,,,,,,,,0.0,0.0,1.0,0.0,512.0,0.19653800000000002,65.582153,30.483288,14.713138,5.345499,2.582997,50.751723999999996,61.014010999999996,60.71207,20.775122,18.090134,108.401077,86.395966,17.729399,29.141716,25.835712,16.788301,12.35898,25.461796,6.601267999999999,6.103837,22.894748999999997,17.45542,6.2585440000000006,3.34968,2.927816
33196,1645900258.749827,1645900258.813062,87.0,0.0,4128.717772999999,4383.077147999999,4010.7692869999996,4172.307617,4071.794922,83.0,1.0,15.0,,,,0.0,2.0,0.0,0.0,4.0,1.0,8.333333,,,,,,,,,,,,,,,,,,,,,,,,,,,,,,,,,,,,,,,,,,,,,,,,,,,,,,,,,,,,,,,,,,,,,,,,,,,,,,,,,,,,
33197,1645900258.7576401,1645900258.820977,88.0,0.0,4218.461426,4561.538574,4273.846191,4080.512939,4114.358886999999,450.0,1.0,15.0,,,,0.0,2.0,0.0,0.0,4.0,1.0,8.333333,,,,,,,,44.0,0.0,0.719026,0.199463,0.6564939999999999,0.110596,0.8921030000000001,-0.435065,-0.050782,-0.02712,-0.034488,-0.014325999999999998,,,,,,,,,,,,,,,,,,,,,,,,,,,,,,,,,,,,,,,,,,,,,,,,,,,,,,,,,,,,,,,,,
33198,1645900258.7654529,1645900258.828791,89.0,0.0,4092.820557,4672.820313,4435.897461,4075.897461,4171.282227000001,450.0,1.0,15.0,,,,0.0,2.0,0.0,0.0,4.0,1.0,8.333333,,,,,,,,,,,,,,,,,,,,,,,,,,,,,,,,,,,,,,,,,,,,,,,,,,,,,,,,,,,,,,,,,,,,,,,,,,,,,,,,,,,,
33199,1645900258.773267,1645900258.836606,90.0,0.0,4054.358887,4574.358886999999,4071.794922,4151.282227000001,4098.974121,450.0,1.0,15.0,,,,0.0,2.0,0.0,0.0,4.0,1.0,8.333333,,,,,,,,45.0,0.0,0.719026,0.199463,0.6564939999999999,0.110596,0.898451,-0.44531899999999996,-0.061036,-0.027630000000000002,-0.034408,-0.012062999999999999,,,,,,,,,,,,,,,,,,,,,,,,,,,,,,,,,,,0.0,0.0,1.0,0.0,512.0,0.19653800000000002,,,,,,,,,,,,,,,,,,,,,,,,,
33200,1645900258.78108,1645900258.8444211,91.0,0.0,4161.538574,4599.487305,3927.179443,4122.05127,4083.076904,83.0,1.0,15.0,,,,0.0,2.0,0.0,0.0,4.0,1.0,8.333333,,,,,,,,,,,,,,,,,,,,,,,,,,,,,,,,,,,,,,,,,,,,,,,,,,,,,,,,,,,,,,,,,,,,,,,,,,,,,,,,,,,,
33201,1645900258.788893,1645900258.852236,92.0,0.0,4118.974121,4606.666504,4311.282227000001,4081.025635,4145.641113000001,450.0,1.0,15.0,,,,0.0,2.0,0.0,0.0,4.0,1.0,8.333333,,,,,,,,46.0,0.0,0.719064,0.199463,0.6564939999999999,0.11035199999999999,0.9077290000000001,-0.443366,-0.043946,-0.028089999999999997,-0.034434,-0.013103,,,,,,,,,,,,,,,,,,,,,,,,,,,,,,,,,,,,,,,,,,,,,,,,,,,,,,,,,,,,,,,,,
33202,1645900258.796706,1645900258.860051,93.0,0.0,4030.256348,4446.666504,4400.0,4149.230957,4131.282227000001,450.0,1.0,15.0,,,,0.0,2.0,0.0,0.0,4.0,1.0,8.333333,,,,,,,,,,,,,,,,,,,,,,,,,,,,,,,,,,,,,,,,,,,,,,,,,,,,,,,,,,,,,,,,,,,,,,,,,,,,,,,,,,,,
33203,1645900258.804519,1645900258.867866,94.0,0.0,4127.692383,4484.102539,4138.461426,4163.077147999999,4074.8718259999996,450.0,1.0,15.0,,,,0.0,2.0,0.0,0.0,4.0,1.0,8.333333,,,,,,,,47.0,0.0,0.719064,0.199463,0.6564939999999999,0.11035199999999999,0.897475,-0.44385399999999997,-0.049805,-0.028504,-0.03436,-0.014137,,,,,,,,,,,,,,,,,,,,,,,,,,,,,,,,,,,0.0,0.0,1.0,0.0,512.0,0.19653800000000002,,,,,,,,,,,,,,,,,,,,,,,,,
33204,1645900258.812332,1645900258.8756812,95.0,0.0,4209.743652,4664.102539,4141.538574,4084.615479,4141.025879,83.0,1.0,15.0,,,,0.0,2.0,0.0,0.0,4.0,1.0,8.333333,,,,,,,,,,,,,,,,,,,,,,,,,,,,,,,,,,,,,,,,,,,,,,,,,,,,,,,,,,,,,,,,,,,,,,,,,,,,,,,,,,,,
33205,1645900258.820145,1645900258.883496,96.0,0.0,4096.922852000001,4552.820313,4269.230957,4118.461426,4193.846191,450.0,1.0,15.0,,,,0.0,2.0,0.0,0.0,4.0,1.0,8.333333,,,,,,,,48.0,0.0,0.719026,0.199463,0.6564939999999999,0.110596,0.898451,-0.44531899999999996,-0.061036,-0.028876,-0.034293000000000004,-0.011893,,,,,,,,,,,,,,,,,,,,,,,,,,,,,,,,,,,,,,,,,,,,,,,,,,,,,,,,,,,,,,,,,
33206,1645900258.827958,1645900258.891311,97.0,0.0,4082.5642090000006,4475.384765999999,4125.641113000001,4193.846191,4145.128418,450.0,1.0,15.0,,,,0.0,2.0,0.0,0.0,4.0,1.0,8.333333,,,,,,,,,,,,,,,,,,,,,,,,,,,,,,,,,,,,,,,,,,,,,,,,,,,,,,,,,,,,,,,,,,,,,,,,,,,,,,,,,,,,
33207,1645900258.835771,1645900258.899225,98.0,0.0,4200.512695,4669.743652,4123.077147999999,4146.666504,4128.205078,450.0,1.0,15.0,,,,0.0,2.0,0.0,0.0,4.0,1.0,8.333333,,,,,,,,49.0,0.0,0.719101,0.199463,0.6564939999999999,0.110107,0.9038219999999999,-0.447272,-0.059571000000000006,-0.029211,-0.034282,-0.009873,,,,,,,,,,,,,,,,,,,,,,,,,,,,,,,,,,,0.0,0.0,1.0,0.0,512.0,0.19653800000000002,,,,,,,,,,,,,,,,,,,,,,,,,
33208,1645900258.843584,1645900258.90704,99.0,0.0,4213.846191,4744.615234000001,4300.0,4105.128418,4171.794922,83.0,1.0,15.0,,,,0.0,2.0,0.0,0.0,4.0,1.0,8.333333,,,,,,,,,,,,,,,,,,,,,,,,,,,,,,,,,,,,,,,,,,,,,,,,,,,,,,,,,,,,,,,,,,,,,,,,,,,,,,,,,,,,
33209,1645900258.851397,1645900258.914855,100.0,0.0,4158.974121,4712.820313,4252.820313,4130.769043,4167.179688,450.0,1.0,15.0,,,,0.0,2.0,0.0,0.0,4.0,1.0,8.333333,,,,,,,,50.0,0.0,0.7193609999999999,0.199463,0.65625,0.10986300000000002,0.897963,-0.45215500000000003,-0.062989,-0.029513,-0.034174,-0.01123,,,,,,,,,,,,,,,,,,,,,,,,,,,,,,,,,,,,,,,,,,,,,,,,,,,,,,,,,,,,,,,,,
33210,1645900258.85921,1645900258.92267,101.0,0.0,4169.743652,4814.358886999999,4074.8718259999996,4140.512695,4162.563965,450.0,1.0,15.0,,,,0.0,2.0,0.0,0.0,4.0,1.0,8.333333,,,,,,,,,,,,,,,,,,,,,,,,,,,,,,,,,,,,,,,,,,,,,,,,,,,,,,,,,,,,,,,,,,,,,,,,,,,,,,,,,,,,
33211,1645900258.867024,1645900258.930485,102.0,0.0,4169.230957,4852.820313,4087.179443,4098.974121,4189.230957,450.0,1.0,15.0,,,,0.0,2.0,0.0,0.0,4.0,1.0,8.333333,,,,,,,,51.0,0.0,0.7192930000000001,0.199707,0.65625,0.10986300000000002,0.9111469999999999,-0.43653000000000003,-0.06006,-0.029783999999999998,-0.034076999999999996,-0.009276999999999999,1.0,0.0,0.0,,,,,,,,,,,,,,,,,,,,,,,,,,,,,,,,0.0,0.0,1.0,0.0,512.0,0.339027,99.11326600000001,37.286427,17.368885000000002,5.300478,3.012483,50.292648,53.058158999999996,52.780754,20.203568,21.125652,78.039261,82.83743299999999,18.455339000000002,33.644366999999995,23.065794,16.577438,12.445972,22.924994,6.539087,7.054322999999999,36.808372,18.027891,5.865169,3.396557,2.947943
33212,1645900258.874837,1645900258.9383,103.0,0.0,4142.05127,4778.461426,4093.3332520000004,4112.307617,4180.0,83.0,1.0,15.0,,,,0.0,2.0,0.0,0.0,4.0,1.0,8.333333,,,,,,,,,,,,,,,,,,,,,,,,,,,,,,,,,,,,,,,,,,,,,,,,,,,,,,,,,,,,,,,,,,,,,,,,,,,,,,,,,,,,
33213,1645900258.88265,1645900258.946115,104.0,0.0,4137.436035,4783.589844,4064.615479,4165.641113000001,4165.641113000001,450.0,1.0,15.0,,,,0.0,2.0,0.0,0.0,4.0,1.0,8.333333,,,,,,,,52.0,0.0,0.7192930000000001,0.199707,0.65625,0.10986300000000002,0.913588,-0.43018199999999995,-0.058106,-0.030027999999999996,-0.034039,-0.010595,,,,,,,,,,,,,,,,,,,,,,,,,,,,,,,,,,,,,,,,,,,,,,,,,,,,,,,,,,,,,,,,,
33214,1645900258.890463,1645900258.953929,105.0,0.0,4143.589844,4769.230957,4131.794922,4160.512695,4177.94873,450.0,1.0,15.0,,,,0.0,2.0,0.0,0.0,4.0,1.0,8.333333,,,,,,,,,,,,,,,,,,,,,,,,,,,,,,,,,,,,,,,,,,,,,,,,,,,,,,,,,,,,,,,,,,,,,,,,,,,,,,,,,,,,
33215,1645900258.898276,1645900258.961844,106.0,0.0,4153.846191,4691.282227000001,4168.717772999999,4120.512695,4156.410156,450.0,1.0,15.0,,,,0.0,2.0,0.0,0.0,4.0,1.0,8.333333,,,,,,,,53.0,0.0,0.7192930000000001,0.199707,0.65625,0.10986300000000002,0.901869,-0.43897200000000003,-0.059083000000000004,-0.030199,-0.034102,-0.008706,,,,,,,,,,,,,,,,,,,,,,,,,,,,,,,,,,,0.0,0.0,1.0,0.0,512.0,0.339027,,,,,,,,,,,,,,,,,,,,,,,,,
33216,1645900258.906089,1645900258.969659,107.0,0.0,4171.794922,4694.871582,4216.922852000001,4143.589844,4143.077147999999,83.0,1.0,15.0,,,,0.0,2.0,0.0,0.0,4.0,1.0,8.333333,,,,,,,,,,,,,,,,,,,,,,,,,,,,,,,,,,,,,,,,,,,,,,,,,,,,,,,,,,,,,,,,,,,,,,,,,,,,,,,,,,,,
33217,1645900258.913902,1645900258.977474,108.0,0.0,4172.820313,4729.743652,4289.230957,4169.743652,4168.717772999999,450.0,1.0,15.0,,,,0.0,2.0,0.0,0.0,4.0,1.0,8.333333,,,,,,,,54.0,0.0,0.719226,0.199951,0.65625,0.10986300000000002,0.9116350000000001,-0.44483100000000003,-0.059083000000000004,-0.030305000000000002,-0.034012,-0.010081,,,,,,,,,,,,,,,,,,,,,,,,,,,,,,,,,,,,,,,,,,,,,,,,,,,,,,,,,,,,,,,,,
33218,1645900258.921715,1645900258.985289,109.0,0.0,4155.897461,4707.692383,4257.94873,4115.897461,4177.94873,450.0,1.0,15.0,,,,0.0,2.0,0.0,0.0,4.0,1.0,8.333333,,,,,,,,,,,,,,,,,,,,,,,,,,,,,,,,,,,,,,,,,,,,,,,,,,,,,,,,,,,,,,,,,,,,,,,,,,,,,,,,,,,,
33219,1645900258.929528,1645900258.993104,110.0,0.0,4137.94873,4675.897461,4142.563965,4125.128418,4166.153809,450.0,1.0,15.0,,,,0.0,2.0,0.0,0.0,4.0,1.0,8.333333,,,,,,,,55.0,0.0,0.719226,0.199951,0.65625,0.10986300000000002,0.898451,-0.440925,-0.062989,-0.030399000000000002,-0.03398,-0.008243,,,,,,,,,,,,,,,,,,,,,,,,,,,,,,,,,,,0.0,0.0,1.0,0.0,512.0,0.339027,,,,,,,,,,,,,,,,,,,,,,,,,
33220,1645900258.937341,1645900259.0009189,111.0,0.0,4143.077147999999,4694.358886999999,4146.153809,4169.743652,4147.179688,83.0,1.0,15.0,,,,0.0,2.0,0.0,0.0,4.0,1.0,8.333333,,,,,,,,,,,,,,,,,,,,,,,,,,,,,,,,,,,,,,,,,,,,,,,,,,,,,,,,,,,,,,,,,,,,,,,,,,,,,,,,,,,,
33221,1645900258.945154,1645900259.008734,112.0,0.0,4158.461426,4677.94873,4146.666504,4162.05127,4158.974121,450.0,1.0,15.0,,,,0.0,2.0,0.0,0.0,4.0,1.0,8.333333,,,,,,,,56.0,0.0,0.719226,0.199951,0.65625,0.10986300000000002,0.906752,-0.43262399999999995,-0.065919,-0.030680000000000002,-0.034049,-0.009567,,,,,,,,,,,,,,,,,,,,,,,,,,,,,,,,,,,,,,,,,,,,,,,,,,,,,,,,,,,,,,,,,
33222,1645900258.952968,1645900259.0165482,113.0,0.0,4142.05127,4649.743652,4122.563965,4160.0,4202.563965,450.0,1.0,15.0,,,,0.0,2.0,0.0,0.0,4.0,1.0,8.333333,,,,,,,,,,,,,,,,,,,,,,,,,,,,,,,,,,,,,,,,,,,,,,,,,,,,,,,,,,,,,,,,,,,,,,,,,,,,,,,,,,,,
33223,1645900258.960781,1645900259.024363,114.0,0.0,4165.128418,4657.436035,4123.077147999999,4208.717772999999,4193.333496,450.0,1.0,15.0,,,,0.0,2.0,0.0,0.0,4.0,1.0,8.333333,,,,,,,,57.0,0.0,0.719226,0.199951,0.65625,0.10986300000000002,0.897963,-0.42822899999999997,-0.06006,-0.030737,-0.034062,-0.007731999999999999,,,,,,,,,,,,,,,,,,,,,,,,,,,,,,,,,,,10.0,0.0,1.0,0.0,512.0,0.339027,,,,,,,,,,,,,,,,,,,,,,,,,
33224,1645900258.968593,1645900259.032178,115.0,0.0,4204.615234000001,4634.871582,4192.820313,4228.717772999999,4118.974121,83.0,1.0,15.0,,,,0.0,2.0,0.0,0.0,4.0,1.0,8.333333,,,,,,,,,,,,,,,,,,,,,,,,,,,,,,,,,,,,,,,,,,,,,,,,,,,,,,,,,,,,,,,,,,,,,,,,,,,,,,,,,,,,
33225,1645900258.976407,1645900259.040093,116.0,0.0,4221.538574,4586.666504,4247.692383,4187.692383,4128.205078,450.0,1.0,15.0,,,,0.0,4.0,0.0,0.0,4.0,1.0,8.333333,,,,,,,,58.0,0.0,0.719226,0.199951,0.65625,0.10986300000000002,0.9121229999999999,-0.4336,-0.061036,-0.030886,-0.034123,-0.009156000000000001,,,,,,,,,,,,,,,,,,,,,,,,,,,,,,,,,,,,,,,,,,,,,,,,,,,,,,,,,,,,,,,,,
33226,1645900258.98422,1645900259.047908,117.0,0.0,4221.538574,4591.282227000001,4255.897461,4163.077147999999,4178.974121,450.0,1.0,15.0,,,,0.0,4.0,0.0,0.0,4.0,1.0,8.333333,,,,,,,,,,,,,,,,,,,,,,,,,,,,,,,,,,,,,,,,,,,,,,,,,,,,,,,,,,,,,,,,,,,,,,,,,,,,,,,,,,,,
33227,1645900258.992033,1645900259.055723,118.0,0.0,4220.512695,4661.025879,4236.410156,4186.666504,4190.256348,450.0,1.0,15.0,,,,0.0,4.0,0.0,0.0,4.0,1.0,8.333333,,,,,,,,59.0,0.0,0.719158,0.200195,0.65625,0.10986300000000002,0.9160299999999999,-0.427741,-0.062501,-0.031166000000000003,-0.034128,-0.007361,1.0,0.0,0.0,,,,,,,,,,,,,,,,,,,,,,,,,,,,,,,,10.0,0.0,1.0,0.0,512.0,0.397596,134.404114,41.086426,19.864956,5.44522,4.752429,48.832546,46.450520000000004,49.396122,21.362973999999998,28.707796000000002,57.632305,78.602463,18.537083,40.64315,24.686247,16.468014,12.902113,19.647287,6.586458,9.113452,54.43354,17.660362,6.045085,3.7815300000000005,3.771555
33228,1645900258.999846,1645900259.063538,119.0,0.0,4214.871582,4733.333496,4202.05127,4143.589844,4181.025879,83.0,1.0,15.0,,,,0.0,4.0,0.0,0.0,4.0,1.0,8.333333,,,,,,,,,,,,,,,,,,,,,,,,,,,,,,,,,,,,,,,,,,,,,,,,,,,,,,,,,,,,,,,,,,,,,,,,,,,,,,,,,,,,
33229,1645900259.007659,1645900259.071353,120.0,0.0,4215.384765999999,4708.205078,4139.487305,4092.820557,4167.692383,450.0,1.0,15.0,,,,0.0,4.0,0.0,0.0,4.0,1.0,8.333333,,,,,,,,60.0,0.0,0.719158,0.200195,0.65625,0.10986300000000002,0.9052870000000001,-0.427253,-0.062501,-0.031320999999999995,-0.034231,-0.008870999999999999,,,,,,,,,,,,,,,,,,,,,,,,,,,,,,,,,,,,,,,,,,,,,,,,,,,,,,,,,,,,,,,,,
33230,1645900259.0154722,1645900259.079167,121.0,0.0,4229.230957,4697.94873,4125.128418,4123.589844,4167.179688,450.0,1.0,15.0,,,,0.0,4.0,0.0,0.0,4.0,1.0,8.333333,,,,,,,,,,,,,,,,,,,,,,,,,,,,,,,,,,,,,,,,,,,,,,,,,,,,,,,,,,,,,,,,,,,,,,,,,,,,,,,,,,,,
33231,1645900259.023285,1645900259.086982,122.0,1.0,4223.141113000001,4696.410156,4138.717772999999,4131.858886999999,4164.807617,450.0,1.0,15.0,,,,0.0,4.0,0.0,0.0,4.0,1.0,8.333333,,,,,,,,61.0,1.0,0.719216,0.200146,0.656201,0.10986300000000002,0.90685,-0.43018199999999995,-0.060645000000000004,-0.031339,-0.03424,-0.009133,,,,,,,,,,,,,,,,,,,,,,,,,,,,,,,,,,,10.0,0.0,1.0,0.0,512.0,0.397596,,,,,,,,,,,,,,,,,,,,,,,,,
33232,1645900259.0310981,1645900259.0947971,123.0,1.0,4217.05127,4694.871582,4152.307617,4140.128418,4162.436035,450.0,1.0,15.0,,,,0.0,4.0,0.0,0.0,4.0,1.0,8.333333,,,,,,,,,,,,,,,,,,,,,,,,,,,,,,,,,,,,,,,,,,,,,,,,,,,,,,,,,,,,,,,,,,,,,,,,,,,,,,,,,,,,
33233,1645900259.0389109,1645900259.102612,124.0,1.0,4210.961426,4693.333496,4165.897461,4148.397461,4160.063965,450.0,1.0,15.0,,,,0.0,4.0,0.0,0.0,4.0,1.0,8.333333,,,,,,,,62.0,1.0,0.719274,0.200098,0.6561520000000001,0.10986300000000002,0.9084120000000001,-0.433112,-0.058789999999999995,-0.031356999999999996,-0.034249,-0.009395,,,,,,,,,,,,,,,,,,,,,,,,,,,,,,,,,,,,,,,,,,,,,,,,,,,,,,,,,,,,,,,,,
33234,1645900259.046724,1645900259.110427,125.0,1.0,4204.871582,4691.794922,4179.487305,4156.666504,4157.692383,450.0,1.0,15.0,,,,0.0,4.0,0.0,0.0,4.0,1.0,8.333333,,,,,,,,,,,,,,,,,,,,,,,,,,,,,,,,,,,,,,,,,,,,,,,,,,,,,,,,,,,,,,,,,,,,,,,,,,,,,,,,,,,,
33235,1645900259.0545368,1645900259.118242,126.0,1.0,4198.782227000001,4690.256348,4193.077147999999,4164.936035,4155.320313,450.0,1.0,15.0,,,,0.0,4.0,0.0,0.0,4.0,1.0,8.333333,,,,,,,,63.0,1.0,0.719332,0.200049,0.656103,0.10986300000000002,0.909975,-0.436042,-0.056934000000000005,-0.031376,-0.034257,-0.009656999999999999,,,,,,,,,,,,,,,,,,,,,,,,,,,,,,,,,,,10.0,0.0,1.0,0.0,512.0,0.397596,,,,,,,,,,,,,,,,,,,,,,,,,
33236,1645900259.062351,1645900259.1260571,127.0,1.0,4192.692383,4688.717772999999,4206.666504,4173.205078,4152.94873,450.0,1.0,15.0,,,,0.0,4.0,0.0,0.0,4.0,1.0,8.333333,,,,,,,,,,,,,,,,,,,,,,,,,,,,,,,,,,,,,,,,,,,,,,,,,,,,,,,,,,,,,,,,,,,,,,,,,,,,,,,,,,,,
33237,1645900259.070164,1645900259.133872,0.0,1.0,4186.602539,4687.179688,4220.256348,4181.474121,4150.577147999999,450.0,1.0,15.0,,,,0.0,4.0,0.0,0.0,4.0,1.0,8.333333,,,,,,,,0.0,1.0,0.71939,0.2,0.656055,0.10986300000000002,0.911537,-0.43897200000000003,-0.055078999999999996,-0.031394,-0.034266000000000005,-0.009918999999999999,,,,,,,,,,,,,,,,,,,,,,,,,,,,,,,,,,,,,,,,,,,,,,,,,,,,,,,,,,,,,,,,,
33238,1645900259.077977,1645900259.141686,1.0,0.0,4180.512695,4685.641113000001,4233.846191,4189.743652,4148.205078,450.0,1.0,15.0,,,,0.0,4.0,0.0,0.0,4.0,1.0,8.333333,,,,,,,,,,,,,,,,,,,,,,,,,,,,,,,,,,,,,,,,,,,,,,,,,,,,,,,,,,,,,,,,,,,,,,,,,,,,,,,,,,,,
33239,1645900259.0857902,1645900259.149501,2.0,0.0,4224.615234000001,4674.871582,4236.922852000001,4192.307617,4157.436035,16297.0,1.0,15.0,,,,0.0,4.0,0.0,0.0,4.0,1.0,8.333333,,,,,,,,1.0,0.0,0.719448,0.199951,0.6560060000000001,0.10986300000000002,0.9131,-0.44190100000000004,-0.053223,-0.031412,-0.034275,-0.010181,,,,,,,,,,,,,,,,,,,,,,,,,,,,,,,,,,,0.0,0.0,1.0,0.0,512.0,0.397596,,,,,,,,,,,,,,,,,,,,,,,,,
33240,1645900259.093603,1645900259.157316,3.0,0.0,4237.436035,4668.717772999999,4274.358886999999,4154.871582,4191.794922,450.0,1.0,15.0,,,,0.0,4.0,0.0,0.0,4.0,1.0,8.333333,,,,,,,,,,,,,,,,,,,,,,,,,,,,,,,,,,,,,,,,,,,,,,,,,,,,,,,,,,,,,,,,,,,,,,,,,,,,,,,,,,,,
33241,1645900259.101416,1645900259.165031,4.0,0.0,4244.102539,4757.94873,4247.179688,4107.179688,4223.589844,210.0,1.0,15.0,,,,0.0,4.0,2.0,0.0,2.0,4.0,33.333332,,,,,,,,2.0,0.0,0.719188,0.199951,0.65625,0.110107,0.900893,-0.44531899999999996,-0.0542,-0.031639999999999995,-0.034168000000000004,-0.011458,,,,,,,,,,,,,,,,,,,,,,,,,,,,,,,,,,,,,,,,,,,,,,,,,,,,,,,,,,,,,,,,,
33242,1645900259.1092288,1645900259.172845,5.0,0.0,4239.487305,4826.666504,4077.9487299999996,4116.922852000001,4220.0,450.0,1.0,15.0,,,,0.0,4.0,2.0,0.0,2.0,4.0,33.333332,,,,,,,,,,,,,,,,,,,,,,,,,,,,,,,,,,,,,,,,,,,,,,,,,,,,,,,,,,,,,,,,,,,,,,,,,,,,,,,,,,,,
33243,1645900259.117042,1645900259.18066,6.0,0.0,4181.025879,4792.307617,4039.487061,4155.897461,4211.282227000001,0.0,1.0,15.0,,,,0.0,4.0,2.0,0.0,2.0,4.0,33.333332,,,,,,,,3.0,0.0,0.719448,0.199951,0.6560060000000001,0.10986300000000002,0.9131,-0.44190100000000004,-0.053223,-0.031699,-0.034218,-0.01251,1.0,0.0,0.0,,,,,,,,,,,,,,,,,,,,,,,,,,,,,,,,0.0,0.0,1.0,0.0,512.0,0.32761799999999996,161.685196,40.392063,20.986874,5.884062,8.345680999999999,47.733589,42.542415999999996,49.014278000000004,24.363474,42.741592,45.510384,72.99762,18.480898,49.917145,33.872917,15.942197,13.291433999999999,16.301037,6.679692,12.312725,71.44838,16.286102,6.360019,4.318943,5.699007
33244,1645900259.124855,1645900259.188474,7.0,0.0,4169.230957,4788.717772999999,4193.846191,4177.94873,4223.589844,450.0,1.0,15.0,,,,0.0,4.0,2.0,0.0,2.0,4.0,33.333332,,,,,,,,,,,,,,,,,,,,,,,,,,,,,,,,,,,,,,,,,,,,,,,,,,,,,,,,,,,,,,,,,,,,,,,,,,,,,,,,,,,,
33245,1645900259.132668,1645900259.196288,8.0,0.0,4220.0,4763.589844,4271.282227000001,4193.333496,4190.769043,450.0,1.0,15.0,,,,0.0,4.0,2.0,0.0,2.0,4.0,33.333332,,,,,,,,4.0,0.0,0.719418,0.200195,0.6560060000000001,0.10961900000000001,0.8964979999999999,-0.44190100000000004,-0.058106,-0.0318,-0.034312,-0.013553999999999998,,,,,,,,,,,,,,,,,,,,,,,,,,,,,,,,,,,,,,,,,,,,,,,,,,,,,,,,,,,,,,,,,
33246,1645900259.140481,1645900259.204103,9.0,0.0,4218.974121,4678.461426,4214.358886999999,4195.384765999999,4148.717772999999,198.0,1.0,15.0,,,,0.0,4.0,2.0,0.0,2.0,4.0,33.333332,,,,,,,,,,,,,,,,,,,,,,,,,,,,,,,,,,,,,,,,,,,,,,,,,,,,,,,,,,,,,,,,,,,,,,,,,,,,,,,,,,,,
33247,1645900259.148294,1645900259.211917,10.0,0.0,4191.794922,4701.025879,4170.256348,4129.743652,4171.282227000001,450.0,1.0,15.0,,,,0.0,4.0,2.0,0.0,2.0,4.0,33.333332,,,,,,,,5.0,0.0,0.7194550000000001,0.200195,0.6560060000000001,0.109375,0.905776,-0.436042,-0.06543099999999999,-0.031843,-0.034395999999999996,-0.014542,,,,,,,,,,,,,,,,,,,,,,,,,,,,,,,,,,,0.0,0.0,1.0,0.0,512.0,0.32761799999999996,,,,,,,,,,,,,,,,,,,,,,,,,
33248,1645900259.156108,1645900259.219732,11.0,0.0,4218.974121,4754.871582,4147.179688,4091.794922,4186.153809,16104.0,1.0,15.0,,,,0.0,4.0,2.0,0.0,2.0,4.0,33.333332,,,,,,,,,,,,,,,,,,,,,,,,,,,,,,,,,,,,,,,,,,,,,,,,,,,,,,,,,,,,,,,,,,,,,,,,,,,,,,,,,,,,
33249,1645900259.163921,1645900259.227546,12.0,0.0,4234.871582,4746.153809,4048.205078,4140.512695,4147.692383,450.0,1.0,15.0,,,,0.0,4.0,2.0,0.0,2.0,4.0,33.333332,,,,,,,,6.0,0.0,0.719492,0.200195,0.6560060000000001,0.10913099999999999,0.8969860000000001,-0.436042,-0.062013,-0.031735,-0.034375,-0.012258,,,,,,,,,,,,,,,,,,,,,,,,,,,,,,,,,,,,,,,,,,,,,,,,,,,,,,,,,,,,,,,,,
33250,1645900259.171734,1645900259.235261,13.0,0.0,4218.974121,4750.256348,4080.512939,4143.589844,4142.05127,450.0,1.0,15.0,,,,0.0,4.0,2.0,0.0,2.0,4.0,33.333332,,,,,,,,,,,,,,,,,,,,,,,,,,,,,,,,,,,,,,,,,,,,,,,,,,,,,,,,,,,,,,,,,,,,,,,,,,,,,,,,,,,,
33251,1645900259.179547,1645900259.243075,14.0,0.0,4225.641113000001,4780.512695,4267.692383,4096.410156,4191.794922,450.0,1.0,15.0,,,,0.0,4.0,2.0,0.0,2.0,4.0,33.333332,,,,,,,,7.0,0.0,0.719529,0.200195,0.6560060000000001,0.10888699999999998,0.904799,-0.437507,-0.038575,-0.031882,-0.034355000000000004,-0.013425,,,,,,,,,,,,,,,,,,,,,,,,,,,,,,,,,,,0.0,0.0,1.0,0.0,512.0,0.32761799999999996,,,,,,,,,,,,,,,,,,,,,,,,,
33252,1645900259.18736,1645900259.250889,15.0,0.0,4233.333496,4814.871582,4283.077147999999,4117.436035,4210.769043,16104.0,1.0,15.0,,,,0.0,4.0,2.0,0.0,2.0,4.0,33.333332,,,,,,,,,,,,,,,,,,,,,,,,,,,,,,,,,,,,,,,,,,,,,,,,,,,,,,,,,,,,,,,,,,,,,,,,,,,,,,,,,,,,
33253,1645900259.195173,1645900259.258704,16.0,0.0,4233.333496,4777.94873,4050.256348,4192.820313,4196.410156,0.0,1.0,15.0,,,,0.0,4.0,2.0,0.0,2.0,4.0,33.333332,,,,,,,,8.0,0.0,0.7193430000000001,0.200195,0.65625,0.108643,0.9052870000000001,-0.43653000000000003,-0.056152999999999995,-0.031916,-0.034435,-0.014426,,,,,,,,,,,,,,,,,,,,,,,,,,,,,,,,,,,,,,,,,,,,,,,,,,,,,,,,,,,,,,,,,
33254,1645900259.202986,1645900259.2665179,17.0,0.0,4234.358886999999,4645.641113000001,4067.179443,4203.077147999999,4181.025879,0.0,1.0,15.0,,,,0.0,4.0,2.0,0.0,2.0,4.0,33.333332,,,,,,,,,,,,,,,,,,,,,,,,,,,,,,,,,,,,,,,,,,,,,,,,,,,,,,,,,,,,,,,,,,,,,,,,,,,,,,,,,,,,
33255,1645900259.210799,1645900259.274333,18.0,0.0,4252.307617,4632.307617,4294.358886999999,4161.538574,4195.384765999999,0.0,1.0,15.0,,,,0.0,4.0,2.0,0.0,2.0,4.0,33.333332,,,,,,,,9.0,0.0,0.7193430000000001,0.200195,0.65625,0.108643,0.9121229999999999,-0.43213500000000005,-0.051759000000000006,-0.031996,-0.034506999999999996,-0.015278,,,,,,,,,,,,,,,,,,,,,,,,,,,,,,,,,,,0.0,0.0,1.0,0.0,512.0,0.32761799999999996,,,,,,,,,,,,,,,,,,,,,,,,,
33256,1645900259.218612,1645900259.2821472,19.0,0.0,4283.589844,4796.922852000001,4266.153809,4118.461426,4213.846191,0.0,1.0,15.0,,,,0.0,4.0,2.0,0.0,2.0,4.0,33.333332,,,,,,,,,,,,,,,,,,,,,,,,,,,,,,,,,,,,,,,,,,,,,,,,,,,,,,,,,,,,,,,,,,,,,,,,,,,,,,,,,,,,
33257,1645900259.226425,1645900259.2899609,20.0,0.0,4286.666504,4855.384765999999,4021.025635,4140.512695,4211.282227000001,0.0,1.0,15.0,,,,0.0,4.0,2.0,0.0,2.0,4.0,33.333332,,,,,,,,10.0,0.0,0.7193430000000001,0.200195,0.65625,0.108643,0.9043110000000001,-0.425299,-0.062501,-0.03197,-0.034475,-0.015997,,,,,,,,,,,,,,,,,,,,,,,,,,,,,,,,,,,,,,,,,,,,,,,,,,,,,,,,,,,,,,,,,
33258,1645900259.2342381,1645900259.297776,21.0,0.0,4212.820313,4736.922852000001,4051.794922,4195.384765999999,4178.974121,0.0,1.0,15.0,,,,0.0,4.0,2.0,0.0,2.0,4.0,33.333332,,,,,,,,,,,,,,,,,,,,,,,,,,,,,,,,,,,,,,,,,,,,,,,,,,,,,,,,,,,,,,,,,,,,,,,,,,,,,,,,,,,,
33259,1645900259.242051,1645900259.30549,22.0,0.0,4183.077147999999,4678.461426,4235.897461,4194.358886999999,4165.128418,0.0,1.0,15.0,,,,0.0,4.0,2.0,0.0,2.0,4.0,33.333332,0.972656,8.333333,1.0,0.0,0.0,1.0,1.0,11.0,0.0,0.7193430000000001,0.200195,0.65625,0.108643,0.902358,-0.43213500000000005,-0.052735000000000004,-0.031996,-0.034395999999999996,-0.016741,1.0,0.0,0.0,1.0,0.615992,1.482089,-0.320627,2.7019900000000003,1.0,0.195481,3.964547,-1.78625,24.317479000000002,0.191352,1.0,0.36144899999999996,-0.09039900000000001,-0.246079,0.1446,1.0,0.391852,1.559577,0.181136,3.3609910000000003,1.0,0.49166000000000004,10.194526,-61.283209,83.608485,1.0,0.394631,0.551197,0.436044,0.729789,0.0,0.0,1.0,0.0,512.0,0.320329,172.86321999999998,35.122696000000005,20.014235,6.604151,13.659822,50.529090999999994,41.675343,48.866611,28.338364000000002,62.510422,38.09811,65.662376,19.245092,60.39210500000001,51.363548,14.720295000000002,13.266276999999999,13.507279999999998,6.800199,16.126607999999997,83.017387,14.058125,6.3940529999999995,4.796158,8.628110000000001
33260,1645900259.249864,1645900259.3133051,23.0,0.0,4239.487305,4696.922852000001,4241.025879,4157.94873,4159.487305,0.0,1.0,15.0,,,,0.0,4.0,2.0,0.0,2.0,4.0,33.333332,,,,,,,,,,,,,,,,,,,,,,,,,,,,,,,,,,,,,,,,,,,,,,,,,,,,,,,,,,,,,,,,,,,,,,,,,,,,,,,,,,,,
33261,1645900259.257678,1645900259.3211188,24.0,0.0,4258.974121,4666.153809,4124.102539,4157.436035,4160.0,0.0,1.0,15.0,,,,0.0,4.0,2.0,0.0,2.0,4.0,33.333332,,,,,,,,12.0,0.0,0.719306,0.200195,0.65625,0.10888699999999998,0.9072399999999999,-0.43262399999999995,-0.059571000000000006,-0.032019,-0.034520999999999996,-0.014138999999999999,,,,,,,,,,,,,,,,,,,,,,,,,,,,,,,,,,,,,,,,,,,,,,,,,,,,,,,,,,,,,,,,,
33262,1645900259.265491,1645900259.328934,25.0,0.0,4232.820313,4677.94873,4081.538574,4125.641113000001,4187.692383,0.0,1.0,15.0,,,,0.0,4.0,2.0,0.0,2.0,4.0,33.333332,,,,,,,,,,,,,,,,,,,,,,,,,,,,,,,,,,,,,,,,,,,,,,,,,,,,,,,,,,,,,,,,,,,,,,,,,,,,,,,,,,,,
33263,1645900259.273304,1645900259.3367481,26.0,0.0,4258.461426,4784.615234000001,4126.666504,4098.461426,4217.94873,0.0,1.0,15.0,,,,0.0,4.0,2.0,0.0,2.0,4.0,33.333332,,,,,,,,13.0,0.0,0.719306,0.200195,0.65625,0.10888699999999998,0.900893,-0.435554,-0.053223,-0.028866000000000003,-0.034536000000000004,-0.014922,,,,,,,,,,,,,,,,,,,,,,,,,,,,,,,,,,,0.0,0.0,1.0,0.0,512.0,0.320329,,,,,,,,,,,,,,,,,,,,,,,,,
33264,1645900259.281117,1645900259.3445618,27.0,0.0,4278.461426,4770.769043,4195.384765999999,4158.974121,4217.436035,0.0,1.0,15.0,,,,0.0,4.0,2.0,0.0,2.0,4.0,33.333332,,,,,,,,,,,,,,,,,,,,,,,,,,,,,,,,,,,,,,,,,,,,,,,,,,,,,,,,,,,,,,,,,,,,,,,,,,,,,,,,,,,,
33265,1645900259.2889302,1645900259.352377,28.0,0.0,4241.025879,4668.205078,4286.153809,4186.666504,4205.641113000001,0.0,1.0,15.0,,,,0.0,4.0,2.0,0.0,2.0,4.0,33.333332,,,,,,,,14.0,0.0,0.719306,0.200195,0.65625,0.10888699999999998,0.902358,-0.43994799999999995,-0.057617999999999996,-0.029153,-0.0345,-0.012502,,,,,,,,,,,,,,,,,,,,,,,,,,,,,,,,,,,,,,,,,,,,,,,,,,,,,,,,,,,,,,,,,
33266,1645900259.296743,1645900259.360191,29.0,0.0,4230.256348,4728.205078,4299.487305,4136.922852000001,4223.077147999999,0.0,1.0,15.0,,,,0.0,4.0,2.0,0.0,2.0,4.0,33.333332,,,,,,,,,,,,,,,,,,,,,,,,,,,,,,,,,,,,,,,,,,,,,,,,,,,,,,,,,,,,,,,,,,,,,,,,,,,,,,,,,,,,
33267,1645900259.3045561,1645900259.368006,30.0,0.0,4246.666504,4835.897461,4267.692383,4140.512695,4231.794922,0.0,1.0,15.0,,,,0.0,4.0,2.0,0.0,2.0,4.0,33.333332,,,,,,,,15.0,0.0,0.719083,0.200195,0.6564939999999999,0.10888699999999998,0.908217,-0.43994799999999995,-0.049805,-0.026287,-0.03442,-0.013498,,,,,,,,,,,,,,,,,,,,,,,,,,,,,,,,,,,0.0,0.0,1.0,0.0,512.0,0.320329,,,,,,,,,,,,,,,,,,,,,,,,,
33268,1645900259.3123689,1645900259.37572,31.0,0.0,4258.461426,4769.743652,4221.538574,4188.717772999999,4216.922852000001,0.0,1.0,15.0,,,,0.0,4.0,2.0,0.0,2.0,4.0,33.333332,,,,,,,,,,,,,,,,,,,,,,,,,,,,,,,,,,,,,,,,,,,,,,,,,,,,,,,,,,,,,,,,,,,,,,,,,,,,,,,,,,,,
33269,1645900259.320182,1645900259.383534,32.0,0.0,4270.769043,4646.666504,4243.589844,4173.333496,4195.384765999999,0.0,1.0,15.0,,,,0.0,4.0,2.0,0.0,2.0,4.0,33.333332,,,,,,,,16.0,0.0,0.719015,0.200439,0.6564939999999999,0.10888699999999998,0.9087049999999999,-0.43994799999999995,-0.062989,-0.026881,-0.034347,-0.014394999999999998,,,,,,,,,,,,,,,,,,,,,,,,,,,,,,,,,,,,,,,,,,,,,,,,,,,,,,,,,,,,,,,,,
33270,1645900259.3279948,1645900259.391349,33.0,0.0,4288.205078,4651.282227000001,4244.102539,4160.512695,4228.205078,0.0,1.0,15.0,,,,0.0,4.0,2.0,0.0,2.0,4.0,33.333332,,,,,,,,,,,,,,,,,,,,,,,,,,,,,,,,,,,,,,,,,,,,,,,,,,,,,,,,,,,,,,,,,,,,,,,,,,,,,,,,,,,,
33271,1645900259.335808,1645900259.399163,34.0,0.0,4279.487305,4784.102539,4227.692383,4160.0,4283.589844,0.0,1.0,15.0,,,,0.0,4.0,2.0,0.0,2.0,4.0,33.333332,,,,,,,,17.0,0.0,0.719015,0.200439,0.6564939999999999,0.10888699999999998,0.904799,-0.43457700000000005,-0.055665,-0.027367000000000002,-0.034281,-0.015347999999999999,,,,,,,,,,,,,,,,,,,,,,,,,,,,,,,,,,,0.0,0.0,1.0,0.0,512.0,0.320329,,,,,,,,,,,,,,,,,,,,,,,,,
33272,1645900259.343621,1645900259.406978,35.0,0.0,4275.384765999999,4809.743652,4197.436035,4146.666504,4272.307617,0.0,1.0,15.0,,,,0.0,4.0,2.0,0.0,2.0,4.0,33.333332,,,,,,,,,,,,,,,,,,,,,,,,,,,,,,,,,,,,,,,,,,,,,,,,,,,,,,,,,,,,,,,,,,,,,,,,,,,,,,,,,,,,
33273,1645900259.351435,1645900259.414792,36.0,0.0,4274.871582,4642.05127,4193.333496,4172.307617,4197.436035,0.0,1.0,15.0,,,,0.0,4.0,2.0,0.0,2.0,4.0,33.333332,,,,,,,,18.0,0.0,0.718978,0.200439,0.6564939999999999,0.10913099999999999,0.9155409999999999,-0.442878,-0.050294,-0.027852999999999996,-0.034222,-0.01601,,,,,,,,,,,,,,,,,,,,,,,,,,,,,,,,,,,,,,,,,,,,,,,,,,,,,,,,,,,,,,,,,
33274,1645900259.3592482,1645900259.422607,37.0,0.0,4280.512695,4587.692383,4226.666504,4206.153809,4176.922852000001,0.0,1.0,15.0,,,,0.0,4.0,2.0,0.0,2.0,4.0,33.333332,,,,,,,,,,,,,,,,,,,,,,,,,,,,,,,,,,,,,,,,,,,,,,,,,,,,,,,,,,,,,,,,,,,,,,,,,,,,,,,,,,,,
33275,1645900259.367061,1645900259.430421,38.0,0.0,4290.769043,4763.589844,4223.077147999999,4122.563965,4223.077147999999,0.0,1.0,15.0,,,,0.0,4.0,2.0,0.0,2.0,4.0,33.333332,,,,,,,,19.0,0.0,0.718978,0.200439,0.6564939999999999,0.10913099999999999,0.9028459999999999,-0.43262399999999995,-0.063966,-0.02829,-0.034169,-0.013578999999999999,1.0,0.0,0.0,,,,,,,,,,,,,,,,,,,,,,,,,,,,,,,,0.0,0.0,1.0,0.0,512.0,0.365299,163.772446,26.918365,17.1532,7.4435210000000005,19.653471,60.131714,43.681835,47.192108000000005,31.891278999999997,83.977425,32.365798999999996,57.543312,21.782812,70.18579100000001,74.123604,13.022635000000001,12.943033,11.647456,6.929832000000001,19.601301,85.108215,11.382214999999999,5.9524040000000005,5.032286,11.966656
33276,1645900259.374874,1645900259.438235,39.0,0.0,4292.820313,4858.461426,4088.718018,4054.358887,4266.153809,0.0,1.0,15.0,,,,0.0,4.0,2.0,0.0,2.0,4.0,33.333332,,,,,,,,,,,,,,,,,,,,,,,,,,,,,,,,,,,,,,,,,,,,,,,,,,,,,,,,,,,,,,,,,,,,,,,,,,,,,,,,,,,,
33277,1645900259.3826869,1645900259.44595,40.0,0.0,4262.563965,4727.179688,4012.3076170000004,4136.410156,4249.230957,0.0,1.0,15.0,,,,0.0,4.0,2.0,0.0,2.0,4.0,33.333332,,,,,,,,20.0,0.0,0.71891,0.200684,0.6564939999999999,0.10913099999999999,0.910658,-0.43457700000000005,-0.042481,-0.028586,-0.03417,-0.014565,,,,,,,,,,,,,,,,,,,,,,,,,,,,,,,,,,,,,,,,,,,,,,,,,,,,,,,,,,,,,,,,,
33278,1645900259.3905,1645900259.4537652,41.0,0.0,4238.461426,4612.307617,4157.94873,4191.282227000001,4206.153809,0.0,1.0,15.0,,,,0.0,4.0,2.0,0.0,2.0,4.0,33.333332,,,,,,,,,,,,,,,,,,,,,,,,,,,,,,,,,,,,,,,,,,,,,,,,,,,,,,,,,,,,,,,,,,,,,,,,,,,,,,,,,,,,
33279,1645900259.398313,1645900259.4615788,42.0,0.0,4264.102539,4680.512695,4260.0,4122.05127,4206.153809,0.0,1.0,15.0,,,,0.0,4.0,2.0,0.0,2.0,4.0,33.333332,,,,,,,,21.0,0.0,0.718947,0.200684,0.6564939999999999,0.10888699999999998,0.9150530000000001,-0.441413,-0.06836,-0.029097,-0.03422,-0.015452,,,,,,,,,,,,,,,,,,,,,,,,,,,,,,,,,,,0.0,0.0,1.0,0.0,512.0,0.365299,,,,,,,,,,,,,,,,,,,,,,,,,
33280,1645900259.406126,1645900259.469394,43.0,0.0,4292.820313,4794.358886999999,4146.666504,4100.512695,4233.846191,0.0,1.0,15.0,,,,0.0,4.0,2.0,0.0,2.0,4.0,33.333332,,,,,,,,,,,,,,,,,,,,,,,,,,,,,,,,,,,,,,,,,,,,,,,,,,,,,,,,,,,,,,,,,,,,,,,,,,,,,,,,,,,,
33281,1645900259.413939,1645900259.477209,44.0,0.0,4276.922852000001,4751.282227000001,4004.102539,4156.922852000001,4209.230957,0.0,1.0,15.0,,,,0.0,4.0,2.0,0.0,2.0,4.0,33.333332,,,,,,,,22.0,0.0,0.718947,0.200684,0.6564939999999999,0.10888699999999998,0.900893,-0.447272,-0.0542,-0.029361,-0.034216,-0.0163,,,,,,,,,,,,,,,,,,,,,,,,,,,,,,,,,,,,,,,,,,,,,,,,,,,,,,,,,,,,,,,,,
33282,1645900259.421752,1645900259.485023,45.0,0.0,4264.615234000001,4650.256348,4097.436035,4145.641113000001,4176.410156,0.0,1.0,15.0,,,,0.0,4.0,2.0,0.0,2.0,4.0,33.333332,,,,,,,,,,,,,,,,,,,,,,,,,,,,,,,,,,,,,,,,,,,,,,,,,,,,,,,,,,,,,,,,,,,,,,,,,,,,,,,,,,,,
33283,1645900259.429565,1645900259.4928381,46.0,0.0,4280.512695,4694.871582,4287.179688,4075.384521,4226.153809,0.0,1.0,15.0,,,,0.0,4.0,2.0,0.0,2.0,4.0,33.333332,,,,,,,,23.0,0.0,0.7191390000000001,0.200928,0.65625,0.108643,0.901869,-0.44190100000000004,-0.048829000000000004,-0.029599,-0.034261,-0.013888,,,,,,,,,,,,,,,,,,,,,,,,,,,,,,,,,,,0.0,0.0,1.0,0.0,512.0,0.365299,,,,,,,,,,,,,,,,,,,,,,,,,
33284,1645900259.437379,1645900259.500653,47.0,0.0,4287.692383,4773.333496,4274.871582,4091.794922,4272.820313,0.0,1.0,15.0,,,,0.0,4.0,2.0,0.0,2.0,4.0,33.333332,,,,,,,,,,,,,,,,,,,,,,,,,,,,,,,,,,,,,,,,,,,,,,,,,,,,,,,,,,,,,,,,,,,,,,,,,,,,,,,,,,,,
33285,1645900259.445192,1645900259.508467,48.0,0.0,4277.436035,4720.0,4064.102539,4199.487305,4246.666504,0.0,1.0,15.0,,,,0.0,4.0,2.0,0.0,2.0,4.0,33.333332,,,,,,,,24.0,0.0,0.7191390000000001,0.200928,0.65625,0.108643,0.908217,-0.440925,-0.062989,-0.029813,-0.034205,-0.014746,,,,,,,,,,,,,,,,,,,,,,,,,,,,,,,,,,,,,,,,,,,,,,,,,,,,,,,,,,,,,,,,,
33286,1645900259.453004,1645900259.516182,49.0,0.0,4250.769043,4628.717772999999,4093.8461909999996,4232.820313,4193.333496,0.0,1.0,15.0,,,,0.0,4.0,2.0,0.0,2.0,4.0,33.333332,,,,,,,,,,,,,,,,,,,,,,,,,,,,,,,,,,,,,,,,,,,,,,,,,,,,,,,,,,,,,,,,,,,,,,,,,,,,,,,,,,,,
33287,1645900259.460818,1645900259.523997,50.0,0.0,4260.0,4640.0,4304.102539,4172.307617,4210.256348,0.0,1.0,15.0,,,,0.0,4.0,2.0,0.0,2.0,4.0,33.333332,,,,,,,,25.0,0.0,0.7191390000000001,0.200928,0.65625,0.108643,0.9043110000000001,-0.43994799999999995,-0.062501,-0.029957,-0.034201999999999996,-0.012343000000000002,,,,,,,,,,,,,,,,,,,,,,,,,,,,,,,,,,,0.0,0.0,1.0,0.0,512.0,0.365299,,,,,,,,,,,,,,,,,,,,,,,,,
33288,1645900259.468631,1645900259.531811,51.0,0.0,4318.974121,4742.05127,4285.128418,4122.563965,4238.974121,0.0,1.0,15.0,,,,0.0,4.0,2.0,0.0,2.0,4.0,33.333332,,,,,,,,,,,,,,,,,,,,,,,,,,,,,,,,,,,,,,,,,,,,,,,,,,,,,,,,,,,,,,,,,,,,,,,,,,,,,,,,,,,,
33289,1645900259.476444,1645900259.539626,52.0,0.0,4347.692383,4809.743652,4054.358887,4131.794922,4227.692383,0.0,1.0,15.0,,,,0.0,4.0,2.0,0.0,2.0,4.0,33.333332,,,,,,,,26.0,0.0,0.7191390000000001,0.200928,0.65625,0.108643,0.8955209999999999,-0.443366,-0.059571000000000006,-0.030086,-0.0342,-0.013404,,,,,,,,,,,,,,,,,,,,,,,,,,,,,,,,,,,,,,,,,,,,,,,,,,,,,,,,,,,,,,,,,
33290,1645900259.484257,1645900259.547441,53.0,0.0,4270.769043,4780.0,4064.102539,4132.307617,4230.769043,0.0,1.0,15.0,,,,0.0,4.0,2.0,0.0,2.0,4.0,33.333332,,,,,,,,,,,,,,,,,,,,,,,,,,,,,,,,,,,,,,,,,,,,,,,,,,,,,,,,,,,,,,,,,,,,,,,,,,,,,,,,,,,,
33291,1645900259.49207,1645900259.5552552,54.0,0.0,4230.256348,4713.846191,4249.230957,4150.769043,4263.077147999999,0.0,1.0,15.0,,,,0.0,4.0,2.0,0.0,2.0,4.0,33.333332,,,,,,,,27.0,0.0,0.7191390000000001,0.200928,0.65625,0.108643,0.9091940000000001,-0.446784,-0.050782,-0.030154000000000004,-0.0341,-0.011184999999999999,1.0,0.0,0.0,,,,,,,,,,,,,,,,,,,,,,,,,,,,,,,,0.0,0.0,1.0,0.0,512.0,0.288459,137.58286999999999,18.285149,13.254588,8.163364999999999,24.671024,75.311501,47.938057,43.802459999999996,33.658279,101.00878900000001,27.181441999999997,50.128890999999996,26.910466999999997,77.380577,96.308105,11.320742,12.676149,10.745283,7.0311509999999995,21.738326999999998,77.354538,9.025683,5.126416000000001,4.921814,14.812285000000001
33292,1645900259.499883,1645900259.5630698,55.0,0.0,4292.307617,4687.179688,4255.384765999999,4187.692383,4240.512695,0.0,1.0,15.0,,,,0.0,4.0,2.0,0.0,2.0,4.0,33.333332,,,,,,,,,,,,,,,,,,,,,,,,,,,,,,,,,,,,,,,,,,,,,,,,,,,,,,,,,,,,,,,,,,,,,,,,,,,,,,,,,,,,
33293,1645900259.5076962,1645900259.570885,56.0,0.0,4333.846191,4727.179688,4080.512939,4187.692383,4206.666504,0.0,1.0,15.0,,,,0.0,4.0,2.0,0.0,2.0,4.0,33.333332,,,,,,,,28.0,0.0,0.7191390000000001,0.200928,0.65625,0.108643,0.898451,-0.443366,-0.055177,-0.030262999999999998,-0.034157,-0.012361,,,,,,,,,,,,,,,,,,,,,,,,,,,,,,,,,,,,,,,,,,,,,,,,,,,,,,,,,,,,,,,,,
33294,1645900259.515509,1645900259.578599,57.0,0.0,4293.333496,4780.512695,4038.974365,4156.410156,4228.717772999999,0.0,1.0,15.0,,,,0.0,4.0,2.0,0.0,2.0,4.0,33.333332,,,,,,,,,,,,,,,,,,,,,,,,,,,,,,,,,,,,,,,,,,,,,,,,,,,,,,,,,,,,,,,,,,,,,,,,,,,,,,,,,,,,
33295,1645900259.523322,1645900259.586414,58.0,0.0,4274.871582,4759.487305,4193.333496,4126.666504,4253.333496,0.0,1.0,15.0,,,,0.0,4.0,2.0,0.0,2.0,4.0,33.333332,,,,,,,,29.0,0.0,0.718916,0.200928,0.6564939999999999,0.108643,0.900893,-0.44483100000000003,-0.050782,-0.030557,-0.034207999999999995,-0.013371000000000001,,,,,,,,,,,,,,,,,,,,,,,,,,,,,,,,,,,0.0,0.0,1.0,0.0,512.0,0.288459,,,,,,,,,,,,,,,,,,,,,,,,,
33296,1645900259.5311348,1645900259.594229,59.0,0.0,4302.05127,4648.205078,4278.974121,4127.179688,4254.358886999999,0.0,1.0,15.0,,,,0.0,4.0,2.0,0.0,2.0,4.0,33.333332,,,,,,,,,,,,,,,,,,,,,,,,,,,,,,,,,,,,,,,,,,,,,,,,,,,,,,,,,,,,,,,,,,,,,,,,,,,,,,,,,,,,
33297,1645900259.538948,1645900259.602043,60.0,0.0,4290.256348,4599.487305,4214.871582,4176.922852000001,4250.769043,0.0,1.0,15.0,,,,0.0,4.0,2.0,0.0,2.0,4.0,33.333332,,,,,,,,30.0,0.0,0.7191390000000001,0.200928,0.65625,0.108643,0.9091940000000001,-0.446784,-0.050782,-0.030626999999999998,-0.034254,-0.011155,,,,,,,,,,,,,,,,,,,,,,,,,,,,,,,,,,,,,,,,,,,,,,,,,,,,,,,,,,,,,,,,,
33298,1645900259.546762,1645900259.609858,61.0,0.0,4261.538574,4693.333496,4104.102539,4207.179688,4241.025879,0.0,1.0,15.0,,,,0.0,4.0,2.0,0.0,2.0,4.0,33.333332,,,,,,,,,,,,,,,,,,,,,,,,,,,,,,,,,,,,,,,,,,,,,,,,,,,,,,,,,,,,,,,,,,,,,,,,,,,,,,,,,,,,
33299,1645900259.554575,1645900259.617672,62.0,0.0,4276.410156,4754.358886999999,4167.179688,4150.769043,4227.692383,0.0,1.0,15.0,,,,0.0,4.0,2.0,0.0,2.0,4.0,33.333332,,,,,,,,31.0,0.0,0.718916,0.200928,0.6564939999999999,0.108643,0.900893,-0.44483100000000003,-0.050782,-0.030883999999999998,-0.034296,-0.012286,,,,,,,,,,,,,,,,,,,,,,,,,,,,,,,,,,,0.0,0.0,1.0,0.0,512.0,0.288459,,,,,,,,,,,,,,,,,,,,,,,,,
33300,1645900259.5623882,1645900259.6254869,63.0,0.0,4311.794922,4702.05127,4311.282227000001,4123.589844,4239.487305,0.0,1.0,15.0,,,,0.0,4.0,2.0,0.0,2.0,4.0,33.333332,,,,,,,,,,,,,,,,,,,,,,,,,,,,,,,,,,,,,,,,,,,,,,,,,,,,,,,,,,,,,,,,,,,,,,,,,,,,,,,,,,,,
33301,1645900259.570201,1645900259.633302,64.0,0.0,4313.333496,4692.820313,4295.384765999999,4147.692383,4251.794922,450.0,1.0,15.0,,,,0.0,4.0,2.0,0.0,2.0,4.0,33.333332,,,,,,,,32.0,0.0,0.718916,0.200928,0.6564939999999999,0.108643,0.9028459999999999,-0.423346,-0.058106,-0.030920999999999997,-0.034186,-0.013352000000000001,,,,,,,,,,,,,,,,,,,,,,,,,,,,,,,,,,,,,,,,,,,,,,,,,,,,,,,,,,,,,,,,,
33302,1645900259.5780141,1645900259.641116,65.0,0.0,4291.794922,4722.563965,4104.615234000001,4132.307617,4249.743652,450.0,1.0,15.0,,,,0.0,4.0,2.0,0.0,2.0,4.0,33.333332,,,,,,,,,,,,,,,,,,,,,,,,,,,,,,,,,,,,,,,,,,,,,,,,,,,,,,,,,,,,,,,,,,,,,,,,,,,,,,,,,,,,
33303,1645900259.5858269,1645900259.648931,66.0,0.0,4263.589844,4645.128418,4125.128418,4160.0,4212.820313,16175.0,1.0,15.0,,,,0.0,4.0,2.0,0.0,2.0,4.0,33.333332,,,,,,,,33.0,0.0,0.718916,0.200928,0.6564939999999999,0.108643,0.8955209999999999,-0.43897200000000003,-0.055177,-0.030954000000000002,-0.034186,-0.011138,,,,,,,,,,,,,,,,,,,,,,,,,,,,,,,,,,,0.0,0.0,1.0,0.0,512.0,0.288459,,,,,,,,,,,,,,,,,,,,,,,,,
33304,1645900259.59364,1645900259.6567461,67.0,0.0,4286.153809,4616.410156,4309.743652,4233.333496,4215.384765999999,450.0,1.0,15.0,,,,0.0,4.0,2.0,0.0,2.0,4.0,33.333332,,,,,,,,,,,,,,,,,,,,,,,,,,,,,,,,,,,,,,,,,,,,,,,,,,,,,,,,,,,,,,,,,,,,,,,,,,,,,,,,,,,,
33305,1645900259.6014528,1645900259.66446,68.0,0.0,4340.512695,4747.692383,4283.077147999999,4177.436035,4266.666504,58.0,1.0,15.0,,,,0.0,4.0,1.0,0.0,2.0,4.0,25.0,,,,,,,,34.0,0.0,0.718916,0.200928,0.6564939999999999,0.108643,0.9052870000000001,-0.440436,-0.053223,-0.031081,-0.034136,-0.01227,,,,,,,,,,,,,,,,,,,,,,,,,,,,,,,,,,,,,,,,,,,,,,,,,,,,,,,,,,,,,,,,,
33306,1645900259.609266,1645900259.672275,69.0,0.0,4333.846191,4791.794922,4073.8461909999996,4106.666504,4261.538574,450.0,1.0,15.0,,,,0.0,4.0,1.0,0.0,2.0,4.0,25.0,,,,,,,,,,,,,,,,,,,,,,,,,,,,,,,,,,,,,,,,,,,,,,,,,,,,,,,,,,,,,,,,,,,,,,,,,,,,,,,,,,,,
33307,1645900259.617079,1645900259.679989,70.0,0.0,4258.974121,4678.974121,4108.205078,4157.436035,4200.512695,11.0,1.0,15.0,,,,0.0,4.0,1.0,0.0,4.0,4.0,41.666668,,,,,,,,35.0,0.0,0.718916,0.200928,0.6564939999999999,0.108643,0.902358,-0.443366,-0.062501,-0.031098,-0.034141000000000005,-0.013143,1.0,0.0,0.0,,,,,,,,,,,,,,,,,,,,,,,,,,,,,,,,0.0,0.0,32.0,0.027538,1.0,0.0,101.991051,11.482164,9.455022,8.559453999999999,27.143879,92.85807,52.727116,39.610924,33.208157,108.41925,23.537638,44.483387,34.028351,80.620811,111.945847,10.095585,12.737999,10.578219,7.135389999999999,21.957922,62.000263000000004,7.729669,4.1908449999999995,4.53295,16.326122
33308,1645900259.624892,1645900259.687804,71.0,0.0,4249.743652,4595.897461,4300.0,4206.666504,4216.922852000001,450.0,1.0,15.0,,,,0.0,4.0,1.0,0.0,4.0,4.0,41.666668,,,,,,,,,,,,,,,,,,,,,,,,,,,,,,,,,,,,,,,,,,,,,,,,,,,,,,,,,,,,,,,,,,,,,,,,,,,,,,,,,,,,
33309,1645900259.632705,1645900259.6956189,72.0,0.0,4307.692383,4636.410156,4285.641113000001,4144.615234000001,4257.436035,450.0,1.0,15.0,,,,0.0,4.0,1.0,0.0,4.0,4.0,41.666668,,,,,,,,36.0,0.0,0.718916,0.200928,0.6564939999999999,0.108643,0.8964979999999999,-0.424811,-0.059571000000000006,-0.031211000000000003,-0.034194,-0.014025999999999999,,,,,,,,,,,,,,,,,,,,,,,,,,,,,,,,,,,,,,,,,,,,,,,,,,,,,,,,,,,,,,,,,
33310,1645900259.640519,1645900259.703433,73.0,0.0,4336.410156,4744.615234000001,4130.256348,4115.897461,4231.282227000001,16070.0,1.0,15.0,,,,0.0,4.0,1.0,0.0,4.0,4.0,41.666668,,,,,,,,,,,,,,,,,,,,,,,,,,,,,,,,,,,,,,,,,,,,,,,,,,,,,,,,,,,,,,,,,,,,,,,,,,,,,,,,,,,,
33311,1645900259.648332,1645900259.7112482,74.0,0.0,4315.897461,4777.436035,4137.436035,4175.384765999999,4215.897461,450.0,1.0,15.0,,,,0.0,4.0,1.0,0.0,4.0,4.0,41.666668,,,,,,,,37.0,0.0,0.7188479999999999,0.201172,0.6564939999999999,0.108643,0.897475,-0.437018,-0.056641,-0.031264,-0.034095,-0.011793000000000001,,,,,,,,,,,,,,,,,,,,,,,,,,,,,,,,,,,0.0,0.0,32.0,0.027538,1.0,0.0,,,,,,,,,,,,,,,,,,,,,,,,,
33312,1645900259.6561449,1645900259.719063,75.0,0.0,4285.128418,4720.0,4289.230957,4187.179688,4248.205078,16103.0,1.0,15.0,,,,0.0,4.0,1.0,0.0,4.0,4.0,41.666668,,,,,,,,,,,,,,,,,,,,,,,,,,,,,,,,,,,,,,,,,,,,,,,,,,,,,,,,,,,,,,,,,,,,,,,,,,,,,,,,,,,,
33313,1645900259.663958,1645900259.726877,76.0,0.0,4276.410156,4718.974121,4300.512695,4117.436035,4253.846191,450.0,1.0,15.0,,,,0.0,4.0,1.0,0.0,4.0,4.0,41.666668,,,,,,,,38.0,0.0,0.718879,0.200928,0.6564939999999999,0.10888699999999998,0.906752,-0.44190100000000004,-0.063966,-0.03136,-0.034102999999999994,-0.012811000000000001,,,,,,,,,,,,,,,,,,,,,,,,,,,,,,,,,,,,,,,,,,,,,,,,,,,,,,,,,,,,,,,,,
33314,1645900259.671771,1645900259.734692,77.0,0.0,4300.0,4751.794922,4206.666504,4102.563965,4228.717772999999,450.0,1.0,15.0,,,,0.0,4.0,1.0,0.0,4.0,4.0,41.666668,,,,,,,,,,,,,,,,,,,,,,,,,,,,,,,,,,,,,,,,,,,,,,,,,,,,,,,,,,,,,,,,,,,,,,,,,,,,,,,,,,,,
33315,1645900259.679584,1645900259.742407,78.0,0.0,4337.94873,4698.461426,4206.153809,4190.256348,4245.128418,450.0,1.0,15.0,,,,0.0,4.0,1.0,0.0,4.0,4.0,41.666668,,,,,,,,39.0,0.0,0.718916,0.200928,0.6564939999999999,0.108643,0.910658,-0.443366,-0.049805,-0.031398,-0.034111,-0.013727000000000001,,,,,,,,,,,,,,,,,,,,,,,,,,,,,,,,,,,0.0,0.0,32.0,0.027538,1.0,0.0,,,,,,,,,,,,,,,,,,,,,,,,,
33316,1645900259.687397,1645900259.750221,79.0,0.0,4341.025879,4668.205078,4296.922852000001,4196.410156,4285.641113000001,16103.0,1.0,15.0,,,,0.0,4.0,1.0,0.0,4.0,4.0,41.666668,,,,,,,,,,,,,,,,,,,,,,,,,,,,,,,,,,,,,,,,,,,,,,,,,,,,,,,,,,,,,,,,,,,,,,,,,,,,,,,,,,,,
33317,1645900259.69521,1645900259.758036,80.0,0.0,4307.179688,4677.94873,4214.358886999999,4144.615234000001,4283.077147999999,450.0,1.0,15.0,,,,0.0,4.0,1.0,0.0,4.0,4.0,41.666668,,,,,,,,40.0,0.0,0.7189840000000001,0.200684,0.6564939999999999,0.108643,0.905776,-0.449226,-0.059571000000000006,-0.031481,-0.034118,-0.011573,,,,,,,,,,,,,,,,,,,,,,,,,,,,,,,,,,,,,,,,,,,,,,,,,,,,,,,,,,,,,,,,,
33318,1645900259.703023,1645900259.765851,81.0,0.0,4284.615234000001,4649.230957,4138.974121,4198.974121,4232.820313,450.0,1.0,15.0,,,,0.0,4.0,1.0,0.0,4.0,4.0,41.666668,,,,,,,,,,,,,,,,,,,,,,,,,,,,,,,,,,,,,,,,,,,,,,,,,,,,,,,,,,,,,,,,,,,,,,,,,,,,,,,,,,,,
33319,1645900259.710836,1645900259.773665,82.0,0.0,4327.179688,4684.102539,4226.666504,4260.512695,4247.179688,450.0,1.0,15.0,,,,0.0,4.0,1.0,0.0,4.0,4.0,41.666668,,,,,,,,41.0,0.0,0.7189840000000001,0.200684,0.6564939999999999,0.108643,0.9052870000000001,-0.44190100000000004,-0.06347799999999999,-0.031653,-0.034270999999999996,-0.012759999999999999,,,,,,,,,,,,,,,,,,,,,,,,,,,,,,,,,,,0.0,0.0,32.0,0.027538,1.0,0.0,,,,,,,,,,,,,,,,,,,,,,,,,
33320,1645900259.718649,1645900259.78148,83.0,0.0,4386.666504,4785.641113000001,4250.256348,4188.205078,4308.205078,16103.0,1.0,15.0,,,,0.0,4.0,1.0,0.0,4.0,4.0,41.666668,,,,,,,,,,,,,,,,,,,,,,,,,,,,,,,,,,,,,,,,,,,,,,,,,,,,,,,,,,,,,,,,,,,,,,,,,,,,,,,,,,,,
33321,1645900259.726462,1645900259.789295,84.0,0.0,4371.794922,4772.307617,4088.205078,4140.512695,4310.256348,450.0,1.0,15.0,,,,0.0,4.0,1.0,0.0,4.0,4.0,41.666668,,,,,,,,42.0,0.0,0.7189840000000001,0.200684,0.6564939999999999,0.108643,0.901381,-0.44190100000000004,-0.049805,-0.031711,-0.034408,-0.010703,,,,,,,,,,,,,,,,,,,,,,,,,,,,,,,,,,,,,,,,,,,,,,,,,,,,,,,,,,,,,,,,,
33322,1645900259.734275,1645900259.797109,85.0,0.0,4291.282227000001,4603.589844,4110.256348,4216.922852000001,4249.230957,450.0,1.0,15.0,,,,0.0,4.0,1.0,0.0,4.0,4.0,41.666668,,,,,,,,,,,,,,,,,,,,,,,,,,,,,,,,,,,,,,,,,,,,,,,,,,,,,,,,,,,,,,,,,,,,,,,,,,,,,,,,,,,,
33323,1645900259.742088,1645900259.804824,86.0,0.0,4283.077147999999,4557.436035,4284.615234000001,4253.846191,4246.153809,450.0,1.0,15.0,,,,0.0,4.0,1.0,0.0,4.0,4.0,41.666668,0.972656,8.333333,1.0,0.0,0.0,1.0,1.0,43.0,0.0,0.7189840000000001,0.200684,0.6564939999999999,0.108643,0.918959,-0.422858,-0.062013,-0.031762,-0.034483,-0.011878,1.0,0.0,0.0,,,,,,,,,,,,,,,,,,,,,,,,,,,,,,,,0.0,0.0,32.0,0.025719,1.0,0.0,66.788063,7.5585580000000006,6.630051,8.557985,26.305412,105.324127,55.775215,35.281574,31.091455,104.516212,23.065739,40.984131,41.072376,79.16838800000001,117.776031,9.505566,13.108257,10.823755,7.37487,20.36092,43.916022999999996,7.751689999999999,3.397139,4.0784400000000005,16.103659
33324,1645900259.749902,1645900259.812639,87.0,0.0,4344.102539,4725.128418,4262.563965,4169.230957,4296.922852000001,16103.0,1.0,15.0,,,,0.0,4.0,1.0,0.0,4.0,4.0,41.666668,,,,,,,,,,,,,,,,,,,,,,,,,,,,,,,,,,,,,,,,,,,,,,,,,,,,,,,,,,,,,,,,,,,,,,,,,,,,,,,,,,,,
33325,1645900259.757715,1645900259.820453,88.0,0.0,4365.128418,4796.410156,4123.589844,4136.410156,4300.512695,450.0,1.0,15.0,,,,0.0,4.0,1.0,0.0,4.0,4.0,41.666668,,,,,,,,44.0,0.0,0.718947,0.200684,0.6564939999999999,0.10888699999999998,0.91017,-0.423835,-0.05127,-0.028635,-0.034453,-0.012888,,,,,,,,,,,,,,,,,,,,,,,,,,,,,,,,,,,,,,,,,,,,,,,,,,,,,,,,,,,,,,,,,
33326,1645900259.765528,1645900259.828268,89.0,0.0,4308.717772999999,4642.563965,4162.05127,4182.563965,4248.205078,450.0,1.0,15.0,,,,0.0,4.0,1.0,0.0,4.0,4.0,41.666668,,,,,,,,,,,,,,,,,,,,,,,,,,,,,,,,,,,,,,,,,,,,,,,,,,,,,,,,,,,,,,,,,,,,,,,,,,,,,,,,,,,,
33327,1645900259.773341,1645900259.836083,90.0,0.0,4268.205078,4568.205078,4312.307617,4181.538574,4225.641113000001,450.0,1.0,15.0,,,,0.0,4.0,1.0,0.0,4.0,4.0,41.666668,,,,,,,,45.0,0.0,0.71891,0.200684,0.6564939999999999,0.10913099999999999,0.894545,-0.440436,-0.05712999999999999,-0.028945,-0.034377,-0.013845,,,,,,,,,,,,,,,,,,,,,,,,,,,,,,,,,,,0.0,0.0,32.0,0.025719,1.0,0.0,,,,,,,,,,,,,,,,,,,,,,,,,
33328,1645900259.781154,1645900259.843897,91.0,0.0,4277.436035,4669.230957,4324.102539,4142.05127,4229.743652,16103.0,1.0,15.0,,,,0.0,4.0,1.0,0.0,4.0,4.0,41.666668,,,,,,,,,,,,,,,,,,,,,,,,,,,,,,,,,,,,,,,,,,,,,,,,,,,,,,,,,,,,,,,,,,,,,,,,,,,,,,,,,,,,
33329,1645900259.788967,1645900259.851712,92.0,0.0,4285.128418,4700.0,4206.153809,4138.974121,4226.666504,450.0,1.0,15.0,,,,0.0,4.0,1.0,0.0,4.0,4.0,41.666668,,,,,,,,46.0,0.0,0.718873,0.200684,0.6564939999999999,0.109375,0.8930799999999999,-0.43799499999999997,-0.070314,-0.029077999999999996,-0.034308,-0.011581999999999999,,,,,,,,,,,,,,,,,,,,,,,,,,,,,,,,,,,,,,,,,,,,,,,,,,,,,,,,,,,,,,,,,
33330,1645900259.79678,1645900259.859526,93.0,0.0,4286.153809,4653.333496,4116.410156,4152.307617,4237.94873,450.0,1.0,15.0,,,,0.0,4.0,1.0,0.0,4.0,4.0,41.666668,,,,,,,,,,,,,,,,,,,,,,,,,,,,,,,,,,,,,,,,,,,,,,,,,,,,,,,,,,,,,,,,,,,,,,,,,,,,,,,,,,,,
33331,1645900259.804593,1645900259.867241,94.0,0.0,4284.102539,4640.0,4225.128418,4162.05127,4245.128418,450.0,1.0,15.0,,,,0.0,4.0,1.0,0.0,4.0,4.0,41.666668,,,,,,,,47.0,0.0,0.718805,0.200928,0.6564939999999999,0.109375,0.9028459999999999,-0.44531899999999996,-0.05712999999999999,-0.029294999999999998,-0.034198,-0.012719,,,,,,,,,,,,,,,,,,,,,,,,,,,,,,,,,,,0.0,0.0,32.0,0.025719,1.0,0.0,,,,,,,,,,,,,,,,,,,,,,,,,
33332,1645900259.812406,1645900259.875056,95.0,0.0,4295.384765999999,4664.102539,4343.589844,4165.641113000001,4251.282227000001,16103.0,1.0,15.0,,,,0.0,4.0,1.0,0.0,4.0,4.0,41.666668,,,,,,,,,,,,,,,,,,,,,,,,,,,,,,,,,,,,,,,,,,,,,,,,,,,,,,,,,,,,,,,,,,,,,,,,,,,,,,,,,,,,
33333,1645900259.820219,1645900259.88287,96.0,0.0,4297.436035,4693.846191,4266.153809,4125.641113000001,4271.282227000001,450.0,1.0,15.0,,,,0.0,4.0,1.0,0.0,4.0,4.0,41.666668,,,,,,,,48.0,0.0,0.718805,0.200928,0.6564939999999999,0.109375,0.8994280000000001,-0.435554,-0.062501,-0.029637,-0.034147000000000004,-0.010519,,,,,,,,,,,,,,,,,,,,,,,,,,,,,,,,,,,,,,,,,,,,,,,,,,,,,,,,,,,,,,,,,
33334,1645900259.828032,1645900259.8906848,97.0,0.0,4275.384765999999,4661.025879,4080.512939,4133.333496,4267.179688,450.0,1.0,15.0,,,,0.0,4.0,1.0,0.0,4.0,4.0,41.666668,,,,,,,,,,,,,,,,,,,,,,,,,,,,,,,,,,,,,,,,,,,,,,,,,,,,,,,,,,,,,,,,,,,,,,,,,,,,,,,,,,,,
33335,1645900259.8358462,1645900259.8985,98.0,0.0,4255.384765999999,4596.410156,4121.538574,4195.384765999999,4226.666504,450.0,1.0,15.0,,,,0.0,4.0,1.0,0.0,4.0,4.0,41.666668,,,,,,,,49.0,0.0,0.718805,0.200928,0.6564939999999999,0.109375,0.886732,-0.440925,-0.064454,-0.029847000000000002,-0.034102,-0.008686,,,,,,,,,,,,,,,,,,,,,,,,,,,,,,,,,,,0.0,0.0,32.0,0.025719,1.0,0.0,,,,,,,,,,,,,,,,,,,,,,,,,
33336,1645900259.843659,1645900259.9063141,99.0,0.0,4298.461426,4641.538574,4304.615234000001,4184.615234000001,4246.153809,16103.0,1.0,15.0,,,,0.0,4.0,1.0,0.0,4.0,4.0,41.666668,,,,,,,,,,,,,,,,,,,,,,,,,,,,,,,,,,,,,,,,,,,,,,,,,,,,,,,,,,,,,,,,,,,,,,,,,,,,,,,,,,,,
33337,1645900259.8514721,1645900259.914129,100.0,0.0,4341.538574,4755.897461,4320.0,4101.025879,4272.307617,450.0,1.0,15.0,,,,0.0,4.0,1.0,0.0,4.0,4.0,41.666668,,,,,,,,50.0,0.0,0.718805,0.200928,0.6564939999999999,0.109375,0.914565,-0.441413,-0.059571000000000006,-0.029988,-0.034158,-0.006987,,,,,,,,,,,,,,,,,,,,,,,,,,,,,,,,,,,,,,,,,,,,,,,,,,,,,,,,,,,,,,,,,
33338,1645900259.8592849,1645900259.921944,101.0,0.0,4309.743652,4716.922852000001,4132.820313,4094.358887,4258.461426,450.0,1.0,15.0,,,,0.0,4.0,1.0,0.0,4.0,4.0,41.666668,,,,,,,,,,,,,,,,,,,,,,,,,,,,,,,,,,,,,,,,,,,,,,,,,,,,,,,,,,,,,,,,,,,,,,,,,,,,,,,,,,,,
33339,1645900259.867098,1645900259.929758,102.0,0.0,4248.205078,4598.974121,4078.974365,4162.563965,4263.077147999999,450.0,1.0,15.0,,,,0.0,4.0,1.0,0.0,4.0,4.0,41.666668,,,,,,,,51.0,0.0,0.718737,0.201172,0.6564939999999999,0.109375,0.9004040000000001,-0.44824899999999995,-0.051759000000000006,-0.027038,-0.034112,-0.008583,1.0,0.0,0.0,,,,,,,,,,,,,,,,,,,,,,,,,,,,,,,,0.0,0.0,32.0,0.020011,1.0,0.0,38.999531,6.2088220000000005,5.070787999999999,8.243217,22.57415,108.32069399999999,55.025688,30.95792,28.748964,91.752792,26.224194,39.267047999999996,45.530109,73.081131,114.880676,9.532616,13.581551000000001,11.188725,7.9708190000000005,17.676743,27.574944,8.70084,2.851305,3.795213,14.354792999999999
33340,1645900259.8749108,1645900259.937573,103.0,0.0,4264.102539,4596.922852000001,4240.512695,4197.436035,4275.897461,16103.0,1.0,15.0,,,,0.0,4.0,1.0,0.0,4.0,4.0,41.666668,,,,,,,,,,,,,,,,,,,,,,,,,,,,,,,,,,,,,,,,,,,,,,,,,,,,,,,,,,,,,,,,,,,,,,,,,,,,,,,,,,,,
33341,1645900259.882724,1645900259.9452882,104.0,0.0,4306.666504,4633.846191,4298.461426,4163.589844,4223.589844,450.0,1.0,15.0,,,,0.0,4.0,1.0,0.0,4.0,4.0,41.666668,,,,,,,,52.0,0.0,0.7187,0.201172,0.6564939999999999,0.10961900000000001,0.9004040000000001,-0.433112,-0.045899,-0.027556999999999998,-0.034118,-0.006797,,,,,,,,,,,,,,,,,,,,,,,,,,,,,,,,,,,,,,,,,,,,,,,,,,,,,,,,,,,,,,,,,
33342,1645900259.890537,1645900259.9531019,105.0,0.0,4306.666504,4645.641113000001,4172.307617,4137.94873,4191.794922,450.0,1.0,15.0,,,,0.0,4.0,1.0,0.0,4.0,4.0,41.666668,,,,,,,,,,,,,,,,,,,,,,,,,,,,,,,,,,,,,,,,,,,,,,,,,,,,,,,,,,,,,,,,,,,,,,,,,,,,,,,,,,,,
33343,1645900259.89835,1645900259.960816,106.0,0.0,4294.358886999999,4676.922852000001,4117.436035,4127.179688,4230.769043,450.0,1.0,15.0,,,,0.0,4.0,1.0,0.0,4.0,4.0,41.666668,,,,,,,,53.0,0.0,0.718476,0.201172,0.656738,0.10961900000000001,0.897963,-0.431159,-0.043458,-0.028024,-0.034026999999999995,-0.005239,,,,,,,,,,,,,,,,,,,,,,,,,,,,,,,,,,,0.0,0.0,32.0,0.020011,1.0,0.0,,,,,,,,,,,,,,,,,,,,,,,,,
33344,1645900259.906163,1645900259.968631,107.0,0.0,4310.256348,4697.436035,4181.025879,4097.436035,4246.153809,16103.0,1.0,15.0,,,,0.0,4.0,1.0,0.0,4.0,4.0,41.666668,,,,,,,,,,,,,,,,,,,,,,,,,,,,,,,,,,,,,,,,,,,,,,,,,,,,,,,,,,,,,,,,,,,,,,,,,,,,,,,,,,,,
33345,1645900259.913976,1645900259.976445,108.0,0.0,4310.256348,4675.897461,4214.871582,4074.358887,4230.256348,450.0,1.0,15.0,,,,0.0,4.0,1.0,0.0,4.0,4.0,41.666668,,,,,,,,54.0,0.0,0.718662,0.201172,0.6564939999999999,0.10986300000000002,0.9091940000000001,-0.43457700000000005,-0.050294,-0.028542,-0.033944999999999996,-0.007059,,,,,,,,,,,,,,,,,,,,,,,,,,,,,,,,,,,,,,,,,,,,,,,,,,,,,,,,,,,,,,,,,
33346,1645900259.9217892,1645900259.9842598,109.0,0.0,4285.128418,4627.692383,4226.666504,4102.05127,4245.641113000001,450.0,1.0,15.0,,,,0.0,4.0,1.0,0.0,4.0,4.0,41.666668,,,,,,,,,,,,,,,,,,,,,,,,,,,,,,,,,,,,,,,,,,,,,,,,,,,,,,,,,,,,,,,,,,,,,,,,,,,,,,,,,,,,
33347,1645900259.9296029,1645900259.992074,110.0,0.0,4277.436035,4591.794922,4205.128418,4157.94873,4266.666504,450.0,1.0,15.0,,,,0.0,4.0,1.0,0.0,4.0,4.0,41.666668,,,,,,,,55.0,0.0,0.718625,0.201172,0.6564939999999999,0.110107,0.9072399999999999,-0.43408900000000006,-0.048829000000000004,-0.02891,-0.033871,-0.008648000000000001,,,,,,,,,,,,,,,,,,,,,,,,,,,,,,,,,,,0.0,0.0,32.0,0.020011,1.0,0.0,,,,,,,,,,,,,,,,,,,,,,,,,
33348,1645900259.9374151,1645900259.9998882,111.0,0.0,4269.230957,4608.717772999999,4182.05127,4189.743652,4237.436035,16103.0,1.0,15.0,,,,0.0,4.0,1.0,0.0,4.0,4.0,41.666668,,,,,,,,,,,,,,,,,,,,,,,,,,,,,,,,,,,,,,,,,,,,,,,,,,,,,,,,,,,,,,,,,,,,,,,,,,,,,,,,,,,,
33349,1645900259.9452288,1645900260.007603,112.0,0.0,4284.102539,4657.436035,4176.922852000001,4189.230957,4227.179688,450.0,1.0,15.0,,,,0.0,4.0,1.0,0.0,4.0,4.0,41.666668,,,,,,,,56.0,0.0,0.718625,0.201172,0.6564939999999999,0.110107,0.917983,-0.43946,-0.053712,-0.026068,-0.033852999999999994,-0.010126999999999999,,,,,,,,,,,,,,,,,,,,,,,,,,,,,,,,,,,,,,,,,,,,,,,,,,,,,,,,,,,,,,,,,
33350,1645900259.953042,1645900260.015418,113.0,0.0,4331.794922,4677.94873,4203.077147999999,4138.461426,4249.743652,450.0,1.0,15.0,,,,0.0,4.0,1.0,0.0,4.0,4.0,41.666668,,,,,,,,,,,,,,,,,,,,,,,,,,,,,,,,,,,,,,,,,,,,,,,,,,,,,,,,,,,,,,,,,,,,,,,,,,,,,,,,,,,,
33351,1645900259.960855,1645900260.023233,114.0,0.0,4342.563965,4673.846191,4138.461426,4113.333496,4270.769043,450.0,1.0,15.0,,,,0.0,4.0,1.0,0.0,4.0,4.0,41.666668,,,,,,,,57.0,0.0,0.718779,0.201416,0.65625,0.110107,0.892592,-0.45459700000000003,-0.061036,-0.026683999999999996,-0.033739,-0.011359999999999999,,,,,,,,,,,,,,,,,,,,,,,,,,,,,,,,,,,0.0,0.0,32.0,0.020011,1.0,0.0,,,,,,,,,,,,,,,,,,,,,,,,,
33352,1645900259.968668,1645900260.031047,115.0,0.0,4277.94873,4678.461426,4114.871582,4131.794922,4277.436035,16103.0,1.0,15.0,,,,0.0,4.0,1.0,0.0,4.0,4.0,41.666668,,,,,,,,,,,,,,,,,,,,,,,,,,,,,,,,,,,,,,,,,,,,,,,,,,,,,,,,,,,,,,,,,,,,,,,,,,,,,,,,,,,,
33353,1645900259.976481,1645900260.038862,116.0,0.0,4263.077147999999,4680.512695,4175.384765999999,4131.794922,4267.692383,450.0,1.0,15.0,,,,0.0,4.0,1.0,0.0,4.0,4.0,41.666668,,,,,,,,58.0,0.0,0.718625,0.201172,0.6564939999999999,0.110107,0.9072399999999999,-0.43408900000000006,-0.048829000000000004,-0.027238,-0.033685,-0.012519,,,,,,,,,,,,,,,,,,,,,,,,,,,,,,,,,,,,,,,,,,,,,,,,,,,,,,,,,,,,,,,,,
33354,1645900259.984294,1645900260.046676,117.0,0.0,4323.077147999999,4641.538574,4230.256348,4134.871582,4220.0,450.0,1.0,15.0,,,,0.0,4.0,1.0,0.0,4.0,4.0,41.666668,,,,,,,,,,,,,,,,,,,,,,,,,,,,,,,,,,,,,,,,,,,,,,,,,,,,,,,,,,,,,,,,,,,,,,,,,,,,,,,,,,,,
33355,1645900259.992107,1645900260.054491,118.0,0.0,4339.487305,4643.589844,4138.974121,4180.0,4218.974121,450.0,1.0,15.0,,,,0.0,4.0,1.0,0.0,4.0,4.0,41.666668,,,,,,,,59.0,0.0,0.718779,0.201416,0.65625,0.110107,0.892592,-0.45459700000000003,-0.061036,-0.027737,-0.033588,-0.013512999999999999,1.0,0.0,0.0,,,,,,,,,,,,,,,,,,,,,,,,,,,,,,,,0.0,0.0,32.0,0.028316,1.0,0.0,21.333095999999998,6.103978,4.441475,7.8445149999999995,17.372677,98.844589,49.787415,26.454590000000003,27.696823,75.428101,31.735109,38.58083,45.462246,63.245445,107.78034199999999,9.996984,13.760036,11.203876,9.070688,14.950975,16.114201,9.79226,2.519821,3.806594,11.800609
