,Timestamp,EEG.Counter,EEG.Interpolated,EEG.AF3,EEG.T7,EEG.Pz,EEG.T8,EEG.AF4,EEG.RawCq,EEG.Battery,EEG.BatteryPercent,MarkerIndex,MarkerType,MarkerValueInt,EEG.MarkerHardware,CQ.AF3,CQ.T7,CQ.Pz,CQ.T8,CQ.AF4,CQ.Overall,EQ.SampleRateQuality,EQ.OVERALL,EQ.AF3,EQ.T7,EQ.Pz,EQ.T8,EQ.AF4,MOT.CounterMems,MOT.InterpolatedMems,MOT.Q0,MOT.Q1,MOT.Q2,MOT.Q3,MOT.AccX,MOT.AccY,MOT.AccZ,MOT.MagX,MOT.MagY,MOT.MagZ,MC.Action,MC.ActionPower,MC.IsActive,PM.Engagement.IsActive,PM.Engagement.Scaled,PM.Engagement.Raw,PM.Engagement.Min,PM.Engagement.Max,PM.Excitement.IsActive,PM.Excitement.Scaled,PM.Excitement.Raw,PM.Excitement.Min,PM.Excitement.Max,PM.LongTermExcitement,PM.Stress.IsActive,PM.Stress.Scaled,PM.Stress.Raw,PM.Stress.Min,PM.Stress.Max,PM.Relaxation.IsActive,PM.Relaxation.Scaled,PM.Relaxation.Raw,PM.Relaxation.Min,PM.Relaxation.Max,PM.Interest.IsActive,PM.Interest.Scaled,PM.Interest.Raw,PM.Interest.Min,PM.Interest.Max,PM.Focus.IsActive,PM.Focus.Scaled,PM.Focus.Raw,PM.Focus.Min,PM.Focus.Max,FE.BlinkWink,FE.HorizontalEyesDirection,FE.UpperFaceAction,FE.UpperFaceActionPower,FE.LowerFaceAction,FE.LowerFaceActionPower,POW.AF3.Theta,POW.AF3.Alpha,POW.AF3.BetaL,POW.AF3.BetaH,POW.AF3.Gamma,POW.T7.Theta,POW.T7.Alpha,POW.T7.BetaL,POW.T7.BetaH,POW.T7.Gamma,POW.Pz.Theta,POW.Pz.Alpha,POW.Pz.BetaL,POW.Pz.BetaH,POW.Pz.Gamma,POW.T8.Theta,POW.T8.Alpha,POW.T8.BetaL,POW.T8.BetaH,POW.T8.Gamma,POW.AF4.Theta,POW.AF4.Alpha,POW.AF4.BetaL,POW.AF4.BetaH,POW.AF4.Gamma
32203,1645492530.941925,63.0,1.0,4135.384765999999,4568.717772999999,4213.077147999999,4235.897461,4008.461426,337.5,4.0,82.0,27.0,1.0,2.0,0.0,4.0,1.0,4.0,4.0,4.0,75.0,,,,,,,,,,,,,,,,,,,,,,,,,,,,,,,,,,,,,,,,,,,,,,,,,,,,,,,,,,,,,,,,,,,,,,,,,,,,,,,,,,,,
32204,1645492530.94974,64.0,1.0,4137.94873,4561.025879,4219.615234000001,4248.974121,4021.4101560000004,450.0,4.0,82.0,,,,0.0,4.0,1.0,4.0,4.0,4.0,75.0,,,,,,,,32.0,1.0,0.580249,-0.173193,0.642432,0.469678,0.9185690000000001,-0.406061,-0.12050999999999999,-0.033832999999999995,-0.037478,-0.039157,,,,,,,,,,,,,,,,,,,,,,,,,,,,,,,,,,,,,,,,,,,,,,,,,,,,,,,,,,,,,,,,,
32205,1645492530.9575539,65.0,0.0,4140.512695,4553.333496,4226.153809,4262.05127,4034.358887,450.0,4.0,82.0,,,,0.0,4.0,1.0,4.0,4.0,4.0,75.0,,,,,,,,,,,,,,,,,,,,,,,,,,,,,,,,,,,,,,,,,,,,,,,,,,,,,,,,,,,,,,,,,,,,,,,,,,,,,,,,,,,,
32206,1645492530.965368,66.0,0.0,4160.0,4557.436035,4229.230957,4251.794922,4027.6923829999996,16211.0,4.0,82.0,,,,0.0,4.0,1.0,4.0,4.0,4.0,75.0,,,,,,,,33.0,0.0,0.580346,-0.173096,0.642334,0.46972700000000006,0.917983,-0.406744,-0.123049,-0.033841,-0.037469999999999996,-0.039389,,,,,,,,,,,,,,,,,,,,,,,,,,,,,,,,,,,10.0,0.0,1.0,0.0,512.0,1.0,,,,,,,,,,,,,,,,,,,,,,,,,
32207,1645492530.973183,67.0,0.0,4170.769043,4590.769043,4238.461426,4229.743652,4025.1281740000004,450.0,4.0,82.0,,,,0.0,4.0,1.0,4.0,4.0,4.0,75.0,,,,,,,,,,,,,,,,,,,,,,,,,,,,,,,,,,,,,,,,,,,,,,,,,,,,,,,,,,,,,,,,,,,,,,,,,,,,,,,,,,,,
32208,1645492530.980997,68.0,0.0,4172.820313,4616.410156,4244.102539,4249.743652,4030.256348,58.0,4.0,82.0,,,,0.0,4.0,1.0,4.0,4.0,4.0,75.0,,,,,,,,34.0,0.0,0.580346,-0.172852,0.642578,0.46948199999999995,0.9131,-0.410163,-0.125002,-0.033826,-0.037433999999999995,-0.040527999999999995,,,,,,,,,,,,,,,,,,,,,,,,,,,,,,,,,,,,,,,,,,,,,,,,,,,,,,,,,,,,,,,,,
32209,1645492530.988812,69.0,0.0,4192.307617,4643.077147999999,4256.410156,4298.974121,4049.2307130000004,450.0,4.0,82.0,,,,0.0,4.0,1.0,4.0,4.0,4.0,75.0,,,,,,,,,,,,,,,,,,,,,,,,,,,,,,,,,,,,,,,,,,,,,,,,,,,,,,,,,,,,,,,,,,,,,,,,,,,,,,,,,,,,
32210,1645492530.996526,70.0,0.0,4227.692383,4633.333496,4278.461426,4321.025879,4073.8461909999996,16105.0,4.0,82.0,,,,0.0,4.0,1.0,4.0,4.0,4.0,75.0,,,,,,,,35.0,0.0,0.5800029999999999,-0.17334000000000002,0.642578,0.46972700000000006,0.9126120000000001,-0.41358100000000003,-0.111818,-0.033763999999999995,-0.037402,-0.035302999999999994,,,,,,,,,,,,,,,,,,,,,,,,,,,,,,,,,,,0.0,0.0,1.0,0.0,512.0,1.0,,,,,,,,,,,,,,,,,,,,,,,,,
32211,1645492531.00434,71.0,0.0,4230.256348,4621.538574,4286.666504,4337.94873,4074.8718259999996,450.0,4.0,82.0,,,,0.0,4.0,1.0,4.0,4.0,4.0,75.0,,,,,,,,,,,,,,,,,,,,,,,,,,,,,,,,,,,,,,,,,,,,,,,,,,,,,,,,,,,,,,,,,,,,,,,,,,,,,,,,,,,,
32212,1645492531.012155,72.0,0.0,4192.820313,4661.025879,4279.487305,4345.641113000001,4066.1538090000004,450.0,4.0,82.0,,,,0.0,4.0,1.0,4.0,4.0,4.0,75.0,,,,,,,,36.0,0.0,0.580346,-0.172852,0.642578,0.46948199999999995,0.9131,-0.410163,-0.125002,-0.033757,-0.037372,-0.036851,,,,,,,,,,,,,,,,,,,,,,,,,,,,,,,,,,,,,,,,,,,,,,,,,,,,,,,,,,,,,,,,,
32213,1645492531.019969,73.0,0.0,4203.077147999999,4673.333496,4278.461426,4331.282227000001,4086.6667479999996,16219.0,4.0,82.0,,,,0.0,4.0,1.0,4.0,4.0,4.0,75.0,,,,,,,,,,,,,,,,,,,,,,,,,,,,,,,,,,,,,,,,,,,,,,,,,,,,,,,,,,,,,,,,,,,,,,,,,,,,,,,,,,,,
32214,1645492531.0277839,74.0,0.0,4219.487305,4611.794922,4273.333496,4311.282227000001,4087.179443,450.0,4.0,82.0,,,,0.0,4.0,1.0,4.0,4.0,4.0,75.0,,,,,,,,37.0,0.0,0.5804189999999999,-0.17260699999999998,0.642578,0.46948199999999995,0.905776,-0.417487,-0.143069,-0.033701,-0.037346,-0.031994,,,,,,,,,,,,,,,,,,,,,,,,,,,,,,,,,,,0.0,0.0,1.0,0.0,512.0,1.0,,,,,,,,,,,,,,,,,,,,,,,,,
32215,1645492531.035598,75.0,0.0,4189.230957,4562.05127,4254.358886999999,4300.512695,4067.179443,16227.0,4.0,82.0,,,,0.0,4.0,1.0,4.0,4.0,4.0,75.0,,,,,,,,,,,,,,,,,,,,,,,,,,,,,,,,,,,,,,,,,,,,,,,,,,,,,,,,,,,,,,,,,,,,,,,,,,,,,,,,,,,,
32216,1645492531.043412,76.0,0.0,4186.153809,4559.487305,4256.922852000001,4312.307617,4087.179443,450.0,4.0,82.0,,,,0.0,4.0,1.0,4.0,4.0,4.0,75.0,,,,,,,,38.0,0.0,0.580689,-0.17236300000000002,0.642578,0.469238,0.9072399999999999,-0.41358100000000003,-0.11767799999999999,-0.033847,-0.037323,-0.034019,,,,,,,,,,,,,,,,,,,,,,,,,,,,,,,,,,,,,,,,,,,,,,,,,,,,,,,,,,,,,,,,,
32217,1645492531.051127,77.0,0.0,4188.717772999999,4568.205078,4267.692383,4321.538574,4092.820557,450.0,4.0,82.0,,,,0.0,4.0,1.0,4.0,4.0,4.0,75.0,,,,,,,,,,,,,,,,,,,,,,,,,,,,,,,,,,,,,,,,,,,,,,,,,,,,,,,,,,,,,,,,,,,,,,,,,,,,,,,,,,,,
32218,1645492531.0589411,78.0,0.0,4130.769043,4572.307617,4231.794922,4264.615234000001,4023.5898439999996,450.0,4.0,82.0,,,,0.0,4.0,1.0,4.0,4.0,4.0,75.0,,,,,,,,39.0,0.0,0.580616,-0.17236300000000002,0.642822,0.46899399999999997,0.917006,-0.40528000000000003,-0.12255999999999999,-0.03388,-0.037301,-0.035842,1.0,0.0,0.0,,,,,,,,,,,,,,,,,,,,,,,,,,,,,,,,0.0,0.0,1.0,0.0,512.0,1.0,42.918552000000005,44.872935999999996,40.591789,23.06139,11.542978999999999,395.852264,59.043015000000004,23.837275,15.659464999999999,8.065895,14.653038,17.546684,15.236868,11.423002,4.709237,36.256359,52.766158999999995,33.543484,24.190641,9.067197,37.376354,46.329464,37.097355,23.633658999999998,11.869297
32219,1645492531.066756,79.0,0.0,4106.153809,4562.563965,4211.794922,4213.846191,3988.205078,16227.0,4.0,82.0,,,,0.0,4.0,1.0,4.0,4.0,4.0,75.0,,,,,,,,,,,,,,,,,,,,,,,,,,,,,,,,,,,,,,,,,,,,,,,,,,,,,,,,,,,,,,,,,,,,,,,,,,,,,,,,,,,,
32220,1645492531.07457,80.0,0.0,4151.794922,4560.0,4237.94873,4237.436035,4034.8718259999996,450.0,4.0,82.0,,,,0.0,4.0,1.0,4.0,4.0,4.0,75.0,,,,,,,,40.0,0.0,0.580616,-0.17236300000000002,0.642822,0.46899399999999997,0.913588,-0.401373,-0.11133,-0.03391,-0.037282,-0.037287,,,,,,,,,,,,,,,,,,,,,,,,,,,,,,,,,,,,,,,,,,,,,,,,,,,,,,,,,,,,,,,,,
32221,1645492531.082385,81.0,0.0,4131.794922,4475.384765999999,4221.538574,4234.358886999999,4031.281982,450.0,4.0,82.0,,,,0.0,4.0,1.0,4.0,4.0,4.0,75.0,,,,,,,,,,,,,,,,,,,,,,,,,,,,,,,,,,,,,,,,,,,,,,,,,,,,,,,,,,,,,,,,,,,,,,,,,,,,,,,,,,,,
32222,1645492531.090199,82.0,0.0,4069.2307130000004,4332.820313,4192.307617,4181.538574,3977.9487299999996,450.0,4.0,82.0,,,,0.0,4.0,1.0,4.0,4.0,4.0,75.0,,,,,,,,41.0,0.0,0.580616,-0.17236300000000002,0.642822,0.46899399999999997,0.9111469999999999,-0.40381500000000004,-0.111818,-0.033986,-0.037363,-0.038832,,,,,,,,,,,,,,,,,,,,,,,,,,,,,,,,,,,10.0,0.0,1.0,0.0,512.0,1.0,,,,,,,,,,,,,,,,,,,,,,,,,
32223,1645492531.0980132,83.0,0.0,4142.05127,4342.563965,4266.153809,4235.384765999999,4048.718018,16227.0,4.0,82.0,,,,0.0,4.0,1.0,4.0,4.0,4.0,75.0,,,,,,,,,,,,,,,,,,,,,,,,,,,,,,,,,,,,,,,,,,,,,,,,,,,,,,,,,,,,,,,,,,,,,,,,,,,,,,,,,,,,
32224,1645492531.105828,84.0,0.0,4243.589844,4418.461426,4322.563965,4348.717772999999,4151.794922,450.0,4.0,82.0,,,,0.0,4.0,1.0,4.0,4.0,4.0,75.0,,,,,,,,42.0,0.0,0.580543,-0.17260699999999998,0.642822,0.46899399999999997,0.925307,-0.407233,-0.12695499999999998,-0.034005,-0.037386,-0.040076,,,,,,,,,,,,,,,,,,,,,,,,,,,,,,,,,,,,,,,,,,,,,,,,,,,,,,,,,,,,,,,,,
32225,1645492531.113642,85.0,0.0,4193.333496,4358.974121,4263.589844,4318.461426,4098.461426,450.0,4.0,82.0,,,,0.0,4.0,1.0,4.0,4.0,4.0,75.0,,,,,,,,,,,,,,,,,,,,,,,,,,,,,,,,,,,,,,,,,,,,,,,,,,,,,,,,,,,,,,,,,,,,,,,,,,,,,,,,,,,,
32226,1645492531.121357,86.0,0.0,4129.230957,4288.205078,4234.871582,4228.717772999999,4040.0,450.0,4.0,82.0,,,,0.0,4.0,1.0,4.0,4.0,4.0,75.0,,,,,,,,43.0,0.0,0.580814,-0.17260699999999998,0.642578,0.46899399999999997,0.916518,-0.41455699999999995,-0.12695499999999998,-0.034023000000000005,-0.037456,-0.041244,,,,,,,,,,,,,,,,,,,,,,,,,,,,,,,,,,,10.0,0.0,1.0,0.0,512.0,1.0,,,,,,,,,,,,,,,,,,,,,,,,,
32227,1645492531.1291711,87.0,0.0,4134.358886999999,4334.871582,4248.205078,4211.282227000001,4049.2307130000004,16227.0,4.0,82.0,,,,0.0,4.0,1.0,4.0,4.0,4.0,75.0,,,,,,,,,,,,,,,,,,,,,,,,,,,,,,,,,,,,,,,,,,,,,,,,,,,,,,,,,,,,,,,,,,,,,,,,,,,,,,,,,,,,
32228,1645492531.136986,88.0,0.0,4068.205078,4365.641113000001,4194.871582,4183.589844,3976.4101560000004,450.0,4.0,82.0,,,,0.0,4.0,1.0,4.0,4.0,4.0,75.0,,,,,,,,44.0,0.0,0.580543,-0.17260699999999998,0.642822,0.46899399999999997,0.9233540000000001,-0.431647,-0.121584,-0.033941000000000006,-0.037469999999999996,-0.042247,,,,,,,,,,,,,,,,,,,,,,,,,,,,,,,,,,,,,,,,,,,,,,,,,,,,,,,,,,,,,,,,,
32229,1645492531.1448,89.0,0.0,4009.2307130000004,4315.384765999999,4161.025879,4146.666504,3919.487061,450.0,4.0,82.0,,,,0.0,4.0,1.0,4.0,4.0,4.0,75.0,,,,,,,,,,,,,,,,,,,,,,,,,,,,,,,,,,,,,,,,,,,,,,,,,,,,,,,,,,,,,,,,,,,,,,,,,,,,,,,,,,,,
32230,1645492531.152614,90.0,0.0,4052.820557,4267.692383,4197.436035,4163.589844,3962.0512700000004,450.0,4.0,82.0,,,,0.0,4.0,1.0,4.0,4.0,4.0,75.0,,,,,,,,45.0,0.0,0.5802729999999999,-0.172852,0.642822,0.469238,0.9126120000000001,-0.41358100000000003,-0.132326,-0.033818,-0.037531999999999996,-0.043198,,,,,,,,,,,,,,,,,,,,,,,,,,,,,,,,,,,10.0,0.0,1.0,0.0,512.0,1.0,,,,,,,,,,,,,,,,,,,,,,,,,
32231,1645492531.160429,91.0,0.0,4077.9487299999996,4261.025879,4229.743652,4201.538574,3991.281982,16227.0,4.0,82.0,,,,0.0,4.0,1.0,4.0,4.0,4.0,75.0,,,,,,,,,,,,,,,,,,,,,,,,,,,,,,,,,,,,,,,,,,,,,,,,,,,,,,,,,,,,,,,,,,,,,,,,,,,,,,,,,,,,
32232,1645492531.168243,92.0,0.0,4072.3076170000004,4301.025879,4235.384765999999,4223.077147999999,4011.794922,450.0,4.0,82.0,,,,0.0,4.0,1.0,4.0,4.0,4.0,75.0,,,,,,,,46.0,0.0,0.5802729999999999,-0.172852,0.642822,0.469238,0.9052870000000001,-0.41699899999999995,-0.12255999999999999,-0.033806,-0.037489999999999996,-0.037804000000000004,,,,,,,,,,,,,,,,,,,,,,,,,,,,,,,,,,,,,,,,,,,,,,,,,,,,,,,,,,,,,,,,,
32233,1645492531.176058,93.0,0.0,4096.410156,4345.128418,4232.820313,4219.487305,4044.615479,450.0,4.0,82.0,,,,0.0,4.0,1.0,4.0,4.0,4.0,75.0,,,,,,,,,,,,,,,,,,,,,,,,,,,,,,,,,,,,,,,,,,,,,,,,,,,,,,,,,,,,,,,,,,,,,,,,,,,,,,,,,,,,
32234,1645492531.183872,94.0,0.0,4114.358886999999,4373.846191,4240.512695,4215.897461,4050.256348,450.0,4.0,82.0,,,,0.0,4.0,1.0,4.0,4.0,4.0,75.0,0.972656,16.666666,1.0,0.0,3.0,1.0,1.0,47.0,0.0,0.580471,-0.172852,0.642822,0.46899399999999997,0.917983,-0.41895200000000005,-0.11767799999999999,-0.033892,-0.037452,-0.039199,1.0,0.0,0.0,,,,,,,,,,,,,,,,,,,,,,,,,,,,,,,,10.0,0.0,1.0,0.0,512.0,1.0,41.040325,48.042408,43.236088,25.286926,13.904015,431.95571900000004,61.917103000000004,27.538763,16.17095,8.973258,12.637713,17.752817,16.663473,12.632626,5.621178,36.086277,58.798823999999996,33.824073999999996,25.733985999999998,10.028188,36.719818,52.228527,38.657539,26.782711,15.059314
32235,1645492531.191686,95.0,0.0,4135.384765999999,4362.05127,4263.589844,4241.538574,4069.2307130000004,16227.0,4.0,82.0,,,,0.0,4.0,1.0,4.0,4.0,4.0,75.0,,,,,,,,,,,,,,,,,,,,,,,,,,,,,,,,,,,,,,,,,,,,,,,,,,,,,,,,,,,,,,,,,,,,,,,,,,,,,,,,,,,,
32236,1645492531.199401,96.0,0.0,4173.333496,4310.256348,4276.922852000001,4264.102539,4103.589844,450.0,4.0,82.0,,,,0.0,4.0,1.0,4.0,4.0,4.0,75.0,,,,,,,,48.0,0.0,0.5802,-0.172852,0.643066,0.46899399999999997,0.909682,-0.404303,-0.11133,-0.034067,-0.037418,-0.040504000000000005,,,,,,,,,,,,,,,,,,,,,,,,,,,,,,,,,,,,,,,,,,,,,,,,,,,,,,,,,,,,,,,,,
32237,1645492531.207215,97.0,0.0,4172.307617,4283.077147999999,4268.205078,4269.743652,4084.615479,450.0,4.0,82.0,,,,0.0,4.0,1.0,4.0,4.0,4.0,75.0,,,,,,,,,,,,,,,,,,,,,,,,,,,,,,,,,,,,,,,,,,,,,,,,,,,,,,,,,,,,,,,,,,,,,,,,,,,,,,,,,,,,
32238,1645492531.2150302,98.0,0.0,4124.615234000001,4280.512695,4234.871582,4226.153809,4037.4357909999994,450.0,4.0,82.0,,,,0.0,4.0,1.0,4.0,4.0,4.0,75.0,,,,,,,,49.0,0.0,0.5802,-0.172852,0.643066,0.46899399999999997,0.914565,-0.420417,-0.10547000000000001,-0.034176,-0.037436000000000004,-0.041727,,,,,,,,,,,,,,,,,,,,,,,,,,,,,,,,,,,10.0,0.0,1.0,0.0,512.0,1.0,,,,,,,,,,,,,,,,,,,,,,,,,
32239,1645492531.222844,99.0,0.0,4086.1538090000004,4302.05127,4199.487305,4153.846191,4015.384521,16227.0,4.0,82.0,,,,0.0,4.0,1.0,4.0,4.0,4.0,75.0,,,,,,,,,,,,,,,,,,,,,,,,,,,,,,,,,,,,,,,,,,,,,,,,,,,,,,,,,,,,,,,,,,,,,,,,,,,,,,,,,,,,
32240,1645492531.230659,100.0,0.0,4080.512939,4383.077147999999,4208.717772999999,4158.461426,4017.4357909999994,450.0,4.0,82.0,,,,0.0,4.0,1.0,4.0,4.0,4.0,75.0,,,,,,,,50.0,0.0,0.5802,-0.172852,0.643066,0.46899399999999997,0.9126120000000001,-0.41455699999999995,-0.11230599999999999,-0.034177,-0.037403,-0.036578,,,,,,,,,,,,,,,,,,,,,,,,,,,,,,,,,,,,,,,,,,,,,,,,,,,,,,,,,,,,,,,,,
32241,1645492531.238473,101.0,0.0,4092.820557,4465.641113000001,4238.974121,4216.410156,4041.025635,450.0,4.0,82.0,,,,0.0,4.0,1.0,4.0,4.0,4.0,75.0,,,,,,,,,,,,,,,,,,,,,,,,,,,,,,,,,,,,,,,,,,,,,,,,,,,,,,,,,,,,,,,,,,,,,,,,,,,,,,,,,,,,
32242,1645492531.2462869,102.0,0.0,4097.436035,4462.05127,4230.256348,4218.461426,4054.8718259999996,450.0,4.0,82.0,,,,0.0,4.0,1.0,4.0,4.0,4.0,75.0,,,,,,,,51.0,0.0,0.580325,-0.173096,0.643066,0.46875,0.929213,-0.407233,-0.118654,-0.034177,-0.037325,-0.038194,,,,,,,,,,,,,,,,,,,,,,,,,,,,,,,,,,,0.0,0.0,1.0,0.0,512.0,1.0,,,,,,,,,,,,,,,,,,,,,,,,,
32243,1645492531.254102,103.0,0.0,4079.487061,4430.769043,4201.538574,4165.641113000001,4027.6923829999996,16227.0,4.0,82.0,,,,0.0,4.0,1.0,4.0,4.0,4.0,75.0,,,,,,,,,,,,,,,,,,,,,,,,,,,,,,,,,,,,,,,,,,,,,,,,,,,,,,,,,,,,,,,,,,,,,,,,,,,,,,,,,,,,
32244,1645492531.261916,104.0,0.0,4070.256348,4463.589844,4217.94873,4152.820313,4014.8718259999996,450.0,4.0,82.0,,,,0.0,4.0,1.0,4.0,4.0,4.0,75.0,,,,,,,,52.0,0.0,0.580325,-0.173096,0.643066,0.46875,0.914076,-0.404791,-0.109865,-0.034177,-0.037255,-0.033201999999999995,,,,,,,,,,,,,,,,,,,,,,,,,,,,,,,,,,,,,,,,,,,,,,,,,,,,,,,,,,,,,,,,,
32245,1645492531.2696311,105.0,0.0,4109.743652,4479.487305,4253.333496,4213.846191,4068.718018,450.0,4.0,82.0,,,,0.0,4.0,1.0,4.0,4.0,4.0,75.0,,,,,,,,,,,,,,,,,,,,,,,,,,,,,,,,,,,,,,,,,,,,,,,,,,,,,,,,,,,,,,,,,,,,,,,,,,,,,,,,,,,,
32246,1645492531.2774448,106.0,0.0,4130.769043,4430.256348,4249.230957,4244.102539,4086.6667479999996,450.0,4.0,82.0,,,,0.0,4.0,1.0,4.0,4.0,4.0,75.0,,,,,,,,53.0,0.0,0.580449,-0.17334000000000002,0.643066,0.46850600000000003,0.9209129999999999,-0.40381500000000004,-0.123537,-0.034178,-0.037288999999999996,-0.035058,,,,,,,,,,,,,,,,,,,,,,,,,,,,,,,,,,,0.0,0.0,1.0,0.0,512.0,1.0,,,,,,,,,,,,,,,,,,,,,,,,,
32247,1645492531.28526,107.0,0.0,4067.6923829999996,4410.769043,4207.692383,4184.102539,4023.076904,16227.0,4.0,82.0,,,,0.0,4.0,1.0,4.0,4.0,4.0,75.0,,,,,,,,,,,,,,,,,,,,,,,,,,,,,,,,,,,,,,,,,,,,,,,,,,,,,,,,,,,,,,,,,,,,,,,,,,,,,,,,,,,,
32248,1645492531.2930741,108.0,0.0,4022.5642090000006,4438.974121,4197.94873,4157.94873,3993.8461909999996,450.0,4.0,82.0,,,,0.0,4.0,1.0,4.0,4.0,4.0,75.0,,,,,,,,54.0,0.0,0.580573,-0.173584,0.643066,0.468262,0.9350729999999999,-0.386725,-0.125978,-0.034129,-0.037222000000000005,-0.030477999999999998,,,,,,,,,,,,,,,,,,,,,,,,,,,,,,,,,,,,,,,,,,,,,,,,,,,,,,,,,,,,,,,,,
32249,1645492531.300888,109.0,0.0,4070.256348,4437.94873,4227.179688,4207.179688,4036.4101560000004,450.0,4.0,82.0,,,,0.0,4.0,1.0,4.0,4.0,4.0,75.0,,,,,,,,,,,,,,,,,,,,,,,,,,,,,,,,,,,,,,,,,,,,,,,,,,,,,,,,,,,,,,,,,,,,,,,,,,,,,,,,,,,,
32250,1645492531.308703,110.0,0.0,4118.974121,4406.666504,4245.128418,4231.794922,4078.461426,450.0,4.0,82.0,,,,0.0,4.0,1.0,4.0,4.0,4.0,75.0,,,,,,,,55.0,0.0,0.580376,-0.173584,0.643066,0.46850600000000003,0.929213,-0.38721300000000003,-0.12451400000000001,-0.034183,-0.037113,-0.026307,1.0,0.0,0.0,,,,,,,,,,,,,,,,,,,,,,,,,,,,,,,,0.0,0.0,1.0,0.0,1.0,0.0,42.047554,51.549969,46.607296000000005,26.620871,15.451254,430.15280199999995,58.963843999999995,28.612935999999998,15.334677,9.652955,11.723463,18.143604,18.152885,13.514544,6.432405,39.191849,63.955971,36.031479,27.001003000000004,10.707761999999999,39.248474,57.725536,41.033607,28.782435999999997,17.379023
32251,1645492531.3165169,111.0,0.0,4142.05127,4403.589844,4267.692383,4245.128418,4105.128418,16227.0,4.0,82.0,,,,0.0,4.0,1.0,4.0,4.0,4.0,75.0,,,,,,,,,,,,,,,,,,,,,,,,,,,,,,,,,,,,,,,,,,,,,,,,,,,,,,,,,,,,,,,,,,,,,,,,,,,,,,,,,,,,
32252,1645492531.324332,112.0,0.0,4171.794922,4417.436035,4292.820313,4274.358886999999,4135.897461,450.0,4.0,82.0,,,,0.0,4.0,1.0,4.0,4.0,4.0,75.0,,,,,,,,56.0,0.0,0.580376,-0.173584,0.643066,0.46850600000000003,0.9306780000000001,-0.38526,-0.112795,-0.034183,-0.037064,-0.028852,,,,,,,,,,,,,,,,,,,,,,,,,,,,,,,,,,,,,,,,,,,,,,,,,,,,,,,,,,,,,,,,,
32253,1645492531.3321462,113.0,0.0,4175.897461,4394.871582,4266.153809,4277.436035,4130.256348,450.0,4.0,82.0,,,,0.0,4.0,1.0,4.0,4.0,4.0,75.0,,,,,,,,,,,,,,,,,,,,,,,,,,,,,,,,,,,,,,,,,,,,,,,,,,,,,,,,,,,,,,,,,,,,,,,,,,,,,,,,,,,,
32254,1645492531.33986,114.0,0.0,4144.102539,4332.307617,4221.025879,4245.641113000001,4084.615479,450.0,4.0,82.0,,,,0.0,4.0,1.0,4.0,4.0,4.0,75.0,,,,,,,,57.0,0.0,0.580376,-0.173584,0.643066,0.46850600000000003,0.904799,-0.397955,-0.10351700000000001,-0.034182,-0.037069,-0.031045,,,,,,,,,,,,,,,,,,,,,,,,,,,,,,,,,,,0.0,0.0,1.0,0.0,1.0,0.0,,,,,,,,,,,,,,,,,,,,,,,,,
32255,1645492531.347675,115.0,0.0,4141.025879,4324.102539,4259.487305,4240.0,4110.769043,16227.0,4.0,82.0,,,,0.0,4.0,1.0,4.0,4.0,4.0,75.0,,,,,,,,,,,,,,,,,,,,,,,,,,,,,,,,,,,,,,,,,,,,,,,,,,,,,,,,,,,,,,,,,,,,,,,,,,,,,,,,,,,,
32256,1645492531.355489,116.0,0.0,4181.025879,4386.666504,4318.461426,4287.179688,4201.538574,450.0,4.0,82.0,,,,0.0,4.0,1.0,4.0,4.0,4.0,75.0,,,,,,,,58.0,0.0,0.580376,-0.173584,0.643066,0.46850600000000003,0.9155409999999999,-0.40235,-0.109377,-0.034133,-0.037122,-0.033068,,,,,,,,,,,,,,,,,,,,,,,,,,,,,,,,,,,,,,,,,,,,,,,,,,,,,,,,,,,,,,,,,
32257,1645492531.363304,117.0,0.0,4179.487305,4405.128418,4280.512695,4300.0,4181.025879,450.0,4.0,82.0,,,,0.0,4.0,1.0,4.0,4.0,4.0,75.0,,,,,,,,,,,,,,,,,,,,,,,,,,,,,,,,,,,,,,,,,,,,,,,,,,,,,,,,,,,,,,,,,,,,,,,,,,,,,,,,,,,,
32258,1645492531.371118,118.0,0.0,4142.05127,4381.538574,4234.358886999999,4261.025879,4109.743652,450.0,4.0,82.0,,,,0.0,4.0,1.0,4.0,4.0,4.0,75.0,,,,,,,,59.0,0.0,0.580105,-0.173584,0.643311,0.46850600000000003,0.925795,-0.400397,-0.12060699999999999,-0.034187,-0.037121,-0.028736,,,,,,,,,,,,,,,,,,,,,,,,,,,,,,,,,,,0.0,0.0,1.0,0.0,1.0,0.0,,,,,,,,,,,,,,,,,,,,,,,,,
32259,1645492531.378933,119.0,0.0,4142.05127,4395.384765999999,4264.102539,4268.717772999999,4146.666504,16227.0,4.0,82.0,,,,0.0,4.0,1.0,4.0,4.0,4.0,75.0,,,,,,,,,,,,,,,,,,,,,,,,,,,,,,,,,,,,,,,,,,,,,,,,,,,,,,,,,,,,,,,,,,,,,,,,,,,,,,,,,,,,
32260,1645492531.3867471,120.0,0.0,4134.871582,4446.153809,4260.0,4279.487305,4155.897461,450.0,4.0,82.0,,,,0.0,4.0,1.0,4.0,4.0,4.0,75.0,,,,,,,,60.0,0.0,0.579908,-0.173584,0.643311,0.46875,0.917494,-0.40283800000000003,-0.122072,-0.034089,-0.037119,-0.03094,,,,,,,,,,,,,,,,,,,,,,,,,,,,,,,,,,,,,,,,,,,,,,,,,,,,,,,,,,,,,,,,,
32261,1645492531.394561,121.0,0.0,4111.282227000001,4526.153809,4231.794922,4237.436035,4093.8461909999996,450.0,4.0,82.0,,,,0.0,4.0,1.0,4.0,4.0,4.0,75.0,,,,,,,,,,,,,,,,,,,,,,,,,,,,,,,,,,,,,,,,,,,,,,,,,,,,,,,,,,,,,,,,,,,,,,,,,,,,,,,,,,,,
32262,1645492531.402376,122.0,0.0,4130.769043,4631.282227000001,4265.641113000001,4240.512695,4116.410156,450.0,4.0,82.0,,,,0.0,4.0,1.0,4.0,4.0,4.0,75.0,,,,,,,,61.0,0.0,0.580105,-0.173584,0.643311,0.46850600000000003,0.908217,-0.417487,-0.11425999999999999,-0.034098,-0.037167,-0.033022,,,,,,,,,,,,,,,,,,,,,,,,,,,,,,,,,,,0.0,0.0,1.0,0.0,1.0,0.0,,,,,,,,,,,,,,,,,,,,,,,,,
32263,1645492531.41019,123.0,0.0,4131.794922,4671.282227000001,4276.410156,4260.512695,4143.589844,16227.0,4.0,82.0,,,,0.0,4.0,1.0,4.0,4.0,4.0,75.0,,,,,,,,,,,,,,,,,,,,,,,,,,,,,,,,,,,,,,,,,,,,,,,,,,,,,,,,,,,,,,,,,,,,,,,,,,,,,,,,,,,,
32264,1645492531.417905,124.0,0.0,4102.05127,4629.743652,4245.128418,4249.743652,4091.794922,450.0,4.0,82.0,,,,0.0,4.0,1.0,4.0,4.0,4.0,75.0,,,,,,,,62.0,0.0,0.579835,-0.173828,0.643311,0.46875,0.9243309999999999,-0.417487,-0.112795,-0.034057,-0.03721,-0.028645999999999998,,,,,,,,,,,,,,,,,,,,,,,,,,,,,,,,,,,,,,,,,,,,,,,,,,,,,,,,,,,,,,,,,
32265,1645492531.425719,125.0,0.0,4132.820313,4649.230957,4276.410156,4286.666504,4102.05127,450.0,4.0,82.0,,,,0.0,4.0,1.0,4.0,4.0,4.0,75.0,,,,,,,,,,,,,,,,,,,,,,,,,,,,,,,,,,,,,,,,,,,,,,,,,,,,,,,,,,,,,,,,,,,,,,,,,,,,,,,,,,,,
32266,1645492531.433533,126.0,0.0,4146.666504,4731.282227000001,4304.615234000001,4302.05127,4154.358886999999,450.0,4.0,82.0,,,,0.0,4.0,1.0,4.0,4.0,4.0,75.0,,,,,,,,63.0,0.0,0.579908,-0.173584,0.643311,0.46875,0.917494,-0.40283800000000003,-0.122072,-0.033972,-0.0372,-0.030858999999999998,1.0,0.0,0.0,,,,,,,,,,,,,,,,,,,,,,,,,,,,,,,,10.0,0.0,1.0,0.0,1.0,0.0,45.002575,53.473094999999994,48.992802000000005,26.365433000000003,15.722619,389.929382,51.264034,26.778273,13.649397,9.92447,12.45129,18.027462,19.321120999999998,13.596445000000001,6.8664559999999994,45.803898,65.937653,38.991226,27.282408,10.749717,43.561584,60.57515,43.00185,28.76553,18.146946
32267,1645492531.441348,127.0,0.0,4105.641113000001,4737.436035,4271.282227000001,4239.487305,4140.512695,240.0,4.0,82.0,,,,0.0,4.0,1.0,4.0,4.0,4.0,75.0,,,,,,,,,,,,,,,,,,,,,,,,,,,,,,,,,,,,,,,,,,,,,,,,,,,,,,,,,,,,,,,,,,,,,,,,,,,,,,,,,,,,
32268,1645492531.449162,0.0,0.0,4157.94873,4701.538574,4292.820313,4272.820313,4168.205078,450.0,4.0,82.0,,,,0.0,4.0,1.0,4.0,4.0,4.0,75.0,,,,,,,,0.0,0.0,0.579835,-0.173828,0.643311,0.46875,0.9243309999999999,-0.417487,-0.112795,-0.033944,-0.037239999999999995,-0.026699,,,,,,,,,,,,,,,,,,,,,,,,,,,,,,,,,,,,,,,,,,,,,,,,,,,,,,,,,,,,,,,,,
32269,1645492531.456977,1.0,0.0,4242.563965,4711.282227000001,4323.589844,4365.641113000001,4243.077147999999,450.0,4.0,82.0,,,,0.0,4.0,1.0,4.0,4.0,4.0,75.0,,,,,,,,,,,,,,,,,,,,,,,,,,,,,,,,,,,,,,,,,,,,,,,,,,,,,,,,,,,,,,,,,,,,,,,,,,,,,,,,,,,,
32270,1645492531.464791,2.0,0.0,4172.820313,4692.307617,4250.256348,4311.794922,4185.641113000001,16211.0,4.0,82.0,,,,0.0,4.0,1.0,4.0,4.0,4.0,75.0,,,,,,,,1.0,0.0,0.580032,-0.173828,0.643311,0.46850600000000003,0.9243309999999999,-0.39453699999999997,-0.113771,-0.034016000000000005,-0.037129,-0.023004,,,,,,,,,,,,,,,,,,,,,,,,,,,,,,,,,,,10.0,0.0,1.0,0.0,1.0,0.0,,,,,,,,,,,,,,,,,,,,,,,,,
32271,1645492531.472606,3.0,0.0,4049.2307130000004,4654.358886999999,4189.743652,4219.487305,4065.1281740000004,450.0,4.0,82.0,,,,0.0,4.0,1.0,4.0,4.0,4.0,75.0,,,,,,,,,,,,,,,,,,,,,,,,,,,,,,,,,,,,,,,,,,,,,,,,,,,,,,,,,,,,,,,,,,,,,,,,,,,,,,,,,,,,
32272,1645492531.48032,4.0,0.0,4040.512939,4668.717772999999,4210.769043,4216.922852000001,4060.0,25.0,4.0,82.0,,,,0.0,4.0,0.0,4.0,4.0,4.0,66.666664,,,,,,,,2.0,0.0,0.580032,-0.173828,0.643311,0.46850600000000003,0.901869,-0.401862,-0.118654,-0.033886,-0.037127999999999994,-0.025782,,,,,,,,,,,,,,,,,,,,,,,,,,,,,,,,,,,,,,,,,,,,,,,,,,,,,,,,,,,,,,,,,
32273,1645492531.488134,5.0,0.0,4077.9487299999996,4650.769043,4226.666504,4211.794922,4096.922852000001,450.0,4.0,82.0,,,,0.0,4.0,0.0,4.0,4.0,4.0,66.666664,,,,,,,,,,,,,,,,,,,,,,,,,,,,,,,,,,,,,,,,,,,,,,,,,,,,,,,,,,,,,,,,,,,,,,,,,,,,,,,,,,,,
32274,1645492531.495949,6.0,0.0,4060.512939,4612.820313,4218.974121,4168.717772999999,4079.487061,16088.0,4.0,82.0,,,,0.0,4.0,0.0,4.0,4.0,4.0,66.666664,,,,,,,,3.0,0.0,0.580032,-0.173828,0.643311,0.46850600000000003,0.9233540000000001,-0.408209,-0.106447,-0.033916,-0.037126,-0.022178,,,,,,,,,,,,,,,,,,,,,,,,,,,,,,,,,,,10.0,0.0,1.0,0.0,1.0,0.0,,,,,,,,,,,,,,,,,,,,,,,,,
32275,1645492531.5037632,7.0,0.0,4069.743652,4625.128418,4238.974121,4186.153809,4080.512939,450.0,4.0,82.0,,,,0.0,4.0,0.0,4.0,4.0,4.0,66.666664,,,,,,,,,,,,,,,,,,,,,,,,,,,,,,,,,,,,,,,,,,,,,,,,,,,,,,,,,,,,,,,,,,,,,,,,,,,,,,,,,,,,
32276,1645492531.5115778,8.0,0.0,4146.153809,4666.666504,4274.358886999999,4243.589844,4125.128418,450.0,4.0,82.0,,,,0.0,4.0,0.0,4.0,4.0,4.0,66.666664,,,,,,,,4.0,0.0,0.580032,-0.173828,0.643311,0.46850600000000003,0.9184709999999999,-0.406256,-0.120119,-0.033942,-0.037124000000000004,-0.025234,,,,,,,,,,,,,,,,,,,,,,,,,,,,,,,,,,,,,,,,,,,,,,,,,,,,,,,,,,,,,,,,,
32277,1645492531.519392,9.0,0.0,4193.333496,4730.769043,4283.589844,4270.769043,4180.512695,16197.0,4.0,82.0,,,,0.0,4.0,0.0,4.0,4.0,4.0,66.666664,,,,,,,,,,,,,,,,,,,,,,,,,,,,,,,,,,,,,,,,,,,,,,,,,,,,,,,,,,,,,,,,,,,,,,,,,,,,,,,,,,,,
32278,1645492531.527206,10.0,0.0,4182.05127,4716.410156,4268.717772999999,4291.282227000001,4202.563965,450.0,4.0,82.0,,,,0.0,4.0,0.0,4.0,4.0,4.0,66.666664,,,,,,,,5.0,0.0,0.580105,-0.173584,0.643311,0.46850600000000003,0.9111469999999999,-0.400397,-0.122072,-0.033917,-0.037074,-0.021587000000000002,,,,,,,,,,,,,,,,,,,,,,,,,,,,,,,,,,,10.0,0.0,1.0,0.0,1.0,0.0,,,,,,,,,,,,,,,,,,,,,,,,,
32279,1645492531.535021,11.0,0.0,4122.563965,4601.025879,4226.153809,4252.307617,4133.333496,16202.0,4.0,82.0,,,,0.0,4.0,0.0,4.0,4.0,4.0,66.666664,,,,,,,,,,,,,,,,,,,,,,,,,,,,,,,,,,,,,,,,,,,,,,,,,,,,,,,,,,,,,,,,,,,,,,,,,,,,,,,,,,,,
32280,1645492531.542835,12.0,0.0,4030.256348,4581.538574,4182.05127,4156.922852000001,4041.538574,450.0,4.0,82.0,,,,0.0,4.0,0.0,4.0,4.0,4.0,66.666664,,,,,,,,6.0,0.0,0.580105,-0.173584,0.643311,0.46850600000000003,0.917494,-0.410163,-0.11133,-0.033943,-0.03698,-0.024556,,,,,,,,,,,,,,,,,,,,,,,,,,,,,,,,,,,,,,,,,,,,,,,,,,,,,,,,,,,,,,,,,
32281,1645492531.55065,13.0,0.0,3961.538574,4635.384765999999,4129.230957,4065.1281740000004,3993.8461909999996,450.0,4.0,82.0,,,,0.0,4.0,0.0,4.0,4.0,4.0,66.666664,,,,,,,,,,,,,,,,,,,,,,,,,,,,,,,,,,,,,,,,,,,,,,,,,,,,,,,,,,,,,,,,,,,,,,,,,,,,,,,,,,,,
32282,1645492531.5583642,14.0,0.0,3929.743652,4586.666504,4088.718018,4012.3076170000004,3957.9487299999996,450.0,4.0,82.0,,,,0.0,4.0,0.0,4.0,4.0,4.0,66.666664,,,,,,,,7.0,0.0,0.580105,-0.173584,0.643311,0.46850600000000003,0.917494,-0.41113900000000003,-0.11914200000000001,-0.033868999999999996,-0.036993,-0.021172,1.0,0.0,0.0,,,,,,,,,,,,,,,,,,,,,,,,,,,,,,,,10.0,0.0,1.0,0.0,1.0,0.0,50.259369,52.961268999999994,49.351192,24.286102,14.710632,323.14325,41.470821,23.074185999999997,12.054006,9.780978,14.573541,17.220852,19.989756,12.695877000000001,6.813141000000001,54.448212,63.758208999999994,41.363968,26.101553,10.09993,49.442081,59.940281000000006,44.005253,26.454115,17.208389
32283,1645492531.5661788,15.0,0.0,3913.8461909999996,4540.0,4100.0,4008.718018,3950.7692869999996,16202.0,4.0,82.0,,,,0.0,4.0,0.0,4.0,4.0,4.0,66.666664,,,,,,,,,,,,,,,,,,,,,,,,,,,,,,,,,,,,,,,,,,,,,,,,,,,,,,,,,,,,,,,,,,,,,,,,,,,,,,,,,,,,
32284,1645492531.573993,16.0,0.0,3924.615479,4568.717772999999,4122.05127,4036.923096,3963.5898439999996,0.0,4.0,82.0,,,,0.0,4.0,0.0,4.0,4.0,4.0,66.666664,,,,,,,,8.0,0.0,0.580105,-0.173584,0.643311,0.46850600000000003,0.931167,-0.400397,-0.12451400000000001,-0.0339,-0.037005,-0.024133,,,,,,,,,,,,,,,,,,,,,,,,,,,,,,,,,,,,,,,,,,,,,,,,,,,,,,,,,,,,,,,,,
32285,1645492531.5818071,17.0,0.0,3950.7692869999996,4536.922852000001,4132.307617,4073.8461909999996,3957.9487299999996,0.0,4.0,82.0,,,,0.0,4.0,0.0,4.0,4.0,4.0,66.666664,,,,,,,,,,,,,,,,,,,,,,,,,,,,,,,,,,,,,,,,,,,,,,,,,,,,,,,,,,,,,,,,,,,,,,,,,,,,,,,,,,,,
32286,1645492531.589622,18.0,0.0,3987.6923829999996,4493.846191,4150.769043,4092.3076170000004,3992.820557,0.0,4.0,82.0,,,,0.0,4.0,0.0,4.0,4.0,4.0,66.666664,,,,,,,,9.0,0.0,0.580105,-0.173584,0.643311,0.46850600000000003,0.921889,-0.390631,-0.11718900000000002,-0.033928,-0.037113,-0.020499,,,,,,,,,,,,,,,,,,,,,,,,,,,,,,,,,,,0.0,0.0,1.0,0.0,1.0,0.0,,,,,,,,,,,,,,,,,,,,,,,,,
32287,1645492531.597436,19.0,0.0,4035.384521,4541.538574,4188.717772999999,4120.512695,4063.5898439999996,0.0,4.0,82.0,,,,0.0,4.0,0.0,4.0,4.0,4.0,66.666664,,,,,,,,,,,,,,,,,,,,,,,,,,,,,,,,,,,,,,,,,,,,,,,,,,,,,,,,,,,,,,,,,,,,,,,,,,,,,,,,,,,,
32288,1645492531.605251,20.0,0.0,4014.358887,4602.05127,4185.641113000001,4117.94873,4035.384521,0.0,4.0,82.0,,,,0.0,4.0,0.0,4.0,4.0,4.0,66.666664,,,,,,,,10.0,0.0,0.580105,-0.173584,0.643311,0.46850600000000003,0.921401,-0.395514,-0.116701,-0.033905000000000005,-0.037161,-0.023625,,,,,,,,,,,,,,,,,,,,,,,,,,,,,,,,,,,,,,,,,,,,,,,,,,,,,,,,,,,,,,,,,
32289,1645492531.613065,21.0,0.0,3946.1538090000004,4612.307617,4137.436035,4070.7692869999996,3973.3332520000004,0.0,4.0,82.0,,,,0.0,4.0,0.0,4.0,4.0,4.0,66.666664,,,,,,,,,,,,,,,,,,,,,,,,,,,,,,,,,,,,,,,,,,,,,,,,,,,,,,,,,,,,,,,,,,,,,,,,,,,,,,,,,,,,
32290,1645492531.62078,22.0,0.0,3921.025635,4581.025879,4092.3076170000004,4010.7692869999996,3966.1538090000004,0.0,4.0,82.0,,,,0.0,4.0,0.0,4.0,4.0,4.0,66.666664,,,,,,,,11.0,0.0,0.580376,-0.173584,0.643066,0.46850600000000003,0.917983,-0.401373,-0.111818,-0.033884,-0.037156,-0.026438999999999997,,,,,,,,,,,,,,,,,,,,,,,,,,,,,,,,,,,0.0,0.0,1.0,0.0,1.0,0.0,,,,,,,,,,,,,,,,,,,,,,,,,
32291,1645492531.628594,23.0,0.0,3954.8718259999996,4534.358886999999,4111.282227000001,3996.923096,3984.102539,0.0,4.0,82.0,,,,0.0,4.0,0.0,4.0,4.0,4.0,66.666664,,,,,,,,,,,,,,,,,,,,,,,,,,,,,,,,,,,,,,,,,,,,,,,,,,,,,,,,,,,,,,,,,,,,,,,,,,,,,,,,,,,,
32292,1645492531.636408,24.0,0.0,4017.9487299999996,4507.179688,4171.282227000001,4080.512939,4029.2307130000004,0.0,4.0,82.0,,,,0.0,4.0,0.0,4.0,4.0,4.0,66.666664,,,,,,,,12.0,0.0,0.580303,-0.173828,0.643066,0.46850600000000003,0.904799,-0.39697899999999997,-0.10693499999999999,-0.033962,-0.037152,-0.028922000000000003,,,,,,,,,,,,,,,,,,,,,,,,,,,,,,,,,,,,,,,,,,,,,,,,,,,,,,,,,,,,,,,,,
32293,1645492531.644223,25.0,0.0,4034.358887,4533.846191,4170.256348,4116.410156,4051.281982,0.0,4.0,82.0,,,,0.0,4.0,0.0,4.0,4.0,4.0,66.666664,,,,,,,,,,,,,,,,,,,,,,,,,,,,,,,,,,,,,,,,,,,,,,,,,,,,,,,,,,,,,,,,,,,,,,,,,,,,,,,,,,,,
32294,1645492531.652037,26.0,0.0,3996.923096,4557.94873,4130.256348,4038.461426,4030.7692869999996,0.0,4.0,82.0,,,,0.0,4.0,0.0,4.0,4.0,4.0,66.666664,,,,,,,,13.0,0.0,0.580303,-0.173828,0.643066,0.46850600000000003,0.9150530000000001,-0.406256,-0.127443,-0.033837,-0.037147,-0.024906,,,,,,,,,,,,,,,,,,,,,,,,,,,,,,,,,,,0.0,0.0,1.0,0.0,1.0,0.0,,,,,,,,,,,,,,,,,,,,,,,,,
32295,1645492531.659852,27.0,0.0,3975.384521,4542.563965,4123.077147999999,3997.9487299999996,4006.6667479999996,0.0,4.0,82.0,,,,0.0,4.0,0.0,4.0,4.0,4.0,66.666664,,,,,,,,,,,,,,,,,,,,,,,,,,,,,,,,,,,,,,,,,,,,,,,,,,,,,,,,,,,,,,,,,,,,,,,,,,,,,,,,,,,,
32296,1645492531.667666,28.0,0.0,3990.7692869999996,4554.358886999999,4138.461426,4046.1538090000004,4014.8718259999996,0.0,4.0,82.0,,,,0.0,4.0,0.0,4.0,4.0,4.0,66.666664,,,,,,,,14.0,0.0,0.580303,-0.173828,0.643066,0.46850600000000003,0.9121229999999999,-0.40381500000000004,-0.127932,-0.033872,-0.037143999999999996,-0.027494,,,,,,,,,,,,,,,,,,,,,,,,,,,,,,,,,,,,,,,,,,,,,,,,,,,,,,,,,,,,,,,,,
32297,1645492531.6754801,29.0,0.0,3990.7692869999996,4565.128418,4143.077147999999,4079.487061,4039.487061,0.0,4.0,82.0,,,,0.0,4.0,0.0,4.0,4.0,4.0,66.666664,,,,,,,,,,,,,,,,,,,,,,,,,,,,,,,,,,,,,,,,,,,,,,,,,,,,,,,,,,,,,,,,,,,,,,,,,,,,,,,,,,,,
32298,1645492531.683295,30.0,0.0,3952.3076170000004,4544.102539,4111.282227000001,4035.897461,4010.256348,0.0,4.0,82.0,,,,0.0,4.0,0.0,4.0,4.0,4.0,66.666664,0.972656,16.666666,1.0,0.0,3.0,3.0,1.0,15.0,0.0,0.580376,-0.173584,0.643066,0.46850600000000003,0.9194479999999999,-0.41846300000000003,-0.130373,-0.033854,-0.037189,-0.029969,1.0,0.0,0.0,,,,,,,,,,,,,,,,,,,,,,,,,,,,,,,,0.0,0.0,1.0,0.0,1.0,0.0,55.454975,50.762207000000004,47.753681,20.758533,12.836689,254.047562,32.522339,19.130342000000002,11.393768,9.357001,17.198891,16.192152,20.245853,11.013459,6.360941,62.433197,58.420567000000005,42.378143,23.480686,9.026795,54.241241,56.6329,44.326515,22.373404999999998,15.019344
32299,1645492531.691009,31.0,0.0,3945.641113,4581.538574,4104.615234000001,4004.615479,3977.4357909999994,0.0,4.0,82.0,,,,0.0,4.0,0.0,4.0,4.0,4.0,66.666664,,,,,,,,,,,,,,,,,,,,,,,,,,,,,,,,,,,,,,,,,,,,,,,,,,,,,,,,,,,,,,,,,,,,,,,,,,,,,,,,,,,,
32300,1645492531.698824,32.0,0.0,4001.025635,4641.538574,4151.794922,4056.923096,4029.2307130000004,0.0,4.0,82.0,,,,0.0,4.0,0.0,4.0,4.0,4.0,66.666664,,,,,,,,16.0,0.0,0.580573,-0.173584,0.643066,0.468262,0.917983,-0.40576799999999996,-0.12109600000000001,-0.033984,-0.037279,-0.025898,,,,,,,,,,,,,,,,,,,,,,,,,,,,,,,,,,,,,,,,,,,,,,,,,,,,,,,,,,,,,,,,,
32301,1645492531.706638,33.0,0.0,4034.8718259999996,4595.897461,4166.666504,4089.2307130000004,4084.102539,0.0,4.0,82.0,,,,0.0,4.0,0.0,4.0,4.0,4.0,66.666664,,,,,,,,,,,,,,,,,,,,,,,,,,,,,,,,,,,,,,,,,,,,,,,,,,,,,,,,,,,,,,,,,,,,,,,,,,,,,,,,,,,,
32302,1645492531.714453,34.0,0.0,4029.743652,4537.94873,4146.153809,4061.538574,4061.538574,0.0,4.0,82.0,,,,0.0,4.0,0.0,4.0,4.0,4.0,66.666664,,,,,,,,17.0,0.0,0.5805,-0.173828,0.643066,0.468262,0.9209129999999999,-0.406744,-0.11523599999999999,-0.033857,-0.037212999999999996,-0.022283,,,,,,,,,,,,,,,,,,,,,,,,,,,,,,,,,,,0.0,0.0,1.0,0.0,1.0,0.0,,,,,,,,,,,,,,,,,,,,,,,,,
32303,1645492531.722267,35.0,0.0,4047.179443,4563.589844,4155.384765999999,4074.8718259999996,4050.256348,0.0,4.0,82.0,,,,0.0,4.0,0.0,4.0,4.0,4.0,66.666664,,,,,,,,,,,,,,,,,,,,,,,,,,,,,,,,,,,,,,,,,,,,,,,,,,,,,,,,,,,,,,,,,,,,,,,,,,,,,,,,,,,,
32304,1645492531.730081,36.0,0.0,4061.538574,4560.0,4162.05127,4122.563965,4080.512939,0.0,4.0,82.0,,,,0.0,4.0,0.0,4.0,4.0,4.0,66.666664,,,,,,,,18.0,0.0,0.580697,-0.173828,0.643066,0.46801800000000005,0.939467,-0.398932,-0.11914200000000001,-0.033987,-0.037252,-0.01898,,,,,,,,,,,,,,,,,,,,,,,,,,,,,,,,,,,,,,,,,,,,,,,,,,,,,,,,,,,,,,,,,
32305,1645492531.7378962,37.0,0.0,4030.256348,4538.461426,4134.358886999999,4085.641113,4071.794922,0.0,4.0,82.0,,,,0.0,4.0,0.0,4.0,4.0,4.0,66.666664,,,,,,,,,,,,,,,,,,,,,,,,,,,,,,,,,,,,,,,,,,,,,,,,,,,,,,,,,,,,,,,,,,,,,,,,,,,,,,,,,,,,
32306,1645492531.74571,38.0,0.0,4021.025635,4563.589844,4143.077147999999,4045.1281740000004,4076.4101560000004,0.0,4.0,82.0,,,,0.0,4.0,0.0,4.0,4.0,4.0,66.666664,,,,,,,,19.0,0.0,0.580624,-0.174072,0.643066,0.46801800000000005,0.9199360000000001,-0.40381500000000004,-0.128908,-0.034006,-0.037286,-0.022307,,,,,,,,,,,,,,,,,,,,,,,,,,,,,,,,,,,0.0,0.0,1.0,0.0,1.0,0.0,,,,,,,,,,,,,,,,,,,,,,,,,
32307,1645492531.753525,39.0,0.0,4115.897461,4567.692383,4211.794922,4159.487305,4183.589844,0.0,4.0,82.0,,,,0.0,4.0,0.0,4.0,4.0,4.0,66.666664,,,,,,,,,,,,,,,,,,,,,,,,,,,,,,,,,,,,,,,,,,,,,,,,,,,,,,,,,,,,,,,,,,,,,,,,,,,,,,,,,,,,
32308,1645492531.761339,40.0,0.0,4221.538574,4531.282227000001,4254.871582,4252.307617,4274.358886999999,0.0,4.0,82.0,,,,0.0,4.0,0.0,4.0,4.0,4.0,66.666664,,,,,,,,20.0,0.0,0.5808939999999999,-0.174072,0.642822,0.46801800000000005,0.929213,-0.401862,-0.11230599999999999,-0.033926,-0.037269,-0.025252,,,,,,,,,,,,,,,,,,,,,,,,,,,,,,,,,,,,,,,,,,,,,,,,,,,,,,,,,,,,,,,,,
32309,1645492531.769054,41.0,0.0,4169.743652,4527.179688,4206.666504,4191.282227000001,4210.256348,0.0,4.0,82.0,,,,0.0,4.0,0.0,4.0,4.0,4.0,66.666664,,,,,,,,,,,,,,,,,,,,,,,,,,,,,,,,,,,,,,,,,,,,,,,,,,,,,,,,,,,,,,,,,,,,,,,,,,,,,,,,,,,,
32310,1645492531.7768679,42.0,0.0,4059.487061,4519.487305,4136.410156,4128.717772999999,4110.769043,0.0,4.0,82.0,,,,0.0,4.0,0.0,4.0,4.0,4.0,66.666664,,,,,,,,21.0,0.0,0.580821,-0.174316,0.642822,0.46801800000000005,0.917006,-0.416022,-0.113771,-0.033854,-0.037301999999999995,-0.027805,,,,,,,,,,,,,,,,,,,,,,,,,,,,,,,,,,,0.0,0.0,1.0,0.0,1.0,0.0,,,,,,,,,,,,,,,,,,,,,,,,,
32311,1645492531.784682,43.0,0.0,4066.6667479999996,4469.230957,4132.820313,4136.410156,4124.102539,0.0,4.0,82.0,,,,0.0,4.0,0.0,4.0,4.0,4.0,66.666664,,,,,,,,,,,,,,,,,,,,,,,,,,,,,,,,,,,,,,,,,,,,,,,,,,,,,,,,,,,,,,,,,,,,,,,,,,,,,,,,,,,,
32312,1645492531.7924972,44.0,0.0,4100.0,4460.512695,4160.512695,4124.102539,4147.179688,0.0,4.0,82.0,,,,0.0,4.0,0.0,4.0,4.0,4.0,66.666664,,,,,,,,22.0,0.0,0.5809439999999999,-0.174561,0.642822,0.46777299999999994,0.923842,-0.406744,-0.12695499999999998,-0.033984,-0.037429000000000004,-0.023999,,,,,,,,,,,,,,,,,,,,,,,,,,,,,,,,,,,,,,,,,,,,,,,,,,,,,,,,,,,,,,,,,
32313,1645492531.8003109,45.0,0.0,4118.461426,4515.897461,4188.205078,4127.692383,4165.641113000001,0.0,4.0,82.0,,,,0.0,4.0,0.0,4.0,4.0,4.0,66.666664,,,,,,,,,,,,,,,,,,,,,,,,,,,,,,,,,,,,,,,,,,,,,,,,,,,,,,,,,,,,,,,,,,,,,,,,,,,,,,,,,,,,
32314,1645492531.808126,46.0,0.0,4182.05127,4535.384765999999,4218.974121,4185.128418,4222.05127,0.0,4.0,82.0,,,,0.0,4.0,0.0,4.0,4.0,4.0,66.666664,,,,,,,,23.0,0.0,0.5809439999999999,-0.174561,0.642822,0.46777299999999994,0.9160299999999999,-0.39453699999999997,-0.11523599999999999,-0.034004,-0.037446,-0.026824,1.0,0.0,0.0,,,,,,,,,,,,,,,,,,,,,,,,,,,,,,,,0.0,0.0,1.0,0.0,512.0,1.0,59.713676,48.437915999999994,45.670494,16.754438,10.784671000000001,205.822845,26.914902,16.260218,12.102682000000001,8.855651,19.438681,15.716254000000001,20.512188000000002,9.049524,5.754119,67.29496,51.985313,42.421646,20.078194,8.003113,57.036575,52.273487,45.025356,17.687819,12.448109
32315,1645492531.8159401,47.0,0.0,4194.871582,4503.077147999999,4212.307617,4191.282227000001,4225.128418,0.0,4.0,82.0,,,,0.0,4.0,0.0,4.0,4.0,4.0,66.666664,,,,,,,,,,,,,,,,,,,,,,,,,,,,,,,,,,,,,,,,,,,,,,,,,,,,,,,,,,,,,,,,,,,,,,,,,,,,,,,,,,,,
32316,1645492531.8237538,48.0,0.0,4160.512695,4515.384765999999,4202.563965,4199.487305,4212.307617,0.0,4.0,82.0,,,,0.0,4.0,0.0,4.0,4.0,4.0,66.666664,,,,,,,,24.0,0.0,0.580871,-0.174805,0.642822,0.46777299999999994,0.925795,-0.394049,-0.114748,-0.033973,-0.037412,-0.023019,,,,,,,,,,,,,,,,,,,,,,,,,,,,,,,,,,,,,,,,,,,,,,,,,,,,,,,,,,,,,,,,,
32317,1645492531.831569,49.0,0.0,4181.025879,4558.974121,4224.102539,4218.974121,4242.05127,0.0,4.0,82.0,,,,0.0,4.0,0.0,4.0,4.0,4.0,66.666664,,,,,,,,,,,,,,,,,,,,,,,,,,,,,,,,,,,,,,,,,,,,,,,,,,,,,,,,,,,,,,,,,,,,,,,,,,,,,,,,,,,,
32318,1645492531.839283,50.0,0.0,4227.692383,4560.0,4244.615234000001,4176.410156,4265.641113000001,0.0,4.0,82.0,,,,0.0,4.0,0.0,4.0,4.0,4.0,66.666664,,,,,,,,25.0,0.0,0.580674,-0.174561,0.643066,0.46777299999999994,0.925795,-0.39697899999999997,-0.11816600000000001,-0.033944999999999996,-0.037284,-0.025941000000000002,,,,,,,,,,,,,,,,,,,,,,,,,,,,,,,,,,,0.0,0.0,1.0,0.0,512.0,1.0,,,,,,,,,,,,,,,,,,,,,,,,,
32319,1645492531.847098,51.0,0.0,4278.974121,4534.871582,4255.897461,4186.153809,4302.05127,0.0,4.0,82.0,,,,0.0,4.0,0.0,4.0,4.0,4.0,66.666664,,,,,,,,,,,,,,,,,,,,,,,,,,,,,,,,,,,,,,,,,,,,,,,,,,,,,,,,,,,,,,,,,,,,,,,,,,,,,,,,,,,,
32320,1645492531.8549118,52.0,0.0,4303.077147999999,4517.436035,4240.0,4234.871582,4332.820313,0.0,4.0,82.0,,,,0.0,4.0,0.0,4.0,4.0,4.0,66.666664,,,,,,,,26.0,0.0,0.5809439999999999,-0.174561,0.642822,0.46777299999999994,0.9160299999999999,-0.39453699999999997,-0.11523599999999999,-0.033968,-0.037169,-0.022322,,,,,,,,,,,,,,,,,,,,,,,,,,,,,,,,,,,,,,,,,,,,,,,,,,,,,,,,,,,,,,,,,
32321,1645492531.862726,53.0,0.0,4297.436035,4538.974121,4226.153809,4218.461426,4330.256348,0.0,4.0,82.0,,,,0.0,4.0,0.0,4.0,4.0,4.0,66.666664,,,,,,,,,,,,,,,,,,,,,,,,,,,,,,,,,,,,,,,,,,,,,,,,,,,,,,,,,,,,,,,,,,,,,,,,,,,,,,,,,,,,
32322,1645492531.870541,54.0,0.0,4322.563965,4551.794922,4233.846191,4194.871582,4349.743652,0.0,4.0,82.0,,,,0.0,4.0,0.0,4.0,4.0,4.0,66.666664,,,,,,,,27.0,0.0,0.580674,-0.174561,0.643066,0.46777299999999994,0.925795,-0.39697899999999997,-0.11816600000000001,-0.03394,-0.037066,-0.025314,,,,,,,,,,,,,,,,,,,,,,,,,,,,,,,,,,,0.0,0.0,1.0,0.0,512.0,1.0,,,,,,,,,,,,,,,,,,,,,,,,,
32323,1645492531.878355,55.0,0.0,4358.461426,4502.05127,4212.820313,4187.179688,4377.436035,0.0,4.0,82.0,,,,0.0,4.0,0.0,4.0,4.0,4.0,66.666664,,,,,,,,,,,,,,,,,,,,,,,,,,,,,,,,,,,,,,,,,,,,,,,,,,,,,,,,,,,,,,,,,,,,,,,,,,,,,,,,,,,,
32324,1645492531.88617,56.0,0.0,4348.205078,4469.230957,4179.487305,4155.897461,4355.897461,0.0,4.0,82.0,,,,0.0,4.0,0.0,4.0,4.0,4.0,66.666664,,,,,,,,28.0,0.0,0.580353,-0.174072,0.643311,0.46801800000000005,0.913588,-0.387701,-0.11572400000000001,-0.033964,-0.037119,-0.021758,,,,,,,,,,,,,,,,,,,,,,,,,,,,,,,,,,,,,,,,,,,,,,,,,,,,,,,,,,,,,,,,,
32325,1645492531.893984,57.0,0.0,4365.641113000001,4513.333496,4199.487305,4156.410156,4372.820313,0.0,4.0,82.0,,,,0.0,4.0,0.0,4.0,4.0,4.0,66.666664,,,,,,,,,,,,,,,,,,,,,,,,,,,,,,,,,,,,,,,,,,,,,,,,,,,,,,,,,,,,,,,,,,,,,,,,,,,,,,,,,,,,
32326,1645492531.901799,58.0,0.0,4478.461426,4536.922852000001,4223.589844,4192.307617,4505.641113000001,0.0,4.0,82.0,,,,0.0,4.0,0.0,4.0,4.0,4.0,66.666664,,,,,,,,29.0,0.0,0.579834,-0.17334000000000002,0.643799,0.468262,0.9131,-0.382818,-0.114748,-0.033888,-0.037216,-0.024659999999999998,,,,,,,,,,,,,,,,,,,,,,,,,,,,,,,,,,,0.0,0.0,1.0,0.0,512.0,1.0,,,,,,,,,,,,,,,,,,,,,,,,,
32327,1645492531.909513,59.0,0.0,4593.333496,4526.153809,4194.358886999999,4146.153809,4609.230957,0.0,4.0,82.0,,,,0.0,4.0,0.0,4.0,4.0,4.0,66.666664,,,,,,,,,,,,,,,,,,,,,,,,,,,,,,,,,,,,,,,,,,,,,,,,,,,,,,,,,,,,,,,,,,,,,,,,,,,,,,,,,,,,
32328,1645492531.917327,60.0,0.0,4638.461426,4538.974121,4137.94873,4022.5642090000006,4550.769043,0.0,4.0,82.0,,,,0.0,4.0,0.0,4.0,4.0,4.0,66.666664,,,,,,,,30.0,0.0,0.578916,-0.17236300000000002,0.6445310000000001,0.46875,0.91017,-0.370123,-0.11425999999999999,-0.033819999999999996,-0.037254,-0.02112,,,,,,,,,,,,,,,,,,,,,,,,,,,,,,,,,,,,,,,,,,,,,,,,,,,,,,,,,,,,,,,,,
32329,1645492531.925142,61.0,0.0,4919.487305,4570.256348,4158.974121,4009.743652,4632.820313,0.0,4.0,82.0,,,,0.0,4.0,0.0,4.0,4.0,4.0,66.666664,,,,,,,,,,,,,,,,,,,,,,,,,,,,,,,,,,,,,,,,,,,,,,,,,,,,,,,,,,,,,,,,,,,,,,,,,,,,,,,,,,,,
32330,1645492531.932956,62.0,0.0,5637.94873,4659.487305,4257.436035,4135.897461,5003.589844,0.0,4.0,82.0,,,,0.0,4.0,0.0,4.0,4.0,4.0,66.666664,,,,,,,,31.0,0.0,0.577597,-0.17138699999999998,0.6452640000000001,0.46972700000000006,0.917983,-0.378424,-0.12695499999999998,-0.033856,-0.037337,-0.024184,1.0,0.0,0.0,,,,,,,,,,,,,,,,,,,,,,,,,,,,,,,,0.0,0.0,1.0,0.0,512.0,0.814856,60.889076,47.194557,45.120354,13.455272,9.148211,192.19851699999998,25.166501999999998,15.050114,13.972285999999999,8.445418,20.50868,16.337492,21.325777,7.352633999999999,5.257583,67.253357,46.238007,42.700935,16.861727,7.440439,56.66735799999999,48.326622,47.051403,13.665185999999999,10.349692999999998
32331,1645492531.940771,63.0,0.0,6347.692383,4822.563965,4284.102539,4219.487305,5211.794922,0.0,4.0,82.0,,,,0.0,4.0,0.0,4.0,4.0,4.0,66.666664,,,,,,,,,,,,,,,,,,,,,,,,,,,,,,,,,,,,,,,,,,,,,,,,,,,,,,,,,,,,,,,,,,,,,,,,,,,,,,,,,,,,
32332,1645492531.948585,64.0,0.0,6807.179687999999,4963.589844,4229.230957,4193.846191,5170.256348,450.0,4.0,82.0,,,,0.0,4.0,0.0,4.0,4.0,4.0,66.666664,,,,,,,,32.0,0.0,0.577071,-0.170898,0.645508,0.47021499999999994,0.9282370000000001,-0.423835,-0.113283,-0.033839999999999995,-0.037314,-0.026892000000000003,,,,,,,,,,,,,,,,,,,,,,,,,,,,,,,,,,,,,,,,,,,,,,,,,,,,,,,,,,,,,,,,,
32333,1645492531.956399,65.0,0.0,7305.641113,5130.256348,4224.102539,4195.897461,5305.641113000001,450.0,4.0,82.0,,,,0.0,4.0,0.0,4.0,4.0,4.0,66.666664,,,,,,,,,,,,,,,,,,,,,,,,,,,,,,,,,,,,,,,,,,,,,,,,,,,,,,,,,,,,,,,,,,,,,,,,,,,,,,,,,,,,
32334,1645492531.964214,66.0,0.0,7762.05127,5605.641113000001,4232.820313,4230.256348,5568.717772999999,16124.0,4.0,82.0,,,,0.0,4.0,0.0,4.0,4.0,4.0,66.666664,,,,,,,,33.0,0.0,0.576544,-0.17040999999999998,0.645752,0.470703,0.9121229999999999,-0.43994799999999995,-0.112795,-0.033776,-0.037343,-0.029379000000000002,,,,,,,,,,,,,,,,,,,,,,,,,,,,,,,,,,,0.0,0.0,1.0,0.0,512.0,0.814856,,,,,,,,,,,,,,,,,,,,,,,,,
32335,1645492531.972028,67.0,0.0,7876.922852,6307.692383,4193.333496,4201.538574,5666.153809,450.0,4.0,82.0,,,,0.0,4.0,0.0,4.0,4.0,4.0,66.666664,,,,,,,,,,,,,,,,,,,,,,,,,,,,,,,,,,,,,,,,,,,,,,,,,,,,,,,,,,,,,,,,,,,,,,,,,,,,,,,,,,,,
32336,1645492531.979743,68.0,0.0,7820.512695,6775.384765999999,4174.358886999999,4169.230957,5700.0,105.0,4.0,82.0,,,,0.0,4.0,1.0,0.0,4.0,4.0,41.666668,,,,,,,,34.0,0.0,0.5766899999999999,-0.170166,0.645508,0.470947,0.916518,-0.438483,-0.101076,-0.03367,-0.037417,-0.031715,,,,,,,,,,,,,,,,,,,,,,,,,,,,,,,,,,,,,,,,,,,,,,,,,,,,,,,,,,,,,,,,,
32337,1645492531.987557,69.0,0.0,7828.205078,6967.692383,4187.692383,4199.487305,5806.153809,450.0,4.0,82.0,,,,0.0,4.0,1.0,0.0,4.0,4.0,41.666668,,,,,,,,,,,,,,,,,,,,,,,,,,,,,,,,,,,,,,,,,,,,,,,,,,,,,,,,,,,,,,,,,,,,,,,,,,,,,,,,,,,,
32338,1645492531.995372,70.0,0.0,7831.794922,7164.615234000001,4199.487305,4248.717772999999,5893.846191,0.0,4.0,82.0,,,,0.0,4.0,1.0,0.0,4.0,4.0,41.666668,,,,,,,,35.0,0.0,0.5772189999999999,-0.170898,0.6450199999999999,0.470703,0.9052870000000001,-0.45215500000000003,-0.105959,-0.033574,-0.037435,-0.033621,,,,,,,,,,,,,,,,,,,,,,,,,,,,,,,,,,,0.0,0.0,1.0,0.0,512.0,0.814856,,,,,,,,,,,,,,,,,,,,,,,,,
32339,1645492532.0030859,71.0,0.0,7820.0,7336.410156,4206.153809,4260.512695,5889.230957,450.0,4.0,82.0,,,,0.0,4.0,1.0,0.0,4.0,4.0,41.666668,,,,,,,,,,,,,,,,,,,,,,,,,,,,,,,,,,,,,,,,,,,,,,,,,,,,,,,,,,,,,,,,,,,,,,,,,,,,,,,,,,,,
32340,1645492532.010901,72.0,0.0,7827.692383,7340.512695,4213.333496,4252.820313,5840.0,450.0,4.0,82.0,,,,0.0,4.0,1.0,0.0,4.0,4.0,41.666668,,,,,,,,36.0,0.0,0.578017,-0.17138699999999998,0.6445310000000001,0.47021499999999994,0.8921030000000001,-0.428717,-0.11133,-0.033635000000000005,-0.037403,-0.035435,,,,,,,,,,,,,,,,,,,,,,,,,,,,,,,,,,,,,,,,,,,,,,,,,,,,,,,,,,,,,,,,,
32341,1645492532.0187151,73.0,0.0,7766.153809,7244.102539,4212.820313,4270.256348,5766.153809,309.0,4.0,82.0,,,,0.0,4.0,1.0,0.0,4.0,4.0,41.666668,,,,,,,,,,,,,,,,,,,,,,,,,,,,,,,,,,,,,,,,,,,,,,,,,,,,,,,,,,,,,,,,,,,,,,,,,,,,,,,,,,,,
32342,1645492532.0265288,74.0,0.0,7473.846191,7094.871581999999,4182.05127,4248.717772999999,5575.897461,450.0,4.0,82.0,,,,0.0,4.0,1.0,0.0,4.0,4.0,41.666668,,,,,,,,37.0,0.0,0.578541,-0.171875,0.6442869999999999,0.46972700000000006,0.908217,-0.389166,-0.104494,-0.033592000000000004,-0.037325,-0.030719999999999997,,,,,,,,,,,,,,,,,,,,,,,,,,,,,,,,,,,0.0,0.0,1.0,0.0,512.0,0.814856,,,,,,,,,,,,,,,,,,,,,,,,,
32343,1645492532.034344,75.0,0.0,7018.461426000001,6888.205078,4188.205078,4242.05127,5381.025879,16243.0,4.0,82.0,,,,0.0,4.0,1.0,0.0,4.0,4.0,41.666668,,,,,,,,,,,,,,,,,,,,,,,,,,,,,,,,,,,,,,,,,,,,,,,,,,,,,,,,,,,,,,,,,,,,,,,,,,,,,,,,,,,,
32344,1645492532.0421581,76.0,0.0,6552.820313,6654.358886999999,4237.436035,4279.487305,5268.205078,450.0,4.0,82.0,,,,0.0,4.0,1.0,0.0,4.0,4.0,41.666668,,,,,,,,38.0,0.0,0.578939,-0.172119,0.644043,0.46948199999999995,0.9126120000000001,-0.409186,-0.123537,-0.033651,-0.037302999999999996,-0.032775,,,,,,,,,,,,,,,,,,,,,,,,,,,,,,,,,,,,,,,,,,,,,,,,,,,,,,,,,,,,,,,,,
32345,1645492532.049973,77.0,0.0,6075.897461,6361.538574,4197.436035,4229.743652,5062.563965,450.0,4.0,82.0,,,,0.0,4.0,1.0,0.0,4.0,4.0,41.666668,,,,,,,,,,,,,,,,,,,,,,,,,,,,,,,,,,,,,,,,,,,,,,,,,,,,,,,,,,,,,,,,,,,,,,,,,,,,,,,,,,,,
32346,1645492532.057787,78.0,0.0,5672.820313,5981.538574,4141.025879,4171.282227000001,4838.974121,450.0,4.0,82.0,,,,0.0,4.0,1.0,0.0,4.0,4.0,41.666668,,,,,,,,39.0,0.0,0.579335,-0.17236300000000002,0.643799,0.469238,0.918959,-0.41113900000000003,-0.124025,-0.033704000000000005,-0.037382,-0.034722,1.0,0.0,0.0,,,,,,,,,,,,,,,,,,,,,,,,,,,,,,,,0.0,0.0,1.0,0.0,512.0,0.41793900000000006,66.546486,51.270626,47.600243,12.029235,8.199741,213.98666400000002,26.122298999999998,15.33651,16.229313,8.183773,19.865271,18.101072,22.965315,6.376518,5.016095,61.981651,42.176476,44.294185999999996,14.765313,7.499485000000001,53.23814399999999,45.897296999999995,50.632015,11.310093,9.199236
32347,1645492532.065502,79.0,0.0,5427.179688,5670.256348,4206.153809,4231.282227000001,4803.077147999999,16243.0,4.0,82.0,,,,0.0,4.0,1.0,0.0,4.0,4.0,41.666668,,,,,,,,,,,,,,,,,,,,,,,,,,,,,,,,,,,,,,,,,,,,,,,,,,,,,,,,,,,,,,,,,,,,,,,,,,,,,,,,,,,,
32348,1645492532.073316,80.0,0.0,5258.461426,5554.358886999999,4278.461426,4298.974121,4802.05127,450.0,4.0,82.0,,,,0.0,4.0,1.0,0.0,4.0,4.0,41.666668,,,,,,,,40.0,0.0,0.579263,-0.17260699999999998,0.643799,0.469238,0.909682,-0.389166,-0.136721,-0.033701999999999996,-0.037354000000000005,-0.030126999999999998,,,,,,,,,,,,,,,,,,,,,,,,,,,,,,,,,,,,,,,,,,,,,,,,,,,,,,,,,,,,,,,,,
32349,1645492532.08113,81.0,0.0,5137.436035,5495.384765999999,4263.077147999999,4302.563965,4711.282227000001,450.0,4.0,82.0,,,,0.0,4.0,1.0,0.0,4.0,4.0,41.666668,,,,,,,,,,,,,,,,,,,,,,,,,,,,,,,,,,,,,,,,,,,,,,,,,,,,,,,,,,,,,,,,,,,,,,,,,,,,,,,,,,,,
32350,1645492532.088945,82.0,0.0,5071.794922,5412.820313,4258.974121,4299.487305,4675.384765999999,450.0,4.0,82.0,,,,0.0,4.0,1.0,0.0,4.0,4.0,41.666668,,,,,,,,41.0,0.0,0.579659,-0.172852,0.643555,0.46899399999999997,0.925307,-0.412116,-0.129885,-0.033701,-0.037281,-0.026039999999999997,,,,,,,,,,,,,,,,,,,,,,,,,,,,,,,,,,,0.0,0.0,1.0,0.0,512.0,0.41793900000000006,,,,,,,,,,,,,,,,,,,,,,,,,
32351,1645492532.096759,83.0,0.0,4964.615234000001,5363.589844,4296.410156,4288.205078,4695.384765999999,16243.0,4.0,82.0,,,,0.0,4.0,1.0,0.0,4.0,4.0,41.666668,,,,,,,,,,,,,,,,,,,,,,,,,,,,,,,,,,,,,,,,,,,,,,,,,,,,,,,,,,,,,,,,,,,,,,,,,,,,,,,,,,,,
32352,1645492532.104574,84.0,0.0,4821.025879,5286.666504,4291.282227000001,4266.666504,4646.153809,450.0,4.0,82.0,,,,0.0,4.0,1.0,0.0,4.0,4.0,41.666668,,,,,,,,42.0,0.0,0.5797829999999999,-0.173096,0.643555,0.46875,0.9194479999999999,-0.400397,-0.129397,-0.033798,-0.037264,-0.028562999999999998,,,,,,,,,,,,,,,,,,,,,,,,,,,,,,,,,,,,,,,,,,,,,,,,,,,,,,,,,,,,,,,,,
32353,1645492532.1123881,85.0,0.0,4755.384765999999,5146.153809,4281.025879,4299.487305,4607.179688,450.0,4.0,82.0,,,,0.0,4.0,1.0,0.0,4.0,4.0,41.666668,,,,,,,,,,,,,,,,,,,,,,,,,,,,,,,,,,,,,,,,,,,,,,,,,,,,,,,,,,,,,,,,,,,,,,,,,,,,,,,,,,,,
32354,1645492532.120202,86.0,0.0,4687.179688,5030.256348,4287.692383,4299.487305,4597.436035,450.0,4.0,82.0,,,,0.0,4.0,1.0,0.0,4.0,4.0,41.666668,,,,,,,,43.0,0.0,0.5797100000000001,-0.17334000000000002,0.643555,0.46875,0.921889,-0.408209,-0.12255999999999999,-0.033788,-0.037346,-0.024631999999999998,,,,,,,,,,,,,,,,,,,,,,,,,,,,,,,,,,,0.0,0.0,1.0,0.0,512.0,0.41793900000000006,,,,,,,,,,,,,,,,,,,,,,,,,
32355,1645492532.128017,87.0,0.0,4527.692383,4947.692383,4250.256348,4212.820313,4509.743652,16243.0,4.0,82.0,,,,0.0,4.0,1.0,0.0,4.0,4.0,41.666668,,,,,,,,,,,,,,,,,,,,,,,,,,,,,,,,,,,,,,,,,,,,,,,,,,,,,,,,,,,,,,,,,,,,,,,,,,,,,,,,,,,,
32356,1645492532.135731,88.0,0.0,4421.025879,4875.897461,4214.358886999999,4168.717772999999,4436.410156,450.0,4.0,82.0,,,,0.0,4.0,1.0,0.0,4.0,4.0,41.666668,,,,,,,,44.0,0.0,0.5797100000000001,-0.17334000000000002,0.643555,0.46875,0.921889,-0.413092,-0.123537,-0.033729,-0.037323,-0.027247000000000004,,,,,,,,,,,,,,,,,,,,,,,,,,,,,,,,,,,,,,,,,,,,,,,,,,,,,,,,,,,,,,,,,
32357,1645492532.143546,89.0,0.0,4479.487305,4845.641113000001,4277.436035,4247.692383,4517.94873,450.0,4.0,82.0,,,,0.0,4.0,1.0,0.0,4.0,4.0,41.666668,,,,,,,,,,,,,,,,,,,,,,,,,,,,,,,,,,,,,,,,,,,,,,,,,,,,,,,,,,,,,,,,,,,,,,,,,,,,,,,,,,,,
32358,1645492532.15136,90.0,0.0,4505.641113000001,4863.077147999999,4329.743652,4316.410156,4581.538574,450.0,4.0,82.0,,,,0.0,4.0,1.0,0.0,4.0,4.0,41.666668,,,,,,,,45.0,0.0,0.579637,-0.173584,0.643555,0.46875,0.913588,-0.404791,-0.11767799999999999,-0.033823,-0.037301,-0.02965,,,,,,,,,,,,,,,,,,,,,,,,,,,,,,,,,,,0.0,0.0,1.0,0.0,512.0,0.41793900000000006,,,,,,,,,,,,,,,,,,,,,,,,,
32359,1645492532.159174,91.0,0.0,4404.102539,4943.077147999999,4283.077147999999,4283.589844,4509.230957,16243.0,4.0,82.0,,,,0.0,4.0,1.0,0.0,4.0,4.0,41.666668,,,,,,,,,,,,,,,,,,,,,,,,,,,,,,,,,,,,,,,,,,,,,,,,,,,,,,,,,,,,,,,,,,,,,,,,,,,,,,,,,,,,
32360,1645492532.166989,92.0,0.0,4353.333496,5068.717772999999,4276.922852000001,4285.128418,4488.205078,450.0,4.0,82.0,,,,0.0,4.0,1.0,0.0,4.0,4.0,41.666668,,,,,,,,46.0,0.0,0.5795640000000001,-0.173828,0.643555,0.46875,0.9126120000000001,-0.41358100000000003,-0.12451400000000001,-0.03381,-0.037232999999999995,-0.031812,,,,,,,,,,,,,,,,,,,,,,,,,,,,,,,,,,,,,,,,,,,,,,,,,,,,,,,,,,,,,,,,,
32361,1645492532.174803,93.0,0.0,4338.461426,5175.897461,4304.102539,4300.0,4496.410156,450.0,4.0,82.0,,,,0.0,4.0,1.0,0.0,4.0,4.0,41.666668,,,,,,,,,,,,,,,,,,,,,,,,,,,,,,,,,,,,,,,,,,,,,,,,,,,,,,,,,,,,,,,,,,,,,,,,,,,,,,,,,,,,
32362,1645492532.182618,94.0,0.0,4237.436035,5160.512695,4262.05127,4245.128418,4428.205078,450.0,4.0,82.0,,,,0.0,4.0,1.0,0.0,4.0,4.0,41.666668,0.972656,0.0,0.0,0.0,0.0,1.0,0.0,47.0,0.0,0.579491,-0.174072,0.643555,0.46875,0.91017,-0.400397,-0.116701,-0.033847,-0.037221,-0.033806,1.0,0.0,0.0,,,,,,,,,,,,,,,,,,,,,,,,,,,,,,,,0.0,0.0,1.0,0.0,512.0,0.45082799999999995,251.06666600000003,80.167885,58.22068,13.782528,8.051344,332.71820099999997,38.39389,17.428259,18.17585,8.120063,17.40711,20.671105999999998,25.182135,6.368865,5.029431,52.864052,39.906044,47.387935999999996,14.463179,8.101237,70.80980699999999,46.839962,55.09516899999999,11.1261,9.161895
32363,1645492532.190432,95.0,0.0,4181.025879,5024.615234000001,4248.205078,4243.077147999999,4393.333496,16243.0,4.0,82.0,,,,0.0,4.0,1.0,0.0,4.0,4.0,41.666668,,,,,,,,,,,,,,,,,,,,,,,,,,,,,,,,,,,,,,,,,,,,,,,,,,,,,,,,,,,,,,,,,,,,,,,,,,,,,,,,,,,,
32364,1645492532.198247,96.0,0.0,4235.897461,4942.05127,4303.077147999999,4315.384765999999,4446.666504,450.0,4.0,82.0,,,,0.0,4.0,1.0,0.0,4.0,4.0,41.666668,,,,,,,,48.0,0.0,0.579491,-0.174072,0.643555,0.46875,0.9004040000000001,-0.415534,-0.11230599999999999,-0.033831,-0.03721,-0.035504,,,,,,,,,,,,,,,,,,,,,,,,,,,,,,,,,,,,,,,,,,,,,,,,,,,,,,,,,,,,,,,,,
32365,1645492532.206061,97.0,0.0,4175.897461,4939.487305,4273.333496,4272.307617,4421.538574,450.0,4.0,82.0,,,,0.0,4.0,1.0,0.0,4.0,4.0,41.666668,,,,,,,,,,,,,,,,,,,,,,,,,,,,,,,,,,,,,,,,,,,,,,,,,,,,,,,,,,,,,,,,,,,,,,,,,,,,,,,,,,,,
32366,1645492532.213775,98.0,0.0,4003.076904,4886.666504,4183.589844,4121.025879,4287.179688,450.0,4.0,82.0,,,,0.0,4.0,1.0,0.0,4.0,4.0,41.666668,,,,,,,,49.0,0.0,0.579688,-0.174072,0.643555,0.46850600000000003,0.8969860000000001,-0.40528000000000003,-0.112795,-0.033866,-0.0372,-0.030879000000000004,,,,,,,,,,,,,,,,,,,,,,,,,,,,,,,,,,,0.0,0.0,1.0,0.0,512.0,0.45082799999999995,,,,,,,,,,,,,,,,,,,,,,,,,
32367,1645492532.22159,99.0,0.0,3970.7692869999996,4831.282227000001,4212.307617,4103.077147999999,4255.897461,16243.0,4.0,82.0,,,,0.0,4.0,1.0,0.0,4.0,4.0,41.666668,,,,,,,,,,,,,,,,,,,,,,,,,,,,,,,,,,,,,,,,,,,,,,,,,,,,,,,,,,,,,,,,,,,,,,,,,,,,,,,,,,,,
32368,1645492532.229404,100.0,0.0,4059.487061,4879.487305,4291.794922,4223.589844,4343.589844,450.0,4.0,82.0,,,,0.0,4.0,1.0,0.0,4.0,4.0,41.666668,,,,,,,,50.0,0.0,0.579688,-0.174072,0.643555,0.46850600000000003,0.9184709999999999,-0.41455699999999995,-0.107424,-0.033849000000000004,-0.037337,-0.032967,,,,,,,,,,,,,,,,,,,,,,,,,,,,,,,,,,,,,,,,,,,,,,,,,,,,,,,,,,,,,,,,,
32369,1645492532.2372189,101.0,0.0,4074.358887,4949.230957,4277.94873,4268.205078,4369.743652,450.0,4.0,82.0,,,,0.0,4.0,1.0,0.0,4.0,4.0,41.666668,,,,,,,,,,,,,,,,,,,,,,,,,,,,,,,,,,,,,,,,,,,,,,,,,,,,,,,,,,,,,,,,,,,,,,,,,,,,,,,,,,,,
32370,1645492532.245033,102.0,0.0,4032.820557,4931.282227000001,4258.974121,4229.743652,4334.358886999999,450.0,4.0,82.0,,,,0.0,4.0,1.0,0.0,4.0,4.0,41.666668,,,,,,,,51.0,0.0,0.579688,-0.174072,0.643555,0.46850600000000003,0.914565,-0.408209,-0.112795,-0.033832999999999995,-0.037315,-0.028645,,,,,,,,,,,,,,,,,,,,,,,,,,,,,,,,,,,10.0,0.0,1.0,0.0,512.0,0.45082799999999995,,,,,,,,,,,,,,,,,,,,,,,,,
32371,1645492532.252847,103.0,0.0,4019.487061,4868.717772999999,4279.487305,4229.743652,4351.282227000001,16243.0,4.0,82.0,,,,0.0,4.0,1.0,0.0,4.0,4.0,41.666668,,,,,,,,,,,,,,,,,,,,,,,,,,,,,,,,,,,,,,,,,,,,,,,,,,,,,,,,,,,,,,,,,,,,,,,,,,,,,,,,,,,,
32372,1645492532.2606618,104.0,0.0,3993.3332520000004,4879.487305,4262.05127,4247.692383,4361.025879,450.0,4.0,82.0,,,,0.0,4.0,1.0,0.0,4.0,4.0,41.666668,,,,,,,,52.0,0.0,0.579688,-0.174072,0.643555,0.46850600000000003,0.922866,-0.404791,-0.114748,-0.033819,-0.037343,-0.024609,,,,,,,,,,,,,,,,,,,,,,,,,,,,,,,,,,,,,,,,,,,,,,,,,,,,,,,,,,,,,,,,,
32373,1645492532.268476,105.0,0.0,3952.3076170000004,4888.205078,4241.538574,4216.922852000001,4305.128418,450.0,4.0,82.0,,,,0.0,4.0,1.0,0.0,4.0,4.0,41.666668,,,,,,,,,,,,,,,,,,,,,,,,,,,,,,,,,,,,,,,,,,,,,,,,,,,,,,,,,,,,,,,,,,,,,,,,,,,,,,,,,,,,
32374,1645492532.2762911,106.0,0.0,3930.7692869999996,4746.153809,4258.461426,4173.846191,4283.077147999999,450.0,4.0,82.0,,,,0.0,4.0,1.0,0.0,4.0,4.0,41.666668,,,,,,,,53.0,0.0,0.579959,-0.174072,0.643311,0.46850600000000003,0.9194479999999999,-0.408209,-0.11230599999999999,-0.033855,-0.037222000000000005,-0.021122,,,,,,,,,,,,,,,,,,,,,,,,,,,,,,,,,,,10.0,0.0,1.0,0.0,512.0,0.45082799999999995,,,,,,,,,,,,,,,,,,,,,,,,,
32375,1645492532.2840052,107.0,0.0,3901.025635,4596.410156,4250.256348,4175.897461,4283.077147999999,16243.0,4.0,82.0,,,,0.0,4.0,1.0,0.0,4.0,4.0,41.666668,,,,,,,,,,,,,,,,,,,,,,,,,,,,,,,,,,,,,,,,,,,,,,,,,,,,,,,,,,,,,,,,,,,,,,,,,,,,,,,,,,,,
32376,1645492532.2918198,108.0,0.0,3884.102539,4587.692383,4238.461426,4237.94873,4261.538574,450.0,4.0,82.0,,,,0.0,4.0,1.0,0.0,4.0,4.0,41.666668,,,,,,,,54.0,0.0,0.579688,-0.174072,0.643555,0.46850600000000003,0.914565,-0.408209,-0.112795,-0.033839,-0.037211,-0.017985,,,,,,,,,,,,,,,,,,,,,,,,,,,,,,,,,,,,,,,,,,,,,,,,,,,,,,,,,,,,,,,,,
32377,1645492532.299634,109.0,0.0,3885.641113,4617.436035,4253.333496,4254.358886999999,4248.717772999999,450.0,4.0,82.0,,,,0.0,4.0,1.0,0.0,4.0,4.0,41.666668,,,,,,,,,,,,,,,,,,,,,,,,,,,,,,,,,,,,,,,,,,,,,,,,,,,,,,,,,,,,,,,,,,,,,,,,,,,,,,,,,,,,
32378,1645492532.3074481,110.0,0.0,3877.9487299999996,4631.794922,4245.128418,4189.743652,4253.333496,450.0,4.0,82.0,,,,0.0,4.0,1.0,0.0,4.0,4.0,41.666668,,,,,,,,55.0,0.0,0.579959,-0.174072,0.643311,0.46850600000000003,0.9194479999999999,-0.408209,-0.11230599999999999,-0.033873,-0.037103,-0.015161,1.0,0.0,0.0,,,,,,,,,,,,,,,,,,,,,,,,,,,,,,,,10.0,0.0,32.0,0.299831,1.0,0.0,1111.903442,151.47508200000001,94.236763,20.007513,8.8122,805.6570429999999,86.98761,22.767712,20.199742999999998,8.480914,13.888299,23.518524,27.419325,7.225322,5.215038,42.399592999999996,39.022804,51.391106,15.948053,9.017109,177.965622,52.306171,59.665043000000004,12.809175,10.29752
32379,1645492532.315263,111.0,0.0,3838.461426,4641.025879,4204.102539,4144.102539,4234.358886999999,16243.0,4.0,82.0,,,,0.0,4.0,1.0,0.0,4.0,4.0,41.666668,,,,,,,,,,,,,,,,,,,,,,,,,,,,,,,,,,,,,,,,,,,,,,,,,,,,,,,,,,,,,,,,,,,,,,,,,,,,,,,,,,,,
32380,1645492532.323077,112.0,0.0,3793.3332520000004,4598.974121,4194.358886999999,4144.102539,4196.922852000001,450.0,4.0,82.0,,,,0.0,4.0,1.0,0.0,4.0,4.0,41.666668,,,,,,,,56.0,0.0,0.579762,-0.174072,0.643311,0.46875,0.909682,-0.395514,-0.11572400000000001,-0.033904000000000004,-0.037055000000000005,-0.018821,,,,,,,,,,,,,,,,,,,,,,,,,,,,,,,,,,,,,,,,,,,,,,,,,,,,,,,,,,,,,,,,,
32381,1645492532.330892,113.0,0.0,3821.025635,4567.692383,4237.94873,4162.05127,4222.05127,450.0,4.0,82.0,,,,0.0,4.0,1.0,0.0,4.0,4.0,41.666668,,,,,,,,,,,,,,,,,,,,,,,,,,,,,,,,,,,,,,,,,,,,,,,,,,,,,,,,,,,,,,,,,,,,,,,,,,,,,,,,,,,,
32382,1645492532.338706,114.0,0.0,3894.8718259999996,4602.563965,4271.794922,4209.230957,4303.077147999999,450.0,4.0,82.0,,,,0.0,4.0,1.0,0.0,4.0,4.0,41.666668,,,,,,,,57.0,0.0,0.579762,-0.174072,0.643311,0.46875,0.921401,-0.401373,-0.11523599999999999,-0.033931,-0.037012,-0.015864,,,,,,,,,,,,,,,,,,,,,,,,,,,,,,,,,,,10.0,0.0,32.0,0.299831,1.0,0.0,,,,,,,,,,,,,,,,,,,,,,,,,
32383,1645492532.34652,115.0,0.0,3909.2307130000004,4630.256348,4271.282227000001,4255.384765999999,4331.282227000001,16243.0,4.0,82.0,,,,0.0,4.0,1.0,0.0,4.0,4.0,41.666668,,,,,,,,,,,,,,,,,,,,,,,,,,,,,,,,,,,,,,,,,,,,,,,,,,,,,,,,,,,,,,,,,,,,,,,,,,,,,,,,,,,,
32384,1645492532.354235,116.0,0.0,3846.1538090000004,4606.153809,4263.589844,4233.333496,4275.384765999999,450.0,4.0,82.0,,,,0.0,4.0,1.0,0.0,4.0,4.0,41.666668,,,,,,,,58.0,0.0,0.579959,-0.174072,0.643311,0.46850600000000003,0.9243309999999999,-0.410163,-0.106447,-0.033956,-0.03707,-0.013203999999999999,,,,,,,,,,,,,,,,,,,,,,,,,,,,,,,,,,,,,,,,,,,,,,,,,,,,,,,,,,,,,,,,,
32385,1645492532.362049,117.0,0.0,3826.6667479999996,4567.692383,4268.205078,4213.846191,4257.436035,450.0,4.0,82.0,,,,0.0,4.0,1.0,0.0,4.0,4.0,41.666668,,,,,,,,,,,,,,,,,,,,,,,,,,,,,,,,,,,,,,,,,,,,,,,,,,,,,,,,,,,,,,,,,,,,,,,,,,,,,,,,,,,,
32386,1645492532.369864,118.0,0.0,3847.179443,4558.461426,4248.205078,4219.487305,4267.179688,450.0,4.0,82.0,,,,0.0,4.0,1.0,0.0,4.0,4.0,41.666668,,,,,,,,59.0,0.0,0.579959,-0.174072,0.643311,0.46850600000000003,0.9306780000000001,-0.39942,-0.12255999999999999,-0.033979,-0.037172000000000004,-0.016962,,,,,,,,,,,,,,,,,,,,,,,,,,,,,,,,,,,10.0,0.0,32.0,0.299831,1.0,0.0,,,,,,,,,,,,,,,,,,,,,,,,,
32387,1645492532.377678,119.0,0.0,3852.3076170000004,4568.205078,4253.333496,4213.333496,4260.512695,16243.0,4.0,82.0,,,,0.0,4.0,1.0,0.0,4.0,4.0,41.666668,,,,,,,,,,,,,,,,,,,,,,,,,,,,,,,,,,,,,,,,,,,,,,,,,,,,,,,,,,,,,,,,,,,,,,,,,,,,,,,,,,,,
32388,1645492532.385493,120.0,0.0,3878.974365,4545.641113000001,4298.974121,4239.487305,4308.717772999999,450.0,4.0,82.0,,,,0.0,4.0,1.0,0.0,4.0,4.0,41.666668,,,,,,,,60.0,0.0,0.579959,-0.174072,0.643311,0.46850600000000003,0.9121229999999999,-0.39014299999999996,-0.121584,-0.03395,-0.037166000000000005,-0.020441,,,,,,,,,,,,,,,,,,,,,,,,,,,,,,,,,,,,,,,,,,,,,,,,,,,,,,,,,,,,,,,,,
32389,1645492532.393307,121.0,0.0,3839.487061,4515.897461,4258.461426,4235.384765999999,4297.94873,450.0,4.0,82.0,,,,0.0,4.0,1.0,0.0,4.0,4.0,41.666668,,,,,,,,,,,,,,,,,,,,,,,,,,,,,,,,,,,,,,,,,,,,,,,,,,,,,,,,,,,,,,,,,,,,,,,,,,,,,,,,,,,,
32390,1645492532.4011211,122.0,0.0,3757.4357909999994,4551.794922,4185.128418,4171.282227000001,4204.615234000001,450.0,4.0,82.0,,,,0.0,4.0,1.0,0.0,4.0,4.0,41.666668,,,,,,,,61.0,0.0,0.579959,-0.174072,0.643311,0.46850600000000003,0.929702,-0.393561,-0.114748,-0.033777999999999996,-0.037160000000000006,-0.023622,,,,,,,,,,,,,,,,,,,,,,,,,,,,,,,,,,,0.0,0.0,32.0,0.299831,1.0,0.0,,,,,,,,,,,,,,,,,,,,,,,,,
32391,1645492532.408936,123.0,0.0,3767.179443,4576.922852000001,4210.256348,4138.461426,4205.128418,16243.0,4.0,82.0,,,,0.0,4.0,1.0,0.0,4.0,4.0,41.666668,,,,,,,,,,,,,,,,,,,,,,,,,,,,,,,,,,,,,,,,,,,,,,,,,,,,,,,,,,,,,,,,,,,,,,,,,,,,,,,,,,,,
32392,1645492532.41675,124.0,0.0,3830.7692869999996,4520.0,4254.358886999999,4171.282227000001,4289.743652,450.0,4.0,82.0,,,,0.0,4.0,1.0,0.0,4.0,4.0,41.666668,,,,,,,,62.0,0.0,0.579886,-0.174316,0.643311,0.46850600000000003,0.921889,-0.409674,-0.109865,-0.033818,-0.037301999999999995,-0.020087999999999998,,,,,,,,,,,,,,,,,,,,,,,,,,,,,,,,,,,,,,,,,,,,,,,,,,,,,,,,,,,,,,,,,
32393,1645492532.424465,125.0,0.0,3822.5642090000006,4501.538574,4222.563965,4175.384765999999,4286.153809,450.0,4.0,82.0,,,,0.0,4.0,0.0,2.0,4.0,4.0,50.0,,,,,,,,,,,,,,,,,,,,,,,,,,,,,,,,,,,,,,,,,,,,,,,,,,,,,,,,,,,,,,,,,,,,,,,,,,,,,,,,,,,,
32394,1645492532.4322789,126.0,0.0,3772.820557,4561.025879,4190.769043,4148.717772999999,4227.692383,450.0,4.0,82.0,,,,0.0,4.0,0.0,2.0,4.0,4.0,50.0,,,,,,,,63.0,0.0,0.579886,-0.174316,0.643311,0.46850600000000003,0.9282370000000001,-0.409186,-0.09765800000000001,-0.033805,-0.037233999999999996,-0.023206,1.0,0.0,0.0,,,,,,,,,,,,,,,,,,,,,,,,,,,,,,,,0.0,0.0,32.0,0.31203400000000003,1.0,0.0,3223.38623,272.238861,173.886414,31.082493,10.523439999999999,2014.2915039999998,199.992081,34.870487,23.528442000000002,9.578584,10.720558,25.818779,28.902134000000004,8.543044,5.491148,33.74279,38.858402000000005,54.750857999999994,18.529457,10.011019000000001,462.20675700000004,64.1791,63.497645999999996,15.458581,12.531281
32395,1645492532.440094,127.0,0.0,3760.0,4567.692383,4207.179688,4158.974121,4218.974121,240.0,4.0,82.0,,,,0.0,4.0,0.0,2.0,4.0,4.0,50.0,,,,,,,,,,,,,,,,,,,,,,,,,,,,,,,,,,,,,,,,,,,,,,,,,,,,,,,,,,,,,,,,,,,,,,,,,,,,,,,,,,,,
32396,1645492532.447908,0.0,0.0,3759.487061,4524.102539,4212.820313,4156.922852000001,4215.897461,450.0,4.0,82.0,,,,0.0,4.0,0.0,2.0,4.0,4.0,50.0,,,,,,,,0.0,0.0,0.5801569999999999,-0.174316,0.643066,0.46850600000000003,0.922377,-0.398444,-0.11914200000000001,-0.033892,-0.037221,-0.019762000000000002,,,,,,,,,,,,,,,,,,,,,,,,,,,,,,,,,,,,,,,,,,,,,,,,,,,,,,,,,,,,,,,,,
32397,1645492532.455722,1.0,0.0,3788.205078,4541.538574,4220.512695,4171.794922,4226.153809,450.0,4.0,82.0,,,,0.0,4.0,0.0,2.0,4.0,4.0,50.0,,,,,,,,,,,,,,,,,,,,,,,,,,,,,,,,,,,,,,,,,,,,,,,,,,,,,,,,,,,,,,,,,,,,,,,,,,,,,,,,,,,,
32398,1645492532.463537,2.0,0.0,3854.358887,4607.692383,4255.384765999999,4242.05127,4290.256348,16127.0,4.0,82.0,,,,0.0,4.0,0.0,2.0,4.0,4.0,50.0,,,,,,,,1.0,0.0,0.5801569999999999,-0.174316,0.643066,0.46850600000000003,0.9155409999999999,-0.398444,-0.118654,-0.033872,-0.03721,-0.022864,,,,,,,,,,,,,,,,,,,,,,,,,,,,,,,,,,,0.0,0.0,32.0,0.31203400000000003,1.0,0.0,,,,,,,,,,,,,,,,,,,,,,,,,
32399,1645492532.471351,3.0,0.0,3920.512939,4646.666504,4298.461426,4290.769043,4370.769043,450.0,4.0,82.0,,,,0.0,4.0,0.0,2.0,4.0,4.0,50.0,,,,,,,,,,,,,,,,,,,,,,,,,,,,,,,,,,,,,,,,,,,,,,,,,,,,,,,,,,,,,,,,,,,,,,,,,,,,,,,,,,,,
32400,1645492532.479166,4.0,0.0,3896.923096,4624.615234000001,4276.922852000001,4229.743652,4336.922852000001,5.0,4.0,82.0,,,,0.0,4.0,0.0,2.0,4.0,4.0,50.0,,,,,,,,2.0,0.0,0.5801569999999999,-0.174316,0.643066,0.46850600000000003,0.9052870000000001,-0.408209,-0.113771,-0.033854,-0.037150999999999997,-0.025705000000000002,,,,,,,,,,,,,,,,,,,,,,,,,,,,,,,,,,,,,,,,,,,,,,,,,,,,,,,,,,,,,,,,,
32401,1645492532.48698,5.0,0.0,3791.794922,4560.0,4195.897461,4136.410156,4212.820313,450.0,4.0,82.0,,,,0.0,4.0,0.0,2.0,4.0,4.0,50.0,,,,,,,,,,,,,,,,,,,,,,,,,,,,,,,,,,,,,,,,,,,,,,,,,,,,,,,,,,,,,,,,,,,,,,,,,,,,,,,,,,,,
32402,1645492532.494794,6.0,0.0,3763.5898439999996,4549.230957,4182.563965,4132.307617,4195.384765999999,178.0,4.0,82.0,,,,0.0,4.0,0.0,2.0,4.0,4.0,50.0,,,,,,,,3.0,0.0,0.5801569999999999,-0.174316,0.643066,0.46850600000000003,0.9160299999999999,-0.395514,-0.123537,-0.033691000000000006,-0.037147,-0.022109,,,,,,,,,,,,,,,,,,,,,,,,,,,,,,,,,,,0.0,0.0,32.0,0.31203400000000003,1.0,0.0,,,,,,,,,,,,,,,,,,,,,,,,,
32403,1645492532.5025089,7.0,0.0,3862.0512700000004,4592.820313,4246.153809,4201.538574,4296.410156,450.0,4.0,82.0,,,,0.0,4.0,0.0,2.0,4.0,4.0,50.0,,,,,,,,,,,,,,,,,,,,,,,,,,,,,,,,,,,,,,,,,,,,,,,,,,,,,,,,,,,,,,,,,,,,,,,,,,,,,,,,,,,,
32404,1645492532.510323,8.0,0.0,3958.974365,4589.743652,4306.666504,4269.743652,4380.0,450.0,4.0,82.0,,,,0.0,4.0,0.0,2.0,4.0,4.0,50.0,,,,,,,,4.0,0.0,0.58023,-0.174072,0.643066,0.46850600000000003,0.9160299999999999,-0.401862,-0.127443,-0.033642,-0.03729,-0.018872999999999997,,,,,,,,,,,,,,,,,,,,,,,,,,,,,,,,,,,,,,,,,,,,,,,,,,,,,,,,,,,,,,,,,
32405,1645492532.5181382,9.0,0.0,3949.743652,4572.820313,4304.615234000001,4288.717772999999,4389.230957,16134.0,4.0,82.0,,,,0.0,4.0,0.0,2.0,4.0,4.0,50.0,,,,,,,,,,,,,,,,,,,,,,,,,,,,,,,,,,,,,,,,,,,,,,,,,,,,,,,,,,,,,,,,,,,,,,,,,,,,,,,,,,,,
32406,1645492532.5259519,10.0,0.0,3916.923096,4604.615234000001,4280.0,4288.205078,4381.025879,450.0,4.0,82.0,,,,0.0,4.0,0.0,2.0,4.0,4.0,50.0,,,,,,,,5.0,0.0,0.579959,-0.174072,0.643311,0.46850600000000003,0.909682,-0.40528000000000003,-0.11133,-0.03355,-0.037272,-0.022112,,,,,,,,,,,,,,,,,,,,,,,,,,,,,,,,,,,0.0,0.0,32.0,0.31203400000000003,1.0,0.0,,,,,,,,,,,,,,,,,,,,,,,,,
32407,1645492532.533767,11.0,0.0,3922.0512700000004,4617.94873,4258.974121,4255.897461,4356.410156,16201.0,4.0,82.0,,,,0.0,4.0,0.0,2.0,4.0,4.0,50.0,,,,,,,,,,,,,,,,,,,,,,,,,,,,,,,,,,,,,,,,,,,,,,,,,,,,,,,,,,,,,,,,,,,,,,,,,,,,,,,,,,,,
32408,1645492532.5415812,12.0,0.0,3887.6923829999996,4569.743652,4226.153809,4162.05127,4310.256348,450.0,4.0,82.0,,,,0.0,4.0,0.0,2.0,4.0,4.0,50.0,,,,,,,,6.0,0.0,0.580032,-0.173828,0.643311,0.46850600000000003,0.918959,-0.390631,-0.133303,-0.033613,-0.037207,-0.025126,,,,,,,,,,,,,,,,,,,,,,,,,,,,,,,,,,,,,,,,,,,,,,,,,,,,,,,,,,,,,,,,,
32409,1645492532.5493948,13.0,0.0,3812.3076170000004,4536.410156,4199.487305,4123.077147999999,4274.358886999999,450.0,4.0,82.0,,,,0.0,4.0,0.0,2.0,4.0,4.0,50.0,,,,,,,,,,,,,,,,,,,,,,,,,,,,,,,,,,,,,,,,,,,,,,,,,,,,,,,,,,,,,,,,,,,,,,,,,,,,,,,,,,,,
32410,1645492532.55721,14.0,0.0,3818.461426,4554.871582,4213.846191,4182.563965,4259.487305,450.0,4.0,82.0,,,,0.0,4.0,0.0,2.0,4.0,4.0,50.0,,,,,,,,7.0,0.0,0.580032,-0.173828,0.643311,0.46850600000000003,0.902358,-0.400885,-0.101564,-0.033816000000000006,-0.037246,-0.027788999999999998,1.0,0.0,0.0,,,,,,,,,,,,,,,,,,,,,,,,,,,,,,,,0.0,0.0,32.0,0.249102,1.0,0.0,6709.599121,426.4748230000001,299.188171,45.66449,13.034127999999999,4095.9887700000004,387.41693100000003,57.815411,28.853448999999998,11.516879,8.951049000000001,26.729623999999998,28.893087,9.802752,5.837013,28.533116999999997,38.548846999999995,55.67033000000001,21.341051,10.957925999999999,945.0654300000001,82.248039,65.820198,18.056339,15.576754999999999
32411,1645492532.5650241,15.0,0.0,3905.1281740000004,4591.282227000001,4264.102539,4231.282227000001,4312.820313,16201.0,4.0,82.0,,,,0.0,4.0,0.0,2.0,4.0,4.0,50.0,,,,,,,,,,,,,,,,,,,,,,,,,,,,,,,,,,,,,,,,,,,,,,,,,,,,,,,,,,,,,,,,,,,,,,,,,,,,,,,,,,,,
32412,1645492532.5727391,16.0,0.0,3921.538574,4592.820313,4260.0,4213.846191,4354.358886999999,0.0,4.0,82.0,,,,0.0,4.0,0.0,2.0,4.0,4.0,50.0,,,,,,,,8.0,0.0,0.580179,-0.173584,0.643066,0.46875,0.920424,-0.39453699999999997,-0.120119,-0.033804,-0.037281,-0.023887000000000002,,,,,,,,,,,,,,,,,,,,,,,,,,,,,,,,,,,,,,,,,,,,,,,,,,,,,,,,,,,,,,,,,
32413,1645492532.5805528,17.0,0.0,3844.102539,4543.589844,4193.846191,4150.769043,4280.0,0.0,4.0,82.0,,,,0.0,4.0,0.0,2.0,4.0,4.0,50.0,,,,,,,,,,,,,,,,,,,,,,,,,,,,,,,,,,,,,,,,,,,,,,,,,,,,,,,,,,,,,,,,,,,,,,,,,,,,,,,,,,,,
32414,1645492532.588368,18.0,0.0,3758.461426,4510.769043,4147.692383,4051.281982,4172.820313,0.0,4.0,82.0,,,,0.0,4.0,0.0,2.0,4.0,4.0,50.0,,,,,,,,9.0,0.0,0.580179,-0.173584,0.643066,0.46875,0.9052870000000001,-0.404791,-0.122072,-0.033841,-0.037215,-0.026723,,,,,,,,,,,,,,,,,,,,,,,,,,,,,,,,,,,10.0,0.0,32.0,0.249102,1.0,0.0,,,,,,,,,,,,,,,,,,,,,,,,,
32415,1645492532.596182,19.0,0.0,3757.4357909999994,4498.461426,4155.897461,4027.179443,4171.282227000001,0.0,4.0,82.0,,,,0.0,4.0,0.0,2.0,4.0,4.0,50.0,,,,,,,,,,,,,,,,,,,,,,,,,,,,,,,,,,,,,,,,,,,,,,,,,,,,,,,,,,,,,,,,,,,,,,,,,,,,,,,,,,,,
32416,1645492532.603996,20.0,0.0,3834.358887,4462.563965,4196.410156,4126.153809,4251.282227000001,0.0,4.0,82.0,,,,0.0,4.0,0.0,2.0,4.0,4.0,50.0,,,,,,,,10.0,0.0,0.580055,-0.17334000000000002,0.643066,0.46899399999999997,0.9282370000000001,-0.408209,-0.124025,-0.033777,-0.037205,-0.029129000000000002,,,,,,,,,,,,,,,,,,,,,,,,,,,,,,,,,,,,,,,,,,,,,,,,,,,,,,,,,,,,,,,,,
32417,1645492532.611811,21.0,0.0,3930.256348,4475.897461,4264.102539,4231.794922,4332.307617,0.0,4.0,82.0,,,,0.0,4.0,0.0,2.0,4.0,4.0,50.0,,,,,,,,,,,,,,,,,,,,,,,,,,,,,,,,,,,,,,,,,,,,,,,,,,,,,,,,,,,,,,,,,,,,,,,,,,,,,,,,,,,,
32418,1645492532.619625,22.0,0.0,4001.538574,4522.05127,4323.077147999999,4287.179688,4409.743652,0.0,4.0,82.0,,,,0.0,4.0,0.0,2.0,4.0,4.0,50.0,,,,,,,,11.0,0.0,0.580128,-0.173096,0.643066,0.46899399999999997,0.921889,-0.412116,-0.12109600000000001,-0.033769,-0.037342,-0.025141999999999998,,,,,,,,,,,,,,,,,,,,,,,,,,,,,,,,,,,10.0,0.0,32.0,0.249102,1.0,0.0,,,,,,,,,,,,,,,,,,,,,,,,,
32419,1645492532.62744,23.0,0.0,3960.512939,4478.461426,4265.641113000001,4252.820313,4376.922852000001,0.0,4.0,82.0,,,,0.0,4.0,0.0,2.0,4.0,4.0,50.0,,,,,,,,,,,,,,,,,,,,,,,,,,,,,,,,,,,,,,,,,,,,,,,,,,,,,,,,,,,,,,,,,,,,,,,,,,,,,,,,,,,,
32420,1645492532.635254,24.0,0.0,3817.9487299999996,4401.025879,4140.0,4102.563965,4209.743652,0.0,4.0,82.0,,,,0.0,4.0,0.0,2.0,4.0,4.0,50.0,,,,,,,,12.0,0.0,0.580128,-0.173096,0.643066,0.46899399999999997,0.903334,-0.40528000000000003,-0.119631,-0.03381,-0.037367000000000004,-0.021553,,,,,,,,,,,,,,,,,,,,,,,,,,,,,,,,,,,,,,,,,,,,,,,,,,,,,,,,,,,,,,,,,
32421,1645492532.643068,25.0,0.0,3709.2307130000004,4407.692383,4096.410156,3978.461426,4104.615234000001,0.0,4.0,82.0,,,,0.0,4.0,0.0,2.0,4.0,4.0,50.0,,,,,,,,,,,,,,,,,,,,,,,,,,,,,,,,,,,,,,,,,,,,,,,,,,,,,,,,,,,,,,,,,,,,,,,,,,,,,,,,,,,,
32422,1645492532.650783,26.0,0.0,3767.6923829999996,4435.897461,4163.077147999999,4062.5642090000006,4193.333496,0.0,4.0,82.0,,,,0.0,4.0,0.0,2.0,4.0,4.0,50.0,,,,,,,,13.0,0.0,0.580055,-0.17334000000000002,0.643066,0.46899399999999997,0.9282370000000001,-0.408209,-0.124025,-0.033749,-0.037342,-0.024475999999999998,,,,,,,,,,,,,,,,,,,,,,,,,,,,,,,,,,,10.0,0.0,32.0,0.249102,1.0,0.0,,,,,,,,,,,,,,,,,,,,,,,,,
32423,1645492532.658597,27.0,0.0,3862.5642090000006,4408.205078,4210.256348,4194.358886999999,4284.102539,0.0,4.0,82.0,,,,0.0,4.0,0.0,2.0,4.0,4.0,50.0,,,,,,,,,,,,,,,,,,,,,,,,,,,,,,,,,,,,,,,,,,,,,,,,,,,,,,,,,,,,,,,,,,,,,,,,,,,,,,,,,,,,
32424,1645492532.6664119,28.0,0.0,3843.5898439999996,4381.025879,4178.974121,4136.410156,4222.05127,0.0,4.0,82.0,,,,0.0,4.0,0.0,2.0,4.0,4.0,50.0,,,,,,,,14.0,0.0,0.5802,-0.172852,0.643066,0.46899399999999997,0.9150530000000001,-0.40235,-0.106447,-0.033744,-0.037221,-0.020954,,,,,,,,,,,,,,,,,,,,,,,,,,,,,,,,,,,,,,,,,,,,,,,,,,,,,,,,,,,,,,,,,
32425,1645492532.674226,29.0,0.0,3883.5898439999996,4402.05127,4208.717772999999,4093.8461909999996,4247.692383,0.0,4.0,82.0,,,,0.0,4.0,0.0,2.0,4.0,4.0,50.0,,,,,,,,,,,,,,,,,,,,,,,,,,,,,,,,,,,,,,,,,,,,,,,,,,,,,,,,,,,,,,,,,,,,,,,,,,,,,,,,,,,,
32426,1645492532.682041,30.0,0.0,3991.281982,4435.897461,4266.153809,4208.717772999999,4372.820313,0.0,4.0,82.0,,,,0.0,4.0,0.0,2.0,4.0,4.0,50.0,0.972656,0.0,0.0,0.0,0.0,1.0,0.0,15.0,0.0,0.5802729999999999,-0.17260699999999998,0.643066,0.46899399999999997,0.9150530000000001,-0.410163,-0.113771,-0.033787,-0.037259,-0.023888,1.0,0.0,0.0,,,,,,,,,,,,,,,,,,,,,,,,,,,,,,,,10.0,0.0,32.0,0.10641500000000001,1.0,0.0,10998.331055,575.8000490000001,448.37963899999994,60.551331000000005,15.92867,6808.640137,622.193115,91.837257,35.678898,14.005463,8.743374000000001,25.898107999999997,27.153854,10.6131,6.2854779999999995,26.784997999999998,37.716026,53.367916,23.793339000000003,11.815253,1562.520752,103.559967,66.25945300000001,19.900167,18.910183
32427,1645492532.689855,31.0,0.0,3954.358887,4429.230957,4217.436035,4212.820313,4337.94873,0.0,4.0,82.0,,,,0.0,4.0,0.0,2.0,4.0,4.0,50.0,,,,,,,,,,,,,,,,,,,,,,,,,,,,,,,,,,,,,,,,,,,,,,,,,,,,,,,,,,,,,,,,,,,,,,,,,,,,,,,,,,,,
32428,1645492532.697669,32.0,0.0,3862.5642090000006,4404.102539,4166.666504,4089.743652,4252.307617,0.0,4.0,82.0,,,,0.0,4.0,0.0,2.0,4.0,4.0,50.0,,,,,,,,16.0,0.0,0.5802729999999999,-0.17260699999999998,0.643066,0.46899399999999997,0.921401,-0.406256,-0.11572400000000001,-0.033875,-0.03739,-0.026626999999999998,,,,,,,,,,,,,,,,,,,,,,,,,,,,,,,,,,,,,,,,,,,,,,,,,,,,,,,,,,,,,,,,,
32429,1645492532.705484,33.0,0.0,3895.897461,4405.641113000001,4194.358886999999,4090.256348,4287.179688,0.0,4.0,82.0,,,,0.0,4.0,0.0,2.0,4.0,4.0,50.0,,,,,,,,,,,,,,,,,,,,,,,,,,,,,,,,,,,,,,,,,,,,,,,,,,,,,,,,,,,,,,,,,,,,,,,,,,,,,,,,,,,,
32430,1645492532.713198,34.0,0.0,3945.641113,4413.846191,4215.897461,4165.128418,4322.05127,0.0,4.0,82.0,,,,0.0,4.0,0.0,2.0,4.0,4.0,50.0,,,,,,,,17.0,0.0,0.5804699999999999,-0.17260699999999998,0.643066,0.46875,0.921889,-0.401862,-0.11718900000000002,-0.033955,-0.037411,-0.022938999999999998,,,,,,,,,,,,,,,,,,,,,,,,,,,,,,,,,,,10.0,0.0,32.0,0.10641500000000001,1.0,0.0,,,,,,,,,,,,,,,,,,,,,,,,,
32431,1645492532.721013,35.0,0.0,3950.7692869999996,4397.436035,4226.153809,4191.794922,4327.692383,0.0,4.0,82.0,,,,0.0,4.0,0.0,2.0,4.0,4.0,50.0,,,,,,,,,,,,,,,,,,,,,,,,,,,,,,,,,,,,,,,,,,,,,,,,,,,,,,,,,,,,,,,,,,,,,,,,,,,,,,,,,,,,
32432,1645492532.728827,36.0,0.0,3943.076904,4373.846191,4222.563965,4173.846191,4342.05127,0.0,4.0,82.0,,,,0.0,4.0,0.0,2.0,4.0,4.0,50.0,,,,,,,,18.0,0.0,0.5804699999999999,-0.17260699999999998,0.643066,0.46875,0.918959,-0.406256,-0.12549000000000002,-0.033782,-0.037479000000000005,-0.025869,,,,,,,,,,,,,,,,,,,,,,,,,,,,,,,,,,,,,,,,,,,,,,,,,,,,,,,,,,,,,,,,,
32433,1645492532.736641,37.0,0.0,3921.025635,4381.025879,4198.974121,4144.102539,4311.282227000001,0.0,4.0,82.0,,,,0.0,4.0,0.0,2.0,4.0,4.0,50.0,,,,,,,,,,,,,,,,,,,,,,,,,,,,,,,,,,,,,,,,,,,,,,,,,,,,,,,,,,,,,,,,,,,,,,,,,,,,,,,,,,,,
32434,1645492532.744456,38.0,0.0,3935.384521,4393.846191,4215.897461,4157.436035,4277.94873,0.0,4.0,82.0,,,,0.0,4.0,0.0,2.0,4.0,4.0,50.0,,,,,,,,19.0,0.0,0.5804699999999999,-0.17260699999999998,0.643066,0.46875,0.916518,-0.407721,-0.1084,-0.033822000000000005,-0.037538999999999996,-0.028506999999999998,,,,,,,,,,,,,,,,,,,,,,,,,,,,,,,,,,,0.0,0.0,32.0,0.10641500000000001,1.0,0.0,,,,,,,,,,,,,,,,,,,,,,,,,
32435,1645492532.75227,39.0,0.0,3936.4101560000004,4373.333496,4217.436035,4158.461426,4269.230957,0.0,4.0,82.0,,,,0.0,4.0,0.0,2.0,4.0,4.0,50.0,,,,,,,,,,,,,,,,,,,,,,,,,,,,,,,,,,,,,,,,,,,,,,,,,,,,,,,,,,,,,,,,,,,,,,,,,,,,,,,,,,,,
32436,1645492532.7600849,40.0,0.0,3897.4357909999994,4346.153809,4180.512695,4107.179688,4253.333496,0.0,4.0,82.0,,,,0.0,4.0,0.0,2.0,4.0,4.0,50.0,,,,,,,,20.0,0.0,0.5804699999999999,-0.17260699999999998,0.643066,0.46875,0.9267719999999999,-0.401862,-0.12549000000000002,-0.033955,-0.037545,-0.024533000000000003,,,,,,,,,,,,,,,,,,,,,,,,,,,,,,,,,,,,,,,,,,,,,,,,,,,,,,,,,,,,,,,,,
32437,1645492532.767899,41.0,0.0,3940.0,4336.922852000001,4198.461426,4131.794922,4291.282227000001,0.0,4.0,82.0,,,,0.0,4.0,0.0,2.0,4.0,4.0,50.0,,,,,,,,,,,,,,,,,,,,,,,,,,,,,,,,,,,,,,,,,,,,,,,,,,,,,,,,,,,,,,,,,,,,,,,,,,,,,,,,,,,,
32438,1645492532.775713,42.0,0.0,3975.384521,4350.769043,4215.897461,4181.025879,4310.769043,0.0,4.0,82.0,,,,0.0,4.0,0.0,2.0,4.0,4.0,50.0,,,,,,,,21.0,0.0,0.580398,-0.172852,0.643066,0.46875,0.925307,-0.396002,-0.130373,-0.034075,-0.037599,-0.027207,,,,,,,,,,,,,,,,,,,,,,,,,,,,,,,,,,,0.0,0.0,32.0,0.10641500000000001,1.0,0.0,,,,,,,,,,,,,,,,,,,,,,,,,
32439,1645492532.7835279,43.0,0.0,3898.461426,4357.436035,4169.230957,4095.384521,4247.692383,0.0,4.0,82.0,,,,0.0,4.0,0.0,2.0,4.0,4.0,50.0,,,,,,,,,,,,,,,,,,,,,,,,,,,,,,,,,,,,,,,,,,,,,,,,,,,,,,,,,,,,,,,,,,,,,,,,,,,,,,,,,,,,
32440,1645492532.791242,44.0,0.0,3897.4357909999994,4318.461426,4165.128418,4046.6667479999996,4261.538574,0.0,4.0,82.0,,,,0.0,4.0,0.0,2.0,4.0,4.0,50.0,,,,,,,,22.0,0.0,0.580398,-0.172852,0.643066,0.46875,0.9199360000000001,-0.409186,-0.11572400000000001,-0.034086,-0.037648,-0.029711,,,,,,,,,,,,,,,,,,,,,,,,,,,,,,,,,,,,,,,,,,,,,,,,,,,,,,,,,,,,,,,,,
32441,1645492532.799057,45.0,0.0,3968.718018,4293.846191,4200.0,4127.692383,4322.05127,0.0,4.0,82.0,,,,0.0,4.0,0.0,2.0,4.0,4.0,50.0,,,,,,,,,,,,,,,,,,,,,,,,,,,,,,,,,,,,,,,,,,,,,,,,,,,,,,,,,,,,,,,,,,,,,,,,,,,,,,,,,,,,
32442,1645492532.8068712,46.0,0.0,3965.1281740000004,4347.692383,4209.230957,4150.256348,4317.436035,0.0,4.0,82.0,,,,0.0,4.0,0.0,2.0,4.0,4.0,50.0,,,,,,,,23.0,0.0,0.580595,-0.172852,0.643066,0.46850600000000003,0.9091940000000001,-0.404303,-0.12451400000000001,-0.034047,-0.037741000000000004,-0.031867,1.0,0.0,0.0,,,,,,,,,,,,,,,,,,,,,,,,,,,,,,,,10.0,0.0,1.0,0.0,512.0,1.0,14936.796875,675.724121,580.209717,71.75412,18.529789,9470.405273,841.740356,131.360977,42.25333,16.414406,9.80074,23.730705,23.92919,10.907122,6.799299,27.799082000000002,36.716652,47.927059,25.799189000000002,12.477238,2142.713135,123.281075,64.380928,20.984629,21.740801
32443,1645492532.814586,47.0,0.0,3980.0,4370.256348,4225.641113000001,4155.897461,4340.512695,0.0,4.0,82.0,,,,0.0,4.0,0.0,2.0,4.0,4.0,50.0,,,,,,,,,,,,,,,,,,,,,,,,,,,,,,,,,,,,,,,,,,,,,,,,,,,,,,,,,,,,,,,,,,,,,,,,,,,,,,,,,,,,
32444,1645492532.8224,48.0,0.0,4013.3332520000004,4307.179688,4218.461426,4192.820313,4360.0,0.0,4.0,82.0,,,,0.0,4.0,0.0,2.0,4.0,4.0,50.0,,,,,,,,24.0,0.0,0.580448,-0.173096,0.643311,0.468262,0.923842,-0.409674,-0.12060699999999999,-0.03406,-0.037677999999999996,-0.033856,,,,,,,,,,,,,,,,,,,,,,,,,,,,,,,,,,,,,,,,,,,,,,,,,,,,,,,,,,,,,,,,,
32445,1645492532.830115,49.0,0.0,3981.025635,4313.846191,4189.230957,4161.025879,4307.692383,0.0,4.0,82.0,,,,0.0,4.0,0.0,2.0,4.0,4.0,50.0,,,,,,,,,,,,,,,,,,,,,,,,,,,,,,,,,,,,,,,,,,,,,,,,,,,,,,,,,,,,,,,,,,,,,,,,,,,,,,,,,,,,
32446,1645492532.8378289,50.0,0.0,3990.256348,4393.333496,4207.692383,4135.897461,4312.820313,0.0,4.0,82.0,,,,0.0,4.0,0.0,2.0,4.0,4.0,50.0,,,,,,,,25.0,0.0,0.580178,-0.173096,0.643555,0.468262,0.925307,-0.398444,-0.11718900000000002,-0.034023000000000005,-0.037620999999999995,-0.035598000000000005,,,,,,,,,,,,,,,,,,,,,,,,,,,,,,,,,,,10.0,0.0,1.0,0.0,512.0,1.0,,,,,,,,,,,,,,,,,,,,,,,,,
32447,1645492532.845644,51.0,0.0,4060.0,4377.436035,4242.563965,4185.641113000001,4376.410156,0.0,4.0,82.0,,,,0.0,4.0,0.0,2.0,4.0,4.0,50.0,,,,,,,,,,,,,,,,,,,,,,,,,,,,,,,,,,,,,,,,,,,,,,,,,,,,,,,,,,,,,,,,,,,,,,,,,,,,,,,,,,,,
32448,1645492532.853458,52.0,0.0,4032.820557,4328.205078,4221.025879,4190.256348,4336.922852000001,0.0,4.0,82.0,,,,0.0,4.0,0.0,2.0,4.0,4.0,50.0,,,,,,,,26.0,0.0,0.580105,-0.17334000000000002,0.643555,0.468262,0.921401,-0.40283800000000003,-0.119631,-0.034039,-0.037667,-0.030914999999999998,,,,,,,,,,,,,,,,,,,,,,,,,,,,,,,,,,,,,,,,,,,,,,,,,,,,,,,,,,,,,,,,,
32449,1645492532.861272,53.0,0.0,3969.743652,4362.563965,4188.205078,4137.94873,4280.512695,0.0,4.0,82.0,,,,0.0,4.0,0.0,2.0,4.0,4.0,50.0,,,,,,,,,,,,,,,,,,,,,,,,,,,,,,,,,,,,,,,,,,,,,,,,,,,,,,,,,,,,,,,,,,,,,,,,,,,,,,,,,,,,
32450,1645492532.869087,54.0,0.0,3981.538574,4381.025879,4177.94873,4105.641113000001,4305.128418,0.0,4.0,82.0,,,,0.0,4.0,0.0,2.0,4.0,4.0,50.0,,,,,,,,27.0,0.0,0.580105,-0.17334000000000002,0.643555,0.468262,0.920424,-0.400397,-0.11425999999999999,-0.034102,-0.037661,-0.03295,,,,,,,,,,,,,,,,,,,,,,,,,,,,,,,,,,,10.0,0.0,1.0,0.0,512.0,1.0,,,,,,,,,,,,,,,,,,,,,,,,,
32451,1645492532.876901,55.0,0.0,3961.538574,4318.974121,4141.538574,4051.281982,4252.307617,0.0,4.0,82.0,,,,0.0,4.0,0.0,2.0,4.0,4.0,50.0,,,,,,,,,,,,,,,,,,,,,,,,,,,,,,,,,,,,,,,,,,,,,,,,,,,,,,,,,,,,,,,,,,,,,,,,,,,,,,,,,,,,
32452,1645492532.884716,56.0,0.0,3883.5898439999996,4278.461426,4102.05127,3989.743652,4144.615234000001,0.0,4.0,82.0,,,,0.0,4.0,0.0,2.0,4.0,4.0,50.0,,,,,,,,28.0,0.0,0.579637,-0.17334000000000002,0.643799,0.46850600000000003,0.921889,-0.40283800000000003,-0.106447,-0.034012,-0.037605,-0.028482999999999998,,,,,,,,,,,,,,,,,,,,,,,,,,,,,,,,,,,,,,,,,,,,,,,,,,,,,,,,,,,,,,,,,
32453,1645492532.89253,57.0,0.0,3896.923096,4315.897461,4135.897461,4015.384521,4187.692383,0.0,4.0,82.0,,,,0.0,4.0,0.0,2.0,4.0,4.0,50.0,,,,,,,,,,,,,,,,,,,,,,,,,,,,,,,,,,,,,,,,,,,,,,,,,,,,,,,,,,,,,,,,,,,,,,,,,,,,,,,,,,,,
32454,1645492532.900245,58.0,0.0,4044.102539,4388.205078,4232.307617,4133.846191,4345.128418,0.0,4.0,82.0,,,,0.0,4.0,0.0,2.0,4.0,4.0,50.0,,,,,,,,29.0,0.0,0.579637,-0.17334000000000002,0.643799,0.46850600000000003,0.925307,-0.400885,-0.113283,-0.03398,-0.037507,-0.030811,,,,,,,,,,,,,,,,,,,,,,,,,,,,,,,,,,,10.0,0.0,1.0,0.0,512.0,1.0,,,,,,,,,,,,,,,,,,,,,,,,,
32455,1645492532.908059,59.0,0.0,4142.05127,4457.94873,4280.0,4237.436035,4412.820313,0.0,4.0,82.0,,,,0.0,4.0,0.0,2.0,4.0,4.0,50.0,,,,,,,,,,,,,,,,,,,,,,,,,,,,,,,,,,,,,,,,,,,,,,,,,,,,,,,,,,,,,,,,,,,,,,,,,,,,,,,,,,,,
32456,1645492532.915873,60.0,0.0,4069.2307130000004,4471.794922,4224.102539,4195.384765999999,4357.436035,0.0,4.0,82.0,,,,0.0,4.0,0.0,2.0,4.0,4.0,50.0,,,,,,,,30.0,0.0,0.579637,-0.17334000000000002,0.643799,0.46850600000000003,0.9043110000000001,-0.41113900000000003,-0.12255999999999999,-0.034,-0.03737,-0.032906,,,,,,,,,,,,,,,,,,,,,,,,,,,,,,,,,,,,,,,,,,,,,,,,,,,,,,,,,,,,,,,,,
32457,1645492532.9236882,61.0,0.0,4002.5642090000006,4460.0,4184.615234000001,4127.179688,4331.282227000001,0.0,4.0,82.0,,,,0.0,4.0,0.0,2.0,4.0,4.0,50.0,,,,,,,,,,,,,,,,,,,,,,,,,,,,,,,,,,,,,,,,,,,,,,,,,,,,,,,,,,,,,,,,,,,,,,,,,,,,,,,,,,,,
32458,1645492532.9315019,62.0,0.0,4043.5898439999996,4512.307617,4203.589844,4157.94873,4340.512695,0.0,4.0,82.0,,,,0.0,4.0,0.0,2.0,4.0,4.0,50.0,,,,,,,,31.0,0.0,0.5797100000000001,-0.173096,0.643799,0.46850600000000003,0.9126120000000001,-0.410163,-0.107912,-0.033872,-0.037246,-0.034742,1.0,0.0,0.0,,,,,,,,,,,,,,,,,,,,,,,,,,,,,,,,0.0,0.0,1.0,0.0,512.0,1.0,17203.375,693.11261,651.457458,77.070686,20.192013,11217.933594,975.386658,166.0495,46.221367,18.006857,11.432559,20.997492,20.015669,11.279214999999999,7.303653,29.378290000000003,35.927071000000005,40.747669,28.380518,12.907592,2502.2346190000003,135.18649299999998,60.070499,22.445904000000002,23.373356
32459,1645492532.939317,63.0,0.0,4042.5642090000006,4603.077147999999,4196.922852000001,4156.410156,4294.871582,0.0,4.0,82.0,,,,0.0,4.0,0.0,2.0,4.0,4.0,50.0,,,,,,,,,,,,,,,,,,,,,,,,,,,,,,,,,,,,,,,,,,,,,,,,,,,,,,,,,,,,,,,,,,,,,,,,,,,,,,,,,,,,
32460,1645492532.9471312,64.0,0.0,4013.3332520000004,4665.128418,4191.794922,4139.487305,4291.282227000001,450.0,4.0,82.0,,,,0.0,4.0,0.0,2.0,4.0,4.0,50.0,,,,,,,,32.0,0.0,0.579637,-0.17334000000000002,0.643799,0.46850600000000003,0.925307,-0.400885,-0.113283,-0.033854,-0.037135,-0.030095999999999998,,,,,,,,,,,,,,,,,,,,,,,,,,,,,,,,,,,,,,,,,,,,,,,,,,,,,,,,,,,,,,,,,
32461,1645492532.9549448,65.0,0.0,4037.4357909999994,4671.794922,4200.512695,4164.102539,4330.769043,450.0,4.0,82.0,,,,0.0,4.0,0.0,2.0,4.0,4.0,50.0,,,,,,,,,,,,,,,,,,,,,,,,,,,,,,,,,,,,,,,,,,,,,,,,,,,,,,,,,,,,,,,,,,,,,,,,,,,,,,,,,,,,
32462,1645492532.96276,66.0,0.0,4018.461426,4635.384765999999,4162.05127,4117.94873,4262.05127,16185.0,4.0,82.0,,,,0.0,4.0,0.0,2.0,4.0,4.0,50.0,,,,,,,,33.0,0.0,0.5797100000000001,-0.173096,0.643799,0.46850600000000003,0.9126120000000001,-0.410163,-0.107912,-0.03374,-0.037035000000000005,-0.032213,,,,,,,,,,,,,,,,,,,,,,,,,,,,,,,,,,,0.0,0.0,1.0,0.0,512.0,1.0,,,,,,,,,,,,,,,,,,,,,,,,,
32463,1645492532.9705741,67.0,0.0,3961.538574,4606.153809,4129.743652,4041.025635,4180.512695,450.0,4.0,82.0,,,,0.0,4.0,0.0,2.0,4.0,4.0,50.0,,,,,,,,,,,,,,,,,,,,,,,,,,,,,,,,,,,,,,,,,,,,,,,,,,,,,,,,,,,,,,,,,,,,,,,,,,,,,,,,,,,,
32464,1645492532.9782891,68.0,0.0,3966.6667479999996,4635.384765999999,4161.025879,4067.179443,4231.282227000001,90.0,4.0,82.0,,,,0.0,4.0,1.0,2.0,4.0,4.0,58.33333199999999,,,,,,,,34.0,0.0,0.5797100000000001,-0.173096,0.643799,0.46850600000000003,0.921401,-0.41944,-0.11035299999999999,-0.033735,-0.036945,-0.027819999999999998,,,,,,,,,,,,,,,,,,,,,,,,,,,,,,,,,,,,,,,,,,,,,,,,,,,,,,,,,,,,,,,,,
32465,1645492532.9861028,69.0,0.0,4003.5898439999996,4680.0,4189.230957,4126.153809,4284.615234000001,450.0,4.0,82.0,,,,0.0,4.0,1.0,2.0,4.0,4.0,58.33333199999999,,,,,,,,,,,,,,,,,,,,,,,,,,,,,,,,,,,,,,,,,,,,,,,,,,,,,,,,,,,,,,,,,,,,,,,,,,,,,,,,,,,,
32466,1645492532.993818,70.0,0.0,4024.615479,4678.461426,4185.641113000001,4141.538574,4267.692383,325.0,4.0,82.0,,,,0.0,4.0,1.0,2.0,4.0,4.0,58.33333199999999,,,,,,,,35.0,0.0,0.579782,-0.172852,0.643799,0.46850600000000003,0.908217,-0.41260399999999997,-0.124025,-0.033731,-0.03701,-0.024013,,,,,,,,,,,,,,,,,,,,,,,,,,,,,,,,,,,0.0,0.0,1.0,0.0,512.0,1.0,,,,,,,,,,,,,,,,,,,,,,,,,
32467,1645492533.001632,71.0,0.0,4041.538574,4685.128418,4178.461426,4166.666504,4290.256348,450.0,4.0,82.0,,,,0.0,4.0,1.0,2.0,4.0,4.0,58.33333199999999,,,,,,,,,,,,,,,,,,,,,,,,,,,,,,,,,,,,,,,,,,,,,,,,,,,,,,,,,,,,,,,,,,,,,,,,,,,,,,,,,,,,
32468,1645492533.0094461,72.0,0.0,4070.7692869999996,4704.615234000001,4184.102539,4185.128418,4344.615234000001,450.0,4.0,82.0,,,,0.0,4.0,1.0,2.0,4.0,4.0,58.33333199999999,,,,,,,,36.0,0.0,0.580052,-0.17260699999999998,0.643799,0.468262,0.9111469999999999,-0.417487,-0.12109600000000001,-0.033629,-0.03702,-0.026836000000000002,,,,,,,,,,,,,,,,,,,,,,,,,,,,,,,,,,,,,,,,,,,,,,,,,,,,,,,,,,,,,,,,,
32469,1645492533.017261,73.0,0.0,4071.794922,4688.717772999999,4183.589844,4157.436035,4315.384765999999,16195.0,4.0,82.0,,,,0.0,4.0,1.0,2.0,4.0,4.0,58.33333199999999,,,,,,,,,,,,,,,,,,,,,,,,,,,,,,,,,,,,,,,,,,,,,,,,,,,,,,,,,,,,,,,,,,,,,,,,,,,,,,,,,,,,
32470,1645492533.025075,74.0,0.0,4044.102539,4692.820313,4178.974121,4143.077147999999,4245.128418,450.0,4.0,82.0,,,,0.0,4.0,1.0,2.0,4.0,4.0,58.33333199999999,,,,,,,,37.0,0.0,0.580052,-0.17260699999999998,0.643799,0.468262,0.9184709999999999,-0.39502600000000004,-0.11230599999999999,-0.033684,-0.037078,-0.02928,,,,,,,,,,,,,,,,,,,,,,,,,,,,,,,,,,,0.0,0.0,1.0,0.0,512.0,1.0,,,,,,,,,,,,,,,,,,,,,,,,,
32471,1645492533.03289,75.0,0.0,4064.615479,4738.461426,4191.282227000001,4160.512695,4273.333496,16187.0,4.0,82.0,,,,0.0,4.0,1.0,2.0,4.0,4.0,58.33333199999999,,,,,,,,,,,,,,,,,,,,,,,,,,,,,,,,,,,,,,,,,,,,,,,,,,,,,,,,,,,,,,,,,,,,,,,,,,,,,,,,,,,,
32472,1645492533.040704,76.0,0.0,4106.153809,4718.461426,4213.333496,4175.897461,4349.230957,450.0,4.0,82.0,,,,0.0,4.0,1.0,2.0,4.0,4.0,58.33333199999999,,,,,,,,38.0,0.0,0.580396,-0.17236300000000002,0.643555,0.468262,0.9126120000000001,-0.403326,-0.11914200000000001,-0.033734,-0.037081,-0.031576,,,,,,,,,,,,,,,,,,,,,,,,,,,,,,,,,,,,,,,,,,,,,,,,,,,,,,,,,,,,,,,,,
32473,1645492533.048518,77.0,0.0,4097.436035,4662.563965,4210.256348,4183.589844,4351.282227000001,450.0,4.0,82.0,,,,0.0,4.0,1.0,2.0,4.0,4.0,58.33333199999999,,,,,,,,,,,,,,,,,,,,,,,,,,,,,,,,,,,,,,,,,,,,,,,,,,,,,,,,,,,,,,,,,,,,,,,,,,,,,,,,,,,,
32474,1645492533.056333,78.0,0.0,4062.0512700000004,4685.128418,4174.871582,4163.077147999999,4293.333496,450.0,4.0,82.0,,,,0.0,4.0,1.0,2.0,4.0,4.0,58.33333199999999,,,,,,,,39.0,0.0,0.580396,-0.17236300000000002,0.643555,0.468262,0.917494,-0.395514,-0.11572400000000001,-0.033632,-0.037182,-0.027295999999999997,1.0,0.0,0.0,,,,,,,,,,,,,,,,,,,,,,,,,,,,,,,,0.0,0.0,1.0,0.0,512.0,1.0,17020.158203,620.8287349999999,636.316284,76.752434,20.562963,11443.605469,975.038757,185.13876299999998,45.832825,18.221315,12.937174,18.338509,16.437462,12.600648,7.692811,30.066763,35.241946999999996,33.828552,32.921406,13.176788,2507.867432,134.67704799999998,53.822083,25.783501,23.490206
32475,1645492533.064047,79.0,0.0,4028.718018,4694.871582,4131.794922,4080.0,4240.0,16187.0,4.0,82.0,,,,0.0,4.0,1.0,2.0,4.0,4.0,58.33333199999999,,,,,,,,,,,,,,,,,,,,,,,,,,,,,,,,,,,,,,,,,,,,,,,,,,,,,,,,,,,,,,,,,,,,,,,,,,,,,,,,,,,,
32476,1645492533.071862,80.0,0.0,4041.025635,4634.871582,4152.307617,4057.9487299999996,4264.102539,450.0,4.0,82.0,,,,0.0,4.0,1.0,2.0,4.0,4.0,58.33333199999999,,,,,,,,40.0,0.0,0.580468,-0.172119,0.643555,0.468262,0.9267719999999999,-0.41455699999999995,-0.125978,-0.033491,-0.037223,-0.029791,,,,,,,,,,,,,,,,,,,,,,,,,,,,,,,,,,,,,,,,,,,,,,,,,,,,,,,,,,,,,,,,,
32477,1645492533.079676,81.0,0.0,4120.512695,4625.641113000001,4227.692383,4193.846191,4351.282227000001,450.0,4.0,82.0,,,,0.0,4.0,1.0,2.0,4.0,4.0,58.33333199999999,,,,,,,,,,,,,,,,,,,,,,,,,,,,,,,,,,,,,,,,,,,,,,,,,,,,,,,,,,,,,,,,,,,,,,,,,,,,,,,,,,,,
32478,1645492533.087491,82.0,0.0,4153.846191,4661.025879,4241.025879,4271.794922,4378.461426,450.0,4.0,82.0,,,,0.0,4.0,1.0,2.0,4.0,4.0,58.33333199999999,,,,,,,,41.0,0.0,0.580541,-0.171875,0.643555,0.468262,0.925795,-0.40576799999999996,-0.12695499999999998,-0.03356,-0.03731,-0.025639999999999996,,,,,,,,,,,,,,,,,,,,,,,,,,,,,,,,,,,0.0,0.0,1.0,0.0,512.0,1.0,,,,,,,,,,,,,,,,,,,,,,,,,
32479,1645492533.095305,83.0,0.0,4094.358887,4649.230957,4194.871582,4161.538574,4329.230957,16187.0,4.0,82.0,,,,0.0,4.0,1.0,2.0,4.0,4.0,58.33333199999999,,,,,,,,,,,,,,,,,,,,,,,,,,,,,,,,,,,,,,,,,,,,,,,,,,,,,,,,,,,,,,,,,,,,,,,,,,,,,,,,,,,,
32480,1645492533.103119,84.0,0.0,4062.5642090000006,4616.922852000001,4181.538574,4102.563965,4300.512695,450.0,4.0,82.0,,,,0.0,4.0,1.0,2.0,4.0,4.0,58.33333199999999,,,,,,,,42.0,0.0,0.580344,-0.171875,0.643555,0.46850600000000003,0.901381,-0.407721,-0.124025,-0.033574,-0.03729,-0.028301,,,,,,,,,,,,,,,,,,,,,,,,,,,,,,,,,,,,,,,,,,,,,,,,,,,,,,,,,,,,,,,,,
32481,1645492533.110934,85.0,0.0,4084.102539,4618.974121,4193.846191,4176.410156,4310.256348,450.0,4.0,82.0,,,,0.0,4.0,1.0,2.0,4.0,4.0,58.33333199999999,,,,,,,,,,,,,,,,,,,,,,,,,,,,,,,,,,,,,,,,,,,,,,,,,,,,,,,,,,,,,,,,,,,,,,,,,,,,,,,,,,,,
32482,1645492533.118748,86.0,0.0,4107.692383,4631.282227000001,4203.589844,4200.512695,4312.820313,450.0,4.0,82.0,,,,0.0,4.0,1.0,2.0,4.0,4.0,58.33333199999999,,,,,,,,43.0,0.0,0.580344,-0.171875,0.643555,0.46850600000000003,0.922377,-0.406256,-0.12695499999999998,-0.033438999999999997,-0.03732,-0.030695,,,,,,,,,,,,,,,,,,,,,,,,,,,,,,,,,,,0.0,0.0,1.0,0.0,512.0,1.0,,,,,,,,,,,,,,,,,,,,,,,,,
32483,1645492533.126563,87.0,0.0,4130.256348,4629.230957,4211.794922,4167.179688,4310.769043,16187.0,4.0,82.0,,,,0.0,4.0,1.0,2.0,4.0,4.0,58.33333199999999,,,,,,,,,,,,,,,,,,,,,,,,,,,,,,,,,,,,,,,,,,,,,,,,,,,,,,,,,,,,,,,,,,,,,,,,,,,,,,,,,,,,
32484,1645492533.134377,88.0,0.0,4155.897461,4598.974121,4200.0,4194.358886999999,4336.922852000001,450.0,4.0,82.0,,,,0.0,4.0,1.0,2.0,4.0,4.0,58.33333199999999,,,,,,,,44.0,0.0,0.580146,-0.171875,0.643555,0.46875,0.921401,-0.399908,-0.123537,-0.033562,-0.037299,-0.0266,,,,,,,,,,,,,,,,,,,,,,,,,,,,,,,,,,,,,,,,,,,,,,,,,,,,,,,,,,,,,,,,,
32485,1645492533.142092,89.0,0.0,4161.025879,4556.922852000001,4185.641113000001,4215.384765999999,4341.025879,450.0,4.0,82.0,,,,0.0,4.0,1.0,2.0,4.0,4.0,58.33333199999999,,,,,,,,,,,,,,,,,,,,,,,,,,,,,,,,,,,,,,,,,,,,,,,,,,,,,,,,,,,,,,,,,,,,,,,,,,,,,,,,,,,,
32486,1645492533.1499062,90.0,0.0,4148.717772999999,4563.077147999999,4189.230957,4159.487305,4307.179688,450.0,4.0,82.0,,,,0.0,4.0,1.0,2.0,4.0,4.0,58.33333199999999,,,,,,,,45.0,0.0,0.579875,-0.171875,0.643799,0.46875,0.918959,-0.401862,-0.12549000000000002,-0.033477,-0.03728,-0.029116000000000003,,,,,,,,,,,,,,,,,,,,,,,,,,,,,,,,,,,0.0,0.0,1.0,0.0,512.0,1.0,,,,,,,,,,,,,,,,,,,,,,,,,
32487,1645492533.1577199,91.0,0.0,4160.0,4582.05127,4211.282227000001,4147.179688,4326.153809,16187.0,4.0,82.0,,,,0.0,4.0,1.0,2.0,4.0,4.0,58.33333199999999,,,,,,,,,,,,,,,,,,,,,,,,,,,,,,,,,,,,,,,,,,,,,,,,,,,,,,,,,,,,,,,,,,,,,,,,,,,,,,,,,,,,
32488,1645492533.165535,92.0,0.0,4175.384765999999,4562.563965,4208.717772999999,4190.769043,4374.358886999999,450.0,4.0,82.0,,,,0.0,4.0,1.0,2.0,4.0,4.0,58.33333199999999,,,,,,,,46.0,0.0,0.579803,-0.172119,0.643799,0.46875,0.906264,-0.400885,-0.118654,-0.033499,-0.037361,-0.031283,,,,,,,,,,,,,,,,,,,,,,,,,,,,,,,,,,,,,,,,,,,,,,,,,,,,,,,,,,,,,,,,,
32489,1645492533.1733491,93.0,0.0,4180.0,4574.358886999999,4199.487305,4213.333496,4375.897461,450.0,4.0,82.0,,,,0.0,4.0,1.0,2.0,4.0,4.0,58.33333199999999,,,,,,,,,,,,,,,,,,,,,,,,,,,,,,,,,,,,,,,,,,,,,,,,,,,,,,,,,,,,,,,,,,,,,,,,,,,,,,,,,,,,
32490,1645492533.181164,94.0,0.0,4189.743652,4620.0,4212.307617,4213.333496,4369.743652,450.0,4.0,82.0,,,,0.0,4.0,1.0,2.0,4.0,4.0,58.33333199999999,1.0,0.0,0.0,0.0,0.0,1.0,0.0,47.0,0.0,0.5796060000000001,-0.172119,0.643799,0.46899399999999997,0.9150530000000001,-0.389654,-0.099611,-0.033518,-0.037287,-0.027031,1.0,0.0,0.0,,,,,,,,,,,,,,,,,,,,,,,,,,,,,,,,0.0,0.0,1.0,0.0,512.0,1.0,14434.073241999999,482.609833,539.656677,72.785957,19.745922,10060.762695,839.4481810000001,181.576828,40.872409999999995,16.967772,13.745517999999999,16.209435,14.053528,15.375608999999999,7.871937,29.324184000000002,34.771481,29.083683,40.015495,13.40337,2161.103516,121.51228300000001,47.003597,31.681652000000003,22.304867
32491,1645492533.188978,95.0,0.0,4153.846191,4611.282227000001,4181.538574,4172.307617,4344.615234000001,16187.0,4.0,82.0,,,,0.0,4.0,1.0,2.0,4.0,4.0,58.33333199999999,,,,,,,,,,,,,,,,,,,,,,,,,,,,,,,,,,,,,,,,,,,,,,,,,,,,,,,,,,,,,,,,,,,,,,,,,,,,,,,,,,,,
32492,1645492533.196792,96.0,0.0,4105.128418,4583.589844,4150.256348,4118.461426,4297.94873,450.0,4.0,82.0,,,,0.0,4.0,1.0,2.0,4.0,4.0,58.33333199999999,,,,,,,,48.0,0.0,0.579136,-0.172119,0.644043,0.469238,0.9209129999999999,-0.38526,-0.118654,-0.033487,-0.037318000000000004,-0.029504000000000002,,,,,,,,,,,,,,,,,,,,,,,,,,,,,,,,,,,,,,,,,,,,,,,,,,,,,,,,,,,,,,,,,
32493,1645492533.204607,97.0,0.0,4146.666504,4609.230957,4202.05127,4131.282227000001,4321.538574,450.0,4.0,82.0,,,,0.0,4.0,1.0,2.0,4.0,4.0,58.33333199999999,,,,,,,,,,,,,,,,,,,,,,,,,,,,,,,,,,,,,,,,,,,,,,,,,,,,,,,,,,,,,,,,,,,,,,,,,,,,,,,,,,,,
32494,1645492533.212321,98.0,0.0,4211.282227000001,4628.717772999999,4232.307617,4202.05127,4368.717772999999,450.0,4.0,82.0,,,,0.0,4.0,1.0,2.0,4.0,4.0,58.33333199999999,,,,,,,,49.0,0.0,0.579136,-0.172119,0.644043,0.469238,0.917494,-0.40283800000000003,-0.104005,-0.033408999999999994,-0.037249000000000004,-0.025528,,,,,,,,,,,,,,,,,,,,,,,,,,,,,,,,,,,0.0,0.0,1.0,0.0,512.0,1.0,,,,,,,,,,,,,,,,,,,,,,,,,
32495,1645492533.220136,99.0,0.0,4225.641113000001,4631.794922,4202.05127,4252.820313,4366.666504,16187.0,4.0,82.0,,,,0.0,4.0,1.0,2.0,4.0,4.0,58.33333199999999,,,,,,,,,,,,,,,,,,,,,,,,,,,,,,,,,,,,,,,,,,,,,,,,,,,,,,,,,,,,,,,,,,,,,,,,,,,,,,,,,,,,
32496,1645492533.22795,100.0,0.0,4185.128418,4623.589844,4169.230957,4200.512695,4316.410156,450.0,4.0,82.0,,,,0.0,4.0,1.0,2.0,4.0,4.0,58.33333199999999,,,,,,,,50.0,0.0,0.578667,-0.172119,0.6442869999999999,0.46948199999999995,0.913588,-0.42676400000000003,-0.11035299999999999,-0.033438,-0.037235000000000004,-0.028249,,,,,,,,,,,,,,,,,,,,,,,,,,,,,,,,,,,,,,,,,,,,,,,,,,,,,,,,,,,,,,,,,
32497,1645492533.235765,101.0,0.0,4046.6667479999996,4568.205078,4105.641113000001,4026.1538090000004,4196.922852000001,450.0,4.0,82.0,,,,0.0,4.0,1.0,2.0,4.0,4.0,58.33333199999999,,,,,,,,,,,,,,,,,,,,,,,,,,,,,,,,,,,,,,,,,,,,,,,,,,,,,,,,,,,,,,,,,,,,,,,,,,,,,,,,,,,,
32498,1645492533.243579,102.0,0.0,3986.6667479999996,4568.205078,4106.666504,3983.5898439999996,4175.897461,450.0,4.0,82.0,,,,0.0,4.0,1.0,2.0,4.0,4.0,58.33333199999999,,,,,,,,51.0,0.0,0.578667,-0.172119,0.6442869999999999,0.46948199999999995,0.921889,-0.408698,-0.105959,-0.033561,-0.037271,-0.0306,,,,,,,,,,,,,,,,,,,,,,,,,,,,,,,,,,,10.0,0.0,1.0,0.0,512.0,1.0,,,,,,,,,,,,,,,,,,,,,,,,,
32499,1645492533.251393,103.0,0.0,4120.0,4640.512695,4208.205078,4163.589844,4311.794922,16187.0,4.0,82.0,,,,0.0,4.0,1.0,2.0,4.0,4.0,58.33333199999999,,,,,,,,,,,,,,,,,,,,,,,,,,,,,,,,,,,,,,,,,,,,,,,,,,,,,,,,,,,,,,,,,,,,,,,,,,,,,,,,,,,,
32500,1645492533.259208,104.0,0.0,4158.974121,4630.769043,4200.0,4195.384765999999,4324.615234000001,450.0,4.0,82.0,,,,0.0,4.0,1.0,2.0,4.0,4.0,58.33333199999999,,,,,,,,52.0,0.0,0.578395,-0.172119,0.6445310000000001,0.46948199999999995,0.918959,-0.41699899999999995,-0.12451400000000001,-0.033574,-0.037255,-0.026466000000000003,,,,,,,,,,,,,,,,,,,,,,,,,,,,,,,,,,,,,,,,,,,,,,,,,,,,,,,,,,,,,,,,,
32501,1645492533.2670221,105.0,0.0,4051.281982,4587.179688,4113.846191,4050.256348,4228.205078,450.0,4.0,82.0,,,,0.0,4.0,1.0,2.0,4.0,4.0,58.33333199999999,,,,,,,,,,,,,,,,,,,,,,,,,,,,,,,,,,,,,,,,,,,,,,,,,,,,,,,,,,,,,,,,,,,,,,,,,,,,,,,,,,,,
32502,1645492533.274837,106.0,0.0,4096.410156,4632.307617,4159.487305,4087.179443,4287.179688,450.0,4.0,82.0,,,,0.0,4.0,1.0,2.0,4.0,4.0,58.33333199999999,,,,,,,,53.0,0.0,0.578395,-0.172119,0.6445310000000001,0.46948199999999995,0.9160299999999999,-0.407233,-0.116701,-0.033586000000000005,-0.037239999999999995,-0.022696,,,,,,,,,,,,,,,,,,,,,,,,,,,,,,,,,,,0.0,0.0,1.0,0.0,512.0,1.0,,,,,,,,,,,,,,,,,,,,,,,,,
32503,1645492533.282651,107.0,0.0,4234.871582,4641.025879,4251.794922,4232.820313,4392.820313,16187.0,4.0,82.0,,,,0.0,4.0,1.0,2.0,4.0,4.0,58.33333199999999,,,,,,,,,,,,,,,,,,,,,,,,,,,,,,,,,,,,,,,,,,,,,,,,,,,,,,,,,,,,,,,,,,,,,,,,,,,,,,,,,,,,
32504,1645492533.290366,108.0,0.0,4228.717772999999,4590.256348,4255.897461,4231.282227000001,4383.077147999999,450.0,4.0,82.0,,,,0.0,4.0,1.0,2.0,4.0,4.0,58.33333199999999,,,,,,,,54.0,0.0,0.5781229999999999,-0.172119,0.644775,0.46948199999999995,0.9038219999999999,-0.417975,-0.12060699999999999,-0.033547,-0.037226999999999996,-0.019400999999999998,,,,,,,,,,,,,,,,,,,,,,,,,,,,,,,,,,,,,,,,,,,,,,,,,,,,,,,,,,,,,,,,,
32505,1645492533.29818,109.0,0.0,4218.974121,4640.0,4237.436035,4206.153809,4397.94873,450.0,4.0,82.0,,,,0.0,4.0,1.0,2.0,4.0,4.0,58.33333199999999,,,,,,,,,,,,,,,,,,,,,,,,,,,,,,,,,,,,,,,,,,,,,,,,,,,,,,,,,,,,,,,,,,,,,,,,,,,,,,,,,,,,
32506,1645492533.305994,110.0,0.0,4285.641113000001,4671.794922,4236.410156,4270.769043,4432.820313,450.0,4.0,82.0,,,,0.0,4.0,1.0,2.0,4.0,4.0,58.33333199999999,,,,,,,,55.0,0.0,0.577924,-0.172119,0.644775,0.46972700000000006,0.9121229999999999,-0.41406899999999996,-0.11523599999999999,-0.033611,-0.037118,-0.022686,1.0,0.0,0.0,,,,,,,,,,,,,,,,,,,,,,,,,,,,,,,,0.0,0.0,1.0,0.0,512.0,1.0,10354.776367,322.685455,394.136536,67.710014,18.195789,7542.484863,616.712463,156.144897,32.893046999999996,14.69249,13.482854000000001,14.943575,13.05689,19.317663,7.786607000000001,26.841978000000005,35.201153000000005,27.168539000000003,48.756271000000005,13.675108999999999,1577.616699,100.616013,40.783386,39.382538000000004,20.431664
32507,1645492533.313809,111.0,0.0,4261.025879,4580.0,4205.641113000001,4255.897461,4368.717772999999,16187.0,4.0,82.0,,,,0.0,4.0,1.0,2.0,4.0,4.0,58.33333199999999,,,,,,,,,,,,,,,,,,,,,,,,,,,,,,,,,,,,,,,,,,,,,,,,,,,,,,,,,,,,,,,,,,,,,,,,,,,,,,,,,,,,
32508,1645492533.321623,112.0,0.0,4184.615234000001,4542.563965,4171.282227000001,4156.410156,4314.871582,450.0,4.0,82.0,,,,0.0,4.0,1.0,2.0,4.0,4.0,58.33333199999999,,,,,,,,56.0,0.0,0.577852,-0.17236300000000002,0.644775,0.46972700000000006,0.918959,-0.407721,-0.11035299999999999,-0.033668000000000003,-0.037264,-0.019244999999999998,,,,,,,,,,,,,,,,,,,,,,,,,,,,,,,,,,,,,,,,,,,,,,,,,,,,,,,,,,,,,,,,,
32509,1645492533.329438,113.0,0.0,4201.538574,4574.871582,4184.615234000001,4150.769043,4349.743652,450.0,4.0,82.0,,,,0.0,4.0,1.0,2.0,4.0,4.0,58.33333199999999,,,,,,,,,,,,,,,,,,,,,,,,,,,,,,,,,,,,,,,,,,,,,,,,,,,,,,,,,,,,,,,,,,,,,,,,,,,,,,,,,,,,
32510,1645492533.337252,114.0,0.0,4201.538574,4550.256348,4178.974121,4156.410156,4335.897461,450.0,4.0,82.0,,,,0.0,4.0,1.0,2.0,4.0,4.0,58.33333199999999,,,,,,,,57.0,0.0,0.577852,-0.17236300000000002,0.644775,0.46972700000000006,0.91017,-0.395514,-0.111818,-0.03367,-0.037297000000000004,-0.022594,,,,,,,,,,,,,,,,,,,,,,,,,,,,,,,,,,,0.0,0.0,1.0,0.0,512.0,1.0,,,,,,,,,,,,,,,,,,,,,,,,,
32511,1645492533.345066,115.0,0.0,4125.128418,4527.692383,4132.820313,4087.6923829999996,4261.538574,16187.0,4.0,82.0,,,,0.0,4.0,1.0,2.0,4.0,4.0,58.33333199999999,,,,,,,,,,,,,,,,,,,,,,,,,,,,,,,,,,,,,,,,,,,,,,,,,,,,,,,,,,,,,,,,,,,,,,,,,,,,,,,,,,,,
32512,1645492533.352881,116.0,0.0,4134.871582,4576.922852000001,4140.0,4094.8718259999996,4274.358886999999,450.0,4.0,82.0,,,,0.0,4.0,1.0,2.0,4.0,4.0,58.33333199999999,,,,,,,,58.0,0.0,0.577852,-0.17236300000000002,0.644775,0.46972700000000006,0.9121229999999999,-0.423835,-0.123049,-0.033721,-0.037425,-0.019163,,,,,,,,,,,,,,,,,,,,,,,,,,,,,,,,,,,,,,,,,,,,,,,,,,,,,,,,,,,,,,,,,
32513,1645492533.360595,117.0,0.0,4188.717772999999,4590.256348,4184.615234000001,4154.358886999999,4331.282227000001,450.0,4.0,82.0,,,,0.0,4.0,1.0,2.0,4.0,4.0,58.33333199999999,,,,,,,,,,,,,,,,,,,,,,,,,,,,,,,,,,,,,,,,,,,,,,,,,,,,,,,,,,,,,,,,,,,,,,,,,,,,,,,,,,,,
32514,1645492533.3684099,118.0,0.0,4194.358886999999,4565.641113000001,4192.820313,4164.615234000001,4348.717772999999,450.0,4.0,82.0,,,,0.0,4.0,1.0,2.0,4.0,4.0,58.33333199999999,,,,,,,,59.0,0.0,0.577852,-0.17236300000000002,0.644775,0.46972700000000006,0.901869,-0.408698,-0.11133,-0.033718,-0.037491000000000003,-0.022471,,,,,,,,,,,,,,,,,,,,,,,,,,,,,,,,,,,0.0,0.0,1.0,0.0,512.0,1.0,,,,,,,,,,,,,,,,,,,,,,,,,
32515,1645492533.376224,119.0,0.0,4173.333496,4576.922852000001,4152.820313,4132.820313,4316.410156,16187.0,4.0,82.0,,,,0.0,4.0,1.0,2.0,4.0,4.0,58.33333199999999,,,,,,,,,,,,,,,,,,,,,,,,,,,,,,,,,,,,,,,,,,,,,,,,,,,,,,,,,,,,,,,,,,,,,,,,,,,,,,,,,,,,
32516,1645492533.383939,120.0,0.0,4044.102539,4578.461426,4060.512939,4032.820557,4179.487305,450.0,4.0,82.0,,,,0.0,4.0,1.0,2.0,4.0,4.0,58.33333199999999,,,,,,,,60.0,0.0,0.577852,-0.17236300000000002,0.644775,0.46972700000000006,0.91017,-0.395514,-0.111818,-0.033813,-0.037453,-0.025351,,,,,,,,,,,,,,,,,,,,,,,,,,,,,,,,,,,,,,,,,,,,,,,,,,,,,,,,,,,,,,,,,
32517,1645492533.391753,121.0,0.0,3920.0,4556.410156,4016.4101560000004,3941.025635,4070.7692869999996,450.0,4.0,82.0,,,,0.0,4.0,1.0,2.0,4.0,4.0,58.33333199999999,,,,,,,,,,,,,,,,,,,,,,,,,,,,,,,,,,,,,,,,,,,,,,,,,,,,,,,,,,,,,,,,,,,,,,,,,,,,,,,,,,,,
32518,1645492533.399567,122.0,0.0,3990.7692869999996,4536.922852000001,4072.3076170000004,3977.9487299999996,4136.410156,450.0,4.0,82.0,,,,0.0,4.0,1.0,2.0,4.0,4.0,58.33333199999999,,,,,,,,61.0,0.0,0.577852,-0.17236300000000002,0.644775,0.46972700000000006,0.901869,-0.408698,-0.11133,-0.033801,-0.037516,-0.028041000000000003,,,,,,,,,,,,,,,,,,,,,,,,,,,,,,,,,,,10.0,0.0,1.0,0.0,512.0,1.0,,,,,,,,,,,,,,,,,,,,,,,,,
32519,1645492533.407382,123.0,0.0,4072.3076170000004,4537.436035,4090.7692869999996,4012.820557,4181.025879,16187.0,4.0,82.0,,,,0.0,4.0,1.0,2.0,4.0,4.0,58.33333199999999,,,,,,,,,,,,,,,,,,,,,,,,,,,,,,,,,,,,,,,,,,,,,,,,,,,,,,,,,,,,,,,,,,,,,,,,,,,,,,,,,,,,
32520,1645492533.4151962,124.0,0.0,4055.384521,4565.641113000001,4068.718018,3993.8461909999996,4137.436035,450.0,4.0,82.0,,,,0.0,4.0,1.0,2.0,4.0,4.0,58.33333199999999,,,,,,,,62.0,0.0,0.577924,-0.172119,0.644775,0.46972700000000006,0.9028459999999999,-0.41895200000000005,-0.11425999999999999,-0.033839,-0.037524,-0.024114,,,,,,,,,,,,,,,,,,,,,,,,,,,,,,,,,,,,,,,,,,,,,,,,,,,,,,,,,,,,,,,,,
32521,1645492533.422911,125.0,0.0,4123.077147999999,4567.692383,4128.205078,4062.0512700000004,4191.282227000001,450.0,4.0,82.0,,,,0.0,4.0,1.0,2.0,4.0,4.0,58.33333199999999,,,,,,,,,,,,,,,,,,,,,,,,,,,,,,,,,,,,,,,,,,,,,,,,,,,,,,,,,,,,,,,,,,,,,,,,,,,,,,,,,,,,
32522,1645492533.430725,126.0,0.0,4190.256348,4514.871582,4170.256348,4108.717772999999,4280.0,450.0,4.0,82.0,,,,0.0,4.0,1.0,2.0,4.0,4.0,58.33333199999999,,,,,,,,63.0,0.0,0.577924,-0.172119,0.644775,0.46972700000000006,0.9077290000000001,-0.41406899999999996,-0.123049,-0.033678,-0.037482999999999995,-0.026877999999999996,1.0,0.0,0.0,,,,,,,,,,,,,,,,,,,,,,,,,,,,,,,,10.0,0.0,1.0,0.0,512.0,1.0,6099.379883,184.75778200000002,244.937881,63.036053,16.470615,4711.066406,378.35205099999996,116.53060900000001,24.28134,12.12749,12.085028,14.528948000000002,12.993848,23.37632,7.452839,23.212398999999998,37.017990000000005,27.183692999999998,56.994274,14.059016,951.9578859999999,79.025002,35.735584,46.865334000000004,18.560482
32523,1645492533.43854,127.0,0.0,4112.820313,4481.025879,4119.487305,4051.794922,4249.230957,240.0,4.0,82.0,,,,0.0,4.0,1.0,2.0,4.0,4.0,58.33333199999999,,,,,,,,,,,,,,,,,,,,,,,,,,,,,,,,,,,,,,,,,,,,,,,,,,,,,,,,,,,,,,,,,,,,,,,,,,,,,,,,,,,,
32524,1645492533.446354,0.0,0.0,4078.461426,4488.205078,4109.743652,4040.512939,4214.358886999999,450.0,4.0,82.0,,,,0.0,4.0,1.0,2.0,4.0,4.0,58.33333199999999,,,,,,,,0.0,0.0,0.5782689999999999,-0.171875,0.6445310000000001,0.46972700000000006,0.916518,-0.407721,-0.12109600000000001,-0.033679,-0.037543,-0.029414999999999997,,,,,,,,,,,,,,,,,,,,,,,,,,,,,,,,,,,,,,,,,,,,,,,,,,,,,,,,,,,,,,,,,
32525,1645492533.454168,1.0,0.0,4155.897461,4491.794922,4151.794922,4070.7692869999996,4259.487305,450.0,4.0,82.0,,,,0.0,4.0,1.0,2.0,4.0,4.0,58.33333199999999,,,,,,,,,,,,,,,,,,,,,,,,,,,,,,,,,,,,,,,,,,,,,,,,,,,,,,,,,,,,,,,,,,,,,,,,,,,,,,,,,,,,
32526,1645492533.461983,2.0,0.0,4123.077147999999,4458.974121,4104.102539,4010.7692869999996,4222.563965,16193.0,4.0,82.0,,,,0.0,4.0,1.0,2.0,4.0,4.0,58.33333199999999,,,,,,,,1.0,0.0,0.5782689999999999,-0.171875,0.6445310000000001,0.46972700000000006,0.9155409999999999,-0.425299,-0.11425999999999999,-0.033729,-0.037549,-0.031552,,,,,,,,,,,,,,,,,,,,,,,,,,,,,,,,,,,10.0,0.0,1.0,0.0,512.0,1.0,,,,,,,,,,,,,,,,,,,,,,,,,
32527,1645492533.4697971,3.0,0.0,4024.615479,4399.487305,4048.718018,3957.9487299999996,4133.333496,450.0,4.0,82.0,,,,0.0,4.0,1.0,2.0,4.0,4.0,58.33333199999999,,,,,,,,,,,,,,,,,,,,,,,,,,,,,,,,,,,,,,,,,,,,,,,,,,,,,,,,,,,,,,,,,,,,,,,,,,,,,,,,,,,,
32528,1645492533.477612,4.0,0.0,4094.8718259999996,4400.512695,4124.615234000001,4047.179443,4189.743652,129.0,4.0,82.0,,,,0.0,4.0,1.0,2.0,4.0,4.0,58.33333199999999,,,,,,,,2.0,0.0,0.578342,-0.171631,0.6445310000000001,0.46972700000000006,0.9072399999999999,-0.415045,-0.11816600000000001,-0.033579000000000005,-0.037554000000000004,-0.033524,,,,,,,,,,,,,,,,,,,,,,,,,,,,,,,,,,,,,,,,,,,,,,,,,,,,,,,,,,,,,,,,,
32529,1645492533.485326,5.0,0.0,4160.0,4420.0,4154.358886999999,4074.8718259999996,4246.666504,450.0,4.0,82.0,,,,0.0,4.0,1.0,4.0,4.0,4.0,75.0,,,,,,,,,,,,,,,,,,,,,,,,,,,,,,,,,,,,,,,,,,,,,,,,,,,,,,,,,,,,,,,,,,,,,,,,,,,,,,,,,,,,
32530,1645492533.493141,6.0,0.0,4051.281982,4373.333496,4067.179443,3961.538574,4156.410156,16143.0,4.0,82.0,,,,0.0,4.0,1.0,4.0,4.0,4.0,75.0,,,,,,,,3.0,0.0,0.5785399999999999,-0.171631,0.6445310000000001,0.46948199999999995,0.914565,-0.415534,-0.11084200000000001,-0.033638999999999995,-0.037509,-0.029097,,,,,,,,,,,,,,,,,,,,,,,,,,,,,,,,,,,10.0,0.0,1.0,0.0,512.0,1.0,,,,,,,,,,,,,,,,,,,,,,,,,
32531,1645492533.500955,7.0,0.0,4006.1538090000004,4337.436035,4048.205078,3934.358887,4107.692383,450.0,4.0,82.0,,,,0.0,4.0,1.0,4.0,4.0,4.0,75.0,,,,,,,,,,,,,,,,,,,,,,,,,,,,,,,,,,,,,,,,,,,,,,,,,,,,,,,,,,,,,,,,,,,,,,,,,,,,,,,,,,,,
32532,1645492533.508769,8.0,0.0,4097.436035,4347.179688,4115.384765999999,4018.974365,4169.230957,450.0,4.0,82.0,,,,0.0,4.0,1.0,4.0,4.0,4.0,75.0,,,,,,,,4.0,0.0,0.5786140000000001,-0.171631,0.6442869999999999,0.46972700000000006,0.9131,-0.416022,-0.116701,-0.033644,-0.037567,-0.025015,,,,,,,,,,,,,,,,,,,,,,,,,,,,,,,,,,,,,,,,,,,,,,,,,,,,,,,,,,,,,,,,,
32533,1645492533.516584,9.0,0.0,4127.179688,4364.102539,4124.615234000001,4042.5642090000006,4185.128418,16172.0,4.0,82.0,,,,0.0,4.0,1.0,4.0,4.0,4.0,75.0,,,,,,,,,,,,,,,,,,,,,,,,,,,,,,,,,,,,,,,,,,,,,,,,,,,,,,,,,,,,,,,,,,,,,,,,,,,,,,,,,,,,
32534,1645492533.524398,10.0,0.0,4137.436035,4389.743652,4122.05127,4038.974365,4197.94873,450.0,4.0,82.0,,,,0.0,4.0,1.0,4.0,4.0,4.0,75.0,,,,,,,,5.0,0.0,0.5786140000000001,-0.171631,0.6442869999999999,0.46972700000000006,0.91017,-0.406256,-0.11914200000000001,-0.033698,-0.03757,-0.027543,,,,,,,,,,,,,,,,,,,,,,,,,,,,,,,,,,,10.0,0.0,1.0,0.0,512.0,1.0,,,,,,,,,,,,,,,,,,,,,,,,,
32535,1645492533.532213,11.0,0.0,4193.846191,4404.102539,4155.384765999999,4074.358887,4261.538574,16228.0,4.0,82.0,,,,0.0,4.0,1.0,4.0,4.0,4.0,75.0,,,,,,,,,,,,,,,,,,,,,,,,,,,,,,,,,,,,,,,,,,,,,,,,,,,,,,,,,,,,,,,,,,,,,,,,,,,,,,,,,,,,
32536,1645492533.540027,12.0,0.0,4155.384765999999,4409.230957,4136.410156,4040.512939,4242.563965,450.0,4.0,82.0,,,,0.0,4.0,1.0,4.0,4.0,4.0,75.0,,,,,,,,6.0,0.0,0.5786140000000001,-0.171631,0.6442869999999999,0.46972700000000006,0.9199360000000001,-0.406744,-0.113771,-0.033746,-0.037573,-0.023617,,,,,,,,,,,,,,,,,,,,,,,,,,,,,,,,,,,,,,,,,,,,,,,,,,,,,,,,,,,,,,,,,
32537,1645492533.547841,13.0,0.0,4072.820557,4416.922852000001,4082.5642090000006,3982.0512700000004,4161.538574,450.0,4.0,82.0,,,,0.0,4.0,1.0,4.0,4.0,4.0,75.0,,,,,,,,,,,,,,,,,,,,,,,,,,,,,,,,,,,,,,,,,,,,,,,,,,,,,,,,,,,,,,,,,,,,,,,,,,,,,,,,,,,,
32538,1645492533.555656,14.0,0.0,4102.563965,4348.717772999999,4099.487305,4011.794922,4162.563965,450.0,4.0,82.0,,,,0.0,4.0,1.0,4.0,4.0,4.0,75.0,,,,,,,,7.0,0.0,0.5786140000000001,-0.171631,0.6442869999999999,0.46972700000000006,0.9072399999999999,-0.412116,-0.118654,-0.03379,-0.037576,-0.020132,1.0,0.0,0.0,,,,,,,,,,,,,,,,,,,,,,,,,,,,,,,,0.0,0.0,1.0,0.0,512.0,1.0,2788.18042,94.92643699999999,129.611343,58.768013,15.056257,2357.233643,189.043655,74.40167199999999,17.217876,9.964399,10.12289,14.90531,13.310621,26.239665999999996,6.996232000000001,19.763979,40.486038,27.97275,62.323826000000004,14.706427,454.549713,63.181465,32.206066,51.758408,17.185303
32539,1645492533.56337,15.0,0.0,4187.179688,4287.179688,4154.358886999999,4062.5642090000006,4232.820313,16228.0,4.0,82.0,,,,0.0,4.0,1.0,4.0,4.0,4.0,75.0,,,,,,,,,,,,,,,,,,,,,,,,,,,,,,,,,,,,,,,,,,,,,,,,,,,,,,,,,,,,,,,,,,,,,,,,,,,,,,,,,,,,
32540,1645492533.5711849,16.0,0.0,4234.358886999999,4334.358886999999,4172.307617,4107.692383,4295.897461,0.0,4.0,82.0,,,,0.0,4.0,1.0,4.0,4.0,4.0,75.0,,,,,,,,8.0,0.0,0.5782689999999999,-0.171875,0.6445310000000001,0.46972700000000006,0.925795,-0.41651000000000005,-0.12451400000000001,-0.033829000000000005,-0.037675,-0.023295,,,,,,,,,,,,,,,,,,,,,,,,,,,,,,,,,,,,,,,,,,,,,,,,,,,,,,,,,,,,,,,,,
32541,1645492533.578999,17.0,0.0,4248.205078,4343.589844,4166.153809,4169.230957,4320.0,0.0,4.0,82.0,,,,0.0,4.0,1.0,4.0,4.0,4.0,75.0,,,,,,,,,,,,,,,,,,,,,,,,,,,,,,,,,,,,,,,,,,,,,,,,,,,,,,,,,,,,,,,,,,,,,,,,,,,,,,,,,,,,
32542,1645492533.586813,18.0,0.0,4247.692383,4293.333496,4164.102539,4165.641113000001,4308.717772999999,0.0,4.0,82.0,,,,0.0,4.0,1.0,4.0,4.0,4.0,75.0,,,,,,,,9.0,0.0,0.5782689999999999,-0.171875,0.6445310000000001,0.46972700000000006,0.9087049999999999,-0.412116,-0.123049,-0.033864,-0.03757,-0.026189999999999998,,,,,,,,,,,,,,,,,,,,,,,,,,,,,,,,,,,0.0,0.0,1.0,0.0,512.0,1.0,,,,,,,,,,,,,,,,,,,,,,,,,
32543,1645492533.5946279,19.0,0.0,4205.641113000001,4287.179688,4135.897461,4080.0,4256.410156,0.0,4.0,82.0,,,,0.0,4.0,1.0,4.0,4.0,4.0,75.0,,,,,,,,,,,,,,,,,,,,,,,,,,,,,,,,,,,,,,,,,,,,,,,,,,,,,,,,,,,,,,,,,,,,,,,,,,,,,,,,,,,,
32544,1645492533.602442,20.0,0.0,4127.179688,4265.128418,4089.743652,4010.256348,4178.974121,0.0,4.0,82.0,,,,0.0,4.0,1.0,4.0,4.0,4.0,75.0,,,,,,,,10.0,0.0,0.578468,-0.171875,0.6445310000000001,0.46948199999999995,0.9248190000000001,-0.412116,-0.12695499999999998,-0.033798,-0.037573,-0.028698,,,,,,,,,,,,,,,,,,,,,,,,,,,,,,,,,,,,,,,,,,,,,,,,,,,,,,,,,,,,,,,,,
32545,1645492533.6102571,21.0,0.0,4127.179688,4234.871582,4114.871582,4024.102539,4181.025879,0.0,4.0,82.0,,,,0.0,4.0,1.0,4.0,4.0,4.0,75.0,,,,,,,,,,,,,,,,,,,,,,,,,,,,,,,,,,,,,,,,,,,,,,,,,,,,,,,,,,,,,,,,,,,,,,,,,,,,,,,,,,,,
32546,1645492533.618071,22.0,0.0,4245.641113000001,4301.025879,4203.077147999999,4127.179688,4303.589844,0.0,4.0,82.0,,,,0.0,4.0,1.0,4.0,4.0,4.0,75.0,,,,,,,,11.0,0.0,0.578468,-0.171875,0.6445310000000001,0.46948199999999995,0.921889,-0.421393,-0.12842,-0.033641000000000004,-0.037478,-0.024803,,,,,,,,,,,,,,,,,,,,,,,,,,,,,,,,,,,0.0,0.0,1.0,0.0,512.0,1.0,,,,,,,,,,,,,,,,,,,,,,,,,
32547,1645492533.625886,23.0,0.0,4327.179688,4385.128418,4236.922852000001,4216.922852000001,4389.743652,0.0,4.0,82.0,,,,0.0,4.0,1.0,4.0,4.0,4.0,75.0,,,,,,,,,,,,,,,,,,,,,,,,,,,,,,,,,,,,,,,,,,,,,,,,,,,,,,,,,,,,,,,,,,,,,,,,,,,,,,,,,,,,
32548,1645492533.6336,24.0,0.0,4295.897461,4366.666504,4196.410156,4188.205078,4348.205078,0.0,4.0,82.0,,,,0.0,4.0,1.0,4.0,4.0,4.0,75.0,,,,,,,,12.0,0.0,0.5781229999999999,-0.172119,0.644775,0.46948199999999995,0.9277489999999999,-0.40235,-0.126467,-0.033597,-0.037441,-0.027547000000000002,,,,,,,,,,,,,,,,,,,,,,,,,,,,,,,,,,,,,,,,,,,,,,,,,,,,,,,,,,,,,,,,,
32549,1645492533.6414142,25.0,0.0,4254.358886999999,4324.615234000001,4165.641113000001,4128.717772999999,4303.077147999999,0.0,4.0,82.0,,,,0.0,4.0,1.0,4.0,4.0,4.0,75.0,,,,,,,,,,,,,,,,,,,,,,,,,,,,,,,,,,,,,,,,,,,,,,,,,,,,,,,,,,,,,,,,,,,,,,,,,,,,,,,,,,,,
32550,1645492533.6492288,26.0,0.0,4208.717772999999,4331.794922,4132.307617,4091.794922,4262.563965,0.0,4.0,82.0,,,,0.0,4.0,1.0,4.0,4.0,4.0,75.0,,,,,,,,13.0,0.0,0.5781229999999999,-0.172119,0.644775,0.46948199999999995,0.918959,-0.387701,-0.111818,-0.033571,-0.037476,-0.026039,,,,,,,,,,,,,,,,,,,,,,,,,,,,,,,,,,,0.0,0.0,1.0,0.0,512.0,1.0,,,,,,,,,,,,,,,,,,,,,,,,,
32551,1645492533.657043,27.0,0.0,4085.641113,4293.846191,4045.641113,3971.794922,4129.743652,0.0,4.0,82.0,,,,0.0,4.0,1.0,4.0,4.0,4.0,75.0,,,,,,,,,,,,,,,,,,,,,,,,,,,,,,,,,,,,,,,,,,,,,,,,,,,,,,,,,,,,,,,,,,,,,,,,,,,,,,,,,,,,
32552,1645492533.664858,28.0,0.0,3979.487061,4205.128418,3986.6667479999996,3862.5642090000006,4015.897461,0.0,4.0,82.0,,,,0.0,4.0,1.0,4.0,4.0,4.0,75.0,,,,,,,,14.0,0.0,0.57805,-0.17236300000000002,0.644775,0.46948199999999995,0.910658,-0.39697899999999997,-0.114748,-0.033486,-0.037439,-0.028611,,,,,,,,,,,,,,,,,,,,,,,,,,,,,,,,,,,,,,,,,,,,,,,,,,,,,,,,,,,,,,,,,
32553,1645492533.672672,29.0,0.0,3991.794922,4223.077147999999,4023.076904,3888.718018,4031.794922,0.0,4.0,82.0,,,,0.0,4.0,1.0,4.0,4.0,4.0,75.0,,,,,,,,,,,,,,,,,,,,,,,,,,,,,,,,,,,,,,,,,,,,,,,,,,,,,,,,,,,,,,,,,,,,,,,,,,,,,,,,,,,,
32554,1645492533.680486,30.0,0.0,4022.0512700000004,4335.384765999999,4064.102539,3929.2307130000004,4075.897461,0.0,4.0,82.0,,,,0.0,4.0,1.0,4.0,4.0,4.0,75.0,1.0,0.0,0.0,0.0,0.0,0.0,0.0,15.0,0.0,0.57805,-0.17236300000000002,0.644775,0.46948199999999995,0.906264,-0.406256,-0.10693499999999999,-0.033604,-0.037406,-0.024676,1.0,0.0,0.0,,,,,,,,,,,,,,,,,,,,,,,,,,,,,,,,0.0,0.0,1.0,0.0,512.0,1.0,891.5010380000001,53.038357,63.922821,54.188026,14.282596,886.074341,78.566895,39.927841,12.680786999999999,8.562617,8.97674,15.747888,13.705356,26.959024,6.630685000000001,18.844935999999997,44.859276,28.9219,63.209953000000006,15.789978,164.552551,55.713066000000005,30.369764,52.517531999999996,16.487541
32555,1645492533.688301,31.0,0.0,3991.281982,4351.794922,4037.4357909999994,3904.102539,4044.615479,0.0,4.0,82.0,,,,0.0,4.0,1.0,4.0,4.0,4.0,75.0,,,,,,,,,,,,,,,,,,,,,,,,,,,,,,,,,,,,,,,,,,,,,,,,,,,,,,,,,,,,,,,,,,,,,,,,,,,,,,,,,,,,
32556,1645492533.6962152,32.0,0.0,3998.974365,4318.461426,4020.0,3895.384521,4031.794922,0.0,4.0,82.0,,,,0.0,4.0,1.0,4.0,4.0,4.0,75.0,,,,,,,,16.0,0.0,0.577852,-0.17236300000000002,0.644775,0.46972700000000006,0.918959,-0.409186,-0.104005,-0.033613,-0.037572,-0.027335,,,,,,,,,,,,,,,,,,,,,,,,,,,,,,,,,,,,,,,,,,,,,,,,,,,,,,,,,,,,,,,,,
32557,1645492533.70403,33.0,0.0,4041.025635,4363.077147999999,4051.794922,3932.820557,4081.538574,0.0,4.0,82.0,,,,0.0,4.0,1.0,4.0,4.0,4.0,75.0,,,,,,,,,,,,,,,,,,,,,,,,,,,,,,,,,,,,,,,,,,,,,,,,,,,,,,,,,,,,,,,,,,,,,,,,,,,,,,,,,,,,
32558,1645492533.711844,34.0,0.0,4009.743652,4416.922852000001,4054.358887,3935.897461,4063.076904,0.0,4.0,82.0,,,,0.0,4.0,1.0,4.0,4.0,4.0,75.0,,,,,,,,17.0,0.0,0.577852,-0.17236300000000002,0.644775,0.46972700000000006,0.9199360000000001,-0.41358100000000003,-0.11425999999999999,-0.033523000000000004,-0.037526,-0.02968,,,,,,,,,,,,,,,,,,,,,,,,,,,,,,,,,,,0.0,0.0,1.0,0.0,512.0,1.0,,,,,,,,,,,,,,,,,,,,,,,,,
32559,1645492533.719658,35.0,0.0,3985.641113,4456.410156,4027.6923829999996,3908.205078,4007.6923829999996,0.0,4.0,82.0,,,,0.0,4.0,1.0,4.0,4.0,4.0,75.0,,,,,,,,,,,,,,,,,,,,,,,,,,,,,,,,,,,,,,,,,,,,,,,,,,,,,,,,,,,,,,,,,,,,,,,,,,,,,,,,,,,,
32560,1645492533.727473,36.0,0.0,4023.076904,4489.743652,4029.743652,3897.9487299999996,4022.0512700000004,0.0,4.0,82.0,,,,0.0,4.0,1.0,4.0,4.0,4.0,75.0,,,,,,,,18.0,0.0,0.577653,-0.17236300000000002,0.644775,0.469971,0.9126120000000001,-0.41065100000000004,-0.122072,-0.033637,-0.037386,-0.031839,,,,,,,,,,,,,,,,,,,,,,,,,,,,,,,,,,,,,,,,,,,,,,,,,,,,,,,,,,,,,,,,,
32561,1645492533.735287,37.0,0.0,4020.0,4510.769043,4046.6667479999996,3916.923096,4037.9487299999996,0.0,4.0,82.0,,,,0.0,4.0,1.0,4.0,4.0,4.0,75.0,,,,,,,,,,,,,,,,,,,,,,,,,,,,,,,,,,,,,,,,,,,,,,,,,,,,,,,,,,,,,,,,,,,,,,,,,,,,,,,,,,,,
32562,1645492533.7431018,38.0,0.0,4024.102539,4673.846191,4078.974365,3971.794922,4042.0512700000004,0.0,4.0,82.0,,,,0.0,4.0,1.0,4.0,4.0,4.0,75.0,,,,,,,,19.0,0.0,0.5781970000000001,-0.172119,0.6445310000000001,0.46972700000000006,0.901381,-0.42676400000000003,-0.11572400000000001,-0.033594,-0.037505000000000004,-0.033831,,,,,,,,,,,,,,,,,,,,,,,,,,,,,,,,,,,0.0,0.0,1.0,0.0,512.0,1.0,,,,,,,,,,,,,,,,,,,,,,,,,
32563,1645492533.750916,39.0,0.0,4088.205078,4943.077147999999,4106.666504,4012.820557,4098.461426,0.0,4.0,82.0,,,,0.0,4.0,1.0,4.0,4.0,4.0,75.0,,,,,,,,,,,,,,,,,,,,,,,,,,,,,,,,,,,,,,,,,,,,,,,,,,,,,,,,,,,,,,,,,,,,,,,,,,,,,,,,,,,,
32564,1645492533.75883,40.0,0.0,4140.512695,5048.205078,4118.974121,4034.358887,4166.666504,0.0,4.0,82.0,,,,0.0,4.0,1.0,4.0,4.0,4.0,75.0,,,,,,,,20.0,0.0,0.577997,-0.171875,0.644775,0.46972700000000006,0.8955209999999999,-0.412116,-0.10888800000000001,-0.033652999999999995,-0.037612,-0.035575,,,,,,,,,,,,,,,,,,,,,,,,,,,,,,,,,,,,,,,,,,,,,,,,,,,,,,,,,,,,,,,,,
32565,1645492533.766645,41.0,0.0,4170.769043,5018.974121,4134.358886999999,4080.512939,4200.0,0.0,4.0,82.0,,,,0.0,4.0,1.0,4.0,4.0,4.0,75.0,,,,,,,,,,,,,,,,,,,,,,,,,,,,,,,,,,,,,,,,,,,,,,,,,,,,,,,,,,,,,,,,,,,,,,,,,,,,,,,,,,,,
32566,1645492533.774459,42.0,0.0,4107.692383,5005.641113000001,4086.6667479999996,4045.641113,4131.282227000001,0.0,4.0,82.0,,,,0.0,4.0,1.0,4.0,4.0,4.0,75.0,,,,,,,,21.0,0.0,0.5782689999999999,-0.171875,0.6445310000000001,0.46972700000000006,0.9052870000000001,-0.410163,-0.113283,-0.033608,-0.037562,-0.037143999999999996,,,,,,,,,,,,,,,,,,,,,,,,,,,,,,,,,,,0.0,0.0,1.0,0.0,512.0,1.0,,,,,,,,,,,,,,,,,,,,,,,,,
32567,1645492533.782274,43.0,0.0,3959.487061,4995.897461,3985.1281740000004,3902.0512700000004,3974.358887,0.0,4.0,82.0,,,,0.0,4.0,1.0,4.0,4.0,4.0,75.0,,,,,,,,,,,,,,,,,,,,,,,,,,,,,,,,,,,,,,,,,,,,,,,,,,,,,,,,,,,,,,,,,,,,,,,,,,,,,,,,,,,,
32568,1645492533.7900882,44.0,0.0,3946.6667479999996,5010.256348,3982.5642090000006,3874.358887,3939.487061,0.0,4.0,82.0,,,,0.0,4.0,1.0,4.0,4.0,4.0,75.0,,,,,,,,22.0,0.0,0.5782689999999999,-0.171875,0.6445310000000001,0.46972700000000006,0.9121229999999999,-0.41065100000000004,-0.109865,-0.033519,-0.037517,-0.038655,,,,,,,,,,,,,,,,,,,,,,,,,,,,,,,,,,,,,,,,,,,,,,,,,,,,,,,,,,,,,,,,,
32569,1645492533.7979019,45.0,0.0,4044.615479,5025.641113000001,4048.718018,3954.8718259999996,4035.897461,0.0,4.0,82.0,,,,0.0,4.0,1.0,4.0,4.0,4.0,75.0,,,,,,,,,,,,,,,,,,,,,,,,,,,,,,,,,,,,,,,,,,,,,,,,,,,,,,,,,,,,,,,,,,,,,,,,,,,,,,,,,,,,
