,Timestamp,EEG.Counter,EEG.Interpolated,EEG.AF3,EEG.T7,EEG.Pz,EEG.T8,EEG.AF4,EEG.RawCq,EEG.Battery,EEG.BatteryPercent,MarkerIndex,MarkerType,MarkerValueInt,EEG.MarkerHardware,CQ.AF3,CQ.T7,CQ.Pz,CQ.T8,CQ.AF4,CQ.Overall,EQ.SampleRateQuality,EQ.OVERALL,EQ.AF3,EQ.T7,EQ.Pz,EQ.T8,EQ.AF4,MOT.CounterMems,MOT.InterpolatedMems,MOT.Q0,MOT.Q1,MOT.Q2,MOT.Q3,MOT.AccX,MOT.AccY,MOT.AccZ,MOT.MagX,MOT.MagY,MOT.MagZ,MC.Action,MC.ActionPower,MC.IsActive,PM.Engagement.IsActive,PM.Engagement.Scaled,PM.Engagement.Raw,PM.Engagement.Min,PM.Engagement.Max,PM.Excitement.IsActive,PM.Excitement.Scaled,PM.Excitement.Raw,PM.Excitement.Min,PM.Excitement.Max,PM.LongTermExcitement,PM.Stress.IsActive,PM.Stress.Scaled,PM.Stress.Raw,PM.Stress.Min,PM.Stress.Max,PM.Relaxation.IsActive,PM.Relaxation.Scaled,PM.Relaxation.Raw,PM.Relaxation.Min,PM.Relaxation.Max,PM.Interest.IsActive,PM.Interest.Scaled,PM.Interest.Raw,PM.Interest.Min,PM.Interest.Max,PM.Focus.IsActive,PM.Focus.Scaled,PM.Focus.Raw,PM.Focus.Min,PM.Focus.Max,FE.BlinkWink,FE.HorizontalEyesDirection,FE.UpperFaceAction,FE.UpperFaceActionPower,FE.LowerFaceAction,FE.LowerFaceActionPower,POW.AF3.Theta,POW.AF3.Alpha,POW.AF3.BetaL,POW.AF3.BetaH,POW.AF3.Gamma,POW.T7.Theta,POW.T7.Alpha,POW.T7.BetaL,POW.T7.BetaH,POW.T7.Gamma,POW.Pz.Theta,POW.Pz.Alpha,POW.Pz.BetaL,POW.Pz.BetaH,POW.Pz.Gamma,POW.T8.Theta,POW.T8.Alpha,POW.T8.BetaL,POW.T8.BetaH,POW.T8.Gamma,POW.AF4.Theta,POW.AF4.Alpha,POW.AF4.BetaL,POW.AF4.BetaH,POW.AF4.Gamma
43437,1645492056.915715,86.0,0.0,4204.102539,4565.128418,4222.563965,4249.230957,4239.487305,450.0,4.0,86.0,,,,0.0,4.0,0.0,4.0,4.0,4.0,66.666664,,,,,,,,43.0,0.0,0.595132,-0.151611,0.644775,0.455078,0.9155409999999999,-0.427253,-0.125978,-0.03373,-0.038058,-0.026227999999999998,,,,,,,,,,,,,,,,,,,,,,,,,,,,,,,,,,,,,,,,,,,,,,,,,,,,,,,,,,,,,,,,,
43438,1645492056.92353,87.0,0.0,4290.769043,4540.512695,4253.333496,4308.205078,4323.589844,16219.0,4.0,86.0,,,,0.0,4.0,0.0,4.0,4.0,4.0,66.666664,,,,,,,,,,,,,,,,,,,,,,,,,,,,,,,,,,,,,,,,,,,,,,,,,,,,,,10.0,0.0,1.0,0.0,512.0,1.0,,,,,,,,,,,,,,,,,,,,,,,,,
43439,1645492056.931345,88.0,0.0,4317.94873,4562.563965,4259.487305,4316.922852000001,4338.974121,450.0,4.0,86.0,,,,0.0,4.0,0.0,4.0,4.0,4.0,66.666664,,,,,,,,44.0,0.0,0.59507,-0.151855,0.644775,0.455078,0.9194479999999999,-0.404791,-0.11767799999999999,-0.033775,-0.038012,-0.02883,,,,,,,,,,,,,,,,,,,,,,,,,,,,,,,,,,,,,,,,,,,,,,,,,,,,,,,,,,,,,,,,,
43440,1645492056.9391599,89.0,0.0,4292.307617,4602.563965,4243.077147999999,4273.333496,4308.717772999999,450.0,4.0,86.0,,,,0.0,4.0,0.0,4.0,4.0,4.0,66.666664,,,,,,,,,,,,,,,,,,,,,,,,,,,,,,,,,,,,,,,,,,,,,,,,,,,,,,,,,,,,,,,,,,,,,,,,,,,,,,,,,,,,
43441,1645492056.946975,90.0,0.0,4263.077147999999,4591.282227000001,4237.436035,4273.333496,4303.589844,450.0,4.0,86.0,,,,0.0,4.0,0.0,4.0,4.0,4.0,66.666664,,,,,,,,45.0,0.0,0.59507,-0.151855,0.644775,0.455078,0.8999159999999999,-0.408698,-0.125978,-0.033767,-0.03802,-0.031074,,,,,,,,,,,,,,,,,,,,,,,,,,,,,,,,,,,,,,,,,,,,,,,,,,,,,,,,,,,,,,,,,
43442,1645492056.95469,91.0,0.0,4263.077147999999,4548.717772999999,4253.846191,4310.769043,4328.205078,16219.0,4.0,86.0,,,,0.0,4.0,0.0,4.0,4.0,4.0,66.666664,,,,,,,,,,,,,,,,,,,,,,,,,,,,,,,,,,,,,,,,,,,,,,,,,,,,,,0.0,0.0,1.0,0.0,512.0,1.0,,,,,,,,,,,,,,,,,,,,,,,,,
43443,1645492056.962505,92.0,0.0,4282.05127,4547.692383,4257.94873,4341.538574,4352.820313,450.0,4.0,86.0,,,,0.0,4.0,0.0,4.0,4.0,4.0,66.666664,,,,,,,,46.0,0.0,0.5948829999999999,-0.151855,0.644775,0.455322,0.9028459999999999,-0.41651000000000005,-0.11621300000000001,-0.033906,-0.038027,-0.026941000000000003,,,,,,,,,,,,,,,,,,,,,,,,,,,,,,,,,,,,,,,,,,,,,,,,,,,,,,,,,,,,,,,,,
43444,1645492056.97032,93.0,0.0,4277.436035,4566.153809,4242.563965,4357.436035,4345.641113000001,450.0,4.0,86.0,,,,0.0,4.0,0.0,4.0,4.0,4.0,66.666664,,,,,,,,,,,,,,,,,,,,,,,,,,,,,,,,,,,,,,,,,,,,,,,,,,,,,,,,,,,,,,,,,,,,,,,,,,,,,,,,,,,,
43445,1645492056.978035,94.0,0.0,4259.487305,4575.897461,4225.641113000001,4332.307617,4322.563965,450.0,4.0,86.0,,,,0.0,4.0,0.0,4.0,4.0,4.0,66.666664,,,,,,,,47.0,0.0,0.595086,-0.1521,0.6445310000000001,0.455322,0.913588,-0.41406899999999996,-0.12255999999999999,-0.033933,-0.037935,-0.029472,,,,,,,,,,,,,,,,,,,,,,,,,,,,,,,,,,,,,,,,,,,,,,,,,,,,,,,,,,,,,,,,,
43446,1645492056.9858491,95.0,0.0,4261.025879,4582.05127,4225.128418,4300.0,4308.205078,16219.0,4.0,86.0,,,,0.0,4.0,0.0,4.0,4.0,4.0,66.666664,,,,,,,,,,,,,,,,,,,,,,,,,,,,,,,,,,,,,,,,,,,,,,,,,,,,,,0.0,0.0,1.0,0.0,512.0,1.0,,,,,,,,,,,,,,,,,,,,,,,,,
43447,1645492056.993664,96.0,0.0,4259.487305,4545.641113000001,4228.717772999999,4286.153809,4293.333496,450.0,4.0,86.0,,,,0.0,4.0,0.0,4.0,4.0,4.0,66.666664,,,,,,,,48.0,0.0,0.595086,-0.1521,0.6445310000000001,0.455322,0.918959,-0.41113900000000003,-0.11816600000000001,-0.033957999999999995,-0.037901,-0.031749,,,,,,,,,,,,,,,,,,,,,,,,,,,,,,,,,,,,,,,,,,,,,,,,,,,,,,,,,,,,,,,,,
43448,1645492057.001479,97.0,0.0,4265.128418,4546.666504,4235.897461,4272.820313,4298.461426,450.0,4.0,86.0,,,,0.0,4.0,0.0,4.0,4.0,4.0,66.666664,,,,,,,,,,,,,,,,,,,,,,,,,,,,,,,,,,,,,,,,,,,,,,,,,,,,,,,,,,,,,,,,,,,,,,,,,,,,,,,,,,,,
43449,1645492057.009294,98.0,0.0,4292.307617,4591.282227000001,4243.077147999999,4307.179688,4342.563965,450.0,4.0,86.0,,,,0.0,4.0,0.0,4.0,4.0,4.0,66.666664,,,,,,,,49.0,0.0,0.595148,-0.151855,0.6445310000000001,0.455322,0.921401,-0.406744,-0.11914200000000001,-0.033931,-0.037969,-0.033799,,,,,,,,,,,,,,,,,,,,,,,,,,,,,,,,,,,,,,,,,,,,,,,,,,,,,,,,,,,,,,,,,
43450,1645492057.017109,99.0,0.0,4304.102539,4551.794922,4241.025879,4371.794922,4370.769043,16219.0,4.0,86.0,,,,0.0,4.0,0.0,4.0,4.0,4.0,66.666664,,,,,,,,,,,,,,,,,,,,1.0,0.0,0.0,,,,,,,,,,,,,,,,,,,,,,,,,,,,,,,,0.0,0.0,1.0,0.0,512.0,0.992442,48.310596000000004,12.162035000000001,12.781945,14.9219,8.897602000000001,5.657830000000001,6.962232000000001,2.796064,5.650168,4.597308,21.256242999999998,5.655757,5.880674,4.7860309999999995,4.201782,34.001175,17.072751999999998,6.949702,16.972576,11.020738,33.092293,16.817316,12.34362,14.049888000000001,10.800586000000001
43451,1645492057.024924,100.0,0.0,4324.615234000001,4512.307617,4259.487305,4384.615234000001,4382.05127,450.0,4.0,86.0,,,,0.0,4.0,0.0,4.0,4.0,4.0,66.666664,,,,,,,,50.0,0.0,0.5948829999999999,-0.151855,0.644775,0.455322,0.901869,-0.400885,-0.113771,-0.033761,-0.038029,-0.029296,,,,,,,,,,,,,,,,,,,,,,,,,,,,,,,,,,,,,,,,,,,,,,,,,,,,,,,,,,,,,,,,,
43452,1645492057.0327392,101.0,0.0,4360.0,4570.256348,4287.179688,4359.487305,4415.897461,450.0,4.0,86.0,,,,0.0,4.0,0.0,4.0,4.0,4.0,66.666664,,,,,,,,,,,,,,,,,,,,,,,,,,,,,,,,,,,,,,,,,,,,,,,,,,,,,,,,,,,,,,,,,,,,,,,,,,,,,,,,,,,,
43453,1645492057.040454,102.0,0.0,4337.94873,4594.871582,4266.666504,4350.256348,4403.077147999999,450.0,4.0,86.0,,,,0.0,4.0,0.0,4.0,4.0,4.0,66.666664,,,,,,,,51.0,0.0,0.594946,-0.151611,0.644775,0.455322,0.9126120000000001,-0.407233,-0.11767799999999999,-0.033559,-0.037986,-0.031689,,,,,,,,,,,,,,,,,,,,,,,,,,,,,,,,,,,,,,,,,,,,,,,,,,,,,,,,,,,,,,,,,
43454,1645492057.048269,103.0,0.0,4298.974121,4568.205078,4247.179688,4360.0,4351.794922,16219.0,4.0,86.0,,,,0.0,4.0,0.0,4.0,4.0,4.0,66.666664,,,,,,,,,,,,,,,,,,,,,,,,,,,,,,,,,,,,,,,,,,,,,,,,,,,,,,0.0,0.0,1.0,0.0,512.0,0.992442,,,,,,,,,,,,,,,,,,,,,,,,,
43455,1645492057.056083,104.0,0.0,4313.846191,4577.436035,4264.615234000001,4358.974121,4372.820313,450.0,4.0,86.0,,,,0.0,4.0,0.0,4.0,4.0,4.0,66.666664,,,,,,,,52.0,0.0,0.595195,-0.151367,0.644775,0.455078,0.9248190000000001,-0.42676400000000003,-0.11621300000000001,-0.033572000000000005,-0.037995999999999995,-0.033745,,,,,,,,,,,,,,,,,,,,,,,,,,,,,,,,,,,,,,,,,,,,,,,,,,,,,,,,,,,,,,,,,
43456,1645492057.063898,105.0,0.0,4338.461426,4567.692383,4267.179688,4353.846191,4418.974121,450.0,4.0,86.0,,,,0.0,4.0,0.0,4.0,4.0,4.0,66.666664,,,,,,,,,,,,,,,,,,,,,,,,,,,,,,,,,,,,,,,,,,,,,,,,,,,,,,,,,,,,,,,,,,,,,,,,,,,,,,,,,,,,
43457,1645492057.071713,106.0,0.0,4355.384765999999,4562.05127,4267.692383,4390.256348,4417.94873,450.0,4.0,86.0,,,,0.0,4.0,0.0,4.0,4.0,4.0,66.666664,,,,,,,,53.0,0.0,0.5952569999999999,-0.151123,0.644775,0.455078,0.9126120000000001,-0.410163,-0.11230599999999999,-0.033632999999999996,-0.037908,-0.029296,,,,,,,,,,,,,,,,,,,,,,,,,,,,,,,,,,,,,,,,,,,,,,,,,,,,,,,,,,,,,,,,,
43458,1645492057.0795279,107.0,0.0,4354.871582,4577.94873,4271.794922,4425.128418,4401.538574,16219.0,4.0,86.0,,,,0.0,4.0,0.0,4.0,4.0,4.0,66.666664,,,,,,,,,,,,,,,,,,,,,,,,,,,,,,,,,,,,,,,,,,,,,,,,,,,,,,0.0,0.0,1.0,0.0,512.0,0.992442,,,,,,,,,,,,,,,,,,,,,,,,,
43459,1645492057.087343,108.0,0.0,4314.871582,4558.974121,4240.512695,4377.436035,4378.974121,450.0,4.0,86.0,,,,0.0,4.0,0.0,4.0,4.0,4.0,66.666664,,,,,,,,54.0,0.0,0.5953189999999999,-0.15087899999999999,0.644775,0.455078,0.914565,-0.415534,-0.12549000000000002,-0.033638999999999995,-0.037756,-0.021737,,,,,,,,,,,,,,,,,,,,,,,,,,,,,,,,,,,,,,,,,,,,,,,,,,,,,,,,,,,,,,,,,
43460,1645492057.095158,109.0,0.0,4337.94873,4591.794922,4249.743652,4350.256348,4399.487305,450.0,4.0,86.0,,,,0.0,4.0,0.0,4.0,4.0,4.0,66.666664,,,,,,,,,,,,,,,,,,,,,,,,,,,,,,,,,,,,,,,,,,,,,,,,,,,,,,,,,,,,,,,,,,,,,,,,,,,,,,,,,,,,
43461,1645492057.102973,110.0,0.0,4405.128418,4613.333496,4311.282227000001,4441.538574,4466.153809,450.0,4.0,86.0,,,,0.0,4.0,0.0,4.0,4.0,4.0,66.666664,,,,,,,,55.0,0.0,0.5953189999999999,-0.15087899999999999,0.644775,0.455078,0.920424,-0.41992799999999997,-0.116701,-0.033742,-0.037838,-0.024837,,,,,,,,,,,,,,,,,,,,,,,,,,,,,,,,,,,,,,,,,,,,,,,,,,,,,,,,,,,,,,,,,
43462,1645492057.110688,111.0,0.0,4326.666504,4520.0,4258.974121,4465.641113000001,4425.128418,16219.0,4.0,86.0,,,,0.0,4.0,0.0,4.0,4.0,4.0,66.666664,,,,,,,,,,,,,,,,,,,,,,,,,,,,,,,,,,,,,,,,,,,,,,,,,,,,,,0.0,0.0,1.0,0.0,512.0,0.992442,,,,,,,,,,,,,,,,,,,,,,,,,
43463,1645492057.1185029,112.0,0.0,4190.769043,4511.282227000001,4151.282227000001,4352.820313,4311.794922,450.0,4.0,86.0,,,,0.0,4.0,0.0,4.0,4.0,4.0,66.666664,,,,,,,,56.0,0.0,0.5953189999999999,-0.15087899999999999,0.644775,0.455078,0.898451,-0.41065100000000004,-0.119631,-0.033688,-0.037814,-0.027627,,,,,,,,,,,,,,,,,,,,,,,,,,,,,,,,,,,,,,,,,,,,,,,,,,,,,,,,,,,,,,,,,
43464,1645492057.126318,113.0,0.0,4219.487305,4604.102539,4168.717772999999,4315.897461,4326.153809,450.0,4.0,86.0,,,,0.0,4.0,0.0,4.0,4.0,4.0,66.666664,,,,,,,,,,,,,,,,,,,,,,,,,,,,,,,,,,,,,,,,,,,,,,,,,,,,,,,,,,,,,,,,,,,,,,,,,,,,,,,,,,,,
43465,1645492057.1341321,114.0,0.0,4302.05127,4588.205078,4227.179688,4369.743652,4391.282227000001,450.0,4.0,86.0,,,,0.0,4.0,0.0,4.0,4.0,4.0,66.666664,,,,,,,,57.0,0.0,0.5953189999999999,-0.15087899999999999,0.644775,0.455078,0.914565,-0.415534,-0.12549000000000002,-0.033639999999999996,-0.037743,-0.023839,,,,,,,,,,,,,,,,,,,,,,,,,,,,,,,,,,,,,,,,,,,,,,,,,,,,,,,,,,,,,,,,,
43466,1645492057.141947,115.0,0.0,4282.05127,4541.538574,4208.717772999999,4383.077147999999,4355.384765999999,16219.0,4.0,86.0,,,,0.0,4.0,0.0,4.0,4.0,4.0,66.666664,1.0,16.666666,3.0,0.0,3.0,1.0,1.0,,,,,,,,,,,,,1.0,0.0,0.0,1.0,0.463552,0.9003760000000001,-0.052517999999999995,1.783457,1.0,0.567149,11.462473,3.7982980000000004,18.015546,0.6504340000000001,1.0,0.30941799999999997,-0.071604,-0.31869699999999995,0.396401,1.0,0.24339,0.662802,-0.281542,2.893031,1.0,0.509055,6.225661,-25.746572,38.598218,1.0,0.421544,0.592441,0.495047,0.717773,0.0,0.0,1.0,0.0,512.0,0.706461,53.367298,9.149014,11.861153,14.210904999999999,8.78486,6.6279,7.711353999999999,2.662721,5.728522,4.771936,18.116222,3.938763,5.608376,4.403046,4.029991000000001,38.075993,13.953926999999998,7.105778999999999,14.642282000000002,10.948784,37.604217999999996,14.052949,11.319884,13.490957,10.891145
43467,1645492057.149762,116.0,0.0,4245.641113000001,4555.384765999999,4194.871582,4383.589844,4328.717772999999,450.0,4.0,86.0,,,,0.0,4.0,0.0,4.0,4.0,4.0,66.666664,,,,,,,,58.0,0.0,0.5953189999999999,-0.15087899999999999,0.644775,0.455078,0.9126120000000001,-0.40528000000000003,-0.12695499999999998,-0.033547,-0.03768,-0.020527,,,,,,,,,,,,,,,,,,,,,,,,,,,,,,,,,,,,,,,,,,,,,,,,,,,,,,,,,,,,,,,,,
43468,1645492057.157577,117.0,0.0,4262.563965,4542.563965,4221.538574,4385.128418,4374.871582,450.0,4.0,86.0,,,,0.0,4.0,0.0,4.0,4.0,4.0,66.666664,,,,,,,,,,,,,,,,,,,,,,,,,,,,,,,,,,,,,,,,,,,,,,,,,,,,,,,,,,,,,,,,,,,,,,,,,,,,,,,,,,,,
43469,1645492057.165492,118.0,0.0,4269.743652,4522.563965,4225.641113000001,4339.487305,4370.256348,450.0,4.0,86.0,,,,0.0,4.0,0.0,4.0,4.0,4.0,66.666664,,,,,,,,59.0,0.0,0.595132,-0.15087899999999999,0.644775,0.455322,0.910658,-0.416022,-0.127932,-0.033611,-0.037672000000000004,-0.023797,,,,,,,,,,,,,,,,,,,,,,,,,,,,,,,,,,,,,,,,,,,,,,,,,,,,,,,,,,,,,,,,,
43470,1645492057.173308,119.0,0.0,4253.846191,4525.641113000001,4221.538574,4334.358886999999,4316.410156,16219.0,4.0,86.0,,,,0.0,4.0,0.0,4.0,4.0,4.0,66.666664,,,,,,,,,,,,,,,,,,,,,,,,,,,,,,,,,,,,,,,,,,,,,,,,,,,,,,10.0,0.0,1.0,0.0,512.0,0.706461,,,,,,,,,,,,,,,,,,,,,,,,,
43471,1645492057.181123,120.0,0.0,4257.94873,4531.794922,4239.487305,4393.846191,4323.077147999999,450.0,4.0,86.0,,,,0.0,4.0,0.0,4.0,4.0,4.0,66.666664,,,,,,,,60.0,0.0,0.595194,-0.150635,0.644775,0.455322,0.9111469999999999,-0.415534,-0.126467,-0.033569999999999996,-0.037811000000000004,-0.026642000000000002,,,,,,,,,,,,,,,,,,,,,,,,,,,,,,,,,,,,,,,,,,,,,,,,,,,,,,,,,,,,,,,,,
43472,1645492057.1889381,121.0,0.0,4274.871582,4534.871582,4261.025879,4425.641113000001,4377.94873,450.0,4.0,86.0,,,,0.0,4.0,0.0,4.0,4.0,4.0,66.666664,,,,,,,,,,,,,,,,,,,,,,,,,,,,,,,,,,,,,,,,,,,,,,,,,,,,,,,,,,,,,,,,,,,,,,,,,,,,,,,,,,,,
43473,1645492057.196754,122.0,0.0,4292.307617,4547.692383,4269.743652,4447.179688,4404.102539,450.0,4.0,86.0,,,,0.0,4.0,0.0,4.0,4.0,4.0,66.666664,,,,,,,,61.0,0.0,0.595132,-0.15087899999999999,0.644775,0.455322,0.9160299999999999,-0.40528000000000003,-0.131838,-0.033533,-0.037741000000000004,-0.029202,,,,,,,,,,,,,,,,,,,,,,,,,,,,,,,,,,,,,,,,,,,,,,,,,,,,,,,,,,,,,,,,,
43474,1645492057.2045689,123.0,0.0,4316.922852000001,4546.666504,4281.538574,4472.307617,4398.974121,16219.0,4.0,86.0,,,,0.0,4.0,0.0,4.0,4.0,4.0,66.666664,,,,,,,,,,,,,,,,,,,,,,,,,,,,,,,,,,,,,,,,,,,,,,,,,,,,,,10.0,0.0,1.0,0.0,512.0,0.706461,,,,,,,,,,,,,,,,,,,,,,,,,
43475,1645492057.212385,124.0,0.0,4301.025879,4529.743652,4271.794922,4444.615234000001,4383.589844,450.0,4.0,86.0,,,,0.0,4.0,0.0,4.0,4.0,4.0,66.666664,,,,,,,,62.0,0.0,0.595396,-0.15087899999999999,0.6445310000000001,0.455322,0.9087049999999999,-0.42236999999999997,-0.127443,-0.033549,-0.037727,-0.031556,,,,,,,,,,,,,,,,,,,,,,,,,,,,,,,,,,,,,,,,,,,,,,,,,,,,,,,,,,,,,,,,,
43476,1645492057.2202,125.0,0.0,4262.563965,4532.820313,4252.820313,4393.846191,4373.333496,450.0,4.0,86.0,,,,0.0,4.0,0.0,4.0,4.0,4.0,66.666664,,,,,,,,,,,,,,,,,,,,,,,,,,,,,,,,,,,,,,,,,,,,,,,,,,,,,,,,,,,,,,,,,,,,,,,,,,,,,,,,,,,,
43477,1645492057.228015,126.0,0.0,4287.692383,4521.538574,4264.102539,4389.230957,4389.230957,450.0,4.0,86.0,,,,0.0,4.0,0.0,4.0,4.0,4.0,66.666664,,,,,,,,63.0,0.0,0.595334,-0.151123,0.6445310000000001,0.455322,0.906264,-0.42188100000000006,-0.13086099999999998,-0.033612,-0.037811000000000004,-0.033625,,,,,,,,,,,,,,,,,,,,,,,,,,,,,,,,,,,,,,,,,,,,,,,,,,,,,,,,,,,,,,,,,
43478,1645492057.235831,127.0,0.0,4333.846191,4522.563965,4278.461426,4423.589844,4404.102539,241.0,4.0,86.0,,,,0.0,4.0,0.0,4.0,4.0,4.0,66.666664,,,,,,,,,,,,,,,,,,,,,,,,,,,,,,,,,,,,,,,,,,,,,,,,,,,,,,10.0,0.0,1.0,0.0,512.0,0.706461,,,,,,,,,,,,,,,,,,,,,,,,,
43479,1645492057.2436461,0.0,0.0,4319.487305,4606.666504,4275.384765999999,4421.538574,4401.538574,450.0,4.0,86.0,,,,0.0,4.0,0.0,4.0,4.0,4.0,66.666664,,,,,,,,0.0,0.0,0.59507,-0.151123,0.644775,0.455322,0.9160299999999999,-0.41846300000000003,-0.116701,-0.03362,-0.037985000000000005,-0.029237,,,,,,,,,,,,,,,,,,,,,,,,,,,,,,,,,,,,,,,,,,,,,,,,,,,,,,,,,,,,,,,,,
43480,1645492057.251361,1.0,0.0,4303.077147999999,4652.820313,4288.717772999999,4397.94873,4415.384765999999,450.0,4.0,86.0,,,,0.0,4.0,0.0,2.0,4.0,4.0,50.0,,,,,,,,,,,,,,,,,,,,,,,,,,,,,,,,,,,,,,,,,,,,,,,,,,,,,,,,,,,,,,,,,,,,,,,,,,,,,,,,,,,,
43481,1645492057.259176,2.0,0.0,4323.077147999999,4557.436035,4302.563965,4412.820313,4442.05127,16183.0,4.0,86.0,,,,0.0,4.0,0.0,2.0,4.0,4.0,50.0,,,,,,,,1.0,0.0,0.595272,-0.151367,0.6445310000000001,0.455322,0.9150530000000001,-0.404791,-0.143557,-0.033481,-0.038044,-0.031538,,,,,,,,,,,,,,,,,,,,,,,,,,,,,,,,,,,,,,,,,,,,,,,,,,,,,,,,,,,,,,,,,
43482,1645492057.266991,3.0,0.0,4331.282227000001,4521.538574,4291.794922,4424.102539,4453.846191,450.0,4.0,86.0,,,,0.0,4.0,0.0,2.0,4.0,4.0,50.0,,,,,,,,,,,,,,,,,,,,1.0,0.0,0.0,,,,,,,,,,,,,,,,,,,,,,,,,,,,,,,,10.0,0.0,1.0,0.0,512.0,0.9418770000000001,58.533984999999994,7.1151,11.108092,13.387607000000001,8.635807000000002,8.132488,8.590883999999999,3.007509,5.819229,5.111443,16.495108,2.706503,5.074724,4.008357,3.781303,43.813519,11.674485,7.4819119999999995,13.245296,10.986705,40.985034999999996,11.41056,10.05498,13.035803,10.907591
43483,1645492057.274807,4.0,0.0,4329.230957,4619.487305,4292.820313,4404.615234000001,4454.871582,0.0,4.0,86.0,,,,0.0,4.0,0.0,2.0,4.0,4.0,50.0,,,,,,,,2.0,0.0,0.59521,-0.151611,0.6445310000000001,0.455322,0.9116350000000001,-0.409186,-0.12109600000000001,-0.033404,-0.038049,-0.027408,,,,,,,,,,,,,,,,,,,,,,,,,,,,,,,,,,,,,,,,,,,,,,,,,,,,,,,,,,,,,,,,,
43484,1645492057.282622,5.0,0.0,4350.256348,4621.538574,4305.641113000001,4411.794922,4458.974121,450.0,4.0,86.0,,,,0.0,4.0,0.0,2.0,4.0,4.0,50.0,,,,,,,,,,,,,,,,,,,,,,,,,,,,,,,,,,,,,,,,,,,,,,,,,,,,,,,,,,,,,,,,,,,,,,,,,,,,,,,,,,,,
43485,1645492057.290437,6.0,0.0,4366.666504,4546.153809,4307.692383,4450.769043,4462.563965,326.0,4.0,86.0,,,,0.0,4.0,0.0,2.0,4.0,4.0,50.0,,,,,,,,3.0,0.0,0.59521,-0.151611,0.6445310000000001,0.455322,0.901869,-0.401862,-0.121584,-0.033482,-0.038051999999999996,-0.023544,,,,,,,,,,,,,,,,,,,,,,,,,,,,,,,,,,,,,,,,,,,,,,,,,,,,,,,,,,,,,,,,,
43486,1645492057.2982519,7.0,0.0,4311.794922,4549.230957,4283.589844,4441.538574,4435.384765999999,450.0,4.0,86.0,,,,0.0,4.0,0.0,2.0,4.0,4.0,50.0,,,,,,,,,,,,,,,,,,,,,,,,,,,,,,,,,,,,,,,,,,,,,,,,,,,,,,10.0,0.0,1.0,0.0,512.0,0.9418770000000001,,,,,,,,,,,,,,,,,,,,,,,,,
43487,1645492057.306067,8.0,0.0,4260.0,4568.717772999999,4247.179688,4394.871582,4400.512695,450.0,4.0,86.0,,,,0.0,4.0,0.0,2.0,4.0,4.0,50.0,,,,,,,,4.0,0.0,0.59507,-0.151855,0.644775,0.455078,0.9131,-0.423835,-0.11767799999999999,-0.033405000000000004,-0.038105,-0.026463,,,,,,,,,,,,,,,,,,,,,,,,,,,,,,,,,,,,,,,,,,,,,,,,,,,,,,,,,,,,,,,,,
43488,1645492057.313782,9.0,0.0,4305.641113000001,4563.077147999999,4256.410156,4384.102539,4404.615234000001,16217.0,4.0,86.0,,,,0.0,4.0,0.0,2.0,4.0,4.0,50.0,,,,,,,,,,,,,,,,,,,,,,,,,,,,,,,,,,,,,,,,,,,,,,,,,,,,,,,,,,,,,,,,,,,,,,,,,,,,,,,,,,,,
43489,1645492057.321597,10.0,0.0,4331.794922,4566.666504,4288.205078,4376.410156,4413.846191,450.0,4.0,86.0,,,,0.0,4.0,0.0,2.0,4.0,4.0,50.0,,,,,,,,5.0,0.0,0.5952569999999999,-0.151855,0.644775,0.454834,0.921401,-0.415534,-0.124025,-0.033385000000000005,-0.038054000000000004,-0.029041,,,,,,,,,,,,,,,,,,,,,,,,,,,,,,,,,,,,,,,,,,,,,,,,,,,,,,,,,,,,,,,,,
43490,1645492057.3294132,11.0,0.0,4294.358886999999,4564.615234000001,4286.666504,4354.358886999999,4403.589844,16208.0,4.0,86.0,,,,0.0,4.0,0.0,2.0,4.0,4.0,50.0,,,,,,,,,,,,,,,,,,,,,,,,,,,,,,,,,,,,,,,,,,,,,,,,,,,,,,0.0,0.0,1.0,0.0,512.0,0.9418770000000001,,,,,,,,,,,,,,,,,,,,,,,,,
43491,1645492057.3372278,12.0,0.0,4317.436035,4592.820313,4284.102539,4355.384765999999,4418.974121,450.0,4.0,86.0,,,,0.0,4.0,0.0,2.0,4.0,4.0,50.0,,,,,,,,6.0,0.0,0.5949300000000001,-0.1521,0.6450199999999999,0.454834,0.928725,-0.404791,-0.12842,-0.033416,-0.038106,-0.025063,,,,,,,,,,,,,,,,,,,,,,,,,,,,,,,,,,,,,,,,,,,,,,,,,,,,,,,,,,,,,,,,,
43492,1645492057.345043,13.0,0.0,4388.205078,4665.128418,4311.794922,4381.538574,4465.128418,450.0,4.0,86.0,,,,0.0,4.0,0.0,2.0,4.0,4.0,50.0,,,,,,,,,,,,,,,,,,,,,,,,,,,,,,,,,,,,,,,,,,,,,,,,,,,,,,,,,,,,,,,,,,,,,,,,,,,,,,,,,,,,
43493,1645492057.352858,14.0,0.0,4395.384765999999,4660.512695,4328.205078,4394.358886999999,4479.487305,450.0,4.0,86.0,,,,0.0,4.0,0.0,2.0,4.0,4.0,50.0,,,,,,,,7.0,0.0,0.5949300000000001,-0.1521,0.6450199999999999,0.454834,0.9277489999999999,-0.408209,-0.124025,-0.033297,-0.038251,-0.027879,,,,,,,,,,,,,,,,,,,,,,,,,,,,,,,,,,,,,,,,,,,,,,,,,,,,,,,,,,,,,,,,,
43494,1645492057.360673,15.0,0.0,4353.846191,4572.307617,4311.794922,4382.05127,4459.487305,16208.0,4.0,86.0,,,,0.0,4.0,0.0,2.0,4.0,4.0,50.0,,,,,,,,,,,,,,,,,,,,,,,,,,,,,,,,,,,,,,,,,,,,,,,,,,,,,,12.0,0.0,1.0,0.0,512.0,0.9418770000000001,,,,,,,,,,,,,,,,,,,,,,,,,
43495,1645492057.368488,16.0,0.0,4364.615234000001,4529.743652,4321.025879,4407.692383,4481.538574,0.0,4.0,86.0,,,,0.0,4.0,0.0,2.0,4.0,4.0,50.0,,,,,,,,8.0,0.0,0.594867,-0.152344,0.6450199999999999,0.454834,0.9126120000000001,-0.409186,-0.113283,-0.033336000000000005,-0.038185000000000004,-0.030267000000000002,,,,,,,,,,,,,,,,,,,,,,,,,,,,,,,,,,,,,,,,,,,,,,,,,,,,,,,,,,,,,,,,,
43496,1645492057.376303,17.0,0.0,4411.282227000001,4545.128418,4349.230957,4463.589844,4527.179688,0.0,4.0,86.0,,,,0.0,4.0,0.0,2.0,4.0,4.0,50.0,,,,,,,,,,,,,,,,,,,,,,,,,,,,,,,,,,,,,,,,,,,,,,,,,,,,,,,,,,,,,,,,,,,,,,,,,,,,,,,,,,,,
43497,1645492057.384218,18.0,0.0,4394.871582,4582.05127,4340.0,4465.128418,4507.179688,0.0,4.0,86.0,,,,0.0,4.0,0.0,2.0,4.0,4.0,50.0,,,,,,,,9.0,0.0,0.594681,-0.152344,0.6450199999999999,0.455078,0.9150530000000001,-0.40528000000000003,-0.119631,-0.033225,-0.038175,-0.032416,,,,,,,,,,,,,,,,,,,,,,,,,,,,,,,,,,,,,,,,,,,,,,,,,,,,,,,,,,,,,,,,,
43498,1645492057.392033,19.0,0.0,4355.384765999999,4589.743652,4321.538574,4432.820313,4460.512695,0.0,4.0,86.0,,,,0.0,4.0,0.0,2.0,4.0,4.0,50.0,,,,,,,,,,,,,,,,,,,,1.0,0.0,0.0,,,,,,,,,,,,,,,,,,,,,,,,,,,,,,,,12.0,0.0,1.0,0.0,512.0,1.0,61.793445999999996,6.705888000000001,11.324163,13.059026,8.513732000000001,9.710265,9.309728,3.6634559999999996,5.864758,5.514229,16.397043,2.146447,4.587368,3.817568,3.5222339999999996,49.803356,10.592108999999999,8.446336,13.703675,11.100817999999999,42.271049,9.673155,9.377626,13.198194,10.819697999999999
43499,1645492057.399849,20.0,0.0,4371.282227000001,4538.461426,4338.974121,4415.384765999999,4473.333496,0.0,4.0,86.0,,,,0.0,4.0,0.0,2.0,4.0,4.0,50.0,,,,,,,,10.0,0.0,0.594681,-0.152344,0.6450199999999999,0.455078,0.906752,-0.421393,-0.11230599999999999,-0.033125999999999996,-0.038264,-0.034399,,,,,,,,,,,,,,,,,,,,,,,,,,,,,,,,,,,,,,,,,,,,,,,,,,,,,,,,,,,,,,,,,
43500,1645492057.407664,21.0,0.0,4374.358886999999,4528.717772999999,4325.641113000001,4386.666504,4485.128418,0.0,4.0,86.0,,,,0.0,4.0,0.0,2.0,4.0,4.0,50.0,,,,,,,,,,,,,,,,,,,,,,,,,,,,,,,,,,,,,,,,,,,,,,,,,,,,,,,,,,,,,,,,,,,,,,,,,,,,,,,,,,,,
43501,1645492057.415479,22.0,0.0,4358.461426,4603.077147999999,4297.94873,4384.615234000001,4466.666504,0.0,4.0,86.0,,,,0.0,4.0,0.0,2.0,4.0,4.0,50.0,,,,,,,,11.0,0.0,0.594618,-0.152588,0.6450199999999999,0.455078,0.921889,-0.417487,-0.12549000000000002,-0.033280000000000004,-0.038294999999999996,-0.029934,,,,,,,,,,,,,,,,,,,,,,,,,,,,,,,,,,,,,,,,,,,,,,,,,,,,,,,,,,,,,,,,,
43502,1645492057.4232938,23.0,0.0,4396.922852000001,4617.94873,4334.871582,4456.410156,4491.282227000001,0.0,4.0,86.0,,,,0.0,4.0,0.0,2.0,4.0,4.0,50.0,,,,,,,,,,,,,,,,,,,,,,,,,,,,,,,,,,,,,,,,,,,,,,,,,,,,,,12.0,0.0,1.0,0.0,512.0,1.0,,,,,,,,,,,,,,,,,,,,,,,,,
43503,1645492057.431109,24.0,0.0,4402.05127,4578.461426,4338.974121,4445.641113000001,4482.05127,0.0,4.0,86.0,,,,0.0,4.0,0.0,2.0,4.0,4.0,50.0,,,,,,,,12.0,0.0,0.594681,-0.152344,0.6450199999999999,0.455078,0.9150530000000001,-0.40528000000000003,-0.119631,-0.033320999999999996,-0.038274,-0.026062000000000002,,,,,,,,,,,,,,,,,,,,,,,,,,,,,,,,,,,,,,,,,,,,,,,,,,,,,,,,,,,,,,,,,
43504,1645492057.438924,25.0,0.0,4335.897461,4617.94873,4286.153809,4323.589844,4413.333496,0.0,4.0,86.0,,,,0.0,4.0,0.0,2.0,4.0,4.0,50.0,,,,,,,,,,,,,,,,,,,,,,,,,,,,,,,,,,,,,,,,,,,,,,,,,,,,,,,,,,,,,,,,,,,,,,,,,,,,,,,,,,,,
43505,1645492057.446739,26.0,0.0,4324.615234000001,4640.512695,4295.897461,4310.256348,4409.743652,0.0,4.0,86.0,,,,0.0,4.0,0.0,2.0,4.0,4.0,50.0,,,,,,,,13.0,0.0,0.594618,-0.152588,0.6450199999999999,0.455078,0.921889,-0.417487,-0.12549000000000002,-0.033456,-0.038304000000000005,-0.022430000000000002,,,,,,,,,,,,,,,,,,,,,,,,,,,,,,,,,,,,,,,,,,,,,,,,,,,,,,,,,,,,,,,,,
43506,1645492057.454654,27.0,0.0,4356.410156,4575.897461,4326.666504,4374.358886999999,4441.025879,0.0,4.0,86.0,,,,0.0,4.0,0.0,2.0,4.0,4.0,50.0,,,,,,,,,,,,,,,,,,,,,,,,,,,,,,,,,,,,,,,,,,,,,,,,,,,,,,12.0,0.0,1.0,0.0,512.0,1.0,,,,,,,,,,,,,,,,,,,,,,,,,
43507,1645492057.4624689,28.0,0.0,4326.666504,4550.256348,4287.692383,4347.692383,4395.384765999999,0.0,4.0,86.0,,,,0.0,4.0,0.0,2.0,4.0,4.0,50.0,,,,,,,,14.0,0.0,0.594618,-0.152588,0.6450199999999999,0.455078,0.91017,-0.42822899999999997,-0.13086099999999998,-0.033431,-0.038234,-0.025363,,,,,,,,,,,,,,,,,,,,,,,,,,,,,,,,,,,,,,,,,,,,,,,,,,,,,,,,,,,,,,,,,
43508,1645492057.470285,29.0,0.0,4277.94873,4614.358886999999,4255.897461,4284.615234000001,4335.384765999999,0.0,4.0,86.0,,,,0.0,4.0,0.0,2.0,4.0,4.0,50.0,,,,,,,,,,,,,,,,,,,,,,,,,,,,,,,,,,,,,,,,,,,,,,,,,,,,,,,,,,,,,,,,,,,,,,,,,,,,,,,,,,,,
43509,1645492057.4781,30.0,0.0,4301.538574,4647.179688,4290.769043,4320.512695,4357.436035,0.0,4.0,86.0,,,,0.0,4.0,0.0,2.0,4.0,4.0,50.0,,,,,,,,15.0,0.0,0.594805,-0.152588,0.6450199999999999,0.454834,0.9028459999999999,-0.427741,-0.127932,-0.033408,-0.038120999999999995,-0.02185,,,,,,,,,,,,,,,,,,,,,,,,,,,,,,,,,,,,,,,,,,,,,,,,,,,,,,,,,,,,,,,,,
43510,1645492057.485915,31.0,0.0,4357.436035,4588.205078,4329.230957,4432.307617,4417.436035,0.0,4.0,86.0,,,,0.0,4.0,0.0,2.0,4.0,4.0,50.0,,,,,,,,,,,,,,,,,,,,,,,,,,,,,,,,,,,,,,,,,,,,,,,,,,,,,,0.0,0.0,1.0,0.0,512.0,1.0,,,,,,,,,,,,,,,,,,,,,,,,,
43511,1645492057.49373,32.0,0.0,4372.307617,4561.538574,4322.05127,4464.615234000001,4434.358886999999,0.0,4.0,86.0,,,,0.0,4.0,0.0,2.0,4.0,4.0,50.0,,,,,,,,16.0,0.0,0.5951930000000001,-0.152832,0.644775,0.45458999999999994,0.903334,-0.41406899999999996,-0.12060699999999999,-0.033436,-0.038167,-0.024841,,,,,,,,,,,,,,,,,,,,,,,,,,,,,,,,,,,,,,,,,,,,,,,,,,,,,,,,,,,,,,,,,
43512,1645492057.501545,33.0,0.0,4393.333496,4628.205078,4319.487305,4400.512695,4420.512695,0.0,4.0,86.0,,,,0.0,4.0,0.0,2.0,4.0,4.0,50.0,,,,,,,,,,,,,,,,,,,,,,,,,,,,,,,,,,,,,,,,,,,,,,,,,,,,,,,,,,,,,,,,,,,,,,,,,,,,,,,,,,,,
43513,1645492057.50936,34.0,0.0,4452.820313,4684.102539,4356.410156,4427.179688,4454.358886999999,0.0,4.0,86.0,,,,0.0,4.0,0.0,2.0,4.0,4.0,50.0,,,,,,,,17.0,0.0,0.5951930000000001,-0.152832,0.644775,0.45458999999999994,0.906752,-0.411627,-0.113283,-0.033413,-0.038110000000000005,-0.027533,,,,,,,,,,,,,,,,,,,,,,,,,,,,,,,,,,,,,,,,,,,,,,,,,,,,,,,,,,,,,,,,,
43514,1645492057.517175,35.0,0.0,4443.077147999999,4650.256348,4369.743652,4513.846191,4491.282227000001,0.0,4.0,86.0,,,,0.0,4.0,0.0,2.0,4.0,4.0,50.0,,,,,,,,,,,,,,,,,,,,1.0,0.0,0.0,,,,,,,,,,,,,,,,,,,,,,,,,,,,,,,,0.0,0.0,1.0,0.0,512.0,1.0,64.061073,8.032575,12.811247999999999,13.430202,8.447830999999999,10.802978,9.543142,4.433211,5.806266,5.918958,17.522278,2.338222,4.382299,3.926908,3.3226190000000004,54.258064000000005,10.796104,9.979628,15.922901000000001,11.092336,42.187958,9.364646,9.807089999999999,14.02564,10.539805
43515,1645492057.52499,36.0,0.0,4394.358886999999,4602.563965,4340.512695,4469.743652,4460.0,0.0,4.0,86.0,,,,0.0,4.0,0.0,2.0,4.0,4.0,50.0,,,,,,,,18.0,0.0,0.59538,-0.152832,0.644775,0.454346,0.925307,-0.39697899999999997,-0.12255999999999999,-0.03349,-0.037961,-0.023803,,,,,,,,,,,,,,,,,,,,,,,,,,,,,,,,,,,,,,,,,,,,,,,,,,,,,,,,,,,,,,,,,
43516,1645492057.532706,37.0,0.0,4442.05127,4598.974121,4334.871582,4425.128418,4454.358886999999,0.0,4.0,86.0,,,,0.0,4.0,0.0,2.0,4.0,4.0,50.0,,,,,,,,,,,,,,,,,,,,,,,,,,,,,,,,,,,,,,,,,,,,,,,,,,,,,,,,,,,,,,,,,,,,,,,,,,,,,,,,,,,,
43517,1645492057.5405211,38.0,0.0,4495.897461,4610.256348,4347.179688,4483.077147999999,4492.820313,0.0,4.0,86.0,,,,0.0,4.0,0.0,2.0,4.0,4.0,50.0,,,,,,,,19.0,0.0,0.595767,-0.153076,0.6445310000000001,0.45410200000000006,0.9043110000000001,-0.40381500000000004,-0.11767799999999999,-0.033510000000000005,-0.037974,-0.026695999999999998,,,,,,,,,,,,,,,,,,,,,,,,,,,,,,,,,,,,,,,,,,,,,,,,,,,,,,,,,,,,,,,,,
43518,1645492057.548336,39.0,0.0,4439.487305,4633.333496,4335.384765999999,4456.922852000001,4467.179688,0.0,4.0,86.0,,,,0.0,4.0,0.0,2.0,4.0,4.0,50.0,,,,,,,,,,,,,,,,,,,,,,,,,,,,,,,,,,,,,,,,,,,,,,,,,,,,,,0.0,0.0,1.0,0.0,512.0,1.0,,,,,,,,,,,,,,,,,,,,,,,,,
43519,1645492057.556151,40.0,0.0,4393.846191,4648.717772999999,4331.282227000001,4383.077147999999,4418.974121,0.0,4.0,86.0,,,,0.0,4.0,0.0,2.0,4.0,4.0,50.0,,,,,,,,20.0,0.0,0.595767,-0.153076,0.6445310000000001,0.45410200000000006,0.9155409999999999,-0.416022,-0.12109600000000001,-0.033576999999999996,-0.037985000000000005,-0.029202,,,,,,,,,,,,,,,,,,,,,,,,,,,,,,,,,,,,,,,,,,,,,,,,,,,,,,,,,,,,,,,,,
43520,1645492057.563966,41.0,0.0,4433.846191,4609.230957,4348.717772999999,4412.820313,4437.94873,0.0,4.0,86.0,,,,0.0,4.0,0.0,2.0,4.0,4.0,50.0,,,,,,,,,,,,,,,,,,,,,,,,,,,,,,,,,,,,,,,,,,,,,,,,,,,,,,,,,,,,,,,,,,,,,,,,,,,,,,,,,,,,
43521,1645492057.5717812,42.0,0.0,4474.358886999999,4554.358886999999,4353.846191,4450.256348,4465.128418,0.0,4.0,86.0,,,,0.0,4.0,0.0,2.0,4.0,4.0,50.0,,,,,,,,21.0,0.0,0.596217,-0.153076,0.6442869999999999,0.45385699999999995,0.8881969999999999,-0.399908,-0.131838,-0.033637,-0.037849,-0.025305,,,,,,,,,,,,,,,,,,,,,,,,,,,,,,,,,,,,,,,,,,,,,,,,,,,,,,,,,,,,,,,,,
43522,1645492057.579596,43.0,0.0,4467.692383,4586.666504,4330.256348,4430.769043,4422.05127,0.0,4.0,86.0,,,,0.0,4.0,0.0,2.0,4.0,4.0,50.0,,,,,,,,,,,,,,,,,,,,,,,,,,,,,,,,,,,,,,,,,,,,,,,,,,,,,,0.0,0.0,1.0,0.0,512.0,1.0,,,,,,,,,,,,,,,,,,,,,,,,,
43523,1645492057.587411,44.0,0.0,4418.974121,4672.820313,4308.205078,4400.0,4366.666504,0.0,4.0,86.0,,,,0.0,4.0,0.0,2.0,4.0,4.0,50.0,,,,,,,,22.0,0.0,0.596403,-0.153076,0.6442869999999999,0.453613,0.921401,-0.400885,-0.128908,-0.033545,-0.037824,-0.027951,,,,,,,,,,,,,,,,,,,,,,,,,,,,,,,,,,,,,,,,,,,,,,,,,,,,,,,,,,,,,,,,,
43524,1645492057.595227,45.0,0.0,4406.666504,4692.307617,4331.794922,4398.461426,4398.461426,0.0,4.0,86.0,,,,0.0,4.0,0.0,2.0,4.0,4.0,50.0,,,,,,,,,,,,,,,,,,,,,,,,,,,,,,,,,,,,,,,,,,,,,,,,,,,,,,,,,,,,,,,,,,,,,,,,,,,,,,,,,,,,
43525,1645492057.602942,46.0,0.0,4461.538574,4617.94873,4368.717772999999,4442.563965,4465.128418,0.0,4.0,86.0,,,,0.0,4.0,0.0,2.0,4.0,4.0,50.0,,,,,,,,23.0,0.0,0.596589,-0.153076,0.6442869999999999,0.45336899999999997,0.9150530000000001,-0.415534,-0.118654,-0.033462,-0.037948,-0.024130000000000002,,,,,,,,,,,,,,,,,,,,,,,,,,,,,,,,,,,,,,,,,,,,,,,,,,,,,,,,,,,,,,,,,
43526,1645492057.610757,47.0,0.0,4484.615234000001,4536.922852000001,4333.333496,4441.025879,4448.205078,0.0,4.0,86.0,,,,0.0,4.0,0.0,2.0,4.0,4.0,50.0,,,,,,,,,,,,,,,,,,,,,,,,,,,,,,,,,,,,,,,,,,,,,,,,,,,,,,0.0,0.0,1.0,0.0,512.0,1.0,,,,,,,,,,,,,,,,,,,,,,,,,
43527,1645492057.618572,48.0,0.0,4463.589844,4554.358886999999,4290.769043,4393.846191,4405.641113000001,0.0,4.0,86.0,,,,0.0,4.0,0.0,2.0,4.0,4.0,50.0,,,,,,,,24.0,0.0,0.596589,-0.153076,0.6442869999999999,0.45336899999999997,0.9194479999999999,-0.40235,-0.121584,-0.033436,-0.03801,-0.026942,,,,,,,,,,,,,,,,,,,,,,,,,,,,,,,,,,,,,,,,,,,,,,,,,,,,,,,,,,,,,,,,,
43528,1645492057.626387,49.0,0.0,4487.692383,4613.333496,4330.256348,4428.717772999999,4444.615234000001,0.0,4.0,86.0,,,,0.0,4.0,0.0,2.0,4.0,4.0,50.0,,,,,,,,,,,,,,,,,,,,,,,,,,,,,,,,,,,,,,,,,,,,,,,,,,,,,,,,,,,,,,,,,,,,,,,,,,,,,,,,,,,,
43529,1645492057.634202,50.0,0.0,4534.358886999999,4578.461426,4351.794922,4483.589844,4487.179688,0.0,4.0,86.0,,,,0.0,4.0,0.0,2.0,4.0,4.0,50.0,,,,,,,,25.0,0.0,0.596852,-0.153076,0.644043,0.45336899999999997,0.9243309999999999,-0.396002,-0.123049,-0.033413,-0.038018,-0.029472,,,,,,,,,,,,,,,,,,,,,,,,,,,,,,,,,,,,,,,,,,,,,,,,,,,,,,,,,,,,,,,,,
43530,1645492057.642017,51.0,0.0,4527.179688,4520.0,4305.641113000001,4435.384765999999,4446.153809,0.0,4.0,86.0,,,,0.0,4.0,0.0,2.0,4.0,4.0,50.0,1.0,16.666666,3.0,0.0,2.0,1.0,1.0,,,,,,,,,,,,,1.0,0.0,0.0,,,,,,,,,,,,,,,,,,,,,,,,,,,,,,,,10.0,0.0,1.0,0.0,512.0,1.0,64.225998,10.595118,15.169313,14.183222,8.432488000000001,11.119028,9.198993,5.1792300000000004,5.671843,6.35385,19.203953,3.132571,4.496265,4.248783,3.22768,56.847549,12.058757,11.564359,18.880526,10.757371000000001,41.521263,10.49103,11.226822,15.055148999999998,9.996546
43531,1645492057.649833,52.0,0.0,4522.05127,4564.615234000001,4303.589844,4392.820313,4412.820313,0.0,4.0,86.0,,,,0.0,4.0,0.0,2.0,4.0,4.0,50.0,,,,,,,,26.0,0.0,0.596852,-0.153076,0.644043,0.45336899999999997,0.917006,-0.392584,-0.12060699999999999,-0.03349,-0.037975999999999996,-0.0255,,,,,,,,,,,,,,,,,,,,,,,,,,,,,,,,,,,,,,,,,,,,,,,,,,,,,,,,,,,,,,,,,
43532,1645492057.657648,53.0,0.0,4561.025879,4599.487305,4347.692383,4416.922852000001,4454.871582,0.0,4.0,86.0,,,,0.0,4.0,0.0,2.0,4.0,4.0,50.0,,,,,,,,,,,,,,,,,,,,,,,,,,,,,,,,,,,,,,,,,,,,,,,,,,,,,,,,,,,,,,,,,,,,,,,,,,,,,,,,,,,,
43533,1645492057.665463,54.0,0.0,4599.487305,4552.307617,4340.512695,4416.922852000001,4512.307617,0.0,4.0,86.0,,,,0.0,4.0,0.0,2.0,4.0,4.0,50.0,,,,,,,,27.0,0.0,0.596589,-0.153076,0.6442869999999999,0.45336899999999997,0.904799,-0.406256,-0.122072,-0.033510000000000005,-0.038085,-0.022022,,,,,,,,,,,,,,,,,,,,,,,,,,,,,,,,,,,,,,,,,,,,,,,,,,,,,,,,,,,,,,,,,
43534,1645492057.673178,55.0,0.0,4633.846191,4552.820313,4314.871582,4388.717772999999,4561.538574,0.0,4.0,86.0,,,,0.0,4.0,0.0,2.0,4.0,4.0,50.0,,,,,,,,,,,,,,,,,,,,,,,,,,,,,,,,,,,,,,,,,,,,,,,,,,,,,,0.0,0.0,1.0,0.0,512.0,1.0,,,,,,,,,,,,,,,,,,,,,,,,,
43535,1645492057.680993,56.0,0.0,4691.282227000001,4600.512695,4322.563965,4347.692383,4592.820313,0.0,4.0,86.0,,,,0.0,4.0,0.0,2.0,4.0,4.0,50.0,,,,,,,,28.0,0.0,0.596202,-0.152832,0.6445310000000001,0.453613,0.918959,-0.39453699999999997,-0.12255999999999999,-0.033479,-0.038085,-0.025044999999999998,,,,,,,,,,,,,,,,,,,,,,,,,,,,,,,,,,,,,,,,,,,,,,,,,,,,,,,,,,,,,,,,,
43536,1645492057.688808,57.0,0.0,4742.05127,4596.922852000001,4330.256348,4315.384765999999,4587.692383,0.0,4.0,86.0,,,,0.0,4.0,0.0,2.0,4.0,4.0,50.0,,,,,,,,,,,,,,,,,,,,,,,,,,,,,,,,,,,,,,,,,,,,,,,,,,,,,,,,,,,,,,,,,,,,,,,,,,,,,,,,,,,,
43537,1645492057.696623,58.0,0.0,4773.846191,4570.769043,4332.820313,4352.307617,4610.256348,0.0,4.0,86.0,,,,0.0,4.0,0.0,2.0,4.0,4.0,50.0,,,,,,,,29.0,0.0,0.595877,-0.152344,0.644775,0.45385699999999995,0.9199360000000001,-0.38721300000000003,-0.129397,-0.033549,-0.038036,-0.027716,,,,,,,,,,,,,,,,,,,,,,,,,,,,,,,,,,,,,,,,,,,,,,,,,,,,,,,,,,,,,,,,,
43538,1645492057.704438,59.0,0.0,4833.846191,4544.615234000001,4338.974121,4426.666504,4712.820313,0.0,4.0,86.0,,,,0.0,4.0,0.0,2.0,4.0,4.0,50.0,,,,,,,,,,,,,,,,,,,,,,,,,,,,,,,,,,,,,,,,,,,,,,,,,,,,,,0.0,0.0,1.0,0.0,512.0,1.0,,,,,,,,,,,,,,,,,,,,,,,,,
43539,1645492057.7122538,60.0,0.0,4888.717772999999,4498.461426,4344.102539,4446.666504,4791.794922,0.0,4.0,86.0,,,,0.0,4.0,0.0,2.0,4.0,4.0,50.0,,,,,,,,30.0,0.0,0.595163,-0.151611,0.6452640000000001,0.454346,0.9111469999999999,-0.397467,-0.12695499999999998,-0.033417,-0.038041000000000005,-0.030119999999999997,,,,,,,,,,,,,,,,,,,,,,,,,,,,,,,,,,,,,,,,,,,,,,,,,,,,,,,,,,,,,,,,,
43540,1645492057.720069,61.0,0.0,4856.922852000001,4484.615234000001,4355.897461,4417.436035,4773.333496,0.0,4.0,86.0,,,,0.0,4.0,0.0,2.0,4.0,4.0,50.0,,,,,,,,,,,,,,,,,,,,,,,,,,,,,,,,,,,,,,,,,,,,,,,,,,,,,,,,,,,,,,,,,,,,,,,,,,,,,,,,,,,,
43541,1645492057.727884,62.0,0.0,4806.666504,4531.282227000001,4348.717772999999,4414.358886999999,4782.05127,0.0,4.0,86.0,,,,0.0,4.0,0.0,2.0,4.0,4.0,50.0,,,,,,,,31.0,0.0,0.5939939999999999,-0.15087899999999999,0.645996,0.455078,0.914076,-0.382818,-0.11621300000000001,-0.030124,-0.038143,-0.026083,,,,,,,,,,,,,,,,,,,,,,,,,,,,,,,,,,,,,,,,,,,,,,,,,,,,,,,,,,,,,,,,,
43542,1645492057.735699,63.0,0.0,4872.820313,4553.846191,4360.512695,4458.974121,4910.256348,0.0,4.0,86.0,,,,0.0,4.0,0.0,2.0,4.0,4.0,50.0,,,,,,,,,,,,,,,,,,,,,,,,,,,,,,,,,,,,,,,,,,,,,,,,,,,,,,0.0,0.0,1.0,0.0,512.0,1.0,,,,,,,,,,,,,,,,,,,,,,,,,
43543,1645492057.743514,64.0,0.0,4997.436035,4520.0,4402.563965,4493.333496,5010.256348,450.0,4.0,86.0,,,,0.0,4.0,0.0,2.0,4.0,4.0,50.0,,,,,,,,32.0,0.0,0.59255,-0.14941400000000002,0.6469729999999999,0.45605500000000004,0.9131,-0.40528000000000003,-0.123049,-0.030432,-0.038138,-0.028699000000000002,,,,,,,,,,,,,,,,,,,,,,,,,,,,,,,,,,,,,,,,,,,,,,,,,,,,,,,,,,,,,,,,,
43544,1645492057.7512288,65.0,0.0,5145.641113000001,4517.436035,4381.538574,4464.615234000001,4970.256348,450.0,4.0,86.0,,,,0.0,4.0,1.0,2.0,4.0,4.0,58.33333199999999,,,,,,,,,,,,,,,,,,,,,,,,,,,,,,,,,,,,,,,,,,,,,,,,,,,,,,,,,,,,,,,,,,,,,,,,,,,,,,,,,,,,
43545,1645492057.759044,66.0,0.0,5558.461426,4516.922852000001,4308.205078,4418.974121,4954.871582,16127.0,4.0,86.0,,,,0.0,4.0,1.0,2.0,4.0,4.0,58.33333199999999,,,,,,,,33.0,0.0,0.590829,-0.147949,0.648193,0.457031,0.9340959999999999,-0.398932,-0.127443,-0.030856,-0.038181,-0.031005,,,,,,,,,,,,,,,,,,,,,,,,,,,,,,,,,,,,,,,,,,,,,,,,,,,,,,,,,,,,,,,,,
43546,1645492057.76686,67.0,0.0,6354.871582,4469.230957,4308.717772999999,4401.538574,5059.487305,450.0,4.0,86.0,,,,0.0,4.0,1.0,2.0,4.0,4.0,58.33333199999999,,,,,,,,,,,,,,,,,,,,1.0,0.0,0.0,,,,,,,,,,,,,,,,,,,,,,,,,,,,,,,,0.0,0.0,1.0,0.0,512.0,0.8020970000000001,62.187492000000006,13.533226,17.552104999999997,14.707482999999998,8.468905,10.724893,8.549415,5.905862,5.579447,6.938313000000001,20.393735999999997,4.223957,4.779145,4.57965,3.256955,55.493542000000005,14.171249,12.565388,21.221569,10.101495,40.864471,12.603399000000001,12.998786,15.580712,9.226686
43547,1645492057.774675,68.0,0.0,7204.615234000001,4489.743652,4370.256348,4427.179688,5161.025879,148.0,4.0,86.0,,,,0.0,4.0,1.0,2.0,4.0,4.0,58.33333199999999,,,,,,,,34.0,0.0,0.589633,-0.146484,0.648926,0.45800799999999997,0.9150530000000001,-0.407233,-0.11718900000000002,-0.031139,-0.038172000000000005,-0.026879000000000004,,,,,,,,,,,,,,,,,,,,,,,,,,,,,,,,,,,,,,,,,,,,,,,,,,,,,,,,,,,,,,,,,
43548,1645492057.78249,69.0,0.0,7713.846191,4585.641113000001,4389.743652,4509.743652,5308.205078,450.0,4.0,86.0,,,,0.0,4.0,1.0,2.0,4.0,4.0,58.33333199999999,,,,,,,,,,,,,,,,,,,,,,,,,,,,,,,,,,,,,,,,,,,,,,,,,,,,,,,,,,,,,,,,,,,,,,,,,,,,,,,,,,,,
43549,1645492057.7903051,70.0,0.0,7852.820312999999,4611.794922,4381.538574,4611.794922,5538.974121,299.0,4.0,86.0,,,,0.0,4.0,1.0,2.0,4.0,4.0,58.33333199999999,,,,,,,,35.0,0.0,0.588897,-0.145752,0.649414,0.458496,0.8750129999999999,-0.458503,-0.10547000000000001,-0.031248,-0.038163,-0.029416,,,,,,,,,,,,,,,,,,,,,,,,,,,,,,,,,,,,,,,,,,,,,,,,,,,,,,,,,,,,,,,,,
43550,1645492057.79812,71.0,0.0,7840.0,4448.205078,4370.769043,4620.512695,5712.307617,450.0,4.0,86.0,,,,0.0,4.0,1.0,2.0,4.0,4.0,58.33333199999999,,,,,,,,,,,,,,,,,,,,,,,,,,,,,,,,,,,,,,,,,,,,,,,,,,,,,,0.0,0.0,1.0,0.0,512.0,0.8020970000000001,,,,,,,,,,,,,,,,,,,,,,,,,
43551,1645492057.805935,72.0,0.0,7827.692383,4013.8461909999996,4340.0,4572.820313,5809.230957,450.0,4.0,86.0,,,,0.0,4.0,1.0,2.0,4.0,4.0,58.33333199999999,,,,,,,,36.0,0.0,0.588688,-0.145508,0.649658,0.458496,0.889174,-0.466804,-0.10888800000000001,-0.031346,-0.038107,-0.03165,,,,,,,,,,,,,,,,,,,,,,,,,,,,,,,,,,,,,,,,,,,,,,,,,,,,,,,,,,,,,,,,,
43552,1645492057.81375,73.0,0.0,7811.282227,3560.512939,4315.897461,4618.974121,5897.94873,16237.0,4.0,86.0,,,,0.0,4.0,1.0,2.0,4.0,4.0,58.33333199999999,,,,,,,,,,,,,,,,,,,,,,,,,,,,,,,,,,,,,,,,,,,,,,,,,,,,,,,,,,,,,,,,,,,,,,,,,,,,,,,,,,,,
43553,1645492057.821466,74.0,0.0,7783.077148,3654.358887,4301.025879,4634.358886999999,5980.0,450.0,4.0,86.0,,,,0.0,4.0,1.0,2.0,4.0,4.0,58.33333199999999,,,,,,,,37.0,0.0,0.588558,-0.145264,0.649658,0.45874,0.929702,-0.41260399999999997,-0.11133,-0.031532,-0.0383,-0.033563,,,,,,,,,,,,,,,,,,,,,,,,,,,,,,,,,,,,,,,,,,,,,,,,,,,,,,,,,,,,,,,,,
43554,1645492057.829281,75.0,0.0,7772.307617,4246.153809,4304.615234000001,4474.358886999999,6103.589844,16162.0,4.0,86.0,,,,0.0,4.0,1.0,2.0,4.0,4.0,58.33333199999999,,,,,,,,,,,,,,,,,,,,,,,,,,,,,,,,,,,,,,,,,,,,,,,,,,,,,,0.0,0.0,1.0,0.0,512.0,0.8020970000000001,,,,,,,,,,,,,,,,,,,,,,,,,
43555,1645492057.837096,76.0,0.0,7770.769043000001,4594.358886999999,4304.102539,4360.0,6247.692383,450.0,4.0,86.0,,,,0.0,4.0,1.0,2.0,4.0,4.0,58.33333199999999,,,,,,,,38.0,0.0,0.589036,-0.145508,0.64917,0.45874,0.9043110000000001,-0.44190100000000004,-0.104005,-0.031797000000000006,-0.038376,-0.035383,,,,,,,,,,,,,,,,,,,,,,,,,,,,,,,,,,,,,,,,,,,,,,,,,,,,,,,,,,,,,,,,,
43556,1645492057.8449109,77.0,0.0,7770.769043000001,4571.282227000001,4290.769043,4433.846191,6281.538574,450.0,4.0,86.0,,,,0.0,4.0,1.0,2.0,4.0,4.0,58.33333199999999,,,,,,,,,,,,,,,,,,,,,,,,,,,,,,,,,,,,,,,,,,,,,,,,,,,,,,,,,,,,,,,,,,,,,,,,,,,,,,,,,,,,
43557,1645492057.852726,78.0,0.0,7770.769043000001,4614.871582,4278.461426,4484.102539,6251.282227000001,450.0,4.0,86.0,,,,0.0,4.0,1.0,2.0,4.0,4.0,58.33333199999999,,,,,,,,39.0,0.0,0.588688,-0.145508,0.649658,0.458496,0.889174,-0.466804,-0.10888800000000001,-0.031937,-0.038445,-0.03077,,,,,,,,,,,,,,,,,,,,,,,,,,,,,,,,,,,,,,,,,,,,,,,,,,,,,,,,,,,,,,,,,
43558,1645492057.860541,79.0,0.0,7770.769043000001,4768.717772999999,4267.179688,4423.077147999999,6256.922852000001,16162.0,4.0,86.0,,,,0.0,4.0,1.0,2.0,4.0,4.0,58.33333199999999,,,,,,,,,,,,,,,,,,,,,,,,,,,,,,,,,,,,,,,,,,,,,,,,,,,,,,0.0,0.0,1.0,0.0,512.0,0.8020970000000001,,,,,,,,,,,,,,,,,,,,,,,,,
43559,1645492057.868356,80.0,0.0,7770.769043000001,4883.589844,4283.589844,4389.743652,6236.922852000001,450.0,4.0,86.0,,,,0.0,4.0,1.0,2.0,4.0,4.0,58.33333199999999,,,,,,,,40.0,0.0,0.589036,-0.145508,0.64917,0.45874,0.9043110000000001,-0.44190100000000004,-0.104005,-0.032162,-0.038507,-0.032869,,,,,,,,,,,,,,,,,,,,,,,,,,,,,,,,,,,,,,,,,,,,,,,,,,,,,,,,,,,,,,,,,
43560,1645492057.876171,81.0,0.0,7774.358887,4962.05127,4294.871582,4392.820313,6164.615234000001,450.0,4.0,86.0,,,,0.0,4.0,1.0,2.0,4.0,4.0,58.33333199999999,,,,,,,,,,,,,,,,,,,,,,,,,,,,,,,,,,,,,,,,,,,,,,,,,,,,,,,,,,,,,,,,,,,,,,,,,,,,,,,,,,,,
43561,1645492057.883987,82.0,0.0,7787.179687999999,4954.871582,4263.589844,4356.922852000001,6075.384765999999,450.0,4.0,86.0,,,,0.0,4.0,1.0,2.0,4.0,4.0,58.33333199999999,,,,,,,,41.0,0.0,0.589522,-0.146484,0.648682,0.458496,0.8964979999999999,-0.43897200000000003,-0.10547000000000001,-0.032266,-0.038709,-0.034709,,,,,,,,,,,,,,,,,,,,,,,,,,,,,,,,,,,,,,,,,,,,,,,,,,,,,,,,,,,,,,,,,
43562,1645492057.891902,83.0,0.0,7801.538573999999,4945.641113000001,4242.563965,4277.94873,5986.666504,16162.0,4.0,86.0,,,,0.0,4.0,1.0,2.0,4.0,4.0,58.33333199999999,,,,,,,,,,,,,,,,,,,,1.0,0.0,0.0,,,,,,,,,,,,,,,,,,,,,,,,,,,,,,,,0.0,0.0,1.0,0.0,512.0,0.494697,65.937668,21.607599,20.328751,14.642673,8.595302,9.966899,8.435391000000001,6.858242999999999,5.830563,7.829650999999999,21.534482999999998,5.264698,5.008897,4.693363,3.402093,51.934795,17.111938000000002,12.579113000000001,21.86092,9.382102,42.366837,14.989851999999999,14.218832,15.029816,8.400397
43563,1645492057.899717,84.0,0.0,7805.641113,5011.282227000001,4246.666504,4199.487305,5862.05127,450.0,4.0,86.0,,,,0.0,4.0,1.0,2.0,4.0,4.0,58.33333199999999,,,,,,,,42.0,0.0,0.590316,-0.146973,0.648193,0.45800799999999997,0.887709,-0.441413,-0.113283,-0.03236,-0.038842,-0.036317,,,,,,,,,,,,,,,,,,,,,,,,,,,,,,,,,,,,,,,,,,,,,,,,,,,,,,,,,,,,,,,,,
43564,1645492057.907532,85.0,0.0,7815.384765999999,5018.974121,4245.641113000001,4127.179688,5670.769043,450.0,4.0,86.0,,,,0.0,4.0,1.0,2.0,4.0,4.0,58.33333199999999,,,,,,,,,,,,,,,,,,,,,,,,,,,,,,,,,,,,,,,,,,,,,,,,,,,,,,,,,,,,,,,,,,,,,,,,,,,,,,,,,,,,
43565,1645492057.915347,86.0,0.0,7794.871581999999,4975.384765999999,4269.230957,4062.0512700000004,5472.820313,450.0,4.0,86.0,,,,0.0,4.0,1.0,2.0,4.0,4.0,58.33333199999999,,,,,,,,43.0,0.0,0.591109,-0.14746099999999998,0.647705,0.45752,0.897475,-0.420417,-0.109865,-0.032493,-0.038814999999999995,-0.037812,,,,,,,,,,,,,,,,,,,,,,,,,,,,,,,,,,,,,,,,,,,,,,,,,,,,,,,,,,,,,,,,,
43566,1645492057.923162,87.0,0.0,7587.179687999999,4897.436035,4295.384765999999,4026.6667479999996,5320.0,16162.0,4.0,86.0,,,,0.0,4.0,1.0,2.0,4.0,4.0,58.33333199999999,,,,,,,,,,,,,,,,,,,,,,,,,,,,,,,,,,,,,,,,,,,,,,,,,,,,,,0.0,0.0,1.0,0.0,512.0,0.494697,,,,,,,,,,,,,,,,,,,,,,,,,
43567,1645492057.9309769,88.0,0.0,7161.538573999999,4655.384765999999,4273.846191,4027.6923829999996,5174.871582,450.0,4.0,86.0,,,,0.0,4.0,1.0,2.0,4.0,4.0,58.33333199999999,,,,,,,,44.0,0.0,0.591631,-0.147949,0.647461,0.457031,0.9116350000000001,-0.422858,-0.130373,-0.032514999999999995,-0.038938,-0.032957,,,,,,,,,,,,,,,,,,,,,,,,,,,,,,,,,,,,,,,,,,,,,,,,,,,,,,,,,,,,,,,,,
43568,1645492057.938792,89.0,0.0,6704.615234000001,4470.256348,4260.0,4009.743652,5008.717772999999,450.0,4.0,86.0,,,,0.0,4.0,1.0,2.0,4.0,4.0,58.33333199999999,,,,,,,,,,,,,,,,,,,,,,,,,,,,,,,,,,,,,,,,,,,,,,,,,,,,,,,,,,,,,,,,,,,,,,,,,,,,,,,,,,,,
43569,1645492057.946607,90.0,0.0,6337.94873,4520.0,4256.410156,3937.4357909999994,4846.153809,450.0,4.0,86.0,,,,0.0,4.0,1.0,2.0,4.0,4.0,58.33333199999999,,,,,,,,45.0,0.0,0.5921529999999999,-0.14843800000000001,0.647217,0.45654300000000003,0.893568,-0.45069,-0.12255999999999999,-0.032632999999999995,-0.038999,-0.028635,,,,,,,,,,,,,,,,,,,,,,,,,,,,,,,,,,,,,,,,,,,,,,,,,,,,,,,,,,,,,,,,,
43570,1645492057.954423,91.0,0.0,6020.512695,4381.025879,4251.282227000001,3898.974365,4749.743652,16162.0,4.0,86.0,,,,0.0,4.0,1.0,2.0,4.0,4.0,58.33333199999999,,,,,,,,,,,,,,,,,,,,,,,,,,,,,,,,,,,,,,,,,,,,,,,,,,,,,,0.0,0.0,1.0,0.0,512.0,0.494697,,,,,,,,,,,,,,,,,,,,,,,,,
43571,1645492057.962238,92.0,0.0,5717.94873,4072.3076170000004,4273.333496,3954.358887,4709.230957,450.0,4.0,86.0,,,,0.0,4.0,1.0,2.0,4.0,4.0,58.33333199999999,,,,,,,,46.0,0.0,0.592735,-0.14868199999999998,0.6469729999999999,0.45605500000000004,0.9184709999999999,-0.430671,-0.11621300000000001,-0.032788,-0.038957,-0.030948000000000003,,,,,,,,,,,,,,,,,,,,,,,,,,,,,,,,,,,,,,,,,,,,,,,,,,,,,,,,,,,,,,,,,
43572,1645492057.970053,93.0,0.0,5472.307617,4131.794922,4281.538574,4011.794922,4630.769043,450.0,4.0,86.0,,,,0.0,4.0,1.0,2.0,4.0,4.0,58.33333199999999,,,,,,,,,,,,,,,,,,,,,,,,,,,,,,,,,,,,,,,,,,,,,,,,,,,,,,,,,,,,,,,,,,,,,,,,,,,,,,,,,,,,
43573,1645492057.977768,94.0,0.0,5264.615234000001,4299.487305,4284.102539,3996.923096,4556.922852000001,450.0,4.0,86.0,,,,0.0,4.0,1.0,2.0,4.0,4.0,58.33333199999999,,,,,,,,47.0,0.0,0.592861,-0.148926,0.6469729999999999,0.45581099999999997,0.922866,-0.41944,-0.12451400000000001,-0.032927,-0.038967,-0.033029,,,,,,,,,,,,,,,,,,,,,,,,,,,,,,,,,,,,,,,,,,,,,,,,,,,,,,,,,,,,,,,,,
43574,1645492057.985583,95.0,0.0,5069.743652,4190.769043,4323.077147999999,3957.9487299999996,4545.128418,16162.0,4.0,86.0,,,,0.0,4.0,1.0,2.0,4.0,4.0,58.33333199999999,,,,,,,,,,,,,,,,,,,,,,,,,,,,,,,,,,,,,,,,,,,,,,,,,,,,,,0.0,0.0,1.0,0.0,512.0,0.494697,,,,,,,,,,,,,,,,,,,,,,,,,
43575,1645492057.993298,96.0,0.0,4882.05127,4094.358887,4329.743652,3952.820557,4497.436035,450.0,4.0,86.0,,,,0.0,4.0,1.0,2.0,4.0,4.0,58.33333199999999,,,,,,,,48.0,0.0,0.593192,-0.14941400000000002,0.646729,0.45556599999999997,0.909682,-0.41406899999999996,-0.12549000000000002,-0.033003,-0.038977,-0.028749,,,,,,,,,,,,,,,,,,,,,,,,,,,,,,,,,,,,,,,,,,,,,,,,,,,,,,,,,,,,,,,,,
43576,1645492058.0011132,97.0,0.0,4705.641113000001,4181.025879,4303.589844,3978.461426,4418.461426,450.0,4.0,86.0,,,,0.0,4.0,1.0,2.0,4.0,4.0,58.33333199999999,,,,,,,,,,,,,,,,,,,,,,,,,,,,,,,,,,,,,,,,,,,,,,,,,,,,,,,,,,,,,,,,,,,,,,,,,,,,,,,,,,,,
43577,1645492058.0089278,98.0,0.0,4561.538574,4231.282227000001,4306.666504,3967.6923829999996,4417.436035,450.0,4.0,86.0,,,,0.0,4.0,1.0,2.0,4.0,4.0,58.33333199999999,,,,,,,,49.0,0.0,0.593318,-0.14965799999999999,0.646729,0.455322,0.914076,-0.41113900000000003,-0.11718900000000002,-0.033072000000000004,-0.038986,-0.031099,,,,,,,,,,,,,,,,,,,,,,,,,,,,,,,,,,,,,,,,,,,,,,,,,,,,,,,,,,,,,,,,,
43578,1645492058.016743,99.0,0.0,4435.384765999999,4236.922852000001,4307.179688,3924.615479,4409.230957,16162.0,4.0,86.0,,,,0.0,4.0,1.0,2.0,4.0,4.0,58.33333199999999,,,,,,,,,,,,,,,,,,,,1.0,0.0,0.0,,,,,,,,,,,,,,,,,,,,,,,,,,,,,,,,0.0,0.0,1.0,0.0,512.0,0.423907,167.154877,67.200905,32.773303999999996,15.472179,8.926135,14.730986999999999,14.272923,10.459641,8.694988,9.318066,22.564962,5.996528,5.039495,4.501128,3.638475,48.072224,20.970764000000003,12.001626,20.551243,9.040801,50.94981,16.938549,14.330019,13.479367000000002,7.813928
43579,1645492058.024558,100.0,0.0,4312.307617,4264.102539,4297.436035,3931.281982,4338.974121,450.0,4.0,86.0,,,,0.0,4.0,1.0,2.0,4.0,4.0,58.33333199999999,,,,,,,,50.0,0.0,0.593522,-0.149902,0.6464840000000001,0.455322,0.917494,-0.39649,-0.11718900000000002,-0.033183,-0.038944,-0.033165,,,,,,,,,,,,,,,,,,,,,,,,,,,,,,,,,,,,,,,,,,,,,,,,,,,,,,,,,,,,,,,,,
43580,1645492058.032373,101.0,0.0,4208.717772999999,4257.94873,4306.666504,3956.4101560000004,4320.512695,450.0,4.0,86.0,,,,0.0,4.0,1.0,2.0,4.0,4.0,58.33333199999999,,,,,,,,,,,,,,,,,,,,,,,,,,,,,,,,,,,,,,,,,,,,,,,,,,,,,,,,,,,,,,,,,,,,,,,,,,,,,,,,,,,,
43581,1645492058.0400891,102.0,0.0,4118.974121,4260.512695,4306.666504,3933.3332520000004,4336.410156,450.0,4.0,86.0,,,,0.0,4.0,1.0,2.0,4.0,4.0,58.33333199999999,,,,,,,,51.0,0.0,0.593522,-0.149902,0.6464840000000001,0.455322,0.91017,-0.40576799999999996,-0.11718900000000002,-0.033185,-0.038810000000000004,-0.035073,,,,,,,,,,,,,,,,,,,,,,,,,,,,,,,,,,,,,,,,,,,,,,,,,,,,,,,,,,,,,,,,,
43582,1645492058.047904,103.0,0.0,4041.025635,4266.153809,4305.641113000001,3909.2307130000004,4334.358886999999,16162.0,4.0,86.0,,,,0.0,4.0,1.0,2.0,4.0,4.0,58.33333199999999,,,,,,,,,,,,,,,,,,,,,,,,,,,,,,,,,,,,,,,,,,,,,,,,,,,,,,0.0,0.0,1.0,0.0,512.0,0.423907,,,,,,,,,,,,,,,,,,,,,,,,,
43583,1645492058.055719,104.0,0.0,3996.4101560000004,4254.871582,4319.487305,3945.1281740000004,4350.769043,450.0,4.0,86.0,,,,0.0,4.0,1.0,2.0,4.0,4.0,58.33333199999999,,,,,,,,52.0,0.0,0.593522,-0.149902,0.6464840000000001,0.455322,0.9072399999999999,-0.398932,-0.11767799999999999,-0.033431,-0.038786,-0.036839,,,,,,,,,,,,,,,,,,,,,,,,,,,,,,,,,,,,,,,,,,,,,,,,,,,,,,,,,,,,,,,,,
43584,1645492058.063534,105.0,0.0,3927.179443,4272.307617,4314.871582,3971.794922,4339.487305,450.0,4.0,86.0,,,,0.0,4.0,1.0,2.0,4.0,4.0,58.33333199999999,,,,,,,,,,,,,,,,,,,,,,,,,,,,,,,,,,,,,,,,,,,,,,,,,,,,,,,,,,,,,,,,,,,,,,,,,,,,,,,,,,,,
43585,1645492058.071349,106.0,0.0,3796.923096,4319.487305,4296.410156,3923.5898439999996,4261.538574,450.0,4.0,86.0,,,,0.0,4.0,1.0,2.0,4.0,4.0,58.33333199999999,,,,,,,,53.0,0.0,0.593461,-0.150146,0.6464840000000001,0.455322,0.918959,-0.41406899999999996,-0.11230599999999999,-0.033457,-0.038765,-0.032081,,,,,,,,,,,,,,,,,,,,,,,,,,,,,,,,,,,,,,,,,,,,,,,,,,,,,,,,,,,,,,,,,
43586,1645492058.079164,107.0,0.0,3694.358887,4350.256348,4275.384765999999,3869.743652,4202.563965,16162.0,4.0,86.0,,,,0.0,4.0,1.0,2.0,4.0,4.0,58.33333199999999,,,,,,,,,,,,,,,,,,,,,,,,,,,,,,,,,,,,,,,,,,,,,,,,,,,,,,0.0,0.0,1.0,0.0,512.0,0.423907,,,,,,,,,,,,,,,,,,,,,,,,,
43587,1645492058.086979,108.0,0.0,3678.974365,4310.256348,4274.358886999999,3898.461426,4237.436035,450.0,4.0,86.0,,,,0.0,4.0,1.0,2.0,4.0,4.0,58.33333199999999,,,,,,,,54.0,0.0,0.5932729999999999,-0.150146,0.6464840000000001,0.45556599999999997,0.9043110000000001,-0.420417,-0.11523599999999999,-0.033285,-0.038697,-0.034098,,,,,,,,,,,,,,,,,,,,,,,,,,,,,,,,,,,,,,,,,,,,,,,,,,,,,,,,,,,,,,,,,
43588,1645492058.094795,109.0,0.0,3707.6923829999996,4268.205078,4309.743652,3957.4357909999994,4299.487305,450.0,4.0,86.0,,,,0.0,4.0,1.0,2.0,4.0,4.0,58.33333199999999,,,,,,,,,,,,,,,,,,,,,,,,,,,,,,,,,,,,,,,,,,,,,,,,,,,,,,,,,,,,,,,,,,,,,,,,,,,,,,,,,,,,
43589,1645492058.1026099,110.0,0.0,3688.205078,4304.615234000001,4332.820313,3956.923096,4287.179688,450.0,4.0,86.0,,,,0.0,4.0,1.0,2.0,4.0,4.0,58.33333199999999,,,,,,,,55.0,0.0,0.593007,-0.150146,0.646729,0.45556599999999997,0.8989389999999999,-0.409674,-0.11914200000000001,-0.033375,-0.038734,-0.029663,,,,,,,,,,,,,,,,,,,,,,,,,,,,,,,,,,,,,,,,,,,,,,,,,,,,,,,,,,,,,,,,,
43590,1645492058.110325,111.0,0.0,3578.974365,4347.179688,4296.922852000001,3920.512939,4232.307617,16162.0,4.0,86.0,,,,0.0,4.0,1.0,2.0,4.0,4.0,58.33333199999999,,,,,,,,,,,,,,,,,,,,,,,,,,,,,,,,,,,,,,,,,,,,,,,,,,,,,,0.0,0.0,1.0,0.0,512.0,0.423907,,,,,,,,,,,,,,,,,,,,,,,,,
43591,1645492058.11814,112.0,0.0,3484.102539,4367.692383,4277.94873,3917.4357909999994,4222.563965,450.0,4.0,86.0,,,,0.0,4.0,1.0,2.0,4.0,4.0,58.33333199999999,,,,,,,,56.0,0.0,0.593195,-0.150146,0.646729,0.455322,0.91017,-0.411627,-0.116701,-0.033309,-0.038718,-0.03197,,,,,,,,,,,,,,,,,,,,,,,,,,,,,,,,,,,,,,,,,,,,,,,,,,,,,,,,,,,,,,,,,
43592,1645492058.125955,113.0,0.0,3494.8718259999996,4395.897461,4322.563965,3960.512939,4261.025879,450.0,4.0,86.0,,,,0.0,4.0,1.0,2.0,4.0,4.0,58.33333199999999,,,,,,,,,,,,,,,,,,,,,,,,,,,,,,,,,,,,,,,,,,,,,,,,,,,,,,,,,,,,,,,,,,,,,,,,,,,,,,,,,,,,
43593,1645492058.13377,114.0,0.0,3525.1281740000004,4412.820313,4344.102539,3991.794922,4289.230957,450.0,4.0,86.0,,,,0.0,4.0,1.0,2.0,4.0,4.0,58.33333199999999,,,,,,,,57.0,0.0,0.593195,-0.150146,0.646729,0.455322,0.916518,-0.428717,-0.123049,-0.033347,-0.038655,-0.027748000000000002,,,,,,,,,,,,,,,,,,,,,,,,,,,,,,,,,,,,,,,,,,,,,,,,,,,,,,,,,,,,,,,,,
43594,1645492058.1415849,115.0,0.0,3460.0,4411.794922,4312.820313,3980.0,4258.974121,16162.0,4.0,86.0,,,,0.0,4.0,1.0,2.0,4.0,4.0,58.33333199999999,1.0,0.0,0.0,0.0,2.0,1.0,0.0,,,,,,,,,,,,,1.0,0.0,0.0,,,,,,,,,,,,,,,,,,,,,,,,,,,,,,,,0.0,0.0,32.0,0.599405,1.0,0.0,490.392029,223.15544100000002,75.05141400000001,20.540589999999998,9.655772,64.089226,38.087238,24.712509,19.89118,12.269544999999999,23.478195,6.195965,4.851975,4.080337999999999,3.9060870000000003,47.993015,25.67688,12.198658,17.808954,9.445981,99.485474,18.720343,13.254335000000001,11.623395,7.690328
43595,1645492058.149401,116.0,0.0,3354.871826,4388.717772999999,4288.205078,3947.6923829999996,4185.128418,450.0,4.0,86.0,,,,0.0,4.0,1.0,2.0,4.0,4.0,58.33333199999999,,,,,,,,58.0,0.0,0.592866,-0.150391,0.6469729999999999,0.455322,0.918959,-0.410163,-0.129885,-0.033283999999999994,-0.038598,-0.02385,,,,,,,,,,,,,,,,,,,,,,,,,,,,,,,,,,,,,,,,,,,,,,,,,,,,,,,,,,,,,,,,,
43596,1645492058.157216,117.0,0.0,3331.281982,4375.897461,4302.563965,3942.5642090000006,4169.230957,450.0,4.0,86.0,,,,0.0,4.0,1.0,2.0,4.0,4.0,58.33333199999999,,,,,,,,,,,,,,,,,,,,,,,,,,,,,,,,,,,,,,,,,,,,,,,,,,,,,,,,,,,,,,,,,,,,,,,,,,,,,,,,,,,,
43597,1645492058.165031,118.0,0.0,3363.5898439999996,4397.94873,4332.307617,3965.1281740000004,4223.077147999999,450.0,4.0,86.0,,,,0.0,4.0,1.0,2.0,4.0,4.0,58.33333199999999,,,,,,,,59.0,0.0,0.592804,-0.150635,0.6469729999999999,0.455322,0.921401,-0.415045,-0.111818,-0.033227,-0.038596,-0.026688999999999997,,,,,,,,,,,,,,,,,,,,,,,,,,,,,,,,,,,,,,,,,,,,,,,,,,,,,,,,,,,,,,,,,
43598,1645492058.172846,119.0,0.0,3339.487061,4407.179688,4325.641113000001,3981.025635,4226.153809,16162.0,4.0,86.0,,,,0.0,4.0,1.0,2.0,4.0,4.0,58.33333199999999,,,,,,,,,,,,,,,,,,,,,,,,,,,,,,,,,,,,,,,,,,,,,,,,,,,,,,0.0,0.0,32.0,0.599405,1.0,0.0,,,,,,,,,,,,,,,,,,,,,,,,,
43599,1645492058.1807609,120.0,0.0,3263.589844,4394.358886999999,4292.307617,3974.8718259999996,4167.692383,450.0,4.0,86.0,,,,0.0,4.0,1.0,2.0,4.0,4.0,58.33333199999999,,,,,,,,60.0,0.0,0.5926170000000001,-0.150635,0.6469729999999999,0.45556599999999997,0.9199360000000001,-0.41455699999999995,-0.112795,-0.033274,-0.038447,-0.029294,,,,,,,,,,,,,,,,,,,,,,,,,,,,,,,,,,,,,,,,,,,,,,,,,,,,,,,,,,,,,,,,,
43600,1645492058.188576,121.0,0.0,3225.128174,4415.897461,4296.922852000001,3948.718018,4154.871582,450.0,4.0,86.0,,,,0.0,4.0,1.0,2.0,4.0,4.0,58.33333199999999,,,,,,,,,,,,,,,,,,,,,,,,,,,,,,,,,,,,,,,,,,,,,,,,,,,,,,,,,,,,,,,,,,,,,,,,,,,,,,,,,,,,
43601,1645492058.196391,122.0,0.0,3245.6411129999997,4454.358886999999,4325.128418,3934.358887,4200.0,450.0,4.0,86.0,,,,0.0,4.0,1.0,2.0,4.0,4.0,58.33333199999999,,,,,,,,61.0,0.0,0.592555,-0.15087899999999999,0.6469729999999999,0.45556599999999997,0.901381,-0.422858,-0.11767799999999999,-0.033413,-0.038411,-0.02529,,,,,,,,,,,,,,,,,,,,,,,,,,,,,,,,,,,,,,,,,,,,,,,,,,,,,,,,,,,,,,,,,
43602,1645492058.204206,123.0,0.0,3258.4614260000003,4473.333496,4327.692383,3976.4101560000004,4230.769043,16162.0,4.0,86.0,,,,0.0,4.0,1.0,2.0,4.0,4.0,58.33333199999999,,,,,,,,,,,,,,,,,,,,,,,,,,,,,,,,,,,,,,,,,,,,,,,,,,,,,,0.0,0.0,32.0,0.599405,1.0,0.0,,,,,,,,,,,,,,,,,,,,,,,,,
43603,1645492058.212021,124.0,0.0,3228.718018,4480.0,4318.974121,4029.2307130000004,4210.256348,450.0,4.0,86.0,,,,0.0,4.0,1.0,2.0,4.0,4.0,58.33333199999999,,,,,,,,62.0,0.0,0.592367,-0.15087899999999999,0.6469729999999999,0.45581099999999997,0.8999159999999999,-0.42676400000000003,-0.11035299999999999,-0.033441000000000005,-0.03833,-0.028035,,,,,,,,,,,,,,,,,,,,,,,,,,,,,,,,,,,,,,,,,,,,,,,,,,,,,,,,,,,,,,,,,
43604,1645492058.219837,125.0,0.0,3212.3076170000004,4482.05127,4322.05127,4017.4357909999994,4180.0,450.0,4.0,86.0,,,,0.0,4.0,1.0,2.0,4.0,4.0,58.33333199999999,,,,,,,,,,,,,,,,,,,,,,,,,,,,,,,,,,,,,,,,,,,,,,,,,,,,,,,,,,,,,,,,,,,,,,,,,,,,,,,,,,,,
43605,1645492058.2276518,126.0,0.0,3204.615479,4507.692383,4317.94873,4006.6667479999996,4172.820313,450.0,4.0,86.0,,,,0.0,4.0,1.0,2.0,4.0,4.0,58.33333199999999,,,,,,,,63.0,0.0,0.592179,-0.15087899999999999,0.6469729999999999,0.45605500000000004,0.9043110000000001,-0.43653000000000003,-0.119631,-0.033417,-0.038159,-0.024255000000000002,,,,,,,,,,,,,,,,,,,,,,,,,,,,,,,,,,,,,,,,,,,,,,,,,,,,,,,,,,,,,,,,,
43606,1645492058.235467,127.0,0.0,3164.615479,4531.282227000001,4307.692383,4026.1538090000004,4163.589844,241.0,4.0,86.0,,,,0.0,4.0,1.0,2.0,4.0,4.0,58.33333199999999,,,,,,,,,,,,,,,,,,,,,,,,,,,,,,,,,,,,,,,,,,,,,,,,,,,,,,0.0,0.0,32.0,0.599405,1.0,0.0,,,,,,,,,,,,,,,,,,,,,,,,,
43607,1645492058.243282,0.0,0.0,3139.487061,4513.846191,4305.128418,3993.3332520000004,4143.077147999999,450.0,4.0,86.0,,,,0.0,4.0,1.0,2.0,4.0,4.0,58.33333199999999,,,,,,,,0.0,0.0,0.592117,-0.151123,0.6469729999999999,0.45605500000000004,0.914565,-0.42822899999999997,-0.11816600000000001,-0.033347,-0.038152,-0.027054,,,,,,,,,,,,,,,,,,,,,,,,,,,,,,,,,,,,,,,,,,,,,,,,,,,,,,,,,,,,,,,,,
43608,1645492058.251097,1.0,0.0,3149.743652,4488.205078,4311.282227000001,3952.820557,4130.769043,450.0,4.0,86.0,,,,0.0,4.0,1.0,2.0,4.0,4.0,58.33333199999999,,,,,,,,,,,,,,,,,,,,,,,,,,,,,,,,,,,,,,,,,,,,,,,,,,,,,,,,,,,,,,,,,,,,,,,,,,,,,,,,,,,,
43609,1645492058.258812,2.0,0.0,3131.794922,4467.692383,4318.461426,3984.615479,4124.615234000001,16103.0,4.0,86.0,,,,0.0,4.0,1.0,4.0,4.0,4.0,75.0,,,,,,,,1.0,0.0,0.592305,-0.151123,0.6469729999999999,0.45581099999999997,0.905776,-0.417975,-0.111818,-0.033382,-0.038145,-0.029573000000000002,,,,,,,,,,,,,,,,,,,,,,,,,,,,,,,,,,,,,,,,,,,,,,,,,,,,,,,,,,,,,,,,,
43610,1645492058.2666268,3.0,0.0,3094.3588870000003,4501.025879,4314.871582,4045.641113,4122.05127,450.0,4.0,86.0,,,,0.0,4.0,1.0,4.0,4.0,4.0,75.0,,,,,,,,,,,,,,,,,,,,1.0,0.0,0.0,,,,,,,,,,,,,,,,,,,,,,,,,,,,,,,,0.0,0.0,32.0,0.6341479999999999,1.0,0.0,1164.326782,556.884094,165.238678,32.804874,10.879726,233.433182,91.436356,58.839912,44.892845,17.813091,23.905704,5.846444,4.620907,3.646621,4.105226,57.544883999999996,31.274912,14.811326000000001,14.559865,10.617433,261.533051,21.201598999999998,11.824475999999999,10.396138,8.018817
43611,1645492058.274442,4.0,0.0,3108.205078,4564.102539,4304.615234000001,4061.538574,4125.641113000001,112.0,4.0,86.0,,,,0.0,4.0,1.0,4.0,4.0,4.0,75.0,,,,,,,,2.0,0.0,0.592242,-0.151367,0.6469729999999999,0.45581099999999997,0.917006,-0.435554,-0.119631,-0.033461000000000005,-0.038139,-0.025542,,,,,,,,,,,,,,,,,,,,,,,,,,,,,,,,,,,,,,,,,,,,,,,,,,,,,,,,,,,,,,,,,
43612,1645492058.282258,5.0,0.0,3128.205078,4552.307617,4298.461426,4044.615479,4122.05127,450.0,4.0,86.0,,,,0.0,4.0,1.0,4.0,4.0,4.0,75.0,,,,,,,,,,,,,,,,,,,,,,,,,,,,,,,,,,,,,,,,,,,,,,,,,,,,,,,,,,,,,,,,,,,,,,,,,,,,,,,,,,,,
43613,1645492058.2900732,6.0,0.0,3069.743652,4505.641113000001,4278.974121,4025.641113,4093.3332520000004,16061.0,4.0,86.0,,,,0.0,4.0,1.0,4.0,4.0,4.0,75.0,,,,,,,,3.0,0.0,0.592117,-0.151123,0.6469729999999999,0.45605500000000004,0.914565,-0.42822899999999997,-0.11816600000000001,-0.033484,-0.038085,-0.021962,,,,,,,,,,,,,,,,,,,,,,,,,,,,,,,,,,,,,,,,,,,,,,,,,,,,,,,,,,,,,,,,,
43614,1645492058.297888,7.0,0.0,3014.3588870000003,4524.615234000001,4258.461426,3978.461426,4051.794922,450.0,4.0,86.0,,,,0.0,4.0,1.0,4.0,4.0,4.0,75.0,,,,,,,,,,,,,,,,,,,,,,,,,,,,,,,,,,,,,,,,,,,,,,,,,,,,,,0.0,0.0,32.0,0.6341479999999999,1.0,0.0,,,,,,,,,,,,,,,,,,,,,,,,,
43615,1645492058.305703,8.0,0.0,3040.512939,4574.358886999999,4258.461426,3940.0,4034.8718259999996,450.0,4.0,86.0,,,,0.0,4.0,1.0,4.0,4.0,4.0,75.0,,,,,,,,4.0,0.0,0.592242,-0.151367,0.6469729999999999,0.45581099999999997,0.917006,-0.435554,-0.119631,-0.033554,-0.038085,-0.018692,,,,,,,,,,,,,,,,,,,,,,,,,,,,,,,,,,,,,,,,,,,,,,,,,,,,,,,,,,,,,,,,,
43616,1645492058.313518,9.0,0.0,3052.820557,4563.589844,4260.512695,3945.641113,4043.5898439999996,16262.0,4.0,86.0,,,,0.0,4.0,1.0,4.0,4.0,4.0,75.0,,,,,,,,,,,,,,,,,,,,,,,,,,,,,,,,,,,,,,,,,,,,,,,,,,,,,,,,,,,,,,,,,,,,,,,,,,,,,,,,,,,,
43617,1645492058.321333,10.0,0.0,3013.333252,4566.666504,4250.256348,3949.2307130000004,4040.512939,450.0,4.0,86.0,,,,0.0,4.0,1.0,4.0,4.0,4.0,75.0,,,,,,,,5.0,0.0,0.59243,-0.151367,0.6469729999999999,0.45556599999999997,0.906752,-0.41651000000000005,-0.11816600000000001,-0.033568,-0.038232,-0.022047,,,,,,,,,,,,,,,,,,,,,,,,,,,,,,,,,,,,,,,,,,,,,,,,,,,,,,,,,,,,,,,,,
43618,1645492058.329248,11.0,0.0,3017.94873,4617.94873,4253.333496,3937.4357909999994,4021.025635,16257.0,4.0,86.0,,,,0.0,4.0,1.0,4.0,4.0,4.0,75.0,,,,,,,,,,,,,,,,,,,,,,,,,,,,,,,,,,,,,,,,,,,,,,,,,,,,,,0.0,0.0,32.0,0.6341479999999999,1.0,0.0,,,,,,,,,,,,,,,,,,,,,,,,,
43619,1645492058.337063,12.0,0.0,3034.3588870000003,4629.743652,4270.769043,3964.102539,4017.9487299999996,450.0,4.0,86.0,,,,0.0,4.0,1.0,4.0,4.0,4.0,75.0,,,,,,,,6.0,0.0,0.592634,-0.151611,0.646729,0.45556599999999997,0.9121229999999999,-0.425299,-0.11084200000000001,-0.033629,-0.038169,-0.025067,,,,,,,,,,,,,,,,,,,,,,,,,,,,,,,,,,,,,,,,,,,,,,,,,,,,,,,,,,,,,,,,,
43620,1645492058.344878,13.0,0.0,3007.179443,4570.256348,4273.846191,4014.8718259999996,4025.641113,450.0,4.0,86.0,,,,0.0,4.0,1.0,4.0,4.0,4.0,75.0,,,,,,,,,,,,,,,,,,,,,,,,,,,,,,,,,,,,,,,,,,,,,,,,,,,,,,,,,,,,,,,,,,,,,,,,,,,,,,,,,,,,
43621,1645492058.352694,14.0,0.0,3022.564209,4546.666504,4271.794922,4010.256348,4013.3332520000004,450.0,4.0,86.0,,,,0.0,4.0,1.0,4.0,4.0,4.0,75.0,,,,,,,,7.0,0.0,0.592634,-0.151611,0.646729,0.45556599999999997,0.9111469999999999,-0.421393,-0.100587,-0.033489,-0.03816,-0.027785,,,,,,,,,,,,,,,,,,,,,,,,,,,,,,,,,,,,,,,,,,,,,,,,,,,,,,,,,,,,,,,,,
43622,1645492058.360509,15.0,0.0,3079.487061,4570.256348,4280.0,3988.718018,4014.8718259999996,16257.0,4.0,86.0,,,,0.0,4.0,1.0,4.0,4.0,4.0,75.0,,,,,,,,,,,,,,,,,,,,,,,,,,,,,,,,,,,,,,,,,,,,,,,,,,,,,,0.0,0.0,32.0,0.6341479999999999,1.0,0.0,,,,,,,,,,,,,,,,,,,,,,,,,
43623,1645492058.368324,16.0,0.0,3068.205078,4545.128418,4292.820313,4022.5642090000006,4040.512939,0.0,4.0,86.0,,,,0.0,4.0,1.0,4.0,4.0,4.0,75.0,,,,,,,,8.0,0.0,0.5928220000000001,-0.151611,0.646729,0.455322,0.9194479999999999,-0.41944,-0.12060699999999999,-0.033509,-0.038251,-0.024030000000000003,,,,,,,,,,,,,,,,,,,,,,,,,,,,,,,,,,,,,,,,,,,,,,,,,,,,,,,,,,,,,,,,,
43624,1645492058.3761392,17.0,0.0,3044.615479,4561.025879,4301.025879,4063.5898439999996,4049.743652,0.0,4.0,86.0,,,,0.0,4.0,1.0,4.0,4.0,4.0,75.0,,,,,,,,,,,,,,,,,,,,,,,,,,,,,,,,,,,,,,,,,,,,,,,,,,,,,,,,,,,,,,,,,,,,,,,,,,,,,,,,,,,,
43625,1645492058.3839538,18.0,0.0,3100.0,4632.307617,4314.358886999999,4069.2307130000004,4062.5642090000006,0.0,4.0,86.0,,,,0.0,4.0,1.0,4.0,4.0,4.0,75.0,,,,,,,,9.0,0.0,0.5930880000000001,-0.151611,0.6464840000000001,0.455322,0.914565,-0.42236999999999997,-0.10498199999999999,-0.033479,-0.038185000000000004,-0.026851999999999997,,,,,,,,,,,,,,,,,,,,,,,,,,,,,,,,,,,,,,,,,,,,,,,,,,,,,,,,,,,,,,,,,
43626,1645492058.391769,19.0,0.0,3145.128174,4643.077147999999,4317.436035,4065.1281740000004,4094.358887,0.0,4.0,86.0,,,,0.0,4.0,1.0,4.0,4.0,4.0,75.0,,,,,,,,,,,,,,,,,,,,1.0,0.0,0.0,,,,,,,,,,,,,,,,,,,,,,,,,,,,,,,,0.0,0.0,32.0,0.8571200000000001,1.0,0.0,2157.181641,1070.6408689999998,302.02304100000003,52.384174,12.485862,576.311584,175.751587,115.142563,84.025887,26.364359000000004,23.333261,5.110455,4.5438279999999995,3.418656,4.152929,78.748077,37.334209,20.394064,11.795359,12.209382000000002,569.187866,24.845753,10.965779,10.470873,8.601439
43627,1645492058.399684,20.0,0.0,3108.205078,4626.153809,4294.871582,4072.3076170000004,4095.384521,0.0,4.0,86.0,,,,0.0,4.0,1.0,4.0,4.0,4.0,75.0,,,,,,,,10.0,0.0,0.5930880000000001,-0.151611,0.6464840000000001,0.455322,0.9199360000000001,-0.422858,-0.121584,-0.033451,-0.038224,-0.029294,,,,,,,,,,,,,,,,,,,,,,,,,,,,,,,,,,,,,,,,,,,,,,,,,,,,,,,,,,,,,,,,,
43628,1645492058.407499,21.0,0.0,3086.153809,4649.230957,4284.102539,4066.6667479999996,4069.743652,0.0,4.0,86.0,,,,0.0,4.0,1.0,4.0,4.0,4.0,75.0,,,,,,,,,,,,,,,,,,,,,,,,,,,,,,,,,,,,,,,,,,,,,,,,,,,,,,,,,,,,,,,,,,,,,,,,,,,,,,,,,,,,
43629,1645492058.415314,22.0,0.0,3121.5385739999997,4649.230957,4305.641113000001,4067.6923829999996,4091.794922,0.0,4.0,86.0,,,,0.0,4.0,1.0,4.0,4.0,4.0,75.0,,,,,,,,11.0,0.0,0.593276,-0.151611,0.6464840000000001,0.455078,0.9052870000000001,-0.41260399999999997,-0.11767799999999999,-0.033524,-0.038211,-0.031589,,,,,,,,,,,,,,,,,,,,,,,,,,,,,,,,,,,,,,,,,,,,,,,,,,,,,,,,,,,,,,,,,
43630,1645492058.42313,23.0,0.0,3129.230713,4584.102539,4310.769043,4091.281982,4112.820313,0.0,4.0,86.0,,,,0.0,4.0,1.0,4.0,4.0,4.0,75.0,,,,,,,,,,,,,,,,,,,,,,,,,,,,,,,,,,,,,,,,,,,,,,,,,,,,,,0.0,0.0,32.0,0.8571200000000001,1.0,0.0,,,,,,,,,,,,,,,,,,,,,,,,,
43631,1645492058.430945,24.0,0.0,3078.4614260000003,4592.307617,4268.205078,4071.794922,4059.487061,0.0,4.0,86.0,,,,0.0,4.0,1.0,4.0,4.0,4.0,75.0,,,,,,,,12.0,0.0,0.593729,-0.151611,0.6462399999999999,0.454834,0.914565,-0.41455699999999995,-0.11572400000000001,-0.033589999999999995,-0.038296,-0.027405000000000002,,,,,,,,,,,,,,,,,,,,,,,,,,,,,,,,,,,,,,,,,,,,,,,,,,,,,,,,,,,,,,,,,
43632,1645492058.43876,25.0,0.0,3058.4614260000003,4660.512695,4255.897461,4038.974365,4012.820557,0.0,4.0,86.0,,,,0.0,4.0,1.0,4.0,4.0,4.0,75.0,,,,,,,,,,,,,,,,,,,,,,,,,,,,,,,,,,,,,,,,,,,,,,,,,,,,,,,,,,,,,,,,,,,,,,,,,,,,,,,,,,,,
43633,1645492058.446575,26.0,0.0,3092.3076170000004,4660.0,4278.974121,4069.743652,4042.0512700000004,0.0,4.0,86.0,,,,0.0,4.0,1.0,4.0,4.0,4.0,75.0,,,,,,,,13.0,0.0,0.593729,-0.151611,0.6462399999999999,0.454834,0.920424,-0.42090500000000003,-0.112795,-0.033502,-0.038324000000000004,-0.02984,,,,,,,,,,,,,,,,,,,,,,,,,,,,,,,,,,,,,,,,,,,,,,,,,,,,,,,,,,,,,,,,,
43634,1645492058.45439,27.0,0.0,3095.897461,4598.461426,4267.692383,4083.5898439999996,4066.1538090000004,0.0,4.0,86.0,,,,0.0,4.0,1.0,4.0,4.0,4.0,75.0,,,,,,,,,,,,,,,,,,,,,,,,,,,,,,,,,,,,,,,,,,,,,,,,,,,,,,0.0,0.0,32.0,0.8571200000000001,1.0,0.0,,,,,,,,,,,,,,,,,,,,,,,,,
43635,1645492058.4622052,28.0,0.0,3079.487061,4572.307617,4247.179688,4041.538574,4036.923096,0.0,4.0,86.0,,,,0.0,4.0,1.0,4.0,4.0,4.0,75.0,,,,,,,,14.0,0.0,0.593932,-0.151855,0.645996,0.454834,0.9116350000000001,-0.407233,-0.113771,-0.033569999999999996,-0.0383,-0.032081,,,,,,,,,,,,,,,,,,,,,,,,,,,,,,,,,,,,,,,,,,,,,,,,,,,,,,,,,,,,,,,,,
43636,1645492058.4700198,29.0,0.0,3098.4614260000003,4587.179688,4269.743652,4031.281982,4023.076904,0.0,4.0,86.0,,,,0.0,4.0,1.0,4.0,4.0,4.0,75.0,,,,,,,,,,,,,,,,,,,,,,,,,,,,,,,,,,,,,,,,,,,,,,,,,,,,,,,,,,,,,,,,,,,,,,,,,,,,,,,,,,,,
43637,1645492058.477935,30.0,0.0,3088.205078,4625.641113000001,4270.769043,4021.025635,4016.4101560000004,0.0,4.0,86.0,,,,0.0,4.0,1.0,4.0,4.0,4.0,75.0,,,,,,,,15.0,0.0,0.594119,-0.151855,0.645996,0.45458999999999994,0.909682,-0.423346,-0.123049,-0.033631,-0.038327,-0.034194999999999996,,,,,,,,,,,,,,,,,,,,,,,,,,,,,,,,,,,,,,,,,,,,,,,,,,,,,,,,,,,,,,,,,
43638,1645492058.48575,31.0,0.0,3046.666748,4655.897461,4236.410156,3982.0512700000004,3986.1538090000004,0.0,4.0,86.0,,,,0.0,4.0,1.0,4.0,4.0,4.0,75.0,,,,,,,,,,,,,,,,,,,,,,,,,,,,,,,,,,,,,,,,,,,,,,,,,,,,,,10.0,0.0,32.0,0.8571200000000001,1.0,0.0,,,,,,,,,,,,,,,,,,,,,,,,,
43639,1645492058.493566,32.0,0.0,3070.769287,4665.128418,4225.128418,4008.205078,4006.1538090000004,0.0,4.0,86.0,,,,0.0,4.0,1.0,4.0,4.0,4.0,75.0,,,,,,,,16.0,0.0,0.594322,-0.1521,0.645752,0.45458999999999994,0.9184709999999999,-0.415534,-0.11230599999999999,-0.033735,-0.038206,-0.02975,,,,,,,,,,,,,,,,,,,,,,,,,,,,,,,,,,,,,,,,,,,,,,,,,,,,,,,,,,,,,,,,,
43640,1645492058.5013812,33.0,0.0,3110.256348,4692.307617,4229.743652,4036.4101560000004,4040.512939,0.0,4.0,86.0,,,,0.0,4.0,1.0,4.0,4.0,4.0,75.0,,,,,,,,,,,,,,,,,,,,,,,,,,,,,,,,,,,,,,,,,,,,,,,,,,,,,,,,,,,,,,,,,,,,,,,,,,,,,,,,,,,,
43641,1645492058.509196,34.0,0.0,3067.6923829999996,4664.615234000001,4224.615234000001,4013.3332520000004,3998.974365,0.0,4.0,86.0,,,,0.0,4.0,1.0,4.0,4.0,4.0,75.0,,,,,,,,17.0,0.0,0.594259,-0.152344,0.645752,0.45458999999999994,0.913588,-0.406744,-0.12549000000000002,-0.03373,-0.038096,-0.025847000000000002,,,,,,,,,,,,,,,,,,,,,,,,,,,,,,,,,,,,,,,,,,,,,,,,,,,,,,,,,,,,,,,,,
43642,1645492058.517011,35.0,0.0,3029.230713,4586.153809,4224.102539,4018.974365,3957.4357909999994,0.0,4.0,86.0,,,,0.0,4.0,1.0,4.0,4.0,4.0,75.0,,,,,,,,,,,,,,,,,,,,1.0,0.0,0.0,,,,,,,,,,,,,,,,,,,,,,,,,,,,,,,,10.0,0.0,32.0,1.0,1.0,0.0,3268.061035,1671.567017,457.741089,75.297997,14.139122,1071.251221,276.121948,184.2547,130.106079,36.840794,22.454525,4.247105,4.68351,3.464182,4.027629,107.384628,42.667759000000004,27.997524,10.135961,13.657217999999999,996.5727539999999,28.945257,11.269696000000001,11.762537,9.183517
43643,1645492058.524826,36.0,0.0,3093.333252,4596.922852000001,4235.897461,4045.641113,4004.615479,0.0,4.0,86.0,,,,0.0,4.0,1.0,4.0,4.0,4.0,75.0,,,,,,,,18.0,0.0,0.594711,-0.152344,0.645508,0.454346,0.918959,-0.403326,-0.120119,-0.033824,-0.038095,-0.022188,,,,,,,,,,,,,,,,,,,,,,,,,,,,,,,,,,,,,,,,,,,,,,,,,,,,,,,,,,,,,,,,,
43644,1645492058.532641,37.0,0.0,3172.820557,4629.743652,4254.871582,4053.3332520000004,4057.4357909999994,0.0,4.0,86.0,,,,0.0,4.0,1.0,4.0,4.0,4.0,75.0,,,,,,,,,,,,,,,,,,,,,,,,,,,,,,,,,,,,,,,,,,,,,,,,,,,,,,,,,,,,,,,,,,,,,,,,,,,,,,,,,,,,
43645,1645492058.540456,38.0,0.0,3178.974365,4605.641113000001,4266.153809,4050.256348,4044.102539,0.0,4.0,86.0,,,,0.0,4.0,1.0,4.0,4.0,4.0,75.0,,,,,,,,19.0,0.0,0.594648,-0.152588,0.645508,0.454346,0.910658,-0.410163,-0.123049,-0.033762,-0.038241000000000004,-0.025243,,,,,,,,,,,,,,,,,,,,,,,,,,,,,,,,,,,,,,,,,,,,,,,,,,,,,,,,,,,,,,,,,
43646,1645492058.548371,39.0,0.0,3154.871826,4631.794922,4262.563965,4058.461426,4035.384521,0.0,4.0,86.0,,,,0.0,4.0,1.0,4.0,4.0,4.0,75.0,,,,,,,,,,,,,,,,,,,,,,,,,,,,,,,,,,,,,,,,,,,,,,,,,,,,,,10.0,0.0,32.0,1.0,1.0,0.0,,,,,,,,,,,,,,,,,,,,,,,,,
43647,1645492058.556186,40.0,0.0,3187.6923829999996,4683.589844,4275.384765999999,4093.3332520000004,4085.641113,0.0,4.0,86.0,,,,0.0,4.0,1.0,4.0,4.0,4.0,75.0,,,,,,,,20.0,0.0,0.594648,-0.152588,0.645508,0.454346,0.9087049999999999,-0.401373,-0.127932,-0.033804,-0.038225,-0.027797000000000002,,,,,,,,,,,,,,,,,,,,,,,,,,,,,,,,,,,,,,,,,,,,,,,,,,,,,,,,,,,,,,,,,
43648,1645492058.564002,41.0,0.0,3247.179443,4664.102539,4292.307617,4111.282227000001,4137.436035,0.0,4.0,86.0,,,,0.0,4.0,1.0,4.0,4.0,4.0,75.0,,,,,,,,,,,,,,,,,,,,,,,,,,,,,,,,,,,,,,,,,,,,,,,,,,,,,,,,,,,,,,,,,,,,,,,,,,,,,,,,,,,,
43649,1645492058.571817,42.0,0.0,3248.718018,4677.436035,4282.05127,4122.05127,4123.077147999999,0.0,4.0,86.0,,,,0.0,4.0,1.0,4.0,4.0,4.0,75.0,,,,,,,,21.0,0.0,0.5947720000000001,-0.152832,0.645508,0.45410200000000006,0.913588,-0.40576799999999996,-0.109865,-0.033694999999999996,-0.038308999999999996,-0.030291000000000002,,,,,,,,,,,,,,,,,,,,,,,,,,,,,,,,,,,,,,,,,,,,,,,,,,,,,,,,,,,,,,,,,
43650,1645492058.579632,43.0,0.0,3232.820557,4706.153809,4269.230957,4167.179688,4092.3076170000004,0.0,4.0,86.0,,,,0.0,4.0,1.0,4.0,4.0,4.0,75.0,,,,,,,,,,,,,,,,,,,,,,,,,,,,,,,,,,,,,,,,,,,,,,,,,,,,,,10.0,0.0,32.0,1.0,1.0,0.0,,,,,,,,,,,,,,,,,,,,,,,,,
43651,1645492058.5874472,44.0,0.0,3238.974365,4666.153809,4266.666504,4152.307617,4088.718018,0.0,4.0,86.0,,,,0.0,4.0,1.0,4.0,4.0,4.0,75.0,,,,,,,,22.0,0.0,0.5947720000000001,-0.152832,0.645508,0.45410200000000006,0.921889,-0.404303,-0.121584,-0.033792,-0.038287,-0.032535,,,,,,,,,,,,,,,,,,,,,,,,,,,,,,,,,,,,,,,,,,,,,,,,,,,,,,,,,,,,,,,,,
43652,1645492058.5952618,45.0,0.0,3227.179443,4642.563965,4247.179688,4048.718018,4063.076904,0.0,4.0,86.0,,,,0.0,4.0,1.0,4.0,4.0,4.0,75.0,,,,,,,,,,,,,,,,,,,,,,,,,,,,,,,,,,,,,,,,,,,,,,,,,,,,,,,,,,,,,,,,,,,,,,,,,,,,,,,,,,,,
43653,1645492058.603077,46.0,0.0,3217.94873,4680.0,4229.230957,4025.1281740000004,4030.256348,0.0,4.0,86.0,,,,0.0,4.0,1.0,4.0,4.0,4.0,75.0,,,,,,,,23.0,0.0,0.594896,-0.153076,0.645508,0.45385699999999995,0.922377,-0.39697899999999997,-0.116701,-0.033734,-0.038072,-0.034506,,,,,,,,,,,,,,,,,,,,,,,,,,,,,,,,,,,,,,,,,,,,,,,,,,,,,,,,,,,,,,,,,
43654,1645492058.610892,47.0,0.0,3253.846191,4688.205078,4261.025879,4090.256348,4061.025635,0.0,4.0,86.0,,,,0.0,4.0,1.0,4.0,4.0,4.0,75.0,,,,,,,,,,,,,,,,,,,,,,,,,,,,,,,,,,,,,,,,,,,,,,,,,,,,,,10.0,0.0,32.0,1.0,1.0,0.0,,,,,,,,,,,,,,,,,,,,,,,,,
43655,1645492058.618707,48.0,0.0,3276.923096,4645.641113000001,4292.820313,4136.922852000001,4124.102539,0.0,4.0,86.0,,,,0.0,4.0,1.0,4.0,4.0,4.0,75.0,,,,,,,,24.0,0.0,0.5950979999999999,-0.15332,0.6452640000000001,0.45385699999999995,0.9160299999999999,-0.40283800000000003,-0.13916199999999998,-0.033777999999999996,-0.038073,-0.03003,,,,,,,,,,,,,,,,,,,,,,,,,,,,,,,,,,,,,,,,,,,,,,,,,,,,,,,,,,,,,,,,,
43656,1645492058.626622,49.0,0.0,3220.512939,4631.794922,4234.358886999999,4113.333496,4080.0,0.0,4.0,86.0,,,,0.0,4.0,1.0,4.0,4.0,4.0,75.0,,,,,,,,,,,,,,,,,,,,,,,,,,,,,,,,,,,,,,,,,,,,,,,,,,,,,,,,,,,,,,,,,,,,,,,,,,,,,,,,,,,,
43657,1645492058.634438,50.0,0.0,3154.871826,4629.230957,4162.563965,4027.179443,3954.8718259999996,0.0,4.0,86.0,,,,0.0,4.0,1.0,4.0,4.0,4.0,75.0,,,,,,,,25.0,0.0,0.5950350000000001,-0.153564,0.6452640000000001,0.45385699999999995,0.914565,-0.399908,-0.114748,-0.03377,-0.038026,-0.032154,,,,,,,,,,,,,,,,,,,,,,,,,,,,,,,,,,,,,,,,,,,,,,,,,,,,,,,,,,,,,,,,,
43658,1645492058.642253,51.0,0.0,3171.794922,4635.897461,4188.205078,3971.794922,3941.025635,0.0,4.0,86.0,,,,0.0,4.0,1.0,4.0,4.0,4.0,75.0,1.0,0.0,0.0,0.0,2.0,1.0,0.0,,,,,,,,,,,,,1.0,0.0,0.0,,,,,,,,,,,,,,,,,,,,,,,,,,,,,,,,0.0,0.0,64.0,0.590064,1.0,0.0,4222.784668,2192.907959,586.9151,94.67828399999999,15.424226,1606.362915,365.003082,246.89465299999998,170.137024,46.700283,21.153246,3.4944669999999998,4.91218,3.6670529999999997,3.764167,135.265671,45.633305,35.281315,9.602374000000001,14.417235,1442.9488529999999,31.927599,12.578975,13.459485999999998,9.55255
43659,1645492058.650068,52.0,0.0,3225.6411129999997,4649.230957,4243.589844,4013.3332520000004,4015.384521,0.0,4.0,86.0,,,,0.0,4.0,1.0,4.0,4.0,4.0,75.0,,,,,,,,26.0,0.0,0.5950350000000001,-0.153564,0.6452640000000001,0.45385699999999995,0.9150530000000001,-0.397467,-0.126467,-0.03386,-0.03808,-0.034164,,,,,,,,,,,,,,,,,,,,,,,,,,,,,,,,,,,,,,,,,,,,,,,,,,,,,,,,,,,,,,,,,
43660,1645492058.657883,53.0,0.0,3228.718018,4622.05127,4237.94873,4074.8718259999996,4036.923096,0.0,4.0,86.0,,,,0.0,4.0,1.0,4.0,4.0,4.0,75.0,,,,,,,,,,,,,,,,,,,,,,,,,,,,,,,,,,,,,,,,,,,,,,,,,,,,,,,,,,,,,,,,,,,,,,,,,,,,,,,,,,,,
43661,1645492058.665698,54.0,0.0,3191.281982,4598.974121,4198.974121,4057.4357909999994,4007.6923829999996,0.0,4.0,86.0,,,,0.0,4.0,1.0,4.0,4.0,4.0,75.0,,,,,,,,27.0,0.0,0.595221,-0.153564,0.6452640000000001,0.453613,0.9077290000000001,-0.398932,-0.12060699999999999,-0.033892,-0.037982999999999996,-0.029722000000000002,,,,,,,,,,,,,,,,,,,,,,,,,,,,,,,,,,,,,,,,,,,,,,,,,,,,,,,,,,,,,,,,,
43662,1645492058.6735132,55.0,0.0,3156.410156,4605.128418,4176.922852000001,4004.615479,3973.3332520000004,0.0,4.0,86.0,,,,0.0,4.0,1.0,4.0,4.0,4.0,75.0,,,,,,,,,,,,,,,,,,,,,,,,,,,,,,,,,,,,,,,,,,,,,,,,,,,,,,10.0,0.0,64.0,0.590064,1.0,0.0,,,,,,,,,,,,,,,,,,,,,,,,,
43663,1645492058.6813278,56.0,0.0,3135.897461,4597.94873,4168.205078,3987.6923829999996,3956.4101560000004,0.0,4.0,86.0,,,,0.0,4.0,1.0,4.0,4.0,4.0,75.0,,,,,,,,28.0,0.0,0.595422,-0.153809,0.6450199999999999,0.453613,0.903334,-0.401373,-0.12549000000000002,-0.033872,-0.037994,-0.031876999999999996,,,,,,,,,,,,,,,,,,,,,,,,,,,,,,,,,,,,,,,,,,,,,,,,,,,,,,,,,,,,,,,,,
43664,1645492058.689244,57.0,0.0,3146.153809,4556.410156,4168.205078,3990.7692869999996,3958.461426,0.0,4.0,86.0,,,,0.0,4.0,1.0,4.0,4.0,4.0,75.0,,,,,,,,,,,,,,,,,,,,,,,,,,,,,,,,,,,,,,,,,,,,,,,,,,,,,,,,,,,,,,,,,,,,,,,,,,,,,,,,,,,,
43665,1645492058.697059,58.0,0.0,3156.923096,4563.077147999999,4178.974121,3995.384521,3948.205078,0.0,4.0,86.0,,,,0.0,4.0,1.0,4.0,4.0,4.0,75.0,,,,,,,,29.0,0.0,0.595236,-0.153809,0.6450199999999999,0.45385699999999995,0.9121229999999999,-0.409674,-0.121584,-0.033854,-0.038002999999999995,-0.027614999999999997,,,,,,,,,,,,,,,,,,,,,,,,,,,,,,,,,,,,,,,,,,,,,,,,,,,,,,,,,,,,,,,,,
43666,1645492058.704874,59.0,0.0,3145.6411129999997,4630.256348,4180.0,3996.923096,3921.538574,0.0,4.0,86.0,,,,0.0,4.0,1.0,4.0,4.0,4.0,75.0,,,,,,,,,,,,,,,,,,,,,,,,,,,,,,,,,,,,,,,,,,,,,,,,,,,,,,10.0,0.0,64.0,0.590064,1.0,0.0,,,,,,,,,,,,,,,,,,,,,,,,,
43667,1645492058.71269,60.0,0.0,3145.6411129999997,4631.282227000001,4154.358886999999,3981.025635,3917.4357909999994,0.0,4.0,86.0,,,,0.0,4.0,1.0,4.0,4.0,4.0,75.0,,,,,,,,30.0,0.0,0.595236,-0.153809,0.6450199999999999,0.45385699999999995,0.9126120000000001,-0.41065100000000004,-0.123537,-0.033886,-0.038060000000000004,-0.030077999999999997,,,,,,,,,,,,,,,,,,,,,,,,,,,,,,,,,,,,,,,,,,,,,,,,,,,,,,,,,,,,,,,,,
43668,1645492058.720505,61.0,0.0,3144.615479,4577.94873,4131.282227000001,3953.8461909999996,3917.9487299999996,0.0,4.0,86.0,,,,0.0,4.0,1.0,4.0,4.0,4.0,75.0,,,,,,,,,,,,,,,,,,,,,,,,,,,,,,,,,,,,,,,,,,,,,,,,,,,,,,,,,,,,,,,,,,,,,,,,,,,,,,,,,,,,
43669,1645492058.72832,62.0,0.0,3140.0,4620.512695,4139.487305,3969.743652,3913.8461909999996,0.0,4.0,86.0,,,,0.0,4.0,1.0,4.0,4.0,4.0,75.0,,,,,,,,31.0,0.0,0.595422,-0.153809,0.6450199999999999,0.453613,0.903334,-0.401373,-0.12549000000000002,-0.033916,-0.038112,-0.032344,,,,,,,,,,,,,,,,,,,,,,,,,,,,,,,,,,,,,,,,,,,,,,,,,,,,,,,,,,,,,,,,,
43670,1645492058.736136,63.0,0.0,3168.718018,4717.436035,4158.461426,4000.0,3924.615479,0.0,4.0,86.0,,,,0.0,4.0,1.0,4.0,4.0,4.0,75.0,,,,,,,,,,,,,,,,,,,,,,,,,,,,,,,,,,,,,,,,,,,,,,,,,,,,,,10.0,0.0,64.0,0.590064,1.0,0.0,,,,,,,,,,,,,,,,,,,,,,,,,
43671,1645492058.743951,64.0,0.0,3209.743652,4694.358886999999,4161.538574,3970.7692869999996,3944.615479,450.0,4.0,86.0,,,,0.0,4.0,1.0,4.0,4.0,4.0,75.0,,,,,,,,32.0,0.0,0.595236,-0.153809,0.6450199999999999,0.45385699999999995,0.9126120000000001,-0.41065100000000004,-0.123537,-0.033942,-0.038158,-0.034333999999999996,,,,,,,,,,,,,,,,,,,,,,,,,,,,,,,,,,,,,,,,,,,,,,,,,,,,,,,,,,,,,,,,,
43672,1645492058.751766,65.0,0.0,3218.974365,4639.487305,4162.563965,3938.461426,3965.641113,450.0,4.0,86.0,,,,0.0,4.0,1.0,4.0,4.0,4.0,75.0,,,,,,,,,,,,,,,,,,,,,,,,,,,,,,,,,,,,,,,,,,,,,,,,,,,,,,,,,,,,,,,,,,,,,,,,,,,,,,,,,,,,
43673,1645492058.759682,66.0,0.0,3201.025635,4652.307617,4149.230957,3955.897461,3955.897461,16226.0,4.0,86.0,,,,0.0,4.0,0.0,2.0,4.0,4.0,50.0,,,,,,,,33.0,0.0,0.595236,-0.153809,0.6450199999999999,0.45385699999999995,0.905776,-0.407721,-0.11084200000000001,-0.033966,-0.038102,-0.036223000000000005,,,,,,,,,,,,,,,,,,,,,,,,,,,,,,,,,,,,,,,,,,,,,,,,,,,,,,,,,,,,,,,,,
43674,1645492058.767497,67.0,0.0,3206.666748,4638.461426,4145.128418,3996.923096,3935.384521,450.0,4.0,86.0,,,,0.0,4.0,0.0,2.0,4.0,4.0,50.0,,,,,,,,,,,,,,,,,,,,1.0,0.0,0.0,,,,,,,,,,,,,,,,,,,,,,,,,,,,,,,,10.0,0.0,64.0,0.290622,1.0,0.0,4692.604004,2461.349854,645.111633,103.72863000000001,15.998522,2017.820068,413.250702,282.113495,190.839111,52.868458,20.108891,2.96214,5.03491,3.80712,3.424178,152.78968799999998,44.729549,39.538857,9.865203,14.195451,1769.589233,32.298969,14.179238,14.556442,9.577043
43675,1645492058.775312,68.0,0.0,3247.179443,4622.563965,4172.820313,4028.205078,3960.0,0.0,4.0,86.0,,,,0.0,4.0,0.0,2.0,4.0,4.0,50.0,,,,,,,,34.0,0.0,0.595299,-0.153564,0.6450199999999999,0.45385699999999995,0.9038219999999999,-0.41358100000000003,-0.12109600000000001,-0.033889999999999997,-0.038051999999999996,-0.037728,,,,,,,,,,,,,,,,,,,,,,,,,,,,,,,,,,,,,,,,,,,,,,,,,,,,,,,,,,,,,,,,,
43676,1645492058.783128,69.0,0.0,3243.589844,4600.0,4177.94873,4026.1538090000004,3985.641113,450.0,4.0,86.0,,,,0.0,4.0,0.0,2.0,4.0,4.0,50.0,,,,,,,,,,,,,,,,,,,,,,,,,,,,,,,,,,,,,,,,,,,,,,,,,,,,,,,,,,,,,,,,,,,,,,,,,,,,,,,,,,,,
43677,1645492058.790943,70.0,0.0,3169.743652,4552.307617,4135.384765999999,3990.256348,3952.3076170000004,315.0,4.0,86.0,,,,0.0,4.0,0.0,2.0,4.0,4.0,50.0,,,,,,,,35.0,0.0,0.595299,-0.153564,0.6450199999999999,0.45385699999999995,0.922377,-0.40576799999999996,-0.130373,-0.033821,-0.038202,-0.032978,,,,,,,,,,,,,,,,,,,,,,,,,,,,,,,,,,,,,,,,,,,,,,,,,,,,,,,,,,,,,,,,,
43678,1645492058.798759,71.0,0.0,3155.384521,4581.025879,4117.436035,3963.5898439999996,3918.461426,450.0,4.0,86.0,,,,0.0,4.0,0.0,2.0,4.0,4.0,50.0,,,,,,,,,,,,,,,,,,,,,,,,,,,,,,,,,,,,,,,,,,,,,,,,,,,,,,10.0,0.0,64.0,0.290622,1.0,0.0,,,,,,,,,,,,,,,,,,,,,,,,,
43679,1645492058.806574,72.0,0.0,3226.153809,4614.358886999999,4140.0,3956.923096,3941.538574,450.0,4.0,86.0,,,,0.0,4.0,0.0,2.0,4.0,4.0,50.0,,,,,,,,36.0,0.0,0.595299,-0.153564,0.6450199999999999,0.45385699999999995,0.917006,-0.401373,-0.112795,-0.033808,-0.038238999999999995,-0.034905,,,,,,,,,,,,,,,,,,,,,,,,,,,,,,,,,,,,,,,,,,,,,,,,,,,,,,,,,,,,,,,,,
43680,1645492058.814389,73.0,0.0,3235.384521,4567.692383,4131.282227000001,3946.1538090000004,3946.6667479999996,16164.0,4.0,86.0,,,,0.0,4.0,0.0,2.0,4.0,4.0,50.0,,,,,,,,,,,,,,,,,,,,,,,,,,,,,,,,,,,,,,,,,,,,,,,,,,,,,,,,,,,,,,,,,,,,,,,,,,,,,,,,,,,,
43681,1645492058.822205,74.0,0.0,3213.333252,4564.615234000001,4125.641113000001,3996.4101560000004,3928.718018,450.0,4.0,86.0,,,,0.0,4.0,0.0,2.0,4.0,4.0,50.0,,,,,,,,37.0,0.0,0.595378,-0.153564,0.644775,0.45410200000000006,0.910658,-0.41260399999999997,-0.123049,-0.033797,-0.038126,-0.030438,,,,,,,,,,,,,,,,,,,,,,,,,,,,,,,,,,,,,,,,,,,,,,,,,,,,,,,,,,,,,,,,,
43682,1645492058.8301198,75.0,0.0,3250.769287,4629.743652,4154.871582,4060.512939,3965.641113,16216.0,4.0,86.0,,,,0.0,4.0,0.0,2.0,4.0,4.0,50.0,,,,,,,,,,,,,,,,,,,,,,,,,,,,,,,,,,,,,,,,,,,,,,,,,,,,,,0.0,0.0,64.0,0.290622,1.0,0.0,,,,,,,,,,,,,,,,,,,,,,,,,
43683,1645492058.837935,76.0,0.0,3251.794922,4623.589844,4147.179688,4009.2307130000004,3991.794922,450.0,4.0,86.0,,,,0.0,4.0,0.0,2.0,4.0,4.0,50.0,,,,,,,,38.0,0.0,0.59544,-0.15332,0.644775,0.45410200000000006,0.9131,-0.404791,-0.12695499999999998,-0.033737,-0.03822,-0.026271,,,,,,,,,,,,,,,,,,,,,,,,,,,,,,,,,,,,,,,,,,,,,,,,,,,,,,,,,,,,,,,,,
43684,1645492058.845751,77.0,0.0,3203.589844,4575.384765999999,4111.282227000001,3947.179443,3948.718018,450.0,4.0,86.0,,,,0.0,4.0,0.0,2.0,4.0,4.0,50.0,,,,,,,,,,,,,,,,,,,,,,,,,,,,,,,,,,,,,,,,,,,,,,,,,,,,,,,,,,,,,,,,,,,,,,,,,,,,,,,,,,,,
43685,1645492058.853566,78.0,0.0,3233.333252,4580.512695,4127.179688,3998.461426,3939.487061,450.0,4.0,86.0,,,,0.0,4.0,0.0,2.0,4.0,4.0,50.0,,,,,,,,39.0,0.0,0.59544,-0.15332,0.644775,0.45410200000000006,0.9126120000000001,-0.409674,-0.126467,-0.033733,-0.038206,-0.022765,,,,,,,,,,,,,,,,,,,,,,,,,,,,,,,,,,,,,,,,,,,,,,,,,,,,,,,,,,,,,,,,,
43686,1645492058.861381,79.0,0.0,3290.256348,4587.692383,4157.94873,4030.7692869999996,3970.256348,16216.0,4.0,86.0,,,,0.0,4.0,0.0,2.0,4.0,4.0,50.0,,,,,,,,,,,,,,,,,,,,,,,,,,,,,,,,,,,,,,,,,,,,,,,,,,,,,,0.0,0.0,64.0,0.290622,1.0,0.0,,,,,,,,,,,,,,,,,,,,,,,,,
43687,1645492058.8691971,80.0,0.0,3280.512939,4578.461426,4144.615234000001,3994.8718259999996,3968.718018,450.0,4.0,86.0,,,,0.0,4.0,0.0,2.0,4.0,4.0,50.0,,,,,,,,40.0,0.0,0.595254,-0.15332,0.644775,0.454346,0.9131,-0.409674,-0.126467,-0.033729,-0.038292,-0.02586,,,,,,,,,,,,,,,,,,,,,,,,,,,,,,,,,,,,,,,,,,,,,,,,,,,,,,,,,,,,,,,,,
43688,1645492058.877012,81.0,0.0,3281.025635,4591.794922,4136.410156,4022.5642090000006,3975.897461,450.0,4.0,86.0,,,,0.0,4.0,0.0,2.0,4.0,4.0,50.0,,,,,,,,,,,,,,,,,,,,,,,,,,,,,,,,,,,,,,,,,,,,,,,,,,,,,,,,,,,,,,,,,,,,,,,,,,,,,,,,,,,,
43689,1645492058.884827,82.0,0.0,3331.794922,4626.153809,4165.128418,4078.974365,4018.461426,450.0,4.0,86.0,,,,0.0,4.0,0.0,2.0,4.0,4.0,50.0,,,,,,,,41.0,0.0,0.595254,-0.15332,0.644775,0.454346,0.9043110000000001,-0.41065100000000004,-0.120119,-0.033725,-0.038174,-0.022248,,,,,,,,,,,,,,,,,,,,,,,,,,,,,,,,,,,,,,,,,,,,,,,,,,,,,,,,,,,,,,,,,
43690,1645492058.892643,83.0,0.0,3369.743652,4620.512695,4189.230957,4069.2307130000004,4041.538574,16216.0,4.0,86.0,,,,0.0,4.0,0.0,2.0,4.0,4.0,50.0,,,,,,,,,,,,,,,,,,,,1.0,0.0,0.0,,,,,,,,,,,,,,,,,,,,,,,,,,,,,,,,0.0,0.0,1.0,0.0,512.0,0.353458,4557.585938,2381.166504,611.202454,99.06945,15.719316000000001,2165.151611,404.66351299999997,277.282715,184.964218,53.117493,19.370468,2.696977,4.891439,3.741732,3.0806009999999997,156.25294499999998,39.720997,39.14756,10.577391,13.056219,1872.045166,29.409056,15.158351999999999,14.472807999999999,9.26154
43691,1645492058.900558,84.0,0.0,3358.974365,4578.974121,4183.589844,4045.1281740000004,4034.358887,450.0,4.0,86.0,,,,0.0,4.0,0.0,2.0,4.0,4.0,50.0,,,,,,,,42.0,0.0,0.59544,-0.15332,0.644775,0.45410200000000006,0.9155409999999999,-0.40283800000000003,-0.129397,-0.033673,-0.038165,-0.025297,,,,,,,,,,,,,,,,,,,,,,,,,,,,,,,,,,,,,,,,,,,,,,,,,,,,,,,,,,,,,,,,,
43692,1645492058.908373,85.0,0.0,3342.564209,4576.922852000001,4163.077147999999,4064.102539,4020.512939,450.0,4.0,86.0,,,,0.0,4.0,0.0,2.0,4.0,4.0,50.0,,,,,,,,,,,,,,,,,,,,,,,,,,,,,,,,,,,,,,,,,,,,,,,,,,,,,,,,,,,,,,,,,,,,,,,,,,,,,,,,,,,,
43693,1645492058.916189,86.0,0.0,3366.6667479999996,4616.410156,4156.410156,4091.794922,4016.4101560000004,450.0,4.0,86.0,,,,0.0,4.0,0.0,2.0,4.0,4.0,50.0,,,,,,,,43.0,0.0,0.59544,-0.15332,0.644775,0.45410200000000006,0.9150530000000001,-0.397467,-0.11133,-0.033724000000000004,-0.038011,-0.021791,,,,,,,,,,,,,,,,,,,,,,,,,,,,,,,,,,,,,,,,,,,,,,,,,,,,,,,,,,,,,,,,,
43694,1645492058.9240038,87.0,0.0,3391.794922,4616.410156,4172.820313,4097.436035,4035.384521,16216.0,4.0,86.0,,,,0.0,4.0,0.0,2.0,4.0,4.0,50.0,,,,,,,,,,,,,,,,,,,,,,,,,,,,,,,,,,,,,,,,,,,,,,,,,,,,,,0.0,0.0,1.0,0.0,512.0,0.353458,,,,,,,,,,,,,,,,,,,,,,,,,
43695,1645492058.931819,88.0,0.0,3371.794922,4580.512695,4172.307617,4083.076904,4046.1538090000004,450.0,4.0,86.0,,,,0.0,4.0,0.0,2.0,4.0,4.0,50.0,,,,,,,,44.0,0.0,0.595113,-0.153564,0.6450199999999999,0.45410200000000006,0.921889,-0.415045,-0.125002,-0.033769,-0.038018,-0.018684,,,,,,,,,,,,,,,,,,,,,,,,,,,,,,,,,,,,,,,,,,,,,,,,,,,,,,,,,,,,,,,,,
43696,1645492058.939635,89.0,0.0,3336.923096,4585.641113000001,4146.666504,4062.5642090000006,4027.179443,450.0,4.0,86.0,,,,0.0,4.0,0.0,2.0,4.0,4.0,50.0,,,,,,,,,,,,,,,,,,,,,,,,,,,,,,,,,,,,,,,,,,,,,,,,,,,,,,,,,,,,,,,,,,,,,,,,,,,,,,,,,,,,
43697,1645492058.94745,90.0,0.0,3330.769287,4600.512695,4133.846191,4024.102539,4012.3076170000004,450.0,4.0,86.0,,,,0.0,4.0,0.0,2.0,4.0,4.0,50.0,,,,,,,,45.0,0.0,0.595299,-0.153564,0.6450199999999999,0.45385699999999995,0.905776,-0.410163,-0.122072,-0.033762,-0.038025,-0.022187000000000002,,,,,,,,,,,,,,,,,,,,,,,,,,,,,,,,,,,,,,,,,,,,,,,,,,,,,,,,,,,,,,,,,
43698,1645492058.955266,91.0,0.0,3365.641113,4601.025879,4149.743652,4010.256348,4028.718018,16216.0,4.0,86.0,,,,0.0,4.0,0.0,2.0,4.0,4.0,50.0,,,,,,,,,,,,,,,,,,,,,,,,,,,,,,,,,,,,,,,,,,,,,,,,,,,,,,0.0,0.0,1.0,0.0,512.0,0.353458,,,,,,,,,,,,,,,,,,,,,,,,,
43699,1645492058.9630811,92.0,0.0,3406.1538090000004,4635.897461,4163.077147999999,4084.102539,4036.923096,450.0,4.0,86.0,,,,0.0,4.0,0.0,2.0,4.0,4.0,50.0,,,,,,,,46.0,0.0,0.595299,-0.153564,0.6450199999999999,0.45385699999999995,0.929213,-0.404791,-0.126467,-0.033755,-0.03808,-0.025193,,,,,,,,,,,,,,,,,,,,,,,,,,,,,,,,,,,,,,,,,,,,,,,,,,,,,,,,,,,,,,,,,
43700,1645492058.9709961,93.0,0.0,3401.025635,4639.487305,4158.461426,4122.563965,4012.820557,450.0,4.0,86.0,,,,0.0,4.0,0.0,2.0,4.0,4.0,50.0,,,,,,,,,,,,,,,,,,,,,,,,,,,,,,,,,,,,,,,,,,,,,,,,,,,,,,,,,,,,,,,,,,,,,,,,,,,,,,,,,,,,
43701,1645492058.978812,94.0,0.0,3378.461426,4582.05127,4143.589844,4050.256348,3995.384521,450.0,4.0,86.0,,,,0.0,4.0,0.0,2.0,4.0,4.0,50.0,,,,,,,,47.0,0.0,0.5949720000000001,-0.153809,0.6452640000000001,0.45385699999999995,0.91017,-0.406744,-0.116701,-0.033846,-0.037982999999999996,-0.027995999999999997,,,,,,,,,,,,,,,,,,,,,,,,,,,,,,,,,,,,,,,,,,,,,,,,,,,,,,,,,,,,,,,,,
43702,1645492058.986728,95.0,0.0,3389.2307130000004,4589.743652,4130.769043,4013.8461909999996,4006.6667479999996,16216.0,4.0,86.0,,,,0.0,4.0,0.0,2.0,4.0,4.0,50.0,,,,,,,,,,,,,,,,,,,,,,,,,,,,,,,,,,,,,,,,,,,,,,,,,,,,,,0.0,0.0,1.0,0.0,512.0,0.353458,,,,,,,,,,,,,,,,,,,,,,,,,
43703,1645492058.994543,96.0,0.0,3411.794922,4614.358886999999,4147.692383,4081.025635,4015.897461,450.0,4.0,86.0,,,,0.0,4.0,0.0,2.0,4.0,4.0,50.0,,,,,,,,48.0,0.0,0.594785,-0.153809,0.6452640000000001,0.45410200000000006,0.910658,-0.40528000000000003,-0.109377,-0.033879,-0.038091,-0.024171,,,,,,,,,,,,,,,,,,,,,,,,,,,,,,,,,,,,,,,,,,,,,,,,,,,,,,,,,,,,,,,,,
43704,1645492059.002359,97.0,0.0,3422.0512700000004,4584.615234000001,4184.615234000001,4129.230957,4021.538574,450.0,4.0,86.0,,,,0.0,4.0,0.0,2.0,4.0,4.0,50.0,,,,,,,,,,,,,,,,,,,,,,,,,,,,,,,,,,,,,,,,,,,,,,,,,,,,,,,,,,,,,,,,,,,,,,,,,,,,,,,,,,,,
43705,1645492059.010174,98.0,0.0,3448.718018,4603.077147999999,4190.769043,4122.563965,4054.8718259999996,450.0,4.0,86.0,,,,0.0,4.0,0.0,2.0,4.0,4.0,50.0,,,,,,,,49.0,0.0,0.594785,-0.153809,0.6452640000000001,0.45410200000000006,0.906752,-0.40283800000000003,-0.120119,-0.033812,-0.038188,-0.026831999999999998,,,,,,,,,,,,,,,,,,,,,,,,,,,,,,,,,,,,,,,,,,,,,,,,,,,,,,,,,,,,,,,,,
43706,1645492059.01799,99.0,0.0,3485.641113,4616.922852000001,4174.358886999999,4144.102539,4089.743652,16216.0,4.0,86.0,,,,0.0,4.0,0.0,2.0,4.0,4.0,50.0,,,,,,,,,,,,,,,,,,,,1.0,0.0,0.0,,,,,,,,,,,,,,,,,,,,,,,,,,,,,,,,0.0,0.0,1.0,0.0,512.0,0.38155500000000003,3858.6298829999996,1979.031006,496.359833,82.187714,14.663329999999998,1994.519043,342.69921899999997,234.127457,154.74411,47.187668,19.133547,2.663943,4.403046,3.514708,2.802551,144.283142,31.764608000000003,34.178604,11.516335,11.35558,1712.3339839999999,24.059849,14.767794,13.28948,8.723828999999999
43707,1645492059.025806,100.0,0.0,3493.8461909999996,4570.256348,4170.769043,4183.077147999999,4073.8461909999996,450.0,4.0,86.0,,,,0.0,4.0,0.0,2.0,4.0,4.0,50.0,,,,,,,,50.0,0.0,0.594599,-0.153809,0.6452640000000001,0.454346,0.914565,-0.41260399999999997,-0.116701,-0.033849000000000004,-0.038129,-0.029373000000000003,,,,,,,,,,,,,,,,,,,,,,,,,,,,,,,,,,,,,,,,,,,,,,,,,,,,,,,,,,,,,,,,,
43708,1645492059.033621,101.0,0.0,3460.512939,4574.358886999999,4165.128418,4192.820313,4026.6667479999996,450.0,4.0,86.0,,,,0.0,4.0,0.0,2.0,4.0,4.0,50.0,,,,,,,,,,,,,,,,,,,,,,,,,,,,,,,,,,,,,,,,,,,,,,,,,,,,,,,,,,,,,,,,,,,,,,,,,,,,,,,,,,,,
43709,1645492059.041437,102.0,0.0,3444.102539,4625.641113000001,4171.794922,4228.205078,4021.025635,450.0,4.0,86.0,,,,0.0,4.0,0.0,2.0,4.0,4.0,50.0,,,,,,,,51.0,0.0,0.594599,-0.153809,0.6452640000000001,0.454346,0.9155409999999999,-0.415534,-0.11425999999999999,-0.033783999999999995,-0.038223,-0.02546,,,,,,,,,,,,,,,,,,,,,,,,,,,,,,,,,,,,,,,,,,,,,,,,,,,,,,,,,,,,,,,,,
43710,1645492059.049252,103.0,0.0,3501.025635,4652.820313,4212.820313,4384.615234000001,4072.820557,16216.0,4.0,86.0,,,,0.0,4.0,0.0,2.0,4.0,4.0,50.0,,,,,,,,,,,,,,,,,,,,,,,,,,,,,,,,,,,,,,,,,,,,,,,,,,,,,,0.0,0.0,1.0,0.0,512.0,0.38155500000000003,,,,,,,,,,,,,,,,,,,,,,,,,
43711,1645492059.057168,104.0,0.0,3551.281982,4660.512695,4223.589844,4539.487305,4083.076904,450.0,4.0,86.0,,,,0.0,4.0,0.0,2.0,4.0,4.0,50.0,,,,,,,,52.0,0.0,0.594785,-0.153809,0.6452640000000001,0.45410200000000006,0.913588,-0.421393,-0.11572400000000001,-0.033775,-0.038209,-0.021888,,,,,,,,,,,,,,,,,,,,,,,,,,,,,,,,,,,,,,,,,,,,,,,,,,,,,,,,,,,,,,,,,
43712,1645492059.064983,105.0,0.0,3523.076904,4646.666504,4193.333496,4545.641113000001,4035.384521,450.0,4.0,86.0,,,,0.0,4.0,0.0,2.0,4.0,4.0,50.0,,,,,,,,,,,,,,,,,,,,,,,,,,,,,,,,,,,,,,,,,,,,,,,,,,,,,,,,,,,,,,,,,,,,,,,,,,,,,,,,,,,,
43713,1645492059.072798,106.0,0.0,3490.256348,4656.410156,4184.615234000001,4525.641113000001,4018.974365,450.0,4.0,86.0,,,,0.0,4.0,0.0,2.0,4.0,4.0,50.0,,,,,,,,53.0,0.0,0.594785,-0.153809,0.6452640000000001,0.45410200000000006,0.905776,-0.42090500000000003,-0.123049,-0.033815,-0.038245999999999995,-0.024875,,,,,,,,,,,,,,,,,,,,,,,,,,,,,,,,,,,,,,,,,,,,,,,,,,,,,,,,,,,,,,,,,
43714,1645492059.080614,107.0,0.0,3516.4101560000004,4693.333496,4184.615234000001,4581.538574,4037.9487299999996,16216.0,4.0,86.0,,,,0.0,4.0,0.0,2.0,4.0,4.0,50.0,,,,,,,,,,,,,,,,,,,,,,,,,,,,,,,,,,,,,,,,,,,,,,,,,,,,,,0.0,0.0,1.0,0.0,512.0,0.38155500000000003,,,,,,,,,,,,,,,,,,,,,,,,,
43715,1645492059.088429,108.0,0.0,3541.025635,4649.230957,4176.410156,4594.358886999999,4038.461426,450.0,4.0,86.0,,,,0.0,4.0,0.0,2.0,4.0,4.0,50.0,,,,,,,,54.0,0.0,0.5945199999999999,-0.153809,0.645508,0.45410200000000006,0.9038219999999999,-0.416022,-0.109377,-0.033754,-0.038279,-0.021265,,,,,,,,,,,,,,,,,,,,,,,,,,,,,,,,,,,,,,,,,,,,,,,,,,,,,,,,,,,,,,,,,
43716,1645492059.0962439,109.0,0.0,3526.6667479999996,4568.205078,4177.94873,4514.358886999999,4015.897461,450.0,4.0,86.0,,,,0.0,4.0,0.0,2.0,4.0,4.0,50.0,,,,,,,,,,,,,,,,,,,,,,,,,,,,,,,,,,,,,,,,,,,,,,,,,,,,,,,,,,,,,,,,,,,,,,,,,,,,,,,,,,,,
43717,1645492059.10406,110.0,0.0,3493.8461909999996,4573.846191,4173.333496,4464.615234000001,3990.7692869999996,450.0,4.0,86.0,,,,0.0,4.0,0.0,2.0,4.0,4.0,50.0,,,,,,,,55.0,0.0,0.594707,-0.153809,0.645508,0.45385699999999995,0.91017,-0.401862,-0.116701,-0.033699,-0.038308,-0.024412,,,,,,,,,,,,,,,,,,,,,,,,,,,,,,,,,,,,,,,,,,,,,,,,,,,,,,,,,,,,,,,,,
43718,1645492059.111875,111.0,0.0,3474.358887,4625.128418,4150.256348,4487.179688,3974.8718259999996,16216.0,4.0,86.0,,,,0.0,4.0,0.0,2.0,4.0,4.0,50.0,,,,,,,,,,,,,,,,,,,,,,,,,,,,,,,,,,,,,,,,,,,,,,,,,,,,,,0.0,0.0,1.0,0.0,512.0,0.38155500000000003,,,,,,,,,,,,,,,,,,,,,,,,,
43719,1645492059.11969,112.0,0.0,3516.923096,4620.512695,4152.820313,4520.0,3989.743652,450.0,4.0,86.0,,,,0.0,4.0,0.0,2.0,4.0,4.0,50.0,,,,,,,,56.0,0.0,0.5950350000000001,-0.153564,0.6452640000000001,0.45385699999999995,0.9155409999999999,-0.411627,-0.11572400000000001,-0.033698,-0.038188,-0.020994,,,,,,,,,,,,,,,,,,,,,,,,,,,,,,,,,,,,,,,,,,,,,,,,,,,,,,,,,,,,,,,,,
43720,1645492059.127506,113.0,0.0,3571.794922,4576.410156,4182.05127,4507.179688,4020.512939,450.0,4.0,86.0,,,,0.0,4.0,0.0,2.0,4.0,4.0,50.0,,,,,,,,,,,,,,,,,,,,,,,,,,,,,,,,,,,,,,,,,,,,,,,,,,,,,,,,,,,,,,,,,,,,,,,,,,,,,,,,,,,,
43721,1645492059.135421,114.0,0.0,3571.794922,4591.282227000001,4201.538574,4474.871582,4033.8461909999996,450.0,4.0,86.0,,,,0.0,4.0,0.0,2.0,4.0,4.0,50.0,,,,,,,,57.0,0.0,0.5950350000000001,-0.153564,0.6452640000000001,0.45385699999999995,0.921889,-0.404791,-0.106447,-0.033698,-0.038081,-0.024168000000000002,,,,,,,,,,,,,,,,,,,,,,,,,,,,,,,,,,,,,,,,,,,,,,,,,,,,,,,,,,,,,,,,,
43722,1645492059.143236,115.0,0.0,3537.4357909999994,4641.538574,4192.820313,4491.282227000001,4018.461426,16216.0,4.0,86.0,,,,0.0,4.0,0.0,2.0,4.0,4.0,50.0,1.0,0.0,0.0,0.0,2.0,1.0,0.0,,,,,,,,,,,,,1.0,0.0,0.0,,,,,,,,,,,,,,,,,,,,,,,,,,,,,,,,0.0,0.0,1.0,0.0,512.0,0.608305,2833.313965,1393.625366,340.188538,58.895164,13.104019000000001,1568.466553,249.09197999999998,168.132263,110.797646,36.982296000000005,19.560246,2.80173,3.6391699999999996,3.303865,2.64437,124.688309,22.951332,26.417339000000002,12.603315,9.582597999999999,1350.840454,18.004032000000002,12.918735,11.637012,8.122568
43723,1645492059.151052,116.0,0.0,3521.538574,4639.487305,4173.846191,4507.179688,3987.179443,450.0,4.0,86.0,,,,0.0,4.0,0.0,2.0,4.0,4.0,50.0,,,,,,,,58.0,0.0,0.594911,-0.15332,0.6452640000000001,0.45410200000000006,0.9209129999999999,-0.417487,-0.114748,-0.033648000000000004,-0.038081,-0.026877999999999996,,,,,,,,,,,,,,,,,,,,,,,,,,,,,,,,,,,,,,,,,,,,,,,,,,,,,,,,,,,,,,,,,
43724,1645492059.158867,117.0,0.0,3559.487061,4632.820313,4183.077147999999,4487.179688,4003.076904,450.0,4.0,86.0,,,,0.0,4.0,0.0,2.0,4.0,4.0,50.0,,,,,,,,,,,,,,,,,,,,,,,,,,,,,,,,,,,,,,,,,,,,,,,,,,,,,,,,,,,,,,,,,,,,,,,,,,,,,,,,,,,,
43725,1645492059.166683,118.0,0.0,3581.025635,4654.358886999999,4188.205078,4490.769043,4028.718018,450.0,4.0,86.0,,,,0.0,4.0,0.0,2.0,4.0,4.0,50.0,,,,,,,,59.0,0.0,0.5950350000000001,-0.153564,0.6452640000000001,0.45385699999999995,0.9155409999999999,-0.411627,-0.11572400000000001,-0.033652999999999995,-0.037984,-0.023214,,,,,,,,,,,,,,,,,,,,,,,,,,,,,,,,,,,,,,,,,,,,,,,,,,,,,,,,,,,,,,,,,
43726,1645492059.174498,119.0,0.0,3545.1281740000004,4650.256348,4163.077147999999,4494.871582,3997.4357909999994,16216.0,4.0,86.0,,,,0.0,4.0,0.0,2.0,4.0,4.0,50.0,,,,,,,,,,,,,,,,,,,,,,,,,,,,,,,,,,,,,,,,,,,,,,,,,,,,,,0.0,0.0,1.0,0.0,512.0,0.608305,,,,,,,,,,,,,,,,,,,,,,,,,
43727,1645492059.1823132,120.0,0.0,3549.2307130000004,4623.589844,4165.641113000001,4464.102539,3977.9487299999996,450.0,4.0,86.0,,,,0.0,4.0,0.0,2.0,4.0,4.0,50.0,,,,,,,,60.0,0.0,0.594911,-0.15332,0.6452640000000001,0.45410200000000006,0.9209129999999999,-0.417487,-0.114748,-0.033608,-0.037994,-0.026019999999999998,,,,,,,,,,,,,,,,,,,,,,,,,,,,,,,,,,,,,,,,,,,,,,,,,,,,,,,,,,,,,,,,,
43728,1645492059.1901288,121.0,0.0,3605.641113,4610.256348,4194.358886999999,4460.512695,4004.102539,450.0,4.0,86.0,,,,0.0,4.0,0.0,2.0,4.0,4.0,50.0,,,,,,,,,,,,,,,,,,,,,,,,,,,,,,,,,,,,,,,,,,,,,,,,,,,,,,,,,,,,,,,,,,,,,,,,,,,,,,,,,,,,
43729,1645492059.197944,122.0,0.0,3610.7692869999996,4645.641113000001,4187.179688,4467.692383,4019.487061,450.0,4.0,86.0,,,,0.0,4.0,0.0,2.0,4.0,4.0,50.0,,,,,,,,61.0,0.0,0.594911,-0.15332,0.6452640000000001,0.45410200000000006,0.9091940000000001,-0.41651000000000005,-0.113283,-0.033567,-0.038002999999999995,-0.028691,,,,,,,,,,,,,,,,,,,,,,,,,,,,,,,,,,,,,,,,,,,,,,,,,,,,,,,,,,,,,,,,,
43730,1645492059.205859,123.0,0.0,3580.0,4684.615234000001,4163.077147999999,4441.538574,4013.8461909999996,16216.0,4.0,86.0,,,,0.0,4.0,0.0,2.0,4.0,4.0,50.0,,,,,,,,,,,,,,,,,,,,,,,,,,,,,,,,,,,,,,,,,,,,,,,,,,,,,,0.0,0.0,1.0,0.0,512.0,0.608305,,,,,,,,,,,,,,,,,,,,,,,,,
43731,1645492059.213675,124.0,0.0,3582.0512700000004,4664.615234000001,4168.717772999999,4433.333496,4010.256348,450.0,4.0,86.0,,,,0.0,4.0,0.0,2.0,4.0,4.0,50.0,,,,,,,,62.0,0.0,0.594974,-0.153076,0.6452640000000001,0.45410200000000006,0.921889,-0.406256,-0.120119,-0.033482,-0.037963,-0.024797,,,,,,,,,,,,,,,,,,,,,,,,,,,,,,,,,,,,,,,,,,,,,,,,,,,,,,,,,,,,,,,,,
43732,1645492059.2214901,125.0,0.0,3580.512939,4654.871582,4175.384765999999,4425.641113000001,3995.897461,450.0,4.0,86.0,,,,0.0,4.0,0.0,2.0,4.0,4.0,50.0,,,,,,,,,,,,,,,,,,,,,,,,,,,,,,,,,,,,,,,,,,,,,,,,,,,,,,,,,,,,,,,,,,,,,,,,,,,,,,,,,,,,
43733,1645492059.229305,126.0,0.0,3565.1281740000004,4658.461426,4154.871582,4418.974121,3978.461426,450.0,4.0,86.0,,,,0.0,4.0,0.0,2.0,4.0,4.0,50.0,,,,,,,,63.0,0.0,0.5952390000000001,-0.153076,0.6450199999999999,0.45410200000000006,0.909682,-0.42090500000000003,-0.133303,-0.033601,-0.038024,-0.027493,,,,,,,,,,,,,,,,,,,,,,,,,,,,,,,,,,,,,,,,,,,,,,,,,,,,,,,,,,,,,,,,,
43734,1645492059.237121,127.0,0.0,3580.512939,4602.563965,4153.846191,4462.05127,3986.6667479999996,241.0,4.0,86.0,,,,0.0,4.0,0.0,2.0,4.0,4.0,50.0,,,,,,,,,,,,,,,,,,,,,,,,,,,,,,,,,,,,,,,,,,,,,,,,,,,,,,0.0,0.0,1.0,0.0,512.0,0.608305,,,,,,,,,,,,,,,,,,,,,,,,,
43735,1645492059.244936,0.0,0.0,3647.6923829999996,4564.102539,4199.487305,4506.666504,4025.1281740000004,450.0,4.0,86.0,,,,0.0,4.0,0.0,2.0,4.0,4.0,50.0,,,,,,,,0.0,0.0,0.5952390000000001,-0.153076,0.6450199999999999,0.45410200000000006,0.921889,-0.409186,-0.12842,-0.033561,-0.038079,-0.029968,,,,,,,,,,,,,,,,,,,,,,,,,,,,,,,,,,,,,,,,,,,,,,,,,,,,,,,,,,,,,,,,,
43736,1645492059.2527509,1.0,0.0,3696.4101560000004,4593.846191,4225.641113000001,4496.922852000001,4054.8718259999996,450.0,4.0,86.0,,,,0.0,4.0,0.0,2.0,4.0,4.0,50.0,,,,,,,,,,,,,,,,,,,,,,,,,,,,,,,,,,,,,,,,,,,,,,,,,,,,,,,,,,,,,,,,,,,,,,,,,,,,,,,,,,,,
43737,1645492059.260567,2.0,0.0,3669.2307130000004,4621.538574,4195.897461,4463.077147999999,4029.743652,16205.0,4.0,86.0,,,,0.0,4.0,0.0,2.0,4.0,4.0,50.0,,,,,,,,1.0,0.0,0.5952390000000001,-0.153076,0.6450199999999999,0.45410200000000006,0.9199360000000001,-0.40283800000000003,-0.128908,-0.033574,-0.037982,-0.032098,,,,,,,,,,,,,,,,,,,,,,,,,,,,,,,,,,,,,,,,,,,,,,,,,,,,,,,,,,,,,,,,,
43738,1645492059.268382,3.0,0.0,3661.025635,4632.820313,4192.820313,4457.94873,4015.897461,450.0,4.0,86.0,,,,0.0,4.0,0.0,2.0,4.0,4.0,50.0,,,,,,,,,,,,,,,,,,,,1.0,0.0,0.0,,,,,,,,,,,,,,,,,,,,,,,,,,,,,,,,0.0,0.0,1.0,0.0,512.0,0.622509,1797.054077,807.770386,190.475311,36.300041,11.435072,1032.314331,153.592026,100.837624,66.990128,25.68906,20.190634,3.031889,2.779577,3.281801,2.636548,106.360794,15.099626999999998,18.371828,13.810137,8.22601,907.244141,13.045621,10.155114,10.232315,7.599264999999999
43739,1645492059.276297,4.0,0.0,3724.102539,4617.436035,4231.282227000001,4489.743652,4067.179443,31.0,4.0,86.0,,,,0.0,4.0,0.0,4.0,4.0,4.0,66.666664,,,,,,,,2.0,0.0,0.595176,-0.15332,0.6450199999999999,0.45410200000000006,0.9150530000000001,-0.398932,-0.127443,-0.033586000000000005,-0.037944,-0.027961,,,,,,,,,,,,,,,,,,,,,,,,,,,,,,,,,,,,,,,,,,,,,,,,,,,,,,,,,,,,,,,,,
43740,1645492059.2841132,5.0,0.0,3735.897461,4581.025879,4227.692383,4491.794922,4074.358887,450.0,4.0,86.0,,,,0.0,4.0,0.0,4.0,4.0,4.0,66.666664,,,,,,,,,,,,,,,,,,,,,,,,,,,,,,,,,,,,,,,,,,,,,,,,,,,,,,,,,,,,,,,,,,,,,,,,,,,,,,,,,,,,
43741,1645492059.2919278,6.0,0.0,3657.9487299999996,4558.974121,4188.717772999999,4435.897461,3996.923096,16102.0,4.0,86.0,,,,0.0,4.0,0.0,4.0,4.0,4.0,66.666664,,,,,,,,3.0,0.0,0.59499,-0.15332,0.6450199999999999,0.454346,0.917494,-0.400885,-0.11914200000000001,-0.033645,-0.038007,-0.030341000000000003,,,,,,,,,,,,,,,,,,,,,,,,,,,,,,,,,,,,,,,,,,,,,,,,,,,,,,,,,,,,,,,,,
43742,1645492059.299743,7.0,0.0,3628.718018,4560.0,4180.512695,4429.743652,3978.461426,450.0,4.0,86.0,,,,0.0,4.0,0.0,4.0,4.0,4.0,66.666664,,,,,,,,,,,,,,,,,,,,,,,,,,,,,,,,,,,,,,,,,,,,,,,,,,,,,,0.0,0.0,1.0,0.0,512.0,0.622509,,,,,,,,,,,,,,,,,,,,,,,,,
43743,1645492059.307559,8.0,0.0,3698.461426,4594.358886999999,4211.794922,4501.538574,4050.256348,450.0,4.0,86.0,,,,0.0,4.0,0.0,4.0,4.0,4.0,66.666664,,,,,,,,4.0,0.0,0.59499,-0.15332,0.6450199999999999,0.454346,0.9150530000000001,-0.41992799999999997,-0.12842,-0.03365,-0.038064,-0.032531,,,,,,,,,,,,,,,,,,,,,,,,,,,,,,,,,,,,,,,,,,,,,,,,,,,,,,,,,,,,,,,,,
43744,1645492059.3153741,9.0,0.0,3723.076904,4628.717772999999,4212.820313,4518.974121,4066.6667479999996,16202.0,4.0,86.0,,,,0.0,4.0,0.0,4.0,4.0,4.0,66.666664,,,,,,,,,,,,,,,,,,,,,,,,,,,,,,,,,,,,,,,,,,,,,,,,,,,,,,,,,,,,,,,,,,,,,,,,,,,,,,,,,,,,
43745,1645492059.32319,10.0,0.0,3678.461426,4632.820313,4193.846191,4478.461426,4029.2307130000004,450.0,4.0,86.0,,,,0.0,4.0,0.0,4.0,4.0,4.0,66.666664,,,,,,,,5.0,0.0,0.594866,-0.153076,0.6450199999999999,0.45458999999999994,0.906264,-0.425299,-0.127932,-0.033605,-0.038017,-0.028204000000000003,,,,,,,,,,,,,,,,,,,,,,,,,,,,,,,,,,,,,,,,,,,,,,,,,,,,,,,,,,,,,,,,,
43746,1645492059.331005,11.0,0.0,3691.794922,4607.179688,4203.589844,4465.128418,4039.487061,16237.0,4.0,86.0,,,,0.0,4.0,0.0,4.0,4.0,4.0,66.666664,,,,,,,,,,,,,,,,,,,,,,,,,,,,,,,,,,,,,,,,,,,,,,,,,,,,,,0.0,0.0,1.0,0.0,512.0,0.622509,,,,,,,,,,,,,,,,,,,,,,,,,
43747,1645492059.33882,12.0,0.0,3734.358887,4574.358886999999,4205.641113000001,4460.512695,4035.384521,450.0,4.0,86.0,,,,0.0,4.0,0.0,4.0,4.0,4.0,66.666664,,,,,,,,6.0,0.0,0.595052,-0.153076,0.6450199999999999,0.454346,0.9052870000000001,-0.407233,-0.116701,-0.033614,-0.037975,-0.030608,,,,,,,,,,,,,,,,,,,,,,,,,,,,,,,,,,,,,,,,,,,,,,,,,,,,,,,,,,,,,,,,,
43748,1645492059.346736,13.0,0.0,3727.179443,4591.282227000001,4188.717772999999,4438.974121,3991.794922,450.0,4.0,86.0,,,,0.0,4.0,0.0,4.0,4.0,4.0,66.666664,,,,,,,,,,,,,,,,,,,,,,,,,,,,,,,,,,,,,,,,,,,,,,,,,,,,,,,,,,,,,,,,,,,,,,,,,,,,,,,,,,,,
43749,1645492059.354551,14.0,0.0,3725.641113,4653.846191,4189.743652,4433.846191,4008.718018,450.0,4.0,86.0,,,,0.0,4.0,0.0,4.0,4.0,4.0,66.666664,,,,,,,,7.0,0.0,0.594788,-0.153076,0.6452640000000001,0.454346,0.9028459999999999,-0.41992799999999997,-0.11914200000000001,-0.033524,-0.037986,-0.026570999999999997,,,,,,,,,,,,,,,,,,,,,,,,,,,,,,,,,,,,,,,,,,,,,,,,,,,,,,,,,,,,,,,,,
43750,1645492059.362366,15.0,0.0,3747.179443,4643.589844,4190.256348,4432.820313,4049.743652,16237.0,4.0,86.0,,,,0.0,4.0,0.0,4.0,4.0,4.0,66.666664,,,,,,,,,,,,,,,,,,,,,,,,,,,,,,,,,,,,,,,,,,,,,,,,,,,,,,0.0,0.0,1.0,0.0,512.0,0.622509,,,,,,,,,,,,,,,,,,,,,,,,,
43751,1645492059.370182,16.0,0.0,3732.820557,4603.077147999999,4187.179688,4415.897461,4021.025635,0.0,4.0,86.0,,,,0.0,4.0,0.0,4.0,4.0,4.0,66.666664,,,,,,,,8.0,0.0,0.594788,-0.153076,0.6452640000000001,0.454346,0.9233540000000001,-0.41699899999999995,-0.12451400000000001,-0.033492,-0.038143,-0.029138,,,,,,,,,,,,,,,,,,,,,,,,,,,,,,,,,,,,,,,,,,,,,,,,,,,,,,,,,,,,,,,,,
43752,1645492059.3779972,17.0,0.0,3712.3076170000004,4640.0,4196.410156,4430.256348,3987.179443,0.0,4.0,86.0,,,,0.0,4.0,0.0,4.0,4.0,4.0,66.666664,,,,,,,,,,,,,,,,,,,,,,,,,,,,,,,,,,,,,,,,,,,,,,,,,,,,,,,,,,,,,,,,,,,,,,,,,,,,,,,,,,,,
43753,1645492059.3858118,18.0,0.0,3735.897461,4654.358886999999,4193.333496,4462.563965,4007.179443,0.0,4.0,86.0,,,,0.0,4.0,0.0,4.0,4.0,4.0,66.666664,,,,,,,,9.0,0.0,0.594974,-0.153076,0.6452640000000001,0.45410200000000006,0.908217,-0.41113900000000003,-0.120119,-0.033512,-0.038186000000000005,-0.031498000000000005,,,,,,,,,,,,,,,,,,,,,,,,,,,,,,,,,,,,,,,,,,,,,,,,,,,,,,,,,,,,,,,,,
43754,1645492059.393628,19.0,0.0,3765.1281740000004,4600.512695,4187.179688,4466.666504,4030.256348,0.0,4.0,86.0,,,,0.0,4.0,0.0,4.0,4.0,4.0,66.666664,,,,,,,,,,,,,,,,,,,,1.0,0.0,0.0,,,,,,,,,,,,,,,,,,,,,,,,,,,,,,,,0.0,0.0,1.0,0.0,512.0,0.701705,968.7448730000001,366.186096,82.36108399999999,19.7341,9.997299,548.959412,80.318069,50.200912,34.111916,16.293036999999998,20.686905,3.319632,2.030553,3.5112089999999996,2.7462009999999997,99.224983,10.425021000000001,12.235465,15.024889000000002,7.582418,507.22332800000004,10.20477,7.303967,9.449050999999999,7.187844999999999
43755,1645492059.401443,20.0,0.0,3752.820557,4573.333496,4194.871582,4428.205078,4006.6667479999996,0.0,4.0,86.0,,,,0.0,4.0,0.0,4.0,4.0,4.0,66.666664,,,,,,,,10.0,0.0,0.594974,-0.153076,0.6452640000000001,0.45410200000000006,0.906264,-0.395514,-0.123049,-0.033677,-0.03803,-0.033622000000000006,,,,,,,,,,,,,,,,,,,,,,,,,,,,,,,,,,,,,,,,,,,,,,,,,,,,,,,,,,,,,,,,,
43756,1645492059.409258,21.0,0.0,3724.615479,4581.025879,4192.820313,4383.077147999999,3962.5642090000006,0.0,4.0,86.0,,,,0.0,4.0,0.0,4.0,4.0,4.0,66.666664,,,,,,,,,,,,,,,,,,,,,,,,,,,,,,,,,,,,,,,,,,,,,,,,,,,,,,,,,,,,,,,,,,,,,,,,,,,,,,,,,,,,
43757,1645492059.417174,22.0,0.0,3724.102539,4597.94873,4194.871582,4402.563965,3962.0512700000004,0.0,4.0,86.0,,,,0.0,4.0,0.0,4.0,4.0,4.0,66.666664,,,,,,,,11.0,0.0,0.594974,-0.153076,0.6452640000000001,0.45410200000000006,0.901381,-0.41260399999999997,-0.11084200000000001,-0.033629,-0.038182,-0.035483999999999995,,,,,,,,,,,,,,,,,,,,,,,,,,,,,,,,,,,,,,,,,,,,,,,,,,,,,,,,,,,,,,,,,
43758,1645492059.424989,23.0,0.0,3752.3076170000004,4631.282227000001,4206.153809,4451.794922,4000.512939,0.0,4.0,86.0,,,,0.0,4.0,0.0,4.0,4.0,4.0,66.666664,,,,,,,,,,,,,,,,,,,,,,,,,,,,,,,,,,,,,,,,,,,,,,,,,,,,,,10.0,0.0,1.0,0.0,512.0,0.701705,,,,,,,,,,,,,,,,,,,,,,,,,
43759,1645492059.4328039,24.0,0.0,3772.3076170000004,4638.461426,4195.384765999999,4443.077147999999,3999.487061,0.0,4.0,86.0,,,,0.0,4.0,0.0,4.0,4.0,4.0,66.666664,,,,,,,,12.0,0.0,0.594911,-0.15332,0.6452640000000001,0.45410200000000006,0.905776,-0.401373,-0.114748,-0.033684,-0.038123000000000004,-0.037161,,,,,,,,,,,,,,,,,,,,,,,,,,,,,,,,,,,,,,,,,,,,,,,,,,,,,,,,,,,,,,,,,
43760,1645492059.44062,25.0,0.0,3758.974365,4605.641113000001,4179.487305,4398.974121,3963.5898439999996,0.0,4.0,86.0,,,,0.0,4.0,0.0,4.0,4.0,4.0,66.666664,,,,,,,,,,,,,,,,,,,,,,,,,,,,,,,,,,,,,,,,,,,,,,,,,,,,,,,,,,,,,,,,,,,,,,,,,,,,,,,,,,,,
43761,1645492059.448435,26.0,0.0,3732.820557,4587.692383,4169.743652,4366.666504,3955.384521,0.0,4.0,86.0,,,,0.0,4.0,0.0,4.0,4.0,4.0,66.666664,,,,,,,,13.0,0.0,0.594911,-0.15332,0.6452640000000001,0.45410200000000006,0.914565,-0.401862,-0.11523599999999999,-0.033636,-0.03812,-0.032418999999999996,,,,,,,,,,,,,,,,,,,,,,,,,,,,,,,,,,,,,,,,,,,,,,,,,,,,,,,,,,,,,,,,,
43762,1645492059.45625,27.0,0.0,3713.3332520000004,4589.230957,4151.282227000001,4316.922852000001,3950.7692869999996,0.0,4.0,86.0,,,,0.0,4.0,0.0,4.0,4.0,4.0,66.666664,,,,,,,,,,,,,,,,,,,,,,,,,,,,,,,,,,,,,,,,,,,,,,,,,,,,,,10.0,0.0,1.0,0.0,512.0,0.701705,,,,,,,,,,,,,,,,,,,,,,,,,
43763,1645492059.464066,28.0,0.0,3711.794922,4593.846191,4153.333496,4301.538574,3944.615479,0.0,4.0,86.0,,,,0.0,4.0,0.0,4.0,4.0,4.0,66.666664,,,,,,,,14.0,0.0,0.594911,-0.15332,0.6452640000000001,0.45410200000000006,0.9116350000000001,-0.42627600000000004,-0.11914200000000001,-0.033642,-0.038116000000000004,-0.034304,,,,,,,,,,,,,,,,,,,,,,,,,,,,,,,,,,,,,,,,,,,,,,,,,,,,,,,,,,,,,,,,,
43764,1645492059.4718812,29.0,0.0,3761.538574,4587.692383,4196.410156,4384.615234000001,3986.1538090000004,0.0,4.0,86.0,,,,0.0,4.0,0.0,4.0,4.0,4.0,66.666664,,,,,,,,,,,,,,,,,,,,,,,,,,,,,,,,,,,,,,,,,,,,,,,,,,,,,,,,,,,,,,,,,,,,,,,,,,,,,,,,,,,,
43765,1645492059.479697,30.0,0.0,3823.5898439999996,4588.717772999999,4223.589844,4435.897461,4029.743652,0.0,4.0,86.0,,,,0.0,4.0,0.0,4.0,4.0,4.0,66.666664,,,,,,,,15.0,0.0,0.594911,-0.15332,0.6452640000000001,0.45410200000000006,0.9160299999999999,-0.406744,-0.12549000000000002,-0.033549,-0.038162,-0.029945999999999997,,,,,,,,,,,,,,,,,,,,,,,,,,,,,,,,,,,,,,,,,,,,,,,,,,,,,,,,,,,,,,,,,
43766,1645492059.4875119,31.0,0.0,3823.5898439999996,4610.256348,4207.692383,4390.256348,4023.076904,0.0,4.0,86.0,,,,0.0,4.0,0.0,4.0,4.0,4.0,66.666664,,,,,,,,,,,,,,,,,,,,,,,,,,,,,,,,,,,,,,,,,,,,,,,,,,,,,,10.0,0.0,1.0,0.0,512.0,0.701705,,,,,,,,,,,,,,,,,,,,,,,,,
43767,1645492059.495427,32.0,0.0,3782.0512700000004,4608.205078,4185.128418,4370.769043,4002.0512700000004,0.0,4.0,86.0,,,,0.0,4.0,0.0,4.0,4.0,4.0,66.666664,,,,,,,,16.0,0.0,0.594911,-0.15332,0.6452640000000001,0.45410200000000006,0.9116350000000001,-0.41358100000000003,-0.11572400000000001,-0.033514999999999996,-0.038204,-0.032225,,,,,,,,,,,,,,,,,,,,,,,,,,,,,,,,,,,,,,,,,,,,,,,,,,,,,,,,,,,,,,,,,
43768,1645492059.503243,33.0,0.0,3776.4101560000004,4577.436035,4185.641113000001,4414.871582,3994.358887,0.0,4.0,86.0,,,,0.0,4.0,0.0,4.0,4.0,4.0,66.666664,,,,,,,,,,,,,,,,,,,,,,,,,,,,,,,,,,,,,,,,,,,,,,,,,,,,,,,,,,,,,,,,,,,,,,,,,,,,,,,,,,,,
43769,1645492059.511058,34.0,0.0,3815.384521,4571.282227000001,4198.974121,4437.94873,3996.923096,0.0,4.0,86.0,,,,0.0,4.0,0.0,4.0,4.0,4.0,66.666664,,,,,,,,17.0,0.0,0.5950979999999999,-0.15332,0.6452640000000001,0.45385699999999995,0.9116350000000001,-0.400885,-0.122072,-0.033581,-0.038241000000000004,-0.027977,,,,,,,,,,,,,,,,,,,,,,,,,,,,,,,,,,,,,,,,,,,,,,,,,,,,,,,,,,,,,,,,,
43770,1645492059.518873,35.0,0.0,3838.461426,4613.846191,4199.487305,4394.358886999999,3989.2307130000004,0.0,4.0,86.0,,,,0.0,4.0,0.0,4.0,4.0,4.0,66.666664,,,,,,,,,,,,,,,,,,,,1.0,0.0,0.0,,,,,,,,,,,,,,,,,,,,,,,,,,,,,,,,10.0,0.0,64.0,0.938516,1.0,0.0,456.206909,120.094597,25.637438,10.801764,8.95575,222.64378399999998,38.798431,22.813217,15.779207999999999,10.388398,20.281847,3.617863,1.548925,3.8883199999999998,2.890692,108.594719,10.420035,9.163555,15.996853,7.641945,235.03205899999998,9.331793,5.172409,9.13146,6.818150999999999
43771,1645492059.526689,36.0,0.0,3800.0,4632.307617,4171.794922,4340.0,3952.3076170000004,0.0,4.0,86.0,,,,0.0,4.0,0.0,4.0,4.0,4.0,66.666664,,,,,,,,18.0,0.0,0.595425,-0.153076,0.6450199999999999,0.45385699999999995,0.920424,-0.39942,-0.127443,-0.033739,-0.038127999999999995,-0.030404,,,,,,,,,,,,,,,,,,,,,,,,,,,,,,,,,,,,,,,,,,,,,,,,,,,,,,,,,,,,,,,,,
43772,1645492059.534504,37.0,0.0,3775.384521,4592.307617,4176.922852000001,4366.666504,3948.205078,0.0,4.0,86.0,,,,0.0,4.0,0.0,4.0,4.0,4.0,66.666664,,,,,,,,,,,,,,,,,,,,,,,,,,,,,,,,,,,,,,,,,,,,,,,,,,,,,,,,,,,,,,,,,,,,,,,,,,,,,,,,,,,,
43773,1645492059.542319,38.0,0.0,3810.256348,4569.230957,4211.282227000001,4422.05127,3989.2307130000004,0.0,4.0,86.0,,,,0.0,4.0,0.0,4.0,4.0,4.0,66.666664,,,,,,,,19.0,0.0,0.595425,-0.153076,0.6450199999999999,0.45385699999999995,0.917006,-0.41651000000000005,-0.112795,-0.033685,-0.038172000000000005,-0.032588,,,,,,,,,,,,,,,,,,,,,,,,,,,,,,,,,,,,,,,,,,,,,,,,,,,,,,,,,,,,,,,,,
43774,1645492059.550135,39.0,0.0,3818.974365,4587.179688,4198.974121,4396.922852000001,3973.3332520000004,0.0,4.0,86.0,,,,0.0,4.0,0.0,4.0,4.0,4.0,66.666664,,,,,,,,,,,,,,,,,,,,,,,,,,,,,,,,,,,,,,,,,,,,,,,,,,,,,,10.0,0.0,64.0,0.938516,1.0,0.0,,,,,,,,,,,,,,,,,,,,,,,,,
43775,1645492059.55805,40.0,0.0,3784.615479,4583.589844,4171.794922,4350.256348,3930.7692869999996,0.0,4.0,86.0,,,,0.0,4.0,0.0,4.0,4.0,4.0,66.666664,,,,,,,,20.0,0.0,0.595425,-0.153076,0.6450199999999999,0.45385699999999995,0.910658,-0.400885,-0.118654,-0.033735,-0.038213,-0.034505,,,,,,,,,,,,,,,,,,,,,,,,,,,,,,,,,,,,,,,,,,,,,,,,,,,,,,,,,,,,,,,,,
43776,1645492059.565866,41.0,0.0,3791.281982,4568.205078,4186.666504,4368.717772999999,3972.3076170000004,0.0,4.0,86.0,,,,0.0,4.0,0.0,4.0,4.0,4.0,66.666664,,,,,,,,,,,,,,,,,,,,,,,,,,,,,,,,,,,,,,,,,,,,,,,,,,,,,,,,,,,,,,,,,,,,,,,,,,,,,,,,,,,,
43777,1645492059.573681,42.0,0.0,3850.7692869999996,4582.05127,4212.307617,4409.743652,4038.974365,0.0,4.0,86.0,,,,0.0,4.0,0.0,4.0,4.0,4.0,66.666664,,,,,,,,21.0,0.0,0.5952390000000001,-0.153076,0.6450199999999999,0.45410200000000006,0.917494,-0.406256,-0.122072,-0.033877,-0.038151,-0.036328,,,,,,,,,,,,,,,,,,,,,,,,,,,,,,,,,,,,,,,,,,,,,,,,,,,,,,,,,,,,,,,,,
43778,1645492059.581497,43.0,0.0,3855.384521,4578.461426,4199.487305,4399.487305,4014.8718259999996,0.0,4.0,86.0,,,,0.0,4.0,0.0,4.0,4.0,4.0,66.666664,,,,,,,,,,,,,,,,,,,,,,,,,,,,,,,,,,,,,,,,,,,,,,,,,,,,,,0.0,0.0,64.0,0.938516,1.0,0.0,,,,,,,,,,,,,,,,,,,,,,,,,
43779,1645492059.589313,44.0,0.0,3790.256348,4571.282227000001,4168.205078,4348.205078,3954.358887,0.0,4.0,86.0,,,,0.0,4.0,0.0,4.0,4.0,4.0,66.666664,,,,,,,,22.0,0.0,0.5952390000000001,-0.153076,0.6450199999999999,0.45410200000000006,0.917983,-0.41113900000000003,-0.11816600000000001,-0.033858,-0.038193,-0.03792,,,,,,,,,,,,,,,,,,,,,,,,,,,,,,,,,,,,,,,,,,,,,,,,,,,,,,,,,,,,,,,,,
43780,1645492059.597128,45.0,0.0,3767.179443,4587.179688,4153.333496,4318.974121,3949.2307130000004,0.0,4.0,86.0,,,,0.0,4.0,0.0,4.0,4.0,4.0,66.666664,,,,,,,,,,,,,,,,,,,,,,,,,,,,,,,,,,,,,,,,,,,,,,,,,,,,,,,,,,,,,,,,,,,,,,,,,,,,,,,,,,,,
43781,1645492059.604944,46.0,0.0,3812.3076170000004,4582.05127,4175.384765999999,4341.025879,3962.5642090000006,0.0,4.0,86.0,,,,0.0,4.0,0.0,4.0,4.0,4.0,66.666664,,,,,,,,23.0,0.0,0.595425,-0.153076,0.6450199999999999,0.45385699999999995,0.910658,-0.400885,-0.118654,-0.033744,-0.038183,-0.033103,,,,,,,,,,,,,,,,,,,,,,,,,,,,,,,,,,,,,,,,,,,,,,,,,,,,,,,,,,,,,,,,,
43782,1645492059.6127589,47.0,0.0,3821.025635,4561.025879,4178.974121,4348.205078,3936.923096,0.0,4.0,86.0,,,,0.0,4.0,0.0,4.0,4.0,4.0,66.666664,,,,,,,,,,,,,,,,,,,,,,,,,,,,,,,,,,,,,,,,,,,,,,,,,,,,,,0.0,0.0,64.0,0.938516,1.0,0.0,,,,,,,,,,,,,,,,,,,,,,,,,
43783,1645492059.620575,48.0,0.0,3765.641113,4545.128418,4135.897461,4311.282227000001,3904.615479,0.0,4.0,86.0,,,,0.0,4.0,0.0,4.0,4.0,4.0,66.666664,,,,,,,,24.0,0.0,0.5952390000000001,-0.153076,0.6450199999999999,0.45410200000000006,0.917983,-0.41113900000000003,-0.11816600000000001,-0.033739,-0.038222000000000006,-0.035017,,,,,,,,,,,,,,,,,,,,,,,,,,,,,,,,,,,,,,,,,,,,,,,,,,,,,,,,,,,,,,,,,
43784,1645492059.628391,49.0,0.0,3750.256348,4560.512695,4121.538574,4283.589844,3898.974365,0.0,4.0,86.0,,,,0.0,4.0,0.0,4.0,4.0,4.0,66.666664,,,,,,,,,,,,,,,,,,,,,,,,,,,,,,,,,,,,,,,,,,,,,,,,,,,,,,,,,,,,,,,,,,,,,,,,,,,,,,,,,,,,
43785,1645492059.636306,50.0,0.0,3781.025635,4613.846191,4146.153809,4260.512695,3893.3332520000004,0.0,4.0,86.0,,,,0.0,4.0,0.0,4.0,4.0,4.0,66.666664,,,,,,,,25.0,0.0,0.595302,-0.152832,0.6450199999999999,0.45410200000000006,0.916518,-0.404791,-0.12060699999999999,-0.033734,-0.038306,-0.036739999999999995,,,,,,,,,,,,,,,,,,,,,,,,,,,,,,,,,,,,,,,,,,,,,,,,,,,,,,,,,,,,,,,,,
43786,1645492059.6441212,51.0,0.0,3785.641113,4593.333496,4153.333496,4261.538574,3906.6667479999996,0.0,4.0,86.0,,,,0.0,4.0,0.0,4.0,4.0,4.0,66.666664,1.0,0.0,0.0,0.0,2.0,1.0,0.0,,,,,,,,,,,,,1.0,0.0,0.0,,,,,,,,,,,,,,,,,,,,,,,,,,,,,,,,0.0,0.0,64.0,1.0,1.0,0.0,191.74070700000001,28.474328999999997,7.074925,7.580422,8.305628,67.378792,22.947145000000003,13.782620000000001,8.836799000000001,7.764259,18.820156,3.8980980000000005,1.393653,4.186967,2.985809,133.20820600000002,15.252623000000002,9.075222,16.417706,8.161043,94.472649,9.413917,4.063372,8.807607,6.439561
43787,1645492059.651937,52.0,0.0,3776.923096,4504.102539,4146.153809,4296.410156,3929.743652,0.0,4.0,86.0,,,,0.0,4.0,0.0,4.0,4.0,4.0,66.666664,,,,,,,,26.0,0.0,0.595302,-0.152832,0.6450199999999999,0.45410200000000006,0.9155409999999999,-0.41065100000000004,-0.125978,-0.033779,-0.038284,-0.03209,,,,,,,,,,,,,,,,,,,,,,,,,,,,,,,,,,,,,,,,,,,,,,,,,,,,,,,,,,,,,,,,,
43788,1645492059.659752,53.0,0.0,3801.538574,4510.256348,4155.897461,4308.205078,3917.9487299999996,0.0,4.0,86.0,,,,0.0,4.0,0.0,4.0,4.0,4.0,66.666664,,,,,,,,,,,,,,,,,,,,,,,,,,,,,,,,,,,,,,,,,,,,,,,,,,,,,,,,,,,,,,,,,,,,,,,,,,,,,,,,,,,,
43789,1645492059.667567,54.0,0.0,3832.3076170000004,4593.846191,4177.94873,4309.230957,3916.4101560000004,0.0,4.0,86.0,,,,0.0,4.0,0.0,4.0,4.0,4.0,66.666664,,,,,,,,27.0,0.0,0.594974,-0.153076,0.6452640000000001,0.45410200000000006,0.910658,-0.399908,-0.11914200000000001,-0.033721,-0.03846,-0.033958999999999996,,,,,,,,,,,,,,,,,,,,,,,,,,,,,,,,,,,,,,,,,,,,,,,,,,,,,,,,,,,,,,,,,
43790,1645492059.675383,55.0,0.0,3849.743652,4597.94873,4194.358886999999,4340.0,3968.205078,0.0,4.0,86.0,,,,0.0,4.0,0.0,4.0,4.0,4.0,66.666664,,,,,,,,,,,,,,,,,,,,,,,,,,,,,,,,,,,,,,,,,,,,,,,,,,,,,,0.0,0.0,64.0,1.0,1.0,0.0,,,,,,,,,,,,,,,,,,,,,,,,,
43791,1645492059.683198,56.0,0.0,3849.2307130000004,4544.615234000001,4184.615234000001,4344.102539,3989.2307130000004,0.0,4.0,86.0,,,,0.0,4.0,0.0,4.0,4.0,4.0,66.666664,,,,,,,,28.0,0.0,0.594974,-0.153076,0.6452640000000001,0.45410200000000006,0.906264,-0.41651000000000005,-0.119631,-0.033718,-0.038569,-0.035788,,,,,,,,,,,,,,,,,,,,,,,,,,,,,,,,,,,,,,,,,,,,,,,,,,,,,,,,,,,,,,,,,
43792,1645492059.691013,57.0,0.0,3828.718018,4556.410156,4169.743652,4309.230957,3947.6923829999996,0.0,4.0,86.0,,,,0.0,4.0,0.0,4.0,4.0,4.0,66.666664,,,,,,,,,,,,,,,,,,,,,,,,,,,,,,,,,,,,,,,,,,,,,,,,,,,,,,,,,,,,,,,,,,,,,,,,,,,,,,,,,,,,
43793,1645492059.698829,58.0,0.0,3839.487061,4600.0,4191.282227000001,4335.897461,3940.512939,0.0,4.0,86.0,,,,0.0,4.0,0.0,4.0,4.0,4.0,66.666664,,,,,,,,29.0,0.0,0.594974,-0.153076,0.6452640000000001,0.45410200000000006,0.914565,-0.412116,-0.126467,-0.033716,-0.038569,-0.031232,,,,,,,,,,,,,,,,,,,,,,,,,,,,,,,,,,,,,,,,,,,,,,,,,,,,,,,,,,,,,,,,,
43794,1645492059.706744,59.0,0.0,3887.179443,4593.846191,4213.846191,4391.282227000001,3978.974365,0.0,4.0,86.0,,,,0.0,4.0,0.0,4.0,4.0,4.0,66.666664,,,,,,,,,,,,,,,,,,,,,,,,,,,,,,,,,,,,,,,,,,,,,,,,,,,,,,0.0,0.0,64.0,1.0,1.0,0.0,,,,,,,,,,,,,,,,,,,,,,,,,
43795,1645492059.714559,60.0,0.0,3900.0,4576.410156,4203.589844,4370.256348,4005.1281740000004,0.0,4.0,86.0,,,,0.0,4.0,0.0,4.0,4.0,4.0,66.666664,,,,,,,,30.0,0.0,0.594974,-0.153076,0.6452640000000001,0.45410200000000006,0.9184709999999999,-0.408698,-0.123049,-0.033762,-0.038472000000000006,-0.033333999999999996,,,,,,,,,,,,,,,,,,,,,,,,,,,,,,,,,,,,,,,,,,,,,,,,,,,,,,,,,,,,,,,,,
43796,1645492059.722375,61.0,0.0,3878.974365,4581.025879,4194.358886999999,4358.974121,4009.2307130000004,0.0,4.0,86.0,,,,0.0,4.0,0.0,4.0,4.0,4.0,66.666664,,,,,,,,,,,,,,,,,,,,,,,,,,,,,,,,,,,,,,,,,,,,,,,,,,,,,,,,,,,,,,,,,,,,,,,,,,,,,,,,,,,,
43797,1645492059.73019,62.0,0.0,3883.076904,4585.641113000001,4193.846191,4404.102539,3999.487061,0.0,4.0,86.0,,,,0.0,4.0,0.0,4.0,4.0,4.0,66.666664,,,,,,,,31.0,0.0,0.594911,-0.15332,0.6452640000000001,0.45410200000000006,0.9121229999999999,-0.415534,-0.125978,-0.033755,-0.038433999999999996,-0.035176,,,,,,,,,,,,,,,,,,,,,,,,,,,,,,,,,,,,,,,,,,,,,,,,,,,,,,,,,,,,,,,,,
43798,1645492059.7380052,63.0,0.0,3910.7692869999996,4582.05127,4191.794922,4404.102539,3986.1538090000004,0.0,4.0,86.0,,,,0.0,4.0,0.0,4.0,4.0,4.0,66.666664,,,,,,,,,,,,,,,,,,,,,,,,,,,,,,,,,,,,,,,,,,,,,,,,,,,,,,0.0,0.0,64.0,1.0,1.0,0.0,,,,,,,,,,,,,,,,,,,,,,,,,
43799,1645492059.745821,64.0,0.0,3932.3076170000004,4582.563965,4193.846191,4350.769043,3996.923096,450.0,4.0,86.0,,,,0.0,4.0,0.0,4.0,4.0,4.0,66.666664,,,,,,,,32.0,0.0,0.5950979999999999,-0.15332,0.6452640000000001,0.45385699999999995,0.9184709999999999,-0.41406899999999996,-0.126467,-0.0337,-0.03835,-0.030632999999999997,,,,,,,,,,,,,,,,,,,,,,,,,,,,,,,,,,,,,,,,,,,,,,,,,,,,,,,,,,,,,,,,,
43800,1645492059.753636,65.0,0.0,3924.102539,4576.410156,4192.820313,4318.461426,4013.3332520000004,450.0,4.0,86.0,,,,0.0,4.0,0.0,4.0,4.0,4.0,66.666664,,,,,,,,,,,,,,,,,,,,,,,,,,,,,,,,,,,,,,,,,,,,,,,,,,,,,,,,,,,,,,,,,,,,,,,,,,,,,,,,,,,,
43801,1645492059.761452,66.0,0.0,3900.512939,4548.205078,4191.282227000001,4335.384765999999,4006.6667479999996,16237.0,4.0,86.0,,,,0.0,4.0,0.0,4.0,4.0,4.0,66.666664,,,,,,,,33.0,0.0,0.59477,-0.153564,0.645508,0.45385699999999995,0.921401,-0.403326,-0.11767799999999999,-0.033553,-0.038324000000000004,-0.032795,,,,,,,,,,,,,,,,,,,,,,,,,,,,,,,,,,,,,,,,,,,,,,,,,,,,,,,,,,,,,,,,,
