,Timestamp,OriginalTimestamp,EEG.Counter,EEG.Interpolated,EEG.AF3,EEG.T7,EEG.Pz,EEG.T8,EEG.AF4,EEG.RawCq,EEG.Battery,EEG.BatteryPercent,MarkerIndex,MarkerType,MarkerValueInt,EEG.MarkerHardware,CQ.AF3,CQ.T7,CQ.Pz,CQ.T8,CQ.AF4,CQ.Overall,EQ.SampleRateQuality,EQ.OVERALL,EQ.AF3,EQ.T7,EQ.Pz,EQ.T8,EQ.AF4,MOT.CounterMems,MOT.InterpolatedMems,MOT.Q0,MOT.Q1,MOT.Q2,MOT.Q3,MOT.AccX,MOT.AccY,MOT.AccZ,MOT.MagX,MOT.MagY,MOT.MagZ,MC.Action,MC.ActionPower,MC.IsActive,PM.Engagement.IsActive,PM.Engagement.Scaled,PM.Engagement.Raw,PM.Engagement.Min,PM.Engagement.Max,PM.Excitement.IsActive,PM.Excitement.Scaled,PM.Excitement.Raw,PM.Excitement.Min,PM.Excitement.Max,PM.LongTermExcitement,PM.Stress.IsActive,PM.Stress.Scaled,PM.Stress.Raw,PM.Stress.Min,PM.Stress.Max,PM.Relaxation.IsActive,PM.Relaxation.Scaled,PM.Relaxation.Raw,PM.Relaxation.Min,PM.Relaxation.Max,PM.Interest.IsActive,PM.Interest.Scaled,PM.Interest.Raw,PM.Interest.Min,PM.Interest.Max,PM.Focus.IsActive,PM.Focus.Scaled,PM.Focus.Raw,PM.Focus.Min,PM.Focus.Max,FE.BlinkWink,FE.HorizontalEyesDirection,FE.UpperFaceAction,FE.UpperFaceActionPower,FE.LowerFaceAction,FE.LowerFaceActionPower,POW.AF3.Theta,POW.AF3.Alpha,POW.AF3.BetaL,POW.AF3.BetaH,POW.AF3.Gamma,POW.T7.Theta,POW.T7.Alpha,POW.T7.BetaL,POW.T7.BetaH,POW.T7.Gamma,POW.Pz.Theta,POW.Pz.Alpha,POW.Pz.BetaL,POW.Pz.BetaH,POW.Pz.Gamma,POW.T8.Theta,POW.T8.Alpha,POW.T8.BetaL,POW.T8.BetaH,POW.T8.Gamma,POW.AF4.Theta,POW.AF4.Alpha,POW.AF4.BetaL,POW.AF4.BetaH,POW.AF4.Gamma
3742,1645900028.6233552,1645900028.646008,73.0,0.0,4315.897461,4668.717772999999,4063.5898439999996,4124.102539,4282.563965,232.0,1.0,15.0,5.0,1.0,2.0,0.0,2.0,0.0,0.0,2.0,4.0,16.666666,,,,,,,,,,,,,,,,,,,,,,,,,,,,,,,,,,,,,,,,,,,,,,,,,,,,,,,,,,,,,,,,,,,,,,,,,,,,,,,,,,,,
3743,1645900028.631168,1645900028.6538231,74.0,0.0,4256.922852000001,4563.077147999999,4082.0512700000004,4146.666504,4274.358886999999,450.0,1.0,15.0,,,,0.0,2.0,0.0,0.0,2.0,4.0,16.666666,,,,,,,,37.0,0.0,0.729431,0.158203,0.6606449999999999,0.080322,0.938491,-0.338384,-0.083009,-0.032685000000000006,-0.030499000000000002,-0.008431999999999999,,,,,,,,,,,,,,,,,,,,,,,,,,,,,,,,,,,0.0,0.0,32.0,0.026844,1.0,0.0,,,,,,,,,,,,,,,,,,,,,,,,,
3744,1645900028.638981,1645900028.661638,75.0,0.0,4281.538574,4581.025879,4123.077147999999,4199.487305,4229.743652,16101.0,1.0,15.0,,,,0.0,2.0,0.0,0.0,2.0,4.0,16.666666,,,,,,,,,,,,,,,,,,,,,,,,,,,,,,,,,,,,,,,,,,,,,,,,,,,,,,,,,,,,,,,,,,,,,,,,,,,,,,,,,,,,
3745,1645900028.6467938,1645900028.669452,76.0,0.0,4321.025879,4596.922852000001,4113.333496,4237.94873,4188.717772999999,450.0,1.0,15.0,,,,0.0,2.0,0.0,0.0,2.0,4.0,16.666666,,,,,,,,38.0,0.0,0.729431,0.158203,0.6606449999999999,0.080322,0.9438620000000001,-0.343267,-0.078614,-0.032688,-0.030575,-0.009981,,,,,,,,,,,,,,,,,,,,,,,,,,,,,,,,,,,,,,,,,,,,,,,,,,,,,,,,,,,,,,,,,
3746,1645900028.654607,1645900028.677267,77.0,0.0,4333.846191,4533.846191,4197.436035,4205.128418,4220.0,450.0,1.0,15.0,,,,0.0,2.0,0.0,0.0,2.0,4.0,16.666666,,,,,,,,,,,,,,,,,,,,,,,,,,,,,,,,,,,,,,,,,,,,,,,,,,,,,,,,,,,,,,,,,,,,,,,,,,,,,,,,,,,,
3747,1645900028.66242,1645900028.685082,78.0,0.0,4343.589844,4563.077147999999,4250.769043,4154.871582,4262.563965,450.0,1.0,15.0,,,,0.0,2.0,0.0,0.0,2.0,4.0,16.666666,,,,,,,,39.0,0.0,0.729209,0.158203,0.6608890000000001,0.080322,0.95314,-0.34375500000000003,-0.069337,-0.032691000000000005,-0.030447000000000002,-0.008251,,,,,,,,,,,,,,,,,,,,,,,,,,,,,,,,,,,0.0,0.0,32.0,0.026844,1.0,0.0,,,,,,,,,,,,,,,,,,,,,,,,,
3748,1645900028.670233,1645900028.692997,79.0,0.0,4330.769043,4672.307617,4150.769043,4163.589844,4248.205078,16101.0,1.0,15.0,,,,0.0,2.0,0.0,0.0,2.0,4.0,16.666666,,,,,,,,,,,,,,,,,,,,,,,,,,,,,,,,,,,,,,,,,,,,,,,,,,,,,,,,,,,,,,,,,,,,,,,,,,,,,,,,,,,,
3749,1645900028.678046,1645900028.7008119,80.0,0.0,4304.615234000001,4732.307617,4071.281982,4166.666504,4253.333496,450.0,1.0,15.0,,,,0.0,2.0,0.0,0.0,2.0,4.0,16.666666,,,,,,,,40.0,0.0,0.729236,0.158203,0.6608890000000001,0.080078,0.94435,-0.34668499999999997,-0.085451,-0.032791,-0.030527,-0.009672,,,,,,,,,,,,,,,,,,,,,,,,,,,,,,,,,,,,,,,,,,,,,,,,,,,,,,,,,,,,,,,,,
3750,1645900028.685859,1645900028.708727,81.0,0.0,4332.820313,4750.769043,4122.563965,4127.179688,4289.230957,450.0,1.0,15.0,,,,0.0,2.0,0.0,0.0,2.0,4.0,16.666666,,,,,,,,,,,,,,,,,,,,,,,,,,,,,,,,,,,,,,,,,,,,,,,,,,,,,,,,,,,,,,,,,,,,,,,,,,,,,,,,,,,,
3751,1645900028.6936722,1645900028.716542,82.0,0.0,4352.307617,4684.102539,4201.025879,4150.769043,4271.794922,450.0,1.0,15.0,,,,0.0,2.0,0.0,0.0,2.0,4.0,16.666666,,,,,,,,41.0,0.0,0.729236,0.158203,0.6608890000000001,0.080078,0.9428850000000001,-0.336919,-0.077638,-0.032735,-0.030501999999999998,-0.011097,,,,,,,,,,,,,,,,,,,,,,,,,,,,,,,,,,,0.0,0.0,32.0,0.026844,1.0,0.0,,,,,,,,,,,,,,,,,,,,,,,,,
3752,1645900028.701485,1645900028.724356,83.0,0.0,4302.05127,4584.615234000001,4284.615234000001,4209.743652,4243.077147999999,16101.0,1.0,15.0,,,,0.0,2.0,0.0,0.0,2.0,4.0,16.666666,,,,,,,,,,,,,,,,,,,,,,,,,,,,,,,,,,,,,,,,,,,,,,,,,,,,,,,,,,,,,,,,,,,,,,,,,,,,,,,,,,,,
3753,1645900028.7092981,1645900028.732171,84.0,0.0,4301.025879,4578.461426,4298.461426,4194.871582,4267.692383,450.0,1.0,15.0,,,,0.0,2.0,0.0,0.0,2.0,4.0,16.666666,,,,,,,,42.0,0.0,0.729457,0.158203,0.6606449999999999,0.080078,0.951675,-0.344244,-0.087404,-0.032733,-0.030381000000000002,-0.012331,,,,,,,,,,,,,,,,,,,,,,,,,,,,,,,,,,,,,,,,,,,,,,,,,,,,,,,,,,,,,,,,,
3754,1645900028.7171109,1645900028.739986,85.0,0.0,4305.641113000001,4590.256348,4209.743652,4164.615234000001,4265.641113000001,450.0,1.0,15.0,,,,0.0,2.0,0.0,0.0,2.0,4.0,16.666666,,,,,,,,,,,,,,,,,,,,,,,,,,,,,,,,,,,,,,,,,,,,,,,,,,,,,,,,,,,,,,,,,,,,,,,,,,,,,,,,,,,,
3755,1645900028.724924,1645900028.747801,86.0,0.0,4257.436035,4542.05127,4020.0,4192.820313,4226.666504,450.0,1.0,15.0,,,,0.0,2.0,0.0,0.0,2.0,4.0,16.666666,1.0,16.666666,2.0,0.0,0.0,2.0,2.0,43.0,0.0,0.729431,0.158203,0.6606449999999999,0.080322,0.9399559999999999,-0.34375500000000003,-0.069825,-0.032731,-0.030273,-0.013491,1.0,0.0,0.0,,,,,,,,,,,,,,,,,,,,,,,,,,,,,,,,0.0,0.0,32.0,0.027578,1.0,0.0,19.107014000000003,7.231446000000001,9.644263,12.455795,12.357681,19.2383,18.017797,21.048911999999998,65.425896,36.936417,15.673229000000001,17.35708,35.152737,55.53783000000001,145.618332,7.4730419999999995,8.176249,8.350703999999999,16.355255,12.085600999999999,11.780721,9.002816000000001,4.395376000000001,11.537917,11.277719
3756,1645900028.732738,1645900028.755616,87.0,0.0,4277.94873,4549.230957,3974.8718259999996,4204.615234000001,4218.974121,16101.0,1.0,15.0,,,,0.0,2.0,0.0,0.0,2.0,4.0,16.666666,,,,,,,,,,,,,,,,,,,,,,,,,,,,,,,,,,,,,,,,,,,,,,,,,,,,,,,,,,,,,,,,,,,,,,,,,,,,,,,,,,,,
3757,1645900028.740551,1645900028.763431,88.0,0.0,4360.0,4615.384765999999,4116.410156,4176.410156,4250.256348,450.0,1.0,15.0,,,,0.0,2.0,0.0,0.0,2.0,4.0,16.666666,,,,,,,,44.0,0.0,0.729431,0.158203,0.6606449999999999,0.080322,0.9521629999999999,-0.349615,-0.087404,-0.029507,-0.030371,-0.014437,,,,,,,,,,,,,,,,,,,,,,,,,,,,,,,,,,,,,,,,,,,,,,,,,,,,,,,,,,,,,,,,,
3758,1645900028.748364,1645900028.7712462,89.0,0.0,4367.179688,4649.743652,4198.461426,4127.179688,4256.410156,450.0,1.0,15.0,,,,0.0,2.0,0.0,0.0,2.0,4.0,16.666666,,,,,,,,,,,,,,,,,,,,,,,,,,,,,,,,,,,,,,,,,,,,,,,,,,,,,,,,,,,,,,,,,,,,,,,,,,,,,,,,,,,,
3759,1645900028.756177,1645900028.779161,90.0,0.0,4336.922852000001,4701.025879,4157.94873,4100.512695,4260.0,450.0,1.0,15.0,,,,0.0,2.0,0.0,0.0,2.0,4.0,16.666666,,,,,,,,45.0,0.0,0.729431,0.158203,0.6606449999999999,0.080322,0.931167,-0.345708,-0.075196,-0.029876,-0.030410000000000003,-0.015386000000000002,,,,,,,,,,,,,,,,,,,,,,,,,,,,,,,,,,,0.0,0.0,32.0,0.027578,1.0,0.0,,,,,,,,,,,,,,,,,,,,,,,,,
3760,1645900028.76399,1645900028.786975,91.0,0.0,4314.358886999999,4740.512695,4148.717772999999,4105.128418,4275.897461,16101.0,1.0,15.0,,,,0.0,2.0,0.0,0.0,2.0,4.0,16.666666,,,,,,,,,,,,,,,,,,,,,,,,,,,,,,,,,,,,,,,,,,,,,,,,,,,,,,,,,,,,,,,,,,,,,,,,,,,,,,,,,,,,
3761,1645900028.771803,1645900028.79479,92.0,0.0,4275.897461,4648.717772999999,4087.6923829999996,4137.94873,4263.077147999999,450.0,1.0,15.0,,,,0.0,2.0,0.0,0.0,2.0,4.0,16.666666,,,,,,,,46.0,0.0,0.729457,0.158203,0.6606449999999999,0.080078,0.937514,-0.338872,-0.081544,-0.030111000000000002,-0.030445,-0.012968,,,,,,,,,,,,,,,,,,,,,,,,,,,,,,,,,,,,,,,,,,,,,,,,,,,,,,,,,,,,,,,,,
3762,1645900028.779616,1645900028.8026052,93.0,0.0,4250.769043,4541.538574,4100.0,4179.487305,4206.666504,450.0,1.0,15.0,,,,0.0,2.0,0.0,0.0,2.0,4.0,16.666666,,,,,,,,,,,,,,,,,,,,,,,,,,,,,,,,,,,,,,,,,,,,,,,,,,,,,,,,,,,,,,,,,,,,,,,,,,,,,,,,,,,,
3763,1645900028.7874289,1645900028.81042,94.0,0.0,4287.692383,4593.846191,4219.487305,4209.743652,4202.563965,450.0,1.0,15.0,,,,0.0,2.0,0.0,0.0,2.0,4.0,16.666666,,,,,,,,47.0,0.0,0.729457,0.158203,0.6606449999999999,0.080078,0.9433739999999999,-0.343267,-0.09033300000000001,-0.030372000000000003,-0.030476999999999997,-0.010841,,,,,,,,,,,,,,,,,,,,,,,,,,,,,,,,,,,0.0,0.0,32.0,0.027578,1.0,0.0,,,,,,,,,,,,,,,,,,,,,,,,,
3764,1645900028.795242,1645900028.818235,95.0,0.0,4304.615234000001,4619.487305,4247.692383,4223.077147999999,4217.436035,16101.0,1.0,15.0,,,,0.0,2.0,0.0,0.0,2.0,4.0,16.666666,,,,,,,,,,,,,,,,,,,,,,,,,,,,,,,,,,,,,,,,,,,,,,,,,,,,,,,,,,,,,,,,,,,,,,,,,,,,,,,,,,,,
3765,1645900028.803055,1645900028.82605,96.0,0.0,4281.538574,4531.282227000001,4229.230957,4224.102539,4219.487305,450.0,1.0,15.0,,,,0.0,2.0,0.0,0.0,2.0,4.0,16.666666,,,,,,,,48.0,0.0,0.729484,0.158203,0.6606449999999999,0.079834,0.9487450000000001,-0.336919,-0.078614,-0.030655,-0.030505,-0.01215,,,,,,,,,,,,,,,,,,,,,,,,,,,,,,,,,,,,,,,,,,,,,,,,,,,,,,,,,,,,,,,,,
3766,1645900028.810868,1645900028.833865,97.0,0.0,4280.512695,4575.897461,4262.05127,4174.871582,4244.615234000001,450.0,1.0,15.0,,,,0.0,2.0,0.0,0.0,2.0,4.0,16.666666,,,,,,,,,,,,,,,,,,,,,,,,,,,,,,,,,,,,,,,,,,,,,,,,,,,,,,,,,,,,,,,,,,,,,,,,,,,,,,,,,,,,
3767,1645900028.818682,1645900028.84168,98.0,0.0,4301.538574,4698.974121,4156.410156,4123.077147999999,4250.256348,450.0,1.0,15.0,,,,0.0,2.0,0.0,0.0,2.0,4.0,16.666666,,,,,,,,49.0,0.0,0.729457,0.158203,0.6606449999999999,0.080078,0.9423969999999999,-0.34668499999999997,-0.08447400000000001,-0.030910000000000003,-0.030482,-0.013279,,,,,,,,,,,,,,,,,,,,,,,,,,,,,,,,,,,0.0,0.0,32.0,0.027578,1.0,0.0,,,,,,,,,,,,,,,,,,,,,,,,,
3768,1645900028.826495,1645900028.8495939,99.0,0.0,4285.641113000001,4668.717772999999,3951.794922,4114.871582,4235.897461,16101.0,1.0,15.0,,,,0.0,2.0,0.0,0.0,2.0,4.0,16.666666,,,,,,,,,,,,,,,,,,,,,,,,,,,,,,,,,,,,,,,,,,,,,,,,,,,,,,,,,,,,,,,,,,,,,,,,,,,,,,,,,,,,
3769,1645900028.834308,1645900028.857409,100.0,0.0,4290.256348,4629.230957,3974.8718259999996,4116.922852000001,4257.436035,450.0,1.0,15.0,,,,0.0,2.0,0.0,0.0,2.0,4.0,16.666666,,,,,,,,50.0,0.0,0.729457,0.158203,0.6606449999999999,0.080078,0.9521629999999999,-0.332036,-0.079591,-0.031042,-0.030461000000000002,-0.014343,,,,,,,,,,,,,,,,,,,,,,,,,,,,,,,,,,,,,,,,,,,,,,,,,,,,,,,,,,,,,,,,,
3770,1645900028.8421211,1645900028.8652241,101.0,0.0,4335.384765999999,4681.538574,4121.538574,4131.282227000001,4276.922852000001,450.0,1.0,15.0,,,,0.0,2.0,0.0,0.0,2.0,4.0,16.666666,,,,,,,,,,,,,,,,,,,,,,,,,,,,,,,,,,,,,,,,,,,,,,,,,,,,,,,,,,,,,,,,,,,,,,,,,,,,,,,,,,,,
3771,1645900028.849934,1645900028.873039,102.0,0.0,4325.641113000001,4663.077147999999,4211.794922,4156.922852000001,4268.205078,450.0,1.0,15.0,,,,0.0,2.0,0.0,0.0,2.0,4.0,16.666666,,,,,,,,51.0,0.0,0.729457,0.158203,0.6606449999999999,0.080078,0.937026,-0.34375500000000003,-0.078126,-0.031208999999999997,-0.030491000000000004,-0.015106,1.0,0.0,0.0,,,,,,,,,,,,,,,,,,,,,,,,,,,,,,,,0.0,0.0,32.0,0.025949,1.0,0.0,18.339128,6.972625,7.884391,11.563789,12.815168,26.851248,20.909422,20.819841,66.28595,38.698085999999996,19.016798,26.645557,42.904274,49.655083000000005,143.897964,9.070985,6.179949,8.497596000000001,16.98056,11.540157,12.308125,9.784756,3.752678,10.982825,10.734071
3772,1645900028.857747,1645900028.880854,103.0,0.0,4300.512695,4625.641113000001,4227.692383,4157.436035,4275.897461,16101.0,1.0,15.0,,,,0.0,2.0,0.0,0.0,2.0,4.0,16.666666,,,,,,,,,,,,,,,,,,,,,,,,,,,,,,,,,,,,,,,,,,,,,,,,,,,,,,,,,,,,,,,,,,,,,,,,,,,,,,,,,,,,
3773,1645900028.86556,1645900028.888669,104.0,0.0,4292.820313,4673.846191,4199.487305,4135.384765999999,4265.128418,450.0,1.0,15.0,,,,0.0,2.0,0.0,0.0,2.0,4.0,16.666666,,,,,,,,52.0,0.0,0.729236,0.158203,0.6608890000000001,0.080078,0.953628,-0.33350100000000005,-0.078126,-0.031311,-0.030519,-0.012912,,,,,,,,,,,,,,,,,,,,,,,,,,,,,,,,,,,,,,,,,,,,,,,,,,,,,,,,,,,,,,,,,
3774,1645900028.873373,1645900028.896484,105.0,0.0,4275.384765999999,4630.769043,4091.281982,4169.743652,4235.384765999999,450.0,1.0,15.0,,,,0.0,2.0,0.0,0.0,2.0,4.0,16.666666,,,,,,,,,,,,,,,,,,,,,,,,,,,,,,,,,,,,,,,,,,,,,,,,,,,,,,,,,,,,,,,,,,,,,,,,,,,,,,,,,,,,
3775,1645900028.881186,1645900028.904299,106.0,0.0,4264.102539,4480.0,4103.077147999999,4224.615234000001,4196.922852000001,450.0,1.0,15.0,,,,0.0,2.0,0.0,0.0,2.0,4.0,16.666666,,,,,,,,53.0,0.0,0.729236,0.158203,0.6608890000000001,0.080078,0.949722,-0.34229,-0.080079,-0.031354,-0.030592,-0.013965,,,,,,,,,,,,,,,,,,,,,,,,,,,,,,,,,,,0.0,0.0,32.0,0.025949,1.0,0.0,,,,,,,,,,,,,,,,,,,,,,,,,
3776,1645900028.888999,1645900028.9121132,107.0,0.0,4308.717772999999,4502.563965,4186.666504,4211.794922,4188.205078,16101.0,1.0,15.0,,,,0.0,2.0,0.0,0.0,2.0,4.0,16.666666,,,,,,,,,,,,,,,,,,,,,,,,,,,,,,,,,,,,,,,,,,,,,,,,,,,,,,,,,,,,,,,,,,,,,,,,,,,,,,,,,,,,
3777,1645900028.896812,1645900028.9199278,108.0,0.0,4336.410156,4657.436035,4182.05127,4152.307617,4224.615234000001,450.0,1.0,15.0,,,,0.0,2.0,0.0,0.0,2.0,4.0,16.666666,,,,,,,,54.0,0.0,0.729209,0.158203,0.6608890000000001,0.080322,0.944839,-0.350591,-0.075196,-0.03149,-0.030657999999999998,-0.014863,,,,,,,,,,,,,,,,,,,,,,,,,,,,,,,,,,,,,,,,,,,,,,,,,,,,,,,,,,,,,,,,,
3778,1645900028.904625,1645900028.927643,109.0,0.0,4334.871582,4662.05127,4164.615234000001,4164.615234000001,4282.563965,450.0,1.0,15.0,,,,0.0,2.0,0.0,0.0,2.0,4.0,16.666666,,,,,,,,,,,,,,,,,,,,,,,,,,,,,,,,,,,,,,,,,,,,,,,,,,,,,,,,,,,,,,,,,,,,,,,,,,,,,,,,,,,,
3779,1645900028.912439,1645900028.935458,110.0,0.0,4328.717772999999,4593.846191,4209.230957,4178.974121,4294.358886999999,450.0,1.0,15.0,,,,0.0,2.0,0.0,0.0,2.0,4.0,16.666666,,,,,,,,55.0,0.0,0.729209,0.158203,0.6608890000000001,0.080322,0.945327,-0.346197,-0.073732,-0.031514999999999994,-0.030619,-0.015721000000000002,,,,,,,,,,,,,,,,,,,,,,,,,,,,,,,,,,,0.0,0.0,32.0,0.025949,1.0,0.0,,,,,,,,,,,,,,,,,,,,,,,,,
3780,1645900028.920251,1645900028.943273,111.0,0.0,4308.205078,4649.743652,4078.974365,4142.563965,4285.128418,16101.0,1.0,15.0,,,,0.0,2.0,0.0,0.0,2.0,4.0,16.666666,,,,,,,,,,,,,,,,,,,,,,,,,,,,,,,,,,,,,,,,,,,,,,,,,,,,,,,,,,,,,,,,,,,,,,,,,,,,,,,,,,,,
3781,1645900028.928065,1645900028.9510882,112.0,0.0,4260.512695,4681.538574,3967.6923829999996,4148.717772999999,4275.384765999999,450.0,1.0,15.0,,,,0.0,2.0,0.0,0.0,2.0,4.0,16.666666,,,,,,,,56.0,0.0,0.729236,0.158203,0.6608890000000001,0.080078,0.949722,-0.34229,-0.080079,-0.031684,-0.030585,-0.013513999999999998,,,,,,,,,,,,,,,,,,,,,,,,,,,,,,,,,,,,,,,,,,,,,,,,,,,,,,,,,,,,,,,,,
3782,1645900028.935878,1645900028.9589028,113.0,0.0,4256.922852000001,4608.205078,4182.563965,4172.820313,4269.743652,450.0,1.0,15.0,,,,0.0,2.0,0.0,0.0,2.0,4.0,16.666666,,,,,,,,,,,,,,,,,,,,,,,,,,,,,,,,,,,,,,,,,,,,,,,,,,,,,,,,,,,,,,,,,,,,,,,,,,,,,,,,,,,,
3783,1645900028.943691,1645900028.966718,114.0,0.0,4309.743652,4634.871582,4325.641113000001,4137.94873,4262.563965,450.0,1.0,15.0,,,,0.0,2.0,0.0,0.0,2.0,4.0,16.666666,,,,,,,,57.0,0.0,0.729209,0.158203,0.6608890000000001,0.080322,0.945327,-0.346197,-0.073732,-0.031689,-0.030554,-0.014506,,,,,,,,,,,,,,,,,,,,,,,,,,,,,,,,,,,0.0,0.0,32.0,0.025949,1.0,0.0,,,,,,,,,,,,,,,,,,,,,,,,,
3784,1645900028.951504,1645900028.974533,115.0,0.0,4309.743652,4726.153809,4130.769043,4135.897461,4229.230957,16101.0,1.0,15.0,,,,0.0,2.0,0.0,0.0,2.0,4.0,16.666666,,,,,,,,,,,,,,,,,,,,,,,,,,,,,,,,,,,,,,,,,,,,,,,,,,,,,,,,,,,,,,,,,,,,,,,,,,,,,,,,,,,,
3785,1645900028.959317,1645900028.982348,116.0,0.0,4272.307617,4674.358886999999,3947.179443,4177.94873,4226.153809,450.0,1.0,15.0,,,,0.0,2.0,0.0,0.0,2.0,4.0,16.666666,,,,,,,,58.0,0.0,0.729236,0.158203,0.6608890000000001,0.080078,0.946792,-0.34375500000000003,-0.086427,-0.031841,-0.030525999999999998,-0.012421,,,,,,,,,,,,,,,,,,,,,,,,,,,,,,,,,,,,,,,,,,,,,,,,,,,,,,,,,,,,,,,,,
3786,1645900028.9671302,1645900028.990162,117.0,0.0,4283.077147999999,4574.358886999999,4001.025635,4155.897461,4243.077147999999,450.0,1.0,15.0,,,,0.0,2.0,0.0,0.0,2.0,4.0,16.666666,,,,,,,,,,,,,,,,,,,,,,,,,,,,,,,,,,,,,,,,,,,,,,,,,,,,,,,,,,,,,,,,,,,,,,,,,,,,,,,,,,,,
3787,1645900028.974943,1645900028.998077,118.0,0.0,4305.128418,4580.0,4057.4357909999994,4116.410156,4221.538574,450.0,1.0,15.0,,,,0.0,2.0,0.0,0.0,2.0,4.0,16.666666,,,,,,,,59.0,0.0,0.729236,0.158203,0.6608890000000001,0.080078,0.949722,-0.334966,-0.078614,-0.031928,-0.030452,-0.013522,1.0,0.0,0.0,,,,,,,,,,,,,,,,,,,,,,,,,,,,,,,,0.0,0.0,32.0,0.02484,1.0,0.0,17.750134,7.810836,7.203363,11.217634,12.553011999999999,35.898613,29.273490999999996,26.131395,62.909515,39.381096,23.203356,41.776348,52.26543,54.36586,129.177628,10.640307,6.013941,10.776357,17.530571,10.459114,12.633365,11.001636999999999,4.016056,10.581228999999999,9.71625
3788,1645900028.9827561,1645900029.005892,119.0,0.0,4300.0,4605.128418,4126.666504,4116.922852000001,4207.179688,16101.0,1.0,15.0,,,,0.0,2.0,0.0,0.0,2.0,4.0,16.666666,,,,,,,,,,,,,,,,,,,,,,,,,,,,,,,,,,,,,,,,,,,,,,,,,,,,,,,,,,,,,,,,,,,,,,,,,,,,,,,,,,,,
3789,1645900028.9905689,1645900029.013707,120.0,0.0,4330.256348,4610.769043,4240.0,4120.0,4266.666504,450.0,1.0,15.0,,,,0.0,2.0,0.0,0.0,2.0,4.0,16.666666,,,,,,,,60.0,0.0,0.729236,0.158203,0.6608890000000001,0.080078,0.960952,-0.33984899999999996,-0.072755,-0.032007,-0.030385000000000002,-0.014513999999999999,,,,,,,,,,,,,,,,,,,,,,,,,,,,,,,,,,,,,,,,,,,,,,,,,,,,,,,,,,,,,,,,,
3790,1645900028.998382,1645900029.021522,121.0,0.0,4337.94873,4652.307617,4276.410156,4099.487305,4302.563965,450.0,1.0,15.0,,,,0.0,2.0,0.0,0.0,2.0,4.0,16.666666,,,,,,,,,,,,,,,,,,,,,,,,,,,,,,,,,,,,,,,,,,,,,,,,,,,,,,,,,,,,,,,,,,,,,,,,,,,,,,,,,,,,
3791,1645900029.0061948,1645900029.029337,122.0,0.0,4262.05127,4660.0,4121.538574,4130.769043,4270.769043,450.0,1.0,15.0,,,,0.0,2.0,0.0,0.0,2.0,4.0,16.666666,,,,,,,,61.0,0.0,0.729183,0.158447,0.6608890000000001,0.080078,0.95314,-0.347173,-0.07470800000000001,-0.032029,-0.030374,-0.012281,,,,,,,,,,,,,,,,,,,,,,,,,,,,,,,,,,,0.0,0.0,32.0,0.02484,1.0,0.0,,,,,,,,,,,,,,,,,,,,,,,,,
3792,1645900029.014009,1645900029.037152,123.0,0.0,4206.666504,4660.0,4054.8718259999996,4163.589844,4238.974121,16101.0,1.0,15.0,,,,0.0,2.0,0.0,0.0,2.0,4.0,16.666666,,,,,,,,,,,,,,,,,,,,,,,,,,,,,,,,,,,,,,,,,,,,,,,,,,,,,,,,,,,,,,,,,,,,,,,,,,,,,,,,,,,,
3793,1645900029.021822,1645900029.044967,124.0,0.0,4264.615234000001,4653.333496,4134.871582,4171.794922,4223.589844,450.0,1.0,15.0,,,,0.0,2.0,0.0,0.0,2.0,4.0,16.666666,,,,,,,,62.0,0.0,0.729156,0.158447,0.6608890000000001,0.080322,0.9365379999999999,-0.33984899999999996,-0.079591,-0.031951,-0.030462,-0.010320999999999999,,,,,,,,,,,,,,,,,,,,,,,,,,,,,,,,,,,,,,,,,,,,,,,,,,,,,,,,,,,,,,,,,
3794,1645900029.029635,1645900029.052781,125.0,0.0,4301.538574,4557.436035,4249.230957,4208.717772999999,4186.153809,450.0,1.0,15.0,,,,0.0,2.0,0.0,0.0,2.0,4.0,16.666666,,,,,,,,,,,,,,,,,,,,,,,,,,,,,,,,,,,,,,,,,,,,,,,,,,,,,,,,,,,,,,,,,,,,,,,,,,,,,,,,,,,,
3795,1645900029.037448,1645900029.060596,126.0,0.0,4292.307617,4531.282227000001,4308.717772999999,4210.769043,4196.922852000001,450.0,1.0,15.0,,,,0.0,2.0,0.0,0.0,2.0,4.0,16.666666,,,,,,,,63.0,0.0,0.729156,0.158447,0.6608890000000001,0.080322,0.938003,-0.34473200000000004,-0.084962,-0.032076,-0.030394,-0.011681,,,,,,,,,,,,,,,,,,,,,,,,,,,,,,,,,,,0.0,0.0,32.0,0.02484,1.0,0.0,,,,,,,,,,,,,,,,,,,,,,,,,
3796,1645900029.045261,1645900029.0684109,127.0,0.0,4295.897461,4643.589844,4282.05127,4132.820313,4223.589844,233.0,1.0,15.0,,,,0.0,2.0,0.0,0.0,2.0,4.0,16.666666,,,,,,,,,,,,,,,,,,,,,,,,,,,,,,,,,,,,,,,,,,,,,,,,,,,,,,,,,,,,,,,,,,,,,,,,,,,,,,,,,,,,
3797,1645900029.0530741,1645900029.0761259,0.0,0.0,4288.205078,4689.743652,4165.128418,4123.589844,4212.307617,450.0,1.0,15.0,,,,0.0,2.0,0.0,0.0,4.0,4.0,16.666666,,,,,,,,0.0,0.0,0.729156,0.158447,0.6608890000000001,0.080322,0.9511860000000001,-0.340337,-0.083497,-0.032238,-0.030382,-0.012856999999999999,,,,,,,,,,,,,,,,,,,,,,,,,,,,,,,,,,,,,,,,,,,,,,,,,,,,,,,,,,,,,,,,,
3798,1645900029.0608869,1645900029.083941,1.0,0.0,4258.974121,4686.153809,4057.9487299999996,4161.025879,4231.282227000001,450.0,1.0,15.0,,,,0.0,2.0,0.0,0.0,4.0,4.0,16.666666,,,,,,,,,,,,,,,,,,,,,,,,,,,,,,,,,,,,,,,,,,,,,,,,,,,,,,,,,,,,,,,,,,,,,,,,,,,,,,,,,,,,
3799,1645900029.0687,1645900029.091756,2.0,0.0,4284.102539,4726.666504,4086.1538090000004,4124.102539,4278.974121,304.0,1.0,15.0,,,,0.0,2.0,0.0,0.0,4.0,4.0,16.666666,,,,,,,,1.0,0.0,0.729103,0.158691,0.6608890000000001,0.080322,0.938003,-0.34766199999999997,-0.075196,-0.032237,-0.030371,-0.010740999999999999,,,,,,,,,,,,,,,,,,,,,,,,,,,,,,,,,,,0.0,0.0,32.0,0.02484,1.0,0.0,,,,,,,,,,,,,,,,,,,,,,,,,
3800,1645900029.076513,1645900029.099571,3.0,0.0,4317.94873,4681.538574,4175.897461,4109.230957,4256.922852000001,450.0,1.0,15.0,,,,0.0,2.0,0.0,0.0,4.0,4.0,16.666666,,,,,,,,,,,,,,,,,,,,,,,,,,,,,,,,,,,,,,,,,,,,,,,,,,,,,,,,,,,,,,,,,,,,,,,,,,,,,,,,,,,,
3801,1645900029.084326,1645900029.1073859,4.0,0.0,4308.205078,4617.94873,4231.794922,4134.871582,4224.102539,0.0,1.0,15.0,,,,0.0,2.0,0.0,0.0,4.0,4.0,16.666666,,,,,,,,2.0,0.0,0.729271,0.158936,0.6606449999999999,0.080322,0.94435,-0.346197,-0.072267,-0.032333,-0.030410000000000003,-0.012010999999999999,,,,,,,,,,,,,,,,,,,,,,,,,,,,,,,,,,,,,,,,,,,,,,,,,,,,,,,,,,,,,,,,,
3802,1645900029.092139,1645900029.115201,5.0,0.0,4312.307617,4635.897461,4223.077147999999,4125.641113000001,4258.974121,450.0,1.0,15.0,,,,0.0,2.0,0.0,0.0,4.0,4.0,16.666666,,,,,,,,,,,,,,,,,,,,,,,,,,,,,,,,,,,,,,,,,,,,,,,,,,,,,,,,,,,,,,,,,,,,,,,,,,,,,,,,,,,,
3803,1645900029.099952,1645900029.123015,6.0,0.0,4285.641113000001,4597.94873,4173.846191,4152.307617,4249.230957,41.0,1.0,15.0,,,,0.0,2.0,0.0,0.0,4.0,4.0,16.666666,,,,,,,,3.0,0.0,0.729271,0.158936,0.6606449999999999,0.080322,0.9428850000000001,-0.334966,-0.085451,-0.032372000000000005,-0.030397000000000004,-0.009931,1.0,0.0,0.0,,,,,,,,,,,,,,,,,,,,,,,,,,,,,,,,0.0,0.0,32.0,0.024925,1.0,0.0,17.299560999999997,9.079595,7.882109,11.489386999999999,11.701961,43.312481,39.995979,39.540473999999996,56.148968,38.415512,26.753796,60.229468999999995,61.019608,69.37371800000001,106.06269099999999,12.157342,6.826882,15.979961,17.661951000000002,9.111016000000001,12.577328,11.819036,5.222288,10.527826,8.517949
3804,1645900029.107766,1645900029.13083,7.0,0.0,4253.846191,4546.666504,4068.718018,4207.179688,4192.307617,450.0,1.0,15.0,,,,0.0,2.0,0.0,0.0,4.0,4.0,16.666666,,,,,,,,,,,,,,,,,,,,,,,,,,,,,,,,,,,,,,,,,,,,,,,,,,,,,,,,,,,,,,,,,,,,,,,,,,,,,,,,,,,,
3805,1645900029.115579,1645900029.138645,8.0,0.0,4287.692383,4572.307617,4089.743652,4196.922852000001,4176.922852000001,450.0,1.0,15.0,,,,0.0,2.0,0.0,0.0,4.0,4.0,16.666666,,,,,,,,4.0,0.0,0.729218,0.15918,0.6606449999999999,0.080322,0.948257,-0.340337,-0.070802,-0.032357,-0.030287,-0.011184,,,,,,,,,,,,,,,,,,,,,,,,,,,,,,,,,,,,,,,,,,,,,,,,,,,,,,,,,,,,,,,,,
3806,1645900029.123392,1645900029.14646,9.0,0.0,4341.538574,4596.922852000001,4215.897461,4161.025879,4219.487305,308.0,1.0,15.0,,,,0.0,2.0,0.0,0.0,4.0,4.0,16.666666,,,,,,,,,,,,,,,,,,,,,,,,,,,,,,,,,,,,,,,,,,,,,,,,,,,,,,,,,,,,,,,,,,,,,,,,,,,,,,,,,,,,
3807,1645900029.131205,1645900029.154175,10.0,0.0,4363.077147999999,4613.333496,4248.717772999999,4129.230957,4258.974121,450.0,1.0,15.0,,,,0.0,2.0,0.0,0.0,4.0,2.0,16.666666,,,,,,,,5.0,0.0,0.729191,0.15918,0.6606449999999999,0.080566,0.9463030000000001,-0.333989,-0.078126,-0.032393,-0.030333999999999996,-0.012409,,,,,,,,,,,,,,,,,,,,,,,,,,,,,,,,,,,0.0,0.0,32.0,0.024925,1.0,0.0,,,,,,,,,,,,,,,,,,,,,,,,,
3808,1645900029.139018,1645900029.16199,11.0,0.0,4357.436035,4648.205078,4152.307617,4136.922852000001,4288.717772999999,302.0,1.0,15.0,,,,0.0,2.0,0.0,0.0,4.0,2.0,16.666666,,,,,,,,,,,,,,,,,,,,,,,,,,,,,,,,,,,,,,,,,,,,,,,,,,,,,,,,,,,,,,,,,,,,,,,,,,,,,,,,,,,,
3809,1645900029.146831,1645900029.169805,12.0,0.0,4292.820313,4645.641113000001,4148.205078,4173.333496,4291.282227000001,450.0,1.0,15.0,,,,0.0,2.0,0.0,0.0,4.0,2.0,16.666666,,,,,,,,6.0,0.0,0.729191,0.15918,0.6606449999999999,0.080566,0.9404440000000001,-0.335454,-0.07422000000000001,-0.032425,-0.030327999999999997,-0.010485,,,,,,,,,,,,,,,,,,,,,,,,,,,,,,,,,,,,,,,,,,,,,,,,,,,,,,,,,,,,,,,,,
3810,1645900029.154644,1645900029.17762,13.0,0.0,4282.563965,4644.102539,4152.820313,4171.794922,4272.820313,450.0,1.0,15.0,,,,0.0,2.0,0.0,0.0,4.0,2.0,16.666666,,,,,,,,,,,,,,,,,,,,,,,,,,,,,,,,,,,,,,,,,,,,,,,,,,,,,,,,,,,,,,,,,,,,,,,,,,,,,,,,,,,,
3811,1645900029.162457,1645900029.185435,14.0,0.0,4352.307617,4632.307617,4151.794922,4173.333496,4248.205078,450.0,1.0,15.0,,,,0.0,2.0,0.0,0.0,4.0,2.0,16.666666,,,,,,,,7.0,0.0,0.729164,0.15918,0.6606449999999999,0.08081100000000001,0.948257,-0.357427,-0.067872,-0.032357,-0.030274000000000002,-0.008655,,,,,,,,,,,,,,,,,,,,,,,,,,,,,,,,,,,0.0,0.0,32.0,0.024925,1.0,0.0,,,,,,,,,,,,,,,,,,,,,,,,,
3812,1645900029.17027,1645900029.19325,15.0,0.0,4353.333496,4596.410156,4205.641113000001,4242.563965,4256.922852000001,302.0,1.0,15.0,,,,0.0,2.0,0.0,0.0,4.0,2.0,16.666666,,,,,,,,,,,,,,,,,,,,,,,,,,,,,,,,,,,,,,,,,,,,,,,,,,,,,,,,,,,,,,,,,,,,,,,,,,,,,,,,,,,,
3813,1645900029.178083,1645900029.201064,16.0,0.0,4306.666504,4654.358886999999,4218.974121,4217.436035,4277.436035,0.0,1.0,15.0,,,,0.0,2.0,0.0,0.0,4.0,2.0,16.666666,,,,,,,,8.0,0.0,0.7293850000000001,0.15918,0.6604,0.08081100000000001,0.957046,-0.34668499999999997,-0.081544,-0.032344,-0.030323000000000003,-0.010084000000000001,,,,,,,,,,,,,,,,,,,,,,,,,,,,,,,,,,,,,,,,,,,,,,,,,,,,,,,,,,,,,,,,,
3814,1645900029.1858962,1645900029.208879,17.0,0.0,4338.461426,4727.692383,4152.307617,4131.794922,4260.512695,0.0,1.0,15.0,,,,0.0,2.0,0.0,0.0,4.0,2.0,16.666666,,,,,,,,,,,,,,,,,,,,,,,,,,,,,,,,,,,,,,,,,,,,,,,,,,,,,,,,,,,,,,,,,,,,,,,,,,,,,,,,,,,,
3815,1645900029.193709,1645900029.216794,18.0,0.0,4341.538574,4668.717772999999,4136.410156,4169.230957,4235.897461,0.0,1.0,15.0,,,,0.0,2.0,0.0,0.0,4.0,2.0,16.666666,,,,,,,,9.0,0.0,0.729358,0.15918,0.6604,0.081055,0.954116,-0.338384,-0.083986,-0.032283,-0.030463999999999998,-0.008440999999999999,,,,,,,,,,,,,,,,,,,,,,,,,,,,,,,,,,,0.0,0.0,32.0,0.024925,1.0,0.0,,,,,,,,,,,,,,,,,,,,,,,,,
3816,1645900029.201522,1645900029.224609,19.0,0.0,4311.282227000001,4621.538574,4253.333496,4185.641113000001,4254.358886999999,0.0,1.0,15.0,,,,0.0,2.0,0.0,0.0,4.0,2.0,16.666666,,,,,,,,,,,,,,,,,,,,,,,,,,,,,,,,,,,,,,,,,,,,,,,,,,,,,,,,,,,,,,,,,,,,,,,,,,,,,,,,,,,,
3817,1645900029.2093349,1645900029.232424,20.0,0.0,4334.358886999999,4681.025879,4296.922852000001,4094.358887,4268.205078,0.0,1.0,15.0,,,,0.0,2.0,0.0,0.0,4.0,2.0,16.666666,,,,,,,,10.0,0.0,0.729332,0.159424,0.6604,0.08081100000000001,0.9433739999999999,-0.341802,-0.077638,-0.032229,-0.030494,-0.00999,,,,,,,,,,,,,,,,,,,,,,,,,,,,,,,,,,,,,,,,,,,,,,,,,,,,,,,,,,,,,,,,,
3818,1645900029.217149,1645900029.2402391,21.0,0.0,4297.436035,4674.871582,4200.0,4084.615479,4235.384765999999,0.0,1.0,15.0,,,,0.0,2.0,0.0,0.0,4.0,2.0,16.666666,,,,,,,,,,,,,,,,,,,,,,,,,,,,,,,,,,,,,,,,,,,,,,,,,,,,,,,,,,,,,,,,,,,,,,,,,,,,,,,,,,,,
3819,1645900029.224962,1645900029.2480538,22.0,0.0,4243.589844,4585.128418,4086.1538090000004,4165.128418,4231.282227000001,0.0,1.0,15.0,,,,0.0,2.0,0.0,0.0,4.0,2.0,16.666666,1.0,16.666666,2.0,0.0,0.0,2.0,2.0,11.0,0.0,0.729332,0.159424,0.6604,0.08081100000000001,0.936049,-0.34473200000000004,-0.091798,-0.032277,-0.030423000000000002,-0.008258,1.0,0.0,0.0,1.0,0.5884,1.215158,-0.48001400000000005,2.475732,1.0,0.138383,4.128858999999999,0.74721,26.154128,0.149975,1.0,0.46314700000000003,-0.062125,-0.268571,0.175955,1.0,0.47221,1.6690919999999998,-0.13227,3.6835699999999996,1.0,0.48662799999999995,12.296699,-70.09938100000001,98.091522,1.0,0.403539,0.546179,0.42520699999999995,0.705821,0.0,0.0,32.0,0.027199,1.0,0.0,16.48893,10.182855,9.79657,12.243567,10.470692,46.508064000000005,49.832275,61.004353,47.420528000000004,35.857182,27.987909000000002,78.146759,67.31532299999999,92.430763,80.97048199999999,13.578786,8.000094,23.884732999999997,16.986044,7.791625,11.941975,11.786003,7.438167,10.738571,7.35533
3820,1645900029.232775,1645900029.255868,23.0,0.0,4295.897461,4561.025879,4090.256348,4185.128418,4242.05127,0.0,1.0,15.0,,,,0.0,2.0,0.0,0.0,4.0,2.0,16.666666,,,,,,,,,,,,,,,,,,,,,,,,,,,,,,,,,,,,,,,,,,,,,,,,,,,,,,,,,,,,,,,,,,,,,,,,,,,,,,,,,,,,
3821,1645900029.2405882,1645900029.263683,24.0,0.0,4370.256348,4610.256348,4125.641113000001,4187.692383,4229.743652,0.0,1.0,15.0,,,,0.0,2.0,0.0,0.0,4.0,2.0,16.666666,,,,,,,,12.0,0.0,0.729359,0.159424,0.6604,0.080566,0.945327,-0.34912600000000005,-0.07715,-0.032223,-0.030407999999999998,-0.009679,,,,,,,,,,,,,,,,,,,,,,,,,,,,,,,,,,,,,,,,,,,,,,,,,,,,,,,,,,,,,,,,,
3822,1645900029.248401,1645900029.271498,25.0,0.0,4375.384765999999,4655.897461,4162.05127,4155.897461,4232.307617,0.0,1.0,15.0,,,,0.0,2.0,0.0,0.0,4.0,2.0,16.666666,,,,,,,,,,,,,,,,,,,,,,,,,,,,,,,,,,,,,,,,,,,,,,,,,,,,,,,,,,,,,,,,,,,,,,,,,,,,,,,,,,,,
3823,1645900029.2562141,1645900029.279313,26.0,0.0,4352.307617,4663.077147999999,4175.897461,4103.589844,4278.461426,0.0,1.0,15.0,,,,0.0,2.0,0.0,0.0,4.0,2.0,16.666666,,,,,,,,13.0,0.0,0.729359,0.159424,0.6604,0.080566,0.941421,-0.342779,-0.087892,-0.032273,-0.030541000000000002,-0.011054999999999999,,,,,,,,,,,,,,,,,,,,,,,,,,,,,,,,,,,0.0,0.0,32.0,0.027199,1.0,0.0,,,,,,,,,,,,,,,,,,,,,,,,,
3824,1645900029.2640269,1645900029.287128,27.0,0.0,4311.794922,4669.230957,4159.487305,4128.205078,4300.0,0.0,1.0,15.0,,,,0.0,2.0,0.0,0.0,4.0,2.0,16.666666,,,,,,,,,,,,,,,,,,,,,,,,,,,,,,,,,,,,,,,,,,,,,,,,,,,,,,,,,,,,,,,,,,,,,,,,,,,,,,,,,,,,
3825,1645900029.27184,1645900029.295043,28.0,0.0,4292.820313,4657.94873,4074.8718259999996,4189.743652,4266.666504,0.0,1.0,15.0,,,,0.0,2.0,0.0,0.0,4.0,2.0,16.666666,,,,,,,,14.0,0.0,0.7294390000000001,0.15918,0.6604,0.080322,0.948257,-0.340337,-0.07910299999999999,-0.032268,-0.030563,-0.009119,,,,,,,,,,,,,,,,,,,,,,,,,,,,,,,,,,,,,,,,,,,,,,,,,,,,,,,,,,,,,,,,,
3826,1645900029.2796528,1645900029.302858,29.0,0.0,4287.692383,4555.384765999999,4100.0,4196.922852000001,4197.94873,0.0,1.0,15.0,,,,0.0,2.0,0.0,0.0,4.0,2.0,16.666666,,,,,,,,,,,,,,,,,,,,,,,,,,,,,,,,,,,,,,,,,,,,,,,,,,,,,,,,,,,,,,,,,,,,,,,,,,,,,,,,,,,,
3827,1645900029.287466,1645900029.310673,30.0,0.0,4311.282227000001,4473.333496,4230.769043,4185.128418,4195.897461,0.0,1.0,15.0,,,,0.0,2.0,0.0,0.0,4.0,2.0,16.666666,,,,,,,,15.0,0.0,0.729412,0.15918,0.6604,0.080566,0.957046,-0.34766199999999997,-0.07910299999999999,-0.032313,-0.030583,-0.010551000000000001,,,,,,,,,,,,,,,,,,,,,,,,,,,,,,,,,,,0.0,0.0,32.0,0.027199,1.0,0.0,,,,,,,,,,,,,,,,,,,,,,,,,
3828,1645900029.2952788,1645900029.318487,31.0,0.0,4361.538574,4551.794922,4250.256348,4165.128418,4242.563965,0.0,1.0,15.0,,,,0.0,2.0,0.0,0.0,4.0,2.0,16.666666,,,,,,,,,,,,,,,,,,,,,,,,,,,,,,,,,,,,,,,,,,,,,,,,,,,,,,,,,,,,,,,,,,,,,,,,,,,,,,,,,,,,
3829,1645900029.303093,1645900029.326302,32.0,0.0,4351.282227000001,4657.94873,4124.615234000001,4148.717772999999,4244.102539,0.0,1.0,15.0,,,,0.0,2.0,0.0,0.0,4.0,2.0,16.666666,,,,,,,,16.0,0.0,0.729244,0.158936,0.6606449999999999,0.080566,0.9438620000000001,-0.33105999999999997,-0.072755,-0.032353,-0.030552,-0.008860999999999999,,,,,,,,,,,,,,,,,,,,,,,,,,,,,,,,,,,,,,,,,,,,,,,,,,,,,,,,,,,,,,,,,
3830,1645900029.3109062,1645900029.334117,33.0,0.0,4296.922852000001,4667.692383,4061.025635,4152.307617,4241.025879,0.0,1.0,15.0,,,,0.0,2.0,0.0,0.0,4.0,2.0,16.666666,,,,,,,,,,,,,,,,,,,,,,,,,,,,,,,,,,,,,,,,,,,,,,,,,,,,,,,,,,,,,,,,,,,,,,,,,,,,,,,,,,,,
3831,1645900029.318719,1645900029.341932,34.0,0.0,4339.487305,4675.897461,4117.94873,4152.307617,4269.230957,0.0,1.0,15.0,,,,0.0,2.0,0.0,0.0,4.0,2.0,16.666666,,,,,,,,17.0,0.0,0.7294649999999999,0.158936,0.6604,0.080566,0.941421,-0.33350100000000005,-0.080079,-0.032487,-0.030573000000000003,-0.010368,,,,,,,,,,,,,,,,,,,,,,,,,,,,,,,,,,,0.0,0.0,32.0,0.027199,1.0,0.0,,,,,,,,,,,,,,,,,,,,,,,,,
3832,1645900029.3265321,1645900029.3497472,35.0,0.0,4383.589844,4689.230957,4194.358886999999,4169.230957,4256.922852000001,0.0,1.0,15.0,,,,0.0,2.0,0.0,0.0,4.0,2.0,16.666666,,,,,,,,,,,,,,,,,,,,,,,,,,,,,,,,,,,,,,,,,,,,,,,,,,,,,,,,,,,,,,,,,,,,,,,,,,,,,,,,,,,,
3833,1645900029.3343449,1645900029.3575618,36.0,0.0,4312.307617,4649.230957,4299.487305,4198.974121,4248.205078,0.0,1.0,15.0,,,,0.0,2.0,0.0,0.0,4.0,2.0,16.666666,,,,,,,,18.0,0.0,0.7294649999999999,0.158936,0.6604,0.080566,0.9399559999999999,-0.347173,-0.078126,-0.032510000000000004,-0.030592,-0.011675,,,,,,,,,,,,,,,,,,,,,,,,,,,,,,,,,,,,,,,,,,,,,,,,,,,,,,,,,,,,,,,,,
3834,1645900029.342158,1645900029.3654768,37.0,0.0,4270.769043,4592.307617,4330.256348,4180.512695,4285.641113000001,0.0,1.0,15.0,,,,0.0,2.0,0.0,0.0,4.0,2.0,16.666666,,,,,,,,,,,,,,,,,,,,,,,,,,,,,,,,,,,,,,,,,,,,,,,,,,,,,,,,,,,,,,,,,,,,,,,,,,,,,,,,,,,,
3835,1645900029.349971,1645900029.373292,38.0,0.0,4294.358886999999,4592.820313,4237.94873,4150.256348,4252.307617,0.0,1.0,15.0,,,,0.0,2.0,0.0,0.0,4.0,2.0,16.666666,,,,,,,,19.0,0.0,0.729438,0.158936,0.6604,0.08081100000000001,0.9487450000000001,-0.35352100000000003,-0.075196,-0.032433,-0.030657999999999998,-0.009775,1.0,0.0,0.0,,,,,,,,,,,,,,,,,,,,,,,,,,,,,,,,0.0,0.0,32.0,0.028292,1.0,0.0,14.998682999999998,10.636144,12.451264,13.245505999999999,9.072852000000001,44.296459000000006,56.269714,86.926964,38.279423,32.267029,26.831184000000004,91.85566700000001,70.167236,120.182693,59.521747999999995,14.654503,9.155177,33.284859000000004,15.373624,6.707509,10.644441,10.922979,10.779439,10.908945,6.31505
3836,1645900029.357784,1645900029.3811061,39.0,0.0,4300.512695,4606.153809,4099.487305,4157.436035,4185.641113000001,0.0,1.0,15.0,,,,0.0,2.0,0.0,0.0,4.0,2.0,16.666666,,,,,,,,,,,,,,,,,,,,,,,,,,,,,,,,,,,,,,,,,,,,,,,,,,,,,,,,,,,,,,,,,,,,,,,,,,,,,,,,,,,,
3837,1645900029.365597,1645900029.388921,40.0,0.0,4307.692383,4600.512695,4148.205078,4140.0,4193.333496,0.0,1.0,15.0,,,,0.0,2.0,0.0,0.0,4.0,2.0,16.666666,,,,,,,,20.0,0.0,0.7294649999999999,0.158936,0.6604,0.080566,0.941421,-0.33350100000000005,-0.080079,-0.032607,-0.030717,-0.008211,,,,,,,,,,,,,,,,,,,,,,,,,,,,,,,,,,,,,,,,,,,,,,,,,,,,,,,,,,,,,,,,,
3838,1645900029.37341,1645900029.396736,41.0,0.0,4349.743652,4671.282227000001,4278.974121,4092.820557,4254.871582,0.0,1.0,15.0,,,,0.0,2.0,0.0,0.0,4.0,2.0,16.666666,,,,,,,,,,,,,,,,,,,,,,,,,,,,,,,,,,,,,,,,,,,,,,,,,,,,,,,,,,,,,,,,,,,,,,,,,,,,,,,,,,,,
3839,1645900029.381223,1645900029.404551,42.0,0.0,4343.589844,4741.538574,4254.871582,4073.3332520000004,4285.641113000001,0.0,1.0,15.0,,,,0.0,2.0,0.0,0.0,4.0,2.0,16.666666,,,,,,,,21.0,0.0,0.729438,0.158936,0.6604,0.08081100000000001,0.9487450000000001,-0.35352100000000003,-0.075196,-0.032521,-0.030770999999999996,-0.006658,,,,,,,,,,,,,,,,,,,,,,,,,,,,,,,,,,,0.0,0.0,32.0,0.028292,1.0,0.0,,,,,,,,,,,,,,,,,,,,,,,,,
3840,1645900029.389036,1645900029.412366,43.0,0.0,4289.230957,4660.512695,4082.0512700000004,4143.077147999999,4282.563965,0.0,1.0,15.0,,,,0.0,2.0,0.0,0.0,4.0,2.0,16.666666,,,,,,,,,,,,,,,,,,,,,,,,,,,,,,,,,,,,,,,,,,,,,,,,,,,,,,,,,,,,,,,,,,,,,,,,,,,,,,,,,,,,
3841,1645900029.39685,1645900029.420181,44.0,0.0,4245.641113000001,4525.641113000001,4052.3076170000004,4208.717772999999,4254.358886999999,0.0,1.0,15.0,,,,0.0,2.0,0.0,0.0,4.0,2.0,16.666666,,,,,,,,22.0,0.0,0.729217,0.158936,0.6606449999999999,0.08081100000000001,0.9433739999999999,-0.342779,-0.072755,-0.032589,-0.03077,-0.005211,,,,,,,,,,,,,,,,,,,,,,,,,,,,,,,,,,,,,,,,,,,,,,,,,,,,,,,,,,,,,,,,,
3842,1645900029.404662,1645900029.4279962,45.0,0.0,4274.871582,4505.128418,4119.487305,4186.666504,4216.922852000001,0.0,1.0,15.0,,,,0.0,2.0,0.0,0.0,4.0,2.0,16.666666,,,,,,,,,,,,,,,,,,,,,,,,,,,,,,,,,,,,,,,,,,,,,,,,,,,,,,,,,,,,,,,,,,,,,,,,,,,,,,,,,,,,
3843,1645900029.412476,1645900029.435811,46.0,0.0,4331.282227000001,4521.538574,4149.743652,4141.538574,4180.0,0.0,1.0,15.0,,,,0.0,2.0,0.0,0.0,4.0,2.0,16.666666,,,,,,,,23.0,0.0,0.729217,0.158936,0.6606449999999999,0.08081100000000001,0.9433739999999999,-0.34521999999999997,-0.07324299999999999,-0.032455,-0.030670999999999997,-0.007131,,,,,,,,,,,,,,,,,,,,,,,,,,,,,,,,,,,0.0,0.0,32.0,0.028292,1.0,0.0,,,,,,,,,,,,,,,,,,,,,,,,,
3844,1645900029.420289,1645900029.443526,47.0,0.0,4340.512695,4544.615234000001,4209.743652,4135.897461,4213.846191,0.0,1.0,15.0,,,,0.0,2.0,0.0,0.0,4.0,2.0,16.666666,,,,,,,,,,,,,,,,,,,,,,,,,,,,,,,,,,,,,,,,,,,,,,,,,,,,,,,,,,,,,,,,,,,,,,,,,,,,,,,,,,,,
3845,1645900029.428102,1645900029.45134,48.0,0.0,4322.563965,4665.128418,4231.794922,4115.384765999999,4265.128418,0.0,1.0,15.0,,,,0.0,2.0,0.0,0.0,4.0,2.0,16.666666,,,,,,,,24.0,0.0,0.729217,0.158936,0.6606449999999999,0.08081100000000001,0.9550930000000001,-0.337407,-0.070314,-0.032579000000000004,-0.030583,-0.005637,,,,,,,,,,,,,,,,,,,,,,,,,,,,,,,,,,,,,,,,,,,,,,,,,,,,,,,,,,,,,,,,,
3846,1645900029.435915,1645900029.459155,49.0,0.0,4326.666504,4727.692383,4104.615234000001,4117.94873,4233.846191,0.0,1.0,15.0,,,,0.0,2.0,0.0,0.0,4.0,2.0,16.666666,,,,,,,,,,,,,,,,,,,,,,,,,,,,,,,,,,,,,,,,,,,,,,,,,,,,,,,,,,,,,,,,,,,,,,,,,,,,,,,,,,,,
3847,1645900029.443728,1645900029.46697,50.0,0.0,4309.230957,4627.692383,4050.256348,4168.717772999999,4205.641113000001,0.0,1.0,15.0,,,,0.0,2.0,0.0,0.0,4.0,2.0,16.666666,,,,,,,,25.0,0.0,0.728996,0.158936,0.6608890000000001,0.08081100000000001,0.94435,-0.34375500000000003,-0.070802,-0.03269,-0.030454000000000002,-0.0074659999999999995,,,,,,,,,,,,,,,,,,,,,,,,,,,,,,,,,,,0.0,0.0,32.0,0.028292,1.0,0.0,,,,,,,,,,,,,,,,,,,,,,,,,
3848,1645900029.451541,1645900029.4747849,51.0,0.0,4295.384765999999,4579.487305,4177.436035,4165.128418,4248.717772999999,0.0,1.0,15.0,,,,0.0,2.0,0.0,0.0,4.0,2.0,16.666666,,,,,,,,,,,,,,,,,,,,,,,,,,,,,,,,,,,,,,,,,,,,,,,,,,,,,,,,,,,,,,,,,,,,,,,,,,,,,,,,,,,,
3849,1645900029.459354,1645900029.4826,52.0,0.0,4334.871582,4686.666504,4232.307617,4125.128418,4285.128418,0.0,1.0,15.0,,,,0.0,2.0,0.0,0.0,4.0,2.0,16.666666,,,,,,,,26.0,0.0,0.729049,0.158691,0.6608890000000001,0.08081100000000001,0.9365379999999999,-0.335943,-0.079591,-0.032839,-0.030534,-0.009063,,,,,,,,,,,,,,,,,,,,,,,,,,,,,,,,,,,,,,,,,,,,,,,,,,,,,,,,,,,,,,,,,
3850,1645900029.467167,1645900029.490415,53.0,0.0,4338.974121,4686.153809,4271.794922,4141.538574,4286.153809,0.0,1.0,15.0,,,,0.0,2.0,0.0,0.0,4.0,2.0,16.666666,,,,,,,,,,,,,,,,,,,,,,,,,,,,,,,,,,,,,,,,,,,,,,,,,,,,,,,,,,,,,,,,,,,,,,,,,,,,,,,,,,,,
3851,1645900029.47498,1645900029.49823,54.0,0.0,4298.461426,4525.641113000001,4350.256348,4168.717772999999,4301.538574,0.0,1.0,15.0,,,,0.0,2.0,0.0,0.0,4.0,2.0,16.666666,,,,,,,,27.0,0.0,0.729049,0.158691,0.6608890000000001,0.08081100000000001,0.951675,-0.333989,-0.069337,-0.032876,-0.030557,-0.0105,1.0,0.0,0.0,,,,,,,,,,,,,,,,,,,,,,,,,,,,,,,,0.0,0.0,32.0,0.029365,1.0,0.0,12.946994,10.16432,15.148520999999999,14.335555,7.700112,37.838566,57.814701,111.26076499999999,30.353679999999997,28.427196999999996,24.569952,98.065178,69.401054,148.177338,44.592228000000006,15.158036,10.052493,42.245762,13.117332999999999,5.949081,9.007398,9.66855,15.225595000000002,10.749279,5.392456
3852,1645900029.4827929,1645900029.5060449,55.0,0.0,4284.102539,4508.205078,4279.487305,4170.256348,4291.282227000001,0.0,1.0,15.0,,,,0.0,2.0,0.0,0.0,4.0,2.0,16.666666,,,,,,,,,,,,,,,,,,,,,,,,,,,,,,,,,,,,,,,,,,,,,,,,,,,,,,,,,,,,,,,,,,,,,,,,,,,,,,,,,,,,
3853,1645900029.490606,1645900029.513959,56.0,0.0,4314.358886999999,4597.436035,4082.0512700000004,4197.94873,4247.692383,0.0,1.0,15.0,,,,0.0,2.0,0.0,0.0,4.0,2.0,16.666666,,,,,,,,28.0,0.0,0.729049,0.158691,0.6608890000000001,0.08081100000000001,0.9585110000000001,-0.336431,-0.07715,-0.032957,-0.03048,-0.011793999999999999,,,,,,,,,,,,,,,,,,,,,,,,,,,,,,,,,,,,,,,,,,,,,,,,,,,,,,,,,,,,,,,,,
3854,1645900029.498419,1645900029.521774,57.0,0.0,4353.333496,4609.743652,4144.102539,4200.512695,4210.769043,0.0,1.0,15.0,,,,0.0,2.0,0.0,0.0,4.0,2.0,16.666666,,,,,,,,,,,,,,,,,,,,,,,,,,,,,,,,,,,,,,,,,,,,,,,,,,,,,,,,,,,,,,,,,,,,,,,,,,,,,,,,,,,,
3855,1645900029.506233,1645900029.529689,58.0,0.0,4382.563965,4632.820313,4312.307617,4132.307617,4255.897461,0.0,1.0,15.0,,,,0.0,2.0,0.0,0.0,4.0,2.0,16.666666,,,,,,,,29.0,0.0,0.729102,0.158447,0.6608890000000001,0.08081100000000001,0.9487450000000001,-0.338384,-0.076173,-0.032982,-0.030606,-0.01291,,,,,,,,,,,,,,,,,,,,,,,,,,,,,,,,,,,0.0,0.0,32.0,0.029365,1.0,0.0,,,,,,,,,,,,,,,,,,,,,,,,,
3856,1645900029.5140462,1645900029.537504,59.0,0.0,4365.641113000001,4719.487305,4264.102539,4068.205078,4341.025879,0.0,1.0,15.0,,,,0.0,2.0,0.0,0.0,4.0,2.0,16.666666,,,,,,,,,,,,,,,,,,,,,,,,,,,,,,,,,,,,,,,,,,,,,,,,,,,,,,,,,,,,,,,,,,,,,,,,,,,,,,,,,,,,
3857,1645900029.521859,1645900029.5453188,60.0,0.0,4325.641113000001,4697.94873,4044.102539,4125.128418,4340.512695,0.0,1.0,15.0,,,,0.0,2.0,0.0,0.0,4.0,2.0,16.666666,,,,,,,,30.0,0.0,0.729049,0.158691,0.6608890000000001,0.08081100000000001,0.9487450000000001,-0.352056,-0.078614,-0.033053,-0.030621,-0.01406,,,,,,,,,,,,,,,,,,,,,,,,,,,,,,,,,,,,,,,,,,,,,,,,,,,,,,,,,,,,,,,,,
3858,1645900029.5296721,1645900029.553134,61.0,0.0,4280.0,4548.205078,4029.743652,4224.102539,4253.333496,0.0,1.0,15.0,,,,0.0,2.0,0.0,0.0,4.0,2.0,16.666666,,,,,,,,,,,,,,,,,,,,,,,,,,,,,,,,,,,,,,,,,,,,,,,,,,,,,,,,,,,,,,,,,,,,,,,,,,,,,,,,,,,,
3859,1645900029.537485,1645900029.560949,62.0,0.0,4301.025879,4517.94873,4208.717772999999,4227.179688,4236.922852000001,0.0,1.0,15.0,,,,0.0,2.0,0.0,0.0,4.0,2.0,16.666666,,,,,,,,31.0,0.0,0.728881,0.158447,0.661133,0.08081100000000001,0.939467,-0.33789600000000003,-0.073732,-0.033068,-0.030586000000000002,-0.011873,,,,,,,,,,,,,,,,,,,,,,,,,,,,,,,,,,,0.0,0.0,32.0,0.029365,1.0,0.0,,,,,,,,,,,,,,,,,,,,,,,,,
3860,1645900029.545298,1645900029.568764,63.0,0.0,4364.615234000001,4622.05127,4242.05127,4149.743652,4262.563965,0.0,1.0,15.0,,,,0.0,2.0,0.0,0.0,4.0,2.0,16.666666,,,,,,,,,,,,,,,,,,,,,,,,,,,,,,,,,,,,,,,,,,,,,,,,,,,,,,,,,,,,,,,,,,,,,,,,,,,,,,,,,,,,
3861,1645900029.5531108,1645900029.576578,64.0,0.0,4355.897461,4686.153809,4110.769043,4117.94873,4247.179688,450.0,1.0,15.0,,,,0.0,2.0,0.0,0.0,4.0,2.0,16.666666,,,,,,,,32.0,0.0,0.729049,0.158691,0.6608890000000001,0.08081100000000001,0.936049,-0.355962,-0.083986,-0.032935,-0.030458,-0.013127000000000002,,,,,,,,,,,,,,,,,,,,,,,,,,,,,,,,,,,,,,,,,,,,,,,,,,,,,,,,,,,,,,,,,
3862,1645900029.560924,1645900029.584393,65.0,0.0,4298.461426,4707.179688,4082.0512700000004,4116.410156,4243.589844,450.0,1.0,15.0,,,,0.0,2.0,0.0,0.0,4.0,2.0,16.666666,,,,,,,,,,,,,,,,,,,,,,,,,,,,,,,,,,,,,,,,,,,,,,,,,,,,,,,,,,,,,,,,,,,,,,,,,,,,,,,,,,,,
3863,1645900029.568737,1645900029.592308,66.0,0.0,4318.461426,4722.05127,4120.512695,4097.436035,4258.461426,324.0,1.0,15.0,,,,0.0,2.0,1.0,1.0,4.0,4.0,33.333332,,,,,,,,33.0,0.0,0.7290760000000001,0.158691,0.6608890000000001,0.080566,0.94435,-0.34668499999999997,-0.063966,-0.032913,-0.030488,-0.014158,,,,,,,,,,,,,,,,,,,,,,,,,,,,,,,,,,,0.0,0.0,32.0,0.029365,1.0,0.0,,,,,,,,,,,,,,,,,,,,,,,,,
3864,1645900029.57655,1645900029.600123,67.0,0.0,4351.794922,4651.794922,4105.128418,4118.461426,4239.487305,450.0,1.0,15.0,,,,0.0,2.0,1.0,1.0,4.0,4.0,33.333332,,,,,,,,,,,,,,,,,,,,,,,,,,,,,,,,,,,,,,,,,,,,,,,,,,,,,,,,,,,,,,,,,,,,,,,,,,,,,,,,,,,,
3865,1645900029.584363,1645900029.607938,68.0,0.0,4307.179688,4535.897461,4192.307617,4171.282227000001,4230.256348,69.0,1.0,15.0,,,,0.0,2.0,1.0,1.0,4.0,4.0,33.333332,,,,,,,,34.0,0.0,0.7290760000000001,0.158691,0.6608890000000001,0.080566,0.939467,-0.326665,-0.07715,-0.032844,-0.030467,-0.01201,,,,,,,,,,,,,,,,,,,,,,,,,,,,,,,,,,,,,,,,,,,,,,,,,,,,,,,,,,,,,,,,,
3866,1645900029.592177,1645900029.615753,69.0,0.0,4267.692383,4555.897461,4270.256348,4171.794922,4258.974121,450.0,1.0,15.0,,,,0.0,2.0,1.0,1.0,4.0,4.0,33.333332,,,,,,,,,,,,,,,,,,,,,,,,,,,,,,,,,,,,,,,,,,,,,,,,,,,,,,,,,,,,,,,,,,,,,,,,,,,,,,,,,,,,
3867,1645900029.5999901,1645900029.623568,70.0,0.0,4272.820313,4654.871582,4204.615234000001,4147.179688,4247.692383,66.0,1.0,15.0,,,,0.0,2.0,1.0,1.0,4.0,4.0,33.333332,,,,,,,,35.0,0.0,0.7290760000000001,0.158691,0.6608890000000001,0.080566,0.96144,-0.34375500000000003,-0.089357,-0.032783,-0.030594,-0.009979,1.0,0.0,0.0,,,,,,,,,,,,,,,,,,,,,,,,,,,,,,,,0.0,0.0,32.0,0.028455,1.0,0.0,10.547217999999999,8.830599000000001,17.181219,15.425969,6.511092,29.929578999999997,54.820366,127.797646,25.312216,24.951162,22.9396,95.07399699999999,65.418472,171.550476,35.916283,15.071401000000002,10.595222,48.636371999999994,10.895219,5.518528,7.299067999999999,8.485202000000001,20.321714,10.191751,4.582261
3868,1645900029.6078029,1645900029.631383,71.0,0.0,4296.922852000001,4614.871582,4116.410156,4203.589844,4215.897461,450.0,1.0,15.0,,,,0.0,2.0,1.0,1.0,4.0,4.0,33.333332,,,,,,,,,,,,,,,,,,,,,,,,,,,,,,,,,,,,,,,,,,,,,,,,,,,,,,,,,,,,,,,,,,,,,,,,,,,,,,,,,,,,
3869,1645900029.615616,1645900029.639197,72.0,0.0,4327.692383,4510.256348,4224.102539,4236.922852000001,4205.641113000001,450.0,1.0,15.0,,,,0.0,2.0,1.0,1.0,4.0,4.0,33.333332,,,,,,,,36.0,0.0,0.729023,0.158936,0.6608890000000001,0.080566,0.941421,-0.346197,-0.083009,-0.032727,-0.030708,-0.011325,,,,,,,,,,,,,,,,,,,,,,,,,,,,,,,,,,,,,,,,,,,,,,,,,,,,,,,,,,,,,,,,,
3870,1645900029.6234288,1645900029.647012,73.0,0.0,4423.589844,4585.641113000001,4311.794922,4154.871582,4287.179688,302.0,1.0,15.0,,,,0.0,2.0,1.0,1.0,4.0,4.0,33.333332,,,,,,,,,,,,,,,,,,,,,,,,,,,,,,,,,,,,,,,,,,,,,,,,,,,,,,,,,,,,,,,,,,,,,,,,,,,,,,,,,,,,
3871,1645900029.631242,1645900029.6548269,74.0,0.0,4543.589844,4742.563965,4250.769043,4105.128418,4402.05127,450.0,1.0,15.0,,,,0.0,2.0,1.0,1.0,4.0,4.0,33.333332,,,,,,,,37.0,0.0,0.72897,0.15918,0.6608890000000001,0.080566,0.953628,-0.332525,-0.07715,-0.032775,-0.030664999999999998,-0.009509,,,,,,,,,,,,,,,,,,,,,,,,,,,,,,,,,,,0.0,0.0,32.0,0.028455,1.0,0.0,,,,,,,,,,,,,,,,,,,,,,,,,
3872,1645900029.639055,1645900029.662642,75.0,0.0,4636.410156,4708.717772999999,4185.641113000001,4191.794922,4434.871582,16119.0,1.0,15.0,,,,0.0,2.0,1.0,1.0,4.0,4.0,33.333332,,,,,,,,,,,,,,,,,,,,,,,,,,,,,,,,,,,,,,,,,,,,,,,,,,,,,,,,,,,,,,,,,,,,,,,,,,,,,,,,,,,,
3873,1645900029.646868,1645900029.670357,76.0,0.0,4700.512695,4629.230957,4148.205078,4239.487305,4439.487305,450.0,1.0,15.0,,,,0.0,2.0,1.0,1.0,4.0,4.0,33.333332,,,,,,,,38.0,0.0,0.72897,0.15918,0.6608890000000001,0.080566,0.940932,-0.32861799999999997,-0.083009,-0.03272,-0.030626,-0.01095,,,,,,,,,,,,,,,,,,,,,,,,,,,,,,,,,,,,,,,,,,,,,,,,,,,,,,,,,,,,,,,,,
3874,1645900029.654681,1645900029.678172,77.0,0.0,4782.563965,4701.025879,4061.025635,4195.897461,4515.384765999999,450.0,1.0,15.0,,,,0.0,2.0,1.0,1.0,4.0,4.0,33.333332,,,,,,,,,,,,,,,,,,,,,,,,,,,,,,,,,,,,,,,,,,,,,,,,,,,,,,,,,,,,,,,,,,,,,,,,,,,,,,,,,,,,
3875,1645900029.662494,1645900029.686087,78.0,0.0,4839.487305,4721.538574,4087.6923829999996,4178.974121,4563.077147999999,450.0,1.0,15.0,,,,0.0,2.0,1.0,1.0,4.0,4.0,33.333332,,,,,,,,39.0,0.0,0.728889,0.159424,0.6608890000000001,0.08081100000000001,0.9506979999999999,-0.34473200000000004,-0.072755,-0.032622000000000005,-0.030639,-0.009025,,,,,,,,,,,,,,,,,,,,,,,,,,,,,,,,,,,0.0,0.0,32.0,0.028455,1.0,0.0,,,,,,,,,,,,,,,,,,,,,,,,,
3876,1645900029.670307,1645900029.693902,79.0,0.0,4838.461426,4667.179688,4177.436035,4182.563965,4576.922852000001,16119.0,1.0,15.0,,,,0.0,2.0,1.0,1.0,4.0,4.0,33.333332,,,,,,,,,,,,,,,,,,,,,,,,,,,,,,,,,,,,,,,,,,,,,,,,,,,,,,,,,,,,,,,,,,,,,,,,,,,,,,,,,,,,
3877,1645900029.67812,1645900029.701716,80.0,0.0,4842.05127,4718.974121,4205.641113000001,4130.769043,4627.692383,450.0,1.0,15.0,,,,0.0,2.0,1.0,1.0,4.0,4.0,33.333332,,,,,,,,40.0,0.0,0.729057,0.159668,0.6606449999999999,0.08081100000000001,0.945815,-0.340337,-0.079591,-0.032582,-0.030652,-0.010564,,,,,,,,,,,,,,,,,,,,,,,,,,,,,,,,,,,,,,,,,,,,,,,,,,,,,,,,,,,,,,,,,
3878,1645900029.685933,1645900029.709531,81.0,0.0,4852.820313,4749.743652,4190.256348,4117.94873,4651.282227000001,450.0,1.0,15.0,,,,0.0,2.0,1.0,1.0,4.0,4.0,33.333332,,,,,,,,,,,,,,,,,,,,,,,,,,,,,,,,,,,,,,,,,,,,,,,,,,,,,,,,,,,,,,,,,,,,,,,,,,,,,,,,,,,,
3879,1645900029.693746,1645900029.7173462,82.0,0.0,4840.512695,4674.358886999999,4150.256348,4143.589844,4648.717772999999,450.0,1.0,15.0,,,,0.0,2.0,1.0,1.0,4.0,4.0,33.333332,,,,,,,,41.0,0.0,0.7289770000000001,0.159912,0.6606449999999999,0.081055,0.9428850000000001,-0.33984899999999996,-0.06347799999999999,-0.032645,-0.030614,-0.0119,,,,,,,,,,,,,,,,,,,,,,,,,,,,,,,,,,,0.0,0.0,32.0,0.028455,1.0,0.0,,,,,,,,,,,,,,,,,,,,,,,,,
3880,1645900029.70156,1645900029.7251608,83.0,0.0,4836.922852000001,4650.256348,4136.410156,4126.666504,4658.461426,16119.0,1.0,15.0,,,,0.0,2.0,1.0,1.0,4.0,4.0,33.333332,,,,,,,,,,,,,,,,,,,,,,,,,,,,,,,,,,,,,,,,,,,,,,,,,,,,,,,,,,,,,,,,,,,,,,,,,,,,,,,,,,,,
3881,1645900029.709373,1645900029.732976,84.0,0.0,4882.05127,4673.846191,4157.94873,4145.641113000001,4657.94873,450.0,1.0,15.0,,,,0.0,2.0,1.0,1.0,4.0,4.0,33.333332,,,,,,,,42.0,0.0,0.728896,0.160156,0.6606449999999999,0.081299,0.953628,-0.34521999999999997,-0.07422000000000001,-0.032749,-0.030629000000000003,-0.013103,,,,,,,,,,,,,,,,,,,,,,,,,,,,,,,,,,,,,,,,,,,,,,,,,,,,,,,,,,,,,,,,,
3882,1645900029.717186,1645900029.740791,85.0,0.0,4936.922852000001,4679.487305,4166.666504,4223.589844,4667.692383,450.0,1.0,15.0,,,,0.0,2.0,1.0,1.0,4.0,4.0,33.333332,,,,,,,,,,,,,,,,,,,,,,,,,,,,,,,,,,,,,,,,,,,,,,,,,,,,,,,,,,,,,,,,,,,,,,,,,,,,,,,,,,,,
3883,1645900029.724999,1645900029.748506,86.0,0.0,4931.282227000001,4702.05127,4175.897461,4226.666504,4670.256348,450.0,1.0,15.0,,,,0.0,2.0,1.0,1.0,4.0,4.0,33.333332,1.0,16.666666,2.0,0.0,0.0,2.0,2.0,43.0,0.0,0.728788,0.160645,0.6606449999999999,0.081299,0.937514,-0.350103,-0.075196,-0.032648,-0.030447000000000002,-0.014039,1.0,0.0,0.0,,,,,,,,,,,,,,,,,,,,,,,,,,,,,,,,0.0,0.0,32.0,0.253184,1.0,0.0,8.735862,7.145728999999999,18.100507999999998,16.497372,5.607444,23.426514,48.813190000000006,133.07560700000002,24.671928,22.152658,23.528791000000002,83.71498100000001,59.102309999999996,186.415085,31.271666999999997,14.518332000000001,10.690757000000001,50.877528999999996,9.531557000000001,5.369948,5.862407,7.634025,25.249985000000002,9.526571,3.930134
3884,1645900029.732812,1645900029.7563212,87.0,0.0,4909.230957,4726.666504,4244.102539,4160.0,4644.615234000001,16119.0,1.0,15.0,,,,0.0,2.0,1.0,1.0,4.0,4.0,33.333332,,,,,,,,,,,,,,,,,,,,,,,,,,,,,,,,,,,,,,,,,,,,,,,,,,,,,,,,,,,,,,,,,,,,,,,,,,,,,,,,,,,,
3885,1645900029.740625,1645900029.7641358,88.0,0.0,4962.563965,4699.487305,4193.846191,4176.410156,4662.563965,450.0,1.0,15.0,,,,0.0,2.0,1.0,1.0,4.0,4.0,33.333332,,,,,,,,44.0,0.0,0.728982,0.160645,0.6604,0.08154299999999999,0.938003,-0.341314,-0.09033300000000001,-0.032655,-0.030381000000000002,-0.015075999999999999,,,,,,,,,,,,,,,,,,,,,,,,,,,,,,,,,,,,,,,,,,,,,,,,,,,,,,,,,,,,,,,,,
3886,1645900029.7484381,1645900029.771951,89.0,0.0,4993.846191,4649.743652,4187.692383,4180.0,4658.974121,450.0,1.0,15.0,,,,0.0,2.0,1.0,1.0,4.0,4.0,33.333332,,,,,,,,,,,,,,,,,,,,,,,,,,,,,,,,,,,,,,,,,,,,,,,,,,,,,,,,,,,,,,,,,,,,,,,,,,,,,,,,,,,,
3887,1645900029.7562509,1645900029.7797651,90.0,0.0,4938.974121,4599.487305,4193.333496,4151.794922,4614.871582,450.0,1.0,15.0,,,,0.0,2.0,1.0,1.0,4.0,4.0,33.333332,,,,,,,,45.0,0.0,0.728929,0.160889,0.6604,0.08154299999999999,0.949233,-0.347173,-0.08691499999999999,-0.032758999999999996,-0.030418999999999998,-0.015864,,,,,,,,,,,,,,,,,,,,,,,,,,,,,,,,,,,0.0,0.0,32.0,0.253184,1.0,0.0,,,,,,,,,,,,,,,,,,,,,,,,,
3888,1645900029.764064,1645900029.78758,91.0,0.0,4932.820313,4650.256348,4137.94873,4126.666504,4602.563965,16119.0,1.0,15.0,,,,0.0,2.0,1.0,1.0,4.0,4.0,33.333332,,,,,,,,,,,,,,,,,,,,,,,,,,,,,,,,,,,,,,,,,,,,,,,,,,,,,,,,,,,,,,,,,,,,,,,,,,,,,,,,,,,,
3889,1645900029.771877,1645900029.795395,92.0,0.0,4996.922852000001,4794.871582,4132.307617,4095.384521,4635.897461,450.0,1.0,15.0,,,,0.0,2.0,1.0,1.0,4.0,4.0,33.333332,,,,,,,,46.0,0.0,0.728929,0.160889,0.6604,0.08154299999999999,0.9399559999999999,-0.356451,-0.09131,-0.032754000000000005,-0.030404,-0.013594,,,,,,,,,,,,,,,,,,,,,,,,,,,,,,,,,,,,,,,,,,,,,,,,,,,,,,,,,,,,,,,,,
3890,1645900029.77969,1645900029.80321,93.0,0.0,4975.384765999999,4834.871582,4174.871582,4090.7692869999996,4643.589844,450.0,1.0,15.0,,,,0.0,2.0,1.0,1.0,4.0,4.0,33.333332,,,,,,,,,,,,,,,,,,,,,,,,,,,,,,,,,,,,,,,,,,,,,,,,,,,,,,,,,,,,,,,,,,,,,,,,,,,,,,,,,,,,
3891,1645900029.787504,1645900029.811025,94.0,0.0,4910.769043,4745.128418,4149.230957,4131.794922,4621.025879,450.0,1.0,15.0,,,,0.0,2.0,1.0,1.0,4.0,4.0,33.333332,,,,,,,,47.0,0.0,0.728875,0.161133,0.6604,0.08154299999999999,0.94435,-0.354009,-0.084962,-0.03275,-0.030391,-0.014627000000000001,,,,,,,,,,,,,,,,,,,,,,,,,,,,,,,,,,,10.0,0.0,32.0,0.253184,1.0,0.0,,,,,,,,,,,,,,,,,,,,,,,,,
3892,1645900029.795317,1645900029.81894,95.0,0.0,4866.666504,4717.94873,4120.0,4130.256348,4569.230957,16119.0,1.0,15.0,,,,0.0,2.0,1.0,1.0,4.0,4.0,33.333332,,,,,,,,,,,,,,,,,,,,,,,,,,,,,,,,,,,,,,,,,,,,,,,,,,,,,,,,,,,,,,,,,,,,,,,,,,,,,,,,,,,,
3893,1645900029.8031301,1645900029.826755,96.0,0.0,4813.333496,4785.128418,4149.230957,4082.0512700000004,4550.256348,450.0,1.0,15.0,,,,0.0,2.0,1.0,1.0,4.0,4.0,33.333332,,,,,,,,48.0,0.0,0.728929,0.160889,0.6604,0.08154299999999999,0.949233,-0.347173,-0.08691499999999999,-0.032649,-0.030331,-0.012431999999999999,,,,,,,,,,,,,,,,,,,,,,,,,,,,,,,,,,,,,,,,,,,,,,,,,,,,,,,,,,,,,,,,,
3894,1645900029.810943,1645900029.83457,97.0,0.0,4743.589844,4755.384765999999,4126.153809,4091.281982,4557.436035,450.0,1.0,15.0,,,,0.0,2.0,1.0,1.0,4.0,4.0,33.333332,,,,,,,,,,,,,,,,,,,,,,,,,,,,,,,,,,,,,,,,,,,,,,,,,,,,,,,,,,,,,,,,,,,,,,,,,,,,,,,,,,,,
3895,1645900029.818756,1645900029.842384,98.0,0.0,4727.179688,4683.589844,4075.384521,4116.922852000001,4540.0,450.0,1.0,15.0,,,,0.0,2.0,1.0,1.0,4.0,4.0,33.333332,,,,,,,,49.0,0.0,0.728875,0.161133,0.6604,0.08154299999999999,0.94435,-0.354009,-0.084962,-0.032656,-0.030325,-0.013581000000000001,,,,,,,,,,,,,,,,,,,,,,,,,,,,,,,,,,,10.0,0.0,32.0,0.253184,1.0,0.0,,,,,,,,,,,,,,,,,,,,,,,,,
3896,1645900029.8265688,1645900029.850199,99.0,0.0,4748.205078,4727.179688,4094.358887,4110.769043,4532.820313,16119.0,1.0,15.0,,,,0.0,2.0,1.0,1.0,4.0,4.0,33.333332,,,,,,,,,,,,,,,,,,,,,,,,,,,,,,,,,,,,,,,,,,,,,,,,,,,,,,,,,,,,,,,,,,,,,,,,,,,,,,,,,,,,
3897,1645900029.834382,1645900029.858014,100.0,0.0,4734.358886999999,4764.102539,4136.922852000001,4092.820557,4553.333496,450.0,1.0,15.0,,,,0.0,2.0,1.0,1.0,4.0,4.0,33.333332,,,,,,,,50.0,0.0,0.728875,0.161133,0.6604,0.08154299999999999,0.9521629999999999,-0.345708,-0.078126,-0.032563999999999996,-0.030271,-0.014469,,,,,,,,,,,,,,,,,,,,,,,,,,,,,,,,,,,,,,,,,,,,,,,,,,,,,,,,,,,,,,,,,
3898,1645900029.842195,1645900029.865829,101.0,0.0,4690.769043,4737.94873,4152.820313,4062.0512700000004,4571.282227000001,450.0,1.0,15.0,,,,0.0,2.0,1.0,1.0,4.0,4.0,33.333332,,,,,,,,,,,,,,,,,,,,,,,,,,,,,,,,,,,,,,,,,,,,,,,,,,,,,,,,,,,,,,,,,,,,,,,,,,,,,,,,,,,,
3899,1645900029.850008,1645900029.8736439,102.0,0.0,4668.205078,4755.384765999999,4221.538574,4062.0512700000004,4553.333496,450.0,1.0,15.0,,,,0.0,2.0,1.0,1.0,4.0,4.0,33.333332,,,,,,,,51.0,0.0,0.728653,0.161133,0.6606449999999999,0.08154299999999999,0.9546040000000001,-0.345708,-0.072267,-0.032775,-0.030369,-0.01522,1.0,0.0,0.0,,,,,,,,,,,,,,,,,,,,,,,,,,,,,,,,10.0,0.0,32.0,0.345554,1.0,0.0,10.236949000000001,6.118401,18.14817,17.51125,5.027397000000001,19.910494,42.074669,127.602577,29.033936999999998,20.113167,27.538189000000003,67.27409399999999,51.746037,190.973724,28.603233000000003,13.607596,10.31673,48.735973,9.772642999999999,5.470354,6.469955000000001,7.056757000000001,29.104822,9.297989,3.525579
3900,1645900029.857821,1645900029.881459,103.0,0.0,4673.846191,4797.436035,4244.615234000001,4070.256348,4537.436035,16119.0,1.0,15.0,,,,0.0,2.0,1.0,1.0,4.0,4.0,33.333332,,,,,,,,,,,,,,,,,,,,,,,,,,,,,,,,,,,,,,,,,,,,,,,,,,,,,,,,,,,,,,,,,,,,,,,,,,,,,,,,,,,,
3901,1645900029.865634,1645900029.889374,104.0,0.0,4624.102539,4741.025879,4184.615234000001,4051.281982,4517.94873,450.0,1.0,15.0,,,,0.0,2.0,1.0,1.0,4.0,4.0,33.333332,,,,,,,,52.0,0.0,0.728707,0.160889,0.6606449999999999,0.08154299999999999,0.9585110000000001,-0.34912600000000005,-0.080568,-0.03272,-0.030311,-0.012916,,,,,,,,,,,,,,,,,,,,,,,,,,,,,,,,,,,,,,,,,,,,,,,,,,,,,,,,,,,,,,,,,
3902,1645900029.8734472,1645900029.8971882,105.0,0.0,4595.897461,4689.743652,4121.538574,4045.641113,4493.846191,450.0,1.0,15.0,,,,0.0,2.0,1.0,1.0,4.0,4.0,33.333332,,,,,,,,,,,,,,,,,,,,,,,,,,,,,,,,,,,,,,,,,,,,,,,,,,,,,,,,,,,,,,,,,,,,,,,,,,,,,,,,,,,,
3903,1645900029.8812609,1645900029.9050028,106.0,0.0,4620.0,4763.589844,4123.077147999999,4044.102539,4500.512695,450.0,1.0,15.0,,,,0.0,2.0,1.0,1.0,4.0,4.0,33.333332,,,,,,,,53.0,0.0,0.728653,0.161133,0.6606449999999999,0.08154299999999999,0.9365379999999999,-0.357427,-0.079591,-0.032719,-0.030307,-0.014016999999999998,,,,,,,,,,,,,,,,,,,,,,,,,,,,,,,,,,,10.0,0.0,32.0,0.345554,1.0,0.0,,,,,,,,,,,,,,,,,,,,,,,,,
3904,1645900029.8890731,1645900029.912818,107.0,0.0,4589.230957,4815.897461,4062.0512700000004,4061.538574,4511.794922,16119.0,1.0,15.0,,,,0.0,2.0,1.0,1.0,4.0,4.0,33.333332,,,,,,,,,,,,,,,,,,,,,,,,,,,,,,,,,,,,,,,,,,,,,,,,,,,,,,,,,,,,,,,,,,,,,,,,,,,,,,,,,,,,
3905,1645900029.8968868,1645900029.920633,108.0,0.0,4522.563965,4695.384765999999,4076.4101560000004,4076.923096,4449.743652,450.0,1.0,15.0,,,,0.0,2.0,1.0,1.0,4.0,4.0,33.333332,,,,,,,,54.0,0.0,0.728707,0.160889,0.6606449999999999,0.08154299999999999,0.933608,-0.352056,-0.082521,-0.032914,-0.030400999999999997,-0.014813,,,,,,,,,,,,,,,,,,,,,,,,,,,,,,,,,,,,,,,,,,,,,,,,,,,,,,,,,,,,,,,,,
3906,1645900029.9047,1645900029.928448,109.0,0.0,4524.102539,4574.358886999999,4130.769043,4078.461426,4417.94873,450.0,1.0,15.0,,,,0.0,2.0,1.0,1.0,4.0,4.0,33.333332,,,,,,,,,,,,,,,,,,,,,,,,,,,,,,,,,,,,,,,,,,,,,,,,,,,,,,,,,,,,,,,,,,,,,,,,,,,,,,,,,,,,
3907,1645900029.912513,1645900029.936263,110.0,0.0,4487.179688,4626.666504,4153.333496,4045.641113,4471.282227000001,450.0,1.0,15.0,,,,0.0,2.0,1.0,1.0,4.0,4.0,33.333332,,,,,,,,55.0,0.0,0.728707,0.160889,0.6606449999999999,0.08154299999999999,0.941909,-0.353033,-0.076661,-0.032846,-0.030535000000000003,-0.015773,,,,,,,,,,,,,,,,,,,,,,,,,,,,,,,,,,,10.0,0.0,32.0,0.345554,1.0,0.0,,,,,,,,,,,,,,,,,,,,,,,,,
3908,1645900029.920326,1645900029.944078,111.0,0.0,4388.717772999999,4651.794922,4125.641113000001,4028.205078,4433.333496,16119.0,1.0,15.0,,,,0.0,2.0,1.0,1.0,4.0,4.0,33.333332,,,,,,,,,,,,,,,,,,,,,,,,,,,,,,,,,,,,,,,,,,,,,,,,,,,,,,,,,,,,,,,,,,,,,,,,,,,,,,,,,,,,
3909,1645900029.928139,1645900029.9518929,112.0,0.0,4338.461426,4523.077147999999,4173.846191,4039.487061,4297.436035,450.0,1.0,15.0,,,,0.0,2.0,1.0,1.0,4.0,4.0,33.333332,,,,,,,,56.0,0.0,0.728735,0.160889,0.6606449999999999,0.081299,0.9433739999999999,-0.348638,-0.083986,-0.032881,-0.030607,-0.013366,,,,,,,,,,,,,,,,,,,,,,,,,,,,,,,,,,,,,,,,,,,,,,,,,,,,,,,,,,,,,,,,,
3910,1645900029.935952,1645900029.959807,113.0,0.0,4329.230957,4434.358886999999,4267.692383,4070.7692869999996,4272.820313,450.0,1.0,15.0,,,,0.0,2.0,1.0,1.0,4.0,4.0,33.333332,,,,,,,,,,,,,,,,,,,,,,,,,,,,,,,,,,,,,,,,,,,,,,,,,,,,,,,,,,,,,,,,,,,,,,,,,,,,,,,,,,,,
3911,1645900029.943765,1645900029.967622,114.0,0.0,4271.794922,4478.461426,4268.205078,4107.692383,4297.94873,450.0,1.0,15.0,,,,0.0,2.0,1.0,1.0,4.0,4.0,33.333332,,,,,,,,57.0,0.0,0.728762,0.160889,0.6606449999999999,0.081055,0.938491,-0.361822,-0.07910299999999999,-0.032865,-0.030622000000000003,-0.014421999999999999,,,,,,,,,,,,,,,,,,,,,,,,,,,,,,,,,,,0.0,0.0,32.0,0.345554,1.0,0.0,,,,,,,,,,,,,,,,,,,,,,,,,
3912,1645900029.951578,1645900029.975437,115.0,0.0,4180.0,4485.641113000001,4268.717772999999,4098.461426,4222.563965,16119.0,1.0,15.0,,,,0.0,2.0,1.0,1.0,4.0,4.0,33.333332,,,,,,,,,,,,,,,,,,,,,,,,,,,,,,,,,,,,,,,,,,,,,,,,,,,,,,,,,,,,,,,,,,,,,,,,,,,,,,,,,,,,
3913,1645900029.959391,1645900029.983252,116.0,0.0,4109.230957,4477.436035,4289.743652,4068.718018,4155.384765999999,450.0,1.0,15.0,,,,0.0,2.0,1.0,1.0,4.0,4.0,33.333332,,,,,,,,58.0,0.0,0.728789,0.160889,0.6606449999999999,0.08081100000000001,0.944839,-0.36914600000000003,-0.073732,-0.032751999999999996,-0.030733999999999997,-0.012198,,,,,,,,,,,,,,,,,,,,,,,,,,,,,,,,,,,,,,,,,,,,,,,,,,,,,,,,,,,,,,,,,
3914,1645900029.9672039,1645900029.991067,117.0,0.0,4068.718018,4510.769043,4265.641113000001,4072.3076170000004,4153.846191,450.0,1.0,15.0,,,,0.0,2.0,1.0,1.0,4.0,4.0,33.333332,,,,,,,,,,,,,,,,,,,,,,,,,,,,,,,,,,,,,,,,,,,,,,,,,,,,,,,,,,,,,,,,,,,,,,,,,,,,,,,,,,,,
3915,1645900029.975017,1645900029.998882,118.0,0.0,4075.897461,4570.769043,4209.743652,4056.923096,4143.077147999999,450.0,1.0,15.0,,,,0.0,2.0,1.0,1.0,4.0,4.0,33.333332,,,,,,,,59.0,0.0,0.728789,0.160889,0.6606449999999999,0.08081100000000001,0.9511860000000001,-0.34815,-0.072267,-0.032846,-0.030639,-0.013322,1.0,0.0,0.0,,,,,,,,,,,,,,,,,,,,,,,,,,,,,,,,0.0,0.0,32.0,0.28534699999999996,1.0,0.0,19.268677,8.022491,18.127674,18.294872,4.742929,19.234614999999998,36.669113,115.223221,37.403728,18.890366,35.174671000000004,50.259762,44.560081,185.935806,27.124138000000002,12.428036,9.576088,43.367069,11.768999,5.786301,12.808518,6.912622,31.094403999999997,9.862249,3.4354519999999997
3916,1645900029.98283,1645900030.0066972,119.0,0.0,4065.1281740000004,4556.922852000001,4312.820313,4015.897461,4117.436035,16119.0,1.0,15.0,,,,0.0,2.0,1.0,1.0,4.0,4.0,33.333332,,,,,,,,,,,,,,,,,,,,,,,,,,,,,,,,,,,,,,,,,,,,,,,,,,,,,,,,,,,,,,,,,,,,,,,,,,,,,,,,,,,,
3917,1645900029.990644,1645900030.0145118,120.0,0.0,4069.2307130000004,4530.256348,4293.333496,4040.0,4134.871582,450.0,1.0,15.0,,,,0.0,2.0,1.0,1.0,4.0,4.0,33.333332,,,,,,,,60.0,0.0,0.728789,0.160889,0.6606449999999999,0.08081100000000001,0.951675,-0.334478,-0.078126,-0.032784,-0.030650999999999998,-0.011209,,,,,,,,,,,,,,,,,,,,,,,,,,,,,,,,,,,,,,,,,,,,,,,,,,,,,,,,,,,,,,,,,
3918,1645900029.998457,1645900030.022327,121.0,0.0,4061.025635,4613.333496,4200.0,4075.384521,4151.794922,450.0,1.0,15.0,,,,0.0,2.0,1.0,1.0,4.0,4.0,33.333332,,,,,,,,,,,,,,,,,,,,,,,,,,,,,,,,,,,,,,,,,,,,,,,,,,,,,,,,,,,,,,,,,,,,,,,,,,,,,,,,,,,,
3919,1645900030.00627,1645900030.030141,122.0,0.0,4045.1281740000004,4627.692383,4272.307617,4103.077147999999,4123.589844,450.0,1.0,15.0,,,,0.0,2.0,1.0,1.0,4.0,4.0,33.333332,,,,,,,,61.0,0.0,0.728843,0.160645,0.6606449999999999,0.08081100000000001,0.951675,-0.331548,-0.06836,-0.03268,-0.030565,-0.009209,,,,,,,,,,,,,,,,,,,,,,,,,,,,,,,,,,,0.0,0.0,32.0,0.28534699999999996,1.0,0.0,,,,,,,,,,,,,,,,,,,,,,,,,
3920,1645900030.014083,1645900030.037856,123.0,0.0,4064.615479,4545.128418,4362.563965,4118.974121,4082.5642090000006,16119.0,1.0,15.0,,,,0.0,4.0,1.0,1.0,4.0,4.0,50.0,,,,,,,,,,,,,,,,,,,,,,,,,,,,,,,,,,,,,,,,,,,,,,,,,,,,,,,,,,,,,,,,,,,,,,,,,,,,,,,,,,,,
3921,1645900030.0218961,1645900030.045671,124.0,0.0,4060.512939,4474.358886999999,4215.384765999999,4124.615234000001,4058.974365,450.0,1.0,15.0,,,,0.0,4.0,1.0,1.0,4.0,4.0,50.0,,,,,,,,62.0,0.0,0.728816,0.160645,0.6606449999999999,0.081055,0.9399559999999999,-0.330083,-0.07128999999999999,-0.03283,-0.030585,-0.010583,,,,,,,,,,,,,,,,,,,,,,,,,,,,,,,,,,,,,,,,,,,,,,,,,,,,,,,,,,,,,,,,,
3922,1645900030.029709,1645900030.0534859,125.0,0.0,4024.102539,4525.128418,4109.230957,4109.743652,4039.487061,450.0,1.0,15.0,,,,0.0,4.0,1.0,1.0,4.0,4.0,50.0,,,,,,,,,,,,,,,,,,,,,,,,,,,,,,,,,,,,,,,,,,,,,,,,,,,,,,,,,,,,,,,,,,,,,,,,,,,,,,,,,,,,
3923,1645900030.037522,1645900030.061301,126.0,0.0,4006.6667479999996,4586.666504,4264.102539,4144.102539,4043.5898439999996,450.0,1.0,15.0,,,,0.0,4.0,1.0,1.0,4.0,4.0,50.0,,,,,,,,63.0,0.0,0.728816,0.160645,0.6606449999999999,0.081055,0.944839,-0.35108,-0.064942,-0.032916,-0.030650999999999998,-0.011917,,,,,,,,,,,,,,,,,,,,,,,,,,,,,,,,,,,0.0,0.0,32.0,0.28534699999999996,1.0,0.0,,,,,,,,,,,,,,,,,,,,,,,,,
3924,1645900030.045335,1645900030.069116,127.0,0.0,4026.1538090000004,4530.769043,4343.589844,4161.025879,4047.179443,233.0,1.0,15.0,,,,0.0,4.0,1.0,1.0,4.0,4.0,50.0,,,,,,,,,,,,,,,,,,,,,,,,,,,,,,,,,,,,,,,,,,,,,,,,,,,,,,,,,,,,,,,,,,,,,,,,,,,,,,,,,,,,
3925,1645900030.053148,1645900030.076931,0.0,0.0,4013.8461909999996,4456.922852000001,4222.05127,4091.794922,4064.615479,450.0,1.0,15.0,,,,0.0,4.0,1.0,1.0,4.0,4.0,50.0,,,,,,,,0.0,0.0,0.728983,0.160889,0.6604,0.081055,0.945327,-0.354009,-0.078126,-0.032895999999999995,-0.030565,-0.013166999999999998,,,,,,,,,,,,,,,,,,,,,,,,,,,,,,,,,,,,,,,,,,,,,,,,,,,,,,,,,,,,,,,,,
3926,1645900030.060961,1645900030.0847461,1.0,0.0,3986.6667479999996,4455.384765999999,4111.282227000001,4066.6667479999996,4085.1281740000004,450.0,1.0,15.0,,,,0.0,4.0,1.0,1.0,4.0,4.0,50.0,,,,,,,,,,,,,,,,,,,,,,,,,,,,,,,,,,,,,,,,,,,,,,,,,,,,,,,,,,,,,,,,,,,,,,,,,,,,,,,,,,,,
3927,1645900030.068774,1645900030.092561,2.0,0.0,4016.4101560000004,4559.487305,4178.461426,4122.05127,4096.410156,16163.0,1.0,15.0,,,,0.0,4.0,1.0,1.0,4.0,4.0,50.0,,,,,,,,1.0,0.0,0.728983,0.160889,0.6604,0.081055,0.9399559999999999,-0.356939,-0.080568,-0.032780000000000004,-0.030487,-0.011118000000000001,,,,,,,,,,,,,,,,,,,,,,,,,,,,,,,,,,,0.0,0.0,32.0,0.28534699999999996,1.0,0.0,,,,,,,,,,,,,,,,,,,,,,,,,
3928,1645900030.0765882,1645900030.100375,3.0,0.0,4054.358887,4604.102539,4223.077147999999,4170.256348,4075.384521,450.0,1.0,15.0,,,,0.0,4.0,1.0,1.0,4.0,4.0,50.0,,,,,,,,,,,,,,,,,,,,,,,,,,,,,,,,,,,,,,,,,,,,,,,,,,,,,,,,,,,,,,,,,,,,,,,,,,,,,,,,,,,,
3929,1645900030.084401,1645900030.10829,4.0,0.0,4075.897461,4570.256348,4123.077147999999,4144.102539,4099.487305,126.0,1.0,15.0,,,,0.0,4.0,1.0,4.0,2.0,4.0,58.33333199999999,,,,,,,,2.0,0.0,0.728983,0.160889,0.6604,0.081055,0.933608,-0.34668499999999997,-0.078614,-0.032725,-0.030417000000000003,-0.01235,,,,,,,,,,,,,,,,,,,,,,,,,,,,,,,,,,,,,,,,,,,,,,,,,,,,,,,,,,,,,,,,,
3930,1645900030.092214,1645900030.116105,5.0,0.0,4064.615479,4515.897461,4041.538574,4125.128418,4145.128418,450.0,1.0,15.0,,,,0.0,4.0,1.0,4.0,2.0,4.0,58.33333199999999,,,,,,,,,,,,,,,,,,,,,,,,,,,,,,,,,,,,,,,,,,,,,,,,,,,,,,,,,,,,,,,,,,,,,,,,,,,,,,,,,,,,
3931,1645900030.1000268,1645900030.12392,6.0,0.0,4082.0512700000004,4572.307617,4032.820557,4118.974121,4110.256348,16179.0,1.0,15.0,,,,0.0,4.0,1.0,4.0,2.0,4.0,58.33333199999999,,,,,,,,3.0,0.0,0.72901,0.160889,0.6604,0.08081100000000001,0.9555809999999999,-0.354498,-0.083009,-0.032724,-0.0305,-0.013459,1.0,0.0,0.0,,,,,,,,,,,,,,,,,,,,,,,,,,,,,,,,0.0,0.0,1.0,0.0,512.0,0.148625,39.792538,15.502175,18.788376,18.596909,4.693767,19.727591,33.126102,100.44206199999999,47.33886,18.446673999999998,45.034149,37.380325,38.776981,173.22558600000002,26.446372999999998,11.114754,8.812058,36.600891,14.896204000000001,6.240076,28.704696999999996,7.423328,30.916028999999998,11.142446000000001,3.6338120000000003
3932,1645900030.10784,1645900030.1317348,7.0,0.0,4076.923096,4590.769043,4067.6923829999996,4156.410156,4061.025635,450.0,1.0,15.0,,,,0.0,4.0,1.0,4.0,2.0,4.0,58.33333199999999,,,,,,,,,,,,,,,,,,,,,,,,,,,,,,,,,,,,,,,,,,,,,,,,,,,,,,,,,,,,,,,,,,,,,,,,,,,,,,,,,,,,
3933,1645900030.115653,1645900030.13955,8.0,0.0,4045.1281740000004,4471.282227000001,4141.538574,4202.563965,4041.538574,450.0,1.0,15.0,,,,0.0,4.0,1.0,4.0,2.0,4.0,58.33333199999999,,,,,,,,4.0,0.0,0.728956,0.161133,0.6604,0.08081100000000001,0.945815,-0.345708,-0.09033300000000001,-0.032723,-0.030525999999999998,-0.014505,,,,,,,,,,,,,,,,,,,,,,,,,,,,,,,,,,,,,,,,,,,,,,,,,,,,,,,,,,,,,,,,,
3934,1645900030.123466,1645900030.147365,9.0,0.0,4034.358887,4420.0,4172.307617,4144.102539,4087.6923829999996,141.0,1.0,15.0,,,,0.0,4.0,1.0,4.0,2.0,4.0,58.33333199999999,,,,,,,,,,,,,,,,,,,,,,,,,,,,,,,,,,,,,,,,,,,,,,,,,,,,,,,,,,,,,,,,,,,,,,,,,,,,,,,,,,,,
3935,1645900030.131279,1645900030.15518,10.0,0.0,4026.1538090000004,4459.487305,4099.487305,4110.769043,4102.563965,450.0,1.0,15.0,,,,0.0,4.0,1.0,4.0,2.0,4.0,58.33333199999999,,,,,,,,5.0,0.0,0.72901,0.160889,0.6604,0.08081100000000001,0.956558,-0.34473200000000004,-0.080079,-0.032722,-0.030599,-0.012274,,,,,,,,,,,,,,,,,,,,,,,,,,,,,,,,,,,0.0,0.0,1.0,0.0,512.0,0.148625,,,,,,,,,,,,,,,,,,,,,,,,,
3936,1645900030.139092,1645900030.162994,11.0,0.0,4032.3076170000004,4498.461426,4018.974365,4198.974121,4085.1281740000004,16167.0,1.0,15.0,,,,0.0,4.0,1.0,4.0,2.0,4.0,58.33333199999999,,,,,,,,,,,,,,,,,,,,,,,,,,,,,,,,,,,,,,,,,,,,,,,,,,,,,,,,,,,,,,,,,,,,,,,,,,,,,,,,,,,,
3937,1645900030.1469052,1645900030.170809,12.0,0.0,4025.641113,4500.0,4072.820557,4236.410156,4064.615479,450.0,1.0,15.0,,,,0.0,4.0,1.0,4.0,2.0,4.0,58.33333199999999,,,,,,,,6.0,0.0,0.72901,0.160889,0.6604,0.08081100000000001,0.9331200000000001,-0.330571,-0.07128999999999999,-0.032673,-0.030468000000000002,-0.013438999999999998,,,,,,,,,,,,,,,,,,,,,,,,,,,,,,,,,,,,,,,,,,,,,,,,,,,,,,,,,,,,,,,,,
3938,1645900030.154718,1645900030.178724,13.0,0.0,4033.8461909999996,4527.692383,4126.666504,4176.410156,4085.1281740000004,450.0,1.0,15.0,,,,0.0,4.0,1.0,4.0,2.0,4.0,58.33333199999999,,,,,,,,,,,,,,,,,,,,,,,,,,,,,,,,,,,,,,,,,,,,,,,,,,,,,,,,,,,,,,,,,,,,,,,,,,,,,,,,,,,,
3939,1645900030.1625311,1645900030.1865392,14.0,0.0,4033.3332520000004,4548.717772999999,4135.384765999999,4173.333496,4118.974121,450.0,1.0,15.0,,,,0.0,4.0,1.0,4.0,2.0,4.0,58.33333199999999,,,,,,,,7.0,0.0,0.728956,0.161133,0.6604,0.08081100000000001,0.945815,-0.345708,-0.09033300000000001,-0.032677,-0.030498,-0.014488,,,,,,,,,,,,,,,,,,,,,,,,,,,,,,,,,,,0.0,0.0,1.0,0.0,512.0,0.148625,,,,,,,,,,,,,,,,,,,,,,,,,
3940,1645900030.1703439,1645900030.1943538,15.0,0.0,4050.7692869999996,4556.922852000001,4096.410156,4169.743652,4152.307617,16167.0,1.0,15.0,,,,0.0,4.0,1.0,4.0,2.0,4.0,58.33333199999999,,,,,,,,,,,,,,,,,,,,,,,,,,,,,,,,,,,,,,,,,,,,,,,,,,,,,,,,,,,,,,,,,,,,,,,,,,,,,,,,,,,,
3941,1645900030.178157,1645900030.202169,16.0,0.0,4069.743652,4546.153809,4035.897461,4103.077147999999,4171.282227000001,0.0,1.0,15.0,,,,0.0,4.0,1.0,4.0,2.0,4.0,58.33333199999999,,,,,,,,8.0,0.0,0.72901,0.160889,0.6604,0.08081100000000001,0.951675,-0.34229,-0.075685,-0.032534,-0.030475,-0.012258,,,,,,,,,,,,,,,,,,,,,,,,,,,,,,,,,,,,,,,,,,,,,,,,,,,,,,,,,,,,,,,,,
3942,1645900030.185971,1645900030.209984,17.0,0.0,4118.974121,4577.94873,4000.512939,4113.846191,4153.333496,0.0,1.0,15.0,,,,0.0,4.0,1.0,4.0,2.0,4.0,58.33333199999999,,,,,,,,,,,,,,,,,,,,,,,,,,,,,,,,,,,,,,,,,,,,,,,,,,,,,,,,,,,,,,,,,,,,,,,,,,,,,,,,,,,,
3943,1645900030.193784,1645900030.217799,18.0,0.0,4166.153809,4645.641113000001,4048.718018,4175.384765999999,4146.153809,0.0,1.0,15.0,,,,0.0,4.0,1.0,4.0,2.0,4.0,58.33333199999999,,,,,,,,9.0,0.0,0.729064,0.160645,0.6604,0.08081100000000001,0.938003,-0.331548,-0.086427,-0.032504000000000005,-0.030455,-0.013472999999999999,,,,,,,,,,,,,,,,,,,,,,,,,,,,,,,,,,,0.0,0.0,1.0,0.0,512.0,0.148625,,,,,,,,,,,,,,,,,,,,,,,,,
3944,1645900030.201597,1645900030.225613,19.0,0.0,4133.333496,4614.871582,4120.512695,4193.333496,4139.487305,0.0,1.0,15.0,,,,0.0,4.0,1.0,4.0,2.0,4.0,58.33333199999999,,,,,,,,,,,,,,,,,,,,,,,,,,,,,,,,,,,,,,,,,,,,,,,,,,,,,,,,,,,,,,,,,,,,,,,,,,,,,,,,,,,,
3945,1645900030.20941,1645900030.233428,20.0,0.0,4119.487305,4597.436035,4093.3332520000004,4162.05127,4129.230957,0.0,1.0,15.0,,,,0.0,4.0,1.0,4.0,2.0,4.0,58.33333199999999,,,,,,,,10.0,0.0,0.729064,0.160645,0.6604,0.08081100000000001,0.9511860000000001,-0.343267,-0.080568,-0.032574,-0.030338999999999998,-0.011345000000000001,,,,,,,,,,,,,,,,,,,,,,,,,,,,,,,,,,,,,,,,,,,,,,,,,,,,,,,,,,,,,,,,,
3946,1645900030.217223,1645900030.241243,21.0,0.0,4138.974121,4613.846191,4042.5642090000006,4137.94873,4151.794922,0.0,1.0,15.0,,,,0.0,4.0,1.0,4.0,2.0,4.0,58.33333199999999,,,,,,,,,,,,,,,,,,,,,,,,,,,,,,,,,,,,,,,,,,,,,,,,,,,,,,,,,,,,,,,,,,,,,,,,,,,,,,,,,,,,
3947,1645900030.225036,1645900030.249058,22.0,0.0,4133.333496,4574.358886999999,3991.794922,4147.692383,4173.846191,0.0,1.0,15.0,,,,0.0,4.0,1.0,4.0,2.0,4.0,58.33333199999999,1.0,16.666666,2.0,0.0,0.0,2.0,2.0,11.0,0.0,0.729064,0.160645,0.6604,0.08081100000000001,0.948257,-0.345708,-0.08105599999999999,-0.032588,-0.030382,-0.009429,1.0,0.0,0.0,,,,,,,,,,,,,,,,,,,,,,,,,,,,,,,,0.0,0.0,1.0,0.0,512.0,0.22862800000000003,72.126816,29.529114,20.244826999999997,18.120159,4.793621,21.160334,32.202278,86.438271,55.693146,18.745424,54.75077099999999,31.374778999999997,35.204390999999994,155.000656,26.231455,9.894839,8.429651,30.188034000000002,18.055466,6.734921000000001,55.67563199999999,8.68409,28.834222999999998,12.631803999999999,4.042161
3948,1645900030.2328491,1645900030.256773,23.0,0.0,4106.666504,4505.641113000001,4020.512939,4150.769043,4135.897461,0.0,1.0,15.0,,,,0.0,4.0,1.0,4.0,2.0,4.0,58.33333199999999,,,,,,,,,,,,,,,,,,,,,,,,,,,,,,,,,,,,,,,,,,,,,,,,,,,,,,,,,,,,,,,,,,,,,,,,,,,,,,,,,,,,
3949,1645900030.2406619,1645900030.264588,24.0,0.0,4124.102539,4504.615234000001,4075.384521,4143.077147999999,4094.358887,0.0,1.0,15.0,,,,0.0,4.0,1.0,4.0,2.0,4.0,58.33333199999999,,,,,,,,12.0,0.0,0.729064,0.160645,0.6604,0.08081100000000001,0.9594870000000001,-0.34375500000000003,-0.08105599999999999,-0.032552,-0.03042,-0.010928,,,,,,,,,,,,,,,,,,,,,,,,,,,,,,,,,,,,,,,,,,,,,,,,,,,,,,,,,,,,,,,,,
3950,1645900030.248475,1645900030.272403,25.0,0.0,4145.641113000001,4575.897461,4166.666504,4166.153809,4130.256348,0.0,1.0,15.0,,,,0.0,4.0,1.0,4.0,2.0,4.0,58.33333199999999,,,,,,,,,,,,,,,,,,,,,,,,,,,,,,,,,,,,,,,,,,,,,,,,,,,,,,,,,,,,,,,,,,,,,,,,,,,,,,,,,,,,
3951,1645900030.256288,1645900030.280218,26.0,0.0,4155.384765999999,4555.384765999999,4221.538574,4248.717772999999,4141.538574,0.0,1.0,15.0,,,,0.0,4.0,1.0,4.0,2.0,4.0,58.33333199999999,,,,,,,,13.0,0.0,0.728843,0.160645,0.6606449999999999,0.08081100000000001,0.9433739999999999,-0.344244,-0.08203300000000001,-0.032617,-0.030405,-0.01213,,,,,,,,,,,,,,,,,,,,,,,,,,,,,,,,,,,0.0,0.0,1.0,0.0,512.0,0.22862800000000003,,,,,,,,,,,,,,,,,,,,,,,,,
3952,1645900030.264101,1645900030.288033,27.0,0.0,4158.461426,4484.615234000001,4240.0,4235.897461,4088.718018,0.0,1.0,15.0,,,,0.0,4.0,1.0,4.0,2.0,4.0,58.33333199999999,,,,,,,,,,,,,,,,,,,,,,,,,,,,,,,,,,,,,,,,,,,,,,,,,,,,,,,,,,,,,,,,,,,,,,,,,,,,,,,,,,,,
3953,1645900030.271915,1645900030.2958472,28.0,0.0,4170.256348,4528.205078,4176.410156,4162.05127,4100.0,0.0,1.0,15.0,,,,0.0,4.0,1.0,4.0,2.0,4.0,58.33333199999999,,,,,,,,14.0,0.0,0.728897,0.1604,0.6606449999999999,0.08081100000000001,0.9463030000000001,-0.340337,-0.08691499999999999,-0.032773000000000004,-0.030392000000000002,-0.010135,,,,,,,,,,,,,,,,,,,,,,,,,,,,,,,,,,,,,,,,,,,,,,,,,,,,,,,,,,,,,,,,,
3954,1645900030.279728,1645900030.3036618,29.0,0.0,4156.410156,4546.666504,4220.512695,4157.94873,4136.922852000001,0.0,1.0,15.0,,,,0.0,4.0,1.0,4.0,2.0,4.0,58.33333199999999,,,,,,,,,,,,,,,,,,,,,,,,,,,,,,,,,,,,,,,,,,,,,,,,,,,,,,,,,,,,,,,,,,,,,,,,,,,,,,,,,,,,
3955,1645900030.287541,1645900030.311477,30.0,0.0,4157.94873,4449.743652,4246.153809,4186.666504,4127.692383,0.0,1.0,15.0,,,,0.0,4.0,1.0,4.0,2.0,4.0,58.33333199999999,,,,,,,,15.0,0.0,0.72895,0.160156,0.6606449999999999,0.08081100000000001,0.946792,-0.34473200000000004,-0.083009,-0.032816000000000005,-0.030477999999999998,-0.011515000000000001,,,,,,,,,,,,,,,,,,,,,,,,,,,,,,,,,,,0.0,0.0,1.0,0.0,512.0,0.22862800000000003,,,,,,,,,,,,,,,,,,,,,,,,,
3956,1645900030.295354,1645900030.319292,31.0,0.0,4181.025879,4420.512695,4220.512695,4175.384765999999,4133.846191,0.0,1.0,15.0,,,,0.0,4.0,1.0,4.0,2.0,4.0,58.33333199999999,,,,,,,,,,,,,,,,,,,,,,,,,,,,,,,,,,,,,,,,,,,,,,,,,,,,,,,,,,,,,,,,,,,,,,,,,,,,,,,,,,,,
3957,1645900030.303167,1645900030.327007,32.0,0.0,4183.589844,4482.05127,4255.897461,4186.666504,4176.410156,0.0,1.0,15.0,,,,0.0,4.0,1.0,4.0,2.0,4.0,58.33333199999999,,,,,,,,16.0,0.0,0.728923,0.160156,0.6606449999999999,0.081055,0.941421,-0.34668499999999997,-0.076173,-0.032806,-0.030555000000000002,-0.012657999999999999,,,,,,,,,,,,,,,,,,,,,,,,,,,,,,,,,,,,,,,,,,,,,,,,,,,,,,,,,,,,,,,,,
3958,1645900030.31098,1645900030.3348222,33.0,0.0,4136.922852000001,4511.794922,4271.282227000001,4208.205078,4176.410156,0.0,1.0,15.0,,,,0.0,4.0,1.0,4.0,2.0,4.0,58.33333199999999,,,,,,,,,,,,,,,,,,,,,,,,,,,,,,,,,,,,,,,,,,,,,,,,,,,,,,,,,,,,,,,,,,,,,,,,,,,,,,,,,,,,
3959,1645900030.318793,1645900030.3426368,34.0,0.0,4107.179688,4509.743652,4233.333496,4192.307617,4148.205078,0.0,1.0,15.0,,,,0.0,4.0,1.0,4.0,2.0,4.0,58.33333199999999,,,,,,,,17.0,0.0,0.728923,0.160156,0.6606449999999999,0.081055,0.951675,-0.343267,-0.065919,-0.032748,-0.030477999999999998,-0.013736000000000002,,,,,,,,,,,,,,,,,,,,,,,,,,,,,,,,,,,0.0,0.0,1.0,0.0,512.0,0.22862800000000003,,,,,,,,,,,,,,,,,,,,,,,,,
3960,1645900030.326606,1645900030.350452,35.0,0.0,4108.205078,4514.358886999999,4245.128418,4169.230957,4143.589844,0.0,1.0,15.0,,,,0.0,4.0,1.0,4.0,2.0,4.0,58.33333199999999,,,,,,,,,,,,,,,,,,,,,,,,,,,,,,,,,,,,,,,,,,,,,,,,,,,,,,,,,,,,,,,,,,,,,,,,,,,,,,,,,,,,
3961,1645900030.334419,1645900030.358267,36.0,0.0,4096.922852000001,4528.205078,4253.846191,4161.538574,4141.538574,0.0,1.0,15.0,,,,0.0,4.0,1.0,4.0,2.0,4.0,58.33333199999999,,,,,,,,18.0,0.0,0.7289770000000001,0.159912,0.6606449999999999,0.081055,0.947768,-0.34815,-0.064454,-0.032794,-0.030409,-0.014657,,,,,,,,,,,,,,,,,,,,,,,,,,,,,,,,,,,,,,,,,,,,,,,,,,,,,,,,,,,,,,,,,
3962,1645900030.342232,1645900030.366082,37.0,0.0,4110.769043,4566.666504,4190.256348,4150.769043,4161.538574,0.0,1.0,15.0,,,,0.0,4.0,1.0,4.0,2.0,4.0,58.33333199999999,,,,,,,,,,,,,,,,,,,,,,,,,,,,,,,,,,,,,,,,,,,,,,,,,,,,,,,,,,,,,,,,,,,,,,,,,,,,,,,,,,,,
3963,1645900030.350045,1645900030.3738961,38.0,0.0,4126.153809,4571.794922,4186.153809,4136.922852000001,4158.461426,0.0,1.0,15.0,,,,0.0,4.0,1.0,4.0,2.0,4.0,58.33333199999999,,,,,,,,19.0,0.0,0.729004,0.159912,0.6606449999999999,0.08081100000000001,0.938491,-0.354986,-0.072267,-0.032835,-0.030395,-0.015535,1.0,0.0,0.0,,,,,,,,,,,,,,,,,,,,,,,,,,,,,,,,0.0,0.0,1.0,0.0,512.0,0.28115500000000004,111.831703,48.006237,21.787861,16.702446,4.929419,25.406572,34.576389,74.575417,59.915588,19.809158,62.38300699999999,32.044449,33.621178,132.967575,26.253393,8.780283,8.689116,25.12537,20.108942000000003,7.172716,90.587662,10.512851,25.503889,13.575464000000002,4.546035
3964,1645900030.357858,1645900030.381711,39.0,0.0,4090.256348,4536.922852000001,4197.436035,4144.615234000001,4147.179688,0.0,1.0,15.0,,,,0.0,4.0,1.0,4.0,2.0,4.0,58.33333199999999,,,,,,,,,,,,,,,,,,,,,,,,,,,,,,,,,,,,,,,,,,,,,,,,,,,,,,,,,,,,,,,,,,,,,,,,,,,,,,,,,,,,
3965,1645900030.365672,1645900030.389526,40.0,0.0,4059.487061,4519.487305,4196.410156,4174.358886999999,4157.94873,0.0,1.0,15.0,,,,0.0,4.0,1.0,4.0,2.0,4.0,58.33333199999999,,,,,,,,20.0,0.0,0.729004,0.159912,0.6606449999999999,0.08081100000000001,0.941909,-0.34815,-0.07128999999999999,-0.032872000000000005,-0.030333999999999996,-0.016228,,,,,,,,,,,,,,,,,,,,,,,,,,,,,,,,,,,,,,,,,,,,,,,,,,,,,,,,,,,,,,,,,
3966,1645900030.373484,1645900030.397441,41.0,0.0,4078.461426,4503.077147999999,4204.102539,4192.307617,4190.769043,0.0,1.0,15.0,,,,0.0,4.0,1.0,4.0,2.0,4.0,58.33333199999999,,,,,,,,,,,,,,,,,,,,,,,,,,,,,,,,,,,,,,,,,,,,,,,,,,,,,,,,,,,,,,,,,,,,,,,,,,,,,,,,,,,,
3967,1645900030.381298,1645900030.405256,42.0,0.0,4110.769043,4509.230957,4140.0,4204.615234000001,4182.05127,0.0,1.0,15.0,,,,0.0,4.0,1.0,4.0,2.0,4.0,58.33333199999999,,,,,,,,21.0,0.0,0.729031,0.159912,0.6606449999999999,0.080566,0.938491,-0.352544,-0.08105599999999999,-0.032806999999999996,-0.030327999999999997,-0.013824000000000001,,,,,,,,,,,,,,,,,,,,,,,,,,,,,,,,,,,0.0,0.0,1.0,0.0,512.0,0.28115500000000004,,,,,,,,,,,,,,,,,,,,,,,,,
3968,1645900030.389111,1645900030.4130712,43.0,0.0,4111.794922,4520.512695,4021.025635,4228.205078,4159.487305,0.0,1.0,15.0,,,,0.0,4.0,1.0,4.0,2.0,4.0,58.33333199999999,,,,,,,,,,,,,,,,,,,,,,,,,,,,,,,,,,,,,,,,,,,,,,,,,,,,,,,,,,,,,,,,,,,,,,,,,,,,,,,,,,,,
3969,1645900030.396924,1645900030.420886,44.0,0.0,4106.153809,4528.717772999999,4036.923096,4209.743652,4137.94873,0.0,1.0,15.0,,,,0.0,4.0,1.0,4.0,2.0,4.0,58.33333199999999,,,,,,,,22.0,0.0,0.729031,0.159912,0.6606449999999999,0.080566,0.9399559999999999,-0.354009,-0.083986,-0.0327,-0.030323000000000003,-0.014785,,,,,,,,,,,,,,,,,,,,,,,,,,,,,,,,,,,,,,,,,,,,,,,,,,,,,,,,,,,,,,,,,
3970,1645900030.404737,1645900030.4287,45.0,0.0,4137.94873,4533.846191,4125.128418,4196.410156,4125.641113000001,0.0,1.0,15.0,,,,0.0,4.0,1.0,4.0,2.0,4.0,58.33333199999999,,,,,,,,,,,,,,,,,,,,,,,,,,,,,,,,,,,,,,,,,,,,,,,,,,,,,,,,,,,,,,,,,,,,,,,,,,,,,,,,,,,,
3971,1645900030.41255,1645900030.436515,46.0,0.0,4161.538574,4530.256348,4213.333496,4200.0,4135.897461,0.0,1.0,15.0,,,,0.0,4.0,1.0,4.0,2.0,4.0,58.33333199999999,,,,,,,,23.0,0.0,0.729004,0.160156,0.6606449999999999,0.080322,0.9365379999999999,-0.344244,-0.070802,-0.032751,-0.030269,-0.012477,,,,,,,,,,,,,,,,,,,,,,,,,,,,,,,,,,,0.0,0.0,1.0,0.0,512.0,0.28115500000000004,,,,,,,,,,,,,,,,,,,,,,,,,
3972,1645900030.4203632,1645900030.44433,47.0,0.0,4172.820313,4542.563965,4240.0,4194.358886999999,4165.128418,0.0,1.0,15.0,,,,0.0,4.0,1.0,4.0,2.0,4.0,58.33333199999999,,,,,,,,,,,,,,,,,,,,,,,,,,,,,,,,,,,,,,,,,,,,,,,,,,,,,,,,,,,,,,,,,,,,,,,,,,,,,,,,,,,,
3973,1645900030.428176,1645900030.4521449,48.0,0.0,4172.820313,4519.487305,4257.436035,4204.102539,4171.282227000001,0.0,1.0,15.0,,,,0.0,4.0,1.0,4.0,2.0,4.0,58.33333199999999,,,,,,,,24.0,0.0,0.7289770000000001,0.160156,0.6606449999999999,0.080566,0.94435,-0.34375500000000003,-0.080568,-0.03265,-0.030220999999999998,-0.010497,,,,,,,,,,,,,,,,,,,,,,,,,,,,,,,,,,,,,,,,,,,,,,,,,,,,,,,,,,,,,,,,,
3974,1645900030.4359891,1645900030.45996,49.0,0.0,4177.436035,4507.179688,4313.333496,4225.641113000001,4162.05127,0.0,1.0,15.0,,,,0.0,4.0,1.0,4.0,2.0,4.0,58.33333199999999,,,,,,,,,,,,,,,,,,,,,,,,,,,,,,,,,,,,,,,,,,,,,,,,,,,,,,,,,,,,,,,,,,,,,,,,,,,,,,,,,,,,
3975,1645900030.4438019,1645900030.467875,50.0,0.0,4189.230957,4559.487305,4302.563965,4180.0,4164.102539,0.0,1.0,15.0,,,,0.0,4.0,1.0,4.0,2.0,4.0,58.33333199999999,,,,,,,,25.0,0.0,0.729279,0.159912,0.6604,0.080322,0.945815,-0.34521999999999997,-0.078614,-0.032607,-0.030324,-0.011791,,,,,,,,,,,,,,,,,,,,,,,,,,,,,,,,,,,0.0,0.0,1.0,0.0,512.0,0.28115500000000004,,,,,,,,,,,,,,,,,,,,,,,,,
3976,1645900030.451615,1645900030.4756901,51.0,0.0,4183.077147999999,4548.717772999999,4244.615234000001,4122.05127,4190.769043,0.0,1.0,15.0,,,,0.0,4.0,1.0,4.0,2.0,4.0,58.33333199999999,,,,,,,,,,,,,,,,,,,,,,,,,,,,,,,,,,,,,,,,,,,,,,,,,,,,,,,,,,,,,,,,,,,,,,,,,,,,,,,,,,,,
3977,1645900030.4594278,1645900030.483505,52.0,0.0,4171.282227000001,4510.769043,4221.025879,4155.384765999999,4199.487305,0.0,1.0,15.0,,,,0.0,4.0,1.0,4.0,2.0,4.0,58.33333199999999,,,,,,,,26.0,0.0,0.729004,0.160156,0.6606449999999999,0.080322,0.9365379999999999,-0.344244,-0.070802,-0.032618,-0.030465,-0.009879,,,,,,,,,,,,,,,,,,,,,,,,,,,,,,,,,,,,,,,,,,,,,,,,,,,,,,,,,,,,,,,,,
3978,1645900030.467241,1645900030.491319,53.0,0.0,4148.717772999999,4548.205078,4211.282227000001,4199.487305,4172.307617,0.0,1.0,15.0,,,,0.0,4.0,1.0,4.0,2.0,4.0,58.33333199999999,,,,,,,,,,,,,,,,,,,,,,,,,,,,,,,,,,,,,,,,,,,,,,,,,,,,,,,,,,,,,,,,,,,,,,,,,,,,,,,,,,,,
3979,1645900030.475055,1645900030.499134,54.0,0.0,4145.641113000001,4544.102539,4121.538574,4193.333496,4168.205078,0.0,1.0,15.0,,,,0.0,4.0,1.0,4.0,2.0,4.0,58.33333199999999,,,,,,,,27.0,0.0,0.729279,0.159912,0.6604,0.080322,0.945815,-0.34521999999999997,-0.078614,-0.032579000000000004,-0.030543999999999998,-0.011235,1.0,0.0,0.0,,,,,,,,,,,,,,,,,,,,,,,,,,,,,,,,0.0,0.0,1.0,0.0,512.0,0.195945,149.468185,66.719948,22.295965,14.449067000000001,5.011259,33.354572,40.119781,63.368462,58.511879,21.506012,66.321381,37.089912,33.019829,109.04933899999999,26.339028999999996,7.7419910000000005,9.607225,21.271053,20.314772,7.487556,125.449852,12.49002,21.607409,13.397084,5.0295309999999995
3980,1645900030.482868,1645900030.506949,55.0,0.0,4161.538574,4484.615234000001,4131.282227000001,4198.974121,4169.743652,0.0,1.0,15.0,,,,0.0,4.0,1.0,4.0,2.0,4.0,58.33333199999999,,,,,,,,,,,,,,,,,,,,,,,,,,,,,,,,,,,,,,,,,,,,,,,,,,,,,,,,,,,,,,,,,,,,,,,,,,,,,,,,,,,,
3981,1645900030.4906812,1645900030.514764,56.0,0.0,4192.820313,4560.0,4145.641113000001,4234.358886999999,4161.025879,0.0,1.0,15.0,,,,0.0,4.0,1.0,4.0,2.0,4.0,58.33333199999999,,,,,,,,28.0,0.0,0.729332,0.159668,0.6604,0.080322,0.95021,-0.333989,-0.083986,-0.032593000000000004,-0.030517000000000002,-0.012504000000000001,,,,,,,,,,,,,,,,,,,,,,,,,,,,,,,,,,,,,,,,,,,,,,,,,,,,,,,,,,,,,,,,,
3982,1645900030.498494,1645900030.522579,57.0,0.0,4216.922852000001,4615.897461,4134.871582,4230.256348,4176.410156,0.0,1.0,15.0,,,,0.0,4.0,1.0,4.0,2.0,4.0,58.33333199999999,,,,,,,,,,,,,,,,,,,,,,,,,,,,,,,,,,,,,,,,,,,,,,,,,,,,,,,,,,,,,,,,,,,,,,,,,,,,,,,,,,,,
3983,1645900030.5063071,1645900030.5303938,58.0,0.0,4267.692383,4535.897461,4186.666504,4182.05127,4207.179688,0.0,1.0,15.0,,,,0.0,4.0,1.0,4.0,2.0,4.0,58.33333199999999,,,,,,,,29.0,0.0,0.729386,0.159424,0.6604,0.080322,0.941909,-0.334478,-0.088869,-0.032605,-0.030541000000000002,-0.010520999999999999,,,,,,,,,,,,,,,,,,,,,,,,,,,,,,,,,,,0.0,0.0,1.0,0.0,512.0,0.195945,,,,,,,,,,,,,,,,,,,,,,,,,
3984,1645900030.5141199,1645900030.538209,59.0,0.0,4293.846191,4508.717772999999,4273.846191,4142.05127,4193.333496,0.0,1.0,15.0,,,,0.0,4.0,1.0,4.0,2.0,4.0,58.33333199999999,,,,,,,,,,,,,,,,,,,,,,,,,,,,,,,,,,,,,,,,,,,,,,,,,,,,,,,,,,,,,,,,,,,,,,,,,,,,,,,,,,,,
3985,1645900030.521933,1645900030.545924,60.0,0.0,4277.436035,4570.769043,4263.589844,4127.692383,4200.0,0.0,1.0,15.0,,,,0.0,4.0,2.0,4.0,2.0,4.0,66.666664,,,,,,,,30.0,0.0,0.729359,0.159424,0.6604,0.080566,0.945327,-0.345708,-0.071778,-0.032567,-0.030661,-0.011764,,,,,,,,,,,,,,,,,,,,,,,,,,,,,,,,,,,,,,,,,,,,,,,,,,,,,,,,,,,,,,,,,
3986,1645900030.529746,1645900030.553739,61.0,0.0,4251.794922,4583.589844,4223.589844,4134.871582,4217.436035,0.0,1.0,15.0,,,,0.0,4.0,2.0,4.0,2.0,4.0,66.666664,,,,,,,,,,,,,,,,,,,,,,,,,,,,,,,,,,,,,,,,,,,,,,,,,,,,,,,,,,,,,,,,,,,,,,,,,,,,,,,,,,,,
3987,1645900030.537559,1645900030.561554,62.0,0.0,4218.461426,4588.717772999999,4182.563965,4167.179688,4213.846191,0.0,1.0,15.0,,,,0.0,4.0,2.0,4.0,2.0,4.0,66.666664,,,,,,,,31.0,0.0,0.729359,0.159424,0.6604,0.080566,0.946792,-0.35547399999999996,-0.07910299999999999,-0.032582,-0.030622000000000003,-0.009806,,,,,,,,,,,,,,,,,,,,,,,,,,,,,,,,,,,0.0,0.0,1.0,0.0,512.0,0.195945,,,,,,,,,,,,,,,,,,,,,,,,,
3988,1645900030.545372,1645900030.569368,63.0,0.0,4191.282227000001,4662.563965,4125.641113000001,4146.153809,4200.0,0.0,1.0,15.0,,,,0.0,4.0,2.0,4.0,2.0,4.0,66.666664,,,,,,,,,,,,,,,,,,,,,,,,,,,,,,,,,,,,,,,,,,,,,,,,,,,,,,,,,,,,,,,,,,,,,,,,,,,,,,,,,,,,
3989,1645900030.553185,1645900030.577183,64.0,0.0,4196.922852000001,4671.282227000001,4056.923096,4132.820313,4182.563965,450.0,1.0,15.0,,,,0.0,4.0,2.0,4.0,2.0,4.0,66.666664,,,,,,,,32.0,0.0,0.729607,0.159424,0.6601560000000001,0.080322,0.932631,-0.355962,-0.08447400000000001,-0.032644,-0.030539,-0.011267000000000001,,,,,,,,,,,,,,,,,,,,,,,,,,,,,,,,,,,,,,,,,,,,,,,,,,,,,,,,,,,,,,,,,
3990,1645900030.560999,1645900030.5849981,65.0,0.0,4192.820313,4617.436035,4017.9487299999996,4157.436035,4190.769043,450.0,1.0,15.0,,,,0.0,4.0,2.0,4.0,2.0,4.0,66.666664,,,,,,,,,,,,,,,,,,,,,,,,,,,,,,,,,,,,,,,,,,,,,,,,,,,,,,,,,,,,,,,,,,,,,,,,,,,,,,,,,,,,
3991,1645900030.568812,1645900030.592813,66.0,0.0,4207.692383,4609.743652,4031.281982,4156.922852000001,4227.692383,16094.0,1.0,15.0,,,,0.0,4.0,2.0,4.0,2.0,4.0,66.666664,,,,,,,,33.0,0.0,0.7296600000000001,0.15918,0.6601560000000001,0.080322,0.9423969999999999,-0.34766199999999997,-0.09765800000000001,-0.032505,-0.030561,-0.009408,,,,,,,,,,,,,,,,,,,,,,,,,,,,,,,,,,,0.0,0.0,1.0,0.0,512.0,0.195945,,,,,,,,,,,,,,,,,,,,,,,,,
3992,1645900030.576625,1645900030.600628,67.0,0.0,4227.692383,4621.025879,4087.179443,4158.974121,4231.282227000001,450.0,1.0,15.0,,,,0.0,4.0,2.0,4.0,2.0,4.0,66.666664,,,,,,,,,,,,,,,,,,,,,,,,,,,,,,,,,,,,,,,,,,,,,,,,,,,,,,,,,,,,,,,,,,,,,,,,,,,,,,,,,,,,
3993,1645900030.584438,1645900030.608443,68.0,0.0,4209.230957,4637.436035,4225.128418,4164.102539,4200.0,188.0,1.0,15.0,,,,0.0,4.0,2.0,4.0,2.0,4.0,66.666664,,,,,,,,34.0,0.0,0.7296600000000001,0.15918,0.6601560000000001,0.080322,0.9555809999999999,-0.34668499999999997,-0.085451,-0.032477,-0.030679,-0.010762,,,,,,,,,,,,,,,,,,,,,,,,,,,,,,,,,,,,,,,,,,,,,,,,,,,,,,,,,,,,,,,,,
3994,1645900030.592251,1645900030.616158,69.0,0.0,4204.615234000001,4658.974121,4338.974121,4138.974121,4218.974121,450.0,1.0,15.0,,,,0.0,4.0,2.0,0.0,2.0,4.0,33.333332,,,,,,,,,,,,,,,,,,,,,,,,,,,,,,,,,,,,,,,,,,,,,,,,,,,,,,,,,,,,,,,,,,,,,,,,,,,,,,,,,,,,
3995,1645900030.600064,1645900030.6239731,70.0,0.0,4222.563965,4633.333496,4274.358886999999,4126.153809,4254.871582,23.0,1.0,15.0,,,,0.0,4.0,2.0,0.0,2.0,4.0,33.333332,,,,,,,,35.0,0.0,0.7296600000000001,0.15918,0.6601560000000001,0.080322,0.9550930000000001,-0.347173,-0.077638,-0.032451999999999995,-0.030687,-0.011981,1.0,0.0,0.0,,,,,,,,,,,,,,,,,,,,,,,,,,,,,,,,0.0,0.0,1.0,0.0,512.0,0.269198,175.015579,80.67952,21.161886,11.773304,4.983534,44.647659000000004,48.052517,51.032016999999996,51.685097,23.320373999999997,66.882942,43.316821999999995,32.643963,85.664436,26.233178999999996,6.837216000000001,10.889166000000001,18.058252,18.806273,7.657042,150.386749,14.221228,17.846218,12.055617999999999,5.4005540000000005
3996,1645900030.607877,1645900030.631788,71.0,0.0,4214.358886999999,4569.230957,4146.153809,4164.615234000001,4248.717772999999,450.0,1.0,15.0,,,,0.0,4.0,2.0,0.0,2.0,4.0,33.333332,,,,,,,,,,,,,,,,,,,,,,,,,,,,,,,,,,,,,,,,,,,,,,,,,,,,,,,,,,,,,,,,,,,,,,,,,,,,,,,,,,,,
3997,1645900030.61569,1645900030.639602,72.0,0.0,4196.410156,4532.820313,4129.743652,4197.436035,4210.256348,450.0,1.0,15.0,,,,0.0,4.0,2.0,0.0,2.0,4.0,33.333332,,,,,,,,36.0,0.0,0.7294390000000001,0.15918,0.6604,0.080322,0.95314,-0.339361,-0.06836,-0.032429,-0.030744,-0.01005,,,,,,,,,,,,,,,,,,,,,,,,,,,,,,,,,,,,,,,,,,,,,,,,,,,,,,,,,,,,,,,,,
3998,1645900030.623503,1645900030.647417,73.0,0.0,4185.641113000001,4464.615234000001,4080.0,4235.897461,4185.641113000001,175.0,1.0,15.0,,,,0.0,4.0,2.0,0.0,2.0,4.0,33.333332,,,,,,,,,,,,,,,,,,,,,,,,,,,,,,,,,,,,,,,,,,,,,,,,,,,,,,,,,,,,,,,,,,,,,,,,,,,,,,,,,,,,
3999,1645900030.631316,1645900030.655232,74.0,0.0,4174.358886999999,4449.230957,4092.3076170000004,4240.0,4174.871582,450.0,1.0,15.0,,,,0.0,4.0,2.0,0.0,2.0,4.0,33.333332,,,,,,,,37.0,0.0,0.7294390000000001,0.15918,0.6604,0.080322,0.941421,-0.34766199999999997,-0.077638,-0.032507,-0.030744999999999998,-0.011292,,,,,,,,,,,,,,,,,,,,,,,,,,,,,,,,,,,0.0,0.0,1.0,0.0,512.0,0.269198,,,,,,,,,,,,,,,,,,,,,,,,,
4000,1645900030.639129,1645900030.663047,75.0,0.0,4224.615234000001,4501.025879,4138.974121,4230.256348,4173.333496,16203.0,1.0,15.0,,,,0.0,4.0,2.0,0.0,2.0,4.0,33.333332,,,,,,,,,,,,,,,,,,,,,,,,,,,,,,,,,,,,,,,,,,,,,,,,,,,,,,,,,,,,,,,,,,,,,,,,,,,,,,,,,,,,
4001,1645900030.646942,1645900030.670862,76.0,0.0,4270.256348,4490.256348,4197.436035,4250.769043,4175.384765999999,450.0,1.0,15.0,,,,0.0,4.0,2.0,0.0,2.0,4.0,33.333332,,,,,,,,38.0,0.0,0.729386,0.159424,0.6604,0.080322,0.937514,-0.33984899999999996,-0.08105599999999999,-0.032674,-0.030601,-0.009332,,,,,,,,,,,,,,,,,,,,,,,,,,,,,,,,,,,,,,,,,,,,,,,,,,,,,,,,,,,,,,,,,
4002,1645900030.654755,1645900030.6786768,77.0,0.0,4269.743652,4549.743652,4297.436035,4211.794922,4207.692383,450.0,1.0,15.0,,,,0.0,4.0,2.0,0.0,2.0,4.0,33.333332,,,,,,,,,,,,,,,,,,,,,,,,,,,,,,,,,,,,,,,,,,,,,,,,,,,,,,,,,,,,,,,,,,,,,,,,,,,,,,,,,,,,
4003,1645900030.6625679,1645900030.686592,78.0,0.0,4262.05127,4676.922852000001,4326.153809,4132.307617,4223.589844,450.0,1.0,15.0,,,,0.0,4.0,2.0,0.0,2.0,4.0,33.333332,,,,,,,,39.0,0.0,0.7296600000000001,0.15918,0.6601560000000001,0.080322,0.938003,-0.338872,-0.08447400000000001,-0.032678,-0.030666000000000002,-0.010743,,,,,,,,,,,,,,,,,,,,,,,,,,,,,,,,,,,0.0,0.0,1.0,0.0,512.0,0.269198,,,,,,,,,,,,,,,,,,,,,,,,,
4004,1645900030.670382,1645900030.6945062,79.0,0.0,4267.692383,4639.487305,4191.794922,4143.589844,4225.641113000001,16203.0,1.0,15.0,,,,0.0,4.0,2.0,0.0,2.0,4.0,33.333332,,,,,,,,,,,,,,,,,,,,,,,,,,,,,,,,,,,,,,,,,,,,,,,,,,,,,,,,,,,,,,,,,,,,,,,,,,,,,,,,,,,,
4005,1645900030.678195,1645900030.702321,80.0,0.0,4270.769043,4583.589844,4096.410156,4157.436035,4240.512695,450.0,1.0,15.0,,,,0.0,4.0,2.0,0.0,2.0,4.0,33.333332,,,,,,,,40.0,0.0,0.7294390000000001,0.15918,0.6604,0.080322,0.9399559999999999,-0.340826,-0.085451,-0.032685000000000006,-0.03063,-0.013106,,,,,,,,,,,,,,,,,,,,,,,,,,,,,,,,,,,,,,,,,,,,,,,,,,,,,,,,,,,,,,,,,
4006,1645900030.686008,1645900030.710136,81.0,0.0,4263.077147999999,4655.384765999999,4095.384521,4146.153809,4245.128418,450.0,1.0,15.0,,,,0.0,4.0,2.0,0.0,2.0,4.0,33.333332,,,,,,,,,,,,,,,,,,,,,,,,,,,,,,,,,,,,,,,,,,,,,,,,,,,,,,,,,,,,,,,,,,,,,,,,,,,,,,,,,,,,
4007,1645900030.6938212,1645900030.717951,82.0,0.0,4246.153809,4663.589844,4060.0,4159.487305,4207.692383,450.0,1.0,15.0,,,,0.0,4.0,2.0,0.0,2.0,4.0,33.333332,,,,,,,,41.0,0.0,0.729687,0.15918,0.6601560000000001,0.080078,0.952651,-0.331548,-0.07470800000000001,-0.032737,-0.030643,-0.014188,,,,,,,,,,,,,,,,,,,,,,,,,,,,,,,,,,,0.0,0.0,1.0,0.0,512.0,0.269198,,,,,,,,,,,,,,,,,,,,,,,,,
4008,1645900030.701634,1645900030.725766,83.0,0.0,4244.102539,4594.358886999999,4084.102539,4160.512695,4171.794922,16203.0,1.0,15.0,,,,0.0,4.0,2.0,0.0,2.0,4.0,33.333332,,,,,,,,,,,,,,,,,,,,,,,,,,,,,,,,,,,,,,,,,,,,,,,,,,,,,,,,,,,,,,,,,,,,,,,,,,,,,,,,,,,,
4009,1645900030.7094471,1645900030.733581,84.0,0.0,4256.410156,4599.487305,4135.384765999999,4162.563965,4198.461426,450.0,1.0,15.0,,,,0.0,4.0,2.0,0.0,2.0,4.0,33.333332,,,,,,,,42.0,0.0,0.729687,0.15918,0.6601560000000001,0.080078,0.947768,-0.340337,-0.07910299999999999,-0.032784,-0.030606,-0.011988,,,,,,,,,,,,,,,,,,,,,,,,,,,,,,,,,,,,,,,,,,,,,,,,,,,,,,,,,,,,,,,,,
4010,1645900030.71726,1645900030.7413962,85.0,0.0,4270.769043,4622.05127,4145.128418,4174.358886999999,4238.974121,450.0,1.0,15.0,,,,0.0,4.0,2.0,0.0,2.0,4.0,33.333332,,,,,,,,,,,,,,,,,,,,,,,,,,,,,,,,,,,,,,,,,,,,,,,,,,,,,,,,,,,,,,,,,,,,,,,,,,,,,,,,,,,,
4011,1645900030.725073,1645900030.7492108,86.0,0.0,4284.615234000001,4599.487305,4197.436035,4162.563965,4238.461426,450.0,1.0,15.0,,,,0.0,4.0,2.0,0.0,2.0,4.0,33.333332,1.0,16.666666,2.0,0.0,0.0,2.0,2.0,43.0,0.0,0.729687,0.15918,0.6601560000000001,0.080078,0.940932,-0.33984899999999996,-0.08838,-0.032728,-0.030524000000000003,-0.013035,1.0,0.0,0.0,,,,,,,,,,,,,,,,,,,,,,,,,,,,,,,,0.0,0.0,1.0,0.0,512.0,0.26693,180.869156,86.238861,18.595221,9.191596,4.807785,57.189865000000005,56.458626,37.970253,41.400982,24.500101,67.401031,48.442271999999996,33.089344,65.240532,25.678062,6.235494,12.144416,15.177156,16.376832999999998,7.679755,157.500275,15.330333999999999,14.725382000000002,9.980407000000001,5.577788
4012,1645900030.7328858,1645900030.757125,87.0,0.0,4269.230957,4605.641113000001,4297.94873,4131.282227000001,4217.436035,16203.0,1.0,15.0,,,,0.0,4.0,2.0,0.0,2.0,4.0,33.333332,,,,,,,,,,,,,,,,,,,,,,,,,,,,,,,,,,,,,,,,,,,,,,,,,,,,,,,,,,,,,,,,,,,,,,,,,,,,,,,,,,,,
4013,1645900030.740699,1645900030.76494,88.0,0.0,4236.922852000001,4642.563965,4284.615234000001,4142.05127,4245.641113000001,450.0,1.0,15.0,,,,0.0,4.0,2.0,0.0,2.0,4.0,33.333332,,,,,,,,44.0,0.0,0.729687,0.15918,0.6601560000000001,0.080078,0.9433739999999999,-0.341802,-0.08447400000000001,-0.032727,-0.030646,-0.010951,,,,,,,,,,,,,,,,,,,,,,,,,,,,,,,,,,,,,,,,,,,,,,,,,,,,,,,,,,,,,,,,,
4014,1645900030.748512,1645900030.7727551,89.0,0.0,4226.153809,4616.922852000001,4176.922852000001,4173.846191,4278.974121,450.0,1.0,15.0,,,,0.0,4.0,2.0,0.0,2.0,4.0,33.333332,,,,,,,,,,,,,,,,,,,,,,,,,,,,,,,,,,,,,,,,,,,,,,,,,,,,,,,,,,,,,,,,,,,,,,,,,,,,,,,,,,,,
4015,1645900030.756325,1645900030.78057,90.0,0.0,4218.974121,4494.871582,4058.461426,4195.384765999999,4266.666504,450.0,1.0,15.0,,,,0.0,4.0,2.0,0.0,2.0,4.0,33.333332,,,,,,,,45.0,0.0,0.729687,0.15918,0.6601560000000001,0.080078,0.947768,-0.333989,-0.093751,-0.032726,-0.030608999999999997,-0.012199,,,,,,,,,,,,,,,,,,,,,,,,,,,,,,,,,,,0.0,0.0,1.0,0.0,512.0,0.26693,,,,,,,,,,,,,,,,,,,,,,,,,
4016,1645900030.7641392,1645900030.788385,91.0,0.0,4203.077147999999,4466.153809,4054.8718259999996,4215.384765999999,4244.102539,16203.0,1.0,15.0,,,,0.0,4.0,2.0,0.0,2.0,4.0,33.333332,,,,,,,,,,,,,,,,,,,,,,,,,,,,,,,,,,,,,,,,,,,,,,,,,,,,,,,,,,,,,,,,,,,,,,,,,,,,,,,,,,,,
4017,1645900030.771952,1645900030.7962,92.0,0.0,4230.769043,4550.769043,4086.1538090000004,4261.538574,4237.436035,450.0,1.0,15.0,,,,0.0,4.0,2.0,0.0,2.0,4.0,33.333332,,,,,,,,46.0,0.0,0.7296600000000001,0.15918,0.6601560000000001,0.080322,0.937514,-0.34521999999999997,-0.08203300000000001,-0.032774,-0.030624000000000002,-0.013225,,,,,,,,,,,,,,,,,,,,,,,,,,,,,,,,,,,,,,,,,,,,,,,,,,,,,,,,,,,,,,,,,
4018,1645900030.7797651,1645900030.804015,93.0,0.0,4240.512695,4565.641113000001,4211.282227000001,4262.05127,4210.256348,450.0,1.0,15.0,,,,0.0,4.0,2.0,0.0,2.0,4.0,33.333332,,,,,,,,,,,,,,,,,,,,,,,,,,,,,,,,,,,,,,,,,,,,,,,,,,,,,,,,,,,,,,,,,,,,,,,,,,,,,,,,,,,,
4019,1645900030.7875779,1645900030.81183,94.0,0.0,4240.0,4549.743652,4271.282227000001,4200.512695,4201.025879,450.0,1.0,15.0,,,,0.0,4.0,2.0,0.0,2.0,4.0,33.333332,,,,,,,,47.0,0.0,0.729881,0.15918,0.6599119999999999,0.080322,0.928725,-0.354986,-0.072755,-0.032865,-0.030638,-0.014296000000000001,,,,,,,,,,,,,,,,,,,,,,,,,,,,,,,,,,,0.0,0.0,1.0,0.0,512.0,0.26693,,,,,,,,,,,,,,,,,,,,,,,,,
4020,1645900030.795391,1645900030.819644,95.0,0.0,4250.256348,4527.179688,4236.410156,4191.282227000001,4202.563965,16203.0,1.0,15.0,,,,0.0,4.0,2.0,0.0,2.0,4.0,33.333332,,,,,,,,,,,,,,,,,,,,,,,,,,,,,,,,,,,,,,,,,,,,,,,,,,,,,,,,,,,,,,,,,,,,,,,,,,,,,,,,,,,,
4021,1645900030.8032038,1645900030.827559,96.0,0.0,4259.487305,4515.897461,4282.05127,4218.974121,4222.563965,450.0,1.0,15.0,,,,0.0,4.0,2.0,0.0,2.0,4.0,33.333332,,,,,,,,48.0,0.0,0.729908,0.15918,0.6599119999999999,0.080078,0.938003,-0.344244,-0.08838,-0.032802,-0.030797,-0.012085,,,,,,,,,,,,,,,,,,,,,,,,,,,,,,,,,,,,,,,,,,,,,,,,,,,,,,,,,,,,,,,,,
4022,1645900030.811017,1645900030.835374,97.0,0.0,4262.563965,4588.717772999999,4298.974121,4171.794922,4241.538574,450.0,1.0,15.0,,,,0.0,4.0,2.0,0.0,2.0,4.0,33.333332,,,,,,,,,,,,,,,,,,,,,,,,,,,,,,,,,,,,,,,,,,,,,,,,,,,,,,,,,,,,,,,,,,,,,,,,,,,,,,,,,,,,
4023,1645900030.81883,1645900030.843189,98.0,0.0,4254.358886999999,4645.641113000001,4168.717772999999,4129.743652,4229.230957,450.0,1.0,15.0,,,,0.0,4.0,2.0,0.0,2.0,4.0,33.333332,,,,,,,,49.0,0.0,0.729854,0.159424,0.6599119999999999,0.080078,0.9423969999999999,-0.36035700000000004,-0.072755,-0.032891000000000004,-0.030744,-0.013318,,,,,,,,,,,,,,,,,,,,,,,,,,,,,,,,,,,0.0,0.0,1.0,0.0,512.0,0.26693,,,,,,,,,,,,,,,,,,,,,,,,,
4024,1645900030.826643,1645900030.851004,99.0,0.0,4262.05127,4592.820313,4076.923096,4165.641113000001,4221.538574,16203.0,1.0,15.0,,,,0.0,4.0,2.0,0.0,2.0,4.0,33.333332,,,,,,,,,,,,,,,,,,,,,,,,,,,,,,,,,,,,,,,,,,,,,,,,,,,,,,,,,,,,,,,,,,,,,,,,,,,,,,,,,,,,
4025,1645900030.834456,1645900030.858819,100.0,0.0,4291.794922,4547.179688,4094.8718259999996,4212.820313,4228.717772999999,450.0,1.0,15.0,,,,0.0,4.0,2.0,0.0,2.0,4.0,33.333332,,,,,,,,50.0,0.0,0.729908,0.159424,0.6599119999999999,0.07959,0.95314,-0.336919,-0.09033300000000001,-0.032873,-0.030746,-0.014379,,,,,,,,,,,,,,,,,,,,,,,,,,,,,,,,,,,,,,,,,,,,,,,,,,,,,,,,,,,,,,,,,
4026,1645900030.842269,1645900030.866634,101.0,0.0,4305.641113000001,4582.563965,4063.076904,4207.692383,4220.0,450.0,1.0,15.0,,,,0.0,4.0,2.0,0.0,2.0,4.0,33.333332,,,,,,,,,,,,,,,,,,,,,,,,,,,,,,,,,,,,,,,,,,,,,,,,,,,,,,,,,,,,,,,,,,,,,,,,,,,,,,,,,,,,
4027,1645900030.850083,1645900030.874449,102.0,0.0,4281.025879,4616.922852000001,4094.8718259999996,4190.256348,4194.871582,450.0,1.0,15.0,,,,0.0,4.0,2.0,0.0,2.0,4.0,33.333332,,,,,,,,51.0,0.0,0.729908,0.159424,0.6599119999999999,0.07959,0.9433739999999999,-0.340826,-0.07422000000000001,-0.032906,-0.030748,-0.012111,1.0,0.0,0.0,,,,,,,,,,,,,,,,,,,,,,,,,,,,,,,,0.0,0.0,1.0,0.0,512.0,0.24734899999999999,166.59686299999998,82.38826,15.657892000000002,7.080352,4.45726,67.641571,62.841182999999994,26.199423,30.307062,24.407551,70.843536,51.672138000000004,36.76672,49.81797,24.43638,6.206685,13.183882,12.685299,13.947032,7.54891,144.671417,15.571176000000001,12.519167,7.764703999999999,5.504597
4028,1645900030.857895,1645900030.8822632,103.0,0.0,4278.974121,4639.487305,4137.94873,4211.794922,4208.717772999999,16203.0,1.0,15.0,,,,0.0,4.0,2.0,0.0,2.0,4.0,33.333332,,,,,,,,,,,,,,,,,,,,,,,,,,,,,,,,,,,,,,,,,,,,,,,,,,,,,,,,,,,,,,,,,,,,,,,,,,,,,,,,,,,,
4029,1645900030.865709,1645900030.8900778,104.0,0.0,4297.94873,4672.820313,4172.307617,4208.717772999999,4252.820313,450.0,1.0,15.0,,,,0.0,4.0,2.0,0.0,2.0,4.0,33.333332,,,,,,,,52.0,0.0,0.729934,0.159424,0.6599119999999999,0.079346,0.934585,-0.353033,-0.07324299999999999,-0.032936,-0.030749000000000002,-0.013291999999999998,,,,,,,,,,,,,,,,,,,,,,,,,,,,,,,,,,,,,,,,,,,,,,,,,,,,,,,,,,,,,,,,,
4030,1645900030.873522,1645900030.897893,105.0,0.0,4285.641113000001,4671.282227000001,4249.230957,4152.820313,4302.05127,450.0,1.0,15.0,,,,0.0,4.0,2.0,0.0,2.0,4.0,33.333332,,,,,,,,,,,,,,,,,,,,,,,,,,,,,,,,,,,,,,,,,,,,,,,,,,,,,,,,,,,,,,,,,,,,,,,,,,,,,,,,,,,,
4031,1645900030.881335,1645900030.905808,106.0,0.0,4233.333496,4611.282227000001,4267.692383,4126.153809,4300.0,450.0,1.0,15.0,,,,0.0,4.0,2.0,0.0,2.0,4.0,33.333332,,,,,,,,53.0,0.0,0.730014,0.15918,0.6599119999999999,0.07910199999999999,0.947768,-0.345708,-0.084962,-0.032914,-0.030751,-0.014306999999999999,,,,,,,,,,,,,,,,,,,,,,,,,,,,,,,,,,,0.0,0.0,1.0,0.0,512.0,0.24734899999999999,,,,,,,,,,,,,,,,,,,,,,,,,
4032,1645900030.889148,1645900030.913623,107.0,0.0,4207.179688,4541.025879,4121.538574,4210.256348,4251.282227000001,16203.0,1.0,15.0,,,,0.0,4.0,2.0,0.0,2.0,4.0,33.333332,,,,,,,,,,,,,,,,,,,,,,,,,,,,,,,,,,,,,,,,,,,,,,,,,,,,,,,,,,,,,,,,,,,,,,,,,,,,,,,,,,,,
4033,1645900030.896961,1645900030.921438,108.0,0.0,4240.512695,4529.230957,4070.7692869999996,4261.538574,4221.538574,450.0,1.0,15.0,,,,0.0,4.0,2.0,0.0,2.0,4.0,33.333332,,,,,,,,54.0,0.0,0.729908,0.159424,0.6599119999999999,0.07959,0.9433739999999999,-0.340826,-0.07422000000000001,-0.032943,-0.030751999999999998,-0.012046,,,,,,,,,,,,,,,,,,,,,,,,,,,,,,,,,,,,,,,,,,,,,,,,,,,,,,,,,,,,,,,,,
4034,1645900030.904774,1645900030.9292529,109.0,0.0,4318.461426,4518.461426,4145.128418,4227.179688,4242.563965,450.0,1.0,15.0,,,,0.0,4.0,2.0,0.0,2.0,4.0,33.333332,,,,,,,,,,,,,,,,,,,,,,,,,,,,,,,,,,,,,,,,,,,,,,,,,,,,,,,,,,,,,,,,,,,,,,,,,,,,,,,,,,,,
4035,1645900030.912587,1645900030.937068,110.0,0.0,4337.436035,4472.820313,4221.025879,4203.589844,4254.871582,450.0,1.0,15.0,,,,0.0,4.0,2.0,0.0,2.0,4.0,33.333332,,,,,,,,55.0,0.0,0.730014,0.15918,0.6599119999999999,0.07910199999999999,0.947768,-0.345708,-0.084962,-0.03292,-0.030752999999999996,-0.013184999999999999,,,,,,,,,,,,,,,,,,,,,,,,,,,,,,,,,,,0.0,0.0,1.0,0.0,512.0,0.24734899999999999,,,,,,,,,,,,,,,,,,,,,,,,,
4036,1645900030.9204,1645900030.944882,111.0,0.0,4315.897461,4534.871582,4222.05127,4208.205078,4251.794922,16203.0,1.0,15.0,,,,0.0,4.0,2.0,0.0,2.0,4.0,33.333332,,,,,,,,,,,,,,,,,,,,,,,,,,,,,,,,,,,,,,,,,,,,,,,,,,,,,,,,,,,,,,,,,,,,,,,,,,,,,,,,,,,,
4037,1645900030.9282131,1645900030.952697,112.0,0.0,4310.256348,4645.641113000001,4189.743652,4172.820313,4249.743652,450.0,1.0,15.0,,,,0.0,4.0,2.0,0.0,2.0,4.0,33.333332,,,,,,,,56.0,0.0,0.730067,0.158936,0.6599119999999999,0.07910199999999999,0.9506979999999999,-0.321294,-0.076173,-0.032851,-0.030656,-0.014162000000000001,,,,,,,,,,,,,,,,,,,,,,,,,,,,,,,,,,,,,,,,,,,,,,,,,,,,,,,,,,,,,,,,,
4038,1645900030.9360259,1645900030.960512,113.0,0.0,4306.153809,4614.358886999999,4146.153809,4145.128418,4253.846191,450.0,1.0,15.0,,,,0.0,4.0,2.0,0.0,2.0,4.0,33.333332,,,,,,,,,,,,,,,,,,,,,,,,,,,,,,,,,,,,,,,,,,,,,,,,,,,,,,,,,,,,,,,,,,,,,,,,,,,,,,,,,,,,
4039,1645900030.943839,1645900030.968327,114.0,0.0,4291.794922,4574.871582,4077.4357909999994,4165.641113000001,4251.794922,450.0,1.0,15.0,,,,0.0,4.0,2.0,0.0,2.0,4.0,33.333332,,,,,,,,57.0,0.0,0.7300939999999999,0.158936,0.6599119999999999,0.07885700000000001,0.9463030000000001,-0.331548,-0.077638,-0.032788,-0.030667000000000003,-0.011964,,,,,,,,,,,,,,,,,,,,,,,,,,,,,,,,,,,0.0,0.0,1.0,0.0,512.0,0.24734899999999999,,,,,,,,,,,,,,,,,,,,,,,,,
4040,1645900030.951652,1645900030.976242,115.0,0.0,4314.871582,4668.717772999999,4046.6667479999996,4190.256348,4242.563965,16203.0,1.0,15.0,,,,0.0,4.0,2.0,0.0,2.0,4.0,33.333332,,,,,,,,,,,,,,,,,,,,,,,,,,,,,,,,,,,,,,,,,,,,,,,,,,,,,,,,,,,,,,,,,,,,,,,,,,,,,,,,,,,,
4041,1645900030.959466,1645900030.984057,116.0,0.0,4332.307617,4707.179688,4104.102539,4201.538574,4234.358886999999,450.0,1.0,15.0,,,,0.0,4.0,2.0,0.0,2.0,4.0,33.333332,,,,,,,,58.0,0.0,0.7300939999999999,0.158936,0.6599119999999999,0.07885700000000001,0.949233,-0.32959499999999997,-0.073732,-0.032781,-0.030626999999999998,-0.013209,,,,,,,,,,,,,,,,,,,,,,,,,,,,,,,,,,,,,,,,,,,,,,,,,,,,,,,,,,,,,,,,,
4042,1645900030.967279,1645900030.991872,117.0,0.0,4294.871582,4622.05127,4250.256348,4189.230957,4257.436035,450.0,1.0,15.0,,,,0.0,4.0,2.0,0.0,2.0,4.0,33.333332,,,,,,,,,,,,,,,,,,,,,,,,,,,,,,,,,,,,,,,,,,,,,,,,,,,,,,,,,,,,,,,,,,,,,,,,,,,,,,,,,,,,
4043,1645900030.975092,1645900030.999687,118.0,0.0,4288.205078,4615.384765999999,4345.641113000001,4153.846191,4318.974121,450.0,1.0,15.0,,,,0.0,4.0,2.0,0.0,2.0,4.0,33.333332,,,,,,,,59.0,0.0,0.730147,0.158691,0.6599119999999999,0.07885700000000001,0.9643700000000001,-0.341314,-0.08838,-0.032726,-0.030543,-0.014183000000000001,1.0,0.0,0.0,,,,,,,,,,,,,,,,,,,,,,,,,,,,,,,,0.0,0.0,1.0,0.0,512.0,0.294167,137.423721,70.980682,13.650942,5.555237,3.943803,74.028931,65.491013,18.371304000000002,20.765072,22.872861999999998,78.339241,53.429199,48.989872,40.174988,22.464014000000002,7.2761119999999995,14.021917000000002,11.272836,12.160910000000001,7.247406,116.51289399999999,14.824670000000001,11.355715,5.910145,5.184608
4044,1645900030.9829051,1645900031.007501,119.0,0.0,4284.615234000001,4616.410156,4298.461426,4148.717772999999,4305.128418,16203.0,1.0,15.0,,,,0.0,4.0,2.0,0.0,2.0,4.0,33.333332,,,,,,,,,,,,,,,,,,,,,,,,,,,,,,,,,,,,,,,,,,,,,,,,,,,,,,,,,,,,,,,,,,,,,,,,,,,,,,,,,,,,
4045,1645900030.990718,1645900031.015316,120.0,0.0,4237.94873,4528.205078,4108.205078,4183.589844,4244.615234000001,450.0,1.0,15.0,,,,0.0,4.0,2.0,0.0,2.0,4.0,33.333332,,,,,,,,60.0,0.0,0.7299260000000001,0.158691,0.6601560000000001,0.07885700000000001,0.9472799999999999,-0.333013,-0.085939,-0.032676,-0.030467,-0.015158000000000001,,,,,,,,,,,,,,,,,,,,,,,,,,,,,,,,,,,,,,,,,,,,,,,,,,,,,,,,,,,,,,,,,
4046,1645900030.998531,1645900031.0231311,121.0,0.0,4235.897461,4560.0,4081.538574,4196.410156,4234.358886999999,450.0,1.0,15.0,,,,0.0,4.0,2.0,0.0,2.0,4.0,33.333332,,,,,,,,,,,,,,,,,,,,,,,,,,,,,,,,,,,,,,,,,,,,,,,,,,,,,,,,,,,,,,,,,,,,,,,,,,,,,,,,,,,,
4047,1645900031.0063438,1645900031.030946,122.0,0.0,4307.692383,4632.820313,4201.538574,4206.666504,4235.897461,450.0,1.0,15.0,,,,0.0,4.0,2.0,0.0,2.0,4.0,33.333332,,,,,,,,61.0,0.0,0.7299260000000001,0.158691,0.6601560000000001,0.07885700000000001,0.9404440000000001,-0.33105999999999997,-0.07324299999999999,-0.03268,-0.030497000000000003,-0.015986,,,,,,,,,,,,,,,,,,,,,,,,,,,,,,,,,,,0.0,0.0,1.0,0.0,512.0,0.294167,,,,,,,,,,,,,,,,,,,,,,,,,
4048,1645900031.014157,1645900031.038761,123.0,0.0,4351.794922,4557.94873,4259.487305,4214.358886999999,4209.743652,16203.0,1.0,15.0,,,,0.0,4.0,2.0,0.0,2.0,4.0,33.333332,,,,,,,,,,,,,,,,,,,,,,,,,,,,,,,,,,,,,,,,,,,,,,,,,,,,,,,,,,,,,,,,,,,,,,,,,,,,,,,,,,,,
4049,1645900031.02197,1645900031.046676,124.0,0.0,4358.974121,4574.871582,4227.179688,4163.077147999999,4246.666504,450.0,1.0,15.0,,,,0.0,2.0,0.0,0.0,2.0,4.0,16.666666,,,,,,,,62.0,0.0,0.7299,0.158691,0.6601560000000001,0.07910199999999999,0.9463030000000001,-0.34229,-0.076661,-0.032732,-0.030475,-0.016633000000000002,,,,,,,,,,,,,,,,,,,,,,,,,,,,,,,,,,,,,,,,,,,,,,,,,,,,,,,,,,,,,,,,,
4050,1645900031.029783,1645900031.054491,125.0,0.0,4349.743652,4753.333496,4182.05127,4091.281982,4294.871582,450.0,1.0,15.0,,,,0.0,2.0,0.0,0.0,2.0,4.0,16.666666,,,,,,,,,,,,,,,,,,,,,,,,,,,,,,,,,,,,,,,,,,,,,,,,,,,,,,,,,,,,,,,,,,,,,,,,,,,,,,,,,,,,
4051,1645900031.037596,1645900031.062305,126.0,0.0,4317.436035,4721.538574,4073.3332520000004,4134.871582,4287.179688,450.0,1.0,15.0,,,,0.0,2.0,0.0,0.0,2.0,4.0,16.666666,,,,,,,,63.0,0.0,0.729953,0.158447,0.6601560000000001,0.07910199999999999,0.95021,-0.347173,-0.08105599999999999,-0.032632999999999995,-0.030455,-0.014286000000000002,,,,,,,,,,,,,,,,,,,,,,,,,,,,,,,,,,,0.0,0.0,1.0,0.0,512.0,0.294167,,,,,,,,,,,,,,,,,,,,,,,,,
4052,1645900031.04541,1645900031.0701199,127.0,0.0,4263.589844,4565.641113000001,4050.256348,4169.743652,4262.05127,233.0,1.0,15.0,,,,0.0,2.0,0.0,0.0,2.0,4.0,16.666666,,,,,,,,,,,,,,,,,,,,,,,,,,,,,,,,,,,,,,,,,,,,,,,,,,,,,,,,,,,,,,,,,,,,,,,,,,,,,,,,,,,,
4053,1645900031.0532231,1645900031.077935,0.0,0.0,4250.769043,4582.563965,4114.358886999999,4122.05127,4230.769043,450.0,1.0,15.0,,,,0.0,2.0,0.0,0.0,2.0,4.0,16.666666,,,,,,,,0.0,0.0,0.729953,0.158447,0.6601560000000001,0.07910199999999999,0.941421,-0.349615,-0.077638,-0.032592,-0.030289999999999997,-0.01525,,,,,,,,,,,,,,,,,,,,,,,,,,,,,,,,,,,,,,,,,,,,,,,,,,,,,,,,,,,,,,,,,
4054,1645900031.0610359,1645900031.08575,1.0,0.0,4261.538574,4591.794922,4151.282227000001,4141.538574,4191.282227000001,450.0,1.0,15.0,,,,0.0,2.0,0.0,0.0,2.0,4.0,16.666666,,,,,,,,,,,,,,,,,,,,,,,,,,,,,,,,,,,,,,,,,,,,,,,,,,,,,,,,,,,,,,,,,,,,,,,,,,,,,,,,,,,,
4055,1645900031.068849,1645900031.093565,2.0,0.0,4269.230957,4537.436035,4214.358886999999,4212.820313,4207.692383,313.0,1.0,15.0,,,,0.0,2.0,0.0,0.0,2.0,4.0,16.666666,,,,,,,,1.0,0.0,0.729953,0.158447,0.6601560000000001,0.07910199999999999,0.9546040000000001,-0.335454,-0.077638,-0.032605,-0.030337,-0.012943999999999999,,,,,,,,,,,,,,,,,,,,,,,,,,,,,,,,,,,0.0,0.0,1.0,0.0,512.0,0.294167,,,,,,,,,,,,,,,,,,,,,,,,,
4056,1645900031.0766618,1645900031.10138,3.0,0.0,4274.358886999999,4558.461426,4264.102539,4217.436035,4251.794922,450.0,1.0,15.0,,,,0.0,2.0,0.0,0.0,2.0,4.0,16.666666,,,,,,,,,,,,,,,,,,,,,,,,,,,,,,,,,,,,,,,,,,,,,,,,,,,,,,,,,,,,,,,,,,,,,,,,,,,,,,,,,,,,
4057,1645900031.084475,1645900031.109195,4.0,0.0,4265.641113000001,4557.94873,4252.307617,4204.102539,4272.307617,0.0,1.0,15.0,,,,0.0,2.0,0.0,0.0,2.0,4.0,16.666666,,,,,,,,2.0,0.0,0.729979,0.158447,0.6601560000000001,0.07885700000000001,0.933608,-0.339361,-0.075196,-0.029393,-0.030282,-0.010917,,,,,,,,,,,,,,,,,,,,,,,,,,,,,,,,,,,,,,,,,,,,,,,,,,,,,,,,,,,,,,,,,
4058,1645900031.092288,1645900031.1170099,5.0,0.0,4264.102539,4518.461426,4241.538574,4207.179688,4299.487305,450.0,1.0,15.0,,,,0.0,2.0,0.0,0.0,2.0,4.0,16.666666,,,,,,,,,,,,,,,,,,,,,,,,,,,,,,,,,,,,,,,,,,,,,,,,,,,,,,,,,,,,,,,,,,,,,,,,,,,,,,,,,,,,
4059,1645900031.100101,1645900031.124924,6.0,0.0,4298.974121,4581.025879,4239.487305,4195.384765999999,4280.512695,0.0,1.0,15.0,,,,0.0,2.0,0.0,0.0,4.0,4.0,16.666666,,,,,,,,3.0,0.0,0.729979,0.158447,0.6601560000000001,0.07885700000000001,0.951675,-0.340337,-0.07324299999999999,-0.029725,-0.030281,-0.012169,1.0,0.0,0.0,,,,,,,,,,,,,,,,,,,,,,,,,,,,,,,,0.0,0.0,1.0,0.0,512.0,0.333941,103.48041500000001,56.036609999999996,13.572574,4.541564,3.327532,76.982948,64.140396,15.471216,14.277429999999999,20.306875,87.956047,54.469234,75.607208,35.689674,20.005951,9.943547,14.721189,11.591232000000002,11.094544,6.785492999999999,82.17675799999999,13.116257000000001,11.223134,4.659294999999999,4.682840000000001
4060,1645900031.107914,1645900031.132739,7.0,0.0,4342.563965,4667.179688,4178.461426,4190.769043,4228.717772999999,450.0,1.0,15.0,,,,0.0,2.0,0.0,0.0,4.0,4.0,16.666666,,,,,,,,,,,,,,,,,,,,,,,,,,,,,,,,,,,,,,,,,,,,,,,,,,,,,,,,,,,,,,,,,,,,,,,,,,,,,,,,,,,,
4061,1645900031.115727,1645900031.140554,8.0,0.0,4328.717772999999,4657.436035,4223.077147999999,4160.512695,4247.692383,450.0,1.0,15.0,,,,0.0,2.0,0.0,0.0,4.0,4.0,16.666666,,,,,,,,4.0,0.0,0.729979,0.158447,0.6601560000000001,0.07885700000000001,0.945327,-0.34521999999999997,-0.078614,-0.029927,-0.030182999999999998,-0.013345,,,,,,,,,,,,,,,,,,,,,,,,,,,,,,,,,,,,,,,,,,,,,,,,,,,,,,,,,,,,,,,,,
4062,1645900031.12354,1645900031.1483688,9.0,0.0,4303.589844,4636.922852000001,4280.0,4099.487305,4313.846191,287.0,1.0,15.0,,,,0.0,2.0,0.0,0.0,4.0,4.0,16.666666,,,,,,,,,,,,,,,,,,,,,,,,,,,,,,,,,,,,,,,,,,,,,,,,,,,,,,,,,,,,,,,,,,,,,,,,,,,,,,,,,,,,
4063,1645900031.131353,1645900031.156184,10.0,0.0,4290.256348,4644.615234000001,4205.128418,4087.6923829999996,4305.128418,450.0,1.0,15.0,,,,0.0,2.0,0.0,0.0,4.0,4.0,16.666666,,,,,,,,5.0,0.0,0.730006,0.158447,0.6601560000000001,0.078613,0.941421,-0.32910700000000004,-0.07324299999999999,-0.030157,-0.030192,-0.014452000000000001,,,,,,,,,,,,,,,,,,,,,,,,,,,,,,,,,,,0.0,0.0,1.0,0.0,512.0,0.333941,,,,,,,,,,,,,,,,,,,,,,,,,
4064,1645900031.139166,1645900031.163999,11.0,0.0,4275.897461,4615.384765999999,4042.0512700000004,4177.94873,4272.820313,16087.0,1.0,15.0,,,,0.0,2.0,0.0,0.0,4.0,4.0,16.666666,,,,,,,,,,,,,,,,,,,,,,,,,,,,,,,,,,,,,,,,,,,,,,,,,,,,,,,,,,,,,,,,,,,,,,,,,,,,,,,,,,,,
4065,1645900031.1469789,1645900031.171814,12.0,0.0,4260.512695,4545.128418,4033.3332520000004,4245.641113000001,4261.025879,450.0,1.0,15.0,,,,0.0,2.0,0.0,0.0,4.0,4.0,16.666666,,,,,,,,6.0,0.0,0.729785,0.158447,0.6604,0.078613,0.9511860000000001,-0.338872,-0.08105599999999999,-0.030412,-0.030151,-0.012274,,,,,,,,,,,,,,,,,,,,,,,,,,,,,,,,,,,,,,,,,,,,,,,,,,,,,,,,,,,,,,,,,
4066,1645900031.154793,1645900031.1796288,13.0,0.0,4297.436035,4516.922852000001,4126.666504,4216.922852000001,4235.897461,450.0,1.0,15.0,,,,0.0,2.0,0.0,0.0,4.0,4.0,16.666666,,,,,,,,,,,,,,,,,,,,,,,,,,,,,,,,,,,,,,,,,,,,,,,,,,,,,,,,,,,,,,,,,,,,,,,,,,,,,,,,,,,,
4067,1645900031.162606,1645900031.187444,14.0,0.0,4330.256348,4495.384765999999,4164.102539,4186.153809,4201.538574,450.0,1.0,15.0,,,,0.0,2.0,0.0,0.0,4.0,4.0,16.666666,,,,,,,,7.0,0.0,0.7298640000000001,0.158203,0.6604,0.07836900000000001,0.936049,-0.326665,-0.07910299999999999,-0.030643,-0.030164,-0.013341999999999998,,,,,,,,,,,,,,,,,,,,,,,,,,,,,,,,,,,0.0,0.0,1.0,0.0,512.0,0.333941,,,,,,,,,,,,,,,,,,,,,,,,,
4068,1645900031.170419,1645900031.195358,15.0,0.0,4320.512695,4499.487305,4195.384765999999,4207.179688,4240.0,16087.0,1.0,15.0,,,,0.0,2.0,0.0,0.0,4.0,4.0,16.666666,,,,,,,,,,,,,,,,,,,,,,,,,,,,,,,,,,,,,,,,,,,,,,,,,,,,,,,,,,,,,,,,,,,,,,,,,,,,,,,,,,,,
4069,1645900031.178232,1645900031.2031732,16.0,0.0,4341.538574,4614.358886999999,4201.538574,4175.384765999999,4286.153809,0.0,1.0,15.0,,,,0.0,2.0,0.0,0.0,4.0,4.0,16.666666,,,,,,,,8.0,0.0,0.7298640000000001,0.158203,0.6604,0.07836900000000001,0.938491,-0.335454,-0.067872,-0.030801,-0.030126,-0.014303,,,,,,,,,,,,,,,,,,,,,,,,,,,,,,,,,,,,,,,,,,,,,,,,,,,,,,,,,,,,,,,,,
4070,1645900031.186045,1645900031.210988,17.0,0.0,4370.769043,4691.794922,4074.358887,4144.102539,4262.05127,0.0,1.0,15.0,,,,0.0,2.0,0.0,0.0,4.0,4.0,16.666666,,,,,,,,,,,,,,,,,,,,,,,,,,,,,,,,,,,,,,,,,,,,,,,,,,,,,,,,,,,,,,,,,,,,,,,,,,,,,,,,,,,,
4071,1645900031.193858,1645900031.218803,18.0,0.0,4306.666504,4617.94873,4054.8718259999996,4176.922852000001,4242.563965,0.0,1.0,15.0,,,,0.0,2.0,0.0,0.0,4.0,4.0,16.666666,,,,,,,,9.0,0.0,0.7298640000000001,0.158203,0.6604,0.07836900000000001,0.959976,-0.338872,-0.081544,-0.030846,-0.030188999999999997,-0.015166999999999998,,,,,,,,,,,,,,,,,,,,,,,,,,,,,,,,,,,0.0,0.0,1.0,0.0,512.0,0.333941,,,,,,,,,,,,,,,,,,,,,,,,,
4072,1645900031.2016711,1645900031.226618,19.0,0.0,4258.974121,4574.358886999999,4222.05127,4163.077147999999,4278.974121,0.0,1.0,15.0,,,,0.0,2.0,0.0,0.0,4.0,4.0,16.666666,,,,,,,,,,,,,,,,,,,,,,,,,,,,,,,,,,,,,,,,,,,,,,,,,,,,,,,,,,,,,,,,,,,,,,,,,,,,,,,,,,,,
4073,1645900031.209484,1645900031.234433,20.0,0.0,4299.487305,4647.179688,4268.205078,4153.333496,4293.846191,0.0,1.0,15.0,,,,0.0,2.0,0.0,0.0,4.0,4.0,16.666666,,,,,,,,10.0,0.0,0.7298640000000001,0.158203,0.6604,0.07836900000000001,0.949233,-0.334478,-0.07422000000000001,-0.030983999999999998,-0.030247000000000003,-0.012918,,,,,,,,,,,,,,,,,,,,,,,,,,,,,,,,,,,,,,,,,,,,,,,,,,,,,,,,,,,,,,,,,
4074,1645900031.217297,1645900031.242248,21.0,0.0,4283.077147999999,4627.692383,4194.871582,4223.589844,4264.615234000001,0.0,1.0,15.0,,,,0.0,2.0,0.0,0.0,4.0,4.0,16.666666,,,,,,,,,,,,,,,,,,,,,,,,,,,,,,,,,,,,,,,,,,,,,,,,,,,,,,,,,,,,,,,,,,,,,,,,,,,,,,,,,,,,
4075,1645900031.22511,1645900031.2500632,22.0,0.0,4235.897461,4523.589844,4111.282227000001,4239.487305,4262.563965,0.0,1.0,15.0,,,,0.0,2.0,0.0,0.0,4.0,4.0,16.666666,1.0,16.666666,2.0,0.0,0.0,2.0,2.0,11.0,0.0,0.729943,0.157959,0.6604,0.078125,0.9550930000000001,-0.32959499999999997,-0.075196,-0.031206,-0.030201,-0.013969999999999998,1.0,0.0,0.0,,,,,,,,,,,,,,,,,,,,,,,,,,,,,,,,0.0,0.0,1.0,0.0,512.0,0.303775,73.792664,42.078178,15.433482999999999,3.983232,2.72435,78.77265899999999,60.223282,16.812386,11.027558,17.460499,95.202736,55.339271999999994,117.37710600000001,35.398998,17.478023999999998,14.081888000000001,15.291929000000001,13.841118,10.41281,6.2258569999999995,50.985477,10.748660000000001,11.900875,4.025742,4.115825
4076,1645900031.232923,1645900031.2578769,23.0,0.0,4277.94873,4534.871582,4112.820313,4184.615234000001,4254.358886999999,0.0,1.0,15.0,,,,0.0,2.0,0.0,0.0,4.0,4.0,16.666666,,,,,,,,,,,,,,,,,,,,,,,,,,,,,,,,,,,,,,,,,,,,,,,,,,,,,,,,,,,,,,,,,,,,,,,,,,,,,,,,,,,,
4077,1645900031.240736,1645900031.265792,24.0,0.0,4354.871582,4612.820313,4169.230957,4209.230957,4230.769043,0.0,1.0,15.0,,,,0.0,2.0,0.0,0.0,4.0,4.0,16.666666,,,,,,,,12.0,0.0,0.729943,0.157959,0.6604,0.078125,0.9423969999999999,-0.34521999999999997,-0.088869,-0.031406,-0.03011,-0.011792,,,,,,,,,,,,,,,,,,,,,,,,,,,,,,,,,,,,,,,,,,,,,,,,,,,,,,,,,,,,,,,,,
4078,1645900031.24855,1645900031.273607,25.0,0.0,4370.256348,4642.05127,4237.94873,4216.410156,4245.128418,0.0,1.0,15.0,,,,0.0,2.0,0.0,0.0,4.0,4.0,16.666666,,,,,,,,,,,,,,,,,,,,,,,,,,,,,,,,,,,,,,,,,,,,,,,,,,,,,,,,,,,,,,,,,,,,,,,,,,,,,,,,,,,,
4079,1645900031.2563632,1645900031.2814221,26.0,0.0,4363.589844,4646.666504,4252.820313,4114.358886999999,4305.641113000001,0.0,1.0,15.0,,,,0.0,2.0,0.0,0.0,4.0,4.0,16.666666,,,,,,,,13.0,0.0,0.729943,0.157959,0.6604,0.078125,0.946792,-0.33105999999999997,-0.077638,-0.031537,-0.030126999999999998,-0.013005000000000001,,,,,,,,,,,,,,,,,,,,,,,,,,,,,,,,,,,0.0,0.0,1.0,0.0,512.0,0.303775,,,,,,,,,,,,,,,,,,,,,,,,,
4080,1645900031.264176,1645900031.289237,27.0,0.0,4338.461426,4680.512695,4243.077147999999,4071.281982,4342.563965,0.0,1.0,15.0,,,,0.0,2.0,0.0,0.0,4.0,4.0,16.666666,,,,,,,,,,,,,,,,,,,,,,,,,,,,,,,,,,,,,,,,,,,,,,,,,,,,,,,,,,,,,,,,,,,,,,,,,,,,,,,,,,,,
4081,1645900031.271989,1645900031.297052,28.0,0.0,4298.974121,4675.384765999999,4101.025879,4187.692383,4307.179688,0.0,1.0,15.0,,,,0.0,2.0,0.0,0.0,4.0,4.0,16.666666,,,,,,,,14.0,0.0,0.729943,0.157959,0.6604,0.078125,0.945815,-0.336919,-0.080079,-0.031704,-0.030239,-0.010875,,,,,,,,,,,,,,,,,,,,,,,,,,,,,,,,,,,,,,,,,,,,,,,,,,,,,,,,,,,,,,,,,
4082,1645900031.2798018,1645900031.304867,29.0,0.0,4277.436035,4578.974121,4026.1538090000004,4258.461426,4241.538574,0.0,1.0,15.0,,,,0.0,2.0,0.0,0.0,4.0,4.0,16.666666,,,,,,,,,,,,,,,,,,,,,,,,,,,,,,,,,,,,,,,,,,,,,,,,,,,,,,,,,,,,,,,,,,,,,,,,,,,,,,,,,,,,
4083,1645900031.287615,1645900031.312681,30.0,0.0,4329.743652,4482.563965,4171.282227000001,4209.230957,4256.410156,0.0,1.0,15.0,,,,0.0,2.0,0.0,0.0,4.0,4.0,16.666666,,,,,,,,15.0,0.0,0.729943,0.157959,0.6604,0.078125,0.941421,-0.337407,-0.07422000000000001,-0.031707,-0.030242,-0.012081999999999999,,,,,,,,,,,,,,,,,,,,,,,,,,,,,,,,,,,0.0,0.0,1.0,0.0,512.0,0.303775,,,,,,,,,,,,,,,,,,,,,,,,,
4084,1645900031.295428,1645900031.320496,31.0,0.0,4383.589844,4511.794922,4235.384765999999,4185.128418,4284.615234000001,0.0,1.0,15.0,,,,0.0,2.0,0.0,0.0,4.0,4.0,16.666666,,,,,,,,,,,,,,,,,,,,,,,,,,,,,,,,,,,,,,,,,,,,,,,,,,,,,,,,,,,,,,,,,,,,,,,,,,,,,,,,,,,,
4085,1645900031.303241,1645900031.328311,32.0,0.0,4358.974121,4617.436035,4095.897461,4191.282227000001,4257.436035,0.0,1.0,15.0,,,,0.0,2.0,0.0,0.0,4.0,4.0,16.666666,,,,,,,,16.0,0.0,0.729917,0.157959,0.6604,0.07836900000000001,0.948257,-0.345708,-0.072755,-0.03171,-0.030197,-0.013315,,,,,,,,,,,,,,,,,,,,,,,,,,,,,,,,,,,,,,,,,,,,,,,,,,,,,,,,,,,,,,,,,
4086,1645900031.311054,1645900031.336126,33.0,0.0,4333.333496,4663.077147999999,4058.461426,4132.820313,4263.589844,0.0,1.0,15.0,,,,0.0,2.0,0.0,0.0,4.0,4.0,16.666666,,,,,,,,,,,,,,,,,,,,,,,,,,,,,,,,,,,,,,,,,,,,,,,,,,,,,,,,,,,,,,,,,,,,,,,,,,,,,,,,,,,,
4087,1645900031.318867,1645900031.344041,34.0,0.0,4386.153809,4686.666504,4095.897461,4121.025879,4304.615234000001,0.0,1.0,15.0,,,,0.0,2.0,0.0,0.0,4.0,4.0,16.666666,,,,,,,,17.0,0.0,0.729722,0.157959,0.6606449999999999,0.078125,0.9668120000000001,-0.341314,-0.080079,-0.031957,-0.030205000000000003,-0.014474,,,,,,,,,,,,,,,,,,,,,,,,,,,,,,,,,,,0.0,0.0,1.0,0.0,512.0,0.303775,,,,,,,,,,,,,,,,,,,,,,,,,
4088,1645900031.3266802,1645900031.351856,35.0,0.0,4409.230957,4658.461426,4078.974365,4192.820313,4279.487305,0.0,1.0,15.0,,,,0.0,2.0,0.0,0.0,4.0,4.0,16.666666,,,,,,,,,,,,,,,,,,,,,,,,,,,,,,,,,,,,,,,,,,,,,,,,,,,,,,,,,,,,,,,,,,,,,,,,,,,,,,,,,,,,
