,Timestamp,OriginalTimestamp,EEG.Counter,EEG.Interpolated,EEG.AF3,EEG.T7,EEG.Pz,EEG.T8,EEG.AF4,EEG.RawCq,EEG.Battery,EEG.BatteryPercent,MarkerIndex,MarkerType,MarkerValueInt,EEG.MarkerHardware,CQ.AF3,CQ.T7,CQ.Pz,CQ.T8,CQ.AF4,CQ.Overall,EQ.SampleRateQuality,EQ.OVERALL,EQ.AF3,EQ.T7,EQ.Pz,EQ.T8,EQ.AF4,MOT.CounterMems,MOT.InterpolatedMems,MOT.Q0,MOT.Q1,MOT.Q2,MOT.Q3,MOT.AccX,MOT.AccY,MOT.AccZ,MOT.MagX,MOT.MagY,MOT.MagZ,MC.Action,MC.ActionPower,MC.IsActive,PM.Engagement.IsActive,PM.Engagement.Scaled,PM.Engagement.Raw,PM.Engagement.Min,PM.Engagement.Max,PM.Excitement.IsActive,PM.Excitement.Scaled,PM.Excitement.Raw,PM.Excitement.Min,PM.Excitement.Max,PM.LongTermExcitement,PM.Stress.IsActive,PM.Stress.Scaled,PM.Stress.Raw,PM.Stress.Min,PM.Stress.Max,PM.Relaxation.IsActive,PM.Relaxation.Scaled,PM.Relaxation.Raw,PM.Relaxation.Min,PM.Relaxation.Max,PM.Interest.IsActive,PM.Interest.Scaled,PM.Interest.Raw,PM.Interest.Min,PM.Interest.Max,PM.Focus.IsActive,PM.Focus.Scaled,PM.Focus.Raw,PM.Focus.Min,PM.Focus.Max,FE.BlinkWink,FE.HorizontalEyesDirection,FE.UpperFaceAction,FE.UpperFaceActionPower,FE.LowerFaceAction,FE.LowerFaceActionPower,POW.AF3.Theta,POW.AF3.Alpha,POW.AF3.BetaL,POW.AF3.BetaH,POW.AF3.Gamma,POW.T7.Theta,POW.T7.Alpha,POW.T7.BetaL,POW.T7.BetaH,POW.T7.Gamma,POW.Pz.Theta,POW.Pz.Alpha,POW.Pz.BetaL,POW.Pz.BetaH,POW.Pz.Gamma,POW.T8.Theta,POW.T8.Alpha,POW.T8.BetaL,POW.T8.BetaH,POW.T8.Gamma,POW.AF4.Theta,POW.AF4.Alpha,POW.AF4.BetaL,POW.AF4.BetaH,POW.AF4.Gamma
34300,1645817548.807473,1645817548.855185,13.0,0.0,4306.666504,4607.179688,4171.794922,4283.077147999999,4263.589844,450.0,1.0,15.0,,,,0.0,4.0,0.0,4.0,1.0,4.0,41.666668,,,,,,,,,,,,,,,,,,,,,,,,,,,,,,,,,,,,,,,,,,,,,,,,,,,,,,,,,,,,,,,,,,,,,,,,,,,,,,,,,,,,
34301,1645817548.815286,1645817548.862999,14.0,0.0,4330.769043,4687.179688,4166.153809,4234.871582,4294.871582,450.0,1.0,15.0,,,,0.0,4.0,0.0,4.0,1.0,4.0,41.666668,,,,,,,,7.0,0.0,0.051205999999999995,0.611084,-0.233398,-0.7546390000000001,0.9131,-0.422858,-0.14844000000000002,-0.033462,-0.033516000000000004,-0.03623,,,,,,,,,,,,,,,,,,,,,,,,,,,,,,,,,,,,,,,,,,,,,,,,,,,,,,,,,,,,,,,,,
34302,1645817548.8230991,1645817548.870814,15.0,0.0,4358.461426,4778.461426,4172.307617,4178.461426,4315.897461,16190.0,1.0,15.0,,,,0.0,4.0,0.0,4.0,1.0,4.0,41.666668,,,,,,,,,,,,,,,,,,,,1.0,0.0,0.0,,,,,,,,,,,,,,,,,,,,,,,,,,,,,,,,0.0,0.0,1.0,0.0,512.0,1.0,1.7530430000000001,4.9626660000000005,4.7196419999999994,10.416038,2.540218,33.84708,72.833,105.22816499999999,116.087166,28.435802000000002,2.625393,6.39133,4.986317,13.007810000000001,2.484139,4.9459800000000005,5.235639,13.056917,26.645864000000003,4.433339,3.277507,3.768098,4.981162,4.859417,2.9147060000000002
34303,1645817548.830913,1645817548.878628,16.0,0.0,4358.461426,4730.769043,4184.102539,4174.871582,4314.871582,0.0,1.0,15.0,,,,0.0,4.0,0.0,4.0,1.0,4.0,41.666668,,,,,,,,8.0,0.0,0.049371,0.611328,-0.233154,-0.7546390000000001,0.9116350000000001,-0.41846300000000003,-0.15820599999999999,-0.033485,-0.033583,-0.032021,,,,,,,,,,,,,,,,,,,,,,,,,,,,,,,,,,,,,,,,,,,,,,,,,,,,,,,,,,,,,,,,,
34304,1645817548.838726,1645817548.886442,17.0,0.0,4380.0,4625.128418,4222.563965,4228.717772999999,4325.641113000001,0.0,1.0,15.0,,,,0.0,4.0,0.0,4.0,1.0,4.0,41.666668,,,,,,,,,,,,,,,,,,,,,,,,,,,,,,,,,,,,,,,,,,,,,,,,,,,,,,,,,,,,,,,,,,,,,,,,,,,,,,,,,,,,
34305,1645817548.84654,1645817548.894257,18.0,0.0,4386.666504,4599.487305,4233.333496,4278.974121,4303.589844,0.0,1.0,15.0,,,,0.0,4.0,0.0,4.0,1.0,4.0,41.666668,,,,,,,,9.0,0.0,0.051197,0.611572,-0.23290999999999998,-0.7543949999999999,0.9131,-0.408209,-0.151369,-0.033408,-0.033545,-0.034434,,,,,,,,,,,,,,,,,,,,,,,,,,,,,,,,,,,,,,,,,,,,,,,,,,,,,,,,,,,,,,,,,
34306,1645817548.854353,1645817548.901971,19.0,0.0,4348.717772999999,4628.717772999999,4204.102539,4305.641113000001,4269.230957,0.0,1.0,15.0,,,,0.0,4.0,0.0,4.0,1.0,4.0,41.666668,,,,,,,,,,,,,,,,,,,,,,,,,,,,,,,,,,,,,,,,,,,,,,,,,,,,,,0.0,0.0,1.0,0.0,512.0,1.0,,,,,,,,,,,,,,,,,,,,,,,,,
34307,1645817548.862166,1645817548.909786,20.0,0.0,4316.922852000001,4563.077147999999,4206.153809,4304.102539,4276.410156,0.0,1.0,15.0,,,,0.0,4.0,0.0,4.0,1.0,4.0,41.666668,,,,,,,,10.0,0.0,0.049357,0.611816,-0.23266599999999998,-0.7543949999999999,0.9126120000000001,-0.40576799999999996,-0.152346,-0.033485,-0.033511,-0.036557,,,,,,,,,,,,,,,,,,,,,,,,,,,,,,,,,,,,,,,,,,,,,,,,,,,,,,,,,,,,,,,,,
34308,1645817548.86998,1645817548.9175,21.0,0.0,4332.820313,4532.307617,4218.974121,4292.307617,4283.077147999999,0.0,1.0,15.0,,,,0.0,4.0,0.0,4.0,1.0,4.0,41.666668,,,,,,,,,,,,,,,,,,,,,,,,,,,,,,,,,,,,,,,,,,,,,,,,,,,,,,,,,,,,,,,,,,,,,,,,,,,,,,,,,,,,
34309,1645817548.877793,1645817548.9253151,22.0,0.0,4337.94873,4620.0,4189.743652,4296.922852000001,4291.794922,0.0,1.0,15.0,,,,0.0,4.0,0.0,4.0,1.0,4.0,41.666668,,,,,,,,11.0,0.0,0.048624,0.612061,-0.23217800000000002,-0.7543949999999999,0.916518,-0.391119,-0.152834,-0.033457,-0.033529,-0.032169,,,,,,,,,,,,,,,,,,,,,,,,,,,,,,,,,,,,,,,,,,,,,,,,,,,,,,,,,,,,,,,,,
34310,1645817548.885606,1645817548.9331288,23.0,0.0,4331.794922,4608.717772999999,4168.205078,4253.846191,4305.128418,0.0,1.0,15.0,,,,0.0,4.0,0.0,4.0,1.0,4.0,41.666668,,,,,,,,,,,,,,,,,,,,,,,,,,,,,,,,,,,,,,,,,,,,,,,,,,,,,,0.0,0.0,1.0,0.0,512.0,1.0,,,,,,,,,,,,,,,,,,,,,,,,,
34311,1645817548.89342,1645817548.940944,24.0,0.0,4336.410156,4709.230957,4154.871582,4175.384765999999,4320.512695,0.0,1.0,15.0,,,,0.0,4.0,0.0,4.0,1.0,4.0,41.666668,,,,,,,,12.0,0.0,0.046676,0.612305,-0.231934,-0.7543949999999999,0.8994280000000001,-0.384283,-0.148928,-0.033431999999999996,-0.033496,-0.03447,,,,,,,,,,,,,,,,,,,,,,,,,,,,,,,,,,,,,,,,,,,,,,,,,,,,,,,,,,,,,,,,,
34312,1645817548.901233,1645817548.9487581,25.0,0.0,4305.128418,4791.282227000001,4146.153809,4192.307617,4298.974121,0.0,1.0,15.0,,,,0.0,4.0,0.0,4.0,1.0,4.0,41.666668,,,,,,,,,,,,,,,,,,,,,,,,,,,,,,,,,,,,,,,,,,,,,,,,,,,,,,,,,,,,,,,,,,,,,,,,,,,,,,,,,,,,
34313,1645817548.9090471,1645817548.956572,26.0,0.0,4323.589844,4737.436035,4166.666504,4240.512695,4299.487305,0.0,1.0,15.0,,,,0.0,4.0,0.0,4.0,1.0,4.0,41.666668,,,,,,,,13.0,0.0,0.04904,0.612305,-0.23144499999999998,-0.7543949999999999,0.906752,-0.400885,-0.14648699999999998,-0.03336,-0.033369,-0.036541000000000004,,,,,,,,,,,,,,,,,,,,,,,,,,,,,,,,,,,,,,,,,,,,,,,,,,,,,,,,,,,,,,,,,
34314,1645817548.9168599,1645817548.964387,27.0,0.0,4364.615234000001,4712.820313,4176.922852000001,4235.384765999999,4334.358886999999,0.0,1.0,15.0,,,,0.0,4.0,0.0,4.0,1.0,4.0,41.666668,,,,,,,,,,,,,,,,,,,,,,,,,,,,,,,,,,,,,,,,,,,,,,,,,,,,,,0.0,0.0,1.0,0.0,512.0,1.0,,,,,,,,,,,,,,,,,,,,,,,,,
34315,1645817548.924673,1645817548.9722009,28.0,0.0,4356.410156,4621.538574,4201.025879,4273.333496,4312.307617,0.0,1.0,15.0,,,,0.0,4.0,0.0,4.0,1.0,4.0,41.666668,,,,,,,,14.0,0.0,0.048287000000000004,0.612549,-0.23095700000000002,-0.7543949999999999,0.9160299999999999,-0.410163,-0.156252,-0.033393,-0.033402,-0.038404,,,,,,,,,,,,,,,,,,,,,,,,,,,,,,,,,,,,,,,,,,,,,,,,,,,,,,,,,,,,,,,,,
34316,1645817548.932487,1645817548.979916,29.0,0.0,4353.846191,4560.0,4224.615234000001,4327.179688,4291.794922,0.0,1.0,15.0,,,,0.0,4.0,0.0,4.0,1.0,4.0,41.666668,,,,,,,,,,,,,,,,,,,,,,,,,,,,,,,,,,,,,,,,,,,,,,,,,,,,,,,,,,,,,,,,,,,,,,,,,,,,,,,,,,,,
34317,1645817548.9403,1645817548.98773,30.0,0.0,4367.179688,4540.512695,4224.615234000001,4326.666504,4302.563965,0.0,1.0,15.0,,,,0.0,4.0,0.0,4.0,1.0,4.0,41.666668,,,,,,,,15.0,0.0,0.045563,0.612549,-0.230713,-0.7546390000000001,0.9121229999999999,-0.391608,-0.140627,-0.033520999999999995,-0.033479,-0.033831,,,,,,,,,,,,,,,,,,,,,,,,,,,,,,,,,,,,,,,,,,,,,,,,,,,,,,,,,,,,,,,,,
34318,1645817548.9481142,1645817548.995544,31.0,0.0,4348.205078,4535.384765999999,4210.256348,4325.128418,4294.358886999999,0.0,1.0,15.0,,,,0.0,4.0,0.0,4.0,1.0,4.0,41.666668,,,,,,,,,,,,,,,,,,,,1.0,0.0,0.0,,,,,,,,,,,,,,,,,,,,,,,,,,,,,,,,0.0,0.0,1.0,0.0,512.0,1.0,1.9216080000000002,4.94364,4.792688,10.925796,2.464359,36.554699,78.905182,89.372101,125.00149499999999,30.771627000000002,2.6352919999999997,6.26382,4.070651,14.360407999999998,2.655565,5.353603,5.9544809999999995,9.36316,28.526699,4.760826,3.771314,4.652565,4.398417,5.266244,2.844104
34319,1645817548.955927,1645817549.003359,32.0,0.0,4313.333496,4561.025879,4197.94873,4323.077147999999,4270.769043,0.0,1.0,15.0,,,,0.0,4.0,0.0,4.0,1.0,4.0,41.666668,,,,,,,,16.0,0.0,0.046782,0.612549,-0.230469,-0.7546390000000001,0.916518,-0.40283800000000003,-0.14551,-0.033538,-0.033402999999999995,-0.035868000000000004,,,,,,,,,,,,,,,,,,,,,,,,,,,,,,,,,,,,,,,,,,,,,,,,,,,,,,,,,,,,,,,,,
34320,1645817548.96374,1645817549.011173,33.0,0.0,4322.563965,4656.922852000001,4190.256348,4282.563965,4293.846191,0.0,1.0,15.0,,,,0.0,4.0,0.0,4.0,1.0,4.0,41.666668,,,,,,,,,,,,,,,,,,,,,,,,,,,,,,,,,,,,,,,,,,,,,,,,,,,,,,,,,,,,,,,,,,,,,,,,,,,,,,,,,,,,
34321,1645817548.9715538,1645817549.0189881,34.0,0.0,4328.717772999999,4688.205078,4177.94873,4270.769043,4321.538574,0.0,1.0,15.0,,,,0.0,4.0,0.0,4.0,1.0,4.0,41.666668,,,,,,,,17.0,0.0,0.046782,0.612549,-0.230469,-0.7546390000000001,0.9126120000000001,-0.406744,-0.15967,-0.033505,-0.033333999999999996,-0.037799,,,,,,,,,,,,,,,,,,,,,,,,,,,,,,,,,,,,,,,,,,,,,,,,,,,,,,,,,,,,,,,,,
34322,1645817548.979367,1645817549.026802,35.0,0.0,4331.794922,4695.384765999999,4166.666504,4268.205078,4310.256348,0.0,1.0,15.0,,,,0.0,4.0,0.0,4.0,1.0,4.0,41.666668,,,,,,,,,,,,,,,,,,,,,,,,,,,,,,,,,,,,,,,,,,,,,,,,,,,,,,0.0,0.0,1.0,0.0,512.0,1.0,,,,,,,,,,,,,,,,,,,,,,,,,
34323,1645817548.987181,1645817549.034617,36.0,0.0,4351.794922,4809.230957,4169.230957,4229.230957,4313.846191,0.0,1.0,15.0,,,,0.0,4.0,0.0,4.0,1.0,4.0,41.666668,,,,,,,,18.0,0.0,0.046782,0.612549,-0.230469,-0.7546390000000001,0.91017,-0.397467,-0.156252,-0.033474000000000004,-0.033320999999999996,-0.039439,,,,,,,,,,,,,,,,,,,,,,,,,,,,,,,,,,,,,,,,,,,,,,,,,,,,,,,,,,,,,,,,,
34324,1645817548.994994,1645817549.042431,37.0,0.0,4358.461426,4836.410156,4173.846191,4202.563965,4329.230957,0.0,1.0,15.0,,,,0.0,4.0,0.0,4.0,1.0,4.0,41.666668,,,,,,,,,,,,,,,,,,,,,,,,,,,,,,,,,,,,,,,,,,,,,,,,,,,,,,,,,,,,,,,,,,,,,,,,,,,,,,,,,,,,
34325,1645817549.002808,1645817549.050145,38.0,0.0,4341.025879,4801.538574,4158.974121,4205.128418,4332.307617,0.0,1.0,15.0,,,,0.0,4.0,0.0,4.0,1.0,4.0,41.666668,,,,,,,,19.0,0.0,0.046782,0.612549,-0.230469,-0.7546390000000001,0.916518,-0.40283800000000003,-0.14551,-0.033447000000000005,-0.033212,-0.041062,,,,,,,,,,,,,,,,,,,,,,,,,,,,,,,,,,,,,,,,,,,,,,,,,,,,,,,,,,,,,,,,,
34326,1645817549.010621,1645817549.05796,39.0,0.0,4354.871582,4772.820313,4175.384765999999,4223.589844,4339.487305,0.0,1.0,15.0,,,,0.0,4.0,0.0,4.0,1.0,4.0,41.666668,,,,,,,,,,,,,,,,,,,,,,,,,,,,,,,,,,,,,,,,,,,,,,,,,,,,,,0.0,0.0,1.0,0.0,512.0,1.0,,,,,,,,,,,,,,,,,,,,,,,,,
34327,1645817549.018434,1645817549.065774,40.0,0.0,4385.641113000001,4727.179688,4208.205078,4257.436035,4330.256348,0.0,1.0,15.0,,,,0.0,4.0,0.0,4.0,1.0,4.0,41.666668,,,,,,,,20.0,0.0,0.046782,0.612549,-0.230469,-0.7546390000000001,0.91017,-0.397467,-0.156252,-0.033423,-0.033211000000000004,-0.042376,,,,,,,,,,,,,,,,,,,,,,,,,,,,,,,,,,,,,,,,,,,,,,,,,,,,,,,,,,,,,,,,,
34328,1645817549.026248,1645817549.073589,41.0,0.0,4367.179688,4695.897461,4202.563965,4266.153809,4284.615234000001,0.0,1.0,15.0,,,,0.0,4.0,0.0,4.0,1.0,4.0,41.666668,,,,,,,,,,,,,,,,,,,,,,,,,,,,,,,,,,,,,,,,,,,,,,,,,,,,,,,,,,,,,,,,,,,,,,,,,,,,,,,,,,,,
34329,1645817549.034061,1645817549.081403,42.0,0.0,4350.769043,4746.666504,4183.589844,4244.615234000001,4278.974121,0.0,1.0,15.0,,,,0.0,4.0,0.0,4.0,1.0,4.0,41.666668,,,,,,,,21.0,0.0,0.046782,0.612549,-0.230469,-0.7546390000000001,0.909682,-0.407233,-0.15332300000000001,-0.033401,-0.03321,-0.037406,,,,,,,,,,,,,,,,,,,,,,,,,,,,,,,,,,,,,,,,,,,,,,,,,,,,,,,,,,,,,,,,,
34330,1645817549.041875,1645817549.089217,43.0,0.0,4372.307617,4678.461426,4208.717772999999,4281.025879,4315.384765999999,0.0,1.0,15.0,,,,0.0,4.0,0.0,4.0,1.0,4.0,41.666668,,,,,,,,,,,,,,,,,,,,,,,,,,,,,,,,,,,,,,,,,,,,,,,,,,,,,,0.0,0.0,1.0,0.0,512.0,1.0,,,,,,,,,,,,,,,,,,,,,,,,,
34331,1645817549.049688,1645817549.097032,44.0,0.0,4369.230957,4534.358886999999,4226.666504,4313.846191,4302.563965,0.0,1.0,15.0,,,,0.0,4.0,0.0,4.0,1.0,4.0,41.666668,,,,,,,,22.0,0.0,0.048734,0.612305,-0.230713,-0.7546390000000001,0.9267719999999999,-0.40283800000000003,-0.156252,-0.033283999999999994,-0.033306999999999996,-0.03928,,,,,,,,,,,,,,,,,,,,,,,,,,,,,,,,,,,,,,,,,,,,,,,,,,,,,,,,,,,,,,,,,
34332,1645817549.057501,1645817549.104846,45.0,0.0,4338.461426,4556.410156,4211.794922,4291.282227000001,4276.922852000001,0.0,1.0,15.0,,,,0.0,4.0,0.0,4.0,1.0,4.0,41.666668,,,,,,,,,,,,,,,,,,,,,,,,,,,,,,,,,,,,,,,,,,,,,,,,,,,,,,,,,,,,,,,,,,,,,,,,,,,,,,,,,,,,
34333,1645817549.065315,1645817549.112661,46.0,0.0,4331.794922,4613.846191,4195.897461,4265.641113000001,4291.794922,0.0,1.0,15.0,,,,0.0,4.0,0.0,4.0,1.0,4.0,41.666668,,,,,,,,23.0,0.0,0.048734,0.612305,-0.230713,-0.7546390000000001,0.9043110000000001,-0.388678,-0.150881,-0.033178,-0.033346,-0.034571,,,,,,,,,,,,,,,,,,,,,,,,,,,,,,,,,,,,,,,,,,,,,,,,,,,,,,,,,,,,,,,,,
34334,1645817549.073128,1645817549.120375,47.0,0.0,4321.538574,4640.512695,4166.666504,4243.589844,4308.717772999999,0.0,1.0,15.0,,,,0.0,4.0,0.0,4.0,1.0,4.0,41.666668,,,,,,,,,,,,,,,,,,,,1.0,0.0,0.0,,,,,,,,,,,,,,,,,,,,,,,,,,,,,,,,0.0,0.0,1.0,0.0,512.0,1.0,2.383159,5.083024,5.021496,11.192177000000001,2.3483650000000003,40.034012,88.27825899999999,84.042458,136.73461899999998,33.332127,2.573914,5.922276999999999,3.63427,15.243210000000001,2.7254509999999996,5.2325870000000005,6.570031,7.762903,29.897654,5.034708,4.304873000000001,5.74927,3.959825,5.908866000000001,2.7732040000000002
34335,1645817549.080942,1645817549.12819,48.0,0.0,4319.487305,4678.974121,4150.256348,4224.615234000001,4291.282227000001,0.0,1.0,15.0,,,,0.0,4.0,0.0,4.0,1.0,4.0,41.666668,,,,,,,,24.0,0.0,0.047563999999999995,0.612305,-0.23095700000000002,-0.7546390000000001,0.9111469999999999,-0.404303,-0.155764,-0.033229,-0.033283,-0.036632,,,,,,,,,,,,,,,,,,,,,,,,,,,,,,,,,,,,,,,,,,,,,,,,,,,,,,,,,,,,,,,,,
34336,1645817549.0887551,1645817549.1360052,49.0,0.0,4358.461426,4776.410156,4165.641113000001,4220.0,4303.589844,0.0,1.0,15.0,,,,0.0,4.0,0.0,4.0,1.0,4.0,41.666668,,,,,,,,,,,,,,,,,,,,,,,,,,,,,,,,,,,,,,,,,,,,,,,,,,,,,,,,,,,,,,,,,,,,,,,,,,,,,,,,,,,,
34337,1645817549.0965679,1645817549.1438189,50.0,0.0,4372.307617,4686.153809,4207.692383,4221.538574,4327.179688,0.0,1.0,15.0,,,,0.0,4.0,0.0,4.0,1.0,4.0,41.666668,,,,,,,,25.0,0.0,0.046362,0.612305,-0.23120100000000002,-0.7546390000000001,0.906752,-0.392584,-0.155764,-0.033276,-0.033226,-0.038535,,,,,,,,,,,,,,,,,,,,,,,,,,,,,,,,,,,,,,,,,,,,,,,,,,,,,,,,,,,,,,,,,
34338,1645817549.104382,1645817549.151634,51.0,0.0,4348.205078,4493.846191,4230.256348,4247.179688,4289.743652,0.0,1.0,15.0,,,,0.0,4.0,0.0,4.0,1.0,4.0,41.666668,,,,,,,,,,,,,,,,,,,,,,,,,,,,,,,,,,,,,,,,,,,,,,,,,,,,,,0.0,0.0,1.0,0.0,512.0,1.0,,,,,,,,,,,,,,,,,,,,,,,,,
34339,1645817549.112195,1645817549.159449,52.0,0.0,4334.871582,4474.871582,4223.077147999999,4296.410156,4252.820313,0.0,1.0,15.0,,,,0.0,4.0,0.0,4.0,1.0,4.0,41.666668,,,,,,,,26.0,0.0,0.050178,0.612305,-0.23120100000000002,-0.7543949999999999,0.917006,-0.40528000000000003,-0.147951,-0.03322,-0.033224000000000004,-0.0339,,,,,,,,,,,,,,,,,,,,,,,,,,,,,,,,,,,,,,,,,,,,,,,,,,,,,,,,,,,,,,,,,
34340,1645817549.120009,1645817549.167263,53.0,0.0,4340.512695,4575.897461,4207.692383,4294.871582,4267.692383,0.0,1.0,15.0,,,,0.0,4.0,0.0,4.0,1.0,4.0,41.666668,,,,,,,,,,,,,,,,,,,,,,,,,,,,,,,,,,,,,,,,,,,,,,,,,,,,,,,,,,,,,,,,,,,,,,,,,,,,,,,,,,,,
34341,1645817549.1278222,1645817549.175078,54.0,0.0,4323.589844,4609.230957,4189.743652,4265.128418,4289.743652,0.0,1.0,15.0,,,,0.0,4.0,0.0,4.0,1.0,4.0,41.666668,,,,,,,,27.0,0.0,0.050178,0.612305,-0.23120100000000002,-0.7543949999999999,0.909682,-0.40283800000000003,-0.14648699999999998,-0.033169,-0.033222,-0.035930000000000004,,,,,,,,,,,,,,,,,,,,,,,,,,,,,,,,,,,,,,,,,,,,,,,,,,,,,,,,,,,,,,,,,
34342,1645817549.135635,1645817549.182893,55.0,0.0,4304.102539,4491.794922,4186.666504,4285.128418,4271.794922,0.0,1.0,15.0,,,,0.0,4.0,0.0,4.0,1.0,4.0,41.666668,,,,,,,,,,,,,,,,,,,,,,,,,,,,,,,,,,,,,,,,,,,,,,,,,,,,,,0.0,0.0,1.0,0.0,512.0,1.0,,,,,,,,,,,,,,,,,,,,,,,,,
34343,1645817549.143449,1645817549.190707,56.0,0.0,4327.179688,4626.666504,4158.974121,4206.666504,4286.153809,0.0,1.0,15.0,,,,0.0,4.0,0.0,4.0,1.0,4.0,41.666668,,,,,,,,28.0,0.0,0.047105,0.612549,-0.23120100000000002,-0.7543949999999999,0.922866,-0.392584,-0.134768,-0.03327,-0.03322,-0.031605,,,,,,,,,,,,,,,,,,,,,,,,,,,,,,,,,,,,,,,,,,,,,,,,,,,,,,,,,,,,,,,,,
34344,1645817549.1512618,1645817549.198422,57.0,0.0,4335.384765999999,4789.743652,4129.743652,4046.1538090000004,4301.538574,0.0,1.0,15.0,,,,0.0,4.0,0.0,4.0,1.0,4.0,41.666668,,,,,,,,,,,,,,,,,,,,,,,,,,,,,,,,,,,,,,,,,,,,,,,,,,,,,,,,,,,,,,,,,,,,,,,,,,,,,,,,,,,,
34345,1645817549.159076,1645817549.206236,58.0,0.0,4350.769043,4722.563965,4152.307617,4053.3332520000004,4285.641113000001,0.0,1.0,15.0,,,,0.0,4.0,0.0,4.0,1.0,4.0,41.666668,,,,,,,,29.0,0.0,0.050178,0.612305,-0.23120100000000002,-0.7543949999999999,0.91017,-0.400397,-0.143557,-0.033264,-0.033218,-0.033962,,,,,,,,,,,,,,,,,,,,,,,,,,,,,,,,,,,,,,,,,,,,,,,,,,,,,,,,,,,,,,,,,
34346,1645817549.166889,1645817549.214051,59.0,0.0,4384.102539,4715.384765999999,4182.563965,4212.820313,4294.871582,0.0,1.0,15.0,,,,0.0,4.0,0.0,4.0,1.0,4.0,41.666668,,,,,,,,,,,,,,,,,,,,,,,,,,,,,,,,,,,,,,,,,,,,,,,,,,,,,,0.0,0.0,1.0,0.0,512.0,1.0,,,,,,,,,,,,,,,,,,,,,,,,,
34347,1645817549.174702,1645817549.221865,60.0,0.0,4391.794922,4713.846191,4200.0,4310.256348,4301.025879,0.0,1.0,15.0,,,,0.0,4.0,0.0,4.0,1.0,4.0,41.666668,,,,,,,,30.0,0.0,0.050178,0.612305,-0.23120100000000002,-0.7543949999999999,0.9131,-0.40283800000000003,-0.147951,-0.033257999999999996,-0.033168,-0.029882,,,,,,,,,,,,,,,,,,,,,,,,,,,,,,,,,,,,,,,,,,,,,,,,,,,,,,,,,,,,,,,,,
34348,1645817549.182516,1645817549.2296789,61.0,0.0,4368.717772999999,4617.94873,4198.461426,4306.153809,4296.922852000001,0.0,1.0,15.0,,,,0.0,4.0,0.0,4.0,1.0,4.0,41.666668,,,,,,,,,,,,,,,,,,,,,,,,,,,,,,,,,,,,,,,,,,,,,,,,,,,,,,,,,,,,,,,,,,,,,,,,,,,,,,,,,,,,
34349,1645817549.1903288,1645817549.237494,62.0,0.0,4358.461426,4511.794922,4205.128418,4292.820313,4293.333496,0.0,1.0,15.0,,,,0.0,4.0,0.0,4.0,1.0,4.0,41.666668,,,,,,,,31.0,0.0,0.050178,0.612305,-0.23120100000000002,-0.7543949999999999,0.9004040000000001,-0.413092,-0.151858,-0.033202999999999996,-0.033123,-0.03246,,,,,,,,,,,,,,,,,,,,,,,,,,,,,,,,,,,,,,,,,,,,,,,,,,,,,,,,,,,,,,,,,
34350,1645817549.198143,1645817549.245308,63.0,0.0,4366.153809,4602.05127,4205.128418,4252.820313,4294.871582,0.0,1.0,15.0,,,,0.0,4.0,0.0,4.0,1.0,4.0,41.666668,1.0,16.666666,3.0,0.0,2.0,0.0,3.0,,,,,,,,,,,,,1.0,0.0,0.0,,,,,,,,,,,,,,,,,,,,,,,,,,,,,,,,0.0,0.0,1.0,0.0,512.0,1.0,2.858177,5.239023,5.271968,11.159725,2.238484,45.61306,97.602135,87.298935,146.87025500000001,36.134167,2.5030580000000002,5.6554269999999995,3.8649940000000003,15.276838,2.716472,4.626258999999999,7.174611,8.551463,30.386244,5.197096,4.721353,6.637303999999999,3.6591910000000003,6.58604,2.730532
34351,1645817549.205956,1645817549.253123,64.0,0.0,4339.487305,4646.153809,4182.05127,4204.102539,4286.666504,450.0,1.0,15.0,,,,0.0,4.0,0.0,4.0,1.0,4.0,41.666668,,,,,,,,32.0,0.0,0.049481,0.612061,-0.23120100000000002,-0.7546390000000001,0.8999159999999999,-0.42432299999999995,-0.14551,-0.033301,-0.033082,-0.034781,,,,,,,,,,,,,,,,,,,,,,,,,,,,,,,,,,,,,,,,,,,,,,,,,,,,,,,,,,,,,,,,,
34352,1645817549.213769,1645817549.260937,65.0,0.0,4338.974121,4602.563965,4169.743652,4173.846191,4283.589844,450.0,1.0,15.0,,,,0.0,4.0,0.0,4.0,1.0,4.0,41.666668,,,,,,,,,,,,,,,,,,,,,,,,,,,,,,,,,,,,,,,,,,,,,,,,,,,,,,,,,,,,,,,,,,,,,,,,,,,,,,,,,,,,
34353,1645817549.221583,1645817549.268652,66.0,0.0,4363.077147999999,4722.563965,4169.230957,4133.846191,4310.769043,16214.0,1.0,15.0,,,,0.0,4.0,0.0,4.0,1.0,4.0,41.666668,,,,,,,,33.0,0.0,0.048326,0.612061,-0.23144499999999998,-0.7546390000000001,0.9072399999999999,-0.40381500000000004,-0.148928,-0.033389,-0.033045,-0.036918,,,,,,,,,,,,,,,,,,,,,,,,,,,,,,,,,,,,,,,,,,,,,,,,,,,,,,,,,,,,,,,,,
34354,1645817549.229396,1645817549.2764661,67.0,0.0,4363.589844,4745.128418,4165.128418,4020.0,4309.743652,450.0,1.0,15.0,,,,0.0,4.0,0.0,4.0,1.0,4.0,41.666668,,,,,,,,,,,,,,,,,,,,,,,,,,,,,,,,,,,,,,,,,,,,,,,,,,,,,,0.0,0.0,1.0,0.0,512.0,1.0,,,,,,,,,,,,,,,,,,,,,,,,,
34355,1645817549.23721,1645817549.28428,68.0,0.0,4368.717772999999,4750.256348,4150.769043,3923.076904,4301.538574,17.0,1.0,15.0,,,,0.0,4.0,0.0,4.0,1.0,4.0,41.666668,,,,,,,,34.0,0.0,0.048326,0.612061,-0.23144499999999998,-0.7546390000000001,0.922377,-0.409186,-0.144533,-0.03337,-0.032963,-0.032543,,,,,,,,,,,,,,,,,,,,,,,,,,,,,,,,,,,,,,,,,,,,,,,,,,,,,,,,,,,,,,,,,
34356,1645817549.245023,1645817549.292095,69.0,0.0,4384.615234000001,4685.128418,4188.205078,4068.718018,4317.436035,450.0,1.0,15.0,,,,0.0,4.0,0.0,4.0,1.0,4.0,41.666668,,,,,,,,,,,,,,,,,,,,,,,,,,,,,,,,,,,,,,,,,,,,,,,,,,,,,,,,,,,,,,,,,,,,,,,,,,,,,,,,,,,,
34357,1645817549.252836,1645817549.2999089,70.0,0.0,4391.282227000001,4484.615234000001,4246.153809,4310.256348,4314.871582,16090.0,1.0,15.0,,,,0.0,4.0,0.0,4.0,1.0,4.0,41.666668,,,,,,,,35.0,0.0,0.048326,0.612061,-0.23144499999999998,-0.7546390000000001,0.918959,-0.40235,-0.154788,-0.033402999999999995,-0.033036,-0.034756999999999996,,,,,,,,,,,,,,,,,,,,,,,,,,,,,,,,,,,,,,,,,,,,,,,,,,,,,,,,,,,,,,,,,
34358,1645817549.26065,1645817549.307724,71.0,0.0,4357.94873,4397.94873,4244.102539,4341.538574,4292.820313,450.0,1.0,15.0,,,,0.0,4.0,0.0,4.0,1.0,4.0,41.666668,,,,,,,,,,,,,,,,,,,,,,,,,,,,,,,,,,,,,,,,,,,,,,,,,,,,,,0.0,0.0,1.0,0.0,512.0,1.0,,,,,,,,,,,,,,,,,,,,,,,,,
34359,1645817549.2684631,1645817549.3155382,72.0,0.0,4333.846191,4508.717772999999,4215.384765999999,4257.94873,4287.692383,450.0,1.0,15.0,,,,0.0,4.0,0.0,4.0,1.0,4.0,41.666668,,,,,,,,36.0,0.0,0.048326,0.612061,-0.23144499999999998,-0.7546390000000001,0.922377,-0.411627,-0.155276,-0.03348,-0.033004,-0.036897000000000006,,,,,,,,,,,,,,,,,,,,,,,,,,,,,,,,,,,,,,,,,,,,,,,,,,,,,,,,,,,,,,,,,
34360,1645817549.2762759,1645817549.3233519,73.0,0.0,4344.102539,4637.436035,4201.538574,4222.563965,4317.94873,48.0,1.0,15.0,,,,0.0,4.0,0.0,4.0,1.0,4.0,41.666668,,,,,,,,,,,,,,,,,,,,,,,,,,,,,,,,,,,,,,,,,,,,,,,,,,,,,,,,,,,,,,,,,,,,,,,,,,,,,,,,,,,,
34361,1645817549.28409,1645817549.331167,74.0,0.0,4349.230957,4618.461426,4194.358886999999,4213.846191,4318.974121,450.0,1.0,15.0,,,,0.0,4.0,0.0,4.0,1.0,4.0,41.666668,,,,,,,,37.0,0.0,0.048326,0.612061,-0.23144499999999998,-0.7546390000000001,0.922377,-0.393072,-0.14111500000000002,-0.033453,-0.032927,-0.038725,,,,,,,,,,,,,,,,,,,,,,,,,,,,,,,,,,,,,,,,,,,,,,,,,,,,,,,,,,,,,,,,,
34362,1645817549.291903,1645817549.338882,75.0,0.0,4342.563965,4703.589844,4167.179688,4199.487305,4311.794922,16208.0,1.0,15.0,,,,0.0,4.0,0.0,4.0,1.0,4.0,41.666668,,,,,,,,,,,,,,,,,,,,,,,,,,,,,,,,,,,,,,,,,,,,,,,,,,,,,,0.0,0.0,1.0,0.0,512.0,1.0,,,,,,,,,,,,,,,,,,,,,,,,,
34363,1645817549.299717,1645817549.3466961,76.0,0.0,4344.102539,4757.94873,4166.153809,4196.410156,4314.358886999999,450.0,1.0,15.0,,,,0.0,4.0,0.0,4.0,1.0,4.0,41.666668,,,,,,,,38.0,0.0,0.051325,0.611816,-0.23144499999999998,-0.7546390000000001,0.9155409999999999,-0.411627,-0.148928,-0.033379,-0.032905000000000004,-0.03412,,,,,,,,,,,,,,,,,,,,,,,,,,,,,,,,,,,,,,,,,,,,,,,,,,,,,,,,,,,,,,,,,
34364,1645817549.3075302,1645817549.354511,77.0,0.0,4355.384765999999,4748.717772999999,4177.436035,4242.05127,4320.0,450.0,1.0,15.0,,,,0.0,4.0,0.0,4.0,1.0,4.0,41.666668,,,,,,,,,,,,,,,,,,,,,,,,,,,,,,,,,,,,,,,,,,,,,,,,,,,,,,,,,,,,,,,,,,,,,,,,,,,,,,,,,,,,
34365,1645817549.3153439,1645817549.362325,78.0,0.0,4338.974121,4704.102539,4165.128418,4281.538574,4303.077147999999,450.0,1.0,15.0,,,,0.0,4.0,0.0,4.0,1.0,4.0,41.666668,,,,,,,,39.0,0.0,0.047599,0.611816,-0.23144499999999998,-0.754883,0.9028459999999999,-0.400397,-0.148928,-0.03341,-0.032984,-0.030024000000000002,,,,,,,,,,,,,,,,,,,,,,,,,,,,,,,,,,,,,,,,,,,,,,,,,,,,,,,,,,,,,,,,,
34366,1645817549.323157,1645817549.37014,79.0,0.0,4349.743652,4662.05127,4182.563965,4225.128418,4288.205078,16208.0,1.0,15.0,,,,0.0,4.0,0.0,4.0,1.0,4.0,41.666668,,,,,,,,,,,,,,,,,,,,1.0,0.0,0.0,,,,,,,,,,,,,,,,,,,,,,,,,,,,,,,,0.0,0.0,1.0,0.0,512.0,1.0,3.224928,5.3281339999999995,5.5978699999999995,10.822837,2.179698,55.055859,105.49954199999999,97.31549100000001,151.17558300000002,38.914124,2.460646,5.858546,5.010118,14.330959,2.658465,3.855196,8.385587,12.167423,29.897661,5.249587,4.930887,6.997712,3.5707940000000002,7.070538000000001,2.726241
34367,1645817549.3309698,1645817549.377955,80.0,0.0,4372.820313,4693.846191,4208.205078,4170.256348,4304.102539,450.0,1.0,15.0,,,,0.0,4.0,0.0,4.0,1.0,4.0,41.666668,,,,,,,,40.0,0.0,0.047599,0.611816,-0.23144499999999998,-0.754883,0.905776,-0.410163,-0.14844000000000002,-0.033292,-0.033006,-0.026387,,,,,,,,,,,,,,,,,,,,,,,,,,,,,,,,,,,,,,,,,,,,,,,,,,,,,,,,,,,,,,,,,
34368,1645817549.338784,1645817549.385769,81.0,0.0,4370.256348,4585.128418,4216.410156,4247.179688,4286.666504,450.0,1.0,15.0,,,,0.0,4.0,0.0,4.0,1.0,4.0,41.666668,,,,,,,,,,,,,,,,,,,,,,,,,,,,,,,,,,,,,,,,,,,,,,,,,,,,,,,,,,,,,,,,,,,,,,,,,,,,,,,,,,,,
34369,1645817549.346597,1645817549.393584,82.0,0.0,4358.974121,4498.974121,4212.307617,4295.897461,4258.974121,450.0,1.0,15.0,,,,0.0,4.0,0.0,4.0,1.0,4.0,41.666668,,,,,,,,41.0,0.0,0.05064,0.611572,-0.23144499999999998,-0.754883,0.913588,-0.41455699999999995,-0.14551,-0.033332,-0.033172,-0.029314999999999997,,,,,,,,,,,,,,,,,,,,,,,,,,,,,,,,,,,,,,,,,,,,,,,,,,,,,,,,,,,,,,,,,
34370,1645817549.354411,1645817549.4013991,83.0,0.0,4350.256348,4557.436035,4215.897461,4260.0,4272.307617,16208.0,1.0,15.0,,,,0.0,4.0,0.0,4.0,1.0,4.0,41.666668,,,,,,,,,,,,,,,,,,,,,,,,,,,,,,,,,,,,,,,,,,,,,,,,,,,,,,0.0,0.0,1.0,0.0,512.0,1.0,,,,,,,,,,,,,,,,,,,,,,,,,
34371,1645817549.362224,1645817549.409213,84.0,0.0,4351.282227000001,4613.846191,4210.769043,4251.794922,4308.717772999999,450.0,1.0,15.0,,,,0.0,4.0,0.0,4.0,1.0,4.0,41.666668,,,,,,,,42.0,0.0,0.05064,0.611572,-0.23144499999999998,-0.754883,0.906752,-0.42090500000000003,-0.150881,-0.033319,-0.033175,-0.031999,,,,,,,,,,,,,,,,,,,,,,,,,,,,,,,,,,,,,,,,,,,,,,,,,,,,,,,,,,,,,,,,,
34372,1645817549.3700368,1645817549.4169278,85.0,0.0,4342.05127,4584.615234000001,4193.846191,4227.692383,4307.179688,450.0,1.0,15.0,,,,0.0,4.0,0.0,4.0,1.0,4.0,41.666668,,,,,,,,,,,,,,,,,,,,,,,,,,,,,,,,,,,,,,,,,,,,,,,,,,,,,,,,,,,,,,,,,,,,,,,,,,,,,,,,,,,,
34373,1645817549.377851,1645817549.424742,86.0,0.0,4322.563965,4639.487305,4169.743652,4177.94873,4291.794922,450.0,1.0,15.0,,,,0.0,4.0,0.0,4.0,1.0,4.0,41.666668,,,,,,,,43.0,0.0,0.05064,0.611572,-0.23144499999999998,-0.754883,0.9087049999999999,-0.398444,-0.156252,-0.033259,-0.033227,-0.027969,,,,,,,,,,,,,,,,,,,,,,,,,,,,,,,,,,,,,,,,,,,,,,,,,,,,,,,,,,,,,,,,,
34374,1645817549.385664,1645817549.432557,87.0,0.0,4305.641113000001,4647.692383,4176.922852000001,4293.333496,4295.384765999999,16208.0,1.0,15.0,,,,0.0,4.0,0.0,4.0,1.0,4.0,41.666668,,,,,,,,,,,,,,,,,,,,,,,,,,,,,,,,,,,,,,,,,,,,,,,,,,,,,,0.0,0.0,1.0,0.0,512.0,1.0,,,,,,,,,,,,,,,,,,,,,,,,,
34375,1645817549.393478,1645817549.440371,88.0,0.0,4330.769043,4670.769043,4168.717772999999,4302.05127,4302.563965,450.0,1.0,15.0,,,,0.0,4.0,0.0,4.0,1.0,4.0,41.666668,,,,,,,,44.0,0.0,0.05064,0.611572,-0.23144499999999998,-0.754883,0.9028459999999999,-0.397467,-0.145022,-0.033351,-0.033176,-0.03069,,,,,,,,,,,,,,,,,,,,,,,,,,,,,,,,,,,,,,,,,,,,,,,,,,,,,,,,,,,,,,,,,
34376,1645817549.4012911,1645817549.448185,89.0,0.0,4350.256348,4762.563965,4138.974121,4006.6667479999996,4304.615234000001,450.0,1.0,15.0,,,,0.0,4.0,0.0,4.0,1.0,4.0,41.666668,,,,,,,,,,,,,,,,,,,,,,,,,,,,,,,,,,,,,,,,,,,,,,,,,,,,,,,,,,,,,,,,,,,,,,,,,,,,,,,,,,,,
34377,1645817549.4091039,1645817549.456,90.0,0.0,4367.692383,4543.589844,4241.538574,4409.743652,4293.333496,450.0,1.0,15.0,,,,0.0,4.0,0.0,4.0,1.0,4.0,41.666668,,,,,,,,45.0,0.0,0.049943,0.611328,-0.23144499999999998,-0.755127,0.9111469999999999,-0.40235,-0.156252,-0.033287,-0.033227,-0.033089,,,,,,,,,,,,,,,,,,,,,,,,,,,,,,,,,,,,,,,,,,,,,,,,,,,,,,,,,,,,,,,,,
34378,1645817549.416918,1645817549.463814,91.0,0.0,4364.102539,4463.589844,4291.794922,5163.589844,4272.820313,16208.0,1.0,15.0,,,,0.0,4.0,0.0,4.0,1.0,4.0,41.666668,,,,,,,,,,,,,,,,,,,,,,,,,,,,,,,,,,,,,,,,,,,,,,,,,,,,,,0.0,0.0,1.0,0.0,512.0,1.0,,,,,,,,,,,,,,,,,,,,,,,,,
34379,1645817549.424731,1645817549.471629,92.0,0.0,4317.94873,4595.384765999999,4200.512695,4864.102539,4234.871582,450.0,1.0,15.0,,,,0.0,4.0,0.0,4.0,1.0,4.0,41.666668,,,,,,,,46.0,0.0,0.049943,0.611328,-0.23144499999999998,-0.755127,0.9126120000000001,-0.39942,-0.150393,-0.03323,-0.033176,-0.029048,,,,,,,,,,,,,,,,,,,,,,,,,,,,,,,,,,,,,,,,,,,,,,,,,,,,,,,,,,,,,,,,,
34380,1645817549.432545,1645817549.479443,93.0,0.0,4329.230957,4556.922852000001,4179.487305,4174.871582,4249.230957,450.0,1.0,15.0,,,,0.0,4.0,0.0,4.0,1.0,4.0,41.666668,,,,,,,,,,,,,,,,,,,,,,,,,,,,,,,,,,,,,,,,,,,,,,,,,,,,,,,,,,,,,,,,,,,,,,,,,,,,,,,,,,,,
34381,1645817549.440358,1645817549.487258,94.0,0.0,4352.820313,4499.487305,4210.256348,4226.153809,4304.102539,450.0,1.0,15.0,,,,0.0,4.0,0.0,4.0,1.0,4.0,41.666668,,,,,,,,47.0,0.0,0.05064,0.611572,-0.23144499999999998,-0.754883,0.9028459999999999,-0.397467,-0.145022,-0.033179,-0.033228,-0.031807,,,,,,,,,,,,,,,,,,,,,,,,,,,,,,,,,,,,,,,,,,,,,,,,,,,,,,,,,,,,,,,,,
34382,1645817549.448172,1645817549.494972,95.0,0.0,4327.692383,4562.563965,4169.230957,4374.871582,4288.717772999999,16208.0,1.0,15.0,,,,0.0,4.0,0.0,4.0,1.0,4.0,41.666668,,,,,,,,,,,,,,,,,,,,1.0,0.0,0.0,,,,,,,,,,,,,,,,,,,,,,,,,,,,,,,,0.0,0.0,1.0,0.0,512.0,1.0,3.495435,5.332293,6.166996,10.187591000000001,2.185465,69.432869,111.21048700000001,114.117249,147.038635,41.110489,2.461926,6.742889,7.2981110000000005,12.556142999999999,2.567984,3.4165389999999998,11.296228,20.712882999999998,28.771763,5.297287,4.909218,6.721694,3.7462699999999995,7.178501,2.745548
34383,1645817549.455985,1645817549.502786,96.0,0.0,4317.94873,4600.512695,4149.230957,4194.871582,4268.205078,450.0,1.0,15.0,,,,0.0,4.0,0.0,4.0,1.0,4.0,41.666668,,,,,,,,48.0,0.0,0.049943,0.611328,-0.23144499999999998,-0.755127,0.9126120000000001,-0.39942,-0.150393,-0.033132,-0.033177,-0.027894,,,,,,,,,,,,,,,,,,,,,,,,,,,,,,,,,,,,,,,,,,,,,,,,,,,,,,,,,,,,,,,,,
34384,1645817549.463798,1645817549.510601,97.0,0.0,4369.230957,4671.794922,4192.307617,4171.282227000001,4308.205078,450.0,1.0,15.0,,,,0.0,4.0,0.0,4.0,1.0,4.0,41.666668,,,,,,,,,,,,,,,,,,,,,,,,,,,,,,,,,,,,,,,,,,,,,,,,,,,,,,,,,,,,,,,,,,,,,,,,,,,,,,,,,,,,
34385,1645817549.471612,1645817549.518415,98.0,0.0,4390.769043,4852.820313,4171.794922,4189.743652,4323.077147999999,450.0,1.0,15.0,,,,0.0,4.0,0.0,4.0,1.0,4.0,41.666668,,,,,,,,49.0,0.0,0.049943,0.611328,-0.23144499999999998,-0.755127,0.9150530000000001,-0.407233,-0.153811,-0.033237,-0.03313,-0.024421,,,,,,,,,,,,,,,,,,,,,,,,,,,,,,,,,,,,,,,,,,,,,,,,,,,,,,,,,,,,,,,,,
34386,1645817549.479425,1645817549.52623,99.0,0.0,4356.410156,4698.461426,4169.743652,4214.871582,4272.307617,16208.0,1.0,15.0,,,,0.0,4.0,0.0,4.0,1.0,4.0,41.666668,,,,,,,,,,,,,,,,,,,,,,,,,,,,,,,,,,,,,,,,,,,,,,,,,,,,,,0.0,0.0,1.0,0.0,512.0,1.0,,,,,,,,,,,,,,,,,,,,,,,,,
34387,1645817549.4872382,1645817549.534044,100.0,0.0,4336.922852000001,4541.025879,4206.153809,4303.589844,4253.333496,450.0,1.0,15.0,,,,0.0,4.0,0.0,4.0,1.0,4.0,41.666668,,,,,,,,50.0,0.0,0.049943,0.611328,-0.23144499999999998,-0.755127,0.9116350000000001,-0.41358100000000003,-0.154788,-0.033331,-0.033089,-0.027399,,,,,,,,,,,,,,,,,,,,,,,,,,,,,,,,,,,,,,,,,,,,,,,,,,,,,,,,,,,,,,,,,
34388,1645817549.4950519,1645817549.541858,101.0,0.0,4338.974121,4588.205078,4219.487305,4295.897461,4266.153809,450.0,1.0,15.0,,,,0.0,4.0,0.0,4.0,1.0,4.0,41.666668,,,,,,,,,,,,,,,,,,,,,,,,,,,,,,,,,,,,,,,,,,,,,,,,,,,,,,,,,,,,,,,,,,,,,,,,,,,,,,,,,,,,
34389,1645817549.502865,1645817549.549673,102.0,0.0,4354.871582,4526.153809,4227.179688,4294.871582,4253.333496,450.0,1.0,15.0,,,,0.0,4.0,0.0,4.0,1.0,4.0,41.666668,,,,,,,,51.0,0.0,0.049943,0.611328,-0.23144499999999998,-0.755127,0.902358,-0.415534,-0.161624,-0.03327,-0.033052,-0.023927,,,,,,,,,,,,,,,,,,,,,,,,,,,,,,,,,,,,,,,,,,,,,,,,,,,,,,,,,,,,,,,,,
34390,1645817549.510679,1645817549.557388,103.0,0.0,4345.128418,4485.641113000001,4226.666504,4304.615234000001,4256.410156,16208.0,1.0,15.0,,,,0.0,4.0,0.0,4.0,1.0,4.0,41.666668,,,,,,,,,,,,,,,,,,,,,,,,,,,,,,,,,,,,,,,,,,,,,,,,,,,,,,0.0,0.0,1.0,0.0,512.0,1.0,,,,,,,,,,,,,,,,,,,,,,,,,
34391,1645817549.518492,1645817549.565202,104.0,0.0,4330.769043,4502.563965,4223.589844,4309.743652,4274.358886999999,450.0,1.0,15.0,,,,0.0,4.0,0.0,4.0,1.0,4.0,41.666668,,,,,,,,52.0,0.0,0.049234,0.611084,-0.23144499999999998,-0.755371,0.906752,-0.398932,-0.148928,-0.033214,-0.033018,-0.027149,,,,,,,,,,,,,,,,,,,,,,,,,,,,,,,,,,,,,,,,,,,,,,,,,,,,,,,,,,,,,,,,,
34392,1645817549.526305,1645817549.573017,105.0,0.0,4329.743652,4579.487305,4189.230957,4268.205078,4304.102539,450.0,1.0,15.0,,,,0.0,4.0,0.0,4.0,1.0,4.0,41.666668,,,,,,,,,,,,,,,,,,,,,,,,,,,,,,,,,,,,,,,,,,,,,,,,,,,,,,,,,,,,,,,,,,,,,,,,,,,,,,,,,,,,
34393,1645817549.534119,1645817549.580832,106.0,0.0,4304.102539,4618.461426,4160.0,4201.538574,4304.102539,450.0,1.0,15.0,,,,0.0,4.0,0.0,4.0,1.0,4.0,41.666668,,,,,,,,53.0,0.0,0.049234,0.611084,-0.23144499999999998,-0.755371,0.9155409999999999,-0.404303,-0.156252,-0.033067,-0.032987999999999996,-0.030099,,,,,,,,,,,,,,,,,,,,,,,,,,,,,,,,,,,,,,,,,,,,,,,,,,,,,,,,,,,,,,,,,
34394,1645817549.541932,1645817549.5886462,107.0,0.0,4320.512695,4680.512695,4164.615234000001,4198.974121,4297.436035,16208.0,1.0,15.0,,,,0.0,4.0,0.0,4.0,1.0,4.0,41.666668,,,,,,,,,,,,,,,,,,,,,,,,,,,,,,,,,,,,,,,,,,,,,,,,,,,,,,0.0,0.0,1.0,0.0,512.0,1.0,,,,,,,,,,,,,,,,,,,,,,,,,
34395,1645817549.549746,1645817549.5964608,108.0,0.0,4351.282227000001,4701.025879,4169.743652,4250.769043,4306.666504,450.0,1.0,15.0,,,,0.0,4.0,0.0,4.0,1.0,4.0,41.666668,,,,,,,,54.0,0.0,0.049234,0.611084,-0.23144499999999998,-0.755371,0.908217,-0.403326,-0.155764,-0.033129,-0.033058,-0.032508999999999996,,,,,,,,,,,,,,,,,,,,,,,,,,,,,,,,,,,,,,,,,,,,,,,,,,,,,,,,,,,,,,,,,
34396,1645817549.557559,1645817549.604276,109.0,0.0,4355.384765999999,4658.974121,4183.589844,4267.179688,4294.871582,450.0,1.0,15.0,,,,0.0,4.0,0.0,4.0,1.0,4.0,41.666668,,,,,,,,,,,,,,,,,,,,,,,,,,,,,,,,,,,,,,,,,,,,,,,,,,,,,,,,,,,,,,,,,,,,,,,,,,,,,,,,,,,,
34397,1645817549.565372,1645817549.61209,110.0,0.0,4345.641113000001,4686.666504,4188.717772999999,4254.358886999999,4289.230957,450.0,1.0,15.0,,,,0.0,4.0,0.0,4.0,1.0,4.0,41.666668,,,,,,,,55.0,0.0,0.049234,0.611084,-0.23144499999999998,-0.755371,0.9155409999999999,-0.382818,-0.152834,-0.033234,-0.033073000000000005,-0.028477,,,,,,,,,,,,,,,,,,,,,,,,,,,,,,,,,,,,,,,,,,,,,,,,,,,,,,,,,,,,,,,,,
34398,1645817549.573186,1645817549.619905,111.0,0.0,4330.256348,4558.461426,4193.333496,4295.897461,4271.282227000001,16208.0,1.0,15.0,,,,0.0,4.0,0.0,4.0,1.0,4.0,41.666668,,,,,,,,,,,,,,,,,,,,1.0,0.0,0.0,,,,,,,,,,,,,,,,,,,,,,,,,,,,,,,,0.0,0.0,1.0,0.0,512.0,1.0,3.772882,5.258305,7.147285000000001,9.264726,2.222585,87.30900600000001,114.74999199999999,140.404404,134.271973,42.116306,2.5072259999999997,8.11102,10.863946,10.324291,2.4515759999999998,3.961418,16.922132,38.015029999999996,28.575765999999998,5.980012,4.718248,5.960243,4.168097,6.829911999999999,2.754653
34399,1645817549.5809991,1645817549.627719,112.0,0.0,4316.922852000001,4474.871582,4193.846191,4326.153809,4241.025879,450.0,1.0,15.0,,,,0.0,4.0,0.0,4.0,1.0,4.0,41.666668,,,,,,,,56.0,0.0,0.049234,0.611084,-0.23144499999999998,-0.755371,0.913588,-0.41406899999999996,-0.152346,-0.033231000000000004,-0.033135000000000005,-0.031098,,,,,,,,,,,,,,,,,,,,,,,,,,,,,,,,,,,,,,,,,,,,,,,,,,,,,,,,,,,,,,,,,
34400,1645817549.588813,1645817549.635534,113.0,0.0,4313.846191,4542.563965,4204.615234000001,4321.538574,4241.538574,450.0,1.0,15.0,,,,0.0,4.0,0.0,4.0,1.0,4.0,41.666668,,,,,,,,,,,,,,,,,,,,,,,,,,,,,,,,,,,,,,,,,,,,,,,,,,,,,,,,,,,,,,,,,,,,,,,,,,,,,,,,,,,,
34401,1645817549.596626,1645817549.643249,114.0,0.0,4322.05127,4620.0,4192.307617,4287.692383,4283.077147999999,450.0,1.0,15.0,,,,0.0,4.0,0.0,4.0,1.0,4.0,41.666668,,,,,,,,57.0,0.0,0.049234,0.611084,-0.23144499999999998,-0.755371,0.9116350000000001,-0.401862,-0.151858,-0.033131,-0.033142000000000005,-0.027207,,,,,,,,,,,,,,,,,,,,,,,,,,,,,,,,,,,,,,,,,,,,,,,,,,,,,,,,,,,,,,,,,
34402,1645817549.604439,1645817549.6510632,115.0,0.0,4310.256348,4649.230957,4163.077147999999,4245.641113000001,4296.410156,16208.0,1.0,15.0,,,,0.0,4.0,0.0,4.0,1.0,4.0,41.666668,,,,,,,,,,,,,,,,,,,,,,,,,,,,,,,,,,,,,,,,,,,,,,,,,,,,,,0.0,0.0,1.0,0.0,512.0,1.0,,,,,,,,,,,,,,,,,,,,,,,,,
34403,1645817549.612253,1645817549.658877,116.0,0.0,4304.615234000001,4742.05127,4149.743652,4218.461426,4288.717772999999,450.0,1.0,15.0,,,,0.0,4.0,0.0,4.0,1.0,4.0,41.666668,,,,,,,,58.0,0.0,0.049234,0.611084,-0.23144499999999998,-0.755371,0.909682,-0.43018199999999995,-0.170901,-0.033187,-0.033099,-0.030052999999999996,,,,,,,,,,,,,,,,,,,,,,,,,,,,,,,,,,,,,,,,,,,,,,,,,,,,,,,,,,,,,,,,,
34404,1645817549.620066,1645817549.666692,117.0,0.0,4304.615234000001,4819.487305,4147.179688,4206.666504,4307.692383,450.0,1.0,15.0,,,,0.0,4.0,0.0,4.0,1.0,4.0,41.666668,,,,,,,,,,,,,,,,,,,,,,,,,,,,,,,,,,,,,,,,,,,,,,,,,,,,,,,,,,,,,,,,,,,,,,,,,,,,,,,,,,,,
34405,1645817549.62788,1645817549.674506,118.0,0.0,4334.358886999999,4776.922852000001,4162.05127,4206.153809,4321.538574,450.0,1.0,15.0,,,,0.0,4.0,0.0,4.0,1.0,4.0,41.666668,,,,,,,,59.0,0.0,0.050368,0.611084,-0.23120100000000002,-0.755371,0.902358,-0.415045,-0.15674100000000002,-0.033384,-0.033158,-0.032614,,,,,,,,,,,,,,,,,,,,,,,,,,,,,,,,,,,,,,,,,,,,,,,,,,,,,,,,,,,,,,,,,
34406,1645817549.635693,1645817549.682321,119.0,0.0,4360.0,4760.0,4166.153809,4225.641113000001,4316.410156,16208.0,1.0,15.0,,,,0.0,4.0,0.0,4.0,1.0,4.0,41.666668,,,,,,,,,,,,,,,,,,,,,,,,,,,,,,,,,,,,,,,,,,,,,,,,,,,,,,0.0,0.0,1.0,0.0,512.0,1.0,,,,,,,,,,,,,,,,,,,,,,,,,
34407,1645817549.643506,1645817549.690135,120.0,0.0,4353.846191,4754.871582,4169.743652,4248.717772999999,4305.641113000001,450.0,1.0,15.0,,,,0.0,4.0,0.0,4.0,1.0,4.0,41.666668,,,,,,,,60.0,0.0,0.050368,0.611084,-0.23120100000000002,-0.755371,0.9091940000000001,-0.40528000000000003,-0.15674100000000002,-0.033415,-0.033163,-0.03487,,,,,,,,,,,,,,,,,,,,,,,,,,,,,,,,,,,,,,,,,,,,,,,,,,,,,,,,,,,,,,,,,
34408,1645817549.65132,1645817549.697949,121.0,0.0,4360.512695,4763.589844,4191.282227000001,4245.641113000001,4310.769043,450.0,1.0,15.0,,,,0.0,4.0,0.0,4.0,1.0,4.0,41.666668,,,,,,,,,,,,,,,,,,,,,,,,,,,,,,,,,,,,,,,,,,,,,,,,,,,,,,,,,,,,,,,,,,,,,,,,,,,,,,,,,,,,
34409,1645817549.659133,1645817549.7056642,122.0,0.0,4373.333496,4696.410156,4222.563965,4265.641113000001,4316.410156,450.0,1.0,15.0,,,,0.0,4.0,0.0,4.0,1.0,4.0,41.666668,,,,,,,,61.0,0.0,0.050368,0.611084,-0.23120100000000002,-0.755371,0.903334,-0.41113900000000003,-0.157717,-0.033442,-0.033118,-0.030601999999999997,,,,,,,,,,,,,,,,,,,,,,,,,,,,,,,,,,,,,,,,,,,,,,,,,,,,,,,,,,,,,,,,,
34410,1645817549.6669471,1645817549.7134778,123.0,0.0,4370.769043,4591.282227000001,4224.615234000001,4297.436035,4300.0,16208.0,1.0,15.0,,,,0.0,4.0,0.0,4.0,1.0,4.0,41.666668,,,,,,,,,,,,,,,,,,,,,,,,,,,,,,,,,,,,,,,,,,,,,,,,,,,,,,0.0,0.0,1.0,0.0,512.0,1.0,,,,,,,,,,,,,,,,,,,,,,,,,
34411,1645817549.6747599,1645817549.721293,124.0,0.0,4359.487305,4557.436035,4217.436035,4305.641113000001,4281.538574,450.0,1.0,15.0,,,,0.0,4.0,0.0,4.0,1.0,4.0,41.666668,,,,,,,,62.0,0.0,0.050368,0.611084,-0.23120100000000002,-0.755371,0.91017,-0.401373,-0.163088,-0.033516000000000004,-0.033029,-0.026808999999999996,,,,,,,,,,,,,,,,,,,,,,,,,,,,,,,,,,,,,,,,,,,,,,,,,,,,,,,,,,,,,,,,,
34412,1645817549.682573,1645817549.7291071,125.0,0.0,4327.692383,4567.692383,4212.307617,4309.230957,4267.179688,450.0,1.0,15.0,,,,0.0,4.0,0.0,4.0,1.0,4.0,41.666668,,,,,,,,,,,,,,,,,,,,,,,,,,,,,,,,,,,,,,,,,,,,,,,,,,,,,,,,,,,,,,,,,,,,,,,,,,,,,,,,,,,,
34413,1645817549.690387,1645817549.736922,126.0,0.0,4304.102539,4568.205078,4201.538574,4307.692383,4262.563965,450.0,1.0,15.0,,,,0.0,4.0,0.0,4.0,1.0,4.0,41.666668,,,,,,,,63.0,0.0,0.050368,0.611084,-0.23120100000000002,-0.755371,0.9150530000000001,-0.398444,-0.15967,-0.033485,-0.033046,-0.029646,,,,,,,,,,,,,,,,,,,,,,,,,,,,,,,,,,,,,,,,,,,,,,,,,,,,,,,,,,,,,,,,,
34414,1645817549.6982,1645817549.744736,127.0,0.0,4344.102539,4568.205078,4214.871582,4298.461426,4282.05127,233.0,1.0,15.0,,,,0.0,4.0,0.0,4.0,1.0,4.0,41.666668,1.0,25.0,3.0,0.0,3.0,0.0,3.0,,,,,,,,,,,,,1.0,0.0,0.0,,,,,,,,,,,,,,,,,,,,,,,,,,,,,,,,0.0,0.0,1.0,0.0,512.0,1.0,4.096705,5.057657,8.486495,8.096286,2.238517,104.424637,115.01561000000001,177.687958,115.011177,41.644581,2.572321,9.383385,15.533364,8.078739,2.3370849999999996,7.880310000000001,27.713509000000002,69.70554399999999,32.80838,10.003824,4.393682,4.958865,4.726801999999999,6.075321,2.7246759999999997
34415,1645817549.7060142,1645817549.75255,0.0,0.0,4360.512695,4584.102539,4222.05127,4289.743652,4303.589844,450.0,1.0,15.0,,,,0.0,4.0,0.0,4.0,1.0,4.0,41.666668,,,,,,,,0.0,0.0,0.053247,0.6108399999999999,-0.23120100000000002,-0.755371,0.9091940000000001,-0.40528000000000003,-0.157717,-0.033506,-0.03316,-0.0259,,,,,,,,,,,,,,,,,,,,,,,,,,,,,,,,,,,,,,,,,,,,,,,,,,,,,,,,,,,,,,,,,
34416,1645817549.713827,1645817549.760365,1.0,0.0,4333.846191,4609.743652,4189.230957,4263.589844,4304.615234000001,450.0,1.0,15.0,,,,0.0,4.0,0.0,4.0,1.0,4.0,41.666668,,,,,,,,,,,,,,,,,,,,,,,,,,,,,,,,,,,,,,,,,,,,,,,,,,,,,,,,,,,,,,,,,,,,,,,,,,,,,,,,,,,,
34417,1645817549.72164,1645817549.7682788,2.0,0.0,4353.846191,4691.282227000001,4165.641113000001,4215.384765999999,4327.179688,16152.0,1.0,15.0,,,,0.0,4.0,1.0,4.0,2.0,4.0,58.33333199999999,,,,,,,,1.0,0.0,0.053247,0.6108399999999999,-0.23120100000000002,-0.755371,0.910658,-0.412116,-0.15674100000000002,-0.033427,-0.033213,-0.028827999999999996,,,,,,,,,,,,,,,,,,,,,,,,,,,,,,,,,,,,,,,,,,,,,,,,,,,,,,,,,,,,,,,,,
34418,1645817549.7294538,1645817549.776094,3.0,0.0,4393.333496,4737.436035,4179.487305,4198.974121,4351.282227000001,450.0,1.0,15.0,,,,0.0,4.0,1.0,4.0,2.0,4.0,58.33333199999999,,,,,,,,,,,,,,,,,,,,,,,,,,,,,,,,,,,,,,,,,,,,,,,,,,,,,,0.0,0.0,1.0,0.0,512.0,1.0,,,,,,,,,,,,,,,,,,,,,,,,,
34419,1645817549.737267,1645817549.783909,4.0,0.0,4378.974121,4750.256348,4162.05127,4212.307617,4322.05127,62.0,1.0,15.0,,,,0.0,4.0,1.0,4.0,2.0,4.0,58.33333199999999,,,,,,,,2.0,0.0,0.053247,0.6108399999999999,-0.23120100000000002,-0.755371,0.9052870000000001,-0.408209,-0.163577,-0.033356,-0.03331,-0.025213,,,,,,,,,,,,,,,,,,,,,,,,,,,,,,,,,,,,,,,,,,,,,,,,,,,,,,,,,,,,,,,,,
34420,1645817549.745081,1645817549.791723,5.0,0.0,4370.769043,4716.410156,4156.410156,4223.077147999999,4294.358886999999,450.0,1.0,15.0,,,,0.0,4.0,1.0,4.0,2.0,4.0,58.33333199999999,,,,,,,,,,,,,,,,,,,,,,,,,,,,,,,,,,,,,,,,,,,,,,,,,,,,,,,,,,,,,,,,,,,,,,,,,,,,,,,,,,,,
34421,1645817549.752894,1645817549.7995381,6.0,0.0,4409.230957,4717.436035,4212.307617,4224.102539,4329.230957,16112.0,1.0,15.0,,,,0.0,4.0,1.0,4.0,2.0,4.0,58.33333199999999,,,,,,,,3.0,0.0,0.053247,0.6108399999999999,-0.23120100000000002,-0.755371,0.902358,-0.415045,-0.157717,-0.033243,-0.033299,-0.028258,,,,,,,,,,,,,,,,,,,,,,,,,,,,,,,,,,,,,,,,,,,,,,,,,,,,,,,,,,,,,,,,,
34422,1645817549.760708,1645817549.807353,7.0,0.0,4395.897461,4598.461426,4242.05127,4262.05127,4324.615234000001,450.0,1.0,15.0,,,,0.0,4.0,1.0,4.0,2.0,4.0,58.33333199999999,,,,,,,,,,,,,,,,,,,,,,,,,,,,,,,,,,,,,,,,,,,,,,,,,,,,,,0.0,0.0,1.0,0.0,512.0,1.0,,,,,,,,,,,,,,,,,,,,,,,,,
34423,1645817549.768521,1645817549.815167,8.0,0.0,4351.282227000001,4335.897461,4226.666504,4333.846191,4257.436035,450.0,1.0,15.0,,,,0.0,4.0,1.0,4.0,2.0,4.0,58.33333199999999,,,,,,,,4.0,0.0,0.049662,0.6108399999999999,-0.23120100000000002,-0.7556149999999999,0.9111469999999999,-0.412116,-0.14941600000000002,-0.033239,-0.033338,-0.0247,,,,,,,,,,,,,,,,,,,,,,,,,,,,,,,,,,,,,,,,,,,,,,,,,,,,,,,,,,,,,,,,,
34424,1645817549.776334,1645817549.822982,9.0,0.0,4359.487305,4300.0,4223.077147999999,4343.077147999999,4255.897461,177.0,1.0,15.0,,,,0.0,4.0,1.0,4.0,2.0,4.0,58.33333199999999,,,,,,,,,,,,,,,,,,,,,,,,,,,,,,,,,,,,,,,,,,,,,,,,,,,,,,,,,,,,,,,,,,,,,,,,,,,,,,,,,,,,
34425,1645817549.784148,1645817549.830797,10.0,0.0,4389.743652,4441.538574,4218.974121,4292.307617,4289.743652,450.0,1.0,15.0,,,,0.0,4.0,1.0,4.0,2.0,4.0,58.33333199999999,,,,,,,,5.0,0.0,0.049662,0.6108399999999999,-0.23120100000000002,-0.7556149999999999,0.917494,-0.42236999999999997,-0.154299,-0.033186,-0.033227,-0.027698,,,,,,,,,,,,,,,,,,,,,,,,,,,,,,,,,,,,,,,,,,,,,,,,,,,,,,,,,,,,,,,,,
34426,1645817549.791961,1645817549.838611,11.0,0.0,4389.743652,4513.333496,4200.0,4273.846191,4294.871582,16155.0,1.0,15.0,,,,0.0,4.0,1.0,4.0,2.0,4.0,58.33333199999999,,,,,,,,,,,,,,,,,,,,,,,,,,,,,,,,,,,,,,,,,,,,,,,,,,,,,,0.0,0.0,1.0,0.0,512.0,1.0,,,,,,,,,,,,,,,,,,,,,,,,,
34427,1645817549.799775,1645817549.8463259,12.0,0.0,4387.692383,4545.128418,4195.384765999999,4270.256348,4310.256348,450.0,1.0,15.0,,,,0.0,4.0,1.0,4.0,2.0,4.0,58.33333199999999,,,,,,,,6.0,0.0,0.050785000000000004,0.6108399999999999,-0.23095700000000002,-0.7556149999999999,0.9248190000000001,-0.399908,-0.159182,-0.033237,-0.033274,-0.024147,,,,,,,,,,,,,,,,,,,,,,,,,,,,,,,,,,,,,,,,,,,,,,,,,,,,,,,,,,,,,,,,,
34428,1645817549.807588,1645817549.854141,13.0,0.0,4406.153809,4619.487305,4188.717772999999,4232.307617,4340.0,450.0,1.0,15.0,,,,0.0,4.0,1.0,4.0,2.0,4.0,58.33333199999999,,,,,,,,,,,,,,,,,,,,,,,,,,,,,,,,,,,,,,,,,,,,,,,,,,,,,,,,,,,,,,,,,,,,,,,,,,,,,,,,,,,,
34429,1645817549.815401,1645817549.8619552,14.0,0.0,4407.692383,4644.102539,4172.820313,4205.641113000001,4327.179688,450.0,1.0,15.0,,,,0.0,4.0,1.0,4.0,2.0,4.0,58.33333199999999,,,,,,,,7.0,0.0,0.050785000000000004,0.6108399999999999,-0.23095700000000002,-0.7556149999999999,0.9111469999999999,-0.401862,-0.163088,-0.033282,-0.033316000000000005,-0.027152999999999997,,,,,,,,,,,,,,,,,,,,,,,,,,,,,,,,,,,,,,,,,,,,,,,,,,,,,,,,,,,,,,,,,
34430,1645817549.823215,1645817549.86967,15.0,0.0,4400.512695,4663.077147999999,4182.05127,4217.436035,4322.05127,16155.0,1.0,15.0,,,,0.0,4.0,1.0,4.0,2.0,4.0,58.33333199999999,,,,,,,,,,,,,,,,,,,,1.0,0.0,0.0,,,,,,,,,,,,,,,,,,,,,,,,,,,,,,,,0.0,0.0,32.0,0.092267,1.0,0.0,4.457897,4.665556,9.946174000000001,6.78067,2.199177,115.174507,112.390221,224.39921600000002,92.490891,39.891026000000004,2.647449,10.036155,20.837973,6.181686,2.274486,19.167021,47.473048999999996,119.228851,45.099152000000004,21.132143,3.960809,4.115789,5.376303,5.049462,2.651472
34431,1645817549.831028,1645817549.877485,16.0,0.0,4394.358886999999,4689.230957,4189.230957,4216.410156,4341.025879,0.0,1.0,15.0,,,,0.0,4.0,1.0,4.0,2.0,4.0,58.33333199999999,,,,,,,,8.0,0.0,0.051475,0.611084,-0.23095700000000002,-0.755371,0.917006,-0.397467,-0.15332300000000001,-0.033275,-0.033158,-0.030052999999999996,,,,,,,,,,,,,,,,,,,,,,,,,,,,,,,,,,,,,,,,,,,,,,,,,,,,,,,,,,,,,,,,,
34432,1645817549.838842,1645817549.885299,17.0,0.0,4390.256348,4686.153809,4174.358886999999,4214.358886999999,4328.717772999999,0.0,1.0,15.0,,,,0.0,4.0,1.0,4.0,2.0,4.0,58.33333199999999,,,,,,,,,,,,,,,,,,,,,,,,,,,,,,,,,,,,,,,,,,,,,,,,,,,,,,,,,,,,,,,,,,,,,,,,,,,,,,,,,,,,
34433,1645817549.8466551,1645817549.893114,18.0,0.0,4400.0,4658.974121,4176.410156,4232.307617,4306.666504,0.0,1.0,15.0,,,,0.0,4.0,1.0,4.0,2.0,4.0,58.33333199999999,,,,,,,,9.0,0.0,0.051475,0.611084,-0.23095700000000002,-0.755371,0.9194479999999999,-0.409186,-0.14648699999999998,-0.033365,-0.033211000000000004,-0.032663,,,,,,,,,,,,,,,,,,,,,,,,,,,,,,,,,,,,,,,,,,,,,,,,,,,,,,,,,,,,,,,,,
34434,1645817549.8544679,1645817549.900929,19.0,0.0,4411.794922,4676.922852000001,4198.974121,4228.717772999999,4302.563965,0.0,1.0,15.0,,,,0.0,4.0,1.0,4.0,2.0,4.0,58.33333199999999,,,,,,,,,,,,,,,,,,,,,,,,,,,,,,,,,,,,,,,,,,,,,,,,,,,,,,0.0,0.0,32.0,0.092267,1.0,0.0,,,,,,,,,,,,,,,,,,,,,,,,,
34435,1645817549.862282,1645817549.908743,20.0,0.0,4394.358886999999,4662.05127,4211.794922,4216.410156,4298.461426,0.0,1.0,15.0,,,,0.0,4.0,1.0,4.0,2.0,4.0,58.33333199999999,,,,,,,,10.0,0.0,0.050785000000000004,0.6108399999999999,-0.23095700000000002,-0.7556149999999999,0.9111469999999999,-0.401862,-0.163088,-0.033398000000000004,-0.033162,-0.028713,,,,,,,,,,,,,,,,,,,,,,,,,,,,,,,,,,,,,,,,,,,,,,,,,,,,,,,,,,,,,,,,,
34436,1645817549.870095,1645817549.916558,21.0,0.0,4373.333496,4525.641113000001,4214.358886999999,4254.358886999999,4277.94873,0.0,1.0,15.0,,,,0.0,4.0,1.0,4.0,2.0,4.0,58.33333199999999,,,,,,,,,,,,,,,,,,,,,,,,,,,,,,,,,,,,,,,,,,,,,,,,,,,,,,,,,,,,,,,,,,,,,,,,,,,,,,,,,,,,
34437,1645817549.877908,1645817549.924372,22.0,0.0,4366.153809,4449.743652,4209.230957,4301.025879,4262.563965,0.0,1.0,15.0,,,,0.0,4.0,1.0,4.0,2.0,4.0,58.33333199999999,,,,,,,,11.0,0.0,0.051475,0.611084,-0.23095700000000002,-0.755371,0.9194479999999999,-0.409186,-0.14648699999999998,-0.033476,-0.033214999999999995,-0.031457,,,,,,,,,,,,,,,,,,,,,,,,,,,,,,,,,,,,,,,,,,,,,,,,,,,,,,,,,,,,,,,,,
34438,1645817549.8857222,1645817549.932087,23.0,0.0,4351.282227000001,4493.333496,4202.05127,4293.846191,4254.358886999999,0.0,1.0,15.0,,,,0.0,4.0,1.0,4.0,2.0,4.0,58.33333199999999,,,,,,,,,,,,,,,,,,,,,,,,,,,,,,,,,,,,,,,,,,,,,,,,,,,,,,0.0,0.0,32.0,0.092267,1.0,0.0,,,,,,,,,,,,,,,,,,,,,,,,,
34439,1645817549.893535,1645817549.939902,24.0,0.0,4349.230957,4565.641113000001,4187.179688,4245.641113000001,4279.487305,0.0,1.0,15.0,,,,0.0,4.0,1.0,4.0,2.0,4.0,58.33333199999999,,,,,,,,12.0,0.0,0.052559,0.611084,-0.230713,-0.755371,0.906264,-0.408209,-0.157717,-0.033498,-0.033165,-0.027627999999999996,,,,,,,,,,,,,,,,,,,,,,,,,,,,,,,,,,,,,,,,,,,,,,,,,,,,,,,,,,,,,,,,,
34440,1645817549.901349,1645817549.947717,25.0,0.0,4353.333496,4568.205078,4167.692383,4231.282227000001,4304.615234000001,0.0,1.0,15.0,,,,0.0,4.0,1.0,4.0,2.0,4.0,58.33333199999999,,,,,,,,,,,,,,,,,,,,,,,,,,,,,,,,,,,,,,,,,,,,,,,,,,,,,,,,,,,,,,,,,,,,,,,,,,,,,,,,,,,,
34441,1645817549.9091618,1645817549.9555311,26.0,0.0,4342.563965,4611.282227000001,4153.846191,4240.512695,4311.282227000001,0.0,1.0,15.0,,,,0.0,4.0,1.0,4.0,2.0,4.0,58.33333199999999,,,,,,,,13.0,0.0,0.05076,0.611328,-0.230469,-0.755371,0.8999159999999999,-0.411627,-0.152834,-0.033566000000000006,-0.033022,-0.030431,,,,,,,,,,,,,,,,,,,,,,,,,,,,,,,,,,,,,,,,,,,,,,,,,,,,,,,,,,,,,,,,,
34442,1645817549.916975,1645817549.963346,27.0,0.0,4334.358886999999,4608.717772999999,4168.717772999999,4220.0,4301.025879,0.0,1.0,15.0,,,,0.0,4.0,1.0,4.0,2.0,4.0,58.33333199999999,,,,,,,,,,,,,,,,,,,,,,,,,,,,,,,,,,,,,,,,,,,,,,,,,,,,,,0.0,0.0,32.0,0.092267,1.0,0.0,,,,,,,,,,,,,,,,,,,,,,,,,
34443,1645817549.924789,1645817549.97116,28.0,0.0,4366.666504,4637.436035,4182.05127,4201.025879,4299.487305,0.0,1.0,15.0,,,,0.0,4.0,1.0,4.0,2.0,4.0,58.33333199999999,,,,,,,,14.0,0.0,0.048893,0.611572,-0.230225,-0.755371,0.9116350000000001,-0.406256,-0.164553,-0.033627,-0.033089,-0.032906,,,,,,,,,,,,,,,,,,,,,,,,,,,,,,,,,,,,,,,,,,,,,,,,,,,,,,,,,,,,,,,,,
34444,1645817549.932602,1645817549.978975,29.0,0.0,4376.410156,4655.384765999999,4172.307617,4227.692383,4296.922852000001,0.0,1.0,15.0,,,,0.0,4.0,1.0,4.0,2.0,4.0,58.33333199999999,,,,,,,,,,,,,,,,,,,,,,,,,,,,,,,,,,,,,,,,,,,,,,,,,,,,,,,,,,,,,,,,,,,,,,,,,,,,,,,,,,,,
34445,1645817549.940416,1645817549.98679,30.0,0.0,4370.256348,4595.897461,4186.666504,4246.153809,4291.794922,0.0,1.0,15.0,,,,0.0,4.0,1.0,4.0,2.0,4.0,58.33333199999999,,,,,,,,15.0,0.0,0.052529,0.611572,-0.230225,-0.755127,0.9038219999999999,-0.39942,-0.151858,-0.033585000000000004,-0.033101,-0.028883,,,,,,,,,,,,,,,,,,,,,,,,,,,,,,,,,,,,,,,,,,,,,,,,,,,,,,,,,,,,,,,,,
34446,1645817549.9482288,1645817549.9946039,31.0,0.0,4377.436035,4588.717772999999,4214.358886999999,4238.974121,4312.307617,0.0,1.0,15.0,,,,0.0,4.0,1.0,4.0,2.0,4.0,58.33333199999999,,,,,,,,,,,,,,,,,,,,1.0,0.0,0.0,,,,,,,,,,,,,,,,,,,,,,,,,,,,,,,,0.0,0.0,1.0,0.0,512.0,1.0,4.811532,4.178628,11.203335000000001,5.458888,2.118256,115.852905,112.814224,275.019928,70.032913,37.488083,2.757771,10.174286,26.013514,4.802912999999999,2.314261,40.163567,78.901543,182.379669,66.187271,41.149547999999996,3.4302120000000005,3.9202779999999997,6.113118,3.9267769999999995,2.5584830000000003
34447,1645817549.956042,1645817550.002419,32.0,0.0,4382.05127,4548.205078,4232.307617,4272.820313,4309.743652,0.0,1.0,15.0,,,,0.0,4.0,1.0,4.0,2.0,4.0,58.33333199999999,,,,,,,,16.0,0.0,0.052529,0.611572,-0.230225,-0.755127,0.908217,-0.408209,-0.155764,-0.033596,-0.03316,-0.031561,,,,,,,,,,,,,,,,,,,,,,,,,,,,,,,,,,,,,,,,,,,,,,,,,,,,,,,,,,,,,,,,,
34448,1645817549.963856,1645817550.010134,33.0,0.0,4371.794922,4550.769043,4211.794922,4294.871582,4272.820313,0.0,1.0,15.0,,,,0.0,4.0,1.0,4.0,2.0,4.0,58.33333199999999,,,,,,,,,,,,,,,,,,,,,,,,,,,,,,,,,,,,,,,,,,,,,,,,,,,,,,,,,,,,,,,,,,,,,,,,,,,,,,,,,,,,
34449,1645817549.971669,1645817550.0179482,34.0,0.0,4357.436035,4533.846191,4191.794922,4289.230957,4247.692383,0.0,1.0,15.0,,,,0.0,4.0,1.0,4.0,2.0,4.0,58.33333199999999,,,,,,,,17.0,0.0,0.052529,0.611572,-0.230225,-0.755127,0.9116350000000001,-0.410163,-0.164553,-0.033605,-0.033115,-0.027672000000000002,,,,,,,,,,,,,,,,,,,,,,,,,,,,,,,,,,,,,,,,,,,,,,,,,,,,,,,,,,,,,,,,,
34450,1645817549.979483,1645817550.025763,35.0,0.0,4374.358886999999,4489.743652,4203.077147999999,4298.461426,4276.922852000001,0.0,1.0,15.0,,,,0.0,4.0,1.0,4.0,2.0,4.0,58.33333199999999,,,,,,,,,,,,,,,,,,,,,,,,,,,,,,,,,,,,,,,,,,,,,,,,,,,,,,0.0,0.0,1.0,0.0,512.0,1.0,,,,,,,,,,,,,,,,,,,,,,,,,
34451,1645817549.987296,1645817550.033578,36.0,0.0,4377.436035,4509.743652,4202.05127,4297.94873,4297.94873,0.0,1.0,15.0,,,,0.0,4.0,1.0,4.0,2.0,4.0,58.33333199999999,,,,,,,,18.0,0.0,0.052529,0.611572,-0.230225,-0.755127,0.922866,-0.40576799999999996,-0.15820599999999999,-0.033565,-0.033173,-0.030325,,,,,,,,,,,,,,,,,,,,,,,,,,,,,,,,,,,,,,,,,,,,,,,,,,,,,,,,,,,,,,,,,
34452,1645817549.995109,1645817550.041392,37.0,0.0,4363.589844,4597.94873,4177.94873,4278.974121,4306.153809,0.0,1.0,15.0,,,,0.0,4.0,1.0,4.0,2.0,4.0,58.33333199999999,,,,,,,,,,,,,,,,,,,,,,,,,,,,,,,,,,,,,,,,,,,,,,,,,,,,,,,,,,,,,,,,,,,,,,,,,,,,,,,,,,,,
34453,1645817550.002923,1645817550.049207,38.0,0.0,4367.179688,4637.436035,4163.589844,4265.641113000001,4324.615234000001,0.0,1.0,15.0,,,,0.0,4.0,1.0,4.0,2.0,4.0,58.33333199999999,,,,,,,,19.0,0.0,0.052123,0.611816,-0.230469,-0.754883,0.9087049999999999,-0.40528000000000003,-0.148928,-0.033578,-0.033176,-0.026706999999999998,,,,,,,,,,,,,,,,,,,,,,,,,,,,,,,,,,,,,,,,,,,,,,,,,,,,,,,,,,,,,,,,,
34454,1645817550.010736,1645817550.057022,39.0,0.0,4383.077147999999,4647.692383,4158.461426,4242.05127,4330.256348,0.0,1.0,15.0,,,,0.0,4.0,1.0,4.0,2.0,4.0,58.33333199999999,,,,,,,,,,,,,,,,,,,,,,,,,,,,,,,,,,,,,,,,,,,,,,,,,,,,,,0.0,0.0,1.0,0.0,512.0,1.0,,,,,,,,,,,,,,,,,,,,,,,,,
34455,1645817550.01855,1645817550.064836,40.0,0.0,4371.282227000001,4704.102539,4147.179688,4229.230957,4325.641113000001,0.0,1.0,15.0,,,,0.0,4.0,1.0,4.0,2.0,4.0,58.33333199999999,,,,,,,,20.0,0.0,0.052123,0.611816,-0.230469,-0.754883,0.914565,-0.404791,-0.155276,-0.03354,-0.033228,-0.029554,,,,,,,,,,,,,,,,,,,,,,,,,,,,,,,,,,,,,,,,,,,,,,,,,,,,,,,,,,,,,,,,,
34456,1645817550.0263631,1645817550.072651,41.0,0.0,4369.743652,4744.615234000001,4148.205078,4229.230957,4317.436035,0.0,1.0,15.0,,,,0.0,4.0,1.0,4.0,2.0,4.0,58.33333199999999,,,,,,,,,,,,,,,,,,,,,,,,,,,,,,,,,,,,,,,,,,,,,,,,,,,,,,,,,,,,,,,,,,,,,,,,,,,,,,,,,,,,
34457,1645817550.0341759,1645817550.0803661,42.0,0.0,4390.256348,4782.563965,4144.102539,4215.897461,4315.897461,0.0,1.0,15.0,,,,0.0,4.0,1.0,4.0,2.0,4.0,58.33333199999999,,,,,,,,21.0,0.0,0.052123,0.611816,-0.230469,-0.754883,0.909682,-0.40283800000000003,-0.14990499999999998,-0.033507,-0.033176,-0.025817000000000003,,,,,,,,,,,,,,,,,,,,,,,,,,,,,,,,,,,,,,,,,,,,,,,,,,,,,,,,,,,,,,,,,
34458,1645817550.04199,1645817550.08818,43.0,0.0,4401.538574,4654.871582,4178.461426,4247.179688,4305.128418,0.0,1.0,15.0,,,,0.0,4.0,1.0,4.0,2.0,4.0,58.33333199999999,,,,,,,,,,,,,,,,,,,,,,,,,,,,,,,,,,,,,,,,,,,,,,,,,,,,,,0.0,0.0,1.0,0.0,512.0,1.0,,,,,,,,,,,,,,,,,,,,,,,,,
34459,1645817550.049803,1645817550.095995,44.0,0.0,4418.461426,4515.897461,4237.94873,4301.538574,4302.05127,0.0,1.0,15.0,,,,0.0,4.0,1.0,4.0,2.0,4.0,58.33333199999999,,,,,,,,22.0,0.0,0.052123,0.611816,-0.230469,-0.754883,0.9077290000000001,-0.40235,-0.154788,-0.033525,-0.033179,-0.028850999999999998,,,,,,,,,,,,,,,,,,,,,,,,,,,,,,,,,,,,,,,,,,,,,,,,,,,,,,,,,,,,,,,,,
34460,1645817550.057617,1645817550.10381,45.0,0.0,4413.333496,4529.743652,4244.102539,4307.692383,4309.230957,0.0,1.0,15.0,,,,0.0,4.0,1.0,4.0,2.0,4.0,58.33333199999999,,,,,,,,,,,,,,,,,,,,,,,,,,,,,,,,,,,,,,,,,,,,,,,,,,,,,,,,,,,,,,,,,,,,,,,,,,,,,,,,,,,,
34461,1645817550.0654302,1645817550.111624,46.0,0.0,4380.512695,4558.461426,4214.871582,4297.436035,4307.692383,0.0,1.0,15.0,,,,0.0,4.0,1.0,4.0,2.0,4.0,58.33333199999999,,,,,,,,23.0,0.0,0.049604,0.611816,-0.230225,-0.755127,0.906264,-0.409186,-0.160647,-0.033591,-0.03323,-0.031581,,,,,,,,,,,,,,,,,,,,,,,,,,,,,,,,,,,,,,,,,,,,,,,,,,,,,,,,,,,,,,,,,
34462,1645817550.0732439,1645817550.1194391,47.0,0.0,4371.282227000001,4473.333496,4223.589844,4338.974121,4297.436035,0.0,1.0,15.0,,,,0.0,4.0,1.0,4.0,2.0,4.0,58.33333199999999,,,,,,,,,,,,,,,,,,,,1.0,0.0,0.0,,,,,,,,,,,,,,,,,,,,,,,,,,,,,,,,0.0,0.0,1.0,0.0,512.0,1.0,5.060761,3.874,11.959875,4.287052,2.044247,106.84180500000001,126.180954,318.444122,51.199905,35.081665,2.958834,10.428502,29.934517,3.950473,2.4553689999999997,68.703285,119.871895,246.091675,92.281464,67.545395,2.823875,4.846644,6.846575,2.882558,2.480433
34463,1645817550.081057,1645817550.127254,48.0,0.0,4380.512695,4471.282227000001,4217.436035,4334.358886999999,4288.717772999999,0.0,1.0,15.0,,,,0.0,4.0,1.0,4.0,2.0,4.0,58.33333199999999,,,,,,,,24.0,0.0,0.051447,0.611572,-0.230469,-0.755127,0.9126120000000001,-0.404303,-0.154299,-0.033601,-0.033325,-0.033989,,,,,,,,,,,,,,,,,,,,,,,,,,,,,,,,,,,,,,,,,,,,,,,,,,,,,,,,,,,,,,,,,
34464,1645817550.0888698,1645817550.135068,49.0,0.0,4361.025879,4607.692383,4173.333496,4249.743652,4309.230957,0.0,1.0,15.0,,,,0.0,4.0,1.0,4.0,2.0,4.0,58.33333199999999,,,,,,,,,,,,,,,,,,,,,,,,,,,,,,,,,,,,,,,,,,,,,,,,,,,,,,,,,,,,,,,,,,,,,,,,,,,,,,,,,,,,
34465,1645817550.096684,1645817550.142883,50.0,0.0,4357.436035,4647.692383,4172.820313,4216.410156,4323.077147999999,0.0,1.0,15.0,,,,0.0,4.0,1.0,4.0,2.0,4.0,58.33333199999999,,,,,,,,25.0,0.0,0.051447,0.611572,-0.230469,-0.755127,0.9209129999999999,-0.398444,-0.152346,-0.03361,-0.033264,-0.029907,,,,,,,,,,,,,,,,,,,,,,,,,,,,,,,,,,,,,,,,,,,,,,,,,,,,,,,,,,,,,,,,,
34466,1645817550.104497,1645817550.150698,51.0,0.0,4382.563965,4664.102539,4190.256348,4250.256348,4310.256348,0.0,1.0,15.0,,,,0.0,4.0,1.0,4.0,2.0,4.0,58.33333199999999,,,,,,,,,,,,,,,,,,,,,,,,,,,,,,,,,,,,,,,,,,,,,,,,,,,,,,0.0,0.0,1.0,0.0,512.0,1.0,,,,,,,,,,,,,,,,,,,,,,,,,
34467,1645817550.112311,1645817550.158412,52.0,0.0,4406.153809,4693.333496,4171.282227000001,4256.922852000001,4317.94873,0.0,1.0,15.0,,,,0.0,4.0,1.0,4.0,2.0,4.0,58.33333199999999,,,,,,,,26.0,0.0,0.053224,0.611328,-0.230713,-0.755127,0.9150530000000001,-0.423346,-0.170413,-0.033667,-0.033208999999999995,-0.032385000000000004,,,,,,,,,,,,,,,,,,,,,,,,,,,,,,,,,,,,,,,,,,,,,,,,,,,,,,,,,,,,,,,,,
34468,1645817550.120124,1645817550.1662269,53.0,0.0,4456.922852000001,4707.692383,4160.0,4225.128418,4367.179688,0.0,1.0,15.0,,,,0.0,4.0,1.0,4.0,2.0,4.0,58.33333199999999,,,,,,,,,,,,,,,,,,,,,,,,,,,,,,,,,,,,,,,,,,,,,,,,,,,,,,,,,,,,,,,,,,,,,,,,,,,,,,,,,,,,
34469,1645817550.1279368,1645817550.174042,54.0,0.0,4541.025879,4671.282227000001,4177.436035,4212.307617,4397.436035,0.0,1.0,15.0,,,,0.0,4.0,1.0,4.0,2.0,4.0,58.33333199999999,,,,,,,,27.0,0.0,0.052154,0.611328,-0.23095700000000002,-0.755127,0.917006,-0.417975,-0.14990499999999998,-0.033523000000000004,-0.033257999999999996,-0.028463,,,,,,,,,,,,,,,,,,,,,,,,,,,,,,,,,,,,,,,,,,,,,,,,,,,,,,,,,,,,,,,,,
34470,1645817550.135751,1645817550.1818562,55.0,0.0,4634.358886999999,4617.436035,4191.794922,4231.794922,4426.666504,0.0,1.0,15.0,,,,0.0,4.0,1.0,4.0,2.0,4.0,58.33333199999999,,,,,,,,,,,,,,,,,,,,,,,,,,,,,,,,,,,,,,,,,,,,,,,,,,,,,,0.0,0.0,1.0,0.0,512.0,1.0,,,,,,,,,,,,,,,,,,,,,,,,,
34471,1645817550.143564,1645817550.189671,56.0,0.0,4737.436035,4543.589844,4225.641113000001,4275.897461,4515.897461,0.0,1.0,15.0,,,,0.0,4.0,1.0,4.0,2.0,4.0,58.33333199999999,,,,,,,,28.0,0.0,0.052846000000000004,0.611084,-0.23144499999999998,-0.755127,0.9126120000000001,-0.417487,-0.143069,-0.033345,-0.033252,-0.024787,,,,,,,,,,,,,,,,,,,,,,,,,,,,,,,,,,,,,,,,,,,,,,,,,,,,,,,,,,,,,,,,,
34472,1645817550.151378,1645817550.197485,57.0,0.0,4830.256348,4495.384765999999,4256.922852000001,4306.666504,4565.641113000001,0.0,1.0,15.0,,,,0.0,4.0,1.0,4.0,2.0,4.0,58.33333199999999,,,,,,,,,,,,,,,,,,,,,,,,,,,,,,,,,,,,,,,,,,,,,,,,,,,,,,,,,,,,,,,,,,,,,,,,,,,,,,,,,,,,
34473,1645817550.1591911,1645817550.2053,58.0,0.0,4877.436035,4643.077147999999,4225.641113000001,4255.897461,4564.102539,0.0,1.0,15.0,,,,0.0,4.0,1.0,4.0,2.0,4.0,58.33333199999999,,,,,,,,29.0,0.0,0.052846000000000004,0.611084,-0.23144499999999998,-0.755127,0.921889,-0.403326,-0.157229,-0.033379,-0.033199,-0.021624,,,,,,,,,,,,,,,,,,,,,,,,,,,,,,,,,,,,,,,,,,,,,,,,,,,,,,,,,,,,,,,,,
34474,1645817550.1670039,1645817550.213115,59.0,0.0,4896.410156,4722.563965,4203.589844,4213.333496,4591.282227000001,0.0,1.0,15.0,,,,0.0,4.0,1.0,4.0,2.0,4.0,58.33333199999999,,,,,,,,,,,,,,,,,,,,,,,,,,,,,,,,,,,,,,,,,,,,,,,,,,,,,,0.0,0.0,1.0,0.0,512.0,1.0,,,,,,,,,,,,,,,,,,,,,,,,,
34475,1645817550.174818,1645817550.220929,60.0,0.0,4922.05127,4623.077147999999,4224.102539,4263.589844,4626.153809,0.0,1.0,15.0,,,,0.0,4.0,1.0,4.0,2.0,4.0,58.33333199999999,,,,,,,,30.0,0.0,0.051765,0.611084,-0.23168899999999998,-0.755127,0.9091940000000001,-0.41358100000000003,-0.155764,-0.033313,-0.033248,-0.025028,,,,,,,,,,,,,,,,,,,,,,,,,,,,,,,,,,,,,,,,,,,,,,,,,,,,,,,,,,,,,,,,,
34476,1645817550.182631,1645817550.228644,61.0,0.0,4962.05127,4583.589844,4224.615234000001,4290.256348,4637.436035,0.0,1.0,15.0,,,,0.0,4.0,2.0,4.0,2.0,4.0,66.666664,,,,,,,,,,,,,,,,,,,,,,,,,,,,,,,,,,,,,,,,,,,,,,,,,,,,,,,,,,,,,,,,,,,,,,,,,,,,,,,,,,,,
34477,1645817550.190445,1645817550.236459,62.0,0.0,4998.974121,4661.538574,4218.974121,4252.307617,4676.922852000001,0.0,1.0,15.0,,,,0.0,4.0,2.0,4.0,2.0,4.0,66.666664,,,,,,,,31.0,0.0,0.050660000000000004,0.611084,-0.231934,-0.755127,0.9043110000000001,-0.417487,-0.154788,-0.033302,-0.033244,-0.027848,,,,,,,,,,,,,,,,,,,,,,,,,,,,,,,,,,,,,,,,,,,,,,,,,,,,,,,,,,,,,,,,,
34478,1645817550.198258,1645817550.244273,63.0,0.0,5007.179688,4653.846191,4246.153809,4256.922852000001,4716.410156,0.0,1.0,15.0,,,,0.0,4.0,2.0,4.0,2.0,4.0,66.666664,1.0,25.0,3.0,0.0,3.0,0.0,3.0,,,,,,,,,,,,,1.0,0.0,0.0,,,,,,,,,,,,,,,,,,,,,,,,,,,,,,,,0.0,0.0,1.0,0.0,512.0,1.0,5.089911,3.95991,11.986688000000001,3.366646,2.0173389999999998,92.999512,159.222717,340.468842,38.179085,32.943523,3.2985580000000003,11.312492,31.364202000000002,3.5082050000000002,2.629754,97.86797299999999,162.028595,292.407379,115.765289,93.553551,2.237389,7.189269,7.372081,2.061112,2.442742
34479,1645817550.2060711,1645817550.252088,64.0,0.0,4996.922852000001,4634.871582,4258.974121,4285.128418,4709.743652,450.0,1.0,15.0,,,,0.0,4.0,2.0,4.0,2.0,4.0,66.666664,,,,,,,,32.0,0.0,0.053524,0.6108399999999999,-0.231934,-0.755127,0.903334,-0.40528000000000003,-0.158694,-0.033389999999999996,-0.033142000000000005,-0.024331000000000002,,,,,,,,,,,,,,,,,,,,,,,,,,,,,,,,,,,,,,,,,,,,,,,,,,,,,,,,,,,,,,,,,
34480,1645817550.213885,1645817550.259903,65.0,0.0,5013.846191,4661.025879,4249.743652,4277.94873,4706.153809,450.0,1.0,15.0,,,,0.0,4.0,2.0,4.0,2.0,4.0,66.666664,,,,,,,,,,,,,,,,,,,,,,,,,,,,,,,,,,,,,,,,,,,,,,,,,,,,,,,,,,,,,,,,,,,,,,,,,,,,,,,,,,,,
34481,1645817550.221698,1645817550.267717,66.0,0.0,5042.05127,4600.0,4260.512695,4277.436035,4726.666504,16167.0,1.0,15.0,,,,0.0,4.0,2.0,4.0,2.0,4.0,66.666664,,,,,,,,33.0,0.0,0.051765,0.611084,-0.23168899999999998,-0.755127,0.906752,-0.412116,-0.157717,-0.03342,-0.033246,-0.027366,,,,,,,,,,,,,,,,,,,,,,,,,,,,,,,,,,,,,,,,,,,,,,,,,,,,,,,,,,,,,,,,,
34482,1645817550.229512,1645817550.275532,67.0,0.0,5051.282227000001,4556.410156,4275.897461,4286.666504,4753.333496,450.0,1.0,15.0,,,,0.0,4.0,2.0,4.0,2.0,4.0,66.666664,,,,,,,,,,,,,,,,,,,,,,,,,,,,,,,,,,,,,,,,,,,,,,,,,,,,,,0.0,0.0,1.0,0.0,512.0,1.0,,,,,,,,,,,,,,,,,,,,,,,,,
34483,1645817550.237325,1645817550.2833471,68.0,0.0,5066.666504,4637.436035,4290.769043,4277.94873,4778.974121,205.0,1.0,15.0,,,,0.0,4.0,2.0,4.0,2.0,4.0,66.666664,,,,,,,,34.0,0.0,0.051765,0.611084,-0.23168899999999998,-0.755127,0.910658,-0.407233,-0.150393,-0.033496,-0.033193,-0.023897,,,,,,,,,,,,,,,,,,,,,,,,,,,,,,,,,,,,,,,,,,,,,,,,,,,,,,,,,,,,,,,,,
34484,1645817550.2451382,1645817550.2911608,69.0,0.0,5085.641113000001,4693.846191,4294.358886999999,4258.461426,4795.897461,450.0,1.0,15.0,,,,0.0,4.0,2.0,4.0,2.0,4.0,66.666664,,,,,,,,,,,,,,,,,,,,,,,,,,,,,,,,,,,,,,,,,,,,,,,,,,,,,,,,,,,,,,,,,,,,,,,,,,,,,,,,,,,,
34485,1645817550.2529519,1645817550.298876,70.0,0.0,5066.666504,4640.512695,4261.538574,4261.025879,4776.922852000001,16059.0,1.0,15.0,,,,0.0,4.0,2.0,4.0,0.0,4.0,50.0,,,,,,,,35.0,0.0,0.048798,0.611328,-0.23168899999999998,-0.755127,0.9087049999999999,-0.41406899999999996,-0.153811,-0.033516000000000004,-0.033145,-0.026976,,,,,,,,,,,,,,,,,,,,,,,,,,,,,,,,,,,,,,,,,,,,,,,,,,,,,,,,,,,,,,,,,
34486,1645817550.260765,1645817550.306691,71.0,0.0,5034.358886999999,4605.128418,4222.563965,4275.384765999999,4750.256348,450.0,1.0,15.0,,,,0.0,4.0,2.0,4.0,0.0,4.0,50.0,,,,,,,,,,,,,,,,,,,,,,,,,,,,,,,,,,,,,,,,,,,,,,,,,,,,,,0.0,0.0,1.0,0.0,512.0,1.0,,,,,,,,,,,,,,,,,,,,,,,,,
34487,1645817550.2685778,1645817550.314505,72.0,0.0,5028.205078,4649.230957,4227.179688,4293.846191,4743.077147999999,450.0,1.0,15.0,,,,0.0,4.0,2.0,4.0,0.0,4.0,50.0,,,,,,,,36.0,0.0,0.052846000000000004,0.611084,-0.23144499999999998,-0.755127,0.8994280000000001,-0.41944,-0.158694,-0.033533,-0.033248,-0.029748,,,,,,,,,,,,,,,,,,,,,,,,,,,,,,,,,,,,,,,,,,,,,,,,,,,,,,,,,,,,,,,,,
34488,1645817550.276392,1645817550.32232,73.0,0.0,5052.307617,4741.538574,4255.384765999999,4291.794922,4765.641113000001,2.0,1.0,15.0,,,,0.0,4.0,2.0,4.0,0.0,4.0,50.0,,,,,,,,,,,,,,,,,,,,,,,,,,,,,,,,,,,,,,,,,,,,,,,,,,,,,,,,,,,,,,,,,,,,,,,,,,,,,,,,,,,,
34489,1645817550.284205,1645817550.3301349,74.0,0.0,5061.538574,4712.307617,4263.589844,4267.692383,4794.871582,450.0,1.0,15.0,,,,0.0,4.0,2.0,4.0,0.0,4.0,50.0,,,,,,,,37.0,0.0,0.051765,0.611084,-0.23168899999999998,-0.755127,0.9077290000000001,-0.41113900000000003,-0.153811,-0.033549,-0.033195,-0.032242,,,,,,,,,,,,,,,,,,,,,,,,,,,,,,,,,,,,,,,,,,,,,,,,,,,,,,,,,,,,,,,,,
34490,1645817550.292019,1645817550.337949,75.0,0.0,5047.179688,4592.820313,4260.0,4260.0,4787.692383,16244.0,1.0,15.0,,,,0.0,4.0,2.0,4.0,0.0,4.0,50.0,,,,,,,,,,,,,,,,,,,,,,,,,,,,,,,,,,,,,,,,,,,,,,,,,,,,,,0.0,0.0,1.0,0.0,512.0,1.0,,,,,,,,,,,,,,,,,,,,,,,,,
34491,1645817550.299832,1645817550.3457642,76.0,0.0,5035.897461,4633.846191,4244.615234000001,4254.871582,4766.666504,450.0,1.0,15.0,,,,0.0,4.0,2.0,4.0,0.0,4.0,50.0,,,,,,,,38.0,0.0,0.048798,0.611328,-0.23168899999999998,-0.755127,0.9087049999999999,-0.41406899999999996,-0.153811,-0.033563,-0.033195999999999996,-0.028383,,,,,,,,,,,,,,,,,,,,,,,,,,,,,,,,,,,,,,,,,,,,,,,,,,,,,,,,,,,,,,,,,
34492,1645817550.3076448,1645817550.3535788,77.0,0.0,5040.0,4689.743652,4243.077147999999,4274.358886999999,4766.153809,450.0,1.0,15.0,,,,0.0,4.0,2.0,4.0,0.0,4.0,50.0,,,,,,,,,,,,,,,,,,,,,,,,,,,,,,,,,,,,,,,,,,,,,,,,,,,,,,,,,,,,,,,,,,,,,,,,,,,,,,,,,,,,
34493,1645817550.315459,1645817550.361393,78.0,0.0,5049.743652,4634.358886999999,4251.794922,4295.384765999999,4771.282227000001,450.0,1.0,15.0,,,,0.0,4.0,2.0,4.0,0.0,4.0,50.0,,,,,,,,39.0,0.0,0.051765,0.611084,-0.23168899999999998,-0.755127,0.9077290000000001,-0.41113900000000003,-0.153811,-0.033576,-0.033148000000000004,-0.031013,,,,,,,,,,,,,,,,,,,,,,,,,,,,,,,,,,,,,,,,,,,,,,,,,,,,,,,,,,,,,,,,,
34494,1645817550.323272,1645817550.369208,79.0,0.0,5043.589844,4609.230957,4261.538574,4294.871582,4765.641113000001,16244.0,1.0,15.0,,,,0.0,4.0,2.0,4.0,0.0,4.0,50.0,,,,,,,,,,,,,,,,,,,,1.0,0.0,0.0,,,,,,,,,,,,,,,,,,,,,,,,,,,,,,,,10.0,0.0,1.0,0.0,512.0,0.798978,6.064405000000001,4.948691999999999,11.327686,2.71699,2.036811,79.95127099999999,212.393677,330.96441699999997,31.258297,30.933334000000002,3.7401480000000005,13.187382999999999,29.626326000000002,3.3126839999999995,2.746985,118.601868,194.271088,305.95306400000004,128.208328,110.81938899999999,1.985275,10.82118,7.4926070000000005,1.555631,2.437842
34495,1645817550.331086,1645817550.376923,80.0,0.0,5025.128418,4648.205078,4277.94873,4285.641113000001,4757.436035,450.0,1.0,15.0,,,,0.0,4.0,2.0,4.0,0.0,4.0,50.0,,,,,,,,40.0,0.0,0.052846000000000004,0.611084,-0.23144499999999998,-0.755127,0.9091940000000001,-0.39502600000000004,-0.156252,-0.033637,-0.033201999999999995,-0.027131,,,,,,,,,,,,,,,,,,,,,,,,,,,,,,,,,,,,,,,,,,,,,,,,,,,,,,,,,,,,,,,,,
34496,1645817550.3388991,1645817550.384737,81.0,0.0,5021.025879,4674.358886999999,4279.487305,4280.512695,4763.589844,450.0,1.0,15.0,,,,0.0,4.0,2.0,4.0,0.0,4.0,50.0,,,,,,,,,,,,,,,,,,,,,,,,,,,,,,,,,,,,,,,,,,,,,,,,,,,,,,,,,,,,,,,,,,,,,,,,,,,,,,,,,,,,
34497,1645817550.3467119,1645817550.392552,82.0,0.0,5017.436035,4642.05127,4272.820313,4285.128418,4774.871582,450.0,1.0,15.0,,,,0.0,4.0,2.0,4.0,0.0,4.0,50.0,,,,,,,,41.0,0.0,0.051765,0.611084,-0.23168899999999998,-0.755127,0.9072399999999999,-0.41113900000000003,-0.147951,-0.033691000000000006,-0.033201999999999995,-0.029886000000000003,,,,,,,,,,,,,,,,,,,,,,,,,,,,,,,,,,,,,,,,,,,,,,,,,,,,,,,,,,,,,,,,,
34498,1645817550.354526,1645817550.400367,83.0,0.0,4992.820313,4546.666504,4287.692383,4286.666504,4755.897461,16244.0,1.0,15.0,,,,0.0,4.0,2.0,4.0,0.0,4.0,50.0,,,,,,,,,,,,,,,,,,,,,,,,,,,,,,,,,,,,,,,,,,,,,,,,,,,,,,10.0,0.0,1.0,0.0,512.0,0.798978,,,,,,,,,,,,,,,,,,,,,,,,,
34499,1645817550.362339,1645817550.408181,84.0,0.0,4977.436035,4502.563965,4275.384765999999,4271.794922,4722.05127,450.0,1.0,15.0,,,,0.0,4.0,2.0,4.0,0.0,4.0,50.0,,,,,,,,42.0,0.0,0.051765,0.611084,-0.23168899999999998,-0.755127,0.91017,-0.415045,-0.152834,-0.033545,-0.033250999999999996,-0.032318,,,,,,,,,,,,,,,,,,,,,,,,,,,,,,,,,,,,,,,,,,,,,,,,,,,,,,,,,,,,,,,,,
34500,1645817550.370153,1645817550.415996,85.0,0.0,4976.922852000001,4579.487305,4247.179688,4269.230957,4725.641113000001,450.0,1.0,15.0,,,,0.0,4.0,2.0,4.0,0.0,4.0,50.0,,,,,,,,,,,,,,,,,,,,,,,,,,,,,,,,,,,,,,,,,,,,,,,,,,,,,,,,,,,,,,,,,,,,,,,,,,,,,,,,,,,,
34501,1645817550.377966,1645817550.423811,86.0,0.0,4971.794922,4671.282227000001,4262.563965,4282.05127,4750.256348,450.0,1.0,15.0,,,,0.0,4.0,2.0,4.0,0.0,4.0,50.0,,,,,,,,43.0,0.0,0.051765,0.611084,-0.23168899999999998,-0.755127,0.8999159999999999,-0.400885,-0.150393,-0.033511,-0.033295,-0.034604,,,,,,,,,,,,,,,,,,,,,,,,,,,,,,,,,,,,,,,,,,,,,,,,,,,,,,,,,,,,,,,,,
34502,1645817550.38578,1645817550.431625,87.0,0.0,4956.922852000001,4705.128418,4265.128418,4268.205078,4751.794922,16244.0,1.0,15.0,,,,0.0,4.0,2.0,4.0,0.0,4.0,50.0,,,,,,,,,,,,,,,,,,,,,,,,,,,,,,,,,,,,,,,,,,,,,,,,,,,,,,10.0,0.0,1.0,0.0,512.0,0.798978,,,,,,,,,,,,,,,,,,,,,,,,,
34503,1645817550.393593,1645817550.43944,88.0,0.0,4954.871582,4610.769043,4253.846191,4264.615234000001,4738.461426,450.0,1.0,15.0,,,,0.0,4.0,2.0,4.0,0.0,4.0,50.0,,,,,,,,44.0,0.0,0.051765,0.611084,-0.23168899999999998,-0.755127,0.905776,-0.398932,-0.15820599999999999,-0.03348,-0.033384,-0.030411,,,,,,,,,,,,,,,,,,,,,,,,,,,,,,,,,,,,,,,,,,,,,,,,,,,,,,,,,,,,,,,,,
34504,1645817550.401406,1645817550.447155,89.0,0.0,4975.384765999999,4542.563965,4270.256348,4307.692383,4725.128418,450.0,1.0,15.0,,,,0.0,4.0,2.0,4.0,0.0,4.0,50.0,,,,,,,,,,,,,,,,,,,,,,,,,,,,,,,,,,,,,,,,,,,,,,,,,,,,,,,,,,,,,,,,,,,,,,,,,,,,,,,,,,,,
34505,1645817550.40922,1645817550.454969,90.0,0.0,4977.94873,4653.333496,4262.05127,4299.487305,4726.666504,450.0,1.0,15.0,,,,0.0,4.0,2.0,4.0,0.0,4.0,50.0,,,,,,,,45.0,0.0,0.051765,0.611084,-0.23168899999999998,-0.755127,0.9087049999999999,-0.413092,-0.153811,-0.033451999999999996,-0.033366,-0.032936,,,,,,,,,,,,,,,,,,,,,,,,,,,,,,,,,,,,,,,,,,,,,,,,,,,,,,,,,,,,,,,,,
34506,1645817550.417033,1645817550.462784,91.0,0.0,4938.974121,4633.846191,4249.230957,4280.512695,4717.436035,16244.0,1.0,15.0,,,,0.0,4.0,2.0,4.0,0.0,4.0,50.0,,,,,,,,,,,,,,,,,,,,,,,,,,,,,,,,,,,,,,,,,,,,,,,,,,,,,,10.0,0.0,1.0,0.0,512.0,0.798978,,,,,,,,,,,,,,,,,,,,,,,,,
34507,1645817550.4248471,1645817550.470599,92.0,0.0,4944.102539,4535.384765999999,4293.333496,4311.282227000001,4712.307617,450.0,1.0,15.0,,,,0.0,4.0,2.0,4.0,0.0,4.0,50.0,,,,,,,,46.0,0.0,0.049234,0.611084,-0.23144499999999998,-0.755371,0.917983,-0.404303,-0.160647,-0.033525,-0.033301,-0.035160000000000004,,,,,,,,,,,,,,,,,,,,,,,,,,,,,,,,,,,,,,,,,,,,,,,,,,,,,,,,,,,,,,,,,
34508,1645817550.4326599,1645817550.478413,93.0,0.0,4975.897461,4624.615234000001,4297.436035,4277.436035,4737.94873,450.0,1.0,15.0,,,,0.0,4.0,2.0,4.0,0.0,4.0,50.0,,,,,,,,,,,,,,,,,,,,,,,,,,,,,,,,,,,,,,,,,,,,,,,,,,,,,,,,,,,,,,,,,,,,,,,,,,,,,,,,,,,,
34509,1645817550.440473,1645817550.486228,94.0,0.0,4947.692383,4597.436035,4261.025879,4258.461426,4736.410156,450.0,1.0,15.0,,,,0.0,4.0,2.0,4.0,0.0,4.0,50.0,,,,,,,,47.0,0.0,0.049234,0.611084,-0.23144499999999998,-0.755371,0.902358,-0.42188100000000006,-0.158694,-0.033542,-0.033339999999999995,-0.03726,,,,,,,,,,,,,,,,,,,,,,,,,,,,,,,,,,,,,,,,,,,,,,,,,,,,,,,,,,,,,,,,,
34510,1645817550.448287,1645817550.494042,95.0,0.0,4945.641113000001,4546.153809,4273.333496,4295.897461,4713.846191,16244.0,1.0,15.0,,,,0.0,4.0,2.0,4.0,0.0,4.0,50.0,,,,,,,,,,,,,,,,,,,,1.0,0.0,0.0,,,,,,,,,,,,,,,,,,,,,,,,,,,,,,,,10.0,0.0,1.0,0.0,512.0,0.9581770000000001,13.681623000000002,7.718136,10.253401,2.302395,2.061342,71.286507,277.573822,289.86499,28.867628000000003,28.695889,4.256882,16.089239000000003,25.048126,3.210128,2.7267240000000004,123.70558899999999,207.254639,281.352448,124.292557,113.19616699999999,3.922737,15.094645000000002,7.1245,1.396627,2.428709
34511,1645817550.4561,1645817550.501857,96.0,0.0,4972.307617,4720.0,4271.794922,4258.974121,4734.871582,450.0,1.0,15.0,,,,0.0,4.0,2.0,4.0,0.0,4.0,50.0,,,,,,,,48.0,0.0,0.049234,0.611084,-0.23144499999999998,-0.755371,0.8989389999999999,-0.406744,-0.146975,-0.033557,-0.033277,-0.039051,,,,,,,,,,,,,,,,,,,,,,,,,,,,,,,,,,,,,,,,,,,,,,,,,,,,,,,,,,,,,,,,,
34512,1645817550.4639142,1645817550.509772,97.0,0.0,4921.538574,4680.0,4249.230957,4232.307617,4726.153809,450.0,1.0,15.0,,,,0.0,4.0,2.0,4.0,0.0,4.0,50.0,,,,,,,,,,,,,,,,,,,,,,,,,,,,,,,,,,,,,,,,,,,,,,,,,,,,,,,,,,,,,,,,,,,,,,,,,,,,,,,,,,,,
34513,1645817550.471727,1645817550.517586,98.0,0.0,4898.974121,4478.461426,4269.230957,4296.922852000001,4679.487305,450.0,1.0,15.0,,,,0.0,4.0,2.0,4.0,0.0,4.0,50.0,,,,,,,,49.0,0.0,0.052846000000000004,0.611084,-0.23144499999999998,-0.755127,0.906752,-0.400885,-0.161624,-0.033473,-0.03327,-0.034414,,,,,,,,,,,,,,,,,,,,,,,,,,,,,,,,,,,,,,,,,,,,,,,,,,,,,,,,,,,,,,,,,
34514,1645817550.47954,1645817550.5254009,99.0,0.0,4942.05127,4555.384765999999,4269.230957,4292.820313,4692.307617,16244.0,1.0,15.0,,,,0.0,4.0,2.0,4.0,0.0,4.0,50.0,,,,,,,,,,,,,,,,,,,,,,,,,,,,,,,,,,,,,,,,,,,,,,,,,,,,,,0.0,0.0,1.0,0.0,512.0,0.9581770000000001,,,,,,,,,,,,,,,,,,,,,,,,,
34515,1645817550.4873538,1645817550.533216,100.0,0.0,4919.487305,4607.692383,4248.205078,4253.846191,4697.94873,450.0,1.0,15.0,,,,0.0,4.0,2.0,4.0,0.0,4.0,50.0,,,,,,,,50.0,0.0,0.049234,0.611084,-0.23144499999999998,-0.755371,0.9116350000000001,-0.41113900000000003,-0.160647,-0.033446,-0.033263,-0.036489999999999995,,,,,,,,,,,,,,,,,,,,,,,,,,,,,,,,,,,,,,,,,,,,,,,,,,,,,,,,,,,,,,,,,
34516,1645817550.495167,1645817550.54093,101.0,0.0,4912.307617,4534.358886999999,4272.307617,4287.692383,4677.436035,450.0,1.0,15.0,,,,0.0,4.0,2.0,4.0,0.0,4.0,50.0,,,,,,,,,,,,,,,,,,,,,,,,,,,,,,,,,,,,,,,,,,,,,,,,,,,,,,,,,,,,,,,,,,,,,,,,,,,,,,,,,,,,
34517,1645817550.502981,1645817550.548645,102.0,0.0,4966.153809,4624.615234000001,4286.666504,4291.282227000001,4711.794922,450.0,1.0,15.0,,,,0.0,4.0,2.0,4.0,0.0,4.0,50.0,,,,,,,,51.0,0.0,0.049234,0.611084,-0.23144499999999998,-0.755371,0.8989389999999999,-0.41260399999999997,-0.16211199999999998,-0.03347,-0.033306,-0.038310000000000004,,,,,,,,,,,,,,,,,,,,,,,,,,,,,,,,,,,,,,,,,,,,,,,,,,,,,,,,,,,,,,,,,
34518,1645817550.510794,1645817550.55646,103.0,0.0,4967.179688,4661.025879,4286.153809,4275.897461,4746.153809,16244.0,1.0,15.0,,,,0.0,4.0,2.0,4.0,0.0,4.0,50.0,,,,,,,,,,,,,,,,,,,,,,,,,,,,,,,,,,,,,,,,,,,,,,,,,,,,,,0.0,0.0,1.0,0.0,512.0,0.9581770000000001,,,,,,,,,,,,,,,,,,,,,,,,,
34519,1645817550.5186071,1645817550.564274,104.0,0.0,4957.94873,4574.871582,4315.897461,4283.589844,4723.589844,450.0,1.0,15.0,,,,0.0,4.0,2.0,4.0,0.0,4.0,50.0,,,,,,,,52.0,0.0,0.049234,0.611084,-0.23144499999999998,-0.755371,0.914565,-0.406256,-0.144045,-0.033395,-0.033296,-0.033795,,,,,,,,,,,,,,,,,,,,,,,,,,,,,,,,,,,,,,,,,,,,,,,,,,,,,,,,,,,,,,,,,
34520,1645817550.526421,1645817550.572089,105.0,0.0,4997.436035,4598.974121,4318.461426,4245.128418,4715.897461,450.0,1.0,15.0,,,,0.0,4.0,2.0,4.0,0.0,4.0,50.0,,,,,,,,,,,,,,,,,,,,,,,,,,,,,,,,,,,,,,,,,,,,,,,,,,,,,,,,,,,,,,,,,,,,,,,,,,,,,,,,,,,,
34521,1645817550.534234,1645817550.5799038,106.0,0.0,4986.153809,4571.282227000001,4297.436035,4239.487305,4716.922852000001,450.0,1.0,15.0,,,,0.0,4.0,2.0,4.0,0.0,4.0,50.0,,,,,,,,53.0,0.0,0.049234,0.611084,-0.23144499999999998,-0.755371,0.9131,-0.417975,-0.15674100000000002,-0.033375999999999996,-0.033287,-0.029586,,,,,,,,,,,,,,,,,,,,,,,,,,,,,,,,,,,,,,,,,,,,,,,,,,,,,,,,,,,,,,,,,
34522,1645817550.542048,1645817550.587718,107.0,0.0,4951.794922,4460.0,4300.512695,4305.641113000001,4685.128418,16244.0,1.0,15.0,,,,0.0,4.0,2.0,4.0,0.0,4.0,50.0,,,,,,,,,,,,,,,,,,,,,,,,,,,,,,,,,,,,,,,,,,,,,,,,,,,,,,0.0,0.0,1.0,0.0,512.0,0.9581770000000001,,,,,,,,,,,,,,,,,,,,,,,,,
34523,1645817550.549861,1645817550.595533,108.0,0.0,4966.153809,4574.358886999999,4263.077147999999,4282.563965,4666.153809,450.0,1.0,15.0,,,,0.0,4.0,2.0,4.0,0.0,4.0,50.0,,,,,,,,54.0,0.0,0.049234,0.611084,-0.23144499999999998,-0.755371,0.9150530000000001,-0.41113900000000003,-0.15674100000000002,-0.033456,-0.033181,-0.032096,,,,,,,,,,,,,,,,,,,,,,,,,,,,,,,,,,,,,,,,,,,,,,,,,,,,,,,,,,,,,,,,,
34524,1645817550.557674,1645817550.603348,109.0,0.0,4943.589844,4727.179688,4218.461426,4216.922852000001,4657.436035,450.0,1.0,15.0,,,,0.0,4.0,2.0,4.0,0.0,4.0,50.0,,,,,,,,,,,,,,,,,,,,,,,,,,,,,,,,,,,,,,,,,,,,,,,,,,,,,,,,,,,,,,,,,,,,,,,,,,,,,,,,,,,,
34525,1645817550.565488,1645817550.611162,110.0,0.0,4888.205078,4623.589844,4244.102539,4277.436035,4609.230957,450.0,1.0,15.0,,,,0.0,4.0,2.0,4.0,0.0,4.0,50.0,,,,,,,,55.0,0.0,0.049234,0.611084,-0.23144499999999998,-0.755371,0.914565,-0.397467,-0.160159,-0.033382,-0.033183,-0.028203,,,,,,,,,,,,,,,,,,,,,,,,,,,,,,,,,,,,,,,,,,,,,,,,,,,,,,,,,,,,,,,,,
34526,1645817550.573301,1645817550.618877,111.0,0.0,4870.256348,4564.102539,4265.128418,4319.487305,4566.666504,16244.0,1.0,15.0,,,,0.0,4.0,2.0,4.0,0.0,4.0,50.0,,,,,,,,,,,,,,,,,,,,1.0,0.0,0.0,,,,,,,,,,,,,,,,,,,,,,,,,,,,,,,,0.0,0.0,1.0,0.0,512.0,1.0,32.78474,12.877564999999999,9.097771,2.05654,2.037974,67.13829,338.22018399999996,228.167496,28.860907,26.093409,4.811911,19.576817000000002,18.875431,3.13374,2.547508,111.481003,197.504929,226.021942,104.57220500000001,99.756241,9.389841,18.934849,6.341506,1.547132,2.371757
34527,1645817550.581115,1645817550.626692,112.0,0.0,4835.897461,4664.102539,4223.077147999999,4224.102539,4549.743652,450.0,1.0,15.0,,,,0.0,4.0,2.0,4.0,0.0,4.0,50.0,,,,,,,,56.0,0.0,0.049234,0.611084,-0.23144499999999998,-0.755371,0.9243309999999999,-0.399908,-0.151858,-0.033315,-0.033234,-0.030949,,,,,,,,,,,,,,,,,,,,,,,,,,,,,,,,,,,,,,,,,,,,,,,,,,,,,,,,,,,,,,,,,
34528,1645817550.588928,1645817550.634506,113.0,0.0,4762.563965,4649.230957,4203.077147999999,4179.487305,4524.615234000001,450.0,1.0,15.0,,,,0.0,4.0,2.0,4.0,0.0,4.0,50.0,,,,,,,,,,,,,,,,,,,,,,,,,,,,,,,,,,,,,,,,,,,,,,,,,,,,,,,,,,,,,,,,,,,,,,,,,,,,,,,,,,,,
34529,1645817550.596741,1645817550.642321,114.0,0.0,4699.487305,4499.487305,4233.333496,4253.333496,4487.179688,450.0,1.0,15.0,,,,0.0,4.0,2.0,4.0,0.0,4.0,50.0,,,,,,,,57.0,0.0,0.049234,0.611084,-0.23144499999999998,-0.755371,0.908217,-0.399908,-0.151369,-0.033402,-0.033181999999999996,-0.027073000000000003,,,,,,,,,,,,,,,,,,,,,,,,,,,,,,,,,,,,,,,,,,,,,,,,,,,,,,,,,,,,,,,,,
34530,1645817550.6045551,1645817550.650136,115.0,0.0,4651.282227000001,4485.128418,4242.563965,4318.974121,4447.179688,16244.0,1.0,15.0,,,,0.0,4.0,2.0,4.0,0.0,4.0,50.0,,,,,,,,,,,,,,,,,,,,,,,,,,,,,,,,,,,,,,,,,,,,,,,,,,,,,,0.0,0.0,1.0,0.0,512.0,1.0,,,,,,,,,,,,,,,,,,,,,,,,,
34531,1645817550.6123679,1645817550.65795,116.0,0.0,4572.307617,4512.820313,4223.077147999999,4326.666504,4390.256348,450.0,1.0,15.0,,,,0.0,4.0,2.0,4.0,0.0,4.0,50.0,,,,,,,,58.0,0.0,0.050368,0.611084,-0.23120100000000002,-0.755371,0.901381,-0.40528000000000003,-0.15674100000000002,-0.033431,-0.033135000000000005,-0.029883,,,,,,,,,,,,,,,,,,,,,,,,,,,,,,,,,,,,,,,,,,,,,,,,,,,,,,,,,,,,,,,,,
34532,1645817550.620182,1645817550.665765,117.0,0.0,4502.563965,4427.179688,4225.641113000001,4316.410156,4343.589844,450.0,1.0,15.0,,,,0.0,4.0,2.0,4.0,0.0,4.0,50.0,,,,,,,,,,,,,,,,,,,,,,,,,,,,,,,,,,,,,,,,,,,,,,,,,,,,,,,,,,,,,,,,,,,,,,,,,,,,,,,,,,,,
34533,1645817550.627995,1645817550.6735802,118.0,0.0,4447.692383,4439.487305,4222.05127,4293.333496,4318.974121,450.0,1.0,15.0,,,,0.0,4.0,2.0,4.0,0.0,4.0,50.0,,,,,,,,59.0,0.0,0.050368,0.611084,-0.23120100000000002,-0.755371,0.914565,-0.403326,-0.150881,-0.033506,-0.033191000000000005,-0.032559,,,,,,,,,,,,,,,,,,,,,,,,,,,,,,,,,,,,,,,,,,,,,,,,,,,,,,,,,,,,,,,,,
34534,1645817550.635808,1645817550.6813939,119.0,0.0,4371.282227000001,4484.615234000001,4200.0,4288.717772999999,4244.615234000001,16244.0,1.0,15.0,,,,0.0,4.0,2.0,4.0,0.0,4.0,50.0,,,,,,,,,,,,,,,,,,,,,,,,,,,,,,,,,,,,,,,,,,,,,,,,,,,,,,0.0,0.0,1.0,0.0,512.0,1.0,,,,,,,,,,,,,,,,,,,,,,,,,
34535,1645817550.6436222,1645817550.689109,120.0,0.0,4315.384765999999,4504.615234000001,4192.307617,4290.256348,4192.820313,450.0,1.0,15.0,,,,0.0,4.0,2.0,4.0,0.0,4.0,50.0,,,,,,,,60.0,0.0,0.047312,0.611328,-0.23120100000000002,-0.755371,0.892592,-0.41260399999999997,-0.161135,-0.033524,-0.03329,-0.034821,,,,,,,,,,,,,,,,,,,,,,,,,,,,,,,,,,,,,,,,,,,,,,,,,,,,,,,,,,,,,,,,,
34536,1645817550.651435,1645817550.696924,121.0,0.0,4251.282227000001,4621.025879,4151.282227000001,4246.153809,4212.820313,450.0,1.0,15.0,,,,0.0,4.0,2.0,4.0,0.0,4.0,50.0,,,,,,,,,,,,,,,,,,,,,,,,,,,,,,,,,,,,,,,,,,,,,,,,,,,,,,,,,,,,,,,,,,,,,,,,,,,,,,,,,,,,
34537,1645817550.659248,1645817550.7047381,122.0,0.0,4165.128418,4655.897461,4114.358886999999,4215.384765999999,4183.589844,450.0,1.0,15.0,,,,0.0,4.0,2.0,4.0,0.0,4.0,50.0,,,,,,,,61.0,0.0,0.047312,0.611328,-0.23120100000000002,-0.755371,0.906264,-0.398932,-0.147951,-0.033492,-0.03333,-0.03046,,,,,,,,,,,,,,,,,,,,,,,,,,,,,,,,,,,,,,,,,,,,,,,,,,,,,,,,,,,,,,,,,
34538,1645817550.6670618,1645817550.712553,123.0,0.0,4130.769043,4536.922852000001,4162.05127,4264.102539,4087.179443,16244.0,1.0,15.0,,,,0.0,4.0,2.0,4.0,0.0,4.0,50.0,,,,,,,,,,,,,,,,,,,,,,,,,,,,,,,,,,,,,,,,,,,,,,,,,,,,,,0.0,0.0,1.0,0.0,512.0,1.0,,,,,,,,,,,,,,,,,,,,,,,,,
34539,1645817550.674875,1645817550.720367,124.0,0.0,4111.794922,4613.333496,4173.333496,4275.384765999999,4078.461426,450.0,1.0,15.0,,,,0.0,4.0,2.0,4.0,0.0,4.0,50.0,,,,,,,,62.0,0.0,0.052154,0.611328,-0.23095700000000002,-0.755127,0.9155409999999999,-0.423346,-0.155276,-0.033463,-0.033318,-0.026681,,,,,,,,,,,,,,,,,,,,,,,,,,,,,,,,,,,,,,,,,,,,,,,,,,,,,,,,,,,,,,,,,
34540,1645817550.682689,1645817550.728182,125.0,0.0,4015.897461,4761.538574,4102.05127,4201.538574,4134.871582,450.0,1.0,15.0,,,,0.0,4.0,2.0,4.0,0.0,4.0,50.0,,,,,,,,,,,,,,,,,,,,,,,,,,,,,,,,,,,,,,,,,,,,,,,,,,,,,,,,,,,,,,,,,,,,,,,,,,,,,,,,,,,,
34541,1645817550.690502,1645817550.735997,126.0,0.0,3931.794922,4497.94873,4114.871582,4246.666504,4085.1281740000004,450.0,1.0,15.0,,,,0.0,4.0,2.0,4.0,0.0,4.0,50.0,,,,,,,,63.0,0.0,0.04849,0.611328,-0.23095700000000002,-0.755371,0.917983,-0.403326,-0.170901,-0.033437,-0.033306,-0.029481999999999998,,,,,,,,,,,,,,,,,,,,,,,,,,,,,,,,,,,,,,,,,,,,,,,,,,,,,,,,,,,,,,,,,
34542,1645817550.698316,1645817550.743811,127.0,0.0,3945.1281740000004,4240.512695,4191.282227000001,4345.128418,3988.718018,233.0,1.0,15.0,,,,0.0,4.0,2.0,4.0,0.0,4.0,50.0,1.0,25.0,3.0,0.0,3.0,0.0,3.0,,,,,,,,,,,,,1.0,0.0,0.0,1.0,0.5594279999999999,1.200818,-0.244527,2.53862,1.0,0.198151,4.468458999999999,2.7059040000000003,11.00874,0.22574299999999997,1.0,0.336939,-0.098989,-0.303688,0.246425,1.0,0.46878100000000006,1.615875,-0.290327,3.6173940000000004,1.0,0.45680699999999996,6.234481,-89.636131,117.84297,1.0,0.20762199999999997,0.500576,0.44471499999999997,0.725132,0.0,0.0,1.0,0.0,512.0,0.8237680000000001,65.687424,20.099194,8.08617,1.937216,1.943114,64.60183,374.82180800000003,162.22226,29.192128999999998,23.630968,5.438039,22.748854,12.738653999999999,3.0806880000000003,2.261214,86.327591,168.284943,156.81008899999998,75.369049,75.275253,19.244207,21.252419,5.342631,1.931189,2.247983
34543,1645817550.7061288,1645817550.751626,0.0,0.0,3969.2307130000004,4325.128418,4204.615234000001,4325.641113000001,3966.6667479999996,450.0,1.0,15.0,,,,0.0,4.0,2.0,4.0,0.0,4.0,50.0,,,,,,,,0.0,0.0,0.049638999999999996,0.611328,-0.230713,-0.755371,0.9121229999999999,-0.412116,-0.166995,-0.033219,-0.033345,-0.0321,,,,,,,,,,,,,,,,,,,,,,,,,,,,,,,,,,,,,,,,,,,,,,,,,,,,,,,,,,,,,,,,,
34544,1645817550.713942,1645817550.759341,1.0,0.0,3964.102539,4483.077147999999,4174.358886999999,4276.410156,3990.256348,450.0,1.0,15.0,,,,0.0,4.0,0.0,4.0,0.0,4.0,33.333332,,,,,,,,,,,,,,,,,,,,,,,,,,,,,,,,,,,,,,,,,,,,,,,,,,,,,,,,,,,,,,,,,,,,,,,,,,,,,,,,,,,,
34545,1645817550.721756,1645817550.7671552,2.0,0.0,3969.2307130000004,4640.512695,4146.153809,4247.692383,4016.923096,16072.0,1.0,15.0,,,,0.0,4.0,0.0,4.0,0.0,4.0,33.333332,,,,,,,,1.0,0.0,0.050341000000000004,0.611572,-0.230713,-0.755127,0.9277489999999999,-0.398932,-0.151858,-0.033168,-0.033282,-0.028158,,,,,,,,,,,,,,,,,,,,,,,,,,,,,,,,,,,,,,,,,,,,,,,,,,,,,,,,,,,,,,,,,
34546,1645817550.729569,1645817550.7749698,3.0,0.0,3947.6923829999996,4753.333496,4116.922852000001,4230.769043,4033.3332520000004,450.0,1.0,15.0,,,,0.0,4.0,0.0,4.0,0.0,4.0,33.333332,,,,,,,,,,,,,,,,,,,,,,,,,,,,,,,,,,,,,,,,,,,,,,,,,,,,,,0.0,0.0,1.0,0.0,512.0,0.8237680000000001,,,,,,,,,,,,,,,,,,,,,,,,,
34547,1645817550.737383,1645817550.782785,4.0,0.0,3889.743652,4752.307617,4104.615234000001,4256.410156,4040.512939,17.0,1.0,15.0,,,,0.0,4.0,0.0,4.0,0.0,4.0,33.333332,,,,,,,,2.0,0.0,0.04849,0.611328,-0.23095700000000002,-0.755371,0.917983,-0.403326,-0.170901,-0.033172,-0.033274,-0.030811,,,,,,,,,,,,,,,,,,,,,,,,,,,,,,,,,,,,,,,,,,,,,,,,,,,,,,,,,,,,,,,,,
34548,1645817550.745196,1645817550.790599,5.0,0.0,3879.487061,4564.102539,4154.871582,4306.666504,4035.897461,450.0,1.0,15.0,,,,0.0,4.0,0.0,4.0,0.0,4.0,33.333332,,,,,,,,,,,,,,,,,,,,,,,,,,,,,,,,,,,,,,,,,,,,,,,,,,,,,,,,,,,,,,,,,,,,,,,,,,,,,,,,,,,,
34549,1645817550.753009,1645817550.798414,6.0,0.0,3905.641113,4349.230957,4203.077147999999,4297.94873,4017.9487299999996,16122.0,1.0,15.0,,,,0.0,4.0,0.0,4.0,0.0,4.0,33.333332,,,,,,,,3.0,0.0,0.050341000000000004,0.611572,-0.230713,-0.755127,0.9277489999999999,-0.398932,-0.151858,-0.033125999999999996,-0.033218,-0.026997000000000004,,,,,,,,,,,,,,,,,,,,,,,,,,,,,,,,,,,,,,,,,,,,,,,,,,,,,,,,,,,,,,,,,
34550,1645817550.760823,1645817550.8062289,7.0,0.0,3904.102539,4248.717772999999,4201.025879,4271.282227000001,3995.384521,450.0,1.0,15.0,,,,0.0,4.0,0.0,4.0,0.0,4.0,33.333332,,,,,,,,,,,,,,,,,,,,,,,,,,,,,,,,,,,,,,,,,,,,,,,,,,,,,,0.0,0.0,1.0,0.0,512.0,0.8237680000000001,,,,,,,,,,,,,,,,,,,,,,,,,
34551,1645817550.768636,1645817550.814043,8.0,0.0,3900.512939,4211.282227000001,4206.153809,4285.128418,3996.923096,450.0,1.0,15.0,,,,0.0,4.0,0.0,4.0,0.0,4.0,33.333332,,,,,,,,4.0,0.0,0.050341000000000004,0.611572,-0.230713,-0.755127,0.9131,-0.391119,-0.158694,-0.033183,-0.033168,-0.029913,,,,,,,,,,,,,,,,,,,,,,,,,,,,,,,,,,,,,,,,,,,,,,,,,,,,,,,,,,,,,,,,,
34552,1645817550.77645,1645817550.821858,9.0,0.0,3942.5642090000006,4372.820313,4195.897461,4277.94873,4022.0512700000004,0.0,1.0,15.0,,,,0.0,4.0,0.0,4.0,0.0,4.0,33.333332,,,,,,,,,,,,,,,,,,,,,,,,,,,,,,,,,,,,,,,,,,,,,,,,,,,,,,,,,,,,,,,,,,,,,,,,,,,,,,,,,,,,
34553,1645817550.7842631,1645817550.8295732,10.0,0.0,3953.3332520000004,4682.05127,4129.743652,4223.589844,4022.5642090000006,450.0,1.0,15.0,,,,0.0,4.0,0.0,4.0,0.0,4.0,33.333332,,,,,,,,5.0,0.0,0.050341000000000004,0.611572,-0.230713,-0.755127,0.906752,-0.41992799999999997,-0.150881,-0.033283,-0.033074,-0.032438999999999996,,,,,,,,,,,,,,,,,,,,,,,,,,,,,,,,,,,,,,,,,,,,,,,,,,,,,,,,,,,,,,,,,
34554,1645817550.7920759,1645817550.8373868,11.0,0.0,3921.025635,4812.820313,4082.5642090000006,4189.743652,4023.5898439999996,16162.0,1.0,15.0,,,,0.0,4.0,0.0,4.0,0.0,4.0,33.333332,,,,,,,,,,,,,,,,,,,,,,,,,,,,,,,,,,,,,,,,,,,,,,,,,,,,,,0.0,0.0,1.0,0.0,512.0,0.8237680000000001,,,,,,,,,,,,,,,,,,,,,,,,,
34555,1645817550.79989,1645817550.8453019,12.0,0.0,3927.179443,4761.025879,4089.2307130000004,4238.974121,4040.512939,450.0,1.0,15.0,,,,0.0,4.0,0.0,4.0,0.0,4.0,33.333332,,,,,,,,6.0,0.0,0.051031,0.611816,-0.230713,-0.754883,0.894545,-0.41455699999999995,-0.147463,-0.033226,-0.033038,-0.028463,,,,,,,,,,,,,,,,,,,,,,,,,,,,,,,,,,,,,,,,,,,,,,,,,,,,,,,,,,,,,,,,,
34556,1645817550.807703,1645817550.853117,13.0,0.0,3940.0,4791.794922,4102.05127,4249.230957,4080.512939,450.0,1.0,15.0,,,,0.0,4.0,0.0,4.0,0.0,4.0,33.333332,,,,,,,,,,,,,,,,,,,,,,,,,,,,,,,,,,,,,,,,,,,,,,,,,,,,,,,,,,,,,,,,,,,,,,,,,,,,,,,,,,,,
34557,1645817550.815517,1645817550.8609312,14.0,0.0,3895.897461,4740.512695,4122.05127,4206.153809,4111.794922,450.0,1.0,15.0,,,,0.0,4.0,0.0,4.0,0.0,4.0,33.333332,,,,,,,,7.0,0.0,0.052123,0.611816,-0.230469,-0.754883,0.9038219999999999,-0.408209,-0.143069,-0.033224000000000004,-0.033201,-0.031134,,,,,,,,,,,,,,,,,,,,,,,,,,,,,,,,,,,,,,,,,,,,,,,,,,,,,,,,,,,,,,,,,
34558,1645817550.8233302,1645817550.868746,15.0,0.0,3862.5642090000006,4458.461426,4157.436035,4263.077147999999,4077.4357909999994,16162.0,1.0,15.0,,,,0.0,4.0,0.0,4.0,0.0,4.0,33.333332,,,,,,,,,,,,,,,,,,,,1.0,0.0,0.0,,,,,,,,,,,,,,,,,,,,,,,,,,,,,,,,0.0,0.0,1.0,0.0,512.0,1.0,102.83017,27.937096,7.294884,1.9234209999999998,1.8086939999999998,60.356052000000005,373.20764199999996,108.03234099999999,29.059465000000003,22.324463,6.011443,24.62661,7.922794000000001,3.063242,1.9783130000000002,56.43504300000001,128.070206,92.233124,45.606133,47.962006,30.641640000000002,21.357257999999998,4.430471,2.4481610000000003,2.081805
34559,1645817550.8311439,1645817550.87656,16.0,0.0,3901.025635,4334.358886999999,4192.307617,4301.538574,4034.358887,0.0,1.0,15.0,,,,0.0,4.0,0.0,4.0,0.0,4.0,33.333332,,,,,,,,8.0,0.0,0.052123,0.611816,-0.230469,-0.754883,0.920424,-0.41699899999999995,-0.15332300000000001,-0.033222,-0.03325,-0.027337,,,,,,,,,,,,,,,,,,,,,,,,,,,,,,,,,,,,,,,,,,,,,,,,,,,,,,,,,,,,,,,,,
34560,1645817550.838957,1645817550.884375,17.0,0.0,3961.538574,4354.358886999999,4247.179688,4289.230957,4036.923096,0.0,1.0,15.0,,,,0.0,4.0,0.0,4.0,0.0,4.0,33.333332,,,,,,,,,,,,,,,,,,,,,,,,,,,,,,,,,,,,,,,,,,,,,,,,,,,,,,,,,,,,,,,,,,,,,,,,,,,,,,,,,,,,
34561,1645817550.8467698,1645817550.89219,18.0,0.0,3984.615479,4428.717772999999,4231.282227000001,4298.461426,4045.1281740000004,0.0,1.0,15.0,,,,0.0,4.0,0.0,4.0,0.0,4.0,33.333332,,,,,,,,9.0,0.0,0.050304,0.612061,-0.230225,-0.754883,0.9072399999999999,-0.411627,-0.151858,-0.033122000000000006,-0.033148000000000004,-0.030072,,,,,,,,,,,,,,,,,,,,,,,,,,,,,,,,,,,,,,,,,,,,,,,,,,,,,,,,,,,,,,,,,
34562,1645817550.854584,1645817550.900004,19.0,0.0,3976.4101560000004,4723.589844,4132.820313,4250.256348,4057.9487299999996,0.0,1.0,15.0,,,,0.0,4.0,0.0,4.0,0.0,4.0,33.333332,,,,,,,,,,,,,,,,,,,,,,,,,,,,,,,,,,,,,,,,,,,,,,,,,,,,,,0.0,0.0,1.0,0.0,512.0,1.0,,,,,,,,,,,,,,,,,,,,,,,,,
34563,1645817550.862397,1645817550.907819,20.0,0.0,3916.923096,4927.179688,4082.0512700000004,4176.410156,4078.974365,0.0,1.0,15.0,,,,0.0,4.0,0.0,4.0,0.0,4.0,33.333332,,,,,,,,10.0,0.0,0.050304,0.612061,-0.230225,-0.754883,0.9155409999999999,-0.40381500000000004,-0.151858,-0.033082,-0.033056,-0.032583,,,,,,,,,,,,,,,,,,,,,,,,,,,,,,,,,,,,,,,,,,,,,,,,,,,,,,,,,,,,,,,,,
34564,1645817550.870211,1645817550.915534,21.0,0.0,3851.281982,4794.358886999999,4075.897461,4206.153809,4057.9487299999996,0.0,1.0,15.0,,,,0.0,4.0,0.0,4.0,0.0,4.0,33.333332,,,,,,,,,,,,,,,,,,,,,,,,,,,,,,,,,,,,,,,,,,,,,,,,,,,,,,,,,,,,,,,,,,,,,,,,,,,,,,,,,,,,
34565,1645817550.878024,1645817550.923348,22.0,0.0,3854.8718259999996,4558.461426,4101.538574,4292.820313,4011.281982,0.0,1.0,15.0,,,,0.0,4.0,0.0,4.0,0.0,4.0,33.333332,,,,,,,,11.0,0.0,0.050304,0.612061,-0.230225,-0.754883,0.9155409999999999,-0.41260399999999997,-0.155276,-0.033094,-0.033022,-0.03494,,,,,,,,,,,,,,,,,,,,,,,,,,,,,,,,,,,,,,,,,,,,,,,,,,,,,,,,,,,,,,,,,
34566,1645817550.8858368,1645817550.931163,23.0,0.0,3882.0512700000004,4409.230957,4163.589844,4303.077147999999,3997.4357909999994,0.0,1.0,15.0,,,,0.0,4.0,0.0,4.0,0.0,4.0,33.333332,,,,,,,,,,,,,,,,,,,,,,,,,,,,,,,,,,,,,,,,,,,,,,,,,,,,,,0.0,0.0,1.0,0.0,512.0,1.0,,,,,,,,,,,,,,,,,,,,,,,,,
34567,1645817550.893651,1645817550.938978,24.0,0.0,3890.256348,4402.05127,4183.077147999999,4265.128418,3997.9487299999996,0.0,1.0,15.0,,,,0.0,4.0,0.0,4.0,0.0,4.0,33.333332,,,,,,,,12.0,0.0,0.050304,0.612061,-0.230225,-0.754883,0.9160299999999999,-0.41895200000000005,-0.157717,-0.033154,-0.03304,-0.030713,,,,,,,,,,,,,,,,,,,,,,,,,,,,,,,,,,,,,,,,,,,,,,,,,,,,,,,,,,,,,,,,,
34568,1645817550.901464,1645817550.946792,25.0,0.0,3928.205078,4621.538574,4142.563965,4250.769043,3996.4101560000004,0.0,1.0,15.0,,,,0.0,4.0,0.0,4.0,0.0,4.0,33.333332,,,,,,,,,,,,,,,,,,,,,,,,,,,,,,,,,,,,,,,,,,,,,,,,,,,,,,,,,,,,,,,,,,,,,,,,,,,,,,,,,,,,
34569,1645817550.909277,1645817550.954607,26.0,0.0,3968.718018,4796.922852000001,4151.282227000001,4266.666504,4056.923096,0.0,1.0,15.0,,,,0.0,4.0,0.0,4.0,0.0,4.0,33.333332,,,,,,,,13.0,0.0,0.050304,0.612061,-0.230225,-0.754883,0.909682,-0.409186,-0.15820599999999999,-0.03311,-0.033105,-0.03316,,,,,,,,,,,,,,,,,,,,,,,,,,,,,,,,,,,,,,,,,,,,,,,,,,,,,,,,,,,,,,,,,
34570,1645817550.9170911,1645817550.9624221,27.0,0.0,3932.3076170000004,4623.589844,4188.717772999999,4271.794922,4110.769043,0.0,1.0,15.0,,,,0.0,4.0,0.0,4.0,0.0,4.0,33.333332,,,,,,,,,,,,,,,,,,,,,,,,,,,,,,,,,,,,,,,,,,,,,,,,,,,,,,0.0,0.0,1.0,0.0,512.0,1.0,,,,,,,,,,,,,,,,,,,,,,,,,
34571,1645817550.9249039,1645817550.9702358,28.0,0.0,3891.794922,4364.102539,4191.282227000001,4283.077147999999,4056.4101560000004,0.0,1.0,15.0,,,,0.0,4.0,0.0,4.0,0.0,4.0,33.333332,,,,,,,,14.0,0.0,0.050304,0.612061,-0.230225,-0.754883,0.91017,-0.417975,-0.156252,-0.033217,-0.033115,-0.035410000000000004,,,,,,,,,,,,,,,,,,,,,,,,,,,,,,,,,,,,,,,,,,,,,,,,,,,,,,,,,,,,,,,,,
34572,1645817550.932718,1645817550.978051,29.0,0.0,3916.4101560000004,4351.282227000001,4192.820313,4312.820313,3992.3076170000004,0.0,1.0,15.0,,,,0.0,4.0,0.0,4.0,0.0,4.0,33.333332,,,,,,,,,,,,,,,,,,,,,,,,,,,,,,,,,,,,,,,,,,,,,,,,,,,,,,,,,,,,,,,,,,,,,,,,,,,,,,,,,,,,
34573,1645817550.940531,1645817550.985866,30.0,0.0,3952.3076170000004,4400.0,4208.205078,4325.641113000001,4014.358887,0.0,1.0,15.0,,,,0.0,4.0,0.0,4.0,0.0,4.0,33.333332,,,,,,,,15.0,0.0,0.049173,0.612061,-0.230469,-0.754883,0.9111469999999999,-0.404303,-0.147951,-0.033167,-0.033124,-0.031137,,,,,,,,,,,,,,,,,,,,,,,,,,,,,,,,,,,,,,,,,,,,,,,,,,,,,,,,,,,,,,,,,
34574,1645817550.948344,1645817550.99358,31.0,0.0,3979.487061,4333.846191,4214.871582,4318.461426,4046.1538090000004,0.0,1.0,15.0,,,,0.0,4.0,0.0,4.0,0.0,4.0,33.333332,,,,,,,,,,,,,,,,,,,,1.0,0.0,0.0,,,,,,,,,,,,,,,,,,,,,,,,,,,,,,,,0.0,0.0,1.0,0.0,512.0,1.0,135.708191,34.275124,6.702986,2.015941,1.7121490000000001,53.408779,332.212219,77.853996,29.764590999999996,23.098974,6.488647,24.708378,5.116885,3.1317459999999997,1.8232439999999999,30.403086,87.755936,45.338608,22.643759,25.552006,40.79866,19.320566,3.9643870000000003,2.980479,1.9464560000000002
34575,1645817550.956158,1645817551.001395,32.0,0.0,4016.923096,4458.974121,4201.538574,4263.077147999999,4069.743652,0.0,1.0,15.0,,,,0.0,4.0,0.0,4.0,0.0,4.0,33.333332,,,,,,,,16.0,0.0,0.048457,0.611816,-0.230469,-0.755127,0.897475,-0.401862,-0.150881,-0.033268,-0.033083,-0.027291000000000003,,,,,,,,,,,,,,,,,,,,,,,,,,,,,,,,,,,,,,,,,,,,,,,,,,,,,,,,,,,,,,,,,
34576,1645817550.9639711,1645817551.0092099,33.0,0.0,4001.025635,4804.615234000001,4147.179688,4202.563965,4106.153809,0.0,1.0,15.0,,,,0.0,4.0,0.0,4.0,0.0,4.0,33.333332,,,,,,,,,,,,,,,,,,,,,,,,,,,,,,,,,,,,,,,,,,,,,,,,,,,,,,,,,,,,,,,,,,,,,,,,,,,,,,,,,,,,
34577,1645817550.971785,1645817551.017024,34.0,0.0,3921.538574,4847.179688,4104.615234000001,4263.077147999999,4101.538574,0.0,1.0,15.0,,,,0.0,4.0,0.0,4.0,0.0,4.0,33.333332,,,,,,,,17.0,0.0,0.048457,0.611816,-0.230469,-0.755127,0.913588,-0.406256,-0.16406500000000002,-0.03331,-0.033095,-0.030079,,,,,,,,,,,,,,,,,,,,,,,,,,,,,,,,,,,,,,,,,,,,,,,,,,,,,,,,,,,,,,,,,
34578,1645817550.979598,1645817551.0248392,35.0,0.0,3913.3332520000004,4600.512695,4147.179688,4289.743652,4085.641113,0.0,1.0,15.0,,,,0.0,4.0,0.0,4.0,0.0,4.0,33.333332,,,,,,,,,,,,,,,,,,,,,,,,,,,,,,,,,,,,,,,,,,,,,,,,,,,,,,0.0,0.0,1.0,0.0,512.0,1.0,,,,,,,,,,,,,,,,,,,,,,,,,
34579,1645817550.987411,1645817551.0326538,36.0,0.0,3970.7692869999996,4436.410156,4220.512695,4234.871582,4078.461426,0.0,1.0,15.0,,,,0.0,4.0,0.0,4.0,0.0,4.0,33.333332,,,,,,,,18.0,0.0,0.048457,0.611816,-0.230469,-0.755127,0.9131,-0.41699899999999995,-0.156252,-0.033349000000000004,-0.033106000000000003,-0.032638,,,,,,,,,,,,,,,,,,,,,,,,,,,,,,,,,,,,,,,,,,,,,,,,,,,,,,,,,,,,,,,,,
34580,1645817550.995225,1645817551.040468,37.0,0.0,3990.7692869999996,4484.102539,4197.94873,4238.974121,4052.3076170000004,0.0,1.0,15.0,,,,0.0,4.0,0.0,4.0,0.0,4.0,33.333332,,,,,,,,,,,,,,,,,,,,,,,,,,,,,,,,,,,,,,,,,,,,,,,,,,,,,,,,,,,,,,,,,,,,,,,,,,,,,,,,,,,,
34581,1645817551.0030382,1645817551.048283,38.0,0.0,3993.3332520000004,4651.282227000001,4130.256348,4247.692383,4046.6667479999996,0.0,1.0,15.0,,,,0.0,4.0,0.0,4.0,0.0,4.0,33.333332,,,,,,,,19.0,0.0,0.052123,0.611816,-0.230469,-0.754883,0.91017,-0.40235,-0.152834,-0.033382999999999996,-0.033164,-0.028642,,,,,,,,,,,,,,,,,,,,,,,,,,,,,,,,,,,,,,,,,,,,,,,,,,,,,,,,,,,,,,,,,
34582,1645817551.0108519,1645817551.056098,39.0,0.0,4001.538574,4723.589844,4127.179688,4227.692383,4074.8718259999996,0.0,1.0,15.0,,,,0.0,4.0,0.0,4.0,0.0,4.0,33.333332,,,,,,,,,,,,,,,,,,,,,,,,,,,,,,,,,,,,,,,,,,,,,,,,,,,,,,0.0,0.0,1.0,0.0,512.0,1.0,,,,,,,,,,,,,,,,,,,,,,,,,
34583,1645817551.018665,1645817551.0640118,40.0,0.0,3967.179443,4678.974121,4137.436035,4255.897461,4104.615234000001,0.0,1.0,15.0,,,,0.0,4.0,0.0,4.0,0.0,4.0,33.333332,,,,,,,,20.0,0.0,0.049173,0.612061,-0.230469,-0.754883,0.913588,-0.400397,-0.157229,-0.033365,-0.033070999999999996,-0.031344,,,,,,,,,,,,,,,,,,,,,,,,,,,,,,,,,,,,,,,,,,,,,,,,,,,,,,,,,,,,,,,,,
34584,1645817551.0264778,1645817551.071827,41.0,0.0,3951.281982,4597.94873,4134.871582,4301.025879,4107.179688,0.0,1.0,15.0,,,,0.0,4.0,0.0,4.0,0.0,4.0,33.333332,,,,,,,,,,,,,,,,,,,,,,,,,,,,,,,,,,,,,,,,,,,,,,,,,,,,,,,,,,,,,,,,,,,,,,,,,,,,,,,,,,,,
34585,1645817551.034292,1645817551.079641,42.0,0.0,3970.7692869999996,4413.333496,4167.179688,4314.358886999999,4055.384521,0.0,1.0,15.0,,,,0.0,4.0,0.0,4.0,0.0,4.0,33.333332,,,,,,,,21.0,0.0,0.050304,0.612061,-0.230225,-0.754883,0.903334,-0.394049,-0.152834,-0.033446,-0.032986,-0.03363,,,,,,,,,,,,,,,,,,,,,,,,,,,,,,,,,,,,,,,,,,,,,,,,,,,,,,,,,,,,,,,,,
34586,1645817551.042105,1645817551.087456,43.0,0.0,3983.076904,4408.717772999999,4168.205078,4267.179688,4041.538574,0.0,1.0,15.0,,,,0.0,4.0,0.0,4.0,0.0,4.0,33.333332,,,,,,,,,,,,,,,,,,,,,,,,,,,,,,,,,,,,,,,,,,,,,,,,,,,,,,0.0,0.0,1.0,0.0,512.0,1.0,,,,,,,,,,,,,,,,,,,,,,,,,
34587,1645817551.049919,1645817551.095271,44.0,0.0,4015.384521,4734.358886999999,4111.282227000001,4216.922852000001,4098.461426,0.0,1.0,15.0,,,,0.0,4.0,0.0,4.0,0.0,4.0,33.333332,,,,,,,,22.0,0.0,0.050304,0.612061,-0.230225,-0.754883,0.913588,-0.386236,-0.150393,-0.033276,-0.033056999999999996,-0.035783999999999996,,,,,,,,,,,,,,,,,,,,,,,,,,,,,,,,,,,,,,,,,,,,,,,,,,,,,,,,,,,,,,,,,
34588,1645817551.057732,1645817551.103085,45.0,0.0,4027.6923829999996,4869.743652,4094.358887,4229.743652,4141.025879,0.0,1.0,15.0,,,,0.0,4.0,0.0,4.0,0.0,4.0,33.333332,,,,,,,,,,,,,,,,,,,,,,,,,,,,,,,,,,,,,,,,,,,,,,,,,,,,,,,,,,,,,,,,,,,,,,,,,,,,,,,,,,,,
34589,1645817551.0655448,1645817551.1109,46.0,0.0,3970.7692869999996,4704.102539,4121.025879,4203.589844,4140.512695,0.0,1.0,15.0,,,,0.0,4.0,0.0,4.0,0.0,4.0,33.333332,,,,,,,,23.0,0.0,0.048457,0.611816,-0.230469,-0.755127,0.910658,-0.404303,-0.160159,-0.033366,-0.03312,-0.037675,,,,,,,,,,,,,,,,,,,,,,,,,,,,,,,,,,,,,,,,,,,,,,,,,,,,,,,,,,,,,,,,,
34590,1645817551.073359,1645817551.118715,47.0,0.0,3960.0,4502.563965,4178.974121,4216.410156,4105.641113000001,0.0,1.0,15.0,,,,0.0,4.0,0.0,4.0,0.0,4.0,33.333332,,,,,,,,,,,,,,,,,,,,1.0,0.0,0.0,,,,,,,,,,,,,,,,,,,,,,,,,,,,,,,,0.0,0.0,1.0,0.0,512.0,1.0,160.472961,37.082157,6.372568,2.291815,1.7343259999999998,44.953976000000004,264.093475,82.682137,35.352692,26.19294,6.9345479999999995,23.151434,4.6786970000000005,3.400038,1.875201,13.504862,55.702332,19.971802,9.512023,12.096942,48.756541999999996,15.811176000000001,4.137751000000001,3.4981440000000004,1.934865
34591,1645817551.081172,1645817551.126529,48.0,0.0,4028.718018,4340.0,4230.769043,4329.230957,4061.538574,0.0,1.0,15.0,,,,0.0,4.0,0.0,4.0,0.0,4.0,33.333332,,,,,,,,24.0,0.0,0.048457,0.611816,-0.230469,-0.755127,0.918959,-0.41895200000000005,-0.158694,-0.03335,-0.03308,-0.039425,,,,,,,,,,,,,,,,,,,,,,,,,,,,,,,,,,,,,,,,,,,,,,,,,,,,,,,,,,,,,,,,,
34592,1645817551.088986,1645817551.1343439,49.0,0.0,4058.974365,4516.410156,4178.461426,4288.717772999999,4085.641113,0.0,1.0,15.0,,,,0.0,4.0,0.0,4.0,0.0,4.0,33.333332,,,,,,,,,,,,,,,,,,,,,,,,,,,,,,,,,,,,,,,,,,,,,,,,,,,,,,,,,,,,,,,,,,,,,,,,,,,,,,,,,,,,
34593,1645817551.0967991,1645817551.142059,50.0,0.0,4026.1538090000004,4842.563965,4096.922852000001,4185.128418,4136.922852000001,0.0,1.0,15.0,,,,0.0,4.0,0.0,4.0,0.0,4.0,33.333332,,,,,,,,25.0,0.0,0.048457,0.611816,-0.230469,-0.755127,0.9277489999999999,-0.406256,-0.151369,-0.033188999999999996,-0.033141000000000004,-0.041,,,,,,,,,,,,,,,,,,,,,,,,,,,,,,,,,,,,,,,,,,,,,,,,,,,,,,,,,,,,,,,,,
34594,1645817551.1046119,1645817551.149873,51.0,0.0,3978.461426,4718.461426,4116.922852000001,4270.256348,4116.410156,0.0,1.0,15.0,,,,0.0,4.0,0.0,4.0,0.0,4.0,33.333332,,,,,,,,,,,,,,,,,,,,,,,,,,,,,,,,,,,,,,,,,,,,,,,,,,,,,,0.0,0.0,1.0,0.0,512.0,1.0,,,,,,,,,,,,,,,,,,,,,,,,,
34595,1645817551.112426,1645817551.1576881,52.0,0.0,3970.256348,4384.615234000001,4172.820313,4329.230957,4071.794922,0.0,1.0,15.0,,,,0.0,4.0,0.0,4.0,0.0,4.0,33.333332,,,,,,,,26.0,0.0,0.049604,0.611816,-0.230225,-0.755127,0.91017,-0.40576799999999996,-0.164553,-0.033239,-0.033195999999999996,-0.042369,,,,,,,,,,,,,,,,,,,,,,,,,,,,,,,,,,,,,,,,,,,,,,,,,,,,,,,,,,,,,,,,,
34596,1645817551.120239,1645817551.165503,53.0,0.0,4027.6923829999996,4366.666504,4188.205078,4265.641113000001,4048.205078,0.0,1.0,15.0,,,,0.0,4.0,0.0,4.0,0.0,4.0,33.333332,,,,,,,,,,,,,,,,,,,,,,,,,,,,,,,,,,,,,,,,,,,,,,,,,,,,,,,,,,,,,,,,,,,,,,,,,,,,,,,,,,,,
34597,1645817551.128053,1645817551.173317,54.0,0.0,4060.512939,4549.743652,4182.05127,4263.589844,4076.4101560000004,0.0,1.0,15.0,,,,0.0,4.0,0.0,4.0,0.0,4.0,33.333332,,,,,,,,27.0,0.0,0.049604,0.611816,-0.230225,-0.755127,0.913588,-0.408209,-0.167483,-0.033138,-0.033197000000000004,-0.0374,,,,,,,,,,,,,,,,,,,,,,,,,,,,,,,,,,,,,,,,,,,,,,,,,,,,,,,,,,,,,,,,,
34598,1645817551.135866,1645817551.181132,55.0,0.0,4024.102539,4776.922852000001,4131.282227000001,4266.666504,4161.538574,0.0,1.0,15.0,,,,0.0,4.0,0.0,4.0,0.0,4.0,33.333332,,,,,,,,,,,,,,,,,,,,,,,,,,,,,,,,,,,,,,,,,,,,,,,,,,,,,,0.0,0.0,1.0,0.0,512.0,1.0,,,,,,,,,,,,,,,,,,,,,,,,,
34599,1645817551.14368,1645817551.188947,56.0,0.0,3999.487061,4800.512695,4105.641113000001,4246.666504,4168.205078,0.0,1.0,15.0,,,,0.0,4.0,0.0,4.0,0.0,4.0,33.333332,,,,,,,,28.0,0.0,0.050724,0.611816,-0.22998000000000002,-0.755127,0.9077290000000001,-0.41065100000000004,-0.154299,-0.033193,-0.033295,-0.032976,,,,,,,,,,,,,,,,,,,,,,,,,,,,,,,,,,,,,,,,,,,,,,,,,,,,,,,,,,,,,,,,,
34600,1645817551.151493,1645817551.196761,57.0,0.0,4006.6667479999996,4400.512695,4176.922852000001,4312.307617,4072.3076170000004,0.0,1.0,15.0,,,,0.0,4.0,0.0,4.0,0.0,4.0,33.333332,,,,,,,,,,,,,,,,,,,,,,,,,,,,,,,,,,,,,,,,,,,,,,,,,,,,,,,,,,,,,,,,,,,,,,,,,,,,,,,,,,,,
34601,1645817551.159306,1645817551.204576,58.0,0.0,4024.102539,4283.589844,4191.794922,4317.94873,4056.923096,0.0,1.0,15.0,,,,0.0,4.0,0.0,4.0,0.0,4.0,33.333332,,,,,,,,29.0,0.0,0.049604,0.611816,-0.230225,-0.755127,0.9091940000000001,-0.39697899999999997,-0.151369,-0.033194,-0.033335000000000004,-0.035196,,,,,,,,,,,,,,,,,,,,,,,,,,,,,,,,,,,,,,,,,,,,,,,,,,,,,,,,,,,,,,,,,
34602,1645817551.16712,1645817551.212291,59.0,0.0,4081.025635,4757.436035,4120.512695,4225.128418,4151.282227000001,0.0,1.0,15.0,,,,0.0,4.0,0.0,4.0,0.0,4.0,33.333332,,,,,,,,,,,,,,,,,,,,,,,,,,,,,,,,,,,,,,,,,,,,,,,,,,,,,,0.0,0.0,1.0,0.0,512.0,1.0,,,,,,,,,,,,,,,,,,,,,,,,,
34603,1645817551.174933,1645817551.2201052,60.0,0.0,4087.6923829999996,4905.641113000001,4113.846191,4215.384765999999,4187.179688,0.0,1.0,15.0,,,,0.0,4.0,0.0,4.0,0.0,4.0,33.333332,,,,,,,,30.0,0.0,0.049604,0.611816,-0.230225,-0.755127,0.913588,-0.408209,-0.167483,-0.033244,-0.033371,-0.030846,,,,,,,,,,,,,,,,,,,,,,,,,,,,,,,,,,,,,,,,,,,,,,,,,,,,,,,,,,,,,,,,,
34604,1645817551.1827471,1645817551.2279198,61.0,0.0,3997.9487299999996,4441.538574,4167.179688,4277.436035,4110.769043,0.0,1.0,15.0,,,,0.0,4.0,0.0,4.0,0.0,4.0,33.333332,,,,,,,,,,,,,,,,,,,,,,,,,,,,,,,,,,,,,,,,,,,,,,,,,,,,,,,,,,,,,,,,,,,,,,,,,,,,,,,,,,,,
34605,1645817551.1905599,1645817551.235735,62.0,0.0,4021.025635,4314.358886999999,4193.846191,4260.512695,4065.641113,0.0,1.0,15.0,,,,0.0,4.0,0.0,4.0,0.0,4.0,33.333332,,,,,,,,31.0,0.0,0.049604,0.611816,-0.230225,-0.755127,0.9091940000000001,-0.39697899999999997,-0.151369,-0.03324,-0.033402999999999995,-0.033279,,,,,,,,,,,,,,,,,,,,,,,,,,,,,,,,,,,,,,,,,,,,,,,,,,,,,,,,,,,,,,,,,
34606,1645817551.198373,1645817551.243549,63.0,0.0,4140.0,4723.077147999999,4177.94873,4237.436035,4116.410156,0.0,1.0,15.0,,,,0.0,4.0,0.0,4.0,0.0,4.0,33.333332,1.0,8.333333,1.0,0.0,3.0,0.0,3.0,,,,,,,,,,,,,1.0,0.0,0.0,,,,,,,,,,,,,,,,,,,,,,,,,,,,,,,,0.0,0.0,1.0,0.0,512.0,1.0,173.279236,35.417862,6.519871,3.032845,1.9213580000000001,38.519352000000005,190.036591,129.91485600000001,54.775627,31.270943,7.375942,20.754919,6.854533,4.121795,2.158521,5.865889,34.543842,11.628152,4.795694999999999,7.023719,53.448277000000004,11.882204,4.90369,4.156904,2.109865
34607,1645817551.206187,1645817551.251364,64.0,0.0,4108.717772999999,4898.974121,4121.025879,4262.563965,4176.410156,450.0,1.0,15.0,,,,0.0,4.0,0.0,4.0,0.0,4.0,33.333332,,,,,,,,32.0,0.0,0.046495,0.612061,-0.230225,-0.755127,0.9131,-0.39697899999999997,-0.165042,-0.033333999999999996,-0.033333999999999996,-0.03542,,,,,,,,,,,,,,,,,,,,,,,,,,,,,,,,,,,,,,,,,,,,,,,,,,,,,,,,,,,,,,,,,
34608,1645817551.214,1645817551.259178,65.0,0.0,3994.358887,4707.179688,4091.794922,4223.589844,4157.436035,450.0,1.0,15.0,,,,0.0,4.0,0.0,4.0,0.0,4.0,33.333332,,,,,,,,,,,,,,,,,,,,,,,,,,,,,,,,,,,,,,,,,,,,,,,,,,,,,,,,,,,,,,,,,,,,,,,,,,,,,,,,,,,,
34609,1645817551.2218142,1645817551.266993,66.0,0.0,4037.9487299999996,4551.282227000001,4178.974121,4201.025879,4108.717772999999,16148.0,1.0,15.0,,,,0.0,4.0,0.0,4.0,0.0,4.0,33.333332,,,,,,,,33.0,0.0,0.046495,0.612061,-0.230225,-0.755127,0.901381,-0.407233,-0.161624,-0.033419,-0.033320999999999996,-0.037347000000000005,,,,,,,,,,,,,,,,,,,,,,,,,,,,,,,,,,,,,,,,,,,,,,,,,,,,,,,,,,,,,,,,,
34610,1645817551.229627,1645817551.274808,67.0,0.0,4139.487305,4649.743652,4225.128418,4261.538574,4133.846191,450.0,1.0,15.0,,,,0.0,4.0,0.0,4.0,0.0,4.0,33.333332,,,,,,,,,,,,,,,,,,,,,,,,,,,,,,,,,,,,,,,,,,,,,,,,,,,,,,0.0,0.0,1.0,0.0,512.0,1.0,,,,,,,,,,,,,,,,,,,,,,,,,
34611,1645817551.23744,1645817551.282722,68.0,0.0,4086.6667479999996,4803.077147999999,4136.410156,4287.179688,4183.589844,0.0,1.0,15.0,,,,0.0,4.0,0.0,4.0,0.0,4.0,33.333332,,,,,,,,34.0,0.0,0.050304,0.612061,-0.230225,-0.754883,0.913588,-0.410163,-0.161135,-0.033348,-0.033358,-0.032831,,,,,,,,,,,,,,,,,,,,,,,,,,,,,,,,,,,,,,,,,,,,,,,,,,,,,,,,,,,,,,,,,
34612,1645817551.2452538,1645817551.2905369,69.0,0.0,4014.8718259999996,4636.922852000001,4122.05127,4251.794922,4164.102539,450.0,1.0,15.0,,,,0.0,4.0,0.0,4.0,0.0,4.0,33.333332,,,,,,,,,,,,,,,,,,,,,,,,,,,,,,,,,,,,,,,,,,,,,,,,,,,,,,,,,,,,,,,,,,,,,,,,,,,,,,,,,,,,
34613,1645817551.253067,1645817551.298451,70.0,0.0,4071.794922,4322.05127,4225.128418,4257.436035,4097.436035,16118.0,1.0,15.0,,,,0.0,4.0,0.0,4.0,0.0,4.0,33.333332,,,,,,,,35.0,0.0,0.050304,0.612061,-0.230225,-0.754883,0.91017,-0.412116,-0.157229,-0.033333999999999996,-0.033245,-0.034968,,,,,,,,,,,,,,,,,,,,,,,,,,,,,,,,,,,,,,,,,,,,,,,,,,,,,,,,,,,,,,,,,
34614,1645817551.260881,1645817551.306266,71.0,0.0,4121.025879,4400.512695,4233.333496,4283.589844,4096.922852000001,450.0,1.0,15.0,,,,0.0,4.0,0.0,4.0,0.0,4.0,33.333332,,,,,,,,,,,,,,,,,,,,,,,,,,,,,,,,,,,,,,,,,,,,,,,,,,,,,,0.0,0.0,1.0,0.0,512.0,1.0,,,,,,,,,,,,,,,,,,,,,,,,,
34615,1645817551.268694,1645817551.314081,72.0,0.0,4061.538574,4737.94873,4127.179688,4266.666504,4165.128418,450.0,1.0,15.0,,,,0.0,4.0,0.0,4.0,0.0,4.0,33.333332,,,,,,,,36.0,0.0,0.050304,0.612061,-0.230225,-0.754883,0.918959,-0.410163,-0.14941600000000002,-0.033419,-0.033192,-0.03694,,,,,,,,,,,,,,,,,,,,,,,,,,,,,,,,,,,,,,,,,,,,,,,,,,,,,,,,,,,,,,,,,
34616,1645817551.2765071,1645817551.321895,73.0,0.0,4040.512939,4681.538574,4122.05127,4275.897461,4174.871582,13.0,1.0,15.0,,,,0.0,4.0,0.0,4.0,0.0,4.0,33.333332,,,,,,,,,,,,,,,,,,,,,,,,,,,,,,,,,,,,,,,,,,,,,,,,,,,,,,,,,,,,,,,,,,,,,,,,,,,,,,,,,,,,
34617,1645817551.284321,1645817551.32971,74.0,0.0,4101.538574,4409.743652,4202.05127,4302.563965,4096.410156,450.0,1.0,15.0,,,,0.0,4.0,0.0,4.0,0.0,4.0,33.333332,,,,,,,,37.0,0.0,0.049173,0.612061,-0.230469,-0.754883,0.9199360000000001,-0.415534,-0.154299,-0.033348,-0.033242,-0.038764,,,,,,,,,,,,,,,,,,,,,,,,,,,,,,,,,,,,,,,,,,,,,,,,,,,,,,,,,,,,,,,,,
34618,1645817551.292134,1645817551.337525,75.0,0.0,4110.769043,4558.461426,4173.846191,4247.179688,4095.384521,16137.0,1.0,15.0,,,,0.0,4.0,0.0,4.0,0.0,4.0,33.333332,,,,,,,,,,,,,,,,,,,,,,,,,,,,,,,,,,,,,,,,,,,,,,,,,,,,,,0.0,0.0,1.0,0.0,512.0,1.0,,,,,,,,,,,,,,,,,,,,,,,,,
34619,1645817551.299947,1645817551.345339,76.0,0.0,4051.794922,4824.102539,4090.7692869999996,4188.717772999999,4201.025879,450.0,1.0,15.0,,,,0.0,4.0,0.0,4.0,0.0,4.0,33.333332,,,,,,,,38.0,0.0,0.049876,0.612305,-0.230469,-0.7546390000000001,0.9091940000000001,-0.40576799999999996,-0.155764,-0.033431,-0.033238,-0.034057,,,,,,,,,,,,,,,,,,,,,,,,,,,,,,,,,,,,,,,,,,,,,,,,,,,,,,,,,,,,,,,,,
34620,1645817551.307761,1645817551.353154,77.0,0.0,4054.8718259999996,4584.615234000001,4147.692383,4285.128418,4198.974121,450.0,1.0,15.0,,,,0.0,4.0,0.0,4.0,0.0,4.0,33.333332,,,,,,,,,,,,,,,,,,,,,,,,,,,,,,,,,,,,,,,,,,,,,,,,,,,,,,,,,,,,,,,,,,,,,,,,,,,,,,,,,,,,
34621,1645817551.315574,1645817551.3609688,78.0,0.0,4135.897461,4296.922852000001,4248.205078,4350.769043,4103.077147999999,450.0,1.0,15.0,,,,0.0,4.0,0.0,4.0,0.0,4.0,33.333332,,,,,,,,39.0,0.0,0.049876,0.612305,-0.230469,-0.7546390000000001,0.9072399999999999,-0.40283800000000003,-0.155764,-0.033457,-0.033186,-0.036218,,,,,,,,,,,,,,,,,,,,,,,,,,,,,,,,,,,,,,,,,,,,,,,,,,,,,,,,,,,,,,,,,
34622,1645817551.323388,1645817551.368683,79.0,0.0,4145.641113000001,4587.692383,4185.641113000001,4252.820313,4129.743652,16137.0,1.0,15.0,,,,0.0,4.0,0.0,4.0,0.0,4.0,33.333332,,,,,,,,,,,,,,,,,,,,1.0,0.0,0.0,,,,,,,,,,,,,,,,,,,,,,,,,,,,,,,,0.0,0.0,1.0,0.0,512.0,1.0,179.498108,29.871197,7.266331,4.640993,2.27048,37.628723,131.182343,217.905182,98.468689,38.542137,7.957319999999999,18.507519,11.606318,5.653892,2.660124,3.9824599999999997,22.494362,12.1201,4.852768,6.755527000000001,57.58400699999999,8.469533,5.9677370000000005,5.2431220000000005,2.497607
34623,1645817551.331201,1645817551.376498,80.0,0.0,4068.205078,4903.077147999999,4094.358887,4181.538574,4204.102539,450.0,1.0,15.0,,,,0.0,4.0,0.0,4.0,0.0,4.0,33.333332,,,,,,,,40.0,0.0,0.050991,0.612305,-0.230225,-0.7546390000000001,0.9199360000000001,-0.40528000000000003,-0.154788,-0.033431999999999996,-0.033139,-0.031913,,,,,,,,,,,,,,,,,,,,,,,,,,,,,,,,,,,,,,,,,,,,,,,,,,,,,,,,,,,,,,,,,
34624,1645817551.339014,1645817551.384313,81.0,0.0,4089.2307130000004,4601.025879,4187.692383,4246.666504,4170.256348,450.0,1.0,15.0,,,,0.0,4.0,0.0,4.0,0.0,4.0,33.333332,,,,,,,,,,,,,,,,,,,,,,,,,,,,,,,,,,,,,,,,,,,,,,,,,,,,,,,,,,,,,,,,,,,,,,,,,,,,,,,,,,,,
34625,1645817551.346828,1645817551.392127,82.0,0.0,4180.512695,4369.743652,4262.05127,4311.794922,4129.743652,450.0,1.0,15.0,,,,0.0,4.0,0.0,4.0,0.0,4.0,33.333332,,,,,,,,41.0,0.0,0.047969,0.612549,-0.230225,-0.7546390000000001,0.9072399999999999,-0.42090500000000003,-0.147951,-0.033408999999999994,-0.033145,-0.034337,,,,,,,,,,,,,,,,,,,,,,,,,,,,,,,,,,,,,,,,,,,,,,,,,,,,,,,,,,,,,,,,,
34626,1645817551.354641,1645817551.399942,83.0,0.0,4129.743652,4664.615234000001,4163.077147999999,4293.846191,4171.794922,16137.0,1.0,15.0,,,,0.0,4.0,0.0,4.0,0.0,4.0,33.333332,,,,,,,,,,,,,,,,,,,,,,,,,,,,,,,,,,,,,,,,,,,,,,,,,,,,,,0.0,0.0,1.0,0.0,512.0,1.0,,,,,,,,,,,,,,,,,,,,,,,,,
34627,1645817551.3624551,1645817551.407757,84.0,0.0,4048.205078,4761.538574,4115.384765999999,4230.769043,4190.769043,450.0,1.0,15.0,,,,0.0,4.0,0.0,4.0,0.0,4.0,33.333332,,,,,,,,42.0,0.0,0.049125999999999996,0.612549,-0.22998000000000002,-0.7546390000000001,0.909682,-0.396002,-0.143557,-0.033389,-0.0332,-0.030268,,,,,,,,,,,,,,,,,,,,,,,,,,,,,,,,,,,,,,,,,,,,,,,,,,,,,,,,,,,,,,,,,
34628,1645817551.3702679,1645817551.4155712,85.0,0.0,4131.282227000001,4616.410156,4181.538574,4192.820313,4161.538574,450.0,1.0,15.0,,,,0.0,4.0,0.0,4.0,0.0,4.0,33.333332,,,,,,,,,,,,,,,,,,,,,,,,,,,,,,,,,,,,,,,,,,,,,,,,,,,,,,,,,,,,,,,,,,,,,,,,,,,,,,,,,,,,
34629,1645817551.378081,1645817551.4233859,86.0,0.0,4186.666504,4708.205078,4170.769043,4225.128418,4160.0,450.0,1.0,15.0,,,,0.0,4.0,0.0,4.0,0.0,4.0,33.333332,,,,,,,,43.0,0.0,0.049125999999999996,0.612549,-0.22998000000000002,-0.7546390000000001,0.8969860000000001,-0.41651000000000005,-0.146975,-0.033320999999999996,-0.033103,-0.02646,,,,,,,,,,,,,,,,,,,,,,,,,,,,,,,,,,,,,,,,,,,,,,,,,,,,,,,,,,,,,,,,,
34630,1645817551.385895,1645817551.431201,87.0,0.0,4076.923096,4668.717772999999,4125.128418,4283.077147999999,4151.282227000001,16137.0,1.0,15.0,,,,0.0,4.0,0.0,4.0,0.0,4.0,33.333332,,,,,,,,,,,,,,,,,,,,,,,,,,,,,,,,,,,,,,,,,,,,,,,,,,,,,,0.0,0.0,1.0,0.0,512.0,1.0,,,,,,,,,,,,,,,,,,,,,,,,,
34631,1645817551.393708,1645817551.438915,88.0,0.0,4063.5898439999996,4472.820313,4156.410156,4278.974121,4133.333496,450.0,1.0,15.0,,,,0.0,4.0,0.0,4.0,0.0,4.0,33.333332,,,,,,,,44.0,0.0,0.049125999999999996,0.612549,-0.22998000000000002,-0.7546390000000001,0.9072399999999999,-0.415534,-0.170901,-0.03331,-0.032966,-0.029381,,,,,,,,,,,,,,,,,,,,,,,,,,,,,,,,,,,,,,,,,,,,,,,,,,,,,,,,,,,,,,,,,
34632,1645817551.4015222,1645817551.4467301,89.0,0.0,4188.717772999999,4714.871582,4156.922852000001,4213.846191,4176.410156,450.0,1.0,15.0,,,,0.0,4.0,0.0,4.0,0.0,4.0,33.333332,,,,,,,,,,,,,,,,,,,,,,,,,,,,,,,,,,,,,,,,,,,,,,,,,,,,,,,,,,,,,,,,,,,,,,,,,,,,,,,,,,,,
34633,1645817551.409335,1645817551.454545,90.0,0.0,4187.179688,4848.717772999999,4150.769043,4239.487305,4200.0,450.0,1.0,15.0,,,,0.0,4.0,0.0,4.0,0.0,4.0,33.333332,,,,,,,,45.0,0.0,0.050256,0.612549,-0.22973600000000002,-0.7546390000000001,0.921889,-0.404791,-0.15674100000000002,-0.033397,-0.03299,-0.031911,,,,,,,,,,,,,,,,,,,,,,,,,,,,,,,,,,,,,,,,,,,,,,,,,,,,,,,,,,,,,,,,,
34634,1645817551.417148,1645817551.462359,91.0,0.0,4088.205078,4322.563965,4213.846191,4353.333496,4119.487305,16137.0,1.0,15.0,,,,0.0,4.0,0.0,4.0,0.0,4.0,33.333332,,,,,,,,,,,,,,,,,,,,,,,,,,,,,,,,,,,,,,,,,,,,,,,,,,,,,,0.0,0.0,1.0,0.0,512.0,1.0,,,,,,,,,,,,,,,,,,,,,,,,,
34635,1645817551.4249618,1645817551.470174,92.0,0.0,4131.282227000001,4214.358886999999,4218.461426,4312.820313,4112.307617,450.0,1.0,15.0,,,,0.0,4.0,0.0,4.0,0.0,4.0,33.333332,,,,,,,,46.0,0.0,0.049125999999999996,0.612549,-0.22998000000000002,-0.7546390000000001,0.9087049999999999,-0.40528000000000003,-0.143069,-0.033475,-0.03306,-0.028085000000000002,,,,,,,,,,,,,,,,,,,,,,,,,,,,,,,,,,,,,,,,,,,,,,,,,,,,,,,,,,,,,,,,,
34636,1645817551.432775,1645817551.477989,93.0,0.0,4227.692383,4796.410156,4138.974121,4197.436035,4225.641113000001,450.0,1.0,15.0,,,,0.0,4.0,0.0,4.0,0.0,4.0,33.333332,,,,,,,,,,,,,,,,,,,,,,,,,,,,,,,,,,,,,,,,,,,,,,,,,,,,,,,,,,,,,,,,,,,,,,,,,,,,,,,,,,,,
34637,1645817551.440589,1645817551.485803,94.0,0.0,4189.230957,4824.615234000001,4147.179688,4262.563965,4228.717772999999,450.0,1.0,15.0,,,,0.0,4.0,0.0,4.0,0.0,4.0,33.333332,,,,,,,,47.0,0.0,0.050256,0.612549,-0.22973600000000002,-0.7546390000000001,0.9087049999999999,-0.40576799999999996,-0.146975,-0.033546,-0.033221,-0.030746,,,,,,,,,,,,,,,,,,,,,,,,,,,,,,,,,,,,,,,,,,,,,,,,,,,,,,,,,,,,,,,,,
34638,1645817551.448402,1645817551.493618,95.0,0.0,4136.922852000001,4386.153809,4218.461426,4340.512695,4135.897461,16137.0,1.0,15.0,,,,0.0,4.0,0.0,4.0,0.0,4.0,33.333332,,,,,,,,,,,,,,,,,,,,1.0,0.0,0.0,,,,,,,,,,,,,,,,,,,,,,,,,,,,,,,,0.0,0.0,1.0,0.0,512.0,1.0,177.825775,22.271248,8.471939,7.317080000000001,2.838762,43.374271,99.85075400000001,330.29071,170.252823,50.81456,8.609866,17.080975,18.205220999999998,8.150661,3.4260900000000003,4.075864,15.897029999999999,14.896912,6.536139,7.7815199999999995,60.269875,6.054535,6.966984,6.951617999999999,3.176677
34639,1645817551.456216,1645817551.501432,96.0,0.0,4170.769043,4596.922852000001,4178.461426,4248.205078,4174.871582,450.0,1.0,15.0,,,,0.0,4.0,0.0,4.0,0.0,4.0,33.333332,,,,,,,,48.0,0.0,0.050256,0.612549,-0.22973600000000002,-0.7546390000000001,0.920424,-0.409186,-0.146975,-0.033462,-0.033219,-0.033139999999999996,,,,,,,,,,,,,,,,,,,,,,,,,,,,,,,,,,,,,,,,,,,,,,,,,,,,,,,,,,,,,,,,,
34640,1645817551.4640288,1645817551.509247,97.0,0.0,4168.205078,4904.615234000001,4115.384765999999,4184.102539,4244.615234000001,450.0,1.0,15.0,,,,0.0,4.0,0.0,4.0,0.0,4.0,33.333332,,,,,,,,,,,,,,,,,,,,,,,,,,,,,,,,,,,,,,,,,,,,,,,,,,,,,,,,,,,,,,,,,,,,,,,,,,,,,,,,,,,,
34641,1645817551.471842,1645817551.5169618,98.0,0.0,4143.589844,4473.846191,4187.179688,4262.563965,4167.692383,450.0,1.0,15.0,,,,0.0,4.0,0.0,4.0,0.0,4.0,33.333332,,,,,,,,49.0,0.0,0.050256,0.612549,-0.22973600000000002,-0.7546390000000001,0.9028459999999999,-0.398444,-0.155764,-0.033388,-0.033169,-0.035344,,,,,,,,,,,,,,,,,,,,,,,,,,,,,,,,,,,,,,,,,,,,,,,,,,,,,,,,,,,,,,,,,
34642,1645817551.479656,1645817551.524777,99.0,0.0,4187.692383,4265.128418,4246.153809,4316.410156,4116.410156,16137.0,1.0,15.0,,,,0.0,4.0,0.0,4.0,0.0,4.0,33.333332,,,,,,,,,,,,,,,,,,,,,,,,,,,,,,,,,,,,,,,,,,,,,,,,,,,,,,0.0,0.0,1.0,0.0,512.0,1.0,,,,,,,,,,,,,,,,,,,,,,,,,
34643,1645817551.487469,1645817551.532591,100.0,0.0,4196.922852000001,4712.307617,4175.384765999999,4284.102539,4214.358886999999,450.0,1.0,15.0,,,,0.0,4.0,0.0,4.0,0.0,4.0,33.333332,,,,,,,,50.0,0.0,0.051359,0.612549,-0.229492,-0.7546390000000001,0.920424,-0.392096,-0.151369,-0.033369,-0.03327,-0.037376,,,,,,,,,,,,,,,,,,,,,,,,,,,,,,,,,,,,,,,,,,,,,,,,,,,,,,,,,,,,,,,,,
34644,1645817551.4952831,1645817551.540306,101.0,0.0,4143.589844,4707.692383,4147.692383,4258.461426,4243.077147999999,450.0,1.0,15.0,,,,0.0,4.0,0.0,4.0,0.0,4.0,33.333332,,,,,,,,,,,,,,,,,,,,,,,,,,,,,,,,,,,,,,,,,,,,,,,,,,,,,,,,,,,,,,,,,,,,,,,,,,,,,,,,,,,,
34645,1645817551.503096,1645817551.548021,102.0,0.0,4166.153809,4376.410156,4212.307617,4265.641113000001,4151.282227000001,450.0,1.0,15.0,,,,0.0,4.0,0.0,4.0,0.0,4.0,33.333332,,,,,,,,51.0,0.0,0.051359,0.612549,-0.229492,-0.7546390000000001,0.913588,-0.398444,-0.14551,-0.03345,-0.033166,-0.039057999999999995,,,,,,,,,,,,,,,,,,,,,,,,,,,,,,,,,,,,,,,,,,,,,,,,,,,,,,,,,,,,,,,,,
34646,1645817551.510909,1645817551.555835,103.0,0.0,4207.179688,4552.820313,4223.589844,4278.461426,4146.666504,16137.0,1.0,15.0,,,,0.0,4.0,0.0,4.0,0.0,4.0,33.333332,,,,,,,,,,,,,,,,,,,,,,,,,,,,,,,,,,,,,,,,,,,,,,,,,,,,,,0.0,0.0,1.0,0.0,512.0,1.0,,,,,,,,,,,,,,,,,,,,,,,,,
34647,1645817551.518723,1645817551.56365,104.0,0.0,4145.641113000001,4655.897461,4188.717772999999,4303.589844,4187.179688,450.0,1.0,15.0,,,,0.0,4.0,0.0,4.0,0.0,4.0,33.333332,,,,,,,,52.0,0.0,0.048798,0.612549,-0.229248,-0.754883,0.9121229999999999,-0.386236,-0.150393,-0.033475,-0.033218,-0.040768,,,,,,,,,,,,,,,,,,,,,,,,,,,,,,,,,,,,,,,,,,,,,,,,,,,,,,,,,,,,,,,,,
34648,1645817551.526536,1645817551.571465,105.0,0.0,4126.666504,4458.461426,4169.230957,4277.94873,4174.358886999999,450.0,1.0,15.0,,,,0.0,4.0,0.0,4.0,0.0,4.0,33.333332,,,,,,,,,,,,,,,,,,,,,,,,,,,,,,,,,,,,,,,,,,,,,,,,,,,,,,,,,,,,,,,,,,,,,,,,,,,,,,,,,,,,
