,Timestamp,OriginalTimestamp,EEG.Counter,EEG.Interpolated,EEG.AF3,EEG.T7,EEG.Pz,EEG.T8,EEG.AF4,EEG.RawCq,EEG.Battery,EEG.BatteryPercent,MarkerIndex,MarkerType,MarkerValueInt,EEG.MarkerHardware,CQ.AF3,CQ.T7,CQ.Pz,CQ.T8,CQ.AF4,CQ.Overall,EQ.SampleRateQuality,EQ.OVERALL,EQ.AF3,EQ.T7,EQ.Pz,EQ.T8,EQ.AF4,MOT.CounterMems,MOT.InterpolatedMems,MOT.Q0,MOT.Q1,MOT.Q2,MOT.Q3,MOT.AccX,MOT.AccY,MOT.AccZ,MOT.MagX,MOT.MagY,MOT.MagZ,MC.Action,MC.ActionPower,MC.IsActive,PM.Engagement.IsActive,PM.Engagement.Scaled,PM.Engagement.Raw,PM.Engagement.Min,PM.Engagement.Max,PM.Excitement.IsActive,PM.Excitement.Scaled,PM.Excitement.Raw,PM.Excitement.Min,PM.Excitement.Max,PM.LongTermExcitement,PM.Stress.IsActive,PM.Stress.Scaled,PM.Stress.Raw,PM.Stress.Min,PM.Stress.Max,PM.Relaxation.IsActive,PM.Relaxation.Scaled,PM.Relaxation.Raw,PM.Relaxation.Min,PM.Relaxation.Max,PM.Interest.IsActive,PM.Interest.Scaled,PM.Interest.Raw,PM.Interest.Min,PM.Interest.Max,PM.Focus.IsActive,PM.Focus.Scaled,PM.Focus.Raw,PM.Focus.Min,PM.Focus.Max,FE.BlinkWink,FE.HorizontalEyesDirection,FE.UpperFaceAction,FE.UpperFaceActionPower,FE.LowerFaceAction,FE.LowerFaceActionPower,POW.AF3.Theta,POW.AF3.Alpha,POW.AF3.BetaL,POW.AF3.BetaH,POW.AF3.Gamma,POW.T7.Theta,POW.T7.Alpha,POW.T7.BetaL,POW.T7.BetaH,POW.T7.Gamma,POW.Pz.Theta,POW.Pz.Alpha,POW.Pz.BetaL,POW.Pz.BetaH,POW.Pz.Gamma,POW.T8.Theta,POW.T8.Alpha,POW.T8.BetaL,POW.T8.BetaH,POW.T8.Gamma,POW.AF4.Theta,POW.AF4.Alpha,POW.AF4.BetaL,POW.AF4.BetaH,POW.AF4.Gamma
13918,1645494622.905745,1645494622.932189,44.0,0.0,4307.179688,4198.974121,4217.94873,4276.922852000001,4281.538574,0.0,4.0,77.0,,,,0.0,4.0,4.0,4.0,0.0,4.0,66.666664,,,,,,,,22.0,0.0,0.484073,-0.22876,0.6191409999999999,0.5744630000000001,0.8730600000000001,-0.48828900000000003,-0.137697,-0.033378,-0.039247000000000004,-0.030115,,,,,,,,,,,,,,,,,,,,,,,,,,,,,,,,,,,0.0,0.0,1.0,0.0,1.0,0.0,,,,,,,,,,,,,,,,,,,,,,,,,
13919,1645494622.91356,1645494622.9400039,45.0,0.0,4298.974121,4210.769043,4223.589844,4273.846191,4301.538574,0.0,4.0,77.0,,,,0.0,4.0,4.0,4.0,0.0,4.0,66.666664,,,,,,,,,,,,,,,,,,,,,,,,,,,,,,,,,,,,,,,,,,,,,,,,,,,,,,,,,,,,,,,,,,,,,,,,,,,,,,,,,,,,
13920,1645494622.921375,1645494622.947819,46.0,0.0,4302.563965,4211.794922,4225.128418,4275.897461,4327.179688,0.0,4.0,77.0,,,,0.0,4.0,4.0,4.0,0.0,4.0,66.666664,,,,,,,,23.0,0.0,0.483783,-0.22876,0.6191409999999999,0.574707,0.87892,-0.489754,-0.13916199999999998,-0.033458,-0.03918,-0.032182,,,,,,,,,,,,,,,,,,,,,,,,,,,,,,,,,,,,,,,,,,,,,,,,,,,,,,,,,,,,,,,,,
13921,1645494622.92919,1645494622.955635,47.0,0.0,4313.846191,4189.743652,4210.769043,4275.384765999999,4309.743652,0.0,4.0,77.0,,,,0.0,4.0,4.0,4.0,0.0,4.0,66.666664,,,,,,,,,,,,,,,,,,,,,,,,,,,,,,,,,,,,,,,,,,,,,,,,,,,,,,,,,,,,,,,,,,,,,,,,,,,,,,,,,,,,
13922,1645494622.937005,1645494622.96345,48.0,0.0,4313.846191,4182.563965,4205.128418,4276.410156,4279.487305,0.0,4.0,77.0,,,,0.0,4.0,4.0,4.0,0.0,4.0,66.666664,,,,,,,,24.0,0.0,0.48376,-0.22876,0.6193850000000001,0.5744630000000001,0.869642,-0.484871,-0.11914200000000001,-0.033433,-0.039266,-0.027743,1.0,0.0,0.0,,,,,,,,,,,,,,,,,,,,,,,,,,,,,,,,0.0,0.0,1.0,0.0,1.0,0.0,2.2008240000000003,1.061717,1.7110330000000002,1.164998,2.145804,43.352493,12.989249000000001,4.868314,4.507909,2.636376,0.710937,0.926876,0.355825,0.481771,0.373337,0.20540999999999998,0.06386,0.026998,0.082968,0.127735,5.36015,1.338478,1.209869,0.873985,1.1783629999999998
13923,1645494622.94482,1645494622.971265,49.0,0.0,4297.94873,4220.512695,4214.871582,4278.974121,4266.153809,0.0,4.0,77.0,,,,0.0,4.0,4.0,4.0,0.0,4.0,66.666664,,,,,,,,,,,,,,,,,,,,,,,,,,,,,,,,,,,,,,,,,,,,,,,,,,,,,,,,,,,,,,,,,,,,,,,,,,,,,,,,,,,,
13924,1645494622.952635,1645494622.9790812,50.0,0.0,4302.05127,4252.820313,4225.128418,4272.307617,4273.846191,0.0,4.0,77.0,,,,0.0,4.0,4.0,4.0,0.0,4.0,66.666664,,,,,,,,25.0,0.0,0.483783,-0.22876,0.6191409999999999,0.574707,0.87892,-0.489754,-0.13916199999999998,-0.033507999999999996,-0.039197,-0.030047000000000004,,,,,,,,,,,,,,,,,,,,,,,,,,,,,,,,,,,,,,,,,,,,,,,,,,,,,,,,,,,,,,,,,
13925,1645494622.96045,1645494622.986896,51.0,0.0,4320.0,4267.692383,4220.0,4268.717772999999,4299.487305,0.0,4.0,77.0,,,,0.0,4.0,4.0,4.0,0.0,4.0,66.666664,,,,,,,,,,,,,,,,,,,,,,,,,,,,,,,,,,,,,,,,,,,,,,,,,,,,,,,,,,,,,,,,,,,,,,,,,,,,,,,,,,,,
13926,1645494622.968265,1645494622.994711,52.0,0.0,4300.0,4268.717772999999,4222.05127,4276.410156,4315.897461,0.0,4.0,77.0,,,,0.0,4.0,4.0,4.0,0.0,4.0,66.666664,,,,,,,,26.0,0.0,0.483783,-0.22876,0.6191409999999999,0.574707,0.859876,-0.49073,-0.135256,-0.033428,-0.039182999999999996,-0.032119999999999996,,,,,,,,,,,,,,,,,,,,,,,,,,,,,,,,,,,0.0,0.0,1.0,0.0,1.0,0.0,,,,,,,,,,,,,,,,,,,,,,,,,
13927,1645494622.9760802,1645494623.002627,53.0,0.0,4280.512695,4270.256348,4222.563965,4280.512695,4306.153809,0.0,4.0,77.0,,,,0.0,4.0,4.0,4.0,0.0,4.0,66.666664,,,,,,,,,,,,,,,,,,,,,,,,,,,,,,,,,,,,,,,,,,,,,,,,,,,,,,,,,,,,,,,,,,,,,,,,,,,,,,,,,,,,
13928,1645494622.9838948,1645494623.010442,54.0,0.0,4313.846191,4295.897461,4223.077147999999,4276.922852000001,4302.563965,0.0,4.0,77.0,,,,0.0,4.0,4.0,4.0,0.0,4.0,66.666664,,,,,,,,27.0,0.0,0.48389799999999994,-0.228516,0.6191409999999999,0.574707,0.873549,-0.495125,-0.14111500000000002,-0.033406,-0.03922,-0.027785,,,,,,,,,,,,,,,,,,,,,,,,,,,,,,,,,,,,,,,,,,,,,,,,,,,,,,,,,,,,,,,,,
13929,1645494622.99171,1645494623.018357,55.0,0.0,4332.820313,4308.205078,4228.205078,4277.436035,4313.333496,0.0,4.0,77.0,,,,0.0,4.0,4.0,4.0,0.0,4.0,66.666664,,,,,,,,,,,,,,,,,,,,,,,,,,,,,,,,,,,,,,,,,,,,,,,,,,,,,,,,,,,,,,,,,,,,,,,,,,,,,,,,,,,,
13930,1645494622.999524,1645494623.026173,56.0,0.0,4300.512695,4275.384765999999,4220.512695,4280.512695,4310.256348,0.0,4.0,77.0,,,,0.0,4.0,4.0,4.0,0.0,4.0,66.666664,,,,,,,,28.0,0.0,0.48358599999999996,-0.228516,0.6193850000000001,0.574707,0.87892,-0.488777,-0.13379100000000002,-0.033532,-0.039155,-0.030085,,,,,,,,,,,,,,,,,,,,,,,,,,,,,,,,,,,0.0,0.0,1.0,0.0,1.0,0.0,,,,,,,,,,,,,,,,,,,,,,,,,
13931,1645494623.00734,1645494623.033988,57.0,0.0,4268.205078,4252.820313,4202.05127,4280.0,4289.230957,0.0,4.0,77.0,,,,0.0,4.0,4.0,4.0,0.0,4.0,66.666664,,,,,,,,,,,,,,,,,,,,,,,,,,,,,,,,,,,,,,,,,,,,,,,,,,,,,,,,,,,,,,,,,,,,,,,,,,,,,,,,,,,,
13932,1645494623.015154,1645494623.041803,58.0,0.0,4268.205078,4272.307617,4204.615234000001,4274.358886999999,4272.820313,0.0,4.0,77.0,,,,0.0,4.0,4.0,4.0,0.0,4.0,66.666664,,,,,,,,29.0,0.0,0.483411,-0.228271,0.6193850000000001,0.574951,0.863783,-0.5024489999999999,-0.143069,-0.033499,-0.039195,-0.032251999999999996,,,,,,,,,,,,,,,,,,,,,,,,,,,,,,,,,,,,,,,,,,,,,,,,,,,,,,,,,,,,,,,,,
13933,1645494623.022969,1645494623.049619,59.0,0.0,4286.153809,4257.94873,4212.307617,4269.230957,4281.538574,0.0,4.0,77.0,,,,0.0,4.0,4.0,4.0,0.0,4.0,66.666664,,,,,,,,,,,,,,,,,,,,,,,,,,,,,,,,,,,,,,,,,,,,,,,,,,,,,,,,,,,,,,,,,,,,,,,,,,,,,,,,,,,,
13934,1645494623.030784,1645494623.057434,60.0,0.0,4291.794922,4204.615234000001,4196.410156,4271.282227000001,4296.410156,0.0,4.0,77.0,,,,0.0,4.0,4.0,4.0,0.0,4.0,66.666664,,,,,,,,30.0,0.0,0.483411,-0.228271,0.6193850000000001,0.574951,0.878431,-0.507332,-0.12842,-0.033421,-0.039182,-0.034056,,,,,,,,,,,,,,,,,,,,,,,,,,,,,,,,,,,0.0,0.0,1.0,0.0,1.0,0.0,,,,,,,,,,,,,,,,,,,,,,,,,
13935,1645494623.038599,1645494623.065249,61.0,0.0,4273.333496,4196.410156,4200.512695,4273.846191,4286.153809,0.0,4.0,77.0,,,,0.0,4.0,4.0,4.0,0.0,4.0,66.666664,,,,,,,,,,,,,,,,,,,,,,,,,,,,,,,,,,,,,,,,,,,,,,,,,,,,,,,,,,,,,,,,,,,,,,,,,,,,,,,,,,,,
13936,1645494623.0464141,1645494623.073065,62.0,0.0,4253.333496,4241.025879,4229.230957,4272.820313,4266.666504,0.0,4.0,77.0,,,,0.0,4.0,4.0,4.0,0.0,4.0,66.666664,,,,,,,,31.0,0.0,0.483526,-0.228027,0.6193850000000001,0.574951,0.869642,-0.500008,-0.127443,-0.033448,-0.039120999999999996,-0.029479,,,,,,,,,,,,,,,,,,,,,,,,,,,,,,,,,,,,,,,,,,,,,,,,,,,,,,,,,,,,,,,,,
13937,1645494623.054229,1645494623.08098,63.0,0.0,4269.743652,4285.128418,4233.846191,4270.769043,4271.282227000001,0.0,4.0,77.0,,,,0.0,4.0,4.0,4.0,0.0,4.0,66.666664,,,,,,,,,,,,,,,,,,,,,,,,,,,,,,,,,,,,,,,,,,,,,,,,,,,,,,,,,,,,,,,,,,,,,,,,,,,,,,,,,,,,
13938,1645494623.062044,1645494623.088795,64.0,0.0,4296.410156,4277.94873,4221.025879,4271.794922,4277.94873,450.0,4.0,77.0,,,,0.0,4.0,4.0,4.0,0.0,4.0,66.666664,1.0,58.33333199999999,4.0,3.0,4.0,0.0,4.0,32.0,0.0,0.483411,-0.228271,0.6193850000000001,0.574951,0.872084,-0.49951899999999994,-0.13281500000000002,-0.033472,-0.039164,-0.031609,1.0,0.0,0.0,,,,,,,,,,,,,,,,,,,,,,,,,,,,,,,,0.0,0.0,64.0,0.129652,1.0,0.0,2.11537,1.19718,2.154856,1.160976,2.231343,65.403145,12.832232000000001,4.41608,4.2141910000000005,2.9872229999999997,0.68762,0.854245,0.357026,0.445985,0.38513600000000003,0.21632300000000002,0.062932,0.035557,0.099105,0.128965,4.566415,1.32233,1.526577,1.0151350000000001,1.224065
13939,1645494623.069859,1645494623.096611,65.0,0.0,4294.871582,4252.307617,4224.615234000001,4276.922852000001,4280.512695,450.0,4.0,77.0,,,,0.0,4.0,4.0,4.0,0.0,4.0,66.666664,,,,,,,,,,,,,,,,,,,,,,,,,,,,,,,,,,,,,,,,,,,,,,,,,,,,,,,,,,,,,,,,,,,,,,,,,,,,,,,,,,,,
13940,1645494623.077674,1645494623.104426,66.0,0.0,4294.871582,4266.666504,4225.128418,4278.974121,4290.769043,16228.0,4.0,77.0,,,,0.0,4.0,4.0,4.0,0.0,4.0,66.666664,,,,,,,,33.0,0.0,0.483526,-0.228027,0.6193850000000001,0.574951,0.875502,-0.500496,-0.144045,-0.033397,-0.039154,-0.033477999999999994,,,,,,,,,,,,,,,,,,,,,,,,,,,,,,,,,,,,,,,,,,,,,,,,,,,,,,,,,,,,,,,,,
13941,1645494623.085489,1645494623.112242,67.0,0.0,4297.436035,4278.461426,4220.512695,4273.333496,4287.692383,450.0,4.0,77.0,,,,0.0,4.0,4.0,4.0,0.0,4.0,66.666664,,,,,,,,,,,,,,,,,,,,,,,,,,,,,,,,,,,,,,,,,,,,,,,,,,,,,,,,,,,,,,,,,,,,,,,,,,,,,,,,,,,,
13942,1645494623.093304,1645494623.120057,68.0,0.0,4293.333496,4255.897461,4217.436035,4270.769043,4276.410156,16151.0,4.0,77.0,,,,0.0,4.0,4.0,4.0,0.0,4.0,66.666664,,,,,,,,34.0,0.0,0.483526,-0.228027,0.6193850000000001,0.574951,0.872084,-0.49707799999999996,-0.12842,-0.033329000000000004,-0.039243,-0.035207999999999996,,,,,,,,,,,,,,,,,,,,,,,,,,,,,,,,,,,0.0,0.0,64.0,0.129652,1.0,0.0,,,,,,,,,,,,,,,,,,,,,,,,,
13943,1645494623.101119,1645494623.127872,69.0,0.0,4288.205078,4250.769043,4220.512695,4273.333496,4273.846191,450.0,4.0,77.0,,,,0.0,4.0,4.0,4.0,0.0,4.0,66.666664,,,,,,,,,,,,,,,,,,,,,,,,,,,,,,,,,,,,,,,,,,,,,,,,,,,,,,,,,,,,,,,,,,,,,,,,,,,,,,,,,,,,
13944,1645494623.108934,1645494623.135688,70.0,0.0,4278.461426,4265.128418,4215.384765999999,4272.820313,4281.538574,16121.0,4.0,77.0,,,,0.0,4.0,4.0,4.0,0.0,4.0,66.666664,,,,,,,,35.0,0.0,0.483838,-0.228027,0.6191409999999999,0.574951,0.864759,-0.5039140000000001,-0.13916199999999998,-0.033414,-0.039274,-0.030418,,,,,,,,,,,,,,,,,,,,,,,,,,,,,,,,,,,,,,,,,,,,,,,,,,,,,,,,,,,,,,,,,
13945,1645494623.116749,1645494623.143503,71.0,0.0,4269.743652,4254.871582,4212.820313,4271.282227000001,4280.0,450.0,4.0,77.0,,,,0.0,4.0,4.0,4.0,0.0,4.0,66.666664,,,,,,,,,,,,,,,,,,,,,,,,,,,,,,,,,,,,,,,,,,,,,,,,,,,,,,,,,,,,,,,,,,,,,,,,,,,,,,,,,,,,
13946,1645494623.1245642,1645494623.151318,72.0,0.0,4267.179688,4248.205078,4214.358886999999,4272.307617,4276.410156,450.0,4.0,77.0,,,,0.0,4.0,4.0,4.0,0.0,4.0,66.666664,,,,,,,,36.0,0.0,0.483526,-0.228027,0.6193850000000001,0.574951,0.869642,-0.506844,-0.125978,-0.033344,-0.039300999999999996,-0.026106,,,,,,,,,,,,,,,,,,,,,,,,,,,,,,,,,,,0.0,0.0,64.0,0.129652,1.0,0.0,,,,,,,,,,,,,,,,,,,,,,,,,
13947,1645494623.1323788,1645494623.159234,73.0,0.0,4269.743652,4266.666504,4212.307617,4272.820313,4283.589844,0.0,4.0,77.0,,,,0.0,4.0,4.0,4.0,0.0,4.0,66.666664,,,,,,,,,,,,,,,,,,,,,,,,,,,,,,,,,,,,,,,,,,,,,,,,,,,,,,,,,,,,,,,,,,,,,,,,,,,,,,,,,,,,
13948,1645494623.140194,1645494623.167049,74.0,0.0,4269.743652,4289.743652,4211.282227000001,4273.846191,4284.615234000001,450.0,4.0,77.0,,,,0.0,4.0,4.0,4.0,0.0,4.0,66.666664,,,,,,,,37.0,0.0,0.48381599999999997,-0.228027,0.6193850000000001,0.574707,0.874525,-0.48535900000000004,-0.132326,-0.033428,-0.039326,-0.028672000000000003,,,,,,,,,,,,,,,,,,,,,,,,,,,,,,,,,,,,,,,,,,,,,,,,,,,,,,,,,,,,,,,,,
13949,1645494623.148009,1645494623.174864,75.0,0.0,4264.102539,4301.025879,4217.436035,4272.307617,4281.025879,16209.0,4.0,77.0,,,,0.0,4.0,4.0,4.0,0.0,4.0,66.666664,,,,,,,,,,,,,,,,,,,,,,,,,,,,,,,,,,,,,,,,,,,,,,,,,,,,,,,,,,,,,,,,,,,,,,,,,,,,,,,,,,,,
13950,1645494623.155824,1645494623.1826801,76.0,0.0,4252.820313,4285.128418,4216.922852000001,4271.282227000001,4284.102539,450.0,4.0,77.0,,,,0.0,4.0,4.0,4.0,0.0,4.0,66.666664,,,,,,,,38.0,0.0,0.48381599999999997,-0.228027,0.6193850000000001,0.574707,0.89015,-0.489754,-0.136233,-0.033405000000000004,-0.039251,-0.030882999999999997,,,,,,,,,,,,,,,,,,,,,,,,,,,,,,,,,,,0.0,0.0,64.0,0.129652,1.0,0.0,,,,,,,,,,,,,,,,,,,,,,,,,
13951,1645494623.163639,1645494623.190495,77.0,0.0,4248.717772999999,4269.230957,4203.077147999999,4277.94873,4277.436035,450.0,4.0,77.0,,,,0.0,4.0,4.0,4.0,0.0,4.0,66.666664,,,,,,,,,,,,,,,,,,,,,,,,,,,,,,,,,,,,,,,,,,,,,,,,,,,,,,,,,,,,,,,,,,,,,,,,,,,,,,,,,,,,
13952,1645494623.171454,1645494623.19831,78.0,0.0,4267.179688,4290.769043,4204.615234000001,4280.0,4258.461426,450.0,4.0,77.0,,,,0.0,4.0,4.0,4.0,0.0,4.0,66.666664,,,,,,,,39.0,0.0,0.48350299999999996,-0.228027,0.619629,0.574707,0.87892,-0.494148,-0.122072,-0.033434,-0.039184,-0.032824,,,,,,,,,,,,,,,,,,,,,,,,,,,,,,,,,,,,,,,,,,,,,,,,,,,,,,,,,,,,,,,,,
13953,1645494623.1792688,1645494623.206126,79.0,0.0,4266.666504,4318.461426,4215.384765999999,4271.282227000001,4263.077147999999,16209.0,4.0,77.0,,,,0.0,4.0,4.0,4.0,0.0,4.0,66.666664,,,,,,,,,,,,,,,,,,,,,,,,,,,,,,,,,,,,,,,,,,,,,,,,,,,,,,,,,,,,,,,,,,,,,,,,,,,,,,,,,,,,
13954,1645494623.187084,1645494623.213941,80.0,0.0,4231.282227000001,4314.871582,4217.94873,4268.205078,4280.0,450.0,4.0,77.0,,,,0.0,4.0,4.0,4.0,0.0,4.0,66.666664,,,,,,,,40.0,0.0,0.483213,-0.228027,0.619629,0.574951,0.8618299999999999,-0.48340600000000006,-0.120119,-0.033460000000000004,-0.039269,-0.028418000000000002,1.0,0.0,0.0,,,,,,,,,,,,,,,,,,,,,,,,,,,,,,,,0.0,0.0,64.0,0.283208,1.0,0.0,2.3868139999999998,1.5091139999999998,2.484559,1.205202,2.321412,86.43544,12.852300999999999,3.754524,3.716657,3.558676,0.659909,0.711117,0.36949,0.426965,0.41235299999999997,0.206711,0.058806,0.04663,0.109115,0.12194100000000001,3.841303,1.3589,1.69691,1.14783,1.2361950000000002
13955,1645494623.1948981,1645494623.221757,81.0,0.0,4219.487305,4298.974121,4209.743652,4273.333496,4254.871582,450.0,4.0,77.0,,,,0.0,4.0,4.0,4.0,0.0,4.0,66.666664,,,,,,,,,,,,,,,,,,,,,,,,,,,,,,,,,,,,,,,,,,,,,,,,,,,,,,,,,,,,,,,,,,,,,,,,,,,,,,,,,,,,
13956,1645494623.202714,1645494623.229572,82.0,0.0,4253.846191,4281.538574,4207.179688,4272.820313,4224.102539,450.0,4.0,77.0,,,,0.0,4.0,4.0,4.0,0.0,4.0,66.666664,,,,,,,,41.0,0.0,0.483213,-0.228027,0.619629,0.574951,0.871107,-0.500008,-0.140139,-0.033434,-0.039249,-0.030655,,,,,,,,,,,,,,,,,,,,,,,,,,,,,,,,,,,,,,,,,,,,,,,,,,,,,,,,,,,,,,,,,
13957,1645494623.210528,1645494623.2374868,83.0,0.0,4258.461426,4284.615234000001,4202.563965,4270.769043,4250.769043,16209.0,4.0,77.0,,,,0.0,4.0,4.0,4.0,0.0,4.0,66.666664,,,,,,,,,,,,,,,,,,,,,,,,,,,,,,,,,,,,,,,,,,,,,,,,,,,,,,,,,,,,,,,,,,,,,,,,,,,,,,,,,,,,
13958,1645494623.218343,1645494623.245302,84.0,0.0,4230.769043,4328.717772999999,4203.589844,4272.820313,4278.461426,450.0,4.0,77.0,,,,0.0,4.0,4.0,4.0,0.0,4.0,66.666664,,,,,,,,42.0,0.0,0.483641,-0.22778299999999999,0.6193850000000001,0.574951,0.863783,-0.48828900000000003,-0.133303,-0.033411,-0.039327999999999995,-0.032619,,,,,,,,,,,,,,,,,,,,,,,,,,,,,,,,,,,0.0,0.0,64.0,0.283208,1.0,0.0,,,,,,,,,,,,,,,,,,,,,,,,,
13959,1645494623.226159,1645494623.253118,85.0,0.0,4255.384765999999,4364.615234000001,4209.230957,4272.307617,4266.666504,450.0,4.0,77.0,,,,0.0,4.0,4.0,4.0,0.0,4.0,66.666664,,,,,,,,,,,,,,,,,,,,,,,,,,,,,,,,,,,,,,,,,,,,,,,,,,,,,,,,,,,,,,,,,,,,,,,,,,,,,,,,,,,,
13960,1645494623.233973,1645494623.260933,86.0,0.0,4283.589844,4375.897461,4218.461426,4271.794922,4268.717772999999,450.0,4.0,77.0,,,,0.0,4.0,4.0,4.0,0.0,4.0,66.666664,,,,,,,,43.0,0.0,0.48335,-0.22778299999999999,0.6193850000000001,0.575195,0.8681770000000001,-0.504402,-0.13086099999999998,-0.033488,-0.039251999999999995,-0.034435,,,,,,,,,,,,,,,,,,,,,,,,,,,,,,,,,,,,,,,,,,,,,,,,,,,,,,,,,,,,,,,,,
13961,1645494623.2417881,1645494623.268749,87.0,0.0,4252.820313,4401.538574,4220.0,4272.307617,4280.512695,16209.0,4.0,77.0,,,,0.0,4.0,4.0,4.0,0.0,4.0,66.666664,,,,,,,,,,,,,,,,,,,,,,,,,,,,,,,,,,,,,,,,,,,,,,,,,,,,,,,,,,,,,,,,,,,,,,,,,,,,,,,,,,,,
13962,1645494623.249603,1645494623.2765641,88.0,0.0,4237.94873,4446.153809,4220.512695,4269.743652,4265.128418,450.0,4.0,77.0,,,,0.0,4.0,4.0,4.0,0.0,4.0,66.666664,,,,,,,,44.0,0.0,0.483641,-0.22778299999999999,0.6193850000000001,0.574951,0.871107,-0.511727,-0.137697,-0.033557,-0.039331,-0.029868000000000002,,,,,,,,,,,,,,,,,,,,,,,,,,,,,,,,,,,0.0,0.0,64.0,0.283208,1.0,0.0,,,,,,,,,,,,,,,,,,,,,,,,,
13963,1645494623.257418,1645494623.284379,89.0,0.0,4261.025879,4480.0,4217.436035,4274.358886999999,4254.358886999999,450.0,4.0,77.0,,,,0.0,4.0,4.0,4.0,0.0,4.0,66.666664,,,,,,,,,,,,,,,,,,,,,,,,,,,,,,,,,,,,,,,,,,,,,,,,,,,,,,,,,,,,,,,,,,,,,,,,,,,,,,,,,,,,
13964,1645494623.265233,1645494623.2921948,90.0,0.0,4260.512695,4503.077147999999,4202.563965,4277.436035,4263.589844,450.0,4.0,77.0,,,,0.0,4.0,4.0,4.0,0.0,4.0,66.666664,,,,,,,,45.0,0.0,0.483641,-0.22778299999999999,0.6193850000000001,0.574951,0.8589,-0.51368,-0.136233,-0.033424,-0.039255,-0.032008999999999996,,,,,,,,,,,,,,,,,,,,,,,,,,,,,,,,,,,,,,,,,,,,,,,,,,,,,,,,,,,,,,,,,
13965,1645494623.2730482,1645494623.30001,91.0,0.0,4244.615234000001,4527.692383,4208.717772999999,4270.769043,4269.743652,16209.0,4.0,77.0,,,,0.0,4.0,4.0,4.0,0.0,4.0,66.666664,,,,,,,,,,,,,,,,,,,,,,,,,,,,,,,,,,,,,,,,,,,,,,,,,,,,,,,,,,,,,,,,,,,,,,,,,,,,,,,,,,,,
13966,1645494623.280863,1645494623.307925,92.0,0.0,4249.743652,4544.102539,4228.717772999999,4267.692383,4285.128418,450.0,4.0,77.0,,,,0.0,4.0,4.0,4.0,0.0,4.0,66.666664,,,,,,,,46.0,0.0,0.48335,-0.22778299999999999,0.6193850000000001,0.575195,0.8681770000000001,-0.504402,-0.13086099999999998,-0.0335,-0.039187,-0.033886,,,,,,,,,,,,,,,,,,,,,,,,,,,,,,,,,,,0.0,0.0,64.0,0.283208,1.0,0.0,,,,,,,,,,,,,,,,,,,,,,,,,
13967,1645494623.288678,1645494623.315741,93.0,0.0,4258.461426,4562.05127,4223.077147999999,4272.820313,4282.563965,450.0,4.0,77.0,,,,0.0,4.0,4.0,4.0,0.0,4.0,66.666664,,,,,,,,,,,,,,,,,,,,,,,,,,,,,,,,,,,,,,,,,,,,,,,,,,,,,,,,,,,,,,,,,,,,,,,,,,,,,,,,,,,,
13968,1645494623.296493,1645494623.323556,94.0,0.0,4248.717772999999,4596.410156,4211.282227000001,4273.333496,4255.897461,450.0,4.0,77.0,,,,0.0,4.0,4.0,4.0,0.0,4.0,66.666664,,,,,,,,47.0,0.0,0.483526,-0.228027,0.6193850000000001,0.574951,0.869642,-0.49707799999999996,-0.138674,-0.033421,-0.039077,-0.029276999999999997,,,,,,,,,,,,,,,,,,,,,,,,,,,,,,,,,,,,,,,,,,,,,,,,,,,,,,,,,,,,,,,,,
13969,1645494623.304308,1645494623.331371,95.0,0.0,4234.871582,4625.128418,4218.461426,4270.256348,4252.307617,16209.0,4.0,77.0,,,,0.0,4.0,4.0,4.0,0.0,4.0,66.666664,,,,,,,,,,,,,,,,,,,,,,,,,,,,,,,,,,,,,,,,,,,,,,,,,,,,,,,,,,,,,,,,,,,,,,,,,,,,,,,,,,,,
13970,1645494623.312123,1645494623.339187,96.0,0.0,4231.282227000001,4629.230957,4212.820313,4271.282227000001,4245.128418,450.0,4.0,77.0,,,,0.0,4.0,4.0,4.0,0.0,4.0,66.666664,,,,,,,,48.0,0.0,0.48381599999999997,-0.228027,0.6193850000000001,0.574707,0.871107,-0.497566,-0.13135,-0.033546,-0.039076,-0.031329,1.0,0.0,0.0,,,,,,,,,,,,,,,,,,,,,,,,,,,,,,,,0.0,0.0,64.0,0.32184,1.0,0.0,2.885739,1.9428150000000002,2.627614,1.294666,2.42271,99.900871,12.695087,2.9937080000000003,3.065912,4.2150989999999995,0.639865,0.560538,0.413655,0.423375,0.45104700000000003,0.176621,0.052774,0.057116999999999994,0.10884300000000001,0.10744100000000001,3.250941,1.416189,1.6921599999999999,1.2727760000000001,1.2172180000000001
13971,1645494623.3199382,1645494623.347002,97.0,0.0,4245.641113000001,4640.512695,4204.102539,4272.820313,4229.743652,450.0,4.0,77.0,,,,0.0,4.0,4.0,4.0,0.0,4.0,66.666664,,,,,,,,,,,,,,,,,,,,,,,,,,,,,,,,,,,,,,,,,,,,,,,,,,,,,,,,,,,,,,,,,,,,,,,,,,,,,,,,,,,,
13972,1645494623.3277528,1645494623.354817,98.0,0.0,4268.717772999999,4672.307617,4206.666504,4272.307617,4245.128418,450.0,4.0,77.0,,,,0.0,4.0,4.0,4.0,0.0,4.0,66.666664,,,,,,,,49.0,0.0,0.48381599999999997,-0.228027,0.6193850000000001,0.574707,0.8686659999999999,-0.49170699999999995,-0.137209,-0.033414,-0.039026,-0.033324,,,,,,,,,,,,,,,,,,,,,,,,,,,,,,,,,,,,,,,,,,,,,,,,,,,,,,,,,,,,,,,,,
13973,1645494623.335568,1645494623.362633,99.0,0.0,4252.820313,4659.487305,4207.692383,4271.794922,4261.025879,16209.0,4.0,77.0,,,,0.0,4.0,4.0,4.0,0.0,4.0,66.666664,,,,,,,,,,,,,,,,,,,,,,,,,,,,,,,,,,,,,,,,,,,,,,,,,,,,,,,,,,,,,,,,,,,,,,,,,,,,,,,,,,,,
13974,1645494623.343383,1645494623.370448,100.0,0.0,4217.94873,4580.0,4201.025879,4271.282227000001,4245.641113000001,450.0,4.0,77.0,,,,0.0,4.0,4.0,4.0,0.0,4.0,66.666664,,,,,,,,50.0,0.0,0.48370100000000005,-0.228271,0.6193850000000001,0.574707,0.87892,-0.49121800000000004,-0.140139,-0.033295,-0.039077999999999995,-0.028868,,,,,,,,,,,,,,,,,,,,,,,,,,,,,,,,,,,0.0,0.0,64.0,0.32184,1.0,0.0,,,,,,,,,,,,,,,,,,,,,,,,,
13975,1645494623.351198,1645494623.378264,101.0,0.0,4239.487305,4527.179688,4206.666504,4271.794922,4240.0,450.0,4.0,77.0,,,,0.0,4.0,4.0,4.0,0.0,4.0,66.666664,,,,,,,,,,,,,,,,,,,,,,,,,,,,,,,,,,,,,,,,,,,,,,,,,,,,,,,,,,,,,,,,,,,,,,,,,,,,,,,,,,,,
13976,1645494623.359013,1645494623.386179,102.0,0.0,4277.94873,4556.410156,4206.666504,4271.794922,4256.410156,450.0,4.0,77.0,,,,0.0,4.0,4.0,4.0,0.0,4.0,66.666664,,,,,,,,51.0,0.0,0.484188,-0.228516,0.6191409999999999,0.5744630000000001,0.872084,-0.49073,-0.140627,-0.033237,-0.039028,-0.030962,,,,,,,,,,,,,,,,,,,,,,,,,,,,,,,,,,,,,,,,,,,,,,,,,,,,,,,,,,,,,,,,,
13977,1645494623.366828,1645494623.3939939,103.0,0.0,4253.333496,4599.487305,4209.230957,4271.794922,4251.282227000001,16209.0,4.0,77.0,,,,0.0,4.0,4.0,4.0,0.0,4.0,66.666664,,,,,,,,,,,,,,,,,,,,,,,,,,,,,,,,,,,,,,,,,,,,,,,,,,,,,,,,,,,,,,,,,,,,,,,,,,,,,,,,,,,,
13978,1645494623.374643,1645494623.40181,104.0,0.0,4225.128418,4576.922852000001,4207.179688,4271.794922,4238.974121,450.0,4.0,77.0,,,,0.0,4.0,4.0,4.0,0.0,4.0,66.666664,,,,,,,,52.0,0.0,0.484188,-0.228516,0.6191409999999999,0.5744630000000001,0.870619,-0.505867,-0.136233,-0.033185,-0.038983,-0.032993,,,,,,,,,,,,,,,,,,,,,,,,,,,,,,,,,,,0.0,0.0,64.0,0.32184,1.0,0.0,,,,,,,,,,,,,,,,,,,,,,,,,
13979,1645494623.382458,1645494623.409625,105.0,0.0,4240.0,4514.871582,4200.512695,4271.794922,4244.102539,450.0,4.0,77.0,,,,0.0,4.0,4.0,4.0,0.0,4.0,66.666664,,,,,,,,,,,,,,,,,,,,,,,,,,,,,,,,,,,,,,,,,,,,,,,,,,,,,,,,,,,,,,,,,,,,,,,,,,,,,,,,,,,,
13980,1645494623.390273,1645494623.41744,106.0,0.0,4245.128418,4522.05127,4208.205078,4271.794922,4249.743652,450.0,4.0,77.0,,,,0.0,4.0,4.0,4.0,0.0,4.0,66.666664,,,,,,,,53.0,0.0,0.484073,-0.22876,0.6191409999999999,0.5744630000000001,0.8676889999999999,-0.49121800000000004,-0.134279,-0.033382,-0.03904,-0.03482,,,,,,,,,,,,,,,,,,,,,,,,,,,,,,,,,,,,,,,,,,,,,,,,,,,,,,,,,,,,,,,,,
13981,1645494623.398088,1645494623.425256,107.0,0.0,4243.589844,4589.743652,4212.820313,4271.794922,4246.666504,16209.0,4.0,77.0,,,,0.0,4.0,4.0,4.0,0.0,4.0,66.666664,,,,,,,,,,,,,,,,,,,,,,,,,,,,,,,,,,,,,,,,,,,,,,,,,,,,,,,,,,,,,,,,,,,,,,,,,,,,,,,,,,,,
13982,1645494623.4059029,1645494623.4330711,108.0,0.0,4248.205078,4598.974121,4206.153809,4271.794922,4241.025879,450.0,4.0,77.0,,,,0.0,4.0,4.0,4.0,0.0,4.0,66.666664,,,,,,,,54.0,0.0,0.484073,-0.22876,0.6191409999999999,0.5744630000000001,0.87892,-0.48389399999999994,-0.13379100000000002,-0.033413,-0.039091,-0.036465,,,,,,,,,,,,,,,,,,,,,,,,,,,,,,,,,,,0.0,0.0,64.0,0.32184,1.0,0.0,,,,,,,,,,,,,,,,,,,,,,,,,
13983,1645494623.413717,1645494623.440886,109.0,0.0,4250.769043,4552.820313,4208.717772999999,4271.794922,4241.025879,450.0,4.0,77.0,,,,0.0,4.0,4.0,4.0,0.0,4.0,66.666664,,,,,,,,,,,,,,,,,,,,,,,,,,,,,,,,,,,,,,,,,,,,,,,,,,,,,,,,,,,,,,,,,,,,,,,,,,,,,,,,,,,,
13984,1645494623.421533,1645494623.4487019,110.0,0.0,4254.871582,4559.487305,4219.487305,4271.794922,4242.05127,450.0,4.0,77.0,,,,0.0,4.0,4.0,4.0,0.0,4.0,66.666664,,,,,,,,55.0,0.0,0.484073,-0.22876,0.6191409999999999,0.5744630000000001,0.881849,-0.47657,-0.131838,-0.033392000000000005,-0.039039,-0.031794,,,,,,,,,,,,,,,,,,,,,,,,,,,,,,,,,,,,,,,,,,,,,,,,,,,,,,,,,,,,,,,,,
13985,1645494623.429347,1645494623.4566169,111.0,0.0,4243.077147999999,4587.692383,4217.436035,4271.794922,4235.384765999999,16209.0,4.0,77.0,,,,0.0,4.0,4.0,4.0,0.0,4.0,66.666664,,,,,,,,,,,,,,,,,,,,,,,,,,,,,,,,,,,,,,,,,,,,,,,,,,,,,,,,,,,,,,,,,,,,,,,,,,,,,,,,,,,,
13986,1645494623.437162,1645494623.464432,112.0,0.0,4225.641113000001,4567.179688,4218.461426,4271.794922,4236.410156,450.0,4.0,77.0,,,,0.0,4.0,4.0,4.0,0.0,4.0,66.666664,,,,,,,,56.0,0.0,0.48424700000000004,-0.22900399999999999,0.6191409999999999,0.5742189999999999,0.863294,-0.48535900000000004,-0.130373,-0.033471,-0.039139,-0.03379,1.0,0.0,0.0,,,,,,,,,,,,,,,,,,,,,,,,,,,,,,,,0.0,0.0,1.0,0.0,1.0,0.0,3.3863260000000004,2.4093240000000002,2.563168,1.402633,2.518237,101.68938399999999,12.385232,2.350505,2.390062,4.771326999999999,0.634358,0.46307299999999996,0.505739,0.428332,0.489142,0.13461900000000002,0.048511,0.065415,0.098084,0.08922000000000001,2.824649,1.4909620000000001,1.559373,1.394095,1.183184
13987,1645494623.444977,1645494623.472248,113.0,0.0,4234.358886999999,4560.0,4223.077147999999,4271.794922,4248.717772999999,450.0,4.0,77.0,,,,0.0,4.0,4.0,4.0,0.0,4.0,66.666664,,,,,,,,,,,,,,,,,,,,,,,,,,,,,,,,,,,,,,,,,,,,,,,,,,,,,,,,,,,,,,,,,,,,,,,,,,,,,,,,,,,,
13988,1645494623.452792,1645494623.4800632,114.0,1.0,4233.333496,4548.077147999999,4222.179688,4271.794922,4248.397461,450.0,4.0,77.0,,,,0.0,4.0,4.0,4.0,0.0,4.0,66.666664,,,,,,,,57.0,1.0,0.48424700000000004,-0.22900399999999999,0.6191409999999999,0.5742189999999999,0.866029,-0.488875,-0.13242400000000001,-0.033456,-0.039147,-0.03411,,,,,,,,,,,,,,,,,,,,,,,,,,,,,,,,,,,,,,,,,,,,,,,,,,,,,,,,,,,,,,,,,
13989,1645494623.460607,1645494623.4878778,115.0,1.0,4232.307617,4536.153809,4221.282227000001,4271.794922,4248.077147999999,450.0,4.0,77.0,,,,0.0,4.0,4.0,4.0,0.0,4.0,66.666664,,,,,,,,,,,,,,,,,,,,,,,,,,,,,,,,,,,,,,,,,,,,,,,,,,,,,,,,,,,,,,,,,,,,,,,,,,,,,,,,,,,,
13990,1645494623.4684222,1645494623.495694,116.0,1.0,4231.282227000001,4524.230957,4220.384765999999,4271.794922,4247.756348,450.0,4.0,77.0,,,,0.0,4.0,4.0,4.0,0.0,4.0,66.666664,,,,,,,,58.0,1.0,0.48424700000000004,-0.22900399999999999,0.6191409999999999,0.5742189999999999,0.868763,-0.49238999999999994,-0.134475,-0.033441000000000005,-0.039156,-0.034431,,,,,,,,,,,,,,,,,,,,,,,,,,,,,,,,,,,0.0,0.0,1.0,0.0,1.0,0.0,,,,,,,,,,,,,,,,,,,,,,,,,
13991,1645494623.4762368,1645494623.503509,117.0,1.0,4230.256348,4512.307617,4219.487305,4271.794922,4247.436035,450.0,4.0,77.0,,,,0.0,4.0,4.0,4.0,0.0,4.0,66.666664,,,,,,,,,,,,,,,,,,,,,,,,,,,,,,,,,,,,,,,,,,,,,,,,,,,,,,,,,,,,,,,,,,,,,,,,,,,,,,,,,,,,
13992,1645494623.484052,1645494623.511324,118.0,1.0,4229.230957,4500.384765999999,4218.589844,4271.794922,4247.115234000001,450.0,4.0,77.0,,,,0.0,4.0,4.0,4.0,0.0,4.0,66.666664,,,,,,,,59.0,1.0,0.48424700000000004,-0.22900399999999999,0.6191409999999999,0.5742189999999999,0.871498,-0.495906,-0.136526,-0.033426,-0.039164,-0.034751,,,,,,,,,,,,,,,,,,,,,,,,,,,,,,,,,,,,,,,,,,,,,,,,,,,,,,,,,,,,,,,,,
13993,1645494623.491867,1645494623.51914,119.0,1.0,4228.205078,4488.461426,4217.692383,4271.794922,4246.794922,450.0,4.0,77.0,,,,0.0,4.0,4.0,4.0,0.0,4.0,66.666664,,,,,,,,,,,,,,,,,,,,,,,,,,,,,,,,,,,,,,,,,,,,,,,,,,,,,,,,,,,,,,,,,,,,,,,,,,,,,,,,,,,,
13994,1645494623.499682,1645494623.5269551,120.0,1.0,4227.179688,4476.538574,4216.794922,4271.794922,4246.474121,450.0,4.0,77.0,,,,0.0,4.0,4.0,4.0,0.0,4.0,66.666664,,,,,,,,60.0,1.0,0.48424700000000004,-0.22900399999999999,0.6191409999999999,0.5742189999999999,0.874232,-0.49942200000000003,-0.138576,-0.033411,-0.039172000000000005,-0.035071,,,,,,,,,,,,,,,,,,,,,,,,,,,,,,,,,,,0.0,0.0,1.0,0.0,1.0,0.0,,,,,,,,,,,,,,,,,,,,,,,,,
13995,1645494623.507497,1645494623.5347712,121.0,0.0,4226.153809,4464.615234000001,4215.897461,4271.794922,4246.153809,450.0,4.0,77.0,,,,0.0,4.0,4.0,4.0,0.0,4.0,66.666664,,,,,,,,,,,,,,,,,,,,,,,,,,,,,,,,,,,,,,,,,,,,,,,,,,,,,,,,,,,,,,,,,,,,,,,,,,,,,,,,,,,,
13996,1645494623.515312,1645494623.5425858,122.0,0.0,4238.974121,4453.846191,4220.0,4271.794922,4258.974121,450.0,4.0,77.0,,,,0.0,4.0,4.0,4.0,0.0,4.0,66.666664,,,,,,,,61.0,0.0,0.48424700000000004,-0.22900399999999999,0.6191409999999999,0.5742189999999999,0.876967,-0.502937,-0.140627,-0.033395999999999995,-0.03918,-0.035392,,,,,,,,,,,,,,,,,,,,,,,,,,,,,,,,,,,,,,,,,,,,,,,,,,,,,,,,,,,,,,,,,
13997,1645494623.5231268,1645494623.550401,123.0,0.0,4270.769043,4480.0,4220.512695,4271.282227000001,4251.282227000001,16209.0,4.0,77.0,,,,0.0,4.0,4.0,4.0,0.0,4.0,66.666664,,,,,,,,,,,,,,,,,,,,,,,,,,,,,,,,,,,,,,,,,,,,,,,,,,,,,,,,,,,,,,,,,,,,,,,,,,,,,,,,,,,,
13998,1645494623.530942,1645494623.558217,124.0,0.0,4266.666504,4478.974121,4221.538574,4271.282227000001,4257.436035,450.0,4.0,77.0,,,,0.0,4.0,4.0,4.0,0.0,4.0,66.666664,,,,,,,,62.0,0.0,0.48395699999999997,-0.22900399999999999,0.6191409999999999,0.5744630000000001,0.8764780000000001,-0.48828900000000003,-0.13086099999999998,-0.033327999999999997,-0.039266,-0.030583,,,,,,,,,,,,,,,,,,,,,,,,,,,,,,,,,,,0.0,0.0,1.0,0.0,1.0,0.0,,,,,,,,,,,,,,,,,,,,,,,,,
13999,1645494623.538757,1645494623.566032,125.0,0.0,4251.794922,4454.871582,4224.102539,4271.794922,4272.820313,450.0,4.0,77.0,,,,0.0,4.0,4.0,4.0,0.0,4.0,66.666664,,,,,,,,,,,,,,,,,,,,,,,,,,,,,,,,,,,,,,,,,,,,,,,,,,,,,,,,,,,,,,,,,,,,,,,,,,,,,,,,,,,,
14000,1645494623.546572,1645494623.573847,126.0,0.0,4264.615234000001,4470.769043,4223.589844,4271.282227000001,4280.0,450.0,4.0,77.0,,,,0.0,4.0,4.0,4.0,0.0,4.0,66.666664,,,,,,,,63.0,0.0,0.483645,-0.22900399999999999,0.6193850000000001,0.5744630000000001,0.8715950000000001,-0.48340600000000006,-0.13379100000000002,-0.033315,-0.039295,-0.026402,,,,,,,,,,,,,,,,,,,,,,,,,,,,,,,,,,,,,,,,,,,,,,,,,,,,,,,,,,,,,,,,,
14001,1645494623.5543869,1645494623.5816631,127.0,0.0,4289.743652,4501.025879,4218.461426,4270.769043,4297.436035,239.0,4.0,77.0,,,,0.0,4.0,4.0,4.0,0.0,4.0,66.666664,,,,,,,,,,,,,,,,,,,,,,,,,,,,,,,,,,,,,,,,,,,,,,,,,,,,,,,,,,,,,,,,,,,,,,,,,,,,,,,,,,,,
14002,1645494623.562202,1645494623.589377,0.0,0.0,4317.94873,4502.05127,4207.179688,4275.384765999999,4314.358886999999,450.0,4.0,77.0,,,,0.0,4.0,4.0,4.0,0.0,4.0,66.666664,0.972656,58.33333199999999,4.0,3.0,4.0,0.0,4.0,0.0,0.0,0.483645,-0.22900399999999999,0.6193850000000001,0.5744630000000001,0.873549,-0.492195,-0.13135,-0.033255,-0.03932,-0.028742,1.0,0.0,0.0,,,,,,,,,,,,,,,,,,,,,,,,,,,,,,,,0.0,0.0,1.0,0.0,1.0,0.0,3.75746,2.82768,2.325941,1.484625,2.580237,90.712151,12.417646000000001,2.057024,1.8465209999999999,5.0814,0.649648,0.45017799999999997,0.641506,0.436125,0.512354,0.092627,0.050178,0.070922,0.08043099999999999,0.072398,2.5647189999999997,1.606543,1.38206,1.515456,1.155297
14003,1645494623.570017,1645494623.597192,1.0,0.0,4381.025879,4485.641113000001,4216.410156,4280.512695,4330.256348,450.0,4.0,77.0,,,,0.0,4.0,4.0,4.0,0.0,4.0,66.666664,,,,,,,,,,,,,,,,,,,,,,,,,,,,,,,,,,,,,,,,,,,,,,,,,,,,,,,,,,,,,,,,,,,,,,,,,,,,,,,,,,,,
14004,1645494623.577832,1645494623.605006,2.0,0.0,4468.717772999999,4483.077147999999,4230.769043,4281.025879,4382.563965,16213.0,4.0,77.0,,,,0.0,4.0,4.0,4.0,0.0,4.0,66.666664,,,,,,,,1.0,0.0,0.483447,-0.22876,0.619629,0.5744630000000001,0.877943,-0.492195,-0.128908,-0.033104,-0.039441000000000004,-0.030994999999999998,,,,,,,,,,,,,,,,,,,,,,,,,,,,,,,,,,,,,,,,,,,,,,,,,,,,,,,,,,,,,,,,,
14005,1645494623.585647,1645494623.61282,3.0,0.0,4540.0,4509.230957,4226.153809,4281.025879,4450.769043,450.0,4.0,77.0,,,,0.0,4.0,4.0,4.0,0.0,4.0,66.666664,,,,,,,,,,,,,,,,,,,,,,,,,,,,,,,,,,,,,,,,,,,,,,,,,,,,,,,,,,,,,,,,,,,,,,,,,,,,,,,,,,,,
14006,1645494623.593462,1645494623.620635,4.0,0.0,4636.922852000001,4555.897461,4219.487305,4281.538574,4481.025879,16136.0,4.0,77.0,,,,0.0,4.0,4.0,4.0,0.0,4.0,66.666664,,,,,,,,2.0,0.0,0.483645,-0.22900399999999999,0.6193850000000001,0.5744630000000001,0.8715950000000001,-0.48340600000000006,-0.13379100000000002,-0.033162,-0.03955,-0.032973,,,,,,,,,,,,,,,,,,,,,,,,,,,,,,,,,,,0.0,0.0,1.0,0.0,1.0,0.0,,,,,,,,,,,,,,,,,,,,,,,,,
14007,1645494623.6012769,1645494623.628449,5.0,0.0,4745.128418,4589.230957,4236.922852000001,4282.05127,4515.384765999999,450.0,4.0,77.0,,,,0.0,4.0,4.0,4.0,0.0,4.0,66.666664,,,,,,,,,,,,,,,,,,,,,,,,,,,,,,,,,,,,,,,,,,,,,,,,,,,,,,,,,,,,,,,,,,,,,,,,,,,,,,,,,,,,
14008,1645494623.609091,1645494623.636264,6.0,0.0,4779.487305,4609.743652,4244.615234000001,4282.563965,4566.666504,16128.0,4.0,77.0,,,,0.0,4.0,4.0,4.0,0.0,4.0,66.666664,,,,,,,,3.0,0.0,0.483447,-0.22876,0.619629,0.5744630000000001,0.877943,-0.492195,-0.128908,-0.03302,-0.039648,-0.034803,,,,,,,,,,,,,,,,,,,,,,,,,,,,,,,,,,,,,,,,,,,,,,,,,,,,,,,,,,,,,,,,,
14009,1645494623.6169071,1645494623.644078,7.0,0.0,4785.641113000001,4636.922852000001,4237.436035,4282.563965,4569.230957,450.0,4.0,77.0,,,,0.0,4.0,4.0,4.0,0.0,4.0,66.666664,,,,,,,,,,,,,,,,,,,,,,,,,,,,,,,,,,,,,,,,,,,,,,,,,,,,,,,,,,,,,,,,,,,,,,,,,,,,,,,,,,,,
14010,1645494623.624721,1645494623.651793,8.0,0.0,4803.077147999999,4652.820313,4236.410156,4282.05127,4554.358886999999,450.0,4.0,77.0,,,,0.0,4.0,4.0,4.0,0.0,4.0,66.666664,,,,,,,,4.0,0.0,0.48327299999999995,-0.228516,0.619629,0.574707,0.866712,-0.489754,-0.13281500000000002,-0.033038,-0.03954,-0.030101999999999997,,,,,,,,,,,,,,,,,,,,,,,,,,,,,,,,,,,0.0,0.0,1.0,0.0,1.0,0.0,,,,,,,,,,,,,,,,,,,,,,,,,
14011,1645494623.632536,1645494623.659607,9.0,0.0,4786.153809,4653.846191,4248.205078,4282.05127,4573.846191,0.0,4.0,77.0,,,,0.0,4.0,4.0,4.0,0.0,4.0,66.666664,,,,,,,,,,,,,,,,,,,,,,,,,,,,,,,,,,,,,,,,,,,,,,,,,,,,,,,,,,,,,,,,,,,,,,,,,,,,,,,,,,,,
14012,1645494623.640351,1645494623.667422,10.0,0.0,4798.461426,4655.897461,4259.487305,4282.05127,4598.461426,450.0,4.0,77.0,,,,0.0,4.0,4.0,4.0,0.0,4.0,66.666664,,,,,,,,5.0,0.0,0.48266899999999996,-0.228516,0.619873,0.574951,0.866224,-0.475105,-0.129885,-0.033104,-0.039395,-0.032121,,,,,,,,,,,,,,,,,,,,,,,,,,,,,,,,,,,,,,,,,,,,,,,,,,,,,,,,,,,,,,,,,
14013,1645494623.648166,1645494623.675237,11.0,0.0,4866.666504,4657.436035,4261.538574,4282.563965,4590.256348,16210.0,4.0,77.0,,,,0.0,4.0,4.0,4.0,0.0,4.0,66.666664,,,,,,,,,,,,,,,,,,,,,,,,,,,,,,,,,,,,,,,,,,,,,,,,,,,,,,,,,,,,,,,,,,,,,,,,,,,,,,,,,,,,
14014,1645494623.655981,1645494623.6830509,12.0,0.0,4866.153809,4642.563965,4245.128418,4282.563965,4579.487305,450.0,4.0,77.0,,,,0.0,4.0,4.0,4.0,0.0,4.0,66.666664,,,,,,,,6.0,0.0,0.48266899999999996,-0.228516,0.619873,0.574951,0.8608530000000001,-0.505379,-0.13379100000000002,-0.033260000000000005,-0.039362,-0.027786,,,,,,,,,,,,,,,,,,,,,,,,,,,,,,,,,,,0.0,0.0,1.0,0.0,1.0,0.0,,,,,,,,,,,,,,,,,,,,,,,,,
14015,1645494623.6637962,1645494623.690866,13.0,0.0,4838.461426,4617.436035,4230.256348,4283.589844,4596.410156,450.0,4.0,77.0,,,,0.0,4.0,4.0,4.0,0.0,4.0,66.666664,,,,,,,,,,,,,,,,,,,,,,,,,,,,,,,,,,,,,,,,,,,,,,,,,,,,,,,,,,,,,,,,,,,,,,,,,,,,,,,,,,,,
14016,1645494623.6716108,1645494623.698681,14.0,0.0,4884.615234000001,4626.153809,4241.538574,4286.153809,4610.256348,450.0,4.0,77.0,,,,0.0,4.0,4.0,4.0,0.0,4.0,66.666664,,,,,,,,7.0,0.0,0.48298199999999997,-0.228516,0.619629,0.574951,0.8686659999999999,-0.48828900000000003,-0.12109600000000001,-0.033303,-0.039381,-0.030086,,,,,,,,,,,,,,,,,,,,,,,,,,,,,,,,,,,,,,,,,,,,,,,,,,,,,,,,,,,,,,,,,
14017,1645494623.679426,1645494623.7064948,15.0,0.0,4899.487305,4649.743652,4242.05127,4287.179688,4607.692383,16210.0,4.0,77.0,,,,0.0,4.0,4.0,4.0,0.0,4.0,66.666664,,,,,,,,,,,,,,,,,,,,,,,,,,,,,,,,,,,,,,,,,,,,,,,,,,,,,,,,,,,,,,,,,,,,,,,,,,,,,,,,,,,,
14018,1645494623.687241,1645494623.71431,16.0,0.0,4880.0,4649.743652,4234.871582,4286.666504,4613.333496,0.0,4.0,77.0,,,,0.0,4.0,4.0,4.0,0.0,4.0,66.666664,,,,,,,,8.0,0.0,0.48298199999999997,-0.228516,0.619629,0.574951,0.874525,-0.505379,-0.135256,-0.033391000000000004,-0.039251,-0.032204,1.0,0.0,0.0,,,,,,,,,,,,,,,,,,,,,,,,,,,,,,,,0.0,0.0,1.0,0.0,1.0,0.0,4.08798,3.229006,1.995834,1.501055,2.588057,73.993736,13.04825,2.237423,1.5772540000000002,5.113334,0.691917,0.510376,0.789063,0.443022,0.510943,0.061064,0.058662,0.073568,0.061467999999999995,0.061023,2.420836,1.77903,1.248464,1.631242,1.145111
14019,1645494623.695056,1645494623.722025,17.0,0.0,4889.743652,4649.743652,4247.179688,4286.666504,4617.436035,0.0,4.0,77.0,,,,0.0,4.0,4.0,4.0,0.0,4.0,66.666664,,,,,,,,,,,,,,,,,,,,,,,,,,,,,,,,,,,,,,,,,,,,,,,,,,,,,,,,,,,,,,,,,,,,,,,,,,,,,,,,,,,,
14020,1645494623.702871,1645494623.729839,18.0,0.0,4865.641113000001,4655.384765999999,4263.589844,4286.666504,4616.410156,0.0,4.0,77.0,,,,0.0,4.0,4.0,4.0,0.0,4.0,66.666664,,,,,,,,9.0,0.0,0.48298199999999997,-0.228516,0.619629,0.574951,0.861341,-0.497566,-0.13086099999999998,-0.033275,-0.039330000000000004,-0.027861,,,,,,,,,,,,,,,,,,,,,,,,,,,,,,,,,,,,,,,,,,,,,,,,,,,,,,,,,,,,,,,,,
14021,1645494623.710686,1645494623.737654,19.0,0.0,4834.358886999999,4659.487305,4252.307617,4286.153809,4616.410156,0.0,4.0,77.0,,,,0.0,4.0,4.0,4.0,0.0,4.0,66.666664,,,,,,,,,,,,,,,,,,,,,,,,,,,,,,,,,,,,,,,,,,,,,,,,,,,,,,,,,,,,,,,,,,,,,,,,,,,,,,,,,,,,
14022,1645494623.718501,1645494623.7454689,20.0,0.0,4866.153809,4656.410156,4242.05127,4286.666504,4604.102539,0.0,4.0,77.0,,,,0.0,4.0,4.0,4.0,0.0,4.0,66.666664,,,,,,,,10.0,0.0,0.48298199999999997,-0.228516,0.619629,0.574951,0.8774549999999999,-0.497566,-0.136721,-0.033365,-0.039352,-0.023952,,,,,,,,,,,,,,,,,,,,,,,,,,,,,,,,,,,0.0,0.0,1.0,0.0,1.0,0.0,,,,,,,,,,,,,,,,,,,,,,,,,
14023,1645494623.726316,1645494623.753283,21.0,0.0,4887.692383,4654.358886999999,4239.487305,4286.666504,4586.666504,0.0,4.0,77.0,,,,0.0,4.0,4.0,4.0,0.0,4.0,66.666664,,,,,,,,,,,,,,,,,,,,,,,,,,,,,,,,,,,,,,,,,,,,,,,,,,,,,,,,,,,,,,,,,,,,,,,,,,,,,,,,,,,,
14024,1645494623.734131,1645494623.7610981,22.0,0.0,4857.94873,4649.743652,4232.820313,4286.153809,4584.102539,0.0,4.0,77.0,,,,0.0,4.0,4.0,4.0,0.0,4.0,66.666664,,,,,,,,11.0,0.0,0.483295,-0.228516,0.6193850000000001,0.574951,0.8608530000000001,-0.503426,-0.12695499999999998,-0.033349000000000004,-0.039372000000000004,-0.026635000000000002,,,,,,,,,,,,,,,,,,,,,,,,,,,,,,,,,,,,,,,,,,,,,,,,,,,,,,,,,,,,,,,,,
14025,1645494623.741946,1645494623.768913,23.0,0.0,4822.05127,4635.897461,4226.153809,4286.666504,4567.692383,0.0,4.0,77.0,,,,0.0,4.0,4.0,4.0,0.0,4.0,66.666664,,,,,,,,,,,,,,,,,,,,,,,,,,,,,,,,,,,,,,,,,,,,,,,,,,,,,,,,,,,,,,,,,,,,,,,,,,,,,,,,,,,,
14026,1645494623.7497609,1645494623.776727,24.0,0.0,4807.179688,4614.871582,4236.410156,4286.666504,4546.153809,0.0,4.0,77.0,,,,0.0,4.0,4.0,4.0,0.0,4.0,66.666664,,,,,,,,12.0,0.0,0.48318,-0.22876,0.6193850000000001,0.574951,0.8652479999999999,-0.49951899999999994,-0.125002,-0.033286,-0.039389999999999994,-0.022848,,,,,,,,,,,,,,,,,,,,,,,,,,,,,,,,,,,11.0,0.0,1.0,0.0,1.0,0.0,,,,,,,,,,,,,,,,,,,,,,,,,
14027,1645494623.757576,1645494623.784542,25.0,0.0,4817.436035,4573.846191,4248.205078,4286.153809,4572.307617,0.0,4.0,77.0,,,,0.0,4.0,4.0,4.0,0.0,4.0,66.666664,,,,,,,,,,,,,,,,,,,,,,,,,,,,,,,,,,,,,,,,,,,,,,,,,,,,,,,,,,,,,,,,,,,,,,,,,,,,,,,,,,,,
14028,1645494623.765391,1645494623.792357,26.0,0.0,4797.436035,4522.05127,4238.974121,4287.179688,4574.871582,0.0,4.0,77.0,,,,0.0,4.0,4.0,4.0,0.0,4.0,66.666664,,,,,,,,13.0,0.0,0.48306400000000005,-0.22900399999999999,0.6193850000000001,0.574951,0.8681770000000001,-0.49121800000000004,-0.130373,-0.033229,-0.039406000000000004,-0.019391,,,,,,,,,,,,,,,,,,,,,,,,,,,,,,,,,,,,,,,,,,,,,,,,,,,,,,,,,,,,,,,,,
14029,1645494623.773206,1645494623.800071,27.0,0.0,4757.436035,4488.205078,4222.05127,4286.666504,4518.974121,0.0,4.0,77.0,,,,0.0,4.0,4.0,4.0,0.0,4.0,66.666664,,,,,,,,,,,,,,,,,,,,,,,,,,,,,,,,,,,,,,,,,,,,,,,,,,,,,,,,,,,,,,,,,,,,,,,,,,,,,,,,,,,,
14030,1645494623.781021,1645494623.807886,28.0,0.0,4729.743652,4482.563965,4221.538574,4283.077147999999,4494.871582,0.0,4.0,77.0,,,,0.0,4.0,4.0,4.0,0.0,4.0,66.666664,,,,,,,,14.0,0.0,0.48337700000000006,-0.22900399999999999,0.6191409999999999,0.574951,0.872084,-0.49170699999999995,-0.131838,-0.033177,-0.039518,-0.022579,,,,,,,,,,,,,,,,,,,,,,,,,,,,,,,,,,,11.0,0.0,1.0,0.0,1.0,0.0,,,,,,,,,,,,,,,,,,,,,,,,,
14031,1645494623.788836,1645494623.815701,29.0,0.0,4674.358886999999,4480.512695,4232.307617,4281.538574,4487.692383,0.0,4.0,77.0,,,,0.0,4.0,4.0,4.0,0.0,4.0,66.666664,,,,,,,,,,,,,,,,,,,,,,,,,,,,,,,,,,,,,,,,,,,,,,,,,,,,,,,,,,,,,,,,,,,,,,,,,,,,,,,,,,,,
14032,1645494623.796651,1645494623.823515,30.0,0.0,4636.922852000001,4468.717772999999,4233.846191,4283.077147999999,4454.358886999999,0.0,4.0,77.0,,,,0.0,4.0,4.0,4.0,0.0,4.0,66.666664,,,,,,,,15.0,0.0,0.48326099999999994,-0.229248,0.6191409999999999,0.574951,0.866712,-0.51368,-0.130373,-0.033229,-0.039570999999999995,-0.0254,,,,,,,,,,,,,,,,,,,,,,,,,,,,,,,,,,,,,,,,,,,,,,,,,,,,,,,,,,,,,,,,,
14033,1645494623.804466,1645494623.83133,31.0,0.0,4633.846191,4456.410156,4232.307617,4284.102539,4428.205078,0.0,4.0,77.0,,,,0.0,4.0,4.0,4.0,0.0,4.0,66.666664,,,,,,,,,,,,,,,,,,,,,,,,,,,,,,,,,,,,,,,,,,,,,,,,,,,,,,,,,,,,,,,,,,,,,,,,,,,,,,,,,,,,
14034,1645494623.8122811,1645494623.839145,32.0,0.0,4556.922852000001,4442.563965,4229.743652,4283.077147999999,4403.077147999999,0.0,4.0,77.0,,,,0.0,4.0,4.0,4.0,0.0,4.0,66.666664,,,,,,,,16.0,0.0,0.48326099999999994,-0.229248,0.6191409999999999,0.574951,0.8691540000000001,-0.507332,-0.137209,-0.033226,-0.039569,-0.027987,1.0,0.0,0.0,,,,,,,,,,,,,,,,,,,,,,,,,,,,,,,,11.0,0.0,64.0,0.955413,1.0,0.0,6.277337,3.897212,1.7479650000000002,1.4500899999999999,2.535668,58.184020999999994,14.035695,2.826111,1.6230719999999998,4.938406,0.760652,0.592364,0.8984110000000001,0.445244,0.483459,0.042694,0.070994,0.07357999999999999,0.046060000000000004,0.055946,2.803143,2.091398,1.2111459999999998,1.722932,1.1456979999999999
14035,1645494623.8200948,1645494623.8469589,33.0,0.0,4478.974121,4421.538574,4230.256348,4283.077147999999,4368.205078,0.0,4.0,77.0,,,,0.0,4.0,4.0,4.0,0.0,4.0,66.666664,,,,,,,,,,,,,,,,,,,,,,,,,,,,,,,,,,,,,,,,,,,,,,,,,,,,,,,,,,,,,,,,,,,,,,,,,,,,,,,,,,,,
14036,1645494623.82791,1645494623.854774,34.0,0.0,4526.666504,4404.615234000001,4225.128418,4284.102539,4366.666504,0.0,4.0,77.0,,,,0.0,4.0,4.0,4.0,0.0,4.0,66.666664,,,,,,,,17.0,0.0,0.483436,-0.229492,0.6191409999999999,0.574707,0.875502,-0.498054,-0.140139,-0.033175,-0.039469,-0.024016,,,,,,,,,,,,,,,,,,,,,,,,,,,,,,,,,,,,,,,,,,,,,,,,,,,,,,,,,,,,,,,,,
14037,1645494623.835725,1645494623.8625882,35.0,0.0,4534.871582,4407.179688,4225.128418,4283.077147999999,4375.384765999999,0.0,4.0,77.0,,,,0.0,4.0,4.0,4.0,0.0,4.0,66.666664,,,,,,,,,,,,,,,,,,,,,,,,,,,,,,,,,,,,,,,,,,,,,,,,,,,,,,,,,,,,,,,,,,,,,,,,,,,,,,,,,,,,
14038,1645494623.84354,1645494623.870303,36.0,0.0,4440.512695,4398.974121,4223.589844,4281.025879,4347.179688,0.0,4.0,77.0,,,,0.0,4.0,4.0,4.0,0.0,4.0,66.666664,,,,,,,,18.0,0.0,0.48331999999999997,-0.22973600000000002,0.6191409999999999,0.574707,0.866224,-0.501961,-0.135256,-0.033178,-0.03938,-0.026693,,,,,,,,,,,,,,,,,,,,,,,,,,,,,,,,,,,11.0,0.0,64.0,0.955413,1.0,0.0,,,,,,,,,,,,,,,,,,,,,,,,,
14039,1645494623.851355,1645494623.878118,37.0,0.0,4396.410156,4371.794922,4223.589844,4278.974121,4321.025879,0.0,4.0,77.0,,,,0.0,4.0,4.0,4.0,0.0,4.0,66.666664,,,,,,,,,,,,,,,,,,,,,,,,,,,,,,,,,,,,,,,,,,,,,,,,,,,,,,,,,,,,,,,,,,,,,,,,,,,,,,,,,,,,
14040,1645494623.85917,1645494623.885932,38.0,0.0,4383.589844,4378.974121,4217.94873,4279.487305,4308.717772999999,0.0,4.0,77.0,,,,0.0,4.0,4.0,4.0,0.0,4.0,66.666664,,,,,,,,19.0,0.0,0.483806,-0.22998000000000002,0.618896,0.5744630000000001,0.8686659999999999,-0.493172,-0.13086099999999998,-0.033132,-0.039495,-0.022754,,,,,,,,,,,,,,,,,,,,,,,,,,,,,,,,,,,,,,,,,,,,,,,,,,,,,,,,,,,,,,,,,
14041,1645494623.8669848,1645494623.893747,39.0,0.0,4330.769043,4404.102539,4209.230957,4280.0,4285.128418,0.0,4.0,77.0,,,,0.0,4.0,4.0,4.0,0.0,4.0,66.666664,,,,,,,,,,,,,,,,,,,,,,,,,,,,,,,,,,,,,,,,,,,,,,,,,,,,,,,,,,,,,,,,,,,,,,,,,,,,,,,,,,,,
14042,1645494623.8748,1645494623.901562,40.0,0.0,4281.538574,4404.102539,4204.102539,4279.487305,4273.333496,0.0,4.0,77.0,,,,0.0,4.0,4.0,4.0,0.0,4.0,66.666664,,,,,,,,20.0,0.0,0.48368999999999995,-0.230225,0.618896,0.5744630000000001,0.862318,-0.496101,-0.144533,-0.032944,-0.039354,-0.025605000000000003,,,,,,,,,,,,,,,,,,,,,,,,,,,,,,,,,,,11.0,0.0,64.0,0.955413,1.0,0.0,,,,,,,,,,,,,,,,,,,,,,,,,
14043,1645494623.882615,1645494623.909376,41.0,0.0,4270.256348,4403.077147999999,4215.384765999999,4278.974121,4282.05127,0.0,4.0,77.0,,,,0.0,4.0,4.0,4.0,0.0,4.0,66.666664,,,,,,,,,,,,,,,,,,,,,,,,,,,,,,,,,,,,,,,,,,,,,,,,,,,,,,,,,,,,,,,,,,,,,,,,,,,,,,,,,,,,
14044,1645494623.89043,1645494623.917191,42.0,0.0,4269.230957,4380.0,4227.692383,4279.487305,4281.538574,0.0,4.0,77.0,,,,0.0,4.0,4.0,4.0,0.0,4.0,66.666664,,,,,,,,21.0,0.0,0.48368999999999995,-0.230225,0.618896,0.5744630000000001,0.8652479999999999,-0.495613,-0.13379100000000002,-0.03297,-0.039276,-0.028123000000000002,,,,,,,,,,,,,,,,,,,,,,,,,,,,,,,,,,,,,,,,,,,,,,,,,,,,,,,,,,,,,,,,,
14045,1645494623.8982449,1645494623.9250062,43.0,0.0,4261.538574,4336.922852000001,4223.589844,4277.94873,4254.358886999999,0.0,4.0,77.0,,,,0.0,4.0,4.0,4.0,0.0,4.0,66.666664,,,,,,,,,,,,,,,,,,,,,,,,,,,,,,,,,,,,,,,,,,,,,,,,,,,,,,,,,,,,,,,,,,,,,,,,,,,,,,,,,,,,
14046,1645494623.90606,1645494623.9328198,44.0,0.0,4221.025879,4341.025879,4215.384765999999,4272.820313,4228.205078,0.0,4.0,77.0,,,,0.0,4.0,4.0,4.0,0.0,4.0,66.666664,,,,,,,,22.0,0.0,0.484176,-0.230469,0.6186520000000001,0.5742189999999999,0.8691540000000001,-0.497566,-0.13281500000000002,-0.033091,-0.039303,-0.03034,,,,,,,,,,,,,,,,,,,,,,,,,,,,,,,,,,,11.0,0.0,64.0,0.955413,1.0,0.0,,,,,,,,,,,,,,,,,,,,,,,,,
14047,1645494623.913875,1645494623.940535,45.0,0.0,4185.641113000001,4350.769043,4220.0,4269.230957,4223.589844,0.0,4.0,77.0,,,,0.0,4.0,4.0,4.0,0.0,4.0,66.666664,,,,,,,,,,,,,,,,,,,,,,,,,,,,,,,,,,,,,,,,,,,,,,,,,,,,,,,,,,,,,,,,,,,,,,,,,,,,,,,,,,,,
14048,1645494623.92169,1645494623.94835,46.0,0.0,4199.487305,4313.846191,4229.743652,4274.871582,4221.025879,0.0,4.0,77.0,,,,0.0,4.0,4.0,4.0,0.0,4.0,66.666664,,,,,,,,23.0,0.0,0.48406000000000005,-0.230713,0.6186520000000001,0.5742189999999999,0.8608530000000001,-0.5039140000000001,-0.12451400000000001,-0.0332,-0.039279,-0.026182999999999998,,,,,,,,,,,,,,,,,,,,,,,,,,,,,,,,,,,,,,,,,,,,,,,,,,,,,,,,,,,,,,,,,
14049,1645494623.929505,1645494623.9561641,47.0,0.0,4186.666504,4291.794922,4223.589844,4278.974121,4203.589844,0.0,4.0,77.0,,,,0.0,4.0,4.0,4.0,0.0,4.0,66.666664,,,,,,,,,,,,,,,,,,,,,,,,,,,,,,,,,,,,,,,,,,,,,,,,,,,,,,,,,,,,,,,,,,,,,,,,,,,,,,,,,,,,
14050,1645494623.93732,1645494623.963979,48.0,0.0,4135.897461,4300.0,4214.358886999999,4273.333496,4188.205078,0.0,4.0,77.0,,,,0.0,4.0,4.0,4.0,0.0,4.0,66.666664,,,,,,,,24.0,0.0,0.48423299999999997,-0.23095700000000002,0.6186520000000001,0.573975,0.8774549999999999,-0.497566,-0.137209,-0.0332,-0.039307,-0.028594,1.0,0.0,0.0,,,,,,,,,,,,,,,,,,,,,,,,,,,,,,,,11.0,0.0,64.0,0.6492829999999999,1.0,0.0,13.531664000000001,5.447941,1.9435939999999998,1.3957549999999999,2.449967,49.155338,14.996482,3.633438,1.8934119999999999,4.671538,0.874416,0.6507970000000001,0.927522,0.441658,0.43915699999999996,0.035783999999999996,0.082661,0.07119600000000001,0.036448,0.054588,4.744172,2.676214,1.281547,1.7641509999999998,1.141015
14051,1645494623.9451349,1645494623.971794,49.0,0.0,4128.205078,4294.358886999999,4214.358886999999,4270.256348,4200.0,0.0,4.0,77.0,,,,0.0,4.0,4.0,4.0,0.0,4.0,66.666664,,,,,,,,,,,,,,,,,,,,,,,,,,,,,,,,,,,,,,,,,,,,,,,,,,,,,,,,,,,,,,,,,,,,,,,,,,,,,,,,,,,,
14052,1645494623.95295,1645494623.979608,50.0,0.0,4151.282227000001,4297.94873,4224.615234000001,4272.820313,4203.589844,0.0,4.0,77.0,,,,0.0,4.0,4.0,4.0,0.0,4.0,66.666664,,,,,,,,25.0,0.0,0.48409300000000005,-0.23120100000000002,0.618896,0.5737300000000001,0.8798959999999999,-0.474128,-0.128908,-0.033249,-0.039331,-0.024562999999999998,,,,,,,,,,,,,,,,,,,,,,,,,,,,,,,,,,,,,,,,,,,,,,,,,,,,,,,,,,,,,,,,,
14053,1645494623.9607651,1645494623.987423,51.0,0.0,4157.436035,4320.0,4224.615234000001,4271.794922,4178.461426,0.0,4.0,77.0,,,,0.0,4.0,4.0,4.0,0.0,4.0,66.666664,,,,,,,,,,,,,,,,,,,,,,,,,,,,,,,,,,,,,,,,,,,,,,,,,,,,,,,,,,,,,,,,,,,,,,,,,,,,,,,,,,,,
14054,1645494623.96858,1645494623.995238,52.0,0.0,4153.846191,4321.538574,4223.589844,4270.769043,4185.641113000001,0.0,4.0,77.0,,,,0.0,4.0,4.0,4.0,0.0,4.0,66.666664,,,,,,,,26.0,0.0,0.48397700000000005,-0.23144499999999998,0.618896,0.5737300000000001,0.8759899999999999,-0.479988,-0.13379100000000002,-0.033195999999999996,-0.039207,-0.027136,,,,,,,,,,,,,,,,,,,,,,,,,,,,,,,,,,,11.0,0.0,64.0,0.6492829999999999,1.0,0.0,,,,,,,,,,,,,,,,,,,,,,,,,
14055,1645494623.976395,1645494624.003052,53.0,0.0,4143.589844,4310.256348,4217.94873,4272.820313,4207.179688,0.0,4.0,77.0,,,,0.0,4.0,4.0,4.0,0.0,4.0,66.666664,,,,,,,,,,,,,,,,,,,,,,,,,,,,,,,,,,,,,,,,,,,,,,,,,,,,,,,,,,,,,,,,,,,,,,,,,,,,,,,,,,,,
14056,1645494623.98421,1645494624.0108669,54.0,0.0,4136.922852000001,4289.230957,4217.436035,4272.820313,4181.538574,0.0,4.0,77.0,,,,0.0,4.0,4.0,4.0,0.0,4.0,66.666664,,,,,,,,27.0,0.0,0.48397700000000005,-0.23144499999999998,0.618896,0.5737300000000001,0.8652479999999999,-0.489754,-0.13135,-0.033099,-0.03929,-0.029501,,,,,,,,,,,,,,,,,,,,,,,,,,,,,,,,,,,,,,,,,,,,,,,,,,,,,,,,,,,,,,,,,
14057,1645494623.992025,1645494624.018582,55.0,0.0,4141.025879,4253.333496,4216.922852000001,4271.282227000001,4164.615234000001,0.0,4.0,77.0,,,,0.0,4.0,4.0,4.0,0.0,4.0,66.666664,,,,,,,,,,,,,,,,,,,,,,,,,,,,,,,,,,,,,,,,,,,,,,,,,,,,,,,,,,,,,,,,,,,,,,,,,,,,,,,,,,,,
14058,1645494623.99984,1645494624.0262961,56.0,0.0,4120.0,4238.461426,4211.282227000001,4271.794922,4184.615234000001,0.0,4.0,77.0,,,,0.0,4.0,4.0,4.0,0.0,4.0,66.666664,,,,,,,,28.0,0.0,0.48366400000000004,-0.23144499999999998,0.6191409999999999,0.5737300000000001,0.862318,-0.49170699999999995,-0.11425999999999999,-0.033158,-0.039316000000000004,-0.031629000000000004,,,,,,,,,,,,,,,,,,,,,,,,,,,,,,,,,,,11.0,0.0,64.0,0.6492829999999999,1.0,0.0,,,,,,,,,,,,,,,,,,,,,,,,,
14059,1645494624.0076551,1645494624.034111,57.0,0.0,4104.102539,4231.282227000001,4209.230957,4271.794922,4184.615234000001,0.0,4.0,77.0,,,,0.0,4.0,4.0,4.0,0.0,4.0,66.666664,,,,,,,,,,,,,,,,,,,,,,,,,,,,,,,,,,,,,,,,,,,,,,,,,,,,,,,,,,,,,,,,,,,,,,,,,,,,,,,,,,,,
14060,1645494624.0154688,1645494624.041926,58.0,0.0,4130.769043,4218.974121,4215.897461,4271.794922,4178.974121,0.0,4.0,77.0,,,,0.0,4.0,4.0,4.0,0.0,4.0,66.666664,,,,,,,,29.0,0.0,0.48366400000000004,-0.23144499999999998,0.6191409999999999,0.5737300000000001,0.879408,-0.498543,-0.11425999999999999,-0.033163,-0.039291,-0.027245,,,,,,,,,,,,,,,,,,,,,,,,,,,,,,,,,,,,,,,,,,,,,,,,,,,,,,,,,,,,,,,,,
14061,1645494624.023284,1645494624.04974,59.0,0.0,4122.05127,4218.974121,4213.333496,4271.794922,4177.436035,0.0,4.0,77.0,,,,0.0,4.0,4.0,4.0,0.0,4.0,66.666664,,,,,,,,,,,,,,,,,,,,,,,,,,,,,,,,,,,,,,,,,,,,,,,,,,,,,,,,,,,,,,,,,,,,,,,,,,,,,,,,,,,,
14062,1645494624.031099,1645494624.057555,60.0,0.0,4074.8718259999996,4233.846191,4212.820313,4271.794922,4162.563965,0.0,4.0,77.0,,,,0.0,4.0,4.0,4.0,0.0,4.0,66.666664,,,,,,,,30.0,0.0,0.48397700000000005,-0.23144499999999998,0.618896,0.5737300000000001,0.8652479999999999,-0.489754,-0.13135,-0.033216,-0.039317000000000005,-0.023349,,,,,,,,,,,,,,,,,,,,,,,,,,,,,,,,,,,11.0,0.0,64.0,0.6492829999999999,1.0,0.0,,,,,,,,,,,,,,,,,,,,,,,,,
14063,1645494624.038914,1645494624.0653698,61.0,0.0,4080.512939,4258.461426,4223.077147999999,4271.794922,4164.102539,0.0,4.0,77.0,,,,0.0,4.0,4.0,4.0,0.0,4.0,66.666664,,,,,,,,,,,,,,,,,,,,,,,,,,,,,,,,,,,,,,,,,,,,,,,,,,,,,,,,,,,,,,,,,,,,,,,,,,,,,,,,,,,,
14064,1645494624.0467288,1645494624.073184,62.0,0.0,4105.128418,4276.922852000001,4222.05127,4271.794922,4174.358886999999,0.0,4.0,77.0,,,,0.0,4.0,4.0,4.0,0.0,4.0,66.666664,,,,,,,,31.0,0.0,0.48366400000000004,-0.23144499999999998,0.6191409999999999,0.5737300000000001,0.879408,-0.498543,-0.11425999999999999,-0.033214,-0.039291,-0.019793,,,,,,,,,,,,,,,,,,,,,,,,,,,,,,,,,,,,,,,,,,,,,,,,,,,,,,,,,,,,,,,,,
14065,1645494624.054544,1645494624.0809991,63.0,0.0,4086.6667479999996,4313.333496,4221.538574,4271.794922,4155.384765999999,0.0,4.0,77.0,,,,0.0,4.0,4.0,4.0,0.0,4.0,66.666664,,,,,,,,,,,,,,,,,,,,,,,,,,,,,,,,,,,,,,,,,,,,,,,,,,,,,,,,,,,,,,,,,,,,,,,,,,,,,,,,,,,,
14066,1645494624.062359,1645494624.088814,64.0,0.0,4062.5642090000006,4356.922852000001,4226.153809,4271.794922,4138.461426,450.0,4.0,77.0,,,,0.0,4.0,4.0,4.0,0.0,4.0,66.666664,0.972656,50.0,3.0,3.0,4.0,0.0,4.0,32.0,0.0,0.483375,-0.23144499999999998,0.6191409999999999,0.573975,0.870619,-0.49463599999999996,-0.11767799999999999,-0.033311,-0.039366000000000005,-0.022941,1.0,0.0,0.0,1.0,0.529863,0.871776,-0.374922,1.9778950000000002,1.0,0.13172999999999999,4.196313,1.8357259999999997,23.278153,0.182145,1.0,0.35004,-0.105683,-0.286514,0.200879,1.0,0.26214499999999996,0.201351,-0.8300620000000001,2.6333290000000003,1.0,0.455682,1.987899,-46.663258,58.608895,1.0,0.369661,0.558721,0.47476999999999997,0.680291,11.0,0.0,64.0,0.494279,1.0,0.0,28.625444,8.372947,2.951896,1.441278,2.3991580000000003,47.485912,15.553641,4.465496,2.2206650000000003,4.4026819999999995,1.026046,0.6716810000000001,0.866886,0.438874,0.393825,0.037768,0.089722,0.066207,0.031863,0.053103,9.084829,3.6162410000000005,1.446971,1.742709,1.120474
14067,1645494624.070174,1645494624.0965278,65.0,0.0,4083.076904,4373.846191,4228.205078,4271.794922,4149.743652,450.0,4.0,77.0,,,,0.0,4.0,4.0,4.0,0.0,4.0,66.666664,,,,,,,,,,,,,,,,,,,,,,,,,,,,,,,,,,,,,,,,,,,,,,,,,,,,,,,,,,,,,,,,,,,,,,,,,,,,,,,,,,,,
14068,1645494624.077989,1645494624.104343,66.0,0.0,4111.282227000001,4388.205078,4230.256348,4271.794922,4153.333496,16247.0,4.0,77.0,,,,0.0,4.0,4.0,4.0,0.0,4.0,66.666664,,,,,,,,33.0,0.0,0.483375,-0.23144499999999998,0.6191409999999999,0.573975,0.8559700000000001,-0.495613,-0.124025,-0.0333,-0.039434,-0.019524,,,,,,,,,,,,,,,,,,,,,,,,,,,,,,,,,,,,,,,,,,,,,,,,,,,,,,,,,,,,,,,,,
14069,1645494624.085804,1645494624.112158,67.0,0.0,4098.461426,4412.820313,4234.358886999999,4271.794922,4143.589844,450.0,4.0,77.0,,,,0.0,4.0,4.0,4.0,0.0,4.0,66.666664,,,,,,,,,,,,,,,,,,,,,,,,,,,,,,,,,,,,,,,,,,,,,,,,,,,,,,,,,,,,,,,,,,,,,,,,,,,,,,,,,,,,
14070,1645494624.0936189,1645494624.119972,68.0,0.0,4070.256348,4407.692383,4224.102539,4271.794922,4135.897461,16214.0,4.0,77.0,,,,0.0,4.0,4.0,4.0,0.0,4.0,66.666664,,,,,,,,34.0,0.0,0.483375,-0.23144499999999998,0.6191409999999999,0.573975,0.8764780000000001,-0.49121800000000004,-0.129885,-0.033242,-0.039348,-0.016350999999999997,,,,,,,,,,,,,,,,,,,,,,,,,,,,,,,,,,,0.0,0.0,64.0,0.494279,1.0,0.0,,,,,,,,,,,,,,,,,,,,,,,,,
14071,1645494624.101434,1645494624.1277869,69.0,0.0,4075.384521,4400.512695,4219.487305,4271.794922,4136.922852000001,450.0,4.0,77.0,,,,0.0,4.0,4.0,4.0,0.0,4.0,66.666664,,,,,,,,,,,,,,,,,,,,,,,,,,,,,,,,,,,,,,,,,,,,,,,,,,,,,,,,,,,,,,,,,,,,,,,,,,,,,,,,,,,,
14072,1645494624.109249,1645494624.135602,70.0,0.0,4094.358887,4438.461426,4214.871582,4271.794922,4150.256348,16095.0,4.0,77.0,,,,0.0,4.0,4.0,4.0,0.0,4.0,66.666664,,,,,,,,35.0,0.0,0.483062,-0.23144499999999998,0.6193850000000001,0.573975,0.866224,-0.500496,-0.134768,-0.033238,-0.039466,-0.019794,,,,,,,,,,,,,,,,,,,,,,,,,,,,,,,,,,,,,,,,,,,,,,,,,,,,,,,,,,,,,,,,,
14073,1645494624.117064,1645494624.143416,71.0,0.0,4087.6923829999996,4460.0,4211.794922,4271.794922,4157.436035,450.0,4.0,77.0,,,,0.0,4.0,4.0,4.0,0.0,4.0,66.666664,,,,,,,,,,,,,,,,,,,,,,,,,,,,,,,,,,,,,,,,,,,,,,,,,,,,,,,,,,,,,,,,,,,,,,,,,,,,,,,,,,,,
14074,1645494624.124879,1645494624.151231,72.0,0.0,4097.436035,4467.692383,4215.897461,4271.794922,4154.358886999999,450.0,4.0,77.0,,,,0.0,4.0,4.0,4.0,0.0,4.0,66.666664,,,,,,,,36.0,0.0,0.483548,-0.23168899999999998,0.6191409999999999,0.5737300000000001,0.8603649999999999,-0.49366000000000004,-0.13379100000000002,-0.033186,-0.039327999999999995,-0.016641999999999997,,,,,,,,,,,,,,,,,,,,,,,,,,,,,,,,,,,0.0,0.0,64.0,0.494279,1.0,0.0,,,,,,,,,,,,,,,,,,,,,,,,,
14075,1645494624.132694,1645494624.1590462,73.0,0.0,4122.05127,4482.05127,4217.94873,4271.794922,4154.871582,0.0,4.0,77.0,,,,0.0,4.0,4.0,4.0,0.0,4.0,66.666664,,,,,,,,,,,,,,,,,,,,,,,,,,,,,,,,,,,,,,,,,,,,,,,,,,,,,,,,,,,,,,,,,,,,,,,,,,,,,,,,,,,,
14076,1645494624.140509,1645494624.16676,74.0,0.0,4102.563965,4455.384765999999,4209.743652,4271.794922,4161.538574,450.0,4.0,77.0,,,,0.0,4.0,4.0,4.0,0.0,4.0,66.666664,,,,,,,,37.0,0.0,0.483548,-0.23168899999999998,0.6191409999999999,0.5737300000000001,0.8691540000000001,-0.49951899999999994,-0.129397,-0.033089999999999994,-0.039300999999999996,-0.020056,,,,,,,,,,,,,,,,,,,,,,,,,,,,,,,,,,,,,,,,,,,,,,,,,,,,,,,,,,,,,,,,,
14077,1645494624.148324,1645494624.174575,75.0,0.0,4087.6923829999996,4428.717772999999,4202.563965,4271.794922,4167.179688,16287.0,4.0,77.0,,,,0.0,4.0,4.0,4.0,0.0,4.0,66.666664,,,,,,,,,,,,,,,,,,,,,,,,,,,,,,,,,,,,,,,,,,,,,,,,,,,,,,,,,,,,,,,,,,,,,,,,,,,,,,,,,,,,
14078,1645494624.1561391,1645494624.18239,76.0,0.0,4116.922852000001,4430.256348,4202.563965,4271.794922,4166.666504,450.0,4.0,77.0,,,,0.0,4.0,4.0,4.0,0.0,4.0,66.666664,,,,,,,,38.0,0.0,0.483548,-0.23168899999999998,0.6191409999999999,0.5737300000000001,0.8725719999999999,-0.495613,-0.124025,-0.03315,-0.039278,-0.023178,,,,,,,,,,,,,,,,,,,,,,,,,,,,,,,,,,,0.0,0.0,64.0,0.494279,1.0,0.0,,,,,,,,,,,,,,,,,,,,,,,,,
14079,1645494624.163954,1645494624.190204,77.0,0.0,4113.333496,4456.922852000001,4205.128418,4271.794922,4160.512695,450.0,4.0,77.0,,,,0.0,4.0,4.0,4.0,0.0,4.0,66.666664,,,,,,,,,,,,,,,,,,,,,,,,,,,,,,,,,,,,,,,,,,,,,,,,,,,,,,,,,,,,,,,,,,,,,,,,,,,,,,,,,,,,
14080,1645494624.171769,1645494624.198019,78.0,0.0,4076.923096,4492.820313,4209.230957,4271.794922,4157.94873,450.0,4.0,77.0,,,,0.0,4.0,4.0,4.0,0.0,4.0,66.666664,,,,,,,,39.0,0.0,0.48343100000000006,-0.231934,0.6191409999999999,0.5737300000000001,0.8798959999999999,-0.475105,-0.125978,-0.033253,-0.039158,-0.025889,,,,,,,,,,,,,,,,,,,,,,,,,,,,,,,,,,,,,,,,,,,,,,,,,,,,,,,,,,,,,,,,,
14081,1645494624.179584,1645494624.205833,79.0,0.0,4094.8718259999996,4495.384765999999,4203.589844,4271.794922,4177.94873,16287.0,4.0,77.0,,,,0.0,4.0,4.0,4.0,0.0,4.0,66.666664,,,,,,,,,,,,,,,,,,,,,,,,,,,,,,,,,,,,,,,,,,,,,,,,,,,,,,,,,,,,,,,,,,,,,,,,,,,,,,,,,,,,
14082,1645494624.187399,1645494624.213648,80.0,0.0,4147.179688,4474.358886999999,4200.0,4271.794922,4198.461426,450.0,4.0,77.0,,,,0.0,4.0,4.0,4.0,0.0,4.0,66.666664,,,,,,,,40.0,0.0,0.48343100000000006,-0.231934,0.6191409999999999,0.5737300000000001,0.8681770000000001,-0.49170699999999995,-0.132326,-0.033199,-0.039149,-0.022177000000000002,1.0,0.0,0.0,,,,,,,,,,,,,,,,,,,,,,,,,,,,,,,,0.0,0.0,64.0,0.624209,1.0,0.0,50.173866,12.601108,4.902623,1.6706029999999998,2.462268,49.836143,15.780819000000001,5.215867,2.4695150000000003,4.150071,1.190312,0.6632939999999999,0.739874,0.44637899999999997,0.361203,0.044547,0.09055099999999999,0.058908,0.029934,0.04888,15.393392,4.86369,1.692352,1.67057,1.088303
14083,1645494624.195214,1645494624.2214632,81.0,0.0,4156.410156,4469.743652,4210.256348,4271.794922,4193.846191,450.0,4.0,77.0,,,,0.0,4.0,4.0,4.0,0.0,4.0,66.666664,,,,,,,,,,,,,,,,,,,,,,,,,,,,,,,,,,,,,,,,,,,,,,,,,,,,,,,,,,,,,,,,,,,,,,,,,,,,,,,,,,,,
14084,1645494624.203029,1645494624.229277,82.0,0.0,4134.871582,4476.410156,4221.538574,4271.794922,4194.871582,450.0,4.0,77.0,,,,0.0,4.0,4.0,4.0,0.0,4.0,66.666664,,,,,,,,41.0,0.0,0.48343100000000006,-0.231934,0.6191409999999999,0.5737300000000001,0.871107,-0.48731199999999997,-0.11767799999999999,-0.033249,-0.039091,-0.024891,,,,,,,,,,,,,,,,,,,,,,,,,,,,,,,,,,,,,,,,,,,,,,,,,,,,,,,,,,,,,,,,,
14085,1645494624.210843,1645494624.236992,83.0,0.0,4113.846191,4464.102539,4214.871582,4271.794922,4186.153809,16287.0,4.0,77.0,,,,0.0,4.0,4.0,4.0,0.0,4.0,66.666664,,,,,,,,,,,,,,,,,,,,,,,,,,,,,,,,,,,,,,,,,,,,,,,,,,,,,,,,,,,,,,,,,,,,,,,,,,,,,,,,,,,,
14086,1645494624.218659,1645494624.244807,84.0,0.0,4129.230957,4430.256348,4221.538574,4271.794922,4174.358886999999,450.0,4.0,77.0,,,,0.0,4.0,4.0,4.0,0.0,4.0,66.666664,,,,,,,,42.0,0.0,0.48372,-0.231934,0.6191409999999999,0.5734859999999999,0.8715950000000001,-0.492195,-0.136233,-0.033342000000000004,-0.038991000000000005,-0.027431999999999998,,,,,,,,,,,,,,,,,,,,,,,,,,,,,,,,,,,0.0,0.0,64.0,0.624209,1.0,0.0,,,,,,,,,,,,,,,,,,,,,,,,,
14087,1645494624.226473,1645494624.2526212,85.0,0.0,4163.589844,4398.461426,4236.410156,4271.794922,4195.384765999999,450.0,4.0,77.0,,,,0.0,4.0,4.0,4.0,0.0,4.0,66.666664,,,,,,,,,,,,,,,,,,,,,,,,,,,,,,,,,,,,,,,,,,,,,,,,,,,,,,,,,,,,,,,,,,,,,,,,,,,,,,,,,,,,
14088,1645494624.234288,1645494624.2604358,86.0,0.0,4137.436035,4392.820313,4232.820313,4271.794922,4203.589844,450.0,4.0,77.0,,,,0.0,4.0,4.0,4.0,0.0,4.0,66.666664,,,,,,,,43.0,0.0,0.48372,-0.231934,0.6191409999999999,0.5734859999999999,0.8652479999999999,-0.495613,-0.125978,-0.033426,-0.039096,-0.029814999999999998,,,,,,,,,,,,,,,,,,,,,,,,,,,,,,,,,,,,,,,,,,,,,,,,,,,,,,,,,,,,,,,,,
14089,1645494624.2421029,1645494624.268251,87.0,0.0,4106.153809,4435.897461,4225.128418,4271.794922,4183.589844,16287.0,4.0,77.0,,,,0.0,4.0,4.0,4.0,0.0,4.0,66.666664,,,,,,,,,,,,,,,,,,,,,,,,,,,,,,,,,,,,,,,,,,,,,,,,,,,,,,,,,,,,,,,,,,,,,,,,,,,,,,,,,,,,
14090,1645494624.249918,1645494624.276065,88.0,0.0,4144.102539,4496.922852000001,4234.871582,4271.794922,4188.205078,450.0,4.0,77.0,,,,0.0,4.0,4.0,4.0,0.0,4.0,66.666664,,,,,,,,44.0,0.0,0.48372,-0.231934,0.6191409999999999,0.5734859999999999,0.886732,-0.488777,-0.138674,-0.033306,-0.039141,-0.025711,,,,,,,,,,,,,,,,,,,,,,,,,,,,,,,,,,,0.0,0.0,64.0,0.624209,1.0,0.0,,,,,,,,,,,,,,,,,,,,,,,,,
14091,1645494624.257733,1645494624.28388,89.0,0.0,4176.922852000001,4482.563965,4227.179688,4271.794922,4206.666504,450.0,4.0,77.0,,,,0.0,4.0,4.0,4.0,0.0,4.0,66.666664,,,,,,,,,,,,,,,,,,,,,,,,,,,,,,,,,,,,,,,,,,,,,,,,,,,,,,,,,,,,,,,,,,,,,,,,,,,,,,,,,,,,
14092,1645494624.265548,1645494624.2916949,90.0,0.0,4143.589844,4394.358886999999,4208.717772999999,4271.794922,4204.102539,450.0,4.0,77.0,,,,0.0,4.0,4.0,4.0,0.0,4.0,66.666664,,,,,,,,45.0,0.0,0.48372,-0.231934,0.6191409999999999,0.5734859999999999,0.87892,-0.484382,-0.135256,-0.033296,-0.039133999999999995,-0.028169,,,,,,,,,,,,,,,,,,,,,,,,,,,,,,,,,,,,,,,,,,,,,,,,,,,,,,,,,,,,,,,,,
14093,1645494624.273363,1645494624.299509,91.0,0.0,4105.128418,4341.538574,4204.615234000001,4271.794922,4201.538574,16287.0,4.0,77.0,,,,0.0,4.0,4.0,4.0,0.0,4.0,66.666664,,,,,,,,,,,,,,,,,,,,,,,,,,,,,,,,,,,,,,,,,,,,,,,,,,,,,,,,,,,,,,,,,,,,,,,,,,,,,,,,,,,,
14094,1645494624.281178,1645494624.307224,92.0,0.0,4125.128418,4337.436035,4205.641113000001,4271.794922,4195.897461,450.0,4.0,77.0,,,,0.0,4.0,4.0,4.0,0.0,4.0,66.666664,,,,,,,,46.0,0.0,0.48360299999999995,-0.23217800000000002,0.6191409999999999,0.5734859999999999,0.8750129999999999,-0.489754,-0.13086099999999998,-0.033335000000000004,-0.039077999999999995,-0.02418,,,,,,,,,,,,,,,,,,,,,,,,,,,,,,,,,,,0.0,0.0,64.0,0.624209,1.0,0.0,,,,,,,,,,,,,,,,,,,,,,,,,
14095,1645494624.288993,1645494624.3150392,93.0,0.0,4162.563965,4356.922852000001,4211.282227000001,4271.794922,4187.692383,450.0,4.0,77.0,,,,0.0,4.0,4.0,4.0,0.0,4.0,66.666664,,,,,,,,,,,,,,,,,,,,,,,,,,,,,,,,,,,,,,,,,,,,,,,,,,,,,,,,,,,,,,,,,,,,,,,,,,,,,,,,,,,,
14096,1645494624.296808,1645494624.3228528,94.0,0.0,4159.487305,4387.179688,4220.0,4271.794922,4198.461426,450.0,4.0,77.0,,,,0.0,4.0,4.0,4.0,0.0,4.0,66.666664,,,,,,,,47.0,0.0,0.48360299999999995,-0.23217800000000002,0.6191409999999999,0.5734859999999999,0.8730600000000001,-0.49707799999999996,-0.13086099999999998,-0.033371,-0.039174,-0.026841000000000004,,,,,,,,,,,,,,,,,,,,,,,,,,,,,,,,,,,,,,,,,,,,,,,,,,,,,,,,,,,,,,,,,
14097,1645494624.3046231,1645494624.330668,95.0,0.0,4128.717772999999,4373.846191,4228.717772999999,4271.794922,4204.615234000001,16287.0,4.0,77.0,,,,0.0,4.0,4.0,4.0,0.0,4.0,66.666664,,,,,,,,,,,,,,,,,,,,,,,,,,,,,,,,,,,,,,,,,,,,,,,,,,,,,,,,,,,,,,,,,,,,,,,,,,,,,,,,,,,,
14098,1645494624.312438,1645494624.338483,96.0,0.0,4124.102539,4335.384765999999,4231.282227000001,4271.794922,4194.871582,450.0,4.0,77.0,,,,0.0,4.0,4.0,4.0,0.0,4.0,66.666664,,,,,,,,48.0,0.0,0.483915,-0.23217800000000002,0.618896,0.5734859999999999,0.8740370000000001,-0.486824,-0.122072,-0.033402999999999995,-0.039113999999999996,-0.022985,1.0,0.0,0.0,,,,,,,,,,,,,,,,,,,,,,,,,,,,,,,,0.0,0.0,64.0,0.729799,1.0,0.0,73.212418,17.247637,7.462438000000001,2.085485,2.694589,53.206551,16.048721,5.827395,2.600835,3.857791,1.3231959999999998,0.647108,0.595713,0.468314,0.346096,0.05284,0.085451,0.049752,0.028794999999999998,0.041652,22.122984,6.1470970000000005,1.9722959999999998,1.5745200000000001,1.0633190000000001
14099,1645494624.320253,1645494624.346297,97.0,0.0,4157.436035,4344.615234000001,4223.589844,4271.794922,4196.410156,450.0,4.0,77.0,,,,0.0,4.0,4.0,4.0,0.0,4.0,66.666664,,,,,,,,,,,,,,,,,,,,,,,,,,,,,,,,,,,,,,,,,,,,,,,,,,,,,,,,,,,,,,,,,,,,,,,,,,,,,,,,,,,,
14100,1645494624.328068,1645494624.354112,98.0,0.0,4159.487305,4356.410156,4208.205078,4271.794922,4199.487305,450.0,4.0,77.0,,,,0.0,4.0,4.0,4.0,0.0,4.0,66.666664,,,,,,,,49.0,0.0,0.483915,-0.23217800000000002,0.618896,0.5734859999999999,0.8842909999999999,-0.48389399999999994,-0.125978,-0.033530000000000004,-0.039060000000000004,-0.019514,,,,,,,,,,,,,,,,,,,,,,,,,,,,,,,,,,,,,,,,,,,,,,,,,,,,,,,,,,,,,,,,,
14101,1645494624.335883,1645494624.361927,99.0,0.0,4134.871582,4349.230957,4209.743652,4271.794922,4194.358886999999,16287.0,4.0,77.0,,,,0.0,4.0,4.0,4.0,0.0,4.0,66.666664,,,,,,,,,,,,,,,,,,,,,,,,,,,,,,,,,,,,,,,,,,,,,,,,,,,,,,,,,,,,,,,,,,,,,,,,,,,,,,,,,,,,
14102,1645494624.343698,1645494624.369741,100.0,0.0,4137.436035,4380.0,4212.307617,4271.794922,4187.692383,450.0,4.0,77.0,,,,0.0,4.0,4.0,4.0,0.0,4.0,66.666664,,,,,,,,50.0,0.0,0.483915,-0.23217800000000002,0.618896,0.5734859999999999,0.877943,-0.492195,-0.13086099999999998,-0.033546,-0.039158,-0.022690000000000002,,,,,,,,,,,,,,,,,,,,,,,,,,,,,,,,,,,0.0,0.0,64.0,0.729799,1.0,0.0,,,,,,,,,,,,,,,,,,,,,,,,,
14103,1645494624.3515131,1645494624.377556,101.0,0.0,4158.461426,4392.307617,4212.820313,4271.794922,4186.153809,450.0,4.0,77.0,,,,0.0,4.0,4.0,4.0,0.0,4.0,66.666664,,,,,,,,,,,,,,,,,,,,,,,,,,,,,,,,,,,,,,,,,,,,,,,,,,,,,,,,,,,,,,,,,,,,,,,,,,,,,,,,,,,,
14104,1645494624.359328,1645494624.385271,102.0,0.0,4159.487305,4355.897461,4214.358886999999,4271.794922,4193.333496,450.0,4.0,77.0,,,,0.0,4.0,4.0,4.0,0.0,4.0,66.666664,,,,,,,,51.0,0.0,0.483915,-0.23217800000000002,0.618896,0.5734859999999999,0.874525,-0.492195,-0.12549000000000002,-0.033512,-0.039197,-0.025499,,,,,,,,,,,,,,,,,,,,,,,,,,,,,,,,,,,,,,,,,,,,,,,,,,,,,,,,,,,,,,,,,
14105,1645494624.367143,1645494624.393085,103.0,0.0,4140.512695,4351.282227000001,4213.846191,4271.794922,4197.94873,16287.0,4.0,77.0,,,,0.0,4.0,4.0,4.0,0.0,4.0,66.666664,,,,,,,,,,,,,,,,,,,,,,,,,,,,,,,,,,,,,,,,,,,,,,,,,,,,,,,,,,,,,,,,,,,,,,,,,,,,,,,,,,,,
14106,1645494624.374958,1645494624.4009,104.0,0.0,4146.666504,4383.077147999999,4210.256348,4271.794922,4207.179688,450.0,4.0,77.0,,,,0.0,4.0,4.0,4.0,0.0,4.0,66.666664,,,,,,,,52.0,0.0,0.48360299999999995,-0.23217800000000002,0.6191409999999999,0.5734859999999999,0.863783,-0.484382,-0.132326,-0.033530000000000004,-0.039233,-0.02793,,,,,,,,,,,,,,,,,,,,,,,,,,,,,,,,,,,0.0,0.0,64.0,0.729799,1.0,0.0,,,,,,,,,,,,,,,,,,,,,,,,,
14107,1645494624.3827732,1645494624.408715,105.0,0.0,4171.794922,4394.358886999999,4213.846191,4271.794922,4222.563965,450.0,4.0,77.0,,,,0.0,4.0,4.0,4.0,0.0,4.0,66.666664,,,,,,,,,,,,,,,,,,,,,,,,,,,,,,,,,,,,,,,,,,,,,,,,,,,,,,,,,,,,,,,,,,,,,,,,,,,,,,,,,,,,
14108,1645494624.390588,1645494624.416529,106.0,0.0,4168.205078,4384.615234000001,4212.820313,4271.794922,4213.333496,450.0,4.0,77.0,,,,0.0,4.0,4.0,4.0,0.0,4.0,66.666664,,,,,,,,53.0,0.0,0.483915,-0.23217800000000002,0.618896,0.5734859999999999,0.877943,-0.492195,-0.13086099999999998,-0.033546,-0.039313,-0.030264,,,,,,,,,,,,,,,,,,,,,,,,,,,,,,,,,,,,,,,,,,,,,,,,,,,,,,,,,,,,,,,,,
14109,1645494624.398403,1645494624.424344,107.0,0.0,4153.846191,4398.461426,4211.794922,4271.794922,4192.820313,16287.0,4.0,77.0,,,,0.0,4.0,4.0,4.0,0.0,4.0,66.666664,,,,,,,,,,,,,,,,,,,,,,,,,,,,,,,,,,,,,,,,,,,,,,,,,,,,,,,,,,,,,,,,,,,,,,,,,,,,,,,,,,,,
14110,1645494624.406217,1645494624.432159,108.0,0.0,4173.333496,4408.717772999999,4226.153809,4271.794922,4198.461426,450.0,4.0,77.0,,,,0.0,4.0,4.0,4.0,0.0,4.0,66.666664,,,,,,,,54.0,0.0,0.48360299999999995,-0.23217800000000002,0.6191409999999999,0.5734859999999999,0.866224,-0.486336,-0.143069,-0.03356,-0.039288,-0.026163,,,,,,,,,,,,,,,,,,,,,,,,,,,,,,,,,,,0.0,0.0,64.0,0.729799,1.0,0.0,,,,,,,,,,,,,,,,,,,,,,,,,
14111,1645494624.414033,1645494624.439973,109.0,0.0,4173.846191,4380.512695,4228.717772999999,4271.794922,4222.05127,450.0,4.0,77.0,,,,0.0,4.0,4.0,4.0,0.0,4.0,66.666664,,,,,,,,,,,,,,,,,,,,,,,,,,,,,,,,,,,,,,,,,,,,,,,,,,,,,,,,,,,,,,,,,,,,,,,,,,,,,,,,,,,,
14112,1645494624.421847,1645494624.447788,110.0,0.0,4142.563965,4375.384765999999,4217.94873,4271.794922,4221.025879,450.0,4.0,77.0,,,,0.0,4.0,4.0,4.0,0.0,4.0,66.666664,,,,,,,,55.0,0.0,0.48360299999999995,-0.23217800000000002,0.6191409999999999,0.5734859999999999,0.863294,-0.49121800000000004,-0.135256,-0.033574,-0.039266,-0.028674,,,,,,,,,,,,,,,,,,,,,,,,,,,,,,,,,,,,,,,,,,,,,,,,,,,,,,,,,,,,,,,,,
14113,1645494624.429662,1645494624.455503,111.0,0.0,4165.641113000001,4402.05127,4212.820313,4271.794922,4209.743652,16287.0,4.0,77.0,,,,0.0,4.0,4.0,4.0,0.0,4.0,66.666664,,,,,,,,,,,,,,,,,,,,,,,,,,,,,,,,,,,,,,,,,,,,,,,,,,,,,,,,,,,,,,,,,,,,,,,,,,,,,,,,,,,,
14114,1645494624.4374769,1645494624.463317,112.0,0.0,4194.871582,4390.256348,4211.282227000001,4271.794922,4207.179688,450.0,4.0,77.0,,,,0.0,4.0,4.0,4.0,0.0,4.0,66.666664,,,,,,,,56.0,0.0,0.48372,-0.231934,0.6191409999999999,0.5734859999999999,0.8725719999999999,-0.49463599999999996,-0.123537,-0.033634,-0.039197,-0.030933999999999996,1.0,0.0,0.0,,,,,,,,,,,,,,,,,,,,,,,,,,,,,,,,0.0,0.0,64.0,0.254013,1.0,0.0,90.922661,20.95446,9.925130000000001,2.6017259999999998,3.092478,55.768749,16.830462,6.350765,2.707754,3.4503269999999997,1.413151,0.6400520000000001,0.48188000000000003,0.500035,0.343264,0.059534000000000004,0.075895,0.039856,0.027731,0.033041,27.27236,7.076067,2.229618,1.4778870000000002,1.062062
14115,1645494624.445292,1645494624.471132,113.0,0.0,4170.256348,4344.615234000001,4205.128418,4271.794922,4208.717772999999,450.0,4.0,77.0,,,,0.0,4.0,4.0,4.0,0.0,4.0,66.666664,,,,,,,,,,,,,,,,,,,,,,,,,,,,,,,,,,,,,,,,,,,,,,,,,,,,,,,,,,,,,,,,,,,,,,,,,,,,,,,,,,,,
14116,1645494624.453107,1645494624.4789462,114.0,0.0,4176.410156,4341.538574,4207.179688,4271.794922,4213.846191,450.0,4.0,77.0,,,,0.0,4.0,4.0,4.0,0.0,4.0,66.666664,,,,,,,,57.0,0.0,0.48372,-0.231934,0.6191409999999999,0.5734859999999999,0.870619,-0.494148,-0.121584,-0.033494,-0.039135,-0.026570999999999997,,,,,,,,,,,,,,,,,,,,,,,,,,,,,,,,,,,,,,,,,,,,,,,,,,,,,,,,,,,,,,,,,
14117,1645494624.460922,1645494624.4867609,115.0,0.0,4203.589844,4346.153809,4210.256348,4271.794922,4210.769043,16287.0,4.0,77.0,,,,0.0,4.0,4.0,4.0,0.0,4.0,66.666664,,,,,,,,,,,,,,,,,,,,,,,,,,,,,,,,,,,,,,,,,,,,,,,,,,,,,,,,,,,,,,,,,,,,,,,,,,,,,,,,,,,,
14118,1645494624.468737,1645494624.494576,116.0,0.0,4198.974121,4319.487305,4214.871582,4271.794922,4215.897461,450.0,4.0,77.0,,,,0.0,4.0,4.0,4.0,0.0,4.0,66.666664,,,,,,,,58.0,0.0,0.48360299999999995,-0.23217800000000002,0.6191409999999999,0.5734859999999999,0.875502,-0.479988,-0.131838,-0.033513,-0.039126999999999995,-0.022644,,,,,,,,,,,,,,,,,,,,,,,,,,,,,,,,,,,0.0,0.0,64.0,0.254013,1.0,0.0,,,,,,,,,,,,,,,,,,,,,,,,,
14119,1645494624.476552,1645494624.5023901,117.0,0.0,4197.436035,4334.871582,4220.512695,4271.794922,4235.384765999999,450.0,4.0,77.0,,,,0.0,4.0,4.0,4.0,0.0,4.0,66.666664,,,,,,,,,,,,,,,,,,,,,,,,,,,,,,,,,,,,,,,,,,,,,,,,,,,,,,,,,,,,,,,,,,,,,,,,,,,,,,,,,,,,
14120,1645494624.484367,1645494624.510205,118.0,0.0,4192.307617,4365.128418,4223.077147999999,4271.794922,4237.94873,450.0,4.0,77.0,,,,0.0,4.0,4.0,4.0,0.0,4.0,66.666664,,,,,,,,59.0,0.0,0.48372,-0.231934,0.6191409999999999,0.5734859999999999,0.877943,-0.49073,-0.122072,-0.033482,-0.039169999999999996,-0.025409,,,,,,,,,,,,,,,,,,,,,,,,,,,,,,,,,,,,,,,,,,,,,,,,,,,,,,,,,,,,,,,,,
14121,1645494624.492182,1645494624.51802,119.0,0.0,4187.179688,4324.102539,4221.538574,4271.794922,4225.641113000001,16287.0,4.0,77.0,,,,0.0,4.0,4.0,4.0,0.0,4.0,66.666664,,,,,,,,,,,,,,,,,,,,,,,,,,,,,,,,,,,,,,,,,,,,,,,,,,,,,,,,,,,,,,,,,,,,,,,,,,,,,,,,,,,,
14122,1645494624.4999971,1645494624.525834,120.0,0.0,4210.256348,4265.128418,4226.666504,4271.794922,4223.589844,450.0,4.0,77.0,,,,0.0,4.0,4.0,4.0,0.0,4.0,66.666664,,,,,,,,60.0,0.0,0.48372,-0.231934,0.6191409999999999,0.5734859999999999,0.8725719999999999,-0.494148,-0.12695499999999998,-0.033552,-0.039159,-0.027897,,,,,,,,,,,,,,,,,,,,,,,,,,,,,,,,,,,0.0,0.0,64.0,0.254013,1.0,0.0,,,,,,,,,,,,,,,,,,,,,,,,,
14123,1645494624.507812,1645494624.533549,121.0,0.0,4209.743652,4253.333496,4214.871582,4271.794922,4224.615234000001,450.0,4.0,77.0,,,,0.0,4.0,4.0,4.0,0.0,4.0,66.666664,,,,,,,,,,,,,,,,,,,,,,,,,,,,,,,,,,,,,,,,,,,,,,,,,,,,,,,,,,,,,,,,,,,,,,,,,,,,,,,,,,,,
14124,1645494624.515627,1645494624.541364,122.0,0.0,4190.769043,4256.922852000001,4202.05127,4271.794922,4214.871582,450.0,4.0,77.0,,,,0.0,4.0,4.0,4.0,0.0,4.0,66.666664,,,,,,,,61.0,0.0,0.48383699999999996,-0.23168899999999998,0.6191409999999999,0.5734859999999999,0.872084,-0.49951899999999994,-0.119631,-0.033615,-0.039101,-0.030186,,,,,,,,,,,,,,,,,,,,,,,,,,,,,,,,,,,,,,,,,,,,,,,,,,,,,,,,,,,,,,,,,
14125,1645494624.523442,1645494624.549178,123.0,0.0,4201.025879,4261.538574,4210.769043,4271.794922,4221.025879,16287.0,4.0,77.0,,,,0.0,4.0,4.0,4.0,0.0,4.0,66.666664,,,,,,,,,,,,,,,,,,,,,,,,,,,,,,,,,,,,,,,,,,,,,,,,,,,,,,,,,,,,,,,,,,,,,,,,,,,,,,,,,,,,
14126,1645494624.531257,1645494624.556993,124.0,0.0,4205.128418,4281.538574,4220.0,4271.794922,4233.846191,450.0,4.0,77.0,,,,0.0,4.0,4.0,4.0,0.0,4.0,66.666664,,,,,,,,62.0,0.0,0.483954,-0.23144499999999998,0.6191409999999999,0.5734859999999999,0.862806,-0.49951899999999994,-0.13086099999999998,-0.033574,-0.039195,-0.025947,,,,,,,,,,,,,,,,,,,,,,,,,,,,,,,,,,,0.0,0.0,64.0,0.254013,1.0,0.0,,,,,,,,,,,,,,,,,,,,,,,,,
14127,1645494624.539072,1645494624.564808,125.0,0.0,4208.717772999999,4287.692383,4215.897461,4271.794922,4230.256348,450.0,4.0,77.0,,,,0.0,4.0,4.0,4.0,0.0,4.0,66.666664,,,,,,,,,,,,,,,,,,,,,,,,,,,,,,,,,,,,,,,,,,,,,,,,,,,,,,,,,,,,,,,,,,,,,,,,,,,,,,,,,,,,
14128,1645494624.546887,1645494624.572622,126.0,0.0,4241.538574,4268.717772999999,4210.256348,4271.794922,4236.410156,450.0,4.0,77.0,,,,0.0,4.0,4.0,4.0,0.0,4.0,66.666664,,,,,,,,63.0,0.0,0.484266,-0.23144499999999998,0.618896,0.5734859999999999,0.872084,-0.494148,-0.131838,-0.033537,-0.039279,-0.028527999999999998,,,,,,,,,,,,,,,,,,,,,,,,,,,,,,,,,,,,,,,,,,,,,,,,,,,,,,,,,,,,,,,,,
14129,1645494624.554702,1645494624.580437,127.0,0.0,4246.666504,4248.717772999999,4215.897461,4271.794922,4262.05127,239.0,4.0,77.0,,,,0.0,4.0,4.0,4.0,0.0,4.0,66.666664,,,,,,,,,,,,,,,,,,,,,,,,,,,,,,,,,,,,,,,,,,,,,,,,,,,,,,,,,,,,,,,,,,,,,,,,,,,,,,,,,,,,
14130,1645494624.562517,1645494624.588152,0.0,0.0,4216.410156,4232.820313,4213.333496,4271.794922,4262.05127,450.0,4.0,77.0,,,,0.0,4.0,4.0,4.0,0.0,4.0,66.666664,0.972656,50.0,3.0,3.0,4.0,0.0,3.0,0.0,0.0,0.484266,-0.23144499999999998,0.618896,0.5734859999999999,0.8691540000000001,-0.493172,-0.12549000000000002,-0.033552,-0.039258,-0.030752999999999996,1.0,0.0,0.0,,,,,,,,,,,,,,,,,,,,,,,,,,,,,,,,0.0,0.0,64.0,1.0,1.0,0.0,97.181641,22.441719,11.483827999999999,3.0646560000000003,3.596693,58.969131000000004,18.297192000000003,6.911892,3.011339,2.9125349999999997,1.485444,0.6531600000000001,0.42718100000000003,0.529299,0.34216799999999997,0.06162,0.063208,0.030669,0.026933999999999996,0.025235,29.180059000000004,7.319083999999999,2.378572,1.3866049999999999,1.084682
14131,1645494624.570332,1645494624.595966,1.0,0.0,4203.589844,4256.410156,4213.333496,4271.794922,4240.512695,450.0,4.0,77.0,,,,0.0,4.0,4.0,4.0,0.0,4.0,66.666664,,,,,,,,,,,,,,,,,,,,,,,,,,,,,,,,,,,,,,,,,,,,,,,,,,,,,,,,,,,,,,,,,,,,,,,,,,,,,,,,,,,,
14132,1645494624.5781472,1645494624.603781,2.0,0.0,4200.512695,4295.384765999999,4211.794922,4271.794922,4237.436035,16218.0,4.0,77.0,,,,0.0,4.0,4.0,4.0,0.0,4.0,66.666664,,,,,,,,1.0,0.0,0.484266,-0.23144499999999998,0.618896,0.5734859999999999,0.877943,-0.48584700000000003,-0.137209,-0.033615,-0.039189,-0.032707,,,,,,,,,,,,,,,,,,,,,,,,,,,,,,,,,,,,,,,,,,,,,,,,,,,,,,,,,,,,,,,,,
14133,1645494624.5859618,1645494624.611596,3.0,0.0,4210.256348,4275.384765999999,4208.717772999999,4271.794922,4239.487305,450.0,4.0,77.0,,,,0.0,4.0,4.0,4.0,0.0,4.0,66.666664,,,,,,,,,,,,,,,,,,,,,,,,,,,,,,,,,,,,,,,,,,,,,,,,,,,,,,,,,,,,,,,,,,,,,,,,,,,,,,,,,,,,
14134,1645494624.593777,1645494624.61941,4.0,0.0,4224.615234000001,4242.05127,4209.743652,4271.794922,4227.179688,16155.0,4.0,77.0,,,,0.0,4.0,4.0,4.0,0.0,4.0,66.666664,,,,,,,,2.0,0.0,0.484266,-0.23144499999999998,0.618896,0.5734859999999999,0.8803850000000001,-0.488777,-0.13916199999999998,-0.033574,-0.039177,-0.028216,,,,,,,,,,,,,,,,,,,,,,,,,,,,,,,,,,,0.0,0.0,64.0,1.0,1.0,0.0,,,,,,,,,,,,,,,,,,,,,,,,,
14135,1645494624.601591,1645494624.627225,5.0,0.0,4214.871582,4250.769043,4214.871582,4271.794922,4224.102539,450.0,4.0,77.0,,,,0.0,4.0,4.0,4.0,0.0,4.0,66.666664,,,,,,,,,,,,,,,,,,,,,,,,,,,,,,,,,,,,,,,,,,,,,,,,,,,,,,,,,,,,,,,,,,,,,,,,,,,,,,,,,,,,
14136,1645494624.609407,1645494624.63504,6.0,0.0,4201.538574,4252.820313,4206.153809,4271.794922,4223.589844,16102.0,4.0,77.0,,,,0.0,4.0,4.0,4.0,0.0,4.0,66.666664,,,,,,,,3.0,0.0,0.484266,-0.23144499999999998,0.618896,0.5734859999999999,0.87013,-0.49707799999999996,-0.136721,-0.033635000000000005,-0.039214,-0.030521,,,,,,,,,,,,,,,,,,,,,,,,,,,,,,,,,,,,,,,,,,,,,,,,,,,,,,,,,,,,,,,,,
14137,1645494624.617221,1645494624.642854,7.0,0.0,4204.102539,4235.897461,4200.0,4271.794922,4217.436035,450.0,4.0,77.0,,,,0.0,4.0,4.0,4.0,0.0,4.0,66.666664,,,,,,,,,,,,,,,,,,,,,,,,,,,,,,,,,,,,,,,,,,,,,,,,,,,,,,,,,,,,,,,,,,,,,,,,,,,,,,,,,,,,
14138,1645494624.625036,1645494624.6506689,8.0,0.0,4223.589844,4238.461426,4211.282227000001,4271.794922,4231.794922,450.0,4.0,77.0,,,,0.0,4.0,4.0,4.0,0.0,4.0,66.666664,,,,,,,,4.0,0.0,0.484266,-0.23144499999999998,0.618896,0.5734859999999999,0.8642709999999999,-0.477546,-0.11523599999999999,-0.033639999999999996,-0.039248000000000005,-0.032547,,,,,,,,,,,,,,,,,,,,,,,,,,,,,,,,,,,0.0,0.0,64.0,1.0,1.0,0.0,,,,,,,,,,,,,,,,,,,,,,,,,
14139,1645494624.632851,1645494624.658384,9.0,0.0,4250.256348,4230.769043,4223.589844,4271.794922,4254.871582,0.0,4.0,77.0,,,,0.0,4.0,4.0,4.0,0.0,4.0,66.666664,,,,,,,,,,,,,,,,,,,,,,,,,,,,,,,,,,,,,,,,,,,,,,,,,,,,,,,,,,,,,,,,,,,,,,,,,,,,,,,,,,,,
14140,1645494624.640666,1645494624.666198,10.0,0.0,4247.179688,4204.615234000001,4217.436035,4271.794922,4256.410156,450.0,4.0,77.0,,,,0.0,4.0,4.0,4.0,0.0,4.0,66.666664,,,,,,,,5.0,0.0,0.484266,-0.23144499999999998,0.618896,0.5734859999999999,0.866224,-0.500984,-0.12451400000000001,-0.033645,-0.039327,-0.03442,,,,,,,,,,,,,,,,,,,,,,,,,,,,,,,,,,,,,,,,,,,,,,,,,,,,,,,,,,,,,,,,,
14141,1645494624.6484811,1645494624.6740131,11.0,0.0,4230.769043,4209.230957,4206.666504,4271.794922,4253.333496,16244.0,4.0,77.0,,,,0.0,4.0,4.0,4.0,0.0,4.0,66.666664,,,,,,,,,,,,,,,,,,,,,,,,,,,,,,,,,,,,,,,,,,,,,,,,,,,,,,,,,,,,,,,,,,,,,,,,,,,,,,,,,,,,
14142,1645494624.656296,1645494624.681828,12.0,0.0,4245.641113000001,4200.512695,4204.615234000001,4271.794922,4260.0,450.0,4.0,77.0,,,,0.0,4.0,4.0,4.0,0.0,4.0,66.666664,,,,,,,,6.0,0.0,0.48397700000000005,-0.23144499999999998,0.618896,0.5737300000000001,0.8603649999999999,-0.501961,-0.137209,-0.033552,-0.039251999999999995,-0.029806,,,,,,,,,,,,,,,,,,,,,,,,,,,,,,,,,,,0.0,0.0,64.0,1.0,1.0,0.0,,,,,,,,,,,,,,,,,,,,,,,,,
14143,1645494624.664111,1645494624.689642,13.0,0.0,4242.05127,4172.307617,4206.153809,4271.794922,4250.769043,450.0,4.0,77.0,,,,0.0,4.0,4.0,4.0,0.0,4.0,66.666664,,,,,,,,,,,,,,,,,,,,,,,,,,,,,,,,,,,,,,,,,,,,,,,,,,,,,,,,,,,,,,,,,,,,,,,,,,,,,,,,,,,,
14144,1645494624.671926,1645494624.697457,14.0,0.0,4205.641113000001,4188.717772999999,4205.128418,4271.794922,4231.282227000001,450.0,4.0,77.0,,,,0.0,4.0,4.0,4.0,0.0,4.0,66.666664,,,,,,,,7.0,0.0,0.484266,-0.23144499999999998,0.618896,0.5734859999999999,0.8642709999999999,-0.477546,-0.11523599999999999,-0.033615,-0.039184,-0.025556,,,,,,,,,,,,,,,,,,,,,,,,,,,,,,,,,,,,,,,,,,,,,,,,,,,,,,,,,,,,,,,,,
14145,1645494624.679741,1645494624.705272,15.0,0.0,4205.641113000001,4194.871582,4201.025879,4271.794922,4223.589844,16244.0,4.0,77.0,,,,0.0,4.0,4.0,4.0,0.0,4.0,66.666664,,,,,,,,,,,,,,,,,,,,,,,,,,,,,,,,,,,,,,,,,,,,,,,,,,,,,,,,,,,,,,,,,,,,,,,,,,,,,,,,,,,,
14146,1645494624.687556,1645494624.713086,16.0,0.0,4222.563965,4129.743652,4202.563965,4271.794922,4214.871582,0.0,4.0,77.0,,,,0.0,4.0,4.0,4.0,0.0,4.0,66.666664,,,,,,,,8.0,0.0,0.48397700000000005,-0.23144499999999998,0.618896,0.5737300000000001,0.8603649999999999,-0.501961,-0.137209,-0.033525,-0.039123000000000005,-0.021828,1.0,0.0,0.0,,,,,,,,,,,,,,,,,,,,,,,,,,,,,,,,0.0,0.0,1.0,0.0,128.0,1.0,89.902588,21.04751,11.577044,3.309611,4.104414,63.827236,19.968531,7.598021000000001,3.7763160000000005,2.328359,1.581122,0.699109,0.43482200000000004,0.545307,0.33397,0.057949,0.048948,0.023591,0.02634,0.019556,27.244259000000003,6.718411,2.323343,1.296311,1.1152389999999999
14147,1645494624.6953712,1645494624.720901,17.0,0.0,4207.179688,4083.5898439999996,4197.94873,4271.794922,4209.230957,0.0,4.0,77.0,,,,0.0,4.0,4.0,4.0,0.0,4.0,66.666664,,,,,,,,,,,,,,,,,,,,,,,,,,,,,,,,,,,,,,,,,,,,,,,,,,,,,,,,,,,,,,,,,,,,,,,,,,,,,,,,,,,,
14148,1645494624.703186,1645494624.728616,18.0,0.0,4192.820313,4111.282227000001,4193.846191,4271.794922,4214.871582,0.0,4.0,77.0,,,,0.0,4.0,4.0,4.0,0.0,4.0,66.666664,,,,,,,,9.0,0.0,0.48397700000000005,-0.23144499999999998,0.618896,0.5737300000000001,0.8686659999999999,-0.502937,-0.132326,-0.033444,-0.039166,-0.024772,,,,,,,,,,,,,,,,,,,,,,,,,,,,,,,,,,,,,,,,,,,,,,,,,,,,,,,,,,,,,,,,,
14149,1645494624.711001,1645494624.7364302,19.0,0.0,4210.256348,4127.692383,4202.05127,4271.794922,4217.436035,0.0,4.0,77.0,,,,0.0,4.0,4.0,4.0,0.0,4.0,66.666664,,,,,,,,,,,,,,,,,,,,,,,,,,,,,,,,,,,,,,,,,,,,,,,,,,,,,,,,,,,,,,,,,,,,,,,,,,,,,,,,,,,,
14150,1645494624.718816,1645494624.7442448,20.0,0.0,4248.205078,4118.974121,4219.487305,4271.794922,4232.820313,0.0,4.0,77.0,,,,0.0,4.0,4.0,4.0,0.0,4.0,66.666664,,,,,,,,10.0,0.0,0.48397700000000005,-0.23144499999999998,0.618896,0.5737300000000001,0.874525,-0.48535900000000004,-0.13281500000000002,-0.033323,-0.039252999999999996,-0.027325,,,,,,,,,,,,,,,,,,,,,,,,,,,,,,,,,,,0.0,0.0,1.0,0.0,128.0,1.0,,,,,,,,,,,,,,,,,,,,,,,,,
14151,1645494624.7266312,1645494624.75206,21.0,0.0,4267.179688,4146.666504,4218.461426,4271.794922,4267.692383,0.0,4.0,77.0,,,,0.0,4.0,4.0,4.0,0.0,4.0,66.666664,,,,,,,,,,,,,,,,,,,,,,,,,,,,,,,,,,,,,,,,,,,,,,,,,,,,,,,,,,,,,,,,,,,,,,,,,,,,,,,,,,,,
14152,1645494624.734446,1645494624.759874,22.0,0.0,4249.743652,4187.179688,4213.846191,4271.794922,4277.436035,0.0,4.0,77.0,,,,0.0,4.0,4.0,4.0,0.0,4.0,66.666664,,,,,,,,11.0,0.0,0.48397700000000005,-0.23144499999999998,0.618896,0.5737300000000001,0.87013,-0.49707799999999996,-0.136233,-0.033457,-0.039283,-0.023469,,,,,,,,,,,,,,,,,,,,,,,,,,,,,,,,,,,,,,,,,,,,,,,,,,,,,,,,,,,,,,,,,
14153,1645494624.742261,1645494624.767689,23.0,0.0,4235.897461,4197.436035,4217.436035,4271.794922,4253.333496,0.0,4.0,77.0,,,,0.0,4.0,4.0,4.0,0.0,4.0,66.666664,,,,,,,,,,,,,,,,,,,,,,,,,,,,,,,,,,,,,,,,,,,,,,,,,,,,,,,,,,,,,,,,,,,,,,,,,,,,,,,,,,,,
14154,1645494624.750076,1645494624.775503,24.0,0.0,4252.820313,4177.94873,4223.077147999999,4271.794922,4246.666504,0.0,4.0,77.0,,,,0.0,4.0,4.0,4.0,0.0,4.0,66.666664,,,,,,,,12.0,0.0,0.48397700000000005,-0.23144499999999998,0.618896,0.5737300000000001,0.870619,-0.48828900000000003,-0.128908,-0.033529,-0.039408,-0.0262,,,,,,,,,,,,,,,,,,,,,,,,,,,,,,,,,,,0.0,0.0,1.0,0.0,128.0,1.0,,,,,,,,,,,,,,,,,,,,,,,,,
14155,1645494624.757891,1645494624.783318,25.0,0.0,4261.538574,4144.102539,4219.487305,4271.794922,4259.487305,0.0,4.0,77.0,,,,0.0,4.0,4.0,4.0,0.0,4.0,66.666664,,,,,,,,,,,,,,,,,,,,,,,,,,,,,,,,,,,,,,,,,,,,,,,,,,,,,,,,,,,,,,,,,,,,,,,,,,,,,,,,,,,,
14156,1645494624.765706,1645494624.791133,26.0,0.0,4227.179688,4126.153809,4215.384765999999,4271.794922,4251.282227000001,0.0,4.0,77.0,,,,0.0,4.0,4.0,4.0,0.0,4.0,66.666664,,,,,,,,13.0,0.0,0.48397700000000005,-0.23144499999999998,0.618896,0.5737300000000001,0.870619,-0.5039140000000001,-0.134279,-0.033546,-0.039373000000000005,-0.028610000000000003,,,,,,,,,,,,,,,,,,,,,,,,,,,,,,,,,,,,,,,,,,,,,,,,,,,,,,,,,,,,,,,,,
14157,1645494624.7735212,1645494624.798947,27.0,0.0,4213.333496,4128.717772999999,4211.282227000001,4271.794922,4243.589844,0.0,4.0,77.0,,,,0.0,4.0,4.0,4.0,0.0,4.0,66.666664,,,,,,,,,,,,,,,,,,,,,,,,,,,,,,,,,,,,,,,,,,,,,,,,,,,,,,,,,,,,,,,,,,,,,,,,,,,,,,,,,,,,
14158,1645494624.7813358,1645494624.8066618,28.0,0.0,4247.692383,4132.307617,4208.205078,4271.794922,4246.153809,0.0,4.0,77.0,,,,0.0,4.0,4.0,4.0,0.0,4.0,66.666664,,,,,,,,14.0,0.0,0.48397700000000005,-0.23144499999999998,0.618896,0.5737300000000001,0.8686659999999999,-0.49707799999999996,-0.13379100000000002,-0.033511,-0.039342,-0.030777999999999996,,,,,,,,,,,,,,,,,,,,,,,,,,,,,,,,,,,0.0,0.0,1.0,0.0,128.0,1.0,,,,,,,,,,,,,,,,,,,,,,,,,
14159,1645494624.789151,1645494624.814477,29.0,0.0,4250.256348,4128.717772999999,4205.128418,4271.794922,4234.871582,0.0,4.0,77.0,,,,0.0,4.0,4.0,4.0,0.0,4.0,66.666664,,,,,,,,,,,,,,,,,,,,,,,,,,,,,,,,,,,,,,,,,,,,,,,,,,,,,,,,,,,,,,,,,,,,,,,,,,,,,,,,,,,,
14160,1645494624.7969651,1645494624.822291,30.0,0.0,4226.153809,4122.05127,4204.615234000001,4271.794922,4228.205078,0.0,4.0,77.0,,,,0.0,4.0,4.0,4.0,0.0,4.0,66.666664,,,,,,,,15.0,0.0,0.484149,-0.23168899999999998,0.618896,0.5734859999999999,0.894545,-0.486824,-0.143557,-0.033530000000000004,-0.039363,-0.03273,,,,,,,,,,,,,,,,,,,,,,,,,,,,,,,,,,,,,,,,,,,,,,,,,,,,,,,,,,,,,,,,,
14161,1645494624.804781,1645494624.830106,31.0,0.0,4248.205078,4101.025879,4211.794922,4271.794922,4252.307617,0.0,4.0,77.0,,,,0.0,4.0,4.0,4.0,0.0,4.0,66.666664,,,,,,,,,,,,,,,,,,,,,,,,,,,,,,,,,,,,,,,,,,,,,,,,,,,,,,,,,,,,,,,,,,,,,,,,,,,,,,,,,,,,
14162,1645494624.812595,1645494624.8379211,32.0,0.0,4283.589844,4078.461426,4215.897461,4271.794922,4265.641113000001,0.0,4.0,77.0,,,,0.0,4.0,4.0,4.0,0.0,4.0,66.666664,,,,,,,,16.0,0.0,0.48383699999999996,-0.23168899999999998,0.6191409999999999,0.5734859999999999,0.8886850000000001,-0.49463599999999996,-0.135744,-0.033497000000000006,-0.03948,-0.034437,1.0,0.0,0.0,,,,,,,,,,,,,,,,,,,,,,,,,,,,,,,,0.0,0.0,1.0,0.0,128.0,1.0,72.058098,17.141348,10.136515,3.255189,4.499843,68.84129300000001,20.930557,8.347907000000001,5.137576,1.8421029999999998,1.71317,0.7839520000000001,0.495263,0.545079,0.315407,0.048563999999999996,0.034783999999999995,0.018448,0.02519,0.015933000000000003,22.342449,5.4419580000000005,2.030793,1.19906,1.1281729999999999
14163,1645494624.82041,1645494624.845735,33.0,0.0,4274.358886999999,4079.487061,4221.025879,4271.794922,4253.333496,0.0,4.0,77.0,,,,0.0,4.0,4.0,4.0,0.0,4.0,66.666664,,,,,,,,,,,,,,,,,,,,,,,,,,,,,,,,,,,,,,,,,,,,,,,,,,,,,,,,,,,,,,,,,,,,,,,,,,,,,,,,,,,,
14164,1645494624.828225,1645494624.85355,34.0,0.0,4264.102539,4075.897461,4212.820313,4271.794922,4262.05127,0.0,4.0,77.0,,,,0.0,4.0,4.0,4.0,0.0,4.0,66.666664,,,,,,,,17.0,0.0,0.48383699999999996,-0.23168899999999998,0.6191409999999999,0.5734859999999999,0.87013,-0.481941,-0.126467,-0.033468,-0.039438,-0.036023,,,,,,,,,,,,,,,,,,,,,,,,,,,,,,,,,,,,,,,,,,,,,,,,,,,,,,,,,,,,,,,,,
14165,1645494624.83604,1645494624.861365,35.0,0.0,4269.743652,4050.7692869999996,4199.487305,4271.794922,4272.307617,0.0,4.0,77.0,,,,0.0,4.0,4.0,4.0,0.0,4.0,66.666664,,,,,,,,,,,,,,,,,,,,,,,,,,,,,,,,,,,,,,,,,,,,,,,,,,,,,,,,,,,,,,,,,,,,,,,,,,,,,,,,,,,,
14166,1645494624.8438551,1645494624.869179,36.0,0.0,4264.615234000001,4029.743652,4195.897461,4271.794922,4257.94873,0.0,4.0,77.0,,,,0.0,4.0,4.0,4.0,0.0,4.0,66.666664,,,,,,,,18.0,0.0,0.48383699999999996,-0.23168899999999998,0.6191409999999999,0.5734859999999999,0.8691540000000001,-0.477546,-0.137209,-0.033441000000000005,-0.039352,-0.037499,,,,,,,,,,,,,,,,,,,,,,,,,,,,,,,,,,,0.0,0.0,1.0,0.0,128.0,1.0,,,,,,,,,,,,,,,,,,,,,,,,,
14167,1645494624.85167,1645494624.876894,37.0,0.0,4245.128418,4059.487061,4202.05127,4271.794922,4247.179688,0.0,4.0,77.0,,,,0.0,4.0,4.0,4.0,0.0,4.0,66.666664,,,,,,,,,,,,,,,,,,,,,,,,,,,,,,,,,,,,,,,,,,,,,,,,,,,,,,,,,,,,,,,,,,,,,,,,,,,,,,,,,,,,
14168,1645494624.859485,1645494624.884709,38.0,0.0,4235.384765999999,4121.025879,4206.666504,4271.794922,4245.128418,0.0,4.0,77.0,,,,0.0,4.0,4.0,4.0,0.0,4.0,66.666664,,,,,,,,19.0,0.0,0.48383699999999996,-0.23168899999999998,0.6191409999999999,0.5734859999999999,0.872084,-0.486336,-0.134768,-0.033417,-0.03942,-0.032527999999999994,,,,,,,,,,,,,,,,,,,,,,,,,,,,,,,,,,,,,,,,,,,,,,,,,,,,,,,,,,,,,,,,,
14169,1645494624.8673,1645494624.892523,39.0,0.0,4261.538574,4149.743652,4209.230957,4271.794922,4248.205078,0.0,4.0,77.0,,,,0.0,4.0,4.0,4.0,0.0,4.0,66.666664,,,,,,,,,,,,,,,,,,,,,,,,,,,,,,,,,,,,,,,,,,,,,,,,,,,,,,,,,,,,,,,,,,,,,,,,,,,,,,,,,,,,
14170,1645494624.8751152,1645494624.9003382,40.0,0.0,4275.384765999999,4161.025879,4207.179688,4271.794922,4252.820313,0.0,4.0,77.0,,,,0.0,4.0,4.0,4.0,0.0,4.0,66.666664,,,,,,,,20.0,0.0,0.483548,-0.23168899999999998,0.6191409999999999,0.5737300000000001,0.873549,-0.502937,-0.12060699999999999,-0.033543,-0.039385,-0.034354,,,,,,,,,,,,,,,,,,,,,,,,,,,,,,,,,,,0.0,0.0,1.0,0.0,128.0,1.0,,,,,,,,,,,,,,,,,,,,,,,,,
14171,1645494624.88293,1645494624.9081528,41.0,0.0,4247.692383,4206.666504,4215.384765999999,4271.794922,4264.615234000001,0.0,4.0,77.0,,,,0.0,4.0,4.0,4.0,0.0,4.0,66.666664,,,,,,,,,,,,,,,,,,,,,,,,,,,,,,,,,,,,,,,,,,,,,,,,,,,,,,,,,,,,,,,,,,,,,,,,,,,,,,,,,,,,
14172,1645494624.890745,1645494624.915967,42.0,0.0,4261.538574,4276.410156,4226.153809,4271.794922,4275.384765999999,0.0,4.0,77.0,,,,0.0,4.0,4.0,4.0,0.0,4.0,66.666664,,,,,,,,21.0,0.0,0.483548,-0.23168899999999998,0.6191409999999999,0.5737300000000001,0.870619,-0.495125,-0.12549000000000002,-0.033557,-0.039353,-0.029697,,,,,,,,,,,,,,,,,,,,,,,,,,,,,,,,,,,,,,,,,,,,,,,,,,,,,,,,,,,,,,,,,
14173,1645494624.89856,1645494624.923782,43.0,0.0,4315.897461,4311.794922,4225.641113000001,4271.794922,4272.307617,0.0,4.0,77.0,,,,0.0,4.0,4.0,4.0,0.0,4.0,66.666664,,,,,,,,,,,,,,,,,,,,,,,,,,,,,,,,,,,,,,,,,,,,,,,,,,,,,,,,,,,,,,,,,,,,,,,,,,,,,,,,,,,,
14174,1645494624.906375,1645494624.931597,44.0,0.0,4316.922852000001,4300.0,4221.025879,4271.794922,4272.820313,0.0,4.0,77.0,,,,0.0,4.0,4.0,4.0,0.0,4.0,66.666664,,,,,,,,22.0,0.0,0.483548,-0.23168899999999998,0.6191409999999999,0.5737300000000001,0.863294,-0.49659,-0.125978,-0.03362,-0.039226,-0.031757,,,,,,,,,,,,,,,,,,,,,,,,,,,,,,,,,,,0.0,0.0,1.0,0.0,128.0,1.0,,,,,,,,,,,,,,,,,,,,,,,,,
14175,1645494624.91419,1645494624.939411,45.0,0.0,4288.717772999999,4289.743652,4226.666504,4271.794922,4277.94873,0.0,4.0,77.0,,,,0.0,4.0,4.0,4.0,0.0,4.0,66.666664,,,,,,,,,,,,,,,,,,,,,,,,,,,,,,,,,,,,,,,,,,,,,,,,,,,,,,,,,,,,,,,,,,,,,,,,,,,,,,,,,,,,
14176,1645494624.9220052,1645494624.947126,46.0,0.0,4295.897461,4309.230957,4225.128418,4271.794922,4267.179688,0.0,4.0,77.0,,,,0.0,4.0,4.0,4.0,0.0,4.0,66.666664,,,,,,,,23.0,0.0,0.483548,-0.23168899999999998,0.6191409999999999,0.5737300000000001,0.863294,-0.49659,-0.12842,-0.03348,-0.039161,-0.027361,,,,,,,,,,,,,,,,,,,,,,,,,,,,,,,,,,,,,,,,,,,,,,,,,,,,,,,,,,,,,,,,,
14177,1645494624.9298198,1645494624.954941,47.0,0.0,4318.974121,4325.641113000001,4214.358886999999,4271.794922,4251.282227000001,0.0,4.0,77.0,,,,0.0,4.0,4.0,4.0,0.0,4.0,66.666664,,,,,,,,,,,,,,,,,,,,,,,,,,,,,,,,,,,,,,,,,,,,,,,,,,,,,,,,,,,,,,,,,,,,,,,,,,,,,,,,,,,,
14178,1645494624.937635,1645494624.962755,48.0,0.0,4321.538574,4308.205078,4215.384765999999,4271.794922,4258.974121,0.0,4.0,77.0,,,,0.0,4.0,4.0,4.0,0.0,4.0,66.666664,,,,,,,,24.0,0.0,0.48366400000000004,-0.23144499999999998,0.6191409999999999,0.5737300000000001,0.867201,-0.494148,-0.12451400000000001,-0.033502,-0.039151,-0.029654000000000003,1.0,0.0,0.0,,,,,,,,,,,,,,,,,,,,,,,,,,,,,,,,0.0,0.0,1.0,0.0,128.0,1.0,49.282215,12.06842,7.674361,2.939377,4.680058,71.850708,20.292576,9.029363,6.9923210000000005,1.576026,1.8506770000000001,0.902782,0.596092,0.531808,0.288429,0.035917000000000004,0.022099,0.014052,0.022663,0.013361000000000001,15.956741000000001,4.003835,1.591893,1.091085,1.102624
14179,1645494624.94545,1645494624.9705698,49.0,0.0,4294.358886999999,4316.410156,4213.846191,4271.794922,4263.077147999999,0.0,4.0,77.0,,,,0.0,4.0,4.0,4.0,0.0,4.0,66.666664,,,,,,,,,,,,,,,,,,,,,,,,,,,,,,,,,,,,,,,,,,,,,,,,,,,,,,,,,,,,,,,,,,,,,,,,,,,,,,,,,,,,
14180,1645494624.953265,1645494624.978385,50.0,0.0,4271.794922,4366.666504,4213.333496,4271.794922,4252.820313,0.0,4.0,77.0,,,,0.0,4.0,4.0,4.0,0.0,4.0,66.666664,,,,,,,,25.0,0.0,0.48366400000000004,-0.23144499999999998,0.6191409999999999,0.5737300000000001,0.875502,-0.497566,-0.135744,-0.033520999999999995,-0.039191000000000004,-0.031767000000000004,,,,,,,,,,,,,,,,,,,,,,,,,,,,,,,,,,,,,,,,,,,,,,,,,,,,,,,,,,,,,,,,,
14181,1645494624.96108,1645494624.9861991,51.0,0.0,4293.846191,4357.94873,4212.820313,4271.794922,4269.230957,0.0,4.0,77.0,,,,0.0,4.0,4.0,4.0,0.0,4.0,66.666664,,,,,,,,,,,,,,,,,,,,,,,,,,,,,,,,,,,,,,,,,,,,,,,,,,,,,,,,,,,,,,,,,,,,,,,,,,,,,,,,,,,,
14182,1645494624.968895,1645494624.994014,52.0,0.0,4324.102539,4315.897461,4210.769043,4271.794922,4287.179688,0.0,4.0,77.0,,,,0.0,4.0,4.0,4.0,0.0,4.0,66.666664,,,,,,,,26.0,0.0,0.48383699999999996,-0.23168899999999998,0.6191409999999999,0.5734859999999999,0.8681770000000001,-0.49121800000000004,-0.125002,-0.033538,-0.039227,-0.033668000000000003,,,,,,,,,,,,,,,,,,,,,,,,,,,,,,,,,,,0.0,0.0,1.0,0.0,128.0,1.0,,,,,,,,,,,,,,,,,,,,,,,,,
14183,1645494624.9767098,1645494625.001828,53.0,0.0,4301.025879,4317.94873,4194.871582,4271.794922,4269.743652,0.0,4.0,77.0,,,,0.0,4.0,4.0,4.0,0.0,4.0,66.666664,,,,,,,,,,,,,,,,,,,,,,,,,,,,,,,,,,,,,,,,,,,,,,,,,,,,,,,,,,,,,,,,,,,,,,,,,,,,,,,,,,,,
14184,1645494624.984525,1645494625.009643,54.0,0.0,4266.666504,4308.717772999999,4195.897461,4271.794922,4247.179688,0.0,4.0,77.0,,,,0.0,4.0,4.0,4.0,0.0,4.0,66.666664,,,,,,,,27.0,0.0,0.48383699999999996,-0.23168899999999998,0.6191409999999999,0.5734859999999999,0.878431,-0.484382,-0.137209,-0.033553,-0.039211,-0.035331,,,,,,,,,,,,,,,,,,,,,,,,,,,,,,,,,,,,,,,,,,,,,,,,,,,,,,,,,,,,,,,,,
14185,1645494624.9923391,1645494625.017358,55.0,0.0,4282.563965,4298.461426,4215.384765999999,4271.794922,4260.0,0.0,4.0,77.0,,,,0.0,4.0,4.0,4.0,0.0,4.0,66.666664,,,,,,,,,,,,,,,,,,,,,,,,,,,,,,,,,,,,,,,,,,,,,,,,,,,,,,,,,,,,,,,,,,,,,,,,,,,,,,,,,,,,
14186,1645494625.000155,1645494625.025173,56.0,0.0,4316.410156,4329.743652,4222.563965,4271.794922,4284.615234000001,0.0,4.0,77.0,,,,0.0,4.0,4.0,4.0,0.0,4.0,66.666664,,,,,,,,28.0,0.0,0.48383699999999996,-0.23168899999999998,0.6191409999999999,0.5734859999999999,0.8652479999999999,-0.47901099999999996,-0.124025,-0.033567,-0.039147,-0.030479000000000003,,,,,,,,,,,,,,,,,,,,,,,,,,,,,,,,,,,0.0,0.0,1.0,0.0,128.0,1.0,,,,,,,,,,,,,,,,,,,,,,,,,
14187,1645494625.0079699,1645494625.032887,57.0,0.0,4302.563965,4337.94873,4214.871582,4271.794922,4282.05127,0.0,4.0,77.0,,,,0.0,4.0,4.0,4.0,0.0,4.0,66.666664,,,,,,,,,,,,,,,,,,,,,,,,,,,,,,,,,,,,,,,,,,,,,,,,,,,,,,,,,,,,,,,,,,,,,,,,,,,,,,,,,,,,
14188,1645494625.015784,1645494625.0407019,58.0,0.0,4264.615234000001,4309.230957,4208.717772999999,4271.794922,4264.615234000001,0.0,4.0,77.0,,,,0.0,4.0,4.0,4.0,0.0,4.0,66.666664,,,,,,,,29.0,0.0,0.483548,-0.23168899999999998,0.6191409999999999,0.5737300000000001,0.854017,-0.490242,-0.129885,-0.03358,-0.03909,-0.032558,,,,,,,,,,,,,,,,,,,,,,,,,,,,,,,,,,,,,,,,,,,,,,,,,,,,,,,,,,,,,,,,,
14189,1645494625.0236,1645494625.048517,59.0,0.0,4276.922852000001,4311.282227000001,4210.769043,4271.794922,4255.384765999999,0.0,4.0,77.0,,,,0.0,4.0,4.0,4.0,0.0,4.0,66.666664,,,,,,,,,,,,,,,,,,,,,,,,,,,,,,,,,,,,,,,,,,,,,,,,,,,,,,,,,,,,,,,,,,,,,,,,,,,,,,,,,,,,
14190,1645494625.031414,1645494625.0563312,60.0,0.0,4311.794922,4342.563965,4211.794922,4271.794922,4261.538574,0.0,4.0,77.0,,,,0.0,4.0,4.0,4.0,0.0,4.0,66.666664,,,,,,,,30.0,0.0,0.483548,-0.23168899999999998,0.6191409999999999,0.5737300000000001,0.8608530000000001,-0.478523,-0.12451400000000001,-0.033591,-0.039136000000000004,-0.02818,,,,,,,,,,,,,,,,,,,,,,,,,,,,,,,,,,,0.0,0.0,1.0,0.0,128.0,1.0,,,,,,,,,,,,,,,,,,,,,,,,,
14191,1645494625.039229,1645494625.064146,61.0,0.0,4319.487305,4366.153809,4206.666504,4271.794922,4267.692383,0.0,4.0,77.0,,,,0.0,4.0,4.0,4.0,0.0,4.0,66.666664,,,,,,,,,,,,,,,,,,,,,,,,,,,,,,,,,,,,,,,,,,,,,,,,,,,,,,,,,,,,,,,,,,,,,,,,,,,,,,,,,,,,
14192,1645494625.047044,1645494625.07196,62.0,0.0,4320.0,4357.436035,4207.179688,4271.282227000001,4265.641113000001,0.0,4.0,77.0,,,,0.0,4.0,4.0,4.0,0.0,4.0,66.666664,,,,,,,,31.0,0.0,0.48386,-0.23168899999999998,0.618896,0.5737300000000001,0.8730600000000001,-0.474617,-0.128908,-0.033503,-0.039275,-0.03044,,,,,,,,,,,,,,,,,,,,,,,,,,,,,,,,,,,,,,,,,,,,,,,,,,,,,,,,,,,,,,,,,
14193,1645494625.054859,1645494625.079775,63.0,0.0,4321.025879,4316.410156,4205.641113000001,4271.282227000001,4268.205078,0.0,4.0,77.0,,,,0.0,4.0,4.0,4.0,0.0,4.0,66.666664,,,,,,,,,,,,,,,,,,,,,,,,,,,,,,,,,,,,,,,,,,,,,,,,,,,,,,,,,,,,,,,,,,,,,,,,,,,,,,,,,,,,
14194,1645494625.062674,1645494625.08759,64.0,0.0,4327.692383,4297.436035,4196.410156,4271.794922,4266.153809,450.0,4.0,77.0,,,,0.0,4.0,4.0,4.0,0.0,4.0,66.666664,0.972656,50.0,3.0,3.0,4.0,0.0,3.0,32.0,0.0,0.48386,-0.23168899999999998,0.618896,0.5737300000000001,0.8740370000000001,-0.500984,-0.11914200000000001,-0.033522,-0.039352,-0.032376,1.0,0.0,0.0,,,,,,,,,,,,,,,,,,,,,,,,,,,,,,,,0.0,0.0,1.0,0.0,128.0,1.0,28.793003000000002,7.510772,5.039668,2.4858919999999998,4.600617,71.90744000000001,17.706085,9.640044999999999,8.935606,1.564762,1.94239,1.039716,0.732362,0.510848,0.25907399999999997,0.023081,0.011948,0.009717,0.018476,0.010784,10.158839,3.040459,1.228054,0.979557,1.033816
14195,1645494625.0704892,1645494625.095305,65.0,0.0,4342.563965,4306.153809,4202.05127,4271.794922,4265.128418,450.0,4.0,77.0,,,,0.0,4.0,4.0,4.0,0.0,4.0,66.666664,,,,,,,,,,,,,,,,,,,,,,,,,,,,,,,,,,,,,,,,,,,,,,,,,,,,,,,,,,,,,,,,,,,,,,,,,,,,,,,,,,,,
14196,1645494625.0783038,1645494625.103119,66.0,0.0,4329.743652,4306.153809,4214.358886999999,4270.769043,4282.05127,16221.0,4.0,77.0,,,,0.0,4.0,4.0,4.0,0.0,4.0,66.666664,,,,,,,,33.0,0.0,0.483548,-0.23168899999999998,0.6191409999999999,0.5737300000000001,0.8750129999999999,-0.493172,-0.13916199999999998,-0.03349,-0.039323000000000004,-0.027819999999999998,,,,,,,,,,,,,,,,,,,,,,,,,,,,,,,,,,,,,,,,,,,,,,,,,,,,,,,,,,,,,,,,,
14197,1645494625.086119,1645494625.110934,67.0,0.0,4315.384765999999,4291.794922,4220.0,4274.358886999999,4296.410156,450.0,4.0,77.0,,,,0.0,4.0,4.0,4.0,0.0,4.0,66.666664,,,,,,,,,,,,,,,,,,,,,,,,,,,,,,,,,,,,,,,,,,,,,,,,,,,,,,,,,,,,,,,,,,,,,,,,,,,,,,,,,,,,
14198,1645494625.093934,1645494625.118748,68.0,0.0,4335.384765999999,4276.922852000001,4216.410156,4278.974121,4278.974121,16148.0,4.0,77.0,,,,0.0,4.0,4.0,4.0,0.0,4.0,66.666664,,,,,,,,34.0,0.0,0.48366400000000004,-0.23144499999999998,0.6191409999999999,0.5737300000000001,0.8676889999999999,-0.49073,-0.11718900000000002,-0.033413,-0.039199,-0.023866,,,,,,,,,,,,,,,,,,,,,,,,,,,,,,,,,,,0.0,0.0,1.0,0.0,128.0,1.0,,,,,,,,,,,,,,,,,,,,,,,,,
14199,1645494625.101749,1645494625.126563,69.0,0.0,4352.820313,4295.384765999999,4217.436035,4281.025879,4258.974121,450.0,4.0,77.0,,,,0.0,4.0,4.0,4.0,0.0,4.0,66.666664,,,,,,,,,,,,,,,,,,,,,,,,,,,,,,,,,,,,,,,,,,,,,,,,,,,,,,,,,,,,,,,,,,,,,,,,,,,,,,,,,,,,
14200,1645494625.109564,1645494625.134378,70.0,0.0,4337.436035,4311.794922,4217.436035,4279.487305,4289.230957,16113.0,4.0,77.0,,,,0.0,4.0,4.0,4.0,0.0,4.0,66.666664,,,,,,,,35.0,0.0,0.48386,-0.23168899999999998,0.618896,0.5737300000000001,0.8740370000000001,-0.500984,-0.11914200000000001,-0.033441000000000005,-0.039186,-0.020308,,,,,,,,,,,,,,,,,,,,,,,,,,,,,,,,,,,,,,,,,,,,,,,,,,,,,,,,,,,,,,,,,
14201,1645494625.117379,1645494625.142192,71.0,0.0,4309.743652,4285.128418,4221.025879,4273.333496,4312.820313,450.0,4.0,77.0,,,,0.0,4.0,4.0,4.0,0.0,4.0,66.666664,,,,,,,,,,,,,,,,,,,,,,,,,,,,,,,,,,,,,,,,,,,,,,,,,,,,,,,,,,,,,,,,,,,,,,,,,,,,,,,,,,,,
14202,1645494625.1251938,1645494625.150007,72.0,0.0,4297.436035,4264.615234000001,4208.717772999999,4268.205078,4273.333496,450.0,4.0,77.0,,,,0.0,4.0,4.0,4.0,0.0,4.0,66.666664,,,,,,,,36.0,0.0,0.48366400000000004,-0.23144499999999998,0.6191409999999999,0.5737300000000001,0.8676889999999999,-0.49073,-0.11718900000000002,-0.033368,-0.039076,-0.017105000000000002,,,,,,,,,,,,,,,,,,,,,,,,,,,,,,,,,,,0.0,0.0,1.0,0.0,128.0,1.0,,,,,,,,,,,,,,,,,,,,,,,,,
14203,1645494625.133009,1645494625.1578221,73.0,0.0,4306.153809,4280.512695,4196.922852000001,4271.282227000001,4238.461426,0.0,4.0,77.0,,,,0.0,4.0,4.0,4.0,0.0,4.0,66.666664,,,,,,,,,,,,,,,,,,,,,,,,,,,,,,,,,,,,,,,,,,,,,,,,,,,,,,,,,,,,,,,,,,,,,,,,,,,,,,,,,,,,
14204,1645494625.140824,1645494625.165536,74.0,0.0,4312.820313,4290.256348,4200.512695,4273.846191,4249.743652,450.0,4.0,77.0,,,,0.0,4.0,4.0,4.0,0.0,4.0,66.666664,,,,,,,,37.0,0.0,0.483548,-0.23168899999999998,0.6191409999999999,0.5737300000000001,0.8574350000000001,-0.492195,-0.126467,-0.033352,-0.039221,-0.020424,,,,,,,,,,,,,,,,,,,,,,,,,,,,,,,,,,,,,,,,,,,,,,,,,,,,,,,,,,,,,,,,,
14205,1645494625.148639,1645494625.173351,75.0,0.0,4301.538574,4256.410156,4200.0,4270.769043,4254.871582,16237.0,4.0,77.0,,,,0.0,4.0,4.0,4.0,0.0,4.0,66.666664,,,,,,,,,,,,,,,,,,,,,,,,,,,,,,,,,,,,,,,,,,,,,,,,,,,,,,,,,,,,,,,,,,,,,,,,,,,,,,,,,,,,
14206,1645494625.1564538,1645494625.181166,76.0,0.0,4289.230957,4231.794922,4198.461426,4270.769043,4248.717772999999,450.0,4.0,77.0,,,,0.0,4.0,4.0,4.0,0.0,4.0,66.666664,,,,,,,,38.0,0.0,0.48325799999999997,-0.23168899999999998,0.6191409999999999,0.573975,0.8691540000000001,-0.47901099999999996,-0.13916199999999998,-0.033386,-0.039254000000000004,-0.017259,,,,,,,,,,,,,,,,,,,,,,,,,,,,,,,,,,,0.0,0.0,1.0,0.0,128.0,1.0,,,,,,,,,,,,,,,,,,,,,,,,,
14207,1645494625.164269,1645494625.18898,77.0,0.0,4289.230957,4254.358886999999,4198.974121,4274.358886999999,4259.487305,450.0,4.0,77.0,,,,0.0,4.0,4.0,4.0,0.0,4.0,66.666664,,,,,,,,,,,,,,,,,,,,,,,,,,,,,,,,,,,,,,,,,,,,,,,,,,,,,,,,,,,,,,,,,,,,,,,,,,,,,,,,,,,,
14208,1645494625.172084,1645494625.196795,78.0,0.0,4307.179688,4284.615234000001,4198.461426,4272.820313,4255.897461,450.0,4.0,77.0,,,,0.0,4.0,4.0,4.0,0.0,4.0,66.666664,,,,,,,,39.0,0.0,0.48357,-0.23168899999999998,0.618896,0.573975,0.867201,-0.484871,-0.13379100000000002,-0.033464999999999995,-0.039186,-0.020464,,,,,,,,,,,,,,,,,,,,,,,,,,,,,,,,,,,,,,,,,,,,,,,,,,,,,,,,,,,,,,,,,
14209,1645494625.179899,1645494625.2046099,79.0,0.0,4344.102539,4285.128418,4204.102539,4270.256348,4247.179688,16237.0,4.0,77.0,,,,0.0,4.0,4.0,4.0,0.0,4.0,66.666664,,,,,,,,,,,,,,,,,,,,,,,,,,,,,,,,,,,,,,,,,,,,,,,,,,,,,,,,,,,,,,,,,,,,,,,,,,,,,,,,,,,,
14210,1645494625.187714,1645494625.212424,80.0,0.0,4346.666504,4267.179688,4210.256348,4274.358886999999,4252.820313,450.0,4.0,77.0,,,,0.0,4.0,4.0,4.0,0.0,4.0,66.666664,,,,,,,,40.0,0.0,0.48357,-0.23168899999999998,0.618896,0.573975,0.8803850000000001,-0.505867,-0.136233,-0.033389999999999996,-0.039125,-0.017246,1.0,0.0,0.0,,,,,,,,,,,,,,,,,,,,,,,,,,,,,,,,0.0,0.0,64.0,0.09185800000000001,1.0,0.0,14.501057000000001,4.754668,3.0182599999999997,2.0425419999999996,4.302862999999999,69.258965,13.800108999999999,10.150337,10.39484,1.757783,1.940694,1.1688379999999998,0.8718670000000001,0.488346,0.23518000000000003,0.0128,0.00507,0.005722,0.013116999999999998,0.007833,5.949589,2.9901240000000002,1.160896,0.8797649999999999,0.93789
14211,1645494625.195529,1645494625.2202392,81.0,0.0,4314.358886999999,4256.922852000001,4202.05127,4277.94873,4251.794922,450.0,4.0,77.0,,,,0.0,4.0,4.0,4.0,0.0,4.0,66.666664,,,,,,,,,,,,,,,,,,,,,,,,,,,,,,,,,,,,,,,,,,,,,,,,,,,,,,,,,,,,,,,,,,,,,,,,,,,,,,,,,,,,
14212,1645494625.2033439,1645494625.2280538,82.0,0.0,4318.461426,4250.769043,4202.05127,4271.794922,4261.538574,450.0,4.0,77.0,,,,0.0,4.0,4.0,4.0,0.0,4.0,66.666664,,,,,,,,41.0,0.0,0.48357,-0.23168899999999998,0.618896,0.573975,0.8813610000000001,-0.501961,-0.130373,-0.033469,-0.039168,-0.0206,,,,,,,,,,,,,,,,,,,,,,,,,,,,,,,,,,,,,,,,,,,,,,,,,,,,,,,,,,,,,,,,,
14213,1645494625.211158,1645494625.235868,83.0,0.0,4347.692383,4257.436035,4209.743652,4268.205078,4269.743652,16237.0,4.0,77.0,,,,0.0,4.0,4.0,4.0,0.0,4.0,66.666664,,,,,,,,,,,,,,,,,,,,,,,,,,,,,,,,,,,,,,,,,,,,,,,,,,,,,,,,,,,,,,,,,,,,,,,,,,,,,,,,,,,,
14214,1645494625.218974,1645494625.243583,84.0,0.0,4336.922852000001,4271.282227000001,4216.922852000001,4276.410156,4256.410156,450.0,4.0,77.0,,,,0.0,4.0,4.0,4.0,0.0,4.0,66.666664,,,,,,,,42.0,0.0,0.48325799999999997,-0.23168899999999998,0.6191409999999999,0.573975,0.863783,-0.48828900000000003,-0.12109600000000001,-0.03354,-0.039157,-0.023569,,,,,,,,,,,,,,,,,,,,,,,,,,,,,,,,,,,0.0,0.0,64.0,0.09185800000000001,1.0,0.0,,,,,,,,,,,,,,,,,,,,,,,,,
14215,1645494625.226788,1645494625.251398,85.0,0.0,4312.307617,4272.820313,4221.538574,4278.461426,4255.384765999999,450.0,4.0,77.0,,,,0.0,4.0,4.0,4.0,0.0,4.0,66.666664,,,,,,,,,,,,,,,,,,,,,,,,,,,,,,,,,,,,,,,,,,,,,,,,,,,,,,,,,,,,,,,,,,,,,,,,,,,,,,,,,,,,
14216,1645494625.234603,1645494625.259212,86.0,0.0,4332.820313,4269.230957,4220.512695,4270.769043,4267.179688,450.0,4.0,77.0,,,,0.0,4.0,4.0,4.0,0.0,4.0,66.666664,,,,,,,,43.0,0.0,0.48357,-0.23168899999999998,0.618896,0.573975,0.8803850000000001,-0.498054,-0.133303,-0.033652999999999995,-0.039148,-0.020040000000000002,,,,,,,,,,,,,,,,,,,,,,,,,,,,,,,,,,,,,,,,,,,,,,,,,,,,,,,,,,,,,,,,,
14217,1645494625.242418,1645494625.267027,87.0,0.0,4355.384765999999,4261.538574,4205.128418,4269.230957,4272.307617,16237.0,4.0,77.0,,,,0.0,4.0,4.0,4.0,0.0,4.0,66.666664,,,,,,,,,,,,,,,,,,,,,,,,,,,,,,,,,,,,,,,,,,,,,,,,,,,,,,,,,,,,,,,,,,,,,,,,,,,,,,,,,,,,
14218,1645494625.250233,1645494625.274842,88.0,0.0,4342.05127,4252.820313,4209.743652,4275.384765999999,4277.94873,450.0,4.0,77.0,,,,0.0,4.0,4.0,4.0,0.0,4.0,66.666664,,,,,,,,44.0,0.0,0.48325799999999997,-0.23168899999999998,0.6191409999999999,0.573975,0.863783,-0.494148,-0.12060699999999999,-0.033511,-0.039286,-0.016962,,,,,,,,,,,,,,,,,,,,,,,,,,,,,,,,,,,0.0,0.0,64.0,0.09185800000000001,1.0,0.0,,,,,,,,,,,,,,,,,,,,,,,,,
14219,1645494625.258048,1645494625.282656,89.0,0.0,4325.128418,4255.897461,4222.05127,4281.538574,4278.974121,450.0,4.0,77.0,,,,0.0,4.0,4.0,4.0,0.0,4.0,66.666664,,,,,,,,,,,,,,,,,,,,,,,,,,,,,,,,,,,,,,,,,,,,,,,,,,,,,,,,,,,,,,,,,,,,,,,,,,,,,,,,,,,,
14220,1645494625.2658632,1645494625.290471,90.0,0.0,4322.563965,4262.05127,4214.871582,4280.512695,4275.384765999999,450.0,4.0,77.0,,,,0.0,4.0,4.0,4.0,0.0,4.0,66.666664,,,,,,,,45.0,0.0,0.48325799999999997,-0.23168899999999998,0.6191409999999999,0.573975,0.875502,-0.49170699999999995,-0.13135,-0.03348,-0.039312,-0.020295,,,,,,,,,,,,,,,,,,,,,,,,,,,,,,,,,,,,,,,,,,,,,,,,,,,,,,,,,,,,,,,,,
14221,1645494625.2736778,1645494625.298286,91.0,0.0,4322.563965,4243.589844,4205.641113000001,4272.820313,4281.025879,16237.0,4.0,77.0,,,,0.0,4.0,4.0,4.0,0.0,4.0,66.666664,,,,,,,,,,,,,,,,,,,,,,,,,,,,,,,,,,,,,,,,,,,,,,,,,,,,,,,,,,,,,,,,,,,,,,,,,,,,,,,,,,,,
14222,1645494625.281493,1645494625.3061,92.0,0.0,4310.256348,4240.0,4215.384765999999,4274.358886999999,4267.179688,450.0,4.0,77.0,,,,0.0,4.0,4.0,4.0,0.0,4.0,66.666664,,,,,,,,46.0,0.0,0.48345299999999997,-0.231934,0.618896,0.573975,0.866224,-0.484382,-0.118654,-0.033500999999999996,-0.039385,-0.023344,,,,,,,,,,,,,,,,,,,,,,,,,,,,,,,,,,,0.0,0.0,64.0,0.09185800000000001,1.0,0.0,,,,,,,,,,,,,,,,,,,,,,,,,
14223,1645494625.289308,1645494625.313815,93.0,0.0,4302.05127,4273.846191,4221.025879,4279.487305,4242.563965,450.0,4.0,77.0,,,,0.0,4.0,4.0,4.0,0.0,4.0,66.666664,,,,,,,,,,,,,,,,,,,,,,,,,,,,,,,,,,,,,,,,,,,,,,,,,,,,,,,,,,,,,,,,,,,,,,,,,,,,,,,,,,,,
14224,1645494625.297123,1645494625.32163,94.0,0.0,4324.102539,4272.820313,4205.128418,4273.333496,4258.461426,450.0,4.0,77.0,,,,0.0,4.0,4.0,4.0,0.0,4.0,66.666664,,,,,,,,47.0,0.0,0.48357,-0.23168899999999998,0.618896,0.573975,0.8652479999999999,-0.49659,-0.123537,-0.03352,-0.039451,-0.019788999999999998,,,,,,,,,,,,,,,,,,,,,,,,,,,,,,,,,,,,,,,,,,,,,,,,,,,,,,,,,,,,,,,,,
14225,1645494625.304938,1645494625.329444,95.0,0.0,4350.769043,4225.128418,4208.717772999999,4267.179688,4281.538574,16237.0,4.0,77.0,,,,0.0,4.0,4.0,4.0,0.0,4.0,66.666664,,,,,,,,,,,,,,,,,,,,,,,,,,,,,,,,,,,,,,,,,,,,,,,,,,,,,,,,,,,,,,,,,,,,,,,,,,,,,,,,,,,,
14226,1645494625.312753,1645494625.337259,96.0,0.0,4353.846191,4216.410156,4231.794922,4272.820313,4269.230957,450.0,4.0,77.0,,,,0.0,4.0,4.0,4.0,0.0,4.0,66.666664,,,,,,,,48.0,0.0,0.48357,-0.23168899999999998,0.618896,0.573975,0.866712,-0.492195,-0.125978,-0.033586000000000005,-0.039461,-0.016589,1.0,0.0,0.0,,,,,,,,,,,,,,,,,,,,,,,,,,,,,,,,0.0,0.0,64.0,0.153363,1.0,0.0,7.067335000000001,4.116725,1.9650299999999998,1.6919330000000001,3.896926,65.5037,9.795444999999999,10.656867,10.909311,2.053049,1.8465610000000001,1.275951,0.9688370000000001,0.468466,0.221691,0.006667,0.002109,0.003121,0.007962,0.004899000000000001,3.5578790000000002,3.8293760000000003,1.441337,0.805519,0.8487309999999999
14227,1645494625.320568,1645494625.345074,97.0,0.0,4346.153809,4246.153809,4232.820313,4277.94873,4253.846191,450.0,4.0,77.0,,,,0.0,4.0,4.0,4.0,0.0,4.0,66.666664,,,,,,,,,,,,,,,,,,,,,,,,,,,,,,,,,,,,,,,,,,,,,,,,,,,,,,,,,,,,,,,,,,,,,,,,,,,,,,,,,,,,
14228,1645494625.328383,1645494625.352888,98.0,0.0,4344.102539,4264.615234000001,4216.922852000001,4275.897461,4259.487305,450.0,4.0,77.0,,,,0.0,4.0,4.0,4.0,0.0,4.0,66.666664,,,,,,,,49.0,0.0,0.483375,-0.23144499999999998,0.6191409999999999,0.573975,0.8725719999999999,-0.484871,-0.114748,-0.033499,-0.039518,-0.019862,,,,,,,,,,,,,,,,,,,,,,,,,,,,,,,,,,,,,,,,,,,,,,,,,,,,,,,,,,,,,,,,,
14229,1645494625.336198,1645494625.360703,99.0,0.0,4349.743652,4267.179688,4220.0,4274.871582,4270.256348,16237.0,4.0,77.0,,,,0.0,4.0,4.0,4.0,0.0,4.0,66.666664,,,,,,,,,,,,,,,,,,,,,,,,,,,,,,,,,,,,,,,,,,,,,,,,,,,,,,,,,,,,,,,,,,,,,,,,,,,,,,,,,,,,
14230,1645494625.344013,1645494625.368517,100.0,0.0,4362.05127,4250.256348,4218.461426,4278.461426,4269.230957,450.0,4.0,77.0,,,,0.0,4.0,4.0,4.0,0.0,4.0,66.666664,,,,,,,,50.0,0.0,0.483375,-0.23144499999999998,0.6191409999999999,0.573975,0.867201,-0.48926499999999995,-0.123049,-0.033567,-0.039424,-0.022954,,,,,,,,,,,,,,,,,,,,,,,,,,,,,,,,,,,0.0,0.0,64.0,0.153363,1.0,0.0,,,,,,,,,,,,,,,,,,,,,,,,,
14231,1645494625.3518279,1645494625.376332,101.0,0.0,4362.563965,4218.461426,4212.820313,4280.512695,4269.743652,450.0,4.0,77.0,,,,0.0,4.0,4.0,4.0,0.0,4.0,66.666664,,,,,,,,,,,,,,,,,,,,,,,,,,,,,,,,,,,,,,,,,,,,,,,,,,,,,,,,,,,,,,,,,,,,,,,,,,,,,,,,,,,,
14232,1645494625.359643,1645494625.384047,102.0,0.0,4337.436035,4188.205078,4209.230957,4275.384765999999,4278.974121,450.0,4.0,77.0,,,,0.0,4.0,4.0,4.0,0.0,4.0,66.666664,,,,,,,,51.0,0.0,0.48349200000000003,-0.23120100000000002,0.6191409999999999,0.573975,0.876967,-0.489754,-0.13086099999999998,-0.03358,-0.039339,-0.019487,,,,,,,,,,,,,,,,,,,,,,,,,,,,,,,,,,,,,,,,,,,,,,,,,,,,,,,,,,,,,,,,,
14233,1645494625.367458,1645494625.391861,103.0,0.0,4318.461426,4163.589844,4210.769043,4270.769043,4278.461426,16237.0,4.0,77.0,,,,0.0,4.0,4.0,4.0,0.0,4.0,66.666664,,,,,,,,,,,,,,,,,,,,,,,,,,,,,,,,,,,,,,,,,,,,,,,,,,,,,,,,,,,,,,,,,,,,,,,,,,,,,,,,,,,,
14234,1645494625.375273,1645494625.399676,104.0,0.0,4326.153809,4142.05127,4212.820313,4271.794922,4279.487305,450.0,4.0,77.0,,,,0.0,4.0,4.0,4.0,0.0,4.0,66.666664,,,,,,,,52.0,0.0,0.48349200000000003,-0.23120100000000002,0.6191409999999999,0.573975,0.8808729999999999,-0.500008,-0.122072,-0.033639999999999996,-0.039458,-0.022567,,,,,,,,,,,,,,,,,,,,,,,,,,,,,,,,,,,0.0,0.0,64.0,0.153363,1.0,0.0,,,,,,,,,,,,,,,,,,,,,,,,,
14235,1645494625.383088,1645494625.407491,105.0,0.0,4336.410156,4148.205078,4221.025879,4272.307617,4290.769043,450.0,4.0,77.0,,,,0.0,4.0,4.0,4.0,0.0,4.0,66.666664,,,,,,,,,,,,,,,,,,,,,,,,,,,,,,,,,,,,,,,,,,,,,,,,,,,,,,,,,,,,,,,,,,,,,,,,,,,,,,,,,,,,
14236,1645494625.390903,1645494625.4153051,106.0,0.0,4339.487305,4170.256348,4223.589844,4272.307617,4291.794922,450.0,4.0,77.0,,,,0.0,4.0,4.0,4.0,0.0,4.0,66.666664,,,,,,,,53.0,0.0,0.483921,-0.23095700000000002,0.618896,0.573975,0.8676889999999999,-0.489754,-0.12109600000000001,-0.033694,-0.039419,-0.025389,,,,,,,,,,,,,,,,,,,,,,,,,,,,,,,,,,,,,,,,,,,,,,,,,,,,,,,,,,,,,,,,,
14237,1645494625.3987179,1645494625.42312,107.0,0.0,4341.538574,4157.436035,4216.922852000001,4273.333496,4287.179688,16237.0,4.0,77.0,,,,0.0,4.0,4.0,4.0,0.0,4.0,66.666664,,,,,,,,,,,,,,,,,,,,,,,,,,,,,,,,,,,,,,,,,,,,,,,,,,,,,,,,,,,,,,,,,,,,,,,,,,,,,,,,,,,,
14238,1645494625.406532,1645494625.430935,108.0,0.0,4327.692383,4131.794922,4211.794922,4272.307617,4277.94873,450.0,4.0,77.0,,,,0.0,4.0,4.0,4.0,0.0,4.0,66.666664,,,,,,,,54.0,0.0,0.483921,-0.23095700000000002,0.618896,0.573975,0.869642,-0.48389399999999994,-0.125002,-0.033596,-0.039432,-0.027831,,,,,,,,,,,,,,,,,,,,,,,,,,,,,,,,,,,0.0,0.0,64.0,0.153363,1.0,0.0,,,,,,,,,,,,,,,,,,,,,,,,,
14239,1645494625.4143481,1645494625.438749,109.0,0.0,4301.538574,4131.794922,4218.974121,4271.794922,4255.384765999999,450.0,4.0,77.0,,,,0.0,4.0,4.0,4.0,0.0,4.0,66.666664,,,,,,,,,,,,,,,,,,,,,,,,,,,,,,,,,,,,,,,,,,,,,,,,,,,,,,,,,,,,,,,,,,,,,,,,,,,,,,,,,,,,
14240,1645494625.4221618,1645494625.446564,110.0,0.0,4321.025879,4145.641113000001,4233.333496,4276.922852000001,4255.897461,450.0,4.0,77.0,,,,0.0,4.0,4.0,4.0,0.0,4.0,66.666664,,,,,,,,55.0,0.0,0.483921,-0.23095700000000002,0.618896,0.573975,0.8750129999999999,-0.488777,-0.121584,-0.033557,-0.039444,-0.030174,,,,,,,,,,,,,,,,,,,,,,,,,,,,,,,,,,,,,,,,,,,,,,,,,,,,,,,,,,,,,,,,,
14241,1645494625.429977,1645494625.4543788,111.0,0.0,4353.333496,4155.384765999999,4222.05127,4278.974121,4281.025879,16237.0,4.0,77.0,,,,0.0,4.0,4.0,4.0,0.0,4.0,66.666664,,,,,,,,,,,,,,,,,,,,,,,,,,,,,,,,,,,,,,,,,,,,,,,,,,,,,,,,,,,,,,,,,,,,,,,,,,,,,,,,,,,,
14242,1645494625.437792,1645494625.4620929,112.0,0.0,4323.589844,4167.179688,4205.128418,4275.384765999999,4267.692383,450.0,4.0,77.0,,,,0.0,4.0,4.0,4.0,0.0,4.0,66.666664,,,,,,,,56.0,0.0,0.483921,-0.23095700000000002,0.618896,0.573975,0.866224,-0.48535900000000004,-0.137697,-0.033520999999999995,-0.039552,-0.032235,1.0,0.0,0.0,,,,,,,,,,,,,,,,,,,,,,,,,,,,,,,,0.0,0.0,1.0,0.0,1.0,0.0,4.501725,4.944171,1.728663,1.450439,3.5167379999999997,64.59992199999999,6.826957000000001,11.224917,10.320977000000001,2.355346,1.694451,1.364349,0.9970459999999999,0.448908,0.218811,0.005183,0.0033229999999999996,0.003319,0.005123,0.003171,2.413045,5.117557,1.930885,0.768933,0.804713
14243,1645494625.445607,1645494625.469908,113.0,0.0,4297.94873,4183.077147999999,4211.282227000001,4274.871582,4239.487305,450.0,4.0,77.0,,,,0.0,4.0,4.0,4.0,0.0,4.0,66.666664,,,,,,,,,,,,,,,,,,,,,,,,,,,,,,,,,,,,,,,,,,,,,,,,,,,,,,,,,,,,,,,,,,,,,,,,,,,,,,,,,,,,
14244,1645494625.453422,1645494625.4777231,114.0,0.0,4333.333496,4177.436035,4216.410156,4273.846191,4256.410156,450.0,4.0,77.0,,,,0.0,4.0,4.0,4.0,0.0,4.0,66.666664,,,,,,,,57.0,0.0,0.483921,-0.23095700000000002,0.618896,0.573975,0.864759,-0.49463599999999996,-0.13135,-0.033441000000000005,-0.039552,-0.027839999999999997,,,,,,,,,,,,,,,,,,,,,,,,,,,,,,,,,,,,,,,,,,,,,,,,,,,,,,,,,,,,,,,,,
14245,1645494625.461237,1645494625.4855368,115.0,0.0,4363.077147999999,4146.153809,4203.589844,4270.256348,4275.384765999999,16237.0,4.0,77.0,,,,0.0,4.0,4.0,4.0,0.0,4.0,66.666664,,,,,,,,,,,,,,,,,,,,,,,,,,,,,,,,,,,,,,,,,,,,,,,,,,,,,,,,,,,,,,,,,,,,,,,,,,,,,,,,,,,,
14246,1645494625.4690518,1645494625.493352,116.0,0.0,4358.974121,4124.102539,4210.256348,4275.897461,4274.871582,450.0,4.0,77.0,,,,0.0,4.0,4.0,4.0,0.0,4.0,66.666664,,,,,,,,58.0,0.0,0.483725,-0.230713,0.6191409999999999,0.573975,0.8803850000000001,-0.48828900000000003,-0.121584,-0.033466,-0.039454,-0.029988,,,,,,,,,,,,,,,,,,,,,,,,,,,,,,,,,,,0.0,0.0,1.0,0.0,1.0,0.0,,,,,,,,,,,,,,,,,,,,,,,,,
14247,1645494625.476867,1645494625.501167,117.0,0.0,4351.282227000001,4140.512695,4225.128418,4282.05127,4268.717772999999,450.0,4.0,77.0,,,,0.0,4.0,4.0,4.0,0.0,4.0,66.666664,,,,,,,,,,,,,,,,,,,,,,,,,,,,,,,,,,,,,,,,,,,,,,,,,,,,,,,,,,,,,,,,,,,,,,,,,,,,,,,,,,,,
14248,1645494625.484682,1645494625.508981,118.0,0.0,4338.461426,4149.743652,4221.538574,4273.846191,4265.641113000001,450.0,4.0,77.0,,,,0.0,4.0,4.0,4.0,0.0,4.0,66.666664,,,,,,,,59.0,0.0,0.483725,-0.230713,0.6191409999999999,0.573975,0.8774549999999999,-0.492683,-0.138186,-0.033391000000000004,-0.039464,-0.025866000000000004,,,,,,,,,,,,,,,,,,,,,,,,,,,,,,,,,,,,,,,,,,,,,,,,,,,,,,,,,,,,,,,,,
14249,1645494625.492497,1645494625.516796,119.0,0.0,4330.256348,4108.205078,4211.794922,4266.666504,4274.358886999999,16237.0,4.0,77.0,,,,0.0,4.0,4.0,4.0,0.0,4.0,66.666664,,,,,,,,,,,,,,,,,,,,,,,,,,,,,,,,,,,,,,,,,,,,,,,,,,,,,,,,,,,,,,,,,,,,,,,,,,,,,,,,,,,,
14250,1645494625.5003119,1645494625.524611,120.0,0.0,4340.512695,4083.5898439999996,4220.512695,4274.358886999999,4271.794922,450.0,4.0,77.0,,,,0.0,4.0,4.0,4.0,0.0,4.0,66.666664,,,,,,,,60.0,0.0,0.483725,-0.230713,0.6191409999999999,0.573975,0.8686659999999999,-0.498054,-0.13135,-0.033323,-0.039473,-0.028406,,,,,,,,,,,,,,,,,,,,,,,,,,,,,,,,,,,0.0,0.0,1.0,0.0,1.0,0.0,,,,,,,,,,,,,,,,,,,,,,,,,
14251,1645494625.508127,1645494625.532325,121.0,0.0,4329.743652,4102.563965,4226.153809,4280.512695,4261.538574,450.0,4.0,77.0,,,,0.0,4.0,4.0,4.0,0.0,4.0,66.666664,,,,,,,,,,,,,,,,,,,,,,,,,,,,,,,,,,,,,,,,,,,,,,,,,,,,,,,,,,,,,,,,,,,,,,,,,,,,,,,,,,,,
14252,1645494625.515942,1645494625.5401402,122.0,0.0,4311.794922,4095.384521,4225.641113000001,4273.846191,4267.692383,450.0,4.0,77.0,,,,0.0,4.0,4.0,4.0,0.0,4.0,66.666664,,,,,,,,61.0,0.0,0.483921,-0.23095700000000002,0.618896,0.573975,0.8740370000000001,-0.49951899999999994,-0.123537,-0.033408999999999994,-0.039432,-0.024247,,,,,,,,,,,,,,,,,,,,,,,,,,,,,,,,,,,,,,,,,,,,,,,,,,,,,,,,,,,,,,,,,
14253,1645494625.523757,1645494625.547955,123.0,0.0,4317.436035,4071.281982,4225.128418,4268.717772999999,4265.128418,16237.0,4.0,77.0,,,,0.0,4.0,4.0,4.0,0.0,4.0,66.666664,,,,,,,,,,,,,,,,,,,,,,,,,,,,,,,,,,,,,,,,,,,,,,,,,,,,,,,,,,,,,,,,,,,,,,,,,,,,,,,,,,,,
14254,1645494625.531572,1645494625.555769,124.0,0.0,4310.769043,4084.102539,4218.974121,4272.820313,4245.641113000001,450.0,4.0,77.0,,,,0.0,4.0,4.0,4.0,0.0,4.0,66.666664,,,,,,,,62.0,0.0,0.483921,-0.23095700000000002,0.618896,0.573975,0.867201,-0.500008,-0.13135,-0.033486,-0.039444,-0.026802999999999997,,,,,,,,,,,,,,,,,,,,,,,,,,,,,,,,,,,0.0,0.0,1.0,0.0,1.0,0.0,,,,,,,,,,,,,,,,,,,,,,,,,
14255,1645494625.539387,1645494625.563584,125.0,0.0,4294.871582,4103.589844,4205.128418,4273.846191,4248.205078,450.0,4.0,77.0,,,,0.0,4.0,4.0,4.0,0.0,4.0,66.666664,,,,,,,,,,,,,,,,,,,,,,,,,,,,,,,,,,,,,,,,,,,,,,,,,,,,,,,,,,,,,,,,,,,,,,,,,,,,,,,,,,,,
14256,1645494625.5472019,1645494625.571399,126.0,0.0,4295.384765999999,4097.436035,4202.05127,4270.769043,4257.94873,450.0,4.0,77.0,,,,0.0,4.0,4.0,4.0,0.0,4.0,66.666664,,,,,,,,63.0,0.0,0.483725,-0.230713,0.6191409999999999,0.573975,0.8686659999999999,-0.498054,-0.13135,-0.033507,-0.039455000000000004,-0.023,,,,,,,,,,,,,,,,,,,,,,,,,,,,,,,,,,,,,,,,,,,,,,,,,,,,,,,,,,,,,,,,,
14257,1645494625.555017,1645494625.5792131,127.0,0.0,4318.974121,4106.666504,4213.846191,4274.358886999999,4253.846191,239.0,4.0,77.0,,,,0.0,4.0,4.0,4.0,0.0,4.0,66.666664,,,,,,,,,,,,,,,,,,,,,,,,,,,,,,,,,,,,,,,,,,,,,,,,,,,,,,,,,,,,,,,,,,,,,,,,,,,,,,,,,,,,
14258,1645494625.562832,1645494625.587028,0.0,0.0,4335.384765999999,4142.563965,4214.871582,4281.025879,4269.230957,450.0,4.0,77.0,,,,0.0,4.0,4.0,4.0,0.0,4.0,66.666664,1.0,50.0,3.0,3.0,4.0,0.0,4.0,0.0,0.0,0.483921,-0.23095700000000002,0.618896,0.573975,0.867201,-0.500008,-0.13135,-0.033574,-0.039464,-0.02568,1.0,0.0,0.0,,,,,,,,,,,,,,,,,,,,,,,,,,,,,,,,0.0,0.0,1.0,0.0,1.0,0.0,3.9266339999999995,6.138139,1.9010209999999998,1.298071,3.253272,67.439697,5.3209029999999995,11.72659,8.864971,2.60512,1.535431,1.442377,0.9532889999999999,0.423857,0.224913,0.008578,0.009323999999999999,0.008468999999999999,0.0062640000000000005,0.004545,1.777995,6.246125,2.390838,0.769829,0.8292930000000001
14259,1645494625.570647,1645494625.594842,1.0,0.0,4335.897461,4171.282227000001,4208.205078,4280.512695,4284.102539,450.0,4.0,77.0,,,,0.0,4.0,4.0,4.0,0.0,4.0,66.666664,,,,,,,,,,,,,,,,,,,,,,,,,,,,,,,,,,,,,,,,,,,,,,,,,,,,,,,,,,,,,,,,,,,,,,,,,,,,,,,,,,,,
14260,1645494625.578462,1645494625.602657,2.0,0.0,4346.666504,4166.666504,4214.358886999999,4276.922852000001,4262.563965,16235.0,4.0,77.0,,,,0.0,4.0,4.0,4.0,0.0,4.0,66.666664,,,,,,,,1.0,0.0,0.48363100000000003,-0.23095700000000002,0.618896,0.5742189999999999,0.861341,-0.492195,-0.145022,-0.033586000000000005,-0.039473,-0.021988999999999998,,,,,,,,,,,,,,,,,,,,,,,,,,,,,,,,,,,,,,,,,,,,,,,,,,,,,,,,,,,,,,,,,
14261,1645494625.586277,1645494625.610372,3.0,0.0,4357.94873,4133.333496,4224.102539,4276.410156,4252.307617,450.0,4.0,77.0,,,,0.0,4.0,4.0,4.0,0.0,4.0,66.666664,,,,,,,,,,,,,,,,,,,,,,,,,,,,,,,,,,,,,,,,,,,,,,,,,,,,,,,,,,,,,,,,,,,,,,,,,,,,,,,,,,,,
