,Timestamp,OriginalTimestamp,EEG.Counter,EEG.Interpolated,EEG.AF3,EEG.T7,EEG.Pz,EEG.T8,EEG.AF4,EEG.RawCq,EEG.Battery,EEG.BatteryPercent,MarkerIndex,MarkerType,MarkerValueInt,EEG.MarkerHardware,CQ.AF3,CQ.T7,CQ.Pz,CQ.T8,CQ.AF4,CQ.Overall,EQ.SampleRateQuality,EQ.OVERALL,EQ.AF3,EQ.T7,EQ.Pz,EQ.T8,EQ.AF4,MOT.CounterMems,MOT.InterpolatedMems,MOT.Q0,MOT.Q1,MOT.Q2,MOT.Q3,MOT.AccX,MOT.AccY,MOT.AccZ,MOT.MagX,MOT.MagY,MOT.MagZ,MC.Action,MC.ActionPower,MC.IsActive,PM.Engagement.IsActive,PM.Engagement.Scaled,PM.Engagement.Raw,PM.Engagement.Min,PM.Engagement.Max,PM.Excitement.IsActive,PM.Excitement.Scaled,PM.Excitement.Raw,PM.Excitement.Min,PM.Excitement.Max,PM.LongTermExcitement,PM.Stress.IsActive,PM.Stress.Scaled,PM.Stress.Raw,PM.Stress.Min,PM.Stress.Max,PM.Relaxation.IsActive,PM.Relaxation.Scaled,PM.Relaxation.Raw,PM.Relaxation.Min,PM.Relaxation.Max,PM.Interest.IsActive,PM.Interest.Scaled,PM.Interest.Raw,PM.Interest.Min,PM.Interest.Max,PM.Focus.IsActive,PM.Focus.Scaled,PM.Focus.Raw,PM.Focus.Min,PM.Focus.Max,FE.BlinkWink,FE.HorizontalEyesDirection,FE.UpperFaceAction,FE.UpperFaceActionPower,FE.LowerFaceAction,FE.LowerFaceActionPower,POW.AF3.Theta,POW.AF3.Alpha,POW.AF3.BetaL,POW.AF3.BetaH,POW.AF3.Gamma,POW.T7.Theta,POW.T7.Alpha,POW.T7.BetaL,POW.T7.BetaH,POW.T7.Gamma,POW.Pz.Theta,POW.Pz.Alpha,POW.Pz.BetaL,POW.Pz.BetaH,POW.Pz.Gamma,POW.T8.Theta,POW.T8.Alpha,POW.T8.BetaL,POW.T8.BetaH,POW.T8.Gamma,POW.AF4.Theta,POW.AF4.Alpha,POW.AF4.BetaL,POW.AF4.BetaH,POW.AF4.Gamma
20376,1650406462.492456,1650406462.531476,107.0,0.0,4665.641113000001,5181.025879,4393.846191,4327.179688,4671.282227000001,0.0,4.0,91.0,,,,0.0,0.0,0.0,0.0,0.0,0.0,0.0,,,,,,,,,,,,,,,,,,,,,,,,,,,,,,,,,,,,,,,,,,,,,,,,,,,,,,,,,,,,,,,,,,,,,,,,,,,,,,,,,,,,
20377,1650406462.50027,1650406462.53919,108.0,0.0,4849.230957,4743.077147999999,4534.871582,4311.794922,4669.743652,450.0,4.0,91.0,,,,0.0,0.0,0.0,0.0,0.0,0.0,0.0,,,,,,,,54.0,0.0,0.676322,0.583496,0.35498,-0.275879,0.794446,-0.585946,-0.07470800000000001,-0.015937,-0.050789,-0.016030000000000003,,,,,,,,,,,,,,,,,,,,,,,,,,,,,,,,,,,0.0,0.0,32.0,0.018109,1.0,0.0,,,,,,,,,,,,,,,,,,,,,,,,,
20378,1650406462.508085,1650406462.547004,109.0,0.0,4874.358886999999,4560.0,4418.461426,4298.461426,4629.743652,450.0,4.0,91.0,,,,0.0,0.0,0.0,0.0,0.0,0.0,0.0,,,,,,,,,,,,,,,,,,,,,,,,,,,,,,,,,,,,,,,,,,,,,,,,,,,,,,,,,,,,,,,,,,,,,,,,,,,,,,,,,,,,
20379,1650406462.5159,1650406462.554718,110.0,0.0,4686.666504,4683.589844,4173.846191,4312.820313,4564.615234000001,450.0,4.0,91.0,,,,0.0,0.0,0.0,0.0,0.0,0.0,0.0,,,,,,,,55.0,0.0,0.676595,0.5837399999999999,0.354248,-0.27563499999999996,0.816419,-0.60206,-0.069337,-0.016638,-0.050789,-0.013841,,,,,,,,,,,,,,,,,,,,,,,,,,,,,,,,,,,,,,,,,,,,,,,,,,,,,,,,,,,,,,,,,
20380,1650406462.523714,1650406462.562532,111.0,0.0,4572.307617,4795.384765999999,4258.461426,4330.769043,4570.769043,0.0,4.0,91.0,,,,0.0,0.0,0.0,0.0,0.0,0.0,0.0,,,,,,,,,,,,,,,,,,,,,,,,,,,,,,,,,,,,,,,,,,,,,,,,,,,,,,,,,,,,,,,,,,,,,,,,,,,,,,,,,,,,
20381,1650406462.531529,1650406462.5702472,112.0,0.0,4732.307617,4863.077147999999,4594.871582,4311.282227000001,4670.256348,450.0,4.0,91.0,,,,0.0,0.0,0.0,0.0,0.0,0.0,0.0,,,,,,,,56.0,0.0,0.676385,0.5839840000000001,0.354248,-0.27563499999999996,0.818372,-0.5942470000000001,-0.075196,-0.015707,-0.050788,-0.014899,,,,,,,,,,,,,,,,,,,,,,,,,,,,,,,,,,,0.0,0.0,32.0,0.018109,1.0,0.0,,,,,,,,,,,,,,,,,,,,,,,,,
20382,1650406462.5393429,1650406462.577961,113.0,0.0,4815.897461,4690.769043,4464.102539,4289.230957,4652.307617,450.0,4.0,91.0,,,,0.0,0.0,0.0,0.0,0.0,0.0,0.0,,,,,,,,,,,,,,,,,,,,,,,,,,,,,,,,,,,,,,,,,,,,,,,,,,,,,,,,,,,,,,,,,,,,,,,,,,,,,,,,,,,,
20383,1650406462.547158,1650406462.585775,114.0,0.0,4611.794922,4766.666504,3920.0,4302.563965,4614.871582,450.0,4.0,91.0,,,,0.0,0.0,0.0,0.0,0.0,0.0,0.0,,,,,,,,57.0,0.0,0.676484,0.5839840000000001,0.354248,-0.275391,0.8047,-0.599619,-0.06836,-0.01648,-0.050787,-0.01292,,,,,,,,,,,,,,,,,,,,,,,,,,,,,,,,,,,,,,,,,,,,,,,,,,,,,,,,,,,,,,,,,
20384,1650406462.5549722,1650406462.5934892,115.0,0.0,4450.769043,5217.94873,3934.358887,4312.307617,4657.94873,0.0,4.0,91.0,,,,0.0,0.0,0.0,0.0,0.0,0.0,0.0,,,,,,,,,,,,,,,,,,,,,,,,,,,,,,,,,,,,,,,,,,,,,,,,,,,,,,,,,,,,,,,,,,,,,,,,,,,,,,,,,,,,
20385,1650406462.5627868,1650406462.6013038,116.0,0.0,4513.333496,5013.846191,4297.94873,4301.538574,4621.025879,450.0,4.0,91.0,,,,0.0,0.0,0.0,0.0,0.0,0.0,0.0,,,,,,,,58.0,0.0,0.6766949999999999,0.5837399999999999,0.354248,-0.275391,0.810071,-0.604013,-0.062013,-0.017176,-0.050787,-0.014216,1.0,0.0,0.0,,,,,,,,,,,,,,,,,,,,,,,,,,,,,,,,0.0,0.0,32.0,0.082659,1.0,0.0,56.368614,61.460125,33.320454,28.85537,24.987880999999998,461.44113200000004,883.592041,626.2615969999999,212.438354,216.160538,212.074402,198.458588,258.592834,269.073456,141.263519,0.41081999999999996,0.537626,0.271938,0.141344,0.15154700000000002,42.802566999999996,78.98783900000001,24.283419,14.096203,20.384674
20386,1650406462.570601,1650406462.609018,117.0,0.0,4468.205078,4416.410156,4313.846191,4298.974121,4455.897461,450.0,4.0,91.0,,,,0.0,0.0,0.0,0.0,0.0,0.0,0.0,,,,,,,,,,,,,,,,,,,,,,,,,,,,,,,,,,,,,,,,,,,,,,,,,,,,,,,,,,,,,,,,,,,,,,,,,,,,,,,,,,,,
20387,1650406462.578416,1650406462.616832,118.0,0.0,4399.487305,4495.384765999999,4173.333496,4302.563965,4433.846191,450.0,4.0,91.0,,,,0.0,0.0,0.0,0.0,0.0,0.0,0.0,,,,,,,,59.0,0.0,0.676567,0.5837399999999999,0.35449200000000003,-0.275391,0.803235,-0.6030369999999999,-0.058106,-0.016191,-0.050786000000000005,-0.015236000000000001,,,,,,,,,,,,,,,,,,,,,,,,,,,,,,,,,,,,,,,,,,,,,,,,,,,,,,,,,,,,,,,,,
20388,1650406462.58623,1650406462.6246462,119.0,0.0,4446.153809,4674.358886999999,4250.769043,4295.897461,4460.0,0.0,4.0,91.0,,,,0.0,0.0,0.0,0.0,0.0,0.0,0.0,,,,,,,,,,,,,,,,,,,,,,,,,,,,,,,,,,,,,,,,,,,,,,,,,,,,,,,,,,,,,,,,,,,,,,,,,,,,,,,,,,,,
20389,1650406462.594045,1650406462.632361,120.0,0.0,4462.05127,4369.230957,4382.563965,4288.205078,4431.794922,450.0,4.0,91.0,,,,0.0,0.0,0.0,0.0,0.0,0.0,0.0,,,,,,,,60.0,0.0,0.676649,0.583496,0.354736,-0.275391,0.8012819999999999,-0.606943,-0.06884900000000001,-0.015353,-0.050786000000000005,-0.013272999999999998,,,,,,,,,,,,,,,,,,,,,,,,,,,,,,,,,,,10.0,0.0,32.0,0.082659,1.0,0.0,,,,,,,,,,,,,,,,,,,,,,,,,
20390,1650406462.601859,1650406462.640175,121.0,0.0,4344.102539,4254.871582,4489.230957,4287.179688,4397.436035,450.0,4.0,91.0,,,,0.0,0.0,0.0,0.0,0.0,0.0,0.0,,,,,,,,,,,,,,,,,,,,,,,,,,,,,,,,,,,,,,,,,,,,,,,,,,,,,,,,,,,,,,,,,,,,,,,,,,,,,,,,,,,,
20391,1650406462.609674,1650406462.6478891,122.0,0.0,4299.487305,4409.230957,4496.410156,4287.179688,4384.102539,450.0,4.0,91.0,,,,0.0,0.0,0.0,0.0,0.0,0.0,0.0,,,,,,,,61.0,0.0,0.676649,0.583496,0.354736,-0.275391,0.800793,-0.603525,-0.06347799999999999,-0.016161000000000002,-0.050932,-0.011359999999999999,,,,,,,,,,,,,,,,,,,,,,,,,,,,,,,,,,,,,,,,,,,,,,,,,,,,,,,,,,,,,,,,,
20392,1650406462.617489,1650406462.655603,123.0,0.0,4299.487305,4511.794922,4468.717772999999,4285.128418,4332.307617,0.0,4.0,91.0,,,,0.0,0.0,0.0,0.0,0.0,0.0,0.0,,,,,,,,,,,,,,,,,,,,,,,,,,,,,,,,,,,,,,,,,,,,,,,,,,,,,,,,,,,,,,,,,,,,,,,,,,,,,,,,,,,,
20393,1650406462.625303,1650406462.663417,124.0,0.0,4175.384765999999,4516.410156,4494.871582,4284.615234000001,4239.487305,450.0,4.0,91.0,,,,0.0,0.0,0.0,0.0,0.0,0.0,0.0,,,,,,,,62.0,0.0,0.676732,0.583252,0.35498,-0.275391,0.791516,-0.611337,-0.06347799999999999,-0.015326,-0.050966000000000004,-0.012665000000000001,,,,,,,,,,,,,,,,,,,,,,,,,,,,,,,,,,,10.0,0.0,32.0,0.082659,1.0,0.0,,,,,,,,,,,,,,,,,,,,,,,,,
20394,1650406462.633118,1650406462.671132,125.0,0.0,4023.5898439999996,4525.128418,4256.922852000001,4285.641113000001,4207.692383,450.0,4.0,91.0,,,,0.0,0.0,0.0,0.0,0.0,0.0,0.0,,,,,,,,,,,,,,,,,,,,,,,,,,,,,,,,,,,,,,,,,,,,,,,,,,,,,,,,,,,,,,,,,,,,,,,,,,,,,,,,,,,,
20395,1650406462.640932,1650406462.678946,126.0,0.0,3987.6923829999996,4786.153809,4015.897461,4286.666504,4265.641113000001,450.0,4.0,91.0,,,,0.0,0.0,0.0,0.0,0.0,0.0,0.0,,,,,,,,63.0,0.0,0.676632,0.583252,0.35498,-0.27563499999999996,0.808606,-0.600595,-0.05712999999999999,-0.016186000000000002,-0.050996,-0.010862,,,,,,,,,,,,,,,,,,,,,,,,,,,,,,,,,,,,,,,,,,,,,,,,,,,,,,,,,,,,,,,,,
20396,1650406462.648747,1650406462.68666,127.0,0.0,4055.384521,5112.820313,4095.897461,4286.666504,4346.153809,242.0,4.0,91.0,,,,0.0,0.0,0.0,0.0,0.0,0.0,0.0,,,,,,,,,,,,,,,,,,,,,,,,,,,,,,,,,,,,,,,,,,,,,,,,,,,,,,,,,,,,,,,,,,,,,,,,,,,,,,,,,,,,
20397,1650406462.656561,1650406462.694474,0.0,0.0,4122.563965,5157.436035,4100.0,4280.0,4337.94873,450.0,4.0,91.0,,,,0.0,0.0,0.0,0.0,0.0,0.0,0.0,,,,,,,,0.0,0.0,0.676632,0.583252,0.35498,-0.27563499999999996,0.80177,-0.597665,-0.059083000000000004,-0.016814,-0.051073,-0.012315000000000001,,,,,,,,,,,,,,,,,,,,,,,,,,,,,,,,,,,10.0,0.0,32.0,0.082659,1.0,0.0,,,,,,,,,,,,,,,,,,,,,,,,,
20398,1650406462.664376,1650406462.702189,1.0,0.0,4186.153809,4985.128418,4092.3076170000004,4270.256348,4281.025879,450.0,4.0,91.0,,,,0.0,1.0,0.0,0.0,0.0,0.0,0.0,,,,,,,,,,,,,,,,,,,,,,,,,,,,,,,,,,,,,,,,,,,,,,,,,,,,,,,,,,,,,,,,,,,,,,,,,,,,,,,,,,,,
20399,1650406462.67219,1650406462.710003,2.0,0.0,4153.333496,4583.077147999999,4400.0,4268.205078,4140.0,121.0,4.0,91.0,,,,0.0,1.0,0.0,0.0,0.0,0.0,0.0,,,,,,,,1.0,0.0,0.676632,0.583252,0.35498,-0.27563499999999996,0.796887,-0.593759,-0.064942,-0.01523,-0.051043,-0.013622,,,,,,,,,,,,,,,,,,,,,,,,,,,,,,,,,,,,,,,,,,,,,,,,,,,,,,,,,,,,,,,,,
20400,1650406462.680005,1650406462.717717,3.0,0.0,4106.666504,4177.436035,4422.563965,4279.487305,4085.1281740000004,450.0,4.0,91.0,,,,0.0,1.0,1.0,0.0,0.0,0.0,0.0,,,,,,,,,,,,,,,,,,,,,,,,,,,,,,,,,,,,,,,,,,,,,,,,,,,,,,,,,,,,,,,,,,,,,,,,,,,,,,,,,,,,
20401,1650406462.687819,1650406462.725531,4.0,0.0,4117.94873,4191.282227000001,4259.487305,4286.153809,4173.333496,59.0,4.0,91.0,,,,0.0,1.0,1.0,0.0,0.0,0.0,0.0,0.972656,0.0,0.0,0.0,0.0,0.0,0.0,2.0,0.0,0.676661,0.583252,0.354736,-0.275879,0.7983520000000001,-0.601572,-0.058595,-0.014391,-0.050969,-0.014897,1.0,0.0,0.0,,,,,,,,,,,,,,,,,,,,,,,,,,,,,,,,10.0,0.0,32.0,0.089722,1.0,0.0,82.085144,78.383064,35.176781,29.189255,20.701918,748.588806,1153.471924,718.163147,181.803375,191.690155,297.138367,228.44457999999997,288.378174,260.791687,133.639694,0.680949,0.721326,0.328575,0.13886099999999998,0.133804,47.337952,89.782738,25.031769,15.42358,17.067235999999998
20402,1650406462.695634,1650406462.733245,5.0,0.0,4128.205078,4473.333496,4216.410156,4289.230957,4246.153809,450.0,4.0,91.0,,,,0.0,1.0,1.0,0.0,0.0,0.0,0.0,,,,,,,,,,,,,,,,,,,,,,,,,,,,,,,,,,,,,,,,,,,,,,,,,,,,,,,,,,,,,,,,,,,,,,,,,,,,,,,,,,,,
20403,1650406462.703448,1650406462.74106,6.0,0.0,4094.8718259999996,4681.025879,4208.717772999999,4288.205078,4228.205078,0.0,4.0,91.0,,,,0.0,1.0,1.0,0.0,0.0,0.0,0.0,,,,,,,,3.0,0.0,0.676561,0.583252,0.354736,-0.276123,0.792981,-0.606455,-0.073732,-0.015198,-0.05095,-0.012919,,,,,,,,,,,,,,,,,,,,,,,,,,,,,,,,,,,,,,,,,,,,,,,,,,,,,,,,,,,,,,,,,
20404,1650406462.7112632,1650406462.748774,7.0,0.0,4098.461426,4842.05127,4125.641113000001,4282.563965,4237.436035,450.0,4.0,91.0,,,,0.0,1.0,1.0,0.0,0.0,0.0,0.0,,,,,,,,,,,,,,,,,,,,,,,,,,,,,,,,,,,,,,,,,,,,,,,,,,,,,,,,,,,,,,,,,,,,,,,,,,,,,,,,,,,,
20405,1650406462.7190769,1650406462.756588,8.0,0.0,4132.307617,5068.717772999999,3996.923096,4280.0,4262.563965,450.0,4.0,91.0,,,,0.0,1.0,1.0,0.0,0.0,0.0,0.0,,,,,,,,4.0,0.0,0.676689,0.583252,0.35449200000000003,-0.276123,0.802747,-0.610849,-0.067872,-0.015972999999999998,-0.050884,-0.014263999999999999,,,,,,,,,,,,,,,,,,,,,,,,,,,,,,,,,,,10.0,0.0,32.0,0.089722,1.0,0.0,,,,,,,,,,,,,,,,,,,,,,,,,
20406,1650406462.726892,1650406462.764302,9.0,0.0,4194.358886999999,5176.410156,3965.1281740000004,4280.0,4271.282227000001,0.0,4.0,91.0,,,,0.0,1.0,1.0,0.0,0.0,0.0,0.0,,,,,,,,,,,,,,,,,,,,,,,,,,,,,,,,,,,,,,,,,,,,,,,,,,,,,,,,,,,,,,,,,,,,,,,,,,,,,,,,,,,,
20407,1650406462.734707,1650406462.772017,10.0,0.0,4248.205078,4801.025879,4226.153809,4271.282227000001,4227.692383,450.0,4.0,91.0,,,,0.0,1.0,1.0,0.0,0.0,4.0,8.333333,,,,,,,,5.0,0.0,0.6764789999999999,0.583496,0.35449200000000003,-0.276123,0.804211,-0.614267,-0.06640700000000001,-0.016719,-0.050923,-0.015375999999999999,,,,,,,,,,,,,,,,,,,,,,,,,,,,,,,,,,,,,,,,,,,,,,,,,,,,,,,,,,,,,,,,,
20408,1650406462.742521,1650406462.7798312,11.0,0.0,4284.615234000001,4315.384765999999,4415.384765999999,4264.615234000001,4186.153809,16182.0,4.0,91.0,,,,0.0,1.0,1.0,0.0,0.0,4.0,8.333333,,,,,,,,,,,,,,,,,,,,,,,,,,,,,,,,,,,,,,,,,,,,,,,,,,,,,,,,,,,,,,,,,,,,,,,,,,,,,,,,,,,,
20409,1650406462.750336,1650406462.787545,12.0,0.0,4258.461426,4305.128418,4350.256348,4272.820313,4141.538574,450.0,4.0,91.0,,,,0.0,1.0,1.0,0.0,0.0,4.0,8.333333,,,,,,,,6.0,0.0,0.6764789999999999,0.583496,0.35449200000000003,-0.276123,0.805188,-0.6049899999999999,-0.06884900000000001,-0.017294,-0.050908999999999996,-0.013302000000000001,,,,,,,,,,,,,,,,,,,,,,,,,,,,,,,,,,,0.0,0.0,32.0,0.089722,1.0,0.0,,,,,,,,,,,,,,,,,,,,,,,,,
20410,1650406462.75815,1650406462.795359,13.0,0.0,4165.641113000001,4438.974121,4422.05127,4288.205078,4092.3076170000004,450.0,4.0,91.0,,,,0.0,1.0,1.0,0.0,0.0,4.0,8.333333,,,,,,,,,,,,,,,,,,,,,,,,,,,,,,,,,,,,,,,,,,,,,,,,,,,,,,,,,,,,,,,,,,,,,,,,,,,,,,,,,,,,
20411,1650406462.765965,1650406462.803073,14.0,0.0,4084.102539,4392.307617,4298.461426,4294.358886999999,4095.897461,450.0,4.0,91.0,,,,0.0,1.0,1.0,0.0,0.0,4.0,8.333333,,,,,,,,7.0,0.0,0.6764789999999999,0.583496,0.35449200000000003,-0.276123,0.810559,-0.607431,-0.077638,-0.017957,-0.050896,-0.014511000000000001,,,,,,,,,,,,,,,,,,,,,,,,,,,,,,,,,,,,,,,,,,,,,,,,,,,,,,,,,,,,,,,,,
20412,1650406462.773779,1650406462.810888,15.0,0.0,4076.923096,4607.179688,4046.6667479999996,4293.333496,4180.512695,16182.0,4.0,91.0,,,,0.0,1.0,1.0,0.0,0.0,4.0,8.333333,,,,,,,,,,,,,,,,,,,,,,,,,,,,,,,,,,,,,,,,,,,,,,,,,,,,,,,,,,,,,,,,,,,,,,,,,,,,,,,,,,,,
20413,1650406462.781594,1650406462.8186018,16.0,0.0,4103.077147999999,4987.179688,4101.538574,4290.256348,4242.563965,0.0,4.0,91.0,,,,0.0,1.0,1.0,0.0,0.0,4.0,8.333333,,,,,,,,8.0,0.0,0.676607,0.583496,0.354248,-0.276123,0.8139770000000001,-0.605478,-0.06836,-0.018505,-0.050934,-0.015599000000000002,,,,,,,,,,,,,,,,,,,,,,,,,,,,,,,,,,,0.0,0.0,32.0,0.089722,1.0,0.0,,,,,,,,,,,,,,,,,,,,,,,,,
20414,1650406462.789408,1650406462.826416,17.0,0.0,4155.897461,5050.256348,4107.179688,4284.615234000001,4224.102539,0.0,4.0,91.0,,,,0.0,1.0,1.0,0.0,0.0,4.0,8.333333,,,,,,,,,,,,,,,,,,,,,,,,,,,,,,,,,,,,,,,,,,,,,,,,,,,,,,,,,,,,,,,,,,,,,,,,,,,,,,,,,,,,
20415,1650406462.797223,1650406462.83413,18.0,0.0,4243.589844,5094.871582,3987.6923829999996,4276.922852000001,4226.153809,0.0,4.0,91.0,,,,0.0,1.0,1.0,0.0,0.0,4.0,8.333333,,,,,,,,9.0,0.0,0.6764789999999999,0.583496,0.35449200000000003,-0.276123,0.810071,-0.595224,-0.052735000000000004,-0.017436,-0.050918,-0.016578,,,,,,,,,,,,,,,,,,,,,,,,,,,,,,,,,,,,,,,,,,,,,,,,,,,,,,,,,,,,,,,,,
20416,1650406462.805037,1650406462.841945,19.0,0.0,4283.589844,4979.487305,4107.179688,4269.230957,4215.384765999999,0.0,4.0,91.0,,,,0.0,1.0,1.0,0.0,0.0,4.0,8.333333,,,,,,,,,,,,,,,,,,,,,,,,,,,,,,,,,,,,,,,,,,,,,,,,,,,,,,,,,,,,,,,,,,,,,,,,,,,,,,,,,,,,
20417,1650406462.812852,1650406462.849659,20.0,0.0,4269.743652,4374.358886999999,4253.846191,4269.743652,4157.94873,0.0,4.0,91.0,,,,0.0,1.0,1.0,0.0,0.0,4.0,8.333333,,,,,,,,10.0,0.0,0.6764789999999999,0.583496,0.35449200000000003,-0.276123,0.810559,-0.607431,-0.077638,-0.015740999999999998,-0.050905,-0.014236000000000002,1.0,0.0,0.0,,,,,,,,,,,,,,,,,,,,,,,,,,,,,,,,0.0,0.0,1.0,0.0,512.0,0.760613,124.657509,95.41375699999999,34.752415,27.631134000000003,16.58605,1047.7144779999999,1395.704102,796.175293,159.338593,160.883057,400.31005899999997,266.210571,314.701935,231.6409,120.883995,0.9748549999999999,0.910168,0.361966,0.127743,0.115952,61.87070799999999,96.34123199999999,25.695601,16.20076,13.663647000000001
20418,1650406462.820666,1650406462.8574731,21.0,0.0,4236.922852000001,4032.820557,4360.0,4278.461426,4105.641113000001,0.0,4.0,91.0,,,,0.0,1.0,1.0,0.0,0.0,4.0,8.333333,,,,,,,,,,,,,,,,,,,,,,,,,,,,,,,,,,,,,,,,,,,,,,,,,,,,,,,,,,,,,,,,,,,,,,,,,,,,,,,,,,,,
20419,1650406462.828481,1650406462.865187,22.0,0.0,4216.922852000001,4254.871582,4341.025879,4287.692383,4125.641113000001,0.0,4.0,91.0,,,,0.0,1.0,1.0,0.0,0.0,4.0,8.333333,,,,,,,,11.0,0.0,0.6764789999999999,0.583496,0.35449200000000003,-0.276123,0.810071,-0.595224,-0.052735000000000004,-0.014948,-0.050892,-0.015352000000000001,,,,,,,,,,,,,,,,,,,,,,,,,,,,,,,,,,,,,,,,,,,,,,,,,,,,,,,,,,,,,,,,,
20420,1650406462.836295,1650406462.8730009,23.0,0.0,4198.461426,4447.692383,4304.615234000001,4289.743652,4201.538574,0.0,4.0,91.0,,,,0.0,1.0,1.0,0.0,0.0,4.0,8.333333,,,,,,,,,,,,,,,,,,,,,,,,,,,,,,,,,,,,,,,,,,,,,,,,,,,,,,,,,,,,,,,,,,,,,,,,,,,,,,,,,,,,
20421,1650406462.84411,1650406462.880716,24.0,0.0,4202.563965,4539.487305,4258.974121,4290.769043,4263.589844,0.0,4.0,91.0,,,,0.0,1.0,1.0,0.0,0.0,4.0,8.333333,,,,,,,,12.0,0.0,0.676268,0.5837399999999999,0.35449200000000003,-0.276123,0.812024,-0.600107,-0.06347799999999999,-0.015797,-0.050832999999999996,-0.013182,,,,,,,,,,,,,,,,,,,,,,,,,,,,,,,,,,,0.0,0.0,1.0,0.0,512.0,0.760613,,,,,,,,,,,,,,,,,,,,,,,,,
20422,1650406462.851925,1650406462.88853,25.0,0.0,4186.153809,4775.897461,4096.922852000001,4291.794922,4237.436035,0.0,4.0,91.0,,,,0.0,1.0,1.0,0.0,0.0,4.0,8.333333,,,,,,,,,,,,,,,,,,,,,,,,,,,,,,,,,,,,,,,,,,,,,,,,,,,,,,,,,,,,,,,,,,,,,,,,,,,,,,,,,,,,
20423,1650406462.859739,1650406462.896244,26.0,0.0,4164.615234000001,4924.615234000001,4007.6923829999996,4288.717772999999,4223.589844,0.0,4.0,91.0,,,,0.0,1.0,1.0,0.0,0.0,4.0,8.333333,,,,,,,,13.0,0.0,0.6763680000000001,0.5837399999999999,0.35449200000000003,-0.275879,0.809094,-0.606943,-0.052735000000000004,-0.016415,-0.050925,-0.014403000000000001,,,,,,,,,,,,,,,,,,,,,,,,,,,,,,,,,,,,,,,,,,,,,,,,,,,,,,,,,,,,,,,,,
20424,1650406462.867554,1650406462.904058,27.0,0.0,4192.307617,4963.589844,4129.230957,4285.128418,4267.692383,0.0,4.0,91.0,,,,0.0,1.0,1.0,0.0,0.0,4.0,8.333333,,,,,,,,,,,,,,,,,,,,,,,,,,,,,,,,,,,,,,,,,,,,,,,,,,,,,,,,,,,,,,,,,,,,,,,,,,,,,,,,,,,,
20425,1650406462.8753679,1650406462.911773,28.0,0.0,4294.871582,5128.717772999999,4207.692383,4282.563965,4335.384765999999,0.0,4.0,91.0,,,,0.0,1.0,1.0,0.0,0.0,4.0,8.333333,,,,,,,,14.0,0.0,0.6763680000000001,0.5837399999999999,0.35449200000000003,-0.275879,0.802258,-0.607431,-0.054688,-0.015555000000000001,-0.050911,-0.015502000000000002,,,,,,,,,,,,,,,,,,,,,,,,,,,,,,,,,,,0.0,0.0,1.0,0.0,512.0,0.760613,,,,,,,,,,,,,,,,,,,,,,,,,
20426,1650406462.883183,1650406462.919487,29.0,0.0,4330.769043,5092.820313,4192.820313,4276.922852000001,4300.512695,0.0,4.0,91.0,,,,0.0,1.0,1.0,0.0,0.0,4.0,8.333333,,,,,,,,,,,,,,,,,,,,,,,,,,,,,,,,,,,,,,,,,,,,,,,,,,,,,,,,,,,,,,,,,,,,,,,,,,,,,,,,,,,,
20427,1650406462.8909972,1650406462.927301,30.0,0.0,4314.871582,4704.615234000001,4272.820313,4271.282227000001,4196.410156,0.0,4.0,91.0,,,,0.0,1.0,1.0,0.0,0.0,4.0,8.333333,,,,,,,,15.0,0.0,0.67624,0.5837399999999999,0.354736,-0.275879,0.807141,-0.603525,-0.055665,-0.016196000000000002,-0.050947000000000006,-0.016538999999999998,,,,,,,,,,,,,,,,,,,,,,,,,,,,,,,,,,,,,,,,,,,,,,,,,,,,,,,,,,,,,,,,,
20428,1650406462.8988118,1650406462.935015,31.0,0.0,4278.461426,4435.897461,4330.256348,4273.846191,4095.897461,0.0,4.0,91.0,,,,0.0,1.0,1.0,0.0,0.0,4.0,8.333333,,,,,,,,,,,,,,,,,,,,,,,,,,,,,,,,,,,,,,,,,,,,,,,,,,,,,,,,,,,,,,,,,,,,,,,,,,,,,,,,,,,,
20429,1650406462.906626,1650406462.942829,32.0,0.0,4241.025879,4426.153809,4334.358886999999,4282.563965,4073.3332520000004,0.0,4.0,91.0,,,,0.0,1.0,1.0,0.0,0.0,4.0,8.333333,,,,,,,,16.0,0.0,0.67624,0.5837399999999999,0.354736,-0.275879,0.802258,-0.609384,-0.067872,-0.015211,-0.050832999999999996,-0.017425,,,,,,,,,,,,,,,,,,,,,,,,,,,,,,,,,,,0.0,0.0,1.0,0.0,512.0,0.760613,,,,,,,,,,,,,,,,,,,,,,,,,
20430,1650406462.914441,1650406462.9505439,33.0,0.0,4232.307617,4293.846191,4333.333496,4287.179688,4114.358886999999,0.0,4.0,91.0,,,,0.0,1.0,1.0,0.0,0.0,4.0,8.333333,,,,,,,,,,,,,,,,,,,,,,,,,,,,,,,,,,,,,,,,,,,,,,,,,,,,,,,,,,,,,,,,,,,,,,,,,,,,,,,,,,,,
20431,1650406462.922255,1650406462.958358,34.0,0.0,4212.307617,4217.94873,4387.692383,4290.256348,4149.743652,0.0,4.0,91.0,,,,0.0,1.0,1.0,0.0,0.0,4.0,8.333333,,,,,,,,17.0,0.0,0.67614,0.5837399999999999,0.354736,-0.276123,0.808118,-0.604013,-0.077638,-0.016034,-0.050925,-0.018221,,,,,,,,,,,,,,,,,,,,,,,,,,,,,,,,,,,,,,,,,,,,,,,,,,,,,,,,,,,,,,,,,
20432,1650406462.93007,1650406462.966172,35.0,0.0,4173.846191,4513.333496,4325.128418,4293.333496,4184.102539,0.0,4.0,91.0,,,,0.0,1.0,1.0,0.0,0.0,4.0,8.333333,,,,,,,,,,,,,,,,,,,,,,,,,,,,,,,,,,,,,,,,,,,,,,,,,,,,,,,,,,,,,,,,,,,,,,,,,,,,,,,,,,,,
20433,1650406462.937884,1650406462.973886,36.0,0.0,4191.794922,4824.615234000001,4159.487305,4290.256348,4226.666504,0.0,4.0,91.0,,,,0.0,1.0,1.0,0.0,0.0,4.0,8.333333,,,,,,,,18.0,0.0,0.67614,0.5837399999999999,0.354736,-0.276123,0.8061649999999999,-0.595224,-0.06836,-0.016775,-0.050960000000000005,-0.015813,1.0,0.0,0.0,,,,,,,,,,,,,,,,,,,,,,,,,,,,,,,,0.0,0.0,1.0,0.0,512.0,0.769,187.580429,110.40938600000001,33.753754,25.285191,14.374827999999999,1267.6363529999999,1568.5040279999998,871.994507,157.264999,135.286743,494.339874,309.477936,342.66922,192.879089,108.156929,1.235083,1.06843,0.381472,0.11780499999999999,0.11282,87.32618000000001,97.010025,26.753262,17.16814,10.811307000000001
20434,1650406462.945699,1650406462.9817,37.0,0.0,4258.461426,4932.307617,4017.9487299999996,4288.205078,4263.589844,0.0,4.0,91.0,,,,0.0,1.0,1.0,0.0,0.0,4.0,8.333333,,,,,,,,,,,,,,,,,,,,,,,,,,,,,,,,,,,,,,,,,,,,,,,,,,,,,,,,,,,,,,,,,,,,,,,,,,,,,,,,,,,,
20435,1650406462.953514,1650406462.989415,38.0,0.0,4238.974121,5021.538574,4044.615479,4290.769043,4264.102539,0.0,4.0,91.0,,,,0.0,1.0,1.0,0.0,0.0,4.0,8.333333,,,,,,,,19.0,0.0,0.6761229999999999,0.583496,0.35498,-0.27636700000000003,0.808118,-0.5942470000000001,-0.073732,-0.017343,-0.050942,-0.016771,,,,,,,,,,,,,,,,,,,,,,,,,,,,,,,,,,,,,,,,,,,,,,,,,,,,,,,,,,,,,,,,,
20436,1650406462.961328,1650406462.997129,39.0,0.0,4204.615234000001,5014.358886999999,4169.743652,4291.794922,4286.666504,0.0,4.0,91.0,,,,0.0,1.0,1.0,0.0,0.0,4.0,8.333333,,,,,,,,,,,,,,,,,,,,,,,,,,,,,,,,,,,,,,,,,,,,,,,,,,,,,,,,,,,,,,,,,,,,,,,,,,,,,,,,,,,,
20437,1650406462.969143,1650406463.004943,40.0,0.0,4241.538574,4921.025879,4250.769043,4285.641113000001,4302.563965,0.0,4.0,91.0,,,,0.0,1.0,1.0,0.0,0.0,4.0,8.333333,,,,,,,,20.0,0.0,0.6762229999999999,0.583496,0.35498,-0.276123,0.81886,-0.595224,-0.055177,-0.017904,-0.050877,-0.014361,,,,,,,,,,,,,,,,,,,,,,,,,,,,,,,,,,,0.0,0.0,1.0,0.0,512.0,0.769,,,,,,,,,,,,,,,,,,,,,,,,,
20438,1650406462.976957,1650406463.012657,41.0,0.0,4333.333496,4997.436035,4148.205078,4282.05127,4352.307617,0.0,4.0,91.0,,,,0.0,1.0,1.0,0.0,0.0,4.0,8.333333,,,,,,,,,,,,,,,,,,,,,,,,,,,,,,,,,,,,,,,,,,,,,,,,,,,,,,,,,,,,,,,,,,,,,,,,,,,,,,,,,,,,
20439,1650406462.984772,1650406463.020472,42.0,0.0,4374.358886999999,5021.025879,4068.718018,4278.974121,4371.282227000001,0.0,4.0,91.0,,,,0.0,1.0,1.0,0.0,0.0,4.0,8.333333,,,,,,,,21.0,0.0,0.6762229999999999,0.583496,0.35498,-0.276123,0.802747,-0.591318,-0.06884900000000001,-0.018311,-0.050868000000000003,-0.012388,,,,,,,,,,,,,,,,,,,,,,,,,,,,,,,,,,,,,,,,,,,,,,,,,,,,,,,,,,,,,,,,,
20440,1650406462.992586,1650406463.0281858,43.0,0.0,4352.307617,4783.589844,4168.205078,4273.846191,4295.384765999999,0.0,4.0,91.0,,,,0.0,1.0,1.0,0.0,0.0,4.0,8.333333,,,,,,,,,,,,,,,,,,,,,,,,,,,,,,,,,,,,,,,,,,,,,,,,,,,,,,,,,,,,,,,,,,,,,,,,,,,,,,,,,,,,
20441,1650406463.000401,1650406463.036,44.0,0.0,4272.307617,4551.282227000001,4312.307617,4276.922852000001,4161.538574,0.0,4.0,91.0,,,,0.0,1.0,1.0,0.0,0.0,4.0,8.333333,,,,,,,,22.0,0.0,0.6762229999999999,0.583496,0.35498,-0.276123,0.805188,-0.59913,-0.06640700000000001,-0.018726,-0.050957,-0.010563,,,,,,,,,,,,,,,,,,,,,,,,,,,,,,,,,,,0.0,0.0,1.0,0.0,512.0,0.769,,,,,,,,,,,,,,,,,,,,,,,,,
20442,1650406463.008215,1650406463.043714,45.0,0.0,4229.230957,4406.153809,4373.846191,4286.666504,4109.230957,0.0,4.0,91.0,,,,0.0,1.0,1.0,0.0,0.0,4.0,8.333333,,,,,,,,,,,,,,,,,,,,,,,,,,,,,,,,,,,,,,,,,,,,,,,,,,,,,,,,,,,,,,,,,,,,,,,,,,,,,,,,,,,,
20443,1650406463.01603,1650406463.0514288,46.0,0.0,4218.974121,4329.230957,4340.0,4291.794922,4148.205078,0.0,4.0,91.0,,,,0.0,1.0,1.0,0.0,0.0,4.0,8.333333,,,,,,,,23.0,0.0,0.6762229999999999,0.583496,0.35498,-0.276123,0.807141,-0.613291,-0.066896,-0.019148,-0.050939,-0.00897,,,,,,,,,,,,,,,,,,,,,,,,,,,,,,,,,,,,,,,,,,,,,,,,,,,,,,,,,,,,,,,,,
20444,1650406463.023844,1650406463.059243,47.0,0.0,4214.358886999999,4392.307617,4340.0,4293.333496,4192.820313,0.0,4.0,91.0,,,,0.0,1.0,1.0,0.0,0.0,4.0,8.333333,,,,,,,,,,,,,,,,,,,,,,,,,,,,,,,,,,,,,,,,,,,,,,,,,,,,,,,,,,,,,,,,,,,,,,,,,,,,,,,,,,,,
20445,1650406463.031659,1650406463.067058,48.0,0.0,4218.974121,4548.205078,4257.94873,4295.384765999999,4223.077147999999,0.0,4.0,91.0,,,,0.0,1.0,1.0,0.0,0.0,4.0,8.333333,,,,,,,,24.0,0.0,0.676012,0.5837399999999999,0.35498,-0.276123,0.8056760000000001,-0.608408,-0.055177,-0.018015,-0.050825999999999996,-0.010612,,,,,,,,,,,,,,,,,,,,,,,,,,,,,,,,,,,0.0,0.0,1.0,0.0,512.0,0.769,,,,,,,,,,,,,,,,,,,,,,,,,
20446,1650406463.039473,1650406463.0747721,49.0,0.0,4225.128418,4765.128418,4135.384765999999,4293.333496,4253.333496,0.0,4.0,91.0,,,,0.0,1.0,1.0,0.0,0.0,4.0,8.333333,,,,,,,,,,,,,,,,,,,,,,,,,,,,,,,,,,,,,,,,,,,,,,,,,,,,,,,,,,,,,,,,,,,,,,,,,,,,,,,,,,,,
20447,1650406463.0472882,1650406463.082586,50.0,0.0,4212.307617,4905.641113000001,4084.615479,4291.794922,4261.025879,0.0,4.0,91.0,,,,0.0,1.0,1.0,0.0,0.0,4.0,8.333333,,,,,,,,25.0,0.0,0.67604,0.5837399999999999,0.354736,-0.27636700000000003,0.804211,-0.5947359999999999,-0.064454,-0.018557,-0.05087,-0.008965,,,,,,,,,,,,,,,,,,,,,,,,,,,,,,,,,,,,,,,,,,,,,,,,,,,,,,,,,,,,,,,,,
20448,1650406463.0551019,1650406463.0903,51.0,0.0,4171.794922,4955.384765999999,4145.128418,4293.333496,4231.794922,0.0,4.0,91.0,,,,0.0,1.0,1.0,0.0,0.0,4.0,8.333333,,,,,,,,,,,,,,,,,,,,,,,,,,,,,,,,,,,,,,,,,,,,,,,,,,,,,,,,,,,,,,,,,,,,,,,,,,,,,,,,,,,,
20449,1650406463.062917,1650406463.098115,52.0,0.0,4197.94873,5123.589844,4142.05127,4287.179688,4278.461426,0.0,4.0,91.0,,,,0.0,1.0,1.0,0.0,0.0,4.0,8.333333,,,,,,,,26.0,0.0,0.67583,0.5839840000000001,0.354736,-0.27636700000000003,0.807141,-0.59913,-0.072267,-0.018947,-0.050862,-0.010608,1.0,0.0,0.0,,,,,,,,,,,,,,,,,,,,,,,,,,,,,,,,0.0,0.0,1.0,0.0,512.0,0.9073,266.407349,120.11608899999999,35.770409,23.279095,15.145791000000001,1330.787964,1644.775757,1000.3016970000001,178.966003,125.560425,551.549255,350.71038799999997,380.300964,156.494568,100.542702,1.403789,1.159166,0.42304899999999995,0.12008699999999999,0.134804,119.66095700000001,91.233559,29.236958,19.320024,9.034234
20450,1650406463.070732,1650406463.105829,53.0,0.0,4273.846191,5096.410156,4129.230957,4276.410156,4341.025879,0.0,4.0,91.0,,,,0.0,1.0,1.0,0.0,0.0,4.0,8.333333,,,,,,,,,,,,,,,,,,,,,,,,,,,,,,,,,,,,,,,,,,,,,,,,,,,,,,,,,,,,,,,,,,,,,,,,,,,,,,,,,,,,
20451,1650406463.078546,1650406463.113643,54.0,0.0,4337.94873,4688.205078,4178.974121,4272.307617,4298.461426,0.0,4.0,91.0,,,,0.0,1.0,1.0,0.0,0.0,4.0,8.333333,,,,,,,,27.0,0.0,0.675958,0.5839840000000001,0.35449200000000003,-0.27636700000000003,0.811048,-0.599619,-0.06347799999999999,-0.019299,-0.050756,-0.009058,,,,,,,,,,,,,,,,,,,,,,,,,,,,,,,,,,,,,,,,,,,,,,,,,,,,,,,,,,,,,,,,,
20452,1650406463.086361,1650406463.121357,55.0,0.0,4309.230957,4455.897461,4346.153809,4277.94873,4165.128418,0.0,4.0,91.0,,,,0.0,1.0,1.0,0.0,0.0,4.0,8.333333,,,,,,,,,,,,,,,,,,,,,,,,,,,,,,,,,,,,,,,,,,,,,,,,,,,,,,,,,,,,,,,,,,,,,,,,,,,,,,,,,,,,
20453,1650406463.094175,1650406463.1291711,56.0,0.0,4267.692383,4464.102539,4435.897461,4285.641113000001,4121.538574,0.0,4.0,91.0,,,,0.0,1.0,1.0,0.0,0.0,4.0,8.333333,,,,,,,,28.0,0.0,0.675747,0.584229,0.35449200000000003,-0.27636700000000003,0.796887,-0.603525,-0.061036,-0.019762000000000002,-0.050807,-0.010643000000000001,,,,,,,,,,,,,,,,,,,,,,,,,,,,,,,,,,,0.0,0.0,1.0,0.0,512.0,0.9073,,,,,,,,,,,,,,,,,,,,,,,,,
20454,1650406463.10199,1650406463.136886,57.0,0.0,4231.282227000001,4387.692383,4350.769043,4285.641113000001,4149.743652,0.0,4.0,91.0,,,,0.0,1.0,1.0,0.0,0.0,4.0,8.333333,,,,,,,,,,,,,,,,,,,,,,,,,,,,,,,,,,,,,,,,,,,,,,,,,,,,,,,,,,,,,,,,,,,,,,,,,,,,,,,,,,,,
20455,1650406463.109804,1650406463.1447,58.0,0.0,4213.333496,4364.615234000001,4268.205078,4287.179688,4182.05127,0.0,4.0,91.0,,,,0.0,1.0,1.0,0.0,0.0,4.0,8.333333,,,,,,,,29.0,0.0,0.675747,0.584229,0.35449200000000003,-0.27636700000000003,0.815442,-0.597665,-0.057617999999999996,-0.020031,-0.050854,-0.009041,,,,,,,,,,,,,,,,,,,,,,,,,,,,,,,,,,,,,,,,,,,,,,,,,,,,,,,,,,,,,,,,,
20456,1650406463.117619,1650406463.152414,59.0,0.0,4212.307617,4543.077147999999,4295.897461,4293.333496,4198.461426,0.0,4.0,91.0,,,,0.0,1.0,1.0,0.0,0.0,4.0,8.333333,,,,,,,,,,,,,,,,,,,,,,,,,,,,,,,,,,,,,,,,,,,,,,,,,,,,,,,,,,,,,,,,,,,,,,,,,,,,,,,,,,,,
20457,1650406463.125433,1650406463.1601279,60.0,0.0,4240.0,4692.307617,4279.487305,4294.871582,4222.05127,0.0,4.0,91.0,,,,0.0,1.0,1.0,0.0,0.0,4.0,8.333333,,,,,,,,30.0,0.0,0.675958,0.5839840000000001,0.35449200000000003,-0.27636700000000003,0.81886,-0.601083,-0.052735000000000004,-0.020274,-0.050798,-0.010773999999999999,,,,,,,,,,,,,,,,,,,,,,,,,,,,,,,,,,,0.0,0.0,1.0,0.0,512.0,0.9073,,,,,,,,,,,,,,,,,,,,,,,,,
20458,1650406463.133248,1650406463.167943,61.0,0.0,4226.153809,4736.922852000001,4080.0,4289.743652,4180.512695,0.0,4.0,91.0,,,,0.0,1.0,1.0,0.0,0.0,4.0,8.333333,,,,,,,,,,,,,,,,,,,,,,,,,,,,,,,,,,,,,,,,,,,,,,,,,,,,,,,,,,,,,,,,,,,,,,,,,,,,,,,,,,,,
20459,1650406463.141062,1650406463.175657,62.0,0.0,4173.333496,4844.102539,3977.4357909999994,4287.179688,4132.820313,0.0,4.0,91.0,,,,0.0,1.0,1.0,0.0,0.0,4.0,8.333333,,,,,,,,31.0,0.0,0.675958,0.5839840000000001,0.35449200000000003,-0.27636700000000003,0.804211,-0.598154,-0.076173,-0.020444,-0.050845,-0.009111,,,,,,,,,,,,,,,,,,,,,,,,,,,,,,,,,,,,,,,,,,,,,,,,,,,,,,,,,,,,,,,,,
20460,1650406463.148877,1650406463.1834712,63.0,0.0,4178.461426,5019.487305,4104.615234000001,4287.692383,4195.897461,0.0,4.0,91.0,,,,0.0,1.0,1.0,0.0,0.0,4.0,8.333333,,,,,,,,,,,,,,,,,,,,,,,,,,,,,,,,,,,,,,,,,,,,,,,,,,,,,,,,,,,,,,,,,,,,,,,,,,,,,,,,,,,,
20461,1650406463.156691,1650406463.191185,64.0,0.0,4269.743652,5174.871582,4223.589844,4285.128418,4274.358886999999,450.0,4.0,91.0,,,,0.0,1.0,1.0,0.0,0.0,4.0,8.333333,,,,,,,,32.0,0.0,0.675958,0.5839840000000001,0.35449200000000003,-0.27636700000000003,0.8115359999999999,-0.59913,-0.060548000000000005,-0.020744,-0.050838999999999995,-0.010739,,,,,,,,,,,,,,,,,,,,,,,,,,,,,,,,,,,0.0,0.0,1.0,0.0,512.0,0.9073,,,,,,,,,,,,,,,,,,,,,,,,,
20462,1650406463.164506,1650406463.198999,65.0,0.0,4328.717772999999,5117.94873,4200.512695,4277.94873,4236.922852000001,450.0,4.0,91.0,,,,0.0,1.0,1.0,0.0,0.0,4.0,8.333333,,,,,,,,,,,,,,,,,,,,,,,,,,,,,,,,,,,,,,,,,,,,,,,,,,,,,,,,,,,,,,,,,,,,,,,,,,,,,,,,,,,,
20463,1650406463.17232,1650406463.2067142,66.0,0.0,4302.563965,4764.615234000001,4290.769043,4274.358886999999,4154.871582,286.0,4.0,91.0,,,,0.0,2.0,1.0,0.0,0.0,4.0,8.333333,,,,,,,,33.0,0.0,0.675958,0.5839840000000001,0.35449200000000003,-0.27636700000000003,0.812512,-0.609873,-0.067384,-0.020964,-0.050832999999999996,-0.009128,,,,,,,,,,,,,,,,,,,,,,,,,,,,,,,,,,,,,,,,,,,,,,,,,,,,,,,,,,,,,,,,,
20464,1650406463.180135,1650406463.2145278,67.0,0.0,4316.410156,4523.077147999999,4390.256348,4279.487305,4142.563965,450.0,4.0,91.0,,,,0.0,2.0,1.0,0.0,0.0,4.0,8.333333,,,,,,,,,,,,,,,,,,,,,,,,,,,,,,,,,,,,,,,,,,,,,,,,,,,,,,,,,,,,,,,,,,,,,,,,,,,,,,,,,,,,
20465,1650406463.18795,1650406463.2222419,68.0,0.0,4331.794922,4567.692383,4399.487305,4282.563965,4115.384765999999,0.0,4.0,91.0,,,,0.0,2.0,0.0,0.0,0.0,4.0,0.0,0.972656,0.0,0.0,0.0,0.0,0.0,0.0,34.0,0.0,0.675958,0.5839840000000001,0.35449200000000003,-0.27636700000000003,0.800793,-0.602548,-0.058106,-0.021212,-0.050974,-0.010754000000000001,1.0,0.0,0.0,0.0,,,-0.6905359999999999,2.306596,0.0,,,0.5035350000000001,8.64327,,0.0,,,-0.374515,0.22913499999999998,0.0,,,-0.707833,3.009461,0.0,,,-87.50170899999999,112.33470200000001,0.0,,,0.447726,0.688244,0.0,0.0,32.0,0.017539,1.0,0.0,347.694794,122.11813400000001,44.837387,22.203638,18.619381,1222.5683589999999,1653.570801,1262.106934,219.475067,135.495422,558.125916,384.230835,434.72012300000006,129.757401,100.099281,1.4533459999999998,1.180549,0.53827,0.140502,0.180147,152.07873500000002,81.67549100000001,34.907497,23.28677,8.50473
20466,1650406463.195764,1650406463.230056,69.0,0.0,4320.512695,4437.94873,4371.282227000001,4286.666504,4108.205078,450.0,4.0,91.0,,,,0.0,2.0,0.0,0.0,0.0,4.0,0.0,,,,,,,,,,,,,,,,,,,,,,,,,,,,,,,,,,,,,,,,,,,,,,,,,,,,,,,,,,,,,,,,,,,,,,,,,,,,,,,,,,,,
20467,1650406463.203579,1650406463.237771,70.0,0.0,4315.384765999999,4203.589844,4403.077147999999,4290.256348,4170.769043,0.0,4.0,91.0,,,,0.0,2.0,0.0,0.0,0.0,4.0,0.0,,,,,,,,35.0,0.0,0.675958,0.5839840000000001,0.35449200000000003,-0.27636700000000003,0.812512,-0.598154,-0.06543099999999999,-0.021337000000000002,-0.051004,-0.009093,,,,,,,,,,,,,,,,,,,,,,,,,,,,,,,,,,,,,,,,,,,,,,,,,,,,,,,,,,,,,,,,,
20468,1650406463.2113929,1650406463.245585,71.0,0.0,4329.230957,4294.871582,4398.461426,4290.256348,4237.94873,450.0,4.0,91.0,,,,0.0,2.0,0.0,0.0,0.0,4.0,0.0,,,,,,,,,,,,,,,,,,,,,,,,,,,,,,,,,,,,,,,,,,,,,,,,,,,,,,,,,,,,,,,,,,,,,,,,,,,,,,,,,,,,
20469,1650406463.219208,1650406463.253299,72.0,0.0,4282.05127,4465.641113000001,4383.077147999999,4290.769043,4230.769043,450.0,4.0,91.0,,,,0.0,2.0,0.0,0.0,0.0,4.0,0.0,,,,,,,,36.0,0.0,0.675958,0.5839840000000001,0.35449200000000003,-0.27636700000000003,0.802258,-0.590829,-0.070802,-0.021498,-0.050884,-0.007645999999999999,,,,,,,,,,,,,,,,,,,,,,,,,,,,,,,,,,,0.0,0.0,32.0,0.017539,1.0,0.0,,,,,,,,,,,,,,,,,,,,,,,,,
20470,1650406463.2270222,1650406463.2611132,73.0,0.0,4269.230957,4520.512695,4326.153809,4293.333496,4240.0,0.0,4.0,91.0,,,,0.0,2.0,0.0,0.0,0.0,4.0,0.0,,,,,,,,,,,,,,,,,,,,,,,,,,,,,,,,,,,,,,,,,,,,,,,,,,,,,,,,,,,,,,,,,,,,,,,,,,,,,,,,,,,,
20471,1650406463.2348368,1650406463.268827,74.0,0.0,4278.461426,4634.871582,4210.256348,4289.230957,4230.256348,450.0,4.0,91.0,,,,0.0,2.0,0.0,0.0,0.0,0.0,0.0,,,,,,,,37.0,0.0,0.675958,0.5839840000000001,0.35449200000000003,-0.27636700000000003,0.8061649999999999,-0.595224,-0.060548000000000005,-0.020031999999999998,-0.050874,-0.009420999999999999,,,,,,,,,,,,,,,,,,,,,,,,,,,,,,,,,,,,,,,,,,,,,,,,,,,,,,,,,,,,,,,,,
20472,1650406463.242651,1650406463.276642,75.0,0.0,4234.358886999999,4694.871582,4196.410156,4291.282227000001,4203.589844,0.0,4.0,91.0,,,,0.0,2.0,0.0,0.0,0.0,0.0,0.0,,,,,,,,,,,,,,,,,,,,,,,,,,,,,,,,,,,,,,,,,,,,,,,,,,,,,,,,,,,,,,,,,,,,,,,,,,,,,,,,,,,,
20473,1650406463.250466,1650406463.284356,76.0,0.0,4193.333496,4822.05127,4275.897461,4296.410156,4224.102539,450.0,4.0,91.0,,,,0.0,2.0,0.0,0.0,0.0,0.0,0.0,,,,,,,,38.0,0.0,0.675958,0.5839840000000001,0.35449200000000003,-0.27636700000000003,0.812512,-0.598154,-0.06543099999999999,-0.020275,-0.050914,-0.007893,,,,,,,,,,,,,,,,,,,,,,,,,,,,,,,,,,,0.0,0.0,32.0,0.017539,1.0,0.0,,,,,,,,,,,,,,,,,,,,,,,,,
20474,1650406463.25828,1650406463.2921698,77.0,0.0,4221.538574,5042.05127,4195.897461,4293.333496,4259.487305,450.0,4.0,91.0,,,,0.0,2.0,0.0,0.0,0.0,0.0,0.0,,,,,,,,,,,,,,,,,,,,,,,,,,,,,,,,,,,,,,,,,,,,,,,,,,,,,,,,,,,,,,,,,,,,,,,,,,,,,,,,,,,,
20475,1650406463.266095,1650406463.299884,78.0,0.0,4270.256348,5052.307617,4045.1281740000004,4289.230957,4265.641113000001,450.0,4.0,91.0,,,,0.0,2.0,0.0,0.0,0.0,0.0,0.0,,,,,,,,39.0,0.0,0.675958,0.5839840000000001,0.35449200000000003,-0.27636700000000003,0.8061649999999999,-0.595224,-0.060548000000000005,-0.018931,-0.0509,-0.009643,,,,,,,,,,,,,,,,,,,,,,,,,,,,,,,,,,,,,,,,,,,,,,,,,,,,,,,,,,,,,,,,,
20476,1650406463.273909,1650406463.307599,79.0,0.0,4313.333496,5034.358886999999,4072.3076170000004,4290.256348,4277.94873,0.0,4.0,91.0,,,,0.0,2.0,0.0,0.0,0.0,0.0,0.0,,,,,,,,,,,,,,,,,,,,,,,,,,,,,,,,,,,,,,,,,,,,,,,,,,,,,,,,,,,,,,,,,,,,,,,,,,,,,,,,,,,,
20477,1650406463.281724,1650406463.315413,80.0,0.0,4312.820313,5073.846191,4016.923096,4287.179688,4253.333496,450.0,4.0,91.0,,,,0.0,2.0,0.0,0.0,0.0,0.0,0.0,,,,,,,,40.0,0.0,0.675718,0.584229,0.354736,-0.276123,0.808118,-0.587411,-0.059571000000000006,-0.019284,-0.050986000000000004,-0.008092,,,,,,,,,,,,,,,,,,,,,,,,,,,,,,,,,,,0.0,0.0,32.0,0.017539,1.0,0.0,,,,,,,,,,,,,,,,,,,,,,,,,
20478,1650406463.289539,1650406463.323227,81.0,0.0,4276.410156,4978.974121,4067.6923829999996,4277.436035,4188.205078,450.0,4.0,91.0,,,,0.0,2.0,0.0,0.0,0.0,0.0,0.0,,,,,,,,,,,,,,,,,,,,,,,,,,,,,,,,,,,,,,,,,,,,,,,,,,,,,,,,,,,,,,,,,,,,,,,,,,,,,,,,,,,,
20479,1650406463.297353,1650406463.330941,82.0,0.0,4333.333496,4765.641113000001,4263.589844,4275.384765999999,4174.871582,450.0,4.0,91.0,,,,0.0,2.0,0.0,0.0,0.0,0.0,0.0,,,,,,,,41.0,0.0,0.675718,0.584229,0.354736,-0.276123,0.799329,-0.598642,-0.056152999999999995,-0.018088,-0.051015,-0.009822,,,,,,,,,,,,,,,,,,,,,,,,,,,,,,,,,,,,,,,,,,,,,,,,,,,,,,,,,,,,,,,,,
20480,1650406463.305168,1650406463.338656,83.0,0.0,4415.384765999999,4561.538574,4279.487305,4279.487305,4178.461426,0.0,4.0,91.0,,,,0.0,2.0,0.0,0.0,0.0,0.0,0.0,,,,,,,,,,,,,,,,,,,,,,,,,,,,,,,,,,,,,,,,,,,,,,,,,,,,,,,,,,,,,,,,,,,,,,,,,,,,,,,,,,,,
20481,1650406463.312982,1650406463.3464699,84.0,0.0,4422.05127,4374.871582,4332.820313,4279.487305,4160.512695,450.0,4.0,91.0,,,,0.0,2.0,0.0,0.0,0.0,0.0,0.0,,,,,,,,42.0,0.0,0.675718,0.584229,0.354736,-0.276123,0.802747,-0.591318,-0.05712999999999999,-0.018525,-0.051039999999999995,-0.01133,1.0,0.0,0.0,,,,,,,,,,,,,,,,,,,,,,,,,,,,,,,,0.0,0.0,32.0,0.017666,1.0,0.0,411.64917,116.859695,62.202042000000006,22.033533,23.129538,988.8741460000001,1680.9444579999997,1680.010864,265.26223799999997,158.877243,514.053528,409.47699,504.42608600000005,113.50766000000002,104.510674,1.380665,1.1686969999999999,0.7525270000000001,0.175729,0.233915,176.219727,74.219177,44.28931,28.813213,8.913933
20482,1650406463.320797,1650406463.354184,85.0,0.0,4387.692383,4278.974121,4511.282227000001,4283.589844,4152.307617,450.0,4.0,91.0,,,,0.0,2.0,0.0,0.0,0.0,0.0,0.0,,,,,,,,,,,,,,,,,,,,,,,,,,,,,,,,,,,,,,,,,,,,,,,,,,,,,,,,,,,,,,,,,,,,,,,,,,,,,,,,,,,,
20483,1650406463.328611,1650406463.361998,86.0,0.0,4385.128418,4384.615234000001,4517.436035,4289.230957,4208.205078,450.0,4.0,91.0,,,,0.0,2.0,0.0,0.0,0.0,0.0,0.0,,,,,,,,43.0,0.0,0.675818,0.584229,0.354736,-0.275879,0.8012819999999999,-0.596201,-0.055665,-0.018968000000000002,-0.051063,-0.012736,,,,,,,,,,,,,,,,,,,,,,,,,,,,,,,,,,,,,,,,,,,,,,,,,,,,,,,,,,,,,,,,,
20484,1650406463.336426,1650406463.3697119,87.0,0.0,4344.615234000001,4511.282227000001,4450.769043,4288.205078,4189.230957,0.0,4.0,91.0,,,,0.0,2.0,0.0,0.0,0.0,0.0,0.0,,,,,,,,,,,,,,,,,,,,,,,,,,,,,,,,,,,,,,,,,,,,,,,,,,,,,,,,,,,,,,,,,,,,,,,,,,,,,,,,,,,,
20485,1650406463.34424,1650406463.377527,88.0,0.0,4332.820313,4568.205078,4376.922852000001,4284.102539,4138.461426,450.0,4.0,91.0,,,,0.0,2.0,0.0,0.0,0.0,0.0,0.0,,,,,,,,44.0,0.0,0.675818,0.584229,0.354736,-0.275879,0.815442,-0.595224,-0.06347799999999999,-0.017803,-0.051084,-0.014002,,,,,,,,,,,,,,,,,,,,,,,,,,,,,,,,,,,0.0,0.0,32.0,0.017666,1.0,0.0,,,,,,,,,,,,,,,,,,,,,,,,,
20486,1650406463.352055,1650406463.385241,89.0,0.0,4318.974121,4516.922852000001,4318.974121,4286.666504,4107.179688,450.0,4.0,91.0,,,,0.0,2.0,0.0,0.0,0.0,0.0,0.0,,,,,,,,,,,,,,,,,,,,,,,,,,,,,,,,,,,,,,,,,,,,,,,,,,,,,,,,,,,,,,,,,,,,,,,,,,,,,,,,,,,,
20487,1650406463.359869,1650406463.393055,90.0,0.0,4323.589844,4399.487305,4273.846191,4288.717772999999,4132.820313,450.0,4.0,91.0,,,,0.0,2.0,0.0,0.0,0.0,0.0,0.0,,,,,,,,45.0,0.0,0.675929,0.5839840000000001,0.354736,-0.276123,0.807141,-0.59913,-0.06640700000000001,-0.018269,-0.051054,-0.015238,,,,,,,,,,,,,,,,,,,,,,,,,,,,,,,,,,,,,,,,,,,,,,,,,,,,,,,,,,,,,,,,,
20488,1650406463.367684,1650406463.400769,91.0,0.0,4329.230957,4373.846191,4462.563965,4287.692383,4174.358886999999,0.0,4.0,91.0,,,,0.0,2.0,0.0,0.0,0.0,0.0,0.0,,,,,,,,,,,,,,,,,,,,,,,,,,,,,,,,,,,,,,,,,,,,,,,,,,,,,,,,,,,,,,,,,,,,,,,,,,,,,,,,,,,,
20489,1650406463.375498,1650406463.408583,92.0,0.0,4317.94873,4283.077147999999,4561.538574,4291.794922,4173.333496,450.0,4.0,91.0,,,,0.0,2.0,0.0,0.0,0.0,0.0,0.0,,,,,,,,46.0,0.0,0.676029,0.5839840000000001,0.354736,-0.275879,0.803235,-0.592294,-0.075196,-0.01864,-0.051026999999999996,-0.013129,,,,,,,,,,,,,,,,,,,,,,,,,,,,,,,,,,,0.0,0.0,32.0,0.017666,1.0,0.0,,,,,,,,,,,,,,,,,,,,,,,,,
20490,1650406463.3833132,1650406463.4162982,93.0,0.0,4250.769043,4386.153809,4195.384765999999,4292.307617,4141.538574,450.0,4.0,91.0,,,,0.0,2.0,0.0,0.0,0.0,0.0,0.0,,,,,,,,,,,,,,,,,,,,,,,,,,,,,,,,,,,,,,,,,,,,,,,,,,,,,,,,,,,,,,,,,,,,,,,,,,,,,,,,,,,,
20491,1650406463.3911269,1650406463.4241118,94.0,0.0,4194.358886999999,4715.897461,4041.538574,4291.282227000001,4158.974121,450.0,4.0,91.0,,,,0.0,2.0,0.0,0.0,0.0,0.0,0.0,,,,,,,,47.0,0.0,0.676029,0.5839840000000001,0.354736,-0.275879,0.808118,-0.608896,-0.062989,-0.019119,-0.051002,-0.014355000000000001,,,,,,,,,,,,,,,,,,,,,,,,,,,,,,,,,,,,,,,,,,,,,,,,,,,,,,,,,,,,,,,,,
20492,1650406463.398942,1650406463.4318259,95.0,0.0,4219.487305,4790.769043,4194.358886999999,4294.358886999999,4222.563965,0.0,4.0,91.0,,,,0.0,2.0,0.0,0.0,0.0,0.0,0.0,,,,,,,,,,,,,,,,,,,,,,,,,,,,,,,,,,,,,,,,,,,,,,,,,,,,,,,,,,,,,,,,,,,,,,,,,,,,,,,,,,,,
20493,1650406463.406757,1650406463.43964,96.0,0.0,4220.512695,4754.871582,4173.333496,4294.871582,4218.461426,450.0,4.0,91.0,,,,0.0,2.0,0.0,0.0,0.0,0.0,0.0,,,,,,,,48.0,0.0,0.676157,0.5839840000000001,0.35449200000000003,-0.275879,0.802747,-0.609384,-0.061036,-0.019551,-0.050882,-0.012333,,,,,,,,,,,,,,,,,,,,,,,,,,,,,,,,,,,0.0,0.0,32.0,0.017666,1.0,0.0,,,,,,,,,,,,,,,,,,,,,,,,,
20494,1650406463.414571,1650406463.447355,97.0,0.0,4188.205078,4910.256348,4091.281982,4292.307617,4195.897461,450.0,4.0,91.0,,,,0.0,2.0,0.0,0.0,0.0,0.0,0.0,,,,,,,,,,,,,,,,,,,,,,,,,,,,,,,,,,,,,,,,,,,,,,,,,,,,,,,,,,,,,,,,,,,,,,,,,,,,,,,,,,,,
20495,1650406463.422386,1650406463.455169,98.0,0.0,4249.230957,5027.179688,4156.922852000001,4289.743652,4240.0,450.0,4.0,91.0,,,,0.0,2.0,0.0,0.0,0.0,0.0,0.0,,,,,,,,49.0,0.0,0.675946,0.584229,0.35449200000000003,-0.275879,0.804211,-0.608408,-0.056152999999999995,-0.019891,-0.050921,-0.013590000000000001,,,,,,,,,,,,,,,,,,,,,,,,,,,,,,,,,,,,,,,,,,,,,,,,,,,,,,,,,,,,,,,,,
20496,1650406463.4302,1650406463.462883,99.0,0.0,4347.179688,5073.333496,4055.897461,4286.153809,4290.256348,0.0,4.0,91.0,,,,0.0,2.0,0.0,0.0,0.0,0.0,0.0,,,,,,,,,,,,,,,,,,,,,,,,,,,,,,,,,,,,,,,,,,,,,,,,,,,,,,,,,,,,,,,,,,,,,,,,,,,,,,,,,,,,
20497,1650406463.438015,1650406463.470597,100.0,0.0,4335.897461,4988.205078,4080.512939,4276.922852000001,4243.589844,450.0,4.0,91.0,,,,0.0,2.0,0.0,0.0,0.0,0.0,0.0,,,,,,,,50.0,0.0,0.675946,0.584229,0.35449200000000003,-0.275879,0.812512,-0.585458,-0.06347799999999999,-0.020148,-0.050956,-0.014868000000000001,1.0,0.0,0.0,,,,,,,,,,,,,,,,,,,,,,,,,,,,,,,,0.0,0.0,1.0,0.0,512.0,0.7911100000000001,438.632996,107.33953100000001,84.18283100000001,22.471335999999997,26.463282,710.283691,1812.001709,2170.345215,301.36825600000003,182.92953500000002,431.48980700000004,427.08148200000005,574.836731,104.098228,108.487587,1.2146709999999998,1.178346,1.036306,0.21522399999999997,0.27481700000000003,185.710083,73.62293199999999,55.681084,34.886547,9.673044
20498,1650406463.445829,1650406463.478312,101.0,0.0,4350.769043,4651.282227000001,4306.666504,4275.897461,4194.871582,450.0,4.0,91.0,,,,0.0,2.0,0.0,0.0,0.0,0.0,0.0,,,,,,,,,,,,,,,,,,,,,,,,,,,,,,,,,,,,,,,,,,,,,,,,,,,,,,,,,,,,,,,,,,,,,,,,,,,,,,,,,,,,
20499,1650406463.453644,1650406463.486126,102.0,0.0,4412.307617,4425.128418,4324.615234000001,4281.538574,4175.384765999999,450.0,4.0,91.0,,,,0.0,2.0,0.0,0.0,0.0,0.0,0.0,,,,,,,,51.0,0.0,0.675946,0.584229,0.35449200000000003,-0.275879,0.819348,-0.5947359999999999,-0.053712,-0.019074,-0.050967,-0.016809,,,,,,,,,,,,,,,,,,,,,,,,,,,,,,,,,,,,,,,,,,,,,,,,,,,,,,,,,,,,,,,,,
20500,1650406463.461458,1650406463.493941,103.0,0.0,4387.179688,4416.922852000001,4312.820313,4285.128418,4161.538574,0.0,4.0,91.0,,,,0.0,2.0,0.0,0.0,0.0,0.0,0.0,,,,,,,,,,,,,,,,,,,,,,,,,,,,,,,,,,,,,,,,,,,,,,,,,,,,,,,,,,,,,,,,,,,,,,,,,,,,,,,,,,,,
20501,1650406463.469273,1650406463.501655,104.0,0.0,4284.615234000001,4352.820313,4453.846191,4286.666504,4160.512695,450.0,4.0,91.0,,,,0.0,2.0,0.0,0.0,0.0,0.0,0.0,,,,,,,,52.0,0.0,0.676157,0.5839840000000001,0.35449200000000003,-0.275879,0.805188,-0.6103609999999999,-0.06543099999999999,-0.017800999999999997,-0.050949,-0.017569,,,,,,,,,,,,,,,,,,,,,,,,,,,,,,,,,,,0.0,0.0,1.0,0.0,512.0,0.7911100000000001,,,,,,,,,,,,,,,,,,,,,,,,,
20502,1650406463.477087,1650406463.509469,105.0,0.0,4323.077147999999,4390.256348,4473.846191,4290.256348,4252.820313,450.0,4.0,91.0,,,,0.0,2.0,0.0,0.0,0.0,0.0,0.0,,,,,,,,,,,,,,,,,,,,,,,,,,,,,,,,,,,,,,,,,,,,,,,,,,,,,,,,,,,,,,,,,,,,,,,,,,,,,,,,,,,,
20503,1650406463.484902,1650406463.517184,106.0,0.0,4376.922852000001,4537.436035,4477.94873,4292.820313,4278.461426,450.0,4.0,91.0,,,,0.0,2.0,0.0,0.0,0.0,0.0,0.0,,,,,,,,53.0,0.0,0.676157,0.5839840000000001,0.35449200000000003,-0.275879,0.792004,-0.6049899999999999,-0.065919,-0.016656,-0.050981,-0.0184,,,,,,,,,,,,,,,,,,,,,,,,,,,,,,,,,,,,,,,,,,,,,,,,,,,,,,,,,,,,,,,,,
20504,1650406463.492716,1650406463.524998,107.0,0.0,4274.871582,4502.563965,4447.179688,4291.282227000001,4186.666504,0.0,4.0,91.0,,,,0.0,2.0,0.0,0.0,0.0,0.0,0.0,,,,,,,,,,,,,,,,,,,,,,,,,,,,,,,,,,,,,,,,,,,,,,,,,,,,,,,,,,,,,,,,,,,,,,,,,,,,,,,,,,,,
20505,1650406463.500531,1650406463.532712,108.0,0.0,4156.410156,4490.769043,4303.589844,4291.282227000001,4150.769043,450.0,4.0,91.0,,,,0.0,2.0,0.0,0.0,0.0,0.0,0.0,,,,,,,,54.0,0.0,0.676074,0.584229,0.354248,-0.275879,0.800793,-0.619638,-0.067872,-0.015674,-0.050961,-0.019099,,,,,,,,,,,,,,,,,,,,,,,,,,,,,,,,,,,0.0,0.0,1.0,0.0,512.0,0.7911100000000001,,,,,,,,,,,,,,,,,,,,,,,,,
20506,1650406463.508345,1650406463.540427,109.0,0.0,4205.128418,4560.512695,4195.897461,4294.871582,4211.794922,450.0,4.0,91.0,,,,0.0,2.0,0.0,0.0,0.0,0.0,0.0,,,,,,,,,,,,,,,,,,,,,,,,,,,,,,,,,,,,,,,,,,,,,,,,,,,,,,,,,,,,,,,,,,,,,,,,,,,,,,,,,,,,
20507,1650406463.51616,1650406463.548241,110.0,0.0,4244.102539,4645.128418,4268.205078,4295.897461,4229.743652,450.0,4.0,91.0,,,,0.0,2.0,0.0,0.0,0.0,0.0,0.0,,,,,,,,55.0,0.0,0.676074,0.584229,0.354248,-0.275879,0.804211,-0.595224,-0.06640700000000001,-0.016353,-0.050992,-0.016506,,,,,,,,,,,,,,,,,,,,,,,,,,,,,,,,,,,,,,,,,,,,,,,,,,,,,,,,,,,,,,,,,
20508,1650406463.523975,1650406463.5559561,111.0,0.0,4219.487305,4667.179688,4355.384765999999,4294.871582,4198.461426,0.0,4.0,91.0,,,,0.0,2.0,0.0,0.0,0.0,0.0,0.0,,,,,,,,,,,,,,,,,,,,,,,,,,,,,,,,,,,,,,,,,,,,,,,,,,,,,,,,,,,,,,,,,,,,,,,,,,,,,,,,,,,,
20509,1650406463.531789,1650406463.5637698,112.0,0.0,4250.256348,4665.641113000001,4117.94873,4295.384765999999,4230.256348,450.0,4.0,91.0,,,,0.0,2.0,0.0,0.0,0.0,0.0,0.0,,,,,,,,56.0,0.0,0.675974,0.584229,0.354248,-0.276123,0.802258,-0.593271,-0.05712999999999999,-0.015401,-0.050970999999999995,-0.017394,,,,,,,,,,,,,,,,,,,,,,,,,,,,,,,,,,,0.0,0.0,1.0,0.0,512.0,0.7911100000000001,,,,,,,,,,,,,,,,,,,,,,,,,
20510,1650406463.539604,1650406463.571485,113.0,0.0,4264.615234000001,4755.384765999999,4023.5898439999996,4294.358886999999,4255.897461,450.0,4.0,91.0,,,,0.0,2.0,0.0,0.0,0.0,0.0,0.0,,,,,,,,,,,,,,,,,,,,,,,,,,,,,,,,,,,,,,,,,,,,,,,,,,,,,,,,,,,,,,,,,,,,,,,,,,,,,,,,,,,,
20511,1650406463.5474179,1650406463.579299,114.0,0.0,4220.512695,4831.794922,4152.307617,4294.871582,4242.05127,450.0,4.0,91.0,,,,0.0,2.0,0.0,0.0,0.0,0.0,0.0,,,,,,,,57.0,0.0,0.6761020000000001,0.584229,0.354004,-0.276123,0.80177,-0.608896,-0.056152999999999995,-0.014593,-0.050952,-0.018144999999999998,,,,,,,,,,,,,,,,,,,,,,,,,,,,,,,,,,,,,,,,,,,,,,,,,,,,,,,,,,,,,,,,,
20512,1650406463.555233,1650406463.587014,115.0,0.0,4188.717772999999,4831.794922,4203.077147999999,4294.871582,4205.128418,0.0,4.0,91.0,,,,0.0,2.0,0.0,0.0,0.0,0.0,0.0,,,,,,,,,,,,,,,,,,,,,,,,,,,,,,,,,,,,,,,,,,,,,,,,,,,,,,,,,,,,,,,,,,,,,,,,,,,,,,,,,,,,
20513,1650406463.5630472,1650406463.594828,116.0,0.0,4215.897461,4765.128418,4209.743652,4296.410156,4194.871582,450.0,4.0,91.0,,,,0.0,2.0,0.0,0.0,0.0,0.0,0.0,,,,,,,,58.0,0.0,0.676003,0.584229,0.354004,-0.27636700000000003,0.813489,-0.607919,-0.069825,-0.015429,-0.050886,-0.018869999999999998,1.0,0.0,0.0,,,,,,,,,,,,,,,,,,,,,,,,,,,,,,,,0.0,0.0,32.0,0.01616,1.0,0.0,418.886871,98.206512,103.48558,23.095354,26.95516,491.599762,2101.446045,2579.167969,317.88903799999997,195.172531,339.601257,442.797882,623.006836,97.005936,106.815605,1.001328,1.2521520000000002,1.312816,0.24599899999999997,0.28581100000000004,179.09906,81.55547299999999,65.887291,40.17662,10.216553
20514,1650406463.5708618,1650406463.602542,117.0,0.0,4274.871582,4687.179688,4353.846191,4297.94873,4248.205078,450.0,4.0,91.0,,,,0.0,2.0,0.0,0.0,0.0,0.0,0.0,,,,,,,,,,,,,,,,,,,,,,,,,,,,,,,,,,,,,,,,,,,,,,,,,,,,,,,,,,,,,,,,,,,,,,,,,,,,,,,,,,,,
20515,1650406463.578676,1650406463.610357,118.0,0.0,4325.641113000001,4684.615234000001,4237.94873,4299.487305,4323.077147999999,450.0,4.0,91.0,,,,0.0,2.0,0.0,0.0,0.0,0.0,0.0,,,,,,,,59.0,0.0,0.676003,0.584229,0.354004,-0.27636700000000003,0.792004,-0.5971770000000001,-0.067872,-0.01623,-0.050876,-0.019424,,,,,,,,,,,,,,,,,,,,,,,,,,,,,,,,,,,,,,,,,,,,,,,,,,,,,,,,,,,,,,,,,
20516,1650406463.586491,1650406463.618071,119.0,0.0,4320.0,4770.769043,4133.846191,4298.974121,4337.436035,0.0,4.0,91.0,,,,0.0,2.0,0.0,0.0,0.0,0.0,0.0,,,,,,,,,,,,,,,,,,,,,,,,,,,,,,,,,,,,,,,,,,,,,,,,,,,,,,,,,,,,,,,,,,,,,,,,,,,,,,,,,,,,
20517,1650406463.594305,1650406463.625886,120.0,0.0,4331.282227000001,4769.230957,4244.102539,4296.410156,4330.769043,450.0,4.0,91.0,,,,0.0,2.0,0.0,0.0,0.0,0.0,0.0,,,,,,,,60.0,0.0,0.676114,0.5839840000000001,0.354004,-0.276611,0.808606,-0.6030369999999999,-0.072267,-0.015241999999999999,-0.050866,-0.019923,,,,,,,,,,,,,,,,,,,,,,,,,,,,,,,,,,,0.0,0.0,32.0,0.01616,1.0,0.0,,,,,,,,,,,,,,,,,,,,,,,,,
20518,1650406463.60212,1650406463.6336,121.0,0.0,4303.589844,4653.333496,4129.230957,4292.307617,4266.666504,450.0,4.0,91.0,,,,0.0,2.0,0.0,0.0,0.0,0.0,0.0,,,,,,,,,,,,,,,,,,,,,,,,,,,,,,,,,,,,,,,,,,,,,,,,,,,,,,,,,,,,,,,,,,,,,,,,,,,,,,,,,,,,
20519,1650406463.609934,1650406463.641315,122.0,0.0,4242.05127,4699.487305,4066.1538090000004,4292.307617,4234.358886999999,450.0,4.0,91.0,,,,0.0,2.0,0.0,0.0,0.0,0.0,0.0,,,,,,,,61.0,0.0,0.676114,0.5839840000000001,0.354004,-0.276611,0.800305,-0.5888760000000001,-0.062013,-0.015964,-0.050858,-0.017345,,,,,,,,,,,,,,,,,,,,,,,,,,,,,,,,,,,,,,,,,,,,,,,,,,,,,,,,,,,,,,,,,
20520,1650406463.617749,1650406463.649129,123.0,0.0,4233.333496,4874.871582,4282.05127,4297.436035,4292.820313,0.0,4.0,91.0,,,,0.0,2.0,0.0,0.0,0.0,0.0,0.0,,,,,,,,,,,,,,,,,,,,,,,,,,,,,,,,,,,,,,,,,,,,,,,,,,,,,,,,,,,,,,,,,,,,,,,,,,,,,,,,,,,,
20521,1650406463.625564,1650406463.656944,124.0,0.0,4270.256348,4848.717772999999,4290.256348,4300.512695,4325.641113000001,450.0,4.0,91.0,,,,0.0,2.0,0.0,0.0,0.0,0.0,0.0,,,,,,,,62.0,0.0,0.676114,0.5839840000000001,0.354004,-0.276611,0.808606,-0.601083,-0.063966,-0.015149000000000001,-0.05085,-0.018101,,,,,,,,,,,,,,,,,,,,,,,,,,,,,,,,,,,0.0,0.0,32.0,0.01616,1.0,0.0,,,,,,,,,,,,,,,,,,,,,,,,,
20522,1650406463.633378,1650406463.664658,125.0,0.0,4262.05127,4722.563965,4184.615234000001,4297.94873,4261.025879,450.0,4.0,91.0,,,,0.0,2.0,0.0,0.0,0.0,0.0,0.0,,,,,,,,,,,,,,,,,,,,,,,,,,,,,,,,,,,,,,,,,,,,,,,,,,,,,,,,,,,,,,,,,,,,,,,,,,,,,,,,,,,,
20523,1650406463.641193,1650406463.672472,126.0,0.0,4275.897461,4785.641113000001,4233.333496,4294.871582,4246.153809,450.0,4.0,91.0,,,,0.0,2.0,0.0,0.0,0.0,0.0,0.0,,,,,,,,63.0,0.0,0.676114,0.5839840000000001,0.354004,-0.276611,0.809094,-0.602548,-0.061524,-0.014366,-0.050697000000000006,-0.015656,,,,,,,,,,,,,,,,,,,,,,,,,,,,,,,,,,,,,,,,,,,,,,,,,,,,,,,,,,,,,,,,,
20524,1650406463.649007,1650406463.680186,127.0,0.0,4307.179688,4863.077147999999,4042.5642090000006,4294.871582,4260.0,242.0,4.0,91.0,,,,0.0,2.0,0.0,0.0,0.0,0.0,0.0,,,,,,,,,,,,,,,,,,,,,,,,,,,,,,,,,,,,,,,,,,,,,,,,,,,,,,,,,,,,,,,,,,,,,,,,,,,,,,,,,,,,
20525,1650406463.656822,1650406463.687901,0.0,0.0,4253.846191,4911.282227000001,3957.4357909999994,4294.871582,4249.743652,450.0,4.0,91.0,,,,0.0,2.0,0.0,0.0,0.0,0.0,0.0,,,,,,,,0.0,0.0,0.676114,0.5839840000000001,0.354004,-0.276611,0.8208129999999999,-0.606943,-0.062989,-0.013613,-0.050705,-0.016581,,,,,,,,,,,,,,,,,,,,,,,,,,,,,,,,,,,0.0,0.0,32.0,0.01616,1.0,0.0,,,,,,,,,,,,,,,,,,,,,,,,,
20526,1650406463.664636,1650406463.695715,1.0,0.0,4232.307617,4950.769043,4150.769043,4292.307617,4257.94873,450.0,4.0,91.0,,,,0.0,2.0,0.0,0.0,0.0,0.0,0.0,,,,,,,,,,,,,,,,,,,,,,,,,,,,,,,,,,,,,,,,,,,,,,,,,,,,,,,,,,,,,,,,,,,,,,,,,,,,,,,,,,,,
20527,1650406463.672451,1650406463.7034302,2.0,0.0,4280.512695,5031.282227000001,4161.025879,4290.769043,4276.922852000001,243.0,4.0,91.0,,,,0.0,2.0,0.0,0.0,0.0,0.0,0.0,,,,,,,,1.0,0.0,0.676241,0.5839840000000001,0.35375999999999996,-0.276611,0.800793,-0.59913,-0.06640700000000001,-0.012348999999999999,-0.050713,-0.017462000000000002,,,,,,,,,,,,,,,,,,,,,,,,,,,,,,,,,,,,,,,,,,,,,,,,,,,,,,,,,,,,,,,,,
20528,1650406463.680265,1650406463.7112439,3.0,0.0,4349.743652,5144.102539,4132.307617,4287.179688,4335.384765999999,450.0,4.0,91.0,,,,0.0,2.0,0.0,0.0,0.0,0.0,0.0,,,,,,,,,,,,,,,,,,,,,,,,,,,,,,,,,,,,,,,,,,,,,,,,,,,,,,,,,,,,,,,,,,,,,,,,,,,,,,,,,,,,
20529,1650406463.68808,1650406463.718959,4.0,0.0,4384.102539,5040.0,4183.077147999999,4280.0,4352.307617,0.0,4.0,91.0,,,,0.0,2.0,0.0,0.0,0.0,0.0,0.0,0.972656,0.0,0.0,0.0,0.0,0.0,0.0,2.0,0.0,0.676114,0.5839840000000001,0.354004,-0.276611,0.809094,-0.602548,-0.061524,-0.013312000000000001,-0.05072,-0.015031999999999998,1.0,0.0,0.0,,,,,,,,,,,,,,,,,,,,,,,,,,,,,,,,0.0,0.0,32.0,0.016778,1.0,0.0,357.84713700000003,93.230125,112.463089,23.426542,24.249952,417.87374900000003,2526.638672,2754.98999,311.694061,189.319244,274.08752400000003,460.14538600000003,629.039124,89.506218,97.749756,0.799551,1.388255,1.490309,0.257931,0.262023,159.31958,95.685349,71.35141,43.464581,10.226084
20530,1650406463.695894,1650406463.726773,5.0,0.0,4413.333496,4916.922852000001,4036.923096,4278.974121,4345.128418,450.0,4.0,91.0,,,,0.0,2.0,0.0,0.0,0.0,0.0,0.0,,,,,,,,,,,,,,,,,,,,,,,,,,,,,,,,,,,,,,,,,,,,,,,,,,,,,,,,,,,,,,,,,,,,,,,,,,,,,,,,,,,,
20531,1650406463.703709,1650406463.734488,6.0,0.0,4414.871582,4911.282227000001,4002.0512700000004,4285.128418,4339.487305,0.0,4.0,91.0,,,,0.0,2.0,0.0,0.0,0.0,0.0,0.0,,,,,,,,3.0,0.0,0.676241,0.5839840000000001,0.35375999999999996,-0.276611,0.800793,-0.59913,-0.06640700000000001,-0.012078,-0.050726,-0.016068,,,,,,,,,,,,,,,,,,,,,,,,,,,,,,,,,,,,,,,,,,,,,,,,,,,,,,,,,,,,,,,,,
20532,1650406463.711523,1650406463.742302,7.0,0.0,4403.589844,4983.589844,4154.358886999999,4287.179688,4350.256348,450.0,4.0,91.0,,,,0.0,2.0,0.0,0.0,0.0,0.0,0.0,,,,,,,,,,,,,,,,,,,,,,,,,,,,,,,,,,,,,,,,,,,,,,,,,,,,,,,,,,,,,,,,,,,,,,,,,,,,,,,,,,,,
20533,1650406463.7193382,1650406463.750016,8.0,0.0,4365.641113000001,4970.256348,4158.461426,4282.05127,4284.615234000001,450.0,4.0,91.0,,,,0.0,2.0,0.0,0.0,0.0,0.0,0.0,,,,,,,,4.0,0.0,0.676241,0.5839840000000001,0.35375999999999996,-0.276611,0.799817,-0.5971770000000001,-0.063966,-0.013116999999999998,-0.050732,-0.016951,,,,,,,,,,,,,,,,,,,,,,,,,,,,,,,,,,,0.0,0.0,32.0,0.016778,1.0,0.0,,,,,,,,,,,,,,,,,,,,,,,,,
20534,1650406463.7271519,1650406463.757831,9.0,0.0,4347.179688,5002.563965,4175.897461,4281.025879,4283.077147999999,0.0,4.0,91.0,,,,0.0,2.0,0.0,0.0,0.0,0.0,0.0,,,,,,,,,,,,,,,,,,,,,,,,,,,,,,,,,,,,,,,,,,,,,,,,,,,,,,,,,,,,,,,,,,,,,,,,,,,,,,,,,,,,
20535,1650406463.734967,1650406463.765545,10.0,0.0,4392.307617,4973.846191,4233.333496,4283.589844,4356.410156,450.0,4.0,91.0,,,,0.0,2.0,0.0,0.0,0.0,2.0,0.0,,,,,,,,5.0,0.0,0.676241,0.5839840000000001,0.35375999999999996,-0.276611,0.799817,-0.593759,-0.053712,-0.012537000000000001,-0.050786000000000005,-0.017795,,,,,,,,,,,,,,,,,,,,,,,,,,,,,,,,,,,,,,,,,,,,,,,,,,,,,,,,,,,,,,,,,
20536,1650406463.742782,1650406463.77336,11.0,0.0,4447.179688,4946.666504,4170.256348,4282.05127,4394.871582,300.0,4.0,91.0,,,,0.0,2.0,0.0,0.0,0.0,2.0,0.0,,,,,,,,,,,,,,,,,,,,,,,,,,,,,,,,,,,,,,,,,,,,,,,,,,,,,,,,,,,,,,,,,,,,,,,,,,,,,,,,,,,,
20537,1650406463.750596,1650406463.781074,12.0,0.0,4404.102539,4883.077147999999,4248.717772999999,4277.436035,4318.461426,450.0,4.0,91.0,,,,0.0,2.0,0.0,0.0,0.0,2.0,0.0,,,,,,,,6.0,0.0,0.676241,0.5839840000000001,0.35375999999999996,-0.276611,0.805188,-0.591806,-0.064454,-0.013627,-0.050785000000000004,-0.018604,,,,,,,,,,,,,,,,,,,,,,,,,,,,,,,,,,,0.0,0.0,32.0,0.016778,1.0,0.0,,,,,,,,,,,,,,,,,,,,,,,,,
20538,1650406463.758411,1650406463.7888892,13.0,0.0,4389.230957,4527.179688,4334.871582,4276.410156,4216.922852000001,450.0,4.0,91.0,,,,0.0,2.0,0.0,0.0,0.0,2.0,0.0,,,,,,,,,,,,,,,,,,,,,,,,,,,,,,,,,,,,,,,,,,,,,,,,,,,,,,,,,,,,,,,,,,,,,,,,,,,,,,,,,,,,
20539,1650406463.766225,1650406463.796603,14.0,0.0,4375.897461,4369.230957,4272.307617,4285.641113000001,4177.94873,450.0,4.0,91.0,,,,0.0,2.0,0.0,0.0,0.0,2.0,0.0,,,,,,,,7.0,0.0,0.676142,0.5839840000000001,0.35375999999999996,-0.276855,0.818372,-0.598154,-0.06347799999999999,-0.014462000000000001,-0.050834,-0.019234,,,,,,,,,,,,,,,,,,,,,,,,,,,,,,,,,,,,,,,,,,,,,,,,,,,,,,,,,,,,,,,,,
20540,1650406463.77404,1650406463.804418,15.0,0.0,4305.128418,4423.077147999999,4281.538574,4294.358886999999,4141.025879,300.0,4.0,91.0,,,,0.0,2.0,0.0,0.0,0.0,2.0,0.0,,,,,,,,,,,,,,,,,,,,,,,,,,,,,,,,,,,,,,,,,,,,,,,,,,,,,,,,,,,,,,,,,,,,,,,,,,,,,,,,,,,,
20541,1650406463.781854,1650406463.8121321,16.0,0.0,4246.153809,4325.128418,4313.846191,4295.897461,4137.436035,0.0,4.0,91.0,,,,0.0,2.0,0.0,0.0,0.0,2.0,0.0,,,,,,,,8.0,0.0,0.676142,0.5839840000000001,0.35375999999999996,-0.276855,0.803235,-0.60206,-0.072267,-0.013748,-0.050731,-0.019849000000000002,,,,,,,,,,,,,,,,,,,,,,,,,,,,,,,,,,,0.0,0.0,32.0,0.016778,1.0,0.0,,,,,,,,,,,,,,,,,,,,,,,,,
20542,1650406463.789669,1650406463.819947,17.0,0.0,4285.128418,4343.589844,4359.487305,4296.410156,4221.025879,0.0,4.0,91.0,,,,0.0,2.0,0.0,0.0,0.0,2.0,0.0,,,,,,,,,,,,,,,,,,,,,,,,,,,,,,,,,,,,,,,,,,,,,,,,,,,,,,,,,,,,,,,,,,,,,,,,,,,,,,,,,,,,
20543,1650406463.797483,1650406463.827661,18.0,0.0,4325.128418,4518.974121,4343.077147999999,4297.436035,4255.897461,0.0,4.0,91.0,,,,0.0,2.0,0.0,0.0,0.0,2.0,0.0,,,,,,,,9.0,0.0,0.676269,0.5839840000000001,0.353516,-0.276855,0.8047,-0.602548,-0.063966,-0.01462,-0.050834,-0.017278,,,,,,,,,,,,,,,,,,,,,,,,,,,,,,,,,,,,,,,,,,,,,,,,,,,,,,,,,,,,,,,,,
20544,1650406463.805298,1650406463.835475,19.0,0.0,4278.974121,4606.666504,4329.230957,4294.358886999999,4219.487305,0.0,4.0,91.0,,,,0.0,2.0,0.0,0.0,0.0,2.0,0.0,,,,,,,,,,,,,,,,,,,,,,,,,,,,,,,,,,,,,,,,,,,,,,,,,,,,,,,,,,,,,,,,,,,,,,,,,,,,,,,,,,,,
20545,1650406463.813112,1650406463.84319,20.0,0.0,4255.897461,4553.333496,4305.641113000001,4292.820313,4247.179688,0.0,4.0,91.0,,,,0.0,2.0,0.0,0.0,0.0,2.0,0.0,,,,,,,,10.0,0.0,0.676269,0.5839840000000001,0.353516,-0.276855,0.802747,-0.60206,-0.062989,-0.015404,-0.050731,-0.018040999999999998,1.0,0.0,0.0,,,,,,,,,,,,,,,,,,,,,,,,,,,,,,,,0.0,0.0,32.0,0.018675999999999998,1.0,0.0,275.302948,93.542061,107.239609,23.160149,19.434310999999997,524.657959,2969.31958,2621.942871,285.57070899999997,167.233597,261.398682,476.481262,583.880066,81.872704,84.05205500000001,0.651816,1.5369899999999999,1.504876,0.247914,0.21201,131.620224,109.756325,69.541962,44.119259,9.743563
20546,1650406463.820927,1650406463.851004,21.0,0.0,4268.205078,4608.205078,4333.333496,4294.358886999999,4254.871582,0.0,4.0,91.0,,,,0.0,2.0,0.0,0.0,0.0,2.0,0.0,,,,,,,,,,,,,,,,,,,,,,,,,,,,,,,,,,,,,,,,,,,,,,,,,,,,,,,,,,,,,,,,,,,,,,,,,,,,,,,,,,,,
20547,1650406463.828741,1650406463.858718,22.0,0.0,4288.205078,4561.538574,4283.077147999999,4295.384765999999,4201.538574,0.0,4.0,91.0,,,,0.0,2.0,0.0,0.0,0.0,2.0,0.0,,,,,,,,11.0,0.0,0.6761689999999999,0.5839840000000001,0.353516,-0.2771,0.8169069999999999,-0.604013,-0.076661,-0.013961000000000001,-0.050687,-0.018874000000000002,,,,,,,,,,,,,,,,,,,,,,,,,,,,,,,,,,,,,,,,,,,,,,,,,,,,,,,,,,,,,,,,,
20548,1650406463.836556,1650406463.866433,23.0,0.0,4277.94873,4447.692383,4316.410156,4295.897461,4214.871582,0.0,4.0,91.0,,,,0.0,2.0,0.0,0.0,0.0,2.0,0.0,,,,,,,,,,,,,,,,,,,,,,,,,,,,,,,,,,,,,,,,,,,,,,,,,,,,,,,,,,,,,,,,,,,,,,,,,,,,,,,,,,,,
20549,1650406463.84437,1650406463.874247,24.0,0.0,4301.538574,4471.282227000001,4280.0,4297.436035,4270.769043,0.0,4.0,91.0,,,,0.0,2.0,0.0,0.0,0.0,2.0,0.0,,,,,,,,12.0,0.0,0.6761689999999999,0.5839840000000001,0.353516,-0.2771,0.814466,-0.5927819999999999,-0.082521,-0.014909,-0.050745,-0.016350999999999997,,,,,,,,,,,,,,,,,,,,,,,,,,,,,,,,,,,0.0,0.0,32.0,0.018675999999999998,1.0,0.0,,,,,,,,,,,,,,,,,,,,,,,,,
20550,1650406463.852185,1650406463.8819618,25.0,0.0,4302.05127,4580.0,4221.538574,4295.897461,4245.128418,0.0,4.0,91.0,,,,0.0,2.0,0.0,0.0,0.0,2.0,0.0,,,,,,,,,,,,,,,,,,,,,,,,,,,,,,,,,,,,,,,,,,,,,,,,,,,,,,,,,,,,,,,,,,,,,,,,,,,,,,,,,,,,
20551,1650406463.86,1650406463.889776,26.0,0.0,4297.94873,4546.666504,4290.769043,4294.871582,4234.871582,0.0,4.0,91.0,,,,0.0,2.0,0.0,0.0,0.0,2.0,0.0,,,,,,,,13.0,0.0,0.676269,0.5839840000000001,0.353516,-0.276855,0.8139770000000001,-0.606943,-0.06640700000000001,-0.015663999999999997,-0.050847,-0.017304,,,,,,,,,,,,,,,,,,,,,,,,,,,,,,,,,,,,,,,,,,,,,,,,,,,,,,,,,,,,,,,,,
20552,1650406463.867814,1650406463.897491,27.0,0.0,4299.487305,4513.846191,4228.717772999999,4291.794922,4229.743652,0.0,4.0,91.0,,,,0.0,2.0,0.0,0.0,0.0,2.0,0.0,,,,,,,,,,,,,,,,,,,,,,,,,,,,,,,,,,,,,,,,,,,,,,,,,,,,,,,,,,,,,,,,,,,,,,,,,,,,,,,,,,,,
20553,1650406463.875629,1650406463.9053051,28.0,0.0,4252.820313,4661.025879,4213.846191,4292.307617,4200.0,0.0,4.0,91.0,,,,0.0,2.0,0.0,0.0,0.0,2.0,0.0,,,,,,,,14.0,0.0,0.6761689999999999,0.5839840000000001,0.353516,-0.2771,0.810559,-0.601083,-0.065919,-0.016344,-0.050839999999999996,-0.014939,,,,,,,,,,,,,,,,,,,,,,,,,,,,,,,,,,,0.0,0.0,32.0,0.018675999999999998,1.0,0.0,,,,,,,,,,,,,,,,,,,,,,,,,
20554,1650406463.8834429,1650406463.913019,29.0,0.0,4183.077147999999,4725.641113000001,4281.538574,4295.897461,4185.128418,0.0,4.0,91.0,,,,0.0,2.0,0.0,0.0,0.0,2.0,0.0,,,,,,,,,,,,,,,,,,,,,,,,,,,,,,,,,,,,,,,,,,,,,,,,,,,,,,,,,,,,,,,,,,,,,,,,,,,,,,,,,,,,
20555,1650406463.891258,1650406463.920834,30.0,0.0,4188.205078,4727.692383,4210.256348,4295.897461,4216.410156,0.0,4.0,91.0,,,,0.0,2.0,0.0,0.0,0.0,2.0,0.0,,,,,,,,15.0,0.0,0.6761689999999999,0.5839840000000001,0.353516,-0.2771,0.803723,-0.607431,-0.061524,-0.015441999999999999,-0.050981,-0.016131,,,,,,,,,,,,,,,,,,,,,,,,,,,,,,,,,,,,,,,,,,,,,,,,,,,,,,,,,,,,,,,,,
20556,1650406463.8990722,1650406463.928648,31.0,0.0,4253.846191,4793.846191,4151.282227000001,4295.384765999999,4241.025879,0.0,4.0,91.0,,,,0.0,2.0,0.0,0.0,0.0,2.0,0.0,,,,,,,,,,,,,,,,,,,,,,,,,,,,,,,,,,,,,,,,,,,,,,,,,,,,,,,,,,,,,,,,,,,,,,,,,,,,,,,,,,,,
20557,1650406463.9068868,1650406463.936363,32.0,0.0,4277.436035,4943.077147999999,4183.077147999999,4296.410156,4252.307617,0.0,4.0,91.0,,,,0.0,2.0,0.0,0.0,0.0,2.0,0.0,,,,,,,,16.0,0.0,0.6761689999999999,0.5839840000000001,0.353516,-0.2771,0.80177,-0.606943,-0.069337,-0.013946,-0.050961,-0.017154,,,,,,,,,,,,,,,,,,,,,,,,,,,,,,,,,,,0.0,0.0,32.0,0.018675999999999998,1.0,0.0,,,,,,,,,,,,,,,,,,,,,,,,,
20558,1650406463.914701,1650406463.944077,33.0,0.0,4270.769043,5054.358886999999,4010.256348,4291.794922,4269.230957,0.0,4.0,91.0,,,,0.0,2.0,0.0,0.0,0.0,2.0,0.0,,,,,,,,,,,,,,,,,,,,,,,,,,,,,,,,,,,,,,,,,,,,,,,,,,,,,,,,,,,,,,,,,,,,,,,,,,,,,,,,,,,,
20559,1650406463.922516,1650406463.951891,34.0,0.0,4277.94873,5027.692383,3970.256348,4285.128418,4251.282227000001,0.0,4.0,91.0,,,,0.0,2.0,0.0,0.0,0.0,2.0,0.0,,,,,,,,17.0,0.0,0.67628,0.5837399999999999,0.353516,-0.277344,0.8012819999999999,-0.604013,-0.067872,-0.014797999999999999,-0.050845999999999995,-0.017978,,,,,,,,,,,,,,,,,,,,,,,,,,,,,,,,,,,,,,,,,,,,,,,,,,,,,,,,,,,,,,,,,
20560,1650406463.93033,1650406463.9596062,35.0,0.0,4337.94873,4962.563965,4182.563965,4282.05127,4236.922852000001,0.0,4.0,91.0,,,,0.0,2.0,0.0,0.0,0.0,2.0,0.0,,,,,,,,,,,,,,,,,,,,,,,,,,,,,,,,,,,,,,,,,,,,,,,,,,,,,,,,,,,,,,,,,,,,,,,,,,,,,,,,,,,,
20561,1650406463.938145,1650406463.96732,36.0,0.0,4378.461426,4855.384765999999,4243.589844,4278.461426,4223.589844,0.0,4.0,91.0,,,,0.0,2.0,0.0,0.0,0.0,2.0,0.0,,,,,,,,18.0,0.0,0.676197,0.5839840000000001,0.353271,-0.277344,0.8076300000000001,-0.610849,-0.069825,-0.015563999999999998,-0.050888,-0.015594,1.0,0.0,0.0,,,,,,,,,,,,,,,,,,,,,,,,,,,,,,,,0.0,0.0,32.0,0.021044,1.0,0.0,197.16153,97.038872,89.56156899999999,22.362807999999998,14.312807000000001,783.0643309999999,3259.249268,2210.4111329999996,246.465698,136.10038799999998,307.27475,483.355774,492.78506500000003,75.405479,70.500664,0.5860479999999999,1.621337,1.3516489999999999,0.22041,0.152895,102.452156,116.71066299999998,60.28544599999999,42.315037,9.044448
20562,1650406463.945959,1650406463.9751348,37.0,0.0,4422.05127,4755.384765999999,4284.615234000001,4276.922852000001,4237.436035,0.0,4.0,91.0,,,,0.0,2.0,0.0,0.0,0.0,2.0,0.0,,,,,,,,,,,,,,,,,,,,,,,,,,,,,,,,,,,,,,,,,,,,,,,,,,,,,,,,,,,,,,,,,,,,,,,,,,,,,,,,,,,,
20563,1650406463.953774,1650406463.982949,38.0,0.0,4443.589844,4609.230957,4358.461426,4278.974121,4228.205078,0.0,4.0,91.0,,,,0.0,2.0,0.0,0.0,0.0,2.0,0.0,,,,,,,,19.0,0.0,0.676197,0.5839840000000001,0.353271,-0.277344,0.807141,-0.589853,-0.065919,-0.016205,-0.050975,-0.016574000000000002,,,,,,,,,,,,,,,,,,,,,,,,,,,,,,,,,,,,,,,,,,,,,,,,,,,,,,,,,,,,,,,,,
20564,1650406463.961589,1650406463.990664,39.0,0.0,4414.358886999999,4551.794922,4297.436035,4279.487305,4234.358886999999,0.0,4.0,91.0,,,,0.0,2.0,0.0,0.0,0.0,2.0,0.0,,,,,,,,,,,,,,,,,,,,,,,,,,,,,,,,,,,,,,,,,,,,,,,,,,,,,,,,,,,,,,,,,,,,,,,,,,,,,,,,,,,,
20565,1650406463.969403,1650406463.998378,40.0,0.0,4348.717772999999,4539.487305,4294.358886999999,4278.461426,4203.077147999999,0.0,4.0,91.0,,,,0.0,2.0,0.0,0.0,0.0,2.0,0.0,,,,,,,,20.0,0.0,0.676197,0.5839840000000001,0.353271,-0.277344,0.810559,-0.601083,-0.06347799999999999,-0.016782,-0.050907,-0.017456,,,,,,,,,,,,,,,,,,,,,,,,,,,,,,,,,,,0.0,0.0,32.0,0.021044,1.0,0.0,,,,,,,,,,,,,,,,,,,,,,,,,
20566,1650406463.977218,1650406464.006193,41.0,0.0,4356.410156,4551.794922,4331.794922,4281.538574,4166.666504,0.0,4.0,91.0,,,,0.0,2.0,0.0,0.0,0.0,2.0,0.0,,,,,,,,,,,,,,,,,,,,,,,,,,,,,,,,,,,,,,,,,,,,,,,,,,,,,,,,,,,,,,,,,,,,,,,,,,,,,,,,,,,,
20567,1650406463.985032,1650406464.013907,42.0,0.0,4380.512695,4478.461426,4293.333496,4285.128418,4145.128418,0.0,4.0,91.0,,,,0.0,2.0,0.0,0.0,0.0,2.0,0.0,,,,,,,,21.0,0.0,0.676197,0.5839840000000001,0.353271,-0.277344,0.792981,-0.607919,-0.07422000000000001,-0.017496,-0.050943,-0.0182,,,,,,,,,,,,,,,,,,,,,,,,,,,,,,,,,,,,,,,,,,,,,,,,,,,,,,,,,,,,,,,,,
20568,1650406463.992847,1650406464.021722,43.0,0.0,4365.641113000001,4349.743652,4286.153809,4284.102539,4156.922852000001,0.0,4.0,91.0,,,,0.0,2.0,0.0,0.0,0.0,2.0,0.0,,,,,,,,,,,,,,,,,,,,,,,,,,,,,,,,,,,,,,,,,,,,,,,,,,,,,,,,,,,,,,,,,,,,,,,,,,,,,,,,,,,,
20569,1650406464.000661,1650406464.029536,44.0,0.0,4304.102539,4347.692383,4463.589844,4285.641113000001,4150.256348,0.0,4.0,91.0,,,,0.0,2.0,0.0,0.0,0.0,2.0,0.0,,,,,,,,22.0,0.0,0.676096,0.5839840000000001,0.353271,-0.277588,0.8056760000000001,-0.597665,-0.058106,-0.017993000000000002,-0.050927,-0.018822,,,,,,,,,,,,,,,,,,,,,,,,,,,,,,,,,,,0.0,0.0,32.0,0.021044,1.0,0.0,,,,,,,,,,,,,,,,,,,,,,,,,
20570,1650406464.008476,1650406464.03725,45.0,0.0,4320.0,4294.871582,4540.0,4290.769043,4156.922852000001,0.0,4.0,91.0,,,,0.0,2.0,0.0,0.0,0.0,2.0,0.0,,,,,,,,,,,,,,,,,,,,,,,,,,,,,,,,,,,,,,,,,,,,,,,,,,,,,,,,,,,,,,,,,,,,,,,,,,,,,,,,,,,,
20571,1650406464.01629,1650406464.044965,46.0,0.0,4338.974121,4378.461426,4383.589844,4292.820313,4178.974121,0.0,4.0,91.0,,,,0.0,2.0,0.0,0.0,0.0,2.0,0.0,,,,,,,,23.0,0.0,0.676096,0.5839840000000001,0.353271,-0.277588,0.800305,-0.600595,-0.066896,-0.016975,-0.050961,-0.019479,,,,,,,,,,,,,,,,,,,,,,,,,,,,,,,,,,,,,,,,,,,,,,,,,,,,,,,,,,,,,,,,,
20572,1650406464.024105,1650406464.052779,47.0,0.0,4255.897461,4554.358886999999,4329.743652,4291.282227000001,4164.102539,0.0,4.0,91.0,,,,0.0,2.0,0.0,0.0,0.0,2.0,0.0,,,,,,,,,,,,,,,,,,,,,,,,,,,,,,,,,,,,,,,,,,,,,,,,,,,,,,,,,,,,,,,,,,,,,,,,,,,,,,,,,,,,
20573,1650406464.031919,1650406464.0605938,48.0,0.0,4203.589844,4489.743652,4360.0,4293.846191,4171.282227000001,0.0,4.0,91.0,,,,0.0,2.0,0.0,0.0,0.0,2.0,0.0,,,,,,,,24.0,0.0,0.676307,0.5837399999999999,0.353271,-0.277588,0.8061649999999999,-0.612314,-0.06640700000000001,-0.016059,-0.050992,-0.020021,,,,,,,,,,,,,,,,,,,,,,,,,,,,,,,,,,,0.0,0.0,32.0,0.021044,1.0,0.0,,,,,,,,,,,,,,,,,,,,,,,,,
20574,1650406464.039734,1650406464.068308,49.0,0.0,4255.897461,4358.461426,4315.897461,4296.922852000001,4169.230957,0.0,4.0,91.0,,,,0.0,2.0,0.0,0.0,0.0,2.0,0.0,,,,,,,,,,,,,,,,,,,,,,,,,,,,,,,,,,,,,,,,,,,,,,,,,,,,,,,,,,,,,,,,,,,,,,,,,,,,,,,,,,,,
20575,1650406464.047548,1650406464.0760221,50.0,0.0,4268.717772999999,4400.512695,4239.487305,4297.436035,4150.769043,0.0,4.0,91.0,,,,0.0,2.0,0.0,0.0,0.0,2.0,0.0,,,,,,,,25.0,0.0,0.676307,0.5837399999999999,0.353271,-0.277588,0.8047,-0.617197,-0.067384,-0.016748,-0.051019999999999996,-0.017482,,,,,,,,,,,,,,,,,,,,,,,,,,,,,,,,,,,,,,,,,,,,,,,,,,,,,,,,,,,,,,,,,
20576,1650406464.0553632,1650406464.083837,51.0,0.0,4231.794922,4494.358886999999,4348.717772999999,4295.897461,4179.487305,0.0,4.0,91.0,,,,0.0,2.0,0.0,0.0,0.0,2.0,0.0,,,,,,,,,,,,,,,,,,,,,,,,,,,,,,,,,,,,,,,,,,,,,,,,,,,,,,,,,,,,,,,,,,,,,,,,,,,,,,,,,,,,
20577,1650406464.0631769,1650406464.091651,52.0,0.0,4280.0,4546.666504,4227.179688,4295.897461,4254.871582,0.0,4.0,91.0,,,,0.0,2.0,0.0,0.0,0.0,2.0,0.0,,,,,,,,26.0,0.0,0.676207,0.5837399999999999,0.353271,-0.277832,0.809094,-0.602548,-0.070314,-0.017368,-0.050948,-0.018272999999999998,1.0,0.0,0.0,,,,,,,,,,,,,,,,,,,,,,,,,,,,,,,,0.0,0.0,32.0,0.02112,1.0,0.0,143.78333999999998,99.76655600000001,65.566856,21.424417000000002,10.441092999999999,1123.8598630000001,3266.75,1648.929932,204.06546,104.490326,393.634247,471.48980700000004,375.754761,71.605255,61.148136,0.617596,1.5756809999999999,1.086482,0.186277,0.101768,78.723145,112.273476,46.240452000000005,39.024006,8.438317999999999
20578,1650406464.070992,1650406464.099366,53.0,0.0,4311.282227000001,4690.769043,4145.128418,4296.410156,4285.641113000001,0.0,4.0,91.0,,,,0.0,2.0,0.0,0.0,0.0,2.0,0.0,,,,,,,,,,,,,,,,,,,,,,,,,,,,,,,,,,,,,,,,,,,,,,,,,,,,,,,,,,,,,,,,,,,,,,,,,,,,,,,,,,,,
20579,1650406464.078807,1650406464.10708,54.0,0.0,4289.230957,4692.820313,4195.384765999999,4296.410156,4276.410156,0.0,4.0,91.0,,,,0.0,2.0,0.0,0.0,0.0,2.0,0.0,,,,,,,,27.0,0.0,0.676207,0.5837399999999999,0.353271,-0.277832,0.803723,-0.605478,-0.072755,-0.017925999999999997,-0.051029000000000005,-0.015762,,,,,,,,,,,,,,,,,,,,,,,,,,,,,,,,,,,,,,,,,,,,,,,,,,,,,,,,,,,,,,,,,
20580,1650406464.086621,1650406464.114795,55.0,0.0,4270.769043,4616.410156,4070.256348,4292.307617,4244.615234000001,0.0,4.0,91.0,,,,0.0,2.0,0.0,0.0,0.0,2.0,0.0,,,,,,,,,,,,,,,,,,,,,,,,,,,,,,,,,,,,,,,,,,,,,,,,,,,,,,,,,,,,,,,,,,,,,,,,,,,,,,,,,,,,
20581,1650406464.094436,1650406464.122609,56.0,0.0,4255.384765999999,4760.512695,4090.7692869999996,4292.820313,4242.563965,0.0,4.0,91.0,,,,0.0,2.0,0.0,0.0,0.0,2.0,0.0,,,,,,,,28.0,0.0,0.676107,0.5837399999999999,0.353271,-0.27807600000000005,0.7983520000000001,-0.605478,-0.06836,-0.016817,-0.050906,-0.016725,,,,,,,,,,,,,,,,,,,,,,,,,,,,,,,,,,,0.0,0.0,32.0,0.02112,1.0,0.0,,,,,,,,,,,,,,,,,,,,,,,,,
20582,1650406464.10225,1650406464.130423,57.0,0.0,4256.410156,4954.871582,4308.205078,4294.358886999999,4272.820313,0.0,4.0,91.0,,,,0.0,2.0,0.0,0.0,0.0,2.0,0.0,,,,,,,,,,,,,,,,,,,,,,,,,,,,,,,,,,,,,,,,,,,,,,,,,,,,,,,,,,,,,,,,,,,,,,,,,,,,,,,,,,,,
20583,1650406464.110065,1650406464.138138,58.0,0.0,4317.94873,4903.589844,4137.94873,4293.846191,4298.974121,0.0,4.0,91.0,,,,0.0,2.0,0.0,0.0,0.0,2.0,0.0,,,,,,,,29.0,0.0,0.676107,0.5837399999999999,0.353271,-0.27807600000000005,0.818372,-0.599619,-0.07128999999999999,-0.01743,-0.050894,-0.017543,,,,,,,,,,,,,,,,,,,,,,,,,,,,,,,,,,,,,,,,,,,,,,,,,,,,,,,,,,,,,,,,,
20584,1650406464.117879,1650406464.145952,59.0,0.0,4314.358886999999,4800.0,3991.794922,4295.384765999999,4285.128418,0.0,4.0,91.0,,,,0.0,2.0,0.0,0.0,0.0,2.0,0.0,,,,,,,,,,,,,,,,,,,,,,,,,,,,,,,,,,,,,,,,,,,,,,,,,,,,,,,,,,,,,,,,,,,,,,,,,,,,,,,,,,,,
20585,1650406464.125694,1650406464.153667,60.0,0.0,4269.230957,4777.94873,4252.307617,4294.358886999999,4255.384765999999,0.0,4.0,91.0,,,,0.0,2.0,0.0,0.0,0.0,2.0,0.0,,,,,,,,30.0,0.0,0.676207,0.5837399999999999,0.353271,-0.277832,0.803723,-0.605478,-0.072755,-0.017981999999999998,-0.050980000000000004,-0.015105,,,,,,,,,,,,,,,,,,,,,,,,,,,,,,,,,,,0.0,0.0,32.0,0.02112,1.0,0.0,,,,,,,,,,,,,,,,,,,,,,,,,
20586,1650406464.133508,1650406464.1614811,61.0,0.0,4250.256348,4735.384765999999,4139.487305,4289.230957,4193.333496,0.0,4.0,91.0,,,,0.0,2.0,0.0,0.0,0.0,2.0,0.0,,,,,,,,,,,,,,,,,,,,,,,,,,,,,,,,,,,,,,,,,,,,,,,,,,,,,,,,,,,,,,,,,,,,,,,,,,,,,,,,,,,,
20587,1650406464.141323,1650406464.1691961,62.0,0.0,4213.846191,4764.615234000001,3948.718018,4291.282227000001,4169.743652,0.0,4.0,91.0,,,,0.0,2.0,0.0,0.0,0.0,2.0,0.0,,,,,,,,31.0,0.0,0.676107,0.5837399999999999,0.353271,-0.27807600000000005,0.818372,-0.599619,-0.07128999999999999,-0.018479,-0.050961,-0.016085,,,,,,,,,,,,,,,,,,,,,,,,,,,,,,,,,,,,,,,,,,,,,,,,,,,,,,,,,,,,,,,,,
20588,1650406464.149137,1650406464.17701,63.0,0.0,4183.077147999999,4931.282227000001,4184.102539,4296.410156,4218.461426,0.0,4.0,91.0,,,,0.0,2.0,0.0,0.0,0.0,2.0,0.0,,,,,,,,,,,,,,,,,,,,,,,,,,,,,,,,,,,,,,,,,,,,,,,,,,,,,,,,,,,,,,,,,,,,,,,,,,,,,,,,,,,,
20589,1650406464.156952,1650406464.184725,64.0,0.0,4241.025879,4967.179688,4208.717772999999,4293.846191,4246.153809,450.0,4.0,91.0,,,,0.0,2.0,0.0,0.0,0.0,2.0,0.0,,,,,,,,32.0,0.0,0.675979,0.5837399999999999,0.353516,-0.27807600000000005,0.819837,-0.591806,-0.06836,-0.018975,-0.050991,-0.016869,,,,,,,,,,,,,,,,,,,,,,,,,,,,,,,,,,,0.0,0.0,32.0,0.02112,1.0,0.0,,,,,,,,,,,,,,,,,,,,,,,,,
20590,1650406464.164766,1650406464.192539,65.0,0.0,4282.05127,4847.692383,4112.307617,4293.846191,4233.846191,450.0,4.0,91.0,,,,0.0,2.0,0.0,0.0,0.0,2.0,0.0,,,,,,,,,,,,,,,,,,,,,,,,,,,,,,,,,,,,,,,,,,,,,,,,,,,,,,,,,,,,,,,,,,,,,,,,,,,,,,,,,,,,
20591,1650406464.172581,1650406464.200254,66.0,0.0,4253.333496,4822.05127,4282.05127,4296.922852000001,4222.05127,0.0,4.0,91.0,,,,0.0,0.0,0.0,0.0,0.0,2.0,0.0,,,,,,,,33.0,0.0,0.675979,0.5837399999999999,0.353516,-0.27807600000000005,0.8056760000000001,-0.585458,-0.055665,-0.019323,-0.051068,-0.014644999999999998,,,,,,,,,,,,,,,,,,,,,,,,,,,,,,,,,,,,,,,,,,,,,,,,,,,,,,,,,,,,,,,,,
20592,1650406464.180395,1650406464.208068,67.0,0.0,4272.307617,4796.922852000001,4126.153809,4295.384765999999,4233.333496,450.0,4.0,91.0,,,,0.0,0.0,0.0,0.0,0.0,2.0,0.0,,,,,,,,,,,,,,,,,,,,,,,,,,,,,,,,,,,,,,,,,,,,,,,,,,,,,,,,,,,,,,,,,,,,,,,,,,,,,,,,,,,,
20593,1650406464.18821,1650406464.215782,68.0,0.0,4273.333496,4736.922852000001,3989.743652,4291.794922,4236.922852000001,313.0,4.0,91.0,,,,0.0,0.0,2.0,0.0,0.0,2.0,0.0,0.980469,0.0,0.0,0.0,0.0,0.0,0.0,34.0,0.0,0.67629,0.583496,0.353516,-0.277832,0.8061649999999999,-0.5888760000000001,-0.072267,-0.019637,-0.051088,-0.015671,1.0,0.0,0.0,,,,,,,,,,,,,,,,,,,,,,,,,,,,,,,,0.0,0.0,32.0,0.021259,1.0,0.0,122.59787800000001,98.529922,42.665318,20.788059,8.46318,1470.376221,2949.451416,1102.2073970000001,166.38738999999998,78.89263199999999,489.40460199999995,432.80722000000003,261.067413,70.559303,57.312199,0.7479939999999999,1.3822219999999998,0.798113,0.155507,0.068185,64.05899000000001,96.861961,31.520403,35.322014,8.088146
20594,1650406464.196025,1650406464.2234972,69.0,0.0,4246.666504,4762.05127,4170.769043,4293.333496,4258.461426,450.0,4.0,91.0,,,,0.0,0.0,2.0,2.0,0.0,2.0,16.666666,,,,,,,,,,,,,,,,,,,,,,,,,,,,,,,,,,,,,,,,,,,,,,,,,,,,,,,,,,,,,,,,,,,,,,,,,,,,,,,,,,,,
20595,1650406464.203839,1650406464.2313108,70.0,0.0,4211.282227000001,4823.589844,4130.256348,4294.358886999999,4253.846191,248.0,4.0,91.0,,,,0.0,0.0,2.0,2.0,0.0,2.0,16.666666,,,,,,,,35.0,0.0,0.67629,0.583496,0.353516,-0.277832,0.818372,-0.598642,-0.085939,-0.018455000000000003,-0.051058,-0.016643,,,,,,,,,,,,,,,,,,,,,,,,,,,,,,,,,,,,,,,,,,,,,,,,,,,,,,,,,,,,,,,,,
20596,1650406464.211654,1650406464.239126,71.0,0.0,4195.384765999999,4865.641113000001,4092.3076170000004,4295.384765999999,4228.205078,450.0,4.0,91.0,,,,0.0,0.0,2.0,2.0,0.0,2.0,16.666666,,,,,,,,,,,,,,,,,,,,,,,,,,,,,,,,,,,,,,,,,,,,,,,,,,,,,,,,,,,,,,,,,,,,,,,,,,,,,,,,,,,,
20597,1650406464.2194679,1650406464.24684,72.0,0.0,4207.179688,4880.0,4318.461426,4294.871582,4234.871582,450.0,4.0,91.0,,,,0.0,0.0,2.0,2.0,0.0,2.0,16.666666,,,,,,,,36.0,0.0,0.67629,0.583496,0.353516,-0.277832,0.7954220000000001,-0.608896,-0.055177,-0.018904,-0.051079,-0.017469,,,,,,,,,,,,,,,,,,,,,,,,,,,,,,,,,,,0.0,0.0,32.0,0.021259,1.0,0.0,,,,,,,,,,,,,,,,,,,,,,,,,
20598,1650406464.227283,1650406464.254555,73.0,0.0,4273.333496,4878.974121,4204.615234000001,4294.358886999999,4312.820313,0.0,4.0,91.0,,,,0.0,0.0,2.0,2.0,0.0,2.0,16.666666,,,,,,,,,,,,,,,,,,,,,,,,,,,,,,,,,,,,,,,,,,,,,,,,,,,,,,,,,,,,,,,,,,,,,,,,,,,,,,,,,,,,
20599,1650406464.2350972,1650406464.262369,74.0,0.0,4326.666504,4855.897461,3958.461426,4291.794922,4323.589844,450.0,4.0,91.0,,,,0.0,0.0,2.0,2.0,0.0,2.0,16.666666,,,,,,,,37.0,0.0,0.67629,0.583496,0.353516,-0.277832,0.808606,-0.605966,-0.06884900000000001,-0.01926,-0.051,-0.015136000000000002,,,,,,,,,,,,,,,,,,,,,,,,,,,,,,,,,,,,,,,,,,,,,,,,,,,,,,,,,,,,,,,,,
20600,1650406464.2429118,1650406464.270083,75.0,0.0,4338.461426,4933.846191,4067.179443,4291.282227000001,4313.333496,0.0,4.0,91.0,,,,0.0,0.0,2.0,2.0,0.0,0.0,0.0,,,,,,,,,,,,,,,,,,,,,,,,,,,,,,,,,,,,,,,,,,,,,,,,,,,,,,,,,,,,,,,,,,,,,,,,,,,,,,,,,,,,
20601,1650406464.250726,1650406464.277898,76.0,0.0,4291.794922,4976.410156,4085.1281740000004,4290.256348,4283.589844,450.0,4.0,91.0,,,,0.0,0.0,2.0,2.0,0.0,0.0,0.0,,,,,,,,38.0,0.0,0.67629,0.583496,0.353516,-0.277832,0.792004,-0.605966,-0.063966,-0.01958,-0.050832,-0.013134,,,,,,,,,,,,,,,,,,,,,,,,,,,,,,,,,,,0.0,0.0,32.0,0.021259,1.0,0.0,,,,,,,,,,,,,,,,,,,,,,,,,
20602,1650406464.258541,1650406464.285712,77.0,0.0,4280.512695,4980.512695,4045.1281740000004,4280.512695,4241.538574,450.0,4.0,91.0,,,,0.0,0.0,2.0,2.0,0.0,0.0,0.0,,,,,,,,,,,,,,,,,,,,,,,,,,,,,,,,,,,,,,,,,,,,,,,,,,,,,,,,,,,,,,,,,,,,,,,,,,,,,,,,,,,,
20603,1650406464.266355,1650406464.293427,78.0,0.0,4350.256348,4756.922852000001,4318.974121,4275.897461,4218.461426,450.0,4.0,91.0,,,,0.0,0.0,2.0,2.0,0.0,0.0,0.0,,,,,,,,39.0,0.0,0.6763170000000001,0.583496,0.353271,-0.27807600000000005,0.803235,-0.589364,-0.06836,-0.018306,-0.050729,-0.014262,,,,,,,,,,,,,,,,,,,,,,,,,,,,,,,,,,,,,,,,,,,,,,,,,,,,,,,,,,,,,,,,,
20604,1650406464.27417,1650406464.301141,79.0,0.0,4414.871582,4281.538574,4517.436035,4282.05127,4220.512695,0.0,4.0,91.0,,,,0.0,0.0,2.0,2.0,0.0,0.0,0.0,,,,,,,,,,,,,,,,,,,,,,,,,,,,,,,,,,,,,,,,,,,,,,,,,,,,,,,,,,,,,,,,,,,,,,,,,,,,,,,,,,,,
20605,1650406464.281984,1650406464.3089552,80.0,0.0,4364.615234000001,4167.692383,4417.94873,4286.153809,4194.358886999999,450.0,4.0,91.0,,,,0.0,0.0,2.0,2.0,0.0,0.0,0.0,,,,,,,,40.0,0.0,0.6763170000000001,0.583496,0.353271,-0.27807600000000005,0.797375,-0.58497,-0.07470800000000001,-0.018819,-0.050735,-0.012152,,,,,,,,,,,,,,,,,,,,,,,,,,,,,,,,,,,0.0,0.0,32.0,0.021259,1.0,0.0,,,,,,,,,,,,,,,,,,,,,,,,,
20606,1650406464.289799,1650406464.31667,81.0,0.0,4260.512695,4437.436035,4425.641113000001,4288.205078,4167.179688,450.0,4.0,91.0,,,,0.0,0.0,2.0,2.0,0.0,0.0,0.0,,,,,,,,,,,,,,,,,,,,,,,,,,,,,,,,,,,,,,,,,,,,,,,,,,,,,,,,,,,,,,,,,,,,,,,,,,,,,,,,,,,,
20607,1650406464.297614,1650406464.3244839,82.0,0.0,4226.666504,4464.102539,4408.205078,4293.846191,4215.897461,450.0,4.0,91.0,,,,0.0,0.0,2.0,2.0,0.0,0.0,0.0,,,,,,,,41.0,0.0,0.676445,0.583496,0.353027,-0.27807600000000005,0.803723,-0.6045010000000001,-0.057617999999999996,-0.019232,-0.050691,-0.013330000000000002,,,,,,,,,,,,,,,,,,,,,,,,,,,,,,,,,,,,,,,,,,,,,,,,,,,,,,,,,,,,,,,,,
20608,1650406464.305428,1650406464.332199,83.0,0.0,4225.641113000001,4395.897461,4245.641113000001,4294.871582,4216.410156,0.0,4.0,91.0,,,,0.0,0.0,2.0,2.0,0.0,0.0,0.0,,,,,,,,,,,,,,,,,,,,,,,,,,,,,,,,,,,,,,,,,,,,,,,,,,,,,,,,,,,,,,,,,,,,,,,,,,,,,,,,,,,,
20609,1650406464.313243,1650406464.340013,84.0,0.0,4206.666504,4555.384765999999,4191.794922,4294.358886999999,4175.384765999999,450.0,4.0,91.0,,,,0.0,0.0,2.0,2.0,0.0,0.0,0.0,,,,,,,,42.0,0.0,0.676445,0.583496,0.353027,-0.27807600000000005,0.796399,-0.600595,-0.067384,-0.017358000000000002,-0.050797,-0.011313,1.0,0.0,0.0,,,,,,,,,,,,,,,,,,,,,,,,,,,,,,,,0.0,0.0,32.0,0.018307,1.0,0.0,126.812531,92.446053,26.373589000000003,20.679379,8.025646,1767.6424559999998,2383.451416,697.395203,137.962433,61.57793,564.902039,367.433563,171.45578,70.802498,57.306495999999996,0.9591069999999999,1.0856370000000002,0.56624,0.13326,0.05170399999999999,58.639790000000005,75.39003000000001,19.980545000000003,32.002819,7.927424
20610,1650406464.321057,1650406464.347728,85.0,0.0,4207.179688,4606.666504,4352.820313,4294.871582,4212.820313,450.0,4.0,91.0,,,,0.0,0.0,2.0,2.0,0.0,0.0,0.0,,,,,,,,,,,,,,,,,,,,,,,,,,,,,,,,,,,,,,,,,,,,,,,,,,,,,,,,,,,,,,,,,,,,,,,,,,,,,,,,,,,,
20611,1650406464.328872,1650406464.355542,86.0,0.0,4301.538574,4464.102539,4253.333496,4295.384765999999,4322.563965,450.0,4.0,91.0,,,,0.0,0.0,2.0,2.0,0.0,0.0,0.0,,,,,,,,43.0,0.0,0.676445,0.583496,0.353027,-0.27807600000000005,0.8115359999999999,-0.59913,-0.064454,-0.016257,-0.050845,-0.01277,,,,,,,,,,,,,,,,,,,,,,,,,,,,,,,,,,,,,,,,,,,,,,,,,,,,,,,,,,,,,,,,,
20612,1650406464.336686,1650406464.363257,87.0,0.0,4325.128418,4519.487305,4198.974121,4296.922852000001,4343.077147999999,0.0,4.0,91.0,,,,0.0,0.0,2.0,2.0,0.0,0.0,0.0,,,,,,,,,,,,,,,,,,,,,,,,,,,,,,,,,,,,,,,,,,,,,,,,,,,,,,,,,,,,,,,,,,,,,,,,,,,,,,,,,,,,
20613,1650406464.344501,1650406464.3709712,88.0,0.0,4303.589844,4638.974121,4306.666504,4296.922852000001,4304.615234000001,450.0,4.0,91.0,,,,0.0,0.0,2.0,2.0,0.0,0.0,0.0,,,,,,,,44.0,0.0,0.676445,0.583496,0.353027,-0.27807600000000005,0.804211,-0.604013,-0.062501,-0.017072,-0.050741,-0.013934,,,,,,,,,,,,,,,,,,,,,,,,,,,,,,,,,,,0.0,0.0,32.0,0.018307,1.0,0.0,,,,,,,,,,,,,,,,,,,,,,,,,
20614,1650406464.352315,1650406464.3787858,89.0,0.0,4295.897461,4623.077147999999,4230.769043,4290.769043,4275.897461,450.0,4.0,91.0,,,,0.0,0.0,2.0,2.0,0.0,0.0,0.0,,,,,,,,,,,,,,,,,,,,,,,,,,,,,,,,,,,,,,,,,,,,,,,,,,,,,,,,,,,,,,,,,,,,,,,,,,,,,,,,,,,,
20615,1650406464.36013,1650406464.3866,90.0,0.0,4263.077147999999,4554.871582,4186.153809,4292.820313,4268.205078,450.0,4.0,91.0,,,,0.0,0.0,2.0,2.0,0.0,0.0,0.0,,,,,,,,45.0,0.0,0.6765720000000001,0.583496,0.352783,-0.27807600000000005,0.800793,-0.595712,-0.072755,-0.017562,-0.050745,-0.015031000000000001,,,,,,,,,,,,,,,,,,,,,,,,,,,,,,,,,,,,,,,,,,,,,,,,,,,,,,,,,,,,,,,,,
20616,1650406464.367944,1650406464.394314,91.0,0.0,4207.179688,4674.871582,4247.692383,4299.487305,4282.05127,0.0,4.0,91.0,,,,0.0,0.0,2.0,2.0,0.0,0.0,0.0,,,,,,,,,,,,,,,,,,,,,,,,,,,,,,,,,,,,,,,,,,,,,,,,,,,,,,,,,,,,,,,,,,,,,,,,,,,,,,,,,,,,
20617,1650406464.375759,1650406464.4020288,92.0,0.0,4229.230957,4832.820313,4153.846191,4296.410156,4308.717772999999,450.0,4.0,91.0,,,,0.0,0.0,2.0,2.0,0.0,0.0,0.0,,,,,,,,46.0,0.0,0.6766989999999999,0.583496,0.352539,-0.27807600000000005,0.796887,-0.604013,-0.06836,-0.016441,-0.050797,-0.016116,,,,,,,,,,,,,,,,,,,,,,,,,,,,,,,,,,,0.0,0.0,32.0,0.018307,1.0,0.0,,,,,,,,,,,,,,,,,,,,,,,,,
20618,1650406464.383573,1650406464.409843,93.0,0.0,4301.025879,4713.333496,4032.3076170000004,4292.820313,4286.666504,450.0,4.0,91.0,,,,0.0,0.0,2.0,2.0,0.0,0.0,0.0,,,,,,,,,,,,,,,,,,,,,,,,,,,,,,,,,,,,,,,,,,,,,,,,,,,,,,,,,,,,,,,,,,,,,,,,,,,,,,,,,,,,
20619,1650406464.3913882,1650406464.417558,94.0,0.0,4317.94873,4768.205078,4118.461426,4297.436035,4309.230957,450.0,4.0,91.0,,,,0.0,0.0,2.0,2.0,0.0,0.0,0.0,,,,,,,,47.0,0.0,0.6766989999999999,0.583496,0.352539,-0.27807600000000005,0.8056760000000001,-0.603525,-0.076661,-0.017141,-0.050845,-0.017092,,,,,,,,,,,,,,,,,,,,,,,,,,,,,,,,,,,,,,,,,,,,,,,,,,,,,,,,,,,,,,,,,
20620,1650406464.3992028,1650406464.4253721,95.0,0.0,4281.025879,5068.205078,4149.743652,4294.358886999999,4345.641113000001,0.0,4.0,91.0,,,,0.0,0.0,2.0,2.0,0.0,0.0,0.0,,,,,,,,,,,,,,,,,,,,,,,,,,,,,,,,,,,,,,,,,,,,,,,,,,,,,,,,,,,,,,,,,,,,,,,,,,,,,,,,,,,,
20621,1650406464.407017,1650406464.4330869,96.0,0.0,4290.256348,4826.666504,4101.025879,4278.461426,4262.05127,450.0,4.0,91.0,,,,0.0,0.0,2.0,2.0,0.0,0.0,0.0,,,,,,,,48.0,0.0,0.6766989999999999,0.583496,0.352539,-0.27807600000000005,0.803235,-0.600107,-0.067872,-0.017769999999999998,-0.050985,-0.014846000000000002,,,,,,,,,,,,,,,,,,,,,,,,,,,,,,,,,,,0.0,0.0,32.0,0.018307,1.0,0.0,,,,,,,,,,,,,,,,,,,,,,,,,
20622,1650406464.414832,1650406464.440901,97.0,0.0,4352.820313,4209.230957,4241.538574,4276.410156,4185.641113000001,450.0,4.0,91.0,,,,0.0,0.0,2.0,2.0,0.0,0.0,0.0,,,,,,,,,,,,,,,,,,,,,,,,,,,,,,,,,,,,,,,,,,,,,,,,,,,,,,,,,,,,,,,,,,,,,,,,,,,,,,,,,,,,
20623,1650406464.422646,1650406464.448616,98.0,0.0,4346.666504,4116.410156,4478.974121,4292.820313,4221.538574,450.0,4.0,91.0,,,,0.0,0.0,2.0,2.0,0.0,0.0,0.0,,,,,,,,49.0,0.0,0.676726,0.583496,0.35229499999999997,-0.27831999999999996,0.802747,-0.6201270000000001,-0.072267,-0.018337,-0.051062,-0.015852,,,,,,,,,,,,,,,,,,,,,,,,,,,,,,,,,,,,,,,,,,,,,,,,,,,,,,,,,,,,,,,,,
20624,1650406464.430461,1650406464.4564302,99.0,0.0,4300.0,4394.358886999999,4396.922852000001,4301.025879,4269.230957,0.0,4.0,91.0,,,,0.0,0.0,2.0,2.0,0.0,0.0,0.0,,,,,,,,,,,,,,,,,,,,,,,,,,,,,,,,,,,,,,,,,,,,,,,,,,,,,,,,,,,,,,,,,,,,,,,,,,,,,,,,,,,,
20625,1650406464.438275,1650406464.464145,100.0,0.0,4269.743652,4550.769043,4210.256348,4294.358886999999,4263.589844,450.0,4.0,91.0,,,,0.0,0.0,2.0,2.0,0.0,0.0,0.0,,,,,,,,50.0,0.0,0.676726,0.583496,0.35229499999999997,-0.27831999999999996,0.7954220000000001,-0.607431,-0.059083000000000004,-0.01875,-0.051033999999999996,-0.013729,1.0,0.0,0.0,,,,,,,,,,,,,,,,,,,,,,,,,,,,,,,,0.0,0.0,32.0,0.021525,1.0,0.0,140.94804399999998,82.854774,18.172224,20.964636,8.193778,1976.8071289999998,1724.6698,473.40570099999997,118.45823700000001,51.048965,599.36145,284.05026200000003,115.09168999999999,70.651291,58.273811,1.1953280000000002,0.765648,0.424727,0.118448,0.045392,59.845753,54.855602000000005,13.376559,29.286007,7.726624
20626,1650406464.44609,1650406464.4719589,101.0,0.0,4272.820313,4687.179688,4148.717772999999,4293.333496,4289.743652,450.0,4.0,91.0,,,,0.0,0.0,2.0,2.0,0.0,0.0,0.0,,,,,,,,,,,,,,,,,,,,,,,,,,,,,,,,,,,,,,,,,,,,,,,,,,,,,,,,,,,,,,,,,,,,,,,,,,,,,,,,,,,,
20627,1650406464.453904,1650406464.479773,102.0,0.0,4238.974121,4781.538574,4142.05127,4296.410156,4267.692383,450.0,4.0,91.0,,,,0.0,0.0,2.0,2.0,0.0,0.0,0.0,,,,,,,,51.0,0.0,0.676726,0.583496,0.35229499999999997,-0.27831999999999996,0.8012819999999999,-0.601572,-0.06836,-0.019267,-0.051107,-0.014797999999999999,,,,,,,,,,,,,,,,,,,,,,,,,,,,,,,,,,,,,,,,,,,,,,,,,,,,,,,,,,,,,,,,,
20628,1650406464.461719,1650406464.487488,103.0,0.0,4207.179688,4815.897461,4194.358886999999,4293.846191,4244.102539,0.0,4.0,91.0,,,,0.0,0.0,2.0,2.0,0.0,0.0,0.0,,,,,,,,,,,,,,,,,,,,,,,,,,,,,,,,,,,,,,,,,,,,,,,,,,,,,,,,,,,,,,,,,,,,,,,,,,,,,,,,,,,,
20629,1650406464.469533,1650406464.495202,104.0,0.0,4250.256348,4932.820313,4304.102539,4290.256348,4301.538574,450.0,4.0,91.0,,,,0.0,0.0,2.0,2.0,0.0,0.0,0.0,,,,,,,,52.0,0.0,0.6766260000000001,0.583496,0.35229499999999997,-0.278564,0.8012819999999999,-0.599619,-0.072755,-0.019782,-0.050977,-0.015857,,,,,,,,,,,,,,,,,,,,,,,,,,,,,,,,,,,0.0,0.0,32.0,0.021525,1.0,0.0,,,,,,,,,,,,,,,,,,,,,,,,,
20630,1650406464.477348,1650406464.503017,105.0,0.0,4350.769043,5042.05127,4151.794922,4291.282227000001,4388.205078,450.0,4.0,91.0,,,,0.0,0.0,2.0,2.0,0.0,0.0,0.0,,,,,,,,,,,,,,,,,,,,,,,,,,,,,,,,,,,,,,,,,,,,,,,,,,,,,,,,,,,,,,,,,,,,,,,,,,,,,,,,,,,,
20631,1650406464.485162,1650406464.510831,106.0,0.0,4369.230957,4893.846191,3920.512939,4286.153809,4340.512695,450.0,4.0,91.0,,,,0.0,0.0,2.0,2.0,0.0,0.0,0.0,,,,,,,,53.0,0.0,0.676726,0.583496,0.35229499999999997,-0.27831999999999996,0.7954220000000001,-0.607431,-0.059083000000000004,-0.02005,-0.050957,-0.013734,,,,,,,,,,,,,,,,,,,,,,,,,,,,,,,,,,,,,,,,,,,,,,,,,,,,,,,,,,,,,,,,,
20632,1650406464.492977,1650406464.518545,107.0,0.0,4356.922852000001,4817.94873,4055.384521,4278.461426,4281.538574,0.0,4.0,91.0,,,,0.0,0.0,2.0,2.0,0.0,0.0,0.0,,,,,,,,,,,,,,,,,,,,,,,,,,,,,,,,,,,,,,,,,,,,,,,,,,,,,,,,,,,,,,,,,,,,,,,,,,,,,,,,,,,,
20633,1650406464.500792,1650406464.526359,108.0,0.0,4353.333496,4798.974121,4321.025879,4277.436035,4250.769043,450.0,4.0,91.0,,,,0.0,0.0,2.0,2.0,0.0,0.0,0.0,,,,,,,,54.0,0.0,0.6766260000000001,0.583496,0.35229499999999997,-0.278564,0.7954220000000001,-0.60206,-0.072755,-0.020388999999999997,-0.050891000000000006,-0.011726,,,,,,,,,,,,,,,,,,,,,,,,,,,,,,,,,,,0.0,0.0,32.0,0.021525,1.0,0.0,,,,,,,,,,,,,,,,,,,,,,,,,
20634,1650406464.508606,1650406464.534074,109.0,0.0,4339.487305,4408.205078,4336.410156,4280.512695,4189.230957,450.0,4.0,91.0,,,,0.0,0.0,2.0,2.0,0.0,0.0,0.0,,,,,,,,,,,,,,,,,,,,,,,,,,,,,,,,,,,,,,,,,,,,,,,,,,,,,,,,,,,,,,,,,,,,,,,,,,,,,,,,,,,,
20635,1650406464.516421,1650406464.541788,110.0,0.0,4310.256348,4096.922852000001,4264.102539,4285.641113000001,4167.179688,450.0,4.0,91.0,,,,0.0,0.0,2.0,2.0,0.0,0.0,0.0,,,,,,,,55.0,0.0,0.6766260000000001,0.583496,0.35229499999999997,-0.278564,0.810559,-0.5927819999999999,-0.07422000000000001,-0.018985,-0.050977999999999996,-0.013044,,,,,,,,,,,,,,,,,,,,,,,,,,,,,,,,,,,,,,,,,,,,,,,,,,,,,,,,,,,,,,,,,
20636,1650406464.524235,1650406464.5495028,111.0,0.0,4269.230957,4384.615234000001,4336.410156,4293.333496,4210.769043,0.0,4.0,91.0,,,,0.0,0.0,2.0,2.0,0.0,0.0,0.0,,,,,,,,,,,,,,,,,,,,,,,,,,,,,,,,,,,,,,,,,,,,,,,,,,,,,,,,,,,,,,,,,,,,,,,,,,,,,,,,,,,,
20637,1650406464.53205,1650406464.557317,112.0,0.0,4243.077147999999,4668.717772999999,4210.256348,4296.922852000001,4215.897461,450.0,4.0,91.0,,,,0.0,0.0,2.0,2.0,0.0,0.0,0.0,,,,,,,,56.0,0.0,0.6766260000000001,0.583496,0.35229499999999997,-0.278564,0.804211,-0.601083,-0.072755,-0.017819,-0.051007,-0.011056,,,,,,,,,,,,,,,,,,,,,,,,,,,,,,,,,,,0.0,0.0,32.0,0.021525,1.0,0.0,,,,,,,,,,,,,,,,,,,,,,,,,
20638,1650406464.539864,1650406464.565032,113.0,0.0,4268.205078,4709.230957,3990.256348,4293.846191,4219.487305,450.0,4.0,91.0,,,,0.0,0.0,2.0,2.0,0.0,0.0,0.0,,,,,,,,,,,,,,,,,,,,,,,,,,,,,,,,,,,,,,,,,,,,,,,,,,,,,,,,,,,,,,,,,,,,,,,,,,,,,,,,,,,,
20639,1650406464.547679,1650406464.5728462,114.0,0.0,4288.205078,4916.922852000001,4015.384521,4292.820313,4291.282227000001,450.0,4.0,91.0,,,,0.0,0.0,2.0,2.0,0.0,0.0,0.0,,,,,,,,57.0,0.0,0.6766260000000001,0.583496,0.35229499999999997,-0.278564,0.802258,-0.600107,-0.070314,-0.016086000000000003,-0.051032999999999995,-0.012587000000000001,,,,,,,,,,,,,,,,,,,,,,,,,,,,,,,,,,,,,,,,,,,,,,,,,,,,,,,,,,,,,,,,,
20640,1650406464.5554929,1650406464.5806599,115.0,0.0,4298.974121,5084.615234000001,4135.897461,4290.256348,4321.025879,0.0,4.0,91.0,,,,0.0,0.0,2.0,2.0,0.0,0.0,0.0,,,,,,,,,,,,,,,,,,,,,,,,,,,,,,,,,,,,,,,,,,,,,,,,,,,,,,,,,,,,,,,,,,,,,,,,,,,,,,,,,,,,
20641,1650406464.563308,1650406464.588375,116.0,0.0,4387.692383,4952.307617,4189.743652,4283.077147999999,4305.128418,450.0,4.0,91.0,,,,0.0,0.0,2.0,2.0,0.0,0.0,0.0,,,,,,,,58.0,0.0,0.6766260000000001,0.583496,0.35229499999999997,-0.278564,0.800793,-0.608896,-0.072267,-0.014525999999999999,-0.050959,-0.013965,1.0,0.0,0.0,,,,,,,,,,,,,,,,,,,,,,,,,,,,,,,,0.0,0.0,32.0,0.018437000000000002,1.0,0.0,151.14579799999998,71.64449300000001,16.003099,21.330441,8.222325,2076.548584,1132.188843,385.548706,106.411049,44.927315,589.125427,198.15313700000002,88.505753,69.560822,58.33006999999999,1.40224,0.5016520000000001,0.359989,0.10748699999999999,0.042435,64.04029799999999,40.418194,11.225721,27.068638,7.287998
20642,1650406464.5711222,1650406464.596189,117.0,0.0,4429.230957,4623.077147999999,4393.333496,4280.512695,4257.436035,450.0,4.0,91.0,,,,0.0,0.0,2.0,2.0,0.0,0.0,0.0,,,,,,,,,,,,,,,,,,,,,,,,,,,,,,,,,,,,,,,,,,,,,,,,,,,,,,,,,,,,,,,,,,,,,,,,,,,,,,,,,,,,
20643,1650406464.5789368,1650406464.603904,118.0,0.0,4398.461426,4331.794922,4481.025879,4285.641113000001,4221.025879,450.0,4.0,91.0,,,,0.0,0.0,2.0,2.0,0.0,0.0,0.0,,,,,,,,59.0,0.0,0.6766260000000001,0.583496,0.35229499999999997,-0.278564,0.8076300000000001,-0.590829,-0.066896,-0.015416999999999998,-0.05099,-0.015108000000000002,,,,,,,,,,,,,,,,,,,,,,,,,,,,,,,,,,,,,,,,,,,,,,,,,,,,,,,,,,,,,,,,,
20644,1650406464.586751,1650406464.611618,119.0,0.0,4340.512695,4340.512695,4434.358886999999,4290.256348,4189.743652,0.0,4.0,91.0,,,,0.0,0.0,2.0,2.0,0.0,0.0,0.0,,,,,,,,,,,,,,,,,,,,,,,,,,,,,,,,,,,,,,,,,,,,,,,,,,,,,,,,,,,,,,,,,,,,,,,,,,,,,,,,,,,,
20645,1650406464.594566,1650406464.619432,120.0,0.0,4320.0,4401.538574,4423.589844,4293.846191,4193.846191,450.0,4.0,91.0,,,,0.0,0.0,2.0,2.0,0.0,0.0,0.0,,,,,,,,60.0,0.0,0.6766260000000001,0.583496,0.35229499999999997,-0.278564,0.797375,-0.593759,-0.07324299999999999,-0.016121,-0.050921,-0.016184999999999998,,,,,,,,,,,,,,,,,,,,,,,,,,,,,,,,,,,0.0,0.0,32.0,0.018437000000000002,1.0,0.0,,,,,,,,,,,,,,,,,,,,,,,,,
20646,1650406464.60238,1650406464.627147,121.0,0.0,4294.871582,4316.922852000001,4347.692383,4294.871582,4228.205078,450.0,4.0,91.0,,,,0.0,0.0,2.0,2.0,0.0,0.0,0.0,,,,,,,,,,,,,,,,,,,,,,,,,,,,,,,,,,,,,,,,,,,,,,,,,,,,,,,,,,,,,,,,,,,,,,,,,,,,,,,,,,,,
20647,1650406464.610195,1650406464.634961,122.0,0.0,4300.512695,4293.333496,4239.487305,4296.922852000001,4277.436035,450.0,4.0,91.0,,,,0.0,0.0,2.0,2.0,0.0,0.0,0.0,,,,,,,,61.0,0.0,0.676652,0.583496,0.352051,-0.27880900000000003,0.8047,-0.608896,-0.066896,-0.015290999999999999,-0.050858,-0.017203,,,,,,,,,,,,,,,,,,,,,,,,,,,,,,,,,,,,,,,,,,,,,,,,,,,,,,,,,,,,,,,,,
20648,1650406464.61801,1650406464.6426759,123.0,0.0,4312.307617,4497.94873,4232.307617,4297.436035,4285.641113000001,0.0,4.0,91.0,,,,0.0,0.0,2.0,2.0,0.0,0.0,0.0,,,,,,,,,,,,,,,,,,,,,,,,,,,,,,,,,,,,,,,,,,,,,,,,,,,,,,,,,,,,,,,,,,,,,,,,,,,,,,,,,,,,
20649,1650406464.625824,1650406464.65049,124.0,0.0,4306.666504,4752.820313,4168.717772999999,4295.384765999999,4289.743652,450.0,4.0,91.0,,,,0.0,0.0,2.0,2.0,0.0,0.0,0.0,,,,,,,,62.0,0.0,0.676652,0.583496,0.352051,-0.27880900000000003,0.807141,-0.591806,-0.061036,-0.016105,-0.050802,-0.014994,,,,,,,,,,,,,,,,,,,,,,,,,,,,,,,,,,,0.0,0.0,32.0,0.018437000000000002,1.0,0.0,,,,,,,,,,,,,,,,,,,,,,,,,
20650,1650406464.633639,1650406464.658205,125.0,0.0,4276.922852000001,4849.743652,3986.1538090000004,4292.820313,4269.743652,450.0,4.0,91.0,,,,0.0,0.0,2.0,2.0,0.0,0.0,0.0,,,,,,,,,,,,,,,,,,,,,,,,,,,,,,,,,,,,,,,,,,,,,,,,,,,,,,,,,,,,,,,,,,,,,,,,,,,,,,,,,,,,
20651,1650406464.641453,1650406464.666019,126.0,0.0,4253.846191,4960.512695,3998.974365,4290.769043,4241.538574,450.0,4.0,91.0,,,,0.0,0.0,2.0,2.0,0.0,0.0,0.0,,,,,,,,63.0,0.0,0.676779,0.583496,0.35180700000000004,-0.27880900000000003,0.799329,-0.613779,-0.062989,-0.016839,-0.050848000000000004,-0.015985,,,,,,,,,,,,,,,,,,,,,,,,,,,,,,,,,,,,,,,,,,,,,,,,,,,,,,,,,,,,,,,,,
20652,1650406464.649268,1650406464.673734,127.0,0.0,4282.05127,5031.282227000001,4209.230957,4286.153809,4260.0,242.0,4.0,91.0,,,,0.0,0.0,2.0,2.0,0.0,0.0,0.0,,,,,,,,,,,,,,,,,,,,,,,,,,,,,,,,,,,,,,,,,,,,,,,,,,,,,,,,,,,,,,,,,,,,,,,,,,,,,,,,,,,,
20653,1650406464.657082,1650406464.681548,0.0,0.0,4393.333496,4691.282227000001,4329.743652,4277.436035,4276.410156,450.0,4.0,91.0,,,,0.0,0.0,2.0,2.0,0.0,0.0,0.0,,,,,,,,0.0,0.0,0.676679,0.583496,0.35180700000000004,-0.279053,0.811048,-0.599619,-0.07422000000000001,-0.017401,-0.050842,-0.013800999999999999,,,,,,,,,,,,,,,,,,,,,,,,,,,,,,,,,,,0.0,0.0,32.0,0.018437000000000002,1.0,0.0,,,,,,,,,,,,,,,,,,,,,,,,,
20654,1650406464.664897,1650406464.689363,1.0,0.0,4459.487305,4315.897461,4367.179688,4276.922852000001,4228.717772999999,450.0,4.0,91.0,,,,0.0,0.0,2.0,2.0,0.0,0.0,0.0,,,,,,,,,,,,,,,,,,,,,,,,,,,,,,,,,,,,,,,,,,,,,,,,,,,,,,,,,,,,,,,,,,,,,,,,,,,,,,,,,,,,
20655,1650406464.672711,1650406464.697077,2.0,0.0,4364.615234000001,4356.922852000001,4551.282227000001,4287.692383,4170.769043,71.0,4.0,91.0,,,,0.0,1.0,2.0,2.0,0.0,0.0,8.333333,,,,,,,,1.0,0.0,0.676679,0.583496,0.35180700000000004,-0.279053,0.802258,-0.60206,-0.078614,-0.017956,-0.050885,-0.015057,,,,,,,,,,,,,,,,,,,,,,,,,,,,,,,,,,,,,,,,,,,,,,,,,,,,,,,,,,,,,,,,,
20656,1650406464.680526,1650406464.704791,3.0,0.0,4281.538574,4381.025879,4502.05127,4294.358886999999,4190.769043,450.0,4.0,91.0,,,,0.0,1.0,0.0,2.0,0.0,0.0,0.0,,,,,,,,,,,,,,,,,,,,,,,,,,,,,,,,,,,,,,,,,,,,,,,,,,,,,,,,,,,,,,,,,,,,,,,,,,,,,,,,,,,,
20657,1650406464.68834,1650406464.712606,4.0,0.0,4271.794922,4364.615234000001,4286.666504,4290.256348,4213.333496,0.0,4.0,91.0,,,,0.0,1.0,0.0,2.0,0.0,0.0,0.0,1.0,0.0,0.0,0.0,0.0,0.0,0.0,2.0,0.0,0.676679,0.583496,0.35180700000000004,-0.279053,0.8076300000000001,-0.599619,-0.06006,-0.018553,-0.050776999999999996,-0.016091,1.0,0.0,0.0,,,,,,,,,,,,,,,,,,,,,,,,,,,,,,,,0.0,0.0,32.0,0.015752000000000002,1.0,0.0,150.326904,61.301178,17.241787,21.587397,8.006752,2066.0776370000003,705.2773440000001,362.408569,103.049736,42.828598,546.648804,125.20571899999999,83.269966,68.604958,57.944988,1.546571,0.330741,0.33649,0.099328,0.041503,69.258553,33.453915,11.597584,25.225964,6.59302
20658,1650406464.696155,1650406464.72032,5.0,0.0,4265.641113000001,4591.282227000001,4294.358886999999,4294.871582,4220.0,450.0,4.0,91.0,,,,0.0,1.0,0.0,0.0,0.0,0.0,0.0,,,,,,,,,,,,,,,,,,,,,,,,,,,,,,,,,,,,,,,,,,,,,,,,,,,,,,,,,,,,,,,,,,,,,,,,,,,,,,,,,,,,
20659,1650406464.703969,1650406464.7281349,6.0,0.0,4283.589844,4690.769043,4346.153809,4302.05127,4264.102539,0.0,4.0,91.0,,,,0.0,1.0,0.0,0.0,0.0,0.0,0.0,,,,,,,,3.0,0.0,0.676679,0.583496,0.35180700000000004,-0.279053,0.813489,-0.601572,-0.067384,-0.018895,-0.050776999999999996,-0.013847,,,,,,,,,,,,,,,,,,,,,,,,,,,,,,,,,,,,,,,,,,,,,,,,,,,,,,,,,,,,,,,,,
20660,1650406464.711784,1650406464.7358491,7.0,0.0,4367.179688,4551.282227000001,4122.563965,4299.487305,4348.205078,450.0,4.0,91.0,,,,0.0,1.0,0.0,0.0,0.0,0.0,0.0,,,,,,,,,,,,,,,,,,,,,,,,,,,,,,,,,,,,,,,,,,,,,,,,,,,,,,,,,,,,,,,,,,,,,,,,,,,,,,,,,,,,
20661,1650406464.719599,1650406464.743664,8.0,0.0,4378.461426,4634.871582,4065.1281740000004,4296.410156,4357.94873,450.0,4.0,91.0,,,,0.0,1.0,0.0,0.0,0.0,0.0,0.0,,,,,,,,4.0,0.0,0.676578,0.583496,0.35180700000000004,-0.27929699999999996,0.810071,-0.593759,-0.079591,-0.019251,-0.050729,-0.01505,,,,,,,,,,,,,,,,,,,,,,,,,,,,,,,,,,,0.0,0.0,32.0,0.015752000000000002,1.0,0.0,,,,,,,,,,,,,,,,,,,,,,,,,
20662,1650406464.7274132,1650406464.7513778,9.0,0.0,4341.025879,4764.615234000001,4161.538574,4297.94873,4322.05127,0.0,4.0,91.0,,,,0.0,1.0,0.0,0.0,0.0,0.0,0.0,,,,,,,,,,,,,,,,,,,,,,,,,,,,,,,,,,,,,,,,,,,,,,,,,,,,,,,,,,,,,,,,,,,,,,,,,,,,,,,,,,,,
20663,1650406464.7352278,1650406464.759192,10.0,0.0,4319.487305,4701.538574,4001.025635,4294.358886999999,4270.256348,450.0,4.0,91.0,,,,0.0,1.0,0.0,0.0,0.0,0.0,0.0,,,,,,,,5.0,0.0,0.6764939999999999,0.5837399999999999,0.351563,-0.27929699999999996,0.802258,-0.600107,-0.072755,-0.019621,-0.050733999999999994,-0.016182,,,,,,,,,,,,,,,,,,,,,,,,,,,,,,,,,,,,,,,,,,,,,,,,,,,,,,,,,,,,,,,,,
20664,1650406464.743042,1650406464.766907,11.0,0.0,4336.410156,4834.871582,3964.102539,4289.743652,4282.563965,0.0,4.0,91.0,,,,0.0,1.0,0.0,0.0,0.0,0.0,0.0,,,,,,,,,,,,,,,,,,,,,,,,,,,,,,,,,,,,,,,,,,,,,,,,,,,,,,,,,,,,,,,,,,,,,,,,,,,,,,,,,,,,
20665,1650406464.750857,1650406464.7747211,12.0,0.0,4378.974121,4850.769043,4286.153809,4284.615234000001,4317.94873,450.0,4.0,91.0,,,,0.0,1.0,0.0,0.0,0.0,0.0,0.0,,,,,,,,6.0,0.0,0.676367,0.5837399999999999,0.35180700000000004,-0.27929699999999996,0.8095829999999999,-0.60206,-0.069825,-0.018343,-0.050641000000000005,-0.017152,,,,,,,,,,,,,,,,,,,,,,,,,,,,,,,,,,,0.0,0.0,32.0,0.015752000000000002,1.0,0.0,,,,,,,,,,,,,,,,,,,,,,,,,
20666,1650406464.758671,1650406464.782435,13.0,0.0,4451.794922,4384.615234000001,4422.563965,4276.410156,4295.897461,450.0,4.0,91.0,,,,0.0,1.0,0.0,0.0,0.0,0.0,0.0,,,,,,,,,,,,,,,,,,,,,,,,,,,,,,,,,,,,,,,,,,,,,,,,,,,,,,,,,,,,,,,,,,,,,,,,,,,,,,,,,,,,
20667,1650406464.766486,1650406464.790249,14.0,0.0,4441.025879,4217.94873,4395.897461,4277.94873,4224.615234000001,450.0,4.0,91.0,,,,0.0,1.0,0.0,0.0,0.0,0.0,0.0,,,,,,,,7.0,0.0,0.676595,0.5837399999999999,0.351563,-0.279053,0.800793,-0.595224,-0.076173,-0.018852,-0.050753,-0.018073,,,,,,,,,,,,,,,,,,,,,,,,,,,,,,,,,,,,,,,,,,,,,,,,,,,,,,,,,,,,,,,,,
20668,1650406464.7743,1650406464.797964,15.0,0.0,4327.692383,4435.897461,4584.102539,4291.794922,4186.153809,0.0,4.0,91.0,,,,0.0,1.0,0.0,0.0,0.0,0.0,0.0,,,,,,,,,,,,,,,,,,,,,,,,,,,,,,,,,,,,,,,,,,,,,,,,,,,,,,,,,,,,,,,,,,,,,,,,,,,,,,,,,,,,
20669,1650406464.782115,1650406464.805678,16.0,0.0,4244.102539,4321.025879,4443.589844,4299.487305,4200.512695,0.0,4.0,91.0,,,,0.0,1.0,0.0,0.0,0.0,0.0,0.0,,,,,,,,8.0,0.0,0.6764939999999999,0.5837399999999999,0.351563,-0.27929699999999996,0.802258,-0.600107,-0.072755,-0.019311000000000002,-0.050658,-0.015729,,,,,,,,,,,,,,,,,,,,,,,,,,,,,,,,,,,0.0,0.0,32.0,0.015752000000000002,1.0,0.0,,,,,,,,,,,,,,,,,,,,,,,,,
20670,1650406464.789929,1650406464.813493,17.0,0.0,4237.436035,4334.871582,4108.205078,4295.384765999999,4214.871582,0.0,4.0,91.0,,,,0.0,1.0,0.0,0.0,0.0,0.0,0.0,,,,,,,,,,,,,,,,,,,,,,,,,,,,,,,,,,,,,,,,,,,,,,,,,,,,,,,,,,,,,,,,,,,,,,,,,,,,,,,,,,,,
20671,1650406464.797744,1650406464.821207,18.0,0.0,4260.512695,4724.615234000001,4235.897461,4296.922852000001,4226.153809,0.0,4.0,91.0,,,,0.0,1.0,0.0,0.0,0.0,0.0,0.0,,,,,,,,9.0,0.0,0.676595,0.5837399999999999,0.351563,-0.279053,0.800793,-0.595224,-0.076173,-0.019722999999999997,-0.050768,-0.016793000000000002,,,,,,,,,,,,,,,,,,,,,,,,,,,,,,,,,,,,,,,,,,,,,,,,,,,,,,,,,,,,,,,,,
20672,1650406464.805558,1650406464.8290222,19.0,0.0,4282.05127,4806.666504,4396.922852000001,4303.077147999999,4264.615234000001,0.0,4.0,91.0,,,,0.0,1.0,0.0,0.0,0.0,0.0,0.0,,,,,,,,,,,,,,,,,,,,,,,,,,,,,,,,,,,,,,,,,,,,,,,,,,,,,,,,,,,,,,,,,,,,,,,,,,,,,,,,,,,,
20673,1650406464.813373,1650406464.836736,20.0,0.0,4335.897461,4733.846191,4060.512939,4302.05127,4342.563965,0.0,4.0,91.0,,,,0.0,1.0,0.0,0.0,0.0,0.0,0.0,,,,,,,,10.0,0.0,0.676595,0.5837399999999999,0.351563,-0.279053,0.803235,-0.613291,-0.083009,-0.020095,-0.050623,-0.017653,1.0,0.0,0.0,,,,,,,,,,,,,,,,,,,,,,,,,,,,,,,,0.0,0.0,32.0,0.01772,1.0,0.0,138.568649,52.228271,21.132763,21.625963,7.716958999999999,1964.0847170000002,476.75543200000004,370.997314,110.611603,45.795074,490.82791100000003,74.26101700000001,95.617828,69.980026,58.853378,1.5966690000000001,0.248311,0.33362600000000003,0.095264,0.043914999999999996,74.50993299999999,31.696711999999998,12.922756,23.670510999999998,5.808351
20674,1650406464.821188,1650406464.84455,21.0,0.0,4351.282227000001,4858.974121,3904.615479,4294.358886999999,4325.641113000001,0.0,4.0,91.0,,,,0.0,1.0,0.0,0.0,0.0,0.0,0.0,,,,,,,,,,,,,,,,,,,,,,,,,,,,,,,,,,,,,,,,,,,,,,,,,,,,,,,,,,,,,,,,,,,,,,,,,,,,,,,,,,,,
20675,1650406464.829002,1650406464.8522651,22.0,0.0,4340.512695,4924.102539,4090.256348,4288.717772999999,4287.692383,0.0,4.0,91.0,,,,0.0,1.0,0.0,0.0,0.0,0.0,0.0,,,,,,,,11.0,0.0,0.676595,0.5837399999999999,0.351563,-0.279053,0.802258,-0.5971770000000001,-0.067872,-0.020380000000000002,-0.050589999999999996,-0.015155000000000002,,,,,,,,,,,,,,,,,,,,,,,,,,,,,,,,,,,,,,,,,,,,,,,,,,,,,,,,,,,,,,,,,
20676,1650406464.836817,1650406464.8600788,23.0,0.0,4358.974121,4861.025879,4137.94873,4284.615234000001,4309.230957,0.0,4.0,91.0,,,,0.0,1.0,0.0,0.0,0.0,0.0,0.0,,,,,,,,,,,,,,,,,,,,,,,,,,,,,,,,,,,,,,,,,,,,,,,,,,,,,,,,,,,,,,,,,,,,,,,,,,,,,,,,,,,,
20677,1650406464.844631,1650406464.867794,24.0,0.0,4414.358886999999,4850.769043,4153.846191,4283.589844,4345.641113000001,0.0,4.0,91.0,,,,0.0,1.0,0.0,0.0,0.0,0.0,0.0,,,,,,,,12.0,0.0,0.676595,0.5837399999999999,0.351563,-0.279053,0.79884,-0.599619,-0.063966,-0.020637,-0.050658,-0.016130000000000002,,,,,,,,,,,,,,,,,,,,,,,,,,,,,,,,,,,0.0,0.0,32.0,0.01772,1.0,0.0,,,,,,,,,,,,,,,,,,,,,,,,,
20678,1650406464.852446,1650406464.875608,25.0,0.0,4407.692383,4712.307617,4344.102539,4280.512695,4295.897461,0.0,4.0,91.0,,,,0.0,1.0,0.0,0.0,0.0,0.0,0.0,,,,,,,,,,,,,,,,,,,,,,,,,,,,,,,,,,,,,,,,,,,,,,,,,,,,,,,,,,,,,,,,,,,,,,,,,,,,,,,,,,,,
20679,1650406464.86026,1650406464.883323,26.0,0.0,4417.436035,4431.794922,4387.179688,4276.922852000001,4257.436035,0.0,4.0,91.0,,,,0.0,1.0,0.0,0.0,0.0,0.0,0.0,,,,,,,,13.0,0.0,0.676722,0.5837399999999999,0.35131799999999996,-0.279053,0.790539,-0.610849,-0.088869,-0.020869,-0.050622,-0.014028,,,,,,,,,,,,,,,,,,,,,,,,,,,,,,,,,,,,,,,,,,,,,,,,,,,,,,,,,,,,,,,,,
20680,1650406464.868075,1650406464.891137,27.0,0.0,4407.179688,4316.410156,4372.820313,4283.077147999999,4244.615234000001,0.0,4.0,91.0,,,,0.0,1.0,0.0,0.0,0.0,0.0,0.0,,,,,,,,,,,,,,,,,,,,,,,,,,,,,,,,,,,,,,,,,,,,,,,,,,,,,,,,,,,,,,,,,,,,,,,,,,,,,,,,,,,,
20681,1650406464.875889,1650406464.8988519,28.0,0.0,4281.025879,4371.794922,4492.820313,4295.897461,4204.102539,0.0,4.0,91.0,,,,0.0,1.0,0.0,0.0,0.0,0.0,0.0,,,,,,,,14.0,0.0,0.676722,0.5837399999999999,0.35131799999999996,-0.279053,0.805188,-0.595224,-0.07324299999999999,-0.021223,-0.050687,-0.015262000000000001,,,,,,,,,,,,,,,,,,,,,,,,,,,,,,,,,,,0.0,0.0,32.0,0.01772,1.0,0.0,,,,,,,,,,,,,,,,,,,,,,,,,
20682,1650406464.883704,1650406464.906666,29.0,0.0,4174.358886999999,4449.743652,4321.025879,4298.974121,4155.384765999999,0.0,4.0,91.0,,,,0.0,1.0,0.0,0.0,0.0,0.0,0.0,,,,,,,,,,,,,,,,,,,,,,,,,,,,,,,,,,,,,,,,,,,,,,,,,,,,,,,,,,,,,,,,,,,,,,,,,,,,,,,,,,,,
20683,1650406464.8915179,1650406464.914381,30.0,0.0,4223.589844,4845.128418,4063.5898439999996,4294.871582,4238.461426,0.0,4.0,91.0,,,,0.0,1.0,0.0,0.0,0.0,0.0,0.0,,,,,,,,15.0,0.0,0.6765369999999999,0.5839840000000001,0.351074,-0.27929699999999996,0.793957,-0.603525,-0.076661,-0.019882,-0.050647000000000005,-0.01315,,,,,,,,,,,,,,,,,,,,,,,,,,,,,,,,,,,,,,,,,,,,,,,,,,,,,,,,,,,,,,,,,
20684,1650406464.899333,1650406464.922195,31.0,0.0,4296.922852000001,5123.077147999999,4104.615234000001,4290.769043,4332.820313,0.0,4.0,91.0,,,,0.0,1.0,0.0,0.0,0.0,0.0,0.0,,,,,,,,,,,,,,,,,,,,,,,,,,,,,,,,,,,,,,,,,,,,,,,,,,,,,,,,,,,,,,,,,,,,,,,,,,,,,,,,,,,,
20685,1650406464.9071472,1650406464.929909,32.0,0.0,4334.358886999999,4790.769043,4123.077147999999,4282.563965,4286.153809,0.0,4.0,91.0,,,,0.0,1.0,0.0,0.0,0.0,0.0,0.0,,,,,,,,16.0,0.0,0.6765369999999999,0.5839840000000001,0.351074,-0.27929699999999996,0.812512,-0.600595,-0.075685,-0.018529,-0.050710000000000005,-0.014422999999999998,,,,,,,,,,,,,,,,,,,,,,,,,,,,,,,,,,,0.0,0.0,32.0,0.01772,1.0,0.0,,,,,,,,,,,,,,,,,,,,,,,,,
20686,1650406464.9149618,1650406464.9377232,33.0,0.0,4374.358886999999,4657.436035,4123.077147999999,4275.897461,4237.94873,0.0,4.0,91.0,,,,0.0,1.0,0.0,0.0,0.0,0.0,0.0,,,,,,,,,,,,,,,,,,,,,,,,,,,,,,,,,,,,,,,,,,,,,,,,,,,,,,,,,,,,,,,,,,,,,,,,,,,,,,,,,,,,
20687,1650406464.922776,1650406464.9454381,34.0,0.0,4349.743652,4635.384765999999,4296.922852000001,4277.94873,4189.230957,0.0,4.0,91.0,,,,0.0,1.0,0.0,0.0,0.0,0.0,0.0,,,,,,,,17.0,0.0,0.6765369999999999,0.5839840000000001,0.351074,-0.27929699999999996,0.7954220000000001,-0.6103609999999999,-0.07324299999999999,-0.018922,-0.050619,-0.012444,,,,,,,,,,,,,,,,,,,,,,,,,,,,,,,,,,,,,,,,,,,,,,,,,,,,,,,,,,,,,,,,,
20688,1650406464.930591,1650406464.953152,35.0,0.0,4312.307617,4087.6923829999996,4326.666504,4285.641113000001,4143.077147999999,0.0,4.0,91.0,,,,0.0,1.0,0.0,0.0,0.0,0.0,0.0,,,,,,,,,,,,,,,,,,,,,,,,,,,,,,,,,,,,,,,,,,,,,,,,,,,,,,,,,,,,,,,,,,,,,,,,,,,,,,,,,,,,
20689,1650406464.938406,1650406464.960967,36.0,0.0,4307.179688,3929.2307130000004,4360.0,4291.794922,4200.0,0.0,4.0,91.0,,,,0.0,1.0,0.0,0.0,0.0,0.0,0.0,,,,,,,,18.0,0.0,0.6765369999999999,0.5839840000000001,0.351074,-0.27929699999999996,0.806653,-0.604013,-0.06836,-0.017079,-0.050636,-0.013787,1.0,0.0,0.0,,,,,,,,,,,,,,,,,,,,,,,,,,,,,,,,0.0,0.0,32.0,0.015483000000000002,1.0,0.0,120.032974,45.247898,28.732286,21.596851,7.4934259999999995,1785.7257079999997,442.66290300000003,445.371521,130.508041,54.691387,434.523621,56.64506899999999,129.326752,75.76474,62.12919599999999,1.52903,0.245194,0.364769,0.097351,0.050838,78.110725,32.683647,15.695701999999999,22.261499,5.183608
20690,1650406464.94622,1650406464.968681,37.0,0.0,4322.563965,4405.128418,4336.922852000001,4296.922852000001,4301.025879,0.0,4.0,91.0,,,,0.0,1.0,0.0,0.0,0.0,0.0,0.0,,,,,,,,,,,,,,,,,,,,,,,,,,,,,,,,,,,,,,,,,,,,,,,,,,,,,,,,,,,,,,,,,,,,,,,,,,,,,,,,,,,,
20691,1650406464.954035,1650406464.976496,38.0,0.0,4310.769043,4665.641113000001,4158.461426,4295.897461,4284.102539,0.0,4.0,91.0,,,,0.0,1.0,0.0,0.0,0.0,0.0,0.0,,,,,,,,19.0,0.0,0.6765369999999999,0.5839840000000001,0.351074,-0.27929699999999996,0.807141,-0.592294,-0.06543099999999999,-0.017812,-0.050699,-0.014948,,,,,,,,,,,,,,,,,,,,,,,,,,,,,,,,,,,,,,,,,,,,,,,,,,,,,,,,,,,,,,,,,
20692,1650406464.961849,1650406464.98421,39.0,0.0,4305.641113000001,4754.358886999999,4074.358887,4292.820313,4280.0,0.0,4.0,91.0,,,,0.0,1.0,0.0,0.0,0.0,0.0,0.0,,,,,,,,,,,,,,,,,,,,,,,,,,,,,,,,,,,,,,,,,,,,,,,,,,,,,,,,,,,,,,,,,,,,,,,,,,,,,,,,,,,,
20693,1650406464.969664,1650406464.992024,40.0,0.0,4334.871582,4903.589844,4127.692383,4290.256348,4323.077147999999,0.0,4.0,91.0,,,,0.0,1.0,0.0,0.0,0.0,0.0,0.0,,,,,,,,20.0,0.0,0.6765369999999999,0.5839840000000001,0.351074,-0.27929699999999996,0.80177,-0.605478,-0.063966,-0.016812,-0.050707,-0.015992,,,,,,,,,,,,,,,,,,,,,,,,,,,,,,,,,,,0.0,0.0,32.0,0.015483000000000002,1.0,0.0,,,,,,,,,,,,,,,,,,,,,,,,,
20694,1650406464.977478,1650406464.9997392,41.0,0.0,4389.230957,4895.384765999999,4115.897461,4283.589844,4326.153809,0.0,4.0,91.0,,,,0.0,1.0,0.0,0.0,0.0,0.0,0.0,,,,,,,,,,,,,,,,,,,,,,,,,,,,,,,,,,,,,,,,,,,,,,,,,,,,,,,,,,,,,,,,,,,,,,,,,,,,,,,,,,,,
20695,1650406464.985293,1650406465.0075529,42.0,0.0,4373.846191,4612.820313,4374.358886999999,4278.974121,4261.025879,0.0,4.0,91.0,,,,0.0,1.0,0.0,0.0,0.0,0.0,0.0,,,,,,,,21.0,0.0,0.6765369999999999,0.5839840000000001,0.351074,-0.27929699999999996,0.8061649999999999,-0.6167090000000001,-0.073732,-0.01518,-0.050764,-0.017029,,,,,,,,,,,,,,,,,,,,,,,,,,,,,,,,,,,,,,,,,,,,,,,,,,,,,,,,,,,,,,,,,
20696,1650406464.993107,1650406465.015368,43.0,0.0,4364.615234000001,4152.307617,4558.974121,4285.128418,4216.922852000001,0.0,4.0,91.0,,,,0.0,1.0,0.0,0.0,0.0,0.0,0.0,,,,,,,,,,,,,,,,,,,,,,,,,,,,,,,,,,,,,,,,,,,,,,,,,,,,,,,,,,,,,,,,,,,,,,,,,,,,,,,,,,,,
20697,1650406465.000922,1650406465.023082,44.0,0.0,4343.589844,4129.743652,4191.282227000001,4291.282227000001,4214.358886999999,0.0,4.0,91.0,,,,0.0,1.0,0.0,0.0,0.0,0.0,0.0,,,,,,,,22.0,0.0,0.6764359999999999,0.5839840000000001,0.351074,-0.279541,0.814954,-0.602548,-0.062989,-0.016006,-0.050863,-0.014788999999999998,,,,,,,,,,,,,,,,,,,,,,,,,,,,,,,,,,,0.0,0.0,32.0,0.015483000000000002,1.0,0.0,,,,,,,,,,,,,,,,,,,,,,,,,
20698,1650406465.008736,1650406465.030797,45.0,0.0,4244.102539,4666.666504,4077.9487299999996,4292.820313,4240.512695,0.0,4.0,91.0,,,,0.0,1.0,0.0,0.0,0.0,0.0,0.0,,,,,,,,,,,,,,,,,,,,,,,,,,,,,,,,,,,,,,,,,,,,,,,,,,,,,,,,,,,,,,,,,,,,,,,,,,,,,,,,,,,,
20699,1650406465.016551,1650406465.038611,46.0,0.0,4208.205078,4895.897461,4265.128418,4294.358886999999,4263.077147999999,0.0,4.0,91.0,,,,0.0,1.0,0.0,0.0,0.0,0.0,0.0,,,,,,,,23.0,0.0,0.6764359999999999,0.5839840000000001,0.351074,-0.279541,0.803723,-0.6128020000000001,-0.081544,-0.016846,-0.050855000000000004,-0.015898,,,,,,,,,,,,,,,,,,,,,,,,,,,,,,,,,,,,,,,,,,,,,,,,,,,,,,,,,,,,,,,,,
20700,1650406465.024365,1650406465.046325,47.0,0.0,4321.538574,4959.487305,4228.205078,4289.743652,4334.358886999999,0.0,4.0,91.0,,,,0.0,1.0,0.0,0.0,0.0,0.0,0.0,,,,,,,,,,,,,,,,,,,,,,,,,,,,,,,,,,,,,,,,,,,,,,,,,,,,,,,,,,,,,,,,,,,,,,,,,,,,,,,,,,,,
20701,1650406465.03218,1650406465.05414,48.0,0.0,4374.871582,5148.717772999999,4157.436035,4281.025879,4387.692383,0.0,4.0,91.0,,,,0.0,1.0,0.0,0.0,0.0,0.0,0.0,,,,,,,,24.0,0.0,0.676335,0.5839840000000001,0.351074,-0.279785,0.80177,-0.602548,-0.07910299999999999,-0.015943000000000002,-0.050799000000000004,-0.013674,,,,,,,,,,,,,,,,,,,,,,,,,,,,,,,,,,,0.0,0.0,32.0,0.015483000000000002,1.0,0.0,,,,,,,,,,,,,,,,,,,,,,,,,
20702,1650406465.039995,1650406465.061854,49.0,0.0,4336.922852000001,4772.820313,4241.538574,4280.512695,4309.743652,0.0,4.0,91.0,,,,0.0,1.0,0.0,0.0,0.0,0.0,0.0,,,,,,,,,,,,,,,,,,,,,,,,,,,,,,,,,,,,,,,,,,,,,,,,,,,,,,,,,,,,,,,,,,,,,,,,,,,,,,,,,,,,
20703,1650406465.047809,1650406465.069669,50.0,0.0,4340.512695,4281.025879,4328.205078,4282.05127,4216.922852000001,0.0,4.0,91.0,,,,0.0,1.0,0.0,0.0,0.0,0.0,0.0,,,,,,,,25.0,0.0,0.676335,0.5839840000000001,0.351074,-0.279785,0.8139770000000001,-0.595712,-0.063966,-0.015031999999999998,-0.050797,-0.014747999999999999,,,,,,,,,,,,,,,,,,,,,,,,,,,,,,,,,,,,,,,,,,,,,,,,,,,,,,,,,,,,,,,,,
20704,1650406465.055624,1650406465.077383,51.0,0.0,4308.205078,4376.922852000001,4430.769043,4284.102539,4164.615234000001,0.0,4.0,91.0,,,,0.0,1.0,0.0,0.0,0.0,0.0,0.0,,,,,,,,,,,,,,,,,,,,,,,,,,,,,,,,,,,,,,,,,,,,,,,,,,,,,,,,,,,,,,,,,,,,,,,,,,,,,,,,,,,,
20705,1650406465.0634382,1650406465.085098,52.0,0.0,4262.05127,4410.769043,4408.205078,4294.871582,4169.230957,0.0,4.0,91.0,,,,0.0,1.0,0.0,0.0,0.0,0.0,0.0,,,,,,,,26.0,0.0,0.676335,0.5839840000000001,0.351074,-0.279785,0.802747,-0.589853,-0.06884900000000001,-0.015824,-0.050845,-0.01591,1.0,0.0,0.0,,,,,,,,,,,,,,,,,,,,,,,,,,,,,,,,0.0,0.0,32.0,0.015069999999999998,1.0,0.0,98.110184,42.890240000000006,40.188225,22.014793,7.378284,1541.9259029999998,603.074707,614.759583,159.286133,69.11187,381.412018,95.108559,184.319199,85.89431,67.54563900000001,1.36306,0.347802,0.44335699999999995,0.105697,0.06216,77.805511,36.512423999999996,20.499077,20.904184,4.913705
20706,1650406465.0712528,1650406465.092912,53.0,0.0,4269.230957,4269.743652,4309.743652,4300.0,4246.153809,0.0,4.0,91.0,,,,0.0,1.0,0.0,0.0,0.0,0.0,0.0,,,,,,,,,,,,,,,,,,,,,,,,,,,,,,,,,,,,,,,,,,,,,,,,,,,,,,,,,,,,,,,,,,,,,,,,,,,,,,,,,,,,
20707,1650406465.079067,1650406465.100627,54.0,0.0,4308.717772999999,4441.538574,4197.94873,4296.410156,4323.589844,0.0,4.0,91.0,,,,0.0,1.0,0.0,0.0,0.0,0.0,0.0,,,,,,,,27.0,0.0,0.6764359999999999,0.5839840000000001,0.351074,-0.279541,0.811048,-0.5927819999999999,-0.07324299999999999,-0.016537,-0.050838,-0.013635,,,,,,,,,,,,,,,,,,,,,,,,,,,,,,,,,,,,,,,,,,,,,,,,,,,,,,,,,,,,,,,,,
20708,1650406465.086882,1650406465.108441,55.0,0.0,4291.282227000001,4749.743652,4121.025879,4294.871582,4306.666504,0.0,4.0,91.0,,,,0.0,1.0,0.0,0.0,0.0,0.0,0.0,,,,,,,,,,,,,,,,,,,,,,,,,,,,,,,,,,,,,,,,,,,,,,,,,,,,,,,,,,,,,,,,,,,,,,,,,,,,,,,,,,,,
20709,1650406465.094696,1650406465.116256,56.0,0.0,4288.205078,4863.589844,4093.8461909999996,4295.384765999999,4320.0,0.0,4.0,91.0,,,,0.0,1.0,0.0,0.0,0.0,0.0,0.0,,,,,,,,28.0,0.0,0.6764359999999999,0.5839840000000001,0.351074,-0.279541,0.800793,-0.591806,-0.061524,-0.015518,-0.050881,-0.011734999999999999,,,,,,,,,,,,,,,,,,,,,,,,,,,,,,,,,,,0.0,0.0,32.0,0.015069999999999998,1.0,0.0,,,,,,,,,,,,,,,,,,,,,,,,,
20710,1650406465.102511,1650406465.12397,57.0,0.0,4308.205078,4837.94873,4080.512939,4288.717772999999,4319.487305,0.0,4.0,91.0,,,,0.0,1.0,0.0,0.0,0.0,0.0,0.0,,,,,,,,,,,,,,,,,,,,,,,,,,,,,,,,,,,,,,,,,,,,,,,,,,,,,,,,,,,,,,,,,,,,,,,,,,,,,,,,,,,,
20711,1650406465.110325,1650406465.131784,58.0,0.0,4331.794922,4847.179688,4116.922852000001,4282.05127,4282.563965,0.0,4.0,91.0,,,,0.0,1.0,0.0,0.0,0.0,0.0,0.0,,,,,,,,29.0,0.0,0.6764359999999999,0.5839840000000001,0.351074,-0.279541,0.792981,-0.590341,-0.057617999999999996,-0.01465,-0.05092,-0.013050999999999998,,,,,,,,,,,,,,,,,,,,,,,,,,,,,,,,,,,,,,,,,,,,,,,,,,,,,,,,,,,,,,,,,
20712,1650406465.11814,1650406465.139499,59.0,0.0,4350.256348,4750.256348,4319.487305,4279.487305,4283.589844,0.0,4.0,91.0,,,,0.0,1.0,0.0,0.0,0.0,0.0,0.0,,,,,,,,,,,,,,,,,,,,,,,,,,,,,,,,,,,,,,,,,,,,,,,,,,,,,,,,,,,,,,,,,,,,,,,,,,,,,,,,,,,,
20713,1650406465.125954,1650406465.147313,60.0,0.0,4417.436035,4388.205078,4413.333496,4278.461426,4297.94873,0.0,4.0,91.0,,,,0.0,1.0,0.0,0.0,0.0,0.0,0.0,,,,,,,,30.0,0.0,0.6765369999999999,0.5839840000000001,0.351074,-0.27929699999999996,0.794934,-0.598642,-0.062989,-0.01548,-0.050907,-0.011063,,,,,,,,,,,,,,,,,,,,,,,,,,,,,,,,,,,0.0,0.0,32.0,0.015069999999999998,1.0,0.0,,,,,,,,,,,,,,,,,,,,,,,,,
20714,1650406465.133769,1650406465.155027,61.0,0.0,4407.692383,4237.94873,4350.256348,4280.512695,4237.94873,0.0,4.0,91.0,,,,0.0,1.0,0.0,0.0,0.0,0.0,0.0,,,,,,,,,,,,,,,,,,,,,,,,,,,,,,,,,,,,,,,,,,,,,,,,,,,,,,,,,,,,,,,,,,,,,,,,,,,,,,,,,,,,
20715,1650406465.141584,1650406465.162742,62.0,0.0,4246.153809,4518.974121,4475.897461,4290.256348,4183.077147999999,0.0,4.0,91.0,,,,0.0,1.0,0.0,0.0,0.0,0.0,0.0,,,,,,,,31.0,0.0,0.6764100000000001,0.5839840000000001,0.35131799999999996,-0.27929699999999996,0.806653,-0.609384,-0.06543099999999999,-0.016324,-0.050894,-0.012593,,,,,,,,,,,,,,,,,,,,,,,,,,,,,,,,,,,,,,,,,,,,,,,,,,,,,,,,,,,,,,,,,
20716,1650406465.149398,1650406465.170556,63.0,0.0,4163.077147999999,4707.692383,4371.794922,4298.461426,4207.179688,0.0,4.0,91.0,,,,0.0,1.0,0.0,0.0,0.0,0.0,0.0,,,,,,,,,,,,,,,,,,,,,,,,,,,,,,,,,,,,,,,,,,,,,,,,,,,,,,,,,,,,,,,,,,,,,,,,,,,,,,,,,,,,
20717,1650406465.157213,1650406465.178271,64.0,0.0,4237.94873,4942.05127,4076.4101560000004,4294.358886999999,4296.922852000001,450.0,4.0,91.0,,,,0.0,1.0,0.0,0.0,0.0,0.0,0.0,,,,,,,,32.0,0.0,0.6764100000000001,0.5839840000000001,0.35131799999999996,-0.27929699999999996,0.808606,-0.599619,-0.064454,-0.016937999999999998,-0.050834,-0.010699,,,,,,,,,,,,,,,,,,,,,,,,,,,,,,,,,,,0.0,0.0,32.0,0.015069999999999998,1.0,0.0,,,,,,,,,,,,,,,,,,,,,,,,,
20718,1650406465.165027,1650406465.186085,65.0,0.0,4285.128418,5182.05127,4091.281982,4286.153809,4350.769043,450.0,4.0,91.0,,,,0.0,1.0,0.0,0.0,0.0,0.0,0.0,,,,,,,,,,,,,,,,,,,,,,,,,,,,,,,,,,,,,,,,,,,,,,,,,,,,,,,,,,,,,,,,,,,,,,,,,,,,,,,,,,,,
20719,1650406465.172842,1650406465.1938,66.0,0.0,4290.256348,4848.205078,4154.871582,4280.0,4284.102539,297.0,4.0,91.0,,,,0.0,2.0,0.0,0.0,0.0,0.0,0.0,,,,,,,,33.0,0.0,0.6764100000000001,0.5839840000000001,0.35131799999999996,-0.27929699999999996,0.8095829999999999,-0.609873,-0.06640700000000001,-0.015977,-0.050829,-0.012217,,,,,,,,,,,,,,,,,,,,,,,,,,,,,,,,,,,,,,,,,,,,,,,,,,,,,,,,,,,,,,,,,
20720,1650406465.180656,1650406465.2016141,67.0,0.0,4354.358886999999,4602.563965,4120.0,4276.922852000001,4255.897461,450.0,4.0,91.0,,,,0.0,2.0,0.0,0.0,0.0,0.0,0.0,,,,,,,,,,,,,,,,,,,,,,,,,,,,,,,,,,,,,,,,,,,,,,,,,,,,,,,,,,,,,,,,,,,,,,,,,,,,,,,,,,,,
20721,1650406465.188471,1650406465.209328,68.0,0.0,4374.871582,4654.358886999999,4253.333496,4280.512695,4258.461426,0.0,4.0,91.0,,,,0.0,2.0,0.0,0.0,0.0,0.0,0.0,1.0,0.0,0.0,0.0,0.0,0.0,0.0,34.0,0.0,0.6765369999999999,0.5839840000000001,0.351074,-0.27929699999999996,0.805188,-0.601572,-0.07128999999999999,-0.016772,-0.050775,-0.013534000000000001,1.0,0.0,0.0,,,,,,,,,,,,,,,,,,,,,,,,,,,,,,,,0.0,0.0,32.0,0.017799000000000002,1.0,0.0,76.00410500000001,46.289234,53.501102,23.658815,7.306734,1247.735718,910.353027,870.265625,194.156479,87.083809,327.21948199999997,201.760483,251.855896,98.377274,74.09687,1.130889,0.568968,0.5702010000000001,0.120505,0.07640599999999999,72.285797,43.523483,26.999903000000003,19.835016,5.049506
20722,1650406465.196285,1650406465.217143,69.0,0.0,4334.871582,4306.666504,4317.436035,4287.692383,4214.358886999999,450.0,4.0,91.0,,,,0.0,2.0,0.0,0.0,0.0,0.0,0.0,,,,,,,,,,,,,,,,,,,,,,,,,,,,,,,,,,,,,,,,,,,,,,,,,,,,,,,,,,,,,,,,,,,,,,,,,,,,,,,,,,,,
20723,1650406465.2041,1650406465.224857,70.0,0.0,4290.256348,4103.589844,4365.128418,4290.769043,4232.820313,0.0,4.0,91.0,,,,0.0,2.0,0.0,0.0,0.0,0.0,0.0,,,,,,,,35.0,0.0,0.6765369999999999,0.5839840000000001,0.351074,-0.27929699999999996,0.8012819999999999,-0.590341,-0.064454,-0.017438,-0.050776,-0.011644,,,,,,,,,,,,,,,,,,,,,,,,,,,,,,,,,,,,,,,,,,,,,,,,,,,,,,,,,,,,,,,,,
20724,1650406465.211914,1650406465.232672,71.0,0.0,4313.333496,4393.333496,4376.410156,4294.358886999999,4346.666504,450.0,4.0,91.0,,,,0.0,2.0,0.0,0.0,0.0,0.0,0.0,,,,,,,,,,,,,,,,,,,,,,,,,,,,,,,,,,,,,,,,,,,,,,,,,,,,,,,,,,,,,,,,,,,,,,,,,,,,,,,,,,,,
20725,1650406465.219729,1650406465.240386,72.0,0.0,4346.153809,4596.410156,4208.717772999999,4295.384765999999,4369.230957,450.0,4.0,91.0,,,,0.0,2.0,0.0,0.0,0.0,0.0,0.0,,,,,,,,36.0,0.0,0.6764100000000001,0.5839840000000001,0.35131799999999996,-0.27929699999999996,0.8095829999999999,-0.609873,-0.06640700000000001,-0.018136000000000003,-0.050825,-0.009894,,,,,,,,,,,,,,,,,,,,,,,,,,,,,,,,,,,0.0,0.0,32.0,0.017799000000000002,1.0,0.0,,,,,,,,,,,,,,,,,,,,,,,,,
20726,1650406465.2275429,1650406465.248201,73.0,0.0,4323.077147999999,4722.563965,4067.6923829999996,4292.307617,4345.641113000001,0.0,4.0,91.0,,,,0.0,2.0,0.0,0.0,0.0,0.0,0.0,,,,,,,,,,,,,,,,,,,,,,,,,,,,,,,,,,,,,,,,,,,,,,,,,,,,,,,,,,,,,,,,,,,,,,,,,,,,,,,,,,,,
20727,1650406465.235358,1650406465.256015,74.0,0.0,4286.153809,4963.589844,4111.794922,4286.666504,4329.230957,450.0,4.0,91.0,,,,0.0,2.0,0.0,0.0,0.0,0.0,0.0,,,,,,,,37.0,0.0,0.6765369999999999,0.5839840000000001,0.351074,-0.27929699999999996,0.8012819999999999,-0.590341,-0.064454,-0.018666,-0.050821,-0.008367,,,,,,,,,,,,,,,,,,,,,,,,,,,,,,,,,,,,,,,,,,,,,,,,,,,,,,,,,,,,,,,,,
20728,1650406465.2431731,1650406465.2637289,75.0,0.0,4348.205078,4986.153809,4182.05127,4281.538574,4326.666504,0.0,4.0,91.0,,,,0.0,2.0,0.0,0.0,0.0,0.0,0.0,,,,,,,,,,,,,,,,,,,,,,,,,,,,,,,,,,,,,,,,,,,,,,,,,,,,,,,,,,,,,,,,,,,,,,,,,,,,,,,,,,,,
