,Timestamp,OriginalTimestamp,EEG.Counter,EEG.Interpolated,EEG.AF3,EEG.T7,EEG.Pz,EEG.T8,EEG.AF4,EEG.RawCq,EEG.Battery,EEG.BatteryPercent,MarkerIndex,MarkerType,MarkerValueInt,EEG.MarkerHardware,CQ.AF3,CQ.T7,CQ.Pz,CQ.T8,CQ.AF4,CQ.Overall,EQ.SampleRateQuality,EQ.OVERALL,EQ.AF3,EQ.T7,EQ.Pz,EQ.T8,EQ.AF4,MOT.CounterMems,MOT.InterpolatedMems,MOT.Q0,MOT.Q1,MOT.Q2,MOT.Q3,MOT.AccX,MOT.AccY,MOT.AccZ,MOT.MagX,MOT.MagY,MOT.MagZ,MC.Action,MC.ActionPower,MC.IsActive,PM.Engagement.IsActive,PM.Engagement.Scaled,PM.Engagement.Raw,PM.Engagement.Min,PM.Engagement.Max,PM.Excitement.IsActive,PM.Excitement.Scaled,PM.Excitement.Raw,PM.Excitement.Min,PM.Excitement.Max,PM.LongTermExcitement,PM.Stress.IsActive,PM.Stress.Scaled,PM.Stress.Raw,PM.Stress.Min,PM.Stress.Max,PM.Relaxation.IsActive,PM.Relaxation.Scaled,PM.Relaxation.Raw,PM.Relaxation.Min,PM.Relaxation.Max,PM.Interest.IsActive,PM.Interest.Scaled,PM.Interest.Raw,PM.Interest.Min,PM.Interest.Max,PM.Focus.IsActive,PM.Focus.Scaled,PM.Focus.Raw,PM.Focus.Min,PM.Focus.Max,FE.BlinkWink,FE.HorizontalEyesDirection,FE.UpperFaceAction,FE.UpperFaceActionPower,FE.LowerFaceAction,FE.LowerFaceActionPower,POW.AF3.Theta,POW.AF3.Alpha,POW.AF3.BetaL,POW.AF3.BetaH,POW.AF3.Gamma,POW.T7.Theta,POW.T7.Alpha,POW.T7.BetaL,POW.T7.BetaH,POW.T7.Gamma,POW.Pz.Theta,POW.Pz.Alpha,POW.Pz.BetaL,POW.Pz.BetaH,POW.Pz.Gamma,POW.T8.Theta,POW.T8.Alpha,POW.T8.BetaL,POW.T8.BetaH,POW.T8.Gamma,POW.AF4.Theta,POW.AF4.Alpha,POW.AF4.BetaL,POW.AF4.BetaH,POW.AF4.Gamma
4178,1650413541.974885,1650413541.996243,54.0,0.0,4367.179688,4558.461426,4221.538574,4280.512695,4247.179688,0.0,3.0,73.0,5.0,1.0,2.0,0.0,4.0,0.0,2.0,0.0,4.0,16.666666,,,,,,,,27.0,0.0,0.285037,-0.433838,0.49706999999999996,0.695313,0.8969860000000001,-0.45069,-0.140627,-0.045742000000000005,-0.055489,-0.020104,,,,,,,,,,,,,,,,,,,,,,,,,,,,,,,,,,,,,,,,,,,,,,,,,,,,,,,,,,,,,,,,,
4179,1650413541.9827,1650413542.004057,55.0,0.0,4378.974121,4619.487305,4234.358886999999,4280.512695,4256.410156,0.0,3.0,73.0,,,,0.0,4.0,0.0,2.0,0.0,4.0,16.666666,,,,,,,,,,,,,,,,,,,,,,,,,,,,,,,,,,,,,,,,,,,,,,,,,,,,,,,,,,,,,,,,,,,,,,,,,,,,,,,,,,,,
4180,1650413541.990514,1650413542.0117722,56.0,0.0,4395.897461,4608.205078,4237.436035,4280.512695,4283.589844,0.0,3.0,73.0,,,,0.0,4.0,0.0,2.0,0.0,4.0,16.666666,,,,,,,,28.0,0.0,0.285037,-0.433838,0.49706999999999996,0.695313,0.881849,-0.449226,-0.144533,-0.046001,-0.055457000000000006,-0.021266999999999998,,,,,,,,,,,,,,,,,,,,,,,,,,,,,,,,,,,,,,,,,,,,,,,,,,,,,,,,,,,,,,,,,
4181,1650413541.998329,1650413542.019687,57.0,0.0,4385.641113000001,4587.692383,4211.794922,4280.512695,4277.94873,0.0,3.0,73.0,,,,0.0,4.0,0.0,2.0,0.0,4.0,16.666666,,,,,,,,,,,,,,,,,,,,1.0,0.0,0.0,,,,,,,,,,,,,,,,,,,,,,,,,,,,,,,,0.0,0.0,1.0,0.0,512.0,1.0,6.570714,4.354074,1.9825560000000002,2.239989,2.378217,17.469652,20.903461,61.08360699999999,31.899584,24.678135,2.387725,1.36599,2.24567,1.7828709999999999,2.6659669999999998,0.0,0.0,0.0,0.0,0.0,4.559861,3.962086,2.367742,1.9023,2.4503630000000003
4182,1650413542.0061429,1650413542.0275009,58.0,0.0,4361.025879,4680.512695,4205.641113000001,4280.512695,4244.615234000001,0.0,3.0,73.0,,,,0.0,4.0,0.0,2.0,0.0,4.0,16.666666,,,,,,,,29.0,0.0,0.285037,-0.433838,0.49706999999999996,0.695313,0.8969860000000001,-0.45069,-0.140627,-0.046187,-0.055478,-0.019043,,,,,,,,,,,,,,,,,,,,,,,,,,,,,,,,,,,,,,,,,,,,,,,,,,,,,,,,,,,,,,,,,
4183,1650413542.013958,1650413542.0354161,59.0,0.0,4336.922852000001,4709.743652,4212.307617,4280.512695,4227.179688,0.0,3.0,73.0,,,,0.0,4.0,0.0,2.0,0.0,4.0,16.666666,,,,,,,,,,,,,,,,,,,,,,,,,,,,,,,,,,,,,,,,,,,,,,,,,,,,,,,,,,,,,,,,,,,,,,,,,,,,,,,,,,,,
4184,1650413542.0217721,1650413542.043231,60.0,0.0,4349.230957,4597.436035,4220.512695,4280.512695,4240.0,0.0,3.0,73.0,,,,0.0,4.0,0.0,2.0,0.0,4.0,16.666666,,,,,,,,30.0,0.0,0.285037,-0.433838,0.49706999999999996,0.695313,0.8886850000000001,-0.453132,-0.132326,-0.046304000000000005,-0.055448000000000004,-0.014159999999999999,,,,,,,,,,,,,,,,,,,,,,,,,,,,,,,,,,,,,,,,,,,,,,,,,,,,,,,,,,,,,,,,,
4185,1650413542.0295858,1650413542.0511448,61.0,0.0,4372.307617,4564.615234000001,4232.307617,4280.512695,4255.384765999999,0.0,3.0,73.0,,,,0.0,4.0,0.0,2.0,0.0,4.0,16.666666,,,,,,,,,,,,,,,,,,,,,,,,,,,,,,,,,,,,,,,,,,,,,,,,,,,,,,0.0,0.0,1.0,0.0,512.0,1.0,,,,,,,,,,,,,,,,,,,,,,,,,
4186,1650413542.037401,1650413542.05896,62.0,0.0,4350.769043,4665.128418,4221.025879,4280.512695,4242.05127,0.0,3.0,73.0,,,,0.0,4.0,0.0,2.0,0.0,4.0,16.666666,,,,,,,,31.0,0.0,0.285037,-0.433838,0.49706999999999996,0.695313,0.8921030000000001,-0.45069,-0.138186,-0.04641,-0.055421000000000005,-0.015918,,,,,,,,,,,,,,,,,,,,,,,,,,,,,,,,,,,,,,,,,,,,,,,,,,,,,,,,,,,,,,,,,
4187,1650413542.0452151,1650413542.066874,63.0,0.0,4337.436035,4695.384765999999,4206.666504,4280.512695,4226.153809,0.0,3.0,73.0,,,,0.0,4.0,0.0,2.0,0.0,4.0,16.666666,,,,,,,,,,,,,,,,,,,,,,,,,,,,,,,,,,,,,,,,,,,,,,,,,,,,,,,,,,,,,,,,,,,,,,,,,,,,,,,,,,,,
4188,1650413542.05303,1650413542.0746891,64.0,0.0,4364.102539,4610.256348,4217.94873,4280.512695,4244.102539,450.0,3.0,73.0,,,,0.0,4.0,0.0,2.0,0.0,4.0,16.666666,,,,,,,,32.0,0.0,0.285037,-0.433838,0.49706999999999996,0.695313,0.8930799999999999,-0.45557299999999995,-0.12842,-0.046506,-0.05549400000000001,-0.014277000000000001,,,,,,,,,,,,,,,,,,,,,,,,,,,,,,,,,,,,,,,,,,,,,,,,,,,,,,,,,,,,,,,,,
4189,1650413542.060845,1650413542.082604,65.0,0.0,4390.769043,4587.179688,4240.512695,4280.512695,4284.615234000001,450.0,3.0,73.0,,,,0.0,4.0,0.0,2.0,0.0,4.0,16.666666,,,,,,,,,,,,,,,,,,,,,,,,,,,,,,,,,,,,,,,,,,,,,,,,,,,,,,0.0,0.0,1.0,0.0,512.0,1.0,,,,,,,,,,,,,,,,,,,,,,,,,
4190,1650413542.068659,1650413542.0904179,66.0,0.0,4394.871582,4674.871582,4250.769043,4280.512695,4289.743652,16201.0,3.0,73.0,,,,0.0,4.0,0.0,2.0,0.0,4.0,16.666666,,,,,,,,33.0,0.0,0.285632,-0.433838,0.49706999999999996,0.695068,0.8808729999999999,-0.438483,-0.14990499999999998,-0.046543,-0.055560000000000005,-0.015975,,,,,,,,,,,,,,,,,,,,,,,,,,,,,,,,,,,,,,,,,,,,,,,,,,,,,,,,,,,,,,,,,
4191,1650413542.076474,1650413542.0983331,67.0,0.0,4366.666504,4693.333496,4241.538574,4280.512695,4253.333496,450.0,3.0,73.0,,,,0.0,4.0,0.0,2.0,0.0,4.0,16.666666,,,,,,,,,,,,,,,,,,,,,,,,,,,,,,,,,,,,,,,,,,,,,,,,,,,,,,,,,,,,,,,,,,,,,,,,,,,,,,,,,,,,
4192,1650413542.0842881,1650413542.106147,68.0,0.0,4350.256348,4633.846191,4236.922852000001,4280.512695,4243.589844,0.0,3.0,73.0,,,,0.0,4.0,0.0,2.0,0.0,4.0,16.666666,,,,,,,,34.0,0.0,0.285037,-0.433838,0.49706999999999996,0.695313,0.893568,-0.443366,-0.141604,-0.046674,-0.055571,-0.014280000000000001,,,,,,,,,,,,,,,,,,,,,,,,,,,,,,,,,,,,,,,,,,,,,,,,,,,,,,,,,,,,,,,,,
4193,1650413542.092103,1650413542.1140618,69.0,0.0,4350.256348,4601.538574,4222.05127,4280.512695,4242.05127,450.0,3.0,73.0,,,,0.0,4.0,0.0,2.0,0.0,4.0,16.666666,,,,,,,,,,,,,,,,,,,,,,,,,,,,,,,,,,,,,,,,,,,,,,,,,,,,,,0.0,0.0,1.0,0.0,512.0,1.0,,,,,,,,,,,,,,,,,,,,,,,,,
4194,1650413542.099917,1650413542.121877,70.0,0.0,4340.0,4604.615234000001,4214.358886999999,4280.512695,4233.333496,299.0,3.0,73.0,,,,0.0,4.0,0.0,2.0,0.0,4.0,16.666666,,,,,,,,35.0,0.0,0.285261,-0.43408199999999997,0.49706999999999996,0.695068,0.8969860000000001,-0.448737,-0.132326,-0.045278,-0.055482000000000004,-0.015977,,,,,,,,,,,,,,,,,,,,,,,,,,,,,,,,,,,,,,,,,,,,,,,,,,,,,,,,,,,,,,,,,
4195,1650413542.107732,1650413542.1296911,71.0,0.0,4350.769043,4656.922852000001,4249.743652,4280.512695,4256.922852000001,450.0,3.0,73.0,,,,0.0,4.0,0.0,2.0,0.0,4.0,16.666666,,,,,,,,,,,,,,,,,,,,,,,,,,,,,,,,,,,,,,,,,,,,,,,,,,,,,,,,,,,,,,,,,,,,,,,,,,,,,,,,,,,,
4196,1650413542.115546,1650413542.137506,72.0,0.0,4367.692383,4656.922852000001,4250.256348,4280.512695,4269.743652,450.0,3.0,73.0,,,,0.0,4.0,0.0,2.0,0.0,4.0,16.666666,,,,,,,,36.0,0.0,0.285632,-0.433838,0.49706999999999996,0.695068,0.893568,-0.453132,-0.135256,-0.045438,-0.055402999999999994,-0.011352,,,,,,,,,,,,,,,,,,,,,,,,,,,,,,,,,,,,,,,,,,,,,,,,,,,,,,,,,,,,,,,,,
4197,1650413542.1233609,1650413542.145221,73.0,0.0,4330.769043,4586.666504,4197.436035,4280.512695,4233.846191,0.0,3.0,73.0,,,,0.0,4.0,0.0,2.0,0.0,4.0,16.666666,1.0,16.666666,4.0,0.0,2.0,0.0,4.0,,,,,,,,,,,,,1.0,0.0,0.0,,,,,,,,,,,,,,,,,,,,,,,,,,,,,,,,0.0,0.0,1.0,0.0,512.0,1.0,4.987017,3.757745,1.8931209999999998,2.130172,2.366787,18.917654000000002,25.264689999999998,60.029915,32.611828,22.445522,1.911345,1.2647899999999999,1.9695,1.7253599999999998,2.593068,0.0,0.0,0.0,0.0,0.0,3.393819,3.2933169999999996,2.583328,1.814355,2.414504
4198,1650413542.131175,1650413542.153035,74.0,0.0,4306.666504,4574.871582,4190.256348,4280.512695,4223.589844,450.0,3.0,73.0,,,,0.0,4.0,0.0,2.0,0.0,4.0,16.666666,,,,,,,,37.0,0.0,0.285261,-0.43408199999999997,0.49706999999999996,0.695068,0.9028459999999999,-0.45215500000000003,-0.150881,-0.044117,-0.05538,-0.013488,,,,,,,,,,,,,,,,,,,,,,,,,,,,,,,,,,,,,,,,,,,,,,,,,,,,,,,,,,,,,,,,,
4199,1650413542.13899,1650413542.16075,75.0,0.0,4355.897461,4606.666504,4230.256348,4280.512695,4273.846191,16195.0,3.0,73.0,,,,0.0,4.0,0.0,2.0,0.0,4.0,16.666666,,,,,,,,,,,,,,,,,,,,,,,,,,,,,,,,,,,,,,,,,,,,,,,,,,,,,,,,,,,,,,,,,,,,,,,,,,,,,,,,,,,,
4200,1650413542.1468039,1650413542.168665,76.0,0.0,4382.05127,4616.410156,4234.871582,4280.512695,4290.769043,450.0,3.0,73.0,,,,0.0,4.0,0.0,2.0,0.0,4.0,16.666666,,,,,,,,38.0,0.0,0.285261,-0.43408199999999997,0.49706999999999996,0.695068,0.9052870000000001,-0.453132,-0.143069,-0.044344,-0.05536,-0.009112,,,,,,,,,,,,,,,,,,,,,,,,,,,,,,,,,,,,,,,,,,,,,,,,,,,,,,,,,,,,,,,,,
4201,1650413542.154619,1650413542.176579,77.0,0.0,4356.410156,4626.153809,4216.922852000001,4280.512695,4246.153809,450.0,3.0,73.0,,,,0.0,4.0,0.0,2.0,0.0,4.0,16.666666,,,,,,,,,,,,,,,,,,,,,,,,,,,,,,,,,,,,,,,,,,,,,,,,,,,,,,0.0,0.0,1.0,0.0,512.0,1.0,,,,,,,,,,,,,,,,,,,,,,,,,
4202,1650413542.162433,1650413542.184394,78.0,0.0,4335.897461,4658.461426,4208.717772999999,4280.512695,4220.512695,450.0,3.0,73.0,,,,0.0,4.0,0.0,2.0,0.0,4.0,16.666666,,,,,,,,39.0,0.0,0.285261,-0.43408199999999997,0.49706999999999996,0.695068,0.8960100000000001,-0.443366,-0.14111500000000002,-0.043132,-0.05519500000000001,-0.011521,,,,,,,,,,,,,,,,,,,,,,,,,,,,,,,,,,,,,,,,,,,,,,,,,,,,,,,,,,,,,,,,,
4203,1650413542.170248,1650413542.192209,79.0,0.0,4341.538574,4668.717772999999,4214.871582,4280.512695,4240.0,16195.0,3.0,73.0,,,,0.0,4.0,0.0,2.0,0.0,4.0,16.666666,,,,,,,,,,,,,,,,,,,,,,,,,,,,,,,,,,,,,,,,,,,,,,,,,,,,,,,,,,,,,,,,,,,,,,,,,,,,,,,,,,,,
4204,1650413542.178062,1650413542.200124,80.0,0.0,4357.436035,4653.333496,4222.05127,4280.512695,4254.871582,450.0,3.0,73.0,,,,0.0,4.0,0.0,2.0,0.0,4.0,16.666666,,,,,,,,40.0,0.0,0.284889,-0.43432600000000005,0.49706999999999996,0.695068,0.895033,-0.44483100000000003,-0.131838,-0.043555,-0.05519299999999999,-0.013591999999999998,,,,,,,,,,,,,,,,,,,,,,,,,,,,,,,,,,,,,,,,,,,,,,,,,,,,,,,,,,,,,,,,,
4205,1650413542.1858768,1650413542.2079382,81.0,0.0,4360.512695,4660.0,4217.94873,4280.512695,4253.846191,450.0,3.0,73.0,,,,0.0,4.0,0.0,2.0,0.0,4.0,16.666666,,,,,,,,,,,,,,,,,,,,,,,,,,,,,,,,,,,,,,,,,,,,,,,,,,,,,,0.0,0.0,1.0,0.0,512.0,1.0,,,,,,,,,,,,,,,,,,,,,,,,,
4206,1650413542.193691,1650413542.215853,82.0,0.0,4352.307617,4680.0,4223.589844,4280.512695,4256.410156,450.0,3.0,73.0,,,,0.0,4.0,0.0,2.0,0.0,4.0,16.666666,,,,,,,,41.0,0.0,0.284889,-0.43432600000000005,0.49706999999999996,0.695068,0.898451,-0.44776099999999996,-0.13086099999999998,-0.043936,-0.05524,-0.015455000000000002,,,,,,,,,,,,,,,,,,,,,,,,,,,,,,,,,,,,,,,,,,,,,,,,,,,,,,,,,,,,,,,,,
4207,1650413542.2015061,1650413542.223667,83.0,0.0,4338.974121,4660.512695,4229.743652,4280.512695,4250.769043,16195.0,3.0,73.0,,,,0.0,4.0,0.0,2.0,0.0,4.0,16.666666,,,,,,,,,,,,,,,,,,,,,,,,,,,,,,,,,,,,,,,,,,,,,,,,,,,,,,,,,,,,,,,,,,,,,,,,,,,,,,,,,,,,
4208,1650413542.2093198,1650413542.231582,84.0,0.0,4335.384765999999,4630.769043,4221.538574,4280.512695,4242.05127,450.0,3.0,73.0,,,,0.0,4.0,0.0,2.0,0.0,4.0,16.666666,,,,,,,,42.0,0.0,0.284889,-0.43432600000000005,0.49706999999999996,0.695068,0.904799,-0.436042,-0.138674,-0.044425,-0.055332000000000006,-0.013713999999999999,,,,,,,,,,,,,,,,,,,,,,,,,,,,,,,,,,,,,,,,,,,,,,,,,,,,,,,,,,,,,,,,,
4209,1650413542.217135,1650413542.239397,85.0,0.0,4346.153809,4613.846191,4211.794922,4280.512695,4250.769043,450.0,3.0,73.0,,,,0.0,4.0,0.0,2.0,0.0,4.0,16.666666,,,,,,,,,,,,,,,,,,,,,,,,,,,,,,,,,,,,,,,,,,,,,,,,,,,,,,0.0,0.0,1.0,0.0,512.0,1.0,,,,,,,,,,,,,,,,,,,,,,,,,
4210,1650413542.2249491,1650413542.2473109,86.0,0.0,4338.974121,4545.128418,4198.461426,4280.512695,4240.512695,450.0,3.0,73.0,,,,0.0,4.0,0.0,2.0,0.0,4.0,16.666666,,,,,,,,43.0,0.0,0.284943,-0.43456999999999996,0.49682600000000005,0.695068,0.886244,-0.430671,-0.13916199999999998,-0.044768,-0.055365,-0.015566,,,,,,,,,,,,,,,,,,,,,,,,,,,,,,,,,,,,,,,,,,,,,,,,,,,,,,,,,,,,,,,,,
4211,1650413542.232764,1650413542.255226,87.0,0.0,4308.717772999999,4534.871582,4200.512695,4280.512695,4213.846191,16195.0,3.0,73.0,,,,0.0,4.0,0.0,2.0,0.0,4.0,16.666666,,,,,,,,,,,,,,,,,,,,,,,,,,,,,,,,,,,,,,,,,,,,,,,,,,,,,,,,,,,,,,,,,,,,,,,,,,,,,,,,,,,,
4212,1650413542.240579,1650413542.263041,88.0,0.0,4310.256348,4660.512695,4225.641113000001,4280.512695,4233.333496,450.0,3.0,73.0,,,,0.0,4.0,0.0,2.0,0.0,4.0,16.666666,,,,,,,,44.0,0.0,0.285368,-0.43456999999999996,0.49658199999999997,0.695068,0.8964979999999999,-0.438483,-0.13086099999999998,-0.044979000000000005,-0.055346000000000006,-0.017232,,,,,,,,,,,,,,,,,,,,,,,,,,,,,,,,,,,,,,,,,,,,,,,,,,,,,,,,,,,,,,,,,
4213,1650413542.248393,1650413542.270956,89.0,0.0,4349.230957,4650.256348,4227.692383,4280.512695,4264.615234000001,450.0,3.0,73.0,,,,0.0,4.0,0.0,2.0,0.0,4.0,16.666666,,,,,,,,,,,,,,,,,,,,1.0,0.0,0.0,,,,,,,,,,,,,,,,,,,,,,,,,,,,,,,,0.0,0.0,1.0,0.0,512.0,1.0,3.6683879999999998,3.1577330000000003,1.78335,1.929242,2.4340200000000003,20.591333,27.963820000000002,54.540119,31.252035,19.648067,1.5856940000000002,1.151055,1.5427790000000001,1.604408,2.585416,0.0,0.0,0.0,0.0,0.0,2.4464919999999997,2.6514349999999998,2.738115,1.6735509999999998,2.465313
4214,1650413542.256208,1650413542.27877,90.0,0.0,4350.769043,4528.717772999999,4208.717772999999,4280.512695,4249.743652,450.0,3.0,73.0,,,,0.0,4.0,0.0,2.0,0.0,4.0,16.666666,,,,,,,,45.0,0.0,0.284996,-0.43481400000000003,0.49658199999999997,0.695068,0.9004040000000001,-0.457038,-0.135744,-0.045266,-0.055328999999999996,-0.01546,,,,,,,,,,,,,,,,,,,,,,,,,,,,,,,,,,,,,,,,,,,,,,,,,,,,,,,,,,,,,,,,,
4215,1650413542.264022,1650413542.286685,91.0,0.0,4325.128418,4581.025879,4214.358886999999,4280.512695,4231.794922,16195.0,3.0,73.0,,,,0.0,4.0,0.0,2.0,0.0,4.0,16.666666,,,,,,,,,,,,,,,,,,,,,,,,,,,,,,,,,,,,,,,,,,,,,,,,,,,,,,,,,,,,,,,,,,,,,,,,,,,,,,,,,,,,
4216,1650413542.271837,1650413542.2946,92.0,0.0,4325.641113000001,4669.743652,4221.025879,4280.512695,4243.589844,450.0,3.0,73.0,,,,0.0,4.0,0.0,2.0,0.0,4.0,16.666666,,,,,,,,46.0,0.0,0.284773,-0.43456999999999996,0.49658199999999997,0.695313,0.889174,-0.455085,-0.129885,-0.045525,-0.05546,-0.017185,,,,,,,,,,,,,,,,,,,,,,,,,,,,,,,,,,,,,,,,,,,,,,,,,,,,,,,,,,,,,,,,,
4217,1650413542.279651,1650413542.3024151,93.0,0.0,4339.487305,4626.666504,4224.615234000001,4280.512695,4263.589844,450.0,3.0,73.0,,,,0.0,4.0,0.0,2.0,0.0,4.0,16.666666,,,,,,,,,,,,,,,,,,,,,,,,,,,,,,,,,,,,,,,,,,,,,,,,,,,,,,0.0,0.0,1.0,0.0,512.0,1.0,,,,,,,,,,,,,,,,,,,,,,,,,
4218,1650413542.287465,1650413542.31023,94.0,0.0,4340.512695,4588.717772999999,4248.717772999999,4280.512695,4262.563965,450.0,3.0,73.0,,,,0.0,4.0,0.0,2.0,0.0,4.0,16.666666,,,,,,,,47.0,0.0,0.285198,-0.43456999999999996,0.496338,0.695313,0.87892,-0.43946,-0.13086099999999998,-0.044195,-0.055480999999999996,-0.018738,,,,,,,,,,,,,,,,,,,,,,,,,,,,,,,,,,,,,,,,,,,,,,,,,,,,,,,,,,,,,,,,,
4219,1650413542.29528,1650413542.3181438,95.0,0.0,4315.384765999999,4621.025879,4240.0,4280.512695,4228.205078,16195.0,3.0,73.0,,,,0.0,4.0,0.0,2.0,0.0,4.0,16.666666,,,,,,,,,,,,,,,,,,,,,,,,,,,,,,,,,,,,,,,,,,,,,,,,,,,,,,,,,,,,,,,,,,,,,,,,,,,,,,,,,,,,
4220,1650413542.3030949,1650413542.325959,96.0,0.0,4301.538574,4652.307617,4205.128418,4280.512695,4215.384765999999,450.0,3.0,73.0,,,,0.0,4.0,0.0,2.0,0.0,4.0,16.666666,,,,,,,,48.0,0.0,0.284773,-0.43456999999999996,0.49658199999999997,0.695313,0.923842,-0.45215500000000003,-0.141604,-0.042998,-0.055548,-0.020136,,,,,,,,,,,,,,,,,,,,,,,,,,,,,,,,,,,,,,,,,,,,,,,,,,,,,,,,,,,,,,,,,
4221,1650413542.310909,1650413542.333874,97.0,0.0,4341.025879,4641.538574,4217.94873,4280.512695,4260.512695,450.0,3.0,73.0,,,,0.0,4.0,0.0,2.0,0.0,4.0,16.666666,,,,,,,,,,,,,,,,,,,,,,,,,,,,,,,,,,,,,,,,,,,,,,,,,,,,,,0.0,0.0,1.0,0.0,512.0,1.0,,,,,,,,,,,,,,,,,,,,,,,,,
4222,1650413542.318724,1650413542.3416882,98.0,0.0,4372.820313,4612.820313,4247.179688,4280.512695,4286.153809,450.0,3.0,73.0,,,,0.0,4.0,0.0,2.0,0.0,4.0,16.666666,,,,,,,,49.0,0.0,0.285368,-0.43456999999999996,0.49658199999999997,0.695068,0.917006,-0.44531899999999996,-0.133303,-0.043483999999999995,-0.055560000000000005,-0.015241,,,,,,,,,,,,,,,,,,,,,,,,,,,,,,,,,,,,,,,,,,,,,,,,,,,,,,,,,,,,,,,,,
4223,1650413542.326538,1650413542.349603,99.0,0.0,4356.922852000001,4631.794922,4239.487305,4280.512695,4265.641113000001,16195.0,3.0,73.0,,,,0.0,4.0,0.0,2.0,0.0,4.0,16.666666,,,,,,,,,,,,,,,,,,,,,,,,,,,,,,,,,,,,,,,,,,,,,,,,,,,,,,,,,,,,,,,,,,,,,,,,,,,,,,,,,,,,
4224,1650413542.334353,1650413542.357417,100.0,0.0,4351.282227000001,4651.794922,4228.205078,4280.512695,4271.794922,450.0,3.0,73.0,,,,0.0,4.0,0.0,2.0,0.0,4.0,16.666666,,,,,,,,50.0,0.0,0.284943,-0.43456999999999996,0.49682600000000005,0.695068,0.904799,-0.44531899999999996,-0.13086099999999998,-0.04392,-0.05557,-0.017038,,,,,,,,,,,,,,,,,,,,,,,,,,,,,,,,,,,,,,,,,,,,,,,,,,,,,,,,,,,,,,,,,
4225,1650413542.342167,1650413542.3653321,101.0,0.0,4370.256348,4608.205078,4236.410156,4280.512695,4297.94873,450.0,3.0,73.0,,,,0.0,4.0,0.0,2.0,0.0,4.0,16.666666,,,,,,,,,,,,,,,,,,,,,,,,,,,,,,,,,,,,,,,,,,,,,,,,,,,,,,0.0,0.0,1.0,0.0,512.0,1.0,,,,,,,,,,,,,,,,,,,,,,,,,
4226,1650413542.349982,1650413542.373147,102.0,0.0,4346.666504,4607.692383,4233.333496,4280.512695,4275.897461,450.0,3.0,73.0,,,,0.0,4.0,0.0,2.0,0.0,4.0,16.666666,,,,,,,,51.0,0.0,0.285909,-0.43432600000000005,0.49682600000000005,0.694824,0.893568,-0.45801499999999995,-0.135744,-0.044314,-0.055433,-0.021486,,,,,,,,,,,,,,,,,,,,,,,,,,,,,,,,,,,,,,,,,,,,,,,,,,,,,,,,,,,,,,,,,
4227,1650413542.3577962,1650413542.3810608,103.0,0.0,4306.153809,4631.794922,4224.102539,4280.512695,4230.256348,16195.0,3.0,73.0,,,,0.0,4.0,0.0,2.0,0.0,4.0,16.666666,,,,,,,,,,,,,,,,,,,,,,,,,,,,,,,,,,,,,,,,,,,,,,,,,,,,,,,,,,,,,,,,,,,,,,,,,,,,,,,,,,,,
4228,1650413542.3656108,1650413542.3889759,104.0,0.0,4307.692383,4574.358886999999,4228.205078,4280.512695,4224.102539,450.0,3.0,73.0,,,,0.0,4.0,0.0,2.0,0.0,4.0,16.666666,,,,,,,,52.0,0.0,0.285484,-0.43432600000000005,0.49706999999999996,0.694824,0.9004040000000001,-0.446784,-0.143557,-0.044521,-0.055505,-0.022609,,,,,,,,,,,,,,,,,,,,,,,,,,,,,,,,,,,,,,,,,,,,,,,,,,,,,,,,,,,,,,,,,
4229,1650413542.373425,1650413542.396791,105.0,0.0,4330.769043,4593.333496,4241.025879,4280.512695,4249.743652,450.0,3.0,73.0,,,,0.0,4.0,0.0,2.0,0.0,4.0,16.666666,,,,,,,,,,,,,,,,,,,,1.0,0.0,0.0,,,,,,,,,,,,,,,,,,,,,,,,,,,,,,,,0.0,0.0,1.0,0.0,512.0,1.0,2.752173,2.75203,1.6885310000000002,1.681059,2.583242,21.965645000000002,28.01988,46.047989,27.992865000000002,16.978296,1.520991,1.06608,1.092374,1.459201,2.670137,0.0,0.0,0.0,0.0,0.0,1.799479,2.19538,2.778059,1.526233,2.621723
4230,1650413542.3812401,1650413542.404606,106.0,0.0,4330.256348,4668.717772999999,4245.128418,4280.512695,4251.282227000001,450.0,3.0,73.0,,,,0.0,4.0,0.0,2.0,0.0,4.0,16.666666,,,,,,,,53.0,0.0,0.284889,-0.43432600000000005,0.49706999999999996,0.695068,0.886244,-0.44776099999999996,-0.123537,-0.044756,-0.055521,-0.017321,,,,,,,,,,,,,,,,,,,,,,,,,,,,,,,,,,,,,,,,,,,,,,,,,,,,,,,,,,,,,,,,,
4231,1650413542.3890538,1650413542.41252,107.0,0.0,4306.666504,4604.615234000001,4231.794922,4280.512695,4240.512695,16195.0,3.0,73.0,,,,0.0,4.0,0.0,2.0,0.0,4.0,16.666666,,,,,,,,,,,,,,,,,,,,,,,,,,,,,,,,,,,,,,,,,,,,,,,,,,,,,,,,,,,,,,,,,,,,,,,,,,,,,,,,,,,,
4232,1650413542.396869,1650413542.420435,108.0,0.0,4301.538574,4558.974121,4223.589844,4280.512695,4248.205078,450.0,3.0,73.0,,,,0.0,4.0,0.0,2.0,0.0,4.0,16.666666,,,,,,,,54.0,0.0,0.285261,-0.43408199999999997,0.49706999999999996,0.695068,0.893568,-0.43213500000000005,-0.143069,-0.045017,-0.055438,-0.01554,,,,,,,,,,,,,,,,,,,,,,,,,,,,,,,,,,,,,,,,,,,,,,,,,,,,,,,,,,,,,,,,,
4233,1650413542.404683,1650413542.42825,109.0,0.0,4318.974121,4659.487305,4234.871582,4280.512695,4249.743652,450.0,3.0,73.0,,,,0.0,4.0,0.0,2.0,0.0,4.0,16.666666,,,,,,,,,,,,,,,,,,,,,,,,,,,,,,,,,,,,,,,,,,,,,,,,,,,,,,0.0,0.0,1.0,0.0,512.0,1.0,,,,,,,,,,,,,,,,,,,,,,,,,
4234,1650413542.412498,1650413542.436165,110.0,0.0,4331.282227000001,4664.102539,4241.025879,4280.512695,4247.692383,450.0,3.0,73.0,,,,0.0,4.0,0.0,2.0,0.0,4.0,16.666666,,,,,,,,55.0,0.0,0.285261,-0.43408199999999997,0.49706999999999996,0.695068,0.8886850000000001,-0.455085,-0.136233,-0.045203,-0.055509,-0.020138,,,,,,,,,,,,,,,,,,,,,,,,,,,,,,,,,,,,,,,,,,,,,,,,,,,,,,,,,,,,,,,,,
4235,1650413542.420312,1650413542.44398,111.0,0.0,4326.153809,4573.333496,4224.615234000001,4280.512695,4248.717772999999,16195.0,3.0,73.0,,,,0.0,4.0,0.0,2.0,0.0,4.0,16.666666,,,,,,,,,,,,,,,,,,,,,,,,,,,,,,,,,,,,,,,,,,,,,,,,,,,,,,,,,,,,,,,,,,,,,,,,,,,,,,,,,,,,
4236,1650413542.428127,1650413542.451894,112.0,0.0,4314.871582,4619.487305,4219.487305,4280.512695,4235.384765999999,450.0,3.0,73.0,,,,0.0,4.0,0.0,2.0,0.0,4.0,16.666666,,,,,,,,56.0,0.0,0.284889,-0.43432600000000005,0.49706999999999996,0.695068,0.886244,-0.44776099999999996,-0.123537,-0.045517,-0.055525,-0.018076,,,,,,,,,,,,,,,,,,,,,,,,,,,,,,,,,,,,,,,,,,,,,,,,,,,,,,,,,,,,,,,,,
4237,1650413542.435941,1650413542.459709,113.0,0.0,4326.153809,4671.282227000001,4237.94873,4280.512695,4231.282227000001,450.0,3.0,73.0,,,,0.0,4.0,0.0,2.0,0.0,4.0,16.666666,,,,,,,,,,,,,,,,,,,,,,,,,,,,,,,,,,,,,,,,,,,,,,,,,,,,,,0.0,0.0,1.0,0.0,512.0,1.0,,,,,,,,,,,,,,,,,,,,,,,,,
4238,1650413542.443756,1650413542.467624,114.0,0.0,4342.05127,4594.871582,4232.820313,4280.512695,4255.384765999999,450.0,3.0,73.0,,,,0.0,4.0,0.0,2.0,0.0,4.0,16.666666,,,,,,,,57.0,0.0,0.285261,-0.43408199999999997,0.49706999999999996,0.695068,0.8886850000000001,-0.455085,-0.136233,-0.045653,-0.055588,-0.022421,,,,,,,,,,,,,,,,,,,,,,,,,,,,,,,,,,,,,,,,,,,,,,,,,,,,,,,,,,,,,,,,,
4239,1650413542.45157,1650413542.475439,115.0,0.0,4342.05127,4572.307617,4221.025879,4280.512695,4264.102539,16195.0,3.0,73.0,,,,0.0,4.0,0.0,2.0,0.0,4.0,16.666666,,,,,,,,,,,,,,,,,,,,,,,,,,,,,,,,,,,,,,,,,,,,,,,,,,,,,,,,,,,,,,,,,,,,,,,,,,,,,,,,,,,,
4240,1650413542.459385,1650413542.4833539,116.0,0.0,4350.256348,4633.333496,4252.307617,4280.512695,4248.717772999999,450.0,3.0,73.0,,,,0.0,4.0,0.0,2.0,0.0,4.0,16.666666,,,,,,,,58.0,0.0,0.284889,-0.43432600000000005,0.49706999999999996,0.695068,0.8994280000000001,-0.43799499999999997,-0.134279,-0.045775,-0.055596000000000007,-0.02345,,,,,,,,,,,,,,,,,,,,,,,,,,,,,,,,,,,,,,,,,,,,,,,,,,,,,,,,,,,,,,,,,
4241,1650413542.467199,1650413542.491169,117.0,0.0,4359.487305,4629.230957,4256.922852000001,4280.512695,4252.307617,450.0,3.0,73.0,,,,0.0,4.0,0.0,2.0,0.0,4.0,16.666666,,,,,,,,,,,,,,,,,,,,,,,,,,,,,,,,,,,,,,,,,,,,,,,,,,,,,,0.0,0.0,1.0,0.0,512.0,1.0,,,,,,,,,,,,,,,,,,,,,,,,,
4242,1650413542.475014,1650413542.499083,118.0,0.0,4341.538574,4620.0,4212.307617,4280.512695,4265.641113000001,450.0,3.0,73.0,,,,0.0,4.0,0.0,2.0,0.0,4.0,16.666666,,,,,,,,59.0,0.0,0.284889,-0.43432600000000005,0.49706999999999996,0.695068,0.901381,-0.460945,-0.137697,-0.045836,-0.055651,-0.021056000000000002,,,,,,,,,,,,,,,,,,,,,,,,,,,,,,,,,,,,,,,,,,,,,,,,,,,,,,,,,,,,,,,,,
4243,1650413542.4828289,1650413542.5068982,119.0,0.0,4349.230957,4663.077147999999,4225.128418,4280.512695,4277.436035,16195.0,3.0,73.0,,,,0.0,4.0,0.0,2.0,0.0,4.0,16.666666,,,,,,,,,,,,,,,,,,,,,,,,,,,,,,,,,,,,,,,,,,,,,,,,,,,,,,,,,,,,,,,,,,,,,,,,,,,,,,,,,,,,
4244,1650413542.490643,1650413542.5148132,120.0,0.0,4382.563965,4652.307617,4263.077147999999,4280.512695,4285.128418,450.0,3.0,73.0,,,,0.0,4.0,0.0,2.0,0.0,4.0,16.666666,,,,,,,,60.0,0.0,0.284889,-0.43432600000000005,0.49706999999999996,0.695068,0.890639,-0.460945,-0.144045,-0.044475,-0.05555499999999999,-0.022173,,,,,,,,,,,,,,,,,,,,,,,,,,,,,,,,,,,,,,,,,,,,,,,,,,,,,,,,,,,,,,,,,
4245,1650413542.498458,1650413542.5226269,121.0,0.0,4374.358886999999,4628.205078,4235.897461,4280.512695,4275.897461,450.0,3.0,73.0,,,,0.0,4.0,0.0,2.0,0.0,4.0,16.666666,,,,,,,,,,,,,,,,,,,,1.0,0.0,0.0,,,,,,,,,,,,,,,,,,,,,,,,,,,,,,,,0.0,0.0,1.0,0.0,512.0,1.0,2.214455,2.64335,1.6262510000000001,1.46069,2.797638,22.765625,25.550089,36.420933000000005,23.518074,15.097610000000001,1.7035189999999998,1.040448,0.722301,1.3591790000000001,2.8310020000000002,0.0,0.0,0.0,0.0,0.0,1.463159,1.9674369999999999,2.715681,1.427985,2.872666
4246,1650413542.506272,1650413542.530542,122.0,0.0,4373.333496,4626.153809,4218.461426,4281.025879,4281.538574,450.0,3.0,73.0,,,,0.0,4.0,0.0,2.0,0.0,4.0,16.666666,,,,,,,,61.0,0.0,0.284463,-0.43432600000000005,0.49731400000000003,0.695068,0.898451,-0.453132,-0.138674,-0.044764,-0.055566,-0.02313,,,,,,,,,,,,,,,,,,,,,,,,,,,,,,,,,,,,,,,,,,,,,,,,,,,,,,,,,,,,,,,,,
4247,1650413542.514087,1650413542.538457,123.0,0.0,4412.820313,4600.0,4249.743652,4282.05127,4314.358886999999,16195.0,3.0,73.0,,,,0.0,4.0,0.0,2.0,0.0,4.0,16.666666,,,,,,,,,,,,,,,,,,,,,,,,,,,,,,,,,,,,,,,,,,,,,,,,,,,,,,,,,,,,,,,,,,,,,,,,,,,,,,,,,,,,
4248,1650413542.521901,1650413542.546272,124.0,0.0,4437.94873,4573.846191,4259.487305,4282.563965,4344.102539,450.0,3.0,73.0,,,,0.0,4.0,0.0,2.0,0.0,4.0,16.666666,,,,,,,,62.0,0.0,0.284463,-0.43432600000000005,0.49731400000000003,0.695068,0.894057,-0.442878,-0.140627,-0.043608,-0.055625,-0.02404,,,,,,,,,,,,,,,,,,,,,,,,,,,,,,,,,,,,,,,,,,,,,,,,,,,,,,,,,,,,,,,,,
4249,1650413542.529715,1650413542.554086,125.0,0.0,4455.897461,4584.102539,4245.641113000001,4281.538574,4373.846191,450.0,3.0,73.0,,,,0.0,4.0,0.0,2.0,0.0,4.0,16.666666,,,,,,,,,,,,,,,,,,,,,,,,,,,,,,,,,,,,,,,,,,,,,,,,,,,,,,0.0,0.0,1.0,0.0,512.0,1.0,,,,,,,,,,,,,,,,,,,,,,,,,
4250,1650413542.5375302,1650413542.562001,126.0,0.0,4483.589844,4594.358886999999,4227.692383,4282.05127,4397.94873,450.0,3.0,73.0,,,,0.0,4.0,0.0,2.0,0.0,4.0,16.666666,,,,,,,,63.0,0.0,0.285059,-0.43432600000000005,0.49731400000000003,0.694824,0.8916149999999999,-0.44971400000000006,-0.131838,-0.043983999999999995,-0.055482000000000004,-0.024858,,,,,,,,,,,,,,,,,,,,,,,,,,,,,,,,,,,,,,,,,,,,,,,,,,,,,,,,,,,,,,,,,
4251,1650413542.5453439,1650413542.569916,127.0,0.0,4535.897461,4596.410156,4218.974121,4285.128418,4440.0,238.0,3.0,73.0,,,,0.0,4.0,0.0,2.0,0.0,4.0,16.666666,,,,,,,,,,,,,,,,,,,,,,,,,,,,,,,,,,,,,,,,,,,,,,,,,,,,,,,,,,,,,,,,,,,,,,,,,,,,,,,,,,,,
4252,1650413542.553159,1650413542.5777311,0.0,0.0,4634.871582,4626.666504,4257.436035,4287.179688,4545.128418,450.0,3.0,73.0,,,,0.0,4.0,0.0,2.0,0.0,4.0,16.666666,,,,,,,,0.0,0.0,0.284463,-0.43432600000000005,0.49731400000000003,0.695068,0.89015,-0.443366,-0.127443,-0.044419,-0.055501,-0.022324,,,,,,,,,,,,,,,,,,,,,,,,,,,,,,,,,,,,,,,,,,,,,,,,,,,,,,,,,,,,,,,,,
4253,1650413542.5609741,1650413542.585645,1.0,0.0,4712.820313,4672.820313,4274.871582,4287.179688,4623.589844,450.0,3.0,73.0,,,,0.0,4.0,0.0,2.0,0.0,4.0,16.666666,,,,,,,,,,,,,,,,,,,,,,,,,,,,,,,,,,,,,,,,,,,,,,,,,,,,,,0.0,0.0,1.0,0.0,512.0,1.0,,,,,,,,,,,,,,,,,,,,,,,,,
4254,1650413542.568788,1650413542.5934598,2.0,0.0,4734.358886999999,4704.615234000001,4221.025879,4286.666504,4618.461426,16180.0,3.0,73.0,,,,0.0,4.0,0.0,2.0,0.0,4.0,16.666666,,,,,,,,1.0,0.0,0.284835,-0.43408199999999997,0.49731400000000003,0.695068,0.886244,-0.437018,-0.12451400000000001,-0.044763,-0.055566,-0.023412,,,,,,,,,,,,,,,,,,,,,,,,,,,,,,,,,,,,,,,,,,,,,,,,,,,,,,,,,,,,,,,,,
4255,1650413542.576603,1650413542.601375,3.0,0.0,4781.538574,4688.717772999999,4218.974121,4290.256348,4653.333496,450.0,3.0,73.0,,,,0.0,4.0,0.0,2.0,0.0,4.0,16.666666,,,,,,,,,,,,,,,,,,,,,,,,,,,,,,,,,,,,,,,,,,,,,,,,,,,,,,,,,,,,,,,,,,,,,,,,,,,,,,,,,,,,
4256,1650413542.584417,1650413542.60919,4.0,0.0,4841.025879,4632.307617,4283.589844,4295.897461,4724.615234000001,13.0,3.0,73.0,,,,0.0,4.0,0.0,2.0,0.0,4.0,16.666666,,,,,,,,2.0,0.0,0.284463,-0.43432600000000005,0.49731400000000003,0.695068,0.901381,-0.440925,-0.135744,-0.044974,-0.055478,-0.018043,,,,,,,,,,,,,,,,,,,,,,,,,,,,,,,,,,,,,,,,,,,,,,,,,,,,,,,,,,,,,,,,,
4257,1650413542.592232,1650413542.617105,5.0,0.0,4867.692383,4617.94873,4290.769043,4296.922852000001,4733.333496,450.0,3.0,73.0,,,,0.0,4.0,0.0,2.0,0.0,4.0,16.666666,,,,,,,,,,,,,,,,,,,,,,,,,,,,,,,,,,,,,,,,,,,,,,,,,,,,,,0.0,0.0,1.0,0.0,512.0,1.0,,,,,,,,,,,,,,,,,,,,,,,,,
4258,1650413542.6000462,1650413542.62492,6.0,0.0,4904.615234000001,4642.05127,4249.230957,4295.384765999999,4739.487305,295.0,3.0,73.0,,,,0.0,4.0,0.0,2.0,0.0,4.0,16.666666,,,,,,,,3.0,0.0,0.284409,-0.43408199999999997,0.49755900000000003,0.695068,0.9043110000000001,-0.45410900000000004,-0.12060699999999999,-0.045163999999999996,-0.055546000000000005,-0.019462,,,,,,,,,,,,,,,,,,,,,,,,,,,,,,,,,,,,,,,,,,,,,,,,,,,,,,,,,,,,,,,,,
4259,1650413542.607861,1650413542.632735,7.0,0.0,4938.974121,4682.563965,4231.282227000001,4295.897461,4780.512695,450.0,3.0,73.0,,,,0.0,4.0,0.0,2.0,0.0,4.0,16.666666,,,,,,,,,,,,,,,,,,,,,,,,,,,,,,,,,,,,,,,,,,,,,,,,,,,,,,,,,,,,,,,,,,,,,,,,,,,,,,,,,,,,
4260,1650413542.615675,1650413542.640649,8.0,0.0,4925.128418,4728.717772999999,4228.717772999999,4296.922852000001,4776.410156,450.0,3.0,73.0,,,,0.0,4.0,0.0,2.0,0.0,4.0,16.666666,,,,,,,,4.0,0.0,0.284409,-0.43408199999999997,0.49755900000000003,0.695068,0.8960100000000001,-0.457038,-0.133303,-0.045384,-0.055605999999999996,-0.020787,,,,,,,,,,,,,,,,,,,,,,,,,,,,,,,,,,,,,,,,,,,,,,,,,,,,,,,,,,,,,,,,,
4261,1650413542.62349,1650413542.648564,9.0,0.0,4910.256348,4733.846191,4239.487305,4296.410156,4741.538574,0.0,3.0,73.0,,,,0.0,4.0,0.0,2.0,0.0,4.0,16.666666,1.0,16.666666,3.0,0.0,2.0,0.0,3.0,,,,,,,,,,,,,1.0,0.0,0.0,,,,,,,,,,,,,,,,,,,,,,,,,,,,,,,,0.0,0.0,1.0,0.0,512.0,0.41098,1.9280650000000001,2.802275,1.624678,1.329572,3.0378,23.019185999999998,21.412477,27.126265999999998,18.729851,14.319241,2.0099259999999997,1.068065,0.476595,1.362336,3.001817,8e-06,1e-06,0.0,0.0,1e-06,1.321598,1.8992919999999998,2.65378,1.409355,3.175716
4262,1650413542.6313038,1650413542.656379,10.0,0.0,4954.358886999999,4705.128418,4263.589844,4296.922852000001,4772.307617,450.0,3.0,73.0,,,,0.0,4.0,0.0,2.0,0.0,4.0,16.666666,,,,,,,,5.0,0.0,0.284409,-0.43408199999999997,0.49755900000000003,0.695068,0.8750129999999999,-0.453132,-0.137697,-0.044068,-0.055612,-0.018611000000000003,,,,,,,,,,,,,,,,,,,,,,,,,,,,,,,,,,,,,,,,,,,,,,,,,,,,,,,,,,,,,,,,,
4263,1650413542.639119,1650413542.664294,11.0,0.0,4992.820313,4671.282227000001,4266.153809,4297.436035,4823.589844,16198.0,3.0,73.0,,,,0.0,4.0,0.0,2.0,0.0,4.0,16.666666,,,,,,,,,,,,,,,,,,,,,,,,,,,,,,,,,,,,,,,,,,,,,,,,,,,,,,,,,,,,,,,,,,,,,,,,,,,,,,,,,,,,
4264,1650413542.646933,1650413542.672108,12.0,0.0,4971.794922,4649.743652,4259.487305,4297.436035,4813.846191,450.0,3.0,73.0,,,,0.0,4.0,0.0,2.0,0.0,4.0,16.666666,,,,,,,,6.0,0.0,0.284354,-0.433838,0.497803,0.695068,0.894057,-0.44971400000000006,-0.132326,-0.044252,-0.05552000000000001,-0.020021,,,,,,,,,,,,,,,,,,,,,,,,,,,,,,,,,,,,,,,,,,,,,,,,,,,,,,,,,,,,,,,,,
4265,1650413542.654748,1650413542.680023,13.0,0.0,4950.769043,4651.794922,4268.205078,4297.436035,4788.717772999999,450.0,3.0,73.0,,,,0.0,4.0,0.0,2.0,0.0,4.0,16.666666,,,,,,,,,,,,,,,,,,,,,,,,,,,,,,,,,,,,,,,,,,,,,,,,,,,,,,0.0,0.0,1.0,0.0,512.0,0.41098,,,,,,,,,,,,,,,,,,,,,,,,,
4266,1650413542.662562,1650413542.687838,14.0,0.0,4972.307617,4675.897461,4284.615234000001,4297.436035,4807.179688,450.0,3.0,73.0,,,,0.0,4.0,0.0,2.0,0.0,4.0,16.666666,,,,,,,,7.0,0.0,0.284129,-0.433594,0.497803,0.695313,0.895033,-0.44483100000000003,-0.138186,-0.044563,-0.05558300000000001,-0.021242,,,,,,,,,,,,,,,,,,,,,,,,,,,,,,,,,,,,,,,,,,,,,,,,,,,,,,,,,,,,,,,,,
4267,1650413542.670377,1650413542.695752,15.0,0.0,4993.846191,4662.05127,4299.487305,4297.436035,4837.436035,16198.0,3.0,73.0,,,,0.0,4.0,0.0,2.0,0.0,4.0,16.666666,,,,,,,,,,,,,,,,,,,,,,,,,,,,,,,,,,,,,,,,,,,,,,,,,,,,,,,,,,,,,,,,,,,,,,,,,,,,,,,,,,,,
4268,1650413542.678191,1650413542.703567,16.0,0.0,4971.794922,4592.307617,4289.230957,4297.436035,4820.0,0.0,3.0,73.0,,,,0.0,4.0,0.0,2.0,0.0,4.0,16.666666,,,,,,,,8.0,0.0,0.284129,-0.433594,0.497803,0.695313,0.8969860000000001,-0.46045600000000003,-0.124025,-0.043329,-0.055590999999999995,-0.01902,,,,,,,,,,,,,,,,,,,,,,,,,,,,,,,,,,,,,,,,,,,,,,,,,,,,,,,,,,,,,,,,,
4269,1650413542.686006,1650413542.711481,17.0,0.0,4971.794922,4609.230957,4272.820313,4297.436035,4800.512695,0.0,3.0,73.0,,,,0.0,4.0,0.0,2.0,0.0,4.0,16.666666,,,,,,,,,,,,,,,,,,,,,,,,,,,,,,,,,,,,,,,,,,,,,,,,,,,,,,0.0,0.0,1.0,0.0,512.0,0.41098,,,,,,,,,,,,,,,,,,,,,,,,,
4270,1650413542.69382,1650413542.719396,18.0,0.0,5019.487305,4691.794922,4298.461426,4297.436035,4827.692383,0.0,3.0,73.0,,,,0.0,4.0,0.0,2.0,0.0,4.0,16.666666,,,,,,,,9.0,0.0,0.284074,-0.43335,0.498047,0.695313,0.891127,-0.45801499999999995,-0.140627,-0.04217,-0.055648,-0.020340999999999998,,,,,,,,,,,,,,,,,,,,,,,,,,,,,,,,,,,,,,,,,,,,,,,,,,,,,,,,,,,,,,,,,
4271,1650413542.701635,1650413542.727211,19.0,0.0,5042.05127,4668.717772999999,4321.538574,4297.436035,4855.897461,0.0,3.0,73.0,,,,0.0,4.0,0.0,2.0,0.0,4.0,16.666666,,,,,,,,,,,,,,,,,,,,,,,,,,,,,,,,,,,,,,,,,,,,,,,,,,,,,,,,,,,,,,,,,,,,,,,,,,,,,,,,,,,,
4272,1650413542.709449,1650413542.735026,20.0,0.0,5021.025879,4607.692383,4301.025879,4296.922852000001,4841.538574,0.0,3.0,73.0,,,,0.0,4.0,0.0,2.0,0.0,4.0,16.666666,,,,,,,,10.0,0.0,0.284074,-0.43335,0.498047,0.695313,0.894057,-0.45557299999999995,-0.143069,-0.04269,-0.055649000000000004,-0.015328,,,,,,,,,,,,,,,,,,,,,,,,,,,,,,,,,,,,,,,,,,,,,,,,,,,,,,,,,,,,,,,,,
4273,1650413542.7172642,1650413542.74294,21.0,0.0,5016.410156,4645.641113000001,4295.384765999999,4297.436035,4824.615234000001,0.0,3.0,73.0,,,,0.0,4.0,0.0,2.0,0.0,4.0,16.666666,,,,,,,,,,,,,,,,,,,,,,,,,,,,,,,,,,,,,,,,,,,,,,,,,,,,,,0.0,0.0,1.0,0.0,512.0,0.41098,,,,,,,,,,,,,,,,,,,,,,,,,
4274,1650413542.7250779,1650413542.750755,22.0,0.0,5020.0,4661.538574,4309.743652,4297.436035,4831.794922,0.0,3.0,73.0,,,,0.0,4.0,0.0,2.0,0.0,4.0,16.666666,,,,,,,,11.0,0.0,0.284446,-0.433105,0.498047,0.695313,0.89015,-0.458503,-0.142092,-0.043255,-0.0557,-0.017067,,,,,,,,,,,,,,,,,,,,,,,,,,,,,,,,,,,,,,,,,,,,,,,,,,,,,,,,,,,,,,,,,
4275,1650413542.732893,1650413542.7586699,23.0,0.0,5022.563965,4640.0,4310.769043,4296.922852000001,4849.743652,0.0,3.0,73.0,,,,0.0,4.0,0.0,2.0,0.0,4.0,16.666666,,,,,,,,,,,,,,,,,,,,,,,,,,,,,,,,,,,,,,,,,,,,,,,,,,,,,,,,,,,,,,,,,,,,,,,,,,,,,,,,,,,,
4276,1650413542.740708,1650413542.766484,24.0,0.0,5057.436035,4701.025879,4305.128418,4297.436035,4872.820313,0.0,3.0,73.0,,,,0.0,4.0,0.0,2.0,0.0,4.0,16.666666,,,,,,,,12.0,0.0,0.284446,-0.433105,0.498047,0.695313,0.885756,-0.45655,-0.137209,-0.043568,-0.055647,-0.018632,,,,,,,,,,,,,,,,,,,,,,,,,,,,,,,,,,,,,,,,,,,,,,,,,,,,,,,,,,,,,,,,,
4277,1650413542.748522,1650413542.774399,25.0,0.0,5065.641113000001,4711.794922,4296.922852000001,4298.461426,4866.153809,0.0,3.0,73.0,,,,0.0,4.0,0.0,2.0,0.0,4.0,16.666666,,,,,,,,,,,,,,,,,,,,1.0,0.0,0.0,,,,,,,,,,,,,,,,,,,,,,,,,,,,,,,,0.0,0.0,1.0,0.0,512.0,0.491893,2.430591,3.162049,1.7213049999999999,1.322716,3.250612,22.615637,16.801329,19.113541,14.425914,14.490947,2.285812,1.1183049999999999,0.33993,1.478361,3.1024700000000003,0.000666,5e-05,1.8e-05,2.2e-05,2.6000000000000002e-05,1.951921,1.9390209999999999,2.735263,1.466116,3.459922
4278,1650413542.756337,1650413542.782213,26.0,0.0,5051.794922,4655.384765999999,4295.384765999999,4298.974121,4847.692383,0.0,3.0,73.0,,,,0.0,4.0,0.0,2.0,0.0,4.0,16.666666,,,,,,,,13.0,0.0,0.284446,-0.433105,0.498047,0.695313,0.9038219999999999,-0.45069,-0.144045,-0.043996,-0.055649000000000004,-0.020040000000000002,,,,,,,,,,,,,,,,,,,,,,,,,,,,,,,,,,,,,,,,,,,,,,,,,,,,,,,,,,,,,,,,,
4279,1650413542.7641509,1650413542.790128,27.0,0.0,5049.743652,4690.769043,4277.94873,4298.974121,4837.94873,0.0,3.0,73.0,,,,0.0,4.0,0.0,2.0,0.0,4.0,16.666666,,,,,,,,,,,,,,,,,,,,,,,,,,,,,,,,,,,,,,,,,,,,,,,,,,,,,,,,,,,,,,,,,,,,,,,,,,,,,,,,,,,,
4280,1650413542.771965,1650413542.7979429,28.0,0.0,5038.461426,4732.307617,4248.717772999999,4298.974121,4819.487305,0.0,3.0,73.0,,,,0.0,4.0,0.0,2.0,0.0,4.0,16.666666,,,,,,,,14.0,0.0,0.284446,-0.433105,0.498047,0.695313,0.897475,-0.45361999999999997,-0.137209,-0.044284,-0.0557,-0.017987,,,,,,,,,,,,,,,,,,,,,,,,,,,,,,,,,,,,,,,,,,,,,,,,,,,,,,,,,,,,,,,,,
4281,1650413542.7797801,1650413542.8056571,29.0,0.0,5029.743652,4685.641113000001,4262.563965,4298.974121,4810.769043,0.0,3.0,73.0,,,,0.0,4.0,0.0,2.0,0.0,4.0,16.666666,,,,,,,,,,,,,,,,,,,,,,,,,,,,,,,,,,,,,,,,,,,,,,,,,,,,,,0.0,0.0,1.0,0.0,512.0,0.491893,,,,,,,,,,,,,,,,,,,,,,,,,
4282,1650413542.7875938,1650413542.8135722,30.0,0.0,5030.769043,4682.563965,4278.461426,4298.974121,4809.230957,0.0,3.0,73.0,,,,0.0,4.0,0.0,2.0,0.0,4.0,16.666666,,,,,,,,15.0,0.0,0.284446,-0.433105,0.498047,0.695313,0.885756,-0.45655,-0.137209,-0.044495,-0.055647,-0.019459999999999998,,,,,,,,,,,,,,,,,,,,,,,,,,,,,,,,,,,,,,,,,,,,,,,,,,,,,,,,,,,,,,,,,
4283,1650413542.795409,1650413542.8213868,31.0,0.0,5028.717772999999,4733.333496,4249.230957,4298.974121,4787.692383,0.0,3.0,73.0,,,,0.0,4.0,0.0,2.0,0.0,4.0,16.666666,,,,,,,,,,,,,,,,,,,,,,,,,,,,,,,,,,,,,,,,,,,,,,,,,,,,,,,,,,,,,,,,,,,,,,,,,,,,,,,,,,,,
4284,1650413542.8032231,1650413542.8293018,32.0,0.0,5032.307617,4713.333496,4229.230957,4298.974121,4773.846191,0.0,3.0,73.0,,,,0.0,4.0,0.0,2.0,0.0,4.0,16.666666,,,,,,,,16.0,0.0,0.284074,-0.43335,0.498047,0.695313,0.8886850000000001,-0.449226,-0.138674,-0.044683999999999995,-0.055698000000000004,-0.014487,,,,,,,,,,,,,,,,,,,,,,,,,,,,,,,,,,,,,,,,,,,,,,,,,,,,,,,,,,,,,,,,,
4285,1650413542.811038,1650413542.837217,33.0,0.0,5048.717772999999,4655.384765999999,4240.512695,4298.974121,4789.743652,0.0,3.0,73.0,,,,0.0,4.0,0.0,2.0,0.0,4.0,16.666666,,,,,,,,,,,,,,,,,,,,,,,,,,,,,,,,,,,,,,,,,,,,,,,,,,,,,,0.0,0.0,1.0,0.0,512.0,0.491893,,,,,,,,,,,,,,,,,,,,,,,,,
4286,1650413542.818853,1650413542.845032,34.0,0.0,5042.563965,4658.974121,4240.512695,4298.974121,4778.461426,0.0,3.0,73.0,,,,0.0,4.0,0.0,2.0,0.0,4.0,16.666666,,,,,,,,17.0,0.0,0.284446,-0.433105,0.498047,0.695313,0.8964979999999999,-0.44238999999999995,-0.13281500000000002,-0.044903,-0.055742999999999994,-0.016309,,,,,,,,,,,,,,,,,,,,,,,,,,,,,,,,,,,,,,,,,,,,,,,,,,,,,,,,,,,,,,,,,
4287,1650413542.826667,1650413542.8528461,35.0,0.0,5026.153809,4707.179688,4239.487305,4298.974121,4749.230957,0.0,3.0,73.0,,,,0.0,4.0,0.0,2.0,0.0,4.0,16.666666,,,,,,,,,,,,,,,,,,,,,,,,,,,,,,,,,,,,,,,,,,,,,,,,,,,,,,,,,,,,,,,,,,,,,,,,,,,,,,,,,,,,
4288,1650413542.834482,1650413542.860761,36.0,0.0,5010.256348,4710.769043,4235.897461,4298.974121,4742.05127,0.0,3.0,73.0,,,,0.0,4.0,0.0,2.0,0.0,4.0,16.666666,,,,,,,,18.0,0.0,0.284446,-0.433105,0.498047,0.695313,0.886732,-0.45264399999999994,-0.140139,-0.0451,-0.055833,-0.01463,,,,,,,,,,,,,,,,,,,,,,,,,,,,,,,,,,,,,,,,,,,,,,,,,,,,,,,,,,,,,,,,,
4289,1650413542.8422961,1650413542.868576,37.0,0.0,4992.820313,4674.871582,4228.205078,4298.974121,4738.974121,0.0,3.0,73.0,,,,0.0,4.0,0.0,2.0,0.0,4.0,16.666666,,,,,,,,,,,,,,,,,,,,,,,,,,,,,,,,,,,,,,,,,,,,,,,,,,,,,,0.0,0.0,1.0,0.0,512.0,0.491893,,,,,,,,,,,,,,,,,,,,,,,,,
4290,1650413542.850111,1650413542.876491,38.0,0.0,4994.871582,4680.0,4225.128418,4298.974121,4729.743652,0.0,3.0,73.0,,,,0.0,4.0,0.0,2.0,0.0,4.0,16.666666,,,,,,,,19.0,0.0,0.284446,-0.433105,0.498047,0.695313,0.8916149999999999,-0.451179,-0.138674,-0.043764,-0.055865,-0.019221000000000002,,,,,,,,,,,,,,,,,,,,,,,,,,,,,,,,,,,,,,,,,,,,,,,,,,,,,,,,,,,,,,,,,
4291,1650413542.857925,1650413542.884306,39.0,0.0,5003.589844,4704.615234000001,4228.717772999999,4298.974121,4734.358886999999,0.0,3.0,73.0,,,,0.0,4.0,0.0,2.0,0.0,4.0,16.666666,,,,,,,,,,,,,,,,,,,,,,,,,,,,,,,,,,,,,,,,,,,,,,,,,,,,,,,,,,,,,,,,,,,,,,,,,,,,,,,,,,,,
4292,1650413542.86574,1650413542.89222,40.0,0.0,4995.897461,4711.794922,4236.410156,4298.974121,4731.282227000001,0.0,3.0,73.0,,,,0.0,4.0,0.0,2.0,0.0,4.0,16.666666,,,,,,,,20.0,0.0,0.28439000000000003,-0.43286099999999994,0.498291,0.695313,0.8896620000000001,-0.453132,-0.131838,-0.04261,-0.055796000000000005,-0.020571000000000002,,,,,,,,,,,,,,,,,,,,,,,,,,,,,,,,,,,,,,,,,,,,,,,,,,,,,,,,,,,,,,,,,
4293,1650413542.873554,1650413542.900035,41.0,0.0,4983.077147999999,4711.794922,4241.025879,4298.974121,4709.230957,0.0,3.0,73.0,,,,0.0,4.0,0.0,2.0,0.0,4.0,16.666666,,,,,,,,,,,,,,,,,,,,1.0,0.0,0.0,,,,,,,,,,,,,,,,,,,,,,,,,,,,,,,,0.0,0.0,1.0,0.0,512.0,0.386608,5.706892,3.723586,1.972435,1.419735,3.387251,21.659218,13.055123,13.223123999999999,11.199652,15.161403,2.4205,1.153737,0.28982600000000003,1.6486889999999998,3.1002560000000003,0.0045780000000000005,0.00038700000000000003,0.000146,0.000162,0.000175,5.077198,2.222467,3.0707459999999998,1.559998,3.6639720000000002
4294,1650413542.8813689,1650413542.907949,42.0,0.0,4975.384765999999,4700.0,4233.846191,4298.974121,4697.436035,0.0,3.0,73.0,,,,0.0,4.0,0.0,2.0,0.0,4.0,16.666666,,,,,,,,21.0,0.0,0.28439000000000003,-0.43286099999999994,0.498291,0.695313,0.895033,-0.462898,-0.12549000000000002,-0.043135,-0.055637,-0.021736000000000002,,,,,,,,,,,,,,,,,,,,,,,,,,,,,,,,,,,,,,,,,,,,,,,,,,,,,,,,,,,,,,,,,
4295,1650413542.889183,1650413542.915764,43.0,0.0,4965.641113000001,4671.794922,4231.794922,4298.974121,4692.820313,0.0,3.0,73.0,,,,0.0,4.0,0.0,2.0,0.0,4.0,16.666666,,,,,,,,,,,,,,,,,,,,,,,,,,,,,,,,,,,,,,,,,,,,,,,,,,,,,,,,,,,,,,,,,,,,,,,,,,,,,,,,,,,,
4296,1650413542.896998,1650413542.9236789,44.0,0.0,4945.128418,4668.205078,4248.717772999999,4298.974121,4684.615234000001,0.0,3.0,73.0,,,,0.0,4.0,0.0,2.0,0.0,4.0,16.666666,,,,,,,,22.0,0.0,0.28433400000000003,-0.43261700000000003,0.49853500000000006,0.695313,0.8886850000000001,-0.455085,-0.136233,-0.043558,-0.055688,-0.019465,,,,,,,,,,,,,,,,,,,,,,,,,,,,,,,,,,,,,,,,,,,,,,,,,,,,,,,,,,,,,,,,,
4297,1650413542.9048119,1650413542.931493,45.0,0.0,4909.230957,4662.05127,4262.05127,4298.974121,4675.384765999999,0.0,3.0,73.0,,,,0.0,4.0,0.0,2.0,0.0,4.0,16.666666,,,,,,,,,,,,,,,,,,,,,,,,,,,,,,,,,,,,,,,,,,,,,,,,,,,,,,0.0,0.0,1.0,0.0,512.0,0.386608,,,,,,,,,,,,,,,,,,,,,,,,,
4298,1650413542.912627,1650413542.939408,46.0,0.0,4898.461426,4588.205078,4261.025879,4298.974121,4675.384765999999,0.0,3.0,73.0,,,,0.0,4.0,0.0,2.0,0.0,4.0,16.666666,,,,,,,,23.0,0.0,0.28410799999999997,-0.43237299999999995,0.49853500000000006,0.695557,0.890639,-0.45459700000000003,-0.128908,-0.043889,-0.055637,-0.02079,,,,,,,,,,,,,,,,,,,,,,,,,,,,,,,,,,,,,,,,,,,,,,,,,,,,,,,,,,,,,,,,,
4299,1650413542.920441,1650413542.947223,47.0,0.0,4901.538574,4577.436035,4259.487305,4298.974121,4666.153809,0.0,3.0,73.0,,,,0.0,4.0,0.0,2.0,0.0,4.0,16.666666,,,,,,,,,,,,,,,,,,,,,,,,,,,,,,,,,,,,,,,,,,,,,,,,,,,,,,,,,,,,,,,,,,,,,,,,,,,,,,,,,,,,
4300,1650413542.928256,1650413542.955137,48.0,0.0,4887.692383,4681.538574,4264.615234000001,4298.974121,4655.897461,0.0,3.0,73.0,,,,0.0,4.0,0.0,2.0,0.0,4.0,16.666666,,,,,,,,24.0,0.0,0.28410799999999997,-0.43237299999999995,0.49853500000000006,0.695557,0.889174,-0.461433,-0.14844000000000002,-0.044286,-0.055492999999999994,-0.021934,,,,,,,,,,,,,,,,,,,,,,,,,,,,,,,,,,,,,,,,,,,,,,,,,,,,,,,,,,,,,,,,,
4301,1650413542.93607,1650413542.962952,49.0,0.0,4896.922852000001,4727.179688,4268.205078,4298.974121,4681.538574,0.0,3.0,73.0,,,,0.0,4.0,0.0,2.0,0.0,4.0,16.666666,,,,,,,,,,,,,,,,,,,,,,,,,,,,,,,,,,,,,,,,,,,,,,,,,,,,,,0.0,0.0,1.0,0.0,512.0,0.386608,,,,,,,,,,,,,,,,,,,,,,,,,
4302,1650413542.9438848,1650413542.970866,50.0,0.0,4898.974121,4673.333496,4258.461426,4298.974121,4685.128418,0.0,3.0,73.0,,,,0.0,4.0,0.0,2.0,0.0,4.0,16.666666,,,,,,,,25.0,0.0,0.28410799999999997,-0.43237299999999995,0.49853500000000006,0.695557,0.901869,-0.457527,-0.140139,-0.044594,-0.055559000000000004,-0.022866,,,,,,,,,,,,,,,,,,,,,,,,,,,,,,,,,,,,,,,,,,,,,,,,,,,,,,,,,,,,,,,,,
4303,1650413542.951699,1650413542.978781,51.0,0.0,4845.641113000001,4655.897461,4249.743652,4298.974121,4632.307617,0.0,3.0,73.0,,,,0.0,4.0,0.0,2.0,0.0,4.0,16.666666,,,,,,,,,,,,,,,,,,,,,,,,,,,,,,,,,,,,,,,,,,,,,,,,,,,,,,,,,,,,,,,,,,,,,,,,,,,,,,,,,,,,
4304,1650413542.9595141,1650413542.986596,52.0,0.0,4807.692383,4653.846191,4255.384765999999,4298.974121,4598.461426,0.0,3.0,73.0,,,,0.0,4.0,0.0,2.0,0.0,4.0,16.666666,,,,,,,,26.0,0.0,0.284536,-0.43237299999999995,0.498291,0.695557,0.894545,-0.46045600000000003,-0.13281500000000002,-0.045017,-0.05561900000000001,-0.023802,,,,,,,,,,,,,,,,,,,,,,,,,,,,,,,,,,,,,,,,,,,,,,,,,,,,,,,,,,,,,,,,,
4305,1650413542.9673278,1650413542.994511,53.0,0.0,4837.436035,4591.794922,4269.743652,4298.974121,4618.974121,0.0,3.0,73.0,,,,0.0,4.0,0.0,2.0,0.0,4.0,16.666666,,,,,,,,,,,,,,,,,,,,,,,,,,,,,,,,,,,,,,,,,,,,,,,,,,,,,,0.0,0.0,1.0,0.0,512.0,0.386608,,,,,,,,,,,,,,,,,,,,,,,,,
4306,1650413542.975143,1650413543.002326,54.0,0.0,4854.358886999999,4617.436035,4248.717772999999,4298.974121,4620.512695,0.0,3.0,73.0,,,,0.0,4.0,0.0,2.0,0.0,4.0,16.666666,,,,,,,,27.0,0.0,0.284536,-0.43237299999999995,0.498291,0.695557,0.889174,-0.458503,-0.128908,-0.045301,-0.055575,-0.024644,,,,,,,,,,,,,,,,,,,,,,,,,,,,,,,,,,,,,,,,,,,,,,,,,,,,,,,,,,,,,,,,,
4307,1650413542.9829571,1650413543.01024,55.0,0.0,4822.05127,4710.256348,4218.461426,4298.461426,4596.922852000001,0.0,3.0,73.0,,,,0.0,4.0,0.0,2.0,0.0,4.0,16.666666,,,,,,,,,,,,,,,,,,,,,,,,,,,,,,,,,,,,,,,,,,,,,,,,,,,,,,,,,,,,,,,,,,,,,,,,,,,,,,,,,,,,
4308,1650413542.990772,1650413543.018055,56.0,0.0,4790.769043,4650.256348,4238.974121,4298.974121,4590.769043,0.0,3.0,73.0,,,,0.0,4.0,0.0,2.0,0.0,4.0,16.666666,,,,,,,,28.0,0.0,0.284536,-0.43237299999999995,0.498291,0.695557,0.8999159999999999,-0.45215500000000003,-0.125002,-0.045556,-0.055584,-0.021984,,,,,,,,,,,,,,,,,,,,,,,,,,,,,,,,,,,,,,,,,,,,,,,,,,,,,,,,,,,,,,,,,
4309,1650413542.998587,1650413543.02597,57.0,0.0,4807.179688,4576.410156,4259.487305,4299.487305,4595.897461,0.0,3.0,73.0,,,,0.0,4.0,0.0,2.0,0.0,4.0,16.666666,,,,,,,,,,,,,,,,,,,,1.0,0.0,0.0,,,,,,,,,,,,,,,,,,,,,,,,,,,,,,,,0.0,0.0,64.0,0.836303,1.0,0.0,15.095978,4.5544139999999995,2.337349,1.593869,3.426305,20.619808,10.623205,9.969268,9.165483,15.808039,2.467715,1.146795,0.32369000000000003,1.7930279999999998,3.027852,0.015803,0.0013390000000000001,0.000512,0.000566,0.0005650000000000001,12.904157000000001,2.9702599999999997,3.599625,1.6556689999999998,3.7658150000000004
4310,1650413543.006401,1650413543.0337849,58.0,0.0,4815.897461,4637.436035,4244.615234000001,4298.461426,4596.410156,0.0,3.0,73.0,,,,0.0,4.0,0.0,2.0,0.0,4.0,16.666666,,,,,,,,29.0,0.0,0.284592,-0.43261700000000003,0.498047,0.695557,0.8847790000000001,-0.446296,-0.138674,-0.045737,-0.055640999999999996,-0.023058000000000002,,,,,,,,,,,,,,,,,,,,,,,,,,,,,,,,,,,,,,,,,,,,,,,,,,,,,,,,,,,,,,,,,
4311,1650413543.014216,1650413543.0417,59.0,0.0,4731.282227000001,4625.128418,4234.871582,4295.897461,4540.512695,0.0,3.0,73.0,,,,0.0,4.0,0.0,2.0,0.0,4.0,16.666666,,,,,,,,,,,,,,,,,,,,,,,,,,,,,,,,,,,,,,,,,,,,,,,,,,,,,,,,,,,,,,,,,,,,,,,,,,,,,,,,,,,,
4312,1650413543.02203,1650413543.049515,60.0,0.0,4684.615234000001,4561.538574,4236.410156,4295.897461,4486.153809,0.0,3.0,73.0,,,,0.0,4.0,0.0,2.0,0.0,4.0,16.666666,,,,,,,,30.0,0.0,0.28442199999999995,-0.43261700000000003,0.497803,0.695801,0.891127,-0.446784,-0.129885,-0.045752999999999995,-0.055594000000000005,-0.020654,,,,,,,,,,,,,,,,,,,,,,,,,,,,,,,,,,,,,,,,,,,,,,,,,,,,,,,,,,,,,,,,,
4313,1650413543.029844,1650413543.0574288,61.0,0.0,4725.641113000001,4626.153809,4234.358886999999,4298.974121,4513.333496,0.0,3.0,73.0,,,,0.0,4.0,0.0,2.0,0.0,4.0,16.666666,,,,,,,,,,,,,,,,,,,,,,,,,,,,,,,,,,,,,,,,,,,,,,,,,,,,,,0.0,0.0,64.0,0.836303,1.0,0.0,,,,,,,,,,,,,,,,,,,,,,,,,
4314,1650413543.037659,1650413543.065244,62.0,0.0,4691.282227000001,4663.589844,4234.871582,4295.384765999999,4523.589844,0.0,3.0,73.0,,,,0.0,4.0,0.0,2.0,0.0,4.0,16.666666,,,,,,,,31.0,0.0,0.28479299999999996,-0.43237299999999995,0.497803,0.695801,0.8955209999999999,-0.47559300000000004,-0.138186,-0.045864999999999996,-0.05565,-0.018491,,,,,,,,,,,,,,,,,,,,,,,,,,,,,,,,,,,,,,,,,,,,,,,,,,,,,,,,,,,,,,,,,
4315,1650413543.045473,1650413543.073158,63.0,0.0,4602.05127,4584.102539,4235.897461,4288.205078,4465.641113000001,0.0,3.0,73.0,,,,0.0,4.0,0.0,2.0,0.0,4.0,16.666666,,,,,,,,,,,,,,,,,,,,,,,,,,,,,,,,,,,,,,,,,,,,,,,,,,,,,,,,,,,,,,,,,,,,,,,,,,,,,,,,,,,,
4316,1650413543.053288,1650413543.0809731,64.0,0.0,4575.384765999999,4581.538574,4241.538574,4288.717772999999,4427.692383,450.0,3.0,73.0,,,,0.0,4.0,0.0,2.0,0.0,4.0,16.666666,,,,,,,,32.0,0.0,0.28522,-0.43237299999999995,0.49755900000000003,0.695801,0.872084,-0.46045600000000003,-0.140627,-0.046113,-0.0557,-0.019865,,,,,,,,,,,,,,,,,,,,,,,,,,,,,,,,,,,,,,,,,,,,,,,,,,,,,,,,,,,,,,,,,
4317,1650413543.0611029,1650413543.0888882,65.0,0.0,4547.179688,4646.666504,4256.410156,4294.358886999999,4396.922852000001,450.0,3.0,73.0,,,,0.0,4.0,0.0,2.0,0.0,4.0,16.666666,,,,,,,,,,,,,,,,,,,,,,,,,,,,,,,,,,,,,,,,,,,,,,,,,,,,,,0.0,0.0,64.0,0.836303,1.0,0.0,,,,,,,,,,,,,,,,,,,,,,,,,
4318,1650413543.068917,1650413543.0967019,66.0,0.0,4456.922852000001,4622.563965,4245.128418,4291.794922,4307.179688,16170.0,3.0,73.0,,,,0.0,4.0,0.0,2.0,0.0,4.0,16.666666,,,,,,,,33.0,0.0,0.28522,-0.43237299999999995,0.49755900000000003,0.695801,0.8838030000000001,-0.437507,-0.140627,-0.04614,-0.055746000000000004,-0.021052,,,,,,,,,,,,,,,,,,,,,,,,,,,,,,,,,,,,,,,,,,,,,,,,,,,,,,,,,,,,,,,,,
4319,1650413543.076732,1650413543.1046169,67.0,0.0,4382.563965,4573.333496,4210.769043,4287.179688,4244.615234000001,450.0,3.0,73.0,,,,0.0,4.0,0.0,2.0,0.0,4.0,16.666666,,,,,,,,,,,,,,,,,,,,,,,,,,,,,,,,,,,,,,,,,,,,,,,,,,,,,,,,,,,,,,,,,,,,,,,,,,,,,,,,,,,,
4320,1650413543.084546,1650413543.112431,68.0,0.0,4351.282227000001,4626.153809,4211.282227000001,4287.692383,4242.05127,0.0,3.0,73.0,,,,0.0,4.0,0.0,2.0,0.0,4.0,16.666666,,,,,,,,34.0,0.0,0.28479299999999996,-0.43237299999999995,0.497803,0.695801,0.8955209999999999,-0.47559300000000004,-0.138186,-0.046116000000000004,-0.055688999999999995,-0.018752,,,,,,,,,,,,,,,,,,,,,,,,,,,,,,,,,,,,,,,,,,,,,,,,,,,,,,,,,,,,,,,,,
4321,1650413543.092361,1650413543.120146,69.0,0.0,4324.102539,4706.153809,4229.743652,4285.128418,4204.615234000001,450.0,3.0,73.0,,,,0.0,4.0,0.0,2.0,0.0,4.0,16.666666,,,,,,,,,,,,,,,,,,,,,,,,,,,,,,,,,,,,,,,,,,,,,,,,,,,,,,0.0,0.0,64.0,0.836303,1.0,0.0,,,,,,,,,,,,,,,,,,,,,,,,,
4322,1650413543.100175,1650413543.127961,70.0,0.0,4274.358886999999,4660.512695,4210.256348,4282.05127,4127.179688,317.0,3.0,73.0,,,,0.0,4.0,0.0,2.0,0.0,4.0,16.666666,,,,,,,,35.0,0.0,0.28522,-0.43237299999999995,0.49755900000000003,0.695801,0.8838030000000001,-0.437507,-0.140627,-0.046143,-0.055735,-0.02005,,,,,,,,,,,,,,,,,,,,,,,,,,,,,,,,,,,,,,,,,,,,,,,,,,,,,,,,,,,,,,,,,
4323,1650413543.10799,1650413543.135775,71.0,0.0,4210.769043,4548.717772999999,4189.230957,4282.05127,4067.179443,450.0,3.0,73.0,,,,0.0,4.0,0.0,2.0,0.0,4.0,16.666666,,,,,,,,,,,,,,,,,,,,,,,,,,,,,,,,,,,,,,,,,,,,,,,,,,,,,,,,,,,,,,,,,,,,,,,,,,,,,,,,,,,,
4324,1650413543.115804,1650413543.14369,72.0,0.0,4182.05127,4520.512695,4215.897461,4281.538574,4049.2307130000004,450.0,3.0,73.0,,,,0.0,4.0,0.0,2.0,0.0,4.0,16.666666,,,,,,,,36.0,0.0,0.28522,-0.43237299999999995,0.49755900000000003,0.695801,0.906264,-0.436042,-0.14990499999999998,-0.044849,-0.055777,-0.021219,,,,,,,,,,,,,,,,,,,,,,,,,,,,,,,,,,,,,,,,,,,,,,,,,,,,,,,,,,,,,,,,,
4325,1650413543.1236188,1650413543.151505,73.0,0.0,4166.153809,4563.077147999999,4229.230957,4281.025879,4047.6923829999996,0.0,3.0,73.0,,,,0.0,4.0,0.0,2.0,0.0,4.0,16.666666,1.0,16.666666,3.0,0.0,2.0,0.0,3.0,,,,,,,,,,,,,1.0,0.0,0.0,,,,,,,,,,,,,,,,,,,,,,,,,,,,,,,,0.0,0.0,64.0,0.997244,1.0,0.0,31.197015999999998,5.56808,2.738009,1.820028,3.369967,20.206272,9.081661,9.253808,8.18718,15.967145,2.692482,1.1163610000000002,0.449661,1.8450689999999998,2.946739,0.035892,0.003053,0.001187,0.0013160000000000001,0.001247,25.514215,4.214999,4.134466000000001,1.7214200000000002,3.7712559999999997
4326,1650413543.131433,1650413543.159419,74.0,0.0,4127.692383,4573.333496,4200.512695,4282.05127,4028.205078,450.0,3.0,73.0,,,,0.0,4.0,0.0,2.0,0.0,4.0,16.666666,,,,,,,,37.0,0.0,0.285645,-0.43237299999999995,0.49731400000000003,0.695801,0.916518,-0.438483,-0.145022,-0.045101,-0.055863,-0.018902000000000002,,,,,,,,,,,,,,,,,,,,,,,,,,,,,,,,,,,,,,,,,,,,,,,,,,,,,,,,,,,,,,,,,
4327,1650413543.1392481,1650413543.167234,75.0,0.0,4084.615479,4554.871582,4196.922852000001,4282.563965,3983.076904,16199.0,3.0,73.0,,,,0.0,4.0,0.0,2.0,0.0,4.0,16.666666,,,,,,,,,,,,,,,,,,,,,,,,,,,,,,,,,,,,,,,,,,,,,,,,,,,,,,,,,,,,,,,,,,,,,,,,,,,,,,,,,,,,
4328,1650413543.1470618,1650413543.175049,76.0,0.0,4066.6667479999996,4594.358886999999,4219.487305,4282.05127,3957.4357909999994,450.0,3.0,73.0,,,,0.0,4.0,0.0,2.0,0.0,4.0,16.666666,,,,,,,,38.0,0.0,0.285645,-0.43237299999999995,0.49731400000000003,0.695801,0.894057,-0.447272,-0.142092,-0.045425,-0.055795000000000004,-0.020186000000000003,,,,,,,,,,,,,,,,,,,,,,,,,,,,,,,,,,,,,,,,,,,,,,,,,,,,,,,,,,,,,,,,,
4329,1650413543.154877,1650413543.182764,77.0,0.0,4055.384521,4627.179688,4204.615234000001,4282.05127,3960.0,450.0,3.0,73.0,,,,0.0,4.0,0.0,2.0,0.0,4.0,16.666666,,,,,,,,,,,,,,,,,,,,,,,,,,,,,,,,,,,,,,,,,,,,,,,,,,,,,,0.0,0.0,64.0,0.997244,1.0,0.0,,,,,,,,,,,,,,,,,,,,,,,,,
4330,1650413543.162691,1650413543.190579,78.0,0.0,4031.794922,4598.461426,4184.102539,4281.538574,3941.025635,450.0,3.0,73.0,,,,0.0,4.0,0.0,2.0,0.0,4.0,16.666666,,,,,,,,39.0,0.0,0.285645,-0.43237299999999995,0.49731400000000003,0.695801,0.8994280000000001,-0.45655,-0.140627,-0.044251,-0.05583099999999999,-0.021439,,,,,,,,,,,,,,,,,,,,,,,,,,,,,,,,,,,,,,,,,,,,,,,,,,,,,,,,,,,,,,,,,
4331,1650413543.170506,1650413543.198293,79.0,0.0,4036.4101560000004,4617.94873,4220.512695,4280.512695,3932.3076170000004,16199.0,3.0,73.0,,,,0.0,4.0,0.0,2.0,0.0,4.0,16.666666,,,,,,,,,,,,,,,,,,,,,,,,,,,,,,,,,,,,,,,,,,,,,,,,,,,,,,,,,,,,,,,,,,,,,,,,,,,,,,,,,,,,
4332,1650413543.17832,1650413543.206208,80.0,0.0,4050.256348,4652.307617,4246.666504,4281.538574,3957.4357909999994,450.0,3.0,73.0,,,,0.0,4.0,0.0,2.0,0.0,4.0,16.666666,,,,,,,,40.0,0.0,0.285645,-0.43237299999999995,0.49731400000000003,0.695801,0.8838030000000001,-0.446296,-0.137697,-0.044612,-0.055813999999999996,-0.016218,,,,,,,,,,,,,,,,,,,,,,,,,,,,,,,,,,,,,,,,,,,,,,,,,,,,,,,,,,,,,,,,,
4333,1650413543.186135,1650413543.214023,81.0,0.0,4024.615479,4600.512695,4209.743652,4281.538574,3944.615479,450.0,3.0,73.0,,,,0.0,4.0,0.0,2.0,0.0,4.0,16.666666,,,,,,,,,,,,,,,,,,,,,,,,,,,,,,,,,,,,,,,,,,,,,,,,,,,,,,0.0,0.0,64.0,0.997244,1.0,0.0,,,,,,,,,,,,,,,,,,,,,,,,,
4334,1650413543.193949,1650413543.2219381,82.0,0.0,4000.0,4600.0,4186.666504,4281.538574,3903.076904,450.0,3.0,73.0,,,,0.0,4.0,0.0,2.0,0.0,4.0,16.666666,,,,,,,,41.0,0.0,0.285275,-0.43261700000000003,0.49731400000000003,0.695801,0.8798959999999999,-0.451179,-0.135256,-0.045131,-0.05575,-0.014499000000000001,,,,,,,,,,,,,,,,,,,,,,,,,,,,,,,,,,,,,,,,,,,,,,,,,,,,,,,,,,,,,,,,,
4335,1650413543.201764,1650413543.229753,83.0,0.0,4019.487061,4649.230957,4206.153809,4281.538574,3917.4357909999994,16199.0,3.0,73.0,,,,0.0,4.0,0.0,2.0,0.0,4.0,16.666666,,,,,,,,,,,,,,,,,,,,,,,,,,,,,,,,,,,,,,,,,,,,,,,,,,,,,,,,,,,,,,,,,,,,,,,,,,,,,,,,,,,,
4336,1650413543.209578,1650413543.237567,84.0,0.0,4024.615479,4618.974121,4206.666504,4281.538574,3930.256348,450.0,3.0,73.0,,,,0.0,4.0,0.0,2.0,0.0,4.0,16.666666,,,,,,,,42.0,0.0,0.2857,-0.43261700000000003,0.49706999999999996,0.695801,0.8930799999999999,-0.451179,-0.12451400000000001,-0.043792000000000005,-0.05579099999999999,-0.016368999999999998,,,,,,,,,,,,,,,,,,,,,,,,,,,,,,,,,,,,,,,,,,,,,,,,,,,,,,,,,,,,,,,,,
4337,1650413543.217393,1650413543.245282,85.0,0.0,3994.358887,4587.692383,4195.384765999999,4281.538574,3884.102539,450.0,3.0,73.0,,,,0.0,4.0,0.0,2.0,0.0,4.0,16.666666,,,,,,,,,,,,,,,,,,,,,,,,,,,,,,,,,,,,,,,,,,,,,,,,,,,,,,0.0,0.0,64.0,0.997244,1.0,0.0,,,,,,,,,,,,,,,,,,,,,,,,,
4338,1650413543.225207,1650413543.253197,86.0,0.0,3995.384521,4617.436035,4203.589844,4281.538574,3870.256348,450.0,3.0,73.0,,,,0.0,4.0,0.0,2.0,0.0,4.0,16.666666,,,,,,,,43.0,0.0,0.2857,-0.43261700000000003,0.49706999999999996,0.695801,0.8833139999999999,-0.45996800000000004,-0.13281500000000002,-0.044198,-0.055777999999999994,-0.011656,,,,,,,,,,,,,,,,,,,,,,,,,,,,,,,,,,,,,,,,,,,,,,,,,,,,,,,,,,,,,,,,,
4339,1650413543.233022,1650413543.261112,87.0,0.0,3996.923096,4638.461426,4192.307617,4281.538574,3890.7692869999996,16199.0,3.0,73.0,,,,0.0,4.0,0.0,2.0,0.0,4.0,16.666666,,,,,,,,,,,,,,,,,,,,,,,,,,,,,,,,,,,,,,,,,,,,,,,,,,,,,,,,,,,,,,,,,,,,,,,,,,,,,,,,,,,,
4340,1650413543.2408369,1650413543.268926,88.0,0.0,3978.974365,4629.230957,4182.05127,4281.538574,3893.3332520000004,450.0,3.0,73.0,,,,0.0,4.0,0.0,2.0,0.0,4.0,16.666666,,,,,,,,44.0,0.0,0.28553,-0.43261700000000003,0.49682600000000005,0.696045,0.889174,-0.45655,-0.132326,-0.044612,-0.055718,-0.013811000000000002,,,,,,,,,,,,,,,,,,,,,,,,,,,,,,,,,,,,,,,,,,,,,,,,,,,,,,,,,,,,,,,,,
4341,1650413543.248651,1650413543.276841,89.0,0.0,4000.512939,4606.666504,4200.512695,4281.538574,3903.5898439999996,450.0,3.0,73.0,,,,0.0,4.0,0.0,2.0,0.0,4.0,16.666666,,,,,,,,,,,,,,,,,,,,1.0,0.0,0.0,,,,,,,,,,,,,,,,,,,,,,,,,,,,,,,,0.0,0.0,64.0,1.0,1.0,0.0,50.765659,6.487559,3.0048049999999997,2.088119,3.248297,20.532001,8.108538000000001,10.4902,8.05317,15.419563,3.41537,1.078816,0.6435390000000001,1.7801080000000002,2.89554,0.060548000000000005,0.005221,0.002171,0.002411,0.002247,39.983604,5.714662000000001,4.412808999999999,1.759332,3.7001910000000002
4342,1650413543.256466,1650413543.284656,90.0,0.0,4018.974365,4610.256348,4204.615234000001,4281.538574,3907.6923829999996,450.0,3.0,73.0,,,,0.0,4.0,0.0,2.0,0.0,4.0,16.666666,,,,,,,,45.0,0.0,0.28553,-0.43261700000000003,0.49682600000000005,0.696045,0.8847790000000001,-0.451179,-0.134279,-0.044936000000000004,-0.055615,-0.012332,,,,,,,,,,,,,,,,,,,,,,,,,,,,,,,,,,,,,,,,,,,,,,,,,,,,,,,,,,,,,,,,,
4343,1650413543.26428,1650413543.2924712,91.0,0.0,4022.0512700000004,4635.897461,4205.641113000001,4281.538574,3919.487061,16199.0,3.0,73.0,,,,0.0,4.0,0.0,2.0,0.0,4.0,16.666666,,,,,,,,,,,,,,,,,,,,,,,,,,,,,,,,,,,,,,,,,,,,,,,,,,,,,,,,,,,,,,,,,,,,,,,,,,,,,,,,,,,,
4344,1650413543.272094,1650413543.300386,92.0,0.0,4041.025635,4591.282227000001,4217.436035,4281.538574,3941.538574,450.0,3.0,73.0,,,,0.0,4.0,0.0,2.0,0.0,4.0,16.666666,,,,,,,,46.0,0.0,0.2859,-0.43237299999999995,0.49682600000000005,0.696045,0.8999159999999999,-0.45801499999999995,-0.147951,-0.043616,-0.05562,-0.010904,,,,,,,,,,,,,,,,,,,,,,,,,,,,,,,,,,,,,,,,,,,,,,,,,,,,,,,,,,,,,,,,,
4345,1650413543.279909,1650413543.3082,93.0,0.0,4037.9487299999996,4560.512695,4216.410156,4281.538574,3916.4101560000004,450.0,3.0,73.0,,,,0.0,4.0,0.0,2.0,0.0,4.0,16.666666,,,,,,,,,,,,,,,,,,,,,,,,,,,,,,,,,,,,,,,,,,,,,,,,,,,,,,0.0,0.0,64.0,1.0,1.0,0.0,,,,,,,,,,,,,,,,,,,,,,,,,
4346,1650413543.287723,1650413543.315915,94.0,0.0,4013.3332520000004,4615.897461,4218.974121,4281.538574,3889.2307130000004,450.0,3.0,73.0,,,,0.0,4.0,0.0,2.0,0.0,4.0,16.666666,,,,,,,,47.0,0.0,0.285955,-0.43261700000000003,0.49658199999999997,0.696045,0.892592,-0.453132,-0.144045,-0.042429,-0.055576,-0.013134,,,,,,,,,,,,,,,,,,,,,,,,,,,,,,,,,,,,,,,,,,,,,,,,,,,,,,,,,,,,,,,,,
4347,1650413543.2955382,1650413543.3238301,95.0,0.0,4011.794922,4626.153809,4213.333496,4281.538574,3901.538574,16199.0,3.0,73.0,,,,0.0,4.0,0.0,2.0,0.0,4.0,16.666666,,,,,,,,,,,,,,,,,,,,,,,,,,,,,,,,,,,,,,,,,,,,,,,,,,,,,,,,,,,,,,,,,,,,,,,,,,,,,,,,,,,,
4348,1650413543.3033519,1650413543.331645,96.0,0.0,4012.820557,4605.641113000001,4178.461426,4281.538574,3888.718018,450.0,3.0,73.0,,,,0.0,4.0,0.0,2.0,0.0,4.0,16.666666,,,,,,,,48.0,0.0,0.28632399999999997,-0.43237299999999995,0.49658199999999997,0.696045,0.8960100000000001,-0.446784,-0.13379100000000002,-0.042970999999999995,-0.055682,-0.014994,,,,,,,,,,,,,,,,,,,,,,,,,,,,,,,,,,,,,,,,,,,,,,,,,,,,,,,,,,,,,,,,,
4349,1650413543.311167,1650413543.339459,97.0,0.0,4010.7692869999996,4648.717772999999,4177.436035,4281.538574,3881.538574,450.0,3.0,73.0,,,,0.0,4.0,0.0,2.0,0.0,4.0,16.666666,,,,,,,,,,,,,,,,,,,,,,,,,,,,,,,,,,,,,,,,,,,,,,,,,,,,,,0.0,0.0,64.0,1.0,1.0,0.0,,,,,,,,,,,,,,,,,,,,,,,,,
4350,1650413543.3189821,1650413543.347174,98.0,0.0,4026.6667479999996,4697.436035,4212.307617,4282.05127,3928.205078,450.0,3.0,73.0,,,,0.0,4.0,0.0,2.0,0.0,4.0,16.666666,,,,,,,,49.0,0.0,0.28632399999999997,-0.43237299999999995,0.49658199999999997,0.696045,0.9052870000000001,-0.446784,-0.13916199999999998,-0.043361000000000004,-0.05558300000000001,-0.013299,,,,,,,,,,,,,,,,,,,,,,,,,,,,,,,,,,,,,,,,,,,,,,,,,,,,,,,,,,,,,,,,,
4351,1650413543.326796,1650413543.355089,99.0,0.0,4026.6667479999996,4684.615234000001,4214.358886999999,4281.538574,3937.4357909999994,16199.0,3.0,73.0,,,,0.0,4.0,0.0,2.0,0.0,4.0,16.666666,,,,,,,,,,,,,,,,,,,,,,,,,,,,,,,,,,,,,,,,,,,,,,,,,,,,,,,,,,,,,,,,,,,,,,,,,,,,,,,,,,,,
4352,1650413543.334611,1650413543.3629038,100.0,0.0,4005.641113,4618.461426,4191.282227000001,4279.487305,3903.5898439999996,450.0,3.0,73.0,,,,0.0,4.0,0.0,2.0,0.0,4.0,16.666666,,,,,,,,50.0,0.0,0.28632399999999997,-0.43237299999999995,0.49658199999999997,0.696045,0.8813610000000001,-0.44971400000000006,-0.134279,-0.043907999999999996,-0.055639999999999995,-0.015094999999999999,,,,,,,,,,,,,,,,,,,,,,,,,,,,,,,,,,,,,,,,,,,,,,,,,,,,,,,,,,,,,,,,,
4353,1650413543.342425,1650413543.3708189,101.0,0.0,4004.615479,4575.384765999999,4183.589844,4280.0,3901.538574,450.0,3.0,73.0,,,,0.0,4.0,0.0,2.0,0.0,4.0,16.666666,,,,,,,,,,,,,,,,,,,,,,,,,,,,,,,,,,,,,,,,,,,,,,,,,,,,,,0.0,0.0,64.0,1.0,1.0,0.0,,,,,,,,,,,,,,,,,,,,,,,,,
4354,1650413543.35024,1650413543.378634,102.0,0.0,4034.358887,4623.077147999999,4201.538574,4281.538574,3921.538574,450.0,3.0,73.0,,,,0.0,4.0,0.0,2.0,0.0,4.0,16.666666,,,,,,,,51.0,0.0,0.286099,-0.432129,0.49658199999999997,0.696289,0.895033,-0.441413,-0.12842,-0.044156,-0.055594000000000005,-0.016808,,,,,,,,,,,,,,,,,,,,,,,,,,,,,,,,,,,,,,,,,,,,,,,,,,,,,,,,,,,,,,,,,
4355,1650413543.358054,1650413543.386548,103.0,0.0,4067.6923829999996,4673.846191,4226.666504,4281.538574,3932.820557,16199.0,3.0,73.0,,,,0.0,4.0,0.0,2.0,0.0,4.0,16.666666,,,,,,,,,,,,,,,,,,,,,,,,,,,,,,,,,,,,,,,,,,,,,,,,,,,,,,,,,,,,,,,,,,,,,,,,,,,,,,,,,,,,
4356,1650413543.365869,1650413543.3943632,104.0,0.0,4052.3076170000004,4620.512695,4213.333496,4280.0,3913.8461909999996,450.0,3.0,73.0,,,,0.0,4.0,0.0,2.0,0.0,4.0,16.666666,,,,,,,,52.0,0.0,0.286099,-0.432129,0.49658199999999997,0.696289,0.894057,-0.448737,-0.13135,-0.042963,-0.055503,-0.018399000000000002,,,,,,,,,,,,,,,,,,,,,,,,,,,,,,,,,,,,,,,,,,,,,,,,,,,,,,,,,,,,,,,,,
4357,1650413543.373683,1650413543.402278,105.0,0.0,4030.7692869999996,4562.563965,4197.94873,4280.512695,3912.3076170000004,450.0,3.0,73.0,,,,0.0,4.0,0.0,2.0,0.0,4.0,16.666666,,,,,,,,,,,,,,,,,,,,1.0,0.0,0.0,,,,,,,,,,,,,,,,,,,,,,,,,,,,,,,,0.0,0.0,64.0,1.0,1.0,0.0,70.274208,6.978134,3.014177,2.389136,3.127022,21.248104,7.563915,12.680503999999999,8.507522,14.33707,4.7391239999999994,1.044494,0.847622,1.616673,2.8735720000000002,0.084715,0.007268999999999999,0.0035,0.003819,0.003686,53.488777,7.051886,4.268358999999999,1.819768,3.591629
4358,1650413543.381498,1650413543.410093,106.0,0.0,4053.3332520000004,4601.538574,4224.615234000001,4281.538574,3938.974365,450.0,3.0,73.0,,,,0.0,4.0,0.0,2.0,0.0,4.0,16.666666,,,,,,,,53.0,0.0,0.28632399999999997,-0.43237299999999995,0.49658199999999997,0.696045,0.8955209999999999,-0.45069,-0.145022,-0.043306,-0.055470000000000005,-0.013628999999999999,,,,,,,,,,,,,,,,,,,,,,,,,,,,,,,,,,,,,,,,,,,,,,,,,,,,,,,,,,,,,,,,,
4359,1650413543.389312,1650413543.4180071,107.0,0.0,4064.615479,4640.0,4247.692383,4281.538574,3937.9487299999996,16199.0,3.0,73.0,,,,0.0,4.0,0.0,2.0,0.0,4.0,16.666666,,,,,,,,,,,,,,,,,,,,,,,,,,,,,,,,,,,,,,,,,,,,,,,,,,,,,,,,,,,,,,,,,,,,,,,,,,,,,,,,,,,,
4360,1650413543.397127,1650413543.425822,108.0,0.0,4052.820557,4617.94873,4233.846191,4281.025879,3934.8718259999996,450.0,3.0,73.0,,,,0.0,4.0,0.0,2.0,0.0,4.0,16.666666,,,,,,,,54.0,0.0,0.286692,-0.432129,0.49658199999999997,0.696045,0.895033,-0.45459700000000003,-0.135744,-0.042295,-0.055441,-0.012217,,,,,,,,,,,,,,,,,,,,,,,,,,,,,,,,,,,,,,,,,,,,,,,,,,,,,,,,,,,,,,,,,
4361,1650413543.404941,1650413543.4337368,109.0,0.0,4056.4101560000004,4626.666504,4199.487305,4281.538574,3967.179443,450.0,3.0,73.0,,,,0.0,4.0,0.0,2.0,0.0,4.0,16.666666,,,,,,,,,,,,,,,,,,,,,,,,,,,,,,,,,,,,,,,,,,,,,,,,,,,,,,0.0,0.0,64.0,1.0,1.0,0.0,,,,,,,,,,,,,,,,,,,,,,,,,
4362,1650413543.412756,1650413543.441551,110.0,0.0,4063.076904,4664.615234000001,4177.436035,4281.538574,3968.205078,450.0,3.0,73.0,,,,0.0,4.0,0.0,2.0,0.0,4.0,16.666666,,,,,,,,55.0,0.0,0.286269,-0.432129,0.49682600000000005,0.696045,0.893568,-0.451667,-0.140627,-0.041386,-0.055512,-0.014218000000000001,,,,,,,,,,,,,,,,,,,,,,,,,,,,,,,,,,,,,,,,,,,,,,,,,,,,,,,,,,,,,,,,,
4363,1650413543.42057,1650413543.449466,111.0,0.0,4063.5898439999996,4654.358886999999,4194.871582,4281.538574,3945.1281740000004,16199.0,3.0,73.0,,,,0.0,4.0,0.0,2.0,0.0,4.0,16.666666,,,,,,,,,,,,,,,,,,,,,,,,,,,,,,,,,,,,,,,,,,,,,,,,,,,,,,,,,,,,,,,,,,,,,,,,,,,,,,,,,,,,
4364,1650413543.428385,1650413543.4572802,112.0,0.0,4063.5898439999996,4616.410156,4212.820313,4281.538574,3963.5898439999996,450.0,3.0,73.0,,,,0.0,4.0,0.0,2.0,0.0,4.0,16.666666,,,,,,,,56.0,0.0,0.28632399999999997,-0.43237299999999995,0.49658199999999997,0.696045,0.8955209999999999,-0.45069,-0.145022,-0.041886,-0.055478999999999994,-0.009867,,,,,,,,,,,,,,,,,,,,,,,,,,,,,,,,,,,,,,,,,,,,,,,,,,,,,,,,,,,,,,,,,
4365,1650413543.436199,1650413543.464995,113.0,0.0,4066.1538090000004,4598.974121,4201.025879,4281.538574,3980.512939,450.0,3.0,73.0,,,,0.0,4.0,0.0,2.0,0.0,4.0,16.666666,,,,,,,,,,,,,,,,,,,,,,,,,,,,,,,,,,,,,,,,,,,,,,,,,,,,,,0.0,0.0,64.0,1.0,1.0,0.0,,,,,,,,,,,,,,,,,,,,,,,,,
4366,1650413543.444014,1650413543.47281,114.0,0.0,4086.6667479999996,4604.102539,4200.0,4281.538574,3977.4357909999994,450.0,3.0,73.0,,,,0.0,4.0,0.0,2.0,0.0,4.0,16.666666,,,,,,,,57.0,0.0,0.286637,-0.431885,0.49682600000000005,0.696045,0.889174,-0.449226,-0.141604,-0.042434,-0.055448000000000004,-0.005853,,,,,,,,,,,,,,,,,,,,,,,,,,,,,,,,,,,,,,,,,,,,,,,,,,,,,,,,,,,,,,,,,
4367,1650413543.451828,1650413543.480724,115.0,0.0,4114.871582,4627.179688,4228.205078,4281.538574,4000.512939,16199.0,3.0,73.0,,,,0.0,4.0,0.0,2.0,0.0,4.0,16.666666,,,,,,,,,,,,,,,,,,,,,,,,,,,,,,,,,,,,,,,,,,,,,,,,,,,,,,,,,,,,,,,,,,,,,,,,,,,,,,,,,,,,
4368,1650413543.459643,1650413543.488539,116.0,0.0,4107.692383,4670.256348,4240.0,4281.538574,4014.8718259999996,450.0,3.0,73.0,,,,0.0,4.0,0.0,2.0,0.0,4.0,16.666666,,,,,,,,58.0,0.0,0.286412,-0.431641,0.49682600000000005,0.696289,0.8881969999999999,-0.451179,-0.144533,-0.042878,-0.055421000000000005,-0.008440999999999999,,,,,,,,,,,,,,,,,,,,,,,,,,,,,,,,,,,,,,,,,,,,,,,,,,,,,,,,,,,,,,,,,
4369,1650413543.467457,1650413543.496254,117.0,0.0,4077.4357909999994,4685.641113000001,4224.615234000001,4281.538574,3989.2307130000004,450.0,3.0,73.0,,,,0.0,4.0,0.0,2.0,0.0,4.0,16.666666,,,,,,,,,,,,,,,,,,,,,,,,,,,,,,,,,,,,,,,,,,,,,,,,,,,,,,0.0,0.0,64.0,1.0,1.0,0.0,,,,,,,,,,,,,,,,,,,,,,,,,
4370,1650413543.4752722,1650413543.504169,118.0,0.0,4083.076904,4635.897461,4225.128418,4281.538574,3983.076904,450.0,3.0,73.0,,,,0.0,4.0,0.0,2.0,0.0,4.0,16.666666,,,,,,,,59.0,0.0,0.286412,-0.431641,0.49682600000000005,0.696289,0.891127,-0.44385399999999997,-0.143069,-0.043327,-0.05549400000000001,-0.004521,,,,,,,,,,,,,,,,,,,,,,,,,,,,,,,,,,,,,,,,,,,,,,,,,,,,,,,,,,,,,,,,,
4371,1650413543.4830859,1650413543.511983,119.0,0.0,4091.281982,4636.922852000001,4225.128418,4281.538574,3992.820557,16199.0,3.0,73.0,,,,0.0,4.0,0.0,2.0,0.0,4.0,16.666666,,,,,,,,,,,,,,,,,,,,,,,,,,,,,,,,,,,,,,,,,,,,,,,,,,,,,,,,,,,,,,,,,,,,,,,,,,,,,,,,,,,,
4372,1650413543.490901,1650413543.519798,120.0,0.0,4066.6667479999996,4704.102539,4194.358886999999,4281.538574,3971.794922,450.0,3.0,73.0,,,,0.0,4.0,0.0,2.0,0.0,4.0,16.666666,,,,,,,,60.0,0.0,0.286412,-0.431641,0.49682600000000005,0.696289,0.8896620000000001,-0.45215500000000003,-0.142092,-0.042266000000000005,-0.055512,-0.010221,,,,,,,,,,,,,,,,,,,,,,,,,,,,,,,,,,,,,,,,,,,,,,,,,,,,,,,,,,,,,,,,,
4373,1650413543.498716,1650413543.527513,121.0,0.0,4071.281982,4656.922852000001,4177.436035,4281.538574,3974.358887,450.0,3.0,73.0,,,,0.0,4.0,0.0,2.0,0.0,4.0,16.666666,,,,,,,,,,,,,,,,,,,,1.0,0.0,0.0,,,,,,,,,,,,,,,,,,,,,,,,,,,,,,,,0.0,0.0,64.0,1.0,1.0,0.0,85.93447900000001,6.745761999999999,2.775254,2.6871549999999997,3.076073,21.609377,7.522141,14.658125,9.321464,13.150282,6.442418,1.030406,0.99556,1.410611,2.84532,0.102726,0.008581,0.005226,0.005468,0.00566,63.506096,7.835482000000001,3.779902,1.950651,3.49059
4374,1650413543.50653,1650413543.535428,122.0,0.0,4107.179688,4560.512695,4195.897461,4281.538574,4006.1538090000004,450.0,3.0,73.0,,,,0.0,4.0,0.0,2.0,0.0,4.0,16.666666,,,,,,,,61.0,0.0,0.286779,-0.431396,0.49682600000000005,0.696289,0.897963,-0.45361999999999997,-0.135744,-0.041213,-0.055673,-0.012471,,,,,,,,,,,,,,,,,,,,,,,,,,,,,,,,,,,,,,,,,,,,,,,,,,,,,,,,,,,,,,,,,
4375,1650413543.514345,1650413543.543243,123.0,0.0,4112.307617,4617.436035,4205.128418,4281.538574,4010.256348,16199.0,3.0,73.0,,,,0.0,4.0,0.0,2.0,0.0,4.0,16.666666,,,,,,,,,,,,,,,,,,,,,,,,,,,,,,,,,,,,,,,,,,,,,,,,,,,,,,,,,,,,,,,,,,,,,,,,,,,,,,,,,,,,
4376,1650413543.522159,1650413543.551158,124.0,0.0,4104.102539,4680.512695,4193.846191,4281.538574,4012.820557,450.0,3.0,73.0,,,,0.0,4.0,0.0,2.0,0.0,4.0,16.666666,,,,,,,,62.0,0.0,0.286779,-0.431396,0.49682600000000005,0.696289,0.891127,-0.453132,-0.14257999999999998,-0.042023000000000005,-0.05572100000000001,-0.008245,,,,,,,,,,,,,,,,,,,,,,,,,,,,,,,,,,,,,,,,,,,,,,,,,,,,,,,,,,,,,,,,,
4377,1650413543.529973,1650413543.5589721,125.0,0.0,4108.717772999999,4638.974121,4194.358886999999,4281.538574,4023.5898439999996,450.0,3.0,73.0,,,,0.0,4.0,0.0,2.0,0.0,4.0,16.666666,,,,,,,,,,,,,,,,,,,,,,,,,,,,,,,,,,,,,,,,,,,,,,,,,,,,,,0.0,0.0,64.0,1.0,1.0,0.0,,,,,,,,,,,,,,,,,,,,,,,,,
4378,1650413543.5377882,1650413543.566887,126.0,0.0,4105.641113000001,4663.589844,4198.974121,4281.538574,4007.179443,450.0,3.0,73.0,,,,0.0,4.0,0.0,2.0,0.0,4.0,16.666666,,,,,,,,63.0,0.0,0.286186,-0.431396,0.49682600000000005,0.696533,0.878431,-0.44531899999999996,-0.13916199999999998,-0.042655,-0.055715999999999995,-0.0073230000000000005,,,,,,,,,,,,,,,,,,,,,,,,,,,,,,,,,,,,,,,,,,,,,,,,,,,,,,,,,,,,,,,,,
4379,1650413543.5456018,1650413543.574702,127.0,0.0,4111.794922,4693.333496,4200.0,4281.538574,4006.1538090000004,238.0,3.0,73.0,,,,0.0,4.0,0.0,2.0,0.0,4.0,16.666666,,,,,,,,,,,,,,,,,,,,,,,,,,,,,,,,,,,,,,,,,,,,,,,,,,,,,,,,,,,,,,,,,,,,,,,,,,,,,,,,,,,,
4380,1650413543.553417,1650413543.582617,0.0,0.0,4124.615234000001,4638.974121,4207.692383,4281.538574,4025.1281740000004,450.0,3.0,73.0,,,,0.0,4.0,0.0,2.0,0.0,4.0,16.666666,,,,,,,,0.0,0.0,0.286186,-0.431396,0.49682600000000005,0.696533,0.897963,-0.43946,-0.140627,-0.041612,-0.055613,-0.009812999999999999,,,,,,,,,,,,,,,,,,,,,,,,,,,,,,,,,,,,,,,,,,,,,,,,,,,,,,,,,,,,,,,,,
4381,1650413543.5612311,1650413543.590432,1.0,0.0,4117.94873,4623.589844,4221.538574,4281.538574,4019.487061,450.0,3.0,73.0,,,,0.0,4.0,0.0,2.0,0.0,4.0,16.666666,,,,,,,,,,,,,,,,,,,,,,,,,,,,,,,,,,,,,,,,,,,,,,,,,,,,,,0.0,0.0,64.0,1.0,1.0,0.0,,,,,,,,,,,,,,,,,,,,,,,,,
4382,1650413543.569046,1650413543.5983472,2.0,0.0,4132.307617,4653.846191,4241.025879,4281.538574,4047.179443,16149.0,3.0,73.0,,,,0.0,4.0,0.0,2.0,0.0,4.0,16.666666,,,,,,,,1.0,0.0,0.286609,-0.431396,0.49658199999999997,0.696533,0.889174,-0.442878,-0.140627,-0.042285,-0.055666999999999994,-0.005853,,,,,,,,,,,,,,,,,,,,,,,,,,,,,,,,,,,,,,,,,,,,,,,,,,,,,,,,,,,,,,,,,
4383,1650413543.576861,1650413543.6061609,3.0,0.0,4147.692383,4618.974121,4242.05127,4281.538574,4088.205078,450.0,3.0,73.0,,,,0.0,4.0,0.0,2.0,0.0,4.0,16.666666,,,,,,,,,,,,,,,,,,,,,,,,,,,,,,,,,,,,,,,,,,,,,,,,,,,,,,,,,,,,,,,,,,,,,,,,,,,,,,,,,,,,
4384,1650413543.584675,1650413543.614076,4.0,0.0,4113.846191,4591.282227000001,4206.666504,4281.025879,4049.743652,0.0,3.0,73.0,,,,0.0,4.0,0.0,2.0,0.0,4.0,16.666666,,,,,,,,2.0,0.0,0.286609,-0.431396,0.49658199999999997,0.696533,0.9004040000000001,-0.45557299999999995,-0.140139,-0.042891000000000006,-0.055715999999999995,-0.008588,,,,,,,,,,,,,,,,,,,,,,,,,,,,,,,,,,,,,,,,,,,,,,,,,,,,,,,,,,,,,,,,,
4385,1650413543.59249,1650413543.621891,5.0,0.0,4093.3332520000004,4643.589844,4177.436035,4281.538574,4011.281982,450.0,3.0,73.0,,,,0.0,4.0,0.0,2.0,0.0,4.0,16.666666,,,,,,,,,,,,,,,,,,,,,,,,,,,,,,,,,,,,,,,,,,,,,,,,,,,,,,0.0,0.0,64.0,1.0,1.0,0.0,,,,,,,,,,,,,,,,,,,,,,,,,
4386,1650413543.600304,1650413543.629806,6.0,0.0,4138.461426,4644.615234000001,4200.512695,4282.05127,4066.6667479999996,300.0,3.0,73.0,,,,0.0,4.0,0.0,2.0,0.0,4.0,16.666666,,,,,,,,3.0,0.0,0.286609,-0.431396,0.49658199999999997,0.696533,0.8955209999999999,-0.45606199999999997,-0.152346,-0.043387,-0.055662,-0.007681,,,,,,,,,,,,,,,,,,,,,,,,,,,,,,,,,,,,,,,,,,,,,,,,,,,,,,,,,,,,,,,,,
4387,1650413543.608119,1650413543.6376212,7.0,0.0,4160.512695,4605.641113000001,4223.077147999999,4281.538574,4092.3076170000004,450.0,3.0,73.0,,,,0.0,4.0,0.0,2.0,0.0,4.0,16.666666,,,,,,,,,,,,,,,,,,,,,,,,,,,,,,,,,,,,,,,,,,,,,,,,,,,,,,,,,,,,,,,,,,,,,,,,,,,,,,,,,,,,
4388,1650413543.615933,1650413543.645535,8.0,0.0,4128.205078,4626.666504,4202.05127,4281.538574,4039.487061,450.0,3.0,73.0,,,,0.0,4.0,0.0,2.0,0.0,4.0,16.666666,,,,,,,,4.0,0.0,0.286609,-0.431396,0.49658199999999997,0.696533,0.897963,-0.435554,-0.14844000000000002,-0.042319999999999997,-0.055711000000000004,-0.006864,,,,,,,,,,,,,,,,,,,,,,,,,,,,,,,,,,,,,,,,,,,,,,,,,,,,,,,,,,,,,,,,,
4389,1650413543.623748,1650413543.65335,9.0,0.0,4123.077147999999,4633.333496,4195.897461,4282.05127,4028.205078,0.0,3.0,73.0,,,,0.0,4.0,0.0,2.0,0.0,4.0,16.666666,1.0,8.333333,1.0,0.0,2.0,0.0,3.0,,,,,,,,,,,,,1.0,0.0,0.0,,,,,,,,,,,,,,,,,,,,,,,,,,,,,,,,0.0,0.0,1.0,0.0,512.0,0.81618,94.75251,5.830838,2.43375,2.9257009999999997,3.117874,20.872814,8.091878,15.727877,10.253632000000001,12.314134,8.009657,1.1044209999999999,1.051091,1.227052,2.766697,0.112007,0.008823000000000001,0.007291,0.0071849999999999995,0.008057,68.440178,7.9287160000000005,3.222388,2.158931,3.419597
4390,1650413543.631562,1650413543.661065,10.0,0.0,4140.512695,4606.153809,4214.871582,4282.563965,4064.102539,450.0,3.0,73.0,,,,0.0,4.0,0.0,2.0,0.0,4.0,16.666666,,,,,,,,5.0,0.0,0.286186,-0.431396,0.49682600000000005,0.696533,0.8994280000000001,-0.45459700000000003,-0.140139,-0.042922,-0.055609000000000006,-0.006129,,,,,,,,,,,,,,,,,,,,,,,,,,,,,,,,,,,,,,,,,,,,,,,,,,,,,,,,,,,,,,,,,
4391,1650413543.6393769,1650413543.6688788,11.0,0.0,4143.077147999999,4615.384765999999,4223.077147999999,4282.563965,4081.538574,16098.0,3.0,73.0,,,,0.0,4.0,0.0,2.0,0.0,4.0,16.666666,,,,,,,,,,,,,,,,,,,,,,,,,,,,,,,,,,,,,,,,,,,,,,,,,,,,,,,,,,,,,,,,,,,,,,,,,,,,,,,,,,,,
4392,1650413543.647191,1650413543.676594,12.0,0.0,4154.358886999999,4648.205078,4233.846191,4282.05127,4099.487305,450.0,3.0,73.0,,,,0.0,4.0,0.0,2.0,0.0,4.0,16.666666,,,,,,,,6.0,0.0,0.286186,-0.431396,0.49682600000000005,0.696533,0.891127,-0.45655,-0.153811,-0.043317,-0.055712,-0.008787,,,,,,,,,,,,,,,,,,,,,,,,,,,,,,,,,,,,,,,,,,,,,,,,,,,,,,,,,,,,,,,,,
4393,1650413543.6550062,1650413543.684409,13.0,0.0,4165.128418,4657.436035,4233.333496,4282.563965,4106.666504,450.0,3.0,73.0,,,,0.0,4.0,0.0,2.0,0.0,4.0,16.666666,,,,,,,,,,,,,,,,,,,,,,,,,,,,,,,,,,,,,,,,,,,,,,,,,,,,,,0.0,0.0,1.0,0.0,512.0,0.81618,,,,,,,,,,,,,,,,,,,,,,,,,
4394,1650413543.6628199,1650413543.692323,14.0,0.0,4151.282227000001,4617.94873,4206.666504,4282.05127,4080.0,450.0,3.0,73.0,,,,0.0,4.0,0.0,2.0,0.0,4.0,16.666666,,,,,,,,7.0,0.0,0.286186,-0.431396,0.49682600000000005,0.696533,0.89015,-0.448737,-0.140139,-0.043771,-0.05561,-0.011179999999999999,,,,,,,,,,,,,,,,,,,,,,,,,,,,,,,,,,,,,,,,,,,,,,,,,,,,,,,,,,,,,,,,,
4395,1650413543.670635,1650413543.700138,15.0,0.0,4150.256348,4574.358886999999,4216.410156,4282.05127,4080.0,16098.0,3.0,73.0,,,,0.0,4.0,0.0,2.0,0.0,4.0,16.666666,,,,,,,,,,,,,,,,,,,,,,,,,,,,,,,,,,,,,,,,,,,,,,,,,,,,,,,,,,,,,,,,,,,,,,,,,,,,,,,,,,,,
4396,1650413543.678449,1650413543.7080529,16.0,0.0,4165.641113000001,4609.230957,4257.436035,4282.05127,4103.589844,0.0,3.0,73.0,,,,0.0,4.0,0.0,2.0,0.0,4.0,16.666666,,,,,,,,8.0,0.0,0.286186,-0.431396,0.49682600000000005,0.696533,0.906752,-0.44824899999999995,-0.136233,-0.042664999999999995,-0.055713,-0.010013,,,,,,,,,,,,,,,,,,,,,,,,,,,,,,,,,,,,,,,,,,,,,,,,,,,,,,,,,,,,,,,,,
4397,1650413543.686264,1650413543.715968,17.0,0.0,4147.692383,4678.974121,4237.94873,4282.05127,4082.0512700000004,0.0,3.0,73.0,,,,0.0,4.0,0.0,2.0,0.0,4.0,16.666666,,,,,,,,,,,,,,,,,,,,,,,,,,,,,,,,,,,,,,,,,,,,,,,,,,,,,,0.0,0.0,1.0,0.0,512.0,0.81618,,,,,,,,,,,,,,,,,,,,,,,,,
4398,1650413543.694078,1650413543.723783,18.0,0.0,4138.461426,4701.538574,4202.05127,4282.05127,4068.718018,0.0,3.0,73.0,,,,0.0,4.0,0.0,2.0,0.0,4.0,16.666666,,,,,,,,9.0,0.0,0.286186,-0.431396,0.49682600000000005,0.696533,0.8813610000000001,-0.44483100000000003,-0.148928,-0.04167,-0.05575700000000001,-0.012283,,,,,,,,,,,,,,,,,,,,,,,,,,,,,,,,,,,,,,,,,,,,,,,,,,,,,,,,,,,,,,,,,
4399,1650413543.7018929,1650413543.731698,19.0,0.0,4173.846191,4674.871582,4234.358886999999,4282.05127,4104.615234000001,0.0,3.0,73.0,,,,0.0,4.0,0.0,2.0,0.0,4.0,16.666666,,,,,,,,,,,,,,,,,,,,,,,,,,,,,,,,,,,,,,,,,,,,,,,,,,,,,,,,,,,,,,,,,,,,,,,,,,,,,,,,,,,,
4400,1650413543.709707,1650413543.739512,20.0,0.0,4183.077147999999,4628.717772999999,4257.94873,4282.05127,4117.94873,0.0,3.0,73.0,,,,0.0,4.0,0.0,2.0,0.0,4.0,16.666666,,,,,,,,10.0,0.0,0.286186,-0.431396,0.49682600000000005,0.696533,0.8896620000000001,-0.45069,-0.151369,-0.040726,-0.05565,-0.014278,,,,,,,,,,,,,,,,,,,,,,,,,,,,,,,,,,,,,,,,,,,,,,,,,,,,,,,,,,,,,,,,,
4401,1650413543.7175221,1650413543.747427,21.0,0.0,4153.333496,4617.436035,4235.384765999999,4282.05127,4090.7692869999996,0.0,3.0,73.0,,,,0.0,4.0,0.0,2.0,0.0,4.0,16.666666,,,,,,,,,,,,,,,,,,,,,,,,,,,,,,,,,,,,,,,,,,,,,,,,,,,,,,0.0,0.0,1.0,0.0,512.0,0.81618,,,,,,,,,,,,,,,,,,,,,,,,,
4402,1650413543.7253358,1650413543.755242,22.0,0.0,4148.205078,4633.846191,4227.179688,4282.05127,4086.1538090000004,0.0,3.0,73.0,,,,0.0,4.0,0.0,2.0,0.0,4.0,16.666666,,,,,,,,11.0,0.0,0.286186,-0.431396,0.49682600000000005,0.696533,0.89015,-0.453132,-0.141604,-0.041634,-0.055554,-0.009823,,,,,,,,,,,,,,,,,,,,,,,,,,,,,,,,,,,,,,,,,,,,,,,,,,,,,,,,,,,,,,,,,
4403,1650413543.733151,1650413543.7631571,23.0,0.0,4152.307617,4622.563965,4225.641113000001,4282.05127,4095.384521,0.0,3.0,73.0,,,,0.0,4.0,0.0,2.0,0.0,4.0,16.666666,,,,,,,,,,,,,,,,,,,,,,,,,,,,,,,,,,,,,,,,,,,,,,,,,,,,,,,,,,,,,,,,,,,,,,,,,,,,,,,,,,,,
4404,1650413543.7409651,1650413543.770972,24.0,0.0,4137.94873,4633.333496,4223.589844,4282.05127,4092.820557,0.0,3.0,73.0,,,,0.0,4.0,0.0,2.0,0.0,4.0,16.666666,,,,,,,,12.0,0.0,0.286186,-0.431396,0.49682600000000005,0.696533,0.8813610000000001,-0.44483100000000003,-0.148928,-0.040742,-0.055564999999999996,-0.012258,,,,,,,,,,,,,,,,,,,,,,,,,,,,,,,,,,,,,,,,,,,,,,,,,,,,,,,,,,,,,,,,,
4405,1650413543.74878,1650413543.7788868,25.0,0.0,4145.641113000001,4666.666504,4244.102539,4282.05127,4098.461426,0.0,3.0,73.0,,,,0.0,4.0,0.0,2.0,0.0,4.0,16.666666,,,,,,,,,,,,,,,,,,,,1.0,0.0,0.0,,,,,,,,,,,,,,,,,,,,,,,,,,,,,,,,0.0,0.0,1.0,0.0,512.0,0.9782370000000001,96.20587900000001,4.584137999999999,2.16613,3.039518,3.209779,18.73366,9.13275,15.950363000000001,11.00946,12.058287,8.91261,1.379774,1.033431,1.115041,2.624941,0.11241,0.008084000000000001,0.009403,0.008685,0.010479,68.90369399999999,7.434197,2.902879,2.402317,3.3712779999999998
4406,1650413543.756595,1650413543.7868009,26.0,0.0,4163.077147999999,4641.025879,4250.256348,4282.05127,4112.307617,0.0,3.0,73.0,,,,0.0,4.0,0.0,2.0,0.0,4.0,16.666666,,,,,,,,13.0,0.0,0.286186,-0.431396,0.49682600000000005,0.696533,0.89015,-0.453132,-0.141604,-0.041648000000000004,-0.055477,-0.008005,,,,,,,,,,,,,,,,,,,,,,,,,,,,,,,,,,,,,,,,,,,,,,,,,,,,,,,,,,,,,,,,,
4407,1650413543.764409,1650413543.794616,27.0,0.0,4154.358886999999,4611.794922,4230.256348,4282.05127,4115.384765999999,0.0,3.0,73.0,,,,0.0,4.0,0.0,2.0,0.0,4.0,16.666666,,,,,,,,,,,,,,,,,,,,,,,,,,,,,,,,,,,,,,,,,,,,,,,,,,,,,,,,,,,,,,,,,,,,,,,,,,,,,,,,,,,,
4408,1650413543.772223,1650413543.802531,28.0,0.0,4148.205078,4663.589844,4229.743652,4282.05127,4110.769043,0.0,3.0,73.0,,,,0.0,4.0,0.0,2.0,0.0,4.0,16.666666,,,,,,,,14.0,0.0,0.286723,-0.43115200000000004,0.49706999999999996,0.696289,0.889174,-0.445808,-0.140139,-0.042269,-0.055447,-0.0070090000000000005,,,,,,,,,,,,,,,,,,,,,,,,,,,,,,,,,,,,,,,,,,,,,,,,,,,,,,,,,,,,,,,,,
4409,1650413543.780038,1650413543.8103461,29.0,0.0,4157.94873,4695.897461,4235.897461,4282.05127,4108.205078,0.0,3.0,73.0,,,,0.0,4.0,0.0,2.0,0.0,4.0,16.666666,,,,,,,,,,,,,,,,,,,,,,,,,,,,,,,,,,,,,,,,,,,,,,,,,,,,,,0.0,0.0,1.0,0.0,512.0,0.9782370000000001,,,,,,,,,,,,,,,,,,,,,,,,,
4410,1650413543.787852,1650413543.818161,30.0,0.0,4168.205078,4658.974121,4228.205078,4282.05127,4122.05127,0.0,3.0,73.0,,,,0.0,4.0,0.0,2.0,0.0,4.0,16.666666,,,,,,,,15.0,0.0,0.28613,-0.43115200000000004,0.49706999999999996,0.696533,0.894545,-0.464363,-0.144045,-0.042876,-0.055469000000000004,-0.00958,,,,,,,,,,,,,,,,,,,,,,,,,,,,,,,,,,,,,,,,,,,,,,,,,,,,,,,,,,,,,,,,,
4411,1650413543.795667,1650413543.826076,31.0,0.0,4160.0,4645.641113000001,4216.410156,4282.05127,4137.436035,0.0,3.0,73.0,,,,0.0,4.0,0.0,2.0,0.0,4.0,16.666666,,,,,,,,,,,,,,,,,,,,,,,,,,,,,,,,,,,,,,,,,,,,,,,,,,,,,,,,,,,,,,,,,,,,,,,,,,,,,,,,,,,,
4412,1650413543.803481,1650413543.83389,32.0,0.0,4120.512695,4643.589844,4196.922852000001,4282.05127,4103.077147999999,0.0,3.0,73.0,,,,0.0,4.0,0.0,2.0,0.0,4.0,16.666666,,,,,,,,16.0,0.0,0.286667,-0.430908,0.49731400000000003,0.696289,0.8989389999999999,-0.443366,-0.145998,-0.043422,-0.055439999999999996,-0.008427,,,,,,,,,,,,,,,,,,,,,,,,,,,,,,,,,,,,,,,,,,,,,,,,,,,,,,,,,,,,,,,,,
4413,1650413543.811296,1650413543.841805,33.0,0.0,4107.692383,4625.128418,4195.897461,4282.05127,4064.102539,0.0,3.0,73.0,,,,0.0,4.0,0.0,2.0,0.0,4.0,16.666666,,,,,,,,,,,,,,,,,,,,,,,,,,,,,,,,,,,,,,,,,,,,,,,,,,,,,,0.0,0.0,1.0,0.0,512.0,0.9782370000000001,,,,,,,,,,,,,,,,,,,,,,,,,
4414,1650413543.8191109,1650413543.8496199,34.0,0.0,4150.256348,4628.205078,4222.05127,4282.05127,4096.410156,0.0,3.0,73.0,,,,0.0,4.0,0.0,2.0,0.0,4.0,16.666666,,,,,,,,17.0,0.0,0.286073,-0.430908,0.49731400000000003,0.696533,0.890639,-0.451179,-0.134279,-0.043914,-0.055511000000000005,-0.010758,,,,,,,,,,,,,,,,,,,,,,,,,,,,,,,,,,,,,,,,,,,,,,,,,,,,,,,,,,,,,,,,,
4415,1650413543.826925,1650413543.857535,35.0,0.0,4171.282227000001,4637.94873,4240.0,4282.05127,4141.538574,0.0,3.0,73.0,,,,0.0,4.0,0.0,2.0,0.0,4.0,16.666666,,,,,,,,,,,,,,,,,,,,,,,,,,,,,,,,,,,,,,,,,,,,,,,,,,,,,,,,,,,,,,,,,,,,,,,,,,,,,,,,,,,,
4416,1650413543.83474,1650413543.86535,36.0,0.0,4135.897461,4647.179688,4229.230957,4282.05127,4122.05127,0.0,3.0,73.0,,,,0.0,4.0,0.0,2.0,0.0,4.0,16.666666,,,,,,,,18.0,0.0,0.286016,-0.43066400000000005,0.49755900000000003,0.696533,0.9043110000000001,-0.446296,-0.138674,-0.044308,-0.055526,-0.006751999999999999,,,,,,,,,,,,,,,,,,,,,,,,,,,,,,,,,,,,,,,,,,,,,,,,,,,,,,,,,,,,,,,,,
4417,1650413543.8425539,1650413543.873265,37.0,0.0,4111.282227000001,4681.025879,4206.666504,4282.05127,4094.358887,0.0,3.0,73.0,,,,0.0,4.0,0.0,2.0,0.0,4.0,16.666666,,,,,,,,,,,,,,,,,,,,,,,,,,,,,,,,,,,,,,,,,,,,,,,,,,,,,,0.0,0.0,1.0,0.0,512.0,0.9782370000000001,,,,,,,,,,,,,,,,,,,,,,,,,
4418,1650413543.850369,1650413543.881079,38.0,0.0,4137.94873,4651.282227000001,4215.384765999999,4282.05127,4125.128418,0.0,3.0,73.0,,,,0.0,4.0,0.0,2.0,0.0,4.0,16.666666,,,,,,,,19.0,0.0,0.28661,-0.43066400000000005,0.49755900000000003,0.696289,0.8916149999999999,-0.45361999999999997,-0.138186,-0.043246,-0.055491,-0.012278,,,,,,,,,,,,,,,,,,,,,,,,,,,,,,,,,,,,,,,,,,,,,,,,,,,,,,,,,,,,,,,,,
4419,1650413543.858183,1650413543.888994,39.0,0.0,4168.205078,4564.102539,4229.743652,4282.05127,4150.256348,0.0,3.0,73.0,,,,0.0,4.0,0.0,2.0,0.0,4.0,16.666666,,,,,,,,,,,,,,,,,,,,,,,,,,,,,,,,,,,,,,,,,,,,,,,,,,,,,,,,,,,,,,,,,,,,,,,,,,,,,,,,,,,,
4420,1650413543.865998,1650413543.896809,40.0,0.0,4171.794922,4570.256348,4220.0,4282.05127,4137.436035,0.0,3.0,73.0,,,,0.0,4.0,0.0,2.0,0.0,4.0,16.666666,,,,,,,,20.0,0.0,0.286384,-0.43041999999999997,0.49755900000000003,0.696533,0.8715950000000001,-0.460945,-0.14990499999999998,-0.042193,-0.055605999999999996,-0.010904,,,,,,,,,,,,,,,,,,,,,,,,,,,,,,,,,,,,,,,,,,,,,,,,,,,,,,,,,,,,,,,,,
4421,1650413543.873812,1650413543.9047241,41.0,0.0,4170.256348,4600.512695,4229.743652,4282.05127,4136.922852000001,0.0,3.0,73.0,,,,0.0,4.0,0.0,2.0,0.0,4.0,16.666666,,,,,,,,,,,,,,,,,,,,1.0,0.0,0.0,,,,,,,,,,,,,,,,,,,,,,,,,,,,,,,,0.0,0.0,1.0,0.0,512.0,1.0,90.916725,3.445095,2.070103,2.987978,3.270629,15.583304,10.23355,15.693729000000001,11.328496000000001,12.263358,8.790291,1.9585270000000001,0.997561,1.1025790000000002,2.458855,0.10605999999999999,0.006794,0.011092,0.00963,0.012322,65.712204,6.576778,2.976053,2.602666,3.333334
4422,1650413543.8816268,1650413543.9126391,42.0,0.0,4175.384765999999,4600.0,4248.205078,4282.05127,4145.641113000001,0.0,3.0,73.0,,,,0.0,4.0,0.0,2.0,0.0,4.0,16.666666,,,,,,,,21.0,0.0,0.28675,-0.430176,0.49755900000000003,0.696533,0.8774549999999999,-0.45361999999999997,-0.137209,-0.042759,-0.055563,-0.013036,,,,,,,,,,,,,,,,,,,,,,,,,,,,,,,,,,,,,,,,,,,,,,,,,,,,,,,,,,,,,,,,,
4423,1650413543.889441,1650413543.920454,43.0,0.0,4183.589844,4631.794922,4231.794922,4282.05127,4138.461426,0.0,3.0,73.0,,,,0.0,4.0,0.0,2.0,0.0,4.0,16.666666,,,,,,,,,,,,,,,,,,,,,,,,,,,,,,,,,,,,,,,,,,,,,,,,,,,,,,,,,,,,,,,,,,,,,,,,,,,,,,,,,,,,
4424,1650413543.8972561,1650413543.9283679,44.0,0.0,4195.897461,4650.769043,4232.307617,4282.05127,4153.333496,0.0,3.0,73.0,,,,0.0,4.0,0.0,2.0,0.0,4.0,16.666666,,,,,,,,22.0,0.0,0.286326,-0.430176,0.497803,0.696533,0.916518,-0.43994799999999995,-0.155276,-0.043269,-0.055525,-0.011635,,,,,,,,,,,,,,,,,,,,,,,,,,,,,,,,,,,,,,,,,,,,,,,,,,,,,,,,,,,,,,,,,
4425,1650413543.9050698,1650413543.936183,45.0,0.0,4202.05127,4638.974121,4256.410156,4282.05127,4192.307617,0.0,3.0,73.0,,,,0.0,4.0,0.0,2.0,0.0,4.0,16.666666,,,,,,,,,,,,,,,,,,,,,,,,,,,,,,,,,,,,,,,,,,,,,,,,,,,,,,0.0,0.0,1.0,0.0,512.0,1.0,,,,,,,,,,,,,,,,,,,,,,,,,
4426,1650413543.912885,1650413543.944098,46.0,0.0,4193.333496,4644.102539,4236.922852000001,4282.05127,4194.871582,0.0,3.0,73.0,,,,0.0,4.0,0.0,2.0,0.0,4.0,16.666666,,,,,,,,23.0,0.0,0.286919,-0.430176,0.497803,0.696289,0.906264,-0.45655,-0.147951,-0.043677999999999995,-0.05549,-0.013743,,,,,,,,,,,,,,,,,,,,,,,,,,,,,,,,,,,,,,,,,,,,,,,,,,,,,,,,,,,,,,,,,
4427,1650413543.9206991,1650413543.951913,47.0,0.0,4179.487305,4619.487305,4203.077147999999,4282.05127,4164.102539,0.0,3.0,73.0,,,,0.0,4.0,0.0,2.0,0.0,4.0,16.666666,,,,,,,,,,,,,,,,,,,,,,,,,,,,,,,,,,,,,,,,,,,,,,,,,,,,,,,,,,,,,,,,,,,,,,,,,,,,,,,,,,,,
4428,1650413543.928514,1650413543.959828,48.0,0.0,4182.05127,4568.205078,4213.846191,4282.05127,4149.743652,0.0,3.0,73.0,,,,0.0,4.0,0.0,2.0,0.0,4.0,16.666666,,,,,,,,24.0,0.0,0.286919,-0.430176,0.497803,0.696289,0.8921030000000001,-0.44776099999999996,-0.157717,-0.042631,-0.055312,-0.015738,,,,,,,,,,,,,,,,,,,,,,,,,,,,,,,,,,,,,,,,,,,,,,,,,,,,,,,,,,,,,,,,,
4429,1650413543.936328,1650413543.967643,49.0,0.0,4183.077147999999,4593.333496,4224.102539,4282.05127,4148.205078,0.0,3.0,73.0,,,,0.0,4.0,0.0,2.0,0.0,4.0,16.666666,,,,,,,,,,,,,,,,,,,,,,,,,,,,,,,,,,,,,,,,,,,,,,,,,,,,,,0.0,0.0,1.0,0.0,512.0,1.0,,,,,,,,,,,,,,,,,,,,,,,,,
4430,1650413543.944143,1650413543.975557,50.0,0.0,4181.025879,4623.589844,4210.256348,4282.05127,4153.846191,0.0,3.0,73.0,,,,0.0,4.0,0.0,2.0,0.0,4.0,16.666666,,,,,,,,25.0,0.0,0.286919,-0.430176,0.497803,0.696289,0.8838030000000001,-0.43799499999999997,-0.136721,-0.043202,-0.055299,-0.017338,,,,,,,,,,,,,,,,,,,,,,,,,,,,,,,,,,,,,,,,,,,,,,,,,,,,,,,,,,,,,,,,,
4431,1650413543.951957,1650413543.983372,51.0,1.0,4185.512695,4620.577147999999,4212.436035,4282.05127,4156.410156,0.0,3.0,73.0,,,,0.0,4.0,0.0,2.0,0.0,4.0,16.666666,,,,,,,,,,,,,,,,,,,,,,,,,,,,,,,,,,,,,,,,,,,,,,,,,,,,,,,,,,,,,,,,,,,,,,,,,,,,,,,,,,,,
4432,1650413543.959772,1650413543.9911869,52.0,1.0,4190.0,4617.563965,4214.615234000001,4282.05127,4158.974121,0.0,3.0,73.0,,,,0.0,4.0,0.0,2.0,0.0,4.0,16.666666,,,,,,,,26.0,1.0,0.28686300000000003,-0.43011499999999997,0.497803,0.69635,0.8833139999999999,-0.44397600000000004,-0.135988,-0.043318,-0.055283000000000006,-0.016880000000000003,,,,,,,,,,,,,,,,,,,,,,,,,,,,,,,,,,,,,,,,,,,,,,,,,,,,,,,,,,,,,,,,,
4433,1650413543.967586,1650413543.999002,53.0,1.0,4194.487305,4614.55127,4216.794922,4282.05127,4161.538574,0.0,3.0,73.0,,,,0.0,4.0,0.0,2.0,0.0,4.0,16.666666,,,,,,,,,,,,,,,,,,,,,,,,,,,,,,,,,,,,,,,,,,,,,,,,,,,,,,0.0,0.0,1.0,0.0,512.0,1.0,,,,,,,,,,,,,,,,,,,,,,,,,
4434,1650413543.975401,1650413544.006817,54.0,1.0,4198.974121,4611.538574,4218.974121,4282.05127,4164.102539,0.0,3.0,73.0,,,,0.0,4.0,0.0,2.0,0.0,4.0,16.666666,,,,,,,,27.0,1.0,0.286806,-0.430054,0.497803,0.696411,0.882826,-0.44995799999999997,-0.135256,-0.043434,-0.055268,-0.016422,,,,,,,,,,,,,,,,,,,,,,,,,,,,,,,,,,,,,,,,,,,,,,,,,,,,,,,,,,,,,,,,,
4435,1650413543.983215,1650413544.014632,55.0,1.0,4203.461426,4608.525879,4221.153809,4282.05127,4166.666504,0.0,3.0,73.0,,,,0.0,4.0,0.0,2.0,0.0,4.0,16.666666,,,,,,,,,,,,,,,,,,,,,,,,,,,,,,,,,,,,,,,,,,,,,,,,,,,,,,,,,,,,,,,,,,,,,,,,,,,,,,,,,,,,
4436,1650413543.99103,1650413544.022447,56.0,1.0,4207.94873,4605.512695,4223.333496,4282.05127,4169.230957,0.0,3.0,73.0,,,,0.0,4.0,0.0,2.0,0.0,4.0,16.666666,,,,,,,,28.0,1.0,0.286749,-0.429993,0.497803,0.696472,0.882338,-0.45593999999999996,-0.134524,-0.04355,-0.055253,-0.015964,,,,,,,,,,,,,,,,,,,,,,,,,,,,,,,,,,,,,,,,,,,,,,,,,,,,,,,,,,,,,,,,,
4437,1650413543.9988449,1650413544.030262,57.0,1.0,4212.436035,4602.5,4225.512695,4282.05127,4171.794922,0.0,3.0,73.0,,,,0.0,4.0,0.0,2.0,0.0,4.0,16.666666,,,,,,,,,,,,,,,,,,,,1.0,0.0,0.0,,,,,,,,,,,,,,,,,,,,,,,,,,,,,,,,0.0,0.0,1.0,0.0,512.0,1.0,80.65793599999999,2.756167,2.12853,2.784902,3.233663,12.208561999999999,10.864625,15.336284,11.15422,12.558216,7.638242999999999,2.8375790000000003,1.011486,1.174849,2.335223,0.095471,0.005484,0.011858,0.009741,0.013011000000000002,59.968498,5.624619,3.394744,2.683662,3.304822
4438,1650413544.006659,1650413544.038076,58.0,0.0,4216.922852000001,4599.487305,4227.692383,4282.05127,4174.358886999999,0.0,3.0,73.0,,,,0.0,4.0,0.0,2.0,0.0,4.0,16.666666,,,,,,,,29.0,0.0,0.286693,-0.429932,0.497803,0.696533,0.881849,-0.461921,-0.13379100000000002,-0.043667000000000004,-0.055238,-0.015507,,,,,,,,,,,,,,,,,,,,,,,,,,,,,,,,,,,,,,,,,,,,,,,,,,,,,,,,,,,,,,,,,
4439,1650413544.014474,1650413544.045791,59.0,0.0,4235.384765999999,4580.512695,4252.307617,4282.05127,4197.436035,0.0,3.0,73.0,,,,0.0,4.0,0.0,2.0,0.0,4.0,16.666666,,,,,,,,,,,,,,,,,,,,,,,,,,,,,,,,,,,,,,,,,,,,,,,,,,,,,,,,,,,,,,,,,,,,,,,,,,,,,,,,,,,,
4440,1650413544.022288,1650413544.053606,60.0,0.0,4268.717772999999,4597.94873,4271.794922,4282.05127,4246.666504,0.0,3.0,73.0,,,,0.0,4.0,0.0,2.0,0.0,4.0,16.666666,,,,,,,,30.0,0.0,0.286693,-0.429932,0.497803,0.696533,0.89015,-0.445808,-0.145022,-0.044183,-0.055279999999999996,-0.017179,,,,,,,,,,,,,,,,,,,,,,,,,,,,,,,,,,,,,,,,,,,,,,,,,,,,,,,,,,,,,,,,,
4441,1650413544.030102,1650413544.061321,61.0,0.0,4273.846191,4630.256348,4255.384765999999,4282.05127,4250.256348,0.0,3.0,73.0,,,,0.0,4.0,0.0,2.0,0.0,4.0,16.666666,,,,,,,,,,,,,,,,,,,,,,,,,,,,,,,,,,,,,,,,,,,,,,,,,,,,,,0.0,0.0,1.0,0.0,512.0,1.0,,,,,,,,,,,,,,,,,,,,,,,,,
4442,1650413544.037917,1650413544.069135,62.0,0.0,4252.820313,4653.333496,4237.94873,4282.05127,4214.358886999999,0.0,3.0,73.0,,,,0.0,4.0,0.0,2.0,0.0,4.0,16.666666,,,,,,,,31.0,0.0,0.287116,-0.429932,0.49755900000000003,0.696533,0.8842909999999999,-0.451179,-0.14844000000000002,-0.042987,-0.055367999999999994,-0.015363,,,,,,,,,,,,,,,,,,,,,,,,,,,,,,,,,,,,,,,,,,,,,,,,,,,,,,,,,,,,,,,,,
4443,1650413544.045731,1650413544.07685,63.0,0.0,4242.05127,4649.230957,4248.205078,4282.05127,4193.333496,0.0,3.0,73.0,,,,0.0,4.0,0.0,2.0,0.0,4.0,16.666666,,,,,,,,,,,,,,,,,,,,,,,,,,,,,,,,,,,,,,,,,,,,,,,,,,,,,,,,,,,,,,,,,,,,,,,,,,,,,,,,,,,,
4444,1650413544.0535462,1650413544.084665,64.0,0.0,4237.436035,4661.025879,4251.794922,4282.05127,4196.922852000001,450.0,3.0,73.0,,,,0.0,4.0,0.0,2.0,0.0,4.0,16.666666,,,,,,,,32.0,0.0,0.286919,-0.430176,0.497803,0.696289,0.8842909999999999,-0.45020200000000005,-0.14111500000000002,-0.041862,-0.055446,-0.017098,,,,,,,,,,,,,,,,,,,,,,,,,,,,,,,,,,,,,,,,,,,,,,,,,,,,,,,,,,,,,,,,,
4445,1650413544.06136,1650413544.0923789,65.0,0.0,4261.538574,4708.205078,4253.846191,4282.05127,4223.077147999999,450.0,3.0,73.0,,,,0.0,2.0,0.0,2.0,0.0,4.0,16.666666,,,,,,,,,,,,,,,,,,,,,,,,,,,,,,,,,,,,,,,,,,,,,,,,,,,,,,0.0,0.0,1.0,0.0,512.0,1.0,,,,,,,,,,,,,,,,,,,,,,,,,
4446,1650413544.069175,1650413544.100194,66.0,0.0,4289.230957,4711.282227000001,4253.333496,4282.05127,4231.282227000001,307.0,3.0,73.0,,,,0.0,2.0,0.0,2.0,0.0,4.0,16.666666,,,,,,,,33.0,0.0,0.286693,-0.429932,0.497803,0.696533,0.89015,-0.445808,-0.145022,-0.040899,-0.055467999999999996,-0.015290999999999999,,,,,,,,,,,,,,,,,,,,,,,,,,,,,,,,,,,,,,,,,,,,,,,,,,,,,,,,,,,,,,,,,
4447,1650413544.0769901,1650413544.107909,67.0,0.0,4251.282227000001,4634.871582,4223.077147999999,4282.05127,4193.333496,450.0,3.0,73.0,,,,0.0,2.0,0.0,2.0,0.0,4.0,16.666666,,,,,,,,,,,,,,,,,,,,,,,,,,,,,,,,,,,,,,,,,,,,,,,,,,,,,,,,,,,,,,,,,,,,,,,,,,,,,,,,,,,,
4448,1650413544.0848038,1650413544.115624,68.0,0.0,4213.846191,4568.717772999999,4206.666504,4282.05127,4178.974121,0.0,3.0,73.0,,,,0.0,2.0,0.0,4.0,0.0,4.0,16.666666,,,,,,,,34.0,0.0,0.28734299999999996,-0.430176,0.49755900000000003,0.696289,0.9043110000000001,-0.45410900000000004,-0.14551,-0.041594,-0.055537,-0.010881,,,,,,,,,,,,,,,,,,,,,,,,,,,,,,,,,,,,,,,,,,,,,,,,,,,,,,,,,,,,,,,,,
4449,1650413544.092619,1650413544.1234381,69.0,0.0,4230.256348,4588.205078,4222.05127,4282.05127,4206.666504,450.0,3.0,73.0,,,,0.0,2.0,0.0,4.0,0.0,4.0,16.666666,,,,,,,,,,,,,,,,,,,,,,,,,,,,,,,,,,,,,,,,,,,,,,,,,,,,,,0.0,0.0,1.0,0.0,512.0,1.0,,,,,,,,,,,,,,,,,,,,,,,,,
4450,1650413544.100433,1650413544.131253,70.0,0.0,4235.384765999999,4651.282227000001,4231.794922,4282.05127,4204.102539,16377.0,3.0,73.0,,,,0.0,2.0,0.0,4.0,0.0,4.0,16.666666,,,,,,,,35.0,0.0,0.28734299999999996,-0.430176,0.49755900000000003,0.696289,0.8955209999999999,-0.44531899999999996,-0.151858,-0.042171,-0.055549,-0.013015,,,,,,,,,,,,,,,,,,,,,,,,,,,,,,,,,,,,,,,,,,,,,,,,,,,,,,,,,,,,,,,,,
4451,1650413544.108248,1650413544.138968,71.0,0.0,4227.179688,4661.025879,4228.717772999999,4282.05127,4192.307617,450.0,3.0,73.0,,,,0.0,2.0,0.0,4.0,0.0,4.0,16.666666,,,,,,,,,,,,,,,,,,,,,,,,,,,,,,,,,,,,,,,,,,,,,,,,,,,,,,,,,,,,,,,,,,,,,,,,,,,,,,,,,,,,
4452,1650413544.116062,1650413544.146682,72.0,0.0,4237.94873,4625.128418,4231.794922,4282.05127,4210.769043,450.0,3.0,73.0,,,,0.0,2.0,0.0,4.0,0.0,4.0,16.666666,,,,,,,,36.0,0.0,0.28734299999999996,-0.430176,0.49755900000000003,0.696289,0.8964979999999999,-0.446296,-0.140139,-0.041128,-0.05561,-0.014985,,,,,,,,,,,,,,,,,,,,,,,,,,,,,,,,,,,,,,,,,,,,,,,,,,,,,,,,,,,,,,,,,
4453,1650413544.123877,1650413544.1544971,73.0,0.0,4232.307617,4638.974121,4234.358886999999,4282.05127,4211.282227000001,0.0,3.0,73.0,,,,0.0,2.0,0.0,4.0,0.0,4.0,16.666666,0.972656,8.333333,1.0,0.0,2.0,0.0,3.0,,,,,,,,,,,,,1.0,0.0,0.0,,,,,,,,,,,,,,,,,,,,,,,,,,,,,,,,10.0,0.0,64.0,0.87525,1.0,0.0,67.46666,2.620491,2.2378549999999997,2.5006470000000003,3.0821,9.415041,10.655892,15.164610999999999,10.668211999999999,12.551394,5.825973,3.8696800000000002,1.116074,1.2881120000000001,2.301116,0.082428,0.004501,0.011391,0.008925,0.012256,52.320038000000004,4.796837,3.9797870000000004,2.6092869999999997,3.2952440000000003
4454,1650413544.131691,1650413544.162212,74.0,0.0,4218.461426,4681.538574,4231.282227000001,4282.05127,4192.820313,450.0,3.0,73.0,,,,0.0,2.0,0.0,4.0,0.0,4.0,16.666666,,,,,,,,37.0,0.0,0.28734299999999996,-0.430176,0.49755900000000003,0.696289,0.8798959999999999,-0.440925,-0.134279,-0.0418,-0.055762,-0.016758000000000002,,,,,,,,,,,,,,,,,,,,,,,,,,,,,,,,,,,,,,,,,,,,,,,,,,,,,,,,,,,,,,,,,
4455,1650413544.139506,1650413544.170026,75.0,0.0,4219.487305,4669.230957,4231.282227000001,4282.05127,4197.94873,16226.0,3.0,73.0,,,,0.0,2.0,0.0,4.0,0.0,4.0,16.666666,,,,,,,,,,,,,,,,,,,,,,,,,,,,,,,,,,,,,,,,,,,,,,,,,,,,,,,,,,,,,,,,,,,,,,,,,,,,,,,,,,,,
4456,1650413544.14732,1650413544.177741,76.0,0.0,4218.974121,4661.025879,4233.333496,4282.05127,4211.282227000001,450.0,3.0,73.0,,,,0.0,2.0,0.0,4.0,0.0,4.0,16.666666,,,,,,,,38.0,0.0,0.28734299999999996,-0.430176,0.49755900000000003,0.696289,0.893568,-0.45361999999999997,-0.14111500000000002,-0.04099,-0.055800999999999996,-0.018305000000000002,,,,,,,,,,,,,,,,,,,,,,,,,,,,,,,,,,,,,,,,,,,,,,,,,,,,,,,,,,,,,,,,,
4457,1650413544.155135,1650413544.1855562,77.0,0.0,4213.333496,4667.692383,4218.461426,4282.05127,4205.128418,450.0,3.0,73.0,,,,0.0,2.0,0.0,4.0,0.0,4.0,16.666666,,,,,,,,,,,,,,,,,,,,,,,,,,,,,,,,,,,,,,,,,,,,,,,,,,,,,,10.0,0.0,64.0,0.87525,1.0,0.0,,,,,,,,,,,,,,,,,,,,,,,,,
4458,1650413544.162949,1650413544.19327,78.0,0.0,4207.179688,4594.358886999999,4195.897461,4282.05127,4197.94873,450.0,3.0,73.0,,,,0.0,2.0,0.0,4.0,0.0,4.0,16.666666,,,,,,,,39.0,0.0,0.287116,-0.429932,0.49755900000000003,0.696533,0.9052870000000001,-0.44238999999999995,-0.140627,-0.041676,-0.055787,-0.013544999999999998,,,,,,,,,,,,,,,,,,,,,,,,,,,,,,,,,,,,,,,,,,,,,,,,,,,,,,,,,,,,,,,,,
4459,1650413544.170764,1650413544.2010849,79.0,0.0,4228.205078,4514.871582,4202.05127,4282.05127,4212.307617,16226.0,3.0,73.0,,,,0.0,2.0,0.0,4.0,0.0,4.0,16.666666,,,,,,,,,,,,,,,,,,,,,,,,,,,,,,,,,,,,,,,,,,,,,,,,,,,,,,,,,,,,,,,,,,,,,,,,,,,,,,,,,,,,
4460,1650413544.178578,1650413544.2088,80.0,0.0,4253.846191,4559.487305,4210.256348,4282.05127,4229.743652,450.0,3.0,73.0,,,,0.0,2.0,0.0,4.0,0.0,4.0,16.666666,,,,,,,,40.0,0.0,0.287116,-0.429932,0.49755900000000003,0.696533,0.8960100000000001,-0.458503,-0.144045,-0.042342000000000005,-0.055775,-0.012093000000000001,,,,,,,,,,,,,,,,,,,,,,,,,,,,,,,,,,,,,,,,,,,,,,,,,,,,,,,,,,,,,,,,,
4461,1650413544.186393,1650413544.216615,81.0,0.0,4262.563965,4642.563965,4222.05127,4282.05127,4254.358886999999,450.0,3.0,73.0,,,,0.0,2.0,0.0,4.0,0.0,4.0,16.666666,,,,,,,,,,,,,,,,,,,,,,,,,,,,,,,,,,,,,,,,,,,,,,,,,,,,,,10.0,0.0,64.0,0.87525,1.0,0.0,,,,,,,,,,,,,,,,,,,,,,,,,
4462,1650413544.194207,1650413544.224429,82.0,0.0,4266.153809,4660.512695,4251.282227000001,4282.05127,4257.94873,450.0,3.0,73.0,,,,0.0,2.0,0.0,4.0,0.0,4.0,16.666666,,,,,,,,41.0,0.0,0.287116,-0.429932,0.49755900000000003,0.696533,0.8930799999999999,-0.45069,-0.146975,-0.042893,-0.055764,-0.014106,,,,,,,,,,,,,,,,,,,,,,,,,,,,,,,,,,,,,,,,,,,,,,,,,,,,,,,,,,,,,,,,,
4463,1650413544.202022,1650413544.2321439,83.0,0.0,4258.974121,4631.282227000001,4241.025879,4282.05127,4224.102539,16226.0,3.0,73.0,,,,0.0,2.0,0.0,4.0,0.0,4.0,16.666666,,,,,,,,,,,,,,,,,,,,,,,,,,,,,,,,,,,,,,,,,,,,,,,,,,,,,,,,,,,,,,,,,,,,,,,,,,,,,,,,,,,,
4464,1650413544.209836,1650413544.2398589,84.0,0.0,4247.692383,4587.692383,4209.743652,4282.05127,4217.94873,450.0,3.0,73.0,,,,0.0,2.0,0.0,4.0,0.0,4.0,16.666666,,,,,,,,42.0,0.0,0.287059,-0.429688,0.497803,0.696533,0.8916149999999999,-0.45996800000000004,-0.143069,-0.043389,-0.055705,-0.009766,,,,,,,,,,,,,,,,,,,,,,,,,,,,,,,,,,,,,,,,,,,,,,,,,,,,,,,,,,,,,,,,,
4465,1650413544.217651,1650413544.247673,85.0,0.0,4255.897461,4605.128418,4223.077147999999,4282.05127,4251.794922,450.0,3.0,73.0,,,,0.0,2.0,0.0,4.0,0.0,4.0,16.666666,,,,,,,,,,,,,,,,,,,,,,,,,,,,,,,,,,,,,,,,,,,,,,,,,,,,,,10.0,0.0,64.0,0.87525,1.0,0.0,,,,,,,,,,,,,,,,,,,,,,,,,
4466,1650413544.225465,1650413544.255388,86.0,0.0,4268.205078,4680.0,4242.05127,4282.05127,4264.615234000001,450.0,3.0,73.0,,,,0.0,2.0,0.0,4.0,0.0,4.0,16.666666,,,,,,,,43.0,0.0,0.287059,-0.429688,0.497803,0.696533,0.8842909999999999,-0.44434300000000004,-0.14111500000000002,-0.043738,-0.055848,-0.005762,,,,,,,,,,,,,,,,,,,,,,,,,,,,,,,,,,,,,,,,,,,,,,,,,,,,,,,,,,,,,,,,,
4467,1650413544.2332802,1650413544.263203,87.0,0.0,4263.589844,4662.563965,4225.641113000001,4282.05127,4248.717772999999,16226.0,3.0,73.0,,,,0.0,2.0,0.0,4.0,0.0,4.0,16.666666,,,,,,,,,,,,,,,,,,,,,,,,,,,,,,,,,,,,,,,,,,,,,,,,,,,,,,,,,,,,,,,,,,,,,,,,,,,,,,,,,,,,
4468,1650413544.2410939,1650413544.270917,88.0,0.0,4268.717772999999,4597.436035,4228.717772999999,4282.05127,4256.410156,450.0,3.0,73.0,,,,0.0,2.0,0.0,4.0,0.0,4.0,16.666666,,,,,,,,44.0,0.0,0.287481,-0.429688,0.49755900000000003,0.696533,0.8960100000000001,-0.44385399999999997,-0.14257999999999998,-0.044198,-0.055732000000000004,-0.002207,,,,,,,,,,,,,,,,,,,,,,,,,,,,,,,,,,,,,,,,,,,,,,,,,,,,,,,,,,,,,,,,,
4469,1650413544.248909,1650413544.278632,89.0,0.0,4269.230957,4638.974121,4241.538574,4282.05127,4267.179688,450.0,3.0,73.0,,,,0.0,2.0,0.0,4.0,0.0,4.0,16.666666,,,,,,,,,,,,,,,,,,,,1.0,0.0,0.0,,,,,,,,,,,,,,,,,,,,,,,,,,,,,,,,10.0,0.0,64.0,0.823666,1.0,0.0,52.888405000000006,2.928481,2.2925590000000002,2.238611,2.849943,7.622135000000001,9.652325,15.263278,10.184148,12.009974,4.012944999999999,4.804829,1.3123129999999998,1.39767,2.346126,0.067505,0.00387,0.009729,0.007333,0.010206,42.982883,4.240792,4.511669,2.4300740000000003,3.3131480000000004
4470,1650413544.256724,1650413544.286447,90.0,0.0,4248.205078,4693.333496,4209.743652,4282.05127,4246.666504,450.0,3.0,73.0,,,,0.0,2.0,0.0,4.0,0.0,4.0,16.666666,,,,,,,,45.0,0.0,0.287481,-0.429688,0.49755900000000003,0.696533,0.887709,-0.443366,-0.137209,-0.043001,-0.055725,-0.008041,,,,,,,,,,,,,,,,,,,,,,,,,,,,,,,,,,,,,,,,,,,,,,,,,,,,,,,,,,,,,,,,,
4471,1650413544.264538,1650413544.2941618,91.0,0.0,4253.846191,4637.94873,4198.461426,4282.05127,4252.307617,16226.0,3.0,73.0,,,,0.0,2.0,0.0,4.0,0.0,4.0,16.666666,,,,,,,,,,,,,,,,,,,,,,,,,,,,,,,,,,,,,,,,,,,,,,,,,,,,,,,,,,,,,,,,,,,,,,,,,,,,,,,,,,,,
4472,1650413544.272352,1650413544.301976,92.0,0.0,4293.846191,4604.102539,4253.333496,4282.05127,4301.538574,450.0,3.0,73.0,,,,0.0,2.0,0.0,4.0,0.0,4.0,16.666666,,,,,,,,46.0,0.0,0.287904,-0.429688,0.49731400000000003,0.696533,0.89015,-0.43994799999999995,-0.143557,-0.041875,-0.055670000000000004,-0.010556999999999999,,,,,,,,,,,,,,,,,,,,,,,,,,,,,,,,,,,,,,,,,,,,,,,,,,,,,,,,,,,,,,,,,
4473,1650413544.280167,1650413544.309791,93.0,0.0,4299.487305,4677.94873,4268.717772999999,4282.05127,4292.820313,450.0,3.0,73.0,,,,0.0,2.0,0.0,4.0,0.0,4.0,16.666666,,,,,,,,,,,,,,,,,,,,,,,,,,,,,,,,,,,,,,,,,,,,,,,,,,,,,,0.0,0.0,64.0,0.823666,1.0,0.0,,,,,,,,,,,,,,,,,,,,,,,,,
4474,1650413544.287981,1650413544.317506,94.0,0.0,4257.436035,4687.179688,4204.615234000001,4282.05127,4229.230957,450.0,3.0,73.0,,,,0.0,2.0,0.0,4.0,0.0,4.0,16.666666,,,,,,,,47.0,0.0,0.287312,-0.429688,0.49731400000000003,0.6967770000000001,0.8964979999999999,-0.44483100000000003,-0.146975,-0.042424,-0.055621000000000004,-0.006426,,,,,,,,,,,,,,,,,,,,,,,,,,,,,,,,,,,,,,,,,,,,,,,,,,,,,,,,,,,,,,,,,
4475,1650413544.2957962,1650413544.3252199,95.0,0.0,4258.974121,4573.846191,4191.282227000001,4282.05127,4237.94873,16226.0,3.0,73.0,,,,0.0,2.0,0.0,4.0,0.0,4.0,16.666666,,,,,,,,,,,,,,,,,,,,,,,,,,,,,,,,,,,,,,,,,,,,,,,,,,,,,,,,,,,,,,,,,,,,,,,,,,,,,,,,,,,,
4476,1650413544.3036098,1650413544.333035,96.0,0.0,4296.922852000001,4564.615234000001,4245.128418,4282.05127,4286.153809,450.0,3.0,73.0,,,,0.0,2.0,0.0,4.0,0.0,4.0,16.666666,,,,,,,,48.0,0.0,0.287734,-0.429688,0.49706999999999996,0.6967770000000001,0.8838030000000001,-0.44971400000000006,-0.140627,-0.041453,-0.055674,-0.009103,,,,,,,,,,,,,,,,,,,,,,,,,,,,,,,,,,,,,,,,,,,,,,,,,,,,,,,,,,,,,,,,,
4477,1650413544.311425,1650413544.34075,97.0,0.0,4282.05127,4703.077147999999,4247.692383,4282.05127,4270.769043,450.0,3.0,73.0,,,,0.0,2.0,0.0,4.0,0.0,4.0,16.666666,,,,,,,,,,,,,,,,,,,,,,,,,,,,,,,,,,,,,,,,,,,,,,,,,,,,,,0.0,0.0,64.0,0.823666,1.0,0.0,,,,,,,,,,,,,,,,,,,,,,,,,
4478,1650413544.31924,1650413544.3485641,98.0,0.0,4258.974121,4697.94873,4209.743652,4282.05127,4248.717772999999,450.0,3.0,73.0,,,,0.0,2.0,0.0,4.0,0.0,4.0,16.666666,,,,,,,,49.0,0.0,0.287904,-0.429688,0.49731400000000003,0.696533,0.89015,-0.43994799999999995,-0.143557,-0.040481,-0.055624,-0.011512999999999999,,,,,,,,,,,,,,,,,,,,,,,,,,,,,,,,,,,,,,,,,,,,,,,,,,,,,,,,,,,,,,,,,
4479,1650413544.327054,1650413544.356279,99.0,0.0,4291.794922,4551.282227000001,4210.256348,4282.05127,4280.512695,16226.0,3.0,73.0,,,,0.0,2.0,0.0,4.0,0.0,4.0,16.666666,,,,,,,,,,,,,,,,,,,,,,,,,,,,,,,,,,,,,,,,,,,,,,,,,,,,,,,,,,,,,,,,,,,,,,,,,,,,,,,,,,,,
4480,1650413544.334869,1650413544.364094,100.0,0.0,4322.05127,4545.128418,4242.563965,4282.05127,4308.717772999999,450.0,3.0,73.0,,,,0.0,2.0,0.0,4.0,0.0,4.0,16.666666,,,,,,,,50.0,0.0,0.287507,-0.429443,0.49706999999999996,0.697021,0.89015,-0.442878,-0.147951,-0.041121,-0.055628,-0.007383,,,,,,,,,,,,,,,,,,,,,,,,,,,,,,,,,,,,,,,,,,,,,,,,,,,,,,,,,,,,,,,,,
4481,1650413544.342683,1650413544.371809,101.0,0.0,4297.94873,4624.102539,4254.871582,4282.05127,4287.692383,450.0,3.0,73.0,,,,0.0,2.0,0.0,4.0,0.0,4.0,16.666666,,,,,,,,,,,,,,,,,,,,,,,,,,,,,,,,,,,,,,,,,,,,,,,,,,,,,,0.0,0.0,64.0,0.823666,1.0,0.0,,,,,,,,,,,,,,,,,,,,,,,,,
4482,1650413544.350498,1650413544.379623,102.0,0.0,4255.897461,4625.641113000001,4228.717772999999,4282.05127,4249.230957,450.0,3.0,73.0,,,,0.0,2.0,0.0,4.0,0.0,4.0,16.666666,,,,,,,,51.0,0.0,0.287565,-0.429688,0.49682600000000005,0.697021,0.8955209999999999,-0.45264399999999994,-0.150393,-0.041794,-0.05563200000000001,-0.009819,,,,,,,,,,,,,,,,,,,,,,,,,,,,,,,,,,,,,,,,,,,,,,,,,,,,,,,,,,,,,,,,,
4483,1650413544.358312,1650413544.3873382,103.0,0.0,4261.025879,4582.05127,4219.487305,4282.05127,4261.025879,16226.0,3.0,73.0,,,,0.0,2.0,0.0,4.0,0.0,4.0,16.666666,,,,,,,,,,,,,,,,,,,,,,,,,,,,,,,,,,,,,,,,,,,,,,,,,,,,,,,,,,,,,,,,,,,,,,,,,,,,,,,,,,,,
4484,1650413544.366127,1650413544.395153,104.0,0.0,4287.179688,4551.794922,4241.025879,4282.05127,4292.820313,450.0,3.0,73.0,,,,0.0,2.0,0.0,4.0,0.0,4.0,16.666666,,,,,,,,52.0,0.0,0.287565,-0.429688,0.49682600000000005,0.697021,0.906752,-0.458503,-0.15332300000000001,-0.040886,-0.055684000000000004,-0.012157,,,,,,,,,,,,,,,,,,,,,,,,,,,,,,,,,,,,,,,,,,,,,,,,,,,,,,,,,,,,,,,,,
4485,1650413544.373941,1650413544.402867,105.0,0.0,4275.897461,4572.820313,4237.436035,4282.05127,4280.0,450.0,3.0,73.0,,,,0.0,2.0,0.0,4.0,0.0,4.0,16.666666,,,,,,,,,,,,,,,,,,,,1.0,0.0,0.0,,,,,,,,,,,,,,,,,,,,,,,,,,,,,,,,0.0,0.0,64.0,0.5776359999999999,1.0,0.0,38.77404,3.3486260000000003,2.231386,2.0924650000000002,2.599703,6.693173,8.325797999999999,15.613631,9.952852,10.933574,2.7953069999999998,5.387561,1.56426,1.480969,2.408442,0.050806,0.003361,0.007272,0.0053170000000000005,0.007408,32.755375,3.93319,4.814424,2.259292,3.350907
4486,1650413544.381756,1650413544.410682,106.0,0.0,4260.0,4649.230957,4224.615234000001,4282.05127,4267.179688,450.0,3.0,73.0,,,,0.0,2.0,0.0,4.0,0.0,4.0,16.666666,,,,,,,,53.0,0.0,0.287565,-0.429688,0.49682600000000005,0.697021,0.894545,-0.45069,-0.148928,-0.041582999999999995,-0.055730999999999996,-0.014262,,,,,,,,,,,,,,,,,,,,,,,,,,,,,,,,,,,,,,,,,,,,,,,,,,,,,,,,,,,,,,,,,
4487,1650413544.38957,1650413544.4183972,107.0,0.0,4278.974121,4674.358886999999,4231.282227000001,4282.05127,4280.0,16226.0,3.0,73.0,,,,0.0,2.0,0.0,4.0,0.0,4.0,16.666666,,,,,,,,,,,,,,,,,,,,,,,,,,,,,,,,,,,,,,,,,,,,,,,,,,,,,,,,,,,,,,,,,,,,,,,,,,,,,,,,,,,,
4488,1650413544.397385,1650413544.4262109,108.0,0.0,4285.128418,4604.102539,4222.05127,4282.05127,4294.358886999999,450.0,3.0,73.0,,,,0.0,2.0,0.0,4.0,0.0,4.0,16.666666,,,,,,,,54.0,0.0,0.2872,-0.429932,0.49682600000000005,0.697021,0.87892,-0.46338599999999996,-0.148928,-0.042161000000000004,-0.055724,-0.012641,,,,,,,,,,,,,,,,,,,,,,,,,,,,,,,,,,,,,,,,,,,,,,,,,,,,,,,,,,,,,,,,,
4489,1650413544.405199,1650413544.4339259,109.0,0.0,4272.307617,4557.436035,4209.743652,4282.05127,4306.153809,450.0,3.0,73.0,,,,0.0,2.0,0.0,4.0,0.0,4.0,16.666666,,,,,,,,,,,,,,,,,,,,,,,,,,,,,,,,,,,,,,,,,,,,,,,,,,,,,,0.0,0.0,64.0,0.5776359999999999,1.0,0.0,,,,,,,,,,,,,,,,,,,,,,,,,
4490,1650413544.4130142,1650413544.441741,110.0,0.0,4270.256348,4615.384765999999,4224.615234000001,4282.05127,4304.102539,450.0,3.0,73.0,,,,0.0,2.0,0.0,4.0,0.0,4.0,16.666666,,,,,,,,55.0,0.0,0.2872,-0.429932,0.49682600000000005,0.697021,0.885756,-0.457038,-0.146975,-0.042631999999999996,-0.055719000000000005,-0.014648,,,,,,,,,,,,,,,,,,,,,,,,,,,,,,,,,,,,,,,,,,,,,,,,,,,,,,,,,,,,,,,,,
4491,1650413544.4208279,1650413544.449456,111.0,0.0,4260.0,4673.333496,4234.358886999999,4282.05127,4280.512695,16226.0,3.0,73.0,,,,0.0,2.0,0.0,4.0,0.0,4.0,16.666666,,,,,,,,,,,,,,,,,,,,,,,,,,,,,,,,,,,,,,,,,,,,,,,,,,,,,,,,,,,,,,,,,,,,,,,,,,,,,,,,,,,,
4492,1650413544.428643,1650413544.45727,112.0,0.0,4256.922852000001,4625.641113000001,4229.743652,4282.05127,4277.436035,450.0,3.0,73.0,,,,0.0,2.0,0.0,4.0,0.0,4.0,16.666666,,,,,,,,56.0,0.0,0.287142,-0.429688,0.49706999999999996,0.697021,0.8916149999999999,-0.45020200000000005,-0.150393,-0.043106,-0.055713,-0.010107,,,,,,,,,,,,,,,,,,,,,,,,,,,,,,,,,,,,,,,,,,,,,,,,,,,,,,,,,,,,,,,,,
4493,1650413544.436457,1650413544.464985,113.0,0.0,4284.102539,4585.128418,4223.077147999999,4282.05127,4292.820313,450.0,3.0,73.0,,,,0.0,2.0,0.0,4.0,0.0,4.0,16.666666,,,,,,,,,,,,,,,,,,,,,,,,,,,,,,,,,,,,,,,,,,,,,,,,,,,,,,0.0,0.0,64.0,0.5776359999999999,1.0,0.0,,,,,,,,,,,,,,,,,,,,,,,,,
4494,1650413544.444272,1650413544.4728,114.0,0.0,4290.256348,4616.922852000001,4204.615234000001,4282.05127,4280.512695,450.0,3.0,73.0,,,,0.0,2.0,0.0,4.0,0.0,4.0,16.666666,,,,,,,,57.0,0.0,0.287734,-0.429688,0.49706999999999996,0.6967770000000001,0.887709,-0.44238999999999995,-0.147463,-0.043629,-0.05575700000000001,-0.012319,,,,,,,,,,,,,,,,,,,,,,,,,,,,,,,,,,,,,,,,,,,,,,,,,,,,,,,,,,,,,,,,,
4495,1650413544.452086,1650413544.480614,115.0,0.0,4260.512695,4632.820313,4205.128418,4282.05127,4266.666504,16226.0,3.0,73.0,,,,0.0,2.0,0.0,4.0,0.0,4.0,16.666666,,,,,,,,,,,,,,,,,,,,,,,,,,,,,,,,,,,,,,,,,,,,,,,,,,,,,,,,,,,,,,,,,,,,,,,,,,,,,,,,,,,,
4496,1650413544.459901,1650413544.488329,116.0,0.0,4265.128418,4625.128418,4244.102539,4282.05127,4283.077147999999,450.0,3.0,73.0,,,,0.0,2.0,0.0,4.0,0.0,4.0,16.666666,,,,,,,,58.0,0.0,0.287734,-0.429688,0.49706999999999996,0.6967770000000001,0.892592,-0.45801499999999995,-0.13281500000000002,-0.044051,-0.055797,-0.011038,,,,,,,,,,,,,,,,,,,,,,,,,,,,,,,,,,,,,,,,,,,,,,,,,,,,,,,,,,,,,,,,,
4497,1650413544.467715,1650413544.496044,117.0,0.0,4294.871582,4620.512695,4264.615234000001,4282.05127,4304.615234000001,450.0,3.0,73.0,,,,0.0,2.0,0.0,4.0,0.0,4.0,16.666666,,,,,,,,,,,,,,,,,,,,,,,,,,,,,,,,,,,,,,,,,,,,,,,,,,,,,,0.0,0.0,64.0,0.5776359999999999,1.0,0.0,,,,,,,,,,,,,,,,,,,,,,,,,
4498,1650413544.4755301,1650413544.503858,118.0,0.0,4284.102539,4604.615234000001,4233.333496,4282.05127,4296.410156,450.0,3.0,73.0,,,,0.0,2.0,0.0,4.0,0.0,4.0,16.666666,,,,,,,,59.0,0.0,0.286947,-0.429932,0.49731400000000003,0.6967770000000001,0.8916149999999999,-0.44385399999999997,-0.139651,-0.042869,-0.055735,-0.013255000000000001,,,,,,,,,,,,,,,,,,,,,,,,,,,,,,,,,,,,,,,,,,,,,,,,,,,,,,,,,,,,,,,,,
4499,1650413544.4833438,1650413544.511573,119.0,0.0,4276.922852000001,4628.717772999999,4220.512695,4282.05127,4293.333496,16226.0,3.0,73.0,,,,0.0,2.0,0.0,4.0,0.0,4.0,16.666666,,,,,,,,,,,,,,,,,,,,,,,,,,,,,,,,,,,,,,,,,,,,,,,,,,,,,,,,,,,,,,,,,,,,,,,,,,,,,,,,,,,,
4500,1650413544.491159,1650413544.5193882,120.0,0.0,4304.102539,4682.563965,4249.230957,4282.05127,4327.692383,450.0,3.0,73.0,,,,0.0,2.0,0.0,4.0,0.0,4.0,16.666666,,,,,,,,60.0,0.0,0.287369,-0.429932,0.49706999999999996,0.6967770000000001,0.898451,-0.44971400000000006,-0.143557,-0.041854,-0.055777,-0.015201,,,,,,,,,,,,,,,,,,,,,,,,,,,,,,,,,,,,,,,,,,,,,,,,,,,,,,,,,,,,,,,,,
4501,1650413544.4989731,1650413544.527103,121.0,0.0,4317.94873,4664.615234000001,4251.794922,4282.05127,4349.230957,450.0,3.0,73.0,,,,0.0,2.0,0.0,4.0,0.0,4.0,16.666666,,,,,,,,,,,,,,,,,,,,1.0,0.0,0.0,,,,,,,,,,,,,,,,,,,,,,,,,,,,,,,,0.0,0.0,64.0,0.5101760000000001,1.0,0.0,26.172989,3.526685,2.056466,2.1047830000000003,2.387419,6.363844,7.382275,16.221726999999998,10.091777,9.61993,2.4361200000000003,5.456388,1.814396,1.541671,2.421002,0.033379,0.002712,0.004636,0.0033159999999999995,0.00458,22.661068,3.723965,4.801218,2.21707,3.386978
4502,1650413544.506788,1650413544.5349169,122.0,0.0,4284.102539,4591.282227000001,4211.282227000001,4282.05127,4308.205078,450.0,3.0,73.0,,,,0.0,2.0,0.0,4.0,0.0,4.0,16.666666,,,,,,,,61.0,0.0,0.286947,-0.429932,0.49731400000000003,0.6967770000000001,0.8955209999999999,-0.443366,-0.150881,-0.042405,-0.055716999999999996,-0.017001,,,,,,,,,,,,,,,,,,,,,,,,,,,,,,,,,,,,,,,,,,,,,,,,,,,,,,,,,,,,,,,,,
4503,1650413544.514603,1650413544.542632,123.0,0.0,4252.307617,4577.94873,4205.641113000001,4282.05127,4280.512695,16226.0,3.0,73.0,,,,0.0,2.0,0.0,4.0,0.0,4.0,16.666666,,,,,,,,,,,,,,,,,,,,,,,,,,,,,,,,,,,,,,,,,,,,,,,,,,,,,,,,,,,,,,,,,,,,,,,,,,,,,,,,,,,,
4504,1650413544.522417,1650413544.550447,124.0,0.0,4267.179688,4652.820313,4245.128418,4282.05127,4315.384765999999,450.0,3.0,73.0,,,,0.0,2.0,0.0,4.0,0.0,4.0,16.666666,,,,,,,,62.0,0.0,0.286947,-0.429932,0.49731400000000003,0.6967770000000001,0.901381,-0.44531899999999996,-0.14111500000000002,-0.043095999999999995,-0.055614,-0.018573,,,,,,,,,,,,,,,,,,,,,,,,,,,,,,,,,,,,,,,,,,,,,,,,,,,,,,,,,,,,,,,,,
4505,1650413544.530231,1650413544.558161,125.0,0.0,4288.205078,4671.794922,4252.820313,4282.05127,4325.128418,450.0,3.0,73.0,,,,0.0,2.0,0.0,4.0,0.0,4.0,16.666666,,,,,,,,,,,,,,,,,,,,,,,,,,,,,,,,,,,,,,,,,,,,,,,,,,,,,,0.0,0.0,64.0,0.5101760000000001,1.0,0.0,,,,,,,,,,,,,,,,,,,,,,,,,
4506,1650413544.5380461,1650413544.565976,126.0,0.0,4278.974121,4594.358886999999,4230.769043,4282.05127,4293.846191,450.0,3.0,73.0,,,,0.0,2.0,0.0,4.0,0.0,4.0,16.666666,,,,,,,,63.0,0.0,0.286947,-0.429932,0.49731400000000003,0.6967770000000001,0.887709,-0.453132,-0.160647,-0.04362,-0.055521,-0.013834,,,,,,,,,,,,,,,,,,,,,,,,,,,,,,,,,,,,,,,,,,,,,,,,,,,,,,,,,,,,,,,,,
4507,1650413544.54586,1650413544.5736911,127.0,0.0,4269.230957,4555.897461,4230.769043,4282.05127,4291.282227000001,238.0,3.0,73.0,,,,0.0,2.0,0.0,4.0,0.0,4.0,16.666666,,,,,,,,,,,,,,,,,,,,,,,,,,,,,,,,,,,,,,,,,,,,,,,,,,,,,,,,,,,,,,,,,,,,,,,,,,,,,,,,,,,,
4508,1650413544.553675,1650413544.581505,0.0,0.0,4272.307617,4610.769043,4251.794922,4282.05127,4300.0,450.0,3.0,73.0,,,,0.0,2.0,0.0,4.0,0.0,4.0,16.666666,,,,,,,,0.0,0.0,0.286947,-0.429932,0.49731400000000003,0.6967770000000001,0.9052870000000001,-0.45069,-0.141604,-0.044092,-0.055584,-0.015771,,,,,,,,,,,,,,,,,,,,,,,,,,,,,,,,,,,,,,,,,,,,,,,,,,,,,,,,,,,,,,,,,
4509,1650413544.561489,1650413544.5892198,1.0,0.0,4283.077147999999,4674.358886999999,4261.025879,4282.05127,4293.333496,450.0,3.0,73.0,,,,0.0,4.0,0.0,4.0,0.0,4.0,33.333332,,,,,,,,,,,,,,,,,,,,,,,,,,,,,,,,,,,,,,,,,,,,,,,,,,,,,,0.0,0.0,64.0,0.5101760000000001,1.0,0.0,,,,,,,,,,,,,,,,,,,,,,,,,
4510,1650413544.569304,1650413544.597035,2.0,0.0,4300.0,4660.512695,4247.179688,4282.05127,4301.025879,16116.0,3.0,73.0,,,,0.0,4.0,0.0,4.0,0.0,4.0,33.333332,,,,,,,,1.0,0.0,0.286947,-0.429932,0.49731400000000003,0.6967770000000001,0.893568,-0.460945,-0.136233,-0.044371,-0.055640999999999996,-0.011118000000000001,,,,,,,,,,,,,,,,,,,,,,,,,,,,,,,,,,,,,,,,,,,,,,,,,,,,,,,,,,,,,,,,,
4511,1650413544.5771189,1650413544.604749,3.0,0.0,4288.717772999999,4658.974121,4235.897461,4282.05127,4297.94873,450.0,3.0,73.0,,,,0.0,4.0,0.0,4.0,0.0,4.0,33.333332,,,,,,,,,,,,,,,,,,,,,,,,,,,,,,,,,,,,,,,,,,,,,,,,,,,,,,,,,,,,,,,,,,,,,,,,,,,,,,,,,,,,
4512,1650413544.584933,1650413544.612564,4.0,0.0,4265.128418,4691.282227000001,4230.256348,4282.05127,4282.563965,0.0,3.0,73.0,,,,0.0,4.0,0.0,4.0,0.0,4.0,33.333332,,,,,,,,2.0,0.0,0.286947,-0.429932,0.49731400000000003,0.6967770000000001,0.903334,-0.442878,-0.133303,-0.044719,-0.055497000000000005,-0.009909000000000001,,,,,,,,,,,,,,,,,,,,,,,,,,,,,,,,,,,,,,,,,,,,,,,,,,,,,,,,,,,,,,,,,
4513,1650413544.5927482,1650413544.6202788,5.0,0.0,4293.846191,4643.077147999999,4232.307617,4282.05127,4304.615234000001,450.0,3.0,73.0,,,,0.0,4.0,0.0,4.0,0.0,4.0,33.333332,,,,,,,,,,,,,,,,,,,,,,,,,,,,,,,,,,,,,,,,,,,,,,,,,,,,,,0.0,0.0,64.0,0.5101760000000001,1.0,0.0,,,,,,,,,,,,,,,,,,,,,,,,,
4514,1650413544.6005619,1650413544.628094,6.0,0.0,4315.384765999999,4584.102539,4245.641113000001,4282.05127,4318.974121,16105.0,3.0,73.0,,,,0.0,4.0,0.0,4.0,0.0,4.0,33.333332,,,,,,,,3.0,0.0,0.286947,-0.429932,0.49731400000000003,0.6967770000000001,0.9052870000000001,-0.45069,-0.141604,-0.045032,-0.055709,-0.008869,,,,,,,,,,,,,,,,,,,,,,,,,,,,,,,,,,,,,,,,,,,,,,,,,,,,,,,,,,,,,,,,,
4515,1650413544.608377,1650413544.635808,7.0,0.0,4277.94873,4633.846191,4240.512695,4282.05127,4276.410156,450.0,3.0,73.0,,,,0.0,4.0,0.0,4.0,0.0,4.0,33.333332,,,,,,,,,,,,,,,,,,,,,,,,,,,,,,,,,,,,,,,,,,,,,,,,,,,,,,,,,,,,,,,,,,,,,,,,,,,,,,,,,,,,
4516,1650413544.616191,1650413544.643523,8.0,0.0,4272.820313,4671.282227000001,4222.563965,4282.05127,4271.282227000001,450.0,3.0,73.0,,,,0.0,4.0,0.0,4.0,0.0,4.0,33.333332,,,,,,,,4.0,0.0,0.286947,-0.429932,0.49731400000000003,0.6967770000000001,0.903334,-0.442878,-0.133303,-0.045314,-0.055558,-0.007884,,,,,,,,,,,,,,,,,,,,,,,,,,,,,,,,,,,,,,,,,,,,,,,,,,,,,,,,,,,,,,,,,
4517,1650413544.624006,1650413544.651338,9.0,0.0,4310.256348,4625.128418,4238.461426,4282.05127,4323.077147999999,0.0,3.0,73.0,,,,0.0,4.0,0.0,4.0,0.0,4.0,33.333332,0.972656,16.666666,2.0,0.0,2.0,0.0,3.0,,,,,,,,,,,,,1.0,0.0,0.0,,,,,,,,,,,,,,,,,,,,,,,,,,,,,,,,0.0,0.0,64.0,0.510567,1.0,0.0,16.56999,3.267522,1.814617,2.257017,2.2454560000000003,6.528389,7.390166000000001,17.053238,10.583656,8.641157000000002,2.771548,5.022051,2.005674,1.594989,2.377785,0.017537999999999998,0.0018559999999999998,0.002412,0.0017079999999999999,0.002337,14.19689,3.4625019999999997,4.5085489999999995,2.355325,3.4068110000000003
4518,1650413544.63182,1650413544.659152,10.0,0.0,4303.589844,4629.230957,4258.461426,4282.05127,4313.846191,450.0,3.0,73.0,,,,0.0,4.0,0.0,4.0,0.0,4.0,33.333332,,,,,,,,5.0,0.0,0.286947,-0.429932,0.49731400000000003,0.6967770000000001,0.91017,-0.44238999999999995,-0.129397,-0.045519,-0.055471000000000006,-0.010416,,,,,,,,,,,,,,,,,,,,,,,,,,,,,,,,,,,,,,,,,,,,,,,,,,,,,,,,,,,,,,,,,
4519,1650413544.6396348,1650413544.666867,11.0,0.0,4286.153809,4669.230957,4234.871582,4282.05127,4279.487305,16164.0,3.0,73.0,,,,0.0,4.0,0.0,4.0,0.0,4.0,33.333332,,,,,,,,,,,,,,,,,,,,,,,,,,,,,,,,,,,,,,,,,,,,,,,,,,,,,,,,,,,,,,,,,,,,,,,,,,,,,,,,,,,,
4520,1650413544.647449,1650413544.674582,12.0,0.0,4301.538574,4630.256348,4225.128418,4282.05127,4308.205078,450.0,3.0,73.0,,,,0.0,4.0,0.0,4.0,0.0,4.0,33.333332,,,,,,,,6.0,0.0,0.286157,-0.430176,0.49755900000000003,0.6967770000000001,0.887709,-0.458991,-0.142092,-0.045752999999999995,-0.05554,-0.012646,,,,,,,,,,,,,,,,,,,,,,,,,,,,,,,,,,,,,,,,,,,,,,,,,,,,,,,,,,,,,,,,,
4521,1650413544.6552641,1650413544.6823962,13.0,0.0,4305.128418,4605.641113000001,4254.358886999999,4282.05127,4323.589844,450.0,3.0,73.0,,,,0.0,4.0,0.0,4.0,0.0,4.0,33.333332,,,,,,,,,,,,,,,,,,,,,,,,,,,,,,,,,,,,,,,,,,,,,,,,,,,,,,0.0,0.0,64.0,0.510567,1.0,0.0,,,,,,,,,,,,,,,,,,,,,,,,,
4522,1650413544.6630778,1650413544.690111,14.0,0.0,4298.461426,4668.717772999999,4255.384765999999,4282.05127,4292.820313,450.0,3.0,73.0,,,,0.0,4.0,0.0,4.0,0.0,4.0,33.333332,,,,,,,,7.0,0.0,0.286581,-0.430176,0.49731400000000003,0.6967770000000001,0.879408,-0.449226,-0.143069,-0.045962,-0.055406,-0.011284,,,,,,,,,,,,,,,,,,,,,,,,,,,,,,,,,,,,,,,,,,,,,,,,,,,,,,,,,,,,,,,,,
4523,1650413544.670893,1650413544.697926,15.0,0.0,4299.487305,4678.974121,4225.128418,4282.05127,4289.743652,16164.0,3.0,73.0,,,,0.0,4.0,0.0,4.0,0.0,4.0,33.333332,,,,,,,,,,,,,,,,,,,,,,,,,,,,,,,,,,,,,,,,,,,,,,,,,,,,,,,,,,,,,,,,,,,,,,,,,,,,,,,,,,,,
4524,1650413544.6787071,1650413544.705641,16.0,0.0,4292.820313,4628.205078,4220.0,4282.05127,4306.666504,0.0,3.0,73.0,,,,0.0,4.0,0.0,4.0,0.0,4.0,33.333332,,,,,,,,8.0,0.0,0.286581,-0.430176,0.49731400000000003,0.6967770000000001,0.893568,-0.455085,-0.151369,-0.046054000000000005,-0.055334,-0.013427000000000001,,,,,,,,,,,,,,,,,,,,,,,,,,,,,,,,,,,,,,,,,,,,,,,,,,,,,,,,,,,,,,,,,
4525,1650413544.686522,1650413544.713455,17.0,0.0,4304.102539,4609.743652,4248.717772999999,4282.05127,4308.717772999999,0.0,3.0,73.0,,,,0.0,4.0,0.0,4.0,0.0,4.0,33.333332,,,,,,,,,,,,,,,,,,,,,,,,,,,,,,,,,,,,,,,,,,,,,,,,,,,,,,0.0,0.0,64.0,0.510567,1.0,0.0,,,,,,,,,,,,,,,,,,,,,,,,,
4526,1650413544.694336,1650413544.72117,18.0,0.0,4344.615234000001,4615.384765999999,4268.717772999999,4282.05127,4330.769043,0.0,3.0,73.0,,,,0.0,4.0,0.0,4.0,0.0,4.0,33.333332,,,,,,,,9.0,0.0,0.287004,-0.430176,0.49706999999999996,0.6967770000000001,0.9121229999999999,-0.45557299999999995,-0.15332300000000001,-0.046136,-0.055465,-0.009106,,,,,,,,,,,,,,,,,,,,,,,,,,,,,,,,,,,,,,,,,,,,,,,,,,,,,,,,,,,,,,,,,
4527,1650413544.702151,1650413544.728985,19.0,0.0,4342.563965,4635.897461,4255.897461,4282.05127,4335.897461,0.0,3.0,73.0,,,,0.0,4.0,0.0,4.0,0.0,4.0,33.333332,,,,,,,,,,,,,,,,,,,,,,,,,,,,,,,,,,,,,,,,,,,,,,,,,,,,,,,,,,,,,,,,,,,,,,,,,,,,,,,,,,,,
