,Timestamp,EEG.Counter,EEG.Interpolated,EEG.AF3,EEG.T7,EEG.Pz,EEG.T8,EEG.AF4,EEG.RawCq,EEG.Battery,EEG.BatteryPercent,MarkerIndex,MarkerType,MarkerValueInt,EEG.MarkerHardware,CQ.AF3,CQ.T7,CQ.Pz,CQ.T8,CQ.AF4,CQ.Overall,EQ.SampleRateQuality,EQ.OVERALL,EQ.AF3,EQ.T7,EQ.Pz,EQ.T8,EQ.AF4,MOT.CounterMems,MOT.InterpolatedMems,MOT.Q0,MOT.Q1,MOT.Q2,MOT.Q3,MOT.AccX,MOT.AccY,MOT.AccZ,MOT.MagX,MOT.MagY,MOT.MagZ,MC.Action,MC.ActionPower,MC.IsActive,PM.Engagement.IsActive,PM.Engagement.Scaled,PM.Engagement.Raw,PM.Engagement.Min,PM.Engagement.Max,PM.Excitement.IsActive,PM.Excitement.Scaled,PM.Excitement.Raw,PM.Excitement.Min,PM.Excitement.Max,PM.LongTermExcitement,PM.Stress.IsActive,PM.Stress.Scaled,PM.Stress.Raw,PM.Stress.Min,PM.Stress.Max,PM.Relaxation.IsActive,PM.Relaxation.Scaled,PM.Relaxation.Raw,PM.Relaxation.Min,PM.Relaxation.Max,PM.Interest.IsActive,PM.Interest.Scaled,PM.Interest.Raw,PM.Interest.Min,PM.Interest.Max,PM.Focus.IsActive,PM.Focus.Scaled,PM.Focus.Raw,PM.Focus.Min,PM.Focus.Max,FE.BlinkWink,FE.HorizontalEyesDirection,FE.UpperFaceAction,FE.UpperFaceActionPower,FE.LowerFaceAction,FE.LowerFaceActionPower,POW.AF3.Theta,POW.AF3.Alpha,POW.AF3.BetaL,POW.AF3.BetaH,POW.AF3.Gamma,POW.T7.Theta,POW.T7.Alpha,POW.T7.BetaL,POW.T7.BetaH,POW.T7.Gamma,POW.Pz.Theta,POW.Pz.Alpha,POW.Pz.BetaL,POW.Pz.BetaH,POW.Pz.Gamma,POW.T8.Theta,POW.T8.Alpha,POW.T8.BetaL,POW.T8.BetaH,POW.T8.Gamma,POW.AF4.Theta,POW.AF4.Alpha,POW.AF4.BetaL,POW.AF4.BetaH,POW.AF4.Gamma
28151,1645491937.4639099,32.0,0.0,4300.512695,4651.282227000001,4288.205078,4052.820557,4380.0,0.0,4.0,86.0,8.0,1.0,2.0,0.0,4.0,0.0,2.0,4.0,4.0,50.0,,,,,,,,16.0,0.0,0.577861,-0.16528299999999999,0.6469729999999999,0.469238,0.905776,-0.427253,-0.113771,-0.033785,-0.038593999999999996,-0.031906,,,,,,,,,,,,,,,,,,,,,,,,,,,,,,,,,,,,,,,,,,,,,,,,,,,,,,,,,,,,,,,,,
28152,1645491937.471726,33.0,0.0,4354.358886999999,4635.897461,4307.179688,4068.718018,4448.717772999999,0.0,4.0,86.0,,,,0.0,4.0,0.0,2.0,4.0,4.0,50.0,,,,,,,,,,,,,,,,,,,,,,,,,,,,,,,,,,,,,,,,,,,,,,,,,,,,,,,,,,,,,,,,,,,,,,,,,,,,,,,,,,,,
28153,1645491937.479542,34.0,0.0,4315.897461,4621.538574,4258.974121,4050.256348,4425.641113000001,0.0,4.0,86.0,,,,0.0,4.0,0.0,2.0,4.0,4.0,50.0,,,,,,,,17.0,0.0,0.577861,-0.16528299999999999,0.6469729999999999,0.469238,0.9121229999999999,-0.41358100000000003,-0.113283,-0.033824,-0.038641,-0.033745,,,,,,,,,,,,,,,,,,,,,,,,,,,,,,,,,,,,,,,,,,,,,,,,,,,,,,,,,,,,,,,,,
28154,1645491937.487358,35.0,0.0,4155.897461,4577.436035,4175.897461,3933.8461909999996,4269.743652,0.0,4.0,86.0,,,,0.0,4.0,0.0,2.0,4.0,4.0,50.0,,,,,,,,,,,,,,,,,,,,1.0,0.0,0.0,,,,,,,,,,,,,,,,,,,,,,,,,,,,,,,,12.0,0.0,1.0,0.0,512.0,1.0,162.94519,97.4338,58.679931999999994,53.78677,21.958183,15.491426,7.831875999999999,10.087694,7.911053999999999,10.469307,52.510273,38.681999,23.667547,25.174225,9.197659,181.031342,92.616333,65.49080699999999,58.12854399999999,20.969303,183.91777,92.70366700000001,68.566574,55.292931,21.582855
28155,1645491937.495174,36.0,0.0,4066.6667479999996,4533.846191,4150.256348,3856.4101560000004,4185.641113000001,0.0,4.0,86.0,,,,0.0,4.0,0.0,2.0,4.0,4.0,50.0,,,,,,,,18.0,0.0,0.578059,-0.16528299999999999,0.6469729999999999,0.46899399999999997,0.9160299999999999,-0.425788,-0.12109600000000001,-0.033762,-0.038633999999999995,-0.029394,,,,,,,,,,,,,,,,,,,,,,,,,,,,,,,,,,,,,,,,,,,,,,,,,,,,,,,,,,,,,,,,,
28156,1645491937.5030901,37.0,0.0,4108.205078,4593.333496,4161.538574,3873.3332520000004,4214.358886999999,0.0,4.0,86.0,,,,0.0,4.0,0.0,2.0,4.0,4.0,50.0,,,,,,,,,,,,,,,,,,,,,,,,,,,,,,,,,,,,,,,,,,,,,,,,,,,,,,,,,,,,,,,,,,,,,,,,,,,,,,,,,,,,
28157,1645491937.510907,38.0,0.0,4168.717772999999,4617.436035,4185.641113000001,3908.205078,4241.025879,0.0,4.0,86.0,,,,0.0,4.0,0.0,2.0,4.0,4.0,50.0,,,,,,,,19.0,0.0,0.5779890000000001,-0.165527,0.6469729999999999,0.46899399999999997,0.921401,-0.41358100000000003,-0.113283,-0.033755,-0.038676999999999996,-0.031582,,,,,,,,,,,,,,,,,,,,,,,,,,,,,,,,,,,,,,,,,,,,,,,,,,,,,,,,,,,,,,,,,
28158,1645491937.518723,39.0,0.0,4154.358886999999,4526.666504,4191.282227000001,3897.4357909999994,4230.769043,0.0,4.0,86.0,,,,0.0,4.0,0.0,2.0,4.0,4.0,50.0,,,,,,,,,,,,,,,,,,,,,,,,,,,,,,,,,,,,,,,,,,,,,,,,,,,,,,0.0,0.0,1.0,0.0,512.0,1.0,,,,,,,,,,,,,,,,,,,,,,,,,
28159,1645491937.526539,40.0,0.0,4104.615234000001,4529.743652,4162.05127,3867.6923829999996,4221.538574,0.0,4.0,86.0,,,,0.0,4.0,0.0,2.0,4.0,4.0,50.0,,,,,,,,20.0,0.0,0.577914,-0.165527,0.647217,0.46875,0.922866,-0.415534,-0.10351700000000001,-0.033798,-0.038667,-0.033502,,,,,,,,,,,,,,,,,,,,,,,,,,,,,,,,,,,,,,,,,,,,,,,,,,,,,,,,,,,,,,,,,
28160,1645491937.5343552,41.0,0.0,4101.025879,4593.333496,4145.641113000001,3870.256348,4215.897461,0.0,4.0,86.0,,,,0.0,4.0,0.0,2.0,4.0,4.0,50.0,,,,,,,,,,,,,,,,,,,,,,,,,,,,,,,,,,,,,,,,,,,,,,,,,,,,,,,,,,,,,,,,,,,,,,,,,,,,,,,,,,,,
28161,1645491937.542171,42.0,0.0,4127.179688,4557.94873,4168.717772999999,3887.6923829999996,4215.897461,0.0,4.0,86.0,,,,0.0,4.0,0.0,2.0,4.0,4.0,50.0,,,,,,,,21.0,0.0,0.5778439999999999,-0.165771,0.647217,0.46875,0.914076,-0.406256,-0.10009900000000001,-0.033787,-0.038609,-0.035425,,,,,,,,,,,,,,,,,,,,,,,,,,,,,,,,,,,,,,,,,,,,,,,,,,,,,,,,,,,,,,,,,
28162,1645491937.5499868,43.0,0.0,4122.05127,4530.256348,4170.769043,3868.205078,4219.487305,0.0,4.0,86.0,,,,0.0,4.0,0.0,2.0,4.0,4.0,50.0,,,,,,,,,,,,,,,,,,,,,,,,,,,,,,,,,,,,,,,,,,,,,,,,,,,,,,0.0,0.0,1.0,0.0,512.0,1.0,,,,,,,,,,,,,,,,,,,,,,,,,
28163,1645491937.557803,44.0,0.0,4116.922852000001,4580.0,4152.820313,3860.0,4224.615234000001,0.0,4.0,86.0,,,,0.0,4.0,0.0,2.0,4.0,4.0,50.0,,,,,,,,22.0,0.0,0.5778439999999999,-0.165771,0.647217,0.46875,0.909682,-0.403326,-0.10254100000000001,-0.033777999999999996,-0.038702999999999994,-0.030758999999999998,,,,,,,,,,,,,,,,,,,,,,,,,,,,,,,,,,,,,,,,,,,,,,,,,,,,,,,,,,,,,,,,,
28164,1645491937.565619,45.0,0.0,4138.974121,4586.666504,4162.05127,3909.2307130000004,4238.461426,0.0,4.0,86.0,,,,0.0,4.0,0.0,2.0,4.0,4.0,50.0,,,,,,,,,,,,,,,,,,,,,,,,,,,,,,,,,,,,,,,,,,,,,,,,,,,,,,,,,,,,,,,,,,,,,,,,,,,,,,,,,,,,
28165,1645491937.573535,46.0,0.0,4116.922852000001,4560.512695,4141.025879,3887.6923829999996,4217.94873,0.0,4.0,86.0,,,,0.0,4.0,0.0,2.0,4.0,4.0,50.0,,,,,,,,23.0,0.0,0.5778439999999999,-0.165771,0.647217,0.46875,0.913588,-0.408698,-0.10254100000000001,-0.033818,-0.038641,-0.032908,,,,,,,,,,,,,,,,,,,,,,,,,,,,,,,,,,,,,,,,,,,,,,,,,,,,,,,,,,,,,,,,,
28166,1645491937.581351,47.0,0.0,4097.436035,4586.666504,4132.307617,3823.5898439999996,4208.717772999999,0.0,4.0,86.0,,,,0.0,4.0,0.0,2.0,4.0,4.0,50.0,,,,,,,,,,,,,,,,,,,,,,,,,,,,,,,,,,,,,,,,,,,,,,,,,,,,,,0.0,0.0,1.0,0.0,512.0,1.0,,,,,,,,,,,,,,,,,,,,,,,,,
28167,1645491937.5891669,48.0,0.0,4209.230957,4633.846191,4231.282227000001,3939.487061,4323.589844,0.0,4.0,86.0,,,,0.0,4.0,0.0,2.0,4.0,4.0,50.0,,,,,,,,24.0,0.0,0.5778439999999999,-0.165771,0.647217,0.46875,0.914076,-0.407721,-0.10351700000000001,-0.033951999999999996,-0.038586,-0.028494,,,,,,,,,,,,,,,,,,,,,,,,,,,,,,,,,,,,,,,,,,,,,,,,,,,,,,,,,,,,,,,,,
28168,1645491937.596983,49.0,0.0,4288.717772999999,4629.743652,4256.410156,4063.5898439999996,4403.589844,0.0,4.0,86.0,,,,0.0,4.0,0.0,2.0,4.0,4.0,50.0,,,,,,,,,,,,,,,,,,,,,,,,,,,,,,,,,,,,,,,,,,,,,,,,,,,,,,,,,,,,,,,,,,,,,,,,,,,,,,,,,,,,
28169,1645491937.604799,50.0,0.0,4184.102539,4564.615234000001,4152.307617,3946.6667479999996,4291.794922,0.0,4.0,86.0,,,,0.0,4.0,0.0,2.0,4.0,4.0,50.0,,,,,,,,25.0,0.0,0.577442,-0.165527,0.647461,0.46899399999999997,0.9004040000000001,-0.413092,-0.100587,-0.034023000000000005,-0.038682,-0.030918,,,,,,,,,,,,,,,,,,,,,,,,,,,,,,,,,,,,,,,,,,,,,,,,,,,,,,,,,,,,,,,,,
28170,1645491937.612615,51.0,0.0,4188.717772999999,4541.538574,4183.077147999999,3898.974365,4287.692383,0.0,4.0,86.0,,,,0.0,4.0,0.0,2.0,4.0,4.0,50.0,1.0,0.0,1.0,0.0,1.0,0.0,0.0,,,,,,,,,,,,,1.0,0.0,0.0,,,,,,,,,,,,,,,,,,,,,,,,,,,,,,,,0.0,0.0,1.0,0.0,512.0,1.0,211.47630299999997,106.319824,65.98410799999999,54.942496999999996,20.421938,11.694408000000001,9.237357000000001,9.448331,7.648046000000001,9.86379,67.602791,39.335285,26.401690000000002,24.883108,9.063748,229.59166000000002,92.267189,74.789772,57.180561,20.57139,235.47718799999998,100.48833499999999,76.197311,56.385135999999996,19.597099
28171,1645491937.620431,52.0,0.0,4332.307617,4583.589844,4269.743652,4044.102539,4429.230957,0.0,4.0,86.0,,,,0.0,4.0,0.0,2.0,4.0,4.0,50.0,,,,,,,,26.0,0.0,0.5776399999999999,-0.165527,0.647461,0.46875,0.9121229999999999,-0.41358100000000003,-0.103029,-0.033893,-0.038721,-0.026751999999999998,,,,,,,,,,,,,,,,,,,,,,,,,,,,,,,,,,,,,,,,,,,,,,,,,,,,,,,,,,,,,,,,,
28172,1645491937.628248,53.0,0.0,4300.0,4585.128418,4200.0,4047.179443,4400.0,0.0,4.0,86.0,,,,0.0,4.0,0.0,2.0,4.0,4.0,50.0,,,,,,,,,,,,,,,,,,,,,,,,,,,,,,,,,,,,,,,,,,,,,,,,,,,,,,,,,,,,,,,,,,,,,,,,,,,,,,,,,,,,
28173,1645491937.636064,54.0,0.0,4190.256348,4555.384765999999,4134.871582,3920.512939,4280.512695,0.0,4.0,86.0,,,,0.0,4.0,0.0,2.0,4.0,4.0,50.0,,,,,,,,27.0,0.0,0.5777100000000001,-0.16528299999999999,0.647461,0.46875,0.906752,-0.42920600000000003,-0.099123,-0.033775,-0.038706,-0.023149,,,,,,,,,,,,,,,,,,,,,,,,,,,,,,,,,,,,,,,,,,,,,,,,,,,,,,,,,,,,,,,,,
28174,1645491937.64398,55.0,0.0,4208.205078,4585.128418,4166.153809,3887.179443,4274.358886999999,0.0,4.0,86.0,,,,0.0,4.0,0.0,2.0,4.0,4.0,50.0,,,,,,,,,,,,,,,,,,,,,,,,,,,,,,,,,,,,,,,,,,,,,,,,,,,,,,0.0,0.0,1.0,0.0,512.0,1.0,,,,,,,,,,,,,,,,,,,,,,,,,
28175,1645491937.651796,56.0,0.0,4259.487305,4621.025879,4183.589844,3928.205078,4342.563965,0.0,4.0,86.0,,,,0.0,4.0,0.0,2.0,4.0,4.0,50.0,,,,,,,,28.0,0.0,0.5777100000000001,-0.16528299999999999,0.647461,0.46875,0.9072399999999999,-0.415045,-0.101076,-0.033913,-0.038693,-0.026108,,,,,,,,,,,,,,,,,,,,,,,,,,,,,,,,,,,,,,,,,,,,,,,,,,,,,,,,,,,,,,,,,
28176,1645491937.659612,57.0,0.0,4343.077147999999,4623.589844,4242.05127,4048.718018,4468.205078,0.0,4.0,86.0,,,,0.0,4.0,0.0,2.0,4.0,4.0,50.0,,,,,,,,,,,,,,,,,,,,,,,,,,,,,,,,,,,,,,,,,,,,,,,,,,,,,,,,,,,,,,,,,,,,,,,,,,,,,,,,,,,,
28177,1645491937.667428,58.0,0.0,4464.615234000001,4615.897461,4323.589844,4194.871582,4586.153809,0.0,4.0,86.0,,,,0.0,4.0,0.0,2.0,4.0,4.0,50.0,,,,,,,,29.0,0.0,0.5777800000000001,-0.16503900000000002,0.647461,0.46875,0.901869,-0.40576799999999996,-0.11718900000000002,-0.033842000000000004,-0.038632,-0.028624,,,,,,,,,,,,,,,,,,,,,,,,,,,,,,,,,,,,,,,,,,,,,,,,,,,,,,,,,,,,,,,,,
28178,1645491937.6752439,59.0,0.0,4455.897461,4608.717772999999,4293.846191,4177.436035,4557.436035,0.0,4.0,86.0,,,,0.0,4.0,0.0,2.0,4.0,4.0,50.0,,,,,,,,,,,,,,,,,,,,,,,,,,,,,,,,,,,,,,,,,,,,,,,,,,,,,,0.0,0.0,1.0,0.0,512.0,1.0,,,,,,,,,,,,,,,,,,,,,,,,,
28179,1645491937.68306,60.0,0.0,4379.487305,4618.461426,4241.025879,4098.974121,4472.820313,0.0,4.0,86.0,,,,0.0,4.0,0.0,2.0,4.0,4.0,50.0,,,,,,,,30.0,0.0,0.5775819999999999,-0.16503900000000002,0.647461,0.46899399999999997,0.926284,-0.417975,-0.101076,-0.033875999999999996,-0.038626,-0.024736,,,,,,,,,,,,,,,,,,,,,,,,,,,,,,,,,,,,,,,,,,,,,,,,,,,,,,,,,,,,,,,,,
28180,1645491937.690876,61.0,0.0,4384.615234000001,4620.0,4258.461426,4113.846191,4468.717772999999,0.0,4.0,86.0,,,,0.0,4.0,0.0,2.0,4.0,4.0,50.0,,,,,,,,,,,,,,,,,,,,,,,,,,,,,,,,,,,,,,,,,,,,,,,,,,,,,,,,,,,,,,,,,,,,,,,,,,,,,,,,,,,,
28181,1645491937.698692,62.0,0.0,4378.461426,4612.820313,4245.128418,4093.3332520000004,4466.666504,0.0,4.0,86.0,,,,0.0,4.0,0.0,2.0,4.0,4.0,50.0,,,,,,,,31.0,0.0,0.577856,-0.16503900000000002,0.647217,0.46899399999999997,0.913588,-0.42676400000000003,-0.11084200000000001,-0.033906,-0.038475,-0.027536,,,,,,,,,,,,,,,,,,,,,,,,,,,,,,,,,,,,,,,,,,,,,,,,,,,,,,,,,,,,,,,,,
28182,1645491937.706508,63.0,0.0,4323.077147999999,4603.077147999999,4178.974121,3988.718018,4402.05127,0.0,4.0,86.0,,,,0.0,4.0,0.0,2.0,4.0,4.0,50.0,,,,,,,,,,,,,,,,,,,,,,,,,,,,,,,,,,,,,,,,,,,,,,,,,,,,,,0.0,0.0,1.0,0.0,512.0,1.0,,,,,,,,,,,,,,,,,,,,,,,,,
28183,1645491937.714324,64.0,0.0,4321.538574,4579.487305,4168.717772999999,3978.974365,4361.538574,450.0,4.0,86.0,,,,0.0,4.0,0.0,2.0,4.0,4.0,50.0,,,,,,,,32.0,0.0,0.577856,-0.16503900000000002,0.647217,0.46899399999999997,0.913588,-0.42090500000000003,-0.118654,-0.033983,-0.038436,-0.029910000000000003,,,,,,,,,,,,,,,,,,,,,,,,,,,,,,,,,,,,,,,,,,,,,,,,,,,,,,,,,,,,,,,,,
28184,1645491937.72224,65.0,0.0,4342.563965,4571.794922,4213.333496,4048.205078,4385.128418,450.0,4.0,86.0,,,,0.0,4.0,0.0,4.0,4.0,4.0,66.666664,,,,,,,,,,,,,,,,,,,,,,,,,,,,,,,,,,,,,,,,,,,,,,,,,,,,,,,,,,,,,,,,,,,,,,,,,,,,,,,,,,,,
28185,1645491937.730056,66.0,0.0,4288.717772999999,4617.94873,4193.846191,4012.3076170000004,4372.820313,16171.0,4.0,86.0,,,,0.0,4.0,0.0,4.0,4.0,4.0,66.666664,,,,,,,,33.0,0.0,0.577925,-0.164795,0.647217,0.46899399999999997,0.918959,-0.423835,-0.10351700000000001,-0.033856,-0.038548,-0.031997000000000005,,,,,,,,,,,,,,,,,,,,,,,,,,,,,,,,,,,,,,,,,,,,,,,,,,,,,,,,,,,,,,,,,
28186,1645491937.7378721,67.0,0.0,4263.077147999999,4654.871582,4150.256348,3942.0512700000004,4338.461426,450.0,4.0,86.0,,,,0.0,4.0,0.0,4.0,4.0,4.0,66.666664,,,,,,,,,,,,,,,,,,,,1.0,0.0,0.0,,,,,,,,,,,,,,,,,,,,,,,,,,,,,,,,0.0,0.0,1.0,0.0,512.0,1.0,291.37207,120.472374,75.360168,52.88319,18.273409,9.555102,10.336407000000001,9.856907000000001,7.281155,9.412673,92.135468,41.079651,29.373995,23.456766000000002,8.817350999999999,306.611633,97.094414,86.681404,53.455399,19.904186,317.286438,113.851395,84.913383,53.944008,17.297634
28187,1645491937.7456882,68.0,0.0,4325.641113000001,4626.153809,4170.256348,3977.9487299999996,4354.358886999999,0.0,4.0,86.0,,,,0.0,4.0,0.0,4.0,4.0,4.0,66.666664,,,,,,,,34.0,0.0,0.577856,-0.16503900000000002,0.647217,0.46899399999999997,0.9052870000000001,-0.41699899999999995,-0.114748,-0.033742,-0.038648,-0.027772,,,,,,,,,,,,,,,,,,,,,,,,,,,,,,,,,,,,,,,,,,,,,,,,,,,,,,,,,,,,,,,,,
28188,1645491937.753505,69.0,0.0,4300.0,4610.769043,4166.666504,3979.487061,4331.794922,450.0,4.0,86.0,,,,0.0,4.0,0.0,4.0,4.0,4.0,66.666664,,,,,,,,,,,,,,,,,,,,,,,,,,,,,,,,,,,,,,,,,,,,,,,,,,,,,,,,,,,,,,,,,,,,,,,,,,,,,,,,,,,,
28189,1645491937.761321,70.0,0.0,4226.153809,4620.0,4143.589844,3917.4357909999994,4289.743652,16057.0,4.0,86.0,,,,0.0,4.0,0.0,4.0,4.0,4.0,66.666664,,,,,,,,35.0,0.0,0.5775819999999999,-0.16503900000000002,0.647461,0.46899399999999997,0.9116350000000001,-0.406744,-0.098146,-0.033638999999999995,-0.038738,-0.030219,,,,,,,,,,,,,,,,,,,,,,,,,,,,,,,,,,,,,,,,,,,,,,,,,,,,,,,,,,,,,,,,,
28190,1645491937.769137,71.0,0.0,4315.384765999999,4618.461426,4201.538574,4004.102539,4375.384765999999,450.0,4.0,86.0,,,,0.0,4.0,0.0,4.0,4.0,4.0,66.666664,,,,,,,,,,,,,,,,,,,,,,,,,,,,,,,,,,,,,,,,,,,,,,,,,,,,,,10.0,0.0,1.0,0.0,512.0,1.0,,,,,,,,,,,,,,,,,,,,,,,,,
28191,1645491937.776953,72.0,0.0,4482.05127,4630.256348,4284.102539,4168.717772999999,4505.641113000001,450.0,4.0,86.0,,,,0.0,4.0,0.0,4.0,4.0,4.0,66.666664,,,,,,,,36.0,0.0,0.5775819999999999,-0.16503900000000002,0.647461,0.46899399999999997,0.9243309999999999,-0.41651000000000005,-0.11230599999999999,-0.033791,-0.038722,-0.032373,,,,,,,,,,,,,,,,,,,,,,,,,,,,,,,,,,,,,,,,,,,,,,,,,,,,,,,,,,,,,,,,,
28192,1645491937.784769,73.0,0.0,4508.717772999999,4649.743652,4277.94873,4175.897461,4526.153809,16212.0,4.0,86.0,,,,0.0,4.0,0.0,4.0,4.0,4.0,66.666664,,,,,,,,,,,,,,,,,,,,,,,,,,,,,,,,,,,,,,,,,,,,,,,,,,,,,,,,,,,,,,,,,,,,,,,,,,,,,,,,,,,,
28193,1645491937.792685,74.0,0.0,4454.358886999999,4634.358886999999,4237.94873,4121.538574,4495.897461,450.0,4.0,86.0,,,,0.0,4.0,0.0,4.0,4.0,4.0,66.666664,,,,,,,,37.0,0.0,0.577856,-0.16503900000000002,0.647217,0.46899399999999997,0.9052870000000001,-0.41699899999999995,-0.114748,-0.033683,-0.038805,-0.028110000000000003,,,,,,,,,,,,,,,,,,,,,,,,,,,,,,,,,,,,,,,,,,,,,,,,,,,,,,,,,,,,,,,,,
28194,1645491937.8005009,75.0,0.0,4485.641113000001,4639.487305,4261.538574,4186.666504,4518.461426,16181.0,4.0,86.0,,,,0.0,4.0,0.0,4.0,4.0,4.0,66.666664,,,,,,,,,,,,,,,,,,,,,,,,,,,,,,,,,,,,,,,,,,,,,,,,,,,,,,10.0,0.0,1.0,0.0,512.0,1.0,,,,,,,,,,,,,,,,,,,,,,,,,
28195,1645491937.808317,76.0,0.0,4474.871582,4673.333496,4257.94873,4185.128418,4494.871582,450.0,4.0,86.0,,,,0.0,4.0,0.0,4.0,4.0,4.0,66.666664,,,,,,,,38.0,0.0,0.577856,-0.16503900000000002,0.647217,0.46899399999999997,0.917983,-0.423835,-0.109865,-0.033684,-0.038782,-0.024176,,,,,,,,,,,,,,,,,,,,,,,,,,,,,,,,,,,,,,,,,,,,,,,,,,,,,,,,,,,,,,,,,
28196,1645491937.816133,77.0,0.0,4331.282227000001,4630.256348,4160.512695,3996.923096,4362.563965,450.0,4.0,86.0,,,,0.0,4.0,0.0,4.0,4.0,4.0,66.666664,,,,,,,,,,,,,,,,,,,,,,,,,,,,,,,,,,,,,,,,,,,,,,,,,,,,,,,,,,,,,,,,,,,,,,,,,,,,,,,,,,,,
28197,1645491937.823949,78.0,0.0,4237.94873,4570.769043,4095.384521,3866.1538090000004,4257.436035,450.0,4.0,86.0,,,,0.0,4.0,0.0,4.0,4.0,4.0,66.666664,,,,,,,,39.0,0.0,0.577984,-0.16528299999999999,0.647217,0.46875,0.9160299999999999,-0.417975,-0.104005,-0.033734,-0.038761000000000004,-0.026983,,,,,,,,,,,,,,,,,,,,,,,,,,,,,,,,,,,,,,,,,,,,,,,,,,,,,,,,,,,,,,,,,
28198,1645491937.831765,79.0,0.0,4248.717772999999,4597.436035,4120.512695,3900.512939,4257.436035,16181.0,4.0,86.0,,,,0.0,4.0,0.0,4.0,4.0,4.0,66.666664,,,,,,,,,,,,,,,,,,,,,,,,,,,,,,,,,,,,,,,,,,,,,,,,,,,,,,10.0,0.0,1.0,0.0,512.0,1.0,,,,,,,,,,,,,,,,,,,,,,,,,
28199,1645491937.839581,80.0,0.0,4282.563965,4620.0,4148.205078,3965.1281740000004,4323.077147999999,450.0,4.0,86.0,,,,0.0,4.0,0.0,4.0,4.0,4.0,66.666664,,,,,,,,40.0,0.0,0.577914,-0.165527,0.647217,0.46875,0.922377,-0.41651000000000005,-0.10888800000000001,-0.03373,-0.038743,-0.02326,,,,,,,,,,,,,,,,,,,,,,,,,,,,,,,,,,,,,,,,,,,,,,,,,,,,,,,,,,,,,,,,,
28200,1645491937.847397,81.0,0.0,4306.153809,4597.436035,4133.333496,3953.3332520000004,4356.410156,450.0,4.0,86.0,,,,0.0,4.0,0.0,4.0,4.0,4.0,66.666664,,,,,,,,,,,,,,,,,,,,,,,,,,,,,,,,,,,,,,,,,,,,,,,,,,,,,,,,,,,,,,,,,,,,,,,,,,,,,,,,,,,,
28201,1645491937.8552132,82.0,0.0,4307.179688,4586.666504,4130.769043,3923.5898439999996,4321.025879,450.0,4.0,86.0,,,,0.0,4.0,0.0,4.0,4.0,4.0,66.666664,,,,,,,,41.0,0.0,0.577838,-0.165527,0.647461,0.46850600000000003,0.9194479999999999,-0.41944,-0.10888800000000001,-0.033726,-0.038676999999999996,-0.026305000000000002,,,,,,,,,,,,,,,,,,,,,,,,,,,,,,,,,,,,,,,,,,,,,,,,,,,,,,,,,,,,,,,,,
28202,1645491937.863129,83.0,0.0,4338.974121,4587.179688,4170.256348,3994.358887,4343.589844,16181.0,4.0,86.0,,,,0.0,4.0,0.0,4.0,4.0,4.0,66.666664,,,,,,,,,,,,,,,,,,,,1.0,0.0,0.0,,,,,,,,,,,,,,,,,,,,,,,,,,,,,,,,0.0,0.0,1.0,0.0,512.0,0.718881,385.194733,130.753601,86.158463,47.54303,16.052691,8.943214999999999,10.83467,11.124315,6.755818,9.076085,120.727493,41.594719,32.399284,20.934036,8.48622,396.009766,100.218002,100.053146,46.818062,19.021458,411.368439,124.157974,93.947121,47.939289,15.17775
28203,1645491937.8709462,84.0,0.0,4443.589844,4604.615234000001,4229.230957,4121.538574,4461.538574,450.0,4.0,86.0,,,,0.0,4.0,0.0,4.0,4.0,4.0,66.666664,,,,,,,,42.0,0.0,0.577838,-0.165527,0.647461,0.46850600000000003,0.93019,-0.412116,-0.093751,-0.033770999999999995,-0.038764,-0.028899,,,,,,,,,,,,,,,,,,,,,,,,,,,,,,,,,,,,,,,,,,,,,,,,,,,,,,,,,,,,,,,,,
28204,1645491937.878762,85.0,0.0,4495.897461,4629.230957,4258.974121,4155.384765999999,4521.025879,450.0,4.0,86.0,,,,0.0,4.0,0.0,4.0,4.0,4.0,66.666664,,,,,,,,,,,,,,,,,,,,,,,,,,,,,,,,,,,,,,,,,,,,,,,,,,,,,,,,,,,,,,,,,,,,,,,,,,,,,,,,,,,,
28205,1645491937.8865778,86.0,0.0,4438.974121,4618.461426,4233.846191,4136.410156,4476.410156,450.0,4.0,86.0,,,,0.0,4.0,0.0,4.0,4.0,4.0,66.666664,,,,,,,,43.0,0.0,0.5777680000000001,-0.165771,0.647461,0.46850600000000003,0.918959,-0.39697899999999997,-0.10498199999999999,-0.033861,-0.038794,-0.031087,,,,,,,,,,,,,,,,,,,,,,,,,,,,,,,,,,,,,,,,,,,,,,,,,,,,,,,,,,,,,,,,,
28206,1645491937.894394,87.0,0.0,4433.846191,4610.769043,4213.333496,4168.717772999999,4463.589844,16181.0,4.0,86.0,,,,0.0,4.0,0.0,4.0,4.0,4.0,66.666664,,,,,,,,,,,,,,,,,,,,,,,,,,,,,,,,,,,,,,,,,,,,,,,,,,,,,,0.0,0.0,1.0,0.0,512.0,0.718881,,,,,,,,,,,,,,,,,,,,,,,,,
28207,1645491937.90221,88.0,0.0,4511.282227000001,4643.077147999999,4238.974121,4201.025879,4514.871582,450.0,4.0,86.0,,,,0.0,4.0,0.0,4.0,4.0,4.0,66.666664,,,,,,,,44.0,0.0,0.5777680000000001,-0.165771,0.647461,0.46850600000000003,0.906752,-0.425299,-0.092775,-0.033844,-0.038723,-0.03335,,,,,,,,,,,,,,,,,,,,,,,,,,,,,,,,,,,,,,,,,,,,,,,,,,,,,,,,,,,,,,,,,
28208,1645491937.910026,89.0,0.0,4544.615234000001,4674.358886999999,4275.384765999999,4209.230957,4555.897461,450.0,4.0,86.0,,,,0.0,4.0,0.0,4.0,4.0,4.0,66.666664,,,,,,,,,,,,,,,,,,,,,,,,,,,,,,,,,,,,,,,,,,,,,,,,,,,,,,,,,,,,,,,,,,,,,,,,,,,,,,,,,,,,
28209,1645491937.917842,90.0,0.0,4527.179688,4666.153809,4262.05127,4197.94873,4562.563965,450.0,4.0,86.0,,,,0.0,4.0,0.0,4.0,4.0,4.0,66.666664,,,,,,,,45.0,0.0,0.5777680000000001,-0.165771,0.647461,0.46850600000000003,0.9072399999999999,-0.422858,-0.107912,-0.033878,-0.038709,-0.035142,,,,,,,,,,,,,,,,,,,,,,,,,,,,,,,,,,,,,,,,,,,,,,,,,,,,,,,,,,,,,,,,,
28210,1645491937.925658,91.0,0.0,4547.692383,4648.717772999999,4241.538574,4181.538574,4558.974121,16181.0,4.0,86.0,,,,0.0,4.0,0.0,4.0,4.0,4.0,66.666664,,,,,,,,,,,,,,,,,,,,,,,,,,,,,,,,,,,,,,,,,,,,,,,,,,,,,,0.0,0.0,1.0,0.0,512.0,0.718881,,,,,,,,,,,,,,,,,,,,,,,,,
28211,1645491937.933474,92.0,0.0,4561.538574,4653.846191,4241.538574,4189.743652,4556.922852000001,450.0,4.0,86.0,,,,0.0,4.0,0.0,4.0,4.0,4.0,66.666664,,,,,,,,46.0,0.0,0.57757,-0.165771,0.647461,0.46875,0.922377,-0.404791,-0.099611,-0.033908,-0.038744,-0.030552999999999997,,,,,,,,,,,,,,,,,,,,,,,,,,,,,,,,,,,,,,,,,,,,,,,,,,,,,,,,,,,,,,,,,
28212,1645491937.94139,93.0,0.0,4525.128418,4680.512695,4238.974121,4203.077147999999,4562.563965,450.0,4.0,86.0,,,,0.0,4.0,0.0,4.0,4.0,4.0,66.666664,,,,,,,,,,,,,,,,,,,,,,,,,,,,,,,,,,,,,,,,,,,,,,,,,,,,,,,,,,,,,,,,,,,,,,,,,,,,,,,,,,,,
28213,1645491937.949306,94.0,0.0,4551.282227000001,4690.256348,4280.512695,4241.025879,4600.512695,450.0,4.0,86.0,,,,0.0,4.0,0.0,4.0,4.0,4.0,66.666664,,,,,,,,47.0,0.0,0.57757,-0.165771,0.647461,0.46875,0.9160299999999999,-0.424811,-0.105959,-0.033886,-0.038727,-0.032723,,,,,,,,,,,,,,,,,,,,,,,,,,,,,,,,,,,,,,,,,,,,,,,,,,,,,,,,,,,,,,,,,
28214,1645491937.957122,95.0,0.0,4612.307617,4666.666504,4315.384765999999,4282.563965,4617.94873,16181.0,4.0,86.0,,,,0.0,4.0,0.0,4.0,4.0,4.0,66.666664,,,,,,,,,,,,,,,,,,,,,,,,,,,,,,,,,,,,,,,,,,,,,,,,,,,,,,0.0,0.0,1.0,0.0,512.0,0.718881,,,,,,,,,,,,,,,,,,,,,,,,,
28215,1645491937.9649382,96.0,0.0,4522.563965,4631.282227000001,4234.871582,4211.282227000001,4514.871582,450.0,4.0,86.0,,,,0.0,4.0,0.0,4.0,4.0,4.0,66.666664,,,,,,,,48.0,0.0,0.57757,-0.165771,0.647461,0.46875,0.903334,-0.41455699999999995,-0.11230599999999999,-0.033818,-0.038761000000000004,-0.028425,,,,,,,,,,,,,,,,,,,,,,,,,,,,,,,,,,,,,,,,,,,,,,,,,,,,,,,,,,,,,,,,,
28216,1645491937.972754,97.0,0.0,4352.820313,4594.871582,4133.333496,4054.8718259999996,4358.461426,450.0,4.0,86.0,,,,0.0,4.0,0.0,4.0,4.0,4.0,66.666664,,,,,,,,,,,,,,,,,,,,,,,,,,,,,,,,,,,,,,,,,,,,,,,,,,,,,,,,,,,,,,,,,,,,,,,,,,,,,,,,,,,,
28217,1645491937.9805698,98.0,0.0,4317.94873,4574.358886999999,4130.256348,3986.1538090000004,4298.974121,450.0,4.0,86.0,,,,0.0,4.0,0.0,4.0,4.0,4.0,66.666664,,,,,,,,49.0,0.0,0.57757,-0.165771,0.647461,0.46875,0.9043110000000001,-0.41406899999999996,-0.090822,-0.033854,-0.038742,-0.030757999999999997,,,,,,,,,,,,,,,,,,,,,,,,,,,,,,,,,,,,,,,,,,,,,,,,,,,,,,,,,,,,,,,,,
28218,1645491937.988386,99.0,0.0,4359.487305,4594.871582,4154.871582,4022.0512700000004,4310.256348,16181.0,4.0,86.0,,,,0.0,4.0,0.0,4.0,4.0,4.0,66.666664,,,,,,,,,,,,,,,,,,,,1.0,0.0,0.0,,,,,,,,,,,,,,,,,,,,,,,,,,,,,,,,0.0,0.0,1.0,0.0,512.0,0.473843,470.183655,131.897598,96.840897,40.49929,14.379272,9.55033,10.796279,12.660793,6.068080999999999,8.815603,146.25148000000002,40.021049,35.266033,17.914621,8.177805000000001,476.3533019999999,98.440895,112.808388,38.932415,18.264855999999998,494.468872,126.521454,102.125641,40.198498,13.749649
28219,1645491937.996202,100.0,0.0,4326.666504,4635.384765999999,4135.384765999999,4014.358887,4279.487305,450.0,4.0,86.0,,,,0.0,4.0,0.0,4.0,4.0,4.0,66.666664,,,,,,,,50.0,0.0,0.57757,-0.165771,0.647461,0.46875,0.905776,-0.40576799999999996,-0.100587,-0.033789,-0.038823,-0.026608,,,,,,,,,,,,,,,,,,,,,,,,,,,,,,,,,,,,,,,,,,,,,,,,,,,,,,,,,,,,,,,,,
28220,1645491938.004018,101.0,0.0,4278.974121,4624.102539,4114.871582,3968.205078,4230.769043,450.0,4.0,86.0,,,,0.0,4.0,0.0,4.0,4.0,4.0,66.666664,,,,,,,,,,,,,,,,,,,,,,,,,,,,,,,,,,,,,,,,,,,,,,,,,,,,,,,,,,,,,,,,,,,,,,,,,,,,,,,,,,,,
28221,1645491938.011834,102.0,0.0,4302.05127,4623.077147999999,4121.025879,3971.794922,4241.538574,450.0,4.0,86.0,,,,0.0,4.0,0.0,4.0,4.0,4.0,66.666664,,,,,,,,51.0,0.0,0.5778439999999999,-0.165771,0.647217,0.46875,0.9028459999999999,-0.427741,-0.09424,-0.033877,-0.038896,-0.029026,,,,,,,,,,,,,,,,,,,,,,,,,,,,,,,,,,,,,,,,,,,,,,,,,,,,,,,,,,,,,,,,,
28222,1645491938.019751,103.0,0.0,4336.410156,4684.615234000001,4131.794922,4008.205078,4289.743652,16181.0,4.0,86.0,,,,0.0,4.0,0.0,4.0,4.0,4.0,66.666664,,,,,,,,,,,,,,,,,,,,,,,,,,,,,,,,,,,,,,,,,,,,,,,,,,,,,,10.0,0.0,1.0,0.0,512.0,0.473843,,,,,,,,,,,,,,,,,,,,,,,,,
28223,1645491938.027567,104.0,0.0,4342.05127,4693.846191,4139.487305,4026.1538090000004,4322.563965,450.0,4.0,86.0,,,,0.0,4.0,0.0,4.0,4.0,4.0,66.666664,,,,,,,,52.0,0.0,0.5778439999999999,-0.165771,0.647217,0.46875,0.903334,-0.420417,-0.091798,-0.033859,-0.038766,-0.03125,,,,,,,,,,,,,,,,,,,,,,,,,,,,,,,,,,,,,,,,,,,,,,,,,,,,,,,,,,,,,,,,,
28224,1645491938.035383,105.0,0.0,4346.666504,4648.717772999999,4142.05127,4022.0512700000004,4311.282227000001,450.0,4.0,86.0,,,,0.0,4.0,0.0,4.0,4.0,4.0,66.666664,,,,,,,,,,,,,,,,,,,,,,,,,,,,,,,,,,,,,,,,,,,,,,,,,,,,,,,,,,,,,,,,,,,,,,,,,,,,,,,,,,,,
28225,1645491938.0432,106.0,0.0,4339.487305,4641.538574,4138.974121,4011.794922,4277.94873,450.0,4.0,86.0,,,,0.0,4.0,0.0,4.0,4.0,4.0,66.666664,,,,,,,,53.0,0.0,0.5778439999999999,-0.165771,0.647217,0.46875,0.906752,-0.409674,-0.109865,-0.033891000000000004,-0.038698,-0.027197000000000002,,,,,,,,,,,,,,,,,,,,,,,,,,,,,,,,,,,,,,,,,,,,,,,,,,,,,,,,,,,,,,,,,
28226,1645491938.051016,107.0,0.0,4330.769043,4670.769043,4130.769043,3997.4357909999994,4297.436035,16181.0,4.0,86.0,,,,0.0,4.0,0.0,4.0,4.0,4.0,66.666664,,,,,,,,,,,,,,,,,,,,,,,,,,,,,,,,,,,,,,,,,,,,,,,,,,,,,,10.0,0.0,1.0,0.0,512.0,0.473843,,,,,,,,,,,,,,,,,,,,,,,,,
28227,1645491938.058832,108.0,0.0,4334.871582,4684.615234000001,4122.563965,3994.358887,4326.153809,450.0,4.0,86.0,,,,0.0,4.0,0.0,4.0,4.0,4.0,66.666664,,,,,,,,54.0,0.0,0.578385,-0.165527,0.6469729999999999,0.46850600000000003,0.9077290000000001,-0.40283800000000003,-0.112795,-0.033871,-0.038686,-0.029605000000000003,,,,,,,,,,,,,,,,,,,,,,,,,,,,,,,,,,,,,,,,,,,,,,,,,,,,,,,,,,,,,,,,,
28228,1645491938.066649,109.0,0.0,4332.820313,4657.436035,4116.922852000001,3998.974365,4298.974121,450.0,4.0,86.0,,,,0.0,4.0,0.0,4.0,4.0,4.0,66.666664,,,,,,,,,,,,,,,,,,,,,,,,,,,,,,,,,,,,,,,,,,,,,,,,,,,,,,,,,,,,,,,,,,,,,,,,,,,,,,,,,,,,
28229,1645491938.074465,110.0,0.0,4316.922852000001,4613.333496,4115.384765999999,3991.794922,4278.461426,450.0,4.0,86.0,,,,0.0,4.0,0.0,4.0,4.0,4.0,66.666664,,,,,,,,55.0,0.0,0.578182,-0.16528299999999999,0.647217,0.46850600000000003,0.9306780000000001,-0.41358100000000003,-0.114748,-0.033804,-0.038626,-0.03182,,,,,,,,,,,,,,,,,,,,,,,,,,,,,,,,,,,,,,,,,,,,,,,,,,,,,,,,,,,,,,,,,
28230,1645491938.082281,111.0,0.0,4311.794922,4622.563965,4111.282227000001,3968.205078,4295.897461,16181.0,4.0,86.0,,,,0.0,4.0,0.0,4.0,4.0,4.0,66.666664,,,,,,,,,,,,,,,,,,,,,,,,,,,,,,,,,,,,,,,,,,,,,,,,,,,,,,0.0,0.0,1.0,0.0,512.0,0.473843,,,,,,,,,,,,,,,,,,,,,,,,,
28231,1645491938.090197,112.0,0.0,4337.436035,4681.025879,4104.615234000001,3971.794922,4296.922852000001,450.0,4.0,86.0,,,,0.0,4.0,0.0,4.0,4.0,4.0,66.666664,,,,,,,,56.0,0.0,0.5778439999999999,-0.165771,0.647217,0.46875,0.906752,-0.409674,-0.109865,-0.033891000000000004,-0.038669999999999996,-0.027563999999999998,,,,,,,,,,,,,,,,,,,,,,,,,,,,,,,,,,,,,,,,,,,,,,,,,,,,,,,,,,,,,,,,,
28232,1645491938.098014,113.0,0.0,4347.692383,4689.743652,4110.256348,3995.384521,4285.128418,450.0,4.0,86.0,,,,0.0,4.0,0.0,4.0,4.0,4.0,66.666664,,,,,,,,,,,,,,,,,,,,,,,,,,,,,,,,,,,,,,,,,,,,,,,,,,,,,,,,,,,,,,,,,,,,,,,,,,,,,,,,,,,,
28233,1645491938.1058302,114.0,0.0,4381.025879,4609.743652,4142.563965,4010.7692869999996,4355.384765999999,450.0,4.0,86.0,,,,0.0,4.0,0.0,4.0,4.0,4.0,66.666664,,,,,,,,57.0,0.0,0.578182,-0.16528299999999999,0.647217,0.46850600000000003,0.9306780000000001,-0.41358100000000003,-0.114748,-0.033822000000000005,-0.038611,-0.029983,,,,,,,,,,,,,,,,,,,,,,,,,,,,,,,,,,,,,,,,,,,,,,,,,,,,,,,,,,,,,,,,,
28234,1645491938.113646,115.0,0.0,4509.230957,4581.538574,4187.179688,4082.5642090000006,4496.410156,16181.0,4.0,86.0,,,,0.0,4.0,0.0,4.0,4.0,4.0,66.666664,1.0,0.0,1.0,0.0,1.0,0.0,0.0,,,,,,,,,,,,,1.0,0.0,0.0,,,,,,,,,,,,,,,,,,,,,,,,,,,,,,,,0.0,0.0,1.0,0.0,512.0,1.0,523.64856,124.78530900000001,105.59832800000001,34.103462,13.746082000000001,10.849094000000001,10.604786,13.793272,5.2959830000000006,8.604034,161.475266,37.534344,37.65963,15.209204000000001,8.053925999999999,525.484863,94.857712,122.339828,32.213879,18.152498,544.383484,121.780449,108.21205900000001,33.313755,13.369801999999998
28235,1645491938.121463,116.0,0.0,4524.615234000001,4680.0,4176.410156,4105.641113000001,4509.230957,450.0,4.0,86.0,,,,0.0,4.0,0.0,4.0,4.0,4.0,66.666664,,,,,,,,58.0,0.0,0.578048,-0.164795,0.647461,0.46850600000000003,0.914565,-0.401862,-0.101564,-0.034004,-0.038558999999999996,-0.032112,,,,,,,,,,,,,,,,,,,,,,,,,,,,,,,,,,,,,,,,,,,,,,,,,,,,,,,,,,,,,,,,,
28236,1645491938.129279,117.0,0.0,4335.384765999999,4701.538574,4093.8461909999996,3986.6667479999996,4408.205078,450.0,4.0,86.0,,,,0.0,4.0,0.0,4.0,4.0,4.0,66.666664,,,,,,,,,,,,,,,,,,,,,,,,,,,,,,,,,,,,,,,,,,,,,,,,,,,,,,,,,,,,,,,,,,,,,,,,,,,,,,,,,,,,
28237,1645491938.137095,118.0,0.0,4290.769043,4627.692383,4058.974365,3944.102539,4474.358886999999,450.0,4.0,86.0,,,,0.0,4.0,0.0,4.0,4.0,4.0,66.666664,,,,,,,,59.0,0.0,0.577306,-0.16381800000000002,0.648193,0.46875,0.9111469999999999,-0.37891199999999997,-0.11816600000000001,-0.033973,-0.038364999999999996,-0.027777999999999997,,,,,,,,,,,,,,,,,,,,,,,,,,,,,,,,,,,,,,,,,,,,,,,,,,,,,,,,,,,,,,,,,
28238,1645491938.144912,119.0,0.0,4515.384765999999,4632.820313,4141.025879,4053.8461909999996,4710.256348,16181.0,4.0,86.0,,,,0.0,4.0,0.0,4.0,4.0,4.0,66.666664,,,,,,,,,,,,,,,,,,,,,,,,,,,,,,,,,,,,,,,,,,,,,,,,,,,,,,0.0,0.0,1.0,0.0,512.0,1.0,,,,,,,,,,,,,,,,,,,,,,,,,
28239,1645491938.1527278,120.0,0.0,4747.692383,4679.487305,4168.205078,4082.5642090000006,4801.025879,450.0,4.0,86.0,,,,0.0,4.0,0.0,4.0,4.0,4.0,66.666664,,,,,,,,60.0,0.0,0.576492,-0.16308599999999998,0.648926,0.46899399999999997,0.933608,-0.385748,-0.10351700000000001,-0.033895999999999996,-0.038337,-0.030225,,,,,,,,,,,,,,,,,,,,,,,,,,,,,,,,,,,,,,,,,,,,,,,,,,,,,,,,,,,,,,,,,
28240,1645491938.160544,121.0,0.0,5209.230957,4671.282227000001,4075.384521,4007.6923829999996,4743.589844,450.0,4.0,86.0,,,,0.0,4.0,0.0,4.0,4.0,4.0,66.666664,,,,,,,,,,,,,,,,,,,,,,,,,,,,,,,,,,,,,,,,,,,,,,,,,,,,,,,,,,,,,,,,,,,,,,,,,,,,,,,,,,,,
28241,1645491938.16846,122.0,0.0,6301.025879,4661.538574,4105.641113000001,4073.8461909999996,4878.461426,450.0,4.0,86.0,,,,0.0,4.0,0.0,4.0,4.0,4.0,66.666664,,,,,,,,61.0,0.0,0.575674,-0.162354,0.649658,0.469238,0.91017,-0.41699899999999995,-0.106447,-0.033875999999999996,-0.03841,-0.032427,,,,,,,,,,,,,,,,,,,,,,,,,,,,,,,,,,,,,,,,,,,,,,,,,,,,,,,,,,,,,,,,,
28242,1645491938.176276,123.0,0.0,7457.436035,4740.0,4280.512695,4277.94873,5256.922852000001,16181.0,4.0,86.0,,,,0.0,4.0,0.0,4.0,4.0,4.0,66.666664,,,,,,,,,,,,,,,,,,,,,,,,,,,,,,,,,,,,,,,,,,,,,,,,,,,,,,0.0,0.0,1.0,0.0,512.0,1.0,,,,,,,,,,,,,,,,,,,,,,,,,
28243,1645491938.184092,124.0,0.0,7907.179687999999,4820.0,4296.922852000001,4412.307617,5517.94873,450.0,4.0,86.0,,,,0.0,4.0,0.0,4.0,4.0,4.0,66.666664,,,,,,,,62.0,0.0,0.575138,-0.161865,0.6499020000000001,0.46972700000000006,0.9209129999999999,-0.404791,-0.102052,-0.033662,-0.03828,-0.03436,,,,,,,,,,,,,,,,,,,,,,,,,,,,,,,,,,,,,,,,,,,,,,,,,,,,,,,,,,,,,,,,,
28244,1645491938.1919081,125.0,0.0,7850.769043000001,4727.692383,4156.410156,4412.820313,5494.358886999999,450.0,4.0,86.0,,,,0.0,4.0,0.0,4.0,4.0,4.0,66.666664,,,,,,,,,,,,,,,,,,,,,,,,,,,,,,,,,,,,,,,,,,,,,,,,,,,,,,,,,,,,,,,,,,,,,,,,,,,,,,,,,,,,
28245,1645491938.199724,126.0,0.0,7832.307617,4604.102539,4137.94873,4416.922852000001,5481.025879,450.0,4.0,86.0,,,,0.0,4.0,0.0,4.0,4.0,4.0,66.666664,,,,,,,,63.0,0.0,0.574731,-0.16162100000000001,0.650146,0.469971,0.903334,-0.45655,-0.10009900000000001,-0.033714,-0.038212,-0.029899000000000002,,,,,,,,,,,,,,,,,,,,,,,,,,,,,,,,,,,,,,,,,,,,,,,,,,,,,,,,,,,,,,,,,
28246,1645491938.207541,127.0,0.0,7856.410156,4608.205078,4211.282227000001,4516.410156,5703.589844,241.0,4.0,86.0,,,,0.0,4.0,0.0,4.0,4.0,4.0,66.666664,,,,,,,,,,,,,,,,,,,,,,,,,,,,,,,,,,,,,,,,,,,,,,,,,,,,,,0.0,0.0,1.0,0.0,512.0,1.0,,,,,,,,,,,,,,,,,,,,,,,,,
28247,1645491938.215357,0.0,0.0,7804.102539,4557.94873,4194.358886999999,4621.538574,5982.05127,450.0,4.0,86.0,,,,0.0,4.0,0.0,4.0,4.0,4.0,66.666664,,,,,,,,0.0,0.0,0.5744,-0.161377,0.650146,0.470459,0.916518,-0.42090500000000003,-0.10888800000000001,-0.033663,-0.038248000000000004,-0.031938,,,,,,,,,,,,,,,,,,,,,,,,,,,,,,,,,,,,,,,,,,,,,,,,,,,,,,,,,,,,,,,,,
28248,1645491938.2231731,1.0,0.0,7768.717773,4464.615234000001,4156.922852000001,4704.615234000001,6123.589844,450.0,4.0,86.0,,,,0.0,4.0,0.0,4.0,4.0,4.0,66.666664,,,,,,,,,,,,,,,,,,,,,,,,,,,,,,,,,,,,,,,,,,,,,,,,,,,,,,,,,,,,,,,,,,,,,,,,,,,,,,,,,,,,
28249,1645491938.230989,2.0,0.0,7768.717773,4402.563965,4148.717772999999,4681.025879,6155.384765999999,16067.0,4.0,86.0,,,,0.0,4.0,0.0,4.0,4.0,4.0,66.666664,,,,,,,,1.0,0.0,0.574476,-0.161377,0.6499020000000001,0.470703,0.89015,-0.45361999999999997,-0.095705,-0.033617,-0.038377999999999995,-0.02767,,,,,,,,,,,,,,,,,,,,,,,,,,,,,,,,,,,,,,,,,,,,,,,,,,,,,,,,,,,,,,,,,
28250,1645491938.2389052,3.0,0.0,7766.666504000001,4255.384765999999,4139.487305,4514.358886999999,6227.692383,450.0,4.0,86.0,,,,0.0,4.0,1.0,4.0,4.0,4.0,75.0,,,,,,,,,,,,,,,,,,,,1.0,0.0,0.0,,,,,,,,,,,,,,,,,,,,,,,,,,,,,,,,0.0,0.0,1.0,0.0,512.0,0.336431,532.444824,113.314346,110.86136599999999,30.069832,14.321648000000001,12.441217,10.683038,13.984014000000002,4.542567,8.405385,162.408829,36.013145,39.036877000000004,13.354651,8.229033,531.340942,95.105774,126.18186200000001,28.311203000000003,19.009455,550.025146,114.7201,110.816689,29.109625,14.081304999999999
28251,1645491938.246721,4.0,0.0,7767.692383,4375.897461,4138.461426,4396.410156,6358.461426,90.0,4.0,86.0,,,,0.0,4.0,1.0,4.0,4.0,4.0,75.0,,,,,,,,2.0,0.0,0.5753659999999999,-0.161865,0.64917,0.470459,0.9126120000000001,-0.44483100000000003,-0.099123,-0.033527,-0.038544,-0.030128,,,,,,,,,,,,,,,,,,,,,,,,,,,,,,,,,,,,,,,,,,,,,,,,,,,,,,,,,,,,,,,,,
28252,1645491938.2545369,5.0,0.0,7767.692383,4991.282227000001,4096.410156,4303.077147999999,6353.846191,450.0,4.0,86.0,,,,0.0,4.0,1.0,4.0,4.0,4.0,75.0,,,,,,,,,,,,,,,,,,,,,,,,,,,,,,,,,,,,,,,,,,,,,,,,,,,,,,,,,,,,,,,,,,,,,,,,,,,,,,,,,,,,
28253,1645491938.262353,6.0,0.0,7771.794922,5546.153809,4058.974365,4183.077147999999,6274.358886999999,16153.0,4.0,86.0,,,,0.0,4.0,1.0,4.0,4.0,4.0,75.0,,,,,,,,3.0,0.0,0.5763149999999999,-0.16284200000000001,0.648438,0.469971,0.9194479999999999,-0.45996800000000004,-0.106447,-0.033592000000000004,-0.038596,-0.032291,,,,,,,,,,,,,,,,,,,,,,,,,,,,,,,,,,,,,,,,,,,,,,,,,,,,,,,,,,,,,,,,,
28254,1645491938.270169,7.0,0.0,7790.769043000001,5863.077147999999,4119.487305,4204.615234000001,6316.410156,450.0,4.0,86.0,,,,0.0,4.0,1.0,4.0,4.0,4.0,75.0,,,,,,,,,,,,,,,,,,,,,,,,,,,,,,,,,,,,,,,,,,,,,,,,,,,,,,0.0,0.0,1.0,0.0,512.0,0.336431,,,,,,,,,,,,,,,,,,,,,,,,,
28255,1645491938.2779849,8.0,0.0,7801.025879000001,6195.897461,4185.128418,4294.358886999999,6313.333496,450.0,4.0,86.0,,,,0.0,4.0,1.0,4.0,4.0,4.0,75.0,,,,,,,,4.0,0.0,0.576849,-0.16333,0.648193,0.46948199999999995,0.8881969999999999,-0.41846300000000003,-0.113771,-0.033504,-0.038544999999999996,-0.034238,,,,,,,,,,,,,,,,,,,,,,,,,,,,,,,,,,,,,,,,,,,,,,,,,,,,,,,,,,,,,,,,,
28256,1645491938.285801,9.0,0.0,7796.922852,6246.153809,4151.282227000001,4262.563965,6113.846191,16319.0,4.0,86.0,,,,0.0,4.0,1.0,4.0,4.0,4.0,75.0,,,,,,,,,,,,,,,,,,,,,,,,,,,,,,,,,,,,,,,,,,,,,,,,,,,,,,,,,,,,,,,,,,,,,,,,,,,,,,,,,,,,
28257,1645491938.293617,10.0,0.0,7828.205078,5946.153809,4113.333496,4342.05127,5878.461426,450.0,4.0,86.0,,,,0.0,4.0,1.0,4.0,4.0,4.0,75.0,,,,,,,,5.0,0.0,0.577322,-0.16333,0.647949,0.469238,0.8803850000000001,-0.37109899999999996,-0.101564,-0.033523000000000004,-0.038499,-0.036039,,,,,,,,,,,,,,,,,,,,,,,,,,,,,,,,,,,,,,,,,,,,,,,,,,,,,,,,,,,,,,,,,
28258,1645491938.301433,11.0,0.0,7778.461426000001,5746.153809,4120.512695,4572.307617,5647.692383,16254.0,4.0,86.0,,,,0.0,4.0,1.0,4.0,4.0,4.0,75.0,,,,,,,,,,,,,,,,,,,,,,,,,,,,,,,,,,,,,,,,,,,,,,,,,,,,,,0.0,0.0,1.0,0.0,512.0,0.336431,,,,,,,,,,,,,,,,,,,,,,,,,
28259,1645491938.30935,12.0,0.0,7472.820312999999,5637.94873,4117.94873,4587.179688,5346.666504,450.0,4.0,86.0,,,,0.0,4.0,1.0,4.0,4.0,4.0,75.0,,,,,,,,6.0,0.0,0.577527,-0.163574,0.647705,0.469238,0.918959,-0.401862,-0.1084,-0.033589,-0.038507,-0.037562,,,,,,,,,,,,,,,,,,,,,,,,,,,,,,,,,,,,,,,,,,,,,,,,,,,,,,,,,,,,,,,,,
28260,1645491938.317166,13.0,0.0,7012.820312999999,5385.641113000001,4124.615234000001,4450.256348,5114.871582,450.0,4.0,86.0,,,,0.0,4.0,1.0,4.0,4.0,4.0,75.0,,,,,,,,,,,,,,,,,,,,,,,,,,,,,,,,,,,,,,,,,,,,,,,,,,,,,,,,,,,,,,,,,,,,,,,,,,,,,,,,,,,,
28261,1645491938.324982,14.0,0.0,6611.282227000001,5196.922852000001,4136.922852000001,4438.974121,4985.128418,450.0,4.0,86.0,,,,0.0,4.0,1.0,4.0,4.0,4.0,75.0,,,,,,,,7.0,0.0,0.5778,-0.163574,0.647461,0.469238,0.9126120000000001,-0.435554,-0.11523599999999999,-0.033500999999999996,-0.038514,-0.032780000000000004,,,,,,,,,,,,,,,,,,,,,,,,,,,,,,,,,,,,,,,,,,,,,,,,,,,,,,,,,,,,,,,,,
28262,1645491938.332799,15.0,0.0,6250.769043,5134.871582,4121.025879,4491.794922,4847.179688,16254.0,4.0,86.0,,,,0.0,4.0,1.0,4.0,4.0,4.0,75.0,,,,,,,,,,,,,,,,,,,,,,,,,,,,,,,,,,,,,,,,,,,,,,,,,,,,,,0.0,0.0,1.0,0.0,512.0,0.336431,,,,,,,,,,,,,,,,,,,,,,,,,
28263,1645491938.340615,16.0,0.0,5902.563965,5063.077147999999,4118.461426,4450.769043,4749.743652,0.0,4.0,86.0,,,,0.0,4.0,1.0,4.0,4.0,4.0,75.0,,,,,,,,8.0,0.0,0.577731,-0.16381800000000002,0.647461,0.469238,0.8960100000000001,-0.42236999999999997,-0.10888800000000001,-0.033472,-0.038422000000000005,-0.034776,,,,,,,,,,,,,,,,,,,,,,,,,,,,,,,,,,,,,,,,,,,,,,,,,,,,,,,,,,,,,,,,,
28264,1645491938.348431,17.0,0.0,5701.025879,5188.205078,4196.410156,4411.794922,4787.692383,0.0,4.0,86.0,,,,0.0,4.0,1.0,4.0,4.0,4.0,75.0,,,,,,,,,,,,,,,,,,,,,,,,,,,,,,,,,,,,,,,,,,,,,,,,,,,,,,,,,,,,,,,,,,,,,,,,,,,,,,,,,,,,
28265,1645491938.3562472,18.0,0.0,5582.05127,5380.0,4285.128418,4480.0,4865.641113000001,0.0,4.0,86.0,,,,0.0,4.0,1.0,4.0,4.0,4.0,75.0,,,,,,,,9.0,0.0,0.577731,-0.16381800000000002,0.647461,0.469238,0.920424,-0.41992799999999997,-0.112795,-0.033639999999999996,-0.038437,-0.036425,,,,,,,,,,,,,,,,,,,,,,,,,,,,,,,,,,,,,,,,,,,,,,,,,,,,,,,,,,,,,,,,,
28266,1645491938.364064,19.0,0.0,5345.641113000001,5242.05127,4227.692383,4493.333496,4765.128418,0.0,4.0,86.0,,,,0.0,4.0,1.0,4.0,4.0,4.0,75.0,,,,,,,,,,,,,,,,,,,,1.0,0.0,0.0,,,,,,,,,,,,,,,,,,,,,,,,,,,,,,,,0.0,0.0,1.0,0.0,512.0,0.266621,561.624634,112.149231,125.11315900000001,30.156509000000003,16.097803,14.537977,13.166201000000001,13.811773,4.021548999999999,8.212848,149.781036,36.351321999999996,39.107876,12.374883,8.722394,495.64306600000003,101.28031899999999,123.661301,27.419058000000003,20.747375,518.4226070000001,109.29435,109.33976000000001,27.757680999999998,15.778272
28267,1645491938.37188,20.0,0.0,5054.358886999999,4994.358886999999,4112.820313,4378.974121,4565.641113000001,0.0,4.0,86.0,,,,0.0,4.0,1.0,4.0,4.0,4.0,75.0,,,,,,,,10.0,0.0,0.578005,-0.16381800000000002,0.647217,0.469238,0.903334,-0.424811,-0.107424,-0.033645,-0.0385,-0.03791,,,,,,,,,,,,,,,,,,,,,,,,,,,,,,,,,,,,,,,,,,,,,,,,,,,,,,,,,,,,,,,,,
28268,1645491938.379796,21.0,0.0,4912.820313,4996.922852000001,4147.692383,4371.282227000001,4562.05127,0.0,4.0,86.0,,,,0.0,4.0,1.0,4.0,4.0,4.0,75.0,,,,,,,,,,,,,,,,,,,,,,,,,,,,,,,,,,,,,,,,,,,,,,,,,,,,,,,,,,,,,,,,,,,,,,,,,,,,,,,,,,,,
28269,1645491938.3876119,22.0,0.0,4889.230957,5085.641113000001,4262.05127,4512.820313,4701.538574,0.0,4.0,86.0,,,,0.0,4.0,1.0,4.0,4.0,4.0,75.0,,,,,,,,11.0,0.0,0.578005,-0.16381800000000002,0.647217,0.469238,0.9072399999999999,-0.41992799999999997,-0.10693499999999999,-0.033552,-0.038508,-0.033142000000000005,,,,,,,,,,,,,,,,,,,,,,,,,,,,,,,,,,,,,,,,,,,,,,,,,,,,,,,,,,,,,,,,,
28270,1645491938.395428,23.0,0.0,4847.692383,5053.333496,4306.153809,4577.436035,4753.333496,0.0,4.0,86.0,,,,0.0,4.0,1.0,4.0,4.0,4.0,75.0,,,,,,,,,,,,,,,,,,,,,,,,,,,,,,,,,,,,,,,,,,,,,,,,,,,,,,0.0,0.0,1.0,0.0,512.0,0.266621,,,,,,,,,,,,,,,,,,,,,,,,,
28271,1645491938.403244,24.0,0.0,4770.769043,4969.230957,4301.025879,4552.820313,4736.922852000001,0.0,4.0,86.0,,,,0.0,4.0,1.0,4.0,4.0,4.0,75.0,,,,,,,,12.0,0.0,0.578005,-0.16381800000000002,0.647217,0.469238,0.910658,-0.425788,-0.10693499999999999,-0.033518,-0.038514,-0.028705,,,,,,,,,,,,,,,,,,,,,,,,,,,,,,,,,,,,,,,,,,,,,,,,,,,,,,,,,,,,,,,,,
28272,1645491938.4110599,25.0,0.0,4667.179688,4923.077147999999,4305.128418,4560.0,4748.717772999999,0.0,4.0,86.0,,,,0.0,4.0,1.0,4.0,4.0,4.0,75.0,,,,,,,,,,,,,,,,,,,,,,,,,,,,,,,,,,,,,,,,,,,,,,,,,,,,,,,,,,,,,,,,,,,,,,,,,,,,,,,,,,,,
28273,1645491938.418876,26.0,0.0,4567.692383,4981.538574,4306.666504,4589.230957,4762.05127,0.0,4.0,86.0,,,,0.0,4.0,1.0,4.0,4.0,4.0,75.0,,,,,,,,13.0,0.0,0.5779350000000001,-0.16406300000000001,0.647217,0.469238,0.9277489999999999,-0.42627600000000004,-0.11133,-0.033486,-0.038569,-0.031010000000000003,,,,,,,,,,,,,,,,,,,,,,,,,,,,,,,,,,,,,,,,,,,,,,,,,,,,,,,,,,,,,,,,,
28274,1645491938.426693,27.0,0.0,4467.692383,5040.512695,4304.102539,4568.717772999999,4720.512695,0.0,4.0,86.0,,,,0.0,4.0,1.0,4.0,4.0,4.0,75.0,,,,,,,,,,,,,,,,,,,,,,,,,,,,,,,,,,,,,,,,,,,,,,,,,,,,,,0.0,0.0,1.0,0.0,512.0,0.266621,,,,,,,,,,,,,,,,,,,,,,,,,
28275,1645491938.434509,28.0,0.0,4343.077147999999,4987.692383,4298.974121,4539.487305,4665.128418,0.0,4.0,86.0,,,,0.0,4.0,1.0,4.0,4.0,4.0,75.0,,,,,,,,14.0,0.0,0.5779350000000001,-0.16406300000000001,0.647217,0.469238,0.9116350000000001,-0.43018199999999995,-0.11523599999999999,-0.033408999999999994,-0.038619,-0.026835,,,,,,,,,,,,,,,,,,,,,,,,,,,,,,,,,,,,,,,,,,,,,,,,,,,,,,,,,,,,,,,,,
28276,1645491938.442325,29.0,0.0,4248.717772999999,4935.384765999999,4287.692383,4551.282227000001,4661.538574,0.0,4.0,86.0,,,,0.0,4.0,1.0,4.0,4.0,4.0,75.0,,,,,,,,,,,,,,,,,,,,,,,,,,,,,,,,,,,,,,,,,,,,,,,,,,,,,,,,,,,,,,,,,,,,,,,,,,,,,,,,,,,,
28277,1645491938.450141,30.0,0.0,4169.743652,4932.307617,4257.94873,4495.897461,4639.487305,0.0,4.0,86.0,,,,0.0,4.0,1.0,4.0,4.0,4.0,75.0,,,,,,,,15.0,0.0,0.577866,-0.16430699999999998,0.647217,0.469238,0.9150530000000001,-0.41992799999999997,-0.10351700000000001,-0.033486,-0.038613999999999996,-0.029376,,,,,,,,,,,,,,,,,,,,,,,,,,,,,,,,,,,,,,,,,,,,,,,,,,,,,,,,,,,,,,,,,
28278,1645491938.458056,31.0,0.0,4075.384521,4873.846191,4237.94873,4393.333496,4572.307617,0.0,4.0,86.0,,,,0.0,4.0,1.0,4.0,4.0,4.0,75.0,,,,,,,,,,,,,,,,,,,,,,,,,,,,,,,,,,,,,,,,,,,,,,,,,,,,,,0.0,0.0,1.0,0.0,512.0,0.266621,,,,,,,,,,,,,,,,,,,,,,,,,
28279,1645491938.465872,32.0,0.0,3993.3332520000004,4801.025879,4234.871582,4389.230957,4534.871582,0.0,4.0,86.0,,,,0.0,4.0,1.0,4.0,4.0,4.0,75.0,,,,,,,,16.0,0.0,0.577866,-0.16430699999999998,0.647217,0.469238,0.913588,-0.424811,-0.100587,-0.033556,-0.038561,-0.025462000000000002,,,,,,,,,,,,,,,,,,,,,,,,,,,,,,,,,,,,,,,,,,,,,,,,,,,,,,,,,,,,,,,,,
28280,1645491938.4736881,33.0,0.0,3873.8461909999996,4813.846191,4194.871582,4365.128418,4471.282227000001,0.0,4.0,86.0,,,,0.0,4.0,1.0,4.0,4.0,4.0,75.0,,,,,,,,,,,,,,,,,,,,,,,,,,,,,,,,,,,,,,,,,,,,,,,,,,,,,,,,,,,,,,,,,,,,,,,,,,,,,,,,,,,,
28281,1645491938.481504,34.0,0.0,3713.3332520000004,4803.077147999999,4137.94873,4231.794922,4362.563965,0.0,4.0,86.0,,,,0.0,4.0,1.0,4.0,4.0,4.0,75.0,,,,,,,,17.0,0.0,0.577866,-0.16430699999999998,0.647217,0.469238,0.9282370000000001,-0.423835,-0.11230599999999999,-0.033618,-0.038612,-0.028043000000000002,,,,,,,,,,,,,,,,,,,,,,,,,,,,,,,,,,,,,,,,,,,,,,,,,,,,,,,,,,,,,,,,,
28282,1645491938.48932,35.0,0.0,3658.974365,4736.410156,4143.077147999999,4195.384765999999,4344.102539,0.0,4.0,86.0,,,,0.0,4.0,1.0,4.0,4.0,4.0,75.0,,,,,,,,,,,,,,,,,,,,1.0,0.0,0.0,,,,,,,,,,,,,,,,,,,,,,,,,,,,,,,,0.0,0.0,32.0,0.5662159999999999,1.0,0.0,827.387756,221.103958,180.80514499999998,40.843937,19.337927,45.672066,43.454651,20.845892000000003,4.850630000000001,8.20509,129.788284,38.671646,38.150028000000006,12.0158,9.548374,440.27950999999996,116.38173700000002,115.95178200000001,28.552738,22.959618,484.19879199999997,112.92923,105.34848000000001,28.444916,18.548359
28283,1645491938.4971359,36.0,0.0,3664.615479,4738.461426,4167.179688,4259.487305,4357.436035,0.0,4.0,86.0,,,,0.0,4.0,1.0,4.0,4.0,4.0,75.0,,,,,,,,18.0,0.0,0.578064,-0.16430699999999998,0.647217,0.46899399999999997,0.909682,-0.41992799999999997,-0.109377,-0.033576999999999996,-0.038607999999999996,-0.030463,,,,,,,,,,,,,,,,,,,,,,,,,,,,,,,,,,,,,,,,,,,,,,,,,,,,,,,,,,,,,,,,,
28284,1645491938.504952,37.0,0.0,3592.820557,4771.794922,4149.743652,4226.153809,4301.538574,0.0,4.0,86.0,,,,0.0,4.0,1.0,4.0,4.0,4.0,75.0,,,,,,,,,,,,,,,,,,,,,,,,,,,,,,,,,,,,,,,,,,,,,,,,,,,,,,,,,,,,,,,,,,,,,,,,,,,,,,,,,,,,
28285,1645491938.512767,38.0,0.0,3546.1538090000004,4775.897461,4150.769043,4190.769043,4312.820313,0.0,4.0,86.0,,,,0.0,4.0,1.0,4.0,4.0,4.0,75.0,,,,,,,,19.0,0.0,0.5782619999999999,-0.16430699999999998,0.647217,0.46875,0.9038219999999999,-0.41455699999999995,-0.103029,-0.033637,-0.038605,-0.026244999999999997,,,,,,,,,,,,,,,,,,,,,,,,,,,,,,,,,,,,,,,,,,,,,,,,,,,,,,,,,,,,,,,,,
28286,1645491938.520583,39.0,0.0,3543.076904,4768.205078,4172.820313,4243.589844,4373.333496,0.0,4.0,86.0,,,,0.0,4.0,1.0,4.0,4.0,4.0,75.0,,,,,,,,,,,,,,,,,,,,,,,,,,,,,,,,,,,,,,,,,,,,,,,,,,,,,,0.0,0.0,32.0,0.5662159999999999,1.0,0.0,,,,,,,,,,,,,,,,,,,,,,,,,
28287,1645491938.5284991,40.0,0.0,3512.820557,4712.820313,4181.025879,4268.717772999999,4365.128418,0.0,4.0,86.0,,,,0.0,4.0,1.0,4.0,4.0,4.0,75.0,,,,,,,,20.0,0.0,0.577866,-0.16430699999999998,0.647217,0.469238,0.9282370000000001,-0.423835,-0.11230599999999999,-0.033691000000000006,-0.03865,-0.02865,,,,,,,,,,,,,,,,,,,,,,,,,,,,,,,,,,,,,,,,,,,,,,,,,,,,,,,,,,,,,,,,,
28288,1645491938.536315,41.0,0.0,3537.4357909999994,4669.230957,4217.436035,4307.179688,4395.384765999999,0.0,4.0,86.0,,,,0.0,4.0,1.0,4.0,4.0,4.0,75.0,,,,,,,,,,,,,,,,,,,,,,,,,,,,,,,,,,,,,,,,,,,,,,,,,,,,,,,,,,,,,,,,,,,,,,,,,,,,,,,,,,,,
28289,1645491938.544131,42.0,0.0,3567.6923829999996,4689.743652,4243.077147999999,4363.589844,4453.333496,0.0,4.0,86.0,,,,0.0,4.0,1.0,4.0,4.0,4.0,75.0,,,,,,,,21.0,0.0,0.5782619999999999,-0.16430699999999998,0.647217,0.46875,0.9038219999999999,-0.41455699999999995,-0.103029,-0.03374,-0.038643000000000004,-0.024613,,,,,,,,,,,,,,,,,,,,,,,,,,,,,,,,,,,,,,,,,,,,,,,,,,,,,,,,,,,,,,,,,
28290,1645491938.551947,43.0,0.0,3471.281982,4666.666504,4193.333496,4302.05127,4378.974121,0.0,4.0,86.0,,,,0.0,4.0,1.0,4.0,4.0,4.0,75.0,,,,,,,,,,,,,,,,,,,,,,,,,,,,,,,,,,,,,,,,,,,,,,,,,,,,,,0.0,0.0,32.0,0.5662159999999999,1.0,0.0,,,,,,,,,,,,,,,,,,,,,,,,,
28291,1645491938.5597632,44.0,0.0,3329.743652,4621.538574,4131.282227000001,4175.897461,4247.692383,0.0,4.0,86.0,,,,0.0,4.0,1.0,4.0,4.0,4.0,75.0,,,,,,,,22.0,0.0,0.5782619999999999,-0.16430699999999998,0.647217,0.46875,0.9126120000000001,-0.42432299999999995,-0.109377,-0.033832999999999995,-0.038587,-0.021029,,,,,,,,,,,,,,,,,,,,,,,,,,,,,,,,,,,,,,,,,,,,,,,,,,,,,,,,,,,,,,,,,
28292,1645491938.56758,45.0,0.0,3283.076904,4645.641113000001,4118.974121,4135.384765999999,4213.846191,0.0,4.0,86.0,,,,0.0,4.0,1.0,4.0,4.0,4.0,75.0,,,,,,,,,,,,,,,,,,,,,,,,,,,,,,,,,,,,,,,,,,,,,,,,,,,,,,,,,,,,,,,,,,,,,,,,,,,,,,,,,,,,
28293,1645491938.575396,46.0,0.0,3272.820557,4681.025879,4114.871582,4142.05127,4210.256348,0.0,4.0,86.0,,,,0.0,4.0,1.0,4.0,4.0,4.0,75.0,,,,,,,,23.0,0.0,0.578391,-0.164551,0.647217,0.46850600000000003,0.9282370000000001,-0.415534,-0.129397,-0.033917,-0.038586,-0.024102000000000002,,,,,,,,,,,,,,,,,,,,,,,,,,,,,,,,,,,,,,,,,,,,,,,,,,,,,,,,,,,,,,,,,
28294,1645491938.583212,47.0,0.0,3236.923096,4678.461426,4112.820313,4120.0,4189.743652,0.0,4.0,86.0,,,,0.0,4.0,1.0,4.0,4.0,4.0,75.0,,,,,,,,,,,,,,,,,,,,,,,,,,,,,,,,,,,,,,,,,,,,,,,,,,,,,,0.0,0.0,32.0,0.5662159999999999,1.0,0.0,,,,,,,,,,,,,,,,,,,,,,,,,
28295,1645491938.591028,48.0,0.0,3221.025635,4673.333496,4128.205078,4111.282227000001,4206.666504,0.0,4.0,86.0,,,,0.0,4.0,1.0,4.0,4.0,4.0,75.0,,,,,,,,24.0,0.0,0.578048,-0.164795,0.647461,0.46850600000000003,0.917494,-0.404303,-0.105959,-0.033894,-0.038438,-0.020666,,,,,,,,,,,,,,,,,,,,,,,,,,,,,,,,,,,,,,,,,,,,,,,,,,,,,,,,,,,,,,,,,
28296,1645491938.598944,49.0,0.0,3236.923096,4668.717772999999,4134.358886999999,4146.153809,4226.666504,0.0,4.0,86.0,,,,0.0,4.0,1.0,4.0,4.0,4.0,75.0,,,,,,,,,,,,,,,,,,,,,,,,,,,,,,,,,,,,,,,,,,,,,,,,,,,,,,,,,,,,,,,,,,,,,,,,,,,,,,,,,,,,
28297,1645491938.60676,50.0,0.0,3238.974365,4658.974121,4130.769043,4183.077147999999,4221.025879,0.0,4.0,86.0,,,,0.0,4.0,1.0,4.0,4.0,4.0,75.0,,,,,,,,25.0,0.0,0.578048,-0.164795,0.647461,0.46850600000000003,0.9267719999999999,-0.412116,-0.113283,-0.033874,-0.038354,-0.023775,,,,,,,,,,,,,,,,,,,,,,,,,,,,,,,,,,,,,,,,,,,,,,,,,,,,,,,,,,,,,,,,,
28298,1645491938.6145759,51.0,0.0,3207.6923829999996,4622.563965,4140.512695,4187.179688,4221.025879,0.0,4.0,86.0,,,,0.0,4.0,1.0,4.0,4.0,4.0,75.0,1.0,0.0,0.0,0.0,1.0,0.0,0.0,,,,,,,,,,,,,1.0,0.0,0.0,,,,,,,,,,,,,,,,,,,,,,,,,,,,,,,,0.0,0.0,32.0,0.658211,1.0,0.0,1620.23877,580.796448,304.761597,70.395622,24.288313,189.552536,162.126633,56.224059999999994,9.400374000000001,8.883104,110.697594,42.057472,36.652912,11.963495,10.726223,402.25054900000003,146.435333,106.090622,30.2766,25.13563,589.187988,126.11502800000001,101.549263,30.162298,22.561132
28299,1645491938.622392,52.0,0.0,3233.333252,4596.410156,4189.743652,4214.358886999999,4271.794922,0.0,4.0,86.0,,,,0.0,4.0,1.0,4.0,4.0,4.0,75.0,,,,,,,,26.0,0.0,0.577704,-0.16503900000000002,0.647705,0.46850600000000003,0.901381,-0.411627,-0.100587,-0.033856,-0.03823,-0.020177,,,,,,,,,,,,,,,,,,,,,,,,,,,,,,,,,,,,,,,,,,,,,,,,,,,,,,,,,,,,,,,,,
28300,1645491938.630208,53.0,0.0,3338.4614260000003,4631.282227000001,4268.205078,4306.666504,4381.025879,0.0,4.0,86.0,,,,0.0,4.0,1.0,4.0,4.0,4.0,75.0,,,,,,,,,,,,,,,,,,,,,,,,,,,,,,,,,,,,,,,,,,,,,,,,,,,,,,,,,,,,,,,,,,,,,,,,,,,,,,,,,,,,
28301,1645491938.638024,54.0,0.0,3407.179443,4690.256348,4299.487305,4369.230957,4460.0,0.0,4.0,86.0,,,,0.0,4.0,1.0,4.0,4.0,4.0,75.0,,,,,,,,27.0,0.0,0.577704,-0.16503900000000002,0.647705,0.46850600000000003,0.909682,-0.416022,-0.112795,-0.03379,-0.038118,-0.023334999999999998,,,,,,,,,,,,,,,,,,,,,,,,,,,,,,,,,,,,,,,,,,,,,,,,,,,,,,,,,,,,,,,,,
28302,1645491938.64584,55.0,0.0,3387.6923829999996,4672.820313,4266.153809,4361.025879,4442.05127,0.0,4.0,86.0,,,,0.0,4.0,1.0,4.0,4.0,4.0,75.0,,,,,,,,,,,,,,,,,,,,,,,,,,,,,,,,,,,,,,,,,,,,,,,,,,,,,,0.0,0.0,32.0,0.658211,1.0,0.0,,,,,,,,,,,,,,,,,,,,,,,,,
28303,1645491938.653656,56.0,0.0,3361.538574,4617.94873,4252.307617,4385.128418,4416.922852000001,0.0,4.0,86.0,,,,0.0,4.0,1.0,4.0,4.0,4.0,75.0,,,,,,,,28.0,0.0,0.577704,-0.16503900000000002,0.647705,0.46850600000000003,0.904799,-0.41846300000000003,-0.098634,-0.033781,-0.038114999999999996,-0.019879,,,,,,,,,,,,,,,,,,,,,,,,,,,,,,,,,,,,,,,,,,,,,,,,,,,,,,,,,,,,,,,,,
28304,1645491938.661472,57.0,0.0,3396.4101560000004,4638.974121,4293.333496,4444.102539,4455.384765999999,0.0,4.0,86.0,,,,0.0,4.0,1.0,4.0,4.0,4.0,75.0,,,,,,,,,,,,,,,,,,,,,,,,,,,,,,,,,,,,,,,,,,,,,,,,,,,,,,,,,,,,,,,,,,,,,,,,,,,,,,,,,,,,
28305,1645491938.6692882,58.0,0.0,3432.820557,4696.410156,4302.563965,4453.333496,4480.0,0.0,4.0,86.0,,,,0.0,4.0,1.0,4.0,4.0,4.0,75.0,,,,,,,,29.0,0.0,0.577635,-0.16528299999999999,0.647705,0.46850600000000003,0.8955209999999999,-0.421393,-0.100587,-0.033868999999999996,-0.038161,-0.022969,,,,,,,,,,,,,,,,,,,,,,,,,,,,,,,,,,,,,,,,,,,,,,,,,,,,,,,,,,,,,,,,,
28306,1645491938.677204,59.0,0.0,3425.1281740000004,4685.128418,4271.282227000001,4422.563965,4442.563965,0.0,4.0,86.0,,,,0.0,4.0,1.0,4.0,4.0,4.0,75.0,,,,,,,,,,,,,,,,,,,,,,,,,,,,,,,,,,,,,,,,,,,,,,,,,,,,,,0.0,0.0,32.0,0.658211,1.0,0.0,,,,,,,,,,,,,,,,,,,,,,,,,
28307,1645491938.68502,60.0,0.0,3429.2307130000004,4669.743652,4290.769043,4421.538574,4435.384765999999,0.0,4.0,86.0,,,,0.0,4.0,1.0,4.0,4.0,4.0,75.0,,,,,,,,30.0,0.0,0.577565,-0.165527,0.647705,0.46850600000000003,0.914565,-0.42627600000000004,-0.107424,-0.033705,-0.038251,-0.025994,,,,,,,,,,,,,,,,,,,,,,,,,,,,,,,,,,,,,,,,,,,,,,,,,,,,,,,,,,,,,,,,,
28308,1645491938.692837,61.0,0.0,3443.076904,4710.256348,4323.589844,4437.436035,4479.487305,0.0,4.0,86.0,,,,0.0,4.0,1.0,4.0,4.0,4.0,75.0,,,,,,,,,,,,,,,,,,,,,,,,,,,,,,,,,,,,,,,,,,,,,,,,,,,,,,,,,,,,,,,,,,,,,,,,,,,,,,,,,,,,
28309,1645491938.7006528,62.0,0.0,3398.461426,4681.538574,4277.94873,4407.179688,4457.436035,0.0,4.0,86.0,,,,0.0,4.0,1.0,4.0,4.0,4.0,75.0,,,,,,,,31.0,0.0,0.577489,-0.165527,0.647949,0.468262,0.91017,-0.41846300000000003,-0.097169,-0.033655000000000004,-0.038332,-0.028522000000000002,,,,,,,,,,,,,,,,,,,,,,,,,,,,,,,,,,,,,,,,,,,,,,,,,,,,,,,,,,,,,,,,,
28310,1645491938.708469,63.0,0.0,3356.923096,4613.333496,4234.871582,4383.077147999999,4404.102539,0.0,4.0,86.0,,,,0.0,4.0,1.0,4.0,4.0,4.0,75.0,,,,,,,,,,,,,,,,,,,,,,,,,,,,,,,,,,,,,,,,,,,,,,,,,,,,,,0.0,0.0,32.0,0.658211,1.0,0.0,,,,,,,,,,,,,,,,,,,,,,,,,
28311,1645491938.716285,64.0,0.0,3373.8461909999996,4635.384765999999,4253.333496,4391.794922,4410.256348,450.0,4.0,86.0,,,,0.0,4.0,1.0,4.0,4.0,4.0,75.0,,,,,,,,32.0,0.0,0.577693,-0.165771,0.647705,0.468262,0.908217,-0.41455699999999995,-0.083986,-0.033658999999999994,-0.038356,-0.030797,,,,,,,,,,,,,,,,,,,,,,,,,,,,,,,,,,,,,,,,,,,,,,,,,,,,,,,,,,,,,,,,,
28312,1645491938.724101,65.0,0.0,3377.4357909999994,4675.897461,4260.0,4378.461426,4418.461426,450.0,4.0,86.0,,,,0.0,4.0,1.0,4.0,4.0,4.0,75.0,,,,,,,,,,,,,,,,,,,,,,,,,,,,,,,,,,,,,,,,,,,,,,,,,,,,,,,,,,,,,,,,,,,,,,,,,,,,,,,,,,,,
28313,1645491938.731917,66.0,0.0,3358.461426,4664.615234000001,4245.641113000001,4362.563965,4405.641113000001,16140.0,4.0,86.0,,,,0.0,4.0,1.0,4.0,4.0,4.0,75.0,,,,,,,,33.0,0.0,0.577693,-0.165771,0.647705,0.468262,0.9043110000000001,-0.423346,-0.09765800000000001,-0.033711,-0.038426999999999996,-0.026594,,,,,,,,,,,,,,,,,,,,,,,,,,,,,,,,,,,,,,,,,,,,,,,,,,,,,,,,,,,,,,,,,
28314,1645491938.739733,67.0,0.0,3295.897461,4661.025879,4204.615234000001,4310.256348,4344.102539,450.0,4.0,86.0,,,,0.0,4.0,1.0,4.0,4.0,4.0,75.0,,,,,,,,,,,,,,,,,,,,1.0,0.0,0.0,,,,,,,,,,,,,,,,,,,,,,,,,,,,,,,,0.0,0.0,32.0,0.542875,1.0,0.0,3038.057129,1269.127075,494.41946399999995,121.94641100000001,30.624168,532.8761599999999,421.33197,142.055817,19.782616,10.872855,99.963799,45.260078,34.793571,12.107038000000001,12.204578,405.388,195.617493,97.106339,31.668754999999997,26.860569,960.3616939999999,146.564743,99.36733199999999,32.613091,27.683983
28315,1645491938.747649,68.0,0.0,3205.6411129999997,4681.025879,4148.717772999999,4214.871582,4248.717772999999,0.0,4.0,86.0,,,,0.0,4.0,0.0,4.0,4.0,4.0,66.666664,,,,,,,,34.0,0.0,0.578164,-0.165771,0.647461,0.46801800000000005,0.920424,-0.41455699999999995,-0.08691499999999999,-0.033855,-0.038491000000000004,-0.029111,,,,,,,,,,,,,,,,,,,,,,,,,,,,,,,,,,,,,,,,,,,,,,,,,,,,,,,,,,,,,,,,,
28316,1645491938.755465,69.0,0.0,3156.410156,4627.692383,4126.153809,4152.820313,4189.743652,450.0,4.0,86.0,,,,0.0,4.0,0.0,4.0,4.0,4.0,66.666664,,,,,,,,,,,,,,,,,,,,,,,,,,,,,,,,,,,,,,,,,,,,,,,,,,,,,,,,,,,,,,,,,,,,,,,,,,,,,,,,,,,,
28317,1645491938.763281,70.0,0.0,3096.923096,4583.589844,4101.025879,4082.5642090000006,4130.256348,16058.0,4.0,86.0,,,,0.0,4.0,0.0,4.0,4.0,4.0,66.666664,,,,,,,,35.0,0.0,0.578094,-0.166016,0.647461,0.46801800000000005,0.9272600000000001,-0.41944,-0.09131,-0.033888,-0.038499,-0.025125,,,,,,,,,,,,,,,,,,,,,,,,,,,,,,,,,,,,,,,,,,,,,,,,,,,,,,,,,,,,,,,,,
28318,1645491938.7710972,71.0,0.0,3083.589844,4644.102539,4106.153809,4071.281982,4099.487305,450.0,4.0,86.0,,,,0.0,4.0,0.0,4.0,4.0,4.0,66.666664,,,,,,,,,,,,,,,,,,,,,,,,,,,,,,,,,,,,,,,,,,,,,,,,,,,,,,10.0,0.0,32.0,0.542875,1.0,0.0,,,,,,,,,,,,,,,,,,,,,,,,,
28319,1645491938.778913,72.0,0.0,3216.923096,4698.461426,4191.282227000001,4230.256348,4200.512695,450.0,4.0,86.0,,,,0.0,4.0,0.0,4.0,4.0,4.0,66.666664,,,,,,,,36.0,0.0,0.578437,-0.165771,0.647217,0.46801800000000005,0.9028459999999999,-0.409186,-0.100587,-0.033868,-0.038556,-0.027788999999999998,,,,,,,,,,,,,,,,,,,,,,,,,,,,,,,,,,,,,,,,,,,,,,,,,,,,,,,,,,,,,,,,,
28320,1645491938.7867289,73.0,0.0,3256.923096,4658.974121,4195.897461,4265.641113000001,4235.897461,16255.0,4.0,86.0,,,,0.0,4.0,0.0,4.0,4.0,4.0,66.666664,,,,,,,,,,,,,,,,,,,,,,,,,,,,,,,,,,,,,,,,,,,,,,,,,,,,,,,,,,,,,,,,,,,,,,,,,,,,,,,,,,,,
28321,1645491938.794545,74.0,0.0,3096.923096,4651.794922,4086.1538090000004,4068.205078,4089.743652,450.0,4.0,86.0,,,,0.0,4.0,0.0,4.0,4.0,4.0,66.666664,,,,,,,,37.0,0.0,0.578507,-0.165527,0.647217,0.46801800000000005,0.9111469999999999,-0.41992799999999997,-0.104494,-0.033851,-0.038508999999999995,-0.023887000000000002,,,,,,,,,,,,,,,,,,,,,,,,,,,,,,,,,,,,,,,,,,,,,,,,,,,,,,,,,,,,,,,,,
28322,1645491938.802362,75.0,0.0,3030.769287,4703.589844,4062.5642090000006,4017.4357909999994,4016.4101560000004,16222.0,4.0,86.0,,,,0.0,4.0,0.0,4.0,4.0,4.0,66.666664,,,,,,,,,,,,,,,,,,,,,,,,,,,,,,,,,,,,,,,,,,,,,,,,,,,,,,10.0,0.0,32.0,0.542875,1.0,0.0,,,,,,,,,,,,,,,,,,,,,,,,,
28323,1645491938.810178,76.0,0.0,3081.025635,4707.179688,4100.512695,4103.077147999999,4063.5898439999996,450.0,4.0,86.0,,,,0.0,4.0,0.0,4.0,4.0,4.0,66.666664,,,,,,,,38.0,0.0,0.578774,-0.16528299999999999,0.647217,0.46777299999999994,0.917983,-0.416022,-0.11230599999999999,-0.033786000000000004,-0.038564,-0.020375,,,,,,,,,,,,,,,,,,,,,,,,,,,,,,,,,,,,,,,,,,,,,,,,,,,,,,,,,,,,,,,,,
28324,1645491938.818094,77.0,0.0,3052.820557,4693.333496,4062.5642090000006,4024.102539,4044.615479,450.0,4.0,86.0,,,,0.0,4.0,0.0,4.0,4.0,4.0,66.666664,,,,,,,,,,,,,,,,,,,,,,,,,,,,,,,,,,,,,,,,,,,,,,,,,,,,,,,,,,,,,,,,,,,,,,,,,,,,,,,,,,,,
28325,1645491938.8259099,78.0,0.0,3033.333252,4698.461426,4050.256348,3950.7692869999996,4019.487061,450.0,4.0,86.0,,,,0.0,4.0,0.0,4.0,4.0,4.0,66.666664,,,,,,,,39.0,0.0,0.578774,-0.16528299999999999,0.647217,0.46777299999999994,0.925307,-0.41699899999999995,-0.107912,-0.033679,-0.038564999999999995,-0.017459,,,,,,,,,,,,,,,,,,,,,,,,,,,,,,,,,,,,,,,,,,,,,,,,,,,,,,,,,,,,,,,,,
28326,1645491938.833726,79.0,0.0,3092.3076170000004,4634.871582,4109.743652,4049.2307130000004,4083.076904,16222.0,4.0,86.0,,,,0.0,4.0,0.0,4.0,4.0,4.0,66.666664,,,,,,,,,,,,,,,,,,,,,,,,,,,,,,,,,,,,,,,,,,,,,,,,,,,,,,10.0,0.0,32.0,0.542875,1.0,0.0,,,,,,,,,,,,,,,,,,,,,,,,,
28327,1645491938.841543,80.0,0.0,3126.153809,4563.589844,4140.0,4116.410156,4133.846191,450.0,4.0,86.0,,,,0.0,4.0,0.0,4.0,4.0,4.0,66.666664,,,,,,,,40.0,0.0,0.5788439999999999,-0.16503900000000002,0.647217,0.46777299999999994,0.918959,-0.41992799999999997,-0.10888800000000001,-0.033777999999999996,-0.038566,-0.020937,,,,,,,,,,,,,,,,,,,,,,,,,,,,,,,,,,,,,,,,,,,,,,,,,,,,,,,,,,,,,,,,,
28328,1645491938.849359,81.0,0.0,3098.4614260000003,4615.897461,4116.922852000001,4074.358887,4107.692383,450.0,4.0,86.0,,,,0.0,4.0,0.0,4.0,4.0,4.0,66.666664,,,,,,,,,,,,,,,,,,,,,,,,,,,,,,,,,,,,,,,,,,,,,,,,,,,,,,,,,,,,,,,,,,,,,,,,,,,,,,,,,,,,
28329,1645491938.857175,82.0,0.0,3084.615479,4667.692383,4091.794922,4020.512939,4068.718018,450.0,4.0,86.0,,,,0.0,4.0,0.0,4.0,4.0,4.0,66.666664,,,,,,,,41.0,0.0,0.578774,-0.16528299999999999,0.647217,0.46777299999999994,0.917983,-0.416022,-0.11230599999999999,-0.033623,-0.038518000000000004,-0.024068,,,,,,,,,,,,,,,,,,,,,,,,,,,,,,,,,,,,,,,,,,,,,,,,,,,,,,,,,,,,,,,,,
28330,1645491938.864992,83.0,0.0,3131.794922,4631.282227000001,4093.8461909999996,4012.3076170000004,4074.358887,16222.0,4.0,86.0,,,,0.0,4.0,0.0,4.0,4.0,4.0,66.666664,,,,,,,,,,,,,,,,,,,,1.0,0.0,0.0,,,,,,,,,,,,,,,,,,,,,,,,,,,,,,,,10.0,0.0,32.0,0.48126499999999994,1.0,0.0,4903.964355,2213.49585,709.573303,189.015472,37.131972999999995,1081.802124,816.098083,282.08316,35.858246,14.402403,100.10463,47.518532,32.431515000000005,12.632066,13.747894,454.790985,261.938477,90.374588,32.71455,27.834265000000002,1645.493286,169.250412,98.549042,36.225128000000005,33.099461
28331,1645491938.872808,84.0,0.0,3182.05127,4589.743652,4117.436035,4070.256348,4115.897461,450.0,4.0,86.0,,,,0.0,4.0,0.0,4.0,4.0,4.0,66.666664,,,,,,,,42.0,0.0,0.5788439999999999,-0.16503900000000002,0.647217,0.46777299999999994,0.9111469999999999,-0.41065100000000004,-0.120119,-0.033532,-0.038524,-0.020587,,,,,,,,,,,,,,,,,,,,,,,,,,,,,,,,,,,,,,,,,,,,,,,,,,,,,,,,,,,,,,,,,
28332,1645491938.880624,85.0,0.0,3187.179443,4586.153809,4130.256348,4116.410156,4141.025879,450.0,4.0,86.0,,,,0.0,4.0,0.0,4.0,4.0,4.0,66.666664,,,,,,,,,,,,,,,,,,,,,,,,,,,,,,,,,,,,,,,,,,,,,,,,,,,,,,,,,,,,,,,,,,,,,,,,,,,,,,,,,,,,
28333,1645491938.88854,86.0,0.0,3178.974365,4624.102539,4105.641113000001,4064.102539,4120.0,450.0,4.0,86.0,,,,0.0,4.0,0.0,4.0,4.0,4.0,66.666664,,,,,,,,43.0,0.0,0.579117,-0.16503900000000002,0.6469729999999999,0.46777299999999994,0.917983,-0.408209,-0.101076,-0.033499,-0.03848,-0.023656,,,,,,,,,,,,,,,,,,,,,,,,,,,,,,,,,,,,,,,,,,,,,,,,,,,,,,,,,,,,,,,,,
28334,1645491938.896356,87.0,0.0,3228.718018,4621.025879,4117.94873,4055.384521,4132.820313,16222.0,4.0,86.0,,,,0.0,4.0,0.0,4.0,4.0,4.0,66.666664,,,,,,,,,,,,,,,,,,,,,,,,,,,,,,,,,,,,,,,,,,,,,,,,,,,,,,10.0,0.0,32.0,0.48126499999999994,1.0,0.0,,,,,,,,,,,,,,,,,,,,,,,,,
28335,1645491938.9041722,88.0,0.0,3316.923096,4550.769043,4187.692383,4183.589844,4216.410156,450.0,4.0,86.0,,,,0.0,4.0,0.0,4.0,4.0,4.0,66.666664,,,,,,,,44.0,0.0,0.579047,-0.16528299999999999,0.6469729999999999,0.46777299999999994,0.916518,-0.417975,-0.098634,-0.033567,-0.038392,-0.020216,,,,,,,,,,,,,,,,,,,,,,,,,,,,,,,,,,,,,,,,,,,,,,,,,,,,,,,,,,,,,,,,,
28336,1645491938.911989,89.0,0.0,3351.281982,4537.94873,4225.128418,4261.025879,4258.974121,450.0,4.0,86.0,,,,0.0,4.0,0.0,4.0,4.0,4.0,66.666664,,,,,,,,,,,,,,,,,,,,,,,,,,,,,,,,,,,,,,,,,,,,,,,,,,,,,,,,,,,,,,,,,,,,,,,,,,,,,,,,,,,,
28337,1645491938.919805,90.0,0.0,3374.8718259999996,4625.641113000001,4220.0,4241.538574,4285.641113000001,450.0,4.0,86.0,,,,0.0,4.0,0.0,4.0,4.0,4.0,66.666664,,,,,,,,45.0,0.0,0.579047,-0.16528299999999999,0.6469729999999999,0.46777299999999994,0.9194479999999999,-0.425299,-0.1084,-0.033629,-0.038264,-0.02337,,,,,,,,,,,,,,,,,,,,,,,,,,,,,,,,,,,,,,,,,,,,,,,,,,,,,,,,,,,,,,,,,
28338,1645491938.9276211,91.0,0.0,3441.025635,4657.94873,4230.769043,4269.230957,4340.512695,16222.0,4.0,86.0,,,,0.0,4.0,0.0,4.0,4.0,4.0,66.666664,,,,,,,,,,,,,,,,,,,,,,,,,,,,,,,,,,,,,,,,,,,,,,,,,,,,,,0.0,0.0,32.0,0.48126499999999994,1.0,0.0,,,,,,,,,,,,,,,,,,,,,,,,,
28339,1645491938.935437,92.0,0.0,3467.6923829999996,4640.0,4237.94873,4303.589844,4341.538574,450.0,4.0,86.0,,,,0.0,4.0,0.0,4.0,4.0,4.0,66.666664,,,,,,,,46.0,0.0,0.579047,-0.16528299999999999,0.6469729999999999,0.46777299999999994,0.933608,-0.415534,-0.11572400000000001,-0.033733,-0.038294999999999996,-0.026258,,,,,,,,,,,,,,,,,,,,,,,,,,,,,,,,,,,,,,,,,,,,,,,,,,,,,,,,,,,,,,,,,
28340,1645491938.943253,93.0,0.0,3404.615479,4640.0,4207.692383,4264.615234000001,4296.410156,450.0,4.0,86.0,,,,0.0,4.0,0.0,4.0,4.0,4.0,66.666664,,,,,,,,,,,,,,,,,,,,,,,,,,,,,,,,,,,,,,,,,,,,,,,,,,,,,,,,,,,,,,,,,,,,,,,,,,,,,,,,,,,,
28341,1645491938.9510689,94.0,0.0,3355.897461,4626.153809,4168.205078,4206.666504,4263.589844,450.0,4.0,86.0,,,,0.0,4.0,0.0,4.0,4.0,4.0,66.666664,,,,,,,,47.0,0.0,0.579047,-0.16528299999999999,0.6469729999999999,0.46777299999999994,0.921889,-0.417975,-0.11572400000000001,-0.033631,-0.038323,-0.022607,,,,,,,,,,,,,,,,,,,,,,,,,,,,,,,,,,,,,,,,,,,,,,,,,,,,,,,,,,,,,,,,,
28342,1645491938.958885,95.0,0.0,3380.512939,4621.025879,4174.871582,4192.820313,4262.563965,16222.0,4.0,86.0,,,,0.0,4.0,0.0,4.0,4.0,4.0,66.666664,,,,,,,,,,,,,,,,,,,,,,,,,,,,,,,,,,,,,,,,,,,,,,,,,,,,,,0.0,0.0,32.0,0.48126499999999994,1.0,0.0,,,,,,,,,,,,,,,,,,,,,,,,,
28343,1645491938.966801,96.0,0.0,3426.6667479999996,4663.589844,4208.717772999999,4236.922852000001,4306.153809,450.0,4.0,86.0,,,,0.0,4.0,0.0,4.0,4.0,4.0,66.666664,,,,,,,,48.0,0.0,0.578978,-0.165527,0.6469729999999999,0.46777299999999994,0.9155409999999999,-0.42676400000000003,-0.11621300000000001,-0.033686,-0.038202,-0.025473,,,,,,,,,,,,,,,,,,,,,,,,,,,,,,,,,,,,,,,,,,,,,,,,,,,,,,,,,,,,,,,,,
28344,1645491938.974617,97.0,0.0,3458.974365,4684.102539,4209.743652,4279.487305,4346.153809,450.0,4.0,86.0,,,,0.0,4.0,0.0,4.0,4.0,4.0,66.666664,,,,,,,,,,,,,,,,,,,,,,,,,,,,,,,,,,,,,,,,,,,,,,,,,,,,,,,,,,,,,,,,,,,,,,,,,,,,,,,,,,,,
28345,1645491938.982533,98.0,0.0,3477.4357909999994,4633.846191,4209.743652,4285.128418,4347.692383,450.0,4.0,86.0,,,,0.0,4.0,0.0,4.0,4.0,4.0,66.666664,,,,,,,,49.0,0.0,0.578978,-0.165527,0.6469729999999999,0.46777299999999994,0.916518,-0.420417,-0.1084,-0.033589,-0.038288,-0.028100999999999998,,,,,,,,,,,,,,,,,,,,,,,,,,,,,,,,,,,,,,,,,,,,,,,,,,,,,,,,,,,,,,,,,
28346,1645491938.990349,99.0,0.0,3485.641113,4585.641113000001,4231.794922,4271.794922,4340.512695,16222.0,4.0,86.0,,,,0.0,4.0,0.0,4.0,4.0,4.0,66.666664,,,,,,,,,,,,,,,,,,,,1.0,0.0,0.0,,,,,,,,,,,,,,,,,,,,,,,,,,,,,,,,0.0,0.0,32.0,0.28130900000000003,1.0,0.0,6757.74707,3179.574707,883.8292240000001,254.98792999999998,42.041477,1738.21875,1265.10437,450.708679,54.320147999999996,18.947502,110.58769199999999,48.492401,29.482196999999996,13.590202,14.960459,532.9423830000001,332.467377,85.660973,33.503799,27.917486,2545.643066,188.60794099999998,97.565079,40.906677,37.45858
28347,1645491938.9981651,100.0,0.0,3489.743652,4605.128418,4218.974121,4252.820313,4337.436035,450.0,4.0,86.0,,,,0.0,4.0,0.0,4.0,4.0,4.0,66.666664,,,,,,,,50.0,0.0,0.579105,-0.165771,0.6469729999999999,0.467529,0.91017,-0.408209,-0.104005,-0.033697000000000005,-0.038414,-0.030467,,,,,,,,,,,,,,,,,,,,,,,,,,,,,,,,,,,,,,,,,,,,,,,,,,,,,,,,,,,,,,,,,
28348,1645491939.005981,101.0,0.0,3460.0,4649.230957,4165.641113000001,4212.820313,4305.641113000001,450.0,4.0,86.0,,,,0.0,4.0,0.0,4.0,4.0,4.0,66.666664,,,,,,,,,,,,,,,,,,,,,,,,,,,,,,,,,,,,,,,,,,,,,,,,,,,,,,,,,,,,,,,,,,,,,,,,,,,,,,,,,,,,
28349,1645491939.013797,102.0,0.0,3382.0512700000004,4643.589844,4123.589844,4139.487305,4226.666504,450.0,4.0,86.0,,,,0.0,4.0,0.0,4.0,4.0,4.0,66.666664,,,,,,,,51.0,0.0,0.579105,-0.165771,0.6469729999999999,0.467529,0.921889,-0.40576799999999996,-0.113283,-0.033647,-0.03843,-0.032596,,,,,,,,,,,,,,,,,,,,,,,,,,,,,,,,,,,,,,,,,,,,,,,,,,,,,,,,,,,,,,,,,
28350,1645491939.0216131,103.0,0.0,3320.0,4605.128418,4096.922852000001,4050.7692869999996,4131.282227000001,16222.0,4.0,86.0,,,,0.0,4.0,0.0,4.0,4.0,4.0,66.666664,,,,,,,,,,,,,,,,,,,,,,,,,,,,,,,,,,,,,,,,,,,,,,,,,,,,,,0.0,0.0,32.0,0.28130900000000003,1.0,0.0,,,,,,,,,,,,,,,,,,,,,,,,,
28351,1645491939.029429,104.0,0.0,3300.0,4586.153809,4078.461426,4003.5898439999996,4081.538574,450.0,4.0,86.0,,,,0.0,4.0,0.0,4.0,4.0,4.0,66.666664,,,,,,,,52.0,0.0,0.5790350000000001,-0.166016,0.6469729999999999,0.467529,0.910658,-0.401373,-0.113771,-0.033602999999999994,-0.038493,-0.028165,,,,,,,,,,,,,,,,,,,,,,,,,,,,,,,,,,,,,,,,,,,,,,,,,,,,,,,,,,,,,,,,,
28352,1645491939.037345,105.0,0.0,3254.871826,4576.922852000001,4058.974365,4027.6923829999996,4055.897461,450.0,4.0,86.0,,,,0.0,4.0,0.0,4.0,4.0,4.0,66.666664,,,,,,,,,,,,,,,,,,,,,,,,,,,,,,,,,,,,,,,,,,,,,,,,,,,,,,,,,,,,,,,,,,,,,,,,,,,,,,,,,,,,
28353,1645491939.045162,106.0,0.0,3227.6923829999996,4583.077147999999,4055.897461,4057.4357909999994,4024.615479,450.0,4.0,86.0,,,,0.0,4.0,0.0,4.0,4.0,4.0,66.666664,,,,,,,,53.0,0.0,0.5790350000000001,-0.166016,0.6469729999999999,0.467529,0.91017,-0.42236999999999997,-0.107424,-0.033710000000000004,-0.038599,-0.030524000000000003,,,,,,,,,,,,,,,,,,,,,,,,,,,,,,,,,,,,,,,,,,,,,,,,,,,,,,,,,,,,,,,,,
28354,1645491939.052978,107.0,0.0,3297.94873,4595.384765999999,4094.358887,4077.9487299999996,4077.9487299999996,16222.0,4.0,86.0,,,,0.0,4.0,0.0,4.0,4.0,4.0,66.666664,,,,,,,,,,,,,,,,,,,,,,,,,,,,,,,,,,,,,,,,,,,,,,,,,,,,,,10.0,0.0,32.0,0.28130900000000003,1.0,0.0,,,,,,,,,,,,,,,,,,,,,,,,,
28355,1645491939.0607939,108.0,0.0,3377.9487299999996,4557.94873,4131.794922,4141.538574,4173.846191,450.0,4.0,86.0,,,,0.0,4.0,0.0,4.0,4.0,4.0,66.666664,,,,,,,,54.0,0.0,0.579232,-0.166016,0.6469729999999999,0.46728500000000006,0.898451,-0.400885,-0.10547000000000001,-0.033708,-0.038499,-0.032648,,,,,,,,,,,,,,,,,,,,,,,,,,,,,,,,,,,,,,,,,,,,,,,,,,,,,,,,,,,,,,,,,
28356,1645491939.06861,109.0,0.0,3380.512939,4541.025879,4132.820313,4185.128418,4166.153809,450.0,4.0,86.0,,,,0.0,4.0,0.0,4.0,4.0,4.0,66.666664,,,,,,,,,,,,,,,,,,,,,,,,,,,,,,,,,,,,,,,,,,,,,,,,,,,,,,,,,,,,,,,,,,,,,,,,,,,,,,,,,,,,
28357,1645491939.076426,110.0,0.0,3355.897461,4605.641113000001,4124.102539,4154.358886999999,4114.871582,450.0,4.0,86.0,,,,0.0,4.0,0.0,4.0,4.0,4.0,66.666664,,,,,,,,55.0,0.0,0.579232,-0.166016,0.6469729999999999,0.46728500000000006,0.9209129999999999,-0.407721,-0.112795,-0.033755,-0.038653,-0.028357,,,,,,,,,,,,,,,,,,,,,,,,,,,,,,,,,,,,,,,,,,,,,,,,,,,,,,,,,,,,,,,,,
28358,1645491939.084242,111.0,0.0,3375.384521,4615.897461,4123.589844,4155.897461,4132.820313,16222.0,4.0,86.0,,,,0.0,4.0,0.0,4.0,4.0,4.0,66.666664,,,,,,,,,,,,,,,,,,,,,,,,,,,,,,,,,,,,,,,,,,,,,,,,,,,,,,10.0,0.0,32.0,0.28130900000000003,1.0,0.0,,,,,,,,,,,,,,,,,,,,,,,,,
28359,1645491939.092058,112.0,0.0,3411.794922,4562.563965,4127.179688,4203.589844,4169.743652,450.0,4.0,86.0,,,,0.0,4.0,0.0,4.0,4.0,4.0,66.666664,,,,,,,,56.0,0.0,0.579232,-0.166016,0.6469729999999999,0.46728500000000006,0.903334,-0.41651000000000005,-0.106447,-0.033749,-0.038597,-0.0306,,,,,,,,,,,,,,,,,,,,,,,,,,,,,,,,,,,,,,,,,,,,,,,,,,,,,,,,,,,,,,,,,
28360,1645491939.099874,113.0,0.0,3447.6923829999996,4583.077147999999,4159.487305,4221.025879,4214.358886999999,450.0,4.0,86.0,,,,0.0,4.0,0.0,4.0,4.0,4.0,66.666664,,,,,,,,,,,,,,,,,,,,,,,,,,,,,,,,,,,,,,,,,,,,,,,,,,,,,,,,,,,,,,,,,,,,,,,,,,,,,,,,,,,,
28361,1645491939.10769,114.0,0.0,3500.512939,4618.461426,4195.897461,4234.871582,4269.743652,450.0,4.0,86.0,,,,0.0,4.0,0.0,4.0,4.0,4.0,66.666664,,,,,,,,57.0,0.0,0.579232,-0.166016,0.6469729999999999,0.46728500000000006,0.909682,-0.406256,-0.107912,-0.033743,-0.038546,-0.026612,,,,,,,,,,,,,,,,,,,,,,,,,,,,,,,,,,,,,,,,,,,,,,,,,,,,,,,,,,,,,,,,,
28362,1645491939.115606,115.0,0.0,3512.3076170000004,4590.256348,4173.333496,4246.666504,4241.538574,16222.0,4.0,86.0,,,,0.0,4.0,0.0,4.0,4.0,4.0,66.666664,1.0,0.0,0.0,0.0,1.0,0.0,0.0,,,,,,,,,,,,,1.0,0.0,0.0,,,,,,,,,,,,,,,,,,,,,,,,,,,,,,,,10.0,0.0,1.0,0.0,512.0,1.0,8034.240234000001,3861.3396,953.78717,299.43548599999997,43.739281,2313.942627,1635.171265,600.256775,69.845062,23.300307999999998,124.729942,47.909893,25.968270999999998,14.810146,15.46962,605.212219,387.448914,81.234528,34.269954999999996,27.22488,3415.9711909999996,199.098389,94.025734,45.754536,39.406647
28363,1645491939.1234221,116.0,0.0,3499.487061,4566.153809,4149.230957,4235.897461,4215.384765999999,450.0,4.0,86.0,,,,0.0,4.0,0.0,4.0,4.0,4.0,66.666664,,,,,,,,58.0,0.0,0.5793020000000001,-0.165771,0.6469729999999999,0.46728500000000006,0.904799,-0.410163,-0.11425999999999999,-0.033639999999999996,-0.038451,-0.029176,,,,,,,,,,,,,,,,,,,,,,,,,,,,,,,,,,,,,,,,,,,,,,,,,,,,,,,,,,,,,,,,,
28364,1645491939.131238,117.0,0.0,3519.487061,4558.461426,4164.102539,4243.589844,4264.102539,450.0,4.0,86.0,,,,0.0,4.0,0.0,4.0,4.0,4.0,66.666664,,,,,,,,,,,,,,,,,,,,,,,,,,,,,,,,,,,,,,,,,,,,,,,,,,,,,,,,,,,,,,,,,,,,,,,,,,,,,,,,,,,,
28365,1645491939.1390538,118.0,0.0,3513.3332520000004,4540.0,4148.205078,4236.922852000001,4238.974121,450.0,4.0,86.0,,,,0.0,4.0,0.0,4.0,4.0,4.0,66.666664,,,,,,,,59.0,0.0,0.579378,-0.165771,0.646729,0.467529,0.909682,-0.411627,-0.100587,-0.033499,-0.038512,-0.031434,,,,,,,,,,,,,,,,,,,,,,,,,,,,,,,,,,,,,,,,,,,,,,,,,,,,,,,,,,,,,,,,,
28366,1645491939.14687,119.0,0.0,3450.7692869999996,4538.974121,4102.563965,4160.0,4154.358886999999,16222.0,4.0,86.0,,,,0.0,4.0,0.0,4.0,4.0,4.0,66.666664,,,,,,,,,,,,,,,,,,,,,,,,,,,,,,,,,,,,,,,,,,,,,,,,,,,,,,10.0,0.0,1.0,0.0,512.0,1.0,,,,,,,,,,,,,,,,,,,,,,,,,
28367,1645491939.154686,120.0,0.0,3436.4101560000004,4570.256348,4094.8718259999996,4101.538574,4161.025879,450.0,4.0,86.0,,,,0.0,4.0,0.0,4.0,4.0,4.0,66.666664,,,,,,,,60.0,0.0,0.579175,-0.165527,0.6469729999999999,0.467529,0.9091940000000001,-0.406744,-0.11230599999999999,-0.033518,-0.038469,-0.027216000000000004,,,,,,,,,,,,,,,,,,,,,,,,,,,,,,,,,,,,,,,,,,,,,,,,,,,,,,,,,,,,,,,,,
28368,1645491939.162503,121.0,0.0,3460.0,4586.666504,4106.666504,4093.8461909999996,4174.358886999999,450.0,4.0,86.0,,,,0.0,4.0,0.0,4.0,4.0,4.0,66.666664,,,,,,,,,,,,,,,,,,,,,,,,,,,,,,,,,,,,,,,,,,,,,,,,,,,,,,,,,,,,,,,,,,,,,,,,,,,,,,,,,,,,
28369,1645491939.1703188,122.0,0.0,3455.897461,4570.769043,4120.0,4108.717772999999,4136.410156,450.0,4.0,86.0,,,,0.0,4.0,0.0,4.0,4.0,4.0,66.666664,,,,,,,,61.0,0.0,0.5793020000000001,-0.165771,0.6469729999999999,0.46728500000000006,0.904799,-0.410163,-0.11425999999999999,-0.033487,-0.03848,-0.02342,,,,,,,,,,,,,,,,,,,,,,,,,,,,,,,,,,,,,,,,,,,,,,,,,,,,,,,,,,,,,,,,,
28370,1645491939.178135,123.0,0.0,3482.5642090000006,4576.410156,4137.94873,4150.769043,4156.922852000001,16222.0,4.0,86.0,,,,0.0,4.0,0.0,4.0,4.0,4.0,66.666664,,,,,,,,,,,,,,,,,,,,,,,,,,,,,,,,,,,,,,,,,,,,,,,,,,,,,,10.0,0.0,1.0,0.0,512.0,1.0,,,,,,,,,,,,,,,,,,,,,,,,,
28371,1645491939.186051,124.0,0.0,3514.358887,4565.128418,4122.563965,4168.717772999999,4195.897461,450.0,4.0,86.0,,,,0.0,4.0,0.0,4.0,4.0,4.0,66.666664,,,,,,,,62.0,0.0,0.579175,-0.165527,0.6469729999999999,0.467529,0.9091940000000001,-0.406744,-0.11230599999999999,-0.033507,-0.038441,-0.020003999999999997,,,,,,,,,,,,,,,,,,,,,,,,,,,,,,,,,,,,,,,,,,,,,,,,,,,,,,,,,,,,,,,,,
28372,1645491939.193867,125.0,0.0,3510.7692869999996,4525.641113000001,4124.615234000001,4162.563965,4202.563965,450.0,4.0,86.0,,,,0.0,4.0,0.0,4.0,4.0,4.0,66.666664,,,,,,,,,,,,,,,,,,,,,,,,,,,,,,,,,,,,,,,,,,,,,,,,,,,,,,,,,,,,,,,,,,,,,,,,,,,,,,,,,,,,
28373,1645491939.201683,126.0,0.0,3535.897461,4520.0,4174.358886999999,4196.922852000001,4226.153809,450.0,4.0,86.0,,,,0.0,4.0,0.0,4.0,4.0,4.0,66.666664,,,,,,,,63.0,0.0,0.579447,-0.165527,0.646729,0.467529,0.909682,-0.411627,-0.11523599999999999,-0.033477,-0.038356,-0.016832,,,,,,,,,,,,,,,,,,,,,,,,,,,,,,,,,,,,,,,,,,,,,,,,,,,,,,,,,,,,,,,,,
28374,1645491939.2094991,127.0,0.0,3626.6667479999996,4532.820313,4209.230957,4251.794922,4274.871582,241.0,4.0,86.0,,,,0.0,4.0,0.0,4.0,4.0,4.0,66.666664,,,,,,,,,,,,,,,,,,,,,,,,,,,,,,,,,,,,,,,,,,,,,,,,,,,,,,0.0,0.0,1.0,0.0,512.0,1.0,,,,,,,,,,,,,,,,,,,,,,,,,
28375,1645491939.217315,0.0,0.0,3685.1281740000004,4553.846191,4197.436035,4251.282227000001,4304.102539,450.0,4.0,86.0,,,,0.0,4.0,0.0,4.0,4.0,4.0,66.666664,,,,,,,,0.0,0.0,0.579175,-0.165527,0.6469729999999999,0.467529,0.9116350000000001,-0.421393,-0.104005,-0.033401,-0.038329,-0.020325,,,,,,,,,,,,,,,,,,,,,,,,,,,,,,,,,,,,,,,,,,,,,,,,,,,,,,,,,,,,,,,,,
28376,1645491939.225131,1.0,0.0,3637.4357909999994,4567.692383,4157.436035,4218.974121,4278.461426,450.0,4.0,86.0,,,,0.0,4.0,0.0,4.0,4.0,4.0,66.666664,,,,,,,,,,,,,,,,,,,,,,,,,,,,,,,,,,,,,,,,,,,,,,,,,,,,,,,,,,,,,,,,,,,,,,,,,,,,,,,,,,,,
28377,1645491939.232947,2.0,0.0,3574.8718259999996,4560.512695,4118.974121,4178.461426,4217.436035,16194.0,4.0,86.0,,,,0.0,4.0,0.0,4.0,4.0,4.0,66.666664,,,,,,,,1.0,0.0,0.579447,-0.165527,0.646729,0.467529,0.9087049999999999,-0.412116,-0.104494,-0.033381,-0.038354,-0.017266999999999998,,,,,,,,,,,,,,,,,,,,,,,,,,,,,,,,,,,,,,,,,,,,,,,,,,,,,,,,,,,,,,,,,
28378,1645491939.2407632,3.0,0.0,3571.794922,4553.333496,4113.333496,4125.128418,4193.333496,450.0,4.0,86.0,,,,0.0,4.0,0.0,4.0,4.0,4.0,66.666664,,,,,,,,,,,,,,,,,,,,1.0,0.0,0.0,,,,,,,,,,,,,,,,,,,,,,,,,,,,,,,,0.0,0.0,1.0,0.0,512.0,1.0,8275.298828,4019.720703,890.914001,307.334137,41.464931,2616.368164,1799.7253420000002,680.773743,77.35678100000001,26.089823000000003,138.418533,45.824699,22.384546,15.825010999999998,15.044495999999999,643.1257320000001,409.241608,76.489838,34.754421,25.988224,3972.6979979999996,197.26448100000002,86.277611,48.954758,38.117816999999995
28379,1645491939.248579,4.0,0.0,3612.3076170000004,4573.333496,4146.153809,4150.769043,4251.794922,44.0,4.0,86.0,,,,0.0,4.0,0.0,4.0,4.0,4.0,66.666664,,,,,,,,2.0,0.0,0.579447,-0.165527,0.646729,0.467529,0.909682,-0.41065100000000004,-0.111818,-0.033461000000000005,-0.038376,-0.020569,,,,,,,,,,,,,,,,,,,,,,,,,,,,,,,,,,,,,,,,,,,,,,,,,,,,,,,,,,,,,,,,,
28380,1645491939.256495,5.0,0.0,3642.0512700000004,4590.256348,4165.128418,4220.0,4291.794922,450.0,4.0,86.0,,,,0.0,4.0,0.0,4.0,4.0,4.0,66.666664,,,,,,,,,,,,,,,,,,,,,,,,,,,,,,,,,,,,,,,,,,,,,,,,,,,,,,,,,,,,,,,,,,,,,,,,,,,,,,,,,,,,
28381,1645491939.2643108,6.0,0.0,3646.6667479999996,4551.794922,4163.589844,4203.077147999999,4246.153809,16103.0,4.0,86.0,,,,0.0,4.0,0.0,4.0,4.0,4.0,66.666664,,,,,,,,3.0,0.0,0.579447,-0.165527,0.646729,0.467529,0.901381,-0.417975,-0.10547000000000001,-0.033386,-0.038445,-0.017487,,,,,,,,,,,,,,,,,,,,,,,,,,,,,,,,,,,,,,,,,,,,,,,,,,,,,,,,,,,,,,,,,
28382,1645491939.272127,7.0,0.0,3674.8718259999996,4499.487305,4174.871582,4184.615234000001,4245.641113000001,450.0,4.0,86.0,,,,0.0,4.0,0.0,4.0,4.0,4.0,66.666664,,,,,,,,,,,,,,,,,,,,,,,,,,,,,,,,,,,,,,,,,,,,,,,,,,,,,,0.0,0.0,1.0,0.0,512.0,1.0,,,,,,,,,,,,,,,,,,,,,,,,,
28383,1645491939.279944,8.0,0.0,3725.641113,4533.333496,4192.820313,4254.871582,4320.0,450.0,4.0,86.0,,,,0.0,4.0,0.0,4.0,4.0,4.0,66.666664,,,,,,,,4.0,0.0,0.579372,-0.165527,0.6469729999999999,0.46728500000000006,0.906264,-0.41992799999999997,-0.10498199999999999,-0.033368,-0.038555,-0.020914,,,,,,,,,,,,,,,,,,,,,,,,,,,,,,,,,,,,,,,,,,,,,,,,,,,,,,,,,,,,,,,,,
28384,1645491939.28776,9.0,0.0,3740.0,4593.333496,4198.461426,4276.410156,4334.358886999999,16231.0,4.0,86.0,,,,0.0,4.0,0.0,4.0,4.0,4.0,66.666664,,,,,,,,,,,,,,,,,,,,,,,,,,,,,,,,,,,,,,,,,,,,,,,,,,,,,,,,,,,,,,,,,,,,,,,,,,,,,,,,,,,,
28385,1645491939.295576,10.0,0.0,3724.615479,4548.717772999999,4181.025879,4228.205078,4296.922852000001,450.0,4.0,86.0,,,,0.0,4.0,0.0,4.0,4.0,4.0,66.666664,,,,,,,,5.0,0.0,0.579569,-0.165527,0.6469729999999999,0.467041,0.917006,-0.417975,-0.11425999999999999,-0.033401,-0.038557,-0.023999,,,,,,,,,,,,,,,,,,,,,,,,,,,,,,,,,,,,,,,,,,,,,,,,,,,,,,,,,,,,,,,,,
28386,1645491939.303392,11.0,0.0,3681.538574,4525.128418,4123.077147999999,4192.307617,4248.717772999999,16212.0,4.0,86.0,,,,0.0,4.0,0.0,4.0,4.0,4.0,66.666664,,,,,,,,,,,,,,,,,,,,,,,,,,,,,,,,,,,,,,,,,,,,,,,,,,,,,,0.0,0.0,1.0,0.0,512.0,1.0,,,,,,,,,,,,,,,,,,,,,,,,,
28387,1645491939.311208,12.0,0.0,3587.179443,4586.153809,4065.1281740000004,4128.717772999999,4147.179688,450.0,4.0,86.0,,,,0.0,4.0,0.0,4.0,4.0,4.0,66.666664,,,,,,,,6.0,0.0,0.579226,-0.165771,0.647217,0.467041,0.920424,-0.397467,-0.116701,-0.033477999999999994,-0.038657,-0.026775,,,,,,,,,,,,,,,,,,,,,,,,,,,,,,,,,,,,,,,,,,,,,,,,,,,,,,,,,,,,,,,,,
28388,1645491939.319024,13.0,0.0,3533.3332520000004,4575.897461,4064.615479,4053.3332520000004,4093.8461909999996,450.0,4.0,86.0,,,,0.0,4.0,0.0,4.0,4.0,4.0,66.666664,,,,,,,,,,,,,,,,,,,,,,,,,,,,,,,,,,,,,,,,,,,,,,,,,,,,,,,,,,,,,,,,,,,,,,,,,,,,,,,,,,,,
28389,1645491939.32684,14.0,0.0,3557.9487299999996,4513.846191,4092.820557,4054.358887,4140.0,450.0,4.0,86.0,,,,0.0,4.0,0.0,4.0,4.0,4.0,66.666664,,,,,,,,7.0,0.0,0.579156,-0.166016,0.647217,0.467041,0.9209129999999999,-0.396002,-0.107912,-0.033549,-0.038649,-0.029273,,,,,,,,,,,,,,,,,,,,,,,,,,,,,,,,,,,,,,,,,,,,,,,,,,,,,,,,,,,,,,,,,
28390,1645491939.3347561,15.0,0.0,3550.256348,4534.871582,4085.641113,4069.2307130000004,4128.717772999999,16212.0,4.0,86.0,,,,0.0,4.0,0.0,4.0,4.0,4.0,66.666664,,,,,,,,,,,,,,,,,,,,,,,,,,,,,,,,,,,,,,,,,,,,,,,,,,,,,,10.0,0.0,1.0,0.0,512.0,1.0,,,,,,,,,,,,,,,,,,,,,,,,,
28391,1645491939.342572,16.0,0.0,3514.8718259999996,4569.230957,4058.974365,4047.6923829999996,4084.102539,0.0,4.0,86.0,,,,0.0,4.0,0.0,4.0,4.0,4.0,66.666664,,,,,,,,8.0,0.0,0.579156,-0.166016,0.647217,0.467041,0.920424,-0.406256,-0.098634,-0.033612,-0.038738999999999996,-0.025223,,,,,,,,,,,,,,,,,,,,,,,,,,,,,,,,,,,,,,,,,,,,,,,,,,,,,,,,,,,,,,,,,
28392,1645491939.350388,17.0,0.0,3535.897461,4480.512695,4066.1538090000004,4055.897461,4113.333496,0.0,4.0,86.0,,,,0.0,4.0,0.0,4.0,4.0,4.0,66.666664,,,,,,,,,,,,,,,,,,,,,,,,,,,,,,,,,,,,,,,,,,,,,,,,,,,,,,,,,,,,,,,,,,,,,,,,,,,,,,,,,,,,
28393,1645491939.358204,18.0,0.0,3517.4357909999994,4384.102539,4060.0,4029.2307130000004,4072.820557,0.0,4.0,86.0,,,,0.0,4.0,0.0,4.0,4.0,4.0,66.666664,,,,,,,,9.0,0.0,0.579156,-0.166016,0.647217,0.467041,0.914076,-0.41651000000000005,-0.102052,-0.033669,-0.038771,-0.027779,,,,,,,,,,,,,,,,,,,,,,,,,,,,,,,,,,,,,,,,,,,,,,,,,,,,,,,,,,,,,,,,,
28394,1645491939.36602,19.0,0.0,3472.3076170000004,4443.589844,4053.3332520000004,3985.1281740000004,4007.179443,0.0,4.0,86.0,,,,0.0,4.0,0.0,4.0,4.0,4.0,66.666664,,,,,,,,,,,,,,,,,,,,1.0,0.0,0.0,,,,,,,,,,,,,,,,,,,,,,,,,,,,,,,,10.0,0.0,1.0,0.0,512.0,1.0,7445.563965,3604.4167479999996,717.982117,275.32372999999995,35.694359000000006,2537.237549,1699.094971,663.225342,74.35301199999999,26.404325,147.834946,43.04892,19.829596,16.040808,13.683648999999999,641.227722,390.612488,72.35174599999999,34.062672,24.417377,4028.8950200000004,183.741333,76.125679,48.710743,33.704048
28395,1645491939.373836,20.0,0.0,3577.9487299999996,4562.05127,4123.589844,4081.538574,4126.666504,0.0,4.0,86.0,,,,0.0,4.0,0.0,4.0,4.0,4.0,66.666664,,,,,,,,10.0,0.0,0.578959,-0.166016,0.647217,0.46728500000000006,0.9052870000000001,-0.41113900000000003,-0.103029,-0.03372,-0.038751999999999995,-0.030177,,,,,,,,,,,,,,,,,,,,,,,,,,,,,,,,,,,,,,,,,,,,,,,,,,,,,,,,,,,,,,,,,
28396,1645491939.3816519,21.0,0.0,3732.820557,4583.589844,4201.538574,4234.871582,4280.512695,0.0,4.0,86.0,,,,0.0,4.0,0.0,4.0,4.0,4.0,66.666664,,,,,,,,,,,,,,,,,,,,,,,,,,,,,,,,,,,,,,,,,,,,,,,,,,,,,,,,,,,,,,,,,,,,,,,,,,,,,,,,,,,,
28397,1645491939.389468,22.0,0.0,3734.358887,4561.025879,4190.769043,4249.230957,4262.05127,0.0,4.0,86.0,,,,0.0,4.0,0.0,4.0,4.0,4.0,66.666664,,,,,,,,11.0,0.0,0.578756,-0.165771,0.647461,0.46728500000000006,0.91017,-0.43018199999999995,-0.113283,-0.033717000000000004,-0.038587,-0.026182,,,,,,,,,,,,,,,,,,,,,,,,,,,,,,,,,,,,,,,,,,,,,,,,,,,,,,,,,,,,,,,,,
28398,1645491939.397285,23.0,0.0,3704.102539,4548.717772999999,4177.94873,4202.563965,4217.94873,0.0,4.0,86.0,,,,0.0,4.0,0.0,4.0,4.0,4.0,66.666664,,,,,,,,,,,,,,,,,,,,,,,,,,,,,,,,,,,,,,,,,,,,,,,,,,,,,,10.0,0.0,1.0,0.0,512.0,1.0,,,,,,,,,,,,,,,,,,,,,,,,,
28399,1645491939.405201,24.0,0.0,3778.461426,4547.692383,4215.384765999999,4215.897461,4270.769043,0.0,4.0,86.0,,,,0.0,4.0,0.0,4.0,4.0,4.0,66.666664,,,,,,,,12.0,0.0,0.578756,-0.165771,0.647461,0.46728500000000006,0.8955209999999999,-0.43262399999999995,-0.099123,-0.033617,-0.038586,-0.028642,,,,,,,,,,,,,,,,,,,,,,,,,,,,,,,,,,,,,,,,,,,,,,,,,,,,,,,,,,,,,,,,,
28400,1645491939.413017,25.0,0.0,3823.5898439999996,4558.461426,4210.256348,4236.410156,4319.487305,0.0,4.0,86.0,,,,0.0,4.0,0.0,4.0,4.0,4.0,66.666664,,,,,,,,,,,,,,,,,,,,,,,,,,,,,,,,,,,,,,,,,,,,,,,,,,,,,,,,,,,,,,,,,,,,,,,,,,,,,,,,,,,,
28401,1645491939.420833,26.0,0.0,3791.281982,4572.307617,4175.384765999999,4246.666504,4304.615234000001,0.0,4.0,86.0,,,,0.0,4.0,0.0,4.0,4.0,4.0,66.666664,,,,,,,,13.0,0.0,0.578483,-0.165771,0.647705,0.46728500000000006,0.914565,-0.42676400000000003,-0.10351700000000001,-0.033624,-0.038536,-0.031149,,,,,,,,,,,,,,,,,,,,,,,,,,,,,,,,,,,,,,,,,,,,,,,,,,,,,,,,,,,,,,,,,
28402,1645491939.428649,27.0,0.0,3809.743652,4610.769043,4187.179688,4264.615234000001,4288.717772999999,0.0,4.0,86.0,,,,0.0,4.0,0.0,4.0,4.0,4.0,66.666664,,,,,,,,,,,,,,,,,,,,,,,,,,,,,,,,,,,,,,,,,,,,,,,,,,,,,,10.0,0.0,1.0,0.0,512.0,1.0,,,,,,,,,,,,,,,,,,,,,,,,,
28403,1645491939.436465,28.0,0.0,3853.8461909999996,4601.025879,4208.717772999999,4258.974121,4304.102539,0.0,4.0,86.0,,,,0.0,4.0,0.0,4.0,4.0,4.0,66.666664,,,,,,,,14.0,0.0,0.57868,-0.165771,0.647705,0.467041,0.9052870000000001,-0.423346,-0.099611,-0.033582,-0.03854,-0.02696,,,,,,,,,,,,,,,,,,,,,,,,,,,,,,,,,,,,,,,,,,,,,,,,,,,,,,,,,,,,,,,,,
28404,1645491939.444281,29.0,0.0,3833.8461909999996,4551.282227000001,4197.94873,4240.0,4308.205078,0.0,4.0,86.0,,,,0.0,4.0,0.0,4.0,4.0,4.0,66.666664,,,,,,,,,,,,,,,,,,,,,,,,,,,,,,,,,,,,,,,,,,,,,,,,,,,,,,,,,,,,,,,,,,,,,,,,,,,,,,,,,,,,
28405,1645491939.4520972,30.0,0.0,3800.0,4573.846191,4174.871582,4251.794922,4282.05127,0.0,4.0,86.0,,,,0.0,4.0,0.0,4.0,4.0,4.0,66.666664,,,,,,,,15.0,0.0,0.57868,-0.165771,0.647705,0.467041,0.9077290000000001,-0.412116,-0.098634,-0.033593,-0.038544,-0.029391000000000004,,,,,,,,,,,,,,,,,,,,,,,,,,,,,,,,,,,,,,,,,,,,,,,,,,,,,,,,,,,,,,,,,
28406,1645491939.459913,31.0,0.0,3803.5898439999996,4620.0,4169.743652,4241.025879,4246.666504,0.0,4.0,86.0,,,,0.0,4.0,0.0,4.0,4.0,4.0,66.666664,,,,,,,,,,,,,,,,,,,,,,,,,,,,,,,,,,,,,,,,,,,,,,,,,,,,,,10.0,0.0,1.0,0.0,512.0,1.0,,,,,,,,,,,,,,,,,,,,,,,,,
28407,1645491939.4677289,32.0,0.0,3824.615479,4589.743652,4187.692383,4191.282227000001,4243.589844,0.0,4.0,86.0,,,,0.0,4.0,0.0,4.0,4.0,4.0,66.666664,,,,,,,,16.0,0.0,0.579023,-0.165527,0.647461,0.467041,0.9111469999999999,-0.41455699999999995,-0.10693499999999999,-0.033701,-0.038449000000000004,-0.025427,,,,,,,,,,,,,,,,,,,,,,,,,,,,,,,,,,,,,,,,,,,,,,,,,,,,,,,,,,,,,,,,,
28408,1645491939.4756448,33.0,0.0,3829.2307130000004,4555.384765999999,4205.128418,4211.794922,4271.282227000001,0.0,4.0,86.0,,,,0.0,4.0,0.0,4.0,4.0,4.0,66.666664,,,,,,,,,,,,,,,,,,,,,,,,,,,,,,,,,,,,,,,,,,,,,,,,,,,,,,,,,,,,,,,,,,,,,,,,,,,,,,,,,,,,
28409,1645491939.483461,34.0,0.0,3809.2307130000004,4572.307617,4182.05127,4242.05127,4258.461426,0.0,4.0,86.0,,,,0.0,4.0,0.0,4.0,4.0,4.0,66.666664,,,,,,,,17.0,0.0,0.579023,-0.165527,0.647461,0.467041,0.917006,-0.410163,-0.113771,-0.033749,-0.03851,-0.027962,,,,,,,,,,,,,,,,,,,,,,,,,,,,,,,,,,,,,,,,,,,,,,,,,,,,,,,,,,,,,,,,,
28410,1645491939.491277,35.0,0.0,3775.384521,4593.846191,4136.410156,4161.025879,4192.307617,0.0,4.0,86.0,,,,0.0,4.0,0.0,4.0,4.0,4.0,66.666664,,,,,,,,,,,,,,,,,,,,1.0,0.0,0.0,,,,,,,,,,,,,,,,,,,,,,,,,,,,,,,,0.0,0.0,1.0,0.0,512.0,1.0,5795.956055,2763.808838,494.571075,213.94294700000003,28.015881,2104.644043,1369.723267,554.166199,62.049587,24.176081,153.989517,39.53083,19.137928,15.232057999999999,11.644011,608.332581,334.39013700000004,70.062088,31.765093,22.615084,3565.9487299999996,160.778809,66.742355,44.681404,27.272554
28411,1645491939.499093,36.0,0.0,3775.897461,4603.077147999999,4145.128418,4121.025879,4195.384765999999,0.0,4.0,86.0,,,,0.0,4.0,0.0,4.0,4.0,4.0,66.666664,,,,,,,,18.0,0.0,0.5788260000000001,-0.165527,0.647461,0.46728500000000006,0.9111469999999999,-0.41260399999999997,-0.10888800000000001,-0.033889999999999997,-0.038517,-0.030293,,,,,,,,,,,,,,,,,,,,,,,,,,,,,,,,,,,,,,,,,,,,,,,,,,,,,,,,,,,,,,,,,
28412,1645491939.506909,37.0,0.0,3837.4357909999994,4593.333496,4199.487305,4241.025879,4289.230957,0.0,4.0,86.0,,,,0.0,4.0,0.0,4.0,4.0,4.0,66.666664,,,,,,,,,,,,,,,,,,,,,,,,,,,,,,,,,,,,,,,,,,,,,,,,,,,,,,,,,,,,,,,,,,,,,,,,,,,,,,,,,,,,
28413,1645491939.514725,38.0,0.0,3907.179443,4575.897461,4233.333496,4335.897461,4342.563965,0.0,4.0,86.0,,,,0.0,4.0,0.0,4.0,4.0,4.0,66.666664,,,,,,,,19.0,0.0,0.578896,-0.16528299999999999,0.647461,0.46728500000000006,0.922377,-0.408698,-0.11816600000000001,-0.034016000000000005,-0.038474,-0.032537,,,,,,,,,,,,,,,,,,,,,,,,,,,,,,,,,,,,,,,,,,,,,,,,,,,,,,,,,,,,,,,,,
28414,1645491939.522542,39.0,0.0,3946.1538090000004,4568.717772999999,4237.94873,4295.384765999999,4354.358886999999,0.0,4.0,86.0,,,,0.0,4.0,0.0,4.0,4.0,4.0,66.666664,,,,,,,,,,,,,,,,,,,,,,,,,,,,,,,,,,,,,,,,,,,,,,,,,,,,,,10.0,0.0,1.0,0.0,512.0,1.0,,,,,,,,,,,,,,,,,,,,,,,,,
28415,1645491939.530358,40.0,0.0,3937.4357909999994,4584.615234000001,4226.153809,4251.794922,4354.871582,0.0,4.0,86.0,,,,0.0,4.0,0.0,4.0,4.0,4.0,66.666664,,,,,,,,20.0,0.0,0.5790930000000001,-0.16528299999999999,0.647461,0.467041,0.916518,-0.41992799999999997,-0.109865,-0.033886,-0.038582,-0.028013999999999997,,,,,,,,,,,,,,,,,,,,,,,,,,,,,,,,,,,,,,,,,,,,,,,,,,,,,,,,,,,,,,,,,
28416,1645491939.538174,41.0,0.0,3909.743652,4610.769043,4213.846191,4271.794922,4333.846191,0.0,4.0,86.0,,,,0.0,4.0,0.0,4.0,4.0,4.0,66.666664,,,,,,,,,,,,,,,,,,,,,,,,,,,,,,,,,,,,,,,,,,,,,,,,,,,,,,,,,,,,,,,,,,,,,,,,,,,,,,,,,,,,
28417,1645491939.54599,42.0,0.0,3943.076904,4601.538574,4238.974121,4311.282227000001,4367.692383,0.0,4.0,86.0,,,,0.0,4.0,0.0,4.0,4.0,4.0,66.666664,,,,,,,,21.0,0.0,0.5790930000000001,-0.16528299999999999,0.647461,0.467041,0.926284,-0.41358100000000003,-0.107424,-0.033916,-0.038532,-0.03034,,,,,,,,,,,,,,,,,,,,,,,,,,,,,,,,,,,,,,,,,,,,,,,,,,,,,,,,,,,,,,,,,
28418,1645491939.553906,43.0,0.0,3991.794922,4557.94873,4257.436035,4312.307617,4409.230957,0.0,4.0,86.0,,,,0.0,4.0,0.0,4.0,4.0,4.0,66.666664,,,,,,,,,,,,,,,,,,,,,,,,,,,,,,,,,,,,,,,,,,,,,,,,,,,,,,10.0,0.0,1.0,0.0,512.0,1.0,,,,,,,,,,,,,,,,,,,,,,,,,
28419,1645491939.561722,44.0,0.0,3941.025635,4559.487305,4205.128418,4248.205078,4332.820313,0.0,4.0,86.0,,,,0.0,4.0,0.0,4.0,4.0,4.0,66.666664,,,,,,,,22.0,0.0,0.57882,-0.16528299999999999,0.647705,0.467041,0.9087049999999999,-0.41895200000000005,-0.11084200000000001,-0.033942,-0.038536,-0.03253,,,,,,,,,,,,,,,,,,,,,,,,,,,,,,,,,,,,,,,,,,,,,,,,,,,,,,,,,,,,,,,,,
28420,1645491939.569538,45.0,0.0,3827.6923829999996,4610.256348,4134.871582,4154.358886999999,4211.794922,0.0,4.0,86.0,,,,0.0,4.0,0.0,4.0,4.0,4.0,66.666664,,,,,,,,,,,,,,,,,,,,,,,,,,,,,,,,,,,,,,,,,,,,,,,,,,,,,,,,,,,,,,,,,,,,,,,,,,,,,,,,,,,,
28421,1645491939.577354,46.0,0.0,3837.9487299999996,4614.871582,4155.384765999999,4152.307617,4222.563965,0.0,4.0,86.0,,,,0.0,4.0,0.0,4.0,4.0,4.0,66.666664,,,,,,,,23.0,0.0,0.57882,-0.16528299999999999,0.647705,0.467041,0.906264,-0.40381500000000004,-0.10547000000000001,-0.033917,-0.03854,-0.028203,,,,,,,,,,,,,,,,,,,,,,,,,,,,,,,,,,,,,,,,,,,,,,,,,,,,,,,,,,,,,,,,,
28422,1645491939.58517,47.0,0.0,3956.923096,4569.743652,4223.589844,4272.820313,4324.102539,0.0,4.0,86.0,,,,0.0,4.0,0.0,4.0,4.0,4.0,66.666664,,,,,,,,,,,,,,,,,,,,,,,,,,,,,,,,,,,,,,,,,,,,,,,,,,,,,,10.0,0.0,1.0,0.0,512.0,1.0,,,,,,,,,,,,,,,,,,,,,,,,,
28423,1645491939.5929859,48.0,0.0,3994.8718259999996,4564.102539,4231.282227000001,4316.410156,4347.692383,0.0,4.0,86.0,,,,0.0,4.0,0.0,4.0,4.0,4.0,66.666664,,,,,,,,24.0,0.0,0.5790930000000001,-0.16528299999999999,0.647461,0.467041,0.917006,-0.406744,-0.10547000000000001,-0.033895,-0.038544,-0.030656,,,,,,,,,,,,,,,,,,,,,,,,,,,,,,,,,,,,,,,,,,,,,,,,,,,,,,,,,,,,,,,,,
28424,1645491939.600802,49.0,0.0,3976.4101560000004,4603.077147999999,4213.333496,4266.666504,4332.820313,0.0,4.0,86.0,,,,0.0,4.0,0.0,4.0,4.0,4.0,66.666664,,,,,,,,,,,,,,,,,,,,,,,,,,,,,,,,,,,,,,,,,,,,,,,,,,,,,,,,,,,,,,,,,,,,,,,,,,,,,,,,,,,,
28425,1645491939.608618,50.0,0.0,4005.1281740000004,4593.333496,4229.743652,4302.05127,4382.05127,0.0,4.0,86.0,,,,0.0,4.0,0.0,4.0,4.0,4.0,66.666664,,,,,,,,25.0,0.0,0.57882,-0.16528299999999999,0.647705,0.467041,0.9087049999999999,-0.41895200000000005,-0.11084200000000001,-0.033923,-0.038547000000000005,-0.032815,,,,,,,,,,,,,,,,,,,,,,,,,,,,,,,,,,,,,,,,,,,,,,,,,,,,,,,,,,,,,,,,,
28426,1645491939.616434,51.0,0.0,4027.179443,4581.025879,4228.205078,4353.846191,4411.282227000001,0.0,4.0,86.0,,,,0.0,4.0,0.0,4.0,4.0,4.0,66.666664,1.0,0.0,0.0,0.0,1.0,0.0,0.0,,,,,,,,,,,,,1.0,0.0,0.0,,,,,,,,,,,,,,,,,,,,,,,,,,,,,,,,10.0,0.0,1.0,0.0,512.0,1.0,3901.476074,1777.973755,288.04608199999996,143.162323,20.441129999999998,1472.161499,926.1922,392.18267799999995,44.853642,20.248404,155.070129,35.276009,20.170734,13.622203,9.363133,560.512695,254.950241,69.602928,28.177,20.581478,2753.750732,132.986099,59.900326,38.055842999999996,20.527136
28427,1645491939.62435,52.0,0.0,3984.102539,4600.0,4187.692383,4271.282227000001,4339.487305,0.0,4.0,86.0,,,,0.0,4.0,0.0,4.0,4.0,4.0,66.666664,,,,,,,,26.0,0.0,0.5790930000000001,-0.16528299999999999,0.647461,0.467041,0.917006,-0.406744,-0.10547000000000001,-0.0339,-0.03855,-0.034807,,,,,,,,,,,,,,,,,,,,,,,,,,,,,,,,,,,,,,,,,,,,,,,,,,,,,,,,,,,,,,,,,
28428,1645491939.632166,53.0,0.0,3924.615479,4588.717772999999,4164.615234000001,4171.794922,4270.256348,0.0,4.0,86.0,,,,0.0,4.0,0.0,4.0,4.0,4.0,66.666664,,,,,,,,,,,,,,,,,,,,,,,,,,,,,,,,,,,,,,,,,,,,,,,,,,,,,,,,,,,,,,,,,,,,,,,,,,,,,,,,,,,,
28429,1645491939.639983,54.0,0.0,3914.8718259999996,4567.692383,4173.846191,4207.179688,4290.769043,0.0,4.0,86.0,,,,0.0,4.0,0.0,4.0,4.0,4.0,66.666664,,,,,,,,27.0,0.0,0.5790930000000001,-0.16528299999999999,0.647461,0.467041,0.9150530000000001,-0.417487,-0.101564,-0.03383,-0.038502999999999996,-0.036502,,,,,,,,,,,,,,,,,,,,,,,,,,,,,,,,,,,,,,,,,,,,,,,,,,,,,,,,,,,,,,,,,
28430,1645491939.647799,55.0,0.0,3962.5642090000006,4553.333496,4193.846191,4267.179688,4328.205078,0.0,4.0,86.0,,,,0.0,4.0,0.0,4.0,4.0,4.0,66.666664,,,,,,,,,,,,,,,,,,,,,,,,,,,,,,,,,,,,,,,,,,,,,,,,,,,,,,10.0,0.0,1.0,0.0,512.0,1.0,,,,,,,,,,,,,,,,,,,,,,,,,
28431,1645491939.655615,56.0,0.0,3983.076904,4551.794922,4198.461426,4232.820313,4318.461426,0.0,4.0,86.0,,,,0.0,4.0,0.0,4.0,4.0,4.0,66.666664,,,,,,,,28.0,0.0,0.578896,-0.16528299999999999,0.647461,0.46728500000000006,0.917006,-0.422858,-0.10693499999999999,-0.033865,-0.038462,-0.037979,,,,,,,,,,,,,,,,,,,,,,,,,,,,,,,,,,,,,,,,,,,,,,,,,,,,,,,,,,,,,,,,,
28432,1645491939.6634312,57.0,0.0,3910.256348,4578.461426,4154.871582,4156.410156,4254.358886999999,0.0,4.0,86.0,,,,0.0,4.0,0.0,4.0,4.0,4.0,66.666664,,,,,,,,,,,,,,,,,,,,,,,,,,,,,,,,,,,,,,,,,,,,,,,,,,,,,,,,,,,,,,,,,,,,,,,,,,,,,,,,,,,,
28433,1645491939.671247,58.0,0.0,3853.3332520000004,4576.922852000001,4109.743652,4127.179688,4188.717772999999,0.0,4.0,86.0,,,,0.0,4.0,0.0,4.0,4.0,4.0,66.666664,,,,,,,,29.0,0.0,0.578623,-0.16528299999999999,0.647705,0.46728500000000006,0.9243309999999999,-0.420417,-0.099123,-0.033946,-0.038473,-0.033107,,,,,,,,,,,,,,,,,,,,,,,,,,,,,,,,,,,,,,,,,,,,,,,,,,,,,,,,,,,,,,,,,
28434,1645491939.679063,59.0,0.0,3912.3076170000004,4551.282227000001,4154.358886999999,4167.692383,4223.589844,0.0,4.0,86.0,,,,0.0,4.0,0.0,4.0,4.0,4.0,66.666664,,,,,,,,,,,,,,,,,,,,,,,,,,,,,,,,,,,,,,,,,,,,,,,,,,,,,,0.0,0.0,1.0,0.0,512.0,1.0,,,,,,,,,,,,,,,,,,,,,,,,,
28435,1645491939.686879,60.0,0.0,3967.6923829999996,4579.487305,4191.282227000001,4192.307617,4287.179688,0.0,4.0,86.0,,,,0.0,4.0,0.0,4.0,4.0,4.0,66.666664,,,,,,,,30.0,0.0,0.578623,-0.16528299999999999,0.647705,0.46728500000000006,0.9116350000000001,-0.420417,-0.100587,-0.033969,-0.038337,-0.034972,,,,,,,,,,,,,,,,,,,,,,,,,,,,,,,,,,,,,,,,,,,,,,,,,,,,,,,,,,,,,,,,,
28436,1645491939.694695,61.0,0.0,3950.256348,4571.794922,4152.820313,4168.717772999999,4263.077147999999,0.0,4.0,86.0,,,,0.0,4.0,0.0,4.0,4.0,4.0,66.666664,,,,,,,,,,,,,,,,,,,,,,,,,,,,,,,,,,,,,,,,,,,,,,,,,,,,,,,,,,,,,,,,,,,,,,,,,,,,,,,,,,,,
28437,1645491939.702611,62.0,0.0,3966.6667479999996,4513.333496,4160.0,4163.589844,4252.820313,0.0,4.0,86.0,,,,0.0,4.0,0.0,4.0,4.0,4.0,66.666664,,,,,,,,31.0,0.0,0.57882,-0.16528299999999999,0.647705,0.467041,0.921889,-0.41358100000000003,-0.103029,-0.03399,-0.038312,-0.036601999999999996,,,,,,,,,,,,,,,,,,,,,,,,,,,,,,,,,,,,,,,,,,,,,,,,,,,,,,,,,,,,,,,,,
28438,1645491939.710427,63.0,0.0,4038.461426,4565.641113000001,4218.461426,4207.179688,4324.102539,0.0,4.0,86.0,,,,0.0,4.0,0.0,4.0,4.0,4.0,66.666664,,,,,,,,,,,,,,,,,,,,,,,,,,,,,,,,,,,,,,,,,,,,,,,,,,,,,,0.0,0.0,1.0,0.0,512.0,1.0,,,,,,,,,,,,,,,,,,,,,,,,,
28439,1645491939.718242,64.0,0.0,4070.7692869999996,4610.769043,4221.025879,4250.256348,4363.077147999999,450.0,4.0,86.0,,,,0.0,4.0,0.0,4.0,4.0,4.0,66.666664,,,,,,,,32.0,0.0,0.57875,-0.165527,0.647705,0.467041,0.9150530000000001,-0.422858,-0.101564,-0.034009,-0.038436,-0.038167,,,,,,,,,,,,,,,,,,,,,,,,,,,,,,,,,,,,,,,,,,,,,,,,,,,,,,,,,,,,,,,,,
28440,1645491939.726058,65.0,0.0,4055.384521,4558.461426,4199.487305,4271.282227000001,4351.282227000001,450.0,4.0,86.0,,,,0.0,4.0,0.0,4.0,4.0,4.0,66.666664,,,,,,,,,,,,,,,,,,,,,,,,,,,,,,,,,,,,,,,,,,,,,,,,,,,,,,,,,,,,,,,,,,,,,,,,,,,,,,,,,,,,
28441,1645491939.733874,66.0,0.0,4058.974365,4570.256348,4213.333496,4284.102539,4354.358886999999,16293.0,4.0,86.0,,,,0.0,4.0,0.0,4.0,4.0,4.0,66.666664,,,,,,,,33.0,0.0,0.57875,-0.165527,0.647705,0.467041,0.8964979999999999,-0.39942,-0.09668099999999999,-0.033929,-0.038401,-0.033276,,,,,,,,,,,,,,,,,,,,,,,,,,,,,,,,,,,,,,,,,,,,,,,,,,,,,,,,,,,,,,,,,
28442,1645491939.74169,67.0,0.0,4085.1281740000004,4600.0,4241.538574,4311.794922,4376.410156,450.0,4.0,86.0,,,,0.0,4.0,0.0,4.0,4.0,4.0,66.666664,,,,,,,,,,,,,,,,,,,,1.0,0.0,0.0,,,,,,,,,,,,,,,,,,,,,,,,,,,,,,,,0.0,0.0,1.0,0.0,512.0,1.0,2245.6826170000004,928.9072269999999,145.375656,82.664589,14.589519000000001,842.29657,506.06307999999996,229.520065,28.342789,15.961580999999999,149.629425,30.834362,22.161325,11.664907000000001,7.305599000000001,503.937042,173.889969,70.35668199999999,24.150604,18.359185999999998,1850.8848879999998,105.93071699999999,56.241665000000005,30.828196000000002,15.076709
28443,1645491939.749506,68.0,0.0,4112.307617,4557.94873,4263.589844,4364.615234000001,4412.820313,36.0,4.0,86.0,,,,0.0,4.0,0.0,4.0,4.0,4.0,66.666664,,,,,,,,34.0,0.0,0.578896,-0.16528299999999999,0.647461,0.46728500000000006,0.9121229999999999,-0.42676400000000003,-0.11035299999999999,-0.033954000000000005,-0.038516,-0.035222,,,,,,,,,,,,,,,,,,,,,,,,,,,,,,,,,,,,,,,,,,,,,,,,,,,,,,,,,,,,,,,,,
28444,1645491939.757422,69.0,0.0,4126.666504,4568.717772999999,4249.230957,4344.615234000001,4416.922852000001,450.0,4.0,86.0,,,,0.0,4.0,0.0,2.0,4.0,4.0,50.0,,,,,,,,,,,,,,,,,,,,,,,,,,,,,,,,,,,,,,,,,,,,,,,,,,,,,,,,,,,,,,,,,,,,,,,,,,,,,,,,,,,,
28445,1645491939.765238,70.0,0.0,4104.102539,4599.487305,4210.769043,4255.384765999999,4371.282227000001,300.0,4.0,86.0,,,,0.0,4.0,0.0,2.0,4.0,4.0,50.0,,,,,,,,35.0,0.0,0.5788260000000001,-0.165527,0.647461,0.46728500000000006,0.902358,-0.408698,-0.11035299999999999,-0.033976,-0.038619,-0.036924,,,,,,,,,,,,,,,,,,,,,,,,,,,,,,,,,,,,,,,,,,,,,,,,,,,,,,,,,,,,,,,,,
28446,1645491939.773055,71.0,0.0,4048.718018,4557.94873,4196.410156,4226.666504,4328.205078,450.0,4.0,86.0,,,,0.0,4.0,0.0,2.0,4.0,4.0,50.0,,,,,,,,,,,,,,,,,,,,,,,,,,,,,,,,,,,,,,,,,,,,,,,,,,,,,,0.0,0.0,1.0,0.0,512.0,1.0,,,,,,,,,,,,,,,,,,,,,,,,,
28447,1645491939.7808712,72.0,0.0,4038.461426,4548.205078,4206.153809,4251.794922,4323.077147999999,450.0,4.0,86.0,,,,0.0,4.0,0.0,2.0,4.0,4.0,50.0,,,,,,,,36.0,0.0,0.578896,-0.16528299999999999,0.647461,0.46728500000000006,0.9038219999999999,-0.407233,-0.099611,-0.033948,-0.038615,-0.038505000000000005,,,,,,,,,,,,,,,,,,,,,,,,,,,,,,,,,,,,,,,,,,,,,,,,,,,,,,,,,,,,,,,,,
28448,1645491939.788687,73.0,0.0,4105.641113000001,4611.794922,4226.666504,4274.871582,4382.563965,16188.0,4.0,86.0,,,,0.0,4.0,0.0,2.0,4.0,4.0,50.0,,,,,,,,,,,,,,,,,,,,,,,,,,,,,,,,,,,,,,,,,,,,,,,,,,,,,,,,,,,,,,,,,,,,,,,,,,,,,,,,,,,,
28449,1645491939.796504,74.0,0.0,4173.846191,4610.769043,4250.256348,4313.846191,4469.743652,450.0,4.0,86.0,,,,0.0,4.0,0.0,2.0,4.0,4.0,50.0,,,,,,,,37.0,0.0,0.578896,-0.16528299999999999,0.647461,0.46728500000000006,0.9052870000000001,-0.41651000000000005,-0.102052,-0.033922,-0.038611,-0.033678,,,,,,,,,,,,,,,,,,,,,,,,,,,,,,,,,,,,,,,,,,,,,,,,,,,,,,,,,,,,,,,,,
28450,1645491939.8043199,75.0,0.0,4218.974121,4545.128418,4267.692383,4374.358886999999,4503.589844,16221.0,4.0,86.0,,,,0.0,4.0,0.0,2.0,4.0,4.0,50.0,,,,,,,,,,,,,,,,,,,,,,,,,,,,,,,,,,,,,,,,,,,,,,,,,,,,,,0.0,0.0,1.0,0.0,512.0,1.0,,,,,,,,,,,,,,,,,,,,,,,,,
28451,1645491939.812136,76.0,0.0,4228.205078,4560.512695,4269.230957,4376.922852000001,4481.025879,450.0,4.0,86.0,,,,0.0,4.0,0.0,2.0,4.0,4.0,50.0,,,,,,,,38.0,0.0,0.578896,-0.16528299999999999,0.647461,0.46728500000000006,0.918959,-0.42236999999999997,-0.107424,-0.033899,-0.038656,-0.029334,,,,,,,,,,,,,,,,,,,,,,,,,,,,,,,,,,,,,,,,,,,,,,,,,,,,,,,,,,,,,,,,,
28452,1645491939.819953,77.0,0.0,4174.871582,4629.230957,4246.666504,4326.666504,4453.846191,450.0,4.0,86.0,,,,0.0,4.0,0.0,2.0,4.0,4.0,50.0,,,,,,,,,,,,,,,,,,,,,,,,,,,,,,,,,,,,,,,,,,,,,,,,,,,,,,,,,,,,,,,,,,,,,,,,,,,,,,,,,,,,
28453,1645491939.827769,78.0,0.0,4165.128418,4602.563965,4251.282227000001,4332.307617,4455.384765999999,450.0,4.0,86.0,,,,0.0,4.0,0.0,2.0,4.0,4.0,50.0,,,,,,,,39.0,0.0,0.578965,-0.16503900000000002,0.647461,0.46728500000000006,0.914076,-0.417975,-0.1084,-0.03383,-0.038599,-0.031625,,,,,,,,,,,,,,,,,,,,,,,,,,,,,,,,,,,,,,,,,,,,,,,,,,,,,,,,,,,,,,,,,
28454,1645491939.835685,79.0,0.0,4243.077147999999,4540.512695,4283.077147999999,4381.025879,4486.153809,16221.0,4.0,86.0,,,,0.0,4.0,0.0,2.0,4.0,4.0,50.0,,,,,,,,,,,,,,,,,,,,,,,,,,,,,,,,,,,,,,,,,,,,,,,,,,,,,,0.0,0.0,1.0,0.0,512.0,1.0,,,,,,,,,,,,,,,,,,,,,,,,,
28455,1645491939.843501,80.0,0.0,4189.743652,4545.128418,4230.256348,4309.743652,4421.025879,450.0,4.0,86.0,,,,0.0,4.0,0.0,2.0,4.0,4.0,50.0,,,,,,,,40.0,0.0,0.578965,-0.16503900000000002,0.647461,0.46728500000000006,0.9091940000000001,-0.410163,-0.1084,-0.033962,-0.038597,-0.033638,,,,,,,,,,,,,,,,,,,,,,,,,,,,,,,,,,,,,,,,,,,,,,,,,,,,,,,,,,,,,,,,,
28456,1645491939.851317,81.0,0.0,4062.5642090000006,4578.461426,4163.589844,4208.717772999999,4326.666504,450.0,4.0,86.0,,,,0.0,4.0,0.0,2.0,4.0,4.0,50.0,,,,,,,,,,,,,,,,,,,,,,,,,,,,,,,,,,,,,,,,,,,,,,,,,,,,,,,,,,,,,,,,,,,,,,,,,,,,,,,,,,,,
28457,1645491939.859133,82.0,0.0,4086.6667479999996,4613.846191,4194.871582,4229.743652,4344.615234000001,450.0,4.0,86.0,,,,0.0,4.0,0.0,2.0,4.0,4.0,50.0,,,,,,,,41.0,0.0,0.578965,-0.16503900000000002,0.647461,0.46728500000000006,0.910658,-0.41113900000000003,-0.107912,-0.034033,-0.038643000000000004,-0.029249,,,,,,,,,,,,,,,,,,,,,,,,,,,,,,,,,,,,,,,,,,,,,,,,,,,,,,,,,,,,,,,,,
28458,1645491939.866949,83.0,0.0,4085.1281740000004,4593.333496,4189.230957,4186.153809,4304.102539,16221.0,4.0,86.0,,,,0.0,4.0,0.0,2.0,4.0,4.0,50.0,,,,,,,,,,,,,,,,,,,,1.0,0.0,0.0,,,,,,,,,,,,,,,,,,,,,,,,,,,,,,,,0.0,0.0,1.0,0.0,512.0,1.0,1137.5469970000001,380.85907000000003,74.739677,43.456641999999995,11.105630999999999,373.72171000000003,207.715195,107.677681,16.704242999999998,12.503351,137.064285,27.147471999999997,23.846056,9.851439,5.79777,442.64349400000003,111.41579399999999,71.21775799999999,20.658434,16.154766,1096.424561,83.941742,54.469584999999995,24.817169,11.80626
28459,1645491939.8747652,84.0,0.0,3933.3332520000004,4504.102539,4096.410156,4043.076904,4157.436035,450.0,4.0,86.0,,,,0.0,4.0,0.0,2.0,4.0,4.0,50.0,,,,,,,,42.0,0.0,0.579238,-0.16503900000000002,0.647217,0.46728500000000006,0.913588,-0.41455699999999995,-0.12255999999999999,-0.033901,-0.038489999999999996,-0.0315,,,,,,,,,,,,,,,,,,,,,,,,,,,,,,,,,,,,,,,,,,,,,,,,,,,,,,,,,,,,,,,,,
28460,1645491939.882581,85.0,0.0,3857.4357909999994,4487.692383,4063.5898439999996,4009.743652,4100.512695,450.0,4.0,86.0,,,,0.0,4.0,0.0,2.0,4.0,4.0,50.0,,,,,,,,,,,,,,,,,,,,,,,,,,,,,,,,,,,,,,,,,,,,,,,,,,,,,,,,,,,,,,,,,,,,,,,,,,,,,,,,,,,,
28461,1645491939.890397,86.0,0.0,3922.0512700000004,4536.410156,4098.461426,4044.102539,4128.205078,450.0,4.0,86.0,,,,0.0,4.0,0.0,2.0,4.0,4.0,50.0,,,,,,,,43.0,0.0,0.579238,-0.16503900000000002,0.647217,0.46728500000000006,0.9121229999999999,-0.416022,-0.11572400000000001,-0.03388,-0.038498000000000004,-0.033477,,,,,,,,,,,,,,,,,,,,,,,,,,,,,,,,,,,,,,,,,,,,,,,,,,,,,,,,,,,,,,,,,
28462,1645491939.8982131,87.0,0.0,3939.487061,4515.384765999999,4111.794922,4013.8461909999996,4128.205078,16221.0,4.0,86.0,,,,0.0,4.0,0.0,2.0,4.0,4.0,50.0,,,,,,,,,,,,,,,,,,,,,,,,,,,,,,,,,,,,,,,,,,,,,,,,,,,,,,10.0,0.0,1.0,0.0,512.0,1.0,,,,,,,,,,,,,,,,,,,,,,,,,
28463,1645491939.906129,88.0,0.0,3921.025635,4509.230957,4125.128418,4029.2307130000004,4169.743652,450.0,4.0,86.0,,,,0.0,4.0,0.0,2.0,4.0,4.0,50.0,,,,,,,,44.0,0.0,0.579308,-0.164795,0.647217,0.46728500000000006,0.9131,-0.41846300000000003,-0.11914200000000001,-0.03391,-0.038457,-0.035207999999999996,,,,,,,,,,,,,,,,,,,,,,,,,,,,,,,,,,,,,,,,,,,,,,,,,,,,,,,,,,,,,,,,,
28464,1645491939.913945,89.0,0.0,3982.0512700000004,4570.769043,4167.179688,4126.666504,4252.820313,450.0,4.0,86.0,,,,0.0,4.0,0.0,2.0,4.0,4.0,50.0,,,,,,,,,,,,,,,,,,,,,,,,,,,,,,,,,,,,,,,,,,,,,,,,,,,,,,,,,,,,,,,,,,,,,,,,,,,,,,,,,,,,
28465,1645491939.921762,90.0,0.0,4054.358887,4547.692383,4186.666504,4163.077147999999,4277.94873,450.0,4.0,86.0,,,,0.0,4.0,0.0,2.0,4.0,4.0,50.0,,,,,,,,45.0,0.0,0.579308,-0.164795,0.647217,0.46728500000000006,0.902358,-0.41944,-0.11230599999999999,-0.033986,-0.038419999999999996,-0.036814,,,,,,,,,,,,,,,,,,,,,,,,,,,,,,,,,,,,,,,,,,,,,,,,,,,,,,,,,,,,,,,,,
28466,1645491939.9295778,91.0,0.0,4063.5898439999996,4493.846191,4176.922852000001,4146.153809,4280.512695,16221.0,4.0,86.0,,,,0.0,4.0,0.0,2.0,4.0,4.0,50.0,,,,,,,,,,,,,,,,,,,,,,,,,,,,,,,,,,,,,,,,,,,,,,,,,,,,,,10.0,0.0,1.0,0.0,512.0,1.0,,,,,,,,,,,,,,,,,,,,,,,,,
28467,1645491939.937394,92.0,0.0,4065.641113,4537.436035,4173.333496,4179.487305,4305.128418,450.0,4.0,86.0,,,,0.0,4.0,0.0,2.0,4.0,4.0,50.0,,,,,,,,46.0,0.0,0.579308,-0.164795,0.647217,0.46728500000000006,0.9184709999999999,-0.42188100000000006,-0.111818,-0.034006,-0.038387,-0.038308,,,,,,,,,,,,,,,,,,,,,,,,,,,,,,,,,,,,,,,,,,,,,,,,,,,,,,,,,,,,,,,,,
28468,1645491939.94521,93.0,0.0,4109.230957,4587.692383,4186.153809,4231.794922,4327.692383,450.0,4.0,86.0,,,,0.0,4.0,0.0,2.0,4.0,4.0,50.0,,,,,,,,,,,,,,,,,,,,,,,,,,,,,,,,,,,,,,,,,,,,,,,,,,,,,,,,,,,,,,,,,,,,,,,,,,,,,,,,,,,,
28469,1645491939.953026,94.0,0.0,4101.025879,4553.846191,4174.871582,4181.025879,4299.487305,450.0,4.0,86.0,,,,0.0,4.0,0.0,2.0,4.0,4.0,50.0,,,,,,,,47.0,0.0,0.579505,-0.164795,0.647217,0.467041,0.909682,-0.403326,-0.114748,-0.033925,-0.038406,-0.039702,,,,,,,,,,,,,,,,,,,,,,,,,,,,,,,,,,,,,,,,,,,,,,,,,,,,,,,,,,,,,,,,,
28470,1645491939.960842,95.0,0.0,4063.076904,4528.205078,4160.512695,4137.436035,4275.897461,16221.0,4.0,86.0,,,,0.0,4.0,0.0,2.0,4.0,4.0,50.0,,,,,,,,,,,,,,,,,,,,,,,,,,,,,,,,,,,,,,,,,,,,,,,,,,,,,,10.0,0.0,1.0,0.0,512.0,1.0,,,,,,,,,,,,,,,,,,,,,,,,,
28471,1645491939.968658,96.0,0.0,4083.5898439999996,4550.256348,4175.897461,4189.230957,4293.333496,450.0,4.0,86.0,,,,0.0,4.0,0.0,2.0,4.0,4.0,50.0,,,,,,,,48.0,0.0,0.579505,-0.164795,0.647217,0.467041,0.914565,-0.41699899999999995,-0.12060699999999999,-0.033852999999999994,-0.038276,-0.034707,,,,,,,,,,,,,,,,,,,,,,,,,,,,,,,,,,,,,,,,,,,,,,,,,,,,,,,,,,,,,,,,,
28472,1645491939.976574,97.0,0.0,4119.487305,4544.102539,4194.358886999999,4207.179688,4304.615234000001,450.0,4.0,86.0,,,,0.0,4.0,0.0,2.0,4.0,4.0,50.0,,,,,,,,,,,,,,,,,,,,,,,,,,,,,,,,,,,,,,,,,,,,,,,,,,,,,,,,,,,,,,,,,,,,,,,,,,,,,,,,,,,,
28473,1645491939.984391,98.0,0.0,4155.384765999999,4542.563965,4210.256348,4219.487305,4340.0,450.0,4.0,86.0,,,,0.0,4.0,0.0,2.0,4.0,4.0,50.0,,,,,,,,49.0,0.0,0.579701,-0.164795,0.647217,0.466797,0.922866,-0.400397,-0.11425999999999999,-0.033691000000000006,-0.038355,-0.036412,,,,,,,,,,,,,,,,,,,,,,,,,,,,,,,,,,,,,,,,,,,,,,,,,,,,,,,,,,,,,,,,,
28474,1645491939.992207,99.0,0.0,4188.717772999999,4562.563965,4222.563965,4290.769043,4386.666504,16221.0,4.0,86.0,,,,0.0,4.0,0.0,2.0,4.0,4.0,50.0,,,,,,,,,,,,,,,,,,,,1.0,0.0,0.0,,,,,,,,,,,,,,,,,,,,,,,,,,,,,,,,10.0,0.0,1.0,0.0,512.0,1.0,562.208557,135.964981,52.689259,25.107847,9.653936999999999,120.16442099999999,56.175339,41.090477,11.091353999999999,10.384076,118.89283799999998,25.33205,24.080082,8.5487,4.918634,377.534851,77.513588,70.166031,18.451470999999998,14.277623,607.286804,70.744667,52.134956,21.072275,10.624457000000001
28475,1645491940.000123,100.0,0.0,4184.615234000001,4531.282227000001,4218.461426,4290.256348,4363.077147999999,450.0,4.0,86.0,,,,0.0,4.0,0.0,2.0,4.0,4.0,50.0,,,,,,,,50.0,0.0,0.5793590000000001,-0.16503900000000002,0.647461,0.466797,0.934585,-0.409674,-0.11572400000000001,-0.033642,-0.038377,-0.037995,,,,,,,,,,,,,,,,,,,,,,,,,,,,,,,,,,,,,,,,,,,,,,,,,,,,,,,,,,,,,,,,,
28476,1645491940.007939,101.0,0.0,4108.205078,4485.641113000001,4162.05127,4153.333496,4270.769043,450.0,4.0,86.0,,,,0.0,4.0,0.0,2.0,4.0,4.0,50.0,,,,,,,,,,,,,,,,,,,,,,,,,,,,,,,,,,,,,,,,,,,,,,,,,,,,,,,,,,,,,,,,,,,,,,,,,,,,,,,,,,,,
28477,1645491940.0157552,102.0,0.0,3981.025635,4509.743652,4068.205078,4021.538574,4159.487305,450.0,4.0,86.0,,,,0.0,4.0,0.0,2.0,4.0,4.0,50.0,,,,,,,,51.0,0.0,0.5793590000000001,-0.16503900000000002,0.647461,0.466797,0.9121229999999999,-0.39697899999999997,-0.107912,-0.033598,-0.038348,-0.03317,,,,,,,,,,,,,,,,,,,,,,,,,,,,,,,,,,,,,,,,,,,,,,,,,,,,,,,,,,,,,,,,,
28478,1645491940.0236712,103.0,0.0,3958.461426,4545.128418,4068.718018,4043.5898439999996,4135.897461,16221.0,4.0,86.0,,,,0.0,4.0,0.0,2.0,4.0,4.0,50.0,,,,,,,,,,,,,,,,,,,,,,,,,,,,,,,,,,,,,,,,,,,,,,,,,,,,,,10.0,0.0,1.0,0.0,512.0,1.0,,,,,,,,,,,,,,,,,,,,,,,,,
28479,1645491940.031487,104.0,0.0,4065.1281740000004,4503.077147999999,4167.179688,4154.871582,4226.153809,450.0,4.0,86.0,,,,0.0,4.0,0.0,2.0,4.0,4.0,50.0,,,,,,,,52.0,0.0,0.579086,-0.16503900000000002,0.647705,0.466797,0.905776,-0.415534,-0.09131,-0.033754,-0.038322,-0.034932,,,,,,,,,,,,,,,,,,,,,,,,,,,,,,,,,,,,,,,,,,,,,,,,,,,,,,,,,,,,,,,,,
28480,1645491940.0393028,105.0,0.0,4089.2307130000004,4444.102539,4182.05127,4164.102539,4260.512695,450.0,4.0,86.0,,,,0.0,4.0,0.0,2.0,4.0,4.0,50.0,,,,,,,,,,,,,,,,,,,,,,,,,,,,,,,,,,,,,,,,,,,,,,,,,,,,,,,,,,,,,,,,,,,,,,,,,,,,,,,,,,,,
28481,1645491940.047119,106.0,0.0,3992.3076170000004,4447.179688,4105.128418,4088.205078,4176.922852000001,450.0,4.0,86.0,,,,0.0,4.0,0.0,2.0,4.0,4.0,50.0,,,,,,,,53.0,0.0,0.5793590000000001,-0.16503900000000002,0.647461,0.466797,0.934585,-0.409674,-0.11572400000000001,-0.033797,-0.038347000000000006,-0.030462,,,,,,,,,,,,,,,,,,,,,,,,,,,,,,,,,,,,,,,,,,,,,,,,,,,,,,,,,,,,,,,,,
28482,1645491940.0550349,107.0,0.0,3937.4357909999994,4508.717772999999,4082.5642090000006,4064.615479,4107.692383,16221.0,4.0,86.0,,,,0.0,4.0,0.0,2.0,4.0,4.0,50.0,,,,,,,,,,,,,,,,,,,,,,,,,,,,,,,,,,,,,,,,,,,,,,,,,,,,,,0.0,0.0,1.0,0.0,512.0,1.0,,,,,,,,,,,,,,,,,,,,,,,,,
28483,1645491940.062851,108.0,0.0,3964.102539,4545.128418,4125.128418,4071.794922,4122.563965,450.0,4.0,86.0,,,,0.0,4.0,0.0,2.0,4.0,4.0,50.0,,,,,,,,54.0,0.0,0.579086,-0.16503900000000002,0.647705,0.466797,0.905776,-0.415534,-0.09131,-0.033933,-0.038321,-0.032494,,,,,,,,,,,,,,,,,,,,,,,,,,,,,,,,,,,,,,,,,,,,,,,,,,,,,,,,,,,,,,,,,
28484,1645491940.070667,109.0,0.0,4056.923096,4530.256348,4175.897461,4114.358886999999,4216.922852000001,450.0,4.0,86.0,,,,0.0,4.0,0.0,2.0,4.0,4.0,50.0,,,,,,,,,,,,,,,,,,,,,,,,,,,,,,,,,,,,,,,,,,,,,,,,,,,,,,,,,,,,,,,,,,,,,,,,,,,,,,,,,,,,
28485,1645491940.078483,110.0,0.0,4107.179688,4508.717772999999,4175.384765999999,4162.563965,4273.333496,450.0,4.0,86.0,,,,0.0,4.0,0.0,2.0,4.0,4.0,50.0,,,,,,,,55.0,0.0,0.579017,-0.16528299999999999,0.647705,0.466797,0.910658,-0.41944,-0.098146,-0.033811,-0.038249,-0.034469,,,,,,,,,,,,,,,,,,,,,,,,,,,,,,,,,,,,,,,,,,,,,,,,,,,,,,,,,,,,,,,,,
28486,1645491940.086299,111.0,0.0,4048.205078,4512.820313,4133.846191,4110.256348,4214.871582,16221.0,4.0,86.0,,,,0.0,4.0,0.0,2.0,4.0,4.0,50.0,,,,,,,,,,,,,,,,,,,,,,,,,,,,,,,,,,,,,,,,,,,,,,,,,,,,,,0.0,0.0,1.0,0.0,512.0,1.0,,,,,,,,,,,,,,,,,,,,,,,,,
28487,1645491940.094116,112.0,0.0,4056.4101560000004,4556.922852000001,4155.897461,4065.1281740000004,4193.333496,450.0,4.0,86.0,,,,0.0,4.0,0.0,2.0,4.0,4.0,50.0,,,,,,,,56.0,0.0,0.579017,-0.16528299999999999,0.647705,0.466797,0.9160299999999999,-0.404791,-0.1084,-0.03375,-0.038232,-0.029899000000000002,,,,,,,,,,,,,,,,,,,,,,,,,,,,,,,,,,,,,,,,,,,,,,,,,,,,,,,,,,,,,,,,,
28488,1645491940.101932,113.0,0.0,4083.076904,4584.102539,4165.641113000001,4095.384521,4209.230957,450.0,4.0,86.0,,,,0.0,4.0,0.0,2.0,4.0,4.0,50.0,,,,,,,,,,,,,,,,,,,,,,,,,,,,,,,,,,,,,,,,,,,,,,,,,,,,,,,,,,,,,,,,,,,,,,,,,,,,,,,,,,,,
28489,1645491940.1097481,114.0,0.0,4018.461426,4575.897461,4114.358886999999,4092.3076170000004,4162.05127,450.0,4.0,86.0,,,,0.0,4.0,0.0,2.0,4.0,4.0,50.0,,,,,,,,57.0,0.0,0.578889,-0.16503900000000002,0.647705,0.467041,0.9209129999999999,-0.422858,-0.104005,-0.033694999999999996,-0.038363999999999995,-0.032133999999999996,,,,,,,,,,,,,,,,,,,,,,,,,,,,,,,,,,,,,,,,,,,,,,,,,,,,,,,,,,,,,,,,,
28490,1645491940.117564,115.0,0.0,4077.9487299999996,4600.0,4159.487305,4143.077147999999,4206.666504,16221.0,4.0,86.0,,,,0.0,4.0,0.0,2.0,4.0,4.0,50.0,1.0,0.0,0.0,0.0,1.0,0.0,0.0,,,,,,,,,,,,,1.0,0.0,0.0,,,,,,,,,,,,,,,,,,,,,,,,,,,,,,,,0.0,0.0,1.0,0.0,512.0,1.0,337.994171,75.064835,48.181507,19.479155,9.429893,33.446224,10.130198,17.658870999999998,9.798572,9.441402,98.599686,25.31925,22.687029000000003,7.85003,4.559848000000001,311.07739300000003,68.42485,66.403198,17.740431,13.003947,365.61105299999997,66.796021,48.235424,19.564594,10.784778999999999
28491,1645491940.12538,116.0,0.0,4221.538574,4619.487305,4251.282227000001,4249.230957,4328.717772999999,450.0,4.0,86.0,,,,0.0,4.0,0.0,2.0,4.0,4.0,50.0,,,,,,,,58.0,0.0,0.578616,-0.16503900000000002,0.647949,0.467041,0.908217,-0.41113900000000003,-0.11230599999999999,-0.033645999999999995,-0.038337,-0.027846,,,,,,,,,,,,,,,,,,,,,,,,,,,,,,,,,,,,,,,,,,,,,,,,,,,,,,,,,,,,,,,,,
28492,1645491940.133296,117.0,0.0,4205.128418,4584.102539,4234.358886999999,4249.743652,4331.794922,450.0,4.0,86.0,,,,0.0,4.0,0.0,2.0,4.0,4.0,50.0,,,,,,,,,,,,,,,,,,,,,,,,,,,,,,,,,,,,,,,,,,,,,,,,,,,,,,,,,,,,,,,,,,,,,,,,,,,,,,,,,,,,
28493,1645491940.141111,118.0,0.0,4130.769043,4555.384765999999,4193.333496,4201.025879,4261.025879,450.0,4.0,86.0,,,,0.0,4.0,0.0,2.0,4.0,4.0,50.0,,,,,,,,59.0,0.0,0.578546,-0.16528299999999999,0.647949,0.467041,0.9160299999999999,-0.41406899999999996,-0.093263,-0.033553,-0.038360000000000005,-0.030188999999999997,,,,,,,,,,,,,,,,,,,,,,,,,,,,,,,,,,,,,,,,,,,,,,,,,,,,,,,,,,,,,,,,,
28494,1645491940.148927,119.0,0.0,4160.0,4555.384765999999,4216.410156,4207.179688,4252.307617,16221.0,4.0,86.0,,,,0.0,4.0,0.0,2.0,4.0,4.0,50.0,,,,,,,,,,,,,,,,,,,,,,,,,,,,,,,,,,,,,,,,,,,,,,,,,,,,,,0.0,0.0,1.0,0.0,512.0,1.0,,,,,,,,,,,,,,,,,,,,,,,,,
28495,1645491940.156743,120.0,0.0,4206.153809,4555.384765999999,4229.230957,4215.897461,4286.666504,450.0,4.0,86.0,,,,0.0,4.0,0.0,2.0,4.0,4.0,50.0,,,,,,,,60.0,0.0,0.578546,-0.16528299999999999,0.647949,0.467041,0.9121229999999999,-0.41113900000000003,-0.092775,-0.033616,-0.038431,-0.032346,,,,,,,,,,,,,,,,,,,,,,,,,,,,,,,,,,,,,,,,,,,,,,,,,,,,,,,,,,,,,,,,,
28496,1645491940.164559,121.0,0.0,4165.641113000001,4557.94873,4192.820313,4170.256348,4265.128418,450.0,4.0,86.0,,,,0.0,4.0,0.0,2.0,4.0,4.0,50.0,,,,,,,,,,,,,,,,,,,,,,,,,,,,,,,,,,,,,,,,,,,,,,,,,,,,,,,,,,,,,,,,,,,,,,,,,,,,,,,,,,,,
28497,1645491940.172375,122.0,0.0,4066.1538090000004,4553.846191,4129.230957,4068.718018,4165.128418,450.0,4.0,86.0,,,,0.0,4.0,0.0,2.0,4.0,4.0,50.0,,,,,,,,61.0,0.0,0.578546,-0.16528299999999999,0.647949,0.467041,0.9028459999999999,-0.41406899999999996,-0.09424,-0.033672,-0.038396,-0.034238,,,,,,,,,,,,,,,,,,,,,,,,,,,,,,,,,,,,,,,,,,,,,,,,,,,,,,,,,,,,,,,,,
28498,1645491940.180191,123.0,0.0,4019.487061,4578.461426,4104.615234000001,4001.025635,4098.461426,16221.0,4.0,86.0,,,,0.0,4.0,0.0,2.0,4.0,4.0,50.0,,,,,,,,,,,,,,,,,,,,,,,,,,,,,,,,,,,,,,,,,,,,,,,,,,,,,,0.0,0.0,1.0,0.0,512.0,1.0,,,,,,,,,,,,,,,,,,,,,,,,,
28499,1645491940.1880062,124.0,0.0,4017.9487299999996,4602.563965,4110.256348,4020.0,4096.922852000001,450.0,4.0,86.0,,,,0.0,4.0,0.0,2.0,4.0,4.0,50.0,,,,,,,,62.0,0.0,0.578889,-0.16503900000000002,0.647705,0.467041,0.9028459999999999,-0.417487,-0.101076,-0.033723,-0.038316,-0.029691000000000002,,,,,,,,,,,,,,,,,,,,,,,,,,,,,,,,,,,,,,,,,,,,,,,,,,,,,,,,,,,,,,,,,
28500,1645491940.195923,125.0,0.0,3989.2307130000004,4563.589844,4097.436035,4041.538574,4087.179443,450.0,4.0,86.0,,,,0.0,4.0,0.0,2.0,4.0,4.0,50.0,,,,,,,,,,,,,,,,,,,,,,,,,,,,,,,,,,,,,,,,,,,,,,,,,,,,,,,,,,,,,,,,,,,,,,,,,,,,,,,,,,,,
28501,1645491940.2037392,126.0,0.0,4024.102539,4568.205078,4120.512695,4049.2307130000004,4107.179688,450.0,4.0,86.0,,,,0.0,4.0,0.0,2.0,4.0,4.0,50.0,,,,,,,,63.0,0.0,0.578965,-0.16503900000000002,0.647461,0.46728500000000006,0.9131,-0.42188100000000006,-0.102052,-0.033818,-0.038245,-0.031849,,,,,,,,,,,,,,,,,,,,,,,,,,,,,,,,,,,,,,,,,,,,,,,,,,,,,,,,,,,,,,,,,
28502,1645491940.211555,127.0,0.0,4129.743652,4607.179688,4187.692383,4113.333496,4175.897461,241.0,4.0,86.0,,,,0.0,4.0,0.0,2.0,4.0,4.0,50.0,,,,,,,,,,,,,,,,,,,,,,,,,,,,,,,,,,,,,,,,,,,,,,,,,,,,,,10.0,0.0,1.0,0.0,512.0,1.0,,,,,,,,,,,,,,,,,,,,,,,,,
28503,1645491940.219372,0.0,0.0,4163.589844,4585.641113000001,4208.205078,4186.153809,4214.871582,450.0,4.0,86.0,,,,0.0,4.0,0.0,2.0,4.0,4.0,50.0,,,,,,,,0.0,0.0,0.5790350000000001,-0.164795,0.647461,0.46728500000000006,0.901381,-0.424811,-0.109865,-0.033658999999999994,-0.038326,-0.033839999999999995,,,,,,,,,,,,,,,,,,,,,,,,,,,,,,,,,,,,,,,,,,,,,,,,,,,,,,,,,,,,,,,,,
28504,1645491940.227188,1.0,0.0,4154.358886999999,4606.153809,4190.769043,4183.077147999999,4221.025879,450.0,4.0,86.0,,,,0.0,4.0,0.0,2.0,4.0,4.0,50.0,,,,,,,,,,,,,,,,,,,,,,,,,,,,,,,,,,,,,,,,,,,,,,,,,,,,,,,,,,,,,,,,,,,,,,,,,,,,,,,,,,,,
28505,1645491940.235004,2.0,0.0,4203.589844,4661.538574,4206.153809,4157.94873,4240.0,16254.0,4.0,86.0,,,,0.0,4.0,0.0,2.0,4.0,4.0,50.0,,,,,,,,1.0,0.0,0.579104,-0.164551,0.647461,0.46728500000000006,0.9131,-0.416022,-0.10254100000000001,-0.033711,-0.038301999999999996,-0.029283999999999998,,,,,,,,,,,,,,,,,,,,,,,,,,,,,,,,,,,,,,,,,,,,,,,,,,,,,,,,,,,,,,,,,
28506,1645491940.242821,3.0,0.0,4254.358886999999,4628.205078,4232.820313,4197.436035,4273.333496,450.0,4.0,86.0,,,,0.0,4.0,0.0,2.0,4.0,4.0,50.0,,,,,,,,,,,,,,,,,,,,1.0,0.0,0.0,,,,,,,,,,,,,,,,,,,,,,,,,,,,,,,,10.0,0.0,1.0,0.0,512.0,1.0,269.692627,72.485359,43.529185999999996,18.163397,9.835283,20.356119,5.798903,13.367308,10.035045,9.16778,80.308128,26.260468,20.204744,7.565549000000001,4.571115,253.11622599999998,72.707092,60.168022,18.019138,12.499019,273.074829,70.448044,43.095116,19.322905,11.471174000000001
28507,1645491940.2506368,4.0,0.0,4221.538574,4577.436035,4224.102539,4240.0,4280.0,11.0,4.0,86.0,,,,0.0,4.0,0.0,2.0,4.0,4.0,50.0,,,,,,,,2.0,0.0,0.579371,-0.16430699999999998,0.647461,0.467041,0.916518,-0.425299,-0.113771,-0.033708999999999996,-0.038281,-0.031483,,,,,,,,,,,,,,,,,,,,,,,,,,,,,,,,,,,,,,,,,,,,,,,,,,,,,,,,,,,,,,,,,
28508,1645491940.258453,5.0,0.0,4174.871582,4584.615234000001,4197.436035,4205.641113000001,4244.615234000001,450.0,4.0,86.0,,,,0.0,4.0,0.0,2.0,4.0,4.0,50.0,,,,,,,,,,,,,,,,,,,,,,,,,,,,,,,,,,,,,,,,,,,,,,,,,,,,,,,,,,,,,,,,,,,,,,,,,,,,,,,,,,,,
28509,1645491940.266269,6.0,0.0,4142.563965,4567.692383,4156.922852000001,4119.487305,4172.820313,305.0,4.0,86.0,,,,0.0,4.0,0.0,2.0,4.0,4.0,50.0,,,,,,,,3.0,0.0,0.579371,-0.16430699999999998,0.647461,0.467041,0.921401,-0.413092,-0.10547000000000001,-0.033512,-0.038310000000000004,-0.033608,,,,,,,,,,,,,,,,,,,,,,,,,,,,,,,,,,,,,,,,,,,,,,,,,,,,,,,,,,,,,,,,,
28510,1645491940.274185,7.0,0.0,4055.384521,4510.769043,4108.205078,4033.3332520000004,4098.974121,450.0,4.0,86.0,,,,0.0,4.0,0.0,2.0,4.0,4.0,50.0,,,,,,,,,,,,,,,,,,,,,,,,,,,,,,,,,,,,,,,,,,,,,,,,,,,,,,10.0,0.0,1.0,0.0,512.0,1.0,,,,,,,,,,,,,,,,,,,,,,,,,
28511,1645491940.282002,8.0,0.0,3990.7692869999996,4510.256348,4095.897461,4003.076904,4078.461426,450.0,4.0,86.0,,,,0.0,4.0,0.0,2.0,4.0,4.0,50.0,,,,,,,,4.0,0.0,0.579371,-0.16430699999999998,0.647461,0.467041,0.929213,-0.41358100000000003,-0.107424,-0.033481,-0.038337,-0.035521,,,,,,,,,,,,,,,,,,,,,,,,,,,,,,,,,,,,,,,,,,,,,,,,,,,,,,,,,,,,,,,,,
28512,1645491940.289818,9.0,0.0,4008.205078,4573.333496,4096.410156,4007.179443,4071.281982,16185.0,4.0,86.0,,,,0.0,4.0,0.0,2.0,4.0,4.0,50.0,,,,,,,,,,,,,,,,,,,,,,,,,,,,,,,,,,,,,,,,,,,,,,,,,,,,,,,,,,,,,,,,,,,,,,,,,,,,,,,,,,,,
28513,1645491940.297634,10.0,0.0,4029.743652,4586.153809,4102.05127,4006.6667479999996,4045.641113,450.0,4.0,86.0,,,,0.0,4.0,0.0,2.0,4.0,4.0,50.0,,,,,,,,5.0,0.0,0.57944,-0.16406300000000001,0.647461,0.467041,0.917006,-0.417487,-0.111818,-0.0336,-0.038458,-0.030894,,,,,,,,,,,,,,,,,,,,,,,,,,,,,,,,,,,,,,,,,,,,,,,,,,,,,,,,,,,,,,,,,
28514,1645491940.30545,11.0,0.0,4071.281982,4537.94873,4154.871582,4075.897461,4103.077147999999,16249.0,4.0,86.0,,,,0.0,4.0,0.0,2.0,4.0,4.0,50.0,,,,,,,,,,,,,,,,,,,,,,,,,,,,,,,,,,,,,,,,,,,,,,,,,,,,,,10.0,0.0,1.0,0.0,512.0,1.0,,,,,,,,,,,,,,,,,,,,,,,,,
28515,1645491940.313266,12.0,0.0,4155.384765999999,4539.487305,4200.512695,4192.307617,4221.025879,450.0,4.0,86.0,,,,0.0,4.0,0.0,2.0,4.0,4.0,50.0,,,,,,,,6.0,0.0,0.57944,-0.16406300000000001,0.647461,0.467041,0.9111469999999999,-0.41260399999999997,-0.096193,-0.033511,-0.038519,-0.032882999999999996,,,,,,,,,,,,,,,,,,,,,,,,,,,,,,,,,,,,,,,,,,,,,,,,,,,,,,,,,,,,,,,,,
28516,1645491940.321082,13.0,0.0,4182.05127,4549.230957,4185.641113000001,4206.153809,4237.436035,450.0,4.0,86.0,,,,0.0,4.0,0.0,2.0,4.0,4.0,50.0,,,,,,,,,,,,,,,,,,,,,,,,,,,,,,,,,,,,,,,,,,,,,,,,,,,,,,,,,,,,,,,,,,,,,,,,,,,,,,,,,,,,
28517,1645491940.328898,14.0,0.0,4150.769043,4518.461426,4173.333496,4133.846191,4191.794922,450.0,4.0,86.0,,,,0.0,4.0,0.0,2.0,4.0,4.0,50.0,,,,,,,,7.0,0.0,0.5792430000000001,-0.16406300000000001,0.647461,0.46728500000000006,0.9209129999999999,-0.41651000000000005,-0.106447,-0.033627,-0.038524,-0.034673,,,,,,,,,,,,,,,,,,,,,,,,,,,,,,,,,,,,,,,,,,,,,,,,,,,,,,,,,,,,,,,,,
