,Timestamp,OriginalTimestamp,EEG.Counter,EEG.Interpolated,EEG.AF3,EEG.T7,EEG.Pz,EEG.T8,EEG.AF4,EEG.RawCq,EEG.Battery,EEG.BatteryPercent,MarkerIndex,MarkerType,MarkerValueInt,EEG.MarkerHardware,CQ.AF3,CQ.T7,CQ.Pz,CQ.T8,CQ.AF4,CQ.Overall,EQ.SampleRateQuality,EQ.OVERALL,EQ.AF3,EQ.T7,EQ.Pz,EQ.T8,EQ.AF4,MOT.CounterMems,MOT.InterpolatedMems,MOT.Q0,MOT.Q1,MOT.Q2,MOT.Q3,MOT.AccX,MOT.AccY,MOT.AccZ,MOT.MagX,MOT.MagY,MOT.MagZ,MC.Action,MC.ActionPower,MC.IsActive,PM.Engagement.IsActive,PM.Engagement.Scaled,PM.Engagement.Raw,PM.Engagement.Min,PM.Engagement.Max,PM.Excitement.IsActive,PM.Excitement.Scaled,PM.Excitement.Raw,PM.Excitement.Min,PM.Excitement.Max,PM.LongTermExcitement,PM.Stress.IsActive,PM.Stress.Scaled,PM.Stress.Raw,PM.Stress.Min,PM.Stress.Max,PM.Relaxation.IsActive,PM.Relaxation.Scaled,PM.Relaxation.Raw,PM.Relaxation.Min,PM.Relaxation.Max,PM.Interest.IsActive,PM.Interest.Scaled,PM.Interest.Raw,PM.Interest.Min,PM.Interest.Max,PM.Focus.IsActive,PM.Focus.Scaled,PM.Focus.Raw,PM.Focus.Min,PM.Focus.Max,FE.BlinkWink,FE.HorizontalEyesDirection,FE.UpperFaceAction,FE.UpperFaceActionPower,FE.LowerFaceAction,FE.LowerFaceActionPower,POW.AF3.Theta,POW.AF3.Alpha,POW.AF3.BetaL,POW.AF3.BetaH,POW.AF3.Gamma,POW.T7.Theta,POW.T7.Alpha,POW.T7.BetaL,POW.T7.BetaH,POW.T7.Gamma,POW.Pz.Theta,POW.Pz.Alpha,POW.Pz.BetaL,POW.Pz.BetaH,POW.Pz.Gamma,POW.T8.Theta,POW.T8.Alpha,POW.T8.BetaL,POW.T8.BetaH,POW.T8.Gamma,POW.AF4.Theta,POW.AF4.Alpha,POW.AF4.BetaL,POW.AF4.BetaH,POW.AF4.Gamma
23468,1645649657.2877731,1645649657.288214,88.0,0.0,4473.333496,4414.358886999999,4255.384765999999,4275.384765999999,4298.974121,450.0,3.0,64.0,,,,0.0,1.0,0.0,0.0,0.0,2.0,0.0,,,,,,,,44.0,0.0,0.697569,0.44995100000000005,0.397217,-0.391357,0.922377,-0.341314,-0.290044,-0.012537999999999999,-0.053063,-0.042246,,,,,,,,,,,,,,,,,,,,,,,,,,,,,,,,,,,,,,,,,,,,,,,,,,,,,,,,,,,,,,,,,
23469,1645649657.295589,1645649657.2960289,89.0,0.0,4438.974121,4505.641113000001,4231.282227000001,4272.820313,4325.128418,450.0,3.0,64.0,,,,0.0,1.0,0.0,0.0,0.0,2.0,0.0,,,,,,,,,,,,,,,,,,,,,,,,,,,,,,,,,,,,,,,,,,,,,,,,,,,,,,,,,,,,,,,,,,,,,,,,,,,,,,,,,,,,
23470,1645649657.3034039,1645649657.303843,90.0,0.0,4380.512695,4908.717772999999,4201.025879,4272.820313,4304.615234000001,450.0,3.0,64.0,,,,0.0,1.0,0.0,0.0,0.0,2.0,0.0,,,,,,,,45.0,0.0,0.69755,0.45019499999999996,0.396973,-0.391357,0.91017,-0.322759,-0.284184,-0.013335,-0.05293200000000001,-0.037337999999999996,,,,,,,,,,,,,,,,,,,,,,,,,,,,,,,,,,,,,,,,,,,,,,,,,,,,,,,,,,,,,,,,,
23471,1645649657.31122,1645649657.311757,91.0,0.0,4377.94873,5055.897461,4256.410156,4278.974121,4271.794922,308.0,3.0,64.0,,,,0.0,1.0,0.0,0.0,0.0,2.0,0.0,,,,,,,,,,,,,,,,,,,,,,,,,,,,,,,,,,,,,,,,,,,,,,,,,,,,,,0.0,0.0,1.0,0.0,512.0,1.0,,,,,,,,,,,,,,,,,,,,,,,,,
23472,1645649657.319036,1645649657.319572,92.0,0.0,4373.846191,4836.922852000001,4294.358886999999,4277.94873,4268.205078,450.0,3.0,64.0,,,,0.0,1.0,0.0,0.0,0.0,2.0,0.0,,,,,,,,46.0,0.0,0.69755,0.45019499999999996,0.396973,-0.391357,0.913588,-0.327642,-0.29102,-0.014100999999999999,-0.052864,-0.039268,,,,,,,,,,,,,,,,,,,,,,,,,,,,,,,,,,,,,,,,,,,,,,,,,,,,,,,,,,,,,,,,,
23473,1645649657.3268518,1645649657.327386,93.0,0.0,4319.487305,4793.333496,4295.384765999999,4275.897461,4283.589844,450.0,3.0,64.0,,,,0.0,1.0,0.0,0.0,0.0,2.0,0.0,,,,,,,,,,,,,,,,,,,,,,,,,,,,,,,,,,,,,,,,,,,,,,,,,,,,,,,,,,,,,,,,,,,,,,,,,,,,,,,,,,,,
23474,1645649657.334668,1645649657.335201,94.0,0.0,4323.077147999999,5050.769043,4272.307617,4278.461426,4316.410156,450.0,3.0,64.0,,,,0.0,1.0,0.0,0.0,0.0,2.0,0.0,,,,,,,,47.0,0.0,0.69755,0.45019499999999996,0.396973,-0.391357,0.9131,-0.32813000000000003,-0.289067,-0.013228,-0.0529,-0.041005,,,,,,,,,,,,,,,,,,,,,,,,,,,,,,,,,,,,,,,,,,,,,,,,,,,,,,,,,,,,,,,,,
23475,1645649657.342484,1645649657.343015,95.0,0.0,4350.769043,5070.769043,4284.615234000001,4279.487305,4319.487305,308.0,3.0,64.0,,,,0.0,1.0,0.0,0.0,0.0,2.0,0.0,1.0,0.0,1.0,0.0,0.0,0.0,1.0,,,,,,,,,,,,,1.0,0.0,0.0,,,,,,,,,,,,,,,,,,,,,,,,,,,,,,,,0.0,0.0,1.0,0.0,512.0,1.0,96.5588,147.24617,82.22197,25.581791,7.627035,1110.115112,2377.589355,1319.355591,181.372543,166.11811799999998,139.76710500000002,127.059288,22.688896,11.928802000000001,5.431839,0.24310199999999998,0.604271,0.285183,0.058674000000000004,0.045519,80.696846,84.397224,29.74032,7.853205,8.360192
23476,1645649657.3502991,1645649657.350829,96.0,0.0,4313.846191,4964.102539,4243.077147999999,4282.563965,4313.846191,450.0,3.0,64.0,,,,0.0,1.0,0.0,0.0,0.0,2.0,0.0,,,,,,,,48.0,0.0,0.69755,0.45019499999999996,0.396973,-0.391357,0.9199360000000001,-0.319341,-0.286137,-0.013956,-0.05293200000000001,-0.036368,,,,,,,,,,,,,,,,,,,,,,,,,,,,,,,,,,,,,,,,,,,,,,,,,,,,,,,,,,,,,,,,,
23477,1645649657.358115,1645649657.358644,97.0,0.0,4304.615234000001,4990.256348,4248.205078,4284.102539,4330.256348,450.0,3.0,64.0,,,,0.0,1.0,0.0,0.0,0.0,2.0,0.0,,,,,,,,,,,,,,,,,,,,,,,,,,,,,,,,,,,,,,,,,,,,,,,,,,,,,,,,,,,,,,,,,,,,,,,,,,,,,,,,,,,,
23478,1645649657.365931,1645649657.366458,98.0,0.0,4372.307617,4781.538574,4260.512695,4285.641113000001,4272.820313,450.0,3.0,64.0,,,,0.0,1.0,0.0,0.0,0.0,2.0,0.0,,,,,,,,49.0,0.0,0.6974130000000001,0.45019499999999996,0.396973,-0.391602,0.9184709999999999,-0.322759,-0.299321,-0.013049000000000002,-0.05301,-0.038297000000000005,,,,,,,,,,,,,,,,,,,,,,,,,,,,,,,,,,,,,,,,,,,,,,,,,,,,,,,,,,,,,,,,,
23479,1645649657.373747,1645649657.374273,99.0,0.0,4386.666504,4450.769043,4233.846191,4287.692383,4175.897461,308.0,3.0,64.0,,,,0.0,1.0,0.0,0.0,0.0,2.0,0.0,,,,,,,,,,,,,,,,,,,,,,,,,,,,,,,,,,,,,,,,,,,,,,,,,,,,,,0.0,0.0,1.0,0.0,512.0,1.0,,,,,,,,,,,,,,,,,,,,,,,,,
23480,1645649657.3815632,1645649657.382187,100.0,0.0,4365.641113000001,4170.769043,4216.410156,4284.102539,4229.230957,450.0,3.0,64.0,,,,0.0,1.0,0.0,0.0,0.0,2.0,0.0,,,,,,,,50.0,0.0,0.6974130000000001,0.45019499999999996,0.396973,-0.391602,0.9155409999999999,-0.32422399999999996,-0.290532,-0.012281,-0.053030999999999995,-0.040181,,,,,,,,,,,,,,,,,,,,,,,,,,,,,,,,,,,,,,,,,,,,,,,,,,,,,,,,,,,,,,,,,
23481,1645649657.389379,1645649657.390001,101.0,0.0,4356.410156,4038.974365,4222.563965,4275.897461,4264.615234000001,450.0,3.0,64.0,,,,0.0,1.0,0.0,0.0,0.0,2.0,0.0,,,,,,,,,,,,,,,,,,,,,,,,,,,,,,,,,,,,,,,,,,,,,,,,,,,,,,,,,,,,,,,,,,,,,,,,,,,,,,,,,,,,
23482,1645649657.3971949,1645649657.397816,102.0,0.0,4439.487305,4174.358886999999,4211.282227000001,4273.846191,4230.769043,450.0,3.0,64.0,,,,0.0,1.0,0.0,0.0,0.0,2.0,0.0,,,,,,,,51.0,0.0,0.6974130000000001,0.45019499999999996,0.396973,-0.391602,0.925795,-0.316411,-0.291508,-0.013104,-0.052953,-0.041826999999999996,,,,,,,,,,,,,,,,,,,,,,,,,,,,,,,,,,,,,,,,,,,,,,,,,,,,,,,,,,,,,,,,,
23483,1645649657.40501,1645649657.40563,103.0,0.0,4460.512695,4496.922852000001,4222.05127,4275.897461,4235.897461,308.0,3.0,64.0,,,,0.0,1.0,0.0,0.0,0.0,2.0,0.0,,,,,,,,,,,,,,,,,,,,,,,,,,,,,,,,,,,,,,,,,,,,,,,,,,,,,,0.0,0.0,1.0,0.0,512.0,1.0,,,,,,,,,,,,,,,,,,,,,,,,,
23484,1645649657.412826,1645649657.413544,104.0,0.0,4445.641113000001,4595.384765999999,4278.974121,4276.410156,4313.846191,450.0,3.0,64.0,,,,0.0,1.0,0.0,0.0,0.0,2.0,0.0,,,,,,,,52.0,0.0,0.6974130000000001,0.45019499999999996,0.396973,-0.391602,0.910658,-0.327153,-0.279789,-0.013893,-0.05293099999999999,-0.037058,,,,,,,,,,,,,,,,,,,,,,,,,,,,,,,,,,,,,,,,,,,,,,,,,,,,,,,,,,,,,,,,,
23485,1645649657.420642,1645649657.421359,105.0,0.0,4464.615234000001,4482.563965,4280.0,4274.871582,4328.717772999999,450.0,3.0,64.0,,,,0.0,1.0,0.0,0.0,0.0,2.0,0.0,,,,,,,,,,,,,,,,,,,,,,,,,,,,,,,,,,,,,,,,,,,,,,,,,,,,,,,,,,,,,,,,,,,,,,,,,,,,,,,,,,,,
23486,1645649657.428458,1645649657.429173,106.0,0.0,4436.410156,4483.077147999999,4274.871582,4273.846191,4302.05127,450.0,3.0,64.0,,,,0.0,1.0,0.0,0.0,0.0,2.0,0.0,,,,,,,,53.0,0.0,0.697571,0.44995100000000005,0.396973,-0.391602,0.914076,-0.319341,-0.282719,-0.014506,-0.053058,-0.039113999999999996,,,,,,,,,,,,,,,,,,,,,,,,,,,,,,,,,,,,,,,,,,,,,,,,,,,,,,,,,,,,,,,,,
23487,1645649657.436274,1645649657.436988,107.0,0.0,4365.641113000001,4511.282227000001,4257.436035,4272.307617,4264.102539,308.0,3.0,64.0,,,,0.0,1.0,0.0,0.0,0.0,2.0,0.0,,,,,,,,,,,,,,,,,,,,,,,,,,,,,,,,,,,,,,,,,,,,,,,,,,,,,,0.0,0.0,1.0,0.0,512.0,1.0,,,,,,,,,,,,,,,,,,,,,,,,,
23488,1645649657.4440901,1645649657.444802,108.0,0.0,4385.128418,4508.205078,4277.436035,4272.307617,4247.179688,450.0,3.0,64.0,,,,0.0,1.0,0.0,0.0,0.0,2.0,0.0,,,,,,,,54.0,0.0,0.697708,0.44995100000000005,0.396973,-0.391357,0.9282370000000001,-0.317388,-0.287114,-0.013641,-0.053075,-0.04072,,,,,,,,,,,,,,,,,,,,,,,,,,,,,,,,,,,,,,,,,,,,,,,,,,,,,,,,,,,,,,,,,
23489,1645649657.451905,1645649657.452617,109.0,0.0,4405.641113000001,4374.871582,4293.846191,4275.384765999999,4215.897461,450.0,3.0,64.0,,,,0.0,1.0,0.0,0.0,0.0,2.0,0.0,,,,,,,,,,,,,,,,,,,,,,,,,,,,,,,,,,,,,,,,,,,,,,,,,,,,,,,,,,,,,,,,,,,,,,,,,,,,,,,,,,,,
23490,1645649657.459721,1645649657.460431,110.0,0.0,4352.820313,4212.307617,4341.025879,4278.461426,4193.846191,450.0,3.0,64.0,,,,0.0,1.0,0.0,0.0,0.0,2.0,0.0,,,,,,,,55.0,0.0,0.697708,0.44995100000000005,0.396973,-0.391357,0.9248190000000001,-0.330083,-0.29688000000000003,-0.014377000000000001,-0.053041,-0.036062000000000004,,,,,,,,,,,,,,,,,,,,,,,,,,,,,,,,,,,,,,,,,,,,,,,,,,,,,,,,,,,,,,,,,
23491,1645649657.467537,1645649657.468245,111.0,0.0,4369.743652,4249.743652,4364.615234000001,4276.922852000001,4224.102539,308.0,3.0,64.0,,,,0.0,1.0,0.0,0.0,0.0,2.0,0.0,,,,,,,,,,,,,,,,,,,,1.0,0.0,0.0,,,,,,,,,,,,,,,,,,,,,,,,,,,,,,,,0.0,0.0,1.0,0.0,512.0,1.0,104.14852900000001,167.708862,93.465622,25.15675,8.262654,1255.044678,3300.878662,1543.8826900000001,190.925934,175.45553600000002,137.410309,132.707901,28.18001,11.638273,5.863119999999999,0.251899,0.736993,0.30737600000000004,0.069966,0.052739,86.616119,103.97494499999999,33.913734000000005,7.973258,7.938994999999999
23492,1645649657.475353,1645649657.47616,112.0,0.0,4421.025879,4375.384765999999,4373.846191,4274.871582,4254.871582,450.0,3.0,64.0,,,,0.0,1.0,0.0,0.0,0.0,2.0,0.0,,,,,,,,56.0,0.0,0.697708,0.44995100000000005,0.396973,-0.391357,0.918959,-0.326177,-0.282719,-0.015038999999999999,-0.05301,-0.031869999999999996,,,,,,,,,,,,,,,,,,,,,,,,,,,,,,,,,,,,,,,,,,,,,,,,,,,,,,,,,,,,,,,,,
23493,1645649657.4831688,1645649657.483974,113.0,0.0,4424.102539,4493.333496,4267.179688,4275.384765999999,4260.512695,450.0,3.0,64.0,,,,0.0,1.0,0.0,0.0,0.0,2.0,0.0,,,,,,,,,,,,,,,,,,,,,,,,,,,,,,,,,,,,,,,,,,,,,,,,,,,,,,,,,,,,,,,,,,,,,,,,,,,,,,,,,,,,
23494,1645649657.490985,1645649657.4917881,114.0,0.0,4403.589844,4602.05127,4196.410156,4273.333496,4238.461426,450.0,3.0,64.0,,,,0.0,1.0,0.0,0.0,0.0,2.0,0.0,,,,,,,,57.0,0.0,0.697708,0.44995100000000005,0.396973,-0.391357,0.923842,-0.32813000000000003,-0.282231,-0.015683000000000002,-0.052983,-0.034298,,,,,,,,,,,,,,,,,,,,,,,,,,,,,,,,,,,,,,,,,,,,,,,,,,,,,,,,,,,,,,,,,
23495,1645649657.4988,1645649657.499603,115.0,0.0,4382.563965,4705.128418,4198.461426,4272.307617,4249.743652,308.0,3.0,64.0,,,,0.0,1.0,0.0,0.0,0.0,2.0,0.0,,,,,,,,,,,,,,,,,,,,,,,,,,,,,,,,,,,,,,,,,,,,,,,,,,,,,,0.0,0.0,1.0,0.0,512.0,1.0,,,,,,,,,,,,,,,,,,,,,,,,,
23496,1645649657.506616,1645649657.507417,116.0,0.0,4389.230957,4687.692383,4191.282227000001,4274.358886999999,4257.94873,450.0,3.0,64.0,,,,0.0,1.0,0.0,0.0,0.0,2.0,0.0,,,,,,,,58.0,0.0,0.697571,0.44995100000000005,0.396973,-0.391602,0.9116350000000001,-0.33105999999999997,-0.273442,-0.016215,-0.052860000000000004,-0.030282999999999997,,,,,,,,,,,,,,,,,,,,,,,,,,,,,,,,,,,,,,,,,,,,,,,,,,,,,,,,,,,,,,,,,
23497,1645649657.514432,1645649657.515232,117.0,0.0,4488.717772999999,4703.589844,4181.538574,4277.436035,4297.436035,450.0,3.0,64.0,,,,0.0,1.0,0.0,0.0,0.0,2.0,0.0,,,,,,,,,,,,,,,,,,,,,,,,,,,,,,,,,,,,,,,,,,,,,,,,,,,,,,,,,,,,,,,,,,,,,,,,,,,,,,,,,,,,
23498,1645649657.522248,1645649657.523046,118.0,0.0,4489.743652,4785.641113000001,4219.487305,4277.94873,4304.615234000001,450.0,3.0,64.0,,,,0.0,1.0,0.0,0.0,0.0,2.0,0.0,,,,,,,,59.0,0.0,0.697708,0.44995100000000005,0.396973,-0.391357,0.9277489999999999,-0.32910700000000004,-0.287602,-0.016644,-0.052897,-0.032967,,,,,,,,,,,,,,,,,,,,,,,,,,,,,,,,,,,,,,,,,,,,,,,,,,,,,,,,,,,,,,,,,
23499,1645649657.530064,1645649657.53086,119.0,0.0,4441.538574,4815.897461,4233.333496,4276.922852000001,4338.461426,308.0,3.0,64.0,,,,0.0,1.0,0.0,0.0,0.0,2.0,0.0,,,,,,,,,,,,,,,,,,,,,,,,,,,,,,,,,,,,,,,,,,,,,,,,,,,,,,0.0,0.0,1.0,0.0,512.0,1.0,,,,,,,,,,,,,,,,,,,,,,,,,
23500,1645649657.5378802,1645649657.538675,120.0,0.0,4470.256348,4757.436035,4205.641113000001,4274.871582,4367.179688,450.0,3.0,64.0,,,,0.0,1.0,0.0,0.0,0.0,2.0,0.0,,,,,,,,60.0,0.0,0.697708,0.44995100000000005,0.396973,-0.391357,0.921401,-0.323735,-0.285161,-0.01703,-0.052685,-0.028938,,,,,,,,,,,,,,,,,,,,,,,,,,,,,,,,,,,,,,,,,,,,,,,,,,,,,,,,,,,,,,,,,
23501,1645649657.5456948,1645649657.5465891,121.0,0.0,4455.384765999999,4853.333496,4209.230957,4275.897461,4342.563965,450.0,3.0,64.0,,,,0.0,1.0,0.0,0.0,0.0,2.0,0.0,,,,,,,,,,,,,,,,,,,,,,,,,,,,,,,,,,,,,,,,,,,,,,,,,,,,,,,,,,,,,,,,,,,,,,,,,,,,,,,,,,,,
23502,1645649657.553511,1645649657.554404,122.0,0.0,4322.05127,5074.871582,4191.282227000001,4276.922852000001,4301.538574,450.0,3.0,64.0,,,,0.0,1.0,0.0,0.0,0.0,2.0,0.0,,,,,,,,61.0,0.0,0.697708,0.44995100000000005,0.396973,-0.391357,0.903334,-0.321782,-0.288579,-0.015816,-0.05269,-0.025458,,,,,,,,,,,,,,,,,,,,,,,,,,,,,,,,,,,,,,,,,,,,,,,,,,,,,,,,,,,,,,,,,
23503,1645649657.561327,1645649657.562218,123.0,0.0,4300.0,5043.077147999999,4255.384765999999,4278.974121,4311.282227000001,308.0,3.0,64.0,,,,0.0,1.0,0.0,0.0,0.0,2.0,0.0,,,,,,,,,,,,,,,,,,,,,,,,,,,,,,,,,,,,,,,,,,,,,,,,,,,,,,0.0,0.0,1.0,0.0,512.0,1.0,,,,,,,,,,,,,,,,,,,,,,,,,
23504,1645649657.569143,1645649657.5700321,124.0,0.0,4290.256348,4926.666504,4314.871582,4284.102539,4252.307617,450.0,3.0,64.0,,,,0.0,1.0,0.0,0.0,0.0,2.0,0.0,,,,,,,,62.0,0.0,0.697571,0.44995100000000005,0.396973,-0.391602,0.909682,-0.319341,-0.28174299999999997,-0.014819999999999998,-0.052695000000000006,-0.028626,,,,,,,,,,,,,,,,,,,,,,,,,,,,,,,,,,,,,,,,,,,,,,,,,,,,,,,,,,,,,,,,,
23505,1645649657.576959,1645649657.577847,125.0,0.0,4217.94873,4858.461426,4295.897461,4285.641113000001,4175.384765999999,450.0,3.0,64.0,,,,0.0,1.0,0.0,0.0,0.0,2.0,0.0,,,,,,,,,,,,,,,,,,,,,,,,,,,,,,,,,,,,,,,,,,,,,,,,,,,,,,,,,,,,,,,,,,,,,,,,,,,,,,,,,,,,
23506,1645649657.584775,1645649657.585661,126.0,0.0,4214.358886999999,4684.615234000001,4261.538574,4286.666504,4188.205078,450.0,3.0,64.0,,,,0.0,1.0,0.0,0.0,0.0,2.0,0.0,,,,,,,,63.0,0.0,0.697571,0.44995100000000005,0.396973,-0.391602,0.9121229999999999,-0.314458,-0.282231,-0.015438,-0.052747,-0.031427,,,,,,,,,,,,,,,,,,,,,,,,,,,,,,,,,,,,,,,,,,,,,,,,,,,,,,,,,,,,,,,,,
23507,1645649657.59259,1645649657.593476,127.0,0.0,4261.538574,4554.358886999999,4317.436035,4289.743652,4216.410156,236.0,3.0,64.0,,,,0.0,1.0,0.0,0.0,0.0,2.0,0.0,,,,,,,,,,,,,,,,,,,,1.0,0.0,0.0,,,,,,,,,,,,,,,,,,,,,,,,,,,,,,,,0.0,0.0,1.0,0.0,512.0,1.0,116.52179,178.738052,95.891846,24.931701999999998,8.617955,1406.609741,4063.274658,1597.470825,197.614624,177.140656,133.904846,139.197449,31.33955,11.141378,6.116315,0.290195,0.809921,0.30225100000000005,0.076468,0.058175,90.101662,119.521103,36.367409,8.465858,7.697869
23508,1645649657.6004062,1645649657.60129,0.0,0.0,4303.077147999999,4375.384765999999,4345.128418,4287.179688,4183.589844,450.0,3.0,64.0,,,,0.0,1.0,0.0,0.0,0.0,2.0,0.0,,,,,,,,0.0,0.0,0.697708,0.44995100000000005,0.396973,-0.391357,0.903334,-0.321782,-0.288579,-0.014381999999999999,-0.052746,-0.027699,,,,,,,,,,,,,,,,,,,,,,,,,,,,,,,,,,,,,,,,,,,,,,,,,,,,,,,,,,,,,,,,,
23509,1645649657.608222,1645649657.609104,1.0,0.0,4366.153809,4224.615234000001,4352.820313,4281.538574,4209.230957,450.0,3.0,64.0,,,,0.0,1.0,0.0,0.0,0.0,2.0,0.0,,,,,,,,,,,,,,,,,,,,,,,,,,,,,,,,,,,,,,,,,,,,,,,,,,,,,,,,,,,,,,,,,,,,,,,,,,,,,,,,,,,,
23510,1645649657.616038,1645649657.616819,2.0,0.0,4431.794922,4196.410156,4294.871582,4280.512695,4289.743652,105.0,3.0,64.0,,,,0.0,1.0,0.0,1.0,0.0,2.0,8.333333,,,,,,,,1.0,0.0,0.697571,0.44995100000000005,0.396973,-0.391602,0.9121229999999999,-0.314458,-0.282231,-0.015044,-0.05279400000000001,-0.030593000000000002,,,,,,,,,,,,,,,,,,,,,,,,,,,,,,,,,,,,,,,,,,,,,,,,,,,,,,,,,,,,,,,,,
23511,1645649657.623854,1645649657.624633,3.0,0.0,4416.922852000001,4267.179688,4232.307617,4278.461426,4267.179688,450.0,3.0,64.0,,,,0.0,1.0,0.0,1.0,0.0,2.0,8.333333,,,,,,,,,,,,,,,,,,,,,,,,,,,,,,,,,,,,,,,,,,,,,,,,,,,,,,0.0,0.0,1.0,0.0,512.0,1.0,,,,,,,,,,,,,,,,,,,,,,,,,
23512,1645649657.63167,1645649657.632448,4.0,0.0,4413.846191,4375.897461,4209.230957,4275.897461,4272.307617,31.0,3.0,64.0,,,,0.0,1.0,0.0,1.0,0.0,2.0,8.333333,,,,,,,,2.0,0.0,0.6974319999999999,0.44995100000000005,0.397217,-0.391602,0.914076,-0.319829,-0.275883,-0.015639,-0.052788,-0.02685,,,,,,,,,,,,,,,,,,,,,,,,,,,,,,,,,,,,,,,,,,,,,,,,,,,,,,,,,,,,,,,,,
23513,1645649657.639485,1645649657.640262,5.0,0.0,4411.282227000001,4513.846191,4192.820313,4276.410156,4291.794922,450.0,3.0,64.0,,,,0.0,1.0,0.0,1.0,0.0,2.0,8.333333,,,,,,,,,,,,,,,,,,,,,,,,,,,,,,,,,,,,,,,,,,,,,,,,,,,,,,,,,,,,,,,,,,,,,,,,,,,,,,,,,,,,
23514,1645649657.647301,1645649657.648077,6.0,0.0,4465.641113000001,4562.563965,4184.615234000001,4276.410156,4274.358886999999,110.0,3.0,64.0,,,,0.0,1.0,0.0,1.0,0.0,2.0,8.333333,,,,,,,,3.0,0.0,0.697571,0.44995100000000005,0.396973,-0.391602,0.904799,-0.32959499999999997,-0.293462,-0.016175,-0.052783000000000004,-0.029829,,,,,,,,,,,,,,,,,,,,,,,,,,,,,,,,,,,,,,,,,,,,,,,,,,,,,,,,,,,,,,,,,
23515,1645649657.655117,1645649657.655891,7.0,0.0,4459.487305,4580.512695,4223.589844,4275.897461,4239.487305,450.0,3.0,64.0,,,,0.0,1.0,0.0,1.0,0.0,2.0,8.333333,,,,,,,,,,,,,,,,,,,,,,,,,,,,,,,,,,,,,,,,,,,,,,,,,,,,,,0.0,0.0,1.0,0.0,512.0,1.0,,,,,,,,,,,,,,,,,,,,,,,,,
23516,1645649657.662933,1645649657.663705,8.0,0.0,4417.436035,4585.128418,4268.205078,4276.410156,4283.077147999999,450.0,3.0,64.0,,,,0.0,1.0,0.0,1.0,0.0,2.0,8.333333,,,,,,,,4.0,0.0,0.697571,0.44995100000000005,0.396973,-0.391602,0.922377,-0.32910700000000004,-0.293462,-0.016608,-0.052827,-0.032559,,,,,,,,,,,,,,,,,,,,,,,,,,,,,,,,,,,,,,,,,,,,,,,,,,,,,,,,,,,,,,,,,
23517,1645649657.670749,1645649657.67152,9.0,0.0,4431.282227000001,4543.589844,4247.692383,4274.358886999999,4315.897461,0.0,3.0,64.0,,,,0.0,1.0,0.0,1.0,0.0,2.0,8.333333,,,,,,,,,,,,,,,,,,,,,,,,,,,,,,,,,,,,,,,,,,,,,,,,,,,,,,,,,,,,,,,,,,,,,,,,,,,,,,,,,,,,
23518,1645649657.678565,1645649657.679334,10.0,0.0,4442.563965,4491.794922,4267.179688,4275.384765999999,4305.128418,450.0,3.0,64.0,,,,0.0,1.0,0.0,1.0,0.0,2.0,8.333333,,,,,,,,5.0,0.0,0.697571,0.44995100000000005,0.396973,-0.391602,0.9267719999999999,-0.325689,-0.290044,-0.015484,-0.052818,-0.03487,,,,,,,,,,,,,,,,,,,,,,,,,,,,,,,,,,,,,,,,,,,,,,,,,,,,,,,,,,,,,,,,,
23519,1645649657.686381,1645649657.687049,11.0,0.0,4374.358886999999,4451.282227000001,4264.102539,4275.384765999999,4259.487305,200.0,3.0,64.0,,,,0.0,1.0,0.0,1.0,0.0,2.0,8.333333,,,,,,,,,,,,,,,,,,,,,,,,,,,,,,,,,,,,,,,,,,,,,,,,,,,,,,0.0,0.0,1.0,0.0,512.0,1.0,,,,,,,,,,,,,,,,,,,,,,,,,
23520,1645649657.694196,1645649657.694863,12.0,0.0,4338.461426,4388.205078,4276.922852000001,4273.333496,4200.0,450.0,3.0,64.0,,,,0.0,1.0,0.0,1.0,0.0,2.0,8.333333,,,,,,,,6.0,0.0,0.697571,0.44995100000000005,0.396973,-0.391602,0.9248190000000001,-0.318853,-0.285161,-0.016084,-0.052809,-0.030846,,,,,,,,,,,,,,,,,,,,,,,,,,,,,,,,,,,,,,,,,,,,,,,,,,,,,,,,,,,,,,,,,
23521,1645649657.7020118,1645649657.702678,13.0,0.0,4352.307617,4326.666504,4295.384765999999,4274.871582,4165.128418,450.0,3.0,64.0,,,,0.0,1.0,0.0,1.0,0.0,2.0,8.333333,,,,,,,,,,,,,,,,,,,,,,,,,,,,,,,,,,,,,,,,,,,,,,,,,,,,,,,,,,,,,,,,,,,,,,,,,,,,,,,,,,,,
23522,1645649657.709828,1645649657.710492,14.0,0.0,4351.282227000001,4251.794922,4340.512695,4278.974121,4187.692383,450.0,3.0,64.0,,,,0.0,1.0,0.0,1.0,0.0,2.0,8.333333,,,,,,,,7.0,0.0,0.6974130000000001,0.45019499999999996,0.396973,-0.391602,0.916518,-0.321782,-0.283696,-0.014963999999999998,-0.052851,-0.027126,,,,,,,,,,,,,,,,,,,,,,,,,,,,,,,,,,,,,,,,,,,,,,,,,,,,,,,,,,,,,,,,,
23523,1645649657.717644,1645649657.718306,15.0,0.0,4367.692383,4154.358886999999,4362.05127,4278.974121,4201.538574,200.0,3.0,64.0,,,,0.0,1.0,0.0,1.0,0.0,2.0,8.333333,,,,,,,,,,,,,,,,,,,,1.0,0.0,0.0,,,,,,,,,,,,,,,,,,,,,,,,,,,,,,,,0.0,0.0,1.0,0.0,512.0,1.0,131.45564299999998,177.294876,89.207146,24.474873000000002,8.654156,1508.416138,4491.850098,1472.616089,201.25221299999998,173.945053,129.578079,144.651917,31.316072,10.838921000000001,6.184689,0.347427,0.8061510000000001,0.26823,0.07803099999999999,0.060392999999999995,89.4618,126.32019,37.307114,9.235511,7.457533
23524,1645649657.72546,1645649657.7261212,16.0,0.0,4390.769043,4244.615234000001,4376.410156,4277.94873,4215.897461,0.0,3.0,64.0,,,,0.0,1.0,0.0,1.0,0.0,2.0,8.333333,,,,,,,,8.0,0.0,0.697531,0.45043900000000003,0.396729,-0.391357,0.9116350000000001,-0.31250500000000003,-0.28076599999999996,-0.013956,-0.05279,-0.030126999999999998,,,,,,,,,,,,,,,,,,,,,,,,,,,,,,,,,,,,,,,,,,,,,,,,,,,,,,,,,,,,,,,,,
23525,1645649657.733276,1645649657.7339349,17.0,0.0,4410.256348,4219.487305,4306.666504,4279.487305,4244.615234000001,0.0,3.0,64.0,,,,0.0,1.0,0.0,1.0,0.0,2.0,8.333333,,,,,,,,,,,,,,,,,,,,,,,,,,,,,,,,,,,,,,,,,,,,,,,,,,,,,,,,,,,,,,,,,,,,,,,,,,,,,,,,,,,,
23526,1645649657.741092,1645649657.74175,18.0,0.0,4402.05127,4056.4101560000004,4250.769043,4278.461426,4240.512695,0.0,3.0,64.0,,,,0.0,1.0,0.0,1.0,0.0,2.0,8.333333,,,,,,,,9.0,0.0,0.6976289999999999,0.450928,0.396484,-0.390869,0.917983,-0.311528,-0.282719,-0.014611,-0.052883000000000006,-0.026479000000000003,,,,,,,,,,,,,,,,,,,,,,,,,,,,,,,,,,,,,,,,,,,,,,,,,,,,,,,,,,,,,,,,,
23527,1645649657.748907,1645649657.7495642,19.0,0.0,4344.102539,4255.384765999999,4214.871582,4275.897461,4248.717772999999,0.0,3.0,64.0,,,,0.0,1.0,0.0,1.0,0.0,2.0,8.333333,,,,,,,,,,,,,,,,,,,,,,,,,,,,,,,,,,,,,,,,,,,,,,,,,,,,,,0.0,0.0,1.0,0.0,512.0,1.0,,,,,,,,,,,,,,,,,,,,,,,,,
23528,1645649657.7567232,1645649657.757478,20.0,0.0,4385.128418,4557.436035,4195.897461,4273.333496,4268.717772999999,0.0,3.0,64.0,,,,0.0,1.0,0.0,1.0,0.0,2.0,8.333333,,,,,,,,10.0,0.0,0.697703,0.45166000000000006,0.39624000000000004,-0.390137,0.906264,-0.308598,-0.285649,-0.013491999999999999,-0.052868,-0.029544,,,,,,,,,,,,,,,,,,,,,,,,,,,,,,,,,,,,,,,,,,,,,,,,,,,,,,,,,,,,,,,,,
23529,1645649657.764539,1645649657.765293,21.0,0.0,4535.897461,4707.179688,4203.589844,4277.436035,4370.256348,0.0,3.0,64.0,,,,0.0,1.0,0.0,1.0,0.0,2.0,8.333333,,,,,,,,,,,,,,,,,,,,,,,,,,,,,,,,,,,,,,,,,,,,,,,,,,,,,,,,,,,,,,,,,,,,,,,,,,,,,,,,,,,,
23530,1645649657.772355,1645649657.773107,22.0,0.0,4445.641113000001,4797.94873,4223.589844,4283.077147999999,4393.846191,0.0,3.0,64.0,,,,0.0,1.0,0.0,1.0,0.0,2.0,8.333333,,,,,,,,11.0,0.0,0.698029,0.452637,0.395752,-0.388916,0.910658,-0.321782,-0.287114,-0.014242,-0.05285499999999999,-0.025955000000000002,,,,,,,,,,,,,,,,,,,,,,,,,,,,,,,,,,,,,,,,,,,,,,,,,,,,,,,,,,,,,,,,,
23531,1645649657.7801712,1645649657.7809222,23.0,0.0,4528.717772999999,4929.743652,4203.589844,4288.205078,4409.230957,0.0,3.0,64.0,,,,0.0,1.0,0.0,1.0,0.0,2.0,8.333333,,,,,,,,,,,,,,,,,,,,,,,,,,,,,,,,,,,,,,,,,,,,,,,,,,,,,,0.0,0.0,1.0,0.0,512.0,1.0,,,,,,,,,,,,,,,,,,,,,,,,,
23532,1645649657.787987,1645649657.7887359,24.0,0.0,4817.436035,4938.461426,4183.077147999999,4292.307617,4523.589844,0.0,3.0,64.0,,,,0.0,1.0,0.0,1.0,0.0,2.0,8.333333,,,,,,,,12.0,0.0,0.698238,0.45336899999999997,0.395264,-0.38818400000000003,0.9272600000000001,-0.314946,-0.279301,-0.013306,-0.052890999999999994,-0.029024,,,,,,,,,,,,,,,,,,,,,,,,,,,,,,,,,,,,,,,,,,,,,,,,,,,,,,,,,,,,,,,,,
23533,1645649657.7958019,1645649657.79655,25.0,0.0,5233.333496,4800.0,4263.077147999999,4303.077147999999,4663.077147999999,0.0,3.0,64.0,,,,0.0,1.0,0.0,1.0,0.0,2.0,8.333333,,,,,,,,,,,,,,,,,,,,,,,,,,,,,,,,,,,,,,,,,,,,,,,,,,,,,,,,,,,,,,,,,,,,,,,,,,,,,,,,,,,,
23534,1645649657.803618,1645649657.8043652,26.0,0.0,5994.358886999999,4685.128418,4312.820313,4323.589844,4668.205078,0.0,3.0,64.0,,,,0.0,1.0,0.0,1.0,0.0,2.0,8.333333,,,,,,,,13.0,0.0,0.698466,0.45385699999999995,0.39502,-0.38745100000000005,0.921401,-0.339361,-0.274418,-0.012415,-0.052827,-0.031688,,,,,,,,,,,,,,,,,,,,,,,,,,,,,,,,,,,,,,,,,,,,,,,,,,,,,,,,,,,,,,,,,
23535,1645649657.811434,1645649657.8121789,27.0,0.0,6530.256348,4695.384765999999,4299.487305,4343.589844,4670.769043,0.0,3.0,64.0,,,,0.0,1.0,0.0,1.0,0.0,2.0,8.333333,,,,,,,,,,,,,,,,,,,,,,,,,,,,,,,,,,,,,,,,,,,,,,,,,,,,,,0.0,0.0,1.0,0.0,512.0,1.0,,,,,,,,,,,,,,,,,,,,,,,,,
23536,1645649657.81925,1645649657.819994,28.0,0.0,7025.128418000001,4714.358886999999,4285.128418,4369.230957,4791.794922,0.0,3.0,64.0,,,,0.0,1.0,0.0,1.0,0.0,2.0,8.333333,,,,,,,,14.0,0.0,0.698422,0.454346,0.394775,-0.387207,0.9155409999999999,-0.349615,-0.286625,-0.013175999999999998,-0.052867,-0.034183,,,,,,,,,,,,,,,,,,,,,,,,,,,,,,,,,,,,,,,,,,,,,,,,,,,,,,,,,,,,,,,,,
23537,1645649657.827066,1645649657.827808,29.0,0.0,7504.102539,4586.153809,4388.717772999999,4395.897461,4910.769043,0.0,3.0,64.0,,,,0.0,1.0,0.0,1.0,0.0,2.0,8.333333,,,,,,,,,,,,,,,,,,,,,,,,,,,,,,,,,,,,,,,,,,,,,,,,,,,,,,,,,,,,,,,,,,,,,,,,,,,,,,,,,,,,
23538,1645649657.834882,1645649657.835722,30.0,0.0,7926.666504000001,4635.897461,4441.538574,4423.077147999999,4942.563965,0.0,3.0,64.0,,,,0.0,1.0,0.0,1.0,0.0,2.0,8.333333,,,,,,,,15.0,0.0,0.698581,0.45410200000000006,0.394775,-0.387207,0.9194479999999999,-0.34766199999999997,-0.286625,-0.013958000000000002,-0.052854,-0.036429,,,,,,,,,,,,,,,,,,,,,,,,,,,,,,,,,,,,,,,,,,,,,,,,,,,,,,,,,,,,,,,,,
23539,1645649657.842698,1645649657.8435369,31.0,0.0,7769.230956999999,4824.615234000001,4415.384765999999,4438.974121,4984.615234000001,0.0,3.0,64.0,,,,0.0,1.0,0.0,1.0,0.0,2.0,8.333333,1.0,0.0,0.0,0.0,0.0,0.0,1.0,,,,,,,,,,,,,1.0,0.0,0.0,,,,,,,,,,,,,,,,,,,,,,,,,,,,,,,,0.0,0.0,1.0,0.0,512.0,0.620458,145.646149,165.916733,76.65328199999999,23.230541,8.478162,1553.788208,4520.925293,1234.3967289999998,201.76818799999998,168.81926,124.649689,146.549606,28.543924,11.014935000000001,6.125018,0.407871,0.739695,0.215835,0.07598300000000001,0.058912,84.532112,123.029251,37.583923,10.022806,7.097796000000001
23540,1645649657.850513,1645649657.851351,32.0,0.0,7813.333495999999,4778.974121,4374.358886999999,4455.384765999999,5092.820313,0.0,3.0,64.0,,,,0.0,1.0,0.0,1.0,0.0,2.0,8.333333,,,,,,,,16.0,0.0,0.698445,0.45410200000000006,0.394775,-0.38745100000000005,0.910658,-0.350591,-0.27881300000000003,-0.014662,-0.052939,-0.038499,,,,,,,,,,,,,,,,,,,,,,,,,,,,,,,,,,,,,,,,,,,,,,,,,,,,,,,,,,,,,,,,,
23541,1645649657.8583288,1645649657.859165,33.0,0.0,7829.743651999999,4672.820313,4384.615234000001,4468.205078,5131.282227000001,0.0,3.0,64.0,,,,0.0,1.0,0.0,1.0,0.0,2.0,8.333333,,,,,,,,,,,,,,,,,,,,,,,,,,,,,,,,,,,,,,,,,,,,,,,,,,,,,,,,,,,,,,,,,,,,,,,,,,,,,,,,,,,,
23542,1645649657.866145,1645649657.86698,34.0,0.0,7774.358887,4659.487305,4343.589844,4475.897461,5105.128418,0.0,3.0,64.0,,,,0.0,1.0,0.0,1.0,0.0,2.0,8.333333,,,,,,,,17.0,0.0,0.698468,0.45385699999999995,0.394775,-0.38769499999999996,0.916518,-0.349615,-0.277836,-0.015246000000000001,-0.05291900000000001,-0.034013999999999996,,,,,,,,,,,,,,,,,,,,,,,,,,,,,,,,,,,,,,,,,,,,,,,,,,,,,,,,,,,,,,,,,
23543,1645649657.873961,1645649657.874794,35.0,0.0,7779.487305,4685.128418,4285.641113000001,4481.025879,5113.846191,0.0,3.0,64.0,,,,0.0,1.0,0.0,1.0,0.0,2.0,8.333333,,,,,,,,,,,,,,,,,,,,,,,,,,,,,,,,,,,,,,,,,,,,,,,,,,,,,,0.0,0.0,1.0,0.0,512.0,0.620458,,,,,,,,,,,,,,,,,,,,,,,,,
23544,1645649657.881777,1645649657.882609,36.0,0.0,7768.717773,4750.256348,4265.128418,4482.05127,5147.179688,0.0,3.0,64.0,,,,0.0,1.0,0.0,1.0,0.0,2.0,8.333333,,,,,,,,18.0,0.0,0.698512,0.45336899999999997,0.39502,-0.387939,0.910658,-0.344244,-0.279301,-0.015772,-0.052998,-0.036227999999999996,,,,,,,,,,,,,,,,,,,,,,,,,,,,,,,,,,,,,,,,,,,,,,,,,,,,,,,,,,,,,,,,,
23545,1645649657.889593,1645649657.890423,37.0,0.0,7770.256348000001,4788.717772999999,4305.641113000001,4483.589844,5078.974121,0.0,3.0,64.0,,,,0.0,1.0,0.0,1.0,0.0,2.0,8.333333,,,,,,,,,,,,,,,,,,,,,,,,,,,,,,,,,,,,,,,,,,,,,,,,,,,,,,,,,,,,,,,,,,,,,,,,,,,,,,,,,,,,
23546,1645649657.897408,1645649657.8982382,38.0,0.0,7771.282227,4787.692383,4318.461426,4479.487305,5027.692383,0.0,3.0,64.0,,,,0.0,1.0,0.0,1.0,0.0,2.0,8.333333,,,,,,,,19.0,0.0,0.698419,0.45288100000000003,0.395264,-0.388428,0.9131,-0.32959499999999997,-0.26758200000000004,-0.016393,-0.052972000000000005,-0.03202,,,,,,,,,,,,,,,,,,,,,,,,,,,,,,,,,,,,,,,,,,,,,,,,,,,,,,,,,,,,,,,,,
23547,1645649657.905224,1645649657.9060519,39.0,0.0,7774.358887,4723.077147999999,4272.307617,4477.436035,4996.410156,0.0,3.0,64.0,,,,0.0,1.0,0.0,1.0,0.0,2.0,8.333333,,,,,,,,,,,,,,,,,,,,,,,,,,,,,,,,,,,,,,,,,,,,,,,,,,,,,,0.0,0.0,1.0,0.0,512.0,0.620458,,,,,,,,,,,,,,,,,,,,,,,,,
23548,1645649657.91304,1645649657.913766,40.0,0.0,7771.794922,4607.692383,4296.410156,4473.846191,4961.538574,0.0,3.0,64.0,,,,0.0,1.0,0.0,1.0,0.0,2.0,8.333333,,,,,,,,20.0,0.0,0.698442,0.452637,0.395264,-0.38867199999999996,0.9199360000000001,-0.335943,-0.285161,-0.01529,-0.052997,-0.034384,,,,,,,,,,,,,,,,,,,,,,,,,,,,,,,,,,,,,,,,,,,,,,,,,,,,,,,,,,,,,,,,,
23549,1645649657.920856,1645649657.921581,41.0,0.0,7793.846191,4630.769043,4373.333496,4466.666504,4912.307617,0.0,3.0,64.0,,,,0.0,1.0,0.0,1.0,0.0,2.0,8.333333,,,,,,,,,,,,,,,,,,,,,,,,,,,,,,,,,,,,,,,,,,,,,,,,,,,,,,,,,,,,,,,,,,,,,,,,,,,,,,,,,,,,
23550,1645649657.928672,1645649657.929395,42.0,0.0,7782.05127,4767.179688,4405.128418,4461.025879,4887.179688,0.0,3.0,64.0,,,,0.0,1.0,0.0,1.0,0.0,2.0,8.333333,,,,,,,,21.0,0.0,0.698348,0.45214799999999994,0.39550799999999997,-0.38916,0.9184709999999999,-0.34473200000000004,-0.30225100000000005,-0.015812,-0.053069000000000005,-0.030213,,,,,,,,,,,,,,,,,,,,,,,,,,,,,,,,,,,,,,,,,,,,,,,,,,,,,,,,,,,,,,,,,
23551,1645649657.9364882,1645649657.9372098,43.0,0.0,7794.871581999999,4763.589844,4342.563965,4452.820313,4820.0,0.0,3.0,64.0,,,,0.0,1.0,0.0,1.0,0.0,2.0,8.333333,,,,,,,,,,,,,,,,,,,,,,,,,,,,,,,,,,,,,,,,,,,,,,,,,,,,,,0.0,0.0,1.0,0.0,512.0,0.620458,,,,,,,,,,,,,,,,,,,,,,,,,
23552,1645649657.944303,1645649657.945024,44.0,0.0,7778.461426000001,4640.0,4365.641113000001,4444.102539,4742.563965,0.0,3.0,64.0,,,,0.0,1.0,0.0,1.0,0.0,2.0,8.333333,,,,,,,,22.0,0.0,0.698095,0.451904,0.395752,-0.389648,0.917983,-0.317388,-0.285161,-0.016281999999999998,-0.053084000000000006,-0.026606,,,,,,,,,,,,,,,,,,,,,,,,,,,,,,,,,,,,,,,,,,,,,,,,,,,,,,,,,,,,,,,,,
23553,1645649657.9521189,1645649657.9528382,45.0,0.0,7664.102539,4635.897461,4400.512695,4426.153809,4684.615234000001,0.0,3.0,64.0,,,,0.0,1.0,0.0,1.0,0.0,2.0,8.333333,,,,,,,,,,,,,,,,,,,,,,,,,,,,,,,,,,,,,,,,,,,,,,,,,,,,,,,,,,,,,,,,,,,,,,,,,,,,,,,,,,,,
23554,1645649657.959935,1645649657.9606528,46.0,0.0,7615.897461,4658.974121,4392.820313,4412.820313,4654.871582,0.0,3.0,64.0,,,,0.0,1.0,0.0,1.0,0.0,2.0,8.333333,,,,,,,,23.0,0.0,0.698117,0.45166000000000006,0.395752,-0.389893,0.9150530000000001,-0.332036,-0.283696,-0.016656,-0.053049,-0.029657999999999997,,,,,,,,,,,,,,,,,,,,,,,,,,,,,,,,,,,,,,,,,,,,,,,,,,,,,,,,,,,,,,,,,
23555,1645649657.967751,1645649657.968467,47.0,0.0,7213.333495999999,4577.94873,4303.077147999999,4395.384765999999,4609.230957,0.0,3.0,64.0,,,,0.0,1.0,0.0,1.0,0.0,2.0,8.333333,,,,,,,,,,,,,,,,,,,,1.0,0.0,0.0,,,,,,,,,,,,,,,,,,,,,,,,,,,,,,,,0.0,0.0,1.0,0.0,512.0,0.37258600000000003,177.989838,143.030273,63.729068999999996,20.970449,8.303367999999999,1571.857788,4212.483397999999,975.8112789999999,198.82457,162.33741799999999,120.321533,143.51760900000002,24.466504999999998,11.755517999999999,6.0104690000000005,0.498935,0.6669010000000001,0.162873,0.072701,0.054297000000000005,77.454124,110.644768,37.921902,10.559612,6.611892999999999
23556,1645649657.975567,1645649657.9762821,48.0,0.0,6882.05127,4635.384765999999,4252.820313,4378.974121,4533.333496,0.0,3.0,64.0,,,,0.0,1.0,0.0,1.0,0.0,2.0,8.333333,,,,,,,,24.0,0.0,0.698,0.451416,0.395996,-0.390137,0.9184709999999999,-0.333013,-0.286625,-0.015429,-0.053114999999999996,-0.026008999999999997,,,,,,,,,,,,,,,,,,,,,,,,,,,,,,,,,,,,,,,,,,,,,,,,,,,,,,,,,,,,,,,,,
23557,1645649657.983383,1645649657.9841962,49.0,0.0,6478.461426,4718.974121,4215.897461,4363.589844,4440.0,0.0,3.0,64.0,,,,0.0,1.0,0.0,1.0,0.0,2.0,8.333333,,,,,,,,,,,,,,,,,,,,,,,,,,,,,,,,,,,,,,,,,,,,,,,,,,,,,,,,,,,,,,,,,,,,,,,,,,,,,,,,,,,,
23558,1645649657.991198,1645649657.9920099,50.0,0.0,6113.333496,4703.077147999999,4219.487305,4347.179688,4367.692383,0.0,3.0,64.0,,,,0.0,1.0,0.0,1.0,0.0,2.0,8.333333,,,,,,,,25.0,0.0,0.697883,0.451172,0.39624000000000004,-0.390381,0.922866,-0.31396999999999997,-0.274907,-0.014375,-0.053126,-0.028926,,,,,,,,,,,,,,,,,,,,,,,,,,,,,,,,,,,,,,,,,,,,,,,,,,,,,,,,,,,,,,,,,
23559,1645649657.9990141,1645649657.999825,51.0,0.0,5616.410156,4642.05127,4213.333496,4338.461426,4357.436035,0.0,3.0,64.0,,,,0.0,1.0,0.0,1.0,0.0,2.0,8.333333,,,,,,,,,,,,,,,,,,,,,,,,,,,,,,,,,,,,,,,,,,,,,,,,,,,,,,0.0,0.0,1.0,0.0,512.0,0.37258600000000003,,,,,,,,,,,,,,,,,,,,,,,,,
23560,1645649658.00683,1645649658.0076392,52.0,0.0,5267.179688,4447.692383,4224.102539,4327.692383,4335.384765999999,0.0,3.0,64.0,,,,0.0,1.0,0.0,1.0,0.0,2.0,8.333333,,,,,,,,26.0,0.0,0.6977439999999999,0.451172,0.396484,-0.390381,0.901869,-0.304692,-0.292973,-0.015037,-0.053234000000000004,-0.031648,,,,,,,,,,,,,,,,,,,,,,,,,,,,,,,,,,,,,,,,,,,,,,,,,,,,,,,,,,,,,,,,,
23561,1645649658.014646,1645649658.0154538,53.0,0.0,4966.666504,4251.794922,4252.307617,4320.0,4295.384765999999,0.0,3.0,64.0,,,,0.0,1.0,0.0,1.0,0.0,2.0,8.333333,,,,,,,,,,,,,,,,,,,,,,,,,,,,,,,,,,,,,,,,,,,,,,,,,,,,,,,,,,,,,,,,,,,,,,,,,,,,,,,,,,,,
23562,1645649658.022462,1645649658.023268,54.0,0.0,4602.05127,4409.743652,4234.358886999999,4316.410156,4266.666504,0.0,3.0,64.0,,,,0.0,1.0,0.0,1.0,0.0,2.0,8.333333,,,,,,,,27.0,0.0,0.697902,0.450928,0.396484,-0.390381,0.9116350000000001,-0.316411,-0.283696,-0.015633,-0.053233,-0.0278,,,,,,,,,,,,,,,,,,,,,,,,,,,,,,,,,,,,,,,,,,,,,,,,,,,,,,,,,,,,,,,,,
23563,1645649658.030278,1645649658.031082,55.0,0.0,4443.077147999999,4514.358886999999,4217.436035,4313.846191,4298.461426,0.0,3.0,64.0,,,,0.0,1.0,0.0,1.0,0.0,2.0,8.333333,,,,,,,,,,,,,,,,,,,,,,,,,,,,,,,,,,,,,,,,,,,,,,,,,,,,,,0.0,0.0,1.0,0.0,512.0,0.37258600000000003,,,,,,,,,,,,,,,,,,,,,,,,,
23564,1645649658.0380929,1645649658.038897,56.0,0.0,4197.436035,4047.6923829999996,4221.025879,4299.487305,4227.692383,0.0,3.0,64.0,,,,0.0,1.0,0.0,1.0,0.0,2.0,8.333333,,,,,,,,28.0,0.0,0.697883,0.451172,0.39624000000000004,-0.390381,0.922866,-0.31396999999999997,-0.274907,-0.016169,-0.053183,-0.030635000000000003,,,,,,,,,,,,,,,,,,,,,,,,,,,,,,,,,,,,,,,,,,,,,,,,,,,,,,,,,,,,,,,,,
23565,1645649658.045909,1645649658.046711,57.0,0.0,4063.5898439999996,3894.358887,4224.102539,4294.358886999999,4163.077147999999,0.0,3.0,64.0,,,,0.0,1.0,0.0,1.0,0.0,2.0,8.333333,,,,,,,,,,,,,,,,,,,,,,,,,,,,,,,,,,,,,,,,,,,,,,,,,,,,,,,,,,,,,,,,,,,,,,,,,,,,,,,,,,,,
23566,1645649658.053725,1645649658.054626,58.0,0.0,3833.3332520000004,4658.461426,4217.94873,4301.538574,4251.282227000001,0.0,3.0,64.0,,,,0.0,2.0,0.0,1.0,0.0,2.0,8.333333,,,,,,,,29.0,0.0,0.697902,0.450928,0.396484,-0.390381,0.9116350000000001,-0.316411,-0.283696,-0.016652,-0.053187,-0.026888,,,,,,,,,,,,,,,,,,,,,,,,,,,,,,,,,,,,,,,,,,,,,,,,,,,,,,,,,,,,,,,,,
23567,1645649658.061541,1645649658.0624402,59.0,0.0,3717.4357909999994,5060.0,4284.615234000001,4301.538574,4301.538574,0.0,3.0,64.0,,,,0.0,2.0,0.0,1.0,0.0,2.0,8.333333,,,,,,,,,,,,,,,,,,,,,,,,,,,,,,,,,,,,,,,,,,,,,,,,,,,,,,0.0,0.0,1.0,0.0,512.0,0.37258600000000003,,,,,,,,,,,,,,,,,,,,,,,,,
23568,1645649658.069357,1645649658.0702538,60.0,0.0,3647.6923829999996,4390.256348,4309.230957,4295.384765999999,4129.743652,0.0,3.0,64.0,,,,0.0,2.0,0.0,1.0,0.0,2.0,8.333333,,,,,,,,30.0,0.0,0.697627,0.450928,0.396729,-0.390625,0.918959,-0.326665,-0.282719,-0.017038,-0.053141999999999995,-0.023711000000000003,,,,,,,,,,,,,,,,,,,,,,,,,,,,,,,,,,,,,,,,,,,,,,,,,,,,,,,,,,,,,,,,,
23569,1645649658.077173,1645649658.078069,61.0,0.0,3601.025635,4011.281982,4320.0,4293.333496,4041.025635,0.0,3.0,64.0,,,,0.0,2.0,0.0,1.0,0.0,2.0,8.333333,,,,,,,,,,,,,,,,,,,,,,,,,,,,,,,,,,,,,,,,,,,,,,,,,,,,,,,,,,,,,,,,,,,,,,,,,,,,,,,,,,,,
23570,1645649658.084988,1645649658.085883,62.0,0.0,3639.487061,4352.820313,4340.512695,4287.179688,4144.615234000001,0.0,3.0,64.0,,,,0.0,2.0,0.0,1.0,0.0,2.0,8.333333,,,,,,,,31.0,0.0,0.697627,0.450928,0.396729,-0.390625,0.91017,-0.30811,-0.28174299999999997,-0.017433,-0.053101,-0.027004000000000004,,,,,,,,,,,,,,,,,,,,,,,,,,,,,,,,,,,,,,,,,,,,,,,,,,,,,,,,,,,,,,,,,
23571,1645649658.092804,1645649658.093698,63.0,0.0,3638.461426,4304.102539,4384.615234000001,4278.461426,4184.615234000001,0.0,3.0,64.0,,,,0.0,2.0,0.0,1.0,0.0,2.0,8.333333,,,,,,,,,,,,,,,,,,,,1.0,0.0,0.0,,,,,,,,,,,,,,,,,,,,,,,,,,,,,,,,0.0,0.0,1.0,0.0,512.0,0.273998,398.809937,148.699112,58.643393999999994,18.31212,8.477698,1576.317749,3701.764404,772.921021,190.444366,152.644318,118.107605,136.253174,20.782598,12.905006,5.902171,1.054737,0.6414569999999999,0.128657,0.07008099999999999,0.047802,78.735504,93.290588,38.342205,10.710032,6.120398000000001
23572,1645649658.10062,1645649658.101512,64.0,0.0,3549.743652,3864.102539,4371.282227000001,4280.0,4097.436035,450.0,3.0,64.0,,,,0.0,2.0,0.0,1.0,0.0,2.0,8.333333,,,,,,,,32.0,0.0,0.6976479999999999,0.45068400000000003,0.396729,-0.390869,0.917494,-0.318853,-0.275883,-0.01779,-0.053113,-0.02362,,,,,,,,,,,,,,,,,,,,,,,,,,,,,,,,,,,,,,,,,,,,,,,,,,,,,,,,,,,,,,,,,
23573,1645649658.1084359,1645649658.109326,65.0,0.0,3402.0512700000004,3908.205078,4344.615234000001,4285.641113000001,4052.3076170000004,450.0,3.0,64.0,,,,0.0,2.0,0.0,1.0,0.0,2.0,8.333333,,,,,,,,,,,,,,,,,,,,,,,,,,,,,,,,,,,,,,,,,,,,,,,,,,,,,,,,,,,,,,,,,,,,,,,,,,,,,,,,,,,,
23574,1645649658.116252,1645649658.117141,66.0,0.0,3337.435791,4335.384765999999,4262.563965,4286.153809,4091.794922,187.0,3.0,64.0,,,,0.0,2.0,0.0,1.0,0.0,2.0,8.333333,,,,,,,,33.0,0.0,0.697372,0.45068400000000003,0.396973,-0.391113,0.9150530000000001,-0.307134,-0.27881300000000003,-0.018062,-0.053075,-0.026873,,,,,,,,,,,,,,,,,,,,,,,,,,,,,,,,,,,,,,,,,,,,,,,,,,,,,,,,,,,,,,,,,
23575,1645649658.124068,1645649658.1249552,67.0,0.0,3318.4614260000003,4460.0,4203.589844,4285.128418,4081.025635,450.0,3.0,64.0,,,,0.0,2.0,0.0,1.0,0.0,2.0,8.333333,,,,,,,,,,,,,,,,,,,,,,,,,,,,,,,,,,,,,,,,,,,,,,,,,,,,,,0.0,0.0,1.0,0.0,512.0,0.273998,,,,,,,,,,,,,,,,,,,,,,,,,
23576,1645649658.131884,1645649658.13267,68.0,0.0,3340.512939,4250.256348,4234.358886999999,4286.153809,4107.179688,16366.0,3.0,64.0,,,,0.0,2.0,4.0,1.0,0.0,4.0,25.0,,,,,,,,34.0,0.0,0.697372,0.45068400000000003,0.396973,-0.391113,0.9150530000000001,-0.31104,-0.284184,-0.018306,-0.05309,-0.029899000000000002,,,,,,,,,,,,,,,,,,,,,,,,,,,,,,,,,,,,,,,,,,,,,,,,,,,,,,,,,,,,,,,,,
23577,1645649658.139699,1645649658.140484,69.0,0.0,3312.820557,4178.974121,4314.358886999999,4287.692383,4134.358886999999,450.0,3.0,64.0,,,,0.0,2.0,4.0,1.0,0.0,4.0,25.0,,,,,,,,,,,,,,,,,,,,,,,,,,,,,,,,,,,,,,,,,,,,,,,,,,,,,,,,,,,,,,,,,,,,,,,,,,,,,,,,,,,,
23578,1645649658.147515,1645649658.148299,70.0,0.0,3240.512939,4606.666504,4293.333496,4286.666504,4172.820313,95.0,3.0,64.0,,,,0.0,2.0,4.0,1.0,0.0,4.0,25.0,,,,,,,,35.0,0.0,0.697529,0.45043900000000003,0.396973,-0.391113,0.9077290000000001,-0.33105999999999997,-0.28174299999999997,-0.01711,-0.053104,-0.032476,,,,,,,,,,,,,,,,,,,,,,,,,,,,,,,,,,,,,,,,,,,,,,,,,,,,,,,,,,,,,,,,,
23579,1645649658.1553311,1645649658.1561131,71.0,0.0,3197.435791,4984.102539,4202.05127,4282.05127,4194.358886999999,450.0,3.0,64.0,,,,0.0,2.0,4.0,1.0,0.0,4.0,25.0,,,,,,,,,,,,,,,,,,,,,,,,,,,,,,,,,,,,,,,,,,,,,,,,,,,,,,0.0,0.0,1.0,0.0,512.0,0.273998,,,,,,,,,,,,,,,,,,,,,,,,,
23580,1645649658.163147,1645649658.1639268,72.0,0.0,3243.589844,4948.717772999999,4209.230957,4280.512695,4202.563965,450.0,3.0,64.0,,,,0.0,2.0,4.0,1.0,0.0,4.0,25.0,,,,,,,,36.0,0.0,0.697529,0.45043900000000003,0.396973,-0.391113,0.9194479999999999,-0.321294,-0.289067,-0.017401,-0.053066999999999996,-0.034892,,,,,,,,,,,,,,,,,,,,,,,,,,,,,,,,,,,,,,,,,,,,,,,,,,,,,,,,,,,,,,,,,
23581,1645649658.170963,1645649658.171742,73.0,0.0,3239.487061,5151.282227000001,4219.487305,4278.461426,4221.025879,0.0,3.0,64.0,,,,0.0,2.0,4.0,1.0,0.0,4.0,25.0,,,,,,,,,,,,,,,,,,,,,,,,,,,,,,,,,,,,,,,,,,,,,,,,,,,,,,,,,,,,,,,,,,,,,,,,,,,,,,,,,,,,
23582,1645649658.178779,1645649658.1795561,74.0,0.0,3202.564209,5288.205078,4223.589844,4273.333496,4276.410156,450.0,3.0,64.0,,,,0.0,2.0,4.0,1.0,0.0,4.0,25.0,,,,,,,,37.0,0.0,0.697529,0.45043900000000003,0.396973,-0.391113,0.9038219999999999,-0.327153,-0.29688000000000003,-0.017662999999999998,-0.05318,-0.037067,,,,,,,,,,,,,,,,,,,,,,,,,,,,,,,,,,,,,,,,,,,,,,,,,,,,,,,,,,,,,,,,,
23583,1645649658.186594,1645649658.187371,75.0,0.0,3216.923096,4495.384765999999,4279.487305,4272.307617,4186.666504,16156.0,3.0,64.0,,,,0.0,2.0,4.0,1.0,0.0,4.0,25.0,,,,,,,,,,,,,,,,,,,,,,,,,,,,,,,,,,,,,,,,,,,,,,,,,,,,,,0.0,0.0,1.0,0.0,512.0,0.273998,,,,,,,,,,,,,,,,,,,,,,,,,
23584,1645649658.1944098,1645649658.195185,76.0,0.0,3226.153809,3907.179443,4366.666504,4277.436035,4027.6923829999996,450.0,3.0,64.0,,,,0.0,2.0,4.0,1.0,0.0,4.0,25.0,,,,,,,,38.0,0.0,0.697529,0.45043900000000003,0.396973,-0.391113,0.910658,-0.316899,-0.286625,-0.017899,-0.053136,-0.032628,,,,,,,,,,,,,,,,,,,,,,,,,,,,,,,,,,,,,,,,,,,,,,,,,,,,,,,,,,,,,,,,,
23585,1645649658.202226,1645649658.203099,77.0,0.0,3154.3588870000003,4603.589844,4335.384765999999,4278.974121,4069.2307130000004,450.0,3.0,64.0,,,,0.0,2.0,4.0,1.0,0.0,4.0,25.0,,,,,,,,,,,,,,,,,,,,,,,,,,,,,,,,,,,,,,,,,,,,,,,,,,,,,,,,,,,,,,,,,,,,,,,,,,,,,,,,,,,,
23586,1645649658.210042,1645649658.2109141,78.0,0.0,3062.564209,5045.641113000001,4327.692383,4279.487305,4154.871582,450.0,3.0,64.0,,,,0.0,2.0,4.0,1.0,0.0,4.0,25.0,,,,,,,,39.0,0.0,0.69739,0.45043900000000003,0.397217,-0.391113,0.9091940000000001,-0.3252,-0.286137,-0.016548,-0.053242,-0.034932,,,,,,,,,,,,,,,,,,,,,,,,,,,,,,,,,,,,,,,,,,,,,,,,,,,,,,,,,,,,,,,,,
23587,1645649658.217858,1645649658.2187278,79.0,0.0,3112.3076170000004,4897.436035,4298.461426,4276.410156,4133.333496,16156.0,3.0,64.0,,,,0.0,2.0,4.0,1.0,0.0,4.0,25.0,,,,,,,,,,,,,,,,,,,,1.0,0.0,0.0,,,,,,,,,,,,,,,,,,,,,,,,,,,,,,,,0.0,0.0,32.0,1.0,1.0,0.0,988.6808470000001,255.29731800000002,73.04827900000001,16.402859,9.368639,1567.7852779999998,3135.602295,653.559753,175.281631,138.163071,118.97496000000001,128.50473,18.639158,14.2343,5.844907,2.889351,0.7355689999999999,0.11874000000000001,0.069496,0.040918,102.09066,76.116318,38.202492,10.585972,5.797130999999999
23588,1645649658.225674,1645649658.226543,80.0,0.0,3208.718018,5149.743652,4238.461426,4266.666504,4181.538574,450.0,3.0,64.0,,,,0.0,2.0,4.0,1.0,0.0,4.0,25.0,,,,,,,,40.0,0.0,0.69739,0.45043900000000003,0.397217,-0.391113,0.9199360000000001,-0.317388,-0.286137,-0.015431,-0.053288999999999996,-0.037054000000000004,,,,,,,,,,,,,,,,,,,,,,,,,,,,,,,,,,,,,,,,,,,,,,,,,,,,,,,,,,,,,,,,,
23589,1645649658.233489,1645649658.234357,81.0,0.0,3170.769287,4962.563965,4202.05127,4267.692383,4203.077147999999,450.0,3.0,64.0,,,,0.0,2.0,4.0,1.0,0.0,4.0,25.0,,,,,,,,,,,,,,,,,,,,,,,,,,,,,,,,,,,,,,,,,,,,,,,,,,,,,,,,,,,,,,,,,,,,,,,,,,,,,,,,,,,,
23590,1645649658.241305,1645649658.242171,82.0,0.0,3083.076904,4212.307617,4255.897461,4279.487305,4042.0512700000004,450.0,3.0,64.0,,,,0.0,2.0,4.0,1.0,0.0,4.0,25.0,,,,,,,,41.0,0.0,0.697254,0.45043900000000003,0.397217,-0.391357,0.91017,-0.333013,-0.277348,-0.01589,-0.053234000000000004,-0.032616,,,,,,,,,,,,,,,,,,,,,,,,,,,,,,,,,,,,,,,,,,,,,,,,,,,,,,,,,,,,,,,,,
23591,1645649658.2491212,1645649658.249986,83.0,0.0,3122.564209,4455.897461,4262.05127,4282.05127,4066.1538090000004,16156.0,3.0,64.0,,,,0.0,2.0,4.0,1.0,0.0,4.0,25.0,,,,,,,,,,,,,,,,,,,,,,,,,,,,,,,,,,,,,,,,,,,,,,,,,,,,,,0.0,0.0,32.0,1.0,1.0,0.0,,,,,,,,,,,,,,,,,,,,,,,,,
23592,1645649658.256937,1645649658.2578,84.0,0.0,3162.564209,5380.0,4198.974121,4271.282227000001,4315.897461,450.0,3.0,64.0,,,,0.0,2.0,4.0,1.0,0.0,4.0,25.0,,,,,,,,42.0,0.0,0.697254,0.45043900000000003,0.397217,-0.391357,0.917494,-0.319341,-0.285649,-0.016350999999999997,-0.053184,-0.028817000000000002,,,,,,,,,,,,,,,,,,,,,,,,,,,,,,,,,,,,,,,,,,,,,,,,,,,,,,,,,,,,,,,,,
23593,1645649658.2647529,1645649658.265615,85.0,0.0,3193.333252,5229.230957,4181.538574,4267.692383,4387.179688,450.0,3.0,64.0,,,,0.0,2.0,4.0,1.0,0.0,4.0,25.0,,,,,,,,,,,,,,,,,,,,,,,,,,,,,,,,,,,,,,,,,,,,,,,,,,,,,,,,,,,,,,,,,,,,,,,,,,,,,,,,,,,,
23594,1645649658.272569,1645649658.273429,86.0,0.0,3233.333252,4173.333496,4272.820313,4270.769043,4182.563965,450.0,3.0,64.0,,,,0.0,2.0,4.0,1.0,0.0,4.0,25.0,,,,,,,,43.0,0.0,0.697116,0.45043900000000003,0.397217,-0.391602,0.921401,-0.32227100000000003,-0.289067,-0.016718,-0.053139,-0.025252,,,,,,,,,,,,,,,,,,,,,,,,,,,,,,,,,,,,,,,,,,,,,,,,,,,,,,,,,,,,,,,,,
23595,1645649658.280384,1645649658.281143,87.0,0.0,3201.5385739999997,3952.3076170000004,4328.205078,4269.230957,4127.692383,16156.0,3.0,64.0,,,,0.0,2.0,4.0,1.0,0.0,4.0,25.0,,,,,,,,,,,,,,,,,,,,,,,,,,,,,,,,,,,,,,,,,,,,,,,,,,,,,,0.0,0.0,32.0,1.0,1.0,0.0,,,,,,,,,,,,,,,,,,,,,,,,,
23596,1645649658.2882,1645649658.288958,88.0,0.0,3075.384521,4880.512695,4237.94873,4271.282227000001,4233.333496,450.0,3.0,64.0,,,,0.0,2.0,4.0,1.0,0.0,4.0,25.0,,,,,,,,44.0,0.0,0.697116,0.45043900000000003,0.397217,-0.391602,0.9091940000000001,-0.321294,-0.290532,-0.015584,-0.053099,-0.028293000000000002,,,,,,,,,,,,,,,,,,,,,,,,,,,,,,,,,,,,,,,,,,,,,,,,,,,,,,,,,,,,,,,,,
23597,1645649658.296016,1645649658.296772,89.0,0.0,3099.487061,5272.307617,4212.307617,4273.333496,4252.307617,450.0,3.0,64.0,,,,0.0,2.0,4.0,1.0,0.0,4.0,25.0,,,,,,,,,,,,,,,,,,,,,,,,,,,,,,,,,,,,,,,,,,,,,,,,,,,,,,,,,,,,,,,,,,,,,,,,,,,,,,,,,,,,
23598,1645649658.303832,1645649658.304587,90.0,0.0,3211.794922,4381.538574,4268.717772999999,4264.615234000001,4136.410156,450.0,3.0,64.0,,,,0.0,2.0,4.0,1.0,0.0,4.0,25.0,,,,,,,,45.0,0.0,0.697098,0.45068400000000003,0.396973,-0.391602,0.9038219999999999,-0.32910700000000004,-0.277836,-0.016076,-0.053062,-0.02478,,,,,,,,,,,,,,,,,,,,,,,,,,,,,,,,,,,,,,,,,,,,,,,,,,,,,,,,,,,,,,,,,
23599,1645649658.3116481,1645649658.312401,91.0,0.0,3230.769287,3863.076904,4315.897461,4261.538574,4099.487305,16156.0,3.0,64.0,,,,0.0,2.0,4.0,1.0,0.0,4.0,25.0,,,,,,,,,,,,,,,,,,,,,,,,,,,,,,,,,,,,,,,,,,,,,,,,,,,,,,0.0,0.0,32.0,1.0,1.0,0.0,,,,,,,,,,,,,,,,,,,,,,,,,
23600,1645649658.319464,1645649658.320216,92.0,0.0,3091.794922,4453.333496,4306.153809,4274.358886999999,4124.102539,450.0,3.0,64.0,,,,0.0,2.0,4.0,1.0,0.0,4.0,25.0,,,,,,,,46.0,0.0,0.696821,0.45068400000000003,0.397217,-0.391846,0.926284,-0.321782,-0.272953,-0.016519,-0.053078,-0.027869,,,,,,,,,,,,,,,,,,,,,,,,,,,,,,,,,,,,,,,,,,,,,,,,,,,,,,,,,,,,,,,,,
23601,1645649658.32728,1645649658.32803,93.0,0.0,2976.923096,4857.436035,4323.077147999999,4281.025879,4101.538574,450.0,3.0,64.0,,,,0.0,2.0,4.0,1.0,0.0,4.0,25.0,,,,,,,,,,,,,,,,,,,,,,,,,,,,,,,,,,,,,,,,,,,,,,,,,,,,,,,,,,,,,,,,,,,,,,,,,,,,,,,,,,,,
23602,1645649658.3350961,1645649658.335844,94.0,0.0,3119.487061,4735.384765999999,4298.974121,4266.153809,4105.128418,450.0,3.0,64.0,,,,0.0,2.0,4.0,1.0,0.0,4.0,25.0,,,,,,,,47.0,0.0,0.6969609999999999,0.45068400000000003,0.396973,-0.391846,0.922377,-0.322759,-0.288579,-0.015404,-0.05304400000000001,-0.030648,,,,,,,,,,,,,,,,,,,,,,,,,,,,,,,,,,,,,,,,,,,,,,,,,,,,,,,,,,,,,,,,,
23603,1645649658.342911,1645649658.343659,95.0,0.0,3335.897461,4668.205078,4312.820313,4254.358886999999,4202.05127,16156.0,3.0,64.0,,,,0.0,2.0,4.0,1.0,0.0,4.0,25.0,1.0,0.0,0.0,0.0,0.0,0.0,1.0,,,,,,,,,,,,,1.0,0.0,0.0,,,,,,,,,,,,,,,,,,,,,,,,,,,,,,,,0.0,0.0,32.0,1.0,1.0,0.0,2082.286621,523.968933,112.74976299999999,16.12528,11.081116999999999,1526.970215,2620.490234,599.366272,158.118423,123.078629,123.487144,124.17688000000001,18.082138,15.48115,5.868125,6.8074699999999995,0.970093,0.124605,0.072049,0.035012,156.497803,62.737010999999995,36.561703,10.469331,5.865746
23604,1645649658.3507268,1645649658.351373,96.0,0.0,3289.743652,4480.512695,4344.102539,4263.589844,4188.205078,450.0,3.0,64.0,,,,0.0,2.0,4.0,1.0,0.0,4.0,25.0,,,,,,,,48.0,0.0,0.6969609999999999,0.45068400000000003,0.396973,-0.391846,0.9199360000000001,-0.32861799999999997,-0.285161,-0.015915000000000002,-0.053013,-0.033297,,,,,,,,,,,,,,,,,,,,,,,,,,,,,,,,,,,,,,,,,,,,,,,,,,,,,,,,,,,,,,,,,
23605,1645649658.358543,1645649658.359288,97.0,0.0,3087.6923829999996,4133.333496,4360.0,4276.922852000001,4032.3076170000004,450.0,3.0,64.0,,,,0.0,2.0,4.0,1.0,0.0,4.0,25.0,,,,,,,,,,,,,,,,,,,,,,,,,,,,,,,,,,,,,,,,,,,,,,,,,,,,,,,,,,,,,,,,,,,,,,,,,,,,,,,,,,,,
23606,1645649658.366359,1645649658.367102,98.0,0.0,3060.0,4474.358886999999,4269.230957,4272.307617,4069.2307130000004,450.0,3.0,64.0,,,,0.0,2.0,4.0,1.0,0.0,4.0,25.0,,,,,,,,49.0,0.0,0.697098,0.45068400000000003,0.396973,-0.391602,0.913588,-0.334966,-0.282231,-0.016276,-0.052937,-0.035582,,,,,,,,,,,,,,,,,,,,,,,,,,,,,,,,,,,,,,,,,,,,,,,,,,,,,,,,,,,,,,,,,
23607,1645649658.374175,1645649658.374916,99.0,0.0,3143.076904,5234.358886999999,4174.358886999999,4263.589844,4236.410156,16156.0,3.0,64.0,,,,0.0,2.0,4.0,1.0,0.0,4.0,25.0,,,,,,,,,,,,,,,,,,,,,,,,,,,,,,,,,,,,,,,,,,,,,,,,,,,,,,0.0,0.0,32.0,1.0,1.0,0.0,,,,,,,,,,,,,,,,,,,,,,,,,
23608,1645649658.381991,1645649658.382731,100.0,0.0,3224.615479,5017.94873,4158.974121,4265.128418,4267.179688,450.0,3.0,64.0,,,,0.0,2.0,4.0,1.0,0.0,4.0,25.0,,,,,,,,50.0,0.0,0.697098,0.45068400000000003,0.396973,-0.391602,0.918959,-0.32910700000000004,-0.283696,-0.015235,-0.052916,-0.03759,,,,,,,,,,,,,,,,,,,,,,,,,,,,,,,,,,,,,,,,,,,,,,,,,,,,,,,,,,,,,,,,,
23609,1645649658.389806,1645649658.390545,101.0,0.0,3290.769287,4130.256348,4207.179688,4263.077147999999,4168.717772999999,450.0,3.0,64.0,,,,0.0,2.0,4.0,1.0,0.0,4.0,25.0,,,,,,,,,,,,,,,,,,,,,,,,,,,,,,,,,,,,,,,,,,,,,,,,,,,,,,,,,,,,,,,,,,,,,,,,,,,,,,,,,,,,
23610,1645649658.397622,1645649658.39836,102.0,0.0,3297.435791,3991.281982,4250.256348,4264.615234000001,4168.205078,450.0,3.0,64.0,,,,0.0,2.0,4.0,1.0,0.0,4.0,25.0,,,,,,,,51.0,0.0,0.697098,0.45068400000000003,0.396973,-0.391602,0.925795,-0.32959499999999997,-0.284184,-0.015762,-0.052898,-0.033245,,,,,,,,,,,,,,,,,,,,,,,,,,,,,,,,,,,,,,,,,,,,,,,,,,,,,,,,,,,,,,,,,
23611,1645649658.4054382,1645649658.406174,103.0,0.0,3183.589844,4399.487305,4275.384765999999,4276.410156,4175.384765999999,16156.0,3.0,64.0,,,,0.0,2.0,4.0,1.0,0.0,4.0,25.0,,,,,,,,,,,,,,,,,,,,,,,,,,,,,,,,,,,,,,,,,,,,,,,,,,,,,,0.0,0.0,32.0,1.0,1.0,0.0,,,,,,,,,,,,,,,,,,,,,,,,,
23612,1645649658.413254,1645649658.4138892,104.0,0.0,3131.281982,4574.871582,4289.743652,4276.922852000001,4190.256348,450.0,3.0,64.0,,,,0.0,2.0,4.0,1.0,0.0,4.0,25.0,,,,,,,,52.0,0.0,0.697237,0.45068400000000003,0.396729,-0.391602,0.914076,-0.331548,-0.283696,-0.016138999999999997,-0.052833000000000005,-0.035732,,,,,,,,,,,,,,,,,,,,,,,,,,,,,,,,,,,,,,,,,,,,,,,,,,,,,,,,,,,,,,,,,
23613,1645649658.4210699,1645649658.4217029,105.0,0.0,3144.102539,4854.871582,4247.179688,4267.179688,4249.743652,450.0,3.0,64.0,,,,0.0,2.0,4.0,1.0,0.0,4.0,25.0,,,,,,,,,,,,,,,,,,,,,,,,,,,,,,,,,,,,,,,,,,,,,,,,,,,,,,,,,,,,,,,,,,,,,,,,,,,,,,,,,,,,
23614,1645649658.428886,1645649658.429517,106.0,0.0,3194.3588870000003,5114.871582,4255.384765999999,4269.230957,4264.615234000001,450.0,3.0,64.0,,,,0.0,2.0,4.0,1.0,0.0,4.0,25.0,,,,,,,,53.0,0.0,0.697237,0.45068400000000003,0.396729,-0.391602,0.9199360000000001,-0.325689,-0.284672,-0.016527,-0.052823,-0.037774,,,,,,,,,,,,,,,,,,,,,,,,,,,,,,,,,,,,,,,,,,,,,,,,,,,,,,,,,,,,,,,,,
23615,1645649658.436701,1645649658.437332,107.0,0.0,3297.435791,4908.717772999999,4262.563965,4265.641113000001,4195.897461,16156.0,3.0,64.0,,,,0.0,2.0,4.0,1.0,0.0,4.0,25.0,,,,,,,,,,,,,,,,,,,,,,,,,,,,,,,,,,,,,,,,,,,,,,,,,,,,,,0.0,0.0,32.0,1.0,1.0,0.0,,,,,,,,,,,,,,,,,,,,,,,,,
23616,1645649658.444517,1645649658.445146,108.0,0.0,3377.9487299999996,4662.563965,4282.05127,4255.384765999999,4191.282227000001,450.0,3.0,64.0,,,,0.0,2.0,4.0,1.0,0.0,4.0,25.0,,,,,,,,54.0,0.0,0.6971,0.45068400000000003,0.396729,-0.391846,0.9116350000000001,-0.31787600000000005,-0.289067,-0.016925,-0.05271699999999999,-0.03341,,,,,,,,,,,,,,,,,,,,,,,,,,,,,,,,,,,,,,,,,,,,,,,,,,,,,,,,,,,,,,,,,
23617,1645649658.452333,1645649658.452961,109.0,0.0,3286.153809,4399.487305,4336.410156,4264.102539,4150.256348,450.0,3.0,64.0,,,,0.0,2.0,4.0,1.0,0.0,4.0,25.0,,,,,,,,,,,,,,,,,,,,,,,,,,,,,,,,,,,,,,,,,,,,,,,,,,,,,,,,,,,,,,,,,,,,,,,,,,,,,,,,,,,,
23618,1645649658.460149,1645649658.460775,110.0,0.0,3163.589844,4239.487305,4406.153809,4275.384765999999,4048.718018,450.0,3.0,64.0,,,,0.0,2.0,4.0,1.0,0.0,4.0,25.0,,,,,,,,55.0,0.0,0.697237,0.45068400000000003,0.396729,-0.391602,0.914076,-0.331548,-0.283696,-0.017235,-0.052815999999999995,-0.029435000000000003,,,,,,,,,,,,,,,,,,,,,,,,,,,,,,,,,,,,,,,,,,,,,,,,,,,,,,,,,,,,,,,,,
23619,1645649658.4679651,1645649658.468589,111.0,0.0,3189.230713,4749.743652,4324.615234000001,4272.307617,4118.461426,16156.0,3.0,64.0,,,,0.0,2.0,4.0,1.0,0.0,4.0,25.0,,,,,,,,,,,,,,,,,,,,1.0,0.0,0.0,,,,,,,,,,,,,,,,,,,,,,,,,,,,,,,,0.0,0.0,1.0,0.0,512.0,1.0,3618.9094240000004,945.573853,173.116379,17.740092999999998,13.386504,1434.551758,2191.45459,569.575806,156.889465,122.31228600000001,130.910797,125.36945300000001,18.38974,16.51194,6.018194,12.700811999999999,1.3031549999999998,0.133482,0.07888200000000001,0.031501,235.645996,54.400799,32.640293,10.830356,6.645438
23620,1645649658.475781,1645649658.476404,112.0,0.0,3254.871826,5214.871582,4254.358886999999,4269.230957,4263.589844,450.0,3.0,64.0,,,,0.0,2.0,4.0,1.0,0.0,4.0,25.0,,,,,,,,56.0,0.0,0.6971,0.45068400000000003,0.396729,-0.391846,0.9116350000000001,-0.31787600000000005,-0.289067,-0.017562,-0.052711,-0.025905,,,,,,,,,,,,,,,,,,,,,,,,,,,,,,,,,,,,,,,,,,,,,,,,,,,,,,,,,,,,,,,,,
23621,1645649658.483596,1645649658.484318,113.0,0.0,3274.871826,5159.487305,4230.769043,4270.256348,4265.641113000001,450.0,3.0,64.0,,,,0.0,2.0,4.0,1.0,0.0,4.0,25.0,,,,,,,,,,,,,,,,,,,,,,,,,,,,,,,,,,,,,,,,,,,,,,,,,,,,,,,,,,,,,,,,,,,,,,,,,,,,,,,,,,,,
23622,1645649658.491412,1645649658.492132,114.0,0.0,3278.4614260000003,5081.538574,4208.205078,4266.153809,4222.05127,450.0,3.0,64.0,,,,0.0,2.0,4.0,1.0,0.0,4.0,25.0,,,,,,,,57.0,0.0,0.6971,0.45068400000000003,0.396729,-0.391846,0.9091940000000001,-0.311528,-0.283696,-0.017808,-0.052811000000000004,-0.022680000000000002,,,,,,,,,,,,,,,,,,,,,,,,,,,,,,,,,,,,,,,,,,,,,,,,,,,,,,,,,,,,,,,,,
23623,1645649658.499228,1645649658.499947,115.0,0.0,3347.179443,4915.897461,4165.128418,4261.025879,4271.282227000001,16156.0,3.0,64.0,,,,0.0,2.0,4.0,1.0,0.0,4.0,25.0,,,,,,,,,,,,,,,,,,,,,,,,,,,,,,,,,,,,,,,,,,,,,,,,,,,,,,0.0,0.0,1.0,0.0,512.0,1.0,,,,,,,,,,,,,,,,,,,,,,,,,
23624,1645649658.5070438,1645649658.507761,116.0,0.0,3451.794922,4784.615234000001,4145.641113000001,4256.922852000001,4288.717772999999,450.0,3.0,64.0,,,,0.0,2.0,4.0,1.0,0.0,4.0,25.0,,,,,,,,58.0,0.0,0.696962,0.45068400000000003,0.396729,-0.39209,0.9150530000000001,-0.321782,-0.28076599999999996,-0.018029,-0.052802999999999996,-0.026076,,,,,,,,,,,,,,,,,,,,,,,,,,,,,,,,,,,,,,,,,,,,,,,,,,,,,,,,,,,,,,,,,
23625,1645649658.51486,1645649658.515576,117.0,0.0,3480.512939,4536.922852000001,4194.358886999999,4260.512695,4269.743652,450.0,3.0,64.0,,,,0.0,2.0,4.0,1.0,0.0,4.0,25.0,,,,,,,,,,,,,,,,,,,,,,,,,,,,,,,,,,,,,,,,,,,,,,,,,,,,,,,,,,,,,,,,,,,,,,,,,,,,,,,,,,,,
23626,1645649658.522676,1645649658.52339,118.0,0.0,3375.384521,3966.1538090000004,4308.205078,4267.692383,4199.487305,450.0,3.0,64.0,,,,0.0,2.0,4.0,1.0,0.0,4.0,25.0,,,,,,,,59.0,0.0,0.696962,0.45068400000000003,0.396729,-0.39209,0.922866,-0.327153,-0.274907,-0.018326,-0.052845,-0.022785,,,,,,,,,,,,,,,,,,,,,,,,,,,,,,,,,,,,,,,,,,,,,,,,,,,,,,,,,,,,,,,,,
23627,1645649658.530491,1645649658.5312052,119.0,0.0,3295.897461,3966.1538090000004,4333.846191,4270.256348,4117.94873,16156.0,3.0,64.0,,,,0.0,2.0,4.0,1.0,0.0,4.0,25.0,,,,,,,,,,,,,,,,,,,,,,,,,,,,,,,,,,,,,,,,,,,,,,,,,,,,,,0.0,0.0,1.0,0.0,512.0,1.0,,,,,,,,,,,,,,,,,,,,,,,,,
23628,1645649658.538307,1645649658.5390189,120.0,0.0,3260.0,4508.205078,4262.563965,4270.769043,4073.3332520000004,450.0,3.0,64.0,,,,0.0,2.0,4.0,1.0,0.0,4.0,25.0,,,,,,,,60.0,0.0,0.696943,0.450928,0.396484,-0.39209,0.9116350000000001,-0.31543499999999997,-0.286137,-0.018544,-0.052883000000000006,-0.026170999999999996,,,,,,,,,,,,,,,,,,,,,,,,,,,,,,,,,,,,,,,,,,,,,,,,,,,,,,,,,,,,,,,,,
23629,1645649658.546123,1645649658.546833,121.0,0.0,3296.410156,4500.0,4293.333496,4273.333496,4135.897461,450.0,3.0,64.0,,,,0.0,2.0,4.0,1.0,0.0,4.0,25.0,,,,,,,,,,,,,,,,,,,,,,,,,,,,,,,,,,,,,,,,,,,,,,,,,,,,,,,,,,,,,,,,,,,,,,,,,,,,,,,,,,,,
23630,1645649658.553939,1645649658.554548,122.0,0.0,3314.871826,4300.0,4324.615234000001,4275.384765999999,4146.666504,450.0,3.0,64.0,,,,0.0,2.0,4.0,1.0,0.0,4.0,25.0,,,,,,,,61.0,0.0,0.696943,0.450928,0.396484,-0.39209,0.917983,-0.30811,-0.283696,-0.018643,-0.052917,-0.022869999999999998,,,,,,,,,,,,,,,,,,,,,,,,,,,,,,,,,,,,,,,,,,,,,,,,,,,,,,,,,,,,,,,,,
23631,1645649658.5617552,1645649658.562362,123.0,0.0,3279.487061,4680.0,4294.358886999999,4275.384765999999,4111.282227000001,16156.0,3.0,64.0,,,,0.0,2.0,4.0,1.0,0.0,4.0,25.0,,,,,,,,,,,,,,,,,,,,,,,,,,,,,,,,,,,,,,,,,,,,,,,,,,,,,,0.0,0.0,1.0,0.0,512.0,1.0,,,,,,,,,,,,,,,,,,,,,,,,,
23632,1645649658.569571,1645649658.5701768,124.0,0.0,3247.6923829999996,5078.974121,4257.436035,4270.256348,4174.358886999999,450.0,3.0,64.0,,,,0.0,2.0,4.0,1.0,0.0,4.0,25.0,,,,,,,,62.0,0.0,0.697082,0.450928,0.39624000000000004,-0.39209,0.929213,-0.330571,-0.289555,-0.01878,-0.052899,-0.026149000000000002,,,,,,,,,,,,,,,,,,,,,,,,,,,,,,,,,,,,,,,,,,,,,,,,,,,,,,,,,,,,,,,,,
23633,1645649658.5773869,1645649658.577991,125.0,0.0,3294.871826,5051.282227000001,4296.922852000001,4265.641113000001,4269.743652,450.0,3.0,64.0,,,,0.0,2.0,4.0,1.0,0.0,4.0,25.0,,,,,,,,,,,,,,,,,,,,,,,,,,,,,,,,,,,,,,,,,,,,,,,,,,,,,,,,,,,,,,,,,,,,,,,,,,,,,,,,,,,,
23634,1645649658.585202,1645649658.5858052,126.0,0.0,3310.769287,4993.333496,4282.05127,4269.230957,4223.077147999999,450.0,3.0,64.0,,,,0.0,2.0,4.0,1.0,0.0,4.0,25.0,,,,,,,,63.0,0.0,0.6967869999999999,0.451172,0.39624000000000004,-0.392334,0.9038219999999999,-0.318853,-0.279789,-0.018904,-0.052834000000000006,-0.029199,,,,,,,,,,,,,,,,,,,,,,,,,,,,,,,,,,,,,,,,,,,,,,,,,,,,,,,,,,,,,,,,,
23635,1645649658.593018,1645649658.5936198,127.0,0.0,3280.512939,5006.666504,4284.102539,4272.307617,4166.153809,236.0,3.0,64.0,,,,0.0,2.0,4.0,1.0,0.0,4.0,25.0,,,,,,,,,,,,,,,,,,,,1.0,0.0,0.0,,,,,,,,,,,,,,,,,,,,,,,,,,,,,,,,0.0,0.0,1.0,0.0,512.0,1.0,5246.85498,1425.129517,238.05390899999998,21.376825,15.968925,1295.941895,1844.03479,535.30365,203.689987,161.936172,139.043655,131.547745,19.061417000000002,17.36112,6.3506339999999994,19.485569,1.633759,0.136231,0.09241100000000001,0.033237,318.71423300000004,50.996990000000004,26.709576000000002,12.484816,8.599879
23636,1645649658.600834,1645649658.601434,0.0,0.0,3340.512939,5068.205078,4250.769043,4265.128418,4228.205078,450.0,3.0,64.0,,,,0.0,2.0,4.0,1.0,0.0,4.0,25.0,,,,,,,,0.0,0.0,0.696945,0.450928,0.39624000000000004,-0.392334,0.914076,-0.316899,-0.291997,-0.017502,-0.052921,-0.025546,,,,,,,,,,,,,,,,,,,,,,,,,,,,,,,,,,,,,,,,,,,,,,,,,,,,,,,,,,,,,,,,,
23637,1645649658.60865,1645649658.609349,1.0,0.0,3438.974365,5220.512695,4199.487305,4258.461426,4261.538574,450.0,3.0,64.0,,,,0.0,2.0,0.0,1.0,0.0,4.0,8.333333,,,,,,,,,,,,,,,,,,,,,,,,,,,,,,,,,,,,,,,,,,,,,,,,,,,,,,,,,,,,,,,,,,,,,,,,,,,,,,,,,,,,
23638,1645649658.616466,1645649658.6171632,2.0,0.0,3477.9487299999996,4965.128418,4211.282227000001,4261.538574,4224.102539,213.0,3.0,64.0,,,,0.0,2.0,0.0,1.0,0.0,4.0,8.333333,,,,,,,,1.0,0.0,0.6967869999999999,0.451172,0.39624000000000004,-0.392334,0.9126120000000001,-0.32422399999999996,-0.286137,-0.016143,-0.053001,-0.028656,,,,,,,,,,,,,,,,,,,,,,,,,,,,,,,,,,,,,,,,,,,,,,,,,,,,,,,,,,,,,,,,,
23639,1645649658.6242821,1645649658.6249769,3.0,0.0,3474.358887,4206.153809,4324.615234000001,4265.128418,4166.666504,450.0,3.0,64.0,,,,0.0,2.0,0.0,1.0,0.0,4.0,8.333333,,,,,,,,,,,,,,,,,,,,,,,,,,,,,,,,,,,,,,,,,,,,,,,,,,,,,,0.0,0.0,1.0,0.0,512.0,1.0,,,,,,,,,,,,,,,,,,,,,,,,,
23640,1645649658.632097,1645649658.632792,4.0,0.0,3498.974365,3801.025635,4352.307617,4265.641113000001,4152.820313,32.0,3.0,64.0,,,,0.0,2.0,0.0,1.0,0.0,4.0,8.333333,,,,,,,,2.0,0.0,0.697063,0.451172,0.395996,-0.39209,0.9267719999999999,-0.324712,-0.286625,-0.016628,-0.052925,-0.025155,,,,,,,,,,,,,,,,,,,,,,,,,,,,,,,,,,,,,,,,,,,,,,,,,,,,,,,,,,,,,,,,,
23641,1645649658.639913,1645649658.6406062,5.0,0.0,3452.3076170000004,4066.1538090000004,4284.615234000001,4267.179688,4130.769043,450.0,3.0,64.0,,,,0.0,2.0,0.0,1.0,0.0,4.0,8.333333,,,,,,,,,,,,,,,,,,,,,,,,,,,,,,,,,,,,,,,,,,,,,,,,,,,,,,,,,,,,,,,,,,,,,,,,,,,,,,,,,,,,
23642,1645649658.647729,1645649658.648421,6.0,0.0,3397.9487299999996,4205.128418,4263.077147999999,4269.743652,4135.384765999999,83.0,3.0,64.0,,,,0.0,2.0,0.0,1.0,0.0,4.0,8.333333,,,,,,,,3.0,0.0,0.697063,0.451172,0.395996,-0.39209,0.914076,-0.326177,-0.287602,-0.017016,-0.05285700000000001,-0.028206000000000002,,,,,,,,,,,,,,,,,,,,,,,,,,,,,,,,,,,,,,,,,,,,,,,,,,,,,,,,,,,,,,,,,
23643,1645649658.655545,1645649658.656235,7.0,0.0,3384.102539,4302.05127,4235.897461,4269.743652,4153.846191,450.0,3.0,64.0,,,,0.0,2.0,0.0,1.0,0.0,4.0,8.333333,,,,,,,,,,,,,,,,,,,,,,,,,,,,,,,,,,,,,,,,,,,,,,,,,,,,,,0.0,0.0,1.0,0.0,512.0,1.0,,,,,,,,,,,,,,,,,,,,,,,,,
23644,1645649658.6633608,1645649658.664049,8.0,0.0,3426.6667479999996,4424.102539,4241.025879,4272.820313,4163.077147999999,450.0,3.0,64.0,,,,0.0,2.0,0.0,1.0,0.0,4.0,8.333333,,,,,,,,4.0,0.0,0.697063,0.451172,0.395996,-0.39209,0.9116350000000001,-0.324712,-0.282719,-0.017315999999999998,-0.052845,-0.024751,,,,,,,,,,,,,,,,,,,,,,,,,,,,,,,,,,,,,,,,,,,,,,,,,,,,,,,,,,,,,,,,,
23645,1645649658.671177,1645649658.671864,9.0,0.0,3423.5898439999996,4303.589844,4307.179688,4275.384765999999,4142.563965,0.0,3.0,64.0,,,,0.0,2.0,0.0,1.0,0.0,4.0,8.333333,,,,,,,,,,,,,,,,,,,,,,,,,,,,,,,,,,,,,,,,,,,,,,,,,,,,,,,,,,,,,,,,,,,,,,,,,,,,,,,,,,,,
23646,1645649658.678992,1645649658.6797779,10.0,0.0,3395.897461,4385.128418,4345.641113000001,4272.820313,4176.410156,450.0,3.0,64.0,,,,0.0,2.0,0.0,1.0,0.0,4.0,8.333333,,,,,,,,5.0,0.0,0.696905,0.451416,0.395996,-0.39209,0.9150530000000001,-0.327642,-0.282719,-0.017537999999999998,-0.052834000000000006,-0.027939999999999996,,,,,,,,,,,,,,,,,,,,,,,,,,,,,,,,,,,,,,,,,,,,,,,,,,,,,,,,,,,,,,,,,
23647,1645649658.686808,1645649658.687593,11.0,0.0,3367.179443,4479.487305,4293.846191,4270.256348,4137.436035,16155.0,3.0,64.0,,,,0.0,2.0,0.0,1.0,0.0,4.0,8.333333,,,,,,,,,,,,,,,,,,,,,,,,,,,,,,,,,,,,,,,,,,,,,,,,,,,,,,0.0,0.0,1.0,0.0,512.0,1.0,,,,,,,,,,,,,,,,,,,,,,,,,
23648,1645649658.694624,1645649658.695407,12.0,0.0,3394.358887,4242.05127,4318.461426,4269.743652,4081.538574,450.0,3.0,64.0,,,,0.0,2.0,0.0,1.0,0.0,4.0,8.333333,,,,,,,,6.0,0.0,0.6970430000000001,0.451416,0.395752,-0.39209,0.9038219999999999,-0.3252,-0.287602,-0.017737,-0.052873,-0.024658000000000003,,,,,,,,,,,,,,,,,,,,,,,,,,,,,,,,,,,,,,,,,,,,,,,,,,,,,,,,,,,,,,,,,
23649,1645649658.70244,1645649658.703221,13.0,0.0,3424.615479,4101.538574,4373.846191,4271.282227000001,4114.358886999999,450.0,3.0,64.0,,,,0.0,2.0,0.0,1.0,0.0,4.0,8.333333,,,,,,,,,,,,,,,,,,,,,,,,,,,,,,,,,,,,,,,,,,,,,,,,,,,,,,,,,,,,,,,,,,,,,,,,,,,,,,,,,,,,
23650,1645649658.710256,1645649658.711036,14.0,0.0,3435.897461,4340.512695,4389.743652,4272.820313,4132.307617,450.0,3.0,64.0,,,,0.0,2.0,0.0,1.0,0.0,4.0,8.333333,,,,,,,,7.0,0.0,0.6970430000000001,0.451416,0.395752,-0.39209,0.9233540000000001,-0.31543499999999997,-0.278325,-0.017917,-0.052859,-0.027807,,,,,,,,,,,,,,,,,,,,,,,,,,,,,,,,,,,,,,,,,,,,,,,,,,,,,,,,,,,,,,,,,
23651,1645649658.7180722,1645649658.71885,15.0,0.0,3449.743652,4523.589844,4342.563965,4275.384765999999,4077.4357909999994,16155.0,3.0,64.0,,,,0.0,2.0,0.0,1.0,0.0,4.0,8.333333,,,,,,,,,,,,,,,,,,,,1.0,0.0,0.0,,,,,,,,,,,,,,,,,,,,,,,,,,,,,,,,0.0,0.0,1.0,0.0,512.0,1.0,6563.817383,1810.358643,285.43807999999996,27.943758000000003,18.552985999999997,1140.563843,1564.838013,510.63226299999997,336.09082,264.097839,144.149796,139.442352,20.144506,18.268793,6.902611,25.259001,1.844754,0.132716,0.117327,0.044227999999999996,379.092438,51.734974,20.434372,16.263635999999998,12.060738
23652,1645649658.7258868,1645649658.726665,16.0,0.0,3441.538574,4447.692383,4348.717772999999,4273.846191,4088.718018,0.0,3.0,64.0,,,,0.0,2.0,0.0,1.0,0.0,4.0,8.333333,,,,,,,,8.0,0.0,0.6970430000000001,0.451416,0.395752,-0.39209,0.910658,-0.33350100000000005,-0.290044,-0.018078,-0.052749000000000004,-0.024441,,,,,,,,,,,,,,,,,,,,,,,,,,,,,,,,,,,,,,,,,,,,,,,,,,,,,,,,,,,,,,,,,
23653,1645649658.733703,1645649658.734479,17.0,0.0,3421.025635,4388.205078,4309.743652,4271.282227000001,4128.205078,0.0,3.0,64.0,,,,0.0,2.0,0.0,1.0,0.0,4.0,8.333333,,,,,,,,,,,,,,,,,,,,,,,,,,,,,,,,,,,,,,,,,,,,,,,,,,,,,,,,,,,,,,,,,,,,,,,,,,,,,,,,,,,,
23654,1645649658.741519,1645649658.742393,18.0,0.0,3412.3076170000004,4408.205078,4248.205078,4271.282227000001,4084.615479,0.0,3.0,64.0,,,,0.0,2.0,0.0,1.0,0.0,4.0,8.333333,,,,,,,,9.0,0.0,0.697182,0.451416,0.39550799999999997,-0.39209,0.9277489999999999,-0.340826,-0.290044,-0.018272,-0.052748,-0.027710000000000002,,,,,,,,,,,,,,,,,,,,,,,,,,,,,,,,,,,,,,,,,,,,,,,,,,,,,,,,,,,,,,,,,
23655,1645649658.749335,1645649658.750208,19.0,0.0,3488.718018,4218.974121,4252.820313,4270.769043,4138.974121,0.0,3.0,64.0,,,,0.0,2.0,0.0,1.0,0.0,4.0,8.333333,,,,,,,,,,,,,,,,,,,,,,,,,,,,,,,,,,,,,,,,,,,,,,,,,,,,,,0.0,0.0,1.0,0.0,512.0,1.0,,,,,,,,,,,,,,,,,,,,,,,,,
23656,1645649658.757151,1645649658.758022,20.0,0.0,3554.358887,3935.897461,4343.077147999999,4270.769043,4207.179688,0.0,3.0,64.0,,,,0.0,2.0,0.0,1.0,0.0,4.0,8.333333,,,,,,,,10.0,0.0,0.697181,0.451416,0.395752,-0.391846,0.925795,-0.318364,-0.27393,-0.016933,-0.052747,-0.030652,,,,,,,,,,,,,,,,,,,,,,,,,,,,,,,,,,,,,,,,,,,,,,,,,,,,,,,,,,,,,,,,,
23657,1645649658.764967,1645649658.765837,21.0,0.0,3581.538574,3984.102539,4338.974121,4266.153809,4186.666504,0.0,3.0,64.0,,,,0.0,2.0,0.0,1.0,0.0,4.0,8.333333,,,,,,,,,,,,,,,,,,,,,,,,,,,,,,,,,,,,,,,,,,,,,,,,,,,,,,,,,,,,,,,,,,,,,,,,,,,,,,,,,,,,
23658,1645649658.772782,1645649658.773651,22.0,0.0,3575.897461,4226.153809,4235.384765999999,4258.974121,4165.128418,0.0,3.0,64.0,,,,0.0,2.0,0.0,1.0,0.0,4.0,8.333333,,,,,,,,11.0,0.0,0.697181,0.451416,0.395752,-0.391846,0.9091940000000001,-0.3252,-0.282231,-0.015728,-0.05274500000000001,-0.033299,,,,,,,,,,,,,,,,,,,,,,,,,,,,,,,,,,,,,,,,,,,,,,,,,,,,,,,,,,,,,,,,,
23659,1645649658.7805982,1645649658.781465,23.0,0.0,3615.897461,4384.102539,4209.230957,4261.538574,4235.897461,0.0,3.0,64.0,,,,0.0,2.0,0.0,1.0,0.0,4.0,8.333333,,,,,,,,,,,,,,,,,,,,,,,,,,,,,,,,,,,,,,,,,,,,,,,,,,,,,,0.0,0.0,1.0,0.0,512.0,1.0,,,,,,,,,,,,,,,,,,,,,,,,,
23660,1645649658.788414,1645649658.7892802,24.0,0.0,3646.6667479999996,4386.153809,4239.487305,4264.615234000001,4244.102539,0.0,3.0,64.0,,,,0.0,2.0,0.0,1.0,0.0,4.0,8.333333,,,,,,,,12.0,0.0,0.697023,0.45166000000000006,0.395752,-0.391846,0.914076,-0.333013,-0.29395,-0.014643999999999999,-0.052890999999999994,-0.035585000000000006,,,,,,,,,,,,,,,,,,,,,,,,,,,,,,,,,,,,,,,,,,,,,,,,,,,,,,,,,,,,,,,,,
23661,1645649658.79623,1645649658.7970939,25.0,0.0,3644.102539,4144.102539,4280.512695,4263.589844,4221.538574,0.0,3.0,64.0,,,,0.0,2.0,0.0,1.0,0.0,4.0,8.333333,,,,,,,,,,,,,,,,,,,,,,,,,,,,,,,,,,,,,,,,,,,,,,,,,,,,,,,,,,,,,,,,,,,,,,,,,,,,,,,,,,,,
23662,1645649658.8040462,1645649658.804909,26.0,0.0,3560.0,3890.256348,4323.077147999999,4263.077147999999,4201.538574,0.0,3.0,64.0,,,,0.0,2.0,0.0,1.0,0.0,4.0,8.333333,,,,,,,,13.0,0.0,0.69716,0.45166000000000006,0.395752,-0.391602,0.916518,-0.332036,-0.286625,-0.015181,-0.052875,-0.037642,,,,,,,,,,,,,,,,,,,,,,,,,,,,,,,,,,,,,,,,,,,,,,,,,,,,,,,,,,,,,,,,,
23663,1645649658.811862,1645649658.8127232,27.0,0.0,3485.641113,4071.794922,4368.717772999999,4267.179688,4170.769043,0.0,3.0,64.0,,,,0.0,2.0,0.0,1.0,0.0,4.0,8.333333,,,,,,,,,,,,,,,,,,,,,,,,,,,,,,,,,,,,,,,,,,,,,,,,,,,,,,0.0,0.0,1.0,0.0,512.0,1.0,,,,,,,,,,,,,,,,,,,,,,,,,
23664,1645649658.8196769,1645649658.820637,28.0,0.0,3506.6667479999996,4299.487305,4321.538574,4270.256348,4118.461426,0.0,3.0,64.0,,,,0.0,2.0,0.0,1.0,0.0,4.0,8.333333,,,,,,,,14.0,0.0,0.69714,0.451904,0.39550799999999997,-0.391602,0.917006,-0.32959499999999997,-0.286137,-0.015861,-0.052812,-0.039444,,,,,,,,,,,,,,,,,,,,,,,,,,,,,,,,,,,,,,,,,,,,,,,,,,,,,,,,,,,,,,,,,
23665,1645649658.827493,1645649658.8284519,29.0,0.0,3552.3076170000004,4125.128418,4319.487305,4269.230957,4100.512695,0.0,3.0,64.0,,,,0.0,2.0,0.0,1.0,0.0,4.0,8.333333,,,,,,,,,,,,,,,,,,,,,,,,,,,,,,,,,,,,,,,,,,,,,,,,,,,,,,,,,,,,,,,,,,,,,,,,,,,,,,,,,,,,
23666,1645649658.835309,1645649658.836266,30.0,0.0,3537.9487299999996,4012.820557,4359.487305,4267.692383,4108.205078,0.0,3.0,64.0,,,,0.0,2.0,0.0,1.0,0.0,4.0,8.333333,,,,,,,,15.0,0.0,0.69714,0.451904,0.39550799999999997,-0.391602,0.9131,-0.314458,-0.289067,-0.016277,-0.052756,-0.034914,,,,,,,,,,,,,,,,,,,,,,,,,,,,,,,,,,,,,,,,,,,,,,,,,,,,,,,,,,,,,,,,,
23667,1645649658.843125,1645649658.84408,31.0,0.0,3550.7692869999996,4130.769043,4407.179688,4270.256348,4126.153809,0.0,3.0,64.0,,,,0.0,2.0,0.0,1.0,0.0,4.0,8.333333,1.0,0.0,0.0,0.0,0.0,0.0,1.0,,,,,,,,,,,,,1.0,0.0,0.0,,,,,,,,,,,,,,,,,,,,,,,,,,,,,,,,0.0,0.0,1.0,0.0,512.0,1.0,7082.985352,1963.6109620000002,297.745331,38.074139,20.926208,1009.5093380000001,1369.5939939999998,522.486023,571.5811160000001,429.38925199999994,143.248215,144.991089,21.825823,19.592211,7.658108,28.057985,1.855502,0.131697,0.156136,0.067012,393.866241,56.699261,16.019560000000002,22.244148000000003,16.887358
23668,1645649658.850941,1645649658.8518949,32.0,0.0,3611.794922,3970.7692869999996,4397.94873,4271.794922,4115.897461,0.0,3.0,64.0,,,,0.0,2.0,0.0,1.0,0.0,4.0,8.333333,,,,,,,,16.0,0.0,0.69714,0.451904,0.39550799999999997,-0.391602,0.925307,-0.316899,-0.27686,-0.016651,-0.052753999999999995,-0.03694,,,,,,,,,,,,,,,,,,,,,,,,,,,,,,,,,,,,,,,,,,,,,,,,,,,,,,,,,,,,,,,,,
23669,1645649658.858757,1645649658.859709,33.0,0.0,3596.4101560000004,3929.743652,4355.384765999999,4267.179688,4088.205078,0.0,3.0,64.0,,,,0.0,2.0,0.0,1.0,0.0,4.0,8.333333,,,,,,,,,,,,,,,,,,,,,,,,,,,,,,,,,,,,,,,,,,,,,,,,,,,,,,,,,,,,,,,,,,,,,,,,,,,,,,,,,,,,
23670,1645649658.866573,1645649658.867524,34.0,0.0,3594.8718259999996,4248.205078,4248.205078,4264.615234000001,4114.358886999999,0.0,3.0,64.0,,,,0.0,2.0,0.0,1.0,0.0,4.0,8.333333,,,,,,,,17.0,0.0,0.697277,0.451904,0.39550799999999997,-0.391357,0.921889,-0.326665,-0.286137,-0.016939,-0.052752,-0.038861,,,,,,,,,,,,,,,,,,,,,,,,,,,,,,,,,,,,,,,,,,,,,,,,,,,,,,,,,,,,,,,,,
23671,1645649658.8743892,1645649658.875338,35.0,0.0,3660.512939,4150.256348,4217.94873,4268.205078,4144.102539,0.0,3.0,64.0,,,,0.0,2.0,0.0,1.0,0.0,4.0,8.333333,,,,,,,,,,,,,,,,,,,,,,,,,,,,,,,,,,,,,,,,,,,,,,,,,,,,,,10.0,0.0,1.0,0.0,512.0,1.0,,,,,,,,,,,,,,,,,,,,,,,,,
23672,1645649658.8822038,1645649658.883153,36.0,0.0,3735.384521,4207.179688,4233.846191,4267.179688,4244.615234000001,0.0,3.0,64.0,,,,0.0,2.0,0.0,1.0,0.0,4.0,8.333333,,,,,,,,18.0,0.0,0.697277,0.451904,0.39550799999999997,-0.391357,0.9126120000000001,-0.330571,-0.285161,-0.017247,-0.052799,-0.034339999999999996,,,,,,,,,,,,,,,,,,,,,,,,,,,,,,,,,,,,,,,,,,,,,,,,,,,,,,,,,,,,,,,,,
23673,1645649658.89002,1645649658.891067,37.0,0.0,3801.025635,4758.461426,4225.128418,4258.974121,4279.487305,0.0,3.0,64.0,,,,0.0,2.0,0.0,1.0,0.0,4.0,8.333333,,,,,,,,,,,,,,,,,,,,,,,,,,,,,,,,,,,,,,,,,,,,,,,,,,,,,,,,,,,,,,,,,,,,,,,,,,,,,,,,,,,,
23674,1645649658.897836,1645649658.898881,38.0,0.0,3818.461426,4955.384765999999,4208.717772999999,4258.974121,4257.436035,0.0,3.0,64.0,,,,0.0,2.0,0.0,1.0,0.0,4.0,8.333333,,,,,,,,19.0,0.0,0.69714,0.451904,0.39550799999999997,-0.391602,0.925307,-0.316899,-0.27686,-0.017622,-0.05284199999999999,-0.03032,,,,,,,,,,,,,,,,,,,,,,,,,,,,,,,,,,,,,,,,,,,,,,,,,,,,,,,,,,,,,,,,,
23675,1645649658.905652,1645649658.906696,39.0,0.0,3655.897461,4995.384765999999,4172.820313,4266.153809,4285.641113000001,0.0,3.0,64.0,,,,0.0,2.0,0.0,1.0,0.0,4.0,8.333333,,,,,,,,,,,,,,,,,,,,,,,,,,,,,,,,,,,,,,,,,,,,,,,,,,,,,,10.0,0.0,1.0,0.0,512.0,1.0,,,,,,,,,,,,,,,,,,,,,,,,,
23676,1645649658.913468,1645649658.91451,40.0,0.0,3577.4357909999994,5152.307617,4167.179688,4267.692383,4307.179688,0.0,3.0,64.0,,,,0.0,2.0,0.0,1.0,0.0,4.0,8.333333,,,,,,,,20.0,0.0,0.697277,0.451904,0.39550799999999997,-0.391357,0.9126120000000001,-0.330571,-0.285161,-0.017862,-0.052879999999999996,-0.026654,,,,,,,,,,,,,,,,,,,,,,,,,,,,,,,,,,,,,,,,,,,,,,,,,,,,,,,,,,,,,,,,,
23677,1645649658.921284,1645649658.922324,41.0,0.0,3617.9487299999996,4680.0,4250.769043,4269.743652,4179.487305,0.0,3.0,64.0,,,,0.0,2.0,0.0,1.0,0.0,4.0,8.333333,,,,,,,,,,,,,,,,,,,,,,,,,,,,,,,,,,,,,,,,,,,,,,,,,,,,,,,,,,,,,,,,,,,,,,,,,,,,,,,,,,,,
23678,1645649658.929099,1645649658.930139,42.0,0.0,3621.538574,4230.256348,4363.077147999999,4276.410156,4131.282227000001,0.0,3.0,64.0,,,,0.0,2.0,0.0,1.0,0.0,4.0,8.333333,,,,,,,,21.0,0.0,0.697277,0.451904,0.39550799999999997,-0.391357,0.9155409999999999,-0.321294,-0.28320700000000004,-0.018126,-0.052962999999999996,-0.023353,,,,,,,,,,,,,,,,,,,,,,,,,,,,,,,,,,,,,,,,,,,,,,,,,,,,,,,,,,,,,,,,,
23679,1645649658.936915,1645649658.937953,43.0,0.0,3649.2307130000004,4438.974121,4318.461426,4267.692383,4214.871582,0.0,3.0,64.0,,,,0.0,2.0,0.0,1.0,0.0,4.0,8.333333,,,,,,,,,,,,,,,,,,,,,,,,,,,,,,,,,,,,,,,,,,,,,,,,,,,,,,10.0,0.0,1.0,0.0,512.0,1.0,,,,,,,,,,,,,,,,,,,,,,,,,
23680,1645649658.944731,1645649658.9457679,44.0,0.0,3708.718018,4556.410156,4261.025879,4258.461426,4207.692383,0.0,3.0,64.0,,,,0.0,2.0,0.0,1.0,0.0,4.0,8.333333,,,,,,,,22.0,0.0,0.697277,0.451904,0.39550799999999997,-0.391357,0.9150530000000001,-0.316411,-0.279301,-0.018365,-0.053038,-0.026585,,,,,,,,,,,,,,,,,,,,,,,,,,,,,,,,,,,,,,,,,,,,,,,,,,,,,,,,,,,,,,,,,
23681,1645649658.952547,1645649658.953582,45.0,0.0,3734.358887,4780.0,4262.563965,4262.05127,4186.666504,0.0,3.0,64.0,,,,0.0,2.0,0.0,1.0,0.0,4.0,8.333333,,,,,,,,,,,,,,,,,,,,,,,,,,,,,,,,,,,,,,,,,,,,,,,,,,,,,,,,,,,,,,,,,,,,,,,,,,,,,,,,,,,,
23682,1645649658.9603631,1645649658.961496,46.0,0.0,3789.2307130000004,5053.846191,4327.692383,4261.538574,4238.974121,0.0,3.0,64.0,,,,0.0,2.0,0.0,1.0,0.0,4.0,8.333333,,,,,,,,23.0,0.0,0.697574,0.45166000000000006,0.395264,-0.391357,0.9052870000000001,-0.327642,-0.28809,-0.01853,-0.05305599999999999,-0.023291,,,,,,,,,,,,,,,,,,,,,,,,,,,,,,,,,,,,,,,,,,,,,,,,,,,,,,,,,,,,,,,,,
23683,1645649658.968179,1645649658.969311,47.0,0.0,3723.5898439999996,5078.974121,4287.179688,4264.102539,4232.820313,0.0,3.0,64.0,,,,0.0,2.0,0.0,1.0,0.0,4.0,8.333333,,,,,,,,,,,,,,,,,,,,1.0,0.0,0.0,,,,,,,,,,,,,,,,,,,,,,,,,,,,,,,,10.0,0.0,1.0,0.0,512.0,1.0,6696.436035,1828.270142,269.651031,51.116455,22.888578,939.23584,1306.272217,586.553589,887.9187619999999,627.5888669999999,135.518982,145.51638799999998,24.115318,21.592966,8.521201,26.967987,1.6655369999999998,0.14127699999999999,0.204489,0.099537,358.98877000000005,66.092911,14.923997,29.346838,22.261835
23684,1645649658.9759939,1645649658.977125,48.0,0.0,3583.5898439999996,5213.846191,4234.358886999999,4269.743652,4211.794922,0.0,3.0,64.0,,,,0.0,2.0,0.0,1.0,0.0,4.0,8.333333,,,,,,,,24.0,0.0,0.697574,0.45166000000000006,0.395264,-0.391357,0.9126120000000001,-0.319341,-0.28320700000000004,-0.017214,-0.053024,-0.026577999999999997,,,,,,,,,,,,,,,,,,,,,,,,,,,,,,,,,,,,,,,,,,,,,,,,,,,,,,,,,,,,,,,,,
23685,1645649658.98381,1645649658.98494,49.0,0.0,3636.4101560000004,4998.461426,4280.0,4270.256348,4192.820313,0.0,3.0,64.0,,,,0.0,2.0,0.0,1.0,0.0,4.0,8.333333,,,,,,,,,,,,,,,,,,,,,,,,,,,,,,,,,,,,,,,,,,,,,,,,,,,,,,,,,,,,,,,,,,,,,,,,,,,,,,,,,,,,
23686,1645649658.991626,1645649658.992754,50.0,0.0,3708.718018,4283.589844,4378.974121,4274.358886999999,4118.974121,0.0,3.0,64.0,,,,0.0,2.0,0.0,1.0,0.0,4.0,8.333333,,,,,,,,25.0,0.0,0.697435,0.45166000000000006,0.39550799999999997,-0.391357,0.921401,-0.330083,-0.275883,-0.017592,-0.05299500000000001,-0.023431,,,,,,,,,,,,,,,,,,,,,,,,,,,,,,,,,,,,,,,,,,,,,,,,,,,,,,,,,,,,,,,,,
23687,1645649658.999442,1645649659.000568,51.0,0.0,3735.384521,4201.025879,4315.897461,4273.333496,4151.794922,0.0,3.0,64.0,,,,0.0,2.0,0.0,1.0,0.0,4.0,8.333333,,,,,,,,,,,,,,,,,,,,,,,,,,,,,,,,,,,,,,,,,,,,,,,,,,,,,,0.0,0.0,1.0,0.0,512.0,1.0,,,,,,,,,,,,,,,,,,,,,,,,,
23688,1645649659.007258,1645649659.008383,52.0,0.0,3809.2307130000004,4446.666504,4189.743652,4256.922852000001,4207.179688,0.0,3.0,64.0,,,,0.0,2.0,0.0,1.0,0.0,4.0,8.333333,,,,,,,,26.0,0.0,0.697435,0.45166000000000006,0.39550799999999997,-0.391357,0.9160299999999999,-0.327642,-0.29395,-0.016321000000000002,-0.052872,-0.026751999999999998,,,,,,,,,,,,,,,,,,,,,,,,,,,,,,,,,,,,,,,,,,,,,,,,,,,,,,,,,,,,,,,,,
23689,1645649659.015074,1645649659.016197,53.0,0.0,3802.0512700000004,4457.94873,4147.692383,4255.897461,4234.871582,0.0,3.0,64.0,,,,0.0,2.0,0.0,1.0,0.0,4.0,8.333333,,,,,,,,,,,,,,,,,,,,,,,,,,,,,,,,,,,,,,,,,,,,,,,,,,,,,,,,,,,,,,,,,,,,,,,,,,,,,,,,,,,,
23690,1645649659.02289,1645649659.0240119,54.0,0.0,3682.5642090000006,4912.307617,4152.820313,4267.692383,4327.179688,0.0,3.0,64.0,,,,0.0,2.0,0.0,1.0,0.0,4.0,8.333333,,,,,,,,27.0,0.0,0.697437,0.45166000000000006,0.395264,-0.391602,0.903334,-0.330571,-0.280278,-0.016691,-0.052955999999999996,-0.029741000000000004,,,,,,,,,,,,,,,,,,,,,,,,,,,,,,,,,,,,,,,,,,,,,,,,,,,,,,,,,,,,,,,,,
23691,1645649659.030705,1645649659.031826,55.0,0.0,3697.9487299999996,5022.563965,4205.641113000001,4267.692383,4368.205078,0.0,3.0,64.0,,,,0.0,2.0,0.0,1.0,0.0,4.0,8.333333,,,,,,,,,,,,,,,,,,,,,,,,,,,,,,,,,,,,,,,,,,,,,,,,,,,,,,0.0,0.0,1.0,0.0,512.0,1.0,,,,,,,,,,,,,,,,,,,,,,,,,
23692,1645649659.038521,1645649659.03974,56.0,0.0,3690.7692869999996,4404.615234000001,4262.05127,4270.769043,4181.025879,0.0,3.0,64.0,,,,0.0,2.0,0.0,1.0,0.0,4.0,8.333333,,,,,,,,28.0,0.0,0.697437,0.45166000000000006,0.395264,-0.391602,0.917006,-0.324712,-0.287114,-0.017122,-0.052934,-0.03248,,,,,,,,,,,,,,,,,,,,,,,,,,,,,,,,,,,,,,,,,,,,,,,,,,,,,,,,,,,,,,,,,
23693,1645649659.046337,1645649659.047555,57.0,0.0,3670.7692869999996,4239.487305,4293.333496,4275.384765999999,4115.897461,0.0,3.0,64.0,,,,0.0,2.0,0.0,1.0,0.0,4.0,8.333333,,,,,,,,,,,,,,,,,,,,,,,,,,,,,,,,,,,,,,,,,,,,,,,,,,,,,,,,,,,,,,,,,,,,,,,,,,,,,,,,,,,,
23694,1645649659.054153,1645649659.055469,58.0,0.0,3761.538574,4183.589844,4315.897461,4267.179688,4197.436035,0.0,3.0,64.0,,,,0.0,4.0,0.0,1.0,0.0,4.0,8.333333,,,,,,,,29.0,0.0,0.697438,0.45166000000000006,0.39502,-0.391846,0.897963,-0.31543499999999997,-0.286137,-0.01746,-0.053011,-0.028597000000000004,,,,,,,,,,,,,,,,,,,,,,,,,,,,,,,,,,,,,,,,,,,,,,,,,,,,,,,,,,,,,,,,,
23695,1645649659.061969,1645649659.063283,59.0,0.0,3832.820557,4014.358887,4362.05127,4264.102539,4206.666504,0.0,3.0,64.0,,,,0.0,4.0,0.0,1.0,0.0,4.0,8.333333,,,,,,,,,,,,,,,,,,,,,,,,,,,,,,,,,,,,,,,,,,,,,,,,,,,,,,0.0,0.0,1.0,0.0,512.0,1.0,,,,,,,,,,,,,,,,,,,,,,,,,
23696,1645649659.0697849,1645649659.071098,60.0,0.0,3784.102539,4698.974121,4307.692383,4267.692383,4213.846191,0.0,3.0,64.0,,,,0.0,4.0,0.0,1.0,0.0,4.0,8.333333,,,,,,,,30.0,0.0,0.697438,0.45166000000000006,0.39502,-0.391846,0.922377,-0.311528,-0.291997,-0.017814,-0.052837,-0.031451,,,,,,,,,,,,,,,,,,,,,,,,,,,,,,,,,,,,,,,,,,,,,,,,,,,,,,,,,,,,,,,,,
23697,1645649659.0776,1645649659.078912,61.0,0.0,3758.974365,5310.256348,4272.307617,4261.538574,4261.025879,0.0,3.0,64.0,,,,0.0,4.0,0.0,1.0,0.0,4.0,8.333333,,,,,,,,,,,,,,,,,,,,,,,,,,,,,,,,,,,,,,,,,,,,,,,,,,,,,,,,,,,,,,,,,,,,,,,,,,,,,,,,,,,,
23698,1645649659.085416,1645649659.086727,62.0,0.0,3711.281982,4982.563965,4286.666504,4263.589844,4195.384765999999,0.0,3.0,64.0,,,,0.0,4.0,0.0,1.0,0.0,4.0,8.333333,,,,,,,,31.0,0.0,0.697438,0.45166000000000006,0.39502,-0.391846,0.9155409999999999,-0.316411,-0.29736799999999997,-0.018083000000000002,-0.052827,-0.034019,,,,,,,,,,,,,,,,,,,,,,,,,,,,,,,,,,,,,,,,,,,,,,,,,,,,,,,,,,,,,,,,,
23699,1645649659.093232,1645649659.094541,63.0,0.0,3656.923096,4867.692383,4334.871582,4278.461426,4147.179688,0.0,3.0,64.0,,,,0.0,4.0,0.0,1.0,0.0,4.0,8.333333,,,,,,,,,,,,,,,,,,,,1.0,0.0,0.0,,,,,,,,,,,,,,,,,,,,,,,,,,,,,,,,0.0,0.0,1.0,0.0,512.0,1.0,5495.013672,1455.342529,211.130417,64.949768,24.155092,961.6768189999999,1395.637695,687.9092410000001,1222.405396,805.34137,122.90338100000001,140.459381,26.493593,24.275496,9.325401,22.32444,1.342806,0.162313,0.250934,0.13463599999999998,285.720642,78.580811,16.978094,35.599129,26.869558
23700,1645649659.101048,1645649659.102356,64.0,0.0,3765.641113,4622.05127,4348.717772999999,4272.820313,4162.563965,450.0,3.0,64.0,,,,0.0,4.0,0.0,1.0,0.0,4.0,8.333333,,,,,,,,32.0,0.0,0.697575,0.45166000000000006,0.39502,-0.391602,0.9340959999999999,-0.332525,-0.302739,-0.018375,-0.052867,-0.036232,,,,,,,,,,,,,,,,,,,,,,,,,,,,,,,,,,,,,,,,,,,,,,,,,,,,,,,,,,,,,,,,,
23701,1645649659.108864,1645649659.11017,65.0,0.0,3837.9487299999996,3758.974365,4346.153809,4257.94873,4089.743652,450.0,3.0,64.0,,,,0.0,4.0,0.0,1.0,0.0,4.0,8.333333,,,,,,,,,,,,,,,,,,,,,,,,,,,,,,,,,,,,,,,,,,,,,,,,,,,,,,,,,,,,,,,,,,,,,,,,,,,,,,,,,,,,
23702,1645649659.1166801,1645649659.117984,66.0,0.0,3773.3332520000004,3975.384521,4238.974121,4264.102539,4152.307617,16104.0,3.0,64.0,,,,0.0,4.0,0.0,1.0,0.0,4.0,8.333333,,,,,,,,33.0,0.0,0.697417,0.451904,0.39502,-0.391602,0.906264,-0.339361,-0.28174299999999997,-0.017123,-0.052854,-0.032072,,,,,,,,,,,,,,,,,,,,,,,,,,,,,,,,,,,,,,,,,,,,,,,,,,,,,,,,,,,,,,,,,
23703,1645649659.124495,1645649659.125899,67.0,0.0,3784.102539,5157.436035,4156.922852000001,4269.743652,4366.666504,450.0,3.0,64.0,,,,0.0,4.0,0.0,0.0,0.0,4.0,0.0,,,,,,,,,,,,,,,,,,,,,,,,,,,,,,,,,,,,,,,,,,,,,,,,,,,,,,0.0,0.0,1.0,0.0,512.0,1.0,,,,,,,,,,,,,,,,,,,,,,,,,
23704,1645649659.1323109,1645649659.133713,68.0,0.0,3855.384521,5144.615234000001,4208.205078,4265.128418,4374.871582,0.0,3.0,64.0,,,,0.0,4.0,0.0,0.0,0.0,4.0,0.0,,,,,,,,34.0,0.0,0.697554,0.451904,0.39502,-0.391357,0.9155409999999999,-0.31006300000000003,-0.276371,-0.017363999999999997,-0.05279299999999999,-0.034626,,,,,,,,,,,,,,,,,,,,,,,,,,,,,,,,,,,,,,,,,,,,,,,,,,,,,,,,,,,,,,,,,
23705,1645649659.140127,1645649659.141527,69.0,0.0,3788.205078,4132.820313,4279.487305,4268.717772999999,4110.769043,450.0,3.0,64.0,,,,0.0,4.0,0.0,0.0,0.0,4.0,0.0,,,,,,,,,,,,,,,,,,,,,,,,,,,,,,,,,,,,,,,,,,,,,,,,,,,,,,,,,,,,,,,,,,,,,,,,,,,,,,,,,,,,
23706,1645649659.147943,1645649659.149342,70.0,0.0,3797.9487299999996,4067.179443,4227.179688,4273.333496,4103.077147999999,25.0,3.0,64.0,,,,0.0,4.0,0.0,0.0,0.0,4.0,0.0,,,,,,,,35.0,0.0,0.697417,0.451904,0.39502,-0.391602,0.9155409999999999,-0.33105999999999997,-0.277348,-0.017581,-0.052885,-0.036877,,,,,,,,,,,,,,,,,,,,,,,,,,,,,,,,,,,,,,,,,,,,,,,,,,,,,,,,,,,,,,,,,
23707,1645649659.155759,1645649659.157156,71.0,0.0,3849.2307130000004,5087.179688,4139.487305,4268.205078,4352.820313,450.0,3.0,64.0,,,,0.0,4.0,0.0,0.0,0.0,4.0,0.0,,,,,,,,,,,,,,,,,,,,,,,,,,,,,,,,,,,,,,,,,,,,,,,,,,,,,,0.0,0.0,1.0,0.0,512.0,1.0,,,,,,,,,,,,,,,,,,,,,,,,,
23708,1645649659.163575,1645649659.164971,72.0,0.0,3816.923096,5356.922852000001,4178.974121,4266.153809,4396.410156,450.0,3.0,64.0,,,,0.0,4.0,0.0,0.0,0.0,4.0,0.0,,,,,,,,36.0,0.0,0.697554,0.451904,0.39502,-0.391357,0.9077290000000001,-0.320806,-0.281254,-0.017874,-0.052967999999999994,-0.038804000000000005,,,,,,,,,,,,,,,,,,,,,,,,,,,,,,,,,,,,,,,,,,,,,,,,,,,,,,,,,,,,,,,,,
23709,1645649659.17139,1645649659.172785,73.0,0.0,3782.5642090000006,4305.128418,4262.05127,4269.230957,4155.897461,0.0,3.0,64.0,,,,0.0,4.0,0.0,0.0,0.0,4.0,0.0,,,,,,,,,,,,,,,,,,,,,,,,,,,,,,,,,,,,,,,,,,,,,,,,,,,,,,,,,,,,,,,,,,,,,,,,,,,,,,,,,,,,
23710,1645649659.1792061,1645649659.180599,74.0,0.0,3827.6923829999996,3888.205078,4295.384765999999,4271.282227000001,4076.923096,450.0,3.0,64.0,,,,0.0,4.0,0.0,0.0,0.0,4.0,0.0,,,,,,,,37.0,0.0,0.697396,0.45214799999999994,0.39502,-0.391357,0.9233540000000001,-0.327153,-0.285649,-0.018088,-0.052944000000000005,-0.040637,,,,,,,,,,,,,,,,,,,,,,,,,,,,,,,,,,,,,,,,,,,,,,,,,,,,,,,,,,,,,,,,,
23711,1645649659.187022,1645649659.188514,75.0,0.0,3838.461426,4931.794922,4229.230957,4268.205078,4255.384765999999,315.0,3.0,64.0,,,,0.0,4.0,0.0,0.0,0.0,2.0,0.0,,,,,,,,,,,,,,,,,,,,,,,,,,,,,,,,,,,,,,,,,,,,,,,,,,,,,,0.0,0.0,1.0,0.0,512.0,1.0,,,,,,,,,,,,,,,,,,,,,,,,,
23712,1645649659.194838,1645649659.196328,76.0,0.0,3807.179443,5391.282227000001,4230.256348,4261.538574,4343.589844,450.0,3.0,64.0,,,,0.0,4.0,0.0,0.0,0.0,2.0,0.0,,,,,,,,38.0,0.0,0.697396,0.45214799999999994,0.39502,-0.391357,0.916518,-0.321782,-0.277836,-0.018233000000000003,-0.053021000000000006,-0.042286000000000004,,,,,,,,,,,,,,,,,,,,,,,,,,,,,,,,,,,,,,,,,,,,,,,,,,,,,,,,,,,,,,,,,
23713,1645649659.202654,1645649659.204143,77.0,0.0,3748.718018,4413.846191,4309.230957,4265.641113000001,4148.717772999999,450.0,3.0,64.0,,,,0.0,4.0,0.0,0.0,0.0,2.0,0.0,,,,,,,,,,,,,,,,,,,,,,,,,,,,,,,,,,,,,,,,,,,,,,,,,,,,,,,,,,,,,,,,,,,,,,,,,,,,,,,,,,,,
23714,1645649659.21047,1645649659.211957,78.0,0.0,3715.384521,3927.6923829999996,4365.641113000001,4275.897461,3989.743652,450.0,3.0,64.0,,,,0.0,4.0,0.0,0.0,0.0,2.0,0.0,,,,,,,,39.0,0.0,0.697394,0.45214799999999994,0.395264,-0.391113,0.9072399999999999,-0.327153,-0.29443800000000003,-0.018509,-0.052992,-0.043722000000000004,,,,,,,,,,,,,,,,,,,,,,,,,,,,,,,,,,,,,,,,,,,,,,,,,,,,,,,,,,,,,,,,,
23715,1645649659.2182848,1645649659.2197711,79.0,0.0,3859.487061,4689.230957,4281.538574,4270.256348,4123.077147999999,315.0,3.0,64.0,,,,0.0,4.0,0.0,0.0,0.0,2.0,0.0,,,,,,,,,,,,,,,,,,,,1.0,0.0,0.0,,,,,,,,,,,,,,,,,,,,,,,,,,,,,,,,0.0,0.0,1.0,0.0,512.0,1.0,3909.9826659999994,978.092163,142.566757,76.624329,24.40082,1086.4995119999999,1601.929932,800.757263,1496.532959,908.3914179999999,109.215424,131.34698500000002,27.983725,27.307337,9.953330000000001,15.750681,0.985991,0.19201500000000002,0.283096,0.16278900000000002,200.581375,91.121742,20.721767,39.168133000000005,29.409004
23716,1645649659.226101,1645649659.227586,80.0,0.0,4056.4101560000004,5140.0,4268.205078,4256.922852000001,4316.922852000001,450.0,3.0,64.0,,,,0.0,4.0,0.0,0.0,0.0,2.0,0.0,,,,,,,,40.0,0.0,0.697394,0.45214799999999994,0.395264,-0.391113,0.9087049999999999,-0.338384,-0.284672,-0.018758,-0.05296699999999999,-0.038715,,,,,,,,,,,,,,,,,,,,,,,,,,,,,,,,,,,,,,,,,,,,,,,,,,,,,,,,,,,,,,,,,
23717,1645649659.233917,1645649659.2354,81.0,0.0,3961.025635,4866.666504,4264.102539,4264.615234000001,4245.128418,450.0,3.0,64.0,,,,0.0,4.0,0.0,0.0,0.0,2.0,0.0,,,,,,,,,,,,,,,,,,,,,,,,,,,,,,,,,,,,,,,,,,,,,,,,,,,,,,,,,,,,,,,,,,,,,,,,,,,,,,,,,,,,
23718,1645649659.241733,1645649659.243215,82.0,0.0,3710.256348,4761.025879,4196.410156,4279.487305,4086.1538090000004,450.0,3.0,64.0,,,,0.0,4.0,0.0,0.0,0.0,2.0,0.0,,,,,,,,41.0,0.0,0.697256,0.45214799999999994,0.39550799999999997,-0.391113,0.906264,-0.322759,-0.278325,-0.018835,-0.052944000000000005,-0.04041,,,,,,,,,,,,,,,,,,,,,,,,,,,,,,,,,,,,,,,,,,,,,,,,,,,,,,,,,,,,,,,,,
23719,1645649659.249549,1645649659.251029,83.0,0.0,3776.4101560000004,4446.153809,4214.358886999999,4274.358886999999,4153.333496,315.0,3.0,64.0,,,,0.0,4.0,0.0,0.0,0.0,2.0,0.0,,,,,,,,,,,,,,,,,,,,,,,,,,,,,,,,,,,,,,,,,,,,,,,,,,,,,,0.0,0.0,1.0,0.0,512.0,1.0,,,,,,,,,,,,,,,,,,,,,,,,,
23720,1645649659.257365,1645649659.258843,84.0,0.0,4041.025635,3859.487061,4331.794922,4260.0,4234.871582,450.0,3.0,64.0,,,,0.0,4.0,0.0,0.0,0.0,2.0,0.0,,,,,,,,42.0,0.0,0.697256,0.45214799999999994,0.39550799999999997,-0.391113,0.904799,-0.322759,-0.28174299999999997,-0.018954,-0.052972000000000005,-0.035685,,,,,,,,,,,,,,,,,,,,,,,,,,,,,,,,,,,,,,,,,,,,,,,,,,,,,,,,,,,,,,,,,
23721,1645649659.26518,1645649659.266758,85.0,0.0,4069.2307130000004,4271.282227000001,4271.282227000001,4262.05127,4204.615234000001,450.0,3.0,64.0,,,,0.0,4.0,0.0,0.0,0.0,2.0,0.0,,,,,,,,,,,,,,,,,,,,,,,,,,,,,,,,,,,,,,,,,,,,,,,,,,,,,,,,,,,,,,,,,,,,,,,,,,,,,,,,,,,,
23722,1645649659.2729962,1645649659.2745721,86.0,0.0,3850.256348,4979.487305,4141.025879,4276.922852000001,4166.153809,450.0,3.0,64.0,,,,0.0,4.0,0.0,0.0,0.0,2.0,0.0,,,,,,,,43.0,0.0,0.6971189999999999,0.45214799999999994,0.39550799999999997,-0.391357,0.909682,-0.32813000000000003,-0.291997,-0.0174,-0.052997,-0.037634,,,,,,,,,,,,,,,,,,,,,,,,,,,,,,,,,,,,,,,,,,,,,,,,,,,,,,,,,,,,,,,,,
23723,1645649659.280812,1645649659.282387,87.0,0.0,3834.8718259999996,4684.102539,4197.436035,4278.461426,4228.205078,315.0,3.0,64.0,,,,0.0,4.0,0.0,0.0,0.0,2.0,0.0,,,,,,,,,,,,,,,,,,,,,,,,,,,,,,,,,,,,,,,,,,,,,,,,,,,,,,0.0,0.0,1.0,0.0,512.0,1.0,,,,,,,,,,,,,,,,,,,,,,,,,
23724,1645649659.2886279,1645649659.290201,88.0,0.0,4009.743652,4655.897461,4255.897461,4261.538574,4292.307617,450.0,3.0,64.0,,,,0.0,4.0,0.0,0.0,0.0,2.0,0.0,,,,,,,,44.0,0.0,0.697277,0.451904,0.39550799999999997,-0.391357,0.9131,-0.321294,-0.285161,-0.017856999999999998,-0.053019000000000004,-0.033236,,,,,,,,,,,,,,,,,,,,,,,,,,,,,,,,,,,,,,,,,,,,,,,,,,,,,,,,,,,,,,,,,
23725,1645649659.296444,1645649659.298015,89.0,0.0,4085.641113,5156.410156,4248.205078,4255.897461,4308.717772999999,450.0,3.0,64.0,,,,0.0,4.0,0.0,0.0,0.0,2.0,0.0,,,,,,,,,,,,,,,,,,,,,,,,,,,,,,,,,,,,,,,,,,,,,,,,,,,,,,,,,,,,,,,,,,,,,,,,,,,,,,,,,,,,
23726,1645649659.30426,1645649659.30583,90.0,0.0,3967.179443,4592.820313,4289.230957,4270.256348,4207.179688,450.0,3.0,64.0,,,,0.0,4.0,0.0,0.0,0.0,2.0,0.0,,,,,,,,45.0,0.0,0.697277,0.451904,0.39550799999999997,-0.391357,0.901381,-0.326177,-0.274907,-0.018074,-0.05304,-0.035577,,,,,,,,,,,,,,,,,,,,,,,,,,,,,,,,,,,,,,,,,,,,,,,,,,,,,,,,,,,,,,,,,
23727,1645649659.312076,1645649659.313644,91.0,0.0,3910.256348,3897.4357909999994,4376.922852000001,4280.512695,4134.358886999999,315.0,3.0,64.0,,,,0.0,4.0,0.0,0.0,0.0,2.0,0.0,,,,,,,,,,,,,,,,,,,,,,,,,,,,,,,,,,,,,,,,,,,,,,,,,,,,,,0.0,0.0,1.0,0.0,512.0,1.0,,,,,,,,,,,,,,,,,,,,,,,,,
23728,1645649659.319891,1645649659.321459,92.0,0.0,3975.897461,4524.102539,4330.769043,4268.205078,4225.128418,450.0,3.0,64.0,,,,0.0,4.0,0.0,0.0,0.0,2.0,0.0,,,,,,,,46.0,0.0,0.697277,0.451904,0.39550799999999997,-0.391357,0.904799,-0.324712,-0.287114,-0.016656999999999998,-0.052961,-0.037683,,,,,,,,,,,,,,,,,,,,,,,,,,,,,,,,,,,,,,,,,,,,,,,,,,,,,,,,,,,,,,,,,
23729,1645649659.327707,1645649659.329273,93.0,0.0,3991.794922,5198.461426,4283.077147999999,4255.384765999999,4300.0,450.0,3.0,64.0,,,,0.0,4.0,0.0,0.0,0.0,2.0,0.0,,,,,,,,,,,,,,,,,,,,,,,,,,,,,,,,,,,,,,,,,,,,,,,,,,,,,,,,,,,,,,,,,,,,,,,,,,,,,,,,,,,,
23730,1645649659.3355231,1645649659.337087,94.0,0.0,3890.256348,4892.307617,4305.128418,4265.641113000001,4189.743652,450.0,3.0,64.0,,,,0.0,4.0,0.0,0.0,0.0,2.0,0.0,,,,,,,,47.0,0.0,0.697277,0.451904,0.39550799999999997,-0.391357,0.9131,-0.321294,-0.285161,-0.016993,-0.052987,-0.033280000000000004,,,,,,,,,,,,,,,,,,,,,,,,,,,,,,,,,,,,,,,,,,,,,,,,,,,,,,,,,,,,,,,,,
23731,1645649659.343339,1645649659.345002,95.0,0.0,3840.0,4333.846191,4390.256348,4282.05127,4098.974121,315.0,3.0,64.0,,,,0.0,4.0,0.0,0.0,0.0,2.0,0.0,1.0,0.0,0.0,0.0,0.0,0.0,0.0,,,,,,,,,,,,,1.0,0.0,0.0,,,,,,,,,,,,,,,,,,,,,,,,,,,,,,,,0.0,0.0,1.0,0.0,512.0,1.0,2373.561523,546.69574,84.41996,83.472923,23.514011,1278.548706,1849.42688,911.449463,1660.400635,910.6188960000001,98.479355,121.106071,28.146832,30.258533,10.416223,9.253138,0.683669,0.225807,0.296565,0.177282,128.988632,100.125778,24.536816,39.456982,29.38011
23732,1645649659.351155,1645649659.352916,96.0,0.0,3977.4357909999994,4282.05127,4355.384765999999,4274.871582,4173.333496,450.0,3.0,64.0,,,,0.0,4.0,0.0,0.0,0.0,2.0,0.0,,,,,,,,48.0,0.0,0.697277,0.451904,0.39550799999999997,-0.391357,0.904799,-0.324712,-0.287114,-0.015684,-0.052913,-0.035616,,,,,,,,,,,,,,,,,,,,,,,,,,,,,,,,,,,,,,,,,,,,,,,,,,,,,,,,,,,,,,,,,
23733,1645649659.358971,1645649659.3607302,97.0,0.0,4064.615479,4765.128418,4229.230957,4254.871582,4246.153809,450.0,3.0,64.0,,,,0.0,4.0,0.0,0.0,0.0,2.0,0.0,,,,,,,,,,,,,,,,,,,,,,,,,,,,,,,,,,,,,,,,,,,,,,,,,,,,,,,,,,,,,,,,,,,,,,,,,,,,,,,,,,,,
23734,1645649659.366786,1645649659.3685448,98.0,0.0,3970.7692869999996,5042.05127,4189.230957,4262.05127,4237.94873,450.0,3.0,64.0,,,,0.0,4.0,0.0,0.0,0.0,2.0,0.0,,,,,,,,49.0,0.0,0.697277,0.451904,0.39550799999999997,-0.391357,0.9160299999999999,-0.326665,-0.27686,-0.014603999999999999,-0.052797000000000004,-0.03767,,,,,,,,,,,,,,,,,,,,,,,,,,,,,,,,,,,,,,,,,,,,,,,,,,,,,,,,,,,,,,,,,
23735,1645649659.3746018,1645649659.376359,99.0,0.0,3905.641113,4415.384765999999,4315.897461,4280.512695,4157.436035,315.0,3.0,64.0,,,,0.0,4.0,0.0,0.0,0.0,2.0,0.0,,,,,,,,,,,,,,,,,,,,,,,,,,,,,,,,,,,,,,,,,,,,,,,,,,,,,,0.0,0.0,1.0,0.0,512.0,1.0,,,,,,,,,,,,,,,,,,,,,,,,,
23736,1645649659.382418,1645649659.384174,100.0,0.0,3971.794922,4002.0512700000004,4310.256348,4275.384765999999,4187.179688,450.0,3.0,64.0,,,,0.0,4.0,0.0,0.0,0.0,2.0,0.0,,,,,,,,50.0,0.0,0.6971189999999999,0.45214799999999994,0.39550799999999997,-0.391357,0.914565,-0.321294,-0.281254,-0.015243000000000001,-0.052791,-0.033122000000000006,,,,,,,,,,,,,,,,,,,,,,,,,,,,,,,,,,,,,,,,,,,,,,,,,,,,,,,,,,,,,,,,,
23737,1645649659.390234,1645649659.391988,101.0,0.0,3968.205078,4932.820313,4137.436035,4262.563965,4309.743652,450.0,3.0,64.0,,,,0.0,4.0,0.0,0.0,0.0,2.0,0.0,,,,,,,,,,,,,,,,,,,,,,,,,,,,,,,,,,,,,,,,,,,,,,,,,,,,,,,,,,,,,,,,,,,,,,,,,,,,,,,,,,,,
23738,1645649659.39805,1645649659.399802,102.0,0.0,3982.5642090000006,5267.692383,4136.922852000001,4268.717772999999,4328.205078,450.0,3.0,64.0,,,,0.0,4.0,0.0,0.0,0.0,2.0,0.0,,,,,,,,51.0,0.0,0.696982,0.45214799999999994,0.39550799999999997,-0.391602,0.917983,-0.321294,-0.282719,-0.01577,-0.052834000000000006,-0.035425,,,,,,,,,,,,,,,,,,,,,,,,,,,,,,,,,,,,,,,,,,,,,,,,,,,,,,,,,,,,,,,,,
23739,1645649659.405866,1645649659.407617,103.0,0.0,4067.6923829999996,4037.4357909999994,4304.102539,4271.794922,4192.820313,315.0,3.0,64.0,,,,0.0,4.0,0.0,0.0,0.0,2.0,0.0,,,,,,,,,,,,,,,,,,,,,,,,,,,,,,,,,,,,,,,,,,,,,,,,,,,,,,0.0,0.0,1.0,0.0,512.0,1.0,,,,,,,,,,,,,,,,,,,,,,,,,
23740,1645649659.413681,1645649659.415431,104.0,0.0,4087.179443,3840.512939,4317.436035,4265.128418,4180.0,450.0,3.0,64.0,,,,0.0,4.0,0.0,0.0,0.0,2.0,0.0,,,,,,,,52.0,0.0,0.69714,0.451904,0.39550799999999997,-0.391602,0.909682,-0.32910700000000004,-0.295903,-0.014535,-0.052971000000000004,-0.037498000000000004,,,,,,,,,,,,,,,,,,,,,,,,,,,,,,,,,,,,,,,,,,,,,,,,,,,,,,,,,,,,,,,,,
23741,1645649659.421497,1645649659.4232461,105.0,0.0,3931.281982,4880.0,4202.05127,4273.846191,4224.615234000001,450.0,3.0,64.0,,,,0.0,4.0,0.0,0.0,0.0,2.0,0.0,,,,,,,,,,,,,,,,,,,,,,,,,,,,,,,,,,,,,,,,,,,,,,,,,,,,,,,,,,,,,,,,,,,,,,,,,,,,,,,,,,,,
23742,1645649659.4293132,1645649659.43116,106.0,0.0,3890.7692869999996,4736.410156,4266.666504,4282.05127,4211.282227000001,450.0,3.0,64.0,,,,0.0,4.0,0.0,0.0,0.0,2.0,0.0,,,,,,,,53.0,0.0,0.69714,0.451904,0.39550799999999997,-0.391602,0.9209129999999999,-0.31543499999999997,-0.274418,-0.015181,-0.05285,-0.039461,,,,,,,,,,,,,,,,,,,,,,,,,,,,,,,,,,,,,,,,,,,,,,,,,,,,,,,,,,,,,,,,,
23743,1645649659.437129,1645649659.4389741,107.0,0.0,4037.9487299999996,4317.94873,4330.769043,4266.153809,4242.05127,315.0,3.0,64.0,,,,0.0,4.0,0.0,0.0,0.0,2.0,0.0,,,,,,,,,,,,,,,,,,,,,,,,,,,,,,,,,,,,,,,,,,,,,,,,,,,,,,0.0,0.0,1.0,0.0,512.0,1.0,,,,,,,,,,,,,,,,,,,,,,,,,
23744,1645649659.4449449,1645649659.4468892,108.0,0.0,4071.794922,4996.410156,4294.358886999999,4256.922852000001,4283.077147999999,450.0,3.0,64.0,,,,0.0,4.0,0.0,0.0,0.0,2.0,0.0,,,,,,,,54.0,0.0,0.6970029999999999,0.451904,0.39550799999999997,-0.391846,0.9111469999999999,-0.32227100000000003,-0.29443800000000003,-0.015714,-0.052887,-0.04113,,,,,,,,,,,,,,,,,,,,,,,,,,,,,,,,,,,,,,,,,,,,,,,,,,,,,,,,,,,,,,,,,
23745,1645649659.452761,1645649659.4547029,109.0,0.0,3947.179443,4851.282227000001,4315.897461,4271.794922,4172.820313,450.0,3.0,64.0,,,,0.0,4.0,0.0,0.0,0.0,2.0,0.0,,,,,,,,,,,,,,,,,,,,,,,,,,,,,,,,,,,,,,,,,,,,,,,,,,,,,,,,,,,,,,,,,,,,,,,,,,,,,,,,,,,,
23746,1645649659.460577,1645649659.462518,110.0,0.0,3954.8718259999996,3942.0512700000004,4417.436035,4276.922852000001,4101.538574,450.0,3.0,64.0,,,,0.0,4.0,0.0,0.0,0.0,2.0,0.0,,,,,,,,55.0,0.0,0.697141,0.451904,0.395264,-0.391846,0.9184709999999999,-0.319829,-0.287602,-0.016193,-0.053017999999999996,-0.036529,,,,,,,,,,,,,,,,,,,,,,,,,,,,,,,,,,,,,,,,,,,,,,,,,,,,,,,,,,,,,,,,,
23747,1645649659.468392,1645649659.4703321,111.0,0.0,3972.3076170000004,4511.794922,4311.794922,4268.717772999999,4183.077147999999,315.0,3.0,64.0,,,,0.0,4.0,0.0,0.0,0.0,2.0,0.0,,,,,,,,,,,,,,,,,,,,1.0,0.0,0.0,,,,,,,,,,,,,,,,,,,,,,,,,,,,,,,,0.0,0.0,1.0,0.0,512.0,1.0,1218.8498539999998,259.876648,48.076069,84.431877,22.009854999999998,1460.487915,2026.7198489999998,1012.214783,1718.879517,841.3286130000001,93.410347,112.398804,26.881262,32.721340000000005,10.888565,4.401488,0.482649,0.256399,0.29538200000000003,0.17943699999999999,86.544136,103.064644,27.052921,37.486862,28.104086
23748,1645649659.476208,1645649659.478146,112.0,0.0,3828.205078,5348.205078,4205.128418,4272.820313,4238.974121,450.0,3.0,64.0,,,,0.0,4.0,0.0,0.0,0.0,2.0,0.0,,,,,,,,56.0,0.0,0.6973,0.45166000000000006,0.395264,-0.391846,0.916518,-0.325689,-0.28174299999999997,-0.015013,-0.053087999999999996,-0.03854,,,,,,,,,,,,,,,,,,,,,,,,,,,,,,,,,,,,,,,,,,,,,,,,,,,,,,,,,,,,,,,,,
23749,1645649659.484024,1645649659.485961,113.0,0.0,3915.384521,4597.94873,4279.487305,4274.358886999999,4213.846191,450.0,3.0,64.0,,,,0.0,4.0,0.0,0.0,0.0,2.0,0.0,,,,,,,,,,,,,,,,,,,,,,,,,,,,,,,,,,,,,,,,,,,,,,,,,,,,,,,,,,,,,,,,,,,,,,,,,,,,,,,,,,,,
23750,1645649659.4918401,1645649659.493775,114.0,0.0,4187.692383,4047.179443,4337.436035,4261.025879,4235.384765999999,450.0,3.0,64.0,,,,0.0,4.0,0.0,0.0,0.0,2.0,0.0,,,,,,,,57.0,0.0,0.6973,0.45166000000000006,0.395264,-0.391846,0.921889,-0.338872,-0.28320700000000004,-0.015562999999999999,-0.053051999999999995,-0.034149,,,,,,,,,,,,,,,,,,,,,,,,,,,,,,,,,,,,,,,,,,,,,,,,,,,,,,,,,,,,,,,,,
23751,1645649659.499656,1645649659.501689,115.0,0.0,4153.333496,4656.410156,4228.205078,4264.102539,4260.0,315.0,3.0,64.0,,,,0.0,4.0,0.0,0.0,0.0,2.0,0.0,,,,,,,,,,,,,,,,,,,,,,,,,,,,,,,,,,,,,,,,,,,,,,,,,,,,,,0.0,0.0,1.0,0.0,512.0,1.0,,,,,,,,,,,,,,,,,,,,,,,,,
23752,1645649659.507472,1645649659.5095038,116.0,0.0,3963.076904,4640.512695,4184.615234000001,4278.461426,4160.0,450.0,3.0,64.0,,,,0.0,4.0,0.0,0.0,0.0,2.0,0.0,,,,,,,,58.0,0.0,0.6973,0.45166000000000006,0.395264,-0.391846,0.9121229999999999,-0.335454,-0.286625,-0.016106,-0.053021000000000006,-0.036301,,,,,,,,,,,,,,,,,,,,,,,,,,,,,,,,,,,,,,,,,,,,,,,,,,,,,,,,,,,,,,,,,
23753,1645649659.515288,1645649659.517318,117.0,0.0,4034.8718259999996,4302.563965,4214.358886999999,4274.871582,4210.256348,450.0,3.0,64.0,,,,0.0,4.0,0.0,0.0,0.0,2.0,0.0,,,,,,,,,,,,,,,,,,,,,,,,,,,,,,,,,,,,,,,,,,,,,,,,,,,,,,,,,,,,,,,,,,,,,,,,,,,,,,,,,,,,
23754,1645649659.523103,1645649659.525133,118.0,0.0,4032.3076170000004,5014.871582,4176.410156,4269.230957,4345.641113000001,450.0,3.0,64.0,,,,0.0,4.0,0.0,0.0,0.0,2.0,0.0,,,,,,,,59.0,0.0,0.6973,0.45166000000000006,0.395264,-0.391846,0.914076,-0.318853,-0.28320700000000004,-0.016449000000000002,-0.052992,-0.038188,,,,,,,,,,,,,,,,,,,,,,,,,,,,,,,,,,,,,,,,,,,,,,,,,,,,,,,,,,,,,,,,,
23755,1645649659.5309188,1645649659.532947,119.0,0.0,3921.025635,5222.563965,4168.205078,4272.307617,4308.205078,315.0,3.0,64.0,,,,0.0,4.0,0.0,0.0,0.0,2.0,0.0,,,,,,,,,,,,,,,,,,,,,,,,,,,,,,,,,,,,,,,,,,,,,,,,,,,,,,0.0,0.0,1.0,0.0,512.0,1.0,,,,,,,,,,,,,,,,,,,,,,,,,
23756,1645649659.538735,1645649659.540762,120.0,0.0,4004.102539,4165.641113000001,4242.563965,4266.666504,4190.769043,450.0,3.0,64.0,,,,0.0,4.0,0.0,0.0,0.0,2.0,0.0,,,,,,,,60.0,0.0,0.6973010000000001,0.45166000000000006,0.39502,-0.39209,0.9038219999999999,-0.32959499999999997,-0.286137,-0.015097,-0.053015,-0.033832,,,,,,,,,,,,,,,,,,,,,,,,,,,,,,,,,,,,,,,,,,,,,,,,,,,,,,,,,,,,,,,,,
23757,1645649659.546551,1645649659.5485759,121.0,0.0,4132.820313,4013.3332520000004,4296.922852000001,4261.025879,4253.333496,450.0,3.0,64.0,,,,0.0,4.0,0.0,0.0,0.0,2.0,0.0,,,,,,,,,,,,,,,,,,,,,,,,,,,,,,,,,,,,,,,,,,,,,,,,,,,,,,,,,,,,,,,,,,,,,,,,,,,,,,,,,,,,
23758,1645649659.554367,1645649659.55639,122.0,0.0,3953.8461909999996,4902.563965,4250.769043,4271.794922,4277.436035,450.0,3.0,64.0,,,,0.0,4.0,0.0,0.0,0.0,2.0,0.0,,,,,,,,61.0,0.0,0.6973010000000001,0.45166000000000006,0.39502,-0.39209,0.917983,-0.320806,-0.294926,-0.014124000000000001,-0.053085,-0.036064,,,,,,,,,,,,,,,,,,,,,,,,,,,,,,,,,,,,,,,,,,,,,,,,,,,,,,,,,,,,,,,,,
23759,1645649659.562183,1645649659.5642052,123.0,0.0,3831.281982,4960.512695,4260.512695,4279.487305,4190.256348,315.0,3.0,64.0,,,,0.0,4.0,0.0,0.0,0.0,2.0,0.0,,,,,,,,,,,,,,,,,,,,,,,,,,,,,,,,,,,,,,,,,,,,,,,,,,,,,,0.0,0.0,1.0,0.0,512.0,1.0,,,,,,,,,,,,,,,,,,,,,,,,,
23760,1645649659.569998,1645649659.5720189,124.0,0.0,4050.7692869999996,4657.94873,4288.205078,4266.666504,4216.922852000001,450.0,3.0,64.0,,,,0.0,4.0,0.0,0.0,0.0,2.0,0.0,,,,,,,,62.0,0.0,0.6973010000000001,0.45166000000000006,0.39502,-0.39209,0.910658,-0.321782,-0.284672,-0.014811000000000001,-0.053099,-0.038122,,,,,,,,,,,,,,,,,,,,,,,,,,,,,,,,,,,,,,,,,,,,,,,,,,,,,,,,,,,,,,,,,
23761,1645649659.577814,1645649659.579933,125.0,0.0,4172.820313,4891.282227000001,4307.692383,4257.94873,4310.769043,450.0,3.0,64.0,,,,0.0,4.0,1.0,0.0,0.0,2.0,8.333333,,,,,,,,,,,,,,,,,,,,,,,,,,,,,,,,,,,,,,,,,,,,,,,,,,,,,,,,,,,,,,,,,,,,,,,,,,,,,,,,,,,,
23762,1645649659.5856302,1645649659.587748,126.0,0.0,3983.5898439999996,4658.974121,4313.333496,4273.333496,4208.717772999999,450.0,3.0,64.0,,,,0.0,4.0,1.0,0.0,0.0,2.0,8.333333,,,,,,,,63.0,0.0,0.697162,0.45166000000000006,0.395264,-0.39209,0.908217,-0.317388,-0.285649,-0.013623,-0.053111,-0.033773000000000004,,,,,,,,,,,,,,,,,,,,,,,,,,,,,,,,,,,,,,,,,,,,,,,,,,,,,,,,,,,,,,,,,
23763,1645649659.593446,1645649659.595562,127.0,0.0,3912.820557,4064.615479,4342.05127,4282.563965,4064.102539,236.0,3.0,64.0,,,,0.0,4.0,1.0,0.0,0.0,2.0,8.333333,,,,,,,,,,,,,,,,,,,,1.0,0.0,0.0,,,,,,,,,,,,,,,,,,,,,,,,,,,,,,,,0.0,0.0,1.0,0.0,512.0,1.0,536.6239009999999,129.826431,32.776779,80.548035,21.273204999999997,1553.932007,2038.0948489999998,1100.2753910000001,1719.268555,775.789551,94.39064,106.815453,24.701809,34.434017,11.736314,1.6873919999999998,0.378008,0.275547,0.28729499999999997,0.182052,71.93408199999999,99.496735,27.401360999999998,35.243469,28.218718
23764,1645649659.6012619,1645649659.6033769,0.0,0.0,4069.743652,4547.179688,4264.615234000001,4271.794922,4190.769043,450.0,3.0,64.0,,,,0.0,4.0,1.0,0.0,0.0,2.0,8.333333,,,,,,,,0.0,0.0,0.697162,0.45166000000000006,0.395264,-0.39209,0.916518,-0.306157,-0.288579,-0.012846999999999999,-0.05322,-0.036108,,,,,,,,,,,,,,,,,,,,,,,,,,,,,,,,,,,,,,,,,,,,,,,,,,,,,,,,,,,,,,,,,
23765,1645649659.609078,1645649659.611191,1.0,0.0,4034.358887,5324.102539,4203.077147999999,4268.717772999999,4341.538574,450.0,3.0,64.0,,,,0.0,4.0,1.0,0.0,0.0,2.0,8.333333,,,,,,,,,,,,,,,,,,,,,,,,,,,,,,,,,,,,,,,,,,,,,,,,,,,,,,,,,,,,,,,,,,,,,,,,,,,,,,,,,,,,
23766,1645649659.616893,1645649659.619005,2.0,0.0,3991.794922,5124.615234000001,4197.94873,4271.794922,4286.153809,16143.0,3.0,64.0,,,,0.0,4.0,1.0,0.0,0.0,2.0,8.333333,,,,,,,,1.0,0.0,0.697162,0.45166000000000006,0.395264,-0.39209,0.909682,-0.330083,-0.282719,-0.013563999999999998,-0.053123000000000004,-0.031912,,,,,,,,,,,,,,,,,,,,,,,,,,,,,,,,,,,,,,,,,,,,,,,,,,,,,,,,,,,,,,,,,
23767,1645649659.624709,1645649659.6268198,3.0,0.0,4151.794922,4783.077147999999,4183.589844,4260.0,4250.769043,450.0,3.0,64.0,,,,0.0,4.0,1.0,0.0,0.0,2.0,8.333333,,,,,,,,,,,,,,,,,,,,,,,,,,,,,,,,,,,,,,,,,,,,,,,,,,,,,,0.0,0.0,1.0,0.0,512.0,1.0,,,,,,,,,,,,,,,,,,,,,,,,,
23768,1645649659.632525,1645649659.634634,4.0,0.0,4176.922852000001,4638.974121,4193.846191,4260.0,4309.743652,103.0,3.0,64.0,,,,0.0,4.0,1.0,0.0,0.0,2.0,8.333333,,,,,,,,2.0,0.0,0.6973199999999999,0.451416,0.395264,-0.39209,0.917006,-0.32422399999999996,-0.283696,-0.012647,-0.052986,-0.034385,,,,,,,,,,,,,,,,,,,,,,,,,,,,,,,,,,,,,,,,,,,,,,,,,,,,,,,,,,,,,,,,,
23769,1645649659.640341,1645649659.642549,5.0,0.0,4012.820557,4244.615234000001,4258.461426,4275.897461,4205.641113000001,450.0,3.0,64.0,,,,0.0,4.0,1.0,1.0,0.0,4.0,16.666666,,,,,,,,,,,,,,,,,,,,,,,,,,,,,,,,,,,,,,,,,,,,,,,,,,,,,,,,,,,,,,,,,,,,,,,,,,,,,,,,,,,,
23770,1645649659.6481571,1645649659.650363,6.0,0.0,3995.897461,4257.94873,4224.102539,4279.487305,4177.94873,57.0,3.0,64.0,,,,0.0,4.0,1.0,1.0,0.0,4.0,16.666666,,,,,,,,3.0,0.0,0.697182,0.451416,0.39550799999999997,-0.39209,0.906264,-0.332036,-0.299321,-0.013482,-0.052961,-0.036610000000000004,,,,,,,,,,,,,,,,,,,,,,,,,,,,,,,,,,,,,,,,,,,,,,,,,,,,,,,,,,,,,,,,,
23771,1645649659.655973,1645649659.658177,7.0,0.0,4039.487061,4547.692383,4196.922852000001,4276.410156,4267.179688,450.0,3.0,64.0,,,,0.0,4.0,1.0,1.0,0.0,4.0,16.666666,,,,,,,,,,,,,,,,,,,,,,,,,,,,,,,,,,,,,,,,,,,,,,,,,,,,,,0.0,0.0,1.0,0.0,512.0,1.0,,,,,,,,,,,,,,,,,,,,,,,,,
23772,1645649659.663788,1645649659.665992,8.0,0.0,4028.718018,4405.641113000001,4282.563965,4275.897461,4263.077147999999,450.0,3.0,64.0,,,,0.0,4.0,1.0,1.0,0.0,4.0,16.666666,,,,,,,,4.0,0.0,0.697182,0.451416,0.39550799999999997,-0.39209,0.901869,-0.32813000000000003,-0.291508,-0.012622,-0.052988,-0.038467,,,,,,,,,,,,,,,,,,,,,,,,,,,,,,,,,,,,,,,,,,,,,,,,,,,,,,,,,,,,,,,,,
23773,1645649659.671604,1645649659.673806,9.0,0.0,3968.205078,4704.102539,4254.871582,4271.282227000001,4260.0,0.0,3.0,64.0,,,,0.0,4.0,1.0,1.0,0.0,4.0,16.666666,,,,,,,,,,,,,,,,,,,,,,,,,,,,,,,,,,,,,,,,,,,,,,,,,,,,,,,,,,,,,,,,,,,,,,,,,,,,,,,,,,,,
23774,1645649659.67942,1645649659.681621,10.0,0.0,3971.281982,5141.025879,4226.666504,4270.769043,4336.922852000001,450.0,3.0,64.0,,,,0.0,4.0,1.0,1.0,0.0,4.0,16.666666,,,,,,,,5.0,0.0,0.697182,0.451416,0.39550799999999997,-0.39209,0.921889,-0.319341,-0.287602,-0.013313,-0.05306,-0.033985,,,,,,,,,,,,,,,,,,,,,,,,,,,,,,,,,,,,,,,,,,,,,,,,,,,,,,,,,,,,,,,,,
23775,1645649659.6872358,1645649659.689435,11.0,0.0,4072.3076170000004,4424.615234000001,4320.512695,4267.692383,4234.358886999999,16178.0,3.0,64.0,,,,0.0,4.0,1.0,1.0,0.0,4.0,16.666666,,,,,,,,,,,,,,,,,,,,,,,,,,,,,,,,,,,,,,,,,,,,,,,,,,,,,,0.0,0.0,1.0,0.0,512.0,1.0,,,,,,,,,,,,,,,,,,,,,,,,,
23776,1645649659.695052,1645649659.697249,12.0,0.0,4110.256348,4042.5642090000006,4376.922852000001,4258.974121,4120.0,450.0,3.0,64.0,,,,0.0,4.0,1.0,1.0,0.0,4.0,16.666666,,,,,,,,6.0,0.0,0.69734,0.451172,0.39550799999999997,-0.39209,0.909682,-0.31543499999999997,-0.284184,-0.013935,-0.05293,-0.036398,,,,,,,,,,,,,,,,,,,,,,,,,,,,,,,,,,,,,,,,,,,,,,,,,,,,,,,,,,,,,,,,,
23777,1645649659.702868,1645649659.705064,13.0,0.0,3966.6667479999996,4793.846191,4295.384765999999,4266.666504,4178.974121,450.0,3.0,64.0,,,,0.0,4.0,1.0,1.0,0.0,4.0,16.666666,,,,,,,,,,,,,,,,,,,,,,,,,,,,,,,,,,,,,,,,,,,,,,,,,,,,,,,,,,,,,,,,,,,,,,,,,,,,,,,,,,,,
23778,1645649659.710683,1645649659.712978,14.0,0.0,3952.820557,4795.384765999999,4326.666504,4280.512695,4190.769043,450.0,3.0,64.0,,,,0.0,4.0,1.0,1.0,0.0,4.0,16.666666,,,,,,,,7.0,0.0,0.6972010000000001,0.451172,0.395752,-0.39209,0.9194479999999999,-0.326665,-0.292973,-0.014641,-0.052910000000000006,-0.038422000000000005,,,,,,,,,,,,,,,,,,,,,,,,,,,,,,,,,,,,,,,,,,,,,,,,,,,,,,,,,,,,,,,,,
23779,1645649659.718499,1645649659.720793,15.0,0.0,4047.6923829999996,4564.102539,4316.922852000001,4272.820313,4184.615234000001,16178.0,3.0,64.0,,,,0.0,4.0,1.0,1.0,0.0,4.0,16.666666,,,,,,,,,,,,,,,,,,,,1.0,0.0,0.0,,,,,,,,,,,,,,,,,,,,,,,,,,,,,,,,0.0,0.0,1.0,0.0,512.0,1.0,217.30209399999998,98.579262,29.052134999999996,74.53196,23.092760000000002,1515.754395,1849.3253170000003,1174.862671,1724.7670899999998,801.952942,99.51460300000001,104.667603,22.168861,35.241009000000005,13.470329999999999,0.623654,0.324308,0.276949,0.281612,0.20487600000000003,72.343758,91.006348,25.710402,34.684204,32.088501
23780,1645649659.726315,1645649659.728607,16.0,0.0,3995.384521,5134.358886999999,4251.282227000001,4266.666504,4278.974121,0.0,3.0,64.0,,,,0.0,4.0,1.0,1.0,0.0,4.0,16.666666,,,,,,,,8.0,0.0,0.6972010000000001,0.451172,0.395752,-0.39209,0.9160299999999999,-0.327642,-0.290532,-0.015228,-0.052892999999999996,-0.033993999999999996,,,,,,,,,,,,,,,,,,,,,,,,,,,,,,,,,,,,,,,,,,,,,,,,,,,,,,,,,,,,,,,,,
23781,1645649659.734131,1645649659.736421,17.0,0.0,4049.2307130000004,4799.487305,4282.05127,4271.794922,4301.025879,0.0,3.0,64.0,,,,0.0,4.0,1.0,1.0,0.0,4.0,16.666666,,,,,,,,,,,,,,,,,,,,,,,,,,,,,,,,,,,,,,,,,,,,,,,,,,,,,,,,,,,,,,,,,,,,,,,,,,,,,,,,,,,,
23782,1645649659.7419472,1645649659.744236,18.0,0.0,4239.487305,3964.102539,4358.461426,4268.717772999999,4267.692383,0.0,3.0,64.0,,,,0.0,4.0,1.0,1.0,0.0,4.0,16.666666,,,,,,,,9.0,0.0,0.697064,0.451172,0.395752,-0.392334,0.9052870000000001,-0.326665,-0.287114,-0.014242,-0.052828,-0.029960000000000004,,,,,,,,,,,,,,,,,,,,,,,,,,,,,,,,,,,,,,,,,,,,,,,,,,,,,,,,,,,,,,,,,
23783,1645649659.749763,1645649659.75205,19.0,0.0,4245.641113000001,4149.230957,4287.179688,4268.717772999999,4257.94873,0.0,3.0,64.0,,,,0.0,4.0,1.0,1.0,0.0,4.0,16.666666,,,,,,,,,,,,,,,,,,,,,,,,,,,,,,,,,,,,,,,,,,,,,,,,,,,,,,0.0,0.0,1.0,0.0,512.0,1.0,,,,,,,,,,,,,,,,,,,,,,,,,
23784,1645649659.757578,1645649659.759865,20.0,0.0,4095.897461,4441.025879,4194.871582,4274.871582,4204.102539,0.0,3.0,64.0,,,,0.0,4.0,1.0,1.0,0.0,4.0,16.666666,,,,,,,,10.0,0.0,0.697064,0.451172,0.395752,-0.392334,0.904799,-0.31787600000000005,-0.272953,-0.013209,-0.052917,-0.03253,,,,,,,,,,,,,,,,,,,,,,,,,,,,,,,,,,,,,,,,,,,,,,,,,,,,,,,,,,,,,,,,,
23785,1645649659.765394,1645649659.767679,21.0,0.0,4101.538574,4225.128418,4224.615234000001,4275.897461,4231.282227000001,0.0,3.0,64.0,,,,0.0,4.0,1.0,1.0,0.0,4.0,16.666666,,,,,,,,,,,,,,,,,,,,,,,,,,,,,,,,,,,,,,,,,,,,,,,,,,,,,,,,,,,,,,,,,,,,,,,,,,,,,,,,,,,,
23786,1645649659.77321,1645649659.775493,22.0,0.0,4125.128418,4220.0,4260.0,4274.358886999999,4235.384765999999,0.0,3.0,64.0,,,,0.0,4.0,1.0,1.0,0.0,4.0,16.666666,,,,,,,,11.0,0.0,0.6972010000000001,0.451172,0.395752,-0.39209,0.9160299999999999,-0.327642,-0.290532,-0.013987000000000001,-0.052752,-0.028495999999999997,,,,,,,,,,,,,,,,,,,,,,,,,,,,,,,,,,,,,,,,,,,,,,,,,,,,,,,,,,,,,,,,,
23787,1645649659.781026,1645649659.783308,23.0,0.0,4070.256348,4455.384765999999,4209.230957,4276.922852000001,4204.102539,0.0,3.0,64.0,,,,0.0,4.0,1.0,1.0,0.0,4.0,16.666666,,,,,,,,,,,,,,,,,,,,,,,,,,,,,,,,,,,,,,,,,,,,,,,,,,,,,,0.0,0.0,1.0,0.0,512.0,1.0,,,,,,,,,,,,,,,,,,,,,,,,,
23788,1645649659.788842,1645649659.791222,24.0,0.0,4053.8461909999996,4453.846191,4205.641113000001,4278.974121,4235.897461,0.0,3.0,64.0,,,,0.0,4.0,1.0,1.0,0.0,4.0,16.666666,,,,,,,,12.0,0.0,0.697064,0.451172,0.395752,-0.392334,0.904799,-0.31787600000000005,-0.272953,-0.012979,-0.052848,-0.031213,,,,,,,,,,,,,,,,,,,,,,,,,,,,,,,,,,,,,,,,,,,,,,,,,,,,,,,,,,,,,,,,,
23789,1645649659.796658,1645649659.799037,25.0,0.0,4106.666504,4429.743652,4298.461426,4277.436035,4304.615234000001,0.0,3.0,64.0,,,,0.0,4.0,1.0,1.0,0.0,4.0,16.666666,,,,,,,,,,,,,,,,,,,,,,,,,,,,,,,,,,,,,,,,,,,,,,,,,,,,,,,,,,,,,,,,,,,,,,,,,,,,,,,,,,,,
23790,1645649659.804474,1645649659.806851,26.0,0.0,4042.5642090000006,4737.436035,4282.05127,4275.897461,4272.307617,0.0,3.0,64.0,,,,0.0,4.0,1.0,1.0,0.0,4.0,16.666666,,,,,,,,13.0,0.0,0.6970850000000001,0.450928,0.395752,-0.39257800000000004,0.9155409999999999,-0.319341,-0.29443800000000003,-0.012072,-0.052739,-0.033707,,,,,,,,,,,,,,,,,,,,,,,,,,,,,,,,,,,,,,,,,,,,,,,,,,,,,,,,,,,,,,,,,
23791,1645649659.812289,1645649659.814665,27.0,0.0,4009.2307130000004,4853.846191,4268.205078,4276.410156,4257.94873,0.0,3.0,64.0,,,,0.0,4.0,1.0,1.0,0.0,4.0,16.666666,,,,,,,,,,,,,,,,,,,,,,,,,,,,,,,,,,,,,,,,,,,,,,,,,,,,,,0.0,0.0,1.0,0.0,512.0,1.0,,,,,,,,,,,,,,,,,,,,,,,,,
23792,1645649659.820105,1645649659.82248,28.0,0.0,4147.179688,4360.0,4328.205078,4267.692383,4261.025879,0.0,3.0,64.0,,,,0.0,4.0,1.0,1.0,0.0,4.0,16.666666,,,,,,,,14.0,0.0,0.6970850000000001,0.450928,0.395752,-0.39257800000000004,0.9350729999999999,-0.31787600000000005,-0.274907,-0.012916,-0.05259199999999999,-0.029799000000000003,,,,,,,,,,,,,,,,,,,,,,,,,,,,,,,,,,,,,,,,,,,,,,,,,,,,,,,,,,,,,,,,,
23793,1645649659.8279212,1645649659.830294,29.0,0.0,4190.769043,4232.307617,4362.05127,4259.487305,4200.0,0.0,3.0,64.0,,,,0.0,4.0,1.0,1.0,0.0,4.0,16.666666,,,,,,,,,,,,,,,,,,,,,,,,,,,,,,,,,,,,,,,,,,,,,,,,,,,,,,,,,,,,,,,,,,,,,,,,,,,,,,,,,,,,
23794,1645649659.835737,1645649659.838109,30.0,0.0,4066.1538090000004,4531.794922,4328.205078,4269.230957,4143.077147999999,0.0,3.0,64.0,,,,0.0,4.0,1.0,1.0,0.0,4.0,16.666666,,,,,,,,15.0,0.0,0.696946,0.450928,0.395996,-0.39257800000000004,0.9277489999999999,-0.31787600000000005,-0.281254,-0.013675,-0.05260599999999999,-0.032386,,,,,,,,,,,,,,,,,,,,,,,,,,,,,,,,,,,,,,,,,,,,,,,,,,,,,,,,,,,,,,,,,
23795,1645649659.8435528,1645649659.845923,31.0,0.0,4088.718018,4357.94873,4384.615234000001,4277.436035,4178.974121,0.0,3.0,64.0,,,,0.0,4.0,1.0,1.0,0.0,4.0,16.666666,1.0,0.0,0.0,0.0,0.0,0.0,0.0,,,,,,,,,,,,,1.0,0.0,0.0,,,,,,,,,,,,,,,,,,,,,,,,,,,,,,,,0.0,0.0,1.0,0.0,512.0,1.0,98.34034,92.531219,27.542664000000002,69.585495,28.910013,1350.462036,1501.5115970000002,1224.2929689999999,1773.8955079999998,971.0426640000001,105.53993200000001,105.861732,19.678194,35.044792,16.396658,0.319919,0.275435,0.261315,0.285968,0.262083,73.79921,79.890594,22.581182000000002,36.609566,40.219055
23796,1645649659.851369,1645649659.8537369,32.0,0.0,4164.615234000001,4286.153809,4348.717772999999,4272.820313,4185.641113000001,0.0,3.0,64.0,,,,0.0,4.0,1.0,1.0,0.0,4.0,16.666666,,,,,,,,16.0,0.0,0.696946,0.450928,0.395996,-0.39257800000000004,0.9199360000000001,-0.323247,-0.289555,-0.014261000000000001,-0.05266799999999999,-0.028610000000000003,,,,,,,,,,,,,,,,,,,,,,,,,,,,,,,,,,,,,,,,,,,,,,,,,,,,,,,,,,,,,,,,,
23797,1645649659.859184,1645649659.861652,33.0,0.0,4074.8718259999996,4570.256348,4247.179688,4276.410156,4114.871582,0.0,3.0,64.0,,,,0.0,4.0,1.0,1.0,0.0,4.0,16.666666,,,,,,,,,,,,,,,,,,,,,,,,,,,,,,,,,,,,,,,,,,,,,,,,,,,,,,,,,,,,,,,,,,,,,,,,,,,,,,,,,,,,
23798,1645649659.867,1645649659.869466,34.0,0.0,4055.384521,4672.307617,4224.102539,4283.077147999999,4165.128418,0.0,3.0,64.0,,,,0.0,4.0,1.0,1.0,0.0,4.0,16.666666,,,,,,,,17.0,0.0,0.696946,0.450928,0.395996,-0.39257800000000004,0.9184709999999999,-0.32422399999999996,-0.27686,-0.013372,-0.052724,-0.031412999999999996,,,,,,,,,,,,,,,,,,,,,,,,,,,,,,,,,,,,,,,,,,,,,,,,,,,,,,,,,,,,,,,,,
23799,1645649659.874816,1645649659.877281,35.0,0.0,4111.794922,4762.05127,4252.307617,4277.94873,4254.871582,0.0,3.0,64.0,,,,0.0,4.0,1.0,1.0,0.0,4.0,16.666666,,,,,,,,,,,,,,,,,,,,,,,,,,,,,,,,,,,,,,,,,,,,,,,,,,,,,,0.0,0.0,1.0,0.0,512.0,1.0,,,,,,,,,,,,,,,,,,,,,,,,,
23800,1645649659.882632,1645649659.885095,36.0,0.0,4091.281982,4843.589844,4215.384765999999,4277.436035,4274.358886999999,0.0,3.0,64.0,,,,0.0,4.0,1.0,1.0,0.0,4.0,16.666666,,,,,,,,18.0,0.0,0.696925,0.451172,0.395996,-0.392334,0.905776,-0.32422399999999996,-0.28174299999999997,-0.013987999999999999,-0.052725,-0.033936,,,,,,,,,,,,,,,,,,,,,,,,,,,,,,,,,,,,,,,,,,,,,,,,,,,,,,,,,,,,,,,,,
23801,1645649659.890448,1645649659.892909,37.0,0.0,4099.487305,4616.922852000001,4221.538574,4280.512695,4274.358886999999,0.0,3.0,64.0,,,,0.0,4.0,1.0,1.0,0.0,4.0,16.666666,,,,,,,,,,,,,,,,,,,,,,,,,,,,,,,,,,,,,,,,,,,,,,,,,,,,,,,,,,,,,,,,,,,,,,,,,,,,,,,,,,,,
23802,1645649659.8982642,1645649659.900724,38.0,0.0,4179.487305,4597.94873,4248.205078,4277.94873,4297.436035,0.0,3.0,64.0,,,,0.0,4.0,1.0,1.0,0.0,4.0,16.666666,,,,,,,,19.0,0.0,0.696945,0.450928,0.39624000000000004,-0.392334,0.918959,-0.320317,-0.286137,-0.01464,-0.052726,-0.036157999999999996,,,,,,,,,,,,,,,,,,,,,,,,,,,,,,,,,,,,,,,,,,,,,,,,,,,,,,,,,,,,,,,,,
23803,1645649659.9060788,1645649659.908538,39.0,0.0,4081.025635,4680.512695,4204.615234000001,4275.897461,4198.974121,0.0,3.0,64.0,,,,0.0,4.0,1.0,1.0,0.0,4.0,16.666666,,,,,,,,,,,,,,,,,,,,,,,,,,,,,,,,,,,,,,,,,,,,,,,,,,,,,,0.0,0.0,1.0,0.0,512.0,1.0,,,,,,,,,,,,,,,,,,,,,,,,,
23804,1645649659.913895,1645649659.916353,40.0,0.0,4049.743652,4633.846191,4193.333496,4274.358886999999,4196.922852000001,0.0,3.0,64.0,,,,0.0,4.0,1.0,1.0,0.0,4.0,16.666666,,,,,,,,20.0,0.0,0.696807,0.450928,0.39624000000000004,-0.39257800000000004,0.906752,-0.324712,-0.288579,-0.013713,-0.052775999999999997,-0.038206,,,,,,,,,,,,,,,,,,,,,,,,,,,,,,,,,,,,,,,,,,,,,,,,,,,,,,,,,,,,,,,,,
23805,1645649659.921711,1645649659.924167,41.0,0.0,4146.153809,4852.307617,4226.153809,4271.282227000001,4316.410156,0.0,3.0,64.0,,,,0.0,4.0,1.0,1.0,0.0,4.0,16.666666,,,,,,,,,,,,,,,,,,,,,,,,,,,,,,,,,,,,,,,,,,,,,,,,,,,,,,,,,,,,,,,,,,,,,,,,,,,,,,,,,,,,
23806,1645649659.929527,1645649659.931881,42.0,0.0,4197.436035,4876.922852000001,4276.410156,4270.769043,4345.128418,0.0,3.0,64.0,,,,0.0,4.0,1.0,1.0,0.0,4.0,16.666666,,,,,,,,21.0,0.0,0.696807,0.450928,0.39624000000000004,-0.39257800000000004,0.904799,-0.320806,-0.291508,-0.014294999999999999,-0.052869000000000006,-0.04005,,,,,,,,,,,,,,,,,,,,,,,,,,,,,,,,,,,,,,,,,,,,,,,,,,,,,,,,,,,,,,,,,
23807,1645649659.937343,1645649659.939696,43.0,0.0,4232.820313,4850.769043,4265.128418,4266.666504,4323.589844,0.0,3.0,64.0,,,,0.0,4.0,1.0,1.0,0.0,4.0,16.666666,,,,,,,,,,,,,,,,,,,,,,,,,,,,,,,,,,,,,,,,,,,,,,,,,,,,,,0.0,0.0,1.0,0.0,512.0,1.0,,,,,,,,,,,,,,,,,,,,,,,,,
23808,1645649659.945159,1645649659.94751,44.0,0.0,4240.0,4928.717772999999,4281.538574,4263.077147999999,4315.384765999999,0.0,3.0,64.0,,,,0.0,4.0,1.0,1.0,0.0,4.0,16.666666,,,,,,,,22.0,0.0,0.696807,0.450928,0.39624000000000004,-0.39257800000000004,0.9150530000000001,-0.336431,-0.279789,-0.014916,-0.053002,-0.035508,,,,,,,,,,,,,,,,,,,,,,,,,,,,,,,,,,,,,,,,,,,,,,,,,,,,,,,,,,,,,,,,,
23809,1645649659.952974,1645649659.955325,45.0,0.0,4136.922852000001,4417.436035,4294.871582,4268.717772999999,4209.743652,0.0,3.0,64.0,,,,0.0,4.0,1.0,1.0,0.0,4.0,16.666666,,,,,,,,,,,,,,,,,,,,,,,,,,,,,,,,,,,,,,,,,,,,,,,,,,,,,,,,,,,,,,,,,,,,,,,,,,,,,,,,,,,,
23810,1645649659.9607902,1645649659.963139,46.0,0.0,4084.615479,3881.538574,4335.897461,4272.307617,4124.615234000001,0.0,3.0,64.0,,,,0.0,4.0,1.0,1.0,0.0,4.0,16.666666,,,,,,,,23.0,0.0,0.696807,0.450928,0.39624000000000004,-0.39257800000000004,0.917494,-0.332525,-0.289067,-0.015425999999999999,-0.052877999999999994,-0.031370999999999996,,,,,,,,,,,,,,,,,,,,,,,,,,,,,,,,,,,,,,,,,,,,,,,,,,,,,,,,,,,,,,,,,
23811,1645649659.968606,1645649659.970954,47.0,0.0,4132.307617,4162.563965,4325.128418,4272.307617,4183.077147999999,0.0,3.0,64.0,,,,0.0,4.0,1.0,1.0,0.0,4.0,16.666666,,,,,,,,,,,,,,,,,,,,1.0,0.0,0.0,,,,,,,,,,,,,,,,,,,,,,,,,,,,,,,,0.0,0.0,1.0,0.0,512.0,1.0,66.52226999999999,82.672813,26.077478,67.528366,38.845406,1106.3905029999999,1098.360107,1225.0896,1862.046509,1262.701538,109.616577,109.53337900000001,17.139260999999998,33.803535,20.296471,0.207587,0.21219899999999997,0.23315300000000003,0.30348200000000003,0.351527,70.50817099999999,69.35932199999999,18.884279,40.343121000000004,50.645802
23812,1645649659.976422,1645649659.9787679,48.0,0.0,4088.205078,4571.794922,4300.512695,4278.461426,4202.563965,0.0,3.0,64.0,,,,0.0,4.0,1.0,1.0,0.0,4.0,16.666666,,,,,,,,24.0,0.0,0.696807,0.450928,0.39624000000000004,-0.39257800000000004,0.9209129999999999,-0.318364,-0.287114,-0.014322999999999999,-0.05301,-0.033996,,,,,,,,,,,,,,,,,,,,,,,,,,,,,,,,,,,,,,,,,,,,,,,,,,,,,,,,,,,,,,,,,
23813,1645649659.9842381,1645649659.986582,49.0,0.0,4098.974121,4326.666504,4302.05127,4281.025879,4127.179688,0.0,3.0,64.0,,,,0.0,4.0,1.0,1.0,0.0,4.0,16.666666,,,,,,,,,,,,,,,,,,,,,,,,,,,,,,,,,,,,,,,,,,,,,,,,,,,,,,,,,,,,,,,,,,,,,,,,,,,,,,,,,,,,
23814,1645649659.992054,1645649659.994497,50.0,0.0,4206.666504,4216.922852000001,4335.384765999999,4275.384765999999,4171.794922,0.0,3.0,64.0,,,,0.0,4.0,1.0,1.0,0.0,4.0,16.666666,,,,,,,,25.0,0.0,0.69667,0.450928,0.39624000000000004,-0.392822,0.922866,-0.31543499999999997,-0.281254,-0.014893,-0.052983,-0.03626,,,,,,,,,,,,,,,,,,,,,,,,,,,,,,,,,,,,,,,,,,,,,,,,,,,,,,,,,,,,,,,,,
23815,1645649659.9998698,1645649660.002311,51.0,0.0,4265.128418,4204.102539,4297.436035,4275.384765999999,4263.589844,0.0,3.0,64.0,,,,0.0,4.0,1.0,1.0,0.0,4.0,16.666666,,,,,,,,,,,,,,,,,,,,,,,,,,,,,,,,,,,,,,,,,,,,,,,,,,,,,,0.0,0.0,1.0,0.0,512.0,1.0,,,,,,,,,,,,,,,,,,,,,,,,,
23816,1645649660.007686,1645649660.010225,52.0,0.0,4241.538574,4144.615234000001,4221.538574,4275.897461,4233.333496,0.0,3.0,64.0,,,,0.0,4.0,1.0,1.0,0.0,4.0,16.666666,,,,,,,,26.0,0.0,0.696828,0.45068400000000003,0.39624000000000004,-0.392822,0.938491,-0.31787600000000005,-0.29443800000000003,-0.015503,-0.052958000000000005,-0.031999,,,,,,,,,,,,,,,,,,,,,,,,,,,,,,,,,,,,,,,,,,,,,,,,,,,,,,,,,,,,,,,,,
23817,1645649660.015501,1645649660.01804,53.0,0.0,4201.025879,4215.897461,4217.94873,4274.358886999999,4244.102539,0.0,3.0,64.0,,,,0.0,4.0,1.0,1.0,0.0,4.0,16.666666,,,,,,,,,,,,,,,,,,,,,,,,,,,,,,,,,,,,,,,,,,,,,,,,,,,,,,,,,,,,,,,,,,,,,,,,,,,,,,,,,,,,
23818,1645649660.023317,1645649660.0258539,54.0,0.0,4158.974121,4176.410156,4250.256348,4273.333496,4219.487305,0.0,3.0,64.0,,,,0.0,4.0,1.0,1.0,0.0,4.0,16.666666,,,,,,,,27.0,0.0,0.696965,0.45068400000000003,0.39624000000000004,-0.39257800000000004,0.917983,-0.327642,-0.292973,-0.016101,-0.052936000000000004,-0.028311000000000003,,,,,,,,,,,,,,,,,,,,,,,,,,,,,,,,,,,,,,,,,,,,,,,,,,,,,,,,,,,,,,,,,
23819,1645649660.031133,1645649660.033669,55.0,0.0,4178.461426,4173.333496,4225.641113000001,4273.333496,4184.615234000001,0.0,3.0,64.0,,,,0.0,4.0,1.0,1.0,0.0,4.0,16.666666,,,,,,,,,,,,,,,,,,,,,,,,,,,,,,,,,,,,,,,,,,,,,,,,,,,,,,0.0,0.0,1.0,0.0,512.0,1.0,,,,,,,,,,,,,,,,,,,,,,,,,
