,Timestamp,OriginalTimestamp,EEG.Counter,EEG.Interpolated,EEG.AF3,EEG.T7,EEG.Pz,EEG.T8,EEG.AF4,EEG.RawCq,EEG.Battery,EEG.BatteryPercent,MarkerIndex,MarkerType,MarkerValueInt,EEG.MarkerHardware,CQ.AF3,CQ.T7,CQ.Pz,CQ.T8,CQ.AF4,CQ.Overall,EQ.SampleRateQuality,EQ.OVERALL,EQ.AF3,EQ.T7,EQ.Pz,EQ.T8,EQ.AF4,MOT.CounterMems,MOT.InterpolatedMems,MOT.Q0,MOT.Q1,MOT.Q2,MOT.Q3,MOT.AccX,MOT.AccY,MOT.AccZ,MOT.MagX,MOT.MagY,MOT.MagZ,MC.Action,MC.ActionPower,MC.IsActive,PM.Engagement.IsActive,PM.Engagement.Scaled,PM.Engagement.Raw,PM.Engagement.Min,PM.Engagement.Max,PM.Excitement.IsActive,PM.Excitement.Scaled,PM.Excitement.Raw,PM.Excitement.Min,PM.Excitement.Max,PM.LongTermExcitement,PM.Stress.IsActive,PM.Stress.Scaled,PM.Stress.Raw,PM.Stress.Min,PM.Stress.Max,PM.Relaxation.IsActive,PM.Relaxation.Scaled,PM.Relaxation.Raw,PM.Relaxation.Min,PM.Relaxation.Max,PM.Interest.IsActive,PM.Interest.Scaled,PM.Interest.Raw,PM.Interest.Min,PM.Interest.Max,PM.Focus.IsActive,PM.Focus.Scaled,PM.Focus.Raw,PM.Focus.Min,PM.Focus.Max,FE.BlinkWink,FE.HorizontalEyesDirection,FE.UpperFaceAction,FE.UpperFaceActionPower,FE.LowerFaceAction,FE.LowerFaceActionPower,POW.AF3.Theta,POW.AF3.Alpha,POW.AF3.BetaL,POW.AF3.BetaH,POW.AF3.Gamma,POW.T7.Theta,POW.T7.Alpha,POW.T7.BetaL,POW.T7.BetaH,POW.T7.Gamma,POW.Pz.Theta,POW.Pz.Alpha,POW.Pz.BetaL,POW.Pz.BetaH,POW.Pz.Gamma,POW.T8.Theta,POW.T8.Alpha,POW.T8.BetaL,POW.T8.BetaH,POW.T8.Gamma,POW.AF4.Theta,POW.AF4.Alpha,POW.AF4.BetaL,POW.AF4.BetaH,POW.AF4.Gamma
21429,1645900166.813309,1645900166.8563368,96.0,0.0,4380.512695,4758.974121,4242.563965,4183.077147999999,4317.94873,450.0,1.0,15.0,26.0,1.0,2.0,0.0,2.0,0.0,0.0,4.0,4.0,16.666666,,,,,,,,48.0,0.0,0.7294510000000001,0.16430699999999998,0.659424,0.07788099999999999,0.9399559999999999,-0.351568,-0.081544,-0.027762000000000002,-0.030476999999999997,-0.012979,,,,,,,,,,,,,,,,,,,,,,,,,,,,,,,,,,,,,,,,,,,,,,,,,,,,,,,,,,,,,,,,,
21430,1645900166.8211222,1645900166.864152,97.0,0.0,4382.05127,4774.358886999999,4073.3332520000004,4174.358886999999,4271.794922,450.0,1.0,15.0,,,,0.0,2.0,0.0,0.0,4.0,4.0,16.666666,,,,,,,,,,,,,,,,,,,,,,,,,,,,,,,,,,,,,,,,,,,,,,,,,,,,,,,,,,,,,,,,,,,,,,,,,,,,,,,,,,,,
21431,1645900166.828935,1645900166.871967,98.0,0.0,4351.794922,4713.846191,3995.897461,4158.461426,4274.871582,450.0,1.0,15.0,,,,0.0,2.0,0.0,0.0,4.0,4.0,16.666666,,,,,,,,49.0,0.0,0.7294510000000001,0.16430699999999998,0.659424,0.07788099999999999,0.94435,-0.34375500000000003,-0.081544,-0.028258,-0.030505,-0.014171000000000001,,,,,,,,,,,,,,,,,,,,,,,,,,,,,,,,,,,0.0,0.0,32.0,0.044132,1.0,0.0,,,,,,,,,,,,,,,,,,,,,,,,,
21432,1645900166.8367481,1645900166.879782,99.0,0.0,4342.563965,4719.487305,4173.333496,4175.897461,4296.922852000001,16066.0,1.0,15.0,,,,0.0,2.0,0.0,0.0,4.0,4.0,16.666666,,,,,,,,,,,,,,,,,,,,,,,,,,,,,,,,,,,,,,,,,,,,,,,,,,,,,,,,,,,,,,,,,,,,,,,,,,,,,,,,,,,,
21433,1645900166.8445609,1645900166.887696,100.0,0.0,4358.974121,4747.692383,4287.179688,4194.358886999999,4329.230957,450.0,1.0,15.0,,,,0.0,2.0,0.0,0.0,4.0,4.0,16.666666,,,,,,,,50.0,0.0,0.729175,0.164551,0.659668,0.07788099999999999,0.941909,-0.336431,-0.067872,-0.028752,-0.030482,-0.015049000000000002,,,,,,,,,,,,,,,,,,,,,,,,,,,,,,,,,,,,,,,,,,,,,,,,,,,,,,,,,,,,,,,,,
21434,1645900166.852375,1645900166.895511,101.0,0.0,4335.897461,4643.589844,4174.358886999999,4209.230957,4322.563965,450.0,1.0,15.0,,,,0.0,2.0,0.0,0.0,4.0,4.0,16.666666,,,,,,,,,,,,,,,,,,,,,,,,,,,,,,,,,,,,,,,,,,,,,,,,,,,,,,,,,,,,,,,,,,,,,,,,,,,,,,,,,,,,
21435,1645900166.860188,1645900166.903326,102.0,0.0,4294.871582,4541.025879,3993.8461909999996,4226.666504,4283.077147999999,450.0,1.0,15.0,,,,0.0,2.0,0.0,0.0,4.0,4.0,16.666666,,,,,,,,51.0,0.0,0.729093,0.164795,0.659668,0.078125,0.945327,-0.347173,-0.087892,-0.029149,-0.030608,-0.015888,1.0,0.0,0.0,,,,,,,,,,,,,,,,,,,,,,,,,,,,,,,,0.0,0.0,1.0,0.0,512.0,0.519515,22.767769,17.736364000000002,15.35219,13.765398000000001,5.8511169999999995,14.770179,22.785362,46.293388,29.087691999999997,20.739822,37.228970000000004,38.287929999999996,29.225607,96.216949,37.063324,11.15992,21.848288,12.639953,26.101303,8.652147,11.257469,28.618047999999998,14.012366,10.018175999999999,3.760343
21436,1645900166.868001,1645900166.911141,103.0,0.0,4308.205078,4560.0,4055.897461,4217.94873,4266.666504,16066.0,1.0,15.0,,,,0.0,2.0,0.0,0.0,4.0,4.0,16.666666,,,,,,,,,,,,,,,,,,,,,,,,,,,,,,,,,,,,,,,,,,,,,,,,,,,,,,,,,,,,,,,,,,,,,,,,,,,,,,,,,,,,
21437,1645900166.875814,1645900166.918956,104.0,0.0,4380.512695,4561.025879,4236.922852000001,4201.538574,4283.589844,450.0,1.0,15.0,,,,0.0,2.0,0.0,0.0,4.0,4.0,16.666666,,,,,,,,52.0,0.0,0.729093,0.164795,0.659668,0.078125,0.9423969999999999,-0.337407,-0.073732,-0.029505,-0.030574,-0.013567,,,,,,,,,,,,,,,,,,,,,,,,,,,,,,,,,,,,,,,,,,,,,,,,,,,,,,,,,,,,,,,,,
21438,1645900166.883627,1645900166.9267712,105.0,0.0,4422.05127,4594.358886999999,4228.205078,4158.461426,4284.102539,450.0,1.0,15.0,,,,0.0,2.0,0.0,0.0,4.0,4.0,16.666666,,,,,,,,,,,,,,,,,,,,,,,,,,,,,,,,,,,,,,,,,,,,,,,,,,,,,,,,,,,,,,,,,,,,,,,,,,,,,,,,,,,,
21439,1645900166.8914402,1645900166.934586,106.0,0.0,4402.05127,4707.179688,4035.384521,4144.615234000001,4293.333496,450.0,1.0,15.0,,,,0.0,2.0,0.0,0.0,4.0,4.0,16.666666,,,,,,,,53.0,0.0,0.729259,0.16503900000000002,0.659424,0.078125,0.938491,-0.336919,-0.071778,-0.029776999999999998,-0.030543999999999998,-0.0147,,,,,,,,,,,,,,,,,,,,,,,,,,,,,,,,,,,0.0,0.0,1.0,0.0,512.0,0.519515,,,,,,,,,,,,,,,,,,,,,,,,,
21440,1645900166.899253,1645900166.942401,107.0,0.0,4339.487305,4743.077147999999,4043.076904,4192.820313,4324.615234000001,16066.0,1.0,15.0,,,,0.0,2.0,0.0,0.0,4.0,4.0,16.666666,,,,,,,,,,,,,,,,,,,,,,,,,,,,,,,,,,,,,,,,,,,,,,,,,,,,,,,,,,,,,,,,,,,,,,,,,,,,,,,,,,,,
21441,1645900166.907066,1645900166.950215,108.0,0.0,4327.692383,4691.794922,4179.487305,4226.666504,4329.743652,450.0,1.0,15.0,,,,0.0,2.0,0.0,0.0,4.0,4.0,16.666666,,,,,,,,54.0,0.0,0.729233,0.16503900000000002,0.659424,0.07836900000000001,0.949233,-0.34521999999999997,-0.076661,-0.029925,-0.030468000000000002,-0.012351,,,,,,,,,,,,,,,,,,,,,,,,,,,,,,,,,,,,,,,,,,,,,,,,,,,,,,,,,,,,,,,,,
21442,1645900166.9148788,1645900166.9581301,109.0,0.0,4373.333496,4618.974121,4184.102539,4177.94873,4258.461426,450.0,1.0,15.0,,,,0.0,2.0,0.0,0.0,4.0,4.0,16.666666,,,,,,,,,,,,,,,,,,,,,,,,,,,,,,,,,,,,,,,,,,,,,,,,,,,,,,,,,,,,,,,,,,,,,,,,,,,,,,,,,,,,
21443,1645900166.922692,1645900166.965945,110.0,0.0,4396.410156,4584.615234000001,4119.487305,4151.794922,4226.666504,450.0,1.0,15.0,,,,0.0,2.0,0.0,0.0,4.0,4.0,16.666666,,,,,,,,55.0,0.0,0.729233,0.16503900000000002,0.659424,0.07836900000000001,0.95314,-0.350103,-0.079591,-0.030204,-0.030594999999999997,-0.013655,,,,,,,,,,,,,,,,,,,,,,,,,,,,,,,,,,,0.0,0.0,1.0,0.0,512.0,0.519515,,,,,,,,,,,,,,,,,,,,,,,,,
21444,1645900166.930505,1645900166.97376,111.0,0.0,4361.538574,4635.897461,4115.384765999999,4182.05127,4272.307617,16066.0,1.0,15.0,,,,0.0,2.0,0.0,0.0,4.0,4.0,16.666666,,,,,,,,,,,,,,,,,,,,,,,,,,,,,,,,,,,,,,,,,,,,,,,,,,,,,,,,,,,,,,,,,,,,,,,,,,,,,,,,,,,,
21445,1645900166.938318,1645900166.981575,112.0,0.0,4354.358886999999,4692.820313,4085.641113,4201.538574,4290.256348,450.0,1.0,15.0,,,,0.0,2.0,0.0,0.0,4.0,4.0,16.666666,,,,,,,,56.0,0.0,0.729151,0.16528299999999999,0.659424,0.078613,0.9594870000000001,-0.34912600000000005,-0.082521,-0.030455,-0.030612,-0.011606,,,,,,,,,,,,,,,,,,,,,,,,,,,,,,,,,,,,,,,,,,,,,,,,,,,,,,,,,,,,,,,,,
21446,1645900166.946132,1645900166.9893901,113.0,0.0,4375.384765999999,4661.025879,4085.1281740000004,4184.102539,4267.179688,450.0,1.0,15.0,,,,0.0,2.0,0.0,0.0,4.0,4.0,16.666666,,,,,,,,,,,,,,,,,,,,,,,,,,,,,,,,,,,,,,,,,,,,,,,,,,,,,,,,,,,,,,,,,,,,,,,,,,,,,,,,,,,,
21447,1645900166.953945,1645900166.997205,114.0,0.0,4354.358886999999,4593.333496,4198.974121,4158.461426,4267.179688,450.0,1.0,15.0,,,,0.0,2.0,0.0,0.0,4.0,4.0,16.666666,,,,,,,,57.0,0.0,0.729151,0.16528299999999999,0.659424,0.078613,0.945815,-0.34668499999999997,-0.07910299999999999,-0.030826999999999997,-0.030676,-0.009713,,,,,,,,,,,,,,,,,,,,,,,,,,,,,,,,,,,0.0,0.0,1.0,0.0,512.0,0.519515,,,,,,,,,,,,,,,,,,,,,,,,,
21448,1645900166.961758,1645900167.005019,115.0,0.0,4318.974121,4593.846191,4200.0,4180.0,4274.871582,16066.0,1.0,15.0,,,,0.0,2.0,0.0,0.0,4.0,4.0,16.666666,,,,,,,,,,,,,,,,,,,,,,,,,,,,,,,,,,,,,,,,,,,,,,,,,,,,,,,,,,,,,,,,,,,,,,,,,,,,,,,,,,,,
21449,1645900166.969571,1645900167.012834,116.0,0.0,4324.102539,4650.256348,4121.025879,4209.743652,4245.128418,450.0,1.0,15.0,,,,0.0,2.0,0.0,0.0,4.0,4.0,16.666666,,,,,,,,58.0,0.0,0.72907,0.165527,0.659424,0.07885700000000001,0.9306780000000001,-0.354009,-0.078126,-0.030919,-0.030685000000000004,-0.011086,,,,,,,,,,,,,,,,,,,,,,,,,,,,,,,,,,,,,,,,,,,,,,,,,,,,,,,,,,,,,,,,,
21450,1645900166.977384,1645900167.020649,117.0,0.0,4360.0,4689.230957,4138.974121,4166.666504,4242.563965,450.0,1.0,15.0,,,,0.0,2.0,0.0,0.0,4.0,4.0,16.666666,,,,,,,,,,,,,,,,,,,,,,,,,,,,,,,,,,,,,,,,,,,,,,,,,,,,,,,,,,,,,,,,,,,,,,,,,,,,,,,,,,,,
21451,1645900166.985197,1645900167.028564,118.0,0.0,4385.128418,4677.436035,4203.589844,4129.743652,4283.077147999999,450.0,1.0,15.0,,,,0.0,2.0,0.0,0.0,4.0,4.0,16.666666,,,,,,,,59.0,0.0,0.7290399999999999,0.165771,0.659424,0.078613,0.94435,-0.349615,-0.080568,-0.031098,-0.030692,-0.012320999999999999,1.0,0.0,0.0,,,,,,,,,,,,,,,,,,,,,,,,,,,,,,,,0.0,0.0,32.0,0.045981,1.0,0.0,24.428122000000002,17.00197,14.716875,14.286744,6.303941,14.003205,18.927298,43.928501000000004,31.205175,27.887961999999998,41.518009,38.718033,29.321534999999997,83.604881,41.499615000000006,11.699838,20.078636,13.595723999999999,24.662385999999998,9.650181,12.483245,25.047569,12.435986999999999,9.606415,4.896668
21452,1645900166.99301,1645900167.0363789,119.0,0.0,4362.563965,4680.0,4117.436035,4180.512695,4312.820313,16066.0,1.0,15.0,,,,0.0,2.0,0.0,0.0,4.0,4.0,16.666666,,,,,,,,,,,,,,,,,,,,,,,,,,,,,,,,,,,,,,,,,,,,,,,,,,,,,,,,,,,,,,,,,,,,,,,,,,,,,,,,,,,,
21453,1645900167.000823,1645900167.044194,120.0,0.0,4285.128418,4704.102539,4112.820313,4215.897461,4290.256348,450.0,1.0,15.0,,,,0.0,2.0,0.0,0.0,4.0,4.0,16.666666,,,,,,,,60.0,0.0,0.729151,0.16528299999999999,0.659424,0.078613,0.945815,-0.34668499999999997,-0.07910299999999999,-0.03126,-0.030699,-0.013384,,,,,,,,,,,,,,,,,,,,,,,,,,,,,,,,,,,,,,,,,,,,,,,,,,,,,,,,,,,,,,,,,
21454,1645900167.008636,1645900167.052109,121.0,0.0,4295.897461,4662.563965,4205.641113000001,4224.615234000001,4271.794922,450.0,1.0,15.0,,,,0.0,2.0,0.0,0.0,4.0,4.0,16.666666,,,,,,,,,,,,,,,,,,,,,,,,,,,,,,,,,,,,,,,,,,,,,,,,,,,,,,,,,,,,,,,,,,,,,,,,,,,,,,,,,,,,
21455,1645900167.016449,1645900167.059923,122.0,0.0,4409.743652,4611.794922,4214.358886999999,4201.025879,4266.666504,450.0,1.0,15.0,,,,0.0,2.0,0.0,0.0,4.0,4.0,16.666666,,,,,,,,61.0,0.0,0.7290399999999999,0.165771,0.659424,0.078613,0.94435,-0.349615,-0.080568,-0.031406,-0.030706,-0.014388999999999999,,,,,,,,,,,,,,,,,,,,,,,,,,,,,,,,,,,0.0,0.0,32.0,0.045981,1.0,0.0,,,,,,,,,,,,,,,,,,,,,,,,,
21456,1645900167.024262,1645900167.067738,123.0,0.0,4440.0,4622.05127,4127.179688,4192.307617,4300.512695,16066.0,1.0,15.0,,,,0.0,2.0,0.0,0.0,4.0,4.0,16.666666,,,,,,,,,,,,,,,,,,,,,,,,,,,,,,,,,,,,,,,,,,,,,,,,,,,,,,,,,,,,,,,,,,,,,,,,,,,,,,,,,,,,
21457,1645900167.032076,1645900167.075553,124.0,0.0,4318.974121,4646.666504,4148.205078,4234.358886999999,4334.871582,450.0,1.0,15.0,,,,0.0,2.0,0.0,0.0,4.0,4.0,16.666666,,,,,,,,62.0,0.0,0.7290399999999999,0.165771,0.659424,0.078613,0.939467,-0.34912600000000005,-0.083497,-0.031536,-0.030711000000000002,-0.015244999999999998,,,,,,,,,,,,,,,,,,,,,,,,,,,,,,,,,,,,,,,,,,,,,,,,,,,,,,,,,,,,,,,,,
21458,1645900167.039889,1645900167.083368,125.0,0.0,4272.820313,4628.717772999999,4208.205078,4269.743652,4302.563965,450.0,1.0,15.0,,,,0.0,2.0,0.0,0.0,4.0,4.0,16.666666,,,,,,,,,,,,,,,,,,,,,,,,,,,,,,,,,,,,,,,,,,,,,,,,,,,,,,,,,,,,,,,,,,,,,,,,,,,,,,,,,,,,
21459,1645900167.047701,1645900167.091283,126.0,0.0,4358.461426,4574.358886999999,4164.615234000001,4220.0,4238.974121,450.0,1.0,15.0,,,,0.0,4.0,1.0,1.0,4.0,4.0,50.0,,,,,,,,63.0,0.0,0.7292350000000001,0.165771,0.65918,0.07885700000000001,0.941421,-0.35108,-0.082521,-0.031654,-0.030716000000000004,-0.016113,,,,,,,,,,,,,,,,,,,,,,,,,,,,,,,,,,,0.0,0.0,32.0,0.045981,1.0,0.0,,,,,,,,,,,,,,,,,,,,,,,,,
21460,1645900167.055515,1645900167.099098,127.0,0.0,4391.794922,4576.410156,4103.077147999999,4179.487305,4247.179688,233.0,1.0,15.0,,,,0.0,4.0,1.0,1.0,4.0,4.0,50.0,,,,,,,,,,,,,,,,,,,,,,,,,,,,,,,,,,,,,,,,,,,,,,,,,,,,,,,,,,,,,,,,,,,,,,,,,,,,,,,,,,,,
21461,1645900167.063328,1645900167.106913,0.0,0.0,4324.102539,4677.94873,4126.666504,4186.153809,4278.461426,450.0,1.0,15.0,,,,0.0,4.0,1.0,1.0,4.0,4.0,50.0,,,,,,,,0.0,0.0,0.729179,0.166016,0.65918,0.07885700000000001,0.949722,-0.354009,-0.072755,-0.031712,-0.030819,-0.016846,,,,,,,,,,,,,,,,,,,,,,,,,,,,,,,,,,,,,,,,,,,,,,,,,,,,,,,,,,,,,,,,,
21462,1645900167.071141,1645900167.114728,1.0,0.0,4308.205078,4768.205078,4174.358886999999,4163.077147999999,4275.384765999999,450.0,1.0,15.0,,,,0.0,4.0,1.0,1.0,4.0,4.0,50.0,,,,,,,,,,,,,,,,,,,,,,,,,,,,,,,,,,,,,,,,,,,,,,,,,,,,,,,,,,,,,,,,,,,,,,,,,,,,,,,,,,,,
21463,1645900167.078954,1645900167.122542,2.0,0.0,4354.871582,4678.974121,4167.692383,4173.846191,4266.153809,16148.0,1.0,15.0,,,,0.0,4.0,1.0,1.0,4.0,4.0,50.0,,,,,,,,1.0,0.0,0.729206,0.166016,0.65918,0.078613,0.9506979999999999,-0.34815,-0.077638,-0.03191,-0.030911,-0.0177,,,,,,,,,,,,,,,,,,,,,,,,,,,,,,,,,,,0.0,0.0,32.0,0.045981,1.0,0.0,,,,,,,,,,,,,,,,,,,,,,,,,
21464,1645900167.086767,1645900167.130357,3.0,0.0,4353.333496,4529.230957,4184.615234000001,4236.922852000001,4274.871582,450.0,1.0,15.0,,,,0.0,4.0,1.0,1.0,4.0,4.0,50.0,,,,,,,,,,,,,,,,,,,,,,,,,,,,,,,,,,,,,,,,,,,,,,,,,,,,,,,,,,,,,,,,,,,,,,,,,,,,,,,,,,,,
21465,1645900167.0945802,1645900167.1381721,4.0,0.0,4315.897461,4530.256348,4180.512695,4240.512695,4291.282227000001,85.0,1.0,15.0,,,,0.0,4.0,1.0,1.0,4.0,4.0,50.0,,,,,,,,2.0,0.0,0.7290399999999999,0.165771,0.659424,0.078613,0.9472799999999999,-0.32959499999999997,-0.072267,-0.032039,-0.030945,-0.018274000000000002,,,,,,,,,,,,,,,,,,,,,,,,,,,,,,,,,,,,,,,,,,,,,,,,,,,,,,,,,,,,,,,,,
21466,1645900167.102393,1645900167.1459868,5.0,0.0,4317.436035,4633.846191,4186.153809,4213.846191,4274.358886999999,450.0,1.0,15.0,,,,0.0,4.0,1.0,1.0,4.0,4.0,50.0,,,,,,,,,,,,,,,,,,,,,,,,,,,,,,,,,,,,,,,,,,,,,,,,,,,,,,,,,,,,,,,,,,,,,,,,,,,,,,,,,,,,
21467,1645900167.1102061,1645900167.153802,6.0,0.0,4366.153809,4670.256348,4234.871582,4223.589844,4274.871582,58.0,1.0,15.0,,,,0.0,4.0,1.0,1.0,4.0,4.0,50.0,,,,,,,,3.0,0.0,0.7290399999999999,0.165771,0.659424,0.078613,0.948257,-0.32813000000000003,-0.075685,-0.032057999999999996,-0.031024,-0.01879,1.0,0.0,0.0,,,,,,,,,,,,,,,,,,,,,,,,,,,,,,,,0.0,0.0,32.0,0.060694000000000005,1.0,0.0,25.721252,15.316778,12.692707,14.574793,6.736056,14.104084,16.055039999999998,40.260791999999995,34.976494,37.217541,46.428406,37.063751,27.161185999999997,69.198578,46.775372,12.24841,17.753357,14.116765,22.482708,10.877597,14.271975,20.438042000000003,10.299038000000001,9.658862,6.728625
21468,1645900167.1180189,1645900167.161617,7.0,0.0,4390.256348,4621.025879,4306.153809,4192.820313,4310.256348,450.0,1.0,15.0,,,,0.0,4.0,1.0,1.0,4.0,4.0,50.0,,,,,,,,,,,,,,,,,,,,,,,,,,,,,,,,,,,,,,,,,,,,,,,,,,,,,,,,,,,,,,,,,,,,,,,,,,,,,,,,,,,,
21469,1645900167.125832,1645900167.169532,8.0,0.0,4363.077147999999,4582.563965,4258.461426,4169.743652,4338.974121,450.0,1.0,15.0,,,,0.0,4.0,1.0,1.0,4.0,4.0,50.0,,,,,,,,4.0,0.0,0.72907,0.165527,0.659424,0.07885700000000001,0.940932,-0.345708,-0.07470800000000001,-0.032221,-0.030949,-0.019158,,,,,,,,,,,,,,,,,,,,,,,,,,,,,,,,,,,,,,,,,,,,,,,,,,,,,,,,,,,,,,,,,
21470,1645900167.1336448,1645900167.1773472,9.0,0.0,4309.743652,4623.589844,4206.153809,4230.769043,4336.922852000001,16095.0,1.0,15.0,,,,0.0,4.0,1.0,1.0,4.0,4.0,50.0,,,,,,,,,,,,,,,,,,,,,,,,,,,,,,,,,,,,,,,,,,,,,,,,,,,,,,,,,,,,,,,,,,,,,,,,,,,,,,,,,,,,
21471,1645900167.141459,1645900167.1851609,10.0,0.0,4337.436035,4640.512695,4210.769043,4281.025879,4317.436035,450.0,1.0,15.0,,,,0.0,4.0,1.0,1.0,4.0,4.0,50.0,,,,,,,,5.0,0.0,0.72907,0.165527,0.659424,0.07885700000000001,0.934585,-0.32910700000000004,-0.08105599999999999,-0.032124,-0.030930000000000003,-0.016558,,,,,,,,,,,,,,,,,,,,,,,,,,,,,,,,,,,0.0,0.0,32.0,0.060694000000000005,1.0,0.0,,,,,,,,,,,,,,,,,,,,,,,,,
21472,1645900167.149272,1645900167.192976,11.0,0.0,4390.769043,4535.384765999999,4242.563965,4266.666504,4259.487305,16097.0,1.0,15.0,,,,0.0,4.0,1.0,1.0,4.0,4.0,50.0,,,,,,,,,,,,,,,,,,,,,,,,,,,,,,,,,,,,,,,,,,,,,,,,,,,,,,,,,,,,,,,,,,,,,,,,,,,,,,,,,,,,
21473,1645900167.157085,1645900167.2007911,12.0,0.0,4374.871582,4515.897461,4251.794922,4219.487305,4250.769043,450.0,1.0,15.0,,,,0.0,4.0,1.0,1.0,4.0,4.0,50.0,,,,,,,,6.0,0.0,0.728988,0.165771,0.659424,0.07910199999999999,0.937514,-0.344244,-0.080079,-0.032182999999999996,-0.030816000000000003,-0.017246,,,,,,,,,,,,,,,,,,,,,,,,,,,,,,,,,,,,,,,,,,,,,,,,,,,,,,,,,,,,,,,,,
21474,1645900167.1648982,1645900167.208606,13.0,0.0,4353.333496,4674.358886999999,4181.025879,4107.179688,4307.692383,450.0,1.0,15.0,,,,0.0,4.0,1.0,1.0,4.0,4.0,50.0,,,,,,,,,,,,,,,,,,,,,,,,,,,,,,,,,,,,,,,,,,,,,,,,,,,,,,,,,,,,,,,,,,,,,,,,,,,,,,,,,,,,
21475,1645900167.172711,1645900167.2164211,14.0,0.0,4375.384765999999,4757.94873,4012.3076170000004,4089.2307130000004,4326.666504,450.0,1.0,15.0,,,,0.0,4.0,1.0,1.0,4.0,4.0,50.0,,,,,,,,7.0,0.0,0.728988,0.165771,0.659424,0.07910199999999999,0.9331200000000001,-0.34815,-0.084962,-0.032139,-0.030858999999999998,-0.014788999999999998,,,,,,,,,,,,,,,,,,,,,,,,,,,,,,,,,,,0.0,0.0,32.0,0.060694000000000005,1.0,0.0,,,,,,,,,,,,,,,,,,,,,,,,,
21476,1645900167.180524,1645900167.224236,15.0,0.0,4331.794922,4661.538574,3984.102539,4209.230957,4283.077147999999,16097.0,1.0,15.0,,,,0.0,4.0,1.0,1.0,4.0,4.0,50.0,,,,,,,,,,,,,,,,,,,,,,,,,,,,,,,,,,,,,,,,,,,,,,,,,,,,,,,,,,,,,,,,,,,,,,,,,,,,,,,,,,,,
21477,1645900167.1883368,1645900167.232051,16.0,0.0,4290.256348,4613.333496,4184.615234000001,4235.897461,4273.333496,0.0,1.0,15.0,,,,0.0,4.0,1.0,1.0,4.0,4.0,50.0,,,,,,,,8.0,0.0,0.728932,0.166016,0.659424,0.07910199999999999,0.9560690000000001,-0.352544,-0.079591,-0.032099,-0.030947000000000002,-0.015703,,,,,,,,,,,,,,,,,,,,,,,,,,,,,,,,,,,,,,,,,,,,,,,,,,,,,,,,,,,,,,,,,
21478,1645900167.19615,1645900167.239866,17.0,0.0,4351.794922,4669.230957,4258.974121,4164.615234000001,4292.820313,0.0,1.0,15.0,,,,0.0,4.0,1.0,1.0,4.0,4.0,50.0,,,,,,,,,,,,,,,,,,,,,,,,,,,,,,,,,,,,,,,,,,,,,,,,,,,,,,,,,,,,,,,,,,,,,,,,,,,,,,,,,,,,
21479,1645900167.203963,1645900167.24778,18.0,0.0,4374.358886999999,4670.769043,4098.974121,4166.153809,4273.846191,0.0,1.0,15.0,,,,0.0,4.0,1.0,1.0,4.0,4.0,50.0,,,,,,,,9.0,0.0,0.728932,0.166016,0.659424,0.07910199999999999,0.9438620000000001,-0.351568,-0.085939,-0.032112,-0.031025999999999998,-0.016574000000000002,,,,,,,,,,,,,,,,,,,,,,,,,,,,,,,,,,,0.0,0.0,32.0,0.060694000000000005,1.0,0.0,,,,,,,,,,,,,,,,,,,,,,,,,
21480,1645900167.211776,1645900167.255595,19.0,0.0,4310.769043,4645.641113000001,4006.1538090000004,4210.256348,4243.589844,0.0,1.0,15.0,,,,0.0,4.0,1.0,1.0,4.0,4.0,50.0,,,,,,,,,,,,,,,,,,,,,,,,,,,,,,,,,,,,,,,,,,,,,,,,,,,,,,,,,,,,,,,,,,,,,,,,,,,,,,,,,,,,
21481,1645900167.219589,1645900167.2634099,20.0,0.0,4323.589844,4709.743652,4143.077147999999,4203.589844,4251.282227000001,0.0,1.0,15.0,,,,0.0,4.0,1.0,1.0,4.0,4.0,50.0,,,,,,,,10.0,0.0,0.728932,0.166016,0.659424,0.07910199999999999,0.9389790000000001,-0.353033,-0.069825,-0.03227,-0.031,-0.01726,,,,,,,,,,,,,,,,,,,,,,,,,,,,,,,,,,,,,,,,,,,,,,,,,,,,,,,,,,,,,,,,,
21482,1645900167.227402,1645900167.271225,21.0,0.0,4375.897461,4778.461426,4248.717772999999,4144.615234000001,4295.897461,0.0,1.0,15.0,,,,0.0,4.0,1.0,1.0,4.0,4.0,50.0,,,,,,,,,,,,,,,,,,,,,,,,,,,,,,,,,,,,,,,,,,,,,,,,,,,,,,,,,,,,,,,,,,,,,,,,,,,,,,,,,,,,
21483,1645900167.235216,1645900167.27904,22.0,0.0,4342.05127,4710.256348,4168.717772999999,4132.820313,4324.102539,0.0,1.0,15.0,,,,0.0,4.0,1.0,1.0,4.0,4.0,50.0,1.0,16.666666,2.0,0.0,0.0,3.0,3.0,11.0,0.0,0.728932,0.166016,0.659424,0.07910199999999999,0.9355610000000001,-0.335454,-0.080079,-0.032264999999999995,-0.031074,-0.017828999999999998,1.0,0.0,0.0,,,,,,,,,,,,,,,,,,,,,,,,,,,,,,,,0.0,0.0,32.0,0.045795999999999996,1.0,0.0,26.603695000000002,13.411617000000001,9.814878,14.460488,7.193956,16.049406,15.129002,35.634575,38.959927,46.531776,49.505901,34.281612,22.712015,54.75148000000001,51.523185999999995,12.393452,15.391591,14.190401999999999,19.709148000000003,11.859675,16.332945000000002,16.249031,7.971771,10.167062,8.905638
21484,1645900167.2430289,1645900167.286855,23.0,0.0,4331.282227000001,4611.794922,4043.5898439999996,4229.230957,4312.307617,0.0,1.0,15.0,,,,0.0,4.0,1.0,1.0,4.0,4.0,50.0,,,,,,,,,,,,,,,,,,,,,,,,,,,,,,,,,,,,,,,,,,,,,,,,,,,,,,,,,,,,,,,,,,,,,,,,,,,,,,,,,,,,
21485,1645900167.250842,1645900167.2946699,24.0,0.0,4387.692383,4618.974121,4136.922852000001,4234.871582,4268.205078,0.0,1.0,15.0,,,,0.0,4.0,1.0,1.0,4.0,4.0,50.0,,,,,,,,12.0,0.0,0.728932,0.166016,0.659424,0.07910199999999999,0.948257,-0.339361,-0.076173,-0.032213,-0.030895999999999996,-0.01839,,,,,,,,,,,,,,,,,,,,,,,,,,,,,,,,,,,,,,,,,,,,,,,,,,,,,,,,,,,,,,,,,
21486,1645900167.258655,1645900167.302485,25.0,0.0,4414.871582,4665.641113000001,4211.282227000001,4150.769043,4286.666504,0.0,1.0,15.0,,,,0.0,4.0,1.0,1.0,4.0,4.0,50.0,,,,,,,,,,,,,,,,,,,,,,,,,,,,,,,,,,,,,,,,,,,,,,,,,,,,,,,,,,,,,,,,,,,,,,,,,,,,,,,,,,,,
21487,1645900167.266468,1645900167.310399,26.0,0.0,4368.205078,4716.410156,4117.436035,4165.641113000001,4363.077147999999,0.0,1.0,15.0,,,,0.0,4.0,1.0,1.0,4.0,4.0,50.0,,,,,,,,13.0,0.0,0.728876,0.16626,0.659424,0.07910199999999999,0.9463030000000001,-0.358404,-0.081544,-0.032214,-0.030882999999999997,-0.015868,,,,,,,,,,,,,,,,,,,,,,,,,,,,,,,,,,,0.0,0.0,32.0,0.045795999999999996,1.0,0.0,,,,,,,,,,,,,,,,,,,,,,,,,
21488,1645900167.274281,1645900167.3182142,27.0,0.0,4348.205078,4693.846191,4085.641113,4234.358886999999,4351.794922,0.0,1.0,15.0,,,,0.0,4.0,1.0,1.0,4.0,4.0,50.0,,,,,,,,,,,,,,,,,,,,,,,,,,,,,,,,,,,,,,,,,,,,,,,,,,,,,,,,,,,,,,,,,,,,,,,,,,,,,,,,,,,,
21489,1645900167.282094,1645900167.3260288,28.0,0.0,4374.871582,4578.461426,4188.717772999999,4209.230957,4235.384765999999,0.0,1.0,15.0,,,,0.0,4.0,1.0,1.0,4.0,4.0,50.0,,,,,,,,14.0,0.0,0.728876,0.16626,0.659424,0.07910199999999999,0.946792,-0.35108,-0.076173,-0.032215,-0.03092,-0.016673,,,,,,,,,,,,,,,,,,,,,,,,,,,,,,,,,,,,,,,,,,,,,,,,,,,,,,,,,,,,,,,,,
21490,1645900167.289907,1645900167.333844,29.0,0.0,4400.512695,4593.333496,4141.538574,4194.871582,4224.102539,0.0,1.0,15.0,,,,0.0,4.0,1.0,1.0,4.0,4.0,50.0,,,,,,,,,,,,,,,,,,,,,,,,,,,,,,,,,,,,,,,,,,,,,,,,,,,,,,,,,,,,,,,,,,,,,,,,,,,,,,,,,,,,
21491,1645900167.29772,1645900167.341659,30.0,0.0,4372.820313,4749.743652,4066.1538090000004,4202.563965,4318.974121,0.0,1.0,15.0,,,,0.0,4.0,1.0,1.0,4.0,4.0,50.0,,,,,,,,15.0,0.0,0.728876,0.16626,0.659424,0.07910199999999999,0.945815,-0.342779,-0.07910299999999999,-0.032313999999999996,-0.030806,-0.017399,,,,,,,,,,,,,,,,,,,,,,,,,,,,,,,,,,,0.0,0.0,32.0,0.045795999999999996,1.0,0.0,,,,,,,,,,,,,,,,,,,,,,,,,
21492,1645900167.305533,1645900167.349474,31.0,0.0,4341.538574,4730.769043,4156.922852000001,4186.153809,4351.794922,0.0,1.0,15.0,,,,0.0,4.0,1.0,1.0,4.0,4.0,50.0,,,,,,,,,,,,,,,,,,,,,,,,,,,,,,,,,,,,,,,,,,,,,,,,,,,,,,,,,,,,,,,,,,,,,,,,,,,,,,,,,,,,
21493,1645900167.3133461,1645900167.357289,32.0,0.0,4346.666504,4537.436035,4215.897461,4189.230957,4275.897461,0.0,1.0,15.0,,,,0.0,4.0,1.0,1.0,4.0,4.0,50.0,,,,,,,,16.0,0.0,0.72885,0.16626,0.659424,0.079346,0.9355610000000001,-0.35352100000000003,-0.08203300000000001,-0.032402999999999994,-0.030752999999999996,-0.015024000000000001,,,,,,,,,,,,,,,,,,,,,,,,,,,,,,,,,,,,,,,,,,,,,,,,,,,,,,,,,,,,,,,,,
21494,1645900167.321159,1645900167.365104,33.0,0.0,4353.333496,4523.589844,4152.820313,4201.025879,4240.0,0.0,1.0,15.0,,,,0.0,4.0,1.0,1.0,4.0,4.0,50.0,,,,,,,,,,,,,,,,,,,,,,,,,,,,,,,,,,,,,,,,,,,,,,,,,,,,,,,,,,,,,,,,,,,,,,,,,,,,,,,,,,,,
21495,1645900167.328972,1645900167.372918,34.0,0.0,4336.410156,4667.692383,4111.282227000001,4186.666504,4276.410156,0.0,1.0,15.0,,,,0.0,4.0,1.0,1.0,4.0,4.0,50.0,,,,,,,,17.0,0.0,0.72885,0.16626,0.659424,0.079346,0.947768,-0.34229,-0.07422000000000001,-0.032532,-0.030705,-0.012740000000000001,,,,,,,,,,,,,,,,,,,,,,,,,,,,,,,,,,,0.0,0.0,32.0,0.045795999999999996,1.0,0.0,,,,,,,,,,,,,,,,,,,,,,,,,
21496,1645900167.336786,1645900167.380733,35.0,0.0,4330.769043,4683.589844,4150.769043,4177.94873,4262.05127,0.0,1.0,15.0,,,,0.0,4.0,1.0,1.0,4.0,4.0,50.0,,,,,,,,,,,,,,,,,,,,,,,,,,,,,,,,,,,,,,,,,,,,,,,,,,,,,,,,,,,,,,,,,,,,,,,,,,,,,,,,,,,,
21497,1645900167.344599,1645900167.388648,36.0,0.0,4358.461426,4600.0,4154.871582,4182.05127,4238.974121,0.0,1.0,15.0,,,,0.0,4.0,1.0,1.0,4.0,4.0,50.0,,,,,,,,18.0,0.0,0.728823,0.16626,0.659424,0.07959,0.9463030000000001,-0.340826,-0.075196,-0.032452999999999996,-0.030808,-0.010734,,,,,,,,,,,,,,,,,,,,,,,,,,,,,,,,,,,,,,,,,,,,,,,,,,,,,,,,,,,,,,,,,
21498,1645900167.352412,1645900167.3964632,37.0,0.0,4379.487305,4632.820313,4153.846191,4128.205078,4280.0,0.0,1.0,15.0,,,,0.0,4.0,1.0,1.0,4.0,4.0,50.0,,,,,,,,,,,,,,,,,,,,,,,,,,,,,,,,,,,,,,,,,,,,,,,,,,,,,,,,,,,,,,,,,,,,,,,,,,,,,,,,,,,,
21499,1645900167.360225,1645900167.404278,38.0,0.0,4348.205078,4713.333496,4126.666504,4109.230957,4312.820313,0.0,1.0,15.0,,,,0.0,4.0,1.0,1.0,4.0,4.0,50.0,,,,,,,,19.0,0.0,0.728797,0.16626,0.659424,0.079834,0.939467,-0.349615,-0.073732,-0.032381,-0.030804,-0.012053,1.0,0.0,0.0,,,,,,,,,,,,,,,,,,,,,,,,,,,,,,,,0.0,0.0,32.0,0.051988,1.0,0.0,26.80575,11.941902,6.817131,13.954166,7.810410000000001,20.450554,16.637857,31.062904,41.965847,53.318436,49.737316,31.367182,16.917633,41.941483000000005,55.164089000000004,11.966996,13.477278,13.778323,16.878447,12.243267999999999,18.20809,13.456945000000001,5.849645,11.007479,10.866796
21500,1645900167.3680382,1645900167.412093,39.0,0.0,4282.563965,4650.769043,4166.153809,4207.179688,4246.153809,0.0,1.0,15.0,,,,0.0,4.0,1.0,1.0,4.0,4.0,50.0,,,,,,,,,,,,,,,,,,,,,,,,,,,,,,,,,,,,,,,,,,,,,,,,,,,,,,,,,,,,,,,,,,,,,,,,,,,,,,,,,,,,
21501,1645900167.375851,1645900167.419908,40.0,0.0,4315.384765999999,4571.794922,4226.666504,4255.897461,4226.666504,0.0,1.0,15.0,,,,0.0,4.0,1.0,1.0,4.0,4.0,50.0,,,,,,,,20.0,0.0,0.728576,0.16626,0.659668,0.079834,0.938491,-0.350591,-0.07910299999999999,-0.032464,-0.030848,-0.010067,,,,,,,,,,,,,,,,,,,,,,,,,,,,,,,,,,,,,,,,,,,,,,,,,,,,,,,,,,,,,,,,,
21502,1645900167.3836641,1645900167.427723,41.0,0.0,4420.512695,4634.871582,4194.871582,4169.743652,4287.179688,0.0,1.0,15.0,,,,0.0,4.0,1.0,1.0,4.0,4.0,50.0,,,,,,,,,,,,,,,,,,,,,,,,,,,,,,,,,,,,,,,,,,,,,,,,,,,,,,,,,,,,,,,,,,,,,,,,,,,,,,,,,,,,
21503,1645900167.3914769,1645900167.4355369,42.0,0.0,4419.487305,4728.205078,4062.5642090000006,4160.0,4317.436035,0.0,1.0,15.0,,,,0.0,4.0,1.0,1.0,4.0,4.0,50.0,,,,,,,,21.0,0.0,0.728549,0.16626,0.659668,0.080078,0.9399559999999999,-0.338384,-0.07422000000000001,-0.029266000000000004,-0.030791000000000002,-0.011404000000000001,,,,,,,,,,,,,,,,,,,,,,,,,,,,,,,,,,,0.0,0.0,32.0,0.051988,1.0,0.0,,,,,,,,,,,,,,,,,,,,,,,,,
21504,1645900167.39929,1645900167.443352,43.0,0.0,4297.436035,4682.05127,4109.743652,4220.512695,4296.410156,0.0,1.0,15.0,,,,0.0,4.0,1.0,1.0,4.0,4.0,50.0,,,,,,,,,,,,,,,,,,,,,,,,,,,,,,,,,,,,,,,,,,,,,,,,,,,,,,,,,,,,,,,,,,,,,,,,,,,,,,,,,,,,
21505,1645900167.4071028,1645900167.451167,44.0,0.0,4296.922852000001,4587.692383,4247.179688,4207.179688,4276.410156,0.0,1.0,15.0,,,,0.0,4.0,1.0,1.0,4.0,4.0,50.0,,,,,,,,22.0,0.0,0.7284930000000001,0.16650399999999999,0.659668,0.080078,0.946792,-0.356451,-0.081544,-0.029660000000000002,-0.030788,-0.012656,,,,,,,,,,,,,,,,,,,,,,,,,,,,,,,,,,,,,,,,,,,,,,,,,,,,,,,,,,,,,,,,,
21506,1645900167.414916,1645900167.458982,45.0,0.0,4401.025879,4585.128418,4201.538574,4176.922852000001,4252.820313,0.0,1.0,15.0,,,,0.0,4.0,1.0,1.0,4.0,4.0,50.0,,,,,,,,,,,,,,,,,,,,,,,,,,,,,,,,,,,,,,,,,,,,,,,,,,,,,,,,,,,,,,,,,,,,,,,,,,,,,,,,,,,,
21507,1645900167.422729,1645900167.466897,46.0,0.0,4410.256348,4615.384765999999,4072.3076170000004,4190.256348,4249.230957,0.0,1.0,15.0,,,,0.0,4.0,1.0,1.0,4.0,4.0,50.0,,,,,,,,23.0,0.0,0.7284930000000001,0.16650399999999999,0.659668,0.080078,0.941909,-0.333013,-0.072755,-0.030014,-0.030688,-0.013783000000000002,,,,,,,,,,,,,,,,,,,,,,,,,,,,,,,,,,,0.0,0.0,32.0,0.051988,1.0,0.0,,,,,,,,,,,,,,,,,,,,,,,,,
21508,1645900167.430543,1645900167.474712,47.0,0.0,4345.641113000001,4685.641113000001,4122.05127,4177.436035,4281.538574,0.0,1.0,15.0,,,,0.0,4.0,1.0,1.0,4.0,4.0,50.0,,,,,,,,,,,,,,,,,,,,,,,,,,,,,,,,,,,,,,,,,,,,,,,,,,,,,,,,,,,,,,,,,,,,,,,,,,,,,,,,,,,,
21509,1645900167.4383562,1645900167.482527,48.0,0.0,4334.871582,4765.641113000001,4202.05127,4180.0,4294.358886999999,0.0,1.0,15.0,,,,0.0,4.0,1.0,1.0,4.0,4.0,50.0,,,,,,,,24.0,0.0,0.728549,0.16626,0.659668,0.080078,0.9399559999999999,-0.338384,-0.07422000000000001,-0.030382,-0.030695,-0.014747999999999999,,,,,,,,,,,,,,,,,,,,,,,,,,,,,,,,,,,,,,,,,,,,,,,,,,,,,,,,,,,,,,,,,
21510,1645900167.446169,1645900167.490341,49.0,0.0,4345.128418,4706.666504,4144.615234000001,4194.871582,4256.410156,0.0,1.0,15.0,,,,0.0,4.0,1.0,1.0,4.0,4.0,50.0,,,,,,,,,,,,,,,,,,,,,,,,,,,,,,,,,,,,,,,,,,,,,,,,,,,,,,,,,,,,,,,,,,,,,,,,,,,,,,,,,,,,
21511,1645900167.453982,1645900167.498156,50.0,0.0,4316.410156,4578.461426,4111.794922,4163.077147999999,4235.384765999999,0.0,1.0,15.0,,,,0.0,4.0,1.0,1.0,4.0,4.0,50.0,,,,,,,,25.0,0.0,0.7284930000000001,0.16650399999999999,0.659668,0.080078,0.941909,-0.333013,-0.072755,-0.030664,-0.030604000000000003,-0.015666,,,,,,,,,,,,,,,,,,,,,,,,,,,,,,,,,,,0.0,0.0,32.0,0.051988,1.0,0.0,,,,,,,,,,,,,,,,,,,,,,,,,
21512,1645900167.4617949,1645900167.5059712,51.0,0.0,4294.358886999999,4598.974121,4135.384765999999,4156.922852000001,4241.025879,0.0,1.0,15.0,,,,0.0,4.0,1.0,1.0,4.0,4.0,50.0,,,,,,,,,,,,,,,,,,,,,,,,,,,,,,,,,,,,,,,,,,,,,,,,,,,,,,,,,,,,,,,,,,,,,,,,,,,,,,,,,,,,
21513,1645900167.469608,1645900167.5137858,52.0,0.0,4308.717772999999,4685.641113000001,4173.333496,4202.563965,4222.05127,0.0,1.0,15.0,,,,0.0,4.0,1.0,1.0,4.0,4.0,50.0,,,,,,,,26.0,0.0,0.728466,0.16650399999999999,0.659668,0.080322,0.948257,-0.353033,-0.083009,-0.030967,-0.030619999999999998,-0.016443,,,,,,,,,,,,,,,,,,,,,,,,,,,,,,,,,,,,,,,,,,,,,,,,,,,,,,,,,,,,,,,,,
21514,1645900167.477421,1645900167.521601,53.0,0.0,4343.589844,4668.205078,4200.512695,4195.897461,4216.922852000001,0.0,1.0,15.0,,,,0.0,4.0,1.0,1.0,4.0,4.0,50.0,,,,,,,,,,,,,,,,,,,,,,,,,,,,,,,,,,,,,,,,,,,,,,,,,,,,,,,,,,,,,,,,,,,,,,,,,,,,,,,,,,,,
21515,1645900167.485234,1645900167.529516,54.0,0.0,4362.05127,4657.94873,4244.102539,4129.230957,4261.538574,0.0,1.0,15.0,,,,0.0,4.0,1.0,1.0,4.0,4.0,50.0,,,,,,,,27.0,0.0,0.7284930000000001,0.16650399999999999,0.659668,0.080078,0.9433739999999999,-0.352056,-0.085939,-0.031142000000000003,-0.030633999999999998,-0.017044999999999998,1.0,0.0,0.0,,,,,,,,,,,,,,,,,,,,,,,,,,,,,,,,0.0,0.0,32.0,0.062861,1.0,0.0,25.976809,11.210744,4.35188,13.245697,8.718639,26.8279,20.180832000000002,27.81172,43.406975,55.8591,47.493881,29.016199,11.090854,32.059757,57.73530600000001,11.087485000000001,12.288545,12.858797000000001,14.758412,11.982805,19.403252,12.185555,4.231466999999999,11.988431,12.063339
21516,1645900167.493047,1645900167.537331,55.0,0.0,4328.717772999999,4661.025879,4191.282227000001,4128.205078,4308.205078,0.0,1.0,15.0,,,,0.0,4.0,1.0,1.0,4.0,4.0,50.0,,,,,,,,,,,,,,,,,,,,,,,,,,,,,,,,,,,,,,,,,,,,,,,,,,,,,,,,,,,,,,,,,,,,,,,,,,,,,,,,,,,,
21517,1645900167.50086,1645900167.545146,56.0,0.0,4277.436035,4595.384765999999,4187.692383,4210.256348,4278.974121,0.0,1.0,15.0,,,,0.0,4.0,1.0,1.0,4.0,4.0,50.0,,,,,,,,28.0,0.0,0.7287140000000001,0.16650399999999999,0.659424,0.080078,0.9389790000000001,-0.352544,-0.078126,-0.031201,-0.030549,-0.014559,,,,,,,,,,,,,,,,,,,,,,,,,,,,,,,,,,,,,,,,,,,,,,,,,,,,,,,,,,,,,,,,,
21518,1645900167.508673,1645900167.55296,57.0,0.0,4317.436035,4604.102539,4242.05127,4234.871582,4262.05127,0.0,1.0,15.0,,,,0.0,4.0,1.0,1.0,4.0,4.0,50.0,,,,,,,,,,,,,,,,,,,,,,,,,,,,,,,,,,,,,,,,,,,,,,,,,,,,,,,,,,,,,,,,,,,,,,,,,,,,,,,,,,,,
21519,1645900167.516487,1645900167.560775,58.0,0.0,4393.846191,4697.436035,4216.410156,4141.025879,4293.333496,0.0,1.0,15.0,,,,0.0,4.0,1.0,1.0,4.0,4.0,50.0,,,,,,,,29.0,0.0,0.7287140000000001,0.16650399999999999,0.659424,0.080078,0.945327,-0.349615,-0.080568,-0.031157999999999998,-0.030522000000000004,-0.015544999999999998,,,,,,,,,,,,,,,,,,,,,,,,,,,,,,,,,,,0.0,0.0,32.0,0.062861,1.0,0.0,,,,,,,,,,,,,,,,,,,,,,,,,
21520,1645900167.5243,1645900167.56859,59.0,0.0,4358.461426,4683.589844,4087.6923829999996,4142.05127,4305.128418,0.0,1.0,15.0,,,,0.0,4.0,1.0,1.0,4.0,4.0,50.0,,,,,,,,,,,,,,,,,,,,,,,,,,,,,,,,,,,,,,,,,,,,,,,,,,,,,,,,,,,,,,,,,,,,,,,,,,,,,,,,,,,,
21521,1645900167.532112,1645900167.576405,60.0,0.0,4253.333496,4595.384765999999,4113.333496,4255.897461,4269.230957,0.0,1.0,15.0,,,,0.0,4.0,1.0,1.0,4.0,4.0,50.0,,,,,,,,30.0,0.0,0.7287140000000001,0.16650399999999999,0.659424,0.080078,0.957534,-0.34473200000000004,-0.076661,-0.031313,-0.030594999999999997,-0.01316,,,,,,,,,,,,,,,,,,,,,,,,,,,,,,,,,,,,,,,,,,,,,,,,,,,,,,,,,,,,,,,,,
21522,1645900167.539926,1645900167.58422,61.0,0.0,4289.230957,4590.256348,4252.820313,4262.563965,4256.410156,0.0,1.0,15.0,,,,0.0,4.0,1.0,1.0,4.0,4.0,50.0,,,,,,,,,,,,,,,,,,,,,,,,,,,,,,,,,,,,,,,,,,,,,,,,,,,,,,,,,,,,,,,,,,,,,,,,,,,,,,,,,,,,
21523,1645900167.547739,1645900167.592035,62.0,0.0,4383.077147999999,4591.794922,4241.025879,4155.897461,4250.256348,0.0,1.0,15.0,,,,0.0,4.0,1.0,1.0,4.0,4.0,50.0,,,,,,,,31.0,0.0,0.7287140000000001,0.16650399999999999,0.659424,0.080078,0.947768,-0.345708,-0.083009,-0.031501999999999995,-0.030612,-0.014286000000000002,,,,,,,,,,,,,,,,,,,,,,,,,,,,,,,,,,,0.0,0.0,32.0,0.062861,1.0,0.0,,,,,,,,,,,,,,,,,,,,,,,,,
21524,1645900167.555552,1645900167.59985,63.0,0.0,4355.384765999999,4618.974121,4124.615234000001,4152.820313,4242.563965,0.0,1.0,15.0,,,,0.0,4.0,1.0,1.0,4.0,4.0,50.0,,,,,,,,,,,,,,,,,,,,,,,,,,,,,,,,,,,,,,,,,,,,,,,,,,,,,,,,,,,,,,,,,,,,,,,,,,,,,,,,,,,,
21525,1645900167.563365,1645900167.607765,64.0,0.0,4281.025879,4749.230957,4093.3332520000004,4176.922852000001,4260.512695,450.0,1.0,15.0,,,,0.0,4.0,1.0,1.0,4.0,4.0,50.0,,,,,,,,32.0,0.0,0.7287140000000001,0.16650399999999999,0.659424,0.080078,0.945327,-0.34521999999999997,-0.08984500000000001,-0.031477,-0.030529,-0.012076,,,,,,,,,,,,,,,,,,,,,,,,,,,,,,,,,,,,,,,,,,,,,,,,,,,,,,,,,,,,,,,,,
21526,1645900167.571178,1645900167.615579,65.0,0.0,4312.307617,4781.538574,4174.871582,4115.384765999999,4262.563965,450.0,1.0,15.0,,,,0.0,4.0,1.0,1.0,4.0,4.0,50.0,,,,,,,,,,,,,,,,,,,,,,,,,,,,,,,,,,,,,,,,,,,,,,,,,,,,,,,,,,,,,,,,,,,,,,,,,,,,,,,,,,,,
21527,1645900167.578991,1645900167.623394,66.0,0.0,4356.410156,4648.717772999999,4265.641113000001,4121.538574,4225.641113000001,16078.0,1.0,15.0,,,,0.0,4.0,1.0,1.0,4.0,4.0,50.0,,,,,,,,33.0,0.0,0.728687,0.16650399999999999,0.659424,0.080322,0.95021,-0.342779,-0.078614,-0.031601,-0.030552,-0.013212,,,,,,,,,,,,,,,,,,,,,,,,,,,,,,,,,,,0.0,0.0,32.0,0.062861,1.0,0.0,,,,,,,,,,,,,,,,,,,,,,,,,
21528,1645900167.586804,1645900167.631209,67.0,0.0,4312.307617,4576.410156,4251.794922,4205.128418,4234.358886999999,450.0,1.0,15.0,,,,0.0,4.0,1.0,1.0,4.0,4.0,50.0,,,,,,,,,,,,,,,,,,,,,,,,,,,,,,,,,,,,,,,,,,,,,,,,,,,,,,,,,,,,,,,,,,,,,,,,,,,,,,,,,,,,
21529,1645900167.594617,1645900167.639124,68.0,0.0,4287.692383,4603.077147999999,4120.512695,4221.538574,4272.820313,39.0,1.0,15.0,,,,0.0,4.0,0.0,1.0,4.0,4.0,41.666668,,,,,,,,34.0,0.0,0.728466,0.16650399999999999,0.659668,0.080322,0.9316549999999999,-0.364752,-0.085939,-0.031761000000000005,-0.030524000000000003,-0.014283,,,,,,,,,,,,,,,,,,,,,,,,,,,,,,,,,,,,,,,,,,,,,,,,,,,,,,,,,,,,,,,,,
21530,1645900167.60243,1645900167.646939,69.0,0.0,4336.922852000001,4617.94873,4120.512695,4203.077147999999,4249.743652,450.0,1.0,15.0,,,,0.0,4.0,0.0,1.0,4.0,4.0,41.666668,,,,,,,,,,,,,,,,,,,,,,,,,,,,,,,,,,,,,,,,,,,,,,,,,,,,,,,,,,,,,,,,,,,,,,,,,,,,,,,,,,,,
21531,1645900167.610243,1645900167.6548538,70.0,0.0,4384.102539,4656.922852000001,4238.974121,4193.333496,4255.384765999999,0.0,1.0,15.0,,,,0.0,4.0,0.0,0.0,4.0,4.0,33.333332,,,,,,,,35.0,0.0,0.728466,0.16650399999999999,0.659668,0.080322,0.928725,-0.344244,-0.079591,-0.031856999999999996,-0.030548000000000002,-0.012123,1.0,0.0,0.0,,,,,,,,,,,,,,,,,,,,,,,,,,,,,,,,0.0,0.0,32.0,0.05275,1.0,0.0,24.069448,11.075649,2.747734,12.570817,9.958964,33.552372,24.481028,26.405312,43.591755,53.970093000000006,44.029655,27.823930999999998,6.344213,25.557068,59.520924,10.017677,11.900985,11.488335000000001,13.890061,11.335955,19.648653,11.922242,3.218114,12.882066,12.242388
21532,1645900167.618056,1645900167.662669,71.0,0.0,4367.179688,4756.410156,4213.333496,4109.743652,4346.153809,450.0,1.0,15.0,,,,0.0,4.0,0.0,0.0,4.0,4.0,33.333332,,,,,,,,,,,,,,,,,,,,,,,,,,,,,,,,,,,,,,,,,,,,,,,,,,,,,,,,,,,,,,,,,,,,,,,,,,,,,,,,,,,,
21533,1645900167.62587,1645900167.670483,72.0,0.0,4329.230957,4710.256348,4029.743652,4122.563965,4366.153809,450.0,1.0,15.0,,,,0.0,4.0,0.0,0.0,4.0,4.0,33.333332,,,,,,,,36.0,0.0,0.728687,0.16650399999999999,0.659424,0.080322,0.9511860000000001,-0.34766199999999997,-0.083497,-0.02872,-0.030667000000000003,-0.013352000000000001,,,,,,,,,,,,,,,,,,,,,,,,,,,,,,,,,,,,,,,,,,,,,,,,,,,,,,,,,,,,,,,,,
21534,1645900167.633683,1645900167.678298,73.0,0.0,4310.769043,4529.743652,4104.615234000001,4294.871582,4242.563965,292.0,1.0,15.0,,,,0.0,4.0,0.0,0.0,4.0,4.0,33.333332,,,,,,,,,,,,,,,,,,,,,,,,,,,,,,,,,,,,,,,,,,,,,,,,,,,,,,,,,,,,,,,,,,,,,,,,,,,,,,,,,,,,
21535,1645900167.6414962,1645900167.686113,74.0,0.0,4348.717772999999,4555.897461,4282.563965,4306.153809,4226.153809,450.0,1.0,15.0,,,,0.0,4.0,0.0,0.0,4.0,4.0,33.333332,,,,,,,,37.0,0.0,0.728522,0.16626,0.659668,0.080322,0.9389790000000001,-0.35108,-0.080568,-0.029168,-0.030579000000000002,-0.014409,,,,,,,,,,,,,,,,,,,,,,,,,,,,,,,,,,,0.0,0.0,32.0,0.05275,1.0,0.0,,,,,,,,,,,,,,,,,,,,,,,,,
21536,1645900167.649309,1645900167.693928,75.0,0.0,4383.589844,4733.333496,4223.077147999999,4125.641113000001,4338.974121,16098.0,1.0,15.0,,,,0.0,4.0,0.0,0.0,4.0,4.0,33.333332,,,,,,,,,,,,,,,,,,,,,,,,,,,,,,,,,,,,,,,,,,,,,,,,,,,,,,,,,,,,,,,,,,,,,,,,,,,,,,,,,,,,
21537,1645900167.6571221,1645900167.701743,76.0,0.0,4370.769043,4713.333496,4055.384521,4118.974121,4359.487305,450.0,1.0,15.0,,,,0.0,4.0,0.0,0.0,4.0,4.0,33.333332,,,,,,,,38.0,0.0,0.728495,0.16626,0.659668,0.080566,0.9399559999999999,-0.357427,-0.08447400000000001,-0.029572,-0.0305,-0.012236,,,,,,,,,,,,,,,,,,,,,,,,,,,,,,,,,,,,,,,,,,,,,,,,,,,,,,,,,,,,,,,,,
21538,1645900167.6649349,1645900167.709558,77.0,0.0,4331.794922,4565.128418,4120.512695,4261.025879,4266.153809,450.0,1.0,15.0,,,,0.0,4.0,0.0,0.0,4.0,4.0,33.333332,,,,,,,,,,,,,,,,,,,,,,,,,,,,,,,,,,,,,,,,,,,,,,,,,,,,,,,,,,,,,,,,,,,,,,,,,,,,,,,,,,,,
21539,1645900167.672748,1645900167.7173731,78.0,0.0,4343.589844,4573.333496,4252.820313,4270.256348,4251.282227000001,450.0,1.0,15.0,,,,0.0,4.0,0.0,0.0,4.0,4.0,33.333332,,,,,,,,39.0,0.0,0.728247,0.16626,0.6599119999999999,0.08081100000000001,0.9511860000000001,-0.357916,-0.067872,-0.029886000000000003,-0.030624000000000002,-0.010133,,,,,,,,,,,,,,,,,,,,,,,,,,,,,,,,,,,0.0,0.0,32.0,0.05275,1.0,0.0,,,,,,,,,,,,,,,,,,,,,,,,,
21540,1645900167.6805608,1645900167.725287,79.0,0.0,4377.94873,4693.846191,4188.205078,4142.05127,4317.436035,16098.0,1.0,15.0,,,,0.0,4.0,0.0,0.0,4.0,4.0,33.333332,,,,,,,,,,,,,,,,,,,,,,,,,,,,,,,,,,,,,,,,,,,,,,,,,,,,,,,,,,,,,,,,,,,,,,,,,,,,,,,,,,,,
21541,1645900167.688374,1645900167.7331018,80.0,0.0,4377.94873,4710.769043,4076.923096,4121.025879,4327.179688,450.0,1.0,15.0,,,,0.0,4.0,0.0,0.0,4.0,4.0,33.333332,,,,,,,,40.0,0.0,0.728247,0.16626,0.6599119999999999,0.08081100000000001,0.9423969999999999,-0.350103,-0.091798,-0.030070999999999997,-0.030735000000000002,-0.011415,,,,,,,,,,,,,,,,,,,,,,,,,,,,,,,,,,,,,,,,,,,,,,,,,,,,,,,,,,,,,,,,,
21542,1645900167.696187,1645900167.740917,81.0,0.0,4344.102539,4641.538574,4123.589844,4201.025879,4269.230957,450.0,1.0,15.0,,,,0.0,4.0,0.0,0.0,4.0,4.0,33.333332,,,,,,,,,,,,,,,,,,,,,,,,,,,,,,,,,,,,,,,,,,,,,,,,,,,,,,,,,,,,,,,,,,,,,,,,,,,,,,,,,,,,
21543,1645900167.704,1645900167.748732,82.0,0.0,4323.077147999999,4614.871582,4228.205078,4203.589844,4258.974121,450.0,1.0,15.0,,,,0.0,4.0,0.0,0.0,4.0,4.0,33.333332,,,,,,,,41.0,0.0,0.7281920000000001,0.16626,0.6599119999999999,0.081299,0.944839,-0.35938000000000003,-0.08691499999999999,-0.030287,-0.030787000000000002,-0.009395,,,,,,,,,,,,,,,,,,,,,,,,,,,,,,,,,,,0.0,0.0,32.0,0.05275,1.0,0.0,,,,,,,,,,,,,,,,,,,,,,,,,
21544,1645900167.711813,1645900167.756547,83.0,0.0,4340.512695,4633.333496,4212.307617,4158.461426,4293.333496,16098.0,1.0,15.0,,,,0.0,4.0,0.0,0.0,4.0,4.0,33.333332,,,,,,,,,,,,,,,,,,,,,,,,,,,,,,,,,,,,,,,,,,,,,,,,,,,,,,,,,,,,,,,,,,,,,,,,,,,,,,,,,,,,
21545,1645900167.719627,1645900167.7643619,84.0,0.0,4400.512695,4679.487305,4180.512695,4166.153809,4306.666504,450.0,1.0,15.0,,,,0.0,4.0,0.0,0.0,4.0,4.0,33.333332,,,,,,,,42.0,0.0,0.7281920000000001,0.16626,0.6599119999999999,0.081299,0.936049,-0.364752,-0.078614,-0.03053,-0.030882,-0.007625,,,,,,,,,,,,,,,,,,,,,,,,,,,,,,,,,,,,,,,,,,,,,,,,,,,,,,,,,,,,,,,,,
21546,1645900167.72744,1645900167.772177,85.0,0.0,4521.538574,4714.871582,4196.922852000001,4206.666504,4362.563965,450.0,1.0,15.0,,,,0.0,4.0,0.0,0.0,4.0,4.0,33.333332,,,,,,,,,,,,,,,,,,,,,,,,,,,,,,,,,,,,,,,,,,,,,,,,,,,,,,,,,,,,,,,,,,,,,,,,,,,,,,,,,,,,
21547,1645900167.7352529,1645900167.779992,86.0,0.0,4630.256348,4672.307617,4222.563965,4228.717772999999,4447.179688,450.0,1.0,15.0,,,,0.0,4.0,0.0,0.0,4.0,4.0,33.333332,1.0,8.333333,1.0,0.0,0.0,1.0,1.0,43.0,0.0,0.7279439999999999,0.16626,0.6601560000000001,0.08154299999999999,0.9423969999999999,-0.34815,-0.07470800000000001,-0.030650999999999998,-0.030919,-0.006228,1.0,0.0,0.0,,,,,,,,,,,,,,,,,,,,,,,,,,,,,,,,0.0,0.0,32.0,0.086752,1.0,0.0,21.374212,11.026218,1.934263,12.068169000000001,11.436441,38.681084000000006,27.878742,26.306156,43.576294,48.994289,40.709251,27.867416,3.281597,21.812428,60.657162,9.068905,12.180010000000001,9.843682000000001,14.269139000000001,10.724088,19.034346,12.072958999999999,2.736254,13.507983,11.558285
21548,1645900167.743066,1645900167.787807,87.0,0.0,4703.077147999999,4627.179688,4224.615234000001,4238.974121,4506.153809,16098.0,1.0,15.0,,,,0.0,4.0,0.0,0.0,4.0,4.0,33.333332,,,,,,,,,,,,,,,,,,,,,,,,,,,,,,,,,,,,,,,,,,,,,,,,,,,,,,,,,,,,,,,,,,,,,,,,,,,,,,,,,,,,
21549,1645900167.7508788,1645900167.7956212,88.0,0.0,4785.641113000001,4703.077147999999,4267.692383,4213.846191,4550.256348,450.0,1.0,15.0,,,,0.0,4.0,0.0,0.0,4.0,4.0,33.333332,,,,,,,,44.0,0.0,0.727888,0.16650399999999999,0.6601560000000001,0.08154299999999999,0.941421,-0.34521999999999997,-0.069337,-0.030857,-0.030805000000000003,-0.007998,,,,,,,,,,,,,,,,,,,,,,,,,,,,,,,,,,,,,,,,,,,,,,,,,,,,,,,,,,,,,,,,,
21550,1645900167.758692,1645900167.803536,89.0,0.0,4872.820313,4728.717772999999,4164.102539,4206.666504,4602.563965,450.0,1.0,15.0,,,,0.0,4.0,0.0,0.0,4.0,4.0,33.333332,,,,,,,,,,,,,,,,,,,,,,,,,,,,,,,,,,,,,,,,,,,,,,,,,,,,,,,,,,,,,,,,,,,,,,,,,,,,,,,,,,,,
21551,1645900167.766505,1645900167.811351,90.0,0.0,4880.512695,4625.641113000001,4064.102539,4215.897461,4604.615234000001,450.0,1.0,15.0,,,,0.0,4.0,0.0,0.0,4.0,4.0,33.333332,,,,,,,,45.0,0.0,0.727888,0.16650399999999999,0.6601560000000001,0.08154299999999999,0.9463030000000001,-0.350591,-0.081544,-0.030994,-0.030702999999999998,-0.006417,,,,,,,,,,,,,,,,,,,,,,,,,,,,,,,,,,,0.0,0.0,32.0,0.086752,1.0,0.0,,,,,,,,,,,,,,,,,,,,,,,,,
21552,1645900167.774318,1645900167.819166,91.0,0.0,4871.794922,4598.461426,4127.692383,4220.0,4603.077147999999,16098.0,1.0,15.0,,,,0.0,4.0,0.0,0.0,4.0,4.0,33.333332,,,,,,,,,,,,,,,,,,,,,,,,,,,,,,,,,,,,,,,,,,,,,,,,,,,,,,,,,,,,,,,,,,,,,,,,,,,,,,,,,,,,
21553,1645900167.782131,1645900167.826981,92.0,0.0,4903.589844,4674.358886999999,4146.666504,4242.05127,4626.153809,450.0,1.0,15.0,,,,0.0,4.0,0.0,0.0,4.0,4.0,33.333332,,,,,,,,46.0,0.0,0.727888,0.16650399999999999,0.6601560000000001,0.08154299999999999,0.94435,-0.347173,-0.07470800000000001,-0.031264,-0.030757999999999997,-0.008168,,,,,,,,,,,,,,,,,,,,,,,,,,,,,,,,,,,,,,,,,,,,,,,,,,,,,,,,,,,,,,,,,
21554,1645900167.789944,1645900167.8347962,93.0,0.0,4928.205078,4730.256348,3978.461426,4244.615234000001,4655.384765999999,450.0,1.0,15.0,,,,0.0,4.0,0.0,0.0,4.0,4.0,33.333332,,,,,,,,,,,,,,,,,,,,,,,,,,,,,,,,,,,,,,,,,,,,,,,,,,,,,,,,,,,,,,,,,,,,,,,,,,,,,,,,,,,,
21555,1645900167.7977571,1645900167.8426108,94.0,0.0,4920.512695,4693.846191,4026.6667479999996,4189.230957,4680.0,450.0,1.0,15.0,,,,0.0,4.0,0.0,0.0,4.0,4.0,33.333332,,,,,,,,47.0,0.0,0.7280260000000001,0.166748,0.6599119999999999,0.081787,0.95021,-0.354498,-0.076661,-0.03136,-0.030807,-0.006520999999999999,,,,,,,,,,,,,,,,,,,,,,,,,,,,,,,,,,,0.0,0.0,32.0,0.086752,1.0,0.0,,,,,,,,,,,,,,,,,,,,,,,,,
21556,1645900167.80557,1645900167.850426,95.0,0.0,4916.410156,4652.820313,4317.436035,4213.846191,4695.897461,16098.0,1.0,15.0,,,,0.0,4.0,0.0,0.0,4.0,4.0,33.333332,,,,,,,,,,,,,,,,,,,,,,,,,,,,,,,,,,,,,,,,,,,,,,,,,,,,,,,,,,,,,,,,,,,,,,,,,,,,,,,,,,,,
21557,1645900167.813383,1645900167.8582401,96.0,0.0,4901.025879,4645.641113000001,4294.358886999999,4305.641113000001,4685.128418,450.0,1.0,15.0,,,,0.0,4.0,0.0,0.0,4.0,4.0,33.333332,,,,,,,,48.0,0.0,0.728247,0.166748,0.659668,0.081787,0.941421,-0.354498,-0.063966,-0.031495999999999996,-0.030851999999999997,-0.00831,,,,,,,,,,,,,,,,,,,,,,,,,,,,,,,,,,,,,,,,,,,,,,,,,,,,,,,,,,,,,,,,,
21558,1645900167.821196,1645900167.866055,97.0,0.0,4877.436035,4651.282227000001,3997.4357909999994,4312.820313,4668.717772999999,450.0,1.0,15.0,,,,0.0,4.0,0.0,0.0,4.0,4.0,33.333332,,,,,,,,,,,,,,,,,,,,,,,,,,,,,,,,,,,,,,,,,,,,,,,,,,,,,,,,,,,,,,,,,,,,,,,,,,,,,,,,,,,,
21559,1645900167.82901,1645900167.87397,98.0,0.0,4884.615234000001,4666.153809,3986.6667479999996,4233.333496,4673.333496,450.0,1.0,15.0,,,,0.0,4.0,0.0,0.0,4.0,4.0,33.333332,,,,,,,,49.0,0.0,0.728247,0.166748,0.659668,0.081787,0.9399559999999999,-0.355962,-0.07715,-0.031667,-0.030892000000000003,-0.009921,,,,,,,,,,,,,,,,,,,,,,,,,,,,,,,,,,,0.0,0.0,32.0,0.086752,1.0,0.0,,,,,,,,,,,,,,,,,,,,,,,,,
21560,1645900167.836823,1645900167.881785,99.0,0.0,4904.102539,4658.461426,4237.94873,4195.384765999999,4674.358886999999,16098.0,1.0,15.0,,,,0.0,4.0,0.0,0.0,4.0,4.0,33.333332,,,,,,,,,,,,,,,,,,,,,,,,,,,,,,,,,,,,,,,,,,,,,,,,,,,,,,,,,,,,,,,,,,,,,,,,,,,,,,,,,,,,
21561,1645900167.844636,1645900167.8896,100.0,0.0,4914.871582,4632.307617,4217.94873,4223.077147999999,4672.307617,450.0,1.0,15.0,,,,0.0,4.0,0.0,0.0,4.0,4.0,33.333332,,,,,,,,50.0,0.0,0.728191,0.166992,0.659668,0.081787,0.9433739999999999,-0.352056,-0.077638,-0.031771,-0.030879000000000004,-0.011321,,,,,,,,,,,,,,,,,,,,,,,,,,,,,,,,,,,,,,,,,,,,,,,,,,,,,,,,,,,,,,,,,
21562,1645900167.852449,1645900167.897415,101.0,0.0,4927.179688,4644.102539,4048.718018,4214.871582,4689.743652,450.0,1.0,15.0,,,,0.0,4.0,0.0,0.0,4.0,4.0,33.333332,,,,,,,,,,,,,,,,,,,,,,,,,,,,,,,,,,,,,,,,,,,,,,,,,,,,,,,,,,,,,,,,,,,,,,,,,,,,,,,,,,,,
21563,1645900167.860262,1645900167.90523,102.0,0.0,4935.897461,4653.333496,4095.897461,4203.077147999999,4706.666504,450.0,1.0,15.0,,,,0.0,4.0,0.0,0.0,4.0,4.0,33.333332,,,,,,,,51.0,0.0,0.72844,0.166992,0.659424,0.08154299999999999,0.945815,-0.357427,-0.078126,-0.031866000000000005,-0.030769,-0.009359000000000001,1.0,0.0,0.0,,,,,,,,,,,,,,,,,,,,,,,,,,,,,,,,0.0,0.0,32.0,0.288732,1.0,0.0,18.566856,11.01303,1.648879,11.699135,12.958732000000001,40.674091,28.713078000000003,26.171869,44.558025,43.06673,38.146999,28.697756,1.8343610000000001,19.787031,61.128689,8.523825,12.673563,8.235356,15.413134,10.641778,17.943596,12.474338000000001,2.6483220000000003,13.764916,10.491235000000001
21564,1645900167.868075,1645900167.913045,103.0,0.0,4922.563965,4596.922852000001,4232.307617,4234.871582,4674.358886999999,16098.0,1.0,15.0,,,,0.0,4.0,0.0,0.0,4.0,4.0,33.333332,,,,,,,,,,,,,,,,,,,,,,,,,,,,,,,,,,,,,,,,,,,,,,,,,,,,,,,,,,,,,,,,,,,,,,,,,,,,,,,,,,,,
21565,1645900167.875888,1645900167.920859,104.0,0.0,4914.871582,4576.922852000001,4153.333496,4250.769043,4650.769043,450.0,1.0,15.0,,,,0.0,4.0,0.0,0.0,4.0,4.0,33.333332,,,,,,,,52.0,0.0,0.728247,0.166748,0.659668,0.081787,0.9399559999999999,-0.355962,-0.07715,-0.032,-0.030817,-0.010864,,,,,,,,,,,,,,,,,,,,,,,,,,,,,,,,,,,,,,,,,,,,,,,,,,,,,,,,,,,,,,,,,
21566,1645900167.883701,1645900167.928674,105.0,0.0,4892.307617,4593.846191,4153.846191,4242.05127,4658.461426,450.0,1.0,15.0,,,,0.0,4.0,0.0,0.0,4.0,4.0,33.333332,,,,,,,,,,,,,,,,,,,,,,,,,,,,,,,,,,,,,,,,,,,,,,,,,,,,,,,,,,,,,,,,,,,,,,,,,,,,,,,,,,,,
21567,1645900167.891514,1645900167.936489,106.0,0.0,4859.487305,4579.487305,4277.436035,4285.128418,4658.461426,450.0,1.0,15.0,,,,0.0,4.0,0.0,0.0,4.0,4.0,33.333332,,,,,,,,53.0,0.0,0.72844,0.166992,0.659424,0.08154299999999999,0.945815,-0.357427,-0.078126,-0.032070999999999995,-0.030713999999999998,-0.008948000000000001,,,,,,,,,,,,,,,,,,,,,,,,,,,,,,,,,,,10.0,0.0,32.0,0.288732,1.0,0.0,,,,,,,,,,,,,,,,,,,,,,,,,
21568,1645900167.899327,1645900167.944404,107.0,0.0,4832.820313,4598.461426,4223.077147999999,4290.769043,4613.846191,16098.0,1.0,15.0,,,,0.0,4.0,0.0,0.0,4.0,4.0,33.333332,,,,,,,,,,,,,,,,,,,,,,,,,,,,,,,,,,,,,,,,,,,,,,,,,,,,,,,,,,,,,,,,,,,,,,,,,,,,,,,,,,,,
21569,1645900167.90714,1645900167.952219,108.0,0.0,4848.717772999999,4658.974121,4028.718018,4215.384765999999,4583.077147999999,450.0,1.0,15.0,,,,0.0,4.0,0.0,0.0,4.0,4.0,33.333332,,,,,,,,54.0,0.0,0.72844,0.166992,0.659424,0.08154299999999999,0.922866,-0.36035700000000004,-0.06836,-0.031939999999999996,-0.030719,-0.007272,,,,,,,,,,,,,,,,,,,,,,,,,,,,,,,,,,,,,,,,,,,,,,,,,,,,,,,,,,,,,,,,,
21570,1645900167.914954,1645900167.960034,109.0,0.0,4869.230957,4700.512695,4045.1281740000004,4149.743652,4589.230957,450.0,1.0,15.0,,,,0.0,4.0,0.0,0.0,4.0,4.0,33.333332,,,,,,,,,,,,,,,,,,,,,,,,,,,,,,,,,,,,,,,,,,,,,,,,,,,,,,,,,,,,,,,,,,,,,,,,,,,,,,,,,,,,
21571,1645900167.922767,1645900167.967849,110.0,0.0,4857.94873,4662.563965,4180.512695,4154.871582,4602.563965,450.0,1.0,15.0,,,,0.0,4.0,0.0,0.0,4.0,4.0,33.333332,,,,,,,,55.0,0.0,0.728467,0.166992,0.659424,0.081299,0.949233,-0.354498,-0.076173,-0.03192,-0.030675,-0.008937,,,,,,,,,,,,,,,,,,,,,,,,,,,,,,,,,,,10.0,0.0,32.0,0.288732,1.0,0.0,,,,,,,,,,,,,,,,,,,,,,,,,
21572,1645900167.9305801,1645900167.9756632,111.0,0.0,4811.794922,4602.05127,4184.102539,4181.025879,4591.282227000001,16098.0,1.0,15.0,,,,0.0,4.0,0.0,0.0,4.0,4.0,33.333332,,,,,,,,,,,,,,,,,,,,,,,,,,,,,,,,,,,,,,,,,,,,,,,,,,,,,,,,,,,,,,,,,,,,,,,,,,,,,,,,,,,,
21573,1645900167.9383929,1645900167.9834778,112.0,0.0,4757.436035,4621.025879,4158.974121,4203.077147999999,4550.256348,450.0,1.0,15.0,,,,0.0,4.0,0.0,0.0,4.0,4.0,33.333332,,,,,,,,56.0,0.0,0.728467,0.166992,0.659424,0.081299,0.937026,-0.35108,-0.075196,-0.032048,-0.030781,-0.007359999999999999,,,,,,,,,,,,,,,,,,,,,,,,,,,,,,,,,,,,,,,,,,,,,,,,,,,,,,,,,,,,,,,,,
21574,1645900167.946206,1645900167.991293,113.0,0.0,4679.487305,4666.153809,4167.179688,4209.743652,4475.384765999999,450.0,1.0,15.0,,,,0.0,4.0,0.0,0.0,4.0,4.0,33.333332,,,,,,,,,,,,,,,,,,,,,,,,,,,,,,,,,,,,,,,,,,,,,,,,,,,,,,,,,,,,,,,,,,,,,,,,,,,,,,,,,,,,
21575,1645900167.9540188,1645900167.999108,114.0,0.0,4612.307617,4645.128418,4178.461426,4197.436035,4431.282227000001,450.0,1.0,15.0,,,,0.0,4.0,0.0,0.0,4.0,4.0,33.333332,,,,,,,,57.0,0.0,0.728494,0.166992,0.659424,0.081055,0.938491,-0.349615,-0.081544,-0.032017000000000004,-0.03073,-0.009017,,,,,,,,,,,,,,,,,,,,,,,,,,,,,,,,,,,10.0,0.0,32.0,0.288732,1.0,0.0,,,,,,,,,,,,,,,,,,,,,,,,,
21576,1645900167.961832,1645900168.006923,115.0,0.0,4554.358886999999,4633.846191,4168.205078,4154.358886999999,4425.128418,16098.0,1.0,15.0,,,,0.0,4.0,0.0,0.0,4.0,4.0,33.333332,,,,,,,,,,,,,,,,,,,,,,,,,,,,,,,,,,,,,,,,,,,,,,,,,,,,,,,,,,,,,,,,,,,,,,,,,,,,,,,,,,,,
21577,1645900167.969645,1645900168.014838,116.0,0.0,4473.333496,4606.666504,4108.717772999999,4149.743652,4387.179688,450.0,1.0,15.0,,,,0.0,4.0,0.0,0.0,4.0,4.0,33.333332,,,,,,,,58.0,0.0,0.728577,0.166748,0.659424,0.08081100000000001,0.940932,-0.344244,-0.061036,-0.03199,-0.030685000000000004,-0.010508,,,,,,,,,,,,,,,,,,,,,,,,,,,,,,,,,,,,,,,,,,,,,,,,,,,,,,,,,,,,,,,,,
21578,1645900167.977458,1645900168.0226529,117.0,0.0,4432.307617,4525.641113000001,4069.2307130000004,4208.205078,4322.563965,450.0,1.0,15.0,,,,0.0,4.0,0.0,0.0,4.0,4.0,33.333332,,,,,,,,,,,,,,,,,,,,,,,,,,,,,,,,,,,,,,,,,,,,,,,,,,,,,,,,,,,,,,,,,,,,,,,,,,,,,,,,,,,,
21579,1645900167.985271,1645900168.030468,118.0,0.0,4437.94873,4532.820313,4163.077147999999,4189.743652,4293.333496,450.0,1.0,15.0,,,,0.0,4.0,0.0,0.0,4.0,4.0,33.333332,,,,,,,,59.0,0.0,0.728633,0.16650399999999999,0.659424,0.08081100000000001,0.933608,-0.34668499999999997,-0.067384,-0.032013,-0.030644,-0.011849,1.0,0.0,0.0,,,,,,,,,,,,,,,,,,,,,,,,,,,,,,,,10.0,0.0,32.0,0.314529,1.0,0.0,19.5462,12.074985,1.840114,11.373825,14.280482000000001,39.146965,26.478635999999998,24.725245,47.056087,38.20216,36.287292,29.811401,1.563644,18.47765,61.033852,8.487923,12.851151,6.933076,16.628843,11.560413,18.077591,13.218217999999998,2.87322,13.620304999999998,9.633208
21580,1645900167.993084,1645900168.038282,119.0,0.0,4388.717772999999,4586.153809,4196.410156,4140.0,4313.846191,16098.0,1.0,15.0,,,,0.0,4.0,0.0,0.0,4.0,4.0,33.333332,,,,,,,,,,,,,,,,,,,,,,,,,,,,,,,,,,,,,,,,,,,,,,,,,,,,,,,,,,,,,,,,,,,,,,,,,,,,,,,,,,,,
21581,1645900168.0008972,1645900168.046097,120.0,0.0,4304.615234000001,4551.794922,4157.436035,4176.410156,4317.436035,450.0,1.0,15.0,,,,0.0,4.0,0.0,0.0,4.0,4.0,33.333332,,,,,,,,60.0,0.0,0.728468,0.16626,0.659668,0.08081100000000001,0.9365379999999999,-0.341314,-0.080079,-0.032035,-0.030655,-0.009932,,,,,,,,,,,,,,,,,,,,,,,,,,,,,,,,,,,,,,,,,,,,,,,,,,,,,,,,,,,,,,,,,
21582,1645900168.0087109,1645900168.053912,121.0,0.0,4321.538574,4515.897461,4147.179688,4230.769043,4280.512695,450.0,1.0,15.0,,,,0.0,4.0,0.0,0.0,4.0,4.0,33.333332,,,,,,,,,,,,,,,,,,,,,,,,,,,,,,,,,,,,,,,,,,,,,,,,,,,,,,,,,,,,,,,,,,,,,,,,,,,,,,,,,,,,
21583,1645900168.0165231,1645900168.061727,122.0,0.0,4371.794922,4530.769043,4184.615234000001,4206.666504,4204.102539,450.0,1.0,15.0,,,,0.0,4.0,0.0,0.0,4.0,4.0,33.333332,,,,,,,,61.0,0.0,0.728468,0.16626,0.659668,0.08081100000000001,0.9438620000000001,-0.35352100000000003,-0.083497,-0.032152,-0.030666000000000002,-0.011184999999999999,,,,,,,,,,,,,,,,,,,,,,,,,,,,,,,,,,,10.0,0.0,32.0,0.314529,1.0,0.0,,,,,,,,,,,,,,,,,,,,,,,,,
21584,1645900168.0243368,1645900168.069542,123.0,0.0,4366.666504,4562.563965,4157.436035,4155.384765999999,4210.769043,16098.0,1.0,15.0,,,,0.0,4.0,0.0,0.0,4.0,4.0,33.333332,,,,,,,,,,,,,,,,,,,,,,,,,,,,,,,,,,,,,,,,,,,,,,,,,,,,,,,,,,,,,,,,,,,,,,,,,,,,,,,,,,,,
21585,1645900168.03215,1645900168.077357,124.0,0.0,4335.897461,4646.666504,4102.05127,4116.922852000001,4281.025879,450.0,1.0,15.0,,,,0.0,4.0,0.0,0.0,4.0,4.0,33.333332,,,,,,,,62.0,0.0,0.728496,0.166016,0.659668,0.081055,0.9355610000000001,-0.351568,-0.07128999999999999,-0.032257,-0.030529,-0.009236,,,,,,,,,,,,,,,,,,,,,,,,,,,,,,,,,,,,,,,,,,,,,,,,,,,,,,,,,,,,,,,,,
21586,1645900168.039963,1645900168.0851722,125.0,0.0,4318.461426,4668.717772999999,4002.5642090000006,4158.974121,4261.025879,450.0,1.0,15.0,,,,0.0,4.0,0.0,0.0,4.0,4.0,33.333332,,,,,,,,,,,,,,,,,,,,,,,,,,,,,,,,,,,,,,,,,,,,,,,,,,,,,,,,,,,,,,,,,,,,,,,,,,,,,,,,,,,,
21587,1645900168.047776,1645900168.093087,126.0,0.0,4269.743652,4525.641113000001,4028.205078,4214.358886999999,4161.538574,450.0,1.0,15.0,,,,0.0,4.0,0.0,0.0,4.0,4.0,33.333332,,,,,,,,63.0,0.0,0.728414,0.16626,0.659668,0.081299,0.945327,-0.348638,-0.084962,-0.02908,-0.030504000000000003,-0.010803,,,,,,,,,,,,,,,,,,,,,,,,,,,,,,,,,,,0.0,0.0,32.0,0.314529,1.0,0.0,,,,,,,,,,,,,,,,,,,,,,,,,
21588,1645900168.055589,1645900168.100901,127.0,0.0,4254.871582,4438.974121,4220.512695,4203.589844,4166.153809,233.0,1.0,15.0,,,,0.0,4.0,0.0,0.0,4.0,4.0,33.333332,,,,,,,,,,,,,,,,,,,,,,,,,,,,,,,,,,,,,,,,,,,,,,,,,,,,,,,,,,,,,,,,,,,,,,,,,,,,,,,,,,,,
21589,1645900168.063402,1645900168.108716,0.0,0.0,4308.717772999999,4528.205078,4247.179688,4177.436035,4216.922852000001,450.0,1.0,15.0,,,,0.0,4.0,0.0,0.0,4.0,4.0,33.333332,,,,,,,,0.0,0.0,0.728414,0.16626,0.659668,0.081299,0.947768,-0.35352100000000003,-0.080568,-0.029444,-0.030432,-0.012066,,,,,,,,,,,,,,,,,,,,,,,,,,,,,,,,,,,,,,,,,,,,,,,,,,,,,,,,,,,,,,,,,
21590,1645900168.0712152,1645900168.1165311,1.0,0.0,4327.692383,4632.820313,4082.0512700000004,4168.205078,4184.615234000001,450.0,1.0,15.0,,,,0.0,4.0,0.0,0.0,4.0,4.0,33.333332,,,,,,,,,,,,,,,,,,,,,,,,,,,,,,,,,,,,,,,,,,,,,,,,,,,,,,,,,,,,,,,,,,,,,,,,,,,,,,,,,,,,
21591,1645900168.079028,1645900168.124346,2.0,0.0,4277.94873,4676.410156,4075.897461,4140.0,4158.461426,16068.0,1.0,15.0,,,,0.0,4.0,0.0,0.0,4.0,4.0,33.333332,,,,,,,,1.0,0.0,0.728358,0.16650399999999999,0.659668,0.081299,0.932631,-0.350591,-0.080079,-0.02982,-0.030416000000000002,-0.010176000000000001,,,,,,,,,,,,,,,,,,,,,,,,,,,,,,,,,,,0.0,0.0,32.0,0.314529,1.0,0.0,,,,,,,,,,,,,,,,,,,,,,,,,
21592,1645900168.086841,1645900168.132161,3.0,0.0,4256.922852000001,4656.922852000001,4256.410156,4123.077147999999,4183.077147999999,450.0,1.0,15.0,,,,0.0,4.0,0.0,0.0,4.0,4.0,33.333332,,,,,,,,,,,,,,,,,,,,,,,,,,,,,,,,,,,,,,,,,,,,,,,,,,,,,,,,,,,,,,,,,,,,,,,,,,,,,,,,,,,,
21593,1645900168.0946538,1645900168.139976,4.0,0.0,4280.512695,4583.077147999999,4273.333496,4148.717772999999,4188.205078,0.0,1.0,15.0,,,,0.0,4.0,0.0,0.0,4.0,4.0,33.333332,,,,,,,,2.0,0.0,0.7283310000000001,0.16650399999999999,0.659668,0.08154299999999999,0.9355610000000001,-0.355962,-0.065919,-0.029914,-0.0305,-0.008426000000000001,,,,,,,,,,,,,,,,,,,,,,,,,,,,,,,,,,,,,,,,,,,,,,,,,,,,,,,,,,,,,,,,,
21594,1645900168.102467,1645900168.147791,5.0,0.0,4300.512695,4567.179688,4181.025879,4155.897461,4198.974121,450.0,1.0,15.0,,,,0.0,4.0,0.0,0.0,4.0,4.0,33.333332,,,,,,,,,,,,,,,,,,,,,,,,,,,,,,,,,,,,,,,,,,,,,,,,,,,,,,,,,,,,,,,,,,,,,,,,,,,,,,,,,,,,
21595,1645900168.110281,1645900168.155606,6.0,0.0,4290.769043,4565.641113000001,4142.05127,4177.436035,4242.563965,0.0,1.0,15.0,,,,0.0,4.0,0.0,0.0,4.0,4.0,33.333332,,,,,,,,3.0,0.0,0.7283310000000001,0.16650399999999999,0.659668,0.08154299999999999,0.9423969999999999,-0.341802,-0.070314,-0.030292000000000003,-0.030623,-0.009976,1.0,0.0,0.0,,,,,,,,,,,,,,,,,,,,,,,,,,,,,,,,0.0,0.0,32.0,0.29843400000000003,1.0,0.0,29.035894,15.735276,2.6502060000000003,11.017997,15.142199,34.775555,22.001265,21.532806,50.473789000000004,35.400703,34.615608,30.679775,2.647295,17.461969,61.00425,8.830010000000001,12.649492,6.217962,17.329487,13.633033,21.601645,14.610095000000001,3.4363550000000003,13.113914000000001,9.356933999999999
21596,1645900168.118094,1645900168.1635199,7.0,0.0,4244.102539,4495.384765999999,4212.820313,4230.256348,4212.307617,450.0,1.0,15.0,,,,0.0,4.0,0.0,0.0,2.0,4.0,16.666666,,,,,,,,,,,,,,,,,,,,,,,,,,,,,,,,,,,,,,,,,,,,,,,,,,,,,,,,,,,,,,,,,,,,,,,,,,,,,,,,,,,,
21597,1645900168.125907,1645900168.171335,8.0,0.0,4260.512695,4525.641113000001,4247.179688,4207.692383,4174.871582,450.0,1.0,15.0,,,,0.0,4.0,0.0,0.0,2.0,4.0,16.666666,,,,,,,,4.0,0.0,0.7283310000000001,0.16650399999999999,0.659668,0.08154299999999999,0.9340959999999999,-0.34912600000000005,-0.075196,-0.030534,-0.030637,-0.011371,,,,,,,,,,,,,,,,,,,,,,,,,,,,,,,,,,,,,,,,,,,,,,,,,,,,,,,,,,,,,,,,,
21598,1645900168.13372,1645900168.17915,9.0,0.0,4324.615234000001,4639.487305,4206.666504,4111.282227000001,4208.717772999999,226.0,1.0,15.0,,,,0.0,4.0,0.0,0.0,2.0,4.0,16.666666,,,,,,,,,,,,,,,,,,,,,,,,,,,,,,,,,,,,,,,,,,,,,,,,,,,,,,,,,,,,,,,,,,,,,,,,,,,,,,,,,,,,
21599,1645900168.141533,1645900168.186965,10.0,0.0,4281.538574,4610.256348,4096.410156,4123.589844,4240.0,450.0,1.0,15.0,,,,0.0,4.0,0.0,0.0,2.0,4.0,16.666666,,,,,,,,5.0,0.0,0.728468,0.166748,0.659424,0.081787,0.9428850000000001,-0.34766199999999997,-0.091798,-0.030801,-0.03065,-0.009453,,,,,,,,,,,,,,,,,,,,,,,,,,,,,,,,,,,0.0,0.0,32.0,0.29843400000000003,1.0,0.0,,,,,,,,,,,,,,,,,,,,,,,,,
21600,1645900168.149346,1645900168.19478,11.0,0.0,4156.410156,4513.846191,4141.538574,4217.436035,4196.922852000001,16063.0,1.0,15.0,,,,0.0,4.0,0.0,0.0,2.0,4.0,16.666666,,,,,,,,,,,,,,,,,,,,,,,,,,,,,,,,,,,,,,,,,,,,,,,,,,,,,,,,,,,,,,,,,,,,,,,,,,,,,,,,,,,,
21601,1645900168.157159,1645900168.202595,12.0,0.0,4194.358886999999,4553.333496,4242.563965,4215.384765999999,4171.794922,450.0,1.0,15.0,,,,0.0,4.0,0.0,0.0,2.0,4.0,16.666666,,,,,,,,6.0,0.0,0.728468,0.166748,0.659424,0.081787,0.9340959999999999,-0.363775,-0.07715,-0.030895,-0.030612,-0.010801999999999999,,,,,,,,,,,,,,,,,,,,,,,,,,,,,,,,,,,,,,,,,,,,,,,,,,,,,,,,,,,,,,,,,
21602,1645900168.164972,1645900168.2104099,13.0,0.0,4317.94873,4610.769043,4206.153809,4140.512695,4161.025879,450.0,1.0,15.0,,,,0.0,4.0,0.0,0.0,2.0,4.0,16.666666,,,,,,,,,,,,,,,,,,,,,,,,,,,,,,,,,,,,,,,,,,,,,,,,,,,,,,,,,,,,,,,,,,,,,,,,,,,,,,,,,,,,
21603,1645900168.172785,1645900168.218225,14.0,0.0,4301.538574,4559.487305,4130.256348,4142.563965,4149.230957,450.0,1.0,15.0,,,,0.0,4.0,0.0,0.0,2.0,4.0,16.666666,,,,,,,,7.0,0.0,0.728689,0.166748,0.65918,0.081787,0.931167,-0.36230999999999997,-0.069337,-0.031076999999999997,-0.030577999999999998,-0.012212,,,,,,,,,,,,,,,,,,,,,,,,,,,,,,,,,,,0.0,0.0,32.0,0.29843400000000003,1.0,0.0,,,,,,,,,,,,,,,,,,,,,,,,,
21604,1645900168.180598,1645900168.2260392,15.0,0.0,4222.563965,4538.461426,4148.717772999999,4152.820313,4178.974121,16063.0,1.0,15.0,,,,0.0,4.0,0.0,0.0,2.0,4.0,16.666666,,,,,,,,,,,,,,,,,,,,,,,,,,,,,,,,,,,,,,,,,,,,,,,,,,,,,,,,,,,,,,,,,,,,,,,,,,,,,,,,,,,,
21605,1645900168.188411,1645900168.2338538,16.0,0.0,4256.410156,4595.384765999999,4161.538574,4142.05127,4221.538574,0.0,1.0,15.0,,,,0.0,4.0,0.0,0.0,2.0,4.0,16.666666,,,,,,,,8.0,0.0,0.7287170000000001,0.166748,0.65918,0.08154299999999999,0.937026,-0.351568,-0.08838,-0.031289,-0.030548000000000002,-0.013286000000000001,,,,,,,,,,,,,,,,,,,,,,,,,,,,,,,,,,,,,,,,,,,,,,,,,,,,,,,,,,,,,,,,,
21606,1645900168.196224,1645900168.2417688,17.0,0.0,4271.794922,4621.025879,4121.538574,4143.077147999999,4212.307617,0.0,1.0,15.0,,,,0.0,4.0,0.0,0.0,2.0,4.0,16.666666,,,,,,,,,,,,,,,,,,,,,,,,,,,,,,,,,,,,,,,,,,,,,,,,,,,,,,,,,,,,,,,,,,,,,,,,,,,,,,,,,,,,
21607,1645900168.2040381,1645900168.249584,18.0,0.0,4213.333496,4554.871582,4190.256348,4140.512695,4178.461426,0.0,1.0,15.0,,,,0.0,4.0,0.0,0.0,2.0,4.0,16.666666,,,,,,,,9.0,0.0,0.7287170000000001,0.166748,0.65918,0.08154299999999999,0.9463030000000001,-0.350591,-0.076173,-0.031458,-0.030594,-0.012095,,,,,,,,,,,,,,,,,,,,,,,,,,,,,,,,,,,0.0,0.0,32.0,0.29843400000000003,1.0,0.0,,,,,,,,,,,,,,,,,,,,,,,,,
21608,1645900168.211851,1645900168.257399,19.0,0.0,4230.769043,4526.666504,4248.717772999999,4135.384765999999,4173.846191,0.0,1.0,15.0,,,,0.0,4.0,0.0,0.0,2.0,4.0,16.666666,,,,,,,,,,,,,,,,,,,,,,,,,,,,,,,,,,,,,,,,,,,,,,,,,,,,,,,,,,,,,,,,,,,,,,,,,,,,,,,,,,,,
21609,1645900168.219664,1645900168.265214,20.0,0.0,4294.358886999999,4614.358886999999,4168.717772999999,4118.461426,4201.025879,0.0,1.0,15.0,,,,0.0,4.0,0.0,0.0,2.0,4.0,16.666666,,,,,,,,10.0,0.0,0.7287170000000001,0.166748,0.65918,0.08154299999999999,0.941421,-0.346197,-0.080568,-0.031584,-0.030562,-0.01318,,,,,,,,,,,,,,,,,,,,,,,,,,,,,,,,,,,,,,,,,,,,,,,,,,,,,,,,,,,,,,,,,
21610,1645900168.2274768,1645900168.2730289,21.0,0.0,4284.615234000001,4623.589844,4094.8718259999996,4113.333496,4206.153809,0.0,1.0,15.0,,,,0.0,4.0,0.0,0.0,2.0,4.0,16.666666,,,,,,,,,,,,,,,,,,,,,,,,,,,,,,,,,,,,,,,,,,,,,,,,,,,,,,,,,,,,,,,,,,,,,,,,,,,,,,,,,,,,
21611,1645900168.23529,1645900168.280844,22.0,0.0,4222.563965,4523.589844,4148.717772999999,4142.563965,4158.461426,0.0,1.0,15.0,,,,0.0,4.0,0.0,0.0,2.0,4.0,16.666666,1.0,8.333333,1.0,0.0,0.0,1.0,1.0,11.0,0.0,0.7288,0.16650399999999999,0.65918,0.081299,0.9365379999999999,-0.34815,-0.07128999999999999,-0.031697,-0.030483999999999997,-0.01113,1.0,0.0,0.0,,,,,,,,,,,,,,,,,,,,,,,,,,,,,,,,0.0,0.0,32.0,0.294059,1.0,0.0,50.549175,22.619183,4.3210690000000005,10.639777,15.335545999999999,29.058725,16.882122,17.347351,53.42238199999999,34.321568,32.722214,30.839371000000003,5.772778,16.88308,61.948333999999996,9.153141,12.225835,6.3587169999999995,17.268593,16.510099,29.356937,16.644588,4.388502,12.341424,9.649778999999999
21612,1645900168.243103,1645900168.288658,23.0,0.0,4229.230957,4521.025879,4123.077147999999,4192.820313,4123.077147999999,0.0,1.0,15.0,,,,0.0,4.0,0.0,0.0,2.0,4.0,16.666666,,,,,,,,,,,,,,,,,,,,,,,,,,,,,,,,,,,,,,,,,,,,,,,,,,,,,,,,,,,,,,,,,,,,,,,,,,,,,,,,,,,,
21613,1645900168.250916,1645900168.296473,24.0,0.0,4288.205078,4609.743652,4111.282227000001,4178.974121,4132.820313,0.0,1.0,15.0,,,,0.0,4.0,0.0,0.0,2.0,4.0,16.666666,,,,,,,,12.0,0.0,0.7288,0.16650399999999999,0.65918,0.081299,0.940932,-0.354986,-0.07715,-0.031847,-0.030657999999999998,-0.012458,,,,,,,,,,,,,,,,,,,,,,,,,,,,,,,,,,,,,,,,,,,,,,,,,,,,,,,,,,,,,,,,,
21614,1645900168.258729,1645900168.304388,25.0,0.0,4322.05127,4637.436035,4217.436035,4113.846191,4205.641113000001,0.0,1.0,15.0,,,,0.0,4.0,0.0,0.0,2.0,4.0,16.666666,,,,,,,,,,,,,,,,,,,,,,,,,,,,,,,,,,,,,,,,,,,,,,,,,,,,,,,,,,,,,,,,,,,,,,,,,,,,,,,,,,,,
21615,1645900168.266542,1645900168.312203,26.0,0.0,4311.282227000001,4646.666504,4228.205078,4079.487061,4254.871582,0.0,1.0,15.0,,,,0.0,4.0,0.0,0.0,2.0,4.0,16.666666,,,,,,,,13.0,0.0,0.7288279999999999,0.16626,0.65918,0.08154299999999999,0.9331200000000001,-0.358892,-0.075685,-0.031885000000000004,-0.030669,-0.010529,,,,,,,,,,,,,,,,,,,,,,,,,,,,,,,,,,,0.0,0.0,32.0,0.294059,1.0,0.0,,,,,,,,,,,,,,,,,,,,,,,,,
21616,1645900168.2743552,1645900168.320018,27.0,0.0,4274.358886999999,4650.769043,4081.025635,4135.384765999999,4215.384765999999,0.0,1.0,15.0,,,,0.0,4.0,0.0,0.0,2.0,4.0,16.666666,,,,,,,,,,,,,,,,,,,,,,,,,,,,,,,,,,,,,,,,,,,,,,,,,,,,,,,,,,,,,,,,,,,,,,,,,,,,,,,,,,,,
21617,1645900168.282168,1645900168.327833,28.0,0.0,4203.589844,4616.410156,4137.94873,4213.333496,4156.922852000001,0.0,1.0,15.0,,,,0.0,4.0,0.0,0.0,2.0,4.0,16.666666,,,,,,,,14.0,0.0,0.7288279999999999,0.16626,0.65918,0.08154299999999999,0.9277489999999999,-0.348638,-0.07910299999999999,-0.031968,-0.030629000000000003,-0.008792,,,,,,,,,,,,,,,,,,,,,,,,,,,,,,,,,,,,,,,,,,,,,,,,,,,,,,,,,,,,,,,,,
21618,1645900168.2899811,1645900168.335648,29.0,0.0,4195.384765999999,4607.692383,4262.563965,4215.897461,4173.846191,0.0,1.0,15.0,,,,0.0,4.0,0.0,0.0,2.0,4.0,16.666666,,,,,,,,,,,,,,,,,,,,,,,,,,,,,,,,,,,,,,,,,,,,,,,,,,,,,,,,,,,,,,,,,,,,,,,,,,,,,,,,,,,,
21619,1645900168.2977939,1645900168.3434632,30.0,0.0,4262.05127,4555.897461,4221.538574,4192.307617,4162.563965,0.0,1.0,15.0,,,,0.0,4.0,0.0,0.0,2.0,4.0,16.666666,,,,,,,,15.0,0.0,0.7288,0.16650399999999999,0.65918,0.081299,0.940932,-0.354986,-0.07715,-0.031945,-0.030642000000000003,-0.007181,,,,,,,,,,,,,,,,,,,,,,,,,,,,,,,,,,,0.0,0.0,32.0,0.294059,1.0,0.0,,,,,,,,,,,,,,,,,,,,,,,,,
21620,1645900168.305607,1645900168.3512769,31.0,0.0,4275.897461,4492.307617,4149.743652,4206.153809,4113.846191,0.0,1.0,15.0,,,,0.0,4.0,0.0,0.0,2.0,4.0,16.666666,,,,,,,,,,,,,,,,,,,,,,,,,,,,,,,,,,,,,,,,,,,,,,,,,,,,,,,,,,,,,,,,,,,,,,,,,,,,,,,,,,,,
21621,1645900168.313421,1645900168.359092,32.0,0.0,4236.922852000001,4581.025879,4160.512695,4137.94873,4145.641113000001,0.0,1.0,15.0,,,,0.0,4.0,0.0,0.0,2.0,4.0,16.666666,,,,,,,,16.0,0.0,0.7288279999999999,0.16626,0.65918,0.08154299999999999,0.9277489999999999,-0.348638,-0.07910299999999999,-0.032022,-0.030606,-0.005779,,,,,,,,,,,,,,,,,,,,,,,,,,,,,,,,,,,,,,,,,,,,,,,,,,,,,,,,,,,,,,,,,
21622,1645900168.321234,1645900168.3669071,33.0,0.0,4265.641113000001,4699.487305,4161.025879,4078.461426,4209.230957,0.0,1.0,15.0,,,,0.0,4.0,0.0,0.0,2.0,4.0,16.666666,,,,,,,,,,,,,,,,,,,,,,,,,,,,,,,,,,,,,,,,,,,,,,,,,,,,,,,,,,,,,,,,,,,,,,,,,,,,,,,,,,,,
21623,1645900168.329047,1645900168.3748221,34.0,0.0,4292.307617,4648.205078,4137.436035,4163.589844,4199.487305,0.0,1.0,15.0,,,,0.0,4.0,0.0,0.0,2.0,4.0,16.666666,,,,,,,,17.0,0.0,0.728884,0.166016,0.65918,0.08154299999999999,0.941909,-0.346197,-0.085939,-0.032092,-0.030572000000000002,-0.004518,,,,,,,,,,,,,,,,,,,,,,,,,,,,,,,,,,,0.0,0.0,32.0,0.294059,1.0,0.0,,,,,,,,,,,,,,,,,,,,,,,,,
21624,1645900168.33686,1645900168.382637,35.0,0.0,4260.512695,4543.589844,4225.128418,4192.820313,4168.205078,0.0,1.0,15.0,,,,0.0,4.0,0.0,0.0,2.0,4.0,16.666666,,,,,,,,,,,,,,,,,,,,,,,,,,,,,,,,,,,,,,,,,,,,,,,,,,,,,,,,,,,,,,,,,,,,,,,,,,,,,,,,,,,,
21625,1645900168.3446732,1645900168.390452,36.0,0.0,4257.94873,4547.692383,4282.563965,4103.077147999999,4189.743652,0.0,1.0,15.0,,,,0.0,4.0,0.0,0.0,2.0,4.0,16.666666,,,,,,,,18.0,0.0,0.728884,0.166016,0.65918,0.08154299999999999,0.944839,-0.337407,-0.085451,-0.032154,-0.030639999999999997,-0.006506999999999999,,,,,,,,,,,,,,,,,,,,,,,,,,,,,,,,,,,,,,,,,,,,,,,,,,,,,,,,,,,,,,,,,
21626,1645900168.352486,1645900168.398267,37.0,0.0,4270.256348,4607.179688,4164.102539,4114.358886999999,4209.743652,0.0,1.0,15.0,,,,0.0,4.0,0.0,0.0,2.0,4.0,16.666666,,,,,,,,,,,,,,,,,,,,,,,,,,,,,,,,,,,,,,,,,,,,,,,,,,,,,,,,,,,,,,,,,,,,,,,,,,,,,,,,,,,,
21627,1645900168.360299,1645900168.406181,38.0,0.0,4256.922852000001,4604.615234000001,3970.256348,4213.846191,4189.743652,0.0,1.0,15.0,,,,0.0,4.0,0.0,0.0,2.0,4.0,16.666666,,,,,,,,19.0,0.0,0.728719,0.165771,0.659424,0.08154299999999999,0.969253,-0.343267,-0.087404,-0.03221,-0.030652,-0.005075,1.0,0.0,0.0,,,,,,,,,,,,,,,,,,,,,,,,,,,,,,,,0.0,0.0,32.0,0.307463,1.0,0.0,83.59764100000001,32.246604999999995,6.853503,10.298809,14.797032000000002,23.678499,12.638292999999999,13.329404,54.721764,33.793468,30.911577,30.123178000000003,11.302671,17.150582999999997,64.530762,9.347159,11.74513,7.341722,16.608454000000002,19.418434,40.3405,19.094791,5.591432,11.37715,10.187456
21628,1645900168.3681118,1645900168.413996,39.0,0.0,4259.487305,4534.358886999999,4014.358887,4210.256348,4161.538574,0.0,1.0,15.0,,,,0.0,4.0,0.0,0.0,2.0,4.0,16.666666,,,,,,,,,,,,,,,,,,,,,,,,,,,,,,,,,,,,,,,,,,,,,,,,,,,,,,,,,,,,,,,,,,,,,,,,,,,,,,,,,,,,
21629,1645900168.375925,1645900168.4218109,40.0,0.0,4318.974121,4522.563965,4181.538574,4167.179688,4177.94873,0.0,1.0,15.0,,,,0.0,4.0,0.0,0.0,2.0,4.0,16.666666,,,,,,,,20.0,0.0,0.728691,0.165771,0.659424,0.081787,0.951675,-0.350591,-0.08984500000000001,-0.029037999999999998,-0.030566000000000003,-0.006911,,,,,,,,,,,,,,,,,,,,,,,,,,,,,,,,,,,,,,,,,,,,,,,,,,,,,,,,,,,,,,,,,
21630,1645900168.383738,1645900168.429726,41.0,0.0,4363.589844,4613.846191,4183.589844,4138.974121,4205.128418,0.0,1.0,15.0,,,,0.0,4.0,0.0,0.0,2.0,4.0,16.666666,,,,,,,,,,,,,,,,,,,,,,,,,,,,,,,,,,,,,,,,,,,,,,,,,,,,,,,,,,,,,,,,,,,,,,,,,,,,,,,,,,,,
21631,1645900168.391551,1645900168.437541,42.0,0.0,4336.922852000001,4668.205078,4042.5642090000006,4149.230957,4216.410156,0.0,1.0,15.0,,,,0.0,4.0,0.0,0.0,2.0,4.0,16.666666,,,,,,,,21.0,0.0,0.72847,0.165771,0.659668,0.081787,0.95021,-0.338384,-0.08203300000000001,-0.029502999999999998,-0.030683,-0.005488,,,,,,,,,,,,,,,,,,,,,,,,,,,,,,,,,,,0.0,0.0,32.0,0.307463,1.0,0.0,,,,,,,,,,,,,,,,,,,,,,,,,
21632,1645900168.399365,1645900168.4453561,43.0,0.0,4246.153809,4628.717772999999,4087.179443,4190.256348,4206.666504,0.0,1.0,15.0,,,,0.0,4.0,0.0,0.0,2.0,4.0,16.666666,,,,,,,,,,,,,,,,,,,,,,,,,,,,,,,,,,,,,,,,,,,,,,,,,,,,,,,,,,,,,,,,,,,,,,,,,,,,,,,,,,,,
21633,1645900168.407178,1645900168.453171,44.0,0.0,4230.769043,4540.0,4213.846191,4202.563965,4193.333496,0.0,1.0,15.0,,,,0.0,4.0,0.0,0.0,2.0,4.0,16.666666,,,,,,,,22.0,0.0,0.7284430000000001,0.165771,0.659668,0.08203099999999999,0.940932,-0.34668499999999997,-0.08105599999999999,-0.029873,-0.030691000000000003,-0.007381,,,,,,,,,,,,,,,,,,,,,,,,,,,,,,,,,,,,,,,,,,,,,,,,,,,,,,,,,,,,,,,,,
21634,1645900168.414991,1645900168.460985,45.0,0.0,4307.692383,4477.94873,4182.563965,4184.102539,4159.487305,0.0,1.0,15.0,,,,0.0,4.0,0.0,0.0,2.0,4.0,16.666666,,,,,,,,,,,,,,,,,,,,,,,,,,,,,,,,,,,,,,,,,,,,,,,,,,,,,,,,,,,,,,,,,,,,,,,,,,,,,,,,,,,,
21635,1645900168.4228039,1645900168.4688,46.0,0.0,4335.384765999999,4524.102539,4078.461426,4184.615234000001,4161.025879,0.0,1.0,15.0,,,,0.0,4.0,0.0,0.0,2.0,4.0,16.666666,,,,,,,,23.0,0.0,0.7284430000000001,0.165771,0.659668,0.08203099999999999,0.9487450000000001,-0.34521999999999997,-0.07715,-0.030060000000000003,-0.030747000000000003,-0.009035,,,,,,,,,,,,,,,,,,,,,,,,,,,,,,,,,,,0.0,0.0,32.0,0.307463,1.0,0.0,,,,,,,,,,,,,,,,,,,,,,,,,
21636,1645900168.430617,1645900168.476615,47.0,0.0,4282.563965,4675.384765999999,4108.205078,4154.871582,4208.205078,0.0,1.0,15.0,,,,0.0,4.0,0.0,0.0,2.0,4.0,16.666666,,,,,,,,,,,,,,,,,,,,,,,,,,,,,,,,,,,,,,,,,,,,,,,,,,,,,,,,,,,,,,,,,,,,,,,,,,,,,,,,,,,,
21637,1645900168.43843,1645900168.48443,48.0,0.0,4273.846191,4710.256348,4123.589844,4134.358886999999,4214.871582,0.0,1.0,15.0,,,,0.0,4.0,0.0,0.0,2.0,4.0,16.666666,,,,,,,,24.0,0.0,0.728222,0.165771,0.6599119999999999,0.08203099999999999,0.932143,-0.350591,-0.065919,-0.030374,-0.030748,-0.010523999999999999,,,,,,,,,,,,,,,,,,,,,,,,,,,,,,,,,,,,,,,,,,,,,,,,,,,,,,,,,,,,,,,,,
21638,1645900168.446243,1645900168.492245,49.0,0.0,4278.974121,4550.769043,4103.077147999999,4166.153809,4159.487305,0.0,1.0,15.0,,,,0.0,4.0,0.0,0.0,2.0,4.0,16.666666,,,,,,,,,,,,,,,,,,,,,,,,,,,,,,,,,,,,,,,,,,,,,,,,,,,,,,,,,,,,,,,,,,,,,,,,,,,,,,,,,,,,
21639,1645900168.454056,1645900168.50016,50.0,0.0,4257.436035,4487.692383,4212.820313,4167.179688,4154.871582,0.0,1.0,15.0,,,,0.0,4.0,0.0,0.0,2.0,4.0,16.666666,,,,,,,,25.0,0.0,0.7284430000000001,0.165771,0.659668,0.08203099999999999,0.932143,-0.352544,-0.092287,-0.030804,-0.030799,-0.011718000000000001,,,,,,,,,,,,,,,,,,,,,,,,,,,,,,,,,,,0.0,0.0,32.0,0.307463,1.0,0.0,,,,,,,,,,,,,,,,,,,,,,,,,
21640,1645900168.461869,1645900168.507975,51.0,0.0,4266.153809,4587.179688,4257.94873,4142.563965,4198.461426,0.0,1.0,15.0,,,,0.0,4.0,0.0,0.0,2.0,4.0,16.666666,,,,,,,,,,,,,,,,,,,,,,,,,,,,,,,,,,,,,,,,,,,,,,,,,,,,,,,,,,,,,,,,,,,,,,,,,,,,,,,,,,,,
21641,1645900168.469682,1645900168.51579,52.0,0.0,4274.871582,4618.974121,4166.666504,4172.307617,4193.846191,0.0,1.0,15.0,,,,0.0,4.0,0.0,0.0,2.0,4.0,16.666666,,,,,,,,26.0,0.0,0.7284149999999999,0.165771,0.659668,0.082275,0.9404440000000001,-0.34375500000000003,-0.075685,-0.030897000000000004,-0.030697000000000002,-0.009814,,,,,,,,,,,,,,,,,,,,,,,,,,,,,,,,,,,,,,,,,,,,,,,,,,,,,,,,,,,,,,,,,
21642,1645900168.477495,1645900168.523604,53.0,0.0,4268.717772999999,4580.512695,4106.666504,4195.897461,4166.153809,0.0,1.0,15.0,,,,0.0,4.0,0.0,0.0,2.0,4.0,16.666666,,,,,,,,,,,,,,,,,,,,,,,,,,,,,,,,,,,,,,,,,,,,,,,,,,,,,,,,,,,,,,,,,,,,,,,,,,,,,,,,,,,,
21643,1645900168.485308,1645900168.531419,54.0,0.0,4288.205078,4602.563965,4189.743652,4178.461426,4157.94873,0.0,1.0,15.0,,,,0.0,4.0,0.0,0.0,2.0,4.0,16.666666,,,,,,,,27.0,0.0,0.7284149999999999,0.165771,0.659668,0.082275,0.9433739999999999,-0.352544,-0.07910299999999999,-0.031127999999999996,-0.030704000000000002,-0.011176,1.0,0.0,0.0,,,,,,,,,,,,,,,,,,,,,,,,,,,,,,,,0.0,0.0,32.0,0.05538,1.0,0.0,121.92002099999999,42.655907,9.965112,10.104472999999999,13.702607999999998,19.766245,10.315903,10.309603,53.960735,32.711929,29.580478999999997,28.40379,18.693789000000002,18.695176999999997,68.422661,9.433139,11.30463,8.903464,15.766509,21.476226999999998,51.715610999999996,21.445644,6.827397,10.226376,10.580219999999999
21644,1645900168.493122,1645900168.539234,55.0,0.0,4327.179688,4624.615234000001,4248.717772999999,4174.358886999999,4189.743652,0.0,1.0,15.0,,,,0.0,4.0,0.0,0.0,2.0,4.0,16.666666,,,,,,,,,,,,,,,,,,,,,,,,,,,,,,,,,,,,,,,,,,,,,,,,,,,,,,,,,,,,,,,,,,,,,,,,,,,,,,,,,,,,
21645,1645900168.500934,1645900168.547049,56.0,0.0,4312.307617,4622.05127,4254.358886999999,4150.256348,4240.0,0.0,1.0,15.0,,,,0.0,4.0,0.0,0.0,2.0,4.0,16.666666,,,,,,,,28.0,0.0,0.728194,0.165771,0.6599119999999999,0.082275,0.948257,-0.343267,-0.066896,-0.031335,-0.030612,-0.012451,,,,,,,,,,,,,,,,,,,,,,,,,,,,,,,,,,,,,,,,,,,,,,,,,,,,,,,,,,,,,,,,,
21646,1645900168.508748,1645900168.5548642,57.0,0.0,4257.94873,4626.666504,4147.692383,4151.282227000001,4267.692383,0.0,1.0,15.0,,,,0.0,4.0,0.0,0.0,2.0,4.0,16.666666,,,,,,,,,,,,,,,,,,,,,,,,,,,,,,,,,,,,,,,,,,,,,,,,,,,,,,,,,,,,,,,,,,,,,,,,,,,,,,,,,,,,
21647,1645900168.516561,1645900168.5626788,58.0,0.0,4230.256348,4582.05127,4087.6923829999996,4192.820313,4235.897461,0.0,1.0,15.0,,,,0.0,4.0,0.0,0.0,2.0,4.0,16.666666,,,,,,,,29.0,0.0,0.7284149999999999,0.165771,0.659668,0.082275,0.949722,-0.361822,-0.08838,-0.031570999999999995,-0.030577999999999998,-0.010425,,,,,,,,,,,,,,,,,,,,,,,,,,,,,,,,,,,0.0,0.0,32.0,0.05538,1.0,0.0,,,,,,,,,,,,,,,,,,,,,,,,,
21648,1645900168.524374,1645900168.5705938,59.0,0.0,4281.025879,4557.94873,4211.282227000001,4194.871582,4221.025879,0.0,1.0,15.0,,,,0.0,4.0,0.0,0.0,2.0,4.0,16.666666,,,,,,,,,,,,,,,,,,,,,,,,,,,,,,,,,,,,,,,,,,,,,,,,,,,,,,,,,,,,,,,,,,,,,,,,,,,,,,,,,,,,
21649,1645900168.532187,1645900168.578409,60.0,0.0,4346.666504,4627.692383,4298.974121,4142.563965,4218.461426,0.0,1.0,15.0,,,,0.0,4.0,0.0,0.0,2.0,4.0,16.666666,,,,,,,,30.0,0.0,0.7284149999999999,0.165771,0.659668,0.082275,0.936049,-0.354009,-0.083497,-0.031832,-0.030597000000000003,-0.011677,,,,,,,,,,,,,,,,,,,,,,,,,,,,,,,,,,,,,,,,,,,,,,,,,,,,,,,,,,,,,,,,,
21650,1645900168.54,1645900168.5862231,61.0,0.0,4350.769043,4681.025879,4153.333496,4165.641113000001,4221.025879,0.0,1.0,15.0,,,,0.0,4.0,0.0,0.0,2.0,4.0,16.666666,,,,,,,,,,,,,,,,,,,,,,,,,,,,,,,,,,,,,,,,,,,,,,,,,,,,,,,,,,,,,,,,,,,,,,,,,,,,,,,,,,,,
21651,1645900168.5478132,1645900168.594038,62.0,0.0,4282.563965,4633.333496,4072.3076170000004,4204.615234000001,4242.563965,0.0,1.0,15.0,,,,0.0,4.0,0.0,0.0,2.0,4.0,16.666666,,,,,,,,31.0,0.0,0.728388,0.165771,0.659668,0.08252000000000001,0.9472799999999999,-0.352544,-0.07910299999999999,-0.031969,-0.030711000000000002,-0.012756,,,,,,,,,,,,,,,,,,,,,,,,,,,,,,,,,,,0.0,0.0,32.0,0.05538,1.0,0.0,,,,,,,,,,,,,,,,,,,,,,,,,
21652,1645900168.555626,1645900168.601853,63.0,0.0,4272.820313,4588.717772999999,4183.589844,4182.563965,4252.307617,0.0,1.0,15.0,,,,0.0,4.0,0.0,0.0,2.0,4.0,16.666666,,,,,,,,,,,,,,,,,,,,,,,,,,,,,,,,,,,,,,,,,,,,,,,,,,,,,,,,,,,,,,,,,,,,,,,,,,,,,,,,,,,,
21653,1645900168.5634391,1645900168.609668,64.0,0.0,4320.0,4590.256348,4232.307617,4174.871582,4207.179688,450.0,1.0,15.0,,,,0.0,4.0,0.0,0.0,2.0,4.0,16.666666,,,,,,,,32.0,0.0,0.7286090000000001,0.165771,0.659424,0.08252000000000001,0.938003,-0.345708,-0.075196,-0.032141,-0.030667000000000003,-0.010699,,,,,,,,,,,,,,,,,,,,,,,,,,,,,,,,,,,,,,,,,,,,,,,,,,,,,,,,,,,,,,,,,
21654,1645900168.5712519,1645900168.617483,65.0,0.0,4317.94873,4572.307617,4146.153809,4187.179688,4190.256348,450.0,1.0,15.0,,,,0.0,4.0,0.0,0.0,2.0,4.0,16.666666,,,,,,,,,,,,,,,,,,,,,,,,,,,,,,,,,,,,,,,,,,,,,,,,,,,,,,,,,,,,,,,,,,,,,,,,,,,,,,,,,,,,
21655,1645900168.579065,1645900168.625298,66.0,0.0,4301.538574,4566.153809,4086.1538090000004,4149.230957,4235.897461,16107.0,1.0,15.0,,,,0.0,4.0,0.0,0.0,2.0,4.0,16.666666,,,,,,,,33.0,0.0,0.728553,0.166016,0.659424,0.08252000000000001,0.9331200000000001,-0.363775,-0.064454,-0.032248,-0.030677,-0.012022,,,,,,,,,,,,,,,,,,,,,,,,,,,,,,,,,,,0.0,0.0,32.0,0.05538,1.0,0.0,,,,,,,,,,,,,,,,,,,,,,,,,
21656,1645900168.5868778,1645900168.6331131,67.0,0.0,4320.512695,4639.487305,4087.179443,4122.563965,4236.410156,450.0,1.0,15.0,,,,0.0,4.0,0.0,0.0,2.0,4.0,16.666666,,,,,,,,,,,,,,,,,,,,,,,,,,,,,,,,,,,,,,,,,,,,,,,,,,,,,,,,,,,,,,,,,,,,,,,,,,,,,,,,,,,,
21657,1645900168.594692,1645900168.640928,68.0,0.0,4311.282227000001,4670.769043,4047.179443,4175.897461,4190.256348,0.0,1.0,15.0,,,,0.0,4.0,0.0,0.0,2.0,4.0,16.666666,,,,,,,,34.0,0.0,0.728553,0.166016,0.659424,0.08252000000000001,0.956558,-0.366217,-0.075685,-0.032197,-0.030685000000000004,-0.010087,,,,,,,,,,,,,,,,,,,,,,,,,,,,,,,,,,,,,,,,,,,,,,,,,,,,,,,,,,,,,,,,,
21658,1645900168.602505,1645900168.648842,69.0,0.0,4287.179688,4564.102539,4115.897461,4208.205078,4179.487305,450.0,1.0,15.0,,,,0.0,4.0,0.0,1.0,4.0,4.0,41.666668,,,,,,,,,,,,,,,,,,,,,,,,,,,,,,,,,,,,,,,,,,,,,,,,,,,,,,,,,,,,,,,,,,,,,,,,,,,,,,,,,,,,
21659,1645900168.610318,1645900168.656657,70.0,0.0,4329.230957,4521.538574,4255.384765999999,4164.102539,4228.717772999999,134.0,1.0,15.0,,,,0.0,4.0,0.0,1.0,4.0,4.0,41.666668,,,,,,,,35.0,0.0,0.728525,0.16626,0.659424,0.082275,0.9472799999999999,-0.353033,-0.07324299999999999,-0.032249,-0.030742000000000002,-0.01152,1.0,0.0,0.0,,,,,,,,,,,,,,,,,,,,,,,,,,,,,,,,0.0,0.0,32.0,0.048335,1.0,0.0,155.39502,50.997532,13.067525,10.186753999999999,12.416086,17.745762,10.156326,8.626783999999999,51.635475,30.76499,29.107149,26.097664,26.480397999999997,21.735128,72.176201,9.496782000000001,10.822083000000001,10.433879,15.241284,22.064131,60.117802000000005,23.004963,7.973106,8.951680999999999,10.622259
21660,1645900168.6181312,1645900168.664472,71.0,0.0,4348.717772999999,4645.128418,4249.743652,4125.641113000001,4271.794922,450.0,1.0,15.0,,,,0.0,4.0,0.0,1.0,4.0,4.0,41.666668,,,,,,,,,,,,,,,,,,,,,,,,,,,,,,,,,,,,,,,,,,,,,,,,,,,,,,,,,,,,,,,,,,,,,,,,,,,,,,,,,,,,
21661,1645900168.625944,1645900168.672287,72.0,0.0,4300.512695,4674.358886999999,4121.025879,4160.512695,4257.436035,450.0,1.0,15.0,,,,0.0,4.0,0.0,1.0,4.0,4.0,41.666668,,,,,,,,36.0,0.0,0.728553,0.16626,0.659424,0.08203099999999999,0.9340959999999999,-0.36328699999999997,-0.08105599999999999,-0.032246,-0.030646,-0.012759999999999999,,,,,,,,,,,,,,,,,,,,,,,,,,,,,,,,,,,,,,,,,,,,,,,,,,,,,,,,,,,,,,,,,
21662,1645900168.633757,1645900168.6801019,73.0,0.0,4262.05127,4516.922852000001,4190.769043,4227.179688,4192.307617,313.0,1.0,15.0,,,,0.0,4.0,0.0,1.0,4.0,4.0,41.666668,,,,,,,,,,,,,,,,,,,,,,,,,,,,,,,,,,,,,,,,,,,,,,,,,,,,,,,,,,,,,,,,,,,,,,,,,,,,,,,,,,,,
21663,1645900168.6415699,1645900168.687917,74.0,0.0,4302.05127,4448.205078,4271.282227000001,4260.512695,4188.717772999999,450.0,1.0,15.0,,,,0.0,4.0,0.0,1.0,4.0,4.0,41.666668,,,,,,,,37.0,0.0,0.728553,0.16626,0.659424,0.08203099999999999,0.9423969999999999,-0.36035700000000004,-0.080568,-0.032391,-0.030657999999999998,-0.013877,,,,,,,,,,,,,,,,,,,,,,,,,,,,,,,,,,,0.0,0.0,32.0,0.048335,1.0,0.0,,,,,,,,,,,,,,,,,,,,,,,,,
21664,1645900168.649383,1645900168.695832,75.0,0.0,4362.05127,4557.436035,4187.179688,4211.282227000001,4235.897461,16094.0,1.0,15.0,,,,0.0,4.0,0.0,1.0,4.0,4.0,41.666668,,,,,,,,,,,,,,,,,,,,,,,,,,,,,,,,,,,,,,,,,,,,,,,,,,,,,,,,,,,,,,,,,,,,,,,,,,,,,,,,,,,,
21665,1645900168.657196,1645900168.7036462,76.0,0.0,4343.589844,4642.563965,4069.743652,4156.410156,4260.0,450.0,1.0,15.0,,,,0.0,4.0,0.0,1.0,4.0,4.0,41.666668,,,,,,,,38.0,0.0,0.728553,0.16626,0.659424,0.08203099999999999,0.9423969999999999,-0.356939,-0.08203300000000001,-0.032423,-0.030668,-0.011757,,,,,,,,,,,,,,,,,,,,,,,,,,,,,,,,,,,,,,,,,,,,,,,,,,,,,,,,,,,,,,,,,
21666,1645900168.665009,1645900168.7114608,77.0,0.0,4249.230957,4657.436035,4135.384765999999,4160.0,4250.769043,450.0,1.0,15.0,,,,0.0,4.0,0.0,1.0,4.0,4.0,41.666668,,,,,,,,,,,,,,,,,,,,,,,,,,,,,,,,,,,,,,,,,,,,,,,,,,,,,,,,,,,,,,,,,,,,,,,,,,,,,,,,,,,,
21667,1645900168.672822,1645900168.719276,78.0,0.0,4252.307617,4660.512695,4221.025879,4195.897461,4245.128418,450.0,1.0,15.0,,,,0.0,4.0,0.0,1.0,4.0,4.0,41.666668,,,,,,,,39.0,0.0,0.728553,0.16626,0.659424,0.08203099999999999,0.945327,-0.33350100000000005,-0.069825,-0.032355,-0.030629000000000003,-0.009946,,,,,,,,,,,,,,,,,,,,,,,,,,,,,,,,,,,0.0,0.0,32.0,0.048335,1.0,0.0,,,,,,,,,,,,,,,,,,,,,,,,,
21668,1645900168.680635,1645900168.727091,79.0,0.0,4336.410156,4589.743652,4193.333496,4187.179688,4219.487305,16094.0,1.0,15.0,,,,0.0,4.0,0.0,1.0,4.0,4.0,41.666668,,,,,,,,,,,,,,,,,,,,,,,,,,,,,,,,,,,,,,,,,,,,,,,,,,,,,,,,,,,,,,,,,,,,,,,,,,,,,,,,,,,,
21669,1645900168.688449,1645900168.734906,80.0,0.0,4336.410156,4513.333496,4155.384765999999,4169.743652,4198.974121,450.0,1.0,15.0,,,,0.0,4.0,0.0,1.0,4.0,4.0,41.666668,,,,,,,,40.0,0.0,0.728553,0.16626,0.659424,0.08203099999999999,0.944839,-0.34668499999999997,-0.087404,-0.032342,-0.030642000000000003,-0.011344,,,,,,,,,,,,,,,,,,,,,,,,,,,,,,,,,,,,,,,,,,,,,,,,,,,,,,,,,,,,,,,,,
21670,1645900168.696262,1645900168.742721,81.0,0.0,4266.666504,4579.487305,4170.256348,4174.358886999999,4220.512695,450.0,1.0,15.0,,,,0.0,4.0,0.0,1.0,4.0,4.0,41.666668,,,,,,,,,,,,,,,,,,,,,,,,,,,,,,,,,,,,,,,,,,,,,,,,,,,,,,,,,,,,,,,,,,,,,,,,,,,,,,,,,,,,
21671,1645900168.704075,1645900168.750536,82.0,0.0,4275.384765999999,4654.871582,4170.769043,4185.641113000001,4246.666504,450.0,1.0,15.0,,,,0.0,4.0,0.0,1.0,4.0,4.0,41.666668,,,,,,,,41.0,0.0,0.728553,0.16626,0.659424,0.08203099999999999,0.939467,-0.352056,-0.083986,-0.032282,-0.030654,-0.012749,,,,,,,,,,,,,,,,,,,,,,,,,,,,,,,,,,,0.0,0.0,32.0,0.048335,1.0,0.0,,,,,,,,,,,,,,,,,,,,,,,,,
21672,1645900168.711888,1645900168.758351,83.0,0.0,4324.102539,4580.512695,4137.94873,4201.025879,4241.025879,16094.0,1.0,15.0,,,,0.0,4.0,0.0,1.0,4.0,4.0,41.666668,,,,,,,,,,,,,,,,,,,,,,,,,,,,,,,,,,,,,,,,,,,,,,,,,,,,,,,,,,,,,,,,,,,,,,,,,,,,,,,,,,,,
21673,1645900168.719701,1645900168.7662652,84.0,0.0,4324.102539,4569.743652,4201.538574,4171.282227000001,4227.179688,450.0,1.0,15.0,,,,0.0,4.0,0.0,1.0,4.0,4.0,41.666668,,,,,,,,42.0,0.0,0.728553,0.16626,0.659424,0.08203099999999999,0.9433739999999999,-0.356939,-0.078126,-0.032374,-0.030713999999999998,-0.013916,,,,,,,,,,,,,,,,,,,,,,,,,,,,,,,,,,,,,,,,,,,,,,,,,,,,,,,,,,,,,,,,,
21674,1645900168.727514,1645900168.77408,85.0,0.0,4305.641113000001,4651.282227000001,4249.230957,4113.846191,4254.871582,450.0,1.0,15.0,,,,0.0,4.0,0.0,1.0,4.0,4.0,41.666668,,,,,,,,,,,,,,,,,,,,,,,,,,,,,,,,,,,,,,,,,,,,,,,,,,,,,,,,,,,,,,,,,,,,,,,,,,,,,,,,,,,,
21675,1645900168.735327,1645900168.781895,86.0,0.0,4278.974121,4605.128418,4194.358886999999,4149.743652,4288.205078,450.0,1.0,15.0,,,,0.0,4.0,0.0,1.0,4.0,4.0,41.666668,1.0,8.333333,1.0,0.0,0.0,1.0,3.0,43.0,0.0,0.728553,0.16626,0.659424,0.08203099999999999,0.944839,-0.34668499999999997,-0.087404,-0.032359,-0.030719,-0.014916999999999998,1.0,0.0,0.0,,,,,,,,,,,,,,,,,,,,,,,,,,,,,,,,0.0,0.0,32.0,0.045781,1.0,0.0,173.41578700000002,54.324408999999996,15.402196,10.671327999999999,11.356978,17.172762,11.330155,8.261088,48.7691,28.490944,29.527037,23.766975,32.796421,26.021929,74.138458,9.588159,10.240383999999999,11.415152,15.312582999999998,21.041079999999997,62.800472,23.113049,9.024954,7.752175,10.345274
21676,1645900168.74314,1645900168.78971,87.0,0.0,4285.641113000001,4529.230957,4082.0512700000004,4239.487305,4273.333496,16094.0,1.0,15.0,,,,0.0,4.0,0.0,1.0,4.0,4.0,41.666668,,,,,,,,,,,,,,,,,,,,,,,,,,,,,,,,,,,,,,,,,,,,,,,,,,,,,,,,,,,,,,,,,,,,,,,,,,,,,,,,,,,,
21677,1645900168.750953,1645900168.797525,88.0,0.0,4336.410156,4564.615234000001,4115.384765999999,4192.307617,4238.461426,450.0,1.0,15.0,,,,0.0,4.0,0.0,1.0,4.0,4.0,41.666668,,,,,,,,44.0,0.0,0.728553,0.16626,0.659424,0.08203099999999999,0.9433739999999999,-0.356939,-0.078126,-0.032444,-0.030772000000000004,-0.015865999999999998,,,,,,,,,,,,,,,,,,,,,,,,,,,,,,,,,,,,,,,,,,,,,,,,,,,,,,,,,,,,,,,,,
21678,1645900168.758766,1645900168.80534,89.0,0.0,4364.102539,4608.717772999999,4247.179688,4114.358886999999,4267.692383,450.0,1.0,15.0,,,,0.0,4.0,0.0,1.0,4.0,4.0,41.666668,,,,,,,,,,,,,,,,,,,,,,,,,,,,,,,,,,,,,,,,,,,,,,,,,,,,,,,,,,,,,,,,,,,,,,,,,,,,,,,,,,,,
21679,1645900168.766579,1645900168.8131552,90.0,0.0,4326.666504,4662.05127,4221.538574,4138.461426,4318.974121,450.0,1.0,15.0,,,,0.0,4.0,0.0,1.0,4.0,4.0,41.666668,,,,,,,,45.0,0.0,0.728553,0.16626,0.659424,0.08203099999999999,0.932631,-0.34912600000000005,-0.085939,-0.03252,-0.030722000000000003,-0.01345,,,,,,,,,,,,,,,,,,,,,,,,,,,,,,,,,,,0.0,0.0,32.0,0.045781,1.0,0.0,,,,,,,,,,,,,,,,,,,,,,,,,
21680,1645900168.774392,1645900168.8209698,91.0,0.0,4302.563965,4653.846191,4015.384521,4206.153809,4298.461426,16094.0,1.0,15.0,,,,0.0,4.0,0.0,1.0,4.0,4.0,41.666668,,,,,,,,,,,,,,,,,,,,,,,,,,,,,,,,,,,,,,,,,,,,,,,,,,,,,,,,,,,,,,,,,,,,,,,,,,,,,,,,,,,,
21681,1645900168.782205,1645900168.828884,92.0,0.0,4301.025879,4487.692383,4036.4101560000004,4225.128418,4204.102539,450.0,1.0,15.0,,,,0.0,4.0,0.0,1.0,4.0,4.0,41.666668,,,,,,,,46.0,0.0,0.728553,0.16626,0.659424,0.08203099999999999,0.9267719999999999,-0.34815,-0.067872,-0.032588,-0.030775,-0.014497,,,,,,,,,,,,,,,,,,,,,,,,,,,,,,,,,,,,,,,,,,,,,,,,,,,,,,,,,,,,,,,,,
21682,1645900168.790018,1645900168.836699,93.0,0.0,4317.436035,4454.871582,4247.179688,4190.769043,4188.205078,450.0,1.0,15.0,,,,0.0,4.0,0.0,1.0,4.0,4.0,41.666668,,,,,,,,,,,,,,,,,,,,,,,,,,,,,,,,,,,,,,,,,,,,,,,,,,,,,,,,,,,,,,,,,,,,,,,,,,,,,,,,,,,,
21683,1645900168.797832,1645900168.8445141,94.0,0.0,4347.179688,4615.897461,4227.179688,4129.743652,4233.333496,450.0,1.0,15.0,,,,0.0,4.0,0.0,1.0,4.0,4.0,41.666668,,,,,,,,47.0,0.0,0.728608,0.166016,0.659424,0.08203099999999999,0.9340959999999999,-0.358404,-0.083986,-0.032454000000000004,-0.030676,-0.012364,,,,,,,,,,,,,,,,,,,,,,,,,,,,,,,,,,,0.0,0.0,32.0,0.045781,1.0,0.0,,,,,,,,,,,,,,,,,,,,,,,,,
21684,1645900168.805645,1645900168.852329,95.0,0.0,4367.179688,4643.077147999999,4037.9487299999996,4124.102539,4245.128418,16094.0,1.0,15.0,,,,0.0,4.0,0.0,1.0,4.0,4.0,41.666668,,,,,,,,,,,,,,,,,,,,,,,,,,,,,,,,,,,,,,,,,,,,,,,,,,,,,,,,,,,,,,,,,,,,,,,,,,,,,,,,,,,,
21685,1645900168.813458,1645900168.860144,96.0,0.0,4355.897461,4593.846191,4040.0,4145.641113000001,4243.077147999999,450.0,1.0,15.0,,,,0.0,4.0,0.0,1.0,4.0,4.0,41.666668,,,,,,,,48.0,0.0,0.728608,0.166016,0.659424,0.08203099999999999,0.9433739999999999,-0.355962,-0.075685,-0.032529,-0.030733,-0.013519999999999999,,,,,,,,,,,,,,,,,,,,,,,,,,,,,,,,,,,,,,,,,,,,,,,,,,,,,,,,,,,,,,,,,
21686,1645900168.8212712,1645900168.867959,97.0,0.0,4341.025879,4644.102539,4123.589844,4134.358886999999,4245.641113000001,450.0,1.0,15.0,,,,0.0,4.0,0.0,1.0,4.0,4.0,41.666668,,,,,,,,,,,,,,,,,,,,,,,,,,,,,,,,,,,,,,,,,,,,,,,,,,,,,,,,,,,,,,,,,,,,,,,,,,,,,,,,,,,,
21687,1645900168.829084,1645900168.875774,98.0,0.0,4320.512695,4634.871582,4143.077147999999,4160.512695,4213.846191,450.0,1.0,15.0,,,,0.0,4.0,0.0,1.0,4.0,4.0,41.666668,,,,,,,,49.0,0.0,0.728608,0.166016,0.659424,0.08203099999999999,0.945815,-0.35547399999999996,-0.072755,-0.032548,-0.030687,-0.014658000000000001,,,,,,,,,,,,,,,,,,,,,,,,,,,,,,,,,,,0.0,0.0,32.0,0.045781,1.0,0.0,,,,,,,,,,,,,,,,,,,,,,,,,
21688,1645900168.8368971,1645900168.883589,99.0,0.0,4308.717772999999,4556.410156,4252.820313,4197.94873,4217.94873,16094.0,1.0,15.0,,,,0.0,4.0,0.0,1.0,4.0,4.0,41.666668,,,,,,,,,,,,,,,,,,,,,,,,,,,,,,,,,,,,,,,,,,,,,,,,,,,,,,,,,,,,,,,,,,,,,,,,,,,,,,,,,,,,
21689,1645900168.8447099,1645900168.891403,100.0,0.0,4313.846191,4557.436035,4324.102539,4171.794922,4292.307617,450.0,1.0,15.0,,,,0.0,4.0,0.0,1.0,4.0,4.0,41.666668,,,,,,,,50.0,0.0,0.728608,0.166016,0.659424,0.08203099999999999,0.938491,-0.347173,-0.07715,-0.032612999999999996,-0.030646,-0.015536000000000001,,,,,,,,,,,,,,,,,,,,,,,,,,,,,,,,,,,,,,,,,,,,,,,,,,,,,,,,,,,,,,,,,
21690,1645900168.852523,1645900168.899318,101.0,0.0,4291.282227000001,4544.102539,4255.897461,4157.94873,4292.820313,450.0,1.0,15.0,,,,0.0,4.0,0.0,1.0,4.0,4.0,41.666668,,,,,,,,,,,,,,,,,,,,,,,,,,,,,,,,,,,,,,,,,,,,,,,,,,,,,,,,,,,,,,,,,,,,,,,,,,,,,,,,,,,,
21691,1645900168.8603358,1645900168.907133,102.0,0.0,4249.230957,4495.384765999999,4146.153809,4175.897461,4219.487305,450.0,1.0,15.0,,,,0.0,4.0,0.0,1.0,4.0,4.0,41.666668,,,,,,,,51.0,0.0,0.728636,0.166016,0.659424,0.081787,0.939467,-0.341314,-0.076173,-0.032672,-0.030657999999999998,-0.016278,1.0,0.0,0.0,,,,,,,,,,,,,,,,,,,,,,,,,,,,,,,,0.0,0.0,32.0,0.040845,1.0,0.0,170.31814599999998,51.153202,16.360905,11.551513,10.859092,17.466155999999998,12.546257,8.911154,46.220833,26.802069,30.77533,21.552232999999998,36.160862,30.632282,73.421127,9.643591,9.578746,11.587609,15.906144,18.803848000000002,58.690906999999996,21.425493,9.953958,6.86875,9.900139999999999
21692,1645900168.868149,1645900168.914948,103.0,0.0,4263.077147999999,4527.692383,4167.179688,4189.743652,4203.077147999999,16094.0,1.0,15.0,,,,0.0,4.0,0.0,1.0,4.0,4.0,41.666668,,,,,,,,,,,,,,,,,,,,,,,,,,,,,,,,,,,,,,,,,,,,,,,,,,,,,,,,,,,,,,,,,,,,,,,,,,,,,,,,,,,,
21693,1645900168.875962,1645900168.922763,104.0,0.0,4347.179688,4596.410156,4236.922852000001,4233.846191,4255.384765999999,450.0,1.0,15.0,,,,0.0,4.0,0.0,1.0,4.0,4.0,41.666668,,,,,,,,52.0,0.0,0.728636,0.166016,0.659424,0.081787,0.938491,-0.36084499999999997,-0.082521,-0.032774,-0.030668,-0.017043,,,,,,,,,,,,,,,,,,,,,,,,,,,,,,,,,,,,,,,,,,,,,,,,,,,,,,,,,,,,,,,,,
21694,1645900168.883776,1645900168.930578,105.0,0.0,4381.538574,4613.333496,4263.077147999999,4240.512695,4263.077147999999,450.0,1.0,15.0,,,,0.0,4.0,0.0,1.0,4.0,4.0,41.666668,,,,,,,,,,,,,,,,,,,,,,,,,,,,,,,,,,,,,,,,,,,,,,,,,,,,,,,,,,,,,,,,,,,,,,,,,,,,,,,,,,,,
21695,1645900168.8915892,1645900168.9383929,106.0,0.0,4347.179688,4612.820313,4177.436035,4183.077147999999,4265.128418,450.0,1.0,15.0,,,,0.0,4.0,0.0,1.0,4.0,4.0,41.666668,,,,,,,,53.0,0.0,0.728719,0.165771,0.659424,0.08154299999999999,0.946792,-0.34229,-0.077638,-0.032671,-0.030677999999999997,-0.014556999999999999,,,,,,,,,,,,,,,,,,,,,,,,,,,,,,,,,,,0.0,0.0,32.0,0.040845,1.0,0.0,,,,,,,,,,,,,,,,,,,,,,,,,
21696,1645900168.899402,1645900168.946208,107.0,0.0,4306.153809,4627.692383,4150.769043,4153.333496,4315.384765999999,16094.0,1.0,15.0,,,,0.0,4.0,0.0,1.0,4.0,4.0,41.666668,,,,,,,,,,,,,,,,,,,,,,,,,,,,,,,,,,,,,,,,,,,,,,,,,,,,,,,,,,,,,,,,,,,,,,,,,,,,,,,,,,,,
21697,1645900168.907215,1645900168.9540222,108.0,0.0,4317.94873,4607.179688,4171.794922,4189.230957,4330.769043,450.0,1.0,15.0,,,,0.0,4.0,0.0,1.0,4.0,4.0,41.666668,,,,,,,,54.0,0.0,0.728746,0.165771,0.659424,0.081299,0.9389790000000001,-0.339361,-0.077638,-0.032626,-0.030637,-0.015543000000000001,,,,,,,,,,,,,,,,,,,,,,,,,,,,,,,,,,,,,,,,,,,,,,,,,,,,,,,,,,,,,,,,,
21698,1645900168.9150279,1645900168.9618368,109.0,0.0,4333.846191,4552.307617,4162.563965,4221.025879,4243.589844,450.0,1.0,15.0,,,,0.0,4.0,0.0,1.0,4.0,4.0,41.666668,,,,,,,,,,,,,,,,,,,,,,,,,,,,,,,,,,,,,,,,,,,,,,,,,,,,,,,,,,,,,,,,,,,,,,,,,,,,,,,,,,,,
21699,1645900168.922841,1645900168.969652,110.0,0.0,4334.358886999999,4538.461426,4172.307617,4208.205078,4212.820313,450.0,1.0,15.0,,,,0.0,4.0,0.0,1.0,4.0,4.0,41.666668,,,,,,,,55.0,0.0,0.728746,0.165771,0.659424,0.081299,0.9438620000000001,-0.34229,-0.079591,-0.032587,-0.03065,-0.01643,,,,,,,,,,,,,,,,,,,,,,,,,,,,,,,,,,,0.0,0.0,32.0,0.040845,1.0,0.0,,,,,,,,,,,,,,,,,,,,,,,,,
21700,1645900168.9306538,1645900168.977467,111.0,0.0,4344.102539,4624.615234000001,4155.384765999999,4104.102539,4266.153809,16094.0,1.0,15.0,,,,0.0,4.0,0.0,1.0,4.0,4.0,41.666668,,,,,,,,,,,,,,,,,,,,,,,,,,,,,,,,,,,,,,,,,,,,,,,,,,,,,,,,,,,,,,,,,,,,,,,,,,,,,,,,,,,,
21701,1645900168.938467,1645900168.985382,112.0,0.0,4350.769043,4742.563965,4004.615479,4074.358887,4275.384765999999,450.0,1.0,15.0,,,,0.0,4.0,0.0,1.0,4.0,4.0,41.666668,,,,,,,,56.0,0.0,0.728746,0.165771,0.659424,0.081299,0.946792,-0.34912600000000005,-0.076661,-0.032551,-0.030758999999999998,-0.017131,,,,,,,,,,,,,,,,,,,,,,,,,,,,,,,,,,,,,,,,,,,,,,,,,,,,,,,,,,,,,,,,,
21702,1645900168.94628,1645900168.993197,113.0,0.0,4300.0,4706.153809,3969.743652,4196.922852000001,4237.94873,450.0,1.0,15.0,,,,0.0,4.0,0.0,1.0,4.0,4.0,41.666668,,,,,,,,,,,,,,,,,,,,,,,,,,,,,,,,,,,,,,,,,,,,,,,,,,,,,,,,,,,,,,,,,,,,,,,,,,,,,,,,,,,,
21703,1645900168.954093,1645900169.0010118,114.0,0.0,4266.153809,4576.922852000001,4199.487305,4232.307617,4241.025879,450.0,1.0,15.0,,,,0.0,4.0,0.0,1.0,4.0,4.0,41.666668,,,,,,,,57.0,0.0,0.728746,0.165771,0.659424,0.081299,0.933608,-0.342779,-0.083009,-0.032469,-0.03071,-0.014636000000000001,,,,,,,,,,,,,,,,,,,,,,,,,,,,,,,,,,,0.0,0.0,32.0,0.040845,1.0,0.0,,,,,,,,,,,,,,,,,,,,,,,,,
21704,1645900168.961906,1645900169.008827,115.0,0.0,4304.615234000001,4560.0,4291.282227000001,4141.538574,4260.512695,16094.0,1.0,15.0,,,,0.0,4.0,0.0,1.0,4.0,4.0,41.666668,,,,,,,,,,,,,,,,,,,,,,,,,,,,,,,,,,,,,,,,,,,,,,,,,,,,,,,,,,,,,,,,,,,,,,,,,,,,,,,,,,,,
21705,1645900168.969719,1645900169.016641,116.0,0.0,4329.743652,4608.205078,4115.384765999999,4141.538574,4242.563965,450.0,1.0,15.0,,,,0.0,4.0,0.0,1.0,4.0,4.0,41.666668,,,,,,,,58.0,0.0,0.728967,0.165771,0.65918,0.081299,0.9511860000000001,-0.341802,-0.08105599999999999,-0.032543,-0.030618,-0.015614,,,,,,,,,,,,,,,,,,,,,,,,,,,,,,,,,,,,,,,,,,,,,,,,,,,,,,,,,,,,,,,,,
21706,1645900168.977533,1645900169.024456,117.0,0.0,4298.974121,4598.974121,4035.897461,4200.0,4220.512695,450.0,1.0,15.0,,,,0.0,4.0,0.0,1.0,4.0,4.0,41.666668,,,,,,,,,,,,,,,,,,,,,,,,,,,,,,,,,,,,,,,,,,,,,,,,,,,,,,,,,,,,,,,,,,,,,,,,,,,,,,,,,,,,
21707,1645900168.985345,1645900169.0322711,118.0,0.0,4272.820313,4577.94873,4188.717772999999,4169.230957,4196.410156,450.0,1.0,15.0,,,,0.0,4.0,0.0,1.0,4.0,4.0,41.666668,,,,,,,,59.0,0.0,0.728967,0.165771,0.65918,0.081299,0.946792,-0.348638,-0.07422000000000001,-0.032511,-0.030681,-0.016444999999999998,1.0,0.0,0.0,,,,,,,,,,,,,,,,,,,,,,,,,,,,,,,,0.0,0.0,32.0,0.037297000000000004,1.0,0.0,147.57347099999998,42.250881,15.701315,12.594195,11.040977,17.423447,12.801323,10.192602,44.563559999999995,26.385754,32.693901000000004,19.595871,36.096965999999995,34.011131,70.393097,9.562559,8.897775,10.962617999999999,16.594124,16.09729,49.24538,18.299904,10.617925999999999,6.460874,9.443311
21708,1645900168.993159,1645900169.040086,119.0,0.0,4313.333496,4563.589844,4217.436035,4146.666504,4189.743652,16094.0,1.0,15.0,,,,0.0,4.0,0.0,1.0,4.0,4.0,41.666668,,,,,,,,,,,,,,,,,,,,,,,,,,,,,,,,,,,,,,,,,,,,,,,,,,,,,,,,,,,,,,,,,,,,,,,,,,,,,,,,,,,,
21709,1645900169.000972,1645900169.048001,120.0,0.0,4357.94873,4558.974121,4175.897461,4165.128418,4214.358886999999,450.0,1.0,15.0,,,,0.0,4.0,0.0,1.0,4.0,4.0,41.666668,,,,,,,,60.0,0.0,0.728719,0.165771,0.659424,0.08154299999999999,0.9506979999999999,-0.341802,-0.083497,-0.032288,-0.030688999999999998,-0.014068,,,,,,,,,,,,,,,,,,,,,,,,,,,,,,,,,,,,,,,,,,,,,,,,,,,,,,,,,,,,,,,,,
21710,1645900169.008785,1645900169.055816,121.0,0.0,4338.974121,4614.358886999999,4146.666504,4168.717772999999,4282.563965,450.0,1.0,15.0,,,,0.0,4.0,0.0,1.0,4.0,4.0,41.666668,,,,,,,,,,,,,,,,,,,,,,,,,,,,,,,,,,,,,,,,,,,,,,,,,,,,,,,,,,,,,,,,,,,,,,,,,,,,,,,,,,,,
21711,1645900169.016598,1645900169.063631,122.0,0.0,4272.307617,4650.256348,4155.897461,4177.436035,4313.846191,450.0,1.0,15.0,,,,0.0,4.0,0.0,1.0,4.0,4.0,41.666668,,,,,,,,61.0,0.0,0.728719,0.165771,0.659424,0.08154299999999999,0.9404440000000001,-0.348638,-0.083009,-0.032281,-0.030695999999999998,-0.014908000000000001,,,,,,,,,,,,,,,,,,,,,,,,,,,,,,,,,,,0.0,0.0,32.0,0.037297000000000004,1.0,0.0,,,,,,,,,,,,,,,,,,,,,,,,,
21712,1645900169.024411,1645900169.0714462,123.0,0.0,4277.436035,4599.487305,4157.94873,4218.974121,4257.94873,16094.0,1.0,15.0,,,,0.0,4.0,0.0,1.0,4.0,4.0,41.666668,,,,,,,,,,,,,,,,,,,,,,,,,,,,,,,,,,,,,,,,,,,,,,,,,,,,,,,,,,,,,,,,,,,,,,,,,,,,,,,,,,,,
21713,1645900169.032224,1645900169.0792599,124.0,0.0,4341.025879,4586.153809,4190.769043,4197.94873,4195.384765999999,450.0,1.0,15.0,,,,0.0,4.0,0.0,1.0,4.0,4.0,41.666668,,,,,,,,62.0,0.0,0.728774,0.165527,0.659424,0.08154299999999999,0.944839,-0.353033,-0.090822,-0.032423,-0.030702999999999998,-0.015712,,,,,,,,,,,,,,,,,,,,,,,,,,,,,,,,,,,,,,,,,,,,,,,,,,,,,,,,,,,,,,,,,
21714,1645900169.040037,1645900169.087075,125.0,0.0,4362.563965,4626.666504,4157.436035,4163.589844,4245.641113000001,450.0,1.0,15.0,,,,0.0,4.0,0.0,1.0,4.0,4.0,41.666668,,,,,,,,,,,,,,,,,,,,,,,,,,,,,,,,,,,,,,,,,,,,,,,,,,,,,,,,,,,,,,,,,,,,,,,,,,,,,,,,,,,,
21715,1645900169.04785,1645900169.09489,126.0,0.0,4311.282227000001,4661.538574,4143.077147999999,4188.717772999999,4324.102539,450.0,1.0,15.0,,,,0.0,4.0,0.0,1.0,4.0,4.0,41.666668,,,,,,,,63.0,0.0,0.728801,0.165527,0.659424,0.081299,0.9428850000000001,-0.345708,-0.081544,-0.032549,-0.030708999999999997,-0.016436000000000003,,,,,,,,,,,,,,,,,,,,,,,,,,,,,,,,,,,0.0,0.0,32.0,0.037297000000000004,1.0,0.0,,,,,,,,,,,,,,,,,,,,,,,,,
21716,1645900169.055663,1645900169.102705,127.0,0.0,4286.666504,4676.410156,4210.769043,4227.179688,4314.871582,233.0,1.0,15.0,,,,0.0,4.0,0.0,1.0,4.0,4.0,41.666668,,,,,,,,,,,,,,,,,,,,,,,,,,,,,,,,,,,,,,,,,,,,,,,,,,,,,,,,,,,,,,,,,,,,,,,,,,,,,,,,,,,,
21717,1645900169.063476,1645900169.11052,0.0,0.0,4326.666504,4587.692383,4219.487305,4232.307617,4253.846191,450.0,1.0,15.0,,,,0.0,4.0,0.0,1.0,4.0,4.0,41.666668,,,,,,,,0.0,0.0,0.728801,0.165527,0.659424,0.081299,0.936049,-0.344244,-0.08691499999999999,-0.032664,-0.030664999999999998,-0.014157,,,,,,,,,,,,,,,,,,,,,,,,,,,,,,,,,,,,,,,,,,,,,,,,,,,,,,,,,,,,,,,,,
21718,1645900169.071289,1645900169.118335,1.0,0.0,4352.820313,4487.179688,4161.025879,4209.743652,4243.589844,450.0,1.0,15.0,,,,0.0,4.0,0.0,1.0,4.0,4.0,41.666668,,,,,,,,,,,,,,,,,,,,,,,,,,,,,,,,,,,,,,,,,,,,,,,,,,,,,,,,,,,,,,,,,,,,,,,,,,,,,,,,,,,,
21719,1645900169.079102,1645900169.12615,2.0,0.0,4338.461426,4586.153809,4140.0,4147.692383,4270.256348,16089.0,1.0,15.0,,,,0.0,4.0,0.0,1.0,4.0,4.0,41.666668,,,,,,,,1.0,0.0,0.72858,0.165527,0.659668,0.081299,0.9463030000000001,-0.354498,-0.079591,-0.032570999999999996,-0.030675,-0.015037,,,,,,,,,,,,,,,,,,,,,,,,,,,,,,,,,,,0.0,0.0,32.0,0.037297000000000004,1.0,0.0,,,,,,,,,,,,,,,,,,,,,,,,,
21720,1645900169.086916,1645900169.134064,3.0,0.0,4373.846191,4735.897461,4205.128418,4113.846191,4297.94873,450.0,1.0,15.0,,,,0.0,4.0,2.0,1.0,4.0,4.0,58.33333199999999,,,,,,,,,,,,,,,,,,,,,,,,,,,,,,,,,,,,,,,,,,,,,,,,,,,,,,,,,,,,,,,,,,,,,,,,,,,,,,,,,,,,
21721,1645900169.094729,1645900169.1418788,4.0,0.0,4436.922852000001,4704.102539,4218.461426,4153.333496,4338.461426,164.0,1.0,15.0,,,,0.0,4.0,2.0,1.0,4.0,4.0,58.33333199999999,,,,,,,,2.0,0.0,0.728553,0.165527,0.659668,0.08154299999999999,0.939467,-0.354498,-0.08447400000000001,-0.032683,-0.030683999999999996,-0.015828000000000002,,,,,,,,,,,,,,,,,,,,,,,,,,,,,,,,,,,,,,,,,,,,,,,,,,,,,,,,,,,,,,,,,
21722,1645900169.102542,1645900169.149694,5.0,0.0,4427.179688,4650.769043,4161.538574,4202.05127,4348.205078,450.0,1.0,15.0,,,,0.0,4.0,2.0,1.0,4.0,4.0,58.33333199999999,,,,,,,,,,,,,,,,,,,,,,,,,,,,,,,,,,,,,,,,,,,,,,,,,,,,,,,,,,,,,,,,,,,,,,,,,,,,,,,,,,,,
21723,1645900169.1103551,1645900169.157509,6.0,0.0,4393.333496,4681.538574,4156.922852000001,4225.641113000001,4311.794922,141.0,1.0,15.0,,,,0.0,4.0,2.0,1.0,4.0,4.0,58.33333199999999,,,,,,,,3.0,0.0,0.728526,0.165527,0.659668,0.081787,0.933608,-0.349615,-0.07324299999999999,-0.032784,-0.030594,-0.016638,1.0,0.0,0.0,,,,,,,,,,,,,,,,,,,,,,,,,,,,,,,,0.0,0.0,32.0,0.049162,1.0,0.0,112.74866499999999,30.408979,13.758779,13.431231,11.733816000000001,16.587324,11.94973,11.801584,43.840096,27.351046000000004,34.868641,18.163803,33.405651,35.086079,66.453987,9.226841,8.461815,9.79814,16.816139,13.708466,37.364304,14.622717999999999,10.874892,6.5283690000000005,9.083865
21724,1645900169.1181679,1645900169.165324,7.0,0.0,4402.05127,4662.05127,4261.025879,4205.128418,4288.717772999999,450.0,1.0,15.0,,,,0.0,4.0,2.0,1.0,4.0,4.0,58.33333199999999,,,,,,,,,,,,,,,,,,,,,,,,,,,,,,,,,,,,,,,,,,,,,,,,,,,,,,,,,,,,,,,,,,,,,,,,,,,,,,,,,,,,
21725,1645900169.125981,1645900169.173139,8.0,0.0,4387.179688,4617.94873,4233.333496,4164.615234000001,4312.820313,450.0,1.0,15.0,,,,0.0,4.0,2.0,1.0,4.0,4.0,58.33333199999999,,,,,,,,4.0,0.0,0.728498,0.165527,0.659668,0.08203099999999999,0.940932,-0.354498,-0.08105599999999999,-0.032826,-0.030562,-0.014241,,,,,,,,,,,,,,,,,,,,,,,,,,,,,,,,,,,,,,,,,,,,,,,,,,,,,,,,,,,,,,,,,
21726,1645900169.1337938,1645900169.180954,9.0,0.0,4299.487305,4582.563965,4147.692383,4159.487305,4293.846191,16088.0,1.0,15.0,,,,0.0,4.0,2.0,1.0,4.0,4.0,58.33333199999999,,,,,,,,,,,,,,,,,,,,,,,,,,,,,,,,,,,,,,,,,,,,,,,,,,,,,,,,,,,,,,,,,,,,,,,,,,,,,,,,,,,,
21727,1645900169.141607,1645900169.1887689,10.0,0.0,4304.102539,4567.179688,4174.358886999999,4207.692383,4261.538574,450.0,1.0,15.0,,,,0.0,4.0,2.0,1.0,4.0,4.0,58.33333199999999,,,,,,,,5.0,0.0,0.728498,0.165527,0.659668,0.08203099999999999,0.9277489999999999,-0.349615,-0.082521,-0.032913,-0.030532999999999998,-0.012085,,,,,,,,,,,,,,,,,,,,,,,,,,,,,,,,,,,0.0,0.0,32.0,0.049162,1.0,0.0,,,,,,,,,,,,,,,,,,,,,,,,,
21728,1645900169.14942,1645900169.196683,11.0,0.0,4408.205078,4630.769043,4212.307617,4212.307617,4266.666504,16105.0,1.0,15.0,,,,0.0,4.0,2.0,1.0,4.0,4.0,58.33333199999999,,,,,,,,,,,,,,,,,,,,,,,,,,,,,,,,,,,,,,,,,,,,,,,,,,,,,,,,,,,,,,,,,,,,,,,,,,,,,,,,,,,,
21729,1645900169.157233,1645900169.204498,12.0,0.0,4414.871582,4691.282227000001,4102.563965,4188.717772999999,4290.256348,450.0,1.0,15.0,,,,0.0,4.0,2.0,1.0,4.0,4.0,58.33333199999999,,,,,,,,6.0,0.0,0.728471,0.165527,0.659668,0.082275,0.929213,-0.353033,-0.073732,-0.032795,-0.030556,-0.013318,,,,,,,,,,,,,,,,,,,,,,,,,,,,,,,,,,,,,,,,,,,,,,,,,,,,,,,,,,,,,,,,,
21730,1645900169.165046,1645900169.2123132,13.0,0.0,4308.717772999999,4674.871582,4091.794922,4179.487305,4298.461426,450.0,1.0,15.0,,,,0.0,4.0,2.0,1.0,4.0,4.0,58.33333199999999,,,,,,,,,,,,,,,,,,,,,,,,,,,,,,,,,,,,,,,,,,,,,,,,,,,,,,,,,,,,,,,,,,,,,,,,,,,,,,,,,,,,
21731,1645900169.17286,1645900169.2201278,14.0,0.0,4303.077147999999,4622.05127,4188.205078,4206.153809,4287.692383,450.0,1.0,15.0,,,,0.0,4.0,2.0,1.0,4.0,4.0,58.33333199999999,,,,,,,,7.0,0.0,0.728498,0.165527,0.659668,0.08203099999999999,0.940932,-0.354498,-0.08105599999999999,-0.032836000000000004,-0.030723,-0.011254,,,,,,,,,,,,,,,,,,,,,,,,,,,,,,,,,,,0.0,0.0,32.0,0.049162,1.0,0.0,,,,,,,,,,,,,,,,,,,,,,,,,
21732,1645900169.1806731,1645900169.227943,15.0,0.0,4371.794922,4523.589844,4200.0,4226.153809,4235.384765999999,16105.0,1.0,15.0,,,,0.0,4.0,2.0,1.0,4.0,4.0,58.33333199999999,,,,,,,,,,,,,,,,,,,,,,,,,,,,,,,,,,,,,,,,,,,,,,,,,,,,,,,,,,,,,,,,,,,,,,,,,,,,,,,,,,,,
21733,1645900169.1884859,1645900169.235758,16.0,0.0,4364.102539,4476.922852000001,4151.794922,4210.256348,4209.743652,0.0,1.0,15.0,,,,0.0,4.0,2.0,1.0,4.0,4.0,58.33333199999999,,,,,,,,8.0,0.0,0.728471,0.165527,0.659668,0.082275,0.929213,-0.353033,-0.073732,-0.032726,-0.030726999999999997,-0.01257,,,,,,,,,,,,,,,,,,,,,,,,,,,,,,,,,,,,,,,,,,,,,,,,,,,,,,,,,,,,,,,,,
21734,1645900169.196299,1645900169.243573,17.0,0.0,4308.205078,4581.538574,4130.256348,4178.461426,4249.230957,0.0,1.0,15.0,,,,0.0,4.0,2.0,1.0,4.0,4.0,58.33333199999999,,,,,,,,,,,,,,,,,,,,,,,,,,,,,,,,,,,,,,,,,,,,,,,,,,,,,,,,,,,,,,,,,,,,,,,,,,,,,,,,,,,,
21735,1645900169.2041118,1645900169.251388,18.0,0.0,4310.769043,4660.512695,4139.487305,4172.307617,4270.769043,0.0,1.0,15.0,,,,0.0,4.0,2.0,1.0,4.0,4.0,58.33333199999999,,,,,,,,9.0,0.0,0.728471,0.165527,0.659668,0.082275,0.932631,-0.352056,-0.092287,-0.032774,-0.030827999999999998,-0.013753999999999999,,,,,,,,,,,,,,,,,,,,,,,,,,,,,,,,,,,0.0,0.0,32.0,0.049162,1.0,0.0,,,,,,,,,,,,,,,,,,,,,,,,,
21736,1645900169.211925,1645900169.259203,19.0,0.0,4344.615234000001,4590.769043,4175.897461,4193.333496,4244.102539,0.0,1.0,15.0,,,,0.0,4.0,2.0,1.0,4.0,4.0,58.33333199999999,,,,,,,,,,,,,,,,,,,,,,,,,,,,,,,,,,,,,,,,,,,,,,,,,,,,,,,,,,,,,,,,,,,,,,,,,,,,,,,,,,,,
21737,1645900169.219738,1645900169.267117,20.0,0.0,4345.641113000001,4553.333496,4260.0,4168.717772999999,4241.538574,0.0,1.0,15.0,,,,0.0,4.0,2.0,1.0,4.0,4.0,58.33333199999999,,,,,,,,10.0,0.0,0.728471,0.165527,0.659668,0.082275,0.945327,-0.353033,-0.077638,-0.032866,-0.030919,-0.011646,,,,,,,,,,,,,,,,,,,,,,,,,,,,,,,,,,,,,,,,,,,,,,,,,,,,,,,,,,,,,,,,,
21738,1645900169.227551,1645900169.2749321,21.0,0.0,4324.615234000001,4626.666504,4258.974121,4121.025879,4286.666504,0.0,1.0,15.0,,,,0.0,4.0,2.0,1.0,4.0,4.0,58.33333199999999,,,,,,,,,,,,,,,,,,,,,,,,,,,,,,,,,,,,,,,,,,,,,,,,,,,,,,,,,,,,,,,,,,,,,,,,,,,,,,,,,,,,
21739,1645900169.235364,1645900169.282747,22.0,0.0,4311.282227000001,4658.974121,4204.102539,4158.461426,4311.282227000001,0.0,1.0,15.0,,,,0.0,4.0,2.0,1.0,4.0,4.0,58.33333199999999,1.0,8.333333,1.0,0.0,0.0,1.0,1.0,11.0,0.0,0.728471,0.165527,0.659668,0.082275,0.9404440000000001,-0.34815,-0.079591,-0.032851,-0.030855,-0.0097,1.0,0.0,0.0,1.0,0.684858,1.666877,-0.391435,2.651224,1.0,0.36541999999999997,8.144093,-1.191324,25.159197,0.254146,1.0,0.340163,-0.099513,-0.252321,0.157119,1.0,0.373422,1.4517309999999999,0.07470700000000001,3.46519,1.0,0.53327,15.309368,-64.553189,88.444261,1.0,0.555435,0.5856520000000001,0.429047,0.732961,0.0,0.0,32.0,0.045219,1.0,0.0,76.434875,18.997118,11.21005,13.665211,12.549828999999999,14.9107,10.449044,13.679754,43.52256,29.186718,37.582577,17.500175,29.607775,33.958797,63.231911,8.721300999999999,8.466898,8.504901,16.269339000000002,12.182744999999999,26.698071999999996,11.238767999999999,10.652280000000001,6.930115,8.879592
21740,1645900169.243177,1645900169.290562,23.0,0.0,4337.94873,4608.205078,4148.717772999999,4225.641113000001,4272.820313,0.0,1.0,15.0,,,,0.0,4.0,2.0,1.0,4.0,4.0,58.33333199999999,,,,,,,,,,,,,,,,,,,,,,,,,,,,,,,,,,,,,,,,,,,,,,,,,,,,,,,,,,,,,,,,,,,,,,,,,,,,,,,,,,,,
21741,1645900169.2509902,1645900169.298377,24.0,0.0,4372.307617,4580.512695,4186.666504,4162.563965,4230.256348,0.0,1.0,15.0,,,,0.0,4.0,2.0,1.0,4.0,4.0,58.33333199999999,,,,,,,,12.0,0.0,0.7284430000000001,0.165771,0.659668,0.08203099999999999,0.948257,-0.347173,-0.078614,-0.03274,-0.030797,-0.011221,,,,,,,,,,,,,,,,,,,,,,,,,,,,,,,,,,,,,,,,,,,,,,,,,,,,,,,,,,,,,,,,,
21742,1645900169.258803,1645900169.306192,25.0,0.0,4380.512695,4642.563965,4256.410156,4084.102539,4268.205078,0.0,1.0,15.0,,,,0.0,4.0,2.0,1.0,4.0,4.0,58.33333199999999,,,,,,,,,,,,,,,,,,,,,,,,,,,,,,,,,,,,,,,,,,,,,,,,,,,,,,,,,,,,,,,,,,,,,,,,,,,,,,,,,,,,
21743,1645900169.266616,1645900169.314007,26.0,0.0,4346.153809,4693.333496,4211.282227000001,4124.615234000001,4321.025879,0.0,1.0,15.0,,,,0.0,4.0,2.0,1.0,4.0,4.0,58.33333199999999,,,,,,,,13.0,0.0,0.7284149999999999,0.165771,0.659668,0.082275,0.9316549999999999,-0.359869,-0.07470800000000001,-0.032737,-0.030744,-0.012589,,,,,,,,,,,,,,,,,,,,,,,,,,,,,,,,,,,0.0,0.0,32.0,0.045219,1.0,0.0,,,,,,,,,,,,,,,,,,,,,,,,,
21744,1645900169.2744288,1645900169.3218212,27.0,0.0,4342.05127,4621.538574,4077.4357909999994,4210.769043,4312.307617,0.0,1.0,15.0,,,,0.0,4.0,2.0,1.0,4.0,4.0,58.33333199999999,,,,,,,,,,,,,,,,,,,,,,,,,,,,,,,,,,,,,,,,,,,,,,,,,,,,,,,,,,,,,,,,,,,,,,,,,,,,,,,,,,,,
21745,1645900169.282243,1645900169.3296359,28.0,0.0,4355.384765999999,4535.897461,4122.563965,4236.922852000001,4250.769043,0.0,1.0,15.0,,,,0.0,4.0,2.0,1.0,4.0,4.0,58.33333199999999,,,,,,,,14.0,0.0,0.7284149999999999,0.165771,0.659668,0.082275,0.945327,-0.36035700000000004,-0.075685,-0.032686,-0.030649000000000003,-0.013674,,,,,,,,,,,,,,,,,,,,,,,,,,,,,,,,,,,,,,,,,,,,,,,,,,,,,,,,,,,,,,,,,
21746,1645900169.290056,1645900169.337451,29.0,0.0,4353.333496,4578.461426,4231.282227000001,4208.717772999999,4245.128418,0.0,1.0,15.0,,,,0.0,4.0,2.0,1.0,4.0,4.0,58.33333199999999,,,,,,,,,,,,,,,,,,,,,,,,,,,,,,,,,,,,,,,,,,,,,,,,,,,,,,,,,,,,,,,,,,,,,,,,,,,,,,,,,,,,
21747,1645900169.297869,1645900169.345366,30.0,0.0,4351.282227000001,4681.538574,4187.179688,4138.461426,4290.256348,0.0,1.0,15.0,,,,0.0,4.0,2.0,1.0,4.0,4.0,58.33333199999999,,,,,,,,15.0,0.0,0.728388,0.165771,0.659668,0.08252000000000001,0.941421,-0.350103,-0.073732,-0.032737999999999996,-0.030660000000000003,-0.011574,,,,,,,,,,,,,,,,,,,,,,,,,,,,,,,,,,,0.0,0.0,32.0,0.045219,1.0,0.0,,,,,,,,,,,,,,,,,,,,,,,,,
21748,1645900169.305682,1645900169.3531811,31.0,0.0,4360.512695,4696.922852000001,4089.743652,4098.461426,4320.0,0.0,1.0,15.0,,,,0.0,4.0,2.0,1.0,4.0,4.0,58.33333199999999,,,,,,,,,,,,,,,,,,,,,,,,,,,,,,,,,,,,,,,,,,,,,,,,,,,,,,,,,,,,,,,,,,,,,,,,,,,,,,,,,,,,
21749,1645900169.313495,1645900169.360996,32.0,0.0,4331.282227000001,4614.871582,4112.307617,4163.589844,4283.077147999999,0.0,1.0,15.0,,,,0.0,4.0,2.0,1.0,4.0,4.0,58.33333199999999,,,,,,,,16.0,0.0,0.728332,0.166016,0.659668,0.08252000000000001,0.9389790000000001,-0.36084499999999997,-0.07324299999999999,-0.032687,-0.03067,-0.012858000000000001,,,,,,,,,,,,,,,,,,,,,,,,,,,,,,,,,,,,,,,,,,,,,,,,,,,,,,,,,,,,,,,,,
21750,1645900169.321308,1645900169.368911,33.0,0.0,4301.538574,4544.615234000001,4193.333496,4222.563965,4247.179688,0.0,1.0,15.0,,,,0.0,4.0,2.0,1.0,4.0,4.0,58.33333199999999,,,,,,,,,,,,,,,,,,,,,,,,,,,,,,,,,,,,,,,,,,,,,,,,,,,,,,,,,,,,,,,,,,,,,,,,,,,,,,,,,,,,
21751,1645900169.329121,1645900169.376825,34.0,0.0,4326.666504,4595.384765999999,4180.512695,4177.436035,4262.563965,0.0,1.0,15.0,,,,0.0,4.0,2.0,1.0,4.0,4.0,58.33333199999999,,,,,,,,17.0,0.0,0.728332,0.166016,0.659668,0.08252000000000001,0.9365379999999999,-0.34912600000000005,-0.081544,-0.032739,-0.030777,-0.01084,,,,,,,,,,,,,,,,,,,,,,,,,,,,,,,,,,,0.0,0.0,32.0,0.045219,1.0,0.0,,,,,,,,,,,,,,,,,,,,,,,,,
21752,1645900169.336934,1645900169.38464,35.0,0.0,4356.922852000001,4703.077147999999,4062.0512700000004,4141.025879,4270.256348,0.0,1.0,15.0,,,,0.0,4.0,2.0,1.0,4.0,4.0,58.33333199999999,,,,,,,,,,,,,,,,,,,,,,,,,,,,,,,,,,,,,,,,,,,,,,,,,,,,,,,,,,,,,,,,,,,,,,,,,,,,,,,,,,,,
21753,1645900169.344747,1645900169.392455,36.0,0.0,4347.179688,4685.128418,3983.076904,4171.794922,4265.641113000001,0.0,1.0,15.0,,,,0.0,4.0,2.0,1.0,4.0,4.0,58.33333199999999,,,,,,,,18.0,0.0,0.728332,0.166016,0.659668,0.08252000000000001,0.9389790000000001,-0.35938000000000003,-0.085451,-0.032639,-0.030775,-0.012148,,,,,,,,,,,,,,,,,,,,,,,,,,,,,,,,,,,,,,,,,,,,,,,,,,,,,,,,,,,,,,,,,
21754,1645900169.35256,1645900169.40027,37.0,0.0,4348.205078,4595.897461,4130.769043,4158.461426,4268.205078,0.0,1.0,15.0,,,,0.0,4.0,2.0,1.0,4.0,4.0,58.33333199999999,,,,,,,,,,,,,,,,,,,,,,,,,,,,,,,,,,,,,,,,,,,,,,,,,,,,,,,,,,,,,,,,,,,,,,,,,,,,,,,,,,,,
21755,1645900169.360373,1645900169.4080849,38.0,0.0,4363.077147999999,4600.0,4282.05127,4103.077147999999,4292.820313,0.0,1.0,15.0,,,,0.0,4.0,2.0,1.0,4.0,4.0,58.33333199999999,,,,,,,,19.0,0.0,0.72836,0.166016,0.659668,0.082275,0.9365379999999999,-0.359869,-0.076661,-0.032549,-0.030823000000000003,-0.010055,1.0,0.0,0.0,,,,,,,,,,,,,,,,,,,,,,,,,,,,,,,,0.0,0.0,32.0,0.048426,1.0,0.0,46.896778000000005,10.768291,8.703439999999999,13.154656,13.095781,13.03825,8.88912,16.025116,43.107791999999996,31.11141,41.394455,17.909954,26.070107,31.916991999999997,61.753803000000005,8.344312,8.763889,7.425325999999999,15.088614000000002,11.656007,19.399998,8.76211,9.989075999999999,7.56093,8.856852
21756,1645900169.368187,1645900169.4159,39.0,0.0,4332.307617,4636.410156,4236.410156,4132.820313,4308.205078,0.0,1.0,15.0,,,,0.0,4.0,2.0,1.0,4.0,4.0,58.33333199999999,,,,,,,,,,,,,,,,,,,,,,,,,,,,,,,,,,,,,,,,,,,,,,,,,,,,,,,,,,,,,,,,,,,,,,,,,,,,,,,,,,,,
21757,1645900169.376,1645900169.423715,40.0,0.0,4312.820313,4632.820313,4062.5642090000006,4197.94873,4297.94873,0.0,1.0,15.0,,,,0.0,4.0,2.0,1.0,4.0,4.0,58.33333199999999,,,,,,,,20.0,0.0,0.72836,0.166016,0.659668,0.082275,0.9365379999999999,-0.358892,-0.064454,-0.032614,-0.030866,-0.008317,,,,,,,,,,,,,,,,,,,,,,,,,,,,,,,,,,,,,,,,,,,,,,,,,,,,,,,,,,,,,,,,,
21758,1645900169.3838131,1645900169.43153,41.0,0.0,4342.563965,4626.153809,4096.922852000001,4195.897461,4250.256348,0.0,1.0,15.0,,,,0.0,4.0,2.0,1.0,4.0,4.0,58.33333199999999,,,,,,,,,,,,,,,,,,,,,,,,,,,,,,,,,,,,,,,,,,,,,,,,,,,,,,,,,,,,,,,,,,,,,,,,,,,,,,,,,,,,
21759,1645900169.391626,1645900169.4394438,42.0,0.0,4385.128418,4632.820313,4248.205078,4178.461426,4260.0,0.0,1.0,15.0,,,,0.0,4.0,2.0,1.0,4.0,4.0,58.33333199999999,,,,,,,,21.0,0.0,0.7281380000000001,0.166016,0.6599119999999999,0.082275,0.9580219999999999,-0.35938000000000003,-0.072267,-0.032575,-0.030855,-0.00978,,,,,,,,,,,,,,,,,,,,,,,,,,,,,,,,,,,0.0,0.0,32.0,0.048426,1.0,0.0,,,,,,,,,,,,,,,,,,,,,,,,,
21760,1645900169.399439,1645900169.447259,43.0,0.0,4378.461426,4698.461426,4222.05127,4161.538574,4345.128418,0.0,1.0,15.0,,,,0.0,4.0,2.0,1.0,4.0,4.0,58.33333199999999,,,,,,,,,,,,,,,,,,,,,,,,,,,,,,,,,,,,,,,,,,,,,,,,,,,,,,,,,,,,,,,,,,,,,,,,,,,,,,,,,,,,
21761,1645900169.4072518,1645900169.455074,44.0,0.0,4361.025879,4717.436035,4060.512939,4187.692383,4354.871582,0.0,1.0,15.0,,,,0.0,4.0,2.0,1.0,4.0,4.0,58.33333199999999,,,,,,,,22.0,0.0,0.728194,0.165771,0.6599119999999999,0.082275,0.933608,-0.340337,-0.07324299999999999,-0.032492,-0.030797,-0.011097,,,,,,,,,,,,,,,,,,,,,,,,,,,,,,,,,,,,,,,,,,,,,,,,,,,,,,,,,,,,,,,,,
21762,1645900169.415065,1645900169.462889,45.0,0.0,4346.666504,4558.974121,4103.077147999999,4226.153809,4243.077147999999,0.0,1.0,15.0,,,,0.0,4.0,2.0,1.0,4.0,4.0,58.33333199999999,,,,,,,,,,,,,,,,,,,,,,,,,,,,,,,,,,,,,,,,,,,,,,,,,,,,,,,,,,,,,,,,,,,,,,,,,,,,,,,,,,,,
21763,1645900169.422878,1645900169.4707038,46.0,0.0,4350.256348,4471.282227000001,4225.641113000001,4226.666504,4222.563965,0.0,1.0,15.0,,,,0.0,4.0,2.0,1.0,4.0,4.0,58.33333199999999,,,,,,,,23.0,0.0,0.728111,0.166016,0.6599119999999999,0.08252000000000001,0.9472799999999999,-0.350591,-0.06884900000000001,-0.032514,-0.030647000000000004,-0.009304,,,,,,,,,,,,,,,,,,,,,,,,,,,,,,,,,,,0.0,0.0,32.0,0.048426,1.0,0.0,,,,,,,,,,,,,,,,,,,,,,,,,
21764,1645900169.430691,1645900169.478519,47.0,0.0,4370.769043,4588.205078,4165.641113000001,4165.641113000001,4315.384765999999,0.0,1.0,15.0,,,,0.0,4.0,2.0,1.0,4.0,4.0,58.33333199999999,,,,,,,,,,,,,,,,,,,,,,,,,,,,,,,,,,,,,,,,,,,,,,,,,,,,,,,,,,,,,,,,,,,,,,,,,,,,,,,,,,,,
21765,1645900169.438504,1645900169.486334,48.0,0.0,4382.05127,4657.94873,4024.615479,4123.589844,4335.897461,0.0,1.0,15.0,,,,0.0,4.0,2.0,1.0,4.0,4.0,58.33333199999999,,,,,,,,24.0,0.0,0.728111,0.166016,0.6599119999999999,0.08252000000000001,0.946792,-0.355962,-0.07715,-0.032534,-0.030610000000000002,-0.010815,,,,,,,,,,,,,,,,,,,,,,,,,,,,,,,,,,,,,,,,,,,,,,,,,,,,,,,,,,,,,,,,,
21766,1645900169.446317,1645900169.494149,49.0,0.0,4346.153809,4571.282227000001,4070.7692869999996,4169.743652,4261.025879,0.0,1.0,15.0,,,,0.0,4.0,2.0,1.0,4.0,4.0,58.33333199999999,,,,,,,,,,,,,,,,,,,,,,,,,,,,,,,,,,,,,,,,,,,,,,,,,,,,,,,,,,,,,,,,,,,,,,,,,,,,,,,,,,,,
21767,1645900169.4541302,1645900169.5019631,50.0,0.0,4321.538574,4517.436035,4264.102539,4226.153809,4261.025879,0.0,1.0,15.0,,,,0.0,4.0,2.0,1.0,4.0,4.0,58.33333199999999,,,,,,,,25.0,0.0,0.728111,0.166016,0.6599119999999999,0.08252000000000001,0.944839,-0.34375500000000003,-0.081544,-0.032552,-0.030625,-0.012077,,,,,,,,,,,,,,,,,,,,,,,,,,,,,,,,,,,0.0,0.0,32.0,0.048426,1.0,0.0,,,,,,,,,,,,,,,,,,,,,,,,,
21768,1645900169.4619439,1645900169.509878,51.0,0.0,4351.282227000001,4548.717772999999,4290.769043,4205.128418,4313.846191,0.0,1.0,15.0,,,,0.0,4.0,2.0,1.0,4.0,4.0,58.33333199999999,,,,,,,,,,,,,,,,,,,,,,,,,,,,,,,,,,,,,,,,,,,,,,,,,,,,,,,,,,,,,,,,,,,,,,,,,,,,,,,,,,,,
21769,1645900169.4697561,1645900169.517693,52.0,0.0,4362.05127,4605.641113000001,4155.384765999999,4173.333496,4283.077147999999,0.0,1.0,15.0,,,,0.0,4.0,2.0,1.0,4.0,4.0,58.33333199999999,,,,,,,,26.0,0.0,0.728055,0.16626,0.6599119999999999,0.08252000000000001,0.936049,-0.340337,-0.07422000000000001,-0.032569,-0.03059,-0.013163999999999999,,,,,,,,,,,,,,,,,,,,,,,,,,,,,,,,,,,,,,,,,,,,,,,,,,,,,,,,,,,,,,,,,
21770,1645900169.4775698,1645900169.525508,53.0,0.0,4338.461426,4652.307617,4094.358887,4198.461426,4238.974121,0.0,1.0,15.0,,,,0.0,4.0,2.0,1.0,4.0,4.0,58.33333199999999,,,,,,,,,,,,,,,,,,,,,,,,,,,,,,,,,,,,,,,,,,,,,,,,,,,,,,,,,,,,,,,,,,,,,,,,,,,,,,,,,,,,
21771,1645900169.485383,1645900169.533323,54.0,0.0,4358.461426,4630.256348,4228.717772999999,4183.077147999999,4273.846191,0.0,1.0,15.0,,,,0.0,4.0,2.0,1.0,4.0,4.0,58.33333199999999,,,,,,,,27.0,0.0,0.728055,0.16626,0.6599119999999999,0.08252000000000001,0.938491,-0.35547399999999996,-0.07324299999999999,-0.032583,-0.030656,-0.014143000000000001,1.0,0.0,0.0,,,,,,,,,,,,,,,,,,,,,,,,,,,,,,,,0.0,0.0,32.0,0.046282,1.0,0.0,27.790058000000002,6.745086,6.686603,12.023987,13.187553,11.897272000000001,7.919546,19.070368,42.186039,32.401306,46.1451,19.419876000000002,23.40877,30.363037,61.639561,8.484136,9.029289,6.729684,13.734912,11.849557,16.022461,7.364436,9.086889,8.352127000000001,9.004821000000002
21772,1645900169.493196,1645900169.5411382,55.0,0.0,4380.0,4594.358886999999,4294.358886999999,4146.153809,4343.077147999999,0.0,1.0,15.0,,,,0.0,4.0,2.0,1.0,4.0,4.0,58.33333199999999,,,,,,,,,,,,,,,,,,,,,,,,,,,,,,,,,,,,,,,,,,,,,,,,,,,,,,,,,,,,,,,,,,,,,,,,,,,,,,,,,,,,
21773,1645900169.501009,1645900169.5489528,56.0,0.0,4320.512695,4585.128418,4228.717772999999,4165.128418,4342.563965,0.0,1.0,15.0,,,,0.0,4.0,2.0,1.0,4.0,4.0,58.33333199999999,,,,,,,,28.0,0.0,0.727999,0.16650399999999999,0.6599119999999999,0.08252000000000001,0.929702,-0.345708,-0.082521,-0.032499,-0.030667000000000003,-0.011947,,,,,,,,,,,,,,,,,,,,,,,,,,,,,,,,,,,,,,,,,,,,,,,,,,,,,,,,,,,,,,,,,
21774,1645900169.508822,1645900169.556768,57.0,0.0,4292.307617,4566.666504,4154.358886999999,4205.641113000001,4287.179688,0.0,1.0,15.0,,,,0.0,4.0,2.0,1.0,4.0,4.0,58.33333199999999,,,,,,,,,,,,,,,,,,,,,,,,,,,,,,,,,,,,,,,,,,,,,,,,,,,,,,,,,,,,,,,,,,,,,,,,,,,,,,,,,,,,
21775,1645900169.516635,1645900169.564582,58.0,0.0,4350.256348,4531.794922,4221.025879,4231.282227000001,4247.179688,0.0,1.0,15.0,,,,0.0,4.0,2.0,1.0,4.0,4.0,58.33333199999999,,,,,,,,29.0,0.0,0.728055,0.16626,0.6599119999999999,0.08252000000000001,0.956558,-0.34815,-0.073732,-0.032618,-0.030676,-0.013144999999999999,,,,,,,,,,,,,,,,,,,,,,,,,,,,,,,,,,,0.0,0.0,32.0,0.046282,1.0,0.0,,,,,,,,,,,,,,,,,,,,,,,,,
21776,1645900169.5244482,1645900169.572397,59.0,0.0,4387.179688,4546.666504,4256.410156,4227.692383,4300.0,0.0,1.0,15.0,,,,0.0,4.0,2.0,1.0,4.0,4.0,58.33333199999999,,,,,,,,,,,,,,,,,,,,,,,,,,,,,,,,,,,,,,,,,,,,,,,,,,,,,,,,,,,,,,,,,,,,,,,,,,,,,,,,,,,,
