,Timestamp,OriginalTimestamp,EEG.Counter,EEG.Interpolated,EEG.AF3,EEG.T7,EEG.Pz,EEG.T8,EEG.AF4,EEG.RawCq,EEG.Battery,EEG.BatteryPercent,MarkerIndex,MarkerType,MarkerValueInt,EEG.MarkerHardware,CQ.AF3,CQ.T7,CQ.Pz,CQ.T8,CQ.AF4,CQ.Overall,EQ.SampleRateQuality,EQ.OVERALL,EQ.AF3,EQ.T7,EQ.Pz,EQ.T8,EQ.AF4,MOT.CounterMems,MOT.InterpolatedMems,MOT.Q0,MOT.Q1,MOT.Q2,MOT.Q3,MOT.AccX,MOT.AccY,MOT.AccZ,MOT.MagX,MOT.MagY,MOT.MagZ,MC.Action,MC.ActionPower,MC.IsActive,PM.Engagement.IsActive,PM.Engagement.Scaled,PM.Engagement.Raw,PM.Engagement.Min,PM.Engagement.Max,PM.Excitement.IsActive,PM.Excitement.Scaled,PM.Excitement.Raw,PM.Excitement.Min,PM.Excitement.Max,PM.LongTermExcitement,PM.Stress.IsActive,PM.Stress.Scaled,PM.Stress.Raw,PM.Stress.Min,PM.Stress.Max,PM.Relaxation.IsActive,PM.Relaxation.Scaled,PM.Relaxation.Raw,PM.Relaxation.Min,PM.Relaxation.Max,PM.Interest.IsActive,PM.Interest.Scaled,PM.Interest.Raw,PM.Interest.Min,PM.Interest.Max,PM.Focus.IsActive,PM.Focus.Scaled,PM.Focus.Raw,PM.Focus.Min,PM.Focus.Max,FE.BlinkWink,FE.HorizontalEyesDirection,FE.UpperFaceAction,FE.UpperFaceActionPower,FE.LowerFaceAction,FE.LowerFaceActionPower,POW.AF3.Theta,POW.AF3.Alpha,POW.AF3.BetaL,POW.AF3.BetaH,POW.AF3.Gamma,POW.T7.Theta,POW.T7.Alpha,POW.T7.BetaL,POW.T7.BetaH,POW.T7.Gamma,POW.Pz.Theta,POW.Pz.Alpha,POW.Pz.BetaL,POW.Pz.BetaH,POW.Pz.Gamma,POW.T8.Theta,POW.T8.Alpha,POW.T8.BetaL,POW.T8.BetaH,POW.T8.Gamma,POW.AF4.Theta,POW.AF4.Alpha,POW.AF4.BetaL,POW.AF4.BetaH,POW.AF4.Gamma
38282,1645901200.779648,1645901200.820676,57.0,0.0,4357.436035,4478.974121,4192.307617,4169.743652,4265.641113000001,0.0,1.0,15.0,,,,0.0,4.0,1.0,4.0,4.0,4.0,75.0,,,,,,,,,,,,,,,,,,,,,,,,,,,,,,,,,,,,,,,,,,,,,,,,,,,,,,,,,,,,,,,,,,,,,,,,,,,,,,,,,,,,
38283,1645901200.787462,1645901200.82849,58.0,0.0,4350.769043,4355.897461,4233.333496,4191.794922,4293.846191,0.0,1.0,15.0,,,,0.0,4.0,1.0,4.0,4.0,4.0,75.0,,,,,,,,29.0,0.0,0.7198479999999999,0.10790999999999999,0.6660159999999999,0.16308599999999998,0.917006,-0.372076,-0.088869,-0.028594,-0.033586000000000005,-0.0057020000000000005,,,,,,,,,,,,,,,,,,,,,,,,,,,,,,,,,,,0.0,0.0,1.0,0.0,512.0,0.5772649999999999,,,,,,,,,,,,,,,,,,,,,,,,,
38284,1645901200.795275,1645901200.8363051,59.0,0.0,4333.846191,4367.692383,4220.0,4195.897461,4305.128418,0.0,1.0,15.0,,,,0.0,4.0,1.0,4.0,4.0,4.0,75.0,,,,,,,,,,,,,,,,,,,,,,,,,,,,,,,,,,,,,,,,,,,,,,,,,,,,,,,,,,,,,,,,,,,,,,,,,,,,,,,,,,,,
38285,1645901200.8030891,1645901200.84412,60.0,0.0,4318.461426,4456.410156,4213.846191,4168.205078,4291.794922,0.0,1.0,15.0,,,,0.0,4.0,1.0,4.0,4.0,4.0,75.0,,,,,,,,30.0,0.0,0.719904,0.10790999999999999,0.6660159999999999,0.16284200000000001,0.926284,-0.366217,-0.09033300000000001,-0.029006,-0.033645999999999995,-0.007378,,,,,,,,,,,,,,,,,,,,,,,,,,,,,,,,,,,,,,,,,,,,,,,,,,,,,,,,,,,,,,,,,
38286,1645901200.8109019,1645901200.852034,61.0,0.0,4302.05127,4476.922852000001,4238.974121,4152.307617,4262.05127,0.0,1.0,15.0,,,,0.0,4.0,0.0,4.0,4.0,4.0,66.666664,,,,,,,,,,,,,,,,,,,,,,,,,,,,,,,,,,,,,,,,,,,,,,,,,,,,,,,,,,,,,,,,,,,,,,,,,,,,,,,,,,,,
38287,1645901200.818716,1645901200.859849,62.0,0.0,4320.512695,4473.333496,4266.666504,4172.820313,4253.333496,0.0,1.0,15.0,,,,0.0,4.0,0.0,4.0,4.0,4.0,66.666664,,,,,,,,31.0,0.0,0.719904,0.10790999999999999,0.6660159999999999,0.16284200000000001,0.9331200000000001,-0.354986,-0.08838,-0.029327999999999996,-0.03365,-0.008886,,,,,,,,,,,,,,,,,,,,,,,,,,,,,,,,,,,0.0,0.0,1.0,0.0,512.0,0.5772649999999999,,,,,,,,,,,,,,,,,,,,,,,,,
38288,1645901200.82653,1645901200.8676631,63.0,0.0,4340.512695,4492.820313,4250.256348,4182.05127,4253.846191,0.0,1.0,15.0,,,,0.0,4.0,0.0,4.0,4.0,4.0,66.666664,,,,,,,,,,,,,,,,,,,,,,,,,,,,,,,,,,,,,,,,,,,,,,,,,,,,,,,,,,,,,,,,,,,,,,,,,,,,,,,,,,,,
38289,1645901200.834343,1645901200.875478,64.0,0.0,4328.717772999999,4522.563965,4231.282227000001,4153.846191,4243.589844,450.0,1.0,15.0,,,,0.0,4.0,0.0,4.0,4.0,4.0,66.666664,,,,,,,,32.0,0.0,0.719959,0.10790999999999999,0.6660159999999999,0.162598,0.9389790000000001,-0.373541,-0.087892,-0.029716000000000003,-0.033655000000000004,-0.010244,,,,,,,,,,,,,,,,,,,,,,,,,,,,,,,,,,,,,,,,,,,,,,,,,,,,,,,,,,,,,,,,,
38290,1645901200.8421571,1645901200.883293,65.0,0.0,4301.025879,4518.461426,4220.512695,4141.025879,4247.179688,450.0,1.0,15.0,,,,0.0,4.0,0.0,4.0,4.0,4.0,66.666664,,,,,,,,,,,,,,,,,,,,,,,,,,,,,,,,,,,,,,,,,,,,,,,,,,,,,,,,,,,,,,,,,,,,,,,,,,,,,,,,,,,,
38291,1645901200.8499699,1645901200.891107,66.0,0.0,4303.589844,4480.0,4193.846191,4168.205078,4268.717772999999,16059.0,1.0,15.0,,,,0.0,4.0,0.0,4.0,4.0,4.0,66.666664,,,,,,,,33.0,0.0,0.7201850000000001,0.10790999999999999,0.665771,0.162598,0.937514,-0.358892,-0.095216,-0.029869,-0.033707,-0.008389,,,,,,,,,,,,,,,,,,,,,,,,,,,,,,,,,,,0.0,0.0,1.0,0.0,512.0,0.5772649999999999,,,,,,,,,,,,,,,,,,,,,,,,,
38292,1645901200.857784,1645901200.898922,67.0,0.0,4321.025879,4497.436035,4180.512695,4192.820313,4288.205078,450.0,1.0,15.0,,,,0.0,4.0,0.0,4.0,4.0,4.0,66.666664,,,,,,,,,,,,,,,,,,,,,,,,,,,,,,,,,,,,,,,,,,,,,,,,,,,,,,,,,,,,,,,,,,,,,,,,,,,,,,,,,,,,
38293,1645901200.865598,1645901200.9067369,68.0,0.0,4310.769043,4507.692383,4253.846191,4181.538574,4257.436035,0.0,1.0,15.0,,,,0.0,4.0,0.0,4.0,4.0,4.0,66.666664,,,,,,,,34.0,0.0,0.720276,0.10766600000000001,0.665771,0.162354,0.9316549999999999,-0.373053,-0.08984500000000001,-0.030105,-0.033608,-0.009748,,,,,,,,,,,,,,,,,,,,,,,,,,,,,,,,,,,,,,,,,,,,,,,,,,,,,,,,,,,,,,,,,
38294,1645901200.873411,1645901200.914551,69.0,0.0,4330.256348,4473.846191,4254.871582,4145.128418,4260.512695,450.0,1.0,15.0,,,,0.0,4.0,0.0,4.0,4.0,4.0,66.666664,,,,,,,,,,,,,,,,,,,,,,,,,,,,,,,,,,,,,,,,,,,,,,,,,,,,,,,,,,,,,,,,,,,,,,,,,,,,,,,,,,,,
38295,1645901200.881225,1645901200.922366,70.0,0.0,4330.769043,4491.282227000001,4257.436035,4142.563965,4309.743652,16296.0,1.0,15.0,,,,0.0,4.0,0.0,4.0,4.0,4.0,66.666664,,,,,,,,35.0,0.0,0.720331,0.10766600000000001,0.665771,0.162109,0.936049,-0.36817,-0.09472799999999999,-0.030268,-0.033616,-0.011068000000000001,1.0,0.0,0.0,,,,,,,,,,,,,,,,,,,,,,,,,,,,,,,,0.0,0.0,1.0,0.0,512.0,0.7226640000000001,6.178383,2.266864,5.681094,1.3147209999999998,1.07989,40.963924,25.840495999999998,24.965651,16.725367000000002,18.572557,62.559349,43.504298999999996,21.225197,3.056355,7.629116000000001,5.021715,1.6686580000000002,3.1399340000000002,4.620149,2.107198,5.458699,3.5451010000000003,8.84223,2.8087590000000002,1.6107120000000001
38296,1645901200.889038,1645901200.93028,71.0,0.0,4333.333496,4492.820313,4260.512695,4158.974121,4307.179688,450.0,1.0,15.0,,,,0.0,4.0,0.0,4.0,4.0,2.0,50.0,,,,,,,,,,,,,,,,,,,,,,,,,,,,,,,,,,,,,,,,,,,,,,,,,,,,,,,,,,,,,,,,,,,,,,,,,,,,,,,,,,,,
38297,1645901200.896852,1645901200.9380949,72.0,0.0,4349.743652,4429.743652,4236.922852000001,4135.897461,4285.641113000001,450.0,1.0,15.0,,,,0.0,4.0,0.0,4.0,4.0,2.0,50.0,,,,,,,,36.0,0.0,0.720331,0.10766600000000001,0.665771,0.162109,0.9472799999999999,-0.370123,-0.085939,-0.030416000000000002,-0.033624,-0.012206999999999999,,,,,,,,,,,,,,,,,,,,,,,,,,,,,,,,,,,,,,,,,,,,,,,,,,,,,,,,,,,,,,,,,
38298,1645901200.904666,1645901200.94591,73.0,0.0,4348.717772999999,4448.717772999999,4226.153809,4150.769043,4299.487305,16065.0,1.0,15.0,,,,0.0,4.0,0.0,4.0,4.0,2.0,50.0,,,,,,,,,,,,,,,,,,,,,,,,,,,,,,,,,,,,,,,,,,,,,,,,,,,,,,,,,,,,,,,,,,,,,,,,,,,,,,,,,,,,
38299,1645901200.912479,1645901200.953724,74.0,0.0,4338.461426,4534.358886999999,4236.922852000001,4161.538574,4278.461426,450.0,1.0,15.0,,,,0.0,4.0,0.0,4.0,4.0,2.0,50.0,,,,,,,,37.0,0.0,0.720105,0.10766600000000001,0.6660159999999999,0.162109,0.939467,-0.37598200000000004,-0.10693499999999999,-0.03045,-0.03368,-0.013330000000000002,,,,,,,,,,,,,,,,,,,,,,,,,,,,,,,,,,,0.0,0.0,1.0,0.0,512.0,0.7226640000000001,,,,,,,,,,,,,,,,,,,,,,,,,
38300,1645901200.9202929,1645901200.961539,75.0,0.0,4329.743652,4470.256348,4208.205078,4144.102539,4251.282227000001,313.0,1.0,15.0,,,,0.0,4.0,0.0,4.0,4.0,2.0,50.0,,,,,,,,,,,,,,,,,,,,,,,,,,,,,,,,,,,,,,,,,,,,,,,,,,,,,,,,,,,,,,,,,,,,,,,,,,,,,,,,,,,,
38301,1645901200.928106,1645901200.969354,76.0,0.0,4314.358886999999,4391.794922,4206.666504,4163.077147999999,4261.538574,450.0,1.0,15.0,,,,0.0,4.0,0.0,4.0,4.0,2.0,50.0,,,,,,,,38.0,0.0,0.720105,0.10766600000000001,0.6660159999999999,0.162109,0.9340959999999999,-0.354009,-0.083009,-0.03053,-0.033632,-0.011167,,,,,,,,,,,,,,,,,,,,,,,,,,,,,,,,,,,,,,,,,,,,,,,,,,,,,,,,,,,,,,,,,
38302,1645901200.93592,1645901200.977168,77.0,0.0,4305.128418,4461.538574,4262.563965,4193.333496,4277.436035,450.0,1.0,15.0,,,,0.0,4.0,0.0,4.0,4.0,2.0,50.0,,,,,,,,,,,,,,,,,,,,,,,,,,,,,,,,,,,,,,,,,,,,,,,,,,,,,,,,,,,,,,,,,,,,,,,,,,,,,,,,,,,,
38303,1645901200.943734,1645901200.984983,78.0,0.0,4311.282227000001,4486.153809,4211.794922,4170.769043,4266.153809,450.0,1.0,15.0,,,,0.0,4.0,0.0,4.0,4.0,2.0,50.0,,,,,,,,39.0,0.0,0.72016,0.10766600000000001,0.6660159999999999,0.161865,0.945327,-0.375006,-0.10009900000000001,-0.030650999999999998,-0.033687,-0.012297,,,,,,,,,,,,,,,,,,,,,,,,,,,,,,,,,,,0.0,0.0,1.0,0.0,512.0,0.7226640000000001,,,,,,,,,,,,,,,,,,,,,,,,,
38304,1645901200.9515471,1645901200.992798,79.0,0.0,4320.0,4457.436035,4223.077147999999,4146.153809,4265.128418,313.0,1.0,15.0,,,,0.0,4.0,0.0,4.0,4.0,2.0,50.0,,,,,,,,,,,,,,,,,,,,,,,,,,,,,,,,,,,,,,,,,,,,,,,,,,,,,,,,,,,,,,,,,,,,,,,,,,,,,,,,,,,,
38305,1645901200.9593608,1645901201.000712,80.0,0.0,4322.563965,4486.153809,4289.230957,4161.025879,4254.358886999999,450.0,1.0,15.0,,,,0.0,4.0,0.0,4.0,4.0,2.0,50.0,,,,,,,,40.0,0.0,0.720197,0.107422,0.6660159999999999,0.161865,0.929213,-0.361334,-0.09033300000000001,-0.030760000000000003,-0.033589999999999995,-0.010139,,,,,,,,,,,,,,,,,,,,,,,,,,,,,,,,,,,,,,,,,,,,,,,,,,,,,,,,,,,,,,,,,
38306,1645901200.967174,1645901201.008527,81.0,0.0,4331.282227000001,4526.666504,4278.461426,4167.179688,4241.538574,450.0,1.0,15.0,,,,0.0,4.0,0.0,4.0,4.0,2.0,50.0,,,,,,,,,,,,,,,,,,,,,,,,,,,,,,,,,,,,,,,,,,,,,,,,,,,,,,,,,,,,,,,,,,,,,,,,,,,,,,,,,,,,
38307,1645901200.974988,1645901201.016341,82.0,0.0,4327.692383,4485.641113000001,4244.615234000001,4160.512695,4269.743652,450.0,1.0,15.0,,,,0.0,4.0,0.0,4.0,4.0,2.0,50.0,,,,,,,,41.0,0.0,0.719971,0.107422,0.6662600000000001,0.161865,0.9433739999999999,-0.361822,-0.084962,-0.030808999999999996,-0.033551,-0.008295,,,,,,,,,,,,,,,,,,,,,,,,,,,,,,,,,,,0.0,0.0,1.0,0.0,512.0,0.7226640000000001,,,,,,,,,,,,,,,,,,,,,,,,,
38308,1645901200.982802,1645901201.024156,83.0,0.0,4331.794922,4470.256348,4235.384765999999,4148.205078,4290.256348,313.0,1.0,15.0,,,,0.0,4.0,0.0,4.0,4.0,2.0,50.0,,,,,,,,,,,,,,,,,,,,,,,,,,,,,,,,,,,,,,,,,,,,,,,,,,,,,,,,,,,,,,,,,,,,,,,,,,,,,,,,,,,,
38309,1645901200.9906151,1645901201.031971,84.0,0.0,4330.769043,4484.615234000001,4194.871582,4145.641113000001,4292.820313,450.0,1.0,15.0,,,,0.0,4.0,0.0,4.0,4.0,2.0,50.0,,,,,,,,42.0,0.0,0.719971,0.107422,0.6662600000000001,0.161865,0.9365379999999999,-0.359869,-0.09472799999999999,-0.030902,-0.033614,-0.009712,,,,,,,,,,,,,,,,,,,,,,,,,,,,,,,,,,,,,,,,,,,,,,,,,,,,,,,,,,,,,,,,,
38310,1645901200.9984288,1645901201.039785,85.0,0.0,4300.0,4424.615234000001,4197.436035,4180.512695,4268.717772999999,450.0,1.0,15.0,,,,0.0,4.0,0.0,4.0,4.0,2.0,50.0,,,,,,,,,,,,,,,,,,,,,,,,,,,,,,,,,,,,,,,,,,,,,,,,,,,,,,,,,,,,,,,,,,,,,,,,,,,,,,,,,,,,
38311,1645901201.006242,1645901201.0476,86.0,0.0,4307.692383,4437.436035,4210.256348,4182.563965,4268.205078,450.0,1.0,15.0,,,,0.0,4.0,0.0,4.0,4.0,2.0,50.0,1.0,16.666666,3.0,0.0,0.0,2.0,2.0,43.0,0.0,0.719952,0.107178,0.6662600000000001,0.162109,0.934585,-0.361822,-0.09472799999999999,-0.027861,-0.033622000000000006,-0.010987,1.0,0.0,0.0,,,,,,,,,,,,,,,,,,,,,,,,,,,,,,,,0.0,0.0,1.0,0.0,512.0,0.68321,7.664314999999999,3.413935,5.727034,1.367523,1.3362020000000001,34.988682,20.256107,22.873289,14.270247,16.496349,60.792515,42.831924,22.256429999999998,3.24207,9.538264999999999,4.677279,1.503295,2.925814,5.210374,2.413928,4.96091,4.4587010000000005,10.835481,3.7137029999999998,1.8673689999999998
38312,1645901201.014056,1645901201.0554152,87.0,0.0,4325.128418,4521.538574,4221.538574,4162.563965,4293.846191,313.0,1.0,15.0,,,,0.0,4.0,0.0,4.0,4.0,2.0,50.0,,,,,,,,,,,,,,,,,,,,,,,,,,,,,,,,,,,,,,,,,,,,,,,,,,,,,,,,,,,,,,,,,,,,,,,,,,,,,,,,,,,,
38313,1645901201.02187,1645901201.0632288,88.0,0.0,4344.615234000001,4535.384765999999,4189.743652,4170.256348,4314.871582,450.0,1.0,15.0,,,,0.0,4.0,0.0,4.0,4.0,2.0,50.0,,,,,,,,44.0,0.0,0.719916,0.107422,0.6662600000000001,0.162109,0.9199360000000001,-0.367681,-0.09765800000000001,-0.0282,-0.03358,-0.009106999999999999,,,,,,,,,,,,,,,,,,,,,,,,,,,,,,,,,,,,,,,,,,,,,,,,,,,,,,,,,,,,,,,,,
38314,1645901201.029683,1645901201.0711439,89.0,0.0,4338.461426,4513.846191,4198.461426,4146.666504,4312.307617,450.0,1.0,15.0,,,,0.0,4.0,0.0,4.0,4.0,2.0,50.0,,,,,,,,,,,,,,,,,,,,,,,,,,,,,,,,,,,,,,,,,,,,,,,,,,,,,,,,,,,,,,,,,,,,,,,,,,,,,,,,,,,,
38315,1645901201.037497,1645901201.078959,90.0,0.0,4338.461426,4480.512695,4212.307617,4117.436035,4297.436035,450.0,1.0,15.0,,,,0.0,4.0,0.0,4.0,4.0,2.0,50.0,,,,,,,,45.0,0.0,0.719916,0.107422,0.6662600000000001,0.162109,0.9277489999999999,-0.366705,-0.082521,-0.028505000000000003,-0.033542,-0.010442,,,,,,,,,,,,,,,,,,,,,,,,,,,,,,,,,,,0.0,0.0,1.0,0.0,512.0,0.68321,,,,,,,,,,,,,,,,,,,,,,,,,
38316,1645901201.04531,1645901201.0867732,91.0,0.0,4349.230957,4409.230957,4211.794922,4110.769043,4281.025879,313.0,1.0,15.0,,,,0.0,4.0,0.0,4.0,4.0,2.0,50.0,,,,,,,,,,,,,,,,,,,,,,,,,,,,,,,,,,,,,,,,,,,,,,,,,,,,,,,,,,,,,,,,,,,,,,,,,,,,,,,,,,,,
38317,1645901201.053124,1645901201.094588,92.0,0.0,4340.512695,4401.538574,4221.538574,4136.410156,4274.358886999999,450.0,1.0,15.0,,,,0.0,4.0,0.0,4.0,4.0,2.0,50.0,,,,,,,,46.0,0.0,0.719971,0.107422,0.6662600000000001,0.161865,0.936049,-0.36817,-0.08691499999999999,-0.028975,-0.033557,-0.00847,,,,,,,,,,,,,,,,,,,,,,,,,,,,,,,,,,,,,,,,,,,,,,,,,,,,,,,,,,,,,,,,,
38318,1645901201.0609381,1645901201.102402,93.0,0.0,4332.820313,4487.692383,4224.102539,4158.461426,4281.538574,450.0,1.0,15.0,,,,0.0,4.0,0.0,4.0,4.0,2.0,50.0,,,,,,,,,,,,,,,,,,,,,,,,,,,,,,,,,,,,,,,,,,,,,,,,,,,,,,,,,,,,,,,,,,,,,,,,,,,,,,,,,,,,
38319,1645901201.0687509,1645901201.110217,94.0,0.0,4349.230957,4564.615234000001,4210.769043,4165.128418,4286.153809,450.0,1.0,15.0,,,,0.0,4.0,0.0,4.0,4.0,2.0,50.0,,,,,,,,47.0,0.0,0.719745,0.107422,0.666504,0.161865,0.9365379999999999,-0.36817,-0.09131,-0.029202,-0.033571,-0.009918000000000001,,,,,,,,,,,,,,,,,,,,,,,,,,,,,,,,,,,0.0,0.0,1.0,0.0,512.0,0.68321,,,,,,,,,,,,,,,,,,,,,,,,,
38320,1645901201.076565,1645901201.118032,95.0,0.0,4356.410156,4586.153809,4215.897461,4132.820313,4260.512695,313.0,1.0,15.0,,,,0.0,4.0,0.0,4.0,4.0,2.0,50.0,,,,,,,,,,,,,,,,,,,,,,,,,,,,,,,,,,,,,,,,,,,,,,,,,,,,,,,,,,,,,,,,,,,,,,,,,,,,,,,,,,,,
38321,1645901201.084378,1645901201.1258461,96.0,0.0,4332.307617,4549.230957,4287.692383,4115.897461,4263.589844,450.0,1.0,15.0,,,,0.0,4.0,0.0,4.0,4.0,2.0,50.0,,,,,,,,48.0,0.0,0.719934,0.10766600000000001,0.6662600000000001,0.161865,0.932143,-0.370123,-0.091798,-0.026331,-0.033533999999999994,-0.011173,,,,,,,,,,,,,,,,,,,,,,,,,,,,,,,,,,,,,,,,,,,,,,,,,,,,,,,,,,,,,,,,,
38322,1645901201.092192,1645901201.133661,97.0,0.0,4325.641113000001,4489.230957,4254.358886999999,4138.974121,4306.153809,450.0,1.0,15.0,,,,0.0,4.0,0.0,4.0,4.0,2.0,50.0,,,,,,,,,,,,,,,,,,,,,,,,,,,,,,,,,,,,,,,,,,,,,,,,,,,,,,,,,,,,,,,,,,,,,,,,,,,,,,,,,,,,
38323,1645901201.100006,1645901201.141576,98.0,0.0,4339.487305,4475.384765999999,4223.077147999999,4128.205078,4304.615234000001,450.0,1.0,15.0,,,,0.0,4.0,0.0,4.0,4.0,2.0,50.0,,,,,,,,49.0,0.0,0.719934,0.10766600000000001,0.6662600000000001,0.161865,0.941421,-0.364752,-0.092775,-0.02692,-0.033451999999999996,-0.012301000000000001,,,,,,,,,,,,,,,,,,,,,,,,,,,,,,,,,,,0.0,0.0,1.0,0.0,512.0,0.68321,,,,,,,,,,,,,,,,,,,,,,,,,
38324,1645901201.1078188,1645901201.14939,99.0,0.0,4340.512695,4462.563965,4216.922852000001,4114.871582,4265.128418,313.0,1.0,15.0,,,,0.0,4.0,0.0,4.0,4.0,2.0,50.0,,,,,,,,,,,,,,,,,,,,,,,,,,,,,,,,,,,,,,,,,,,,,,,,,,,,,,,,,,,,,,,,,,,,,,,,,,,,,,,,,,,,
38325,1645901201.115633,1645901201.157205,100.0,0.0,4327.179688,4410.256348,4238.974121,4135.384765999999,4276.922852000001,450.0,1.0,15.0,,,,0.0,4.0,0.0,4.0,4.0,2.0,50.0,,,,,,,,50.0,0.0,0.719745,0.107422,0.666504,0.161865,0.9365379999999999,-0.36817,-0.09131,-0.0275,-0.033525,-0.010192,,,,,,,,,,,,,,,,,,,,,,,,,,,,,,,,,,,,,,,,,,,,,,,,,,,,,,,,,,,,,,,,,
38326,1645901201.123446,1645901201.16502,101.0,0.0,4332.307617,4388.205078,4248.717772999999,4161.538574,4316.922852000001,450.0,1.0,15.0,,,,0.0,4.0,0.0,4.0,4.0,2.0,50.0,,,,,,,,,,,,,,,,,,,,,,,,,,,,,,,,,,,,,,,,,,,,,,,,,,,,,,,,,,,,,,,,,,,,,,,,,,,,,,,,,,,,
38327,1645901201.13126,1645901201.172834,102.0,0.0,4362.563965,4449.230957,4246.666504,4154.871582,4296.922852000001,450.0,1.0,15.0,,,,0.0,4.0,0.0,4.0,4.0,2.0,50.0,,,,,,,,51.0,0.0,0.719934,0.10766600000000001,0.6662600000000001,0.161865,0.941421,-0.364752,-0.092775,-0.027973,-0.033444,-0.011419,1.0,0.0,0.0,,,,,,,,,,,,,,,,,,,,,,,,,,,,,,,,0.0,0.0,1.0,0.0,512.0,0.659725,9.123002,4.714106,5.464786,1.486326,1.600077,29.24884,17.572159,20.069485,12.780595,15.428503,57.225239,40.794342,22.211407,3.393847,11.466312,4.4040550000000005,1.388878,3.349678,5.932384,2.729446,4.534567,5.288404,12.06291,4.673491,2.113059
38328,1645901201.1390731,1645901201.180649,103.0,0.0,4369.743652,4493.846191,4238.461426,4151.794922,4266.666504,313.0,1.0,15.0,,,,0.0,4.0,0.0,4.0,4.0,2.0,50.0,,,,,,,,,,,,,,,,,,,,,,,,,,,,,,,,,,,,,,,,,,,,,,,,,,,,,,,,,,,,,,,,,,,,,,,,,,,,,,,,,,,,
38329,1645901201.1468868,1645901201.188463,104.0,0.0,4342.05127,4398.974121,4244.102539,4156.922852000001,4263.077147999999,450.0,1.0,15.0,,,,0.0,4.0,0.0,4.0,4.0,2.0,50.0,,,,,,,,52.0,0.0,0.719745,0.107422,0.666504,0.161865,0.944839,-0.370611,-0.089357,-0.028447000000000004,-0.033518,-0.009398,,,,,,,,,,,,,,,,,,,,,,,,,,,,,,,,,,,,,,,,,,,,,,,,,,,,,,,,,,,,,,,,,
38330,1645901201.154701,1645901201.1962779,105.0,0.0,4338.974121,4338.974121,4225.128418,4163.077147999999,4283.589844,450.0,1.0,15.0,,,,0.0,4.0,0.0,4.0,4.0,2.0,50.0,,,,,,,,,,,,,,,,,,,,,,,,,,,,,,,,,,,,,,,,,,,,,,,,,,,,,,,,,,,,,,,,,,,,,,,,,,,,,,,,,,,,
38331,1645901201.162514,1645901201.204093,106.0,0.0,4348.205078,4453.333496,4186.666504,4157.436035,4285.128418,450.0,1.0,15.0,,,,0.0,4.0,0.0,4.0,4.0,2.0,50.0,,,,,,,,53.0,0.0,0.7198,0.107422,0.666504,0.16162100000000001,0.929702,-0.361334,-0.091798,-0.028923,-0.033535,-0.010801999999999999,,,,,,,,,,,,,,,,,,,,,,,,,,,,,,,,,,,0.0,0.0,1.0,0.0,512.0,0.659725,,,,,,,,,,,,,,,,,,,,,,,,,
38332,1645901201.170328,1645901201.2119071,107.0,0.0,4353.846191,4522.563965,4194.358886999999,4172.820313,4283.077147999999,313.0,1.0,15.0,,,,0.0,4.0,0.0,4.0,4.0,2.0,50.0,,,,,,,,,,,,,,,,,,,,,,,,,,,,,,,,,,,,,,,,,,,,,,,,,,,,,,,,,,,,,,,,,,,,,,,,,,,,,,,,,,,,
38333,1645901201.178141,1645901201.2198222,108.0,0.0,4343.589844,4448.717772999999,4194.358886999999,4208.717772999999,4277.94873,450.0,1.0,15.0,,,,0.0,4.0,0.0,4.0,4.0,2.0,50.0,,,,,,,,54.0,0.0,0.7198,0.107422,0.666504,0.16162100000000001,0.941909,-0.36817,-0.08691499999999999,-0.029351,-0.033551,-0.011968000000000001,,,,,,,,,,,,,,,,,,,,,,,,,,,,,,,,,,,,,,,,,,,,,,,,,,,,,,,,,,,,,,,,,
38334,1645901201.185955,1645901201.2276368,109.0,0.0,4335.897461,4422.563965,4201.025879,4208.205078,4271.282227000001,450.0,1.0,15.0,,,,0.0,4.0,0.0,4.0,4.0,2.0,50.0,,,,,,,,,,,,,,,,,,,,,,,,,,,,,,,,,,,,,,,,,,,,,,,,,,,,,,,,,,,,,,,,,,,,,,,,,,,,,,,,,,,,
38335,1645901201.193769,1645901201.235451,110.0,0.0,4329.743652,4455.897461,4231.794922,4157.94873,4268.717772999999,450.0,1.0,15.0,,,,0.0,4.0,0.0,4.0,4.0,2.0,50.0,,,,,,,,55.0,0.0,0.7195739999999999,0.107422,0.666748,0.16162100000000001,0.948257,-0.366217,-0.085451,-0.029541,-0.033565,-0.009892,,,,,,,,,,,,,,,,,,,,,,,,,,,,,,,,,,,0.0,0.0,1.0,0.0,512.0,0.659725,,,,,,,,,,,,,,,,,,,,,,,,,
38336,1645901201.201582,1645901201.243266,111.0,0.0,4317.436035,4475.384765999999,4269.230957,4132.820313,4290.256348,313.0,1.0,15.0,,,,0.0,4.0,0.0,4.0,4.0,2.0,50.0,,,,,,,,,,,,,,,,,,,,,,,,,,,,,,,,,,,,,,,,,,,,,,,,,,,,,,,,,,,,,,,,,,,,,,,,,,,,,,,,,,,,
38337,1645901201.2093961,1645901201.251081,112.0,0.0,4312.820313,4464.615234000001,4255.384765999999,4144.615234000001,4302.563965,450.0,1.0,15.0,,,,0.0,4.0,0.0,4.0,4.0,2.0,50.0,,,,,,,,56.0,0.0,0.7195739999999999,0.107422,0.666748,0.16162100000000001,0.934585,-0.373053,-0.09765800000000001,-0.029858,-0.033578,-0.008024,,,,,,,,,,,,,,,,,,,,,,,,,,,,,,,,,,,,,,,,,,,,,,,,,,,,,,,,,,,,,,,,,
38338,1645901201.217209,1645901201.258895,113.0,0.0,4327.179688,4456.410156,4268.717772999999,4152.820313,4283.589844,450.0,1.0,15.0,,,,0.0,4.0,0.0,4.0,4.0,2.0,50.0,,,,,,,,,,,,,,,,,,,,,,,,,,,,,,,,,,,,,,,,,,,,,,,,,,,,,,,,,,,,,,,,,,,,,,,,,,,,,,,,,,,,
38339,1645901201.225023,1645901201.26671,114.0,0.0,4337.94873,4476.922852000001,4313.333496,4167.179688,4277.94873,450.0,1.0,15.0,,,,0.0,4.0,0.0,4.0,4.0,2.0,50.0,,,,,,,,57.0,0.0,0.7195550000000001,0.107178,0.666748,0.161865,0.923842,-0.37598200000000004,-0.087404,-0.026920999999999997,-0.033638,-0.009566,,,,,,,,,,,,,,,,,,,,,,,,,,,,,,,,,,,0.0,0.0,1.0,0.0,512.0,0.659725,,,,,,,,,,,,,,,,,,,,,,,,,
38340,1645901201.232837,1645901201.274524,115.0,0.0,4346.666504,4489.743652,4310.769043,4170.769043,4268.717772999999,313.0,1.0,15.0,,,,0.0,4.0,0.0,4.0,4.0,2.0,50.0,,,,,,,,,,,,,,,,,,,,,,,,,,,,,,,,,,,,,,,,,,,,,,,,,,,,,,,,,,,,,,,,,,,,,,,,,,,,,,,,,,,,
38341,1645901201.24065,1645901201.282339,116.0,0.0,4352.820313,4428.205078,4238.461426,4164.102539,4254.871582,450.0,1.0,15.0,,,,0.0,4.0,0.0,4.0,4.0,2.0,50.0,,,,,,,,58.0,0.0,0.719329,0.107178,0.666992,0.161865,0.936049,-0.35938000000000003,-0.098634,-0.027500999999999998,-0.033546,-0.010758,,,,,,,,,,,,,,,,,,,,,,,,,,,,,,,,,,,,,,,,,,,,,,,,,,,,,,,,,,,,,,,,,
38342,1645901201.248464,1645901201.2902539,117.0,0.0,4330.769043,4409.743652,4200.0,4169.230957,4255.384765999999,450.0,1.0,15.0,,,,0.0,4.0,0.0,4.0,4.0,2.0,50.0,,,,,,,,,,,,,,,,,,,,,,,,,,,,,,,,,,,,,,,,,,,,,,,,,,,,,,,,,,,,,,,,,,,,,,,,,,,,,,,,,,,,
38343,1645901201.2562768,1645901201.298068,118.0,0.0,4327.179688,4510.256348,4167.692383,4152.820313,4284.102539,450.0,1.0,15.0,,,,0.0,4.0,0.0,4.0,4.0,2.0,50.0,,,,,,,,59.0,0.0,0.719329,0.107178,0.666992,0.161865,0.9272600000000001,-0.36524,-0.078614,-0.027924,-0.03356,-0.008803,1.0,0.0,0.0,,,,,,,,,,,,,,,,,,,,,,,,,,,,,,,,0.0,0.0,1.0,0.0,512.0,0.760788,10.215150999999999,5.813681,4.969349,1.653934,1.811536,24.739344,17.841038,17.052958,12.832007,15.303536,52.573265,38.41695,21.253494,3.3970949999999998,12.893526,4.0905879999999994,1.293379,4.262601,6.544521,3.0029630000000003,4.230757,5.771612,12.221264,5.504803,2.3003009999999997
38344,1645901201.264091,1645901201.305883,119.0,0.0,4324.615234000001,4469.230957,4193.846191,4146.153809,4287.692383,313.0,1.0,15.0,,,,0.0,4.0,0.0,4.0,4.0,2.0,50.0,,,,,,,,,,,,,,,,,,,,,,,,,,,,,,,,,,,,,,,,,,,,,,,,,,,,,,,,,,,,,,,,,,,,,,,,,,,,,,,,,,,,
38345,1645901201.2719052,1645901201.313698,120.0,0.0,4323.589844,4378.461426,4208.205078,4168.205078,4285.641113000001,450.0,1.0,15.0,,,,0.0,4.0,0.0,4.0,4.0,2.0,50.0,,,,,,,,60.0,0.0,0.719329,0.107178,0.666992,0.161865,0.925307,-0.374029,-0.083009,-0.025181,-0.033525,-0.010218000000000001,,,,,,,,,,,,,,,,,,,,,,,,,,,,,,,,,,,,,,,,,,,,,,,,,,,,,,,,,,,,,,,,,
38346,1645901201.279718,1645901201.321512,121.0,0.0,4315.384765999999,4459.487305,4226.666504,4148.205078,4305.641113000001,450.0,1.0,15.0,,,,0.0,4.0,0.0,4.0,4.0,2.0,50.0,,,,,,,,,,,,,,,,,,,,,,,,,,,,,,,,,,,,,,,,,,,,,,,,,,,,,,,,,,,,,,,,,,,,,,,,,,,,,,,,,,,,
38347,1645901201.287532,1645901201.3293269,122.0,0.0,4316.410156,4489.230957,4245.641113000001,4133.846191,4304.102539,450.0,1.0,15.0,,,,0.0,4.0,0.0,4.0,4.0,2.0,50.0,,,,,,,,61.0,0.0,0.719329,0.107178,0.666992,0.161865,0.9389790000000001,-0.372564,-0.093263,-0.025837,-0.033541,-0.008415,,,,,,,,,,,,,,,,,,,,,,,,,,,,,,,,,,,0.0,0.0,1.0,0.0,512.0,0.760788,,,,,,,,,,,,,,,,,,,,,,,,,
38348,1645901201.2953448,1645901201.337142,123.0,0.0,4327.179688,4430.256348,4256.410156,4135.897461,4271.282227000001,313.0,1.0,15.0,,,,0.0,4.0,0.0,4.0,4.0,2.0,50.0,,,,,,,,,,,,,,,,,,,,,,,,,,,,,,,,,,,,,,,,,,,,,,,,,,,,,,,,,,,,,,,,,,,,,,,,,,,,,,,,,,,,
38349,1645901201.303159,1645901201.3449562,124.0,0.0,4332.820313,4424.615234000001,4264.615234000001,4137.436035,4260.0,450.0,1.0,15.0,,,,0.0,4.0,0.0,4.0,4.0,2.0,50.0,,,,,,,,62.0,0.0,0.719102,0.107178,0.6672359999999999,0.161865,0.945327,-0.377447,-0.072267,-0.026476,-0.033605,-0.009868,,,,,,,,,,,,,,,,,,,,,,,,,,,,,,,,,,,,,,,,,,,,,,,,,,,,,,,,,,,,,,,,,
38350,1645901201.310973,1645901201.352771,125.0,0.0,4317.436035,4395.384765999999,4241.025879,4152.307617,4256.922852000001,450.0,1.0,15.0,,,,0.0,4.0,0.0,4.0,4.0,2.0,50.0,,,,,,,,,,,,,,,,,,,,,,,,,,,,,,,,,,,,,,,,,,,,,,,,,,,,,,,,,,,,,,,,,,,,,,,,,,,,,,,,,,,,
38351,1645901201.318786,1645901201.3606849,126.0,0.0,4323.589844,4374.358886999999,4235.897461,4184.102539,4260.0,450.0,1.0,15.0,,,,0.0,4.0,1.0,0.0,4.0,2.0,25.0,,,,,,,,63.0,0.0,0.719066,0.107422,0.6672359999999999,0.161865,0.9277489999999999,-0.37598200000000004,-0.079591,-0.0271,-0.033614,-0.007953,,,,,,,,,,,,,,,,,,,,,,,,,,,,,,,,,,,0.0,0.0,1.0,0.0,512.0,0.760788,,,,,,,,,,,,,,,,,,,,,,,,,
38352,1645901201.3266,1645901201.3685,127.0,0.0,4341.025879,4423.077147999999,4229.230957,4169.743652,4275.384765999999,233.0,1.0,15.0,,,,0.0,4.0,1.0,0.0,4.0,2.0,25.0,,,,,,,,,,,,,,,,,,,,,,,,,,,,,,,,,,,,,,,,,,,,,,,,,,,,,,,,,,,,,,,,,,,,,,,,,,,,,,,,,,,,
38353,1645901201.334413,1645901201.376315,0.0,0.0,4322.05127,4426.153809,4246.666504,4144.102539,4286.666504,450.0,1.0,15.0,,,,0.0,4.0,1.0,0.0,4.0,2.0,25.0,,,,,,,,0.0,0.0,0.719329,0.107178,0.666992,0.161865,0.9365379999999999,-0.364752,-0.083497,-0.027514999999999998,-0.033719,-0.009404000000000001,,,,,,,,,,,,,,,,,,,,,,,,,,,,,,,,,,,,,,,,,,,,,,,,,,,,,,,,,,,,,,,,,
38354,1645901201.342227,1645901201.3841288,1.0,0.0,4315.384765999999,4407.692383,4243.077147999999,4150.256348,4277.94873,450.0,1.0,15.0,,,,0.0,4.0,1.0,0.0,4.0,2.0,25.0,,,,,,,,,,,,,,,,,,,,,,,,,,,,,,,,,,,,,,,,,,,,,,,,,,,,,,,,,,,,,,,,,,,,,,,,,,,,,,,,,,,,
38355,1645901201.350041,1645901201.391944,2.0,0.0,4318.461426,4435.384765999999,4273.846191,4148.717772999999,4263.589844,16198.0,1.0,15.0,,,,0.0,4.0,1.0,0.0,4.0,2.0,25.0,,,,,,,,1.0,0.0,0.719329,0.107178,0.666992,0.161865,0.9316549999999999,-0.376959,-0.093263,-0.027937,-0.033717000000000004,-0.010856000000000001,,,,,,,,,,,,,,,,,,,,,,,,,,,,,,,,,,,0.0,0.0,1.0,0.0,512.0,0.760788,,,,,,,,,,,,,,,,,,,,,,,,,
38356,1645901201.357854,1645901201.399759,3.0,0.0,4306.153809,4391.794922,4261.025879,4147.179688,4251.282227000001,450.0,1.0,15.0,,,,0.0,4.0,1.0,0.0,4.0,2.0,25.0,,,,,,,,,,,,,,,,,,,,,,,,,,,,,,,,,,,,,,,,,,,,,,,,,,,,,,,,,,,,,,,,,,,,,,,,,,,,,,,,,,,,
38357,1645901201.365668,1645901201.407573,4.0,0.0,4311.282227000001,4346.666504,4216.922852000001,4146.153809,4260.512695,150.0,1.0,15.0,,,,0.0,4.0,1.0,0.0,4.0,2.0,25.0,,,,,,,,2.0,0.0,0.719329,0.107178,0.666992,0.161865,0.9594870000000001,-0.36817,-0.09472799999999999,-0.028415,-0.033616,-0.012115,,,,,,,,,,,,,,,,,,,,,,,,,,,,,,,,,,,,,,,,,,,,,,,,,,,,,,,,,,,,,,,,,
38358,1645901201.373481,1645901201.415388,5.0,0.0,4317.94873,4396.922852000001,4215.897461,4163.077147999999,4286.666504,450.0,1.0,15.0,,,,0.0,4.0,1.0,0.0,4.0,2.0,25.0,,,,,,,,,,,,,,,,,,,,,,,,,,,,,,,,,,,,,,,,,,,,,,,,,,,,,,,,,,,,,,,,,,,,,,,,,,,,,,,,,,,,
38359,1645901201.381295,1645901201.423203,6.0,0.0,4310.256348,4462.05127,4228.205078,4174.358886999999,4252.820313,0.0,1.0,15.0,,,,0.0,4.0,1.0,0.0,4.0,2.0,25.0,,,,,,,,3.0,0.0,0.719329,0.107178,0.666992,0.161865,0.95021,-0.36817,-0.082521,-0.028747,-0.033624,-0.010024,1.0,0.0,0.0,,,,,,,,,,,,,,,,,,,,,,,,,,,,,,,,0.0,0.0,1.0,0.0,512.0,0.724772,10.665823,6.446047,4.344769,1.829463,1.919152,21.745081,20.110483,14.430548000000002,14.707892000000001,15.613520000000001,48.06134,36.360302000000004,19.852176999999998,3.255071,13.373755,3.73189,1.180821,5.295396,6.791442,3.1865330000000003,4.051352,5.88331,11.355053999999999,6.043491,2.393525
38360,1645901201.389109,1645901201.431017,7.0,0.0,4335.384765999999,4489.743652,4183.077147999999,4133.846191,4236.922852000001,450.0,1.0,15.0,,,,0.0,4.0,1.0,0.0,4.0,2.0,25.0,,,,,,,,,,,,,,,,,,,,,,,,,,,,,,,,,,,,,,,,,,,,,,,,,,,,,,,,,,,,,,,,,,,,,,,,,,,,,,,,,,,,
38361,1645901201.396922,1645901201.438932,8.0,0.0,4343.589844,4436.922852000001,4213.333496,4111.282227000001,4271.794922,450.0,1.0,15.0,,,,0.0,4.0,1.0,0.0,4.0,4.0,41.666668,,,,,,,,4.0,0.0,0.719329,0.107178,0.666992,0.161865,0.9331200000000001,-0.372564,-0.087892,-0.02597,-0.033631,-0.011317,,,,,,,,,,,,,,,,,,,,,,,,,,,,,,,,,,,,,,,,,,,,,,,,,,,,,,,,,,,,,,,,,
38362,1645901201.404736,1645901201.446746,9.0,0.0,4342.563965,4402.563965,4234.871582,4157.436035,4295.897461,16159.0,1.0,15.0,,,,0.0,4.0,1.0,0.0,4.0,4.0,41.666668,,,,,,,,,,,,,,,,,,,,,,,,,,,,,,,,,,,,,,,,,,,,,,,,,,,,,,,,,,,,,,,,,,,,,,,,,,,,,,,,,,,,
38363,1645901201.412549,1645901201.454561,10.0,0.0,4351.794922,4461.538574,4195.384765999999,4181.025879,4296.922852000001,450.0,1.0,15.0,,,,0.0,4.0,1.0,0.0,4.0,4.0,41.666668,,,,,,,,5.0,0.0,0.719292,0.107422,0.666992,0.161865,0.9316549999999999,-0.380377,-0.08838,-0.026498,-0.033588,-0.009306,,,,,,,,,,,,,,,,,,,,,,,,,,,,,,,,,,,0.0,0.0,1.0,0.0,512.0,0.724772,,,,,,,,,,,,,,,,,,,,,,,,,
38364,1645901201.4203632,1645901201.4623759,11.0,0.0,4365.641113000001,4497.94873,4176.410156,4173.333496,4311.282227000001,16263.0,1.0,15.0,,,,0.0,4.0,1.0,0.0,4.0,4.0,41.666668,,,,,,,,,,,,,,,,,,,,,,,,,,,,,,,,,,,,,,,,,,,,,,,,,,,,,,,,,,,,,,,,,,,,,,,,,,,,,,,,,,,,
38365,1645901201.4281769,1645901201.47019,12.0,0.0,4361.025879,4490.256348,4228.205078,4153.846191,4307.179688,450.0,1.0,15.0,,,,0.0,4.0,1.0,0.0,4.0,4.0,41.666668,,,,,,,,6.0,0.0,0.719292,0.107422,0.666992,0.161865,0.941421,-0.375006,-0.08838,-0.02712,-0.03355,-0.010719,,,,,,,,,,,,,,,,,,,,,,,,,,,,,,,,,,,,,,,,,,,,,,,,,,,,,,,,,,,,,,,,,
38366,1645901201.43599,1645901201.4780052,13.0,0.0,4354.358886999999,4460.0,4261.538574,4148.205078,4269.230957,450.0,1.0,15.0,,,,0.0,4.0,1.0,0.0,4.0,4.0,41.666668,,,,,,,,,,,,,,,,,,,,,,,,,,,,,,,,,,,,,,,,,,,,,,,,,,,,,,,,,,,,,,,,,,,,,,,,,,,,,,,,,,,,
38367,1645901201.4438038,1645901201.4858198,14.0,0.0,4340.0,4422.563965,4240.0,4164.102539,4246.153809,450.0,1.0,15.0,,,,0.0,4.0,1.0,0.0,4.0,4.0,41.666668,,,,,,,,7.0,0.0,0.719292,0.107422,0.666992,0.161865,0.938491,-0.358892,-0.089357,-0.027679000000000002,-0.033564,-0.011991,,,,,,,,,,,,,,,,,,,,,,,,,,,,,,,,,,,0.0,0.0,1.0,0.0,512.0,0.724772,,,,,,,,,,,,,,,,,,,,,,,,,
38368,1645901201.451617,1645901201.493634,15.0,0.0,4324.102539,4434.871582,4267.692383,4187.179688,4259.487305,16263.0,1.0,15.0,,,,0.0,4.0,1.0,0.0,4.0,4.0,41.666668,,,,,,,,,,,,,,,,,,,,,,,,,,,,,,,,,,,,,,,,,,,,,,,,,,,,,,,,,,,,,,,,,,,,,,,,,,,,,,,,,,,,
38369,1645901201.4594312,1645901201.501449,16.0,0.0,4329.230957,4394.871582,4238.461426,4175.384765999999,4251.282227000001,0.0,1.0,15.0,,,,0.0,4.0,1.0,0.0,4.0,4.0,41.666668,,,,,,,,8.0,0.0,0.719256,0.10766600000000001,0.666992,0.161865,0.9209129999999999,-0.364752,-0.092775,-0.028085000000000002,-0.033479,-0.013038,,,,,,,,,,,,,,,,,,,,,,,,,,,,,,,,,,,,,,,,,,,,,,,,,,,,,,,,,,,,,,,,,
38370,1645901201.4672449,1645901201.5093632,17.0,0.0,4335.897461,4329.743652,4230.769043,4191.282227000001,4229.230957,0.0,1.0,15.0,,,,0.0,4.0,1.0,0.0,4.0,4.0,41.666668,,,,,,,,,,,,,,,,,,,,,,,,,,,,,,,,,,,,,,,,,,,,,,,,,,,,,,,,,,,,,,,,,,,,,,,,,,,,,,,,,,,,
38371,1645901201.475058,1645901201.5171778,18.0,0.0,4340.512695,4364.102539,4250.769043,4247.179688,4254.871582,0.0,1.0,15.0,,,,0.0,4.0,1.0,0.0,4.0,4.0,41.666668,,,,,,,,9.0,0.0,0.7193470000000001,0.107422,0.666992,0.16162100000000001,0.93019,-0.375006,-0.09033300000000001,-0.028548,-0.033402999999999995,-0.013883000000000001,,,,,,,,,,,,,,,,,,,,,,,,,,,,,,,,,,,0.0,0.0,1.0,0.0,512.0,0.724772,,,,,,,,,,,,,,,,,,,,,,,,,
38372,1645901201.482872,1645901201.524993,19.0,0.0,4342.05127,4420.0,4243.589844,4227.692383,4302.563965,0.0,1.0,15.0,,,,0.0,4.0,1.0,0.0,4.0,4.0,41.666668,,,,,,,,,,,,,,,,,,,,,,,,,,,,,,,,,,,,,,,,,,,,,,,,,,,,,,,,,,,,,,,,,,,,,,,,,,,,,,,,,,,,
38373,1645901201.490685,1645901201.532807,20.0,0.0,4335.897461,4383.077147999999,4227.179688,4181.025879,4294.358886999999,0.0,1.0,15.0,,,,0.0,4.0,1.0,0.0,4.0,4.0,41.666668,,,,,,,,10.0,0.0,0.7193470000000001,0.107422,0.666992,0.16162100000000001,0.932631,-0.375494,-0.08838,-0.028819,-0.033431999999999996,-0.011616,,,,,,,,,,,,,,,,,,,,,,,,,,,,,,,,,,,,,,,,,,,,,,,,,,,,,,,,,,,,,,,,,
38374,1645901201.498499,1645901201.540622,21.0,0.0,4332.307617,4351.282227000001,4232.820313,4181.025879,4271.794922,0.0,1.0,15.0,,,,0.0,4.0,1.0,0.0,4.0,4.0,41.666668,,,,,,,,,,,,,,,,,,,,,,,,,,,,,,,,,,,,,,,,,,,,,,,,,,,,,,,,,,,,,,,,,,,,,,,,,,,,,,,,,,,,
38375,1645901201.506312,1645901201.5484369,22.0,0.0,4324.615234000001,4394.871582,4196.922852000001,4187.179688,4296.922852000001,0.0,1.0,15.0,,,,0.0,4.0,1.0,0.0,4.0,4.0,41.666668,1.0,16.666666,4.0,0.0,0.0,3.0,2.0,11.0,0.0,0.7193470000000001,0.107422,0.666992,0.16162100000000001,0.929213,-0.383795,-0.083986,-0.029111,-0.03336,-0.012603,1.0,0.0,0.0,1.0,0.5022449999999999,1.201101,-0.050773,2.406157,1.0,0.232384,5.409004,-0.777875,24.139316,0.342831,1.0,0.41108199999999995,-0.084005,-0.241404,0.134555,1.0,0.499813,1.556793,0.149384,3.1545229999999997,1.0,0.519538,10.631135,-45.052004,63.505929,1.0,0.242862,0.509391,0.441391,0.7377729999999999,0.0,0.0,1.0,0.0,512.0,0.8259770000000001,10.310489,6.483665,3.697336,1.961432,1.8959700000000002,20.361626,23.124504,12.952708,18.036220999999998,15.832207999999998,44.391903000000006,34.593224,18.698795,3.058995,12.726442,3.5149760000000003,1.0348959999999998,6.098642,6.565246000000001,3.239729,3.999574,5.75759,9.826258000000001,6.189438,2.389829
38376,1645901201.514126,1645901201.556251,23.0,0.0,4298.461426,4371.794922,4198.461426,4171.282227000001,4294.871582,0.0,1.0,15.0,,,,0.0,4.0,1.0,0.0,4.0,4.0,41.666668,,,,,,,,,,,,,,,,,,,,,,,,,,,,,,,,,,,,,,,,,,,,,,,,,,,,,,,,,,,,,,,,,,,,,,,,,,,,,,,,,,,,
38377,1645901201.52194,1645901201.564066,24.0,0.0,4312.307617,4371.794922,4232.307617,4150.256348,4298.461426,0.0,1.0,15.0,,,,0.0,4.0,1.0,0.0,4.0,4.0,41.666668,,,,,,,,12.0,0.0,0.7193470000000001,0.107422,0.666992,0.16162100000000001,0.9316549999999999,-0.36524,-0.08838,-0.029568999999999998,-0.033295,-0.013588,,,,,,,,,,,,,,,,,,,,,,,,,,,,,,,,,,,,,,,,,,,,,,,,,,,,,,,,,,,,,,,,,
38378,1645901201.529753,1645901201.571881,25.0,0.0,4325.641113000001,4456.922852000001,4257.94873,4149.230957,4322.563965,0.0,1.0,15.0,,,,0.0,4.0,1.0,0.0,4.0,4.0,41.666668,,,,,,,,,,,,,,,,,,,,,,,,,,,,,,,,,,,,,,,,,,,,,,,,,,,,,,,,,,,,,,,,,,,,,,,,,,,,,,,,,,,,
38379,1645901201.537567,1645901201.579795,26.0,0.0,4321.025879,4502.05127,4221.538574,4189.743652,4313.333496,0.0,1.0,15.0,,,,0.0,4.0,1.0,0.0,4.0,4.0,41.666668,,,,,,,,13.0,0.0,0.7193470000000001,0.107422,0.666992,0.16162100000000001,0.9438620000000001,-0.367193,-0.095705,-0.029786,-0.033384,-0.011351,,,,,,,,,,,,,,,,,,,,,,,,,,,,,,,,,,,0.0,0.0,1.0,0.0,512.0,0.8259770000000001,,,,,,,,,,,,,,,,,,,,,,,,,
38380,1645901201.54538,1645901201.58761,27.0,0.0,4328.205078,4492.820313,4197.94873,4184.102539,4266.153809,0.0,1.0,15.0,,,,0.0,4.0,1.0,0.0,4.0,4.0,41.666668,,,,,,,,,,,,,,,,,,,,,,,,,,,,,,,,,,,,,,,,,,,,,,,,,,,,,,,,,,,,,,,,,,,,,,,,,,,,,,,,,,,,
38381,1645901201.553194,1645901201.595424,28.0,0.0,4349.743652,4443.077147999999,4230.769043,4145.641113000001,4262.563965,0.0,1.0,15.0,,,,0.0,4.0,1.0,0.0,4.0,4.0,41.666668,,,,,,,,14.0,0.0,0.7193470000000001,0.107422,0.666992,0.16162100000000001,0.929213,-0.383795,-0.083986,-0.029981,-0.033366,-0.009337,,,,,,,,,,,,,,,,,,,,,,,,,,,,,,,,,,,,,,,,,,,,,,,,,,,,,,,,,,,,,,,,,
38382,1645901201.561008,1645901201.603239,29.0,0.0,4349.230957,4371.282227000001,4240.0,4156.922852000001,4278.461426,0.0,1.0,15.0,,,,0.0,4.0,1.0,0.0,4.0,4.0,41.666668,,,,,,,,,,,,,,,,,,,,,,,,,,,,,,,,,,,,,,,,,,,,,,,,,,,,,,,,,,,,,,,,,,,,,,,,,,,,,,,,,,,,
38383,1645901201.5688212,1645901201.611054,30.0,0.0,4347.179688,4362.05127,4225.128418,4175.384765999999,4272.820313,0.0,1.0,15.0,,,,0.0,4.0,1.0,0.0,4.0,4.0,41.666668,,,,,,,,15.0,0.0,0.7193470000000001,0.107422,0.666992,0.16162100000000001,0.9438620000000001,-0.367193,-0.095705,-0.030157,-0.033447000000000005,-0.0075239999999999994,,,,,,,,,,,,,,,,,,,,,,,,,,,,,,,,,,,0.0,0.0,1.0,0.0,512.0,0.8259770000000001,,,,,,,,,,,,,,,,,,,,,,,,,
38384,1645901201.576635,1645901201.6188679,31.0,0.0,4345.641113000001,4429.230957,4226.153809,4155.897461,4278.974121,0.0,1.0,15.0,,,,0.0,4.0,1.0,0.0,4.0,4.0,41.666668,,,,,,,,,,,,,,,,,,,,,,,,,,,,,,,,,,,,,,,,,,,,,,,,,,,,,,,,,,,,,,,,,,,,,,,,,,,,,,,,,,,,
38385,1645901201.584448,1645901201.626683,32.0,0.0,4328.717772999999,4429.230957,4264.102539,4165.641113000001,4296.922852000001,0.0,1.0,15.0,,,,0.0,4.0,1.0,0.0,4.0,4.0,41.666668,,,,,,,,16.0,0.0,0.7195739999999999,0.107422,0.666748,0.16162100000000001,0.9331200000000001,-0.368658,-0.079591,-0.030314999999999998,-0.033423,-0.005843999999999999,,,,,,,,,,,,,,,,,,,,,,,,,,,,,,,,,,,,,,,,,,,,,,,,,,,,,,,,,,,,,,,,,
38386,1645901201.592262,1645901201.6344981,33.0,0.0,4330.769043,4344.615234000001,4239.487305,4188.717772999999,4291.794922,0.0,1.0,15.0,,,,0.0,4.0,1.0,0.0,4.0,4.0,41.666668,,,,,,,,,,,,,,,,,,,,,,,,,,,,,,,,,,,,,,,,,,,,,,,,,,,,,,,,,,,,,,,,,,,,,,,,,,,,,,,,,,,,
38387,1645901201.600076,1645901201.6423118,34.0,0.0,4332.307617,4348.205078,4289.230957,4188.717772999999,4272.307617,0.0,1.0,15.0,,,,0.0,4.0,1.0,0.0,4.0,4.0,41.666668,,,,,,,,17.0,0.0,0.7195739999999999,0.107422,0.666748,0.16162100000000001,0.9399559999999999,-0.363775,-0.08105599999999999,-0.030409,-0.03345,-0.0075060000000000005,,,,,,,,,,,,,,,,,,,,,,,,,,,,,,,,,,,0.0,0.0,1.0,0.0,512.0,0.8259770000000001,,,,,,,,,,,,,,,,,,,,,,,,,
38388,1645901201.6078892,1645901201.650127,35.0,0.0,4315.384765999999,4392.307617,4316.410156,4191.794922,4260.512695,0.0,1.0,15.0,,,,0.0,4.0,1.0,0.0,4.0,4.0,41.666668,,,,,,,,,,,,,,,,,,,,,,,,,,,,,,,,,,,,,,,,,,,,,,,,,,,,,,,,,,,,,,,,,,,,,,,,,,,,,,,,,,,,
38389,1645901201.6157029,1645901201.658042,36.0,0.0,4328.717772999999,4409.743652,4260.0,4170.256348,4260.0,0.0,1.0,15.0,,,,0.0,4.0,1.0,0.0,4.0,4.0,41.666668,,,,,,,,18.0,0.0,0.7195739999999999,0.107422,0.666748,0.16162100000000001,0.928725,-0.3794,-0.093263,-0.030542000000000003,-0.033523000000000004,-0.005876,,,,,,,,,,,,,,,,,,,,,,,,,,,,,,,,,,,,,,,,,,,,,,,,,,,,,,,,,,,,,,,,,
38390,1645901201.623516,1645901201.6658561,37.0,0.0,4347.179688,4410.256348,4238.461426,4163.077147999999,4271.282227000001,0.0,1.0,15.0,,,,0.0,4.0,1.0,0.0,4.0,4.0,41.666668,,,,,,,,,,,,,,,,,,,,,,,,,,,,,,,,,,,,,,,,,,,,,,,,,,,,,,,,,,,,,,,,,,,,,,,,,,,,,,,,,,,,
38391,1645901201.63133,1645901201.6737711,38.0,0.0,4345.128418,4393.846191,4248.717772999999,4176.410156,4273.846191,0.0,1.0,15.0,,,,0.0,4.0,1.0,0.0,4.0,4.0,41.666668,,,,,,,,19.0,0.0,0.7198,0.107422,0.666504,0.16162100000000001,0.928725,-0.364752,-0.085451,-0.030661,-0.033442,-0.007681,1.0,0.0,0.0,,,,,,,,,,,,,,,,,,,,,,,,,,,,,,,,0.0,0.0,1.0,0.0,512.0,0.669823,9.17266,5.991807,3.120936,2.009028,1.749683,20.255344,25.949517999999998,12.973007,21.833729,15.748181,41.352787,32.991543,18.359220999999998,2.906189,11.121008,3.596593,0.884882,6.487967,5.981396,3.151369,4.094603,5.581992,8.165825,5.9416139999999995,2.318053
38392,1645901201.639144,1645901201.681585,39.0,0.0,4359.487305,4405.128418,4209.230957,4168.205078,4300.0,0.0,1.0,15.0,,,,0.0,4.0,1.0,0.0,4.0,4.0,41.666668,,,,,,,,,,,,,,,,,,,,,,,,,,,,,,,,,,,,,,,,,,,,,,,,,,,,,,,,,,,,,,,,,,,,,,,,,,,,,,,,,,,,
38393,1645901201.646957,1645901201.6894,40.0,0.0,4352.820313,4446.666504,4200.512695,4186.153809,4311.794922,0.0,1.0,15.0,,,,0.0,4.0,1.0,0.0,4.0,4.0,41.666668,,,,,,,,20.0,0.0,0.7195739999999999,0.107422,0.666748,0.16162100000000001,0.94435,-0.36328699999999997,-0.08691499999999999,-0.030769,-0.033467000000000004,-0.006034,,,,,,,,,,,,,,,,,,,,,,,,,,,,,,,,,,,,,,,,,,,,,,,,,,,,,,,,,,,,,,,,,
38394,1645901201.654771,1645901201.697215,41.0,0.0,4338.974121,4518.974121,4170.769043,4212.307617,4316.410156,0.0,1.0,15.0,,,,0.0,4.0,1.0,0.0,4.0,4.0,41.666668,,,,,,,,,,,,,,,,,,,,,,,,,,,,,,,,,,,,,,,,,,,,,,,,,,,,,,,,,,,,,,,,,,,,,,,,,,,,,,,,,,,,
38395,1645901201.662584,1645901201.705029,42.0,0.0,4334.358886999999,4544.102539,4154.871582,4180.0,4330.769043,0.0,1.0,15.0,,,,0.0,4.0,1.0,0.0,4.0,4.0,41.666668,,,,,,,,21.0,0.0,0.7195739999999999,0.107422,0.666748,0.16162100000000001,0.937514,-0.366217,-0.09131,-0.030817,-0.033392000000000005,-0.007529999999999999,,,,,,,,,,,,,,,,,,,,,,,,,,,,,,,,,,,0.0,0.0,1.0,0.0,512.0,0.669823,,,,,,,,,,,,,,,,,,,,,,,,,
38396,1645901201.670398,1645901201.712844,43.0,0.0,4346.153809,4446.666504,4202.563965,4167.692383,4316.410156,0.0,1.0,15.0,,,,0.0,4.0,1.0,0.0,4.0,4.0,41.666668,,,,,,,,,,,,,,,,,,,,,,,,,,,,,,,,,,,,,,,,,,,,,,,,,,,,,,,,,,,,,,,,,,,,,,,,,,,,,,,,,,,,
38397,1645901201.678212,1645901201.720758,44.0,0.0,4353.846191,4413.846191,4252.820313,4155.384765999999,4275.897461,0.0,1.0,15.0,,,,0.0,4.0,1.0,0.0,4.0,4.0,41.666668,,,,,,,,22.0,0.0,0.7196279999999999,0.107422,0.666748,0.161377,0.9306780000000001,-0.364752,-0.090822,-0.030909,-0.033422,-0.009170000000000001,,,,,,,,,,,,,,,,,,,,,,,,,,,,,,,,,,,,,,,,,,,,,,,,,,,,,,,,,,,,,,,,,
38398,1645901201.686025,1645901201.728573,45.0,0.0,4354.358886999999,4501.538574,4257.94873,4127.179688,4269.743652,0.0,1.0,15.0,,,,0.0,4.0,1.0,0.0,4.0,4.0,41.666668,,,,,,,,,,,,,,,,,,,,,,,,,,,,,,,,,,,,,,,,,,,,,,,,,,,,,,,,,,,,,,,,,,,,,,,,,,,,,,,,,,,,
38399,1645901201.693839,1645901201.736388,46.0,0.0,4332.307617,4440.0,4253.333496,4167.692383,4271.282227000001,0.0,1.0,15.0,,,,0.0,4.0,1.0,0.0,4.0,4.0,41.666668,,,,,,,,23.0,0.0,0.71972,0.107178,0.666748,0.161133,0.9282370000000001,-0.370123,-0.09472799999999999,-0.030992000000000002,-0.033498,-0.010499,,,,,,,,,,,,,,,,,,,,,,,,,,,,,,,,,,,0.0,0.0,1.0,0.0,512.0,0.669823,,,,,,,,,,,,,,,,,,,,,,,,,
38400,1645901201.701652,1645901201.744202,47.0,0.0,4325.128418,4334.358886999999,4271.794922,4227.179688,4264.102539,0.0,1.0,15.0,,,,0.0,4.0,1.0,0.0,4.0,4.0,41.666668,,,,,,,,,,,,,,,,,,,,,,,,,,,,,,,,,,,,,,,,,,,,,,,,,,,,,,,,,,,,,,,,,,,,,,,,,,,,,,,,,,,,
38401,1645901201.709466,1645901201.752017,48.0,0.0,4338.461426,4416.922852000001,4231.282227000001,4181.538574,4281.538574,0.0,1.0,15.0,,,,0.0,4.0,1.0,0.0,4.0,4.0,41.666668,,,,,,,,24.0,0.0,0.719946,0.107178,0.666504,0.161133,0.9463030000000001,-0.368658,-0.080568,-0.031067,-0.033517,-0.008766,,,,,,,,,,,,,,,,,,,,,,,,,,,,,,,,,,,,,,,,,,,,,,,,,,,,,,,,,,,,,,,,,
38402,1645901201.7172801,1645901201.7598321,49.0,0.0,4323.077147999999,4468.205078,4222.05127,4143.589844,4282.563965,0.0,1.0,15.0,,,,0.0,4.0,1.0,0.0,4.0,4.0,41.666668,,,,,,,,,,,,,,,,,,,,,,,,,,,,,,,,,,,,,,,,,,,,,,,,,,,,,,,,,,,,,,,,,,,,,,,,,,,,,,,,,,,,
38403,1645901201.725093,1645901201.767646,50.0,0.0,4314.871582,4365.128418,4241.538574,4170.769043,4252.307617,0.0,1.0,15.0,,,,0.0,4.0,1.0,0.0,4.0,4.0,41.666668,,,,,,,,25.0,0.0,0.719946,0.107178,0.666504,0.161133,0.934585,-0.366705,-0.09131,-0.031183,-0.033583,-0.00701,,,,,,,,,,,,,,,,,,,,,,,,,,,,,,,,,,,0.0,0.0,1.0,0.0,512.0,0.669823,,,,,,,,,,,,,,,,,,,,,,,,,
38404,1645901201.732907,1645901201.775461,51.0,0.0,4323.589844,4373.333496,4257.94873,4173.333496,4266.666504,0.0,1.0,15.0,,,,0.0,4.0,1.0,0.0,4.0,4.0,41.666668,,,,,,,,,,,,,,,,,,,,,,,,,,,,,,,,,,,,,,,,,,,,,,,,,,,,,,,,,,,,,,,,,,,,,,,,,,,,,,,,,,,,
38405,1645901201.74072,1645901201.783276,52.0,0.0,4323.589844,4446.666504,4225.641113000001,4166.666504,4297.94873,0.0,1.0,15.0,,,,0.0,4.0,1.0,0.0,4.0,4.0,41.666668,,,,,,,,26.0,0.0,0.719909,0.107422,0.666504,0.161133,0.937514,-0.369635,-0.107424,-0.031287,-0.033594,-0.008604,,,,,,,,,,,,,,,,,,,,,,,,,,,,,,,,,,,,,,,,,,,,,,,,,,,,,,,,,,,,,,,,,
38406,1645901201.748534,1645901201.79109,53.0,0.0,4321.538574,4369.743652,4231.794922,4164.102539,4282.05127,0.0,1.0,15.0,,,,0.0,4.0,1.0,0.0,4.0,4.0,41.666668,,,,,,,,,,,,,,,,,,,,,,,,,,,,,,,,,,,,,,,,,,,,,,,,,,,,,,,,,,,,,,,,,,,,,,,,,,,,,,,,,,,,
38407,1645901201.7563481,1645901201.799005,54.0,0.0,4312.820313,4304.615234000001,4254.358886999999,4167.179688,4281.025879,0.0,1.0,15.0,,,,0.0,4.0,1.0,0.0,4.0,4.0,41.666668,,,,,,,,27.0,0.0,0.719683,0.107422,0.666748,0.161133,0.932143,-0.36084499999999997,-0.09765800000000001,-0.031333,-0.033604,-0.010087,1.0,0.0,0.0,,,,,,,,,,,,,,,,,,,,,,,,,,,,,,,,0.0,0.0,1.0,0.0,512.0,0.699747,7.556350999999999,5.213518,2.699553,1.947412,1.517983,20.929251,27.803953000000003,14.074226999999999,24.936457,15.491995000000001,38.164864,31.586018,18.99061,2.902757,8.997799,4.046864,0.809084,6.429798,5.284421,2.955996,4.318964,5.499698,6.844246000000001,5.4039589999999995,2.225752
38408,1645901201.7641609,1645901201.806819,55.0,0.0,4297.436035,4323.589844,4226.666504,4177.436035,4302.05127,0.0,1.0,15.0,,,,0.0,4.0,1.0,0.0,4.0,4.0,41.666668,,,,,,,,,,,,,,,,,,,,,,,,,,,,,,,,,,,,,,,,,,,,,,,,,,,,,,,,,,,,,,,,,,,,,,,,,,,,,,,,,,,,
38409,1645901201.771975,1645901201.814634,56.0,0.0,4322.563965,4350.256348,4162.05127,4164.615234000001,4313.846191,0.0,1.0,15.0,,,,0.0,4.0,1.0,0.0,4.0,4.0,41.666668,,,,,,,,28.0,0.0,0.719683,0.107422,0.666748,0.161133,0.936049,-0.37598200000000004,-0.087892,-0.031324,-0.033564,-0.008346,,,,,,,,,,,,,,,,,,,,,,,,,,,,,,,,,,,,,,,,,,,,,,,,,,,,,,,,,,,,,,,,,
38410,1645901201.779788,1645901201.822449,57.0,0.0,4336.410156,4400.0,4205.128418,4146.666504,4304.615234000001,0.0,1.0,15.0,,,,0.0,4.0,1.0,0.0,4.0,4.0,41.666668,,,,,,,,,,,,,,,,,,,,,,,,,,,,,,,,,,,,,,,,,,,,,,,,,,,,,,,,,,,,,,,,,,,,,,,,,,,,,,,,,,,,
38411,1645901201.787602,1645901201.8302631,58.0,0.0,4331.794922,4458.461426,4252.820313,4169.743652,4320.512695,0.0,1.0,15.0,,,,0.0,4.0,1.0,0.0,4.0,4.0,41.666668,,,,,,,,29.0,0.0,0.71972,0.107178,0.666748,0.161133,0.937514,-0.36524,-0.09131,-0.031317000000000005,-0.033625999999999996,-0.009758,,,,,,,,,,,,,,,,,,,,,,,,,,,,,,,,,,,0.0,0.0,1.0,0.0,512.0,0.699747,,,,,,,,,,,,,,,,,,,,,,,,,
38412,1645901201.795415,1645901201.838078,59.0,0.0,4336.922852000001,4428.205078,4227.692383,4171.794922,4323.589844,0.0,1.0,15.0,,,,0.0,4.0,1.0,0.0,4.0,4.0,41.666668,,,,,,,,,,,,,,,,,,,,,,,,,,,,,,,,,,,,,,,,,,,,,,,,,,,,,,,,,,,,,,,,,,,,,,,,,,,,,,,,,,,,
38413,1645901201.8032289,1645901201.845893,60.0,0.0,4355.384765999999,4405.641113000001,4224.615234000001,4153.333496,4304.102539,0.0,1.0,15.0,,,,0.0,4.0,1.0,0.0,4.0,4.0,41.666668,,,,,,,,30.0,0.0,0.719493,0.107178,0.666992,0.161133,0.934585,-0.357427,-0.096193,-0.028234,-0.033486,-0.011175,,,,,,,,,,,,,,,,,,,,,,,,,,,,,,,,,,,,,,,,,,,,,,,,,,,,,,,,,,,,,,,,,
38414,1645901201.811043,1645901201.853707,61.0,0.0,4353.333496,4517.94873,4256.410156,4147.692383,4298.974121,0.0,1.0,15.0,,,,0.0,4.0,1.0,0.0,4.0,4.0,41.666668,,,,,,,,,,,,,,,,,,,,,,,,,,,,,,,,,,,,,,,,,,,,,,,,,,,,,,,,,,,,,,,,,,,,,,,,,,,,,,,,,,,,
38415,1645901201.818856,1645901201.861522,62.0,0.0,4356.410156,4542.563965,4237.436035,4149.743652,4298.461426,0.0,1.0,15.0,,,,0.0,4.0,1.0,0.0,4.0,4.0,41.666668,,,,,,,,31.0,0.0,0.719493,0.107178,0.666992,0.161133,0.933608,-0.367681,-0.09472799999999999,-0.028536000000000002,-0.033506,-0.009129,,,,,,,,,,,,,,,,,,,,,,,,,,,,,,,,,,,0.0,0.0,1.0,0.0,512.0,0.699747,,,,,,,,,,,,,,,,,,,,,,,,,
38416,1645901201.82667,1645901201.8693368,63.0,0.0,4363.589844,4428.205078,4245.641113000001,4144.615234000001,4286.666504,0.0,1.0,15.0,,,,0.0,4.0,1.0,0.0,4.0,4.0,41.666668,,,,,,,,,,,,,,,,,,,,,,,,,,,,,,,,,,,,,,,,,,,,,,,,,,,,,,,,,,,,,,,,,,,,,,,,,,,,,,,,,,,,
38417,1645901201.834483,1645901201.877251,64.0,0.0,4348.717772999999,4416.922852000001,4308.717772999999,4154.358886999999,4303.077147999999,450.0,1.0,15.0,,,,0.0,4.0,2.0,1.0,4.0,4.0,58.33333199999999,,,,,,,,32.0,0.0,0.71953,0.10693399999999999,0.666992,0.161133,0.929213,-0.374517,-0.08838,-0.028905,-0.033525,-0.010463,,,,,,,,,,,,,,,,,,,,,,,,,,,,,,,,,,,,,,,,,,,,,,,,,,,,,,,,,,,,,,,,,
38418,1645901201.842297,1645901201.885066,65.0,0.0,4329.230957,4454.871582,4261.025879,4164.102539,4322.05127,450.0,1.0,15.0,,,,0.0,4.0,2.0,1.0,4.0,4.0,58.33333199999999,,,,,,,,,,,,,,,,,,,,,,,,,,,,,,,,,,,,,,,,,,,,,,,,,,,,,,,,,,,,,,,,,,,,,,,,,,,,,,,,,,,,
38419,1645901201.850111,1645901201.89288,66.0,0.0,4322.563965,4388.205078,4237.94873,4163.077147999999,4296.410156,16308.0,1.0,15.0,,,,0.0,4.0,2.0,1.0,4.0,4.0,58.33333199999999,,,,,,,,33.0,0.0,0.719475,0.10693399999999999,0.666992,0.161377,0.931167,-0.367193,-0.077638,-0.026063,-0.033395,-0.011809,,,,,,,,,,,,,,,,,,,,,,,,,,,,,,,,,,,0.0,0.0,1.0,0.0,512.0,0.699747,,,,,,,,,,,,,,,,,,,,,,,,,
38420,1645901201.857924,1645901201.9006948,67.0,0.0,4320.512695,4315.384765999999,4236.922852000001,4161.025879,4273.846191,450.0,1.0,15.0,,,,0.0,4.0,2.0,1.0,4.0,4.0,58.33333199999999,,,,,,,,,,,,,,,,,,,,,,,,,,,,,,,,,,,,,,,,,,,,,,,,,,,,,,,,,,,,,,,,,,,,,,,,,,,,,,,,,,,,
38421,1645901201.8657382,1645901201.90851,68.0,0.0,4310.769043,4340.512695,4255.897461,4154.358886999999,4271.794922,309.0,1.0,15.0,,,,0.0,4.0,2.0,1.0,4.0,4.0,58.33333199999999,,,,,,,,34.0,0.0,0.719475,0.10693399999999999,0.666992,0.161377,0.9423969999999999,-0.36328699999999997,-0.082521,-0.026728,-0.033375999999999996,-0.012972,,,,,,,,,,,,,,,,,,,,,,,,,,,,,,,,,,,,,,,,,,,,,,,,,,,,,,,,,,,,,,,,,
38422,1645901201.873551,1645901201.9163241,69.0,0.0,4329.230957,4422.563965,4258.974121,4143.589844,4272.307617,450.0,1.0,15.0,,,,0.0,4.0,2.0,1.0,4.0,4.0,58.33333199999999,,,,,,,,,,,,,,,,,,,,,,,,,,,,,,,,,,,,,,,,,,,,,,,,,,,,,,,,,,,,,,,,,,,,,,,,,,,,,,,,,,,,
38423,1645901201.881365,1645901201.924139,70.0,0.0,4343.077147999999,4467.179688,4262.563965,4137.436035,4277.436035,98.0,1.0,15.0,,,,0.0,4.0,2.0,1.0,4.0,4.0,58.33333199999999,,,,,,,,35.0,0.0,0.719439,0.107178,0.666992,0.161377,0.9243309999999999,-0.36230999999999997,-0.07910299999999999,-0.027277999999999997,-0.033408,-0.014018000000000001,1.0,0.0,0.0,,,,,,,,,,,,,,,,,,,,,,,,,,,,,,,,0.0,0.0,1.0,0.0,512.0,0.761563,5.982519,4.495064,2.508851,1.775036,1.254738,22.404629,28.64262,15.225751,26.494907,15.289617999999999,34.225891,30.273991,20.155428,3.075678,6.883660000000001,4.863839,0.86625,5.996027,4.732769,2.727231,4.639284,5.561381,6.1393629999999995,4.746412,2.153856
38424,1645901201.889179,1645901201.931954,71.0,0.0,4343.589844,4480.512695,4253.846191,4157.436035,4293.333496,450.0,1.0,15.0,,,,0.0,4.0,2.0,1.0,4.0,4.0,58.33333199999999,,,,,,,,,,,,,,,,,,,,,,,,,,,,,,,,,,,,,,,,,,,,,,,,,,,,,,,,,,,,,,,,,,,,,,,,,,,,,,,,,,,,
38425,1645901201.896992,1645901201.939768,72.0,0.0,4342.563965,4522.05127,4292.820313,4155.384765999999,4284.615234000001,450.0,1.0,15.0,,,,0.0,4.0,2.0,1.0,4.0,4.0,58.33333199999999,,,,,,,,36.0,0.0,0.719439,0.107178,0.666992,0.161377,0.9438620000000001,-0.37158800000000003,-0.089357,-0.027675,-0.033436,-0.01496,,,,,,,,,,,,,,,,,,,,,,,,,,,,,,,,,,,,,,,,,,,,,,,,,,,,,,,,,,,,,,,,,
38426,1645901201.9048061,1645901201.947683,73.0,0.0,4344.102539,4524.102539,4280.0,4126.153809,4268.205078,16319.0,1.0,15.0,,,,0.0,4.0,2.0,1.0,4.0,4.0,58.33333199999999,,,,,,,,,,,,,,,,,,,,,,,,,,,,,,,,,,,,,,,,,,,,,,,,,,,,,,,,,,,,,,,,,,,,,,,,,,,,,,,,,,,,
38427,1645901201.9126189,1645901201.955498,74.0,0.0,4340.0,4430.769043,4213.846191,4123.589844,4283.589844,450.0,1.0,15.0,,,,0.0,4.0,2.0,1.0,4.0,4.0,58.33333199999999,,,,,,,,37.0,0.0,0.7194020000000001,0.107422,0.666992,0.161377,0.929702,-0.36035700000000004,-0.08984500000000001,-0.028033,-0.033315,-0.012584999999999999,,,,,,,,,,,,,,,,,,,,,,,,,,,,,,,,,,,0.0,0.0,1.0,0.0,512.0,0.761563,,,,,,,,,,,,,,,,,,,,,,,,,
38428,1645901201.920433,1645901201.963312,75.0,0.0,4351.282227000001,4396.922852000001,4223.077147999999,4175.897461,4320.0,16297.0,1.0,15.0,,,,0.0,4.0,2.0,1.0,4.0,4.0,58.33333199999999,,,,,,,,,,,,,,,,,,,,,,,,,,,,,,,,,,,,,,,,,,,,,,,,,,,,,,,,,,,,,,,,,,,,,,,,,,,,,,,,,,,,
38429,1645901201.928247,1645901201.971127,76.0,0.0,4361.538574,4447.179688,4225.128418,4189.743652,4306.666504,450.0,1.0,15.0,,,,0.0,4.0,2.0,1.0,4.0,4.0,58.33333199999999,,,,,,,,38.0,0.0,0.7194020000000001,0.107422,0.666992,0.161377,0.94435,-0.375494,-0.08105599999999999,-0.028404000000000002,-0.033304,-0.013524000000000001,,,,,,,,,,,,,,,,,,,,,,,,,,,,,,,,,,,,,,,,,,,,,,,,,,,,,,,,,,,,,,,,,
38430,1645901201.93606,1645901201.978941,77.0,0.0,4351.282227000001,4421.538574,4208.717772999999,4172.820313,4307.179688,450.0,1.0,15.0,,,,0.0,4.0,2.0,1.0,4.0,4.0,58.33333199999999,,,,,,,,,,,,,,,,,,,,,,,,,,,,,,,,,,,,,,,,,,,,,,,,,,,,,,,,,,,,,,,,,,,,,,,,,,,,,,,,,,,,
38431,1645901201.9438741,1645901201.986756,78.0,0.0,4341.025879,4391.794922,4226.666504,4177.436035,4334.358886999999,450.0,1.0,15.0,,,,0.0,4.0,2.0,1.0,4.0,4.0,58.33333199999999,,,,,,,,39.0,0.0,0.7194020000000001,0.107422,0.666992,0.161377,0.9433739999999999,-0.359869,-0.07422000000000001,-0.028687999999999998,-0.033343,-0.011293000000000001,,,,,,,,,,,,,,,,,,,,,,,,,,,,,,,,,,,0.0,0.0,1.0,0.0,512.0,0.761563,,,,,,,,,,,,,,,,,,,,,,,,,
38432,1645901201.9516869,1645901201.9945712,79.0,0.0,4343.077147999999,4426.666504,4267.179688,4173.333496,4306.153809,16297.0,1.0,15.0,,,,0.0,4.0,2.0,1.0,4.0,4.0,58.33333199999999,,,,,,,,,,,,,,,,,,,,,,,,,,,,,,,,,,,,,,,,,,,,,,,,,,,,,,,,,,,,,,,,,,,,,,,,,,,,,,,,,,,,
38433,1645901201.959501,1645901202.002385,80.0,0.0,4329.230957,4385.128418,4248.205078,4138.974121,4246.666504,450.0,1.0,15.0,,,,0.0,4.0,2.0,1.0,4.0,4.0,58.33333199999999,,,,,,,,40.0,0.0,0.7194020000000001,0.107422,0.666992,0.161377,0.9306780000000001,-0.367681,-0.09472799999999999,-0.028993,-0.033329000000000004,-0.009236,,,,,,,,,,,,,,,,,,,,,,,,,,,,,,,,,,,,,,,,,,,,,,,,,,,,,,,,,,,,,,,,,
38434,1645901201.967315,1645901202.0102,81.0,0.0,4317.94873,4372.820313,4265.641113000001,4120.0,4255.897461,450.0,1.0,15.0,,,,0.0,4.0,2.0,1.0,4.0,4.0,58.33333199999999,,,,,,,,,,,,,,,,,,,,,,,,,,,,,,,,,,,,,,,,,,,,,,,,,,,,,,,,,,,,,,,,,,,,,,,,,,,,,,,,,,,,
38435,1645901201.975128,1645901202.0180151,82.0,0.0,4318.974121,4423.589844,4298.974121,4141.538574,4278.461426,450.0,1.0,15.0,,,,0.0,4.0,2.0,1.0,4.0,4.0,58.33333199999999,,,,,,,,41.0,0.0,0.7194020000000001,0.107422,0.666992,0.161377,0.9404440000000001,-0.36230999999999997,-0.091798,-0.029268000000000002,-0.033414,-0.00758,,,,,,,,,,,,,,,,,,,,,,,,,,,,,,,,,,,0.0,0.0,1.0,0.0,512.0,0.761563,,,,,,,,,,,,,,,,,,,,,,,,,
38436,1645901201.982942,1645901202.025929,83.0,0.0,4324.615234000001,4416.922852000001,4291.282227000001,4162.05127,4257.436035,16297.0,1.0,15.0,,,,0.0,4.0,2.0,1.0,4.0,4.0,58.33333199999999,,,,,,,,,,,,,,,,,,,,,,,,,,,,,,,,,,,,,,,,,,,,,,,,,,,,,,,,,,,,,,,,,,,,,,,,,,,,,,,,,,,,
38437,1645901201.990755,1645901202.0337439,84.0,0.0,4317.436035,4428.205078,4267.692383,4165.128418,4246.666504,450.0,1.0,15.0,,,,0.0,4.0,2.0,1.0,4.0,4.0,58.33333199999999,,,,,,,,42.0,0.0,0.7194020000000001,0.107422,0.666992,0.161377,0.9433739999999999,-0.359869,-0.07422000000000001,-0.029564,-0.033393,-0.005845,,,,,,,,,,,,,,,,,,,,,,,,,,,,,,,,,,,,,,,,,,,,,,,,,,,,,,,,,,,,,,,,,
38438,1645901201.998569,1645901202.041559,85.0,0.0,4312.307617,4473.846191,4255.897461,4147.692383,4231.794922,450.0,1.0,15.0,,,,0.0,4.0,2.0,1.0,4.0,4.0,58.33333199999999,,,,,,,,,,,,,,,,,,,,,,,,,,,,,,,,,,,,,,,,,,,,,,,,,,,,,,,,,,,,,,,,,,,,,,,,,,,,,,,,,,,,
38439,1645901202.006382,1645901202.0493731,86.0,0.0,4321.538574,4462.563965,4204.102539,4133.846191,4240.0,450.0,1.0,15.0,,,,0.0,4.0,2.0,1.0,4.0,4.0,58.33333199999999,1.0,16.666666,3.0,0.0,0.0,3.0,2.0,43.0,0.0,0.7194020000000001,0.107422,0.666992,0.161377,0.9404440000000001,-0.36230999999999997,-0.091798,-0.029781000000000002,-0.033472,-0.004528,1.0,0.0,0.0,,,,,,,,,,,,,,,,,,,,,,,,,,,,,,,,0.0,0.0,1.0,0.0,512.0,0.68089,4.925454,4.062074,2.60241,1.518283,1.013658,25.553182999999997,28.967829,15.693223999999999,26.22403,15.303609,29.642684999999997,29.050671,21.199894,3.359116,5.203514,5.901763,1.0636729999999999,5.348795,4.490667,2.5487610000000003,5.043354,5.742042,6.10501,4.128181,2.113436
38440,1645901202.0141962,1645901202.057188,87.0,0.0,4316.410156,4467.692383,4191.282227000001,4154.358886999999,4275.897461,16297.0,1.0,15.0,,,,0.0,4.0,2.0,1.0,4.0,4.0,58.33333199999999,,,,,,,,,,,,,,,,,,,,,,,,,,,,,,,,,,,,,,,,,,,,,,,,,,,,,,,,,,,,,,,,,,,,,,,,,,,,,,,,,,,,
38441,1645901202.0220098,1645901202.065002,88.0,0.0,4320.512695,4509.230957,4200.512695,4151.794922,4319.487305,450.0,1.0,15.0,,,,0.0,4.0,2.0,1.0,4.0,4.0,58.33333199999999,,,,,,,,44.0,0.0,0.7194020000000001,0.107422,0.666992,0.161377,0.931167,-0.374517,-0.08691499999999999,-0.029927999999999996,-0.033444999999999996,-0.006370000000000001,,,,,,,,,,,,,,,,,,,,,,,,,,,,,,,,,,,,,,,,,,,,,,,,,,,,,,,,,,,,,,,,,
38442,1645901202.029823,1645901202.072817,89.0,0.0,4311.282227000001,4456.410156,4225.128418,4129.743652,4317.436035,450.0,1.0,15.0,,,,0.0,4.0,2.0,1.0,4.0,4.0,58.33333199999999,,,,,,,,,,,,,,,,,,,,,,,,,,,,,,,,,,,,,,,,,,,,,,,,,,,,,,,,,,,,,,,,,,,,,,,,,,,,,,,,,,,,
38443,1645901202.037637,1645901202.080632,90.0,0.0,4323.589844,4415.897461,4195.897461,4161.538574,4296.922852000001,450.0,1.0,15.0,,,,0.0,4.0,2.0,1.0,4.0,4.0,58.33333199999999,,,,,,,,45.0,0.0,0.7194020000000001,0.107422,0.666992,0.161377,0.9423969999999999,-0.37598200000000004,-0.09131,-0.030157999999999997,-0.033421,-0.007979,,,,,,,,,,,,,,,,,,,,,,,,,,,,,,,,,,,0.0,0.0,1.0,0.0,512.0,0.68089,,,,,,,,,,,,,,,,,,,,,,,,,
38444,1645901202.04545,1645901202.0884461,91.0,0.0,4337.436035,4440.0,4199.487305,4183.077147999999,4302.05127,16297.0,1.0,15.0,,,,0.0,4.0,2.0,1.0,4.0,4.0,58.33333199999999,,,,,,,,,,,,,,,,,,,,,,,,,,,,,,,,,,,,,,,,,,,,,,,,,,,,,,,,,,,,,,,,,,,,,,,,,,,,,,,,,,,,
38445,1645901202.0532641,1645901202.096361,92.0,0.0,4337.436035,4394.871582,4231.282227000001,4166.666504,4307.179688,450.0,1.0,15.0,,,,0.0,4.0,2.0,1.0,4.0,4.0,58.33333199999999,,,,,,,,46.0,0.0,0.719439,0.107178,0.666992,0.161377,0.9423969999999999,-0.367681,-0.08105599999999999,-0.030316000000000003,-0.033399,-0.0063030000000000004,,,,,,,,,,,,,,,,,,,,,,,,,,,,,,,,,,,,,,,,,,,,,,,,,,,,,,,,,,,,,,,,,
38446,1645901202.0610778,1645901202.104176,93.0,0.0,4332.307617,4365.641113000001,4223.589844,4144.615234000001,4277.436035,450.0,1.0,15.0,,,,0.0,4.0,2.0,1.0,4.0,4.0,58.33333199999999,,,,,,,,,,,,,,,,,,,,,,,,,,,,,,,,,,,,,,,,,,,,,,,,,,,,,,,,,,,,,,,,,,,,,,,,,,,,,,,,,,,,
38447,1645901202.068891,1645901202.11199,94.0,0.0,4312.307617,4422.563965,4248.717772999999,4141.538574,4247.179688,450.0,1.0,15.0,,,,0.0,4.0,2.0,1.0,4.0,4.0,58.33333199999999,,,,,,,,47.0,0.0,0.719439,0.107178,0.666992,0.161377,0.933608,-0.372076,-0.089357,-0.030361000000000003,-0.03338,-0.007918000000000001,,,,,,,,,,,,,,,,,,,,,,,,,,,,,,,,,,,0.0,0.0,1.0,0.0,512.0,0.68089,,,,,,,,,,,,,,,,,,,,,,,,,
38448,1645901202.076705,1645901202.119805,95.0,0.0,4289.230957,4433.333496,4264.102539,4123.589844,4233.846191,16297.0,1.0,15.0,,,,0.0,4.0,2.0,1.0,4.0,4.0,58.33333199999999,,,,,,,,,,,,,,,,,,,,,,,,,,,,,,,,,,,,,,,,,,,,,,,,,,,,,,,,,,,,,,,,,,,,,,,,,,,,,,,,,,,,
38449,1645901202.084518,1645901202.12762,96.0,0.0,4301.025879,4383.077147999999,4265.641113000001,4116.410156,4260.512695,450.0,1.0,15.0,,,,0.0,4.0,2.0,1.0,4.0,4.0,58.33333199999999,,,,,,,,48.0,0.0,0.719439,0.107178,0.666992,0.161377,0.937026,-0.367681,-0.077638,-0.030595999999999998,-0.033411,-0.009470000000000001,,,,,,,,,,,,,,,,,,,,,,,,,,,,,,,,,,,,,,,,,,,,,,,,,,,,,,,,,,,,,,,,,
38450,1645901202.0923321,1645901202.135434,97.0,0.0,4328.205078,4357.94873,4265.128418,4138.974121,4292.820313,450.0,1.0,15.0,,,,0.0,4.0,2.0,1.0,4.0,4.0,58.33333199999999,,,,,,,,,,,,,,,,,,,,,,,,,,,,,,,,,,,,,,,,,,,,,,,,,,,,,,,,,,,,,,,,,,,,,,,,,,,,,,,,,,,,
38451,1645901202.100146,1645901202.143249,98.0,0.0,4306.666504,4405.128418,4307.179688,4162.05127,4290.256348,450.0,1.0,15.0,,,,0.0,4.0,2.0,1.0,4.0,4.0,58.33333199999999,,,,,,,,49.0,0.0,0.719439,0.107178,0.666992,0.161377,0.932143,-0.365728,-0.084962,-0.027585000000000002,-0.033488,-0.010867,,,,,,,,,,,,,,,,,,,,,,,,,,,,,,,,,,,0.0,0.0,1.0,0.0,512.0,0.68089,,,,,,,,,,,,,,,,,,,,,,,,,
38452,1645901202.107959,1645901202.1510632,99.0,0.0,4304.102539,4466.666504,4263.589844,4158.974121,4275.384765999999,16297.0,1.0,15.0,,,,0.0,4.0,2.0,1.0,4.0,4.0,58.33333199999999,,,,,,,,,,,,,,,,,,,,,,,,,,,,,,,,,,,,,,,,,,,,,,,,,,,,,,,,,,,,,,,,,,,,,,,,,,,,,,,,,,,,
38453,1645901202.115773,1645901202.1588778,100.0,0.0,4353.846191,4489.230957,4272.307617,4128.717772999999,4289.743652,450.0,1.0,15.0,,,,0.0,4.0,2.0,1.0,4.0,4.0,58.33333199999999,,,,,,,,50.0,0.0,0.719475,0.10693399999999999,0.666992,0.161377,0.932143,-0.359869,-0.085451,-0.027854000000000004,-0.033507999999999996,-0.012124,,,,,,,,,,,,,,,,,,,,,,,,,,,,,,,,,,,,,,,,,,,,,,,,,,,,,,,,,,,,,,,,,
38454,1645901202.123586,1645901202.1667929,101.0,0.0,4372.307617,4446.666504,4315.897461,4144.102539,4297.94873,450.0,1.0,15.0,,,,0.0,4.0,2.0,1.0,4.0,4.0,58.33333199999999,,,,,,,,,,,,,,,,,,,,,,,,,,,,,,,,,,,,,,,,,,,,,,,,,,,,,,,,,,,,,,,,,,,,,,,,,,,,,,,,,,,,
38455,1645901202.1314,1645901202.174607,102.0,0.0,4357.94873,4436.922852000001,4270.256348,4165.641113000001,4274.358886999999,450.0,1.0,15.0,,,,0.0,4.0,2.0,1.0,4.0,4.0,58.33333199999999,,,,,,,,51.0,0.0,0.719439,0.107178,0.666992,0.161377,0.9340959999999999,-0.358892,-0.085451,-0.028194,-0.033526,-0.013256,1.0,0.0,0.0,,,,,,,,,,,,,,,,,,,,,,,,,,,,,,,,0.0,0.0,1.0,0.0,512.0,0.5770430000000001,4.646908,3.9853669999999997,2.9344069999999998,1.235351,0.830334,30.877327,30.024632,15.473478,24.553125,15.610184,25.320021,27.962574,21.535542,3.653518,4.1670370000000005,6.930758999999999,1.349291,4.675648000000001,4.550493,2.478064,5.646065,6.046919,6.537083999999999,3.6604900000000002,2.082955
38456,1645901202.139214,1645901202.1824222,103.0,0.0,4351.282227000001,4494.871582,4240.512695,4161.538574,4283.077147999999,16297.0,1.0,15.0,,,,0.0,4.0,2.0,1.0,4.0,4.0,58.33333199999999,,,,,,,,,,,,,,,,,,,,,,,,,,,,,,,,,,,,,,,,,,,,,,,,,,,,,,,,,,,,,,,,,,,,,,,,,,,,,,,,,,,,
38457,1645901202.147027,1645901202.1902368,104.0,0.0,4337.436035,4477.94873,4247.692383,4169.230957,4293.333496,450.0,1.0,15.0,,,,0.0,4.0,2.0,1.0,4.0,4.0,58.33333199999999,,,,,,,,52.0,0.0,0.719212,0.107178,0.6672359999999999,0.161377,0.925795,-0.369635,-0.081544,-0.0285,-0.033397,-0.011198,,,,,,,,,,,,,,,,,,,,,,,,,,,,,,,,,,,,,,,,,,,,,,,,,,,,,,,,,,,,,,,,,
38458,1645901202.154841,1645901202.198051,105.0,0.0,4328.717772999999,4408.205078,4181.538574,4177.436035,4292.820313,450.0,1.0,15.0,,,,0.0,4.0,2.0,1.0,4.0,4.0,58.33333199999999,,,,,,,,,,,,,,,,,,,,,,,,,,,,,,,,,,,,,,,,,,,,,,,,,,,,,,,,,,,,,,,,,,,,,,,,,,,,,,,,,,,,
38459,1645901202.162654,1645901202.205866,106.0,0.0,4309.743652,4360.0,4149.230957,4176.922852000001,4271.282227000001,450.0,1.0,15.0,,,,0.0,4.0,2.0,1.0,4.0,4.0,58.33333199999999,,,,,,,,53.0,0.0,0.719303,0.10693399999999999,0.6672359999999999,0.161133,0.929702,-0.368658,-0.076661,-0.028775,-0.033377,-0.01247,,,,,,,,,,,,,,,,,,,,,,,,,,,,,,,,,,,0.0,0.0,1.0,0.0,512.0,0.5770430000000001,,,,,,,,,,,,,,,,,,,,,,,,,
38460,1645901202.1704679,1645901202.213681,107.0,0.0,4305.641113000001,4389.230957,4166.666504,4183.077147999999,4274.358886999999,16297.0,1.0,15.0,,,,0.0,4.0,2.0,1.0,4.0,4.0,58.33333199999999,,,,,,,,,,,,,,,,,,,,,,,,,,,,,,,,,,,,,,,,,,,,,,,,,,,,,,,,,,,,,,,,,,,,,,,,,,,,,,,,,,,,
38461,1645901202.178282,1645901202.221495,108.0,0.0,4306.153809,4432.820313,4196.410156,4166.666504,4304.615234000001,450.0,1.0,15.0,,,,0.0,4.0,2.0,1.0,4.0,4.0,58.33333199999999,,,,,,,,54.0,0.0,0.719303,0.10693399999999999,0.6672359999999999,0.161133,0.9350729999999999,-0.379889,-0.08691499999999999,-0.029071,-0.033458,-0.010296,,,,,,,,,,,,,,,,,,,,,,,,,,,,,,,,,,,,,,,,,,,,,,,,,,,,,,,,,,,,,,,,,
38462,1645901202.186095,1645901202.22931,109.0,0.0,4317.94873,4413.846191,4200.0,4153.846191,4313.846191,450.0,1.0,15.0,,,,0.0,4.0,2.0,1.0,4.0,4.0,58.33333199999999,,,,,,,,,,,,,,,,,,,,,,,,,,,,,,,,,,,,,,,,,,,,,,,,,,,,,,,,,,,,,,,,,,,,,,,,,,,,,,,,,,,,
38463,1645901202.193909,1645901202.237124,110.0,0.0,4329.230957,4408.205078,4209.743652,4142.05127,4301.538574,450.0,1.0,15.0,,,,0.0,4.0,2.0,1.0,4.0,4.0,58.33333199999999,,,,,,,,55.0,0.0,0.719267,0.107178,0.6672359999999999,0.161133,0.948257,-0.380377,-0.077638,-0.02924,-0.033481,-0.008436,,,,,,,,,,,,,,,,,,,,,,,,,,,,,,,,,,,0.0,0.0,1.0,0.0,512.0,0.5770430000000001,,,,,,,,,,,,,,,,,,,,,,,,,
38464,1645901202.2017221,1645901202.245039,111.0,0.0,4326.666504,4445.641113000001,4244.615234000001,4130.769043,4297.436035,16297.0,1.0,15.0,,,,0.0,4.0,2.0,1.0,4.0,4.0,58.33333199999999,,,,,,,,,,,,,,,,,,,,,,,,,,,,,,,,,,,,,,,,,,,,,,,,,,,,,,,,,,,,,,,,,,,,,,,,,,,,,,,,,,,,
38465,1645901202.2095358,1645901202.2528539,112.0,0.0,4316.922852000001,4417.94873,4234.871582,4139.487305,4275.384765999999,450.0,1.0,15.0,,,,0.0,4.0,2.0,1.0,4.0,4.0,58.33333199999999,,,,,,,,56.0,0.0,0.719267,0.107178,0.6672359999999999,0.161133,0.9399559999999999,-0.374029,-0.085451,-0.029588,-0.033502,-0.00979,,,,,,,,,,,,,,,,,,,,,,,,,,,,,,,,,,,,,,,,,,,,,,,,,,,,,,,,,,,,,,,,,
38466,1645901202.217349,1645901202.260668,113.0,0.0,4321.538574,4325.641113000001,4252.307617,4168.717772999999,4260.512695,450.0,1.0,15.0,,,,0.0,4.0,2.0,1.0,4.0,4.0,58.33333199999999,,,,,,,,,,,,,,,,,,,,,,,,,,,,,,,,,,,,,,,,,,,,,,,,,,,,,,,,,,,,,,,,,,,,,,,,,,,,,,,,,,,,
38467,1645901202.225163,1645901202.268483,114.0,0.0,4327.179688,4373.333496,4268.717772999999,4166.153809,4285.641113000001,450.0,1.0,15.0,,,,0.0,4.0,2.0,1.0,4.0,4.0,58.33333199999999,,,,,,,,57.0,0.0,0.719176,0.107422,0.6672359999999999,0.161377,0.931167,-0.36084499999999997,-0.08691499999999999,-0.029656000000000002,-0.033472,-0.011155,,,,,,,,,,,,,,,,,,,,,,,,,,,,,,,,,,,0.0,0.0,1.0,0.0,512.0,0.5770430000000001,,,,,,,,,,,,,,,,,,,,,,,,,
38468,1645901202.232977,1645901202.276298,115.0,0.0,4310.769043,4431.794922,4300.0,4149.230957,4283.589844,16297.0,1.0,15.0,,,,0.0,4.0,2.0,1.0,4.0,4.0,58.33333199999999,,,,,,,,,,,,,,,,,,,,,,,,,,,,,,,,,,,,,,,,,,,,,,,,,,,,,,,,,,,,,,,,,,,,,,,,,,,,,,,,,,,,
38469,1645901202.2407901,1645901202.284112,116.0,0.0,4321.025879,4363.589844,4290.256348,4140.512695,4265.128418,450.0,1.0,15.0,,,,0.0,4.0,2.0,1.0,4.0,4.0,58.33333199999999,,,,,,,,58.0,0.0,0.719176,0.107422,0.6672359999999999,0.161377,0.9316549999999999,-0.366705,-0.072755,-0.029816000000000002,-0.033348,-0.009258,,,,,,,,,,,,,,,,,,,,,,,,,,,,,,,,,,,,,,,,,,,,,,,,,,,,,,,,,,,,,,,,,
38470,1645901202.2486038,1645901202.2919269,117.0,0.0,4337.436035,4393.333496,4312.820313,4118.974121,4292.820313,450.0,1.0,15.0,,,,0.0,4.0,2.0,1.0,4.0,4.0,58.33333199999999,,,,,,,,,,,,,,,,,,,,,,,,,,,,,,,,,,,,,,,,,,,,,,,,,,,,,,,,,,,,,,,,,,,,,,,,,,,,,,,,,,,,
38471,1645901202.256417,1645901202.299742,118.0,0.0,4331.794922,4460.0,4303.077147999999,4143.077147999999,4296.410156,450.0,1.0,15.0,,,,0.0,4.0,2.0,1.0,4.0,4.0,58.33333199999999,,,,,,,,59.0,0.0,0.7194020000000001,0.107422,0.666992,0.161377,0.9194479999999999,-0.370123,-0.083009,-0.026882999999999997,-0.03348,-0.010529,1.0,0.0,0.0,,,,,,,,,,,,,,,,,,,,,,,,,,,,,,,,0.0,0.0,1.0,0.0,512.0,0.47532399999999997,5.100764,4.16755,3.3536620000000004,0.992133,0.711587,37.764771,33.566364,15.121120000000001,22.207413,16.124434,22.429235000000002,27.153862,20.854927,3.8555370000000004,3.748069,7.626467,1.6411779999999998,4.06562,4.759499,2.516105,6.595935000000001,6.675395,7.081003,3.3930879999999997,2.037229
38472,1645901202.264231,1645901202.3075562,119.0,0.0,4333.846191,4357.94873,4255.897461,4189.743652,4240.0,16297.0,1.0,15.0,,,,0.0,4.0,2.0,1.0,4.0,4.0,58.33333199999999,,,,,,,,,,,,,,,,,,,,,,,,,,,,,,,,,,,,,,,,,,,,,,,,,,,,,,,,,,,,,,,,,,,,,,,,,,,,,,,,,,,,
38473,1645901202.272045,1645901202.3154712,120.0,0.0,4339.487305,4279.487305,4227.692383,4208.717772999999,4258.974121,450.0,1.0,15.0,,,,0.0,4.0,2.0,1.0,4.0,4.0,58.33333199999999,,,,,,,,60.0,0.0,0.719176,0.107422,0.6672359999999999,0.161377,0.932631,-0.363775,-0.081544,-0.02732,-0.033500999999999996,-0.011723,,,,,,,,,,,,,,,,,,,,,,,,,,,,,,,,,,,,,,,,,,,,,,,,,,,,,,,,,,,,,,,,,
38474,1645901202.279858,1645901202.3232849,121.0,0.0,4314.871582,4387.179688,4213.333496,4208.205078,4303.589844,450.0,1.0,15.0,,,,0.0,4.0,2.0,1.0,4.0,4.0,58.33333199999999,,,,,,,,,,,,,,,,,,,,,,,,,,,,,,,,,,,,,,,,,,,,,,,,,,,,,,,,,,,,,,,,,,,,,,,,,,,,,,,,,,,,
38475,1645901202.287672,1645901202.3311,122.0,0.0,4317.436035,4456.410156,4195.384765999999,4191.282227000001,4303.077147999999,450.0,1.0,15.0,,,,0.0,4.0,2.0,1.0,4.0,4.0,58.33333199999999,,,,,,,,61.0,0.0,0.719176,0.107422,0.6672359999999999,0.161377,0.940932,-0.36524,-0.095705,-0.027762000000000002,-0.033667,-0.012844999999999999,,,,,,,,,,,,,,,,,,,,,,,,,,,,,,,,,,,0.0,0.0,1.0,0.0,512.0,0.47532399999999997,,,,,,,,,,,,,,,,,,,,,,,,,
38476,1645901202.295485,1645901202.338915,123.0,0.0,4311.794922,4412.820313,4220.0,4152.307617,4283.589844,16297.0,1.0,15.0,,,,0.0,4.0,2.0,1.0,4.0,4.0,58.33333199999999,,,,,,,,,,,,,,,,,,,,,,,,,,,,,,,,,,,,,,,,,,,,,,,,,,,,,,,,,,,,,,,,,,,,,,,,,,,,,,,,,,,,
38477,1645901202.303299,1645901202.3467288,124.0,0.0,4300.512695,4350.769043,4240.512695,4154.871582,4257.94873,450.0,1.0,15.0,,,,0.0,4.0,2.0,1.0,4.0,4.0,58.33333199999999,,,,,,,,62.0,0.0,0.71923,0.107422,0.6672359999999999,0.161133,0.940932,-0.356451,-0.088869,-0.028111,-0.03362,-0.013758000000000001,,,,,,,,,,,,,,,,,,,,,,,,,,,,,,,,,,,,,,,,,,,,,,,,,,,,,,,,,,,,,,,,,
38478,1645901202.311113,1645901202.354544,125.0,0.0,4326.666504,4324.615234000001,4228.205078,4161.538574,4246.153809,450.0,1.0,15.0,,,,0.0,4.0,2.0,1.0,4.0,4.0,58.33333199999999,,,,,,,,,,,,,,,,,,,,,,,,,,,,,,,,,,,,,,,,,,,,,,,,,,,,,,,,,,,,,,,,,,,,,,,,,,,,,,,,,,,,
38479,1645901202.3189259,1645901202.362359,126.0,0.0,4343.589844,4377.436035,4237.436035,4146.666504,4273.846191,450.0,1.0,15.0,,,,0.0,4.0,2.0,1.0,4.0,4.0,58.33333199999999,,,,,,,,63.0,0.0,0.719267,0.107178,0.6672359999999999,0.161133,0.9350729999999999,-0.364263,-0.096193,-0.028376,-0.033530000000000004,-0.011503,,,,,,,,,,,,,,,,,,,,,,,,,,,,,,,,,,,0.0,0.0,1.0,0.0,512.0,0.47532399999999997,,,,,,,,,,,,,,,,,,,,,,,,,
38480,1645901202.32674,1645901202.370173,127.0,0.0,4316.410156,4386.153809,4236.410156,4143.589844,4282.563965,233.0,1.0,15.0,,,,0.0,4.0,2.0,1.0,4.0,4.0,58.33333199999999,,,,,,,,,,,,,,,,,,,,,,,,,,,,,,,,,,,,,,,,,,,,,,,,,,,,,,,,,,,,,,,,,,,,,,,,,,,,,,,,,,,,
38481,1645901202.334553,1645901202.377988,0.0,0.0,4311.282227000001,4313.333496,4214.871582,4155.384765999999,4264.102539,450.0,1.0,15.0,,,,0.0,4.0,2.0,1.0,4.0,4.0,58.33333199999999,,,,,,,,0.0,0.0,0.719267,0.107178,0.6672359999999999,0.161133,0.937026,-0.37109899999999996,-0.076661,-0.025587000000000002,-0.033497000000000006,-0.012648000000000001,,,,,,,,,,,,,,,,,,,,,,,,,,,,,,,,,,,,,,,,,,,,,,,,,,,,,,,,,,,,,,,,,
38482,1645901202.342367,1645901202.385902,1.0,0.0,4322.563965,4305.128418,4223.589844,4150.769043,4262.05127,450.0,1.0,15.0,,,,0.0,2.0,0.0,0.0,4.0,4.0,16.666666,,,,,,,,,,,,,,,,,,,,,,,,,,,,,,,,,,,,,,,,,,,,,,,,,,,,,,,,,,,,,,,,,,,,,,,,,,,,,,,,,,,,
38483,1645901202.350181,1645901202.393717,2.0,0.0,4308.717772999999,4343.077147999999,4309.230957,4147.179688,4257.436035,302.0,1.0,15.0,,,,0.0,2.0,0.0,0.0,4.0,4.0,16.666666,,,,,,,,1.0,0.0,0.719322,0.107178,0.6672359999999999,0.160889,0.941421,-0.362799,-0.09765800000000001,-0.026152999999999996,-0.033614,-0.010504000000000001,,,,,,,,,,,,,,,,,,,,,,,,,,,,,,,,,,,0.0,0.0,1.0,0.0,512.0,0.47532399999999997,,,,,,,,,,,,,,,,,,,,,,,,,
38484,1645901202.3579938,1645901202.401532,3.0,0.0,4316.922852000001,4328.205078,4297.436035,4152.820313,4246.666504,450.0,1.0,15.0,,,,0.0,2.0,0.0,0.0,4.0,4.0,16.666666,,,,,,,,,,,,,,,,,,,,,,,,,,,,,,,,,,,,,,,,,,,,,,,,,,,,,,,,,,,,,,,,,,,,,,,,,,,,,,,,,,,,
38485,1645901202.365808,1645901202.409346,4.0,0.0,4343.589844,4358.461426,4269.230957,4148.717772999999,4263.077147999999,0.0,1.0,15.0,,,,0.0,2.0,0.0,0.0,4.0,4.0,16.666666,,,,,,,,2.0,0.0,0.719322,0.107178,0.6672359999999999,0.160889,0.93019,-0.380377,-0.089357,-0.026810000000000004,-0.033671,-0.011602,,,,,,,,,,,,,,,,,,,,,,,,,,,,,,,,,,,,,,,,,,,,,,,,,,,,,,,,,,,,,,,,,
38486,1645901202.373621,1645901202.417161,5.0,0.0,4342.05127,4425.128418,4294.358886999999,4166.666504,4267.179688,450.0,1.0,15.0,,,,0.0,2.0,0.0,0.0,4.0,4.0,16.666666,,,,,,,,,,,,,,,,,,,,,,,,,,,,,,,,,,,,,,,,,,,,,,,,,,,,,,,,,,,,,,,,,,,,,,,,,,,,,,,,,,,,
38487,1645901202.381435,1645901202.4249759,6.0,0.0,4342.05127,4439.487305,4306.153809,4175.384765999999,4252.820313,43.0,1.0,15.0,,,,0.0,2.0,0.0,0.0,4.0,4.0,16.666666,,,,,,,,3.0,0.0,0.7193579999999999,0.10693399999999999,0.6672359999999999,0.160889,0.9423969999999999,-0.36084499999999997,-0.092775,-0.027254,-0.033868,-0.012688,1.0,0.0,0.0,,,,,,,,,,,,,,,,,,,,,,,,,,,,,,,,0.0,0.0,1.0,0.0,512.0,0.49746,5.867868,4.484687,3.7234849999999997,0.8295309999999999,0.6469520000000001,44.738712,40.690887,15.247714000000002,19.817186,16.66638,21.941423,26.645109,19.250584,3.879025,3.7562300000000004,7.741745,1.905634,3.5237839999999996,4.939,2.608264,7.845453999999999,7.7987850000000005,7.4520740000000005,3.3079709999999998,1.97117
38488,1645901202.389249,1645901202.43279,7.0,0.0,4345.128418,4438.461426,4253.846191,4160.512695,4281.538574,450.0,1.0,15.0,,,,0.0,2.0,0.0,0.0,4.0,4.0,16.666666,,,,,,,,,,,,,,,,,,,,,,,,,,,,,,,,,,,,,,,,,,,,,,,,,,,,,,,,,,,,,,,,,,,,,,,,,,,,,,,,,,,,
38489,1645901202.3970618,1645901202.4406052,8.0,0.0,4322.563965,4420.512695,4228.205078,4176.922852000001,4294.871582,450.0,1.0,15.0,,,,0.0,2.0,0.0,0.0,4.0,4.0,16.666666,,,,,,,,4.0,0.0,0.7193579999999999,0.10693399999999999,0.6672359999999999,0.160889,0.9316549999999999,-0.374517,-0.095216,-0.027701999999999997,-0.033851,-0.01054,,,,,,,,,,,,,,,,,,,,,,,,,,,,,,,,,,,,,,,,,,,,,,,,,,,,,,,,,,,,,,,,,
38490,1645901202.404876,1645901202.4484198,9.0,0.0,4323.077147999999,4407.179688,4195.384765999999,4203.077147999999,4294.871582,16203.0,1.0,15.0,,,,0.0,2.0,0.0,0.0,4.0,4.0,16.666666,,,,,,,,,,,,,,,,,,,,,,,,,,,,,,,,,,,,,,,,,,,,,,,,,,,,,,,,,,,,,,,,,,,,,,,,,,,,,,,,,,,,
38491,1645901202.412689,1645901202.4563339,10.0,0.0,4324.615234000001,4416.922852000001,4172.307617,4192.307617,4299.487305,450.0,1.0,15.0,,,,0.0,2.0,0.0,0.0,4.0,4.0,16.666666,,,,,,,,5.0,0.0,0.7193579999999999,0.10693399999999999,0.6672359999999999,0.160889,0.9272600000000001,-0.361822,-0.088869,-0.028106,-0.033884,-0.011781,,,,,,,,,,,,,,,,,,,,,,,,,,,,,,,,,,,0.0,0.0,1.0,0.0,512.0,0.49746,,,,,,,,,,,,,,,,,,,,,,,,,
38492,1645901202.420503,1645901202.464149,11.0,0.0,4331.282227000001,4430.256348,4183.589844,4187.692383,4302.563965,16075.0,1.0,15.0,,,,0.0,2.0,0.0,0.0,4.0,4.0,16.666666,,,,,,,,,,,,,,,,,,,,,,,,,,,,,,,,,,,,,,,,,,,,,,,,,,,,,,,,,,,,,,,,,,,,,,,,,,,,,,,,,,,,
38493,1645901202.428316,1645901202.4719632,12.0,0.0,4340.512695,4441.538574,4216.922852000001,4174.358886999999,4298.974121,450.0,1.0,15.0,,,,0.0,2.0,0.0,0.0,4.0,4.0,16.666666,,,,,,,,6.0,0.0,0.7193579999999999,0.10693399999999999,0.6672359999999999,0.160889,0.9423969999999999,-0.36084499999999997,-0.092775,-0.028518,-0.033913,-0.0128,,,,,,,,,,,,,,,,,,,,,,,,,,,,,,,,,,,,,,,,,,,,,,,,,,,,,,,,,,,,,,,,,
38494,1645901202.43613,1645901202.4797778,13.0,0.0,4351.282227000001,4440.0,4242.563965,4157.436035,4320.0,450.0,1.0,15.0,,,,0.0,2.0,0.0,0.0,4.0,4.0,16.666666,,,,,,,,,,,,,,,,,,,,,,,,,,,,,,,,,,,,,,,,,,,,,,,,,,,,,,,,,,,,,,,,,,,,,,,,,,,,,,,,,,,,
38495,1645901202.443944,1645901202.487593,14.0,0.0,4347.179688,4403.077147999999,4256.410156,4163.589844,4305.128418,450.0,1.0,15.0,,,,0.0,2.0,0.0,0.0,4.0,4.0,16.666666,,,,,,,,7.0,0.0,0.7193579999999999,0.10693399999999999,0.6672359999999999,0.160889,0.9272600000000001,-0.361822,-0.088869,-0.028839999999999998,-0.03394,-0.013815000000000001,,,,,,,,,,,,,,,,,,,,,,,,,,,,,,,,,,,0.0,0.0,1.0,0.0,512.0,0.49746,,,,,,,,,,,,,,,,,,,,,,,,,
38496,1645901202.451757,1645901202.495407,15.0,0.0,4341.025879,4351.282227000001,4264.615234000001,4182.563965,4238.974121,16075.0,1.0,15.0,,,,0.0,2.0,0.0,0.0,4.0,4.0,16.666666,,,,,,,,,,,,,,,,,,,,,,,,,,,,,,,,,,,,,,,,,,,,,,,,,,,,,,,,,,,,,,,,,,,,,,,,,,,,,,,,,,,,
38497,1645901202.4595711,1645901202.503222,16.0,0.0,4332.820313,4365.641113000001,4232.820313,4168.717772999999,4230.256348,0.0,1.0,15.0,,,,0.0,2.0,0.0,0.0,4.0,4.0,16.666666,,,,,,,,8.0,0.0,0.7193579999999999,0.10693399999999999,0.6672359999999999,0.160889,0.932143,-0.37109899999999996,-0.084962,-0.029081,-0.033866,-0.014778,,,,,,,,,,,,,,,,,,,,,,,,,,,,,,,,,,,,,,,,,,,,,,,,,,,,,,,,,,,,,,,,,
38498,1645901202.467384,1645901202.5110369,17.0,0.0,4321.538574,4449.743652,4247.179688,4169.230957,4261.538574,0.0,1.0,15.0,,,,0.0,2.0,0.0,0.0,4.0,4.0,16.666666,,,,,,,,,,,,,,,,,,,,,,,,,,,,,,,,,,,,,,,,,,,,,,,,,,,,,,,,,,,,,,,,,,,,,,,,,,,,,,,,,,,,
38499,1645901202.475198,1645901202.518851,18.0,0.0,4327.692383,4480.512695,4247.692383,4170.256348,4249.230957,0.0,1.0,15.0,,,,0.0,2.0,0.0,0.0,4.0,4.0,16.666666,,,,,,,,9.0,0.0,0.719394,0.106689,0.6672359999999999,0.160889,0.938003,-0.366705,-0.08691499999999999,-0.029396,-0.033947000000000005,-0.012519,,,,,,,,,,,,,,,,,,,,,,,,,,,,,,,,,,,0.0,0.0,1.0,0.0,512.0,0.49746,,,,,,,,,,,,,,,,,,,,,,,,,
38500,1645901202.483012,1645901202.526666,19.0,0.0,4309.230957,4451.794922,4253.333496,4144.615234000001,4255.384765999999,0.0,1.0,15.0,,,,0.0,2.0,0.0,0.0,4.0,4.0,16.666666,,,,,,,,,,,,,,,,,,,,,,,,,,,,,,,,,,,,,,,,,,,,,,,,,,,,,,,,,,,,,,,,,,,,,,,,,,,,,,,,,,,,
38501,1645901202.490825,1645901202.534581,20.0,0.0,4300.0,4440.512695,4259.487305,4136.922852000001,4286.666504,0.0,1.0,15.0,,,,0.0,2.0,0.0,0.0,4.0,4.0,16.666666,,,,,,,,10.0,0.0,0.71943,0.106445,0.6672359999999999,0.160889,0.9316549999999999,-0.367681,-0.092775,-0.02963,-0.033872,-0.013611000000000002,,,,,,,,,,,,,,,,,,,,,,,,,,,,,,,,,,,,,,,,,,,,,,,,,,,,,,,,,,,,,,,,,
38502,1645901202.498639,1645901202.5423949,21.0,0.0,4323.077147999999,4412.820313,4275.897461,4127.179688,4279.487305,0.0,1.0,15.0,,,,0.0,2.0,0.0,0.0,4.0,4.0,16.666666,,,,,,,,,,,,,,,,,,,,,,,,,,,,,,,,,,,,,,,,,,,,,,,,,,,,,,,,,,,,,,,,,,,,,,,,,,,,,,,,,,,,
38503,1645901202.5064518,1645901202.55021,22.0,0.0,4315.384765999999,4365.641113000001,4240.512695,4126.153809,4257.94873,0.0,1.0,15.0,,,,0.0,2.0,0.0,0.0,4.0,4.0,16.666666,1.0,16.666666,2.0,0.0,0.0,4.0,2.0,11.0,0.0,0.71943,0.106445,0.6672359999999999,0.160889,0.9350729999999999,-0.36328699999999997,-0.08838,-0.029743000000000002,-0.033902999999999996,-0.011468,1.0,0.0,0.0,,,,,,,,,,,,,,,,,,,,,,,,,,,,,,,,0.0,0.0,1.0,0.0,512.0,0.43653400000000003,6.469515,4.922207,4.019823000000001,0.759677,0.624008,49.599087,50.712391,16.135970999999998,17.730954999999998,17.080572,24.387179999999997,26.504465000000003,17.132822,3.7319730000000004,3.9431589999999996,7.207008999999999,2.187963,3.053385,5.012792,2.664807,9.179979,9.396022,7.475633,3.3319410000000005,1.912852
38504,1645901202.514266,1645901202.558024,23.0,0.0,4293.333496,4401.025879,4205.641113000001,4142.563965,4243.077147999999,0.0,1.0,15.0,,,,0.0,2.0,0.0,0.0,4.0,4.0,16.666666,,,,,,,,,,,,,,,,,,,,,,,,,,,,,,,,,,,,,,,,,,,,,,,,,,,,,,,,,,,,,,,,,,,,,,,,,,,,,,,,,,,,
38505,1645901202.5220802,1645901202.565839,24.0,0.0,4312.820313,4463.077147999999,4213.333496,4132.307617,4258.461426,0.0,1.0,15.0,,,,0.0,2.0,0.0,0.0,4.0,4.0,16.666666,,,,,,,,12.0,0.0,0.7194659999999999,0.106201,0.6672359999999999,0.160889,0.9316549999999999,-0.36817,-0.080568,-0.026818,-0.03398,-0.012616,,,,,,,,,,,,,,,,,,,,,,,,,,,,,,,,,,,,,,,,,,,,,,,,,,,,,,,,,,,,,,,,,
38506,1645901202.529893,1645901202.573654,25.0,0.0,4314.871582,4424.615234000001,4229.743652,4119.487305,4271.282227000001,0.0,1.0,15.0,,,,0.0,2.0,0.0,0.0,4.0,4.0,16.666666,,,,,,,,,,,,,,,,,,,,,,,,,,,,,,,,,,,,,,,,,,,,,,,,,,,,,,,,,,,,,,,,,,,,,,,,,,,,,,,,,,,,
38507,1645901202.537707,1645901202.5814679,26.0,0.0,4315.384765999999,4421.025879,4190.769043,4153.846191,4276.410156,0.0,1.0,15.0,,,,0.0,2.0,0.0,0.0,4.0,4.0,16.666666,,,,,,,,13.0,0.0,0.719521,0.106201,0.6672359999999999,0.160645,0.95021,-0.373541,-0.089357,-0.027456,-0.033902,-0.013699000000000001,,,,,,,,,,,,,,,,,,,,,,,,,,,,,,,,,,,0.0,0.0,1.0,0.0,512.0,0.43653400000000003,,,,,,,,,,,,,,,,,,,,,,,,,
38508,1645901202.5455198,1645901202.589283,27.0,0.0,4327.179688,4472.820313,4205.641113000001,4180.0,4287.692383,0.0,1.0,15.0,,,,0.0,2.0,0.0,0.0,4.0,4.0,16.666666,,,,,,,,,,,,,,,,,,,,,,,,,,,,,,,,,,,,,,,,,,,,,,,,,,,,,,,,,,,,,,,,,,,,,,,,,,,,,,,,,,,,
38509,1645901202.553334,1645901202.597098,28.0,0.0,4344.102539,4437.94873,4234.358886999999,4168.205078,4316.922852000001,0.0,1.0,15.0,,,,0.0,2.0,0.0,0.0,4.0,4.0,16.666666,,,,,,,,14.0,0.0,0.719485,0.106445,0.6672359999999999,0.160645,0.9155409999999999,-0.369635,-0.09765800000000001,-0.027982,-0.033783,-0.01145,,,,,,,,,,,,,,,,,,,,,,,,,,,,,,,,,,,,,,,,,,,,,,,,,,,,,,,,,,,,,,,,,
38510,1645901202.561148,1645901202.605012,29.0,0.0,4343.077147999999,4403.589844,4218.461426,4132.307617,4315.897461,0.0,1.0,15.0,,,,0.0,2.0,0.0,0.0,4.0,4.0,16.666666,,,,,,,,,,,,,,,,,,,,,,,,,,,,,,,,,,,,,,,,,,,,,,,,,,,,,,,,,,,,,,,,,,,,,,,,,,,,,,,,,,,,
38511,1645901202.568961,1645901202.612827,30.0,0.0,4322.05127,4440.512695,4218.974121,4124.102539,4281.538574,0.0,1.0,15.0,,,,0.0,2.0,0.0,0.0,4.0,4.0,16.666666,,,,,,,,15.0,0.0,0.719521,0.106201,0.6672359999999999,0.160645,0.945327,-0.375006,-0.097169,-0.028406999999999998,-0.033774,-0.009426,,,,,,,,,,,,,,,,,,,,,,,,,,,,,,,,,,,0.0,0.0,1.0,0.0,512.0,0.43653400000000003,,,,,,,,,,,,,,,,,,,,,,,,,
38512,1645901202.576775,1645901202.620642,31.0,0.0,4296.410156,4431.282227000001,4240.0,4128.717772999999,4253.333496,0.0,1.0,15.0,,,,0.0,2.0,0.0,0.0,4.0,4.0,16.666666,,,,,,,,,,,,,,,,,,,,,,,,,,,,,,,,,,,,,,,,,,,,,,,,,,,,,,,,,,,,,,,,,,,,,,,,,,,,,,,,,,,,
38513,1645901202.584588,1645901202.628456,32.0,0.0,4310.769043,4380.0,4240.0,4118.974121,4252.307617,0.0,1.0,15.0,,,,0.0,2.0,0.0,0.0,4.0,4.0,16.666666,,,,,,,,16.0,0.0,0.719575,0.106201,0.6672359999999999,0.1604,0.929213,-0.35547399999999996,-0.093263,-0.025615,-0.033766000000000004,-0.007751000000000001,,,,,,,,,,,,,,,,,,,,,,,,,,,,,,,,,,,,,,,,,,,,,,,,,,,,,,,,,,,,,,,,,
38514,1645901202.592402,1645901202.636271,33.0,0.0,4341.538574,4421.538574,4217.94873,4112.307617,4270.256348,0.0,1.0,15.0,,,,0.0,2.0,0.0,0.0,4.0,4.0,16.666666,,,,,,,,,,,,,,,,,,,,,,,,,,,,,,,,,,,,,,,,,,,,,,,,,,,,,,,,,,,,,,,,,,,,,,,,,,,,,,,,,,,,
38515,1645901202.600216,1645901202.644185,34.0,0.0,4330.256348,4469.230957,4283.077147999999,4148.717772999999,4265.128418,0.0,1.0,15.0,,,,0.0,2.0,0.0,0.0,4.0,4.0,16.666666,,,,,,,,17.0,0.0,0.719575,0.106201,0.6672359999999999,0.1604,0.945815,-0.350103,-0.081544,-0.023102,-0.033759,-0.009222,,,,,,,,,,,,,,,,,,,,,,,,,,,,,,,,,,,0.0,0.0,1.0,0.0,512.0,0.43653400000000003,,,,,,,,,,,,,,,,,,,,,,,,,
38516,1645901202.608029,1645901202.6521,35.0,0.0,4324.615234000001,4387.179688,4267.692383,4183.589844,4235.897461,0.0,1.0,15.0,,,,0.0,2.0,0.0,0.0,4.0,4.0,16.666666,,,,,,,,,,,,,,,,,,,,,,,,,,,,,,,,,,,,,,,,,,,,,,,,,,,,,,,,,,,,,,,,,,,,,,,,,,,,,,,,,,,,
38517,1645901202.615843,1645901202.659915,36.0,0.0,4335.897461,4379.487305,4229.230957,4178.461426,4246.666504,0.0,1.0,15.0,,,,0.0,2.0,0.0,0.0,4.0,4.0,16.666666,,,,,,,,18.0,0.0,0.719575,0.106201,0.6672359999999999,0.1604,0.9433739999999999,-0.36328699999999997,-0.08447400000000001,-0.023966,-0.033801,-0.007372,,,,,,,,,,,,,,,,,,,,,,,,,,,,,,,,,,,,,,,,,,,,,,,,,,,,,,,,,,,,,,,,,
38518,1645901202.623656,1645901202.667729,37.0,0.0,4334.358886999999,4452.820313,4250.256348,4172.820313,4275.897461,0.0,1.0,15.0,,,,0.0,2.0,0.0,0.0,4.0,4.0,16.666666,,,,,,,,,,,,,,,,,,,,,,,,,,,,,,,,,,,,,,,,,,,,,,,,,,,,,,,,,,,,,,,,,,,,,,,,,,,,,,,,,,,,
38519,1645901202.63147,1645901202.675644,38.0,0.0,4336.410156,4411.794922,4248.717772999999,4154.358886999999,4288.717772999999,0.0,1.0,15.0,,,,0.0,2.0,0.0,0.0,4.0,4.0,16.666666,,,,,,,,19.0,0.0,0.719521,0.106201,0.6672359999999999,0.160645,0.9243309999999999,-0.3794,-0.08691499999999999,-0.021618000000000002,-0.033741,-0.005902,1.0,0.0,0.0,,,,,,,,,,,,,,,,,,,,,,,,,,,,,,,,0.0,0.0,1.0,0.0,512.0,0.464896,6.628514999999999,5.447493,4.236905,0.780188,0.638107,50.595772,61.144093000000005,17.491039,16.084116,17.25374,29.738590000000002,27.184877,15.056794,3.5359760000000002,4.110866000000001,6.262491000000001,2.605394,2.682516,5.039803,2.613454,10.260021,11.239901,7.11775,3.353925,1.904009
38520,1645901202.639284,1645901202.683458,39.0,0.0,4331.794922,4339.487305,4216.922852000001,4141.538574,4291.282227000001,0.0,1.0,15.0,,,,0.0,2.0,0.0,0.0,4.0,4.0,16.666666,,,,,,,,,,,,,,,,,,,,,,,,,,,,,,,,,,,,,,,,,,,,,,,,,,,,,,,,,,,,,,,,,,,,,,,,,,,,,,,,,,,,
38521,1645901202.647097,1645901202.691273,40.0,0.0,4307.179688,4346.153809,4237.94873,4138.974121,4260.0,0.0,1.0,15.0,,,,0.0,2.0,0.0,0.0,4.0,4.0,16.666666,,,,,,,,20.0,0.0,0.719557,0.105957,0.6672359999999999,0.160645,0.940932,-0.361334,-0.08447400000000001,-0.022678999999999998,-0.033687,-0.007558,,,,,,,,,,,,,,,,,,,,,,,,,,,,,,,,,,,,,,,,,,,,,,,,,,,,,,,,,,,,,,,,,
38522,1645901202.654911,1645901202.699188,41.0,0.0,4309.743652,4392.307617,4205.128418,4119.487305,4271.282227000001,0.0,1.0,15.0,,,,0.0,2.0,0.0,0.0,4.0,4.0,16.666666,,,,,,,,,,,,,,,,,,,,,,,,,,,,,,,,,,,,,,,,,,,,,,,,,,,,,,,,,,,,,,,,,,,,,,,,,,,,,,,,,,,,
38523,1645901202.662724,1645901202.707002,42.0,0.0,4306.666504,4429.230957,4177.436035,4122.05127,4299.487305,0.0,1.0,15.0,,,,0.0,2.0,0.0,0.0,4.0,4.0,16.666666,,,,,,,,21.0,0.0,0.719647,0.10571300000000002,0.6672359999999999,0.1604,0.921889,-0.352544,-0.092287,-0.023634,-0.033688,-0.009146,,,,,,,,,,,,,,,,,,,,,,,,,,,,,,,,,,,0.0,0.0,1.0,0.0,512.0,0.464896,,,,,,,,,,,,,,,,,,,,,,,,,
38524,1645901202.6705382,1645901202.714817,43.0,0.0,4307.179688,4466.666504,4208.205078,4157.94873,4287.692383,0.0,1.0,15.0,,,,0.0,2.0,0.0,0.0,4.0,4.0,16.666666,,,,,,,,,,,,,,,,,,,,,,,,,,,,,,,,,,,,,,,,,,,,,,,,,,,,,,,,,,,,,,,,,,,,,,,,,,,,,,,,,,,,
38525,1645901202.6783519,1645901202.722632,44.0,0.0,4324.615234000001,4494.358886999999,4218.974121,4141.025879,4276.922852000001,0.0,1.0,15.0,,,,0.0,2.0,0.0,0.0,4.0,4.0,16.666666,,,,,,,,22.0,0.0,0.719366,0.10571300000000002,0.6674800000000001,0.160645,0.9267719999999999,-0.372564,-0.075685,-0.024541999999999998,-0.033591,-0.007353,,,,,,,,,,,,,,,,,,,,,,,,,,,,,,,,,,,,,,,,,,,,,,,,,,,,,,,,,,,,,,,,,
38526,1645901202.686165,1645901202.730446,45.0,0.0,4334.358886999999,4472.307617,4230.769043,4133.333496,4296.410156,0.0,1.0,15.0,,,,0.0,2.0,0.0,0.0,4.0,4.0,16.666666,,,,,,,,,,,,,,,,,,,,,,,,,,,,,,,,,,,,,,,,,,,,,,,,,,,,,,,,,,,,,,,,,,,,,,,,,,,,,,,,,,,,
38527,1645901202.693979,1645901202.738261,46.0,0.0,4322.563965,4389.743652,4273.333496,4167.179688,4259.487305,0.0,1.0,15.0,,,,0.0,2.0,0.0,0.0,4.0,4.0,16.666666,,,,,,,,23.0,0.0,0.719366,0.10571300000000002,0.6674800000000001,0.160645,0.939467,-0.357916,-0.095705,-0.022137,-0.033454000000000005,-0.008864,,,,,,,,,,,,,,,,,,,,,,,,,,,,,,,,,,,0.0,0.0,1.0,0.0,512.0,0.464896,,,,,,,,,,,,,,,,,,,,,,,,,
38528,1645901202.701792,1645901202.746075,47.0,1.0,4318.974121,4399.230957,4260.063965,4168.141113000001,4257.884765999999,0.0,1.0,15.0,,,,0.0,2.0,0.0,0.0,4.0,4.0,16.666666,,,,,,,,,,,,,,,,,,,,,,,,,,,,,,,,,,,,,,,,,,,,,,,,,,,,,,,,,,,,,,,,,,,,,,,,,,,,,,,,,,,,
38529,1645901202.7096062,1645901202.75389,48.0,1.0,4315.384765999999,4408.717772999999,4246.794922,4169.102539,4256.282227000001,0.0,1.0,15.0,,,,0.0,2.0,0.0,0.0,4.0,4.0,16.666666,,,,,,,,24.0,1.0,0.719357,0.105774,0.6674800000000001,0.160645,0.937758,-0.363165,-0.092775,-0.022377,-0.033448,-0.009191,,,,,,,,,,,,,,,,,,,,,,,,,,,,,,,,,,,,,,,,,,,,,,,,,,,,,,,,,,,,,,,,,
38530,1645901202.7174199,1645901202.7617052,49.0,1.0,4311.794922,4418.205078,4233.525879,4170.063965,4254.679688,0.0,1.0,15.0,,,,0.0,2.0,0.0,0.0,4.0,4.0,16.666666,,,,,,,,,,,,,,,,,,,,,,,,,,,,,,,,,,,,,,,,,,,,,,,,,,,,,,,,,,,,,,,,,,,,,,,,,,,,,,,,,,,,
38531,1645901202.725233,1645901202.7695189,50.0,1.0,4308.205078,4427.692383,4220.256348,4171.025879,4253.077147999999,0.0,1.0,15.0,,,,0.0,2.0,0.0,0.0,4.0,4.0,16.666666,,,,,,,,25.0,1.0,0.719348,0.10583499999999998,0.6674800000000001,0.160645,0.936049,-0.36841399999999996,-0.08984500000000001,-0.022616999999999998,-0.033442,-0.009519,,,,,,,,,,,,,,,,,,,,,,,,,,,,,,,,,,,0.0,0.0,1.0,0.0,512.0,0.464896,,,,,,,,,,,,,,,,,,,,,,,,,
38532,1645901202.733047,1645901202.777334,51.0,1.0,4304.615234000001,4437.179688,4206.987305,4171.987305,4251.474121,0.0,1.0,15.0,,,,0.0,2.0,0.0,0.0,4.0,4.0,16.666666,,,,,,,,,,,,,,,,,,,,,,,,,,,,,,,,,,,,,,,,,,,,,,,,,,,,,,,,,,,,,,,,,,,,,,,,,,,,,,,,,,,,
38533,1645901202.74086,1645901202.785149,52.0,1.0,4301.025879,4446.666504,4193.717772999999,4172.94873,4249.871582,0.0,1.0,15.0,,,,0.0,2.0,0.0,0.0,4.0,4.0,16.666666,,,,,,,,26.0,1.0,0.7193390000000001,0.105896,0.6674800000000001,0.160645,0.93434,-0.373663,-0.08691499999999999,-0.022857,-0.033435,-0.009847,,,,,,,,,,,,,,,,,,,,,,,,,,,,,,,,,,,,,,,,,,,,,,,,,,,,,,,,,,,,,,,,,
38534,1645901202.748674,1645901202.792963,53.0,1.0,4297.436035,4456.153809,4180.44873,4173.910156,4248.269043,0.0,1.0,15.0,,,,0.0,2.0,0.0,0.0,4.0,4.0,16.666666,,,,,,,,,,,,,,,,,,,,,,,,,,,,,,,,,,,,,,,,,,,,,,,,,,,,,,,,,,,,,,,,,,,,,,,,,,,,,,,,,,,,
38535,1645901202.756487,1645901202.800778,54.0,0.0,4293.846191,4465.641113000001,4167.179688,4174.871582,4246.666504,0.0,1.0,15.0,,,,0.0,2.0,0.0,0.0,4.0,4.0,16.666666,,,,,,,,27.0,0.0,0.71933,0.105957,0.6674800000000001,0.160645,0.932631,-0.37891199999999997,-0.083986,-0.023097,-0.033429,-0.010173999999999999,1.0,0.0,0.0,,,,,,,,,,,,,,,,,,,,,,,,,,,,,,,,0.0,0.0,1.0,0.0,512.0,0.6124,6.333891,5.947671,4.407349,0.8808389999999999,0.685879,47.233222999999995,68.46186800000001,18.492971,15.001025,17.094715,37.123112,29.188553000000002,13.440437,3.473559,4.147042,5.4271519999999995,3.253926,2.504276,5.105589,2.429491,10.853924000000001,12.886834,6.509945,3.305599,1.96843
38536,1645901202.764301,1645901202.808593,55.0,0.0,4271.282227000001,4488.717772999999,4183.589844,4145.128418,4261.025879,0.0,1.0,15.0,,,,0.0,2.0,0.0,0.0,4.0,4.0,16.666666,,,,,,,,,,,,,,,,,,,,,,,,,,,,,,,,,,,,,,,,,,,,,,,,,,,,,,,,,,,,,,,,,,,,,,,,,,,,,,,,,,,,
38537,1645901202.772115,1645901202.816407,56.0,0.0,4292.307617,4494.871582,4241.025879,4131.794922,4282.05127,0.0,1.0,15.0,,,,0.0,2.0,0.0,0.0,4.0,4.0,16.666666,,,,,,,,28.0,0.0,0.71933,0.105957,0.6674800000000001,0.160645,0.945815,-0.366217,-0.09424,-0.023912,-0.033407,-0.008229,,,,,,,,,,,,,,,,,,,,,,,,,,,,,,,,,,,,,,,,,,,,,,,,,,,,,,,,,,,,,,,,,
38538,1645901202.779928,1645901202.824222,57.0,0.0,4316.922852000001,4506.153809,4270.769043,4123.589844,4303.077147999999,0.0,1.0,15.0,,,,0.0,2.0,0.0,0.0,4.0,4.0,16.666666,,,,,,,,,,,,,,,,,,,,,,,,,,,,,,,,,,,,,,,,,,,,,,,,,,,,,,,,,,,,,,,,,,,,,,,,,,,,,,,,,,,,
38539,1645901202.787742,1645901202.831936,58.0,0.0,4324.102539,4420.0,4261.025879,4132.307617,4301.025879,0.0,1.0,15.0,,,,0.0,2.0,0.0,0.0,4.0,4.0,16.666666,,,,,,,,29.0,0.0,0.71933,0.105957,0.6674800000000001,0.160645,0.929213,-0.363775,-0.086427,-0.024694999999999998,-0.033435,-0.009701000000000001,,,,,,,,,,,,,,,,,,,,,,,,,,,,,,,,,,,0.0,0.0,1.0,0.0,512.0,0.6124,,,,,,,,,,,,,,,,,,,,,,,,,
38540,1645901202.795555,1645901202.839751,59.0,0.0,4336.410156,4355.897461,4260.0,4142.05127,4286.153809,0.0,1.0,15.0,,,,0.0,2.0,0.0,0.0,4.0,4.0,16.666666,,,,,,,,,,,,,,,,,,,,,,,,,,,,,,,,,,,,,,,,,,,,,,,,,,,,,,,,,,,,,,,,,,,,,,,,,,,,,,,,,,,,
38541,1645901202.803369,1645901202.847565,60.0,0.0,4345.641113000001,4458.974121,4243.589844,4164.615234000001,4300.512695,0.0,1.0,15.0,,,,0.0,2.0,0.0,0.0,4.0,4.0,16.666666,,,,,,,,30.0,0.0,0.71933,0.105957,0.6674800000000001,0.160645,0.9404440000000001,-0.36035700000000004,-0.080079,-0.025448,-0.033461000000000005,-0.007901,,,,,,,,,,,,,,,,,,,,,,,,,,,,,,,,,,,,,,,,,,,,,,,,,,,,,,,,,,,,,,,,,
38542,1645901202.811183,1645901202.85538,61.0,0.0,4316.922852000001,4487.692383,4209.743652,4196.922852000001,4280.512695,0.0,1.0,15.0,,,,0.0,2.0,0.0,0.0,4.0,4.0,16.666666,,,,,,,,,,,,,,,,,,,,,,,,,,,,,,,,,,,,,,,,,,,,,,,,,,,,,,,,,,,,,,,,,,,,,,,,,,,,,,,,,,,,
38543,1645901202.8189962,1645901202.863194,62.0,0.0,4303.077147999999,4414.871582,4205.128418,4200.512695,4251.794922,0.0,1.0,15.0,,,,0.0,2.0,0.0,0.0,4.0,4.0,16.666666,,,,,,,,31.0,0.0,0.71933,0.105957,0.6674800000000001,0.160645,0.938003,-0.357427,-0.095705,-0.026126,-0.033435,-0.006183,,,,,,,,,,,,,,,,,,,,,,,,,,,,,,,,,,,0.0,0.0,1.0,0.0,512.0,0.6124,,,,,,,,,,,,,,,,,,,,,,,,,
38544,1645901202.82681,1645901202.871008,63.0,0.0,4312.307617,4462.563965,4218.974121,4154.871582,4258.974121,0.0,1.0,15.0,,,,0.0,2.0,0.0,0.0,4.0,4.0,16.666666,,,,,,,,,,,,,,,,,,,,,,,,,,,,,,,,,,,,,,,,,,,,,,,,,,,,,,,,,,,,,,,,,,,,,,,,,,,,,,,,,,,,
38545,1645901202.834623,1645901202.878823,64.0,0.0,4302.05127,4501.538574,4259.487305,4140.512695,4275.897461,450.0,1.0,15.0,,,,0.0,2.0,0.0,0.0,4.0,4.0,16.666666,,,,,,,,32.0,0.0,0.71933,0.105957,0.6674800000000001,0.160645,0.939467,-0.36817,-0.090822,-0.023562,-0.033412,-0.007909000000000001,,,,,,,,,,,,,,,,,,,,,,,,,,,,,,,,,,,,,,,,,,,,,,,,,,,,,,,,,,,,,,,,,
38546,1645901202.842437,1645901202.886637,65.0,0.0,4292.307617,4430.256348,4239.487305,4148.717772999999,4267.179688,450.0,1.0,15.0,,,,0.0,2.0,0.0,0.0,4.0,4.0,16.666666,,,,,,,,,,,,,,,,,,,,,,,,,,,,,,,,,,,,,,,,,,,,,,,,,,,,,,,,,,,,,,,,,,,,,,,,,,,,,,,,,,,,
38547,1645901202.850251,1645901202.894352,66.0,0.0,4297.436035,4480.512695,4261.538574,4122.563965,4252.820313,278.0,1.0,15.0,,,,0.0,2.0,0.0,4.0,4.0,4.0,50.0,,,,,,,,33.0,0.0,0.71933,0.105957,0.6674800000000001,0.160645,0.9277489999999999,-0.362799,-0.08447400000000001,-0.024380000000000002,-0.033489,-0.009364,,,,,,,,,,,,,,,,,,,,,,,,,,,,,,,,,,,0.0,0.0,1.0,0.0,512.0,0.6124,,,,,,,,,,,,,,,,,,,,,,,,,
38548,1645901202.8580642,1645901202.902167,67.0,0.0,4303.077147999999,4503.589844,4291.794922,4133.846191,4262.563965,450.0,1.0,15.0,,,,0.0,2.0,0.0,4.0,4.0,4.0,50.0,,,,,,,,,,,,,,,,,,,,,,,,,,,,,,,,,,,,,,,,,,,,,,,,,,,,,,,,,,,,,,,,,,,,,,,,,,,,,,,,,,,,
38549,1645901202.8658779,1645901202.909981,68.0,0.0,4323.077147999999,4370.256348,4272.820313,4177.94873,4285.641113000001,28.0,1.0,15.0,,,,0.0,2.0,0.0,4.0,4.0,4.0,50.0,,,,,,,,34.0,0.0,0.71933,0.105957,0.6674800000000001,0.160645,0.938003,-0.357427,-0.095705,-0.025018000000000002,-0.033460000000000004,-0.007548999999999999,,,,,,,,,,,,,,,,,,,,,,,,,,,,,,,,,,,,,,,,,,,,,,,,,,,,,,,,,,,,,,,,,
38550,1645901202.873691,1645901202.9177961,69.0,0.0,4335.897461,4375.384765999999,4262.05127,4163.077147999999,4291.282227000001,450.0,1.0,15.0,,,,0.0,2.0,0.0,4.0,4.0,4.0,50.0,,,,,,,,,,,,,,,,,,,,,,,,,,,,,,,,,,,,,,,,,,,,,,,,,,,,,,,,,,,,,,,,,,,,,,,,,,,,,,,,,,,,
38551,1645901202.881505,1645901202.925611,70.0,0.0,4332.307617,4489.230957,4286.153809,4123.589844,4265.128418,16227.0,1.0,15.0,,,,0.0,2.0,0.0,4.0,4.0,4.0,50.0,,,,,,,,35.0,0.0,0.71933,0.105957,0.6674800000000001,0.160645,0.9277489999999999,-0.362799,-0.08447400000000001,-0.025689999999999998,-0.033532,-0.009040000000000001,1.0,0.0,0.0,,,,,,,,,,,,,,,,,,,,,,,,,,,,,,,,0.0,0.0,1.0,0.0,512.0,0.6264350000000001,5.712571,6.264136,4.545197,1.0431620000000001,0.7559279999999999,40.395569,69.697632,18.214252,14.592367000000001,16.559206,44.753849,32.400028000000006,12.512568,3.6324769999999997,4.008026,5.131133999999999,4.137706,2.628996,5.200213,2.139974,10.952724,13.944056,5.970794000000001,3.209787,2.096514
38552,1645901202.889319,1645901202.933425,71.0,0.0,4349.743652,4487.179688,4234.871582,4121.025879,4290.256348,450.0,1.0,15.0,,,,0.0,2.0,0.0,4.0,4.0,4.0,50.0,,,,,,,,,,,,,,,,,,,,,,,,,,,,,,,,,,,,,,,,,,,,,,,,,,,,,,,,,,,,,,,,,,,,,,,,,,,,,,,,,,,,
38553,1645901202.897132,1645901202.94124,72.0,0.0,4336.410156,4433.333496,4188.717772999999,4133.846191,4317.436035,450.0,1.0,15.0,,,,0.0,2.0,0.0,4.0,4.0,4.0,50.0,,,,,,,,36.0,0.0,0.71933,0.105957,0.6674800000000001,0.160645,0.9340959999999999,-0.372564,-0.096193,-0.026246,-0.033451,-0.010431000000000001,,,,,,,,,,,,,,,,,,,,,,,,,,,,,,,,,,,,,,,,,,,,,,,,,,,,,,,,,,,,,,,,,
38554,1645901202.904946,1645901202.9490552,73.0,0.0,4320.0,4495.384765999999,4158.461426,4141.025879,4301.538574,16224.0,1.0,15.0,,,,0.0,2.0,0.0,4.0,4.0,4.0,50.0,,,,,,,,,,,,,,,,,,,,,,,,,,,,,,,,,,,,,,,,,,,,,,,,,,,,,,,,,,,,,,,,,,,,,,,,,,,,,,,,,,,,
38555,1645901202.912759,1645901202.956869,74.0,0.0,4328.717772999999,4539.487305,4182.563965,4134.871582,4299.487305,450.0,1.0,15.0,,,,0.0,2.0,0.0,4.0,4.0,4.0,50.0,,,,,,,,37.0,0.0,0.71933,0.105957,0.6674800000000001,0.160645,0.929702,-0.378424,-0.099123,-0.026942,-0.033621,-0.008459999999999999,,,,,,,,,,,,,,,,,,,,,,,,,,,,,,,,,,,0.0,0.0,1.0,0.0,512.0,0.6264350000000001,,,,,,,,,,,,,,,,,,,,,,,,,
38556,1645901202.920573,1645901202.9645839,75.0,0.0,4346.666504,4428.205078,4211.794922,4149.230957,4317.436035,16117.0,1.0,15.0,,,,0.0,2.0,0.0,4.0,4.0,4.0,50.0,,,,,,,,,,,,,,,,,,,,,,,,,,,,,,,,,,,,,,,,,,,,,,,,,,,,,,,,,,,,,,,,,,,,,,,,,,,,,,,,,,,,
38557,1645901202.928387,1645901202.972399,76.0,0.0,4343.589844,4364.615234000001,4227.179688,4156.410156,4299.487305,450.0,1.0,15.0,,,,0.0,2.0,0.0,4.0,4.0,4.0,50.0,,,,,,,,38.0,0.0,0.719276,0.105957,0.6674800000000001,0.160889,0.9365379999999999,-0.364263,-0.097169,-0.024297,-0.033628,-0.009958,,,,,,,,,,,,,,,,,,,,,,,,,,,,,,,,,,,,,,,,,,,,,,,,,,,,,,,,,,,,,,,,,
38558,1645901202.9362,1645901202.9802132,77.0,0.0,4344.102539,4426.666504,4243.589844,4160.0,4284.615234000001,450.0,1.0,15.0,,,,0.0,2.0,0.0,4.0,4.0,4.0,50.0,,,,,,,,,,,,,,,,,,,,,,,,,,,,,,,,,,,,,,,,,,,,,,,,,,,,,,,,,,,,,,,,,,,,,,,,,,,,,,,,,,,,
38559,1645901202.944014,1645901202.9880278,78.0,0.0,4344.102539,4477.436035,4262.563965,4169.230957,4295.897461,450.0,1.0,15.0,,,,0.0,2.0,0.0,4.0,4.0,4.0,50.0,,,,,,,,39.0,0.0,0.719276,0.105957,0.6674800000000001,0.160889,0.9399559999999999,-0.361822,-0.080568,-0.025187,-0.033586000000000005,-0.011208,,,,,,,,,,,,,,,,,,,,,,,,,,,,,,,,,,,0.0,0.0,1.0,0.0,512.0,0.6264350000000001,,,,,,,,,,,,,,,,,,,,,,,,,
38560,1645901202.951827,1645901202.995843,79.0,0.0,4331.794922,4428.205078,4274.871582,4169.230957,4292.307617,16117.0,1.0,15.0,,,,0.0,2.0,0.0,4.0,4.0,4.0,50.0,,,,,,,,,,,,,,,,,,,,,,,,,,,,,,,,,,,,,,,,,,,,,,,,,,,,,,,,,,,,,,,,,,,,,,,,,,,,,,,,,,,,
38561,1645901202.959641,1645901203.003657,80.0,0.0,4316.922852000001,4347.179688,4231.794922,4145.641113000001,4264.615234000001,450.0,1.0,15.0,,,,0.0,2.0,0.0,4.0,4.0,4.0,50.0,,,,,,,,40.0,0.0,0.719276,0.105957,0.6674800000000001,0.160889,0.933608,-0.375006,-0.08203300000000001,-0.025939999999999998,-0.033548,-0.012333,,,,,,,,,,,,,,,,,,,,,,,,,,,,,,,,,,,,,,,,,,,,,,,,,,,,,,,,,,,,,,,,,
38562,1645901202.9674551,1645901203.011472,81.0,0.0,4323.077147999999,4407.179688,4236.922852000001,4136.922852000001,4287.179688,450.0,1.0,15.0,,,,0.0,2.0,0.0,4.0,4.0,4.0,50.0,,,,,,,,,,,,,,,,,,,,,,,,,,,,,,,,,,,,,,,,,,,,,,,,,,,,,,,,,,,,,,,,,,,,,,,,,,,,,,,,,,,,
38563,1645901202.975268,1645901203.019286,82.0,0.0,4338.461426,4496.922852000001,4269.743652,4147.692383,4324.102539,450.0,1.0,15.0,,,,0.0,2.0,0.0,4.0,4.0,4.0,50.0,,,,,,,,41.0,0.0,0.719276,0.105957,0.6674800000000001,0.160889,0.934585,-0.361822,-0.078126,-0.026569,-0.033562,-0.010319,,,,,,,,,,,,,,,,,,,,,,,,,,,,,,,,,,,0.0,0.0,1.0,0.0,512.0,0.6264350000000001,,,,,,,,,,,,,,,,,,,,,,,,,
38564,1645901202.983082,1645901203.027101,83.0,0.0,4328.205078,4443.589844,4304.102539,4154.871582,4304.615234000001,16117.0,1.0,15.0,,,,0.0,2.0,0.0,4.0,4.0,4.0,50.0,,,,,,,,,,,,,,,,,,,,,,,,,,,,,,,,,,,,,,,,,,,,,,,,,,,,,,,,,,,,,,,,,,,,,,,,,,,,,,,,,,,,
38565,1645901202.990895,1645901203.034916,84.0,0.0,4329.743652,4402.563965,4275.897461,4161.538574,4288.717772999999,450.0,1.0,15.0,,,,0.0,2.0,0.0,4.0,4.0,4.0,50.0,,,,,,,,42.0,0.0,0.719276,0.105957,0.6674800000000001,0.160889,0.940932,-0.35108,-0.09131,-0.027037000000000002,-0.033526,-0.011631,,,,,,,,,,,,,,,,,,,,,,,,,,,,,,,,,,,,,,,,,,,,,,,,,,,,,,,,,,,,,,,,,
38566,1645901202.998709,1645901203.0426302,85.0,0.0,4350.256348,4481.025879,4292.820313,4138.461426,4305.128418,450.0,1.0,15.0,,,,0.0,2.0,0.0,4.0,4.0,4.0,50.0,,,,,,,,,,,,,,,,,,,,,,,,,,,,,,,,,,,,,,,,,,,,,,,,,,,,,,,,,,,,,,,,,,,,,,,,,,,,,,,,,,,,
38567,1645901203.0065231,1645901203.0504448,86.0,0.0,4341.538574,4425.641113000001,4321.025879,4118.974121,4292.307617,450.0,1.0,15.0,,,,0.0,2.0,0.0,4.0,4.0,4.0,50.0,0.972656,16.666666,2.0,0.0,0.0,4.0,2.0,43.0,0.0,0.719276,0.105957,0.6674800000000001,0.160889,0.9521629999999999,-0.357916,-0.084962,-0.027701999999999997,-0.033444999999999996,-0.009637999999999999,1.0,0.0,0.0,,,,,,,,,,,,,,,,,,,,,,,,,,,,,,,,0.0,0.0,1.0,0.0,512.0,0.626302,5.072756,6.320863,4.635166000000001,1.25393,0.8286,32.339676000000004,64.19838,16.595169,14.845004999999999,15.705264000000001,50.368092,36.353778999999996,12.31725,3.9732809999999996,3.7196279999999997,5.454861,5.143059,3.129416,5.196061,1.814471,10.766808000000001,14.259806,5.7202589999999995,3.122257,2.247754
38568,1645901203.0143359,1645901203.058259,87.0,0.0,4325.641113000001,4302.05127,4269.743652,4140.0,4256.410156,16117.0,1.0,15.0,,,,0.0,2.0,0.0,4.0,4.0,4.0,50.0,,,,,,,,,,,,,,,,,,,,,,,,,,,,,,,,,,,,,,,,,,,,,,,,,,,,,,,,,,,,,,,,,,,,,,,,,,,,,,,,,,,,
38569,1645901203.02215,1645901203.066073,88.0,0.0,4338.974121,4430.769043,4216.410156,4153.333496,4280.0,450.0,1.0,15.0,,,,0.0,2.0,0.0,4.0,4.0,4.0,50.0,,,,,,,,44.0,0.0,0.719276,0.105957,0.6674800000000001,0.160889,0.929213,-0.373541,-0.08691499999999999,-0.028106,-0.033567,-0.010969,,,,,,,,,,,,,,,,,,,,,,,,,,,,,,,,,,,,,,,,,,,,,,,,,,,,,,,,,,,,,,,,,
38570,1645901203.029963,1645901203.073888,89.0,0.0,4328.205078,4551.282227000001,4253.846191,4139.487305,4288.205078,450.0,1.0,15.0,,,,0.0,2.0,0.0,4.0,4.0,4.0,50.0,,,,,,,,,,,,,,,,,,,,,,,,,,,,,,,,,,,,,,,,,,,,,,,,,,,,,,,,,,,,,,,,,,,,,,,,,,,,,,,,,,,,
38571,1645901203.037777,1645901203.081702,90.0,0.0,4317.436035,4448.717772999999,4234.871582,4136.922852000001,4287.692383,450.0,1.0,15.0,,,,0.0,2.0,0.0,4.0,4.0,4.0,50.0,,,,,,,,45.0,0.0,0.719312,0.10571300000000002,0.6674800000000001,0.160889,0.9316549999999999,-0.370611,-0.09131,-0.028421,-0.03358,-0.009091,,,,,,,,,,,,,,,,,,,,,,,,,,,,,,,,,,,0.0,0.0,1.0,0.0,512.0,0.626302,,,,,,,,,,,,,,,,,,,,,,,,,
38572,1645901203.045591,1645901203.0895169,91.0,0.0,4326.666504,4468.205078,4174.871582,4136.922852000001,4307.179688,16117.0,1.0,15.0,,,,0.0,2.0,0.0,4.0,4.0,4.0,50.0,,,,,,,,,,,,,,,,,,,,,,,,,,,,,,,,,,,,,,,,,,,,,,,,,,,,,,,,,,,,,,,,,,,,,,,,,,,,,,,,,,,,
38573,1645901203.0534039,1645901203.097331,92.0,0.0,4337.94873,4655.384765999999,4155.384765999999,4142.563965,4314.358886999999,450.0,1.0,15.0,,,,0.0,2.0,0.0,4.0,4.0,4.0,50.0,,,,,,,,46.0,0.0,0.719538,0.10571300000000002,0.6672359999999999,0.160889,0.929702,-0.370123,-0.079591,-0.029105000000000002,-0.033552,-0.005879,,,,,,,,,,,,,,,,,,,,,,,,,,,,,,,,,,,,,,,,,,,,,,,,,,,,,,,,,,,,,,,,,
38574,1645901203.061218,1645901203.105046,93.0,0.0,4323.077147999999,4623.589844,4191.282227000001,4140.512695,4315.384765999999,450.0,1.0,15.0,,,,0.0,2.0,0.0,4.0,4.0,4.0,50.0,,,,,,,,,,,,,,,,,,,,,,,,,,,,,,,,,,,,,,,,,,,,,,,,,,,,,,,,,,,,,,,,,,,,,,,,,,,,,,,,,,,,
38575,1645901203.069031,1645901203.11286,94.0,0.0,4333.333496,4438.461426,4225.641113000001,4142.05127,4325.641113000001,450.0,1.0,15.0,,,,0.0,2.0,0.0,4.0,4.0,4.0,50.0,,,,,,,,47.0,0.0,0.719593,0.10571300000000002,0.6672359999999999,0.160645,0.941421,-0.363775,-0.09472799999999999,-0.026292000000000003,-0.033517,-0.007586,,,,,,,,,,,,,,,,,,,,,,,,,,,,,,,,,,,0.0,0.0,1.0,0.0,512.0,0.626302,,,,,,,,,,,,,,,,,,,,,,,,,
38576,1645901203.076845,1645901203.120675,95.0,0.0,4366.153809,4424.615234000001,4257.436035,4142.05127,4313.846191,16117.0,1.0,15.0,,,,0.0,2.0,0.0,4.0,4.0,4.0,50.0,,,,,,,,,,,,,,,,,,,,,,,,,,,,,,,,,,,,,,,,,,,,,,,,,,,,,,,,,,,,,,,,,,,,,,,,,,,,,,,,,,,,
38577,1645901203.084659,1645901203.12849,96.0,0.0,4361.538574,4490.256348,4273.333496,4160.0,4302.05127,450.0,1.0,15.0,,,,0.0,2.0,0.0,4.0,4.0,4.0,50.0,,,,,,,,48.0,0.0,0.719276,0.105957,0.6674800000000001,0.160889,0.9404440000000001,-0.366217,-0.100587,-0.026933999999999996,-0.033535,-0.009073999999999999,,,,,,,,,,,,,,,,,,,,,,,,,,,,,,,,,,,,,,,,,,,,,,,,,,,,,,,,,,,,,,,,,
38578,1645901203.092472,1645901203.136304,97.0,0.0,4332.820313,4460.512695,4249.743652,4184.102539,4307.179688,450.0,1.0,15.0,,,,0.0,2.0,0.0,4.0,4.0,4.0,50.0,,,,,,,,,,,,,,,,,,,,,,,,,,,,,,,,,,,,,,,,,,,,,,,,,,,,,,,,,,,,,,,,,,,,,,,,,,,,,,,,,,,,
38579,1645901203.100286,1645901203.144119,98.0,0.0,4329.743652,4433.333496,4271.794922,4183.589844,4290.769043,450.0,1.0,15.0,,,,0.0,2.0,0.0,4.0,4.0,4.0,50.0,,,,,,,,49.0,0.0,0.719276,0.105957,0.6674800000000001,0.160889,0.9350729999999999,-0.369635,-0.084962,-0.027366,-0.033551,-0.010461,,,,,,,,,,,,,,,,,,,,,,,,,,,,,,,,,,,0.0,0.0,1.0,0.0,512.0,0.626302,,,,,,,,,,,,,,,,,,,,,,,,,
38580,1645901203.108099,1645901203.151934,99.0,0.0,4335.384765999999,4436.922852000001,4234.358886999999,4150.256348,4265.641113000001,16117.0,1.0,15.0,,,,0.0,2.0,0.0,4.0,4.0,4.0,50.0,,,,,,,,,,,,,,,,,,,,,,,,,,,,,,,,,,,,,,,,,,,,,,,,,,,,,,,,,,,,,,,,,,,,,,,,,,,,,,,,,,,,
38581,1645901203.1159132,1645901203.159748,100.0,0.0,4316.410156,4374.871582,4234.358886999999,4141.538574,4286.666504,450.0,1.0,15.0,,,,0.0,2.0,0.0,4.0,4.0,4.0,50.0,,,,,,,,50.0,0.0,0.71924,0.106201,0.6674800000000001,0.160889,0.9399559999999999,-0.364263,-0.08838,-0.027754,-0.033662,-0.01171,,,,,,,,,,,,,,,,,,,,,,,,,,,,,,,,,,,,,,,,,,,,,,,,,,,,,,,,,,,,,,,,,
38582,1645901203.123726,1645901203.1675632,101.0,0.0,4325.128418,4366.666504,4282.563965,4146.153809,4316.922852000001,450.0,1.0,15.0,,,,0.0,2.0,0.0,4.0,4.0,4.0,50.0,,,,,,,,,,,,,,,,,,,,,,,,,,,,,,,,,,,,,,,,,,,,,,,,,,,,,,,,,,,,,,,,,,,,,,,,,,,,,,,,,,,,
38583,1645901203.13154,1645901203.175278,102.0,0.0,4351.282227000001,4477.94873,4320.0,4112.820313,4300.512695,450.0,1.0,15.0,,,,0.0,2.0,0.0,4.0,4.0,4.0,50.0,,,,,,,,51.0,0.0,0.71924,0.106201,0.6674800000000001,0.160889,0.937514,-0.36035700000000004,-0.090822,-0.028104,-0.033617,-0.012834,1.0,0.0,0.0,,,,,,,,,,,,,,,,,,,,,,,,,,,,,,,,0.0,0.0,1.0,0.0,512.0,0.748674,4.591889,6.115771,4.654758,1.493242,0.8827309999999999,24.891459,53.542427,14.560251999999998,15.528591,14.727359,52.200455,40.270416,12.830504,4.390553,3.356553,6.136694,6.124086,4.058216000000001,4.983511,1.532956,10.540030999999999,13.899187,5.710259,3.070261,2.368409
38584,1645901203.139354,1645901203.1830919,103.0,0.0,4354.871582,4477.94873,4267.179688,4132.820313,4273.333496,16117.0,1.0,15.0,,,,0.0,2.0,0.0,4.0,4.0,4.0,50.0,,,,,,,,,,,,,,,,,,,,,,,,,,,,,,,,,,,,,,,,,,,,,,,,,,,,,,,,,,,,,,,,,,,,,,,,,,,,,,,,,,,,
38585,1645901203.147167,1645901203.190907,104.0,0.0,4345.128418,4349.230957,4248.717772999999,4174.358886999999,4277.94873,450.0,1.0,15.0,,,,0.0,2.0,0.0,4.0,4.0,4.0,50.0,,,,,,,,52.0,0.0,0.71924,0.106201,0.6674800000000001,0.160889,0.937514,-0.35938000000000003,-0.076173,-0.025391,-0.033673,-0.013846,,,,,,,,,,,,,,,,,,,,,,,,,,,,,,,,,,,,,,,,,,,,,,,,,,,,,,,,,,,,,,,,,
38586,1645901203.1549811,1645901203.1987221,105.0,0.0,4345.128418,4364.615234000001,4268.717772999999,4184.102539,4282.05127,450.0,1.0,15.0,,,,0.0,2.0,0.0,4.0,4.0,4.0,50.0,,,,,,,,,,,,,,,,,,,,,,,,,,,,,,,,,,,,,,,,,,,,,,,,,,,,,,,,,,,,,,,,,,,,,,,,,,,,,,,,,,,,
38587,1645901203.1627939,1645901203.206536,106.0,0.0,4348.717772999999,4468.205078,4230.256348,4200.0,4254.358886999999,450.0,1.0,15.0,,,,0.0,2.0,0.0,4.0,4.0,4.0,50.0,,,,,,,,53.0,0.0,0.7191850000000001,0.106201,0.6674800000000001,0.161133,0.940932,-0.37891199999999997,-0.087404,-0.025927999999999996,-0.033675,-0.014658000000000001,,,,,,,,,,,,,,,,,,,,,,,,,,,,,,,,,,,0.0,0.0,1.0,0.0,512.0,0.748674,,,,,,,,,,,,,,,,,,,,,,,,,
38588,1645901203.170608,1645901203.214351,107.0,0.0,4342.05127,4425.641113000001,4201.538574,4214.871582,4268.717772999999,16117.0,1.0,15.0,,,,0.0,2.0,0.0,4.0,4.0,4.0,50.0,,,,,,,,,,,,,,,,,,,,,,,,,,,,,,,,,,,,,,,,,,,,,,,,,,,,,,,,,,,,,,,,,,,,,,,,,,,,,,,,,,,,
38589,1645901203.178422,1645901203.222166,108.0,0.0,4322.05127,4350.256348,4209.743652,4186.666504,4277.436035,450.0,1.0,15.0,,,,0.0,2.0,0.0,4.0,4.0,4.0,50.0,,,,,,,,54.0,0.0,0.7191850000000001,0.106201,0.6674800000000001,0.161133,0.932143,-0.370123,-0.09668099999999999,-0.026508999999999998,-0.033628,-0.012314,,,,,,,,,,,,,,,,,,,,,,,,,,,,,,,,,,,,,,,,,,,,,,,,,,,,,,,,,,,,,,,,,
38590,1645901203.186235,1645901203.22998,109.0,0.0,4336.410156,4444.615234000001,4207.179688,4178.461426,4284.615234000001,450.0,1.0,15.0,,,,0.0,2.0,0.0,4.0,4.0,4.0,50.0,,,,,,,,,,,,,,,,,,,,,,,,,,,,,,,,,,,,,,,,,,,,,,,,,,,,,,,,,,,,,,,,,,,,,,,,,,,,,,,,,,,,
38591,1645901203.1940491,1645901203.2377949,110.0,0.0,4343.077147999999,4528.717772999999,4196.922852000001,4209.743652,4312.820313,450.0,1.0,15.0,,,,0.0,2.0,0.0,4.0,4.0,4.0,50.0,,,,,,,,55.0,0.0,0.719221,0.105957,0.6674800000000001,0.161133,0.929213,-0.369635,-0.083497,-0.027032,-0.033634,-0.013425999999999999,,,,,,,,,,,,,,,,,,,,,,,,,,,,,,,,,,,0.0,0.0,1.0,0.0,512.0,0.748674,,,,,,,,,,,,,,,,,,,,,,,,,
38592,1645901203.2018619,1645901203.2455099,111.0,0.0,4325.641113000001,4483.589844,4196.922852000001,4209.230957,4311.794922,16117.0,1.0,15.0,,,,0.0,2.0,0.0,4.0,4.0,4.0,50.0,,,,,,,,,,,,,,,,,,,,,,,,,,,,,,,,,,,,,,,,,,,,,,,,,,,,,,,,,,,,,,,,,,,,,,,,,,,,,,,,,,,,
38593,1645901203.209676,1645901203.253324,112.0,0.0,4317.94873,4416.410156,4194.871582,4155.897461,4279.487305,450.0,1.0,15.0,,,,0.0,2.0,0.0,4.0,4.0,4.0,50.0,,,,,,,,56.0,0.0,0.719221,0.105957,0.6674800000000001,0.161133,0.9267719999999999,-0.36914600000000003,-0.099611,-0.027551999999999997,-0.033591,-0.011253,,,,,,,,,,,,,,,,,,,,,,,,,,,,,,,,,,,,,,,,,,,,,,,,,,,,,,,,,,,,,,,,,
38594,1645901203.21749,1645901203.2611392,113.0,0.0,4326.153809,4404.615234000001,4214.358886999999,4144.615234000001,4283.589844,450.0,1.0,15.0,,,,0.0,2.0,0.0,4.0,4.0,4.0,50.0,,,,,,,,,,,,,,,,,,,,,,,,,,,,,,,,,,,,,,,,,,,,,,,,,,,,,,,,,,,,,,,,,,,,,,,,,,,,,,,,,,,,
38595,1645901203.225303,1645901203.2689538,114.0,0.0,4328.205078,4435.897461,4252.820313,4191.794922,4288.205078,450.0,1.0,15.0,,,,0.0,2.0,0.0,4.0,4.0,4.0,50.0,,,,,,,,57.0,0.0,0.7192569999999999,0.10571300000000002,0.6674800000000001,0.161133,0.940932,-0.37158800000000003,-0.097169,-0.02797,-0.033601,-0.012374,,,,,,,,,,,,,,,,,,,,,,,,,,,,,,,,,,,0.0,0.0,1.0,0.0,512.0,0.748674,,,,,,,,,,,,,,,,,,,,,,,,,
38596,1645901203.233117,1645901203.276768,115.0,0.0,4327.692383,4435.384765999999,4269.743652,4209.230957,4272.820313,16117.0,1.0,15.0,,,,0.0,2.0,0.0,4.0,4.0,4.0,50.0,,,,,,,,,,,,,,,,,,,,,,,,,,,,,,,,,,,,,,,,,,,,,,,,,,,,,,,,,,,,,,,,,,,,,,,,,,,,,,,,,,,,
38597,1645901203.24093,1645901203.284583,116.0,0.0,4335.384765999999,4385.641113000001,4223.077147999999,4188.717772999999,4309.230957,450.0,1.0,15.0,,,,0.0,2.0,0.0,4.0,4.0,4.0,50.0,,,,,,,,58.0,0.0,0.719221,0.105957,0.6674800000000001,0.161133,0.94435,-0.37158800000000003,-0.083497,-0.025222,-0.03361,-0.010355,,,,,,,,,,,,,,,,,,,,,,,,,,,,,,,,,,,,,,,,,,,,,,,,,,,,,,,,,,,,,,,,,
38598,1645901203.248744,1645901203.292398,117.0,0.0,4358.974121,4386.666504,4234.358886999999,4186.153809,4333.333496,450.0,1.0,15.0,,,,0.0,2.0,0.0,4.0,4.0,4.0,50.0,,,,,,,,,,,,,,,,,,,,,,,,,,,,,,,,,,,,,,,,,,,,,,,,,,,,,,,,,,,,,,,,,,,,,,,,,,,,,,,,,,,,
38599,1645901203.256558,1645901203.300212,118.0,0.0,4404.102539,4447.179688,4229.743652,4177.436035,4323.589844,450.0,1.0,15.0,,,,0.0,2.0,0.0,4.0,4.0,4.0,50.0,,,,,,,,59.0,0.0,0.719221,0.105957,0.6674800000000001,0.161133,0.938491,-0.369635,-0.078614,-0.025923,-0.033716,-0.011615,1.0,0.0,0.0,,,,,,,,,,,,,,,,,,,,,,,,,,,,,,,,0.0,0.0,1.0,0.0,512.0,0.751141,4.2827910000000005,5.770382,4.546618,1.7120369999999998,0.9048700000000001,19.427999,40.775669,13.754585999999998,16.300028,14.056184,49.977531,42.990035999999996,14.081930999999999,4.712833,3.016184,6.737369,6.931483,5.319158,4.5783510000000005,1.347594,10.445888,13.053078,5.731526000000001,3.009863,2.419324
38600,1645901203.2643712,1645901203.308027,119.0,0.0,4391.794922,4460.0,4210.256348,4164.102539,4317.94873,16117.0,1.0,15.0,,,,0.0,2.0,0.0,4.0,4.0,4.0,50.0,,,,,,,,,,,,,,,,,,,,,,,,,,,,,,,,,,,,,,,,,,,,,,,,,,,,,,,,,,,,,,,,,,,,,,,,,,,,,,,,,,,,
38601,1645901203.2721848,1645901203.315841,120.0,0.0,4362.05127,4469.743652,4177.94873,4170.256348,4314.871582,450.0,1.0,15.0,,,,0.0,2.0,0.0,4.0,4.0,4.0,50.0,,,,,,,,60.0,0.0,0.719221,0.105957,0.6674800000000001,0.161133,0.9399559999999999,-0.366217,-0.07715,-0.026552999999999997,-0.033714,-0.012699,,,,,,,,,,,,,,,,,,,,,,,,,,,,,,,,,,,,,,,,,,,,,,,,,,,,,,,,,,,,,,,,,
38602,1645901203.279998,1645901203.323556,121.0,0.0,4361.025879,4490.769043,4211.794922,4157.436035,4305.641113000001,450.0,1.0,15.0,,,,0.0,2.0,0.0,4.0,4.0,4.0,50.0,,,,,,,,,,,,,,,,,,,,,,,,,,,,,,,,,,,,,,,,,,,,,,,,,,,,,,,,,,,,,,,,,,,,,,,,,,,,,,,,,,,,
38603,1645901203.287812,1645901203.331371,122.0,0.0,4371.794922,4495.384765999999,4228.717772999999,4146.666504,4315.384765999999,450.0,1.0,15.0,,,,0.0,2.0,0.0,4.0,4.0,4.0,50.0,,,,,,,,61.0,0.0,0.718959,0.106201,0.667725,0.161133,0.936049,-0.36817,-0.085451,-0.027169,-0.033565,-0.013724,,,,,,,,,,,,,,,,,,,,,,,,,,,,,,,,,,,0.0,0.0,1.0,0.0,512.0,0.751141,,,,,,,,,,,,,,,,,,,,,,,,,
38604,1645901203.295626,1645901203.339186,123.0,0.0,4355.384765999999,4531.282227000001,4254.358886999999,4154.871582,4308.205078,16117.0,1.0,15.0,,,,0.0,2.0,0.0,4.0,4.0,4.0,50.0,,,,,,,,,,,,,,,,,,,,,,,,,,,,,,,,,,,,,,,,,,,,,,,,,,,,,,,,,,,,,,,,,,,,,,,,,,,,,,,,,,,,
38605,1645901203.3034391,1645901203.347,124.0,0.0,4353.333496,4537.436035,4263.589844,4185.641113000001,4284.615234000001,450.0,1.0,15.0,,,,0.0,2.0,0.0,4.0,4.0,4.0,50.0,,,,,,,,62.0,0.0,0.719221,0.105957,0.6674800000000001,0.161133,0.938491,-0.369635,-0.078614,-0.024501,-0.033529,-0.014647,,,,,,,,,,,,,,,,,,,,,,,,,,,,,,,,,,,,,,,,,,,,,,,,,,,,,,,,,,,,,,,,,
38606,1645901203.3112528,1645901203.354815,125.0,0.0,4376.410156,4483.077147999999,4209.230957,4188.205078,4306.666504,450.0,1.0,15.0,,,,0.0,2.0,0.0,4.0,4.0,4.0,50.0,,,,,,,,,,,,,,,,,,,,,,,,,,,,,,,,,,,,,,,,,,,,,,,,,,,,,,,,,,,,,,,,,,,,,,,,,,,,,,,,,,,,
38607,1645901203.319066,1645901203.362629,126.0,0.0,4373.846191,4440.0,4208.717772999999,4171.282227000001,4347.692383,450.0,1.0,15.0,,,,0.0,2.0,0.0,4.0,4.0,4.0,50.0,,,,,,,,63.0,0.0,0.718959,0.106201,0.667725,0.161133,0.936049,-0.36817,-0.085451,-0.025323,-0.033399,-0.015477000000000001,,,,,,,,,,,,,,,,,,,,,,,,,,,,,,,,,,,0.0,0.0,1.0,0.0,512.0,0.751141,,,,,,,,,,,,,,,,,,,,,,,,,
38608,1645901203.32688,1645901203.370444,127.0,0.0,4355.897461,4409.743652,4225.128418,4152.307617,4307.179688,233.0,1.0,15.0,,,,0.0,2.0,0.0,4.0,4.0,4.0,50.0,,,,,,,,,,,,,,,,,,,,,,,,,,,,,,,,,,,,,,,,,,,,,,,,,,,,,,,,,,,,,,,,,,,,,,,,,,,,,,,,,,,,
38609,1645901203.334694,1645901203.378259,0.0,0.0,4363.077147999999,4382.05127,4205.641113000001,4150.769043,4271.794922,450.0,1.0,15.0,,,,0.0,2.0,0.0,4.0,4.0,4.0,50.0,,,,,,,,0.0,0.0,0.7191850000000001,0.106201,0.6674800000000001,0.161133,0.925795,-0.358404,-0.083497,-0.022838999999999998,-0.033379,-0.016224000000000002,,,,,,,,,,,,,,,,,,,,,,,,,,,,,,,,,,,,,,,,,,,,,,,,,,,,,,,,,,,,,,,,,
38610,1645901203.3425071,1645901203.386073,1.0,0.0,4364.102539,4371.282227000001,4201.025879,4157.436035,4293.846191,450.0,1.0,15.0,,,,0.0,2.0,0.0,4.0,4.0,4.0,50.0,,,,,,,,,,,,,,,,,,,,,,,,,,,,,,,,,,,,,,,,,,,,,,,,,,,,,,,,,,,,,,,,,,,,,,,,,,,,,,,,,,,,
38611,1645901203.350321,1645901203.393788,2.0,0.0,4357.94873,4377.94873,4291.794922,4145.641113000001,4300.512695,293.0,1.0,15.0,,,,0.0,2.0,0.0,0.0,4.0,4.0,16.666666,,,,,,,,1.0,0.0,0.719221,0.105957,0.6674800000000001,0.161133,0.937514,-0.354986,-0.09033300000000001,-0.023875999999999998,-0.033557,-0.016897,,,,,,,,,,,,,,,,,,,,,,,,,,,,,,,,,,,0.0,0.0,1.0,0.0,512.0,0.751141,,,,,,,,,,,,,,,,,,,,,,,,,
38612,1645901203.358134,1645901203.401603,3.0,0.0,4374.871582,4362.05127,4286.666504,4136.922852000001,4283.589844,450.0,1.0,15.0,,,,0.0,2.0,0.0,0.0,4.0,4.0,16.666666,,,,,,,,,,,,,,,,,,,,,,,,,,,,,,,,,,,,,,,,,,,,,,,,,,,,,,,,,,,,,,,,,,,,,,,,,,,,,,,,,,,,
38613,1645901203.365948,1645901203.409417,4.0,0.0,4383.077147999999,4346.666504,4256.410156,4166.153809,4293.846191,16.0,1.0,15.0,,,,0.0,2.0,0.0,0.0,4.0,4.0,16.666666,,,,,,,,2.0,0.0,0.7189949999999999,0.105957,0.667725,0.161133,0.9355610000000001,-0.380865,-0.082521,-0.024613,-0.033668000000000003,-0.017551,,,,,,,,,,,,,,,,,,,,,,,,,,,,,,,,,,,,,,,,,,,,,,,,,,,,,,,,,,,,,,,,,
38614,1645901203.373762,1645901203.417232,5.0,0.0,4371.282227000001,4375.384765999999,4264.102539,4207.692383,4306.666504,450.0,1.0,15.0,,,,0.0,2.0,0.0,0.0,4.0,4.0,16.666666,,,,,,,,,,,,,,,,,,,,,,,,,,,,,,,,,,,,,,,,,,,,,,,,,,,,,,,,,,,,,,,,,,,,,,,,,,,,,,,,,,,,
38615,1645901203.381575,1645901203.4250472,6.0,0.0,4379.487305,4433.333496,4235.384765999999,4171.794922,4305.641113000001,5.0,1.0,15.0,,,,0.0,2.0,0.0,0.0,4.0,4.0,16.666666,,,,,,,,3.0,0.0,0.7189949999999999,0.105957,0.667725,0.161133,0.9350729999999999,-0.358404,-0.082521,-0.025179,-0.033524,-0.018042,1.0,0.0,0.0,,,,,,,,,,,,,,,,,,,,,,,,,,,,,,,,0.0,0.0,1.0,0.0,512.0,0.743163,4.007547,5.460025,4.2998449999999995,1.85477,0.8944780000000001,16.746222,28.9799,15.535093,16.691084,14.357966000000001,45.027664,43.440907,16.108742000000003,4.841174,2.782501,6.891719999999999,7.496998,6.612913000000001,4.085485,1.265996,10.449653999999999,11.961439,5.646205999999999,2.870818,2.387526
38616,1645901203.389389,1645901203.4328609,7.0,0.0,4370.256348,4376.410156,4215.897461,4147.692383,4298.461426,450.0,1.0,15.0,,,,0.0,2.0,0.0,0.0,4.0,4.0,16.666666,,,,,,,,,,,,,,,,,,,,,,,,,,,,,,,,,,,,,,,,,,,,,,,,,,,,,,,,,,,,,,,,,,,,,,,,,,,,,,,,,,,,
38617,1645901203.397202,1645901203.440676,8.0,0.0,4335.897461,4284.615234000001,4243.589844,4178.974121,4253.846191,450.0,1.0,15.0,,,,0.0,2.0,0.0,0.0,4.0,4.0,16.666666,,,,,,,,4.0,0.0,0.7189399999999999,0.105957,0.667725,0.161377,0.931167,-0.36230999999999997,-0.099611,-0.025786,-0.033394,-0.015408000000000002,,,,,,,,,,,,,,,,,,,,,,,,,,,,,,,,,,,,,,,,,,,,,,,,,,,,,,,,,,,,,,,,,
38618,1645901203.405016,1645901203.448491,9.0,0.0,4326.153809,4357.436035,4206.666504,4161.025879,4261.025879,16060.0,1.0,15.0,,,,0.0,2.0,0.0,0.0,4.0,4.0,16.666666,,,,,,,,,,,,,,,,,,,,,,,,,,,,,,,,,,,,,,,,,,,,,,,,,,,,,,,,,,,,,,,,,,,,,,,,,,,,,,,,,,,,
38619,1645901203.41283,1645901203.456305,10.0,0.0,4306.666504,4426.153809,4162.563965,4152.307617,4285.641113000001,450.0,1.0,15.0,,,,0.0,2.0,0.0,0.0,4.0,4.0,16.666666,,,,,,,,5.0,0.0,0.7189760000000001,0.10571300000000002,0.667725,0.161377,0.937026,-0.36914600000000003,-0.08105599999999999,-0.026430000000000002,-0.033424,-0.013086000000000002,,,,,,,,,,,,,,,,,,,,,,,,,,,,,,,,,,,0.0,0.0,1.0,0.0,512.0,0.743163,,,,,,,,,,,,,,,,,,,,,,,,,
38620,1645901203.4206429,1645901203.46402,11.0,0.0,4314.871582,4389.230957,4169.230957,4192.307617,4277.94873,315.0,1.0,15.0,,,,0.0,2.0,0.0,0.0,4.0,2.0,16.666666,,,,,,,,,,,,,,,,,,,,,,,,,,,,,,,,,,,,,,,,,,,,,,,,,,,,,,,,,,,,,,,,,,,,,,,,,,,,,,,,,,,,
38621,1645901203.428457,1645901203.471835,12.0,0.0,4334.871582,4393.333496,4218.974121,4185.128418,4296.922852000001,450.0,1.0,15.0,,,,0.0,2.0,0.0,0.0,4.0,2.0,16.666666,,,,,,,,6.0,0.0,0.7189760000000001,0.10571300000000002,0.667725,0.161377,0.945815,-0.361822,-0.099123,-0.026912000000000002,-0.033548,-0.014072,,,,,,,,,,,,,,,,,,,,,,,,,,,,,,,,,,,,,,,,,,,,,,,,,,,,,,,,,,,,,,,,,
38622,1645901203.43627,1645901203.479649,13.0,0.0,4356.922852000001,4478.461426,4230.769043,4152.307617,4329.230957,450.0,1.0,15.0,,,,0.0,2.0,0.0,0.0,4.0,2.0,16.666666,,,,,,,,,,,,,,,,,,,,,,,,,,,,,,,,,,,,,,,,,,,,,,,,,,,,,,,,,,,,,,,,,,,,,,,,,,,,,,,,,,,,
38623,1645901203.444084,1645901203.487464,14.0,0.0,4371.282227000001,4495.384765999999,4233.846191,4136.410156,4309.743652,450.0,1.0,15.0,,,,0.0,2.0,0.0,0.0,4.0,2.0,16.666666,,,,,,,,7.0,0.0,0.7189949999999999,0.105957,0.667725,0.161133,0.9350729999999999,-0.375006,-0.088869,-0.027346,-0.033464999999999995,-0.01496,,,,,,,,,,,,,,,,,,,,,,,,,,,,,,,,,,,0.0,0.0,1.0,0.0,512.0,0.743163,,,,,,,,,,,,,,,,,,,,,,,,,
38624,1645901203.451898,1645901203.4952788,15.0,0.0,4356.922852000001,4414.871582,4254.358886999999,4142.05127,4292.307617,315.0,1.0,15.0,,,,0.0,2.0,0.0,0.0,4.0,2.0,16.666666,,,,,,,,,,,,,,,,,,,,,,,,,,,,,,,,,,,,,,,,,,,,,,,,,,,,,,,,,,,,,,,,,,,,,,,,,,,,,,,,,,,,
38625,1645901203.4597108,1645901203.503093,16.0,0.0,4342.563965,4358.974121,4243.589844,4133.846191,4299.487305,0.0,1.0,15.0,,,,0.0,2.0,0.0,0.0,4.0,2.0,16.666666,,,,,,,,8.0,0.0,0.7189949999999999,0.105957,0.667725,0.161133,0.937514,-0.365728,-0.095216,-0.027688,-0.033438999999999997,-0.015612000000000001,,,,,,,,,,,,,,,,,,,,,,,,,,,,,,,,,,,,,,,,,,,,,,,,,,,,,,,,,,,,,,,,,
38626,1645901203.467525,1645901203.5109081,17.0,0.0,4357.436035,4363.077147999999,4242.05127,4143.589844,4302.563965,0.0,1.0,15.0,,,,0.0,2.0,0.0,0.0,4.0,2.0,16.666666,,,,,,,,,,,,,,,,,,,,,,,,,,,,,,,,,,,,,,,,,,,,,,,,,,,,,,,,,,,,,,,,,,,,,,,,,,,,,,,,,,,,
38627,1645901203.475338,1645901203.518723,18.0,0.0,4361.538574,4411.794922,4268.717772999999,4186.153809,4311.282227000001,0.0,1.0,15.0,,,,0.0,2.0,0.0,0.0,4.0,2.0,16.666666,,,,,,,,9.0,0.0,0.7190850000000001,0.10571300000000002,0.667725,0.160889,0.9306780000000001,-0.355962,-0.087404,-0.028239,-0.033367,-0.013172,,,,,,,,,,,,,,,,,,,,,,,,,,,,,,,,,,,0.0,0.0,1.0,0.0,512.0,0.743163,,,,,,,,,,,,,,,,,,,,,,,,,
38628,1645901203.483152,1645901203.526537,19.0,0.0,4344.102539,4488.717772999999,4305.641113000001,4207.692383,4309.743652,0.0,1.0,15.0,,,,0.0,2.0,0.0,0.0,4.0,2.0,16.666666,,,,,,,,,,,,,,,,,,,,,,,,,,,,,,,,,,,,,,,,,,,,,,,,,,,,,,,,,,,,,,,,,,,,,,,,,,,,,,,,,,,,
38629,1645901203.4909651,1645901203.534352,20.0,0.0,4353.846191,4518.974121,4254.871582,4157.94873,4275.897461,0.0,1.0,15.0,,,,0.0,2.0,0.0,0.0,4.0,2.0,16.666666,,,,,,,,10.0,0.0,0.7190850000000001,0.10571300000000002,0.667725,0.160889,0.932143,-0.361334,-0.083986,-0.028638,-0.033497000000000006,-0.014052,,,,,,,,,,,,,,,,,,,,,,,,,,,,,,,,,,,,,,,,,,,,,,,,,,,,,,,,,,,,,,,,,
38630,1645901203.4987788,1645901203.542067,21.0,0.0,4352.820313,4503.077147999999,4259.487305,4109.743652,4251.794922,0.0,1.0,15.0,,,,0.0,2.0,0.0,0.0,4.0,2.0,16.666666,,,,,,,,,,,,,,,,,,,,,,,,,,,,,,,,,,,,,,,,,,,,,,,,,,,,,,,,,,,,,,,,,,,,,,,,,,,,,,,,,,,,
