,Timestamp,OriginalTimestamp,EEG.Counter,EEG.Interpolated,EEG.AF3,EEG.T7,EEG.Pz,EEG.T8,EEG.AF4,EEG.RawCq,EEG.Battery,EEG.BatteryPercent,MarkerIndex,MarkerType,MarkerValueInt,EEG.MarkerHardware,CQ.AF3,CQ.T7,CQ.Pz,CQ.T8,CQ.AF4,CQ.Overall,EQ.SampleRateQuality,EQ.OVERALL,EQ.AF3,EQ.T7,EQ.Pz,EQ.T8,EQ.AF4,MOT.CounterMems,MOT.InterpolatedMems,MOT.Q0,MOT.Q1,MOT.Q2,MOT.Q3,MOT.AccX,MOT.AccY,MOT.AccZ,MOT.MagX,MOT.MagY,MOT.MagZ,MC.Action,MC.ActionPower,MC.IsActive,PM.Engagement.IsActive,PM.Engagement.Scaled,PM.Engagement.Raw,PM.Engagement.Min,PM.Engagement.Max,PM.Excitement.IsActive,PM.Excitement.Scaled,PM.Excitement.Raw,PM.Excitement.Min,PM.Excitement.Max,PM.LongTermExcitement,PM.Stress.IsActive,PM.Stress.Scaled,PM.Stress.Raw,PM.Stress.Min,PM.Stress.Max,PM.Relaxation.IsActive,PM.Relaxation.Scaled,PM.Relaxation.Raw,PM.Relaxation.Min,PM.Relaxation.Max,PM.Interest.IsActive,PM.Interest.Scaled,PM.Interest.Raw,PM.Interest.Min,PM.Interest.Max,PM.Focus.IsActive,PM.Focus.Scaled,PM.Focus.Raw,PM.Focus.Min,PM.Focus.Max,FE.BlinkWink,FE.HorizontalEyesDirection,FE.UpperFaceAction,FE.UpperFaceActionPower,FE.LowerFaceAction,FE.LowerFaceActionPower,POW.AF3.Theta,POW.AF3.Alpha,POW.AF3.BetaL,POW.AF3.BetaH,POW.AF3.Gamma,POW.T7.Theta,POW.T7.Alpha,POW.T7.BetaL,POW.T7.BetaH,POW.T7.Gamma,POW.Pz.Theta,POW.Pz.Alpha,POW.Pz.BetaL,POW.Pz.BetaH,POW.Pz.Gamma,POW.T8.Theta,POW.T8.Alpha,POW.T8.BetaL,POW.T8.BetaH,POW.T8.Gamma,POW.AF4.Theta,POW.AF4.Alpha,POW.AF4.BetaL,POW.AF4.BetaH,POW.AF4.Gamma
22944,1645583645.9434211,1645583645.981926,121.0,0.0,4267.692383,4299.487305,4187.692383,4276.922852000001,4228.717772999999,450.0,4.0,91.0,,,,0.0,4.0,2.0,4.0,0.0,4.0,50.0,,,,,,,,,,,,,,,,,,,,,,,,,,,,,,,,,,,,,,,,,,,,,,,,,,,,,,,,,,,,,,,,,,,,,,,,,,,,,,,,,,,,
22945,1645583645.951237,1645583645.989743,122.0,0.0,4273.333496,4295.897461,4181.538574,4273.846191,4249.743652,450.0,4.0,91.0,,,,0.0,4.0,2.0,4.0,0.0,4.0,50.0,,,,,,,,61.0,0.0,0.569806,-0.199707,0.645996,0.467041,0.938003,-0.3794,-0.083986,-0.036467,-0.034096,-0.020590999999999998,1.0,0.0,0.0,,,,,,,,,,,,,,,,,,,,,,,,,,,,,,,,0.0,0.0,1.0,0.0,512.0,1.0,386.39126600000003,39.993244,2.962974,2.534488,1.793209,91.131729,68.83341999999999,47.053837,29.87133,17.464514,3.1989549999999998,2.1924360000000003,1.362527,0.675098,0.523016,0.152625,0.09429,0.081814,0.027402,0.072118,161.58097800000002,28.019240999999997,5.679451,2.951062,2.545445
22946,1645583645.9590518,1645583645.997559,123.0,0.0,4266.153809,4266.153809,4172.307617,4278.461426,4248.717772999999,16232.0,4.0,91.0,,,,0.0,4.0,2.0,4.0,0.0,4.0,50.0,,,,,,,,,,,,,,,,,,,,,,,,,,,,,,,,,,,,,,,,,,,,,,,,,,,,,,,,,,,,,,,,,,,,,,,,,,,,,,,,,,,,
22947,1645583645.966868,1645583646.005375,124.0,0.0,4262.05127,4303.077147999999,4165.641113000001,4280.0,4232.820313,450.0,4.0,91.0,,,,0.0,4.0,2.0,4.0,0.0,4.0,50.0,,,,,,,,62.0,0.0,0.569806,-0.199707,0.645996,0.467041,0.9365379999999999,-0.397955,-0.089357,-0.03658,-0.033908999999999995,-0.017165,,,,,,,,,,,,,,,,,,,,,,,,,,,,,,,,,,,,,,,,,,,,,,,,,,,,,,,,,,,,,,,,,
22948,1645583645.974684,1645583646.013192,125.0,0.0,4285.641113000001,4352.820313,4168.205078,4276.410156,4223.077147999999,450.0,4.0,91.0,,,,0.0,4.0,2.0,4.0,0.0,4.0,50.0,,,,,,,,,,,,,,,,,,,,,,,,,,,,,,,,,,,,,,,,,,,,,,,,,,,,,,,,,,,,,,,,,,,,,,,,,,,,,,,,,,,,
22949,1645583645.9824991,1645583646.021008,126.0,0.0,4286.666504,4328.717772999999,4181.025879,4275.897461,4220.0,450.0,4.0,91.0,,,,0.0,4.0,2.0,4.0,0.0,4.0,50.0,,,,,,,,63.0,0.0,0.569615,-0.199463,0.6462399999999999,0.467041,0.9233540000000001,-0.39502600000000004,-0.080079,-0.036536,-0.033985,-0.020233,,,,,,,,,,,,,,,,,,,,,,,,,,,,,,,,,,,0.0,0.0,1.0,0.0,512.0,1.0,,,,,,,,,,,,,,,,,,,,,,,,,
22950,1645583645.990315,1645583646.028824,127.0,0.0,4266.666504,4324.615234000001,4180.0,4277.94873,4223.077147999999,242.0,4.0,91.0,,,,0.0,4.0,2.0,4.0,0.0,4.0,50.0,,,,,,,,,,,,,,,,,,,,,,,,,,,,,,,,,,,,,,,,,,,,,,,,,,,,,,,,,,,,,,,,,,,,,,,,,,,,,,,,,,,,
22951,1645583645.998131,1645583646.036741,0.0,0.0,4264.615234000001,4340.512695,4166.153809,4278.974121,4239.487305,450.0,4.0,91.0,,,,0.0,4.0,1.0,4.0,0.0,4.0,41.666668,,,,,,,,0.0,0.0,0.5699,-0.199219,0.6462399999999999,0.466797,0.9282370000000001,-0.373053,-0.075196,-0.036593,-0.034053,-0.016745,,,,,,,,,,,,,,,,,,,,,,,,,,,,,,,,,,,,,,,,,,,,,,,,,,,,,,,,,,,,,,,,,
22952,1645583646.005947,1645583646.044557,1.0,0.0,4262.05127,4335.384765999999,4162.563965,4276.410156,4248.717772999999,450.0,4.0,91.0,,,,0.0,4.0,1.0,4.0,0.0,4.0,41.666668,,,,,,,,,,,,,,,,,,,,,,,,,,,,,,,,,,,,,,,,,,,,,,,,,,,,,,,,,,,,,,,,,,,,,,,,,,,,,,,,,,,,
22953,1645583646.013762,1645583646.052373,2.0,0.0,4265.641113000001,4333.333496,4173.846191,4271.282227000001,4237.436035,16194.0,4.0,91.0,,,,0.0,4.0,1.0,4.0,0.0,4.0,41.666668,,,,,,,,1.0,0.0,0.5699,-0.199219,0.6462399999999999,0.466797,0.9160299999999999,-0.377447,-0.085451,-0.036596,-0.034115,-0.019856,,,,,,,,,,,,,,,,,,,,,,,,,,,,,,,,,,,0.0,0.0,1.0,0.0,512.0,1.0,,,,,,,,,,,,,,,,,,,,,,,,,
22954,1645583646.0215778,1645583646.06019,3.0,0.0,4289.230957,4335.897461,4196.410156,4273.846191,4240.512695,450.0,4.0,91.0,,,,0.0,4.0,1.0,4.0,0.0,4.0,41.666668,,,,,,,,,,,,,,,,,,,,,,,,,,,,,,,,,,,,,,,,,,,,,,,,,,,,,,,,,,,,,,,,,,,,,,,,,,,,,,,,,,,,
22955,1645583646.029394,1645583646.068006,4.0,0.0,4292.307617,4394.871582,4205.128418,4281.025879,4266.153809,72.0,4.0,91.0,,,,0.0,4.0,1.0,4.0,0.0,4.0,41.666668,,,,,,,,2.0,0.0,0.5699850000000001,-0.198975,0.6462399999999999,0.466797,0.9331200000000001,-0.374029,-0.083009,-0.03655,-0.034073,-0.022753,,,,,,,,,,,,,,,,,,,,,,,,,,,,,,,,,,,,,,,,,,,,,,,,,,,,,,,,,,,,,,,,,
22956,1645583646.037209,1645583646.075822,5.0,0.0,4275.897461,4487.179688,4187.179688,4281.538574,4262.05127,450.0,4.0,91.0,,,,0.0,4.0,1.0,4.0,0.0,4.0,41.666668,,,,,,,,,,,,,,,,,,,,,,,,,,,,,,,,,,,,,,,,,,,,,,,,,,,,,,,,,,,,,,,,,,,,,,,,,,,,,,,,,,,,
22957,1645583646.045025,1645583646.0836382,6.0,0.0,4283.077147999999,4443.589844,4176.922852000001,4278.974121,4235.384765999999,16139.0,4.0,91.0,,,,0.0,4.0,1.0,4.0,0.0,4.0,41.666668,,,,,,,,3.0,0.0,0.5699850000000001,-0.198975,0.6462399999999999,0.466797,0.925307,-0.373053,-0.071778,-0.036655,-0.034132,-0.025361,,,,,,,,,,,,,,,,,,,,,,,,,,,,,,,,,,,0.0,0.0,1.0,0.0,512.0,1.0,,,,,,,,,,,,,,,,,,,,,,,,,
22958,1645583646.052841,1645583646.091455,7.0,0.0,4295.897461,4321.025879,4181.025879,4277.94873,4248.717772999999,450.0,4.0,91.0,,,,0.0,4.0,1.0,4.0,0.0,4.0,41.666668,,,,,,,,,,,,,,,,,,,,,,,,,,,,,,,,,,,,,,,,,,,,,,,,,,,,,,,,,,,,,,,,,,,,,,,,,,,,,,,,,,,,
22959,1645583646.060656,1645583646.099271,8.0,0.0,4279.487305,4304.615234000001,4182.05127,4278.974121,4262.05127,450.0,4.0,91.0,,,,0.0,4.0,1.0,4.0,0.0,4.0,41.666668,,,,,,,,4.0,0.0,0.5699850000000001,-0.198975,0.6462399999999999,0.466797,0.932143,-0.365728,-0.087404,-0.036650999999999996,-0.034039,-0.027708,,,,,,,,,,,,,,,,,,,,,,,,,,,,,,,,,,,,,,,,,,,,,,,,,,,,,,,,,,,,,,,,,
22960,1645583646.0684721,1645583646.107087,9.0,0.0,4245.641113000001,4313.333496,4173.333496,4278.974121,4232.307617,0.0,4.0,91.0,,,,0.0,4.0,1.0,4.0,0.0,4.0,41.666668,,,,,,,,,,,,,,,,,,,,,,,,,,,,,,,,,,,,,,,,,,,,,,,,,,,,,,,,,,,,,,,,,,,,,,,,,,,,,,,,,,,,
22961,1645583646.076288,1645583646.1148038,10.0,0.0,4236.922852000001,4257.436035,4164.102539,4273.333496,4227.692383,450.0,4.0,91.0,,,,0.0,4.0,1.0,4.0,0.0,4.0,41.666668,1.0,33.333332,3.0,1.0,4.0,0.0,3.0,5.0,0.0,0.5699850000000001,-0.198975,0.6462399999999999,0.466797,0.928725,-0.37158800000000003,-0.087404,-0.036648,-0.034053,-0.02982,1.0,0.0,0.0,,,,,,,,,,,,,,,,,,,,,,,,,,,,,,,,0.0,0.0,1.0,0.0,512.0,1.0,311.862457,33.136841,2.55108,2.132515,1.6392380000000002,100.45642099999999,80.907738,47.844463,28.221107,19.142495999999998,2.8675029999999997,2.0237979999999998,1.281781,0.574187,0.59718,0.143983,0.095148,0.079525,0.028194,0.085516,131.239182,22.802443,5.529586,3.56362,2.612675
22962,1645583646.0841029,1645583646.1226199,11.0,0.0,4273.333496,4185.641113000001,4168.205078,4272.820313,4252.307617,16142.0,4.0,91.0,,,,0.0,4.0,1.0,4.0,0.0,4.0,41.666668,,,,,,,,,,,,,,,,,,,,,,,,,,,,,,,,,,,,,,,,,,,,,,,,,,,,,,,,,,,,,,,,,,,,,,,,,,,,,,,,,,,,
22963,1645583646.091919,1645583646.130436,12.0,0.0,4304.102539,4122.563965,4189.230957,4277.436035,4255.897461,450.0,4.0,91.0,,,,0.0,4.0,1.0,4.0,0.0,4.0,41.666668,,,,,,,,6.0,0.0,0.5699850000000001,-0.198975,0.6462399999999999,0.466797,0.925307,-0.373053,-0.071778,-0.036694,-0.034115,-0.025373,,,,,,,,,,,,,,,,,,,,,,,,,,,,,,,,,,,,,,,,,,,,,,,,,,,,,,,,,,,,,,,,,
22964,1645583646.099735,1645583646.138253,13.0,0.0,4288.205078,4141.025879,4200.0,4276.922852000001,4250.769043,450.0,4.0,91.0,,,,0.0,4.0,1.0,4.0,0.0,4.0,41.666668,,,,,,,,,,,,,,,,,,,,,,,,,,,,,,,,,,,,,,,,,,,,,,,,,,,,,,,,,,,,,,,,,,,,,,,,,,,,,,,,,,,,
22965,1645583646.10755,1645583646.146069,14.0,0.0,4267.692383,4209.743652,4193.846191,4276.410156,4248.717772999999,450.0,4.0,91.0,,,,0.0,4.0,1.0,4.0,0.0,4.0,41.666668,,,,,,,,7.0,0.0,0.5699850000000001,-0.198975,0.6462399999999999,0.466797,0.928725,-0.37158800000000003,-0.087404,-0.036687,-0.034121,-0.027718,,,,,,,,,,,,,,,,,,,,,,,,,,,,,,,,,,,0.0,0.0,1.0,0.0,512.0,1.0,,,,,,,,,,,,,,,,,,,,,,,,,
22966,1645583646.115366,1645583646.153885,15.0,0.0,4290.256348,4214.358886999999,4198.461426,4278.974121,4242.05127,16142.0,4.0,91.0,,,,0.0,4.0,1.0,4.0,0.0,4.0,41.666668,,,,,,,,,,,,,,,,,,,,,,,,,,,,,,,,,,,,,,,,,,,,,,,,,,,,,,,,,,,,,,,,,,,,,,,,,,,,,,,,,,,,
22967,1645583646.123181,1645583646.161702,16.0,0.0,4324.615234000001,4218.461426,4208.205078,4279.487305,4252.307617,0.0,4.0,91.0,,,,0.0,4.0,1.0,4.0,0.0,4.0,41.666668,,,,,,,,8.0,0.0,0.569785,-0.198975,0.6462399999999999,0.467041,0.93019,-0.370123,-0.07910299999999999,-0.036632,-0.034127,-0.029781000000000002,,,,,,,,,,,,,,,,,,,,,,,,,,,,,,,,,,,,,,,,,,,,,,,,,,,,,,,,,,,,,,,,,
22968,1645583646.1309972,1645583646.1694179,17.0,0.0,4308.717772999999,4291.794922,4202.563965,4278.974121,4265.128418,0.0,4.0,91.0,,,,0.0,4.0,1.0,4.0,0.0,4.0,41.666668,,,,,,,,,,,,,,,,,,,,,,,,,,,,,,,,,,,,,,,,,,,,,,,,,,,,,,,,,,,,,,,,,,,,,,,,,,,,,,,,,,,,
22969,1645583646.138813,1645583646.177234,18.0,0.0,4266.666504,4318.974121,4188.205078,4280.0,4266.153809,0.0,4.0,91.0,,,,0.0,4.0,1.0,4.0,0.0,4.0,41.666668,,,,,,,,9.0,0.0,0.569508,-0.198975,0.6464840000000001,0.467041,0.932631,-0.37891199999999997,-0.093751,-0.036680000000000004,-0.034133,-0.025289,,,,,,,,,,,,,,,,,,,,,,,,,,,,,,,,,,,0.0,0.0,1.0,0.0,512.0,1.0,,,,,,,,,,,,,,,,,,,,,,,,,
22970,1645583646.1466289,1645583646.185051,19.0,0.0,4282.05127,4262.05127,4191.282227000001,4280.0,4278.974121,0.0,4.0,91.0,,,,0.0,4.0,1.0,4.0,0.0,4.0,41.666668,,,,,,,,,,,,,,,,,,,,,,,,,,,,,,,,,,,,,,,,,,,,,,,,,,,,,,,,,,,,,,,,,,,,,,,,,,,,,,,,,,,,
22971,1645583646.154444,1645583646.192867,20.0,0.0,4322.05127,4228.205078,4208.717772999999,4280.512695,4274.871582,0.0,4.0,91.0,,,,0.0,4.0,1.0,4.0,0.0,4.0,41.666668,,,,,,,,10.0,0.0,0.569308,-0.198975,0.6464840000000001,0.46728500000000006,0.938491,-0.389166,-0.086427,-0.036771,-0.034235,-0.027545,,,,,,,,,,,,,,,,,,,,,,,,,,,,,,,,,,,,,,,,,,,,,,,,,,,,,,,,,,,,,,,,,
22972,1645583646.16226,1645583646.200683,21.0,0.0,4321.538574,4238.974121,4213.846191,4280.512695,4250.769043,0.0,4.0,91.0,,,,0.0,4.0,1.0,4.0,0.0,4.0,41.666668,,,,,,,,,,,,,,,,,,,,,,,,,,,,,,,,,,,,,,,,,,,,,,,,,,,,,,,,,,,,,,,,,,,,,,,,,,,,,,,,,,,,
22973,1645583646.170076,1645583646.2085,22.0,0.0,4322.563965,4250.256348,4212.820313,4280.512695,4250.769043,0.0,4.0,91.0,,,,0.0,4.0,1.0,4.0,0.0,4.0,41.666668,,,,,,,,11.0,0.0,0.569308,-0.198975,0.6464840000000001,0.46728500000000006,0.9267719999999999,-0.375494,-0.081544,-0.036805000000000004,-0.034132,-0.023472,,,,,,,,,,,,,,,,,,,,,,,,,,,,,,,,,,,0.0,0.0,1.0,0.0,512.0,1.0,,,,,,,,,,,,,,,,,,,,,,,,,
22974,1645583646.177891,1645583646.216316,23.0,0.0,4340.0,4267.692383,4212.820313,4280.512695,4268.205078,0.0,4.0,91.0,,,,0.0,4.0,1.0,4.0,0.0,4.0,41.666668,,,,,,,,,,,,,,,,,,,,,,,,,,,,,,,,,,,,,,,,,,,,,,,,,,,,,,,,,,,,,,,,,,,,,,,,,,,,,,,,,,,,
22975,1645583646.185707,1645583646.224132,24.0,0.0,4328.717772999999,4261.025879,4211.282227000001,4278.461426,4274.871582,0.0,4.0,91.0,,,,0.0,4.0,1.0,4.0,0.0,4.0,41.666668,,,,,,,,12.0,0.0,0.569308,-0.198975,0.6464840000000001,0.46728500000000006,0.9267719999999999,-0.381842,-0.08203300000000001,-0.036836,-0.034088,-0.025958999999999996,,,,,,,,,,,,,,,,,,,,,,,,,,,,,,,,,,,,,,,,,,,,,,,,,,,,,,,,,,,,,,,,,
22976,1645583646.193523,1645583646.231949,25.0,0.0,4300.512695,4256.410156,4212.820313,4277.94873,4266.153809,0.0,4.0,91.0,,,,0.0,4.0,1.0,4.0,0.0,4.0,41.666668,,,,,,,,,,,,,,,,,,,,,,,,,,,,,,,,,,,,,,,,,,,,,,,,,,,,,,,,,,,,,,,,,,,,,,,,,,,,,,,,,,,,
22977,1645583646.201338,1645583646.239865,26.0,0.0,4301.025879,4259.487305,4206.153809,4279.487305,4252.307617,0.0,4.0,91.0,,,,0.0,4.0,1.0,4.0,0.0,4.0,41.666668,,,,,,,,13.0,0.0,0.5690310000000001,-0.198975,0.646729,0.46728500000000006,0.928725,-0.37793499999999997,-0.08105599999999999,-0.036912,-0.034194999999999996,-0.028148000000000003,1.0,0.0,0.0,,,,,,,,,,,,,,,,,,,,,,,,,,,,,,,,0.0,0.0,1.0,0.0,512.0,1.0,210.86987299999998,23.76609,2.390348,1.761194,1.4845629999999999,105.65477800000001,92.282646,50.111736,26.258862,20.931391,2.395189,1.8860430000000001,1.152095,0.522608,0.663011,0.122679,0.094512,0.080729,0.032797,0.096511,89.622986,16.015566,4.869671,4.2262580000000005,2.583895
22978,1645583646.209154,1645583646.2476811,27.0,0.0,4309.743652,4232.820313,4189.743652,4280.0,4250.769043,0.0,4.0,91.0,,,,0.0,4.0,1.0,4.0,0.0,4.0,41.666668,,,,,,,,,,,,,,,,,,,,,,,,,,,,,,,,,,,,,,,,,,,,,,,,,,,,,,,,,,,,,,,,,,,,,,,,,,,,,,,,,,,,
22979,1645583646.21697,1645583646.255598,28.0,0.0,4300.0,4286.666504,4183.589844,4278.974121,4270.769043,0.0,4.0,91.0,,,,0.0,4.0,1.0,4.0,0.0,4.0,41.666668,,,,,,,,14.0,0.0,0.5690310000000001,-0.198975,0.646729,0.46728500000000006,0.9248190000000001,-0.38721300000000003,-0.06836,-0.036785000000000005,-0.034193,-0.029972000000000002,,,,,,,,,,,,,,,,,,,,,,,,,,,,,,,,,,,,,,,,,,,,,,,,,,,,,,,,,,,,,,,,,
22980,1645583646.2247849,1645583646.2634141,29.0,0.0,4291.794922,4406.666504,4189.743652,4280.0,4289.230957,0.0,4.0,91.0,,,,0.0,4.0,1.0,4.0,0.0,4.0,41.666668,,,,,,,,,,,,,,,,,,,,,,,,,,,,,,,,,,,,,,,,,,,,,,,,,,,,,,,,,,,,,,,,,,,,,,,,,,,,,,,,,,,,
22981,1645583646.232601,1645583646.271231,30.0,0.0,4312.307617,4350.769043,4200.512695,4280.512695,4278.974121,0.0,4.0,91.0,,,,0.0,4.0,1.0,4.0,0.0,4.0,41.666668,,,,,,,,15.0,0.0,0.5690310000000001,-0.198975,0.646729,0.46728500000000006,0.9209129999999999,-0.384283,-0.09131,-0.036769,-0.034143,-0.025509999999999998,,,,,,,,,,,,,,,,,,,,,,,,,,,,,,,,,,,0.0,0.0,1.0,0.0,512.0,1.0,,,,,,,,,,,,,,,,,,,,,,,,,
22982,1645583646.240417,1645583646.279047,31.0,0.0,4336.410156,4216.410156,4205.128418,4276.922852000001,4264.102539,0.0,4.0,91.0,,,,0.0,4.0,1.0,4.0,0.0,4.0,41.666668,,,,,,,,,,,,,,,,,,,,,,,,,,,,,,,,,,,,,,,,,,,,,,,,,,,,,,,,,,,,,,,,,,,,,,,,,,,,,,,,,,,,
22983,1645583646.2482321,1645583646.286864,32.0,0.0,4318.974121,4294.871582,4202.05127,4276.410156,4263.589844,0.0,4.0,91.0,,,,0.0,4.0,1.0,4.0,0.0,4.0,41.666668,,,,,,,,16.0,0.0,0.5690310000000001,-0.198975,0.646729,0.46728500000000006,0.925307,-0.376959,-0.08105599999999999,-0.036705,-0.034196,-0.027744,,,,,,,,,,,,,,,,,,,,,,,,,,,,,,,,,,,,,,,,,,,,,,,,,,,,,,,,,,,,,,,,,
22984,1645583646.256048,1645583646.29468,33.0,0.0,4296.922852000001,4398.974121,4205.641113000001,4279.487305,4260.512695,0.0,4.0,91.0,,,,0.0,4.0,1.0,4.0,0.0,4.0,41.666668,,,,,,,,,,,,,,,,,,,,,,,,,,,,,,,,,,,,,,,,,,,,,,,,,,,,,,,,,,,,,,,,,,,,,,,,,,,,,,,,,,,,
22985,1645583646.263864,1645583646.3024971,34.0,0.0,4316.922852000001,4313.333496,4212.307617,4280.512695,4258.461426,0.0,4.0,91.0,,,,0.0,4.0,1.0,4.0,0.0,4.0,41.666668,,,,,,,,17.0,0.0,0.5690310000000001,-0.198975,0.646729,0.46728500000000006,0.931167,-0.381842,-0.07715,-0.036599,-0.034243,-0.023456,,,,,,,,,,,,,,,,,,,,,,,,,,,,,,,,,,,0.0,0.0,1.0,0.0,512.0,1.0,,,,,,,,,,,,,,,,,,,,,,,,,
22986,1645583646.271679,1645583646.3103142,35.0,0.0,4329.230957,4265.641113000001,4204.102539,4279.487305,4268.717772999999,0.0,4.0,91.0,,,,0.0,4.0,1.0,4.0,0.0,4.0,41.666668,,,,,,,,,,,,,,,,,,,,,,,,,,,,,,,,,,,,,,,,,,,,,,,,,,,,,,,,,,,,,,,,,,,,,,,,,,,,,,,,,,,,
22987,1645583646.279495,1645583646.3182302,36.0,0.0,4304.615234000001,4320.512695,4203.077147999999,4280.512695,4276.410156,0.0,4.0,91.0,,,,0.0,4.0,1.0,4.0,0.0,4.0,41.666668,,,,,,,,18.0,0.0,0.568753,-0.198975,0.6469729999999999,0.46728500000000006,0.933608,-0.374517,-0.085451,-0.036552999999999995,-0.034187999999999996,-0.025798,,,,,,,,,,,,,,,,,,,,,,,,,,,,,,,,,,,,,,,,,,,,,,,,,,,,,,,,,,,,,,,,,
22988,1645583646.2873108,1645583646.326046,37.0,0.0,4286.153809,4307.692383,4207.179688,4278.974121,4274.871582,0.0,4.0,91.0,,,,0.0,4.0,1.0,4.0,0.0,4.0,41.666668,,,,,,,,,,,,,,,,,,,,,,,,,,,,,,,,,,,,,,,,,,,,,,,,,,,,,,,,,,,,,,,,,,,,,,,,,,,,,,,,,,,,
22989,1645583646.295126,1645583646.3338618,38.0,0.0,4294.358886999999,4275.897461,4201.025879,4275.897461,4270.256348,0.0,4.0,91.0,,,,0.0,4.0,1.0,4.0,0.0,4.0,41.666668,,,,,,,,19.0,0.0,0.568753,-0.198975,0.6469729999999999,0.46728500000000006,0.922866,-0.37793499999999997,-0.07422000000000001,-0.036657,-0.034236,-0.028100999999999998,,,,,,,,,,,,,,,,,,,,,,,,,,,,,,,,,,,0.0,0.0,1.0,0.0,512.0,1.0,,,,,,,,,,,,,,,,,,,,,,,,,
22990,1645583646.302942,1645583646.3416789,39.0,0.0,4319.487305,4323.077147999999,4206.666504,4277.436035,4284.102539,0.0,4.0,91.0,,,,0.0,4.0,1.0,4.0,0.0,4.0,41.666668,,,,,,,,,,,,,,,,,,,,,,,,,,,,,,,,,,,,,,,,,,,,,,,,,,,,,,,,,,,,,,,,,,,,,,,,,,,,,,,,,,,,
22991,1645583646.310758,1645583646.349495,40.0,0.0,4331.794922,4324.102539,4214.871582,4279.487305,4304.615234000001,0.0,4.0,91.0,,,,0.0,4.0,1.0,4.0,0.0,4.0,41.666668,,,,,,,,20.0,0.0,0.568954,-0.198975,0.6469729999999999,0.467041,0.938491,-0.380377,-0.077638,-0.036654,-0.034279000000000004,-0.023826,,,,,,,,,,,,,,,,,,,,,,,,,,,,,,,,,,,,,,,,,,,,,,,,,,,,,,,,,,,,,,,,,
22992,1645583646.318573,1645583646.357311,41.0,0.0,4317.94873,4262.05127,4206.666504,4278.461426,4287.179688,0.0,4.0,91.0,,,,0.0,4.0,1.0,4.0,0.0,4.0,41.666668,,,,,,,,,,,,,,,,,,,,,,,,,,,,,,,,,,,,,,,,,,,,,,,,,,,,,,,,,,,,,,,,,,,,,,,,,,,,,,,,,,,,
22993,1645583646.326389,1645583646.365128,42.0,0.0,4312.307617,4274.358886999999,4204.615234000001,4278.974121,4268.205078,0.0,4.0,91.0,,,,0.0,4.0,1.0,4.0,0.0,4.0,41.666668,,,,,,,,21.0,0.0,0.568954,-0.198975,0.6469729999999999,0.467041,0.921889,-0.3794,-0.083009,-0.036650999999999996,-0.034172,-0.019979,1.0,0.0,0.0,,,,,,,,,,,,,,,,,,,,,,,,,,,,,,,,0.0,0.0,1.0,0.0,512.0,1.0,115.373085,14.820451,2.518526,1.477207,1.3789209999999998,102.82074,99.015549,53.767391,24.957088,22.507597,1.9366150000000002,1.83545,0.9968090000000001,0.50765,0.708543,0.096015,0.094461,0.084422,0.038408,0.101515,49.795002000000004,9.743689999999999,3.912142,4.8102730000000005,2.462539
22994,1645583646.3342052,1645583646.3729439,43.0,0.0,4330.256348,4346.666504,4219.487305,4281.538574,4295.384765999999,0.0,4.0,91.0,,,,0.0,4.0,1.0,4.0,0.0,4.0,41.666668,,,,,,,,,,,,,,,,,,,,,,,,,,,,,,,,,,,,,,,,,,,,,,,,,,,,,,,,,,,,,,,,,,,,,,,,,,,,,,,,,,,,
22995,1645583646.34202,1645583646.3808599,44.0,0.0,4328.717772999999,4345.128418,4213.333496,4280.0,4298.461426,0.0,4.0,91.0,,,,0.0,4.0,1.0,4.0,0.0,4.0,41.666668,,,,,,,,22.0,0.0,0.568868,-0.199219,0.6469729999999999,0.467041,0.9306780000000001,-0.376471,-0.080079,-0.036648,-0.034221,-0.022815000000000002,,,,,,,,,,,,,,,,,,,,,,,,,,,,,,,,,,,,,,,,,,,,,,,,,,,,,,,,,,,,,,,,,
22996,1645583646.3498359,1645583646.388676,45.0,0.0,4313.333496,4255.897461,4186.666504,4277.436035,4260.0,0.0,4.0,91.0,,,,0.0,4.0,1.0,4.0,0.0,4.0,41.666668,,,,,,,,,,,,,,,,,,,,,,,,,,,,,,,,,,,,,,,,,,,,,,,,,,,,,,,,,,,,,,,,,,,,,,,,,,,,,,,,,,,,
22997,1645583646.357652,1645583646.396493,46.0,0.0,4317.94873,4224.102539,4177.94873,4279.487305,4250.769043,0.0,4.0,91.0,,,,0.0,4.0,1.0,4.0,0.0,4.0,41.666668,,,,,,,,23.0,0.0,0.568753,-0.198975,0.6469729999999999,0.46728500000000006,0.929213,-0.36914600000000003,-0.07470800000000001,-0.036743,-0.034217000000000004,-0.025465,,,,,,,,,,,,,,,,,,,,,,,,,,,,,,,,,,,0.0,0.0,1.0,0.0,512.0,1.0,,,,,,,,,,,,,,,,,,,,,,,,,
22998,1645583646.365467,1645583646.404309,47.0,0.0,4315.384765999999,4336.922852000001,4191.794922,4282.563965,4269.743652,0.0,4.0,91.0,,,,0.0,4.0,1.0,4.0,0.0,4.0,41.666668,,,,,,,,,,,,,,,,,,,,,,,,,,,,,,,,,,,,,,,,,,,,,,,,,,,,,,,,,,,,,,,,,,,,,,,,,,,,,,,,,,,,
22999,1645583646.373283,1645583646.412125,48.0,0.0,4303.589844,4438.461426,4202.05127,4281.538574,4276.922852000001,0.0,4.0,91.0,,,,0.0,4.0,1.0,4.0,0.0,4.0,41.666668,,,,,,,,24.0,0.0,0.5686680000000001,-0.199219,0.6469729999999999,0.46728500000000006,0.929213,-0.385748,-0.067872,-0.036779,-0.034018,-0.0216,,,,,,,,,,,,,,,,,,,,,,,,,,,,,,,,,,,,,,,,,,,,,,,,,,,,,,,,,,,,,,,,,
23000,1645583646.381099,1645583646.419942,49.0,0.0,4300.0,4408.205078,4200.512695,4278.974121,4270.256348,0.0,4.0,91.0,,,,0.0,4.0,1.0,4.0,0.0,4.0,41.666668,,,,,,,,,,,,,,,,,,,,,,,,,,,,,,,,,,,,,,,,,,,,,,,,,,,,,,,,,,,,,,,,,,,,,,,,,,,,,,,,,,,,
23001,1645583646.388914,1645583646.427758,50.0,0.0,4302.563965,4358.974121,4201.025879,4280.0,4266.153809,0.0,4.0,91.0,,,,0.0,4.0,1.0,4.0,0.0,4.0,41.666668,,,,,,,,25.0,0.0,0.5686680000000001,-0.199219,0.6469729999999999,0.46728500000000006,0.9267719999999999,-0.380865,-0.078614,-0.036861,-0.034082999999999995,-0.017975,,,,,,,,,,,,,,,,,,,,,,,,,,,,,,,,,,,0.0,0.0,1.0,0.0,512.0,1.0,,,,,,,,,,,,,,,,,,,,,,,,,
23002,1645583646.3967302,1645583646.435574,51.0,0.0,4312.820313,4387.692383,4205.641113000001,4280.0,4272.307617,0.0,4.0,91.0,,,,0.0,4.0,1.0,4.0,0.0,4.0,41.666668,,,,,,,,,,,,,,,,,,,,,,,,,,,,,,,,,,,,,,,,,,,,,,,,,,,,,,,,,,,,,,,,,,,,,,,,,,,,,,,,,,,,
23003,1645583646.404546,1645583646.443391,52.0,0.0,4329.230957,4443.589844,4204.615234000001,4278.974121,4267.692383,0.0,4.0,91.0,,,,0.0,4.0,1.0,4.0,0.0,4.0,41.666668,,,,,,,,26.0,0.0,0.5685520000000001,-0.198975,0.6469729999999999,0.467529,0.9316549999999999,-0.393072,-0.07910299999999999,-0.036935,-0.034044,-0.021012,,,,,,,,,,,,,,,,,,,,,,,,,,,,,,,,,,,,,,,,,,,,,,,,,,,,,,,,,,,,,,,,,
23004,1645583646.4123619,1645583646.451107,53.0,0.0,4337.94873,4450.256348,4193.846191,4278.461426,4267.692383,0.0,4.0,91.0,,,,0.0,4.0,1.0,4.0,0.0,4.0,41.666668,,,,,,,,,,,,,,,,,,,,,,,,,,,,,,,,,,,,,,,,,,,,,,,,,,,,,,,,,,,,,,,,,,,,,,,,,,,,,,,,,,,,
23005,1645583646.420177,1645583646.458923,54.0,0.0,4324.102539,4382.05127,4186.153809,4278.974121,4284.102539,0.0,4.0,91.0,,,,0.0,4.0,1.0,4.0,0.0,4.0,41.666668,,,,,,,,27.0,0.0,0.5685520000000001,-0.198975,0.6469729999999999,0.467529,0.937026,-0.374517,-0.078614,-0.036806,-0.033960000000000004,-0.023696000000000002,,,,,,,,,,,,,,,,,,,,,,,,,,,,,,,,,,,0.0,0.0,1.0,0.0,512.0,1.0,,,,,,,,,,,,,,,,,,,,,,,,,
23006,1645583646.427993,1645583646.4667401,55.0,0.0,4309.743652,4379.487305,4189.230957,4278.974121,4282.05127,0.0,4.0,91.0,,,,0.0,4.0,1.0,4.0,0.0,4.0,41.666668,,,,,,,,,,,,,,,,,,,,,,,,,,,,,,,,,,,,,,,,,,,,,,,,,,,,,,,,,,,,,,,,,,,,,,,,,,,,,,,,,,,,
23007,1645583646.435809,1645583646.474556,56.0,0.0,4301.025879,4480.512695,4193.333496,4278.974121,4255.897461,0.0,4.0,91.0,,,,0.0,4.0,1.0,4.0,0.0,4.0,41.666668,,,,,,,,28.0,0.0,0.568638,-0.19873,0.6469729999999999,0.467529,0.9316549999999999,-0.389166,-0.08838,-0.036788,-0.034031,-0.01991,,,,,,,,,,,,,,,,,,,,,,,,,,,,,,,,,,,,,,,,,,,,,,,,,,,,,,,,,,,,,,,,,
23008,1645583646.443624,1645583646.482372,57.0,0.0,4283.589844,4489.743652,4198.974121,4278.974121,4247.692383,0.0,4.0,91.0,,,,0.0,4.0,1.0,4.0,0.0,4.0,41.666668,,,,,,,,,,,,,,,,,,,,,,,,,,,,,,,,,,,,,,,,,,,,,,,,,,,,,,,,,,,,,,,,,,,,,,,,,,,,,,,,,,,,
23009,1645583646.45144,1645583646.490189,58.0,0.0,4289.230957,4372.820313,4212.307617,4277.94873,4274.358886999999,0.0,4.0,91.0,,,,0.0,4.0,1.0,4.0,0.0,4.0,41.666668,,,,,,,,29.0,0.0,0.568638,-0.19873,0.6469729999999999,0.467529,0.9248190000000001,-0.389166,-0.08203300000000001,-0.036869,-0.033899,-0.022753,1.0,0.0,0.0,,,,,,,,,,,,,,,,,,,,,,,,,,,,,,,,0.0,0.0,1.0,0.0,512.0,1.0,47.446564,8.418994999999999,2.90852,1.287562,1.3656629999999998,94.582382,99.212273,57.285647999999995,24.544933,23.50725,1.594946,1.8894830000000002,0.881489,0.509803,0.7268439999999999,0.07119600000000001,0.097486,0.088662,0.042492,0.098787,21.106796,5.381178,2.942054,5.156811,2.285686
23010,1645583646.4592562,1645583646.4980052,59.0,0.0,4320.0,4304.102539,4228.717772999999,4279.487305,4301.025879,0.0,4.0,91.0,,,,0.0,4.0,1.0,4.0,0.0,4.0,41.666668,,,,,,,,,,,,,,,,,,,,,,,,,,,,,,,,,,,,,,,,,,,,,,,,,,,,,,,,,,,,,,,,,,,,,,,,,,,,,,,,,,,,
23011,1645583646.467071,1645583646.505821,60.0,0.0,4311.282227000001,4280.0,4235.897461,4279.487305,4305.641113000001,0.0,4.0,91.0,,,,0.0,4.0,1.0,4.0,0.0,4.0,41.666668,,,,,,,,30.0,0.0,0.568723,-0.198486,0.6469729999999999,0.467529,0.9423969999999999,-0.39014299999999996,-0.07910299999999999,-0.036942,-0.033879,-0.018963999999999998,,,,,,,,,,,,,,,,,,,,,,,,,,,,,,,,,,,,,,,,,,,,,,,,,,,,,,,,,,,,,,,,,
23012,1645583646.474887,1645583646.513638,61.0,0.0,4297.436035,4256.410156,4226.153809,4273.846191,4298.974121,0.0,4.0,91.0,,,,0.0,4.0,1.0,4.0,0.0,4.0,41.666668,,,,,,,,,,,,,,,,,,,,,,,,,,,,,,,,,,,,,,,,,,,,,,,,,,,,,,,,,,,,,,,,,,,,,,,,,,,,,,,,,,,,
23013,1645583646.482702,1645583646.521554,62.0,0.0,4341.025879,4287.692383,4222.05127,4274.871582,4302.563965,0.0,4.0,91.0,,,,0.0,4.0,0.0,4.0,0.0,4.0,33.333332,,,,,,,,31.0,0.0,0.568808,-0.198242,0.6469729999999999,0.467529,0.933608,-0.380865,-0.083497,-0.036958,-0.03386,-0.021902,,,,,,,,,,,,,,,,,,,,,,,,,,,,,,,,,,,0.0,0.0,1.0,0.0,512.0,1.0,,,,,,,,,,,,,,,,,,,,,,,,,
23014,1645583646.4905179,1645583646.5293698,63.0,0.0,4355.384765999999,4322.05127,4232.307617,4282.05127,4313.846191,0.0,4.0,91.0,,,,0.0,4.0,0.0,4.0,0.0,4.0,33.333332,,,,,,,,,,,,,,,,,,,,,,,,,,,,,,,,,,,,,,,,,,,,,,,,,,,,,,,,,,,,,,,,,,,,,,,,,,,,,,,,,,,,
23015,1645583646.498334,1645583646.537186,64.0,0.0,4318.461426,4340.0,4230.256348,4281.538574,4309.230957,450.0,4.0,91.0,,,,0.0,4.0,0.0,4.0,0.0,4.0,33.333332,,,,,,,,32.0,0.0,0.568808,-0.198242,0.6469729999999999,0.467529,0.929702,-0.382818,-0.082521,-0.036974,-0.033892,-0.024497,,,,,,,,,,,,,,,,,,,,,,,,,,,,,,,,,,,,,,,,,,,,,,,,,,,,,,,,,,,,,,,,,
23016,1645583646.506149,1645583646.545003,65.0,0.0,4314.358886999999,4364.102539,4210.256348,4278.974121,4287.692383,450.0,4.0,91.0,,,,0.0,4.0,0.0,4.0,0.0,4.0,33.333332,,,,,,,,,,,,,,,,,,,,,,,,,,,,,,,,,,,,,,,,,,,,,,,,,,,,,,,,,,,,,,,,,,,,,,,,,,,,,,,,,,,,
23017,1645583646.5139651,1645583646.552819,66.0,0.0,4330.769043,4320.0,4205.641113000001,4281.538574,4282.05127,16180.0,4.0,91.0,,,,0.0,4.0,0.0,4.0,0.0,4.0,33.333332,,,,,,,,33.0,0.0,0.569009,-0.198242,0.6469729999999999,0.46728500000000006,0.929213,-0.394049,-0.085451,-0.036938,-0.03397,-0.020582,,,,,,,,,,,,,,,,,,,,,,,,,,,,,,,,,,,0.0,0.0,1.0,0.0,512.0,1.0,,,,,,,,,,,,,,,,,,,,,,,,,
23018,1645583646.521781,1645583646.5606349,67.0,0.0,4333.333496,4307.692383,4218.974121,4281.025879,4314.871582,450.0,4.0,91.0,,,,0.0,4.0,0.0,4.0,0.0,4.0,33.333332,,,,,,,,,,,,,,,,,,,,,,,,,,,,,,,,,,,,,,,,,,,,,,,,,,,,,,,,,,,,,,,,,,,,,,,,,,,,,,,,,,,,
23019,1645583646.529596,1645583646.568452,68.0,0.0,4333.333496,4385.128418,4218.461426,4278.974121,4328.717772999999,46.0,4.0,91.0,,,,0.0,4.0,0.0,4.0,0.0,4.0,33.333332,,,,,,,,34.0,0.0,0.568808,-0.198242,0.6469729999999999,0.467529,0.933608,-0.380865,-0.083497,-0.036858,-0.03404,-0.017059,,,,,,,,,,,,,,,,,,,,,,,,,,,,,,,,,,,,,,,,,,,,,,,,,,,,,,,,,,,,,,,,,
23020,1645583646.537412,1645583646.576268,69.0,0.0,4331.794922,4362.563965,4206.153809,4280.0,4304.615234000001,450.0,4.0,91.0,,,,0.0,4.0,0.0,4.0,0.0,4.0,33.333332,,,,,,,,,,,,,,,,,,,,,,,,,,,,,,,,,,,,,,,,,,,,,,,,,,,,,,,,,,,,,,,,,,,,,,,,,,,,,,,,,,,,
23021,1645583646.545228,1645583646.584184,70.0,0.0,4340.0,4252.820313,4210.256348,4280.0,4296.922852000001,16151.0,4.0,91.0,,,,0.0,4.0,0.0,4.0,0.0,4.0,33.333332,,,,,,,,35.0,0.0,0.569009,-0.198242,0.6469729999999999,0.46728500000000006,0.929213,-0.394049,-0.085451,-0.036834,-0.034102,-0.013888999999999999,,,,,,,,,,,,,,,,,,,,,,,,,,,,,,,,,,,0.0,0.0,1.0,0.0,512.0,1.0,,,,,,,,,,,,,,,,,,,,,,,,,
23022,1645583646.553043,1645583646.592001,71.0,0.0,4364.102539,4228.717772999999,4229.743652,4278.461426,4297.436035,450.0,4.0,91.0,,,,0.0,4.0,0.0,4.0,0.0,4.0,33.333332,,,,,,,,,,,,,,,,,,,,,,,,,,,,,,,,,,,,,,,,,,,,,,,,,,,,,,,,,,,,,,,,,,,,,,,,,,,,,,,,,,,,
23023,1645583646.560859,1645583646.599818,72.0,0.0,4357.436035,4222.05127,4232.307617,4278.974121,4287.179688,450.0,4.0,91.0,,,,0.0,4.0,0.0,4.0,0.0,4.0,33.333332,,,,,,,,36.0,0.0,0.568924,-0.198486,0.6469729999999999,0.46728500000000006,0.941909,-0.372564,-0.090822,-0.036667,-0.03411,-0.017334,,,,,,,,,,,,,,,,,,,,,,,,,,,,,,,,,,,,,,,,,,,,,,,,,,,,,,,,,,,,,,,,,
23024,1645583646.568675,1645583646.607634,73.0,0.0,4324.102539,4192.307617,4224.615234000001,4278.974121,4285.128418,0.0,4.0,91.0,,,,0.0,4.0,0.0,4.0,0.0,4.0,33.333332,,,,,,,,,,,,,,,,,,,,,,,,,,,,,,,,,,,,,,,,,,,,,,,,,,,,,,,,,,,,,,,,,,,,,,,,,,,,,,,,,,,,
23025,1645583646.576491,1645583646.6154509,74.0,0.0,4325.128418,4146.666504,4231.282227000001,4278.974121,4285.641113000001,450.0,4.0,91.0,,,,0.0,4.0,0.0,4.0,0.0,4.0,33.333332,1.0,25.0,3.0,0.0,4.0,0.0,4.0,37.0,0.0,0.568646,-0.198486,0.647217,0.46728500000000006,0.936049,-0.37598200000000004,-0.086427,-0.036564,-0.034166,-0.020386,1.0,0.0,0.0,1.0,0.370169,0.625897,-0.302544,2.137332,1.0,0.337325,4.951013,0.198255,14.651792000000002,0.28549800000000003,1.0,0.339252,-0.110723,-0.24549200000000002,0.127384,1.0,0.268862,0.320272,-0.607033,2.480379,1.0,0.472983,3.659014,-24.422477999999998,34.910367,1.0,0.30622699999999997,0.552392,0.46892700000000004,0.7104689999999999,0.0,0.0,1.0,0.0,512.0,1.0,12.882685,5.12098,3.464006,1.171247,1.461989,83.935036,92.775696,58.359669,24.388462,23.749969,1.436,2.008582,0.879525,0.514781,0.717025,0.053332000000000004,0.104325,0.091542,0.043496,0.089212,6.249998000000001,3.2354689999999997,2.203063,5.140844,2.102157
23026,1645583646.584306,1645583646.623267,75.0,0.0,4336.410156,4106.153809,4238.974121,4278.974121,4284.102539,16186.0,4.0,91.0,,,,0.0,4.0,0.0,4.0,0.0,4.0,33.333332,,,,,,,,,,,,,,,,,,,,,,,,,,,,,,,,,,,,,,,,,,,,,,,,,,,,,,,,,,,,,,,,,,,,,,,,,,,,,,,,,,,,
23027,1645583646.592122,1645583646.631084,76.0,0.0,4321.025879,4170.256348,4228.717772999999,4278.974121,4296.922852000001,450.0,4.0,91.0,,,,0.0,4.0,0.0,4.0,0.0,4.0,33.333332,,,,,,,,38.0,0.0,0.568646,-0.198486,0.647217,0.46728500000000006,0.922866,-0.383307,-0.083986,-0.036521,-0.034216,-0.016931,,,,,,,,,,,,,,,,,,,,,,,,,,,,,,,,,,,,,,,,,,,,,,,,,,,,,,,,,,,,,,,,,
23028,1645583646.5999382,1645583646.6389,77.0,0.0,4304.615234000001,4274.871582,4213.846191,4278.974121,4306.666504,450.0,4.0,91.0,,,,0.0,4.0,0.0,4.0,0.0,4.0,33.333332,,,,,,,,,,,,,,,,,,,,,,,,,,,,,,,,,,,,,,,,,,,,,,,,,,,,,,,,,,,,,,,,,,,,,,,,,,,,,,,,,,,,
23029,1645583646.607753,1645583646.646717,78.0,0.0,4317.436035,4320.512695,4211.794922,4278.974121,4295.384765999999,450.0,4.0,91.0,,,,0.0,4.0,0.0,4.0,0.0,4.0,33.333332,,,,,,,,39.0,0.0,0.568445,-0.198486,0.647217,0.467529,0.925795,-0.378424,-0.07128999999999999,-0.03658,-0.034261,-0.020072,,,,,,,,,,,,,,,,,,,,,,,,,,,,,,,,,,,0.0,0.0,1.0,0.0,512.0,1.0,,,,,,,,,,,,,,,,,,,,,,,,,
23030,1645583646.6155689,1645583646.654533,79.0,0.0,4329.230957,4345.641113000001,4221.538574,4278.974121,4283.589844,16186.0,4.0,91.0,,,,0.0,4.0,0.0,4.0,0.0,4.0,33.333332,,,,,,,,,,,,,,,,,,,,,,,,,,,,,,,,,,,,,,,,,,,,,,,,,,,,,,,,,,,,,,,,,,,,,,,,,,,,,,,,,,,,
23031,1645583646.623385,1645583646.66245,80.0,0.0,4325.128418,4348.717772999999,4230.256348,4278.974121,4292.307617,450.0,4.0,91.0,,,,0.0,4.0,0.0,4.0,0.0,4.0,33.333332,,,,,,,,40.0,0.0,0.568445,-0.198486,0.647217,0.467529,0.9267719999999999,-0.384283,-0.066896,-0.036633,-0.034253,-0.022899,,,,,,,,,,,,,,,,,,,,,,,,,,,,,,,,,,,,,,,,,,,,,,,,,,,,,,,,,,,,,,,,,
23032,1645583646.6312,1645583646.670266,81.0,0.0,4330.769043,4349.230957,4222.05127,4278.461426,4297.94873,450.0,4.0,91.0,,,,0.0,4.0,0.0,4.0,0.0,4.0,33.333332,,,,,,,,,,,,,,,,,,,,,,,,,,,,,,,,,,,,,,,,,,,,,,,,,,,,,,,,,,,,,,,,,,,,,,,,,,,,,,,,,,,,
23033,1645583646.639016,1645583646.678082,82.0,0.0,4331.794922,4392.820313,4206.666504,4278.974121,4277.94873,450.0,4.0,91.0,,,,0.0,4.0,0.0,4.0,0.0,4.0,33.333332,,,,,,,,41.0,0.0,0.5683600000000001,-0.19873,0.647217,0.467529,0.921889,-0.396002,-0.079591,-0.036632,-0.034344,-0.025394,,,,,,,,,,,,,,,,,,,,,,,,,,,,,,,,,,,0.0,0.0,1.0,0.0,512.0,1.0,,,,,,,,,,,,,,,,,,,,,,,,,
23034,1645583646.646832,1645583646.685899,83.0,0.0,4318.461426,4381.538574,4204.102539,4279.487305,4253.846191,16186.0,4.0,91.0,,,,0.0,4.0,0.0,4.0,0.0,4.0,33.333332,,,,,,,,,,,,,,,,,,,,,,,,,,,,,,,,,,,,,,,,,,,,,,,,,,,,,,,,,,,,,,,,,,,,,,,,,,,,,,,,,,,,
23035,1645583646.654647,1645583646.693715,84.0,0.0,4305.641113000001,4339.487305,4202.563965,4276.410156,4269.743652,450.0,4.0,91.0,,,,0.0,4.0,0.0,4.0,0.0,4.0,33.333332,,,,,,,,42.0,0.0,0.5683600000000001,-0.19873,0.647217,0.467529,0.9277489999999999,-0.392584,-0.082521,-0.036729000000000005,-0.034376,-0.027591,,,,,,,,,,,,,,,,,,,,,,,,,,,,,,,,,,,,,,,,,,,,,,,,,,,,,,,,,,,,,,,,,
23036,1645583646.6624632,1645583646.7015312,85.0,0.0,4298.974121,4374.871582,4188.717772999999,4275.897461,4288.717772999999,450.0,4.0,91.0,,,,0.0,4.0,0.0,4.0,0.0,4.0,33.333332,,,,,,,,,,,,,,,,,,,,,,,,,,,,,,,,,,,,,,,,,,,,,,,,,,,,,,,,,,,,,,,,,,,,,,,,,,,,,,,,,,,,
23037,1645583646.6702788,1645583646.709348,86.0,0.0,4303.077147999999,4373.846191,4176.410156,4279.487305,4278.974121,450.0,4.0,91.0,,,,0.0,4.0,0.0,4.0,0.0,4.0,33.333332,,,,,,,,43.0,0.0,0.5683600000000001,-0.19873,0.647217,0.467529,0.921401,-0.38477100000000003,-0.075685,-0.036669,-0.034308,-0.029617,,,,,,,,,,,,,,,,,,,,,,,,,,,,,,,,,,,0.0,0.0,1.0,0.0,512.0,1.0,,,,,,,,,,,,,,,,,,,,,,,,,
23038,1645583646.678094,1645583646.717164,87.0,0.0,4318.461426,4318.974121,4187.179688,4280.0,4278.974121,16186.0,4.0,91.0,,,,0.0,4.0,0.0,4.0,0.0,4.0,33.333332,,,,,,,,,,,,,,,,,,,,,,,,,,,,,,,,,,,,,,,,,,,,,,,,,,,,,,,,,,,,,,,,,,,,,,,,,,,,,,,,,,,,
23039,1645583646.68591,1645583646.72498,88.0,0.0,4328.717772999999,4323.589844,4201.538574,4277.94873,4278.461426,450.0,4.0,91.0,,,,0.0,4.0,0.0,4.0,0.0,4.0,33.333332,,,,,,,,44.0,0.0,0.5683600000000001,-0.19873,0.647217,0.467529,0.917983,-0.386236,-0.07324299999999999,-0.036663999999999995,-0.034344,-0.031441000000000004,,,,,,,,,,,,,,,,,,,,,,,,,,,,,,,,,,,,,,,,,,,,,,,,,,,,,,,,,,,,,,,,,
23040,1645583646.693726,1645583646.732897,89.0,0.0,4317.94873,4365.128418,4197.94873,4278.974121,4268.205078,450.0,4.0,91.0,,,,0.0,4.0,0.0,4.0,0.0,4.0,33.333332,,,,,,,,,,,,,,,,,,,,,,,,,,,,,,,,,,,,,,,,,,,,,,,,,,,,,,,,,,,,,,,,,,,,,,,,,,,,,,,,,,,,
23041,1645583646.701541,1645583646.7407131,90.0,0.0,4293.846191,4369.743652,4191.794922,4280.0,4275.384765999999,450.0,4.0,91.0,,,,0.0,4.0,0.0,4.0,0.0,4.0,33.333332,,,,,,,,45.0,0.0,0.5683600000000001,-0.19873,0.647217,0.467529,0.9355610000000001,-0.3794,-0.087404,-0.036611000000000005,-0.034279000000000004,-0.026733999999999997,1.0,0.0,0.0,,,,,,,,,,,,,,,,,,,,,,,,,,,,,,,,0.0,0.0,1.0,0.0,512.0,1.0,2.3983849999999998,4.02951,4.087053,1.096233,1.6496060000000001,76.28936800000001,82.548264,55.793812,23.629421,23.393798999999998,1.4420549999999999,2.1047860000000003,1.032342,0.511423,0.685261,0.043042000000000004,0.112052,0.09161799999999999,0.041618,0.07577300000000001,1.63571,2.6112889999999997,1.7920770000000001,4.720397,1.946439
23042,1645583646.709357,1645583646.7485301,91.0,0.0,4272.820313,4387.179688,4195.897461,4279.487305,4294.358886999999,16186.0,4.0,91.0,,,,0.0,4.0,0.0,4.0,0.0,4.0,33.333332,,,,,,,,,,,,,,,,,,,,,,,,,,,,,,,,,,,,,,,,,,,,,,,,,,,,,,,,,,,,,,,,,,,,,,,,,,,,,,,,,,,,
23043,1645583646.717173,1645583646.756246,92.0,0.0,4292.820313,4452.820313,4198.461426,4279.487305,4296.410156,450.0,4.0,91.0,,,,0.0,4.0,0.0,4.0,0.0,4.0,33.333332,,,,,,,,46.0,0.0,0.5683600000000001,-0.19873,0.647217,0.467529,0.9404440000000001,-0.381353,-0.084962,-0.036661,-0.034318,-0.028944,,,,,,,,,,,,,,,,,,,,,,,,,,,,,,,,,,,,,,,,,,,,,,,,,,,,,,,,,,,,,,,,,
23044,1645583646.724988,1645583646.764062,93.0,0.0,4336.922852000001,4453.333496,4193.846191,4279.487305,4289.230957,450.0,4.0,91.0,,,,0.0,4.0,0.0,4.0,0.0,4.0,33.333332,,,,,,,,,,,,,,,,,,,,,,,,,,,,,,,,,,,,,,,,,,,,,,,,,,,,,,,,,,,,,,,,,,,,,,,,,,,,,,,,,,,,
23045,1645583646.7328038,1645583646.771878,94.0,0.0,4341.025879,4366.153809,4194.871582,4280.0,4291.282227000001,450.0,4.0,91.0,,,,0.0,4.0,0.0,4.0,0.0,4.0,33.333332,,,,,,,,47.0,0.0,0.568723,-0.198486,0.6469729999999999,0.467529,0.9267719999999999,-0.374517,-0.08203300000000001,-0.036608,-0.034352999999999995,-0.030981,,,,,,,,,,,,,,,,,,,,,,,,,,,,,,,,,,,0.0,0.0,1.0,0.0,512.0,1.0,,,,,,,,,,,,,,,,,,,,,,,,,
23046,1645583646.74062,1645583646.779594,95.0,0.0,4323.589844,4337.94873,4206.153809,4281.025879,4291.794922,16186.0,4.0,91.0,,,,0.0,4.0,0.0,4.0,0.0,4.0,33.333332,,,,,,,,,,,,,,,,,,,,,,,,,,,,,,,,,,,,,,,,,,,,,,,,,,,,,,,,,,,,,,,,,,,,,,,,,,,,,,,,,,,,
23047,1645583646.748435,1645583646.7873108,96.0,0.0,4328.205078,4348.717772999999,4210.769043,4280.512695,4302.563965,450.0,4.0,91.0,,,,0.0,4.0,0.0,4.0,0.0,4.0,33.333332,,,,,,,,48.0,0.0,0.568638,-0.19873,0.6469729999999999,0.467529,0.941421,-0.3794,-0.08203300000000001,-0.036561,-0.034287,-0.026369,,,,,,,,,,,,,,,,,,,,,,,,,,,,,,,,,,,,,,,,,,,,,,,,,,,,,,,,,,,,,,,,,
23048,1645583646.7562509,1645583646.795127,97.0,0.0,4333.846191,4310.256348,4210.769043,4280.512695,4312.820313,450.0,4.0,91.0,,,,0.0,4.0,0.0,4.0,0.0,4.0,33.333332,,,,,,,,,,,,,,,,,,,,,,,,,,,,,,,,,,,,,,,,,,,,,,,,,,,,,,,,,,,,,,,,,,,,,,,,,,,,,,,,,,,,
23049,1645583646.764067,1645583646.802944,98.0,0.0,4326.666504,4317.436035,4222.05127,4280.512695,4291.794922,450.0,4.0,91.0,,,,0.0,4.0,0.0,4.0,0.0,4.0,33.333332,,,,,,,,49.0,0.0,0.568638,-0.19873,0.6469729999999999,0.467529,0.9428850000000001,-0.382818,-0.080079,-0.036567,-0.034325,-0.022365,,,,,,,,,,,,,,,,,,,,,,,,,,,,,,,,,,,0.0,0.0,1.0,0.0,512.0,1.0,,,,,,,,,,,,,,,,,,,,,,,,,
23050,1645583646.771882,1645583646.81076,99.0,0.0,4329.743652,4387.179688,4228.717772999999,4280.512695,4270.769043,16186.0,4.0,91.0,,,,0.0,4.0,0.0,4.0,0.0,4.0,33.333332,,,,,,,,,,,,,,,,,,,,,,,,,,,,,,,,,,,,,,,,,,,,,,,,,,,,,,,,,,,,,,,,,,,,,,,,,,,,,,,,,,,,
23051,1645583646.7796981,1645583646.8185759,100.0,0.0,4333.333496,4412.307617,4219.487305,4281.025879,4289.743652,450.0,4.0,91.0,,,,0.0,4.0,0.0,4.0,0.0,4.0,33.333332,,,,,,,,50.0,0.0,0.568915,-0.19873,0.646729,0.467529,0.9277489999999999,-0.379889,-0.073732,-0.036524,-0.034408,-0.024816,,,,,,,,,,,,,,,,,,,,,,,,,,,,,,,,,,,,,,,,,,,,,,,,,,,,,,,,,,,,,,,,,
23052,1645583646.787514,1645583646.826392,101.0,0.0,4321.025879,4417.94873,4216.410156,4279.487305,4305.641113000001,450.0,4.0,91.0,,,,0.0,4.0,0.0,4.0,0.0,4.0,33.333332,,,,,,,,,,,,,,,,,,,,,,,,,,,,,,,,,,,,,,,,,,,,,,,,,,,,,,,,,,,,,,,,,,,,,,,,,,,,,,,,,,,,
23053,1645583646.7953289,1645583646.834209,102.0,0.0,4313.846191,4444.615234000001,4220.0,4277.94873,4294.358886999999,450.0,4.0,91.0,,,,0.0,4.0,0.0,4.0,0.0,4.0,33.333332,,,,,,,,51.0,0.0,0.568915,-0.19873,0.646729,0.467529,0.9355610000000001,-0.388678,-0.078614,-0.036532999999999996,-0.034336,-0.02087,,,,,,,,,,,,,,,,,,,,,,,,,,,,,,,,,,,0.0,0.0,1.0,0.0,512.0,1.0,,,,,,,,,,,,,,,,,,,,,,,,,
23054,1645583646.803145,1645583646.842125,103.0,0.0,4308.717772999999,4412.820313,4215.897461,4278.974121,4304.615234000001,16186.0,4.0,91.0,,,,0.0,4.0,0.0,4.0,0.0,4.0,33.333332,,,,,,,,,,,,,,,,,,,,,,,,,,,,,,,,,,,,,,,,,,,,,,,,,,,,,,,,,,,,,,,,,,,,,,,,,,,,,,,,,,,,
23055,1645583646.810961,1645583646.849941,104.0,0.0,4291.282227000001,4378.974121,4208.717772999999,4279.487305,4310.769043,450.0,4.0,91.0,,,,0.0,4.0,0.0,4.0,0.0,4.0,33.333332,,,,,,,,52.0,0.0,0.5688300000000001,-0.198975,0.646729,0.467529,0.922866,-0.370123,-0.070314,-0.036591000000000005,-0.034272000000000004,-0.023469999999999998,,,,,,,,,,,,,,,,,,,,,,,,,,,,,,,,,,,,,,,,,,,,,,,,,,,,,,,,,,,,,,,,,
23056,1645583646.818776,1645583646.857758,105.0,0.0,4273.846191,4483.589844,4199.487305,4280.0,4282.563965,450.0,4.0,91.0,,,,0.0,4.0,0.0,4.0,0.0,4.0,33.333332,,,,,,,,,,,,,,,,,,,,,,,,,,,,,,,,,,,,,,,,,,,,,,,,,,,,,,,,,,,,,,,,,,,,,,,,,,,,,,,,,,,,
23057,1645583646.826592,1645583646.865474,106.0,0.0,4280.512695,4598.461426,4192.307617,4280.512695,4282.05127,450.0,4.0,91.0,,,,0.0,4.0,0.0,4.0,0.0,4.0,33.333332,,,,,,,,53.0,0.0,0.5690310000000001,-0.198975,0.646729,0.46728500000000006,0.9331200000000001,-0.373053,-0.082521,-0.036643,-0.034214,-0.019658000000000002,1.0,0.0,0.0,,,,,,,,,,,,,,,,,,,,,,,,,,,,,,,,0.0,0.0,1.0,0.0,512.0,1.0,1.537015,3.710295,4.716012999999999,1.032366,1.8811639999999998,76.144478,73.652901,49.795456,21.772337,22.818457000000002,1.542615,2.103529,1.332719,0.494021,0.643505,0.038169,0.11553800000000002,0.087825,0.037957,0.061894000000000005,1.341426,2.4960560000000003,1.632187,3.972922,1.8278009999999998
23058,1645583646.834408,1645583646.87329,107.0,0.0,4328.205078,4491.282227000001,4202.05127,4280.512695,4321.025879,16186.0,4.0,91.0,,,,0.0,4.0,0.0,4.0,0.0,4.0,33.333332,,,,,,,,,,,,,,,,,,,,,,,,,,,,,,,,,,,,,,,,,,,,,,,,,,,,,,,,,,,,,,,,,,,,,,,,,,,,,,,,,,,,
23059,1645583646.8422241,1645583646.8811061,108.0,0.0,4362.05127,4316.410156,4213.333496,4280.512695,4325.641113000001,450.0,4.0,91.0,,,,0.0,4.0,0.0,4.0,0.0,4.0,33.333332,,,,,,,,54.0,0.0,0.5690310000000001,-0.198975,0.646729,0.46728500000000006,0.93019,-0.380865,-0.08984500000000001,-0.036641,-0.034211,-0.022575,,,,,,,,,,,,,,,,,,,,,,,,,,,,,,,,,,,,,,,,,,,,,,,,,,,,,,,,,,,,,,,,,
23060,1645583646.850039,1645583646.888922,109.0,0.0,4344.102539,4383.589844,4212.307617,4280.512695,4297.436035,450.0,4.0,91.0,,,,0.0,4.0,0.0,4.0,0.0,4.0,33.333332,,,,,,,,,,,,,,,,,,,,,,,,,,,,,,,,,,,,,,,,,,,,,,,,,,,,,,,,,,,,,,,,,,,,,,,,,,,,,,,,,,,,
23061,1645583646.857855,1645583646.896738,110.0,0.0,4335.384765999999,4462.05127,4214.871582,4280.0,4293.846191,450.0,4.0,91.0,,,,0.0,4.0,0.0,4.0,0.0,4.0,33.333332,,,,,,,,55.0,0.0,0.5686680000000001,-0.199219,0.6469729999999999,0.46728500000000006,0.932143,-0.37109899999999996,-0.06640700000000001,-0.036737,-0.03411,-0.025054,,,,,,,,,,,,,,,,,,,,,,,,,,,,,,,,,,,0.0,0.0,1.0,0.0,512.0,1.0,,,,,,,,,,,,,,,,,,,,,,,,,
23062,1645583646.86567,1645583646.904554,111.0,0.0,4356.410156,4338.461426,4231.794922,4279.487305,4295.897461,16186.0,4.0,91.0,,,,0.0,4.0,0.0,4.0,0.0,4.0,33.333332,,,,,,,,,,,,,,,,,,,,,,,,,,,,,,,,,,,,,,,,,,,,,,,,,,,,,,,,,,,,,,,,,,,,,,,,,,,,,,,,,,,,
23063,1645583646.873486,1645583646.912271,112.0,0.0,4349.230957,4282.05127,4244.102539,4279.487305,4294.871582,450.0,4.0,91.0,,,,0.0,4.0,0.0,4.0,0.0,4.0,33.333332,,,,,,,,56.0,0.0,0.5685520000000001,-0.198975,0.6469729999999999,0.467529,0.9331200000000001,-0.367681,-0.076173,-0.036774,-0.034068,-0.027333999999999997,,,,,,,,,,,,,,,,,,,,,,,,,,,,,,,,,,,,,,,,,,,,,,,,,,,,,,,,,,,,,,,,,
23064,1645583646.8813019,1645583646.9200869,113.0,0.0,4322.05127,4342.05127,4234.358886999999,4279.487305,4301.025879,450.0,4.0,91.0,,,,0.0,4.0,0.0,4.0,0.0,4.0,33.333332,,,,,,,,,,,,,,,,,,,,,,,,,,,,,,,,,,,,,,,,,,,,,,,,,,,,,,,,,,,,,,,,,,,,,,,,,,,,,,,,,,,,
23065,1645583646.889117,1645583646.927903,114.0,0.0,4323.077147999999,4325.128418,4222.05127,4279.487305,4284.102539,450.0,4.0,91.0,,,,0.0,4.0,0.0,4.0,0.0,4.0,33.333332,,,,,,,,57.0,0.0,0.5685520000000001,-0.198975,0.6469729999999999,0.467529,0.936049,-0.375494,-0.085451,-0.036759,-0.034128,-0.023282,,,,,,,,,,,,,,,,,,,,,,,,,,,,,,,,,,,0.0,0.0,1.0,0.0,512.0,1.0,,,,,,,,,,,,,,,,,,,,,,,,,
23066,1645583646.896933,1645583646.93572,115.0,0.0,4331.282227000001,4328.717772999999,4223.077147999999,4279.487305,4264.102539,16186.0,4.0,91.0,,,,0.0,4.0,0.0,4.0,0.0,4.0,33.333332,,,,,,,,,,,,,,,,,,,,,,,,,,,,,,,,,,,,,,,,,,,,,,,,,,,,,,,,,,,,,,,,,,,,,,,,,,,,,,,,,,,,
23067,1645583646.904749,1645583646.943536,116.0,0.0,4324.102539,4413.846191,4222.563965,4279.487305,4296.410156,450.0,4.0,91.0,,,,0.0,4.0,0.0,4.0,0.0,4.0,33.333332,,,,,,,,58.0,0.0,0.5685520000000001,-0.198975,0.6469729999999999,0.467529,0.9331200000000001,-0.380377,-0.083009,-0.036745,-0.034231,-0.025738999999999998,,,,,,,,,,,,,,,,,,,,,,,,,,,,,,,,,,,,,,,,,,,,,,,,,,,,,,,,,,,,,,,,,
23068,1645583646.912564,1645583646.951352,117.0,0.0,4312.307617,4416.410156,4205.128418,4279.487305,4325.128418,450.0,4.0,91.0,,,,0.0,4.0,0.0,4.0,0.0,4.0,33.333332,,,,,,,,,,,,,,,,,,,,,,,,,,,,,,,,,,,,,,,,,,,,,,,,,,,,,,,,,,,,,,,,,,,,,,,,,,,,,,,,,,,,
23069,1645583646.92038,1645583646.959168,118.0,0.0,4304.615234000001,4366.666504,4191.794922,4279.487305,4295.897461,450.0,4.0,91.0,,,,0.0,4.0,0.0,4.0,0.0,4.0,33.333332,,,,,,,,59.0,0.0,0.5685520000000001,-0.198975,0.6469729999999999,0.467529,0.933608,-0.38477100000000003,-0.090822,-0.036733,-0.034128,-0.028048000000000003,,,,,,,,,,,,,,,,,,,,,,,,,,,,,,,,,,,0.0,0.0,1.0,0.0,512.0,1.0,,,,,,,,,,,,,,,,,,,,,,,,,
23070,1645583646.9281962,1645583646.966985,119.0,0.0,4316.922852000001,4376.922852000001,4204.102539,4279.487305,4276.922852000001,16186.0,4.0,91.0,,,,0.0,4.0,0.0,4.0,0.0,4.0,33.333332,,,,,,,,,,,,,,,,,,,,,,,,,,,,,,,,,,,,,,,,,,,,,,,,,,,,,,,,,,,,,,,,,,,,,,,,,,,,,,,,,,,,
23071,1645583646.9360108,1645583646.974801,120.0,0.0,4341.538574,4381.025879,4217.94873,4279.487305,4295.897461,450.0,4.0,91.0,,,,0.0,4.0,0.0,4.0,0.0,4.0,33.333332,,,,,,,,60.0,0.0,0.568638,-0.19873,0.6469729999999999,0.467529,0.933608,-0.373541,-0.07715,-0.036722000000000005,-0.034085000000000004,-0.030224,,,,,,,,,,,,,,,,,,,,,,,,,,,,,,,,,,,,,,,,,,,,,,,,,,,,,,,,,,,,,,,,,
23072,1645583646.943827,1645583646.982717,121.0,0.0,4345.128418,4341.025879,4210.256348,4279.487305,4289.230957,450.0,4.0,91.0,,,,0.0,4.0,0.0,4.0,0.0,4.0,33.333332,,,,,,,,,,,,,,,,,,,,,,,,,,,,,,,,,,,,,,,,,,,,,,,,,,,,,,,,,,,,,,,,,,,,,,,,,,,,,,,,,,,,
23073,1645583646.951643,1645583646.990534,122.0,0.0,4312.820313,4316.922852000001,4201.025879,4279.487305,4253.846191,450.0,4.0,91.0,,,,0.0,4.0,0.0,4.0,0.0,4.0,33.333332,,,,,,,,61.0,0.0,0.568638,-0.19873,0.6469729999999999,0.467529,0.9282370000000001,-0.38233,-0.084962,-0.036712,-0.034045,-0.031987,1.0,0.0,0.0,,,,,,,,,,,,,,,,,,,,,,,,,,,,,,,,0.0,0.0,1.0,0.0,512.0,1.0,1.739154,3.3259019999999997,5.295058,0.990901,2.094233,84.32257800000001,70.567451,41.577831,19.102386,22.357876,1.7080549999999999,1.9824529999999998,1.72174,0.46531000000000006,0.603795,0.035822,0.110642,0.079341,0.033757,0.049891000000000005,1.615112,2.372686,1.623393,3.075516,1.734057
23074,1645583646.959458,1645583646.99835,123.0,0.0,4286.153809,4354.358886999999,4201.025879,4279.487305,4261.025879,16186.0,4.0,91.0,,,,0.0,4.0,0.0,4.0,0.0,4.0,33.333332,,,,,,,,,,,,,,,,,,,,,,,,,,,,,,,,,,,,,,,,,,,,,,,,,,,,,,,,,,,,,,,,,,,,,,,,,,,,,,,,,,,,
23075,1645583646.967274,1645583647.006166,124.0,0.0,4310.256348,4442.563965,4207.692383,4279.487305,4306.666504,450.0,4.0,91.0,,,,0.0,4.0,0.0,4.0,0.0,4.0,33.333332,,,,,,,,62.0,0.0,0.5685520000000001,-0.198975,0.6469729999999999,0.467529,0.933608,-0.38477100000000003,-0.090822,-0.036703,-0.033961,-0.033671,,,,,,,,,,,,,,,,,,,,,,,,,,,,,,,,,,,,,,,,,,,,,,,,,,,,,,,,,,,,,,,,,
23076,1645583646.97509,1645583647.013983,125.0,0.0,4330.769043,4443.589844,4210.769043,4279.487305,4314.871582,450.0,4.0,91.0,,,,0.0,4.0,0.0,4.0,0.0,4.0,33.333332,,,,,,,,,,,,,,,,,,,,,,,,,,,,,,,,,,,,,,,,,,,,,,,,,,,,,,,,,,,,,,,,,,,,,,,,,,,,,,,,,,,,
23077,1645583646.982906,1645583647.021799,126.0,0.0,4313.333496,4323.077147999999,4202.563965,4279.487305,4284.102539,450.0,4.0,91.0,,,,0.0,4.0,0.0,4.0,0.0,4.0,33.333332,,,,,,,,63.0,0.0,0.568638,-0.19873,0.6469729999999999,0.467529,0.9282370000000001,-0.38233,-0.084962,-0.036694,-0.033934,-0.035088999999999995,,,,,,,,,,,,,,,,,,,,,,,,,,,,,,,,,,,0.0,0.0,1.0,0.0,512.0,1.0,,,,,,,,,,,,,,,,,,,,,,,,,
23078,1645583646.990721,1645583647.029615,127.0,0.0,4305.128418,4246.666504,4193.333496,4279.487305,4269.230957,242.0,4.0,91.0,,,,0.0,4.0,0.0,4.0,0.0,4.0,33.333332,,,,,,,,,,,,,,,,,,,,,,,,,,,,,,,,,,,,,,,,,,,,,,,,,,,,,,,,,,,,,,,,,,,,,,,,,,,,,,,,,,,,
23079,1645583646.9985368,1645583647.037432,0.0,0.0,4309.743652,4270.769043,4200.0,4279.487305,4274.871582,450.0,4.0,91.0,,,,0.0,4.0,0.0,4.0,0.0,4.0,33.333332,,,,,,,,0.0,0.0,0.568638,-0.19873,0.6469729999999999,0.467529,0.9233540000000001,-0.392096,-0.078126,-0.036638,-0.03391,-0.036512,,,,,,,,,,,,,,,,,,,,,,,,,,,,,,,,,,,,,,,,,,,,,,,,,,,,,,,,,,,,,,,,,
23080,1645583647.006353,1645583647.045248,1.0,0.0,4308.205078,4301.025879,4205.128418,4279.487305,4279.487305,450.0,4.0,91.0,,,,0.0,4.0,0.0,4.0,0.0,4.0,33.333332,,,,,,,,,,,,,,,,,,,,,,,,,,,,,,,,,,,,,,,,,,,,,,,,,,,,,,,,,,,,,,,,,,,,,,,,,,,,,,,,,,,,
23081,1645583647.014168,1645583647.053164,2.0,0.0,4307.692383,4263.077147999999,4197.436035,4279.487305,4285.128418,16258.0,4.0,91.0,,,,0.0,4.0,4.0,4.0,0.0,4.0,66.666664,,,,,,,,1.0,0.0,0.568437,-0.19873,0.6469729999999999,0.46777299999999994,0.925307,-0.37598200000000004,-0.07470800000000001,-0.036588,-0.033937,-0.037646,,,,,,,,,,,,,,,,,,,,,,,,,,,,,,,,,,,0.0,0.0,1.0,0.0,512.0,1.0,,,,,,,,,,,,,,,,,,,,,,,,,
23082,1645583647.021984,1645583647.060981,3.0,0.0,4303.589844,4218.974121,4186.666504,4279.487305,4284.102539,450.0,4.0,91.0,,,,0.0,4.0,4.0,4.0,0.0,4.0,66.666664,,,,,,,,,,,,,,,,,,,,,,,,,,,,,,,,,,,,,,,,,,,,,,,,,,,,,,,,,,,,,,,,,,,,,,,,,,,,,,,,,,,,
23083,1645583647.0298,1645583647.068797,4.0,0.0,4305.128418,4246.153809,4188.205078,4279.487305,4283.077147999999,16095.0,4.0,91.0,,,,0.0,4.0,4.0,4.0,0.0,4.0,66.666664,,,,,,,,2.0,0.0,0.568437,-0.19873,0.6469729999999999,0.46777299999999994,0.9267719999999999,-0.378424,-0.07470800000000001,-0.036494,-0.033913,-0.032417,,,,,,,,,,,,,,,,,,,,,,,,,,,,,,,,,,,,,,,,,,,,,,,,,,,,,,,,,,,,,,,,,
23084,1645583647.037615,1645583647.0766141,5.0,0.0,4318.461426,4308.717772999999,4213.333496,4279.487305,4288.717772999999,450.0,4.0,91.0,,,,0.0,4.0,4.0,4.0,0.0,4.0,66.666664,,,,,,,,,,,,,,,,,,,,,,,,,,,,,,,,,,,,,,,,,,,,,,,,,,,,,,,,,,,,,,,,,,,,,,,,,,,,,,,,,,,,
23085,1645583647.0454311,1645583647.0844312,6.0,0.0,4310.256348,4362.05127,4231.794922,4279.487305,4285.128418,16189.0,4.0,91.0,,,,0.0,4.0,4.0,4.0,0.0,4.0,66.666664,,,,,,,,3.0,0.0,0.568437,-0.19873,0.6469729999999999,0.46777299999999994,0.940932,-0.374517,-0.083986,-0.036458,-0.033939,-0.034009,,,,,,,,,,,,,,,,,,,,,,,,,,,,,,,,,,,0.0,0.0,1.0,0.0,512.0,1.0,,,,,,,,,,,,,,,,,,,,,,,,,
23086,1645583647.053247,1645583647.092247,7.0,0.0,4292.820313,4408.717772999999,4214.871582,4279.487305,4270.256348,450.0,4.0,91.0,,,,0.0,4.0,4.0,4.0,0.0,4.0,66.666664,,,,,,,,,,,,,,,,,,,,,,,,,,,,,,,,,,,,,,,,,,,,,,,,,,,,,,,,,,,,,,,,,,,,,,,,,,,,,,,,,,,,
23087,1645583647.0610619,1645583647.100064,8.0,0.0,4297.436035,4398.461426,4193.846191,4279.487305,4263.589844,450.0,4.0,91.0,,,,0.0,4.0,4.0,4.0,0.0,4.0,66.666664,,,,,,,,4.0,0.0,0.568437,-0.19873,0.6469729999999999,0.46777299999999994,0.922377,-0.38721300000000003,-0.092775,-0.036376,-0.034012,-0.035442,,,,,,,,,,,,,,,,,,,,,,,,,,,,,,,,,,,,,,,,,,,,,,,,,,,,,,,,,,,,,,,,,
23088,1645583647.068878,1645583647.10788,9.0,0.0,4295.897461,4362.05127,4195.384765999999,4279.487305,4285.128418,0.0,4.0,91.0,,,,0.0,4.0,4.0,4.0,0.0,4.0,66.666664,,,,,,,,,,,,,,,,,,,,,,,,,,,,,,,,,,,,,,,,,,,,,,,,,,,,,,,,,,,,,,,,,,,,,,,,,,,,,,,,,,,,
23089,1645583647.076694,1645583647.1156971,10.0,0.0,4288.205078,4373.846191,4195.384765999999,4279.487305,4298.461426,450.0,4.0,91.0,,,,0.0,4.0,4.0,4.0,0.0,4.0,66.666664,1.0,33.333332,4.0,0.0,4.0,0.0,4.0,5.0,0.0,0.568437,-0.19873,0.6469729999999999,0.46777299999999994,0.9233540000000001,-0.373541,-0.089357,-0.036351999999999995,-0.03398,-0.036683,1.0,0.0,0.0,,,,,,,,,,,,,,,,,,,,,,,,,,,,,,,,0.0,0.0,1.0,0.0,512.0,1.0,2.027367,2.933843,5.760733999999999,1.026677,2.230311,97.673286,74.165207,32.819927,16.602255,22.132786,1.980666,1.7873459999999999,2.101526,0.43511099999999997,0.573608,0.034585000000000005,0.096553,0.066539,0.029789999999999997,0.040442,1.9853939999999999,2.191679,1.7142689999999998,2.256824,1.649723
23090,1645583647.084509,1645583647.123513,11.0,0.0,4305.128418,4340.512695,4184.615234000001,4279.487305,4282.563965,16290.0,4.0,91.0,,,,0.0,4.0,4.0,4.0,0.0,4.0,66.666664,,,,,,,,,,,,,,,,,,,,,,,,,,,,,,,,,,,,,,,,,,,,,,,,,,,,,,,,,,,,,,,,,,,,,,,,,,,,,,,,,,,,
23091,1645583647.092325,1645583647.131429,12.0,0.0,4311.794922,4290.256348,4197.436035,4279.487305,4274.358886999999,450.0,4.0,91.0,,,,0.0,4.0,4.0,4.0,0.0,4.0,66.666664,,,,,,,,6.0,0.0,0.568437,-0.19873,0.6469729999999999,0.46777299999999994,0.937026,-0.387701,-0.07715,-0.036427999999999995,-0.033902999999999996,-0.037947,,,,,,,,,,,,,,,,,,,,,,,,,,,,,,,,,,,,,,,,,,,,,,,,,,,,,,,,,,,,,,,,,
23092,1645583647.100141,1645583647.139246,13.0,0.0,4307.179688,4337.436035,4223.589844,4279.487305,4291.282227000001,450.0,4.0,91.0,,,,0.0,4.0,4.0,4.0,0.0,4.0,66.666664,,,,,,,,,,,,,,,,,,,,,,,,,,,,,,,,,,,,,,,,,,,,,,,,,,,,,,,,,,,,,,,,,,,,,,,,,,,,,,,,,,,,
23093,1645583647.1079562,1645583647.1470618,14.0,0.0,4310.256348,4363.589844,4221.025879,4279.487305,4303.589844,450.0,4.0,91.0,,,,0.0,4.0,4.0,4.0,0.0,4.0,66.666664,,,,,,,,7.0,0.0,0.568437,-0.19873,0.6469729999999999,0.46777299999999994,0.937026,-0.380377,-0.06836,-0.036496,-0.03393,-0.038937,,,,,,,,,,,,,,,,,,,,,,,,,,,,,,,,,,,0.0,0.0,1.0,0.0,512.0,1.0,,,,,,,,,,,,,,,,,,,,,,,,,
23094,1645583647.115772,1645583647.154878,15.0,0.0,4304.615234000001,4325.641113000001,4205.641113000001,4279.487305,4286.153809,16290.0,4.0,91.0,,,,0.0,4.0,4.0,4.0,0.0,4.0,66.666664,,,,,,,,,,,,,,,,,,,,,,,,,,,,,,,,,,,,,,,,,,,,,,,,,,,,,,,,,,,,,,,,,,,,,,,,,,,,,,,,,,,,
23095,1645583647.123587,1645583647.162695,16.0,0.0,4308.717772999999,4331.794922,4213.333496,4279.487305,4267.179688,0.0,4.0,91.0,,,,0.0,4.0,4.0,4.0,0.0,4.0,66.666664,,,,,,,,8.0,0.0,0.568638,-0.19873,0.6469729999999999,0.467529,0.932631,-0.376959,-0.070314,-0.036606,-0.033955,-0.033579000000000005,,,,,,,,,,,,,,,,,,,,,,,,,,,,,,,,,,,,,,,,,,,,,,,,,,,,,,,,,,,,,,,,,
23096,1645583647.131403,1645583647.170511,17.0,0.0,4318.974121,4364.102539,4223.077147999999,4279.487305,4273.846191,0.0,4.0,91.0,,,,0.0,4.0,4.0,4.0,0.0,4.0,66.666664,,,,,,,,,,,,,,,,,,,,,,,,,,,,,,,,,,,,,,,,,,,,,,,,,,,,,,,,,,,,,,,,,,,,,,,,,,,,,,,,,,,,
23097,1645583647.139219,1645583647.1783268,18.0,0.0,4298.974121,4349.743652,4216.922852000001,4279.487305,4288.717772999999,0.0,4.0,91.0,,,,0.0,4.0,4.0,4.0,0.0,4.0,66.666664,,,,,,,,9.0,0.0,0.568638,-0.19873,0.6469729999999999,0.467529,0.937026,-0.383795,-0.081544,-0.036657,-0.033831,-0.034908,,,,,,,,,,,,,,,,,,,,,,,,,,,,,,,,,,,0.0,0.0,1.0,0.0,512.0,1.0,,,,,,,,,,,,,,,,,,,,,,,,,
23098,1645583647.147035,1645583647.1861439,19.0,0.0,4273.846191,4293.333496,4212.307617,4279.487305,4297.436035,0.0,4.0,91.0,,,,0.0,4.0,4.0,4.0,0.0,4.0,66.666664,,,,,,,,,,,,,,,,,,,,,,,,,,,,,,,,,,,,,,,,,,,,,,,,,,,,,,,,,,,,,,,,,,,,,,,,,,,,,,,,,,,,
23099,1645583647.15485,1645583647.19396,20.0,0.0,4280.512695,4288.717772999999,4209.743652,4279.487305,4304.615234000001,0.0,4.0,91.0,,,,0.0,4.0,4.0,4.0,0.0,4.0,66.666664,,,,,,,,10.0,0.0,0.568638,-0.19873,0.6469729999999999,0.467529,0.934585,-0.38233,-0.079591,-0.036653,-0.033817,-0.030001,,,,,,,,,,,,,,,,,,,,,,,,,,,,,,,,,,,,,,,,,,,,,,,,,,,,,,,,,,,,,,,,,
23100,1645583647.162666,1645583647.201876,21.0,0.0,4302.05127,4355.384765999999,4209.743652,4279.487305,4295.384765999999,0.0,4.0,91.0,,,,0.0,4.0,4.0,4.0,0.0,4.0,66.666664,,,,,,,,,,,,,,,,,,,,,,,,,,,,,,,,,,,,,,,,,,,,,,,,,,,,,,,,,,,,,,,,,,,,,,,,,,,,,,,,,,,,
23101,1645583647.170482,1645583647.209693,22.0,0.0,4308.205078,4315.897461,4218.974121,4279.487305,4283.077147999999,0.0,4.0,91.0,,,,0.0,4.0,4.0,4.0,0.0,4.0,66.666664,,,,,,,,11.0,0.0,0.568638,-0.19873,0.6469729999999999,0.467529,0.926284,-0.374029,-0.084962,-0.036601,-0.033902,-0.025488,,,,,,,,,,,,,,,,,,,,,,,,,,,,,,,,,,,0.0,0.0,1.0,0.0,512.0,1.0,,,,,,,,,,,,,,,,,,,,,,,,,
23102,1645583647.178297,1645583647.217609,23.0,0.0,4306.153809,4208.205078,4223.589844,4279.487305,4298.974121,0.0,4.0,91.0,,,,0.0,4.0,4.0,4.0,0.0,4.0,66.666664,,,,,,,,,,,,,,,,,,,,,,,,,,,,,,,,,,,,,,,,,,,,,,,,,,,,,,,,,,,,,,,,,,,,,,,,,,,,,,,,,,,,
23103,1645583647.186113,1645583647.225426,24.0,0.0,4322.563965,4255.897461,4222.05127,4279.487305,4302.05127,0.0,4.0,91.0,,,,0.0,4.0,4.0,4.0,0.0,4.0,66.666664,,,,,,,,12.0,0.0,0.5688380000000001,-0.19873,0.6469729999999999,0.46728500000000006,0.93019,-0.357427,-0.069825,-0.036506,-0.033783999999999995,-0.027822000000000003,,,,,,,,,,,,,,,,,,,,,,,,,,,,,,,,,,,,,,,,,,,,,,,,,,,,,,,,,,,,,,,,,
23104,1645583647.193929,1645583647.233243,25.0,0.0,4346.153809,4339.487305,4228.205078,4279.487305,4281.025879,0.0,4.0,91.0,,,,0.0,4.0,4.0,4.0,0.0,4.0,66.666664,,,,,,,,,,,,,,,,,,,,,,,,,,,,,,,,,,,,,,,,,,,,,,,,,,,,,,,,,,,,,,,,,,,,,,,,,,,,,,,,,,,,
23105,1645583647.2017438,1645583647.241059,26.0,0.0,4340.0,4258.974121,4235.897461,4279.487305,4289.230957,0.0,4.0,91.0,,,,0.0,4.0,4.0,4.0,0.0,4.0,66.666664,,,,,,,,13.0,0.0,0.568638,-0.19873,0.6469729999999999,0.467529,0.9209129999999999,-0.383307,-0.090822,-0.036468,-0.033775,-0.029825,1.0,0.0,0.0,,,,,,,,,,,,,,,,,,,,,,,,,,,,,,,,0.0,0.0,1.0,0.0,512.0,1.0,2.393294,2.7968669999999998,5.999797,1.1975209999999998,2.255127,110.48910500000001,82.802162,25.490036,15.174883,22.118019,2.3793740000000003,1.620442,2.376887,0.412275,0.556248,0.033121,0.075735,0.051418,0.026076,0.033058,2.487445,1.9494650000000002,1.837257,1.721898,1.579683
23106,1645583647.20956,1645583647.248876,27.0,0.0,4317.436035,4194.358886999999,4235.384765999999,4279.487305,4309.743652,0.0,4.0,91.0,,,,0.0,4.0,4.0,4.0,0.0,4.0,66.666664,,,,,,,,,,,,,,,,,,,,,,,,,,,,,,,,,,,,,,,,,,,,,,,,,,,,,,,,,,,,,,,,,,,,,,,,,,,,,,,,,,,,
23107,1645583647.217376,1645583647.256692,28.0,0.0,4330.769043,4249.743652,4243.077147999999,4279.487305,4301.538574,0.0,4.0,91.0,,,,0.0,4.0,4.0,4.0,0.0,4.0,66.666664,,,,,,,,14.0,0.0,0.568638,-0.19873,0.6469729999999999,0.467529,0.921401,-0.376471,-0.083497,-0.036483999999999996,-0.033815,-0.025329,,,,,,,,,,,,,,,,,,,,,,,,,,,,,,,,,,,,,,,,,,,,,,,,,,,,,,,,,,,,,,,,,
23108,1645583647.225191,1645583647.264509,29.0,0.0,4346.666504,4311.282227000001,4249.743652,4281.025879,4297.94873,0.0,4.0,91.0,,,,0.0,4.0,4.0,4.0,0.0,4.0,66.666664,,,,,,,,,,,,,,,,,,,,,,,,,,,,,,,,,,,,,,,,,,,,,,,,,,,,,,,,,,,,,,,,,,,,,,,,,,,,,,,,,,,,
23109,1645583647.233007,1645583647.272325,30.0,0.0,4320.0,4403.589844,4229.743652,4282.05127,4310.256348,0.0,4.0,91.0,,,,0.0,4.0,4.0,4.0,0.0,4.0,66.666664,,,,,,,,15.0,0.0,0.568638,-0.19873,0.6469729999999999,0.467529,0.932143,-0.392096,-0.083497,-0.036545999999999995,-0.033754,-0.027581,,,,,,,,,,,,,,,,,,,,,,,,,,,,,,,,,,,0.0,0.0,1.0,0.0,512.0,1.0,,,,,,,,,,,,,,,,,,,,,,,,,
23110,1645583647.240823,1645583647.280142,31.0,0.0,4296.410156,4477.94873,4208.205078,4281.025879,4290.256348,0.0,4.0,91.0,,,,0.0,4.0,4.0,4.0,0.0,4.0,66.666664,,,,,,,,,,,,,,,,,,,,,,,,,,,,,,,,,,,,,,,,,,,,,,,,,,,,,,,,,,,,,,,,,,,,,,,,,,,,,,,,,,,,
23111,1645583647.2486382,1645583647.287958,32.0,0.0,4310.769043,4442.05127,4208.205078,4280.512695,4269.743652,0.0,4.0,91.0,,,,0.0,4.0,4.0,4.0,0.0,4.0,66.666664,,,,,,,,16.0,0.0,0.568638,-0.19873,0.6469729999999999,0.467529,0.9272600000000001,-0.3794,-0.086427,-0.036603,-0.033797,-0.029608,,,,,,,,,,,,,,,,,,,,,,,,,,,,,,,,,,,,,,,,,,,,,,,,,,,,,,,,,,,,,,,,,
23112,1645583647.256454,1645583647.295875,33.0,0.0,4317.436035,4396.410156,4205.641113000001,4278.974121,4295.897461,0.0,4.0,91.0,,,,0.0,4.0,4.0,4.0,0.0,4.0,66.666664,,,,,,,,,,,,,,,,,,,,,,,,,,,,,,,,,,,,,,,,,,,,,,,,,,,,,,,,,,,,,,,,,,,,,,,,,,,,,,,,,,,,
23113,1645583647.2642698,1645583647.303691,34.0,0.0,4295.897461,4394.871582,4205.641113000001,4276.410156,4313.333496,0.0,4.0,91.0,,,,0.0,4.0,4.0,4.0,0.0,4.0,66.666664,,,,,,,,17.0,0.0,0.568638,-0.19873,0.6469729999999999,0.467529,0.9282370000000001,-0.387701,-0.084962,-0.036653,-0.033933,-0.031335,,,,,,,,,,,,,,,,,,,,,,,,,,,,,,,,,,,0.0,0.0,1.0,0.0,512.0,1.0,,,,,,,,,,,,,,,,,,,,,,,,,
23114,1645583647.272085,1645583647.311507,35.0,0.0,4295.897461,4386.153809,4224.102539,4276.922852000001,4289.743652,0.0,4.0,91.0,,,,0.0,4.0,4.0,4.0,0.0,4.0,66.666664,,,,,,,,,,,,,,,,,,,,,,,,,,,,,,,,,,,,,,,,,,,,,,,,,,,,,,,,,,,,,,,,,,,,,,,,,,,,,,,,,,,,
23115,1645583647.279901,1645583647.319324,36.0,0.0,4313.846191,4318.461426,4233.846191,4280.0,4283.077147999999,0.0,4.0,91.0,,,,0.0,4.0,4.0,4.0,0.0,4.0,66.666664,,,,,,,,18.0,0.0,0.568638,-0.19873,0.6469729999999999,0.467529,0.931167,-0.383795,-0.07324299999999999,-0.036601,-0.033908999999999995,-0.033035,,,,,,,,,,,,,,,,,,,,,,,,,,,,,,,,,,,,,,,,,,,,,,,,,,,,,,,,,,,,,,,,,
23116,1645583647.287717,1645583647.32714,37.0,0.0,4322.05127,4231.282227000001,4233.846191,4280.0,4290.256348,0.0,4.0,91.0,,,,0.0,4.0,4.0,4.0,0.0,4.0,66.666664,,,,,,,,,,,,,,,,,,,,,,,,,,,,,,,,,,,,,,,,,,,,,,,,,,,,,,,,,,,,,,,,,,,,,,,,,,,,,,,,,,,,
23117,1645583647.295532,1645583647.3349562,38.0,0.0,4337.436035,4238.974121,4241.025879,4278.461426,4273.333496,0.0,4.0,91.0,,,,0.0,4.0,4.0,4.0,0.0,4.0,66.666664,,,,,,,,19.0,0.0,0.568915,-0.19873,0.646729,0.467529,0.9272600000000001,-0.38819000000000004,-0.087892,-0.036506,-0.033985,-0.028169,,,,,,,,,,,,,,,,,,,,,,,,,,,,,,,,,,,0.0,0.0,1.0,0.0,512.0,1.0,,,,,,,,,,,,,,,,,,,,,,,,,
23118,1645583647.303348,1645583647.342773,39.0,0.0,4328.717772999999,4367.692383,4232.820313,4278.974121,4269.743652,0.0,4.0,91.0,,,,0.0,4.0,4.0,4.0,0.0,4.0,66.666664,,,,,,,,,,,,,,,,,,,,,,,,,,,,,,,,,,,,,,,,,,,,,,,,,,,,,,,,,,,,,,,,,,,,,,,,,,,,,,,,,,,,
23119,1645583647.3111641,1645583647.350589,40.0,0.0,4289.743652,4418.461426,4215.897461,4278.974121,4289.743652,0.0,4.0,91.0,,,,0.0,4.0,4.0,4.0,0.0,4.0,66.666664,,,,,,,,20.0,0.0,0.568915,-0.19873,0.646729,0.467529,0.934585,-0.37598200000000004,-0.079591,-0.036614999999999995,-0.033955,-0.030186,,,,,,,,,,,,,,,,,,,,,,,,,,,,,,,,,,,,,,,,,,,,,,,,,,,,,,,,,,,,,,,,,
23120,1645583647.318979,1645583647.358405,41.0,0.0,4305.641113000001,4369.743652,4223.589844,4278.974121,4307.179688,0.0,4.0,91.0,,,,0.0,4.0,4.0,4.0,0.0,4.0,66.666664,,,,,,,,,,,,,,,,,,,,,,,,,,,,,,,,,,,,,,,,,,,,,,,,,,,,,,,,,,,,,,,,,,,,,,,,,,,,,,,,,,,,
23121,1645583647.3267949,1645583647.366322,42.0,0.0,4340.0,4412.307617,4233.846191,4278.974121,4321.025879,0.0,4.0,91.0,,,,0.0,4.0,4.0,4.0,0.0,4.0,66.666664,,,,,,,,21.0,0.0,0.5688380000000001,-0.19873,0.6469729999999999,0.46728500000000006,0.941421,-0.38721300000000003,-0.081544,-0.036469,-0.03388,-0.025605000000000003,1.0,0.0,0.0,,,,,,,,,,,,,,,,,,,,,,,,,,,,,,,,0.0,0.0,1.0,0.0,512.0,1.0,2.72762,3.107632,5.915789,1.5091,2.171551,116.594894,92.921837,20.591368,15.021822,22.150260999999997,2.8168919999999997,1.5779459999999998,2.4890779999999997,0.406928,0.5524359999999999,0.030601,0.053189,0.036925,0.022241,0.027029,2.861094,1.6925759999999999,1.9580799999999998,1.5349270000000002,1.540729
23122,1645583647.334611,1645583647.374138,43.0,0.0,4307.179688,4454.871582,4224.615234000001,4278.974121,4314.871582,0.0,4.0,91.0,,,,0.0,4.0,4.0,4.0,0.0,4.0,66.666664,,,,,,,,,,,,,,,,,,,,,,,,,,,,,,,,,,,,,,,,,,,,,,,,,,,,,,,,,,,,,,,,,,,,,,,,,,,,,,,,,,,,
23123,1645583647.342426,1645583647.3819551,44.0,0.0,4298.974121,4392.307617,4222.05127,4278.974121,4291.282227000001,0.0,4.0,91.0,,,,0.0,4.0,4.0,4.0,0.0,4.0,66.666664,,,,,,,,22.0,0.0,0.5688380000000001,-0.19873,0.6469729999999999,0.46728500000000006,0.9277489999999999,-0.382818,-0.088869,-0.036436,-0.033812,-0.02783,,,,,,,,,,,,,,,,,,,,,,,,,,,,,,,,,,,,,,,,,,,,,,,,,,,,,,,,,,,,,,,,,
23124,1645583647.350242,1645583647.389771,45.0,0.0,4346.153809,4379.487305,4236.922852000001,4278.974121,4302.563965,0.0,4.0,91.0,,,,0.0,4.0,4.0,4.0,0.0,4.0,66.666664,,,,,,,,,,,,,,,,,,,,,,,,,,,,,,,,,,,,,,,,,,,,,,,,,,,,,,,,,,,,,,,,,,,,,,,,,,,,,,,,,,,,
23125,1645583647.358058,1645583647.397588,46.0,0.0,4338.461426,4458.974121,4248.205078,4278.974121,4329.230957,0.0,4.0,91.0,,,,0.0,4.0,4.0,4.0,0.0,4.0,66.666664,,,,,,,,23.0,0.0,0.5690390000000001,-0.19873,0.6469729999999999,0.467041,0.918959,-0.370123,-0.085939,-0.036503,-0.033849000000000004,-0.023533000000000002,,,,,,,,,,,,,,,,,,,,,,,,,,,,,,,,,,,0.0,0.0,1.0,0.0,512.0,1.0,,,,,,,,,,,,,,,,,,,,,,,,,
23126,1645583647.365873,1645583647.4054039,47.0,0.0,4301.538574,4463.589844,4245.641113000001,4278.974121,4312.307617,0.0,4.0,91.0,,,,0.0,4.0,4.0,4.0,0.0,4.0,66.666664,,,,,,,,,,,,,,,,,,,,,,,,,,,,,,,,,,,,,,,,,,,,,,,,,,,,,,,,,,,,,,,,,,,,,,,,,,,,,,,,,,,,
23127,1645583647.3736892,1645583647.4132211,48.0,0.0,4292.307617,4402.563965,4230.256348,4278.974121,4280.0,0.0,4.0,91.0,,,,0.0,4.0,4.0,4.0,0.0,4.0,66.666664,,,,,,,,24.0,0.0,0.5690390000000001,-0.19873,0.6469729999999999,0.467041,0.913588,-0.36817,-0.077638,-0.036613,-0.033833999999999996,-0.019666,,,,,,,,,,,,,,,,,,,,,,,,,,,,,,,,,,,,,,,,,,,,,,,,,,,,,,,,,,,,,,,,,
23128,1645583647.381505,1645583647.421037,49.0,0.0,4292.820313,4431.794922,4222.05127,4277.436035,4287.179688,0.0,4.0,91.0,,,,0.0,4.0,4.0,4.0,0.0,4.0,66.666664,,,,,,,,,,,,,,,,,,,,,,,,,,,,,,,,,,,,,,,,,,,,,,,,,,,,,,,,,,,,,,,,,,,,,,,,,,,,,,,,,,,,
23129,1645583647.38932,1645583647.428854,50.0,0.0,4310.256348,4482.563965,4228.205078,4277.436035,4304.615234000001,0.0,4.0,91.0,,,,0.0,4.0,4.0,4.0,0.0,4.0,66.666664,,,,,,,,25.0,0.0,0.5688380000000001,-0.19873,0.6469729999999999,0.46728500000000006,0.921889,-0.37109899999999996,-0.079591,-0.036565,-0.033770999999999995,-0.022534000000000002,,,,,,,,,,,,,,,,,,,,,,,,,,,,,,,,,,,0.0,0.0,1.0,0.0,512.0,1.0,,,,,,,,,,,,,,,,,,,,,,,,,
23130,1645583647.397136,1645583647.436671,51.0,0.0,4314.871582,4438.974121,4223.589844,4278.974121,4295.897461,0.0,4.0,91.0,,,,0.0,4.0,4.0,4.0,0.0,4.0,66.666664,,,,,,,,,,,,,,,,,,,,,,,,,,,,,,,,,,,,,,,,,,,,,,,,,,,,,,,,,,,,,,,,,,,,,,,,,,,,,,,,,,,,
23131,1645583647.404952,1645583647.444587,52.0,0.0,4289.743652,4353.333496,4208.205078,4280.0,4276.410156,0.0,4.0,91.0,,,,0.0,4.0,4.0,4.0,0.0,4.0,66.666664,,,,,,,,26.0,0.0,0.5690390000000001,-0.19873,0.6469729999999999,0.467041,0.918959,-0.370123,-0.085939,-0.036668,-0.03386,-0.018913,,,,,,,,,,,,,,,,,,,,,,,,,,,,,,,,,,,,,,,,,,,,,,,,,,,,,,,,,,,,,,,,,
23132,1645583647.412768,1645583647.4524028,53.0,0.0,4286.666504,4313.846191,4211.794922,4280.0,4264.615234000001,0.0,4.0,91.0,,,,0.0,4.0,4.0,4.0,0.0,4.0,66.666664,,,,,,,,,,,,,,,,,,,,,,,,,,,,,,,,,,,,,,,,,,,,,,,,,,,,,,,,,,,,,,,,,,,,,,,,,,,,,,,,,,,,
23133,1645583647.420583,1645583647.460219,54.0,0.0,4300.0,4347.179688,4225.128418,4277.94873,4289.230957,0.0,4.0,91.0,,,,0.0,4.0,4.0,4.0,0.0,4.0,66.666664,,,,,,,,27.0,0.0,0.5688380000000001,-0.19873,0.6469729999999999,0.46728500000000006,0.921889,-0.37109899999999996,-0.079591,-0.036614999999999995,-0.033795,-0.021856,,,,,,,,,,,,,,,,,,,,,,,,,,,,,,,,,,,0.0,0.0,1.0,0.0,512.0,1.0,,,,,,,,,,,,,,,,,,,,,,,,,
23134,1645583647.428399,1645583647.468036,55.0,0.0,4295.897461,4421.538574,4219.487305,4275.897461,4316.410156,0.0,4.0,91.0,,,,0.0,4.0,4.0,4.0,0.0,4.0,66.666664,,,,,,,,,,,,,,,,,,,,,,,,,,,,,,,,,,,,,,,,,,,,,,,,,,,,,,,,,,,,,,,,,,,,,,,,,,,,,,,,,,,,
23135,1645583647.436215,1645583647.475852,56.0,0.0,4302.05127,4460.0,4215.897461,4279.487305,4295.384765999999,0.0,4.0,91.0,,,,0.0,4.0,4.0,4.0,0.0,4.0,66.666664,,,,,,,,28.0,0.0,0.569116,-0.19873,0.646729,0.46728500000000006,0.9316549999999999,-0.361822,-0.078126,-0.036566,-0.033783999999999995,-0.024456,,,,,,,,,,,,,,,,,,,,,,,,,,,,,,,,,,,,,,,,,,,,,,,,,,,,,,,,,,,,,,,,,
23136,1645583647.44403,1645583647.4836679,57.0,0.0,4318.461426,4447.179688,4226.153809,4281.538574,4280.512695,0.0,4.0,91.0,,,,0.0,4.0,4.0,4.0,0.0,4.0,66.666664,,,,,,,,,,,,,,,,,,,,,,,,,,,,,,,,,,,,,,,,,,,,,,,,,,,,,,,,,,,,,,,,,,,,,,,,,,,,,,,,,,,,
23137,1645583647.4518461,1645583647.4914849,58.0,0.0,4313.333496,4502.563965,4221.025879,4278.974121,4293.846191,0.0,4.0,91.0,,,,0.0,4.0,4.0,4.0,0.0,4.0,66.666664,,,,,,,,29.0,0.0,0.569116,-0.19873,0.646729,0.46728500000000006,0.929213,-0.37158800000000003,-0.08838,-0.03667,-0.033775,-0.020496,1.0,0.0,0.0,,,,,,,,,,,,,,,,,,,,,,,,,,,,,,,,0.0,0.0,1.0,0.0,512.0,1.0,2.946782,3.893237,5.487625,1.8989310000000001,2.017782,114.525764,99.86763,18.233459,15.658467000000002,22.061611,3.1710689999999997,1.713343,2.446989,0.43028900000000003,0.559858,0.027175,0.034242,0.025333,0.018042,0.021709,2.958405,1.4643329999999999,2.0385240000000002,1.621161,1.5519290000000001
23138,1645583647.459662,1645583647.499301,59.0,0.0,4291.794922,4601.538574,4205.128418,4279.487305,4284.615234000001,0.0,4.0,91.0,,,,0.0,4.0,4.0,4.0,0.0,4.0,66.666664,,,,,,,,,,,,,,,,,,,,,,,,,,,,,,,,,,,,,,,,,,,,,,,,,,,,,,,,,,,,,,,,,,,,,,,,,,,,,,,,,,,,
23139,1645583647.4674768,1645583647.507017,60.0,0.0,4276.410156,4552.820313,4201.025879,4280.512695,4275.384765999999,0.0,4.0,91.0,,,,0.0,4.0,4.0,4.0,0.0,4.0,66.666664,,,,,,,,30.0,0.0,0.569116,-0.19873,0.646729,0.46728500000000006,0.932143,-0.376959,-0.077638,-0.036567,-0.033864,-0.023281,,,,,,,,,,,,,,,,,,,,,,,,,,,,,,,,,,,,,,,,,,,,,,,,,,,,,,,,,,,,,,,,,
23140,1645583647.475293,1645583647.514833,61.0,0.0,4298.461426,4412.307617,4207.179688,4277.94873,4295.897461,0.0,4.0,91.0,,,,0.0,4.0,4.0,4.0,0.0,4.0,66.666664,,,,,,,,,,,,,,,,,,,,,,,,,,,,,,,,,,,,,,,,,,,,,,,,,,,,,,,,,,,,,,,,,,,,,,,,,,,,,,,,,,,,
23141,1645583647.483108,1645583647.522649,62.0,0.0,4334.871582,4386.153809,4216.922852000001,4277.94873,4299.487305,0.0,4.0,91.0,,,,0.0,4.0,4.0,4.0,0.0,4.0,66.666664,,,,,,,,31.0,0.0,0.569001,-0.198486,0.646729,0.467529,0.922866,-0.38526,-0.080568,-0.036524,-0.033993999999999996,-0.019438999999999998,,,,,,,,,,,,,,,,,,,,,,,,,,,,,,,,,,,0.0,0.0,1.0,0.0,512.0,1.0,,,,,,,,,,,,,,,,,,,,,,,,,
23142,1645583647.4909241,1645583647.5304651,63.0,0.0,4328.717772999999,4458.461426,4226.666504,4280.512695,4288.717772999999,0.0,4.0,91.0,,,,0.0,4.0,4.0,4.0,0.0,4.0,66.666664,,,,,,,,,,,,,,,,,,,,,,,,,,,,,,,,,,,,,,,,,,,,,,,,,,,,,,,,,,,,,,,,,,,,,,,,,,,,,,,,,,,,
23143,1645583647.49874,1645583647.538281,64.0,0.0,4305.641113000001,4486.666504,4227.692383,4280.0,4289.743652,450.0,4.0,91.0,,,,0.0,4.0,4.0,4.0,0.0,4.0,66.666664,,,,,,,,32.0,0.0,0.569086,-0.198242,0.646729,0.467529,0.926284,-0.367681,-0.070802,-0.036581999999999996,-0.034012,-0.022328999999999998,,,,,,,,,,,,,,,,,,,,,,,,,,,,,,,,,,,,,,,,,,,,,,,,,,,,,,,,,,,,,,,,,
23144,1645583647.506555,1645583647.546098,65.0,0.0,4305.641113000001,4468.205078,4213.846191,4278.974121,4301.538574,450.0,4.0,91.0,,,,0.0,4.0,4.0,4.0,0.0,4.0,66.666664,,,,,,,,,,,,,,,,,,,,,,,,,,,,,,,,,,,,,,,,,,,,,,,,,,,,,,,,,,,,,,,,,,,,,,,,,,,,,,,,,,,,
23145,1645583647.5143712,1645583647.553914,66.0,0.0,4323.589844,4470.769043,4197.94873,4280.0,4307.179688,16189.0,4.0,91.0,,,,0.0,4.0,4.0,4.0,0.0,4.0,66.666664,,,,,,,,33.0,0.0,0.569086,-0.198242,0.646729,0.467529,0.921889,-0.39014299999999996,-0.077638,-0.036489,-0.034127,-0.024881,,,,,,,,,,,,,,,,,,,,,,,,,,,,,,,,,,,0.0,0.0,1.0,0.0,512.0,1.0,,,,,,,,,,,,,,,,,,,,,,,,,
23146,1645583647.522187,1645583647.5617301,67.0,0.0,4336.410156,4511.282227000001,4196.922852000001,4279.487305,4284.102539,450.0,4.0,91.0,,,,0.0,4.0,4.0,4.0,0.0,4.0,66.666664,,,,,,,,,,,,,,,,,,,,,,,,,,,,,,,,,,,,,,,,,,,,,,,,,,,,,,,,,,,,,,,,,,,,,,,,,,,,,,,,,,,,
23147,1645583647.5300019,1645583647.5696461,68.0,0.0,4331.282227000001,4583.589844,4203.077147999999,4277.436035,4278.974121,203.0,4.0,91.0,,,,0.0,4.0,2.0,4.0,0.0,4.0,50.0,,,,,,,,34.0,0.0,0.569171,-0.197998,0.646729,0.467529,0.923842,-0.39014299999999996,-0.08105599999999999,-0.036453,-0.034033999999999995,-0.027179000000000002,,,,,,,,,,,,,,,,,,,,,,,,,,,,,,,,,,,,,,,,,,,,,,,,,,,,,,,,,,,,,,,,,
23148,1645583647.537818,1645583647.577462,69.0,0.0,4312.820313,4617.436035,4199.487305,4278.461426,4302.05127,450.0,4.0,91.0,,,,0.0,4.0,2.0,4.0,0.0,4.0,50.0,,,,,,,,,,,,,,,,,,,,,,,,,,,,,,,,,,,,,,,,,,,,,,,,,,,,,,,,,,,,,,,,,,,,,,,,,,,,,,,,,,,,
23149,1645583647.545634,1645583647.585279,70.0,0.0,4289.230957,4530.769043,4190.769043,4280.0,4299.487305,16227.0,4.0,91.0,,,,0.0,4.0,2.0,4.0,0.0,4.0,50.0,,,,,,,,35.0,0.0,0.569171,-0.197998,0.646729,0.467529,0.9316549999999999,-0.37891199999999997,-0.086427,-0.036616,-0.034147000000000004,-0.023093000000000002,,,,,,,,,,,,,,,,,,,,,,,,,,,,,,,,,,,0.0,0.0,1.0,0.0,512.0,1.0,,,,,,,,,,,,,,,,,,,,,,,,,
23150,1645583647.55345,1645583647.5930948,71.0,0.0,4275.384765999999,4407.179688,4190.769043,4279.487305,4297.94873,450.0,4.0,91.0,,,,0.0,4.0,2.0,4.0,0.0,4.0,50.0,,,,,,,,,,,,,,,,,,,,,,,,,,,,,,,,,,,,,,,,,,,,,,,,,,,,,,,,,,,,,,,,,,,,,,,,,,,,,,,,,,,,
23151,1645583647.561265,1645583647.600911,72.0,0.0,4291.282227000001,4384.615234000001,4199.487305,4278.461426,4321.025879,450.0,4.0,91.0,,,,0.0,4.0,2.0,4.0,0.0,4.0,50.0,,,,,,,,36.0,0.0,0.569171,-0.197998,0.646729,0.467529,0.932143,-0.390631,-0.088869,-0.036617000000000004,-0.034052,-0.019368,,,,,,,,,,,,,,,,,,,,,,,,,,,,,,,,,,,,,,,,,,,,,,,,,,,,,,,,,,,,,,,,,
23152,1645583647.569081,1645583647.608728,73.0,0.0,4315.384765999999,4431.794922,4208.205078,4278.461426,4316.410156,0.0,4.0,91.0,,,,0.0,4.0,2.0,4.0,0.0,4.0,50.0,,,,,,,,,,,,,,,,,,,,,,,,,,,,,,,,,,,,,,,,,,,,,,,,,,,,,,,,,,,,,,,,,,,,,,,,,,,,,,,,,,,,
23153,1645583647.5768971,1645583647.616544,74.0,0.0,4309.230957,4408.717772999999,4209.743652,4278.974121,4291.282227000001,450.0,4.0,91.0,,,,0.0,4.0,2.0,4.0,0.0,4.0,50.0,1.0,33.333332,4.0,0.0,4.0,0.0,4.0,37.0,0.0,0.569448,-0.197998,0.6464840000000001,0.467529,0.9194479999999999,-0.387701,-0.087892,-0.036764,-0.034163,-0.022265,1.0,0.0,0.0,,,,,,,,,,,,,,,,,,,,,,,,,,,,,,,,0.0,0.0,1.0,0.0,512.0,1.0,3.000595,4.995883,4.798446,2.256592,1.8590369999999998,106.89823899999999,101.90213,18.805819,16.260284,21.842476,3.3396489999999996,2.004269,2.3305700000000003,0.49073599999999995,0.574764,0.023024,0.02159,0.017633000000000003,0.013768,0.016736,2.72143,1.2932549999999998,2.012239,1.835922,1.618926
23154,1645583647.584712,1645583647.6243598,75.0,0.0,4294.871582,4350.769043,4207.692383,4280.0,4286.666504,16187.0,4.0,91.0,,,,0.0,4.0,2.0,4.0,0.0,4.0,50.0,,,,,,,,,,,,,,,,,,,,,,,,,,,,,,,,,,,,,,,,,,,,,,,,,,,,,,,,,,,,,,,,,,,,,,,,,,,,,,,,,,,,
23155,1645583647.5925279,1645583647.632176,76.0,0.0,4313.333496,4366.666504,4207.179688,4280.512695,4268.717772999999,450.0,4.0,91.0,,,,0.0,4.0,2.0,4.0,0.0,4.0,50.0,,,,,,,,38.0,0.0,0.569448,-0.197998,0.6464840000000001,0.467529,0.9340959999999999,-0.383307,-0.082521,-0.036799,-0.034213,-0.01872,,,,,,,,,,,,,,,,,,,,,,,,,,,,,,,,,,,,,,,,,,,,,,,,,,,,,,,,,,,,,,,,,
23156,1645583647.600344,1645583647.639993,77.0,0.0,4329.230957,4376.410156,4204.102539,4280.512695,4252.820313,450.0,4.0,91.0,,,,0.0,4.0,2.0,4.0,0.0,4.0,50.0,,,,,,,,,,,,,,,,,,,,,,,,,,,,,,,,,,,,,,,,,,,,,,,,,,,,,,,,,,,,,,,,,,,,,,,,,,,,,,,,,,,,
23157,1645583647.608159,1645583647.647709,78.0,0.0,4313.333496,4325.641113000001,4205.128418,4280.0,4274.871582,450.0,4.0,91.0,,,,0.0,4.0,2.0,4.0,0.0,4.0,50.0,,,,,,,,39.0,0.0,0.569248,-0.197998,0.6464840000000001,0.46777299999999994,0.925795,-0.389654,-0.095705,-0.036879,-0.034210000000000004,-0.02178,,,,,,,,,,,,,,,,,,,,,,,,,,,,,,,,,,,0.0,0.0,1.0,0.0,512.0,1.0,,,,,,,,,,,,,,,,,,,,,,,,,
23158,1645583647.615975,1645583647.655525,79.0,0.0,4305.641113000001,4347.692383,4206.666504,4281.025879,4311.282227000001,16187.0,4.0,91.0,,,,0.0,4.0,2.0,4.0,0.0,4.0,50.0,,,,,,,,,,,,,,,,,,,,,,,,,,,,,,,,,,,,,,,,,,,,,,,,,,,,,,,,,,,,,,,,,,,,,,,,,,,,,,,,,,,,
23159,1645583647.623791,1645583647.663342,80.0,0.0,4318.974121,4423.589844,4195.384765999999,4280.0,4332.820313,450.0,4.0,91.0,,,,0.0,4.0,2.0,4.0,0.0,4.0,50.0,,,,,,,,40.0,0.0,0.569725,-0.197998,0.6462399999999999,0.467529,0.9428850000000001,-0.378424,-0.09472799999999999,-0.03695,-0.034354,-0.024583,,,,,,,,,,,,,,,,,,,,,,,,,,,,,,,,,,,,,,,,,,,,,,,,,,,,,,,,,,,,,,,,,
23160,1645583647.631606,1645583647.671158,81.0,0.0,4312.820313,4390.769043,4188.717772999999,4277.436035,4326.666504,450.0,4.0,91.0,,,,0.0,4.0,2.0,4.0,0.0,4.0,50.0,,,,,,,,,,,,,,,,,,,,,,,,,,,,,,,,,,,,,,,,,,,,,,,,,,,,,,,,,,,,,,,,,,,,,,,,,,,,,,,,,,,,
23161,1645583647.6394222,1645583647.678974,82.0,0.0,4300.0,4363.077147999999,4199.487305,4278.461426,4315.384765999999,450.0,4.0,91.0,,,,0.0,4.0,2.0,4.0,0.0,4.0,50.0,,,,,,,,41.0,0.0,0.569448,-0.197998,0.6464840000000001,0.467529,0.9340959999999999,-0.37891199999999997,-0.080079,-0.037015,-0.034336,-0.027007,,,,,,,,,,,,,,,,,,,,,,,,,,,,,,,,,,,0.0,0.0,1.0,0.0,512.0,1.0,,,,,,,,,,,,,,,,,,,,,,,,,
23162,1645583647.647238,1645583647.686791,83.0,0.0,4316.922852000001,4428.205078,4220.512695,4281.538574,4306.666504,16187.0,4.0,91.0,,,,0.0,4.0,2.0,4.0,0.0,4.0,50.0,,,,,,,,,,,,,,,,,,,,,,,,,,,,,,,,,,,,,,,,,,,,,,,,,,,,,,,,,,,,,,,,,,,,,,,,,,,,,,,,,,,,
23163,1645583647.655053,1645583647.694607,84.0,0.0,4329.743652,4374.358886999999,4239.487305,4281.025879,4294.871582,450.0,4.0,91.0,,,,0.0,4.0,2.0,4.0,0.0,4.0,50.0,,,,,,,,42.0,0.0,0.5693630000000001,-0.198242,0.6464840000000001,0.467529,0.938003,-0.375494,-0.09472799999999999,-0.036976,-0.034272000000000004,-0.022841999999999998,,,,,,,,,,,,,,,,,,,,,,,,,,,,,,,,,,,,,,,,,,,,,,,,,,,,,,,,,,,,,,,,,
23164,1645583647.662869,1645583647.702423,85.0,0.0,4327.179688,4261.538574,4237.94873,4280.0,4290.256348,450.0,4.0,91.0,,,,0.0,4.0,2.0,4.0,0.0,4.0,50.0,,,,,,,,,,,,,,,,,,,,,,,,,,,,,,,,,,,,,,,,,,,,,,,,,,,,,,,,,,,,,,,,,,,,,,,,,,,,,,,,,,,,
23165,1645583647.670685,1645583647.7102401,86.0,0.0,4334.871582,4268.205078,4228.205078,4280.512695,4286.153809,450.0,4.0,91.0,,,,0.0,4.0,2.0,4.0,0.0,4.0,50.0,,,,,,,,43.0,0.0,0.5693630000000001,-0.198242,0.6464840000000001,0.467529,0.921889,-0.382818,-0.086427,-0.036892,-0.034311,-0.025343,,,,,,,,,,,,,,,,,,,,,,,,,,,,,,,,,,,0.0,0.0,1.0,0.0,512.0,1.0,,,,,,,,,,,,,,,,,,,,,,,,,
23166,1645583647.6785,1645583647.717956,87.0,0.0,4335.384765999999,4306.153809,4230.769043,4280.512695,4279.487305,16187.0,4.0,91.0,,,,0.0,4.0,2.0,4.0,0.0,4.0,50.0,,,,,,,,,,,,,,,,,,,,,,,,,,,,,,,,,,,,,,,,,,,,,,,,,,,,,,,,,,,,,,,,,,,,,,,,,,,,,,,,,,,,
23167,1645583647.686316,1645583647.7257721,88.0,0.0,4326.666504,4272.820313,4230.769043,4281.025879,4306.153809,450.0,4.0,91.0,,,,0.0,4.0,2.0,4.0,0.0,4.0,50.0,,,,,,,,44.0,0.0,0.5696399999999999,-0.198242,0.6462399999999999,0.467529,0.9267719999999999,-0.376471,-0.077638,-0.036962,-0.034298,-0.027691000000000004,,,,,,,,,,,,,,,,,,,,,,,,,,,,,,,,,,,,,,,,,,,,,,,,,,,,,,,,,,,,,,,,,
23168,1645583647.694132,1645583647.7335892,89.0,0.0,4325.641113000001,4291.794922,4210.769043,4279.487305,4335.897461,450.0,4.0,91.0,,,,0.0,4.0,2.0,4.0,0.0,4.0,50.0,,,,,,,,,,,,,,,,,,,,,,,,,,,,,,,,,,,,,,,,,,,,,,,,,,,,,,,,,,,,,,,,,,,,,,,,,,,,,,,,,,,,
23169,1645583647.701947,1645583647.741405,90.0,0.0,4329.230957,4387.692383,4206.666504,4277.436035,4316.410156,450.0,4.0,91.0,,,,0.0,4.0,2.0,4.0,0.0,4.0,50.0,,,,,,,,45.0,0.0,0.569448,-0.197998,0.6464840000000001,0.467529,0.925795,-0.374029,-0.08447400000000001,-0.036976999999999996,-0.034335000000000004,-0.029707,1.0,0.0,0.0,,,,,,,,,,,,,,,,,,,,,,,,,,,,,,,,0.0,0.0,1.0,0.0,512.0,1.0,2.917826,6.093866,4.017208,2.474613,1.7588529999999998,97.6222,99.793182,22.986811,16.140549,21.648134,3.245858,2.352175,2.2610639999999997,0.584831,0.592198,0.018531,0.014750999999999998,0.013211,0.010154999999999999,0.01227,2.261135,1.195945,1.83505,2.0507009999999997,1.7235779999999998
23170,1645583647.709763,1645583647.7491212,91.0,0.0,4327.179688,4380.512695,4224.102539,4277.436035,4298.974121,16187.0,4.0,91.0,,,,0.0,4.0,2.0,4.0,0.0,4.0,50.0,,,,,,,,,,,,,,,,,,,,,,,,,,,,,,,,,,,,,,,,,,,,,,,,,,,,,,,,,,,,,,,,,,,,,,,,,,,,,,,,,,,,
23171,1645583647.717579,1645583647.756938,92.0,0.0,4322.563965,4331.794922,4218.974121,4279.487305,4301.538574,450.0,4.0,91.0,,,,0.0,4.0,2.0,4.0,0.0,4.0,50.0,,,,,,,,46.0,0.0,0.569725,-0.197998,0.6462399999999999,0.467529,0.9282370000000001,-0.380377,-0.08691499999999999,-0.036989999999999995,-0.034418000000000004,-0.025272,,,,,,,,,,,,,,,,,,,,,,,,,,,,,,,,,,,,,,,,,,,,,,,,,,,,,,,,,,,,,,,,,
23172,1645583647.725394,1645583647.7647538,93.0,0.0,4310.769043,4350.769043,4199.487305,4280.0,4297.436035,450.0,4.0,91.0,,,,0.0,4.0,2.0,4.0,0.0,4.0,50.0,,,,,,,,,,,,,,,,,,,,,,,,,,,,,,,,,,,,,,,,,,,,,,,,,,,,,,,,,,,,,,,,,,,,,,,,,,,,,,,,,,,,
23173,1645583647.7332098,1645583647.77257,94.0,0.0,4321.025879,4327.692383,4208.205078,4278.974121,4311.794922,450.0,4.0,91.0,,,,0.0,4.0,2.0,4.0,0.0,4.0,50.0,,,,,,,,47.0,0.0,0.56981,-0.19775399999999999,0.6462399999999999,0.467529,0.928725,-0.37598200000000004,-0.084962,-0.037051,-0.034539999999999994,-0.027481000000000002,,,,,,,,,,,,,,,,,,,,,,,,,,,,,,,,,,,0.0,0.0,1.0,0.0,512.0,1.0,,,,,,,,,,,,,,,,,,,,,,,,,
23174,1645583647.741026,1645583647.780387,95.0,0.0,4351.794922,4289.743652,4225.641113000001,4278.461426,4328.717772999999,16187.0,4.0,91.0,,,,0.0,4.0,2.0,4.0,0.0,4.0,50.0,,,,,,,,,,,,,,,,,,,,,,,,,,,,,,,,,,,,,,,,,,,,,,,,,,,,,,,,,,,,,,,,,,,,,,,,,,,,,,,,,,,,
23175,1645583647.748841,1645583647.788203,96.0,0.0,4345.641113000001,4365.641113000001,4213.846191,4279.487305,4296.922852000001,450.0,4.0,91.0,,,,0.0,4.0,2.0,4.0,0.0,4.0,50.0,,,,,,,,48.0,0.0,0.56981,-0.19775399999999999,0.6462399999999999,0.467529,0.9365379999999999,-0.37891199999999997,-0.088869,-0.037008,-0.034504,-0.023122,,,,,,,,,,,,,,,,,,,,,,,,,,,,,,,,,,,,,,,,,,,,,,,,,,,,,,,,,,,,,,,,,
23176,1645583647.7566571,1645583647.7960188,97.0,0.0,4314.358886999999,4401.538574,4200.0,4280.512695,4264.102539,450.0,4.0,91.0,,,,0.0,4.0,2.0,4.0,0.0,4.0,50.0,,,,,,,,,,,,,,,,,,,,,,,,,,,,,,,,,,,,,,,,,,,,,,,,,,,,,,,,,,,,,,,,,,,,,,,,,,,,,,,,,,,,
23177,1645583647.764473,1645583647.803936,98.0,0.0,4325.641113000001,4310.256348,4214.871582,4280.512695,4280.512695,450.0,4.0,91.0,,,,0.0,4.0,2.0,4.0,0.0,4.0,50.0,,,,,,,,49.0,0.0,0.5696939999999999,-0.19751,0.6462399999999999,0.46777299999999994,0.937514,-0.383795,-0.086427,-0.037018,-0.034423,-0.025546,,,,,,,,,,,,,,,,,,,,,,,,,,,,,,,,,,,0.0,0.0,1.0,0.0,512.0,1.0,,,,,,,,,,,,,,,,,,,,,,,,,
23178,1645583647.772288,1645583647.8117518,99.0,0.0,4348.717772999999,4258.974121,4228.717772999999,4280.512695,4312.820313,16187.0,4.0,91.0,,,,0.0,4.0,2.0,4.0,0.0,4.0,50.0,,,,,,,,,,,,,,,,,,,,,,,,,,,,,,,,,,,,,,,,,,,,,,,,,,,,,,,,,,,,,,,,,,,,,,,,,,,,,,,,,,,,
23179,1645583647.780104,1645583647.819568,100.0,0.0,4327.692383,4220.512695,4216.410156,4280.512695,4321.538574,450.0,4.0,91.0,,,,0.0,4.0,2.0,4.0,0.0,4.0,50.0,,,,,,,,50.0,0.0,0.569779,-0.197266,0.6462399999999999,0.46777299999999994,0.921401,-0.394049,-0.085939,-0.036979000000000005,-0.03435,-0.021672999999999998,,,,,,,,,,,,,,,,,,,,,,,,,,,,,,,,,,,,,,,,,,,,,,,,,,,,,,,,,,,,,,,,,
23180,1645583647.78792,1645583647.827385,101.0,0.0,4317.94873,4161.025879,4202.563965,4280.512695,4308.205078,450.0,4.0,91.0,,,,0.0,4.0,2.0,4.0,0.0,4.0,50.0,,,,,,,,,,,,,,,,,,,,,,,,,,,,,,,,,,,,,,,,,,,,,,,,,,,,,,,,,,,,,,,,,,,,,,,,,,,,,,,,,,,,
23181,1645583647.795735,1645583647.835201,102.0,0.0,4338.461426,4218.974121,4213.846191,4280.512695,4308.205078,450.0,4.0,91.0,,,,0.0,4.0,2.0,4.0,0.0,4.0,50.0,,,,,,,,51.0,0.0,0.5695020000000001,-0.197266,0.6464840000000001,0.46777299999999994,0.9423969999999999,-0.387701,-0.083497,-0.036894,-0.034283999999999995,-0.018040999999999998,,,,,,,,,,,,,,,,,,,,,,,,,,,,,,,,,,,0.0,0.0,1.0,0.0,512.0,1.0,,,,,,,,,,,,,,,,,,,,,,,,,
23182,1645583647.803551,1645583647.843017,103.0,0.0,4336.410156,4316.410156,4228.717772999999,4279.487305,4316.922852000001,16187.0,4.0,91.0,,,,0.0,4.0,2.0,4.0,0.0,4.0,50.0,,,,,,,,,,,,,,,,,,,,,,,,,,,,,,,,,,,,,,,,,,,,,,,,,,,,,,,,,,,,,,,,,,,,,,,,,,,,,,,,,,,,
23183,1645583647.811367,1645583647.850833,104.0,0.0,4314.358886999999,4318.974121,4224.615234000001,4278.974121,4318.461426,450.0,4.0,91.0,,,,0.0,4.0,2.0,4.0,0.0,4.0,50.0,,,,,,,,52.0,0.0,0.5695859999999999,-0.197021,0.6464840000000001,0.46777299999999994,0.9277489999999999,-0.39014299999999996,-0.083009,-0.036916000000000004,-0.034274,-0.021022,,,,,,,,,,,,,,,,,,,,,,,,,,,,,,,,,,,,,,,,,,,,,,,,,,,,,,,,,,,,,,,,,
23184,1645583647.819183,1645583647.85865,105.0,0.0,4305.641113000001,4330.256348,4208.717772999999,4278.461426,4321.025879,450.0,4.0,91.0,,,,0.0,4.0,2.0,4.0,0.0,4.0,50.0,,,,,,,,,,,,,,,,,,,,,,,,,,,,,,,,,,,,,,,,,,,,,,,,,,,,,,,,,,,,,,,,,,,,,,,,,,,,,,,,,,,,
23185,1645583647.826998,1645583647.866466,106.0,0.0,4324.615234000001,4368.717772999999,4202.05127,4278.461426,4313.846191,450.0,4.0,91.0,,,,0.0,4.0,2.0,4.0,0.0,4.0,50.0,,,,,,,,53.0,0.0,0.5695859999999999,-0.197021,0.6464840000000001,0.46777299999999994,0.929702,-0.373053,-0.075196,-0.036739999999999995,-0.034263999999999996,-0.023705,1.0,0.0,0.0,,,,,,,,,,,,,,,,,,,,,,,,,,,,,,,,0.0,0.0,1.0,0.0,512.0,1.0,2.785669,6.8169759999999995,3.3468660000000003,2.52071,1.744443,88.574211,95.765259,31.372978000000003,15.042451000000002,21.645121,2.896262,2.617895,2.313793,0.696063,0.605878,0.01409,0.011428,0.010751,0.00788,0.008708,1.778764,1.1648129999999999,1.553985,2.1943610000000002,1.8295700000000001
23186,1645583647.834814,1645583647.874383,107.0,0.0,4351.282227000001,4328.717772999999,4213.333496,4280.0,4305.641113000001,16187.0,4.0,91.0,,,,0.0,4.0,2.0,4.0,0.0,4.0,50.0,,,,,,,,,,,,,,,,,,,,,,,,,,,,,,,,,,,,,,,,,,,,,,,,,,,,,,,,,,,,,,,,,,,,,,,,,,,,,,,,,,,,
23187,1645583647.842629,1645583647.882199,108.0,0.0,4350.769043,4322.05127,4227.179688,4282.05127,4313.333496,450.0,4.0,91.0,,,,0.0,4.0,2.0,4.0,0.0,4.0,50.0,,,,,,,,54.0,0.0,0.5695020000000001,-0.197266,0.6464840000000001,0.46777299999999994,0.9423969999999999,-0.387701,-0.083497,-0.036679,-0.034207,-0.01987,,,,,,,,,,,,,,,,,,,,,,,,,,,,,,,,,,,,,,,,,,,,,,,,,,,,,,,,,,,,,,,,,
23188,1645583647.850445,1645583647.890016,109.0,0.0,4326.153809,4445.641113000001,4225.641113000001,4281.538574,4311.794922,450.0,4.0,91.0,,,,0.0,4.0,2.0,4.0,0.0,4.0,50.0,,,,,,,,,,,,,,,,,,,,,,,,,,,,,,,,,,,,,,,,,,,,,,,,,,,,,,,,,,,,,,,,,,,,,,,,,,,,,,,,,,,,
23189,1645583647.8582609,1645583647.897832,110.0,0.0,4318.974121,4476.922852000001,4211.282227000001,4280.0,4306.153809,450.0,4.0,91.0,,,,0.0,4.0,2.0,4.0,0.0,4.0,50.0,,,,,,,,55.0,0.0,0.5695859999999999,-0.197021,0.6464840000000001,0.46777299999999994,0.929702,-0.373053,-0.075196,-0.036527,-0.034204000000000005,-0.022668,,,,,,,,,,,,,,,,,,,,,,,,,,,,,,,,,,,0.0,0.0,1.0,0.0,512.0,1.0,,,,,,,,,,,,,,,,,,,,,,,,,
23190,1645583647.866076,1645583647.905649,111.0,0.0,4345.128418,4383.077147999999,4214.358886999999,4280.512695,4326.153809,16187.0,4.0,91.0,,,,0.0,4.0,2.0,4.0,0.0,4.0,50.0,,,,,,,,,,,,,,,,,,,,,,,,,,,,,,,,,,,,,,,,,,,,,,,,,,,,,,,,,,,,,,,,,,,,,,,,,,,,,,,,,,,,
23191,1645583647.873892,1645583647.913465,112.0,0.0,4372.307617,4397.436035,4229.743652,4280.512695,4332.820313,450.0,4.0,91.0,,,,0.0,4.0,2.0,4.0,0.0,4.0,50.0,,,,,,,,56.0,0.0,0.5691930000000001,-0.196777,0.646729,0.46801800000000005,0.9184709999999999,-0.36914600000000003,-0.08203300000000001,-0.036488,-0.034201999999999996,-0.025089,,,,,,,,,,,,,,,,,,,,,,,,,,,,,,,,,,,,,,,,,,,,,,,,,,,,,,,,,,,,,,,,,
23192,1645583647.881708,1645583647.921282,113.0,0.0,4367.692383,4469.743652,4231.794922,4279.487305,4306.153809,450.0,4.0,91.0,,,,0.0,4.0,2.0,4.0,0.0,4.0,50.0,,,,,,,,,,,,,,,,,,,,,,,,,,,,,,,,,,,,,,,,,,,,,,,,,,,,,,,,,,,,,,,,,,,,,,,,,,,,,,,,,,,,
23193,1645583647.889523,1645583647.9290981,114.0,0.0,4329.230957,4469.230957,4216.410156,4278.974121,4292.307617,450.0,4.0,91.0,,,,0.0,4.0,2.0,4.0,0.0,4.0,50.0,,,,,,,,57.0,0.0,0.569277,-0.19653299999999999,0.646729,0.46801800000000005,0.9277489999999999,-0.37158800000000003,-0.085451,-0.036452,-0.034297,-0.021066,,,,,,,,,,,,,,,,,,,,,,,,,,,,,,,,,,,0.0,0.0,1.0,0.0,512.0,1.0,,,,,,,,,,,,,,,,,,,,,,,,,
23194,1645583647.897339,1645583647.936915,115.0,0.0,4310.256348,4480.512695,4212.307617,4278.461426,4307.692383,16187.0,4.0,91.0,,,,0.0,4.0,2.0,4.0,0.0,4.0,50.0,,,,,,,,,,,,,,,,,,,,,,,,,,,,,,,,,,,,,,,,,,,,,,,,,,,,,,,,,,,,,,,,,,,,,,,,,,,,,,,,,,,,
23195,1645583647.9051552,1645583647.9448311,116.0,0.0,4334.358886999999,4470.769043,4221.538574,4280.0,4334.358886999999,450.0,4.0,91.0,,,,0.0,4.0,2.0,4.0,0.0,4.0,50.0,,,,,,,,58.0,0.0,0.5691609999999999,-0.19628900000000002,0.646729,0.468262,0.9087049999999999,-0.372564,-0.08838,-0.036567,-0.034286000000000004,-0.023891,,,,,,,,,,,,,,,,,,,,,,,,,,,,,,,,,,,,,,,,,,,,,,,,,,,,,,,,,,,,,,,,,
23196,1645583647.9129698,1645583647.952647,117.0,0.0,4350.256348,4387.179688,4218.974121,4281.538574,4342.563965,450.0,4.0,91.0,,,,0.0,4.0,2.0,4.0,0.0,4.0,50.0,,,,,,,,,,,,,,,,,,,,,,,,,,,,,,,,,,,,,,,,,,,,,,,,,,,,,,,,,,,,,,,,,,,,,,,,,,,,,,,,,,,,
23197,1645583647.920786,1645583647.960464,118.0,0.0,4338.461426,4357.436035,4215.384765999999,4280.512695,4333.333496,450.0,4.0,91.0,,,,0.0,4.0,2.0,4.0,0.0,4.0,50.0,,,,,,,,59.0,0.0,0.568883,-0.19628900000000002,0.6469729999999999,0.468262,0.9399559999999999,-0.381842,-0.08105599999999999,-0.036523,-0.034275,-0.026287,,,,,,,,,,,,,,,,,,,,,,,,,,,,,,,,,,,0.0,0.0,1.0,0.0,512.0,1.0,,,,,,,,,,,,,,,,,,,,,,,,,
23198,1645583647.928602,1645583647.96828,119.0,0.0,4336.410156,4361.025879,4223.077147999999,4278.461426,4333.846191,16187.0,4.0,91.0,,,,0.0,4.0,2.0,4.0,0.0,4.0,50.0,,,,,,,,,,,,,,,,,,,,,,,,,,,,,,,,,,,,,,,,,,,,,,,,,,,,,,,,,,,,,,,,,,,,,,,,,,,,,,,,,,,,
23199,1645583647.936417,1645583647.9760962,120.0,0.0,4351.282227000001,4290.256348,4226.666504,4278.974121,4332.820313,450.0,4.0,91.0,,,,0.0,4.0,2.0,4.0,0.0,4.0,50.0,,,,,,,,60.0,0.0,0.568967,-0.196045,0.6469729999999999,0.468262,0.939467,-0.375006,-0.08691499999999999,-0.036581999999999996,-0.034266000000000005,-0.022144999999999998,,,,,,,,,,,,,,,,,,,,,,,,,,,,,,,,,,,,,,,,,,,,,,,,,,,,,,,,,,,,,,,,,
23200,1645583647.944233,1645583647.9839132,121.0,0.0,4349.743652,4241.538574,4213.333496,4278.974121,4313.846191,450.0,4.0,91.0,,,,0.0,4.0,2.0,4.0,0.0,4.0,50.0,,,,,,,,,,,,,,,,,,,,,,,,,,,,,,,,,,,,,,,,,,,,,,,,,,,,,,,,,,,,,,,,,,,,,,,,,,,,,,,,,,,,
23201,1645583647.952049,1645583647.991629,122.0,0.0,4343.077147999999,4269.743652,4208.205078,4278.461426,4310.769043,450.0,4.0,91.0,,,,0.0,4.0,2.0,4.0,0.0,4.0,50.0,,,,,,,,61.0,0.0,0.56885,-0.195801,0.6469729999999999,0.46850600000000003,0.91017,-0.37891199999999997,-0.080079,-0.036586,-0.034257,-0.018514,1.0,0.0,0.0,,,,,,,,,,,,,,,,,,,,,,,,,,,,,,,,0.0,0.0,1.0,0.0,512.0,1.0,2.698554,6.902033,2.915889,2.4399189999999997,1.7981479999999999,80.99871800000001,92.280777,42.822922,13.311577999999999,21.848177,2.4038459999999997,2.702739,2.494538,0.802773,0.61042,0.010397,0.009837,0.009164,0.007361,0.006405,1.438674,1.20344,1.364565,2.247806,1.9045349999999999
23202,1645583647.959865,1645583647.999445,123.0,0.0,4346.666504,4281.538574,4217.436035,4278.461426,4325.641113000001,16187.0,4.0,91.0,,,,0.0,4.0,2.0,4.0,0.0,4.0,50.0,,,,,,,,,,,,,,,,,,,,,,,,,,,,,,,,,,,,,,,,,,,,,,,,,,,,,,,,,,,,,,,,,,,,,,,,,,,,,,,,,,,,
23203,1645583647.96768,1645583648.007261,124.0,0.0,4348.717772999999,4308.205078,4214.358886999999,4278.974121,4328.717772999999,450.0,4.0,91.0,,,,0.0,4.0,2.0,4.0,0.0,4.0,50.0,,,,,,,,62.0,0.0,0.56885,-0.195801,0.6469729999999999,0.46850600000000003,0.9282370000000001,-0.383795,-0.086427,-0.03659,-0.034395999999999996,-0.021448,,,,,,,,,,,,,,,,,,,,,,,,,,,,,,,,,,,,,,,,,,,,,,,,,,,,,,,,,,,,,,,,,
23204,1645583647.975496,1645583648.0150769,125.0,0.0,4341.538574,4368.205078,4206.153809,4278.974121,4314.358886999999,450.0,4.0,91.0,,,,0.0,4.0,2.0,4.0,0.0,4.0,50.0,,,,,,,,,,,,,,,,,,,,,,,,,,,,,,,,,,,,,,,,,,,,,,,,,,,,,,,,,,,,,,,,,,,,,,,,,,,,,,,,,,,,
23205,1645583647.983312,1645583648.022794,126.0,0.0,4325.128418,4391.794922,4204.102539,4278.461426,4306.153809,450.0,4.0,91.0,,,,0.0,4.0,2.0,4.0,0.0,4.0,50.0,,,,,,,,63.0,0.0,0.568934,-0.19555699999999998,0.6469729999999999,0.46850600000000003,0.9350729999999999,-0.387701,-0.078614,-0.036642,-0.034326,-0.017838,,,,,,,,,,,,,,,,,,,,,,,,,,,,,,,,,,,0.0,0.0,1.0,0.0,512.0,1.0,,,,,,,,,,,,,,,,,,,,,,,,,
23206,1645583647.991127,1645583648.0306098,127.0,0.0,4321.025879,4377.436035,4200.512695,4278.461426,4332.307617,242.0,4.0,91.0,,,,0.0,4.0,2.0,4.0,0.0,4.0,50.0,,,,,,,,,,,,,,,,,,,,,,,,,,,,,,,,,,,,,,,,,,,,,,,,,,,,,,,,,,,,,,,,,,,,,,,,,,,,,,,,,,,,
23207,1645583647.9989429,1645583648.038426,0.0,0.0,4331.794922,4342.563965,4206.666504,4278.461426,4347.179688,450.0,4.0,91.0,,,,0.0,4.0,2.0,4.0,0.0,4.0,50.0,,,,,,,,0.0,0.0,0.568539,-0.19531300000000001,0.647217,0.46875,0.926284,-0.381353,-0.078614,-0.036688,-0.034213,-0.020791,,,,,,,,,,,,,,,,,,,,,,,,,,,,,,,,,,,,,,,,,,,,,,,,,,,,,,,,,,,,,,,,,
23208,1645583648.006759,1645583648.046243,1.0,0.0,4326.666504,4285.128418,4221.538574,4278.974121,4311.794922,450.0,4.0,91.0,,,,0.0,4.0,2.0,4.0,0.0,4.0,50.0,,,,,,,,,,,,,,,,,,,,,,,,,,,,,,,,,,,,,,,,,,,,,,,,,,,,,,,,,,,,,,,,,,,,,,,,,,,,,,,,,,,,
23209,1645583648.014574,1645583648.054059,2.0,0.0,4325.641113000001,4243.589844,4221.538574,4278.974121,4290.769043,16251.0,4.0,91.0,,,,0.0,4.0,2.0,4.0,0.0,4.0,50.0,,,,,,,,1.0,0.0,0.568539,-0.19531300000000001,0.647217,0.46875,0.9365379999999999,-0.38526,-0.083986,-0.036584,-0.034210000000000004,-0.017247,,,,,,,,,,,,,,,,,,,,,,,,,,,,,,,,,,,0.0,0.0,1.0,0.0,512.0,1.0,,,,,,,,,,,,,,,,,,,,,,,,,
23210,1645583648.0223901,1645583648.061875,3.0,0.0,4352.307617,4270.256348,4216.922852000001,4278.461426,4315.897461,450.0,4.0,91.0,,,,0.0,4.0,2.0,4.0,0.0,4.0,50.0,,,,,,,,,,,,,,,,,,,,,,,,,,,,,,,,,,,,,,,,,,,,,,,,,,,,,,,,,,,,,,,,,,,,,,,,,,,,,,,,,,,,
23211,1645583648.030206,1645583648.069691,4.0,0.0,4363.589844,4311.794922,4217.94873,4279.487305,4339.487305,309.0,4.0,91.0,,,,0.0,4.0,2.0,4.0,0.0,4.0,50.0,,,,,,,,2.0,0.0,0.568539,-0.19531300000000001,0.647217,0.46875,0.929702,-0.400397,-0.087892,-0.036637,-0.034256,-0.020259,,,,,,,,,,,,,,,,,,,,,,,,,,,,,,,,,,,,,,,,,,,,,,,,,,,,,,,,,,,,,,,,,
23212,1645583648.038021,1645583648.077508,5.0,0.0,4346.153809,4375.897461,4205.641113000001,4280.512695,4350.769043,450.0,4.0,91.0,,,,0.0,4.0,2.0,4.0,0.0,4.0,50.0,,,,,,,,,,,,,,,,,,,,,,,,,,,,,,,,,,,,,,,,,,,,,,,,,,,,,,,,,,,,,,,,,,,,,,,,,,,,,,,,,,,,
23213,1645583648.045837,1645583648.085324,6.0,0.0,4326.666504,4431.794922,4197.436035,4279.487305,4352.820313,16205.0,4.0,91.0,,,,0.0,4.0,2.0,4.0,0.0,4.0,50.0,,,,,,,,3.0,0.0,0.568422,-0.19506800000000002,0.647217,0.46899399999999997,0.9184709999999999,-0.397955,-0.064454,-0.036635,-0.034297,-0.022969,,,,,,,,,,,,,,,,,,,,,,,,,,,,,,,,,,,0.0,0.0,1.0,0.0,512.0,1.0,,,,,,,,,,,,,,,,,,,,,,,,,
23214,1645583648.053653,1645583648.093041,7.0,0.0,4325.128418,4398.974121,4207.179688,4277.94873,4325.641113000001,450.0,4.0,91.0,,,,0.0,4.0,2.0,4.0,0.0,4.0,50.0,,,,,,,,,,,,,,,,,,,,,,,,,,,,,,,,,,,,,,,,,,,,,,,,,,,,,,,,,,,,,,,,,,,,,,,,,,,,,,,,,,,,
23215,1645583648.061468,1645583648.100857,8.0,0.0,4336.410156,4380.512695,4224.102539,4277.94873,4306.153809,450.0,4.0,91.0,,,,0.0,4.0,2.0,4.0,0.0,4.0,50.0,,,,,,,,4.0,0.0,0.568144,-0.19506800000000002,0.647461,0.46899399999999997,0.929213,-0.392584,-0.07422000000000001,-0.036585,-0.034333999999999996,-0.025409,,,,,,,,,,,,,,,,,,,,,,,,,,,,,,,,,,,,,,,,,,,,,,,,,,,,,,,,,,,,,,,,,
23216,1645583648.069284,1645583648.108673,9.0,0.0,4336.410156,4393.333496,4238.974121,4278.461426,4322.563965,0.0,4.0,91.0,,,,0.0,4.0,2.0,4.0,0.0,4.0,50.0,,,,,,,,,,,,,,,,,,,,,,,,,,,,,,,,,,,,,,,,,,,,,,,,,,,,,,,,,,,,,,,,,,,,,,,,,,,,,,,,,,,,
23217,1645583648.0771,1645583648.1164892,10.0,0.0,4328.205078,4332.307617,4233.333496,4278.461426,4320.0,450.0,4.0,91.0,,,,0.0,4.0,2.0,4.0,0.0,4.0,50.0,1.0,33.333332,4.0,0.0,4.0,0.0,4.0,5.0,0.0,0.568227,-0.194824,0.647461,0.46899399999999997,0.9365379999999999,-0.39697899999999997,-0.09131,-0.036539999999999996,-0.034319,-0.021403,1.0,0.0,0.0,,,,,,,,,,,,,,,,,,,,,,,,,,,,,,,,0.0,0.0,1.0,0.0,512.0,1.0,2.713077,6.350162999999999,2.746325,2.311738,1.878438,74.58313000000001,90.971855,54.746277,11.797732,22.070869000000002,1.9725830000000002,2.602122,2.7356759999999998,0.881576,0.607495,0.008008,0.009153,0.008243,0.008404,0.0055439999999999994,1.323613,1.32897,1.480985,2.252139,1.9307349999999999
23218,1645583648.084915,1645583648.124306,11.0,0.0,4308.205078,4262.05127,4205.128418,4278.974121,4282.563965,16220.0,4.0,91.0,,,,0.0,4.0,2.0,4.0,0.0,4.0,50.0,,,,,,,,,,,,,,,,,,,,,,,,,,,,,,,,,,,,,,,,,,,,,,,,,,,,,,,,,,,,,,,,,,,,,,,,,,,,,,,,,,,,
23219,1645583648.092731,1645583648.132122,12.0,0.0,4287.692383,4277.436035,4195.897461,4280.512695,4270.769043,450.0,4.0,91.0,,,,0.0,4.0,2.0,4.0,0.0,4.0,50.0,,,,,,,,6.0,0.0,0.568144,-0.19506800000000002,0.647461,0.46899399999999997,0.921889,-0.381353,-0.069337,-0.03645,-0.034354,-0.024097,,,,,,,,,,,,,,,,,,,,,,,,,,,,,,,,,,,,,,,,,,,,,,,,,,,,,,,,,,,,,,,,,
23220,1645583648.100547,1645583648.139938,13.0,0.0,4291.282227000001,4332.307617,4193.846191,4281.538574,4297.94873,450.0,4.0,91.0,,,,0.0,4.0,2.0,4.0,0.0,4.0,50.0,,,,,,,,,,,,,,,,,,,,,,,,,,,,,,,,,,,,,,,,,,,,,,,,,,,,,,,,,,,,,,,,,,,,,,,,,,,,,,,,,,,,
23221,1645583648.108362,1645583648.1477551,14.0,0.0,4301.538574,4387.179688,4168.717772999999,4276.922852000001,4302.563965,450.0,4.0,91.0,,,,0.0,4.0,2.0,4.0,0.0,4.0,50.0,,,,,,,,7.0,0.0,0.568144,-0.19506800000000002,0.647461,0.46899399999999997,0.929702,-0.38721300000000003,-0.08105599999999999,-0.036419,-0.034336,-0.020173,,,,,,,,,,,,,,,,,,,,,,,,,,,,,,,,,,,0.0,0.0,1.0,0.0,512.0,1.0,,,,,,,,,,,,,,,,,,,,,,,,,
23222,1645583648.116178,1645583648.155571,15.0,0.0,4304.615234000001,4412.307617,4155.897461,4270.256348,4274.358886999999,16220.0,4.0,91.0,,,,0.0,4.0,2.0,4.0,0.0,4.0,50.0,,,,,,,,,,,,,,,,,,,,,,,,,,,,,,,,,,,,,,,,,,,,,,,,,,,,,,,,,,,,,,,,,,,,,,,,,,,,,,,,,,,,
23223,1645583648.1239939,1645583648.163487,16.0,0.0,4316.410156,4394.358886999999,4176.410156,4272.820313,4274.358886999999,0.0,4.0,91.0,,,,0.0,4.0,2.0,4.0,0.0,4.0,50.0,,,,,,,,8.0,0.0,0.568144,-0.19506800000000002,0.647461,0.46899399999999997,0.922377,-0.396002,-0.08203300000000001,-0.036341000000000005,-0.03437,-0.022892,,,,,,,,,,,,,,,,,,,,,,,,,,,,,,,,,,,,,,,,,,,,,,,,,,,,,,,,,,,,,,,,,
23224,1645583648.131809,1645583648.171304,17.0,0.0,4307.692383,4406.153809,4186.666504,4281.025879,4286.153809,0.0,4.0,91.0,,,,0.0,4.0,2.0,4.0,0.0,4.0,50.0,,,,,,,,,,,,,,,,,,,,,,,,,,,,,,,,,,,,,,,,,,,,,,,,,,,,,,,,,,,,,,,,,,,,,,,,,,,,,,,,,,,,
23225,1645583648.139625,1645583648.1791198,18.0,0.0,4278.974121,4410.769043,4171.282227000001,4278.974121,4261.025879,0.0,4.0,91.0,,,,0.0,4.0,2.0,4.0,0.0,4.0,50.0,,,,,,,,9.0,0.0,0.568345,-0.19506800000000002,0.647461,0.46875,0.929213,-0.390631,-0.07422000000000001,-0.036467,-0.034351,-0.019138,,,,,,,,,,,,,,,,,,,,,,,,,,,,,,,,,,,0.0,0.0,1.0,0.0,512.0,1.0,,,,,,,,,,,,,,,,,,,,,,,,,
23226,1645583648.147441,1645583648.186936,19.0,0.0,4281.025879,4363.077147999999,4168.717772999999,4271.794922,4242.05127,0.0,4.0,91.0,,,,0.0,4.0,2.0,4.0,0.0,4.0,50.0,,,,,,,,,,,,,,,,,,,,,,,,,,,,,,,,,,,,,,,,,,,,,,,,,,,,,,,,,,,,,,,,,,,,,,,,,,,,,,,,,,,,
23227,1645583648.155256,1645583648.194753,20.0,0.0,4271.794922,4298.974121,4181.538574,4274.358886999999,4271.282227000001,0.0,4.0,91.0,,,,0.0,4.0,2.0,4.0,0.0,4.0,50.0,,,,,,,,10.0,0.0,0.568345,-0.19506800000000002,0.647461,0.46875,0.923842,-0.393072,-0.077638,-0.03658,-0.034383,-0.015808000000000003,,,,,,,,,,,,,,,,,,,,,,,,,,,,,,,,,,,,,,,,,,,,,,,,,,,,,,,,,,,,,,,,,
23228,1645583648.163072,1645583648.202569,21.0,0.0,4260.512695,4287.179688,4182.05127,4280.512695,4297.94873,0.0,4.0,91.0,,,,0.0,4.0,2.0,4.0,0.0,4.0,50.0,,,,,,,,,,,,,,,,,,,,,,,,,,,,,,,,,,,,,,,,,,,,,,,,,,,,,,,,,,,,,,,,,,,,,,,,,,,,,,,,,,,,
23229,1645583648.1708882,1645583648.2103848,22.0,0.0,4315.897461,4389.230957,4177.94873,4280.0,4299.487305,0.0,4.0,91.0,,,,0.0,4.0,2.0,4.0,0.0,4.0,50.0,,,,,,,,11.0,0.0,0.568623,-0.19506800000000002,0.647217,0.46875,0.938491,-0.401862,-0.085451,-0.036633,-0.034312999999999996,-0.019013,,,,,,,,,,,,,,,,,,,,,,,,,,,,,,,,,,,0.0,0.0,1.0,0.0,512.0,1.0,,,,,,,,,,,,,,,,,,,,,,,,,
23230,1645583648.1787028,1645583648.218201,23.0,0.0,4342.05127,4508.205078,4191.794922,4278.974121,4297.436035,0.0,4.0,91.0,,,,0.0,4.0,2.0,4.0,0.0,4.0,50.0,,,,,,,,,,,,,,,,,,,,,,,,,,,,,,,,,,,,,,,,,,,,,,,,,,,,,,,,,,,,,,,,,,,,,,,,,,,,,,,,,,,,
23231,1645583648.186519,1645583648.226018,24.0,0.0,4303.589844,4518.461426,4212.307617,4282.563965,4292.307617,0.0,4.0,91.0,,,,0.0,4.0,2.0,4.0,0.0,4.0,50.0,,,,,,,,12.0,0.0,0.568462,-0.19531300000000001,0.647461,0.46850600000000003,0.9365379999999999,-0.372564,-0.07324299999999999,-0.036534,-0.034349,-0.015647,,,,,,,,,,,,,,,,,,,,,,,,,,,,,,,,,,,,,,,,,,,,,,,,,,,,,,,,,,,,,,,,,
23232,1645583648.194335,1645583648.233834,25.0,0.0,4307.179688,4492.820313,4209.743652,4282.563965,4297.94873,0.0,4.0,91.0,,,,0.0,4.0,2.0,4.0,0.0,4.0,50.0,,,,,,,,,,,,,,,,,,,,,,,,,,,,,,,,,,,,,,,,,,,,,,,,,,,,,,,,,,,,,,,,,,,,,,,,,,,,,,,,,,,,
23233,1645583648.20215,1645583648.24155,26.0,0.0,4332.820313,4483.077147999999,4190.769043,4279.487305,4297.94873,0.0,4.0,91.0,,,,0.0,4.0,2.0,4.0,0.0,4.0,50.0,,,,,,,,13.0,0.0,0.568462,-0.19531300000000001,0.647461,0.46850600000000003,0.9272600000000001,-0.386236,-0.09472799999999999,-0.036445,-0.034332,-0.018818,1.0,0.0,0.0,,,,,,,,,,,,,,,,,,,,,,,,,,,,,,,,0.0,0.0,1.0,0.0,512.0,1.0,2.792347,5.373727,2.71352,2.2064529999999998,1.946361,70.971153,92.319748,63.936577,11.429003,21.990528,1.689612,2.3595479999999998,2.908286,0.9121,0.606621,0.006973,0.009207,0.008148,0.010322,0.005982,1.3378510000000001,1.5564129999999998,1.970806,2.2862869999999997,1.901748
23234,1645583648.209966,1645583648.249366,27.0,0.0,4312.307617,4436.922852000001,4190.769043,4279.487305,4279.487305,0.0,4.0,91.0,,,,0.0,4.0,2.0,4.0,0.0,4.0,50.0,,,,,,,,,,,,,,,,,,,,,,,,,,,,,,,,,,,,,,,,,,,,,,,,,,,,,,,,,,,,,,,,,,,,,,,,,,,,,,,,,,,,
23235,1645583648.217782,1645583648.2571821,28.0,0.0,4289.743652,4417.94873,4204.102539,4280.0,4284.615234000001,0.0,4.0,91.0,,,,0.0,4.0,2.0,4.0,0.0,4.0,50.0,,,,,,,,14.0,0.0,0.568462,-0.19531300000000001,0.647461,0.46850600000000003,0.937026,-0.372076,-0.084962,-0.036364999999999995,-0.034317,-0.015472,,,,,,,,,,,,,,,,,,,,,,,,,,,,,,,,,,,,,,,,,,,,,,,,,,,,,,,,,,,,,,,,,
23236,1645583648.2255971,1645583648.264998,29.0,0.0,4291.794922,4479.487305,4200.512695,4279.487305,4311.282227000001,0.0,4.0,91.0,,,,0.0,4.0,2.0,4.0,0.0,4.0,50.0,,,,,,,,,,,,,,,,,,,,,,,,,,,,,,,,,,,,,,,,,,,,,,,,,,,,,,,,,,,,,,,,,,,,,,,,,,,,,,,,,,,,
23237,1645583648.233413,1645583648.272815,30.0,0.0,4318.461426,4466.666504,4199.487305,4278.461426,4308.717772999999,0.0,4.0,91.0,,,,0.0,4.0,2.0,4.0,0.0,4.0,50.0,,,,,,,,15.0,0.0,0.568261,-0.19531300000000001,0.647461,0.46875,0.929702,-0.384283,-0.077638,-0.036342,-0.034352,-0.018759,,,,,,,,,,,,,,,,,,,,,,,,,,,,,,,,,,,0.0,0.0,1.0,0.0,512.0,1.0,,,,,,,,,,,,,,,,,,,,,,,,,
23238,1645583648.2412288,1645583648.280631,31.0,0.0,4347.692383,4348.717772999999,4216.410156,4278.974121,4297.94873,0.0,4.0,91.0,,,,0.0,4.0,2.0,4.0,0.0,4.0,50.0,,,,,,,,,,,,,,,,,,,,,,,,,,,,,,,,,,,,,,,,,,,,,,,,,,,,,,,,,,,,,,,,,,,,,,,,,,,,,,,,,,,,
23239,1645583648.249044,1645583648.2884471,32.0,0.0,4330.256348,4328.205078,4228.717772999999,4278.974121,4310.256348,0.0,4.0,91.0,,,,0.0,4.0,2.0,4.0,0.0,4.0,50.0,,,,,,,,16.0,0.0,0.568539,-0.19531300000000001,0.647217,0.46875,0.9248190000000001,-0.376471,-0.083497,-0.036419,-0.034384,-0.021766,,,,,,,,,,,,,,,,,,,,,,,,,,,,,,,,,,,,,,,,,,,,,,,,,,,,,,,,,,,,,,,,,
23240,1645583648.25686,1645583648.296263,33.0,0.0,4312.307617,4393.846191,4227.692383,4278.974121,4311.282227000001,0.0,4.0,91.0,,,,0.0,4.0,2.0,4.0,0.0,4.0,50.0,,,,,,,,,,,,,,,,,,,,,,,,,,,,,,,,,,,,,,,,,,,,,,,,,,,,,,,,,,,,,,,,,,,,,,,,,,,,,,,,,,,,
23241,1645583648.264676,1645583648.3040788,34.0,0.0,4334.358886999999,4377.94873,4220.512695,4278.974121,4322.563965,0.0,4.0,91.0,,,,0.0,4.0,2.0,4.0,0.0,4.0,50.0,,,,,,,,17.0,0.0,0.568338,-0.19531300000000001,0.647217,0.46899399999999997,0.9267719999999999,-0.38819000000000004,-0.078126,-0.036488,-0.034315,-0.018172999999999998,,,,,,,,,,,,,,,,,,,,,,,,,,,,,,,,,,,0.0,0.0,1.0,0.0,512.0,1.0,,,,,,,,,,,,,,,,,,,,,,,,,
23242,1645583648.272491,1645583648.311995,35.0,0.0,4331.794922,4346.666504,4211.794922,4278.974121,4349.230957,0.0,4.0,91.0,,,,0.0,4.0,2.0,4.0,0.0,4.0,50.0,,,,,,,,,,,,,,,,,,,,,,,,,,,,,,,,,,,,,,,,,,,,,,,,,,,,,,,,,,,,,,,,,,,,,,,,,,,,,,,,,,,,
23243,1645583648.280307,1645583648.3198109,36.0,0.0,4301.538574,4355.384765999999,4209.230957,4278.974121,4334.871582,0.0,4.0,91.0,,,,0.0,4.0,2.0,4.0,0.0,4.0,50.0,,,,,,,,18.0,0.0,0.568261,-0.19531300000000001,0.647461,0.46875,0.929702,-0.384283,-0.077638,-0.036599,-0.034203,-0.021141,,,,,,,,,,,,,,,,,,,,,,,,,,,,,,,,,,,,,,,,,,,,,,,,,,,,,,,,,,,,,,,,,
23244,1645583648.2881231,1645583648.327628,37.0,0.0,4317.436035,4300.0,4208.717772999999,4278.974121,4299.487305,0.0,4.0,91.0,,,,0.0,4.0,2.0,4.0,0.0,4.0,50.0,,,,,,,,,,,,,,,,,,,,,,,,,,,,,,,,,,,,,,,,,,,,,,,,,,,,,,,,,,,,,,,,,,,,,,,,,,,,,,,,,,,,
23245,1645583648.295938,1645583648.335444,38.0,0.0,4338.974121,4193.846191,4207.692383,4278.974121,4306.153809,0.0,4.0,91.0,,,,0.0,4.0,2.0,4.0,0.0,4.0,50.0,,,,,,,,19.0,0.0,0.568338,-0.19531300000000001,0.647217,0.46899399999999997,0.9267719999999999,-0.38819000000000004,-0.078126,-0.03665,-0.034151999999999995,-0.017611,,,,,,,,,,,,,,,,,,,,,,,,,,,,,,,,,,,0.0,0.0,1.0,0.0,512.0,1.0,,,,,,,,,,,,,,,,,,,,,,,,,
23246,1645583648.3037539,1645583648.34336,39.0,0.0,4313.333496,4086.1538090000004,4207.692383,4278.974121,4316.922852000001,0.0,4.0,91.0,,,,0.0,4.0,2.0,4.0,0.0,4.0,50.0,,,,,,,,,,,,,,,,,,,,,,,,,,,,,,,,,,,,,,,,,,,,,,,,,,,,,,,,,,,,,,,,,,,,,,,,,,,,,,,,,,,,
23247,1645583648.31157,1645583648.351177,40.0,0.0,4294.358886999999,4015.897461,4202.563965,4278.974121,4289.230957,0.0,4.0,91.0,,,,0.0,4.0,2.0,4.0,0.0,4.0,50.0,,,,,,,,20.0,0.0,0.568422,-0.19506800000000002,0.647217,0.46899399999999997,0.921401,-0.398444,-0.095705,-0.036696,-0.034253,-0.014385,,,,,,,,,,,,,,,,,,,,,,,,,,,,,,,,,,,,,,,,,,,,,,,,,,,,,,,,,,,,,,,,,
23248,1645583648.319385,1645583648.358993,41.0,0.0,4309.743652,4057.9487299999996,4202.563965,4278.461426,4280.512695,0.0,4.0,91.0,,,,0.0,4.0,2.0,4.0,0.0,4.0,50.0,,,,,,,,,,,,,,,,,,,,,,,,,,,,,,,,,,,,,,,,,,,,,,,,,,,,,,,,,,,,,,,,,,,,,,,,,,,,,,,,,,,,
23249,1645583648.327201,1645583648.366809,42.0,0.0,4322.563965,4135.897461,4207.179688,4280.0,4304.102539,0.0,4.0,91.0,,,,0.0,4.0,2.0,4.0,0.0,4.0,50.0,,,,,,,,21.0,0.0,0.568505,-0.194824,0.647217,0.46899399999999997,0.9267719999999999,-0.389654,-0.085939,-0.036738,-0.034197000000000005,-0.017731999999999998,1.0,0.0,0.0,,,,,,,,,,,,,,,,,,,,,,,,,,,,,,,,0.0,0.0,1.0,0.0,512.0,1.0,2.879289,4.298399,2.677306,2.167493,1.9804709999999999,71.731522,94.58575400000001,68.612892,12.717951,21.320148,1.5923,2.06262,2.907737,0.889767,0.617049,0.007273999999999999,0.009993,0.008954,0.012381,0.007285,1.432736,1.8687330000000002,2.7203720000000002,2.41777,1.828568
23250,1645583648.335017,1645583648.374625,43.0,0.0,4315.384765999999,4163.589844,4200.512695,4280.0,4328.717772999999,0.0,4.0,91.0,,,,0.0,4.0,2.0,4.0,0.0,4.0,50.0,,,,,,,,,,,,,,,,,,,,,,,,,,,,,,,,,,,,,,,,,,,,,,,,,,,,,,,,,,,,,,,,,,,,,,,,,,,,,,,,,,,,
23251,1645583648.342832,1645583648.382442,44.0,0.0,4314.871582,4182.563965,4186.666504,4274.871582,4335.384765999999,0.0,4.0,91.0,,,,0.0,4.0,2.0,4.0,0.0,4.0,50.0,,,,,,,,22.0,0.0,0.5681930000000001,-0.19433599999999998,0.647461,0.469238,0.9282370000000001,-0.39942,-0.085451,-0.036726,-0.034145999999999996,-0.014542,,,,,,,,,,,,,,,,,,,,,,,,,,,,,,,,,,,,,,,,,,,,,,,,,,,,,,,,,,,,,,,,,
23252,1645583648.3506482,1645583648.390258,45.0,0.0,4318.974121,4198.461426,4187.179688,4270.256348,4307.179688,0.0,4.0,91.0,,,,0.0,4.0,2.0,4.0,0.0,4.0,50.0,,,,,,,,,,,,,,,,,,,,,,,,,,,,,,,,,,,,,,,,,,,,,,,,,,,,,,,,,,,,,,,,,,,,,,,,,,,,,,,,,,,,
23253,1645583648.358464,1645583648.398074,46.0,0.0,4306.666504,4162.563965,4200.0,4275.384765999999,4280.512695,0.0,4.0,91.0,,,,0.0,4.0,2.0,4.0,0.0,4.0,50.0,,,,,,,,23.0,0.0,0.5681649999999999,-0.193604,0.647705,0.469238,0.917983,-0.393561,-0.066896,-0.036569,-0.034052,-0.017873,,,,,,,,,,,,,,,,,,,,,,,,,,,,,,,,,,,0.0,0.0,1.0,0.0,512.0,1.0,,,,,,,,,,,,,,,,,,,,,,,,,
23254,1645583648.366279,1645583648.405891,47.0,0.0,4298.974121,4081.025635,4210.256348,4279.487305,4294.358886999999,0.0,4.0,91.0,,,,0.0,4.0,2.0,4.0,0.0,4.0,50.0,,,,,,,,,,,,,,,,,,,,,,,,,,,,,,,,,,,,,,,,,,,,,,,,,,,,,,,,,,,,,,,,,,,,,,,,,,,,,,,,,,,,
23255,1645583648.374095,1645583648.413807,48.0,0.0,4315.897461,4002.0512700000004,4213.846191,4274.871582,4294.871582,0.0,4.0,91.0,,,,0.0,4.0,2.0,4.0,0.0,4.0,50.0,,,,,,,,24.0,0.0,0.568136,-0.19287100000000001,0.647949,0.469238,0.9272600000000001,-0.387701,-0.086427,-0.036574,-0.034065,-0.014621,,,,,,,,,,,,,,,,,,,,,,,,,,,,,,,,,,,,,,,,,,,,,,,,,,,,,,,,,,,,,,,,,
23256,1645583648.381911,1645583648.421624,49.0,0.0,4323.589844,4013.3332520000004,4200.512695,4270.769043,4263.589844,0.0,4.0,91.0,,,,0.0,4.0,2.0,4.0,0.0,4.0,50.0,,,,,,,,,,,,,,,,,,,,,,,,,,,,,,,,,,,,,,,,,,,,,,,,,,,,,,,,,,,,,,,,,,,,,,,,,,,,,,,,,,,,
23257,1645583648.3897269,1645583648.42944,50.0,0.0,4301.538574,4097.94873,4189.743652,4273.846191,4271.282227000001,0.0,4.0,91.0,,,,0.0,4.0,2.0,4.0,0.0,4.0,50.0,,,,,,,,25.0,0.0,0.568105,-0.192139,0.648193,0.469238,0.9355610000000001,-0.390631,-0.076661,-0.036627999999999994,-0.034223,-0.017847,,,,,,,,,,,,,,,,,,,,,,,,,,,,,,,,,,,0.0,0.0,1.0,0.0,512.0,1.0,,,,,,,,,,,,,,,,,,,,,,,,,
23258,1645583648.397542,1645583648.437257,51.0,0.0,4302.563965,4125.128418,4202.563965,4272.307617,4317.94873,0.0,4.0,91.0,,,,0.0,4.0,2.0,4.0,0.0,4.0,50.0,,,,,,,,,,,,,,,,,,,,,,,,,,,,,,,,,,,,,,,,,,,,,,,,,,,,,,,,,,,,,,,,,,,,,,,,,,,,,,,,,,,,
23259,1645583648.405358,1645583648.4450731,52.0,0.0,4318.461426,4101.025879,4207.692383,4269.230957,4329.743652,0.0,4.0,91.0,,,,0.0,4.0,2.0,4.0,0.0,4.0,50.0,,,,,,,,26.0,0.0,0.568188,-0.191895,0.648193,0.469238,0.923842,-0.39697899999999997,-0.075196,-0.036676,-0.034121,-0.014695,,,,,,,,,,,,,,,,,,,,,,,,,,,,,,,,,,,,,,,,,,,,,,,,,,,,,,,,,,,,,,,,,
23260,1645583648.413174,1645583648.4528902,53.0,0.0,4302.563965,4088.718018,4194.871582,4276.410156,4303.077147999999,0.0,4.0,91.0,,,,0.0,4.0,2.0,4.0,0.0,4.0,50.0,,,,,,,,,,,,,,,,,,,,,,,,,,,,,,,,,,,,,,,,,,,,,,,,,,,,,,,,,,,,,,,,,,,,,,,,,,,,,,,,,,,,
23261,1645583648.420989,1645583648.460707,54.0,0.0,4288.205078,4126.153809,4190.256348,4280.512695,4295.384765999999,0.0,4.0,91.0,,,,0.0,4.0,2.0,4.0,0.0,4.0,50.0,,,,,,,,27.0,0.0,0.568503,-0.192383,0.647949,0.46899399999999997,0.9331200000000001,-0.379889,-0.078126,-0.036622,-0.034176,-0.018011000000000003,,,,,,,,,,,,,,,,,,,,,,,,,,,,,,,,,,,0.0,0.0,1.0,0.0,512.0,1.0,,,,,,,,,,,,,,,,,,,,,,,,,
23262,1645583648.428805,1645583648.468523,55.0,0.0,4307.692383,4151.282227000001,4197.94873,4273.333496,4316.922852000001,0.0,4.0,91.0,,,,0.0,4.0,2.0,4.0,0.0,4.0,50.0,,,,,,,,,,,,,,,,,,,,,,,,,,,,,,,,,,,,,,,,,,,,,,,,,,,,,,,,,,,,,,,,,,,,,,,,,,,,,,,,,,,,
23263,1645583648.4366212,1645583648.47634,56.0,0.0,4323.589844,4105.128418,4206.153809,4269.743652,4322.563965,0.0,4.0,91.0,,,,0.0,4.0,2.0,4.0,0.0,4.0,50.0,,,,,,,,28.0,0.0,0.5685319999999999,-0.193115,0.647705,0.46899399999999997,0.9365379999999999,-0.36914600000000003,-0.093751,-0.036670999999999995,-0.034323,-0.020897,,,,,,,,,,,,,,,,,,,,,,,,,,,,,,,,,,,,,,,,,,,,,,,,,,,,,,,,,,,,,,,,,
23264,1645583648.4444358,1645583648.484256,57.0,0.0,4325.641113000001,4138.461426,4216.410156,4273.333496,4303.077147999999,0.0,4.0,91.0,,,,0.0,4.0,2.0,4.0,0.0,4.0,50.0,,,,,,,,,,,,,,,,,,,,,,,,,,,,,,,,,,,,,,,,,,,,,,,,,,,,,,,,,,,,,,,,,,,,,,,,,,,,,,,,,,,,
23265,1645583648.452252,1645583648.492073,58.0,0.0,4324.615234000001,4329.230957,4206.153809,4272.820313,4290.769043,0.0,4.0,91.0,,,,0.0,4.0,2.0,4.0,0.0,4.0,50.0,,,,,,,,29.0,0.0,0.568638,-0.193848,0.647217,0.469238,0.936049,-0.361822,-0.096193,-0.036666000000000004,-0.034406,-0.023641,1.0,0.0,0.0,,,,,,,,,,,,,,,,,,,,,,,,,,,,,,,,0.0,0.0,1.0,0.0,512.0,1.0,2.922104,3.41929,2.581553,2.2122599999999997,1.977364,76.597939,94.068558,70.07249499999999,15.398487,19.974113,1.7037369999999998,1.8280610000000002,2.728852,0.842873,0.6430560000000001,0.009294,0.011689,0.010408,0.014343999999999999,0.009272,1.57071,2.20155,3.5008790000000003,2.649334,1.742031
23266,1645583648.460068,1645583648.4998891,59.0,0.0,4308.205078,4444.102539,4189.743652,4271.794922,4285.128418,0.0,4.0,91.0,,,,0.0,4.0,2.0,4.0,0.0,4.0,50.0,,,,,,,,,,,,,,,,,,,,,,,,,,,,,,,,,,,,,,,,,,,,,,,,,,,,,,,,,,,,,,,,,,,,,,,,,,,,,,,,,,,,
23267,1645583648.467883,1645583648.5077062,60.0,0.0,4306.666504,4380.512695,4202.563965,4272.307617,4299.487305,0.0,4.0,91.0,,,,0.0,4.0,2.0,4.0,0.0,4.0,50.0,,,,,,,,30.0,0.0,0.5683729999999999,-0.19506800000000002,0.646729,0.46972700000000006,0.925795,-0.372564,-0.11035299999999999,-0.036612,-0.034481,-0.026111000000000002,,,,,,,,,,,,,,,,,,,,,,,,,,,,,,,,,,,,,,,,,,,,,,,,,,,,,,,,,,,,,,,,,
23268,1645583648.475699,1645583648.515522,61.0,0.0,4320.0,4359.487305,4207.179688,4272.307617,4326.153809,0.0,4.0,91.0,,,,0.0,4.0,2.0,4.0,0.0,4.0,50.0,,,,,,,,,,,,,,,,,,,,,,,,,,,,,,,,,,,,,,,,,,,,,,,,,,,,,,,,,,,,,,,,,,,,,,,,,,,,,,,,,,,,
23269,1645583648.483514,1645583648.523339,62.0,0.0,4314.358886999999,4429.230957,4183.077147999999,4276.410156,4310.256348,0.0,4.0,91.0,,,,0.0,4.0,2.0,4.0,0.0,4.0,50.0,,,,,,,,31.0,0.0,0.568113,-0.196045,0.6464840000000001,0.469971,0.9233540000000001,-0.398932,-0.099123,-0.036516,-0.0345,-0.028285,,,,,,,,,,,,,,,,,,,,,,,,,,,,,,,,,,,0.0,0.0,1.0,0.0,512.0,1.0,,,,,,,,,,,,,,,,,,,,,,,,,
23270,1645583648.4913301,1645583648.531155,63.0,0.0,4308.205078,4517.94873,4177.436035,4277.436035,4287.179688,0.0,4.0,91.0,,,,0.0,4.0,2.0,4.0,0.0,4.0,50.0,,,,,,,,,,,,,,,,,,,,,,,,,,,,,,,,,,,,,,,,,,,,,,,,,,,,,,,,,,,,,,,,,,,,,,,,,,,,,,,,,,,,
23271,1645583648.499146,1645583648.5389721,64.0,0.0,4328.205078,4648.717772999999,4201.538574,4271.794922,4295.384765999999,450.0,4.0,91.0,,,,0.0,4.0,2.0,4.0,0.0,4.0,50.0,,,,,,,,32.0,0.0,0.56817,-0.197266,0.6462399999999999,0.46972700000000006,0.937026,-0.413092,-0.099611,-0.036624000000000004,-0.034468,-0.023992,,,,,,,,,,,,,,,,,,,,,,,,,,,,,,,,,,,,,,,,,,,,,,,,,,,,,,,,,,,,,,,,,
23272,1645583648.5069609,1645583648.5467892,65.0,0.0,4337.94873,4740.0,4213.846191,4270.769043,4299.487305,450.0,4.0,91.0,,,,0.0,4.0,2.0,4.0,0.0,4.0,50.0,,,,,,,,,,,,,,,,,,,,,,,,,,,,,,,,,,,,,,,,,,,,,,,,,,,,,,,,,,,,,,,,,,,,,,,,,,,,,,,,,,,,
23273,1645583648.514777,1645583648.554605,66.0,0.0,4307.179688,4729.230957,4208.205078,4273.846191,4295.384765999999,16218.0,4.0,91.0,,,,0.0,4.0,2.0,4.0,0.0,4.0,50.0,,,,,,,,33.0,0.0,0.567946,-0.198486,0.6462399999999999,0.46948199999999995,0.9350729999999999,-0.400397,-0.10351700000000001,-0.036575,-0.03439,-0.020128,,,,,,,,,,,,,,,,,,,,,,,,,,,,,,,,,,,0.0,0.0,1.0,0.0,512.0,1.0,,,,,,,,,,,,,,,,,,,,,,,,,
23274,1645583648.522593,1645583648.5623212,67.0,0.0,4286.666504,4703.589844,4209.230957,4272.820313,4292.820313,450.0,4.0,91.0,,,,0.0,4.0,2.0,4.0,0.0,4.0,50.0,,,,,,,,,,,,,,,,,,,,,,,,,,,,,,,,,,,,,,,,,,,,,,,,,,,,,,,,,,,,,,,,,,,,,,,,,,,,,,,,,,,,
23275,1645583648.530409,1645583648.570138,68.0,0.0,4298.974121,4704.102539,4205.128418,4271.282227000001,4271.794922,228.0,4.0,91.0,,,,0.0,4.0,2.0,4.0,0.0,4.0,50.0,,,,,,,,34.0,0.0,0.56772,-0.199707,0.6462399999999999,0.469238,0.93019,-0.39942,-0.08447400000000001,-0.03658,-0.034418000000000004,-0.0229,,,,,,,,,,,,,,,,,,,,,,,,,,,,,,,,,,,,,,,,,,,,,,,,,,,,,,,,,,,,,,,,,
23276,1645583648.538224,1645583648.5779538,69.0,0.0,4301.025879,4690.769043,4195.384765999999,4272.820313,4262.563965,450.0,4.0,91.0,,,,0.0,4.0,2.0,4.0,0.0,4.0,50.0,,,,,,,,,,,,,,,,,,,,,,,,,,,,,,,,,,,,,,,,,,,,,,,,,,,,,,,,,,,,,,,,,,,,,,,,,,,,,,,,,,,,
23277,1645583648.54604,1645583648.58577,70.0,0.0,4284.102539,4732.820313,4196.410156,4273.333496,4291.794922,16208.0,4.0,91.0,,,,0.0,4.0,2.0,4.0,0.0,4.0,50.0,,,,,,,,35.0,0.0,0.567577,-0.200684,0.6462399999999999,0.46899399999999997,0.9277489999999999,-0.37891199999999997,-0.076661,-0.036535000000000005,-0.034345,-0.019194,,,,,,,,,,,,,,,,,,,,,,,,,,,,,,,,,,,0.0,0.0,1.0,0.0,512.0,1.0,,,,,,,,,,,,,,,,,,,,,,,,,
23278,1645583648.5538561,1645583648.593587,71.0,0.0,4278.461426,4803.077147999999,4191.282227000001,4272.820313,4309.743652,450.0,4.0,91.0,,,,0.0,4.0,2.0,4.0,0.0,4.0,50.0,,,,,,,,,,,,,,,,,,,,,,,,,,,,,,,,,,,,,,,,,,,,,,,,,,,,,,,,,,,,,,,,,,,,,,,,,,,,,,,,,,,,
23279,1645583648.561671,1645583648.601403,72.0,0.0,4286.666504,4756.410156,4188.717772999999,4272.307617,4301.538574,450.0,4.0,91.0,,,,0.0,4.0,2.0,4.0,0.0,4.0,50.0,,,,,,,,36.0,0.0,0.567509,-0.20165999999999998,0.645996,0.46899399999999997,0.923842,-0.381842,-0.08203300000000001,-0.036544,-0.034427,-0.021962,,,,,,,,,,,,,,,,,,,,,,,,,,,,,,,,,,,,,,,,,,,,,,,,,,,,,,,,,,,,,,,,,
23280,1645583648.5694869,1645583648.6092188,73.0,0.0,4301.025879,4685.128418,4203.589844,4272.307617,4286.666504,0.0,4.0,91.0,,,,0.0,4.0,2.0,4.0,0.0,4.0,50.0,,,,,,,,,,,,,,,,,,,,,,,,,,,,,,,,,,,,,,,,,,,,,,,,,,,,,,,,,,,,,,,,,,,,,,,,,,,,,,,,,,,,
23281,1645583648.577303,1645583648.6170359,74.0,0.0,4320.512695,4731.794922,4208.205078,4272.307617,4276.410156,450.0,4.0,91.0,,,,0.0,4.0,2.0,4.0,0.0,4.0,50.0,1.0,33.333332,4.0,0.0,4.0,0.0,4.0,37.0,0.0,0.567248,-0.20239300000000002,0.645996,0.46899399999999997,0.916518,-0.383307,-0.07910299999999999,-0.036454,-0.034352999999999995,-0.018253,1.0,0.0,0.0,,,,,,,,,,,,,,,,,,,,,,,,,,,,,,,,0.0,0.0,1.0,0.0,512.0,1.0,2.933295,2.866004,2.46408,2.321812,1.950704,84.324554,88.402275,71.945717,18.798815,18.078943,2.078027,1.7253450000000001,2.437011,0.81635,0.680728,0.013831,0.014781,0.012398000000000001,0.016678,0.012218999999999999,1.888985,2.465439,4.064732,2.924509,1.6821560000000002
23282,1645583648.585118,1645583648.624852,75.0,0.0,4310.256348,4802.563965,4197.436035,4272.307617,4266.153809,16183.0,4.0,91.0,,,,0.0,4.0,2.0,4.0,0.0,4.0,50.0,,,,,,,,,,,,,,,,,,,,,,,,,,,,,,,,,,,,,,,,,,,,,,,,,,,,,,,,,,,,,,,,,,,,,,,,,,,,,,,,,,,,
23283,1645583648.592934,1645583648.632768,76.0,0.0,4275.384765999999,4808.717772999999,4190.769043,4272.307617,4244.615234000001,450.0,4.0,91.0,,,,0.0,4.0,2.0,4.0,0.0,4.0,50.0,,,,,,,,38.0,0.0,0.5676680000000001,-0.203125,0.645752,0.46850600000000003,0.925795,-0.381842,-0.064454,-0.036422,-0.034287,-0.021261000000000002,,,,,,,,,,,,,,,,,,,,,,,,,,,,,,,,,,,,,,,,,,,,,,,,,,,,,,,,,,,,,,,,,
23284,1645583648.60075,1645583648.640585,77.0,0.0,4270.769043,4831.282227000001,4198.461426,4272.307617,4237.436035,450.0,4.0,91.0,,,,0.0,4.0,2.0,4.0,0.0,4.0,50.0,,,,,,,,,,,,,,,,,,,,,,,,,,,,,,,,,,,,,,,,,,,,,,,,,,,,,,,,,,,,,,,,,,,,,,,,,,,,,,,,,,,,
23285,1645583648.608565,1645583648.648402,78.0,0.0,4293.846191,4872.307617,4213.333496,4272.307617,4256.410156,450.0,4.0,91.0,,,,0.0,4.0,2.0,4.0,0.0,4.0,50.0,,,,,,,,39.0,0.0,0.567782,-0.203369,0.645752,0.468262,0.932143,-0.379889,-0.086427,-0.036491,-0.034032,-0.017669999999999998,,,,,,,,,,,,,,,,,,,,,,,,,,,,,,,,,,,0.0,0.0,1.0,0.0,512.0,1.0,,,,,,,,,,,,,,,,,,,,,,,,,
23286,1645583648.6163812,1645583648.656218,79.0,0.0,4305.128418,4921.538574,4205.641113000001,4272.307617,4274.358886999999,16183.0,4.0,91.0,,,,0.0,4.0,2.0,4.0,0.0,4.0,50.0,,,,,,,,,,,,,,,,,,,,,,,,,,,,,,,,,,,,,,,,,,,,,,,,,,,,,,,,,,,,,,,,,,,,,,,,,,,,,,,,,,,,
23287,1645583648.624197,1645583648.6640348,80.0,0.0,4288.205078,4998.974121,4172.820313,4272.307617,4274.358886999999,450.0,4.0,91.0,,,,0.0,4.0,2.0,4.0,0.0,4.0,50.0,,,,,,,,40.0,0.0,0.5680970000000001,-0.20361300000000002,0.645752,0.46777299999999994,0.928725,-0.367193,-0.07470800000000001,-0.036601,-0.033998,-0.020786000000000002,,,,,,,,,,,,,,,,,,,,,,,,,,,,,,,,,,,,,,,,,,,,,,,,,,,,,,,,,,,,,,,,,
23288,1645583648.632012,1645583648.671851,81.0,0.0,4265.128418,5074.358886999999,4176.922852000001,4272.307617,4268.717772999999,450.0,4.0,91.0,,,,0.0,4.0,2.0,4.0,0.0,4.0,50.0,,,,,,,,,,,,,,,,,,,,,,,,,,,,,,,,,,,,,,,,,,,,,,,,,,,,,,,,,,,,,,,,,,,,,,,,,,,,,,,,,,,,
23289,1645583648.639828,1645583648.679668,82.0,0.0,4263.077147999999,5179.487305,4210.256348,4272.307617,4263.589844,450.0,4.0,91.0,,,,0.0,4.0,2.0,4.0,0.0,4.0,50.0,,,,,,,,41.0,0.0,0.56821,-0.20385699999999998,0.645752,0.467529,0.9150530000000001,-0.367193,-0.08838,-0.036555000000000004,-0.034016000000000005,-0.017243,,,,,,,,,,,,,,,,,,,,,,,,,,,,,,,,,,,0.0,0.0,1.0,0.0,512.0,1.0,,,,,,,,,,,,,,,,,,,,,,,,,
23290,1645583648.647644,1645583648.687484,83.0,0.0,4293.333496,5305.128418,4213.846191,4272.307617,4254.358886999999,16183.0,4.0,91.0,,,,0.0,4.0,2.0,4.0,0.0,4.0,50.0,,,,,,,,,,,,,,,,,,,,,,,,,,,,,,,,,,,,,,,,,,,,,,,,,,,,,,,,,,,,,,,,,,,,,,,,,,,,,,,,,,,,
23291,1645583648.655459,1645583648.695301,84.0,0.0,4323.077147999999,5434.358886999999,4198.974121,4272.307617,4248.205078,450.0,4.0,91.0,,,,0.0,4.0,2.0,4.0,0.0,4.0,50.0,,,,,,,,42.0,0.0,0.568612,-0.20385699999999998,0.645752,0.467041,0.9331200000000001,-0.372076,-0.081544,-0.036463999999999996,-0.033984,-0.020255000000000002,,,,,,,,,,,,,,,,,,,,,,,,,,,,,,,,,,,,,,,,,,,,,,,,,,,,,,,,,,,,,,,,,
23292,1645583648.663275,1645583648.703117,85.0,0.0,4315.384765999999,5609.743652,4189.743652,4272.307617,4258.461426,450.0,4.0,91.0,,,,0.0,4.0,2.0,4.0,0.0,4.0,50.0,,,,,,,,,,,,,,,,,,,,,,,,,,,,,,,,,,,,,,,,,,,,,,,,,,,,,,,,,,,,,,,,,,,,,,,,,,,,,,,,,,,,
23293,1645583648.671091,1645583648.710834,86.0,0.0,4290.256348,5808.205078,4183.589844,4272.307617,4259.487305,450.0,4.0,91.0,,,,0.0,4.0,2.0,4.0,0.0,4.0,50.0,,,,,,,,43.0,0.0,0.568812,-0.20385699999999998,0.645752,0.466797,0.932631,-0.36035700000000004,-0.066896,-0.036333,-0.033955,-0.023015,,,,,,,,,,,,,,,,,,,,,,,,,,,,,,,,,,,0.0,0.0,1.0,0.0,512.0,1.0,,,,,,,,,,,,,,,,,,,,,,,,,
23294,1645583648.678906,1645583648.71865,87.0,0.0,4278.461426,5995.384765999999,4177.94873,4272.307617,4240.512695,16183.0,4.0,91.0,,,,0.0,4.0,2.0,4.0,0.0,4.0,50.0,,,,,,,,,,,,,,,,,,,,,,,,,,,,,,,,,,,,,,,,,,,,,,,,,,,,,,,,,,,,,,,,,,,,,,,,,,,,,,,,,,,,
23295,1645583648.686722,1645583648.726466,88.0,0.0,4261.538574,6170.769043,4168.205078,4272.307617,4239.487305,450.0,4.0,91.0,,,,0.0,4.0,2.0,4.0,0.0,4.0,50.0,,,,,,,,44.0,0.0,0.568823,-0.20361300000000002,0.645996,0.466553,0.9355610000000001,-0.36084499999999997,-0.072755,-0.036313,-0.033928,-0.025498,,,,,,,,,,,,,,,,,,,,,,,,,,,,,,,,,,,,,,,,,,,,,,,,,,,,,,,,,,,,,,,,,
23296,1645583648.694538,1645583648.734282,89.0,0.0,4239.487305,6266.666504,4167.179688,4272.307617,4244.102539,450.0,4.0,91.0,,,,0.0,4.0,2.0,4.0,0.0,4.0,50.0,,,,,,,,,,,,,,,,,,,,,,,,,,,,,,,,,,,,,,,,,,,,,,,,,,,,,,,,,,,,,,,,,,,,,,,,,,,,,,,,,,,,
23297,1645583648.702353,1645583648.742098,90.0,0.0,4248.205078,6304.102539,4174.358886999999,4272.307617,4243.077147999999,450.0,4.0,91.0,,,,0.0,4.0,2.0,4.0,0.0,4.0,50.0,,,,,,,,45.0,0.0,0.568612,-0.20385699999999998,0.645752,0.467041,0.9331200000000001,-0.372076,-0.081544,-0.036344,-0.033856,-0.021581,1.0,0.0,0.0,,,,,,,,,,,,,,,,,,,,,,,,,,,,,,,,0.0,0.0,1.0,0.0,1.0,0.0,2.9847639999999998,2.586185,2.424309,2.4430709999999998,1.922409,94.055878,77.62571,77.710365,22.53443,15.914862,2.705034,1.74993,2.129553,0.838808,0.720221,0.021214,0.019452,0.014863999999999999,0.020328,0.016782,2.547663,2.602533,4.346592,3.150041,1.683272
