,Timestamp,OriginalTimestamp,EEG.Counter,EEG.Interpolated,EEG.AF3,EEG.T7,EEG.Pz,EEG.T8,EEG.AF4,EEG.RawCq,EEG.Battery,EEG.BatteryPercent,MarkerIndex,MarkerType,MarkerValueInt,EEG.MarkerHardware,CQ.AF3,CQ.T7,CQ.Pz,CQ.T8,CQ.AF4,CQ.Overall,EQ.SampleRateQuality,EQ.OVERALL,EQ.AF3,EQ.T7,EQ.Pz,EQ.T8,EQ.AF4,MOT.CounterMems,MOT.InterpolatedMems,MOT.Q0,MOT.Q1,MOT.Q2,MOT.Q3,MOT.AccX,MOT.AccY,MOT.AccZ,MOT.MagX,MOT.MagY,MOT.MagZ,MC.Action,MC.ActionPower,MC.IsActive,PM.Engagement.IsActive,PM.Engagement.Scaled,PM.Engagement.Raw,PM.Engagement.Min,PM.Engagement.Max,PM.Excitement.IsActive,PM.Excitement.Scaled,PM.Excitement.Raw,PM.Excitement.Min,PM.Excitement.Max,PM.LongTermExcitement,PM.Stress.IsActive,PM.Stress.Scaled,PM.Stress.Raw,PM.Stress.Min,PM.Stress.Max,PM.Relaxation.IsActive,PM.Relaxation.Scaled,PM.Relaxation.Raw,PM.Relaxation.Min,PM.Relaxation.Max,PM.Interest.IsActive,PM.Interest.Scaled,PM.Interest.Raw,PM.Interest.Min,PM.Interest.Max,PM.Focus.IsActive,PM.Focus.Scaled,PM.Focus.Raw,PM.Focus.Min,PM.Focus.Max,FE.BlinkWink,FE.HorizontalEyesDirection,FE.UpperFaceAction,FE.UpperFaceActionPower,FE.LowerFaceAction,FE.LowerFaceActionPower,POW.AF3.Theta,POW.AF3.Alpha,POW.AF3.BetaL,POW.AF3.BetaH,POW.AF3.Gamma,POW.T7.Theta,POW.T7.Alpha,POW.T7.BetaL,POW.T7.BetaH,POW.T7.Gamma,POW.Pz.Theta,POW.Pz.Alpha,POW.Pz.BetaL,POW.Pz.BetaH,POW.Pz.Gamma,POW.T8.Theta,POW.T8.Alpha,POW.T8.BetaL,POW.T8.BetaH,POW.T8.Gamma,POW.AF4.Theta,POW.AF4.Alpha,POW.AF4.BetaL,POW.AF4.BetaH,POW.AF4.Gamma
29024,1645901128.441386,1645901128.471153,15.0,0.0,4377.436035,4474.871582,4259.487305,4168.717772999999,4331.282227000001,16267.0,1.0,15.0,,,,0.0,4.0,2.0,2.0,4.0,4.0,66.666664,,,,,,,,,,,,,,,,,,,,,,,,,,,,,,,,,,,,,,,,,,,,,,,,,,,,,,,,,,,,,,,,,,,,,,,,,,,,,,,,,,,,
29025,1645901128.4492,1645901128.478968,16.0,0.0,4390.256348,4415.897461,4243.589844,4141.538574,4353.333496,0.0,1.0,15.0,,,,0.0,4.0,2.0,2.0,4.0,4.0,66.666664,,,,,,,,8.0,0.0,0.707801,0.100586,0.672852,0.190186,0.922866,-0.416022,-0.062989,-0.024257,-0.035344,-0.011311,,,,,,,,,,,,,,,,,,,,,,,,,,,,,,,,,,,,,,,,,,,,,,,,,,,,,,,,,,,,,,,,,
29026,1645901128.4570131,1645901128.486782,17.0,0.0,4392.820313,4506.666504,4230.256348,4159.487305,4371.794922,0.0,1.0,15.0,,,,0.0,4.0,2.0,2.0,4.0,4.0,66.666664,,,,,,,,,,,,,,,,,,,,,,,,,,,,,,,,,,,,,,,,,,,,,,,,,,,,,,,,,,,,,,,,,,,,,,,,,,,,,,,,,,,,
29027,1645901128.464827,1645901128.494597,18.0,0.0,4389.230957,4492.307617,4214.871582,4171.794922,4335.897461,0.0,1.0,15.0,,,,0.0,4.0,2.0,2.0,4.0,4.0,66.666664,,,,,,,,9.0,0.0,0.707767,0.10082999999999999,0.672852,0.190186,0.909682,-0.41455699999999995,-0.071778,-0.025005,-0.035276999999999996,-0.009253,,,,,,,,,,,,,,,,,,,,,,,,,,,,,,,,,,,0.0,0.0,1.0,0.0,512.0,1.0,,,,,,,,,,,,,,,,,,,,,,,,,
29028,1645901128.47264,1645901128.5024118,19.0,0.0,4390.769043,4332.307617,4162.563965,4140.512695,4323.589844,0.0,1.0,15.0,,,,0.0,4.0,2.0,2.0,4.0,4.0,66.666664,,,,,,,,,,,,,,,,,,,,,,,,,,,,,,,,,,,,,,,,,,,,,,,,,,,,,,,,,,,,,,,,,,,,,,,,,,,,,,,,,,,,
29029,1645901128.480454,1645901128.510226,20.0,0.0,4395.897461,4336.410156,4187.692383,4148.205078,4347.692383,0.0,1.0,15.0,,,,0.0,4.0,2.0,2.0,4.0,4.0,66.666664,,,,,,,,10.0,0.0,0.707797,0.101074,0.672852,0.189941,0.917494,-0.404303,-0.085451,-0.025679,-0.035167000000000004,-0.0073019999999999995,,,,,,,,,,,,,,,,,,,,,,,,,,,,,,,,,,,,,,,,,,,,,,,,,,,,,,,,,,,,,,,,,
29030,1645901128.488268,1645901128.5180411,21.0,0.0,4386.666504,4434.358886999999,4230.256348,4169.743652,4326.666504,0.0,1.0,15.0,,,,0.0,4.0,2.0,2.0,4.0,4.0,66.666664,,,,,,,,,,,,,,,,,,,,,,,,,,,,,,,,,,,,,,,,,,,,,,,,,,,,,,,,,,,,,,,,,,,,,,,,,,,,,,,,,,,,
29031,1645901128.496081,1645901128.525856,22.0,0.0,4366.153809,4406.153809,4182.563965,4162.563965,4303.077147999999,0.0,1.0,15.0,,,,0.0,4.0,2.0,2.0,4.0,4.0,66.666664,1.0,0.0,0.0,0.0,0.0,2.0,4.0,11.0,0.0,0.707863,0.101074,0.672852,0.189697,0.921401,-0.409186,-0.078126,-0.02316,-0.035117,-0.008768999999999999,1.0,0.0,0.0,,,,,,,,,,,,,,,,,,,,,,,,,,,,,,,,0.0,0.0,1.0,0.0,512.0,1.0,6.550596,5.270492,2.924249,2.560434,1.752938,37.535140999999996,49.196045,13.95491,27.311539,22.811319,43.996208,38.228436,7.914603,4.715008999999999,9.016655,8.214827,7.461301,7.040446,5.896585,2.476658,5.592969,2.6615189999999997,4.54976,2.106107,1.347278
29032,1645901128.5038948,1645901128.53367,23.0,0.0,4352.307617,4333.333496,4164.615234000001,4143.589844,4305.641113000001,0.0,1.0,15.0,,,,0.0,4.0,2.0,2.0,4.0,4.0,66.666664,,,,,,,,,,,,,,,,,,,,,,,,,,,,,,,,,,,,,,,,,,,,,,,,,,,,,,,,,,,,,,,,,,,,,,,,,,,,,,,,,,,,
29033,1645901128.511708,1645901128.541385,24.0,0.0,4366.153809,4379.487305,4262.05127,4152.820313,4303.077147999999,0.0,1.0,15.0,,,,0.0,4.0,2.0,2.0,4.0,4.0,66.666664,,,,,,,,12.0,0.0,0.708095,0.101074,0.672607,0.189697,0.9160299999999999,-0.41699899999999995,-0.076661,-0.020891999999999997,-0.035121,-0.010041,,,,,,,,,,,,,,,,,,,,,,,,,,,,,,,,,,,,,,,,,,,,,,,,,,,,,,,,,,,,,,,,,
29034,1645901128.519522,1645901128.5492,25.0,0.0,4375.384765999999,4423.077147999999,4236.922852000001,4157.94873,4294.871582,0.0,1.0,15.0,,,,0.0,4.0,2.0,2.0,4.0,4.0,66.666664,,,,,,,,,,,,,,,,,,,,,,,,,,,,,,,,,,,,,,,,,,,,,,,,,,,,,,,,,,,,,,,,,,,,,,,,,,,,,,,,,,,,
29035,1645901128.527336,1645901128.557014,26.0,0.0,4353.846191,4347.179688,4209.230957,4146.666504,4287.692383,0.0,1.0,15.0,,,,0.0,4.0,2.0,2.0,4.0,4.0,66.666664,,,,,,,,13.0,0.0,0.708095,0.101074,0.672607,0.189697,0.9267719999999999,-0.400885,-0.067384,-0.021879,-0.035075999999999996,-0.011283,,,,,,,,,,,,,,,,,,,,,,,,,,,,,,,,,,,0.0,0.0,1.0,0.0,512.0,1.0,,,,,,,,,,,,,,,,,,,,,,,,,
29036,1645901128.535149,1645901128.564729,27.0,0.0,4349.743652,4326.666504,4251.794922,4150.769043,4276.922852000001,0.0,1.0,15.0,,,,0.0,4.0,2.0,2.0,4.0,4.0,66.666664,,,,,,,,,,,,,,,,,,,,,,,,,,,,,,,,,,,,,,,,,,,,,,,,,,,,,,,,,,,,,,,,,,,,,,,,,,,,,,,,,,,,
29037,1645901128.542963,1645901128.5725439,28.0,0.0,4366.666504,4462.563965,4244.615234000001,4154.871582,4290.256348,0.0,1.0,15.0,,,,0.0,4.0,2.0,2.0,4.0,4.0,66.666664,,,,,,,,14.0,0.0,0.708095,0.101074,0.672607,0.189697,0.9248190000000001,-0.397467,-0.060548000000000005,-0.022817,-0.035084,-0.009275,,,,,,,,,,,,,,,,,,,,,,,,,,,,,,,,,,,,,,,,,,,,,,,,,,,,,,,,,,,,,,,,,
29038,1645901128.550776,1645901128.580358,29.0,0.0,4346.153809,4462.563965,4222.05127,4162.05127,4300.0,0.0,1.0,15.0,,,,0.0,4.0,2.0,2.0,4.0,4.0,66.666664,,,,,,,,,,,,,,,,,,,,,,,,,,,,,,,,,,,,,,,,,,,,,,,,,,,,,,,,,,,,,,,,,,,,,,,,,,,,,,,,,,,,
29039,1645901128.55859,1645901128.5881732,30.0,0.0,4333.333496,4325.641113000001,4226.666504,4159.487305,4294.871582,0.0,1.0,15.0,,,,0.0,4.0,2.0,2.0,4.0,4.0,66.666664,,,,,,,,15.0,0.0,0.70813,0.10082999999999999,0.672607,0.189697,0.9199360000000001,-0.397955,-0.078126,-0.023806,-0.035189,-0.010545,,,,,,,,,,,,,,,,,,,,,,,,,,,,,,,,,,,0.0,0.0,1.0,0.0,512.0,1.0,,,,,,,,,,,,,,,,,,,,,,,,,
29040,1645901128.5664039,1645901128.595988,31.0,0.0,4341.025879,4391.794922,4193.846191,4160.0,4307.692383,0.0,1.0,15.0,,,,0.0,4.0,2.0,2.0,4.0,4.0,66.666664,,,,,,,,,,,,,,,,,,,,,,,,,,,,,,,,,,,,,,,,,,,,,,,,,,,,,,,,,,,,,,,,,,,,,,,,,,,,,,,,,,,,
29041,1645901128.574217,1645901128.603802,32.0,0.0,4320.0,4515.384765999999,4192.307617,4162.563965,4283.589844,0.0,1.0,15.0,,,,0.0,4.0,2.0,2.0,4.0,4.0,66.666664,,,,,,,,16.0,0.0,0.70813,0.10082999999999999,0.672607,0.189697,0.9116350000000001,-0.407233,-0.083009,-0.024648,-0.035235,-0.008563,,,,,,,,,,,,,,,,,,,,,,,,,,,,,,,,,,,,,,,,,,,,,,,,,,,,,,,,,,,,,,,,,
29042,1645901128.582031,1645901128.611617,33.0,0.0,4315.897461,4464.102539,4197.94873,4132.820313,4281.538574,0.0,1.0,15.0,,,,0.0,4.0,2.0,2.0,4.0,4.0,66.666664,,,,,,,,,,,,,,,,,,,,,,,,,,,,,,,,,,,,,,,,,,,,,,,,,,,,,,,,,,,,,,,,,,,,,,,,,,,,,,,,,,,,
29043,1645901128.589844,1645901128.619332,34.0,0.0,4322.05127,4399.487305,4209.743652,4141.538574,4316.922852000001,0.0,1.0,15.0,,,,0.0,4.0,2.0,2.0,4.0,4.0,66.666664,,,,,,,,17.0,0.0,0.70813,0.10082999999999999,0.672607,0.189697,0.9126120000000001,-0.40528000000000003,-0.06884900000000001,-0.022232,-0.035276,-0.009953,,,,,,,,,,,,,,,,,,,,,,,,,,,,,,,,,,,0.0,0.0,1.0,0.0,512.0,1.0,,,,,,,,,,,,,,,,,,,,,,,,,
29044,1645901128.597658,1645901128.627146,35.0,0.0,4340.512695,4468.205078,4192.307617,4194.871582,4330.256348,0.0,1.0,15.0,,,,0.0,4.0,2.0,2.0,4.0,4.0,66.666664,,,,,,,,,,,,,,,,,,,,,,,,,,,,,,,,,,,,,,,,,,,,,,,,,,,,,,,,,,,,,,,,,,,,,,,,,,,,,,,,,,,,
29045,1645901128.6054711,1645901128.634961,36.0,0.0,4336.922852000001,4496.410156,4211.794922,4178.974121,4316.410156,0.0,1.0,15.0,,,,0.0,4.0,2.0,2.0,4.0,4.0,66.666664,,,,,,,,18.0,0.0,0.708361,0.10082999999999999,0.672363,0.189697,0.9072399999999999,-0.406256,-0.070802,-0.023281,-0.035361000000000004,-0.011155,,,,,,,,,,,,,,,,,,,,,,,,,,,,,,,,,,,,,,,,,,,,,,,,,,,,,,,,,,,,,,,,,
29046,1645901128.613285,1645901128.642776,37.0,0.0,4338.974121,4396.410156,4224.615234000001,4142.563965,4314.871582,0.0,1.0,15.0,,,,0.0,4.0,2.0,2.0,4.0,4.0,66.666664,,,,,,,,,,,,,,,,,,,,,,,,,,,,,,,,,,,,,,,,,,,,,,,,,,,,,,,,,,,,,,,,,,,,,,,,,,,,,,,,,,,,
29047,1645901128.621099,1645901128.65059,38.0,0.0,4356.922852000001,4348.205078,4200.0,4145.128418,4296.922852000001,0.0,1.0,15.0,,,,0.0,4.0,2.0,2.0,4.0,4.0,66.666664,,,,,,,,19.0,0.0,0.708164,0.100586,0.672607,0.189697,0.9160299999999999,-0.409186,-0.09131,-0.02105,-0.035341000000000004,-0.009112,1.0,0.0,0.0,,,,,,,,,,,,,,,,,,,,,,,,,,,,,,,,0.0,0.0,1.0,0.0,512.0,0.919792,6.653839,5.5129150000000005,3.203853,2.5757790000000003,1.600768,41.772671,50.251728,15.714910999999999,28.643290000000004,24.079948,38.11528,34.01897,6.842511,4.9455599999999995,8.801311,10.377382,8.195295,8.408968,6.330608,2.492541,5.229837,2.802037,4.161335,2.142319,1.330064
29048,1645901128.628912,1645901128.658405,39.0,0.0,4343.077147999999,4395.897461,4220.0,4152.307617,4276.410156,0.0,1.0,15.0,,,,0.0,4.0,2.0,2.0,4.0,4.0,66.666664,,,,,,,,,,,,,,,,,,,,,,,,,,,,,,,,,,,,,,,,,,,,,,,,,,,,,,,,,,,,,,,,,,,,,,,,,,,,,,,,,,,,
29049,1645901128.636726,1645901128.66622,40.0,0.0,4306.666504,4404.102539,4234.871582,4118.974121,4272.307617,0.0,1.0,15.0,,,,0.0,4.0,2.0,2.0,4.0,4.0,66.666664,,,,,,,,20.0,0.0,0.708164,0.100586,0.672607,0.189697,0.9199360000000001,-0.406256,-0.07422000000000001,-0.019043,-0.035323,-0.0103,,,,,,,,,,,,,,,,,,,,,,,,,,,,,,,,,,,,,,,,,,,,,,,,,,,,,,,,,,,,,,,,,
29050,1645901128.644539,1645901128.6740339,41.0,0.0,4312.820313,4374.358886999999,4220.512695,4120.512695,4271.282227000001,0.0,1.0,15.0,,,,0.0,4.0,2.0,2.0,4.0,4.0,66.666664,,,,,,,,,,,,,,,,,,,,,,,,,,,,,,,,,,,,,,,,,,,,,,,,,,,,,,,,,,,,,,,,,,,,,,,,,,,,,,,,,,,,
29051,1645901128.652353,1645901128.681849,42.0,0.0,4341.538574,4389.230957,4204.615234000001,4165.128418,4285.128418,0.0,1.0,15.0,,,,0.0,4.0,2.0,2.0,4.0,4.0,66.666664,,,,,,,,21.0,0.0,0.70823,0.100586,0.672607,0.189453,0.932143,-0.398932,-0.078614,-0.017187,-0.035306,-0.011516,,,,,,,,,,,,,,,,,,,,,,,,,,,,,,,,,,,0.0,0.0,1.0,0.0,512.0,0.919792,,,,,,,,,,,,,,,,,,,,,,,,,
29052,1645901128.660167,1645901128.689564,43.0,0.0,4311.282227000001,4406.666504,4290.769043,4176.922852000001,4298.974121,0.0,1.0,15.0,,,,0.0,4.0,2.0,2.0,4.0,4.0,66.666664,,,,,,,,,,,,,,,,,,,,,,,,,,,,,,,,,,,,,,,,,,,,,,,,,,,,,,,,,,,,,,,,,,,,,,,,,,,,,,,,,,,,
29053,1645901128.6679802,1645901128.697378,44.0,0.0,4290.256348,4391.282227000001,4297.436035,4148.205078,4286.666504,0.0,1.0,15.0,,,,0.0,4.0,2.0,2.0,4.0,4.0,66.666664,,,,,,,,22.0,0.0,0.70823,0.100586,0.672607,0.189453,0.9209129999999999,-0.394049,-0.085939,-0.018594,-0.035242,-0.009486,,,,,,,,,,,,,,,,,,,,,,,,,,,,,,,,,,,,,,,,,,,,,,,,,,,,,,,,,,,,,,,,,
29054,1645901128.675794,1645901128.705193,45.0,0.0,4331.282227000001,4414.358886999999,4230.256348,4119.487305,4278.461426,0.0,1.0,15.0,,,,0.0,4.0,2.0,2.0,4.0,4.0,66.666664,,,,,,,,,,,,,,,,,,,,,,,,,,,,,,,,,,,,,,,,,,,,,,,,,,,,,,,,,,,,,,,,,,,,,,,,,,,,,,,,,,,,
29055,1645901128.683607,1645901128.712908,46.0,0.0,4343.589844,4417.436035,4230.256348,4128.717772999999,4301.025879,0.0,1.0,15.0,,,,0.0,4.0,2.0,2.0,4.0,4.0,66.666664,,,,,,,,23.0,0.0,0.70823,0.100586,0.672607,0.189453,0.913588,-0.404303,-0.07422000000000001,-0.016783000000000003,-0.035233999999999994,-0.010686,,,,,,,,,,,,,,,,,,,,,,,,,,,,,,,,,,,0.0,0.0,1.0,0.0,512.0,0.919792,,,,,,,,,,,,,,,,,,,,,,,,,
29056,1645901128.691421,1645901128.720722,47.0,0.0,4312.307617,4356.410156,4291.282227000001,4144.615234000001,4305.641113000001,0.0,1.0,15.0,,,,0.0,4.0,2.0,2.0,4.0,4.0,66.666664,,,,,,,,,,,,,,,,,,,,,,,,,,,,,,,,,,,,,,,,,,,,,,,,,,,,,,,,,,,,,,,,,,,,,,,,,,,,,,,,,,,,
29057,1645901128.699235,1645901128.7285368,48.0,0.0,4331.794922,4309.743652,4244.102539,4143.589844,4291.794922,0.0,1.0,15.0,,,,0.0,4.0,2.0,2.0,4.0,4.0,66.666664,,,,,,,,24.0,0.0,0.70823,0.100586,0.672607,0.189453,0.917494,-0.389166,-0.078126,-0.018181,-0.035177,-0.00864,,,,,,,,,,,,,,,,,,,,,,,,,,,,,,,,,,,,,,,,,,,,,,,,,,,,,,,,,,,,,,,,,
29058,1645901128.707048,1645901128.736352,49.0,0.0,4363.077147999999,4333.333496,4197.94873,4121.538574,4310.769043,0.0,1.0,15.0,,,,0.0,4.0,2.0,2.0,4.0,4.0,66.666664,,,,,,,,,,,,,,,,,,,,,,,,,,,,,,,,,,,,,,,,,,,,,,,,,,,,,,,,,,,,,,,,,,,,,,,,,,,,,,,,,,,,
29059,1645901128.7148619,1645901128.744166,50.0,0.0,4344.102539,4376.922852000001,4251.794922,4150.256348,4336.922852000001,0.0,1.0,15.0,,,,0.0,4.0,2.0,2.0,4.0,4.0,66.666664,,,,,,,,25.0,0.0,0.7079979999999999,0.100586,0.672852,0.189453,0.9091940000000001,-0.404791,-0.069825,-0.019635,-0.035077,-0.010071,,,,,,,,,,,,,,,,,,,,,,,,,,,,,,,,,,,0.0,0.0,1.0,0.0,512.0,0.919792,,,,,,,,,,,,,,,,,,,,,,,,,
29060,1645901128.722675,1645901128.751981,51.0,0.0,4335.897461,4423.589844,4248.717772999999,4206.666504,4304.615234000001,0.0,1.0,15.0,,,,0.0,4.0,2.0,2.0,4.0,4.0,66.666664,,,,,,,,,,,,,,,,,,,,,,,,,,,,,,,,,,,,,,,,,,,,,,,,,,,,,,,,,,,,,,,,,,,,,,,,,,,,,,,,,,,,
29061,1645901128.730489,1645901128.759795,52.0,0.0,4361.025879,4443.589844,4176.922852000001,4197.436035,4299.487305,0.0,1.0,15.0,,,,0.0,4.0,2.0,2.0,4.0,4.0,66.666664,,,,,,,,26.0,0.0,0.7079979999999999,0.100586,0.672852,0.189453,0.9209129999999999,-0.40283800000000003,-0.076173,-0.020796000000000002,-0.035085000000000005,-0.011212999999999999,,,,,,,,,,,,,,,,,,,,,,,,,,,,,,,,,,,,,,,,,,,,,,,,,,,,,,,,,,,,,,,,,
29062,1645901128.738303,1645901128.76761,53.0,0.0,4325.128418,4346.666504,4208.205078,4170.769043,4317.94873,0.0,1.0,15.0,,,,0.0,4.0,2.0,2.0,4.0,4.0,66.666664,,,,,,,,,,,,,,,,,,,,,,,,,,,,,,,,,,,,,,,,,,,,,,,,,,,,,,,,,,,,,,,,,,,,,,,,,,,,,,,,,,,,
29063,1645901128.746116,1645901128.775325,54.0,0.0,4304.615234000001,4327.692383,4232.820313,4187.179688,4298.461426,0.0,1.0,15.0,,,,0.0,4.0,2.0,2.0,4.0,4.0,66.666664,,,,,,,,27.0,0.0,0.708032,0.100342,0.672852,0.189453,0.928725,-0.397467,-0.076661,-0.02189,-0.035093,-0.009115,1.0,0.0,0.0,,,,,,,,,,,,,,,,,,,,,,,,,,,,,,,,0.0,0.0,1.0,0.0,512.0,0.673044,8.052889,6.147194,3.194957,2.5220290000000003,1.489295,45.396755,49.596409,18.235609,28.711506,25.448071,31.891848,29.387295,6.083081,5.115132,8.23979,12.170143,8.237303,9.019958,6.771524,2.595285,5.247901000000001,3.033122,3.707845,2.1796279999999997,1.397158
29064,1645901128.75393,1645901128.78314,55.0,0.0,4316.410156,4489.743652,4168.205078,4183.589844,4277.436035,0.0,1.0,15.0,,,,0.0,4.0,2.0,2.0,4.0,4.0,66.666664,,,,,,,,,,,,,,,,,,,,,,,,,,,,,,,,,,,,,,,,,,,,,,,,,,,,,,,,,,,,,,,,,,,,,,,,,,,,,,,,,,,,
29065,1645901128.761743,1645901128.7909539,56.0,0.0,4311.282227000001,4548.717772999999,4177.94873,4170.256348,4303.077147999999,0.0,1.0,15.0,,,,0.0,4.0,2.0,2.0,4.0,4.0,66.666664,,,,,,,,28.0,0.0,0.7078,0.100342,0.673096,0.189453,0.917494,-0.400885,-0.06543099999999999,-0.022826,-0.035099,-0.010498,,,,,,,,,,,,,,,,,,,,,,,,,,,,,,,,,,,,,,,,,,,,,,,,,,,,,,,,,,,,,,,,,
29066,1645901128.769557,1645901128.798769,57.0,0.0,4320.0,4407.179688,4245.641113000001,4170.769043,4319.487305,0.0,1.0,15.0,,,,0.0,4.0,2.0,2.0,4.0,4.0,66.666664,,,,,,,,,,,,,,,,,,,,,,,,,,,,,,,,,,,,,,,,,,,,,,,,,,,,,,,,,,,,,,,,,,,,,,,,,,,,,,,,,,,,
29067,1645901128.7773712,1645901128.806583,58.0,0.0,4332.820313,4341.025879,4274.358886999999,4172.307617,4317.94873,0.0,1.0,15.0,,,,0.0,4.0,2.0,2.0,4.0,4.0,66.666664,,,,,,,,29.0,0.0,0.7079979999999999,0.100586,0.672852,0.189453,0.9209129999999999,-0.40283800000000003,-0.076173,-0.023669,-0.035105000000000004,-0.011597,,,,,,,,,,,,,,,,,,,,,,,,,,,,,,,,,,,0.0,0.0,1.0,0.0,512.0,0.673044,,,,,,,,,,,,,,,,,,,,,,,,,
29068,1645901128.785184,1645901128.814398,59.0,0.0,4311.282227000001,4440.512695,4252.307617,4169.743652,4316.410156,0.0,1.0,15.0,,,,0.0,4.0,2.0,2.0,4.0,4.0,66.666664,,,,,,,,,,,,,,,,,,,,,,,,,,,,,,,,,,,,,,,,,,,,,,,,,,,,,,,,,,,,,,,,,,,,,,,,,,,,,,,,,,,,
29069,1645901128.792998,1645901128.8222132,60.0,0.0,4300.0,4484.102539,4240.512695,4166.153809,4305.128418,0.0,1.0,15.0,,,,0.0,4.0,2.0,2.0,4.0,4.0,66.666664,,,,,,,,30.0,0.0,0.7078,0.100342,0.673096,0.189453,0.921401,-0.42090500000000003,-0.080079,-0.024525,-0.03511,-0.009412,,,,,,,,,,,,,,,,,,,,,,,,,,,,,,,,,,,,,,,,,,,,,,,,,,,,,,,,,,,,,,,,,
29070,1645901128.800811,1645901128.8300269,61.0,0.0,4324.102539,4430.256348,4225.641113000001,4165.641113000001,4306.153809,0.0,1.0,15.0,,,,0.0,4.0,2.0,2.0,4.0,4.0,66.666664,,,,,,,,,,,,,,,,,,,,,,,,,,,,,,,,,,,,,,,,,,,,,,,,,,,,,,,,,,,,,,,,,,,,,,,,,,,,,,,,,,,,
29071,1645901128.808625,1645901128.837842,62.0,0.0,4334.871582,4424.102539,4266.153809,4174.358886999999,4304.615234000001,0.0,1.0,15.0,,,,0.0,4.0,2.0,2.0,4.0,4.0,66.666664,,,,,,,,31.0,0.0,0.7078,0.100342,0.673096,0.189453,0.926284,-0.397955,-0.065919,-0.022121000000000002,-0.035163,-0.010717,,,,,,,,,,,,,,,,,,,,,,,,,,,,,,,,,,,0.0,0.0,1.0,0.0,512.0,0.673044,,,,,,,,,,,,,,,,,,,,,,,,,
29072,1645901128.8164392,1645901128.845557,63.0,0.0,4354.871582,4486.153809,4229.230957,4156.922852000001,4301.538574,0.0,1.0,15.0,,,,0.0,4.0,2.0,1.0,4.0,4.0,58.33333199999999,,,,,,,,,,,,,,,,,,,,,,,,,,,,,,,,,,,,,,,,,,,,,,,,,,,,,,,,,,,,,,,,,,,,,,,,,,,,,,,,,,,,
29073,1645901128.824252,1645901128.8533711,64.0,0.0,4367.692383,4483.077147999999,4187.179688,4128.205078,4307.179688,450.0,1.0,15.0,,,,0.0,4.0,2.0,1.0,4.0,4.0,58.33333199999999,,,,,,,,32.0,0.0,0.707835,0.100098,0.673096,0.189453,0.923842,-0.389654,-0.067872,-0.023034,-0.035163,-0.008717,,,,,,,,,,,,,,,,,,,,,,,,,,,,,,,,,,,,,,,,,,,,,,,,,,,,,,,,,,,,,,,,,
29074,1645901128.832066,1645901128.861186,65.0,0.0,4364.102539,4390.256348,4202.563965,4158.974121,4316.922852000001,450.0,1.0,15.0,,,,0.0,4.0,2.0,1.0,4.0,4.0,58.33333199999999,,,,,,,,,,,,,,,,,,,,,,,,,,,,,,,,,,,,,,,,,,,,,,,,,,,,,,,,,,,,,,,,,,,,,,,,,,,,,,,,,,,,
29075,1645901128.8398788,1645901128.869001,66.0,0.0,4370.256348,4390.769043,4237.94873,4172.307617,4322.05127,16127.0,1.0,15.0,,,,0.0,4.0,2.0,1.0,4.0,4.0,58.33333199999999,,,,,,,,33.0,0.0,0.707835,0.100098,0.673096,0.189453,0.9233540000000001,-0.400397,-0.06543099999999999,-0.023903999999999998,-0.035211,-0.006967,,,,,,,,,,,,,,,,,,,,,,,,,,,,,,,,,,,0.0,0.0,1.0,0.0,512.0,0.673044,,,,,,,,,,,,,,,,,,,,,,,,,
29076,1645901128.847693,1645901128.876815,67.0,0.0,4366.153809,4441.025879,4216.922852000001,4166.666504,4311.794922,450.0,1.0,15.0,,,,0.0,4.0,2.0,1.0,4.0,4.0,58.33333199999999,,,,,,,,,,,,,,,,,,,,,,,,,,,,,,,,,,,,,,,,,,,,,,,,,,,,,,,,,,,,,,,,,,,,,,,,,,,,,,,,,,,,
29077,1645901128.8555071,1645901128.88463,68.0,0.0,4346.666504,4372.307617,4191.794922,4186.666504,4267.692383,184.0,1.0,15.0,,,,0.0,4.0,2.0,1.0,4.0,4.0,58.33333199999999,,,,,,,,34.0,0.0,0.7078,0.100342,0.673096,0.189453,0.9306780000000001,-0.409674,-0.069825,-0.021563,-0.035302999999999994,-0.008419,,,,,,,,,,,,,,,,,,,,,,,,,,,,,,,,,,,,,,,,,,,,,,,,,,,,,,,,,,,,,,,,,
29078,1645901128.8633199,1645901128.8924448,69.0,0.0,4344.102539,4314.871582,4225.128418,4191.282227000001,4276.410156,450.0,1.0,15.0,,,,0.0,4.0,2.0,1.0,4.0,4.0,58.33333199999999,,,,,,,,,,,,,,,,,,,,,,,,,,,,,,,,,,,,,,,,,,,,,,,,,,,,,,,,,,,,,,,,,,,,,,,,,,,,,,,,,,,,
29079,1645901128.871134,1645901128.900259,70.0,0.0,4330.256348,4408.717772999999,4233.333496,4171.794922,4316.922852000001,133.0,1.0,15.0,,,,0.0,4.0,2.0,1.0,4.0,4.0,58.33333199999999,,,,,,,,35.0,0.0,0.7078,0.100342,0.673096,0.189453,0.9272600000000001,-0.410163,-0.071778,-0.022385,-0.035191,-0.009823,1.0,0.0,0.0,,,,,,,,,,,,,,,,,,,,,,,,,,,,,,,,0.0,0.0,1.0,0.0,512.0,0.7231920000000001,10.680736999999999,7.205145,2.908026,2.404143,1.451108,49.643753000000004,48.271572,20.36035,26.904429999999998,27.029211,26.186007999999998,24.701651000000002,5.563265,5.243689,7.489648,13.093301,7.544767,8.58573,6.916272,2.744206,5.749402,3.220495,3.21351,2.224939,1.5030350000000001
29080,1645901128.878947,1645901128.9080741,71.0,0.0,4324.615234000001,4501.025879,4221.538574,4182.563965,4324.102539,450.0,1.0,15.0,,,,0.0,4.0,2.0,1.0,4.0,4.0,58.33333199999999,,,,,,,,,,,,,,,,,,,,,,,,,,,,,,,,,,,,,,,,,,,,,,,,,,,,,,,,,,,,,,,,,,,,,,,,,,,,,,,,,,,,
29081,1645901128.886761,1645901128.9157891,72.0,0.0,4326.666504,4480.512695,4226.666504,4176.922852000001,4323.077147999999,450.0,1.0,15.0,,,,0.0,4.0,2.0,1.0,4.0,4.0,58.33333199999999,,,,,,,,36.0,0.0,0.7078,0.100342,0.673096,0.189453,0.906752,-0.41699899999999995,-0.056641,-0.023174,-0.035285000000000004,-0.007815,,,,,,,,,,,,,,,,,,,,,,,,,,,,,,,,,,,,,,,,,,,,,,,,,,,,,,,,,,,,,,,,,
29082,1645901128.894575,1645901128.9236028,73.0,0.0,4333.333496,4473.846191,4246.153809,4143.589844,4316.922852000001,16259.0,1.0,15.0,,,,0.0,4.0,2.0,1.0,4.0,4.0,58.33333199999999,,,,,,,,,,,,,,,,,,,,,,,,,,,,,,,,,,,,,,,,,,,,,,,,,,,,,,,,,,,,,,,,,,,,,,,,,,,,,,,,,,,,
29083,1645901128.902388,1645901128.931418,74.0,0.0,4338.461426,4488.717772999999,4242.563965,4153.846191,4270.769043,450.0,1.0,15.0,,,,0.0,4.0,2.0,1.0,4.0,4.0,58.33333199999999,,,,,,,,37.0,0.0,0.7078,0.100342,0.673096,0.189453,0.916518,-0.410163,-0.078126,-0.023933000000000003,-0.035321,-0.009182,,,,,,,,,,,,,,,,,,,,,,,,,,,,,,,,,,,0.0,0.0,1.0,0.0,512.0,0.7231920000000001,,,,,,,,,,,,,,,,,,,,,,,,,
29084,1645901128.910202,1645901128.939233,75.0,0.0,4338.974121,4474.871582,4245.128418,4177.436035,4263.077147999999,16194.0,1.0,15.0,,,,0.0,4.0,2.0,1.0,4.0,4.0,58.33333199999999,,,,,,,,,,,,,,,,,,,,,,,,,,,,,,,,,,,,,,,,,,,,,,,,,,,,,,,,,,,,,,,,,,,,,,,,,,,,,,,,,,,,
29085,1645901128.918015,1645901128.947047,76.0,0.0,4334.871582,4450.256348,4228.717772999999,4152.307617,4310.256348,450.0,1.0,15.0,,,,0.0,4.0,2.0,1.0,4.0,4.0,58.33333199999999,,,,,,,,38.0,0.0,0.707568,0.100342,0.6733399999999999,0.189453,0.914565,-0.41065100000000004,-0.069825,-0.021637,-0.035256,-0.007336,,,,,,,,,,,,,,,,,,,,,,,,,,,,,,,,,,,,,,,,,,,,,,,,,,,,,,,,,,,,,,,,,
29086,1645901128.925829,1645901128.9548619,77.0,0.0,4340.0,4403.077147999999,4241.538574,4134.871582,4302.563965,450.0,1.0,15.0,,,,0.0,4.0,2.0,1.0,4.0,4.0,58.33333199999999,,,,,,,,,,,,,,,,,,,,,,,,,,,,,,,,,,,,,,,,,,,,,,,,,,,,,,,,,,,,,,,,,,,,,,,,,,,,,,,,,,,,
29087,1645901128.9336429,1645901128.962677,78.0,0.0,4363.589844,4371.282227000001,4240.512695,4147.179688,4290.769043,450.0,1.0,15.0,,,,0.0,4.0,2.0,1.0,4.0,4.0,58.33333199999999,,,,,,,,39.0,0.0,0.707537,0.100098,0.6733399999999999,0.189697,0.9209129999999999,-0.406744,-0.065919,-0.022501,-0.035295,-0.008751,,,,,,,,,,,,,,,,,,,,,,,,,,,,,,,,,,,0.0,0.0,1.0,0.0,512.0,0.7231920000000001,,,,,,,,,,,,,,,,,,,,,,,,,
29088,1645901128.941456,1645901128.970491,79.0,0.0,4367.179688,4447.179688,4257.436035,4154.871582,4322.05127,16194.0,1.0,15.0,,,,0.0,4.0,2.0,1.0,4.0,4.0,58.33333199999999,,,,,,,,,,,,,,,,,,,,,,,,,,,,,,,,,,,,,,,,,,,,,,,,,,,,,,,,,,,,,,,,,,,,,,,,,,,,,,,,,,,,
29089,1645901128.94927,1645901128.978306,80.0,0.0,4361.025879,4488.205078,4253.846191,4169.230957,4319.487305,450.0,1.0,15.0,,,,0.0,4.0,2.0,1.0,4.0,4.0,58.33333199999999,,,,,,,,40.0,0.0,0.707769,0.100098,0.673096,0.189697,0.917494,-0.39502600000000004,-0.07715,-0.023375999999999997,-0.03533,-0.010024,,,,,,,,,,,,,,,,,,,,,,,,,,,,,,,,,,,,,,,,,,,,,,,,,,,,,,,,,,,,,,,,,
29090,1645901128.957083,1645901128.9861212,81.0,0.0,4361.025879,4366.666504,4233.333496,4180.512695,4286.666504,450.0,1.0,15.0,,,,0.0,4.0,2.0,1.0,4.0,4.0,58.33333199999999,,,,,,,,,,,,,,,,,,,,,,,,,,,,,,,,,,,,,,,,,,,,,,,,,,,,,,,,,,,,,,,,,,,,,,,,,,,,,,,,,,,,
29091,1645901128.9648972,1645901128.993835,82.0,0.0,4375.897461,4330.769043,4212.820313,4180.512695,4301.538574,450.0,1.0,15.0,,,,0.0,4.0,2.0,1.0,4.0,4.0,58.33333199999999,,,,,,,,41.0,0.0,0.707769,0.100098,0.673096,0.189697,0.910658,-0.416022,-0.06640700000000001,-0.021087,-0.035264,-0.008192,,,,,,,,,,,,,,,,,,,,,,,,,,,,,,,,,,,0.0,0.0,1.0,0.0,512.0,0.7231920000000001,,,,,,,,,,,,,,,,,,,,,,,,,
29092,1645901128.97271,1645901129.00165,83.0,0.0,4361.538574,4492.307617,4240.0,4177.436035,4303.589844,16194.0,1.0,15.0,,,,0.0,4.0,2.0,1.0,4.0,4.0,58.33333199999999,,,,,,,,,,,,,,,,,,,,,,,,,,,,,,,,,,,,,,,,,,,,,,,,,,,,,,,,,,,,,,,,,,,,,,,,,,,,,,,,,,,,
29093,1645901128.980524,1645901129.009465,84.0,0.0,4349.743652,4521.538574,4205.128418,4167.179688,4289.743652,450.0,1.0,15.0,,,,0.0,4.0,2.0,1.0,4.0,4.0,58.33333199999999,,,,,,,,42.0,0.0,0.707537,0.100098,0.6733399999999999,0.189697,0.9184709999999999,-0.41699899999999995,-0.076173,-0.022152,-0.035204,-0.006347,,,,,,,,,,,,,,,,,,,,,,,,,,,,,,,,,,,,,,,,,,,,,,,,,,,,,,,,,,,,,,,,,
29094,1645901128.988338,1645901129.017279,85.0,0.0,4352.820313,4365.641113000001,4176.410156,4134.358886999999,4324.615234000001,450.0,1.0,15.0,,,,0.0,4.0,2.0,1.0,4.0,4.0,58.33333199999999,,,,,,,,,,,,,,,,,,,,,,,,,,,,,,,,,,,,,,,,,,,,,,,,,,,,,,,,,,,,,,,,,,,,,,,,,,,,,,,,,,,,
29095,1645901128.996151,1645901129.025094,86.0,0.0,4343.589844,4381.025879,4258.974121,4140.512695,4356.410156,450.0,1.0,15.0,,,,0.0,4.0,2.0,1.0,4.0,4.0,58.33333199999999,1.0,16.666666,2.0,0.0,0.0,2.0,4.0,43.0,0.0,0.707503,0.100342,0.6733399999999999,0.189697,0.9155409999999999,-0.401862,-0.072267,-0.023062,-0.035248,-0.007909999999999999,1.0,0.0,0.0,,,,,,,,,,,,,,,,,,,,,,,,,,,,,,,,0.0,0.0,1.0,0.0,512.0,0.909861,13.895414,8.565627000000001,2.50522,2.2490200000000002,1.498879,55.684288,46.956329,21.698614000000003,23.473951,28.673174,21.618536,20.506651,5.104239,5.334581,6.776591000000001,12.955535000000001,6.373673999999999,7.256410000000001,6.609678,2.892184,6.637996,3.3090669999999998,2.730468,2.274954,1.6029229999999999
29096,1645901129.0039651,1645901129.032908,87.0,0.0,4347.179688,4486.666504,4245.641113000001,4152.820313,4315.897461,16194.0,1.0,15.0,,,,0.0,4.0,2.0,1.0,4.0,4.0,58.33333199999999,,,,,,,,,,,,,,,,,,,,,,,,,,,,,,,,,,,,,,,,,,,,,,,,,,,,,,,,,,,,,,,,,,,,,,,,,,,,,,,,,,,,
29097,1645901129.0117779,1645901129.040723,88.0,0.0,4366.153809,4426.153809,4178.461426,4144.615234000001,4302.05127,450.0,1.0,15.0,,,,0.0,4.0,2.0,1.0,4.0,4.0,58.33333199999999,,,,,,,,44.0,0.0,0.707503,0.100342,0.6733399999999999,0.189697,0.928725,-0.39649,-0.080568,-0.023832,-0.035288,-0.009267000000000001,,,,,,,,,,,,,,,,,,,,,,,,,,,,,,,,,,,,,,,,,,,,,,,,,,,,,,,,,,,,,,,,,
29098,1645901129.019592,1645901129.048538,89.0,0.0,4341.025879,4327.179688,4226.153809,4162.05127,4307.692383,450.0,1.0,15.0,,,,0.0,4.0,2.0,1.0,4.0,4.0,58.33333199999999,,,,,,,,,,,,,,,,,,,,,,,,,,,,,,,,,,,,,,,,,,,,,,,,,,,,,,,,,,,,,,,,,,,,,,,,,,,,,,,,,,,,
29099,1645901129.027406,1645901129.056253,90.0,0.0,4316.410156,4347.179688,4280.512695,4178.974121,4296.410156,450.0,1.0,15.0,,,,0.0,4.0,2.0,1.0,4.0,4.0,58.33333199999999,,,,,,,,45.0,0.0,0.707537,0.100098,0.6733399999999999,0.189697,0.9184709999999999,-0.41699899999999995,-0.076173,-0.024623,-0.035226,-0.007315,,,,,,,,,,,,,,,,,,,,,,,,,,,,,,,,,,,0.0,0.0,1.0,0.0,512.0,0.909861,,,,,,,,,,,,,,,,,,,,,,,,,
29100,1645901129.035219,1645901129.064067,91.0,0.0,4326.153809,4395.897461,4230.769043,4161.538574,4312.307617,16194.0,1.0,15.0,,,,0.0,4.0,2.0,1.0,4.0,4.0,58.33333199999999,,,,,,,,,,,,,,,,,,,,,,,,,,,,,,,,,,,,,,,,,,,,,,,,,,,,,,,,,,,,,,,,,,,,,,,,,,,,,,,,,,,,
29101,1645901129.0430331,1645901129.071882,92.0,0.0,4325.128418,4415.384765999999,4236.922852000001,4138.461426,4307.179688,450.0,1.0,15.0,,,,0.0,4.0,2.0,1.0,4.0,4.0,58.33333199999999,,,,,,,,46.0,0.0,0.707468,0.100586,0.6733399999999999,0.189697,0.9199360000000001,-0.404303,-0.067872,-0.025286000000000003,-0.035121,-0.005607,,,,,,,,,,,,,,,,,,,,,,,,,,,,,,,,,,,,,,,,,,,,,,,,,,,,,,,,,,,,,,,,,
29102,1645901129.050846,1645901129.0796962,93.0,0.0,4328.717772999999,4425.641113000001,4295.897461,4111.282227000001,4265.641113000001,450.0,1.0,15.0,,,,0.0,4.0,2.0,1.0,4.0,4.0,58.33333199999999,,,,,,,,,,,,,,,,,,,,,,,,,,,,,,,,,,,,,,,,,,,,,,,,,,,,,,,,,,,,,,,,,,,,,,,,,,,,,,,,,,,,
29103,1645901129.05866,1645901129.0875108,94.0,0.0,4342.563965,4412.820313,4304.102539,4123.589844,4271.794922,450.0,1.0,15.0,,,,0.0,4.0,2.0,1.0,4.0,4.0,58.33333199999999,,,,,,,,47.0,0.0,0.707533,0.100586,0.6733399999999999,0.189453,0.9209129999999999,-0.406256,-0.080568,-0.022806,-0.035075999999999996,-0.007195,,,,,,,,,,,,,,,,,,,,,,,,,,,,,,,,,,,0.0,0.0,1.0,0.0,512.0,0.909861,,,,,,,,,,,,,,,,,,,,,,,,,
29104,1645901129.066474,1645901129.095326,95.0,0.0,4334.358886999999,4390.256348,4202.563965,4182.563965,4326.153809,16194.0,1.0,15.0,,,,0.0,4.0,2.0,1.0,4.0,4.0,58.33333199999999,,,,,,,,,,,,,,,,,,,,,,,,,,,,,,,,,,,,,,,,,,,,,,,,,,,,,,,,,,,,,,,,,,,,,,,,,,,,,,,,,,,,
29105,1645901129.074287,1645901129.10314,96.0,0.0,4305.641113000001,4391.794922,4209.743652,4186.153809,4326.666504,450.0,1.0,15.0,,,,0.0,4.0,2.0,1.0,4.0,4.0,58.33333199999999,,,,,,,,48.0,0.0,0.707433,0.10082999999999999,0.6733399999999999,0.189697,0.917983,-0.401373,-0.062989,-0.023553,-0.035182,-0.008721,,,,,,,,,,,,,,,,,,,,,,,,,,,,,,,,,,,,,,,,,,,,,,,,,,,,,,,,,,,,,,,,,
29106,1645901129.0821009,1645901129.110955,97.0,0.0,4330.769043,4432.307617,4234.871582,4140.0,4310.769043,450.0,1.0,15.0,,,,0.0,4.0,2.0,1.0,4.0,4.0,58.33333199999999,,,,,,,,,,,,,,,,,,,,,,,,,,,,,,,,,,,,,,,,,,,,,,,,,,,,,,,,,,,,,,,,,,,,,,,,,,,,,,,,,,,,
29107,1645901129.089914,1645901129.11877,98.0,0.0,4373.846191,4469.743652,4180.0,4105.128418,4340.512695,450.0,1.0,15.0,,,,0.0,4.0,2.0,1.0,4.0,4.0,58.33333199999999,,,,,,,,49.0,0.0,0.707499,0.10082999999999999,0.6733399999999999,0.189453,0.925795,-0.398932,-0.07128999999999999,-0.024322,-0.035179,-0.010047,,,,,,,,,,,,,,,,,,,,,,,,,,,,,,,,,,,0.0,0.0,1.0,0.0,512.0,0.909861,,,,,,,,,,,,,,,,,,,,,,,,,
29108,1645901129.097728,1645901129.126584,99.0,0.0,4361.025879,4429.743652,4199.487305,4128.717772999999,4350.256348,16194.0,1.0,15.0,,,,0.0,4.0,2.0,1.0,4.0,4.0,58.33333199999999,,,,,,,,,,,,,,,,,,,,,,,,,,,,,,,,,,,,,,,,,,,,,,,,,,,,,,,,,,,,,,,,,,,,,,,,,,,,,,,,,,,,
29109,1645901129.105542,1645901129.134299,100.0,0.0,4334.871582,4398.461426,4255.897461,4162.05127,4291.794922,450.0,1.0,15.0,,,,0.0,4.0,2.0,1.0,4.0,4.0,58.33333199999999,,,,,,,,50.0,0.0,0.707468,0.100586,0.6733399999999999,0.189697,0.9331200000000001,-0.413092,-0.07715,-0.025015,-0.035177,-0.008065000000000001,,,,,,,,,,,,,,,,,,,,,,,,,,,,,,,,,,,,,,,,,,,,,,,,,,,,,,,,,,,,,,,,,
29110,1645901129.1133552,1645901129.142014,101.0,0.0,4345.641113000001,4443.589844,4202.563965,4142.563965,4277.436035,450.0,1.0,15.0,,,,0.0,4.0,2.0,1.0,4.0,4.0,58.33333199999999,,,,,,,,,,,,,,,,,,,,,,,,,,,,,,,,,,,,,,,,,,,,,,,,,,,,,,,,,,,,,,,,,,,,,,,,,,,,,,,,,,,,
29111,1645901129.1211689,1645901129.149828,102.0,0.0,4320.512695,4382.05127,4196.922852000001,4124.102539,4296.410156,450.0,1.0,15.0,,,,0.0,4.0,2.0,1.0,4.0,4.0,58.33333199999999,,,,,,,,51.0,0.0,0.707468,0.100586,0.6733399999999999,0.189697,0.922866,-0.397955,-0.077638,-0.025688,-0.035126,-0.009456,1.0,0.0,0.0,,,,,,,,,,,,,,,,,,,,,,,,,,,,,,,,0.0,0.0,1.0,0.0,512.0,0.7054010000000001,16.691195,9.922706,2.1465229999999997,2.071482,1.608687,63.199886,45.337303000000006,22.319937,19.325525,30.061949,18.605959,17.347826,4.661265,5.36027,6.312607,11.898897,5.099419999999999,5.584593,5.911407,2.995274,7.658396000000001,3.345672,2.3292040000000003,2.334397,1.664063
29112,1645901129.128982,1645901129.157643,103.0,0.0,4294.871582,4332.307617,4244.102539,4166.666504,4296.922852000001,16194.0,1.0,15.0,,,,0.0,4.0,2.0,1.0,4.0,4.0,58.33333199999999,,,,,,,,,,,,,,,,,,,,,,,,,,,,,,,,,,,,,,,,,,,,,,,,,,,,,,,,,,,,,,,,,,,,,,,,,,,,,,,,,,,,
29113,1645901129.136796,1645901129.165458,104.0,0.0,4307.179688,4478.974121,4192.820313,4168.717772999999,4301.538574,450.0,1.0,15.0,,,,0.0,4.0,2.0,1.0,4.0,4.0,58.33333199999999,,,,,,,,52.0,0.0,0.707468,0.100586,0.6733399999999999,0.189697,0.914076,-0.410163,-0.067872,-0.026244,-0.03508,-0.007631999999999999,,,,,,,,,,,,,,,,,,,,,,,,,,,,,,,,,,,,,,,,,,,,,,,,,,,,,,,,,,,,,,,,,
29114,1645901129.14461,1645901129.1732721,105.0,0.0,4310.769043,4520.0,4169.743652,4146.666504,4322.563965,450.0,1.0,15.0,,,,0.0,4.0,2.0,1.0,4.0,4.0,58.33333199999999,,,,,,,,,,,,,,,,,,,,,,,,,,,,,,,,,,,,,,,,,,,,,,,,,,,,,,,,,,,,,,,,,,,,,,,,,,,,,,,,,,,,
29115,1645901129.1524231,1645901129.181087,106.0,0.0,4312.820313,4441.025879,4222.563965,4151.282227000001,4313.333496,450.0,1.0,15.0,,,,0.0,4.0,2.0,1.0,4.0,4.0,58.33333199999999,,,,,,,,53.0,0.0,0.707468,0.100586,0.6733399999999999,0.189697,0.916518,-0.39942,-0.07422000000000001,-0.026793,-0.035039,-0.009261,,,,,,,,,,,,,,,,,,,,,,,,,,,,,,,,,,,0.0,0.0,1.0,0.0,512.0,0.7054010000000001,,,,,,,,,,,,,,,,,,,,,,,,,
29116,1645901129.1602368,1645901129.188902,107.0,0.0,4329.743652,4493.333496,4263.077147999999,4126.666504,4301.025879,16194.0,1.0,15.0,,,,0.0,4.0,2.0,1.0,4.0,4.0,58.33333199999999,,,,,,,,,,,,,,,,,,,,,,,,,,,,,,,,,,,,,,,,,,,,,,,,,,,,,,,,,,,,,,,,,,,,,,,,,,,,,,,,,,,,
29117,1645901129.16805,1645901129.196716,108.0,0.0,4329.230957,4478.974121,4225.128418,4100.512695,4301.025879,450.0,1.0,15.0,,,,0.0,4.0,2.0,1.0,4.0,4.0,58.33333199999999,,,,,,,,54.0,0.0,0.707468,0.100586,0.6733399999999999,0.189697,0.9087049999999999,-0.406256,-0.07128999999999999,-0.027239,-0.035002,-0.007456,,,,,,,,,,,,,,,,,,,,,,,,,,,,,,,,,,,,,,,,,,,,,,,,,,,,,,,,,,,,,,,,,
29118,1645901129.175864,1645901129.204531,109.0,0.0,4318.974121,4347.692383,4258.974121,4124.102539,4278.461426,450.0,1.0,15.0,,,,0.0,4.0,2.0,1.0,4.0,4.0,58.33333199999999,,,,,,,,,,,,,,,,,,,,,,,,,,,,,,,,,,,,,,,,,,,,,,,,,,,,,,,,,,,,,,,,,,,,,,,,,,,,,,,,,,,,
29119,1645901129.183678,1645901129.2122462,110.0,0.0,4327.179688,4342.05127,4304.615234000001,4142.05127,4267.179688,450.0,1.0,15.0,,,,0.0,4.0,2.0,1.0,4.0,4.0,58.33333199999999,,,,,,,,55.0,0.0,0.707468,0.100586,0.6733399999999999,0.189697,0.913588,-0.41260399999999997,-0.088869,-0.027738,-0.035066,-0.005832,,,,,,,,,,,,,,,,,,,,,,,,,,,,,,,,,,,0.0,0.0,1.0,0.0,512.0,0.7054010000000001,,,,,,,,,,,,,,,,,,,,,,,,,
29120,1645901129.1914911,1645901129.2200599,111.0,0.0,4333.333496,4420.512695,4255.384765999999,4132.307617,4292.820313,16194.0,1.0,15.0,,,,0.0,4.0,2.0,1.0,4.0,4.0,58.33333199999999,,,,,,,,,,,,,,,,,,,,,,,,,,,,,,,,,,,,,,,,,,,,,,,,,,,,,,,,,,,,,,,,,,,,,,,,,,,,,,,,,,,,
29121,1645901129.199305,1645901129.227875,112.0,0.0,4334.358886999999,4420.0,4200.0,4150.256348,4316.410156,450.0,1.0,15.0,,,,0.0,4.0,2.0,1.0,4.0,4.0,58.33333199999999,,,,,,,,56.0,0.0,0.707468,0.100586,0.6733399999999999,0.189697,0.929702,-0.409674,-0.072267,-0.027991000000000002,-0.035222,-0.004321,,,,,,,,,,,,,,,,,,,,,,,,,,,,,,,,,,,,,,,,,,,,,,,,,,,,,,,,,,,,,,,,,
29122,1645901129.207118,1645901129.23569,113.0,0.0,4336.410156,4371.282227000001,4223.589844,4166.666504,4289.743652,450.0,1.0,15.0,,,,0.0,4.0,2.0,1.0,4.0,4.0,58.33333199999999,,,,,,,,,,,,,,,,,,,,,,,,,,,,,,,,,,,,,,,,,,,,,,,,,,,,,,,,,,,,,,,,,,,,,,,,,,,,,,,,,,,,
29123,1645901129.214932,1645901129.2435038,114.0,0.0,4342.563965,4358.461426,4180.0,4167.692383,4298.974121,450.0,1.0,15.0,,,,0.0,4.0,2.0,1.0,4.0,4.0,58.33333199999999,,,,,,,,57.0,0.0,0.7077,0.100586,0.673096,0.189697,0.929702,-0.398932,-0.080079,-0.028366000000000002,-0.035313,-0.006184,,,,,,,,,,,,,,,,,,,,,,,,,,,,,,,,,,,0.0,0.0,1.0,0.0,512.0,0.7054010000000001,,,,,,,,,,,,,,,,,,,,,,,,,
29124,1645901129.2227461,1645901129.251319,115.0,0.0,4314.871582,4368.205078,4160.0,4181.025879,4320.512695,16194.0,1.0,15.0,,,,0.0,4.0,2.0,1.0,4.0,4.0,58.33333199999999,,,,,,,,,,,,,,,,,,,,,,,,,,,,,,,,,,,,,,,,,,,,,,,,,,,,,,,,,,,,,,,,,,,,,,,,,,,,,,,,,,,,
29125,1645901129.2305589,1645901129.259134,116.0,0.0,4311.794922,4408.205078,4185.641113000001,4162.563965,4301.025879,450.0,1.0,15.0,,,,0.0,4.0,2.0,1.0,4.0,4.0,58.33333199999999,,,,,,,,58.0,0.0,0.707533,0.100586,0.6733399999999999,0.189453,0.918959,-0.40576799999999996,-0.069825,-0.028557,-0.035345999999999995,-0.004637,,,,,,,,,,,,,,,,,,,,,,,,,,,,,,,,,,,,,,,,,,,,,,,,,,,,,,,,,,,,,,,,,
29126,1645901129.238373,1645901129.266948,117.0,0.0,4336.410156,4486.153809,4202.563965,4108.717772999999,4313.846191,450.0,1.0,15.0,,,,0.0,4.0,2.0,1.0,4.0,4.0,58.33333199999999,,,,,,,,,,,,,,,,,,,,,,,,,,,,,,,,,,,,,,,,,,,,,,,,,,,,,,,,,,,,,,,,,,,,,,,,,,,,,,,,,,,,
29127,1645901129.246186,1645901129.274763,118.0,0.0,4336.410156,4513.846191,4244.102539,4138.974121,4328.717772999999,450.0,1.0,15.0,,,,0.0,4.0,2.0,1.0,4.0,4.0,58.33333199999999,,,,,,,,59.0,0.0,0.707533,0.100586,0.6733399999999999,0.189453,0.9209129999999999,-0.411627,-0.080079,-0.02575,-0.035230000000000004,-0.006371,1.0,0.0,0.0,,,,,,,,,,,,,,,,,,,,,,,,,,,,,,,,0.0,0.0,1.0,0.0,512.0,0.7595310000000001,18.142502,10.983449,1.924345,1.884295,1.729643,70.223824,42.635788,22.686188,15.513817000000001,31.001686,17.115629000000002,15.338935000000001,4.262522,5.246439,6.224869,10.31594,4.036098,4.144875,5.012087999999999,3.025842,8.390363,3.3955519999999995,2.048419,2.42361,1.6859950000000001
29128,1645901129.254,1645901129.282578,119.0,0.0,4333.333496,4447.179688,4255.897461,4173.846191,4276.922852000001,16194.0,1.0,15.0,,,,0.0,4.0,2.0,1.0,4.0,4.0,58.33333199999999,,,,,,,,,,,,,,,,,,,,,,,,,,,,,,,,,,,,,,,,,,,,,,,,,,,,,,,,,,,,,,,,,,,,,,,,,,,,,,,,,,,,
29129,1645901129.261814,1645901129.290292,120.0,0.0,4346.153809,4467.692383,4225.128418,4139.487305,4275.897461,450.0,1.0,15.0,,,,0.0,4.0,2.0,1.0,4.0,4.0,58.33333199999999,,,,,,,,60.0,0.0,0.707766,0.100586,0.673096,0.189453,0.9155409999999999,-0.410163,-0.075196,-0.02337,-0.035271,-0.00798,,,,,,,,,,,,,,,,,,,,,,,,,,,,,,,,,,,,,,,,,,,,,,,,,,,,,,,,,,,,,,,,,
29130,1645901129.2696269,1645901129.2981071,121.0,0.0,4331.282227000001,4513.333496,4214.871582,4143.589844,4311.282227000001,450.0,1.0,15.0,,,,0.0,4.0,2.0,1.0,4.0,4.0,58.33333199999999,,,,,,,,,,,,,,,,,,,,,,,,,,,,,,,,,,,,,,,,,,,,,,,,,,,,,,,,,,,,,,,,,,,,,,,,,,,,,,,,,,,,
29131,1645901129.277441,1645901129.305922,122.0,0.0,4328.205078,4392.307617,4250.769043,4178.461426,4291.794922,450.0,1.0,15.0,,,,0.0,4.0,2.0,1.0,4.0,4.0,58.33333199999999,,,,,,,,61.0,0.0,0.707766,0.100586,0.673096,0.189453,0.920424,-0.40381500000000004,-0.071778,-0.024158000000000002,-0.035211,-0.00933,,,,,,,,,,,,,,,,,,,,,,,,,,,,,,,,,,,0.0,0.0,1.0,0.0,512.0,0.7595310000000001,,,,,,,,,,,,,,,,,,,,,,,,,
29132,1645901129.285254,1645901129.313736,123.0,0.0,4345.641113000001,4369.743652,4243.589844,4141.025879,4280.0,16194.0,1.0,15.0,,,,0.0,4.0,2.0,1.0,4.0,4.0,58.33333199999999,,,,,,,,,,,,,,,,,,,,,,,,,,,,,,,,,,,,,,,,,,,,,,,,,,,,,,,,,,,,,,,,,,,,,,,,,,,,,,,,,,,,
29133,1645901129.293068,1645901129.321551,124.0,0.0,4333.846191,4508.205078,4224.102539,4110.769043,4301.538574,450.0,1.0,15.0,,,,0.0,4.0,2.0,1.0,4.0,4.0,58.33333199999999,,,,,,,,62.0,0.0,0.707766,0.100586,0.673096,0.189453,0.9209129999999999,-0.399908,-0.076661,-0.024868,-0.035302999999999994,-0.007567,,,,,,,,,,,,,,,,,,,,,,,,,,,,,,,,,,,,,,,,,,,,,,,,,,,,,,,,,,,,,,,,,
29134,1645901129.300882,1645901129.329366,125.0,0.0,4323.589844,4484.102539,4218.974121,4150.769043,4303.589844,450.0,1.0,15.0,,,,0.0,4.0,2.0,1.0,4.0,4.0,58.33333199999999,,,,,,,,,,,,,,,,,,,,,,,,,,,,,,,,,,,,,,,,,,,,,,,,,,,,,,,,,,,,,,,,,,,,,,,,,,,,,,,,,,,,
29135,1645901129.3086948,1645901129.3371801,126.0,0.0,4334.358886999999,4390.256348,4243.077147999999,4179.487305,4289.743652,450.0,1.0,15.0,,,,0.0,4.0,2.0,1.0,4.0,4.0,58.33333199999999,,,,,,,,63.0,0.0,0.707766,0.100586,0.673096,0.189453,0.9155409999999999,-0.410163,-0.075196,-0.022576,-0.035337,-0.009056999999999999,,,,,,,,,,,,,,,,,,,,,,,,,,,,,,,,,,,0.0,0.0,1.0,0.0,512.0,0.7595310000000001,,,,,,,,,,,,,,,,,,,,,,,,,
29136,1645901129.316509,1645901129.344995,127.0,0.0,4335.897461,4452.820313,4169.230957,4164.615234000001,4285.641113000001,233.0,1.0,15.0,,,,0.0,4.0,2.0,1.0,4.0,4.0,58.33333199999999,,,,,,,,,,,,,,,,,,,,,,,,,,,,,,,,,,,,,,,,,,,,,,,,,,,,,,,,,,,,,,,,,,,,,,,,,,,,,,,,,,,,
29137,1645901129.324322,1645901129.352809,0.0,0.0,4317.94873,4475.384765999999,4167.692383,4138.461426,4293.333496,450.0,1.0,15.0,,,,0.0,4.0,2.0,1.0,4.0,4.0,58.33333199999999,,,,,,,,0.0,0.0,0.707766,0.100586,0.673096,0.189453,0.9209129999999999,-0.399908,-0.076661,-0.023444,-0.035417000000000004,-0.007320999999999999,,,,,,,,,,,,,,,,,,,,,,,,,,,,,,,,,,,,,,,,,,,,,,,,,,,,,,,,,,,,,,,,,
29138,1645901129.332136,1645901129.360624,1.0,0.0,4326.153809,4373.846191,4250.769043,4128.205078,4311.282227000001,450.0,1.0,15.0,,,,0.0,4.0,2.0,1.0,4.0,4.0,58.33333199999999,,,,,,,,,,,,,,,,,,,,,,,,,,,,,,,,,,,,,,,,,,,,,,,,,,,,,,,,,,,,,,,,,,,,,,,,,,,,,,,,,,,,
29139,1645901129.3399491,1645901129.368339,2.0,0.0,4355.384765999999,4420.0,4242.563965,4101.538574,4313.333496,16228.0,1.0,15.0,,,,0.0,4.0,1.0,0.0,4.0,4.0,41.666668,,,,,,,,1.0,0.0,0.707766,0.100586,0.673096,0.189453,0.9248190000000001,-0.397467,-0.080079,-0.024224000000000002,-0.035293,-0.00571,,,,,,,,,,,,,,,,,,,,,,,,,,,,,,,,,,,0.0,0.0,1.0,0.0,512.0,0.7595310000000001,,,,,,,,,,,,,,,,,,,,,,,,,
29140,1645901129.347763,1645901129.376154,3.0,0.0,4363.589844,4540.512695,4206.666504,4105.128418,4311.282227000001,450.0,1.0,15.0,,,,0.0,4.0,1.0,0.0,4.0,4.0,41.666668,,,,,,,,,,,,,,,,,,,,,,,,,,,,,,,,,,,,,,,,,,,,,,,,,,,,,,,,,,,,,,,,,,,,,,,,,,,,,,,,,,,,
29141,1645901129.355577,1645901129.3839679,4.0,0.0,4338.974121,4477.436035,4237.94873,4158.974121,4273.333496,157.0,1.0,15.0,,,,0.0,4.0,1.0,0.0,4.0,4.0,41.666668,,,,,,,,2.0,0.0,0.7079979999999999,0.100586,0.672852,0.189453,0.922866,-0.404303,-0.086427,-0.024927,-0.035328,-0.007287,,,,,,,,,,,,,,,,,,,,,,,,,,,,,,,,,,,,,,,,,,,,,,,,,,,,,,,,,,,,,,,,,
29142,1645901129.36339,1645901129.391783,5.0,0.0,4332.820313,4406.153809,4235.897461,4177.436035,4264.615234000001,450.0,1.0,15.0,,,,0.0,4.0,1.0,0.0,4.0,4.0,41.666668,,,,,,,,,,,,,,,,,,,,,,,,,,,,,,,,,,,,,,,,,,,,,,,,,,,,,,,,,,,,,,,,,,,,,,,,,,,,,,,,,,,,
29143,1645901129.371204,1645901129.3995972,6.0,0.0,4297.436035,4414.358886999999,4230.769043,4153.846191,4294.358886999999,0.0,1.0,15.0,,,,0.0,4.0,1.0,0.0,4.0,4.0,41.666668,,,,,,,,3.0,0.0,0.7078,0.100342,0.673096,0.189453,0.921401,-0.42188100000000006,-0.06640700000000001,-0.025509999999999998,-0.035311,-0.005679999999999999,1.0,0.0,0.0,,,,,,,,,,,,,,,,,,,,,,,,,,,,,,,,0.0,0.0,1.0,0.0,512.0,0.770729,17.699989000000002,11.491973,1.825602,1.706721,1.8109110000000002,73.77307900000001,38.54755,23.309521,12.807034,31.565116999999997,16.723817999999998,14.488222,4.039423,4.92277,6.5222809999999996,8.614854,3.394386,3.27048,4.162928,2.9918,8.498503,3.484205,1.946,2.579683,1.706493
29144,1645901129.3790169,1645901129.4074118,7.0,0.0,4280.512695,4431.794922,4215.897461,4147.179688,4292.307617,450.0,1.0,15.0,,,,0.0,4.0,1.0,0.0,4.0,4.0,41.666668,,,,,,,,,,,,,,,,,,,,,,,,,,,,,,,,,,,,,,,,,,,,,,,,,,,,,,,,,,,,,,,,,,,,,,,,,,,,,,,,,,,,
29145,1645901129.386831,1645901129.415227,8.0,0.0,4319.487305,4541.538574,4214.871582,4115.897461,4278.461426,450.0,1.0,15.0,,,,0.0,4.0,1.0,0.0,4.0,4.0,41.666668,,,,,,,,4.0,0.0,0.708032,0.100342,0.672852,0.189453,0.916518,-0.397467,-0.07422000000000001,-0.025987,-0.035198,-0.007309,,,,,,,,,,,,,,,,,,,,,,,,,,,,,,,,,,,,,,,,,,,,,,,,,,,,,,,,,,,,,,,,,
29146,1645901129.394645,1645901129.423041,9.0,0.0,4315.384765999999,4560.0,4278.974121,4110.769043,4286.153809,16133.0,1.0,15.0,,,,0.0,4.0,1.0,0.0,4.0,4.0,41.666668,,,,,,,,,,,,,,,,,,,,,,,,,,,,,,,,,,,,,,,,,,,,,,,,,,,,,,,,,,,,,,,,,,,,,,,,,,,,,,,,,,,,
29147,1645901129.402458,1645901129.430856,10.0,0.0,4282.563965,4432.307617,4241.538574,4131.794922,4269.230957,450.0,1.0,15.0,,,,0.0,4.0,1.0,0.0,4.0,4.0,41.666668,,,,,,,,5.0,0.0,0.708098,0.100342,0.672852,0.189209,0.9160299999999999,-0.409674,-0.070314,-0.026513,-0.035243000000000003,-0.008727,,,,,,,,,,,,,,,,,,,,,,,,,,,,,,,,,,,0.0,0.0,1.0,0.0,512.0,0.770729,,,,,,,,,,,,,,,,,,,,,,,,,
29148,1645901129.4102721,1645901129.438571,11.0,0.0,4305.641113000001,4436.410156,4218.461426,4105.641113000001,4260.512695,16172.0,1.0,15.0,,,,0.0,4.0,1.0,0.0,4.0,4.0,41.666668,,,,,,,,,,,,,,,,,,,,,,,,,,,,,,,,,,,,,,,,,,,,,,,,,,,,,,,,,,,,,,,,,,,,,,,,,,,,,,,,,,,,
29149,1645901129.4180849,1645901129.446385,12.0,0.0,4328.717772999999,4492.307617,4287.179688,4087.6923829999996,4291.282227000001,450.0,1.0,15.0,,,,0.0,4.0,1.0,0.0,4.0,4.0,41.666668,,,,,,,,6.0,0.0,0.708098,0.100342,0.672852,0.189209,0.9306780000000001,-0.397467,-0.069825,-0.023959,-0.035137,-0.010051000000000001,,,,,,,,,,,,,,,,,,,,,,,,,,,,,,,,,,,,,,,,,,,,,,,,,,,,,,,,,,,,,,,,,
29150,1645901129.425899,1645901129.4542,13.0,0.0,4307.692383,4442.05127,4299.487305,4123.589844,4307.179688,450.0,1.0,15.0,,,,0.0,4.0,1.0,0.0,4.0,4.0,41.666668,,,,,,,,,,,,,,,,,,,,,,,,,,,,,,,,,,,,,,,,,,,,,,,,,,,,,,,,,,,,,,,,,,,,,,,,,,,,,,,,,,,,
29151,1645901129.4337132,1645901129.4620152,14.0,0.0,4327.179688,4436.922852000001,4252.307617,4147.692383,4304.615234000001,450.0,1.0,15.0,,,,0.0,4.0,1.0,0.0,4.0,4.0,41.666668,,,,,,,,7.0,0.0,0.708098,0.100342,0.672852,0.189209,0.922377,-0.41065100000000004,-0.083009,-0.024786000000000002,-0.035187,-0.011341,,,,,,,,,,,,,,,,,,,,,,,,,,,,,,,,,,,0.0,0.0,1.0,0.0,512.0,0.770729,,,,,,,,,,,,,,,,,,,,,,,,,
29152,1645901129.441526,1645901129.4698288,15.0,0.0,4348.205078,4459.487305,4285.641113000001,4142.05127,4298.461426,16172.0,1.0,15.0,,,,0.0,4.0,1.0,0.0,4.0,4.0,41.666668,,,,,,,,,,,,,,,,,,,,,,,,,,,,,,,,,,,,,,,,,,,,,,,,,,,,,,,,,,,,,,,,,,,,,,,,,,,,,,,,,,,,
29153,1645901129.44934,1645901129.477644,16.0,0.0,4311.282227000001,4437.94873,4256.922852000001,4156.410156,4279.487305,0.0,1.0,15.0,,,,0.0,4.0,1.0,0.0,4.0,4.0,41.666668,,,,,,,,8.0,0.0,0.708098,0.100342,0.672852,0.189209,0.9111469999999999,-0.391608,-0.064454,-0.025481,-0.035184,-0.012355,,,,,,,,,,,,,,,,,,,,,,,,,,,,,,,,,,,,,,,,,,,,,,,,,,,,,,,,,,,,,,,,,
29154,1645901129.4571528,1645901129.485459,17.0,0.0,4304.615234000001,4458.461426,4173.333496,4164.102539,4266.153809,0.0,1.0,15.0,,,,0.0,4.0,1.0,0.0,4.0,4.0,41.666668,,,,,,,,,,,,,,,,,,,,,,,,,,,,,,,,,,,,,,,,,,,,,,,,,,,,,,,,,,,,,,,,,,,,,,,,,,,,,,,,,,,,
29155,1645901129.464967,1645901129.493273,18.0,0.0,4353.333496,4466.153809,4144.102539,4141.025879,4304.102539,0.0,1.0,15.0,,,,0.0,4.0,1.0,0.0,4.0,4.0,41.666668,,,,,,,,9.0,0.0,0.708098,0.100342,0.672852,0.189209,0.9365379999999999,-0.401373,-0.06543099999999999,-0.026106999999999998,-0.035182,-0.010241,,,,,,,,,,,,,,,,,,,,,,,,,,,,,,,,,,,0.0,0.0,1.0,0.0,512.0,0.770729,,,,,,,,,,,,,,,,,,,,,,,,,
29156,1645901129.472781,1645901129.5010881,19.0,0.0,4346.153809,4411.794922,4212.307617,4121.538574,4336.410156,0.0,1.0,15.0,,,,0.0,4.0,1.0,0.0,4.0,4.0,41.666668,,,,,,,,,,,,,,,,,,,,,,,,,,,,,,,,,,,,,,,,,,,,,,,,,,,,,,,,,,,,,,,,,,,,,,,,,,,,,,,,,,,,
29157,1645901129.480594,1645901129.508803,20.0,0.0,4332.820313,4425.128418,4221.538574,4130.769043,4331.282227000001,0.0,1.0,15.0,,,,0.0,4.0,1.0,0.0,4.0,4.0,41.666668,,,,,,,,10.0,0.0,0.707866,0.100342,0.673096,0.189209,0.917006,-0.401373,-0.063966,-0.023594,-0.035227999999999995,-0.011365,,,,,,,,,,,,,,,,,,,,,,,,,,,,,,,,,,,,,,,,,,,,,,,,,,,,,,,,,,,,,,,,,
29158,1645901129.488408,1645901129.516617,21.0,0.0,4364.102539,4520.0,4192.307617,4123.077147999999,4318.974121,0.0,1.0,15.0,,,,0.0,4.0,1.0,0.0,4.0,4.0,41.666668,,,,,,,,,,,,,,,,,,,,,,,,,,,,,,,,,,,,,,,,,,,,,,,,,,,,,,,,,,,,,,,,,,,,,,,,,,,,,,,,,,,,
29159,1645901129.496221,1645901129.524432,22.0,0.0,4368.205078,4481.538574,4226.153809,4136.410156,4323.589844,0.0,1.0,15.0,,,,0.0,4.0,1.0,0.0,4.0,4.0,41.666668,1.0,16.666666,2.0,0.0,0.0,2.0,4.0,11.0,0.0,0.708098,0.100342,0.672852,0.189209,0.926284,-0.400885,-0.066896,-0.021284,-0.035074,-0.012475,1.0,0.0,0.0,,,,,,,,,,,,,,,,,,,,,,,,,,,,,,,,0.0,0.0,1.0,0.0,512.0,0.6337470000000001,15.558989000000002,11.378266,1.802136,1.5704790000000002,1.825641,71.799828,33.890308000000005,24.359126999999997,11.585868,31.929640000000003,16.823473,14.632303,4.204154,4.395396,7.0907279999999995,7.065722,3.213961,2.943638,3.575156,2.941161,7.83495,3.567415,2.0742700000000003,2.820162,1.780641
29160,1645901129.504035,1645901129.532247,23.0,0.0,4337.94873,4336.410156,4226.153809,4177.436035,4289.743652,0.0,1.0,15.0,,,,0.0,4.0,1.0,0.0,4.0,4.0,41.666668,,,,,,,,,,,,,,,,,,,,,,,,,,,,,,,,,,,,,,,,,,,,,,,,,,,,,,,,,,,,,,,,,,,,,,,,,,,,,,,,,,,,
29161,1645901129.511849,1645901129.540061,24.0,0.0,4340.512695,4392.820313,4196.922852000001,4170.769043,4256.922852000001,0.0,1.0,15.0,,,,0.0,4.0,1.0,0.0,4.0,4.0,41.666668,,,,,,,,12.0,0.0,0.707866,0.100342,0.673096,0.189209,0.918959,-0.41651000000000005,-0.082521,-0.022231,-0.034936,-0.013474000000000002,,,,,,,,,,,,,,,,,,,,,,,,,,,,,,,,,,,,,,,,,,,,,,,,,,,,,,,,,,,,,,,,,
29162,1645901129.519662,1645901129.547876,25.0,0.0,4321.025879,4486.666504,4241.025879,4129.743652,4265.128418,0.0,1.0,15.0,,,,0.0,4.0,1.0,0.0,4.0,4.0,41.666668,,,,,,,,,,,,,,,,,,,,,,,,,,,,,,,,,,,,,,,,,,,,,,,,,,,,,,,,,,,,,,,,,,,,,,,,,,,,,,,,,,,,
29163,1645901129.527476,1645901129.555691,26.0,0.0,4294.358886999999,4419.487305,4274.358886999999,4143.077147999999,4285.641113000001,0.0,1.0,15.0,,,,0.0,4.0,1.0,0.0,4.0,4.0,41.666668,,,,,,,,13.0,0.0,0.708163,0.100342,0.672852,0.18896500000000002,0.9111469999999999,-0.396002,-0.078126,-0.023084999999999998,-0.034812,-0.01115,,,,,,,,,,,,,,,,,,,,,,,,,,,,,,,,,,,0.0,0.0,1.0,0.0,512.0,0.6337470000000001,,,,,,,,,,,,,,,,,,,,,,,,,
29164,1645901129.535289,1645901129.5635052,27.0,0.0,4311.282227000001,4429.230957,4209.743652,4148.205078,4298.974121,0.0,1.0,15.0,,,,0.0,4.0,1.0,0.0,4.0,4.0,41.666668,,,,,,,,,,,,,,,,,,,,,,,,,,,,,,,,,,,,,,,,,,,,,,,,,,,,,,,,,,,,,,,,,,,,,,,,,,,,,,,,,,,,
29165,1645901129.543103,1645901129.5713198,28.0,0.0,4316.410156,4508.205078,4230.256348,4124.102539,4302.05127,0.0,1.0,15.0,,,,0.0,4.0,1.0,0.0,4.0,4.0,41.666668,,,,,,,,14.0,0.0,0.708163,0.100342,0.672852,0.18896500000000002,0.921889,-0.404303,-0.06543099999999999,-0.023901,-0.034894999999999995,-0.012086,,,,,,,,,,,,,,,,,,,,,,,,,,,,,,,,,,,,,,,,,,,,,,,,,,,,,,,,,,,,,,,,,
29166,1645901129.550917,1645901129.579035,29.0,0.0,4297.436035,4399.487305,4257.94873,4140.0,4284.615234000001,0.0,1.0,15.0,,,,0.0,4.0,1.0,0.0,4.0,4.0,41.666668,,,,,,,,,,,,,,,,,,,,,,,,,,,,,,,,,,,,,,,,,,,,,,,,,,,,,,,,,,,,,,,,,,,,,,,,,,,,,,,,,,,,
29167,1645901129.5587301,1645901129.586849,30.0,0.0,4299.487305,4325.128418,4229.230957,4175.384765999999,4268.717772999999,0.0,1.0,15.0,,,,0.0,4.0,1.0,0.0,4.0,4.0,41.666668,,,,,,,,15.0,0.0,0.7079310000000001,0.100342,0.673096,0.18896500000000002,0.934585,-0.399908,-0.078126,-0.024636,-0.034921,-0.013025,,,,,,,,,,,,,,,,,,,,,,,,,,,,,,,,,,,0.0,0.0,1.0,0.0,512.0,0.6337470000000001,,,,,,,,,,,,,,,,,,,,,,,,,
29168,1645901129.566544,1645901129.594664,31.0,0.0,4313.333496,4478.974121,4215.384765999999,4178.461426,4282.563965,0.0,1.0,15.0,,,,0.0,4.0,1.0,0.0,4.0,4.0,41.666668,,,,,,,,,,,,,,,,,,,,,,,,,,,,,,,,,,,,,,,,,,,,,,,,,,,,,,,,,,,,,,,,,,,,,,,,,,,,,,,,,,,,
29169,1645901129.574357,1645901129.602479,32.0,0.0,4305.641113000001,4557.436035,4259.487305,4150.769043,4295.384765999999,0.0,1.0,15.0,,,,0.0,4.0,1.0,0.0,4.0,4.0,41.666668,,,,,,,,16.0,0.0,0.707896,0.100586,0.673096,0.18896500000000002,0.923842,-0.40576799999999996,-0.080568,-0.025297,-0.034847,-0.013969,,,,,,,,,,,,,,,,,,,,,,,,,,,,,,,,,,,,,,,,,,,,,,,,,,,,,,,,,,,,,,,,,
29170,1645901129.5821712,1645901129.610293,33.0,0.0,4323.589844,4449.743652,4233.846191,4122.563965,4303.589844,0.0,1.0,15.0,,,,0.0,4.0,1.0,0.0,4.0,4.0,41.666668,,,,,,,,,,,,,,,,,,,,,,,,,,,,,,,,,,,,,,,,,,,,,,,,,,,,,,,,,,,,,,,,,,,,,,,,,,,,,,,,,,,,
29171,1645901129.589985,1645901129.618108,34.0,0.0,4346.666504,4443.077147999999,4230.256348,4098.461426,4310.769043,0.0,1.0,15.0,,,,0.0,4.0,1.0,0.0,4.0,4.0,41.666668,,,,,,,,17.0,0.0,0.707831,0.100586,0.673096,0.189209,0.9248190000000001,-0.41113900000000003,-0.08105599999999999,-0.025942000000000003,-0.034829,-0.011742,,,,,,,,,,,,,,,,,,,,,,,,,,,,,,,,,,,0.0,0.0,1.0,0.0,512.0,0.6337470000000001,,,,,,,,,,,,,,,,,,,,,,,,,
29172,1645901129.597798,1645901129.625922,35.0,0.0,4341.538574,4560.512695,4270.769043,4111.794922,4305.641113000001,0.0,1.0,15.0,,,,0.0,4.0,1.0,0.0,4.0,4.0,41.666668,,,,,,,,,,,,,,,,,,,,,,,,,,,,,,,,,,,,,,,,,,,,,,,,,,,,,,,,,,,,,,,,,,,,,,,,,,,,,,,,,,,,
29173,1645901129.6056118,1645901129.6337368,36.0,0.0,4333.846191,4526.666504,4237.436035,4126.666504,4284.102539,0.0,1.0,15.0,,,,0.0,4.0,1.0,0.0,4.0,4.0,41.666668,,,,,,,,18.0,0.0,0.707831,0.100586,0.673096,0.189209,0.925795,-0.39502600000000004,-0.070802,-0.023396,-0.034911000000000005,-0.009689,,,,,,,,,,,,,,,,,,,,,,,,,,,,,,,,,,,,,,,,,,,,,,,,,,,,,,,,,,,,,,,,,
29174,1645901129.613425,1645901129.641552,37.0,0.0,4340.0,4406.153809,4175.384765999999,4140.512695,4276.410156,0.0,1.0,15.0,,,,0.0,4.0,1.0,0.0,4.0,4.0,41.666668,,,,,,,,,,,,,,,,,,,,,,,,,,,,,,,,,,,,,,,,,,,,,,,,,,,,,,,,,,,,,,,,,,,,,,,,,,,,,,,,,,,,
29175,1645901129.621239,1645901129.649366,38.0,0.0,4326.153809,4434.358886999999,4221.538574,4177.436035,4259.487305,0.0,1.0,15.0,,,,0.0,4.0,1.0,0.0,4.0,4.0,41.666668,,,,,,,,19.0,0.0,0.707831,0.100586,0.673096,0.189209,0.9194479999999999,-0.40528000000000003,-0.07324299999999999,-0.021105000000000002,-0.034838,-0.010868000000000001,1.0,0.0,0.0,,,,,,,,,,,,,,,,,,,,,,,,,,,,,,,,0.0,0.0,1.0,0.0,512.0,0.796664,12.500988000000001,10.736053,1.8396299999999999,1.5056530000000001,1.775608,64.22159599999999,30.026787,25.356811999999998,11.772723,32.260841,17.011732000000002,15.594914000000001,4.990769,3.796297,7.749866,5.807241,3.389167,2.99205,3.3927709999999998,2.927708,6.606438000000001,3.613903,2.460941,3.112736,1.939698
29176,1645901129.6290529,1645901129.6570811,39.0,0.0,4323.589844,4503.589844,4256.922852000001,4202.563965,4281.025879,0.0,1.0,15.0,,,,0.0,4.0,1.0,0.0,4.0,4.0,41.666668,,,,,,,,,,,,,,,,,,,,,,,,,,,,,,,,,,,,,,,,,,,,,,,,,,,,,,,,,,,,,,,,,,,,,,,,,,,,,,,,,,,,
29177,1645901129.636866,1645901129.664896,40.0,0.0,4313.846191,4458.974121,4189.230957,4195.384765999999,4320.512695,0.0,1.0,15.0,,,,0.0,4.0,1.0,0.0,4.0,4.0,41.666668,,,,,,,,20.0,0.0,0.707766,0.100586,0.673096,0.189453,0.925795,-0.39942,-0.07422000000000001,-0.022169,-0.03487,-0.011979,,,,,,,,,,,,,,,,,,,,,,,,,,,,,,,,,,,,,,,,,,,,,,,,,,,,,,,,,,,,,,,,,
29178,1645901129.64468,1645901129.672611,41.0,0.0,4298.974121,4429.230957,4195.897461,4190.256348,4311.282227000001,0.0,1.0,15.0,,,,0.0,4.0,1.0,0.0,4.0,4.0,41.666668,,,,,,,,,,,,,,,,,,,,,,,,,,,,,,,,,,,,,,,,,,,,,,,,,,,,,,,,,,,,,,,,,,,,,,,,,,,,,,,,,,,,
29179,1645901129.652493,1645901129.680425,42.0,0.0,4312.820313,4484.102539,4260.512695,4175.384765999999,4288.717772999999,0.0,1.0,15.0,,,,0.0,4.0,1.0,0.0,4.0,4.0,41.666668,,,,,,,,21.0,0.0,0.707468,0.100586,0.6733399999999999,0.189697,0.922866,-0.395514,-0.064454,-0.023028,-0.03485,-0.012978,,,,,,,,,,,,,,,,,,,,,,,,,,,,,,,,,,,0.0,0.0,1.0,0.0,512.0,0.796664,,,,,,,,,,,,,,,,,,,,,,,,,
29180,1645901129.660307,1645901129.68824,43.0,0.0,4337.94873,4506.666504,4272.820313,4158.974121,4314.871582,0.0,1.0,15.0,,,,0.0,4.0,1.0,0.0,4.0,4.0,41.666668,,,,,,,,,,,,,,,,,,,,,,,,,,,,,,,,,,,,,,,,,,,,,,,,,,,,,,,,,,,,,,,,,,,,,,,,,,,,,,,,,,,,
29181,1645901129.668121,1645901129.695955,44.0,0.0,4336.410156,4463.077147999999,4246.666504,4164.615234000001,4322.05127,0.0,1.0,15.0,,,,0.0,4.0,1.0,0.0,4.0,4.0,41.666668,,,,,,,,22.0,0.0,0.707468,0.100586,0.6733399999999999,0.189697,0.9150530000000001,-0.398932,-0.069825,-0.02385,-0.034977999999999995,-0.013878,,,,,,,,,,,,,,,,,,,,,,,,,,,,,,,,,,,,,,,,,,,,,,,,,,,,,,,,,,,,,,,,,
29182,1645901129.675934,1645901129.703769,45.0,0.0,4326.666504,4440.512695,4264.102539,4156.922852000001,4270.256348,0.0,1.0,15.0,,,,0.0,4.0,1.0,0.0,4.0,4.0,41.666668,,,,,,,,,,,,,,,,,,,,,,,,,,,,,,,,,,,,,,,,,,,,,,,,,,,,,,,,,,,,,,,,,,,,,,,,,,,,,,,,,,,,
29183,1645901129.683748,1645901129.711584,46.0,0.0,4332.307617,4420.512695,4233.846191,4144.615234000001,4271.794922,0.0,1.0,15.0,,,,0.0,4.0,1.0,0.0,4.0,4.0,41.666668,,,,,,,,23.0,0.0,0.707503,0.100342,0.6733399999999999,0.189697,0.922377,-0.416022,-0.06543099999999999,-0.024541999999999998,-0.034898,-0.014687,,,,,,,,,,,,,,,,,,,,,,,,,,,,,,,,,,,0.0,0.0,1.0,0.0,512.0,0.796664,,,,,,,,,,,,,,,,,,,,,,,,,
29184,1645901129.691561,1645901129.719399,47.0,0.0,4337.436035,4425.128418,4237.94873,4178.974121,4313.846191,0.0,1.0,15.0,,,,0.0,4.0,1.0,0.0,4.0,4.0,41.666668,,,,,,,,,,,,,,,,,,,,,,,,,,,,,,,,,,,,,,,,,,,,,,,,,,,,,,,,,,,,,,,,,,,,,,,,,,,,,,,,,,,,
29185,1645901129.699375,1645901129.7272131,48.0,0.0,4354.358886999999,4515.384765999999,4255.384765999999,4189.230957,4318.461426,0.0,1.0,15.0,,,,0.0,4.0,1.0,0.0,4.0,4.0,41.666668,,,,,,,,24.0,0.0,0.707503,0.100342,0.6733399999999999,0.189697,0.914076,-0.409674,-0.064942,-0.025212000000000002,-0.034924000000000004,-0.012291,,,,,,,,,,,,,,,,,,,,,,,,,,,,,,,,,,,,,,,,,,,,,,,,,,,,,,,,,,,,,,,,,
29186,1645901129.7071881,1645901129.735028,49.0,0.0,4356.922852000001,4531.282227000001,4237.436035,4142.05127,4301.538574,0.0,1.0,15.0,,,,0.0,4.0,1.0,0.0,4.0,4.0,41.666668,,,,,,,,,,,,,,,,,,,,,,,,,,,,,,,,,,,,,,,,,,,,,,,,,,,,,,,,,,,,,,,,,,,,,,,,,,,,,,,,,,,,
29187,1645901129.715002,1645901129.742743,50.0,0.0,4355.897461,4434.871582,4197.94873,4148.205078,4298.974121,0.0,1.0,15.0,,,,0.0,4.0,1.0,0.0,4.0,4.0,41.666668,,,,,,,,25.0,0.0,0.707503,0.100342,0.6733399999999999,0.189697,0.921889,-0.398444,-0.06836,-0.025914,-0.034947000000000006,-0.013259,,,,,,,,,,,,,,,,,,,,,,,,,,,,,,,,,,,0.0,0.0,1.0,0.0,512.0,0.796664,,,,,,,,,,,,,,,,,,,,,,,,,
29188,1645901129.722816,1645901129.750557,51.0,0.0,4368.205078,4464.102539,4233.333496,4180.0,4278.461426,0.0,1.0,15.0,,,,0.0,4.0,1.0,0.0,4.0,4.0,41.666668,,,,,,,,,,,,,,,,,,,,,,,,,,,,,,,,,,,,,,,,,,,,,,,,,,,,,,,,,,,,,,,,,,,,,,,,,,,,,,,,,,,,
29189,1645901129.730629,1645901129.758372,52.0,0.0,4362.05127,4537.436035,4245.641113000001,4187.692383,4270.769043,0.0,1.0,15.0,,,,0.0,4.0,1.0,0.0,4.0,4.0,41.666668,,,,,,,,26.0,0.0,0.707503,0.100342,0.6733399999999999,0.189697,0.922377,-0.416022,-0.06543099999999999,-0.026399000000000002,-0.034968,-0.010957,,,,,,,,,,,,,,,,,,,,,,,,,,,,,,,,,,,,,,,,,,,,,,,,,,,,,,,,,,,,,,,,,
29190,1645901129.738443,1645901129.766187,53.0,0.0,4322.563965,4431.282227000001,4192.307617,4208.205078,4278.974121,0.0,1.0,15.0,,,,0.0,4.0,1.0,0.0,4.0,4.0,41.666668,,,,,,,,,,,,,,,,,,,,,,,,,,,,,,,,,,,,,,,,,,,,,,,,,,,,,,,,,,,,,,,,,,,,,,,,,,,,,,,,,,,,
29191,1645901129.746256,1645901129.774001,54.0,0.0,4324.615234000001,4356.410156,4177.94873,4217.94873,4285.641113000001,0.0,1.0,15.0,,,,0.0,4.0,1.0,0.0,4.0,4.0,41.666668,,,,,,,,27.0,0.0,0.707503,0.100342,0.6733399999999999,0.189697,0.921889,-0.398444,-0.06836,-0.026982,-0.034987,-0.012058,1.0,0.0,0.0,,,,,,,,,,,,,,,,,,,,,,,,,,,,,,,,0.0,0.0,1.0,0.0,512.0,0.797596,9.763655,9.787065,1.9914049999999999,1.51233,1.691602,52.633148,28.264421000000002,25.702766,12.989417999999999,32.558533000000004,17.067783,16.990343,6.512518,3.322254,8.323514,4.802193,3.789653,3.3279120000000004,3.642696,2.973579,5.251201999999999,3.619575,3.098387,3.403367,2.16014
29192,1645901129.7540698,1645901129.781816,55.0,0.0,4332.307617,4488.717772999999,4230.769043,4170.769043,4300.512695,0.0,1.0,15.0,,,,0.0,4.0,1.0,0.0,4.0,4.0,41.666668,,,,,,,,,,,,,,,,,,,,,,,,,,,,,,,,,,,,,,,,,,,,,,,,,,,,,,,,,,,,,,,,,,,,,,,,,,,,,,,,,,,,
29193,1645901129.761884,1645901129.7896302,56.0,0.0,4311.282227000001,4584.615234000001,4264.615234000001,4161.538574,4322.05127,0.0,1.0,15.0,,,,0.0,4.0,1.0,0.0,4.0,4.0,41.666668,,,,,,,,28.0,0.0,0.707503,0.100342,0.6733399999999999,0.189697,0.9277489999999999,-0.408209,-0.071778,-0.027408,-0.034955,-0.013147,,,,,,,,,,,,,,,,,,,,,,,,,,,,,,,,,,,,,,,,,,,,,,,,,,,,,,,,,,,,,,,,,
29194,1645901129.7696972,1645901129.7974448,57.0,0.0,4322.05127,4491.794922,4246.153809,4186.666504,4306.153809,0.0,1.0,15.0,,,,0.0,4.0,1.0,0.0,4.0,4.0,41.666668,,,,,,,,,,,,,,,,,,,,,,,,,,,,,,,,,,,,,,,,,,,,,,,,,,,,,,,,,,,,,,,,,,,,,,,,,,,,,,,,,,,,
29195,1645901129.777511,1645901129.80526,58.0,0.0,4350.256348,4438.974121,4257.436035,4174.358886999999,4298.461426,0.0,1.0,15.0,,,,0.0,4.0,1.0,0.0,4.0,4.0,41.666668,,,,,,,,29.0,0.0,0.707503,0.100342,0.6733399999999999,0.189697,0.926284,-0.404791,-0.07128999999999999,-0.024765000000000002,-0.034878,-0.01403,,,,,,,,,,,,,,,,,,,,,,,,,,,,,,,,,,,0.0,0.0,1.0,0.0,512.0,0.797596,,,,,,,,,,,,,,,,,,,,,,,,,
29196,1645901129.785324,1645901129.812975,59.0,0.0,4333.846191,4475.897461,4240.0,4164.102539,4306.666504,0.0,1.0,15.0,,,,0.0,4.0,1.0,0.0,4.0,4.0,41.666668,,,,,,,,,,,,,,,,,,,,,,,,,,,,,,,,,,,,,,,,,,,,,,,,,,,,,,,,,,,,,,,,,,,,,,,,,,,,,,,,,,,,
29197,1645901129.793138,1645901129.820789,60.0,0.0,4332.820313,4475.897461,4212.307617,4177.436035,4302.563965,0.0,1.0,15.0,,,,0.0,4.0,1.0,0.0,4.0,4.0,41.666668,,,,,,,,30.0,0.0,0.707503,0.100342,0.6733399999999999,0.189697,0.9155409999999999,-0.398444,-0.06836,-0.025414,-0.034857,-0.01165,,,,,,,,,,,,,,,,,,,,,,,,,,,,,,,,,,,,,,,,,,,,,,,,,,,,,,,,,,,,,,,,,
29198,1645901129.800952,1645901129.828604,61.0,0.0,4350.769043,4502.563965,4229.743652,4154.358886999999,4313.333496,0.0,1.0,15.0,,,,0.0,4.0,1.0,0.0,4.0,4.0,41.666668,,,,,,,,,,,,,,,,,,,,,,,,,,,,,,,,,,,,,,,,,,,,,,,,,,,,,,,,,,,,,,,,,,,,,,,,,,,,,,,,,,,,
29199,1645901129.808765,1645901129.836418,62.0,0.0,4337.94873,4495.384765999999,4284.615234000001,4142.563965,4315.897461,0.0,1.0,15.0,,,,0.0,4.0,1.0,0.0,4.0,4.0,41.666668,,,,,,,,31.0,0.0,0.707503,0.100342,0.6733399999999999,0.189697,0.917983,-0.40576799999999996,-0.06640700000000001,-0.022921,-0.034887,-0.012683,,,,,,,,,,,,,,,,,,,,,,,,,,,,,,,,,,,0.0,0.0,1.0,0.0,512.0,0.797596,,,,,,,,,,,,,,,,,,,,,,,,,
29200,1645901129.8165789,1645901129.844233,63.0,0.0,4353.846191,4422.05127,4268.717772999999,4183.589844,4295.897461,0.0,1.0,15.0,,,,0.0,4.0,1.0,0.0,4.0,4.0,41.666668,,,,,,,,,,,,,,,,,,,,,,,,,,,,,,,,,,,,,,,,,,,,,,,,,,,,,,,,,,,,,,,,,,,,,,,,,,,,,,,,,,,,
29201,1645901129.824392,1645901129.8520482,64.0,0.0,4371.282227000001,4509.230957,4297.436035,4196.922852000001,4289.743652,450.0,1.0,15.0,,,,0.0,4.0,1.0,0.0,4.0,4.0,41.666668,,,,,,,,32.0,0.0,0.707503,0.100342,0.6733399999999999,0.189697,0.9028459999999999,-0.407233,-0.083009,-0.023754,-0.034865,-0.010535,,,,,,,,,,,,,,,,,,,,,,,,,,,,,,,,,,,,,,,,,,,,,,,,,,,,,,,,,,,,,,,,,
29202,1645901129.832206,1645901129.8598619,65.0,0.0,4352.820313,4588.717772999999,4311.282227000001,4190.769043,4303.077147999999,450.0,1.0,15.0,,,,0.0,4.0,1.0,0.0,4.0,4.0,41.666668,,,,,,,,,,,,,,,,,,,,,,,,,,,,,,,,,,,,,,,,,,,,,,,,,,,,,,,,,,,,,,,,,,,,,,,,,,,,,,,,,,,,
29203,1645901129.84002,1645901129.867677,66.0,0.0,4360.512695,4484.615234000001,4251.794922,4203.077147999999,4301.538574,16170.0,1.0,15.0,,,,0.0,4.0,1.0,0.0,4.0,4.0,41.666668,,,,,,,,33.0,0.0,0.7073050000000001,0.100098,0.673584,0.189697,0.928725,-0.397467,-0.075196,-0.021476,-0.034943,-0.011728,,,,,,,,,,,,,,,,,,,,,,,,,,,,,,,,,,,0.0,0.0,1.0,0.0,512.0,0.797596,,,,,,,,,,,,,,,,,,,,,,,,,
29204,1645901129.847833,1645901129.875492,67.0,0.0,4383.589844,4497.436035,4215.897461,4210.256348,4308.717772999999,450.0,1.0,15.0,,,,0.0,4.0,1.0,0.0,4.0,4.0,41.666668,,,,,,,,,,,,,,,,,,,,,,,,,,,,,,,,,,,,,,,,,,,,,,,,,,,,,,,,,,,,,,,,,,,,,,,,,,,,,,,,,,,,
29205,1645901129.855647,1645901129.8832061,68.0,0.0,4365.128418,4574.871582,4220.512695,4180.0,4315.897461,204.0,1.0,15.0,,,,0.0,4.0,2.0,2.0,4.0,4.0,66.666664,,,,,,,,34.0,0.0,0.707339,0.099854,0.673584,0.189697,0.9277489999999999,-0.407233,-0.070802,-0.0226,-0.034964,-0.012704,,,,,,,,,,,,,,,,,,,,,,,,,,,,,,,,,,,,,,,,,,,,,,,,,,,,,,,,,,,,,,,,,
29206,1645901129.86346,1645901129.891021,69.0,0.0,4357.94873,4528.717772999999,4194.358886999999,4187.179688,4321.025879,450.0,1.0,15.0,,,,0.0,4.0,2.0,2.0,4.0,4.0,66.666664,,,,,,,,,,,,,,,,,,,,,,,,,,,,,,,,,,,,,,,,,,,,,,,,,,,,,,,,,,,,,,,,,,,,,,,,,,,,,,,,,,,,
29207,1645901129.871274,1645901129.898836,70.0,0.0,4351.794922,4503.589844,4175.384765999999,4234.358886999999,4314.871582,307.0,1.0,15.0,,,,0.0,4.0,2.0,2.0,4.0,4.0,66.666664,,,,,,,,35.0,0.0,0.707274,0.099854,0.673584,0.189941,0.925795,-0.397467,-0.076661,-0.023514,-0.034983999999999994,-0.013533000000000002,1.0,0.0,0.0,,,,,,,,,,,,,,,,,,,,,,,,,,,,,,,,0.0,0.0,1.0,0.0,512.0,0.6623899999999999,8.218036,8.840181,2.292147,1.564275,1.618407,39.765667,28.742098,24.947508,14.714089999999999,32.709011,17.051966,18.449612,8.61487,3.1475779999999998,8.701444,4.074782,4.333866,3.964606,4.2568019999999995,3.054281,4.118488,3.5901690000000004,3.869787,3.668802,2.372166
29208,1645901129.8790882,1645901129.90665,71.0,0.0,4332.820313,4546.666504,4197.436035,4222.563965,4316.410156,450.0,1.0,15.0,,,,0.0,4.0,2.0,2.0,4.0,4.0,66.666664,,,,,,,,,,,,,,,,,,,,,,,,,,,,,,,,,,,,,,,,,,,,,,,,,,,,,,,,,,,,,,,,,,,,,,,,,,,,,,,,,,,,
29209,1645901129.886901,1645901129.914465,72.0,0.0,4322.563965,4553.846191,4194.358886999999,4162.563965,4309.743652,450.0,1.0,15.0,,,,0.0,4.0,2.0,2.0,4.0,4.0,66.666664,,,,,,,,36.0,0.0,0.707208,0.099854,0.673584,0.190186,0.917494,-0.40235,-0.061524,-0.025126,-0.034968,-0.014950999999999999,,,,,,,,,,,,,,,,,,,,,,,,,,,,,,,,,,,,,,,,,,,,,,,,,,,,,,,,,,,,,,,,,
29210,1645901129.894715,1645901129.92228,73.0,0.0,4332.820313,4573.333496,4184.615234000001,4153.333496,4315.384765999999,16262.0,1.0,15.0,,,,0.0,4.0,2.0,2.0,4.0,4.0,66.666664,,,,,,,,,,,,,,,,,,,,,,,,,,,,,,,,,,,,,,,,,,,,,,,,,,,,,,,,,,,,,,,,,,,,,,,,,,,,,,,,,,,,
29211,1645901129.902528,1645901129.930094,74.0,0.0,4330.769043,4570.256348,4248.717772999999,4156.922852000001,4324.615234000001,450.0,1.0,15.0,,,,0.0,4.0,2.0,2.0,4.0,4.0,66.666664,,,,,,,,37.0,0.0,0.707174,0.100098,0.673584,0.190186,0.926284,-0.39649,-0.08203300000000001,-0.025592,-0.034839999999999996,-0.015702,,,,,,,,,,,,,,,,,,,,,,,,,,,,,,,,,,,0.0,0.0,1.0,0.0,512.0,0.6623899999999999,,,,,,,,,,,,,,,,,,,,,,,,,
29212,1645901129.910342,1645901129.937909,75.0,0.0,4330.769043,4514.358886999999,4310.256348,4143.077147999999,4312.307617,16244.0,1.0,15.0,,,,0.0,4.0,2.0,2.0,4.0,4.0,66.666664,,,,,,,,,,,,,,,,,,,,,,,,,,,,,,,,,,,,,,,,,,,,,,,,,,,,,,,,,,,,,,,,,,,,,,,,,,,,,,,,,,,,
29213,1645901129.9181561,1645901129.945724,76.0,0.0,4335.897461,4558.974121,4280.0,4147.692383,4301.538574,450.0,1.0,15.0,,,,0.0,4.0,2.0,2.0,4.0,4.0,66.666664,,,,,,,,38.0,0.0,0.707174,0.100098,0.673584,0.190186,0.9199360000000001,-0.413092,-0.071778,-0.023081,-0.034872,-0.016378,,,,,,,,,,,,,,,,,,,,,,,,,,,,,,,,,,,,,,,,,,,,,,,,,,,,,,,,,,,,,,,,,
29214,1645901129.925969,1645901129.953438,77.0,0.0,4348.717772999999,4607.179688,4255.384765999999,4159.487305,4299.487305,450.0,1.0,15.0,,,,0.0,4.0,2.0,2.0,4.0,4.0,66.666664,,,,,,,,,,,,,,,,,,,,,,,,,,,,,,,,,,,,,,,,,,,,,,,,,,,,,,,,,,,,,,,,,,,,,,,,,,,,,,,,,,,,
29215,1645901129.933783,1645901129.961253,78.0,0.0,4373.333496,4548.717772999999,4235.897461,4158.974121,4296.410156,450.0,1.0,15.0,,,,0.0,4.0,2.0,2.0,4.0,4.0,66.666664,,,,,,,,39.0,0.0,0.706906,0.100342,0.673828,0.190186,0.925795,-0.41455699999999995,-0.073732,-0.023996,-0.034851,-0.01684,,,,,,,,,,,,,,,,,,,,,,,,,,,,,,,,,,,0.0,0.0,1.0,0.0,512.0,0.6623899999999999,,,,,,,,,,,,,,,,,,,,,,,,,
29216,1645901129.941596,1645901129.969068,79.0,0.0,4362.05127,4502.05127,4264.102539,4187.692383,4286.153809,16244.0,1.0,15.0,,,,0.0,4.0,2.0,2.0,4.0,4.0,66.666664,,,,,,,,,,,,,,,,,,,,,,,,,,,,,,,,,,,,,,,,,,,,,,,,,,,,,,,,,,,,,,,,,,,,,,,,,,,,,,,,,,,,
29217,1645901129.94941,1645901129.976882,80.0,0.0,4345.641113000001,4486.666504,4253.846191,4186.666504,4306.153809,450.0,1.0,15.0,,,,0.0,4.0,2.0,2.0,4.0,4.0,66.666664,,,,,,,,40.0,0.0,0.706906,0.100342,0.673828,0.190186,0.9331200000000001,-0.41113900000000003,-0.070314,-0.024721,-0.034980000000000004,-0.014228,,,,,,,,,,,,,,,,,,,,,,,,,,,,,,,,,,,,,,,,,,,,,,,,,,,,,,,,,,,,,,,,,
29218,1645901129.9572241,1645901129.984697,81.0,0.0,4346.666504,4498.461426,4260.512695,4139.487305,4324.102539,450.0,1.0,15.0,,,,0.0,4.0,2.0,2.0,4.0,4.0,66.666664,,,,,,,,,,,,,,,,,,,,,,,,,,,,,,,,,,,,,,,,,,,,,,,,,,,,,,,,,,,,,,,,,,,,,,,,,,,,,,,,,,,,
29219,1645901129.9650369,1645901129.992512,82.0,0.0,4379.487305,4554.358886999999,4248.205078,4153.333496,4318.974121,450.0,1.0,15.0,,,,0.0,4.0,2.0,2.0,4.0,4.0,66.666664,,,,,,,,41.0,0.0,0.706937,0.100586,0.673828,0.189941,0.917983,-0.39697899999999997,-0.063966,-0.025472,-0.034949,-0.011829000000000001,,,,,,,,,,,,,,,,,,,,,,,,,,,,,,,,,,,0.0,0.0,1.0,0.0,512.0,0.6623899999999999,,,,,,,,,,,,,,,,,,,,,,,,,
29220,1645901129.972851,1645901130.000326,83.0,0.0,4373.333496,4619.487305,4260.0,4170.256348,4313.846191,16244.0,1.0,15.0,,,,0.0,4.0,2.0,2.0,4.0,4.0,66.666664,,,,,,,,,,,,,,,,,,,,,,,,,,,,,,,,,,,,,,,,,,,,,,,,,,,,,,,,,,,,,,,,,,,,,,,,,,,,,,,,,,,,
29221,1645901129.980664,1645901130.008141,84.0,0.0,4326.153809,4580.512695,4260.512695,4149.743652,4306.153809,450.0,1.0,15.0,,,,0.0,4.0,2.0,2.0,4.0,4.0,66.666664,,,,,,,,42.0,0.0,0.706937,0.100586,0.673828,0.189941,0.921401,-0.39649,-0.071778,-0.022974,-0.034969,-0.012891999999999999,,,,,,,,,,,,,,,,,,,,,,,,,,,,,,,,,,,,,,,,,,,,,,,,,,,,,,,,,,,,,,,,,
29222,1645901129.988478,1645901130.016055,85.0,0.0,4322.05127,4525.128418,4220.512695,4132.307617,4305.641113000001,450.0,1.0,15.0,,,,0.0,4.0,2.0,2.0,4.0,4.0,66.666664,,,,,,,,,,,,,,,,,,,,,,,,,,,,,,,,,,,,,,,,,,,,,,,,,,,,,,,,,,,,,,,,,,,,,,,,,,,,,,,,,,,,
29223,1645901129.9962919,1645901130.02387,86.0,0.0,4356.922852000001,4555.897461,4216.922852000001,4154.871582,4320.512695,450.0,1.0,15.0,,,,0.0,4.0,2.0,2.0,4.0,4.0,66.666664,1.0,16.666666,2.0,0.0,0.0,3.0,4.0,43.0,0.0,0.706705,0.100586,0.674072,0.189941,0.918959,-0.411627,-0.062989,-0.023801,-0.034939,-0.010724,1.0,0.0,0.0,,,,,,,,,,,,,,,,,,,,,,,,,,,,,,,,0.0,0.0,1.0,0.0,512.0,0.8986719999999999,7.959935000000001,8.218903,2.6894720000000003,1.625656,1.591574,28.826124,30.050172999999997,22.978082999999998,16.474239,32.704735,17.167799,19.529298999999998,10.845933,3.2926339999999996,8.867825999999999,3.6092440000000003,5.067112,4.934707,5.094149,3.11802,3.365746,3.565749,4.534428,3.927778,2.499168
29224,1645901130.004105,1645901130.0316849,87.0,0.0,4358.974121,4528.205078,4220.0,4176.410156,4302.563965,16244.0,1.0,15.0,,,,0.0,4.0,2.0,2.0,4.0,4.0,66.666664,,,,,,,,,,,,,,,,,,,,,,,,,,,,,,,,,,,,,,,,,,,,,,,,,,,,,,,,,,,,,,,,,,,,,,,,,,,,,,,,,,,,
29225,1645901130.011919,1645901130.039499,88.0,0.0,4345.128418,4473.333496,4215.384765999999,4165.641113000001,4299.487305,450.0,1.0,15.0,,,,0.0,4.0,2.0,2.0,4.0,4.0,66.666664,,,,,,,,44.0,0.0,0.706639,0.100586,0.674072,0.190186,0.9316549999999999,-0.397955,-0.06836,-0.024595,-0.034961,-0.011849,,,,,,,,,,,,,,,,,,,,,,,,,,,,,,,,,,,,,,,,,,,,,,,,,,,,,,,,,,,,,,,,,
29226,1645901130.019732,1645901130.0473142,89.0,0.0,4321.025879,4462.05127,4220.0,4151.282227000001,4321.025879,450.0,1.0,15.0,,,,0.0,4.0,2.0,2.0,4.0,4.0,66.666664,,,,,,,,,,,,,,,,,,,,,,,,,,,,,,,,,,,,,,,,,,,,,,,,,,,,,,,,,,,,,,,,,,,,,,,,,,,,,,,,,,,,
29227,1645901130.0275462,1645901130.0551288,90.0,0.0,4296.922852000001,4452.820313,4225.641113000001,4187.692383,4308.205078,450.0,1.0,15.0,,,,0.0,4.0,2.0,2.0,4.0,4.0,66.666664,,,,,,,,45.0,0.0,0.706639,0.100586,0.674072,0.190186,0.9209129999999999,-0.41651000000000005,-0.073732,-0.025261000000000002,-0.034883,-0.009736,,,,,,,,,,,,,,,,,,,,,,,,,,,,,,,,,,,0.0,0.0,1.0,0.0,512.0,0.8986719999999999,,,,,,,,,,,,,,,,,,,,,,,,,
29228,1645901130.0353599,1645901130.062943,91.0,0.0,4308.717772999999,4462.05127,4213.846191,4192.820313,4289.230957,16244.0,1.0,15.0,,,,0.0,4.0,2.0,2.0,4.0,4.0,66.666664,,,,,,,,,,,,,,,,,,,,,,,,,,,,,,,,,,,,,,,,,,,,,,,,,,,,,,,,,,,,,,,,,,,,,,,,,,,,,,,,,,,,
29229,1645901130.043173,1645901130.070758,92.0,0.0,4320.0,4461.025879,4231.794922,4125.128418,4309.743652,450.0,1.0,15.0,,,,0.0,4.0,2.0,2.0,4.0,4.0,66.666664,,,,,,,,46.0,0.0,0.706806,0.100586,0.673828,0.19043,0.9160299999999999,-0.404303,-0.080568,-0.025907999999999997,-0.034910000000000004,-0.011009,,,,,,,,,,,,,,,,,,,,,,,,,,,,,,,,,,,,,,,,,,,,,,,,,,,,,,,,,,,,,,,,,
29230,1645901130.050987,1645901130.078573,93.0,0.0,4301.538574,4443.077147999999,4261.538574,4115.384765999999,4298.461426,450.0,1.0,15.0,,,,0.0,4.0,2.0,2.0,4.0,4.0,66.666664,,,,,,,,,,,,,,,,,,,,,,,,,,,,,,,,,,,,,,,,,,,,,,,,,,,,,,,,,,,,,,,,,,,,,,,,,,,,,,,,,,,,
29231,1645901130.0588,1645901130.0864868,94.0,0.0,4309.743652,4507.692383,4315.897461,4175.897461,4263.077147999999,450.0,1.0,15.0,,,,0.0,4.0,2.0,2.0,4.0,4.0,66.666664,,,,,,,,47.0,0.0,0.706806,0.100586,0.673828,0.19043,0.9194479999999999,-0.398932,-0.065919,-0.026443,-0.034983999999999994,-0.012251999999999999,,,,,,,,,,,,,,,,,,,,,,,,,,,,,,,,,,,0.0,0.0,1.0,0.0,512.0,0.8986719999999999,,,,,,,,,,,,,,,,,,,,,,,,,
29232,1645901130.0666142,1645901130.094302,95.0,0.0,4331.794922,4578.461426,4307.179688,4183.077147999999,4282.563965,16244.0,1.0,15.0,,,,0.0,4.0,2.0,2.0,4.0,4.0,66.666664,,,,,,,,,,,,,,,,,,,,,,,,,,,,,,,,,,,,,,,,,,,,,,,,,,,,,,,,,,,,,,,,,,,,,,,,,,,,,,,,,,,,
29233,1645901130.074427,1645901130.102116,96.0,0.0,4324.102539,4510.769043,4287.179688,4150.256348,4305.128418,450.0,1.0,15.0,,,,0.0,4.0,2.0,2.0,4.0,4.0,66.666664,,,,,,,,48.0,0.0,0.706806,0.100586,0.673828,0.19043,0.908217,-0.397955,-0.070314,-0.026875,-0.035099,-0.013272999999999998,,,,,,,,,,,,,,,,,,,,,,,,,,,,,,,,,,,,,,,,,,,,,,,,,,,,,,,,,,,,,,,,,
29234,1645901130.082241,1645901130.109931,97.0,0.0,4341.025879,4474.871582,4281.025879,4147.692383,4304.102539,450.0,1.0,15.0,,,,0.0,4.0,2.0,2.0,4.0,4.0,66.666664,,,,,,,,,,,,,,,,,,,,,,,,,,,,,,,,,,,,,,,,,,,,,,,,,,,,,,,,,,,,,,,,,,,,,,,,,,,,,,,,,,,,
29235,1645901130.090055,1645901130.117746,98.0,0.0,4366.153809,4534.358886999999,4276.922852000001,4140.0,4317.94873,450.0,1.0,15.0,,,,0.0,4.0,2.0,2.0,4.0,4.0,66.666664,,,,,,,,49.0,0.0,0.706806,0.100586,0.673828,0.19043,0.914565,-0.413092,-0.08447400000000001,-0.027312,-0.035153,-0.011115,,,,,,,,,,,,,,,,,,,,,,,,,,,,,,,,,,,0.0,0.0,1.0,0.0,512.0,0.8986719999999999,,,,,,,,,,,,,,,,,,,,,,,,,
29236,1645901130.097868,1645901130.12556,99.0,0.0,4356.922852000001,4498.974121,4238.461426,4142.05127,4327.692383,16244.0,1.0,15.0,,,,0.0,4.0,2.0,2.0,4.0,4.0,66.666664,,,,,,,,,,,,,,,,,,,,,,,,,,,,,,,,,,,,,,,,,,,,,,,,,,,,,,,,,,,,,,,,,,,,,,,,,,,,,,,,,,,,
29237,1645901130.1056821,1645901130.133375,100.0,0.0,4338.974121,4437.436035,4246.666504,4169.743652,4291.282227000001,450.0,1.0,15.0,,,,0.0,4.0,2.0,2.0,4.0,4.0,66.666664,,,,,,,,50.0,0.0,0.706771,0.10082999999999999,0.673828,0.19043,0.917006,-0.40576799999999996,-0.072267,-0.027706,-0.035203,-0.012103000000000001,,,,,,,,,,,,,,,,,,,,,,,,,,,,,,,,,,,,,,,,,,,,,,,,,,,,,,,,,,,,,,,,,
29238,1645901130.1134949,1645901130.14119,101.0,0.0,4347.692383,4488.717772999999,4241.538574,4196.410156,4278.974121,450.0,1.0,15.0,,,,0.0,4.0,2.0,2.0,4.0,4.0,66.666664,,,,,,,,,,,,,,,,,,,,,,,,,,,,,,,,,,,,,,,,,,,,,,,,,,,,,,,,,,,,,,,,,,,,,,,,,,,,,,,,,,,,
29239,1645901130.121309,1645901130.149004,102.0,0.0,4331.794922,4503.589844,4207.179688,4205.641113000001,4278.461426,450.0,1.0,15.0,,,,0.0,4.0,2.0,2.0,4.0,4.0,66.666664,,,,,,,,51.0,0.0,0.706771,0.10082999999999999,0.673828,0.19043,0.929213,-0.41113900000000003,-0.080079,-0.028109,-0.035247,-0.013090000000000001,1.0,0.0,0.0,,,,,,,,,,,,,,,,,,,,,,,,,,,,,,,,0.0,0.0,1.0,0.0,512.0,0.6300399999999999,8.628117999999999,8.111246000000001,3.079895,1.660146,1.620031,21.484261,30.263737,20.225559,17.862258999999998,32.709507,17.740353,19.880551999999998,12.750631,3.676077,8.858031,3.3398559999999997,6.052187,6.168667,5.956646,3.120905,3.0234229999999997,3.589727,4.863534,4.213496,2.493013
29240,1645901130.129123,1645901130.1568189,103.0,0.0,4304.102539,4473.846191,4230.769043,4201.025879,4287.692383,16244.0,1.0,15.0,,,,0.0,4.0,2.0,2.0,4.0,4.0,66.666664,,,,,,,,,,,,,,,,,,,,,,,,,,,,,,,,,,,,,,,,,,,,,,,,,,,,,,,,,,,,,,,,,,,,,,,,,,,,,,,,,,,,
29241,1645901130.136936,1645901130.164733,104.0,0.0,4298.461426,4549.743652,4228.717772999999,4169.230957,4309.230957,450.0,1.0,15.0,,,,0.0,4.0,2.0,2.0,4.0,4.0,66.666664,,,,,,,,52.0,0.0,0.707004,0.10082999999999999,0.673584,0.19043,0.9184709999999999,-0.41260399999999997,-0.069825,-0.028520999999999998,-0.035238,-0.014075999999999998,,,,,,,,,,,,,,,,,,,,,,,,,,,,,,,,,,,,,,,,,,,,,,,,,,,,,,,,,,,,,,,,,
29242,1645901130.14475,1645901130.172548,105.0,0.0,4317.94873,4623.589844,4196.922852000001,4145.128418,4312.307617,450.0,1.0,15.0,,,,0.0,4.0,2.0,2.0,4.0,4.0,66.666664,,,,,,,,,,,,,,,,,,,,,,,,,,,,,,,,,,,,,,,,,,,,,,,,,,,,,,,,,,,,,,,,,,,,,,,,,,,,,,,,,,,,
29243,1645901130.152563,1645901130.1803632,106.0,0.0,4341.025879,4597.436035,4243.589844,4139.487305,4300.0,450.0,1.0,15.0,,,,0.0,4.0,2.0,2.0,4.0,4.0,66.666664,,,,,,,,53.0,0.0,0.707004,0.10082999999999999,0.673584,0.19043,0.9184709999999999,-0.410163,-0.069825,-0.028794,-0.035181,-0.011741,,,,,,,,,,,,,,,,,,,,,,,,,,,,,,,,,,,0.0,0.0,1.0,0.0,512.0,0.6300399999999999,,,,,,,,,,,,,,,,,,,,,,,,,
29244,1645901130.160377,1645901130.1881769,107.0,0.0,4343.077147999999,4544.102539,4304.102539,4151.282227000001,4308.205078,16244.0,1.0,15.0,,,,0.0,4.0,2.0,2.0,4.0,4.0,66.666664,,,,,,,,,,,,,,,,,,,,,,,,,,,,,,,,,,,,,,,,,,,,,,,,,,,,,,,,,,,,,,,,,,,,,,,,,,,,,,,,,,,,
29245,1645901130.168191,1645901130.195992,108.0,0.0,4323.077147999999,4531.282227000001,4271.282227000001,4167.692383,4304.102539,450.0,1.0,15.0,,,,0.0,4.0,2.0,2.0,4.0,4.0,66.666664,,,,,,,,54.0,0.0,0.706771,0.10082999999999999,0.673828,0.19043,0.929213,-0.41113900000000003,-0.080079,-0.029088,-0.03513,-0.009687999999999999,,,,,,,,,,,,,,,,,,,,,,,,,,,,,,,,,,,,,,,,,,,,,,,,,,,,,,,,,,,,,,,,,
29246,1645901130.176004,1645901130.203807,109.0,0.0,4329.230957,4569.743652,4246.666504,4157.436035,4287.692383,450.0,1.0,15.0,,,,0.0,4.0,2.0,2.0,4.0,4.0,66.666664,,,,,,,,,,,,,,,,,,,,,,,,,,,,,,,,,,,,,,,,,,,,,,,,,,,,,,,,,,,,,,,,,,,,,,,,,,,,,,,,,,,,
29247,1645901130.1838179,1645901130.211621,110.0,0.0,4350.256348,4567.692383,4231.794922,4132.307617,4306.666504,450.0,1.0,15.0,,,,0.0,4.0,2.0,2.0,4.0,4.0,66.666664,,,,,,,,55.0,0.0,0.707004,0.10082999999999999,0.673584,0.19043,0.9184709999999999,-0.410163,-0.069825,-0.029305,-0.035084,-0.007790999999999999,,,,,,,,,,,,,,,,,,,,,,,,,,,,,,,,,,,0.0,0.0,1.0,0.0,512.0,0.6300399999999999,,,,,,,,,,,,,,,,,,,,,,,,,
29248,1645901130.191631,1645901130.219436,111.0,0.0,4343.589844,4467.692383,4248.205078,4146.153809,4315.384765999999,16244.0,1.0,15.0,,,,0.0,4.0,2.0,2.0,4.0,4.0,66.666664,,,,,,,,,,,,,,,,,,,,,,,,,,,,,,,,,,,,,,,,,,,,,,,,,,,,,,,,,,,,,,,,,,,,,,,,,,,,,,,,,,,,
29249,1645901130.199445,1645901130.227251,112.0,0.0,4351.282227000001,4404.615234000001,4229.743652,4152.820313,4305.641113000001,450.0,1.0,15.0,,,,0.0,4.0,2.0,2.0,4.0,4.0,66.666664,,,,,,,,56.0,0.0,0.706969,0.101074,0.673584,0.19043,0.9248190000000001,-0.40235,-0.06543099999999999,-0.029499,-0.035042000000000004,-0.009307,,,,,,,,,,,,,,,,,,,,,,,,,,,,,,,,,,,,,,,,,,,,,,,,,,,,,,,,,,,,,,,,,
29250,1645901130.207259,1645901130.235165,113.0,0.0,4364.615234000001,4450.256348,4253.333496,4123.589844,4301.025879,450.0,1.0,15.0,,,,0.0,4.0,2.0,2.0,4.0,4.0,66.666664,,,,,,,,,,,,,,,,,,,,,,,,,,,,,,,,,,,,,,,,,,,,,,,,,,,,,,,,,,,,,,,,,,,,,,,,,,,,,,,,,,,,
29251,1645901130.2150722,1645901130.24298,114.0,0.0,4350.256348,4501.538574,4285.641113000001,4151.282227000001,4291.282227000001,450.0,1.0,15.0,,,,0.0,4.0,2.0,2.0,4.0,4.0,66.666664,,,,,,,,57.0,0.0,0.707202,0.101074,0.6733399999999999,0.19043,0.922377,-0.415045,-0.076173,-0.026647000000000004,-0.035005,-0.010623,,,,,,,,,,,,,,,,,,,,,,,,,,,,,,,,,,,0.0,0.0,1.0,0.0,512.0,0.6300399999999999,,,,,,,,,,,,,,,,,,,,,,,,,
29252,1645901130.2228858,1645901130.250794,115.0,0.0,4338.974121,4478.974121,4258.461426,4192.307617,4270.256348,16244.0,1.0,15.0,,,,0.0,4.0,2.0,2.0,4.0,4.0,66.666664,,,,,,,,,,,,,,,,,,,,,,,,,,,,,,,,,,,,,,,,,,,,,,,,,,,,,,,,,,,,,,,,,,,,,,,,,,,,,,,,,,,,
29253,1645901130.230699,1645901130.258609,116.0,0.0,4357.436035,4402.563965,4214.871582,4172.307617,4278.461426,450.0,1.0,15.0,,,,0.0,4.0,2.0,2.0,4.0,4.0,66.666664,,,,,,,,58.0,0.0,0.707202,0.101074,0.6733399999999999,0.19043,0.922866,-0.40381500000000004,-0.066896,-0.027107,-0.034970999999999995,-0.008584,,,,,,,,,,,,,,,,,,,,,,,,,,,,,,,,,,,,,,,,,,,,,,,,,,,,,,,,,,,,,,,,,
29254,1645901130.238513,1645901130.266424,117.0,0.0,4332.307617,4400.0,4250.769043,4153.846191,4289.230957,450.0,1.0,15.0,,,,0.0,4.0,2.0,2.0,4.0,4.0,66.666664,,,,,,,,,,,,,,,,,,,,,,,,,,,,,,,,,,,,,,,,,,,,,,,,,,,,,,,,,,,,,,,,,,,,,,,,,,,,,,,,,,,,
29255,1645901130.246327,1645901130.274238,118.0,0.0,4318.461426,4458.461426,4225.641113000001,4169.230957,4308.205078,450.0,1.0,15.0,,,,0.0,4.0,2.0,2.0,4.0,4.0,66.666664,,,,,,,,59.0,0.0,0.707267,0.101074,0.6733399999999999,0.190186,0.9331200000000001,-0.41065100000000004,-0.07128999999999999,-0.024494,-0.03499,-0.009825,1.0,0.0,0.0,,,,,,,,,,,,,,,,,,,,,,,,,,,,,,,,0.0,0.0,1.0,0.0,512.0,0.697779,9.592672,8.503624,3.375629,1.6390799999999999,1.685412,17.391855,28.238462,17.658935999999997,18.597549,32.815104999999996,19.084162,19.369766000000002,14.093073,4.122358,8.689012,3.284528,7.327057000000001,7.463024000000001,6.656759,3.0545400000000003,2.960053,3.6437440000000003,4.723846,4.517583,2.350501
29256,1645901130.2541401,1645901130.282053,119.0,0.0,4339.487305,4449.230957,4164.615234000001,4140.512695,4323.589844,16244.0,1.0,15.0,,,,0.0,4.0,2.0,2.0,4.0,4.0,66.666664,,,,,,,,,,,,,,,,,,,,,,,,,,,,,,,,,,,,,,,,,,,,,,,,,,,,,,,,,,,,,,,,,,,,,,,,,,,,,,,,,,,,
29257,1645901130.2619538,1645901130.2898679,120.0,0.0,4332.307617,4447.179688,4225.128418,4126.153809,4301.538574,450.0,1.0,15.0,,,,0.0,4.0,2.0,2.0,4.0,4.0,66.666664,,,,,,,,60.0,0.0,0.707232,0.10131799999999999,0.6733399999999999,0.190186,0.9199360000000001,-0.40283800000000003,-0.063966,-0.022142,-0.034957999999999996,-0.011089,,,,,,,,,,,,,,,,,,,,,,,,,,,,,,,,,,,,,,,,,,,,,,,,,,,,,,,,,,,,,,,,,
29258,1645901130.269767,1645901130.297682,121.0,0.0,4317.436035,4475.897461,4238.461426,4154.871582,4260.512695,450.0,1.0,15.0,,,,0.0,4.0,2.0,2.0,4.0,4.0,66.666664,,,,,,,,,,,,,,,,,,,,,,,,,,,,,,,,,,,,,,,,,,,,,,,,,,,,,,,,,,,,,,,,,,,,,,,,,,,,,,,,,,,,
29259,1645901130.277581,1645901130.305597,122.0,0.0,4336.922852000001,4449.230957,4203.589844,4160.0,4268.205078,450.0,1.0,15.0,,,,0.0,4.0,2.0,2.0,4.0,4.0,66.666664,,,,,,,,61.0,0.0,0.707167,0.10131799999999999,0.6733399999999999,0.19043,0.9155409999999999,-0.397955,-0.071778,-0.020026,-0.034929,-0.012226,,,,,,,,,,,,,,,,,,,,,,,,,,,,,,,,,,,0.0,0.0,1.0,0.0,512.0,0.697779,,,,,,,,,,,,,,,,,,,,,,,,,
29260,1645901130.285395,1645901130.313412,123.0,0.0,4329.230957,4454.358886999999,4247.179688,4156.922852000001,4287.692383,16244.0,1.0,15.0,,,,0.0,4.0,2.0,2.0,4.0,4.0,66.666664,,,,,,,,,,,,,,,,,,,,,,,,,,,,,,,,,,,,,,,,,,,,,,,,,,,,,,,,,,,,,,,,,,,,,,,,,,,,,,,,,,,,
29261,1645901130.2932081,1645901130.321226,124.0,0.0,4310.769043,4513.846191,4275.384765999999,4173.333496,4293.846191,450.0,1.0,15.0,,,,0.0,4.0,2.0,2.0,4.0,4.0,66.666664,,,,,,,,62.0,0.0,0.707167,0.10131799999999999,0.6733399999999999,0.19043,0.9155409999999999,-0.411627,-0.07470800000000001,-0.021148,-0.035,-0.013201,,,,,,,,,,,,,,,,,,,,,,,,,,,,,,,,,,,,,,,,,,,,,,,,,,,,,,,,,,,,,,,,,
29262,1645901130.301022,1645901130.329041,125.0,0.0,4328.717772999999,4463.589844,4234.871582,4156.922852000001,4306.153809,450.0,1.0,15.0,,,,0.0,4.0,2.0,2.0,4.0,4.0,66.666664,,,,,,,,,,,,,,,,,,,,,,,,,,,,,,,,,,,,,,,,,,,,,,,,,,,,,,,,,,,,,,,,,,,,,,,,,,,,,,,,,,,,
29263,1645901130.308835,1645901130.3368552,126.0,0.0,4318.974121,4405.641113000001,4292.307617,4136.922852000001,4293.333496,450.0,1.0,15.0,,,,0.0,4.0,2.0,2.0,4.0,4.0,66.666664,,,,,,,,63.0,0.0,0.707167,0.10131799999999999,0.6733399999999999,0.19043,0.922377,-0.40235,-0.073732,-0.022305000000000002,-0.035016000000000005,-0.014127,,,,,,,,,,,,,,,,,,,,,,,,,,,,,,,,,,,0.0,0.0,1.0,0.0,512.0,0.697779,,,,,,,,,,,,,,,,,,,,,,,,,
29264,1645901130.316649,1645901130.3446698,127.0,0.0,4300.0,4444.102539,4320.0,4150.769043,4266.666504,233.0,1.0,15.0,,,,0.0,4.0,2.0,2.0,4.0,4.0,66.666664,,,,,,,,,,,,,,,,,,,,,,,,,,,,,,,,,,,,,,,,,,,,,,,,,,,,,,,,,,,,,,,,,,,,,,,,,,,,,,,,,,,,
29265,1645901130.3244631,1645901130.352485,0.0,0.0,4313.846191,4481.538574,4251.794922,4141.025879,4271.794922,450.0,1.0,15.0,,,,0.0,4.0,2.0,2.0,4.0,4.0,66.666664,,,,,,,,0.0,0.0,0.707202,0.101074,0.6733399999999999,0.19043,0.925307,-0.41358100000000003,-0.07128999999999999,-0.023297,-0.034932,-0.011786,,,,,,,,,,,,,,,,,,,,,,,,,,,,,,,,,,,,,,,,,,,,,,,,,,,,,,,,,,,,,,,,,
29266,1645901130.3322759,1645901130.360299,1.0,0.0,4313.333496,4488.205078,4208.205078,4135.384765999999,4270.769043,450.0,1.0,15.0,,,,0.0,4.0,2.0,2.0,4.0,4.0,66.666664,,,,,,,,,,,,,,,,,,,,,,,,,,,,,,,,,,,,,,,,,,,,,,,,,,,,,,,,,,,,,,,,,,,,,,,,,,,,,,,,,,,,
29267,1645901130.34009,1645901130.368114,2.0,0.0,4291.794922,4480.512695,4274.358886999999,4162.05127,4236.410156,16241.0,1.0,15.0,,,,0.0,4.0,2.0,2.0,4.0,4.0,66.666664,,,,,,,,1.0,0.0,0.707202,0.101074,0.6733399999999999,0.19043,0.937514,-0.415045,-0.064942,-0.021016,-0.034955,-0.012903,,,,,,,,,,,,,,,,,,,,,,,,,,,,,,,,,,,0.0,0.0,1.0,0.0,512.0,0.697779,,,,,,,,,,,,,,,,,,,,,,,,,
29268,1645901130.347903,1645901130.376029,3.0,0.0,4321.025879,4466.153809,4225.641113000001,4163.077147999999,4262.05127,450.0,1.0,15.0,,,,0.0,4.0,2.0,0.0,4.0,4.0,50.0,,,,,,,,,,,,,,,,,,,,,,,,,,,,,,,,,,,,,,,,,,,,,,,,,,,,,,,,,,,,,,,,,,,,,,,,,,,,,,,,,,,,
29269,1645901130.355717,1645901130.383843,4.0,0.0,4349.743652,4478.461426,4146.666504,4112.307617,4340.512695,259.0,1.0,15.0,,,,0.0,4.0,2.0,0.0,4.0,4.0,50.0,,,,,,,,2.0,0.0,0.707267,0.101074,0.6733399999999999,0.190186,0.9116350000000001,-0.398444,-0.066896,-0.021942,-0.034828,-0.010782,,,,,,,,,,,,,,,,,,,,,,,,,,,,,,,,,,,,,,,,,,,,,,,,,,,,,,,,,,,,,,,,,
29270,1645901130.363531,1645901130.391658,5.0,0.0,4326.666504,4447.179688,4241.025879,4123.589844,4351.282227000001,450.0,1.0,15.0,,,,0.0,4.0,2.0,0.0,4.0,4.0,50.0,,,,,,,,,,,,,,,,,,,,,,,,,,,,,,,,,,,,,,,,,,,,,,,,,,,,,,,,,,,,,,,,,,,,,,,,,,,,,,,,,,,,
29271,1645901130.3713439,1645901130.399473,6.0,0.0,4325.128418,4310.256348,4278.461426,4180.512695,4271.282227000001,44.0,1.0,15.0,,,,0.0,4.0,2.0,0.0,4.0,4.0,50.0,,,,,,,,3.0,0.0,0.707202,0.101074,0.6733399999999999,0.19043,0.908217,-0.41406899999999996,-0.070802,-0.022872999999999998,-0.034861,-0.01195,1.0,0.0,0.0,,,,,,,,,,,,,,,,,,,,,,,,,,,,,,,,0.0,0.0,1.0,0.0,512.0,0.705867,10.342469,9.247522,3.510099,1.561598,1.7594290000000001,15.771473,24.370017999999998,16.093781,18.545225,32.787746000000006,21.384676000000002,18.30979,14.913184,4.473053,8.338745,3.4671809999999996,8.807262,8.460409,7.072671000000001,2.948203,2.900208,3.6623959999999998,4.1586099999999995,4.774617,2.109391
29272,1645901130.379158,1645901130.407287,7.0,0.0,4363.077147999999,4292.307617,4150.769043,4165.128418,4270.769043,450.0,1.0,15.0,,,,0.0,4.0,2.0,0.0,4.0,4.0,50.0,,,,,,,,,,,,,,,,,,,,,,,,,,,,,,,,,,,,,,,,,,,,,,,,,,,,,,,,,,,,,,,,,,,,,,,,,,,,,,,,,,,,
29273,1645901130.386971,1645901130.415102,8.0,0.0,4334.358886999999,4415.384765999999,4168.717772999999,4129.230957,4309.230957,450.0,1.0,15.0,,,,0.0,4.0,2.0,0.0,4.0,4.0,50.0,,,,,,,,4.0,0.0,0.707202,0.101074,0.6733399999999999,0.19043,0.9155409999999999,-0.41113900000000003,-0.06640700000000001,-0.02376,-0.034793,-0.009826999999999999,,,,,,,,,,,,,,,,,,,,,,,,,,,,,,,,,,,,,,,,,,,,,,,,,,,,,,,,,,,,,,,,,
29274,1645901130.394785,1645901130.422916,9.0,0.0,4316.410156,4434.871582,4254.358886999999,4165.128418,4277.436035,16289.0,1.0,15.0,,,,0.0,4.0,2.0,0.0,4.0,4.0,50.0,,,,,,,,,,,,,,,,,,,,,,,,,,,,,,,,,,,,,,,,,,,,,,,,,,,,,,,,,,,,,,,,,,,,,,,,,,,,,,,,,,,,
29275,1645901130.402599,1645901130.430731,10.0,0.0,4367.179688,4411.794922,4208.717772999999,4165.128418,4268.205078,450.0,1.0,15.0,,,,0.0,4.0,2.0,0.0,4.0,4.0,50.0,,,,,,,,5.0,0.0,0.707202,0.101074,0.6733399999999999,0.19043,0.932631,-0.413092,-0.07324299999999999,-0.024606,-0.034781,-0.01114,,,,,,,,,,,,,,,,,,,,,,,,,,,,,,,,,,,0.0,0.0,1.0,0.0,512.0,0.705867,,,,,,,,,,,,,,,,,,,,,,,,,
29276,1645901130.4104118,1645901130.4385462,11.0,0.0,4385.128418,4486.153809,4213.846191,4114.871582,4309.230957,16278.0,1.0,15.0,,,,0.0,4.0,2.0,0.0,4.0,4.0,50.0,,,,,,,,,,,,,,,,,,,,,,,,,,,,,,,,,,,,,,,,,,,,,,,,,,,,,,,,,,,,,,,,,,,,,,,,,,,,,,,,,,,,
29277,1645901130.418226,1645901130.4463599,12.0,0.0,4357.94873,4558.461426,4256.410156,4110.769043,4290.769043,450.0,1.0,15.0,,,,0.0,4.0,2.0,0.0,4.0,4.0,50.0,,,,,,,,6.0,0.0,0.707202,0.101074,0.6733399999999999,0.19043,0.9282370000000001,-0.398444,-0.085451,-0.022194,-0.034916,-0.012223000000000001,,,,,,,,,,,,,,,,,,,,,,,,,,,,,,,,,,,,,,,,,,,,,,,,,,,,,,,,,,,,,,,,,
29278,1645901130.426039,1645901130.454275,13.0,0.0,4351.282227000001,4532.307617,4288.717772999999,4145.128418,4251.794922,450.0,1.0,15.0,,,,0.0,4.0,2.0,0.0,4.0,4.0,50.0,,,,,,,,,,,,,,,,,,,,,,,,,,,,,,,,,,,,,,,,,,,,,,,,,,,,,,,,,,,,,,,,,,,,,,,,,,,,,,,,,,,,
29279,1645901130.433853,1645901130.46209,14.0,0.0,4350.769043,4454.871582,4276.922852000001,4146.153809,4260.512695,450.0,1.0,15.0,,,,0.0,4.0,2.0,0.0,4.0,4.0,50.0,,,,,,,,7.0,0.0,0.707202,0.101074,0.6733399999999999,0.19043,0.916518,-0.40381500000000004,-0.063966,-0.023051,-0.03494,-0.010121999999999999,,,,,,,,,,,,,,,,,,,,,,,,,,,,,,,,,,,0.0,0.0,1.0,0.0,512.0,0.705867,,,,,,,,,,,,,,,,,,,,,,,,,
29280,1645901130.4416661,1645901130.469904,15.0,0.0,4342.563965,4461.538574,4275.897461,4125.641113000001,4263.589844,16278.0,1.0,15.0,,,,0.0,4.0,2.0,0.0,4.0,4.0,50.0,,,,,,,,,,,,,,,,,,,,,,,,,,,,,,,,,,,,,,,,,,,,,,,,,,,,,,,,,,,,,,,,,,,,,,,,,,,,,,,,,,,,
29281,1645901130.44948,1645901130.4777188,16.0,0.0,4350.256348,4500.512695,4292.820313,4131.282227000001,4261.538574,0.0,1.0,15.0,,,,0.0,4.0,2.0,0.0,4.0,4.0,50.0,,,,,,,,8.0,0.0,0.707267,0.101074,0.6733399999999999,0.190186,0.9072399999999999,-0.400397,-0.06006,-0.023871,-0.034962,-0.011405,,,,,,,,,,,,,,,,,,,,,,,,,,,,,,,,,,,,,,,,,,,,,,,,,,,,,,,,,,,,,,,,,
29282,1645901130.457294,1645901130.485534,17.0,0.0,4353.846191,4423.077147999999,4267.692383,4143.589844,4250.769043,0.0,1.0,15.0,,,,0.0,4.0,2.0,0.0,4.0,4.0,50.0,,,,,,,,,,,,,,,,,,,,,,,,,,,,,,,,,,,,,,,,,,,,,,,,,,,,,,,,,,,,,,,,,,,,,,,,,,,,,,,,,,,,
29283,1645901130.465107,1645901130.4933481,18.0,0.0,4346.666504,4368.205078,4194.871582,4141.538574,4248.205078,0.0,1.0,15.0,,,,0.0,4.0,2.0,0.0,4.0,4.0,50.0,,,,,,,,9.0,0.0,0.7075,0.101074,0.673096,0.190186,0.916518,-0.41260399999999997,-0.07470800000000001,-0.024756,-0.034932,-0.012461,,,,,,,,,,,,,,,,,,,,,,,,,,,,,,,,,,,0.0,0.0,1.0,0.0,512.0,0.705867,,,,,,,,,,,,,,,,,,,,,,,,,
29284,1645901130.4729211,1645901130.501163,19.0,0.0,4310.256348,4418.974121,4268.717772999999,4152.307617,4265.128418,0.0,1.0,15.0,,,,0.0,4.0,2.0,0.0,4.0,4.0,50.0,,,,,,,,,,,,,,,,,,,,,,,,,,,,,,,,,,,,,,,,,,,,,,,,,,,,,,,,,,,,,,,,,,,,,,,,,,,,,,,,,,,,
29285,1645901130.4807339,1645901130.508977,20.0,0.0,4320.0,4435.897461,4261.538574,4157.436035,4273.846191,0.0,1.0,15.0,,,,0.0,4.0,2.0,0.0,4.0,4.0,50.0,,,,,,,,10.0,0.0,0.7075,0.101074,0.673096,0.190186,0.9233540000000001,-0.41065100000000004,-0.06836,-0.025454,-0.034906,-0.013364,,,,,,,,,,,,,,,,,,,,,,,,,,,,,,,,,,,,,,,,,,,,,,,,,,,,,,,,,,,,,,,,,
29286,1645901130.488548,1645901130.516792,21.0,0.0,4369.230957,4445.128418,4149.230957,4107.179688,4283.589844,0.0,1.0,15.0,,,,0.0,4.0,2.0,0.0,4.0,4.0,50.0,,,,,,,,,,,,,,,,,,,,,,,,,,,,,,,,,,,,,,,,,,,,,,,,,,,,,,,,,,,,,,,,,,,,,,,,,,,,,,,,,,,,
29287,1645901130.496362,1645901130.524607,22.0,0.0,4370.769043,4461.025879,4226.153809,4113.333496,4318.974121,0.0,1.0,15.0,,,,0.0,4.0,2.0,0.0,4.0,4.0,50.0,1.0,25.0,4.0,0.0,0.0,3.0,3.0,11.0,0.0,0.707267,0.101074,0.6733399999999999,0.190186,0.9267719999999999,-0.41406899999999996,-0.08691499999999999,-0.025985,-0.034931,-0.014176,1.0,0.0,0.0,,,,,,,,,,,,,,,,,,,,,,,,,,,,,,,,0.0,0.0,1.0,0.0,512.0,0.6703640000000001,10.698841,10.035063000000001,3.450794,1.448044,1.8185419999999999,15.587535,20.475126,16.084801000000002,17.713642,32.159659999999995,24.420702,17.465207999999997,15.383761999999999,4.681051,7.796574000000001,3.8427290000000003,10.232675,8.797006,7.1627279999999995,2.853822,2.6900020000000002,3.574497,3.3424139999999998,4.8919,1.831961
29288,1645901130.504175,1645901130.532521,23.0,0.0,4344.102539,4405.641113000001,4292.307617,4162.05127,4307.179688,0.0,1.0,15.0,,,,0.0,4.0,2.0,0.0,4.0,4.0,50.0,,,,,,,,,,,,,,,,,,,,,,,,,,,,,,,,,,,,,,,,,,,,,,,,,,,,,,,,,,,,,,,,,,,,,,,,,,,,,,,,,,,,
29289,1645901130.511989,1645901130.540336,24.0,0.0,4354.871582,4416.922852000001,4207.179688,4152.307617,4268.717772999999,0.0,1.0,15.0,,,,0.0,4.0,2.0,0.0,4.0,4.0,50.0,,,,,,,,12.0,0.0,0.707465,0.10131799999999999,0.673096,0.190186,0.925795,-0.404791,-0.07470800000000001,-0.026511,-0.034905,-0.015004,,,,,,,,,,,,,,,,,,,,,,,,,,,,,,,,,,,,,,,,,,,,,,,,,,,,,,,,,,,,,,,,,
29290,1645901130.5198019,1645901130.548151,25.0,0.0,4351.282227000001,4489.230957,4210.256348,4160.512695,4260.512695,0.0,1.0,15.0,,,,0.0,4.0,2.0,0.0,4.0,4.0,50.0,,,,,,,,,,,,,,,,,,,,,,,,,,,,,,,,,,,,,,,,,,,,,,,,,,,,,,,,,,,,,,,,,,,,,,,,,,,,,,,,,,,,
29291,1645901130.527616,1645901130.555965,26.0,0.0,4337.436035,4503.077147999999,4257.94873,4205.641113000001,4294.871582,0.0,1.0,15.0,,,,0.0,4.0,2.0,0.0,4.0,4.0,50.0,,,,,,,,13.0,0.0,0.7075,0.101074,0.673096,0.190186,0.9233540000000001,-0.41065100000000004,-0.06836,-0.027034,-0.034881,-0.015652000000000003,,,,,,,,,,,,,,,,,,,,,,,,,,,,,,,,,,,0.0,0.0,1.0,0.0,512.0,0.6703640000000001,,,,,,,,,,,,,,,,,,,,,,,,,
29292,1645901130.5354302,1645901130.56378,27.0,0.0,4337.94873,4512.307617,4203.077147999999,4175.897461,4326.153809,0.0,1.0,15.0,,,,0.0,4.0,2.0,0.0,4.0,4.0,50.0,,,,,,,,,,,,,,,,,,,,,,,,,,,,,,,,,,,,,,,,,,,,,,,,,,,,,,,,,,,,,,,,,,,,,,,,,,,,,,,,,,,,
29293,1645901130.543243,1645901130.571595,28.0,0.0,4319.487305,4514.871582,4205.641113000001,4133.333496,4328.717772999999,0.0,1.0,15.0,,,,0.0,4.0,2.0,0.0,4.0,4.0,50.0,,,,,,,,14.0,0.0,0.70753,0.10131799999999999,0.673096,0.189941,0.9131,-0.39942,-0.075196,-0.027456,-0.034811,-0.013111000000000001,,,,,,,,,,,,,,,,,,,,,,,,,,,,,,,,,,,,,,,,,,,,,,,,,,,,,,,,,,,,,,,,,
29294,1645901130.551057,1645901130.579509,29.0,0.0,4296.410156,4447.692383,4237.94873,4143.077147999999,4301.025879,0.0,1.0,15.0,,,,0.0,4.0,2.0,0.0,4.0,4.0,50.0,,,,,,,,,,,,,,,,,,,,,,,,,,,,,,,,,,,,,,,,,,,,,,,,,,,,,,,,,,,,,,,,,,,,,,,,,,,,,,,,,,,,
29295,1645901130.5588698,1645901130.5873241,30.0,0.0,4315.384765999999,4390.769043,4247.692383,4137.436035,4265.128418,0.0,1.0,15.0,,,,0.0,4.0,2.0,0.0,4.0,4.0,50.0,,,,,,,,15.0,0.0,0.70753,0.10131799999999999,0.673096,0.189941,0.9150530000000001,-0.396002,-0.08105599999999999,-0.027933,-0.034797,-0.013996999999999999,,,,,,,,,,,,,,,,,,,,,,,,,,,,,,,,,,,0.0,0.0,1.0,0.0,512.0,0.6703640000000001,,,,,,,,,,,,,,,,,,,,,,,,,
29296,1645901130.566684,1645901130.595138,31.0,0.0,4346.666504,4403.077147999999,4254.871582,4120.512695,4267.692383,0.0,1.0,15.0,,,,0.0,4.0,2.0,0.0,4.0,4.0,50.0,,,,,,,,,,,,,,,,,,,,,,,,,,,,,,,,,,,,,,,,,,,,,,,,,,,,,,,,,,,,,,,,,,,,,,,,,,,,,,,,,,,,
29297,1645901130.574498,1645901130.602953,32.0,0.0,4335.897461,4443.589844,4311.282227000001,4171.794922,4286.153809,0.0,1.0,15.0,,,,0.0,4.0,2.0,0.0,4.0,4.0,50.0,,,,,,,,16.0,0.0,0.70753,0.10131799999999999,0.673096,0.189941,0.917494,-0.401373,-0.070314,-0.028312999999999998,-0.034783999999999995,-0.011718000000000001,,,,,,,,,,,,,,,,,,,,,,,,,,,,,,,,,,,,,,,,,,,,,,,,,,,,,,,,,,,,,,,,,
29298,1645901130.582311,1645901130.610768,33.0,0.0,4335.897461,4436.410156,4307.692383,4219.487305,4284.615234000001,0.0,1.0,15.0,,,,0.0,4.0,2.0,0.0,4.0,4.0,50.0,,,,,,,,,,,,,,,,,,,,,,,,,,,,,,,,,,,,,,,,,,,,,,,,,,,,,,,,,,,,,,,,,,,,,,,,,,,,,,,,,,,,
29299,1645901130.590125,1645901130.618582,34.0,0.0,4367.692383,4387.179688,4248.205078,4177.436035,4290.256348,0.0,1.0,15.0,,,,0.0,4.0,2.0,0.0,4.0,4.0,50.0,,,,,,,,17.0,0.0,0.707596,0.10131799999999999,0.673096,0.189697,0.916518,-0.404791,-0.069825,-0.028558,-0.034821,-0.012695,,,,,,,,,,,,,,,,,,,,,,,,,,,,,,,,,,,0.0,0.0,1.0,0.0,512.0,0.6703640000000001,,,,,,,,,,,,,,,,,,,,,,,,,
29300,1645901130.597938,1645901130.6263971,35.0,0.0,4371.794922,4373.333496,4224.615234000001,4164.102539,4315.384765999999,0.0,1.0,15.0,,,,0.0,4.0,2.0,0.0,4.0,4.0,50.0,,,,,,,,,,,,,,,,,,,,,,,,,,,,,,,,,,,,,,,,,,,,,,,,,,,,,,,,,,,,,,,,,,,,,,,,,,,,,,,,,,,,
29301,1645901130.605752,1645901130.634212,36.0,0.0,4346.666504,4406.666504,4242.05127,4198.974121,4280.0,0.0,1.0,15.0,,,,0.0,4.0,2.0,0.0,4.0,4.0,50.0,,,,,,,,18.0,0.0,0.707596,0.10131799999999999,0.673096,0.189697,0.923842,-0.38721300000000003,-0.07128999999999999,-0.025751,-0.034904000000000004,-0.013574000000000001,,,,,,,,,,,,,,,,,,,,,,,,,,,,,,,,,,,,,,,,,,,,,,,,,,,,,,,,,,,,,,,,,
29302,1645901130.613566,1645901130.642026,37.0,0.0,4351.794922,4444.615234000001,4181.538574,4193.846191,4253.333496,0.0,1.0,15.0,,,,0.0,4.0,2.0,0.0,4.0,4.0,50.0,,,,,,,,,,,,,,,,,,,,,,,,,,,,,,,,,,,,,,,,,,,,,,,,,,,,,,,,,,,,,,,,,,,,,,,,,,,,,,,,,,,,
29303,1645901130.621379,1645901130.649941,38.0,0.0,4337.436035,4430.256348,4155.384765999999,4186.666504,4290.769043,0.0,1.0,15.0,,,,0.0,4.0,2.0,0.0,4.0,4.0,50.0,,,,,,,,19.0,0.0,0.707596,0.10131799999999999,0.673096,0.189697,0.921401,-0.407233,-0.070314,-0.02635,-0.03488,-0.014463,1.0,0.0,0.0,,,,,,,,,,,,,,,,,,,,,,,,,,,,,,,,0.0,0.0,1.0,0.0,512.0,0.693516,10.776060000000001,10.582461,3.276089,1.325674,1.8551950000000001,17.370375,18.694363,17.591632999999998,16.243212,30.563178999999998,27.603838,17.73259,15.662438,4.763230999999999,7.171227,4.317007,11.276812,8.307238,6.972262,2.822998,2.360107,3.383846,2.547382,4.836942,1.598754
29304,1645901130.629193,1645901130.6577551,39.0,0.0,4310.769043,4435.384765999999,4207.179688,4221.025879,4314.871582,0.0,1.0,15.0,,,,0.0,4.0,2.0,0.0,4.0,4.0,50.0,,,,,,,,,,,,,,,,,,,,,,,,,,,,,,,,,,,,,,,,,,,,,,,,,,,,,,,,,,,,,,,,,,,,,,,,,,,,,,,,,,,,
29305,1645901130.637006,1645901130.66557,40.0,0.0,4309.743652,4525.128418,4204.102539,4204.615234000001,4301.025879,0.0,1.0,15.0,,,,0.0,4.0,2.0,0.0,4.0,4.0,50.0,,,,,,,,20.0,0.0,0.70753,0.10131799999999999,0.673096,0.189941,0.9267719999999999,-0.41944,-0.072267,-0.02684,-0.034908,-0.015116,,,,,,,,,,,,,,,,,,,,,,,,,,,,,,,,,,,,,,,,,,,,,,,,,,,,,,,,,,,,,,,,,
29306,1645901130.64482,1645901130.673385,41.0,0.0,4321.538574,4573.333496,4170.256348,4169.743652,4303.589844,0.0,1.0,15.0,,,,0.0,4.0,2.0,0.0,4.0,4.0,50.0,,,,,,,,,,,,,,,,,,,,,,,,,,,,,,,,,,,,,,,,,,,,,,,,,,,,,,,,,,,,,,,,,,,,,,,,,,,,,,,,,,,,
29307,1645901130.652634,1645901130.681199,42.0,0.0,4322.05127,4513.846191,4221.538574,4148.717772999999,4293.846191,0.0,1.0,15.0,,,,0.0,4.0,2.0,0.0,4.0,4.0,50.0,,,,,,,,21.0,0.0,0.70753,0.10131799999999999,0.673096,0.189941,0.9038219999999999,-0.41455699999999995,-0.070314,-0.027281,-0.034933,-0.015802,,,,,,,,,,,,,,,,,,,,,,,,,,,,,,,,,,,0.0,0.0,1.0,0.0,512.0,0.693516,,,,,,,,,,,,,,,,,,,,,,,,,
29308,1645901130.6604471,1645901130.689114,43.0,0.0,4323.077147999999,4455.384765999999,4276.922852000001,4137.436035,4292.307617,0.0,1.0,15.0,,,,0.0,4.0,2.0,0.0,4.0,4.0,50.0,,,,,,,,,,,,,,,,,,,,,,,,,,,,,,,,,,,,,,,,,,,,,,,,,,,,,,,,,,,,,,,,,,,,,,,,,,,,,,,,,,,,
29309,1645901130.668261,1645901130.696929,44.0,0.0,4323.589844,4451.282227000001,4242.05127,4156.922852000001,4301.025879,0.0,1.0,15.0,,,,0.0,4.0,2.0,0.0,4.0,4.0,50.0,,,,,,,,22.0,0.0,0.70753,0.10131799999999999,0.673096,0.189941,0.9248190000000001,-0.40283800000000003,-0.070802,-0.027677999999999998,-0.034955,-0.016468,,,,,,,,,,,,,,,,,,,,,,,,,,,,,,,,,,,,,,,,,,,,,,,,,,,,,,,,,,,,,,,,,
29310,1645901130.676074,1645901130.704743,45.0,0.0,4333.846191,4450.769043,4243.589844,4175.384765999999,4293.333496,0.0,1.0,15.0,,,,0.0,4.0,2.0,0.0,4.0,4.0,50.0,,,,,,,,,,,,,,,,,,,,,,,,,,,,,,,,,,,,,,,,,,,,,,,,,,,,,,,,,,,,,,,,,,,,,,,,,,,,,,,,,,,,
29311,1645901130.6838882,1645901130.712558,46.0,0.0,4338.974121,4472.820313,4251.282227000001,4164.615234000001,4295.897461,0.0,1.0,15.0,,,,0.0,4.0,2.0,0.0,4.0,4.0,50.0,,,,,,,,23.0,0.0,0.707495,0.101563,0.673096,0.189941,0.9365379999999999,-0.40283800000000003,-0.07715,-0.024959000000000002,-0.034926,-0.017116,,,,,,,,,,,,,,,,,,,,,,,,,,,,,,,,,,,0.0,0.0,1.0,0.0,512.0,0.693516,,,,,,,,,,,,,,,,,,,,,,,,,
29312,1645901130.691702,1645901130.720372,47.0,0.0,4318.974121,4480.0,4266.153809,4167.179688,4303.077147999999,0.0,1.0,15.0,,,,0.0,4.0,2.0,0.0,4.0,4.0,50.0,,,,,,,,,,,,,,,,,,,,,,,,,,,,,,,,,,,,,,,,,,,,,,,,,,,,,,,,,,,,,,,,,,,,,,,,,,,,,,,,,,,,
29313,1645901130.699515,1645901130.7281868,48.0,0.0,4333.333496,4437.94873,4253.846191,4160.512695,4296.922852000001,0.0,1.0,15.0,,,,0.0,4.0,2.0,0.0,4.0,4.0,50.0,,,,,,,,24.0,0.0,0.707495,0.101563,0.673096,0.189941,0.923842,-0.408209,-0.06884900000000001,-0.025637,-0.034998,-0.01765,,,,,,,,,,,,,,,,,,,,,,,,,,,,,,,,,,,,,,,,,,,,,,,,,,,,,,,,,,,,,,,,,
29314,1645901130.7073288,1645901130.736002,49.0,0.0,4361.025879,4472.307617,4271.282227000001,4126.666504,4288.205078,0.0,1.0,15.0,,,,0.0,4.0,2.0,0.0,4.0,4.0,50.0,,,,,,,,,,,,,,,,,,,,,,,,,,,,,,,,,,,,,,,,,,,,,,,,,,,,,,,,,,,,,,,,,,,,,,,,,,,,,,,,,,,,
29315,1645901130.715142,1645901130.743816,50.0,0.0,4340.512695,4484.615234000001,4267.179688,4147.692383,4271.282227000001,0.0,1.0,15.0,,,,0.0,4.0,2.0,0.0,4.0,4.0,50.0,,,,,,,,25.0,0.0,0.7074600000000001,0.10180700000000001,0.673096,0.189941,0.9111469999999999,-0.40381500000000004,-0.07128999999999999,-0.026198000000000003,-0.035013999999999997,-0.015006,,,,,,,,,,,,,,,,,,,,,,,,,,,,,,,,,,,0.0,0.0,1.0,0.0,512.0,0.693516,,,,,,,,,,,,,,,,,,,,,,,,,
29316,1645901130.722956,1645901130.751631,51.0,0.0,4311.282227000001,4395.897461,4250.256348,4189.743652,4241.538574,0.0,1.0,15.0,,,,0.0,4.0,2.0,0.0,4.0,4.0,50.0,,,,,,,,,,,,,,,,,,,,,,,,,,,,,,,,,,,,,,,,,,,,,,,,,,,,,,,,,,,,,,,,,,,,,,,,,,,,,,,,,,,,
29317,1645901130.7307699,1645901130.759546,52.0,0.0,4324.615234000001,4409.230957,4227.179688,4180.0,4265.128418,0.0,1.0,15.0,,,,0.0,4.0,2.0,0.0,4.0,4.0,50.0,,,,,,,,26.0,0.0,0.7074600000000001,0.10180700000000001,0.673096,0.189941,0.9052870000000001,-0.406744,-0.078614,-0.026704000000000002,-0.034881999999999996,-0.015752000000000002,,,,,,,,,,,,,,,,,,,,,,,,,,,,,,,,,,,,,,,,,,,,,,,,,,,,,,,,,,,,,,,,,
29318,1645901130.738583,1645901130.76736,53.0,0.0,4314.358886999999,4497.94873,4212.307617,4166.153809,4295.384765999999,0.0,1.0,15.0,,,,0.0,4.0,2.0,0.0,4.0,4.0,50.0,,,,,,,,,,,,,,,,,,,,,,,,,,,,,,,,,,,,,,,,,,,,,,,,,,,,,,,,,,,,,,,,,,,,,,,,,,,,,,,,,,,,
29319,1645901130.746397,1645901130.775175,54.0,0.0,4311.794922,4467.692383,4180.0,4181.538574,4296.410156,0.0,1.0,15.0,,,,0.0,4.0,2.0,0.0,4.0,4.0,50.0,,,,,,,,27.0,0.0,0.707692,0.10180700000000001,0.672852,0.189941,0.9233540000000001,-0.393561,-0.065919,-0.027157999999999998,-0.034957999999999996,-0.013297999999999999,1.0,0.0,0.0,,,,,,,,,,,,,,,,,,,,,,,,,,,,,,,,0.0,0.0,1.0,0.0,512.0,0.487821,10.690154,10.669596,3.0994740000000003,1.228325,1.885859,21.378069,20.837633,20.049183,14.427263,27.987173,30.439296999999996,19.683491,15.766391,4.724233,6.728513,4.764138,11.611813,7.127712,6.608371000000001,2.8886529999999997,2.0443569999999998,3.134419,1.992723,4.714596,1.48811
29320,1645901130.75421,1645901130.78299,55.0,0.0,4329.743652,4438.461426,4193.846191,4158.974121,4295.384765999999,0.0,1.0,15.0,,,,0.0,4.0,2.0,0.0,4.0,4.0,50.0,,,,,,,,,,,,,,,,,,,,,,,,,,,,,,,,,,,,,,,,,,,,,,,,,,,,,,,,,,,,,,,,,,,,,,,,,,,,,,,,,,,,
29321,1645901130.762024,1645901130.790804,56.0,0.0,4337.436035,4509.743652,4242.05127,4141.538574,4292.307617,0.0,1.0,15.0,,,,0.0,4.0,2.0,0.0,4.0,4.0,50.0,,,,,,,,28.0,0.0,0.707692,0.10180700000000001,0.672852,0.189941,0.917494,-0.40381500000000004,-0.070314,-0.024491,-0.035026999999999996,-0.014312,,,,,,,,,,,,,,,,,,,,,,,,,,,,,,,,,,,,,,,,,,,,,,,,,,,,,,,,,,,,,,,,,
29322,1645901130.769838,1645901130.798619,57.0,0.0,4352.820313,4528.205078,4224.102539,4165.128418,4275.897461,0.0,1.0,15.0,,,,0.0,4.0,2.0,0.0,4.0,4.0,50.0,,,,,,,,,,,,,,,,,,,,,,,,,,,,,,,,,,,,,,,,,,,,,,,,,,,,,,,,,,,,,,,,,,,,,,,,,,,,,,,,,,,,
29323,1645901130.777651,1645901130.806433,58.0,0.0,4369.743652,4517.94873,4210.769043,4181.538574,4296.922852000001,0.0,1.0,15.0,,,,0.0,4.0,2.0,0.0,4.0,4.0,50.0,,,,,,,,29.0,0.0,0.707727,0.101563,0.672852,0.189941,0.921401,-0.393072,-0.078614,-0.025167,-0.034991,-0.012001999999999999,,,,,,,,,,,,,,,,,,,,,,,,,,,,,,,,,,,0.0,0.0,1.0,0.0,512.0,0.487821,,,,,,,,,,,,,,,,,,,,,,,,,
29324,1645901130.785465,1645901130.814248,59.0,0.0,4350.769043,4522.563965,4232.820313,4164.615234000001,4318.461426,0.0,1.0,15.0,,,,0.0,4.0,2.0,0.0,4.0,4.0,50.0,,,,,,,,,,,,,,,,,,,,,,,,,,,,,,,,,,,,,,,,,,,,,,,,,,,,,,,,,,,,,,,,,,,,,,,,,,,,,,,,,,,,
29325,1645901130.793278,1645901130.822063,60.0,0.0,4348.717772999999,4506.666504,4202.563965,4165.641113000001,4295.384765999999,0.0,1.0,15.0,,,,0.0,4.0,2.0,0.0,4.0,4.0,50.0,,,,,,,,30.0,0.0,0.707727,0.101563,0.672852,0.189941,0.922377,-0.398444,-0.075196,-0.025677999999999996,-0.035008,-0.009873999999999999,,,,,,,,,,,,,,,,,,,,,,,,,,,,,,,,,,,,,,,,,,,,,,,,,,,,,,,,,,,,,,,,,
29326,1645901130.801092,1645901130.829778,61.0,0.0,4370.256348,4505.641113000001,4169.743652,4168.205078,4281.538574,0.0,1.0,15.0,,,,0.0,4.0,2.0,0.0,4.0,4.0,50.0,,,,,,,,,,,,,,,,,,,,,,,,,,,,,,,,,,,,,,,,,,,,,,,,,,,,,,,,,,,,,,,,,,,,,,,,,,,,,,,,,,,,
29327,1645901130.8089051,1645901130.837592,62.0,0.0,4359.487305,4519.487305,4275.897461,4165.128418,4294.871582,0.0,1.0,15.0,,,,0.0,4.0,2.0,0.0,4.0,4.0,50.0,,,,,,,,31.0,0.0,0.707924,0.10180700000000001,0.672607,0.189941,0.9131,-0.407721,-0.089357,-0.023159,-0.034925,-0.011133,,,,,,,,,,,,,,,,,,,,,,,,,,,,,,,,,,,0.0,0.0,1.0,0.0,512.0,0.487821,,,,,,,,,,,,,,,,,,,,,,,,,
29328,1645901130.816719,1645901130.845407,63.0,0.0,4351.794922,4507.692383,4281.538574,4176.410156,4295.384765999999,0.0,1.0,15.0,,,,0.0,4.0,2.0,0.0,4.0,4.0,50.0,,,,,,,,,,,,,,,,,,,,,,,,,,,,,,,,,,,,,,,,,,,,,,,,,,,,,,,,,,,,,,,,,,,,,,,,,,,,,,,,,,,,
29329,1645901130.824533,1645901130.8532212,64.0,0.0,4361.025879,4506.153809,4233.333496,4166.153809,4281.025879,450.0,1.0,15.0,,,,0.0,4.0,2.0,0.0,4.0,4.0,50.0,,,,,,,,32.0,0.0,0.707727,0.101563,0.672852,0.189941,0.921401,-0.393072,-0.078614,-0.023968,-0.034899,-0.00914,,,,,,,,,,,,,,,,,,,,,,,,,,,,,,,,,,,,,,,,,,,,,,,,,,,,,,,,,,,,,,,,,
29330,1645901130.8323462,1645901130.8610358,65.0,0.0,4352.820313,4454.358886999999,4252.307617,4162.05127,4266.666504,450.0,1.0,15.0,,,,0.0,4.0,2.0,0.0,4.0,4.0,50.0,,,,,,,,,,,,,,,,,,,,,,,,,,,,,,,,,,,,,,,,,,,,,,,,,,,,,,,,,,,,,,,,,,,,,,,,,,,,,,,,,,,,
29331,1645901130.84016,1645901130.868951,66.0,0.0,4359.487305,4418.461426,4252.820313,4174.358886999999,4253.333496,16065.0,1.0,15.0,,,,0.0,4.0,2.0,0.0,4.0,4.0,50.0,,,,,,,,33.0,0.0,0.707924,0.10180700000000001,0.672607,0.189941,0.9131,-0.407721,-0.089357,-0.02162,-0.034827,-0.010472,,,,,,,,,,,,,,,,,,,,,,,,,,,,,,,,,,,0.0,0.0,1.0,0.0,512.0,0.487821,,,,,,,,,,,,,,,,,,,,,,,,,
29332,1645901130.847973,1645901130.876765,67.0,0.0,4365.128418,4486.153809,4207.692383,4174.358886999999,4287.179688,450.0,1.0,15.0,,,,0.0,4.0,2.0,0.0,4.0,4.0,50.0,,,,,,,,,,,,,,,,,,,,,,,,,,,,,,,,,,,,,,,,,,,,,,,,,,,,,,,,,,,,,,,,,,,,,,,,,,,,,,,,,,,,
29333,1645901130.8557868,1645901130.88468,68.0,0.0,4320.512695,4482.05127,4262.563965,4170.769043,4304.615234000001,9.0,1.0,15.0,,,,0.0,4.0,0.0,1.0,4.0,4.0,41.666668,,,,,,,,34.0,0.0,0.707889,0.102051,0.672607,0.189941,0.917494,-0.406744,-0.07128999999999999,-0.022681,-0.034714,-0.011574,,,,,,,,,,,,,,,,,,,,,,,,,,,,,,,,,,,,,,,,,,,,,,,,,,,,,,,,,,,,,,,,,
29334,1645901130.863601,1645901130.892494,69.0,0.0,4318.461426,4391.794922,4251.794922,4180.512695,4287.692383,450.0,1.0,15.0,,,,0.0,4.0,0.0,1.0,4.0,4.0,41.666668,,,,,,,,,,,,,,,,,,,,,,,,,,,,,,,,,,,,,,,,,,,,,,,,,,,,,,,,,,,,,,,,,,,,,,,,,,,,,,,,,,,,
29335,1645901130.871414,1645901130.900309,70.0,0.0,4357.436035,4402.563965,4135.384765999999,4160.0,4291.794922,135.0,1.0,15.0,,,,0.0,4.0,0.0,1.0,4.0,4.0,41.666668,,,,,,,,35.0,0.0,0.707955,0.102051,0.672607,0.189697,0.9131,-0.39942,-0.080079,-0.023538,-0.034758,-0.009586,1.0,0.0,0.0,,,,,,,,,,,,,,,,,,,,,,,,,,,,,,,,0.0,0.0,1.0,0.0,512.0,0.507162,10.481330999999999,10.238041,3.016756,1.185659,1.937848,27.294047999999997,27.534021000000003,22.776224,12.737967,24.78425,32.757153,23.145785999999998,15.645079,4.555733999999999,6.774652000000001,5.106382,11.121678,5.733461,6.215065,3.049514,1.994257,2.9004659999999998,1.740374,4.70782,1.542301
29336,1645901130.8792279,1645901130.908124,71.0,0.0,4373.333496,4472.307617,4168.205078,4151.282227000001,4297.436035,450.0,1.0,15.0,,,,0.0,4.0,0.0,1.0,4.0,4.0,41.666668,,,,,,,,,,,,,,,,,,,,,,,,,,,,,,,,,,,,,,,,,,,,,,,,,,,,,,,,,,,,,,,,,,,,,,,,,,,,,,,,,,,,
29337,1645901130.887041,1645901130.916038,72.0,0.0,4343.077147999999,4420.512695,4250.769043,4171.282227000001,4268.717772999999,450.0,1.0,15.0,,,,0.0,4.0,0.0,1.0,4.0,4.0,41.666668,,,,,,,,36.0,0.0,0.707955,0.102051,0.672607,0.189697,0.913588,-0.40235,-0.088869,-0.021233000000000002,-0.034847,-0.010825,,,,,,,,,,,,,,,,,,,,,,,,,,,,,,,,,,,,,,,,,,,,,,,,,,,,,,,,,,,,,,,,,
29338,1645901130.894855,1645901130.923853,73.0,0.0,4318.974121,4370.256348,4198.461426,4175.897461,4279.487305,16145.0,1.0,15.0,,,,0.0,4.0,0.0,1.0,4.0,4.0,41.666668,,,,,,,,,,,,,,,,,,,,,,,,,,,,,,,,,,,,,,,,,,,,,,,,,,,,,,,,,,,,,,,,,,,,,,,,,,,,,,,,,,,,
29339,1645901130.902669,1645901130.931668,74.0,0.0,4313.846191,4438.461426,4176.410156,4167.179688,4297.436035,450.0,1.0,15.0,,,,0.0,4.0,0.0,1.0,4.0,4.0,41.666668,,,,,,,,37.0,0.0,0.707955,0.102051,0.672607,0.189697,0.920424,-0.387701,-0.078614,-0.022186,-0.034829,-0.008717,,,,,,,,,,,,,,,,,,,,,,,,,,,,,,,,,,,0.0,0.0,1.0,0.0,512.0,0.507162,,,,,,,,,,,,,,,,,,,,,,,,,
29340,1645901130.910482,1645901130.939482,75.0,0.0,4327.179688,4513.333496,4264.615234000001,4149.743652,4273.333496,16096.0,1.0,15.0,,,,0.0,4.0,0.0,1.0,4.0,4.0,41.666668,,,,,,,,,,,,,,,,,,,,,,,,,,,,,,,,,,,,,,,,,,,,,,,,,,,,,,,,,,,,,,,,,,,,,,,,,,,,,,,,,,,,
29341,1645901130.918296,1645901130.947397,76.0,0.0,4330.769043,4526.153809,4267.692383,4115.897461,4261.538574,450.0,1.0,15.0,,,,0.0,4.0,0.0,1.0,4.0,4.0,41.666668,,,,,,,,38.0,0.0,0.707889,0.102051,0.672607,0.189941,0.9194479999999999,-0.41846300000000003,-0.067872,-0.020016,-0.034911000000000005,-0.009994,,,,,,,,,,,,,,,,,,,,,,,,,,,,,,,,,,,,,,,,,,,,,,,,,,,,,,,,,,,,,,,,,
29342,1645901130.926109,1645901130.9553108,77.0,0.0,4310.769043,4472.307617,4236.922852000001,4134.871582,4267.692383,450.0,1.0,15.0,,,,0.0,4.0,0.0,1.0,4.0,4.0,41.666668,,,,,,,,,,,,,,,,,,,,,,,,,,,,,,,,,,,,,,,,,,,,,,,,,,,,,,,,,,,,,,,,,,,,,,,,,,,,,,,,,,,,
29343,1645901130.933923,1645901130.963126,78.0,0.0,4323.589844,4427.692383,4278.974121,4173.333496,4253.333496,450.0,1.0,15.0,,,,0.0,4.0,0.0,1.0,4.0,4.0,41.666668,,,,,,,,39.0,0.0,0.707889,0.102051,0.672607,0.189941,0.9267719999999999,-0.407233,-0.07715,-0.021138999999999998,-0.034789,-0.011143,,,,,,,,,,,,,,,,,,,,,,,,,,,,,,,,,,,0.0,0.0,1.0,0.0,512.0,0.507162,,,,,,,,,,,,,,,,,,,,,,,,,
29344,1645901130.941737,1645901130.970941,79.0,0.0,4339.487305,4454.358886999999,4318.974121,4154.358886999999,4248.205078,16096.0,1.0,15.0,,,,0.0,4.0,0.0,1.0,4.0,4.0,41.666668,,,,,,,,,,,,,,,,,,,,,,,,,,,,,,,,,,,,,,,,,,,,,,,,,,,,,,,,,,,,,,,,,,,,,,,,,,,,,,,,,,,,
29345,1645901130.94955,1645901130.978755,80.0,0.0,4323.077147999999,4494.358886999999,4228.717772999999,4127.179688,4279.487305,450.0,1.0,15.0,,,,0.0,4.0,0.0,1.0,4.0,4.0,41.666668,,,,,,,,40.0,0.0,0.707627,0.10180700000000001,0.672852,0.190186,0.9160299999999999,-0.395514,-0.07910299999999999,-0.022199,-0.034825999999999996,-0.009247,,,,,,,,,,,,,,,,,,,,,,,,,,,,,,,,,,,,,,,,,,,,,,,,,,,,,,,,,,,,,,,,,
29346,1645901130.957364,1645901130.98657,81.0,0.0,4310.769043,4464.615234000001,4223.077147999999,4124.102539,4312.820313,450.0,1.0,15.0,,,,0.0,4.0,0.0,1.0,4.0,4.0,41.666668,,,,,,,,,,,,,,,,,,,,,,,,,,,,,,,,,,,,,,,,,,,,,,,,,,,,,,,,,,,,,,,,,,,,,,,,,,,,,,,,,,,,
29347,1645901130.965177,1645901130.994484,82.0,0.0,4331.282227000001,4460.0,4287.692383,4125.128418,4307.692383,450.0,1.0,15.0,,,,0.0,4.0,0.0,1.0,4.0,4.0,41.666668,,,,,,,,41.0,0.0,0.707627,0.10180700000000001,0.672852,0.190186,0.9131,-0.403326,-0.076173,-0.023104,-0.034858999999999994,-0.007345999999999999,,,,,,,,,,,,,,,,,,,,,,,,,,,,,,,,,,,0.0,0.0,1.0,0.0,512.0,0.507162,,,,,,,,,,,,,,,,,,,,,,,,,
29348,1645901130.972991,1645901131.002299,83.0,0.0,4343.077147999999,4557.436035,4265.128418,4132.307617,4275.384765999999,16096.0,1.0,15.0,,,,0.0,4.0,0.0,1.0,4.0,4.0,41.666668,,,,,,,,,,,,,,,,,,,,,,,,,,,,,,,,,,,,,,,,,,,,,,,,,,,,,,,,,,,,,,,,,,,,,,,,,,,,,,,,,,,,
29349,1645901130.9808052,1645901131.010114,84.0,0.0,4336.410156,4583.589844,4217.436035,4166.666504,4282.563965,450.0,1.0,15.0,,,,0.0,4.0,0.0,1.0,4.0,4.0,41.666668,,,,,,,,42.0,0.0,0.707627,0.10180700000000001,0.672852,0.190186,0.9282370000000001,-0.407721,-0.071778,-0.023968,-0.034791,-0.005684000000000001,,,,,,,,,,,,,,,,,,,,,,,,,,,,,,,,,,,,,,,,,,,,,,,,,,,,,,,,,,,,,,,,,
29350,1645901130.988618,1645901131.017928,85.0,0.0,4340.512695,4503.077147999999,4245.641113000001,4178.461426,4301.538574,450.0,1.0,15.0,,,,0.0,4.0,0.0,1.0,4.0,4.0,41.666668,,,,,,,,,,,,,,,,,,,,,,,,,,,,,,,,,,,,,,,,,,,,,,,,,,,,,,,,,,,,,,,,,,,,,,,,,,,,,,,,,,,,
29351,1645901130.996432,1645901131.025743,86.0,0.0,4352.307617,4509.230957,4224.615234000001,4160.0,4304.615234000001,450.0,1.0,15.0,,,,0.0,4.0,0.0,1.0,4.0,4.0,41.666668,1.0,25.0,4.0,0.0,0.0,3.0,4.0,43.0,0.0,0.707596,0.101563,0.672852,0.19043,0.9121229999999999,-0.400885,-0.072755,-0.022319,-0.034724,-0.005868,1.0,0.0,0.0,,,,,,,,,,,,,,,,,,,,,,,,,,,,,,,,0.0,0.0,1.0,0.0,512.0,0.501657,10.045591,9.468029,3.012352,1.20391,2.020612,33.53598,37.882996,25.007393,11.633246,21.540257999999998,34.639072,27.436789,15.266395000000001,4.254491000000001,7.448853,5.304791000000001,9.955810000000001,4.55094,5.897195,3.257963,2.408516,2.752519,1.7028189999999999,4.97487,1.745105
29352,1645901131.0042448,1645901131.033558,87.0,0.0,4324.615234000001,4545.641113000001,4188.717772999999,4157.436035,4276.922852000001,16096.0,1.0,15.0,,,,0.0,4.0,0.0,1.0,4.0,4.0,41.666668,,,,,,,,,,,,,,,,,,,,,,,,,,,,,,,,,,,,,,,,,,,,,,,,,,,,,,,,,,,,,,,,,,,,,,,,,,,,,,,,,,,,
29353,1645901131.012059,1645901131.041372,88.0,0.0,4312.820313,4521.025879,4214.871582,4163.589844,4254.871582,450.0,1.0,15.0,,,,0.0,4.0,0.0,1.0,4.0,4.0,41.666668,,,,,,,,44.0,0.0,0.707561,0.10180700000000001,0.672852,0.19043,0.914565,-0.408209,-0.062013,-0.023212,-0.034718,-0.004403,,,,,,,,,,,,,,,,,,,,,,,,,,,,,,,,,,,,,,,,,,,,,,,,,,,,,,,,,,,,,,,,,
29354,1645901131.0198722,1645901131.049187,89.0,0.0,4309.230957,4504.615234000001,4228.717772999999,4150.769043,4270.769043,450.0,1.0,15.0,,,,0.0,4.0,0.0,1.0,4.0,4.0,41.666668,,,,,,,,,,,,,,,,,,,,,,,,,,,,,,,,,,,,,,,,,,,,,,,,,,,,,,,,,,,,,,,,,,,,,,,,,,,,,,,,,,,,
29355,1645901131.0276859,1645901131.057102,90.0,0.0,4303.077147999999,4512.820313,4230.769043,4179.487305,4306.153809,450.0,1.0,15.0,,,,0.0,4.0,0.0,1.0,4.0,4.0,41.666668,,,,,,,,45.0,0.0,0.707561,0.10180700000000001,0.672852,0.19043,0.9282370000000001,-0.415534,-0.075196,-0.024163,-0.034762,-0.002937,,,,,,,,,,,,,,,,,,,,,,,,,,,,,,,,,,,0.0,0.0,1.0,0.0,512.0,0.501657,,,,,,,,,,,,,,,,,,,,,,,,,
29356,1645901131.0355,1645901131.0649161,91.0,0.0,4319.487305,4525.128418,4262.05127,4207.692383,4313.333496,16096.0,1.0,15.0,,,,0.0,4.0,0.0,1.0,4.0,4.0,41.666668,,,,,,,,,,,,,,,,,,,,,,,,,,,,,,,,,,,,,,,,,,,,,,,,,,,,,,,,,,,,,,,,,,,,,,,,,,,,,,,,,,,,
29357,1645901131.043313,1645901131.072731,92.0,0.0,4337.94873,4581.025879,4299.487305,4168.717772999999,4300.0,450.0,1.0,15.0,,,,0.0,4.0,0.0,1.0,4.0,4.0,41.666668,,,,,,,,46.0,0.0,0.707561,0.10180700000000001,0.672852,0.19043,0.9282370000000001,-0.411627,-0.075685,-0.024919999999999998,-0.034801,-0.004792,,,,,,,,,,,,,,,,,,,,,,,,,,,,,,,,,,,,,,,,,,,,,,,,,,,,,,,,,,,,,,,,,
29358,1645901131.051127,1645901131.080545,93.0,0.0,4320.512695,4583.077147999999,4277.94873,4123.589844,4277.436035,450.0,1.0,15.0,,,,0.0,4.0,0.0,1.0,4.0,4.0,41.666668,,,,,,,,,,,,,,,,,,,,,,,,,,,,,,,,,,,,,,,,,,,,,,,,,,,,,,,,,,,,,,,,,,,,,,,,,,,,,,,,,,,,
29359,1645901131.05894,1645901131.08836,94.0,0.0,4315.897461,4481.538574,4257.436035,4131.282227000001,4270.256348,450.0,1.0,15.0,,,,0.0,4.0,0.0,1.0,4.0,4.0,41.666668,,,,,,,,47.0,0.0,0.707526,0.102051,0.672852,0.19043,0.921401,-0.40235,-0.065919,-0.025505,-0.034935,-0.006509999999999999,,,,,,,,,,,,,,,,,,,,,,,,,,,,,,,,,,,0.0,0.0,1.0,0.0,512.0,0.501657,,,,,,,,,,,,,,,,,,,,,,,,,
29360,1645901131.0667539,1645901131.096175,95.0,0.0,4336.922852000001,4460.512695,4243.589844,4145.641113000001,4288.717772999999,16096.0,1.0,15.0,,,,0.0,4.0,0.0,1.0,4.0,4.0,41.666668,,,,,,,,,,,,,,,,,,,,,,,,,,,,,,,,,,,,,,,,,,,,,,,,,,,,,,,,,,,,,,,,,,,,,,,,,,,,,,,,,,,,
29361,1645901131.074568,1645901131.1039891,96.0,0.0,4329.743652,4515.384765999999,4266.153809,4152.307617,4285.128418,450.0,1.0,15.0,,,,0.0,4.0,0.0,1.0,4.0,4.0,41.666668,,,,,,,,48.0,0.0,0.707526,0.102051,0.672852,0.19043,0.922866,-0.40528000000000003,-0.073732,-0.02603,-0.034957,-0.008105,,,,,,,,,,,,,,,,,,,,,,,,,,,,,,,,,,,,,,,,,,,,,,,,,,,,,,,,,,,,,,,,,
29362,1645901131.082381,1645901131.111804,97.0,0.0,4342.563965,4459.487305,4250.256348,4159.487305,4281.025879,450.0,1.0,15.0,,,,0.0,4.0,0.0,1.0,4.0,4.0,41.666668,,,,,,,,,,,,,,,,,,,,,,,,,,,,,,,,,,,,,,,,,,,,,,,,,,,,,,,,,,,,,,,,,,,,,,,,,,,,,,,,,,,,
29363,1645901131.090195,1645901131.119719,98.0,0.0,4361.538574,4379.487305,4267.179688,4154.871582,4294.358886999999,450.0,1.0,15.0,,,,0.0,4.0,0.0,1.0,4.0,4.0,41.666668,,,,,,,,49.0,0.0,0.707592,0.102051,0.672852,0.190186,0.917006,-0.399908,-0.08105599999999999,-0.026552,-0.034928,-0.009443,,,,,,,,,,,,,,,,,,,,,,,,,,,,,,,,,,,0.0,0.0,1.0,0.0,512.0,0.501657,,,,,,,,,,,,,,,,,,,,,,,,,
29364,1645901131.098008,1645901131.127533,99.0,0.0,4331.794922,4437.436035,4294.358886999999,4171.794922,4285.641113000001,16096.0,1.0,15.0,,,,0.0,4.0,0.0,1.0,4.0,4.0,41.666668,,,,,,,,,,,,,,,,,,,,,,,,,,,,,,,,,,,,,,,,,,,,,,,,,,,,,,,,,,,,,,,,,,,,,,,,,,,,,,,,,,,,
29365,1645901131.105822,1645901131.135348,100.0,0.0,4315.897461,4458.974121,4258.974121,4197.94873,4254.871582,450.0,1.0,15.0,,,,0.0,4.0,0.0,1.0,4.0,4.0,41.666668,,,,,,,,50.0,0.0,0.707592,0.102051,0.672852,0.190186,0.914076,-0.410163,-0.072755,-0.026973,-0.035049000000000004,-0.010695999999999999,,,,,,,,,,,,,,,,,,,,,,,,,,,,,,,,,,,,,,,,,,,,,,,,,,,,,,,,,,,,,,,,,
29366,1645901131.113636,1645901131.1431632,101.0,0.0,4351.282227000001,4378.461426,4180.512695,4191.794922,4291.282227000001,450.0,1.0,15.0,,,,0.0,4.0,0.0,1.0,4.0,4.0,41.666668,,,,,,,,,,,,,,,,,,,,,,,,,,,,,,,,,,,,,,,,,,,,,,,,,,,,,,,,,,,,,,,,,,,,,,,,,,,,,,,,,,,,
29367,1645901131.121449,1645901131.150977,102.0,0.0,4332.307617,4414.871582,4208.717772999999,4158.461426,4326.153809,450.0,1.0,15.0,,,,0.0,4.0,0.0,1.0,4.0,4.0,41.666668,,,,,,,,51.0,0.0,0.707526,0.102051,0.672852,0.19043,0.9243309999999999,-0.393561,-0.072755,-0.027351999999999998,-0.035059,-0.011873,1.0,0.0,0.0,,,,,,,,,,,,,,,,,,,,,,,,,,,,,,,,0.0,0.0,1.0,0.0,512.0,0.566815,9.305779,8.717978,3.002151,1.2679799999999999,2.1192,38.676178,49.509369,26.138794,11.220863,18.799219,36.281653999999996,31.585179999999998,14.578897,3.865047,8.644072999999999,5.417502,8.490058,3.822003,5.699344,3.436801,3.260681,2.745937,1.7485080000000002,5.527762999999999,2.0287919999999997
29368,1645901131.1292632,1645901131.158792,103.0,0.0,4296.410156,4518.461426,4238.461426,4155.384765999999,4310.256348,16096.0,1.0,15.0,,,,0.0,4.0,0.0,1.0,4.0,4.0,41.666668,,,,,,,,,,,,,,,,,,,,,,,,,,,,,,,,,,,,,,,,,,,,,,,,,,,,,,,,,,,,,,,,,,,,,,,,,,,,,,,,,,,,
29369,1645901131.137076,1645901131.166606,104.0,0.0,4302.05127,4588.717772999999,4195.384765999999,4149.230957,4293.846191,450.0,1.0,15.0,,,,0.0,4.0,0.0,1.0,4.0,4.0,41.666668,,,,,,,,52.0,0.0,0.707526,0.102051,0.672852,0.19043,0.925307,-0.39942,-0.067872,-0.027839999999999997,-0.035167000000000004,-0.012931,,,,,,,,,,,,,,,,,,,,,,,,,,,,,,,,,,,,,,,,,,,,,,,,,,,,,,,,,,,,,,,,,
29370,1645901131.14489,1645901131.174421,105.0,0.0,4329.230957,4626.666504,4204.615234000001,4123.589844,4286.666504,450.0,1.0,15.0,,,,0.0,4.0,0.0,1.0,4.0,4.0,41.666668,,,,,,,,,,,,,,,,,,,,,,,,,,,,,,,,,,,,,,,,,,,,,,,,,,,,,,,,,,,,,,,,,,,,,,,,,,,,,,,,,,,,
29371,1645901131.152704,1645901131.182236,106.0,0.0,4350.256348,4544.102539,4227.179688,4107.692383,4261.025879,450.0,1.0,15.0,,,,0.0,4.0,0.0,1.0,4.0,4.0,41.666668,,,,,,,,53.0,0.0,0.707526,0.102051,0.672852,0.19043,0.928725,-0.40576799999999996,-0.072267,-0.025105000000000002,-0.035117,-0.013787,,,,,,,,,,,,,,,,,,,,,,,,,,,,,,,,,,,0.0,0.0,1.0,0.0,512.0,0.566815,,,,,,,,,,,,,,,,,,,,,,,,,
29372,1645901131.160517,1645901131.19005,107.0,0.0,4346.153809,4451.282227000001,4217.94873,4131.282227000001,4265.641113000001,16096.0,1.0,15.0,,,,0.0,4.0,0.0,1.0,4.0,4.0,41.666668,,,,,,,,,,,,,,,,,,,,,,,,,,,,,,,,,,,,,,,,,,,,,,,,,,,,,,,,,,,,,,,,,,,,,,,,,,,,,,,,,,,,
29373,1645901131.1683311,1645901131.1979651,108.0,0.0,4308.717772999999,4478.461426,4225.128418,4175.897461,4290.256348,450.0,1.0,15.0,,,,0.0,4.0,0.0,1.0,4.0,4.0,41.666668,,,,,,,,54.0,0.0,0.707495,0.10180700000000001,0.672852,0.190674,0.93019,-0.404303,-0.072755,-0.025768,-0.035121,-0.011431,,,,,,,,,,,,,,,,,,,,,,,,,,,,,,,,,,,,,,,,,,,,,,,,,,,,,,,,,,,,,,,,,
29374,1645901131.176144,1645901131.20578,109.0,0.0,4311.794922,4471.282227000001,4237.436035,4188.717772999999,4279.487305,450.0,1.0,15.0,,,,0.0,4.0,0.0,1.0,4.0,4.0,41.666668,,,,,,,,,,,,,,,,,,,,,,,,,,,,,,,,,,,,,,,,,,,,,,,,,,,,,,,,,,,,,,,,,,,,,,,,,,,,,,,,,,,,
29375,1645901131.183958,1645901131.213594,110.0,0.0,4350.769043,4424.615234000001,4205.641113000001,4151.282227000001,4267.692383,450.0,1.0,15.0,,,,0.0,4.0,0.0,1.0,4.0,4.0,41.666668,,,,,,,,55.0,0.0,0.707495,0.10180700000000001,0.672852,0.190674,0.937514,-0.42090500000000003,-0.07470800000000001,-0.026364999999999996,-0.035173,-0.012583,,,,,,,,,,,,,,,,,,,,,,,,,,,,,,,,,,,0.0,0.0,1.0,0.0,512.0,0.566815,,,,,,,,,,,,,,,,,,,,,,,,,
29376,1645901131.191772,1645901131.221409,111.0,0.0,4342.563965,4500.512695,4275.384765999999,4134.871582,4264.615234000001,16096.0,1.0,15.0,,,,0.0,4.0,0.0,1.0,4.0,4.0,41.666668,,,,,,,,,,,,,,,,,,,,,,,,,,,,,,,,,,,,,,,,,,,,,,,,,,,,,,,,,,,,,,,,,,,,,,,,,,,,,,,,,,,,
