,Timestamp,EEG.Counter,EEG.Interpolated,EEG.AF3,EEG.T7,EEG.Pz,EEG.T8,EEG.AF4,EEG.RawCq,EEG.Battery,EEG.BatteryPercent,MarkerIndex,MarkerType,MarkerValueInt,EEG.MarkerHardware,CQ.AF3,CQ.T7,CQ.Pz,CQ.T8,CQ.AF4,CQ.Overall,EQ.SampleRateQuality,EQ.OVERALL,EQ.AF3,EQ.T7,EQ.Pz,EQ.T8,EQ.AF4,MOT.CounterMems,MOT.InterpolatedMems,MOT.Q0,MOT.Q1,MOT.Q2,MOT.Q3,MOT.AccX,MOT.AccY,MOT.AccZ,MOT.MagX,MOT.MagY,MOT.MagZ,MC.Action,MC.ActionPower,MC.IsActive,PM.Engagement.IsActive,PM.Engagement.Scaled,PM.Engagement.Raw,PM.Engagement.Min,PM.Engagement.Max,PM.Excitement.IsActive,PM.Excitement.Scaled,PM.Excitement.Raw,PM.Excitement.Min,PM.Excitement.Max,PM.LongTermExcitement,PM.Stress.IsActive,PM.Stress.Scaled,PM.Stress.Raw,PM.Stress.Min,PM.Stress.Max,PM.Relaxation.IsActive,PM.Relaxation.Scaled,PM.Relaxation.Raw,PM.Relaxation.Min,PM.Relaxation.Max,PM.Interest.IsActive,PM.Interest.Scaled,PM.Interest.Raw,PM.Interest.Min,PM.Interest.Max,PM.Focus.IsActive,PM.Focus.Scaled,PM.Focus.Raw,PM.Focus.Min,PM.Focus.Max,FE.BlinkWink,FE.HorizontalEyesDirection,FE.UpperFaceAction,FE.UpperFaceActionPower,FE.LowerFaceAction,FE.LowerFaceActionPower,POW.AF3.Theta,POW.AF3.Alpha,POW.AF3.BetaL,POW.AF3.BetaH,POW.AF3.Gamma,POW.T7.Theta,POW.T7.Alpha,POW.T7.BetaL,POW.T7.BetaH,POW.T7.Gamma,POW.Pz.Theta,POW.Pz.Alpha,POW.Pz.BetaL,POW.Pz.BetaH,POW.Pz.Gamma,POW.T8.Theta,POW.T8.Alpha,POW.T8.BetaL,POW.T8.BetaH,POW.T8.Gamma,POW.AF4.Theta,POW.AF4.Alpha,POW.AF4.BetaL,POW.AF4.BetaH,POW.AF4.Gamma
26470,1645650804.5405269,82.0,0.0,4299.487305,4560.0,4235.897461,4270.769043,4286.666504,450.0,3.0,59.0,,,,0.0,4.0,0.0,4.0,0.0,4.0,33.333332,,,,,,,,41.0,0.0,0.368214,0.5683590000000001,0.14941400000000002,-0.720459,0.928725,-0.199222,-0.31104,-0.015774,-0.05041,-0.03474,,,,,,,,,,,,,,,,,,,,,,,,,,,,,,,,,,,,,,,,,,,,,,,,,,,,,,,,,,,,,,,,,
26471,1645650804.548342,83.0,0.0,4272.820313,4565.641113000001,4258.461426,4273.846191,4271.794922,16116.0,3.0,59.0,,,,0.0,4.0,0.0,4.0,0.0,4.0,33.333332,,,,,,,,,,,,,,,,,,,,,,,,,,,,,,,,,,,,,,,,,,,,,,,,,,,,,,0.0,0.0,1.0,0.0,128.0,0.411742,,,,,,,,,,,,,,,,,,,,,,,,,
26472,1645650804.5561562,84.0,0.0,4304.615234000001,4424.102539,4238.974121,4270.769043,4267.692383,450.0,3.0,59.0,,,,0.0,4.0,0.0,4.0,0.0,4.0,33.333332,,,,,,,,42.0,0.0,0.368591,0.5681149999999999,0.14941400000000002,-0.720459,0.9365379999999999,-0.21435900000000002,-0.314946,-0.01654,-0.050447000000000006,-0.036979000000000005,,,,,,,,,,,,,,,,,,,,,,,,,,,,,,,,,,,,,,,,,,,,,,,,,,,,,,,,,,,,,,,,,
26473,1645650804.563971,85.0,0.0,4320.512695,4396.410156,4238.461426,4270.256348,4276.410156,450.0,3.0,59.0,,,,0.0,4.0,0.0,4.0,0.0,4.0,33.333332,,,,,,,,,,,,,,,,,,,,,,,,,,,,,,,,,,,,,,,,,,,,,,,,,,,,,,,,,,,,,,,,,,,,,,,,,,,,,,,,,,,,
26474,1645650804.571785,86.0,0.0,4310.256348,4480.0,4230.256348,4272.307617,4291.794922,450.0,3.0,59.0,,,,0.0,4.0,0.0,4.0,0.0,4.0,33.333332,,,,,,,,43.0,0.0,0.368492,0.5681149999999999,0.14965799999999999,-0.720459,0.936049,-0.187503,-0.311528,-0.017083,-0.05053,-0.032744,,,,,,,,,,,,,,,,,,,,,,,,,,,,,,,,,,,,,,,,,,,,,,,,,,,,,,,,,,,,,,,,,
26475,1645650804.5796,87.0,0.0,4291.794922,4553.846191,4213.846191,4271.282227000001,4295.897461,16116.0,3.0,59.0,,,,0.0,4.0,0.0,4.0,0.0,4.0,33.333332,,,,,,,,,,,,,,,,,,,,,,,,,,,,,,,,,,,,,,,,,,,,,,,,,,,,,,0.0,0.0,1.0,0.0,128.0,0.411742,,,,,,,,,,,,,,,,,,,,,,,,,
26476,1645650804.587515,88.0,0.0,4297.436035,4510.769043,4168.717772999999,4271.794922,4296.922852000001,450.0,3.0,59.0,,,,0.0,4.0,0.0,4.0,0.0,4.0,33.333332,,,,,,,,44.0,0.0,0.368115,0.5683590000000001,0.14965799999999999,-0.720459,0.9433739999999999,-0.203128,-0.31543499999999997,-0.016059,-0.050506,-0.035134,,,,,,,,,,,,,,,,,,,,,,,,,,,,,,,,,,,,,,,,,,,,,,,,,,,,,,,,,,,,,,,,,
26477,1645650804.5953288,89.0,0.0,4285.641113000001,4396.410156,4225.128418,4270.769043,4241.025879,450.0,3.0,59.0,,,,0.0,4.0,0.0,4.0,0.0,4.0,33.333332,,,,,,,,,,,,,,,,,,,,,,,,,,,,,,,,,,,,,,,,,,,,,,,,,,,,,,,,,,,,,,,,,,,,,,,,,,,,,,,,,,,,
26478,1645650804.603144,90.0,0.0,4362.05127,4495.384765999999,4288.717772999999,4270.769043,4313.333496,450.0,3.0,59.0,,,,0.0,4.0,0.0,4.0,0.0,4.0,33.333332,,,,,,,,45.0,0.0,0.368115,0.5683590000000001,0.14965799999999999,-0.720459,0.937026,-0.20068699999999998,-0.31299299999999997,-0.01665,-0.050436,-0.037138,,,,,,,,,,,,,,,,,,,,,,,,,,,,,,,,,,,,,,,,,,,,,,,,,,,,,,,,,,,,,,,,,
26479,1645650804.610959,91.0,0.0,4326.153809,4703.589844,4089.743652,4268.205078,4303.589844,16116.0,3.0,59.0,,,,0.0,4.0,0.0,4.0,0.0,4.0,33.333332,,,,,,,,,,,,,,,,,,,,,,,,,,,,,,,,,,,,,,,,,,,,,,,,,,,,,,0.0,0.0,1.0,0.0,128.0,0.411742,,,,,,,,,,,,,,,,,,,,,,,,,
26480,1645650804.618773,92.0,0.0,4226.666504,4645.641113000001,4186.666504,4268.717772999999,4217.94873,450.0,3.0,59.0,,,,0.0,4.0,0.0,4.0,0.0,4.0,33.333332,,,,,,,,46.0,0.0,0.368593,0.5683590000000001,0.14965799999999999,-0.7202149999999999,0.946792,-0.21338200000000002,-0.31104,-0.015571000000000002,-0.050422,-0.03904,,,,,,,,,,,,,,,,,,,,,,,,,,,,,,,,,,,,,,,,,,,,,,,,,,,,,,,,,,,,,,,,,
26481,1645650804.626588,93.0,0.0,4293.333496,4528.717772999999,4386.153809,4274.358886999999,4292.307617,450.0,3.0,59.0,,,,0.0,4.0,0.0,4.0,0.0,4.0,33.333332,,,,,,,,,,,,,,,,,,,,,,,,,,,,,,,,,,,,,,,,,,,,,,,,,,,,,,,,,,,,,,,,,,,,,,,,,,,,,,,,,,,,
26482,1645650804.634403,94.0,0.0,4361.025879,4588.205078,4273.846191,4278.461426,4355.897461,450.0,3.0,59.0,,,,0.0,4.0,0.0,4.0,0.0,4.0,33.333332,,,,,,,,47.0,0.0,0.368593,0.5683590000000001,0.14965799999999999,-0.7202149999999999,0.938491,-0.215335,-0.32813000000000003,-0.016358,-0.05036,-0.034451999999999997,,,,,,,,,,,,,,,,,,,,,,,,,,,,,,,,,,,,,,,,,,,,,,,,,,,,,,,,,,,,,,,,,
26483,1645650804.642217,95.0,0.0,4334.358886999999,4601.025879,4125.128418,4278.461426,4297.436035,16116.0,3.0,59.0,,,,0.0,4.0,0.0,4.0,0.0,4.0,33.333332,1.0,8.333333,3.0,0.0,1.0,0.0,3.0,,,,,,,,,,,,,1.0,0.0,0.0,,,,,,,,,,,,,,,,,,,,,,,,,,,,,,,,0.0,0.0,1.0,0.0,128.0,0.336032,4.944193,4.040189,0.9228139999999999,0.670415,1.257934,33.501007,18.322636,31.972309000000003,16.731897,14.967978,3.221422,2.7489939999999997,1.485306,1.1475629999999999,1.329907,0.010659,0.007311,0.007948,0.005664,0.009072,2.5527919999999997,0.9283100000000001,1.396819,0.9923270000000001,1.087768
26484,1645650804.650032,96.0,0.0,4298.974121,4523.077147999999,4247.692383,4278.461426,4257.94873,450.0,3.0,59.0,,,,0.0,4.0,0.0,4.0,0.0,4.0,33.333332,,,,,,,,48.0,0.0,0.368593,0.5683590000000001,0.14965799999999999,-0.7202149999999999,0.941421,-0.20996399999999998,-0.29736799999999997,-0.016919,-0.050352999999999995,-0.036670999999999995,,,,,,,,,,,,,,,,,,,,,,,,,,,,,,,,,,,,,,,,,,,,,,,,,,,,,,,,,,,,,,,,,
26485,1645650804.657946,97.0,0.0,4338.461426,4521.538574,4263.077147999999,4280.0,4321.538574,450.0,3.0,59.0,,,,0.0,4.0,0.0,4.0,0.0,4.0,33.333332,,,,,,,,,,,,,,,,,,,,,,,,,,,,,,,,,,,,,,,,,,,,,,,,,,,,,,,,,,,,,,,,,,,,,,,,,,,,,,,,,,,,
26486,1645650804.665761,98.0,0.0,4290.769043,4572.307617,4178.461426,4278.461426,4273.333496,450.0,3.0,59.0,,,,0.0,4.0,0.0,4.0,0.0,4.0,33.333332,,,,,,,,49.0,0.0,0.368593,0.5683590000000001,0.14965799999999999,-0.7202149999999999,0.9433739999999999,-0.210452,-0.314946,-0.015911,-0.050445,-0.038668,,,,,,,,,,,,,,,,,,,,,,,,,,,,,,,,,,,,,,,,,,,,,,,,,,,,,,,,,,,,,,,,,
26487,1645650804.6735759,99.0,0.0,4313.846191,4629.230957,4242.05127,4279.487305,4286.153809,16116.0,3.0,59.0,,,,0.0,4.0,0.0,4.0,0.0,4.0,33.333332,,,,,,,,,,,,,,,,,,,,,,,,,,,,,,,,,,,,,,,,,,,,,,,,,,,,,,0.0,0.0,1.0,0.0,128.0,0.336032,,,,,,,,,,,,,,,,,,,,,,,,,
26488,1645650804.68139,100.0,0.0,4327.692383,4700.0,4218.461426,4279.487305,4285.641113000001,450.0,3.0,59.0,,,,0.0,4.0,0.0,4.0,0.0,4.0,33.333332,,,,,,,,50.0,0.0,0.369069,0.5683590000000001,0.14965799999999999,-0.719971,0.937026,-0.207523,-0.313481,-0.016566,-0.05043,-0.034263999999999996,,,,,,,,,,,,,,,,,,,,,,,,,,,,,,,,,,,,,,,,,,,,,,,,,,,,,,,,,,,,,,,,,
26489,1645650804.6892052,101.0,0.0,4315.384765999999,4643.589844,4217.436035,4278.461426,4277.436035,450.0,3.0,59.0,,,,0.0,4.0,0.0,4.0,0.0,4.0,33.333332,,,,,,,,,,,,,,,,,,,,,,,,,,,,,,,,,,,,,,,,,,,,,,,,,,,,,,,,,,,,,,,,,,,,,,,,,,,,,,,,,,,,
26490,1645650804.6970198,102.0,0.0,4325.128418,4597.436035,4218.974121,4277.436035,4286.666504,450.0,3.0,59.0,,,,0.0,4.0,0.0,4.0,0.0,4.0,33.333332,,,,,,,,51.0,0.0,0.368593,0.5683590000000001,0.14965799999999999,-0.7202149999999999,0.938003,-0.21386999999999998,-0.316899,-0.017302,-0.050368,-0.0366,,,,,,,,,,,,,,,,,,,,,,,,,,,,,,,,,,,,,,,,,,,,,,,,,,,,,,,,,,,,,,,,,
26491,1645650804.704834,103.0,0.0,4328.205078,4660.0,4204.615234000001,4277.94873,4278.461426,16116.0,3.0,59.0,,,,0.0,4.0,0.0,4.0,0.0,4.0,33.333332,,,,,,,,,,,,,,,,,,,,,,,,,,,,,,,,,,,,,,,,,,,,,,,,,,,,,,0.0,0.0,1.0,0.0,128.0,0.336032,,,,,,,,,,,,,,,,,,,,,,,,,
26492,1645650804.712649,104.0,0.0,4322.563965,4698.974121,4199.487305,4278.974121,4281.025879,450.0,3.0,59.0,,,,0.0,4.0,0.0,4.0,0.0,4.0,33.333332,,,,,,,,52.0,0.0,0.369069,0.5683590000000001,0.14965799999999999,-0.719971,0.933608,-0.223636,-0.304204,-0.017866999999999997,-0.05036,-0.032305,,,,,,,,,,,,,,,,,,,,,,,,,,,,,,,,,,,,,,,,,,,,,,,,,,,,,,,,,,,,,,,,,
26493,1645650804.720464,105.0,0.0,4310.769043,4700.512695,4188.717772999999,4280.0,4289.743652,450.0,3.0,59.0,,,,0.0,4.0,0.0,4.0,0.0,4.0,33.333332,,,,,,,,,,,,,,,,,,,,,,,,,,,,,,,,,,,,,,,,,,,,,,,,,,,,,,,,,,,,,,,,,,,,,,,,,,,,,,,,,,,,
26494,1645650804.728278,106.0,0.0,4295.897461,4666.153809,4194.358886999999,4280.0,4269.230957,450.0,3.0,59.0,,,,0.0,4.0,0.0,4.0,0.0,4.0,33.333332,,,,,,,,53.0,0.0,0.368593,0.5683590000000001,0.14965799999999999,-0.7202149999999999,0.934585,-0.20508099999999999,-0.303716,-0.016715,-0.050549000000000004,-0.03469,,,,,,,,,,,,,,,,,,,,,,,,,,,,,,,,,,,,,,,,,,,,,,,,,,,,,,,,,,,,,,,,,
26495,1645650804.736193,107.0,0.0,4302.05127,4577.436035,4199.487305,4279.487305,4259.487305,16116.0,3.0,59.0,,,,0.0,4.0,0.0,4.0,0.0,4.0,33.333332,,,,,,,,,,,,,,,,,,,,,,,,,,,,,,,,,,,,,,,,,,,,,,,,,,,,,,0.0,0.0,1.0,0.0,128.0,0.336032,,,,,,,,,,,,,,,,,,,,,,,,,
26496,1645650804.744007,108.0,0.0,4305.128418,4555.897461,4185.641113000001,4278.974121,4265.641113000001,450.0,3.0,59.0,,,,0.0,4.0,0.0,4.0,0.0,4.0,33.333332,,,,,,,,54.0,0.0,0.368593,0.5683590000000001,0.14965799999999999,-0.7202149999999999,0.9399559999999999,-0.20947600000000002,-0.320317,-0.015776,-0.050523,-0.036836,,,,,,,,,,,,,,,,,,,,,,,,,,,,,,,,,,,,,,,,,,,,,,,,,,,,,,,,,,,,,,,,,
26497,1645650804.751822,109.0,0.0,4308.205078,4653.333496,4194.871582,4278.974121,4273.333496,450.0,3.0,59.0,,,,0.0,4.0,0.0,4.0,0.0,4.0,33.333332,,,,,,,,,,,,,,,,,,,,,,,,,,,,,,,,,,,,,,,,,,,,,,,,,,,,,,,,,,,,,,,,,,,,,,,,,,,,,,,,,,,,
26498,1645650804.7596369,110.0,0.0,4304.102539,4658.974121,4203.077147999999,4280.0,4277.436035,450.0,3.0,59.0,,,,0.0,4.0,0.0,4.0,0.0,4.0,33.333332,,,,,,,,55.0,0.0,0.368593,0.5683590000000001,0.14965799999999999,-0.7202149999999999,0.9472799999999999,-0.20264000000000001,-0.313481,-0.016493,-0.050598000000000004,-0.038768000000000004,,,,,,,,,,,,,,,,,,,,,,,,,,,,,,,,,,,,,,,,,,,,,,,,,,,,,,,,,,,,,,,,,
26499,1645650804.767451,111.0,0.0,4300.512695,4575.384765999999,4201.538574,4279.487305,4277.436035,16116.0,3.0,59.0,,,,0.0,4.0,0.0,4.0,0.0,4.0,33.333332,,,,,,,,,,,,,,,,,,,,1.0,0.0,0.0,,,,,,,,,,,,,,,,,,,,,,,,,,,,,,,,0.0,0.0,1.0,0.0,128.0,0.37748200000000004,4.135942,4.192616,0.8941680000000001,0.6841649999999999,1.27597,29.0273,18.975639,33.327106,16.539125,14.142157000000001,3.29777,2.885169,1.491356,1.310682,1.729915,0.011821,0.009046,0.008283,0.006803,0.008989,2.2022909999999998,1.099461,1.4088559999999999,1.135359,1.172193
26500,1645650804.775266,112.0,0.0,4306.666504,4573.846191,4204.102539,4278.461426,4272.820313,450.0,3.0,59.0,,,,0.0,4.0,0.0,4.0,0.0,4.0,33.333332,,,,,,,,56.0,0.0,0.368593,0.5683590000000001,0.14965799999999999,-0.7202149999999999,0.9428850000000001,-0.20508099999999999,-0.314458,-0.015479,-0.050763,-0.040506,,,,,,,,,,,,,,,,,,,,,,,,,,,,,,,,,,,,,,,,,,,,,,,,,,,,,,,,,,,,,,,,,
26501,1645650804.783081,113.0,0.0,4318.461426,4588.717772999999,4219.487305,4278.974121,4286.666504,450.0,3.0,59.0,,,,0.0,4.0,0.0,4.0,0.0,4.0,33.333332,,,,,,,,,,,,,,,,,,,,,,,,,,,,,,,,,,,,,,,,,,,,,,,,,,,,,,,,,,,,,,,,,,,,,,,,,,,,,,,,,,,,
26502,1645650804.790895,114.0,0.0,4311.282227000001,4548.205078,4202.563965,4279.487305,4281.025879,450.0,3.0,59.0,,,,0.0,4.0,0.0,4.0,0.0,4.0,33.333332,,,,,,,,57.0,0.0,0.368969,0.5681149999999999,0.14965799999999999,-0.7202149999999999,0.937514,-0.203128,-0.31250500000000003,-0.014613999999999999,-0.050814,-0.042169,,,,,,,,,,,,,,,,,,,,,,,,,,,,,,,,,,,,,,,,,,,,,,,,,,,,,,,,,,,,,,,,,
26503,1645650804.7987099,115.0,0.0,4291.282227000001,4490.256348,4199.487305,4278.974121,4261.025879,16116.0,3.0,59.0,,,,0.0,4.0,0.0,4.0,0.0,4.0,33.333332,,,,,,,,,,,,,,,,,,,,,,,,,,,,,,,,,,,,,,,,,,,,,,,,,,,,,,0.0,0.0,1.0,0.0,128.0,0.37748200000000004,,,,,,,,,,,,,,,,,,,,,,,,,
26504,1645650804.806624,116.0,0.0,4311.794922,4524.102539,4216.410156,4278.974121,4273.333496,450.0,3.0,59.0,,,,0.0,4.0,0.0,4.0,0.0,4.0,33.333332,,,,,,,,58.0,0.0,0.368593,0.5683590000000001,0.14965799999999999,-0.7202149999999999,0.9433739999999999,-0.220218,-0.303716,-0.015447999999999998,-0.050858999999999994,-0.037366,,,,,,,,,,,,,,,,,,,,,,,,,,,,,,,,,,,,,,,,,,,,,,,,,,,,,,,,,,,,,,,,,
26505,1645650804.814439,117.0,0.0,4351.282227000001,4635.384765999999,4230.256348,4280.0,4301.025879,450.0,3.0,59.0,,,,0.0,4.0,0.0,4.0,0.0,4.0,33.333332,,,,,,,,,,,,,,,,,,,,,,,,,,,,,,,,,,,,,,,,,,,,,,,,,,,,,,,,,,,,,,,,,,,,,,,,,,,,,,,,,,,,
26506,1645650804.822254,118.0,0.0,4337.94873,4642.05127,4204.102539,4280.0,4289.230957,450.0,3.0,59.0,,,,0.0,4.0,0.0,4.0,0.0,4.0,33.333332,,,,,,,,59.0,0.0,0.368969,0.5681149999999999,0.14965799999999999,-0.7202149999999999,0.936049,-0.21435900000000002,-0.31299299999999997,-0.016247,-0.0509,-0.039245,,,,,,,,,,,,,,,,,,,,,,,,,,,,,,,,,,,,,,,,,,,,,,,,,,,,,,,,,,,,,,,,,
26507,1645650804.8300679,119.0,0.0,4312.820313,4585.641113000001,4204.615234000001,4280.0,4261.025879,16116.0,3.0,59.0,,,,0.0,4.0,0.0,4.0,0.0,4.0,33.333332,,,,,,,,,,,,,,,,,,,,,,,,,,,,,,,,,,,,,,,,,,,,,,,,,,,,,,0.0,0.0,1.0,0.0,128.0,0.37748200000000004,,,,,,,,,,,,,,,,,,,,,,,,,
26508,1645650804.837883,120.0,0.0,4324.615234000001,4589.743652,4221.025879,4278.974121,4273.846191,450.0,3.0,59.0,,,,0.0,4.0,0.0,4.0,0.0,4.0,33.333332,,,,,,,,60.0,0.0,0.368969,0.5681149999999999,0.14965799999999999,-0.7202149999999999,0.9472799999999999,-0.21386999999999998,-0.30225100000000005,-0.016819999999999998,-0.050986000000000004,-0.034783,,,,,,,,,,,,,,,,,,,,,,,,,,,,,,,,,,,,,,,,,,,,,,,,,,,,,,,,,,,,,,,,,
26509,1645650804.845798,121.0,0.0,4319.487305,4618.461426,4201.538574,4278.461426,4284.615234000001,450.0,3.0,59.0,,,,0.0,4.0,0.0,4.0,0.0,4.0,33.333332,,,,,,,,,,,,,,,,,,,,,,,,,,,,,,,,,,,,,,,,,,,,,,,,,,,,,,,,,,,,,,,,,,,,,,,,,,,,,,,,,,,,
26510,1645650804.853612,122.0,0.0,4304.615234000001,4652.307617,4167.692383,4279.487305,4277.436035,450.0,3.0,59.0,,,,0.0,4.0,0.0,4.0,0.0,4.0,33.333332,,,,,,,,61.0,0.0,0.368593,0.5683590000000001,0.14965799999999999,-0.7202149999999999,0.9433739999999999,-0.220218,-0.303716,-0.017433,-0.051015,-0.030719,,,,,,,,,,,,,,,,,,,,,,,,,,,,,,,,,,,,,,,,,,,,,,,,,,,,,,,,,,,,,,,,,
26511,1645650804.861427,123.0,0.0,4311.282227000001,4717.436035,4191.282227000001,4280.512695,4274.358886999999,16116.0,3.0,59.0,,,,0.0,4.0,0.0,4.0,0.0,4.0,33.333332,,,,,,,,,,,,,,,,,,,,,,,,,,,,,,,,,,,,,,,,,,,,,,,,,,,,,,0.0,0.0,1.0,0.0,128.0,0.37748200000000004,,,,,,,,,,,,,,,,,,,,,,,,,
26512,1645650804.869242,124.0,0.0,4320.0,4689.230957,4218.461426,4280.0,4277.436035,450.0,3.0,59.0,,,,0.0,4.0,0.0,4.0,0.0,4.0,33.333332,,,,,,,,62.0,0.0,0.368969,0.5681149999999999,0.14965799999999999,-0.7202149999999999,0.9472799999999999,-0.21386999999999998,-0.30225100000000005,-0.017887,-0.051088999999999996,-0.027110000000000002,,,,,,,,,,,,,,,,,,,,,,,,,,,,,,,,,,,,,,,,,,,,,,,,,,,,,,,,,,,,,,,,,
26513,1645650804.8770561,125.0,0.0,4297.94873,4587.179688,4190.769043,4278.974121,4256.922852000001,450.0,3.0,59.0,,,,0.0,4.0,0.0,4.0,0.0,4.0,33.333332,,,,,,,,,,,,,,,,,,,,,,,,,,,,,,,,,,,,,,,,,,,,,,,,,,,,,,,,,,,,,,,,,,,,,,,,,,,,,,,,,,,,
26514,1645650804.884871,126.0,0.0,4299.487305,4589.230957,4186.666504,4279.487305,4252.307617,450.0,3.0,59.0,,,,0.0,4.0,0.0,4.0,0.0,4.0,33.333332,,,,,,,,63.0,0.0,0.36887,0.5681149999999999,0.149902,-0.7202149999999999,0.945815,-0.206546,-0.323247,-0.018344,-0.05101,-0.029965,,,,,,,,,,,,,,,,,,,,,,,,,,,,,,,,,,,,,,,,,,,,,,,,,,,,,,,,,,,,,,,,,
26515,1645650804.892685,127.0,0.0,4314.871582,4620.0,4214.358886999999,4278.974121,4268.205078,235.0,3.0,59.0,,,,0.0,4.0,0.0,4.0,0.0,4.0,33.333332,,,,,,,,,,,,,,,,,,,,1.0,0.0,0.0,,,,,,,,,,,,,,,,,,,,,,,,,,,,,,,,0.0,0.0,1.0,0.0,128.0,0.400909,3.396751,4.100967,0.855985,0.795157,1.492323,24.93919,19.734282,35.291496,16.570366,13.892157999999998,3.436984,3.3619730000000003,1.5973190000000002,1.7568270000000001,2.7987319999999998,0.015441999999999999,0.012392,0.008765,0.008461,0.009334,1.9107439999999998,1.395167,1.434593,1.314475,1.41822
26516,1645650804.9005,0.0,0.0,4322.05127,4621.538574,4227.692383,4277.94873,4281.025879,450.0,3.0,59.0,,,,0.0,4.0,0.0,4.0,0.0,4.0,33.333332,,,,,,,,0.0,0.0,0.368769,0.567871,0.149902,-0.720459,0.9438620000000001,-0.20996399999999998,-0.318853,-0.018706999999999998,-0.050987,-0.02648,,,,,,,,,,,,,,,,,,,,,,,,,,,,,,,,,,,,,,,,,,,,,,,,,,,,,,,,,,,,,,,,,
26517,1645650804.908315,1.0,0.0,4316.922852000001,4634.358886999999,4214.358886999999,4278.461426,4277.94873,450.0,3.0,59.0,,,,0.0,4.0,0.0,4.0,0.0,4.0,33.333332,,,,,,,,,,,,,,,,,,,,,,,,,,,,,,,,,,,,,,,,,,,,,,,,,,,,,,,,,,,,,,,,,,,,,,,,,,,,,,,,,,,,
26518,1645650804.916229,2.0,0.0,4312.820313,4610.769043,4228.205078,4278.461426,4276.410156,16125.0,3.0,59.0,,,,0.0,4.0,0.0,4.0,0.0,4.0,33.333332,,,,,,,,1.0,0.0,0.36839299999999997,0.5681149999999999,0.149902,-0.720459,0.949233,-0.20361600000000002,-0.307134,-0.018985,-0.050966000000000004,-0.023344,,,,,,,,,,,,,,,,,,,,,,,,,,,,,,,,,,,,,,,,,,,,,,,,,,,,,,,,,,,,,,,,,
26519,1645650804.924044,3.0,0.0,4312.820313,4568.205078,4224.102539,4278.461426,4268.717772999999,450.0,3.0,59.0,,,,0.0,4.0,0.0,4.0,0.0,4.0,33.333332,,,,,,,,,,,,,,,,,,,,,,,,,,,,,,,,,,,,,,,,,,,,,,,,,,,,,,0.0,0.0,1.0,0.0,128.0,0.400909,,,,,,,,,,,,,,,,,,,,,,,,,
26520,1645650804.931859,4.0,0.0,4306.153809,4571.282227000001,4216.922852000001,4278.974121,4268.717772999999,0.0,3.0,59.0,,,,0.0,4.0,0.0,4.0,0.0,4.0,33.333332,,,,,,,,2.0,0.0,0.36839299999999997,0.5681149999999999,0.149902,-0.720459,0.9521629999999999,-0.212894,-0.31396999999999997,-0.017769999999999998,-0.050948,-0.026625,,,,,,,,,,,,,,,,,,,,,,,,,,,,,,,,,,,,,,,,,,,,,,,,,,,,,,,,,,,,,,,,,
26521,1645650804.939673,5.0,0.0,4296.922852000001,4595.384765999999,4210.769043,4278.974121,4270.256348,450.0,3.0,59.0,,,,0.0,4.0,0.0,4.0,0.0,4.0,33.333332,,,,,,,,,,,,,,,,,,,,,,,,,,,,,,,,,,,,,,,,,,,,,,,,,,,,,,,,,,,,,,,,,,,,,,,,,,,,,,,,,,,,
26522,1645650804.947488,6.0,1.0,4295.833496,4619.038574,4207.115234000001,4279.102539,4267.756348,16233.0,3.0,59.0,,,,0.0,4.0,0.0,4.0,0.0,4.0,33.333332,,,,,,,,3.0,1.0,0.36842800000000003,0.568066,0.15,-0.720459,0.949624,-0.21348000000000003,-0.315825,-0.017863999999999998,-0.050925,-0.025985,,,,,,,,,,,,,,,,,,,,,,,,,,,,,,,,,,,,,,,,,,,,,,,,,,,,,,,,,,,,,,,,,
26523,1645650804.955303,7.0,1.0,4294.743652,4642.692383,4203.461426,4279.230957,4265.256348,450.0,3.0,59.0,,,,0.0,4.0,0.0,4.0,0.0,4.0,33.333332,,,,,,,,,,,,,,,,,,,,,,,,,,,,,,,,,,,,,,,,,,,,,,,,,,,,,,0.0,0.0,1.0,0.0,128.0,0.400909,,,,,,,,,,,,,,,,,,,,,,,,,
26524,1645650804.963117,8.0,1.0,4293.653809,4666.346191,4199.807617,4279.358886999999,4262.756348,450.0,3.0,59.0,,,,0.0,4.0,0.0,4.0,0.0,4.0,33.333332,,,,,,,,4.0,1.0,0.368464,0.568018,0.150098,-0.720459,0.9470850000000001,-0.21406599999999998,-0.317681,-0.017957,-0.050901999999999996,-0.025345,,,,,,,,,,,,,,,,,,,,,,,,,,,,,,,,,,,,,,,,,,,,,,,,,,,,,,,,,,,,,,,,,
26525,1645650804.970932,9.0,1.0,4292.563965,4690.0,4196.153809,4279.487305,4260.256348,0.0,3.0,59.0,,,,0.0,4.0,0.0,4.0,0.0,4.0,33.333332,,,,,,,,,,,,,,,,,,,,,,,,,,,,,,,,,,,,,,,,,,,,,,,,,,,,,,,,,,,,,,,,,,,,,,,,,,,,,,,,,,,,
26526,1645650804.9787462,10.0,1.0,4291.474121,4713.653809,4192.5,4279.615234000001,4257.756348,450.0,3.0,59.0,,,,0.0,4.0,0.0,4.0,0.0,4.0,33.333332,,,,,,,,5.0,1.0,0.36849899999999997,0.567969,0.150195,-0.720459,0.9445459999999999,-0.214652,-0.319536,-0.018050999999999998,-0.050879,-0.024705,,,,,,,,,,,,,,,,,,,,,,,,,,,,,,,,,,,,,,,,,,,,,,,,,,,,,,,,,,,,,,,,,
26527,1645650804.9865608,11.0,1.0,4290.384765999999,4737.307617,4188.846191,4279.743652,4255.256348,16116.0,3.0,59.0,,,,0.0,4.0,0.0,4.0,0.0,4.0,33.333332,,,,,,,,,,,,,,,,,,,,,,,,,,,,,,,,,,,,,,,,,,,,,,,,,,,,,,0.0,0.0,1.0,0.0,128.0,0.400909,,,,,,,,,,,,,,,,,,,,,,,,,
26528,1645650804.994376,12.0,1.0,4289.294922,4760.961426,4185.192383,4279.871582,4252.756348,450.0,3.0,59.0,,,,0.0,4.0,0.0,4.0,0.0,4.0,33.333332,,,,,,,,6.0,1.0,0.368535,0.56792,0.150293,-0.720459,0.9420069999999999,-0.215238,-0.321392,-0.018144999999999998,-0.050856,-0.024065,,,,,,,,,,,,,,,,,,,,,,,,,,,,,,,,,,,,,,,,,,,,,,,,,,,,,,,,,,,,,,,,,
26529,1645650805.00219,13.0,0.0,4288.205078,4784.615234000001,4181.538574,4280.0,4250.256348,450.0,3.0,59.0,,,,0.0,4.0,0.0,4.0,0.0,4.0,33.333332,,,,,,,,,,,,,,,,,,,,,,,,,,,,,,,,,,,,,,,,,,,,,,,,,,,,,,,,,,,,,,,,,,,,,,,,,,,,,,,,,,,,
26530,1645650805.010005,14.0,0.0,4294.358886999999,4824.615234000001,4189.230957,4278.974121,4263.589844,450.0,3.0,59.0,,,,0.0,4.0,0.0,4.0,0.0,4.0,33.333332,,,,,,,,7.0,0.0,0.36857,0.567871,0.150391,-0.720459,0.939467,-0.215824,-0.323247,-0.018239,-0.050834,-0.023425,,,,,,,,,,,,,,,,,,,,,,,,,,,,,,,,,,,,,,,,,,,,,,,,,,,,,,,,,,,,,,,,,
26531,1645650805.01782,15.0,0.0,4300.512695,4809.743652,4215.897461,4278.974121,4273.846191,16143.0,3.0,59.0,,,,0.0,4.0,0.0,4.0,0.0,4.0,33.333332,,,,,,,,,,,,,,,,,,,,1.0,0.0,0.0,,,,,,,,,,,,,,,,,,,,,,,,,,,,,,,,0.0,0.0,1.0,0.0,128.0,0.654784,2.793582,3.811347,0.815225,1.054735,2.020424,23.055854999999998,20.05813,36.626701000000004,17.376154,14.740642999999999,3.839597,4.1827309999999995,1.879258,2.54165,5.00791,0.022381,0.018619,0.01012,0.010597,0.010319,1.779352,1.7752720000000002,1.526541,1.502421,1.923227
26532,1645650805.025634,16.0,0.0,4300.0,4674.871582,4223.077147999999,4278.974121,4275.384765999999,0.0,3.0,59.0,,,,0.0,4.0,0.0,4.0,0.0,4.0,33.333332,,,,,,,,8.0,0.0,0.368671,0.5681149999999999,0.150391,-0.7202149999999999,0.941421,-0.22607800000000003,-0.309575,-0.017099,-0.050926,-0.026844999999999997,,,,,,,,,,,,,,,,,,,,,,,,,,,,,,,,,,,,,,,,,,,,,,,,,,,,,,,,,,,,,,,,,
26533,1645650805.033449,17.0,0.0,4295.384765999999,4685.641113000001,4221.025879,4279.487305,4275.897461,0.0,3.0,59.0,,,,0.0,4.0,0.0,4.0,0.0,4.0,33.333332,,,,,,,,,,,,,,,,,,,,,,,,,,,,,,,,,,,,,,,,,,,,,,,,,,,,,,,,,,,,,,,,,,,,,,,,,,,,,,,,,,,,
26534,1645650805.041163,18.0,0.0,4278.974121,4799.487305,4205.641113000001,4279.487305,4256.922852000001,0.0,3.0,59.0,,,,0.0,4.0,0.0,4.0,0.0,4.0,33.333332,,,,,,,,9.0,0.0,0.36904699999999996,0.567871,0.150391,-0.7202149999999999,0.940932,-0.21386999999999998,-0.325689,-0.017634999999999998,-0.050961,-0.023622999999999998,,,,,,,,,,,,,,,,,,,,,,,,,,,,,,,,,,,,,,,,,,,,,,,,,,,,,,,,,,,,,,,,,
26535,1645650805.0489779,19.0,0.0,4273.333496,4798.974121,4203.589844,4278.974121,4247.692383,0.0,3.0,59.0,,,,0.0,4.0,0.0,4.0,0.0,4.0,33.333332,,,,,,,,,,,,,,,,,,,,,,,,,,,,,,,,,,,,,,,,,,,,,,,,,,,,,,0.0,0.0,1.0,0.0,128.0,0.654784,,,,,,,,,,,,,,,,,,,,,,,,,
26536,1645650805.056792,20.0,0.0,4284.615234000001,4784.615234000001,4203.589844,4278.974121,4258.461426,0.0,3.0,59.0,,,,0.0,4.0,0.0,4.0,0.0,4.0,33.333332,,,,,,,,10.0,0.0,0.36894699999999997,0.567871,0.150635,-0.7202149999999999,0.951675,-0.22510100000000002,-0.305669,-0.018118000000000002,-0.050943,-0.026826999999999997,,,,,,,,,,,,,,,,,,,,,,,,,,,,,,,,,,,,,,,,,,,,,,,,,,,,,,,,,,,,,,,,,
26537,1645650805.0646071,21.0,0.0,4279.487305,4778.974121,4223.589844,4278.974121,4263.077147999999,0.0,3.0,59.0,,,,0.0,4.0,0.0,4.0,0.0,4.0,33.333332,,,,,,,,,,,,,,,,,,,,,,,,,,,,,,,,,,,,,,,,,,,,,,,,,,,,,,,,,,,,,,,,,,,,,,,,,,,,,,,,,,,,
26538,1645650805.072421,22.0,0.0,4270.769043,4730.769043,4221.025879,4278.974121,4256.922852000001,0.0,3.0,59.0,,,,0.0,4.0,0.0,4.0,0.0,4.0,33.333332,,,,,,,,11.0,0.0,0.36846999999999996,0.567871,0.150635,-0.720459,0.922866,-0.222171,-0.321294,-0.016891999999999997,-0.050975,-0.023656,,,,,,,,,,,,,,,,,,,,,,,,,,,,,,,,,,,,,,,,,,,,,,,,,,,,,,,,,,,,,,,,,
26539,1645650805.080236,23.0,0.0,4275.897461,4765.641113000001,4210.769043,4280.0,4250.256348,0.0,3.0,59.0,,,,0.0,4.0,0.0,4.0,0.0,4.0,33.333332,,,,,,,,,,,,,,,,,,,,,,,,,,,,,,,,,,,,,,,,,,,,,,,,,,,,,,0.0,0.0,1.0,0.0,128.0,0.654784,,,,,,,,,,,,,,,,,,,,,,,,,
26540,1645650805.08805,24.0,0.0,4284.615234000001,4809.743652,4201.538574,4280.0,4253.846191,0.0,3.0,59.0,,,,0.0,4.0,0.0,4.0,0.0,4.0,33.333332,,,,,,,,12.0,0.0,0.36846999999999996,0.567871,0.150635,-0.720459,0.920424,-0.20947600000000002,-0.317388,-0.017498,-0.050956,-0.026906,,,,,,,,,,,,,,,,,,,,,,,,,,,,,,,,,,,,,,,,,,,,,,,,,,,,,,,,,,,,,,,,,
26541,1645650805.095864,25.0,0.0,4274.358886999999,4698.974121,4204.102539,4279.487305,4255.897461,0.0,3.0,59.0,,,,0.0,4.0,0.0,4.0,0.0,4.0,33.333332,,,,,,,,,,,,,,,,,,,,,,,,,,,,,,,,,,,,,,,,,,,,,,,,,,,,,,,,,,,,,,,,,,,,,,,,,,,,,,,,,,,,
26542,1645650805.103679,26.0,0.0,4273.846191,4636.410156,4196.922852000001,4280.0,4262.563965,0.0,3.0,59.0,,,,0.0,4.0,0.0,4.0,0.0,4.0,33.333332,,,,,,,,13.0,0.0,0.368371,0.567871,0.15087899999999999,-0.720459,0.933608,-0.215824,-0.309575,-0.017994,-0.05089,-0.029782,,,,,,,,,,,,,,,,,,,,,,,,,,,,,,,,,,,,,,,,,,,,,,,,,,,,,,,,,,,,,,,,,
26543,1645650805.1114929,27.0,0.0,4277.94873,4716.410156,4187.179688,4280.0,4262.05127,0.0,3.0,59.0,,,,0.0,4.0,0.0,4.0,0.0,4.0,33.333332,,,,,,,,,,,,,,,,,,,,,,,,,,,,,,,,,,,,,,,,,,,,,,,,,,,,,,0.0,0.0,1.0,0.0,128.0,0.654784,,,,,,,,,,,,,,,,,,,,,,,,,
26544,1645650805.119208,28.0,0.0,4288.717772999999,4737.436035,4201.025879,4278.461426,4268.717772999999,0.0,3.0,59.0,,,,0.0,4.0,0.0,4.0,0.0,4.0,33.333332,,,,,,,,14.0,0.0,0.36789299999999997,0.567871,0.15087899999999999,-0.720703,0.945327,-0.208011,-0.316899,-0.016829,-0.050879,-0.032517000000000004,,,,,,,,,,,,,,,,,,,,,,,,,,,,,,,,,,,,,,,,,,,,,,,,,,,,,,,,,,,,,,,,,
26545,1645650805.127022,29.0,0.0,4286.153809,4677.436035,4205.641113000001,4280.0,4266.153809,0.0,3.0,59.0,,,,0.0,4.0,0.0,4.0,0.0,4.0,33.333332,,,,,,,,,,,,,,,,,,,,,,,,,,,,,,,,,,,,,,,,,,,,,,,,,,,,,,,,,,,,,,,,,,,,,,,,,,,,,,,,,,,,
26546,1645650805.134836,30.0,0.0,4288.205078,4702.563965,4189.743652,4280.512695,4253.333496,0.0,3.0,59.0,,,,0.0,4.0,0.0,4.0,0.0,4.0,33.333332,,,,,,,,15.0,0.0,0.368269,0.567627,0.15087899999999999,-0.720703,0.937026,-0.21386999999999998,-0.33984899999999996,-0.017440999999999998,-0.050772000000000005,-0.028581,,,,,,,,,,,,,,,,,,,,,,,,,,,,,,,,,,,,,,,,,,,,,,,,,,,,,,,,,,,,,,,,,
26547,1645650805.142651,31.0,0.0,4304.615234000001,4771.282227000001,4183.589844,4279.487305,4245.641113000001,0.0,3.0,59.0,,,,0.0,4.0,0.0,4.0,0.0,4.0,33.333332,0.972656,8.333333,3.0,0.0,1.0,0.0,3.0,,,,,,,,,,,,,1.0,0.0,0.0,,,,,,,,,,,,,,,,,,,,,,,,,,,,,,,,0.0,0.0,1.0,0.0,128.0,1.0,2.3814919999999997,3.4102919999999997,0.789623,1.456377,2.8631599999999997,24.659185,19.829179999999997,36.304001,19.438339000000003,16.8484,4.679901,5.231249,2.344513,3.5642110000000002,8.436742,0.03272,0.028089,0.012893,0.012969999999999999,0.011839,1.823423,2.156869,1.7013340000000001,1.657371,2.686846
26548,1645650805.150465,32.0,0.0,4311.282227000001,4754.358886999999,4202.05127,4279.487305,4254.358886999999,0.0,3.0,59.0,,,,0.0,4.0,0.0,4.0,0.0,4.0,33.333332,,,,,,,,16.0,0.0,0.368269,0.567627,0.15087899999999999,-0.720703,0.9433739999999999,-0.211429,-0.318853,-0.016381,-0.050626,-0.031485,,,,,,,,,,,,,,,,,,,,,,,,,,,,,,,,,,,,,,,,,,,,,,,,,,,,,,,,,,,,,,,,,
26549,1645650805.1582801,33.0,0.0,4287.692383,4720.512695,4197.436035,4278.974121,4249.743652,0.0,3.0,59.0,,,,0.0,4.0,0.0,4.0,0.0,4.0,33.333332,,,,,,,,,,,,,,,,,,,,,,,,,,,,,,,,,,,,,,,,,,,,,,,,,,,,,,,,,,,,,,,,,,,,,,,,,,,,,,,,,,,,
26550,1645650805.1660938,34.0,0.0,4287.179688,4735.384765999999,4196.410156,4278.974121,4251.794922,0.0,3.0,59.0,,,,0.0,4.0,0.0,4.0,0.0,4.0,33.333332,,,,,,,,17.0,0.0,0.368269,0.567627,0.15087899999999999,-0.720703,0.946792,-0.19971,-0.309575,-0.015475,-0.050642,-0.03405,,,,,,,,,,,,,,,,,,,,,,,,,,,,,,,,,,,,,,,,,,,,,,,,,,,,,,,,,,,,,,,,,
26551,1645650805.173909,35.0,0.0,4301.025879,4702.563965,4196.922852000001,4279.487305,4260.512695,0.0,3.0,59.0,,,,0.0,4.0,0.0,4.0,0.0,4.0,33.333332,,,,,,,,,,,,,,,,,,,,,,,,,,,,,,,,,,,,,,,,,,,,,,,,,,,,,,0.0,0.0,1.0,0.0,128.0,1.0,,,,,,,,,,,,,,,,,,,,,,,,,
26552,1645650805.181723,36.0,0.0,4296.410156,4628.717772999999,4217.436035,4279.487305,4266.666504,0.0,3.0,59.0,,,,0.0,4.0,0.0,4.0,0.0,4.0,33.333332,,,,,,,,18.0,0.0,0.36789299999999997,0.567871,0.15087899999999999,-0.720703,0.939467,-0.204593,-0.311528,-0.016222999999999998,-0.050607,-0.030205000000000003,,,,,,,,,,,,,,,,,,,,,,,,,,,,,,,,,,,,,,,,,,,,,,,,,,,,,,,,,,,,,,,,,
26553,1645650805.1895368,37.0,0.0,4299.487305,4663.589844,4220.0,4278.461426,4272.820313,0.0,3.0,59.0,,,,0.0,4.0,0.0,4.0,0.0,4.0,33.333332,,,,,,,,,,,,,,,,,,,,,,,,,,,,,,,,,,,,,,,,,,,,,,,,,,,,,,,,,,,,,,,,,,,,,,,,,,,,,,,,,,,,
26554,1645650805.197252,38.0,0.0,4309.743652,4726.666504,4230.256348,4280.512695,4275.897461,0.0,3.0,59.0,,,,0.0,4.0,0.0,4.0,0.0,4.0,33.333332,,,,,,,,19.0,0.0,0.36789299999999997,0.567871,0.15087899999999999,-0.720703,0.9428850000000001,-0.206546,-0.309087,-0.016798,-0.050575999999999996,-0.026599,,,,,,,,,,,,,,,,,,,,,,,,,,,,,,,,,,,,,,,,,,,,,,,,,,,,,,,,,,,,,,,,,
26555,1645650805.205066,39.0,0.0,4305.128418,4709.743652,4226.153809,4280.512695,4277.94873,0.0,3.0,59.0,,,,0.0,4.0,0.0,4.0,0.0,4.0,33.333332,,,,,,,,,,,,,,,,,,,,,,,,,,,,,,,,,,,,,,,,,,,,,,,,,,,,,,0.0,0.0,1.0,0.0,128.0,1.0,,,,,,,,,,,,,,,,,,,,,,,,,
26556,1645650805.212881,40.0,0.0,4293.333496,4674.358886999999,4223.589844,4278.974121,4268.717772999999,0.0,3.0,59.0,,,,0.0,4.0,0.0,4.0,0.0,4.0,33.333332,,,,,,,,20.0,0.0,0.36799299999999996,0.567871,0.150635,-0.720703,0.9316549999999999,-0.211429,-0.305669,-0.017412999999999998,-0.050548,-0.023402000000000003,,,,,,,,,,,,,,,,,,,,,,,,,,,,,,,,,,,,,,,,,,,,,,,,,,,,,,,,,,,,,,,,,
26557,1645650805.220695,41.0,0.0,4300.512695,4681.538574,4214.358886999999,4278.461426,4260.512695,0.0,3.0,59.0,,,,0.0,4.0,0.0,4.0,0.0,4.0,33.333332,,,,,,,,,,,,,,,,,,,,,,,,,,,,,,,,,,,,,,,,,,,,,,,,,,,,,,,,,,,,,,,,,,,,,,,,,,,,,,,,,,,,
26558,1645650805.228509,42.0,0.0,4288.717772999999,4725.128418,4196.410156,4280.0,4245.641113000001,0.0,3.0,59.0,,,,0.0,4.0,0.0,4.0,0.0,4.0,33.333332,,,,,,,,21.0,0.0,0.36799299999999996,0.567871,0.150635,-0.720703,0.937026,-0.210941,-0.325689,-0.016306,-0.050669,-0.026774,,,,,,,,,,,,,,,,,,,,,,,,,,,,,,,,,,,,,,,,,,,,,,,,,,,,,,,,,,,,,,,,,
26559,1645650805.236324,43.0,0.0,4277.94873,4729.230957,4190.256348,4280.512695,4243.589844,0.0,3.0,59.0,,,,0.0,4.0,0.0,4.0,0.0,4.0,33.333332,,,,,,,,,,,,,,,,,,,,,,,,,,,,,,,,,,,,,,,,,,,,,,,,,,,,,,0.0,0.0,1.0,0.0,128.0,1.0,,,,,,,,,,,,,,,,,,,,,,,,,
26560,1645650805.244138,44.0,0.0,4293.333496,4686.153809,4207.179688,4278.461426,4259.487305,0.0,3.0,59.0,,,,0.0,4.0,0.0,4.0,0.0,4.0,33.333332,,,,,,,,22.0,0.0,0.36799299999999996,0.567871,0.150635,-0.720703,0.9423969999999999,-0.204593,-0.324712,-0.016971,-0.050729,-0.029810000000000003,,,,,,,,,,,,,,,,,,,,,,,,,,,,,,,,,,,,,,,,,,,,,,,,,,,,,,,,,,,,,,,,,
26561,1645650805.251953,45.0,0.0,4329.230957,4678.461426,4227.179688,4277.436035,4285.641113000001,0.0,3.0,59.0,,,,0.0,4.0,0.0,4.0,0.0,4.0,33.333332,,,,,,,,,,,,,,,,,,,,,,,,,,,,,,,,,,,,,,,,,,,,,,,,,,,,,,,,,,,,,,,,,,,,,,,,,,,,,,,,,,,,
26562,1645650805.259667,46.0,0.0,4335.384765999999,4665.641113000001,4219.487305,4279.487305,4288.717772999999,0.0,3.0,59.0,,,,0.0,4.0,0.0,4.0,0.0,4.0,33.333332,,,,,,,,23.0,0.0,0.368371,0.567871,0.15087899999999999,-0.720459,0.944839,-0.207523,-0.318364,-0.017569,-0.050636,-0.026389999999999997,,,,,,,,,,,,,,,,,,,,,,,,,,,,,,,,,,,,,,,,,,,,,,,,,,,,,,,,,,,,,,,,,
26563,1645650805.267482,47.0,0.0,4320.512695,4654.358886999999,4214.871582,4279.487305,4281.025879,0.0,3.0,59.0,,,,0.0,4.0,0.0,4.0,0.0,4.0,33.333332,,,,,,,,,,,,,,,,,,,,1.0,0.0,0.0,,,,,,,,,,,,,,,,,,,,,,,,,,,,,,,,0.0,0.0,1.0,0.0,128.0,1.0,2.1639630000000003,2.982136,0.784509,1.916695,3.856531,30.184233000000003,19.399084,34.248104,22.595976,19.816414,5.8823419999999995,6.266714,2.907074,4.568447,12.520479,0.044907,0.039382,0.016895,0.015115,0.013441999999999999,1.9617220000000002,2.429267,1.90993,1.74069,3.5635410000000003
26564,1645650805.2752962,48.0,0.0,4311.282227000001,4717.436035,4207.692383,4278.461426,4272.820313,0.0,3.0,59.0,,,,0.0,4.0,0.0,4.0,0.0,4.0,33.333332,,,,,,,,24.0,0.0,0.368371,0.567871,0.15087899999999999,-0.720459,0.9355610000000001,-0.196292,-0.321294,-0.016446000000000002,-0.050651,-0.029414999999999997,,,,,,,,,,,,,,,,,,,,,,,,,,,,,,,,,,,,,,,,,,,,,,,,,,,,,,,,,,,,,,,,,
26565,1645650805.28311,49.0,0.0,4315.897461,4750.256348,4223.077147999999,4280.0,4282.563965,0.0,3.0,59.0,,,,0.0,4.0,0.0,4.0,0.0,4.0,33.333332,,,,,,,,,,,,,,,,,,,,,,,,,,,,,,,,,,,,,,,,,,,,,,,,,,,,,,,,,,,,,,,,,,,,,,,,,,,,,,,,,,,,
26566,1645650805.290925,50.0,0.0,4312.820313,4702.563965,4231.794922,4281.538574,4292.307617,0.0,3.0,59.0,,,,0.0,4.0,0.0,4.0,0.0,4.0,33.333332,,,,,,,,25.0,0.0,0.36799299999999996,0.567871,0.150635,-0.720703,0.9423969999999999,-0.204593,-0.324712,-0.016999,-0.050664,-0.025887,,,,,,,,,,,,,,,,,,,,,,,,,,,,,,,,,,,,,,,,,,,,,,,,,,,,,,,,,,,,,,,,,
26567,1645650805.298739,51.0,0.0,4310.256348,4639.487305,4235.384765999999,4280.0,4291.282227000001,0.0,3.0,59.0,,,,0.0,4.0,0.0,4.0,0.0,4.0,33.333332,,,,,,,,,,,,,,,,,,,,,,,,,,,,,,,,,,,,,,,,,,,,,,,,,,,,,,0.0,0.0,1.0,0.0,128.0,1.0,,,,,,,,,,,,,,,,,,,,,,,,,
26568,1645650805.3065538,52.0,0.0,4313.333496,4615.897461,4222.563965,4278.461426,4291.794922,0.0,3.0,59.0,,,,0.0,4.0,0.0,4.0,0.0,4.0,33.333332,,,,,,,,26.0,0.0,0.368371,0.567871,0.15087899999999999,-0.720459,0.9355610000000001,-0.196292,-0.321294,-0.015934,-0.050676,-0.028963,,,,,,,,,,,,,,,,,,,,,,,,,,,,,,,,,,,,,,,,,,,,,,,,,,,,,,,,,,,,,,,,,
26569,1645650805.314368,53.0,0.0,4304.615234000001,4691.282227000001,4226.153809,4278.974121,4295.384765999999,0.0,3.0,59.0,,,,0.0,4.0,0.0,4.0,0.0,4.0,33.333332,,,,,,,,,,,,,,,,,,,,,,,,,,,,,,,,,,,,,,,,,,,,,,,,,,,,,,,,,,,,,,,,,,,,,,,,,,,,,,,,,,,,
26570,1645650805.322083,54.0,0.0,4297.94873,4758.461426,4218.974121,4279.487305,4286.153809,0.0,3.0,59.0,,,,0.0,4.0,0.0,4.0,0.0,4.0,33.333332,,,,,,,,27.0,0.0,0.368371,0.567871,0.15087899999999999,-0.720459,0.944839,-0.208011,-0.316899,-0.014975,-0.050638,-0.031731,,,,,,,,,,,,,,,,,,,,,,,,,,,,,,,,,,,,,,,,,,,,,,,,,,,,,,,,,,,,,,,,,
26571,1645650805.3298972,55.0,0.0,4303.077147999999,4722.05127,4217.436035,4278.461426,4277.436035,0.0,3.0,59.0,,,,0.0,4.0,0.0,4.0,0.0,4.0,33.333332,,,,,,,,,,,,,,,,,,,,,,,,,,,,,,,,,,,,,,,,,,,,,,,,,,,,,,0.0,0.0,1.0,0.0,128.0,1.0,,,,,,,,,,,,,,,,,,,,,,,,,
26572,1645650805.3377109,56.0,0.0,4312.307617,4696.922852000001,4212.307617,4278.974121,4288.205078,0.0,3.0,59.0,,,,0.0,4.0,0.0,4.0,0.0,4.0,33.333332,,,,,,,,28.0,0.0,0.368371,0.567871,0.15087899999999999,-0.720459,0.945327,-0.197757,-0.317388,-0.015724000000000002,-0.050506,-0.027972000000000004,,,,,,,,,,,,,,,,,,,,,,,,,,,,,,,,,,,,,,,,,,,,,,,,,,,,,,,,,,,,,,,,,
26573,1645650805.345526,57.0,0.0,4309.230957,4731.282227000001,4213.846191,4280.0,4279.487305,0.0,3.0,59.0,,,,0.0,4.0,0.0,4.0,0.0,4.0,33.333332,,,,,,,,,,,,,,,,,,,,,,,,,,,,,,,,,,,,,,,,,,,,,,,,,,,,,,,,,,,,,,,,,,,,,,,,,,,,,,,,,,,,
26574,1645650805.3533401,58.0,0.0,4321.025879,4721.025879,4231.282227000001,4280.0,4281.538574,0.0,3.0,59.0,,,,0.0,4.0,0.0,4.0,0.0,4.0,33.333332,,,,,,,,29.0,0.0,0.368371,0.567871,0.15087899999999999,-0.720459,0.938491,-0.22070599999999999,-0.315923,-0.016349000000000002,-0.050483999999999994,-0.030839,,,,,,,,,,,,,,,,,,,,,,,,,,,,,,,,,,,,,,,,,,,,,,,,,,,,,,,,,,,,,,,,,
26575,1645650805.361155,59.0,0.0,4331.794922,4699.487305,4233.846191,4280.512695,4292.307617,0.0,3.0,59.0,,,,0.0,4.0,0.0,4.0,0.0,4.0,33.333332,,,,,,,,,,,,,,,,,,,,,,,,,,,,,,,,,,,,,,,,,,,,,,,,,,,,,,0.0,0.0,1.0,0.0,128.0,1.0,,,,,,,,,,,,,,,,,,,,,,,,,
26576,1645650805.368969,60.0,0.0,4320.512695,4714.358886999999,4213.333496,4281.025879,4280.0,0.0,3.0,59.0,,,,0.0,4.0,0.0,4.0,0.0,4.0,33.333332,,,,,,,,30.0,0.0,0.36846999999999996,0.567871,0.150635,-0.720459,0.9428850000000001,-0.193851,-0.326177,-0.015349000000000002,-0.050464999999999996,-0.033419,,,,,,,,,,,,,,,,,,,,,,,,,,,,,,,,,,,,,,,,,,,,,,,,,,,,,,,,,,,,,,,,,
26577,1645650805.376783,61.0,0.0,4298.974121,4749.743652,4206.153809,4280.512695,4256.922852000001,0.0,3.0,59.0,,,,0.0,4.0,0.0,4.0,0.0,4.0,33.333332,,,,,,,,,,,,,,,,,,,,,,,,,,,,,,,,,,,,,,,,,,,,,,,,,,,,,,,,,,,,,,,,,,,,,,,,,,,,,,,,,,,,
26578,1645650805.384598,62.0,0.0,4308.205078,4760.0,4226.666504,4280.0,4273.333496,0.0,3.0,59.0,,,,0.0,4.0,0.0,4.0,0.0,4.0,33.333332,,,,,,,,31.0,0.0,0.36846999999999996,0.567871,0.150635,-0.720459,0.939467,-0.21484699999999998,-0.307622,-0.014546000000000002,-0.050546,-0.035643,,,,,,,,,,,,,,,,,,,,,,,,,,,,,,,,,,,,,,,,,,,,,,,,,,,,,,,,,,,,,,,,,
26579,1645650805.392412,63.0,0.0,4320.512695,4701.538574,4223.077147999999,4279.487305,4291.282227000001,0.0,3.0,59.0,,,,0.0,4.0,0.0,4.0,0.0,4.0,33.333332,,,,,,,,,,,,,,,,,,,,1.0,0.0,0.0,,,,,,,,,,,,,,,,,,,,,,,,,,,,,,,,0.0,0.0,1.0,0.0,128.0,1.0,2.037787,2.58383,0.7875479999999999,2.305593,4.7068129999999995,39.225903,18.786242,31.150715,25.84145,22.800606,7.18125,6.975395,3.397443,5.2431980000000005,16.16185,0.05583200000000001,0.049446,0.021036000000000003,0.016456000000000002,0.014466,2.073356,2.495234,2.0513790000000003,1.7361349999999998,4.297043
26580,1645650805.400127,64.0,0.0,4314.871582,4635.897461,4217.94873,4278.461426,4290.256348,450.0,3.0,59.0,,,,0.0,4.0,0.0,4.0,0.0,4.0,33.333332,,,,,,,,32.0,0.0,0.36846999999999996,0.567871,0.150635,-0.720459,0.9433739999999999,-0.20068699999999998,-0.318364,-0.015288999999999999,-0.050520999999999996,-0.037743,,,,,,,,,,,,,,,,,,,,,,,,,,,,,,,,,,,,,,,,,,,,,,,,,,,,,,,,,,,,,,,,,
26581,1645650805.407941,65.0,0.0,4289.743652,4629.230957,4214.358886999999,4278.974121,4272.307617,450.0,3.0,59.0,,,,0.0,4.0,0.0,4.0,0.0,4.0,33.333332,,,,,,,,,,,,,,,,,,,,,,,,,,,,,,,,,,,,,,,,,,,,,,,,,,,,,,,,,,,,,,,,,,,,,,,,,,,,,,,,,,,,
26582,1645650805.415656,66.0,0.0,4277.436035,4650.256348,4215.897461,4280.0,4254.871582,16197.0,3.0,59.0,,,,0.0,4.0,0.0,4.0,0.0,4.0,33.333332,,,,,,,,33.0,0.0,0.36809400000000003,0.5681149999999999,0.150635,-0.720459,0.9404440000000001,-0.20361600000000002,-0.307134,-0.016153,-0.050498,-0.033382999999999996,,,,,,,,,,,,,,,,,,,,,,,,,,,,,,,,,,,,,,,,,,,,,,,,,,,,,,,,,,,,,,,,,
26583,1645650805.42347,67.0,0.0,4287.179688,4669.743652,4205.641113000001,4278.974121,4257.436035,450.0,3.0,59.0,,,,0.0,4.0,0.0,4.0,0.0,4.0,33.333332,,,,,,,,,,,,,,,,,,,,,,,,,,,,,,,,,,,,,,,,,,,,,,,,,,,,,,0.0,0.0,1.0,0.0,128.0,1.0,,,,,,,,,,,,,,,,,,,,,,,,,
26584,1645650805.431284,68.0,0.0,4309.230957,4655.897461,4232.307617,4278.974121,4283.589844,0.0,3.0,59.0,,,,0.0,4.0,0.0,4.0,0.0,4.0,33.333332,,,,,,,,34.0,0.0,0.36809400000000003,0.5681149999999999,0.150635,-0.720459,0.94435,-0.212894,-0.314946,-0.016784,-0.050624,-0.029410000000000002,,,,,,,,,,,,,,,,,,,,,,,,,,,,,,,,,,,,,,,,,,,,,,,,,,,,,,,,,,,,,,,,,
26585,1645650805.439099,69.0,0.0,4315.384765999999,4628.717772999999,4235.897461,4279.487305,4295.897461,450.0,3.0,59.0,,,,0.0,4.0,0.0,4.0,0.0,4.0,33.333332,,,,,,,,,,,,,,,,,,,,,,,,,,,,,,,,,,,,,,,,,,,,,,,,,,,,,,,,,,,,,,,,,,,,,,,,,,,,,,,,,,,,
26586,1645650805.446913,70.0,0.0,4298.461426,4666.666504,4214.871582,4278.461426,4275.384765999999,16204.0,3.0,59.0,,,,0.0,4.0,0.0,4.0,0.0,4.0,33.333332,,,,,,,,35.0,0.0,0.368571,0.5681149999999999,0.150635,-0.7202149999999999,0.934585,-0.20068699999999998,-0.320806,-0.015788999999999997,-0.050689,-0.032035,,,,,,,,,,,,,,,,,,,,,,,,,,,,,,,,,,,,,,,,,,,,,,,,,,,,,,,,,,,,,,,,,
26587,1645650805.454728,71.0,0.0,4296.410156,4715.384765999999,4200.512695,4278.461426,4260.0,450.0,3.0,59.0,,,,0.0,4.0,0.0,4.0,0.0,4.0,33.333332,,,,,,,,,,,,,,,,,,,,,,,,,,,,,,,,,,,,,,,,,,,,,,,,,,,,,,0.0,0.0,1.0,0.0,128.0,1.0,,,,,,,,,,,,,,,,,,,,,,,,,
26588,1645650805.462542,72.0,0.0,4302.563965,4684.615234000001,4210.769043,4278.974121,4265.128418,450.0,3.0,59.0,,,,0.0,4.0,0.0,4.0,0.0,4.0,33.333332,,,,,,,,36.0,0.0,0.36809400000000003,0.5681149999999999,0.150635,-0.720459,0.9399559999999999,-0.193851,-0.299809,-0.016358,-0.0506,-0.028344,,,,,,,,,,,,,,,,,,,,,,,,,,,,,,,,,,,,,,,,,,,,,,,,,,,,,,,,,,,,,,,,,
26589,1645650805.470357,73.0,0.0,4296.922852000001,4654.871582,4206.666504,4278.974121,4272.307617,0.0,3.0,59.0,,,,0.0,4.0,0.0,4.0,0.0,4.0,33.333332,,,,,,,,,,,,,,,,,,,,,,,,,,,,,,,,,,,,,,,,,,,,,,,,,,,,,,,,,,,,,,,,,,,,,,,,,,,,,,,,,,,,
26590,1645650805.478171,74.0,0.0,4282.05127,4672.307617,4189.230957,4278.461426,4258.461426,450.0,3.0,59.0,,,,0.0,4.0,0.0,4.0,0.0,4.0,33.333332,,,,,,,,37.0,0.0,0.368571,0.5681149999999999,0.150635,-0.7202149999999999,0.932143,-0.19531500000000002,-0.29688000000000003,-0.017018000000000002,-0.050520999999999996,-0.024972,,,,,,,,,,,,,,,,,,,,,,,,,,,,,,,,,,,,,,,,,,,,,,,,,,,,,,,,,,,,,,,,,
26591,1645650805.485885,75.0,0.0,4295.897461,4696.922852000001,4188.205078,4280.0,4263.077147999999,16208.0,3.0,59.0,,,,0.0,4.0,0.0,4.0,0.0,4.0,33.333332,,,,,,,,,,,,,,,,,,,,,,,,,,,,,,,,,,,,,,,,,,,,,,,,,,,,,,0.0,0.0,1.0,0.0,128.0,1.0,,,,,,,,,,,,,,,,,,,,,,,,,
26592,1645650805.4937,76.0,0.0,4309.230957,4748.205078,4201.025879,4280.0,4277.436035,450.0,3.0,59.0,,,,0.0,4.0,0.0,4.0,0.0,4.0,33.333332,,,,,,,,38.0,0.0,0.368571,0.5681149999999999,0.150635,-0.7202149999999999,0.95021,-0.20996399999999998,-0.321782,-0.017562,-0.050595999999999995,-0.021889,,,,,,,,,,,,,,,,,,,,,,,,,,,,,,,,,,,,,,,,,,,,,,,,,,,,,,,,,,,,,,,,,
26593,1645650805.501514,77.0,0.0,4308.205078,4798.974121,4203.077147999999,4278.461426,4281.025879,450.0,3.0,59.0,,,,0.0,4.0,0.0,4.0,0.0,4.0,33.333332,,,,,,,,,,,,,,,,,,,,,,,,,,,,,,,,,,,,,,,,,,,,,,,,,,,,,,,,,,,,,,,,,,,,,,,,,,,,,,,,,,,,
26594,1645650805.5093288,78.0,0.0,4297.94873,4770.256348,4184.615234000001,4278.974121,4262.563965,450.0,3.0,59.0,,,,0.0,4.0,0.0,4.0,0.0,4.0,33.333332,,,,,,,,39.0,0.0,0.368095,0.5683590000000001,0.15087899999999999,-0.7202149999999999,0.941909,-0.19677999999999998,-0.318364,-0.016538,-0.050663,-0.025412999999999998,,,,,,,,,,,,,,,,,,,,,,,,,,,,,,,,,,,,,,,,,,,,,,,,,,,,,,,,,,,,,,,,,
26595,1645650805.517143,79.0,0.0,4311.282227000001,4723.077147999999,4189.230957,4281.025879,4266.153809,16208.0,3.0,59.0,,,,0.0,4.0,0.0,4.0,0.0,4.0,33.333332,,,,,,,,,,,,,,,,,,,,1.0,0.0,0.0,,,,,,,,,,,,,,,,,,,,,,,,,,,,,,,,0.0,0.0,1.0,0.0,128.0,1.0,1.93365,2.262613,0.780648,2.502644,5.116787,49.382927,18.12639,27.909878000000003,27.909105,24.855431,8.240345,7.117199,3.620543,5.361065,18.173969,0.061841999999999994,0.05481900000000001,0.023753,0.016498,0.014372,2.069705,2.3535630000000003,2.051997,1.6531360000000002,4.627681
26596,1645650805.524957,80.0,0.0,4333.846191,4702.563965,4213.846191,4281.538574,4286.666504,450.0,3.0,59.0,,,,0.0,4.0,0.0,4.0,0.0,4.0,33.333332,,,,,,,,40.0,0.0,0.368095,0.5683590000000001,0.15087899999999999,-0.7202149999999999,0.9404440000000001,-0.215335,-0.31396999999999997,-0.015666,-0.050675,-0.028536000000000002,,,,,,,,,,,,,,,,,,,,,,,,,,,,,,,,,,,,,,,,,,,,,,,,,,,,,,,,,,,,,,,,,
26597,1645650805.532772,81.0,0.0,4350.769043,4730.769043,4226.666504,4280.0,4290.256348,450.0,3.0,59.0,,,,0.0,4.0,0.0,4.0,0.0,4.0,33.333332,,,,,,,,,,,,,,,,,,,,,,,,,,,,,,,,,,,,,,,,,,,,,,,,,,,,,,,,,,,,,,,,,,,,,,,,,,,,,,,,,,,,
26598,1645650805.540586,82.0,0.0,4331.282227000001,4788.205078,4195.897461,4280.0,4269.743652,450.0,3.0,59.0,,,,0.0,4.0,0.0,4.0,0.0,4.0,33.333332,,,,,,,,41.0,0.0,0.368195,0.5683590000000001,0.150635,-0.7202149999999999,0.9365379999999999,-0.20996399999999998,-0.311528,-0.016345,-0.050686,-0.025047999999999997,,,,,,,,,,,,,,,,,,,,,,,,,,,,,,,,,,,,,,,,,,,,,,,,,,,,,,,,,,,,,,,,,
26599,1645650805.5484009,83.0,0.0,4306.153809,4788.717772999999,4189.743652,4280.0,4258.974121,16208.0,3.0,59.0,,,,0.0,4.0,0.0,4.0,0.0,4.0,33.333332,,,,,,,,,,,,,,,,,,,,,,,,,,,,,,,,,,,,,,,,,,,,,,,,,,,,,,0.0,0.0,1.0,0.0,128.0,1.0,,,,,,,,,,,,,,,,,,,,,,,,,
26600,1645650805.5561152,84.0,0.0,4314.871582,4700.512695,4194.358886999999,4279.487305,4272.820313,450.0,3.0,59.0,,,,0.0,4.0,0.0,4.0,0.0,4.0,33.333332,,,,,,,,42.0,0.0,0.368095,0.5683590000000001,0.15087899999999999,-0.7202149999999999,0.939467,-0.20361600000000002,-0.310552,-0.015491999999999999,-0.050549000000000004,-0.028207,,,,,,,,,,,,,,,,,,,,,,,,,,,,,,,,,,,,,,,,,,,,,,,,,,,,,,,,,,,,,,,,,
26601,1645650805.56393,85.0,0.0,4324.615234000001,4658.974121,4211.794922,4280.0,4283.589844,450.0,3.0,59.0,,,,0.0,4.0,0.0,4.0,0.0,4.0,33.333332,,,,,,,,,,,,,,,,,,,,,,,,,,,,,,,,,,,,,,,,,,,,,,,,,,,,,,,,,,,,,,,,,,,,,,,,,,,,,,,,,,,,
26602,1645650805.571744,86.0,0.0,4317.436035,4681.538574,4211.282227000001,4280.512695,4277.94873,450.0,3.0,59.0,,,,0.0,4.0,0.0,4.0,0.0,4.0,33.333332,,,,,,,,43.0,0.0,0.368095,0.5683590000000001,0.15087899999999999,-0.7202149999999999,0.9487450000000001,-0.198734,-0.317388,-0.013992,-0.050426,-0.031099,,,,,,,,,,,,,,,,,,,,,,,,,,,,,,,,,,,,,,,,,,,,,,,,,,,,,,,,,,,,,,,,,
26603,1645650805.579558,87.0,0.0,4301.538574,4690.769043,4207.692383,4279.487305,4262.563965,16208.0,3.0,59.0,,,,0.0,4.0,0.0,4.0,0.0,4.0,33.333332,,,,,,,,,,,,,,,,,,,,,,,,,,,,,,,,,,,,,,,,,,,,,,,,,,,,,,0.0,0.0,1.0,0.0,128.0,1.0,,,,,,,,,,,,,,,,,,,,,,,,,
26604,1645650805.587373,88.0,0.0,4295.897461,4720.0,4200.512695,4280.0,4253.846191,450.0,3.0,59.0,,,,0.0,4.0,0.0,4.0,0.0,4.0,33.333332,,,,,,,,44.0,0.0,0.368095,0.5683590000000001,0.15087899999999999,-0.7202149999999999,0.9399559999999999,-0.204105,-0.309087,-0.013227000000000001,-0.050413,-0.033652999999999995,,,,,,,,,,,,,,,,,,,,,,,,,,,,,,,,,,,,,,,,,,,,,,,,,,,,,,,,,,,,,,,,,
26605,1645650805.595187,89.0,0.0,4282.05127,4719.487305,4201.025879,4280.512695,4256.922852000001,450.0,3.0,59.0,,,,0.0,4.0,0.0,4.0,0.0,4.0,33.333332,,,,,,,,,,,,,,,,,,,,,,,,,,,,,,,,,,,,,,,,,,,,,,,,,,,,,,,,,,,,,,,,,,,,,,,,,,,,,,,,,,,,
26606,1645650805.603002,90.0,0.0,4288.717772999999,4664.102539,4209.230957,4280.0,4267.179688,450.0,3.0,59.0,,,,0.0,4.0,0.0,4.0,0.0,4.0,33.333332,,,,,,,,45.0,0.0,0.368095,0.5683590000000001,0.15087899999999999,-0.7202149999999999,0.934585,-0.212894,-0.307134,-0.014150999999999999,-0.05045,-0.036099,,,,,,,,,,,,,,,,,,,,,,,,,,,,,,,,,,,,,,,,,,,,,,,,,,,,,,,,,,,,,,,,,
26607,1645650805.610816,91.0,0.0,4298.461426,4597.436035,4213.333496,4281.025879,4260.0,16208.0,3.0,59.0,,,,0.0,4.0,0.0,4.0,0.0,4.0,33.333332,,,,,,,,,,,,,,,,,,,,,,,,,,,,,,,,,,,,,,,,,,,,,,,,,,,,,,0.0,0.0,1.0,0.0,128.0,1.0,,,,,,,,,,,,,,,,,,,,,,,,,
26608,1645650805.6186302,92.0,0.0,4295.897461,4584.102539,4215.897461,4282.05127,4257.436035,450.0,3.0,59.0,,,,0.0,4.0,0.0,4.0,0.0,4.0,33.333332,,,,,,,,46.0,0.0,0.368195,0.5683590000000001,0.150635,-0.7202149999999999,0.9487450000000001,-0.215824,-0.32422399999999996,-0.013419,-0.050385,-0.038202,,,,,,,,,,,,,,,,,,,,,,,,,,,,,,,,,,,,,,,,,,,,,,,,,,,,,,,,,,,,,,,,,
26609,1645650805.626345,93.0,0.0,4293.333496,4629.230957,4208.205078,4280.0,4259.487305,450.0,3.0,59.0,,,,0.0,4.0,0.0,4.0,0.0,4.0,33.333332,,,,,,,,,,,,,,,,,,,,,,,,,,,,,,,,,,,,,,,,,,,,,,,,,,,,,,,,,,,,,,,,,,,,,,,,,,,,,,,,,,,,
26610,1645650805.634159,94.0,0.0,4311.282227000001,4696.410156,4208.717772999999,4278.974121,4274.358886999999,450.0,3.0,59.0,,,,0.0,4.0,0.0,4.0,0.0,4.0,33.333332,,,,,,,,47.0,0.0,0.368195,0.5683590000000001,0.150635,-0.7202149999999999,0.932143,-0.201663,-0.31787600000000005,-0.014372,-0.050277999999999996,-0.033698,,,,,,,,,,,,,,,,,,,,,,,,,,,,,,,,,,,,,,,,,,,,,,,,,,,,,,,,,,,,,,,,,
26611,1645650805.641974,95.0,0.0,4313.333496,4729.230957,4213.846191,4281.025879,4267.692383,16208.0,3.0,59.0,,,,0.0,4.0,0.0,4.0,0.0,4.0,33.333332,0.972656,25.0,3.0,0.0,3.0,0.0,3.0,,,,,,,,,,,,,1.0,0.0,0.0,,,,,,,,,,,,,,,,,,,,,,,,,,,,,,,,0.0,0.0,1.0,0.0,128.0,1.0,1.820418,2.07762,0.757063,2.459936,4.9248400000000006,58.023987,17.699558,25.271681,28.003140999999996,25.294479,8.758599,6.647061,3.462194,4.882859,17.825642000000002,0.060589,0.053312,0.023934,0.015109000000000001,0.013031000000000001,1.944046,2.0883950000000002,1.902311,1.529068,4.416326000000001
26612,1645650805.6497881,96.0,0.0,4309.230957,4662.05127,4227.179688,4282.05127,4263.077147999999,450.0,3.0,59.0,,,,0.0,4.0,0.0,4.0,0.0,4.0,33.333332,,,,,,,,48.0,0.0,0.367994,0.5681149999999999,0.15087899999999999,-0.720459,0.933608,-0.198734,-0.311528,-0.013666999999999999,-0.050231,-0.035992,,,,,,,,,,,,,,,,,,,,,,,,,,,,,,,,,,,,,,,,,,,,,,,,,,,,,,,,,,,,,,,,,
26613,1645650805.657603,97.0,0.0,4306.666504,4583.589844,4224.615234000001,4279.487305,4265.641113000001,450.0,3.0,59.0,,,,0.0,4.0,0.0,4.0,0.0,4.0,33.333332,,,,,,,,,,,,,,,,,,,,,,,,,,,,,,,,,,,,,,,,,,,,,,,,,,,,,,,,,,,,,,,,,,,,,,,,,,,,,,,,,,,,
26614,1645650805.665417,98.0,0.0,4301.538574,4580.0,4230.256348,4278.974121,4265.128418,450.0,3.0,59.0,,,,0.0,4.0,0.0,4.0,0.0,4.0,33.333332,,,,,,,,49.0,0.0,0.367994,0.5681149999999999,0.15087899999999999,-0.720459,0.960464,-0.201663,-0.301274,-0.014596000000000001,-0.05014,-0.03171,,,,,,,,,,,,,,,,,,,,,,,,,,,,,,,,,,,,,,,,,,,,,,,,,,,,,,,,,,,,,,,,,
26615,1645650805.6732311,99.0,0.0,4293.333496,4624.615234000001,4227.179688,4280.512695,4262.05127,16208.0,3.0,59.0,,,,0.0,4.0,0.0,4.0,0.0,4.0,33.333332,,,,,,,,,,,,,,,,,,,,,,,,,,,,,,,,,,,,,,,,,,,,,,,,,,,,,,0.0,0.0,1.0,0.0,128.0,1.0,,,,,,,,,,,,,,,,,,,,,,,,,
26616,1645650805.681046,100.0,0.0,4306.153809,4584.615234000001,4247.179688,4279.487305,4282.05127,450.0,3.0,59.0,,,,0.0,4.0,0.0,4.0,0.0,4.0,33.333332,,,,,,,,50.0,0.0,0.368371,0.5681149999999999,0.151123,-0.7202149999999999,0.9546040000000001,-0.202152,-0.321294,-0.015285,-0.050155,-0.027904,,,,,,,,,,,,,,,,,,,,,,,,,,,,,,,,,,,,,,,,,,,,,,,,,,,,,,,,,,,,,,,,,
26617,1645650805.68886,101.0,0.0,4337.94873,4541.025879,4264.102539,4278.461426,4311.282227000001,450.0,3.0,59.0,,,,0.0,4.0,0.0,4.0,0.0,4.0,33.333332,,,,,,,,,,,,,,,,,,,,,,,,,,,,,,,,,,,,,,,,,,,,,,,,,,,,,,,,,,,,,,,,,,,,,,,,,,,,,,,,,,,,
26618,1645650805.696675,102.0,0.0,4329.230957,4590.769043,4256.922852000001,4280.512695,4295.897461,450.0,3.0,59.0,,,,0.0,4.0,0.0,4.0,0.0,4.0,33.333332,,,,,,,,51.0,0.0,0.368371,0.5681149999999999,0.151123,-0.7202149999999999,0.947768,-0.206058,-0.31006300000000003,-0.014488,-0.05012,-0.030631,,,,,,,,,,,,,,,,,,,,,,,,,,,,,,,,,,,,,,,,,,,,,,,,,,,,,,,,,,,,,,,,,
26619,1645650805.704389,103.0,0.0,4300.512695,4626.666504,4215.897461,4280.512695,4270.256348,16208.0,3.0,59.0,,,,0.0,4.0,0.0,4.0,0.0,4.0,33.333332,,,,,,,,,,,,,,,,,,,,,,,,,,,,,,,,,,,,,,,,,,,,,,,,,,,,,,0.0,0.0,1.0,0.0,128.0,1.0,,,,,,,,,,,,,,,,,,,,,,,,,
26620,1645650805.712204,104.0,0.0,4305.641113000001,4632.307617,4214.871582,4278.461426,4271.794922,450.0,3.0,59.0,,,,0.0,4.0,0.0,4.0,0.0,4.0,33.333332,,,,,,,,52.0,0.0,0.368371,0.5681149999999999,0.151123,-0.7202149999999999,0.933608,-0.208499,-0.320317,-0.013772,-0.050235,-0.033134,,,,,,,,,,,,,,,,,,,,,,,,,,,,,,,,,,,,,,,,,,,,,,,,,,,,,,,,,,,,,,,,,
26621,1645650805.720018,105.0,0.0,4325.128418,4693.846191,4221.025879,4278.461426,4275.384765999999,450.0,3.0,59.0,,,,0.0,4.0,0.0,4.0,0.0,4.0,33.333332,,,,,,,,,,,,,,,,,,,,,,,,,,,,,,,,,,,,,,,,,,,,,,,,,,,,,,,,,,,,,,,,,,,,,,,,,,,,,,,,,,,,
26622,1645650805.727832,106.0,0.0,4303.589844,4751.282227000001,4193.333496,4279.487305,4256.922852000001,450.0,3.0,59.0,,,,0.0,4.0,0.0,4.0,0.0,4.0,33.333332,,,,,,,,53.0,0.0,0.368371,0.5681149999999999,0.151123,-0.7202149999999999,0.9546040000000001,-0.202152,-0.321294,-0.014591999999999999,-0.050241,-0.029382,,,,,,,,,,,,,,,,,,,,,,,,,,,,,,,,,,,,,,,,,,,,,,,,,,,,,,,,,,,,,,,,,
26623,1645650805.735647,107.0,0.0,4307.179688,4712.307617,4192.307617,4279.487305,4273.846191,16208.0,3.0,59.0,,,,0.0,4.0,0.0,4.0,0.0,4.0,33.333332,,,,,,,,,,,,,,,,,,,,,,,,,,,,,,,,,,,,,,,,,,,,,,,,,,,,,,0.0,0.0,1.0,0.0,128.0,1.0,,,,,,,,,,,,,,,,,,,,,,,,,
26624,1645650805.743461,108.0,0.0,4345.128418,4689.230957,4228.717772999999,4279.487305,4297.94873,450.0,3.0,59.0,,,,0.0,4.0,0.0,4.0,0.0,4.0,33.333332,,,,,,,,54.0,0.0,0.368371,0.5681149999999999,0.151123,-0.7202149999999999,0.933608,-0.208499,-0.320317,-0.013865,-0.050344,-0.032010000000000004,,,,,,,,,,,,,,,,,,,,,,,,,,,,,,,,,,,,,,,,,,,,,,,,,,,,,,,,,,,,,,,,,
26625,1645650805.751276,109.0,0.0,4343.589844,4660.0,4240.512695,4280.0,4289.230957,450.0,3.0,59.0,,,,0.0,4.0,0.0,4.0,0.0,4.0,33.333332,,,,,,,,,,,,,,,,,,,,,,,,,,,,,,,,,,,,,,,,,,,,,,,,,,,,,,,,,,,,,,,,,,,,,,,,,,,,,,,,,,,,
26626,1645650805.75909,110.0,0.0,4306.153809,4588.205078,4221.025879,4278.974121,4264.102539,450.0,3.0,59.0,,,,0.0,4.0,0.0,4.0,0.0,4.0,33.333332,,,,,,,,55.0,0.0,0.368095,0.5683590000000001,0.15087899999999999,-0.7202149999999999,0.928725,-0.21386999999999998,-0.315923,-0.014676,-0.050339,-0.028369,,,,,,,,,,,,,,,,,,,,,,,,,,,,,,,,,,,,,,,,,,,,,,,,,,,,,,,,,,,,,,,,,
26627,1645650805.7669039,111.0,0.0,4310.256348,4578.461426,4231.794922,4279.487305,4272.820313,16208.0,3.0,59.0,,,,0.0,4.0,0.0,4.0,0.0,4.0,33.333332,,,,,,,,,,,,,,,,,,,,1.0,0.0,0.0,,,,,,,,,,,,,,,,,,,,,,,,,,,,,,,,0.0,0.0,1.0,0.0,128.0,0.965357,1.720068,2.071123,0.742464,2.226213,4.188775,62.8377,17.324156,23.264597,26.206932000000002,23.928993,8.589272,5.747137,2.9635540000000002,3.973183,15.201332,0.05209199999999999,0.045168,0.021544,0.012583,0.010804000000000001,1.751889,1.8369060000000001,1.673056,1.417049,3.719903
26628,1645650805.7746189,112.0,0.0,4328.205078,4632.820313,4241.025879,4281.025879,4285.641113000001,450.0,3.0,59.0,,,,0.0,4.0,0.0,4.0,0.0,4.0,33.333332,,,,,,,,56.0,0.0,0.36799499999999996,0.5683590000000001,0.151123,-0.7202149999999999,0.9423969999999999,-0.212894,-0.314946,-0.015600999999999999,-0.050383,-0.031294,,,,,,,,,,,,,,,,,,,,,,,,,,,,,,,,,,,,,,,,,,,,,,,,,,,,,,,,,,,,,,,,,
26629,1645650805.782433,113.0,0.0,4330.256348,4645.128418,4246.153809,4279.487305,4287.179688,450.0,3.0,59.0,,,,0.0,4.0,0.0,4.0,0.0,4.0,33.333332,,,,,,,,,,,,,,,,,,,,,,,,,,,,,,,,,,,,,,,,,,,,,,,,,,,,,,,,,,,,,,,,,,,,,,,,,,,,,,,,,,,,
26630,1645650805.7902482,114.0,0.0,4317.94873,4582.05127,4230.256348,4277.94873,4281.025879,450.0,3.0,59.0,,,,0.0,4.0,0.0,4.0,0.0,4.0,33.333332,,,,,,,,57.0,0.0,0.368371,0.5681149999999999,0.151123,-0.7202149999999999,0.938003,-0.210452,-0.31396999999999997,-0.016238,-0.050374,-0.033878,,,,,,,,,,,,,,,,,,,,,,,,,,,,,,,,,,,,,,,,,,,,,,,,,,,,,,,,,,,,,,,,,
26631,1645650805.7980618,115.0,0.0,4312.307617,4549.230957,4230.769043,4278.974121,4281.025879,16208.0,3.0,59.0,,,,0.0,4.0,0.0,4.0,0.0,4.0,33.333332,,,,,,,,,,,,,,,,,,,,,,,,,,,,,,,,,,,,,,,,,,,,,,,,,,,,,,0.0,0.0,1.0,0.0,128.0,0.965357,,,,,,,,,,,,,,,,,,,,,,,,,
26632,1645650805.805877,116.0,0.0,4330.769043,4596.922852000001,4235.897461,4279.487305,4296.410156,450.0,3.0,59.0,,,,0.0,4.0,0.0,4.0,0.0,4.0,33.333332,,,,,,,,58.0,0.0,0.368371,0.5681149999999999,0.151123,-0.7202149999999999,0.925307,-0.20703400000000002,-0.313481,-0.015396,-0.050366,-0.036252,,,,,,,,,,,,,,,,,,,,,,,,,,,,,,,,,,,,,,,,,,,,,,,,,,,,,,,,,,,,,,,,,
26633,1645650805.813691,117.0,0.0,4335.897461,4635.384765999999,4240.512695,4278.974121,4299.487305,450.0,3.0,59.0,,,,0.0,4.0,0.0,4.0,0.0,4.0,33.333332,,,,,,,,,,,,,,,,,,,,,,,,,,,,,,,,,,,,,,,,,,,,,,,,,,,,,,,,,,,,,,,,,,,,,,,,,,,,,,,,,,,,
26634,1645650805.821505,118.0,0.0,4314.358886999999,4629.743652,4223.077147999999,4279.487305,4284.102539,450.0,3.0,59.0,,,,0.0,4.0,0.0,4.0,0.0,4.0,33.333332,,,,,,,,59.0,0.0,0.367516,0.5683590000000001,0.151123,-0.720459,0.9365379999999999,-0.198245,-0.304204,-0.016005000000000002,-0.050358999999999994,-0.038291000000000006,,,,,,,,,,,,,,,,,,,,,,,,,,,,,,,,,,,,,,,,,,,,,,,,,,,,,,,,,,,,,,,,,
26635,1645650805.82932,119.0,0.0,4313.333496,4626.153809,4218.974121,4279.487305,4282.05127,16208.0,3.0,59.0,,,,0.0,4.0,0.0,4.0,0.0,4.0,33.333332,,,,,,,,,,,,,,,,,,,,,,,,,,,,,,,,,,,,,,,,,,,,,,,,,,,,,,0.0,0.0,1.0,0.0,128.0,0.965357,,,,,,,,,,,,,,,,,,,,,,,,,
26636,1645650805.837134,120.0,0.0,4328.717772999999,4643.077147999999,4211.794922,4280.0,4289.743652,450.0,3.0,59.0,,,,0.0,4.0,0.0,4.0,0.0,4.0,33.333332,,,,,,,,60.0,0.0,0.367516,0.5683590000000001,0.151123,-0.720459,0.937026,-0.20703400000000002,-0.317388,-0.016699000000000002,-0.050401,-0.040175,,,,,,,,,,,,,,,,,,,,,,,,,,,,,,,,,,,,,,,,,,,,,,,,,,,,,,,,,,,,,,,,,
26637,1645650805.844849,121.0,0.0,4313.333496,4671.794922,4206.666504,4278.461426,4277.436035,450.0,3.0,59.0,,,,0.0,4.0,0.0,4.0,0.0,4.0,33.333332,,,,,,,,,,,,,,,,,,,,,,,,,,,,,,,,,,,,,,,,,,,,,,,,,,,,,,,,,,,,,,,,,,,,,,,,,,,,,,,,,,,,
26638,1645650805.852663,122.0,0.0,4311.794922,4714.358886999999,4208.717772999999,4277.94873,4277.436035,450.0,3.0,59.0,,,,0.0,4.0,0.0,4.0,0.0,4.0,33.333332,,,,,,,,61.0,0.0,0.367894,0.5683590000000001,0.151367,-0.7202149999999999,0.93019,-0.204105,-0.31006300000000003,-0.015566,-0.050439,-0.041821,,,,,,,,,,,,,,,,,,,,,,,,,,,,,,,,,,,,,,,,,,,,,,,,,,,,,,,,,,,,,,,,,
26639,1645650805.860477,123.0,0.0,4327.692383,4727.179688,4206.153809,4279.487305,4277.94873,16208.0,3.0,59.0,,,,0.0,4.0,0.0,4.0,0.0,4.0,33.333332,,,,,,,,,,,,,,,,,,,,,,,,,,,,,,,,,,,,,,,,,,,,,,,,,,,,,,0.0,0.0,1.0,0.0,128.0,0.965357,,,,,,,,,,,,,,,,,,,,,,,,,
26640,1645650805.868292,124.0,0.0,4327.179688,4707.179688,4194.871582,4279.487305,4273.333496,450.0,3.0,59.0,,,,0.0,4.0,0.0,4.0,0.0,4.0,33.333332,,,,,,,,62.0,0.0,0.367894,0.5683590000000001,0.151367,-0.7202149999999999,0.9399559999999999,-0.20556999999999997,-0.309575,-0.016158000000000002,-0.050425,-0.037052999999999996,,,,,,,,,,,,,,,,,,,,,,,,,,,,,,,,,,,,,,,,,,,,,,,,,,,,,,,,,,,,,,,,,
26641,1645650805.876106,125.0,0.0,4304.615234000001,4731.282227000001,4184.102539,4277.436035,4264.615234000001,450.0,3.0,59.0,,,,0.0,4.0,0.0,4.0,0.0,4.0,33.333332,,,,,,,,,,,,,,,,,,,,,,,,,,,,,,,,,,,,,,,,,,,,,,,,,,,,,,,,,,,,,,,,,,,,,,,,,,,,,,,,,,,,
26642,1645650805.8839211,126.0,0.0,4301.025879,4698.974121,4195.897461,4277.94873,4263.589844,450.0,3.0,59.0,,,,0.0,4.0,0.0,4.0,0.0,4.0,33.333332,,,,,,,,63.0,0.0,0.367894,0.5683590000000001,0.151367,-0.7202149999999999,0.93019,-0.192874,-0.316899,-0.01674,-0.050461,-0.039061,,,,,,,,,,,,,,,,,,,,,,,,,,,,,,,,,,,,,,,,,,,,,,,,,,,,,,,,,,,,,,,,,
26643,1645650805.891735,127.0,0.0,4315.897461,4604.102539,4214.358886999999,4278.461426,4266.666504,235.0,3.0,59.0,,,,0.0,4.0,0.0,4.0,0.0,4.0,33.333332,,,,,,,,,,,,,,,,,,,,1.0,0.0,0.0,,,,,,,,,,,,,,,,,,,,,,,,,,,,,,,,0.0,0.0,1.0,0.0,1.0,0.0,1.718445,2.2351799999999997,0.755734,1.9175330000000002,3.156381,63.996754,17.1628,21.647923000000002,23.61113,21.117031,7.7901929999999995,4.762905,2.3113580000000002,2.941909,11.171776,0.039064999999999996,0.033085,0.017518000000000002,0.009572,0.008391,1.580276,1.6896970000000002,1.460641,1.361422,2.765851
26644,1645650805.89955,0.0,0.0,4334.358886999999,4585.641113000001,4242.05127,4279.487305,4288.717772999999,450.0,3.0,59.0,,,,0.0,4.0,0.0,4.0,0.0,4.0,33.333332,,,,,,,,0.0,0.0,0.36741599999999996,0.5683590000000001,0.151367,-0.720459,0.9404440000000001,-0.19677999999999998,-0.319341,-0.017312,-0.050444,-0.034667,,,,,,,,,,,,,,,,,,,,,,,,,,,,,,,,,,,,,,,,,,,,,,,,,,,,,,,,,,,,,,,,,
26645,1645650805.9073641,1.0,0.0,4323.077147999999,4638.461426,4226.666504,4280.0,4292.820313,450.0,3.0,59.0,,,,0.0,4.0,0.0,4.0,0.0,4.0,33.333332,,,,,,,,,,,,,,,,,,,,,,,,,,,,,,,,,,,,,,,,,,,,,,,,,,,,,,,,,,,,,,,,,,,,,,,,,,,,,,,,,,,,
26646,1645650805.9151778,2.0,0.0,4312.820313,4648.205078,4214.871582,4279.487305,4286.666504,16219.0,3.0,59.0,,,,0.0,4.0,0.0,4.0,0.0,4.0,33.333332,,,,,,,,1.0,0.0,0.36799499999999996,0.5683590000000001,0.151123,-0.7202149999999999,0.948257,-0.2168,-0.31299299999999997,-0.017827000000000003,-0.050429,-0.030565,,,,,,,,,,,,,,,,,,,,,,,,,,,,,,,,,,,,,,,,,,,,,,,,,,,,,,,,,,,,,,,,,
26647,1645650805.922893,3.0,0.0,4329.230957,4609.230957,4220.512695,4278.974121,4300.512695,450.0,3.0,59.0,,,,0.0,4.0,0.0,4.0,0.0,4.0,33.333332,,,,,,,,,,,,,,,,,,,,,,,,,,,,,,,,,,,,,,,,,,,,,,,,,,,,,,0.0,0.0,1.0,0.0,1.0,0.0,,,,,,,,,,,,,,,,,,,,,,,,,
26648,1645650805.930707,4.0,0.0,4334.871582,4622.563965,4239.487305,4280.0,4303.077147999999,0.0,3.0,59.0,,,,0.0,4.0,0.0,4.0,0.0,4.0,33.333332,,,,,,,,2.0,0.0,0.367516,0.5683590000000001,0.151123,-0.720459,0.9355610000000001,-0.207523,-0.30811,-0.016679,-0.050366,-0.033124,,,,,,,,,,,,,,,,,,,,,,,,,,,,,,,,,,,,,,,,,,,,,,,,,,,,,,,,,,,,,,,,,
26649,1645650805.938522,5.0,0.0,4317.436035,4627.179688,4219.487305,4279.487305,4281.538574,450.0,3.0,59.0,,,,0.0,4.0,0.0,4.0,0.0,4.0,33.333332,,,,,,,,,,,,,,,,,,,,,,,,,,,,,,,,,,,,,,,,,,,,,,,,,,,,,,,,,,,,,,,,,,,,,,,,,,,,,,,,,,,,
26650,1645650805.946336,6.0,0.0,4304.102539,4603.589844,4204.615234000001,4278.461426,4280.512695,16180.0,3.0,59.0,,,,0.0,4.0,0.0,4.0,0.0,4.0,33.333332,,,,,,,,3.0,0.0,0.367617,0.5683590000000001,0.15087899999999999,-0.720459,0.932631,-0.198734,-0.308598,-0.015792,-0.050262,-0.035378,,,,,,,,,,,,,,,,,,,,,,,,,,,,,,,,,,,,,,,,,,,,,,,,,,,,,,,,,,,,,,,,,
26651,1645650805.95415,7.0,0.0,4318.974121,4622.563965,4211.794922,4279.487305,4295.384765999999,450.0,3.0,59.0,,,,0.0,4.0,0.0,4.0,0.0,4.0,33.333332,,,,,,,,,,,,,,,,,,,,,,,,,,,,,,,,,,,,,,,,,,,,,,,,,,,,,,0.0,0.0,1.0,0.0,1.0,0.0,,,,,,,,,,,,,,,,,,,,,,,,,
26652,1645650805.961965,8.0,0.0,4331.282227000001,4637.436035,4222.05127,4279.487305,4285.128418,450.0,3.0,59.0,,,,0.0,4.0,0.0,4.0,0.0,4.0,33.333332,,,,,,,,4.0,0.0,0.367617,0.5683590000000001,0.15087899999999999,-0.720459,0.937026,-0.201663,-0.314458,-0.015839,-0.050131,-0.039330000000000004,,,,,,,,,,,,,,,,,,,,,,,,,,,,,,,,,,,,,,,,,,,,,,,,,,,,,,,,,,,,,,,,,
26653,1645650805.969779,9.0,0.0,4331.794922,4611.282227000001,4215.384765999999,4278.974121,4276.922852000001,0.0,3.0,59.0,,,,0.0,4.0,0.0,4.0,0.0,4.0,33.333332,,,,,,,,,,,,,,,,,,,,,,,,,,,,,,,,,,,,,,,,,,,,,,,,,,,,,,,,,,,,,,,,,,,,,,,,,,,,,,,,,,,,
26654,1645650805.977494,10.0,0.0,4328.717772999999,4631.794922,4214.358886999999,4280.512695,4276.922852000001,450.0,3.0,59.0,,,,0.0,4.0,0.0,4.0,0.0,4.0,33.333332,,,,,,,,5.0,0.0,0.368095,0.5683590000000001,0.15087899999999999,-0.7202149999999999,0.9487450000000001,-0.20361600000000002,-0.30811,-0.01655,-0.050294,-0.040915,,,,,,,,,,,,,,,,,,,,,,,,,,,,,,,,,,,,,,,,,,,,,,,,,,,,,,,,,,,,,,,,,
26655,1645650805.985308,11.0,0.0,4327.179688,4714.358886999999,4221.538574,4281.538574,4285.128418,16211.0,3.0,59.0,,,,0.0,4.0,0.0,4.0,0.0,4.0,33.333332,,,,,,,,,,,,,,,,,,,,,,,,,,,,,,,,,,,,,,,,,,,,,,,,,,,,,,0.0,0.0,1.0,0.0,1.0,0.0,,,,,,,,,,,,,,,,,,,,,,,,,
26656,1645650805.993123,12.0,0.0,4306.153809,4738.974121,4216.922852000001,4281.025879,4271.282227000001,450.0,3.0,59.0,,,,0.0,4.0,0.0,4.0,0.0,4.0,33.333332,,,,,,,,6.0,0.0,0.367718,0.568604,0.15087899999999999,-0.7202149999999999,0.945327,-0.212894,-0.313481,-0.017092,-0.050343,-0.036286,,,,,,,,,,,,,,,,,,,,,,,,,,,,,,,,,,,,,,,,,,,,,,,,,,,,,,,,,,,,,,,,,
26657,1645650806.000937,13.0,0.0,4299.487305,4689.230957,4208.717772999999,4280.0,4264.615234000001,450.0,3.0,59.0,,,,0.0,4.0,0.0,4.0,0.0,4.0,33.333332,,,,,,,,,,,,,,,,,,,,,,,,,,,,,,,,,,,,,,,,,,,,,,,,,,,,,,,,,,,,,,,,,,,,,,,,,,,,,,,,,,,,
26658,1645650806.008751,14.0,0.0,4322.563965,4706.153809,4218.461426,4280.512695,4295.384765999999,450.0,3.0,59.0,,,,0.0,4.0,0.0,4.0,0.0,4.0,33.333332,,,,,,,,7.0,0.0,0.367718,0.568604,0.15087899999999999,-0.7202149999999999,0.941909,-0.18945599999999999,-0.307134,-0.016066,-0.050386,-0.038370999999999995,,,,,,,,,,,,,,,,,,,,,,,,,,,,,,,,,,,,,,,,,,,,,,,,,,,,,,,,,,,,,,,,,
26659,1645650806.016566,15.0,0.0,4354.358886999999,4775.897461,4241.538574,4281.025879,4324.615234000001,16211.0,3.0,59.0,,,,0.0,4.0,0.0,4.0,0.0,4.0,33.333332,,,,,,,,,,,,,,,,,,,,1.0,0.0,0.0,,,,,,,,,,,,,,,,,,,,,,,,,,,,,,,,0.0,0.0,1.0,0.0,1.0,0.0,1.9210740000000002,2.496948,0.7879619999999999,1.6609650000000002,2.152542,62.79084399999999,17.644297,20.243528,21.647526,17.610813,6.594956,4.019815,1.749266,2.083939,6.986672,0.025566,0.020849,0.013208000000000001,0.006862,0.006519,1.498477,1.6550259999999999,1.327756,1.386654,1.8447779999999998
26660,1645650806.02438,16.0,0.0,4335.897461,4776.410156,4218.974121,4279.487305,4291.282227000001,0.0,3.0,59.0,,,,0.0,4.0,0.0,4.0,0.0,4.0,33.333332,,,,,,,,8.0,0.0,0.367718,0.568604,0.15087899999999999,-0.7202149999999999,0.938491,-0.211429,-0.332036,-0.016656999999999998,-0.050475,-0.040149000000000004,,,,,,,,,,,,,,,,,,,,,,,,,,,,,,,,,,,,,,,,,,,,,,,,,,,,,,,,,,,,,,,,,
26661,1645650806.0321949,17.0,0.0,4307.179688,4698.461426,4212.307617,4278.974121,4267.692383,0.0,3.0,59.0,,,,0.0,4.0,0.0,4.0,0.0,4.0,33.333332,,,,,,,,,,,,,,,,,,,,,,,,,,,,,,,,,,,,,,,,,,,,,,,,,,,,,,,,,,,,,,,,,,,,,,,,,,,,,,,,,,,,
26662,1645650806.040009,18.0,0.0,4312.307617,4654.358886999999,4227.179688,4279.487305,4288.205078,0.0,3.0,59.0,,,,0.0,4.0,0.0,4.0,0.0,4.0,33.333332,,,,,,,,9.0,0.0,0.368195,0.568604,0.15087899999999999,-0.719971,0.9506979999999999,-0.21240599999999998,-0.316899,-0.017286000000000003,-0.050554,-0.041749,,,,,,,,,,,,,,,,,,,,,,,,,,,,,,,,,,,,,,,,,,,,,,,,,,,,,,,,,,,,,,,,,
26663,1645650806.047823,19.0,0.0,4325.641113000001,4637.94873,4248.205078,4280.512695,4295.384765999999,0.0,3.0,59.0,,,,0.0,4.0,0.0,4.0,0.0,4.0,33.333332,,,,,,,,,,,,,,,,,,,,,,,,,,,,,,,,,,,,,,,,,,,,,,,,,,,,,,0.0,0.0,1.0,0.0,1.0,0.0,,,,,,,,,,,,,,,,,,,,,,,,,
26664,1645650806.0555382,20.0,0.0,4322.563965,4593.846191,4236.922852000001,4280.512695,4289.743652,0.0,3.0,59.0,,,,0.0,4.0,0.0,4.0,0.0,4.0,33.333332,,,,,,,,10.0,0.0,0.368195,0.568604,0.15087899999999999,-0.719971,0.9399559999999999,-0.20703400000000002,-0.304692,-0.017902,-0.050577,-0.036988,,,,,,,,,,,,,,,,,,,,,,,,,,,,,,,,,,,,,,,,,,,,,,,,,,,,,,,,,,,,,,,,,
26665,1645650806.0633519,21.0,0.0,4315.897461,4568.205078,4232.307617,4279.487305,4289.743652,0.0,3.0,59.0,,,,0.0,4.0,0.0,4.0,0.0,4.0,33.333332,,,,,,,,,,,,,,,,,,,,,,,,,,,,,,,,,,,,,,,,,,,,,,,,,,,,,,,,,,,,,,,,,,,,,,,,,,,,,,,,,,,,
26666,1645650806.071167,22.0,0.0,4322.05127,4570.769043,4230.256348,4278.974121,4285.128418,0.0,3.0,59.0,,,,0.0,4.0,0.0,4.0,0.0,4.0,33.333332,,,,,,,,11.0,0.0,0.368195,0.568604,0.15087899999999999,-0.719971,0.941421,-0.20361600000000002,-0.324712,-0.018455000000000003,-0.050549000000000004,-0.039002999999999996,,,,,,,,,,,,,,,,,,,,,,,,,,,,,,,,,,,,,,,,,,,,,,,,,,,,,,,,,,,,,,,,,
26667,1645650806.0789812,23.0,0.0,4318.974121,4601.538574,4232.307617,4279.487305,4283.077147999999,0.0,3.0,59.0,,,,0.0,4.0,0.0,4.0,0.0,4.0,33.333332,,,,,,,,,,,,,,,,,,,,,,,,,,,,,,,,,,,,,,,,,,,,,,,,,,,,,,0.0,0.0,1.0,0.0,1.0,0.0,,,,,,,,,,,,,,,,,,,,,,,,,
26668,1645650806.086796,24.0,0.0,4313.333496,4649.230957,4219.487305,4280.0,4283.589844,0.0,3.0,59.0,,,,0.0,4.0,0.0,4.0,0.0,4.0,33.333332,,,,,,,,12.0,0.0,0.368195,0.568604,0.15087899999999999,-0.719971,0.945815,-0.210941,-0.31396999999999997,-0.018856,-0.050523,-0.040864,,,,,,,,,,,,,,,,,,,,,,,,,,,,,,,,,,,,,,,,,,,,,,,,,,,,,,,,,,,,,,,,,
26669,1645650806.09461,25.0,0.0,4310.769043,4670.769043,4213.846191,4278.461426,4268.205078,0.0,3.0,59.0,,,,0.0,4.0,0.0,4.0,0.0,4.0,33.333332,,,,,,,,,,,,,,,,,,,,,,,,,,,,,,,,,,,,,,,,,,,,,,,,,,,,,,,,,,,,,,,,,,,,,,,,,,,,,,,,,,,,
26670,1645650806.102424,26.0,0.0,4330.256348,4658.974121,4231.794922,4278.461426,4286.153809,0.0,3.0,59.0,,,,0.0,4.0,0.0,4.0,0.0,4.0,33.333332,,,,,,,,13.0,0.0,0.368295,0.5688479999999999,0.15087899999999999,-0.719727,0.946792,-0.19971,-0.31104,-0.019313999999999998,-0.050549000000000004,-0.036143,,,,,,,,,,,,,,,,,,,,,,,,,,,,,,,,,,,,,,,,,,,,,,,,,,,,,,,,,,,,,,,,,
26671,1645650806.110239,27.0,0.0,4345.128418,4647.179688,4240.512695,4280.0,4296.922852000001,0.0,3.0,59.0,,,,0.0,4.0,0.0,4.0,0.0,4.0,33.333332,,,,,,,,,,,,,,,,,,,,,,,,,,,,,,,,,,,,,,,,,,,,,,,,,,,,,,0.0,0.0,1.0,0.0,1.0,0.0,,,,,,,,,,,,,,,,,,,,,,,,,
26672,1645650806.1181529,28.0,0.0,4335.897461,4629.230957,4235.897461,4280.0,4274.871582,0.0,3.0,59.0,,,,0.0,4.0,0.0,4.0,0.0,4.0,33.333332,,,,,,,,14.0,0.0,0.368295,0.5688479999999999,0.15087899999999999,-0.719727,0.9433739999999999,-0.21240599999999998,-0.304204,-0.018017,-0.05067,-0.03204,,,,,,,,,,,,,,,,,,,,,,,,,,,,,,,,,,,,,,,,,,,,,,,,,,,,,,,,,,,,,,,,,
26673,1645650806.125968,29.0,0.0,4311.282227000001,4597.436035,4227.692383,4280.0,4260.512695,0.0,3.0,59.0,,,,0.0,4.0,0.0,4.0,0.0,4.0,33.333332,,,,,,,,,,,,,,,,,,,,,,,,,,,,,,,,,,,,,,,,,,,,,,,,,,,,,,,,,,,,,,,,,,,,,,,,,,,,,,,,,,,,
26674,1645650806.1337821,30.0,0.0,4312.820313,4619.487305,4224.615234000001,4280.0,4273.846191,0.0,3.0,59.0,,,,0.0,4.0,0.0,4.0,0.0,4.0,33.333332,,,,,,,,15.0,0.0,0.368295,0.5688479999999999,0.15087899999999999,-0.719727,0.9272600000000001,-0.198734,-0.309575,-0.016947999999999998,-0.050828,-0.034354,,,,,,,,,,,,,,,,,,,,,,,,,,,,,,,,,,,,,,,,,,,,,,,,,,,,,,,,,,,,,,,,,
26675,1645650806.141596,31.0,0.0,4323.077147999999,4661.025879,4213.846191,4278.974121,4270.256348,0.0,3.0,59.0,,,,0.0,4.0,0.0,4.0,0.0,4.0,33.333332,0.972656,8.333333,3.0,0.0,1.0,0.0,3.0,,,,,,,,,,,,,1.0,0.0,0.0,,,,,,,,,,,,,,,,,,,,,,,,,,,,,,,,0.0,0.0,1.0,0.0,128.0,0.937917,2.353565,2.734658,0.818311,1.53451,1.4373690000000001,61.480228000000004,19.579317,19.197575,21.162664000000003,14.223478,5.336323999999999,3.682551,1.454215,1.55312,3.712391,0.015369999999999998,0.011483,0.009840999999999999,0.005,0.005603,1.545549,1.675918,1.280628,1.482828,1.1814790000000002
26676,1645650806.149411,32.0,0.0,4319.487305,4672.820313,4203.077147999999,4278.974121,4258.461426,0.0,3.0,59.0,,,,0.0,4.0,0.0,4.0,0.0,4.0,33.333332,,,,,,,,16.0,0.0,0.368295,0.5688479999999999,0.15087899999999999,-0.719727,0.947768,-0.222171,-0.307622,-0.015937,-0.050726,-0.036534,,,,,,,,,,,,,,,,,,,,,,,,,,,,,,,,,,,,,,,,,,,,,,,,,,,,,,,,,,,,,,,,,
26677,1645650806.157225,33.0,0.0,4308.717772999999,4671.282227000001,4190.256348,4279.487305,4250.769043,0.0,3.0,59.0,,,,0.0,4.0,0.0,4.0,0.0,4.0,33.333332,,,,,,,,,,,,,,,,,,,,,,,,,,,,,,,,,,,,,,,,,,,,,,,,,,,,,,,,,,,,,,,,,,,,,,,,,,,,,,,,,,,,
26678,1645650806.16504,34.0,0.0,4315.384765999999,4640.512695,4224.615234000001,4279.487305,4260.512695,0.0,3.0,59.0,,,,0.0,4.0,0.0,4.0,0.0,4.0,33.333332,,,,,,,,17.0,0.0,0.368295,0.5688479999999999,0.15087899999999999,-0.719727,0.9433739999999999,-0.21240599999999998,-0.304204,-0.014929,-0.050682,-0.038593,,,,,,,,,,,,,,,,,,,,,,,,,,,,,,,,,,,,,,,,,,,,,,,,,,,,,,,,,,,,,,,,,
26679,1645650806.172854,35.0,0.0,4314.871582,4605.128418,4248.205078,4277.94873,4269.743652,0.0,3.0,59.0,,,,0.0,4.0,0.0,4.0,0.0,4.0,33.333332,,,,,,,,,,,,,,,,,,,,,,,,,,,,,,,,,,,,,,,,,,,,,,,,,,,,,,0.0,0.0,1.0,0.0,128.0,0.937917,,,,,,,,,,,,,,,,,,,,,,,,,
26680,1645650806.1806679,36.0,0.0,4306.666504,4658.461426,4235.384765999999,4278.974121,4262.05127,0.0,3.0,59.0,,,,0.0,4.0,0.0,4.0,0.0,4.0,33.333332,,,,,,,,18.0,0.0,0.368295,0.5688479999999999,0.15087899999999999,-0.719727,0.947768,-0.222171,-0.307622,-0.014119999999999999,-0.050595,-0.040349,,,,,,,,,,,,,,,,,,,,,,,,,,,,,,,,,,,,,,,,,,,,,,,,,,,,,,,,,,,,,,,,,
26681,1645650806.188483,37.0,0.0,4308.717772999999,4707.692383,4213.846191,4279.487305,4256.410156,0.0,3.0,59.0,,,,0.0,4.0,0.0,4.0,0.0,4.0,33.333332,,,,,,,,,,,,,,,,,,,,,,,,,,,,,,,,,,,,,,,,,,,,,,,,,,,,,,,,,,,,,,,,,,,,,,,,,,,,,,,,,,,,
26682,1645650806.1962972,38.0,0.0,4319.487305,4749.743652,4225.641113000001,4278.974121,4257.94873,0.0,3.0,59.0,,,,0.0,4.0,0.0,4.0,0.0,4.0,33.333332,,,,,,,,19.0,0.0,0.368295,0.5688479999999999,0.15087899999999999,-0.719727,0.9428850000000001,-0.215824,-0.31006300000000003,-0.014953999999999999,-0.050516000000000005,-0.035924,,,,,,,,,,,,,,,,,,,,,,,,,,,,,,,,,,,,,,,,,,,,,,,,,,,,,,,,,,,,,,,,,
26683,1645650806.204012,39.0,0.0,4320.0,4771.794922,4216.410156,4278.461426,4257.436035,0.0,3.0,59.0,,,,0.0,4.0,0.0,4.0,0.0,4.0,33.333332,,,,,,,,,,,,,,,,,,,,,,,,,,,,,,,,,,,,,,,,,,,,,,,,,,,,,,0.0,0.0,1.0,0.0,128.0,0.937917,,,,,,,,,,,,,,,,,,,,,,,,,
26684,1645650806.211826,40.0,0.0,4311.794922,4702.05127,4209.743652,4279.487305,4256.410156,0.0,3.0,59.0,,,,0.0,4.0,0.0,4.0,0.0,4.0,33.333332,,,,,,,,20.0,0.0,0.368295,0.5688479999999999,0.15087899999999999,-0.719727,0.9438620000000001,-0.21484699999999998,-0.319829,-0.015802,-0.050542000000000004,-0.038044,,,,,,,,,,,,,,,,,,,,,,,,,,,,,,,,,,,,,,,,,,,,,,,,,,,,,,,,,,,,,,,,,
26685,1645650806.219641,41.0,0.0,4322.563965,4709.230957,4217.436035,4280.0,4267.692383,0.0,3.0,59.0,,,,0.0,4.0,0.0,4.0,0.0,4.0,33.333332,,,,,,,,,,,,,,,,,,,,,,,,,,,,,,,,,,,,,,,,,,,,,,,,,,,,,,,,,,,,,,,,,,,,,,,,,,,,,,,,,,,,
26686,1645650806.2274551,42.0,0.0,4317.436035,4734.871582,4225.641113000001,4280.0,4266.666504,0.0,3.0,59.0,,,,0.0,4.0,0.0,4.0,0.0,4.0,33.333332,,,,,,,,21.0,0.0,0.368295,0.5688479999999999,0.15087899999999999,-0.719727,0.94435,-0.208011,-0.321782,-0.016615,-0.050566,-0.039952999999999995,,,,,,,,,,,,,,,,,,,,,,,,,,,,,,,,,,,,,,,,,,,,,,,,,,,,,,,,,,,,,,,,,
26687,1645650806.2352688,43.0,0.0,4310.769043,4671.282227000001,4220.0,4279.487305,4270.769043,0.0,3.0,59.0,,,,0.0,4.0,0.0,4.0,0.0,4.0,33.333332,,,,,,,,,,,,,,,,,,,,,,,,,,,,,,,,,,,,,,,,,,,,,,,,,,,,,,0.0,0.0,1.0,0.0,128.0,0.937917,,,,,,,,,,,,,,,,,,,,,,,,,
26688,1645650806.243084,44.0,0.0,4311.282227000001,4657.94873,4216.922852000001,4277.94873,4276.922852000001,0.0,3.0,59.0,,,,0.0,4.0,0.0,4.0,0.0,4.0,33.333332,,,,,,,,22.0,0.0,0.368295,0.5688479999999999,0.15087899999999999,-0.719727,0.946792,-0.203128,-0.316899,-0.017199000000000002,-0.050588,-0.041768,,,,,,,,,,,,,,,,,,,,,,,,,,,,,,,,,,,,,,,,,,,,,,,,,,,,,,,,,,,,,,,,,
26689,1645650806.2508981,45.0,0.0,4318.974121,4701.538574,4240.512695,4278.974121,4287.692383,0.0,3.0,59.0,,,,0.0,4.0,0.0,4.0,0.0,4.0,33.333332,,,,,,,,,,,,,,,,,,,,,,,,,,,,,,,,,,,,,,,,,,,,,,,,,,,,,,,,,,,,,,,,,,,,,,,,,,,,,,,,,,,,
26690,1645650806.258713,46.0,0.0,4302.563965,4662.563965,4245.128418,4280.512695,4275.897461,0.0,3.0,59.0,,,,0.0,4.0,0.0,4.0,0.0,4.0,33.333332,,,,,,,,23.0,0.0,0.368772,0.5688479999999999,0.15087899999999999,-0.719482,0.939467,-0.203128,-0.315923,-0.017823,-0.050559,-0.037103,,,,,,,,,,,,,,,,,,,,,,,,,,,,,,,,,,,,,,,,,,,,,,,,,,,,,,,,,,,,,,,,,
26691,1645650806.266527,47.0,0.0,4303.077147999999,4632.820313,4243.077147999999,4278.974121,4270.769043,0.0,3.0,59.0,,,,0.0,4.0,0.0,4.0,0.0,4.0,33.333332,,,,,,,,,,,,,,,,,,,,1.0,0.0,0.0,,,,,,,,,,,,,,,,,,,,,,,,,,,,,,,,0.0,0.0,1.0,0.0,128.0,1.0,2.928003,2.833621,0.820097,1.545487,1.102064,62.946723999999996,23.419806,18.919408999999998,21.963625,11.500125,4.322984,3.718817,1.460194,1.325687,1.807448,0.009766,0.0061600000000000005,0.007951,0.0041340000000000005,0.005587,1.718209,1.694752,1.266701,1.609449,0.853195
26692,1645650806.274241,48.0,0.0,4319.487305,4661.538574,4236.922852000001,4278.461426,4285.128418,0.0,3.0,59.0,,,,0.0,4.0,0.0,4.0,0.0,4.0,33.333332,,,,,,,,24.0,0.0,0.368395,0.569092,0.15087899999999999,-0.719482,0.945815,-0.204593,-0.31201599999999996,-0.018238,-0.050581,-0.032806999999999996,,,,,,,,,,,,,,,,,,,,,,,,,,,,,,,,,,,,,,,,,,,,,,,,,,,,,,,,,,,,,,,,,
26693,1645650806.282056,49.0,0.0,4311.282227000001,4581.025879,4243.077147999999,4280.512695,4288.205078,0.0,3.0,59.0,,,,0.0,4.0,0.0,4.0,0.0,4.0,33.333332,,,,,,,,,,,,,,,,,,,,,,,,,,,,,,,,,,,,,,,,,,,,,,,,,,,,,,,,,,,,,,,,,,,,,,,,,,,,,,,,,,,,
26694,1645650806.28987,50.0,0.0,4300.0,4527.692383,4240.512695,4281.025879,4278.974121,0.0,3.0,59.0,,,,0.0,4.0,0.0,4.0,0.0,4.0,33.333332,,,,,,,,25.0,0.0,0.368395,0.569092,0.15087899999999999,-0.719482,0.9433739999999999,-0.201663,-0.31299299999999997,-0.018709,-0.050552,-0.029037999999999998,,,,,,,,,,,,,,,,,,,,,,,,,,,,,,,,,,,,,,,,,,,,,,,,,,,,,,,,,,,,,,,,,
26695,1645650806.297685,51.0,0.0,4305.641113000001,4576.410156,4256.410156,4280.512695,4289.230957,0.0,3.0,59.0,,,,0.0,4.0,0.0,4.0,0.0,4.0,33.333332,,,,,,,,,,,,,,,,,,,,,,,,,,,,,,,,,,,,,,,,,,,,,,,,,,,,,,0.0,0.0,1.0,0.0,128.0,1.0,,,,,,,,,,,,,,,,,,,,,,,,,
26696,1645650806.305499,52.0,0.0,4298.974121,4618.974121,4234.871582,4278.974121,4281.025879,0.0,3.0,59.0,,,,0.0,4.0,0.0,4.0,0.0,4.0,33.333332,,,,,,,,26.0,0.0,0.368395,0.569092,0.15087899999999999,-0.719482,0.9399559999999999,-0.208011,-0.303716,-0.019133,-0.050526,-0.031847,,,,,,,,,,,,,,,,,,,,,,,,,,,,,,,,,,,,,,,,,,,,,,,,,,,,,,,,,,,,,,,,,
26697,1645650806.313314,53.0,0.0,4280.0,4648.205078,4204.102539,4277.94873,4252.820313,0.0,3.0,59.0,,,,0.0,4.0,0.0,4.0,0.0,4.0,33.333332,,,,,,,,,,,,,,,,,,,,,,,,,,,,,,,,,,,,,,,,,,,,,,,,,,,,,,,,,,,,,,,,,,,,,,,,,,,,,,,,,,,,
26698,1645650806.321128,54.0,0.0,4297.94873,4638.461426,4218.461426,4280.0,4270.769043,0.0,3.0,59.0,,,,0.0,4.0,0.0,4.0,0.0,4.0,33.333332,,,,,,,,27.0,0.0,0.368672,0.5688479999999999,0.151123,-0.719482,0.9404440000000001,-0.20361600000000002,-0.319341,-0.019515,-0.050503,-0.028125,,,,,,,,,,,,,,,,,,,,,,,,,,,,,,,,,,,,,,,,,,,,,,,,,,,,,,,,,,,,,,,,,
26699,1645650806.328942,55.0,0.0,4334.871582,4634.871582,4256.922852000001,4281.538574,4304.102539,0.0,3.0,59.0,,,,0.0,4.0,0.0,4.0,0.0,4.0,33.333332,,,,,,,,,,,,,,,,,,,,,,,,,,,,,,,,,,,,,,,,,,,,,,,,,,,,,,0.0,0.0,1.0,0.0,128.0,1.0,,,,,,,,,,,,,,,,,,,,,,,,,
26700,1645650806.336657,56.0,0.0,4344.102539,4655.897461,4251.794922,4280.0,4307.179688,0.0,3.0,59.0,,,,0.0,4.0,0.0,4.0,0.0,4.0,33.333332,,,,,,,,28.0,0.0,0.368672,0.5688479999999999,0.151123,-0.719482,0.938491,-0.20508099999999999,-0.314458,-0.019761,-0.050433,-0.031075,,,,,,,,,,,,,,,,,,,,,,,,,,,,,,,,,,,,,,,,,,,,,,,,,,,,,,,,,,,,,,,,,
26701,1645650806.344471,57.0,0.0,4323.077147999999,4628.205078,4232.820313,4278.974121,4287.179688,0.0,3.0,59.0,,,,0.0,4.0,0.0,4.0,0.0,4.0,33.333332,,,,,,,,,,,,,,,,,,,,,,,,,,,,,,,,,,,,,,,,,,,,,,,,,,,,,,,,,,,,,,,,,,,,,,,,,,,,,,,,,,,,
26702,1645650806.3522859,58.0,0.0,4322.563965,4588.205078,4232.820313,4280.512695,4287.692383,0.0,3.0,59.0,,,,0.0,4.0,0.0,4.0,0.0,4.0,33.333332,,,,,,,,29.0,0.0,0.368672,0.5688479999999999,0.151123,-0.719482,0.945815,-0.22607800000000003,-0.318364,-0.018419,-0.050419,-0.03368,,,,,,,,,,,,,,,,,,,,,,,,,,,,,,,,,,,,,,,,,,,,,,,,,,,,,,,,,,,,,,,,,
26703,1645650806.3601,59.0,0.0,4341.538574,4636.410156,4252.820313,4281.538574,4297.436035,0.0,3.0,59.0,,,,0.0,4.0,0.0,4.0,0.0,4.0,33.333332,,,,,,,,,,,,,,,,,,,,,,,,,,,,,,,,,,,,,,,,,,,,,,,,,,,,,,0.0,0.0,1.0,0.0,128.0,1.0,,,,,,,,,,,,,,,,,,,,,,,,,
26704,1645650806.367914,60.0,0.0,4353.846191,4671.794922,4268.205078,4281.025879,4305.641113000001,0.0,3.0,59.0,,,,0.0,4.0,0.0,4.0,0.0,4.0,33.333332,,,,,,,,30.0,0.0,0.368672,0.5688479999999999,0.151123,-0.719482,0.9350729999999999,-0.21386999999999998,-0.308598,-0.017212,-0.050504,-0.035927,,,,,,,,,,,,,,,,,,,,,,,,,,,,,,,,,,,,,,,,,,,,,,,,,,,,,,,,,,,,,,,,,
26705,1645650806.3757288,61.0,0.0,4333.333496,4585.641113000001,4256.922852000001,4279.487305,4293.846191,0.0,3.0,59.0,,,,0.0,4.0,0.0,4.0,0.0,4.0,33.333332,,,,,,,,,,,,,,,,,,,,,,,,,,,,,,,,,,,,,,,,,,,,,,,,,,,,,,,,,,,,,,,,,,,,,,,,,,,,,,,,,,,,
26706,1645650806.383543,62.0,0.0,4321.538574,4561.025879,4254.871582,4278.461426,4288.205078,0.0,3.0,59.0,,,,0.0,4.0,0.0,4.0,0.0,4.0,33.333332,,,,,,,,31.0,0.0,0.368672,0.5688479999999999,0.151123,-0.719482,0.940932,-0.203128,-0.309087,-0.017737,-0.050435,-0.037999,,,,,,,,,,,,,,,,,,,,,,,,,,,,,,,,,,,,,,,,,,,,,,,,,,,,,,,,,,,,,,,,,
26707,1645650806.391358,63.0,0.0,4320.0,4608.205078,4253.333496,4280.512695,4282.563965,0.0,3.0,59.0,,,,0.0,4.0,0.0,4.0,0.0,4.0,33.333332,,,,,,,,,,,,,,,,,,,,1.0,0.0,0.0,,,,,,,,,,,,,,,,,,,,,,,,,,,,,,,,0.0,0.0,1.0,0.0,128.0,0.986187,3.4467839999999996,2.729653,0.781871,1.6496419999999998,1.066186,67.668533,29.040031,19.606428,23.175037,9.579636,3.705607,3.933474,1.6750759999999998,1.26604,1.0737,0.007911,0.004106,0.007268000000000001,0.004024,0.0060420000000000005,1.947482,1.68877,1.223315,1.718445,0.792044
26708,1645650806.399172,64.0,0.0,4322.563965,4564.615234000001,4262.563965,4281.538574,4291.794922,450.0,3.0,59.0,,,,0.0,4.0,0.0,4.0,0.0,4.0,33.333332,,,,,,,,32.0,0.0,0.36857199999999996,0.5688479999999999,0.151367,-0.719482,0.941909,-0.210452,-0.325689,-0.01821,-0.050469,-0.039813999999999995,,,,,,,,,,,,,,,,,,,,,,,,,,,,,,,,,,,,,,,,,,,,,,,,,,,,,,,,,,,,,,,,,
26709,1645650806.4068868,65.0,0.0,4324.615234000001,4542.563965,4256.922852000001,4280.512695,4301.538574,450.0,3.0,59.0,,,,0.0,4.0,0.0,4.0,0.0,4.0,33.333332,,,,,,,,,,,,,,,,,,,,,,,,,,,,,,,,,,,,,,,,,,,,,,,,,,,,,,,,,,,,,,,,,,,,,,,,,,,,,,,,,,,,
26710,1645650806.414801,66.0,0.0,4323.589844,4588.717772999999,4254.358886999999,4278.974121,4298.461426,16233.0,3.0,59.0,,,,0.0,4.0,0.0,4.0,0.0,4.0,33.333332,,,,,,,,33.0,0.0,0.36857199999999996,0.5688479999999999,0.151367,-0.719482,0.952651,-0.20361600000000002,-0.313481,-0.017121,-0.050549000000000004,-0.041595,,,,,,,,,,,,,,,,,,,,,,,,,,,,,,,,,,,,,,,,,,,,,,,,,,,,,,,,,,,,,,,,,
26711,1645650806.422615,67.0,0.0,4315.897461,4609.743652,4245.641113000001,4278.461426,4288.717772999999,450.0,3.0,59.0,,,,0.0,4.0,0.0,4.0,0.0,4.0,33.333332,,,,,,,,,,,,,,,,,,,,,,,,,,,,,,,,,,,,,,,,,,,,,,,,,,,,,,0.0,0.0,1.0,0.0,128.0,0.986187,,,,,,,,,,,,,,,,,,,,,,,,,
26712,1645650806.43033,68.0,0.0,4311.282227000001,4592.307617,4254.871582,4279.487305,4285.641113000001,0.0,3.0,59.0,,,,0.0,4.0,0.0,4.0,0.0,4.0,33.333332,,,,,,,,34.0,0.0,0.36857199999999996,0.5688479999999999,0.151367,-0.719482,0.941909,-0.206546,-0.30225100000000005,-0.017655,-0.05067,-0.036703,,,,,,,,,,,,,,,,,,,,,,,,,,,,,,,,,,,,,,,,,,,,,,,,,,,,,,,,,,,,,,,,,
26713,1645650806.4382439,69.0,0.0,4319.487305,4593.846191,4242.05127,4279.487305,4291.282227000001,450.0,3.0,59.0,,,,0.0,4.0,0.0,4.0,0.0,4.0,33.333332,,,,,,,,,,,,,,,,,,,,,,,,,,,,,,,,,,,,,,,,,,,,,,,,,,,,,,,,,,,,,,,,,,,,,,,,,,,,,,,,,,,,
26714,1645650806.446059,70.0,0.0,4324.102539,4585.128418,4235.384765999999,4278.974121,4291.794922,16170.0,3.0,59.0,,,,0.0,4.0,0.0,4.0,0.0,4.0,33.333332,,,,,,,,35.0,0.0,0.36857199999999996,0.5688479999999999,0.151367,-0.719482,0.9340959999999999,-0.20361600000000002,-0.31006300000000003,-0.018136000000000003,-0.050633,-0.038697,,,,,,,,,,,,,,,,,,,,,,,,,,,,,,,,,,,,,,,,,,,,,,,,,,,,,,,,,,,,,,,,,
26715,1645650806.453773,71.0,0.0,4322.05127,4512.820313,4240.0,4278.974121,4291.794922,450.0,3.0,59.0,,,,0.0,4.0,0.0,4.0,0.0,4.0,33.333332,,,,,,,,,,,,,,,,,,,,,,,,,,,,,,,,,,,,,,,,,,,,,,,,,,,,,,0.0,0.0,1.0,0.0,128.0,0.986187,,,,,,,,,,,,,,,,,,,,,,,,,
26716,1645650806.461587,72.0,0.0,4305.128418,4486.666504,4229.230957,4279.487305,4273.333496,450.0,3.0,59.0,,,,0.0,4.0,0.0,4.0,0.0,4.0,33.333332,,,,,,,,36.0,0.0,0.369048,0.5688479999999999,0.151367,-0.719238,0.9404440000000001,-0.20361600000000002,-0.31787600000000005,-0.018715,-0.050745,-0.034241,,,,,,,,,,,,,,,,,,,,,,,,,,,,,,,,,,,,,,,,,,,,,,,,,,,,,,,,,,,,,,,,,
26717,1645650806.4694018,73.0,0.0,4304.102539,4540.512695,4205.641113000001,4277.94873,4267.179688,0.0,3.0,59.0,,,,0.0,4.0,0.0,4.0,0.0,4.0,33.333332,,,,,,,,,,,,,,,,,,,,,,,,,,,,,,,,,,,,,,,,,,,,,,,,,,,,,,,,,,,,,,,,,,,,,,,,,,,,,,,,,,,,
26718,1645650806.477216,74.0,0.0,4306.153809,4573.846191,4202.563965,4277.94873,4268.205078,450.0,3.0,59.0,,,,0.0,4.0,0.0,4.0,0.0,4.0,33.333332,,,,,,,,37.0,0.0,0.369048,0.5688479999999999,0.151367,-0.719238,0.936049,-0.198734,-0.318364,-0.017527,-0.050798,-0.030133,,,,,,,,,,,,,,,,,,,,,,,,,,,,,,,,,,,,,,,,,,,,,,,,,,,,,,,,,,,,,,,,,
26719,1645650806.4850311,75.0,0.0,4309.230957,4562.05127,4212.820313,4280.512695,4263.589844,16228.0,3.0,59.0,,,,0.0,4.0,0.0,4.0,0.0,4.0,33.333332,,,,,,,,,,,,,,,,,,,,,,,,,,,,,,,,,,,,,,,,,,,,,,,,,,,,,,0.0,0.0,1.0,0.0,128.0,0.986187,,,,,,,,,,,,,,,,,,,,,,,,,
26720,1645650806.4928448,76.0,0.0,4310.769043,4575.897461,4205.128418,4281.025879,4257.436035,450.0,3.0,59.0,,,,0.0,4.0,0.0,4.0,0.0,4.0,33.333332,,,,,,,,38.0,0.0,0.369048,0.5688479999999999,0.151367,-0.719238,0.9433739999999999,-0.21338200000000002,-0.31787600000000005,-0.018019999999999998,-0.050747,-0.032735,,,,,,,,,,,,,,,,,,,,,,,,,,,,,,,,,,,,,,,,,,,,,,,,,,,,,,,,,,,,,,,,,
26721,1645650806.50066,77.0,0.0,4323.589844,4624.102539,4196.410156,4279.487305,4267.179688,450.0,3.0,59.0,,,,0.0,4.0,0.0,4.0,0.0,4.0,33.333332,,,,,,,,,,,,,,,,,,,,,,,,,,,,,,,,,,,,,,,,,,,,,,,,,,,,,,,,,,,,,,,,,,,,,,,,,,,,,,,,,,,,
26722,1645650806.508474,78.0,0.0,4316.410156,4671.282227000001,4191.794922,4278.461426,4267.179688,450.0,3.0,59.0,,,,0.0,4.0,0.0,4.0,0.0,4.0,33.333332,,,,,,,,39.0,0.0,0.368672,0.569092,0.151367,-0.719238,0.957534,-0.227543,-0.311528,-0.017,-0.0508,-0.035175,,,,,,,,,,,,,,,,,,,,,,,,,,,,,,,,,,,,,,,,,,,,,,,,,,,,,,,,,,,,,,,,,
26723,1645650806.5161881,79.0,0.0,4297.94873,4695.384765999999,4194.871582,4279.487305,4253.333496,16228.0,3.0,59.0,,,,0.0,4.0,0.0,4.0,0.0,4.0,33.333332,,,,,,,,,,,,,,,,,,,,1.0,0.0,0.0,,,,,,,,,,,,,,,,,,,,,,,,,,,,,,,,0.0,0.0,1.0,0.0,128.0,0.9855459999999999,3.659993,2.429971,0.711424,1.775195,1.166543,74.982185,36.03606,20.848034,23.776323,8.324453,3.4207959999999997,4.147435,1.959587,1.2480879999999999,0.972248,0.007764,0.003595,0.007165,0.00418,0.006509999999999999,2.132735,1.671744,1.1206450000000001,1.76663,0.862576
26724,1645650806.524003,80.0,0.0,4302.563965,4695.897461,4190.769043,4280.0,4248.717772999999,450.0,3.0,59.0,,,,0.0,4.0,0.0,4.0,0.0,4.0,33.333332,,,,,,,,40.0,0.0,0.368772,0.569092,0.151123,-0.719238,0.947768,-0.212894,-0.31104,-0.017546,-0.050798,-0.037321,,,,,,,,,,,,,,,,,,,,,,,,,,,,,,,,,,,,,,,,,,,,,,,,,,,,,,,,,,,,,,,,,
26725,1645650806.531717,81.0,0.0,4323.589844,4704.102539,4196.922852000001,4279.487305,4255.897461,450.0,3.0,59.0,,,,0.0,4.0,0.0,4.0,0.0,4.0,33.333332,,,,,,,,,,,,,,,,,,,,,,,,,,,,,,,,,,,,,,,,,,,,,,,,,,,,,,,,,,,,,,,,,,,,,,,,,,,,,,,,,,,,
26726,1645650806.539532,82.0,0.0,4312.820313,4701.025879,4186.666504,4279.487305,4243.589844,450.0,3.0,59.0,,,,0.0,4.0,0.0,4.0,0.0,4.0,33.333332,,,,,,,,41.0,0.0,0.368772,0.569092,0.151123,-0.719238,0.939467,-0.19531500000000002,-0.322759,-0.018037,-0.050894,-0.039205000000000004,,,,,,,,,,,,,,,,,,,,,,,,,,,,,,,,,,,,,,,,,,,,,,,,,,,,,,,,,,,,,,,,,
26727,1645650806.547346,83.0,0.0,4298.974121,4721.538574,4182.563965,4278.974121,4231.794922,16228.0,3.0,59.0,,,,0.0,4.0,0.0,4.0,0.0,4.0,33.333332,,,,,,,,,,,,,,,,,,,,,,,,,,,,,,,,,,,,,,,,,,,,,,,,,,,,,,0.0,0.0,1.0,0.0,128.0,0.9855459999999999,,,,,,,,,,,,,,,,,,,,,,,,,
26728,1645650806.555161,84.0,0.0,4314.358886999999,4735.897461,4192.820313,4278.974121,4244.615234000001,450.0,3.0,59.0,,,,0.0,4.0,0.0,4.0,0.0,4.0,33.333332,,,,,,,,42.0,0.0,0.368772,0.569092,0.151123,-0.719238,0.940932,-0.20947600000000002,-0.310552,-0.018626,-0.050883,-0.034747,,,,,,,,,,,,,,,,,,,,,,,,,,,,,,,,,,,,,,,,,,,,,,,,,,,,,,,,,,,,,,,,,
26729,1645650806.562975,85.0,0.0,4330.769043,4728.205078,4217.436035,4279.487305,4259.487305,450.0,3.0,59.0,,,,0.0,4.0,0.0,4.0,0.0,4.0,33.333332,,,,,,,,,,,,,,,,,,,,,,,,,,,,,,,,,,,,,,,,,,,,,,,,,,,,,,,,,,,,,,,,,,,,,,,,,,,,,,,,,,,,
26730,1645650806.570889,86.0,0.0,4318.461426,4735.384765999999,4198.461426,4280.0,4255.897461,450.0,3.0,59.0,,,,0.0,4.0,0.0,4.0,0.0,4.0,33.333332,,,,,,,,43.0,0.0,0.368772,0.569092,0.151123,-0.719238,0.940932,-0.204105,-0.317388,-0.017447,-0.050824,-0.036789999999999996,,,,,,,,,,,,,,,,,,,,,,,,,,,,,,,,,,,,,,,,,,,,,,,,,,,,,,,,,,,,,,,,,
26731,1645650806.5787039,87.0,0.0,4294.358886999999,4718.461426,4179.487305,4278.974121,4234.871582,16228.0,3.0,59.0,,,,0.0,4.0,0.0,4.0,0.0,4.0,33.333332,,,,,,,,,,,,,,,,,,,,,,,,,,,,,,,,,,,,,,,,,,,,,,,,,,,,,,0.0,0.0,1.0,0.0,128.0,0.9855459999999999,,,,,,,,,,,,,,,,,,,,,,,,,
26732,1645650806.586518,88.0,0.0,4294.358886999999,4655.384765999999,4186.666504,4278.461426,4237.436035,450.0,3.0,59.0,,,,0.0,4.0,0.0,4.0,0.0,4.0,33.333332,,,,,,,,44.0,0.0,0.368872,0.569092,0.15087899999999999,-0.719238,0.9428850000000001,-0.217288,-0.31201599999999996,-0.0179,-0.050771,-0.032574,,,,,,,,,,,,,,,,,,,,,,,,,,,,,,,,,,,,,,,,,,,,,,,,,,,,,,,,,,,,,,,,,
26733,1645650806.594333,89.0,0.0,4301.538574,4623.589844,4208.205078,4279.487305,4254.871582,450.0,3.0,59.0,,,,0.0,4.0,0.0,4.0,0.0,4.0,33.333332,,,,,,,,,,,,,,,,,,,,,,,,,,,,,,,,,,,,,,,,,,,,,,,,,,,,,,,,,,,,,,,,,,,,,,,,,,,,,,,,,,,,
26734,1645650806.602147,90.0,0.0,4300.512695,4628.205078,4205.128418,4279.487305,4263.077147999999,450.0,3.0,59.0,,,,0.0,4.0,0.0,4.0,0.0,4.0,33.333332,,,,,,,,45.0,0.0,0.368772,0.569092,0.151123,-0.719238,0.940932,-0.20947600000000002,-0.310552,-0.018356,-0.050674000000000004,-0.028827999999999996,,,,,,,,,,,,,,,,,,,,,,,,,,,,,,,,,,,,,,,,,,,,,,,,,,,,,,,,,,,,,,,,,
26735,1645650806.609961,91.0,0.0,4286.666504,4584.102539,4190.256348,4277.94873,4250.769043,16228.0,3.0,59.0,,,,0.0,4.0,0.0,4.0,0.0,4.0,33.333332,,,,,,,,,,,,,,,,,,,,,,,,,,,,,,,,,,,,,,,,,,,,,,,,,,,,,,0.0,0.0,1.0,0.0,128.0,0.9855459999999999,,,,,,,,,,,,,,,,,,,,,,,,,
26736,1645650806.617776,92.0,0.0,4294.358886999999,4624.102539,4189.743652,4277.94873,4252.307617,450.0,3.0,59.0,,,,0.0,4.0,0.0,4.0,0.0,4.0,33.333332,,,,,,,,46.0,0.0,0.368872,0.569092,0.15087899999999999,-0.719238,0.9428850000000001,-0.217288,-0.31201599999999996,-0.018718000000000002,-0.050636,-0.025408,,,,,,,,,,,,,,,,,,,,,,,,,,,,,,,,,,,,,,,,,,,,,,,,,,,,,,,,,,,,,,,,,
26737,1645650806.62559,93.0,0.0,4301.025879,4739.487305,4190.256348,4279.487305,4254.871582,450.0,3.0,59.0,,,,0.0,4.0,0.0,4.0,0.0,4.0,33.333332,,,,,,,,,,,,,,,,,,,,,,,,,,,,,,,,,,,,,,,,,,,,,,,,,,,,,,,,,,,,,,,,,,,,,,,,,,,,,,,,,,,,
26738,1645650806.633405,94.0,0.0,4308.205078,4711.794922,4209.230957,4279.487305,4270.769043,450.0,3.0,59.0,,,,0.0,4.0,0.0,4.0,0.0,4.0,33.333332,,,,,,,,47.0,0.0,0.368872,0.569092,0.15087899999999999,-0.719238,0.95021,-0.208011,-0.310552,-0.019141,-0.050651,-0.02858,,,,,,,,,,,,,,,,,,,,,,,,,,,,,,,,,,,,,,,,,,,,,,,,,,,,,,,,,,,,,,,,,
26739,1645650806.641219,95.0,0.0,4314.871582,4626.153809,4206.666504,4277.94873,4281.538574,16228.0,3.0,59.0,,,,0.0,4.0,0.0,4.0,0.0,4.0,33.333332,0.972656,33.333332,4.0,0.0,4.0,0.0,4.0,,,,,,,,,,,,,1.0,0.0,0.0,,,,,,,,,,,,,,,,,,,,,,,,,,,,,,,,0.0,0.0,1.0,0.0,128.0,0.8607309999999999,3.4510379999999996,2.0247490000000004,0.638131,1.863663,1.272532,83.120926,43.090179,21.865902,23.259605,7.560987,3.346793,4.26915,2.204351,1.244414,1.050513,0.00762,0.0033590000000000004,0.007125,0.004197,0.0068189999999999995,2.16755,1.685617,0.9778540000000001,1.7309880000000002,0.9584020000000001
26740,1645650806.648933,96.0,0.0,4311.794922,4670.256348,4188.717772999999,4278.461426,4265.128418,450.0,3.0,59.0,,,,0.0,4.0,0.0,4.0,0.0,4.0,33.333332,,,,,,,,48.0,0.0,0.36849499999999996,0.569092,0.150635,-0.719482,0.936049,-0.20703400000000002,-0.318853,-0.019522,-0.050566,-0.025283,,,,,,,,,,,,,,,,,,,,,,,,,,,,,,,,,,,,,,,,,,,,,,,,,,,,,,,,,,,,,,,,,
26741,1645650806.656748,97.0,0.0,4308.717772999999,4742.563965,4186.153809,4280.0,4251.282227000001,450.0,3.0,59.0,,,,0.0,4.0,0.0,4.0,0.0,4.0,33.333332,,,,,,,,,,,,,,,,,,,,,,,,,,,,,,,,,,,,,,,,,,,,,,,,,,,,,,,,,,,,,,,,,,,,,,,,,,,,,,,,,,,,
26742,1645650806.664562,98.0,0.0,4326.153809,4733.333496,4220.0,4280.512695,4273.846191,450.0,3.0,59.0,,,,0.0,4.0,0.0,4.0,0.0,4.0,33.333332,,,,,,,,49.0,0.0,0.368595,0.569092,0.150391,-0.719482,0.9355610000000001,-0.202152,-0.315923,-0.019767,-0.050539,-0.028468,,,,,,,,,,,,,,,,,,,,,,,,,,,,,,,,,,,,,,,,,,,,,,,,,,,,,,,,,,,,,,,,,
26743,1645650806.6723769,99.0,0.0,4337.436035,4698.974121,4214.871582,4280.0,4277.436035,16228.0,3.0,59.0,,,,0.0,4.0,0.0,4.0,0.0,4.0,33.333332,,,,,,,,,,,,,,,,,,,,,,,,,,,,,,,,,,,,,,,,,,,,,,,,,,,,,,0.0,0.0,1.0,0.0,128.0,0.8607309999999999,,,,,,,,,,,,,,,,,,,,,,,,,
26744,1645650806.680191,100.0,0.0,4334.871582,4624.102539,4214.358886999999,4278.461426,4262.563965,450.0,3.0,59.0,,,,0.0,4.0,0.0,4.0,0.0,4.0,33.333332,,,,,,,,50.0,0.0,0.36849499999999996,0.5688479999999999,0.150391,-0.719727,0.936049,-0.195804,-0.309575,-0.019987,-0.050563,-0.031334,,,,,,,,,,,,,,,,,,,,,,,,,,,,,,,,,,,,,,,,,,,,,,,,,,,,,,,,,,,,,,,,,
26745,1645650806.688005,101.0,0.0,4330.769043,4564.102539,4220.0,4278.974121,4276.922852000001,450.0,3.0,59.0,,,,0.0,4.0,0.0,4.0,0.0,4.0,33.333332,,,,,,,,,,,,,,,,,,,,,,,,,,,,,,,,,,,,,,,,,,,,,,,,,,,,,,,,,,,,,,,,,,,,,,,,,,,,,,,,,,,,
26746,1645650806.6958199,102.0,0.0,4325.641113000001,4606.153809,4222.05127,4278.974121,4283.589844,450.0,3.0,59.0,,,,0.0,4.0,0.0,4.0,0.0,4.0,33.333332,,,,,,,,51.0,0.0,0.368694,0.569092,0.150146,-0.719482,0.9589989999999999,-0.191897,-0.31543499999999997,-0.020235,-0.050585000000000005,-0.027663,,,,,,,,,,,,,,,,,,,,,,,,,,,,,,,,,,,,,,,,,,,,,,,,,,,,,,,,,,,,,,,,,
26747,1645650806.703634,103.0,0.0,4326.153809,4631.794922,4205.128418,4277.436035,4275.897461,16228.0,3.0,59.0,,,,0.0,4.0,0.0,4.0,0.0,4.0,33.333332,,,,,,,,,,,,,,,,,,,,,,,,,,,,,,,,,,,,,,,,,,,,,,,,,,,,,,0.0,0.0,1.0,0.0,128.0,0.8607309999999999,,,,,,,,,,,,,,,,,,,,,,,,,
26748,1645650806.711549,104.0,0.0,4318.461426,4571.794922,4206.666504,4278.461426,4280.512695,450.0,3.0,59.0,,,,0.0,4.0,0.0,4.0,0.0,4.0,33.333332,,,,,,,,52.0,0.0,0.368694,0.569092,0.150146,-0.719482,0.944839,-0.196292,-0.315923,-0.018846,-0.050654000000000005,-0.030610000000000002,,,,,,,,,,,,,,,,,,,,,,,,,,,,,,,,,,,,,,,,,,,,,,,,,,,,,,,,,,,,,,,,,
26749,1645650806.719363,105.0,0.0,4315.897461,4551.794922,4209.743652,4278.974121,4283.589844,450.0,3.0,59.0,,,,0.0,4.0,0.0,4.0,0.0,4.0,33.333332,,,,,,,,,,,,,,,,,,,,,,,,,,,,,,,,,,,,,,,,,,,,,,,,,,,,,,,,,,,,,,,,,,,,,,,,,,,,,,,,,,,,
26750,1645650806.727177,106.0,0.0,4301.025879,4606.153809,4194.358886999999,4277.94873,4264.102539,450.0,3.0,59.0,,,,0.0,4.0,0.0,4.0,0.0,4.0,33.333332,,,,,,,,53.0,0.0,0.368794,0.569092,0.149902,-0.719482,0.9404440000000001,-0.206058,-0.31299299999999997,-0.019256,-0.050667000000000004,-0.033213,,,,,,,,,,,,,,,,,,,,,,,,,,,,,,,,,,,,,,,,,,,,,,,,,,,,,,,,,,,,,,,,,
26751,1645650806.734992,107.0,0.0,4304.102539,4648.717772999999,4185.128418,4278.461426,4269.230957,16228.0,3.0,59.0,,,,0.0,4.0,0.0,4.0,0.0,4.0,33.333332,,,,,,,,,,,,,,,,,,,,,,,,,,,,,,,,,,,,,,,,,,,,,,,,,,,,,,0.0,0.0,1.0,0.0,128.0,0.8607309999999999,,,,,,,,,,,,,,,,,,,,,,,,,
26752,1645650806.742806,108.0,0.0,4329.743652,4631.282227000001,4191.794922,4279.487305,4285.641113000001,450.0,3.0,59.0,,,,0.0,4.0,0.0,4.0,0.0,4.0,33.333332,,,,,,,,54.0,0.0,0.36889299999999997,0.569092,0.14965799999999999,-0.719482,0.9423969999999999,-0.201663,-0.303716,-0.019577,-0.050727,-0.035605,,,,,,,,,,,,,,,,,,,,,,,,,,,,,,,,,,,,,,,,,,,,,,,,,,,,,,,,,,,,,,,,,
26753,1645650806.750621,109.0,0.0,4347.692383,4635.384765999999,4202.563965,4278.974121,4284.102539,450.0,3.0,59.0,,,,0.0,4.0,0.0,4.0,0.0,4.0,33.333332,,,,,,,,,,,,,,,,,,,,,,,,,,,,,,,,,,,,,,,,,,,,,,,,,,,,,,,,,,,,,,,,,,,,,,,,,,,,,,,,,,,,
26754,1645650806.758435,110.0,0.0,4317.94873,4662.563965,4191.794922,4279.487305,4261.538574,450.0,3.0,59.0,,,,0.0,4.0,0.0,4.0,0.0,4.0,33.333332,,,,,,,,55.0,0.0,0.36889299999999997,0.569092,0.14965799999999999,-0.719482,0.9463030000000001,-0.20264000000000001,-0.31787600000000005,-0.019913999999999998,-0.050635,-0.031556,,,,,,,,,,,,,,,,,,,,,,,,,,,,,,,,,,,,,,,,,,,,,,,,,,,,,,,,,,,,,,,,,
26755,1645650806.766249,111.0,0.0,4301.025879,4667.692383,4193.846191,4280.0,4254.358886999999,16228.0,3.0,59.0,,,,0.0,4.0,0.0,4.0,0.0,4.0,33.333332,,,,,,,,,,,,,,,,,,,,1.0,0.0,0.0,,,,,,,,,,,,,,,,,,,,,,,,,,,,,,,,0.0,0.0,1.0,0.0,128.0,0.775936,2.9342740000000003,1.6290280000000001,0.5868399999999999,1.8856529999999998,1.3280040000000002,89.921944,48.224468,22.10817,21.788754,7.196903,3.348786,4.209843,2.330233,1.251068,1.135745,0.007065999999999999,0.003069,0.007016,0.004027,0.007049,2.005839,1.7179349999999998,0.824385,1.61329,1.035607
26756,1645650806.774064,112.0,0.0,4315.897461,4657.94873,4196.410156,4278.974121,4258.461426,450.0,3.0,59.0,,,,0.0,4.0,0.0,4.0,0.0,4.0,33.333332,,,,,,,,56.0,0.0,0.368992,0.569336,0.14965799999999999,-0.719238,0.933608,-0.208011,-0.307622,-0.02012,-0.050601,-0.034016000000000005,,,,,,,,,,,,,,,,,,,,,,,,,,,,,,,,,,,,,,,,,,,,,,,,,,,,,,,,,,,,,,,,,
26757,1645650806.781878,113.0,0.0,4329.230957,4652.820313,4214.871582,4278.974121,4275.897461,450.0,3.0,59.0,,,,0.0,4.0,0.0,4.0,0.0,4.0,33.333332,,,,,,,,,,,,,,,,,,,,,,,,,,,,,,,,,,,,,,,,,,,,,,,,,,,,,,,,,,,,,,,,,,,,,,,,,,,,,,,,,,,,
26758,1645650806.789793,114.0,0.0,4328.717772999999,4645.128418,4215.384765999999,4280.0,4285.641113000001,450.0,3.0,59.0,,,,0.0,4.0,0.0,4.0,0.0,4.0,33.333332,,,,,,,,57.0,0.0,0.368992,0.569336,0.14965799999999999,-0.719238,0.948257,-0.217288,-0.321782,-0.020403,-0.050668,-0.036327,,,,,,,,,,,,,,,,,,,,,,,,,,,,,,,,,,,,,,,,,,,,,,,,,,,,,,,,,,,,,,,,,
26759,1645650806.797607,115.0,0.0,4333.846191,4670.256348,4203.589844,4280.512695,4274.871582,16228.0,3.0,59.0,,,,0.0,4.0,0.0,4.0,0.0,4.0,33.333332,,,,,,,,,,,,,,,,,,,,,,,,,,,,,,,,,,,,,,,,,,,,,,,,,,,,,,0.0,0.0,1.0,0.0,128.0,0.775936,,,,,,,,,,,,,,,,,,,,,,,,,
26760,1645650806.805421,116.0,0.0,4335.897461,4714.358886999999,4193.846191,4279.487305,4265.128418,450.0,3.0,59.0,,,,0.0,4.0,0.0,4.0,0.0,4.0,33.333332,,,,,,,,58.0,0.0,0.369091,0.569336,0.14941400000000002,-0.719238,0.9399559999999999,-0.220218,-0.303227,-0.020609,-0.050727999999999995,-0.038261,,,,,,,,,,,,,,,,,,,,,,,,,,,,,,,,,,,,,,,,,,,,,,,,,,,,,,,,,,,,,,,,,
26761,1645650806.813236,117.0,0.0,4328.717772999999,4727.179688,4217.94873,4278.974121,4260.512695,450.0,3.0,59.0,,,,0.0,4.0,0.0,4.0,0.0,4.0,33.333332,,,,,,,,,,,,,,,,,,,,,,,,,,,,,,,,,,,,,,,,,,,,,,,,,,,,,,,,,,,,,,,,,,,,,,,,,,,,,,,,,,,,
26762,1645650806.82105,118.0,0.0,4331.282227000001,4701.538574,4215.897461,4280.512695,4266.153809,450.0,3.0,59.0,,,,0.0,4.0,0.0,4.0,0.0,4.0,33.333332,,,,,,,,59.0,0.0,0.36946799999999996,0.569092,0.14941400000000002,-0.719238,0.9355610000000001,-0.201663,-0.306645,-0.020843,-0.050831,-0.033898000000000005,,,,,,,,,,,,,,,,,,,,,,,,,,,,,,,,,,,,,,,,,,,,,,,,,,,,,,,,,,,,,,,,,
26763,1645650806.828865,119.0,0.0,4330.769043,4700.512695,4203.077147999999,4281.025879,4261.538574,16228.0,3.0,59.0,,,,0.0,4.0,0.0,4.0,0.0,4.0,33.333332,,,,,,,,,,,,,,,,,,,,,,,,,,,,,,,,,,,,,,,,,,,,,,,,,,,,,,0.0,0.0,1.0,0.0,128.0,0.775936,,,,,,,,,,,,,,,,,,,,,,,,,
26764,1645650806.836679,120.0,0.0,4328.205078,4736.410156,4200.0,4278.461426,4262.05127,450.0,3.0,59.0,,,,0.0,4.0,0.0,4.0,0.0,4.0,33.333332,,,,,,,,60.0,0.0,0.369091,0.569336,0.14941400000000002,-0.719238,0.936049,-0.208011,-0.31299299999999997,-0.021005000000000003,-0.050825999999999996,-0.036220999999999996,,,,,,,,,,,,,,,,,,,,,,,,,,,,,,,,,,,,,,,,,,,,,,,,,,,,,,,,,,,,,,,,,
26765,1645650806.844493,121.0,0.0,4323.589844,4765.641113000001,4201.025879,4277.94873,4269.743652,450.0,3.0,59.0,,,,0.0,4.0,0.0,4.0,0.0,4.0,33.333332,,,,,,,,,,,,,,,,,,,,,,,,,,,,,,,,,,,,,,,,,,,,,,,,,,,,,,,,,,,,,,,,,,,,,,,,,,,,,,,,,,,,
26766,1645650806.852308,122.0,0.0,4328.717772999999,4736.922852000001,4192.307617,4279.487305,4286.153809,450.0,3.0,59.0,,,,0.0,4.0,0.0,4.0,0.0,4.0,33.333332,,,,,,,,61.0,0.0,0.36919,0.569336,0.14917,-0.719238,0.948257,-0.197269,-0.310552,-0.021248,-0.050773,-0.032013,,,,,,,,,,,,,,,,,,,,,,,,,,,,,,,,,,,,,,,,,,,,,,,,,,,,,,,,,,,,,,,,,
26767,1645650806.860122,123.0,0.0,4329.230957,4706.153809,4187.179688,4279.487305,4285.641113000001,16228.0,3.0,59.0,,,,0.0,4.0,0.0,4.0,0.0,4.0,33.333332,,,,,,,,,,,,,,,,,,,,,,,,,,,,,,,,,,,,,,,,,,,,,,,,,,,,,,0.0,0.0,1.0,0.0,128.0,0.775936,,,,,,,,,,,,,,,,,,,,,,,,,
26768,1645650806.867837,124.0,0.0,4339.487305,4676.922852000001,4204.102539,4278.461426,4278.974121,450.0,3.0,59.0,,,,0.0,4.0,0.0,4.0,0.0,4.0,33.333332,,,,,,,,62.0,0.0,0.36919,0.569336,0.14917,-0.719238,0.938003,-0.206546,-0.314458,-0.021321,-0.050725,-0.034329000000000005,,,,,,,,,,,,,,,,,,,,,,,,,,,,,,,,,,,,,,,,,,,,,,,,,,,,,,,,,,,,,,,,,
26769,1645650806.875651,125.0,0.0,4334.871582,4632.820313,4207.179688,4278.461426,4267.692383,450.0,3.0,59.0,,,,0.0,4.0,0.0,4.0,0.0,4.0,33.333332,,,,,,,,,,,,,,,,,,,,,,,,,,,,,,,,,,,,,,,,,,,,,,,,,,,,,,,,,,,,,,,,,,,,,,,,,,,,,,,,,,,,
26770,1645650806.883466,126.0,0.0,4317.436035,4615.384765999999,4205.128418,4278.461426,4267.692383,450.0,3.0,59.0,,,,0.0,4.0,0.0,4.0,0.0,4.0,33.333332,,,,,,,,63.0,0.0,0.369289,0.569336,0.148926,-0.719238,0.9340959999999999,-0.215824,-0.31543499999999997,-0.021386000000000002,-0.050779000000000005,-0.030358999999999997,,,,,,,,,,,,,,,,,,,,,,,,,,,,,,,,,,,,,,,,,,,,,,,,,,,,,,,,,,,,,,,,,
26771,1645650806.8912802,127.0,0.0,4312.307617,4645.128418,4202.05127,4278.461426,4268.717772999999,235.0,3.0,59.0,,,,0.0,4.0,0.0,4.0,0.0,4.0,33.333332,,,,,,,,,,,,,,,,,,,,1.0,0.0,0.0,,,,,,,,,,,,,,,,,,,,,,,,,,,,,,,,0.0,0.0,1.0,0.0,128.0,0.9486620000000001,2.374843,1.335993,0.576624,1.8280150000000002,1.321998,93.219337,50.352467,21.379721,19.817678,7.169469,3.371113,3.926558,2.302873,1.243874,1.207907,0.006383,0.0028179999999999998,0.006854000000000001,0.0038130000000000004,0.007305,1.722927,1.71291,0.6896140000000001,1.435925,1.085483
26772,1645650806.8990939,0.0,0.0,4326.153809,4688.205078,4210.256348,4280.512695,4272.307617,450.0,3.0,59.0,,,,0.0,4.0,0.0,4.0,0.0,4.0,33.333332,,,,,,,,0.0,0.0,0.369289,0.569336,0.148926,-0.719238,0.937514,-0.21240599999999998,-0.303716,-0.021445,-0.05078,-0.026786,,,,,,,,,,,,,,,,,,,,,,,,,,,,,,,,,,,,,,,,,,,,,,,,,,,,,,,,,,,,,,,,,
26773,1645650806.906909,1.0,0.0,4333.333496,4731.282227000001,4200.0,4280.512695,4269.743652,450.0,3.0,59.0,,,,0.0,4.0,0.0,4.0,0.0,4.0,33.333332,,,,,,,,,,,,,,,,,,,,,,,,,,,,,,,,,,,,,,,,,,,,,,,,,,,,,,,,,,,,,,,,,,,,,,,,,,,,,,,,,,,,
26774,1645650806.9147232,2.0,0.0,4344.102539,4762.563965,4207.179688,4278.974121,4270.769043,16218.0,3.0,59.0,,,,0.0,4.0,0.0,4.0,0.0,4.0,33.333332,,,,,,,,1.0,0.0,0.369764,0.569336,0.148926,-0.7189939999999999,0.9340959999999999,-0.201175,-0.31543499999999997,-0.020033000000000002,-0.050682,-0.029772000000000003,,,,,,,,,,,,,,,,,,,,,,,,,,,,,,,,,,,,,,,,,,,,,,,,,,,,,,,,,,,,,,,,,
26775,1645650806.922538,3.0,0.0,4356.922852000001,4727.179688,4221.538574,4278.974121,4280.0,450.0,3.0,59.0,,,,0.0,4.0,0.0,4.0,0.0,4.0,33.333332,,,,,,,,,,,,,,,,,,,,,,,,,,,,,,,,,,,,,,,,,,,,,,,,,,,,,,0.0,0.0,1.0,0.0,128.0,0.9486620000000001,,,,,,,,,,,,,,,,,,,,,,,,,
26776,1645650806.9304519,4.0,0.0,4346.153809,4693.846191,4229.743652,4281.025879,4278.974121,0.0,3.0,59.0,,,,0.0,4.0,0.0,4.0,0.0,4.0,33.333332,,,,,,,,2.0,0.0,0.369764,0.569336,0.148926,-0.7189939999999999,0.944839,-0.208499,-0.31543499999999997,-0.020227000000000002,-0.050692,-0.032458999999999995,,,,,,,,,,,,,,,,,,,,,,,,,,,,,,,,,,,,,,,,,,,,,,,,,,,,,,,,,,,,,,,,,
26777,1645650806.938266,5.0,0.0,4318.461426,4726.153809,4198.461426,4280.512695,4257.94873,450.0,3.0,59.0,,,,0.0,4.0,0.0,4.0,0.0,4.0,33.333332,,,,,,,,,,,,,,,,,,,,,,,,,,,,,,,,,,,,,,,,,,,,,,,,,,,,,,,,,,,,,,,,,,,,,,,,,,,,,,,,,,,,
26778,1645650806.9460812,6.0,0.0,4327.179688,4782.05127,4195.384765999999,4277.436035,4256.922852000001,16151.0,3.0,59.0,,,,0.0,4.0,0.0,4.0,0.0,4.0,33.333332,,,,,,,,3.0,0.0,0.369764,0.569336,0.148926,-0.7189939999999999,0.938003,-0.208499,-0.298833,-0.020401,-0.05075,-0.028627,,,,,,,,,,,,,,,,,,,,,,,,,,,,,,,,,,,,,,,,,,,,,,,,,,,,,,,,,,,,,,,,,
26779,1645650806.9538949,7.0,0.0,4358.461426,4813.333496,4213.333496,4278.461426,4287.692383,450.0,3.0,59.0,,,,0.0,4.0,0.0,4.0,0.0,4.0,33.333332,,,,,,,,,,,,,,,,,,,,,,,,,,,,,,,,,,,,,,,,,,,,,,,,,,,,,,0.0,0.0,1.0,0.0,128.0,0.9486620000000001,,,,,,,,,,,,,,,,,,,,,,,,,
26780,1645650806.96171,8.0,0.0,4334.358886999999,4737.94873,4208.717772999999,4280.512695,4282.05127,450.0,3.0,59.0,,,,0.0,4.0,0.0,4.0,0.0,4.0,33.333332,,,,,,,,4.0,0.0,0.37014,0.569336,0.14917,-0.71875,0.9438620000000001,-0.20703400000000002,-0.324712,-0.018996000000000002,-0.050802,-0.031428,,,,,,,,,,,,,,,,,,,,,,,,,,,,,,,,,,,,,,,,,,,,,,,,,,,,,,,,,,,,,,,,,
26781,1645650806.969524,9.0,0.0,4310.769043,4667.179688,4194.871582,4279.487305,4271.282227000001,0.0,3.0,59.0,,,,0.0,4.0,0.0,4.0,0.0,4.0,33.333332,,,,,,,,,,,,,,,,,,,,,,,,,,,,,,,,,,,,,,,,,,,,,,,,,,,,,,,,,,,,,,,,,,,,,,,,,,,,,,,,,,,,
26782,1645650806.977338,10.0,0.0,4332.820313,4704.615234000001,4211.794922,4280.0,4285.641113000001,450.0,3.0,59.0,,,,0.0,4.0,0.0,4.0,0.0,4.0,33.333332,,,,,,,,5.0,0.0,0.37014,0.569336,0.14917,-0.71875,0.946792,-0.20947600000000002,-0.308598,-0.019489,-0.050751,-0.033998,,,,,,,,,,,,,,,,,,,,,,,,,,,,,,,,,,,,,,,,,,,,,,,,,,,,,,,,,,,,,,,,,
26783,1645650806.985153,11.0,0.0,4358.974121,4758.974121,4228.717772999999,4280.512695,4298.461426,16224.0,3.0,59.0,,,,0.0,4.0,0.0,4.0,0.0,4.0,33.333332,,,,,,,,,,,,,,,,,,,,,,,,,,,,,,,,,,,,,,,,,,,,,,,,,,,,,,0.0,0.0,1.0,0.0,128.0,0.9486620000000001,,,,,,,,,,,,,,,,,,,,,,,,,
26784,1645650806.992967,12.0,0.0,4341.025879,4727.179688,4217.94873,4278.974121,4291.794922,450.0,3.0,59.0,,,,0.0,4.0,0.0,4.0,0.0,4.0,33.333332,,,,,,,,6.0,0.0,0.370238,0.56958,0.14917,-0.7185060000000001,0.933608,-0.20556999999999997,-0.314946,-0.018175,-0.050706,-0.036213999999999996,,,,,,,,,,,,,,,,,,,,,,,,,,,,,,,,,,,,,,,,,,,,,,,,,,,,,,,,,,,,,,,,,
26785,1645650807.000782,13.0,0.0,4324.615234000001,4689.230957,4204.102539,4278.461426,4289.743652,450.0,3.0,59.0,,,,0.0,4.0,0.0,4.0,0.0,4.0,33.333332,,,,,,,,,,,,,,,,,,,,,,,,,,,,,,,,,,,,,,,,,,,,,,,,,,,,,,,,,,,,,,,,,,,,,,,,,,,,,,,,,,,,
26786,1645650807.008696,14.0,0.0,4321.025879,4666.153809,4186.666504,4280.0,4277.94873,450.0,3.0,59.0,,,,0.0,4.0,0.0,4.0,0.0,4.0,33.333332,,,,,,,,7.0,0.0,0.370238,0.56958,0.14917,-0.7185060000000001,0.9365379999999999,-0.222171,-0.32227100000000003,-0.018701,-0.050713,-0.038257,,,,,,,,,,,,,,,,,,,,,,,,,,,,,,,,,,,,,,,,,,,,,,,,,,,,,,,,,,,,,,,,,
26787,1645650807.01651,15.0,0.0,4322.563965,4605.128418,4200.512695,4280.512695,4277.436035,16224.0,3.0,59.0,,,,0.0,4.0,0.0,4.0,0.0,4.0,33.333332,,,,,,,,,,,,,,,,,,,,1.0,0.0,0.0,,,,,,,,,,,,,,,,,,,,,,,,,,,,,,,,0.0,0.0,1.0,0.0,128.0,1.0,2.0386830000000002,1.198365,0.616344,1.690076,1.265526,92.220924,49.425571000000005,19.78367,17.870007,7.378046,3.397012,3.4475919999999998,2.127,1.1906079999999999,1.2635040000000002,0.0058590000000000005,0.002643,0.006587999999999999,0.0037070000000000002,0.0076230000000000004,1.418029,1.6114030000000001,0.587853,1.2320280000000001,1.107681
26788,1645650807.024325,16.0,0.0,4315.897461,4613.333496,4208.205078,4279.487305,4272.820313,0.0,3.0,59.0,,,,0.0,4.0,0.0,4.0,0.0,4.0,33.333332,,,,,,,,8.0,0.0,0.37014,0.569336,0.14917,-0.71875,0.946792,-0.20947600000000002,-0.308598,-0.019224,-0.050671,-0.040144,,,,,,,,,,,,,,,,,,,,,,,,,,,,,,,,,,,,,,,,,,,,,,,,,,,,,,,,,,,,,,,,,
26789,1645650807.032139,17.0,0.0,4310.769043,4628.205078,4211.794922,4277.436035,4259.487305,0.0,3.0,59.0,,,,0.0,4.0,0.0,4.0,0.0,4.0,33.333332,,,,,,,,,,,,,,,,,,,,,,,,,,,,,,,,,,,,,,,,,,,,,,,,,,,,,,,,,,,,,,,,,,,,,,,,,,,,,,,,,,,,
26790,1645650807.039954,18.0,0.0,4316.410156,4604.102539,4210.769043,4276.922852000001,4263.077147999999,0.0,3.0,59.0,,,,0.0,4.0,0.0,4.0,0.0,4.0,33.333332,,,,,,,,9.0,0.0,0.370238,0.56958,0.14917,-0.7185060000000001,0.9365379999999999,-0.222171,-0.32227100000000003,-0.019645,-0.050682,-0.041794,,,,,,,,,,,,,,,,,,,,,,,,,,,,,,,,,,,,,,,,,,,,,,,,,,,,,,,,,,,,,,,,,
26791,1645650807.0477679,19.0,0.0,4320.512695,4594.358886999999,4228.205078,4279.487305,4279.487305,0.0,3.0,59.0,,,,0.0,4.0,0.0,4.0,0.0,4.0,33.333332,,,,,,,,,,,,,,,,,,,,,,,,,,,,,,,,,,,,,,,,,,,,,,,,,,,,,,0.0,0.0,1.0,0.0,128.0,1.0,,,,,,,,,,,,,,,,,,,,,,,,,
26792,1645650807.055582,20.0,0.0,4318.461426,4603.589844,4221.025879,4278.974121,4284.615234000001,0.0,3.0,59.0,,,,0.0,4.0,0.0,4.0,0.0,4.0,33.333332,,,,,,,,10.0,0.0,0.370711,0.56958,0.14917,-0.718262,0.945815,-0.21924200000000002,-0.313481,-0.019878,-0.050741,-0.037077,,,,,,,,,,,,,,,,,,,,,,,,,,,,,,,,,,,,,,,,,,,,,,,,,,,,,,,,,,,,,,,,,
26793,1645650807.0633972,21.0,0.0,4313.333496,4617.436035,4220.512695,4277.436035,4286.153809,0.0,3.0,59.0,,,,0.0,4.0,0.0,4.0,0.0,4.0,33.333332,,,,,,,,,,,,,,,,,,,,,,,,,,,,,,,,,,,,,,,,,,,,,,,,,,,,,,,,,,,,,,,,,,,,,,,,,,,,,,,,,,,,
26794,1645650807.0712109,22.0,0.0,4311.282227000001,4645.128418,4215.384765999999,4278.461426,4278.974121,0.0,3.0,59.0,,,,0.0,4.0,0.0,4.0,0.0,4.0,33.333332,,,,,,,,11.0,0.0,0.370711,0.56958,0.14917,-0.718262,0.949233,-0.21973,-0.314946,-0.020136,-0.050696,-0.038936,,,,,,,,,,,,,,,,,,,,,,,,,,,,,,,,,,,,,,,,,,,,,,,,,,,,,,,,,,,,,,,,,
26795,1645650807.079125,23.0,0.0,4300.512695,4622.563965,4213.333496,4280.0,4260.0,0.0,3.0,59.0,,,,0.0,4.0,0.0,4.0,0.0,4.0,33.333332,,,,,,,,,,,,,,,,,,,,,,,,,,,,,,,,,,,,,,,,,,,,,,,,,,,,,,0.0,0.0,1.0,0.0,128.0,1.0,,,,,,,,,,,,,,,,,,,,,,,,,
26796,1645650807.08694,24.0,0.0,4306.153809,4614.871582,4210.256348,4279.487305,4267.179688,0.0,3.0,59.0,,,,0.0,4.0,0.0,4.0,0.0,4.0,33.333332,,,,,,,,12.0,0.0,0.370336,0.56958,0.148926,-0.7185060000000001,0.9340959999999999,-0.22119499999999997,-0.32910700000000004,-0.018806,-0.050754,-0.034505,,,,,,,,,,,,,,,,,,,,,,,,,,,,,,,,,,,,,,,,,,,,,,,,,,,,,,,,,,,,,,,,,
26797,1645650807.094754,25.0,0.0,4308.205078,4689.743652,4200.0,4277.94873,4273.846191,0.0,3.0,59.0,,,,0.0,4.0,0.0,4.0,0.0,4.0,33.333332,,,,,,,,,,,,,,,,,,,,,,,,,,,,,,,,,,,,,,,,,,,,,,,,,,,,,,,,,,,,,,,,,,,,,,,,,,,,,,,,,,,,
26798,1645650807.1025689,26.0,0.0,4304.615234000001,4698.974121,4201.025879,4277.94873,4272.820313,0.0,3.0,59.0,,,,0.0,4.0,0.0,4.0,0.0,4.0,33.333332,,,,,,,,13.0,0.0,0.370336,0.56958,0.148926,-0.7185060000000001,0.9306780000000001,-0.223636,-0.31201599999999996,-0.017658,-0.050854,-0.036621,,,,,,,,,,,,,,,,,,,,,,,,,,,,,,,,,,,,,,,,,,,,,,,,,,,,,,,,,,,,,,,,,
26799,1645650807.110383,27.0,0.0,4301.025879,4623.589844,4218.461426,4278.974121,4273.333496,0.0,3.0,59.0,,,,0.0,4.0,0.0,4.0,0.0,4.0,33.333332,,,,,,,,,,,,,,,,,,,,,,,,,,,,,,,,,,,,,,,,,,,,,,,,,,,,,,0.0,0.0,1.0,0.0,128.0,1.0,,,,,,,,,,,,,,,,,,,,,,,,,
26800,1645650807.118197,28.0,0.0,4311.282227000001,4629.230957,4220.0,4278.974121,4276.922852000001,0.0,3.0,59.0,,,,0.0,4.0,0.0,4.0,0.0,4.0,33.333332,,,,,,,,14.0,0.0,0.370336,0.56958,0.148926,-0.7185060000000001,0.9282370000000001,-0.217288,-0.309575,-0.018187000000000002,-0.050798,-0.032471,,,,,,,,,,,,,,,,,,,,,,,,,,,,,,,,,,,,,,,,,,,,,,,,,,,,,,,,,,,,,,,,,
26801,1645650807.1260118,29.0,0.0,4315.384765999999,4675.384765999999,4195.897461,4278.974121,4263.077147999999,0.0,3.0,59.0,,,,0.0,4.0,0.0,4.0,0.0,4.0,33.333332,,,,,,,,,,,,,,,,,,,,,,,,,,,,,,,,,,,,,,,,,,,,,,,,,,,,,,,,,,,,,,,,,,,,,,,,,,,,,,,,,,,,
26802,1645650807.133826,30.0,0.0,4311.282227000001,4616.922852000001,4206.153809,4278.974121,4268.717772999999,0.0,3.0,59.0,,,,0.0,4.0,0.0,4.0,0.0,4.0,33.333332,,,,,,,,15.0,0.0,0.370336,0.56958,0.148926,-0.7185060000000001,0.9521629999999999,-0.207523,-0.314458,-0.016906,-0.050797,-0.034986,,,,,,,,,,,,,,,,,,,,,,,,,,,,,,,,,,,,,,,,,,,,,,,,,,,,,,,,,,,,,,,,,
26803,1645650807.141641,31.0,0.0,4305.128418,4568.717772999999,4222.563965,4278.974121,4279.487305,0.0,3.0,59.0,,,,0.0,4.0,0.0,4.0,0.0,4.0,33.333332,1.0,33.333332,4.0,0.0,4.0,0.0,4.0,,,,,,,,,,,,,1.0,0.0,0.0,,,,,,,,,,,,,,,,,,,,,,,,,,,,,,,,0.0,0.0,1.0,0.0,128.0,1.0,2.021098,1.199496,0.685948,1.498567,1.182955,87.738815,46.602459,17.815659,16.306656,7.741445,3.4280370000000002,2.8692509999999998,1.8314139999999999,1.0751979999999999,1.298676,0.005753,0.002602,0.006148,0.003795,0.00797,1.179114,1.3976540000000002,0.520091,1.038383,1.1047930000000001
26804,1645650807.149555,32.0,0.0,4312.820313,4583.077147999999,4232.307617,4278.974121,4281.025879,0.0,3.0,59.0,,,,0.0,4.0,0.0,4.0,0.0,4.0,33.333332,,,,,,,,16.0,0.0,0.369764,0.56958,0.14917,-0.71875,0.949233,-0.21386999999999998,-0.321782,-0.015947,-0.050795,-0.037150999999999997,,,,,,,,,,,,,,,,,,,,,,,,,,,,,,,,,,,,,,,,,,,,,,,,,,,,,,,,,,,,,,,,,
26805,1645650807.157369,33.0,0.0,4311.282227000001,4593.846191,4218.974121,4277.94873,4270.256348,0.0,3.0,59.0,,,,0.0,4.0,0.0,4.0,0.0,4.0,33.333332,,,,,,,,,,,,,,,,,,,,,,,,,,,,,,,,,,,,,,,,,,,,,,,,,,,,,,,,,,,,,,,,,,,,,,,,,,,,,,,,,,,,
26806,1645650807.165184,34.0,0.0,4304.615234000001,4602.05127,4215.384765999999,4276.922852000001,4263.589844,0.0,3.0,59.0,,,,0.0,4.0,0.0,4.0,0.0,4.0,33.333332,,,,,,,,17.0,0.0,0.370041,0.569336,0.14941400000000002,-0.71875,0.95021,-0.222171,-0.31006300000000003,-0.01655,-0.050843,-0.039247000000000004,,,,,,,,,,,,,,,,,,,,,,,,,,,,,,,,,,,,,,,,,,,,,,,,,,,,,,,,,,,,,,,,,
26807,1645650807.172998,35.0,0.0,4305.641113000001,4597.94873,4206.153809,4277.436035,4270.256348,0.0,3.0,59.0,,,,0.0,4.0,0.0,4.0,0.0,4.0,33.333332,,,,,,,,,,,,,,,,,,,,,,,,,,,,,,,,,,,,,,,,,,,,,,,,,,,,,,0.0,0.0,1.0,0.0,128.0,1.0,,,,,,,,,,,,,,,,,,,,,,,,,
26808,1645650807.180813,36.0,0.0,4305.128418,4627.692383,4208.717772999999,4278.974121,4270.769043,0.0,3.0,59.0,,,,0.0,4.0,0.0,4.0,0.0,4.0,33.333332,,,,,,,,18.0,0.0,0.370041,0.569336,0.14941400000000002,-0.71875,0.936049,-0.22900700000000002,-0.304204,-0.015432,-0.050837,-0.041083999999999996,,,,,,,,,,,,,,,,,,,,,,,,,,,,,,,,,,,,,,,,,,,,,,,,,,,,,,,,,,,,,,,,,
26809,1645650807.188627,37.0,0.0,4300.512695,4675.384765999999,4196.922852000001,4278.974121,4263.077147999999,0.0,3.0,59.0,,,,0.0,4.0,0.0,4.0,0.0,4.0,33.333332,,,,,,,,,,,,,,,,,,,,,,,,,,,,,,,,,,,,,,,,,,,,,,,,,,,,,,,,,,,,,,,,,,,,,,,,,,,,,,,,,,,,
26810,1645650807.196441,38.0,0.0,4296.922852000001,4674.871582,4192.820313,4278.461426,4261.538574,0.0,3.0,59.0,,,,0.0,4.0,0.0,4.0,0.0,4.0,33.333332,,,,,,,,19.0,0.0,0.370041,0.569336,0.14941400000000002,-0.71875,0.9423969999999999,-0.2168,-0.31250500000000003,-0.014572,-0.050831,-0.04264,,,,,,,,,,,,,,,,,,,,,,,,,,,,,,,,,,,,,,,,,,,,,,,,,,,,,,,,,,,,,,,,,
26811,1645650807.204256,39.0,0.0,4297.94873,4613.333496,4200.512695,4277.94873,4267.179688,0.0,3.0,59.0,,,,0.0,4.0,0.0,4.0,0.0,4.0,33.333332,,,,,,,,,,,,,,,,,,,,,,,,,,,,,,,,,,,,,,,,,,,,,,,,,,,,,,0.0,0.0,1.0,0.0,128.0,1.0,,,,,,,,,,,,,,,,,,,,,,,,,
26812,1645650807.21207,40.0,0.0,4296.410156,4585.128418,4216.922852000001,4277.94873,4267.692383,0.0,3.0,59.0,,,,0.0,4.0,0.0,4.0,0.0,4.0,33.333332,,,,,,,,20.0,0.0,0.36946799999999996,0.569336,0.14965799999999999,-0.7189939999999999,0.944839,-0.20947600000000002,-0.301274,-0.015361000000000001,-0.050729,-0.037887,,,,,,,,,,,,,,,,,,,,,,,,,,,,,,,,,,,,,,,,,,,,,,,,,,,,,,,,,,,,,,,,,
26813,1645650807.219985,41.0,0.0,4304.102539,4604.615234000001,4224.615234000001,4278.461426,4273.846191,0.0,3.0,59.0,,,,0.0,4.0,0.0,4.0,0.0,4.0,33.333332,,,,,,,,,,,,,,,,,,,,,,,,,,,,,,,,,,,,,,,,,,,,,,,,,,,,,,,,,,,,,,,,,,,,,,,,,,,,,,,,,,,,
26814,1645650807.227799,42.0,0.0,4299.487305,4622.563965,4218.974121,4278.974121,4265.641113000001,0.0,3.0,59.0,,,,0.0,4.0,0.0,4.0,0.0,4.0,33.333332,,,,,,,,21.0,0.0,0.36946799999999996,0.569336,0.14965799999999999,-0.7189939999999999,0.9428850000000001,-0.208499,-0.319341,-0.01612,-0.050733999999999994,-0.039763,,,,,,,,,,,,,,,,,,,,,,,,,,,,,,,,,,,,,,,,,,,,,,,,,,,,,,,,,,,,,,,,,
26815,1645650807.235613,43.0,0.0,4293.333496,4675.897461,4201.538574,4279.487305,4249.230957,0.0,3.0,59.0,,,,0.0,4.0,0.0,4.0,0.0,4.0,33.333332,,,,,,,,,,,,,,,,,,,,,,,,,,,,,,,,,,,,,,,,,,,,,,,,,,,,,,0.0,0.0,1.0,0.0,128.0,1.0,,,,,,,,,,,,,,,,,,,,,,,,,
26816,1645650807.243428,44.0,0.0,4279.487305,4648.717772999999,4187.179688,4279.487305,4237.94873,0.0,3.0,59.0,,,,0.0,4.0,0.0,4.0,0.0,4.0,33.333332,,,,,,,,22.0,0.0,0.36889299999999997,0.569336,0.149902,-0.719238,0.939467,-0.21631199999999998,-0.294926,-0.016753999999999998,-0.05069,-0.041499,,,,,,,,,,,,,,,,,,,,,,,,,,,,,,,,,,,,,,,,,,,,,,,,,,,,,,,,,,,,,,,,,
26817,1645650807.251242,45.0,0.0,4276.410156,4592.307617,4200.0,4278.974121,4249.743652,0.0,3.0,59.0,,,,0.0,4.0,0.0,4.0,0.0,4.0,33.333332,,,,,,,,,,,,,,,,,,,,,,,,,,,,,,,,,,,,,,,,,,,,,,,,,,,,,,,,,,,,,,,,,,,,,,,,,,,,,,,,,,,,
26818,1645650807.259057,46.0,0.0,4290.769043,4696.922852000001,4211.282227000001,4279.487305,4257.94873,0.0,3.0,59.0,,,,0.0,4.0,0.0,4.0,0.0,4.0,33.333332,,,,,,,,23.0,0.0,0.36889299999999997,0.569336,0.149902,-0.719238,0.929702,-0.211917,-0.305669,-0.015762,-0.05065,-0.043062,,,,,,,,,,,,,,,,,,,,,,,,,,,,,,,,,,,,,,,,,,,,,,,,,,,,,,,,,,,,,,,,,
26819,1645650807.266871,47.0,0.0,4301.025879,4747.692383,4216.922852000001,4278.974121,4258.461426,0.0,3.0,59.0,,,,0.0,4.0,0.0,4.0,0.0,4.0,33.333332,,,,,,,,,,,,,,,,,,,,1.0,0.0,0.0,,,,,,,,,,,,,,,,,,,,,,,,,,,,,,,,0.0,0.0,1.0,0.0,1.0,0.0,2.264367,1.2677889999999998,0.758055,1.306577,1.1057620000000001,81.865219,43.879749,16.068996,15.218577,8.200598,3.4767370000000004,2.32538,1.46471,0.91361,1.306873,0.006128,0.002747,0.005525,0.004016,0.008294,1.058258,1.119889,0.49211000000000005,0.8823469999999999,1.079652
26820,1645650807.274685,48.0,0.0,4283.589844,4607.179688,4204.615234000001,4278.461426,4253.333496,0.0,3.0,59.0,,,,0.0,4.0,0.0,4.0,0.0,4.0,33.333332,,,,,,,,24.0,0.0,0.36927,0.569092,0.149902,-0.719238,0.9350729999999999,-0.21240599999999998,-0.306157,-0.016432,-0.050615,-0.038219,,,,,,,,,,,,,,,,,,,,,,,,,,,,,,,,,,,,,,,,,,,,,,,,,,,,,,,,,,,,,,,,,
26821,1645650807.2825,49.0,0.0,4286.666504,4538.974121,4217.436035,4278.461426,4257.436035,0.0,3.0,59.0,,,,0.0,4.0,0.0,4.0,0.0,4.0,33.333332,,,,,,,,,,,,,,,,,,,,,,,,,,,,,,,,,,,,,,,,,,,,,,,,,,,,,,,,,,,,,,,,,,,,,,,,,,,,,,,,,,,,
26822,1645650807.290414,50.0,0.0,4310.256348,4637.436035,4221.538574,4277.94873,4264.102539,0.0,3.0,59.0,,,,0.0,4.0,0.0,4.0,0.0,4.0,33.333332,,,,,,,,25.0,0.0,0.36927,0.569092,0.149902,-0.719238,0.9438620000000001,-0.201663,-0.308598,-0.016986,-0.05068,-0.033908999999999995,,,,,,,,,,,,,,,,,,,,,,,,,,,,,,,,,,,,,,,,,,,,,,,,,,,,,,,,,,,,,,,,,
26823,1645650807.298229,51.0,0.0,4300.512695,4647.692383,4229.230957,4278.461426,4266.666504,0.0,3.0,59.0,,,,0.0,4.0,0.0,4.0,0.0,4.0,33.333332,,,,,,,,,,,,,,,,,,,,,,,,,,,,,,,,,,,,,,,,,,,,,,,,,,,,,,0.0,0.0,1.0,0.0,1.0,0.0,,,,,,,,,,,,,,,,,,,,,,,,,
26824,1645650807.306043,52.0,0.0,4280.512695,4546.153809,4227.692383,4278.974121,4267.692383,0.0,3.0,59.0,,,,0.0,4.0,0.0,4.0,0.0,4.0,33.333332,,,,,,,,26.0,0.0,0.36927,0.569092,0.149902,-0.719238,0.94435,-0.208499,-0.308598,-0.015971,-0.05069,-0.036182,,,,,,,,,,,,,,,,,,,,,,,,,,,,,,,,,,,,,,,,,,,,,,,,,,,,,,,,,,,,,,,,,
26825,1645650807.313857,53.0,0.0,4288.205078,4544.615234000001,4224.102539,4278.461426,4267.692383,0.0,3.0,59.0,,,,0.0,4.0,0.0,4.0,0.0,4.0,33.333332,,,,,,,,,,,,,,,,,,,,,,,,,,,,,,,,,,,,,,,,,,,,,,,,,,,,,,,,,,,,,,,,,,,,,,,,,,,,,,,,,,,,
26826,1645650807.321672,54.0,0.0,4305.128418,4597.94873,4209.743652,4278.974121,4276.410156,0.0,3.0,59.0,,,,0.0,4.0,0.0,4.0,0.0,4.0,33.333332,,,,,,,,27.0,0.0,0.36964600000000003,0.5688479999999999,0.149902,-0.719238,0.947768,-0.21338200000000002,-0.321782,-0.015156000000000001,-0.050748,-0.03188,,,,,,,,,,,,,,,,,,,,,,,,,,,,,,,,,,,,,,,,,,,,,,,,,,,,,,,,,,,,,,,,,
26827,1645650807.329486,55.0,0.0,4306.666504,4627.692383,4205.128418,4279.487305,4279.487305,0.0,3.0,59.0,,,,0.0,4.0,0.0,4.0,0.0,4.0,33.333332,,,,,,,,,,,,,,,,,,,,,,,,,,,,,,,,,,,,,,,,,,,,,,,,,,,,,,0.0,0.0,1.0,0.0,1.0,0.0,,,,,,,,,,,,,,,,,,,,,,,,,
26828,1645650807.337301,56.0,0.0,4301.538574,4644.615234000001,4196.410156,4278.974121,4268.717772999999,0.0,3.0,59.0,,,,0.0,4.0,0.0,4.0,0.0,4.0,33.333332,,,,,,,,28.0,0.0,0.36964600000000003,0.5688479999999999,0.149902,-0.719238,0.9399559999999999,-0.215824,-0.314458,-0.014177,-0.050703,-0.034454000000000005,,,,,,,,,,,,,,,,,,,,,,,,,,,,,,,,,,,,,,,,,,,,,,,,,,,,,,,,,,,,,,,,,
26829,1645650807.345115,57.0,0.0,4295.384765999999,4650.256348,4192.820313,4278.974121,4267.692383,0.0,3.0,59.0,,,,0.0,4.0,0.0,4.0,0.0,4.0,33.333332,,,,,,,,,,,,,,,,,,,,,,,,,,,,,,,,,,,,,,,,,,,,,,,,,,,,,,,,,,,,,,,,,,,,,,,,,,,,,,,,,,,,
26830,1645650807.3529289,58.0,0.0,4312.307617,4636.410156,4202.563965,4280.512695,4288.717772999999,0.0,3.0,59.0,,,,0.0,4.0,0.0,4.0,0.0,4.0,33.333332,,,,,,,,29.0,0.0,0.36964600000000003,0.5688479999999999,0.149902,-0.719238,0.941421,-0.201663,-0.32227100000000003,-0.013491999999999999,-0.050613,-0.036722000000000005,,,,,,,,,,,,,,,,,,,,,,,,,,,,,,,,,,,,,,,,,,,,,,,,,,,,,,,,,,,,,,,,,
26831,1645650807.360844,59.0,0.0,4321.025879,4643.589844,4194.358886999999,4280.512695,4275.897461,0.0,3.0,59.0,,,,0.0,4.0,0.0,4.0,0.0,4.0,33.333332,,,,,,,,,,,,,,,,,,,,,,,,,,,,,,,,,,,,,,,,,,,,,,,,,,,,,,0.0,0.0,1.0,0.0,1.0,0.0,,,,,,,,,,,,,,,,,,,,,,,,,
26832,1645650807.368658,60.0,0.0,4326.153809,4686.153809,4192.307617,4278.974121,4269.743652,0.0,3.0,59.0,,,,0.0,4.0,0.0,4.0,0.0,4.0,33.333332,,,,,,,,30.0,0.0,0.369745,0.5688479999999999,0.14965799999999999,-0.719238,0.9355610000000001,-0.21338200000000002,-0.313481,-0.01434,-0.050532,-0.038714,,,,,,,,,,,,,,,,,,,,,,,,,,,,,,,,,,,,,,,,,,,,,,,,,,,,,,,,,,,,,,,,,
26833,1645650807.3765721,61.0,0.0,4330.256348,4695.384765999999,4211.794922,4278.974121,4288.205078,0.0,3.0,59.0,,,,0.0,4.0,0.0,4.0,0.0,4.0,33.333332,,,,,,,,,,,,,,,,,,,,,,,,,,,,,,,,,,,,,,,,,,,,,,,,,,,,,,,,,,,,,,,,,,,,,,,,,,,,,,,,,,,,
26834,1645650807.384387,62.0,0.0,4333.333496,4713.846191,4212.307617,4279.487305,4288.205078,0.0,3.0,59.0,,,,0.0,4.0,0.0,4.0,0.0,4.0,33.333332,,,,,,,,31.0,0.0,0.369843,0.5688479999999999,0.14941400000000002,-0.719238,0.9350729999999999,-0.20556999999999997,-0.306157,-0.01525,-0.050460000000000005,-0.034305,,,,,,,,,,,,,,,,,,,,,,,,,,,,,,,,,,,,,,,,,,,,,,,,,,,,,,,,,,,,,,,,,
26835,1645650807.392201,63.0,0.0,4317.436035,4721.025879,4182.563965,4279.487305,4255.897461,0.0,3.0,59.0,,,,0.0,4.0,0.0,4.0,0.0,4.0,33.333332,,,,,,,,,,,,,,,,,,,,1.0,0.0,0.0,,,,,,,,,,,,,,,,,,,,,,,,,,,,,,,,0.0,0.0,1.0,0.0,1.0,0.0,2.571989,1.313035,0.813041,1.165394,1.056114,76.82292199999999,42.34779,14.832175,14.496279999999999,8.676378,3.5067739999999996,1.9388459999999998,1.091705,0.7441909999999999,1.2829760000000001,0.006873000000000001,0.003125,0.004848,0.004227000000000001,0.008578,1.046002,0.8566530000000001,0.5161399999999999,0.7745810000000001,1.034338
26836,1645650807.400016,64.0,0.0,4314.871582,4654.871582,4190.256348,4279.487305,4255.897461,450.0,3.0,59.0,,,,0.0,4.0,0.0,4.0,0.0,4.0,33.333332,,,,,,,,32.0,0.0,0.369745,0.5688479999999999,0.14965799999999999,-0.719238,0.9433739999999999,-0.194339,-0.31201599999999996,-0.014506,-0.050541,-0.036636,,,,,,,,,,,,,,,,,,,,,,,,,,,,,,,,,,,,,,,,,,,,,,,,,,,,,,,,,,,,,,,,,
26837,1645650807.40783,65.0,0.0,4325.128418,4597.436035,4216.922852000001,4278.461426,4279.487305,450.0,3.0,59.0,,,,0.0,4.0,0.0,4.0,0.0,4.0,33.333332,,,,,,,,,,,,,,,,,,,,,,,,,,,,,,,,,,,,,,,,,,,,,,,,,,,,,,,,,,,,,,,,,,,,,,,,,,,,,,,,,,,,
26838,1645650807.415644,66.0,0.0,4335.384765999999,4577.436035,4240.512695,4276.922852000001,4295.384765999999,16198.0,3.0,59.0,,,,0.0,4.0,0.0,4.0,0.0,4.0,33.333332,,,,,,,,33.0,0.0,0.369843,0.5688479999999999,0.14941400000000002,-0.719238,0.93019,-0.20996399999999998,-0.316899,-0.015253000000000001,-0.050467000000000005,-0.038637,,,,,,,,,,,,,,,,,,,,,,,,,,,,,,,,,,,,,,,,,,,,,,,,,,,,,,,,,,,,,,,,,
