,Timestamp,OriginalTimestamp,EEG.Counter,EEG.Interpolated,EEG.AF3,EEG.T7,EEG.Pz,EEG.T8,EEG.AF4,EEG.RawCq,EEG.Battery,EEG.BatteryPercent,MarkerIndex,MarkerType,MarkerValueInt,EEG.MarkerHardware,CQ.AF3,CQ.T7,CQ.Pz,CQ.T8,CQ.AF4,CQ.Overall,EQ.SampleRateQuality,EQ.OVERALL,EQ.AF3,EQ.T7,EQ.Pz,EQ.T8,EQ.AF4,MOT.CounterMems,MOT.InterpolatedMems,MOT.Q0,MOT.Q1,MOT.Q2,MOT.Q3,MOT.AccX,MOT.AccY,MOT.AccZ,MOT.MagX,MOT.MagY,MOT.MagZ,MC.Action,MC.ActionPower,MC.IsActive,PM.Engagement.IsActive,PM.Engagement.Scaled,PM.Engagement.Raw,PM.Engagement.Min,PM.Engagement.Max,PM.Excitement.IsActive,PM.Excitement.Scaled,PM.Excitement.Raw,PM.Excitement.Min,PM.Excitement.Max,PM.LongTermExcitement,PM.Stress.IsActive,PM.Stress.Scaled,PM.Stress.Raw,PM.Stress.Min,PM.Stress.Max,PM.Relaxation.IsActive,PM.Relaxation.Scaled,PM.Relaxation.Raw,PM.Relaxation.Min,PM.Relaxation.Max,PM.Interest.IsActive,PM.Interest.Scaled,PM.Interest.Raw,PM.Interest.Min,PM.Interest.Max,PM.Focus.IsActive,PM.Focus.Scaled,PM.Focus.Raw,PM.Focus.Min,PM.Focus.Max,FE.BlinkWink,FE.HorizontalEyesDirection,FE.UpperFaceAction,FE.UpperFaceActionPower,FE.LowerFaceAction,FE.LowerFaceActionPower,POW.AF3.Theta,POW.AF3.Alpha,POW.AF3.BetaL,POW.AF3.BetaH,POW.AF3.Gamma,POW.T7.Theta,POW.T7.Alpha,POW.T7.BetaL,POW.T7.BetaH,POW.T7.Gamma,POW.Pz.Theta,POW.Pz.Alpha,POW.Pz.BetaL,POW.Pz.BetaH,POW.Pz.Gamma,POW.T8.Theta,POW.T8.Alpha,POW.T8.BetaL,POW.T8.BetaH,POW.T8.Gamma,POW.AF4.Theta,POW.AF4.Alpha,POW.AF4.BetaL,POW.AF4.BetaH,POW.AF4.Gamma
35551,1645583744.475599,1645583744.4869,56.0,0.0,4269.230957,4397.94873,4190.769043,4266.666504,4312.307617,0.0,4.0,91.0,32.0,1.0,5.0,0.0,4.0,2.0,4.0,0.0,4.0,50.0,,,,,,,,28.0,0.0,0.597689,-0.184326,0.649658,0.432129,0.941421,-0.334966,-0.07910299999999999,-0.036438,-0.033112,-0.025571,,,,,,,,,,,,,,,,,,,,,,,,,,,,,,,,,,,,,,,,,,,,,,,,,,,,,,,,,,,,,,,,,
35552,1645583744.4834151,1645583744.494716,57.0,0.0,4289.743652,4369.743652,4205.128418,4266.666504,4294.871582,0.0,4.0,91.0,,,,0.0,4.0,2.0,4.0,0.0,4.0,50.0,,,,,,,,,,,,,,,,,,,,,,,,,,,,,,,,,,,,,,,,,,,,,,,,,,,,,,,,,,,,,,,,,,,,,,,,,,,,,,,,,,,,
35553,1645583744.49123,1645583744.502532,58.0,0.0,4287.692383,4391.794922,4215.384765999999,4266.666504,4300.0,0.0,4.0,91.0,,,,0.0,4.0,2.0,4.0,0.0,4.0,50.0,,,,,,,,29.0,0.0,0.597765,-0.184082,0.649658,0.432129,0.952651,-0.349615,-0.105959,-0.036505,-0.03317,-0.027944999999999998,1.0,0.0,0.0,,,,,,,,,,,,,,,,,,,,,,,,,,,,,,,,0.0,0.0,1.0,0.0,512.0,1.0,8.249941,5.4186309999999995,2.3276689999999998,1.530045,2.002017,83.100792,64.096634,47.786694,18.090406,21.321976,2.414176,2.486371,0.778925,0.6026189999999999,0.638023,0.13982,0.091848,0.09615900000000001,0.059989,0.08670599999999999,2.277056,1.357488,3.200516,1.60948,2.289488
35554,1645583744.499046,1645583744.510348,59.0,0.0,4260.512695,4487.179688,4207.179688,4266.666504,4291.282227000001,0.0,4.0,91.0,,,,0.0,4.0,2.0,4.0,0.0,4.0,50.0,,,,,,,,,,,,,,,,,,,,,,,,,,,,,,,,,,,,,,,,,,,,,,,,,,,,,,,,,,,,,,,,,,,,,,,,,,,,,,,,,,,,
35555,1645583744.506862,1645583744.5181642,60.0,0.0,4250.769043,4537.436035,4204.615234000001,4266.666504,4294.358886999999,0.0,4.0,91.0,,,,0.0,4.0,2.0,4.0,0.0,4.0,50.0,,,,,,,,30.0,0.0,0.5973229999999999,-0.184082,0.6499020000000001,0.43237299999999995,0.939467,-0.35108,-0.092287,-0.036517,-0.033222,-0.030131,,,,,,,,,,,,,,,,,,,,,,,,,,,,,,,,,,,,,,,,,,,,,,,,,,,,,,,,,,,,,,,,,
35556,1645583744.514677,1645583744.52598,61.0,0.0,4272.820313,4494.871582,4214.871582,4266.666504,4310.256348,0.0,4.0,91.0,,,,0.0,4.0,2.0,4.0,0.0,4.0,50.0,,,,,,,,,,,,,,,,,,,,,,,,,,,,,,,,,,,,,,,,,,,,,,,,,,,,,,,,,,,,,,,,,,,,,,,,,,,,,,,,,,,,
35557,1645583744.522493,1645583744.533796,62.0,0.0,4297.436035,4418.461426,4216.922852000001,4266.666504,4307.692383,0.0,4.0,91.0,,,,0.0,4.0,2.0,4.0,0.0,4.0,50.0,,,,,,,,31.0,0.0,0.597398,-0.183838,0.6499020000000001,0.43237299999999995,0.9355610000000001,-0.33984899999999996,-0.084962,-0.036381000000000004,-0.033074,-0.03205,,,,,,,,,,,,,,,,,,,,,,,,,,,,,,,,,,,0.0,0.0,1.0,0.0,512.0,1.0,,,,,,,,,,,,,,,,,,,,,,,,,
35558,1645583744.530309,1645583744.541612,63.0,0.0,4301.025879,4410.256348,4205.641113000001,4266.666504,4289.743652,0.0,4.0,91.0,,,,0.0,4.0,2.0,4.0,0.0,4.0,50.0,,,,,,,,,,,,,,,,,,,,,,,,,,,,,,,,,,,,,,,,,,,,,,,,,,,,,,,,,,,,,,,,,,,,,,,,,,,,,,,,,,,,
35559,1645583744.538124,1645583744.549429,64.0,0.0,4295.384765999999,4491.282227000001,4198.974121,4266.666504,4283.077147999999,450.0,4.0,91.0,,,,0.0,4.0,2.0,4.0,0.0,4.0,50.0,,,,,,,,32.0,0.0,0.5974729999999999,-0.183594,0.6499020000000001,0.43237299999999995,0.940932,-0.346197,-0.08984500000000001,-0.036356,-0.033038,-0.027429000000000002,,,,,,,,,,,,,,,,,,,,,,,,,,,,,,,,,,,,,,,,,,,,,,,,,,,,,,,,,,,,,,,,,
35560,1645583744.54594,1645583744.557344,65.0,0.0,4302.563965,4525.128418,4208.205078,4266.666504,4309.230957,450.0,4.0,91.0,,,,0.0,4.0,2.0,4.0,0.0,4.0,50.0,,,,,,,,,,,,,,,,,,,,,,,,,,,,,,,,,,,,,,,,,,,,,,,,,,,,,,,,,,,,,,,,,,,,,,,,,,,,,,,,,,,,
35561,1645583744.553755,1645583744.56516,66.0,0.0,4310.769043,4508.205078,4210.769043,4266.666504,4340.0,16173.0,4.0,91.0,,,,0.0,4.0,2.0,4.0,0.0,4.0,50.0,,,,,,,,33.0,0.0,0.597548,-0.18335,0.6499020000000001,0.43237299999999995,0.940932,-0.34375500000000003,-0.084962,-0.036431,-0.033103,-0.029667000000000002,,,,,,,,,,,,,,,,,,,,,,,,,,,,,,,,,,,0.0,0.0,1.0,0.0,512.0,1.0,,,,,,,,,,,,,,,,,,,,,,,,,
35562,1645583744.5615711,1645583744.5729759,67.0,0.0,4315.384765999999,4540.512695,4213.333496,4266.153809,4332.307617,450.0,4.0,91.0,,,,0.0,4.0,2.0,4.0,0.0,4.0,50.0,,,,,,,,,,,,,,,,,,,,,,,,,,,,,,,,,,,,,,,,,,,,,,,,,,,,,,,,,,,,,,,,,,,,,,,,,,,,,,,,,,,,
35563,1645583744.569387,1645583744.580792,68.0,0.0,4323.077147999999,4489.743652,4231.282227000001,4267.179688,4315.897461,240.0,4.0,91.0,,,,0.0,4.0,2.0,4.0,0.0,4.0,50.0,,,,,,,,34.0,0.0,0.5973569999999999,-0.183105,0.650146,0.43237299999999995,0.937026,-0.34912600000000005,-0.08447400000000001,-0.036352999999999996,-0.033162,-0.025284,,,,,,,,,,,,,,,,,,,,,,,,,,,,,,,,,,,,,,,,,,,,,,,,,,,,,,,,,,,,,,,,,
35564,1645583744.5772018,1645583744.588608,69.0,0.0,4326.153809,4323.589844,4240.0,4266.666504,4317.94873,450.0,4.0,91.0,,,,0.0,4.0,2.0,4.0,0.0,4.0,50.0,,,,,,,,,,,,,,,,,,,,,,,,,,,,,,,,,,,,,,,,,,,,,,,,,,,,,,,,,,,,,,,,,,,,,,,,,,,,,,,,,,,,
35565,1645583744.585018,1645583744.5964231,70.0,0.0,4323.589844,4276.410156,4229.230957,4265.641113000001,4311.282227000001,16256.0,4.0,91.0,,,,0.0,4.0,2.0,4.0,0.0,4.0,50.0,,,,,,,,35.0,0.0,0.597432,-0.182861,0.650146,0.43237299999999995,0.946792,-0.354498,-0.103029,-0.036331,-0.033117,-0.027687,,,,,,,,,,,,,,,,,,,,,,,,,,,,,,,,,,,0.0,0.0,1.0,0.0,512.0,1.0,,,,,,,,,,,,,,,,,,,,,,,,,
35566,1645583744.592834,1645583744.604239,71.0,0.0,4310.769043,4347.179688,4220.512695,4268.205078,4292.307617,450.0,4.0,91.0,,,,0.0,4.0,2.0,4.0,0.0,4.0,50.0,,,,,,,,,,,,,,,,,,,,,,,,,,,,,,,,,,,,,,,,,,,,,,,,,,,,,,,,,,,,,,,,,,,,,,,,,,,,,,,,,,,,
35567,1645583744.600649,1645583744.612055,72.0,0.0,4296.410156,4389.230957,4207.692383,4270.256348,4285.128418,450.0,4.0,91.0,,,,0.0,4.0,2.0,4.0,0.0,4.0,50.0,,,,,,,,36.0,0.0,0.597417,-0.182617,0.6503909999999999,0.432129,0.9555809999999999,-0.34375500000000003,-0.101076,-0.036311,-0.033125999999999996,-0.029752999999999998,,,,,,,,,,,,,,,,,,,,,,,,,,,,,,,,,,,,,,,,,,,,,,,,,,,,,,,,,,,,,,,,,
35568,1645583744.608465,1645583744.6198711,73.0,0.0,4307.692383,4412.820313,4206.153809,4268.205078,4307.179688,0.0,4.0,91.0,,,,0.0,4.0,2.0,4.0,0.0,4.0,50.0,,,,,,,,,,,,,,,,,,,,,,,,,,,,,,,,,,,,,,,,,,,,,,,,,,,,,,,,,,,,,,,,,,,,,,,,,,,,,,,,,,,,
35569,1645583744.616281,1645583744.6277869,74.0,0.0,4321.538574,4350.769043,4233.846191,4266.666504,4334.871582,450.0,4.0,91.0,,,,0.0,4.0,2.0,4.0,0.0,4.0,50.0,1.0,33.333332,3.0,1.0,4.0,0.0,4.0,37.0,0.0,0.5973149999999999,-0.182373,0.6503909999999999,0.43237299999999995,0.9365379999999999,-0.355962,-0.082521,-0.036342,-0.033134,-0.031708999999999994,1.0,0.0,0.0,,,,,,,,,,,,,,,,,,,,,,,,,,,,,,,,0.0,0.0,1.0,0.0,128.0,1.0,6.853628,5.919061,2.59216,1.5926209999999998,1.995018,84.64188399999999,59.251228000000005,40.863953,17.360854999999997,20.674351,2.371848,2.748296,0.84991,0.6243029999999999,0.626043,0.082803,0.05678,0.059959000000000005,0.035954,0.058892999999999994,1.971613,1.2323899999999999,3.1671650000000002,1.6415419999999998,1.997798
35570,1645583744.624097,1645583744.635603,75.0,0.0,4325.641113000001,4267.179688,4243.077147999999,4267.692383,4323.077147999999,16222.0,4.0,91.0,,,,0.0,4.0,2.0,4.0,0.0,4.0,50.0,,,,,,,,,,,,,,,,,,,,,,,,,,,,,,,,,,,,,,,,,,,,,,,,,,,,,,,,,,,,,,,,,,,,,,,,,,,,,,,,,,,,
35571,1645583744.631912,1645583744.643419,76.0,0.0,4317.436035,4326.666504,4215.384765999999,4266.666504,4286.153809,450.0,4.0,91.0,,,,0.0,4.0,2.0,4.0,0.0,4.0,50.0,,,,,,,,38.0,0.0,0.597241,-0.182617,0.6503909999999999,0.43237299999999995,0.95021,-0.349615,-0.085451,-0.036419,-0.033092,-0.027073000000000003,,,,,,,,,,,,,,,,,,,,,,,,,,,,,,,,,,,,,,,,,,,,,,,,,,,,,,,,,,,,,,,,,
35572,1645583744.6397278,1645583744.6512349,77.0,1.0,4315.128418,4311.666504,4216.153809,4266.602539,4288.782227000001,450.0,4.0,91.0,,,,0.0,4.0,2.0,4.0,0.0,4.0,50.0,,,,,,,,,,,,,,,,,,,,,,,,,,,,,,,,,,,,,,,,,,,,,,,,,,,,,,,,,,,,,,,,,,,,,,,,,,,,,,,,,,,,
35573,1645583744.647544,1645583744.659051,78.0,1.0,4312.820313,4296.666504,4216.922852000001,4266.538574,4291.410156,450.0,4.0,91.0,,,,0.0,4.0,2.0,4.0,0.0,4.0,50.0,,,,,,,,39.0,1.0,0.597156,-0.182678,0.650452,0.43237299999999995,0.949599,-0.349615,-0.08191,-0.036424,-0.033119,-0.027581,,,,,,,,,,,,,,,,,,,,,,,,,,,,,,,,,,,0.0,0.0,1.0,0.0,128.0,1.0,,,,,,,,,,,,,,,,,,,,,,,,,
35574,1645583744.655359,1645583744.666867,79.0,1.0,4310.512695,4281.666504,4217.692383,4266.474121,4294.038574,16213.0,4.0,91.0,,,,0.0,4.0,2.0,4.0,0.0,4.0,50.0,,,,,,,,,,,,,,,,,,,,,,,,,,,,,,,,,,,,,,,,,,,,,,,,,,,,,,,,,,,,,,,,,,,,,,,,,,,,,,,,,,,,
35575,1645583744.663175,1645583744.674683,80.0,1.0,4308.205078,4266.666504,4218.461426,4266.410156,4296.666504,450.0,4.0,91.0,,,,0.0,4.0,2.0,4.0,0.0,4.0,50.0,,,,,,,,40.0,1.0,0.59707,-0.182739,0.650513,0.43237299999999995,0.948989,-0.349615,-0.07837000000000001,-0.036429,-0.033145999999999995,-0.028088,,,,,,,,,,,,,,,,,,,,,,,,,,,,,,,,,,,,,,,,,,,,,,,,,,,,,,,,,,,,,,,,,
35576,1645583744.670991,1645583744.682499,81.0,1.0,4305.897461,4251.666504,4219.230957,4266.346191,4299.294922,450.0,4.0,91.0,,,,0.0,4.0,2.0,4.0,0.0,4.0,50.0,,,,,,,,,,,,,,,,,,,,,,,,,,,,,,,,,,,,,,,,,,,,,,,,,,,,,,,,,,,,,,,,,,,,,,,,,,,,,,,,,,,,
35577,1645583744.678806,1645583744.690316,82.0,1.0,4303.589844,4236.666504,4220.0,4266.282227000001,4301.922852000001,450.0,4.0,91.0,,,,0.0,4.0,2.0,4.0,0.0,4.0,50.0,,,,,,,,41.0,1.0,0.596985,-0.1828,0.650574,0.43237299999999995,0.9483790000000001,-0.349615,-0.07483,-0.036433999999999994,-0.033174,-0.028595,,,,,,,,,,,,,,,,,,,,,,,,,,,,,,,,,,,0.0,0.0,1.0,0.0,128.0,1.0,,,,,,,,,,,,,,,,,,,,,,,,,
35578,1645583744.6866221,1645583744.698132,83.0,1.0,4301.282227000001,4221.666504,4220.769043,4266.217772999999,4304.55127,450.0,4.0,91.0,,,,0.0,4.0,2.0,4.0,0.0,4.0,50.0,,,,,,,,,,,,,,,,,,,,,,,,,,,,,,,,,,,,,,,,,,,,,,,,,,,,,,,,,,,,,,,,,,,,,,,,,,,,,,,,,,,,
35579,1645583744.694438,1645583744.705948,84.0,0.0,4298.974121,4206.666504,4221.538574,4266.153809,4307.179688,450.0,4.0,91.0,,,,0.0,4.0,2.0,4.0,0.0,4.0,50.0,,,,,,,,42.0,0.0,0.5969,-0.182861,0.6506350000000001,0.43237299999999995,0.947768,-0.349615,-0.07128999999999999,-0.036439,-0.033201,-0.029102,,,,,,,,,,,,,,,,,,,,,,,,,,,,,,,,,,,,,,,,,,,,,,,,,,,,,,,,,,,,,,,,,
35580,1645583744.7022529,1645583744.713764,85.0,0.0,4325.128418,4243.077147999999,4227.692383,4266.153809,4306.666504,450.0,4.0,91.0,,,,0.0,4.0,2.0,4.0,0.0,4.0,50.0,,,,,,,,,,,,,,,,,,,,,,,,,,,,,,,,,,,,,,,,,,,,,,,,,,,,,,,,,,,,,,,,,,,,,,,,,,,,,,,,,,,,
35581,1645583744.710069,1645583744.72158,86.0,0.0,4354.358886999999,4253.846191,4233.333496,4266.153809,4332.820313,450.0,4.0,91.0,,,,0.0,4.0,2.0,4.0,0.0,4.0,50.0,,,,,,,,43.0,0.0,0.596825,-0.183105,0.6506350000000001,0.43237299999999995,0.951675,-0.361334,-0.085451,-0.036262,-0.033103,-0.024923,,,,,,,,,,,,,,,,,,,,,,,,,,,,,,,,,,,0.0,0.0,1.0,0.0,128.0,1.0,,,,,,,,,,,,,,,,,,,,,,,,,
35582,1645583744.717885,1645583744.729396,87.0,0.0,4346.153809,4322.563965,4228.205078,4266.153809,4334.871582,16222.0,4.0,91.0,,,,0.0,4.0,2.0,4.0,0.0,4.0,50.0,,,,,,,,,,,,,,,,,,,,,,,,,,,,,,,,,,,,,,,,,,,,,,,,,,,,,,,,,,,,,,,,,,,,,,,,,,,,,,,,,,,,
35583,1645583744.7257,1645583744.737212,88.0,0.0,4331.794922,4378.974121,4224.102539,4266.153809,4307.179688,450.0,4.0,91.0,,,,0.0,4.0,2.0,4.0,0.0,4.0,50.0,,,,,,,,44.0,0.0,0.59675,-0.18335,0.6506350000000001,0.43237299999999995,0.95021,-0.34375500000000003,-0.09668099999999999,-0.036249,-0.033113,-0.021013999999999998,,,,,,,,,,,,,,,,,,,,,,,,,,,,,,,,,,,,,,,,,,,,,,,,,,,,,,,,,,,,,,,,,
35584,1645583744.733516,1645583744.744927,89.0,0.0,4336.410156,4292.307617,4216.410156,4266.153809,4280.0,450.0,4.0,91.0,,,,0.0,4.0,2.0,4.0,0.0,4.0,50.0,,,,,,,,,,,,,,,,,,,,,,,,,,,,,,,,,,,,,,,,,,,,,,,,,,,,,,,,,,,,,,,,,,,,,,,,,,,,,,,,,,,,
35585,1645583744.741332,1645583744.752742,90.0,0.0,4329.230957,4268.717772999999,4214.358886999999,4266.153809,4286.666504,450.0,4.0,91.0,,,,0.0,4.0,2.0,4.0,0.0,4.0,50.0,,,,,,,,45.0,0.0,0.59675,-0.18335,0.6506350000000001,0.43237299999999995,0.9272600000000001,-0.35547399999999996,-0.086427,-0.036286,-0.033122000000000006,-0.017594,1.0,0.0,0.0,,,,,,,,,,,,,,,,,,,,,,,,,,,,,,,,0.0,0.0,1.0,0.0,128.0,1.0,5.6374379999999995,6.157095,2.951534,1.6589770000000001,2.0352040000000002,85.418877,54.411339,35.006195,16.835667,19.770495999999998,2.426268,2.835954,1.063499,0.6714,0.601234,0.043748,0.028493,0.031094,0.017902,0.034281,1.8036459999999999,1.228312,3.229641,1.8600729999999999,1.785622
35586,1645583744.7491472,1645583744.760557,91.0,0.0,4322.05127,4377.436035,4224.102539,4266.153809,4315.384765999999,16222.0,4.0,91.0,,,,0.0,4.0,2.0,4.0,0.0,4.0,50.0,,,,,,,,,,,,,,,,,,,,,,,,,,,,,,,,,,,,,,,,,,,,,,,,,,,,,,,,,,,,,,,,,,,,,,,,,,,,,,,,,,,,
35587,1645583744.756963,1645583744.7682712,92.0,0.0,4334.358886999999,4364.615234000001,4226.666504,4266.153809,4324.615234000001,450.0,4.0,91.0,,,,0.0,4.0,2.0,4.0,0.0,4.0,50.0,,,,,,,,46.0,0.0,0.596675,-0.183594,0.6506350000000001,0.43237299999999995,0.9423969999999999,-0.358892,-0.081544,-0.036271,-0.033277,-0.020669,,,,,,,,,,,,,,,,,,,,,,,,,,,,,,,,,,,,,,,,,,,,,,,,,,,,,,,,,,,,,,,,,
35588,1645583744.7647789,1645583744.7760859,93.0,0.0,4336.922852000001,4283.077147999999,4224.102539,4266.153809,4329.230957,450.0,4.0,91.0,,,,0.0,4.0,2.0,4.0,0.0,4.0,50.0,,,,,,,,,,,,,,,,,,,,,,,,,,,,,,,,,,,,,,,,,,,,,,,,,,,,,,,,,,,,,,,,,,,,,,,,,,,,,,,,,,,,
35589,1645583744.772594,1645583744.783901,94.0,0.0,4338.461426,4324.615234000001,4230.769043,4266.153809,4342.05127,450.0,4.0,91.0,,,,0.0,4.0,2.0,4.0,0.0,4.0,50.0,,,,,,,,47.0,0.0,0.596675,-0.183594,0.6506350000000001,0.43237299999999995,0.9389790000000001,-0.34668499999999997,-0.076173,-0.036404,-0.033319,-0.017186,,,,,,,,,,,,,,,,,,,,,,,,,,,,,,,,,,,0.0,0.0,1.0,0.0,128.0,1.0,,,,,,,,,,,,,,,,,,,,,,,,,
35590,1645583744.78041,1645583744.7917151,95.0,0.0,4354.871582,4376.410156,4244.615234000001,4266.153809,4342.563965,16222.0,4.0,91.0,,,,0.0,4.0,2.0,4.0,0.0,4.0,50.0,,,,,,,,,,,,,,,,,,,,,,,,,,,,,,,,,,,,,,,,,,,,,,,,,,,,,,,,,,,,,,,,,,,,,,,,,,,,,,,,,,,,
35591,1645583744.788226,1645583744.79953,96.0,0.0,4352.820313,4349.230957,4242.563965,4266.153809,4327.692383,450.0,4.0,91.0,,,,0.0,4.0,2.0,4.0,0.0,4.0,50.0,,,,,,,,48.0,0.0,0.596511,-0.183838,0.650879,0.432129,0.9433739999999999,-0.348638,-0.088869,-0.036377,-0.033208999999999995,-0.020253,,,,,,,,,,,,,,,,,,,,,,,,,,,,,,,,,,,,,,,,,,,,,,,,,,,,,,,,,,,,,,,,,
35592,1645583744.796041,1645583744.807345,97.0,0.0,4328.717772999999,4344.102539,4219.487305,4266.153809,4311.794922,450.0,4.0,91.0,,,,0.0,4.0,2.0,4.0,0.0,4.0,50.0,,,,,,,,,,,,,,,,,,,,,,,,,,,,,,,,,,,,,,,,,,,,,,,,,,,,,,,,,,,,,,,,,,,,,,,,,,,,,,,,,,,,
35593,1645583744.803857,1645583744.815159,98.0,0.0,4322.05127,4417.436035,4205.641113000001,4266.153809,4292.307617,450.0,4.0,91.0,,,,0.0,4.0,2.0,4.0,0.0,4.0,50.0,,,,,,,,49.0,0.0,0.596511,-0.183838,0.650879,0.432129,0.941421,-0.34473200000000004,-0.085939,-0.036304,-0.033208999999999995,-0.016763,,,,,,,,,,,,,,,,,,,,,,,,,,,,,,,,,,,0.0,0.0,1.0,0.0,128.0,1.0,,,,,,,,,,,,,,,,,,,,,,,,,
35594,1645583744.8116732,1645583744.822874,99.0,0.0,4338.974121,4473.846191,4210.769043,4266.153809,4303.589844,16222.0,4.0,91.0,,,,0.0,4.0,2.0,4.0,0.0,4.0,50.0,,,,,,,,,,,,,,,,,,,,,,,,,,,,,,,,,,,,,,,,,,,,,,,,,,,,,,,,,,,,,,,,,,,,,,,,,,,,,,,,,,,,
35595,1645583744.819488,1645583744.830689,100.0,0.0,4345.128418,4388.205078,4206.153809,4266.153809,4332.307617,450.0,4.0,91.0,,,,0.0,4.0,2.0,4.0,0.0,4.0,50.0,,,,,,,,50.0,0.0,0.596511,-0.183838,0.650879,0.432129,0.9433739999999999,-0.345708,-0.083497,-0.036335,-0.033111,-0.019872,,,,,,,,,,,,,,,,,,,,,,,,,,,,,,,,,,,,,,,,,,,,,,,,,,,,,,,,,,,,,,,,,
35596,1645583744.827304,1645583744.838503,101.0,0.0,4336.410156,4271.282227000001,4200.0,4266.153809,4317.436035,450.0,4.0,91.0,,,,0.0,4.0,2.0,4.0,0.0,4.0,50.0,,,,,,,,,,,,,,,,,,,,,,,,,,,,,,,,,,,,,,,,,,,,,,,,,,,,,,,,,,,,,,,,,,,,,,,,,,,,,,,,,,,,
35597,1645583744.83512,1645583744.846318,102.0,0.0,4332.307617,4277.94873,4223.077147999999,4266.153809,4300.512695,450.0,4.0,91.0,,,,0.0,4.0,2.0,4.0,0.0,4.0,50.0,,,,,,,,51.0,0.0,0.596511,-0.183838,0.650879,0.432129,0.941421,-0.34375500000000003,-0.087892,-0.036413,-0.033169,-0.016517,,,,,,,,,,,,,,,,,,,,,,,,,,,,,,,,,,,0.0,0.0,1.0,0.0,128.0,1.0,,,,,,,,,,,,,,,,,,,,,,,,,
35598,1645583744.8429348,1645583744.854133,103.0,0.0,4353.333496,4286.153809,4246.153809,4266.153809,4317.94873,16222.0,4.0,91.0,,,,0.0,4.0,2.0,4.0,0.0,4.0,50.0,,,,,,,,,,,,,,,,,,,,,,,,,,,,,,,,,,,,,,,,,,,,,,,,,,,,,,,,,,,,,,,,,,,,,,,,,,,,,,,,,,,,
35599,1645583744.850751,1645583744.861947,104.0,0.0,4377.436035,4219.487305,4242.563965,4266.153809,4326.666504,450.0,4.0,91.0,,,,0.0,4.0,2.0,4.0,0.0,4.0,50.0,,,,,,,,52.0,0.0,0.596511,-0.183838,0.650879,0.432129,0.941909,-0.34815,-0.080079,-0.036433999999999994,-0.033172,-0.019651,,,,,,,,,,,,,,,,,,,,,,,,,,,,,,,,,,,,,,,,,,,,,,,,,,,,,,,,,,,,,,,,,
35600,1645583744.858567,1645583744.869762,105.0,0.0,4374.358886999999,4220.0,4242.563965,4266.153809,4314.358886999999,450.0,4.0,91.0,,,,0.0,4.0,2.0,4.0,0.0,4.0,50.0,,,,,,,,,,,,,,,,,,,,,,,,,,,,,,,,,,,,,,,,,,,,,,,,,,,,,,,,,,,,,,,,,,,,,,,,,,,,,,,,,,,,
35601,1645583744.8663821,1645583744.877577,106.0,0.0,4355.897461,4291.794922,4247.692383,4266.153809,4321.025879,450.0,4.0,91.0,,,,0.0,4.0,2.0,4.0,0.0,4.0,50.0,,,,,,,,53.0,0.0,0.596511,-0.183838,0.650879,0.432129,0.938491,-0.354009,-0.07715,-0.03655,-0.033224000000000004,-0.016221,1.0,0.0,0.0,,,,,,,,,,,,,,,,,,,,,,,,,,,,,,,,0.0,0.0,1.0,0.0,128.0,1.0,4.877862,5.994765,3.203535,1.711409,2.073082,87.22077900000001,49.9128,30.716841,17.108192000000003,18.581039,2.6713009999999997,2.748703,1.440253,0.752015,0.556715,0.01911,0.010921,0.012801,0.007155,0.016358,1.718327,1.322196,3.2907839999999995,2.211627,1.639741
35602,1645583744.874198,1645583744.885391,107.0,0.0,4340.512695,4312.307617,4239.487305,4266.153809,4333.846191,16222.0,4.0,91.0,,,,0.0,4.0,2.0,4.0,0.0,4.0,50.0,,,,,,,,,,,,,,,,,,,,,,,,,,,,,,,,,,,,,,,,,,,,,,,,,,,,,,,,,,,,,,,,,,,,,,,,,,,,,,,,,,,,
35603,1645583744.882014,1645583744.893106,108.0,0.0,4362.563965,4286.153809,4233.333496,4266.153809,4324.615234000001,450.0,4.0,91.0,,,,0.0,4.0,2.0,4.0,0.0,4.0,50.0,,,,,,,,54.0,0.0,0.596687,-0.183838,0.650879,0.431885,0.938491,-0.350591,-0.07715,-0.036509,-0.033319999999999995,-0.019433000000000002,,,,,,,,,,,,,,,,,,,,,,,,,,,,,,,,,,,,,,,,,,,,,,,,,,,,,,,,,,,,,,,,,
35604,1645583744.88983,1645583744.900921,109.0,0.0,4389.743652,4303.077147999999,4243.589844,4266.153809,4329.230957,450.0,4.0,91.0,,,,0.0,4.0,2.0,4.0,0.0,4.0,50.0,,,,,,,,,,,,,,,,,,,,,,,,,,,,,,,,,,,,,,,,,,,,,,,,,,,,,,,,,,,,,,,,,,,,,,,,,,,,,,,,,,,,
35605,1645583744.897645,1645583744.908735,110.0,0.0,4370.256348,4368.717772999999,4247.179688,4266.153809,4327.179688,450.0,4.0,91.0,,,,0.0,4.0,2.0,4.0,0.0,4.0,50.0,,,,,,,,55.0,0.0,0.596612,-0.184082,0.650879,0.431885,0.9511860000000001,-0.34668499999999997,-0.073732,-0.036569,-0.033259,-0.016073,,,,,,,,,,,,,,,,,,,,,,,,,,,,,,,,,,,0.0,0.0,1.0,0.0,128.0,1.0,,,,,,,,,,,,,,,,,,,,,,,,,
35606,1645583744.9054608,1645583744.91655,111.0,0.0,4347.179688,4420.512695,4244.102539,4266.153809,4303.589844,16222.0,4.0,91.0,,,,0.0,4.0,2.0,4.0,0.0,4.0,50.0,,,,,,,,,,,,,,,,,,,,,,,,,,,,,,,,,,,,,,,,,,,,,,,,,,,,,,,,,,,,,,,,,,,,,,,,,,,,,,,,,,,,
35607,1645583744.913276,1645583744.924365,112.0,0.0,4351.794922,4437.436035,4240.512695,4266.153809,4313.333496,450.0,4.0,91.0,,,,0.0,4.0,2.0,4.0,0.0,4.0,50.0,,,,,,,,56.0,0.0,0.596612,-0.184082,0.650879,0.431885,0.95021,-0.32910700000000004,-0.097169,-0.036672,-0.033205,-0.0193,,,,,,,,,,,,,,,,,,,,,,,,,,,,,,,,,,,,,,,,,,,,,,,,,,,,,,,,,,,,,,,,,
35608,1645583744.921092,1645583744.932179,113.0,0.0,4342.05127,4398.974121,4231.282227000001,4266.153809,4347.692383,450.0,4.0,91.0,,,,0.0,4.0,2.0,4.0,0.0,4.0,50.0,,,,,,,,,,,,,,,,,,,,,,,,,,,,,,,,,,,,,,,,,,,,,,,,,,,,,,,,,,,,,,,,,,,,,,,,,,,,,,,,,,,,
35609,1645583744.928908,1645583744.9399939,114.0,0.0,4324.102539,4347.179688,4226.666504,4266.153809,4343.589844,450.0,4.0,91.0,,,,0.0,4.0,2.0,4.0,0.0,4.0,50.0,,,,,,,,57.0,0.0,0.596537,-0.184326,0.650879,0.431885,0.9521629999999999,-0.338384,-0.08105599999999999,-0.036715,-0.033156,-0.016052,,,,,,,,,,,,,,,,,,,,,,,,,,,,,,,,,,,0.0,0.0,1.0,0.0,128.0,1.0,,,,,,,,,,,,,,,,,,,,,,,,,
35610,1645583744.936723,1645583744.947809,115.0,0.0,4352.307617,4352.820313,4229.230957,4266.153809,4317.94873,16222.0,4.0,91.0,,,,0.0,4.0,2.0,4.0,0.0,4.0,50.0,,,,,,,,,,,,,,,,,,,,,,,,,,,,,,,,,,,,,,,,,,,,,,,,,,,,,,,,,,,,,,,,,,,,,,,,,,,,,,,,,,,,
35611,1645583744.944539,1645583744.9556231,116.0,0.0,4387.179688,4349.743652,4231.794922,4266.153809,4316.922852000001,450.0,4.0,91.0,,,,0.0,4.0,2.0,4.0,0.0,4.0,50.0,,,,,,,,58.0,0.0,0.596612,-0.184082,0.650879,0.431885,0.93019,-0.342779,-0.077638,-0.036657,-0.03321,-0.013031000000000001,,,,,,,,,,,,,,,,,,,,,,,,,,,,,,,,,,,,,,,,,,,,,,,,,,,,,,,,,,,,,,,,,
35612,1645583744.9523551,1645583744.9633381,117.0,0.0,4371.794922,4295.384765999999,4231.794922,4266.153809,4318.461426,450.0,4.0,91.0,,,,0.0,4.0,2.0,4.0,0.0,4.0,50.0,,,,,,,,,,,,,,,,,,,,,,,,,,,,,,,,,,,,,,,,,,,,,,,,,,,,,,,,,,,,,,,,,,,,,,,,,,,,,,,,,,,,
35613,1645583744.96017,1645583744.971153,118.0,0.0,4346.153809,4297.436035,4230.256348,4266.153809,4309.230957,450.0,4.0,91.0,,,,0.0,4.0,2.0,4.0,0.0,4.0,50.0,,,,,,,,59.0,0.0,0.596435,-0.184082,0.650879,0.432129,0.948257,-0.351568,-0.087892,-0.036703,-0.033111,-0.016513,,,,,,,,,,,,,,,,,,,,,,,,,,,,,,,,,,,0.0,0.0,1.0,0.0,128.0,1.0,,,,,,,,,,,,,,,,,,,,,,,,,
35614,1645583744.9679859,1645583744.978967,119.0,0.0,4354.871582,4389.743652,4224.615234000001,4266.153809,4282.563965,16222.0,4.0,91.0,,,,0.0,4.0,2.0,4.0,0.0,4.0,50.0,,,,,,,,,,,,,,,,,,,,,,,,,,,,,,,,,,,,,,,,,,,,,,,,,,,,,,,,,,,,,,,,,,,,,,,,,,,,,,,,,,,,
35615,1645583744.975802,1645583744.986782,120.0,0.0,4368.205078,4456.922852000001,4222.05127,4266.153809,4274.358886999999,450.0,4.0,91.0,,,,0.0,4.0,2.0,4.0,0.0,4.0,50.0,,,,,,,,60.0,0.0,0.596435,-0.184082,0.650879,0.432129,0.932143,-0.330571,-0.080568,-0.036646,-0.033023000000000004,-0.019744,,,,,,,,,,,,,,,,,,,,,,,,,,,,,,,,,,,,,,,,,,,,,,,,,,,,,,,,,,,,,,,,,
35616,1645583744.983617,1645583744.994597,121.0,0.0,4346.666504,4438.461426,4222.563965,4266.153809,4318.974121,450.0,4.0,91.0,,,,0.0,4.0,2.0,4.0,0.0,4.0,50.0,,,,,,,,,,,,,,,,,,,,,,,,,,,,,,,,,,,,,,,,,,,,,,,,,,,,,,,,,,,,,,,,,,,,,,,,,,,,,,,,,,,,
35617,1645583744.991433,1645583745.002411,122.0,0.0,4316.410156,4391.282227000001,4219.487305,4266.153809,4336.410156,450.0,4.0,91.0,,,,0.0,4.0,2.0,4.0,0.0,4.0,50.0,,,,,,,,61.0,0.0,0.596435,-0.184082,0.650879,0.432129,0.9423969999999999,-0.36084499999999997,-0.078126,-0.036497,-0.033041,-0.022653,1.0,0.0,0.0,,,,,,,,,,,,,,,,,,,,,,,,,,,,,,,,0.0,0.0,1.0,0.0,128.0,1.0,4.536786,5.472585,3.265152,1.740557,2.064402,89.843613,45.527302,27.821147999999997,18.665083,17.144468,3.020621,2.518482,1.9371479999999999,0.8600559999999999,0.497787,0.006809999999999999,0.0031850000000000003,0.004017,0.002358,0.005984000000000001,1.762741,1.477714,3.3675669999999998,2.620921,1.526745
35618,1645583744.999249,1645583745.010226,123.0,0.0,4323.589844,4400.0,4212.820313,4266.153809,4301.025879,16222.0,4.0,91.0,,,,0.0,4.0,2.0,4.0,0.0,4.0,50.0,,,,,,,,,,,,,,,,,,,,,,,,,,,,,,,,,,,,,,,,,,,,,,,,,,,,,,,,,,,,,,,,,,,,,,,,,,,,,,,,,,,,
35619,1645583745.007064,1645583745.01804,124.0,0.0,4357.436035,4451.794922,4211.794922,4266.153809,4288.717772999999,450.0,4.0,91.0,,,,0.0,4.0,2.0,4.0,0.0,4.0,50.0,,,,,,,,62.0,0.0,0.596435,-0.184082,0.650879,0.432129,0.932143,-0.33789600000000003,-0.083009,-0.036412,-0.032911,-0.01902,,,,,,,,,,,,,,,,,,,,,,,,,,,,,,,,,,,,,,,,,,,,,,,,,,,,,,,,,,,,,,,,,
35620,1645583745.0148802,1645583745.025855,125.0,0.0,4363.589844,4401.538574,4222.05127,4266.153809,4305.128418,450.0,4.0,91.0,,,,0.0,4.0,2.0,4.0,0.0,4.0,50.0,,,,,,,,,,,,,,,,,,,,,,,,,,,,,,,,,,,,,,,,,,,,,,,,,,,,,,,,,,,,,,,,,,,,,,,,,,,,,,,,,,,,
35621,1645583745.022696,1645583745.03367,126.0,0.0,4326.153809,4346.153809,4224.102539,4266.153809,4295.384765999999,450.0,4.0,91.0,,,,0.0,4.0,2.0,4.0,0.0,4.0,50.0,,,,,,,,63.0,0.0,0.596435,-0.184082,0.650879,0.432129,0.9331200000000001,-0.350103,-0.080568,-0.03653,-0.032891000000000004,-0.022001,,,,,,,,,,,,,,,,,,,,,,,,,,,,,,,,,,,0.0,0.0,1.0,0.0,128.0,1.0,,,,,,,,,,,,,,,,,,,,,,,,,
35622,1645583745.0305119,1645583745.041385,127.0,0.0,4302.05127,4434.358886999999,4209.230957,4266.153809,4280.512695,242.0,4.0,91.0,,,,0.0,4.0,2.0,4.0,0.0,4.0,50.0,,,,,,,,,,,,,,,,,,,,,,,,,,,,,,,,,,,,,,,,,,,,,,,,,,,,,,,,,,,,,,,,,,,,,,,,,,,,,,,,,,,,
35623,1645583745.038327,1645583745.049199,0.0,0.0,4327.179688,4471.794922,4204.102539,4266.153809,4298.974121,450.0,4.0,91.0,,,,0.0,4.0,2.0,4.0,0.0,4.0,50.0,,,,,,,,0.0,0.0,0.5967020000000001,-0.184082,0.6506350000000001,0.432129,0.932631,-0.348638,-0.083009,-0.036588,-0.032874,-0.024684,,,,,,,,,,,,,,,,,,,,,,,,,,,,,,,,,,,,,,,,,,,,,,,,,,,,,,,,,,,,,,,,,
35624,1645583745.046143,1645583745.057014,1.0,0.0,4374.358886999999,4431.794922,4219.487305,4266.153809,4323.589844,450.0,4.0,91.0,,,,0.0,4.0,2.0,4.0,0.0,4.0,50.0,,,,,,,,,,,,,,,,,,,,,,,,,,,,,,,,,,,,,,,,,,,,,,,,,,,,,,,,,,,,,,,,,,,,,,,,,,,,,,,,,,,,
35625,1645583745.053959,1645583745.064828,2.0,0.0,4395.384765999999,4503.589844,4225.641113000001,4266.153809,4320.0,16236.0,4.0,91.0,,,,0.0,4.0,2.0,4.0,0.0,4.0,50.0,,,,,,,,1.0,0.0,0.596777,-0.183838,0.6506350000000001,0.432129,0.947768,-0.345708,-0.092775,-0.03664,-0.032858,-0.020848,,,,,,,,,,,,,,,,,,,,,,,,,,,,,,,,,,,0.0,0.0,1.0,0.0,128.0,1.0,,,,,,,,,,,,,,,,,,,,,,,,,
35626,1645583745.061774,1645583745.072643,3.0,0.0,4360.512695,4574.871582,4210.256348,4266.153809,4304.102539,450.0,4.0,91.0,,,,0.0,4.0,2.0,4.0,0.0,4.0,50.0,,,,,,,,,,,,,,,,,,,,,,,,,,,,,,,,,,,,,,,,,,,,,,,,,,,,,,,,,,,,,,,,,,,,,,,,,,,,,,,,,,,,
35627,1645583745.06959,1645583745.080458,4.0,0.0,4315.384765999999,4491.282227000001,4202.05127,4266.153809,4303.589844,263.0,4.0,91.0,,,,0.0,4.0,2.0,4.0,0.0,4.0,50.0,,,,,,,,2.0,0.0,0.596435,-0.184082,0.650879,0.432129,0.9331200000000001,-0.350103,-0.080568,-0.036639,-0.03299,-0.017396000000000002,,,,,,,,,,,,,,,,,,,,,,,,,,,,,,,,,,,,,,,,,,,,,,,,,,,,,,,,,,,,,,,,,
35628,1645583745.0774062,1645583745.088272,5.0,0.0,4331.794922,4427.692383,4208.717772999999,4266.153809,4320.512695,450.0,4.0,91.0,,,,0.0,4.0,2.0,4.0,0.0,4.0,50.0,,,,,,,,,,,,,,,,,,,,,,,,,,,,,,,,,,,,,,,,,,,,,,,,,,,,,,,,,,,,,,,,,,,,,,,,,,,,,,,,,,,,
35629,1645583745.085221,1645583745.096087,6.0,0.0,4362.563965,4464.102539,4204.615234000001,4266.153809,4335.384765999999,16209.0,4.0,91.0,,,,0.0,4.0,2.0,4.0,0.0,4.0,50.0,,,,,,,,3.0,0.0,0.596777,-0.183838,0.6506350000000001,0.432129,0.947768,-0.345708,-0.092775,-0.036686,-0.032963,-0.014288999999999998,,,,,,,,,,,,,,,,,,,,,,,,,,,,,,,,,,,0.0,0.0,1.0,0.0,128.0,1.0,,,,,,,,,,,,,,,,,,,,,,,,,
35630,1645583745.093037,1645583745.1039019,7.0,0.0,4344.615234000001,4468.717772999999,4197.94873,4266.153809,4325.641113000001,450.0,4.0,91.0,,,,0.0,4.0,2.0,4.0,0.0,4.0,50.0,,,,,,,,,,,,,,,,,,,,,,,,,,,,,,,,,,,,,,,,,,,,,,,,,,,,,,,,,,,,,,,,,,,,,,,,,,,,,,,,,,,,
35631,1645583745.100853,1645583745.111716,8.0,0.0,4341.025879,4453.846191,4211.282227000001,4266.153809,4308.717772999999,450.0,4.0,91.0,,,,0.0,4.0,2.0,4.0,0.0,4.0,50.0,,,,,,,,4.0,0.0,0.596777,-0.183838,0.6506350000000001,0.432129,0.941909,-0.351568,-0.083986,-0.036875,-0.033036,-0.011444,,,,,,,,,,,,,,,,,,,,,,,,,,,,,,,,,,,,,,,,,,,,,,,,,,,,,,,,,,,,,,,,,
35632,1645583745.1086679,1645583745.119431,9.0,0.0,4375.384765999999,4461.025879,4226.153809,4266.153809,4311.794922,0.0,4.0,91.0,,,,0.0,4.0,2.0,4.0,0.0,4.0,50.0,,,,,,,,,,,,,,,,,,,,,,,,,,,,,,,,,,,,,,,,,,,,,,,,,,,,,,,,,,,,,,,,,,,,,,,,,,,,,,,,,,,,
35633,1645583745.116484,1645583745.1272461,10.0,0.0,4376.410156,4460.512695,4227.179688,4266.153809,4312.307617,450.0,4.0,91.0,,,,0.0,4.0,2.0,4.0,0.0,4.0,50.0,0.972656,33.333332,3.0,1.0,4.0,0.0,4.0,5.0,0.0,0.596852,-0.183594,0.6506350000000001,0.432129,0.940932,-0.347173,-0.087892,-0.036898,-0.033003,-0.015085,1.0,0.0,0.0,,,,,,,,,,,,,,,,,,,,,,,,,,,,,,,,0.0,0.0,1.0,0.0,128.0,1.0,4.709041,4.784178,3.183567,1.7483009999999999,1.985738,94.141235,41.77528,25.816633,21.665607,15.65489,3.363228,2.2311240000000003,2.450253,0.973405,0.44031899999999996,0.002978,0.001257,0.001259,0.00095,0.0018449999999999999,1.950663,1.643314,3.5145440000000003,3.018557,1.431714
35634,1645583745.1243,1645583745.13506,11.0,0.0,4347.179688,4430.256348,4224.102539,4266.153809,4298.461426,16222.0,4.0,91.0,,,,0.0,4.0,2.0,4.0,0.0,4.0,50.0,,,,,,,,,,,,,,,,,,,,,,,,,,,,,,,,,,,,,,,,,,,,,,,,,,,,,,,,,,,,,,,,,,,,,,,,,,,,,,,,,,,,
35635,1645583745.1321151,1645583745.142875,12.0,0.0,4338.461426,4395.384765999999,4211.282227000001,4266.153809,4291.282227000001,450.0,4.0,91.0,,,,0.0,4.0,2.0,4.0,0.0,4.0,50.0,,,,,,,,6.0,0.0,0.596852,-0.183594,0.6506350000000001,0.432129,0.9423969999999999,-0.34766199999999997,-0.08984500000000001,-0.03687,-0.033072000000000004,-0.012062999999999999,,,,,,,,,,,,,,,,,,,,,,,,,,,,,,,,,,,,,,,,,,,,,,,,,,,,,,,,,,,,,,,,,
35636,1645583745.139931,1645583745.15069,13.0,0.0,4355.897461,4412.820313,4211.794922,4266.153809,4303.589844,450.0,4.0,91.0,,,,0.0,4.0,2.0,4.0,0.0,4.0,50.0,,,,,,,,,,,,,,,,,,,,,,,,,,,,,,,,,,,,,,,,,,,,,,,,,,,,,,,,,,,,,,,,,,,,,,,,,,,,,,,,,,,,
35637,1645583745.147747,1645583745.158504,14.0,0.0,4381.025879,4425.641113000001,4235.384765999999,4266.153809,4323.077147999999,450.0,4.0,91.0,,,,0.0,4.0,2.0,4.0,0.0,4.0,50.0,,,,,,,,7.0,0.0,0.596852,-0.183594,0.6506350000000001,0.432129,0.937026,-0.335454,-0.07422000000000001,-0.036846,-0.033037000000000004,-0.015642,,,,,,,,,,,,,,,,,,,,,,,,,,,,,,,,,,,0.0,0.0,1.0,0.0,128.0,1.0,,,,,,,,,,,,,,,,,,,,,,,,,
35638,1645583745.155562,1645583745.166319,15.0,0.0,4380.512695,4398.974121,4233.846191,4266.153809,4324.615234000001,16222.0,4.0,91.0,,,,0.0,4.0,2.0,4.0,0.0,4.0,50.0,,,,,,,,,,,,,,,,,,,,,,,,,,,,,,,,,,,,,,,,,,,,,,,,,,,,,,,,,,,,,,,,,,,,,,,,,,,,,,,,,,,,
35639,1645583745.163378,1645583745.1740339,16.0,0.0,4358.974121,4420.512695,4210.256348,4266.153809,4302.05127,0.0,4.0,91.0,,,,0.0,4.0,2.0,4.0,0.0,4.0,50.0,,,,,,,,8.0,0.0,0.597193,-0.18335,0.6503909999999999,0.432129,0.944839,-0.35352100000000003,-0.092287,-0.036872,-0.032956,-0.012711,,,,,,,,,,,,,,,,,,,,,,,,,,,,,,,,,,,,,,,,,,,,,,,,,,,,,,,,,,,,,,,,,
35640,1645583745.1711938,1645583745.181849,17.0,0.0,4361.538574,4447.179688,4214.871582,4266.153809,4291.282227000001,0.0,4.0,91.0,,,,0.0,4.0,2.0,4.0,0.0,4.0,50.0,,,,,,,,,,,,,,,,,,,,,,,,,,,,,,,,,,,,,,,,,,,,,,,,,,,,,,,,,,,,,,,,,,,,,,,,,,,,,,,,,,,,
35641,1645583745.179009,1645583745.1896641,18.0,0.0,4368.717772999999,4418.461426,4234.871582,4266.153809,4304.615234000001,0.0,4.0,91.0,,,,0.0,4.0,2.0,4.0,0.0,4.0,50.0,,,,,,,,9.0,0.0,0.597029,-0.183594,0.6506350000000001,0.431885,0.9438620000000001,-0.32959499999999997,-0.089357,-0.036896,-0.03298,-0.016274,,,,,,,,,,,,,,,,,,,,,,,,,,,,,,,,,,,0.0,0.0,1.0,0.0,128.0,1.0,,,,,,,,,,,,,,,,,,,,,,,,,
35642,1645583745.186825,1645583745.197479,19.0,0.0,4352.820313,4442.05127,4226.666504,4266.153809,4310.769043,0.0,4.0,91.0,,,,0.0,4.0,2.0,4.0,0.0,4.0,50.0,,,,,,,,,,,,,,,,,,,,,,,,,,,,,,,,,,,,,,,,,,,,,,,,,,,,,,,,,,,,,,,,,,,,,,,,,,,,,,,,,,,,
35643,1645583745.194641,1645583745.205293,20.0,0.0,4358.974121,4495.384765999999,4212.307617,4266.153809,4317.436035,0.0,4.0,91.0,,,,0.0,4.0,2.0,4.0,0.0,4.0,50.0,,,,,,,,10.0,0.0,0.597029,-0.183594,0.6506350000000001,0.431885,0.9594870000000001,-0.341314,-0.08838,-0.036966000000000006,-0.033052,-0.019383,,,,,,,,,,,,,,,,,,,,,,,,,,,,,,,,,,,,,,,,,,,,,,,,,,,,,,,,,,,,,,,,,
35644,1645583745.202456,1645583745.213108,21.0,0.0,4391.794922,4423.589844,4215.897461,4266.153809,4325.128418,0.0,4.0,91.0,,,,0.0,4.0,2.0,4.0,0.0,4.0,50.0,,,,,,,,,,,,,,,,,,,,,,,,,,,,,,,,,,,,,,,,,,,,,,,,,,,,,,,,,,,,,,,,,,,,,,,,,,,,,,,,,,,,
35645,1645583745.210272,1645583745.220923,22.0,0.0,4400.512695,4288.205078,4222.563965,4266.153809,4318.461426,0.0,4.0,91.0,,,,0.0,4.0,2.0,4.0,0.0,4.0,50.0,,,,,,,,11.0,0.0,0.596954,-0.183838,0.6506350000000001,0.431885,0.95314,-0.342779,-0.09033300000000001,-0.036932,-0.033018,-0.022376,,,,,,,,,,,,,,,,,,,,,,,,,,,,,,,,,,,0.0,0.0,1.0,0.0,128.0,1.0,,,,,,,,,,,,,,,,,,,,,,,,,
35646,1645583745.2180882,1645583745.228738,23.0,0.0,4374.871582,4252.820313,4225.128418,4266.153809,4306.153809,0.0,4.0,91.0,,,,0.0,4.0,2.0,4.0,0.0,4.0,50.0,,,,,,,,,,,,,,,,,,,,,,,,,,,,,,,,,,,,,,,,,,,,,,,,,,,,,,,,,,,,,,,,,,,,,,,,,,,,,,,,,,,,
35647,1645583745.225903,1645583745.236553,24.0,0.0,4349.743652,4315.384765999999,4221.025879,4266.153809,4296.922852000001,0.0,4.0,91.0,,,,0.0,4.0,2.0,4.0,0.0,4.0,50.0,,,,,,,,12.0,0.0,0.596954,-0.183838,0.6506350000000001,0.431885,0.937026,-0.344244,-0.08984500000000001,-0.036949,-0.033085,-0.01882,,,,,,,,,,,,,,,,,,,,,,,,,,,,,,,,,,,,,,,,,,,,,,,,,,,,,,,,,,,,,,,,,
35648,1645583745.2337189,1645583745.244368,25.0,0.0,4354.358886999999,4372.307617,4208.205078,4266.153809,4293.846191,0.0,4.0,91.0,,,,0.0,4.0,2.0,4.0,0.0,4.0,50.0,,,,,,,,,,,,,,,,,,,,,,,,,,,,,,,,,,,,,,,,,,,,,,,,,,,,,,,,,,,,,,,,,,,,,,,,,,,,,,,,,,,,
35649,1645583745.241535,1645583745.252083,26.0,0.0,4372.307617,4359.487305,4213.333496,4266.153809,4292.820313,0.0,4.0,91.0,,,,0.0,4.0,2.0,4.0,0.0,4.0,50.0,,,,,,,,13.0,0.0,0.596954,-0.183838,0.6506350000000001,0.431885,0.9399559999999999,-0.340826,-0.08447400000000001,-0.036965,-0.032951,-0.021723,1.0,0.0,0.0,,,,,,,,,,,,,,,,,,,,,,,,,,,,,,,,0.0,0.0,1.0,0.0,512.0,1.0,4.8818529999999996,4.139101999999999,3.034662,1.753268,1.8581900000000002,100.07079300000001,39.895859,24.666407,25.589188,14.396657000000001,3.562214,1.9746540000000001,2.857552,1.063606,0.40168400000000004,0.00307,0.001343,0.0011070000000000001,0.0009339999999999999,0.001183,2.223096,1.751696,3.7524839999999995,3.334293,1.374257
35650,1645583745.24935,1645583745.259897,27.0,0.0,4375.384765999999,4304.102539,4235.897461,4266.153809,4299.487305,0.0,4.0,91.0,,,,0.0,4.0,2.0,4.0,0.0,4.0,50.0,,,,,,,,,,,,,,,,,,,,,,,,,,,,,,,,,,,,,,,,,,,,,,,,,,,,,,,,,,,,,,,,,,,,,,,,,,,,,,,,,,,,
35651,1645583745.257166,1645583745.2677119,28.0,0.0,4373.846191,4291.794922,4240.512695,4266.153809,4304.615234000001,0.0,4.0,91.0,,,,0.0,4.0,2.0,4.0,0.0,4.0,50.0,,,,,,,,14.0,0.0,0.596954,-0.183838,0.6506350000000001,0.431885,0.936049,-0.340826,-0.08838,-0.036931,-0.032976,-0.024336,,,,,,,,,,,,,,,,,,,,,,,,,,,,,,,,,,,,,,,,,,,,,,,,,,,,,,,,,,,,,,,,,
35652,1645583745.264982,1645583745.275527,29.0,0.0,4372.820313,4368.717772999999,4226.666504,4266.153809,4288.205078,0.0,4.0,91.0,,,,0.0,4.0,2.0,4.0,0.0,4.0,50.0,,,,,,,,,,,,,,,,,,,,,,,,,,,,,,,,,,,,,,,,,,,,,,,,,,,,,,,,,,,,,,,,,,,,,,,,,,,,,,,,,,,,
35653,1645583745.272797,1645583745.283341,30.0,0.0,4365.641113000001,4448.205078,4216.922852000001,4266.153809,4278.974121,0.0,4.0,91.0,,,,0.0,4.0,2.0,4.0,0.0,4.0,50.0,,,,,,,,15.0,0.0,0.596954,-0.183838,0.6506350000000001,0.431885,0.949722,-0.350591,-0.084962,-0.036949,-0.033048,-0.026688,,,,,,,,,,,,,,,,,,,,,,,,,,,,,,,,,,,0.0,0.0,1.0,0.0,512.0,1.0,,,,,,,,,,,,,,,,,,,,,,,,,
35654,1645583745.2806132,1645583745.291156,31.0,0.0,4371.794922,4418.974121,4220.512695,4266.153809,4320.0,0.0,4.0,91.0,,,,0.0,4.0,2.0,4.0,0.0,4.0,50.0,,,,,,,,,,,,,,,,,,,,,,,,,,,,,,,,,,,,,,,,,,,,,,,,,,,,,,,,,,,,,,,,,,,,,,,,,,,,,,,,,,,,
35655,1645583745.288429,1645583745.2989712,32.0,0.0,4385.641113000001,4376.922852000001,4222.05127,4266.153809,4350.769043,0.0,4.0,91.0,,,,0.0,4.0,2.0,4.0,0.0,4.0,50.0,,,,,,,,16.0,0.0,0.596687,-0.183838,0.650879,0.431885,0.9399559999999999,-0.34521999999999997,-0.09131,-0.037014,-0.033063,-0.022652000000000002,,,,,,,,,,,,,,,,,,,,,,,,,,,,,,,,,,,,,,,,,,,,,,,,,,,,,,,,,,,,,,,,,
35656,1645583745.296244,1645583745.3067849,33.0,0.0,4383.589844,4454.358886999999,4206.666504,4266.153809,4315.384765999999,0.0,4.0,91.0,,,,0.0,4.0,2.0,4.0,0.0,4.0,50.0,,,,,,,,,,,,,,,,,,,,,,,,,,,,,,,,,,,,,,,,,,,,,,,,,,,,,,,,,,,,,,,,,,,,,,,,,,,,,,,,,,,,
35657,1645583745.30406,1645583745.3146,34.0,0.0,4376.410156,4505.128418,4199.487305,4266.153809,4285.641113000001,0.0,4.0,91.0,,,,0.0,4.0,2.0,4.0,0.0,4.0,50.0,,,,,,,,17.0,0.0,0.596687,-0.183838,0.650879,0.431885,0.940932,-0.347173,-0.08838,-0.037024,-0.033125999999999996,-0.025269999999999997,,,,,,,,,,,,,,,,,,,,,,,,,,,,,,,,,,,0.0,0.0,1.0,0.0,512.0,1.0,,,,,,,,,,,,,,,,,,,,,,,,,
35658,1645583745.311876,1645583745.322315,35.0,0.0,4367.179688,4409.743652,4220.0,4266.153809,4309.230957,0.0,4.0,91.0,,,,0.0,4.0,2.0,4.0,0.0,4.0,50.0,,,,,,,,,,,,,,,,,,,,,,,,,,,,,,,,,,,,,,,,,,,,,,,,,,,,,,,,,,,,,,,,,,,,,,,,,,,,,,,,,,,,
35659,1645583745.319691,1645583745.330129,36.0,0.0,4363.077147999999,4314.871582,4231.282227000001,4266.153809,4315.897461,0.0,4.0,91.0,,,,0.0,4.0,2.0,4.0,0.0,4.0,50.0,,,,,,,,18.0,0.0,0.596687,-0.183838,0.650879,0.431885,0.948257,-0.340826,-0.083009,-0.036886,-0.033183,-0.027527999999999997,,,,,,,,,,,,,,,,,,,,,,,,,,,,,,,,,,,,,,,,,,,,,,,,,,,,,,,,,,,,,,,,,
35660,1645583745.327507,1645583745.337944,37.0,0.0,4376.922852000001,4343.589844,4217.436035,4266.153809,4283.077147999999,0.0,4.0,91.0,,,,0.0,4.0,2.0,4.0,0.0,4.0,50.0,,,,,,,,,,,,,,,,,,,,,,,,,,,,,,,,,,,,,,,,,,,,,,,,,,,,,,,,,,,,,,,,,,,,,,,,,,,,,,,,,,,,
35661,1645583745.335323,1645583745.345758,38.0,0.0,4387.179688,4434.871582,4216.922852000001,4266.153809,4273.846191,0.0,4.0,91.0,,,,0.0,4.0,2.0,4.0,0.0,4.0,50.0,,,,,,,,19.0,0.0,0.596244,-0.183838,0.651123,0.432129,0.947768,-0.34521999999999997,-0.091798,-0.036762,-0.033185,-0.023261,,,,,,,,,,,,,,,,,,,,,,,,,,,,,,,,,,,0.0,0.0,1.0,0.0,512.0,1.0,,,,,,,,,,,,,,,,,,,,,,,,,
35662,1645583745.343138,1645583745.353573,39.0,0.0,4386.666504,4475.384765999999,4227.692383,4266.153809,4305.641113000001,0.0,4.0,91.0,,,,0.0,4.0,2.0,4.0,0.0,4.0,50.0,,,,,,,,,,,,,,,,,,,,,,,,,,,,,,,,,,,,,,,,,,,,,,,,,,,,,,,,,,,,,,,,,,,,,,,,,,,,,,,,,,,,
35663,1645583745.3509538,1645583745.361388,40.0,0.0,4407.692383,4441.025879,4221.538574,4265.641113000001,4340.0,0.0,4.0,91.0,,,,0.0,4.0,2.0,4.0,0.0,4.0,50.0,,,,,,,,20.0,0.0,0.596244,-0.183838,0.651123,0.432129,0.952651,-0.35547399999999996,-0.084962,-0.036795999999999995,-0.033235,-0.025818,,,,,,,,,,,,,,,,,,,,,,,,,,,,,,,,,,,,,,,,,,,,,,,,,,,,,,,,,,,,,,,,,
35664,1645583745.35877,1645583745.369202,41.0,0.0,4423.589844,4364.615234000001,4209.230957,4265.641113000001,4336.410156,0.0,4.0,91.0,,,,0.0,4.0,2.0,4.0,0.0,4.0,50.0,,,,,,,,,,,,,,,,,,,,,,,,,,,,,,,,,,,,,,,,,,,,,,,,,,,,,,,,,,,,,,,,,,,,,,,,,,,,,,,,,,,,
35665,1645583745.366585,1645583745.377017,42.0,0.0,4402.563965,4314.358886999999,4209.743652,4267.692383,4308.205078,0.0,4.0,91.0,,,,0.0,4.0,2.0,4.0,0.0,4.0,50.0,,,,,,,,21.0,0.0,0.5963189999999999,-0.183594,0.651123,0.432129,0.938491,-0.340826,-0.080079,-0.036681,-0.033281,-0.028020999999999997,1.0,0.0,0.0,,,,,,,,,,,,,,,,,,,,,,,,,,,,,,,,0.0,0.0,1.0,0.0,512.0,1.0,5.057689,3.65743,2.9041799999999998,1.8093689999999998,1.7528700000000002,108.295731,40.964287,24.452572,29.343178,13.668920000000002,3.535822,1.8027529999999998,3.070153,1.107018,0.391739,0.00395,0.00175,0.001446,0.001178,0.001436,2.510287,1.746084,4.046895,3.508058,1.3790959999999999
35666,1645583745.374401,1645583745.384732,43.0,0.0,4368.717772999999,4333.333496,4213.846191,4265.128418,4297.94873,0.0,4.0,91.0,,,,0.0,4.0,2.0,4.0,0.0,4.0,50.0,,,,,,,,,,,,,,,,,,,,,,,,,,,,,,,,,,,,,,,,,,,,,,,,,,,,,,,,,,,,,,,,,,,,,,,,,,,,,,,,,,,,
35667,1645583745.382217,1645583745.3925471,44.0,0.0,4365.128418,4376.410156,4214.871582,4265.128418,4309.743652,0.0,4.0,91.0,,,,0.0,4.0,2.0,4.0,0.0,4.0,50.0,,,,,,,,22.0,0.0,0.5963189999999999,-0.183594,0.651123,0.432129,0.937514,-0.34912600000000005,-0.082521,-0.036724,-0.033322000000000004,-0.030005,,,,,,,,,,,,,,,,,,,,,,,,,,,,,,,,,,,,,,,,,,,,,,,,,,,,,,,,,,,,,,,,,
35668,1645583745.390032,1645583745.400362,45.0,0.0,4388.717772999999,4435.384765999999,4221.538574,4275.897461,4307.692383,0.0,4.0,91.0,,,,0.0,4.0,2.0,4.0,0.0,4.0,50.0,,,,,,,,,,,,,,,,,,,,,,,,,,,,,,,,,,,,,,,,,,,,,,,,,,,,,,,,,,,,,,,,,,,,,,,,,,,,,,,,,,,,
35669,1645583745.3978481,1645583745.408177,46.0,0.0,4381.538574,4485.641113000001,4223.589844,4280.512695,4280.0,0.0,4.0,91.0,,,,0.0,4.0,2.0,4.0,0.0,4.0,50.0,,,,,,,,23.0,0.0,0.5963189999999999,-0.183594,0.651123,0.432129,0.929213,-0.34375500000000003,-0.07910299999999999,-0.036664999999999996,-0.033359,-0.031838,,,,,,,,,,,,,,,,,,,,,,,,,,,,,,,,,,,0.0,0.0,1.0,0.0,512.0,1.0,,,,,,,,,,,,,,,,,,,,,,,,,
35670,1645583745.405664,1645583745.415992,47.0,0.0,4355.897461,4434.358886999999,4220.0,4269.743652,4290.769043,0.0,4.0,91.0,,,,0.0,4.0,2.0,4.0,0.0,4.0,50.0,,,,,,,,,,,,,,,,,,,,,,,,,,,,,,,,,,,,,,,,,,,,,,,,,,,,,,,,,,,,,,,,,,,,,,,,,,,,,,,,,,,,
35671,1645583745.4134789,1645583745.423806,48.0,0.0,4373.333496,4279.487305,4227.692383,4264.615234000001,4325.128418,0.0,4.0,91.0,,,,0.0,4.0,2.0,4.0,0.0,4.0,50.0,,,,,,,,24.0,0.0,0.5963189999999999,-0.183594,0.651123,0.432129,0.95021,-0.346197,-0.078614,-0.036661,-0.033246,-0.03344,,,,,,,,,,,,,,,,,,,,,,,,,,,,,,,,,,,,,,,,,,,,,,,,,,,,,,,,,,,,,,,,,
35672,1645583745.421295,1645583745.431621,49.0,0.0,4390.256348,4180.512695,4226.666504,4268.205078,4310.769043,0.0,4.0,91.0,,,,0.0,4.0,2.0,4.0,0.0,4.0,50.0,,,,,,,,,,,,,,,,,,,,,,,,,,,,,,,,,,,,,,,,,,,,,,,,,,,,,,,,,,,,,,,,,,,,,,,,,,,,,,,,,,,,
35673,1645583745.429111,1645583745.439436,50.0,0.0,4374.871582,4200.0,4199.487305,4267.692383,4308.205078,0.0,4.0,91.0,,,,0.0,4.0,2.0,4.0,0.0,4.0,50.0,,,,,,,,25.0,0.0,0.5961420000000001,-0.183594,0.651123,0.43237299999999995,0.9433739999999999,-0.35352100000000003,-0.09424,-0.036657,-0.033144,-0.028582,,,,,,,,,,,,,,,,,,,,,,,,,,,,,,,,,,,0.0,0.0,1.0,0.0,512.0,1.0,,,,,,,,,,,,,,,,,,,,,,,,,
35674,1645583745.436926,1645583745.447251,51.0,0.0,4373.333496,4233.333496,4185.128418,4266.153809,4348.205078,0.0,4.0,91.0,,,,0.0,4.0,2.0,4.0,0.0,4.0,50.0,,,,,,,,,,,,,,,,,,,,,,,,,,,,,,,,,,,,,,,,,,,,,,,,,,,,,,,,,,,,,,,,,,,,,,,,,,,,,,,,,,,,
35675,1645583745.444742,1645583745.454966,52.0,0.0,4386.153809,4223.589844,4203.077147999999,4267.692383,4343.077147999999,0.0,4.0,91.0,,,,0.0,4.0,2.0,4.0,0.0,4.0,50.0,,,,,,,,26.0,0.0,0.5958760000000001,-0.183594,0.651367,0.43237299999999995,0.94435,-0.34375500000000003,-0.079591,-0.036604000000000005,-0.03315,-0.030607,,,,,,,,,,,,,,,,,,,,,,,,,,,,,,,,,,,,,,,,,,,,,,,,,,,,,,,,,,,,,,,,,
35676,1645583745.452558,1645583745.462781,53.0,0.0,4397.436035,4203.077147999999,4220.512695,4267.692383,4310.256348,0.0,4.0,91.0,,,,0.0,4.0,2.0,4.0,0.0,4.0,50.0,,,,,,,,,,,,,,,,,,,,,,,,,,,,,,,,,,,,,,,,,,,,,,,,,,,,,,,,,,,,,,,,,,,,,,,,,,,,,,,,,,,,
35677,1645583745.460374,1645583745.470595,54.0,0.0,4405.128418,4178.974121,4220.512695,4267.179688,4327.692383,0.0,4.0,91.0,,,,0.0,4.0,2.0,4.0,0.0,4.0,50.0,,,,,,,,27.0,0.0,0.5960529999999999,-0.183594,0.651367,0.432129,0.945327,-0.351568,-0.069337,-0.036557,-0.033155000000000004,-0.026276,,,,,,,,,,,,,,,,,,,,,,,,,,,,,,,,,,,0.0,0.0,1.0,0.0,512.0,1.0,,,,,,,,,,,,,,,,,,,,,,,,,
35678,1645583745.468189,1645583745.47841,55.0,0.0,4386.666504,4143.589844,4224.102539,4267.692383,4326.153809,0.0,4.0,91.0,,,,0.0,4.0,2.0,4.0,0.0,4.0,50.0,,,,,,,,,,,,,,,,,,,,,,,,,,,,,,,,,,,,,,,,,,,,,,,,,,,,,,,,,,,,,,,,,,,,,,,,,,,,,,,,,,,,
35679,1645583745.476005,1645583745.486224,56.0,0.0,4380.0,4151.282227000001,4237.94873,4267.692383,4280.512695,0.0,4.0,91.0,,,,0.0,4.0,2.0,4.0,0.0,4.0,50.0,,,,,,,,28.0,0.0,0.595609,-0.183594,0.6516109999999999,0.43237299999999995,0.948257,-0.32813000000000003,-0.082521,-0.036466000000000005,-0.03316,-0.028482999999999998,,,,,,,,,,,,,,,,,,,,,,,,,,,,,,,,,,,,,,,,,,,,,,,,,,,,,,,,,,,,,,,,,
35680,1645583745.4838212,1645583745.494039,57.0,0.0,4405.128418,4191.794922,4235.897461,4267.692383,4282.563965,0.0,4.0,91.0,,,,0.0,4.0,2.0,4.0,0.0,4.0,50.0,,,,,,,,,,,,,,,,,,,,,,,,,,,,,,,,,,,,,,,,,,,,,,,,,,,,,,,,,,,,,,,,,,,,,,,,,,,,,,,,,,,,
35681,1645583745.491636,1645583745.501854,58.0,0.0,4398.461426,4192.307617,4221.025879,4267.692383,4330.256348,0.0,4.0,91.0,,,,0.0,4.0,2.0,4.0,0.0,4.0,50.0,,,,,,,,29.0,0.0,0.5958760000000001,-0.183594,0.651367,0.43237299999999995,0.947768,-0.347173,-0.080079,-0.036433,-0.033116,-0.024267,1.0,0.0,0.0,,,,,,,,,,,,,,,,,,,,,,,,,,,,,,,,0.0,0.0,1.0,0.0,512.0,1.0,4.74481,3.3445419999999997,2.829417,1.979818,1.7510080000000001,114.70565,45.324985999999996,25.02969,31.692608,13.599275,3.300736,1.704074,3.059311,1.0927149999999999,0.41088900000000006,0.004587,0.002065,0.001702,0.001341,0.001627,2.732748,1.630428,4.287804,3.517578,1.447298
35682,1645583745.4994519,1645583745.5096679,59.0,0.0,4369.743652,4205.641113000001,4213.333496,4267.692383,4348.717772999999,0.0,4.0,91.0,,,,0.0,4.0,2.0,4.0,0.0,4.0,50.0,,,,,,,,,,,,,,,,,,,,,,,,,,,,,,,,,,,,,,,,,,,,,,,,,,,,,,,,,,,,,,,,,,,,,,,,,,,,,,,,,,,,
35683,1645583745.507268,1645583745.517483,60.0,0.0,4375.897461,4265.128418,4210.256348,4267.692383,4327.179688,0.0,4.0,91.0,,,,0.0,4.0,2.0,4.0,0.0,4.0,50.0,,,,,,,,30.0,0.0,0.5960529999999999,-0.183594,0.651367,0.432129,0.945327,-0.351568,-0.069337,-0.036452,-0.033076,-0.020522,,,,,,,,,,,,,,,,,,,,,,,,,,,,,,,,,,,,,,,,,,,,,,,,,,,,,,,,,,,,,,,,,
35684,1645583745.515083,1645583745.525298,61.0,0.0,4400.512695,4292.307617,4210.256348,4267.692383,4311.794922,0.0,4.0,91.0,,,,0.0,4.0,2.0,4.0,0.0,4.0,50.0,,,,,,,,,,,,,,,,,,,,,,,,,,,,,,,,,,,,,,,,,,,,,,,,,,,,,,,,,,,,,,,,,,,,,,,,,,,,,,,,,,,,
35685,1645583745.522899,1645583745.533012,62.0,0.0,4409.230957,4309.230957,4219.487305,4267.692383,4320.0,0.0,4.0,91.0,,,,0.0,4.0,2.0,4.0,0.0,4.0,50.0,,,,,,,,31.0,0.0,0.5958760000000001,-0.183594,0.651367,0.43237299999999995,0.947768,-0.347173,-0.080079,-0.03642,-0.03304,-0.017103,,,,,,,,,,,,,,,,,,,,,,,,,,,,,,,,,,,0.0,0.0,1.0,0.0,512.0,1.0,,,,,,,,,,,,,,,,,,,,,,,,,
35686,1645583745.530715,1645583745.540827,63.0,0.0,4403.077147999999,4332.307617,4230.769043,4267.692383,4320.0,0.0,4.0,91.0,,,,0.0,4.0,2.0,4.0,0.0,4.0,50.0,,,,,,,,,,,,,,,,,,,,,,,,,,,,,,,,,,,,,,,,,,,,,,,,,,,,,,,,,,,,,,,,,,,,,,,,,,,,,,,,,,,,
35687,1645583745.53853,1645583745.548642,64.0,0.0,4390.256348,4293.846191,4231.282227000001,4267.692383,4303.077147999999,450.0,4.0,91.0,,,,0.0,4.0,2.0,4.0,0.0,4.0,50.0,,,,,,,,32.0,0.0,0.595431,-0.183594,0.6516109999999999,0.43261700000000003,0.9404440000000001,-0.354009,-0.09033300000000001,-0.036391,-0.033105,-0.02008,,,,,,,,,,,,,,,,,,,,,,,,,,,,,,,,,,,,,,,,,,,,,,,,,,,,,,,,,,,,,,,,,
35688,1645583745.5463462,1645583745.556456,65.0,0.0,4382.05127,4255.897461,4230.256348,4267.692383,4301.538574,450.0,4.0,91.0,,,,0.0,4.0,2.0,4.0,0.0,4.0,50.0,,,,,,,,,,,,,,,,,,,,,,,,,,,,,,,,,,,,,,,,,,,,,,,,,,,,,,,,,,,,,,,,,,,,,,,,,,,,,,,,,,,,
35689,1645583745.5541608,1645583745.5642712,66.0,0.0,4390.769043,4291.794922,4222.563965,4267.179688,4314.871582,16234.0,4.0,91.0,,,,0.0,4.0,2.0,4.0,0.0,4.0,50.0,,,,,,,,33.0,0.0,0.595431,-0.183594,0.6516109999999999,0.43261700000000003,0.9585110000000001,-0.348638,-0.086427,-0.036219,-0.033164,-0.016607,,,,,,,,,,,,,,,,,,,,,,,,,,,,,,,,,,,0.0,0.0,1.0,0.0,512.0,1.0,,,,,,,,,,,,,,,,,,,,,,,,,
35690,1645583745.561977,1645583745.5720859,67.0,0.0,4408.717772999999,4322.563965,4208.717772999999,4266.666504,4321.538574,450.0,4.0,91.0,,,,0.0,4.0,2.0,4.0,0.0,4.0,50.0,,,,,,,,,,,,,,,,,,,,,,,,,,,,,,,,,,,,,,,,,,,,,,,,,,,,,,,,,,,,,,,,,,,,,,,,,,,,,,,,,,,,
35691,1645583745.569793,1645583745.5799,68.0,0.0,4405.128418,4293.333496,4203.077147999999,4268.205078,4323.077147999999,254.0,4.0,91.0,,,,0.0,4.0,2.0,4.0,0.0,4.0,50.0,,,,,,,,34.0,0.0,0.595254,-0.183594,0.6516109999999999,0.43286099999999994,0.9433739999999999,-0.354986,-0.078126,-0.036308,-0.033119,-0.019732,,,,,,,,,,,,,,,,,,,,,,,,,,,,,,,,,,,,,,,,,,,,,,,,,,,,,,,,,,,,,,,,,
35692,1645583745.577608,1645583745.5877151,69.0,0.0,4386.153809,4277.436035,4205.128418,4266.666504,4316.410156,450.0,4.0,91.0,,,,0.0,4.0,2.0,4.0,0.0,4.0,50.0,,,,,,,,,,,,,,,,,,,,,,,,,,,,,,,,,,,,,,,,,,,,,,,,,,,,,,,,,,,,,,,,,,,,,,,,,,,,,,,,,,,,
35693,1645583745.585424,1645583745.5954301,70.0,0.0,4385.641113000001,4282.05127,4206.666504,4266.153809,4294.358886999999,16221.0,4.0,91.0,,,,0.0,4.0,2.0,4.0,0.0,4.0,50.0,,,,,,,,35.0,0.0,0.595254,-0.183594,0.6516109999999999,0.43286099999999994,0.9487450000000001,-0.342779,-0.080079,-0.036291000000000004,-0.033176,-0.022690000000000002,,,,,,,,,,,,,,,,,,,,,,,,,,,,,,,,,,,0.0,0.0,1.0,0.0,512.0,1.0,,,,,,,,,,,,,,,,,,,,,,,,,
35694,1645583745.59324,1645583745.6032438,71.0,0.0,4400.0,4270.769043,4212.820313,4273.333496,4284.615234000001,450.0,4.0,91.0,,,,0.0,4.0,2.0,4.0,0.0,4.0,50.0,,,,,,,,,,,,,,,,,,,,,,,,,,,,,,,,,,,,,,,,,,,,,,,,,,,,,,,,,,,,,,,,,,,,,,,,,,,,,,,,,,,,
35695,1645583745.601056,1645583745.611059,72.0,0.0,4413.333496,4271.794922,4223.589844,4280.512695,4298.461426,450.0,4.0,91.0,,,,0.0,4.0,2.0,4.0,0.0,4.0,50.0,,,,,,,,36.0,0.0,0.594986,-0.183594,0.6518550000000001,0.43286099999999994,0.94435,-0.365728,-0.07910299999999999,-0.036275,-0.033228,-0.025158,,,,,,,,,,,,,,,,,,,,,,,,,,,,,,,,,,,,,,,,,,,,,,,,,,,,,,,,,,,,,,,,,
35696,1645583745.608871,1645583745.618874,73.0,0.0,4408.717772999999,4305.128418,4226.153809,4280.0,4298.974121,0.0,4.0,91.0,,,,0.0,4.0,2.0,4.0,0.0,4.0,50.0,,,,,,,,,,,,,,,,,,,,,,,,,,,,,,,,,,,,,,,,,,,,,,,,,,,,,,,,,,,,,,,,,,,,,,,,,,,,,,,,,,,,
35697,1645583745.6166868,1645583745.626688,74.0,0.0,4384.615234000001,4323.589844,4212.307617,4278.974121,4303.077147999999,450.0,4.0,91.0,,,,0.0,4.0,2.0,4.0,0.0,4.0,50.0,0.972656,33.333332,3.0,1.0,4.0,0.0,4.0,37.0,0.0,0.594986,-0.183594,0.6518550000000001,0.43286099999999994,0.940932,-0.356939,-0.08984500000000001,-0.036261,-0.033274,-0.027426999999999997,1.0,0.0,0.0,,,,,,,,,,,,,,,,,,,,,,,,,,,,,,,,0.0,0.0,1.0,0.0,512.0,1.0,4.42181,3.1362490000000003,2.831293,2.298575,1.8895259999999998,118.65380900000001,52.249859,25.839314,32.082943,14.101899,2.9136189999999997,1.6334879999999998,2.857846,1.0220479999999998,0.454035,0.00515,0.002497,0.002089,0.001696,0.001906,2.869468,1.467999,4.395669,3.378428,1.561842
35698,1645583745.624503,1645583745.634503,75.0,0.0,4392.820313,4310.256348,4207.179688,4282.05127,4323.077147999999,16211.0,4.0,91.0,,,,0.0,4.0,2.0,4.0,0.0,4.0,50.0,,,,,,,,,,,,,,,,,,,,,,,,,,,,,,,,,,,,,,,,,,,,,,,,,,,,,,,,,,,,,,,,,,,,,,,,,,,,,,,,,,,,
35699,1645583745.632318,1645583745.642318,76.0,0.0,4430.769043,4260.0,4226.153809,4279.487305,4325.128418,450.0,4.0,91.0,,,,0.0,4.0,2.0,4.0,0.0,4.0,50.0,,,,,,,,38.0,0.0,0.594986,-0.183594,0.6518550000000001,0.43286099999999994,0.946792,-0.34668499999999997,-0.07422000000000001,-0.036248,-0.033316000000000005,-0.02947,,,,,,,,,,,,,,,,,,,,,,,,,,,,,,,,,,,,,,,,,,,,,,,,,,,,,,,,,,,,,,,,,
35700,1645583745.640134,1645583745.650132,77.0,0.0,4433.846191,4216.922852000001,4237.94873,4271.794922,4308.717772999999,450.0,4.0,91.0,,,,0.0,4.0,2.0,4.0,0.0,4.0,50.0,,,,,,,,,,,,,,,,,,,,,,,,,,,,,,,,,,,,,,,,,,,,,,,,,,,,,,,,,,,,,,,,,,,,,,,,,,,,,,,,,,,,
35701,1645583745.64795,1645583745.657947,78.0,0.0,4409.743652,4228.205078,4228.205078,4268.717772999999,4306.666504,450.0,4.0,91.0,,,,0.0,4.0,2.0,4.0,0.0,4.0,50.0,,,,,,,,39.0,0.0,0.594896,-0.183594,0.6521,0.43261700000000003,0.94435,-0.36035700000000004,-0.08105599999999999,-0.036237,-0.033305,-0.031454,,,,,,,,,,,,,,,,,,,,,,,,,,,,,,,,,,,0.0,0.0,1.0,0.0,512.0,1.0,,,,,,,,,,,,,,,,,,,,,,,,,
35702,1645583745.655765,1645583745.665762,79.0,0.0,4405.641113000001,4235.897461,4221.538574,4270.256348,4320.512695,16211.0,4.0,91.0,,,,0.0,4.0,2.0,4.0,0.0,4.0,50.0,,,,,,,,,,,,,,,,,,,,,,,,,,,,,,,,,,,,,,,,,,,,,,,,,,,,,,,,,,,,,,,,,,,,,,,,,,,,,,,,,,,,
35703,1645583745.6635811,1645583745.673476,80.0,0.0,4401.025879,4219.487305,4217.436035,4273.846191,4316.922852000001,450.0,4.0,91.0,,,,0.0,4.0,2.0,4.0,0.0,4.0,50.0,,,,,,,,40.0,0.0,0.594896,-0.183594,0.6521,0.43261700000000003,0.939467,-0.349615,-0.08838,-0.036226,-0.033295,-0.026844,,,,,,,,,,,,,,,,,,,,,,,,,,,,,,,,,,,,,,,,,,,,,,,,,,,,,,,,,,,,,,,,,
35704,1645583745.671397,1645583745.681291,81.0,0.0,4385.641113000001,4282.563965,4209.230957,4280.0,4291.282227000001,450.0,4.0,91.0,,,,0.0,4.0,2.0,4.0,0.0,4.0,50.0,,,,,,,,,,,,,,,,,,,,,,,,,,,,,,,,,,,,,,,,,,,,,,,,,,,,,,,,,,,,,,,,,,,,,,,,,,,,,,,,,,,,
35705,1645583745.6792119,1645583745.689106,82.0,0.0,4385.641113000001,4415.897461,4203.589844,4280.0,4285.641113000001,450.0,4.0,91.0,,,,0.0,4.0,2.0,4.0,0.0,4.0,50.0,,,,,,,,41.0,0.0,0.5948060000000001,-0.183594,0.6523439999999999,0.43237299999999995,0.9472799999999999,-0.34766199999999997,-0.08984500000000001,-0.036266,-0.033285,-0.029043,,,,,,,,,,,,,,,,,,,,,,,,,,,,,,,,,,,0.0,0.0,1.0,0.0,512.0,1.0,,,,,,,,,,,,,,,,,,,,,,,,,
35706,1645583745.687028,1645583745.69692,83.0,0.0,4388.205078,4444.615234000001,4201.538574,4273.846191,4313.333496,16211.0,4.0,91.0,,,,0.0,4.0,2.0,4.0,0.0,4.0,50.0,,,,,,,,,,,,,,,,,,,,,,,,,,,,,,,,,,,,,,,,,,,,,,,,,,,,,,,,,,,,,,,,,,,,,,,,,,,,,,,,,,,,
35707,1645583745.694844,1645583745.704735,84.0,0.0,4398.974121,4335.384765999999,4212.820313,4274.358886999999,4324.615234000001,450.0,4.0,91.0,,,,0.0,4.0,2.0,4.0,0.0,4.0,50.0,,,,,,,,42.0,0.0,0.5948060000000001,-0.183594,0.6523439999999999,0.43237299999999995,0.944839,-0.32959499999999997,-0.087404,-0.036253,-0.033473,-0.030972000000000003,,,,,,,,,,,,,,,,,,,,,,,,,,,,,,,,,,,,,,,,,,,,,,,,,,,,,,,,,,,,,,,,,
35708,1645583745.702659,1645583745.712549,85.0,0.0,4409.230957,4262.05127,4228.205078,4278.974121,4316.410156,450.0,4.0,91.0,,,,0.0,4.0,2.0,4.0,0.0,4.0,50.0,,,,,,,,,,,,,,,,,,,,,,,,,,,,,,,,,,,,,,,,,,,,,,,,,,,,,,,,,,,,,,,,,,,,,,,,,,,,,,,,,,,,
35709,1645583745.710475,1645583745.720364,86.0,0.0,4390.256348,4280.512695,4229.743652,4277.436035,4313.846191,450.0,4.0,91.0,,,,0.0,4.0,2.0,4.0,0.0,4.0,50.0,,,,,,,,43.0,0.0,0.594629,-0.183594,0.6523439999999999,0.43261700000000003,0.933608,-0.326665,-0.076173,-0.036192,-0.033446,-0.032806999999999996,,,,,,,,,,,,,,,,,,,,,,,,,,,,,,,,,,,0.0,0.0,1.0,0.0,512.0,1.0,,,,,,,,,,,,,,,,,,,,,,,,,
35710,1645583745.718291,1645583745.728179,87.0,0.0,4378.974121,4271.794922,4227.692383,4275.384765999999,4297.94873,16211.0,4.0,91.0,,,,0.0,4.0,2.0,4.0,0.0,4.0,50.0,,,,,,,,,,,,,,,,,,,,,,,,,,,,,,,,,,,,,,,,,,,,,,,,,,,,,,,,,,,,,,,,,,,,,,,,,,,,,,,,,,,,
35711,1645583745.7261062,1645583745.735993,88.0,0.0,4393.846191,4251.282227000001,4228.717772999999,4277.94873,4298.974121,450.0,4.0,91.0,,,,0.0,4.0,2.0,4.0,0.0,4.0,50.0,,,,,,,,44.0,0.0,0.594629,-0.183594,0.6523439999999999,0.43261700000000003,0.946792,-0.340337,-0.085451,-0.036137,-0.03347,-0.028257,,,,,,,,,,,,,,,,,,,,,,,,,,,,,,,,,,,,,,,,,,,,,,,,,,,,,,,,,,,,,,,,,
35712,1645583745.733922,1645583745.743708,89.0,0.0,4383.589844,4300.512695,4217.94873,4279.487305,4324.615234000001,450.0,4.0,91.0,,,,0.0,4.0,2.0,4.0,0.0,4.0,50.0,,,,,,,,,,,,,,,,,,,,,,,,,,,,,,,,,,,,,,,,,,,,,,,,,,,,,,,,,,,,,,,,,,,,,,,,,,,,,,,,,,,,
35713,1645583745.741738,1645583745.751523,90.0,0.0,4361.025879,4297.94873,4207.179688,4274.871582,4322.05127,450.0,4.0,91.0,,,,0.0,4.0,2.0,4.0,0.0,4.0,50.0,,,,,,,,45.0,0.0,0.5943609999999999,-0.183594,0.6525880000000001,0.43261700000000003,0.9350729999999999,-0.34912600000000005,-0.062989,-0.036088,-0.033492,-0.030313999999999997,1.0,0.0,0.0,,,,,,,,,,,,,,,,,,,,,,,,,,,,,,,,0.0,0.0,1.0,0.0,512.0,1.0,3.674898,2.944458,2.864317,2.720106,2.1337490000000003,116.14023600000002,59.854110999999996,26.33832,31.274734000000002,14.855281,2.445866,1.539503,2.573371,0.909266,0.513278,0.006866,0.004566,0.003953,0.003152,0.002973,2.8239810000000003,1.359892,4.402055000000001,3.1293900000000003,1.7090310000000002
35714,1645583745.749553,1645583745.759337,91.0,0.0,4375.897461,4185.641113000001,4207.692383,4273.846191,4304.102539,16211.0,4.0,91.0,,,,0.0,4.0,2.0,4.0,0.0,4.0,50.0,,,,,,,,,,,,,,,,,,,,,,,,,,,,,,,,,,,,,,,,,,,,,,,,,,,,,,,,,,,,,,,,,,,,,,,,,,,,,,,,,,,,
35715,1645583745.757369,1645583745.767152,92.0,0.0,4394.358886999999,4148.205078,4204.615234000001,4278.974121,4311.282227000001,450.0,4.0,91.0,,,,0.0,4.0,2.0,4.0,0.0,4.0,50.0,,,,,,,,46.0,0.0,0.5944510000000001,-0.183594,0.6523439999999999,0.43286099999999994,0.933608,-0.35547399999999996,-0.071778,-0.036044,-0.033464,-0.032214,,,,,,,,,,,,,,,,,,,,,,,,,,,,,,,,,,,,,,,,,,,,,,,,,,,,,,,,,,,,,,,,,
35716,1645583745.7651849,1645583745.774967,93.0,0.0,4392.307617,4241.538574,4204.102539,4278.461426,4322.05127,450.0,4.0,91.0,,,,0.0,4.0,2.0,4.0,0.0,4.0,50.0,,,,,,,,,,,,,,,,,,,,,,,,,,,,,,,,,,,,,,,,,,,,,,,,,,,,,,,,,,,,,,,,,,,,,,,,,,,,,,,,,,,,
35717,1645583745.773,1645583745.7827811,94.0,0.0,4387.692383,4317.436035,4205.128418,4277.436035,4305.128418,450.0,4.0,91.0,,,,0.0,4.0,2.0,4.0,0.0,4.0,50.0,,,,,,,,47.0,0.0,0.5944510000000001,-0.183594,0.6523439999999999,0.43286099999999994,0.9316549999999999,-0.34766199999999997,-0.07470800000000001,-0.036199,-0.033389,-0.033826999999999996,,,,,,,,,,,,,,,,,,,,,,,,,,,,,,,,,,,0.0,0.0,1.0,0.0,512.0,1.0,,,,,,,,,,,,,,,,,,,,,,,,,
35718,1645583745.780816,1645583745.790596,95.0,0.0,4376.410156,4289.743652,4197.94873,4277.436035,4277.94873,16211.0,4.0,91.0,,,,0.0,4.0,2.0,4.0,0.0,4.0,50.0,,,,,,,,,,,,,,,,,,,,,,,,,,,,,,,,,,,,,,,,,,,,,,,,,,,,,,,,,,,,,,,,,,,,,,,,,,,,,,,,,,,,
35719,1645583745.788632,1645583745.798411,96.0,0.0,4372.820313,4257.94873,4191.794922,4271.282227000001,4278.461426,450.0,4.0,91.0,,,,0.0,4.0,2.0,4.0,0.0,4.0,50.0,,,,,,,,48.0,0.0,0.594005,-0.183594,0.6525880000000001,0.433105,0.936049,-0.34766199999999997,-0.066896,-0.036241,-0.03337,-0.029027999999999998,,,,,,,,,,,,,,,,,,,,,,,,,,,,,,,,,,,,,,,,,,,,,,,,,,,,,,,,,,,,,,,,,
35720,1645583745.796447,1645583745.806125,97.0,0.0,4382.563965,4349.743652,4189.743652,4267.179688,4320.0,450.0,4.0,91.0,,,,0.0,4.0,2.0,4.0,0.0,4.0,50.0,,,,,,,,,,,,,,,,,,,,,,,,,,,,,,,,,,,,,,,,,,,,,,,,,,,,,,,,,,,,,,,,,,,,,,,,,,,,,,,,,,,,
35721,1645583745.804263,1645583745.81394,98.0,0.0,4384.102539,4407.179688,4182.563965,4272.820313,4337.436035,450.0,4.0,91.0,,,,0.0,4.0,2.0,4.0,0.0,4.0,50.0,,,,,,,,49.0,0.0,0.594349,-0.18335,0.6523439999999999,0.433105,0.941909,-0.370123,-0.07910299999999999,-0.036279,-0.033451,-0.030958999999999997,,,,,,,,,,,,,,,,,,,,,,,,,,,,,,,,,,,0.0,0.0,1.0,0.0,512.0,1.0,,,,,,,,,,,,,,,,,,,,,,,,,
35722,1645583745.812079,1645583745.8217552,99.0,0.0,4391.282227000001,4320.512695,4182.05127,4273.846191,4306.153809,16211.0,4.0,91.0,,,,0.0,4.0,2.0,4.0,0.0,4.0,50.0,,,,,,,,,,,,,,,,,,,,,,,,,,,,,,,,,,,,,,,,,,,,,,,,,,,,,,,,,,,,,,,,,,,,,,,,,,,,,,,,,,,,
35723,1645583745.8198938,1645583745.8295689,100.0,0.0,4410.769043,4313.333496,4197.94873,4270.769043,4297.94873,450.0,4.0,91.0,,,,0.0,4.0,2.0,4.0,0.0,4.0,50.0,,,,,,,,50.0,0.0,0.594171,-0.18335,0.6523439999999999,0.43335,0.937514,-0.35938000000000003,-0.080568,-0.036314,-0.033475,-0.032697000000000004,,,,,,,,,,,,,,,,,,,,,,,,,,,,,,,,,,,,,,,,,,,,,,,,,,,,,,,,,,,,,,,,,
35724,1645583745.82771,1645583745.837384,101.0,0.0,4410.256348,4392.307617,4206.153809,4275.384765999999,4315.384765999999,450.0,4.0,91.0,,,,0.0,4.0,2.0,4.0,0.0,4.0,50.0,,,,,,,,,,,,,,,,,,,,,,,,,,,,,,,,,,,,,,,,,,,,,,,,,,,,,,,,,,,,,,,,,,,,,,,,,,,,,,,,,,,,
35725,1645583745.835526,1645583745.845199,102.0,0.0,4382.05127,4329.230957,4200.512695,4280.512695,4305.641113000001,450.0,4.0,91.0,,,,0.0,4.0,2.0,4.0,0.0,4.0,50.0,,,,,,,,51.0,0.0,0.594171,-0.18335,0.6523439999999999,0.43335,0.9365379999999999,-0.350591,-0.072267,-0.036198,-0.033448,-0.028012000000000002,,,,,,,,,,,,,,,,,,,,,,,,,,,,,,,,,,,0.0,0.0,1.0,0.0,512.0,1.0,,,,,,,,,,,,,,,,,,,,,,,,,
35726,1645583745.843341,1645583745.853013,103.0,0.0,4367.692383,4268.717772999999,4200.0,4278.974121,4285.641113000001,16211.0,4.0,91.0,,,,0.0,4.0,2.0,4.0,0.0,4.0,50.0,,,,,,,,,,,,,,,,,,,,,,,,,,,,,,,,,,,,,,,,,,,,,,,,,,,,,,,,,,,,,,,,,,,,,,,,,,,,,,,,,,,,
35727,1645583745.851157,1645583745.860728,104.0,0.0,4378.461426,4408.205078,4200.512695,4277.94873,4277.94873,450.0,4.0,91.0,,,,0.0,4.0,2.0,4.0,0.0,4.0,50.0,,,,,,,,52.0,0.0,0.594246,-0.183105,0.6523439999999999,0.43335,0.940932,-0.359869,-0.077638,-0.036191,-0.033424,-0.023843,,,,,,,,,,,,,,,,,,,,,,,,,,,,,,,,,,,,,,,,,,,,,,,,,,,,,,,,,,,,,,,,,
35728,1645583745.858973,1645583745.868543,105.0,0.0,4391.282227000001,4460.512695,4200.0,4279.487305,4289.230957,450.0,4.0,91.0,,,,0.0,4.0,2.0,4.0,0.0,4.0,50.0,,,,,,,,,,,,,,,,,,,,,,,,,,,,,,,,,,,,,,,,,,,,,,,,,,,,,,,,,,,,,,,,,,,,,,,,,,,,,,,,,,,,
35729,1645583745.866789,1645583745.876357,106.0,0.0,4391.794922,4337.436035,4200.0,4281.538574,4321.538574,450.0,4.0,91.0,,,,0.0,4.0,2.0,4.0,0.0,4.0,50.0,,,,,,,,53.0,0.0,0.594321,-0.182861,0.6523439999999999,0.43335,0.945327,-0.354009,-0.085451,-0.036186,-0.033402,-0.020141,1.0,0.0,0.0,,,,,,,,,,,,,,,,,,,,,,,,,,,,,,,,0.0,0.0,1.0,0.0,1.0,0.0,3.095395,2.770762,2.87566,3.136132,2.3952139999999997,111.330666,65.702454,26.264587,30.865097,15.414657,2.029142,1.403253,2.348057,0.78665,0.579272,0.012676,0.011663,0.01023,0.006899,0.005772,2.635132,1.386577,4.431968,2.819359,1.8815110000000002
35730,1645583745.874604,1645583745.884172,107.0,0.0,4382.563965,4318.974121,4193.333496,4281.025879,4330.769043,16211.0,4.0,91.0,,,,0.0,4.0,2.0,4.0,0.0,4.0,50.0,,,,,,,,,,,,,,,,,,,,,,,,,,,,,,,,,,,,,,,,,,,,,,,,,,,,,,,,,,,,,,,,,,,,,,,,,,,,,,,,,,,,
35731,1645583745.8824198,1645583745.8919868,108.0,0.0,4371.282227000001,4415.897461,4183.589844,4275.384765999999,4308.205078,450.0,4.0,91.0,,,,0.0,4.0,2.0,4.0,0.0,4.0,50.0,,,,,,,,54.0,0.0,0.594143,-0.182861,0.6523439999999999,0.433594,0.945327,-0.36328699999999997,-0.080568,-0.036278,-0.033382,-0.023058000000000002,,,,,,,,,,,,,,,,,,,,,,,,,,,,,,,,,,,,,,,,,,,,,,,,,,,,,,,,,,,,,,,,,
35732,1645583745.890236,1645583745.899801,109.0,0.0,4377.436035,4422.05127,4190.769043,4272.820313,4306.666504,450.0,4.0,91.0,,,,0.0,4.0,2.0,4.0,0.0,4.0,50.0,,,,,,,,,,,,,,,,,,,,,,,,,,,,,,,,,,,,,,,,,,,,,,,,,,,,,,,,,,,,,,,,,,,,,,,,,,,,,,,,,,,,
35733,1645583745.898051,1645583745.907616,110.0,0.0,4413.333496,4349.230957,4213.846191,4278.974121,4328.717772999999,450.0,4.0,91.0,,,,0.0,4.0,2.0,4.0,0.0,4.0,50.0,,,,,,,,55.0,0.0,0.594411,-0.182861,0.6521,0.433594,0.95314,-0.361822,-0.081544,-0.036215,-0.033413,-0.025537999999999998,,,,,,,,,,,,,,,,,,,,,,,,,,,,,,,,,,,0.0,0.0,1.0,0.0,1.0,0.0,,,,,,,,,,,,,,,,,,,,,,,,,
35734,1645583745.905867,1645583745.915431,111.0,0.0,4426.153809,4336.922852000001,4212.820313,4277.436035,4330.256348,16211.0,4.0,91.0,,,,0.0,4.0,2.0,4.0,0.0,4.0,50.0,,,,,,,,,,,,,,,,,,,,,,,,,,,,,,,,,,,,,,,,,,,,,,,,,,,,,,,,,,,,,,,,,,,,,,,,,,,,,,,,,,,,
35735,1645583745.913682,1645583745.923245,112.0,0.0,4395.897461,4352.307617,4187.692383,4268.205078,4321.025879,450.0,4.0,91.0,,,,0.0,4.0,2.0,4.0,0.0,4.0,50.0,,,,,,,,56.0,0.0,0.594411,-0.182861,0.6521,0.433594,0.9438620000000001,-0.355962,-0.08838,-0.036157999999999996,-0.033538,-0.021519,,,,,,,,,,,,,,,,,,,,,,,,,,,,,,,,,,,,,,,,,,,,,,,,,,,,,,,,,,,,,,,,,
35736,1645583745.921498,1645583745.93096,113.0,0.0,4389.230957,4322.563965,4188.205078,4273.333496,4316.410156,450.0,4.0,91.0,,,,0.0,4.0,2.0,4.0,0.0,4.0,50.0,,,,,,,,,,,,,,,,,,,,,,,,,,,,,,,,,,,,,,,,,,,,,,,,,,,,,,,,,,,,,,,,,,,,,,,,,,,,,,,,,,,,
35737,1645583745.9293141,1645583745.938775,114.0,0.0,4409.743652,4285.128418,4219.487305,4281.538574,4320.0,450.0,4.0,91.0,,,,0.0,4.0,2.0,4.0,0.0,4.0,50.0,,,,,,,,57.0,0.0,0.594514,-0.183105,0.6521,0.43335,0.9389790000000001,-0.350591,-0.08691499999999999,-0.036155,-0.033456,-0.024201,,,,,,,,,,,,,,,,,,,,,,,,,,,,,,,,,,,0.0,0.0,1.0,0.0,1.0,0.0,,,,,,,,,,,,,,,,,,,,,,,,,
35738,1645583745.937129,1645583745.94659,115.0,0.0,4409.230957,4268.205078,4229.230957,4275.897461,4329.230957,16211.0,4.0,91.0,,,,0.0,4.0,2.0,4.0,0.0,4.0,50.0,,,,,,,,,,,,,,,,,,,,,,,,,,,,,,,,,,,,,,,,,,,,,,,,,,,,,,,,,,,,,,,,,,,,,,,,,,,,,,,,,,,,
35739,1645583745.9449449,1645583745.954405,116.0,0.0,4398.461426,4280.0,4210.769043,4274.871582,4304.102539,450.0,4.0,91.0,,,,0.0,4.0,2.0,4.0,0.0,4.0,50.0,,,,,,,,58.0,0.0,0.594411,-0.182861,0.6521,0.433594,0.95314,-0.361822,-0.081544,-0.036104000000000004,-0.03348,-0.026566000000000003,,,,,,,,,,,,,,,,,,,,,,,,,,,,,,,,,,,,,,,,,,,,,,,,,,,,,,,,,,,,,,,,,
35740,1645583745.952761,1645583745.96222,117.0,0.0,4392.307617,4317.436035,4207.692383,4282.05127,4271.794922,450.0,4.0,91.0,,,,0.0,4.0,2.0,4.0,0.0,4.0,50.0,,,,,,,,,,,,,,,,,,,,,,,,,,,,,,,,,,,,,,,,,,,,,,,,,,,,,,,,,,,,,,,,,,,,,,,,,,,,,,,,,,,,
35741,1645583745.960576,1645583745.970035,118.0,0.0,4376.410156,4326.666504,4217.436035,4280.512695,4294.871582,450.0,4.0,91.0,,,,0.0,4.0,2.0,4.0,0.0,4.0,50.0,,,,,,,,59.0,0.0,0.594514,-0.183105,0.6521,0.43335,0.9389790000000001,-0.350591,-0.08691499999999999,-0.036107,-0.033402999999999995,-0.028744,,,,,,,,,,,,,,,,,,,,,,,,,,,,,,,,,,,0.0,0.0,1.0,0.0,1.0,0.0,,,,,,,,,,,,,,,,,,,,,,,,,
35742,1645583745.968392,1645583745.97785,119.0,0.0,4386.153809,4308.717772999999,4216.922852000001,4276.922852000001,4335.384765999999,16211.0,4.0,91.0,,,,0.0,4.0,2.0,4.0,0.0,4.0,50.0,,,,,,,,,,,,,,,,,,,,,,,,,,,,,,,,,,,,,,,,,,,,,,,,,,,,,,,,,,,,,,,,,,,,,,,,,,,,,,,,,,,,
35743,1645583745.976208,1645583745.9856641,120.0,0.0,4424.615234000001,4344.102539,4206.153809,4278.974121,4332.820313,450.0,4.0,91.0,,,,0.0,4.0,2.0,4.0,0.0,4.0,50.0,,,,,,,,60.0,0.0,0.594514,-0.183105,0.6521,0.43335,0.9487450000000001,-0.351568,-0.075196,-0.036159,-0.033286,-0.030702999999999998,,,,,,,,,,,,,,,,,,,,,,,,,,,,,,,,,,,,,,,,,,,,,,,,,,,,,,,,,,,,,,,,,
35744,1645583745.984023,1645583745.993479,121.0,0.0,4427.179688,4415.897461,4202.05127,4280.0,4321.538574,450.0,4.0,91.0,,,,0.0,4.0,2.0,4.0,0.0,4.0,50.0,,,,,,,,,,,,,,,,,,,,,,,,,,,,,,,,,,,,,,,,,,,,,,,,,,,,,,,,,,,,,,,,,,,,,,,,,,,,,,,,,,,,
35745,1645583745.9918392,1645583746.001294,122.0,0.0,4392.820313,4388.717772999999,4210.769043,4278.461426,4325.128418,450.0,4.0,91.0,,,,0.0,4.0,2.0,4.0,0.0,4.0,50.0,,,,,,,,61.0,0.0,0.594438,-0.18335,0.6521,0.43335,0.9316549999999999,-0.34668499999999997,-0.084962,-0.036156,-0.033326,-0.032565,1.0,0.0,0.0,,,,,,,,,,,,,,,,,,,,,,,,,,,,,,,,0.0,0.0,1.0,0.0,1.0,0.0,2.4790490000000003,2.602484,2.770829,3.4114690000000003,2.572664,105.719246,68.28849,25.731838,32.269794,15.4637,1.6985430000000001,1.2713,2.28157,0.697767,0.63943,0.024734,0.028224000000000003,0.025016999999999998,0.014108,0.011064000000000001,2.306834,1.540604,4.598801,2.503417,2.070622
35746,1645583745.999655,1645583746.009009,123.0,0.0,4378.974121,4263.589844,4217.436035,4277.436035,4308.205078,16211.0,4.0,91.0,,,,0.0,4.0,2.0,4.0,0.0,4.0,50.0,,,,,,,,,,,,,,,,,,,,,,,,,,,,,,,,,,,,,,,,,,,,,,,,,,,,,,,,,,,,,,,,,,,,,,,,,,,,,,,,,,,,
35747,1645583746.00747,1645583746.016824,124.0,0.0,4385.641113000001,4235.897461,4215.897461,4279.487305,4289.230957,450.0,4.0,91.0,,,,0.0,4.0,2.0,4.0,0.0,4.0,50.0,,,,,,,,62.0,0.0,0.594438,-0.18335,0.6521,0.43335,0.9487450000000001,-0.343267,-0.076661,-0.036154,-0.033216,-0.034142,,,,,,,,,,,,,,,,,,,,,,,,,,,,,,,,,,,,,,,,,,,,,,,,,,,,,,,,,,,,,,,,,
35748,1645583746.015286,1645583746.0246391,125.0,0.0,4370.256348,4303.077147999999,4209.743652,4278.974121,4289.743652,450.0,4.0,91.0,,,,0.0,4.0,2.0,4.0,0.0,4.0,50.0,,,,,,,,,,,,,,,,,,,,,,,,,,,,,,,,,,,,,,,,,,,,,,,,,,,,,,,,,,,,,,,,,,,,,,,,,,,,,,,,,,,,
35749,1645583746.023102,1645583746.032454,126.0,0.0,4362.563965,4290.256348,4208.205078,4273.333496,4295.384765999999,450.0,4.0,91.0,,,,0.0,4.0,2.0,4.0,0.0,4.0,50.0,,,,,,,,63.0,0.0,0.594438,-0.18335,0.6521,0.43335,0.9355610000000001,-0.33789600000000003,-0.082521,-0.036201,-0.033117,-0.035562,,,,,,,,,,,,,,,,,,,,,,,,,,,,,,,,,,,0.0,0.0,1.0,0.0,1.0,0.0,,,,,,,,,,,,,,,,,,,,,,,,,
35750,1645583746.030918,1645583746.040269,127.0,0.0,4386.153809,4236.922852000001,4207.692383,4273.333496,4316.922852000001,242.0,4.0,91.0,,,,0.0,4.0,2.0,4.0,0.0,4.0,50.0,,,,,,,,,,,,,,,,,,,,,,,,,,,,,,,,,,,,,,,,,,,,,,,,,,,,,,,,,,,,,,,,,,,,,,,,,,,,,,,,,,,,
35751,1645583746.038733,1645583746.048084,0.0,0.0,4406.666504,4251.282227000001,4204.615234000001,4278.461426,4337.94873,450.0,4.0,91.0,,,,0.0,4.0,2.0,4.0,0.0,4.0,50.0,,,,,,,,0.0,0.0,0.594438,-0.18335,0.6521,0.43335,0.94435,-0.33350100000000005,-0.075685,-0.03634,-0.033175,-0.036742000000000004,,,,,,,,,,,,,,,,,,,,,,,,,,,,,,,,,,,,,,,,,,,,,,,,,,,,,,,,,,,,,,,,,
35752,1645583746.046549,1645583746.055898,1.0,0.0,4412.820313,4280.0,4204.102539,4278.974121,4330.256348,450.0,4.0,91.0,,,,0.0,4.0,2.0,4.0,0.0,4.0,50.0,,,,,,,,,,,,,,,,,,,,,,,,,,,,,,,,,,,,,,,,,,,,,,,,,,,,,,,,,,,,,,,,,,,,,,,,,,,,,,,,,,,,
35753,1645583746.0543652,1645583746.063713,2.0,0.0,4412.307617,4327.179688,4214.871582,4278.461426,4320.0,16245.0,4.0,91.0,,,,0.0,4.0,2.0,4.0,0.0,4.0,50.0,,,,,,,,1.0,0.0,0.594514,-0.183105,0.6521,0.43335,0.945815,-0.343267,-0.07324299999999999,-0.03632,-0.033178,-0.037853,,,,,,,,,,,,,,,,,,,,,,,,,,,,,,,,,,,0.0,0.0,1.0,0.0,1.0,0.0,,,,,,,,,,,,,,,,,,,,,,,,,
35754,1645583746.06218,1645583746.071528,3.0,0.0,4421.025879,4432.307617,4225.128418,4280.512695,4321.025879,450.0,4.0,91.0,,,,0.0,4.0,2.0,4.0,0.0,4.0,50.0,,,,,,,,,,,,,,,,,,,,,,,,,,,,,,,,,,,,,,,,,,,,,,,,,,,,,,,,,,,,,,,,,,,,,,,,,,,,,,,,,,,,
35755,1645583746.069996,1645583746.079243,4.0,0.0,4429.743652,4409.230957,4223.589844,4280.0,4319.487305,270.0,4.0,91.0,,,,0.0,4.0,2.0,4.0,0.0,4.0,50.0,,,,,,,,2.0,0.0,0.594336,-0.183105,0.6521,0.433594,0.937026,-0.34766199999999997,-0.086427,-0.036301,-0.033083,-0.032652,,,,,,,,,,,,,,,,,,,,,,,,,,,,,,,,,,,,,,,,,,,,,,,,,,,,,,,,,,,,,,,,,
35756,1645583746.077812,1645583746.087058,5.0,0.0,4414.871582,4293.333496,4222.563965,4278.461426,4331.282227000001,450.0,4.0,91.0,,,,0.0,4.0,2.0,4.0,0.0,4.0,50.0,,,,,,,,,,,,,,,,,,,,,,,,,,,,,,,,,,,,,,,,,,,,,,,,,,,,,,,,,,,,,,,,,,,,,,,,,,,,,,,,,,,,
35757,1645583746.0856268,1645583746.094873,6.0,0.0,4400.512695,4298.461426,4224.102539,4280.0,4333.333496,16212.0,4.0,91.0,,,,0.0,4.0,2.0,4.0,0.0,4.0,50.0,,,,,,,,3.0,0.0,0.594336,-0.183105,0.6521,0.433594,0.9350729999999999,-0.350591,-0.08447400000000001,-0.036333,-0.033144,-0.027922000000000002,,,,,,,,,,,,,,,,,,,,,,,,,,,,,,,,,,,0.0,0.0,1.0,0.0,1.0,0.0,,,,,,,,,,,,,,,,,,,,,,,,,
35758,1645583746.093443,1645583746.102688,7.0,0.0,4399.487305,4336.922852000001,4225.641113000001,4280.0,4302.563965,450.0,4.0,91.0,,,,0.0,4.0,2.0,4.0,0.0,4.0,50.0,,,,,,,,,,,,,,,,,,,,,,,,,,,,,,,,,,,,,,,,,,,,,,,,,,,,,,,,,,,,,,,,,,,,,,,,,,,,,,,,,,,,
35759,1645583746.101259,1645583746.110503,8.0,0.0,4385.641113000001,4308.205078,4226.153809,4276.922852000001,4300.0,450.0,4.0,91.0,,,,0.0,4.0,2.0,4.0,0.0,4.0,50.0,,,,,,,,4.0,0.0,0.594336,-0.183105,0.6521,0.433594,0.9350729999999999,-0.350103,-0.071778,-0.036313,-0.033198000000000005,-0.029914999999999997,,,,,,,,,,,,,,,,,,,,,,,,,,,,,,,,,,,,,,,,,,,,,,,,,,,,,,,,,,,,,,,,,
35760,1645583746.109074,1645583746.118218,9.0,0.0,4398.974121,4313.846191,4222.05127,4275.384765999999,4332.820313,0.0,4.0,91.0,,,,0.0,4.0,2.0,4.0,0.0,4.0,50.0,,,,,,,,,,,,,,,,,,,,,,,,,,,,,,,,,,,,,,,,,,,,,,,,,,,,,,,,,,,,,,,,,,,,,,,,,,,,,,,,,,,,
35761,1645583746.11689,1645583746.126033,10.0,0.0,4437.436035,4340.512695,4213.846191,4277.94873,4338.461426,450.0,4.0,91.0,,,,0.0,4.0,2.0,4.0,0.0,4.0,50.0,0.972656,41.666668,4.0,1.0,4.0,0.0,4.0,5.0,0.0,0.594336,-0.183105,0.6521,0.433594,0.938491,-0.35547399999999996,-0.083009,-0.036442,-0.033297,-0.025459,1.0,0.0,0.0,,,,,,,,,,,,,,,,,,,,,,,,,,,,,,,,0.0,0.0,1.0,0.0,512.0,1.0,2.187926,2.432613,2.513934,3.4547269999999997,2.5946919999999998,105.45628400000001,67.476799,24.507773999999998,35.7943,15.042339000000002,1.4279389999999998,1.192572,2.390254,0.6726270000000001,0.678899,0.045702,0.057997,0.050737,0.024988999999999997,0.01917,1.9166020000000001,1.747889,4.874316,2.231996,2.257344
35762,1645583746.124706,1645583746.133848,11.0,0.0,4424.102539,4260.512695,4216.922852000001,4279.487305,4327.179688,16217.0,4.0,91.0,,,,0.0,4.0,2.0,4.0,0.0,4.0,50.0,,,,,,,,,,,,,,,,,,,,,,,,,,,,,,,,,,,,,,,,,,,,,,,,,,,,,,,,,,,,,,,,,,,,,,,,,,,,,,,,,,,,
35763,1645583746.1325212,1645583746.141662,12.0,0.0,4392.820313,4221.538574,4226.666504,4279.487305,4323.077147999999,450.0,4.0,91.0,,,,0.0,4.0,2.0,4.0,0.0,4.0,50.0,,,,,,,,6.0,0.0,0.594336,-0.183105,0.6521,0.433594,0.945327,-0.354498,-0.079591,-0.036264,-0.033336000000000005,-0.021546,,,,,,,,,,,,,,,,,,,,,,,,,,,,,,,,,,,,,,,,,,,,,,,,,,,,,,,,,,,,,,,,,
35764,1645583746.140337,1645583746.149477,13.0,0.0,4404.615234000001,4291.282227000001,4221.538574,4280.0,4319.487305,450.0,4.0,91.0,,,,0.0,4.0,2.0,4.0,0.0,4.0,50.0,,,,,,,,,,,,,,,,,,,,,,,,,,,,,,,,,,,,,,,,,,,,,,,,,,,,,,,,,,,,,,,,,,,,,,,,,,,,,,,,,,,,
35765,1645583746.1481528,1645583746.157292,14.0,0.0,4415.384765999999,4281.538574,4207.179688,4278.461426,4320.0,450.0,4.0,91.0,,,,0.0,4.0,2.0,4.0,0.0,4.0,50.0,,,,,,,,7.0,0.0,0.594336,-0.183105,0.6521,0.433594,0.9277489999999999,-0.34668499999999997,-0.083009,-0.036251,-0.033372000000000006,-0.017925999999999997,,,,,,,,,,,,,,,,,,,,,,,,,,,,,,,,,,,0.0,0.0,1.0,0.0,512.0,1.0,,,,,,,,,,,,,,,,,,,,,,,,,
35766,1645583746.155968,1645583746.165107,15.0,0.0,4398.974121,4230.256348,4203.077147999999,4278.461426,4317.436035,16217.0,4.0,91.0,,,,0.0,4.0,2.0,4.0,0.0,4.0,50.0,,,,,,,,,,,,,,,,,,,,,,,,,,,,,,,,,,,,,,,,,,,,,,,,,,,,,,,,,,,,,,,,,,,,,,,,,,,,,,,,,,,,
35767,1645583746.163784,1645583746.172822,16.0,0.0,4380.0,4252.307617,4210.769043,4281.025879,4324.102539,0.0,4.0,91.0,,,,0.0,4.0,2.0,4.0,0.0,4.0,50.0,,,,,,,,8.0,0.0,0.594411,-0.182861,0.6521,0.433594,0.941421,-0.351568,-0.077638,-0.036191,-0.033404,-0.021016,,,,,,,,,,,,,,,,,,,,,,,,,,,,,,,,,,,,,,,,,,,,,,,,,,,,,,,,,,,,,,,,,
35768,1645583746.1716,1645583746.180637,17.0,0.0,4377.94873,4260.512695,4221.025879,4280.512695,4353.333496,0.0,4.0,91.0,,,,0.0,4.0,2.0,4.0,0.0,4.0,50.0,,,,,,,,,,,,,,,,,,,,,,,,,,,,,,,,,,,,,,,,,,,,,,,,,,,,,,,,,,,,,,,,,,,,,,,,,,,,,,,,,,,,
35769,1645583746.179415,1645583746.188452,18.0,0.0,4412.820313,4232.307617,4224.615234000001,4278.974121,4361.025879,0.0,4.0,91.0,,,,0.0,4.0,2.0,4.0,0.0,4.0,50.0,,,,,,,,9.0,0.0,0.594411,-0.182861,0.6521,0.433594,0.932143,-0.36035700000000004,-0.08691499999999999,-0.036331,-0.033384,-0.023846,,,,,,,,,,,,,,,,,,,,,,,,,,,,,,,,,,,0.0,0.0,1.0,0.0,512.0,1.0,,,,,,,,,,,,,,,,,,,,,,,,,
35770,1645583746.187231,1645583746.196267,19.0,0.0,4431.794922,4254.358886999999,4220.512695,4279.487305,4335.897461,0.0,4.0,91.0,,,,0.0,4.0,2.0,4.0,0.0,4.0,50.0,,,,,,,,,,,,,,,,,,,,,,,,,,,,,,,,,,,,,,,,,,,,,,,,,,,,,,,,,,,,,,,,,,,,,,,,,,,,,,,,,,,,
35771,1645583746.1950471,1645583746.204082,20.0,0.0,4394.871582,4252.820313,4232.307617,4279.487305,4327.179688,0.0,4.0,91.0,,,,0.0,4.0,2.0,4.0,0.0,4.0,50.0,,,,,,,,10.0,0.0,0.594233,-0.182861,0.6521,0.433838,0.95021,-0.358892,-0.091798,-0.03636,-0.033463,-0.026101,,,,,,,,,,,,,,,,,,,,,,,,,,,,,,,,,,,,,,,,,,,,,,,,,,,,,,,,,,,,,,,,,
35772,1645583746.202862,1645583746.2118962,21.0,0.0,4377.436035,4201.538574,4244.102539,4280.512695,4330.256348,0.0,4.0,91.0,,,,0.0,4.0,2.0,4.0,0.0,4.0,50.0,,,,,,,,,,,,,,,,,,,,,,,,,,,,,,,,,,,,,,,,,,,,,,,,,,,,,,,,,,,,,,,,,,,,,,,,,,,,,,,,,,,,
35773,1645583746.2106779,1645583746.2197108,22.0,0.0,4407.179688,4242.05127,4228.717772999999,4280.512695,4317.436035,0.0,4.0,91.0,,,,0.0,4.0,2.0,4.0,0.0,4.0,50.0,,,,,,,,11.0,0.0,0.594233,-0.182861,0.6521,0.433838,0.9433739999999999,-0.348638,-0.084962,-0.036483999999999996,-0.033486,-0.028227,,,,,,,,,,,,,,,,,,,,,,,,,,,,,,,,,,,0.0,0.0,1.0,0.0,512.0,1.0,,,,,,,,,,,,,,,,,,,,,,,,,
35774,1645583746.218494,1645583746.227526,23.0,0.0,4417.94873,4309.230957,4214.358886999999,4280.0,4302.563965,0.0,4.0,91.0,,,,0.0,4.0,2.0,4.0,0.0,4.0,50.0,,,,,,,,,,,,,,,,,,,,,,,,,,,,,,,,,,,,,,,,,,,,,,,,,,,,,,,,,,,,,,,,,,,,,,,,,,,,,,,,,,,,
35775,1645583746.226309,1645583746.235241,24.0,0.0,4397.436035,4231.282227000001,4216.410156,4280.512695,4297.436035,0.0,4.0,91.0,,,,0.0,4.0,2.0,4.0,0.0,4.0,50.0,,,,,,,,12.0,0.0,0.594233,-0.182861,0.6521,0.433838,0.9355610000000001,-0.361822,-0.075196,-0.036498,-0.033507,-0.030188999999999997,,,,,,,,,,,,,,,,,,,,,,,,,,,,,,,,,,,,,,,,,,,,,,,,,,,,,,,,,,,,,,,,,
35776,1645583746.234125,1645583746.243057,25.0,0.0,4371.282227000001,4080.0,4211.282227000001,4280.0,4305.128418,0.0,4.0,91.0,,,,0.0,4.0,2.0,4.0,0.0,4.0,50.0,,,,,,,,,,,,,,,,,,,,,,,,,,,,,,,,,,,,,,,,,,,,,,,,,,,,,,,,,,,,,,,,,,,,,,,,,,,,,,,,,,,,
35777,1645583746.241941,1645583746.2508721,26.0,0.0,4364.615234000001,4039.487061,4208.717772999999,4278.461426,4314.358886999999,0.0,4.0,91.0,,,,0.0,4.0,2.0,4.0,0.0,4.0,50.0,,,,,,,,13.0,0.0,0.5945010000000001,-0.182861,0.6518550000000001,0.433838,0.944839,-0.338384,-0.082521,-0.036413,-0.033525,-0.032102,1.0,0.0,0.0,,,,,,,,,,,,,,,,,,,,,,,,,,,,,,,,0.0,0.0,1.0,0.0,512.0,1.0,1.994156,2.27829,2.168934,3.267179,2.45338,110.30866999999999,64.101845,22.554619,40.269989,14.493037,1.222098,1.196136,2.577116,0.715476,0.689118,0.072223,0.101529,0.085043,0.038123000000000004,0.029891,1.541741,1.936078,5.125543,2.056973,2.411273
35778,1645583746.249756,1645583746.258687,27.0,0.0,4397.94873,4132.820313,4216.922852000001,4279.487305,4308.717772999999,0.0,4.0,91.0,,,,0.0,4.0,2.0,4.0,0.0,4.0,50.0,,,,,,,,,,,,,,,,,,,,,,,,,,,,,,,,,,,,,,,,,,,,,,,,,,,,,,,,,,,,,,,,,,,,,,,,,,,,,,,,,,,,
35779,1645583746.2575722,1645583746.266502,28.0,0.0,4421.538574,4188.205078,4213.333496,4281.538574,4310.256348,0.0,4.0,91.0,,,,0.0,4.0,2.0,4.0,0.0,4.0,50.0,,,,,,,,14.0,0.0,0.5945010000000001,-0.182861,0.6518550000000001,0.433838,0.9472799999999999,-0.345708,-0.083497,-0.036531,-0.033591,-0.033677,,,,,,,,,,,,,,,,,,,,,,,,,,,,,,,,,,,,,,,,,,,,,,,,,,,,,,,,,,,,,,,,,
35780,1645583746.265388,1645583746.274317,29.0,0.0,4392.307617,4149.743652,4208.717772999999,4281.025879,4309.230957,0.0,4.0,91.0,,,,0.0,4.0,2.0,4.0,0.0,4.0,50.0,,,,,,,,,,,,,,,,,,,,,,,,,,,,,,,,,,,,,,,,,,,,,,,,,,,,,,,,,,,,,,,,,,,,,,,,,,,,,,,,,,,,
35781,1645583746.273203,1645583746.2821321,30.0,0.0,4371.794922,4205.641113000001,4218.974121,4278.974121,4298.461426,0.0,4.0,91.0,,,,0.0,4.0,2.0,4.0,0.0,4.0,50.0,,,,,,,,15.0,0.0,0.594322,-0.182861,0.6518550000000001,0.43408199999999997,0.9506979999999999,-0.348638,-0.07910299999999999,-0.036539999999999996,-0.033552,-0.035192,,,,,,,,,,,,,,,,,,,,,,,,,,,,,,,,,,,0.0,0.0,1.0,0.0,512.0,1.0,,,,,,,,,,,,,,,,,,,,,,,,,
35782,1645583746.281019,1645583746.289947,31.0,0.0,4389.230957,4286.153809,4219.487305,4278.461426,4328.717772999999,0.0,4.0,91.0,,,,0.0,4.0,2.0,4.0,0.0,4.0,50.0,,,,,,,,,,,,,,,,,,,,,,,,,,,,,,,,,,,,,,,,,,,,,,,,,,,,,,,,,,,,,,,,,,,,,,,,,,,,,,,,,,,,
35783,1645583746.288835,1645583746.297762,32.0,0.0,4406.666504,4242.563965,4204.102539,4279.487305,4357.94873,0.0,4.0,91.0,,,,0.0,4.0,2.0,4.0,0.0,4.0,50.0,,,,,,,,16.0,0.0,0.594322,-0.182861,0.6518550000000001,0.43408199999999997,0.941909,-0.353033,-0.091798,-0.036646,-0.033566000000000006,-0.036605,,,,,,,,,,,,,,,,,,,,,,,,,,,,,,,,,,,,,,,,,,,,,,,,,,,,,,,,,,,,,,,,,
35784,1645583746.29665,1645583746.305578,33.0,0.0,4426.666504,4238.974121,4206.153809,4280.512695,4329.743652,0.0,4.0,91.0,,,,0.0,4.0,2.0,4.0,0.0,4.0,50.0,,,,,,,,,,,,,,,,,,,,,,,,,,,,,,,,,,,,,,,,,,,,,,,,,,,,,,,,,,,,,,,,,,,,,,,,,,,,,,,,,,,,
35785,1645583746.304466,1645583746.3133929,34.0,0.0,4427.692383,4315.384765999999,4229.230957,4280.0,4317.436035,0.0,4.0,91.0,,,,0.0,4.0,2.0,4.0,0.0,4.0,50.0,,,,,,,,17.0,0.0,0.594322,-0.182861,0.6518550000000001,0.43408199999999997,0.9463030000000001,-0.349615,-0.08447400000000001,-0.036644,-0.033579000000000005,-0.037827,,,,,,,,,,,,,,,,,,,,,,,,,,,,,,,,,,,0.0,0.0,1.0,0.0,512.0,1.0,,,,,,,,,,,,,,,,,,,,,,,,,
35786,1645583746.312282,1645583746.3211071,35.0,0.0,4390.769043,4288.717772999999,4226.666504,4279.487305,4338.974121,0.0,4.0,91.0,,,,0.0,4.0,2.0,4.0,0.0,4.0,50.0,,,,,,,,,,,,,,,,,,,,,,,,,,,,,,,,,,,,,,,,,,,,,,,,,,,,,,,,,,,,,,,,,,,,,,,,,,,,,,,,,,,,
35787,1645583746.320097,1645583746.328922,36.0,0.0,4376.922852000001,4266.666504,4210.256348,4278.461426,4309.230957,0.0,4.0,91.0,,,,0.0,4.0,2.0,4.0,0.0,4.0,50.0,,,,,,,,18.0,0.0,0.594144,-0.182861,0.6518550000000001,0.43432600000000005,0.9428850000000001,-0.362799,-0.08203300000000001,-0.036593,-0.033589999999999995,-0.032628,,,,,,,,,,,,,,,,,,,,,,,,,,,,,,,,,,,,,,,,,,,,,,,,,,,,,,,,,,,,,,,,,
35788,1645583746.327913,1645583746.336737,37.0,0.0,4395.384765999999,4354.871582,4214.871582,4280.0,4273.333496,0.0,4.0,91.0,,,,0.0,4.0,2.0,4.0,0.0,4.0,50.0,,,,,,,,,,,,,,,,,,,,,,,,,,,,,,,,,,,,,,,,,,,,,,,,,,,,,,,,,,,,,,,,,,,,,,,,,,,,,,,,,,,,
35789,1645583746.335729,1645583746.344551,38.0,0.0,4391.282227000001,4329.230957,4221.025879,4281.025879,4303.589844,0.0,4.0,91.0,,,,0.0,4.0,2.0,4.0,0.0,4.0,50.0,,,,,,,,19.0,0.0,0.5942189999999999,-0.182617,0.6518550000000001,0.43432600000000005,0.9438620000000001,-0.346197,-0.084962,-0.036498,-0.033454000000000005,-0.027998000000000002,,,,,,,,,,,,,,,,,,,,,,,,,,,,,,,,,,,0.0,0.0,1.0,0.0,512.0,1.0,,,,,,,,,,,,,,,,,,,,,,,,,
35790,1645583746.343544,1645583746.352366,39.0,0.0,4385.128418,4223.077147999999,4216.410156,4280.0,4323.589844,0.0,4.0,91.0,,,,0.0,4.0,2.0,4.0,0.0,4.0,50.0,,,,,,,,,,,,,,,,,,,,,,,,,,,,,,,,,,,,,,,,,,,,,,,,,,,,,,,,,,,,,,,,,,,,,,,,,,,,,,,,,,,,
35791,1645583746.3513598,1645583746.360181,40.0,0.0,4404.615234000001,4242.563965,4213.846191,4278.974121,4304.615234000001,0.0,4.0,91.0,,,,0.0,4.0,2.0,4.0,0.0,4.0,50.0,,,,,,,,20.0,0.0,0.5942189999999999,-0.182617,0.6518550000000001,0.43432600000000005,0.944839,-0.370611,-0.080079,-0.036608,-0.033429,-0.029983999999999997,,,,,,,,,,,,,,,,,,,,,,,,,,,,,,,,,,,,,,,,,,,,,,,,,,,,,,,,,,,,,,,,,
35792,1645583746.359176,1645583746.367995,41.0,0.0,4406.666504,4324.102539,4207.179688,4278.974121,4287.179688,0.0,4.0,91.0,,,,0.0,4.0,2.0,4.0,0.0,4.0,50.0,,,,,,,,,,,,,,,,,,,,,,,,,,,,,,,,,,,,,,,,,,,,,,,,,,,,,,,,,,,,,,,,,,,,,,,,,,,,,,,,,,,,
35793,1645583746.366991,1645583746.37571,42.0,0.0,4376.410156,4358.461426,4200.512695,4278.974121,4270.256348,0.0,4.0,91.0,,,,0.0,4.0,2.0,4.0,0.0,4.0,50.0,,,,,,,,21.0,0.0,0.594294,-0.182373,0.6518550000000001,0.43432600000000005,0.94435,-0.34229,-0.083986,-0.036512,-0.033406,-0.031771,1.0,0.0,0.0,,,,,,,,,,,,,,,,,,,,,,,,,,,,,,,,0.0,0.0,1.0,0.0,512.0,1.0,2.061443,2.145314,1.9061169999999998,2.937316,2.205359,117.611313,59.91069399999999,20.140457,43.621677000000005,14.235930999999999,1.0979649999999999,1.285287,2.687965,0.8002130000000001,0.671906,0.101452,0.153773,0.120503,0.050653,0.042199,1.297142,2.066782,5.223227,2.018567,2.497691
35794,1645583746.3748071,1645583746.383525,43.0,0.0,4363.077147999999,4373.846191,4207.179688,4278.974121,4281.538574,0.0,4.0,91.0,,,,0.0,4.0,2.0,4.0,0.0,4.0,50.0,,,,,,,,,,,,,,,,,,,,,,,,,,,,,,,,,,,,,,,,,,,,,,,,,,,,,,,,,,,,,,,,,,,,,,,,,,,,,,,,,,,,
35795,1645583746.382623,1645583746.39134,44.0,0.0,4385.128418,4375.384765999999,4200.512695,4278.974121,4335.384765999999,0.0,4.0,91.0,,,,0.0,4.0,2.0,4.0,0.0,4.0,50.0,,,,,,,,22.0,0.0,0.5942189999999999,-0.182617,0.6518550000000001,0.43432600000000005,0.9438620000000001,-0.346197,-0.084962,-0.036571,-0.033386,-0.033525,,,,,,,,,,,,,,,,,,,,,,,,,,,,,,,,,,,,,,,,,,,,,,,,,,,,,,,,,,,,,,,,,
35796,1645583746.390438,1645583746.3991551,45.0,0.0,4391.794922,4302.05127,4183.077147999999,4278.974121,4350.256348,0.0,4.0,91.0,,,,0.0,4.0,2.0,4.0,0.0,4.0,50.0,,,,,,,,,,,,,,,,,,,,,,,,,,,,,,,,,,,,,,,,,,,,,,,,,,,,,,,,,,,,,,,,,,,,,,,,,,,,,,,,,,,,
35797,1645583746.398254,1645583746.40697,46.0,0.0,4386.666504,4236.922852000001,4190.256348,4278.974121,4322.05127,0.0,4.0,91.0,,,,0.0,4.0,2.0,4.0,0.0,4.0,50.0,,,,,,,,23.0,0.0,0.594294,-0.182373,0.6518550000000001,0.43432600000000005,0.94435,-0.34229,-0.083986,-0.036479000000000004,-0.033368,-0.034957999999999996,,,,,,,,,,,,,,,,,,,,,,,,,,,,,,,,,,,0.0,0.0,1.0,0.0,512.0,1.0,,,,,,,,,,,,,,,,,,,,,,,,,
35798,1645583746.40607,1645583746.414785,47.0,0.0,4398.974121,4260.512695,4215.897461,4278.974121,4322.563965,0.0,4.0,91.0,,,,0.0,4.0,2.0,4.0,0.0,4.0,50.0,,,,,,,,,,,,,,,,,,,,,,,,,,,,,,,,,,,,,,,,,,,,,,,,,,,,,,,,,,,,,,,,,,,,,,,,,,,,,,,,,,,,
35799,1645583746.4138849,1645583746.4226,48.0,0.0,4398.461426,4285.641113000001,4223.077147999999,4278.461426,4313.333496,0.0,4.0,91.0,,,,0.0,4.0,2.0,4.0,0.0,4.0,50.0,,,,,,,,24.0,0.0,0.5942189999999999,-0.182617,0.6518550000000001,0.43432600000000005,0.953628,-0.358404,-0.083497,-0.036444,-0.033302,-0.030144,,,,,,,,,,,,,,,,,,,,,,,,,,,,,,,,,,,,,,,,,,,,,,,,,,,,,,,,,,,,,,,,,
35800,1645583746.421701,1645583746.430414,49.0,0.0,4390.256348,4275.897461,4213.846191,4278.461426,4281.538574,0.0,4.0,91.0,,,,0.0,4.0,2.0,4.0,0.0,4.0,50.0,,,,,,,,,,,,,,,,,,,,,,,,,,,,,,,,,,,,,,,,,,,,,,,,,,,,,,,,,,,,,,,,,,,,,,,,,,,,,,,,,,,,
35801,1645583746.429517,1645583746.4382288,50.0,0.0,4397.94873,4295.384765999999,4218.974121,4279.487305,4293.333496,0.0,4.0,91.0,,,,0.0,4.0,2.0,4.0,0.0,4.0,50.0,,,,,,,,25.0,0.0,0.5943970000000001,-0.182617,0.6518550000000001,0.43408199999999997,0.939467,-0.357427,-0.085451,-0.036511,-0.033293,-0.031866000000000005,,,,,,,,,,,,,,,,,,,,,,,,,,,,,,,,,,,0.0,0.0,1.0,0.0,512.0,1.0,,,,,,,,,,,,,,,,,,,,,,,,,
35802,1645583746.437333,1645583746.446044,51.0,0.0,4393.333496,4338.974121,4229.230957,4280.0,4320.512695,0.0,4.0,91.0,,,,0.0,4.0,2.0,4.0,0.0,4.0,50.0,,,,,,,,,,,,,,,,,,,,,,,,,,,,,,,,,,,,,,,,,,,,,,,,,,,,,,,,,,,,,,,,,,,,,,,,,,,,,,,,,,,,
35803,1645583746.445148,1645583746.453759,52.0,0.0,4392.307617,4380.512695,4222.563965,4278.974121,4321.025879,0.0,4.0,91.0,,,,0.0,4.0,2.0,4.0,0.0,4.0,50.0,,,,,,,,26.0,0.0,0.5943970000000001,-0.182617,0.6518550000000001,0.43408199999999997,0.9340959999999999,-0.34521999999999997,-0.083497,-0.036473,-0.033283999999999994,-0.027361,,,,,,,,,,,,,,,,,,,,,,,,,,,,,,,,,,,,,,,,,,,,,,,,,,,,,,,,,,,,,,,,,
35804,1645583746.452964,1645583746.461574,53.0,0.0,4423.589844,4370.256348,4212.307617,4279.487305,4332.307617,0.0,4.0,91.0,,,,0.0,4.0,2.0,4.0,0.0,4.0,50.0,,,,,,,,,,,,,,,,,,,,,,,,,,,,,,,,,,,,,,,,,,,,,,,,,,,,,,,,,,,,,,,,,,,,,,,,,,,,,,,,,,,,
35805,1645583746.4607801,1645583746.469389,54.0,0.0,4433.333496,4280.0,4212.820313,4280.512695,4347.179688,0.0,4.0,91.0,,,,0.0,4.0,2.0,4.0,0.0,4.0,50.0,,,,,,,,27.0,0.0,0.594322,-0.182861,0.6518550000000001,0.43408199999999997,0.952651,-0.33789600000000003,-0.08447400000000001,-0.036488,-0.033325,-0.029410000000000002,,,,,,,,,,,,,,,,,,,,,,,,,,,,,,,,,,,0.0,0.0,1.0,0.0,512.0,1.0,,,,,,,,,,,,,,,,,,,,,,,,,
35806,1645583746.468595,1645583746.4772038,55.0,0.0,4404.615234000001,4267.692383,4213.846191,4280.512695,4320.512695,0.0,4.0,91.0,,,,0.0,4.0,2.0,4.0,0.0,4.0,50.0,,,,,,,,,,,,,,,,,,,,,,,,,,,,,,,,,,,,,,,,,,,,,,,,,,,,,,,,,,,,,,,,,,,,,,,,,,,,,,,,,,,,
35807,1645583746.4764109,1645583746.485019,56.0,0.0,4380.512695,4376.410156,4203.077147999999,4280.0,4304.615234000001,0.0,4.0,91.0,,,,0.0,4.0,2.0,4.0,0.0,4.0,50.0,,,,,,,,28.0,0.0,0.594322,-0.182861,0.6518550000000001,0.43408199999999997,0.941421,-0.34375500000000003,-0.08838,-0.036501,-0.033312,-0.031254000000000004,,,,,,,,,,,,,,,,,,,,,,,,,,,,,,,,,,,,,,,,,,,,,,,,,,,,,,,,,,,,,,,,,
35808,1645583746.484227,1645583746.492834,57.0,0.0,4381.538574,4388.717772999999,4191.282227000001,4280.512695,4328.205078,0.0,4.0,91.0,,,,0.0,4.0,2.0,4.0,0.0,4.0,50.0,,,,,,,,,,,,,,,,,,,,,,,,,,,,,,,,,,,,,,,,,,,,,,,,,,,,,,,,,,,,,,,,,,,,,,,,,,,,,,,,,,,,
35809,1645583746.492042,1645583746.500649,58.0,0.0,4391.794922,4274.871582,4196.410156,4280.512695,4320.0,0.0,4.0,91.0,,,,0.0,4.0,2.0,4.0,0.0,4.0,50.0,,,,,,,,29.0,0.0,0.594054,-0.182861,0.6521,0.43408199999999997,0.947768,-0.341802,-0.079591,-0.036513,-0.033302,-0.033061,1.0,0.0,0.0,,,,,,,,,,,,,,,,,,,,,,,,,,,,,,,,0.0,0.0,1.0,0.0,512.0,1.0,2.151453,2.031709,1.909113,2.60101,1.9574790000000002,122.248535,56.633056999999994,18.165646,44.104865999999994,14.599260000000001,1.0478889999999998,1.445581,2.586999,0.8847440000000001,0.639522,0.12295,0.204059,0.14717,0.059316999999999995,0.054112,1.2385,2.1643950000000003,5.089862,2.115303,2.493478
35810,1645583746.499858,1645583746.5084631,59.0,0.0,4398.974121,4240.512695,4215.897461,4280.512695,4294.871582,0.0,4.0,91.0,,,,0.0,4.0,2.0,4.0,0.0,4.0,50.0,,,,,,,,,,,,,,,,,,,,,,,,,,,,,,,,,,,,,,,,,,,,,,,,,,,,,,,,,,,,,,,,,,,,,,,,,,,,,,,,,,,,
35811,1645583746.507674,1645583746.516278,60.0,0.0,4405.641113000001,4278.974121,4222.563965,4280.512695,4293.846191,0.0,4.0,91.0,,,,0.0,4.0,2.0,4.0,0.0,4.0,50.0,,,,,,,,30.0,0.0,0.5938760000000001,-0.182861,0.6521,0.43432600000000005,0.937026,-0.347173,-0.09033300000000001,-0.036524,-0.033341,-0.034442,,,,,,,,,,,,,,,,,,,,,,,,,,,,,,,,,,,,,,,,,,,,,,,,,,,,,,,,,,,,,,,,,
35812,1645583746.515489,1645583746.523993,61.0,0.0,4387.692383,4276.922852000001,4202.563965,4279.487305,4284.102539,0.0,4.0,91.0,,,,0.0,4.0,2.0,4.0,0.0,4.0,50.0,,,,,,,,,,,,,,,,,,,,,,,,,,,,,,,,,,,,,,,,,,,,,,,,,,,,,,,,,,,,,,,,,,,,,,,,,,,,,,,,,,,,
35813,1645583746.5233052,1645583746.531808,62.0,0.0,4350.256348,4260.512695,4193.846191,4278.974121,4272.820313,0.0,4.0,91.0,,,,0.0,4.0,2.0,4.0,0.0,4.0,50.0,,,,,,,,31.0,0.0,0.5938760000000001,-0.182861,0.6521,0.43432600000000005,0.938003,-0.349615,-0.07715,-0.036583,-0.033425,-0.035782999999999995,,,,,,,,,,,,,,,,,,,,,,,,,,,,,,,,,,,0.0,0.0,1.0,0.0,512.0,1.0,,,,,,,,,,,,,,,,,,,,,,,,,
35814,1645583746.531121,1645583746.539623,63.0,0.0,4360.0,4290.769043,4211.794922,4279.487305,4302.05127,0.0,4.0,91.0,,,,0.0,4.0,2.0,4.0,0.0,4.0,50.0,,,,,,,,,,,,,,,,,,,,,,,,,,,,,,,,,,,,,,,,,,,,,,,,,,,,,,,,,,,,,,,,,,,,,,,,,,,,,,,,,,,,
35815,1645583746.538936,1645583746.5474381,64.0,0.0,4404.102539,4318.461426,4214.871582,4280.0,4322.05127,450.0,4.0,91.0,,,,0.0,4.0,2.0,4.0,0.0,4.0,50.0,,,,,,,,32.0,0.0,0.5938760000000001,-0.182861,0.6521,0.43432600000000005,0.938003,-0.34521999999999997,-0.082521,-0.036538,-0.033402,-0.036989999999999995,,,,,,,,,,,,,,,,,,,,,,,,,,,,,,,,,,,,,,,,,,,,,,,,,,,,,,,,,,,,,,,,,
35816,1645583746.546752,1645583746.555253,65.0,0.0,4401.538574,4255.897461,4193.333496,4279.487305,4290.769043,450.0,4.0,91.0,,,,0.0,4.0,2.0,4.0,0.0,4.0,50.0,,,,,,,,,,,,,,,,,,,,,,,,,,,,,,,,,,,,,,,,,,,,,,,,,,,,,,,,,,,,,,,,,,,,,,,,,,,,,,,,,,,,
35817,1645583746.554567,1645583746.563068,66.0,0.0,4372.820313,4194.358886999999,4190.769043,4280.512695,4266.153809,16239.0,4.0,91.0,,,,0.0,4.0,2.0,4.0,0.0,4.0,50.0,,,,,,,,33.0,0.0,0.5938760000000001,-0.182861,0.6521,0.43432600000000005,0.9340959999999999,-0.354009,-0.08691499999999999,-0.036693,-0.033431,-0.031875,,,,,,,,,,,,,,,,,,,,,,,,,,,,,,,,,,,0.0,0.0,1.0,0.0,512.0,1.0,,,,,,,,,,,,,,,,,,,,,,,,,
35818,1645583746.562383,1645583746.570883,67.0,0.0,4372.820313,4216.922852000001,4207.692383,4280.0,4296.410156,450.0,4.0,91.0,,,,0.0,4.0,2.0,4.0,0.0,4.0,50.0,,,,,,,,,,,,,,,,,,,,,,,,,,,,,,,,,,,,,,,,,,,,,,,,,,,,,,,,,,,,,,,,,,,,,,,,,,,,,,,,,,,,
35819,1645583746.570199,1645583746.578697,68.0,0.0,4380.512695,4214.358886999999,4203.589844,4276.922852000001,4330.769043,278.0,4.0,91.0,,,,0.0,4.0,2.0,4.0,0.0,4.0,50.0,,,,,,,,34.0,0.0,0.59404,-0.182617,0.6518550000000001,0.43456999999999996,0.941421,-0.354009,-0.075685,-0.036733999999999996,-0.033555,-0.033569999999999996,,,,,,,,,,,,,,,,,,,,,,,,,,,,,,,,,,,,,,,,,,,,,,,,,,,,,,,,,,,,,,,,,
35820,1645583746.5780141,1645583746.5865119,69.0,0.0,4377.94873,4202.563965,4187.179688,4277.94873,4308.717772999999,450.0,4.0,91.0,,,,0.0,4.0,2.0,4.0,0.0,4.0,50.0,,,,,,,,,,,,,,,,,,,,,,,,,,,,,,,,,,,,,,,,,,,,,,,,,,,,,,,,,,,,,,,,,,,,,,,,,,,,,,,,,,,,
35821,1645583746.58583,1645583746.5942268,70.0,0.0,4374.871582,4306.153809,4189.743652,4281.538574,4269.743652,16194.0,4.0,91.0,,,,0.0,4.0,2.0,4.0,0.0,4.0,50.0,,,,,,,,35.0,0.0,0.5937720000000001,-0.182617,0.6521,0.43456999999999996,0.9433739999999999,-0.347173,-0.078126,-0.036772000000000006,-0.033569,-0.03495,,,,,,,,,,,,,,,,,,,,,,,,,,,,,,,,,,,0.0,0.0,1.0,0.0,512.0,1.0,,,,,,,,,,,,,,,,,,,,,,,,,
35822,1645583746.593646,1645583746.602042,71.0,0.0,4380.512695,4374.871582,4199.487305,4280.0,4284.615234000001,450.0,4.0,91.0,,,,0.0,4.0,2.0,4.0,0.0,4.0,50.0,,,,,,,,,,,,,,,,,,,,,,,,,,,,,,,,,,,,,,,,,,,,,,,,,,,,,,,,,,,,,,,,,,,,,,,,,,,,,,,,,,,,
35823,1645583746.601462,1645583746.609857,72.0,0.0,4378.461426,4276.922852000001,4186.153809,4277.94873,4306.153809,450.0,4.0,91.0,,,,0.0,4.0,2.0,4.0,0.0,4.0,50.0,,,,,,,,36.0,0.0,0.5937720000000001,-0.182617,0.6521,0.43456999999999996,0.9389790000000001,-0.354009,-0.078126,-0.036708,-0.033532,-0.036239999999999994,,,,,,,,,,,,,,,,,,,,,,,,,,,,,,,,,,,,,,,,,,,,,,,,,,,,,,,,,,,,,,,,,
35824,1645583746.609277,1645583746.617672,73.0,0.0,4357.94873,4231.282227000001,4175.384765999999,4279.487305,4288.205078,0.0,4.0,91.0,,,,0.0,4.0,2.0,4.0,0.0,4.0,50.0,,,,,,,,,,,,,,,,,,,,,,,,,,,,,,,,,,,,,,,,,,,,,,,,,,,,,,,,,,,,,,,,,,,,,,,,,,,,,,,,,,,,
35825,1645583746.617093,1645583746.6254869,74.0,0.0,4354.358886999999,4303.589844,4182.05127,4277.94873,4269.743652,450.0,4.0,91.0,,,,0.0,4.0,2.0,4.0,0.0,4.0,50.0,0.972656,41.666668,4.0,1.0,4.0,0.0,4.0,37.0,0.0,0.594115,-0.182373,0.6518550000000001,0.43456999999999996,0.947768,-0.350591,-0.07715,-0.036699,-0.033304,-0.031249000000000002,1.0,0.0,0.0,1.0,0.536084,0.9333520000000001,-0.261822,2.092348,1.0,0.398014,6.671541,0.177412,14.3466,0.232027,1.0,0.401067,-0.093291,-0.243025,0.12082899999999999,1.0,0.382178,0.5956520000000001,-0.61783,2.422159,1.0,0.550272,7.5178970000000005,-23.958633,33.961413,1.0,0.417793,0.566919,0.47251899999999997,0.706751,0.0,0.0,1.0,0.0,512.0,1.0,2.345776,1.9426259999999997,2.262591,2.366061,1.814811,119.25671399999999,55.114830000000005,17.714888000000002,41.290836,15.681967000000002,1.052725,1.648404,2.2486639999999998,0.930991,0.609982,0.13309200000000002,0.239515,0.156649,0.061814999999999995,0.06309,1.404015,2.314508,4.759961,2.314706,2.405569
35826,1645583746.624909,1645583746.633302,75.0,0.0,4376.410156,4321.538574,4178.974121,4275.384765999999,4279.487305,16216.0,4.0,91.0,,,,0.0,4.0,2.0,4.0,0.0,4.0,50.0,,,,,,,,,,,,,,,,,,,,,,,,,,,,,,,,,,,,,,,,,,,,,,,,,,,,,,,,,,,,,,,,,,,,,,,,,,,,,,,,,,,,
35827,1645583746.632724,1645583746.641117,76.0,0.0,4384.615234000001,4284.615234000001,4177.94873,4278.461426,4287.179688,450.0,4.0,91.0,,,,0.0,4.0,2.0,4.0,0.0,4.0,50.0,,,,,,,,38.0,0.0,0.594115,-0.182373,0.6518550000000001,0.43456999999999996,0.945327,-0.352056,-0.086427,-0.036594,-0.033343,-0.033007,,,,,,,,,,,,,,,,,,,,,,,,,,,,,,,,,,,,,,,,,,,,,,,,,,,,,,,,,,,,,,,,,
35828,1645583746.6405401,1645583746.648932,77.0,0.0,4365.128418,4245.641113000001,4191.282227000001,4281.538574,4266.153809,450.0,4.0,91.0,,,,0.0,4.0,2.0,4.0,0.0,4.0,50.0,,,,,,,,,,,,,,,,,,,,,,,,,,,,,,,,,,,,,,,,,,,,,,,,,,,,,,,,,,,,,,,,,,,,,,,,,,,,,,,,,,,,
35829,1645583746.648356,1645583746.6567461,78.0,0.0,4364.615234000001,4225.128418,4191.794922,4280.0,4268.717772999999,450.0,4.0,91.0,,,,0.0,4.0,2.0,4.0,0.0,4.0,50.0,,,,,,,,39.0,0.0,0.594115,-0.182373,0.6518550000000001,0.43456999999999996,0.931167,-0.35352100000000003,-0.073732,-0.036646,-0.033427,-0.028241000000000002,,,,,,,,,,,,,,,,,,,,,,,,,,,,,,,,,,,0.0,0.0,1.0,0.0,512.0,1.0,,,,,,,,,,,,,,,,,,,,,,,,,
35830,1645583746.656171,1645583746.664561,79.0,0.0,4391.794922,4268.717772999999,4186.153809,4278.974121,4306.666504,16216.0,4.0,91.0,,,,0.0,4.0,2.0,4.0,0.0,4.0,50.0,,,,,,,,,,,,,,,,,,,,,,,,,,,,,,,,,,,,,,,,,,,,,,,,,,,,,,,,,,,,,,,,,,,,,,,,,,,,,,,,,,,,
35831,1645583746.663987,1645583746.672276,80.0,0.0,4394.871582,4299.487305,4196.922852000001,4280.512695,4306.153809,450.0,4.0,91.0,,,,0.0,4.0,2.0,4.0,0.0,4.0,50.0,,,,,,,,40.0,0.0,0.5939369999999999,-0.182373,0.6518550000000001,0.43481400000000003,0.9306780000000001,-0.358892,-0.085451,-0.036545999999999995,-0.033453,-0.030202,,,,,,,,,,,,,,,,,,,,,,,,,,,,,,,,,,,,,,,,,,,,,,,,,,,,,,,,,,,,,,,,,
35832,1645583746.671803,1645583746.680091,81.0,0.0,4379.487305,4241.538574,4203.589844,4281.025879,4271.282227000001,450.0,4.0,91.0,,,,0.0,4.0,2.0,4.0,0.0,4.0,50.0,,,,,,,,,,,,,,,,,,,,,,,,,,,,,,,,,,,,,,,,,,,,,,,,,,,,,,,,,,,,,,,,,,,,,,,,,,,,,,,,,,,,
35833,1645583746.679618,1645583746.687906,82.0,0.0,4371.282227000001,4200.0,4196.410156,4280.512695,4268.717772999999,450.0,4.0,91.0,,,,0.0,4.0,2.0,4.0,0.0,4.0,50.0,,,,,,,,41.0,0.0,0.59428,-0.18212899999999999,0.6516109999999999,0.43481400000000003,0.944839,-0.350591,-0.084962,-0.036407,-0.033477,-0.025814999999999998,,,,,,,,,,,,,,,,,,,,,,,,,,,,,,,,,,,0.0,0.0,1.0,0.0,512.0,1.0,,,,,,,,,,,,,,,,,,,,,,,,,
35834,1645583746.687434,1645583746.6957211,83.0,0.0,4362.563965,4229.230957,4189.743652,4279.487305,4280.512695,16216.0,4.0,91.0,,,,0.0,4.0,2.0,4.0,0.0,4.0,50.0,,,,,,,,,,,,,,,,,,,,,,,,,,,,,,,,,,,,,,,,,,,,,,,,,,,,,,,,,,,,,,,,,,,,,,,,,,,,,,,,,,,,
35835,1645583746.69525,1645583746.703536,84.0,0.0,4358.461426,4271.282227000001,4178.974121,4280.0,4296.410156,450.0,4.0,91.0,,,,0.0,4.0,2.0,4.0,0.0,4.0,50.0,,,,,,,,42.0,0.0,0.59428,-0.18212899999999999,0.6516109999999999,0.43481400000000003,0.926284,-0.352544,-0.083986,-0.036282,-0.033401,-0.021671,,,,,,,,,,,,,,,,,,,,,,,,,,,,,,,,,,,,,,,,,,,,,,,,,,,,,,,,,,,,,,,,,
35836,1645583746.7030652,1645583746.711351,85.0,0.0,4370.769043,4270.256348,4168.717772999999,4280.0,4331.282227000001,450.0,4.0,91.0,,,,0.0,4.0,2.0,4.0,0.0,4.0,50.0,,,,,,,,,,,,,,,,,,,,,,,,,,,,,,,,,,,,,,,,,,,,,,,,,,,,,,,,,,,,,,,,,,,,,,,,,,,,,,,,,,,,
35837,1645583746.710881,1645583746.719166,86.0,0.0,4394.358886999999,4240.512695,4168.205078,4277.94873,4334.871582,450.0,4.0,91.0,,,,0.0,4.0,2.0,4.0,0.0,4.0,50.0,,,,,,,,43.0,0.0,0.59428,-0.18212899999999999,0.6516109999999999,0.43481400000000003,0.9472799999999999,-0.354986,-0.09765800000000001,-0.036316,-0.033235,-0.018185,,,,,,,,,,,,,,,,,,,,,,,,,,,,,,,,,,,0.0,0.0,1.0,0.0,512.0,1.0,,,,,,,,,,,,,,,,,,,,,,,,,
35838,1645583746.718697,1645583746.72698,87.0,0.0,4396.922852000001,4277.94873,4175.384765999999,4276.922852000001,4297.94873,16216.0,4.0,91.0,,,,0.0,4.0,2.0,4.0,0.0,4.0,50.0,,,,,,,,,,,,,,,,,,,,,,,,,,,,,,,,,,,,,,,,,,,,,,,,,,,,,,,,,,,,,,,,,,,,,,,,,,,,,,,,,,,,
35839,1645583746.726512,1645583746.7347949,88.0,0.0,4377.436035,4337.436035,4178.461426,4280.0,4274.871582,450.0,4.0,91.0,,,,0.0,4.0,2.0,4.0,0.0,4.0,50.0,,,,,,,,44.0,0.0,0.594205,-0.182373,0.6516109999999999,0.43481400000000003,0.9355610000000001,-0.342779,-0.078614,-0.036345999999999996,-0.033232,-0.021200999999999998,,,,,,,,,,,,,,,,,,,,,,,,,,,,,,,,,,,,,,,,,,,,,,,,,,,,,,,,,,,,,,,,,
35840,1645583746.734328,1645583746.7425098,89.0,0.0,4373.333496,4297.94873,4176.410156,4281.025879,4274.358886999999,450.0,4.0,91.0,,,,0.0,4.0,2.0,4.0,0.0,4.0,50.0,,,,,,,,,,,,,,,,,,,,,,,,,,,,,,,,,,,,,,,,,,,,,,,,,,,,,,,,,,,,,,,,,,,,,,,,,,,,,,,,,,,,
35841,1645583746.7421439,1645583746.750325,90.0,0.0,4368.205078,4251.794922,4180.512695,4279.487305,4270.769043,450.0,4.0,91.0,,,,0.0,4.0,2.0,4.0,0.0,4.0,50.0,,,,,,,,45.0,0.0,0.594205,-0.182373,0.6516109999999999,0.43481400000000003,0.945815,-0.354009,-0.08105599999999999,-0.036374000000000004,-0.033277999999999995,-0.023915000000000002,1.0,0.0,0.0,,,,,,,,,,,,,,,,,,,,,,,,,,,,,,,,0.0,0.0,1.0,0.0,512.0,1.0,2.521895,1.870091,2.868293,2.301484,1.82382,108.931625,54.70809200000001,19.198532,36.313854,17.268715,1.088792,1.8667330000000002,1.7635560000000001,0.9147780000000001,0.5984510000000001,0.125727,0.249621,0.1459,0.057745000000000005,0.066849,1.773198,2.6041790000000002,4.330159,2.576649,2.27202
35842,1645583746.749959,1645583746.75804,91.0,0.0,4342.563965,4279.487305,4182.05127,4280.0,4266.666504,16216.0,4.0,91.0,,,,0.0,4.0,2.0,4.0,0.0,4.0,50.0,,,,,,,,,,,,,,,,,,,,,,,,,,,,,,,,,,,,,,,,,,,,,,,,,,,,,,,,,,,,,,,,,,,,,,,,,,,,,,,,,,,,
35843,1645583746.757775,1645583746.765855,92.0,0.0,4335.384765999999,4334.358886999999,4182.563965,4280.0,4275.897461,450.0,4.0,91.0,,,,0.0,4.0,2.0,4.0,0.0,4.0,50.0,,,,,,,,46.0,0.0,0.594205,-0.182373,0.6516109999999999,0.43481400000000003,0.938003,-0.338872,-0.085451,-0.036301,-0.033368,-0.020107,,,,,,,,,,,,,,,,,,,,,,,,,,,,,,,,,,,,,,,,,,,,,,,,,,,,,,,,,,,,,,,,,
35844,1645583746.765591,1645583746.77367,93.0,0.0,4356.410156,4424.102539,4189.743652,4278.974121,4305.128418,450.0,4.0,91.0,,,,0.0,4.0,2.0,4.0,0.0,4.0,50.0,,,,,,,,,,,,,,,,,,,,,,,,,,,,,,,,,,,,,,,,,,,,,,,,,,,,,,,,,,,,,,,,,,,,,,,,,,,,,,,,,,,,
35845,1645583746.773406,1645583746.7814848,94.0,0.0,4378.461426,4446.666504,4195.897461,4279.487305,4315.384765999999,450.0,4.0,91.0,,,,0.0,4.0,2.0,4.0,0.0,4.0,50.0,,,,,,,,47.0,0.0,0.594205,-0.182373,0.6516109999999999,0.43481400000000003,0.947768,-0.355962,-0.080568,-0.036431,-0.033351,-0.023077,,,,,,,,,,,,,,,,,,,,,,,,,,,,,,,,,,,0.0,0.0,1.0,0.0,512.0,1.0,,,,,,,,,,,,,,,,,,,,,,,,,
35846,1645583746.781222,1645583746.7893,95.0,0.0,4387.692383,4345.641113000001,4198.974121,4281.025879,4300.0,16216.0,4.0,91.0,,,,0.0,4.0,2.0,4.0,0.0,4.0,50.0,,,,,,,,,,,,,,,,,,,,,,,,,,,,,,,,,,,,,,,,,,,,,,,,,,,,,,,,,,,,,,,,,,,,,,,,,,,,,,,,,,,,
35847,1645583746.7890382,1645583746.797115,96.0,0.0,4380.512695,4282.563965,4204.102539,4282.563965,4296.410156,450.0,4.0,91.0,,,,0.0,4.0,2.0,4.0,0.0,4.0,50.0,,,,,,,,48.0,0.0,0.594101,-0.18212899999999999,0.6516109999999999,0.43505900000000003,0.939467,-0.34766199999999997,-0.07910299999999999,-0.036351999999999995,-0.033337,-0.025506,,,,,,,,,,,,,,,,,,,,,,,,,,,,,,,,,,,,,,,,,,,,,,,,,,,,,,,,,,,,,,,,,
35848,1645583746.7968528,1645583746.80493,97.0,0.0,4371.794922,4273.333496,4204.102539,4281.025879,4281.538574,450.0,4.0,91.0,,,,0.0,4.0,2.0,4.0,0.0,4.0,50.0,,,,,,,,,,,,,,,,,,,,,,,,,,,,,,,,,,,,,,,,,,,,,,,,,,,,,,,,,,,,,,,,,,,,,,,,,,,,,,,,,,,,
35849,1645583746.804669,1645583746.812744,98.0,0.0,4361.538574,4260.0,4197.436035,4277.94873,4265.641113000001,450.0,4.0,91.0,,,,0.0,4.0,2.0,4.0,0.0,4.0,50.0,,,,,,,,49.0,0.0,0.594101,-0.18212899999999999,0.6516109999999999,0.43505900000000003,0.9428850000000001,-0.356451,-0.09033300000000001,-0.03633,-0.033372000000000006,-0.027788999999999998,,,,,,,,,,,,,,,,,,,,,,,,,,,,,,,,,,,0.0,0.0,1.0,0.0,512.0,1.0,,,,,,,,,,,,,,,,,,,,,,,,,
35850,1645583746.812485,1645583746.820559,99.0,0.0,4357.94873,4304.102539,4193.333496,4277.94873,4292.820313,16216.0,4.0,91.0,,,,0.0,4.0,2.0,4.0,0.0,4.0,50.0,,,,,,,,,,,,,,,,,,,,,,,,,,,,,,,,,,,,,,,,,,,,,,,,,,,,,,,,,,,,,,,,,,,,,,,,,,,,,,,,,,,,
35851,1645583746.8203,1645583746.828274,100.0,0.0,4377.94873,4342.05127,4188.717772999999,4281.025879,4311.794922,450.0,4.0,91.0,,,,0.0,4.0,2.0,4.0,0.0,4.0,50.0,,,,,,,,50.0,0.0,0.594205,-0.182373,0.6516109999999999,0.43481400000000003,0.947768,-0.355962,-0.080568,-0.036213,-0.033453,-0.029893,,,,,,,,,,,,,,,,,,,,,,,,,,,,,,,,,,,,,,,,,,,,,,,,,,,,,,,,,,,,,,,,,
35852,1645583746.828116,1645583746.8360891,101.0,0.0,4384.615234000001,4313.846191,4191.282227000001,4282.05127,4287.179688,450.0,4.0,91.0,,,,0.0,4.0,2.0,4.0,0.0,4.0,50.0,,,,,,,,,,,,,,,,,,,,,,,,,,,,,,,,,,,,,,,,,,,,,,,,,,,,,,,,,,,,,,,,,,,,,,,,,,,,,,,,,,,,
35853,1645583746.835932,1645583746.843904,102.0,0.0,4360.512695,4320.0,4201.025879,4281.538574,4276.922852000001,450.0,4.0,91.0,,,,0.0,4.0,2.0,4.0,0.0,4.0,50.0,,,,,,,,51.0,0.0,0.594101,-0.18212899999999999,0.6516109999999999,0.43505900000000003,0.9428850000000001,-0.356451,-0.09033300000000001,-0.036205,-0.033477,-0.031738,,,,,,,,,,,,,,,,,,,,,,,,,,,,,,,,,,,0.0,0.0,1.0,0.0,512.0,1.0,,,,,,,,,,,,,,,,,,,,,,,,,
35854,1645583746.843748,1645583746.851719,103.0,0.0,4364.102539,4323.077147999999,4206.666504,4281.538574,4288.717772999999,16216.0,4.0,91.0,,,,0.0,4.0,2.0,4.0,0.0,4.0,50.0,,,,,,,,,,,,,,,,,,,,,,,,,,,,,,,,,,,,,,,,,,,,,,,,,,,,,,,,,,,,,,,,,,,,,,,,,,,,,,,,,,,,
35855,1645583746.851563,1645583746.859534,104.0,0.0,4387.692383,4287.179688,4205.641113000001,4282.05127,4281.025879,450.0,4.0,91.0,,,,0.0,4.0,2.0,4.0,0.0,4.0,50.0,,,,,,,,52.0,0.0,0.5939220000000001,-0.18212899999999999,0.6516109999999999,0.435303,0.929213,-0.343267,-0.07324299999999999,-0.036247,-0.033596,-0.027001999999999998,,,,,,,,,,,,,,,,,,,,,,,,,,,,,,,,,,,,,,,,,,,,,,,,,,,,,,,,,,,,,,,,,
35856,1645583746.8593788,1645583746.867349,105.0,0.0,4391.794922,4345.128418,4196.410156,4281.538574,4284.102539,450.0,4.0,91.0,,,,0.0,4.0,2.0,4.0,0.0,4.0,50.0,,,,,,,,,,,,,,,,,,,,,,,,,,,,,,,,,,,,,,,,,,,,,,,,,,,,,,,,,,,,,,,,,,,,,,,,,,,,,,,,,,,,
35857,1645583746.867195,1645583746.875164,106.0,0.0,4394.358886999999,4431.282227000001,4185.641113000001,4281.538574,4312.820313,450.0,4.0,91.0,,,,0.0,4.0,2.0,4.0,0.0,4.0,50.0,,,,,,,,53.0,0.0,0.593997,-0.181885,0.6516109999999999,0.435303,0.9399559999999999,-0.361334,-0.085451,-0.036186,-0.033507999999999996,-0.029087000000000002,1.0,0.0,0.0,,,,,,,,,,,,,,,,,,,,,,,,,,,,,,,,0.0,0.0,1.0,0.0,512.0,1.0,2.732243,1.8073259999999998,3.496313,2.428588,1.957718,93.793022,54.248008999999996,22.198141,31.013477,18.943565,1.084126,2.078974,1.285476,0.832586,0.610911,0.10605999999999999,0.230977,0.11866600000000001,0.048729,0.06430599999999999,2.270482,3.06811,3.931283,2.862994,2.148979
35858,1645583746.87501,1645583746.882978,107.0,0.0,4388.205078,4424.615234000001,4189.743652,4281.538574,4321.025879,16216.0,4.0,91.0,,,,0.0,4.0,2.0,4.0,0.0,4.0,50.0,,,,,,,,,,,,,,,,,,,,,,,,,,,,,,,,,,,,,,,,,,,,,,,,,,,,,,,,,,,,,,,,,,,,,,,,,,,,,,,,,,,,
35859,1645583746.882826,1645583746.890793,108.0,0.0,4394.358886999999,4370.769043,4206.666504,4281.538574,4310.769043,450.0,4.0,91.0,,,,0.0,4.0,2.0,4.0,0.0,4.0,50.0,,,,,,,,54.0,0.0,0.5938180000000001,-0.181885,0.6516109999999999,0.435547,0.945815,-0.36035700000000004,-0.081544,-0.036279,-0.033477999999999994,-0.024762,,,,,,,,,,,,,,,,,,,,,,,,,,,,,,,,,,,,,,,,,,,,,,,,,,,,,,,,,,,,,,,,,
35860,1645583746.890642,1645583746.898608,109.0,0.0,4403.077147999999,4351.794922,4208.717772999999,4281.538574,4298.974121,450.0,4.0,91.0,,,,0.0,4.0,2.0,4.0,0.0,4.0,50.0,,,,,,,,,,,,,,,,,,,,,,,,,,,,,,,,,,,,,,,,,,,,,,,,,,,,,,,,,,,,,,,,,,,,,,,,,,,,,,,,,,,,
35861,1645583746.898457,1645583746.906323,110.0,0.0,4372.307617,4404.615234000001,4189.230957,4281.538574,4281.538574,450.0,4.0,91.0,,,,0.0,4.0,2.0,4.0,0.0,4.0,50.0,,,,,,,,55.0,0.0,0.5938180000000001,-0.181885,0.6516109999999999,0.435547,0.9487450000000001,-0.350591,-0.082521,-0.036313,-0.033401,-0.02712,,,,,,,,,,,,,,,,,,,,,,,,,,,,,,,,,,,0.0,0.0,1.0,0.0,512.0,1.0,,,,,,,,,,,,,,,,,,,,,,,,,
35862,1645583746.9062731,1645583746.914138,111.0,0.0,4360.0,4397.436035,4187.692383,4281.538574,4269.743652,16216.0,4.0,91.0,,,,0.0,4.0,2.0,4.0,0.0,4.0,50.0,,,,,,,,,,,,,,,,,,,,,,,,,,,,,,,,,,,,,,,,,,,,,,,,,,,,,,,,,,,,,,,,,,,,,,,,,,,,,,,,,,,,
35863,1645583746.914088,1645583746.921953,112.0,0.0,4376.410156,4235.897461,4210.769043,4281.538574,4282.05127,450.0,4.0,91.0,,,,0.0,4.0,2.0,4.0,0.0,4.0,50.0,,,,,,,,56.0,0.0,0.5938180000000001,-0.181885,0.6516109999999999,0.435547,0.949722,-0.356451,-0.083497,-0.036393,-0.033527999999999995,-0.022992,,,,,,,,,,,,,,,,,,,,,,,,,,,,,,,,,,,,,,,,,,,,,,,,,,,,,,,,,,,,,,,,,
35864,1645583746.9219038,1645583746.929768,113.0,0.0,4373.846191,4184.615234000001,4213.333496,4281.538574,4286.666504,450.0,4.0,91.0,,,,0.0,4.0,2.0,4.0,0.0,4.0,50.0,,,,,,,,,,,,,,,,,,,,,,,,,,,,,,,,,,,,,,,,,,,,,,,,,,,,,,,,,,,,,,,,,,,,,,,,,,,,,,,,,,,,
35865,1645583746.92972,1645583746.937583,114.0,0.0,4367.692383,4324.615234000001,4189.743652,4281.538574,4260.512695,450.0,4.0,91.0,,,,0.0,4.0,2.0,4.0,0.0,4.0,50.0,,,,,,,,57.0,0.0,0.5938180000000001,-0.181885,0.6516109999999999,0.435547,0.9340959999999999,-0.349615,-0.084962,-0.036318,-0.033544,-0.019277000000000002,,,,,,,,,,,,,,,,,,,,,,,,,,,,,,,,,,,0.0,0.0,1.0,0.0,512.0,1.0,,,,,,,,,,,,,,,,,,,,,,,,,
35866,1645583746.937535,1645583746.945398,115.0,0.0,4375.384765999999,4360.0,4193.333496,4281.538574,4249.743652,16216.0,4.0,91.0,,,,0.0,4.0,2.0,4.0,0.0,4.0,50.0,,,,,,,,,,,,,,,,,,,,,,,,,,,,,,,,,,,,,,,,,,,,,,,,,,,,,,,,,,,,,,,,,,,,,,,,,,,,,,,,,,,,
35867,1645583746.945351,1645583746.953213,116.0,0.0,4383.589844,4281.025879,4213.846191,4281.538574,4290.256348,450.0,4.0,91.0,,,,0.0,4.0,2.0,4.0,0.0,4.0,50.0,,,,,,,,58.0,0.0,0.5938180000000001,-0.181885,0.6516109999999999,0.435547,0.946792,-0.334966,-0.079591,-0.0363,-0.033608,-0.015884,,,,,,,,,,,,,,,,,,,,,,,,,,,,,,,,,,,,,,,,,,,,,,,,,,,,,,,,,,,,,,,,,
35868,1645583746.953167,1645583746.961027,117.0,0.0,4391.794922,4254.358886999999,4210.769043,4281.538574,4332.307617,450.0,4.0,91.0,,,,0.0,4.0,2.0,4.0,0.0,4.0,50.0,,,,,,,,,,,,,,,,,,,,,,,,,,,,,,,,,,,,,,,,,,,,,,,,,,,,,,,,,,,,,,,,,,,,,,,,,,,,,,,,,,,,
35869,1645583746.960982,1645583746.968842,118.0,0.0,4394.871582,4284.615234000001,4192.307617,4281.538574,4301.025879,450.0,4.0,91.0,,,,0.0,4.0,2.0,4.0,0.0,4.0,50.0,,,,,,,,59.0,0.0,0.5938180000000001,-0.181885,0.6516109999999999,0.435547,0.9423969999999999,-0.340826,-0.083009,-0.036429,-0.033372000000000006,-0.01913,,,,,,,,,,,,,,,,,,,,,,,,,,,,,,,,,,,0.0,0.0,1.0,0.0,512.0,1.0,,,,,,,,,,,,,,,,,,,,,,,,,
35870,1645583746.9687982,1645583746.976557,119.0,0.0,4377.436035,4352.307617,4181.025879,4281.538574,4255.384765999999,16216.0,4.0,91.0,,,,0.0,4.0,2.0,4.0,0.0,4.0,50.0,,,,,,,,,,,,,,,,,,,,,,,,,,,,,,,,,,,,,,,,,,,,,,,,,,,,,,,,,,,,,,,,,,,,,,,,,,,,,,,,,,,,
35871,1645583746.976614,1645583746.9843721,120.0,0.0,4373.333496,4376.922852000001,4189.230957,4281.538574,4268.205078,450.0,4.0,91.0,,,,0.0,4.0,2.0,4.0,0.0,4.0,50.0,,,,,,,,60.0,0.0,0.5938180000000001,-0.181885,0.6516109999999999,0.435547,0.945327,-0.357427,-0.089357,-0.036497,-0.033355,-0.015801,,,,,,,,,,,,,,,,,,,,,,,,,,,,,,,,,,,,,,,,,,,,,,,,,,,,,,,,,,,,,,,,,
35872,1645583746.984429,1645583746.992187,121.0,0.0,4380.0,4306.666504,4205.128418,4281.538574,4288.717772999999,450.0,4.0,91.0,,,,0.0,4.0,2.0,4.0,0.0,4.0,50.0,,,,,,,,,,,,,,,,,,,,,,,,,,,,,,,,,,,,,,,,,,,,,,,,,,,,,,,,,,,,,,,,,,,,,,,,,,,,,,,,,,,,
35873,1645583746.992245,1645583746.999902,122.0,0.0,4366.153809,4299.487305,4210.256348,4281.538574,4288.205078,450.0,4.0,91.0,,,,0.0,4.0,2.0,4.0,0.0,4.0,50.0,,,,,,,,61.0,0.0,0.5938180000000001,-0.181885,0.6516109999999999,0.435547,0.9350729999999999,-0.34815,-0.07910299999999999,-0.03651,-0.033243,-0.019152000000000002,1.0,0.0,0.0,,,,,,,,,,,,,,,,,,,,,,,,,,,,,,,,0.0,0.0,1.0,0.0,512.0,1.0,2.9210529999999997,1.761711,3.907921,2.710693,2.137002,78.698936,51.834457,25.753769000000002,26.931744000000002,20.270643,1.024142,2.294709,0.957041,0.704715,0.6402899999999999,0.077946,0.189617,0.08379600000000001,0.037707,0.0561,2.799106,3.6511480000000005,3.6918800000000003,3.166907,2.086823
35874,1645583747.000061,1645583747.007617,123.0,0.0,4360.0,4398.974121,4204.102539,4281.538574,4287.692383,16216.0,4.0,91.0,,,,0.0,4.0,2.0,4.0,0.0,4.0,50.0,,,,,,,,,,,,,,,,,,,,,,,,,,,,,,,,,,,,,,,,,,,,,,,,,,,,,,,,,,,,,,,,,,,,,,,,,,,,,,,,,,,,
35875,1645583747.0078769,1645583747.0154321,124.0,0.0,4375.897461,4416.922852000001,4206.153809,4281.538574,4284.102539,450.0,4.0,91.0,,,,0.0,4.0,2.0,4.0,0.0,4.0,50.0,,,,,,,,62.0,0.0,0.5938180000000001,-0.181885,0.6516109999999999,0.435547,0.9355610000000001,-0.363775,-0.078614,-0.036521,-0.033287,-0.022022,,,,,,,,,,,,,,,,,,,,,,,,,,,,,,,,,,,,,,,,,,,,,,,,,,,,,,,,,,,,,,,,,
35876,1645583747.015692,1645583747.023147,125.0,0.0,4400.512695,4325.128418,4214.871582,4281.538574,4286.153809,450.0,4.0,91.0,,,,0.0,4.0,2.0,4.0,0.0,4.0,50.0,,,,,,,,,,,,,,,,,,,,,,,,,,,,,,,,,,,,,,,,,,,,,,,,,,,,,,,,,,,,,,,,,,,,,,,,,,,,,,,,,,,,
35877,1645583747.023508,1645583747.030962,126.0,0.0,4401.025879,4287.692383,4213.846191,4281.538574,4298.974121,450.0,4.0,91.0,,,,0.0,4.0,2.0,4.0,0.0,4.0,50.0,,,,,,,,63.0,0.0,0.5938180000000001,-0.181885,0.6516109999999999,0.435547,0.9350729999999999,-0.351568,-0.072267,-0.036385,-0.033279,-0.024654,,,,,,,,,,,,,,,,,,,,,,,,,,,,,,,,,,,0.0,0.0,1.0,0.0,512.0,1.0,,,,,,,,,,,,,,,,,,,,,,,,,
35878,1645583747.031324,1645583747.0387769,127.0,0.0,4381.025879,4343.077147999999,4203.077147999999,4281.538574,4284.102539,242.0,4.0,91.0,,,,0.0,4.0,2.0,4.0,0.0,4.0,50.0,,,,,,,,,,,,,,,,,,,,,,,,,,,,,,,,,,,,,,,,,,,,,,,,,,,,,,,,,,,,,,,,,,,,,,,,,,,,,,,,,,,,
35879,1645583747.039139,1645583747.046593,0.0,0.0,4372.820313,4390.769043,4204.102539,4281.538574,4260.0,450.0,4.0,91.0,,,,0.0,4.0,2.0,4.0,0.0,4.0,50.0,,,,,,,,0.0,0.0,0.5938180000000001,-0.181885,0.6516109999999999,0.435547,0.9399559999999999,-0.364263,-0.087404,-0.036506,-0.033272,-0.027072000000000002,,,,,,,,,,,,,,,,,,,,,,,,,,,,,,,,,,,,,,,,,,,,,,,,,,,,,,,,,,,,,,,,,
35880,1645583747.046955,1645583747.054408,1.0,0.0,4382.563965,4385.128418,4212.307617,4281.538574,4282.563965,450.0,4.0,91.0,,,,0.0,4.0,2.0,4.0,0.0,4.0,50.0,,,,,,,,,,,,,,,,,,,,,,,,,,,,,,,,,,,,,,,,,,,,,,,,,,,,,,,,,,,,,,,,,,,,,,,,,,,,,,,,,,,,
35881,1645583747.0547712,1645583747.062223,2.0,0.0,4382.563965,4420.512695,4204.615234000001,4281.538574,4308.717772999999,16210.0,4.0,91.0,,,,0.0,4.0,2.0,4.0,0.0,4.0,50.0,,,,,,,,1.0,0.0,0.5938180000000001,-0.181885,0.6516109999999999,0.435547,0.929213,-0.358892,-0.076661,-0.036518,-0.033313999999999996,-0.029296,,,,,,,,,,,,,,,,,,,,,,,,,,,,,,,,,,,0.0,0.0,1.0,0.0,512.0,1.0,,,,,,,,,,,,,,,,,,,,,,,,,
35882,1645583747.0625858,1645583747.070038,3.0,0.0,4365.128418,4487.179688,4187.179688,4281.538574,4299.487305,450.0,4.0,91.0,,,,0.0,4.0,2.0,4.0,0.0,4.0,50.0,,,,,,,,,,,,,,,,,,,,,,,,,,,,,,,,,,,,,,,,,,,,,,,,,,,,,,,,,,,,,,,,,,,,,,,,,,,,,,,,,,,,
35883,1645583747.070402,1645583747.0777528,4.0,0.0,4373.846191,4485.128418,4189.743652,4281.538574,4285.641113000001,254.0,4.0,91.0,,,,0.0,4.0,2.0,4.0,0.0,4.0,50.0,,,,,,,,2.0,0.0,0.594071,-0.181641,0.6516109999999999,0.435303,0.940932,-0.352056,-0.083497,-0.036528,-0.033449,-0.031152,,,,,,,,,,,,,,,,,,,,,,,,,,,,,,,,,,,,,,,,,,,,,,,,,,,,,,,,,,,,,,,,,
35884,1645583747.078218,1645583747.085568,5.0,0.0,4405.641113000001,4466.153809,4209.230957,4281.538574,4280.512695,450.0,4.0,91.0,,,,0.0,4.0,2.0,4.0,0.0,4.0,50.0,,,,,,,,,,,,,,,,,,,,,,,,,,,,,,,,,,,,,,,,,,,,,,,,,,,,,,,,,,,,,,,,,,,,,,,,,,,,,,,,,,,,
35885,1645583747.086033,1645583747.093383,6.0,0.0,4412.820313,4444.615234000001,4214.358886999999,4281.538574,4273.333496,16203.0,4.0,91.0,,,,0.0,4.0,2.0,4.0,0.0,4.0,50.0,,,,,,,,3.0,0.0,0.593892,-0.181641,0.6516109999999999,0.435547,0.9277489999999999,-0.357916,-0.085451,-0.036683999999999994,-0.033425,-0.026668999999999998,,,,,,,,,,,,,,,,,,,,,,,,,,,,,,,,,,,0.0,0.0,1.0,0.0,512.0,1.0,,,,,,,,,,,,,,,,,,,,,,,,,
35886,1645583747.093849,1645583747.101198,7.0,0.0,4391.282227000001,4376.410156,4208.205078,4281.538574,4278.974121,450.0,4.0,91.0,,,,0.0,4.0,2.0,4.0,0.0,4.0,50.0,,,,,,,,,,,,,,,,,,,,,,,,,,,,,,,,,,,,,,,,,,,,,,,,,,,,,,,,,,,,,,,,,,,,,,,,,,,,,,,,,,,,
35887,1645583747.101665,1645583747.109012,8.0,0.0,4371.794922,4342.563965,4207.692383,4281.538574,4280.512695,450.0,4.0,91.0,,,,0.0,4.0,2.0,4.0,0.0,4.0,50.0,,,,,,,,4.0,0.0,0.593892,-0.181641,0.6516109999999999,0.435547,0.9428850000000001,-0.34668499999999997,-0.092775,-0.036629,-0.0335,-0.028837,,,,,,,,,,,,,,,,,,,,,,,,,,,,,,,,,,,,,,,,,,,,,,,,,,,,,,,,,,,,,,,,,
35888,1645583747.1094801,1645583747.116827,9.0,0.0,4376.410156,4384.102539,4209.230957,4281.538574,4272.820313,0.0,4.0,91.0,,,,0.0,4.0,2.0,4.0,0.0,4.0,50.0,,,,,,,,,,,,,,,,,,,,,,,,,,,,,,,,,,,,,,,,,,,,,,,,,,,,,,,,,,,,,,,,,,,,,,,,,,,,,,,,,,,,
35889,1645583747.117296,1645583747.124642,10.0,0.0,4378.974121,4421.025879,4206.666504,4281.538574,4288.717772999999,450.0,4.0,91.0,,,,0.0,4.0,2.0,4.0,0.0,4.0,50.0,1.0,41.666668,4.0,1.0,4.0,0.0,4.0,5.0,0.0,0.5938180000000001,-0.181885,0.6516109999999999,0.435547,0.940932,-0.35352100000000003,-0.080568,-0.036579,-0.033519,-0.024439,1.0,0.0,0.0,,,,,,,,,,,,,,,,,,,,,,,,,,,,,,,,0.0,0.0,1.0,0.0,512.0,1.0,3.068125,1.728177,3.973093,3.0680549999999998,2.268313,67.239265,46.772907000000004,28.789761,24.866234,20.956488,0.948325,2.519555,0.830318,0.568804,0.670361,0.051699,0.137709,0.051078,0.027683,0.044422,3.221946,4.217767,3.6373089999999997,3.502298,2.103133
35890,1645583747.1251118,1645583747.132457,11.0,0.0,4375.897461,4403.589844,4204.615234000001,4281.538574,4301.025879,16231.0,4.0,91.0,,,,0.0,4.0,2.0,4.0,0.0,4.0,50.0,,,,,,,,,,,,,,,,,,,,,,,,,,,,,,,,,,,,,,,,,,,,,,,,,,,,,,,,,,,,,,,,,,,,,,,,,,,,,,,,,,,,
35891,1645583747.132927,1645583747.1402721,12.0,0.0,4391.794922,4381.025879,4204.615234000001,4281.538574,4280.512695,450.0,4.0,91.0,,,,0.0,4.0,2.0,4.0,0.0,4.0,50.0,,,,,,,,6.0,0.0,0.5938180000000001,-0.181885,0.6516109999999999,0.435547,0.939467,-0.352056,-0.08203300000000001,-0.036535000000000005,-0.033634,-0.026927,,,,,,,,,,,,,,,,,,,,,,,,,,,,,,,,,,,,,,,,,,,,,,,,,,,,,,,,,,,,,,,,,
35892,1645583747.140743,1645583747.148087,13.0,0.0,4403.589844,4408.717772999999,4207.179688,4281.538574,4277.436035,450.0,4.0,91.0,,,,0.0,4.0,2.0,4.0,0.0,4.0,50.0,,,,,,,,,,,,,,,,,,,,,,,,,,,,,,,,,,,,,,,,,,,,,,,,,,,,,,,,,,,,,,,,,,,,,,,,,,,,,,,,,,,,
35893,1645583747.148559,1645583747.155802,14.0,0.0,4390.769043,4448.717772999999,4208.717772999999,4281.538574,4303.589844,450.0,4.0,91.0,,,,0.0,4.0,2.0,4.0,0.0,4.0,50.0,,,,,,,,7.0,0.0,0.593892,-0.181641,0.6516109999999999,0.435547,0.9428850000000001,-0.34668499999999997,-0.092775,-0.036543,-0.033639999999999996,-0.022867,,,,,,,,,,,,,,,,,,,,,,,,,,,,,,,,,,,0.0,0.0,1.0,0.0,512.0,1.0,,,,,,,,,,,,,,,,,,,,,,,,,
35894,1645583747.156374,1645583747.163616,15.0,0.0,4374.871582,4387.692383,4206.666504,4281.538574,4303.589844,16231.0,4.0,91.0,,,,0.0,4.0,2.0,4.0,0.0,4.0,50.0,,,,,,,,,,,,,,,,,,,,,,,,,,,,,,,,,,,,,,,,,,,,,,,,,,,,,,,,,,,,,,,,,,,,,,,,,,,,,,,,,,,,
35895,1645583747.16419,1645583747.171431,16.0,0.0,4365.641113000001,4269.743652,4206.666504,4281.538574,4275.897461,0.0,4.0,91.0,,,,0.0,4.0,2.0,4.0,0.0,4.0,50.0,,,,,,,,8.0,0.0,0.5938180000000001,-0.181885,0.6516109999999999,0.435547,0.9404440000000001,-0.355962,-0.086427,-0.0366,-0.033694,-0.025463,,,,,,,,,,,,,,,,,,,,,,,,,,,,,,,,,,,,,,,,,,,,,,,,,,,,,,,,,,,,,,,,,
35896,1645583747.1720061,1645583747.1792462,17.0,0.0,4369.230957,4251.794922,4212.307617,4281.538574,4268.205078,0.0,4.0,91.0,,,,0.0,4.0,2.0,4.0,0.0,4.0,50.0,,,,,,,,,,,,,,,,,,,,,,,,,,,,,,,,,,,,,,,,,,,,,,,,,,,,,,,,,,,,,,,,,,,,,,,,,,,,,,,,,,,,
35897,1645583747.179821,1645583747.1870599,18.0,0.0,4377.436035,4324.102539,4221.025879,4281.538574,4285.641113000001,0.0,4.0,91.0,,,,0.0,4.0,2.0,4.0,0.0,4.0,50.0,,,,,,,,9.0,0.0,0.593639,-0.181885,0.6516109999999999,0.435791,0.934585,-0.349615,-0.083497,-0.0367,-0.033694,-0.027701999999999997,,,,,,,,,,,,,,,,,,,,,,,,,,,,,,,,,,,0.0,0.0,1.0,0.0,512.0,1.0,,,,,,,,,,,,,,,,,,,,,,,,,
35898,1645583747.1876369,1645583747.194875,19.0,0.0,4383.077147999999,4384.615234000001,4225.641113000001,4281.538574,4284.102539,0.0,4.0,91.0,,,,0.0,4.0,2.0,4.0,0.0,4.0,50.0,,,,,,,,,,,,,,,,,,,,,,,,,,,,,,,,,,,,,,,,,,,,,,,,,,,,,,,,,,,,,,,,,,,,,,,,,,,,,,,,,,,,
35899,1645583747.195453,1645583747.2026892,20.0,0.0,4393.333496,4355.897461,4223.589844,4281.538574,4271.794922,0.0,4.0,91.0,,,,0.0,4.0,2.0,4.0,0.0,4.0,50.0,,,,,,,,10.0,0.0,0.593564,-0.18212899999999999,0.6516109999999999,0.435791,0.9365379999999999,-0.354009,-0.080568,-0.036741,-0.033742,-0.023565,,,,,,,,,,,,,,,,,,,,,,,,,,,,,,,,,,,,,,,,,,,,,,,,,,,,,,,,,,,,,,,,,
35900,1645583747.203268,1645583747.2105038,21.0,0.0,4393.846191,4263.589844,4221.025879,4281.538574,4292.820313,0.0,4.0,91.0,,,,0.0,4.0,2.0,4.0,0.0,4.0,50.0,,,,,,,,,,,,,,,,,,,,,,,,,,,,,,,,,,,,,,,,,,,,,,,,,,,,,,,,,,,,,,,,,,,,,,,,,,,,,,,,,,,,
35901,1645583747.211084,1645583747.218319,22.0,0.0,4409.743652,4282.05127,4227.692383,4281.538574,4318.461426,0.0,4.0,91.0,,,,0.0,4.0,2.0,4.0,0.0,4.0,50.0,,,,,,,,11.0,0.0,0.5938319999999999,-0.18212899999999999,0.651367,0.435791,0.9340959999999999,-0.358404,-0.08838,-0.036680000000000004,-0.033737,-0.026042000000000003,,,,,,,,,,,,,,,,,,,,,,,,,,,,,,,,,,,0.0,0.0,1.0,0.0,512.0,1.0,,,,,,,,,,,,,,,,,,,,,,,,,
35902,1645583747.2189,1645583747.226033,23.0,0.0,4432.820313,4393.333496,4233.846191,4281.538574,4323.589844,0.0,4.0,91.0,,,,0.0,4.0,2.0,4.0,0.0,4.0,50.0,,,,,,,,,,,,,,,,,,,,,,,,,,,,,,,,,,,,,,,,,,,,,,,,,,,,,,,,,,,,,,,,,,,,,,,,,,,,,,,,,,,,
35903,1645583747.226715,1645583747.233848,24.0,0.0,4415.384765999999,4428.205078,4224.102539,4281.538574,4321.025879,0.0,4.0,91.0,,,,0.0,4.0,2.0,4.0,0.0,4.0,50.0,,,,,,,,12.0,0.0,0.5938319999999999,-0.18212899999999999,0.651367,0.435791,0.932143,-0.361334,-0.092287,-0.036625,-0.033586000000000005,-0.022071,,,,,,,,,,,,,,,,,,,,,,,,,,,,,,,,,,,,,,,,,,,,,,,,,,,,,,,,,,,,,,,,,
35904,1645583747.2345312,1645583747.241663,25.0,0.0,4378.974121,4369.230957,4210.256348,4281.538574,4288.205078,0.0,4.0,91.0,,,,0.0,4.0,2.0,4.0,0.0,4.0,50.0,,,,,,,,,,,,,,,,,,,,,,,,,,,,,,,,,,,,,,,,,,,,,,,,,,,,,,,,,,,,,,,,,,,,,,,,,,,,,,,,,,,,
35905,1645583747.242347,1645583747.249477,26.0,0.0,4380.512695,4337.436035,4208.205078,4281.538574,4259.487305,0.0,4.0,91.0,,,,0.0,4.0,2.0,4.0,0.0,4.0,50.0,,,,,,,,13.0,0.0,0.593743,-0.18212899999999999,0.6516109999999999,0.435547,0.939467,-0.36914600000000003,-0.08691499999999999,-0.036674,-0.033499,-0.024649,1.0,0.0,0.0,,,,,,,,,,,,,,,,,,,,,,,,,,,,,,,,0.0,0.0,1.0,0.0,512.0,1.0,3.1008240000000002,1.6730619999999998,3.732412,3.400442,2.284401,60.504612,39.997181,30.030728999999997,24.645819,21.006651,0.887602,2.732303,0.8588290000000001,0.463822,0.6898529999999999,0.030889999999999997,0.08843200000000001,0.027139,0.020555,0.032126999999999996,3.464489,4.649166999999999,3.7124349999999997,3.887997,2.1795619999999998
35906,1645583747.250162,1645583747.257292,27.0,0.0,4379.487305,4386.153809,4208.717772999999,4281.538574,4288.717772999999,0.0,4.0,91.0,,,,0.0,4.0,2.0,4.0,0.0,4.0,50.0,,,,,,,,,,,,,,,,,,,,,,,,,,,,,,,,,,,,,,,,,,,,,,,,,,,,,,,,,,,,,,,,,,,,,,,,,,,,,,,,,,,,
35907,1645583747.257978,1645583747.265107,28.0,0.0,4362.05127,4428.717772999999,4201.538574,4281.538574,4306.666504,0.0,4.0,91.0,,,,0.0,4.0,2.0,4.0,0.0,4.0,50.0,,,,,,,,14.0,0.0,0.593847,-0.182373,0.6516109999999999,0.435303,0.941909,-0.353033,-0.085451,-0.036766,-0.033567,-0.020817,,,,,,,,,,,,,,,,,,,,,,,,,,,,,,,,,,,,,,,,,,,,,,,,,,,,,,,,,,,,,,,,,
