,Timestamp,EEG.Counter,EEG.Interpolated,EEG.AF3,EEG.T7,EEG.Pz,EEG.T8,EEG.AF4,EEG.RawCq,EEG.Battery,EEG.BatteryPercent,MarkerIndex,MarkerType,MarkerValueInt,EEG.MarkerHardware,CQ.AF3,CQ.T7,CQ.Pz,CQ.T8,CQ.AF4,CQ.Overall,EQ.SampleRateQuality,EQ.OVERALL,EQ.AF3,EQ.T7,EQ.Pz,EQ.T8,EQ.AF4,MOT.CounterMems,MOT.InterpolatedMems,MOT.Q0,MOT.Q1,MOT.Q2,MOT.Q3,MOT.AccX,MOT.AccY,MOT.AccZ,MOT.MagX,MOT.MagY,MOT.MagZ,MC.Action,MC.ActionPower,MC.IsActive,PM.Engagement.IsActive,PM.Engagement.Scaled,PM.Engagement.Raw,PM.Engagement.Min,PM.Engagement.Max,PM.Excitement.IsActive,PM.Excitement.Scaled,PM.Excitement.Raw,PM.Excitement.Min,PM.Excitement.Max,PM.LongTermExcitement,PM.Stress.IsActive,PM.Stress.Scaled,PM.Stress.Raw,PM.Stress.Min,PM.Stress.Max,PM.Relaxation.IsActive,PM.Relaxation.Scaled,PM.Relaxation.Raw,PM.Relaxation.Min,PM.Relaxation.Max,PM.Interest.IsActive,PM.Interest.Scaled,PM.Interest.Raw,PM.Interest.Min,PM.Interest.Max,PM.Focus.IsActive,PM.Focus.Scaled,PM.Focus.Raw,PM.Focus.Min,PM.Focus.Max,FE.BlinkWink,FE.HorizontalEyesDirection,FE.UpperFaceAction,FE.UpperFaceActionPower,FE.LowerFaceAction,FE.LowerFaceActionPower,POW.AF3.Theta,POW.AF3.Alpha,POW.AF3.BetaL,POW.AF3.BetaH,POW.AF3.Gamma,POW.T7.Theta,POW.T7.Alpha,POW.T7.BetaL,POW.T7.BetaH,POW.T7.Gamma,POW.Pz.Theta,POW.Pz.Alpha,POW.Pz.BetaL,POW.Pz.BetaH,POW.Pz.Gamma,POW.T8.Theta,POW.T8.Alpha,POW.T8.BetaL,POW.T8.BetaH,POW.T8.Gamma,POW.AF4.Theta,POW.AF4.Alpha,POW.AF4.BetaL,POW.AF4.BetaH,POW.AF4.Gamma
7839,1645650658.96894,11.0,0.0,4307.179688,4808.717772999999,4171.282227000001,4278.974121,4284.102539,16241.0,3.0,59.0,,,,0.0,4.0,0.0,4.0,0.0,4.0,33.333332,,,,,,,,,,,,,,,,,,,,,,,,,,,,,,,,,,,,,,,,,,,,,,,,,,,,,,0.0,0.0,1.0,0.0,512.0,1.0,,,,,,,,,,,,,,,,,,,,,,,,,
7840,1645650658.9767551,12.0,0.0,4314.871582,4708.205078,4207.179688,4276.410156,4293.333496,450.0,3.0,59.0,,,,0.0,4.0,0.0,4.0,0.0,4.0,33.333332,,,,,,,,6.0,0.0,0.339935,0.567383,0.14135699999999998,-0.736572,0.931167,-0.172854,-0.318364,-0.017475,-0.050162,-0.025802,,,,,,,,,,,,,,,,,,,,,,,,,,,,,,,,,,,,,,,,,,,,,,,,,,,,,,,,,,,,,,,,,
7841,1645650658.984669,13.0,0.0,4308.205078,4535.897461,4220.0,4276.410156,4294.871582,450.0,3.0,59.0,,,,0.0,4.0,0.0,4.0,0.0,4.0,33.333332,,,,,,,,,,,,,,,,,,,,,,,,,,,,,,,,,,,,,,,,,,,,,,,,,,,,,,,,,,,,,,,,,,,,,,,,,,,,,,,,,,,,
7842,1645650658.992484,14.0,0.0,4305.641113000001,4585.128418,4200.0,4276.922852000001,4300.512695,450.0,3.0,59.0,,,,0.0,4.0,0.0,4.0,0.0,4.0,33.333332,,,,,,,,7.0,0.0,0.339814,0.5671390000000001,0.14135699999999998,-0.736816,0.939467,-0.175296,-0.31299299999999997,-0.018071,-0.050175,-0.028886000000000002,,,,,,,,,,,,,,,,,,,,,,,,,,,,,,,,,,,,,,,,,,,,,,,,,,,,,,,,,,,,,,,,,
7843,1645650659.000299,15.0,0.0,4305.641113000001,4714.358886999999,4185.128418,4278.461426,4288.205078,16241.0,3.0,59.0,,,,0.0,4.0,0.0,4.0,0.0,4.0,33.333332,,,,,,,,,,,,,,,,,,,,1.0,0.0,0.0,,,,,,,,,,,,,,,,,,,,,,,,,,,,,,,,0.0,0.0,1.0,0.0,512.0,1.0,5.256976,0.673307,0.7594069999999999,0.752106,2.101587,13.252229000000002,7.4787729999999994,35.932034,37.093132000000004,27.950964000000003,3.3133519999999996,2.804218,0.6830890000000001,1.7980450000000001,1.6890470000000002,0.008092,0.008394,0.0034409999999999996,0.005653,0.007826999999999999,2.832502,2.053557,0.7701479999999999,1.3115290000000002,1.067613
7844,1645650659.0081131,16.0,0.0,4303.077147999999,4662.05127,4197.94873,4280.0,4284.615234000001,0.0,3.0,59.0,,,,0.0,4.0,0.0,4.0,0.0,4.0,33.333332,,,,,,,,8.0,0.0,0.339712,0.5671390000000001,0.141602,-0.736816,0.954116,-0.15967,-0.31006300000000003,-0.018608,-0.050089999999999996,-0.025411000000000003,,,,,,,,,,,,,,,,,,,,,,,,,,,,,,,,,,,,,,,,,,,,,,,,,,,,,,,,,,,,,,,,,
7845,1645650659.015928,17.0,0.0,4293.846191,4568.717772999999,4198.461426,4279.487305,4303.077147999999,0.0,3.0,59.0,,,,0.0,4.0,0.0,4.0,0.0,4.0,33.333332,,,,,,,,,,,,,,,,,,,,,,,,,,,,,,,,,,,,,,,,,,,,,,,,,,,,,,,,,,,,,,,,,,,,,,,,,,,,,,,,,,,,
7846,1645650659.023743,18.0,0.0,4306.153809,4624.615234000001,4214.871582,4277.94873,4318.974121,0.0,3.0,59.0,,,,0.0,4.0,0.0,4.0,0.0,4.0,33.333332,,,,,,,,9.0,0.0,0.339712,0.5671390000000001,0.141602,-0.736816,0.951675,-0.167971,-0.310552,-0.019091,-0.050158999999999995,-0.028533999999999997,,,,,,,,,,,,,,,,,,,,,,,,,,,,,,,,,,,,,,,,,,,,,,,,,,,,,,,,,,,,,,,,,
7847,1645650659.031557,19.0,0.0,4329.743652,4697.94873,4211.794922,4279.487305,4306.666504,0.0,3.0,59.0,,,,0.0,4.0,0.0,4.0,0.0,4.0,33.333332,,,,,,,,,,,,,,,,,,,,,,,,,,,,,,,,,,,,,,,,,,,,,,,,,,,,,,0.0,0.0,1.0,0.0,512.0,1.0,,,,,,,,,,,,,,,,,,,,,,,,,
7848,1645650659.039372,20.0,0.0,4318.974121,4661.538574,4202.05127,4280.0,4280.512695,0.0,3.0,59.0,,,,0.0,4.0,0.0,4.0,0.0,4.0,33.333332,,,,,,,,10.0,0.0,0.33960999999999997,0.5671390000000001,0.141846,-0.736816,0.9433739999999999,-0.160159,-0.31104,-0.019622999999999998,-0.050220999999999995,-0.025095,,,,,,,,,,,,,,,,,,,,,,,,,,,,,,,,,,,,,,,,,,,,,,,,,,,,,,,,,,,,,,,,,
7849,1645650659.0471869,21.0,0.0,4304.102539,4637.436035,4194.358886999999,4278.974121,4269.743652,0.0,3.0,59.0,,,,0.0,4.0,0.0,4.0,0.0,4.0,33.333332,,,,,,,,,,,,,,,,,,,,,,,,,,,,,,,,,,,,,,,,,,,,,,,,,,,,,,,,,,,,,,,,,,,,,,,,,,,,,,,,,,,,
7850,1645650659.055101,22.0,0.0,4320.0,4655.384765999999,4218.461426,4279.487305,4274.358886999999,0.0,3.0,59.0,,,,0.0,4.0,0.0,4.0,0.0,4.0,33.333332,,,,,,,,11.0,0.0,0.339508,0.5671390000000001,0.14209000000000002,-0.736816,0.9511860000000001,-0.167971,-0.313481,-0.018345,-0.050325999999999996,-0.028298,,,,,,,,,,,,,,,,,,,,,,,,,,,,,,,,,,,,,,,,,,,,,,,,,,,,,,,,,,,,,,,,,
7851,1645650659.062916,23.0,0.0,4334.871582,4624.615234000001,4235.384765999999,4279.487305,4294.358886999999,0.0,3.0,59.0,,,,0.0,4.0,0.0,4.0,0.0,4.0,33.333332,,,,,,,,,,,,,,,,,,,,,,,,,,,,,,,,,,,,,,,,,,,,,,,,,,,,,,0.0,0.0,1.0,0.0,512.0,1.0,,,,,,,,,,,,,,,,,,,,,,,,,
7852,1645650659.07073,24.0,0.0,4299.487305,4613.333496,4214.871582,4277.94873,4294.358886999999,0.0,3.0,59.0,,,,0.0,4.0,0.0,4.0,0.0,4.0,33.333332,,,,,,,,12.0,0.0,0.339508,0.5671390000000001,0.14209000000000002,-0.736816,0.9643700000000001,-0.152834,-0.308598,-0.017243,-0.050372,-0.031083999999999997,,,,,,,,,,,,,,,,,,,,,,,,,,,,,,,,,,,,,,,,,,,,,,,,,,,,,,,,,,,,,,,,,
7853,1645650659.0785449,25.0,0.0,4270.256348,4646.153809,4187.179688,4277.94873,4280.512695,0.0,3.0,59.0,,,,0.0,4.0,0.0,4.0,0.0,4.0,33.333332,,,,,,,,,,,,,,,,,,,,,,,,,,,,,,,,,,,,,,,,,,,,,,,,,,,,,,,,,,,,,,,,,,,,,,,,,,,,,,,,,,,,
7854,1645650659.08636,26.0,0.0,4291.282227000001,4668.205078,4196.410156,4280.512695,4266.666504,0.0,3.0,59.0,,,,0.0,4.0,0.0,4.0,0.0,4.0,33.333332,,,,,,,,13.0,0.0,0.33963000000000004,0.567383,0.14209000000000002,-0.736572,0.9585110000000001,-0.161135,-0.320317,-0.017813,-0.050461,-0.027438,,,,,,,,,,,,,,,,,,,,,,,,,,,,,,,,,,,,,,,,,,,,,,,,,,,,,,,,,,,,,,,,,
7855,1645650659.094174,27.0,0.0,4334.871582,4677.436035,4223.589844,4280.0,4293.333496,0.0,3.0,59.0,,,,0.0,4.0,0.0,4.0,0.0,4.0,33.333332,,,,,,,,,,,,,,,,,,,,,,,,,,,,,,,,,,,,,,,,,,,,,,,,,,,,,,0.0,0.0,1.0,0.0,512.0,1.0,,,,,,,,,,,,,,,,,,,,,,,,,
7856,1645650659.101989,28.0,0.0,4321.025879,4682.563965,4219.487305,4278.974121,4311.794922,0.0,3.0,59.0,,,,0.0,4.0,0.0,4.0,0.0,4.0,33.333332,,,,,,,,14.0,0.0,0.33963000000000004,0.567383,0.14209000000000002,-0.736572,0.9560690000000001,-0.17236600000000002,-0.308598,-0.018425,-0.050395999999999996,-0.030407999999999998,,,,,,,,,,,,,,,,,,,,,,,,,,,,,,,,,,,,,,,,,,,,,,,,,,,,,,,,,,,,,,,,,
7857,1645650659.109804,29.0,0.0,4300.512695,4682.05127,4220.512695,4280.0,4305.128418,0.0,3.0,59.0,,,,0.0,4.0,0.0,4.0,0.0,4.0,33.333332,,,,,,,,,,,,,,,,,,,,,,,,,,,,,,,,,,,,,,,,,,,,,,,,,,,,,,,,,,,,,,,,,,,,,,,,,,,,,,,,,,,,
7858,1645650659.117618,30.0,0.0,4306.153809,4654.871582,4210.256348,4279.487305,4293.333496,0.0,3.0,59.0,,,,0.0,4.0,0.0,4.0,0.0,4.0,33.333332,,,,,,,,15.0,0.0,0.33963000000000004,0.567383,0.14209000000000002,-0.736572,0.95021,-0.166018,-0.307622,-0.017363,-0.050337,-0.033031,,,,,,,,,,,,,,,,,,,,,,,,,,,,,,,,,,,,,,,,,,,,,,,,,,,,,,,,,,,,,,,,,
7859,1645650659.125433,31.0,0.0,4316.410156,4600.512695,4209.743652,4278.974121,4291.794922,0.0,3.0,59.0,,,,0.0,4.0,0.0,4.0,0.0,4.0,33.333332,1.0,33.333332,4.0,0.0,4.0,0.0,4.0,,,,,,,,,,,,,1.0,0.0,0.0,,,,,,,,,,,,,,,,,,,,,,,,,,,,,,,,0.0,0.0,1.0,0.0,512.0,1.0,4.622623,0.798056,0.804055,0.801082,2.177212,11.948825999999999,8.254706,36.244251,35.498321999999995,31.585619,3.23327,2.723359,0.6371060000000001,1.755668,1.8960860000000002,0.007278,0.00835,0.004086,0.005906000000000001,0.008485,2.477062,2.633126,0.817283,1.111774,1.151945
7860,1645650659.133348,32.0,0.0,4318.461426,4606.153809,4228.205078,4279.487305,4297.94873,0.0,3.0,59.0,,,,0.0,4.0,0.0,4.0,0.0,4.0,33.333332,,,,,,,,16.0,0.0,0.339751,0.567627,0.14209000000000002,-0.736328,0.9629049999999999,-0.169924,-0.31396999999999997,-0.016408000000000002,-0.050186,-0.035245,,,,,,,,,,,,,,,,,,,,,,,,,,,,,,,,,,,,,,,,,,,,,,,,,,,,,,,,,,,,,,,,,
7861,1645650659.141162,33.0,0.0,4317.436035,4636.410156,4255.384765999999,4278.974121,4314.358886999999,0.0,3.0,59.0,,,,0.0,4.0,0.0,4.0,0.0,4.0,33.333332,,,,,,,,,,,,,,,,,,,,,,,,,,,,,,,,,,,,,,,,,,,,,,,,,,,,,,,,,,,,,,,,,,,,,,,,,,,,,,,,,,,,
7862,1645650659.148977,34.0,0.0,4317.436035,4605.641113000001,4244.102539,4277.94873,4320.0,0.0,3.0,59.0,,,,0.0,4.0,0.0,4.0,0.0,4.0,33.333332,,,,,,,,17.0,0.0,0.339751,0.567627,0.14209000000000002,-0.736328,0.9546040000000001,-0.164553,-0.31201599999999996,-0.017258000000000003,-0.050148000000000005,-0.037239,,,,,,,,,,,,,,,,,,,,,,,,,,,,,,,,,,,,,,,,,,,,,,,,,,,,,,,,,,,,,,,,,
7863,1645650659.156791,35.0,0.0,4323.077147999999,4618.461426,4223.589844,4279.487305,4306.153809,0.0,3.0,59.0,,,,0.0,4.0,0.0,4.0,0.0,4.0,33.333332,,,,,,,,,,,,,,,,,,,,,,,,,,,,,,,,,,,,,,,,,,,,,,,,,,,,,,0.0,0.0,1.0,0.0,512.0,1.0,,,,,,,,,,,,,,,,,,,,,,,,,
7864,1645650659.164606,36.0,0.0,4328.205078,4702.563965,4220.512695,4280.512695,4299.487305,0.0,3.0,59.0,,,,0.0,4.0,0.0,4.0,0.0,4.0,33.333332,,,,,,,,18.0,0.0,0.33963000000000004,0.567383,0.14209000000000002,-0.736572,0.95021,-0.166018,-0.307622,-0.016313,-0.050114,-0.039179000000000005,,,,,,,,,,,,,,,,,,,,,,,,,,,,,,,,,,,,,,,,,,,,,,,,,,,,,,,,,,,,,,,,,
7865,1645650659.172421,37.0,0.0,4329.230957,4769.743652,4227.179688,4280.512695,4312.307617,0.0,3.0,59.0,,,,0.0,4.0,0.0,4.0,0.0,4.0,33.333332,,,,,,,,,,,,,,,,,,,,,,,,,,,,,,,,,,,,,,,,,,,,,,,,,,,,,,,,,,,,,,,,,,,,,,,,,,,,,,,,,,,,
7866,1645650659.180235,38.0,0.0,4332.307617,4788.205078,4209.743652,4280.512695,4312.820313,0.0,3.0,59.0,,,,0.0,4.0,0.0,4.0,0.0,4.0,33.333332,,,,,,,,19.0,0.0,0.339751,0.567627,0.14209000000000002,-0.736328,0.9546040000000001,-0.164553,-0.31201599999999996,-0.017172,-0.050082999999999996,-0.040779,,,,,,,,,,,,,,,,,,,,,,,,,,,,,,,,,,,,,,,,,,,,,,,,,,,,,,,,,,,,,,,,,
7867,1645650659.18805,39.0,0.0,4332.820313,4728.205078,4214.358886999999,4280.512695,4310.256348,0.0,3.0,59.0,,,,0.0,4.0,0.0,4.0,0.0,4.0,33.333332,,,,,,,,,,,,,,,,,,,,,,,,,,,,,,,,,,,,,,,,,,,,,,,,,,,,,,0.0,0.0,1.0,0.0,512.0,1.0,,,,,,,,,,,,,,,,,,,,,,,,,
7868,1645650659.1958652,40.0,0.0,4324.102539,4657.436035,4229.230957,4279.487305,4321.538574,0.0,3.0,59.0,,,,0.0,4.0,0.0,4.0,0.0,4.0,33.333332,,,,,,,,20.0,0.0,0.339751,0.567627,0.14209000000000002,-0.736328,0.948257,-0.15674100000000002,-0.315923,-0.01775,-0.050104,-0.042365,,,,,,,,,,,,,,,,,,,,,,,,,,,,,,,,,,,,,,,,,,,,,,,,,,,,,,,,,,,,,,,,,
7869,1645650659.203779,41.0,0.0,4317.436035,4644.615234000001,4231.282227000001,4277.436035,4320.512695,0.0,3.0,59.0,,,,0.0,4.0,0.0,4.0,0.0,4.0,33.333332,,,,,,,,,,,,,,,,,,,,,,,,,,,,,,,,,,,,,,,,,,,,,,,,,,,,,,,,,,,,,,,,,,,,,,,,,,,,,,,,,,,,
7870,1645650659.2115939,42.0,0.0,4324.102539,4641.538574,4225.128418,4278.461426,4332.307617,0.0,3.0,59.0,,,,0.0,4.0,0.0,4.0,0.0,4.0,33.333332,,,,,,,,21.0,0.0,0.339974,0.567871,0.141846,-0.736084,0.9350729999999999,-0.176272,-0.318364,-0.018269999999999998,-0.050172,-0.037396,,,,,,,,,,,,,,,,,,,,,,,,,,,,,,,,,,,,,,,,,,,,,,,,,,,,,,,,,,,,,,,,,
7871,1645650659.219409,43.0,0.0,4327.692383,4648.205078,4232.820313,4280.0,4339.487305,0.0,3.0,59.0,,,,0.0,4.0,0.0,4.0,0.0,4.0,33.333332,,,,,,,,,,,,,,,,,,,,,,,,,,,,,,,,,,,,,,,,,,,,,,,,,,,,,,0.0,0.0,1.0,0.0,512.0,1.0,,,,,,,,,,,,,,,,,,,,,,,,,
7872,1645650659.2272232,44.0,0.0,4334.871582,4662.563965,4226.153809,4278.974121,4322.05127,0.0,3.0,59.0,,,,0.0,4.0,0.0,4.0,0.0,4.0,33.333332,,,,,,,,22.0,0.0,0.339974,0.567871,0.141846,-0.736084,0.9399559999999999,-0.15820599999999999,-0.30811,-0.018738,-0.050086,-0.039320999999999995,,,,,,,,,,,,,,,,,,,,,,,,,,,,,,,,,,,,,,,,,,,,,,,,,,,,,,,,,,,,,,,,,
7873,1645650659.235038,45.0,0.0,4339.487305,4636.410156,4218.974121,4278.974121,4310.256348,0.0,3.0,59.0,,,,0.0,4.0,0.0,4.0,0.0,4.0,33.333332,,,,,,,,,,,,,,,,,,,,,,,,,,,,,,,,,,,,,,,,,,,,,,,,,,,,,,,,,,,,,,,,,,,,,,,,,,,,,,,,,,,,
7874,1645650659.242852,46.0,0.0,4347.179688,4644.102539,4232.820313,4280.0,4324.102539,0.0,3.0,59.0,,,,0.0,4.0,0.0,4.0,0.0,4.0,33.333332,,,,,,,,23.0,0.0,0.339974,0.567871,0.141846,-0.736084,0.9404440000000001,-0.166018,-0.31201599999999996,-0.01911,-0.050156,-0.041053,,,,,,,,,,,,,,,,,,,,,,,,,,,,,,,,,,,,,,,,,,,,,,,,,,,,,,,,,,,,,,,,,
7875,1645650659.250667,47.0,0.0,4333.333496,4684.615234000001,4234.358886999999,4279.487305,4307.179688,0.0,3.0,59.0,,,,0.0,4.0,0.0,4.0,0.0,4.0,33.333332,,,,,,,,,,,,,,,,,,,,1.0,0.0,0.0,,,,,,,,,,,,,,,,,,,,,,,,,,,,,,,,0.0,0.0,1.0,0.0,512.0,1.0,3.747172,0.9737959999999999,0.9432,0.8963399999999999,2.13544,11.849713000000001,11.447986,34.815284999999996,33.445827,34.689888,3.343842,2.765749,0.655096,1.9041990000000002,2.077816,0.0064269999999999996,0.007853,0.005268,0.006103,0.009159,2.080619,3.157453,0.8683870000000001,1.11825,1.212926
7876,1645650659.258482,48.0,0.0,4317.436035,4614.871582,4238.461426,4280.0,4298.974121,0.0,3.0,59.0,,,,0.0,4.0,0.0,4.0,0.0,4.0,33.333332,,,,,,,,24.0,0.0,0.34050199999999997,0.567871,0.141846,-0.7358399999999999,0.9404440000000001,-0.179202,-0.31006300000000003,-0.019348,-0.050121,-0.036361000000000004,,,,,,,,,,,,,,,,,,,,,,,,,,,,,,,,,,,,,,,,,,,,,,,,,,,,,,,,,,,,,,,,,
7877,1645650659.2662961,49.0,0.0,4320.0,4545.641113000001,4239.487305,4281.025879,4329.230957,0.0,3.0,59.0,,,,0.0,4.0,0.0,4.0,0.0,4.0,33.333332,,,,,,,,,,,,,,,,,,,,,,,,,,,,,,,,,,,,,,,,,,,,,,,,,,,,,,,,,,,,,,,,,,,,,,,,,,,,,,,,,,,,
7878,1645650659.274211,50.0,0.0,4330.769043,4640.0,4230.769043,4280.0,4333.846191,0.0,3.0,59.0,,,,0.0,4.0,0.0,4.0,0.0,4.0,33.333332,,,,,,,,25.0,0.0,0.34050199999999997,0.567871,0.141846,-0.7358399999999999,0.9580219999999999,-0.16846,-0.304692,-0.018144999999999998,-0.050236,-0.038292,,,,,,,,,,,,,,,,,,,,,,,,,,,,,,,,,,,,,,,,,,,,,,,,,,,,,,,,,,,,,,,,,
7879,1645650659.282026,51.0,0.0,4329.230957,4772.307617,4199.487305,4280.512695,4298.974121,0.0,3.0,59.0,,,,0.0,4.0,0.0,4.0,0.0,4.0,33.333332,,,,,,,,,,,,,,,,,,,,,,,,,,,,,,,,,,,,,,,,,,,,,,,,,,,,,,0.0,0.0,1.0,0.0,512.0,1.0,,,,,,,,,,,,,,,,,,,,,,,,,
7880,1645650659.28984,52.0,0.0,4320.0,4735.897461,4199.487305,4280.512695,4296.410156,0.0,3.0,59.0,,,,0.0,4.0,0.0,4.0,0.0,4.0,33.333332,,,,,,,,26.0,0.0,0.34050199999999997,0.567871,0.141846,-0.7358399999999999,0.941909,-0.161624,-0.31787600000000005,-0.017112,-0.050242,-0.040126999999999996,,,,,,,,,,,,,,,,,,,,,,,,,,,,,,,,,,,,,,,,,,,,,,,,,,,,,,,,,,,,,,,,,
7881,1645650659.297655,53.0,0.0,4311.282227000001,4560.512695,4225.641113000001,4278.461426,4320.512695,0.0,3.0,59.0,,,,0.0,4.0,0.0,4.0,0.0,4.0,33.333332,,,,,,,,,,,,,,,,,,,,,,,,,,,,,,,,,,,,,,,,,,,,,,,,,,,,,,,,,,,,,,,,,,,,,,,,,,,,,,,,,,,,
7882,1645650659.30547,54.0,0.0,4314.358886999999,4536.410156,4241.025879,4278.974121,4317.94873,0.0,3.0,59.0,,,,0.0,4.0,0.0,4.0,0.0,4.0,33.333332,,,,,,,,27.0,0.0,0.34050199999999997,0.567871,0.141846,-0.7358399999999999,0.951675,-0.166995,-0.308598,-0.017842,-0.050247,-0.035528,,,,,,,,,,,,,,,,,,,,,,,,,,,,,,,,,,,,,,,,,,,,,,,,,,,,,,,,,,,,,,,,,
7883,1645650659.313284,55.0,0.0,4342.05127,4694.358886999999,4225.641113000001,4281.025879,4306.666504,0.0,3.0,59.0,,,,0.0,4.0,0.0,4.0,0.0,4.0,33.333332,,,,,,,,,,,,,,,,,,,,,,,,,,,,,,,,,,,,,,,,,,,,,,,,,,,,,,0.0,0.0,1.0,0.0,512.0,1.0,,,,,,,,,,,,,,,,,,,,,,,,,
7884,1645650659.321099,56.0,0.0,4361.538574,4768.717772999999,4231.282227000001,4280.0,4309.743652,0.0,3.0,59.0,,,,0.0,4.0,0.0,4.0,0.0,4.0,33.333332,,,,,,,,28.0,0.0,0.34050199999999997,0.567871,0.141846,-0.7358399999999999,0.9555809999999999,-0.175784,-0.316899,-0.016839,-0.050251,-0.037639,,,,,,,,,,,,,,,,,,,,,,,,,,,,,,,,,,,,,,,,,,,,,,,,,,,,,,,,,,,,,,,,,
7885,1645650659.328913,57.0,0.0,4346.153809,4711.282227000001,4223.589844,4278.974121,4296.410156,0.0,3.0,59.0,,,,0.0,4.0,0.0,4.0,0.0,4.0,33.333332,,,,,,,,,,,,,,,,,,,,,,,,,,,,,,,,,,,,,,,,,,,,,,,,,,,,,,,,,,,,,,,,,,,,,,,,,,,,,,,,,,,,
7886,1645650659.3367279,58.0,0.0,4325.128418,4661.538574,4208.205078,4278.974121,4282.563965,0.0,3.0,59.0,,,,0.0,4.0,0.0,4.0,0.0,4.0,33.333332,,,,,,,,29.0,0.0,0.34050199999999997,0.567871,0.141846,-0.7358399999999999,0.95021,-0.166018,-0.31787600000000005,-0.017547999999999998,-0.050305,-0.03954,,,,,,,,,,,,,,,,,,,,,,,,,,,,,,,,,,,,,,,,,,,,,,,,,,,,,,,,,,,,,,,,,
7887,1645650659.344543,59.0,0.0,4329.230957,4607.692383,4225.641113000001,4279.487305,4311.282227000001,0.0,3.0,59.0,,,,0.0,4.0,0.0,4.0,0.0,4.0,33.333332,,,,,,,,,,,,,,,,,,,,,,,,,,,,,,,,,,,,,,,,,,,,,,,,,,,,,,0.0,0.0,1.0,0.0,512.0,1.0,,,,,,,,,,,,,,,,,,,,,,,,,
7888,1645650659.352457,60.0,0.0,4325.128418,4550.256348,4247.179688,4280.512695,4317.436035,0.0,3.0,59.0,,,,0.0,4.0,0.0,4.0,0.0,4.0,33.333332,,,,,,,,30.0,0.0,0.34050199999999997,0.567871,0.141846,-0.7358399999999999,0.9589989999999999,-0.17969000000000002,-0.319829,-0.016477000000000002,-0.050352,-0.041299,,,,,,,,,,,,,,,,,,,,,,,,,,,,,,,,,,,,,,,,,,,,,,,,,,,,,,,,,,,,,,,,,
7889,1645650659.3602722,61.0,0.0,4320.0,4614.358886999999,4223.589844,4280.0,4302.05127,0.0,3.0,59.0,,,,0.0,4.0,0.0,4.0,0.0,4.0,33.333332,,,,,,,,,,,,,,,,,,,,,,,,,,,,,,,,,,,,,,,,,,,,,,,,,,,,,,,,,,,,,,,,,,,,,,,,,,,,,,,,,,,,
7890,1645650659.3680868,62.0,0.0,4314.871582,4701.025879,4207.692383,4278.461426,4300.0,0.0,3.0,59.0,,,,0.0,4.0,0.0,4.0,0.0,4.0,33.333332,,,,,,,,31.0,0.0,0.34050199999999997,0.567871,0.141846,-0.7358399999999999,0.937026,-0.170901,-0.31543499999999997,-0.017222,-0.0502,-0.042735,,,,,,,,,,,,,,,,,,,,,,,,,,,,,,,,,,,,,,,,,,,,,,,,,,,,,,,,,,,,,,,,,
7891,1645650659.376001,63.0,0.0,4311.794922,4676.922852000001,4228.205078,4278.974121,4302.05127,0.0,3.0,59.0,,,,0.0,4.0,0.0,4.0,0.0,4.0,33.333332,,,,,,,,,,,,,,,,,,,,1.0,0.0,0.0,,,,,,,,,,,,,,,,,,,,,,,,,,,,,,,,0.0,0.0,1.0,0.0,512.0,1.0,2.832729,1.1051799999999998,1.228791,1.017941,1.9673349999999998,12.931624000000001,16.812838,33.481712,31.060734000000004,36.844898,3.6100019999999997,2.853786,0.7279439999999999,2.130421,2.197824,0.005837,0.0071189999999999995,0.006911,0.006232,0.009672,1.7772430000000001,3.4259519999999997,0.924492,1.253914,1.2489139999999999
7892,1645650659.383816,64.0,0.0,4305.128418,4628.205078,4219.487305,4278.974121,4287.692383,450.0,3.0,59.0,,,,0.0,4.0,0.0,4.0,0.0,4.0,33.333332,,,,,,,,32.0,0.0,0.340401,0.567871,0.14209000000000002,-0.7358399999999999,0.947768,-0.1626,-0.31787600000000005,-0.017746,-0.050307,-0.037827,,,,,,,,,,,,,,,,,,,,,,,,,,,,,,,,,,,,,,,,,,,,,,,,,,,,,,,,,,,,,,,,,
7893,1645650659.39173,65.0,0.0,4311.794922,4646.153809,4200.512695,4279.487305,4286.666504,450.0,3.0,59.0,,,,0.0,4.0,0.0,4.0,0.0,4.0,33.333332,,,,,,,,,,,,,,,,,,,,,,,,,,,,,,,,,,,,,,,,,,,,,,,,,,,,,,,,,,,,,,,,,,,,,,,,,,,,,,,,,,,,
7894,1645650659.399545,66.0,0.0,4314.358886999999,4694.358886999999,4200.0,4279.487305,4287.179688,16210.0,3.0,59.0,,,,0.0,4.0,0.0,4.0,0.0,4.0,33.333332,,,,,,,,33.0,0.0,0.340808,0.567627,0.14209000000000002,-0.7358399999999999,0.948257,-0.179202,-0.306645,-0.01602,-0.050256999999999996,-0.03966,,,,,,,,,,,,,,,,,,,,,,,,,,,,,,,,,,,,,,,,,,,,,,,,,,,,,,,,,,,,,,,,,
7895,1645650659.40736,67.0,0.0,4321.538574,4687.179688,4237.94873,4278.974121,4307.692383,450.0,3.0,59.0,,,,0.0,4.0,0.0,4.0,0.0,4.0,33.333332,,,,,,,,,,,,,,,,,,,,,,,,,,,,,,,,,,,,,,,,,,,,,,,,,,,,,,0.0,0.0,1.0,0.0,512.0,1.0,,,,,,,,,,,,,,,,,,,,,,,,,
7896,1645650659.415174,68.0,0.0,4346.666504,4646.153809,4256.410156,4280.0,4347.179688,0.0,3.0,59.0,,,,0.0,4.0,0.0,4.0,0.0,4.0,33.333332,,,,,,,,34.0,0.0,0.34028,0.567627,0.14209000000000002,-0.736084,0.946792,-0.16552999999999998,-0.319829,-0.016762,-0.050261,-0.035108,,,,,,,,,,,,,,,,,,,,,,,,,,,,,,,,,,,,,,,,,,,,,,,,,,,,,,,,,,,,,,,,,
7897,1645650659.4229891,69.0,0.0,4352.307617,4650.769043,4245.641113000001,4281.025879,4354.358886999999,450.0,3.0,59.0,,,,0.0,4.0,0.0,4.0,0.0,4.0,33.333332,,,,,,,,,,,,,,,,,,,,,,,,,,,,,,,,,,,,,,,,,,,,,,,,,,,,,,,,,,,,,,,,,,,,,,,,,,,,,,,,,,,,
7898,1645650659.430903,70.0,0.0,4330.256348,4676.410156,4220.512695,4280.512695,4326.153809,16217.0,3.0,59.0,,,,0.0,4.0,0.0,4.0,0.0,4.0,33.333332,,,,,,,,35.0,0.0,0.34028,0.567627,0.14209000000000002,-0.736084,0.944839,-0.185061,-0.316899,-0.017332,-0.050214999999999996,-0.037212,,,,,,,,,,,,,,,,,,,,,,,,,,,,,,,,,,,,,,,,,,,,,,,,,,,,,,,,,,,,,,,,,
7899,1645650659.438718,71.0,0.0,4325.641113000001,4643.077147999999,4211.794922,4280.0,4301.025879,450.0,3.0,59.0,,,,0.0,4.0,0.0,4.0,0.0,4.0,33.333332,,,,,,,,,,,,,,,,,,,,,,,,,,,,,,,,,,,,,,,,,,,,,,,,,,,,,,0.0,0.0,1.0,0.0,512.0,1.0,,,,,,,,,,,,,,,,,,,,,,,,,
7900,1645650659.446533,72.0,0.0,4346.153809,4630.769043,4197.94873,4278.974121,4299.487305,450.0,3.0,59.0,,,,0.0,4.0,0.0,4.0,0.0,4.0,33.333332,,,,,,,,36.0,0.0,0.34028,0.567627,0.14209000000000002,-0.736084,0.948257,-0.180179,-0.313481,-0.015647,-0.050174,-0.039106,,,,,,,,,,,,,,,,,,,,,,,,,,,,,,,,,,,,,,,,,,,,,,,,,,,,,,,,,,,,,,,,,
7901,1645650659.4543471,73.0,0.0,4348.205078,4618.461426,4217.94873,4278.974121,4320.512695,0.0,3.0,59.0,,,,0.0,4.0,0.0,4.0,0.0,4.0,33.333332,,,,,,,,,,,,,,,,,,,,,,,,,,,,,,,,,,,,,,,,,,,,,,,,,,,,,,,,,,,,,,,,,,,,,,,,,,,,,,,,,,,,
7902,1645650659.462162,74.0,0.0,4334.358886999999,4533.846191,4240.512695,4280.0,4329.230957,450.0,3.0,59.0,,,,0.0,4.0,0.0,4.0,0.0,4.0,33.333332,,,,,,,,37.0,0.0,0.340159,0.567383,0.14209000000000002,-0.736328,0.949722,-0.173342,-0.311528,-0.014863999999999999,-0.050088,-0.034512,,,,,,,,,,,,,,,,,,,,,,,,,,,,,,,,,,,,,,,,,,,,,,,,,,,,,,,,,,,,,,,,,
7903,1645650659.469977,75.0,0.0,4317.94873,4567.179688,4210.769043,4280.512695,4292.307617,16218.0,3.0,59.0,,,,0.0,4.0,0.0,4.0,0.0,4.0,33.333332,,,,,,,,,,,,,,,,,,,,,,,,,,,,,,,,,,,,,,,,,,,,,,,,,,,,,,0.0,0.0,1.0,0.0,512.0,1.0,,,,,,,,,,,,,,,,,,,,,,,,,
7904,1645650659.477791,76.0,0.0,4308.205078,4725.641113000001,4178.461426,4279.487305,4273.846191,450.0,3.0,59.0,,,,0.0,4.0,0.0,4.0,0.0,4.0,33.333332,,,,,,,,38.0,0.0,0.340159,0.567383,0.14209000000000002,-0.736328,0.949233,-0.166506,-0.32813000000000003,-0.014159,-0.050109,-0.036774,,,,,,,,,,,,,,,,,,,,,,,,,,,,,,,,,,,,,,,,,,,,,,,,,,,,,,,,,,,,,,,,,
7905,1645650659.485606,77.0,0.0,4307.692383,4745.128418,4205.641113000001,4278.974121,4287.692383,450.0,3.0,59.0,,,,0.0,4.0,0.0,4.0,0.0,4.0,33.333332,,,,,,,,,,,,,,,,,,,,,,,,,,,,,,,,,,,,,,,,,,,,,,,,,,,,,,,,,,,,,,,,,,,,,,,,,,,,,,,,,,,,
7906,1645650659.493421,78.0,0.0,4317.436035,4638.974121,4232.307617,4278.974121,4303.077147999999,450.0,3.0,59.0,,,,0.0,4.0,0.0,4.0,0.0,4.0,33.333332,,,,,,,,39.0,0.0,0.340159,0.567383,0.14209000000000002,-0.736328,0.9550930000000001,-0.1626,-0.316411,-0.01494,-0.050176,-0.038808999999999996,,,,,,,,,,,,,,,,,,,,,,,,,,,,,,,,,,,,,,,,,,,,,,,,,,,,,,,,,,,,,,,,,
7907,1645650659.501235,79.0,0.0,4308.205078,4638.461426,4209.230957,4278.974121,4298.974121,16218.0,3.0,59.0,,,,0.0,4.0,0.0,4.0,0.0,4.0,33.333332,,,,,,,,,,,,,,,,,,,,1.0,0.0,0.0,,,,,,,,,,,,,,,,,,,,,,,,,,,,,,,,0.0,0.0,1.0,0.0,512.0,1.0,2.110814,1.164749,1.651623,1.141226,1.718107,14.800015,23.383188,33.417217,28.438332,37.964138,3.929836,2.9034,0.820688,2.304152,2.245151,0.005729,0.006490000000000001,0.008841,0.006327,0.009883,1.669096,3.354521,0.979136,1.416557,1.271554
7908,1645650659.50915,80.0,0.0,4308.717772999999,4729.743652,4193.333496,4278.974121,4297.94873,450.0,3.0,59.0,,,,0.0,4.0,0.0,4.0,0.0,4.0,33.333332,,,,,,,,40.0,0.0,0.340159,0.567383,0.14209000000000002,-0.736328,0.949722,-0.173342,-0.311528,-0.013544,-0.050286000000000004,-0.040494999999999996,,,,,,,,,,,,,,,,,,,,,,,,,,,,,,,,,,,,,,,,,,,,,,,,,,,,,,,,,,,,,,,,,
7909,1645650659.516964,81.0,0.0,4321.025879,4737.94873,4202.563965,4278.461426,4305.128418,450.0,3.0,59.0,,,,0.0,4.0,0.0,4.0,0.0,4.0,33.333332,,,,,,,,,,,,,,,,,,,,,,,,,,,,,,,,,,,,,,,,,,,,,,,,,,,,,,,,,,,,,,,,,,,,,,,,,,,,,,,,,,,,
7910,1645650659.5247788,82.0,0.0,4332.820313,4703.589844,4220.512695,4278.461426,4312.307617,450.0,3.0,59.0,,,,0.0,4.0,0.0,4.0,0.0,4.0,33.333332,,,,,,,,41.0,0.0,0.340566,0.5671390000000001,0.14209000000000002,-0.736328,0.9521629999999999,-0.16846,-0.31543499999999997,-0.014533,-0.050482,-0.035713,,,,,,,,,,,,,,,,,,,,,,,,,,,,,,,,,,,,,,,,,,,,,,,,,,,,,,,,,,,,,,,,,
7911,1645650659.532594,83.0,0.0,4332.820313,4718.974121,4212.820313,4278.461426,4303.589844,16218.0,3.0,59.0,,,,0.0,4.0,0.0,4.0,0.0,4.0,33.333332,,,,,,,,,,,,,,,,,,,,,,,,,,,,,,,,,,,,,,,,,,,,,,,,,,,,,,0.0,0.0,1.0,0.0,512.0,1.0,,,,,,,,,,,,,,,,,,,,,,,,,
7912,1645650659.540408,84.0,0.0,4324.102539,4660.512695,4222.05127,4278.461426,4301.025879,450.0,3.0,59.0,,,,0.0,4.0,0.0,4.0,0.0,4.0,33.333332,,,,,,,,42.0,0.0,0.340566,0.5671390000000001,0.14209000000000002,-0.736328,0.957046,-0.173342,-0.324712,-0.015326,-0.050463,-0.037806,,,,,,,,,,,,,,,,,,,,,,,,,,,,,,,,,,,,,,,,,,,,,,,,,,,,,,,,,,,,,,,,,
7913,1645650659.548223,85.0,0.0,4313.846191,4531.794922,4222.563965,4279.487305,4310.769043,450.0,3.0,59.0,,,,0.0,4.0,0.0,4.0,0.0,4.0,33.333332,,,,,,,,,,,,,,,,,,,,,,,,,,,,,,,,,,,,,,,,,,,,,,,,,,,,,,,,,,,,,,,,,,,,,,,,,,,,,,,,,,,,
7914,1645650659.5560381,86.0,0.0,4312.307617,4563.589844,4204.102539,4280.0,4308.205078,450.0,3.0,59.0,,,,0.0,4.0,0.0,4.0,0.0,4.0,33.333332,,,,,,,,43.0,0.0,0.340566,0.5671390000000001,0.14209000000000002,-0.736328,0.934585,-0.171878,-0.314458,-0.016040000000000002,-0.050446,-0.033342000000000004,,,,,,,,,,,,,,,,,,,,,,,,,,,,,,,,,,,,,,,,,,,,,,,,,,,,,,,,,,,,,,,,,
7915,1645650659.563852,87.0,0.0,4321.025879,4690.769043,4180.0,4280.0,4297.94873,16218.0,3.0,59.0,,,,0.0,4.0,0.0,4.0,0.0,4.0,33.333332,,,,,,,,,,,,,,,,,,,,,,,,,,,,,,,,,,,,,,,,,,,,,,,,,,,,,,0.0,0.0,1.0,0.0,512.0,1.0,,,,,,,,,,,,,,,,,,,,,,,,,
7916,1645650659.571667,88.0,0.0,4324.615234000001,4763.077147999999,4176.410156,4278.974121,4290.256348,450.0,3.0,59.0,,,,0.0,4.0,0.0,4.0,0.0,4.0,33.333332,,,,,,,,44.0,0.0,0.340566,0.5671390000000001,0.14209000000000002,-0.736328,0.940932,-0.169924,-0.31299299999999997,-0.016633000000000002,-0.050381999999999996,-0.035574,,,,,,,,,,,,,,,,,,,,,,,,,,,,,,,,,,,,,,,,,,,,,,,,,,,,,,,,,,,,,,,,,
7917,1645650659.579582,89.0,0.0,4320.512695,4753.333496,4169.230957,4280.0,4283.589844,450.0,3.0,59.0,,,,0.0,4.0,0.0,4.0,0.0,4.0,33.333332,,,,,,,,,,,,,,,,,,,,,,,,,,,,,,,,,,,,,,,,,,,,,,,,,,,,,,,,,,,,,,,,,,,,,,,,,,,,,,,,,,,,
7918,1645650659.5873961,90.0,0.0,4317.436035,4623.077147999999,4171.794922,4279.487305,4290.769043,450.0,3.0,59.0,,,,0.0,4.0,0.0,4.0,0.0,4.0,33.333332,,,,,,,,45.0,0.0,0.340566,0.5671390000000001,0.14209000000000002,-0.736328,0.954116,-0.175296,-0.314458,-0.017313,-0.050373,-0.037632,,,,,,,,,,,,,,,,,,,,,,,,,,,,,,,,,,,,,,,,,,,,,,,,,,,,,,,,,,,,,,,,,
7919,1645650659.595211,91.0,0.0,4324.615234000001,4553.846191,4174.871582,4277.436035,4309.743652,16218.0,3.0,59.0,,,,0.0,4.0,0.0,4.0,0.0,4.0,33.333332,,,,,,,,,,,,,,,,,,,,,,,,,,,,,,,,,,,,,,,,,,,,,,,,,,,,,,0.0,0.0,1.0,0.0,512.0,1.0,,,,,,,,,,,,,,,,,,,,,,,,,
7920,1645650659.603025,92.0,0.0,4312.307617,4663.077147999999,4166.153809,4278.461426,4300.512695,450.0,3.0,59.0,,,,0.0,4.0,0.0,4.0,0.0,4.0,33.333332,,,,,,,,46.0,0.0,0.340464,0.5671390000000001,0.142334,-0.736328,0.937514,-0.174319,-0.321294,-0.017975,-0.050414,-0.033332,,,,,,,,,,,,,,,,,,,,,,,,,,,,,,,,,,,,,,,,,,,,,,,,,,,,,,,,,,,,,,,,,
7921,1645650659.61084,93.0,0.0,4298.974121,4692.820313,4163.589844,4280.512695,4291.794922,450.0,3.0,59.0,,,,0.0,4.0,0.0,4.0,0.0,4.0,33.333332,,,,,,,,,,,,,,,,,,,,,,,,,,,,,,,,,,,,,,,,,,,,,,,,,,,,,,,,,,,,,,,,,,,,,,,,,,,,,,,,,,,,
7922,1645650659.618655,94.0,0.0,4309.230957,4610.769043,4166.666504,4279.487305,4285.128418,450.0,3.0,59.0,,,,0.0,4.0,0.0,4.0,0.0,4.0,33.333332,,,,,,,,47.0,0.0,0.340464,0.5671390000000001,0.142334,-0.736328,0.945815,-0.16552999999999998,-0.320317,-0.018619,-0.050450999999999996,-0.029412999999999998,,,,,,,,,,,,,,,,,,,,,,,,,,,,,,,,,,,,,,,,,,,,,,,,,,,,,,,,,,,,,,,,,
7923,1645650659.626469,95.0,0.0,4328.717772999999,4601.538574,4181.025879,4278.461426,4291.794922,16218.0,3.0,59.0,,,,0.0,4.0,0.0,4.0,0.0,4.0,33.333332,1.0,33.333332,4.0,0.0,4.0,0.0,4.0,,,,,,,,,,,,,1.0,0.0,0.0,,,,,,,,,,,,,,,,,,,,,,,,,,,,,,,,0.0,0.0,1.0,0.0,512.0,1.0,1.695016,1.1989610000000002,2.111192,1.242566,1.459082,16.675592,29.639259000000003,34.913654,26.176868,38.285202000000005,4.156999,2.877828,0.889159,2.357014,2.2354380000000003,0.00613,0.006174,0.010779,0.0064540000000000005,0.009731,1.824672,3.0051509999999997,1.036473,1.5303309999999999,1.301796
7924,1645650659.634284,96.0,0.0,4314.871582,4576.410156,4190.769043,4278.461426,4294.358886999999,450.0,3.0,59.0,,,,0.0,4.0,0.0,4.0,0.0,4.0,33.333332,,,,,,,,48.0,0.0,0.340464,0.5671390000000001,0.142334,-0.736328,0.953628,-0.163577,-0.31396999999999997,-0.019003,-0.050435,-0.032135000000000004,,,,,,,,,,,,,,,,,,,,,,,,,,,,,,,,,,,,,,,,,,,,,,,,,,,,,,,,,,,,,,,,,
7925,1645650659.6420991,97.0,0.0,4309.743652,4579.487305,4174.358886999999,4278.974121,4280.0,450.0,3.0,59.0,,,,0.0,4.0,0.0,4.0,0.0,4.0,33.333332,,,,,,,,,,,,,,,,,,,,,,,,,,,,,,,,,,,,,,,,,,,,,,,,,,,,,,,,,,,,,,,,,,,,,,,,,,,,,,,,,,,,
7926,1645650659.650013,98.0,0.0,4316.922852000001,4701.538574,4154.871582,4280.0,4265.128418,450.0,3.0,59.0,,,,0.0,4.0,0.0,4.0,0.0,4.0,33.333332,,,,,,,,49.0,0.0,0.340464,0.5671390000000001,0.142334,-0.736328,0.9506979999999999,-0.163577,-0.316411,-0.019495,-0.050372,-0.034488,,,,,,,,,,,,,,,,,,,,,,,,,,,,,,,,,,,,,,,,,,,,,,,,,,,,,,,,,,,,,,,,,
7927,1645650659.6578279,99.0,0.0,4318.974121,4696.410156,4196.410156,4281.538574,4288.717772999999,16218.0,3.0,59.0,,,,0.0,4.0,0.0,4.0,0.0,4.0,33.333332,,,,,,,,,,,,,,,,,,,,,,,,,,,,,,,,,,,,,,,,,,,,,,,,,,,,,,0.0,0.0,1.0,0.0,512.0,1.0,,,,,,,,,,,,,,,,,,,,,,,,,
7928,1645650659.665643,100.0,0.0,4316.410156,4546.153809,4221.538574,4279.487305,4309.230957,450.0,3.0,59.0,,,,0.0,4.0,0.0,4.0,0.0,4.0,33.333332,,,,,,,,50.0,0.0,0.340362,0.5671390000000001,0.142578,-0.736328,0.9472799999999999,-0.160647,-0.309575,-0.019938,-0.050267,-0.030405,,,,,,,,,,,,,,,,,,,,,,,,,,,,,,,,,,,,,,,,,,,,,,,,,,,,,,,,,,,,,,,,,
7929,1645650659.6734571,101.0,0.0,4306.666504,4540.512695,4202.563965,4278.461426,4286.153809,450.0,3.0,59.0,,,,0.0,4.0,0.0,4.0,0.0,4.0,33.333332,,,,,,,,,,,,,,,,,,,,,,,,,,,,,,,,,,,,,,,,,,,,,,,,,,,,,,,,,,,,,,,,,,,,,,,,,,,,,,,,,,,,
7930,1645650659.681272,102.0,0.0,4302.563965,4652.820313,4178.461426,4279.487305,4270.769043,450.0,3.0,59.0,,,,0.0,4.0,0.0,4.0,0.0,4.0,33.333332,,,,,,,,51.0,0.0,0.34025900000000003,0.5671390000000001,0.142822,-0.736328,0.938003,-0.16406500000000002,-0.319341,-0.018628,-0.050220999999999995,-0.026777999999999996,,,,,,,,,,,,,,,,,,,,,,,,,,,,,,,,,,,,,,,,,,,,,,,,,,,,,,,,,,,,,,,,,
7931,1645650659.689086,103.0,0.0,4307.692383,4649.743652,4195.384765999999,4280.0,4267.179688,16218.0,3.0,59.0,,,,0.0,4.0,0.0,4.0,0.0,4.0,33.333332,,,,,,,,,,,,,,,,,,,,,,,,,,,,,,,,,,,,,,,,,,,,,,,,,,,,,,0.0,0.0,1.0,0.0,512.0,1.0,,,,,,,,,,,,,,,,,,,,,,,,,
7932,1645650659.696901,104.0,0.0,4311.282227000001,4601.538574,4207.692383,4279.487305,4257.94873,450.0,3.0,59.0,,,,0.0,4.0,0.0,4.0,0.0,4.0,33.333332,,,,,,,,52.0,0.0,0.34025900000000003,0.5671390000000001,0.142822,-0.736328,0.94435,-0.171389,-0.317388,-0.016436000000000003,-0.05019,-0.026826999999999997,,,,,,,,,,,,,,,,,,,,,,,,,,,,,,,,,,,,,,,,,,,,,,,,,,,,,,,,,,,,,,,,,
7933,1645650659.704716,105.0,0.0,4295.384765999999,4614.358886999999,4198.974121,4278.974121,4271.794922,450.0,3.0,59.0,,,,0.0,4.0,0.0,4.0,0.0,4.0,33.333332,,,,,,,,,,,,,,,,,,,,,,,,,,,,,,,,,,,,,,,,,,,,,,,,,,,,,,,,,,,,,,,,,,,,,,,,,,,,,,,,,,,,
7934,1645650659.7125301,106.0,0.0,4284.102539,4617.94873,4185.128418,4278.974121,4297.94873,450.0,3.0,59.0,,,,0.0,4.0,0.0,4.0,0.0,4.0,33.333332,,,,,,,,53.0,0.0,0.34015700000000004,0.5671390000000001,0.143066,-0.736328,0.96144,-0.163088,-0.322759,-0.017088,-0.050151999999999995,-0.029662,,,,,,,,,,,,,,,,,,,,,,,,,,,,,,,,,,,,,,,,,,,,,,,,,,,,,,,,,,,,,,,,,
7935,1645650659.720445,107.0,0.0,4299.487305,4638.974121,4193.333496,4280.0,4294.871582,16218.0,3.0,59.0,,,,0.0,4.0,0.0,4.0,0.0,4.0,33.333332,,,,,,,,,,,,,,,,,,,,,,,,,,,,,,,,,,,,,,,,,,,,,,,,,,,,,,0.0,0.0,1.0,0.0,512.0,1.0,,,,,,,,,,,,,,,,,,,,,,,,,
7936,1645650659.72826,108.0,0.0,4315.384765999999,4667.692383,4192.820313,4280.0,4282.563965,450.0,3.0,59.0,,,,0.0,4.0,0.0,4.0,0.0,4.0,33.333332,,,,,,,,54.0,0.0,0.340054,0.5671390000000001,0.143311,-0.736328,0.939467,-0.161135,-0.31250500000000003,-0.017723,-0.050117,-0.02611,,,,,,,,,,,,,,,,,,,,,,,,,,,,,,,,,,,,,,,,,,,,,,,,,,,,,,,,,,,,,,,,,
7937,1645650659.736074,109.0,0.0,4299.487305,4629.743652,4184.102539,4278.461426,4284.615234000001,450.0,3.0,59.0,,,,0.0,4.0,0.0,4.0,0.0,4.0,33.333332,,,,,,,,,,,,,,,,,,,,,,,,,,,,,,,,,,,,,,,,,,,,,,,,,,,,,,,,,,,,,,,,,,,,,,,,,,,,,,,,,,,,
7938,1645650659.743889,110.0,0.0,4297.436035,4595.897461,4196.922852000001,4277.436035,4295.897461,450.0,3.0,59.0,,,,0.0,4.0,0.0,4.0,0.0,4.0,33.333332,,,,,,,,55.0,0.0,0.340461,0.5668949999999999,0.143311,-0.736328,0.9423969999999999,-0.171389,-0.31006300000000003,-0.016634,-0.050037,-0.029017,,,,,,,,,,,,,,,,,,,,,,,,,,,,,,,,,,,,,,,,,,,,,,,,,,,,,,,,,,,,,,,,,
7939,1645650659.751704,111.0,0.0,4316.410156,4601.538574,4198.461426,4279.487305,4280.512695,16218.0,3.0,59.0,,,,0.0,4.0,0.0,4.0,0.0,4.0,33.333332,,,,,,,,,,,,,,,,,,,,1.0,0.0,0.0,,,,,,,,,,,,,,,,,,,,,,,,,,,,,,,,0.0,0.0,1.0,0.0,512.0,1.0,1.581862,1.314106,2.458965,1.3118379999999998,1.2520129999999998,17.669404999999998,34.358067,37.358565999999996,25.19421,38.019321000000005,4.1501220000000005,2.804991,0.9083469999999999,2.306595,2.196914,0.006818,0.006072999999999999,0.012375,0.006619,0.00925,2.199614,2.550344,1.112233,1.5842200000000002,1.356516
7940,1645650659.759518,112.0,1.0,4317.884765999999,4613.333496,4201.217772999999,4279.55127,4279.679688,16218.0,3.0,59.0,,,,0.0,4.0,0.0,4.0,0.0,4.0,33.333332,,,,,,,,56.0,1.0,0.34042,0.5668949999999999,0.14340799999999998,-0.736328,0.942788,-0.170413,-0.309087,-0.01676,-0.050033,-0.028329000000000003,,,,,,,,,,,,,,,,,,,,,,,,,,,,,,,,,,,,,,,,,,,,,,,,,,,,,,,,,,,,,,,,,
7941,1645650659.767333,113.0,1.0,4319.358886999999,4625.128418,4203.974121,4279.615234000001,4278.846191,16218.0,3.0,59.0,,,,0.0,4.0,0.0,4.0,0.0,4.0,33.333332,,,,,,,,,,,,,,,,,,,,,,,,,,,,,,,,,,,,,,,,,,,,,,,,,,,,,,,,,,,,,,,,,,,,,,,,,,,,,,,,,,,,
7942,1645650659.775147,114.0,1.0,4320.833496,4636.922852000001,4206.730957,4279.679688,4278.012695,16218.0,3.0,59.0,,,,0.0,4.0,0.0,4.0,0.0,4.0,33.333332,,,,,,,,57.0,1.0,0.340378,0.5668949999999999,0.143506,-0.736328,0.9431780000000001,-0.169436,-0.30811,-0.016887,-0.050027999999999996,-0.027641000000000002,,,,,,,,,,,,,,,,,,,,,,,,,,,,,,,,,,,,,,,,,,,,,,,,,,,,,,,,,,,,,,,,,
7943,1645650659.7829618,115.0,1.0,4322.307617,4648.717772999999,4209.487305,4279.743652,4277.179688,16218.0,3.0,59.0,,,,0.0,4.0,0.0,4.0,0.0,4.0,33.333332,,,,,,,,,,,,,,,,,,,,,,,,,,,,,,,,,,,,,,,,,,,,,,,,,,,,,,0.0,0.0,1.0,0.0,512.0,1.0,,,,,,,,,,,,,,,,,,,,,,,,,
7944,1645650659.790777,116.0,1.0,4323.782227000001,4660.512695,4212.243652,4279.807617,4276.346191,16218.0,3.0,59.0,,,,0.0,4.0,0.0,4.0,0.0,4.0,33.333332,,,,,,,,58.0,1.0,0.340337,0.5668949999999999,0.143604,-0.736328,0.9435690000000001,-0.16846,-0.307134,-0.017013,-0.050023000000000005,-0.026952999999999998,,,,,,,,,,,,,,,,,,,,,,,,,,,,,,,,,,,,,,,,,,,,,,,,,,,,,,,,,,,,,,,,,
7945,1645650659.798591,117.0,1.0,4325.256348,4672.307617,4215.0,4279.871582,4275.512695,16218.0,3.0,59.0,,,,0.0,4.0,0.0,4.0,0.0,4.0,33.333332,,,,,,,,,,,,,,,,,,,,,,,,,,,,,,,,,,,,,,,,,,,,,,,,,,,,,,,,,,,,,,,,,,,,,,,,,,,,,,,,,,,,
7946,1645650659.806406,118.0,1.0,4326.730957,4684.102539,4217.756348,4279.936035,4274.679688,16218.0,3.0,59.0,,,,0.0,4.0,0.0,4.0,0.0,4.0,33.333332,,,,,,,,59.0,1.0,0.340296,0.5668949999999999,0.143701,-0.736328,0.94396,-0.167483,-0.306157,-0.017138999999999998,-0.050019,-0.026266,,,,,,,,,,,,,,,,,,,,,,,,,,,,,,,,,,,,,,,,,,,,,,,,,,,,,,,,,,,,,,,,,
7947,1645650659.8142211,119.0,0.0,4328.205078,4695.897461,4220.512695,4280.0,4273.846191,16218.0,3.0,59.0,,,,0.0,4.0,0.0,4.0,0.0,4.0,33.333332,,,,,,,,,,,,,,,,,,,,,,,,,,,,,,,,,,,,,,,,,,,,,,,,,,,,,,0.0,0.0,1.0,0.0,512.0,1.0,,,,,,,,,,,,,,,,,,,,,,,,,
7948,1645650659.822035,120.0,0.0,4326.153809,4676.922852000001,4216.922852000001,4278.461426,4281.538574,450.0,3.0,59.0,,,,0.0,4.0,0.0,4.0,0.0,4.0,33.333332,,,,,,,,60.0,0.0,0.34025500000000003,0.5668949999999999,0.143799,-0.736328,0.94435,-0.166506,-0.30518,-0.017266,-0.050013999999999996,-0.025578,,,,,,,,,,,,,,,,,,,,,,,,,,,,,,,,,,,,,,,,,,,,,,,,,,,,,,,,,,,,,,,,,
7949,1645650659.82985,121.0,0.0,4301.538574,4622.563965,4230.769043,4278.974121,4304.615234000001,450.0,3.0,59.0,,,,0.0,4.0,0.0,4.0,0.0,4.0,33.333332,,,,,,,,,,,,,,,,,,,,,,,,,,,,,,,,,,,,,,,,,,,,,,,,,,,,,,,,,,,,,,,,,,,,,,,,,,,,,,,,,,,,
7950,1645650659.837665,122.0,0.0,4293.846191,4611.794922,4230.769043,4279.487305,4303.077147999999,450.0,3.0,59.0,,,,0.0,4.0,0.0,4.0,0.0,4.0,33.333332,,,,,,,,61.0,0.0,0.340455,0.56665,0.144287,-0.736328,0.9555809999999999,-0.167483,-0.322759,-0.015637,-0.050091000000000004,-0.022483000000000003,,,,,,,,,,,,,,,,,,,,,,,,,,,,,,,,,,,,,,,,,,,,,,,,,,,,,,,,,,,,,,,,,
7951,1645650659.8453789,123.0,0.0,4300.0,4678.461426,4201.538574,4279.487305,4292.307617,16218.0,3.0,59.0,,,,0.0,4.0,0.0,4.0,0.0,4.0,33.333332,,,,,,,,,,,,,,,,,,,,,,,,,,,,,,,,,,,,,,,,,,,,,,,,,,,,,,0.0,0.0,1.0,0.0,512.0,1.0,,,,,,,,,,,,,,,,,,,,,,,,,
7952,1645650659.853194,124.0,0.0,4287.692383,4775.384765999999,4196.410156,4278.974121,4281.538574,450.0,3.0,59.0,,,,0.0,4.0,0.0,4.0,0.0,4.0,33.333332,,,,,,,,62.0,0.0,0.339823,0.56665,0.144531,-0.736572,0.949722,-0.155276,-0.322759,-0.016465999999999998,-0.049916,-0.025899000000000002,,,,,,,,,,,,,,,,,,,,,,,,,,,,,,,,,,,,,,,,,,,,,,,,,,,,,,,,,,,,,,,,,
7953,1645650659.860908,125.0,0.0,4287.692383,4780.512695,4204.102539,4279.487305,4264.615234000001,450.0,3.0,59.0,,,,0.0,4.0,0.0,4.0,0.0,4.0,33.333332,,,,,,,,,,,,,,,,,,,,,,,,,,,,,,,,,,,,,,,,,,,,,,,,,,,,,,,,,,,,,,,,,,,,,,,,,,,,,,,,,,,,
7954,1645650659.868722,126.0,0.0,4295.384765999999,4640.0,4196.410156,4279.487305,4262.05127,450.0,3.0,59.0,,,,0.0,4.0,0.0,4.0,0.0,4.0,33.333332,,,,,,,,63.0,0.0,0.339823,0.56665,0.144531,-0.736572,0.9487450000000001,-0.154299,-0.317388,-0.017163,-0.050003,-0.028973000000000002,,,,,,,,,,,,,,,,,,,,,,,,,,,,,,,,,,,,,,,,,,,,,,,,,,,,,,,,,,,,,,,,,
7955,1645650659.8765368,127.0,0.0,4294.358886999999,4530.256348,4206.153809,4278.461426,4285.641113000001,235.0,3.0,59.0,,,,0.0,4.0,0.0,4.0,0.0,4.0,33.333332,,,,,,,,,,,,,,,,,,,,1.0,0.0,0.0,,,,,,,,,,,,,,,,,,,,,,,,,,,,,,,,0.0,0.0,1.0,0.0,512.0,1.0,1.641688,1.615629,2.5788759999999997,1.3484770000000001,1.122644,17.326560999999998,37.03474,39.616917,26.704641,37.297272,3.8639769999999998,2.7224310000000003,0.8769309999999999,2.245577,2.152063,0.0075049999999999995,0.006038,0.013314,0.006745,0.008537999999999999,2.656123,2.187698,1.227199,1.627186,1.43166
7956,1645650659.884351,0.0,0.0,4293.846191,4636.922852000001,4209.230957,4278.974121,4272.307617,450.0,3.0,59.0,,,,0.0,4.0,0.0,4.0,0.0,4.0,33.333332,,,,,,,,0.0,0.0,0.339823,0.56665,0.144531,-0.736572,0.949722,-0.165042,-0.30518,-0.017741999999999997,-0.05008,-0.025490000000000002,,,,,,,,,,,,,,,,,,,,,,,,,,,,,,,,,,,,,,,,,,,,,,,,,,,,,,,,,,,,,,,,,
7957,1645650659.892166,1.0,0.0,4303.077147999999,4685.641113000001,4205.128418,4279.487305,4256.922852000001,450.0,3.0,59.0,,,,0.0,4.0,0.0,4.0,0.0,4.0,33.333332,,,,,,,,,,,,,,,,,,,,,,,,,,,,,,,,,,,,,,,,,,,,,,,,,,,,,,,,,,,,,,,,,,,,,,,,,,,,,,,,,,,,
7958,1645650659.89998,2.0,0.0,4294.358886999999,4549.743652,4215.384765999999,4278.461426,4272.307617,16247.0,3.0,59.0,,,,0.0,4.0,0.0,4.0,0.0,4.0,33.333332,,,,,,,,1.0,0.0,0.339293,0.56665,0.144531,-0.736816,0.940932,-0.152346,-0.324712,-0.018262,-0.050102,-0.028605000000000002,,,,,,,,,,,,,,,,,,,,,,,,,,,,,,,,,,,,,,,,,,,,,,,,,,,,,,,,,,,,,,,,,
7959,1645650659.907795,3.0,0.0,4284.615234000001,4589.743652,4224.102539,4278.974121,4277.436035,450.0,3.0,59.0,,,,0.0,4.0,0.0,4.0,0.0,4.0,33.333332,,,,,,,,,,,,,,,,,,,,,,,,,,,,,,,,,,,,,,,,,,,,,,,,,,,,,,0.0,0.0,1.0,0.0,512.0,1.0,,,,,,,,,,,,,,,,,,,,,,,,,
7960,1645650659.915509,4.0,0.0,4278.461426,4791.794922,4205.128418,4280.512695,4258.461426,51.0,3.0,59.0,,,,0.0,4.0,1.0,4.0,0.0,4.0,41.666668,,,,,,,,2.0,0.0,0.339397,0.56665,0.144287,-0.736816,0.9340959999999999,-0.161624,-0.305669,-0.016485,-0.05017,-0.031409,,,,,,,,,,,,,,,,,,,,,,,,,,,,,,,,,,,,,,,,,,,,,,,,,,,,,,,,,,,,,,,,,
7961,1645650659.9233232,5.0,0.0,4293.846191,4729.230957,4223.077147999999,4279.487305,4262.05127,450.0,3.0,59.0,,,,0.0,4.0,1.0,4.0,0.0,4.0,41.666668,,,,,,,,,,,,,,,,,,,,,,,,,,,,,,,,,,,,,,,,,,,,,,,,,,,,,,,,,,,,,,,,,,,,,,,,,,,,,,,,,,,,
7962,1645650659.931138,6.0,0.0,4318.461426,4572.820313,4229.743652,4277.436035,4279.487305,16205.0,3.0,59.0,,,,0.0,4.0,1.0,4.0,0.0,4.0,41.666668,,,,,,,,3.0,0.0,0.339397,0.56665,0.144287,-0.736816,0.938003,-0.153811,-0.31201599999999996,-0.017228999999999998,-0.049987000000000004,-0.033932,,,,,,,,,,,,,,,,,,,,,,,,,,,,,,,,,,,,,,,,,,,,,,,,,,,,,,,,,,,,,,,,,
7963,1645650659.938952,7.0,0.0,4306.153809,4607.692383,4226.153809,4277.94873,4281.025879,450.0,3.0,59.0,,,,0.0,4.0,1.0,4.0,0.0,4.0,41.666668,,,,,,,,,,,,,,,,,,,,,,,,,,,,,,,,,,,,,,,,,,,,,,,,,,,,,,0.0,0.0,1.0,0.0,512.0,1.0,,,,,,,,,,,,,,,,,,,,,,,,,
7964,1645650659.946767,8.0,0.0,4290.256348,4620.0,4232.820313,4279.487305,4288.205078,450.0,3.0,59.0,,,,0.0,4.0,1.0,4.0,0.0,4.0,41.666668,,,,,,,,4.0,0.0,0.339908,0.5664060000000001,0.144043,-0.736816,0.945327,-0.16211199999999998,-0.320806,-0.017800999999999997,-0.049969,-0.029952999999999997,,,,,,,,,,,,,,,,,,,,,,,,,,,,,,,,,,,,,,,,,,,,,,,,,,,,,,,,,,,,,,,,,
7965,1645650659.954581,9.0,0.0,4293.846191,4609.230957,4229.743652,4279.487305,4294.871582,0.0,3.0,59.0,,,,0.0,4.0,1.0,4.0,0.0,4.0,41.666668,,,,,,,,,,,,,,,,,,,,,,,,,,,,,,,,,,,,,,,,,,,,,,,,,,,,,,,,,,,,,,,,,,,,,,,,,,,,,,,,,,,,
7966,1645650659.962395,10.0,0.0,4306.153809,4662.563965,4202.05127,4278.974121,4285.128418,450.0,3.0,59.0,,,,0.0,4.0,1.0,4.0,0.0,4.0,41.666668,,,,,,,,5.0,0.0,0.34054,0.5664060000000001,0.143799,-0.736572,0.946792,-0.17236600000000002,-0.318853,-0.018365,-0.049855000000000003,-0.032671,,,,,,,,,,,,,,,,,,,,,,,,,,,,,,,,,,,,,,,,,,,,,,,,,,,,,,,,,,,,,,,,,
7967,1645650659.97011,11.0,0.0,4312.307617,4665.128418,4206.666504,4278.974121,4267.179688,16224.0,3.0,59.0,,,,0.0,4.0,1.0,4.0,0.0,4.0,41.666668,,,,,,,,,,,,,,,,,,,,,,,,,,,,,,,,,,,,,,,,,,,,,,,,,,,,,,0.0,0.0,1.0,0.0,512.0,1.0,,,,,,,,,,,,,,,,,,,,,,,,,
7968,1645650659.977924,12.0,0.0,4310.256348,4667.179688,4220.512695,4278.461426,4272.307617,450.0,3.0,59.0,,,,0.0,4.0,1.0,4.0,0.0,4.0,41.666668,,,,,,,,6.0,0.0,0.34074499999999996,0.5664060000000001,0.143311,-0.736572,0.963882,-0.169924,-0.3252,-0.01974,-0.049772000000000004,-0.039299,,,,,,,,,,,,,,,,,,,,,,,,,,,,,,,,,,,,,,,,,,,,,,,,,,,,,,,,,,,,,,,,,
7969,1645650659.985739,13.0,0.0,4291.282227000001,4680.512695,4208.205078,4277.94873,4282.05127,450.0,3.0,59.0,,,,0.0,4.0,1.0,4.0,0.0,4.0,41.666668,,,,,,,,,,,,,,,,,,,,,,,,,,,,,,,,,,,,,,,,,,,,,,,,,,,,,,,,,,,,,,,,,,,,,,,,,,,,,,,,,,,,
7970,1645650659.993553,14.0,0.0,4306.153809,4649.743652,4207.692383,4278.461426,4283.589844,450.0,3.0,59.0,,,,0.0,4.0,1.0,4.0,0.0,4.0,41.666668,,,,,,,,7.0,0.0,0.34095,0.5664060000000001,0.142822,-0.736572,0.962417,-0.165042,-0.32227100000000003,-0.020061000000000002,-0.049824,-0.034733999999999994,,,,,,,,,,,,,,,,,,,,,,,,,,,,,,,,,,,,,,,,,,,,,,,,,,,,,,,,,,,,,,,,,
7971,1645650660.001368,15.0,0.0,4340.512695,4644.102539,4216.410156,4279.487305,4283.589844,16224.0,3.0,59.0,,,,0.0,4.0,1.0,4.0,0.0,4.0,41.666668,,,,,,,,,,,,,,,,,,,,1.0,0.0,0.0,,,,,,,,,,,,,,,,,,,,,,,,,,,,,,,,0.0,0.0,1.0,0.0,512.0,1.0,1.7680759999999998,2.141175,2.42752,1.35243,1.055046,15.773562,37.805538,40.543652,31.338661,36.184055,3.429877,2.69271,0.820156,2.255905,2.111106,0.007961,0.005993,0.013380000000000001,0.0067209999999999995,0.007732999999999999,3.027693,2.031836,1.378252,1.718684,1.501276
7972,1645650660.009182,16.0,0.0,4331.282227000001,4632.820313,4216.410156,4278.974121,4289.743652,0.0,3.0,59.0,,,,0.0,4.0,1.0,4.0,0.0,4.0,41.666668,,,,,,,,8.0,0.0,0.340647,0.56665,0.142578,-0.736572,0.948257,-0.178714,-0.326177,-0.020398,-0.04992,-0.036925,,,,,,,,,,,,,,,,,,,,,,,,,,,,,,,,,,,,,,,,,,,,,,,,,,,,,,,,,,,,,,,,,
7973,1645650660.0169961,17.0,0.0,4298.974121,4569.743652,4199.487305,4278.974121,4277.436035,0.0,3.0,59.0,,,,0.0,4.0,1.0,4.0,0.0,4.0,41.666668,,,,,,,,,,,,,,,,,,,,,,,,,,,,,,,,,,,,,,,,,,,,,,,,,,,,,,,,,,,,,,,,,,,,,,,,,,,,,,,,,,,,
7974,1645650660.024811,18.0,0.0,4302.563965,4582.563965,4185.128418,4279.487305,4265.128418,0.0,3.0,59.0,,,,0.0,4.0,1.0,4.0,0.0,4.0,41.666668,,,,,,,,9.0,0.0,0.341276,0.56665,0.142334,-0.736328,0.9472799999999999,-0.174319,-0.31104,-0.020653,-0.050006,-0.032598,,,,,,,,,,,,,,,,,,,,,,,,,,,,,,,,,,,,,,,,,,,,,,,,,,,,,,,,,,,,,,,,,
7975,1645650660.032525,19.0,0.0,4313.333496,4632.820313,4182.05127,4278.461426,4262.05127,0.0,3.0,59.0,,,,0.0,4.0,1.0,4.0,0.0,4.0,41.666668,,,,,,,,,,,,,,,,,,,,,,,,,,,,,,,,,,,,,,,,,,,,,,,,,,,,,,0.0,0.0,1.0,0.0,512.0,1.0,,,,,,,,,,,,,,,,,,,,,,,,,
7976,1645650660.04034,20.0,0.0,4317.436035,4614.358886999999,4214.871582,4277.94873,4281.025879,0.0,3.0,59.0,,,,0.0,4.0,1.0,4.0,0.0,4.0,41.666668,,,,,,,,10.0,0.0,0.34087,0.5668949999999999,0.142334,-0.736328,0.9423969999999999,-0.178714,-0.314946,-0.019430000000000003,-0.050056,-0.031448000000000004,,,,,,,,,,,,,,,,,,,,,,,,,,,,,,,,,,,,,,,,,,,,,,,,,,,,,,,,,,,,,,,,,
7977,1645650660.0481539,21.0,0.0,4324.615234000001,4602.05127,4230.769043,4279.487305,4302.563965,0.0,3.0,59.0,,,,0.0,4.0,1.0,4.0,0.0,4.0,41.666668,,,,,,,,,,,,,,,,,,,,,,,,,,,,,,,,,,,,,,,,,,,,,,,,,,,,,,,,,,,,,,,,,,,,,,,,,,,,,,,,,,,,
7978,1645650660.055969,22.0,0.0,4342.05127,4664.615234000001,4223.077147999999,4280.0,4293.846191,0.0,3.0,59.0,,,,0.0,4.0,1.0,4.0,0.0,4.0,41.666668,,,,,,,,11.0,0.0,0.34087,0.5668949999999999,0.142334,-0.736328,0.95021,-0.169924,-0.32813000000000003,-0.01983,-0.050031,-0.027815,,,,,,,,,,,,,,,,,,,,,,,,,,,,,,,,,,,,,,,,,,,,,,,,,,,,,,,,,,,,,,,,,
7979,1645650660.063783,23.0,0.0,4351.794922,4740.512695,4197.94873,4278.974121,4280.512695,0.0,3.0,59.0,,,,0.0,4.0,1.0,4.0,0.0,4.0,41.666668,,,,,,,,,,,,,,,,,,,,,,,,,,,,,,,,,,,,,,,,,,,,,,,,,,,,,,0.0,0.0,1.0,0.0,512.0,1.0,,,,,,,,,,,,,,,,,,,,,,,,,
7980,1645650660.071597,24.0,0.0,4340.512695,4695.897461,4214.358886999999,4278.974121,4297.94873,0.0,3.0,59.0,,,,0.0,4.0,1.0,4.0,0.0,4.0,41.666668,,,,,,,,12.0,0.0,0.34076799999999996,0.5668949999999999,0.142578,-0.736328,0.9560690000000001,-0.182132,-0.317388,-0.020191,-0.050106,-0.0306,,,,,,,,,,,,,,,,,,,,,,,,,,,,,,,,,,,,,,,,,,,,,,,,,,,,,,,,,,,,,,,,,
7981,1645650660.079412,25.0,0.0,4331.282227000001,4529.743652,4236.922852000001,4278.974121,4321.025879,0.0,3.0,59.0,,,,0.0,4.0,1.0,4.0,0.0,4.0,41.666668,,,,,,,,,,,,,,,,,,,,,,,,,,,,,,,,,,,,,,,,,,,,,,,,,,,,,,,,,,,,,,,,,,,,,,,,,,,,,,,,,,,,
7982,1645650660.087326,26.0,0.0,4325.641113000001,4532.307617,4220.0,4278.461426,4303.589844,0.0,3.0,59.0,,,,0.0,4.0,1.0,4.0,0.0,4.0,41.666668,,,,,,,,13.0,0.0,0.340138,0.5668949999999999,0.142822,-0.736572,0.9560690000000001,-0.189944,-0.31396999999999997,-0.020467,-0.050026999999999995,-0.026905000000000002,,,,,,,,,,,,,,,,,,,,,,,,,,,,,,,,,,,,,,,,,,,,,,,,,,,,,,,,,,,,,,,,,
7983,1645650660.095141,27.0,0.0,4334.871582,4713.846191,4193.846191,4279.487305,4292.820313,0.0,3.0,59.0,,,,0.0,4.0,1.0,4.0,0.0,4.0,41.666668,,,,,,,,,,,,,,,,,,,,,,,,,,,,,,,,,,,,,,,,,,,,,,,,,,,,,,0.0,0.0,1.0,0.0,512.0,1.0,,,,,,,,,,,,,,,,,,,,,,,,,
7984,1645650660.102956,28.0,0.0,4333.333496,4748.717772999999,4211.282227000001,4279.487305,4301.025879,0.0,3.0,59.0,,,,0.0,4.0,1.0,4.0,0.0,4.0,41.666668,,,,,,,,14.0,0.0,0.339932,0.5668949999999999,0.143311,-0.736572,0.961929,-0.166995,-0.31250500000000003,-0.019153,-0.049956,-0.029879000000000003,,,,,,,,,,,,,,,,,,,,,,,,,,,,,,,,,,,,,,,,,,,,,,,,,,,,,,,,,,,,,,,,,
7985,1645650660.11077,29.0,0.0,4323.589844,4623.589844,4240.0,4278.461426,4305.641113000001,0.0,3.0,59.0,,,,0.0,4.0,1.0,4.0,0.0,4.0,41.666668,,,,,,,,,,,,,,,,,,,,,,,,,,,,,,,,,,,,,,,,,,,,,,,,,,,,,,,,,,,,,,,,,,,,,,,,,,,,,,,,,,,,
7986,1645650660.1185849,30.0,0.0,4327.692383,4569.230957,4234.871582,4278.461426,4306.666504,0.0,3.0,59.0,,,,0.0,4.0,1.0,4.0,0.0,4.0,41.666668,,,,,,,,15.0,0.0,0.339829,0.5668949999999999,0.143555,-0.736572,0.969253,-0.14941600000000002,-0.30811,-0.01963,-0.049941,-0.026354000000000002,,,,,,,,,,,,,,,,,,,,,,,,,,,,,,,,,,,,,,,,,,,,,,,,,,,,,,,,,,,,,,,,,
7987,1645650660.1264,31.0,0.0,4336.922852000001,4613.333496,4218.974121,4279.487305,4310.769043,0.0,3.0,59.0,,,,0.0,4.0,1.0,4.0,0.0,4.0,41.666668,0.972656,33.333332,4.0,0.0,4.0,0.0,4.0,,,,,,,,,,,,,1.0,0.0,0.0,,,,,,,,,,,,,,,,,,,,,,,,,,,,,,,,0.0,0.0,1.0,0.0,512.0,1.0,1.934459,2.784779,2.050439,1.319893,1.011179,13.568681,36.852084999999995,39.759483,38.248596,34.699024,3.0689290000000002,2.70769,0.769832,2.341784,2.065611,0.008019,0.005850999999999999,0.012498,0.006469,0.006979000000000001,3.189336,2.074316,1.522318,1.879386,1.5303879999999999
7988,1645650660.1342142,32.0,0.0,4315.384765999999,4635.384765999999,4217.436035,4278.974121,4288.205078,0.0,3.0,59.0,,,,0.0,4.0,1.0,4.0,0.0,4.0,41.666668,,,,,,,,16.0,0.0,0.34003,0.56665,0.144043,-0.736572,0.95021,-0.160159,-0.307622,-0.018399000000000002,-0.050025,-0.029383,,,,,,,,,,,,,,,,,,,,,,,,,,,,,,,,,,,,,,,,,,,,,,,,,,,,,,,,,,,,,,,,,
7989,1645650660.1420288,33.0,0.0,4303.589844,4634.871582,4235.897461,4278.974121,4282.563965,0.0,3.0,59.0,,,,0.0,4.0,1.0,4.0,0.0,4.0,41.666668,,,,,,,,,,,,,,,,,,,,,,,,,,,,,,,,,,,,,,,,,,,,,,,,,,,,,,,,,,,,,,,,,,,,,,,,,,,,,,,,,,,,
7990,1645650660.149844,34.0,0.0,4315.384765999999,4666.666504,4229.230957,4280.0,4296.410156,0.0,3.0,59.0,,,,0.0,4.0,1.0,4.0,0.0,4.0,41.666668,,,,,,,,17.0,0.0,0.339293,0.56665,0.144531,-0.736816,0.959976,-0.160159,-0.31201599999999996,-0.019001,-0.050003,-0.025858,,,,,,,,,,,,,,,,,,,,,,,,,,,,,,,,,,,,,,,,,,,,,,,,,,,,,,,,,,,,,,,,,
7991,1645650660.157658,35.0,0.0,4315.897461,4677.94873,4213.333496,4278.461426,4296.410156,0.0,3.0,59.0,,,,0.0,4.0,1.0,4.0,0.0,4.0,41.666668,,,,,,,,,,,,,,,,,,,,,,,,,,,,,,,,,,,,,,,,,,,,,,,,,,,,,,0.0,0.0,1.0,0.0,512.0,1.0,,,,,,,,,,,,,,,,,,,,,,,,,
7992,1645650660.165373,36.0,0.0,4295.384765999999,4628.205078,4213.846191,4277.94873,4279.487305,0.0,3.0,59.0,,,,0.0,4.0,1.0,4.0,0.0,4.0,41.666668,,,,,,,,18.0,0.0,0.339084,0.56665,0.14502,-0.736816,0.945815,-0.178714,-0.310552,-0.017882,-0.050032,-0.028937,,,,,,,,,,,,,,,,,,,,,,,,,,,,,,,,,,,,,,,,,,,,,,,,,,,,,,,,,,,,,,,,,
7993,1645650660.173187,37.0,0.0,4292.307617,4565.641113000001,4242.05127,4279.487305,4281.538574,0.0,3.0,59.0,,,,0.0,4.0,1.0,4.0,0.0,4.0,41.666668,,,,,,,,,,,,,,,,,,,,,,,,,,,,,,,,,,,,,,,,,,,,,,,,,,,,,,,,,,,,,,,,,,,,,,,,,,,,,,,,,,,,
7994,1645650660.181001,38.0,0.0,4298.461426,4589.743652,4235.897461,4278.974121,4286.153809,0.0,3.0,59.0,,,,0.0,4.0,1.0,4.0,0.0,4.0,41.666668,,,,,,,,19.0,0.0,0.338857,0.5664060000000001,0.145264,-0.737061,0.964858,-0.15820599999999999,-0.314946,-0.018389,-0.05001,-0.025408,,,,,,,,,,,,,,,,,,,,,,,,,,,,,,,,,,,,,,,,,,,,,,,,,,,,,,,,,,,,,,,,,
7995,1645650660.188816,39.0,0.0,4316.410156,4688.205078,4225.641113000001,4278.974121,4284.615234000001,0.0,3.0,59.0,,,,0.0,4.0,1.0,4.0,0.0,4.0,41.666668,,,,,,,,,,,,,,,,,,,,,,,,,,,,,,,,,,,,,,,,,,,,,,,,,,,,,,0.0,0.0,1.0,0.0,512.0,1.0,,,,,,,,,,,,,,,,,,,,,,,,,
7996,1645650660.19663,40.0,0.0,4341.025879,4716.410156,4232.307617,4282.05127,4300.0,0.0,3.0,59.0,,,,0.0,4.0,1.0,4.0,0.0,4.0,41.666668,,,,,,,,20.0,0.0,0.338344,0.56665,0.145508,-0.737061,0.957046,-0.161135,-0.316411,-0.018844999999999997,-0.04994,-0.02858,,,,,,,,,,,,,,,,,,,,,,,,,,,,,,,,,,,,,,,,,,,,,,,,,,,,,,,,,,,,,,,,,
7997,1645650660.204445,41.0,0.0,4328.205078,4666.153809,4238.974121,4281.025879,4309.743652,0.0,3.0,59.0,,,,0.0,4.0,1.0,4.0,0.0,4.0,41.666668,,,,,,,,,,,,,,,,,,,,,,,,,,,,,,,,,,,,,,,,,,,,,,,,,,,,,,,,,,,,,,,,,,,,,,,,,,,,,,,,,,,,
7998,1645650660.212259,42.0,0.0,4303.077147999999,4682.05127,4216.922852000001,4278.461426,4303.589844,0.0,3.0,59.0,,,,0.0,4.0,1.0,4.0,0.0,4.0,41.666668,,,,,,,,21.0,0.0,0.338344,0.56665,0.145508,-0.737061,0.9331200000000001,-0.14990499999999998,-0.32227100000000003,-0.019451,-0.049829000000000005,-0.025185,,,,,,,,,,,,,,,,,,,,,,,,,,,,,,,,,,,,,,,,,,,,,,,,,,,,,,,,,,,,,,,,,
7999,1645650660.220074,43.0,0.0,4305.641113000001,4698.974121,4221.025879,4278.974121,4292.820313,0.0,3.0,59.0,,,,0.0,4.0,1.0,4.0,0.0,4.0,41.666668,,,,,,,,,,,,,,,,,,,,,,,,,,,,,,,,,,,,,,,,,,,,,,,,,,,,,,0.0,0.0,1.0,0.0,512.0,1.0,,,,,,,,,,,,,,,,,,,,,,,,,
8000,1645650660.227888,44.0,0.0,4343.589844,4629.230957,4235.897461,4280.512695,4300.512695,0.0,3.0,59.0,,,,0.0,4.0,1.0,4.0,0.0,4.0,41.666668,,,,,,,,22.0,0.0,0.33781100000000003,0.56665,0.145508,-0.737305,0.932143,-0.164553,-0.316899,-0.019752000000000002,-0.049973000000000004,-0.02213,,,,,,,,,,,,,,,,,,,,,,,,,,,,,,,,,,,,,,,,,,,,,,,,,,,,,,,,,,,,,,,,,
8001,1645650660.235702,45.0,0.0,4348.717772999999,4635.897461,4217.94873,4278.461426,4305.641113000001,0.0,3.0,59.0,,,,0.0,4.0,1.0,4.0,0.0,4.0,41.666668,,,,,,,,,,,,,,,,,,,,,,,,,,,,,,,,,,,,,,,,,,,,,,,,,,,,,,,,,,,,,,,,,,,,,,,,,,,,,,,,,,,,
8002,1645650660.243417,46.0,0.0,4324.102539,4663.077147999999,4222.563965,4278.461426,4306.153809,0.0,3.0,59.0,,,,0.0,4.0,1.0,4.0,0.0,4.0,41.666668,,,,,,,,23.0,0.0,0.337935,0.5668949999999999,0.145508,-0.737061,0.9438620000000001,-0.151858,-0.305669,-0.017825,-0.049908,-0.025532,,,,,,,,,,,,,,,,,,,,,,,,,,,,,,,,,,,,,,,,,,,,,,,,,,,,,,,,,,,,,,,,,
8003,1645650660.251231,47.0,0.0,4311.794922,4591.794922,4238.974121,4280.512695,4300.512695,0.0,3.0,59.0,,,,0.0,4.0,1.0,4.0,0.0,4.0,41.666668,,,,,,,,,,,,,,,,,,,,1.0,0.0,0.0,,,,,,,,,,,,,,,,,,,,,,,,,,,,,,,,0.0,0.0,1.0,0.0,512.0,1.0,2.1724799999999997,3.3524540000000003,1.574619,1.254332,0.9628040000000001,11.560549,34.464794,37.981724,45.391071000000004,32.925125,2.996323,2.7037169999999997,0.757627,2.43152,1.992361,0.007645999999999999,0.005588,0.01082,0.006005,0.006379999999999999,3.07553,2.223248,1.602709,2.078443,1.492765
8004,1645650660.259046,48.0,0.0,4324.615234000001,4596.410156,4224.102539,4279.487305,4298.461426,0.0,3.0,59.0,,,,0.0,4.0,1.0,4.0,0.0,4.0,41.666668,,,,,,,,24.0,0.0,0.338344,0.56665,0.145508,-0.737061,0.9331200000000001,-0.14990499999999998,-0.32227100000000003,-0.018436,-0.0498,-0.022344,,,,,,,,,,,,,,,,,,,,,,,,,,,,,,,,,,,,,,,,,,,,,,,,,,,,,,,,,,,,,,,,,
8005,1645650660.26686,49.0,0.0,4325.641113000001,4678.974121,4205.128418,4279.487305,4290.769043,0.0,3.0,59.0,,,,0.0,4.0,1.0,4.0,0.0,4.0,41.666668,,,,,,,,,,,,,,,,,,,,,,,,,,,,,,,,,,,,,,,,,,,,,,,,,,,,,,,,,,,,,,,,,,,,,,,,,,,,,,,,,,,,
8006,1645650660.274674,50.0,0.0,4321.538574,4686.666504,4215.384765999999,4281.538574,4286.666504,0.0,3.0,59.0,,,,0.0,4.0,1.0,4.0,0.0,4.0,41.666668,,,,,,,,25.0,0.0,0.337935,0.5668949999999999,0.145508,-0.737061,0.9438620000000001,-0.151858,-0.305669,-0.016641,-0.049752,-0.025725,,,,,,,,,,,,,,,,,,,,,,,,,,,,,,,,,,,,,,,,,,,,,,,,,,,,,,,,,,,,,,,,,
8007,1645650660.282489,51.0,0.0,4317.436035,4673.846191,4211.794922,4278.974121,4286.153809,0.0,3.0,59.0,,,,0.0,4.0,1.0,4.0,0.0,4.0,41.666668,,,,,,,,,,,,,,,,,,,,,,,,,,,,,,,,,,,,,,,,,,,,,,,,,,,,,,0.0,0.0,1.0,0.0,512.0,1.0,,,,,,,,,,,,,,,,,,,,,,,,,
8008,1645650660.290303,52.0,0.0,4298.461426,4675.897461,4214.871582,4276.922852000001,4294.358886999999,0.0,3.0,59.0,,,,0.0,4.0,1.0,4.0,0.0,4.0,41.666668,,,,,,,,26.0,0.0,0.337935,0.5668949999999999,0.145508,-0.737061,0.960952,-0.159182,-0.305669,-0.01732,-0.049707999999999995,-0.028768000000000002,,,,,,,,,,,,,,,,,,,,,,,,,,,,,,,,,,,,,,,,,,,,,,,,,,,,,,,,,,,,,,,,,
8009,1645650660.2981179,53.0,0.0,4291.282227000001,4632.820313,4222.05127,4278.974121,4294.358886999999,0.0,3.0,59.0,,,,0.0,4.0,1.0,4.0,0.0,4.0,41.666668,,,,,,,,,,,,,,,,,,,,,,,,,,,,,,,,,,,,,,,,,,,,,,,,,,,,,,,,,,,,,,,,,,,,,,,,,,,,,,,,,,,,
8010,1645650660.306032,54.0,0.0,4321.538574,4620.512695,4237.94873,4279.487305,4305.128418,0.0,3.0,59.0,,,,0.0,4.0,1.0,4.0,0.0,4.0,41.666668,,,,,,,,27.0,0.0,0.33816199999999996,0.5671390000000001,0.145264,-0.736816,0.947768,-0.158694,-0.314458,-0.018078999999999998,-0.049767,-0.031457,,,,,,,,,,,,,,,,,,,,,,,,,,,,,,,,,,,,,,,,,,,,,,,,,,,,,,,,,,,,,,,,,
8011,1645650660.313847,55.0,0.0,4333.846191,4682.05127,4232.820313,4278.974121,4325.641113000001,0.0,3.0,59.0,,,,0.0,4.0,1.0,4.0,0.0,4.0,41.666668,,,,,,,,,,,,,,,,,,,,,,,,,,,,,,,,,,,,,,,,,,,,,,,,,,,,,,0.0,0.0,1.0,0.0,512.0,1.0,,,,,,,,,,,,,,,,,,,,,,,,,
8012,1645650660.321761,56.0,0.0,4330.769043,4742.05127,4224.615234000001,4280.0,4306.666504,0.0,3.0,59.0,,,,0.0,4.0,1.0,4.0,0.0,4.0,41.666668,,,,,,,,28.0,0.0,0.338267,0.5671390000000001,0.14502,-0.736816,0.949722,-0.163577,-0.31201599999999996,-0.018566,-0.049722,-0.027775,,,,,,,,,,,,,,,,,,,,,,,,,,,,,,,,,,,,,,,,,,,,,,,,,,,,,,,,,,,,,,,,,
8013,1645650660.329576,57.0,0.0,4357.436035,4754.871582,4215.897461,4279.487305,4293.333496,0.0,3.0,59.0,,,,0.0,4.0,1.0,4.0,0.0,4.0,41.666668,,,,,,,,,,,,,,,,,,,,,,,,,,,,,,,,,,,,,,,,,,,,,,,,,,,,,,,,,,,,,,,,,,,,,,,,,,,,,,,,,,,,
8014,1645650660.337391,58.0,0.0,4354.358886999999,4658.974121,4222.563965,4278.974121,4309.743652,0.0,3.0,59.0,,,,0.0,4.0,1.0,4.0,0.0,4.0,41.666668,,,,,,,,29.0,0.0,0.338903,0.5671390000000001,0.144775,-0.736572,0.936049,-0.165042,-0.316411,-0.019053,-0.04973,-0.030661,,,,,,,,,,,,,,,,,,,,,,,,,,,,,,,,,,,,,,,,,,,,,,,,,,,,,,,,,,,,,,,,,
8015,1645650660.345205,59.0,0.0,4317.94873,4549.743652,4213.846191,4280.512695,4308.205078,0.0,3.0,59.0,,,,0.0,4.0,1.0,4.0,0.0,4.0,41.666668,,,,,,,,,,,,,,,,,,,,,,,,,,,,,,,,,,,,,,,,,,,,,,,,,,,,,,0.0,0.0,1.0,0.0,512.0,1.0,,,,,,,,,,,,,,,,,,,,,,,,,
8016,1645650660.35302,60.0,0.0,4311.794922,4574.871582,4202.05127,4279.487305,4295.897461,0.0,3.0,59.0,,,,0.0,4.0,1.0,4.0,0.0,4.0,41.666668,,,,,,,,30.0,0.0,0.339944,0.5668949999999999,0.144531,-0.736328,0.949233,-0.170901,-0.307134,-0.017929,-0.049738,-0.03321,,,,,,,,,,,,,,,,,,,,,,,,,,,,,,,,,,,,,,,,,,,,,,,,,,,,,,,,,,,,,,,,,
8017,1645650660.360835,61.0,0.0,4333.333496,4607.179688,4207.692383,4277.436035,4313.846191,0.0,3.0,59.0,,,,0.0,4.0,1.0,4.0,0.0,4.0,41.666668,,,,,,,,,,,,,,,,,,,,,,,,,,,,,,,,,,,,,,,,,,,,,,,,,,,,,,,,,,,,,,,,,,,,,,,,,,,,,,,,,,,,
8018,1645650660.368649,62.0,0.0,4324.102539,4589.743652,4212.307617,4280.0,4305.641113000001,0.0,3.0,59.0,,,,0.0,4.0,1.0,4.0,0.0,4.0,41.666668,,,,,,,,31.0,0.0,0.340048,0.5668949999999999,0.144287,-0.736328,0.947768,-0.17773699999999998,-0.31543499999999997,-0.01848,-0.049647000000000004,-0.035505,,,,,,,,,,,,,,,,,,,,,,,,,,,,,,,,,,,,,,,,,,,,,,,,,,,,,,,,,,,,,,,,,
8019,1645650660.3764641,63.0,0.0,4313.846191,4640.512695,4206.666504,4280.512695,4281.025879,0.0,3.0,59.0,,,,0.0,4.0,1.0,4.0,0.0,4.0,41.666668,,,,,,,,,,,,,,,,,,,,1.0,0.0,0.0,,,,,,,,,,,,,,,,,,,,,,,,,,,,,,,,0.0,0.0,1.0,0.0,512.0,1.0,2.5328939999999998,3.619064,1.154017,1.164523,0.908415,10.382036,30.769501,36.341747,50.681938,31.2313,3.28621,2.6084560000000003,0.788754,2.432538,1.883404,0.006901999999999999,0.005219,0.008675,0.005445,0.0059770000000000005,2.742791,2.366703,1.572657,2.251647,1.38862
8020,1645650660.384279,64.0,0.0,4315.384765999999,4683.077147999999,4202.563965,4277.94873,4291.794922,450.0,3.0,59.0,,,,0.0,4.0,1.0,4.0,0.0,4.0,41.666668,,,,,,,,32.0,0.0,0.340152,0.5668949999999999,0.144043,-0.736328,0.9389790000000001,-0.183597,-0.315923,-0.019073,-0.049565,-0.03132,,,,,,,,,,,,,,,,,,,,,,,,,,,,,,,,,,,,,,,,,,,,,,,,,,,,,,,,,,,,,,,,,
8021,1645650660.391993,65.0,0.0,4328.717772999999,4620.0,4226.666504,4278.461426,4316.922852000001,450.0,3.0,59.0,,,,0.0,4.0,1.0,4.0,0.0,4.0,41.666668,,,,,,,,,,,,,,,,,,,,,,,,,,,,,,,,,,,,,,,,,,,,,,,,,,,,,,,,,,,,,,,,,,,,,,,,,,,,,,,,,,,,
8022,1645650660.399808,66.0,0.0,4343.077147999999,4607.179688,4233.333496,4279.487305,4317.94873,16220.0,3.0,59.0,,,,0.0,4.0,1.0,4.0,0.0,4.0,41.666668,,,,,,,,33.0,0.0,0.34055799999999997,0.56665,0.144043,-0.736328,0.960464,-0.180667,-0.309575,-0.019559,-0.049832999999999995,-0.033803,,,,,,,,,,,,,,,,,,,,,,,,,,,,,,,,,,,,,,,,,,,,,,,,,,,,,,,,,,,,,,,,,
8023,1645650660.407622,67.0,0.0,4342.05127,4704.102539,4205.641113000001,4280.0,4303.589844,450.0,3.0,59.0,,,,0.0,4.0,1.0,4.0,0.0,4.0,41.666668,,,,,,,,,,,,,,,,,,,,,,,,,,,,,,,,,,,,,,,,,,,,,,,,,,,,,,0.0,0.0,1.0,0.0,512.0,1.0,,,,,,,,,,,,,,,,,,,,,,,,,
8024,1645650660.415336,68.0,0.0,4323.589844,4756.922852000001,4173.333496,4281.538574,4275.897461,0.0,3.0,59.0,,,,0.0,4.0,0.0,4.0,0.0,4.0,33.333332,,,,,,,,34.0,0.0,0.339926,0.56665,0.144287,-0.736572,0.9594870000000001,-0.177249,-0.316899,-0.019995,-0.049782,-0.029934,,,,,,,,,,,,,,,,,,,,,,,,,,,,,,,,,,,,,,,,,,,,,,,,,,,,,,,,,,,,,,,,,
8025,1645650660.423151,69.0,0.0,4321.538574,4656.922852000001,4205.128418,4281.025879,4285.128418,450.0,3.0,59.0,,,,0.0,4.0,0.0,4.0,0.0,4.0,33.333332,,,,,,,,,,,,,,,,,,,,,,,,,,,,,,,,,,,,,,,,,,,,,,,,,,,,,,,,,,,,,,,,,,,,,,,,,,,,,,,,,,,,
8026,1645650660.430965,70.0,0.0,4331.282227000001,4488.717772999999,4244.102539,4277.436035,4312.820313,16170.0,3.0,59.0,,,,0.0,4.0,0.0,4.0,0.0,4.0,33.333332,,,,,,,,35.0,0.0,0.339926,0.56665,0.144287,-0.736572,0.949233,-0.184085,-0.318853,-0.018678999999999998,-0.049735,-0.032507,,,,,,,,,,,,,,,,,,,,,,,,,,,,,,,,,,,,,,,,,,,,,,,,,,,,,,,,,,,,,,,,,
8027,1645650660.4386802,71.0,0.0,4327.179688,4524.102539,4226.153809,4280.0,4298.974121,450.0,3.0,59.0,,,,0.0,4.0,0.0,4.0,0.0,4.0,33.333332,,,,,,,,,,,,,,,,,,,,,,,,,,,,,,,,,,,,,,,,,,,,,,,,,,,,,,0.0,0.0,1.0,0.0,512.0,1.0,,,,,,,,,,,,,,,,,,,,,,,,,
8028,1645650660.4464939,72.0,0.0,4316.922852000001,4694.871582,4185.128418,4282.05127,4274.358886999999,450.0,3.0,59.0,,,,0.0,4.0,0.0,4.0,0.0,4.0,33.333332,,,,,,,,36.0,0.0,0.339397,0.56665,0.144287,-0.736816,0.940932,-0.180667,-0.311528,-0.019155000000000002,-0.049693,-0.02872,,,,,,,,,,,,,,,,,,,,,,,,,,,,,,,,,,,,,,,,,,,,,,,,,,,,,,,,,,,,,,,,,
8029,1645650660.454309,73.0,0.0,4324.615234000001,4679.487305,4215.897461,4278.974121,4283.589844,0.0,3.0,59.0,,,,0.0,4.0,0.0,4.0,0.0,4.0,33.333332,,,,,,,,,,,,,,,,,,,,,,,,,,,,,,,,,,,,,,,,,,,,,,,,,,,,,,,,,,,,,,,,,,,,,,,,,,,,,,,,,,,,
8030,1645650660.4621232,74.0,0.0,4329.230957,4567.692383,4230.769043,4277.94873,4304.615234000001,450.0,3.0,59.0,,,,0.0,4.0,0.0,4.0,0.0,4.0,33.333332,,,,,,,,37.0,0.0,0.33916999999999997,0.5664060000000001,0.144531,-0.737061,0.938491,-0.18555,-0.321782,-0.018021000000000002,-0.049705,-0.025115000000000002,,,,,,,,,,,,,,,,,,,,,,,,,,,,,,,,,,,,,,,,,,,,,,,,,,,,,,,,,,,,,,,,,
8031,1645650660.4699368,75.0,0.0,4314.871582,4587.692383,4206.153809,4280.512695,4303.077147999999,16208.0,3.0,59.0,,,,0.0,4.0,0.0,4.0,0.0,4.0,33.333332,,,,,,,,,,,,,,,,,,,,,,,,,,,,,,,,,,,,,,,,,,,,,,,,,,,,,,0.0,0.0,1.0,0.0,512.0,1.0,,,,,,,,,,,,,,,,,,,,,,,,,
8032,1645650660.477752,76.0,0.0,4333.333496,4645.128418,4204.615234000001,4280.512695,4304.615234000001,450.0,3.0,59.0,,,,0.0,4.0,0.0,4.0,0.0,4.0,33.333332,,,,,,,,38.0,0.0,0.33916999999999997,0.5664060000000001,0.144531,-0.737061,0.948257,-0.17383099999999999,-0.31543499999999997,-0.017,-0.049763,-0.028120999999999997,,,,,,,,,,,,,,,,,,,,,,,,,,,,,,,,,,,,,,,,,,,,,,,,,,,,,,,,,,,,,,,,,
8033,1645650660.485566,77.0,0.0,4345.128418,4657.436035,4213.333496,4278.461426,4297.94873,450.0,3.0,59.0,,,,0.0,4.0,0.0,4.0,0.0,4.0,33.333332,,,,,,,,,,,,,,,,,,,,,,,,,,,,,,,,,,,,,,,,,,,,,,,,,,,,,,,,,,,,,,,,,,,,,,,,,,,,,,,,,,,,
8034,1645650660.493381,78.0,0.0,4326.153809,4642.563965,4217.436035,4279.487305,4298.974121,450.0,3.0,59.0,,,,0.0,4.0,0.0,4.0,0.0,4.0,33.333332,,,,,,,,39.0,0.0,0.33863899999999997,0.5664060000000001,0.144531,-0.737305,0.9423969999999999,-0.165042,-0.31787600000000005,-0.016033000000000002,-0.049816,-0.030924,,,,,,,,,,,,,,,,,,,,,,,,,,,,,,,,,,,,,,,,,,,,,,,,,,,,,,,,,,,,,,,,,
8035,1645650660.5010948,79.0,0.0,4317.436035,4583.077147999999,4224.102539,4280.0,4303.077147999999,16208.0,3.0,59.0,,,,0.0,4.0,0.0,4.0,0.0,4.0,33.333332,,,,,,,,,,,,,,,,,,,,1.0,0.0,0.0,,,,,,,,,,,,,,,,,,,,,,,,,,,,,,,,0.0,0.0,1.0,0.0,512.0,1.0,3.042823,3.4868870000000003,0.9096549999999999,1.0715370000000002,0.874841,10.049769,26.171736,35.361694,52.939598,30.093542,3.805188,2.387052,0.845565,2.285475,1.753903,0.00591,0.004755,0.006519,0.004958,0.005779,2.360836,2.439941,1.419208,2.3336770000000002,1.2442870000000001
8036,1645650660.50891,80.0,0.0,4339.487305,4613.846191,4212.307617,4278.974121,4302.05127,450.0,3.0,59.0,,,,0.0,4.0,0.0,4.0,0.0,4.0,33.333332,,,,,,,,40.0,0.0,0.338516,0.5661619999999999,0.144531,-0.737549,0.9560690000000001,-0.15967,-0.325689,-0.016822,-0.049815,-0.027148000000000002,,,,,,,,,,,,,,,,,,,,,,,,,,,,,,,,,,,,,,,,,,,,,,,,,,,,,,,,,,,,,,,,,
8037,1645650660.516724,81.0,0.0,4338.974121,4724.102539,4192.307617,4278.461426,4295.897461,450.0,3.0,59.0,,,,0.0,4.0,0.0,4.0,0.0,4.0,33.333332,,,,,,,,,,,,,,,,,,,,,,,,,,,,,,,,,,,,,,,,,,,,,,,,,,,,,,,,,,,,,,,,,,,,,,,,,,,,,,,,,,,,
8038,1645650660.524538,82.0,0.0,4326.666504,4677.436035,4223.589844,4278.974121,4304.102539,450.0,3.0,59.0,,,,0.0,4.0,0.0,4.0,0.0,4.0,33.333332,,,,,,,,41.0,0.0,0.337983,0.5661619999999999,0.144531,-0.737793,0.9399559999999999,-0.156252,-0.321294,-0.017484,-0.049814,-0.030244,,,,,,,,,,,,,,,,,,,,,,,,,,,,,,,,,,,,,,,,,,,,,,,,,,,,,,,,,,,,,,,,,
8039,1645650660.532353,83.0,0.0,4329.230957,4542.563965,4235.384765999999,4280.0,4307.692383,16208.0,3.0,59.0,,,,0.0,4.0,0.0,4.0,0.0,4.0,33.333332,,,,,,,,,,,,,,,,,,,,,,,,,,,,,,,,,,,,,,,,,,,,,,,,,,,,,,0.0,0.0,1.0,0.0,512.0,1.0,,,,,,,,,,,,,,,,,,,,,,,,,
8040,1645650660.540167,84.0,0.0,4335.897461,4566.153809,4221.538574,4280.0,4307.179688,450.0,3.0,59.0,,,,0.0,4.0,0.0,4.0,0.0,4.0,33.333332,,,,,,,,42.0,0.0,0.33745,0.5661619999999999,0.144531,-0.7380369999999999,0.939467,-0.167971,-0.304204,-0.016468,-0.049911000000000004,-0.033030000000000004,,,,,,,,,,,,,,,,,,,,,,,,,,,,,,,,,,,,,,,,,,,,,,,,,,,,,,,,,,,,,,,,,
8041,1645650660.547982,85.0,0.0,4335.897461,4653.333496,4214.871582,4279.487305,4307.692383,450.0,3.0,59.0,,,,0.0,4.0,0.0,4.0,0.0,4.0,33.333332,,,,,,,,,,,,,,,,,,,,,,,,,,,,,,,,,,,,,,,,,,,,,,,,,,,,,,,,,,,,,,,,,,,,,,,,,,,,,,,,,,,,
8042,1645650660.5557961,86.0,0.0,4334.871582,4625.641113000001,4221.025879,4279.487305,4302.05127,450.0,3.0,59.0,,,,0.0,4.0,0.0,4.0,0.0,4.0,33.333332,,,,,,,,43.0,0.0,0.337859,0.565918,0.144531,-0.7380369999999999,0.9521629999999999,-0.156252,-0.327153,-0.017067,-0.049949,-0.03544,,,,,,,,,,,,,,,,,,,,,,,,,,,,,,,,,,,,,,,,,,,,,,,,,,,,,,,,,,,,,,,,,
8043,1645650660.56371,87.0,0.0,4335.384765999999,4565.128418,4212.307617,4280.0,4295.897461,16208.0,3.0,59.0,,,,0.0,4.0,0.0,4.0,0.0,4.0,33.333332,,,,,,,,,,,,,,,,,,,,,,,,,,,,,,,,,,,,,,,,,,,,,,,,,,,,,,0.0,0.0,1.0,0.0,512.0,1.0,,,,,,,,,,,,,,,,,,,,,,,,,
8044,1645650660.571525,88.0,0.0,4327.179688,4591.282227000001,4202.05127,4280.0,4304.102539,450.0,3.0,59.0,,,,0.0,4.0,0.0,4.0,0.0,4.0,33.333332,,,,,,,,44.0,0.0,0.337859,0.565918,0.144531,-0.7380369999999999,0.9423969999999999,-0.15674100000000002,-0.316899,-0.017802000000000002,-0.050033,-0.037609,,,,,,,,,,,,,,,,,,,,,,,,,,,,,,,,,,,,,,,,,,,,,,,,,,,,,,,,,,,,,,,,,
8045,1645650660.57934,89.0,0.0,4319.487305,4664.102539,4190.256348,4278.974121,4315.897461,450.0,3.0,59.0,,,,0.0,4.0,0.0,4.0,0.0,4.0,33.333332,,,,,,,,,,,,,,,,,,,,,,,,,,,,,,,,,,,,,,,,,,,,,,,,,,,,,,,,,,,,,,,,,,,,,,,,,,,,,,,,,,,,
8046,1645650660.587154,90.0,0.0,4328.717772999999,4682.563965,4205.641113000001,4278.974121,4304.615234000001,450.0,3.0,59.0,,,,0.0,4.0,0.0,4.0,0.0,4.0,33.333332,,,,,,,,45.0,0.0,0.337859,0.565918,0.144531,-0.7380369999999999,0.9511860000000001,-0.15820599999999999,-0.319341,-0.018512,-0.050059,-0.039561,,,,,,,,,,,,,,,,,,,,,,,,,,,,,,,,,,,,,,,,,,,,,,,,,,,,,,,,,,,,,,,,,
8047,1645650660.594969,91.0,0.0,4341.538574,4699.487305,4205.128418,4280.0,4300.512695,16208.0,3.0,59.0,,,,0.0,4.0,0.0,4.0,0.0,4.0,33.333332,,,,,,,,,,,,,,,,,,,,,,,,,,,,,,,,,,,,,,,,,,,,,,,,,,,,,,0.0,0.0,1.0,0.0,512.0,1.0,,,,,,,,,,,,,,,,,,,,,,,,,
8048,1645650660.602784,92.0,0.0,4334.871582,4721.025879,4197.436035,4279.487305,4307.692383,450.0,3.0,59.0,,,,0.0,4.0,0.0,4.0,0.0,4.0,33.333332,,,,,,,,46.0,0.0,0.33745,0.5661619999999999,0.144531,-0.7380369999999999,0.9546040000000001,-0.161135,-0.319341,-0.019053,-0.049985,-0.041367,,,,,,,,,,,,,,,,,,,,,,,,,,,,,,,,,,,,,,,,,,,,,,,,,,,,,,,,,,,,,,,,,
8049,1645650660.610598,93.0,0.0,4346.153809,4639.487305,4220.512695,4278.974121,4323.589844,450.0,3.0,59.0,,,,0.0,4.0,0.0,4.0,0.0,4.0,33.333332,,,,,,,,,,,,,,,,,,,,,,,,,,,,,,,,,,,,,,,,,,,,,,,,,,,,,,,,,,,,,,,,,,,,,,,,,,,,,,,,,,,,
8050,1645650660.618413,94.0,0.0,4353.333496,4568.717772999999,4234.358886999999,4280.0,4328.717772999999,450.0,3.0,59.0,,,,0.0,4.0,0.0,4.0,0.0,4.0,33.333332,,,,,,,,47.0,0.0,0.337554,0.5661619999999999,0.144287,-0.7380369999999999,0.952651,-0.17236600000000002,-0.315923,-0.019492,-0.050064,-0.036547,,,,,,,,,,,,,,,,,,,,,,,,,,,,,,,,,,,,,,,,,,,,,,,,,,,,,,,,,,,,,,,,,
8051,1645650660.6262279,95.0,0.0,4341.538574,4629.743652,4214.358886999999,4280.0,4317.94873,16208.0,3.0,59.0,,,,0.0,4.0,0.0,4.0,0.0,4.0,33.333332,0.972656,33.333332,4.0,0.0,4.0,0.0,4.0,,,,,,,,,,,,,1.0,0.0,0.0,,,,,,,,,,,,,,,,,,,,,,,,,,,,,,,,0.0,0.0,1.0,0.0,512.0,1.0,3.663506,3.03005,0.8876780000000001,1.014508,0.893893,9.959864999999999,21.639971,34.961704,52.234776000000004,29.665841999999998,4.264966,2.061155,0.912588,1.9992849999999998,1.633491,0.00487,0.004171,0.0048460000000000005,0.004703,0.00584,2.1038080000000003,2.421669,1.169062,2.289093,1.099191
8052,1645650660.634042,96.0,0.0,4322.05127,4648.205078,4194.358886999999,4278.461426,4290.769043,450.0,3.0,59.0,,,,0.0,4.0,0.0,4.0,0.0,4.0,33.333332,,,,,,,,48.0,0.0,0.33724899999999997,0.5664060000000001,0.144043,-0.7380369999999999,0.960952,-0.161135,-0.321782,-0.01974,-0.050087,-0.038556,,,,,,,,,,,,,,,,,,,,,,,,,,,,,,,,,,,,,,,,,,,,,,,,,,,,,,,,,,,,,,,,,
8053,1645650660.641957,97.0,0.0,4318.461426,4594.871582,4197.436035,4278.461426,4284.615234000001,450.0,3.0,59.0,,,,0.0,4.0,0.0,4.0,0.0,4.0,33.333332,,,,,,,,,,,,,,,,,,,,,,,,,,,,,,,,,,,,,,,,,,,,,,,,,,,,,,,,,,,,,,,,,,,,,,,,,,,,,,,,,,,,
8054,1645650660.6497722,98.0,0.0,4314.871582,4644.102539,4201.025879,4279.487305,4300.0,450.0,3.0,59.0,,,,0.0,4.0,0.0,4.0,0.0,4.0,33.333332,,,,,,,,49.0,0.0,0.337353,0.5664060000000001,0.143799,-0.7380369999999999,0.947768,-0.165042,-0.31543499999999997,-0.020158000000000002,-0.050157,-0.040316000000000005,,,,,,,,,,,,,,,,,,,,,,,,,,,,,,,,,,,,,,,,,,,,,,,,,,,,,,,,,,,,,,,,,
8055,1645650660.6575859,99.0,0.0,4314.358886999999,4677.436035,4224.102539,4279.487305,4310.256348,16208.0,3.0,59.0,,,,0.0,4.0,0.0,4.0,0.0,4.0,33.333332,,,,,,,,,,,,,,,,,,,,,,,,,,,,,,,,,,,,,,,,,,,,,,,,,,,,,,0.0,0.0,1.0,0.0,512.0,1.0,,,,,,,,,,,,,,,,,,,,,,,,,
8056,1645650660.665301,100.0,0.0,4321.538574,4609.230957,4226.153809,4280.0,4309.743652,450.0,3.0,59.0,,,,0.0,4.0,0.0,4.0,0.0,4.0,33.333332,,,,,,,,50.0,0.0,0.337457,0.5664060000000001,0.143555,-0.7380369999999999,0.9506979999999999,-0.157717,-0.320806,-0.018191,-0.050122,-0.0419,,,,,,,,,,,,,,,,,,,,,,,,,,,,,,,,,,,,,,,,,,,,,,,,,,,,,,,,,,,,,,,,,
8057,1645650660.673015,101.0,0.0,4333.333496,4630.769043,4213.333496,4280.0,4313.333496,450.0,3.0,59.0,,,,0.0,4.0,0.0,4.0,0.0,4.0,33.333332,,,,,,,,,,,,,,,,,,,,,,,,,,,,,,,,,,,,,,,,,,,,,,,,,,,,,,,,,,,,,,,,,,,,,,,,,,,,,,,,,,,,
8058,1645650660.68083,102.0,0.0,4329.743652,4723.589844,4198.461426,4280.0,4301.025879,450.0,3.0,59.0,,,,0.0,4.0,0.0,4.0,0.0,4.0,33.333332,,,,,,,,51.0,0.0,0.337685,0.56665,0.143311,-0.737793,0.948257,-0.15674100000000002,-0.322759,-0.017056,-0.050041,-0.043423,,,,,,,,,,,,,,,,,,,,,,,,,,,,,,,,,,,,,,,,,,,,,,,,,,,,,,,,,,,,,,,,,
8059,1645650660.688644,103.0,0.0,4321.025879,4717.436035,4211.282227000001,4278.974121,4289.743652,16208.0,3.0,59.0,,,,0.0,4.0,0.0,4.0,0.0,4.0,33.333332,,,,,,,,,,,,,,,,,,,,,,,,,,,,,,,,,,,,,,,,,,,,,,,,,,,,,,0.0,0.0,1.0,0.0,512.0,1.0,,,,,,,,,,,,,,,,,,,,,,,,,
8060,1645650660.696458,104.0,0.0,4337.94873,4637.94873,4228.717772999999,4278.461426,4310.256348,450.0,3.0,59.0,,,,0.0,4.0,0.0,4.0,0.0,4.0,33.333332,,,,,,,,52.0,0.0,0.337353,0.5664060000000001,0.143799,-0.7380369999999999,0.947768,-0.165042,-0.31543499999999997,-0.017694,-0.050066,-0.038446,,,,,,,,,,,,,,,,,,,,,,,,,,,,,,,,,,,,,,,,,,,,,,,,,,,,,,,,,,,,,,,,,
8061,1645650660.704273,105.0,0.0,4345.128418,4550.769043,4247.692383,4279.487305,4332.307617,450.0,3.0,59.0,,,,0.0,4.0,0.0,4.0,0.0,4.0,33.333332,,,,,,,,,,,,,,,,,,,,,,,,,,,,,,,,,,,,,,,,,,,,,,,,,,,,,,,,,,,,,,,,,,,,,,,,,,,,,,,,,,,,
8062,1645650660.712087,106.0,0.0,4328.717772999999,4546.666504,4238.461426,4280.0,4323.077147999999,450.0,3.0,59.0,,,,0.0,4.0,0.0,4.0,0.0,4.0,33.333332,,,,,,,,53.0,0.0,0.337685,0.56665,0.143311,-0.737793,0.948257,-0.15674100000000002,-0.322759,-0.016608,-0.049992,-0.040313999999999996,,,,,,,,,,,,,,,,,,,,,,,,,,,,,,,,,,,,,,,,,,,,,,,,,,,,,,,,,,,,,,,,,
8063,1645650660.719902,107.0,0.0,4326.153809,4690.769043,4212.307617,4278.974121,4296.922852000001,16208.0,3.0,59.0,,,,0.0,4.0,0.0,4.0,0.0,4.0,33.333332,,,,,,,,,,,,,,,,,,,,,,,,,,,,,,,,,,,,,,,,,,,,,,,,,,,,,,0.0,0.0,1.0,0.0,512.0,1.0,,,,,,,,,,,,,,,,,,,,,,,,,
8064,1645650660.727716,108.0,0.0,4331.794922,4738.974121,4202.563965,4278.461426,4295.384765999999,450.0,3.0,59.0,,,,0.0,4.0,0.0,4.0,0.0,4.0,33.333332,,,,,,,,54.0,0.0,0.337685,0.56665,0.143311,-0.737793,0.9555809999999999,-0.181643,-0.31787600000000005,-0.017194,-0.050071,-0.041849000000000004,,,,,,,,,,,,,,,,,,,,,,,,,,,,,,,,,,,,,,,,,,,,,,,,,,,,,,,,,,,,,,,,,
8065,1645650660.7355301,109.0,0.0,4323.077147999999,4605.128418,4224.615234000001,4278.974121,4304.102539,450.0,3.0,59.0,,,,0.0,4.0,0.0,4.0,0.0,4.0,33.333332,,,,,,,,,,,,,,,,,,,,,,,,,,,,,,,,,,,,,,,,,,,,,,,,,,,,,,,,,,,,,,,,,,,,,,,,,,,,,,,,,,,,
8066,1645650660.743245,110.0,0.0,4329.743652,4602.563965,4227.179688,4280.512695,4316.410156,450.0,3.0,59.0,,,,0.0,4.0,0.0,4.0,0.0,4.0,33.333332,,,,,,,,55.0,0.0,0.337275,0.5668949999999999,0.143311,-0.737793,0.9663229999999999,-0.157717,-0.304692,-0.015522999999999999,-0.050044,-0.04328,,,,,,,,,,,,,,,,,,,,,,,,,,,,,,,,,,,,,,,,,,,,,,,,,,,,,,,,,,,,,,,,,
8067,1645650660.751059,111.0,0.0,4324.615234000001,4733.333496,4197.94873,4280.512695,4308.205078,16208.0,3.0,59.0,,,,0.0,4.0,0.0,4.0,0.0,4.0,33.333332,,,,,,,,,,,,,,,,,,,,1.0,0.0,0.0,,,,,,,,,,,,,,,,,,,,,,,,,,,,,,,,0.0,0.0,1.0,0.0,512.0,1.0,4.239118,2.451564,1.063426,1.016224,0.974274,9.453197,18.482075,34.589897,49.52597,29.703011,4.389606,1.702519,0.9896590000000001,1.658956,1.559131,0.003993,0.003489,0.003998,0.0047020000000000005,0.006278,2.039911,2.323387,0.890682,2.125573,0.991266
8068,1645650660.758874,112.0,0.0,4324.102539,4718.461426,4200.512695,4278.461426,4297.94873,450.0,3.0,59.0,,,,0.0,4.0,0.0,4.0,0.0,4.0,33.333332,,,,,,,,56.0,0.0,0.337808,0.5668949999999999,0.143311,-0.737549,0.9550930000000001,-0.16846,-0.304204,-0.016412,-0.050118,-0.044567,,,,,,,,,,,,,,,,,,,,,,,,,,,,,,,,,,,,,,,,,,,,,,,,,,,,,,,,,,,,,,,,,
8069,1645650660.766688,113.0,0.0,4337.436035,4644.102539,4207.692383,4278.461426,4294.871582,450.0,3.0,59.0,,,,0.0,4.0,0.0,4.0,0.0,4.0,33.333332,,,,,,,,,,,,,,,,,,,,,,,,,,,,,,,,,,,,,,,,,,,,,,,,,,,,,,,,,,,,,,,,,,,,,,,,,,,,,,,,,,,,
8070,1645650660.774503,114.0,0.0,4342.05127,4689.743652,4210.256348,4280.0,4300.512695,450.0,3.0,59.0,,,,0.0,4.0,0.0,4.0,0.0,4.0,33.333332,,,,,,,,57.0,0.0,0.337398,0.5671390000000001,0.143311,-0.737549,0.932631,-0.169436,-0.315923,-0.017115000000000002,-0.050135,-0.039475,,,,,,,,,,,,,,,,,,,,,,,,,,,,,,,,,,,,,,,,,,,,,,,,,,,,,,,,,,,,,,,,,
8071,1645650660.782317,115.0,0.0,4335.897461,4698.461426,4228.205078,4280.0,4308.717772999999,16208.0,3.0,59.0,,,,0.0,4.0,0.0,4.0,0.0,4.0,33.333332,,,,,,,,,,,,,,,,,,,,,,,,,,,,,,,,,,,,,,,,,,,,,,,,,,,,,,0.0,0.0,1.0,0.0,512.0,1.0,,,,,,,,,,,,,,,,,,,,,,,,,
8072,1645650660.790131,116.0,0.0,4327.692383,4584.102539,4252.307617,4278.974121,4302.563965,450.0,3.0,59.0,,,,0.0,4.0,0.0,4.0,0.0,4.0,33.333332,,,,,,,,58.0,0.0,0.337808,0.5668949999999999,0.143311,-0.737549,0.934585,-0.159182,-0.320806,-0.017698,-0.050102,-0.041241,,,,,,,,,,,,,,,,,,,,,,,,,,,,,,,,,,,,,,,,,,,,,,,,,,,,,,,,,,,,,,,,,
8073,1645650660.797946,117.0,0.0,4305.128418,4544.615234000001,4227.179688,4278.461426,4280.512695,450.0,3.0,59.0,,,,0.0,4.0,0.0,4.0,0.0,4.0,33.333332,,,,,,,,,,,,,,,,,,,,,,,,,,,,,,,,,,,,,,,,,,,,,,,,,,,,,,,,,,,,,,,,,,,,,,,,,,,,,,,,,,,,
8074,1645650660.80576,118.0,0.0,4305.128418,4658.974121,4210.256348,4280.0,4280.512695,450.0,3.0,59.0,,,,0.0,4.0,0.0,4.0,0.0,4.0,33.333332,,,,,,,,59.0,0.0,0.337808,0.5668949999999999,0.143311,-0.737549,0.946792,-0.171878,-0.306157,-0.018223,-0.050024,-0.036531,,,,,,,,,,,,,,,,,,,,,,,,,,,,,,,,,,,,,,,,,,,,,,,,,,,,,,,,,,,,,,,,,
8075,1645650660.813475,119.0,0.0,4330.256348,4745.128418,4215.384765999999,4280.0,4288.205078,16208.0,3.0,59.0,,,,0.0,4.0,0.0,4.0,0.0,4.0,33.333332,,,,,,,,,,,,,,,,,,,,,,,,,,,,,,,,,,,,,,,,,,,,,,,,,,,,,,0.0,0.0,1.0,0.0,512.0,1.0,,,,,,,,,,,,,,,,,,,,,,,,,
8076,1645650660.821289,120.0,0.0,4322.563965,4703.589844,4224.615234000001,4278.461426,4287.692383,450.0,3.0,59.0,,,,0.0,4.0,0.0,4.0,0.0,4.0,33.333332,,,,,,,,60.0,0.0,0.337808,0.5668949999999999,0.143311,-0.737549,0.9399559999999999,-0.169436,-0.31104,-0.017182,-0.049953,-0.038591,,,,,,,,,,,,,,,,,,,,,,,,,,,,,,,,,,,,,,,,,,,,,,,,,,,,,,,,,,,,,,,,,
8077,1645650660.829104,121.0,0.0,4306.153809,4633.846191,4221.538574,4276.922852000001,4298.461426,450.0,3.0,59.0,,,,0.0,4.0,0.0,4.0,0.0,4.0,33.333332,,,,,,,,,,,,,,,,,,,,,,,,,,,,,,,,,,,,,,,,,,,,,,,,,,,,,,,,,,,,,,,,,,,,,,,,,,,,,,,,,,,,
8078,1645650660.8369179,122.0,0.0,4316.922852000001,4614.871582,4231.794922,4277.94873,4315.897461,450.0,3.0,59.0,,,,0.0,4.0,0.0,4.0,0.0,4.0,33.333332,,,,,,,,61.0,0.0,0.337808,0.5668949999999999,0.143311,-0.737549,0.9428850000000001,-0.16211199999999998,-0.311528,-0.017808,-0.049987000000000004,-0.034145999999999996,,,,,,,,,,,,,,,,,,,,,,,,,,,,,,,,,,,,,,,,,,,,,,,,,,,,,,,,,,,,,,,,,
8079,1645650660.844732,123.0,0.0,4330.256348,4651.794922,4228.205078,4280.512695,4323.589844,16208.0,3.0,59.0,,,,0.0,4.0,0.0,4.0,0.0,4.0,33.333332,,,,,,,,,,,,,,,,,,,,,,,,,,,,,,,,,,,,,,,,,,,,,,,,,,,,,,0.0,0.0,1.0,0.0,512.0,1.0,,,,,,,,,,,,,,,,,,,,,,,,,
8080,1645650660.8525472,124.0,0.0,4325.641113000001,4667.179688,4216.922852000001,4281.025879,4314.871582,450.0,3.0,59.0,,,,0.0,4.0,0.0,4.0,0.0,4.0,33.333332,,,,,,,,62.0,0.0,0.337808,0.5668949999999999,0.143311,-0.737549,0.94435,-0.160159,-0.32227100000000003,-0.018322,-0.049871,-0.030144999999999998,,,,,,,,,,,,,,,,,,,,,,,,,,,,,,,,,,,,,,,,,,,,,,,,,,,,,,,,,,,,,,,,,
8081,1645650660.8603609,125.0,0.0,4334.358886999999,4635.384765999999,4223.077147999999,4279.487305,4323.077147999999,450.0,3.0,59.0,,,,0.0,4.0,0.0,4.0,0.0,4.0,33.333332,,,,,,,,,,,,,,,,,,,,,,,,,,,,,,,,,,,,,,,,,,,,,,,,,,,,,,,,,,,,,,,,,,,,,,,,,,,,,,,,,,,,
8082,1645650660.868176,126.0,0.0,4344.102539,4670.769043,4237.436035,4278.974121,4333.333496,450.0,3.0,59.0,,,,0.0,4.0,0.0,4.0,0.0,4.0,33.333332,,,,,,,,63.0,0.0,0.337808,0.5668949999999999,0.143311,-0.737549,0.9433739999999999,-0.157717,-0.316411,-0.018834,-0.049963,-0.032746,,,,,,,,,,,,,,,,,,,,,,,,,,,,,,,,,,,,,,,,,,,,,,,,,,,,,,,,,,,,,,,,,
8083,1645650660.8759902,127.0,0.0,4344.102539,4734.871582,4217.436035,4280.0,4322.563965,235.0,3.0,59.0,,,,0.0,4.0,0.0,4.0,0.0,4.0,33.333332,,,,,,,,,,,,,,,,,,,,1.0,0.0,0.0,,,,,,,,,,,,,,,,,,,,,,,,,,,,,,,,0.0,0.0,1.0,0.0,512.0,1.0,4.57768,1.9786540000000001,1.3721370000000002,1.071521,1.091827,8.357853,17.842623,33.57074,46.155986999999996,29.923569,4.077445,1.379723,1.078802,1.3620809999999999,1.556241,0.003396,0.002794,0.004045,0.004835,0.007167,2.118826,2.164979,0.664412,1.877264,0.9443799999999999
8084,1645650660.8839052,0.0,0.0,4337.436035,4678.974121,4198.974121,4278.974121,4296.922852000001,450.0,3.0,59.0,,,,0.0,4.0,0.0,4.0,0.0,4.0,33.333332,,,,,,,,0.0,0.0,0.337912,0.5668949999999999,0.143066,-0.737549,0.948257,-0.166018,-0.319341,-0.019294,-0.049996,-0.028885,,,,,,,,,,,,,,,,,,,,,,,,,,,,,,,,,,,,,,,,,,,,,,,,,,,,,,,,,,,,,,,,,
8085,1645650660.8917189,1.0,0.0,4345.641113000001,4575.384765999999,4242.05127,4277.94873,4313.333496,450.0,3.0,59.0,,,,0.0,4.0,0.0,4.0,0.0,4.0,33.333332,,,,,,,,,,,,,,,,,,,,,,,,,,,,,,,,,,,,,,,,,,,,,,,,,,,,,,,,,,,,,,,,,,,,,,,,,,,,,,,,,,,,
8086,1645650660.899534,2.0,0.0,4337.94873,4570.769043,4260.0,4280.0,4333.333496,16206.0,3.0,59.0,,,,0.0,4.0,0.0,4.0,0.0,4.0,33.333332,,,,,,,,1.0,0.0,0.338444,0.5668949999999999,0.143066,-0.737305,0.952651,-0.169924,-0.320806,-0.017999,-0.050025,-0.031563,,,,,,,,,,,,,,,,,,,,,,,,,,,,,,,,,,,,,,,,,,,,,,,,,,,,,,,,,,,,,,,,,
8087,1645650660.9073482,3.0,0.0,4329.743652,4663.077147999999,4224.615234000001,4280.512695,4314.871582,450.0,3.0,59.0,,,,0.0,4.0,0.0,4.0,0.0,4.0,33.333332,,,,,,,,,,,,,,,,,,,,,,,,,,,,,,,,,,,,,,,,,,,,,,,,,,,,,,0.0,0.0,1.0,0.0,512.0,1.0,,,,,,,,,,,,,,,,,,,,,,,,,
8088,1645650660.915163,4.0,0.0,4342.563965,4714.871582,4201.025879,4278.461426,4302.05127,0.0,3.0,59.0,,,,0.0,4.0,0.0,4.0,0.0,4.0,33.333332,,,,,,,,2.0,0.0,0.338444,0.5668949999999999,0.143066,-0.737305,0.9463030000000001,-0.15820599999999999,-0.32959499999999997,-0.016981,-0.050052,-0.034022000000000004,,,,,,,,,,,,,,,,,,,,,,,,,,,,,,,,,,,,,,,,,,,,,,,,,,,,,,,,,,,,,,,,,
8089,1645650660.922978,5.0,0.0,4338.974121,4639.487305,4229.230957,4278.974121,4323.077147999999,450.0,3.0,59.0,,,,0.0,4.0,0.0,4.0,0.0,4.0,33.333332,,,,,,,,,,,,,,,,,,,,,,,,,,,,,,,,,,,,,,,,,,,,,,,,,,,,,,,,,,,,,,,,,,,,,,,,,,,,,,,,,,,,
8090,1645650660.930792,6.0,0.0,4310.256348,4571.282227000001,4222.05127,4278.974121,4315.897461,16168.0,3.0,59.0,,,,0.0,4.0,0.0,4.0,0.0,4.0,33.333332,,,,,,,,3.0,0.0,0.338444,0.5668949999999999,0.143066,-0.737305,0.9389790000000001,-0.184085,-0.316899,-0.015380000000000001,-0.050076,-0.036284,,,,,,,,,,,,,,,,,,,,,,,,,,,,,,,,,,,,,,,,,,,,,,,,,,,,,,,,,,,,,,,,,
8091,1645650660.938607,7.0,0.0,4307.692383,4595.384765999999,4208.717772999999,4276.922852000001,4294.358886999999,450.0,3.0,59.0,,,,0.0,4.0,0.0,4.0,0.0,4.0,33.333332,,,,,,,,,,,,,,,,,,,,,,,,,,,,,,,,,,,,,,,,,,,,,,,,,,,,,,0.0,0.0,1.0,0.0,512.0,1.0,,,,,,,,,,,,,,,,,,,,,,,,,
8092,1645650660.946422,8.0,0.0,4320.0,4649.743652,4209.230957,4278.461426,4305.128418,450.0,3.0,59.0,,,,0.0,4.0,0.0,4.0,0.0,4.0,33.333332,,,,,,,,4.0,0.0,0.338444,0.5668949999999999,0.143066,-0.737305,0.9404440000000001,-0.157717,-0.321294,-0.016087999999999998,-0.049902999999999996,-0.031972,,,,,,,,,,,,,,,,,,,,,,,,,,,,,,,,,,,,,,,,,,,,,,,,,,,,,,,,,,,,,,,,,
8093,1645650660.954236,9.0,0.0,4314.358886999999,4707.692383,4224.615234000001,4280.0,4306.153809,0.0,3.0,59.0,,,,0.0,4.0,0.0,4.0,0.0,4.0,33.333332,,,,,,,,,,,,,,,,,,,,,,,,,,,,,,,,,,,,,,,,,,,,,,,,,,,,,,,,,,,,,,,,,,,,,,,,,,,,,,,,,,,,
8094,1645650660.961951,10.0,0.0,4324.615234000001,4670.256348,4235.384765999999,4278.461426,4289.230957,450.0,3.0,59.0,,,,0.0,4.0,0.0,4.0,0.0,4.0,33.333332,,,,,,,,5.0,0.0,0.338341,0.5668949999999999,0.143311,-0.737305,0.957534,-0.16552999999999998,-0.31104,-0.016822999999999998,-0.049991,-0.034537,,,,,,,,,,,,,,,,,,,,,,,,,,,,,,,,,,,,,,,,,,,,,,,,,,,,,,,,,,,,,,,,,
8095,1645650660.969765,11.0,0.0,4335.384765999999,4581.538574,4225.128418,4277.94873,4300.0,16191.0,3.0,59.0,,,,0.0,4.0,0.0,4.0,0.0,4.0,33.333332,,,,,,,,,,,,,,,,,,,,,,,,,,,,,,,,,,,,,,,,,,,,,,,,,,,,,,0.0,0.0,1.0,0.0,512.0,1.0,,,,,,,,,,,,,,,,,,,,,,,,,
8096,1645650660.97758,12.0,0.0,4320.512695,4626.153809,4200.512695,4279.487305,4318.461426,450.0,3.0,59.0,,,,0.0,4.0,0.0,4.0,0.0,4.0,33.333332,,,,,,,,6.0,0.0,0.338341,0.5668949999999999,0.143311,-0.737305,0.962417,-0.171878,-0.313481,-0.015238999999999999,-0.050020999999999996,-0.036747,,,,,,,,,,,,,,,,,,,,,,,,,,,,,,,,,,,,,,,,,,,,,,,,,,,,,,,,,,,,,,,,,
8097,1645650660.985394,13.0,0.0,4305.641113000001,4663.077147999999,4211.794922,4278.974121,4302.05127,450.0,3.0,59.0,,,,0.0,4.0,0.0,4.0,0.0,4.0,33.333332,,,,,,,,,,,,,,,,,,,,,,,,,,,,,,,,,,,,,,,,,,,,,,,,,,,,,,,,,,,,,,,,,,,,,,,,,,,,,,,,,,,,
8098,1645650660.993208,14.0,0.0,4321.538574,4581.538574,4230.769043,4278.974121,4303.589844,450.0,3.0,59.0,,,,0.0,4.0,0.0,4.0,0.0,4.0,33.333332,,,,,,,,7.0,0.0,0.338341,0.5668949999999999,0.143311,-0.737305,0.9550930000000001,-0.165042,-0.317388,-0.016107,-0.049951,-0.038737,,,,,,,,,,,,,,,,,,,,,,,,,,,,,,,,,,,,,,,,,,,,,,,,,,,,,,,,,,,,,,,,,
8099,1645650661.001023,15.0,0.0,4331.282227000001,4601.025879,4205.641113000001,4278.974121,4305.128418,16191.0,3.0,59.0,,,,0.0,4.0,0.0,4.0,0.0,4.0,33.333332,,,,,,,,,,,,,,,,,,,,1.0,0.0,0.0,,,,,,,,,,,,,,,,,,,,,,,,,,,,,,,,0.0,0.0,1.0,0.0,512.0,1.0,4.558895,1.7418790000000002,1.712287,1.142735,1.199237,6.924592,20.09791,31.516129,43.133972,30.155283,3.397618,1.14073,1.1742350000000001,1.1851690000000001,1.623372,0.0030489999999999996,0.002216,0.0046890000000000005,0.004941,0.008418,2.237275,1.970716,0.539383,1.605864,0.9578530000000001
8100,1645650661.008837,16.0,0.0,4337.436035,4676.410156,4198.974121,4278.974121,4300.0,0.0,3.0,59.0,,,,0.0,4.0,0.0,4.0,0.0,4.0,33.333332,,,,,,,,8.0,0.0,0.338341,0.5668949999999999,0.143311,-0.737305,0.9438620000000001,-0.163088,-0.318364,-0.01684,-0.049887,-0.034179,,,,,,,,,,,,,,,,,,,,,,,,,,,,,,,,,,,,,,,,,,,,,,,,,,,,,,,,,,,,,,,,,
8101,1645650661.0166519,17.0,0.0,4327.692383,4604.102539,4216.922852000001,4278.974121,4297.94873,0.0,3.0,59.0,,,,0.0,4.0,0.0,4.0,0.0,4.0,33.333332,,,,,,,,,,,,,,,,,,,,,,,,,,,,,,,,,,,,,,,,,,,,,,,,,,,,,,,,,,,,,,,,,,,,,,,,,,,,,,,,,,,,
8102,1645650661.024466,18.0,0.0,4317.436035,4554.358886999999,4217.94873,4279.487305,4292.307617,0.0,3.0,59.0,,,,0.0,4.0,0.0,4.0,0.0,4.0,33.333332,,,,,,,,9.0,0.0,0.33811399999999997,0.56665,0.143555,-0.737549,0.9463030000000001,-0.163577,-0.315923,-0.015938,-0.049879,-0.036279,,,,,,,,,,,,,,,,,,,,,,,,,,,,,,,,,,,,,,,,,,,,,,,,,,,,,,,,,,,,,,,,,
8103,1645650661.032181,19.0,0.0,4334.871582,4672.820313,4210.769043,4280.0,4296.410156,0.0,3.0,59.0,,,,0.0,4.0,0.0,4.0,0.0,4.0,33.333332,,,,,,,,,,,,,,,,,,,,,,,,,,,,,,,,,,,,,,,,,,,,,,,,,,,,,,0.0,0.0,1.0,0.0,512.0,1.0,,,,,,,,,,,,,,,,,,,,,,,,,
8104,1645650661.039995,20.0,0.0,4352.820313,4722.563965,4241.538574,4278.974121,4325.641113000001,0.0,3.0,59.0,,,,0.0,4.0,0.0,4.0,0.0,4.0,33.333332,,,,,,,,10.0,0.0,0.33801,0.56665,0.143799,-0.737549,0.9511860000000001,-0.145998,-0.317388,-0.016737000000000002,-0.049823,-0.038314999999999995,,,,,,,,,,,,,,,,,,,,,,,,,,,,,,,,,,,,,,,,,,,,,,,,,,,,,,,,,,,,,,,,,
8105,1645650661.047809,21.0,0.0,4315.897461,4594.358886999999,4249.230957,4276.922852000001,4330.256348,0.0,3.0,59.0,,,,0.0,4.0,0.0,4.0,0.0,4.0,33.333332,,,,,,,,,,,,,,,,,,,,,,,,,,,,,,,,,,,,,,,,,,,,,,,,,,,,,,,,,,,,,,,,,,,,,,,,,,,,,,,,,,,,
8106,1645650661.055624,22.0,0.0,4300.0,4564.615234000001,4240.0,4277.436035,4303.077147999999,0.0,3.0,59.0,,,,0.0,4.0,0.0,4.0,0.0,4.0,33.333332,,,,,,,,11.0,0.0,0.33801,0.56665,0.143799,-0.737549,0.96144,-0.15967,-0.314946,-0.017407,-0.04987,-0.040148,,,,,,,,,,,,,,,,,,,,,,,,,,,,,,,,,,,,,,,,,,,,,,,,,,,,,,,,,,,,,,,,,
8107,1645650661.0634382,23.0,0.0,4348.717772999999,4664.615234000001,4231.282227000001,4280.0,4298.461426,0.0,3.0,59.0,,,,0.0,4.0,0.0,4.0,0.0,4.0,33.333332,,,,,,,,,,,,,,,,,,,,,,,,,,,,,,,,,,,,,,,,,,,,,,,,,,,,,,0.0,0.0,1.0,0.0,512.0,1.0,,,,,,,,,,,,,,,,,,,,,,,,,
8108,1645650661.0712528,24.0,0.0,4345.128418,4643.077147999999,4224.615234000001,4279.487305,4312.307617,0.0,3.0,59.0,,,,0.0,4.0,0.0,4.0,0.0,4.0,33.333332,,,,,,,,12.0,0.0,0.33801,0.56665,0.143799,-0.737549,0.949722,-0.153811,-0.311528,-0.018009999999999998,-0.049717000000000004,-0.035547,,,,,,,,,,,,,,,,,,,,,,,,,,,,,,,,,,,,,,,,,,,,,,,,,,,,,,,,,,,,,,,,,
8109,1645650661.079067,25.0,0.0,4303.589844,4622.05127,4205.128418,4278.974121,4314.871582,0.0,3.0,59.0,,,,0.0,4.0,0.0,4.0,0.0,4.0,33.333332,,,,,,,,,,,,,,,,,,,,,,,,,,,,,,,,,,,,,,,,,,,,,,,,,,,,,,,,,,,,,,,,,,,,,,,,,,,,,,,,,,,,
8110,1645650661.0868812,26.0,0.0,4320.512695,4639.487305,4228.717772999999,4280.512695,4321.538574,0.0,3.0,59.0,,,,0.0,4.0,0.0,4.0,0.0,4.0,33.333332,,,,,,,,13.0,0.0,0.338646,0.56665,0.143555,-0.737305,0.9643700000000001,-0.1626,-0.314458,-0.016941,-0.049677,-0.037706,,,,,,,,,,,,,,,,,,,,,,,,,,,,,,,,,,,,,,,,,,,,,,,,,,,,,,,,,,,,,,,,,
8111,1645650661.094696,27.0,0.0,4349.743652,4537.94873,4256.410156,4280.0,4329.230957,0.0,3.0,59.0,,,,0.0,4.0,0.0,4.0,0.0,4.0,33.333332,,,,,,,,,,,,,,,,,,,,,,,,,,,,,,,,,,,,,,,,,,,,,,,,,,,,,,0.0,0.0,1.0,0.0,512.0,1.0,,,,,,,,,,,,,,,,,,,,,,,,,
8112,1645650661.10251,28.0,0.0,4325.641113000001,4545.641113000001,4229.230957,4277.94873,4304.102539,0.0,3.0,59.0,,,,0.0,4.0,0.0,4.0,0.0,4.0,33.333332,,,,,,,,14.0,0.0,0.33874899999999997,0.56665,0.143311,-0.737305,0.9487450000000001,-0.16211199999999998,-0.319341,-0.015296,-0.049836,-0.039501,,,,,,,,,,,,,,,,,,,,,,,,,,,,,,,,,,,,,,,,,,,,,,,,,,,,,,,,,,,,,,,,,
8113,1645650661.110225,29.0,0.0,4310.769043,4697.436035,4203.589844,4278.974121,4285.641113000001,0.0,3.0,59.0,,,,0.0,4.0,0.0,4.0,0.0,4.0,33.333332,,,,,,,,,,,,,,,,,,,,,,,,,,,,,,,,,,,,,,,,,,,,,,,,,,,,,,,,,,,,,,,,,,,,,,,,,,,,,,,,,,,,
8114,1645650661.1180391,30.0,0.0,4327.692383,4671.282227000001,4237.94873,4280.0,4306.666504,0.0,3.0,59.0,,,,0.0,4.0,0.0,4.0,0.0,4.0,33.333332,,,,,,,,15.0,0.0,0.33874899999999997,0.56665,0.143311,-0.737305,0.946792,-0.174807,-0.306157,-0.016208,-0.049931,-0.041214999999999995,,,,,,,,,,,,,,,,,,,,,,,,,,,,,,,,,,,,,,,,,,,,,,,,,,,,,,,,,,,,,,,,,
8115,1645650661.125854,31.0,0.0,4342.05127,4574.358886999999,4257.94873,4278.974121,4338.461426,0.0,3.0,59.0,,,,0.0,4.0,0.0,4.0,0.0,4.0,33.333332,0.972656,33.333332,4.0,0.0,4.0,0.0,4.0,,,,,,,,,,,,,1.0,0.0,0.0,,,,,,,,,,,,,,,,,,,,,,,,,,,,,,,,0.0,0.0,1.0,0.0,512.0,1.0,4.137232,1.7382009999999999,1.985457,1.18345,1.252294,5.426278,24.358959,28.654057,40.744698,30.426235,2.559577,1.024783,1.2574299999999998,1.163691,1.734217,0.0028510000000000002,0.001873,0.005427,0.004941,0.009785,2.2954689999999998,1.75397,0.518688,1.375567,1.008756
8116,1645650661.133668,32.0,0.0,4326.666504,4658.974121,4222.563965,4278.461426,4316.922852000001,0.0,3.0,59.0,,,,0.0,4.0,0.0,4.0,0.0,4.0,33.333332,,,,,,,,16.0,0.0,0.338646,0.56665,0.143555,-0.737305,0.9643700000000001,-0.1626,-0.314458,-0.017028,-0.049967000000000004,-0.036557,,,,,,,,,,,,,,,,,,,,,,,,,,,,,,,,,,,,,,,,,,,,,,,,,,,,,,,,,,,,,,,,,
8117,1645650661.141482,33.0,0.0,4325.128418,4710.769043,4220.0,4279.487305,4296.410156,0.0,3.0,59.0,,,,0.0,4.0,0.0,4.0,0.0,4.0,33.333332,,,,,,,,,,,,,,,,,,,,,,,,,,,,,,,,,,,,,,,,,,,,,,,,,,,,,,,,,,,,,,,,,,,,,,,,,,,,,,,,,,,,
8118,1645650661.149297,34.0,0.0,4335.384765999999,4597.94873,4248.717772999999,4278.974121,4310.256348,0.0,3.0,59.0,,,,0.0,4.0,0.0,4.0,0.0,4.0,33.333332,,,,,,,,17.0,0.0,0.33874899999999997,0.56665,0.143311,-0.737305,0.946792,-0.174807,-0.306157,-0.017766999999999998,-0.050049,-0.038564999999999995,,,,,,,,,,,,,,,,,,,,,,,,,,,,,,,,,,,,,,,,,,,,,,,,,,,,,,,,,,,,,,,,,
8119,1645650661.157111,35.0,0.0,4343.589844,4526.666504,4258.974121,4277.436035,4323.077147999999,0.0,3.0,59.0,,,,0.0,4.0,0.0,4.0,0.0,4.0,33.333332,,,,,,,,,,,,,,,,,,,,,,,,,,,,,,,,,,,,,,,,,,,,,,,,,,,,,,0.0,0.0,1.0,0.0,512.0,1.0,,,,,,,,,,,,,,,,,,,,,,,,,
8120,1645650661.164926,36.0,0.0,4335.384765999999,4620.0,4232.820313,4278.974121,4309.230957,0.0,3.0,59.0,,,,0.0,4.0,0.0,4.0,0.0,4.0,33.333332,,,,,,,,18.0,0.0,0.338341,0.5668949999999999,0.143311,-0.737305,0.937026,-0.166018,-0.323247,-0.018432,-0.050073,-0.034172,,,,,,,,,,,,,,,,,,,,,,,,,,,,,,,,,,,,,,,,,,,,,,,,,,,,,,,,,,,,,,,,,
8121,1645650661.17274,37.0,0.0,4320.0,4688.717772999999,4230.769043,4281.538574,4309.743652,0.0,3.0,59.0,,,,0.0,4.0,0.0,4.0,0.0,4.0,33.333332,,,,,,,,,,,,,,,,,,,,,,,,,,,,,,,,,,,,,,,,,,,,,,,,,,,,,,,,,,,,,,,,,,,,,,,,,,,,,,,,,,,,
8122,1645650661.180455,38.0,0.0,4308.205078,4581.025879,4236.922852000001,4278.974121,4322.563965,0.0,3.0,59.0,,,,0.0,4.0,0.0,4.0,0.0,4.0,33.333332,,,,,,,,19.0,0.0,0.338853,0.56665,0.143066,-0.737305,0.936049,-0.172854,-0.309575,-0.018786,-0.050046,-0.030217,,,,,,,,,,,,,,,,,,,,,,,,,,,,,,,,,,,,,,,,,,,,,,,,,,,,,,,,,,,,,,,,,
8123,1645650661.188269,39.0,0.0,4327.692383,4535.897461,4248.717772999999,4277.436035,4325.128418,0.0,3.0,59.0,,,,0.0,4.0,0.0,4.0,0.0,4.0,33.333332,,,,,,,,,,,,,,,,,,,,,,,,,,,,,,,,,,,,,,,,,,,,,,,,,,,,,,0.0,0.0,1.0,0.0,512.0,1.0,,,,,,,,,,,,,,,,,,,,,,,,,
8124,1645650661.196083,40.0,0.0,4371.794922,4688.205078,4246.153809,4281.025879,4330.256348,0.0,3.0,59.0,,,,0.0,4.0,0.0,4.0,0.0,4.0,33.333332,,,,,,,,20.0,0.0,0.338975,0.5668949999999999,0.143066,-0.737061,0.9350729999999999,-0.176272,-0.32227100000000003,-0.019153,-0.049974,-0.032909,,,,,,,,,,,,,,,,,,,,,,,,,,,,,,,,,,,,,,,,,,,,,,,,,,,,,,,,,,,,,,,,,
8125,1645650661.203898,41.0,0.0,4362.563965,4744.102539,4250.256348,4281.025879,4334.358886999999,0.0,3.0,59.0,,,,0.0,4.0,0.0,4.0,0.0,4.0,33.333332,,,,,,,,,,,,,,,,,,,,,,,,,,,,,,,,,,,,,,,,,,,,,,,,,,,,,,,,,,,,,,,,,,,,,,,,,,,,,,,,,,,,
8126,1645650661.211712,42.0,0.0,4325.128418,4575.897461,4244.615234000001,4278.461426,4325.128418,0.0,3.0,59.0,,,,0.0,4.0,0.0,4.0,0.0,4.0,33.333332,,,,,,,,21.0,0.0,0.33907800000000005,0.5668949999999999,0.142822,-0.737061,0.9463030000000001,-0.155276,-0.319341,-0.019631,-0.049957,-0.03538,,,,,,,,,,,,,,,,,,,,,,,,,,,,,,,,,,,,,,,,,,,,,,,,,,,,,,,,,,,,,,,,,
8127,1645650661.219527,43.0,0.0,4326.153809,4508.205078,4224.102539,4279.487305,4310.256348,0.0,3.0,59.0,,,,0.0,4.0,0.0,4.0,0.0,4.0,33.333332,,,,,,,,,,,,,,,,,,,,,,,,,,,,,,,,,,,,,,,,,,,,,,,,,,,,,,0.0,0.0,1.0,0.0,512.0,1.0,,,,,,,,,,,,,,,,,,,,,,,,,
8128,1645650661.227341,44.0,0.0,4337.436035,4630.256348,4195.897461,4280.0,4303.589844,0.0,3.0,59.0,,,,0.0,4.0,0.0,4.0,0.0,4.0,33.333332,,,,,,,,22.0,0.0,0.33907800000000005,0.5668949999999999,0.142822,-0.737061,0.9472799999999999,-0.166506,-0.319341,-0.020158000000000002,-0.049844,-0.031304000000000005,,,,,,,,,,,,,,,,,,,,,,,,,,,,,,,,,,,,,,,,,,,,,,,,,,,,,,,,,,,,,,,,,
8129,1645650661.235155,45.0,0.0,4310.769043,4673.846191,4187.179688,4278.461426,4302.563965,0.0,3.0,59.0,,,,0.0,4.0,0.0,4.0,0.0,4.0,33.333332,,,,,,,,,,,,,,,,,,,,,,,,,,,,,,,,,,,,,,,,,,,,,,,,,,,,,,,,,,,,,,,,,,,,,,,,,,,,,,,,,,,,
8130,1645650661.24297,46.0,0.0,4308.205078,4596.410156,4195.384765999999,4278.461426,4310.256348,0.0,3.0,59.0,,,,0.0,4.0,0.0,4.0,0.0,4.0,33.333332,,,,,,,,23.0,0.0,0.33907800000000005,0.5668949999999999,0.142822,-0.737061,0.948257,-0.174319,-0.323735,-0.018826,-0.049937999999999996,-0.033985,,,,,,,,,,,,,,,,,,,,,,,,,,,,,,,,,,,,,,,,,,,,,,,,,,,,,,,,,,,,,,,,,
8131,1645650661.250684,47.0,0.0,4336.410156,4576.922852000001,4206.666504,4278.974121,4298.974121,0.0,3.0,59.0,,,,0.0,4.0,0.0,4.0,0.0,4.0,33.333332,,,,,,,,,,,,,,,,,,,,1.0,0.0,0.0,,,,,,,,,,,,,,,,,,,,,,,,,,,,,,,,0.0,0.0,1.0,0.0,512.0,1.0,3.4982879999999996,1.863389,2.120779,1.164233,1.238258,4.033825,28.746651,25.570978,38.668556,30.898464,1.807579,1.052308,1.313257,1.280992,1.8515110000000001,0.002693,0.001837,0.0058579999999999995,0.004905,0.010935,2.3013790000000003,1.539971,0.582427,1.22691,1.0654190000000001
8132,1645650661.258499,48.0,0.0,4332.307617,4609.230957,4225.641113000001,4278.461426,4300.512695,0.0,3.0,59.0,,,,0.0,4.0,0.0,4.0,0.0,4.0,33.333332,,,,,,,,24.0,0.0,0.339181,0.5668949999999999,0.142578,-0.737061,0.929702,-0.16846,-0.315923,-0.019287000000000002,-0.049826999999999996,-0.03625,,,,,,,,,,,,,,,,,,,,,,,,,,,,,,,,,,,,,,,,,,,,,,,,,,,,,,,,,,,,,,,,,
8133,1645650661.2662132,49.0,0.0,4297.94873,4614.358886999999,4223.589844,4279.487305,4306.666504,0.0,3.0,59.0,,,,0.0,4.0,0.0,4.0,0.0,4.0,33.333332,,,,,,,,,,,,,,,,,,,,,,,,,,,,,,,,,,,,,,,,,,,,,,,,,,,,,,,,,,,,,,,,,,,,,,,,,,,,,,,,,,,,
8134,1645650661.2740278,50.0,0.0,4300.512695,4663.077147999999,4198.461426,4280.0,4295.897461,0.0,3.0,59.0,,,,0.0,4.0,0.0,4.0,0.0,4.0,33.333332,,,,,,,,25.0,0.0,0.33865,0.5668949999999999,0.142578,-0.737305,0.947768,-0.175784,-0.315923,-0.019653,-0.049776,-0.032039,,,,,,,,,,,,,,,,,,,,,,,,,,,,,,,,,,,,,,,,,,,,,,,,,,,,,,,,,,,,,,,,,
8135,1645650661.281842,51.0,0.0,4323.589844,4676.922852000001,4186.666504,4277.94873,4288.205078,0.0,3.0,59.0,,,,0.0,4.0,0.0,4.0,0.0,4.0,33.333332,,,,,,,,,,,,,,,,,,,,,,,,,,,,,,,,,,,,,,,,,,,,,,,,,,,,,,0.0,0.0,1.0,0.0,512.0,1.0,,,,,,,,,,,,,,,,,,,,,,,,,
8136,1645650661.2896562,52.0,0.0,4340.0,4613.846191,4223.589844,4276.922852000001,4315.384765999999,0.0,3.0,59.0,,,,0.0,4.0,0.0,4.0,0.0,4.0,33.333332,,,,,,,,26.0,0.0,0.33865,0.5668949999999999,0.142578,-0.737305,0.938491,-0.157717,-0.315923,-0.019934,-0.04973,-0.034597,,,,,,,,,,,,,,,,,,,,,,,,,,,,,,,,,,,,,,,,,,,,,,,,,,,,,,,,,,,,,,,,,
8137,1645650661.297471,53.0,0.0,4335.897461,4614.358886999999,4237.436035,4278.974121,4334.358886999999,0.0,3.0,59.0,,,,0.0,4.0,0.0,4.0,0.0,4.0,33.333332,,,,,,,,,,,,,,,,,,,,,,,,,,,,,,,,,,,,,,,,,,,,,,,,,,,,,,,,,,,,,,,,,,,,,,,,,,,,,,,,,,,,
8138,1645650661.305285,54.0,0.0,4336.410156,4713.333496,4225.128418,4281.538574,4317.94873,0.0,3.0,59.0,,,,0.0,4.0,0.0,4.0,0.0,4.0,33.333332,,,,,,,,27.0,0.0,0.339161,0.56665,0.142334,-0.737305,0.9389790000000001,-0.164553,-0.318364,-0.020284,-0.04964,-0.036802,,,,,,,,,,,,,,,,,,,,,,,,,,,,,,,,,,,,,,,,,,,,,,,,,,,,,,,,,,,,,,,,,
8139,1645650661.3131,55.0,0.0,4351.282227000001,4716.410156,4209.743652,4280.512695,4297.436035,0.0,3.0,59.0,,,,0.0,4.0,0.0,4.0,0.0,4.0,33.333332,,,,,,,,,,,,,,,,,,,,,,,,,,,,,,,,,,,,,,,,,,,,,,,,,,,,,,0.0,0.0,1.0,0.0,512.0,1.0,,,,,,,,,,,,,,,,,,,,,,,,,
8140,1645650661.320914,56.0,0.0,4335.384765999999,4605.641113000001,4218.461426,4277.94873,4302.05127,0.0,3.0,59.0,,,,0.0,4.0,0.0,4.0,0.0,4.0,33.333332,,,,,,,,28.0,0.0,0.339161,0.56665,0.142334,-0.737305,0.9506979999999999,-0.171878,-0.320317,-0.018987999999999998,-0.049608,-0.038786,,,,,,,,,,,,,,,,,,,,,,,,,,,,,,,,,,,,,,,,,,,,,,,,,,,,,,,,,,,,,,,,,
8141,1645650661.328728,57.0,0.0,4318.974121,4618.974121,4221.538574,4279.487305,4327.179688,0.0,3.0,59.0,,,,0.0,4.0,0.0,4.0,0.0,4.0,33.333332,,,,,,,,,,,,,,,,,,,,,,,,,,,,,,,,,,,,,,,,,,,,,,,,,,,,,,,,,,,,,,,,,,,,,,,,,,,,,,,,,,,,
8142,1645650661.336443,58.0,0.0,4346.666504,4657.436035,4240.512695,4280.512695,4336.410156,0.0,3.0,59.0,,,,0.0,4.0,0.0,4.0,0.0,4.0,33.333332,,,,,,,,29.0,0.0,0.339161,0.56665,0.142334,-0.737305,0.9463030000000001,-0.16406500000000002,-0.327153,-0.017822,-0.049725,-0.040669,,,,,,,,,,,,,,,,,,,,,,,,,,,,,,,,,,,,,,,,,,,,,,,,,,,,,,,,,,,,,,,,,
8143,1645650661.344257,59.0,0.0,4368.717772999999,4620.0,4247.692383,4278.461426,4325.128418,0.0,3.0,59.0,,,,0.0,4.0,0.0,4.0,0.0,4.0,33.333332,,,,,,,,,,,,,,,,,,,,,,,,,,,,,,,,,,,,,,,,,,,,,,,,,,,,,,0.0,0.0,1.0,0.0,512.0,1.0,,,,,,,,,,,,,,,,,,,,,,,,,
8144,1645650661.352072,60.0,0.0,4337.94873,4641.538574,4217.94873,4276.922852000001,4324.615234000001,0.0,3.0,59.0,,,,0.0,4.0,0.0,4.0,0.0,4.0,33.333332,,,,,,,,30.0,0.0,0.338753,0.5668949999999999,0.142334,-0.737305,0.947768,-0.15674100000000002,-0.322759,-0.018384,-0.049733,-0.036065,,,,,,,,,,,,,,,,,,,,,,,,,,,,,,,,,,,,,,,,,,,,,,,,,,,,,,,,,,,,,,,,,
8145,1645650661.359886,61.0,0.0,4327.692383,4670.256348,4196.410156,4280.0,4332.820313,0.0,3.0,59.0,,,,0.0,4.0,0.0,4.0,0.0,4.0,33.333332,,,,,,,,,,,,,,,,,,,,,,,,,,,,,,,,,,,,,,,,,,,,,,,,,,,,,,,,,,,,,,,,,,,,,,,,,,,,,,,,,,,,
8146,1645650661.367701,62.0,0.0,4343.077147999999,4656.410156,4209.743652,4282.05127,4315.384765999999,0.0,3.0,59.0,,,,0.0,4.0,0.0,4.0,0.0,4.0,33.333332,,,,,,,,31.0,0.0,0.339161,0.56665,0.142334,-0.737305,0.945815,-0.16211199999999998,-0.304204,-0.018987,-0.049789,-0.031824,,,,,,,,,,,,,,,,,,,,,,,,,,,,,,,,,,,,,,,,,,,,,,,,,,,,,,,,,,,,,,,,,
8147,1645650661.375515,63.0,0.0,4341.025879,4685.128418,4211.794922,4280.0,4306.153809,0.0,3.0,59.0,,,,0.0,4.0,0.0,4.0,0.0,4.0,33.333332,,,,,,,,,,,,,,,,,,,,1.0,0.0,0.0,,,,,,,,,,,,,,,,,,,,,,,,,,,,,,,,0.0,0.0,1.0,0.0,512.0,1.0,2.868298,1.965602,2.078789,1.085029,1.1868450000000001,2.953373,31.220095,22.977163,36.565937,31.734762,1.309104,1.20116,1.34565,1.484811,1.947782,0.002497,0.002137,0.005748,0.004989,0.0116,2.297101,1.3281370000000001,0.703513,1.169691,1.10685
8148,1645650661.383329,64.0,0.0,4330.256348,4698.974121,4205.641113000001,4278.461426,4319.487305,450.0,3.0,59.0,,,,0.0,4.0,0.0,4.0,0.0,4.0,33.333332,,,,,,,,32.0,0.0,0.339161,0.56665,0.142334,-0.737305,0.957534,-0.175784,-0.325689,-0.019431999999999998,-0.049888,-0.034257,,,,,,,,,,,,,,,,,,,,,,,,,,,,,,,,,,,,,,,,,,,,,,,,,,,,,,,,,,,,,,,,,
8149,1645650661.391144,65.0,0.0,4346.153809,4663.077147999999,4232.820313,4278.974121,4343.589844,450.0,3.0,59.0,,,,0.0,4.0,0.0,4.0,0.0,4.0,33.333332,,,,,,,,,,,,,,,,,,,,,,,,,,,,,,,,,,,,,,,,,,,,,,,,,,,,,,,,,,,,,,,,,,,,,,,,,,,,,,,,,,,,
8150,1645650661.399058,66.0,0.0,4360.512695,4673.846191,4237.436035,4280.0,4338.974121,16189.0,3.0,59.0,,,,0.0,4.0,0.0,4.0,0.0,4.0,33.333332,,,,,,,,33.0,0.0,0.339161,0.56665,0.142334,-0.737305,0.9521629999999999,-0.152834,-0.327153,-0.019832,-0.049929,-0.030294,,,,,,,,,,,,,,,,,,,,,,,,,,,,,,,,,,,,,,,,,,,,,,,,,,,,,,,,,,,,,,,,,
8151,1645650661.406773,67.0,0.0,4359.487305,4655.384765999999,4226.666504,4279.487305,4333.333496,450.0,3.0,59.0,,,,0.0,4.0,0.0,4.0,0.0,4.0,33.333332,,,,,,,,,,,,,,,,,,,,,,,,,,,,,,,,,,,,,,,,,,,,,,,,,,,,,,0.0,0.0,1.0,0.0,512.0,1.0,,,,,,,,,,,,,,,,,,,,,,,,,
8152,1645650661.414587,68.0,0.0,4343.077147999999,4593.333496,4232.307617,4278.974121,4338.974121,0.0,3.0,59.0,,,,0.0,4.0,0.0,4.0,0.0,4.0,33.333332,,,,,,,,34.0,0.0,0.339161,0.56665,0.142334,-0.737305,0.94435,-0.147951,-0.31543499999999997,-0.020144,-0.049917,-0.032782,,,,,,,,,,,,,,,,,,,,,,,,,,,,,,,,,,,,,,,,,,,,,,,,,,,,,,,,,,,,,,,,,
8153,1645650661.422402,69.0,0.0,4339.487305,4588.205078,4252.307617,4279.487305,4340.512695,450.0,3.0,59.0,,,,0.0,4.0,0.0,4.0,0.0,4.0,33.333332,,,,,,,,,,,,,,,,,,,,,,,,,,,,,,,,,,,,,,,,,,,,,,,,,,,,,,,,,,,,,,,,,,,,,,,,,,,,,,,,,,,,
8154,1645650661.430216,70.0,0.0,4344.615234000001,4643.077147999999,4229.230957,4279.487305,4332.820313,16126.0,3.0,59.0,,,,0.0,4.0,0.0,4.0,0.0,4.0,33.333332,,,,,,,,35.0,0.0,0.33928400000000003,0.5668949999999999,0.142334,-0.737061,0.954116,-0.169924,-0.315923,-0.020472999999999998,-0.050003,-0.028918,,,,,,,,,,,,,,,,,,,,,,,,,,,,,,,,,,,,,,,,,,,,,,,,,,,,,,,,,,,,,,,,,
8155,1645650661.438031,71.0,0.0,4347.692383,4733.846191,4204.615234000001,4279.487305,4320.0,450.0,3.0,59.0,,,,0.0,4.0,0.0,4.0,0.0,4.0,33.333332,,,,,,,,,,,,,,,,,,,,,,,,,,,,,,,,,,,,,,,,,,,,,,,,,,,,,,0.0,0.0,1.0,0.0,512.0,1.0,,,,,,,,,,,,,,,,,,,,,,,,,
8156,1645650661.445845,72.0,0.0,4353.333496,4716.922852000001,4205.128418,4280.512695,4323.077147999999,450.0,3.0,59.0,,,,0.0,4.0,0.0,4.0,0.0,4.0,33.333332,,,,,,,,36.0,0.0,0.339386,0.5668949999999999,0.14209000000000002,-0.737061,0.9506979999999999,-0.163577,-0.32227100000000003,-0.01911,-0.049935,-0.031689999999999996,,,,,,,,,,,,,,,,,,,,,,,,,,,,,,,,,,,,,,,,,,,,,,,,,,,,,,,,,,,,,,,,,
8157,1645650661.453659,73.0,0.0,4351.794922,4571.282227000001,4232.820313,4280.512695,4338.974121,0.0,3.0,59.0,,,,0.0,4.0,0.0,4.0,0.0,4.0,33.333332,,,,,,,,,,,,,,,,,,,,,,,,,,,,,,,,,,,,,,,,,,,,,,,,,,,,,,,,,,,,,,,,,,,,,,,,,,,,,,,,,,,,
8158,1645650661.461474,74.0,0.0,4354.358886999999,4536.410156,4228.205078,4278.461426,4339.487305,450.0,3.0,59.0,,,,0.0,4.0,0.0,4.0,0.0,4.0,33.333332,,,,,,,,37.0,0.0,0.339916,0.5668949999999999,0.14209000000000002,-0.736816,0.938003,-0.170413,-0.315923,-0.01964,-0.049873,-0.034137,,,,,,,,,,,,,,,,,,,,,,,,,,,,,,,,,,,,,,,,,,,,,,,,,,,,,,,,,,,,,,,,,
8159,1645650661.469288,75.0,0.0,4342.05127,4653.846191,4206.666504,4278.974121,4316.922852000001,16135.0,3.0,59.0,,,,0.0,4.0,0.0,4.0,0.0,4.0,33.333332,,,,,,,,,,,,,,,,,,,,,,,,,,,,,,,,,,,,,,,,,,,,,,,,,,,,,,0.0,0.0,1.0,0.0,512.0,1.0,,,,,,,,,,,,,,,,,,,,,,,,,
8160,1645650661.4770029,76.0,0.0,4326.666504,4641.025879,4221.538574,4280.0,4315.897461,450.0,3.0,59.0,,,,0.0,4.0,0.0,4.0,0.0,4.0,33.333332,,,,,,,,38.0,0.0,0.340018,0.5668949999999999,0.141846,-0.736816,0.9487450000000001,-0.16211199999999998,-0.30811,-0.020118,-0.049915,-0.030186,,,,,,,,,,,,,,,,,,,,,,,,,,,,,,,,,,,,,,,,,,,,,,,,,,,,,,,,,,,,,,,,,
8161,1645650661.484817,77.0,0.0,4330.256348,4522.563965,4243.589844,4278.974121,4331.282227000001,450.0,3.0,59.0,,,,0.0,4.0,0.0,4.0,0.0,4.0,33.333332,,,,,,,,,,,,,,,,,,,,,,,,,,,,,,,,,,,,,,,,,,,,,,,,,,,,,,,,,,,,,,,,,,,,,,,,,,,,,,,,,,,,
8162,1645650661.492631,78.0,0.0,4345.128418,4596.410156,4220.512695,4279.487305,4333.333496,450.0,3.0,59.0,,,,0.0,4.0,0.0,4.0,0.0,4.0,33.333332,,,,,,,,39.0,0.0,0.339712,0.5671390000000001,0.141602,-0.736816,0.938003,-0.16894800000000001,-0.31787600000000005,-0.018838,-0.049806,-0.032929,,,,,,,,,,,,,,,,,,,,,,,,,,,,,,,,,,,,,,,,,,,,,,,,,,,,,,,,,,,,,,,,,
8163,1645650661.500446,79.0,0.0,4333.333496,4743.589844,4208.717772999999,4282.05127,4325.641113000001,16135.0,3.0,59.0,,,,0.0,4.0,0.0,4.0,0.0,4.0,33.333332,,,,,,,,,,,,,,,,,,,,1.0,0.0,0.0,,,,,,,,,,,,,,,,,,,,,,,,,,,,,,,,0.0,0.0,1.0,0.0,512.0,1.0,2.436714,1.947222,1.87185,0.9802850000000001,1.156244,2.247497,30.594504999999998,21.011757,34.227055,33.085541,1.138383,1.40883,1.3739219999999999,1.719275,2.0182290000000003,0.002255,0.002689,0.0050799999999999994,0.005306,0.01175,2.353334,1.144249,0.8527530000000001,1.188394,1.130089
8164,1645650661.50826,80.0,0.0,4327.692383,4665.641113000001,4240.512695,4281.025879,4334.871582,450.0,3.0,59.0,,,,0.0,4.0,0.0,4.0,0.0,4.0,33.333332,,,,,,,,40.0,0.0,0.340119,0.5668949999999999,0.141602,-0.736816,0.9560690000000001,-0.161624,-0.31396999999999997,-0.017736000000000002,-0.049904000000000004,-0.035349,,,,,,,,,,,,,,,,,,,,,,,,,,,,,,,,,,,,,,,,,,,,,,,,,,,,,,,,,,,,,,,,,
8165,1645650661.516075,81.0,0.0,4340.0,4528.205078,4242.563965,4278.974121,4335.897461,450.0,3.0,59.0,,,,0.0,4.0,0.0,4.0,0.0,4.0,33.333332,,,,,,,,,,,,,,,,,,,,,,,,,,,,,,,,,,,,,,,,,,,,,,,,,,,,,,,,,,,,,,,,,,,,,,,,,,,,,,,,,,,,
8166,1645650661.523889,82.0,0.0,4354.358886999999,4610.769043,4216.410156,4279.487305,4332.820313,450.0,3.0,59.0,,,,0.0,4.0,0.0,4.0,0.0,4.0,33.333332,,,,,,,,41.0,0.0,0.340221,0.5668949999999999,0.14135699999999998,-0.736816,0.941909,-0.177249,-0.314458,-0.016597,-0.049943,-0.037381,,,,,,,,,,,,,,,,,,,,,,,,,,,,,,,,,,,,,,,,,,,,,,,,,,,,,,,,,,,,,,,,,
8167,1645650661.531704,83.0,0.0,4355.384765999999,4665.641113000001,4214.358886999999,4279.487305,4325.128418,16135.0,3.0,59.0,,,,0.0,4.0,0.0,4.0,0.0,4.0,33.333332,,,,,,,,,,,,,,,,,,,,,,,,,,,,,,,,,,,,,,,,,,,,,,,,,,,,,,0.0,0.0,1.0,0.0,512.0,1.0,,,,,,,,,,,,,,,,,,,,,,,,,
8168,1645650661.5395179,84.0,0.0,4341.025879,4581.538574,4243.077147999999,4278.974121,4328.205078,450.0,3.0,59.0,,,,0.0,4.0,0.0,4.0,0.0,4.0,33.333332,,,,,,,,42.0,0.0,0.34085,0.5668949999999999,0.14111300000000002,-0.736572,0.947768,-0.178714,-0.315923,-0.017379,-0.04988,-0.03916,,,,,,,,,,,,,,,,,,,,,,,,,,,,,,,,,,,,,,,,,,,,,,,,,,,,,,,,,,,,,,,,,
8169,1645650661.547432,85.0,0.0,4328.717772999999,4612.307617,4238.461426,4279.487305,4323.589844,450.0,3.0,59.0,,,,0.0,4.0,0.0,4.0,0.0,4.0,33.333332,,,,,,,,,,,,,,,,,,,,,,,,,,,,,,,,,,,,,,,,,,,,,,,,,,,,,,,,,,,,,,,,,,,,,,,,,,,,,,,,,,,,
8170,1645650661.555247,86.0,0.0,4342.05127,4645.128418,4241.025879,4280.0,4314.871582,450.0,3.0,59.0,,,,0.0,4.0,0.0,4.0,0.0,4.0,33.333332,,,,,,,,43.0,0.0,0.340951,0.5668949999999999,0.140869,-0.736572,0.95314,-0.176272,-0.316411,-0.017887,-0.049775,-0.034561,,,,,,,,,,,,,,,,,,,,,,,,,,,,,,,,,,,,,,,,,,,,,,,,,,,,,,,,,,,,,,,,,
8171,1645650661.563061,87.0,0.0,4338.461426,4560.0,4234.358886999999,4278.461426,4323.077147999999,16135.0,3.0,59.0,,,,0.0,4.0,0.0,4.0,0.0,4.0,33.333332,,,,,,,,,,,,,,,,,,,,,,,,,,,,,,,,,,,,,,,,,,,,,,,,,,,,,,0.0,0.0,1.0,0.0,512.0,1.0,,,,,,,,,,,,,,,,,,,,,,,,,
8172,1645650661.570875,88.0,0.0,4322.05127,4585.128418,4228.717772999999,4278.461426,4318.461426,450.0,3.0,59.0,,,,0.0,4.0,0.0,4.0,0.0,4.0,33.333332,,,,,,,,44.0,0.0,0.340221,0.5668949999999999,0.14135699999999998,-0.736816,0.941909,-0.177249,-0.314458,-0.01854,-0.049876,-0.036719999999999996,,,,,,,,,,,,,,,,,,,,,,,,,,,,,,,,,,,,,,,,,,,,,,,,,,,,,,,,,,,,,,,,,
8173,1645650661.57869,89.0,0.0,4337.436035,4663.077147999999,4226.153809,4280.512695,4304.102539,450.0,3.0,59.0,,,,0.0,4.0,0.0,4.0,0.0,4.0,33.333332,,,,,,,,,,,,,,,,,,,,,,,,,,,,,,,,,,,,,,,,,,,,,,,,,,,,,,,,,,,,,,,,,,,,,,,,,,,,,,,,,,,,
8174,1645650661.586504,90.0,0.0,4352.307617,4586.153809,4230.256348,4280.512695,4321.538574,450.0,3.0,59.0,,,,0.0,4.0,0.0,4.0,0.0,4.0,33.333332,,,,,,,,45.0,0.0,0.340951,0.5668949999999999,0.140869,-0.736572,0.95314,-0.176272,-0.316411,-0.018932,-0.049770999999999996,-0.032364,,,,,,,,,,,,,,,,,,,,,,,,,,,,,,,,,,,,,,,,,,,,,,,,,,,,,,,,,,,,,,,,,
8175,1645650661.5943189,91.0,0.0,4340.512695,4590.769043,4208.717772999999,4278.974121,4348.717772999999,16135.0,3.0,59.0,,,,0.0,4.0,0.0,4.0,0.0,4.0,33.333332,,,,,,,,,,,,,,,,,,,,,,,,,,,,,,,,,,,,,,,,,,,,,,,,,,,,,,0.0,0.0,1.0,0.0,512.0,1.0,,,,,,,,,,,,,,,,,,,,,,,,,
8176,1645650661.602133,92.0,0.0,4316.922852000001,4725.128418,4204.615234000001,4279.487305,4318.461426,450.0,3.0,59.0,,,,0.0,4.0,0.0,4.0,0.0,4.0,33.333332,,,,,,,,46.0,0.0,0.341052,0.5668949999999999,0.140625,-0.736572,0.9399559999999999,-0.180179,-0.310552,-0.019382,-0.049775,-0.028493,,,,,,,,,,,,,,,,,,,,,,,,,,,,,,,,,,,,,,,,,,,,,,,,,,,,,,,,,,,,,,,,,
8177,1645650661.609947,93.0,0.0,4331.794922,4687.179688,4229.743652,4280.0,4300.512695,450.0,3.0,59.0,,,,0.0,4.0,0.0,4.0,0.0,4.0,33.333332,,,,,,,,,,,,,,,,,,,,,,,,,,,,,,,,,,,,,,,,,,,,,,,,,,,,,,,,,,,,,,,,,,,,,,,,,,,,,,,,,,,,
8178,1645650661.617662,94.0,0.0,4354.358886999999,4576.922852000001,4218.461426,4278.461426,4334.871582,450.0,3.0,59.0,,,,0.0,4.0,0.0,4.0,0.0,4.0,33.333332,,,,,,,,47.0,0.0,0.341052,0.5668949999999999,0.140625,-0.736572,0.9560690000000001,-0.165042,-0.318853,-0.018225,-0.049875,-0.031161,,,,,,,,,,,,,,,,,,,,,,,,,,,,,,,,,,,,,,,,,,,,,,,,,,,,,,,,,,,,,,,,,
8179,1645650661.625476,95.0,0.0,4355.384765999999,4571.282227000001,4209.230957,4277.436035,4356.922852000001,16135.0,3.0,59.0,,,,0.0,4.0,0.0,4.0,0.0,4.0,33.333332,0.972656,33.333332,4.0,0.0,4.0,0.0,4.0,,,,,,,,,,,,,1.0,0.0,0.0,,,,,,,,,,,,,,,,,,,,,,,,,,,,,,,,0.0,0.0,1.0,0.0,512.0,1.0,2.271391,1.820603,1.564563,0.92196,1.205523,1.947275,27.078684000000003,19.450806,31.716009000000003,34.876377000000005,1.266959,1.629225,1.439194,1.952549,2.070624,0.002009,0.0033619999999999995,0.004061,0.005881,0.01163,2.496023,1.027318,0.991848,1.262034,1.145674
8180,1645650661.633291,96.0,0.0,4352.820313,4606.153809,4229.230957,4280.512695,4348.205078,450.0,3.0,59.0,,,,0.0,4.0,0.0,4.0,0.0,4.0,33.333332,,,,,,,,48.0,0.0,0.341173,0.5671390000000001,0.140625,-0.736328,0.9511860000000001,-0.175296,-0.309575,-0.018698,-0.050015,-0.027507999999999998,,,,,,,,,,,,,,,,,,,,,,,,,,,,,,,,,,,,,,,,,,,,,,,,,,,,,,,,,,,,,,,,,
8181,1645650661.6411052,97.0,0.0,4369.230957,4678.461426,4229.230957,4281.538574,4362.05127,450.0,3.0,59.0,,,,0.0,4.0,0.0,4.0,0.0,4.0,33.333332,,,,,,,,,,,,,,,,,,,,,,,,,,,,,,,,,,,,,,,,,,,,,,,,,,,,,,,,,,,,,,,,,,,,,,,,,,,,,,,,,,,,
8182,1645650661.6489198,98.0,0.0,4361.538574,4712.307617,4212.307617,4279.487305,4363.589844,450.0,3.0,59.0,,,,0.0,4.0,0.0,4.0,0.0,4.0,33.333332,,,,,,,,49.0,0.0,0.34127399999999997,0.5671390000000001,0.140381,-0.736328,0.965835,-0.184085,-0.319341,-0.019122999999999998,-0.050092000000000005,-0.030324,,,,,,,,,,,,,,,,,,,,,,,,,,,,,,,,,,,,,,,,,,,,,,,,,,,,,,,,,,,,,,,,,
8183,1645650661.656734,99.0,0.0,4337.94873,4667.179688,4221.538574,4277.94873,4347.692383,16135.0,3.0,59.0,,,,0.0,4.0,0.0,4.0,0.0,4.0,33.333332,,,,,,,,,,,,,,,,,,,,,,,,,,,,,,,,,,,,,,,,,,,,,,,,,,,,,,0.0,0.0,1.0,0.0,512.0,1.0,,,,,,,,,,,,,,,,,,,,,,,,,
8184,1645650661.6645482,100.0,0.0,4344.102539,4673.846191,4222.563965,4279.487305,4343.589844,450.0,3.0,59.0,,,,0.0,4.0,0.0,4.0,0.0,4.0,33.333332,,,,,,,,50.0,0.0,0.341294,0.567383,0.140625,-0.736084,0.9550930000000001,-0.169436,-0.320317,-0.017943,-0.050062999999999996,-0.026608,,,,,,,,,,,,,,,,,,,,,,,,,,,,,,,,,,,,,,,,,,,,,,,,,,,,,,,,,,,,,,,,,
8185,1645650661.672363,101.0,0.0,4373.846191,4668.717772999999,4236.410156,4280.512695,4349.743652,450.0,3.0,59.0,,,,0.0,4.0,0.0,4.0,0.0,4.0,33.333332,,,,,,,,,,,,,,,,,,,,,,,,,,,,,,,,,,,,,,,,,,,,,,,,,,,,,,,,,,,,,,,,,,,,,,,,,,,,,,,,,,,,
8186,1645650661.680177,102.0,0.0,4370.769043,4572.307617,4238.974121,4280.0,4345.641113000001,450.0,3.0,59.0,,,,0.0,4.0,0.0,4.0,0.0,4.0,33.333332,,,,,,,,51.0,0.0,0.34171999999999997,0.567383,0.140869,-0.7358399999999999,0.945815,-0.182132,-0.318853,-0.01693,-0.050086,-0.029660000000000002,,,,,,,,,,,,,,,,,,,,,,,,,,,,,,,,,,,,,,,,,,,,,,,,,,,,,,,,,,,,,,,,,
8187,1645650661.687992,103.0,0.0,4338.974121,4583.077147999999,4218.974121,4279.487305,4331.282227000001,16135.0,3.0,59.0,,,,0.0,4.0,0.0,4.0,0.0,4.0,33.333332,,,,,,,,,,,,,,,,,,,,,,,,,,,,,,,,,,,,,,,,,,,,,,,,,,,,,,0.0,0.0,1.0,0.0,512.0,1.0,,,,,,,,,,,,,,,,,,,,,,,,,
8188,1645650661.695806,104.0,0.0,4328.205078,4678.974121,4203.589844,4278.974121,4317.436035,450.0,3.0,59.0,,,,0.0,4.0,0.0,4.0,0.0,4.0,33.333332,,,,,,,,52.0,0.0,0.341619,0.567383,0.14111300000000002,-0.7358399999999999,0.939467,-0.176272,-0.31543499999999997,-0.017532,-0.050156,-0.026059,,,,,,,,,,,,,,,,,,,,,,,,,,,,,,,,,,,,,,,,,,,,,,,,,,,,,,,,,,,,,,,,,
8189,1645650661.70362,105.0,0.0,4333.846191,4661.538574,4230.769043,4278.461426,4314.358886999999,450.0,3.0,59.0,,,,0.0,4.0,0.0,4.0,0.0,4.0,33.333332,,,,,,,,,,,,,,,,,,,,,,,,,,,,,,,,,,,,,,,,,,,,,,,,,,,,,,,,,,,,,,,,,,,,,,,,,,,,,,,,,,,,
8190,1645650661.711435,106.0,0.0,4337.436035,4612.307617,4241.538574,4278.974121,4332.307617,450.0,3.0,59.0,,,,0.0,4.0,0.0,4.0,0.0,4.0,33.333332,,,,,,,,53.0,0.0,0.341943,0.567383,0.141602,-0.735596,0.9487450000000001,-0.180179,-0.31299299999999997,-0.016511,-0.050023000000000005,-0.029166,,,,,,,,,,,,,,,,,,,,,,,,,,,,,,,,,,,,,,,,,,,,,,,,,,,,,,,,,,,,,,,,,
8191,1645650661.719249,107.0,0.0,4345.641113000001,4572.307617,4249.743652,4278.974121,4351.794922,16135.0,3.0,59.0,,,,0.0,4.0,0.0,4.0,0.0,4.0,33.333332,,,,,,,,,,,,,,,,,,,,,,,,,,,,,,,,,,,,,,,,,,,,,,,,,,,,,,0.0,0.0,1.0,0.0,512.0,1.0,,,,,,,,,,,,,,,,,,,,,,,,,
8192,1645650661.7270641,108.0,0.0,4361.025879,4554.871582,4239.487305,4278.974121,4360.0,450.0,3.0,59.0,,,,0.0,4.0,0.0,4.0,0.0,4.0,33.333332,,,,,,,,54.0,0.0,0.341334,0.567627,0.14209000000000002,-0.735596,0.960952,-0.170901,-0.31787600000000005,-0.017204,-0.050001,-0.025664,,,,,,,,,,,,,,,,,,,,,,,,,,,,,,,,,,,,,,,,,,,,,,,,,,,,,,,,,,,,,,,,,
8193,1645650661.7348778,109.0,0.0,4354.358886999999,4663.589844,4210.769043,4278.974121,4344.102539,450.0,3.0,59.0,,,,0.0,4.0,0.0,4.0,0.0,4.0,33.333332,,,,,,,,,,,,,,,,,,,,,,,,,,,,,,,,,,,,,,,,,,,,,,,,,,,,,,,,,,,,,,,,,,,,,,,,,,,,,,,,,,,,
8194,1645650661.742693,110.0,0.0,4353.846191,4711.794922,4220.0,4280.0,4332.820313,450.0,3.0,59.0,,,,0.0,4.0,0.0,4.0,0.0,4.0,33.333332,,,,,,,,55.0,0.0,0.34165700000000004,0.567627,0.142578,-0.735352,0.9428850000000001,-0.182132,-0.31006300000000003,-0.016166999999999997,-0.049982,-0.028810000000000002,,,,,,,,,,,,,,,,,,,,,,,,,,,,,,,,,,,,,,,,,,,,,,,,,,,,,,,,,,,,,,,,,
8195,1645650661.750507,111.0,0.0,4354.358886999999,4562.563965,4228.717772999999,4280.512695,4329.230957,16135.0,3.0,59.0,,,,0.0,4.0,0.0,4.0,0.0,4.0,33.333332,,,,,,,,,,,,,,,,,,,,1.0,0.0,0.0,,,,,,,,,,,,,,,,,,,,,,,,,,,,,,,,0.0,0.0,1.0,0.0,512.0,1.0,2.310373,1.658609,1.243349,0.965601,1.35459,1.952363,21.879118,18.043861,29.183458,36.837433000000004,1.6237709999999999,1.843146,1.573109,2.159831,2.110634,0.001819,0.004035,0.003066,0.006626999999999999,0.011612,2.679264,0.979555,1.0822479999999999,1.3551090000000001,1.162259
8196,1645650661.758321,112.0,0.0,4356.410156,4565.641113000001,4197.94873,4279.487305,4331.794922,450.0,3.0,59.0,,,,0.0,4.0,0.0,4.0,0.0,4.0,33.333332,,,,,,,,56.0,0.0,0.341452,0.567627,0.143066,-0.735352,0.931167,-0.181643,-0.318853,-0.014648,-0.050013,-0.031642,,,,,,,,,,,,,,,,,,,,,,,,,,,,,,,,,,,,,,,,,,,,,,,,,,,,,,,,,,,,,,,,,
8197,1645650661.766036,113.0,0.0,4356.922852000001,4723.077147999999,4190.256348,4278.974121,4342.563965,450.0,3.0,59.0,,,,0.0,4.0,0.0,4.0,0.0,4.0,33.333332,,,,,,,,,,,,,,,,,,,,,,,,,,,,,,,,,,,,,,,,,,,,,,,,,,,,,,,,,,,,,,,,,,,,,,,,,,,,,,,,,,,,
8198,1645650661.77385,114.0,0.0,4347.179688,4673.333496,4229.743652,4279.487305,4357.436035,450.0,3.0,59.0,,,,0.0,4.0,0.0,4.0,0.0,4.0,33.333332,,,,,,,,57.0,0.0,0.341858,0.567383,0.143066,-0.735352,0.932143,-0.183597,-0.314946,-0.015429,-0.050041,-0.034045,,,,,,,,,,,,,,,,,,,,,,,,,,,,,,,,,,,,,,,,,,,,,,,,,,,,,,,,,,,,,,,,,
8199,1645650661.781665,115.0,0.0,4333.846191,4562.05127,4231.794922,4278.974121,4338.461426,16135.0,3.0,59.0,,,,0.0,4.0,0.0,4.0,0.0,4.0,33.333332,,,,,,,,,,,,,,,,,,,,,,,,,,,,,,,,,,,,,,,,,,,,,,,,,,,,,,0.0,0.0,1.0,0.0,512.0,1.0,,,,,,,,,,,,,,,,,,,,,,,,,
8200,1645650661.789479,116.0,0.0,4332.820313,4572.307617,4228.717772999999,4278.461426,4321.025879,450.0,3.0,59.0,,,,0.0,4.0,0.0,4.0,0.0,4.0,33.333332,,,,,,,,58.0,0.0,0.34123000000000003,0.567383,0.143311,-0.735596,0.9463030000000001,-0.188968,-0.31006300000000003,-0.014668,-0.050066,-0.036304,,,,,,,,,,,,,,,,,,,,,,,,,,,,,,,,,,,,,,,,,,,,,,,,,,,,,,,,,,,,,,,,,
8201,1645650661.797293,117.0,0.0,4328.717772999999,4571.794922,4235.384765999999,4278.461426,4336.922852000001,450.0,3.0,59.0,,,,0.0,4.0,0.0,4.0,0.0,4.0,33.333332,,,,,,,,,,,,,,,,,,,,,,,,,,,,,,,,,,,,,,,,,,,,,,,,,,,,,,,,,,,,,,,,,,,,,,,,,,,,,,,,,,,,
8202,1645650661.805108,118.0,0.0,4333.846191,4595.384765999999,4231.282227000001,4279.487305,4351.794922,450.0,3.0,59.0,,,,0.0,4.0,0.0,4.0,0.0,4.0,33.333332,,,,,,,,59.0,0.0,0.341127,0.567383,0.143555,-0.735596,0.9643700000000001,-0.160647,-0.330571,-0.015447,-0.049991,-0.032137,,,,,,,,,,,,,,,,,,,,,,,,,,,,,,,,,,,,,,,,,,,,,,,,,,,,,,,,,,,,,,,,,
8203,1645650661.812922,119.0,0.0,4344.102539,4686.666504,4212.307617,4280.0,4335.897461,16135.0,3.0,59.0,,,,0.0,4.0,0.0,4.0,0.0,4.0,33.333332,,,,,,,,,,,,,,,,,,,,,,,,,,,,,,,,,,,,,,,,,,,,,,,,,,,,,,0.0,0.0,1.0,0.0,512.0,1.0,,,,,,,,,,,,,,,,,,,,,,,,,
8204,1645650661.820737,120.0,0.0,4333.846191,4643.589844,4231.282227000001,4278.974121,4323.589844,450.0,3.0,59.0,,,,0.0,4.0,0.0,4.0,0.0,4.0,33.333332,,,,,,,,60.0,0.0,0.341127,0.567383,0.143555,-0.735596,0.9594870000000001,-0.169436,-0.316899,-0.016149,-0.049973000000000004,-0.034538,,,,,,,,,,,,,,,,,,,,,,,,,,,,,,,,,,,,,,,,,,,,,,,,,,,,,,,,,,,,,,,,,
8205,1645650661.828551,121.0,0.0,4323.589844,4516.410156,4237.94873,4278.974121,4337.94873,450.0,3.0,59.0,,,,0.0,4.0,0.0,4.0,0.0,4.0,33.333332,,,,,,,,,,,,,,,,,,,,,,,,,,,,,,,,,,,,,,,,,,,,,,,,,,,,,,,,,,,,,,,,,,,,,,,,,,,,,,,,,,,,
8206,1645650661.836266,122.0,0.0,4328.717772999999,4595.384765999999,4225.128418,4281.538574,4332.820313,450.0,3.0,59.0,,,,0.0,4.0,0.0,4.0,0.0,4.0,33.333332,,,,,,,,61.0,0.0,0.3406,0.567383,0.143555,-0.7358399999999999,0.9546040000000001,-0.173342,-0.317388,-0.016877,-0.050005,-0.030499000000000002,,,,,,,,,,,,,,,,,,,,,,,,,,,,,,,,,,,,,,,,,,,,,,,,,,,,,,,,,,,,,,,,,
8207,1645650661.84408,123.0,0.0,4338.974121,4732.820313,4217.436035,4281.538574,4316.922852000001,16135.0,3.0,59.0,,,,0.0,4.0,0.0,4.0,0.0,4.0,33.333332,,,,,,,,,,,,,,,,,,,,,,,,,,,,,,,,,,,,,,,,,,,,,,,,,,,,,,0.0,0.0,1.0,0.0,512.0,1.0,,,,,,,,,,,,,,,,,,,,,,,,,
8208,1645650661.851894,124.0,0.0,4337.436035,4628.717772999999,4229.743652,4279.487305,4325.641113000001,450.0,3.0,59.0,,,,0.0,4.0,0.0,4.0,0.0,4.0,33.333332,,,,,,,,62.0,0.0,0.340479,0.5671390000000001,0.143555,-0.736084,0.941421,-0.166995,-0.309575,-0.017436,-0.049887,-0.026813999999999998,,,,,,,,,,,,,,,,,,,,,,,,,,,,,,,,,,,,,,,,,,,,,,,,,,,,,,,,,,,,,,,,,
8209,1645650661.859709,125.0,0.0,4344.102539,4546.666504,4230.769043,4278.974121,4352.820313,450.0,3.0,59.0,,,,0.0,4.0,0.0,4.0,0.0,4.0,33.333332,,,,,,,,,,,,,,,,,,,,,,,,,,,,,,,,,,,,,,,,,,,,,,,,,,,,,,,,,,,,,,,,,,,,,,,,,,,,,,,,,,,,
8210,1645650661.867523,126.0,0.0,4351.282227000001,4734.358886999999,4227.179688,4280.512695,4353.333496,450.0,3.0,59.0,,,,0.0,4.0,0.0,4.0,0.0,4.0,33.333332,,,,,,,,63.0,0.0,0.340358,0.5668949999999999,0.143555,-0.736328,0.9389790000000001,-0.154299,-0.31299299999999997,-0.018036,-0.049928,-0.023547,,,,,,,,,,,,,,,,,,,,,,,,,,,,,,,,,,,,,,,,,,,,,,,,,,,,,,,,,,,,,,,,,
8211,1645650661.875338,127.0,0.0,4350.256348,4781.538574,4238.974121,4280.512695,4336.922852000001,235.0,3.0,59.0,,,,0.0,4.0,0.0,4.0,0.0,4.0,33.333332,,,,,,,,,,,,,,,,,,,,1.0,0.0,0.0,,,,,,,,,,,,,,,,,,,,,,,,,,,,,,,,0.0,0.0,1.0,0.0,512.0,1.0,2.410437,1.54524,0.969274,1.121005,1.569144,2.174383,16.500668,16.811617000000002,26.624121000000002,38.616817,2.127469,2.035515,1.7913080000000001,2.308449,2.132978,0.001732,0.004564,0.002482,0.007376000000000001,0.011964,2.853687,0.988346,1.100511,1.431352,1.1818170000000001
8212,1645650661.883152,0.0,0.0,4337.94873,4565.641113000001,4230.769043,4278.974121,4328.205078,450.0,3.0,59.0,,,,0.0,4.0,0.0,4.0,0.0,4.0,33.333332,,,,,,,,0.0,0.0,0.340358,0.5668949999999999,0.143555,-0.736328,0.944839,-0.148928,-0.31543499999999997,-0.016281,-0.049916,-0.026905000000000002,,,,,,,,,,,,,,,,,,,,,,,,,,,,,,,,,,,,,,,,,,,,,,,,,,,,,,,,,,,,,,,,,
8213,1645650661.890966,1.0,0.0,4344.615234000001,4555.897461,4211.282227000001,4278.974121,4334.358886999999,450.0,3.0,59.0,,,,0.0,4.0,0.0,4.0,0.0,4.0,33.333332,,,,,,,,,,,,,,,,,,,,,,,,,,,,,,,,,,,,,,,,,,,,,,,,,,,,,,,,,,,,,,,,,,,,,,,,,,,,,,,,,,,,
8214,1645650661.898781,2.0,0.0,4349.743652,4732.307617,4207.692383,4281.025879,4330.769043,16274.0,3.0,59.0,,,,0.0,4.0,0.0,4.0,0.0,4.0,33.333332,,,,,,,,1.0,0.0,0.34023600000000004,0.56665,0.143555,-0.736572,0.9365379999999999,-0.157717,-0.31543499999999997,-0.016947999999999998,-0.049905,-0.023531,,,,,,,,,,,,,,,,,,,,,,,,,,,,,,,,,,,,,,,,,,,,,,,,,,,,,,,,,,,,,,,,,
8215,1645650661.9064949,3.0,0.0,4341.538574,4682.563965,4229.230957,4281.025879,4336.410156,450.0,3.0,59.0,,,,0.0,4.0,0.0,2.0,0.0,4.0,16.666666,,,,,,,,,,,,,,,,,,,,,,,,,,,,,,,,,,,,,,,,,,,,,,,,,,,,,,0.0,0.0,1.0,0.0,512.0,1.0,,,,,,,,,,,,,,,,,,,,,,,,,
