,Timestamp,OriginalTimestamp,EEG.Counter,EEG.Interpolated,EEG.AF3,EEG.T7,EEG.Pz,EEG.T8,EEG.AF4,EEG.RawCq,EEG.Battery,EEG.BatteryPercent,MarkerIndex,MarkerType,MarkerValueInt,EEG.MarkerHardware,CQ.AF3,CQ.T7,CQ.Pz,CQ.T8,CQ.AF4,CQ.Overall,EQ.SampleRateQuality,EQ.OVERALL,EQ.AF3,EQ.T7,EQ.Pz,EQ.T8,EQ.AF4,MOT.CounterMems,MOT.InterpolatedMems,MOT.Q0,MOT.Q1,MOT.Q2,MOT.Q3,MOT.AccX,MOT.AccY,MOT.AccZ,MOT.MagX,MOT.MagY,MOT.MagZ,MC.Action,MC.ActionPower,MC.IsActive,PM.Engagement.IsActive,PM.Engagement.Scaled,PM.Engagement.Raw,PM.Engagement.Min,PM.Engagement.Max,PM.Excitement.IsActive,PM.Excitement.Scaled,PM.Excitement.Raw,PM.Excitement.Min,PM.Excitement.Max,PM.LongTermExcitement,PM.Stress.IsActive,PM.Stress.Scaled,PM.Stress.Raw,PM.Stress.Min,PM.Stress.Max,PM.Relaxation.IsActive,PM.Relaxation.Scaled,PM.Relaxation.Raw,PM.Relaxation.Min,PM.Relaxation.Max,PM.Interest.IsActive,PM.Interest.Scaled,PM.Interest.Raw,PM.Interest.Min,PM.Interest.Max,PM.Focus.IsActive,PM.Focus.Scaled,PM.Focus.Raw,PM.Focus.Min,PM.Focus.Max,FE.BlinkWink,FE.HorizontalEyesDirection,FE.UpperFaceAction,FE.UpperFaceActionPower,FE.LowerFaceAction,FE.LowerFaceActionPower,POW.AF3.Theta,POW.AF3.Alpha,POW.AF3.BetaL,POW.AF3.BetaH,POW.AF3.Gamma,POW.T7.Theta,POW.T7.Alpha,POW.T7.BetaL,POW.T7.BetaH,POW.T7.Gamma,POW.Pz.Theta,POW.Pz.Alpha,POW.Pz.BetaL,POW.Pz.BetaH,POW.Pz.Gamma,POW.T8.Theta,POW.T8.Alpha,POW.T8.BetaL,POW.T8.BetaH,POW.T8.Gamma,POW.AF4.Theta,POW.AF4.Alpha,POW.AF4.BetaL,POW.AF4.BetaH,POW.AF4.Gamma
18540,1645817877.192573,1645817877.2061641,47.0,0.0,4371.794922,4697.94873,4223.077147999999,4284.102539,4298.461426,0.0,1.0,15.0,,,,0.0,4.0,0.0,4.0,0.0,4.0,33.333332,,,,,,,,,,,,,,,,,,,,1.0,0.0,0.0,,,,,,,,,,,,,,,,,,,,,,,,,,,,,,,,0.0,0.0,1.0,0.0,512.0,1.0,2.570488,1.363896,0.9256479999999999,1.8435439999999998,2.0655810000000003,10.483163000000001,9.198407000000001,7.28912,12.918667,11.641758,1.701503,1.951048,1.027256,2.397986,2.369553,15.797765,36.984604,42.277435,9.193961999999999,8.319476,4.852863,1.9907869999999999,1.2136280000000002,2.766521,1.8420729999999998
18541,1645817877.2003891,1645817877.213979,48.0,0.0,4367.692383,4644.615234000001,4228.205078,4299.487305,4292.820313,0.0,1.0,15.0,,,,0.0,4.0,0.0,4.0,0.0,4.0,33.333332,,,,,,,,24.0,0.0,0.180626,0.6137699999999999,-0.140381,-0.7556149999999999,0.902358,-0.438483,-0.220218,-0.013263999999999998,-0.020127000000000003,-0.043001,,,,,,,,,,,,,,,,,,,,,,,,,,,,,,,,,,,,,,,,,,,,,,,,,,,,,,,,,,,,,,,,,
18542,1645817877.2082038,1645817877.221793,49.0,0.0,4351.282227000001,4571.282227000001,4219.487305,4302.05127,4289.230957,0.0,1.0,15.0,,,,0.0,4.0,0.0,4.0,0.0,4.0,33.333332,,,,,,,,,,,,,,,,,,,,,,,,,,,,,,,,,,,,,,,,,,,,,,,,,,,,,,,,,,,,,,,,,,,,,,,,,,,,,,,,,,,,
18543,1645817877.2160199,1645817877.229608,50.0,0.0,4362.05127,4613.333496,4233.846191,4290.769043,4305.128418,0.0,1.0,15.0,,,,0.0,4.0,0.0,4.0,0.0,4.0,33.333332,,,,,,,,25.0,0.0,0.180816,0.6137699999999999,-0.14013699999999998,-0.7556149999999999,0.87892,-0.423835,-0.206546,-0.013646,-0.020263,-0.044707,,,,,,,,,,,,,,,,,,,,,,,,,,,,,,,,,,,,,,,,,,,,,,,,,,,,,,,,,,,,,,,,,
18544,1645817877.223835,1645817877.237422,51.0,0.0,4377.436035,4627.179688,4247.179688,4281.025879,4314.358886999999,0.0,1.0,15.0,,,,0.0,4.0,0.0,4.0,0.0,4.0,33.333332,,,,,,,,,,,,,,,,,,,,,,,,,,,,,,,,,,,,,,,,,,,,,,,,,,,,,,0.0,0.0,1.0,0.0,512.0,1.0,,,,,,,,,,,,,,,,,,,,,,,,,
18545,1645817877.231651,1645817877.245236,52.0,0.0,4376.922852000001,4585.128418,4237.436035,4289.230957,4318.974121,0.0,1.0,15.0,,,,0.0,4.0,0.0,4.0,0.0,4.0,33.333332,,,,,,,,26.0,0.0,0.180624,0.613525,-0.14013699999999998,-0.7558590000000001,0.866224,-0.435065,-0.217777,-0.014088,-0.020239,-0.039992,,,,,,,,,,,,,,,,,,,,,,,,,,,,,,,,,,,,,,,,,,,,,,,,,,,,,,,,,,,,,,,,,
18546,1645817877.239466,1645817877.253051,53.0,0.0,4364.102539,4582.05127,4226.153809,4306.666504,4310.769043,0.0,1.0,15.0,,,,0.0,4.0,0.0,4.0,0.0,4.0,33.333332,,,,,,,,,,,,,,,,,,,,,,,,,,,,,,,,,,,,,,,,,,,,,,,,,,,,,,,,,,,,,,,,,,,,,,,,,,,,,,,,,,,,
18547,1645817877.247281,1645817877.260765,54.0,0.0,4361.538574,4630.256348,4227.179688,4308.717772999999,4299.487305,0.0,1.0,15.0,,,,0.0,4.0,0.0,4.0,0.0,4.0,33.333332,,,,,,,,27.0,0.0,0.180624,0.613525,-0.14013699999999998,-0.7558590000000001,0.887709,-0.427253,-0.23681999999999997,-0.014486,-0.020314,-0.041999,,,,,,,,,,,,,,,,,,,,,,,,,,,,,,,,,,,,,,,,,,,,,,,,,,,,,,,,,,,,,,,,,
18548,1645817877.2550972,1645817877.26858,55.0,0.0,4389.743652,4660.0,4250.256348,4315.897461,4328.205078,0.0,1.0,15.0,,,,0.0,4.0,0.0,4.0,0.0,4.0,33.333332,,,,,,,,,,,,,,,,,,,,,,,,,,,,,,,,,,,,,,,,,,,,,,,,,,,,,,0.0,0.0,1.0,0.0,512.0,1.0,,,,,,,,,,,,,,,,,,,,,,,,,
18549,1645817877.2629118,1645817877.276394,56.0,0.0,4403.589844,4626.666504,4263.589844,4312.307617,4344.102539,0.0,1.0,15.0,,,,0.0,4.0,0.0,4.0,0.0,4.0,33.333332,,,,,,,,28.0,0.0,0.18062,0.6132810000000001,-0.13989300000000002,-0.756104,0.889174,-0.437507,-0.238285,-0.014747,-0.020431,-0.043805000000000004,,,,,,,,,,,,,,,,,,,,,,,,,,,,,,,,,,,,,,,,,,,,,,,,,,,,,,,,,,,,,,,,,
18550,1645817877.2707279,1645817877.284209,57.0,0.0,4374.871582,4605.128418,4239.487305,4256.410156,4309.230957,0.0,1.0,15.0,,,,0.0,4.0,0.0,4.0,0.0,4.0,33.333332,,,,,,,,,,,,,,,,,,,,,,,,,,,,,,,,,,,,,,,,,,,,,,,,,,,,,,,,,,,,,,,,,,,,,,,,,,,,,,,,,,,,
18551,1645817877.278543,1645817877.292023,58.0,0.0,4358.974121,4632.820313,4225.641113000001,4226.153809,4291.282227000001,0.0,1.0,15.0,,,,0.0,4.0,0.0,4.0,0.0,4.0,33.333332,,,,,,,,29.0,0.0,0.179789,0.613525,-0.13989300000000002,-0.756104,0.895033,-0.44385399999999997,-0.227054,-0.013466999999999998,-0.020293000000000002,-0.04543,,,,,,,,,,,,,,,,,,,,,,,,,,,,,,,,,,,,,,,,,,,,,,,,,,,,,,,,,,,,,,,,,
18552,1645817877.286359,1645817877.2998369,59.0,0.0,4361.025879,4623.077147999999,4223.077147999999,4266.153809,4286.153809,0.0,1.0,15.0,,,,0.0,4.0,0.0,4.0,0.0,4.0,33.333332,,,,,,,,,,,,,,,,,,,,,,,,,,,,,,,,,,,,,,,,,,,,,,,,,,,,,,0.0,0.0,1.0,0.0,512.0,1.0,,,,,,,,,,,,,,,,,,,,,,,,,
18553,1645817877.294174,1645817877.307652,60.0,0.0,4360.0,4586.153809,4218.461426,4249.743652,4285.641113000001,0.0,1.0,15.0,,,,0.0,4.0,0.0,4.0,0.0,4.0,33.333332,,,,,,,,30.0,0.0,0.181001,0.613525,-0.139648,-0.7558590000000001,0.905776,-0.431159,-0.23486700000000002,-0.01383,-0.020314,-0.040594,,,,,,,,,,,,,,,,,,,,,,,,,,,,,,,,,,,,,,,,,,,,,,,,,,,,,,,,,,,,,,,,,
18554,1645817877.30199,1645817877.315466,61.0,0.0,4369.743652,4595.897461,4232.820313,4194.871582,4318.461426,0.0,1.0,15.0,,,,0.0,4.0,0.0,4.0,0.0,4.0,33.333332,,,,,,,,,,,,,,,,,,,,,,,,,,,,,,,,,,,,,,,,,,,,,,,,,,,,,,,,,,,,,,,,,,,,,,,,,,,,,,,,,,,,
18555,1645817877.3098052,1645817877.323281,62.0,0.0,4378.974121,4637.94873,4246.153809,4225.641113000001,4340.0,0.0,1.0,15.0,,,,0.0,4.0,0.0,4.0,0.0,4.0,33.333332,,,,,,,,31.0,0.0,0.180172,0.6137699999999999,-0.139648,-0.7558590000000001,0.8896620000000001,-0.43457700000000005,-0.226566,-0.012642,-0.020236,-0.036291000000000004,,,,,,,,,,,,,,,,,,,,,,,,,,,,,,,,,,,,,,,,,,,,,,,,,,,,,,,,,,,,,,,,,
18556,1645817877.317621,1645817877.3309948,63.0,0.0,4363.077147999999,4644.615234000001,4221.025879,4254.358886999999,4309.230957,0.0,1.0,15.0,,,,0.0,4.0,0.0,4.0,0.0,4.0,33.333332,1.0,33.333332,4.0,0.0,4.0,0.0,4.0,,,,,,,,,,,,,1.0,0.0,0.0,,,,,,,,,,,,,,,,,,,,,,,,,,,,,,,,0.0,0.0,1.0,0.0,512.0,1.0,2.540975,1.6254709999999999,0.834742,2.013369,1.945719,9.900323,9.462332,7.345794000000001,14.205955,11.590086999999999,1.9081599999999999,2.104735,0.8255600000000001,2.475191,2.391073,17.440096,41.682896,51.147255,11.06611,10.90916,4.214748999999999,2.669266,1.110056,3.2185610000000002,1.796675
18557,1645817877.3254359,1645817877.33881,64.0,0.0,4369.230957,4606.153809,4226.666504,4209.743652,4302.05127,450.0,1.0,15.0,,,,0.0,4.0,0.0,4.0,0.0,4.0,33.333332,,,,,,,,32.0,0.0,0.181381,0.6137699999999999,-0.139404,-0.7556149999999999,0.8842909999999999,-0.437507,-0.22607800000000003,-0.013136000000000002,-0.020214,-0.038668,,,,,,,,,,,,,,,,,,,,,,,,,,,,,,,,,,,,,,,,,,,,,,,,,,,,,,,,,,,,,,,,,
18558,1645817877.333252,1645817877.3466241,65.0,0.0,4396.922852000001,4634.871582,4253.333496,4203.077147999999,4333.333496,450.0,1.0,15.0,,,,0.0,4.0,0.0,4.0,0.0,4.0,33.333332,,,,,,,,,,,,,,,,,,,,,,,,,,,,,,,,,,,,,,,,,,,,,,,,,,,,,,,,,,,,,,,,,,,,,,,,,,,,,,,,,,,,
18559,1645817877.341067,1645817877.354438,66.0,0.0,4391.282227000001,4701.025879,4238.461426,4229.230957,4333.333496,16149.0,1.0,15.0,,,,0.0,4.0,0.0,4.0,0.0,4.0,33.333332,,,,,,,,33.0,0.0,0.180741,0.6140140000000001,-0.13915999999999998,-0.7556149999999999,0.8847790000000001,-0.424811,-0.224613,-0.013678000000000001,-0.020243999999999998,-0.040806999999999996,,,,,,,,,,,,,,,,,,,,,,,,,,,,,,,,,,,,,,,,,,,,,,,,,,,,,,,,,,,,,,,,,
18560,1645817877.348883,1645817877.362253,67.0,0.0,4376.922852000001,4683.589844,4220.512695,4193.333496,4325.641113000001,450.0,1.0,15.0,,,,0.0,4.0,0.0,4.0,0.0,4.0,33.333332,,,,,,,,,,,,,,,,,,,,,,,,,,,,,,,,,,,,,,,,,,,,,,,,,,,,,,0.0,0.0,1.0,0.0,512.0,1.0,,,,,,,,,,,,,,,,,,,,,,,,,
18561,1645817877.356698,1645817877.370067,68.0,0.0,4366.153809,4650.769043,4232.307617,4172.307617,4317.94873,0.0,1.0,15.0,,,,0.0,4.0,0.0,4.0,0.0,4.0,33.333332,,,,,,,,34.0,0.0,0.180741,0.6140140000000001,-0.13915999999999998,-0.7556149999999999,0.881849,-0.43946,-0.223636,-0.014165,-0.020172,-0.042732,,,,,,,,,,,,,,,,,,,,,,,,,,,,,,,,,,,,,,,,,,,,,,,,,,,,,,,,,,,,,,,,,
18562,1645817877.364514,1645817877.377882,69.0,0.0,4362.05127,4686.666504,4240.0,4216.922852000001,4301.538574,450.0,1.0,15.0,,,,0.0,4.0,0.0,4.0,0.0,4.0,33.333332,,,,,,,,,,,,,,,,,,,,,,,,,,,,,,,,,,,,,,,,,,,,,,,,,,,,,,,,,,,,,,,,,,,,,,,,,,,,,,,,,,,,
18563,1645817877.372329,1645817877.3856962,70.0,0.0,4369.230957,4642.563965,4242.563965,4244.615234000001,4301.538574,16180.0,1.0,15.0,,,,0.0,4.0,0.0,4.0,0.0,4.0,33.333332,,,,,,,,35.0,0.0,0.18093199999999998,0.614258,-0.13915999999999998,-0.755371,0.885267,-0.448737,-0.22510100000000002,-0.014506999999999999,-0.020108,-0.038215,,,,,,,,,,,,,,,,,,,,,,,,,,,,,,,,,,,,,,,,,,,,,,,,,,,,,,,,,,,,,,,,,
18564,1645817877.380144,1645817877.39341,71.0,0.0,4362.563965,4585.128418,4232.307617,4208.717772999999,4306.153809,450.0,1.0,15.0,,,,0.0,4.0,0.0,4.0,0.0,4.0,33.333332,,,,,,,,,,,,,,,,,,,,,,,,,,,,,,,,,,,,,,,,,,,,,,,,,,,,,,0.0,0.0,1.0,0.0,512.0,1.0,,,,,,,,,,,,,,,,,,,,,,,,,
18565,1645817877.38796,1645817877.401225,72.0,0.0,4350.769043,4631.282227000001,4216.922852000001,4202.05127,4299.487305,450.0,1.0,15.0,,,,0.0,4.0,0.0,4.0,0.0,4.0,33.333332,,,,,,,,36.0,0.0,0.181948,0.614258,-0.13915999999999998,-0.755127,0.893568,-0.431647,-0.227543,-0.013202,-0.020148,-0.040399000000000004,,,,,,,,,,,,,,,,,,,,,,,,,,,,,,,,,,,,,,,,,,,,,,,,,,,,,,,,,,,,,,,,,
18566,1645817877.395775,1645817877.409039,73.0,0.0,4385.128418,4635.384765999999,4247.179688,4244.615234000001,4321.538574,3.0,1.0,15.0,,,,0.0,4.0,0.0,4.0,0.0,4.0,33.333332,,,,,,,,,,,,,,,,,,,,,,,,,,,,,,,,,,,,,,,,,,,,,,,,,,,,,,,,,,,,,,,,,,,,,,,,,,,,,,,,,,,,
18567,1645817877.403591,1645817877.416854,74.0,0.0,4393.846191,4616.922852000001,4265.641113000001,4239.487305,4329.743652,450.0,1.0,15.0,,,,0.0,4.0,0.0,4.0,0.0,4.0,33.333332,,,,,,,,37.0,0.0,0.181122,0.614502,-0.13915999999999998,-0.755127,0.8916149999999999,-0.43994799999999995,-0.215335,-0.01198,-0.020135,-0.042316,,,,,,,,,,,,,,,,,,,,,,,,,,,,,,,,,,,,,,,,,,,,,,,,,,,,,,,,,,,,,,,,,
18568,1645817877.411406,1645817877.424668,75.0,0.0,4343.589844,4693.333496,4229.230957,4204.102539,4288.205078,16189.0,1.0,15.0,,,,0.0,4.0,0.0,4.0,0.0,4.0,33.333332,,,,,,,,,,,,,,,,,,,,,,,,,,,,,,,,,,,,,,,,,,,,,,,,,,,,,,0.0,0.0,1.0,0.0,512.0,1.0,,,,,,,,,,,,,,,,,,,,,,,,,
18569,1645817877.419222,1645817877.432483,76.0,0.0,4346.153809,4730.769043,4225.128418,4220.512695,4295.384765999999,450.0,1.0,15.0,,,,0.0,4.0,0.0,4.0,0.0,4.0,33.333332,,,,,,,,38.0,0.0,0.182137,0.614502,-0.13915999999999998,-0.754883,0.8896620000000001,-0.421393,-0.20556999999999997,-0.01254,-0.020222,-0.043993,,,,,,,,,,,,,,,,,,,,,,,,,,,,,,,,,,,,,,,,,,,,,,,,,,,,,,,,,,,,,,,,,
18570,1645817877.427037,1645817877.4402971,77.0,0.0,4371.282227000001,4642.563965,4235.897461,4242.563965,4320.0,450.0,1.0,15.0,,,,0.0,4.0,0.0,4.0,0.0,4.0,33.333332,,,,,,,,,,,,,,,,,,,,,,,,,,,,,,,,,,,,,,,,,,,,,,,,,,,,,,,,,,,,,,,,,,,,,,,,,,,,,,,,,,,,
18571,1645817877.4348528,1645817877.4481108,78.0,0.0,4350.256348,4602.563965,4214.871582,4217.436035,4288.717772999999,450.0,1.0,15.0,,,,0.0,4.0,0.0,4.0,0.0,4.0,33.333332,,,,,,,,39.0,0.0,0.182137,0.614502,-0.13915999999999998,-0.754883,0.885267,-0.43262399999999995,-0.215824,-0.013141,-0.020153,-0.039300999999999996,,,,,,,,,,,,,,,,,,,,,,,,,,,,,,,,,,,,,,,,,,,,,,,,,,,,,,,,,,,,,,,,,
18572,1645817877.442668,1645817877.455926,79.0,0.0,4371.282227000001,4649.743652,4240.0,4213.333496,4304.102539,16189.0,1.0,15.0,,,,0.0,4.0,0.0,4.0,0.0,4.0,33.333332,,,,,,,,,,,,,,,,,,,,1.0,0.0,0.0,,,,,,,,,,,,,,,,,,,,,,,,,,,,,,,,0.0,0.0,1.0,0.0,512.0,1.0,2.5851669999999998,1.8565209999999999,0.7145729999999999,2.124916,1.8283060000000002,10.040593,9.358172999999999,7.145969999999999,14.367521,11.273871,1.97226,2.181416,0.699295,2.424157,2.361212,19.348433,41.442818,56.64818199999999,12.201024,12.812028999999999,3.7497480000000003,3.358917,1.006253,3.501981,1.748995
18573,1645817877.450484,1645817877.46374,80.0,0.0,4386.153809,4674.358886999999,4257.436035,4222.05127,4322.563965,450.0,1.0,15.0,,,,0.0,4.0,0.0,4.0,0.0,4.0,33.333332,,,,,,,,40.0,0.0,0.181311,0.614746,-0.13915999999999998,-0.754883,0.8847790000000001,-0.42822899999999997,-0.227054,-0.013585,-0.020041999999999997,-0.041377,,,,,,,,,,,,,,,,,,,,,,,,,,,,,,,,,,,,,,,,,,,,,,,,,,,,,,,,,,,,,,,,,
18574,1645817877.458299,1645817877.471455,81.0,0.0,4327.179688,4624.615234000001,4206.666504,4207.692383,4265.641113000001,450.0,1.0,15.0,,,,0.0,4.0,0.0,4.0,0.0,4.0,33.333332,,,,,,,,,,,,,,,,,,,,,,,,,,,,,,,,,,,,,,,,,,,,,,,,,,,,,,,,,,,,,,,,,,,,,,,,,,,,,,,,,,,,
18575,1645817877.466115,1645817877.479269,82.0,0.0,4320.0,4573.333496,4203.077147999999,4209.230957,4262.05127,450.0,1.0,15.0,,,,0.0,4.0,0.0,4.0,0.0,4.0,33.333332,,,,,,,,41.0,0.0,0.181498,0.614746,-0.138916,-0.754883,0.8872209999999999,-0.440925,-0.208988,-0.013935,-0.020038999999999998,-0.037044,,,,,,,,,,,,,,,,,,,,,,,,,,,,,,,,,,,,,,,,,,,,,,,,,,,,,,,,,,,,,,,,,
18576,1645817877.4739301,1645817877.487083,83.0,0.0,4373.846191,4630.256348,4240.512695,4241.025879,4310.256348,16189.0,1.0,15.0,,,,0.0,4.0,0.0,4.0,0.0,4.0,33.333332,,,,,,,,,,,,,,,,,,,,,,,,,,,,,,,,,,,,,,,,,,,,,,,,,,,,,,0.0,0.0,1.0,0.0,512.0,1.0,,,,,,,,,,,,,,,,,,,,,,,,,
18577,1645817877.4817462,1645817877.494898,84.0,0.0,4388.717772999999,4707.179688,4233.846191,4259.487305,4313.333496,450.0,1.0,15.0,,,,0.0,4.0,0.0,4.0,0.0,4.0,33.333332,,,,,,,,42.0,0.0,0.181498,0.614746,-0.138916,-0.754883,0.877943,-0.427741,-0.21484699999999998,-0.012688,-0.019989,-0.039248000000000005,,,,,,,,,,,,,,,,,,,,,,,,,,,,,,,,,,,,,,,,,,,,,,,,,,,,,,,,,,,,,,,,,
18578,1645817877.4895608,1645817877.502712,85.0,0.0,4387.179688,4690.769043,4236.922852000001,4253.333496,4318.461426,450.0,1.0,15.0,,,,0.0,4.0,0.0,4.0,0.0,4.0,33.333332,,,,,,,,,,,,,,,,,,,,,,,,,,,,,,,,,,,,,,,,,,,,,,,,,,,,,,,,,,,,,,,,,,,,,,,,,,,,,,,,,,,,
18579,1645817877.497377,1645817877.510527,86.0,0.0,4382.05127,4620.512695,4245.128418,4234.358886999999,4321.538574,450.0,1.0,15.0,,,,0.0,4.0,0.0,4.0,0.0,4.0,33.333332,,,,,,,,43.0,0.0,0.181498,0.614746,-0.138916,-0.754883,0.8989389999999999,-0.43653000000000003,-0.204105,-0.013177000000000001,-0.020089,-0.041280000000000004,,,,,,,,,,,,,,,,,,,,,,,,,,,,,,,,,,,,,,,,,,,,,,,,,,,,,,,,,,,,,,,,,
18580,1645817877.505192,1645817877.518341,87.0,0.0,4345.128418,4592.307617,4212.820313,4222.563965,4273.333496,16189.0,1.0,15.0,,,,0.0,4.0,0.0,4.0,0.0,4.0,33.333332,,,,,,,,,,,,,,,,,,,,,,,,,,,,,,,,,,,,,,,,,,,,,,,,,,,,,,0.0,0.0,1.0,0.0,512.0,1.0,,,,,,,,,,,,,,,,,,,,,,,,,
18581,1645817877.513008,1645817877.526156,88.0,0.0,4341.025879,4670.769043,4200.0,4235.384765999999,4272.307617,450.0,1.0,15.0,,,,0.0,4.0,0.0,4.0,0.0,4.0,33.333332,,,,,,,,44.0,0.0,0.18168499999999999,0.614746,-0.138672,-0.754883,0.8886850000000001,-0.438483,-0.211429,-0.012055,-0.020229,-0.036907999999999996,,,,,,,,,,,,,,,,,,,,,,,,,,,,,,,,,,,,,,,,,,,,,,,,,,,,,,,,,,,,,,,,,
18582,1645817877.520823,1645817877.5339699,89.0,0.0,4364.102539,4732.820313,4214.358886999999,4239.487305,4306.153809,450.0,1.0,15.0,,,,0.0,4.0,0.0,4.0,0.0,4.0,33.333332,,,,,,,,,,,,,,,,,,,,,,,,,,,,,,,,,,,,,,,,,,,,,,,,,,,,,,,,,,,,,,,,,,,,,,,,,,,,,,,,,,,,
18583,1645817877.5286381,1645817877.541684,90.0,0.0,4371.794922,4651.282227000001,4226.153809,4225.128418,4302.05127,450.0,1.0,15.0,,,,0.0,4.0,0.0,4.0,0.0,4.0,33.333332,,,,,,,,45.0,0.0,0.180856,0.6149899999999999,-0.138672,-0.754883,0.8896620000000001,-0.433112,-0.20703400000000002,-0.011045000000000001,-0.020208,-0.039125,,,,,,,,,,,,,,,,,,,,,,,,,,,,,,,,,,,,,,,,,,,,,,,,,,,,,,,,,,,,,,,,,
18584,1645817877.536454,1645817877.549499,91.0,0.0,4376.410156,4586.153809,4247.692383,4234.358886999999,4305.641113000001,16189.0,1.0,15.0,,,,0.0,4.0,0.0,4.0,0.0,4.0,33.333332,,,,,,,,,,,,,,,,,,,,,,,,,,,,,,,,,,,,,,,,,,,,,,,,,,,,,,0.0,0.0,1.0,0.0,512.0,1.0,,,,,,,,,,,,,,,,,,,,,,,,,
18585,1645817877.5442688,1645817877.5573132,92.0,0.0,4376.922852000001,4651.794922,4251.282227000001,4250.769043,4319.487305,450.0,1.0,15.0,,,,0.0,4.0,0.0,4.0,0.0,4.0,33.333332,,,,,,,,46.0,0.0,0.181498,0.614746,-0.138916,-0.754883,0.8989389999999999,-0.43653000000000003,-0.204105,-0.011698,-0.020287,-0.04117,,,,,,,,,,,,,,,,,,,,,,,,,,,,,,,,,,,,,,,,,,,,,,,,,,,,,,,,,,,,,,,,,
18586,1645817877.552085,1645817877.5651278,93.0,0.0,4358.974121,4673.846191,4207.692383,4224.615234000001,4303.077147999999,450.0,1.0,15.0,,,,0.0,4.0,0.0,4.0,0.0,4.0,33.333332,,,,,,,,,,,,,,,,,,,,,,,,,,,,,,,,,,,,,,,,,,,,,,,,,,,,,,,,,,,,,,,,,,,,,,,,,,,,,,,,,,,,
18587,1645817877.5599,1645817877.572942,94.0,0.0,4345.128418,4608.205078,4184.615234000001,4201.538574,4287.692383,450.0,1.0,15.0,,,,0.0,4.0,0.0,4.0,0.0,4.0,33.333332,,,,,,,,47.0,0.0,0.180856,0.6149899999999999,-0.138672,-0.754883,0.8896620000000001,-0.433112,-0.20703400000000002,-0.010724,-0.02026,-0.042961,,,,,,,,,,,,,,,,,,,,,,,,,,,,,,,,,,,,,,,,,,,,,,,,,,,,,,,,,,,,,,,,,
18588,1645817877.5677161,1645817877.580756,95.0,0.0,4354.871582,4598.461426,4205.128418,4222.05127,4293.846191,16189.0,1.0,15.0,,,,0.0,4.0,0.0,4.0,0.0,4.0,33.333332,,,,,,,,,,,,,,,,,,,,1.0,0.0,0.0,,,,,,,,,,,,,,,,,,,,,,,,,,,,,,,,0.0,0.0,1.0,0.0,512.0,1.0,2.6419349999999997,2.019462,0.605658,2.141357,1.7242549999999999,11.365796000000001,8.716474,6.724614,13.437949,10.903518,1.886944,2.2067069999999998,0.627564,2.268001,2.273368,21.236582000000002,36.596073,56.805068999999996,12.353467,13.420370000000002,3.465212,3.862997,0.9335870000000001,3.542994,1.7058520000000001
18589,1645817877.575531,1645817877.588571,96.0,0.0,4380.0,4613.846191,4232.820313,4241.538574,4313.333496,450.0,1.0,15.0,,,,0.0,4.0,0.0,4.0,0.0,4.0,33.333332,,,,,,,,48.0,0.0,0.180856,0.6149899999999999,-0.138672,-0.754883,0.8881969999999999,-0.41651000000000005,-0.212894,-0.011311,-0.020236,-0.044622,,,,,,,,,,,,,,,,,,,,,,,,,,,,,,,,,,,,,,,,,,,,,,,,,,,,,,,,,,,,,,,,,
18590,1645817877.583347,1645817877.596385,97.0,0.0,4387.692383,4584.615234000001,4239.487305,4242.05127,4316.410156,450.0,1.0,15.0,,,,0.0,4.0,0.0,4.0,0.0,4.0,33.333332,,,,,,,,,,,,,,,,,,,,,,,,,,,,,,,,,,,,,,,,,,,,,,,,,,,,,,,,,,,,,,,,,,,,,,,,,,,,,,,,,,,,
18591,1645817877.591162,1645817877.6042,98.0,0.0,4351.282227000001,4590.256348,4209.230957,4244.102539,4278.974121,450.0,1.0,15.0,,,,0.0,4.0,0.0,4.0,0.0,4.0,33.333332,,,,,,,,49.0,0.0,0.181043,0.6149899999999999,-0.138428,-0.754883,0.8872209999999999,-0.42969399999999996,-0.211917,-0.011937999999999999,-0.020166,-0.039818,,,,,,,,,,,,,,,,,,,,,,,,,,,,,,,,,,,,,,,,,,,,,,,,,,,,,,,,,,,,,,,,,
18592,1645817877.598978,1645817877.612014,99.0,0.0,4328.717772999999,4645.128418,4188.717772999999,4236.410156,4260.0,16189.0,1.0,15.0,,,,0.0,4.0,0.0,4.0,0.0,4.0,33.333332,,,,,,,,,,,,,,,,,,,,,,,,,,,,,,,,,,,,,,,,,,,,,,,,,,,,,,0.0,0.0,1.0,0.0,512.0,1.0,,,,,,,,,,,,,,,,,,,,,,,,,
18593,1645817877.606793,1645817877.6197288,100.0,0.0,4353.846191,4685.128418,4215.897461,4235.897461,4295.897461,450.0,1.0,15.0,,,,0.0,4.0,0.0,4.0,0.0,4.0,33.333332,,,,,,,,50.0,0.0,0.18168499999999999,0.614746,-0.138672,-0.754883,0.894057,-0.438483,-0.215824,-0.012551,-0.0202,-0.041842000000000004,,,,,,,,,,,,,,,,,,,,,,,,,,,,,,,,,,,,,,,,,,,,,,,,,,,,,,,,,,,,,,,,,
18594,1645817877.614609,1645817877.627543,101.0,0.0,4363.589844,4668.205078,4228.717772999999,4234.871582,4299.487305,450.0,1.0,15.0,,,,0.0,4.0,0.0,4.0,0.0,4.0,33.333332,,,,,,,,,,,,,,,,,,,,,,,,,,,,,,,,,,,,,,,,,,,,,,,,,,,,,,,,,,,,,,,,,,,,,,,,,,,,,,,,,,,,
18595,1645817877.6224241,1645817877.6353571,102.0,0.0,4353.333496,4661.538574,4212.307617,4208.205078,4283.077147999999,450.0,1.0,15.0,,,,0.0,4.0,0.0,4.0,0.0,4.0,33.333332,,,,,,,,51.0,0.0,0.18168499999999999,0.614746,-0.138672,-0.754883,0.8896620000000001,-0.42822899999999997,-0.217288,-0.011442,-0.020133,-0.043664,,,,,,,,,,,,,,,,,,,,,,,,,,,,,,,,,,,,,,,,,,,,,,,,,,,,,,,,,,,,,,,,,
18596,1645817877.63024,1645817877.643172,103.0,0.0,4353.846191,4641.025879,4222.563965,4211.794922,4296.410156,16189.0,1.0,15.0,,,,0.0,4.0,0.0,4.0,0.0,4.0,33.333332,,,,,,,,,,,,,,,,,,,,,,,,,,,,,,,,,,,,,,,,,,,,,,,,,,,,,,0.0,0.0,1.0,0.0,512.0,1.0,,,,,,,,,,,,,,,,,,,,,,,,,
18597,1645817877.638055,1645817877.650986,104.0,0.0,4358.461426,4545.128418,4233.846191,4253.846191,4288.717772999999,450.0,1.0,15.0,,,,0.0,4.0,0.0,4.0,0.0,4.0,33.333332,,,,,,,,52.0,0.0,0.18168499999999999,0.614746,-0.138672,-0.754883,0.8886850000000001,-0.431159,-0.21924200000000002,-0.010347,-0.020171,-0.045157,,,,,,,,,,,,,,,,,,,,,,,,,,,,,,,,,,,,,,,,,,,,,,,,,,,,,,,,,,,,,,,,,
18598,1645817877.6458712,1645817877.658801,105.0,0.0,4357.436035,4471.282227000001,4202.563965,4258.974121,4278.974121,450.0,1.0,15.0,,,,0.0,4.0,0.0,4.0,0.0,4.0,33.333332,,,,,,,,,,,,,,,,,,,,,,,,,,,,,,,,,,,,,,,,,,,,,,,,,,,,,,,,,,,,,,,,,,,,,,,,,,,,,,,,,,,,
18599,1645817877.653686,1645817877.666615,106.0,0.0,4338.461426,4420.0,4180.512695,4226.153809,4292.820313,450.0,1.0,15.0,,,,0.0,4.0,0.0,4.0,0.0,4.0,33.333332,,,,,,,,53.0,0.0,0.18168499999999999,0.614746,-0.138672,-0.754883,0.889174,-0.43653000000000003,-0.21240599999999998,-0.011021,-0.020253,-0.046599,,,,,,,,,,,,,,,,,,,,,,,,,,,,,,,,,,,,,,,,,,,,,,,,,,,,,,,,,,,,,,,,,
18600,1645817877.661502,1645817877.674429,107.0,0.0,4333.333496,4371.794922,4211.282227000001,4209.230957,4296.922852000001,16189.0,1.0,15.0,,,,0.0,4.0,0.0,4.0,0.0,4.0,33.333332,,,,,,,,,,,,,,,,,,,,,,,,,,,,,,,,,,,,,,,,,,,,,,,,,,,,,,0.0,0.0,1.0,0.0,512.0,1.0,,,,,,,,,,,,,,,,,,,,,,,,,
18601,1645817877.669317,1645817877.682244,108.0,0.0,4364.102539,4468.205078,4236.922852000001,4213.846191,4296.922852000001,450.0,1.0,15.0,,,,0.0,4.0,0.0,4.0,0.0,4.0,33.333332,,,,,,,,54.0,0.0,0.180667,0.614746,-0.138672,-0.755127,0.8930799999999999,-0.43653000000000003,-0.210452,-0.010017,-0.020328,-0.047945,,,,,,,,,,,,,,,,,,,,,,,,,,,,,,,,,,,,,,,,,,,,,,,,,,,,,,,,,,,,,,,,,
18602,1645817877.6771321,1645817877.690058,109.0,0.0,4366.153809,4660.512695,4215.384765999999,4235.384765999999,4298.974121,450.0,1.0,15.0,,,,0.0,4.0,0.0,4.0,0.0,4.0,33.333332,,,,,,,,,,,,,,,,,,,,,,,,,,,,,,,,,,,,,,,,,,,,,,,,,,,,,,,,,,,,,,,,,,,,,,,,,,,,,,,,,,,,
18603,1645817877.684948,1645817877.697773,110.0,0.0,4330.769043,4675.384765999999,4190.769043,4255.384765999999,4275.897461,450.0,1.0,15.0,,,,0.0,4.0,0.0,4.0,0.0,4.0,33.333332,,,,,,,,55.0,0.0,0.18048,0.614746,-0.138916,-0.755127,0.894057,-0.430671,-0.217288,-0.010773,-0.020443,-0.049058,,,,,,,,,,,,,,,,,,,,,,,,,,,,,,,,,,,,,,,,,,,,,,,,,,,,,,,,,,,,,,,,,
18604,1645817877.692763,1645817877.705587,111.0,0.0,4335.384765999999,4580.512695,4204.615234000001,4236.922852000001,4273.846191,16189.0,1.0,15.0,,,,0.0,4.0,0.0,4.0,0.0,4.0,33.333332,,,,,,,,,,,,,,,,,,,,1.0,0.0,0.0,,,,,,,,,,,,,,,,,,,,,,,,,,,,,,,,0.0,0.0,1.0,0.0,512.0,1.0,2.581075,2.107371,0.557801,2.078935,1.648293,13.831788000000001,7.678227000000001,6.3908629999999995,11.80567,10.680603,1.685415,2.249254,0.582377,2.086402,2.1430689999999997,22.544819,29.084326,51.171375,11.557243,12.578485,3.193707,4.051464,0.924392,3.366747,1.676449
18605,1645817877.700579,1645817877.713402,112.0,0.0,4356.922852000001,4569.743652,4223.077147999999,4207.179688,4297.94873,450.0,1.0,15.0,,,,0.0,4.0,0.0,4.0,0.0,4.0,33.333332,,,,,,,,56.0,0.0,0.181309,0.614502,-0.138916,-0.755127,0.894057,-0.443366,-0.223636,-0.011454,-0.020499,-0.04386,,,,,,,,,,,,,,,,,,,,,,,,,,,,,,,,,,,,,,,,,,,,,,,,,,,,,,,,,,,,,,,,,
18606,1645817877.708394,1645817877.721216,113.0,0.0,4362.05127,4573.846191,4232.820313,4210.769043,4307.179688,450.0,1.0,15.0,,,,0.0,4.0,0.0,4.0,0.0,4.0,33.333332,,,,,,,,,,,,,,,,,,,,,,,,,,,,,,,,,,,,,,,,,,,,,,,,,,,,,,,,,,,,,,,,,,,,,,,,,,,,,,,,,,,,
18607,1645817877.71621,1645817877.7290301,114.0,0.0,4375.897461,4586.666504,4240.0,4212.307617,4305.128418,450.0,1.0,15.0,,,,0.0,4.0,0.0,4.0,0.0,4.0,33.333332,,,,,,,,57.0,0.0,0.181122,0.614502,-0.13915999999999998,-0.755127,0.885267,-0.438483,-0.22900700000000002,-0.012017,-0.020548,-0.045382,,,,,,,,,,,,,,,,,,,,,,,,,,,,,,,,,,,,,,,,,,,,,,,,,,,,,,,,,,,,,,,,,
18608,1645817877.724025,1645817877.736845,115.0,0.0,4369.743652,4650.256348,4220.512695,4193.333496,4293.333496,16189.0,1.0,15.0,,,,0.0,4.0,0.0,4.0,0.0,4.0,33.333332,,,,,,,,,,,,,,,,,,,,,,,,,,,,,,,,,,,,,,,,,,,,,,,,,,,,,,0.0,0.0,1.0,0.0,512.0,1.0,,,,,,,,,,,,,,,,,,,,,,,,,
18609,1645817877.731841,1645817877.744659,116.0,0.0,4329.743652,4626.666504,4193.846191,4181.538574,4267.179688,450.0,1.0,15.0,,,,0.0,4.0,0.0,4.0,0.0,4.0,33.333332,,,,,,,,58.0,0.0,0.181309,0.614502,-0.138916,-0.755127,0.8842909999999999,-0.43408900000000006,-0.21875300000000003,-0.012426999999999999,-0.020544,-0.040501999999999996,,,,,,,,,,,,,,,,,,,,,,,,,,,,,,,,,,,,,,,,,,,,,,,,,,,,,,,,,,,,,,,,,
18610,1645817877.739656,1645817877.752474,117.0,0.0,4339.487305,4567.692383,4212.307617,4217.436035,4282.563965,450.0,1.0,15.0,,,,0.0,4.0,0.0,4.0,0.0,4.0,33.333332,,,,,,,,,,,,,,,,,,,,,,,,,,,,,,,,,,,,,,,,,,,,,,,,,,,,,,,,,,,,,,,,,,,,,,,,,,,,,,,,,,,,
18611,1645817877.747472,1645817877.760288,118.0,0.0,4393.333496,4579.487305,4252.820313,4298.461426,4333.333496,450.0,1.0,15.0,,,,0.0,4.0,0.0,4.0,0.0,4.0,33.333332,,,,,,,,59.0,0.0,0.18048,0.614746,-0.138916,-0.755127,0.886244,-0.42188100000000006,-0.21875300000000003,-0.011281999999999999,-0.020541,-0.042408999999999995,,,,,,,,,,,,,,,,,,,,,,,,,,,,,,,,,,,,,,,,,,,,,,,,,,,,,,,,,,,,,,,,,
18612,1645817877.755287,1645817877.768003,119.0,0.0,4374.871582,4597.94873,4236.410156,4293.333496,4309.743652,16189.0,1.0,15.0,,,,0.0,4.0,0.0,4.0,0.0,4.0,33.333332,,,,,,,,,,,,,,,,,,,,,,,,,,,,,,,,,,,,,,,,,,,,,,,,,,,,,,0.0,0.0,1.0,0.0,512.0,1.0,,,,,,,,,,,,,,,,,,,,,,,,,
18613,1645817877.763103,1645817877.775817,120.0,0.0,4318.461426,4622.05127,4195.384765999999,4196.922852000001,4252.307617,450.0,1.0,15.0,,,,0.0,4.0,0.0,4.0,0.0,4.0,33.333332,,,,,,,,60.0,0.0,0.181498,0.614746,-0.138916,-0.754883,0.893568,-0.43408900000000006,-0.217288,-0.010398000000000001,-0.020684,-0.043979000000000004,,,,,,,,,,,,,,,,,,,,,,,,,,,,,,,,,,,,,,,,,,,,,,,,,,,,,,,,,,,,,,,,,
18614,1645817877.770918,1645817877.783631,121.0,0.0,4329.743652,4668.205078,4202.563965,4220.0,4260.512695,450.0,1.0,15.0,,,,0.0,4.0,0.0,4.0,0.0,4.0,33.333332,,,,,,,,,,,,,,,,,,,,,,,,,,,,,,,,,,,,,,,,,,,,,,,,,,,,,,,,,,,,,,,,,,,,,,,,,,,,,,,,,,,,
18615,1645817877.778734,1645817877.7914462,122.0,0.0,4383.589844,4661.538574,4237.436035,4322.563965,4312.307617,450.0,1.0,15.0,,,,0.0,4.0,0.0,4.0,0.0,4.0,33.333332,,,,,,,,61.0,0.0,0.181498,0.614746,-0.138916,-0.754883,0.892592,-0.43408900000000006,-0.20996399999999998,-0.011018,-0.020569,-0.045587,,,,,,,,,,,,,,,,,,,,,,,,,,,,,,,,,,,,,,,,,,,,,,,,,,,,,,,,,,,,,,,,,
18616,1645817877.786549,1645817877.79926,123.0,0.0,4400.512695,4612.820313,4254.871582,4287.692383,4326.153809,16189.0,1.0,15.0,,,,0.0,4.0,0.0,4.0,0.0,4.0,33.333332,,,,,,,,,,,,,,,,,,,,,,,,,,,,,,,,,,,,,,,,,,,,,,,,,,,,,,0.0,0.0,1.0,0.0,512.0,1.0,,,,,,,,,,,,,,,,,,,,,,,,,
18617,1645817877.794365,1645817877.807075,124.0,0.0,4397.436035,4662.563965,4254.871582,4227.692383,4322.563965,450.0,1.0,15.0,,,,0.0,4.0,0.0,4.0,0.0,4.0,33.333332,,,,,,,,62.0,0.0,0.181498,0.614746,-0.138916,-0.754883,0.894545,-0.446784,-0.215824,-0.010014,-0.020562999999999998,-0.046985,,,,,,,,,,,,,,,,,,,,,,,,,,,,,,,,,,,,,,,,,,,,,,,,,,,,,,,,,,,,,,,,,
18618,1645817877.80218,1645817877.814889,125.0,0.0,4380.512695,4767.179688,4228.717772999999,4262.05127,4310.769043,450.0,1.0,15.0,,,,0.0,4.0,0.0,4.0,0.0,4.0,33.333332,,,,,,,,,,,,,,,,,,,,,,,,,,,,,,,,,,,,,,,,,,,,,,,,,,,,,,,,,,,,,,,,,,,,,,,,,,,,,,,,,,,,
18619,1645817877.8099961,1645817877.822703,126.0,0.0,4365.128418,4765.641113000001,4213.846191,4247.179688,4294.358886999999,450.0,1.0,15.0,,,,0.0,4.0,0.0,4.0,0.0,4.0,33.333332,,,,,,,,63.0,0.0,0.181498,0.614746,-0.138916,-0.754883,0.887709,-0.441413,-0.241215,-0.010673,-0.020557,-0.048244,,,,,,,,,,,,,,,,,,,,,,,,,,,,,,,,,,,,,,,,,,,,,,,,,,,,,,,,,,,,,,,,,
18620,1645817877.817811,1645817877.830518,127.0,0.0,4376.410156,4667.692383,4227.179688,4185.641113000001,4310.256348,233.0,1.0,15.0,,,,0.0,4.0,0.0,4.0,0.0,4.0,33.333332,1.0,25.0,3.0,0.0,3.0,0.0,4.0,,,,,,,,,,,,,1.0,0.0,0.0,,,,,,,,,,,,,,,,,,,,,,,,,,,,,,,,0.0,0.0,1.0,0.0,512.0,1.0,2.336185,2.114417,0.605982,2.0344900000000004,1.618087,16.963205,6.973269,6.611936,10.017331,10.760102999999999,1.422699,2.334378,0.553559,2.000258,2.004568,23.125598999999998,21.344162,41.150504999999995,10.135116,10.644642,2.805648,3.892759,1.015793,3.0962330000000002,1.676908
18621,1645817877.825626,1645817877.838232,0.0,0.0,4371.282227000001,4580.512695,4226.666504,4183.077147999999,4310.256348,450.0,1.0,15.0,,,,0.0,4.0,0.0,4.0,0.0,4.0,33.333332,,,,,,,,0.0,0.0,0.181311,0.614746,-0.13915999999999998,-0.754883,0.8842909999999999,-0.445808,-0.22070599999999999,-0.011266,-0.020503,-0.049377,,,,,,,,,,,,,,,,,,,,,,,,,,,,,,,,,,,,,,,,,,,,,,,,,,,,,,,,,,,,,,,,,
18622,1645817877.833442,1645817877.8460472,1.0,0.0,4364.102539,4582.05127,4215.897461,4196.922852000001,4294.358886999999,450.0,1.0,15.0,,,,0.0,4.0,0.0,4.0,0.0,4.0,33.333332,,,,,,,,,,,,,,,,,,,,,,,,,,,,,,,,,,,,,,,,,,,,,,,,,,,,,,,,,,,,,,,,,,,,,,,,,,,,,,,,,,,,
18623,1645817877.841257,1645817877.8538609,2.0,0.0,4372.307617,4601.025879,4225.128418,4201.538574,4301.025879,16181.0,1.0,15.0,,,,0.0,4.0,0.0,4.0,0.0,4.0,33.333332,,,,,,,,1.0,0.0,0.18250999999999998,0.614746,-0.138916,-0.7546390000000001,0.890639,-0.43408900000000006,-0.21338200000000002,-0.011946,-0.020602000000000002,-0.050445,,,,,,,,,,,,,,,,,,,,,,,,,,,,,,,,,,,,,,,,,,,,,,,,,,,,,,,,,,,,,,,,,
18624,1645817877.849073,1645817877.861676,3.0,0.0,4352.307617,4583.589844,4206.666504,4198.974121,4290.769043,450.0,1.0,15.0,,,,0.0,4.0,0.0,4.0,0.0,4.0,33.333332,,,,,,,,,,,,,,,,,,,,,,,,,,,,,,,,,,,,,,,,,,,,,,,,,,,,,,0.0,0.0,1.0,0.0,512.0,1.0,,,,,,,,,,,,,,,,,,,,,,,,,
18625,1645817877.856888,1645817877.8694901,4.0,0.0,4334.871582,4587.692383,4184.615234000001,4202.563965,4266.666504,0.0,1.0,15.0,,,,0.0,4.0,0.0,4.0,0.0,4.0,33.333332,,,,,,,,2.0,0.0,0.181498,0.614746,-0.138916,-0.754883,0.8847790000000001,-0.44824899999999995,-0.220218,-0.012411,-0.020641,-0.045156,,,,,,,,,,,,,,,,,,,,,,,,,,,,,,,,,,,,,,,,,,,,,,,,,,,,,,,,,,,,,,,,,
18626,1645817877.864704,1645817877.8773038,5.0,0.0,4353.846191,4646.666504,4196.410156,4214.358886999999,4277.94873,450.0,1.0,15.0,,,,0.0,4.0,0.0,4.0,0.0,4.0,33.333332,,,,,,,,,,,,,,,,,,,,,,,,,,,,,,,,,,,,,,,,,,,,,,,,,,,,,,,,,,,,,,,,,,,,,,,,,,,,,,,,,,,,
18627,1645817877.872519,1645817877.885119,6.0,0.0,4341.025879,4669.230957,4194.871582,4224.102539,4284.615234000001,16183.0,1.0,15.0,,,,0.0,4.0,0.0,4.0,0.0,4.0,33.333332,,,,,,,,3.0,0.0,0.181498,0.614746,-0.138916,-0.754883,0.878431,-0.424811,-0.211917,-0.012879,-0.02053,-0.046647,,,,,,,,,,,,,,,,,,,,,,,,,,,,,,,,,,,,,,,,,,,,,,,,,,,,,,,,,,,,,,,,,
18628,1645817877.8803349,1645817877.892933,7.0,0.0,4316.922852000001,4615.897461,4177.94873,4221.025879,4268.717772999999,450.0,1.0,15.0,,,,0.0,4.0,0.0,4.0,0.0,4.0,33.333332,,,,,,,,,,,,,,,,,,,,,,,,,,,,,,,,,,,,,,,,,,,,,,,,,,,,,,0.0,0.0,1.0,0.0,512.0,1.0,,,,,,,,,,,,,,,,,,,,,,,,,
18629,1645817877.88815,1645817877.900748,8.0,0.0,4356.410156,4589.230957,4198.461426,4221.538574,4292.820313,450.0,1.0,15.0,,,,0.0,4.0,0.0,4.0,0.0,4.0,33.333332,,,,,,,,4.0,0.0,0.181498,0.614746,-0.138916,-0.754883,0.8842909999999999,-0.43946,-0.22998400000000002,-0.013397999999999998,-0.020479,-0.041738,,,,,,,,,,,,,,,,,,,,,,,,,,,,,,,,,,,,,,,,,,,,,,,,,,,,,,,,,,,,,,,,,
18630,1645817877.895966,1645817877.908562,9.0,0.0,4390.256348,4606.153809,4224.102539,4233.846191,4318.974121,25.0,1.0,15.0,,,,0.0,4.0,0.0,4.0,0.0,4.0,33.333332,,,,,,,,,,,,,,,,,,,,,,,,,,,,,,,,,,,,,,,,,,,,,,,,,,,,,,,,,,,,,,,,,,,,,,,,,,,,,,,,,,,,
18631,1645817877.903781,1645817877.916277,10.0,0.0,4355.897461,4601.538574,4206.666504,4238.974121,4285.128418,450.0,1.0,15.0,,,,0.0,4.0,0.0,4.0,0.0,4.0,33.333332,,,,,,,,5.0,0.0,0.181309,0.614502,-0.138916,-0.755127,0.8881969999999999,-0.431647,-0.21973,-0.013816,-0.02058,-0.037271,,,,,,,,,,,,,,,,,,,,,,,,,,,,,,,,,,,,,,,,,,,,,,,,,,,,,,,,,,,,,,,,,
18632,1645817877.911597,1645817877.924091,11.0,0.0,4325.641113000001,4605.128418,4181.538574,4240.0,4256.922852000001,16178.0,1.0,15.0,,,,0.0,4.0,0.0,4.0,0.0,4.0,33.333332,,,,,,,,,,,,,,,,,,,,,,,,,,,,,,,,,,,,,,,,,,,,,,,,,,,,,,0.0,0.0,1.0,0.0,512.0,1.0,,,,,,,,,,,,,,,,,,,,,,,,,
18633,1645817877.919412,1645817877.931905,12.0,0.0,4327.179688,4645.128418,4176.922852000001,4240.0,4273.333496,450.0,1.0,15.0,,,,0.0,4.0,0.0,4.0,0.0,4.0,33.333332,,,,,,,,6.0,0.0,0.18048,0.614746,-0.138916,-0.755127,0.8989389999999999,-0.447272,-0.2168,-0.014046000000000001,-0.020524,-0.039403,,,,,,,,,,,,,,,,,,,,,,,,,,,,,,,,,,,,,,,,,,,,,,,,,,,,,,,,,,,,,,,,,
18634,1645817877.927228,1645817877.93972,13.0,0.0,4342.05127,4626.153809,4200.0,4249.743652,4295.897461,450.0,1.0,15.0,,,,0.0,4.0,0.0,4.0,0.0,4.0,33.333332,,,,,,,,,,,,,,,,,,,,,,,,,,,,,,,,,,,,,,,,,,,,,,,,,,,,,,,,,,,,,,,,,,,,,,,,,,,,,,,,,,,,
18635,1645817877.9350429,1645817877.947534,14.0,0.0,4351.794922,4559.487305,4213.333496,4264.102539,4292.820313,450.0,1.0,15.0,,,,0.0,4.0,0.0,4.0,0.0,4.0,33.333332,,,,,,,,7.0,0.0,0.181498,0.614746,-0.138916,-0.754883,0.903334,-0.42822899999999997,-0.21826500000000001,-0.012837000000000001,-0.02062,-0.035121,,,,,,,,,,,,,,,,,,,,,,,,,,,,,,,,,,,,,,,,,,,,,,,,,,,,,,,,,,,,,,,,,
18636,1645817877.942859,1645817877.955349,15.0,0.0,4334.871582,4565.641113000001,4187.179688,4248.717772999999,4273.333496,16178.0,1.0,15.0,,,,0.0,4.0,0.0,4.0,0.0,4.0,33.333332,,,,,,,,,,,,,,,,,,,,1.0,0.0,0.0,,,,,,,,,,,,,,,,,,,,,,,,,,,,,,,,0.0,0.0,1.0,0.0,512.0,1.0,1.9344279999999998,2.0363830000000003,0.754827,2.130811,1.652091,20.355921,8.127039,8.178493,8.817798,11.19866,1.174916,2.425076,0.549866,2.12735,1.9008,22.473751,15.169260999999999,29.295164,8.486759,8.311542,2.274299,3.468039,1.212207,2.8946810000000003,1.723395
18637,1645817877.950674,1645817877.9631631,16.0,0.0,4312.307617,4611.282227000001,4166.153809,4213.846191,4251.794922,0.0,1.0,15.0,,,,0.0,4.0,0.0,4.0,0.0,4.0,33.333332,,,,,,,,8.0,0.0,0.181498,0.614746,-0.138916,-0.754883,0.881849,-0.428717,-0.21631199999999998,-0.011748,-0.020609,-0.037614999999999996,,,,,,,,,,,,,,,,,,,,,,,,,,,,,,,,,,,,,,,,,,,,,,,,,,,,,,,,,,,,,,,,,
18638,1645817877.9584901,1645817877.970877,17.0,0.0,4326.666504,4615.384765999999,4194.358886999999,4217.436035,4254.358886999999,0.0,1.0,15.0,,,,0.0,4.0,0.0,4.0,0.0,4.0,33.333332,,,,,,,,,,,,,,,,,,,,,,,,,,,,,,,,,,,,,,,,,,,,,,,,,,,,,,,,,,,,,,,,,,,,,,,,,,,,,,,,,,,,
18639,1645817877.966305,1645817877.978692,18.0,0.0,4365.128418,4587.692383,4232.307617,4241.538574,4290.256348,0.0,1.0,15.0,,,,0.0,4.0,0.0,4.0,0.0,4.0,33.333332,,,,,,,,9.0,0.0,0.181872,0.6149899999999999,-0.138672,-0.7546390000000001,0.879408,-0.42969399999999996,-0.207523,-0.012234,-0.02055,-0.039811,,,,,,,,,,,,,,,,,,,,,,,,,,,,,,,,,,,,,,,,,,,,,,,,,,,,,,,,,,,,,,,,,
18640,1645817877.974121,1645817877.986506,19.0,0.0,4362.563965,4565.128418,4213.333496,4238.974121,4297.94873,0.0,1.0,15.0,,,,0.0,4.0,0.0,4.0,0.0,4.0,33.333332,,,,,,,,,,,,,,,,,,,,,,,,,,,,,,,,,,,,,,,,,,,,,,,,,,,,,,0.0,0.0,1.0,0.0,512.0,1.0,,,,,,,,,,,,,,,,,,,,,,,,,
18641,1645817877.981936,1645817877.994321,20.0,0.0,4330.256348,4580.512695,4176.922852000001,4218.461426,4266.666504,0.0,1.0,15.0,,,,0.0,4.0,0.0,4.0,0.0,4.0,33.333332,,,,,,,,10.0,0.0,0.181498,0.614746,-0.138916,-0.754883,0.903334,-0.42822899999999997,-0.21826500000000001,-0.012768,-0.020497,-0.035634,,,,,,,,,,,,,,,,,,,,,,,,,,,,,,,,,,,,,,,,,,,,,,,,,,,,,,,,,,,,,,,,,
18642,1645817877.9897509,1645817878.002135,21.0,0.0,4332.307617,4644.102539,4195.384765999999,4217.436035,4270.256348,0.0,1.0,15.0,,,,0.0,4.0,0.0,4.0,0.0,4.0,33.333332,,,,,,,,,,,,,,,,,,,,,,,,,,,,,,,,,,,,,,,,,,,,,,,,,,,,,,,,,,,,,,,,,,,,,,,,,,,,,,,,,,,,
18643,1645817877.997567,1645817878.009949,22.0,0.0,4352.307617,4635.897461,4230.256348,4249.230957,4292.820313,0.0,1.0,15.0,,,,0.0,4.0,0.0,4.0,0.0,4.0,33.333332,,,,,,,,11.0,0.0,0.181872,0.6149899999999999,-0.138672,-0.7546390000000001,0.879408,-0.42969399999999996,-0.207523,-0.013151,-0.020449000000000002,-0.038028,,,,,,,,,,,,,,,,,,,,,,,,,,,,,,,,,,,,,,,,,,,,,,,,,,,,,,,,,,,,,,,,,
18644,1645817878.005382,1645817878.017764,23.0,0.0,4351.794922,4576.410156,4227.179688,4287.692383,4289.230957,0.0,1.0,15.0,,,,0.0,4.0,0.0,4.0,0.0,4.0,33.333332,,,,,,,,,,,,,,,,,,,,,,,,,,,,,,,,,,,,,,,,,,,,,,,,,,,,,,0.0,0.0,1.0,0.0,512.0,1.0,,,,,,,,,,,,,,,,,,,,,,,,,
18645,1645817878.0131981,1645817878.025578,24.0,0.0,4360.512695,4588.717772999999,4233.846191,4306.153809,4307.179688,0.0,1.0,15.0,,,,0.0,4.0,0.0,4.0,0.0,4.0,33.333332,,,,,,,,12.0,0.0,0.18168499999999999,0.614746,-0.138672,-0.754883,0.87892,-0.440925,-0.223636,-0.012032,-0.020455,-0.040085,,,,,,,,,,,,,,,,,,,,,,,,,,,,,,,,,,,,,,,,,,,,,,,,,,,,,,,,,,,,,,,,,
18646,1645817878.021013,1645817878.033393,25.0,0.0,4361.538574,4644.102539,4237.94873,4271.282227000001,4312.820313,0.0,1.0,15.0,,,,0.0,4.0,0.0,4.0,0.0,4.0,33.333332,,,,,,,,,,,,,,,,,,,,,,,,,,,,,,,,,,,,,,,,,,,,,,,,,,,,,,,,,,,,,,,,,,,,,,,,,,,,,,,,,,,,
18647,1645817878.0288289,1645817878.041207,26.0,0.0,4345.641113000001,4640.0,4221.025879,4232.820313,4276.410156,0.0,1.0,15.0,,,,0.0,4.0,0.0,4.0,0.0,4.0,33.333332,,,,,,,,13.0,0.0,0.181043,0.6149899999999999,-0.138428,-0.754883,0.874525,-0.446784,-0.21631199999999998,-0.011023999999999999,-0.02046,-0.042082,,,,,,,,,,,,,,,,,,,,,,,,,,,,,,,,,,,,,,,,,,,,,,,,,,,,,,,,,,,,,,,,,
18648,1645817878.036644,1645817878.048922,27.0,0.0,4365.641113000001,4572.820313,4237.94873,4222.563965,4283.589844,0.0,1.0,15.0,,,,0.0,4.0,0.0,4.0,0.0,4.0,33.333332,,,,,,,,,,,,,,,,,,,,,,,,,,,,,,,,,,,,,,,,,,,,,,,,,,,,,,0.0,0.0,1.0,0.0,512.0,1.0,,,,,,,,,,,,,,,,,,,,,,,,,
18649,1645817878.04446,1645817878.056736,28.0,0.0,4382.05127,4555.384765999999,4250.769043,4208.717772999999,4319.487305,0.0,1.0,15.0,,,,0.0,4.0,0.0,4.0,0.0,4.0,33.333332,,,,,,,,14.0,0.0,0.18123,0.6149899999999999,-0.138184,-0.754883,0.8847790000000001,-0.43262399999999995,-0.212894,-0.011777,-0.020465,-0.043831,,,,,,,,,,,,,,,,,,,,,,,,,,,,,,,,,,,,,,,,,,,,,,,,,,,,,,,,,,,,,,,,,
18650,1645817878.052275,1645817878.06455,29.0,0.0,4341.538574,4610.256348,4213.333496,4204.615234000001,4286.666504,0.0,1.0,15.0,,,,0.0,4.0,0.0,4.0,0.0,4.0,33.333332,,,,,,,,,,,,,,,,,,,,,,,,,,,,,,,,,,,,,,,,,,,,,,,,,,,,,,,,,,,,,,,,,,,,,,,,,,,,,,,,,,,,
18651,1645817878.060091,1645817878.072365,30.0,0.0,4330.256348,4668.717772999999,4202.05127,4222.563965,4260.512695,0.0,1.0,15.0,,,,0.0,4.0,0.0,4.0,0.0,4.0,33.333332,,,,,,,,15.0,0.0,0.182056,0.614746,-0.138184,-0.754883,0.885756,-0.43408900000000006,-0.206546,-0.012406,-0.020469,-0.039204,,,,,,,,,,,,,,,,,,,,,,,,,,,,,,,,,,,,,,,,,,,,,,,,,,,,,,,,,,,,,,,,,
18652,1645817878.0679061,1645817878.080179,31.0,0.0,4349.743652,4664.102539,4218.974121,4228.205078,4281.025879,0.0,1.0,15.0,,,,0.0,4.0,0.0,4.0,0.0,4.0,33.333332,,,,,,,,,,,,,,,,,,,,1.0,0.0,0.0,,,,,,,,,,,,,,,,,,,,,,,,,,,,,,,,0.0,0.0,1.0,0.0,512.0,1.0,1.5318120000000002,1.8886759999999998,0.982273,2.4403799999999998,1.770862,23.758364,13.0989,11.838234,9.059023,11.957939999999999,0.990828,2.43507,0.5726600000000001,2.5194080000000003,1.873896,20.835627,11.276683,18.331457,6.9587460000000005,6.307082,1.7395759999999998,2.9262610000000002,1.4749299999999999,2.8876009999999996,1.8298759999999998
18653,1645817878.075722,1645817878.0879939,32.0,0.0,4344.615234000001,4622.05127,4224.102539,4229.743652,4288.717772999999,0.0,1.0,15.0,,,,0.0,4.0,0.0,4.0,0.0,4.0,33.333332,,,,,,,,16.0,0.0,0.181871,0.614746,-0.138428,-0.754883,0.8886850000000001,-0.43213500000000005,-0.217288,-0.012922999999999999,-0.020376,-0.041338,,,,,,,,,,,,,,,,,,,,,,,,,,,,,,,,,,,,,,,,,,,,,,,,,,,,,,,,,,,,,,,,,
18654,1645817878.0835369,1645817878.095808,33.0,0.0,4348.205078,4604.615234000001,4230.769043,4255.384765999999,4289.230957,0.0,1.0,15.0,,,,0.0,4.0,0.0,4.0,0.0,4.0,33.333332,,,,,,,,,,,,,,,,,,,,,,,,,,,,,,,,,,,,,,,,,,,,,,,,,,,,,,,,,,,,,,,,,,,,,,,,,,,,,,,,,,,,
18655,1645817878.091353,1645817878.103622,34.0,0.0,4363.589844,4647.692383,4232.820313,4255.384765999999,4295.897461,0.0,1.0,15.0,,,,0.0,4.0,0.0,4.0,0.0,4.0,33.333332,,,,,,,,17.0,0.0,0.180667,0.614746,-0.138672,-0.755127,0.881849,-0.44824899999999995,-0.21484699999999998,-0.013340000000000001,-0.020242,-0.036911,,,,,,,,,,,,,,,,,,,,,,,,,,,,,,,,,,,,,,,,,,,,,,,,,,,,,,,,,,,,,,,,,
18656,1645817878.099168,1645817878.1114368,35.0,0.0,4360.0,4719.487305,4220.512695,4233.846191,4289.230957,0.0,1.0,15.0,,,,0.0,4.0,0.0,4.0,0.0,4.0,33.333332,,,,,,,,,,,,,,,,,,,,,,,,,,,,,,,,,,,,,,,,,,,,,,,,,,,,,,0.0,0.0,1.0,0.0,512.0,1.0,,,,,,,,,,,,,,,,,,,,,,,,,
18657,1645817878.106984,1645817878.119251,36.0,0.0,4340.0,4696.922852000001,4205.128418,4228.205078,4269.230957,0.0,1.0,15.0,,,,0.0,4.0,0.0,4.0,0.0,4.0,33.333332,,,,,,,,18.0,0.0,0.18048,0.614746,-0.138916,-0.755127,0.901869,-0.44824899999999995,-0.21386999999999998,-0.013812,-0.020269,-0.039177,,,,,,,,,,,,,,,,,,,,,,,,,,,,,,,,,,,,,,,,,,,,,,,,,,,,,,,,,,,,,,,,,
18658,1645817878.114799,1645817878.126966,37.0,0.0,4321.538574,4608.205078,4192.820313,4196.922852000001,4255.897461,0.0,1.0,15.0,,,,0.0,4.0,0.0,4.0,0.0,4.0,33.333332,,,,,,,,,,,,,,,,,,,,,,,,,,,,,,,,,,,,,,,,,,,,,,,,,,,,,,,,,,,,,,,,,,,,,,,,,,,,,,,,,,,,
18659,1645817878.122615,1645817878.1347802,38.0,0.0,4330.769043,4602.563965,4216.410156,4189.230957,4269.230957,0.0,1.0,15.0,,,,0.0,4.0,0.0,4.0,0.0,4.0,33.333332,,,,,,,,19.0,0.0,0.181498,0.614746,-0.138916,-0.754883,0.8833139999999999,-0.427253,-0.215824,-0.014336000000000002,-0.020293000000000002,-0.035064,,,,,,,,,,,,,,,,,,,,,,,,,,,,,,,,,,,,,,,,,,,,,,,,,,,,,,,,,,,,,,,,,
18660,1645817878.13043,1645817878.1425948,39.0,0.0,4348.717772999999,4651.794922,4244.102539,4213.846191,4285.641113000001,0.0,1.0,15.0,,,,0.0,4.0,0.0,4.0,0.0,4.0,33.333332,,,,,,,,,,,,,,,,,,,,,,,,,,,,,,,,,,,,,,,,,,,,,,,,,,,,,,0.0,0.0,1.0,0.0,512.0,1.0,,,,,,,,,,,,,,,,,,,,,,,,,
18661,1645817878.1382449,1645817878.150409,40.0,0.0,4337.436035,4636.410156,4220.0,4214.871582,4273.333496,0.0,1.0,15.0,,,,0.0,4.0,0.0,4.0,0.0,4.0,33.333332,,,,,,,,20.0,0.0,0.181311,0.614746,-0.13915999999999998,-0.754883,0.8838030000000001,-0.43213500000000005,-0.211429,-0.01466,-0.020363,-0.037613,,,,,,,,,,,,,,,,,,,,,,,,,,,,,,,,,,,,,,,,,,,,,,,,,,,,,,,,,,,,,,,,,
18662,1645817878.146061,1645817878.1582232,41.0,0.0,4330.256348,4598.974121,4195.897461,4196.410156,4264.102539,0.0,1.0,15.0,,,,0.0,4.0,0.0,4.0,0.0,4.0,33.333332,,,,,,,,,,,,,,,,,,,,,,,,,,,,,,,,,,,,,,,,,,,,,,,,,,,,,,,,,,,,,,,,,,,,,,,,,,,,,,,,,,,,
18663,1645817878.153876,1645817878.166038,42.0,0.0,4347.179688,4636.410156,4210.769043,4196.410156,4270.256348,0.0,1.0,15.0,,,,0.0,4.0,0.0,4.0,0.0,4.0,33.333332,,,,,,,,21.0,0.0,0.181122,0.614502,-0.13915999999999998,-0.755127,0.8847790000000001,-0.41895200000000005,-0.20264000000000001,-0.014952000000000002,-0.020427,-0.039857,,,,,,,,,,,,,,,,,,,,,,,,,,,,,,,,,,,,,,,,,,,,,,,,,,,,,,,,,,,,,,,,,
18664,1645817878.161692,1645817878.173852,43.0,0.0,4376.410156,4671.282227000001,4247.692383,4233.846191,4291.282227000001,0.0,1.0,15.0,,,,0.0,4.0,0.0,4.0,0.0,4.0,33.333332,,,,,,,,,,,,,,,,,,,,,,,,,,,,,,,,,,,,,,,,,,,,,,,,,,,,,,0.0,0.0,1.0,0.0,512.0,1.0,,,,,,,,,,,,,,,,,,,,,,,,,
18665,1645817878.169507,1645817878.181667,44.0,0.0,4378.974121,4657.94873,4252.307617,4262.563965,4302.05127,0.0,1.0,15.0,,,,0.0,4.0,0.0,4.0,0.0,4.0,33.333332,,,,,,,,22.0,0.0,0.18093399999999998,0.614502,-0.139404,-0.755127,0.8764780000000001,-0.42432299999999995,-0.21973,-0.013652000000000001,-0.020484,-0.035481,,,,,,,,,,,,,,,,,,,,,,,,,,,,,,,,,,,,,,,,,,,,,,,,,,,,,,,,,,,,,,,,,
18666,1645817878.177323,1645817878.1893811,45.0,0.0,4338.974121,4634.358886999999,4216.410156,4251.282227000001,4275.384765999999,0.0,1.0,15.0,,,,0.0,4.0,0.0,4.0,0.0,4.0,33.333332,,,,,,,,,,,,,,,,,,,,,,,,,,,,,,,,,,,,,,,,,,,,,,,,,,,,,,,,,,,,,,,,,,,,,,,,,,,,,,,,,,,,
18667,1645817878.185138,1645817878.197196,46.0,0.0,4314.871582,4599.487305,4201.538574,4230.256348,4258.974121,0.0,1.0,15.0,,,,0.0,4.0,0.0,4.0,0.0,4.0,33.333332,,,,,,,,23.0,0.0,0.181122,0.614502,-0.13915999999999998,-0.755127,0.9052870000000001,-0.428717,-0.211429,-0.012531,-0.020339,-0.037939,,,,,,,,,,,,,,,,,,,,,,,,,,,,,,,,,,,,,,,,,,,,,,,,,,,,,,,,,,,,,,,,,
18668,1645817878.1929538,1645817878.20501,47.0,0.0,4337.436035,4601.025879,4218.974121,4246.666504,4284.102539,0.0,1.0,15.0,,,,0.0,4.0,0.0,4.0,0.0,4.0,33.333332,,,,,,,,,,,,,,,,,,,,1.0,0.0,0.0,,,,,,,,,,,,,,,,,,,,,,,,,,,,,,,,0.0,0.0,1.0,0.0,512.0,1.0,1.326266,1.7171759999999998,1.2391860000000001,2.931882,1.9864380000000001,26.850465999999997,22.853544,17.82378,11.221725,12.904784,0.9526549999999999,2.31451,0.610052,3.115624,1.947913,18.468088,9.391222,10.28094,5.772983,5.087721,1.388292,2.4209669999999996,1.726162,3.095592,1.998502
18669,1645817878.200769,1645817878.212824,48.0,0.0,4343.077147999999,4648.717772999999,4211.282227000001,4257.94873,4286.153809,0.0,1.0,15.0,,,,0.0,4.0,0.0,4.0,0.0,4.0,33.333332,,,,,,,,24.0,0.0,0.181122,0.614502,-0.13915999999999998,-0.755127,0.8833139999999999,-0.415534,-0.206546,-0.013036,-0.020308,-0.040004000000000005,,,,,,,,,,,,,,,,,,,,,,,,,,,,,,,,,,,,,,,,,,,,,,,,,,,,,,,,,,,,,,,,,
18670,1645817878.208585,1645817878.220639,49.0,0.0,4325.128418,4668.205078,4198.974121,4245.641113000001,4264.615234000001,0.0,1.0,15.0,,,,0.0,4.0,0.0,4.0,0.0,4.0,33.333332,,,,,,,,,,,,,,,,,,,,,,,,,,,,,,,,,,,,,,,,,,,,,,,,,,,,,,,,,,,,,,,,,,,,,,,,,,,,,,,,,,,,
18671,1645817878.2164,1645817878.228453,50.0,0.0,4332.820313,4627.179688,4213.846191,4235.897461,4275.384765999999,0.0,1.0,15.0,,,,0.0,4.0,0.0,4.0,0.0,4.0,33.333332,,,,,,,,25.0,0.0,0.18093399999999998,0.614502,-0.139404,-0.755127,0.885267,-0.43653000000000003,-0.21435900000000002,-0.013441,-0.020328,-0.042010000000000006,,,,,,,,,,,,,,,,,,,,,,,,,,,,,,,,,,,,,,,,,,,,,,,,,,,,,,,,,,,,,,,,,
18672,1645817878.224216,1645817878.236268,51.0,0.0,4349.230957,4614.358886999999,4227.179688,4238.461426,4289.230957,0.0,1.0,15.0,,,,0.0,4.0,0.0,4.0,0.0,4.0,33.333332,,,,,,,,,,,,,,,,,,,,,,,,,,,,,,,,,,,,,,,,,,,,,,,,,,,,,,0.0,0.0,1.0,0.0,512.0,1.0,,,,,,,,,,,,,,,,,,,,,,,,,
18673,1645817878.232031,1645817878.244082,52.0,0.0,4336.410156,4637.94873,4215.384765999999,4249.230957,4269.230957,0.0,1.0,15.0,,,,0.0,4.0,0.0,4.0,0.0,4.0,33.333332,,,,,,,,26.0,0.0,0.18093399999999998,0.614502,-0.139404,-0.755127,0.885756,-0.42969399999999996,-0.224613,-0.013855000000000001,-0.020248,-0.037516,,,,,,,,,,,,,,,,,,,,,,,,,,,,,,,,,,,,,,,,,,,,,,,,,,,,,,,,,,,,,,,,,
18674,1645817878.2398472,1645817878.2518961,53.0,0.0,4311.794922,4662.05127,4196.410156,4244.102539,4247.179688,0.0,1.0,15.0,,,,0.0,4.0,0.0,4.0,0.0,4.0,33.333332,,,,,,,,,,,,,,,,,,,,,,,,,,,,,,,,,,,,,,,,,,,,,,,,,,,,,,,,,,,,,,,,,,,,,,,,,,,,,,,,,,,,
18675,1645817878.2476618,1645817878.259711,54.0,0.0,4315.897461,4667.692383,4206.153809,4231.794922,4257.436035,0.0,1.0,15.0,,,,0.0,4.0,0.0,4.0,0.0,4.0,33.333332,,,,,,,,27.0,0.0,0.181574,0.614258,-0.139648,-0.755127,0.887709,-0.44238999999999995,-0.21338200000000002,-0.012616,-0.020274,-0.039721,,,,,,,,,,,,,,,,,,,,,,,,,,,,,,,,,,,,,,,,,,,,,,,,,,,,,,,,,,,,,,,,,
18676,1645817878.255478,1645817878.267425,55.0,0.0,4337.436035,4603.077147999999,4229.230957,4242.05127,4274.871582,0.0,1.0,15.0,,,,0.0,4.0,0.0,4.0,0.0,4.0,33.333332,,,,,,,,,,,,,,,,,,,,,,,,,,,,,,,,,,,,,,,,,,,,,,,,,,,,,,0.0,0.0,1.0,0.0,512.0,1.0,,,,,,,,,,,,,,,,,,,,,,,,,
18677,1645817878.263293,1645817878.27524,56.0,0.0,4337.94873,4570.769043,4221.025879,4255.897461,4277.94873,0.0,1.0,15.0,,,,0.0,4.0,0.0,4.0,0.0,4.0,33.333332,,,,,,,,28.0,0.0,0.18176199999999998,0.614502,-0.139648,-0.754883,0.8842909999999999,-0.44824899999999995,-0.208011,-0.011501,-0.020249,-0.041755,,,,,,,,,,,,,,,,,,,,,,,,,,,,,,,,,,,,,,,,,,,,,,,,,,,,,,,,,,,,,,,,,
18678,1645817878.2711089,1645817878.2830539,57.0,0.0,4326.153809,4634.358886999999,4204.102539,4262.05127,4272.820313,0.0,1.0,15.0,,,,0.0,4.0,0.0,4.0,0.0,4.0,33.333332,,,,,,,,,,,,,,,,,,,,,,,,,,,,,,,,,,,,,,,,,,,,,,,,,,,,,,,,,,,,,,,,,,,,,,,,,,,,,,,,,,,,
18679,1645817878.278924,1645817878.290869,58.0,0.0,4319.487305,4644.615234000001,4206.666504,4265.641113000001,4264.615234000001,0.0,1.0,15.0,,,,0.0,4.0,0.0,4.0,0.0,4.0,33.333332,,,,,,,,29.0,0.0,0.18176199999999998,0.614502,-0.139648,-0.754883,0.8813610000000001,-0.431159,-0.22900700000000002,-0.012010999999999999,-0.020322999999999997,-0.043683,,,,,,,,,,,,,,,,,,,,,,,,,,,,,,,,,,,,,,,,,,,,,,,,,,,,,,,,,,,,,,,,,
18680,1645817878.286739,1645817878.298683,59.0,0.0,4325.641113000001,4620.0,4215.897461,4261.025879,4263.077147999999,0.0,1.0,15.0,,,,0.0,4.0,0.0,4.0,0.0,4.0,33.333332,,,,,,,,,,,,,,,,,,,,,,,,,,,,,,,,,,,,,,,,,,,,,,,,,,,,,,0.0,0.0,1.0,0.0,512.0,1.0,,,,,,,,,,,,,,,,,,,,,,,,,
18681,1645817878.2945552,1645817878.306497,60.0,0.0,4342.563965,4655.897461,4216.922852000001,4270.769043,4277.436035,0.0,1.0,15.0,,,,0.0,4.0,0.0,4.0,0.0,4.0,33.333332,,,,,,,,30.0,0.0,0.18176199999999998,0.614502,-0.139648,-0.754883,0.8833139999999999,-0.435554,-0.224125,-0.011054000000000001,-0.020146999999999998,-0.038973,,,,,,,,,,,,,,,,,,,,,,,,,,,,,,,,,,,,,,,,,,,,,,,,,,,,,,,,,,,,,,,,,
18682,1645817878.3023698,1645817878.314312,61.0,0.0,4325.128418,4628.205078,4203.589844,4290.769043,4257.436035,0.0,1.0,15.0,,,,0.0,4.0,0.0,4.0,0.0,4.0,33.333332,,,,,,,,,,,,,,,,,,,,,,,,,,,,,,,,,,,,,,,,,,,,,,,,,,,,,,,,,,,,,,,,,,,,,,,,,,,,,,,,,,,,
18683,1645817878.310186,1645817878.322126,62.0,0.0,4323.077147999999,4555.384765999999,4211.282227000001,4292.820313,4256.410156,0.0,1.0,15.0,,,,0.0,4.0,0.0,4.0,0.0,4.0,33.333332,,,,,,,,31.0,0.0,0.18176199999999998,0.614502,-0.139648,-0.754883,0.8798959999999999,-0.43653000000000003,-0.211429,-0.011609,-0.020134,-0.04118,,,,,,,,,,,,,,,,,,,,,,,,,,,,,,,,,,,,,,,,,,,,,,,,,,,,,,,,,,,,,,,,,
18684,1645817878.318001,1645817878.329941,63.0,0.0,4355.897461,4580.512695,4235.384765999999,4277.436035,4300.0,0.0,1.0,15.0,,,,0.0,4.0,0.0,4.0,0.0,4.0,33.333332,1.0,25.0,4.0,0.0,3.0,0.0,4.0,,,,,,,,,,,,,1.0,0.0,0.0,,,,,,,,,,,,,,,,,,,,,,,,,,,,,,,,0.0,0.0,1.0,0.0,512.0,1.0,1.452711,1.605676,1.4750459999999999,3.4694580000000004,2.286064,29.220678000000003,36.175999,25.225765,15.10936,13.863615,1.108286,2.0808169999999997,0.6458550000000001,3.759197,2.113245,16.26549,8.7721,5.748067,4.934392,4.685797,1.338883,2.078882,1.869616,3.4237,2.2147360000000003
18685,1645817878.325817,1645817878.337755,64.0,0.0,4341.025879,4610.256348,4215.897461,4266.153809,4282.05127,450.0,1.0,15.0,,,,0.0,4.0,0.0,4.0,0.0,4.0,33.333332,,,,,,,,32.0,0.0,0.18195,0.614502,-0.139404,-0.754883,0.879408,-0.43213500000000005,-0.206546,-0.012107999999999999,-0.02022,-0.043164999999999995,,,,,,,,,,,,,,,,,,,,,,,,,,,,,,,,,,,,,,,,,,,,,,,,,,,,,,,,,,,,,,,,,
18686,1645817878.333632,1645817878.34547,65.0,0.0,4308.205078,4599.487305,4192.820313,4275.384765999999,4241.538574,450.0,1.0,15.0,,,,0.0,4.0,0.0,4.0,0.0,4.0,33.333332,,,,,,,,,,,,,,,,,,,,,,,,,,,,,,,,,,,,,,,,,,,,,,,,,,,,,,,,,,,,,,,,,,,,,,,,,,,,,,,,,,,,
18687,1645817878.341448,1645817878.353284,66.0,0.0,4335.384765999999,4653.333496,4223.077147999999,4253.846191,4278.974121,16178.0,1.0,15.0,,,,0.0,4.0,0.0,4.0,0.0,4.0,33.333332,,,,,,,,33.0,0.0,0.18195,0.614502,-0.139404,-0.754883,0.8847790000000001,-0.431159,-0.224613,-0.011092,-0.020249,-0.044806,,,,,,,,,,,,,,,,,,,,,,,,,,,,,,,,,,,,,,,,,,,,,,,,,,,,,,,,,,,,,,,,,
18688,1645817878.3492632,1645817878.361098,67.0,0.0,4349.743652,4651.282227000001,4229.230957,4160.512695,4310.256348,450.0,1.0,15.0,,,,0.0,4.0,0.0,4.0,0.0,4.0,33.333332,,,,,,,,,,,,,,,,,,,,,,,,,,,,,,,,,,,,,,,,,,,,,,,,,,,,,,0.0,0.0,1.0,0.0,512.0,1.0,,,,,,,,,,,,,,,,,,,,,,,,,
18689,1645817878.3570788,1645817878.3689132,68.0,0.0,4317.436035,4546.666504,4195.897461,4128.717772999999,4274.358886999999,12.0,1.0,15.0,,,,0.0,4.0,0.0,4.0,0.0,4.0,33.333332,,,,,,,,34.0,0.0,0.18195,0.614502,-0.139404,-0.754883,0.8872209999999999,-0.438483,-0.21631199999999998,-0.011741,-0.020275,-0.040081,,,,,,,,,,,,,,,,,,,,,,,,,,,,,,,,,,,,,,,,,,,,,,,,,,,,,,,,,,,,,,,,,
18690,1645817878.364894,1645817878.3767269,69.0,0.0,4325.128418,4561.025879,4197.94873,4222.05127,4283.077147999999,450.0,1.0,15.0,,,,0.0,4.0,0.0,4.0,0.0,4.0,33.333332,,,,,,,,,,,,,,,,,,,,,,,,,,,,,,,,,,,,,,,,,,,,,,,,,,,,,,,,,,,,,,,,,,,,,,,,,,,,,,,,,,,,
18691,1645817878.37271,1645817878.384542,70.0,0.0,4347.179688,4625.128418,4223.077147999999,4282.563965,4314.358886999999,16134.0,1.0,15.0,,,,0.0,4.0,0.0,4.0,0.0,4.0,33.333332,,,,,,,,35.0,0.0,0.18195,0.614502,-0.139404,-0.754883,0.894057,-0.42920600000000003,-0.21484699999999998,-0.010811,-0.020201,-0.042128,,,,,,,,,,,,,,,,,,,,,,,,,,,,,,,,,,,,,,,,,,,,,,,,,,,,,,,,,,,,,,,,,
18692,1645817878.380525,1645817878.3923562,71.0,0.0,4328.205078,4585.128418,4202.05127,4253.846191,4281.538574,450.0,1.0,15.0,,,,0.0,4.0,0.0,4.0,0.0,4.0,33.333332,,,,,,,,,,,,,,,,,,,,,,,,,,,,,,,,,,,,,,,,,,,,,,,,,,,,,,0.0,0.0,1.0,0.0,512.0,1.0,,,,,,,,,,,,,,,,,,,,,,,,,
18693,1645817878.388341,1645817878.4001698,72.0,0.0,4307.692383,4554.358886999999,4180.0,4257.436035,4245.641113000001,450.0,1.0,15.0,,,,0.0,4.0,0.0,4.0,0.0,4.0,33.333332,,,,,,,,36.0,0.0,0.18195,0.614502,-0.139404,-0.754883,0.8759899999999999,-0.43653000000000003,-0.226566,-0.009925,-0.020231,-0.043920999999999995,,,,,,,,,,,,,,,,,,,,,,,,,,,,,,,,,,,,,,,,,,,,,,,,,,,,,,,,,,,,,,,,,
18694,1645817878.396156,1645817878.407985,73.0,0.0,4322.05127,4666.153809,4195.384765999999,4283.077147999999,4270.256348,9.0,1.0,15.0,,,,0.0,4.0,0.0,4.0,0.0,4.0,33.333332,,,,,,,,,,,,,,,,,,,,,,,,,,,,,,,,,,,,,,,,,,,,,,,,,,,,,,,,,,,,,,,,,,,,,,,,,,,,,,,,,,,,
18695,1645817878.4039721,1645817878.415699,74.0,0.0,4327.179688,4735.897461,4204.615234000001,4283.077147999999,4290.769043,450.0,1.0,15.0,,,,0.0,4.0,0.0,4.0,0.0,4.0,33.333332,,,,,,,,37.0,0.0,0.18093399999999998,0.614502,-0.139404,-0.755127,0.878431,-0.43653000000000003,-0.227543,-0.010690999999999999,-0.020259,-0.045486,,,,,,,,,,,,,,,,,,,,,,,,,,,,,,,,,,,,,,,,,,,,,,,,,,,,,,,,,,,,,,,,,
18696,1645817878.411787,1645817878.4235141,75.0,0.0,4327.692383,4650.256348,4203.077147999999,4261.025879,4276.922852000001,16205.0,1.0,15.0,,,,0.0,4.0,0.0,4.0,0.0,4.0,33.333332,,,,,,,,,,,,,,,,,,,,,,,,,,,,,,,,,,,,,,,,,,,,,,,,,,,,,,0.0,0.0,1.0,0.0,512.0,1.0,,,,,,,,,,,,,,,,,,,,,,,,,
18697,1645817878.4196029,1645817878.4313278,76.0,0.0,4357.94873,4594.358886999999,4217.436035,4189.743652,4300.512695,450.0,1.0,15.0,,,,0.0,4.0,0.0,4.0,0.0,4.0,33.333332,,,,,,,,38.0,0.0,0.18195,0.614502,-0.139404,-0.754883,0.894057,-0.42920600000000003,-0.21484699999999998,-0.011281999999999999,-0.020235,-0.040693,,,,,,,,,,,,,,,,,,,,,,,,,,,,,,,,,,,,,,,,,,,,,,,,,,,,,,,,,,,,,,,,,
18698,1645817878.427418,1645817878.439143,77.0,0.0,4379.487305,4595.897461,4229.230957,4127.692383,4334.358886999999,450.0,1.0,15.0,,,,0.0,4.0,0.0,4.0,0.0,4.0,33.333332,,,,,,,,,,,,,,,,,,,,,,,,,,,,,,,,,,,,,,,,,,,,,,,,,,,,,,,,,,,,,,,,,,,,,,,,,,,,,,,,,,,,
18699,1645817878.435233,1645817878.446957,78.0,0.0,4345.641113000001,4572.820313,4193.846191,4139.487305,4301.025879,450.0,1.0,15.0,,,,0.0,4.0,0.0,4.0,0.0,4.0,33.333332,,,,,,,,39.0,0.0,0.18093399999999998,0.614502,-0.139404,-0.755127,0.878431,-0.43653000000000003,-0.227543,-0.011911,-0.020262,-0.042581,,,,,,,,,,,,,,,,,,,,,,,,,,,,,,,,,,,,,,,,,,,,,,,,,,,,,,,,,,,,,,,,,
18700,1645817878.443049,1645817878.454771,79.0,0.0,4307.692383,4559.487305,4163.589844,4185.128418,4254.871582,16205.0,1.0,15.0,,,,0.0,4.0,0.0,4.0,0.0,4.0,33.333332,,,,,,,,,,,,,,,,,,,,1.0,0.0,0.0,,,,,,,,,,,,,,,,,,,,,,,,,,,,,,,,0.0,0.0,1.0,0.0,512.0,1.0,1.8510669999999998,1.607292,1.6689349999999998,3.874313,2.628706,30.49585,49.737175,32.031528,19.782425,14.679910000000001,1.472438,1.813771,0.6754359999999999,4.261205,2.332392,14.812134,8.889221000000001,4.06189,4.396586,4.790217,1.545808,1.9351630000000002,1.855077,3.7163779999999997,2.450157
18701,1645817878.450864,1645817878.462586,80.0,0.0,4307.179688,4594.871582,4160.0,4198.974121,4247.179688,450.0,1.0,15.0,,,,0.0,4.0,0.0,4.0,0.0,4.0,33.333332,,,,,,,,40.0,0.0,0.18093399999999998,0.614502,-0.139404,-0.755127,0.8872209999999999,-0.41992799999999997,-0.210452,-0.01238,-0.020238,-0.038079,,,,,,,,,,,,,,,,,,,,,,,,,,,,,,,,,,,,,,,,,,,,,,,,,,,,,,,,,,,,,,,,,
18702,1645817878.4586802,1645817878.4704,81.0,0.0,4324.615234000001,4600.0,4167.179688,4197.94873,4256.410156,450.0,1.0,15.0,,,,0.0,4.0,0.0,4.0,0.0,4.0,33.333332,,,,,,,,,,,,,,,,,,,,,,,,,,,,,,,,,,,,,,,,,,,,,,,,,,,,,,,,,,,,,,,,,,,,,,,,,,,,,,,,,,,,
18703,1645817878.466495,1645817878.478215,82.0,0.0,4344.615234000001,4630.769043,4180.0,4208.717772999999,4281.025879,450.0,1.0,15.0,,,,0.0,4.0,0.0,4.0,0.0,4.0,33.333332,,,,,,,,41.0,0.0,0.182137,0.614502,-0.13915999999999998,-0.754883,0.8964979999999999,-0.42432299999999995,-0.21631199999999998,-0.013047,-0.020216,-0.033977999999999994,,,,,,,,,,,,,,,,,,,,,,,,,,,,,,,,,,,,,,,,,,,,,,,,,,,,,,,,,,,,,,,,,
18704,1645817878.4743109,1645817878.486029,83.0,0.0,4343.589844,4690.769043,4192.820313,4216.410156,4300.0,16205.0,1.0,15.0,,,,0.0,4.0,0.0,4.0,0.0,4.0,33.333332,,,,,,,,,,,,,,,,,,,,,,,,,,,,,,,,,,,,,,,,,,,,,,,,,,,,,,0.0,0.0,1.0,0.0,512.0,1.0,,,,,,,,,,,,,,,,,,,,,,,,,
18705,1645817878.482126,1645817878.493743,84.0,0.0,4336.410156,4654.358886999999,4206.666504,4216.410156,4279.487305,450.0,1.0,15.0,,,,0.0,4.0,0.0,4.0,0.0,4.0,33.333332,,,,,,,,42.0,0.0,0.181311,0.614746,-0.13915999999999998,-0.754883,0.8833139999999999,-0.421393,-0.21386999999999998,-0.011889,-0.020294,-0.036635,,,,,,,,,,,,,,,,,,,,,,,,,,,,,,,,,,,,,,,,,,,,,,,,,,,,,,,,,,,,,,,,,
18706,1645817878.489942,1645817878.501558,85.0,0.0,4331.794922,4594.358886999999,4200.512695,4211.794922,4261.538574,450.0,1.0,15.0,,,,0.0,4.0,0.0,4.0,0.0,4.0,33.333332,,,,,,,,,,,,,,,,,,,,,,,,,,,,,,,,,,,,,,,,,,,,,,,,,,,,,,,,,,,,,,,,,,,,,,,,,,,,,,,,,,,,
18707,1645817878.497757,1645817878.509372,86.0,0.0,4325.128418,4562.563965,4193.333496,4218.974121,4265.641113000001,450.0,1.0,15.0,,,,0.0,4.0,0.0,4.0,0.0,4.0,33.333332,,,,,,,,43.0,0.0,0.181311,0.614746,-0.13915999999999998,-0.754883,0.890639,-0.43018199999999995,-0.21338200000000002,-0.012409,-0.020413,-0.038977,,,,,,,,,,,,,,,,,,,,,,,,,,,,,,,,,,,,,,,,,,,,,,,,,,,,,,,,,,,,,,,,,
18708,1645817878.505573,1645817878.5171869,87.0,0.0,4330.256348,4583.589844,4204.102539,4231.282227000001,4265.641113000001,16205.0,1.0,15.0,,,,0.0,4.0,0.0,4.0,0.0,4.0,33.333332,,,,,,,,,,,,,,,,,,,,,,,,,,,,,,,,,,,,,,,,,,,,,,,,,,,,,,0.0,0.0,1.0,0.0,512.0,1.0,,,,,,,,,,,,,,,,,,,,,,,,,
18709,1645817878.5133882,1645817878.525001,88.0,0.0,4344.615234000001,4632.820313,4207.179688,4222.05127,4270.769043,450.0,1.0,15.0,,,,0.0,4.0,0.0,4.0,0.0,4.0,33.333332,,,,,,,,44.0,0.0,0.181498,0.614746,-0.138916,-0.754883,0.8842909999999999,-0.423346,-0.2168,-0.012974000000000001,-0.020423,-0.041037,,,,,,,,,,,,,,,,,,,,,,,,,,,,,,,,,,,,,,,,,,,,,,,,,,,,,,,,,,,,,,,,,
18710,1645817878.521204,1645817878.532816,89.0,0.0,4342.563965,4631.282227000001,4189.230957,4210.769043,4282.563965,450.0,1.0,15.0,,,,0.0,4.0,0.0,4.0,0.0,4.0,33.333332,,,,,,,,,,,,,,,,,,,,,,,,,,,,,,,,,,,,,,,,,,,,,,,,,,,,,,,,,,,,,,,,,,,,,,,,,,,,,,,,,,,,
18711,1645817878.5290189,1645817878.54063,90.0,0.0,4338.461426,4607.692383,4189.743652,4218.461426,4281.538574,450.0,1.0,15.0,,,,0.0,4.0,0.0,4.0,0.0,4.0,33.333332,,,,,,,,45.0,0.0,0.18168499999999999,0.614746,-0.138672,-0.754883,0.893568,-0.43457700000000005,-0.21924200000000002,-0.013386000000000002,-0.020285,-0.036689,,,,,,,,,,,,,,,,,,,,,,,,,,,,,,,,,,,,,,,,,,,,,,,,,,,,,,,,,,,,,,,,,
18712,1645817878.536835,1645817878.548444,91.0,0.0,4349.230957,4662.563965,4205.641113000001,4221.025879,4283.077147999999,16205.0,1.0,15.0,,,,0.0,4.0,0.0,4.0,0.0,4.0,33.333332,,,,,,,,,,,,,,,,,,,,,,,,,,,,,,,,,,,,,,,,,,,,,,,,,,,,,,0.0,0.0,1.0,0.0,512.0,1.0,,,,,,,,,,,,,,,,,,,,,,,,,
18713,1645817878.54465,1645817878.556259,92.0,0.0,4346.666504,4679.487305,4199.487305,4209.743652,4290.256348,450.0,1.0,15.0,,,,0.0,4.0,0.0,4.0,0.0,4.0,33.333332,,,,,,,,46.0,0.0,0.18168499999999999,0.614746,-0.138672,-0.754883,0.881849,-0.44531899999999996,-0.20996399999999998,-0.013756,-0.020258,-0.038928,,,,,,,,,,,,,,,,,,,,,,,,,,,,,,,,,,,,,,,,,,,,,,,,,,,,,,,,,,,,,,,,,
18714,1645817878.552466,1645817878.563973,93.0,0.0,4330.769043,4563.077147999999,4193.846191,4208.205078,4268.205078,450.0,1.0,15.0,,,,0.0,4.0,0.0,4.0,0.0,4.0,33.333332,,,,,,,,,,,,,,,,,,,,,,,,,,,,,,,,,,,,,,,,,,,,,,,,,,,,,,,,,,,,,,,,,,,,,,,,,,,,,,,,,,,,
18715,1645817878.560281,1645817878.571788,94.0,0.0,4337.436035,4544.102539,4209.230957,4216.410156,4256.922852000001,450.0,1.0,15.0,,,,0.0,4.0,0.0,4.0,0.0,4.0,33.333332,,,,,,,,47.0,0.0,0.18168499999999999,0.614746,-0.138672,-0.754883,0.886244,-0.43018199999999995,-0.215335,-0.014138999999999999,-0.020234000000000002,-0.034694,,,,,,,,,,,,,,,,,,,,,,,,,,,,,,,,,,,,,,,,,,,,,,,,,,,,,,,,,,,,,,,,,
18716,1645817878.568097,1645817878.579602,95.0,0.0,4346.153809,4672.820313,4204.615234000001,4218.974121,4280.0,16205.0,1.0,15.0,,,,0.0,4.0,0.0,4.0,0.0,4.0,33.333332,,,,,,,,,,,,,,,,,,,,1.0,0.0,0.0,,,,,,,,,,,,,,,,,,,,,,,,,,,,,,,,0.0,0.0,1.0,0.0,512.0,1.0,2.340952,1.718896,1.832116,4.007855999999999,2.948705,30.223551,59.194153,35.675598,23.826588,15.19241,2.004295,1.600735,0.720348,4.474292,2.5520009999999997,14.301060000000001,9.611889999999999,4.181217,4.126776,5.02261,1.849925,1.941066,1.6945119999999998,3.831348,2.6688520000000002
18717,1645817878.575912,1645817878.587416,96.0,0.0,4342.05127,4718.461426,4194.358886999999,4222.05127,4301.025879,450.0,1.0,15.0,,,,0.0,4.0,0.0,4.0,0.0,4.0,33.333332,,,,,,,,48.0,0.0,0.18168499999999999,0.614746,-0.138672,-0.754883,0.885756,-0.43457700000000005,-0.20947600000000002,-0.014434,-0.020163999999999998,-0.037181,,,,,,,,,,,,,,,,,,,,,,,,,,,,,,,,,,,,,,,,,,,,,,,,,,,,,,,,,,,,,,,,,
18718,1645817878.583727,1645817878.595231,97.0,0.0,4337.436035,4612.820313,4206.666504,4230.256348,4292.307617,450.0,1.0,15.0,,,,0.0,4.0,0.0,4.0,0.0,4.0,33.333332,,,,,,,,,,,,,,,,,,,,,,,,,,,,,,,,,,,,,,,,,,,,,,,,,,,,,,,,,,,,,,,,,,,,,,,,,,,,,,,,,,,,
18719,1645817878.591543,1645817878.603045,98.0,0.0,4339.487305,4532.307617,4203.589844,4229.230957,4281.538574,450.0,1.0,15.0,,,,0.0,4.0,0.0,4.0,0.0,4.0,33.333332,,,,,,,,49.0,0.0,0.18168499999999999,0.614746,-0.138672,-0.754883,0.897475,-0.424811,-0.215335,-0.014747999999999999,-0.02015,-0.03317,,,,,,,,,,,,,,,,,,,,,,,,,,,,,,,,,,,,,,,,,,,,,,,,,,,,,,,,,,,,,,,,,
18720,1645817878.599358,1645817878.6108599,99.0,0.0,4343.589844,4528.205078,4182.05127,4209.743652,4300.512695,16205.0,1.0,15.0,,,,0.0,4.0,0.0,4.0,0.0,4.0,33.333332,,,,,,,,,,,,,,,,,,,,,,,,,,,,,,,,,,,,,,,,,,,,,,,,,,,,,,0.0,0.0,1.0,0.0,512.0,1.0,,,,,,,,,,,,,,,,,,,,,,,,,
18721,1645817878.607174,1645817878.618674,100.0,0.0,4339.487305,4475.384765999999,4194.358886999999,4209.230957,4308.205078,450.0,1.0,15.0,,,,0.0,4.0,0.0,4.0,0.0,4.0,33.333332,,,,,,,,50.0,0.0,0.18168499999999999,0.614746,-0.138672,-0.754883,0.8969860000000001,-0.42627600000000004,-0.22900700000000002,-0.013566,-0.020186000000000003,-0.035762,,,,,,,,,,,,,,,,,,,,,,,,,,,,,,,,,,,,,,,,,,,,,,,,,,,,,,,,,,,,,,,,,
18722,1645817878.614989,1645817878.626389,101.0,0.0,4330.256348,4389.230957,4215.897461,4211.282227000001,4281.538574,450.0,1.0,15.0,,,,0.0,4.0,0.0,4.0,0.0,4.0,33.333332,,,,,,,,,,,,,,,,,,,,,,,,,,,,,,,,,,,,,,,,,,,,,,,,,,,,,,,,,,,,,,,,,,,,,,,,,,,,,,,,,,,,
18723,1645817878.622805,1645817878.634203,102.0,0.0,4350.769043,4362.563965,4214.358886999999,4205.641113000001,4272.820313,450.0,1.0,15.0,,,,0.0,4.0,0.0,4.0,0.0,4.0,33.333332,,,,,,,,51.0,0.0,0.180856,0.6149899999999999,-0.138672,-0.754883,0.889174,-0.431159,-0.224613,-0.013968000000000001,-0.020218,-0.038143,,,,,,,,,,,,,,,,,,,,,,,,,,,,,,,,,,,,,,,,,,,,,,,,,,,,,,,,,,,,,,,,,
18724,1645817878.63062,1645817878.642017,103.0,0.0,4361.538574,4417.436035,4196.922852000001,4229.230957,4293.846191,16205.0,1.0,15.0,,,,0.0,4.0,0.0,4.0,0.0,4.0,33.333332,,,,,,,,,,,,,,,,,,,,,,,,,,,,,,,,,,,,,,,,,,,,,,,,,,,,,,0.0,0.0,1.0,0.0,512.0,1.0,,,,,,,,,,,,,,,,,,,,,,,,,
18725,1645817878.6384358,1645817878.649832,104.0,0.0,4319.487305,4464.615234000001,4190.256348,4263.589844,4289.230957,450.0,1.0,15.0,,,,0.0,4.0,0.0,4.0,0.0,4.0,33.333332,,,,,,,,52.0,0.0,0.181686,0.6149899999999999,-0.138916,-0.7546390000000001,0.908217,-0.437507,-0.2168,-0.014378,-0.020198,-0.034035,,,,,,,,,,,,,,,,,,,,,,,,,,,,,,,,,,,,,,,,,,,,,,,,,,,,,,,,,,,,,,,,,
18726,1645817878.646251,1645817878.6576462,105.0,0.0,4317.436035,4455.384765999999,4213.333496,4262.563965,4276.410156,450.0,1.0,15.0,,,,0.0,4.0,0.0,4.0,0.0,4.0,33.333332,,,,,,,,,,,,,,,,,,,,,,,,,,,,,,,,,,,,,,,,,,,,,,,,,,,,,,,,,,,,,,,,,,,,,,,,,,,,,,,,,,,,
18727,1645817878.654067,1645817878.665361,106.0,0.0,4357.94873,4431.794922,4217.94873,4239.487305,4277.94873,450.0,1.0,15.0,,,,0.0,4.0,0.0,4.0,0.0,4.0,33.333332,,,,,,,,53.0,0.0,0.181686,0.6149899999999999,-0.138916,-0.7546390000000001,0.8921030000000001,-0.424811,-0.208499,-0.014649,-0.02018,-0.030289999999999997,,,,,,,,,,,,,,,,,,,,,,,,,,,,,,,,,,,,,,,,,,,,,,,,,,,,,,,,,,,,,,,,,
18728,1645817878.661882,1645817878.673175,107.0,0.0,4349.743652,4450.769043,4182.563965,4223.077147999999,4284.102539,16205.0,1.0,15.0,,,,0.0,4.0,0.0,4.0,0.0,4.0,33.333332,,,,,,,,,,,,,,,,,,,,,,,,,,,,,,,,,,,,,,,,,,,,,,,,,,,,,,0.0,0.0,1.0,0.0,512.0,1.0,,,,,,,,,,,,,,,,,,,,,,,,,
18729,1645817878.669698,1645817878.68099,108.0,0.0,4325.128418,4488.717772999999,4184.615234000001,4219.487305,4293.846191,450.0,1.0,15.0,,,,0.0,4.0,0.0,4.0,0.0,4.0,33.333332,,,,,,,,54.0,0.0,0.181686,0.6149899999999999,-0.138916,-0.7546390000000001,0.885756,-0.435065,-0.20703400000000002,-0.014844,-0.020066999999999998,-0.033267000000000005,,,,,,,,,,,,,,,,,,,,,,,,,,,,,,,,,,,,,,,,,,,,,,,,,,,,,,,,,,,,,,,,,
18730,1645817878.6775131,1645817878.688704,109.0,0.0,4340.512695,4565.641113000001,4225.641113000001,4233.333496,4306.153809,450.0,1.0,15.0,,,,0.0,4.0,0.0,4.0,0.0,4.0,33.333332,,,,,,,,,,,,,,,,,,,,,,,,,,,,,,,,,,,,,,,,,,,,,,,,,,,,,,,,,,,,,,,,,,,,,,,,,,,,,,,,,,,,
18731,1645817878.685329,1645817878.696518,110.0,0.0,4358.461426,4692.820313,4235.897461,4243.589844,4310.769043,450.0,1.0,15.0,,,,0.0,4.0,0.0,4.0,0.0,4.0,33.333332,,,,,,,,55.0,0.0,0.181686,0.6149899999999999,-0.138916,-0.7546390000000001,0.8813610000000001,-0.43946,-0.220218,-0.015019999999999999,-0.020111,-0.035946,,,,,,,,,,,,,,,,,,,,,,,,,,,,,,,,,,,,,,,,,,,,,,,,,,,,,,,,,,,,,,,,,
18732,1645817878.6931438,1645817878.704233,111.0,0.0,4349.743652,4736.922852000001,4224.615234000001,4220.0,4301.025879,16205.0,1.0,15.0,,,,0.0,4.0,0.0,4.0,0.0,4.0,33.333332,,,,,,,,,,,,,,,,,,,,1.0,0.0,0.0,,,,,,,,,,,,,,,,,,,,,,,,,,,,,,,,0.0,0.0,1.0,0.0,512.0,1.0,2.73812,1.890059,1.9879689999999999,3.8435599999999996,3.173563,28.281515000000002,61.21748,34.779655,26.041803,15.301325,2.585979,1.511425,0.8259709999999999,4.347153,2.720036,14.035879000000001,11.019076,5.65899,4.056047,5.168011,2.114473,2.0050630000000003,1.473314,3.721914,2.842094
18733,1645817878.70096,1645817878.712047,112.0,0.0,4320.512695,4655.384765999999,4208.717772999999,4190.769043,4274.358886999999,450.0,1.0,15.0,,,,0.0,4.0,0.0,4.0,0.0,4.0,33.333332,,,,,,,,56.0,0.0,0.181686,0.6149899999999999,-0.138916,-0.7546390000000001,0.8896620000000001,-0.42969399999999996,-0.215824,-0.015276,-0.020053,-0.032107,,,,,,,,,,,,,,,,,,,,,,,,,,,,,,,,,,,,,,,,,,,,,,,,,,,,,,,,,,,,,,,,,
18734,1645817878.708775,1645817878.719862,113.0,0.0,4305.128418,4610.256348,4196.922852000001,4180.512695,4264.615234000001,450.0,1.0,15.0,,,,0.0,4.0,0.0,4.0,0.0,4.0,33.333332,,,,,,,,,,,,,,,,,,,,,,,,,,,,,,,,,,,,,,,,,,,,,,,,,,,,,,,,,,,,,,,,,,,,,,,,,,,,,,,,,,,,
18735,1645817878.7165911,1645817878.727676,114.0,0.0,4319.487305,4650.256348,4209.743652,4176.410156,4280.0,450.0,1.0,15.0,,,,0.0,4.0,0.0,4.0,0.0,4.0,33.333332,,,,,,,,57.0,0.0,0.181045,0.6152340000000001,-0.138672,-0.7546390000000001,0.8989389999999999,-0.42236999999999997,-0.21338200000000002,-0.015456999999999999,-0.020146999999999998,-0.028555,,,,,,,,,,,,,,,,,,,,,,,,,,,,,,,,,,,,,,,,,,,,,,,,,,,,,,,,,,,,,,,,,
18736,1645817878.724406,1645817878.735491,115.0,0.0,4323.589844,4677.436035,4213.333496,4168.717772999999,4275.897461,16205.0,1.0,15.0,,,,0.0,4.0,0.0,4.0,0.0,4.0,33.333332,,,,,,,,,,,,,,,,,,,,,,,,,,,,,,,,,,,,,,,,,,,,,,,,,,,,,,0.0,0.0,1.0,0.0,512.0,1.0,,,,,,,,,,,,,,,,,,,,,,,,,
18737,1645817878.7322211,1645817878.743305,116.0,0.0,4320.0,4658.461426,4192.820313,4162.563965,4274.358886999999,450.0,1.0,15.0,,,,0.0,4.0,0.0,4.0,0.0,4.0,33.333332,,,,,,,,58.0,0.0,0.180858,0.6152340000000001,-0.138916,-0.7546390000000001,0.891127,-0.435554,-0.206058,-0.014156,-0.020086,-0.031559,,,,,,,,,,,,,,,,,,,,,,,,,,,,,,,,,,,,,,,,,,,,,,,,,,,,,,,,,,,,,,,,,
18738,1645817878.740037,1645817878.75102,117.0,0.0,4334.871582,4597.94873,4205.641113000001,4179.487305,4290.769043,450.0,1.0,15.0,,,,0.0,4.0,0.0,4.0,0.0,4.0,33.333332,,,,,,,,,,,,,,,,,,,,,,,,,,,,,,,,,,,,,,,,,,,,,,,,,,,,,,,,,,,,,,,,,,,,,,,,,,,,,,,,,,,,
18739,1645817878.7478518,1645817878.758834,118.0,0.0,4337.94873,4603.077147999999,4226.153809,4189.230957,4294.871582,450.0,1.0,15.0,,,,0.0,4.0,0.0,4.0,0.0,4.0,33.333332,,,,,,,,59.0,0.0,0.181873,0.6152340000000001,-0.138916,-0.7543949999999999,0.8798959999999999,-0.424811,-0.220218,-0.014547,-0.020030000000000003,-0.034457999999999996,,,,,,,,,,,,,,,,,,,,,,,,,,,,,,,,,,,,,,,,,,,,,,,,,,,,,,,,,,,,,,,,,
18740,1645817878.755668,1645817878.766648,119.0,0.0,4314.871582,4694.871582,4202.563965,4184.102539,4278.974121,16205.0,1.0,15.0,,,,0.0,4.0,0.0,4.0,0.0,4.0,33.333332,,,,,,,,,,,,,,,,,,,,,,,,,,,,,,,,,,,,,,,,,,,,,,,,,,,,,,0.0,0.0,1.0,0.0,512.0,1.0,,,,,,,,,,,,,,,,,,,,,,,,,
18741,1645817878.763483,1645817878.7744632,120.0,0.0,4321.025879,4702.563965,4192.820313,4180.0,4282.05127,450.0,1.0,15.0,,,,0.0,4.0,0.0,4.0,0.0,4.0,33.333332,,,,,,,,60.0,0.0,0.181687,0.6152340000000001,-0.13915999999999998,-0.7543949999999999,0.889174,-0.45020200000000005,-0.21973,-0.014801,-0.020028999999999998,-0.03067,,,,,,,,,,,,,,,,,,,,,,,,,,,,,,,,,,,,,,,,,,,,,,,,,,,,,,,,,,,,,,,,,
18742,1645817878.7712991,1645817878.7822769,121.0,0.0,4355.897461,4645.641113000001,4226.666504,4195.897461,4307.179688,450.0,1.0,15.0,,,,0.0,4.0,0.0,4.0,0.0,4.0,33.333332,,,,,,,,,,,,,,,,,,,,,,,,,,,,,,,,,,,,,,,,,,,,,,,,,,,,,,,,,,,,,,,,,,,,,,,,,,,,,,,,,,,,
18743,1645817878.779114,1645817878.790092,122.0,0.0,4354.871582,4683.077147999999,4228.717772999999,4204.615234000001,4309.743652,450.0,1.0,15.0,,,,0.0,4.0,0.0,4.0,0.0,4.0,33.333332,,,,,,,,61.0,0.0,0.181687,0.6152340000000001,-0.13915999999999998,-0.7543949999999999,0.875502,-0.430671,-0.22266,-0.013466999999999998,-0.020028,-0.033609,,,,,,,,,,,,,,,,,,,,,,,,,,,,,,,,,,,,,,,,,,,,,,,,,,,,,,,,,,,,,,,,,
18744,1645817878.78693,1645817878.7979062,123.0,0.0,4321.538574,4700.512695,4200.0,4196.922852000001,4283.077147999999,16205.0,1.0,15.0,,,,0.0,4.0,0.0,4.0,0.0,4.0,33.333332,,,,,,,,,,,,,,,,,,,,,,,,,,,,,,,,,,,,,,,,,,,,,,,,,,,,,,0.0,0.0,1.0,0.0,512.0,1.0,,,,,,,,,,,,,,,,,,,,,,,,,
18745,1645817878.794745,1645817878.8057199,124.0,0.0,4334.358886999999,4648.205078,4215.384765999999,4194.871582,4280.0,450.0,1.0,15.0,,,,0.0,4.0,0.0,4.0,0.0,4.0,33.333332,,,,,,,,62.0,0.0,0.181687,0.6152340000000001,-0.13915999999999998,-0.7543949999999999,0.891127,-0.41992799999999997,-0.21631199999999998,-0.013927000000000002,-0.019979,-0.036302999999999995,,,,,,,,,,,,,,,,,,,,,,,,,,,,,,,,,,,,,,,,,,,,,,,,,,,,,,,,,,,,,,,,,
18746,1645817878.802561,1645817878.813535,125.0,0.0,4336.410156,4645.641113000001,4209.230957,4186.153809,4272.820313,450.0,1.0,15.0,,,,0.0,4.0,0.0,4.0,0.0,4.0,33.333332,,,,,,,,,,,,,,,,,,,,,,,,,,,,,,,,,,,,,,,,,,,,,,,,,,,,,,,,,,,,,,,,,,,,,,,,,,,,,,,,,,,,
18747,1645817878.810376,1645817878.821349,126.0,0.0,4313.846191,4610.769043,4190.256348,4187.179688,4262.563965,450.0,1.0,15.0,,,,0.0,4.0,0.0,4.0,0.0,4.0,33.333332,,,,,,,,63.0,0.0,0.181873,0.6152340000000001,-0.138916,-0.7543949999999999,0.878431,-0.42920600000000003,-0.22510100000000002,-0.01273,-0.020031999999999998,-0.038679000000000005,,,,,,,,,,,,,,,,,,,,,,,,,,,,,,,,,,,,,,,,,,,,,,,,,,,,,,,,,,,,,,,,,
18748,1645817878.818192,1645817878.8290641,127.0,0.0,4341.538574,4595.384765999999,4219.487305,4198.461426,4292.820313,233.0,1.0,15.0,,,,0.0,4.0,0.0,4.0,0.0,4.0,33.333332,1.0,33.333332,4.0,0.0,4.0,0.0,4.0,,,,,,,,,,,,,1.0,0.0,0.0,,,,,,,,,,,,,,,,,,,,,,,,,,,,,,,,0.0,0.0,1.0,0.0,512.0,1.0,2.918885,2.033889,2.147581,3.473694,3.247652,25.721370999999998,55.47319,29.94285,26.080545,15.093205,3.0647349999999998,1.548455,1.044686,3.9383779999999997,2.795984,13.599015,13.305014000000002,8.328139,4.072092,5.135524,2.25703,2.031144,1.310862,3.466542,2.953588
18749,1645817878.8260071,1645817878.8368778,0.0,0.0,4364.102539,4678.974121,4230.769043,4203.589844,4307.179688,450.0,1.0,15.0,,,,0.0,4.0,0.0,4.0,0.0,4.0,33.333332,,,,,,,,0.0,0.0,0.181873,0.6152340000000001,-0.138916,-0.7543949999999999,0.8886850000000001,-0.4336,-0.212894,-0.013312000000000001,-0.020030000000000003,-0.04067,,,,,,,,,,,,,,,,,,,,,,,,,,,,,,,,,,,,,,,,,,,,,,,,,,,,,,,,,,,,,,,,,
18750,1645817878.833823,1645817878.844693,1.0,0.0,4326.666504,4700.512695,4190.256348,4198.974121,4275.384765999999,450.0,1.0,15.0,,,,0.0,4.0,0.0,4.0,0.0,4.0,33.333332,,,,,,,,,,,,,,,,,,,,,,,,,,,,,,,,,,,,,,,,,,,,,,,,,,,,,,,,,,,,,,,,,,,,,,,,,,,,,,,,,,,,
18751,1645817878.841638,1645817878.852507,2.0,0.0,4315.897461,4618.461426,4186.153809,4204.102539,4274.358886999999,16206.0,1.0,15.0,,,,0.0,4.0,0.0,4.0,0.0,4.0,33.333332,,,,,,,,1.0,0.0,0.181232,0.615479,-0.138672,-0.7543949999999999,0.91017,-0.424811,-0.207523,-0.01369,-0.020028999999999998,-0.036261,,,,,,,,,,,,,,,,,,,,,,,,,,,,,,,,,,,,,,,,,,,,,,,,,,,,,,,,,,,,,,,,,
18752,1645817878.849454,1645817878.860321,3.0,0.0,4346.666504,4593.333496,4217.94873,4213.333496,4292.820313,450.0,1.0,15.0,,,,0.0,4.0,0.0,4.0,0.0,4.0,33.333332,,,,,,,,,,,,,,,,,,,,,,,,,,,,,,,,,,,,,,,,,,,,,,,,,,,,,,0.0,0.0,1.0,0.0,512.0,1.0,,,,,,,,,,,,,,,,,,,,,,,,,
18753,1645817878.857269,1645817878.868136,4.0,0.0,4332.820313,4648.205078,4215.384765999999,4214.358886999999,4271.282227000001,0.0,1.0,15.0,,,,0.0,4.0,0.0,4.0,0.0,4.0,33.333332,,,,,,,,2.0,0.0,0.181873,0.6152340000000001,-0.138916,-0.7543949999999999,0.878431,-0.42920600000000003,-0.22510100000000002,-0.012468,-0.01998,-0.038592,,,,,,,,,,,,,,,,,,,,,,,,,,,,,,,,,,,,,,,,,,,,,,,,,,,,,,,,,,,,,,,,,
18754,1645817878.865085,1645817878.87595,5.0,0.0,4308.717772999999,4670.256348,4196.922852000001,4192.307617,4261.025879,450.0,1.0,15.0,,,,0.0,4.0,0.0,4.0,0.0,4.0,33.333332,,,,,,,,,,,,,,,,,,,,,,,,,,,,,,,,,,,,,,,,,,,,,,,,,,,,,,,,,,,,,,,,,,,,,,,,,,,,,,,,,,,,
18755,1645817878.8729,1645817878.883665,6.0,0.0,4327.179688,4674.358886999999,4206.666504,4185.641113000001,4286.666504,16199.0,1.0,15.0,,,,0.0,4.0,0.0,4.0,0.0,4.0,33.333332,,,,,,,,3.0,0.0,0.181232,0.615479,-0.138672,-0.7543949999999999,0.91017,-0.424811,-0.207523,-0.01293,-0.019984000000000002,-0.034391000000000005,,,,,,,,,,,,,,,,,,,,,,,,,,,,,,,,,,,,,,,,,,,,,,,,,,,,,,,,,,,,,,,,,
18756,1645817878.8807151,1645817878.891479,7.0,0.0,4347.179688,4684.615234000001,4218.461426,4243.077147999999,4292.307617,450.0,1.0,15.0,,,,0.0,4.0,0.0,4.0,0.0,4.0,33.333332,,,,,,,,,,,,,,,,,,,,,,,,,,,,,,,,,,,,,,,,,,,,,,,,,,,,,,0.0,0.0,1.0,0.0,512.0,1.0,,,,,,,,,,,,,,,,,,,,,,,,,
18757,1645817878.888531,1645817878.899293,8.0,0.0,4328.717772999999,4695.384765999999,4207.179688,4293.846191,4270.256348,450.0,1.0,15.0,,,,0.0,4.0,0.0,4.0,0.0,4.0,33.333332,,,,,,,,4.0,0.0,0.182246,0.615479,-0.138672,-0.75415,0.8881969999999999,-0.431647,-0.212894,-0.013491999999999999,-0.019841,-0.036958,,,,,,,,,,,,,,,,,,,,,,,,,,,,,,,,,,,,,,,,,,,,,,,,,,,,,,,,,,,,,,,,,
18758,1645817878.896346,1645817878.907008,9.0,0.0,4306.666504,4682.563965,4195.384765999999,4280.512695,4258.461426,62.0,1.0,15.0,,,,0.0,4.0,0.0,4.0,1.0,4.0,41.666668,,,,,,,,,,,,,,,,,,,,,,,,,,,,,,,,,,,,,,,,,,,,,,,,,,,,,,,,,,,,,,,,,,,,,,,,,,,,,,,,,,,,
18759,1645817878.904162,1645817878.914822,10.0,0.0,4317.94873,4659.487305,4205.641113000001,4249.743652,4267.179688,450.0,1.0,15.0,,,,0.0,4.0,0.0,4.0,1.0,4.0,41.666668,,,,,,,,5.0,0.0,0.182246,0.615479,-0.138672,-0.75415,0.877943,-0.431647,-0.203128,-0.013852000000000001,-0.019906999999999998,-0.039219,,,,,,,,,,,,,,,,,,,,,,,,,,,,,,,,,,,,,,,,,,,,,,,,,,,,,,,,,,,,,,,,,
18760,1645817878.911977,1645817878.922637,11.0,0.0,4345.641113000001,4675.384765999999,4223.077147999999,4252.307617,4287.179688,16171.0,1.0,15.0,,,,0.0,4.0,0.0,4.0,1.0,4.0,41.666668,,,,,,,,,,,,,,,,,,,,,,,,,,,,,,,,,,,,,,,,,,,,,,,,,,,,,,0.0,0.0,1.0,0.0,512.0,1.0,,,,,,,,,,,,,,,,,,,,,,,,,
18761,1645817878.919793,1645817878.930451,12.0,0.0,4342.563965,4715.897461,4220.512695,4246.153809,4292.307617,450.0,1.0,15.0,,,,0.0,4.0,0.0,4.0,1.0,4.0,41.666668,,,,,,,,6.0,0.0,0.181419,0.6157229999999999,-0.138672,-0.75415,0.8969860000000001,-0.427253,-0.21826500000000001,-0.014127,-0.019968,-0.035005,,,,,,,,,,,,,,,,,,,,,,,,,,,,,,,,,,,,,,,,,,,,,,,,,,,,,,,,,,,,,,,,,
18762,1645817878.927608,1645817878.938266,13.0,0.0,4314.871582,4687.692383,4205.128418,4234.358886999999,4273.846191,450.0,1.0,15.0,,,,0.0,4.0,0.0,4.0,1.0,4.0,41.666668,,,,,,,,,,,,,,,,,,,,,,,,,,,,,,,,,,,,,,,,,,,,,,,,,,,,,,,,,,,,,,,,,,,,,,,,,,,,,,,,,,,,
18763,1645817878.935424,1645817878.94598,14.0,0.0,4304.615234000001,4616.410156,4192.820313,4249.743652,4257.436035,450.0,1.0,15.0,,,,0.0,4.0,0.0,4.0,1.0,4.0,41.666668,,,,,,,,7.0,0.0,0.181419,0.6157229999999999,-0.138672,-0.75415,0.882826,-0.437018,-0.215824,-0.014472,-0.020022,-0.03126,,,,,,,,,,,,,,,,,,,,,,,,,,,,,,,,,,,,,,,,,,,,,,,,,,,,,,,,,,,,,,,,,
18764,1645817878.943239,1645817878.953795,15.0,0.0,4325.128418,4652.820313,4207.692383,4229.230957,4268.717772999999,16171.0,1.0,15.0,,,,0.0,4.0,0.0,4.0,1.0,4.0,41.666668,,,,,,,,,,,,,,,,,,,,1.0,0.0,0.0,,,,,,,,,,,,,,,,,,,,,,,,,,,,,,,,0.0,0.0,1.0,0.0,512.0,1.0,2.853384,2.08701,2.302125,3.05227,3.15573,26.258566,45.094696,23.193291000000002,24.683748,14.838775,3.2868510000000004,1.6546,1.3981219999999999,3.373736,2.761381,12.375447,16.353523000000003,11.723975,4.122043,4.925912,2.282833,1.990775,1.3171899999999999,3.206086,2.9913790000000002
18765,1645817878.951055,1645817878.961609,16.0,0.0,4345.641113000001,4728.717772999999,4232.307617,4164.102539,4293.333496,0.0,1.0,15.0,,,,0.0,4.0,0.0,4.0,1.0,4.0,41.666668,,,,,,,,8.0,0.0,0.181419,0.6157229999999999,-0.138672,-0.75415,0.8842909999999999,-0.42969399999999996,-0.210941,-0.013074,-0.020021,-0.027841,,,,,,,,,,,,,,,,,,,,,,,,,,,,,,,,,,,,,,,,,,,,,,,,,,,,,,,,,,,,,,,,,
18766,1645817878.95887,1645817878.969423,17.0,0.0,4347.692383,4687.179688,4244.615234000001,4171.282227000001,4307.179688,0.0,1.0,15.0,,,,0.0,4.0,0.0,4.0,1.0,4.0,41.666668,,,,,,,,,,,,,,,,,,,,,,,,,,,,,,,,,,,,,,,,,,,,,,,,,,,,,,,,,,,,,,,,,,,,,,,,,,,,,,,,,,,,
18767,1645817878.966686,1645817878.9772382,18.0,0.0,4343.077147999999,4593.846191,4241.538574,4220.512695,4297.436035,0.0,1.0,15.0,,,,0.0,4.0,0.0,4.0,1.0,4.0,41.666668,,,,,,,,9.0,0.0,0.181419,0.6157229999999999,-0.138672,-0.75415,0.8886850000000001,-0.440436,-0.22119499999999997,-0.013524000000000001,-0.020168000000000002,-0.031014,,,,,,,,,,,,,,,,,,,,,,,,,,,,,,,,,,,,,,,,,,,,,,,,,,,,,,,,,,,,,,,,,
18768,1645817878.974501,1645817878.9850519,19.0,0.0,4331.794922,4596.922852000001,4227.692383,4226.666504,4277.436035,0.0,1.0,15.0,,,,0.0,4.0,0.0,4.0,1.0,4.0,41.666668,,,,,,,,,,,,,,,,,,,,,,,,,,,,,,,,,,,,,,,,,,,,,,,,,,,,,,0.0,0.0,1.0,0.0,512.0,1.0,,,,,,,,,,,,,,,,,,,,,,,,,
18769,1645817878.982317,1645817878.992867,20.0,0.0,4329.743652,4646.153809,4230.769043,4237.436035,4274.871582,0.0,1.0,15.0,,,,0.0,4.0,0.0,4.0,1.0,4.0,41.666668,,,,,,,,10.0,0.0,0.181419,0.6157229999999999,-0.138672,-0.75415,0.885756,-0.431159,-0.210941,-0.013831999999999999,-0.020104,-0.027668,,,,,,,,,,,,,,,,,,,,,,,,,,,,,,,,,,,,,,,,,,,,,,,,,,,,,,,,,,,,,,,,,
18770,1645817878.990132,1645817879.0006812,21.0,0.0,4330.769043,4642.563965,4228.717772999999,4232.820313,4276.922852000001,0.0,1.0,15.0,,,,0.0,4.0,0.0,4.0,1.0,4.0,41.666668,,,,,,,,,,,,,,,,,,,,,,,,,,,,,,,,,,,,,,,,,,,,,,,,,,,,,,,,,,,,,,,,,,,,,,,,,,,,,,,,,,,,
18771,1645817878.997948,1645817879.0084949,22.0,0.0,4312.820313,4616.410156,4203.077147999999,4181.538574,4261.538574,0.0,1.0,15.0,,,,0.0,4.0,0.0,4.0,1.0,4.0,41.666668,,,,,,,,11.0,0.0,0.182616,0.6157229999999999,-0.138428,-0.7539060000000001,0.889174,-0.421393,-0.207523,-0.014158,-0.020145,-0.024657,,,,,,,,,,,,,,,,,,,,,,,,,,,,,,,,,,,,,,,,,,,,,,,,,,,,,,,,,,,,,,,,,
18772,1645817879.005763,1645817879.01621,23.0,0.0,4322.05127,4674.358886999999,4214.358886999999,4188.205078,4274.358886999999,0.0,1.0,15.0,,,,0.0,4.0,0.0,4.0,1.0,4.0,41.666668,,,,,,,,,,,,,,,,,,,,,,,,,,,,,,,,,,,,,,,,,,,,,,,,,,,,,,0.0,0.0,1.0,0.0,512.0,1.0,,,,,,,,,,,,,,,,,,,,,,,,,
18773,1645817879.013579,1645817879.024024,24.0,0.0,4365.641113000001,4716.922852000001,4255.897461,4228.205078,4311.794922,0.0,1.0,15.0,,,,0.0,4.0,0.0,4.0,1.0,4.0,41.666668,,,,,,,,12.0,0.0,0.181791,0.615967,-0.138428,-0.7539060000000001,0.8886850000000001,-0.430671,-0.21386999999999998,-0.014549000000000001,-0.020034,-0.028149,,,,,,,,,,,,,,,,,,,,,,,,,,,,,,,,,,,,,,,,,,,,,,,,,,,,,,,,,,,,,,,,,
18774,1645817879.021394,1645817879.0318391,25.0,0.0,4357.436035,4646.666504,4236.410156,4236.410156,4305.128418,0.0,1.0,15.0,,,,0.0,4.0,0.0,4.0,1.0,4.0,41.666668,,,,,,,,,,,,,,,,,,,,,,,,,,,,,,,,,,,,,,,,,,,,,,,,,,,,,,,,,,,,,,,,,,,,,,,,,,,,,,,,,,,,
18775,1645817879.0292099,1645817879.0396528,26.0,0.0,4310.769043,4646.153809,4190.256348,4279.487305,4268.205078,0.0,1.0,15.0,,,,0.0,4.0,0.0,4.0,1.0,4.0,41.666668,,,,,,,,13.0,0.0,0.181791,0.615967,-0.138428,-0.7539060000000001,0.8921030000000001,-0.431159,-0.211917,-0.014656,-0.020131,-0.03134,,,,,,,,,,,,,,,,,,,,,,,,,,,,,,,,,,,,,,,,,,,,,,,,,,,,,,,,,,,,,,,,,
18776,1645817879.037025,1645817879.047468,27.0,0.0,4317.436035,4719.487305,4203.077147999999,4316.922852000001,4265.128418,0.0,1.0,15.0,,,,0.0,4.0,0.0,4.0,1.0,4.0,41.666668,,,,,,,,,,,,,,,,,,,,,,,,,,,,,,,,,,,,,,,,,,,,,,,,,,,,,,0.0,0.0,1.0,0.0,512.0,1.0,,,,,,,,,,,,,,,,,,,,,,,,,
18777,1645817879.04484,1645817879.055282,28.0,0.0,4362.05127,4669.743652,4234.358886999999,4295.897461,4294.871582,0.0,1.0,15.0,,,,0.0,4.0,0.0,4.0,1.0,4.0,41.666668,,,,,,,,14.0,0.0,0.182801,0.615967,-0.138428,-0.7536619999999999,0.901381,-0.44776099999999996,-0.20703400000000002,-0.013386000000000002,-0.020168000000000002,-0.034261,,,,,,,,,,,,,,,,,,,,,,,,,,,,,,,,,,,,,,,,,,,,,,,,,,,,,,,,,,,,,,,,,
18778,1645817879.0526562,1645817879.063096,29.0,0.0,4383.589844,4607.692383,4244.102539,4279.487305,4324.102539,0.0,1.0,15.0,,,,0.0,4.0,0.0,4.0,1.0,4.0,41.666668,,,,,,,,,,,,,,,,,,,,,,,,,,,,,,,,,,,,,,,,,,,,,,,,,,,,,,,,,,,,,,,,,,,,,,,,,,,,,,,,,,,,
18779,1645817879.060471,1645817879.070911,30.0,0.0,4372.820313,4624.615234000001,4252.820313,4289.743652,4327.179688,0.0,1.0,15.0,,,,0.0,4.0,0.0,4.0,1.0,4.0,41.666668,,,,,,,,15.0,0.0,0.182801,0.615967,-0.138428,-0.7536619999999999,0.8921030000000001,-0.433112,-0.208988,-0.013903,-0.020105,-0.036792,,,,,,,,,,,,,,,,,,,,,,,,,,,,,,,,,,,,,,,,,,,,,,,,,,,,,,,,,,,,,,,,,
18780,1645817879.068287,1645817879.078725,31.0,0.0,4336.410156,4603.589844,4232.307617,4274.358886999999,4294.358886999999,0.0,1.0,15.0,,,,0.0,4.0,0.0,4.0,1.0,4.0,41.666668,,,,,,,,,,,,,,,,,,,,1.0,0.0,0.0,,,,,,,,,,,,,,,,,,,,,,,,,,,,,,,,0.0,0.0,1.0,0.0,512.0,1.0,2.571977,2.026151,2.407824,2.71506,2.933903,34.567013,35.205948,16.874807,23.191557,14.829089999999999,3.1916580000000003,1.7461209999999998,1.8470380000000002,2.793108,2.629261,10.58407,19.731497,15.063053,4.219598,4.605243,2.194584,1.904881,1.527915,3.059079,2.943706
18781,1645817879.076102,1645817879.08654,32.0,0.0,4309.743652,4610.256348,4197.436035,4244.615234000001,4269.743652,0.0,1.0,15.0,,,,0.0,4.0,0.0,4.0,1.0,4.0,41.666668,,,,,,,,16.0,0.0,0.18298499999999998,0.615967,-0.138184,-0.7536619999999999,0.887709,-0.43018199999999995,-0.21435900000000002,-0.014271,-0.020145,-0.03907,,,,,,,,,,,,,,,,,,,,,,,,,,,,,,,,,,,,,,,,,,,,,,,,,,,,,,,,,,,,,,,,,
18782,1645817879.0839179,1645817879.094254,33.0,0.0,4327.179688,4688.205078,4217.94873,4228.717772999999,4291.794922,0.0,1.0,15.0,,,,0.0,4.0,0.0,4.0,1.0,4.0,41.666668,,,,,,,,,,,,,,,,,,,,,,,,,,,,,,,,,,,,,,,,,,,,,,,,,,,,,,,,,,,,,,,,,,,,,,,,,,,,,,,,,,,,
18783,1645817879.091733,1645817879.102068,34.0,0.0,4350.769043,4692.820313,4262.563965,4237.94873,4318.461426,0.0,1.0,15.0,,,,0.0,4.0,0.0,4.0,1.0,4.0,41.666668,,,,,,,,17.0,0.0,0.182161,0.616211,-0.138184,-0.7536619999999999,0.882826,-0.438483,-0.217777,-0.014552,-0.020181,-0.041022,,,,,,,,,,,,,,,,,,,,,,,,,,,,,,,,,,,,,,,,,,,,,,,,,,,,,,,,,,,,,,,,,
18784,1645817879.099549,1645817879.109883,35.0,0.0,4340.0,4604.615234000001,4244.615234000001,4252.820313,4292.307617,0.0,1.0,15.0,,,,0.0,4.0,0.0,4.0,1.0,4.0,41.666668,,,,,,,,,,,,,,,,,,,,,,,,,,,,,,,,,,,,,,,,,,,,,,,,,,,,,,0.0,0.0,1.0,0.0,512.0,1.0,,,,,,,,,,,,,,,,,,,,,,,,,
18785,1645817879.1073642,1645817879.117697,36.0,0.0,4318.461426,4586.153809,4200.0,4248.205078,4260.0,0.0,1.0,15.0,,,,0.0,4.0,0.0,4.0,1.0,4.0,41.666668,,,,,,,,18.0,0.0,0.183169,0.616211,-0.138184,-0.753418,0.890639,-0.44434300000000004,-0.20996399999999998,-0.014855000000000002,-0.020263,-0.042779000000000005,,,,,,,,,,,,,,,,,,,,,,,,,,,,,,,,,,,,,,,,,,,,,,,,,,,,,,,,,,,,,,,,,
18786,1645817879.11518,1645817879.125512,37.0,0.0,4316.922852000001,4600.0,4211.794922,4241.025879,4278.974121,0.0,1.0,15.0,,,,0.0,4.0,0.0,4.0,1.0,4.0,41.666668,,,,,,,,,,,,,,,,,,,,,,,,,,,,,,,,,,,,,,,,,,,,,,,,,,,,,,,,,,,,,,,,,,,,,,,,,,,,,,,,,,,,
18787,1645817879.122995,1645817879.133326,38.0,0.0,4321.538574,4574.358886999999,4236.922852000001,4246.153809,4291.794922,0.0,1.0,15.0,,,,0.0,4.0,0.0,4.0,1.0,4.0,41.666668,,,,,,,,19.0,0.0,0.183169,0.616211,-0.138184,-0.753418,0.89015,-0.42920600000000003,-0.20361600000000002,-0.015127000000000002,-0.020287,-0.044459,,,,,,,,,,,,,,,,,,,,,,,,,,,,,,,,,,,,,,,,,,,,,,,,,,,,,,,,,,,,,,,,,
18788,1645817879.130811,1645817879.141141,39.0,0.0,4318.974121,4601.538574,4224.102539,4239.487305,4272.307617,0.0,1.0,15.0,,,,0.0,4.0,0.0,4.0,1.0,4.0,41.666668,,,,,,,,,,,,,,,,,,,,,,,,,,,,,,,,,,,,,,,,,,,,,,,,,,,,,,0.0,0.0,1.0,0.0,512.0,1.0,,,,,,,,,,,,,,,,,,,,,,,,,
18789,1645817879.1386259,1645817879.148955,40.0,0.0,4333.846191,4684.615234000001,4220.512695,4222.563965,4282.05127,0.0,1.0,15.0,,,,0.0,4.0,0.0,4.0,1.0,4.0,41.666668,,,,,,,,20.0,0.0,0.182345,0.616455,-0.138184,-0.753418,0.898451,-0.43946,-0.226566,-0.015324,-0.020309,-0.045921,,,,,,,,,,,,,,,,,,,,,,,,,,,,,,,,,,,,,,,,,,,,,,,,,,,,,,,,,,,,,,,,,
18790,1645817879.146442,1645817879.156769,41.0,0.0,4353.333496,4661.538574,4244.102539,4227.179688,4313.846191,0.0,1.0,15.0,,,,0.0,4.0,0.0,4.0,1.0,4.0,41.666668,,,,,,,,,,,,,,,,,,,,,,,,,,,,,,,,,,,,,,,,,,,,,,,,,,,,,,,,,,,,,,,,,,,,,,,,,,,,,,,,,,,,
18791,1645817879.154257,1645817879.164484,42.0,0.0,4337.94873,4548.205078,4240.0,4239.487305,4286.153809,0.0,1.0,15.0,,,,0.0,4.0,0.0,4.0,1.0,4.0,41.666668,,,,,,,,21.0,0.0,0.183167,0.616455,-0.138428,-0.753174,0.8872209999999999,-0.435065,-0.21386999999999998,-0.013987000000000001,-0.020378,-0.041036,,,,,,,,,,,,,,,,,,,,,,,,,,,,,,,,,,,,,,,,,,,,,,,,,,,,,,,,,,,,,,,,,
18792,1645817879.1620731,1645817879.172298,43.0,0.0,4305.128418,4558.974121,4200.0,4229.230957,4237.94873,0.0,1.0,15.0,,,,0.0,4.0,0.0,4.0,1.0,4.0,41.666668,,,,,,,,,,,,,,,,,,,,,,,,,,,,,,,,,,,,,,,,,,,,,,,,,,,,,,0.0,0.0,1.0,0.0,512.0,1.0,,,,,,,,,,,,,,,,,,,,,,,,,
18793,1645817879.169888,1645817879.180113,44.0,0.0,4304.102539,4586.666504,4200.0,4222.563965,4248.205078,0.0,1.0,15.0,,,,0.0,4.0,0.0,4.0,1.0,4.0,41.666668,,,,,,,,22.0,0.0,0.183167,0.616455,-0.138428,-0.753174,0.8921030000000001,-0.43408900000000006,-0.21240599999999998,-0.012783,-0.02044,-0.042938,,,,,,,,,,,,,,,,,,,,,,,,,,,,,,,,,,,,,,,,,,,,,,,,,,,,,,,,,,,,,,,,,
18794,1645817879.177703,1645817879.187927,45.0,0.0,4335.897461,4566.666504,4241.538574,4238.974121,4294.358886999999,0.0,1.0,15.0,,,,0.0,4.0,0.0,4.0,1.0,4.0,41.666668,,,,,,,,,,,,,,,,,,,,,,,,,,,,,,,,,,,,,,,,,,,,,,,,,,,,,,,,,,,,,,,,,,,,,,,,,,,,,,,,,,,,
18795,1645817879.185519,1645817879.195741,46.0,0.0,4330.769043,4616.922852000001,4243.589844,4244.615234000001,4288.205078,0.0,1.0,15.0,,,,0.0,4.0,0.0,4.0,1.0,4.0,41.666668,,,,,,,,23.0,0.0,0.183167,0.616455,-0.138428,-0.753174,0.8813610000000001,-0.42920600000000003,-0.21240599999999998,-0.013312000000000001,-0.020593,-0.04465,,,,,,,,,,,,,,,,,,,,,,,,,,,,,,,,,,,,,,,,,,,,,,,,,,,,,,,,,,,,,,,,,
18796,1645817879.193334,1645817879.203556,47.0,0.0,4312.820313,4649.743652,4208.717772999999,4234.358886999999,4258.974121,0.0,1.0,15.0,,,,0.0,4.0,0.0,4.0,1.0,4.0,41.666668,,,,,,,,,,,,,,,,,,,,1.0,0.0,0.0,,,,,,,,,,,,,,,,,,,,,,,,,,,,,,,,0.0,0.0,1.0,0.0,512.0,1.0,2.2040450000000003,1.876459,2.4047009999999998,2.522011,2.6633880000000003,53.086383999999995,30.294392,12.628572,22.718317000000003,15.187849,2.821128,1.763524,2.2902259999999997,2.307738,2.445443,9.089423,22.682112,17.453962,4.391609,4.235608999999999,2.047734,1.813857,1.8683580000000002,3.06855,2.8089880000000003
18797,1645817879.20115,1645817879.21137,48.0,0.0,4320.0,4577.94873,4193.846191,4215.384765999999,4270.769043,0.0,1.0,15.0,,,,0.0,4.0,0.0,4.0,1.0,4.0,41.666668,,,,,,,,24.0,0.0,0.184168,0.616455,-0.138428,-0.75293,0.8838030000000001,-0.42236999999999997,-0.2168,-0.013836000000000001,-0.020634,-0.046239999999999996,,,,,,,,,,,,,,,,,,,,,,,,,,,,,,,,,,,,,,,,,,,,,,,,,,,,,,,,,,,,,,,,,
18798,1645817879.208965,1645817879.2191849,49.0,0.0,4329.743652,4547.692383,4211.794922,4215.897461,4285.641113000001,0.0,1.0,15.0,,,,0.0,4.0,0.0,4.0,1.0,4.0,41.666668,,,,,,,,,,,,,,,,,,,,,,,,,,,,,,,,,,,,,,,,,,,,,,,,,,,,,,,,,,,,,,,,,,,,,,,,,,,,,,,,,,,,
18799,1645817879.2167811,1645817879.226999,50.0,0.0,4329.743652,4606.666504,4221.025879,4252.307617,4281.538574,0.0,1.0,15.0,,,,0.0,4.0,0.0,4.0,1.0,4.0,41.666668,,,,,,,,25.0,0.0,0.183533,0.616699,-0.138184,-0.75293,0.904799,-0.43213500000000005,-0.21924200000000002,-0.014357,-0.020523,-0.047524000000000004,,,,,,,,,,,,,,,,,,,,,,,,,,,,,,,,,,,,,,,,,,,,,,,,,,,,,,,,,,,,,,,,,
18800,1645817879.224596,1645817879.234714,51.0,0.0,4320.512695,4626.666504,4198.461426,4252.820313,4272.307617,0.0,1.0,15.0,,,,0.0,4.0,0.0,4.0,1.0,4.0,41.666668,,,,,,,,,,,,,,,,,,,,,,,,,,,,,,,,,,,,,,,,,,,,,,,,,,,,,,0.0,0.0,1.0,0.0,512.0,1.0,,,,,,,,,,,,,,,,,,,,,,,,,
18801,1645817879.2324119,1645817879.242528,52.0,0.0,4296.922852000001,4619.487305,4165.128418,4215.384765999999,4257.436035,0.0,1.0,15.0,,,,0.0,4.0,0.0,4.0,1.0,4.0,41.666668,,,,,,,,26.0,0.0,0.184351,0.616455,-0.138184,-0.75293,0.8774549999999999,-0.43457700000000005,-0.222171,-0.013116,-0.020472999999999998,-0.04868,,,,,,,,,,,,,,,,,,,,,,,,,,,,,,,,,,,,,,,,,,,,,,,,,,,,,,,,,,,,,,,,,
18802,1645817879.240227,1645817879.250342,53.0,0.0,4289.743652,4609.230957,4173.846191,4222.563965,4248.205078,0.0,1.0,15.0,,,,0.0,4.0,0.0,4.0,1.0,4.0,41.666668,,,,,,,,,,,,,,,,,,,,,,,,,,,,,,,,,,,,,,,,,,,,,,,,,,,,,,,,,,,,,,,,,,,,,,,,,,,,,,,,,,,,
18803,1645817879.248043,1645817879.258157,54.0,0.0,4304.102539,4623.077147999999,4194.358886999999,4200.512695,4254.358886999999,0.0,1.0,15.0,,,,0.0,4.0,0.0,4.0,1.0,4.0,41.666668,,,,,,,,27.0,0.0,0.184351,0.616455,-0.138184,-0.75293,0.869642,-0.44971400000000006,-0.199222,-0.01366,-0.020477000000000002,-0.049672,,,,,,,,,,,,,,,,,,,,,,,,,,,,,,,,,,,,,,,,,,,,,,,,,,,,,,,,,,,,,,,,,
18804,1645817879.255858,1645817879.2659712,55.0,0.0,4320.0,4662.563965,4202.05127,4143.589844,4278.974121,0.0,1.0,15.0,,,,0.0,4.0,0.0,4.0,1.0,4.0,41.666668,,,,,,,,,,,,,,,,,,,,,,,,,,,,,,,,,,,,,,,,,,,,,,,,,,,,,,0.0,0.0,1.0,0.0,512.0,1.0,,,,,,,,,,,,,,,,,,,,,,,,,
18805,1645817879.263674,1645817879.2737858,56.0,0.0,4335.897461,4670.769043,4205.641113000001,4175.897461,4306.153809,0.0,1.0,15.0,,,,0.0,4.0,0.0,4.0,1.0,4.0,41.666668,,,,,,,,28.0,0.0,0.184351,0.616455,-0.138184,-0.75293,0.893568,-0.447272,-0.215335,-0.014052,-0.020431,-0.050662,,,,,,,,,,,,,,,,,,,,,,,,,,,,,,,,,,,,,,,,,,,,,,,,,,,,,,,,,,,,,,,,,
18806,1645817879.2714891,1645817879.2816,57.0,0.0,4304.102539,4620.0,4176.922852000001,4235.384765999999,4271.282227000001,0.0,1.0,15.0,,,,0.0,4.0,0.0,4.0,1.0,4.0,41.666668,,,,,,,,,,,,,,,,,,,,,,,,,,,,,,,,,,,,,,,,,,,,,,,,,,,,,,,,,,,,,,,,,,,,,,,,,,,,,,,,,,,,
18807,1645817879.279305,1645817879.2894142,58.0,0.0,4283.077147999999,4583.077147999999,4165.128418,4198.461426,4240.512695,0.0,1.0,15.0,,,,0.0,4.0,0.0,4.0,1.0,4.0,41.666668,,,,,,,,29.0,0.0,0.184351,0.616455,-0.138184,-0.75293,0.8774549999999999,-0.43457700000000005,-0.222171,-0.014502000000000001,-0.020487000000000002,-0.0454,,,,,,,,,,,,,,,,,,,,,,,,,,,,,,,,,,,,,,,,,,,,,,,,,,,,,,,,,,,,,,,,,
18808,1645817879.2871199,1645817879.2972288,59.0,0.0,4317.436035,4601.025879,4201.025879,4144.102539,4271.282227000001,0.0,1.0,15.0,,,,0.0,4.0,0.0,4.0,1.0,4.0,41.666668,,,,,,,,,,,,,,,,,,,,,,,,,,,,,,,,,,,,,,,,,,,,,,,,,,,,,,0.0,0.0,1.0,0.0,512.0,1.0,,,,,,,,,,,,,,,,,,,,,,,,,
18809,1645817879.294936,1645817879.305043,60.0,0.0,4337.436035,4597.436035,4216.410156,4124.615234000001,4290.769043,0.0,1.0,15.0,,,,0.0,4.0,0.0,4.0,1.0,4.0,41.666668,,,,,,,,30.0,0.0,0.184351,0.616455,-0.138184,-0.75293,0.893568,-0.447272,-0.215335,-0.01481,-0.020441,-0.046817000000000004,,,,,,,,,,,,,,,,,,,,,,,,,,,,,,,,,,,,,,,,,,,,,,,,,,,,,,,,,,,,,,,,,
18810,1645817879.302751,1645817879.312758,61.0,0.0,4333.333496,4592.307617,4202.563965,4130.256348,4284.615234000001,0.0,1.0,15.0,,,,0.0,4.0,0.0,4.0,1.0,4.0,41.666668,,,,,,,,,,,,,,,,,,,,,,,,,,,,,,,,,,,,,,,,,,,,,,,,,,,,,,,,,,,,,,,,,,,,,,,,,,,,,,,,,,,,
18811,1645817879.310566,1645817879.3205721,62.0,0.0,4335.897461,4618.461426,4206.666504,4134.358886999999,4291.794922,0.0,1.0,15.0,,,,0.0,4.0,0.0,4.0,1.0,4.0,41.666668,,,,,,,,31.0,0.0,0.184168,0.616455,-0.138428,-0.75293,0.885756,-0.442878,-0.21484699999999998,-0.013572999999999998,-0.02035,-0.048142000000000004,,,,,,,,,,,,,,,,,,,,,,,,,,,,,,,,,,,,,,,,,,,,,,,,,,,,,,,,,,,,,,,,,
18812,1645817879.318382,1645817879.328387,63.0,0.0,4314.358886999999,4600.512695,4207.692383,4115.384765999999,4276.410156,0.0,1.0,15.0,,,,0.0,4.0,0.0,4.0,1.0,4.0,41.666668,1.0,33.333332,4.0,0.0,4.0,0.0,4.0,,,,,,,,,,,,,1.0,0.0,0.0,,,,,,,,,,,,,,,,,,,,,,,,,,,,,,,,0.0,0.0,1.0,0.0,512.0,1.0,1.858512,1.6985569999999999,2.2550830000000004,2.470112,2.440273,79.316437,31.603921999999997,10.991963,23.516989000000002,15.797701000000002,2.3098810000000003,1.708068,2.591175,1.9877509999999998,2.278375,9.053073,24.22431,18.339869,4.653835,3.8395050000000004,1.868069,1.7552580000000002,2.189126,3.194509,2.609081
18813,1645817879.3261971,1645817879.336201,64.0,0.0,4304.102539,4540.0,4207.179688,4091.794922,4265.641113000001,450.0,1.0,15.0,,,,0.0,4.0,0.0,4.0,1.0,4.0,41.666668,,,,,,,,32.0,0.0,0.183349,0.616699,-0.138428,-0.75293,0.898451,-0.424811,-0.20556999999999997,-0.013974,-0.020316999999999998,-0.049333,,,,,,,,,,,,,,,,,,,,,,,,,,,,,,,,,,,,,,,,,,,,,,,,,,,,,,,,,,,,,,,,,
18814,1645817879.334013,1645817879.3440151,65.0,0.0,4334.358886999999,4543.077147999999,4223.589844,4109.230957,4291.794922,450.0,1.0,15.0,,,,0.0,4.0,0.0,4.0,1.0,4.0,41.666668,,,,,,,,,,,,,,,,,,,,,,,,,,,,,,,,,,,,,,,,,,,,,,,,,,,,,,,,,,,,,,,,,,,,,,,,,,,,,,,,,,,,
18815,1645817879.3418279,1645817879.35183,66.0,0.0,4336.410156,4547.179688,4223.589844,4140.512695,4292.307617,16175.0,1.0,15.0,,,,0.0,4.0,0.0,4.0,1.0,4.0,41.666668,,,,,,,,33.0,0.0,0.18371400000000002,0.616943,-0.138184,-0.752686,0.894545,-0.431647,-0.20703400000000002,-0.012819999999999998,-0.020238,-0.050357,,,,,,,,,,,,,,,,,,,,,,,,,,,,,,,,,,,,,,,,,,,,,,,,,,,,,,,,,,,,,,,,,
18816,1645817879.349644,1645817879.359644,67.0,0.0,4310.769043,4516.410156,4198.974121,4151.282227000001,4265.641113000001,450.0,1.0,15.0,,,,0.0,4.0,0.0,4.0,1.0,4.0,41.666668,,,,,,,,,,,,,,,,,,,,,,,,,,,,,,,,,,,,,,,,,,,,,,,,,,,,,,0.0,0.0,1.0,0.0,512.0,1.0,,,,,,,,,,,,,,,,,,,,,,,,,
18817,1645817879.357459,1645817879.367459,68.0,0.0,4305.641113000001,4573.333496,4181.025879,4141.538574,4254.871582,11.0,1.0,15.0,,,,0.0,4.0,0.0,4.0,1.0,4.0,41.666668,,,,,,,,34.0,0.0,0.18371400000000002,0.616943,-0.138184,-0.752686,0.882338,-0.427741,-0.201663,-0.013345,-0.020216,-0.044931,,,,,,,,,,,,,,,,,,,,,,,,,,,,,,,,,,,,,,,,,,,,,,,,,,,,,,,,,,,,,,,,,
18818,1645817879.365275,1645817879.375273,69.0,0.0,4305.641113000001,4616.922852000001,4178.461426,4128.717772999999,4249.743652,450.0,1.0,15.0,,,,0.0,4.0,0.0,4.0,1.0,4.0,41.666668,,,,,,,,,,,,,,,,,,,,,,,,,,,,,,,,,,,,,,,,,,,,,,,,,,,,,,,,,,,,,,,,,,,,,,,,,,,,,,,,,,,,
18819,1645817879.37309,1645817879.382988,70.0,0.0,4308.717772999999,4554.871582,4189.230957,4151.282227000001,4252.820313,16130.0,1.0,15.0,,,,0.0,4.0,0.0,4.0,1.0,4.0,41.666668,,,,,,,,35.0,0.0,0.18371400000000002,0.616943,-0.138184,-0.752686,0.8764780000000001,-0.440925,-0.20996399999999998,-0.013768,-0.020246,-0.046444,,,,,,,,,,,,,,,,,,,,,,,,,,,,,,,,,,,,,,,,,,,,,,,,,,,,,,,,,,,,,,,,,
18820,1645817879.380906,1645817879.390802,71.0,0.0,4323.077147999999,4530.256348,4198.974121,4162.563965,4263.589844,450.0,1.0,15.0,,,,0.0,4.0,0.0,4.0,1.0,4.0,41.666668,,,,,,,,,,,,,,,,,,,,,,,,,,,,,,,,,,,,,,,,,,,,,,,,,,,,,,0.0,0.0,1.0,0.0,512.0,1.0,,,,,,,,,,,,,,,,,,,,,,,,,
18821,1645817879.388721,1645817879.398616,72.0,0.0,4342.05127,4584.615234000001,4212.820313,4168.205078,4283.077147999999,450.0,1.0,15.0,,,,0.0,4.0,0.0,4.0,1.0,4.0,41.666668,,,,,,,,36.0,0.0,0.18471400000000002,0.616699,-0.137939,-0.752686,0.8842909999999999,-0.441413,-0.206546,-0.012587000000000001,-0.020321000000000002,-0.047659,,,,,,,,,,,,,,,,,,,,,,,,,,,,,,,,,,,,,,,,,,,,,,,,,,,,,,,,,,,,,,,,,
18822,1645817879.3965368,1645817879.406431,73.0,0.0,4353.333496,4612.820313,4228.717772999999,4187.692383,4298.461426,34.0,1.0,15.0,,,,0.0,4.0,0.0,4.0,1.0,4.0,41.666668,,,,,,,,,,,,,,,,,,,,,,,,,,,,,,,,,,,,,,,,,,,,,,,,,,,,,,,,,,,,,,,,,,,,,,,,,,,,,,,,,,,,
18823,1645817879.404352,1645817879.414245,74.0,0.0,4332.307617,4607.179688,4200.512695,4188.205078,4271.794922,450.0,1.0,15.0,,,,0.0,4.0,0.0,4.0,1.0,4.0,41.666668,,,,,,,,37.0,0.0,0.18371600000000002,0.616699,-0.137939,-0.75293,0.878431,-0.437507,-0.20947600000000002,-0.011426,-0.020242,-0.048801,,,,,,,,,,,,,,,,,,,,,,,,,,,,,,,,,,,,,,,,,,,,,,,,,,,,,,,,,,,,,,,,,
18824,1645817879.412168,1645817879.42206,75.0,0.0,4316.922852000001,4574.358886999999,4175.897461,4170.256348,4245.128418,16204.0,1.0,15.0,,,,0.0,4.0,0.0,4.0,1.0,4.0,41.666668,,,,,,,,,,,,,,,,,,,,,,,,,,,,,,,,,,,,,,,,,,,,,,,,,,,,,,0.0,0.0,1.0,0.0,512.0,1.0,,,,,,,,,,,,,,,,,,,,,,,,,
18825,1645817879.419983,1645817879.429874,76.0,0.0,4332.307617,4545.641113000001,4197.436035,4174.358886999999,4258.974121,450.0,1.0,15.0,,,,0.0,4.0,0.0,4.0,1.0,4.0,41.666668,,,,,,,,38.0,0.0,0.18371600000000002,0.616699,-0.137939,-0.75293,0.8715950000000001,-0.430671,-0.215335,-0.012041,-0.020366,-0.043579,,,,,,,,,,,,,,,,,,,,,,,,,,,,,,,,,,,,,,,,,,,,,,,,,,,,,,,,,,,,,,,,,
18826,1645817879.427798,1645817879.437688,77.0,0.0,4347.692383,4564.102539,4216.410156,4196.410156,4274.871582,450.0,1.0,15.0,,,,0.0,4.0,0.0,4.0,1.0,4.0,41.666668,,,,,,,,,,,,,,,,,,,,,,,,,,,,,,,,,,,,,,,,,,,,,,,,,,,,,,,,,,,,,,,,,,,,,,,,,,,,,,,,,,,,
18827,1645817879.435614,1645817879.445503,78.0,0.0,4355.384765999999,4611.794922,4211.794922,4192.307617,4286.153809,450.0,1.0,15.0,,,,0.0,4.0,0.0,4.0,1.0,4.0,41.666668,,,,,,,,39.0,0.0,0.184351,0.616455,-0.138184,-0.75293,0.897475,-0.43018199999999995,-0.215335,-0.012692,-0.020478,-0.045276,,,,,,,,,,,,,,,,,,,,,,,,,,,,,,,,,,,,,,,,,,,,,,,,,,,,,,,,,,,,,,,,,
18828,1645817879.443429,1645817879.453217,79.0,0.0,4345.128418,4606.666504,4200.0,4168.205078,4281.538574,16204.0,1.0,15.0,,,,0.0,4.0,0.0,4.0,1.0,4.0,41.666668,,,,,,,,,,,,,,,,,,,,1.0,0.0,0.0,,,,,,,,,,,,,,,,,,,,,,,,,,,,,,,,0.0,0.0,1.0,0.0,512.0,1.0,1.665227,1.5587229999999999,1.96766,2.541016,2.3301369999999997,105.8694,36.792041999999995,11.277817,24.955067,16.369812,1.80883,1.61332,2.637394,1.866759,2.200021,11.050479,23.746064999999998,17.7064,4.965517,3.413042,1.709069,1.757496,2.345901,3.3741440000000003,2.394186
18829,1645817879.4512448,1645817879.461032,80.0,0.0,4318.974121,4561.025879,4180.512695,4157.436035,4251.282227000001,450.0,1.0,15.0,,,,0.0,4.0,0.0,4.0,1.0,4.0,41.666668,,,,,,,,40.0,0.0,0.184351,0.616455,-0.138184,-0.75293,0.8842909999999999,-0.433112,-0.215335,-0.013181,-0.020383000000000002,-0.040456,,,,,,,,,,,,,,,,,,,,,,,,,,,,,,,,,,,,,,,,,,,,,,,,,,,,,,,,,,,,,,,,,
18830,1645817879.45906,1645817879.4687462,81.0,0.0,4323.589844,4550.769043,4189.230957,4177.436035,4254.871582,450.0,1.0,15.0,,,,0.0,4.0,0.0,4.0,1.0,4.0,41.666668,,,,,,,,,,,,,,,,,,,,,,,,,,,,,,,,,,,,,,,,,,,,,,,,,,,,,,,,,,,,,,,,,,,,,,,,,,,,,,,,,,,,
18831,1645817879.466876,1645817879.4765608,82.0,0.0,4351.282227000001,4555.897461,4216.410156,4191.794922,4286.153809,450.0,1.0,15.0,,,,0.0,4.0,0.0,4.0,1.0,4.0,41.666668,,,,,,,,41.0,0.0,0.183167,0.616455,-0.138428,-0.753174,0.881849,-0.428717,-0.222171,-0.013621000000000001,-0.020493,-0.042318,,,,,,,,,,,,,,,,,,,,,,,,,,,,,,,,,,,,,,,,,,,,,,,,,,,,,,,,,,,,,,,,,
18832,1645817879.474691,1645817879.484375,83.0,0.0,4351.794922,4537.94873,4218.974121,4181.025879,4285.128418,16204.0,1.0,15.0,,,,0.0,4.0,0.0,4.0,1.0,4.0,41.666668,,,,,,,,,,,,,,,,,,,,,,,,,,,,,,,,,,,,,,,,,,,,,,,,,,,,,,0.0,0.0,1.0,0.0,512.0,1.0,,,,,,,,,,,,,,,,,,,,,,,,,
18833,1645817879.482507,1645817879.4921892,84.0,0.0,4344.102539,4554.871582,4214.871582,4172.307617,4282.05127,450.0,1.0,15.0,,,,0.0,4.0,0.0,4.0,1.0,4.0,41.666668,,,,,,,,42.0,0.0,0.183167,0.616455,-0.138428,-0.753174,0.886732,-0.425788,-0.221683,-0.014113999999999998,-0.020446000000000002,-0.043995,,,,,,,,,,,,,,,,,,,,,,,,,,,,,,,,,,,,,,,,,,,,,,,,,,,,,,,,,,,,,,,,,
18834,1645817879.490322,1645817879.5000038,85.0,0.0,4357.94873,4596.410156,4229.230957,4182.563965,4298.461426,450.0,1.0,15.0,,,,0.0,4.0,0.0,4.0,1.0,4.0,41.666668,,,,,,,,,,,,,,,,,,,,,,,,,,,,,,,,,,,,,,,,,,,,,,,,,,,,,,,,,,,,,,,,,,,,,,,,,,,,,,,,,,,,
18835,1645817879.4981382,1645817879.507818,86.0,0.0,4351.794922,4592.307617,4212.820313,4183.589844,4286.153809,450.0,1.0,15.0,,,,0.0,4.0,0.0,4.0,1.0,4.0,41.666668,,,,,,,,43.0,0.0,0.183167,0.616455,-0.138428,-0.753174,0.87892,-0.425788,-0.201663,-0.014461000000000002,-0.020355,-0.045600999999999996,,,,,,,,,,,,,,,,,,,,,,,,,,,,,,,,,,,,,,,,,,,,,,,,,,,,,,,,,,,,,,,,,
18836,1645817879.5059528,1645817879.515633,87.0,0.0,4341.025879,4616.922852000001,4194.871582,4182.05127,4273.846191,16204.0,1.0,15.0,,,,0.0,4.0,0.0,4.0,1.0,4.0,41.666668,,,,,,,,,,,,,,,,,,,,,,,,,,,,,,,,,,,,,,,,,,,,,,,,,,,,,,0.0,0.0,1.0,0.0,512.0,1.0,,,,,,,,,,,,,,,,,,,,,,,,,
18837,1645817879.513769,1645817879.523447,88.0,0.0,4350.769043,4709.230957,4199.487305,4178.974121,4292.307617,450.0,1.0,15.0,,,,0.0,4.0,0.0,4.0,1.0,4.0,41.666668,,,,,,,,44.0,0.0,0.183167,0.616455,-0.138428,-0.753174,0.8930799999999999,-0.421393,-0.20947600000000002,-0.014772,-0.020272,-0.046998000000000005,,,,,,,,,,,,,,,,,,,,,,,,,,,,,,,,,,,,,,,,,,,,,,,,,,,,,,,,,,,,,,,,,
18838,1645817879.521584,1645817879.531162,89.0,0.0,4340.0,4683.589844,4193.846191,4176.410156,4287.179688,450.0,1.0,15.0,,,,0.0,4.0,0.0,4.0,1.0,4.0,41.666668,,,,,,,,,,,,,,,,,,,,,,,,,,,,,,,,,,,,,,,,,,,,,,,,,,,,,,,,,,,,,,,,,,,,,,,,,,,,,,,,,,,,
18839,1645817879.5294,1645817879.538976,90.0,0.0,4324.102539,4576.410156,4191.794922,4176.922852000001,4278.461426,450.0,1.0,15.0,,,,0.0,4.0,0.0,4.0,1.0,4.0,41.666668,,,,,,,,45.0,0.0,0.183167,0.616455,-0.138428,-0.753174,0.8725719999999999,-0.43457700000000005,-0.210452,-0.01349,-0.020345,-0.048256,,,,,,,,,,,,,,,,,,,,,,,,,,,,,,,,,,,,,,,,,,,,,,,,,,,,,,,,,,,,,,,,,
18840,1645817879.537215,1645817879.5467901,91.0,0.0,4325.641113000001,4585.128418,4200.512695,4183.589844,4278.974121,16204.0,1.0,15.0,,,,0.0,4.0,0.0,4.0,1.0,4.0,41.666668,,,,,,,,,,,,,,,,,,,,,,,,,,,,,,,,,,,,,,,,,,,,,,,,,,,,,,0.0,0.0,1.0,0.0,512.0,1.0,,,,,,,,,,,,,,,,,,,,,,,,,
18841,1645817879.545031,1645817879.554605,92.0,0.0,4342.05127,4662.563965,4210.256348,4185.641113000001,4288.717772999999,450.0,1.0,15.0,,,,0.0,4.0,0.0,4.0,1.0,4.0,41.666668,,,,,,,,46.0,0.0,0.183351,0.616455,-0.138184,-0.753174,0.89015,-0.425788,-0.21435900000000002,-0.013899000000000002,-0.020312,-0.049387,,,,,,,,,,,,,,,,,,,,,,,,,,,,,,,,,,,,,,,,,,,,,,,,,,,,,,,,,,,,,,,,,
18842,1645817879.5528462,1645817879.562419,93.0,0.0,4333.846191,4624.102539,4207.692383,4186.666504,4288.717772999999,450.0,1.0,15.0,,,,0.0,4.0,0.0,4.0,1.0,4.0,41.666668,,,,,,,,,,,,,,,,,,,,,,,,,,,,,,,,,,,,,,,,,,,,,,,,,,,,,,,,,,,,,,,,,,,,,,,,,,,,,,,,,,,,
18843,1645817879.5606608,1645817879.570234,94.0,0.0,4312.307617,4549.230957,4198.974121,4200.0,4275.384765999999,450.0,1.0,15.0,,,,0.0,4.0,0.0,4.0,1.0,4.0,41.666668,,,,,,,,47.0,0.0,0.183535,0.616455,-0.137939,-0.753174,0.892592,-0.423835,-0.208011,-0.014218000000000001,-0.020332,-0.044204,,,,,,,,,,,,,,,,,,,,,,,,,,,,,,,,,,,,,,,,,,,,,,,,,,,,,,,,,,,,,,,,,
18844,1645817879.568477,1645817879.578048,95.0,0.0,4334.871582,4581.538574,4213.846191,4215.384765999999,4293.846191,16204.0,1.0,15.0,,,,0.0,4.0,0.0,4.0,1.0,4.0,41.666668,,,,,,,,,,,,,,,,,,,,1.0,0.0,0.0,,,,,,,,,,,,,,,,,,,,,,,,,,,,,,,,0.0,0.0,1.0,0.0,512.0,1.0,1.599008,1.500976,1.609732,2.734865,2.3371,123.945351,41.639,11.958411,26.015142,16.605452,1.444942,1.517325,2.411332,1.950914,2.247471,14.74179,21.320671,15.980637,5.296175,2.9721849999999996,1.560315,1.7926060000000001,2.2762119999999997,3.570097,2.2271970000000003
18845,1645817879.576292,1645817879.585862,96.0,0.0,4363.589844,4625.641113000001,4234.871582,4224.102539,4318.461426,450.0,1.0,15.0,,,,0.0,4.0,0.0,4.0,1.0,4.0,41.666668,,,,,,,,48.0,0.0,0.18271300000000001,0.616699,-0.137939,-0.753174,0.8960100000000001,-0.43262399999999995,-0.208499,-0.013138,-0.020398,-0.039442000000000005,,,,,,,,,,,,,,,,,,,,,,,,,,,,,,,,,,,,,,,,,,,,,,,,,,,,,,,,,,,,,,,,,
18846,1645817879.584108,1645817879.593677,97.0,0.0,4339.487305,4577.94873,4222.05127,4218.974121,4293.846191,450.0,1.0,15.0,,,,0.0,4.0,0.0,4.0,1.0,4.0,41.666668,,,,,,,,,,,,,,,,,,,,,,,,,,,,,,,,,,,,,,,,,,,,,,,,,,,,,,,,,,,,,,,,,,,,,,,,,,,,,,,,,,,,
18847,1645817879.591923,1645817879.601392,98.0,0.0,4317.436035,4562.563965,4207.179688,4208.205078,4277.436035,450.0,1.0,15.0,,,,0.0,4.0,0.0,4.0,1.0,4.0,41.666668,,,,,,,,49.0,0.0,0.183535,0.616455,-0.137939,-0.753174,0.894545,-0.445808,-0.22070599999999999,-0.01202,-0.020409,-0.041406,,,,,,,,,,,,,,,,,,,,,,,,,,,,,,,,,,,,,,,,,,,,,,,,,,,,,,,,,,,,,,,,,
18848,1645817879.599739,1645817879.609206,99.0,0.0,4334.871582,4627.179688,4212.820313,4193.846191,4296.922852000001,16204.0,1.0,15.0,,,,0.0,4.0,0.0,4.0,1.0,4.0,41.666668,,,,,,,,,,,,,,,,,,,,,,,,,,,,,,,,,,,,,,,,,,,,,,,,,,,,,,0.0,0.0,1.0,0.0,512.0,1.0,,,,,,,,,,,,,,,,,,,,,,,,,
18849,1645817879.607554,1645817879.617021,100.0,0.0,4333.846191,4617.436035,4207.179688,4181.025879,4292.820313,450.0,1.0,15.0,,,,0.0,4.0,0.0,4.0,1.0,4.0,41.666668,,,,,,,,50.0,0.0,0.18371800000000002,0.616455,-0.137695,-0.753174,0.8842909999999999,-0.425788,-0.22119499999999997,-0.011013,-0.020516999999999997,-0.043223000000000004,,,,,,,,,,,,,,,,,,,,,,,,,,,,,,,,,,,,,,,,,,,,,,,,,,,,,,,,,,,,,,,,,
18850,1645817879.61537,1645817879.624836,101.0,0.0,4327.692383,4517.94873,4209.743652,4176.410156,4284.102539,450.0,1.0,15.0,,,,0.0,4.0,0.0,4.0,1.0,4.0,41.666668,,,,,,,,,,,,,,,,,,,,,,,,,,,,,,,,,,,,,,,,,,,,,,,,,,,,,,,,,,,,,,,,,,,,,,,,,,,,,,,,,,,,
18851,1645817879.623185,1645817879.63265,102.0,0.0,4342.563965,4504.102539,4231.282227000001,4177.94873,4294.871582,450.0,1.0,15.0,,,,0.0,4.0,0.0,4.0,1.0,4.0,41.666668,,,,,,,,51.0,0.0,0.183535,0.616455,-0.137939,-0.753174,0.879408,-0.44385399999999997,-0.210941,-0.011621,-0.020516,-0.038607,,,,,,,,,,,,,,,,,,,,,,,,,,,,,,,,,,,,,,,,,,,,,,,,,,,,,,,,,,,,,,,,,
18852,1645817879.631001,1645817879.640465,103.0,0.0,4347.179688,4577.94873,4228.717772999999,4187.692383,4293.333496,16204.0,1.0,15.0,,,,0.0,4.0,0.0,4.0,1.0,4.0,41.666668,,,,,,,,,,,,,,,,,,,,,,,,,,,,,,,,,,,,,,,,,,,,,,,,,,,,,,0.0,0.0,1.0,0.0,512.0,1.0,,,,,,,,,,,,,,,,,,,,,,,,,
18853,1645817879.638816,1645817879.648279,104.0,0.0,4331.794922,4612.820313,4210.256348,4199.487305,4281.538574,450.0,1.0,15.0,,,,0.0,4.0,0.0,4.0,1.0,4.0,41.666668,,,,,,,,52.0,0.0,0.183535,0.616455,-0.137939,-0.753174,0.885267,-0.436042,-0.20508099999999999,-0.012265,-0.020465999999999998,-0.040655000000000004,,,,,,,,,,,,,,,,,,,,,,,,,,,,,,,,,,,,,,,,,,,,,,,,,,,,,,,,,,,,,,,,,
18854,1645817879.646632,1645817879.6560938,105.0,0.0,4333.333496,4546.153809,4218.461426,4195.384765999999,4284.102539,450.0,1.0,15.0,,,,0.0,4.0,0.0,4.0,1.0,4.0,41.666668,,,,,,,,,,,,,,,,,,,,,,,,,,,,,,,,,,,,,,,,,,,,,,,,,,,,,,,,,,,,,,,,,,,,,,,,,,,,,,,,,,,,
18855,1645817879.654447,1645817879.663909,106.0,0.0,4340.512695,4487.179688,4239.487305,4188.717772999999,4288.717772999999,450.0,1.0,15.0,,,,0.0,4.0,0.0,4.0,1.0,4.0,41.666668,,,,,,,,53.0,0.0,0.183535,0.616455,-0.137939,-0.753174,0.8842909999999999,-0.43457700000000005,-0.215824,-0.011234000000000001,-0.020568,-0.042547,,,,,,,,,,,,,,,,,,,,,,,,,,,,,,,,,,,,,,,,,,,,,,,,,,,,,,,,,,,,,,,,,
18856,1645817879.6622632,1645817879.6717231,107.0,0.0,4341.538574,4557.94873,4235.897461,4188.205078,4287.692383,16204.0,1.0,15.0,,,,0.0,4.0,0.0,4.0,1.0,4.0,41.666668,,,,,,,,,,,,,,,,,,,,,,,,,,,,,,,,,,,,,,,,,,,,,,,,,,,,,,0.0,0.0,1.0,0.0,512.0,1.0,,,,,,,,,,,,,,,,,,,,,,,,,
18857,1645817879.670078,1645817879.679538,108.0,0.0,4330.769043,4646.666504,4201.538574,4173.333496,4272.307617,450.0,1.0,15.0,,,,0.0,4.0,0.0,4.0,1.0,4.0,41.666668,,,,,,,,54.0,0.0,0.183535,0.616455,-0.137939,-0.753174,0.885756,-0.4336,-0.20703400000000002,-0.01182,-0.020611,-0.044298000000000004,,,,,,,,,,,,,,,,,,,,,,,,,,,,,,,,,,,,,,,,,,,,,,,,,,,,,,,,,,,,,,,,,
18858,1645817879.6778939,1645817879.687253,109.0,0.0,4334.358886999999,4586.153809,4200.512695,4178.461426,4273.846191,450.0,1.0,15.0,,,,0.0,4.0,0.0,4.0,1.0,4.0,41.666668,,,,,,,,,,,,,,,,,,,,,,,,,,,,,,,,,,,,,,,,,,,,,,,,,,,,,,,,,,,,,,,,,,,,,,,,,,,,,,,,,,,,
18859,1645817879.685709,1645817879.695067,110.0,0.0,4358.974121,4545.128418,4243.077147999999,4205.641113000001,4311.282227000001,450.0,1.0,15.0,,,,0.0,4.0,0.0,4.0,1.0,4.0,41.666668,,,,,,,,55.0,0.0,0.183535,0.616455,-0.137939,-0.753174,0.8955209999999999,-0.42920600000000003,-0.21386999999999998,-0.012347,-0.020600999999999998,-0.039526,,,,,,,,,,,,,,,,,,,,,,,,,,,,,,,,,,,,,,,,,,,,,,,,,,,,,,,,,,,,,,,,,
18860,1645817879.6935241,1645817879.702881,111.0,0.0,4364.615234000001,4648.717772999999,4251.282227000001,4193.846191,4329.230957,16204.0,1.0,15.0,,,,0.0,4.0,0.0,4.0,1.0,4.0,41.666668,,,,,,,,,,,,,,,,,,,,1.0,0.0,0.0,,,,,,,,,,,,,,,,,,,,,,,,,,,,,,,,0.0,0.0,1.0,0.0,512.0,1.0,1.638268,1.529693,1.26689,3.074704,2.397918,127.02593200000001,42.598960999999996,12.05642,25.937859,16.306835,1.325577,1.457325,2.002897,2.246195,2.39237,19.311649,17.582939,13.805076000000001,5.634048,2.5661549999999997,1.469816,1.8119,2.0327040000000003,3.79883,2.1461040000000002
18861,1645817879.70134,1645817879.710696,112.0,0.0,4346.666504,4680.512695,4227.692383,4179.487305,4304.615234000001,450.0,1.0,15.0,,,,0.0,4.0,0.0,4.0,1.0,4.0,41.666668,,,,,,,,56.0,0.0,0.182897,0.616699,-0.137695,-0.753174,0.8896620000000001,-0.423346,-0.20361600000000002,-0.01287,-0.020494,-0.035329,,,,,,,,,,,,,,,,,,,,,,,,,,,,,,,,,,,,,,,,,,,,,,,,,,,,,,,,,,,,,,,,,
18862,1645817879.709155,1645817879.71851,113.0,0.0,4335.897461,4621.025879,4225.128418,4212.307617,4277.436035,450.0,1.0,15.0,,,,0.0,4.0,0.0,4.0,1.0,4.0,41.666668,,,,,,,,,,,,,,,,,,,,,,,,,,,,,,,,,,,,,,,,,,,,,,,,,,,,,,,,,,,,,,,,,,,,,,,,,,,,,,,,,,,,
18863,1645817879.7169712,1645817879.726325,114.0,0.0,4332.307617,4626.153809,4232.820313,4216.410156,4286.666504,450.0,1.0,15.0,,,,0.0,4.0,0.0,4.0,1.0,4.0,41.666668,,,,,,,,57.0,0.0,0.183535,0.616455,-0.137939,-0.753174,0.885756,-0.4336,-0.20703400000000002,-0.01339,-0.020495,-0.031455000000000004,,,,,,,,,,,,,,,,,,,,,,,,,,,,,,,,,,,,,,,,,,,,,,,,,,,,,,,,,,,,,,,,,
18864,1645817879.724786,1645817879.734139,115.0,0.0,4334.358886999999,4636.922852000001,4235.384765999999,4184.102539,4307.692383,16204.0,1.0,15.0,,,,0.0,4.0,0.0,4.0,1.0,4.0,41.666668,,,,,,,,,,,,,,,,,,,,,,,,,,,,,,,,,,,,,,,,,,,,,,,,,,,,,,0.0,0.0,1.0,0.0,512.0,1.0,,,,,,,,,,,,,,,,,,,,,,,,,
18865,1645817879.732602,1645817879.741953,116.0,0.0,4327.692383,4565.641113000001,4224.102539,4181.538574,4289.230957,450.0,1.0,15.0,,,,0.0,4.0,0.0,4.0,1.0,4.0,41.666668,,,,,,,,58.0,0.0,0.182897,0.616699,-0.137695,-0.753174,0.8896620000000001,-0.423346,-0.20361600000000002,-0.013809,-0.020399,-0.028064999999999996,,,,,,,,,,,,,,,,,,,,,,,,,,,,,,,,,,,,,,,,,,,,,,,,,,,,,,,,,,,,,,,,,
18866,1645817879.740417,1645817879.749768,117.0,0.0,4338.974121,4519.487305,4222.563965,4206.153809,4290.256348,450.0,1.0,15.0,,,,0.0,4.0,0.0,4.0,1.0,4.0,41.666668,,,,,,,,,,,,,,,,,,,,,,,,,,,,,,,,,,,,,,,,,,,,,,,,,,,,,,,,,,,,,,,,,,,,,,,,,,,,,,,,,,,,
18867,1645817879.748233,1645817879.757582,118.0,0.0,4363.589844,4565.641113000001,4230.256348,4207.179688,4326.666504,450.0,1.0,15.0,,,,0.0,4.0,0.0,4.0,1.0,4.0,41.666668,,,,,,,,59.0,0.0,0.183899,0.616699,-0.137695,-0.75293,0.8798959999999999,-0.43946,-0.201175,-0.014234,-0.02041,-0.024916999999999998,,,,,,,,,,,,,,,,,,,,,,,,,,,,,,,,,,,,,,,,,,,,,,,,,,,,,,,,,,,,,,,,,
18868,1645817879.756048,1645817879.7652972,119.0,0.0,4350.256348,4588.717772999999,4220.0,4209.743652,4308.717772999999,16204.0,1.0,15.0,,,,0.0,4.0,0.0,4.0,1.0,4.0,41.666668,,,,,,,,,,,,,,,,,,,,,,,,,,,,,,,,,,,,,,,,,,,,,,,,,,,,,,0.0,0.0,1.0,0.0,512.0,1.0,,,,,,,,,,,,,,,,,,,,,,,,,
18869,1645817879.763864,1645817879.7731109,120.0,0.0,4324.615234000001,4565.128418,4215.897461,4220.512695,4279.487305,450.0,1.0,15.0,,,,0.0,4.0,0.0,4.0,1.0,4.0,41.666668,,,,,,,,60.0,0.0,0.183899,0.616699,-0.137695,-0.75293,0.8842909999999999,-0.425299,-0.212894,-0.013006,-0.020371,-0.028332999999999997,,,,,,,,,,,,,,,,,,,,,,,,,,,,,,,,,,,,,,,,,,,,,,,,,,,,,,,,,,,,,,,,,
18870,1645817879.771679,1645817879.780926,121.0,0.0,4332.307617,4559.487305,4236.922852000001,4205.641113000001,4295.897461,450.0,1.0,15.0,,,,0.0,4.0,0.0,4.0,1.0,4.0,41.666668,,,,,,,,,,,,,,,,,,,,,,,,,,,,,,,,,,,,,,,,,,,,,,,,,,,,,,,,,,,,,,,,,,,,,,,,,,,,,,,,,,,,
18871,1645817879.779495,1645817879.7887402,122.0,0.0,4327.179688,4557.94873,4230.256348,4179.487305,4293.333496,450.0,1.0,15.0,,,,0.0,4.0,0.0,4.0,1.0,4.0,41.666668,,,,,,,,61.0,0.0,0.182897,0.616699,-0.137695,-0.753174,0.8730600000000001,-0.424811,-0.210941,-0.012469,-0.020402,-0.027975,,,,,,,,,,,,,,,,,,,,,,,,,,,,,,,,,,,,,,,,,,,,,,,,,,,,,,,,,,,,,,,,,
18872,1645817879.78731,1645817879.7965539,123.0,0.0,4306.153809,4540.512695,4208.205078,4187.179688,4265.641113000001,16204.0,1.0,15.0,,,,0.0,4.0,0.0,4.0,1.0,4.0,41.666668,,,,,,,,,,,,,,,,,,,,,,,,,,,,,,,,,,,,,,,,,,,,,,,,,,,,,,0.0,0.0,1.0,0.0,512.0,1.0,,,,,,,,,,,,,,,,,,,,,,,,,
18873,1645817879.795126,1645817879.804369,124.0,0.0,4328.717772999999,4540.512695,4235.384765999999,4212.307617,4285.641113000001,450.0,1.0,15.0,,,,0.0,4.0,0.0,4.0,1.0,4.0,41.666668,,,,,,,,62.0,0.0,0.18271300000000001,0.616699,-0.137939,-0.753174,0.8774549999999999,-0.437507,-0.207523,-0.013028,-0.020315,-0.024835,,,,,,,,,,,,,,,,,,,,,,,,,,,,,,,,,,,,,,,,,,,,,,,,,,,,,,,,,,,,,,,,,
18874,1645817879.802941,1645817879.812183,125.0,0.0,4341.538574,4535.384765999999,4248.205078,4212.820313,4295.384765999999,450.0,1.0,15.0,,,,0.0,4.0,0.0,4.0,1.0,4.0,41.666668,,,,,,,,,,,,,,,,,,,,,,,,,,,,,,,,,,,,,,,,,,,,,,,,,,,,,,,,,,,,,,,,,,,,,,,,,,,,,,,,,,,,
18875,1645817879.810757,1645817879.819998,126.0,0.0,4317.436035,4507.179688,4218.461426,4198.461426,4273.846191,450.0,1.0,15.0,,,,0.0,4.0,0.0,4.0,1.0,4.0,41.666668,,,,,,,,63.0,0.0,0.18371800000000002,0.616455,-0.137695,-0.753174,0.886244,-0.42920600000000003,-0.210941,-0.011823,-0.020285,-0.02201,,,,,,,,,,,,,,,,,,,,,,,,,,,,,,,,,,,,,,,,,,,,,,,,,,,,,,,,,,,,,,,,,
18876,1645817879.818572,1645817879.827812,127.0,0.0,4334.358886999999,4530.256348,4214.358886999999,4195.384765999999,4295.897461,233.0,1.0,15.0,,,,0.0,4.0,0.0,4.0,1.0,4.0,41.666668,1.0,33.333332,4.0,0.0,4.0,0.0,4.0,,,,,,,,,,,,,1.0,0.0,0.0,,,,,,,,,,,,,,,,,,,,,,,,,,,,,,,,0.0,0.0,1.0,0.0,512.0,1.0,1.695671,1.6393950000000002,1.000889,3.541033,2.4286119999999998,114.63833600000001,38.752945000000004,11.787903,24.754751000000002,15.480374,1.436374,1.4644469999999998,1.57538,2.715107,2.561301,23.408045,13.472107000000001,11.692755,5.931432,2.267692,1.458435,1.783987,1.7303,4.079946,2.147868
18877,1645817879.8263881,1645817879.835527,0.0,0.0,4350.256348,4582.563965,4219.487305,4205.128418,4315.384765999999,450.0,1.0,15.0,,,,0.0,4.0,1.0,4.0,1.0,4.0,50.0,,,,,,,,0.0,0.0,0.18371800000000002,0.616455,-0.137695,-0.753174,0.8764780000000001,-0.423346,-0.211917,-0.010836,-0.020259,-0.025863999999999998,,,,,,,,,,,,,,,,,,,,,,,,,,,,,,,,,,,,,,,,,,,,,,,,,,,,,,,,,,,,,,,,,
18878,1645817879.834203,1645817879.843341,1.0,0.0,4320.512695,4588.717772999999,4206.666504,4206.666504,4278.974121,450.0,1.0,15.0,,,,0.0,4.0,1.0,4.0,1.0,4.0,50.0,,,,,,,,,,,,,,,,,,,,,,,,,,,,,,,,,,,,,,,,,,,,,,,,,,,,,,,,,,,,,,,,,,,,,,,,,,,,,,,,,,,,
18879,1645817879.842018,1645817879.851155,2.0,0.0,4332.820313,4542.563965,4234.358886999999,4206.153809,4274.871582,16181.0,1.0,15.0,,,,0.0,4.0,1.0,4.0,1.0,4.0,50.0,,,,,,,,1.0,0.0,0.18371800000000002,0.616455,-0.137695,-0.753174,0.893568,-0.427253,-0.208011,-0.01151,-0.020284,-0.029235,,,,,,,,,,,,,,,,,,,,,,,,,,,,,,,,,,,,,,,,,,,,,,,,,,,,,,,,,,,,,,,,,
18880,1645817879.849834,1645817879.85897,3.0,0.0,4370.256348,4512.307617,4245.128418,4204.102539,4300.512695,450.0,1.0,15.0,,,,0.0,4.0,1.0,4.0,1.0,4.0,50.0,,,,,,,,,,,,,,,,,,,,,,,,,,,,,,,,,,,,,,,,,,,,,,,,,,,,,,0.0,0.0,1.0,0.0,512.0,1.0,,,,,,,,,,,,,,,,,,,,,,,,,
18881,1645817879.857649,1645817879.866784,4.0,0.0,4340.0,4552.307617,4186.153809,4205.128418,4267.179688,58.0,1.0,15.0,,,,0.0,4.0,1.0,4.0,1.0,4.0,50.0,,,,,,,,2.0,0.0,0.18271400000000002,0.616455,-0.137695,-0.753418,0.891127,-0.435065,-0.22266,-0.012068,-0.020306,-0.026018,,,,,,,,,,,,,,,,,,,,,,,,,,,,,,,,,,,,,,,,,,,,,,,,,,,,,,,,,,,,,,,,,
18882,1645817879.865465,1645817879.874599,5.0,0.0,4320.0,4583.589844,4177.436035,4208.717772999999,4255.384765999999,450.0,1.0,15.0,,,,0.0,4.0,1.0,4.0,1.0,4.0,50.0,,,,,,,,,,,,,,,,,,,,,,,,,,,,,,,,,,,,,,,,,,,,,,,,,,,,,,,,,,,,,,,,,,,,,,,,,,,,,,,,,,,,
18883,1645817879.87328,1645817879.882313,6.0,0.0,4361.538574,4576.922852000001,4240.0,4217.436035,4310.769043,16140.0,1.0,15.0,,,,0.0,4.0,1.0,4.0,1.0,4.0,50.0,,,,,,,,3.0,0.0,0.18271400000000002,0.616455,-0.137695,-0.753418,0.894057,-0.43018199999999995,-0.21924200000000002,-0.012668,-0.020229,-0.029470999999999997,,,,,,,,,,,,,,,,,,,,,,,,,,,,,,,,,,,,,,,,,,,,,,,,,,,,,,,,,,,,,,,,,
18884,1645817879.8810961,1645817879.890127,7.0,0.0,4369.743652,4621.538574,4233.333496,4199.487305,4323.077147999999,450.0,1.0,15.0,,,,0.0,4.0,1.0,4.0,1.0,4.0,50.0,,,,,,,,,,,,,,,,,,,,,,,,,,,,,,,,,,,,,,,,,,,,,,,,,,,,,,0.0,0.0,1.0,0.0,512.0,1.0,,,,,,,,,,,,,,,,,,,,,,,,,
18885,1645817879.888911,1645817879.897942,8.0,0.0,4332.307617,4646.153809,4184.615234000001,4179.487305,4285.641113000001,450.0,1.0,15.0,,,,0.0,4.0,1.0,4.0,1.0,4.0,50.0,,,,,,,,4.0,0.0,0.18271400000000002,0.616455,-0.137695,-0.753418,0.881849,-0.42236999999999997,-0.208499,-0.013257,-0.020208,-0.026231,,,,,,,,,,,,,,,,,,,,,,,,,,,,,,,,,,,,,,,,,,,,,,,,,,,,,,,,,,,,,,,,,
18886,1645817879.8967268,1645817879.905756,9.0,0.0,4332.307617,4558.974121,4198.974121,4193.846191,4282.563965,98.0,1.0,15.0,,,,0.0,4.0,1.0,4.0,1.0,4.0,50.0,,,,,,,,,,,,,,,,,,,,,,,,,,,,,,,,,,,,,,,,,,,,,,,,,,,,,,,,,,,,,,,,,,,,,,,,,,,,,,,,,,,,
18887,1645817879.904542,1645817879.9135711,10.0,0.0,4339.487305,4496.922852000001,4218.461426,4212.820313,4286.153809,450.0,1.0,15.0,,,,0.0,4.0,1.0,4.0,1.0,4.0,50.0,,,,,,,,5.0,0.0,0.18271400000000002,0.616455,-0.137695,-0.753418,0.894545,-0.44824899999999995,-0.206546,-0.013738,-0.020335,-0.029613999999999998,,,,,,,,,,,,,,,,,,,,,,,,,,,,,,,,,,,,,,,,,,,,,,,,,,,,,,,,,,,,,,,,,
18888,1645817879.912358,1645817879.921385,11.0,0.0,4334.358886999999,4554.358886999999,4212.820313,4227.692383,4284.615234000001,16210.0,1.0,15.0,,,,0.0,4.0,1.0,4.0,1.0,4.0,50.0,,,,,,,,,,,,,,,,,,,,,,,,,,,,,,,,,,,,,,,,,,,,,,,,,,,,,,0.0,0.0,1.0,0.0,512.0,1.0,,,,,,,,,,,,,,,,,,,,,,,,,
18889,1645817879.920173,1645817879.9292,12.0,0.0,4340.512695,4610.769043,4210.256348,4226.666504,4298.461426,450.0,1.0,15.0,,,,0.0,4.0,1.0,4.0,1.0,4.0,50.0,,,,,,,,6.0,0.0,0.18271400000000002,0.616455,-0.137695,-0.753418,0.887709,-0.43897200000000003,-0.232425,-0.014122,-0.020353,-0.026213,,,,,,,,,,,,,,,,,,,,,,,,,,,,,,,,,,,,,,,,,,,,,,,,,,,,,,,,,,,,,,,,,
18890,1645817879.927989,1645817879.937014,13.0,0.0,4340.512695,4596.410156,4199.487305,4207.179688,4307.179688,450.0,1.0,15.0,,,,0.0,4.0,1.0,4.0,1.0,4.0,50.0,,,,,,,,,,,,,,,,,,,,,,,,,,,,,,,,,,,,,,,,,,,,,,,,,,,,,,,,,,,,,,,,,,,,,,,,,,,,,,,,,,,,
