,Timestamp,EEG.Counter,EEG.Interpolated,EEG.AF3,EEG.T7,EEG.Pz,EEG.T8,EEG.AF4,EEG.RawCq,EEG.Battery,EEG.BatteryPercent,MarkerIndex,MarkerType,MarkerValueInt,EEG.MarkerHardware,CQ.AF3,CQ.T7,CQ.Pz,CQ.T8,CQ.AF4,CQ.Overall,EQ.SampleRateQuality,EQ.OVERALL,EQ.AF3,EQ.T7,EQ.Pz,EQ.T8,EQ.AF4,MOT.CounterMems,MOT.InterpolatedMems,MOT.Q0,MOT.Q1,MOT.Q2,MOT.Q3,MOT.AccX,MOT.AccY,MOT.AccZ,MOT.MagX,MOT.MagY,MOT.MagZ,MC.Action,MC.ActionPower,MC.IsActive,PM.Engagement.IsActive,PM.Engagement.Scaled,PM.Engagement.Raw,PM.Engagement.Min,PM.Engagement.Max,PM.Excitement.IsActive,PM.Excitement.Scaled,PM.Excitement.Raw,PM.Excitement.Min,PM.Excitement.Max,PM.LongTermExcitement,PM.Stress.IsActive,PM.Stress.Scaled,PM.Stress.Raw,PM.Stress.Min,PM.Stress.Max,PM.Relaxation.IsActive,PM.Relaxation.Scaled,PM.Relaxation.Raw,PM.Relaxation.Min,PM.Relaxation.Max,PM.Interest.IsActive,PM.Interest.Scaled,PM.Interest.Raw,PM.Interest.Min,PM.Interest.Max,PM.Focus.IsActive,PM.Focus.Scaled,PM.Focus.Raw,PM.Focus.Min,PM.Focus.Max,FE.BlinkWink,FE.HorizontalEyesDirection,FE.UpperFaceAction,FE.UpperFaceActionPower,FE.LowerFaceAction,FE.LowerFaceActionPower,POW.AF3.Theta,POW.AF3.Alpha,POW.AF3.BetaL,POW.AF3.BetaH,POW.AF3.Gamma,POW.T7.Theta,POW.T7.Alpha,POW.T7.BetaL,POW.T7.BetaH,POW.T7.Gamma,POW.Pz.Theta,POW.Pz.Alpha,POW.Pz.BetaL,POW.Pz.BetaH,POW.Pz.Gamma,POW.T8.Theta,POW.T8.Alpha,POW.T8.BetaL,POW.T8.BetaH,POW.T8.Gamma,POW.AF4.Theta,POW.AF4.Alpha,POW.AF4.BetaL,POW.AF4.BetaH,POW.AF4.Gamma
82162,1645494313.8502212,45.0,0.0,4379.487305,4117.436035,4271.794922,4281.025879,4370.769043,0.0,4.0,77.0,53.0,1.0,5.0,0.0,4.0,4.0,2.0,0.0,4.0,50.0,,,,,,,,,,,,,,,,,,,,,,,,,,,,,,,,,,,,,,,,,,,,,,,,,,,,,,,,,,,,,,,,,,,,,,,,,,,,,,,,,,,,
82163,1645494313.858037,46.0,0.0,4397.94873,4123.589844,4267.179688,4281.025879,4365.128418,0.0,4.0,77.0,,,,0.0,4.0,4.0,2.0,0.0,4.0,50.0,,,,,,,,23.0,0.0,0.43585100000000004,-0.291748,0.6137699999999999,0.5900880000000001,0.8916149999999999,-0.472663,-0.069825,-0.035785000000000004,-0.038325,-0.026986000000000003,,,,,,,,,,,,,,,,,,,,,,,,,,,,,,,,,,,,,,,,,,,,,,,,,,,,,,,,,,,,,,,,,
82164,1645494313.8658519,47.0,0.0,4390.769043,4128.717772999999,4259.487305,4281.025879,4378.974121,0.0,4.0,77.0,,,,0.0,4.0,4.0,2.0,0.0,4.0,50.0,,,,,,,,,,,,,,,,,,,,,,,,,,,,,,,,,,,,,,,,,,,,,,,,,,,,,,,,,,,,,,,,,,,,,,,,,,,,,,,,,,,,
82165,1645494313.873668,48.0,0.0,4383.077147999999,4152.307617,4262.05127,4281.025879,4376.410156,0.0,4.0,77.0,,,,0.0,4.0,4.0,2.0,0.0,4.0,50.0,,,,,,,,24.0,0.0,0.43585100000000004,-0.291748,0.6137699999999999,0.5900880000000001,0.8681770000000001,-0.482918,-0.069337,-0.03582,-0.03835,-0.029219,1.0,0.0,0.0,,,,,,,,,,,,,,,,,,,,,,,,,,,,,,,,0.0,0.0,64.0,0.165666,1.0,0.0,1.847178,1.1458190000000001,1.387578,1.827031,2.114588,78.79586,10.189831,22.961311,5.401425,5.087429,1.351459,0.9181440000000001,0.455449,0.535678,0.337391,0.0009689999999999999,0.000272,0.00016,6.7e-05,0.000277,5.3584830000000006,6.622468,1.438812,0.9694530000000001,1.592625
82166,1645494313.881484,49.0,0.0,4387.179688,4173.846191,4255.384765999999,4281.025879,4371.794922,0.0,4.0,77.0,,,,0.0,4.0,4.0,2.0,0.0,4.0,50.0,,,,,,,,,,,,,,,,,,,,,,,,,,,,,,,,,,,,,,,,,,,,,,,,,,,,,,,,,,,,,,,,,,,,,,,,,,,,,,,,,,,,
82167,1645494313.8892,50.0,0.0,4360.0,4188.717772999999,4246.666504,4281.025879,4364.102539,0.0,4.0,77.0,,,,0.0,4.0,4.0,2.0,0.0,4.0,50.0,,,,,,,,25.0,0.0,0.436195,-0.291748,0.613525,0.5900880000000001,0.878431,-0.475105,-0.077638,-0.035851,-0.038323,-0.031180000000000003,,,,,,,,,,,,,,,,,,,,,,,,,,,,,,,,,,,,,,,,,,,,,,,,,,,,,,,,,,,,,,,,,
82168,1645494313.897015,51.0,0.0,4337.94873,4220.512695,4262.05127,4281.025879,4344.102539,0.0,4.0,77.0,,,,0.0,4.0,4.0,2.0,0.0,4.0,50.0,,,,,,,,,,,,,,,,,,,,,,,,,,,,,,,,,,,,,,,,,,,,,,,,,,,,,,,,,,,,,,,,,,,,,,,,,,,,,,,,,,,,
82169,1645494313.9048312,52.0,0.0,4375.897461,4241.538574,4267.179688,4281.025879,4350.256348,0.0,4.0,77.0,,,,0.0,4.0,4.0,2.0,0.0,4.0,50.0,,,,,,,,26.0,0.0,0.43585100000000004,-0.291748,0.6137699999999999,0.5900880000000001,0.8916149999999999,-0.472663,-0.069825,-0.035879,-0.038202,-0.026695,,,,,,,,,,,,,,,,,,,,,,,,,,,,,,,,,,,0.0,0.0,64.0,0.165666,1.0,0.0,,,,,,,,,,,,,,,,,,,,,,,,,
82170,1645494313.912647,53.0,0.0,4390.769043,4231.282227000001,4251.282227000001,4281.025879,4358.974121,0.0,4.0,77.0,,,,0.0,4.0,4.0,2.0,0.0,4.0,50.0,,,,,,,,,,,,,,,,,,,,,,,,,,,,,,,,,,,,,,,,,,,,,,,,,,,,,,,,,,,,,,,,,,,,,,,,,,,,,,,,,,,,
82171,1645494313.920463,54.0,0.0,4358.974121,4238.461426,4247.692383,4281.025879,4346.666504,0.0,4.0,77.0,,,,0.0,4.0,4.0,2.0,0.0,4.0,50.0,,,,,,,,27.0,0.0,0.436195,-0.291748,0.613525,0.5900880000000001,0.878431,-0.475105,-0.077638,-0.035905,-0.038189999999999995,-0.028908,,,,,,,,,,,,,,,,,,,,,,,,,,,,,,,,,,,,,,,,,,,,,,,,,,,,,,,,,,,,,,,,,
82172,1645494313.928279,55.0,0.0,4367.692383,4281.538574,4254.871582,4281.025879,4346.666504,0.0,4.0,77.0,,,,0.0,4.0,4.0,2.0,0.0,4.0,50.0,,,,,,,,,,,,,,,,,,,,,,,,,,,,,,,,,,,,,,,,,,,,,,,,,,,,,,,,,,,,,,,,,,,,,,,,,,,,,,,,,,,,
82173,1645494313.936095,56.0,0.0,4371.794922,4314.358886999999,4248.205078,4281.025879,4349.743652,0.0,4.0,77.0,,,,0.0,4.0,4.0,2.0,0.0,4.0,50.0,,,,,,,,28.0,0.0,0.436525,-0.291748,0.613525,0.5898439999999999,0.8730600000000001,-0.47168699999999997,-0.075196,-0.035927,-0.038082,-0.02465,,,,,,,,,,,,,,,,,,,,,,,,,,,,,,,,,,,0.0,0.0,64.0,0.165666,1.0,0.0,,,,,,,,,,,,,,,,,,,,,,,,,
82174,1645494313.94391,57.0,0.0,4341.025879,4327.692383,4242.05127,4281.025879,4334.358886999999,0.0,4.0,77.0,,,,0.0,4.0,4.0,2.0,0.0,4.0,50.0,,,,,,,,,,,,,,,,,,,,,,,,,,,,,,,,,,,,,,,,,,,,,,,,,,,,,,,,,,,,,,,,,,,,,,,,,,,,,,,,,,,,
82175,1645494313.951726,58.0,0.0,4343.077147999999,4326.153809,4246.666504,4281.025879,4313.333496,0.0,4.0,77.0,,,,0.0,4.0,4.0,2.0,0.0,4.0,50.0,,,,,,,,29.0,0.0,0.436525,-0.291748,0.613525,0.5898439999999999,0.874525,-0.47608100000000003,-0.07422000000000001,-0.035948,-0.038132,-0.027068000000000002,,,,,,,,,,,,,,,,,,,,,,,,,,,,,,,,,,,,,,,,,,,,,,,,,,,,,,,,,,,,,,,,,
82176,1645494313.959442,59.0,0.0,4365.128418,4314.358886999999,4256.922852000001,4281.025879,4312.820313,0.0,4.0,77.0,,,,0.0,4.0,4.0,2.0,0.0,4.0,50.0,,,,,,,,,,,,,,,,,,,,,,,,,,,,,,,,,,,,,,,,,,,,,,,,,,,,,,,,,,,,,,,,,,,,,,,,,,,,,,,,,,,,
82177,1645494313.967259,60.0,0.0,4363.077147999999,4308.205078,4267.179688,4281.025879,4333.846191,0.0,4.0,77.0,,,,0.0,4.0,4.0,2.0,0.0,4.0,50.0,,,,,,,,30.0,0.0,0.436688,-0.291504,0.613525,0.5898439999999999,0.8750129999999999,-0.46582700000000005,-0.080079,-0.036064,-0.038078,-0.029293,,,,,,,,,,,,,,,,,,,,,,,,,,,,,,,,,,,0.0,0.0,64.0,0.165666,1.0,0.0,,,,,,,,,,,,,,,,,,,,,,,,,
82178,1645494313.975075,61.0,0.0,4365.128418,4307.692383,4266.153809,4281.025879,4351.794922,0.0,4.0,77.0,,,,0.0,4.0,4.0,2.0,0.0,4.0,50.0,,,,,,,,,,,,,,,,,,,,,,,,,,,,,,,,,,,,,,,,,,,,,,,,,,,,,,,,,,,,,,,,,,,,,,,,,,,,,,,,,,,,
82179,1645494313.982891,62.0,0.0,4391.794922,4322.05127,4261.538574,4281.025879,4349.743652,0.0,4.0,77.0,,,,0.0,4.0,4.0,2.0,0.0,4.0,50.0,,,,,,,,31.0,0.0,0.43685100000000004,-0.29125999999999996,0.613525,0.5898439999999999,0.891127,-0.46778100000000006,-0.07715,-0.035876,-0.038127999999999995,-0.031247000000000004,,,,,,,,,,,,,,,,,,,,,,,,,,,,,,,,,,,,,,,,,,,,,,,,,,,,,,,,,,,,,,,,,
82180,1645494313.990707,63.0,0.0,4392.820313,4335.384765999999,4261.025879,4281.025879,4339.487305,0.0,4.0,77.0,,,,0.0,4.0,4.0,2.0,0.0,4.0,50.0,,,,,,,,,,,,,,,,,,,,,,,,,,,,,,,,,,,,,,,,,,,,,,,,,,,,,,,,,,,,,,,,,,,,,,,,,,,,,,,,,,,,
82181,1645494313.998523,64.0,0.0,4367.692383,4309.230957,4255.384765999999,4281.025879,4331.794922,450.0,4.0,77.0,,,,0.0,4.0,4.0,2.0,0.0,4.0,50.0,1.0,33.333332,4.0,2.0,2.0,0.0,4.0,32.0,0.0,0.43685100000000004,-0.29125999999999996,0.613525,0.5898439999999999,0.885756,-0.468757,-0.07324299999999999,-0.035755,-0.038173,-0.033005,1.0,0.0,0.0,,,,,,,,,,,,,,,,,,,,,,,,,,,,,,,,0.0,0.0,1.0,0.0,1.0,0.0,2.121273,1.378135,1.545483,1.912479,2.24209,85.69109300000001,10.760010000000001,24.354191,5.33477,4.604715000000001,1.3064799999999999,0.969302,0.529687,0.55418,0.36980100000000005,0.001016,0.000286,0.00018999999999999998,8.4e-05,0.000335,4.49832,7.010749000000001,1.46042,1.0450620000000002,1.522599
82182,1645494314.006339,65.0,0.0,4362.05127,4300.512695,4248.717772999999,4281.025879,4330.256348,450.0,4.0,77.0,,,,0.0,4.0,4.0,2.0,0.0,4.0,50.0,,,,,,,,,,,,,,,,,,,,,,,,,,,,,,,,,,,,,,,,,,,,,,,,,,,,,,,,,,,,,,,,,,,,,,,,,,,,,,,,,,,,
82183,1645494314.0141551,66.0,0.0,4373.333496,4325.128418,4248.205078,4281.025879,4347.692383,16191.0,4.0,77.0,,,,0.0,4.0,4.0,2.0,0.0,4.0,50.0,,,,,,,,33.0,0.0,0.437014,-0.291016,0.613525,0.5898439999999999,0.887709,-0.472175,-0.07910299999999999,-0.035744,-0.038213,-0.034636,,,,,,,,,,,,,,,,,,,,,,,,,,,,,,,,,,,,,,,,,,,,,,,,,,,,,,,,,,,,,,,,,
82184,1645494314.021971,67.0,0.0,4384.615234000001,4297.94873,4258.461426,4281.025879,4355.897461,450.0,4.0,77.0,,,,0.0,4.0,4.0,2.0,0.0,4.0,50.0,,,,,,,,,,,,,,,,,,,,,,,,,,,,,,,,,,,,,,,,,,,,,,,,,,,,,,,,,,,,,,,,,,,,,,,,,,,,,,,,,,,,
82185,1645494314.0297868,68.0,0.0,4382.563965,4257.436035,4268.717772999999,4281.025879,4342.05127,16119.0,4.0,77.0,,,,0.0,4.0,4.0,2.0,0.0,4.0,50.0,,,,,,,,34.0,0.0,0.437014,-0.291016,0.613525,0.5898439999999999,0.879408,-0.47559300000000004,-0.082521,-0.035637,-0.038151,-0.029708,,,,,,,,,,,,,,,,,,,,,,,,,,,,,,,,,,,0.0,0.0,1.0,0.0,1.0,0.0,,,,,,,,,,,,,,,,,,,,,,,,,
82186,1645494314.037503,69.0,0.0,4365.128418,4291.282227000001,4256.410156,4281.025879,4328.717772999999,450.0,4.0,77.0,,,,0.0,4.0,4.0,4.0,0.0,4.0,66.666664,,,,,,,,,,,,,,,,,,,,,,,,,,,,,,,,,,,,,,,,,,,,,,,,,,,,,,,,,,,,,,,,,,,,,,,,,,,,,,,,,,,,
82187,1645494314.045318,70.0,0.0,4348.717772999999,4307.179688,4250.769043,4281.025879,4332.820313,16074.0,4.0,77.0,,,,0.0,4.0,4.0,4.0,0.0,4.0,66.666664,,,,,,,,35.0,0.0,0.436846,-0.290771,0.613525,0.5900880000000001,0.876967,-0.47071,-0.083986,-0.035588999999999996,-0.038145,-0.025418,,,,,,,,,,,,,,,,,,,,,,,,,,,,,,,,,,,,,,,,,,,,,,,,,,,,,,,,,,,,,,,,,
82188,1645494314.053034,71.0,0.0,4365.641113000001,4251.794922,4271.282227000001,4281.025879,4351.794922,450.0,4.0,77.0,,,,0.0,4.0,4.0,4.0,0.0,4.0,66.666664,,,,,,,,,,,,,,,,,,,,,,,,,,,,,,,,,,,,,,,,,,,,,,,,,,,,,,,,,,,,,,,,,,,,,,,,,,,,,,,,,,,,
82189,1645494314.06085,72.0,0.0,4388.205078,4247.692383,4269.743652,4281.025879,4344.615234000001,450.0,4.0,77.0,,,,0.0,4.0,4.0,4.0,0.0,4.0,66.666664,,,,,,,,36.0,0.0,0.436846,-0.290771,0.613525,0.5900880000000001,0.8725719999999999,-0.48145299999999996,-0.085451,-0.035594,-0.038237,-0.027759,,,,,,,,,,,,,,,,,,,,,,,,,,,,,,,,,,,0.0,0.0,1.0,0.0,1.0,0.0,,,,,,,,,,,,,,,,,,,,,,,,,
82190,1645494314.068666,73.0,0.0,4350.769043,4264.615234000001,4242.05127,4281.025879,4320.0,0.0,4.0,77.0,,,,0.0,4.0,4.0,4.0,0.0,4.0,66.666664,,,,,,,,,,,,,,,,,,,,,,,,,,,,,,,,,,,,,,,,,,,,,,,,,,,,,,,,,,,,,,,,,,,,,,,,,,,,,,,,,,,,
82191,1645494314.076482,74.0,0.0,4324.615234000001,4212.820313,4248.717772999999,4281.025879,4332.307617,450.0,4.0,77.0,,,,0.0,4.0,4.0,4.0,0.0,4.0,66.666664,,,,,,,,37.0,0.0,0.436684,-0.291016,0.613525,0.5900880000000001,0.889174,-0.466316,-0.075196,-0.035648,-0.038271,-0.023665000000000002,,,,,,,,,,,,,,,,,,,,,,,,,,,,,,,,,,,,,,,,,,,,,,,,,,,,,,,,,,,,,,,,,
82192,1645494314.0842981,75.0,0.0,4354.871582,4183.077147999999,4275.897461,4281.025879,4346.666504,16220.0,4.0,77.0,,,,0.0,4.0,4.0,4.0,0.0,4.0,66.666664,,,,,,,,,,,,,,,,,,,,,,,,,,,,,,,,,,,,,,,,,,,,,,,,,,,,,,,,,,,,,,,,,,,,,,,,,,,,,,,,,,,,
82193,1645494314.092114,76.0,0.0,4371.794922,4198.461426,4272.820313,4281.025879,4335.384765999999,450.0,4.0,77.0,,,,0.0,4.0,4.0,4.0,0.0,4.0,66.666664,,,,,,,,38.0,0.0,0.436684,-0.291016,0.613525,0.5900880000000001,0.8930799999999999,-0.47901099999999996,-0.07910299999999999,-0.03555,-0.038202999999999994,-0.026083999999999996,,,,,,,,,,,,,,,,,,,,,,,,,,,,,,,,,,,0.0,0.0,1.0,0.0,1.0,0.0,,,,,,,,,,,,,,,,,,,,,,,,,
82194,1645494314.099829,77.0,0.0,4362.05127,4183.589844,4262.05127,4281.025879,4335.897461,450.0,4.0,77.0,,,,0.0,4.0,4.0,4.0,0.0,4.0,66.666664,,,,,,,,,,,,,,,,,,,,,,,,,,,,,,,,,,,,,,,,,,,,,,,,,,,,,,,,,,,,,,,,,,,,,,,,,,,,,,,,,,,,
82195,1645494314.107645,78.0,0.0,4349.230957,4180.512695,4268.717772999999,4281.025879,4335.897461,450.0,4.0,77.0,,,,0.0,4.0,4.0,4.0,0.0,4.0,66.666664,,,,,,,,39.0,0.0,0.436521,-0.29125999999999996,0.613525,0.5900880000000001,0.874525,-0.4795,-0.079591,-0.035657,-0.038143,-0.022255,,,,,,,,,,,,,,,,,,,,,,,,,,,,,,,,,,,,,,,,,,,,,,,,,,,,,,,,,,,,,,,,,
82196,1645494314.11546,79.0,0.0,4348.717772999999,4224.615234000001,4273.846191,4281.025879,4331.794922,16220.0,4.0,77.0,,,,0.0,4.0,4.0,4.0,0.0,4.0,66.666664,,,,,,,,,,,,,,,,,,,,,,,,,,,,,,,,,,,,,,,,,,,,,,,,,,,,,,,,,,,,,,,,,,,,,,,,,,,,,,,,,,,,
82197,1645494314.123276,80.0,0.0,4362.563965,4234.358886999999,4265.641113000001,4281.025879,4343.589844,450.0,4.0,77.0,,,,0.0,4.0,4.0,4.0,0.0,4.0,66.666664,,,,,,,,40.0,0.0,0.436521,-0.29125999999999996,0.613525,0.5900880000000001,0.8896620000000001,-0.48340600000000006,-0.07470800000000001,-0.03551,-0.038186000000000005,-0.024863,1.0,0.0,0.0,,,,,,,,,,,,,,,,,,,,,,,,,,,,,,,,0.0,0.0,64.0,0.428332,1.0,0.0,2.5104189999999997,1.7344990000000002,1.6964150000000002,1.970001,2.317126,84.333549,11.163591,23.83194,5.428053,4.056818,1.342385,0.958031,0.645755,0.570719,0.398214,0.001049,0.00028900000000000003,0.000199,9e-05,0.000361,4.066478,7.098158,1.528636,1.166296,1.518151
82198,1645494314.131092,81.0,0.0,4370.769043,4214.358886999999,4259.487305,4281.025879,4334.871582,450.0,4.0,77.0,,,,0.0,4.0,4.0,4.0,0.0,4.0,66.666664,,,,,,,,,,,,,,,,,,,,,,,,,,,,,,,,,,,,,,,,,,,,,,,,,,,,,,,,,,,,,,,,,,,,,,,,,,,,,,,,,,,,
82199,1645494314.138907,82.0,0.0,4354.871582,4234.358886999999,4265.128418,4281.025879,4314.871582,450.0,4.0,77.0,,,,0.0,4.0,4.0,4.0,0.0,4.0,66.666664,,,,,,,,41.0,0.0,0.436521,-0.29125999999999996,0.613525,0.5900880000000001,0.9052870000000001,-0.472175,-0.07910299999999999,-0.035523,-0.038225,-0.020961,,,,,,,,,,,,,,,,,,,,,,,,,,,,,,,,,,,,,,,,,,,,,,,,,,,,,,,,,,,,,,,,,
82200,1645494314.146723,83.0,0.0,4347.692383,4287.179688,4263.077147999999,4281.025879,4338.974121,16220.0,4.0,77.0,,,,0.0,4.0,4.0,4.0,0.0,4.0,66.666664,,,,,,,,,,,,,,,,,,,,,,,,,,,,,,,,,,,,,,,,,,,,,,,,,,,,,,,,,,,,,,,,,,,,,,,,,,,,,,,,,,,,
82201,1645494314.1545382,84.0,0.0,4353.846191,4322.563965,4248.717772999999,4281.025879,4354.358886999999,450.0,4.0,77.0,,,,0.0,4.0,4.0,4.0,0.0,4.0,66.666664,,,,,,,,42.0,0.0,0.436688,-0.291504,0.613525,0.5898439999999999,0.890639,-0.484382,-0.070314,-0.035535000000000004,-0.03826,-0.023797,,,,,,,,,,,,,,,,,,,,,,,,,,,,,,,,,,,0.0,0.0,64.0,0.428332,1.0,0.0,,,,,,,,,,,,,,,,,,,,,,,,,
82202,1645494314.162354,85.0,0.0,4352.820313,4304.102539,4255.897461,4281.025879,4337.436035,450.0,4.0,77.0,,,,0.0,4.0,4.0,4.0,0.0,4.0,66.666664,,,,,,,,,,,,,,,,,,,,,,,,,,,,,,,,,,,,,,,,,,,,,,,,,,,,,,,,,,,,,,,,,,,,,,,,,,,,,,,,,,,,
82203,1645494314.17007,86.0,0.0,4362.05127,4271.282227000001,4271.282227000001,4281.025879,4348.717772999999,450.0,4.0,77.0,,,,0.0,4.0,4.0,4.0,0.0,4.0,66.666664,,,,,,,,43.0,0.0,0.436688,-0.291504,0.613525,0.5898439999999999,0.89015,-0.473152,-0.064942,-0.035546,-0.038291000000000006,-0.020146999999999998,,,,,,,,,,,,,,,,,,,,,,,,,,,,,,,,,,,,,,,,,,,,,,,,,,,,,,,,,,,,,,,,,
82204,1645494314.177886,87.0,0.0,4365.641113000001,4264.615234000001,4260.0,4281.025879,4355.384765999999,16220.0,4.0,77.0,,,,0.0,4.0,4.0,4.0,0.0,4.0,66.666664,,,,,,,,,,,,,,,,,,,,,,,,,,,,,,,,,,,,,,,,,,,,,,,,,,,,,,,,,,,,,,,,,,,,,,,,,,,,,,,,,,,,
82205,1645494314.1857018,88.0,0.0,4348.205078,4247.692383,4243.077147999999,4281.025879,4326.153809,450.0,4.0,77.0,,,,0.0,4.0,4.0,4.0,0.0,4.0,66.666664,,,,,,,,44.0,0.0,0.437018,-0.291504,0.613525,0.5896,0.876967,-0.472663,-0.08203300000000001,-0.035556,-0.038369,-0.023016,,,,,,,,,,,,,,,,,,,,,,,,,,,,,,,,,,,0.0,0.0,64.0,0.428332,1.0,0.0,,,,,,,,,,,,,,,,,,,,,,,,,
82206,1645494314.193517,89.0,0.0,4334.358886999999,4236.410156,4247.692383,4281.025879,4320.0,450.0,4.0,77.0,,,,0.0,4.0,4.0,4.0,0.0,4.0,66.666664,,,,,,,,,,,,,,,,,,,,,,,,,,,,,,,,,,,,,,,,,,,,,,,,,,,,,,,,,,,,,,,,,,,,,,,,,,,,,,,,,,,,
82207,1645494314.201333,90.0,0.0,4333.846191,4271.794922,4257.94873,4281.025879,4331.282227000001,450.0,4.0,77.0,,,,0.0,4.0,4.0,4.0,0.0,4.0,66.666664,,,,,,,,45.0,0.0,0.436855,-0.291748,0.613525,0.5896,0.877943,-0.466804,-0.087892,-0.035419,-0.03834,-0.025547999999999998,,,,,,,,,,,,,,,,,,,,,,,,,,,,,,,,,,,,,,,,,,,,,,,,,,,,,,,,,,,,,,,,,
82208,1645494314.2091491,91.0,0.0,4343.077147999999,4298.461426,4259.487305,4281.025879,4323.589844,16220.0,4.0,77.0,,,,0.0,4.0,4.0,4.0,0.0,4.0,66.666664,,,,,,,,,,,,,,,,,,,,,,,,,,,,,,,,,,,,,,,,,,,,,,,,,,,,,,,,,,,,,,,,,,,,,,,,,,,,,,,,,,,,
82209,1645494314.216965,92.0,0.0,4345.641113000001,4301.025879,4256.410156,4281.025879,4325.641113000001,450.0,4.0,77.0,,,,0.0,4.0,4.0,4.0,0.0,4.0,66.666664,,,,,,,,46.0,0.0,0.436855,-0.291748,0.613525,0.5896,0.885267,-0.4795,-0.073732,-0.03549,-0.038314999999999995,-0.027925,,,,,,,,,,,,,,,,,,,,,,,,,,,,,,,,,,,0.0,0.0,64.0,0.428332,1.0,0.0,,,,,,,,,,,,,,,,,,,,,,,,,
82210,1645494314.224781,93.0,0.0,4337.436035,4322.563965,4258.461426,4281.025879,4333.333496,450.0,4.0,77.0,,,,0.0,4.0,4.0,4.0,0.0,4.0,66.666664,,,,,,,,,,,,,,,,,,,,,,,,,,,,,,,,,,,,,,,,,,,,,,,,,,,,,,,,,,,,,,,,,,,,,,,,,,,,,,,,,,,,
82211,1645494314.232597,94.0,0.0,4344.102539,4324.102539,4261.025879,4281.025879,4336.922852000001,450.0,4.0,77.0,,,,0.0,4.0,4.0,4.0,0.0,4.0,66.666664,,,,,,,,47.0,0.0,0.436691,-0.29199200000000003,0.613525,0.5896,0.877943,-0.46582700000000005,-0.07324299999999999,-0.035506,-0.038292,-0.023765,,,,,,,,,,,,,,,,,,,,,,,,,,,,,,,,,,,,,,,,,,,,,,,,,,,,,,,,,,,,,,,,,
82212,1645494314.2404132,95.0,0.0,4369.743652,4300.512695,4256.410156,4281.025879,4347.692383,16220.0,4.0,77.0,,,,0.0,4.0,4.0,4.0,0.0,4.0,66.666664,,,,,,,,,,,,,,,,,,,,,,,,,,,,,,,,,,,,,,,,,,,,,,,,,,,,,,,,,,,,,,,,,,,,,,,,,,,,,,,,,,,,
82213,1645494314.248128,96.0,0.0,4378.461426,4305.128418,4247.179688,4281.025879,4334.358886999999,450.0,4.0,77.0,,,,0.0,4.0,4.0,4.0,0.0,4.0,66.666664,,,,,,,,48.0,0.0,0.43652799999999997,-0.292236,0.613525,0.5896,0.879408,-0.477546,-0.06836,-0.035519999999999996,-0.038272,-0.026272000000000004,1.0,0.0,0.0,,,,,,,,,,,,,,,,,,,,,,,,,,,,,,,,0.0,0.0,1.0,0.0,128.0,1.0,3.030534,2.1415509999999998,1.806272,1.975873,2.338164,75.020721,11.333471000000001,21.500656,5.604205,3.51399,1.379202,0.889875,0.7956270000000001,0.591087,0.41593800000000003,0.0009710000000000001,0.000259,0.00018,8.3e-05,0.000338,3.7753879999999995,6.904679,1.647056,1.3420379999999998,1.5501850000000001
82214,1645494314.255944,97.0,0.0,4346.153809,4310.256348,4245.128418,4281.025879,4315.897461,450.0,4.0,77.0,,,,0.0,4.0,4.0,4.0,0.0,4.0,66.666664,,,,,,,,,,,,,,,,,,,,,,,,,,,,,,,,,,,,,,,,,,,,,,,,,,,,,,,,,,,,,,,,,,,,,,,,,,,,,,,,,,,,
82215,1645494314.263759,98.0,0.0,4323.077147999999,4300.0,4256.410156,4281.025879,4328.717772999999,450.0,4.0,77.0,,,,0.0,4.0,4.0,4.0,0.0,4.0,66.666664,,,,,,,,49.0,0.0,0.43652799999999997,-0.292236,0.613525,0.5896,0.886244,-0.46582700000000005,-0.07715,-0.035532,-0.038252999999999995,-0.028526999999999997,,,,,,,,,,,,,,,,,,,,,,,,,,,,,,,,,,,,,,,,,,,,,,,,,,,,,,,,,,,,,,,,,
82216,1645494314.271575,99.0,0.0,4351.794922,4300.0,4265.128418,4281.025879,4334.871582,16220.0,4.0,77.0,,,,0.0,4.0,4.0,4.0,0.0,4.0,66.666664,,,,,,,,,,,,,,,,,,,,,,,,,,,,,,,,,,,,,,,,,,,,,,,,,,,,,,,,,,,,,,,,,,,,,,,,,,,,,,,,,,,,
82217,1645494314.279391,100.0,0.0,4376.922852000001,4291.794922,4265.641113000001,4281.025879,4341.538574,450.0,4.0,77.0,,,,0.0,4.0,4.0,4.0,0.0,4.0,66.666664,,,,,,,,50.0,0.0,0.43652799999999997,-0.292236,0.613525,0.5896,0.8808729999999999,-0.471199,-0.075196,-0.035739,-0.038285,-0.02421,,,,,,,,,,,,,,,,,,,,,,,,,,,,,,,,,,,0.0,0.0,1.0,0.0,128.0,1.0,,,,,,,,,,,,,,,,,,,,,,,,,
82218,1645494314.2872062,101.0,0.0,4359.487305,4267.179688,4254.358886999999,4281.025879,4364.615234000001,450.0,4.0,77.0,,,,0.0,4.0,4.0,4.0,0.0,4.0,66.666664,,,,,,,,,,,,,,,,,,,,,,,,,,,,,,,,,,,,,,,,,,,,,,,,,,,,,,,,,,,,,,,,,,,,,,,,,,,,,,,,,,,,
82219,1645494314.295022,102.0,0.0,4345.641113000001,4257.436035,4246.666504,4281.025879,4361.025879,450.0,4.0,77.0,,,,0.0,4.0,4.0,4.0,0.0,4.0,66.666664,,,,,,,,51.0,0.0,0.436515,-0.292236,0.6137699999999999,0.5893550000000001,0.901381,-0.47022200000000003,-0.07910299999999999,-0.035827,-0.038265,-0.020422,,,,,,,,,,,,,,,,,,,,,,,,,,,,,,,,,,,,,,,,,,,,,,,,,,,,,,,,,,,,,,,,,
82220,1645494314.302837,103.0,0.0,4362.05127,4263.589844,4250.769043,4281.025879,4347.179688,16220.0,4.0,77.0,,,,0.0,4.0,4.0,4.0,0.0,4.0,66.666664,,,,,,,,,,,,,,,,,,,,,,,,,,,,,,,,,,,,,,,,,,,,,,,,,,,,,,,,,,,,,,,,,,,,,,,,,,,,,,,,,,,,
82221,1645494314.310653,104.0,0.0,4374.871582,4278.461426,4257.94873,4281.025879,4371.282227000001,450.0,4.0,77.0,,,,0.0,4.0,4.0,4.0,0.0,4.0,66.666664,,,,,,,,52.0,0.0,0.43618500000000004,-0.292236,0.6137699999999999,0.5896,0.8842909999999999,-0.48584700000000003,-0.07324299999999999,-0.035858,-0.038296,-0.023213,,,,,,,,,,,,,,,,,,,,,,,,,,,,,,,,,,,0.0,0.0,1.0,0.0,128.0,1.0,,,,,,,,,,,,,,,,,,,,,,,,,
82222,1645494314.318369,105.0,0.0,4358.461426,4273.333496,4260.0,4281.025879,4387.692383,450.0,4.0,77.0,,,,0.0,4.0,4.0,4.0,0.0,4.0,66.666664,,,,,,,,,,,,,,,,,,,,,,,,,,,,,,,,,,,,,,,,,,,,,,,,,,,,,,,,,,,,,,,,,,,,,,,,,,,,,,,,,,,,
82223,1645494314.326184,106.0,0.0,4342.563965,4236.922852000001,4263.077147999999,4281.025879,4372.307617,450.0,4.0,77.0,,,,0.0,4.0,4.0,4.0,0.0,4.0,66.666664,,,,,,,,53.0,0.0,0.436515,-0.292236,0.6137699999999999,0.5893550000000001,0.882338,-0.461921,-0.07422000000000001,-0.036032,-0.038275,-0.025824,,,,,,,,,,,,,,,,,,,,,,,,,,,,,,,,,,,,,,,,,,,,,,,,,,,,,,,,,,,,,,,,,
82224,1645494314.334,107.0,0.0,4346.153809,4231.282227000001,4270.256348,4281.025879,4366.153809,16220.0,4.0,77.0,,,,0.0,4.0,4.0,4.0,0.0,4.0,66.666664,,,,,,,,,,,,,,,,,,,,,,,,,,,,,,,,,,,,,,,,,,,,,,,,,,,,,,,,,,,,,,,,,,,,,,,,,,,,,,,,,,,,
82225,1645494314.341816,108.0,0.0,4353.333496,4269.743652,4264.615234000001,4281.025879,4359.487305,450.0,4.0,77.0,,,,0.0,4.0,4.0,4.0,0.0,4.0,66.666664,,,,,,,,54.0,0.0,0.436515,-0.292236,0.6137699999999999,0.5893550000000001,0.901381,-0.47022200000000003,-0.07910299999999999,-0.035894999999999996,-0.038354,-0.028027,,,,,,,,,,,,,,,,,,,,,,,,,,,,,,,,,,,0.0,0.0,1.0,0.0,128.0,1.0,,,,,,,,,,,,,,,,,,,,,,,,,
82226,1645494314.349631,109.0,0.0,4345.128418,4298.974121,4256.410156,4281.025879,4332.820313,450.0,4.0,77.0,,,,0.0,4.0,4.0,4.0,0.0,4.0,66.666664,,,,,,,,,,,,,,,,,,,,,,,,,,,,,,,,,,,,,,,,,,,,,,,,,,,,,,,,,,,,,,,,,,,,,,,,,,,,,,,,,,,,
82227,1645494314.3574471,110.0,0.0,4329.230957,4304.102539,4257.436035,4281.025879,4317.94873,450.0,4.0,77.0,,,,0.0,4.0,4.0,4.0,0.0,4.0,66.666664,,,,,,,,55.0,0.0,0.436515,-0.292236,0.6137699999999999,0.5893550000000001,0.882338,-0.461921,-0.07422000000000001,-0.036066,-0.038327,-0.030156,,,,,,,,,,,,,,,,,,,,,,,,,,,,,,,,,,,,,,,,,,,,,,,,,,,,,,,,,,,,,,,,,
82228,1645494314.365262,111.0,0.0,4323.589844,4294.871582,4253.333496,4281.025879,4329.230957,16220.0,4.0,77.0,,,,0.0,4.0,4.0,4.0,0.0,4.0,66.666664,,,,,,,,,,,,,,,,,,,,,,,,,,,,,,,,,,,,,,,,,,,,,,,,,,,,,,,,,,,,,,,,,,,,,,,,,,,,,,,,,,,,
82229,1645494314.3730779,112.0,0.0,4337.436035,4274.358886999999,4254.871582,4281.025879,4326.153809,450.0,4.0,77.0,,,,0.0,4.0,4.0,4.0,0.0,4.0,66.666664,,,,,,,,56.0,0.0,0.436515,-0.292236,0.6137699999999999,0.5893550000000001,0.882826,-0.481941,-0.085939,-0.036072,-0.038352,-0.031925,1.0,0.0,0.0,,,,,,,,,,,,,,,,,,,,,,,,,,,,,,,,0.0,0.0,1.0,0.0,128.0,1.0,3.7865050000000005,2.519376,1.865025,1.9217419999999998,2.319156,62.077892000000006,11.497232,18.133387,5.7554989999999995,3.04078,1.365923,0.788567,0.952785,0.617201,0.42345600000000005,0.000776,0.000198,0.00014,6.500000000000001e-05,0.000269,3.765362,6.458869,1.773449,1.548843,1.5787120000000001
82230,1645494314.3809938,113.0,0.0,4345.641113000001,4285.128418,4263.077147999999,4281.025879,4315.384765999999,450.0,4.0,77.0,,,,0.0,4.0,4.0,4.0,0.0,4.0,66.666664,,,,,,,,,,,,,,,,,,,,,,,,,,,,,,,,,,,,,,,,,,,,,,,,,,,,,,,,,,,,,,,,,,,,,,,,,,,,,,,,,,,,
82231,1645494314.38881,114.0,0.0,4330.256348,4321.538574,4258.974121,4281.025879,4339.487305,450.0,4.0,77.0,,,,0.0,4.0,4.0,4.0,0.0,4.0,66.666664,,,,,,,,57.0,0.0,0.43667799999999996,-0.29199200000000003,0.6137699999999999,0.5893550000000001,0.8803850000000001,-0.472663,-0.072267,-0.03603,-0.038472000000000006,-0.033567,,,,,,,,,,,,,,,,,,,,,,,,,,,,,,,,,,,,,,,,,,,,,,,,,,,,,,,,,,,,,,,,,
82232,1645494314.396626,115.0,0.0,4338.461426,4296.922852000001,4258.461426,4281.025879,4363.589844,16220.0,4.0,77.0,,,,0.0,4.0,4.0,4.0,0.0,4.0,66.666664,,,,,,,,,,,,,,,,,,,,,,,,,,,,,,,,,,,,,,,,,,,,,,,,,,,,,,,,,,,,,,,,,,,,,,,,,,,,,,,,,,,,
82233,1645494314.404442,116.0,0.0,4365.128418,4251.282227000001,4270.769043,4281.025879,4364.615234000001,450.0,4.0,77.0,,,,0.0,4.0,4.0,4.0,0.0,4.0,66.666664,,,,,,,,58.0,0.0,0.43634799999999996,-0.29199200000000003,0.6137699999999999,0.5896,0.885267,-0.466804,-0.069825,-0.036039999999999996,-0.038482,-0.028892,,,,,,,,,,,,,,,,,,,,,,,,,,,,,,,,,,,0.0,0.0,1.0,0.0,128.0,1.0,,,,,,,,,,,,,,,,,,,,,,,,,
82234,1645494314.412258,117.0,0.0,4340.0,4284.615234000001,4267.692383,4281.025879,4355.897461,450.0,4.0,77.0,,,,0.0,4.0,4.0,4.0,0.0,4.0,66.666664,,,,,,,,,,,,,,,,,,,,,,,,,,,,,,,,,,,,,,,,,,,,,,,,,,,,,,,,,,,,,,,,,,,,,,,,,,,,,,,,,,,,
82235,1645494314.420074,118.0,0.0,4315.384765999999,4308.717772999999,4251.282227000001,4281.025879,4348.205078,450.0,4.0,77.0,,,,0.0,4.0,4.0,4.0,0.0,4.0,66.666664,,,,,,,,59.0,0.0,0.43634799999999996,-0.29199200000000003,0.6137699999999999,0.5896,0.8994280000000001,-0.47803500000000004,-0.078126,-0.036049,-0.03854,-0.030837,,,,,,,,,,,,,,,,,,,,,,,,,,,,,,,,,,,,,,,,,,,,,,,,,,,,,,,,,,,,,,,,,
82236,1645494314.42789,119.0,0.0,4336.410156,4248.717772999999,4256.922852000001,4281.025879,4344.615234000001,16220.0,4.0,77.0,,,,0.0,4.0,4.0,4.0,0.0,4.0,66.666664,,,,,,,,,,,,,,,,,,,,,,,,,,,,,,,,,,,,,,,,,,,,,,,,,,,,,,,,,,,,,,,,,,,,,,,,,,,,,,,,,,,,
82237,1645494314.4357061,120.0,0.0,4325.641113000001,4216.410156,4261.025879,4281.025879,4341.025879,450.0,4.0,77.0,,,,0.0,4.0,4.0,4.0,0.0,4.0,66.666664,,,,,,,,60.0,0.0,0.436512,-0.291748,0.6137699999999999,0.5896,0.8896620000000001,-0.480476,-0.075685,-0.036009,-0.038495,-0.032538,,,,,,,,,,,,,,,,,,,,,,,,,,,,,,,,,,,0.0,0.0,1.0,0.0,128.0,1.0,,,,,,,,,,,,,,,,,,,,,,,,,
82238,1645494314.443523,121.0,0.0,4302.563965,4260.0,4251.794922,4281.025879,4340.0,450.0,4.0,77.0,,,,0.0,4.0,4.0,4.0,0.0,4.0,66.666664,,,,,,,,,,,,,,,,,,,,,,,,,,,,,,,,,,,,,,,,,,,,,,,,,,,,,,,,,,,,,,,,,,,,,,,,,,,,,,,,,,,,
82239,1645494314.451339,122.0,0.0,4338.974121,4270.256348,4256.922852000001,4281.025879,4332.820313,450.0,4.0,77.0,,,,0.0,4.0,4.0,4.0,0.0,4.0,66.666664,,,,,,,,61.0,0.0,0.436512,-0.291748,0.6137699999999999,0.5896,0.871107,-0.47657,-0.077638,-0.03607,-0.038502999999999996,-0.027819999999999998,,,,,,,,,,,,,,,,,,,,,,,,,,,,,,,,,,,,,,,,,,,,,,,,,,,,,,,,,,,,,,,,,
82240,1645494314.4590552,123.0,0.0,4366.666504,4246.153809,4262.05127,4281.025879,4325.641113000001,16220.0,4.0,77.0,,,,0.0,4.0,4.0,4.0,0.0,4.0,66.666664,,,,,,,,,,,,,,,,,,,,,,,,,,,,,,,,,,,,,,,,,,,,,,,,,,,,,,,,,,,,,,,,,,,,,,,,,,,,,,,,,,,,
82241,1645494314.466871,124.0,0.0,4330.769043,4254.358886999999,4257.94873,4281.025879,4334.871582,450.0,4.0,77.0,,,,0.0,4.0,4.0,4.0,0.0,4.0,66.666664,,,,,,,,62.0,0.0,0.43618199999999996,-0.291748,0.6137699999999999,0.5898439999999999,0.881849,-0.48389399999999994,-0.07324299999999999,-0.036223000000000005,-0.038412,-0.023622,,,,,,,,,,,,,,,,,,,,,,,,,,,,,,,,,,,0.0,0.0,1.0,0.0,128.0,1.0,,,,,,,,,,,,,,,,,,,,,,,,,
82242,1645494314.4746869,125.0,0.0,4309.743652,4299.487305,4257.94873,4281.025879,4339.487305,450.0,4.0,77.0,,,,0.0,4.0,4.0,4.0,0.0,4.0,66.666664,,,,,,,,,,,,,,,,,,,,,,,,,,,,,,,,,,,,,,,,,,,,,,,,,,,,,,,,,,,,,,,,,,,,,,,,,,,,,,,,,,,,
82243,1645494314.482503,126.0,0.0,4319.487305,4336.410156,4263.077147999999,4281.025879,4313.846191,450.0,4.0,77.0,,,,0.0,4.0,4.0,4.0,0.0,4.0,66.666664,,,,,,,,63.0,0.0,0.43618199999999996,-0.291748,0.6137699999999999,0.5898439999999999,0.885267,-0.47803500000000004,-0.072755,-0.036263,-0.038429000000000005,-0.026191000000000002,,,,,,,,,,,,,,,,,,,,,,,,,,,,,,,,,,,,,,,,,,,,,,,,,,,,,,,,,,,,,,,,,
82244,1645494314.490319,127.0,0.0,4318.974121,4316.410156,4262.563965,4281.025879,4309.230957,239.0,4.0,77.0,,,,0.0,4.0,4.0,4.0,0.0,4.0,66.666664,,,,,,,,,,,,,,,,,,,,,,,,,,,,,,,,,,,,,,,,,,,,,,,,,,,,,,,,,,,,,,,,,,,,,,,,,,,,,,,,,,,,
82245,1645494314.4981349,0.0,0.0,4331.794922,4267.179688,4256.922852000001,4281.025879,4345.641113000001,450.0,4.0,77.0,,,,0.0,4.0,4.0,4.0,0.0,4.0,66.666664,1.0,33.333332,4.0,2.0,2.0,0.0,4.0,0.0,0.0,0.436512,-0.291748,0.6137699999999999,0.5896,0.8881969999999999,-0.475105,-0.082521,-0.03625,-0.038492,-0.022205000000000003,1.0,0.0,0.0,,,,,,,,,,,,,,,,,,,,,,,,,,,,,,,,0.0,0.0,1.0,0.0,1.0,0.0,4.627561,2.771894,1.884682,1.810037,2.28156,50.419003000000004,12.172105,14.755432,5.800304,2.680221,1.277757,0.684972,1.074465,0.644163,0.42882200000000004,0.0005200000000000001,0.000126,9e-05,4.2e-05,0.00018,3.767358,5.787246,1.857088,1.726954,1.5770629999999999
82246,1645494314.505951,1.0,0.0,4342.05127,4243.077147999999,4250.256348,4281.025879,4336.410156,450.0,4.0,77.0,,,,0.0,4.0,4.0,4.0,0.0,4.0,66.666664,,,,,,,,,,,,,,,,,,,,,,,,,,,,,,,,,,,,,,,,,,,,,,,,,,,,,,,,,,,,,,,,,,,,,,,,,,,,,,,,,,,,
82247,1645494314.513767,2.0,0.0,4327.692383,4223.077147999999,4244.102539,4281.025879,4322.05127,16171.0,4.0,77.0,,,,0.0,4.0,4.0,4.0,0.0,4.0,66.666664,,,,,,,,1.0,0.0,0.436512,-0.291748,0.6137699999999999,0.5896,0.8813610000000001,-0.474617,-0.085451,-0.036189,-0.038647,-0.024818,,,,,,,,,,,,,,,,,,,,,,,,,,,,,,,,,,,,,,,,,,,,,,,,,,,,,,,,,,,,,,,,,
82248,1645494314.521583,3.0,0.0,4322.05127,4227.179688,4241.025879,4281.025879,4345.641113000001,450.0,4.0,77.0,,,,0.0,4.0,4.0,4.0,0.0,4.0,66.666664,,,,,,,,,,,,,,,,,,,,,,,,,,,,,,,,,,,,,,,,,,,,,,,,,,,,,,,,,,,,,,,,,,,,,,,,,,,,,,,,,,,,
82249,1645494314.529399,4.0,0.0,4334.358886999999,4266.666504,4248.205078,4281.025879,4338.461426,16076.0,4.0,77.0,,,,0.0,4.0,4.0,4.0,0.0,4.0,66.666664,,,,,,,,2.0,0.0,0.436512,-0.291748,0.6137699999999999,0.5896,0.894057,-0.49366000000000004,-0.069337,-0.036184,-0.038542,-0.021018000000000002,,,,,,,,,,,,,,,,,,,,,,,,,,,,,,,,,,,0.0,0.0,1.0,0.0,1.0,0.0,,,,,,,,,,,,,,,,,,,,,,,,,
82250,1645494314.537216,5.0,0.0,4341.025879,4243.589844,4252.820313,4281.025879,4328.717772999999,450.0,4.0,77.0,,,,0.0,4.0,4.0,4.0,0.0,4.0,66.666664,,,,,,,,,,,,,,,,,,,,,,,,,,,,,,,,,,,,,,,,,,,,,,,,,,,,,,,,,,,,,,,,,,,,,,,,,,,,,,,,,,,,
82251,1645494314.545132,6.0,0.0,4330.769043,4195.384765999999,4247.179688,4281.025879,4352.307617,16088.0,4.0,77.0,,,,0.0,4.0,4.0,4.0,0.0,4.0,66.666664,,,,,,,,3.0,0.0,0.436841,-0.291748,0.6137699999999999,0.5893550000000001,0.890639,-0.468757,-0.080568,-0.036223000000000005,-0.03846,-0.020623,,,,,,,,,,,,,,,,,,,,,,,,,,,,,,,,,,,,,,,,,,,,,,,,,,,,,,,,,,,,,,,,,
82252,1645494314.552948,7.0,0.0,4327.692383,4228.205078,4243.589844,4281.025879,4352.307617,450.0,4.0,77.0,,,,0.0,4.0,4.0,4.0,0.0,4.0,66.666664,,,,,,,,,,,,,,,,,,,,,,,,,,,,,,,,,,,,,,,,,,,,,,,,,,,,,,,,,,,,,,,,,,,,,,,,,,,,,,,,,,,,
82253,1645494314.560764,8.0,0.0,4346.666504,4243.077147999999,4253.846191,4281.025879,4338.974121,450.0,4.0,77.0,,,,0.0,4.0,4.0,4.0,0.0,4.0,66.666664,,,,,,,,4.0,0.0,0.436841,-0.291748,0.6137699999999999,0.5893550000000001,0.89015,-0.46778100000000006,-0.071778,-0.036164999999999996,-0.038423,-0.023249000000000002,,,,,,,,,,,,,,,,,,,,,,,,,,,,,,,,,,,0.0,0.0,1.0,0.0,1.0,0.0,,,,,,,,,,,,,,,,,,,,,,,,,
82254,1645494314.568581,9.0,0.0,4348.205078,4214.871582,4254.871582,4281.025879,4348.205078,0.0,4.0,77.0,,,,0.0,4.0,4.0,4.0,0.0,4.0,66.666664,,,,,,,,,,,,,,,,,,,,,,,,,,,,,,,,,,,,,,,,,,,,,,,,,,,,,,,,,,,,,,,,,,,,,,,,,,,,,,,,,,,,
82255,1645494314.5763972,10.0,0.0,4327.692383,4224.615234000001,4249.230957,4281.025879,4336.922852000001,450.0,4.0,77.0,,,,0.0,4.0,4.0,4.0,0.0,4.0,66.666664,,,,,,,,5.0,0.0,0.436841,-0.291748,0.6137699999999999,0.5893550000000001,0.886244,-0.47608100000000003,-0.091798,-0.036113,-0.038438,-0.019605,,,,,,,,,,,,,,,,,,,,,,,,,,,,,,,,,,,,,,,,,,,,,,,,,,,,,,,,,,,,,,,,,
82256,1645494314.584213,11.0,0.0,4330.769043,4227.692383,4246.666504,4281.025879,4330.256348,16219.0,4.0,77.0,,,,0.0,4.0,4.0,4.0,0.0,4.0,66.666664,,,,,,,,,,,,,,,,,,,,,,,,,,,,,,,,,,,,,,,,,,,,,,,,,,,,,,,,,,,,,,,,,,,,,,,,,,,,,,,,,,,,
82257,1645494314.59203,12.0,0.0,4338.461426,4203.077147999999,4242.563965,4281.025879,4349.230957,450.0,4.0,77.0,,,,0.0,4.0,4.0,4.0,0.0,4.0,66.666664,,,,,,,,6.0,0.0,0.43633500000000003,-0.29199200000000003,0.6140140000000001,0.5893550000000001,0.9028459999999999,-0.461433,-0.078126,-0.036164,-0.038354,-0.022577,,,,,,,,,,,,,,,,,,,,,,,,,,,,,,,,,,,0.0,0.0,1.0,0.0,1.0,0.0,,,,,,,,,,,,,,,,,,,,,,,,,
82258,1645494314.5998461,13.0,0.0,4325.128418,4228.205078,4239.487305,4281.025879,4326.153809,450.0,4.0,77.0,,,,0.0,4.0,4.0,4.0,0.0,4.0,66.666664,,,,,,,,,,,,,,,,,,,,,,,,,,,,,,,,,,,,,,,,,,,,,,,,,,,,,,,,,,,,,,,,,,,,,,,,,,,,,,,,,,,,
82259,1645494314.607662,14.0,0.0,4331.282227000001,4283.077147999999,4234.871582,4281.025879,4306.666504,450.0,4.0,77.0,,,,0.0,4.0,4.0,4.0,0.0,4.0,66.666664,,,,,,,,7.0,0.0,0.43633500000000003,-0.29199200000000003,0.6140140000000001,0.5893550000000001,0.885756,-0.466316,-0.076661,-0.036259,-0.038474,-0.018903,,,,,,,,,,,,,,,,,,,,,,,,,,,,,,,,,,,,,,,,,,,,,,,,,,,,,,,,,,,,,,,,,
82260,1645494314.615579,15.0,0.0,4336.922852000001,4288.205078,4222.563965,4281.025879,4328.205078,16219.0,4.0,77.0,,,,0.0,4.0,4.0,4.0,0.0,4.0,66.666664,,,,,,,,,,,,,,,,,,,,,,,,,,,,,,,,,,,,,,,,,,,,,,,,,,,,,,,,,,,,,,,,,,,,,,,,,,,,,,,,,,,,
82261,1645494314.623395,16.0,0.0,4307.692383,4258.461426,4226.153809,4281.025879,4316.922852000001,0.0,4.0,77.0,,,,0.0,4.0,4.0,4.0,0.0,4.0,66.666664,,,,,,,,8.0,0.0,0.43633500000000003,-0.29199200000000003,0.6140140000000001,0.5893550000000001,0.8838030000000001,-0.48096400000000006,-0.06884900000000001,-0.036441,-0.038289,-0.0217,1.0,0.0,0.0,,,,,,,,,,,,,,,,,,,,,,,,,,,,,,,,0.0,0.0,64.0,0.43904899999999997,1.0,0.0,5.458344,2.819366,1.863605,1.6500860000000002,2.245174,43.567524,13.599998000000001,12.115098,5.713642,2.462647,1.132418,0.589411,1.123615,0.665297,0.441079,0.000279,6.3e-05,4.6e-05,2.2e-05,9.7e-05,3.991965,4.99205,1.885821,1.8255310000000002,1.538724
82262,1645494314.631212,17.0,0.0,4304.102539,4278.974121,4244.615234000001,4281.025879,4289.743652,0.0,4.0,77.0,,,,0.0,4.0,4.0,4.0,0.0,4.0,66.666664,,,,,,,,,,,,,,,,,,,,,,,,,,,,,,,,,,,,,,,,,,,,,,,,,,,,,,,,,,,,,,,,,,,,,,,,,,,,,,,,,,,,
82263,1645494314.6390278,18.0,0.0,4326.666504,4297.94873,4241.025879,4281.025879,4297.436035,0.0,4.0,77.0,,,,0.0,4.0,4.0,4.0,0.0,4.0,66.666664,,,,,,,,9.0,0.0,0.43633500000000003,-0.29199200000000003,0.6140140000000001,0.5893550000000001,0.8833139999999999,-0.474128,-0.076173,-0.036459,-0.03822,-0.024462,,,,,,,,,,,,,,,,,,,,,,,,,,,,,,,,,,,,,,,,,,,,,,,,,,,,,,,,,,,,,,,,,
82264,1645494314.6468449,19.0,0.0,4325.641113000001,4242.563965,4228.205078,4281.025879,4313.333496,0.0,4.0,77.0,,,,0.0,4.0,4.0,4.0,0.0,4.0,66.666664,,,,,,,,,,,,,,,,,,,,,,,,,,,,,,,,,,,,,,,,,,,,,,,,,,,,,,,,,,,,,,,,,,,,,,,,,,,,,,,,,,,,
82265,1645494314.654661,20.0,0.0,4322.563965,4229.743652,4241.025879,4281.025879,4312.307617,0.0,4.0,77.0,,,,0.0,4.0,4.0,4.0,0.0,4.0,66.666664,,,,,,,,10.0,0.0,0.43633500000000003,-0.29199200000000003,0.6140140000000001,0.5893550000000001,0.8813610000000001,-0.478523,-0.080568,-0.036378,-0.038156999999999996,-0.020648,,,,,,,,,,,,,,,,,,,,,,,,,,,,,,,,,,,0.0,0.0,64.0,0.43904899999999997,1.0,0.0,,,,,,,,,,,,,,,,,,,,,,,,,
82266,1645494314.662478,21.0,0.0,4318.461426,4319.487305,4245.641113000001,4281.025879,4292.307617,0.0,4.0,77.0,,,,0.0,4.0,4.0,4.0,0.0,4.0,66.666664,,,,,,,,,,,,,,,,,,,,,,,,,,,,,,,,,,,,,,,,,,,,,,,,,,,,,,,,,,,,,,,,,,,,,,,,,,,,,,,,,,,,
82267,1645494314.670295,22.0,0.0,4312.820313,4401.538574,4218.461426,4281.025879,4282.05127,0.0,4.0,77.0,,,,0.0,4.0,4.0,4.0,0.0,4.0,66.666664,,,,,,,,11.0,0.0,0.43633500000000003,-0.29199200000000003,0.6140140000000001,0.5893550000000001,0.8730600000000001,-0.48389399999999994,-0.076173,-0.036354000000000004,-0.038297000000000005,-0.017119,,,,,,,,,,,,,,,,,,,,,,,,,,,,,,,,,,,,,,,,,,,,,,,,,,,,,,,,,,,,,,,,,
82268,1645494314.6781108,23.0,0.0,4316.922852000001,4437.94873,4213.333496,4281.025879,4308.205078,0.0,4.0,77.0,,,,0.0,4.0,4.0,4.0,0.0,4.0,66.666664,,,,,,,,,,,,,,,,,,,,,,,,,,,,,,,,,,,,,,,,,,,,,,,,,,,,,,,,,,,,,,,,,,,,,,,,,,,,,,,,,,,,
82269,1645494314.686028,24.0,0.0,4300.0,4464.615234000001,4228.717772999999,4281.025879,4322.05127,0.0,4.0,77.0,,,,0.0,4.0,4.0,4.0,0.0,4.0,66.666664,,,,,,,,12.0,0.0,0.43649799999999994,-0.291748,0.6140140000000001,0.5893550000000001,0.882826,-0.48535900000000004,-0.067872,-0.036331999999999996,-0.038227,-0.020191999999999998,,,,,,,,,,,,,,,,,,,,,,,,,,,,,,,,,,,0.0,0.0,64.0,0.43904899999999997,1.0,0.0,,,,,,,,,,,,,,,,,,,,,,,,,
82270,1645494314.693845,25.0,0.0,4274.871582,4454.871582,4223.589844,4281.025879,4289.230957,0.0,4.0,77.0,,,,0.0,4.0,4.0,4.0,0.0,4.0,66.666664,,,,,,,,,,,,,,,,,,,,,,,,,,,,,,,,,,,,,,,,,,,,,,,,,,,,,,,,,,,,,,,,,,,,,,,,,,,,,,,,,,,,
82271,1645494314.7016609,26.0,0.0,4308.205078,4416.922852000001,4222.05127,4281.025879,4275.384765999999,0.0,4.0,77.0,,,,0.0,4.0,4.0,4.0,0.0,4.0,66.666664,,,,,,,,13.0,0.0,0.43649799999999994,-0.291748,0.6140140000000001,0.5893550000000001,0.8691540000000001,-0.478523,-0.070802,-0.036263,-0.038164,-0.016806,,,,,,,,,,,,,,,,,,,,,,,,,,,,,,,,,,,,,,,,,,,,,,,,,,,,,,,,,,,,,,,,,
82272,1645494314.709478,27.0,0.0,4352.820313,4391.794922,4237.94873,4281.538574,4278.974121,0.0,4.0,77.0,,,,0.0,4.0,4.0,4.0,0.0,4.0,66.666664,,,,,,,,,,,,,,,,,,,,,,,,,,,,,,,,,,,,,,,,,,,,,,,,,,,,,,,,,,,,,,,,,,,,,,,,,,,,,,,,,,,,
82273,1645494314.717295,28.0,0.0,4325.128418,4376.410156,4237.94873,4281.538574,4273.333496,0.0,4.0,77.0,,,,0.0,4.0,4.0,4.0,0.0,4.0,66.666664,,,,,,,,14.0,0.0,0.43649799999999994,-0.291748,0.6140140000000001,0.5893550000000001,0.8838030000000001,-0.4795,-0.07910299999999999,-0.036299,-0.038205,-0.01991,,,,,,,,,,,,,,,,,,,,,,,,,,,,,,,,,,,0.0,0.0,64.0,0.43904899999999997,1.0,0.0,,,,,,,,,,,,,,,,,,,,,,,,,
82274,1645494314.725112,29.0,0.0,4293.846191,4372.820313,4223.077147999999,4281.025879,4285.641113000001,0.0,4.0,77.0,,,,0.0,4.0,4.0,4.0,0.0,4.0,66.666664,,,,,,,,,,,,,,,,,,,,,,,,,,,,,,,,,,,,,,,,,,,,,,,,,,,,,,,,,,,,,,,,,,,,,,,,,,,,,,,,,,,,
82275,1645494314.732929,30.0,0.0,4295.897461,4379.487305,4216.922852000001,4281.538574,4283.077147999999,0.0,4.0,77.0,,,,0.0,4.0,4.0,4.0,0.0,4.0,66.666664,,,,,,,,15.0,0.0,0.43649799999999994,-0.291748,0.6140140000000001,0.5893550000000001,0.889174,-0.482429,-0.08105599999999999,-0.036282,-0.038193,-0.016699000000000002,,,,,,,,,,,,,,,,,,,,,,,,,,,,,,,,,,,,,,,,,,,,,,,,,,,,,,,,,,,,,,,,,
82276,1645494314.7407448,31.0,0.0,4293.333496,4393.846191,4217.436035,4281.538574,4263.589844,0.0,4.0,77.0,,,,0.0,4.0,4.0,4.0,0.0,4.0,66.666664,,,,,,,,,,,,,,,,,,,,,,,,,,,,,,,,,,,,,,,,,,,,,,,,,,,,,,,,,,,,,,,,,,,,,,,,,,,,,,,,,,,,
82277,1645494314.7485619,32.0,0.0,4309.230957,4405.641113000001,4217.94873,4281.025879,4269.743652,0.0,4.0,77.0,,,,0.0,4.0,4.0,4.0,0.0,4.0,66.666664,,,,,,,,16.0,0.0,0.436841,-0.291748,0.6137699999999999,0.5893550000000001,0.8813610000000001,-0.47608100000000003,-0.07324299999999999,-0.036267,-0.038183,-0.019863,1.0,0.0,0.0,,,,,,,,,,,,,,,,,,,,,,,,,,,,,,,,0.0,0.0,64.0,0.337565,1.0,0.0,5.891171,2.62047,1.8175830000000002,1.47846,2.221149,42.484676,15.578884,10.387709,5.513191,2.413574,0.929941,0.504822,1.088106,0.673894,0.462502,0.000113,2.2e-05,1.7e-05,8e-06,3.8e-05,4.271065,4.258168,1.8921119999999998,1.8211830000000002,1.4705629999999998
82278,1645494314.756379,33.0,0.0,4317.436035,4405.641113000001,4217.436035,4280.512695,4268.205078,0.0,4.0,77.0,,,,0.0,4.0,4.0,4.0,0.0,4.0,66.666664,,,,,,,,,,,,,,,,,,,,,,,,,,,,,,,,,,,,,,,,,,,,,,,,,,,,,,,,,,,,,,,,,,,,,,,,,,,,,,,,,,,,
82279,1645494314.7642949,34.0,0.0,4295.384765999999,4417.436035,4222.05127,4280.512695,4249.230957,0.0,4.0,77.0,,,,0.0,4.0,4.0,4.0,0.0,4.0,66.666664,,,,,,,,17.0,0.0,0.436841,-0.291748,0.6137699999999999,0.5893550000000001,0.886244,-0.466316,-0.072267,-0.036205,-0.038222000000000006,-0.022711000000000002,,,,,,,,,,,,,,,,,,,,,,,,,,,,,,,,,,,,,,,,,,,,,,,,,,,,,,,,,,,,,,,,,
82280,1645494314.772112,35.0,0.0,4314.871582,4427.179688,4234.871582,4280.512695,4269.230957,0.0,4.0,77.0,,,,0.0,4.0,4.0,4.0,0.0,4.0,66.666664,,,,,,,,,,,,,,,,,,,,,,,,,,,,,,,,,,,,,,,,,,,,,,,,,,,,,,,,,,,,,,,,,,,,,,,,,,,,,,,,,,,,
82281,1645494314.779928,36.0,0.0,4351.282227000001,4394.358886999999,4236.922852000001,4280.512695,4295.384765999999,0.0,4.0,77.0,,,,0.0,4.0,4.0,4.0,0.0,4.0,66.666664,,,,,,,,18.0,0.0,0.43649799999999994,-0.291748,0.6140140000000001,0.5893550000000001,0.889174,-0.482429,-0.08105599999999999,-0.036198,-0.038257,-0.019022999999999998,,,,,,,,,,,,,,,,,,,,,,,,,,,,,,,,,,,0.0,0.0,64.0,0.337565,1.0,0.0,,,,,,,,,,,,,,,,,,,,,,,,,
82282,1645494314.787745,37.0,0.0,4325.641113000001,4370.256348,4224.102539,4280.512695,4274.358886999999,0.0,4.0,77.0,,,,0.0,4.0,4.0,4.0,0.0,4.0,66.666664,,,,,,,,,,,,,,,,,,,,,,,,,,,,,,,,,,,,,,,,,,,,,,,,,,,,,,,,,,,,,,,,,,,,,,,,,,,,,,,,,,,,
82283,1645494314.795661,38.0,0.0,4292.307617,4408.205078,4221.538574,4280.512695,4272.820313,0.0,4.0,77.0,,,,0.0,4.0,4.0,4.0,0.0,4.0,66.666664,,,,,,,,19.0,0.0,0.436841,-0.291748,0.6137699999999999,0.5893550000000001,0.886244,-0.466316,-0.072267,-0.036143,-0.038289,-0.021955000000000002,,,,,,,,,,,,,,,,,,,,,,,,,,,,,,,,,,,,,,,,,,,,,,,,,,,,,,,,,,,,,,,,,
82284,1645494314.803577,39.0,0.0,4310.769043,4414.358886999999,4234.358886999999,4280.512695,4298.461426,0.0,4.0,77.0,,,,0.0,4.0,4.0,4.0,0.0,4.0,66.666664,,,,,,,,,,,,,,,,,,,,,,,,,,,,,,,,,,,,,,,,,,,,,,,,,,,,,,,,,,,,,,,,,,,,,,,,,,,,,,,,,,,,
82285,1645494314.811394,40.0,0.0,4330.769043,4384.615234000001,4244.615234000001,4280.512695,4283.589844,0.0,4.0,77.0,,,,0.0,4.0,4.0,4.0,0.0,4.0,66.666664,,,,,,,,20.0,0.0,0.436855,-0.291748,0.613525,0.5896,0.890639,-0.47363999999999995,-0.086427,-0.036142,-0.038366000000000004,-0.024691,,,,,,,,,,,,,,,,,,,,,,,,,,,,,,,,,,,0.0,0.0,64.0,0.337565,1.0,0.0,,,,,,,,,,,,,,,,,,,,,,,,,
82286,1645494314.81921,41.0,0.0,4328.717772999999,4423.589844,4241.025879,4280.512695,4282.563965,0.0,4.0,77.0,,,,0.0,4.0,4.0,4.0,0.0,4.0,66.666664,,,,,,,,,,,,,,,,,,,,,,,,,,,,,,,,,,,,,,,,,,,,,,,,,,,,,,,,,,,,,,,,,,,,,,,,,,,,,,,,,,,,
82287,1645494314.827026,42.0,0.0,4323.589844,4445.128418,4241.538574,4280.512695,4309.743652,0.0,4.0,77.0,,,,0.0,4.0,4.0,4.0,0.0,4.0,66.666664,,,,,,,,21.0,0.0,0.437184,-0.291748,0.613525,0.5893550000000001,0.8989389999999999,-0.477058,-0.075196,-0.036092,-0.03829,-0.020806,,,,,,,,,,,,,,,,,,,,,,,,,,,,,,,,,,,,,,,,,,,,,,,,,,,,,,,,,,,,,,,,,
82288,1645494314.834943,43.0,0.0,4324.615234000001,4372.820313,4242.05127,4280.512695,4298.974121,0.0,4.0,77.0,,,,0.0,4.0,4.0,4.0,0.0,4.0,66.666664,,,,,,,,,,,,,,,,,,,,,,,,,,,,,,,,,,,,,,,,,,,,,,,,,,,,,,,,,,,,,,,,,,,,,,,,,,,,,,,,,,,,
82289,1645494314.8427598,44.0,0.0,4328.205078,4333.846191,4230.769043,4280.512695,4286.666504,0.0,4.0,77.0,,,,0.0,4.0,4.0,4.0,0.0,4.0,66.666664,,,,,,,,22.0,0.0,0.436841,-0.291748,0.6137699999999999,0.5893550000000001,0.886244,-0.478523,-0.083497,-0.036047,-0.038318,-0.023511,,,,,,,,,,,,,,,,,,,,,,,,,,,,,,,,,,,0.0,0.0,64.0,0.337565,1.0,0.0,,,,,,,,,,,,,,,,,,,,,,,,,
82290,1645494314.8505769,45.0,0.0,4315.384765999999,4353.333496,4222.563965,4280.512695,4295.897461,0.0,4.0,77.0,,,,0.0,4.0,4.0,4.0,0.0,4.0,66.666664,,,,,,,,,,,,,,,,,,,,,,,,,,,,,,,,,,,,,,,,,,,,,,,,,,,,,,,,,,,,,,,,,,,,,,,,,,,,,,,,,,,,
82291,1645494314.858393,46.0,0.0,4304.102539,4356.410156,4228.717772999999,4280.512695,4286.666504,0.0,4.0,77.0,,,,0.0,4.0,4.0,4.0,0.0,4.0,66.666664,,,,,,,,23.0,0.0,0.436841,-0.291748,0.6137699999999999,0.5893550000000001,0.8955209999999999,-0.480476,-0.077638,-0.036007,-0.038294999999999996,-0.026043,,,,,,,,,,,,,,,,,,,,,,,,,,,,,,,,,,,,,,,,,,,,,,,,,,,,,,,,,,,,,,,,,
82292,1645494314.86621,47.0,0.0,4311.794922,4358.461426,4238.974121,4280.512695,4278.461426,0.0,4.0,77.0,,,,0.0,4.0,4.0,4.0,0.0,4.0,66.666664,,,,,,,,,,,,,,,,,,,,,,,,,,,,,,,,,,,,,,,,,,,,,,,,,,,,,,,,,,,,,,,,,,,,,,,,,,,,,,,,,,,,
82293,1645494314.874027,48.0,0.0,4321.538574,4346.153809,4234.358886999999,4280.512695,4307.692383,0.0,4.0,77.0,,,,0.0,4.0,4.0,4.0,0.0,4.0,66.666664,,,,,,,,24.0,0.0,0.436841,-0.291748,0.6137699999999999,0.5893550000000001,0.894545,-0.464363,-0.07324299999999999,-0.035970999999999996,-0.038225,-0.028419,1.0,0.0,0.0,,,,,,,,,,,,,,,,,,,,,,,,,,,,,,,,0.0,0.0,1.0,0.0,1.0,0.0,5.912747,2.200958,1.758087,1.334076,2.211573,45.528419,17.41004,9.410699000000001,5.254433000000001,2.545525,0.732615,0.436672,0.9897729999999999,0.6663279999999999,0.48704899999999995,2.8999999999999997e-05,5e-06,4e-06,2e-06,1e-05,4.749064,3.766685,1.9263139999999999,1.7175200000000002,1.391578
82294,1645494314.881844,49.0,0.0,4333.846191,4310.256348,4225.128418,4280.512695,4319.487305,0.0,4.0,77.0,,,,0.0,4.0,4.0,4.0,0.0,4.0,66.666664,,,,,,,,,,,,,,,,,,,,,,,,,,,,,,,,,,,,,,,,,,,,,,,,,,,,,,,,,,,,,,,,,,,,,,,,,,,,,,,,,,,,
82295,1645494314.8896608,50.0,0.0,4351.282227000001,4320.0,4227.179688,4280.512695,4303.589844,0.0,4.0,77.0,,,,0.0,4.0,4.0,4.0,0.0,4.0,66.666664,,,,,,,,25.0,0.0,0.436675,-0.291504,0.6137699999999999,0.5896,0.887709,-0.480476,-0.076661,-0.035938,-0.038308999999999996,-0.024259,,,,,,,,,,,,,,,,,,,,,,,,,,,,,,,,,,,,,,,,,,,,,,,,,,,,,,,,,,,,,,,,,
82296,1645494314.897477,51.0,0.0,4343.077147999999,4330.256348,4227.179688,4280.512695,4298.461426,0.0,4.0,77.0,,,,0.0,4.0,4.0,4.0,0.0,4.0,66.666664,,,,,,,,,,,,,,,,,,,,,,,,,,,,,,,,,,,,,,,,,,,,,,,,,,,,,,,,,,,,,,,,,,,,,,,,,,,,,,,,,,,,
82297,1645494314.9053938,52.0,0.0,4312.307617,4284.102539,4221.538574,4280.512695,4285.128418,0.0,4.0,77.0,,,,0.0,4.0,4.0,4.0,0.0,4.0,66.666664,,,,,,,,26.0,0.0,0.436675,-0.291504,0.6137699999999999,0.5896,0.885756,-0.475105,-0.08203300000000001,-0.035958,-0.038336,-0.020368,,,,,,,,,,,,,,,,,,,,,,,,,,,,,,,,,,,0.0,0.0,1.0,0.0,1.0,0.0,,,,,,,,,,,,,,,,,,,,,,,,,
82298,1645494314.9132109,53.0,0.0,4316.410156,4268.205078,4222.563965,4279.487305,4287.179688,0.0,4.0,77.0,,,,0.0,4.0,4.0,4.0,0.0,4.0,66.666664,,,,,,,,,,,,,,,,,,,,,,,,,,,,,,,,,,,,,,,,,,,,,,,,,,,,,,,,,,,,,,,,,,,,,,,,,,,,,,,,,,,,
82299,1645494314.921028,54.0,0.0,4328.205078,4298.974121,4221.538574,4278.974121,4307.179688,0.0,4.0,77.0,,,,0.0,4.0,4.0,4.0,0.0,4.0,66.666664,,,,,,,,27.0,0.0,0.436675,-0.291504,0.6137699999999999,0.5896,0.877943,-0.47363999999999995,-0.084962,-0.035927,-0.038408,-0.023116,,,,,,,,,,,,,,,,,,,,,,,,,,,,,,,,,,,,,,,,,,,,,,,,,,,,,,,,,,,,,,,,,
82300,1645494314.928845,55.0,0.0,4312.820313,4287.179688,4220.512695,4280.0,4295.384765999999,0.0,4.0,77.0,,,,0.0,4.0,4.0,4.0,0.0,4.0,66.666664,,,,,,,,,,,,,,,,,,,,,,,,,,,,,,,,,,,,,,,,,,,,,,,,,,,,,,,,,,,,,,,,,,,,,,,,,,,,,,,,,,,,
82301,1645494314.936661,56.0,0.0,4316.922852000001,4268.205078,4225.128418,4280.512695,4283.589844,0.0,4.0,77.0,,,,0.0,4.0,4.0,4.0,0.0,4.0,66.666664,,,,,,,,28.0,0.0,0.436675,-0.291504,0.6137699999999999,0.5896,0.8838030000000001,-0.477058,-0.089357,-0.035947,-0.038425,-0.019438,,,,,,,,,,,,,,,,,,,,,,,,,,,,,,,,,,,0.0,0.0,1.0,0.0,1.0,0.0,,,,,,,,,,,,,,,,,,,,,,,,,
82302,1645494314.944478,57.0,0.0,4335.384765999999,4320.0,4226.153809,4280.512695,4290.769043,0.0,4.0,77.0,,,,0.0,4.0,4.0,4.0,0.0,4.0,66.666664,,,,,,,,,,,,,,,,,,,,,,,,,,,,,,,,,,,,,,,,,,,,,,,,,,,,,,,,,,,,,,,,,,,,,,,,,,,,,,,,,,,,
82303,1645494314.9522948,58.0,0.0,4327.179688,4355.384765999999,4223.077147999999,4280.0,4292.820313,0.0,4.0,77.0,,,,0.0,4.0,4.0,4.0,0.0,4.0,66.666664,,,,,,,,29.0,0.0,0.436331,-0.291504,0.6140140000000001,0.5896,0.886244,-0.478523,-0.072267,-0.035966000000000005,-0.038293,-0.022377,,,,,,,,,,,,,,,,,,,,,,,,,,,,,,,,,,,,,,,,,,,,,,,,,,,,,,,,,,,,,,,,,
82304,1645494314.9601119,59.0,0.0,4326.666504,4312.820313,4227.692383,4280.512695,4309.743652,0.0,4.0,77.0,,,,0.0,4.0,4.0,4.0,0.0,4.0,66.666664,,,,,,,,,,,,,,,,,,,,,,,,,,,,,,,,,,,,,,,,,,,,,,,,,,,,,,,,,,,,,,,,,,,,,,,,,,,,,,,,,,,,
82305,1645494314.967928,60.0,0.0,4340.0,4270.769043,4231.282227000001,4280.512695,4331.282227000001,0.0,4.0,77.0,,,,0.0,4.0,4.0,4.0,0.0,4.0,66.666664,,,,,,,,30.0,0.0,0.436331,-0.291504,0.6140140000000001,0.5896,0.8916149999999999,-0.478523,-0.080079,-0.035836,-0.038322,-0.018625,,,,,,,,,,,,,,,,,,,,,,,,,,,,,,,,,,,0.0,0.0,1.0,0.0,1.0,0.0,,,,,,,,,,,,,,,,,,,,,,,,,
82306,1645494314.975745,61.0,0.0,4315.384765999999,4290.256348,4228.717772999999,4280.512695,4299.487305,0.0,4.0,77.0,,,,0.0,4.0,4.0,4.0,0.0,4.0,66.666664,,,,,,,,,,,,,,,,,,,,,,,,,,,,,,,,,,,,,,,,,,,,,,,,,,,,,,,,,,,,,,,,,,,,,,,,,,,,,,,,,,,,
82307,1645494314.983662,62.0,0.0,4295.897461,4336.922852000001,4231.282227000001,4280.512695,4264.102539,0.0,4.0,77.0,,,,0.0,4.0,4.0,4.0,0.0,4.0,66.666664,,,,,,,,31.0,0.0,0.436331,-0.291504,0.6140140000000001,0.5896,0.8681770000000001,-0.48389399999999994,-0.08105599999999999,-0.035817,-0.038298,-0.021547999999999998,,,,,,,,,,,,,,,,,,,,,,,,,,,,,,,,,,,,,,,,,,,,,,,,,,,,,,,,,,,,,,,,,
82308,1645494314.991479,63.0,0.0,4318.974121,4336.922852000001,4231.282227000001,4280.512695,4277.436035,0.0,4.0,77.0,,,,0.0,4.0,4.0,4.0,0.0,4.0,66.666664,,,,,,,,,,,,,,,,,,,,,,,,,,,,,,,,,,,,,,,,,,,,,,,,,,,,,,,,,,,,,,,,,,,,,,,,,,,,,,,,,,,,
82309,1645494314.999395,64.0,0.0,4329.230957,4282.563965,4224.615234000001,4280.512695,4284.102539,450.0,4.0,77.0,,,,0.0,4.0,4.0,4.0,0.0,4.0,66.666664,1.0,33.333332,4.0,2.0,2.0,0.0,4.0,32.0,0.0,0.436331,-0.291504,0.6140140000000001,0.5896,0.881849,-0.4795,-0.07910299999999999,-0.0358,-0.038375,-0.024374,1.0,0.0,0.0,,,,,,,,,,,,,,,,,,,,,,,,,,,,,,,,0.0,0.0,1.0,0.0,1.0,0.0,5.335365,1.657804,1.687053,1.250039,2.2181040000000003,48.859196000000004,18.801916000000002,9.387683,4.991796,2.850795,0.541849,0.392438,0.875597,0.644084,0.505347,2.1e-05,1e-05,5e-06,1e-06,3e-06,5.173337999999999,3.580659,1.9875990000000001,1.537777,1.327253
82310,1645494315.007212,65.0,0.0,4321.025879,4247.179688,4220.512695,4280.512695,4282.05127,450.0,4.0,77.0,,,,0.0,4.0,4.0,4.0,0.0,4.0,66.666664,,,,,,,,,,,,,,,,,,,,,,,,,,,,,,,,,,,,,,,,,,,,,,,,,,,,,,,,,,,,,,,,,,,,,,,,,,,,,,,,,,,,
82311,1645494315.015029,66.0,0.0,4304.102539,4281.025879,4222.05127,4280.512695,4283.077147999999,16216.0,4.0,77.0,,,,0.0,4.0,4.0,4.0,0.0,4.0,66.666664,,,,,,,,33.0,0.0,0.436331,-0.291504,0.6140140000000001,0.5896,0.881849,-0.472663,-0.078126,-0.035833,-0.038346,-0.026868,,,,,,,,,,,,,,,,,,,,,,,,,,,,,,,,,,,,,,,,,,,,,,,,,,,,,,,,,,,,,,,,,
82312,1645494315.022846,67.0,0.0,4290.256348,4305.641113000001,4229.230957,4280.512695,4273.846191,450.0,4.0,77.0,,,,0.0,4.0,4.0,4.0,0.0,4.0,66.666664,,,,,,,,,,,,,,,,,,,,,,,,,,,,,,,,,,,,,,,,,,,,,,,,,,,,,,,,,,,,,,,,,,,,,,,,,,,,,,,,,,,,
82313,1645494315.030663,68.0,0.0,4325.128418,4283.589844,4234.358886999999,4280.512695,4284.615234000001,16119.0,4.0,77.0,,,,0.0,4.0,4.0,4.0,0.0,4.0,66.666664,,,,,,,,34.0,0.0,0.43616800000000006,-0.291748,0.6140140000000001,0.5896,0.8759899999999999,-0.482429,-0.079591,-0.035717,-0.038369,-0.022862999999999998,,,,,,,,,,,,,,,,,,,,,,,,,,,,,,,,,,,0.0,0.0,1.0,0.0,1.0,0.0,,,,,,,,,,,,,,,,,,,,,,,,,
82314,1645494315.0384789,69.0,0.0,4348.717772999999,4296.922852000001,4226.153809,4280.512695,4293.333496,450.0,4.0,77.0,,,,0.0,4.0,4.0,4.0,0.0,4.0,66.666664,,,,,,,,,,,,,,,,,,,,,,,,,,,,,,,,,,,,,,,,,,,,,,,,,,,,,,,,,,,,,,,,,,,,,,,,,,,,,,,,,,,,
82315,1645494315.0462961,70.0,0.0,4304.615234000001,4326.153809,4218.461426,4280.512695,4280.0,16064.0,4.0,77.0,,,,0.0,4.0,4.0,4.0,0.0,4.0,66.666664,,,,,,,,35.0,0.0,0.43616800000000006,-0.291748,0.6140140000000001,0.5896,0.87013,-0.47803500000000004,-0.061036,-0.035710000000000006,-0.03834,-0.025459,,,,,,,,,,,,,,,,,,,,,,,,,,,,,,,,,,,,,,,,,,,,,,,,,,,,,,,,,,,,,,,,,
82316,1645494315.0541131,71.0,0.0,4294.358886999999,4314.871582,4223.077147999999,4280.512695,4292.307617,450.0,4.0,77.0,,,,0.0,4.0,4.0,4.0,0.0,4.0,66.666664,,,,,,,,,,,,,,,,,,,,,,,,,,,,,,,,,,,,,,,,,,,,,,,,,,,,,,,,,,,,,,,,,,,,,,,,,,,,,,,,,,,,
82317,1645494315.0619302,72.0,0.0,4333.333496,4282.563965,4224.615234000001,4280.512695,4308.717772999999,450.0,4.0,77.0,,,,0.0,4.0,4.0,4.0,0.0,4.0,66.666664,,,,,,,,36.0,0.0,0.435838,-0.291748,0.6140140000000001,0.5898439999999999,0.866224,-0.48145299999999996,-0.08105599999999999,-0.035801,-0.038266,-0.027748000000000002,,,,,,,,,,,,,,,,,,,,,,,,,,,,,,,,,,,0.0,0.0,1.0,0.0,1.0,0.0,,,,,,,,,,,,,,,,,,,,,,,,,
82318,1645494315.0698462,73.0,0.0,4318.974121,4249.743652,4215.897461,4280.512695,4290.769043,0.0,4.0,77.0,,,,0.0,4.0,4.0,4.0,0.0,4.0,66.666664,,,,,,,,,,,,,,,,,,,,,,,,,,,,,,,,,,,,,,,,,,,,,,,,,,,,,,,,,,,,,,,,,,,,,,,,,,,,,,,,,,,,
82319,1645494315.0776632,74.0,0.0,4290.256348,4231.794922,4223.589844,4280.512695,4274.871582,450.0,4.0,77.0,,,,0.0,4.0,4.0,4.0,0.0,4.0,66.666664,,,,,,,,37.0,0.0,0.436331,-0.291504,0.6140140000000001,0.5896,0.8798959999999999,-0.48145299999999996,-0.069825,-0.035834,-0.038395,-0.023508,,,,,,,,,,,,,,,,,,,,,,,,,,,,,,,,,,,,,,,,,,,,,,,,,,,,,,,,,,,,,,,,,
82320,1645494315.085479,75.0,0.0,4287.692383,4238.461426,4233.333496,4280.512695,4278.974121,16235.0,4.0,77.0,,,,0.0,4.0,4.0,4.0,0.0,4.0,66.666664,,,,,,,,,,,,,,,,,,,,,,,,,,,,,,,,,,,,,,,,,,,,,,,,,,,,,,,,,,,,,,,,,,,,,,,,,,,,,,,,,,,,
82321,1645494315.093296,76.0,0.0,4284.102539,4266.153809,4227.692383,4280.512695,4278.974121,450.0,4.0,77.0,,,,0.0,4.0,4.0,4.0,0.0,4.0,66.666664,,,,,,,,38.0,0.0,0.436331,-0.291504,0.6140140000000001,0.5896,0.8764780000000001,-0.486824,-0.070314,-0.035815,-0.038363999999999995,-0.019839,,,,,,,,,,,,,,,,,,,,,,,,,,,,,,,,,,,0.0,0.0,1.0,0.0,1.0,0.0,,,,,,,,,,,,,,,,,,,,,,,,,
82322,1645494315.101112,77.0,0.0,4296.410156,4311.794922,4226.153809,4280.512695,4280.512695,450.0,4.0,77.0,,,,0.0,4.0,4.0,4.0,0.0,4.0,66.666664,,,,,,,,,,,,,,,,,,,,,,,,,,,,,,,,,,,,,,,,,,,,,,,,,,,,,,,,,,,,,,,,,,,,,,,,,,,,,,,,,,,,
82323,1645494315.108929,78.0,0.0,4304.102539,4327.179688,4224.102539,4280.512695,4282.05127,450.0,4.0,77.0,,,,0.0,4.0,4.0,4.0,0.0,4.0,66.666664,,,,,,,,39.0,0.0,0.435988,-0.291504,0.614258,0.5896,0.885267,-0.480476,-0.079591,-0.0357,-0.038287,-0.022787,,,,,,,,,,,,,,,,,,,,,,,,,,,,,,,,,,,,,,,,,,,,,,,,,,,,,,,,,,,,,,,,,
82324,1645494315.1167462,79.0,0.0,4300.512695,4274.871582,4217.436035,4280.512695,4277.436035,16235.0,4.0,77.0,,,,0.0,4.0,4.0,4.0,0.0,4.0,66.666664,,,,,,,,,,,,,,,,,,,,,,,,,,,,,,,,,,,,,,,,,,,,,,,,,,,,,,,,,,,,,,,,,,,,,,,,,,,,,,,,,,,,
82325,1645494315.124562,80.0,0.0,4311.282227000001,4236.410156,4218.974121,4280.512695,4293.846191,450.0,4.0,77.0,,,,0.0,4.0,4.0,4.0,0.0,4.0,66.666664,,,,,,,,40.0,0.0,0.436331,-0.291504,0.6140140000000001,0.5896,0.8774549999999999,-0.48340600000000006,-0.067872,-0.035695,-0.038267,-0.025391,1.0,0.0,0.0,,,,,,,,,,,,,,,,,,,,,,,,,,,,,,,,0.0,0.0,1.0,0.0,1.0,0.0,4.46365,1.120231,1.606937,1.258262,2.241119,49.900299,19.778425,10.743798,4.8065050000000005,3.280822,0.43471899999999997,0.377799,0.798728,0.615575,0.5088729999999999,7.6e-05,4.3e-05,2.6000000000000002e-05,6e-06,1.1e-05,5.560746,3.627118,2.023974,1.3342559999999999,1.2994
82326,1645494315.132479,81.0,0.0,4310.769043,4254.358886999999,4226.666504,4280.512695,4310.769043,450.0,4.0,77.0,,,,0.0,4.0,4.0,4.0,0.0,4.0,66.666664,,,,,,,,,,,,,,,,,,,,,,,,,,,,,,,,,,,,,,,,,,,,,,,,,,,,,,,,,,,,,,,,,,,,,,,,,,,,,,,,,,,,
82327,1645494315.140296,82.0,0.0,4316.410156,4242.563965,4230.256348,4280.512695,4295.384765999999,450.0,4.0,77.0,,,,0.0,4.0,4.0,4.0,0.0,4.0,66.666664,,,,,,,,41.0,0.0,0.43649399999999994,-0.29125999999999996,0.6140140000000001,0.5896,0.874525,-0.477546,-0.07910299999999999,-0.035739,-0.038298,-0.021387,,,,,,,,,,,,,,,,,,,,,,,,,,,,,,,,,,,,,,,,,,,,,,,,,,,,,,,,,,,,,,,,,
82328,1645494315.1481118,83.0,0.0,4347.179688,4198.461426,4231.794922,4280.512695,4290.769043,16235.0,4.0,77.0,,,,0.0,4.0,4.0,4.0,0.0,4.0,66.666664,,,,,,,,,,,,,,,,,,,,,,,,,,,,,,,,,,,,,,,,,,,,,,,,,,,,,,,,,,,,,,,,,,,,,,,,,,,,,,,,,,,,
82329,1645494315.1559289,84.0,0.0,4343.589844,4203.589844,4223.077147999999,4280.512695,4313.333496,450.0,4.0,77.0,,,,0.0,4.0,4.0,4.0,0.0,4.0,66.666664,,,,,,,,42.0,0.0,0.43649399999999994,-0.29125999999999996,0.6140140000000001,0.5896,0.8774549999999999,-0.471199,-0.069337,-0.035681,-0.038375,-0.024033000000000002,,,,,,,,,,,,,,,,,,,,,,,,,,,,,,,,,,,0.0,0.0,1.0,0.0,1.0,0.0,,,,,,,,,,,,,,,,,,,,,,,,,
82330,1645494315.163746,85.0,0.0,4303.589844,4240.0,4214.358886999999,4280.512695,4311.282227000001,450.0,4.0,77.0,,,,0.0,4.0,4.0,4.0,0.0,4.0,66.666664,,,,,,,,,,,,,,,,,,,,,,,,,,,,,,,,,,,,,,,,,,,,,,,,,,,,,,,,,,,,,,,,,,,,,,,,,,,,,,,,,,,,
82331,1645494315.1715631,86.0,0.0,4311.282227000001,4230.256348,4218.974121,4280.512695,4293.333496,450.0,4.0,77.0,,,,0.0,4.0,4.0,4.0,0.0,4.0,66.666664,,,,,,,,43.0,0.0,0.43631400000000004,-0.291016,0.614258,0.5896,0.8833139999999999,-0.477058,-0.08203300000000001,-0.035677,-0.038395,-0.026463999999999998,,,,,,,,,,,,,,,,,,,,,,,,,,,,,,,,,,,,,,,,,,,,,,,,,,,,,,,,,,,,,,,,,
82332,1645494315.1793802,87.0,0.0,4332.820313,4196.410156,4219.487305,4280.512695,4297.436035,16235.0,4.0,77.0,,,,0.0,4.0,4.0,4.0,0.0,4.0,66.666664,,,,,,,,,,,,,,,,,,,,,,,,,,,,,,,,,,,,,,,,,,,,,,,,,,,,,,,,,,,,,,,,,,,,,,,,,,,,,,,,,,,,
82333,1645494315.187196,88.0,0.0,4318.461426,4203.589844,4213.333496,4280.512695,4303.589844,450.0,4.0,77.0,,,,0.0,4.0,4.0,4.0,0.0,4.0,66.666664,,,,,,,,44.0,0.0,0.43631400000000004,-0.291016,0.614258,0.5896,0.895033,-0.48096400000000006,-0.078126,-0.035723000000000005,-0.038461,-0.028602999999999996,,,,,,,,,,,,,,,,,,,,,,,,,,,,,,,,,,,0.0,0.0,1.0,0.0,1.0,0.0,,,,,,,,,,,,,,,,,,,,,,,,,
82334,1645494315.195013,89.0,0.0,4309.230957,4231.282227000001,4224.615234000001,4280.512695,4292.307617,450.0,4.0,77.0,,,,0.0,4.0,4.0,4.0,0.0,4.0,66.666664,,,,,,,,,,,,,,,,,,,,,,,,,,,,,,,,,,,,,,,,,,,,,,,,,,,,,,,,,,,,,,,,,,,,,,,,,,,,,,,,,,,,
82335,1645494315.20283,90.0,0.0,4302.05127,4217.436035,4225.641113000001,4280.512695,4293.846191,450.0,4.0,77.0,,,,0.0,4.0,4.0,4.0,0.0,4.0,66.666664,,,,,,,,45.0,0.0,0.43631400000000004,-0.291016,0.614258,0.5896,0.8833139999999999,-0.47901099999999996,-0.078614,-0.035666,-0.03857,-0.024472999999999998,,,,,,,,,,,,,,,,,,,,,,,,,,,,,,,,,,,,,,,,,,,,,,,,,,,,,,,,,,,,,,,,,
82336,1645494315.210747,91.0,0.0,4285.641113000001,4172.307617,4209.230957,4280.512695,4296.410156,16235.0,4.0,77.0,,,,0.0,4.0,4.0,4.0,0.0,4.0,66.666664,,,,,,,,,,,,,,,,,,,,,,,,,,,,,,,,,,,,,,,,,,,,,,,,,,,,,,,,,,,,,,,,,,,,,,,,,,,,,,,,,,,,
82337,1645494315.218563,92.0,0.0,4288.205078,4142.563965,4211.794922,4280.512695,4272.820313,450.0,4.0,77.0,,,,0.0,4.0,4.0,4.0,0.0,4.0,66.666664,,,,,,,,46.0,0.0,0.43631400000000004,-0.291016,0.614258,0.5896,0.8833139999999999,-0.477058,-0.08203300000000001,-0.03581,-0.038571,-0.020659,,,,,,,,,,,,,,,,,,,,,,,,,,,,,,,,,,,0.0,0.0,1.0,0.0,1.0,0.0,,,,,,,,,,,,,,,,,,,,,,,,,
82338,1645494315.22638,93.0,0.0,4302.563965,4152.820313,4218.461426,4280.512695,4259.487305,450.0,4.0,77.0,,,,0.0,4.0,4.0,4.0,0.0,4.0,66.666664,,,,,,,,,,,,,,,,,,,,,,,,,,,,,,,,,,,,,,,,,,,,,,,,,,,,,,,,,,,,,,,,,,,,,,,,,,,,,,,,,,,,
82339,1645494315.2341971,94.0,0.0,4297.436035,4170.769043,4209.230957,4280.512695,4281.025879,450.0,4.0,77.0,,,,0.0,4.0,4.0,4.0,0.0,4.0,66.666664,,,,,,,,47.0,0.0,0.43631400000000004,-0.291016,0.614258,0.5896,0.8833139999999999,-0.47901099999999996,-0.078614,-0.035745,-0.038669,-0.017322999999999998,,,,,,,,,,,,,,,,,,,,,,,,,,,,,,,,,,,,,,,,,,,,,,,,,,,,,,,,,,,,,,,,,
82340,1645494315.2420142,95.0,0.0,4293.846191,4171.282227000001,4215.384765999999,4281.025879,4302.563965,16235.0,4.0,77.0,,,,0.0,4.0,4.0,4.0,0.0,4.0,66.666664,,,,,,,,,,,,,,,,,,,,,,,,,,,,,,,,,,,,,,,,,,,,,,,,,,,,,,,,,,,,,,,,,,,,,,,,,,,,,,,,,,,,
82341,1645494315.249831,96.0,0.0,4303.077147999999,4167.179688,4229.743652,4280.0,4292.307617,450.0,4.0,77.0,,,,0.0,4.0,4.0,4.0,0.0,4.0,66.666664,,,,,,,,48.0,0.0,0.43631400000000004,-0.291016,0.614258,0.5896,0.894057,-0.48145299999999996,-0.078126,-0.035833,-0.03866,-0.020474000000000003,1.0,0.0,0.0,,,,,,,,,,,,,,,,,,,,,,,,,,,,,,,,0.0,0.0,1.0,0.0,1.0,0.0,3.408667,0.7224470000000001,1.532944,1.3754819999999999,2.27336,47.907639,20.364466,13.624079,4.8206940000000005,3.771178,0.401194,0.386529,0.787305,0.589903,0.493562,0.00021099999999999998,0.000117,8.2e-05,2.5e-05,3.4e-05,5.750528,3.758254,1.982111,1.169052,1.316431
82342,1645494315.257647,97.0,0.0,4293.333496,4164.615234000001,4227.179688,4278.974121,4271.794922,450.0,4.0,77.0,,,,0.0,4.0,4.0,4.0,0.0,4.0,66.666664,,,,,,,,,,,,,,,,,,,,,,,,,,,,,,,,,,,,,,,,,,,,,,,,,,,,,,,,,,,,,,,,,,,,,,,,,,,,,,,,,,,,
82343,1645494315.265564,98.0,0.0,4297.94873,4166.666504,4218.974121,4280.0,4283.077147999999,450.0,4.0,77.0,,,,0.0,4.0,4.0,4.0,0.0,4.0,66.666664,,,,,,,,49.0,0.0,0.43665699999999996,-0.291016,0.6140140000000001,0.5896,0.8808729999999999,-0.477546,-0.076661,-0.035863,-0.0387,-0.023212,,,,,,,,,,,,,,,,,,,,,,,,,,,,,,,,,,,,,,,,,,,,,,,,,,,,,,,,,,,,,,,,,
82344,1645494315.273381,99.0,0.0,4331.794922,4149.230957,4225.641113000001,4280.512695,4311.794922,16235.0,4.0,77.0,,,,0.0,4.0,4.0,4.0,0.0,4.0,66.666664,,,,,,,,,,,,,,,,,,,,,,,,,,,,,,,,,,,,,,,,,,,,,,,,,,,,,,,,,,,,,,,,,,,,,,,,,,,,,,,,,,,,
82345,1645494315.281198,100.0,0.0,4331.282227000001,4123.077147999999,4235.897461,4280.512695,4318.974121,450.0,4.0,77.0,,,,0.0,4.0,4.0,4.0,0.0,4.0,66.666664,,,,,,,,50.0,0.0,0.43665699999999996,-0.291016,0.6140140000000001,0.5896,0.8896620000000001,-0.474617,-0.080568,-0.035792000000000004,-0.038736,-0.025675999999999997,,,,,,,,,,,,,,,,,,,,,,,,,,,,,,,,,,,0.0,0.0,1.0,0.0,1.0,0.0,,,,,,,,,,,,,,,,,,,,,,,,,
82346,1645494315.289015,101.0,0.0,4300.512695,4152.307617,4224.615234000001,4280.0,4298.461426,450.0,4.0,77.0,,,,0.0,4.0,4.0,4.0,0.0,4.0,66.666664,,,,,,,,,,,,,,,,,,,,,,,,,,,,,,,,,,,,,,,,,,,,,,,,,,,,,,,,,,,,,,,,,,,,,,,,,,,,,,,,,,,,
82347,1645494315.296832,102.0,0.0,4298.974121,4197.94873,4205.128418,4280.512695,4281.025879,450.0,4.0,77.0,,,,0.0,4.0,4.0,4.0,0.0,4.0,66.666664,,,,,,,,51.0,0.0,0.43665699999999996,-0.291016,0.6140140000000001,0.5896,0.8896620000000001,-0.4878,-0.076661,-0.035875,-0.038671,-0.021594,,,,,,,,,,,,,,,,,,,,,,,,,,,,,,,,,,,,,,,,,,,,,,,,,,,,,,,,,,,,,,,,,
82348,1645494315.304649,103.0,0.0,4313.333496,4206.666504,4207.692383,4280.512695,4285.128418,16235.0,4.0,77.0,,,,0.0,4.0,4.0,4.0,0.0,4.0,66.666664,,,,,,,,,,,,,,,,,,,,,,,,,,,,,,,,,,,,,,,,,,,,,,,,,,,,,,,,,,,,,,,,,,,,,,,,,,,,,,,,,,,,
82349,1645494315.312466,104.0,0.0,4308.205078,4227.179688,4222.563965,4280.512695,4296.410156,450.0,4.0,77.0,,,,0.0,4.0,4.0,4.0,0.0,4.0,66.666664,,,,,,,,52.0,0.0,0.43649399999999994,-0.29125999999999996,0.6140140000000001,0.5896,0.8764780000000001,-0.47803500000000004,-0.078614,-0.035901,-0.038613,-0.018068,,,,,,,,,,,,,,,,,,,,,,,,,,,,,,,,,,,0.0,0.0,1.0,0.0,1.0,0.0,,,,,,,,,,,,,,,,,,,,,,,,,
82350,1645494315.320283,105.0,0.0,4300.512695,4240.512695,4217.94873,4280.512695,4298.461426,450.0,4.0,77.0,,,,0.0,4.0,4.0,4.0,0.0,4.0,66.666664,,,,,,,,,,,,,,,,,,,,,,,,,,,,,,,,,,,,,,,,,,,,,,,,,,,,,,,,,,,,,,,,,,,,,,,,,,,,,,,,,,,,
82351,1645494315.3281,106.0,0.0,4303.077147999999,4213.846191,4214.358886999999,4280.512695,4302.05127,450.0,4.0,77.0,,,,0.0,4.0,4.0,4.0,0.0,4.0,66.666664,,,,,,,,53.0,0.0,0.436824,-0.29125999999999996,0.6140140000000001,0.5893550000000001,0.8955209999999999,-0.48145299999999996,-0.08691499999999999,-0.035778,-0.038658,-0.021095,,,,,,,,,,,,,,,,,,,,,,,,,,,,,,,,,,,,,,,,,,,,,,,,,,,,,,,,,,,,,,,,,
82352,1645494315.335918,107.0,0.0,4289.743652,4215.897461,4216.410156,4280.512695,4290.769043,16235.0,4.0,77.0,,,,0.0,4.0,4.0,4.0,0.0,4.0,66.666664,,,,,,,,,,,,,,,,,,,,,,,,,,,,,,,,,,,,,,,,,,,,,,,,,,,,,,,,,,,,,,,,,,,,,,,,,,,,,,,,,,,,
82353,1645494315.343834,108.0,0.0,4280.0,4237.436035,4202.05127,4280.512695,4268.205078,450.0,4.0,77.0,,,,0.0,4.0,4.0,4.0,0.0,4.0,66.666664,,,,,,,,54.0,0.0,0.43699,-0.291504,0.6140140000000001,0.5891109999999999,0.875502,-0.457527,-0.066896,-0.035813,-0.038600999999999996,-0.023819999999999997,,,,,,,,,,,,,,,,,,,,,,,,,,,,,,,,,,,0.0,0.0,1.0,0.0,1.0,0.0,,,,,,,,,,,,,,,,,,,,,,,,,
82354,1645494315.351651,109.0,0.0,4289.230957,4214.871582,4196.410156,4280.512695,4283.589844,450.0,4.0,77.0,,,,0.0,4.0,4.0,4.0,0.0,4.0,66.666664,,,,,,,,,,,,,,,,,,,,,,,,,,,,,,,,,,,,,,,,,,,,,,,,,,,,,,,,,,,,,,,,,,,,,,,,,,,,,,,,,,,,
82355,1645494315.359468,110.0,0.0,4302.563965,4202.563965,4210.769043,4280.512695,4310.256348,450.0,4.0,77.0,,,,0.0,4.0,4.0,4.0,0.0,4.0,66.666664,,,,,,,,55.0,0.0,0.43648400000000004,-0.291748,0.614258,0.5891109999999999,0.892592,-0.464363,-0.06640700000000001,-0.035845,-0.038549,-0.020119,,,,,,,,,,,,,,,,,,,,,,,,,,,,,,,,,,,,,,,,,,,,,,,,,,,,,,,,,,,,,,,,,
82356,1645494315.367285,111.0,0.0,4322.563965,4226.666504,4226.666504,4280.512695,4296.410156,16235.0,4.0,77.0,,,,0.0,4.0,4.0,4.0,0.0,4.0,66.666664,,,,,,,,,,,,,,,,,,,,,,,,,,,,,,,,,,,,,,,,,,,,,,,,,,,,,,,,,,,,,,,,,,,,,,,,,,,,,,,,,,,,
82357,1645494315.375101,112.0,0.0,4325.128418,4204.615234000001,4225.128418,4280.512695,4270.256348,450.0,4.0,77.0,,,,0.0,4.0,4.0,4.0,0.0,4.0,66.666664,,,,,,,,56.0,0.0,0.43648400000000004,-0.291748,0.614258,0.5891109999999999,0.886732,-0.471199,-0.070802,-0.035825,-0.038502999999999996,-0.022941,1.0,0.0,0.0,,,,,,,,,,,,,,,,,,,,,,,,,,,,,,,,0.0,0.0,64.0,0.19002,1.0,0.0,2.523234,0.571121,1.482645,1.578932,2.307571,42.990261,20.398874,17.519085,5.1208599999999995,4.2622800000000005,0.45552700000000007,0.399549,0.8259770000000001,0.574491,0.461588,0.00042800000000000005,0.000244,0.000184,6.7e-05,7.5e-05,5.656327,3.8424110000000002,1.850309,1.087935,1.368182
82358,1645494315.382918,113.0,0.0,4300.512695,4175.384765999999,4210.256348,4280.512695,4260.512695,450.0,4.0,77.0,,,,0.0,4.0,4.0,4.0,0.0,4.0,66.666664,,,,,,,,,,,,,,,,,,,,,,,,,,,,,,,,,,,,,,,,,,,,,,,,,,,,,,,,,,,,,,,,,,,,,,,,,,,,,,,,,,,,
82359,1645494315.390735,114.0,0.0,4280.512695,4217.436035,4202.563965,4280.512695,4268.717772999999,450.0,4.0,77.0,,,,0.0,4.0,4.0,4.0,0.0,4.0,66.666664,,,,,,,,57.0,0.0,0.436154,-0.291748,0.614258,0.5893550000000001,0.8730600000000001,-0.45948,-0.070802,-0.035807,-0.03851,-0.02553,,,,,,,,,,,,,,,,,,,,,,,,,,,,,,,,,,,,,,,,,,,,,,,,,,,,,,,,,,,,,,,,,
82360,1645494315.398552,115.0,0.0,4290.256348,4251.282227000001,4213.333496,4280.512695,4297.94873,16235.0,4.0,77.0,,,,0.0,4.0,4.0,4.0,0.0,4.0,66.666664,,,,,,,,,,,,,,,,,,,,,,,,,,,,,,,,,,,,,,,,,,,,,,,,,,,,,,,,,,,,,,,,,,,,,,,,,,,,,,,,,,,,
82361,1645494315.406369,116.0,0.0,4319.487305,4231.794922,4215.384765999999,4280.512695,4297.94873,450.0,4.0,77.0,,,,0.0,4.0,4.0,4.0,0.0,4.0,66.666664,,,,,,,,58.0,0.0,0.43649799999999994,-0.291748,0.6140140000000001,0.5893550000000001,0.8833139999999999,-0.462409,-0.078126,-0.035889,-0.038419,-0.027860000000000003,,,,,,,,,,,,,,,,,,,,,,,,,,,,,,,,,,,0.0,0.0,64.0,0.19002,1.0,0.0,,,,,,,,,,,,,,,,,,,,,,,,,
82362,1645494315.414285,117.0,0.0,4329.230957,4248.717772999999,4202.563965,4280.512695,4273.846191,450.0,4.0,77.0,,,,0.0,4.0,4.0,4.0,0.0,4.0,66.666664,,,,,,,,,,,,,,,,,,,,,,,,,,,,,,,,,,,,,,,,,,,,,,,,,,,,,,,,,,,,,,,,,,,,,,,,,,,,,,,,,,,,
82363,1645494315.422102,118.0,0.0,4315.897461,4304.102539,4202.563965,4280.512695,4282.05127,450.0,4.0,77.0,,,,0.0,4.0,4.0,4.0,0.0,4.0,66.666664,,,,,,,,59.0,0.0,0.43616800000000006,-0.291748,0.6140140000000001,0.5896,0.871107,-0.48096400000000006,-0.078126,-0.035669,-0.038435000000000004,-0.029907999999999997,,,,,,,,,,,,,,,,,,,,,,,,,,,,,,,,,,,,,,,,,,,,,,,,,,,,,,,,,,,,,,,,,
82364,1645494315.429919,119.0,0.0,4307.179688,4314.358886999999,4207.692383,4280.512695,4291.282227000001,16235.0,4.0,77.0,,,,0.0,4.0,4.0,4.0,0.0,4.0,66.666664,,,,,,,,,,,,,,,,,,,,,,,,,,,,,,,,,,,,,,,,,,,,,,,,,,,,,,,,,,,,,,,,,,,,,,,,,,,,,,,,,,,,
82365,1645494315.437736,120.0,0.0,4317.94873,4316.410156,4199.487305,4280.512695,4289.230957,450.0,4.0,77.0,,,,0.0,4.0,4.0,4.0,0.0,4.0,66.666664,,,,,,,,60.0,0.0,0.436331,-0.291504,0.6140140000000001,0.5896,0.886732,-0.48340600000000006,-0.06884900000000001,-0.035568999999999996,-0.038350999999999996,-0.025452000000000002,,,,,,,,,,,,,,,,,,,,,,,,,,,,,,,,,,,0.0,0.0,64.0,0.19002,1.0,0.0,,,,,,,,,,,,,,,,,,,,,,,,,
82366,1645494315.4455519,121.0,0.0,4315.897461,4348.205078,4195.897461,4280.512695,4290.256348,450.0,4.0,77.0,,,,0.0,4.0,4.0,4.0,0.0,4.0,66.666664,,,,,,,,,,,,,,,,,,,,,,,,,,,,,,,,,,,,,,,,,,,,,,,,,,,,,,,,,,,,,,,,,,,,,,,,,,,,,,,,,,,,
82367,1645494315.453369,122.0,0.0,4293.846191,4380.0,4202.563965,4280.512695,4275.384765999999,450.0,4.0,77.0,,,,0.0,4.0,4.0,4.0,0.0,4.0,66.666664,,,,,,,,61.0,0.0,0.436331,-0.291504,0.6140140000000001,0.5896,0.885267,-0.4795,-0.088869,-0.035674000000000004,-0.038227,-0.027644,,,,,,,,,,,,,,,,,,,,,,,,,,,,,,,,,,,,,,,,,,,,,,,,,,,,,,,,,,,,,,,,,
82368,1645494315.461186,123.0,0.0,4290.769043,4414.358886999999,4210.769043,4280.512695,4255.897461,16235.0,4.0,77.0,,,,0.0,4.0,4.0,4.0,0.0,4.0,66.666664,,,,,,,,,,,,,,,,,,,,,,,,,,,,,,,,,,,,,,,,,,,,,,,,,,,,,,,,,,,,,,,,,,,,,,,,,,,,,,,,,,,,
82369,1645494315.4691038,124.0,0.0,4298.461426,4421.025879,4212.820313,4280.512695,4258.974121,450.0,4.0,77.0,,,,0.0,4.0,4.0,4.0,0.0,4.0,66.666664,,,,,,,,62.0,0.0,0.43649399999999994,-0.29125999999999996,0.6140140000000001,0.5896,0.8896620000000001,-0.489754,-0.077638,-0.035525,-0.038164,-0.023561000000000002,,,,,,,,,,,,,,,,,,,,,,,,,,,,,,,,,,,0.0,0.0,64.0,0.19002,1.0,0.0,,,,,,,,,,,,,,,,,,,,,,,,,
82370,1645494315.476921,125.0,0.0,4291.794922,4393.846191,4197.94873,4280.512695,4267.692383,450.0,4.0,77.0,,,,0.0,4.0,4.0,4.0,0.0,4.0,66.666664,,,,,,,,,,,,,,,,,,,,,,,,,,,,,,,,,,,,,,,,,,,,,,,,,,,,,,,,,,,,,,,,,,,,,,,,,,,,,,,,,,,,
82371,1645494315.484739,126.0,0.0,4291.282227000001,4390.256348,4192.820313,4280.512695,4266.666504,450.0,4.0,77.0,,,,0.0,4.0,4.0,4.0,0.0,4.0,66.666664,,,,,,,,63.0,0.0,0.43649399999999994,-0.29125999999999996,0.6140140000000001,0.5896,0.8774549999999999,-0.47901099999999996,-0.070802,-0.035439,-0.038156,-0.026088,,,,,,,,,,,,,,,,,,,,,,,,,,,,,,,,,,,,,,,,,,,,,,,,,,,,,,,,,,,,,,,,,
82372,1645494315.492557,127.0,0.0,4314.871582,4398.974121,4214.871582,4280.512695,4259.487305,239.0,4.0,77.0,,,,0.0,4.0,4.0,4.0,0.0,4.0,66.666664,,,,,,,,,,,,,,,,,,,,,,,,,,,,,,,,,,,,,,,,,,,,,,,,,,,,,,,,,,,,,,,,,,,,,,,,,,,,,,,,,,,,
82373,1645494315.500375,0.0,0.0,4323.077147999999,4397.94873,4220.0,4281.025879,4244.615234000001,450.0,4.0,77.0,,,,0.0,4.0,4.0,4.0,0.0,4.0,66.666664,1.0,41.666668,4.0,3.0,2.0,0.0,4.0,0.0,0.0,0.43649399999999994,-0.29125999999999996,0.6140140000000001,0.5896,0.886732,-0.47022200000000003,-0.07324299999999999,-0.035557,-0.0381,-0.022063,1.0,0.0,0.0,,,,,,,,,,,,,,,,,,,,,,,,,,,,,,,,0.0,0.0,1.0,0.0,1.0,0.0,1.888471,0.701657,1.460944,1.802283,2.33945,36.007053000000006,19.734493,21.418085,5.684561,4.691268,0.5487029999999999,0.39197,0.8684120000000001,0.57124,0.420896,0.000697,0.00042199999999999996,0.000328,0.00013700000000000002,0.00013700000000000002,5.23918,3.7774900000000002,1.6593200000000001,1.104184,1.436307
82374,1645494315.508192,1.0,0.0,4309.230957,4413.846191,4204.615234000001,4279.487305,4242.05127,450.0,4.0,77.0,,,,0.0,4.0,4.0,4.0,0.0,4.0,66.666664,,,,,,,,,,,,,,,,,,,,,,,,,,,,,,,,,,,,,,,,,,,,,,,,,,,,,,,,,,,,,,,,,,,,,,,,,,,,,,,,,,,,
82375,1645494315.51601,2.0,0.0,4307.692383,4425.641113000001,4202.05127,4278.974121,4248.205078,16211.0,4.0,77.0,,,,0.0,4.0,4.0,4.0,0.0,4.0,66.666664,,,,,,,,1.0,0.0,0.43649399999999994,-0.29125999999999996,0.6140140000000001,0.5896,0.886244,-0.481941,-0.069825,-0.035469,-0.038245999999999995,-0.018441,,,,,,,,,,,,,,,,,,,,,,,,,,,,,,,,,,,,,,,,,,,,,,,,,,,,,,,,,,,,,,,,,
82376,1645494315.523828,3.0,0.0,4308.205078,4392.307617,4200.512695,4280.0,4246.153809,450.0,4.0,77.0,,,,0.0,4.0,4.0,4.0,0.0,4.0,66.666664,,,,,,,,,,,,,,,,,,,,,,,,,,,,,,,,,,,,,,,,,,,,,,,,,,,,,,,,,,,,,,,,,,,,,,,,,,,,,,,,,,,,
82377,1645494315.531744,4.0,0.0,4300.0,4350.769043,4200.512695,4281.025879,4252.307617,16135.0,4.0,77.0,,,,0.0,4.0,4.0,4.0,0.0,4.0,66.666664,,,,,,,,2.0,0.0,0.43667100000000003,-0.291016,0.6137699999999999,0.5898439999999999,0.8955209999999999,-0.477546,-0.082521,-0.035535000000000004,-0.038278,-0.021528,,,,,,,,,,,,,,,,,,,,,,,,,,,,,,,,,,,0.0,0.0,1.0,0.0,1.0,0.0,,,,,,,,,,,,,,,,,,,,,,,,,
82378,1645494315.539561,5.0,0.0,4290.256348,4366.666504,4217.94873,4280.512695,4253.333496,450.0,4.0,77.0,,,,0.0,4.0,4.0,4.0,0.0,4.0,66.666664,,,,,,,,,,,,,,,,,,,,,,,,,,,,,,,,,,,,,,,,,,,,,,,,,,,,,,,,,,,,,,,,,,,,,,,,,,,,,,,,,,,,
82379,1645494315.5473769,6.0,0.0,4297.94873,4433.333496,4222.563965,4280.512695,4240.512695,16060.0,4.0,77.0,,,,0.0,4.0,4.0,4.0,0.0,4.0,66.666664,,,,,,,,3.0,0.0,0.43667100000000003,-0.291016,0.6137699999999999,0.5898439999999999,0.882338,-0.48340600000000006,-0.08203300000000001,-0.035644,-0.038162,-0.024258000000000002,,,,,,,,,,,,,,,,,,,,,,,,,,,,,,,,,,,,,,,,,,,,,,,,,,,,,,,,,,,,,,,,,
82380,1645494315.555194,7.0,0.0,4335.384765999999,4469.230957,4206.153809,4280.512695,4259.487305,450.0,4.0,77.0,,,,0.0,4.0,4.0,4.0,0.0,4.0,66.666664,,,,,,,,,,,,,,,,,,,,,,,,,,,,,,,,,,,,,,,,,,,,,,,,,,,,,,,,,,,,,,,,,,,,,,,,,,,,,,,,,,,,
82381,1645494315.563011,8.0,0.0,4342.05127,4441.538574,4206.666504,4280.512695,4298.974121,450.0,4.0,77.0,,,,0.0,4.0,4.0,4.0,0.0,4.0,66.666664,,,,,,,,4.0,0.0,0.43667100000000003,-0.291016,0.6137699999999999,0.5898439999999999,0.886244,-0.47901099999999996,-0.080568,-0.035546,-0.038154,-0.020513999999999998,,,,,,,,,,,,,,,,,,,,,,,,,,,,,,,,,,,0.0,0.0,1.0,0.0,1.0,0.0,,,,,,,,,,,,,,,,,,,,,,,,,
82382,1645494315.570827,9.0,0.0,4296.410156,4426.153809,4205.128418,4280.512695,4284.615234000001,0.0,4.0,77.0,,,,0.0,4.0,4.0,4.0,0.0,4.0,66.666664,,,,,,,,,,,,,,,,,,,,,,,,,,,,,,,,,,,,,,,,,,,,,,,,,,,,,,,,,,,,,,,,,,,,,,,,,,,,,,,,,,,,
82383,1645494315.578644,10.0,0.0,4286.666504,4433.333496,4196.922852000001,4280.512695,4242.05127,450.0,4.0,77.0,,,,0.0,4.0,4.0,4.0,0.0,4.0,66.666664,,,,,,,,5.0,0.0,0.43667100000000003,-0.291016,0.6137699999999999,0.5898439999999999,0.882826,-0.484382,-0.09424,-0.035556,-0.038098,-0.023247999999999998,,,,,,,,,,,,,,,,,,,,,,,,,,,,,,,,,,,,,,,,,,,,,,,,,,,,,,,,,,,,,,,,,
82384,1645494315.5864599,11.0,0.0,4310.256348,4409.230957,4207.179688,4280.512695,4253.333496,16219.0,4.0,77.0,,,,0.0,4.0,4.0,4.0,0.0,4.0,66.666664,,,,,,,,,,,,,,,,,,,,,,,,,,,,,,,,,,,,,,,,,,,,,,,,,,,,,,,,,,,,,,,,,,,,,,,,,,,,,,,,,,,,
82385,1645494315.594277,12.0,0.0,4303.589844,4379.487305,4222.563965,4280.512695,4278.974121,450.0,4.0,77.0,,,,0.0,4.0,4.0,4.0,0.0,4.0,66.666664,,,,,,,,6.0,0.0,0.43667100000000003,-0.291016,0.6137699999999999,0.5898439999999999,0.895033,-0.47363999999999995,-0.085451,-0.035565,-0.038195,-0.019507,,,,,,,,,,,,,,,,,,,,,,,,,,,,,,,,,,,0.0,0.0,1.0,0.0,1.0,0.0,,,,,,,,,,,,,,,,,,,,,,,,,
82386,1645494315.6021929,13.0,0.0,4298.461426,4385.128418,4221.025879,4280.512695,4264.102539,450.0,4.0,77.0,,,,0.0,4.0,4.0,4.0,0.0,4.0,66.666664,,,,,,,,,,,,,,,,,,,,,,,,,,,,,,,,,,,,,,,,,,,,,,,,,,,,,,,,,,,,,,,,,,,,,,,,,,,,,,,,,,,,
82387,1645494315.61001,14.0,0.0,4306.153809,4388.717772999999,4212.820313,4280.512695,4256.922852000001,450.0,4.0,77.0,,,,0.0,4.0,4.0,4.0,0.0,4.0,66.666664,,,,,,,,7.0,0.0,0.43667100000000003,-0.291016,0.6137699999999999,0.5898439999999999,0.8921030000000001,-0.479988,-0.090822,-0.035524,-0.038379,-0.02239,,,,,,,,,,,,,,,,,,,,,,,,,,,,,,,,,,,,,,,,,,,,,,,,,,,,,,,,,,,,,,,,,
82388,1645494315.617827,15.0,0.0,4302.563965,4344.102539,4218.974121,4280.512695,4261.025879,16219.0,4.0,77.0,,,,0.0,4.0,4.0,4.0,0.0,4.0,66.666664,,,,,,,,,,,,,,,,,,,,,,,,,,,,,,,,,,,,,,,,,,,,,,,,,,,,,,,,,,,,,,,,,,,,,,,,,,,,,,,,,,,,
82389,1645494315.625644,16.0,0.0,4311.282227000001,4296.410156,4230.769043,4280.512695,4256.410156,0.0,4.0,77.0,,,,0.0,4.0,4.0,4.0,0.0,4.0,66.666664,,,,,,,,8.0,0.0,0.43667100000000003,-0.291016,0.6137699999999999,0.5898439999999999,0.897963,-0.4795,-0.082521,-0.035585000000000006,-0.038252,-0.018734999999999998,1.0,0.0,0.0,,,,,,,,,,,,,,,,,,,,,,,,,,,,,,,,0.0,0.0,1.0,0.0,1.0,0.0,1.635728,1.08231,1.432831,1.977457,2.360877,29.197121000000003,18.316193,24.114271,6.342525,4.9994510000000005,0.673872,0.35581999999999997,0.858658,0.579348,0.382863,0.0009550000000000001,0.00063,0.000492,0.00022999999999999998,0.000215,4.611537,3.530159,1.455463,1.2019030000000002,1.505091
82390,1645494315.633461,17.0,0.0,4315.897461,4313.846191,4230.256348,4280.512695,4256.410156,0.0,4.0,77.0,,,,0.0,4.0,4.0,4.0,0.0,4.0,66.666664,,,,,,,,,,,,,,,,,,,,,,,,,,,,,,,,,,,,,,,,,,,,,,,,,,,,,,,,,,,,,,,,,,,,,,,,,,,,,,,,,,,,
82391,1645494315.6412768,18.0,0.0,4298.974121,4360.512695,4221.538574,4280.512695,4255.897461,0.0,4.0,77.0,,,,0.0,4.0,4.0,4.0,0.0,4.0,66.666664,,,,,,,,9.0,0.0,0.43667100000000003,-0.291016,0.6137699999999999,0.5898439999999999,0.895033,-0.47363999999999995,-0.085451,-0.035542000000000004,-0.038187,-0.015543000000000001,,,,,,,,,,,,,,,,,,,,,,,,,,,,,,,,,,,,,,,,,,,,,,,,,,,,,,,,,,,,,,,,,
82392,1645494315.6490939,19.0,0.0,4299.487305,4350.256348,4218.461426,4280.512695,4259.487305,0.0,4.0,77.0,,,,0.0,4.0,4.0,4.0,0.0,4.0,66.666664,,,,,,,,,,,,,,,,,,,,,,,,,,,,,,,,,,,,,,,,,,,,,,,,,,,,,,,,,,,,,,,,,,,,,,,,,,,,,,,,,,,,
82393,1645494315.656911,20.0,0.0,4314.871582,4294.358886999999,4215.384765999999,4280.512695,4260.0,0.0,4.0,77.0,,,,0.0,4.0,4.0,4.0,0.0,4.0,66.666664,,,,,,,,10.0,0.0,0.43667100000000003,-0.291016,0.6137699999999999,0.5898439999999999,0.897963,-0.4795,-0.082521,-0.035601,-0.038079,-0.012573,,,,,,,,,,,,,,,,,,,,,,,,,,,,,,,,,,,0.0,0.0,1.0,0.0,1.0,0.0,,,,,,,,,,,,,,,,,,,,,,,,,
82394,1645494315.664728,21.0,0.0,4313.846191,4270.256348,4208.205078,4280.512695,4252.820313,0.0,4.0,77.0,,,,0.0,4.0,4.0,4.0,0.0,4.0,66.666664,,,,,,,,,,,,,,,,,,,,,,,,,,,,,,,,,,,,,,,,,,,,,,,,,,,,,,,,,,,,,,,,,,,,,,,,,,,,,,,,,,,,
82395,1645494315.6726449,22.0,0.0,4303.589844,4263.077147999999,4212.820313,4280.512695,4254.358886999999,0.0,4.0,77.0,,,,0.0,4.0,4.0,4.0,0.0,4.0,66.666664,,,,,,,,11.0,0.0,0.43667100000000003,-0.291016,0.6137699999999999,0.5898439999999999,0.8838030000000001,-0.47559300000000004,-0.080079,-0.035606,-0.03808,-0.016052,,,,,,,,,,,,,,,,,,,,,,,,,,,,,,,,,,,,,,,,,,,,,,,,,,,,,,,,,,,,,,,,,
82396,1645494315.680462,23.0,0.0,4308.205078,4254.871582,4222.563965,4280.512695,4275.384765999999,0.0,4.0,77.0,,,,0.0,4.0,4.0,4.0,0.0,4.0,66.666664,,,,,,,,,,,,,,,,,,,,,,,,,,,,,,,,,,,,,,,,,,,,,,,,,,,,,,,,,,,,,,,,,,,,,,,,,,,,,,,,,,,,
82397,1645494315.688279,24.0,0.0,4319.487305,4288.717772999999,4222.05127,4279.487305,4282.05127,0.0,4.0,77.0,,,,0.0,4.0,4.0,4.0,0.0,4.0,66.666664,,,,,,,,12.0,0.0,0.436508,-0.29125999999999996,0.6137699999999999,0.5898439999999999,0.878431,-0.468757,-0.078126,-0.03561,-0.038130000000000004,-0.013129,,,,,,,,,,,,,,,,,,,,,,,,,,,,,,,,,,,0.0,0.0,1.0,0.0,1.0,0.0,,,,,,,,,,,,,,,,,,,,,,,,,
82398,1645494315.6960962,25.0,0.0,4315.897461,4320.0,4213.333496,4279.487305,4256.922852000001,0.0,4.0,77.0,,,,0.0,4.0,4.0,4.0,0.0,4.0,66.666664,,,,,,,,,,,,,,,,,,,,,,,,,,,,,,,,,,,,,,,,,,,,,,,,,,,,,,,,,,,,,,,,,,,,,,,,,,,,,,,,,,,,
82399,1645494315.703913,26.0,0.0,4308.717772999999,4298.974121,4208.205078,4279.487305,4248.717772999999,0.0,4.0,77.0,,,,0.0,4.0,4.0,4.0,0.0,4.0,66.666664,,,,,,,,13.0,0.0,0.436508,-0.29125999999999996,0.6137699999999999,0.5898439999999999,0.8676889999999999,-0.48389399999999994,-0.072755,-0.035564,-0.038125,-0.016600999999999998,,,,,,,,,,,,,,,,,,,,,,,,,,,,,,,,,,,,,,,,,,,,,,,,,,,,,,,,,,,,,,,,,
82400,1645494315.71173,27.0,0.0,4300.0,4272.307617,4212.820313,4279.487305,4266.153809,0.0,4.0,77.0,,,,0.0,4.0,4.0,4.0,0.0,4.0,66.666664,,,,,,,,,,,,,,,,,,,,,,,,,,,,,,,,,,,,,,,,,,,,,,,,,,,,,,,,,,,,,,,,,,,,,,,,,,,,,,,,,,,,
82401,1645494315.719547,28.0,0.0,4287.692383,4256.410156,4221.025879,4279.487305,4275.384765999999,0.0,4.0,77.0,,,,0.0,4.0,4.0,4.0,0.0,4.0,66.666664,,,,,,,,14.0,0.0,0.436508,-0.29125999999999996,0.6137699999999999,0.5898439999999999,0.8833139999999999,-0.4878,-0.078126,-0.035572,-0.038169999999999996,-0.019775,,,,,,,,,,,,,,,,,,,,,,,,,,,,,,,,,,,0.0,0.0,1.0,0.0,1.0,0.0,,,,,,,,,,,,,,,,,,,,,,,,,
82402,1645494315.727364,29.0,0.0,4299.487305,4260.512695,4215.897461,4279.487305,4262.563965,0.0,4.0,77.0,,,,0.0,4.0,4.0,4.0,0.0,4.0,66.666664,,,,,,,,,,,,,,,,,,,,,,,,,,,,,,,,,,,,,,,,,,,,,,,,,,,,,,,,,,,,,,,,,,,,,,,,,,,,,,,,,,,,
82403,1645494315.735181,30.0,0.0,4326.153809,4290.769043,4204.615234000001,4279.487305,4256.410156,0.0,4.0,77.0,,,,0.0,4.0,4.0,4.0,0.0,4.0,66.666664,,,,,,,,15.0,0.0,0.436508,-0.29125999999999996,0.6137699999999999,0.5898439999999999,0.873549,-0.47363999999999995,-0.078126,-0.035531,-0.038113,-0.01643,,,,,,,,,,,,,,,,,,,,,,,,,,,,,,,,,,,,,,,,,,,,,,,,,,,,,,,,,,,,,,,,,
82404,1645494315.743098,31.0,0.0,4316.410156,4301.025879,4215.384765999999,4279.487305,4275.384765999999,0.0,4.0,77.0,,,,0.0,4.0,4.0,4.0,0.0,4.0,66.666664,,,,,,,,,,,,,,,,,,,,,,,,,,,,,,,,,,,,,,,,,,,,,,,,,,,,,,,,,,,,,,,,,,,,,,,,,,,,,,,,,,,,
82405,1645494315.750914,32.0,0.0,4299.487305,4298.461426,4238.974121,4279.487305,4287.692383,0.0,4.0,77.0,,,,0.0,4.0,4.0,4.0,0.0,4.0,66.666664,,,,,,,,16.0,0.0,0.436345,-0.291504,0.6137699999999999,0.5898439999999999,0.8774549999999999,-0.480476,-0.069337,-0.035396,-0.038110000000000005,-0.019572,1.0,0.0,0.0,,,,,,,,,,,,,,,,,,,,,,,,,,,,,,,,0.0,0.0,1.0,0.0,1.0,0.0,1.7292830000000001,1.631791,1.382101,2.073327,2.356183,24.065851000000002,16.395771,24.78569,6.900583999999999,5.139747,0.777083,0.310725,0.771138,0.600406,0.35679,0.001135,0.00084,0.000647,0.00033999999999999997,0.000305,3.971858,3.15635,1.284418,1.3579729999999999,1.5641049999999999
82406,1645494315.7587311,33.0,0.0,4315.897461,4337.94873,4232.820313,4279.487305,4278.461426,0.0,4.0,77.0,,,,0.0,4.0,4.0,4.0,0.0,4.0,66.666664,,,,,,,,,,,,,,,,,,,,,,,,,,,,,,,,,,,,,,,,,,,,,,,,,,,,,,,,,,,,,,,,,,,,,,,,,,,,,,,,,,,,
82407,1645494315.7665482,34.0,0.0,4314.358886999999,4361.025879,4207.179688,4279.487305,4249.230957,0.0,4.0,77.0,,,,0.0,4.0,4.0,4.0,0.0,4.0,66.666664,,,,,,,,17.0,0.0,0.436345,-0.291504,0.6137699999999999,0.5898439999999999,0.8916149999999999,-0.47168699999999997,-0.070802,-0.035372,-0.038107999999999996,-0.022498,,,,,,,,,,,,,,,,,,,,,,,,,,,,,,,,,,,,,,,,,,,,,,,,,,,,,,,,,,,,,,,,,
82408,1645494315.774365,35.0,0.0,4288.205078,4335.384765999999,4206.666504,4279.487305,4235.897461,0.0,4.0,77.0,,,,0.0,4.0,4.0,4.0,0.0,4.0,66.666664,,,,,,,,,,,,,,,,,,,,,,,,,,,,,,,,,,,,,,,,,,,,,,,,,,,,,,,,,,,,,,,,,,,,,,,,,,,,,,,,,,,,
82409,1645494315.782182,36.0,0.0,4291.282227000001,4338.974121,4215.897461,4279.487305,4256.410156,0.0,4.0,77.0,,,,0.0,4.0,4.0,4.0,0.0,4.0,66.666664,,,,,,,,18.0,0.0,0.436675,-0.291504,0.6137699999999999,0.5896,0.876967,-0.46826899999999994,-0.073732,-0.035448,-0.038155,-0.025033,,,,,,,,,,,,,,,,,,,,,,,,,,,,,,,,,,,0.0,0.0,1.0,0.0,1.0,0.0,,,,,,,,,,,,,,,,,,,,,,,,,
82410,1645494315.789998,37.0,0.0,4321.025879,4361.025879,4206.666504,4279.487305,4261.025879,0.0,4.0,77.0,,,,0.0,4.0,4.0,4.0,0.0,4.0,66.666664,,,,,,,,,,,,,,,,,,,,,,,,,,,,,,,,,,,,,,,,,,,,,,,,,,,,,,,,,,,,,,,,,,,,,,,,,,,,,,,,,,,,
82411,1645494315.797815,38.0,0.0,4319.487305,4389.230957,4201.538574,4279.487305,4247.179688,0.0,4.0,77.0,,,,0.0,4.0,4.0,4.0,0.0,4.0,66.666664,,,,,,,,19.0,0.0,0.436675,-0.291504,0.6137699999999999,0.5896,0.8842909999999999,-0.489754,-0.072267,-0.035419,-0.038197,-0.021016,,,,,,,,,,,,,,,,,,,,,,,,,,,,,,,,,,,,,,,,,,,,,,,,,,,,,,,,,,,,,,,,,
82412,1645494315.805632,39.0,0.0,4284.615234000001,4416.410156,4207.692383,4279.487305,4242.05127,0.0,4.0,77.0,,,,0.0,4.0,4.0,4.0,0.0,4.0,66.666664,,,,,,,,,,,,,,,,,,,,,,,,,,,,,,,,,,,,,,,,,,,,,,,,,,,,,,,,,,,,,,,,,,,,,,,,,,,,,,,,,,,,
82413,1645494315.813549,40.0,0.0,4269.743652,4395.384765999999,4210.769043,4279.487305,4236.922852000001,0.0,4.0,77.0,,,,0.0,4.0,4.0,4.0,0.0,4.0,66.666664,,,,,,,,20.0,0.0,0.437018,-0.291504,0.613525,0.5896,0.8916149999999999,-0.482429,-0.08105599999999999,-0.035393,-0.038186000000000005,-0.023749,,,,,,,,,,,,,,,,,,,,,,,,,,,,,,,,,,,0.0,0.0,1.0,0.0,1.0,0.0,,,,,,,,,,,,,,,,,,,,,,,,,
82414,1645494315.821365,41.0,0.0,4286.153809,4357.94873,4204.102539,4279.487305,4235.897461,0.0,4.0,77.0,,,,0.0,4.0,4.0,4.0,0.0,4.0,66.666664,,,,,,,,,,,,,,,,,,,,,,,,,,,,,,,,,,,,,,,,,,,,,,,,,,,,,,,,,,,,,,,,,,,,,,,,,,,,,,,,,,,,
82415,1645494315.8291821,42.0,0.0,4290.256348,4350.769043,4198.974121,4279.487305,4244.615234000001,0.0,4.0,77.0,,,,0.0,4.0,4.0,4.0,0.0,4.0,66.666664,,,,,,,,21.0,0.0,0.437018,-0.291504,0.613525,0.5896,0.8725719999999999,-0.484382,-0.067872,-0.035418,-0.038273,-0.026257,,,,,,,,,,,,,,,,,,,,,,,,,,,,,,,,,,,,,,,,,,,,,,,,,,,,,,,,,,,,,,,,,
82416,1645494315.836999,43.0,0.0,4278.974121,4343.077147999999,4200.512695,4279.487305,4251.282227000001,0.0,4.0,77.0,,,,0.0,4.0,4.0,4.0,0.0,4.0,66.666664,,,,,,,,,,,,,,,,,,,,,,,,,,,,,,,,,,,,,,,,,,,,,,,,,,,,,,,,,,,,,,,,,,,,,,,,,,,,,,,,,,,,
82417,1645494315.844816,44.0,0.0,4283.589844,4315.897461,4204.615234000001,4279.487305,4250.769043,0.0,4.0,77.0,,,,0.0,4.0,4.0,4.0,0.0,4.0,66.666664,,,,,,,,22.0,0.0,0.437018,-0.291504,0.613525,0.5896,0.877943,-0.48096400000000006,-0.07324299999999999,-0.035392,-0.038304000000000005,-0.028416000000000004,,,,,,,,,,,,,,,,,,,,,,,,,,,,,,,,,,,0.0,0.0,1.0,0.0,1.0,0.0,,,,,,,,,,,,,,,,,,,,,,,,,
82418,1645494315.852633,45.0,0.0,4289.230957,4302.05127,4205.128418,4279.487305,4258.974121,0.0,4.0,77.0,,,,0.0,4.0,4.0,4.0,0.0,4.0,66.666664,,,,,,,,,,,,,,,,,,,,,,,,,,,,,,,,,,,,,,,,,,,,,,,,,,,,,,,,,,,,,,,,,,,,,,,,,,,,,,,,,,,,
82419,1645494315.860449,46.0,0.0,4288.205078,4309.743652,4214.358886999999,4279.487305,4262.05127,0.0,4.0,77.0,,,,0.0,4.0,4.0,4.0,0.0,4.0,66.666664,,,,,,,,23.0,0.0,0.437018,-0.291504,0.613525,0.5896,0.885756,-0.461921,-0.072267,-0.035466000000000004,-0.038232999999999996,-0.024208,,,,,,,,,,,,,,,,,,,,,,,,,,,,,,,,,,,,,,,,,,,,,,,,,,,,,,,,,,,,,,,,,
82420,1645494315.868266,47.0,0.0,4296.922852000001,4323.077147999999,4229.230957,4279.487305,4261.538574,0.0,4.0,77.0,,,,0.0,4.0,4.0,4.0,0.0,4.0,66.666664,,,,,,,,,,,,,,,,,,,,,,,,,,,,,,,,,,,,,,,,,,,,,,,,,,,,,,,,,,,,,,,,,,,,,,,,,,,,,,,,,,,,
82421,1645494315.876083,48.0,0.0,4299.487305,4316.410156,4224.615234000001,4279.487305,4276.922852000001,0.0,4.0,77.0,,,,0.0,4.0,4.0,4.0,0.0,4.0,66.666664,,,,,,,,24.0,0.0,0.43718,-0.29125999999999996,0.613525,0.5896,0.8798959999999999,-0.47657,-0.07470800000000001,-0.03563,-0.038267,-0.026621,1.0,0.0,0.0,,,,,,,,,,,,,,,,,,,,,,,,,,,,,,,,0.0,0.0,1.0,0.0,1.0,0.0,2.077641,2.203161,1.323761,2.101465,2.3020680000000002,21.183107,14.581594,23.383326,7.249405,5.08906,0.831764,0.28429899999999997,0.6232949999999999,0.638834,0.346463,0.0012029999999999999,0.001013,0.0007650000000000001,0.000459,0.000399,3.4134089999999997,2.7528040000000003,1.158592,1.537087,1.612858
82422,1645494315.8839,49.0,0.0,4299.487305,4289.743652,4224.102539,4279.487305,4273.846191,0.0,4.0,77.0,,,,0.0,4.0,4.0,4.0,0.0,4.0,66.666664,,,,,,,,,,,,,,,,,,,,,,,,,,,,,,,,,,,,,,,,,,,,,,,,,,,,,,,,,,,,,,,,,,,,,,,,,,,,,,,,,,,,
82423,1645494315.891816,50.0,0.0,4312.307617,4296.410156,4232.820313,4279.487305,4266.153809,0.0,4.0,77.0,,,,0.0,4.0,4.0,4.0,0.0,4.0,66.666664,,,,,,,,25.0,0.0,0.437018,-0.291504,0.613525,0.5896,0.89015,-0.467292,-0.081544,-0.035583,-0.038298,-0.028744,,,,,,,,,,,,,,,,,,,,,,,,,,,,,,,,,,,,,,,,,,,,,,,,,,,,,,,,,,,,,,,,,
82424,1645494315.899633,51.0,0.0,4303.077147999999,4312.307617,4221.025879,4279.487305,4278.974121,0.0,4.0,77.0,,,,0.0,4.0,4.0,4.0,0.0,4.0,66.666664,,,,,,,,,,,,,,,,,,,,,,,,,,,,,,,,,,,,,,,,,,,,,,,,,,,,,,,,,,,,,,,,,,,,,,,,,,,,,,,,,,,,
82425,1645494315.907449,52.0,0.0,4287.179688,4282.563965,4209.230957,4281.538574,4284.102539,0.0,4.0,77.0,,,,0.0,4.0,4.0,4.0,0.0,4.0,66.666664,,,,,,,,26.0,0.0,0.43718,-0.29125999999999996,0.613525,0.5896,0.894545,-0.484871,-0.079591,-0.035539999999999995,-0.038277,-0.030801,,,,,,,,,,,,,,,,,,,,,,,,,,,,,,,,,,,0.0,0.0,1.0,0.0,1.0,0.0,,,,,,,,,,,,,,,,,,,,,,,,,
82426,1645494315.915266,53.0,0.0,4317.436035,4282.05127,4212.307617,4282.05127,4282.05127,0.0,4.0,77.0,,,,0.0,4.0,4.0,4.0,0.0,4.0,66.666664,,,,,,,,,,,,,,,,,,,,,,,,,,,,,,,,,,,,,,,,,,,,,,,,,,,,,,,,,,,,,,,,,,,,,,,,,,,,,,,,,,,,
82427,1645494315.923082,54.0,0.0,4346.666504,4341.025879,4208.717772999999,4281.025879,4271.794922,0.0,4.0,77.0,,,,0.0,4.0,4.0,4.0,0.0,4.0,66.666664,,,,,,,,27.0,0.0,0.43718,-0.29125999999999996,0.613525,0.5896,0.8872209999999999,-0.464363,-0.075196,-0.0356,-0.038307,-0.026402999999999996,,,,,,,,,,,,,,,,,,,,,,,,,,,,,,,,,,,,,,,,,,,,,,,,,,,,,,,,,,,,,,,,,
82428,1645494315.930899,55.0,0.0,4320.512695,4348.717772999999,4203.077147999999,4281.538574,4262.563965,0.0,4.0,77.0,,,,0.0,4.0,4.0,4.0,0.0,4.0,66.666664,,,,,,,,,,,,,,,,,,,,,,,,,,,,,,,,,,,,,,,,,,,,,,,,,,,,,,,,,,,,,,,,,,,,,,,,,,,,,,,,,,,,
82429,1645494315.938716,56.0,0.0,4296.410156,4297.94873,4208.205078,4281.538574,4278.461426,0.0,4.0,77.0,,,,0.0,4.0,4.0,4.0,0.0,4.0,66.666664,,,,,,,,28.0,0.0,0.43718,-0.29125999999999996,0.613525,0.5896,0.886244,-0.472663,-0.073732,-0.035555,-0.03848,-0.022444,,,,,,,,,,,,,,,,,,,,,,,,,,,,,,,,,,,0.0,0.0,1.0,0.0,1.0,0.0,,,,,,,,,,,,,,,,,,,,,,,,,
82430,1645494315.946532,57.0,0.0,4326.153809,4267.179688,4211.282227000001,4281.538574,4304.102539,0.0,4.0,77.0,,,,0.0,4.0,4.0,4.0,0.0,4.0,66.666664,,,,,,,,,,,,,,,,,,,,,,,,,,,,,,,,,,,,,,,,,,,,,,,,,,,,,,,,,,,,,,,,,,,,,,,,,,,,,,,,,,,,
82431,1645494315.954349,58.0,0.0,4361.025879,4253.333496,4206.153809,4281.538574,4305.641113000001,0.0,4.0,77.0,,,,0.0,4.0,4.0,4.0,0.0,4.0,66.666664,,,,,,,,29.0,0.0,0.437018,-0.291504,0.613525,0.5896,0.8896620000000001,-0.479988,-0.070314,-0.035711,-0.038441,-0.025131,,,,,,,,,,,,,,,,,,,,,,,,,,,,,,,,,,,,,,,,,,,,,,,,,,,,,,,,,,,,,,,,,
82432,1645494315.962265,59.0,0.0,4338.461426,4222.563965,4206.666504,4281.538574,4286.666504,0.0,4.0,77.0,,,,0.0,4.0,4.0,4.0,0.0,4.0,66.666664,,,,,,,,,,,,,,,,,,,,,,,,,,,,,,,,,,,,,,,,,,,,,,,,,,,,,,,,,,,,,,,,,,,,,,,,,,,,,,,,,,,,
82433,1645494315.970082,60.0,0.0,4297.94873,4211.794922,4203.589844,4281.538574,4281.025879,0.0,4.0,77.0,,,,0.0,4.0,4.0,4.0,0.0,4.0,66.666664,,,,,,,,30.0,0.0,0.437018,-0.291504,0.613525,0.5896,0.894545,-0.48096400000000006,-0.076173,-0.035655,-0.038454,-0.027404,,,,,,,,,,,,,,,,,,,,,,,,,,,,,,,,,,,0.0,0.0,1.0,0.0,1.0,0.0,,,,,,,,,,,,,,,,,,,,,,,,,
82434,1645494315.977999,61.0,0.0,4295.897461,4218.974121,4200.0,4281.025879,4287.179688,0.0,4.0,77.0,,,,0.0,4.0,4.0,4.0,0.0,4.0,66.666664,,,,,,,,,,,,,,,,,,,,,,,,,,,,,,,,,,,,,,,,,,,,,,,,,,,,,,,,,,,,,,,,,,,,,,,,,,,,,,,,,,,,
82435,1645494315.985816,62.0,0.0,4301.538574,4189.230957,4204.102539,4280.0,4272.307617,0.0,4.0,77.0,,,,0.0,4.0,4.0,4.0,0.0,4.0,66.666664,,,,,,,,31.0,0.0,0.437018,-0.291504,0.613525,0.5896,0.8881969999999999,-0.47168699999999997,-0.07470800000000001,-0.035703,-0.038417,-0.023296,,,,,,,,,,,,,,,,,,,,,,,,,,,,,,,,,,,,,,,,,,,,,,,,,,,,,,,,,,,,,,,,,
82436,1645494315.993632,63.0,0.0,4288.717772999999,4164.615234000001,4213.333496,4280.512695,4241.025879,0.0,4.0,77.0,,,,0.0,4.0,4.0,4.0,0.0,4.0,66.666664,,,,,,,,,,,,,,,,,,,,,,,,,,,,,,,,,,,,,,,,,,,,,,,,,,,,,,,,,,,,,,,,,,,,,,,,,,,,,,,,,,,,
82437,1645494316.001449,64.0,0.0,4289.743652,4198.461426,4224.615234000001,4280.512695,4267.179688,450.0,4.0,77.0,,,,0.0,4.0,4.0,4.0,0.0,4.0,66.666664,1.0,41.666668,4.0,3.0,2.0,0.0,4.0,32.0,0.0,0.437018,-0.291504,0.613525,0.5896,0.8808729999999999,-0.475105,-0.078126,-0.035649,-0.038335,-0.01955,1.0,0.0,0.0,,,,,,,,,,,,,,,,,,,,,,,,,,,,,,,,0.0,0.0,1.0,0.0,1.0,0.0,2.534024,2.6708119999999997,1.299706,2.099215,2.184232,21.403032,13.450041,20.501921,7.426738,4.855221,0.8147399999999999,0.307149,0.4608,0.695184,0.352209,0.001186,0.001132,0.0008300000000000001,0.000584,0.000491,3.1943650000000003,2.379661,1.072914,1.692968,1.657532
82438,1645494316.009266,65.0,0.0,4306.153809,4239.487305,4224.615234000001,4279.487305,4320.0,450.0,4.0,77.0,,,,0.0,4.0,4.0,4.0,0.0,4.0,66.666664,,,,,,,,,,,,,,,,,,,,,,,,,,,,,,,,,,,,,,,,,,,,,,,,,,,,,,,,,,,,,,,,,,,,,,,,,,,,,,,,,,,,
82439,1645494316.017083,66.0,0.0,4310.256348,4242.05127,4215.384765999999,4281.025879,4291.282227000001,16222.0,4.0,77.0,,,,0.0,4.0,4.0,4.0,0.0,4.0,66.666664,,,,,,,,33.0,0.0,0.437018,-0.291504,0.613525,0.5896,0.885756,-0.47168699999999997,-0.07470800000000001,-0.035746,-0.038262,-0.022478,,,,,,,,,,,,,,,,,,,,,,,,,,,,,,,,,,,,,,,,,,,,,,,,,,,,,,,,,,,,,,,,,
82440,1645494316.0249,67.0,0.0,4303.077147999999,4216.922852000001,4206.666504,4282.05127,4255.384765999999,450.0,4.0,77.0,,,,0.0,4.0,4.0,4.0,0.0,4.0,66.666664,,,,,,,,,,,,,,,,,,,,,,,,,,,,,,,,,,,,,,,,,,,,,,,,,,,,,,,,,,,,,,,,,,,,,,,,,,,,,,,,,,,,
82441,1645494316.032716,68.0,0.0,4295.384765999999,4196.922852000001,4202.563965,4280.512695,4280.512695,16141.0,4.0,77.0,,,,0.0,4.0,4.0,4.0,0.0,4.0,66.666664,,,,,,,,34.0,0.0,0.43734700000000004,-0.291504,0.613525,0.5893550000000001,0.8881969999999999,-0.462409,-0.062989,-0.035785000000000004,-0.038244,-0.025162,,,,,,,,,,,,,,,,,,,,,,,,,,,,,,,,,,,0.0,0.0,1.0,0.0,1.0,0.0,,,,,,,,,,,,,,,,,,,,,,,,,
82442,1645494316.040533,69.0,0.0,4293.846191,4197.436035,4205.128418,4280.512695,4285.641113000001,450.0,4.0,77.0,,,,0.0,4.0,4.0,4.0,0.0,4.0,66.666664,,,,,,,,,,,,,,,,,,,,,,,,,,,,,,,,,,,,,,,,,,,,,,,,,,,,,,,,,,,,,,,,,,,,,,,,,,,,,,,,,,,,
82443,1645494316.04845,70.0,0.0,4306.153809,4194.358886999999,4214.871582,4281.538574,4262.05127,311.0,4.0,77.0,,,,0.0,4.0,4.0,2.0,0.0,4.0,50.0,,,,,,,,35.0,0.0,0.43734700000000004,-0.291504,0.613525,0.5893550000000001,0.8872209999999999,-0.461921,-0.080079,-0.035673,-0.03818,-0.027578,,,,,,,,,,,,,,,,,,,,,,,,,,,,,,,,,,,,,,,,,,,,,,,,,,,,,,,,,,,,,,,,,
82444,1645494316.056267,71.0,0.0,4320.512695,4176.410156,4218.974121,4281.538574,4253.846191,450.0,4.0,77.0,,,,0.0,4.0,4.0,2.0,0.0,4.0,50.0,,,,,,,,,,,,,,,,,,,,,,,,,,,,,,,,,,,,,,,,,,,,,,,,,,,,,,,,,,,,,,,,,,,,,,,,,,,,,,,,,,,,
82445,1645494316.064083,72.0,0.0,4321.025879,4171.794922,4208.205078,4281.025879,4269.230957,450.0,4.0,77.0,,,,0.0,4.0,4.0,2.0,0.0,4.0,50.0,,,,,,,,36.0,0.0,0.437004,-0.291504,0.6137699999999999,0.5893550000000001,0.875502,-0.467292,-0.083009,-0.035768,-0.038169999999999996,-0.023355,,,,,,,,,,,,,,,,,,,,,,,,,,,,,,,,,,,0.0,0.0,1.0,0.0,1.0,0.0,,,,,,,,,,,,,,,,,,,,,,,,,
82446,1645494316.0719,73.0,0.0,4309.743652,4188.717772999999,4202.05127,4281.025879,4284.615234000001,0.0,4.0,77.0,,,,0.0,4.0,4.0,2.0,0.0,4.0,50.0,,,,,,,,,,,,,,,,,,,,,,,,,,,,,,,,,,,,,,,,,,,,,,,,,,,,,,,,,,,,,,,,,,,,,,,,,,,,,,,,,,,,
82447,1645494316.079717,74.0,0.0,4304.102539,4191.282227000001,4213.333496,4280.512695,4281.538574,450.0,4.0,77.0,,,,0.0,4.0,4.0,2.0,0.0,4.0,50.0,,,,,,,,37.0,0.0,0.43734700000000004,-0.291504,0.613525,0.5893550000000001,0.8881969999999999,-0.462409,-0.062989,-0.035756,-0.038113,-0.019652,,,,,,,,,,,,,,,,,,,,,,,,,,,,,,,,,,,,,,,,,,,,,,,,,,,,,,,,,,,,,,,,,
82448,1645494316.087534,75.0,0.0,4316.410156,4171.794922,4214.871582,4280.512695,4278.974121,16213.0,4.0,77.0,,,,0.0,4.0,4.0,2.0,0.0,4.0,50.0,,,,,,,,,,,,,,,,,,,,,,,,,,,,,,,,,,,,,,,,,,,,,,,,,,,,,,,,,,,,,,,,,,,,,,,,,,,,,,,,,,,,
82449,1645494316.095351,76.0,0.0,4317.436035,4167.692383,4207.692383,4281.025879,4283.589844,450.0,4.0,77.0,,,,0.0,4.0,4.0,2.0,0.0,4.0,50.0,,,,,,,,38.0,0.0,0.437004,-0.291504,0.6137699999999999,0.5893550000000001,0.875502,-0.467292,-0.083009,-0.035842,-0.038110000000000005,-0.016222,,,,,,,,,,,,,,,,,,,,,,,,,,,,,,,,,,,0.0,0.0,1.0,0.0,1.0,0.0,,,,,,,,,,,,,,,,,,,,,,,,,
82450,1645494316.103167,77.0,0.0,4296.410156,4190.256348,4210.256348,4280.512695,4284.615234000001,450.0,4.0,77.0,,,,0.0,4.0,4.0,2.0,0.0,4.0,50.0,,,,,,,,,,,,,,,,,,,,,,,,,,,,,,,,,,,,,,,,,,,,,,,,,,,,,,,,,,,,,,,,,,,,,,,,,,,,,,,,,,,,
82451,1645494316.110984,78.0,0.0,4298.461426,4202.05127,4223.077147999999,4280.0,4282.563965,450.0,4.0,77.0,,,,0.0,4.0,4.0,2.0,0.0,4.0,50.0,,,,,,,,39.0,0.0,0.437004,-0.291504,0.6137699999999999,0.5893550000000001,0.8916149999999999,-0.464851,-0.075685,-0.035871,-0.038107999999999996,-0.019532,,,,,,,,,,,,,,,,,,,,,,,,,,,,,,,,,,,,,,,,,,,,,,,,,,,,,,,,,,,,,,,,,
82452,1645494316.1188009,79.0,0.0,4324.615234000001,4178.974121,4227.692383,4279.487305,4298.461426,16213.0,4.0,77.0,,,,0.0,4.0,4.0,2.0,0.0,4.0,50.0,,,,,,,,,,,,,,,,,,,,,,,,,,,,,,,,,,,,,,,,,,,,,,,,,,,,,,,,,,,,,,,,,,,,,,,,,,,,,,,,,,,,
82453,1645494316.126717,80.0,0.0,4312.307617,4169.230957,4216.922852000001,4279.487305,4304.615234000001,450.0,4.0,77.0,,,,0.0,4.0,4.0,2.0,0.0,4.0,50.0,,,,,,,,40.0,0.0,0.43666099999999997,-0.291504,0.6140140000000001,0.5893550000000001,0.879408,-0.474128,-0.065919,-0.0358,-0.038057,-0.016114,1.0,0.0,0.0,,,,,,,,,,,,,,,,,,,,,,,,,,,,,,,,0.0,0.0,1.0,0.0,1.0,0.0,2.9340919999999997,2.9216740000000003,1.360121,2.1030599999999997,2.016711,23.549519,13.221807,16.984543,7.567894,4.479274,0.767245,0.396929,0.34365999999999997,0.75997,0.372467,0.001173,0.00121,0.0008349999999999999,0.000711,0.000571,3.21274,2.0520110000000003,1.0106979999999999,1.7903689999999999,1.70275
82454,1645494316.134534,81.0,0.0,4270.769043,4199.487305,4210.769043,4280.0,4285.641113000001,450.0,4.0,77.0,,,,0.0,4.0,4.0,2.0,0.0,4.0,50.0,,,,,,,,,,,,,,,,,,,,,,,,,,,,,,,,,,,,,,,,,,,,,,,,,,,,,,,,,,,,,,,,,,,,,,,,,,,,,,,,,,,,
82455,1645494316.14235,82.0,0.0,4287.179688,4228.717772999999,4207.179688,4278.974121,4270.769043,450.0,4.0,77.0,,,,0.0,4.0,4.0,2.0,0.0,4.0,50.0,,,,,,,,41.0,0.0,0.43666099999999997,-0.291504,0.6140140000000001,0.5893550000000001,0.881849,-0.477058,-0.067384,-0.035783999999999996,-0.037913,-0.019239,,,,,,,,,,,,,,,,,,,,,,,,,,,,,,,,,,,,,,,,,,,,,,,,,,,,,,,,,,,,,,,,,
82456,1645494316.150167,83.0,0.0,4331.282227000001,4237.436035,4209.230957,4279.487305,4275.897461,16213.0,4.0,77.0,,,,0.0,4.0,4.0,2.0,0.0,4.0,50.0,,,,,,,,,,,,,,,,,,,,,,,,,,,,,,,,,,,,,,,,,,,,,,,,,,,,,,,,,,,,,,,,,,,,,,,,,,,,,,,,,,,,
82457,1645494316.157984,84.0,0.0,4322.563965,4267.692383,4212.307617,4281.538574,4290.769043,450.0,4.0,77.0,,,,0.0,4.0,4.0,2.0,0.0,4.0,50.0,,,,,,,,42.0,0.0,0.43649399999999994,-0.29125999999999996,0.6140140000000001,0.5896,0.87892,-0.47071,-0.070802,-0.035575,-0.038028,-0.015899,,,,,,,,,,,,,,,,,,,,,,,,,,,,,,,,,,,0.0,0.0,1.0,0.0,1.0,0.0,,,,,,,,,,,,,,,,,,,,,,,,,
82458,1645494316.1658,85.0,0.0,4273.333496,4325.641113000001,4204.615234000001,4280.0,4275.897461,450.0,4.0,77.0,,,,0.0,4.0,4.0,2.0,0.0,4.0,50.0,,,,,,,,,,,,,,,,,,,,,,,,,,,,,,,,,,,,,,,,,,,,,,,,,,,,,,,,,,,,,,,,,,,,,,,,,,,,,,,,,,,,
82459,1645494316.173617,86.0,0.0,4237.94873,4333.333496,4198.461426,4277.94873,4240.0,450.0,4.0,77.0,,,,0.0,4.0,4.0,2.0,0.0,4.0,50.0,,,,,,,,43.0,0.0,0.436331,-0.291504,0.6140140000000001,0.5896,0.881849,-0.47901099999999996,-0.076173,-0.035631,-0.037985000000000005,-0.019241,,,,,,,,,,,,,,,,,,,,,,,,,,,,,,,,,,,,,,,,,,,,,,,,,,,,,,,,,,,,,,,,,
82460,1645494316.181433,87.0,0.0,4253.333496,4313.846191,4202.563965,4278.974121,4228.717772999999,16213.0,4.0,77.0,,,,0.0,4.0,4.0,2.0,0.0,4.0,50.0,,,,,,,,,,,,,,,,,,,,,,,,,,,,,,,,,,,,,,,,,,,,,,,,,,,,,,,,,,,,,,,,,,,,,,,,,,,,,,,,,,,,
82461,1645494316.18935,88.0,0.0,4287.692383,4331.282227000001,4206.666504,4279.487305,4246.153809,450.0,4.0,77.0,,,,0.0,4.0,4.0,2.0,0.0,4.0,50.0,,,,,,,,44.0,0.0,0.43649399999999994,-0.29125999999999996,0.6140140000000001,0.5896,0.879408,-0.480476,-0.077638,-0.03573,-0.038093,-0.022151,,,,,,,,,,,,,,,,,,,,,,,,,,,,,,,,,,,0.0,0.0,1.0,0.0,1.0,0.0,,,,,,,,,,,,,,,,,,,,,,,,,
82462,1645494316.197167,89.0,0.0,4295.384765999999,4367.179688,4203.589844,4278.461426,4268.717772999999,450.0,4.0,77.0,,,,0.0,4.0,4.0,2.0,0.0,4.0,50.0,,,,,,,,,,,,,,,,,,,,,,,,,,,,,,,,,,,,,,,,,,,,,,,,,,,,,,,,,,,,,,,,,,,,,,,,,,,,,,,,,,,,
82463,1645494316.204984,90.0,0.0,4281.025879,4384.615234000001,4204.615234000001,4278.461426,4256.410156,450.0,4.0,77.0,,,,0.0,4.0,4.0,2.0,0.0,4.0,50.0,,,,,,,,45.0,0.0,0.43649399999999994,-0.29125999999999996,0.6140140000000001,0.5896,0.8759899999999999,-0.49366000000000004,-0.073732,-0.035819,-0.038044,-0.02477,,,,,,,,,,,,,,,,,,,,,,,,,,,,,,,,,,,,,,,,,,,,,,,,,,,,,,,,,,,,,,,,,
82464,1645494316.2128,91.0,0.0,4272.307617,4370.256348,4210.256348,4279.487305,4227.692383,16213.0,4.0,77.0,,,,0.0,4.0,4.0,2.0,0.0,4.0,50.0,,,,,,,,,,,,,,,,,,,,,,,,,,,,,,,,,,,,,,,,,,,,,,,,,,,,,,,,,,,,,,,,,,,,,,,,,,,,,,,,,,,,
82465,1645494316.220617,92.0,0.0,4283.077147999999,4343.589844,4207.179688,4280.512695,4234.871582,450.0,4.0,77.0,,,,0.0,4.0,4.0,2.0,0.0,4.0,50.0,,,,,,,,46.0,0.0,0.43649399999999994,-0.29125999999999996,0.6140140000000001,0.5896,0.8838030000000001,-0.48096400000000006,-0.07470800000000001,-0.035899,-0.038097000000000006,-0.020779,,,,,,,,,,,,,,,,,,,,,,,,,,,,,,,,,,,0.0,0.0,1.0,0.0,1.0,0.0,,,,,,,,,,,,,,,,,,,,,,,,,
82466,1645494316.228434,93.0,0.0,4301.025879,4338.974121,4197.94873,4281.025879,4266.153809,450.0,4.0,77.0,,,,0.0,4.0,4.0,2.0,0.0,4.0,50.0,,,,,,,,,,,,,,,,,,,,,,,,,,,,,,,,,,,,,,,,,,,,,,,,,,,,,,,,,,,,,,,,,,,,,,,,,,,,,,,,,,,,
82467,1645494316.2362509,94.0,0.0,4309.230957,4362.05127,4198.461426,4280.0,4280.0,450.0,4.0,77.0,,,,0.0,4.0,4.0,2.0,0.0,4.0,50.0,,,,,,,,47.0,0.0,0.436838,-0.29125999999999996,0.6137699999999999,0.5896,0.876967,-0.48731199999999997,-0.07470800000000001,-0.035825,-0.038193,-0.023437,,,,,,,,,,,,,,,,,,,,,,,,,,,,,,,,,,,,,,,,,,,,,,,,,,,,,,,,,,,,,,,,,
82468,1645494316.244067,95.0,0.0,4293.333496,4390.256348,4213.333496,4278.974121,4264.102539,16213.0,4.0,77.0,,,,0.0,4.0,4.0,2.0,0.0,4.0,50.0,,,,,,,,,,,,,,,,,,,,,,,,,,,,,,,,,,,,,,,,,,,,,,,,,,,,,,,,,,,,,,,,,,,,,,,,,,,,,,,,,,,,
82469,1645494316.251884,96.0,0.0,4272.820313,4416.410156,4214.358886999999,4279.487305,4232.307617,450.0,4.0,77.0,,,,0.0,4.0,4.0,2.0,0.0,4.0,50.0,,,,,,,,48.0,0.0,0.437004,-0.291504,0.6137699999999999,0.5893550000000001,0.867201,-0.47363999999999995,-0.06640700000000001,-0.035807,-0.038329,-0.019775,1.0,0.0,0.0,,,,,,,,,,,,,,,,,,,,,,,,,,,,,,,,0.0,0.0,1.0,0.0,1.0,0.0,3.2685459999999997,2.877961,1.504561,2.122505,1.845722,26.758356,13.995313000000001,13.567847,7.780034,4.036125,0.756225,0.558516,0.314723,0.817717,0.40274699999999997,0.001361,0.00134,0.000799,0.0008439999999999999,0.000641,3.4902900000000003,1.7221349999999997,0.962551,1.819439,1.7524279999999999
82470,1645494316.259701,97.0,0.0,4275.897461,4420.0,4199.487305,4280.0,4228.205078,450.0,4.0,77.0,,,,0.0,4.0,4.0,2.0,0.0,4.0,50.0,,,,,,,,,,,,,,,,,,,,,,,,,,,,,,,,,,,,,,,,,,,,,,,,,,,,,,,,,,,,,,,,,,,,,,,,,,,,,,,,,,,,
82471,1645494316.267618,98.0,0.0,4286.666504,4407.179688,4200.0,4279.487305,4268.205078,450.0,4.0,77.0,,,,0.0,4.0,4.0,2.0,0.0,4.0,50.0,,,,,,,,49.0,0.0,0.43735,-0.29199200000000003,0.613525,0.5891109999999999,0.890639,-0.478523,-0.086427,-0.035791,-0.038207,-0.022583000000000002,,,,,,,,,,,,,,,,,,,,,,,,,,,,,,,,,,,,,,,,,,,,,,,,,,,,,,,,,,,,,,,,,
82472,1645494316.275434,99.0,0.0,4272.307617,4397.436035,4200.512695,4279.487305,4272.307617,16213.0,4.0,77.0,,,,0.0,4.0,4.0,2.0,0.0,4.0,50.0,,,,,,,,,,,,,,,,,,,,,,,,,,,,,,,,,,,,,,,,,,,,,,,,,,,,,,,,,,,,,,,,,,,,,,,,,,,,,,,,,,,,
82473,1645494316.283251,100.0,0.0,4259.487305,4385.641113000001,4199.487305,4280.0,4226.666504,450.0,4.0,77.0,,,,0.0,4.0,4.0,2.0,0.0,4.0,50.0,,,,,,,,50.0,0.0,0.437695,-0.29248,0.6132810000000001,0.588867,0.885756,-0.464363,-0.081544,-0.035825,-0.038195,-0.025159,,,,,,,,,,,,,,,,,,,,,,,,,,,,,,,,,,,0.0,0.0,1.0,0.0,1.0,0.0,,,,,,,,,,,,,,,,,,,,,,,,,
82474,1645494316.291067,101.0,0.0,4283.589844,4368.205078,4212.820313,4279.487305,4244.102539,450.0,4.0,77.0,,,,0.0,4.0,4.0,2.0,0.0,4.0,50.0,,,,,,,,,,,,,,,,,,,,,,,,,,,,,,,,,,,,,,,,,,,,,,,,,,,,,,,,,,,,,,,,,,,,,,,,,,,,,,,,,,,,
82475,1645494316.298884,102.0,0.0,4304.102539,4345.128418,4226.153809,4279.487305,4290.769043,450.0,4.0,77.0,,,,0.0,4.0,4.0,2.0,0.0,4.0,50.0,,,,,,,,51.0,0.0,0.437875,-0.293213,0.6130369999999999,0.588623,0.893568,-0.45459700000000003,-0.078126,-0.035856,-0.038183999999999996,-0.021178,,,,,,,,,,,,,,,,,,,,,,,,,,,,,,,,,,,,,,,,,,,,,,,,,,,,,,,,,,,,,,,,,
82476,1645494316.3067,103.0,0.0,4293.846191,4342.563965,4220.512695,4279.487305,4273.846191,16213.0,4.0,77.0,,,,0.0,4.0,4.0,2.0,0.0,4.0,50.0,,,,,,,,,,,,,,,,,,,,,,,,,,,,,,,,,,,,,,,,,,,,,,,,,,,,,,,,,,,,,,,,,,,,,,,,,,,,,,,,,,,,
82477,1645494316.314517,104.0,0.0,4285.128418,4334.871582,4208.205078,4279.487305,4242.05127,450.0,4.0,77.0,,,,0.0,4.0,4.0,2.0,0.0,4.0,50.0,,,,,,,,52.0,0.0,0.43821800000000005,-0.29370100000000005,0.612793,0.588379,0.8989389999999999,-0.45996800000000004,-0.08203300000000001,-0.035835000000000006,-0.038175,-0.023943,,,,,,,,,,,,,,,,,,,,,,,,,,,,,,,,,,,0.0,0.0,1.0,0.0,1.0,0.0,,,,,,,,,,,,,,,,,,,,,,,,,
82478,1645494316.322333,105.0,0.0,4270.256348,4302.563965,4206.153809,4279.487305,4224.615234000001,450.0,4.0,77.0,,,,0.0,4.0,4.0,2.0,0.0,4.0,50.0,,,,,,,,,,,,,,,,,,,,,,,,,,,,,,,,,,,,,,,,,,,,,,,,,,,,,,,,,,,,,,,,,,,,,,,,,,,,,,,,,,,,
82479,1645494316.33015,106.0,0.0,4255.384765999999,4308.717772999999,4209.230957,4279.487305,4209.743652,450.0,4.0,77.0,,,,0.0,4.0,4.0,2.0,0.0,4.0,50.0,,,,,,,,53.0,0.0,0.438395,-0.29394499999999996,0.612549,0.588379,0.8881969999999999,-0.464851,-0.08105599999999999,-0.035718,-0.038166000000000005,-0.026285000000000003,,,,,,,,,,,,,,,,,,,,,,,,,,,,,,,,,,,,,,,,,,,,,,,,,,,,,,,,,,,,,,,,,
82480,1645494316.338067,107.0,0.0,4277.436035,4343.077147999999,4203.077147999999,4279.487305,4238.974121,16213.0,4.0,77.0,,,,0.0,4.0,4.0,2.0,0.0,4.0,50.0,,,,,,,,,,,,,,,,,,,,,,,,,,,,,,,,,,,,,,,,,,,,,,,,,,,,,,,,,,,,,,,,,,,,,,,,,,,,,,,,,,,,
82481,1645494316.345883,108.0,0.0,4296.410156,4329.743652,4198.974121,4279.487305,4268.205078,450.0,4.0,77.0,,,,0.0,4.0,4.0,2.0,0.0,4.0,50.0,,,,,,,,54.0,0.0,0.43855900000000003,-0.294189,0.612549,0.5881350000000001,0.8955209999999999,-0.453132,-0.078126,-0.035711,-0.038207,-0.028442000000000002,,,,,,,,,,,,,,,,,,,,,,,,,,,,,,,,,,,0.0,0.0,1.0,0.0,1.0,0.0,,,,,,,,,,,,,,,,,,,,,,,,,
82482,1645494316.3537,109.0,0.0,4291.282227000001,4311.282227000001,4210.769043,4279.487305,4237.436035,450.0,4.0,77.0,,,,0.0,4.0,4.0,2.0,0.0,4.0,50.0,,,,,,,,,,,,,,,,,,,,,,,,,,,,,,,,,,,,,,,,,,,,,,,,,,,,,,,,,,,,,,,,,,,,,,,,,,,,,,,,,,,,
82483,1645494316.361517,110.0,0.0,4296.410156,4336.922852000001,4220.0,4279.487305,4224.102539,450.0,4.0,77.0,,,,0.0,4.0,4.0,2.0,0.0,4.0,50.0,,,,,,,,55.0,0.0,0.438395,-0.29443400000000003,0.612549,0.5881350000000001,0.895033,-0.472175,-0.080568,-0.035851,-0.038146,-0.030529,,,,,,,,,,,,,,,,,,,,,,,,,,,,,,,,,,,,,,,,,,,,,,,,,,,,,,,,,,,,,,,,,
82484,1645494316.369334,111.0,0.0,4297.436035,4315.897461,4215.384765999999,4279.487305,4253.846191,16213.0,4.0,77.0,,,,0.0,4.0,4.0,2.0,0.0,4.0,50.0,,,,,,,,,,,,,,,,,,,,,,,,,,,,,,,,,,,,,,,,,,,,,,,,,,,,,,,,,,,,,,,,,,,,,,,,,,,,,,,,,,,,
82485,1645494316.377151,112.0,0.0,4273.333496,4268.717772999999,4216.922852000001,4279.487305,4251.794922,450.0,4.0,77.0,,,,0.0,4.0,4.0,2.0,0.0,4.0,50.0,,,,,,,,56.0,0.0,0.438395,-0.29443400000000003,0.612549,0.5881350000000001,0.897963,-0.460945,-0.067384,-0.035733,-0.038238,-0.032359,1.0,0.0,0.0,,,,,,,,,,,,,,,,,,,,,,,,,,,,,,,,0.0,0.0,1.0,0.0,1.0,0.0,3.497549,2.565124,1.6620259999999998,2.143579,1.7339799999999999,29.965897,15.557638,10.791908,8.105696,3.604329,0.843088,0.772644,0.375656,0.853858,0.433597,0.001927,0.001639,0.000773,0.001,0.000733,3.816812,1.377098,0.941759,1.782417,1.808974
82486,1645494316.384967,113.0,0.0,4267.179688,4296.410156,4213.333496,4279.487305,4237.94873,450.0,4.0,77.0,,,,0.0,4.0,4.0,2.0,0.0,4.0,50.0,,,,,,,,,,,,,,,,,,,,,,,,,,,,,,,,,,,,,,,,,,,,,,,,,,,,,,,,,,,,,,,,,,,,,,,,,,,,,,,,,,,,
82487,1645494316.3927839,114.0,0.0,4298.974121,4330.256348,4202.563965,4279.487305,4254.358886999999,450.0,4.0,77.0,,,,0.0,4.0,4.0,2.0,0.0,4.0,50.0,,,,,,,,57.0,0.0,0.438395,-0.29443400000000003,0.612549,0.5881350000000001,0.8872209999999999,-0.47657,-0.083497,-0.035675,-0.038125,-0.03386,,,,,,,,,,,,,,,,,,,,,,,,,,,,,,,,,,,,,,,,,,,,,,,,,,,,,,,,,,,,,,,,,
82488,1645494316.400601,115.0,0.0,4303.589844,4295.384765999999,4215.897461,4280.0,4262.05127,16213.0,4.0,77.0,,,,0.0,4.0,4.0,2.0,0.0,4.0,50.0,,,,,,,,,,,,,,,,,,,,,,,,,,,,,,,,,,,,,,,,,,,,,,,,,,,,,,,,,,,,,,,,,,,,,,,,,,,,,,,,,,,,
82489,1645494316.408518,116.0,0.0,4266.153809,4255.897461,4227.179688,4279.487305,4242.05127,450.0,4.0,77.0,,,,0.0,4.0,4.0,2.0,0.0,4.0,50.0,,,,,,,,58.0,0.0,0.43821800000000005,-0.294189,0.612793,0.5881350000000001,0.886732,-0.46582700000000005,-0.077638,-0.035574,-0.038169999999999996,-0.035406,,,,,,,,,,,,,,,,,,,,,,,,,,,,,,,,,,,0.0,0.0,1.0,0.0,1.0,0.0,,,,,,,,,,,,,,,,,,,,,,,,,
82490,1645494316.416334,117.0,0.0,4255.384765999999,4242.563965,4217.94873,4280.0,4231.282227000001,450.0,4.0,77.0,,,,0.0,4.0,4.0,2.0,0.0,4.0,50.0,,,,,,,,,,,,,,,,,,,,,,,,,,,,,,,,,,,,,,,,,,,,,,,,,,,,,,,,,,,,,,,,,,,,,,,,,,,,,,,,,,,,
82491,1645494316.424151,118.0,0.0,4300.0,4209.230957,4215.897461,4280.512695,4263.589844,450.0,4.0,77.0,,,,0.0,4.0,4.0,2.0,0.0,4.0,50.0,,,,,,,,59.0,0.0,0.43821800000000005,-0.294189,0.612793,0.5881350000000001,0.8896620000000001,-0.478523,-0.062013,-0.035483999999999995,-0.038357,-0.036748,,,,,,,,,,,,,,,,,,,,,,,,,,,,,,,,,,,,,,,,,,,,,,,,,,,,,,,,,,,,,,,,,
82492,1645494316.431968,119.0,0.0,4318.461426,4206.153809,4219.487305,4280.512695,4291.794922,16213.0,4.0,77.0,,,,0.0,4.0,4.0,2.0,0.0,4.0,50.0,,,,,,,,,,,,,,,,,,,,,,,,,,,,,,,,,,,,,,,,,,,,,,,,,,,,,,,,,,,,,,,,,,,,,,,,,,,,,,,,,,,,
82493,1645494316.439785,120.0,0.0,4284.615234000001,4256.410156,4216.410156,4280.0,4273.846191,450.0,4.0,77.0,,,,0.0,4.0,4.0,2.0,0.0,4.0,50.0,,,,,,,,60.0,0.0,0.43821800000000005,-0.294189,0.612793,0.5881350000000001,0.8813610000000001,-0.46973400000000004,-0.080079,-0.035549000000000004,-0.03833,-0.037906999999999996,,,,,,,,,,,,,,,,,,,,,,,,,,,,,,,,,,,0.0,0.0,1.0,0.0,1.0,0.0,,,,,,,,,,,,,,,,,,,,,,,,,
82494,1645494316.447602,121.0,0.0,4274.871582,4270.256348,4218.461426,4280.0,4243.077147999999,450.0,4.0,77.0,,,,0.0,4.0,4.0,2.0,0.0,4.0,50.0,,,,,,,,,,,,,,,,,,,,,,,,,,,,,,,,,,,,,,,,,,,,,,,,,,,,,,,,,,,,,,,,,,,,,,,,,,,,,,,,,,,,
82495,1645494316.4554179,122.0,0.0,4283.589844,4261.538574,4235.384765999999,4279.487305,4238.974121,450.0,4.0,77.0,,,,0.0,4.0,4.0,2.0,0.0,4.0,50.0,,,,,,,,61.0,0.0,0.438204,-0.294189,0.6130369999999999,0.5878909999999999,0.8774549999999999,-0.478523,-0.07324299999999999,-0.03551,-0.038257,-0.0327,,,,,,,,,,,,,,,,,,,,,,,,,,,,,,,,,,,,,,,,,,,,,,,,,,,,,,,,,,,,,,,,,
82496,1645494316.463235,123.0,0.0,4288.717772999999,4284.615234000001,4248.205078,4278.461426,4266.153809,16213.0,4.0,77.0,,,,0.0,4.0,4.0,2.0,0.0,4.0,50.0,,,,,,,,,,,,,,,,,,,,,,,,,,,,,,,,,,,,,,,,,,,,,,,,,,,,,,,,,,,,,,,,,,,,,,,,,,,,,,,,,,,,
82497,1645494316.471052,124.0,0.0,4316.410156,4309.230957,4243.077147999999,4279.487305,4276.410156,450.0,4.0,77.0,,,,0.0,4.0,4.0,2.0,0.0,4.0,50.0,,,,,,,,62.0,0.0,0.43854499999999996,-0.294189,0.612793,0.5878909999999999,0.8886850000000001,-0.47168699999999997,-0.08105599999999999,-0.035572,-0.038191,-0.027966,,,,,,,,,,,,,,,,,,,,,,,,,,,,,,,,,,,0.0,0.0,1.0,0.0,1.0,0.0,,,,,,,,,,,,,,,,,,,,,,,,,
82498,1645494316.4789689,125.0,0.0,4324.615234000001,4294.871582,4229.230957,4281.538574,4251.794922,450.0,4.0,77.0,,,,0.0,4.0,4.0,2.0,0.0,4.0,50.0,,,,,,,,,,,,,,,,,,,,,,,,,,,,,,,,,,,,,,,,,,,,,,,,,,,,,,,,,,,,,,,,,,,,,,,,,,,,,,,,,,,,
82499,1645494316.486785,126.0,0.0,4295.384765999999,4277.436035,4217.94873,4281.025879,4244.102539,450.0,4.0,77.0,,,,0.0,4.0,4.0,2.0,0.0,4.0,50.0,,,,,,,,63.0,0.0,0.438204,-0.294189,0.6130369999999999,0.5878909999999999,0.881849,-0.47657,-0.075685,-0.035579,-0.038034,-0.029954,,,,,,,,,,,,,,,,,,,,,,,,,,,,,,,,,,,,,,,,,,,,,,,,,,,,,,,,,,,,,,,,,
82500,1645494316.494602,127.0,0.0,4302.05127,4291.794922,4223.077147999999,4278.974121,4263.077147999999,239.0,4.0,77.0,,,,0.0,4.0,4.0,2.0,0.0,4.0,50.0,,,,,,,,,,,,,,,,,,,,,,,,,,,,,,,,,,,,,,,,,,,,,,,,,,,,,,,,,,,,,,,,,,,,,,,,,,,,,,,,,,,,
82501,1645494316.502419,0.0,0.0,4323.077147999999,4305.128418,4229.230957,4279.487305,4272.307617,450.0,4.0,77.0,,,,0.0,4.0,4.0,2.0,0.0,4.0,50.0,1.0,41.666668,4.0,3.0,2.0,0.0,4.0,0.0,0.0,0.438204,-0.294189,0.6130369999999999,0.5878909999999999,0.8847790000000001,-0.47608100000000003,-0.07715,-0.035537,-0.038038999999999996,-0.031938999999999995,1.0,0.0,0.0,,,,,,,,,,,,,,,,,,,,,,,,,,,,,,,,0.0,0.0,1.0,0.0,1.0,0.0,3.760731,2.112559,1.749064,2.147856,1.73337,32.285732,17.331665,8.821783,8.405068,3.246619,1.033617,0.996866,0.48624300000000004,0.862243,0.45223,0.002939,0.002148,0.000843,0.001196,0.000908,4.251702,1.082752,0.9661649999999999,1.680959,1.8822299999999998
82502,1645494316.510236,1.0,0.0,4294.871582,4287.179688,4228.205078,4279.487305,4258.461426,450.0,4.0,77.0,,,,0.0,4.0,4.0,2.0,0.0,4.0,50.0,,,,,,,,,,,,,,,,,,,,,,,,,,,,,,,,,,,,,,,,,,,,,,,,,,,,,,,,,,,,,,,,,,,,,,,,,,,,,,,,,,,,
82503,1645494316.5180528,2.0,0.0,4283.589844,4261.538574,4221.538574,4278.974121,4254.358886999999,16240.0,4.0,77.0,,,,0.0,4.0,4.0,2.0,0.0,4.0,50.0,,,,,,,,1.0,0.0,0.43854499999999996,-0.294189,0.612793,0.5878909999999999,0.8886850000000001,-0.47168699999999997,-0.08105599999999999,-0.035401,-0.037946,-0.027377999999999996,,,,,,,,,,,,,,,,,,,,,,,,,,,,,,,,,,,,,,,,,,,,,,,,,,,,,,,,,,,,,,,,,
82504,1645494316.525869,3.0,0.0,4302.05127,4265.641113000001,4213.846191,4281.025879,4257.94873,450.0,4.0,77.0,,,,0.0,4.0,4.0,2.0,0.0,4.0,50.0,,,,,,,,,,,,,,,,,,,,,,,,,,,,,,,,,,,,,,,,,,,,,,,,,,,,,,,,,,,,,,,,,,,,,,,,,,,,,,,,,,,,
82505,1645494316.533686,4.0,0.0,4289.743652,4271.282227000001,4210.256348,4280.512695,4249.230957,16126.0,4.0,77.0,,,,0.0,4.0,4.0,2.0,0.0,4.0,50.0,,,,,,,,2.0,0.0,0.438204,-0.294189,0.6130369999999999,0.5878909999999999,0.8847790000000001,-0.47608100000000003,-0.07715,-0.035377,-0.03796,-0.029620999999999998,,,,,,,,,,,,,,,,,,,,,,,,,,,,,,,,,,,0.0,0.0,1.0,0.0,1.0,0.0,,,,,,,,,,,,,,,,,,,,,,,,,
82506,1645494316.541503,5.0,0.0,4281.538574,4259.487305,4218.974121,4278.461426,4245.641113000001,450.0,4.0,77.0,,,,0.0,4.0,4.0,2.0,0.0,4.0,50.0,,,,,,,,,,,,,,,,,,,,,,,,,,,,,,,,,,,,,,,,,,,,,,,,,,,,,,,,,,,,,,,,,,,,,,,,,,,,,,,,,,,,
82507,1645494316.549419,6.0,0.0,4301.538574,4253.846191,4234.358886999999,4278.974121,4268.717772999999,16076.0,4.0,77.0,,,,0.0,4.0,4.0,4.0,0.0,4.0,66.666664,,,,,,,,3.0,0.0,0.438204,-0.294189,0.6130369999999999,0.5878909999999999,0.8960100000000001,-0.466804,-0.071778,-0.035355000000000004,-0.038022,-0.031493,,,,,,,,,,,,,,,,,,,,,,,,,,,,,,,,,,,,,,,,,,,,,,,,,,,,,,,,,,,,,,,,,
82508,1645494316.557236,7.0,0.0,4294.358886999999,4256.922852000001,4232.307617,4280.512695,4292.307617,450.0,4.0,77.0,,,,0.0,4.0,4.0,4.0,0.0,4.0,66.666664,,,,,,,,,,,,,,,,,,,,,,,,,,,,,,,,,,,,,,,,,,,,,,,,,,,,,,,,,,,,,,,,,,,,,,,,,,,,,,,,,,,,
82509,1645494316.565053,8.0,0.0,4267.179688,4262.563965,4227.179688,4278.974121,4271.794922,450.0,4.0,77.0,,,,0.0,4.0,4.0,4.0,0.0,4.0,66.666664,,,,,,,,4.0,0.0,0.43853100000000006,-0.294189,0.6130369999999999,0.587646,0.901869,-0.474128,-0.06836,-0.035286,-0.038077,-0.033129,,,,,,,,,,,,,,,,,,,,,,,,,,,,,,,,,,,0.0,0.0,1.0,0.0,1.0,0.0,,,,,,,,,,,,,,,,,,,,,,,,,
82510,1645494316.572869,9.0,0.0,4276.922852000001,4260.0,4226.153809,4278.461426,4239.487305,0.0,4.0,77.0,,,,0.0,4.0,4.0,4.0,0.0,4.0,66.666664,,,,,,,,,,,,,,,,,,,,,,,,,,,,,,,,,,,,,,,,,,,,,,,,,,,,,,,,,,,,,,,,,,,,,,,,,,,,,,,,,,,,
82511,1645494316.5806859,10.0,0.0,4316.410156,4248.717772999999,4224.102539,4281.538574,4257.436035,450.0,4.0,77.0,,,,0.0,4.0,4.0,4.0,0.0,4.0,66.666664,,,,,,,,5.0,0.0,0.43853100000000006,-0.294189,0.6130369999999999,0.587646,0.89015,-0.46533900000000006,-0.09131,-0.035469,-0.038078,-0.034748,,,,,,,,,,,,,,,,,,,,,,,,,,,,,,,,,,,,,,,,,,,,,,,,,,,,,,,,,,,,,,,,,
82512,1645494316.588502,11.0,0.0,4303.589844,4221.538574,4223.589844,4280.0,4281.025879,16231.0,4.0,77.0,,,,0.0,4.0,4.0,4.0,0.0,4.0,66.666664,,,,,,,,,,,,,,,,,,,,,,,,,,,,,,,,,,,,,,,,,,,,,,,,,,,,,,,,,,,,,,,,,,,,,,,,,,,,,,,,,,,,
82513,1645494316.596319,12.0,0.0,4241.538574,4194.358886999999,4220.0,4276.410156,4257.436035,450.0,4.0,77.0,,,,0.0,4.0,4.0,4.0,0.0,4.0,66.666664,,,,,,,,6.0,0.0,0.43853100000000006,-0.294189,0.6130369999999999,0.587646,0.8881969999999999,-0.47901099999999996,-0.083009,-0.035486000000000004,-0.038127999999999995,-0.029758999999999997,,,,,,,,,,,,,,,,,,,,,,,,,,,,,,,,,,,0.0,0.0,1.0,0.0,1.0,0.0,,,,,,,,,,,,,,,,,,,,,,,,,
82514,1645494316.604135,13.0,0.0,4249.230957,4226.666504,4220.512695,4277.94873,4237.436035,450.0,4.0,77.0,,,,0.0,4.0,4.0,4.0,0.0,4.0,66.666664,,,,,,,,,,,,,,,,,,,,,,,,,,,,,,,,,,,,,,,,,,,,,,,,,,,,,,,,,,,,,,,,,,,,,,,,,,,,,,,,,,,,
82515,1645494316.611952,14.0,0.0,4316.410156,4275.897461,4224.102539,4281.025879,4260.0,450.0,4.0,77.0,,,,0.0,4.0,4.0,4.0,0.0,4.0,66.666664,,,,,,,,7.0,0.0,0.43854499999999996,-0.294189,0.612793,0.5878909999999999,0.889174,-0.46826899999999994,-0.07422000000000001,-0.035502,-0.038124,-0.031617,,,,,,,,,,,,,,,,,,,,,,,,,,,,,,,,,,,,,,,,,,,,,,,,,,,,,,,,,,,,,,,,,
82516,1645494316.619869,15.0,0.0,4321.538574,4266.666504,4218.974121,4278.974121,4276.922852000001,16231.0,4.0,77.0,,,,0.0,4.0,4.0,4.0,0.0,4.0,66.666664,,,,,,,,,,,,,,,,,,,,,,,,,,,,,,,,,,,,,,,,,,,,,,,,,,,,,,,,,,,,,,,,,,,,,,,,,,,,,,,,,,,,
82517,1645494316.627685,16.0,1.0,4318.269043,4266.666504,4216.987305,4278.910156,4276.153809,14202.125,4.0,77.0,,,,0.0,4.0,4.0,4.0,0.0,4.0,66.666664,,,,,,,,8.0,1.0,0.43857799999999997,-0.294141,0.612793,0.5878909999999999,0.8892709999999999,-0.46826899999999994,-0.076075,-0.035515,-0.038133,-0.030701999999999997,1.0,0.0,0.0,,,,,,,,,,,,,,,,,,,,,,,,,,,,,,,,0.0,0.0,1.0,0.0,1.0,0.0,4.081518,1.6844169999999998,1.751554,2.149393,1.865102,33.201965,18.778179,7.618246000000001,8.470697,3.0011759999999996,1.2473889999999999,1.177915,0.594979,0.846457,0.449506,0.004234,0.002811,0.001113,0.001444,0.001209,4.621986,0.9206290000000001,1.059921,1.549924,2.008255
82518,1645494316.6355019,17.0,1.0,4315.0,4266.666504,4215.0,4278.846191,4275.384765999999,12173.25,4.0,77.0,,,,0.0,4.0,4.0,4.0,0.0,4.0,66.666664,,,,,,,,,,,,,,,,,,,,,,,,,,,,,,,,,,,,,,,,,,,,,,,,,,,,,,,,,,,,,,,,,,,,,,,,,,,,,,,,,,,,
82519,1645494316.643319,18.0,1.0,4311.730957,4266.666504,4213.012695,4278.782227000001,4274.615234000001,10144.375,4.0,77.0,,,,0.0,4.0,4.0,4.0,0.0,4.0,66.666664,,,,,,,,9.0,1.0,0.438611,-0.294092,0.612793,0.5878909999999999,0.8893690000000001,-0.46826899999999994,-0.077931,-0.035526999999999996,-0.038142,-0.029786,,,,,,,,,,,,,,,,,,,,,,,,,,,,,,,,,,,,,,,,,,,,,,,,,,,,,,,,,,,,,,,,,
82520,1645494316.651136,19.0,1.0,4308.461426,4266.666504,4211.025879,4278.717772999999,4273.846191,8115.5,4.0,77.0,,,,0.0,4.0,4.0,4.0,0.0,4.0,66.666664,,,,,,,,,,,,,,,,,,,,,,,,,,,,,,,,,,,,,,,,,,,,,,,,,,,,,,,,,,,,,,,,,,,,,,,,,,,,,,,,,,,,
82521,1645494316.658953,20.0,1.0,4305.192383,4266.666504,4209.038574,4278.653809,4273.077147999999,6086.625,4.0,77.0,,,,0.0,4.0,4.0,4.0,0.0,4.0,66.666664,,,,,,,,10.0,1.0,0.438643,-0.294043,0.612793,0.5878909999999999,0.889467,-0.46826899999999994,-0.079786,-0.035539999999999995,-0.038151,-0.028870999999999997,,,,,,,,,,,,,,,,,,,,,,,,,,,,,,,,,,,0.0,0.0,1.0,0.0,1.0,0.0,,,,,,,,,,,,,,,,,,,,,,,,,
82522,1645494316.666769,21.0,1.0,4301.922852000001,4266.666504,4207.05127,4278.589844,4272.307617,4057.75,4.0,77.0,,,,0.0,4.0,4.0,4.0,0.0,4.0,66.666664,,,,,,,,,,,,,,,,,,,,,,,,,,,,,,,,,,,,,,,,,,,,,,,,,,,,,,,,,,,,,,,,,,,,,,,,,,,,,,,,,,,,
82523,1645494316.6745858,22.0,1.0,4298.653809,4266.666504,4205.063965,4278.525879,4271.538574,2028.875,4.0,77.0,,,,0.0,4.0,4.0,4.0,0.0,4.0,66.666664,,,,,,,,11.0,1.0,0.438676,-0.29399400000000003,0.612793,0.5878909999999999,0.8895639999999999,-0.46826899999999994,-0.08164199999999999,-0.035552999999999994,-0.03816,-0.027955,,,,,,,,,,,,,,,,,,,,,,,,,,,,,,,,,,,,,,,,,,,,,,,,,,,,,,,,,,,,,,,,,
82524,1645494316.6824028,23.0,0.0,4295.384765999999,4266.666504,4203.077147999999,4278.461426,4270.769043,0.0,4.0,77.0,,,,0.0,4.0,4.0,4.0,0.0,4.0,66.666664,,,,,,,,,,,,,,,,,,,,,,,,,,,,,,,,,,,,,,,,,,,,,,,,,,,,,,,,,,,,,,,,,,,,,,,,,,,,,,,,,,,,
82525,1645494316.6902199,24.0,0.0,4264.615234000001,4216.922852000001,4206.153809,4278.974121,4260.512695,0.0,4.0,77.0,,,,0.0,4.0,4.0,4.0,0.0,4.0,66.666664,,,,,,,,12.0,0.0,0.438709,-0.29394499999999996,0.612793,0.5878909999999999,0.8896620000000001,-0.46826899999999994,-0.083497,-0.035565,-0.038169,-0.027039999999999998,,,,,,,,,,,,,,,,,,,,,,,,,,,,,,,,,,,0.0,0.0,1.0,0.0,1.0,0.0,,,,,,,,,,,,,,,,,,,,,,,,,
82526,1645494316.698036,25.0,0.0,4238.461426,4174.871582,4212.820313,4278.461426,4232.307617,0.0,4.0,77.0,,,,0.0,4.0,4.0,4.0,0.0,4.0,66.666664,,,,,,,,,,,,,,,,,,,,,,,,,,,,,,,,,,,,,,,,,,,,,,,,,,,,,,,,,,,,,,,,,,,,,,,,,,,,,,,,,,,,
82527,1645494316.705853,26.0,0.0,4272.820313,4211.282227000001,4219.487305,4278.461426,4230.769043,0.0,4.0,77.0,,,,0.0,4.0,4.0,4.0,0.0,4.0,66.666664,,,,,,,,13.0,0.0,0.43853100000000006,-0.29370100000000005,0.6130369999999999,0.5878909999999999,0.894545,-0.47168699999999997,-0.061036,-0.035622,-0.03816,-0.022871000000000002,,,,,,,,,,,,,,,,,,,,,,,,,,,,,,,,,,,,,,,,,,,,,,,,,,,,,,,,,,,,,,,,,
82528,1645494316.71367,27.0,0.0,4294.358886999999,4225.641113000001,4220.0,4278.974121,4252.820313,0.0,4.0,77.0,,,,0.0,4.0,4.0,4.0,0.0,4.0,66.666664,,,,,,,,,,,,,,,,,,,,,,,,,,,,,,,,,,,,,,,,,,,,,,,,,,,,,,,,,,,,,,,,,,,,,,,,,,,,,,,,,,,,
82529,1645494316.7214868,28.0,0.0,4251.282227000001,4196.410156,4213.333496,4278.461426,4251.794922,0.0,4.0,77.0,,,,0.0,4.0,4.0,4.0,0.0,4.0,66.666664,,,,,,,,14.0,0.0,0.438204,-0.29370100000000005,0.6130369999999999,0.5881350000000001,0.8676889999999999,-0.472175,-0.070802,-0.035624,-0.038202,-0.019265,,,,,,,,,,,,,,,,,,,,,,,,,,,,,,,,,,,0.0,0.0,1.0,0.0,1.0,0.0,,,,,,,,,,,,,,,,,,,,,,,,,
82530,1645494316.7293038,29.0,0.0,4233.846191,4178.974121,4209.230957,4278.461426,4246.666504,0.0,4.0,77.0,,,,0.0,4.0,4.0,4.0,0.0,4.0,66.666664,,,,,,,,,,,,,,,,,,,,,,,,,,,,,,,,,,,,,,,,,,,,,,,,,,,,,,,,,,,,,,,,,,,,,,,,,,,,,,,,,,,,
82531,1645494316.73712,30.0,0.0,4282.05127,4165.641113000001,4217.94873,4278.974121,4257.436035,0.0,4.0,77.0,,,,0.0,4.0,4.0,4.0,0.0,4.0,66.666664,,,,,,,,15.0,0.0,0.438367,-0.293457,0.6130369999999999,0.5881350000000001,0.889174,-0.4795,-0.072267,-0.035675,-0.038238999999999995,-0.022124,,,,,,,,,,,,,,,,,,,,,,,,,,,,,,,,,,,,,,,,,,,,,,,,,,,,,,,,,,,,,,,,,
82532,1645494316.744937,31.0,0.0,4309.743652,4137.436035,4223.589844,4278.974121,4261.538574,0.0,4.0,77.0,,,,0.0,4.0,4.0,4.0,0.0,4.0,66.666664,,,,,,,,,,,,,,,,,,,,,,,,,,,,,,,,,,,,,,,,,,,,,,,,,,,,,,,,,,,,,,,,,,,,,,,,,,,,,,,,,,,,
