,Timestamp,EEG.Counter,EEG.Interpolated,EEG.AF3,EEG.T7,EEG.Pz,EEG.T8,EEG.AF4,EEG.RawCq,EEG.Battery,EEG.BatteryPercent,MarkerIndex,MarkerType,MarkerValueInt,EEG.MarkerHardware,CQ.AF3,CQ.T7,CQ.Pz,CQ.T8,CQ.AF4,CQ.Overall,EQ.SampleRateQuality,EQ.OVERALL,EQ.AF3,EQ.T7,EQ.Pz,EQ.T8,EQ.AF4,MOT.CounterMems,MOT.InterpolatedMems,MOT.Q0,MOT.Q1,MOT.Q2,MOT.Q3,MOT.AccX,MOT.AccY,MOT.AccZ,MOT.MagX,MOT.MagY,MOT.MagZ,MC.Action,MC.ActionPower,MC.IsActive,PM.Engagement.IsActive,PM.Engagement.Scaled,PM.Engagement.Raw,PM.Engagement.Min,PM.Engagement.Max,PM.Excitement.IsActive,PM.Excitement.Scaled,PM.Excitement.Raw,PM.Excitement.Min,PM.Excitement.Max,PM.LongTermExcitement,PM.Stress.IsActive,PM.Stress.Scaled,PM.Stress.Raw,PM.Stress.Min,PM.Stress.Max,PM.Relaxation.IsActive,PM.Relaxation.Scaled,PM.Relaxation.Raw,PM.Relaxation.Min,PM.Relaxation.Max,PM.Interest.IsActive,PM.Interest.Scaled,PM.Interest.Raw,PM.Interest.Min,PM.Interest.Max,PM.Focus.IsActive,PM.Focus.Scaled,PM.Focus.Raw,PM.Focus.Min,PM.Focus.Max,FE.BlinkWink,FE.HorizontalEyesDirection,FE.UpperFaceAction,FE.UpperFaceActionPower,FE.LowerFaceAction,FE.LowerFaceActionPower,POW.AF3.Theta,POW.AF3.Alpha,POW.AF3.BetaL,POW.AF3.BetaH,POW.AF3.Gamma,POW.T7.Theta,POW.T7.Alpha,POW.T7.BetaL,POW.T7.BetaH,POW.T7.Gamma,POW.Pz.Theta,POW.Pz.Alpha,POW.Pz.BetaL,POW.Pz.BetaH,POW.Pz.Gamma,POW.T8.Theta,POW.T8.Alpha,POW.T8.BetaL,POW.T8.BetaH,POW.T8.Gamma,POW.AF4.Theta,POW.AF4.Alpha,POW.AF4.BetaL,POW.AF4.BetaH,POW.AF4.Gamma
27229,1645650810.473676,73.0,0.0,4342.563965,4711.794922,4161.538574,4271.282227000001,4313.846191,0.0,3.0,59.0,39.0,1.0,5.0,0.0,4.0,0.0,4.0,0.0,4.0,33.333332,,,,,,,,,,,,,,,,,,,,,,,,,,,,,,,,,,,,,,,,,,,,,,,,,,,,,,,,,,,,,,,,,,,,,,,,,,,,,,,,,,,,
27230,1645650810.481491,74.0,0.0,4333.846191,4798.461426,4159.487305,4272.307617,4293.333496,450.0,3.0,59.0,,,,0.0,4.0,0.0,4.0,0.0,4.0,33.333332,,,,,,,,37.0,0.0,0.36840700000000004,0.567871,0.14843800000000001,-0.720947,0.94435,-0.20947600000000002,-0.31396999999999997,-0.015571999999999999,-0.050679,-0.034643,,,,,,,,,,,,,,,,,,,,,,,,,,,,,,,,,,,,,,,,,,,,,,,,,,,,,,,,,,,,,,,,,
27231,1645650810.489306,75.0,0.0,4341.025879,4724.615234000001,4206.153809,4271.282227000001,4320.512695,16189.0,3.0,59.0,,,,0.0,4.0,0.0,4.0,0.0,4.0,33.333332,,,,,,,,,,,,,,,,,,,,,,,,,,,,,,,,,,,,,,,,,,,,,,,,,,,,,,0.0,0.0,1.0,0.0,512.0,1.0,,,,,,,,,,,,,,,,,,,,,,,,,
27232,1645650810.49712,76.0,0.0,4318.974121,4455.897461,4164.102539,4265.641113000001,4294.358886999999,450.0,3.0,59.0,,,,0.0,4.0,0.0,4.0,0.0,4.0,33.333332,,,,,,,,38.0,0.0,0.367929,0.567871,0.14843800000000001,-0.721191,0.932631,-0.208011,-0.31787600000000005,-0.016309,-0.050641000000000005,-0.036891,,,,,,,,,,,,,,,,,,,,,,,,,,,,,,,,,,,,,,,,,,,,,,,,,,,,,,,,,,,,,,,,,
27233,1645650810.504935,77.0,0.0,4330.769043,4518.461426,4280.0,4266.153809,4291.282227000001,450.0,3.0,59.0,,,,0.0,4.0,0.0,4.0,0.0,4.0,33.333332,,,,,,,,,,,,,,,,,,,,,,,,,,,,,,,,,,,,,,,,,,,,,,,,,,,,,,,,,,,,,,,,,,,,,,,,,,,,,,,,,,,,
27234,1645650810.512749,78.0,0.0,4418.461426,4777.94873,4274.871582,4273.333496,4370.769043,450.0,3.0,59.0,,,,0.0,4.0,0.0,4.0,0.0,4.0,33.333332,,,,,,,,39.0,0.0,0.368027,0.567871,0.14819300000000002,-0.721191,0.9340959999999999,-0.206546,-0.32422399999999996,-0.015411000000000001,-0.050655,-0.038915,,,,,,,,,,,,,,,,,,,,,,,,,,,,,,,,,,,,,,,,,,,,,,,,,,,,,,,,,,,,,,,,,
27235,1645650810.520664,79.0,0.0,4330.256348,4685.641113000001,4181.025879,4274.358886999999,4300.0,16189.0,3.0,59.0,,,,0.0,4.0,0.0,4.0,0.0,4.0,33.333332,,,,,,,,,,,,,,,,,,,,1.0,0.0,0.0,,,,,,,,,,,,,,,,,,,,,,,,,,,,,,,,0.0,0.0,1.0,0.0,512.0,1.0,3.012473,2.399496,2.176487,2.323706,1.066738,49.393654,28.906140999999998,69.079826,24.772278,11.507272,3.489149,5.150307,1.029039,1.7387689999999998,1.172489,0.011914,0.005522999999999999,0.005051,0.007279000000000001,0.010076,1.264148,2.380985,1.88252,1.835202,1.0379639999999999
27236,1645650810.528478,80.0,0.0,4281.025879,4529.230957,4292.820313,4274.871582,4286.666504,450.0,3.0,59.0,,,,0.0,4.0,0.0,4.0,0.0,4.0,33.333332,,,,,,,,40.0,0.0,0.36802399999999996,0.567627,0.147949,-0.721436,0.932143,-0.20068699999999998,-0.310552,-0.016066999999999998,-0.050619,-0.034437999999999996,,,,,,,,,,,,,,,,,,,,,,,,,,,,,,,,,,,,,,,,,,,,,,,,,,,,,,,,,,,,,,,,,
27237,1645650810.536293,81.0,0.0,4322.05127,4568.717772999999,4341.538574,4277.436035,4324.615234000001,450.0,3.0,59.0,,,,0.0,4.0,0.0,4.0,0.0,4.0,33.333332,,,,,,,,,,,,,,,,,,,,,,,,,,,,,,,,,,,,,,,,,,,,,,,,,,,,,,,,,,,,,,,,,,,,,,,,,,,,,,,,,,,,
27238,1645650810.544107,82.0,0.0,4349.743652,4582.563965,4212.307617,4280.0,4323.589844,450.0,3.0,59.0,,,,0.0,4.0,0.0,4.0,0.0,4.0,33.333332,,,,,,,,41.0,0.0,0.36802399999999996,0.567627,0.147949,-0.721436,0.9340959999999999,-0.208011,-0.314458,-0.016707,-0.050538,-0.036608999999999996,,,,,,,,,,,,,,,,,,,,,,,,,,,,,,,,,,,,,,,,,,,,,,,,,,,,,,,,,,,,,,,,,
27239,1645650810.5519211,83.0,0.0,4260.512695,4610.769043,4147.179688,4280.0,4237.436035,16189.0,3.0,59.0,,,,0.0,4.0,0.0,4.0,0.0,4.0,33.333332,,,,,,,,,,,,,,,,,,,,,,,,,,,,,,,,,,,,,,,,,,,,,,,,,,,,,,0.0,0.0,1.0,0.0,512.0,1.0,,,,,,,,,,,,,,,,,,,,,,,,,
27240,1645650810.559736,84.0,0.0,4299.487305,4629.230957,4268.717772999999,4280.0,4292.307617,450.0,3.0,59.0,,,,0.0,4.0,0.0,4.0,0.0,4.0,33.333332,,,,,,,,42.0,0.0,0.368122,0.567627,0.147705,-0.721436,0.9589989999999999,-0.208499,-0.31104,-0.017184,-0.050513,-0.032362,,,,,,,,,,,,,,,,,,,,,,,,,,,,,,,,,,,,,,,,,,,,,,,,,,,,,,,,,,,,,,,,,
27241,1645650810.56755,85.0,0.0,4329.743652,4575.384765999999,4201.538574,4278.461426,4307.179688,450.0,3.0,59.0,,,,0.0,4.0,0.0,4.0,0.0,4.0,33.333332,,,,,,,,,,,,,,,,,,,,,,,,,,,,,,,,,,,,,,,,,,,,,,,,,,,,,,,,,,,,,,,,,,,,,,,,,,,,,,,,,,,,
27242,1645650810.575465,86.0,0.0,4286.666504,4613.846191,4221.538574,4278.974121,4265.641113000001,450.0,3.0,59.0,,,,0.0,4.0,0.0,4.0,0.0,4.0,33.333332,,,,,,,,43.0,0.0,0.368122,0.567627,0.147705,-0.721436,0.945815,-0.20556999999999997,-0.31396999999999997,-0.015515000000000001,-0.050539999999999995,-0.034839,,,,,,,,,,,,,,,,,,,,,,,,,,,,,,,,,,,,,,,,,,,,,,,,,,,,,,,,,,,,,,,,,
27243,1645650810.583279,87.0,0.0,4308.205078,4707.692383,4235.897461,4281.025879,4291.282227000001,16189.0,3.0,59.0,,,,0.0,4.0,0.0,4.0,0.0,4.0,33.333332,,,,,,,,,,,,,,,,,,,,,,,,,,,,,,,,,,,,,,,,,,,,,,,,,,,,,,0.0,0.0,1.0,0.0,512.0,1.0,,,,,,,,,,,,,,,,,,,,,,,,,
27244,1645650810.591094,88.0,0.0,4312.820313,4686.666504,4192.307617,4279.487305,4281.025879,450.0,3.0,59.0,,,,0.0,4.0,0.0,4.0,0.0,4.0,33.333332,,,,,,,,44.0,0.0,0.36822,0.567627,0.14746099999999998,-0.721436,0.933608,-0.208988,-0.31396999999999997,-0.014696,-0.050662,-0.037068000000000004,,,,,,,,,,,,,,,,,,,,,,,,,,,,,,,,,,,,,,,,,,,,,,,,,,,,,,,,,,,,,,,,,
27245,1645650810.598909,89.0,0.0,4325.128418,4633.333496,4209.230957,4278.974121,4279.487305,450.0,3.0,59.0,,,,0.0,4.0,0.0,4.0,0.0,4.0,33.333332,,,,,,,,,,,,,,,,,,,,,,,,,,,,,,,,,,,,,,,,,,,,,,,,,,,,,,,,,,,,,,,,,,,,,,,,,,,,,,,,,,,,
27246,1645650810.606723,90.0,0.0,4342.05127,4642.563965,4237.94873,4278.461426,4299.487305,450.0,3.0,59.0,,,,0.0,4.0,0.0,4.0,0.0,4.0,33.333332,,,,,,,,45.0,0.0,0.36822,0.567627,0.14746099999999998,-0.721436,0.923842,-0.211429,-0.326177,-0.015423,-0.050674000000000004,-0.039123000000000005,,,,,,,,,,,,,,,,,,,,,,,,,,,,,,,,,,,,,,,,,,,,,,,,,,,,,,,,,,,,,,,,,
27247,1645650810.6145382,91.0,0.0,4360.0,4607.179688,4260.0,4279.487305,4329.743652,16189.0,3.0,59.0,,,,0.0,4.0,0.0,4.0,0.0,4.0,33.333332,,,,,,,,,,,,,,,,,,,,,,,,,,,,,,,,,,,,,,,,,,,,,,,,,,,,,,0.0,0.0,1.0,0.0,512.0,1.0,,,,,,,,,,,,,,,,,,,,,,,,,
27248,1645650810.6223528,92.0,0.0,4351.794922,4611.282227000001,4242.05127,4280.512695,4326.666504,450.0,3.0,59.0,,,,0.0,4.0,0.0,4.0,0.0,4.0,33.333332,,,,,,,,46.0,0.0,0.368215,0.567383,0.14721700000000001,-0.72168,0.920424,-0.206546,-0.316411,-0.016127000000000002,-0.050685,-0.034674,,,,,,,,,,,,,,,,,,,,,,,,,,,,,,,,,,,,,,,,,,,,,,,,,,,,,,,,,,,,,,,,,
27249,1645650810.630167,93.0,0.0,4316.922852000001,4653.333496,4203.077147999999,4280.0,4290.256348,450.0,3.0,59.0,,,,0.0,4.0,0.0,4.0,0.0,4.0,33.333332,,,,,,,,,,,,,,,,,,,,,,,,,,,,,,,,,,,,,,,,,,,,,,,,,,,,,,,,,,,,,,,,,,,,,,,,,,,,,,,,,,,,
27250,1645650810.6379821,94.0,0.0,4316.922852000001,4604.615234000001,4209.743652,4279.487305,4285.128418,450.0,3.0,59.0,,,,0.0,4.0,0.0,4.0,0.0,4.0,33.333332,,,,,,,,47.0,0.0,0.368693,0.567383,0.14721700000000001,-0.721436,0.95314,-0.197269,-0.31201599999999996,-0.016712,-0.050597,-0.030718000000000002,,,,,,,,,,,,,,,,,,,,,,,,,,,,,,,,,,,,,,,,,,,,,,,,,,,,,,,,,,,,,,,,,
27251,1645650810.6458962,95.0,0.0,4340.512695,4616.410156,4223.077147999999,4279.487305,4304.102539,16189.0,3.0,59.0,,,,0.0,4.0,0.0,4.0,0.0,4.0,33.333332,1.0,25.0,4.0,0.0,3.0,0.0,3.0,,,,,,,,,,,,,1.0,0.0,0.0,,,,,,,,,,,,,,,,,,,,,,,,,,,,,,,,0.0,0.0,1.0,0.0,512.0,0.9410540000000001,2.924014,2.623646,2.657163,2.213922,1.057595,51.81488,27.573378,81.299339,24.955664000000002,13.537521,3.683361,4.710906,1.412467,1.7050830000000001,1.180775,0.012858000000000001,0.005371,0.00633,0.0060869999999999995,0.008284999999999999,1.582056,2.384934,1.866239,1.74134,1.083244
27252,1645650810.6537108,96.0,0.0,4339.487305,4712.820313,4221.025879,4278.974121,4296.922852000001,450.0,3.0,59.0,,,,0.0,4.0,0.0,4.0,0.0,4.0,33.333332,,,,,,,,48.0,0.0,0.368317,0.567627,0.14721700000000001,-0.721436,0.9629049999999999,-0.21386999999999998,-0.318364,-0.017336,-0.050664,-0.033213,,,,,,,,,,,,,,,,,,,,,,,,,,,,,,,,,,,,,,,,,,,,,,,,,,,,,,,,,,,,,,,,,
27253,1645650810.661526,97.0,0.0,4330.256348,4676.410156,4216.922852000001,4280.0,4289.230957,450.0,3.0,59.0,,,,0.0,4.0,0.0,4.0,0.0,4.0,33.333332,,,,,,,,,,,,,,,,,,,,,,,,,,,,,,,,,,,,,,,,,,,,,,,,,,,,,,,,,,,,,,,,,,,,,,,,,,,,,,,,,,,,
27254,1645650810.6693401,98.0,0.0,4341.538574,4609.230957,4236.922852000001,4280.0,4301.538574,450.0,3.0,59.0,,,,0.0,4.0,0.0,4.0,0.0,4.0,33.333332,,,,,,,,49.0,0.0,0.368215,0.567383,0.14721700000000001,-0.72168,0.920424,-0.206546,-0.316411,-0.017848,-0.050676,-0.029354,,,,,,,,,,,,,,,,,,,,,,,,,,,,,,,,,,,,,,,,,,,,,,,,,,,,,,,,,,,,,,,,,
27255,1645650810.677155,99.0,0.0,4357.94873,4670.256348,4228.205078,4280.512695,4307.179688,16189.0,3.0,59.0,,,,0.0,4.0,0.0,4.0,0.0,4.0,33.333332,,,,,,,,,,,,,,,,,,,,,,,,,,,,,,,,,,,,,,,,,,,,,,,,,,,,,,0.0,0.0,1.0,0.0,512.0,0.9410540000000001,,,,,,,,,,,,,,,,,,,,,,,,,
27256,1645650810.68497,100.0,0.0,4351.282227000001,4725.641113000001,4216.410156,4281.025879,4297.436035,450.0,3.0,59.0,,,,0.0,4.0,0.0,4.0,0.0,4.0,33.333332,,,,,,,,50.0,0.0,0.369171,0.567383,0.14721700000000001,-0.721191,0.94435,-0.21435900000000002,-0.318853,-0.018261000000000003,-0.050735,-0.025882,,,,,,,,,,,,,,,,,,,,,,,,,,,,,,,,,,,,,,,,,,,,,,,,,,,,,,,,,,,,,,,,,
27257,1645650810.692784,101.0,0.0,4332.307617,4702.05127,4215.384765999999,4280.0,4292.820313,450.0,3.0,59.0,,,,0.0,4.0,0.0,4.0,0.0,4.0,33.333332,,,,,,,,,,,,,,,,,,,,,,,,,,,,,,,,,,,,,,,,,,,,,,,,,,,,,,,,,,,,,,,,,,,,,,,,,,,,,,,,,,,,
27258,1645650810.700599,102.0,0.0,4318.974121,4714.358886999999,4222.563965,4280.0,4286.666504,450.0,3.0,59.0,,,,0.0,4.0,0.0,4.0,0.0,4.0,33.333332,,,,,,,,51.0,0.0,0.369268,0.567383,0.146973,-0.721191,0.931167,-0.22266,-0.31250500000000003,-0.01873,-0.050691,-0.029006999999999998,,,,,,,,,,,,,,,,,,,,,,,,,,,,,,,,,,,,,,,,,,,,,,,,,,,,,,,,,,,,,,,,,
27259,1645650810.708414,103.0,0.0,4322.563965,4686.666504,4227.179688,4280.512695,4289.230957,16189.0,3.0,59.0,,,,0.0,4.0,0.0,4.0,0.0,4.0,33.333332,,,,,,,,,,,,,,,,,,,,,,,,,,,,,,,,,,,,,,,,,,,,,,,,,,,,,,0.0,0.0,1.0,0.0,512.0,0.9410540000000001,,,,,,,,,,,,,,,,,,,,,,,,,
27260,1645650810.716328,104.0,0.0,4332.820313,4573.846191,4240.0,4280.0,4299.487305,450.0,3.0,59.0,,,,0.0,4.0,0.0,4.0,0.0,4.0,33.333332,,,,,,,,52.0,0.0,0.369268,0.567383,0.146973,-0.721191,0.9438620000000001,-0.201663,-0.316899,-0.019152000000000002,-0.050749,-0.031672000000000006,,,,,,,,,,,,,,,,,,,,,,,,,,,,,,,,,,,,,,,,,,,,,,,,,,,,,,,,,,,,,,,,,
27261,1645650810.724142,105.0,0.0,4341.025879,4555.384765999999,4241.025879,4280.0,4316.922852000001,450.0,3.0,59.0,,,,0.0,4.0,0.0,4.0,0.0,4.0,33.333332,,,,,,,,,,,,,,,,,,,,,,,,,,,,,,,,,,,,,,,,,,,,,,,,,,,,,,,,,,,,,,,,,,,,,,,,,,,,,,,,,,,,
27262,1645650810.731957,106.0,0.0,4314.871582,4642.05127,4208.205078,4280.0,4301.538574,450.0,3.0,59.0,,,,0.0,4.0,0.0,4.0,0.0,4.0,33.333332,,,,,,,,53.0,0.0,0.368795,0.567627,0.14721700000000001,-0.721191,0.9428850000000001,-0.21875300000000003,-0.305669,-0.01958,-0.050655,-0.034169,,,,,,,,,,,,,,,,,,,,,,,,,,,,,,,,,,,,,,,,,,,,,,,,,,,,,,,,,,,,,,,,,
27263,1645650810.7397711,107.0,0.0,4301.025879,4687.179688,4189.743652,4278.974121,4275.384765999999,16189.0,3.0,59.0,,,,0.0,4.0,0.0,4.0,0.0,4.0,33.333332,,,,,,,,,,,,,,,,,,,,,,,,,,,,,,,,,,,,,,,,,,,,,,,,,,,,,,0.0,0.0,1.0,0.0,512.0,0.9410540000000001,,,,,,,,,,,,,,,,,,,,,,,,,
27264,1645650810.747586,108.0,0.0,4319.487305,4696.922852000001,4197.436035,4278.974121,4269.230957,450.0,3.0,59.0,,,,0.0,4.0,0.0,4.0,0.0,4.0,33.333332,,,,,,,,54.0,0.0,0.368795,0.567627,0.14721700000000001,-0.721191,0.926284,-0.221683,-0.319829,-0.019819,-0.050716000000000004,-0.030313,,,,,,,,,,,,,,,,,,,,,,,,,,,,,,,,,,,,,,,,,,,,,,,,,,,,,,,,,,,,,,,,,
27265,1645650810.7554,109.0,0.0,4332.820313,4705.641113000001,4220.0,4280.0,4287.179688,450.0,3.0,59.0,,,,0.0,4.0,0.0,4.0,0.0,4.0,33.333332,,,,,,,,,,,,,,,,,,,,,,,,,,,,,,,,,,,,,,,,,,,,,,,,,,,,,,,,,,,,,,,,,,,,,,,,,,,,,,,,,,,,
27266,1645650810.763214,110.0,0.0,4314.871582,4661.538574,4209.743652,4278.461426,4279.487305,450.0,3.0,59.0,,,,0.0,4.0,0.0,4.0,0.0,4.0,33.333332,,,,,,,,55.0,0.0,0.369268,0.567383,0.146973,-0.721191,0.93019,-0.21484699999999998,-0.316899,-0.018423,-0.050674000000000004,-0.032897,,,,,,,,,,,,,,,,,,,,,,,,,,,,,,,,,,,,,,,,,,,,,,,,,,,,,,,,,,,,,,,,,
27267,1645650810.771029,111.0,0.0,4304.615234000001,4581.025879,4209.743652,4278.461426,4269.743652,16189.0,3.0,59.0,,,,0.0,4.0,0.0,4.0,0.0,4.0,33.333332,,,,,,,,,,,,,,,,,,,,1.0,0.0,0.0,,,,,,,,,,,,,,,,,,,,,,,,,,,,,,,,0.0,0.0,1.0,0.0,512.0,0.8457549999999999,2.887927,2.927161,2.99363,1.9562220000000001,1.110757,53.386467,28.376101000000002,91.19013199999999,27.16835,16.139288,4.620773000000001,4.9835,1.955309,1.853335,1.427597,0.017262,0.006439,0.007829000000000001,0.005163,0.0068379999999999995,2.132883,2.562065,1.800803,1.689888,1.21278
27268,1645650810.778943,112.0,0.0,4294.358886999999,4546.666504,4216.922852000001,4280.512695,4275.897461,450.0,3.0,59.0,,,,0.0,4.0,0.0,4.0,0.0,4.0,33.333332,,,,,,,,56.0,0.0,0.369268,0.567383,0.146973,-0.721191,0.9350729999999999,-0.210452,-0.316899,-0.018778,-0.050685,-0.028972,,,,,,,,,,,,,,,,,,,,,,,,,,,,,,,,,,,,,,,,,,,,,,,,,,,,,,,,,,,,,,,,,
27269,1645650810.786758,113.0,0.0,4290.256348,4555.384765999999,4235.384765999999,4280.0,4278.461426,450.0,3.0,59.0,,,,0.0,4.0,0.0,4.0,0.0,4.0,33.333332,,,,,,,,,,,,,,,,,,,,,,,,,,,,,,,,,,,,,,,,,,,,,,,,,,,,,,,,,,,,,,,,,,,,,,,,,,,,,,,,,,,,
27270,1645650810.794573,114.0,0.0,4307.179688,4572.820313,4229.230957,4278.974121,4282.563965,450.0,3.0,59.0,,,,0.0,4.0,0.0,4.0,0.0,4.0,33.333332,,,,,,,,57.0,0.0,0.369369,0.567627,0.146973,-0.720947,0.9511860000000001,-0.21338200000000002,-0.31299299999999997,-0.017487,-0.050646,-0.031788,,,,,,,,,,,,,,,,,,,,,,,,,,,,,,,,,,,,,,,,,,,,,,,,,,,,,,,,,,,,,,,,,
27271,1645650810.802387,115.0,0.0,4313.333496,4569.230957,4225.641113000001,4279.487305,4279.487305,16189.0,3.0,59.0,,,,0.0,4.0,0.0,4.0,0.0,4.0,33.333332,,,,,,,,,,,,,,,,,,,,,,,,,,,,,,,,,,,,,,,,,,,,,,,,,,,,,,0.0,0.0,1.0,0.0,512.0,0.8457549999999999,,,,,,,,,,,,,,,,,,,,,,,,,
27272,1645650810.810202,116.0,0.0,4312.820313,4595.897461,4207.692383,4280.0,4262.563965,450.0,3.0,59.0,,,,0.0,4.0,0.0,4.0,0.0,4.0,33.333332,,,,,,,,58.0,0.0,0.369272,0.567627,0.14721700000000001,-0.720947,0.929213,-0.21631199999999998,-0.31104,-0.016324,-0.050658999999999996,-0.034225,,,,,,,,,,,,,,,,,,,,,,,,,,,,,,,,,,,,,,,,,,,,,,,,,,,,,,,,,,,,,,,,,
27273,1645650810.818017,117.0,0.0,4299.487305,4692.820313,4187.692383,4278.974121,4245.128418,450.0,3.0,59.0,,,,0.0,4.0,0.0,4.0,0.0,4.0,33.333332,,,,,,,,,,,,,,,,,,,,,,,,,,,,,,,,,,,,,,,,,,,,,,,,,,,,,,,,,,,,,,,,,,,,,,,,,,,,,,,,,,,,
27274,1645650810.825831,118.0,0.0,4294.871582,4708.717772999999,4193.333496,4278.974121,4256.922852000001,450.0,3.0,59.0,,,,0.0,4.0,0.0,4.0,0.0,4.0,33.333332,,,,,,,,59.0,0.0,0.369748,0.567627,0.14721700000000001,-0.720703,0.934585,-0.21484699999999998,-0.314458,-0.016888999999999998,-0.050769,-0.036418,,,,,,,,,,,,,,,,,,,,,,,,,,,,,,,,,,,,,,,,,,,,,,,,,,,,,,,,,,,,,,,,,
27275,1645650810.833646,119.0,0.0,4319.487305,4622.05127,4221.025879,4278.974121,4283.077147999999,16189.0,3.0,59.0,,,,0.0,4.0,0.0,4.0,0.0,4.0,33.333332,,,,,,,,,,,,,,,,,,,,,,,,,,,,,,,,,,,,,,,,,,,,,,,,,,,,,,0.0,0.0,1.0,0.0,512.0,0.8457549999999999,,,,,,,,,,,,,,,,,,,,,,,,,
27276,1645650810.841461,120.0,0.0,4343.589844,4614.358886999999,4228.717772999999,4278.974121,4305.641113000001,450.0,3.0,59.0,,,,0.0,4.0,0.0,4.0,0.0,4.0,33.333332,,,,,,,,60.0,0.0,0.369373,0.567871,0.14721700000000001,-0.720703,0.9423969999999999,-0.206058,-0.321782,-0.017495,-0.050722,-0.032189999999999996,,,,,,,,,,,,,,,,,,,,,,,,,,,,,,,,,,,,,,,,,,,,,,,,,,,,,,,,,,,,,,,,,
27277,1645650810.849375,121.0,0.0,4316.922852000001,4678.974121,4201.025879,4278.974121,4291.794922,450.0,3.0,59.0,,,,0.0,4.0,0.0,4.0,0.0,4.0,33.333332,,,,,,,,,,,,,,,,,,,,,,,,,,,,,,,,,,,,,,,,,,,,,,,,,,,,,,,,,,,,,,,,,,,,,,,,,,,,,,,,,,,,
27278,1645650810.8571901,122.0,0.0,4303.077147999999,4690.769043,4184.102539,4279.487305,4278.974121,450.0,3.0,59.0,,,,0.0,4.0,0.0,4.0,0.0,4.0,33.333332,,,,,,,,61.0,0.0,0.369471,0.567871,0.146973,-0.720703,0.945815,-0.208988,-0.309575,-0.017991,-0.050727999999999995,-0.034733,,,,,,,,,,,,,,,,,,,,,,,,,,,,,,,,,,,,,,,,,,,,,,,,,,,,,,,,,,,,,,,,,
27279,1645650810.8650038,123.0,0.0,4326.666504,4700.512695,4196.410156,4280.0,4286.153809,16189.0,3.0,59.0,,,,0.0,4.0,0.0,4.0,0.0,4.0,33.333332,,,,,,,,,,,,,,,,,,,,,,,,,,,,,,,,,,,,,,,,,,,,,,,,,,,,,,0.0,0.0,1.0,0.0,512.0,0.8457549999999999,,,,,,,,,,,,,,,,,,,,,,,,,
27280,1645650810.872819,124.0,0.0,4340.512695,4723.589844,4222.563965,4278.974121,4294.358886999999,450.0,3.0,59.0,,,,0.0,4.0,0.0,4.0,0.0,4.0,33.333332,,,,,,,,62.0,0.0,0.369571,0.5681149999999999,0.146973,-0.720459,0.9521629999999999,-0.223636,-0.315923,-0.018341,-0.050636,-0.037021,,,,,,,,,,,,,,,,,,,,,,,,,,,,,,,,,,,,,,,,,,,,,,,,,,,,,,,,,,,,,,,,,
27281,1645650810.880634,125.0,0.0,4326.153809,4638.461426,4220.512695,4279.487305,4278.461426,450.0,3.0,59.0,,,,0.0,4.0,0.0,4.0,0.0,4.0,33.333332,,,,,,,,,,,,,,,,,,,,,,,,,,,,,,,,,,,,,,,,,,,,,,,,,,,,,,,,,,,,,,,,,,,,,,,,,,,,,,,,,,,,
27282,1645650810.888448,126.0,0.0,4322.05127,4536.410156,4220.512695,4281.025879,4277.94873,450.0,3.0,59.0,,,,0.0,4.0,0.0,4.0,0.0,4.0,33.333332,,,,,,,,63.0,0.0,0.369571,0.5681149999999999,0.146973,-0.720459,0.9282370000000001,-0.21386999999999998,-0.309087,-0.018753,-0.05065,-0.032733,,,,,,,,,,,,,,,,,,,,,,,,,,,,,,,,,,,,,,,,,,,,,,,,,,,,,,,,,,,,,,,,,
27283,1645650810.8962631,127.0,0.0,4316.410156,4562.05127,4217.94873,4280.512695,4289.230957,235.0,3.0,59.0,,,,0.0,4.0,0.0,4.0,0.0,4.0,33.333332,,,,,,,,,,,,,,,,,,,,1.0,0.0,0.0,,,,,,,,,,,,,,,,,,,,,,,,,,,,,,,,0.0,0.0,1.0,0.0,512.0,1.0,2.859528,3.296071,3.102211,1.6620529999999998,1.311186,52.360896999999994,30.807039000000003,95.435425,32.697701,19.578530999999998,6.388337,6.22952,2.655169,2.284639,2.2112119999999997,0.029008,0.009902,0.010381999999999999,0.005035,0.006307,2.801648,2.900836,1.665377,1.704323,1.498739
27284,1645650810.904078,0.0,0.0,4304.615234000001,4616.922852000001,4224.615234000001,4278.974121,4287.179688,450.0,3.0,59.0,,,,0.0,4.0,0.0,4.0,0.0,4.0,33.333332,,,,,,,,0.0,0.0,0.369668,0.5681149999999999,0.146729,-0.720459,0.938003,-0.20556999999999997,-0.316411,-0.019173,-0.050615,-0.028874,,,,,,,,,,,,,,,,,,,,,,,,,,,,,,,,,,,,,,,,,,,,,,,,,,,,,,,,,,,,,,,,,
27285,1645650810.911892,1.0,0.0,4301.538574,4606.153809,4215.897461,4280.0,4280.0,450.0,3.0,59.0,,,,0.0,4.0,0.0,4.0,0.0,4.0,33.333332,,,,,,,,,,,,,,,,,,,,,,,,,,,,,,,,,,,,,,,,,,,,,,,,,,,,,,,,,,,,,,,,,,,,,,,,,,,,,,,,,,,,
27286,1645650810.919807,2.0,0.0,4307.692383,4617.436035,4223.589844,4280.512695,4275.897461,16212.0,3.0,59.0,,,,0.0,4.0,0.0,4.0,0.0,4.0,33.333332,,,,,,,,1.0,0.0,0.369769,0.5683590000000001,0.146729,-0.7202149999999999,0.937026,-0.206546,-0.302739,-0.01789,-0.05068,-0.031602,,,,,,,,,,,,,,,,,,,,,,,,,,,,,,,,,,,,,,,,,,,,,,,,,,,,,,,,,,,,,,,,,
27287,1645650810.9276211,3.0,0.0,4318.461426,4682.563965,4207.179688,4279.487305,4268.205078,450.0,3.0,59.0,,,,0.0,4.0,0.0,4.0,0.0,4.0,33.333332,,,,,,,,,,,,,,,,,,,,,,,,,,,,,,,,,,,,,,,,,,,,,,,,,,,,,,0.0,0.0,1.0,0.0,512.0,1.0,,,,,,,,,,,,,,,,,,,,,,,,,
27288,1645650810.935435,4.0,0.0,4317.94873,4708.205078,4202.05127,4279.487305,4266.153809,0.0,3.0,59.0,,,,0.0,4.0,0.0,4.0,0.0,4.0,33.333332,,,,,,,,2.0,0.0,0.369769,0.5683590000000001,0.146729,-0.7202149999999999,0.9331200000000001,-0.211429,-0.310552,-0.015746,-0.050743,-0.036315,,,,,,,,,,,,,,,,,,,,,,,,,,,,,,,,,,,,,,,,,,,,,,,,,,,,,,,,,,,,,,,,,
27289,1645650810.94325,5.0,0.0,4328.205078,4651.794922,4229.230957,4280.0,4289.743652,450.0,3.0,59.0,,,,0.0,4.0,0.0,4.0,0.0,4.0,33.333332,,,,,,,,,,,,,,,,,,,,,,,,,,,,,,,,,,,,,,,,,,,,,,,,,,,,,,,,,,,,,,,,,,,,,,,,,,,,,,,,,,,,
27290,1645650810.951064,6.0,0.0,4338.974121,4582.563965,4244.615234000001,4278.974121,4304.615234000001,16125.0,3.0,59.0,,,,0.0,4.0,0.0,4.0,0.0,4.0,33.333332,,,,,,,,3.0,0.0,0.369668,0.5681149999999999,0.146729,-0.720459,0.938003,-0.20556999999999997,-0.316411,-0.016368999999999998,-0.050698,-0.038446,,,,,,,,,,,,,,,,,,,,,,,,,,,,,,,,,,,,,,,,,,,,,,,,,,,,,,,,,,,,,,,,,
27291,1645650810.958879,7.0,0.0,4333.333496,4578.974121,4227.692383,4278.461426,4303.077147999999,450.0,3.0,59.0,,,,0.0,4.0,0.0,4.0,0.0,4.0,33.333332,,,,,,,,,,,,,,,,,,,,,,,,,,,,,,,,,,,,,,,,,,,,,,,,,,,,,,0.0,0.0,1.0,0.0,512.0,1.0,,,,,,,,,,,,,,,,,,,,,,,,,
27292,1645650810.966693,8.0,0.0,4323.077147999999,4630.256348,4221.538574,4278.974121,4298.461426,450.0,3.0,59.0,,,,0.0,4.0,0.0,4.0,0.0,4.0,33.333332,,,,,,,,4.0,0.0,0.369769,0.5683590000000001,0.146729,-0.7202149999999999,0.9331200000000001,-0.211429,-0.310552,-0.015415,-0.050707,-0.040264999999999995,,,,,,,,,,,,,,,,,,,,,,,,,,,,,,,,,,,,,,,,,,,,,,,,,,,,,,,,,,,,,,,,,
27293,1645650810.974608,9.0,0.0,4335.897461,4655.897461,4222.05127,4279.487305,4307.179688,0.0,3.0,59.0,,,,0.0,4.0,0.0,4.0,0.0,4.0,33.333332,,,,,,,,,,,,,,,,,,,,,,,,,,,,,,,,,,,,,,,,,,,,,,,,,,,,,,,,,,,,,,,,,,,,,,,,,,,,,,,,,,,,
27294,1645650810.982422,10.0,0.0,4335.384765999999,4664.102539,4201.538574,4278.974121,4304.615234000001,450.0,3.0,59.0,,,,0.0,4.0,0.0,4.0,0.0,4.0,33.333332,,,,,,,,5.0,0.0,0.369866,0.5683590000000001,0.146484,-0.7202149999999999,0.946792,-0.206058,-0.309575,-0.016071000000000002,-0.050666,-0.035702,,,,,,,,,,,,,,,,,,,,,,,,,,,,,,,,,,,,,,,,,,,,,,,,,,,,,,,,,,,,,,,,,
27295,1645650810.990237,11.0,0.0,4340.512695,4715.384765999999,4212.820313,4280.0,4312.307617,16203.0,3.0,59.0,,,,0.0,4.0,0.0,4.0,0.0,4.0,33.333332,,,,,,,,,,,,,,,,,,,,,,,,,,,,,,,,,,,,,,,,,,,,,,,,,,,,,,0.0,0.0,1.0,0.0,512.0,1.0,,,,,,,,,,,,,,,,,,,,,,,,,
27296,1645650810.998051,12.0,0.0,4350.256348,4729.743652,4231.794922,4280.0,4314.871582,450.0,3.0,59.0,,,,0.0,4.0,0.0,4.0,0.0,4.0,33.333332,,,,,,,,6.0,0.0,0.369866,0.5683590000000001,0.146484,-0.7202149999999999,0.9423969999999999,-0.21435900000000002,-0.315923,-0.01671,-0.050726,-0.037893,,,,,,,,,,,,,,,,,,,,,,,,,,,,,,,,,,,,,,,,,,,,,,,,,,,,,,,,,,,,,,,,,
27297,1645650811.005866,13.0,0.0,4341.538574,4660.0,4225.641113000001,4278.974121,4308.205078,450.0,3.0,59.0,,,,0.0,4.0,0.0,4.0,0.0,4.0,33.333332,,,,,,,,,,,,,,,,,,,,,,,,,,,,,,,,,,,,,,,,,,,,,,,,,,,,,,,,,,,,,,,,,,,,,,,,,,,,,,,,,,,,
27298,1645650811.0136812,14.0,0.0,4311.794922,4598.461426,4214.871582,4278.461426,4295.384765999999,450.0,3.0,59.0,,,,0.0,4.0,0.0,4.0,0.0,4.0,33.333332,,,,,,,,7.0,0.0,0.369866,0.5683590000000001,0.146484,-0.7202149999999999,0.934585,-0.21924200000000002,-0.309575,-0.017383000000000003,-0.05078,-0.033567,,,,,,,,,,,,,,,,,,,,,,,,,,,,,,,,,,,,,,,,,,,,,,,,,,,,,,,,,,,,,,,,,
27299,1645650811.0214949,15.0,0.0,4313.333496,4594.358886999999,4248.205078,4278.974121,4300.0,16203.0,3.0,59.0,,,,0.0,4.0,0.0,4.0,0.0,4.0,33.333332,,,,,,,,,,,,,,,,,,,,1.0,0.0,0.0,,,,,,,,,,,,,,,,,,,,,,,,,,,,,,,,0.0,0.0,1.0,0.0,512.0,1.0,2.90862,3.7279050000000002,2.9703880000000003,1.44687,1.710086,48.876083,34.090588000000004,92.496811,41.280079,23.815610999999997,8.822113,8.437643,3.5017160000000005,2.9731970000000003,3.6710540000000003,0.049704000000000005,0.016305,0.014698,0.005887,0.006934999999999999,3.413175,3.334275,1.473149,1.774256,1.9784240000000002
27300,1645650811.02931,16.0,0.0,4344.102539,4618.461426,4262.05127,4279.487305,4320.512695,0.0,3.0,59.0,,,,0.0,4.0,0.0,4.0,0.0,4.0,33.333332,,,,,,,,8.0,0.0,0.370437,0.5683590000000001,0.14624,-0.719971,0.9463030000000001,-0.217777,-0.309575,-0.017988,-0.050829,-0.035923000000000004,,,,,,,,,,,,,,,,,,,,,,,,,,,,,,,,,,,,,,,,,,,,,,,,,,,,,,,,,,,,,,,,,
27301,1645650811.037225,17.0,0.0,4344.102539,4620.512695,4260.512695,4278.461426,4324.102539,0.0,3.0,59.0,,,,0.0,4.0,0.0,4.0,0.0,4.0,33.333332,,,,,,,,,,,,,,,,,,,,,,,,,,,,,,,,,,,,,,,,,,,,,,,,,,,,,,,,,,,,,,,,,,,,,,,,,,,,,,,,,,,,
27302,1645650811.0450392,18.0,0.0,4316.410156,4605.128418,4241.025879,4277.94873,4308.717772999999,0.0,3.0,59.0,,,,0.0,4.0,0.0,4.0,0.0,4.0,33.333332,,,,,,,,9.0,0.0,0.370437,0.5683590000000001,0.14624,-0.719971,0.938003,-0.21338200000000002,-0.320806,-0.018436,-0.050825,-0.031695999999999995,,,,,,,,,,,,,,,,,,,,,,,,,,,,,,,,,,,,,,,,,,,,,,,,,,,,,,,,,,,,,,,,,
27303,1645650811.0528538,19.0,0.0,4306.666504,4557.94873,4241.025879,4279.487305,4303.589844,0.0,3.0,59.0,,,,0.0,4.0,0.0,4.0,0.0,4.0,33.333332,,,,,,,,,,,,,,,,,,,,,,,,,,,,,,,,,,,,,,,,,,,,,,,,,,,,,,0.0,0.0,1.0,0.0,512.0,1.0,,,,,,,,,,,,,,,,,,,,,,,,,
27304,1645650811.060669,20.0,0.0,4330.769043,4561.025879,4229.743652,4280.0,4318.461426,0.0,3.0,59.0,,,,0.0,4.0,0.0,4.0,0.0,4.0,33.333332,,,,,,,,10.0,0.0,0.370437,0.5683590000000001,0.14624,-0.719971,0.9463030000000001,-0.21826500000000001,-0.313481,-0.018741,-0.05082,-0.034142,,,,,,,,,,,,,,,,,,,,,,,,,,,,,,,,,,,,,,,,,,,,,,,,,,,,,,,,,,,,,,,,,
27305,1645650811.068483,21.0,0.0,4349.230957,4640.0,4220.512695,4278.974121,4331.282227000001,0.0,3.0,59.0,,,,0.0,4.0,0.0,4.0,0.0,4.0,33.333332,,,,,,,,,,,,,,,,,,,,,,,,,,,,,,,,,,,,,,,,,,,,,,,,,,,,,,,,,,,,,,,,,,,,,,,,,,,,,,,,,,,,
27306,1645650811.076298,22.0,0.0,4362.563965,4631.794922,4226.666504,4279.487305,4337.94873,0.0,3.0,59.0,,,,0.0,4.0,0.0,4.0,0.0,4.0,33.333332,,,,,,,,11.0,0.0,0.370533,0.5683590000000001,0.14599600000000001,-0.719971,0.9282370000000001,-0.21386999999999998,-0.314458,-0.019112999999999998,-0.050865,-0.030093,,,,,,,,,,,,,,,,,,,,,,,,,,,,,,,,,,,,,,,,,,,,,,,,,,,,,,,,,,,,,,,,,
27307,1645650811.084112,23.0,0.0,4362.05127,4621.538574,4231.282227000001,4279.487305,4321.025879,0.0,3.0,59.0,,,,0.0,4.0,0.0,4.0,0.0,4.0,33.333332,,,,,,,,,,,,,,,,,,,,,,,,,,,,,,,,,,,,,,,,,,,,,,,,,,,,,,0.0,0.0,1.0,0.0,512.0,1.0,,,,,,,,,,,,,,,,,,,,,,,,,
27308,1645650811.091927,24.0,0.0,4352.820313,4714.871582,4216.410156,4278.974121,4296.922852000001,0.0,3.0,59.0,,,,0.0,4.0,0.0,4.0,0.0,4.0,33.333332,,,,,,,,12.0,0.0,0.370533,0.5683590000000001,0.14599600000000001,-0.719971,0.936049,-0.21240599999999998,-0.306157,-0.019399,-0.050857,-0.032796,,,,,,,,,,,,,,,,,,,,,,,,,,,,,,,,,,,,,,,,,,,,,,,,,,,,,,,,,,,,,,,,,
27309,1645650811.099742,25.0,0.0,4350.256348,4691.282227000001,4217.94873,4280.512695,4285.128418,0.0,3.0,59.0,,,,0.0,4.0,0.0,4.0,0.0,4.0,33.333332,,,,,,,,,,,,,,,,,,,,,,,,,,,,,,,,,,,,,,,,,,,,,,,,,,,,,,,,,,,,,,,,,,,,,,,,,,,,,,,,,,,,
27310,1645650811.107656,26.0,0.0,4347.692383,4558.461426,4238.461426,4281.025879,4297.94873,0.0,3.0,59.0,,,,0.0,4.0,0.0,4.0,0.0,4.0,33.333332,,,,,,,,13.0,0.0,0.370533,0.5683590000000001,0.14599600000000001,-0.719971,0.9428850000000001,-0.201175,-0.306645,-0.019754,-0.05085,-0.028980000000000002,,,,,,,,,,,,,,,,,,,,,,,,,,,,,,,,,,,,,,,,,,,,,,,,,,,,,,,,,,,,,,,,,
27311,1645650811.1154711,27.0,0.0,4318.974121,4625.128418,4223.589844,4278.974121,4288.205078,0.0,3.0,59.0,,,,0.0,4.0,0.0,4.0,0.0,4.0,33.333332,,,,,,,,,,,,,,,,,,,,,,,,,,,,,,,,,,,,,,,,,,,,,,,,,,,,,,0.0,0.0,1.0,0.0,512.0,1.0,,,,,,,,,,,,,,,,,,,,,,,,,
27312,1645650811.123286,28.0,0.0,4331.282227000001,4700.512695,4226.666504,4278.974121,4292.307617,0.0,3.0,59.0,,,,0.0,4.0,0.0,4.0,0.0,4.0,33.333332,,,,,,,,14.0,0.0,0.370533,0.5683590000000001,0.14599600000000001,-0.719971,0.9389790000000001,-0.2168,-0.31787600000000005,-0.018511,-0.050843,-0.031941000000000004,,,,,,,,,,,,,,,,,,,,,,,,,,,,,,,,,,,,,,,,,,,,,,,,,,,,,,,,,,,,,,,,,
27313,1645650811.1311,29.0,0.0,4352.307617,4600.512695,4242.563965,4279.487305,4308.205078,0.0,3.0,59.0,,,,0.0,4.0,0.0,4.0,0.0,4.0,33.333332,,,,,,,,,,,,,,,,,,,,,,,,,,,,,,,,,,,,,,,,,,,,,,,,,,,,,,,,,,,,,,,,,,,,,,,,,,,,,,,,,,,,
27314,1645650811.138915,30.0,0.0,4343.077147999999,4615.897461,4241.538574,4278.974121,4298.974121,0.0,3.0,59.0,,,,0.0,4.0,0.0,4.0,0.0,4.0,33.333332,,,,,,,,15.0,0.0,0.370533,0.5683590000000001,0.14599600000000001,-0.719971,0.93019,-0.21435900000000002,-0.323247,-0.017343,-0.050788,-0.028258999999999996,,,,,,,,,,,,,,,,,,,,,,,,,,,,,,,,,,,,,,,,,,,,,,,,,,,,,,,,,,,,,,,,,
27315,1645650811.1467302,31.0,0.0,4343.589844,4708.205078,4222.563965,4278.974121,4294.358886999999,0.0,3.0,59.0,,,,0.0,4.0,0.0,4.0,0.0,4.0,33.333332,1.0,25.0,3.0,0.0,3.0,0.0,3.0,,,,,,,,,,,,,1.0,0.0,0.0,,,,,,,,,,,,,,,,,,,,,,,,,,,,,,,,0.0,0.0,1.0,0.0,512.0,1.0,3.147329,4.187407,2.6629,1.3717979999999999,2.274037,44.60841,37.286842,82.933914,51.135044,28.241171,11.46112,11.157969,4.397835,3.767667,5.618268,0.076677,0.02494,0.020605000000000002,0.00743,0.008459,3.813158,3.7543379999999997,1.237479,1.862209,2.5987810000000002
27316,1645650811.1545439,32.0,0.0,4358.461426,4738.974121,4227.692383,4279.487305,4315.384765999999,0.0,3.0,59.0,,,,0.0,4.0,0.0,4.0,0.0,4.0,33.333332,,,,,,,,16.0,0.0,0.370533,0.5683590000000001,0.14599600000000001,-0.719971,0.936049,-0.223636,-0.323735,-0.016293000000000002,-0.050787,-0.031145999999999997,,,,,,,,,,,,,,,,,,,,,,,,,,,,,,,,,,,,,,,,,,,,,,,,,,,,,,,,,,,,,,,,,
27317,1645650811.162359,33.0,0.0,4352.307617,4758.461426,4215.384765999999,4280.0,4305.641113000001,0.0,3.0,59.0,,,,0.0,4.0,0.0,4.0,0.0,4.0,33.333332,,,,,,,,,,,,,,,,,,,,,,,,,,,,,,,,,,,,,,,,,,,,,,,,,,,,,,,,,,,,,,,,,,,,,,,,,,,,,,,,,,,,
27318,1645650811.170173,34.0,0.0,4338.974121,4701.538574,4217.436035,4278.974121,4283.589844,0.0,3.0,59.0,,,,0.0,4.0,0.0,4.0,0.0,4.0,33.333332,,,,,,,,17.0,0.0,0.370533,0.5683590000000001,0.14599600000000001,-0.719971,0.9423969999999999,-0.207523,-0.314946,-0.015444999999999999,-0.050787,-0.033744,,,,,,,,,,,,,,,,,,,,,,,,,,,,,,,,,,,,,,,,,,,,,,,,,,,,,,,,,,,,,,,,,
27319,1645650811.1780882,35.0,0.0,4343.589844,4636.410156,4225.641113000001,4277.94873,4307.692383,0.0,3.0,59.0,,,,0.0,4.0,0.0,4.0,0.0,4.0,33.333332,,,,,,,,,,,,,,,,,,,,,,,,,,,,,,,,,,,,,,,,,,,,,,,,,,,,,,0.0,0.0,1.0,0.0,512.0,1.0,,,,,,,,,,,,,,,,,,,,,,,,,
27320,1645650811.1859028,36.0,0.0,4345.128418,4651.794922,4230.769043,4278.974121,4326.666504,0.0,3.0,59.0,,,,0.0,4.0,0.0,4.0,0.0,4.0,33.333332,,,,,,,,18.0,0.0,0.370629,0.5683590000000001,0.145752,-0.719971,0.936049,-0.22070599999999999,-0.31201599999999996,-0.016097,-0.050737,-0.036083,,,,,,,,,,,,,,,,,,,,,,,,,,,,,,,,,,,,,,,,,,,,,,,,,,,,,,,,,,,,,,,,,
27321,1645650811.193717,37.0,0.0,4347.179688,4681.025879,4224.102539,4278.974121,4315.384765999999,0.0,3.0,59.0,,,,0.0,4.0,0.0,4.0,0.0,4.0,33.333332,,,,,,,,,,,,,,,,,,,,,,,,,,,,,,,,,,,,,,,,,,,,,,,,,,,,,,,,,,,,,,,,,,,,,,,,,,,,,,,,,,,,
27322,1645650811.2015321,38.0,0.0,4341.538574,4643.077147999999,4226.153809,4278.461426,4312.307617,0.0,3.0,59.0,,,,0.0,4.0,0.0,4.0,0.0,4.0,33.333332,,,,,,,,19.0,0.0,0.370629,0.5683590000000001,0.145752,-0.719971,0.9365379999999999,-0.226566,-0.314946,-0.016783000000000003,-0.050644,-0.038236,,,,,,,,,,,,,,,,,,,,,,,,,,,,,,,,,,,,,,,,,,,,,,,,,,,,,,,,,,,,,,,,,
27323,1645650811.209347,39.0,0.0,4341.538574,4603.589844,4230.256348,4280.0,4325.641113000001,0.0,3.0,59.0,,,,0.0,4.0,0.0,4.0,0.0,4.0,33.333332,,,,,,,,,,,,,,,,,,,,,,,,,,,,,,,,,,,,,,,,,,,,,,,,,,,,,,0.0,0.0,1.0,0.0,512.0,1.0,,,,,,,,,,,,,,,,,,,,,,,,,
27324,1645650811.217161,40.0,0.0,4337.436035,4607.692383,4234.358886999999,4280.0,4312.820313,0.0,3.0,59.0,,,,0.0,4.0,0.0,4.0,0.0,4.0,33.333332,,,,,,,,20.0,0.0,0.370629,0.5683590000000001,0.145752,-0.719971,0.938491,-0.217777,-0.304692,-0.017399,-0.050658,-0.033973,,,,,,,,,,,,,,,,,,,,,,,,,,,,,,,,,,,,,,,,,,,,,,,,,,,,,,,,,,,,,,,,,
27325,1645650811.224976,41.0,0.0,4322.05127,4653.333496,4229.743652,4277.436035,4296.410156,0.0,3.0,59.0,,,,0.0,4.0,0.0,4.0,0.0,4.0,33.333332,,,,,,,,,,,,,,,,,,,,,,,,,,,,,,,,,,,,,,,,,,,,,,,,,,,,,,,,,,,,,,,,,,,,,,,,,,,,,,,,,,,,
27326,1645650811.232791,42.0,0.0,4306.666504,4672.820313,4220.512695,4277.436035,4287.179688,0.0,3.0,59.0,,,,0.0,4.0,0.0,4.0,0.0,4.0,33.333332,,,,,,,,21.0,0.0,0.370725,0.5683590000000001,0.145508,-0.719971,0.941909,-0.221683,-0.317388,-0.016441,-0.050622,-0.036338,,,,,,,,,,,,,,,,,,,,,,,,,,,,,,,,,,,,,,,,,,,,,,,,,,,,,,,,,,,,,,,,,
27327,1645650811.240605,43.0,0.0,4313.333496,4595.897461,4227.179688,4279.487305,4284.615234000001,0.0,3.0,59.0,,,,0.0,4.0,0.0,4.0,0.0,4.0,33.333332,,,,,,,,,,,,,,,,,,,,,,,,,,,,,,,,,,,,,,,,,,,,,,,,,,,,,,0.0,0.0,1.0,0.0,512.0,1.0,,,,,,,,,,,,,,,,,,,,,,,,,
27328,1645650811.24842,44.0,0.0,4310.769043,4606.666504,4219.487305,4279.487305,4274.358886999999,0.0,3.0,59.0,,,,0.0,4.0,0.0,4.0,0.0,4.0,33.333332,,,,,,,,22.0,0.0,0.370725,0.5683590000000001,0.145508,-0.719971,0.9404440000000001,-0.227543,-0.30518,-0.016994,-0.050589,-0.032216,,,,,,,,,,,,,,,,,,,,,,,,,,,,,,,,,,,,,,,,,,,,,,,,,,,,,,,,,,,,,,,,,
27329,1645650811.256334,45.0,0.0,4308.205078,4701.025879,4228.717772999999,4278.461426,4282.563965,0.0,3.0,59.0,,,,0.0,4.0,0.0,4.0,0.0,4.0,33.333332,,,,,,,,,,,,,,,,,,,,,,,,,,,,,,,,,,,,,,,,,,,,,,,,,,,,,,,,,,,,,,,,,,,,,,,,,,,,,,,,,,,,
27330,1645650811.264149,46.0,0.0,4311.282227000001,4651.794922,4238.461426,4277.94873,4293.846191,0.0,3.0,59.0,,,,0.0,4.0,0.0,4.0,0.0,4.0,33.333332,,,,,,,,23.0,0.0,0.370629,0.5683590000000001,0.145752,-0.719971,0.9506979999999999,-0.20996399999999998,-0.31250500000000003,-0.017588999999999997,-0.050608,-0.028457,,,,,,,,,,,,,,,,,,,,,,,,,,,,,,,,,,,,,,,,,,,,,,,,,,,,,,,,,,,,,,,,,
27331,1645650811.271964,47.0,0.0,4325.641113000001,4581.538574,4242.05127,4278.974121,4291.282227000001,0.0,3.0,59.0,,,,0.0,4.0,0.0,4.0,0.0,4.0,33.333332,,,,,,,,,,,,,,,,,,,,1.0,0.0,0.0,,,,,,,,,,,,,,,,,,,,,,,,,,,,,,,,0.0,0.0,1.0,0.0,512.0,1.0,3.5598980000000005,4.5921,2.29181,1.424886,2.878366,41.611443,39.765381,69.349312,59.552574,31.780336,13.657247,13.63345,5.175998,4.438389,7.549544999999999,0.103082,0.033752,0.026791000000000002,0.009038,0.010218999999999999,3.890306,4.049615,0.9895809999999999,1.9323150000000002,3.209891
27332,1645650811.279778,48.0,0.0,4333.846191,4658.461426,4221.025879,4281.025879,4282.05127,0.0,3.0,59.0,,,,0.0,4.0,0.0,4.0,0.0,4.0,33.333332,,,,,,,,24.0,0.0,0.370629,0.5683590000000001,0.145752,-0.719971,0.9463030000000001,-0.215824,-0.318853,-0.017979,-0.050626,-0.025074000000000003,,,,,,,,,,,,,,,,,,,,,,,,,,,,,,,,,,,,,,,,,,,,,,,,,,,,,,,,,,,,,,,,,
27333,1645650811.287593,49.0,0.0,4325.641113000001,4718.974121,4234.871582,4279.487305,4285.128418,0.0,3.0,59.0,,,,0.0,4.0,0.0,4.0,0.0,4.0,33.333332,,,,,,,,,,,,,,,,,,,,,,,,,,,,,,,,,,,,,,,,,,,,,,,,,,,,,,,,,,,,,,,,,,,,,,,,,,,,,,,,,,,,
27334,1645650811.295408,50.0,0.0,4324.102539,4645.128418,4251.794922,4278.461426,4304.102539,0.0,3.0,59.0,,,,0.0,4.0,0.0,4.0,0.0,4.0,33.333332,,,,,,,,25.0,0.0,0.370629,0.5683590000000001,0.145752,-0.719971,0.9389790000000001,-0.20508099999999999,-0.298344,-0.016816,-0.05069,-0.028182,,,,,,,,,,,,,,,,,,,,,,,,,,,,,,,,,,,,,,,,,,,,,,,,,,,,,,,,,,,,,,,,,
27335,1645650811.3032222,51.0,0.0,4341.025879,4644.102539,4247.692383,4281.538574,4314.871582,0.0,3.0,59.0,,,,0.0,4.0,0.0,4.0,0.0,4.0,33.333332,,,,,,,,,,,,,,,,,,,,,,,,,,,,,,,,,,,,,,,,,,,,,,,,,,,,,,0.0,0.0,1.0,0.0,512.0,1.0,,,,,,,,,,,,,,,,,,,,,,,,,
27336,1645650811.311137,52.0,0.0,4345.641113000001,4704.615234000001,4233.333496,4281.025879,4304.615234000001,0.0,3.0,59.0,,,,0.0,4.0,0.0,4.0,0.0,4.0,33.333332,,,,,,,,26.0,0.0,0.370629,0.5683590000000001,0.145752,-0.719971,0.9506979999999999,-0.20996399999999998,-0.31250500000000003,-0.017429,-0.050699,-0.024827000000000002,,,,,,,,,,,,,,,,,,,,,,,,,,,,,,,,,,,,,,,,,,,,,,,,,,,,,,,,,,,,,,,,,
27337,1645650811.318951,53.0,0.0,4329.230957,4689.230957,4237.94873,4277.94873,4291.282227000001,0.0,3.0,59.0,,,,0.0,4.0,0.0,4.0,0.0,4.0,33.333332,,,,,,,,,,,,,,,,,,,,,,,,,,,,,,,,,,,,,,,,,,,,,,,,,,,,,,,,,,,,,,,,,,,,,,,,,,,,,,,,,,,,
27338,1645650811.326766,54.0,0.0,4336.922852000001,4683.077147999999,4232.307617,4279.487305,4304.615234000001,0.0,3.0,59.0,,,,0.0,4.0,0.0,4.0,0.0,4.0,33.333332,,,,,,,,27.0,0.0,0.370629,0.5683590000000001,0.145752,-0.719971,0.926284,-0.229496,-0.322759,-0.017835,-0.050805,-0.021807,,,,,,,,,,,,,,,,,,,,,,,,,,,,,,,,,,,,,,,,,,,,,,,,,,,,,,,,,,,,,,,,,
27339,1645650811.3345811,55.0,0.0,4352.307617,4725.128418,4224.615234000001,4280.0,4305.641113000001,0.0,3.0,59.0,,,,0.0,4.0,0.0,4.0,0.0,4.0,33.333332,,,,,,,,,,,,,,,,,,,,,,,,,,,,,,,,,,,,,,,,,,,,,,,,,,,,,,0.0,0.0,1.0,0.0,512.0,1.0,,,,,,,,,,,,,,,,,,,,,,,,,
27340,1645650811.3423948,56.0,0.0,4348.717772999999,4731.282227000001,4230.769043,4277.94873,4298.461426,0.0,3.0,59.0,,,,0.0,4.0,0.0,4.0,0.0,4.0,33.333332,,,,,,,,28.0,0.0,0.370629,0.5683590000000001,0.145752,-0.719971,0.945327,-0.208011,-0.31299299999999997,-0.016735,-0.050802999999999994,-0.02529,,,,,,,,,,,,,,,,,,,,,,,,,,,,,,,,,,,,,,,,,,,,,,,,,,,,,,,,,,,,,,,,,
27341,1645650811.35021,57.0,0.0,4326.666504,4705.128418,4223.077147999999,4278.461426,4289.230957,0.0,3.0,59.0,,,,0.0,4.0,0.0,4.0,0.0,4.0,33.333332,,,,,,,,,,,,,,,,,,,,,,,,,,,,,,,,,,,,,,,,,,,,,,,,,,,,,,,,,,,,,,,,,,,,,,,,,,,,,,,,,,,,
27342,1645650811.358125,58.0,0.0,4333.333496,4643.077147999999,4218.461426,4279.487305,4286.666504,0.0,3.0,59.0,,,,0.0,4.0,0.0,4.0,0.0,4.0,33.333332,,,,,,,,29.0,0.0,0.370629,0.5683590000000001,0.145752,-0.719971,0.949233,-0.21484699999999998,-0.319829,-0.01721,-0.050752,-0.022224,,,,,,,,,,,,,,,,,,,,,,,,,,,,,,,,,,,,,,,,,,,,,,,,,,,,,,,,,,,,,,,,,
27343,1645650811.366039,59.0,0.0,4344.102539,4564.615234000001,4237.436035,4278.461426,4288.717772999999,0.0,3.0,59.0,,,,0.0,4.0,0.0,4.0,0.0,4.0,33.333332,,,,,,,,,,,,,,,,,,,,,,,,,,,,,,,,,,,,,,,,,,,,,,,,,,,,,,0.0,0.0,1.0,0.0,512.0,1.0,,,,,,,,,,,,,,,,,,,,,,,,,
27344,1645650811.373854,60.0,0.0,4341.025879,4546.666504,4261.025879,4280.0,4302.563965,0.0,3.0,59.0,,,,0.0,4.0,0.0,4.0,0.0,4.0,33.333332,,,,,,,,30.0,0.0,0.370629,0.5683590000000001,0.145752,-0.719971,0.9331200000000001,-0.222171,-0.307134,-0.016221,-0.050706,-0.025715,,,,,,,,,,,,,,,,,,,,,,,,,,,,,,,,,,,,,,,,,,,,,,,,,,,,,,,,,,,,,,,,,
27345,1645650811.3816679,61.0,0.0,4316.410156,4555.897461,4239.487305,4279.487305,4293.846191,0.0,3.0,59.0,,,,0.0,4.0,0.0,4.0,0.0,4.0,33.333332,,,,,,,,,,,,,,,,,,,,,,,,,,,,,,,,,,,,,,,,,,,,,,,,,,,,,,,,,,,,,,,,,,,,,,,,,,,,,,,,,,,,
27346,1645650811.389483,62.0,0.0,4318.461426,4532.307617,4250.256348,4278.974121,4292.820313,0.0,3.0,59.0,,,,0.0,4.0,0.0,4.0,0.0,4.0,33.333332,,,,,,,,31.0,0.0,0.371199,0.5683590000000001,0.145508,-0.719727,0.937026,-0.227543,-0.32422399999999996,-0.016845,-0.050713999999999995,-0.028807,,,,,,,,,,,,,,,,,,,,,,,,,,,,,,,,,,,,,,,,,,,,,,,,,,,,,,,,,,,,,,,,,
27347,1645650811.397398,63.0,0.0,4341.025879,4584.102539,4258.461426,4280.512695,4306.153809,0.0,3.0,59.0,,,,0.0,4.0,0.0,4.0,0.0,4.0,33.333332,,,,,,,,,,,,,,,,,,,,1.0,0.0,0.0,,,,,,,,,,,,,,,,,,,,,,,,,,,,,,,,0.0,0.0,1.0,0.0,512.0,1.0,4.092515000000001,4.873182,1.9680400000000002,1.5381120000000001,3.3485410000000004,41.007278,41.269745,55.553005000000006,64.164825,33.380615,14.699975,15.058657,5.626094999999999,4.775418,8.848252,0.12035,0.040131,0.031237,0.010029999999999999,0.011470999999999999,3.6543410000000005,4.1630720000000005,0.781662,1.97118,3.61979
27348,1645650811.405212,64.0,0.0,4326.153809,4687.179688,4233.846191,4282.05127,4287.692383,450.0,3.0,59.0,,,,0.0,4.0,0.0,4.0,0.0,4.0,33.333332,,,,,,,,32.0,0.0,0.371199,0.5683590000000001,0.145508,-0.719727,0.937026,-0.21875300000000003,-0.31299299999999997,-0.017407,-0.050623,-0.031591,,,,,,,,,,,,,,,,,,,,,,,,,,,,,,,,,,,,,,,,,,,,,,,,,,,,,,,,,,,,,,,,,
27349,1645650811.413027,65.0,0.0,4307.692383,4677.94873,4206.666504,4281.025879,4264.102539,450.0,3.0,59.0,,,,0.0,4.0,0.0,4.0,0.0,4.0,33.333332,,,,,,,,,,,,,,,,,,,,,,,,,,,,,,,,,,,,,,,,,,,,,,,,,,,,,,,,,,,,,,,,,,,,,,,,,,,,,,,,,,,,
27350,1645650811.420842,66.0,0.0,4323.589844,4647.179688,4225.128418,4280.0,4274.358886999999,16237.0,3.0,59.0,,,,0.0,4.0,0.0,4.0,0.0,4.0,33.333332,,,,,,,,33.0,0.0,0.370825,0.568604,0.145508,-0.719727,0.9272600000000001,-0.217777,-0.30811,-0.018009999999999998,-0.050638999999999997,-0.027846,,,,,,,,,,,,,,,,,,,,,,,,,,,,,,,,,,,,,,,,,,,,,,,,,,,,,,,,,,,,,,,,,
27351,1645650811.428656,67.0,0.0,4330.256348,4694.358886999999,4227.692383,4279.487305,4276.922852000001,450.0,3.0,59.0,,,,0.0,4.0,0.0,4.0,0.0,4.0,33.333332,,,,,,,,,,,,,,,,,,,,,,,,,,,,,,,,,,,,,,,,,,,,,,,,,,,,,,0.0,0.0,1.0,0.0,512.0,1.0,,,,,,,,,,,,,,,,,,,,,,,,,
27352,1645650811.436471,68.0,0.0,4312.307617,4758.461426,4215.384765999999,4279.487305,4265.641113000001,0.0,3.0,59.0,,,,0.0,4.0,0.0,4.0,0.0,4.0,33.333332,,,,,,,,34.0,0.0,0.370825,0.568604,0.145508,-0.719727,0.9404440000000001,-0.215824,-0.319829,-0.018406,-0.050653,-0.030725,,,,,,,,,,,,,,,,,,,,,,,,,,,,,,,,,,,,,,,,,,,,,,,,,,,,,,,,,,,,,,,,,
27353,1645650811.444285,69.0,0.0,4317.436035,4763.077147999999,4211.282227000001,4280.0,4271.282227000001,450.0,3.0,59.0,,,,0.0,4.0,0.0,4.0,0.0,4.0,33.333332,,,,,,,,,,,,,,,,,,,,,,,,,,,,,,,,,,,,,,,,,,,,,,,,,,,,,,,,,,,,,,,,,,,,,,,,,,,,,,,,,,,,
27354,1645650811.4521,70.0,0.0,4313.846191,4630.769043,4218.461426,4280.512695,4262.05127,16157.0,3.0,59.0,,,,0.0,4.0,0.0,4.0,0.0,4.0,33.333332,,,,,,,,35.0,0.0,0.370825,0.568604,0.145508,-0.719727,0.9487450000000001,-0.2168,-0.303716,-0.018713999999999998,-0.050666,-0.033268,,,,,,,,,,,,,,,,,,,,,,,,,,,,,,,,,,,,,,,,,,,,,,,,,,,,,,,,,,,,,,,,,
27355,1645650811.459915,71.0,0.0,4294.358886999999,4531.794922,4210.256348,4279.487305,4261.538574,450.0,3.0,59.0,,,,0.0,4.0,0.0,4.0,0.0,4.0,33.333332,,,,,,,,,,,,,,,,,,,,,,,,,,,,,,,,,,,,,,,,,,,,,,,,,,,,,,0.0,0.0,1.0,0.0,512.0,1.0,,,,,,,,,,,,,,,,,,,,,,,,,
27356,1645650811.4677289,72.0,0.0,4283.589844,4636.922852000001,4186.153809,4276.922852000001,4259.487305,450.0,3.0,59.0,,,,0.0,4.0,0.0,4.0,0.0,4.0,33.333332,,,,,,,,36.0,0.0,0.370825,0.568604,0.145508,-0.719727,0.937514,-0.221683,-0.304692,-0.01904,-0.050677999999999994,-0.035654000000000005,,,,,,,,,,,,,,,,,,,,,,,,,,,,,,,,,,,,,,,,,,,,,,,,,,,,,,,,,,,,,,,,,
27357,1645650811.4756439,73.0,0.0,4300.512695,4738.974121,4175.384765999999,4277.94873,4264.102539,0.0,3.0,59.0,,,,0.0,4.0,0.0,4.0,0.0,4.0,33.333332,,,,,,,,,,,,,,,,,,,,,,,,,,,,,,,,,,,,,,,,,,,,,,,,,,,,,,,,,,,,,,,,,,,,,,,,,,,,,,,,,,,,
27358,1645650811.483459,74.0,0.0,4308.717772999999,4683.589844,4187.179688,4280.512695,4276.922852000001,450.0,3.0,59.0,,,,0.0,4.0,0.0,4.0,0.0,4.0,33.333332,,,,,,,,37.0,0.0,0.370825,0.568604,0.145508,-0.719727,0.947768,-0.22510100000000002,-0.307622,-0.017721999999999998,-0.050737,-0.031552,,,,,,,,,,,,,,,,,,,,,,,,,,,,,,,,,,,,,,,,,,,,,,,,,,,,,,,,,,,,,,,,,
27359,1645650811.4912732,75.0,0.0,4308.717772999999,4640.0,4199.487305,4280.512695,4276.410156,16201.0,3.0,59.0,,,,0.0,4.0,0.0,4.0,0.0,4.0,33.333332,,,,,,,,,,,,,,,,,,,,,,,,,,,,,,,,,,,,,,,,,,,,,,,,,,,,,,0.0,0.0,1.0,0.0,512.0,1.0,,,,,,,,,,,,,,,,,,,,,,,,,
27360,1645650811.499088,76.0,0.0,4303.077147999999,4684.102539,4191.794922,4279.487305,4243.077147999999,450.0,3.0,59.0,,,,0.0,4.0,0.0,4.0,0.0,4.0,33.333332,,,,,,,,38.0,0.0,0.370729,0.568604,0.145752,-0.719727,0.941909,-0.2168,-0.310552,-0.018098,-0.050693,-0.034158,,,,,,,,,,,,,,,,,,,,,,,,,,,,,,,,,,,,,,,,,,,,,,,,,,,,,,,,,,,,,,,,,
27361,1645650811.506903,77.0,0.0,4302.05127,4739.487305,4184.102539,4280.0,4221.025879,450.0,3.0,59.0,,,,0.0,4.0,0.0,4.0,0.0,4.0,33.333332,,,,,,,,,,,,,,,,,,,,,,,,,,,,,,,,,,,,,,,,,,,,,,,,,,,,,,,,,,,,,,,,,,,,,,,,,,,,,,,,,,,,
27362,1645650811.514717,78.0,0.0,4304.102539,4716.922852000001,4170.769043,4280.0,4225.641113000001,450.0,3.0,59.0,,,,0.0,4.0,0.0,4.0,0.0,4.0,33.333332,,,,,,,,39.0,0.0,0.370729,0.568604,0.145752,-0.719727,0.9389790000000001,-0.21973,-0.31104,-0.018486000000000002,-0.050702,-0.036308999999999994,,,,,,,,,,,,,,,,,,,,,,,,,,,,,,,,,,,,,,,,,,,,,,,,,,,,,,,,,,,,,,,,,
27363,1645650811.522532,79.0,0.0,4307.179688,4584.102539,4209.743652,4279.487305,4250.256348,16201.0,3.0,59.0,,,,0.0,4.0,0.0,4.0,0.0,4.0,33.333332,,,,,,,,,,,,,,,,,,,,1.0,0.0,0.0,,,,,,,,,,,,,,,,,,,,,,,,,,,,,,,,0.0,0.0,1.0,0.0,512.0,1.0,4.5425,4.97231,1.756952,1.630953,3.5337419999999997,42.327503,42.13541,45.183109,63.656387,32.549721000000005,14.217766000000001,14.980142,5.593799,4.665737,9.064267999999998,0.12244000000000001,0.041999,0.032202,0.00996,0.011741,3.230756,4.111846,0.6463399999999999,1.971715,3.6818089999999994
27364,1645650811.5303462,80.0,0.0,4301.025879,4518.461426,4236.922852000001,4279.487305,4273.846191,450.0,3.0,59.0,,,,0.0,4.0,0.0,4.0,0.0,4.0,33.333332,,,,,,,,40.0,0.0,0.370825,0.568604,0.145508,-0.719727,0.947768,-0.22510100000000002,-0.307622,-0.017223,-0.050758,-0.032141,,,,,,,,,,,,,,,,,,,,,,,,,,,,,,,,,,,,,,,,,,,,,,,,,,,,,,,,,,,,,,,,,
27365,1645650811.538161,81.0,0.0,4296.922852000001,4584.102539,4224.102539,4280.512695,4275.897461,450.0,3.0,59.0,,,,0.0,4.0,0.0,4.0,0.0,4.0,33.333332,,,,,,,,,,,,,,,,,,,,,,,,,,,,,,,,,,,,,,,,,,,,,,,,,,,,,,,,,,,,,,,,,,,,,,,,,,,,,,,,,,,,
27366,1645650811.546076,82.0,0.0,4313.333496,4628.205078,4203.589844,4279.487305,4263.589844,450.0,3.0,59.0,,,,0.0,4.0,0.0,4.0,0.0,4.0,33.333332,,,,,,,,41.0,0.0,0.370729,0.568604,0.145752,-0.719727,0.9438620000000001,-0.21924200000000002,-0.31104,-0.017698,-0.050663,-0.02839,,,,,,,,,,,,,,,,,,,,,,,,,,,,,,,,,,,,,,,,,,,,,,,,,,,,,,,,,,,,,,,,,
27367,1645650811.55389,83.0,0.0,4313.846191,4618.974121,4214.871582,4278.974121,4256.410156,16201.0,3.0,59.0,,,,0.0,4.0,0.0,4.0,0.0,4.0,33.333332,,,,,,,,,,,,,,,,,,,,,,,,,,,,,,,,,,,,,,,,,,,,,,,,,,,,,,0.0,0.0,1.0,0.0,512.0,1.0,,,,,,,,,,,,,,,,,,,,,,,,,
27368,1645650811.561705,84.0,0.0,4309.230957,4638.974121,4212.307617,4280.0,4261.025879,450.0,3.0,59.0,,,,0.0,4.0,0.0,4.0,0.0,4.0,33.333332,,,,,,,,42.0,0.0,0.370729,0.568604,0.145752,-0.719727,0.937514,-0.211917,-0.316899,-0.018174,-0.050626,-0.031313,,,,,,,,,,,,,,,,,,,,,,,,,,,,,,,,,,,,,,,,,,,,,,,,,,,,,,,,,,,,,,,,,
27369,1645650811.56952,85.0,0.0,4323.589844,4690.769043,4218.974121,4280.0,4266.666504,450.0,3.0,59.0,,,,0.0,4.0,0.0,4.0,0.0,4.0,33.333332,,,,,,,,,,,,,,,,,,,,,,,,,,,,,,,,,,,,,,,,,,,,,,,,,,,,,,,,,,,,,,,,,,,,,,,,,,,,,,,,,,,,
27370,1645650811.577334,86.0,0.0,4326.666504,4673.846191,4231.794922,4279.487305,4270.769043,450.0,3.0,59.0,,,,0.0,4.0,0.0,4.0,0.0,4.0,33.333332,,,,,,,,43.0,0.0,0.370729,0.568604,0.145752,-0.719727,0.9506979999999999,-0.215335,-0.321782,-0.017138,-0.050593,-0.033748,,,,,,,,,,,,,,,,,,,,,,,,,,,,,,,,,,,,,,,,,,,,,,,,,,,,,,,,,,,,,,,,,
27371,1645650811.585149,87.0,0.0,4305.128418,4601.025879,4223.589844,4279.487305,4260.512695,16201.0,3.0,59.0,,,,0.0,4.0,0.0,4.0,0.0,4.0,33.333332,,,,,,,,,,,,,,,,,,,,,,,,,,,,,,,,,,,,,,,,,,,,,,,,,,,,,,0.0,0.0,1.0,0.0,512.0,1.0,,,,,,,,,,,,,,,,,,,,,,,,,
27372,1645650811.5929642,88.0,0.0,4305.128418,4592.307617,4208.717772999999,4279.487305,4266.666504,450.0,3.0,59.0,,,,0.0,4.0,0.0,4.0,0.0,4.0,33.333332,,,,,,,,44.0,0.0,0.370825,0.568604,0.145508,-0.719727,0.940932,-0.21338200000000002,-0.321294,-0.016059,-0.050612,-0.035988,,,,,,,,,,,,,,,,,,,,,,,,,,,,,,,,,,,,,,,,,,,,,,,,,,,,,,,,,,,,,,,,,
27373,1645650811.6007779,89.0,0.0,4313.846191,4625.641113000001,4214.358886999999,4280.0,4274.358886999999,450.0,3.0,59.0,,,,0.0,4.0,0.0,4.0,0.0,4.0,33.333332,,,,,,,,,,,,,,,,,,,,,,,,,,,,,,,,,,,,,,,,,,,,,,,,,,,,,,,,,,,,,,,,,,,,,,,,,,,,,,,,,,,,
27374,1645650811.608593,90.0,0.0,4328.717772999999,4672.307617,4218.974121,4281.025879,4276.410156,450.0,3.0,59.0,,,,0.0,4.0,0.0,4.0,0.0,4.0,33.333332,,,,,,,,45.0,0.0,0.37035100000000004,0.568604,0.145508,-0.719971,0.9277489999999999,-0.2168,-0.314946,-0.016748,-0.050629,-0.031901,,,,,,,,,,,,,,,,,,,,,,,,,,,,,,,,,,,,,,,,,,,,,,,,,,,,,,,,,,,,,,,,,
27375,1645650811.616507,91.0,0.0,4318.974121,4737.436035,4184.615234000001,4280.0,4263.077147999999,16201.0,3.0,59.0,,,,0.0,4.0,0.0,4.0,0.0,4.0,33.333332,,,,,,,,,,,,,,,,,,,,,,,,,,,,,,,,,,,,,,,,,,,,,,,,,,,,,,0.0,0.0,1.0,0.0,512.0,1.0,,,,,,,,,,,,,,,,,,,,,,,,,
27376,1645650811.6243222,92.0,0.0,4313.333496,4753.333496,4183.077147999999,4278.974121,4263.077147999999,450.0,3.0,59.0,,,,0.0,4.0,0.0,4.0,0.0,4.0,33.333332,,,,,,,,46.0,0.0,0.370629,0.5683590000000001,0.145752,-0.719971,0.9340959999999999,-0.20556999999999997,-0.308598,-0.015611000000000002,-0.050595,-0.034375,,,,,,,,,,,,,,,,,,,,,,,,,,,,,,,,,,,,,,,,,,,,,,,,,,,,,,,,,,,,,,,,,
27377,1645650811.6321368,93.0,0.0,4338.461426,4695.384765999999,4214.358886999999,4279.487305,4273.333496,450.0,3.0,59.0,,,,0.0,4.0,0.0,4.0,0.0,4.0,33.333332,,,,,,,,,,,,,,,,,,,,,,,,,,,,,,,,,,,,,,,,,,,,,,,,,,,,,,,,,,,,,,,,,,,,,,,,,,,,,,,,,,,,
27378,1645650811.639951,94.0,0.0,4354.358886999999,4674.871582,4226.666504,4279.487305,4280.0,450.0,3.0,59.0,,,,0.0,4.0,0.0,4.0,0.0,4.0,33.333332,,,,,,,,47.0,0.0,0.370255,0.568604,0.145752,-0.719971,0.9389790000000001,-0.210941,-0.319341,-0.016247,-0.050516000000000005,-0.030351999999999997,,,,,,,,,,,,,,,,,,,,,,,,,,,,,,,,,,,,,,,,,,,,,,,,,,,,,,,,,,,,,,,,,
27379,1645650811.647766,95.0,0.0,4330.769043,4682.05127,4198.974121,4278.974121,4272.307617,16201.0,3.0,59.0,,,,0.0,4.0,0.0,4.0,0.0,4.0,33.333332,1.0,25.0,3.0,0.0,3.0,0.0,3.0,,,,,,,,,,,,,1.0,0.0,0.0,,,,,,,,,,,,,,,,,,,,,,,,,,,,,,,,0.0,0.0,1.0,0.0,512.0,1.0,4.811393,4.863917,1.669482,1.650866,3.3747510000000003,44.601772,43.097126,40.275787,58.377213,29.631890999999996,12.285891000000001,13.469470000000001,5.1027510000000005,4.150247,8.127489,0.10830999999999999,0.038807999999999995,0.028976,0.008834,0.011035,2.8024299999999998,3.953107,0.606933,1.929299,3.366979
27380,1645650811.655581,96.0,0.0,4315.897461,4638.461426,4211.794922,4278.974121,4264.615234000001,450.0,3.0,59.0,,,,0.0,4.0,0.0,4.0,0.0,4.0,33.333332,,,,,,,,48.0,0.0,0.370255,0.568604,0.145752,-0.719971,0.953628,-0.20508099999999999,-0.31201599999999996,-0.016868,-0.050592000000000005,-0.033030000000000004,,,,,,,,,,,,,,,,,,,,,,,,,,,,,,,,,,,,,,,,,,,,,,,,,,,,,,,,,,,,,,,,,
27381,1645650811.663395,97.0,0.0,4319.487305,4626.666504,4223.077147999999,4278.974121,4270.769043,450.0,3.0,59.0,,,,0.0,4.0,0.0,4.0,0.0,4.0,33.333332,,,,,,,,,,,,,,,,,,,,,,,,,,,,,,,,,,,,,,,,,,,,,,,,,,,,,,,,,,,,,,,,,,,,,,,,,,,,,,,,,,,,
27382,1645650811.67121,98.0,0.0,4312.820313,4598.974121,4237.436035,4279.487305,4289.230957,450.0,3.0,59.0,,,,0.0,4.0,0.0,4.0,0.0,4.0,33.333332,,,,,,,,49.0,0.0,0.370629,0.5683590000000001,0.145752,-0.719971,0.934585,-0.22070599999999999,-0.313481,-0.017379,-0.050660000000000004,-0.029238,,,,,,,,,,,,,,,,,,,,,,,,,,,,,,,,,,,,,,,,,,,,,,,,,,,,,,,,,,,,,,,,,
27383,1645650811.679124,99.0,0.0,4309.743652,4518.461426,4238.974121,4280.0,4295.897461,16201.0,3.0,59.0,,,,0.0,4.0,0.0,4.0,0.0,4.0,33.333332,,,,,,,,,,,,,,,,,,,,,,,,,,,,,,,,,,,,,,,,,,,,,,,,,,,,,,0.0,0.0,1.0,0.0,512.0,1.0,,,,,,,,,,,,,,,,,,,,,,,,,
27384,1645650811.686939,100.0,0.0,4308.205078,4554.358886999999,4215.384765999999,4280.0,4270.256348,450.0,3.0,59.0,,,,0.0,4.0,0.0,4.0,0.0,4.0,33.333332,,,,,,,,50.0,0.0,0.370629,0.5683590000000001,0.145752,-0.719971,0.945815,-0.21973,-0.310552,-0.017838,-0.050623,-0.025776999999999998,,,,,,,,,,,,,,,,,,,,,,,,,,,,,,,,,,,,,,,,,,,,,,,,,,,,,,,,,,,,,,,,,
27385,1645650811.694754,101.0,0.0,4326.666504,4688.205078,4197.94873,4280.0,4260.512695,450.0,3.0,59.0,,,,0.0,4.0,0.0,4.0,0.0,4.0,33.333332,,,,,,,,,,,,,,,,,,,,,,,,,,,,,,,,,,,,,,,,,,,,,,,,,,,,,,,,,,,,,,,,,,,,,,,,,,,,,,,,,,,,
27386,1645650811.702568,102.0,0.0,4342.05127,4739.487305,4217.94873,4279.487305,4267.692383,450.0,3.0,59.0,,,,0.0,4.0,0.0,4.0,0.0,4.0,33.333332,,,,,,,,51.0,0.0,0.370629,0.5683590000000001,0.145752,-0.719971,0.9438620000000001,-0.211917,-0.32861799999999997,-0.016738,-0.050589999999999996,-0.028814999999999997,,,,,,,,,,,,,,,,,,,,,,,,,,,,,,,,,,,,,,,,,,,,,,,,,,,,,,,,,,,,,,,,,
27387,1645650811.710383,103.0,0.0,4316.922852000001,4660.512695,4217.436035,4278.974121,4267.692383,16201.0,3.0,59.0,,,,0.0,4.0,0.0,4.0,0.0,4.0,33.333332,,,,,,,,,,,,,,,,,,,,,,,,,,,,,,,,,,,,,,,,,,,,,,,,,,,,,,0.0,0.0,1.0,0.0,512.0,1.0,,,,,,,,,,,,,,,,,,,,,,,,,
27388,1645650811.718198,104.0,0.0,4282.05127,4575.897461,4198.461426,4278.974121,4256.922852000001,450.0,3.0,59.0,,,,0.0,4.0,0.0,4.0,0.0,4.0,33.333332,,,,,,,,52.0,0.0,0.370155,0.5683590000000001,0.145752,-0.7202149999999999,0.9399559999999999,-0.224125,-0.318853,-0.017261000000000002,-0.050608999999999994,-0.031646,,,,,,,,,,,,,,,,,,,,,,,,,,,,,,,,,,,,,,,,,,,,,,,,,,,,,,,,,,,,,,,,,
27389,1645650811.726012,105.0,0.0,4311.794922,4610.256348,4203.077147999999,4279.487305,4271.794922,450.0,3.0,59.0,,,,0.0,4.0,0.0,4.0,0.0,4.0,33.333332,,,,,,,,,,,,,,,,,,,,,,,,,,,,,,,,,,,,,,,,,,,,,,,,,,,,,,,,,,,,,,,,,,,,,,,,,,,,,,,,,,,,
27390,1645650811.7338269,106.0,0.0,4333.333496,4723.589844,4204.615234000001,4279.487305,4280.512695,450.0,3.0,59.0,,,,0.0,4.0,0.0,4.0,0.0,4.0,33.333332,,,,,,,,53.0,0.0,0.370155,0.5683590000000001,0.145752,-0.7202149999999999,0.952651,-0.224613,-0.324712,-0.017830000000000002,-0.050675,-0.028042,,,,,,,,,,,,,,,,,,,,,,,,,,,,,,,,,,,,,,,,,,,,,,,,,,,,,,,,,,,,,,,,,
27391,1645650811.741642,107.0,0.0,4320.512695,4752.307617,4203.077147999999,4279.487305,4268.717772999999,16201.0,3.0,59.0,,,,0.0,4.0,0.0,4.0,0.0,4.0,33.333332,,,,,,,,,,,,,,,,,,,,,,,,,,,,,,,,,,,,,,,,,,,,,,,,,,,,,,0.0,0.0,1.0,0.0,512.0,1.0,,,,,,,,,,,,,,,,,,,,,,,,,
27392,1645650811.749556,108.0,0.0,4317.436035,4692.820313,4197.94873,4279.487305,4254.358886999999,450.0,3.0,59.0,,,,0.0,4.0,0.0,4.0,0.0,4.0,33.333332,,,,,,,,54.0,0.0,0.370155,0.5683590000000001,0.145752,-0.7202149999999999,0.93019,-0.21338200000000002,-0.31543499999999997,-0.018244999999999997,-0.050539999999999995,-0.030951,,,,,,,,,,,,,,,,,,,,,,,,,,,,,,,,,,,,,,,,,,,,,,,,,,,,,,,,,,,,,,,,,
27393,1645650811.7573712,109.0,0.0,4321.538574,4650.256348,4217.436035,4279.487305,4262.05127,450.0,3.0,59.0,,,,0.0,4.0,0.0,4.0,0.0,4.0,33.333332,,,,,,,,,,,,,,,,,,,,,,,,,,,,,,,,,,,,,,,,,,,,,,,,,,,,,,,,,,,,,,,,,,,,,,,,,,,,,,,,,,,,
27394,1645650811.7651849,110.0,0.0,4308.205078,4580.0,4227.179688,4279.487305,4275.384765999999,450.0,3.0,59.0,,,,0.0,4.0,0.0,4.0,0.0,4.0,33.333332,,,,,,,,55.0,0.0,0.370251,0.5683590000000001,0.145508,-0.7202149999999999,0.9428850000000001,-0.217288,-0.319341,-0.018666,-0.050515,-0.033569,,,,,,,,,,,,,,,,,,,,,,,,,,,,,,,,,,,,,,,,,,,,,,,,,,,,,,,,,,,,,,,,,
27395,1645650811.773,111.0,0.0,4313.333496,4525.641113000001,4226.666504,4280.0,4278.461426,16201.0,3.0,59.0,,,,0.0,4.0,0.0,4.0,0.0,4.0,33.333332,,,,,,,,,,,,,,,,,,,,1.0,0.0,0.0,,,,,,,,,,,,,,,,,,,,,,,,,,,,,,,,0.0,0.0,1.0,0.0,512.0,1.0,4.869153,4.540547,1.660467,1.584034,2.930225,47.097317,44.012325,40.722912,49.866935999999995,25.756283,9.534405,11.007617,4.307248,3.3867849999999997,6.376702,0.082996,0.031835,0.022414,0.00716,0.0098,2.53756,3.749589,0.674864,1.847207,2.77685
27396,1645650811.7808151,112.0,0.0,4327.692383,4624.102539,4207.692383,4280.512695,4265.128418,450.0,3.0,59.0,,,,0.0,4.0,0.0,4.0,0.0,4.0,33.333332,,,,,,,,56.0,0.0,0.370251,0.5683590000000001,0.145508,-0.7202149999999999,0.9340959999999999,-0.21875300000000003,-0.321782,-0.016848,-0.050542000000000004,-0.035925,,,,,,,,,,,,,,,,,,,,,,,,,,,,,,,,,,,,,,,,,,,,,,,,,,,,,,,,,,,,,,,,,
27397,1645650811.7886288,113.0,0.0,4316.410156,4756.922852000001,4208.717772999999,4280.0,4257.94873,450.0,3.0,59.0,,,,0.0,4.0,0.0,4.0,0.0,4.0,33.333332,,,,,,,,,,,,,,,,,,,,,,,,,,,,,,,,,,,,,,,,,,,,,,,,,,,,,,,,,,,,,,,,,,,,,,,,,,,,,,,,,,,,
27398,1645650811.796444,114.0,0.0,4308.205078,4720.0,4206.153809,4279.487305,4257.94873,450.0,3.0,59.0,,,,0.0,4.0,0.0,4.0,0.0,4.0,33.333332,,,,,,,,57.0,0.0,0.370151,0.5681149999999999,0.145508,-0.720459,0.9389790000000001,-0.215335,-0.325689,-0.017506999999999998,-0.050663,-0.037948,,,,,,,,,,,,,,,,,,,,,,,,,,,,,,,,,,,,,,,,,,,,,,,,,,,,,,,,,,,,,,,,,
27399,1645650811.804259,115.0,0.0,4315.384765999999,4625.641113000001,4212.820313,4278.974121,4268.205078,16201.0,3.0,59.0,,,,0.0,4.0,0.0,4.0,0.0,4.0,33.333332,,,,,,,,,,,,,,,,,,,,,,,,,,,,,,,,,,,,,,,,,,,,,,,,,,,,,,0.0,0.0,1.0,0.0,512.0,1.0,,,,,,,,,,,,,,,,,,,,,,,,,
27400,1645650811.812073,116.0,0.0,4312.820313,4638.461426,4214.358886999999,4278.461426,4287.692383,450.0,3.0,59.0,,,,0.0,4.0,0.0,4.0,0.0,4.0,33.333332,,,,,,,,58.0,0.0,0.370151,0.5681149999999999,0.145508,-0.720459,0.939467,-0.21338200000000002,-0.320317,-0.018003,-0.050626,-0.033616,,,,,,,,,,,,,,,,,,,,,,,,,,,,,,,,,,,,,,,,,,,,,,,,,,,,,,,,,,,,,,,,,
27401,1645650811.819988,117.0,0.0,4304.102539,4632.820313,4212.820313,4278.974121,4277.436035,450.0,3.0,59.0,,,,0.0,4.0,0.0,4.0,0.0,4.0,33.333332,,,,,,,,,,,,,,,,,,,,,,,,,,,,,,,,,,,,,,,,,,,,,,,,,,,,,,,,,,,,,,,,,,,,,,,,,,,,,,,,,,,,
27402,1645650811.827802,118.0,0.0,4323.589844,4616.922852000001,4202.05127,4280.512695,4267.692383,450.0,3.0,59.0,,,,0.0,4.0,0.0,4.0,0.0,4.0,33.333332,,,,,,,,59.0,0.0,0.370251,0.5683590000000001,0.145508,-0.7202149999999999,0.9340959999999999,-0.21875300000000003,-0.321782,-0.018497,-0.050642,-0.029766,,,,,,,,,,,,,,,,,,,,,,,,,,,,,,,,,,,,,,,,,,,,,,,,,,,,,,,,,,,,,,,,,
27403,1645650811.835617,119.0,0.0,4333.333496,4712.307617,4197.436035,4280.0,4275.384765999999,16201.0,3.0,59.0,,,,0.0,4.0,0.0,4.0,0.0,4.0,33.333332,,,,,,,,,,,,,,,,,,,,,,,,,,,,,,,,,,,,,,,,,,,,,,,,,,,,,,0.0,0.0,1.0,0.0,512.0,1.0,,,,,,,,,,,,,,,,,,,,,,,,,
27404,1645650811.843432,120.0,0.0,4342.05127,4723.589844,4224.615234000001,4279.487305,4290.256348,450.0,3.0,59.0,,,,0.0,4.0,0.0,4.0,0.0,4.0,33.333332,,,,,,,,60.0,0.0,0.370151,0.5681149999999999,0.145508,-0.720459,0.939467,-0.21338200000000002,-0.320317,-0.018894,-0.050607,-0.026251999999999998,,,,,,,,,,,,,,,,,,,,,,,,,,,,,,,,,,,,,,,,,,,,,,,,,,,,,,,,,,,,,,,,,
27405,1645650811.851246,121.0,0.0,4342.563965,4572.307617,4240.0,4280.0,4278.461426,450.0,3.0,59.0,,,,0.0,4.0,0.0,4.0,0.0,4.0,33.333332,,,,,,,,,,,,,,,,,,,,,,,,,,,,,,,,,,,,,,,,,,,,,,,,,,,,,,,,,,,,,,,,,,,,,,,,,,,,,,,,,,,,
27406,1645650811.859061,122.0,0.0,4326.153809,4521.538574,4220.0,4278.974121,4265.641113000001,450.0,3.0,59.0,,,,0.0,4.0,0.0,4.0,0.0,4.0,33.333332,,,,,,,,61.0,0.0,0.370054,0.5681149999999999,0.145752,-0.720459,0.937026,-0.20947600000000002,-0.31104,-0.019202,-0.050625,-0.029242,,,,,,,,,,,,,,,,,,,,,,,,,,,,,,,,,,,,,,,,,,,,,,,,,,,,,,,,,,,,,,,,,
27407,1645650811.866876,123.0,0.0,4298.461426,4625.641113000001,4197.94873,4280.0,4253.846191,16201.0,3.0,59.0,,,,0.0,4.0,0.0,4.0,0.0,4.0,33.333332,,,,,,,,,,,,,,,,,,,,,,,,,,,,,,,,,,,,,,,,,,,,,,,,,,,,,,0.0,0.0,1.0,0.0,512.0,1.0,,,,,,,,,,,,,,,,,,,,,,,,,
27408,1645650811.87469,124.0,0.0,4302.05127,4705.128418,4210.769043,4281.025879,4258.461426,450.0,3.0,59.0,,,,0.0,4.0,0.0,4.0,0.0,4.0,33.333332,,,,,,,,62.0,0.0,0.370054,0.5681149999999999,0.145752,-0.720459,0.9428850000000001,-0.20996399999999998,-0.307134,-0.019528,-0.05064,-0.025781000000000002,,,,,,,,,,,,,,,,,,,,,,,,,,,,,,,,,,,,,,,,,,,,,,,,,,,,,,,,,,,,,,,,,
27409,1645650811.8825052,125.0,0.0,4312.820313,4691.282227000001,4213.846191,4278.974121,4273.333496,450.0,3.0,59.0,,,,0.0,4.0,0.0,4.0,0.0,4.0,33.333332,,,,,,,,,,,,,,,,,,,,,,,,,,,,,,,,,,,,,,,,,,,,,,,,,,,,,,,,,,,,,,,,,,,,,,,,,,,,,,,,,,,,
27410,1645650811.89042,126.0,0.0,4303.077147999999,4611.794922,4217.436035,4276.922852000001,4278.974121,450.0,3.0,59.0,,,,0.0,4.0,0.0,4.0,0.0,4.0,33.333332,,,,,,,,63.0,0.0,0.369579,0.5681149999999999,0.145752,-0.720703,0.938003,-0.22607800000000003,-0.31006300000000003,-0.019821000000000002,-0.050459,-0.028916000000000004,,,,,,,,,,,,,,,,,,,,,,,,,,,,,,,,,,,,,,,,,,,,,,,,,,,,,,,,,,,,,,,,,
27411,1645650811.898234,127.0,0.0,4297.436035,4582.563965,4211.794922,4278.461426,4272.820313,235.0,3.0,59.0,,,,0.0,4.0,0.0,4.0,0.0,4.0,33.333332,,,,,,,,,,,,,,,,,,,,1.0,0.0,0.0,,,,,,,,,,,,,,,,,,,,,,,,,,,,,,,,0.0,0.0,1.0,0.0,512.0,1.0,4.804536,4.044016,1.6741419999999998,1.444443,2.345103,49.829681,44.476833,44.957329,40.242931,22.33325,6.841025999999999,8.306269,3.4436699999999996,2.574749,4.396932,0.054726,0.02362,0.014525,0.005638000000000001,0.008621,2.498669,3.5393790000000003,0.843532,1.7450919999999999,2.095059
27412,1645650811.906049,0.0,0.0,4318.461426,4658.461426,4222.05127,4281.025879,4284.615234000001,450.0,3.0,59.0,,,,0.0,4.0,0.0,4.0,0.0,4.0,33.333332,,,,,,,,0.0,0.0,0.369579,0.5681149999999999,0.145752,-0.720703,0.939467,-0.21924200000000002,-0.317388,-0.020134,-0.050443,-0.031689,,,,,,,,,,,,,,,,,,,,,,,,,,,,,,,,,,,,,,,,,,,,,,,,,,,,,,,,,,,,,,,,,
27413,1645650811.9138632,1.0,0.0,4340.0,4692.820313,4223.077147999999,4279.487305,4297.436035,450.0,3.0,59.0,,,,0.0,4.0,0.0,4.0,0.0,4.0,33.333332,,,,,,,,,,,,,,,,,,,,,,,,,,,,,,,,,,,,,,,,,,,,,,,,,,,,,,,,,,,,,,,,,,,,,,,,,,,,,,,,,,,,
27414,1645650811.9216778,2.0,0.0,4337.94873,4676.922852000001,4215.897461,4278.974121,4271.282227000001,16242.0,3.0,59.0,,,,0.0,4.0,0.0,4.0,0.0,4.0,33.333332,,,,,,,,1.0,0.0,0.369579,0.5681149999999999,0.145752,-0.720703,0.9487450000000001,-0.211917,-0.309087,-0.020367,-0.050574,-0.027933999999999997,,,,,,,,,,,,,,,,,,,,,,,,,,,,,,,,,,,,,,,,,,,,,,,,,,,,,,,,,,,,,,,,,
27415,1645650811.929493,3.0,0.0,4333.333496,4723.077147999999,4192.820313,4279.487305,4256.922852000001,450.0,3.0,59.0,,,,0.0,4.0,0.0,4.0,0.0,4.0,33.333332,,,,,,,,,,,,,,,,,,,,,,,,,,,,,,,,,,,,,,,,,,,,,,,,,,,,,,0.0,0.0,1.0,0.0,512.0,1.0,,,,,,,,,,,,,,,,,,,,,,,,,
27416,1645650811.9373071,4.0,0.0,4332.820313,4743.589844,4207.692383,4278.974121,4272.307617,0.0,3.0,59.0,,,,0.0,4.0,0.0,4.0,0.0,4.0,33.333332,,,,,,,,2.0,0.0,0.369579,0.5681149999999999,0.145752,-0.720703,0.9365379999999999,-0.217777,-0.307622,-0.019014,-0.050595,-0.030902,,,,,,,,,,,,,,,,,,,,,,,,,,,,,,,,,,,,,,,,,,,,,,,,,,,,,,,,,,,,,,,,,
27417,1645650811.945122,5.0,0.0,4324.102539,4633.846191,4230.256348,4278.974121,4274.358886999999,450.0,3.0,59.0,,,,0.0,4.0,0.0,4.0,0.0,4.0,33.333332,,,,,,,,,,,,,,,,,,,,,,,,,,,,,,,,,,,,,,,,,,,,,,,,,,,,,,,,,,,,,,,,,,,,,,,,,,,,,,,,,,,,
27418,1645650811.952937,6.0,0.0,4309.743652,4573.333496,4227.179688,4278.974121,4265.641113000001,16150.0,3.0,59.0,,,,0.0,4.0,0.0,4.0,0.0,4.0,33.333332,,,,,,,,3.0,0.0,0.369954,0.567871,0.145752,-0.720703,0.9399559999999999,-0.21924200000000002,-0.318853,-0.019358,-0.050809,-0.033525,,,,,,,,,,,,,,,,,,,,,,,,,,,,,,,,,,,,,,,,,,,,,,,,,,,,,,,,,,,,,,,,,
27419,1645650811.960851,7.0,0.0,4325.128418,4636.410156,4217.436035,4279.487305,4286.153809,450.0,3.0,59.0,,,,0.0,4.0,0.0,4.0,0.0,4.0,33.333332,,,,,,,,,,,,,,,,,,,,,,,,,,,,,,,,,,,,,,,,,,,,,,,,,,,,,,0.0,0.0,1.0,0.0,512.0,1.0,,,,,,,,,,,,,,,,,,,,,,,,,
27420,1645650811.968666,8.0,0.0,4334.358886999999,4628.717772999999,4214.358886999999,4279.487305,4288.205078,450.0,3.0,59.0,,,,0.0,4.0,0.0,4.0,0.0,4.0,33.333332,,,,,,,,4.0,0.0,0.369954,0.567871,0.145752,-0.720703,0.9399559999999999,-0.211917,-0.315923,-0.019717,-0.050806,-0.029538,,,,,,,,,,,,,,,,,,,,,,,,,,,,,,,,,,,,,,,,,,,,,,,,,,,,,,,,,,,,,,,,,
27421,1645650811.976481,9.0,0.0,4332.307617,4577.94873,4216.410156,4281.025879,4277.94873,0.0,3.0,59.0,,,,0.0,4.0,0.0,4.0,0.0,4.0,33.333332,,,,,,,,,,,,,,,,,,,,,,,,,,,,,,,,,,,,,,,,,,,,,,,,,,,,,,,,,,,,,,,,,,,,,,,,,,,,,,,,,,,,
27422,1645650811.984295,10.0,0.0,4324.102539,4633.333496,4203.589844,4279.487305,4274.358886999999,450.0,3.0,59.0,,,,0.0,4.0,0.0,4.0,0.0,4.0,33.333332,,,,,,,,5.0,0.0,0.369857,0.567871,0.14599600000000001,-0.720703,0.944839,-0.211917,-0.309087,-0.01838,-0.050804,-0.032199,,,,,,,,,,,,,,,,,,,,,,,,,,,,,,,,,,,,,,,,,,,,,,,,,,,,,,,,,,,,,,,,,
27423,1645650811.99211,11.0,0.0,4328.717772999999,4702.563965,4200.512695,4278.461426,4274.358886999999,16221.0,3.0,59.0,,,,0.0,4.0,0.0,4.0,0.0,4.0,33.333332,,,,,,,,,,,,,,,,,,,,,,,,,,,,,,,,,,,,,,,,,,,,,,,,,,,,,,0.0,0.0,1.0,0.0,512.0,1.0,,,,,,,,,,,,,,,,,,,,,,,,,
27424,1645650811.999924,12.0,0.0,4330.769043,4713.846191,4197.436035,4280.0,4271.282227000001,450.0,3.0,59.0,,,,0.0,4.0,0.0,4.0,0.0,4.0,33.333332,,,,,,,,6.0,0.0,0.369857,0.567871,0.14599600000000001,-0.720703,0.931167,-0.215335,-0.31104,-0.018789,-0.050899,-0.028345,,,,,,,,,,,,,,,,,,,,,,,,,,,,,,,,,,,,,,,,,,,,,,,,,,,,,,,,,,,,,,,,,
27425,1645650812.007739,13.0,0.0,4329.743652,4709.230957,4208.717772999999,4280.0,4277.94873,450.0,3.0,59.0,,,,0.0,4.0,0.0,4.0,0.0,4.0,33.333332,,,,,,,,,,,,,,,,,,,,,,,,,,,,,,,,,,,,,,,,,,,,,,,,,,,,,,,,,,,,,,,,,,,,,,,,,,,,,,,,,,,,
27426,1645650812.015554,14.0,0.0,4323.589844,4645.641113000001,4214.871582,4278.461426,4280.0,450.0,3.0,59.0,,,,0.0,4.0,0.0,4.0,0.0,4.0,33.333332,,,,,,,,7.0,0.0,0.369857,0.567871,0.14599600000000001,-0.720703,0.9282370000000001,-0.204105,-0.309575,-0.019058000000000002,-0.050936,-0.031125,,,,,,,,,,,,,,,,,,,,,,,,,,,,,,,,,,,,,,,,,,,,,,,,,,,,,,,,,,,,,,,,,
27427,1645650812.023368,15.0,0.0,4313.846191,4574.871582,4225.641113000001,4277.436035,4285.128418,16221.0,3.0,59.0,,,,0.0,4.0,0.0,4.0,0.0,4.0,33.333332,,,,,,,,,,,,,,,,,,,,1.0,0.0,0.0,,,,,,,,,,,,,,,,,,,,,,,,,,,,,,,,0.0,0.0,1.0,0.0,512.0,1.0,4.701722,3.468528,1.6690049999999998,1.273665,1.789659,52.945713,44.433212,50.688324,31.999865000000003,20.366377,4.938123,5.985774,2.711633,1.8869669999999998,2.749001,0.031019,0.016778,0.007592,0.0047740000000000005,0.007888,2.612314,3.3284529999999997,1.077112,1.6519119999999998,1.503128
27428,1645650812.031283,16.0,0.0,4301.538574,4596.922852000001,4221.538574,4278.974121,4275.897461,0.0,3.0,59.0,,,,0.0,4.0,0.0,4.0,0.0,4.0,33.333332,,,,,,,,8.0,0.0,0.369381,0.567871,0.14599600000000001,-0.720947,0.9243309999999999,-0.215335,-0.322759,-0.01935,-0.051019,-0.033677,,,,,,,,,,,,,,,,,,,,,,,,,,,,,,,,,,,,,,,,,,,,,,,,,,,,,,,,,,,,,,,,,
27429,1645650812.039098,17.0,0.0,4299.487305,4648.717772999999,4225.128418,4280.0,4264.102539,0.0,3.0,59.0,,,,0.0,4.0,0.0,4.0,0.0,4.0,33.333332,,,,,,,,,,,,,,,,,,,,,,,,,,,,,,,,,,,,,,,,,,,,,,,,,,,,,,,,,,,,,,,,,,,,,,,,,,,,,,,,,,,,
27430,1645650812.046912,18.0,0.0,4321.538574,4672.307617,4224.102539,4280.512695,4282.05127,0.0,3.0,59.0,,,,0.0,4.0,0.0,4.0,0.0,4.0,33.333332,,,,,,,,9.0,0.0,0.369857,0.567871,0.14599600000000001,-0.720703,0.9487450000000001,-0.201663,-0.31543499999999997,-0.01971,-0.050995,-0.036022000000000005,,,,,,,,,,,,,,,,,,,,,,,,,,,,,,,,,,,,,,,,,,,,,,,,,,,,,,,,,,,,,,,,,
27431,1645650812.0547268,19.0,0.0,4338.974121,4662.05127,4240.512695,4280.0,4284.102539,0.0,3.0,59.0,,,,0.0,4.0,0.0,4.0,0.0,4.0,33.333332,,,,,,,,,,,,,,,,,,,,,,,,,,,,,,,,,,,,,,,,,,,,,,,,,,,,,,0.0,0.0,1.0,0.0,512.0,1.0,,,,,,,,,,,,,,,,,,,,,,,,,
27432,1645650812.062542,20.0,0.0,4330.769043,4627.179688,4227.179688,4278.974121,4263.077147999999,0.0,3.0,59.0,,,,0.0,4.0,0.0,4.0,0.0,4.0,33.333332,,,,,,,,10.0,0.0,0.369761,0.567871,0.14624,-0.720703,0.941421,-0.19971,-0.31250500000000003,-0.020034,-0.050925,-0.031883,,,,,,,,,,,,,,,,,,,,,,,,,,,,,,,,,,,,,,,,,,,,,,,,,,,,,,,,,,,,,,,,,
27433,1645650812.0703561,21.0,0.0,4300.512695,4602.563965,4206.153809,4278.461426,4254.871582,0.0,3.0,59.0,,,,0.0,4.0,0.0,4.0,0.0,4.0,33.333332,,,,,,,,,,,,,,,,,,,,,,,,,,,,,,,,,,,,,,,,,,,,,,,,,,,,,,,,,,,,,,,,,,,,,,,,,,,,,,,,,,,,
27434,1645650812.078171,22.0,0.0,4300.512695,4605.128418,4207.692383,4278.974121,4278.461426,0.0,3.0,59.0,,,,0.0,4.0,0.0,4.0,0.0,4.0,33.333332,,,,,,,,11.0,0.0,0.369761,0.567871,0.14624,-0.720703,0.9546040000000001,-0.210452,-0.321294,-0.020276,-0.050764,-0.034408,,,,,,,,,,,,,,,,,,,,,,,,,,,,,,,,,,,,,,,,,,,,,,,,,,,,,,,,,,,,,,,,,
27435,1645650812.085985,23.0,0.0,4322.563965,4593.333496,4217.94873,4279.487305,4291.282227000001,0.0,3.0,59.0,,,,0.0,4.0,0.0,4.0,0.0,4.0,33.333332,,,,,,,,,,,,,,,,,,,,,,,,,,,,,,,,,,,,,,,,,,,,,,,,,,,,,,0.0,0.0,1.0,0.0,512.0,1.0,,,,,,,,,,,,,,,,,,,,,,,,,
27436,1645650812.0938,24.0,0.0,4338.974121,4597.94873,4222.05127,4278.974121,4287.179688,0.0,3.0,59.0,,,,0.0,4.0,0.0,4.0,0.0,4.0,33.333332,,,,,,,,12.0,0.0,0.369761,0.567871,0.14624,-0.720703,0.932143,-0.217288,-0.31787600000000005,-0.020446000000000002,-0.050668,-0.036680000000000004,,,,,,,,,,,,,,,,,,,,,,,,,,,,,,,,,,,,,,,,,,,,,,,,,,,,,,,,,,,,,,,,,
27437,1645650812.101615,25.0,0.0,4322.05127,4640.512695,4208.205078,4278.974121,4262.05127,0.0,3.0,59.0,,,,0.0,4.0,0.0,4.0,0.0,4.0,33.333332,,,,,,,,,,,,,,,,,,,,,,,,,,,,,,,,,,,,,,,,,,,,,,,,,,,,,,,,,,,,,,,,,,,,,,,,,,,,,,,,,,,,
27438,1645650812.109529,26.0,0.0,4311.282227000001,4690.256348,4193.846191,4279.487305,4246.666504,0.0,3.0,59.0,,,,0.0,4.0,0.0,4.0,0.0,4.0,33.333332,,,,,,,,13.0,0.0,0.37014,0.567871,0.146484,-0.720459,0.9423969999999999,-0.231449,-0.31543499999999997,-0.020599,-0.05068,-0.038725,,,,,,,,,,,,,,,,,,,,,,,,,,,,,,,,,,,,,,,,,,,,,,,,,,,,,,,,,,,,,,,,,
27439,1645650812.117344,27.0,0.0,4310.769043,4736.410156,4182.563965,4279.487305,4247.179688,0.0,3.0,59.0,,,,0.0,4.0,0.0,4.0,0.0,4.0,33.333332,,,,,,,,,,,,,,,,,,,,,,,,,,,,,,,,,,,,,,,,,,,,,,,,,,,,,,0.0,0.0,1.0,0.0,512.0,1.0,,,,,,,,,,,,,,,,,,,,,,,,,
27440,1645650812.125159,28.0,0.0,4315.384765999999,4715.384765999999,4207.179688,4279.487305,4260.0,0.0,3.0,59.0,,,,0.0,4.0,0.0,4.0,0.0,4.0,33.333332,,,,,,,,14.0,0.0,0.369664,0.567871,0.146484,-0.720703,0.9433739999999999,-0.21338200000000002,-0.31299299999999997,-0.019222,-0.050592000000000005,-0.040614,,,,,,,,,,,,,,,,,,,,,,,,,,,,,,,,,,,,,,,,,,,,,,,,,,,,,,,,,,,,,,,,,
27441,1645650812.132973,29.0,0.0,4320.512695,4652.820313,4225.128418,4277.94873,4273.846191,0.0,3.0,59.0,,,,0.0,4.0,0.0,4.0,0.0,4.0,33.333332,,,,,,,,,,,,,,,,,,,,,,,,,,,,,,,,,,,,,,,,,,,,,,,,,,,,,,,,,,,,,,,,,,,,,,,,,,,,,,,,,,,,
27442,1645650812.140788,30.0,0.0,4316.922852000001,4637.436035,4235.897461,4276.922852000001,4287.692383,0.0,3.0,59.0,,,,0.0,4.0,0.0,4.0,0.0,4.0,33.333332,,,,,,,,15.0,0.0,0.369664,0.567871,0.146484,-0.720703,0.934585,-0.212894,-0.307134,-0.017935,-0.050513999999999996,-0.042266000000000005,,,,,,,,,,,,,,,,,,,,,,,,,,,,,,,,,,,,,,,,,,,,,,,,,,,,,,,,,,,,,,,,,
27443,1645650812.148603,31.0,0.0,4311.282227000001,4618.974121,4236.922852000001,4278.461426,4282.05127,0.0,3.0,59.0,,,,0.0,4.0,0.0,4.0,0.0,4.0,33.333332,1.0,25.0,3.0,0.0,3.0,0.0,3.0,,,,,,,,,,,,,1.0,0.0,0.0,,,,,,,,,,,,,,,,,,,,,,,,,,,,,,,,0.0,0.0,1.0,0.0,512.0,1.0,4.566718,2.90662,1.647112,1.1183049999999999,1.387526,55.759331,43.990311,56.088367000000005,27.483744,19.978334,4.131195,4.398648000000001,2.2305740000000003,1.416161,1.7338099999999999,0.01574,0.012699,0.0032119999999999996,0.004677000000000001,0.0076170000000000005,2.743048,3.093623,1.327991,1.593164,1.108058
27444,1645650812.156417,32.0,0.0,4321.025879,4567.179688,4247.179688,4278.974121,4283.077147999999,0.0,3.0,59.0,,,,0.0,4.0,0.0,4.0,0.0,4.0,33.333332,,,,,,,,16.0,0.0,0.369664,0.567871,0.146484,-0.720703,0.929213,-0.21338200000000002,-0.311528,-0.018484999999999998,-0.050492,-0.043654000000000005,,,,,,,,,,,,,,,,,,,,,,,,,,,,,,,,,,,,,,,,,,,,,,,,,,,,,,,,,,,,,,,,,
27445,1645650812.164232,33.0,0.0,4325.128418,4616.410156,4232.307617,4278.461426,4289.230957,0.0,3.0,59.0,,,,0.0,4.0,0.0,4.0,0.0,4.0,33.333332,,,,,,,,,,,,,,,,,,,,,,,,,,,,,,,,,,,,,,,,,,,,,,,,,,,,,,,,,,,,,,,,,,,,,,,,,,,,,,,,,,,,
27446,1645650812.1720462,34.0,0.0,4316.410156,4709.743652,4228.205078,4279.487305,4287.692383,0.0,3.0,59.0,,,,0.0,4.0,0.0,4.0,0.0,4.0,33.333332,,,,,,,,17.0,0.0,0.369664,0.567871,0.146484,-0.720703,0.9433739999999999,-0.21338200000000002,-0.31299299999999997,-0.01732,-0.050423,-0.045051,,,,,,,,,,,,,,,,,,,,,,,,,,,,,,,,,,,,,,,,,,,,,,,,,,,,,,,,,,,,,,,,,
27447,1645650812.179961,35.0,0.0,4313.333496,4678.461426,4229.743652,4280.0,4292.820313,0.0,3.0,59.0,,,,0.0,4.0,0.0,4.0,0.0,4.0,33.333332,,,,,,,,,,,,,,,,,,,,,,,,,,,,,,,,,,,,,,,,,,,,,,,,,,,,,,0.0,0.0,1.0,0.0,512.0,1.0,,,,,,,,,,,,,,,,,,,,,,,,,
27448,1645650812.187776,36.0,0.0,4310.769043,4607.692383,4226.666504,4278.974121,4277.436035,0.0,3.0,59.0,,,,0.0,4.0,0.0,4.0,0.0,4.0,33.333332,,,,,,,,18.0,0.0,0.369664,0.567871,0.146484,-0.720703,0.9340959999999999,-0.19971,-0.31104,-0.017786,-0.05041,-0.040057,,,,,,,,,,,,,,,,,,,,,,,,,,,,,,,,,,,,,,,,,,,,,,,,,,,,,,,,,,,,,,,,,
27449,1645650812.1956902,37.0,0.0,4322.563965,4657.436035,4206.666504,4279.487305,4264.102539,0.0,3.0,59.0,,,,0.0,4.0,0.0,4.0,0.0,4.0,33.333332,,,,,,,,,,,,,,,,,,,,,,,,,,,,,,,,,,,,,,,,,,,,,,,,,,,,,,,,,,,,,,,,,,,,,,,,,,,,,,,,,,,,
27450,1645650812.203505,38.0,0.0,4317.436035,4732.820313,4205.641113000001,4280.512695,4258.461426,0.0,3.0,59.0,,,,0.0,4.0,0.0,4.0,0.0,4.0,33.333332,,,,,,,,19.0,0.0,0.369568,0.567871,0.146729,-0.720703,0.9316549999999999,-0.210452,-0.314946,-0.01674,-0.05035,-0.041716,,,,,,,,,,,,,,,,,,,,,,,,,,,,,,,,,,,,,,,,,,,,,,,,,,,,,,,,,,,,,,,,,
27451,1645650812.211319,39.0,0.0,4298.461426,4703.589844,4209.230957,4279.487305,4250.769043,0.0,3.0,59.0,,,,0.0,4.0,0.0,4.0,0.0,4.0,33.333332,,,,,,,,,,,,,,,,,,,,,,,,,,,,,,,,,,,,,,,,,,,,,,,,,,,,,,0.0,0.0,1.0,0.0,512.0,1.0,,,,,,,,,,,,,,,,,,,,,,,,,
27452,1645650812.219134,40.0,0.0,4304.615234000001,4656.922852000001,4205.641113000001,4278.461426,4247.692383,0.0,3.0,59.0,,,,0.0,4.0,0.0,4.0,0.0,4.0,33.333332,,,,,,,,20.0,0.0,0.369568,0.567871,0.146729,-0.720703,0.929702,-0.211429,-0.317388,-0.0157,-0.05049,-0.043062,,,,,,,,,,,,,,,,,,,,,,,,,,,,,,,,,,,,,,,,,,,,,,,,,,,,,,,,,,,,,,,,,
27453,1645650812.226949,41.0,0.0,4324.102539,4618.974121,4215.384765999999,4278.974121,4262.05127,0.0,3.0,59.0,,,,0.0,4.0,0.0,4.0,0.0,4.0,33.333332,,,,,,,,,,,,,,,,,,,,,,,,,,,,,,,,,,,,,,,,,,,,,,,,,,,,,,,,,,,,,,,,,,,,,,,,,,,,,,,,,,,,
27454,1645650812.2347631,42.0,1.0,4324.102539,4630.128418,4214.230957,4279.102539,4260.833496,0.0,3.0,59.0,,,,0.0,4.0,0.0,4.0,0.0,4.0,33.333332,,,,,,,,21.0,1.0,0.369492,0.567871,0.14668,-0.7207520000000001,0.930385,-0.212796,-0.316411,-0.015836000000000003,-0.050477,-0.043334,,,,,,,,,,,,,,,,,,,,,,,,,,,,,,,,,,,,,,,,,,,,,,,,,,,,,,,,,,,,,,,,,
27455,1645650812.242578,43.0,1.0,4324.102539,4641.282227000001,4213.077147999999,4279.230957,4259.615234000001,0.0,3.0,59.0,,,,0.0,4.0,0.0,4.0,0.0,4.0,33.333332,,,,,,,,,,,,,,,,,,,,,,,,,,,,,,,,,,,,,,,,,,,,,,,,,,,,,,0.0,0.0,1.0,0.0,512.0,1.0,,,,,,,,,,,,,,,,,,,,,,,,,
27456,1645650812.250393,44.0,1.0,4324.102539,4652.436035,4211.922852000001,4279.358886999999,4258.397461,0.0,3.0,59.0,,,,0.0,4.0,0.0,4.0,0.0,4.0,33.333332,,,,,,,,22.0,1.0,0.36941599999999997,0.567871,0.14663099999999998,-0.720801,0.931069,-0.21416300000000002,-0.31543499999999997,-0.015971,-0.050463,-0.043605,,,,,,,,,,,,,,,,,,,,,,,,,,,,,,,,,,,,,,,,,,,,,,,,,,,,,,,,,,,,,,,,,
27457,1645650812.258207,45.0,1.0,4324.102539,4663.589844,4210.769043,4279.487305,4257.179688,0.0,3.0,59.0,,,,0.0,4.0,0.0,4.0,0.0,4.0,33.333332,,,,,,,,,,,,,,,,,,,,,,,,,,,,,,,,,,,,,,,,,,,,,,,,,,,,,,,,,,,,,,,,,,,,,,,,,,,,,,,,,,,,
27458,1645650812.266022,46.0,1.0,4324.102539,4674.743652,4209.615234000001,4279.615234000001,4255.961426,0.0,3.0,59.0,,,,0.0,4.0,0.0,4.0,0.0,4.0,33.333332,,,,,,,,23.0,1.0,0.36934,0.567871,0.146582,-0.72085,0.931753,-0.215531,-0.314458,-0.016106,-0.050449,-0.043877,,,,,,,,,,,,,,,,,,,,,,,,,,,,,,,,,,,,,,,,,,,,,,,,,,,,,,,,,,,,,,,,,
27459,1645650812.2738369,47.0,1.0,4324.102539,4685.897461,4208.461426,4279.743652,4254.743652,0.0,3.0,59.0,,,,0.0,4.0,0.0,4.0,0.0,4.0,33.333332,,,,,,,,,,,,,,,,,,,,1.0,0.0,0.0,,,,,,,,,,,,,,,,,,,,,,,,,,,,,,,,0.0,0.0,1.0,0.0,512.0,1.0,4.334596,2.426837,1.6733360000000002,1.0168270000000001,1.172317,57.030289,43.370884000000004,60.013622,27.977997,20.472885,4.212708,3.5335910000000004,1.978809,1.164296,1.316195,0.008407,0.011089,0.0015300000000000001,0.005097,0.007540000000000001,2.7491220000000003,2.8012580000000002,1.536842,1.577834,0.910499
27460,1645650812.281651,48.0,1.0,4324.102539,4697.05127,4207.307617,4279.871582,4253.525879,0.0,3.0,59.0,,,,0.0,4.0,0.0,4.0,0.0,4.0,33.333332,,,,,,,,24.0,1.0,0.369264,0.567871,0.146533,-0.7208979999999999,0.932436,-0.216898,-0.313481,-0.016241,-0.050436,-0.044148,,,,,,,,,,,,,,,,,,,,,,,,,,,,,,,,,,,,,,,,,,,,,,,,,,,,,,,,,,,,,,,,,
27461,1645650812.289466,49.0,0.0,4324.102539,4708.205078,4206.153809,4280.0,4252.307617,0.0,3.0,59.0,,,,0.0,4.0,0.0,4.0,0.0,4.0,33.333332,,,,,,,,,,,,,,,,,,,,,,,,,,,,,,,,,,,,,,,,,,,,,,,,,,,,,,,,,,,,,,,,,,,,,,,,,,,,,,,,,,,,
27462,1645650812.297281,50.0,0.0,4324.615234000001,4716.922852000001,4206.666504,4278.461426,4259.487305,0.0,3.0,59.0,,,,0.0,4.0,0.0,4.0,0.0,4.0,33.333332,,,,,,,,25.0,0.0,0.369188,0.567871,0.146484,-0.720947,0.9331200000000001,-0.21826500000000001,-0.31250500000000003,-0.016375999999999998,-0.050422,-0.04442,,,,,,,,,,,,,,,,,,,,,,,,,,,,,,,,,,,,,,,,,,,,,,,,,,,,,,,,,,,,,,,,,
27463,1645650812.305095,51.0,0.0,4301.025879,4643.589844,4205.641113000001,4277.436035,4253.333496,0.0,3.0,59.0,,,,0.0,4.0,0.0,4.0,0.0,4.0,33.333332,,,,,,,,,,,,,,,,,,,,,,,,,,,,,,,,,,,,,,,,,,,,,,,,,,,,,,0.0,0.0,1.0,0.0,512.0,1.0,,,,,,,,,,,,,,,,,,,,,,,,,
27464,1645650812.31291,52.0,0.0,4294.358886999999,4605.128418,4194.358886999999,4278.974121,4263.077147999999,0.0,3.0,59.0,,,,0.0,4.0,0.0,4.0,0.0,4.0,33.333332,,,,,,,,26.0,0.0,0.369664,0.567871,0.146484,-0.720703,0.9438620000000001,-0.215335,-0.311528,-0.016887,-0.050408999999999995,-0.039441000000000004,,,,,,,,,,,,,,,,,,,,,,,,,,,,,,,,,,,,,,,,,,,,,,,,,,,,,,,,,,,,,,,,,
27465,1645650812.320624,53.0,0.0,4298.461426,4604.102539,4190.769043,4279.487305,4260.0,0.0,3.0,59.0,,,,0.0,4.0,0.0,4.0,0.0,4.0,33.333332,,,,,,,,,,,,,,,,,,,,,,,,,,,,,,,,,,,,,,,,,,,,,,,,,,,,,,,,,,,,,,,,,,,,,,,,,,,,,,,,,,,,
27466,1645650812.328439,54.0,0.0,4301.538574,4634.871582,4187.692383,4278.461426,4248.717772999999,0.0,3.0,59.0,,,,0.0,4.0,0.0,4.0,0.0,4.0,33.333332,,,,,,,,27.0,0.0,0.369289,0.5681149999999999,0.146484,-0.720703,0.944839,-0.204593,-0.31543499999999997,-0.017445,-0.050349,-0.034960000000000005,,,,,,,,,,,,,,,,,,,,,,,,,,,,,,,,,,,,,,,,,,,,,,,,,,,,,,,,,,,,,,,,,
27467,1645650812.336253,55.0,0.0,4299.487305,4736.922852000001,4192.307617,4278.974121,4251.794922,0.0,3.0,59.0,,,,0.0,4.0,0.0,4.0,0.0,4.0,33.333332,,,,,,,,,,,,,,,,,,,,,,,,,,,,,,,,,,,,,,,,,,,,,,,,,,,,,,0.0,0.0,1.0,0.0,512.0,1.0,,,,,,,,,,,,,,,,,,,,,,,,,
27468,1645650812.344068,56.0,0.0,4313.846191,4795.384765999999,4206.153809,4278.974121,4272.307617,0.0,3.0,59.0,,,,0.0,4.0,0.0,4.0,0.0,4.0,33.333332,,,,,,,,28.0,0.0,0.369289,0.5681149999999999,0.146484,-0.720703,0.944839,-0.20556999999999997,-0.31787600000000005,-0.016335,-0.050441,-0.037176999999999995,,,,,,,,,,,,,,,,,,,,,,,,,,,,,,,,,,,,,,,,,,,,,,,,,,,,,,,,,,,,,,,,,
27469,1645650812.351882,57.0,0.0,4323.077147999999,4731.794922,4213.333496,4277.94873,4275.384765999999,0.0,3.0,59.0,,,,0.0,4.0,0.0,4.0,0.0,4.0,33.333332,,,,,,,,,,,,,,,,,,,,,,,,,,,,,,,,,,,,,,,,,,,,,,,,,,,,,,,,,,,,,,,,,,,,,,,,,,,,,,,,,,,,
27470,1645650812.3596961,58.0,0.0,4317.436035,4638.974121,4221.538574,4277.94873,4263.589844,0.0,3.0,59.0,,,,0.0,4.0,0.0,4.0,0.0,4.0,33.333332,,,,,,,,29.0,0.0,0.369289,0.5681149999999999,0.146484,-0.720703,0.933608,-0.22266,-0.32227100000000003,-0.015385,-0.050426,-0.039123000000000005,,,,,,,,,,,,,,,,,,,,,,,,,,,,,,,,,,,,,,,,,,,,,,,,,,,,,,,,,,,,,,,,,
27471,1645650812.367511,59.0,0.0,4307.692383,4583.589844,4230.769043,4278.974121,4254.871582,0.0,3.0,59.0,,,,0.0,4.0,0.0,4.0,0.0,4.0,33.333332,,,,,,,,,,,,,,,,,,,,,,,,,,,,,,,,,,,,,,,,,,,,,,,,,,,,,,0.0,0.0,1.0,0.0,512.0,1.0,,,,,,,,,,,,,,,,,,,,,,,,,
27472,1645650812.375325,60.0,0.0,4313.846191,4579.487305,4252.307617,4279.487305,4277.436035,0.0,3.0,59.0,,,,0.0,4.0,0.0,4.0,0.0,4.0,33.333332,,,,,,,,30.0,0.0,0.36986199999999997,0.5681149999999999,0.14624,-0.720459,0.9428850000000001,-0.21631199999999998,-0.31396999999999997,-0.016044,-0.050413,-0.034674,,,,,,,,,,,,,,,,,,,,,,,,,,,,,,,,,,,,,,,,,,,,,,,,,,,,,,,,,,,,,,,,,
27473,1645650812.38314,61.0,0.0,4313.333496,4600.512695,4245.641113000001,4281.025879,4286.153809,0.0,3.0,59.0,,,,0.0,4.0,0.0,4.0,0.0,4.0,33.333332,,,,,,,,,,,,,,,,,,,,,,,,,,,,,,,,,,,,,,,,,,,,,,,,,,,,,,,,,,,,,,,,,,,,,,,,,,,,,,,,,,,,
27474,1645650812.390854,62.0,0.0,4317.94873,4602.563965,4231.282227000001,4281.025879,4270.769043,0.0,3.0,59.0,,,,0.0,4.0,0.0,4.0,0.0,4.0,33.333332,,,,,,,,31.0,0.0,0.36986199999999997,0.5681149999999999,0.14624,-0.720459,0.9487450000000001,-0.22119499999999997,-0.318364,-0.016637,-0.050401,-0.03687,,,,,,,,,,,,,,,,,,,,,,,,,,,,,,,,,,,,,,,,,,,,,,,,,,,,,,,,,,,,,,,,,
27475,1645650812.398669,63.0,0.0,4320.0,4643.077147999999,4205.641113000001,4280.0,4253.333496,0.0,3.0,59.0,,,,0.0,4.0,0.0,4.0,0.0,4.0,33.333332,,,,,,,,,,,,,,,,,,,,1.0,0.0,0.0,,,,,,,,,,,,,,,,,,,,,,,,,,,,,,,,0.0,0.0,1.0,0.0,512.0,1.0,3.9088550000000004,2.045935,1.8094740000000002,0.9962479999999999,1.094638,55.246947999999996,42.482105,61.299305000000004,33.297768,20.839781,4.605535,3.1880990000000002,1.819237,1.0882049999999999,1.238612,0.005723,0.010539,0.0017170000000000002,0.005621,0.007331999999999999,2.577402,2.456021,1.661874,1.604394,0.8371639999999999
27476,1645650812.406383,64.0,0.0,4325.641113000001,4731.282227000001,4217.94873,4280.512695,4260.0,450.0,3.0,59.0,,,,0.0,4.0,0.0,4.0,0.0,4.0,33.333332,,,,,,,,32.0,0.0,0.36986199999999997,0.5681149999999999,0.14624,-0.720459,0.932143,-0.22510100000000002,-0.31006300000000003,-0.017169999999999998,-0.050341000000000004,-0.038896,,,,,,,,,,,,,,,,,,,,,,,,,,,,,,,,,,,,,,,,,,,,,,,,,,,,,,,,,,,,,,,,,
27477,1645650812.414197,65.0,0.0,4335.384765999999,4765.641113000001,4226.666504,4278.974121,4275.384765999999,450.0,3.0,59.0,,,,0.0,4.0,0.0,4.0,0.0,4.0,33.333332,,,,,,,,,,,,,,,,,,,,,,,,,,,,,,,,,,,,,,,,,,,,,,,,,,,,,,,,,,,,,,,,,,,,,,,,,,,,,,,,,,,,
27478,1645650812.4220119,66.0,0.0,4322.05127,4707.179688,4223.589844,4278.461426,4266.153809,16249.0,3.0,59.0,,,,0.0,4.0,0.0,4.0,0.0,4.0,33.333332,,,,,,,,33.0,0.0,0.36986199999999997,0.5681149999999999,0.14624,-0.720459,0.951675,-0.210941,-0.309575,-0.017651,-0.050483,-0.04072,,,,,,,,,,,,,,,,,,,,,,,,,,,,,,,,,,,,,,,,,,,,,,,,,,,,,,,,,,,,,,,,,
27479,1645650812.429826,67.0,0.0,4293.846191,4622.05127,4210.769043,4279.487305,4252.307617,450.0,3.0,59.0,,,,0.0,4.0,0.0,4.0,0.0,4.0,33.333332,,,,,,,,,,,,,,,,,,,,,,,,,,,,,,,,,,,,,,,,,,,,,,,,,,,,,,0.0,0.0,1.0,0.0,512.0,1.0,,,,,,,,,,,,,,,,,,,,,,,,,
27480,1645650812.437641,68.0,0.0,4283.589844,4606.153809,4209.743652,4279.487305,4256.410156,0.0,3.0,59.0,,,,0.0,4.0,0.0,4.0,0.0,4.0,33.333332,,,,,,,,34.0,0.0,0.37033699999999997,0.5681149999999999,0.14624,-0.7202149999999999,0.933608,-0.20947600000000002,-0.317388,-0.018083000000000002,-0.050513,-0.042361,,,,,,,,,,,,,,,,,,,,,,,,,,,,,,,,,,,,,,,,,,,,,,,,,,,,,,,,,,,,,,,,,
27481,1645650812.445455,69.0,0.0,4293.846191,4640.512695,4204.615234000001,4278.461426,4269.743652,450.0,3.0,59.0,,,,0.0,4.0,0.0,4.0,0.0,4.0,33.333332,,,,,,,,,,,,,,,,,,,,,,,,,,,,,,,,,,,,,,,,,,,,,,,,,,,,,,,,,,,,,,,,,,,,,,,,,,,,,,,,,,,,
27482,1645650812.4531698,70.0,0.0,4285.641113000001,4626.153809,4200.512695,4280.0,4256.922852000001,16149.0,3.0,59.0,,,,0.0,4.0,0.0,4.0,0.0,4.0,33.333332,,,,,,,,35.0,0.0,0.37033699999999997,0.5681149999999999,0.14624,-0.7202149999999999,0.932631,-0.227054,-0.321294,-0.018472,-0.050491,-0.037538999999999996,,,,,,,,,,,,,,,,,,,,,,,,,,,,,,,,,,,,,,,,,,,,,,,,,,,,,,,,,,,,,,,,,
27483,1645650812.460984,71.0,0.0,4303.589844,4617.94873,4214.871582,4278.974121,4270.256348,450.0,3.0,59.0,,,,0.0,4.0,0.0,4.0,0.0,4.0,33.333332,,,,,,,,,,,,,,,,,,,,,,,,,,,,,,,,,,,,,,,,,,,,,,,,,,,,,,0.0,0.0,1.0,0.0,512.0,1.0,,,,,,,,,,,,,,,,,,,,,,,,,
27484,1645650812.4687982,72.0,0.0,4334.871582,4720.512695,4227.692383,4278.974121,4301.538574,450.0,3.0,59.0,,,,0.0,4.0,0.0,4.0,0.0,4.0,33.333332,,,,,,,,36.0,0.0,0.36986199999999997,0.5681149999999999,0.14624,-0.720459,0.951675,-0.210941,-0.309575,-0.018822,-0.050519999999999995,-0.033297,,,,,,,,,,,,,,,,,,,,,,,,,,,,,,,,,,,,,,,,,,,,,,,,,,,,,,,,,,,,,,,,,
27485,1645650812.476613,73.0,0.0,4340.512695,4788.717772999999,4213.846191,4280.0,4299.487305,0.0,3.0,59.0,,,,0.0,4.0,0.0,4.0,0.0,4.0,33.333332,,,,,,,,,,,,,,,,,,,,,,,,,,,,,,,,,,,,,,,,,,,,,,,,,,,,,,,,,,,,,,,,,,,,,,,,,,,,,,,,,,,,
27486,1645650812.484427,74.0,0.0,4321.538574,4683.077147999999,4191.282227000001,4276.922852000001,4270.256348,450.0,3.0,59.0,,,,0.0,4.0,0.0,4.0,0.0,4.0,33.333332,,,,,,,,37.0,0.0,0.37033699999999997,0.5681149999999999,0.14624,-0.7202149999999999,0.932631,-0.227054,-0.321294,-0.019137,-0.050498,-0.029381,,,,,,,,,,,,,,,,,,,,,,,,,,,,,,,,,,,,,,,,,,,,,,,,,,,,,,,,,,,,,,,,,
27487,1645650812.492242,75.0,0.0,4322.05127,4573.846191,4215.897461,4275.384765999999,4275.897461,16220.0,3.0,59.0,,,,0.0,4.0,0.0,4.0,0.0,4.0,33.333332,,,,,,,,,,,,,,,,,,,,,,,,,,,,,,,,,,,,,,,,,,,,,,,,,,,,,,0.0,0.0,1.0,0.0,512.0,1.0,,,,,,,,,,,,,,,,,,,,,,,,,
27488,1645650812.500056,76.0,0.0,4329.230957,4598.461426,4242.563965,4280.512695,4291.282227000001,450.0,3.0,59.0,,,,0.0,4.0,0.0,4.0,0.0,4.0,33.333332,,,,,,,,38.0,0.0,0.369962,0.5683590000000001,0.14624,-0.7202149999999999,0.9350729999999999,-0.22119499999999997,-0.326177,-0.019421,-0.050477,-0.032156,,,,,,,,,,,,,,,,,,,,,,,,,,,,,,,,,,,,,,,,,,,,,,,,,,,,,,,,,,,,,,,,,
27489,1645650812.50787,77.0,0.0,4334.871582,4647.179688,4245.128418,4281.538574,4294.358886999999,450.0,3.0,59.0,,,,0.0,4.0,0.0,4.0,0.0,4.0,33.333332,,,,,,,,,,,,,,,,,,,,,,,,,,,,,,,,,,,,,,,,,,,,,,,,,,,,,,,,,,,,,,,,,,,,,,,,,,,,,,,,,,,,
27490,1645650812.5156848,78.0,0.0,4337.94873,4643.077147999999,4227.179688,4278.974121,4289.230957,450.0,3.0,59.0,,,,0.0,4.0,0.0,4.0,0.0,4.0,33.333332,,,,,,,,39.0,0.0,0.369962,0.5683590000000001,0.14624,-0.7202149999999999,0.9365379999999999,-0.22266,-0.322759,-0.019774,-0.050508,-0.028402999999999998,,,,,,,,,,,,,,,,,,,,,,,,,,,,,,,,,,,,,,,,,,,,,,,,,,,,,,,,,,,,,,,,,
27491,1645650812.523399,79.0,0.0,4332.307617,4648.717772999999,4221.025879,4280.0,4273.846191,16220.0,3.0,59.0,,,,0.0,4.0,0.0,4.0,0.0,4.0,33.333332,,,,,,,,,,,,,,,,,,,,1.0,0.0,0.0,,,,,,,,,,,,,,,,,,,,,,,,,,,,,,,,0.0,0.0,1.0,0.0,512.0,1.0,3.2611470000000002,1.7590459999999999,2.0443740000000004,1.0540049999999999,1.073776,49.572078999999995,41.262463000000004,59.099872999999995,41.551804,20.345072000000002,4.740211,3.2171380000000003,1.6416669999999998,1.1327610000000001,1.239796,0.004565,0.009818,0.002699,0.005974,0.006853,2.260154,2.114584,1.707586,1.652161,0.809393
27492,1645650812.531214,80.0,0.0,4316.922852000001,4648.717772999999,4208.717772999999,4279.487305,4261.025879,450.0,3.0,59.0,,,,0.0,4.0,0.0,4.0,0.0,4.0,33.333332,,,,,,,,40.0,0.0,0.369962,0.5683590000000001,0.14624,-0.7202149999999999,0.938003,-0.215335,-0.306157,-0.02014,-0.050535000000000004,-0.031276,,,,,,,,,,,,,,,,,,,,,,,,,,,,,,,,,,,,,,,,,,,,,,,,,,,,,,,,,,,,,,,,,
27493,1645650812.539028,81.0,0.0,4308.205078,4600.0,4223.077147999999,4277.94873,4274.871582,450.0,3.0,59.0,,,,0.0,4.0,0.0,4.0,0.0,4.0,33.333332,,,,,,,,,,,,,,,,,,,,,,,,,,,,,,,,,,,,,,,,,,,,,,,,,,,,,,,,,,,,,,,,,,,,,,,,,,,,,,,,,,,,
27494,1645650812.546843,82.0,0.0,4321.538574,4533.846191,4229.743652,4278.974121,4302.05127,450.0,3.0,59.0,,,,0.0,4.0,0.0,4.0,0.0,4.0,33.333332,,,,,,,,41.0,0.0,0.36948600000000004,0.5683590000000001,0.14624,-0.720459,0.937514,-0.210452,-0.320317,-0.020322999999999997,-0.050511,-0.033861,,,,,,,,,,,,,,,,,,,,,,,,,,,,,,,,,,,,,,,,,,,,,,,,,,,,,,,,,,,,,,,,,
27495,1645650812.554657,83.0,0.0,4338.461426,4556.410156,4227.179688,4278.974121,4311.794922,16220.0,3.0,59.0,,,,0.0,4.0,0.0,4.0,0.0,4.0,33.333332,,,,,,,,,,,,,,,,,,,,,,,,,,,,,,,,,,,,,,,,,,,,,,,,,,,,,,0.0,0.0,1.0,0.0,512.0,1.0,,,,,,,,,,,,,,,,,,,,,,,,,
27496,1645650812.5624712,84.0,0.0,4333.333496,4676.410156,4205.641113000001,4278.974121,4296.922852000001,450.0,3.0,59.0,,,,0.0,4.0,0.0,4.0,0.0,4.0,33.333332,,,,,,,,42.0,0.0,0.369765,0.5681149999999999,0.146484,-0.720459,0.941421,-0.21875300000000003,-0.319341,-0.018975,-0.050587,-0.029938,,,,,,,,,,,,,,,,,,,,,,,,,,,,,,,,,,,,,,,,,,,,,,,,,,,,,,,,,,,,,,,,,
27497,1645650812.570286,85.0,0.0,4314.358886999999,4673.333496,4194.871582,4280.512695,4281.025879,450.0,3.0,59.0,,,,0.0,4.0,0.0,4.0,0.0,4.0,33.333332,,,,,,,,,,,,,,,,,,,,,,,,,,,,,,,,,,,,,,,,,,,,,,,,,,,,,,,,,,,,,,,,,,,,,,,,,,,,,,,,,,,,
27498,1645650812.5781,86.0,0.0,4326.153809,4595.384765999999,4195.897461,4279.487305,4301.025879,450.0,3.0,59.0,,,,0.0,4.0,0.0,4.0,0.0,4.0,33.333332,,,,,,,,43.0,0.0,0.369765,0.5681149999999999,0.146484,-0.720459,0.9404440000000001,-0.20264000000000001,-0.318364,-0.017712000000000002,-0.050558,-0.032608,,,,,,,,,,,,,,,,,,,,,,,,,,,,,,,,,,,,,,,,,,,,,,,,,,,,,,,,,,,,,,,,,
27499,1645650812.585915,87.0,0.0,4329.743652,4657.94873,4188.717772999999,4277.94873,4302.05127,16220.0,3.0,59.0,,,,0.0,4.0,0.0,4.0,0.0,4.0,33.333332,,,,,,,,,,,,,,,,,,,,,,,,,,,,,,,,,,,,,,,,,,,,,,,,,,,,,,0.0,0.0,1.0,0.0,512.0,1.0,,,,,,,,,,,,,,,,,,,,,,,,,
27500,1645650812.593629,88.0,0.0,4322.563965,4716.922852000001,4181.538574,4278.974121,4273.333496,450.0,3.0,59.0,,,,0.0,4.0,0.0,4.0,0.0,4.0,33.333332,,,,,,,,44.0,0.0,0.369765,0.5681149999999999,0.146484,-0.720459,0.959976,-0.191897,-0.298344,-0.016575,-0.05058,-0.035012,,,,,,,,,,,,,,,,,,,,,,,,,,,,,,,,,,,,,,,,,,,,,,,,,,,,,,,,,,,,,,,,,
27501,1645650812.601444,89.0,0.0,4321.025879,4637.436035,4181.538574,4278.461426,4264.615234000001,450.0,3.0,59.0,,,,0.0,4.0,0.0,4.0,0.0,4.0,33.333332,,,,,,,,,,,,,,,,,,,,,,,,,,,,,,,,,,,,,,,,,,,,,,,,,,,,,,,,,,,,,,,,,,,,,,,,,,,,,,,,,,,,
27502,1645650812.609158,90.0,0.0,4328.205078,4569.230957,4195.384765999999,4278.461426,4292.307617,450.0,3.0,59.0,,,,0.0,4.0,0.0,4.0,0.0,4.0,33.333332,,,,,,,,45.0,0.0,0.369192,0.5681149999999999,0.146729,-0.720703,0.9506979999999999,-0.20068699999999998,-0.315923,-0.015699,-0.0506,-0.037175,,,,,,,,,,,,,,,,,,,,,,,,,,,,,,,,,,,,,,,,,,,,,,,,,,,,,,,,,,,,,,,,,
27503,1645650812.616972,91.0,0.0,4320.0,4580.512695,4206.666504,4278.974121,4276.922852000001,16220.0,3.0,59.0,,,,0.0,4.0,0.0,4.0,0.0,4.0,33.333332,,,,,,,,,,,,,,,,,,,,,,,,,,,,,,,,,,,,,,,,,,,,,,,,,,,,,,0.0,0.0,1.0,0.0,512.0,1.0,,,,,,,,,,,,,,,,,,,,,,,,,
27504,1645650812.6247869,92.0,0.0,4326.666504,4615.384765999999,4227.692383,4278.974121,4263.589844,450.0,3.0,59.0,,,,0.0,4.0,0.0,4.0,0.0,4.0,33.333332,,,,,,,,46.0,0.0,0.369668,0.5681149999999999,0.146729,-0.720459,0.929702,-0.220218,-0.309575,-0.016278,-0.050618,-0.039169999999999996,,,,,,,,,,,,,,,,,,,,,,,,,,,,,,,,,,,,,,,,,,,,,,,,,,,,,,,,,,,,,,,,,
27505,1645650812.632601,93.0,0.0,4330.256348,4655.897461,4213.846191,4281.025879,4274.358886999999,450.0,3.0,59.0,,,,0.0,4.0,0.0,4.0,0.0,4.0,33.333332,,,,,,,,,,,,,,,,,,,,,,,,,,,,,,,,,,,,,,,,,,,,,,,,,,,,,,,,,,,,,,,,,,,,,,,,,,,,,,,,,,,,
27506,1645650812.640416,94.0,0.0,4322.05127,4660.0,4184.102539,4281.538574,4255.384765999999,450.0,3.0,59.0,,,,0.0,4.0,0.0,4.0,0.0,4.0,33.333332,,,,,,,,47.0,0.0,0.369192,0.5681149999999999,0.146729,-0.720703,0.938003,-0.215824,-0.318364,-0.016798,-0.050684,-0.034618,,,,,,,,,,,,,,,,,,,,,,,,,,,,,,,,,,,,,,,,,,,,,,,,,,,,,,,,,,,,,,,,,
27507,1645650812.64823,95.0,0.0,4316.922852000001,4676.410156,4165.128418,4278.974121,4233.846191,16220.0,3.0,59.0,,,,0.0,4.0,0.0,4.0,0.0,4.0,33.333332,0.972656,33.333332,4.0,0.0,4.0,0.0,4.0,,,,,,,,,,,,,1.0,0.0,0.0,,,,,,,,,,,,,,,,,,,,,,,,,,,,,,,,0.0,0.0,1.0,0.0,128.0,0.937926,2.497677,1.5825639999999999,2.304659,1.168456,1.0536290000000001,40.577915000000004,39.370174,54.456481999999994,49.914947999999995,18.835325,4.413394,3.532936,1.4619440000000001,1.22678,1.19222,0.003754,0.008643000000000001,0.00399,0.006079,0.006229,1.901361,1.8669349999999998,1.7142080000000002,1.6857849999999999,0.786489
27508,1645650812.6559448,96.0,0.0,4313.846191,4710.769043,4201.538574,4278.974121,4253.333496,450.0,3.0,59.0,,,,0.0,4.0,0.0,4.0,0.0,4.0,33.333332,,,,,,,,48.0,0.0,0.369192,0.5681149999999999,0.146729,-0.720703,0.941421,-0.21826500000000001,-0.31006300000000003,-0.015753,-0.050742,-0.036821,,,,,,,,,,,,,,,,,,,,,,,,,,,,,,,,,,,,,,,,,,,,,,,,,,,,,,,,,,,,,,,,,
27509,1645650812.663759,97.0,0.0,4307.179688,4653.333496,4213.846191,4278.974121,4268.717772999999,450.0,3.0,59.0,,,,0.0,4.0,0.0,4.0,0.0,4.0,33.333332,,,,,,,,,,,,,,,,,,,,,,,,,,,,,,,,,,,,,,,,,,,,,,,,,,,,,,,,,,,,,,,,,,,,,,,,,,,,,,,,,,,,
27510,1645650812.6715732,98.0,0.0,4293.846191,4611.794922,4196.922852000001,4277.94873,4263.077147999999,450.0,3.0,59.0,,,,0.0,4.0,0.0,4.0,0.0,4.0,33.333332,,,,,,,,49.0,0.0,0.369293,0.5683590000000001,0.146729,-0.720459,0.946792,-0.20508099999999999,-0.302739,-0.016424,-0.050697000000000006,-0.038803,,,,,,,,,,,,,,,,,,,,,,,,,,,,,,,,,,,,,,,,,,,,,,,,,,,,,,,,,,,,,,,,,
27511,1645650812.679388,99.0,0.0,4295.897461,4615.897461,4205.128418,4278.974121,4275.384765999999,16220.0,3.0,59.0,,,,0.0,4.0,0.0,4.0,0.0,4.0,33.333332,,,,,,,,,,,,,,,,,,,,,,,,,,,,,,,,,,,,,,,,,,,,,,,,,,,,,,0.0,0.0,1.0,0.0,128.0,0.937926,,,,,,,,,,,,,,,,,,,,,,,,,
27512,1645650812.687202,100.0,0.0,4318.974121,4585.641113000001,4243.589844,4280.512695,4287.692383,450.0,3.0,59.0,,,,0.0,4.0,0.0,4.0,0.0,4.0,33.333332,,,,,,,,50.0,0.0,0.369293,0.5683590000000001,0.146729,-0.720459,0.944839,-0.21386999999999998,-0.310552,-0.016978999999999998,-0.050706,-0.034385,,,,,,,,,,,,,,,,,,,,,,,,,,,,,,,,,,,,,,,,,,,,,,,,,,,,,,,,,,,,,,,,,
27513,1645650812.695017,101.0,0.0,4335.384765999999,4651.282227000001,4225.641113000001,4277.94873,4290.769043,450.0,3.0,59.0,,,,0.0,4.0,0.0,4.0,0.0,4.0,33.333332,,,,,,,,,,,,,,,,,,,,,,,,,,,,,,,,,,,,,,,,,,,,,,,,,,,,,,,,,,,,,,,,,,,,,,,,,,,,,,,,,,,,
27514,1645650812.702831,102.0,0.0,4310.256348,4760.0,4197.94873,4278.974121,4278.461426,450.0,3.0,59.0,,,,0.0,4.0,0.0,4.0,0.0,4.0,33.333332,,,,,,,,51.0,0.0,0.369293,0.5683590000000001,0.146729,-0.720459,0.94435,-0.20556999999999997,-0.31201599999999996,-0.017527,-0.050713,-0.030361000000000003,,,,,,,,,,,,,,,,,,,,,,,,,,,,,,,,,,,,,,,,,,,,,,,,,,,,,,,,,,,,,,,,,
27515,1645650812.710645,103.0,0.0,4309.743652,4672.820313,4222.563965,4280.512695,4270.256348,16220.0,3.0,59.0,,,,0.0,4.0,0.0,4.0,0.0,4.0,33.333332,,,,,,,,,,,,,,,,,,,,,,,,,,,,,,,,,,,,,,,,,,,,,,,,,,,,,,0.0,0.0,1.0,0.0,128.0,0.937926,,,,,,,,,,,,,,,,,,,,,,,,,
27516,1645650812.7184598,104.0,0.0,4333.846191,4516.922852000001,4234.358886999999,4277.436035,4278.974121,450.0,3.0,59.0,,,,0.0,4.0,0.0,4.0,0.0,4.0,33.333332,,,,,,,,52.0,0.0,0.368816,0.5683590000000001,0.146729,-0.720703,0.925307,-0.21924200000000002,-0.302739,-0.017972,-0.050672,-0.026739,,,,,,,,,,,,,,,,,,,,,,,,,,,,,,,,,,,,,,,,,,,,,,,,,,,,,,,,,,,,,,,,,
27517,1645650812.726274,105.0,0.0,4328.717772999999,4537.436035,4220.512695,4276.922852000001,4293.333496,450.0,3.0,59.0,,,,0.0,4.0,0.0,4.0,0.0,4.0,33.333332,,,,,,,,,,,,,,,,,,,,,,,,,,,,,,,,,,,,,,,,,,,,,,,,,,,,,,,,,,,,,,,,,,,,,,,,,,,,,,,,,,,,
27518,1645650812.733989,106.0,0.0,4299.487305,4594.871582,4207.179688,4279.487305,4264.615234000001,450.0,3.0,59.0,,,,0.0,4.0,0.0,4.0,0.0,4.0,33.333332,,,,,,,,53.0,0.0,0.368816,0.5683590000000001,0.146729,-0.720703,0.945815,-0.20703400000000002,-0.305669,-0.018323,-0.050634,-0.029729000000000002,,,,,,,,,,,,,,,,,,,,,,,,,,,,,,,,,,,,,,,,,,,,,,,,,,,,,,,,,,,,,,,,,
27519,1645650812.741803,107.0,0.0,4293.333496,4569.743652,4195.897461,4280.512695,4244.615234000001,16220.0,3.0,59.0,,,,0.0,4.0,0.0,4.0,0.0,4.0,33.333332,,,,,,,,,,,,,,,,,,,,,,,,,,,,,,,,,,,,,,,,,,,,,,,,,,,,,,0.0,0.0,1.0,0.0,128.0,0.937926,,,,,,,,,,,,,,,,,,,,,,,,,
27520,1645650812.749618,108.0,0.0,4297.436035,4611.282227000001,4185.641113000001,4277.94873,4258.461426,450.0,3.0,59.0,,,,0.0,4.0,0.0,4.0,0.0,4.0,33.333332,,,,,,,,54.0,0.0,0.368816,0.5683590000000001,0.146729,-0.720703,0.9550930000000001,-0.204593,-0.300298,-0.018786,-0.050844,-0.026268,,,,,,,,,,,,,,,,,,,,,,,,,,,,,,,,,,,,,,,,,,,,,,,,,,,,,,,,,,,,,,,,,
27521,1645650812.757432,109.0,0.0,4305.128418,4675.384765999999,4223.077147999999,4277.94873,4282.563965,450.0,3.0,59.0,,,,0.0,4.0,0.0,4.0,0.0,4.0,33.333332,,,,,,,,,,,,,,,,,,,,,,,,,,,,,,,,,,,,,,,,,,,,,,,,,,,,,,,,,,,,,,,,,,,,,,,,,,,,,,,,,,,,
27522,1645650812.7652462,110.0,0.0,4308.205078,4614.358886999999,4240.512695,4278.974121,4285.641113000001,450.0,3.0,59.0,,,,0.0,4.0,0.0,4.0,0.0,4.0,33.333332,,,,,,,,55.0,0.0,0.369293,0.5683590000000001,0.146729,-0.720459,0.9585110000000001,-0.22119499999999997,-0.309087,-0.017542,-0.050789,-0.029256,,,,,,,,,,,,,,,,,,,,,,,,,,,,,,,,,,,,,,,,,,,,,,,,,,,,,,,,,,,,,,,,,
27523,1645650812.773061,111.0,0.0,4311.282227000001,4598.461426,4223.077147999999,4278.974121,4271.282227000001,16220.0,3.0,59.0,,,,0.0,4.0,0.0,4.0,0.0,4.0,33.333332,,,,,,,,,,,,,,,,,,,,1.0,0.0,0.0,,,,,,,,,,,,,,,,,,,,,,,,,,,,,,,,0.0,0.0,1.0,0.0,128.0,0.971791,1.841825,1.551387,2.5136689999999997,1.306859,1.010233,30.046064,36.448212,49.863445,55.723969,16.689144,3.7900720000000003,4.065279,1.327893,1.309754,1.076964,0.0034219999999999997,0.007352,0.005431,0.006058,0.005733,1.637166,1.7863069999999999,1.717037,1.673023,0.761895
27524,1645650812.780875,112.0,0.0,4315.897461,4717.94873,4200.512695,4279.487305,4266.153809,450.0,3.0,59.0,,,,0.0,4.0,0.0,4.0,0.0,4.0,33.333332,,,,,,,,56.0,0.0,0.369293,0.5683590000000001,0.146729,-0.720459,0.937026,-0.21924200000000002,-0.317388,-0.017936,-0.050739,-0.031994999999999996,,,,,,,,,,,,,,,,,,,,,,,,,,,,,,,,,,,,,,,,,,,,,,,,,,,,,,,,,,,,,,,,,
27525,1645650812.78869,113.0,0.0,4318.461426,4772.820313,4222.05127,4280.0,4266.666504,450.0,3.0,59.0,,,,0.0,4.0,0.0,4.0,0.0,4.0,33.333332,,,,,,,,,,,,,,,,,,,,,,,,,,,,,,,,,,,,,,,,,,,,,,,,,,,,,,,,,,,,,,,,,,,,,,,,,,,,,,,,,,,,
27526,1645650812.796504,114.0,0.0,4317.94873,4748.205078,4213.846191,4278.974121,4256.410156,450.0,3.0,59.0,,,,0.0,4.0,0.0,4.0,0.0,4.0,33.333332,,,,,,,,57.0,0.0,0.36939,0.5683590000000001,0.146484,-0.720459,0.9350729999999999,-0.21386999999999998,-0.31250500000000003,-0.018438,-0.050646,-0.034508,,,,,,,,,,,,,,,,,,,,,,,,,,,,,,,,,,,,,,,,,,,,,,,,,,,,,,,,,,,,,,,,,
27527,1645650812.804318,115.0,0.0,4316.922852000001,4704.102539,4199.487305,4278.461426,4246.666504,16220.0,3.0,59.0,,,,0.0,4.0,0.0,4.0,0.0,4.0,33.333332,,,,,,,,,,,,,,,,,,,,,,,,,,,,,,,,,,,,,,,,,,,,,,,,,,,,,,0.0,0.0,1.0,0.0,128.0,0.971791,,,,,,,,,,,,,,,,,,,,,,,,,
27528,1645650812.812033,116.0,0.0,4321.538574,4609.230957,4207.692383,4278.461426,4263.589844,450.0,3.0,59.0,,,,0.0,4.0,0.0,4.0,0.0,4.0,33.333332,,,,,,,,58.0,0.0,0.369293,0.5683590000000001,0.146729,-0.720459,0.9463030000000001,-0.210941,-0.314458,-0.01884,-0.050660000000000004,-0.030569,,,,,,,,,,,,,,,,,,,,,,,,,,,,,,,,,,,,,,,,,,,,,,,,,,,,,,,,,,,,,,,,,
27529,1645650812.819847,117.0,0.0,4312.307617,4582.05127,4205.641113000001,4277.436035,4278.974121,450.0,3.0,59.0,,,,0.0,4.0,0.0,4.0,0.0,4.0,33.333332,,,,,,,,,,,,,,,,,,,,,,,,,,,,,,,,,,,,,,,,,,,,,,,,,,,,,,,,,,,,,,,,,,,,,,,,,,,,,,,,,,,,
27530,1645650812.827662,118.0,0.0,4297.436035,4618.461426,4175.384765999999,4278.974121,4269.743652,450.0,3.0,59.0,,,,0.0,4.0,0.0,4.0,0.0,4.0,33.333332,,,,,,,,59.0,0.0,0.36939,0.5683590000000001,0.146484,-0.720459,0.948257,-0.215335,-0.31104,-0.019251,-0.050574,-0.033274,,,,,,,,,,,,,,,,,,,,,,,,,,,,,,,,,,,,,,,,,,,,,,,,,,,,,,,,,,,,,,,,,
27531,1645650812.835476,119.0,0.0,4294.871582,4581.538574,4167.179688,4281.025879,4249.743652,16220.0,3.0,59.0,,,,0.0,4.0,0.0,4.0,0.0,4.0,33.333332,,,,,,,,,,,,,,,,,,,,,,,,,,,,,,,,,,,,,,,,,,,,,,,,,,,,,,0.0,0.0,1.0,0.0,128.0,0.971791,,,,,,,,,,,,,,,,,,,,,,,,,
27532,1645650812.843291,120.0,0.0,4314.358886999999,4617.436035,4187.692383,4278.974121,4255.897461,450.0,3.0,59.0,,,,0.0,4.0,0.0,4.0,0.0,4.0,33.333332,,,,,,,,60.0,0.0,0.36939,0.5683590000000001,0.146484,-0.720459,0.9350729999999999,-0.21386999999999998,-0.31250500000000003,-0.019621,-0.050497,-0.035660000000000004,,,,,,,,,,,,,,,,,,,,,,,,,,,,,,,,,,,,,,,,,,,,,,,,,,,,,,,,,,,,,,,,,
27533,1645650812.851105,121.0,0.0,4315.384765999999,4743.077147999999,4197.94873,4277.436035,4260.512695,450.0,3.0,59.0,,,,0.0,4.0,0.0,4.0,0.0,4.0,33.333332,,,,,,,,,,,,,,,,,,,,,,,,,,,,,,,,,,,,,,,,,,,,,,,,,,,,,,,,,,,,,,,,,,,,,,,,,,,,,,,,,,,,
27534,1645650812.858919,122.0,0.0,4309.230957,4686.153809,4210.256348,4280.0,4268.717772999999,450.0,3.0,59.0,,,,0.0,4.0,0.0,4.0,0.0,4.0,33.333332,,,,,,,,61.0,0.0,0.368913,0.5683590000000001,0.146484,-0.720703,0.938003,-0.223148,-0.31250500000000003,-0.019954,-0.050428,-0.037807,,,,,,,,,,,,,,,,,,,,,,,,,,,,,,,,,,,,,,,,,,,,,,,,,,,,,,,,,,,,,,,,,
27535,1645650812.866634,123.0,0.0,4310.769043,4547.179688,4217.94873,4281.025879,4275.384765999999,16220.0,3.0,59.0,,,,0.0,4.0,0.0,4.0,0.0,4.0,33.333332,,,,,,,,,,,,,,,,,,,,,,,,,,,,,,,,,,,,,,,,,,,,,,,,,,,,,,0.0,0.0,1.0,0.0,128.0,0.971791,,,,,,,,,,,,,,,,,,,,,,,,,
27536,1645650812.874448,124.0,0.0,4319.487305,4615.897461,4222.05127,4279.487305,4273.846191,450.0,3.0,59.0,,,,0.0,4.0,0.0,4.0,0.0,4.0,33.333332,,,,,,,,62.0,0.0,0.368913,0.5683590000000001,0.146484,-0.720703,0.931167,-0.212894,-0.31543499999999997,-0.020302,-0.050463,-0.039593,,,,,,,,,,,,,,,,,,,,,,,,,,,,,,,,,,,,,,,,,,,,,,,,,,,,,,,,,,,,,,,,,
27537,1645650812.8822632,125.0,0.0,4305.128418,4722.563965,4200.0,4278.974121,4250.256348,450.0,3.0,59.0,,,,0.0,4.0,0.0,4.0,0.0,4.0,33.333332,,,,,,,,,,,,,,,,,,,,,,,,,,,,,,,,,,,,,,,,,,,,,,,,,,,,,,,,,,,,,,,,,,,,,,,,,,,,,,,,,,,,
27538,1645650812.8900769,126.0,0.0,4297.436035,4637.94873,4200.0,4278.461426,4233.333496,450.0,3.0,59.0,,,,0.0,4.0,0.0,4.0,0.0,4.0,33.333332,,,,,,,,63.0,0.0,0.368913,0.5683590000000001,0.146484,-0.720703,0.941909,-0.210452,-0.325689,-0.020469,-0.050544,-0.034999,,,,,,,,,,,,,,,,,,,,,,,,,,,,,,,,,,,,,,,,,,,,,,,,,,,,,,,,,,,,,,,,,
27539,1645650812.897892,127.0,0.0,4310.256348,4532.820313,4218.974121,4278.974121,4245.128418,235.0,3.0,59.0,,,,0.0,4.0,0.0,4.0,0.0,4.0,33.333332,,,,,,,,,,,,,,,,,,,,1.0,0.0,0.0,,,,,,,,,,,,,,,,,,,,,,,,,,,,,,,,0.0,0.0,1.0,0.0,512.0,1.0,1.438692,1.659366,2.5959849999999998,1.43461,0.936717,20.31436,32.257401,47.551357,57.66489,14.533460999999999,3.214369,4.659895,1.286037,1.373046,0.9213899999999999,0.0037380000000000004,0.0063869999999999994,0.0068650000000000004,0.006144,0.005602,1.527142,1.86506,1.706519,1.611734,0.745518
27540,1645650812.9057062,0.0,0.0,4303.077147999999,4538.461426,4234.871582,4280.0,4255.384765999999,450.0,3.0,59.0,,,,0.0,4.0,0.0,4.0,0.0,4.0,33.333332,,,,,,,,0.0,0.0,0.368913,0.5683590000000001,0.146484,-0.720703,0.9472799999999999,-0.21973,-0.310552,-0.019057,-0.050568,-0.031010000000000003,,,,,,,,,,,,,,,,,,,,,,,,,,,,,,,,,,,,,,,,,,,,,,,,,,,,,,,,,,,,,,,,,
27541,1645650812.9135199,1.0,0.0,4284.102539,4599.487305,4212.307617,4279.487305,4248.717772999999,450.0,3.0,59.0,,,,0.0,4.0,0.0,4.0,0.0,4.0,33.333332,,,,,,,,,,,,,,,,,,,,,,,,,,,,,,,,,,,,,,,,,,,,,,,,,,,,,,,,,,,,,,,,,,,,,,,,,,,,,,,,,,,,
27542,1645650812.921335,2.0,0.0,4298.461426,4670.769043,4215.384765999999,4278.461426,4256.922852000001,16216.0,3.0,59.0,,,,0.0,4.0,0.0,4.0,0.0,4.0,33.333332,,,,,,,,1.0,0.0,0.368913,0.5683590000000001,0.146484,-0.720703,0.946792,-0.21240599999999998,-0.30225100000000005,-0.019446,-0.050589,-0.027323000000000004,,,,,,,,,,,,,,,,,,,,,,,,,,,,,,,,,,,,,,,,,,,,,,,,,,,,,,,,,,,,,,,,,
27543,1645650812.929149,3.0,0.0,4326.153809,4682.05127,4224.102539,4279.487305,4277.94873,450.0,3.0,59.0,,,,0.0,4.0,0.0,4.0,0.0,4.0,33.333332,,,,,,,,,,,,,,,,,,,,,,,,,,,,,,,,,,,,,,,,,,,,,,,,,,,,,,0.0,0.0,1.0,0.0,512.0,1.0,,,,,,,,,,,,,,,,,,,,,,,,,
27544,1645650812.936964,4.0,0.0,4313.846191,4668.205078,4212.307617,4280.0,4265.641113000001,0.0,3.0,59.0,,,,0.0,4.0,0.0,4.0,0.0,4.0,33.333332,,,,,,,,2.0,0.0,0.368913,0.5683590000000001,0.146484,-0.720703,0.9404440000000001,-0.198245,-0.297856,-0.019747999999999998,-0.050608999999999994,-0.030206,,,,,,,,,,,,,,,,,,,,,,,,,,,,,,,,,,,,,,,,,,,,,,,,,,,,,,,,,,,,,,,,,
27545,1645650812.9446778,5.0,0.0,4299.487305,4698.461426,4192.307617,4279.487305,4249.230957,450.0,3.0,59.0,,,,0.0,4.0,0.0,4.0,0.0,4.0,33.333332,,,,,,,,,,,,,,,,,,,,,,,,,,,,,,,,,,,,,,,,,,,,,,,,,,,,,,,,,,,,,,,,,,,,,,,,,,,,,,,,,,,,
27546,1645650812.952493,6.0,0.0,4308.717772999999,4708.205078,4195.897461,4281.538574,4255.897461,16191.0,3.0,59.0,,,,0.0,4.0,0.0,4.0,0.0,4.0,33.333332,,,,,,,,3.0,0.0,0.36901,0.5683590000000001,0.14624,-0.720703,0.941421,-0.21338200000000002,-0.31299299999999997,-0.020019,-0.050626,-0.032899,,,,,,,,,,,,,,,,,,,,,,,,,,,,,,,,,,,,,,,,,,,,,,,,,,,,,,,,,,,,,,,,,
27547,1645650812.9603071,7.0,0.0,4320.512695,4676.922852000001,4215.897461,4281.025879,4262.563965,450.0,3.0,59.0,,,,0.0,4.0,0.0,4.0,0.0,4.0,33.333332,,,,,,,,,,,,,,,,,,,,,,,,,,,,,,,,,,,,,,,,,,,,,,,,,,,,,,0.0,0.0,1.0,0.0,512.0,1.0,,,,,,,,,,,,,,,,,,,,,,,,,
27548,1645650812.968121,8.0,0.0,4310.256348,4702.563965,4225.128418,4278.461426,4251.282227000001,450.0,3.0,59.0,,,,0.0,4.0,0.0,4.0,0.0,4.0,33.333332,,,,,,,,4.0,0.0,0.36901,0.5683590000000001,0.14624,-0.720703,0.9423969999999999,-0.21484699999999998,-0.304204,-0.01875,-0.050642,-0.029072000000000004,,,,,,,,,,,,,,,,,,,,,,,,,,,,,,,,,,,,,,,,,,,,,,,,,,,,,,,,,,,,,,,,,
27549,1645650812.975936,9.0,0.0,4311.282227000001,4747.179688,4225.128418,4278.974121,4269.230957,0.0,3.0,59.0,,,,0.0,4.0,0.0,4.0,0.0,4.0,33.333332,,,,,,,,,,,,,,,,,,,,,,,,,,,,,,,,,,,,,,,,,,,,,,,,,,,,,,,,,,,,,,,,,,,,,,,,,,,,,,,,,,,,
27550,1645650812.98375,10.0,0.0,4310.769043,4761.025879,4210.256348,4280.0,4272.307617,450.0,3.0,59.0,,,,0.0,4.0,0.0,4.0,0.0,4.0,33.333332,,,,,,,,5.0,0.0,0.368634,0.568604,0.14624,-0.720703,0.944839,-0.21631199999999998,-0.31299299999999997,-0.017509,-0.050558,-0.031829,,,,,,,,,,,,,,,,,,,,,,,,,,,,,,,,,,,,,,,,,,,,,,,,,,,,,,,,,,,,,,,,,
27551,1645650812.991565,11.0,0.0,4309.230957,4707.692383,4215.897461,4278.461426,4261.025879,16205.0,3.0,59.0,,,,0.0,4.0,0.0,4.0,0.0,4.0,33.333332,,,,,,,,,,,,,,,,,,,,,,,,,,,,,,,,,,,,,,,,,,,,,,,,,,,,,,0.0,0.0,1.0,0.0,512.0,1.0,,,,,,,,,,,,,,,,,,,,,,,,,
27552,1645650812.999379,12.0,0.0,4318.974121,4640.512695,4243.589844,4278.974121,4274.871582,450.0,3.0,59.0,,,,0.0,4.0,0.0,4.0,0.0,4.0,33.333332,,,,,,,,6.0,0.0,0.368731,0.568604,0.14599600000000001,-0.720703,0.931167,-0.217288,-0.30811,-0.018005,-0.05058,-0.034212,,,,,,,,,,,,,,,,,,,,,,,,,,,,,,,,,,,,,,,,,,,,,,,,,,,,,,,,,,,,,,,,,
27553,1645650813.0071929,13.0,0.0,4335.384765999999,4661.538574,4270.256348,4281.025879,4297.436035,450.0,3.0,59.0,,,,0.0,4.0,0.0,4.0,0.0,4.0,33.333332,,,,,,,,,,,,,,,,,,,,,,,,,,,,,,,,,,,,,,,,,,,,,,,,,,,,,,,,,,,,,,,,,,,,,,,,,,,,,,,,,,,,
27554,1645650813.015008,14.0,0.0,4315.384765999999,4696.410156,4240.512695,4278.461426,4277.436035,450.0,3.0,59.0,,,,0.0,4.0,0.0,4.0,0.0,4.0,33.333332,,,,,,,,7.0,0.0,0.368731,0.568604,0.14599600000000001,-0.720703,0.938003,-0.215335,-0.314458,-0.018401,-0.050552,-0.036552999999999995,,,,,,,,,,,,,,,,,,,,,,,,,,,,,,,,,,,,,,,,,,,,,,,,,,,,,,,,,,,,,,,,,
27555,1645650813.022722,15.0,0.0,4290.769043,4666.153809,4235.897461,4276.410156,4266.666504,16205.0,3.0,59.0,,,,0.0,4.0,0.0,4.0,0.0,4.0,33.333332,,,,,,,,,,,,,,,,,,,,1.0,0.0,0.0,,,,,,,,,,,,,,,,,,,,,,,,,,,,,,,,0.0,0.0,1.0,0.0,512.0,1.0,1.316402,1.864741,2.545959,1.5222440000000002,0.8458620000000001,13.432601000000002,27.473096999999996,48.62867,56.292664,13.003507,3.034096,5.125525,1.376593,1.446828,0.786849,0.004606,0.005997,0.008193,0.006561,0.0059689999999999995,1.613522,2.052397,1.671169,1.523958,0.757045
27556,1645650813.030537,16.0,0.0,4314.871582,4643.589844,4259.487305,4278.974121,4292.820313,0.0,3.0,59.0,,,,0.0,4.0,0.0,4.0,0.0,4.0,33.333332,,,,,,,,8.0,0.0,0.368634,0.568604,0.14624,-0.720703,0.944839,-0.21631199999999998,-0.31299299999999997,-0.017196,-0.050477,-0.038562,,,,,,,,,,,,,,,,,,,,,,,,,,,,,,,,,,,,,,,,,,,,,,,,,,,,,,,,,,,,,,,,,
27557,1645650813.038351,17.0,0.0,4331.282227000001,4618.461426,4259.487305,4281.025879,4297.436035,0.0,3.0,59.0,,,,0.0,4.0,0.0,4.0,0.0,4.0,33.333332,,,,,,,,,,,,,,,,,,,,,,,,,,,,,,,,,,,,,,,,,,,,,,,,,,,,,,,,,,,,,,,,,,,,,,,,,,,,,,,,,,,,
27558,1645650813.046166,18.0,0.0,4306.666504,4573.846191,4214.871582,4279.487305,4277.436035,0.0,3.0,59.0,,,,0.0,4.0,0.0,4.0,0.0,4.0,33.333332,,,,,,,,9.0,0.0,0.368731,0.568604,0.14599600000000001,-0.720703,0.94435,-0.20996399999999998,-0.310552,-0.017674000000000002,-0.050556,-0.034168000000000004,,,,,,,,,,,,,,,,,,,,,,,,,,,,,,,,,,,,,,,,,,,,,,,,,,,,,,,,,,,,,,,,,
27559,1645650813.05398,19.0,0.0,4297.436035,4599.487305,4209.230957,4278.461426,4271.794922,0.0,3.0,59.0,,,,0.0,4.0,0.0,4.0,0.0,4.0,33.333332,,,,,,,,,,,,,,,,,,,,,,,,,,,,,,,,,,,,,,,,,,,,,,,,,,,,,,0.0,0.0,1.0,0.0,512.0,1.0,,,,,,,,,,,,,,,,,,,,,,,,,
27560,1645650813.061794,20.0,0.0,4323.077147999999,4678.974121,4216.410156,4280.0,4277.436035,0.0,3.0,59.0,,,,0.0,4.0,0.0,4.0,0.0,4.0,33.333332,,,,,,,,10.0,0.0,0.368731,0.568604,0.14599600000000001,-0.720703,0.945815,-0.203128,-0.31201599999999996,-0.018055,-0.050481,-0.036367000000000003,,,,,,,,,,,,,,,,,,,,,,,,,,,,,,,,,,,,,,,,,,,,,,,,,,,,,,,,,,,,,,,,,
27561,1645650813.069609,21.0,0.0,4329.743652,4664.615234000001,4212.820313,4280.0,4277.94873,0.0,3.0,59.0,,,,0.0,4.0,0.0,4.0,0.0,4.0,33.333332,,,,,,,,,,,,,,,,,,,,,,,,,,,,,,,,,,,,,,,,,,,,,,,,,,,,,,,,,,,,,,,,,,,,,,,,,,,,,,,,,,,,
27562,1645650813.077423,22.0,0.0,4329.743652,4636.922852000001,4220.0,4279.487305,4285.128418,0.0,3.0,59.0,,,,0.0,4.0,0.0,4.0,0.0,4.0,33.333332,,,,,,,,11.0,0.0,0.368731,0.568604,0.14599600000000001,-0.720703,0.9472799999999999,-0.208988,-0.315923,-0.018397999999999998,-0.050511,-0.032242,,,,,,,,,,,,,,,,,,,,,,,,,,,,,,,,,,,,,,,,,,,,,,,,,,,,,,,,,,,,,,,,,
27563,1645650813.085138,23.0,0.0,4321.538574,4663.589844,4226.666504,4280.0,4274.871582,0.0,3.0,59.0,,,,0.0,4.0,0.0,4.0,0.0,4.0,33.333332,,,,,,,,,,,,,,,,,,,,,,,,,,,,,,,,,,,,,,,,,,,,,,,,,,,,,,0.0,0.0,1.0,0.0,512.0,1.0,,,,,,,,,,,,,,,,,,,,,,,,,
27564,1645650813.092952,24.0,0.0,4318.461426,4675.384765999999,4216.410156,4278.974121,4271.282227000001,0.0,3.0,59.0,,,,0.0,4.0,0.0,4.0,0.0,4.0,33.333332,,,,,,,,12.0,0.0,0.368827,0.568604,0.145752,-0.720703,0.932143,-0.21631199999999998,-0.319341,-0.018902000000000002,-0.050538,-0.034731,,,,,,,,,,,,,,,,,,,,,,,,,,,,,,,,,,,,,,,,,,,,,,,,,,,,,,,,,,,,,,,,,
27565,1645650813.100766,25.0,0.0,4325.128418,4661.538574,4221.025879,4278.461426,4280.0,0.0,3.0,59.0,,,,0.0,4.0,0.0,4.0,0.0,4.0,33.333332,,,,,,,,,,,,,,,,,,,,,,,,,,,,,,,,,,,,,,,,,,,,,,,,,,,,,,,,,,,,,,,,,,,,,,,,,,,,,,,,,,,,
27566,1645650813.108581,26.0,0.0,4335.384765999999,4681.025879,4240.0,4280.0,4291.794922,0.0,3.0,59.0,,,,0.0,4.0,0.0,4.0,0.0,4.0,33.333332,,,,,,,,13.0,0.0,0.368827,0.568604,0.145752,-0.720703,0.9428850000000001,-0.21338200000000002,-0.306157,-0.01916,-0.050464999999999996,-0.036873,,,,,,,,,,,,,,,,,,,,,,,,,,,,,,,,,,,,,,,,,,,,,,,,,,,,,,,,,,,,,,,,,
27567,1645650813.116395,27.0,0.0,4321.025879,4674.358886999999,4235.384765999999,4279.487305,4281.025879,0.0,3.0,59.0,,,,0.0,4.0,0.0,4.0,0.0,4.0,33.333332,,,,,,,,,,,,,,,,,,,,,,,,,,,,,,,,,,,,,,,,,,,,,,,,,,,,,,0.0,0.0,1.0,0.0,512.0,1.0,,,,,,,,,,,,,,,,,,,,,,,,,
27568,1645650813.12421,28.0,0.0,4332.820313,4648.205078,4242.05127,4277.94873,4287.179688,0.0,3.0,59.0,,,,0.0,4.0,0.0,4.0,0.0,4.0,33.333332,,,,,,,,14.0,0.0,0.369304,0.568604,0.145752,-0.720459,0.948257,-0.204105,-0.313481,-0.017781,-0.050448,-0.03885,,,,,,,,,,,,,,,,,,,,,,,,,,,,,,,,,,,,,,,,,,,,,,,,,,,,,,,,,,,,,,,,,
27569,1645650813.132024,29.0,0.0,4342.05127,4703.077147999999,4242.563965,4278.974121,4299.487305,0.0,3.0,59.0,,,,0.0,4.0,0.0,4.0,0.0,4.0,33.333332,,,,,,,,,,,,,,,,,,,,,,,,,,,,,,,,,,,,,,,,,,,,,,,,,,,,,,,,,,,,,,,,,,,,,,,,,,,,,,,,,,,,
27570,1645650813.1398392,30.0,0.0,4316.922852000001,4672.307617,4251.282227000001,4279.487305,4282.563965,0.0,3.0,59.0,,,,0.0,4.0,0.0,4.0,0.0,4.0,33.333332,,,,,,,,15.0,0.0,0.369207,0.568604,0.14599600000000001,-0.720459,0.940932,-0.228519,-0.31299299999999997,-0.018298,-0.050433,-0.034428,,,,,,,,,,,,,,,,,,,,,,,,,,,,,,,,,,,,,,,,,,,,,,,,,,,,,,,,,,,,,,,,,
27571,1645650813.1476529,31.0,0.0,4308.205078,4587.692383,4251.282227000001,4278.461426,4266.153809,0.0,3.0,59.0,,,,0.0,4.0,0.0,4.0,0.0,4.0,33.333332,0.972656,33.333332,4.0,0.0,4.0,0.0,4.0,,,,,,,,,,,,,1.0,0.0,0.0,,,,,,,,,,,,,,,,,,,,,,,,,,,,,,,,0.0,0.0,1.0,0.0,512.0,1.0,1.3603610000000002,2.11249,2.4271409999999998,1.553044,0.763077,10.641293,23.385601,52.487984,53.434204,12.538714,3.374882,5.342329,1.6049229999999999,1.571701,0.736291,0.005683,0.006091,0.009319,0.007426,0.0068260000000000005,1.8634970000000002,2.274791,1.606592,1.452073,0.813103
27572,1645650813.155467,32.0,0.0,4319.487305,4587.179688,4271.282227000001,4279.487305,4285.641113000001,0.0,3.0,59.0,,,,0.0,4.0,0.0,4.0,0.0,4.0,33.333332,,,,,,,,16.0,0.0,0.369207,0.568604,0.14599600000000001,-0.720459,0.953628,-0.21973,-0.309087,-0.018763,-0.050468,-0.036649,,,,,,,,,,,,,,,,,,,,,,,,,,,,,,,,,,,,,,,,,,,,,,,,,,,,,,,,,,,,,,,,,
27573,1645650813.163182,33.0,0.0,4312.820313,4530.769043,4268.717772999999,4280.0,4290.256348,0.0,3.0,59.0,,,,0.0,4.0,0.0,4.0,0.0,4.0,33.333332,,,,,,,,,,,,,,,,,,,,,,,,,,,,,,,,,,,,,,,,,,,,,,,,,,,,,,,,,,,,,,,,,,,,,,,,,,,,,,,,,,,,
27574,1645650813.1709962,34.0,0.0,4291.282227000001,4498.974121,4238.461426,4278.974121,4248.205078,0.0,3.0,59.0,,,,0.0,4.0,0.0,4.0,0.0,4.0,33.333332,,,,,,,,17.0,0.0,0.368831,0.5688479999999999,0.14599600000000001,-0.720459,0.9365379999999999,-0.217288,-0.313481,-0.019133,-0.050499,-0.032496,,,,,,,,,,,,,,,,,,,,,,,,,,,,,,,,,,,,,,,,,,,,,,,,,,,,,,,,,,,,,,,,,
27575,1645650813.1788108,35.0,0.0,4299.487305,4601.025879,4207.179688,4279.487305,4238.461426,0.0,3.0,59.0,,,,0.0,4.0,0.0,4.0,0.0,4.0,33.333332,,,,,,,,,,,,,,,,,,,,,,,,,,,,,,,,,,,,,,,,,,,,,,,,,,,,,,0.0,0.0,1.0,0.0,512.0,1.0,,,,,,,,,,,,,,,,,,,,,,,,,
27576,1645650813.186625,36.0,0.0,4330.769043,4694.871582,4217.436035,4278.974121,4274.358886999999,0.0,3.0,59.0,,,,0.0,4.0,0.0,4.0,0.0,4.0,33.333332,,,,,,,,18.0,0.0,0.368257,0.5688479999999999,0.14624,-0.720703,0.937514,-0.20947600000000002,-0.31104,-0.017855000000000003,-0.050477999999999995,-0.034910000000000004,,,,,,,,,,,,,,,,,,,,,,,,,,,,,,,,,,,,,,,,,,,,,,,,,,,,,,,,,,,,,,,,,
27577,1645650813.1944392,37.0,0.0,4343.589844,4667.179688,4225.641113000001,4278.974121,4286.666504,0.0,3.0,59.0,,,,0.0,4.0,0.0,4.0,0.0,4.0,33.333332,,,,,,,,,,,,,,,,,,,,,,,,,,,,,,,,,,,,,,,,,,,,,,,,,,,,,,,,,,,,,,,,,,,,,,,,,,,,,,,,,,,,
27578,1645650813.2022538,38.0,0.0,4320.0,4641.538574,4208.205078,4280.512695,4260.0,0.0,3.0,59.0,,,,0.0,4.0,0.0,4.0,0.0,4.0,33.333332,,,,,,,,19.0,0.0,0.368634,0.568604,0.14624,-0.720703,0.94435,-0.203128,-0.31396999999999997,-0.01685,-0.050509,-0.036986,,,,,,,,,,,,,,,,,,,,,,,,,,,,,,,,,,,,,,,,,,,,,,,,,,,,,,,,,,,,,,,,,
27579,1645650813.210068,39.0,0.0,4302.05127,4658.974121,4197.94873,4280.512695,4255.897461,0.0,3.0,59.0,,,,0.0,4.0,0.0,4.0,0.0,4.0,33.333332,,,,,,,,,,,,,,,,,,,,,,,,,,,,,,,,,,,,,,,,,,,,,,,,,,,,,,0.0,0.0,1.0,0.0,512.0,1.0,,,,,,,,,,,,,,,,,,,,,,,,,
27580,1645650813.217883,40.0,0.0,4315.384765999999,4681.025879,4210.256348,4279.487305,4271.794922,0.0,3.0,59.0,,,,0.0,4.0,0.0,4.0,0.0,4.0,33.333332,,,,,,,,20.0,0.0,0.368634,0.568604,0.14624,-0.720703,0.921401,-0.21973,-0.31250500000000003,-0.017363,-0.050438,-0.039,,,,,,,,,,,,,,,,,,,,,,,,,,,,,,,,,,,,,,,,,,,,,,,,,,,,,,,,,,,,,,,,,
27581,1645650813.225697,41.0,0.0,4346.153809,4708.717772999999,4228.717772999999,4280.0,4289.743652,0.0,3.0,59.0,,,,0.0,4.0,0.0,4.0,0.0,4.0,33.333332,,,,,,,,,,,,,,,,,,,,,,,,,,,,,,,,,,,,,,,,,,,,,,,,,,,,,,,,,,,,,,,,,,,,,,,,,,,,,,,,,,,,
27582,1645650813.233412,42.0,0.0,4331.794922,4667.692383,4222.05127,4280.512695,4268.717772999999,0.0,3.0,59.0,,,,0.0,4.0,0.0,4.0,0.0,4.0,33.333332,,,,,,,,21.0,0.0,0.368634,0.568604,0.14624,-0.720703,0.939467,-0.21240599999999998,-0.311528,-0.017921,-0.050375,-0.034562999999999997,,,,,,,,,,,,,,,,,,,,,,,,,,,,,,,,,,,,,,,,,,,,,,,,,,,,,,,,,,,,,,,,,
27583,1645650813.241226,43.0,0.0,4310.256348,4640.0,4215.384765999999,4280.0,4248.205078,0.0,3.0,59.0,,,,0.0,4.0,0.0,4.0,0.0,4.0,33.333332,,,,,,,,,,,,,,,,,,,,,,,,,,,,,,,,,,,,,,,,,,,,,,,,,,,,,,0.0,0.0,1.0,0.0,512.0,1.0,,,,,,,,,,,,,,,,,,,,,,,,,
27584,1645650813.2490401,44.0,0.0,4307.179688,4628.717772999999,4223.077147999999,4279.487305,4257.436035,0.0,3.0,59.0,,,,0.0,4.0,0.0,4.0,0.0,4.0,33.333332,,,,,,,,22.0,0.0,0.368634,0.568604,0.14624,-0.720703,0.937026,-0.21924200000000002,-0.306645,-0.016812999999999998,-0.050318,-0.03682,,,,,,,,,,,,,,,,,,,,,,,,,,,,,,,,,,,,,,,,,,,,,,,,,,,,,,,,,,,,,,,,,
27585,1645650813.256855,45.0,0.0,4321.025879,4649.230957,4237.94873,4280.0,4267.692383,0.0,3.0,59.0,,,,0.0,4.0,0.0,4.0,0.0,4.0,33.333332,,,,,,,,,,,,,,,,,,,,,,,,,,,,,,,,,,,,,,,,,,,,,,,,,,,,,,,,,,,,,,,,,,,,,,,,,,,,,,,,,,,,
27586,1645650813.264669,46.0,0.0,4314.358886999999,4735.897461,4213.333496,4279.487305,4247.692383,0.0,3.0,59.0,,,,0.0,4.0,0.0,4.0,0.0,4.0,33.333332,,,,,,,,23.0,0.0,0.368059,0.568604,0.146484,-0.720947,0.9389790000000001,-0.20947600000000002,-0.309087,-0.017329,-0.050316,-0.032405,,,,,,,,,,,,,,,,,,,,,,,,,,,,,,,,,,,,,,,,,,,,,,,,,,,,,,,,,,,,,,,,,
27587,1645650813.272484,47.0,0.0,4295.384765999999,4716.410156,4222.563965,4278.974121,4242.05127,0.0,3.0,59.0,,,,0.0,4.0,0.0,4.0,0.0,4.0,33.333332,,,,,,,,,,,,,,,,,,,,1.0,0.0,0.0,,,,,,,,,,,,,,,,,,,,,,,,,,,,,,,,0.0,0.0,1.0,0.0,512.0,1.0,1.406269,2.324614,2.313224,1.514889,0.715479,12.305736999999999,21.098745,56.845721999999995,50.847282,13.233011999999999,4.150048,5.342834,1.9157380000000002,1.7581189999999998,0.800564,0.006571,0.0063490000000000005,0.010087,0.008671,0.008034,2.214583,2.4425369999999997,1.528928,1.427166,0.913358
27588,1645650813.280298,48.0,0.0,4289.743652,4615.384765999999,4240.0,4278.974121,4252.307617,0.0,3.0,59.0,,,,0.0,4.0,0.0,4.0,0.0,4.0,33.333332,,,,,,,,24.0,0.0,0.368059,0.568604,0.146484,-0.720947,0.944839,-0.215824,-0.304692,-0.016231,-0.050314,-0.028579000000000004,,,,,,,,,,,,,,,,,,,,,,,,,,,,,,,,,,,,,,,,,,,,,,,,,,,,,,,,,,,,,,,,,
27589,1645650813.288112,49.0,0.0,4298.974121,4634.871582,4250.769043,4280.0,4254.871582,0.0,3.0,59.0,,,,0.0,4.0,0.0,4.0,0.0,4.0,33.333332,,,,,,,,,,,,,,,,,,,,,,,,,,,,,,,,,,,,,,,,,,,,,,,,,,,,,,,,,,,,,,,,,,,,,,,,,,,,,,,,,,,,
27590,1645650813.295927,50.0,0.0,4316.922852000001,4705.128418,4248.205078,4279.487305,4257.94873,0.0,3.0,59.0,,,,0.0,4.0,0.0,4.0,0.0,4.0,33.333332,,,,,,,,25.0,0.0,0.368059,0.568604,0.146484,-0.720947,0.9316549999999999,-0.20996399999999998,-0.308598,-0.016805,-0.050506999999999996,-0.031434,,,,,,,,,,,,,,,,,,,,,,,,,,,,,,,,,,,,,,,,,,,,,,,,,,,,,,,,,,,,,,,,,
27591,1645650813.303641,51.0,0.0,4318.974121,4644.102539,4251.794922,4279.487305,4258.461426,0.0,3.0,59.0,,,,0.0,4.0,0.0,4.0,0.0,4.0,33.333332,,,,,,,,,,,,,,,,,,,,,,,,,,,,,,,,,,,,,,,,,,,,,,,,,,,,,,0.0,0.0,1.0,0.0,512.0,1.0,,,,,,,,,,,,,,,,,,,,,,,,,
27592,1645650813.311456,52.0,0.0,4313.333496,4574.871582,4232.307617,4280.512695,4253.333496,0.0,3.0,59.0,,,,0.0,4.0,0.0,4.0,0.0,4.0,33.333332,,,,,,,,26.0,0.0,0.368059,0.568604,0.146484,-0.720947,0.937514,-0.210941,-0.324712,-0.017322,-0.050388,-0.027656,,,,,,,,,,,,,,,,,,,,,,,,,,,,,,,,,,,,,,,,,,,,,,,,,,,,,,,,,,,,,,,,,
27593,1645650813.31927,53.0,0.0,4307.692383,4591.282227000001,4221.025879,4279.487305,4248.205078,0.0,3.0,59.0,,,,0.0,4.0,0.0,4.0,0.0,4.0,33.333332,,,,,,,,,,,,,,,,,,,,,,,,,,,,,,,,,,,,,,,,,,,,,,,,,,,,,,,,,,,,,,,,,,,,,,,,,,,,,,,,,,,,
27594,1645650813.327085,54.0,0.0,4316.922852000001,4594.871582,4232.820313,4278.461426,4258.974121,0.0,3.0,59.0,,,,0.0,4.0,0.0,4.0,0.0,4.0,33.333332,,,,,,,,27.0,0.0,0.368533,0.5683590000000001,0.14624,-0.720947,0.929702,-0.208499,-0.307134,-0.017787,-0.050378,-0.030506000000000002,,,,,,,,,,,,,,,,,,,,,,,,,,,,,,,,,,,,,,,,,,,,,,,,,,,,,,,,,,,,,,,,,
27595,1645650813.334899,55.0,0.0,4329.743652,4633.333496,4228.717772999999,4278.974121,4256.410156,0.0,3.0,59.0,,,,0.0,4.0,0.0,4.0,0.0,4.0,33.333332,,,,,,,,,,,,,,,,,,,,,,,,,,,,,,,,,,,,,,,,,,,,,,,,,,,,,,0.0,0.0,1.0,0.0,512.0,1.0,,,,,,,,,,,,,,,,,,,,,,,,,
27596,1645650813.342713,56.0,0.0,4333.333496,4663.589844,4222.05127,4280.0,4261.025879,0.0,3.0,59.0,,,,0.0,4.0,0.0,4.0,0.0,4.0,33.333332,,,,,,,,28.0,0.0,0.368059,0.568604,0.146484,-0.720947,0.9316549999999999,-0.20996399999999998,-0.308598,-0.018205000000000002,-0.050565,-0.033168,,,,,,,,,,,,,,,,,,,,,,,,,,,,,,,,,,,,,,,,,,,,,,,,,,,,,,,,,,,,,,,,,
27597,1645650813.350528,57.0,0.0,4306.153809,4650.769043,4217.94873,4279.487305,4246.153809,0.0,3.0,59.0,,,,0.0,4.0,0.0,4.0,0.0,4.0,33.333332,,,,,,,,,,,,,,,,,,,,,,,,,,,,,,,,,,,,,,,,,,,,,,,,,,,,,,,,,,,,,,,,,,,,,,,,,,,,,,,,,,,,
27598,1645650813.358342,58.0,0.0,4294.871582,4704.615234000001,4206.666504,4279.487305,4221.538574,0.0,3.0,59.0,,,,0.0,4.0,0.0,4.0,0.0,4.0,33.333332,,,,,,,,29.0,0.0,0.368533,0.5683590000000001,0.14624,-0.720947,0.929702,-0.208499,-0.307134,-0.018581999999999998,-0.050538,-0.035467,,,,,,,,,,,,,,,,,,,,,,,,,,,,,,,,,,,,,,,,,,,,,,,,,,,,,,,,,,,,,,,,,
27599,1645650813.366157,59.0,0.0,4308.205078,4782.563965,4204.615234000001,4279.487305,4226.666504,0.0,3.0,59.0,,,,0.0,4.0,0.0,4.0,0.0,4.0,33.333332,,,,,,,,,,,,,,,,,,,,,,,,,,,,,,,,,,,,,,,,,,,,,,,,,,,,,,0.0,0.0,1.0,0.0,512.0,1.0,,,,,,,,,,,,,,,,,,,,,,,,,
27600,1645650813.373971,60.0,0.0,4327.179688,4734.358886999999,4245.641113000001,4278.974121,4263.077147999999,0.0,3.0,59.0,,,,0.0,4.0,0.0,4.0,0.0,4.0,33.333332,,,,,,,,30.0,0.0,0.368533,0.5683590000000001,0.14624,-0.720947,0.929213,-0.20264000000000001,-0.306157,-0.018921,-0.050563,-0.031383,,,,,,,,,,,,,,,,,,,,,,,,,,,,,,,,,,,,,,,,,,,,,,,,,,,,,,,,,,,,,,,,,
27601,1645650813.381686,61.0,0.0,4317.94873,4627.179688,4251.282227000001,4279.487305,4261.025879,0.0,3.0,59.0,,,,0.0,4.0,0.0,4.0,0.0,4.0,33.333332,,,,,,,,,,,,,,,,,,,,,,,,,,,,,,,,,,,,,,,,,,,,,,,,,,,,,,,,,,,,,,,,,,,,,,,,,,,,,,,,,,,,
27602,1645650813.3895,62.0,0.0,4300.0,4597.436035,4243.077147999999,4280.0,4250.769043,0.0,3.0,59.0,,,,0.0,4.0,0.0,4.0,0.0,4.0,33.333332,,,,,,,,31.0,0.0,0.368436,0.5683590000000001,0.146484,-0.720947,0.947768,-0.20019800000000001,-0.302739,-0.017762,-0.050487,-0.03386,,,,,,,,,,,,,,,,,,,,,,,,,,,,,,,,,,,,,,,,,,,,,,,,,,,,,,,,,,,,,,,,,
