,Timestamp,EEG.Counter,EEG.Interpolated,EEG.AF3,EEG.T7,EEG.Pz,EEG.T8,EEG.AF4,EEG.RawCq,EEG.Battery,EEG.BatteryPercent,MarkerIndex,MarkerType,MarkerValueInt,EEG.MarkerHardware,CQ.AF3,CQ.T7,CQ.Pz,CQ.T8,CQ.AF4,CQ.Overall,EQ.SampleRateQuality,EQ.OVERALL,EQ.AF3,EQ.T7,EQ.Pz,EQ.T8,EQ.AF4,MOT.CounterMems,MOT.InterpolatedMems,MOT.Q0,MOT.Q1,MOT.Q2,MOT.Q3,MOT.AccX,MOT.AccY,MOT.AccZ,MOT.MagX,MOT.MagY,MOT.MagZ,MC.Action,MC.ActionPower,MC.IsActive,PM.Engagement.IsActive,PM.Engagement.Scaled,PM.Engagement.Raw,PM.Engagement.Min,PM.Engagement.Max,PM.Excitement.IsActive,PM.Excitement.Scaled,PM.Excitement.Raw,PM.Excitement.Min,PM.Excitement.Max,PM.LongTermExcitement,PM.Stress.IsActive,PM.Stress.Scaled,PM.Stress.Raw,PM.Stress.Min,PM.Stress.Max,PM.Relaxation.IsActive,PM.Relaxation.Scaled,PM.Relaxation.Raw,PM.Relaxation.Min,PM.Relaxation.Max,PM.Interest.IsActive,PM.Interest.Scaled,PM.Interest.Raw,PM.Interest.Min,PM.Interest.Max,PM.Focus.IsActive,PM.Focus.Scaled,PM.Focus.Raw,PM.Focus.Min,PM.Focus.Max,FE.BlinkWink,FE.HorizontalEyesDirection,FE.UpperFaceAction,FE.UpperFaceActionPower,FE.LowerFaceAction,FE.LowerFaceActionPower,POW.AF3.Theta,POW.AF3.Alpha,POW.AF3.BetaL,POW.AF3.BetaH,POW.AF3.Gamma,POW.T7.Theta,POW.T7.Alpha,POW.T7.BetaL,POW.T7.BetaH,POW.T7.Gamma,POW.Pz.Theta,POW.Pz.Alpha,POW.Pz.BetaL,POW.Pz.BetaH,POW.Pz.Gamma,POW.T8.Theta,POW.T8.Alpha,POW.T8.BetaL,POW.T8.BetaH,POW.T8.Gamma,POW.AF4.Theta,POW.AF4.Alpha,POW.AF4.BetaL,POW.AF4.BetaH,POW.AF4.Gamma
81323,1645494307.3001661,102.0,0.0,4331.794922,4391.794922,4210.769043,4280.512695,4312.820313,450.0,4.0,77.0,52.0,1.0,5.0,0.0,4.0,4.0,4.0,0.0,4.0,66.666664,,,,,,,,51.0,0.0,0.433637,-0.290039,0.614502,0.591797,0.885756,-0.47022200000000003,-0.077638,-0.035517,-0.038301,-0.02962,,,,,,,,,,,,,,,,,,,,,,,,,,,,,,,,,,,,,,,,,,,,,,,,,,,,,,,,,,,,,,,,,
81324,1645494307.307983,103.0,0.0,4334.358886999999,4375.384765999999,4217.94873,4280.512695,4314.358886999999,16217.0,4.0,77.0,,,,0.0,4.0,4.0,4.0,0.0,4.0,66.666664,,,,,,,,,,,,,,,,,,,,,,,,,,,,,,,,,,,,,,,,,,,,,,,,,,,,,,,,,,,,,,,,,,,,,,,,,,,,,,,,,,,,
81325,1645494307.3158991,104.0,0.0,4355.897461,4399.487305,4236.410156,4280.0,4318.461426,450.0,4.0,77.0,,,,0.0,4.0,4.0,4.0,0.0,4.0,66.666664,,,,,,,,52.0,0.0,0.433637,-0.290039,0.614502,0.591797,0.877943,-0.48389399999999994,-0.066896,-0.035579,-0.038377,-0.031541,,,,,,,,,,,,,,,,,,,,,,,,,,,,,,,,,,,0.0,0.0,1.0,0.0,1.0,0.0,,,,,,,,,,,,,,,,,,,,,,,,,
81326,1645494307.323716,105.0,0.0,4351.282227000001,4440.512695,4235.897461,4278.461426,4312.820313,450.0,4.0,77.0,,,,0.0,4.0,4.0,4.0,0.0,4.0,66.666664,,,,,,,,,,,,,,,,,,,,,,,,,,,,,,,,,,,,,,,,,,,,,,,,,,,,,,,,,,,,,,,,,,,,,,,,,,,,,,,,,,,,
81327,1645494307.331533,106.0,0.0,4338.974121,4425.128418,4227.692383,4278.461426,4300.0,450.0,4.0,77.0,,,,0.0,4.0,4.0,4.0,0.0,4.0,66.666664,,,,,,,,53.0,0.0,0.433304,-0.290039,0.614502,0.592041,0.886244,-0.47363999999999995,-0.064942,-0.035585000000000006,-0.038348,-0.033269,,,,,,,,,,,,,,,,,,,,,,,,,,,,,,,,,,,,,,,,,,,,,,,,,,,,,,,,,,,,,,,,,
81328,1645494307.33935,107.0,0.0,4335.897461,4395.384765999999,4224.615234000001,4279.487305,4309.743652,16217.0,4.0,77.0,,,,0.0,4.0,4.0,4.0,0.0,4.0,66.666664,,,,,,,,,,,,,,,,,,,,,,,,,,,,,,,,,,,,,,,,,,,,,,,,,,,,,,,,,,,,,,,,,,,,,,,,,,,,,,,,,,,,
81329,1645494307.347167,108.0,0.0,4312.820313,4405.641113000001,4224.615234000001,4278.461426,4312.820313,450.0,4.0,77.0,,,,0.0,4.0,4.0,4.0,0.0,4.0,66.666664,,,,,,,,54.0,0.0,0.43365,-0.290039,0.614258,0.592041,0.8798959999999999,-0.46582700000000005,-0.075196,-0.035494,-0.038224,-0.034727999999999995,,,,,,,,,,,,,,,,,,,,,,,,,,,,,,,,,,,0.0,0.0,1.0,0.0,1.0,0.0,,,,,,,,,,,,,,,,,,,,,,,,,
81330,1645494307.354983,109.0,0.0,4321.025879,4401.025879,4233.846191,4278.461426,4303.077147999999,450.0,4.0,77.0,,,,0.0,4.0,4.0,4.0,0.0,4.0,66.666664,,,,,,,,,,,,,,,,,,,,,,,,,,,,,,,,,,,,,,,,,,,,,,,,,,,,,,,,,,,,,,,,,,,,,,,,,,,,,,,,,,,,
81331,1645494307.3628,110.0,0.0,4370.769043,4389.230957,4229.743652,4281.538574,4316.410156,450.0,4.0,77.0,,,,0.0,4.0,4.0,4.0,0.0,4.0,66.666664,,,,,,,,55.0,0.0,0.433316,-0.290039,0.614258,0.5922850000000001,0.875502,-0.47657,-0.069825,-0.035509,-0.038162,-0.036088999999999996,,,,,,,,,,,,,,,,,,,,,,,,,,,,,,,,,,,,,,,,,,,,,,,,,,,,,,,,,,,,,,,,,
81332,1645494307.370617,111.0,0.0,4352.307617,4394.871582,4208.717772999999,4281.025879,4322.05127,16217.0,4.0,77.0,,,,0.0,4.0,4.0,4.0,0.0,4.0,66.666664,,,,,,,,,,,,,,,,,,,,,,,,,,,,,,,,,,,,,,,,,,,,,,,,,,,,,,,,,,,,,,,,,,,,,,,,,,,,,,,,,,,,
81333,1645494307.378434,112.0,0.0,4305.641113000001,4369.743652,4209.230957,4278.461426,4306.153809,450.0,4.0,77.0,,,,0.0,4.0,4.0,4.0,0.0,4.0,66.666664,,,,,,,,56.0,0.0,0.43348000000000003,-0.28979499999999997,0.614258,0.5922850000000001,0.87013,-0.478523,-0.078126,-0.035571,-0.038202999999999994,-0.037461,1.0,0.0,0.0,,,,,,,,,,,,,,,,,,,,,,,,,,,,,,,,0.0,0.0,1.0,0.0,1.0,0.0,4.9740150000000005,2.983001,0.903331,1.278437,2.001607,44.949787,9.580523,1.553987,5.04416,3.3652379999999997,1.6781869999999999,0.216216,0.523827,0.45394399999999996,0.527289,0.016244,0.038877999999999996,0.008524,0.022322,0.019423,2.912912,3.150929,1.1127850000000001,1.474092,1.164448
81334,1645494307.3863509,113.0,0.0,4333.333496,4345.641113000001,4218.974121,4280.0,4307.692383,450.0,4.0,77.0,,,,0.0,4.0,4.0,4.0,0.0,4.0,66.666664,,,,,,,,,,,,,,,,,,,,,,,,,,,,,,,,,,,,,,,,,,,,,,,,,,,,,,,,,,,,,,,,,,,,,,,,,,,,,,,,,,,,
81335,1645494307.394168,114.0,0.0,4349.230957,4380.0,4209.230957,4282.05127,4315.384765999999,450.0,4.0,77.0,,,,0.0,4.0,4.0,4.0,0.0,4.0,66.666664,,,,,,,,57.0,0.0,0.43364300000000006,-0.289551,0.614258,0.5922850000000001,0.8774549999999999,-0.490242,-0.084962,-0.035432,-0.038191,-0.032299,,,,,,,,,,,,,,,,,,,,,,,,,,,,,,,,,,,,,,,,,,,,,,,,,,,,,,,,,,,,,,,,,
81336,1645494307.401985,115.0,0.0,4314.871582,4409.743652,4207.692383,4279.487305,4294.871582,16217.0,4.0,77.0,,,,0.0,4.0,4.0,4.0,0.0,4.0,66.666664,,,,,,,,,,,,,,,,,,,,,,,,,,,,,,,,,,,,,,,,,,,,,,,,,,,,,,,,,,,,,,,,,,,,,,,,,,,,,,,,,,,,
81337,1645494307.409802,116.0,0.0,4305.641113000001,4384.102539,4216.410156,4279.487305,4292.820313,450.0,4.0,77.0,,,,0.0,4.0,4.0,4.0,0.0,4.0,66.666664,,,,,,,,58.0,0.0,0.43363,-0.289551,0.614502,0.592041,0.876967,-0.472663,-0.076173,-0.035453,-0.03823,-0.033902999999999996,,,,,,,,,,,,,,,,,,,,,,,,,,,,,,,,,,,0.0,0.0,1.0,0.0,1.0,0.0,,,,,,,,,,,,,,,,,,,,,,,,,
81338,1645494307.417619,117.0,0.0,4318.461426,4356.922852000001,4218.974121,4280.0,4325.128418,450.0,4.0,77.0,,,,0.0,4.0,4.0,4.0,0.0,4.0,66.666664,,,,,,,,,,,,,,,,,,,,,,,,,,,,,,,,,,,,,,,,,,,,,,,,,,,,,,,,,,,,,,,,,,,,,,,,,,,,,,,,,,,,
81339,1645494307.425436,118.0,0.0,4338.461426,4351.282227000001,4225.128418,4279.487305,4329.743652,450.0,4.0,77.0,,,,0.0,4.0,4.0,4.0,0.0,4.0,66.666664,,,,,,,,59.0,0.0,0.43379300000000004,-0.28930700000000004,0.614502,0.592041,0.8833139999999999,-0.4878,-0.08447400000000001,-0.035521,-0.038264,-0.035493000000000004,,,,,,,,,,,,,,,,,,,,,,,,,,,,,,,,,,,,,,,,,,,,,,,,,,,,,,,,,,,,,,,,,
81340,1645494307.4332528,119.0,0.0,4365.128418,4322.563965,4233.846191,4281.025879,4323.589844,16217.0,4.0,77.0,,,,0.0,4.0,4.0,4.0,0.0,4.0,66.666664,,,,,,,,,,,,,,,,,,,,,,,,,,,,,,,,,,,,,,,,,,,,,,,,,,,,,,,,,,,,,,,,,,,,,,,,,,,,,,,,,,,,
81341,1645494307.4410698,120.0,0.0,4360.512695,4296.410156,4223.589844,4281.025879,4331.282227000001,450.0,4.0,77.0,,,,0.0,4.0,4.0,4.0,0.0,4.0,66.666664,,,,,,,,60.0,0.0,0.43379300000000004,-0.28930700000000004,0.614502,0.592041,0.87892,-0.47559300000000004,-0.089357,-0.035485,-0.038294999999999996,-0.036875,,,,,,,,,,,,,,,,,,,,,,,,,,,,,,,,,,,0.0,0.0,1.0,0.0,1.0,0.0,,,,,,,,,,,,,,,,,,,,,,,,,
81342,1645494307.4488869,121.0,0.0,4336.922852000001,4316.410156,4207.692383,4279.487305,4325.641113000001,450.0,4.0,77.0,,,,0.0,4.0,4.0,4.0,0.0,4.0,66.666664,,,,,,,,,,,,,,,,,,,,,,,,,,,,,,,,,,,,,,,,,,,,,,,,,,,,,,,,,,,,,,,,,,,,,,,,,,,,,,,,,,,,
81343,1645494307.456704,122.0,0.0,4338.974121,4324.615234000001,4214.358886999999,4281.025879,4328.205078,450.0,4.0,77.0,,,,0.0,4.0,4.0,4.0,0.0,4.0,66.666664,,,,,,,,61.0,0.0,0.43413900000000005,-0.28930700000000004,0.614258,0.592041,0.8916149999999999,-0.46778100000000006,-0.089357,-0.035452,-0.038274,-0.031772,,,,,,,,,,,,,,,,,,,,,,,,,,,,,,,,,,,,,,,,,,,,,,,,,,,,,,,,,,,,,,,,,
81344,1645494307.464621,123.0,0.0,4343.589844,4301.025879,4220.512695,4282.05127,4343.077147999999,16217.0,4.0,77.0,,,,0.0,4.0,4.0,4.0,0.0,4.0,66.666664,,,,,,,,,,,,,,,,,,,,,,,,,,,,,,,,,,,,,,,,,,,,,,,,,,,,,,,,,,,,,,,,,,,,,,,,,,,,,,,,,,,,
81345,1645494307.472437,124.0,0.0,4352.307617,4315.384765999999,4213.846191,4280.512695,4343.589844,450.0,4.0,77.0,,,,0.0,4.0,4.0,4.0,0.0,4.0,66.666664,,,,,,,,62.0,0.0,0.43413900000000005,-0.28930700000000004,0.614258,0.592041,0.8921030000000001,-0.468757,-0.090822,-0.035519999999999996,-0.038207,-0.027226999999999998,,,,,,,,,,,,,,,,,,,,,,,,,,,,,,,,,,,0.0,0.0,1.0,0.0,1.0,0.0,,,,,,,,,,,,,,,,,,,,,,,,,
81346,1645494307.480254,125.0,0.0,4363.589844,4364.102539,4212.307617,4280.512695,4333.846191,450.0,4.0,77.0,,,,0.0,4.0,4.0,4.0,0.0,4.0,66.666664,,,,,,,,,,,,,,,,,,,,,,,,,,,,,,,,,,,,,,,,,,,,,,,,,,,,,,,,,,,,,,,,,,,,,,,,,,,,,,,,,,,,
81347,1645494307.4880712,126.0,0.0,4343.589844,4356.922852000001,4225.128418,4281.025879,4328.717772999999,450.0,4.0,77.0,,,,0.0,4.0,4.0,4.0,0.0,4.0,66.666664,,,,,,,,63.0,0.0,0.43413900000000005,-0.28930700000000004,0.614258,0.592041,0.8847790000000001,-0.474617,-0.08447400000000001,-0.035386,-0.038146,-0.029289999999999997,,,,,,,,,,,,,,,,,,,,,,,,,,,,,,,,,,,,,,,,,,,,,,,,,,,,,,,,,,,,,,,,,
81348,1645494307.495888,127.0,0.0,4338.974121,4323.077147999999,4236.922852000001,4280.512695,4332.820313,239.0,4.0,77.0,,,,0.0,4.0,4.0,4.0,0.0,4.0,66.666664,,,,,,,,,,,,,,,,,,,,,,,,,,,,,,,,,,,,,,,,,,,,,,,,,,,,,,,,,,,,,,,,,,,,,,,,,,,,,,,,,,,,
81349,1645494307.503705,0.0,0.0,4358.461426,4317.436035,4234.358886999999,4280.512695,4346.666504,450.0,4.0,77.0,,,,0.0,4.0,4.0,4.0,0.0,4.0,66.666664,1.0,41.666668,4.0,3.0,2.0,0.0,4.0,0.0,0.0,0.43397600000000003,-0.289551,0.614258,0.592041,0.9004040000000001,-0.486824,-0.084962,-0.035363,-0.038189,-0.031145999999999997,1.0,0.0,0.0,,,,,,,,,,,,,,,,,,,,,,,,,,,,,,,,0.0,0.0,1.0,0.0,1.0,0.0,5.991067,3.3602160000000003,1.044414,1.597208,1.958192,60.99209200000001,10.766636,2.1464220000000003,5.781055,3.187221,1.444607,0.23794,0.639976,0.45042600000000005,0.5044,0.013903,0.036987,0.007815,0.019322,0.017998,2.9280310000000003,3.244602,1.540589,1.706233,1.105952
81350,1645494307.511521,1.0,0.0,4335.384765999999,4326.153809,4223.589844,4280.512695,4330.256348,450.0,4.0,77.0,,,,0.0,4.0,4.0,4.0,0.0,4.0,66.666664,,,,,,,,,,,,,,,,,,,,,,,,,,,,,,,,,,,,,,,,,,,,,,,,,,,,,,,,,,,,,,,,,,,,,,,,,,,,,,,,,,,,
81351,1645494307.5193381,2.0,0.0,4322.05127,4323.077147999999,4220.512695,4280.512695,4298.461426,16185.0,4.0,77.0,,,,0.0,4.0,4.0,4.0,0.0,4.0,66.666664,,,,,,,,1.0,0.0,0.43397600000000003,-0.289551,0.614258,0.592041,0.894057,-0.474128,-0.095216,-0.035343,-0.038276,-0.026616,,,,,,,,,,,,,,,,,,,,,,,,,,,,,,,,,,,,,,,,,,,,,,,,,,,,,,,,,,,,,,,,,
81352,1645494307.5271552,3.0,0.0,4354.871582,4294.871582,4224.615234000001,4280.512695,4323.589844,450.0,4.0,77.0,,,,0.0,4.0,4.0,4.0,0.0,4.0,66.666664,,,,,,,,,,,,,,,,,,,,,,,,,,,,,,,,,,,,,,,,,,,,,,,,,,,,,,,,,,,,,,,,,,,,,,,,,,,,,,,,,,,,
81353,1645494307.535072,4.0,0.0,4360.512695,4298.461426,4224.615234000001,4280.512695,4358.974121,16126.0,4.0,77.0,,,,0.0,4.0,4.0,4.0,0.0,4.0,66.666664,,,,,,,,2.0,0.0,0.43397600000000003,-0.289551,0.614258,0.592041,0.881849,-0.486336,-0.07715,-0.035422,-0.038208,-0.022538,,,,,,,,,,,,,,,,,,,,,,,,,,,,,,,,,,,0.0,0.0,1.0,0.0,1.0,0.0,,,,,,,,,,,,,,,,,,,,,,,,,
81354,1645494307.5428882,5.0,0.0,4350.769043,4317.94873,4228.205078,4280.512695,4351.282227000001,450.0,4.0,77.0,,,,0.0,4.0,4.0,4.0,0.0,4.0,66.666664,,,,,,,,,,,,,,,,,,,,,,,,,,,,,,,,,,,,,,,,,,,,,,,,,,,,,,,,,,,,,,,,,,,,,,,,,,,,,,,,,,,,
81355,1645494307.5507052,6.0,0.0,4369.230957,4288.205078,4232.820313,4280.512695,4352.307617,16089.0,4.0,77.0,,,,0.0,4.0,4.0,4.0,0.0,4.0,66.666664,,,,,,,,3.0,0.0,0.433813,-0.28979499999999997,0.614258,0.592041,0.8798959999999999,-0.471199,-0.087892,-0.035394999999999996,-0.038099,-0.025216,,,,,,,,,,,,,,,,,,,,,,,,,,,,,,,,,,,,,,,,,,,,,,,,,,,,,,,,,,,,,,,,,
81356,1645494307.558522,7.0,0.0,4367.692383,4235.897461,4226.666504,4280.512695,4343.077147999999,450.0,4.0,77.0,,,,0.0,4.0,4.0,4.0,0.0,4.0,66.666664,,,,,,,,,,,,,,,,,,,,,,,,,,,,,,,,,,,,,,,,,,,,,,,,,,,,,,,,,,,,,,,,,,,,,,,,,,,,,,,,,,,,
81357,1645494307.566339,8.0,0.0,4340.512695,4227.692383,4226.153809,4281.025879,4306.153809,450.0,4.0,77.0,,,,0.0,4.0,4.0,4.0,0.0,4.0,66.666664,,,,,,,,4.0,0.0,0.433813,-0.28979499999999997,0.614258,0.592041,0.8764780000000001,-0.482918,-0.085939,-0.03542,-0.037951,-0.02748,,,,,,,,,,,,,,,,,,,,,,,,,,,,,,,,,,,0.0,0.0,1.0,0.0,1.0,0.0,,,,,,,,,,,,,,,,,,,,,,,,,
81358,1645494307.574156,9.0,0.0,4349.743652,4259.487305,4232.307617,4280.0,4317.436035,0.0,4.0,77.0,,,,0.0,4.0,4.0,4.0,0.0,4.0,66.666664,,,,,,,,,,,,,,,,,,,,,,,,,,,,,,,,,,,,,,,,,,,,,,,,,,,,,,,,,,,,,,,,,,,,,,,,,,,,,,,,,,,,
81359,1645494307.5819721,10.0,0.0,4372.820313,4290.769043,4230.256348,4279.487305,4365.641113000001,450.0,4.0,77.0,,,,0.0,4.0,4.0,4.0,0.0,4.0,66.666664,,,,,,,,5.0,0.0,0.433983,-0.290039,0.614258,0.591797,0.8774549999999999,-0.48145299999999996,-0.09033300000000001,-0.035492,-0.037867000000000005,-0.029566000000000002,,,,,,,,,,,,,,,,,,,,,,,,,,,,,,,,,,,,,,,,,,,,,,,,,,,,,,,,,,,,,,,,,
81360,1645494307.5897892,11.0,0.0,4368.717772999999,4313.333496,4231.794922,4280.0,4375.897461,16211.0,4.0,77.0,,,,0.0,4.0,4.0,4.0,0.0,4.0,66.666664,,,,,,,,,,,,,,,,,,,,,,,,,,,,,,,,,,,,,,,,,,,,,,,,,,,,,,,,,,,,,,,,,,,,,,,,,,,,,,,,,,,,
81361,1645494307.597606,12.0,0.0,4366.153809,4320.512695,4236.410156,4280.512695,4357.436035,450.0,4.0,77.0,,,,0.0,4.0,4.0,4.0,0.0,4.0,66.666664,,,,,,,,6.0,0.0,0.433813,-0.28979499999999997,0.614258,0.592041,0.8798959999999999,-0.471199,-0.087892,-0.035457999999999996,-0.037791000000000005,-0.031541,,,,,,,,,,,,,,,,,,,,,,,,,,,,,,,,,,,0.0,0.0,1.0,0.0,1.0,0.0,,,,,,,,,,,,,,,,,,,,,,,,,
81362,1645494307.605423,13.0,0.0,4358.461426,4305.641113000001,4228.205078,4280.0,4335.384765999999,450.0,4.0,77.0,,,,0.0,4.0,4.0,4.0,0.0,4.0,66.666664,,,,,,,,,,,,,,,,,,,,,,,,,,,,,,,,,,,,,,,,,,,,,,,,,,,,,,,,,,,,,,,,,,,,,,,,,,,,,,,,,,,,
81363,1645494307.613339,14.0,0.0,4344.102539,4270.769043,4215.384765999999,4280.512695,4318.461426,450.0,4.0,77.0,,,,0.0,4.0,4.0,4.0,0.0,4.0,66.666664,,,,,,,,7.0,0.0,0.433983,-0.290039,0.614258,0.591797,0.8774549999999999,-0.48145299999999996,-0.09033300000000001,-0.035526,-0.037723,-0.033221,,,,,,,,,,,,,,,,,,,,,,,,,,,,,,,,,,,,,,,,,,,,,,,,,,,,,,,,,,,,,,,,,
81364,1645494307.621156,15.0,0.0,4343.077147999999,4237.436035,4215.897461,4280.512695,4329.743652,16211.0,4.0,77.0,,,,0.0,4.0,4.0,4.0,0.0,4.0,66.666664,,,,,,,,,,,,,,,,,,,,,,,,,,,,,,,,,,,,,,,,,,,,,,,,,,,,,,,,,,,,,,,,,,,,,,,,,,,,,,,,,,,,
81365,1645494307.628973,16.0,0.0,4342.563965,4213.846191,4217.94873,4280.512695,4344.102539,0.0,4.0,77.0,,,,0.0,4.0,4.0,4.0,0.0,4.0,66.666664,,,,,,,,8.0,0.0,0.433637,-0.290039,0.614502,0.591797,0.894057,-0.47022200000000003,-0.087404,-0.035538,-0.037711,-0.034684,1.0,0.0,0.0,,,,,,,,,,,,,,,,,,,,,,,,,,,,,,,,0.0,0.0,1.0,0.0,1.0,0.0,6.641508,3.538965,1.4719659999999999,2.031488,1.915444,78.204376,11.326139999999999,3.04338,6.208330999999999,3.082421,1.135009,0.281283,0.771464,0.448996,0.461271,0.013396000000000002,0.033884,0.007351000000000001,0.016184999999999998,0.017049,2.931184,3.084997,2.091093,1.899199,1.072934
81366,1645494307.63679,17.0,0.0,4333.333496,4217.436035,4223.589844,4280.512695,4320.512695,0.0,4.0,77.0,,,,0.0,4.0,4.0,4.0,0.0,4.0,66.666664,,,,,,,,,,,,,,,,,,,,,,,,,,,,,,,,,,,,,,,,,,,,,,,,,,,,,,,,,,,,,,,,,,,,,,,,,,,,,,,,,,,,
81367,1645494307.644607,18.0,0.0,4342.563965,4241.025879,4226.153809,4280.512695,4300.512695,0.0,4.0,77.0,,,,0.0,4.0,4.0,4.0,0.0,4.0,66.666664,,,,,,,,9.0,0.0,0.43347399999999997,-0.290283,0.614502,0.591797,0.8960100000000001,-0.467292,-0.07422000000000001,-0.035548,-0.037748000000000004,-0.036196,,,,,,,,,,,,,,,,,,,,,,,,,,,,,,,,,,,,,,,,,,,,,,,,,,,,,,,,,,,,,,,,,
81368,1645494307.6524231,19.0,0.0,4359.487305,4223.077147999999,4216.410156,4280.512695,4316.410156,0.0,4.0,77.0,,,,0.0,4.0,4.0,4.0,0.0,4.0,66.666664,,,,,,,,,,,,,,,,,,,,,,,,,,,,,,,,,,,,,,,,,,,,,,,,,,,,,,,,,,,,,,,,,,,,,,,,,,,,,,,,,,,,
81369,1645494307.66024,20.0,0.0,4345.641113000001,4194.358886999999,4219.487305,4280.512695,4328.205078,0.0,4.0,77.0,,,,0.0,4.0,4.0,4.0,0.0,4.0,66.666664,,,,,,,,10.0,0.0,0.43347399999999997,-0.290283,0.614502,0.591797,0.882338,-0.46973400000000004,-0.072755,-0.035656,-0.037781999999999996,-0.031208999999999997,,,,,,,,,,,,,,,,,,,,,,,,,,,,,,,,,,,0.0,0.0,1.0,0.0,1.0,0.0,,,,,,,,,,,,,,,,,,,,,,,,,
81370,1645494307.668057,21.0,0.0,4333.333496,4252.820313,4234.871582,4280.512695,4324.615234000001,0.0,4.0,77.0,,,,0.0,4.0,4.0,4.0,0.0,4.0,66.666664,,,,,,,,,,,,,,,,,,,,,,,,,,,,,,,,,,,,,,,,,,,,,,,,,,,,,,,,,,,,,,,,,,,,,,,,,,,,,,,,,,,,
81371,1645494307.675874,22.0,0.0,4346.666504,4325.128418,4227.692383,4280.512695,4328.717772999999,0.0,4.0,77.0,,,,0.0,4.0,4.0,4.0,0.0,4.0,66.666664,,,,,,,,11.0,0.0,0.43347399999999997,-0.290283,0.614502,0.591797,0.8960100000000001,-0.480476,-0.086427,-0.035752,-0.03791,-0.032971,,,,,,,,,,,,,,,,,,,,,,,,,,,,,,,,,,,,,,,,,,,,,,,,,,,,,,,,,,,,,,,,,
81372,1645494307.68379,23.0,0.0,4354.871582,4312.307617,4222.05127,4280.512695,4324.102539,0.0,4.0,77.0,,,,0.0,4.0,4.0,4.0,0.0,4.0,66.666664,,,,,,,,,,,,,,,,,,,,,,,,,,,,,,,,,,,,,,,,,,,,,,,,,,,,,,,,,,,,,,,,,,,,,,,,,,,,,,,,,,,,
81373,1645494307.691607,24.0,0.0,4343.077147999999,4322.563965,4231.282227000001,4280.512695,4296.922852000001,0.0,4.0,77.0,,,,0.0,4.0,4.0,4.0,0.0,4.0,66.666664,,,,,,,,12.0,0.0,0.43347399999999997,-0.290283,0.614502,0.591797,0.8833139999999999,-0.47071,-0.070802,-0.035742,-0.037927999999999996,-0.034655,,,,,,,,,,,,,,,,,,,,,,,,,,,,,,,,,,,0.0,0.0,1.0,0.0,1.0,0.0,,,,,,,,,,,,,,,,,,,,,,,,,
81374,1645494307.699423,25.0,0.0,4325.128418,4369.230957,4225.641113000001,4280.512695,4291.794922,0.0,4.0,77.0,,,,0.0,4.0,4.0,4.0,0.0,4.0,66.666664,,,,,,,,,,,,,,,,,,,,,,,,,,,,,,,,,,,,,,,,,,,,,,,,,,,,,,,,,,,,,,,,,,,,,,,,,,,,,,,,,,,,
81375,1645494307.70724,26.0,0.0,4331.794922,4370.256348,4216.410156,4280.512695,4314.871582,0.0,4.0,77.0,,,,0.0,4.0,4.0,4.0,0.0,4.0,66.666664,,,,,,,,13.0,0.0,0.43312700000000004,-0.290283,0.614746,0.591797,0.8740370000000001,-0.479988,-0.070802,-0.035781,-0.037992000000000005,-0.036121,,,,,,,,,,,,,,,,,,,,,,,,,,,,,,,,,,,,,,,,,,,,,,,,,,,,,,,,,,,,,,,,,
81376,1645494307.715056,27.0,0.0,4342.05127,4354.871582,4223.077147999999,4281.025879,4308.205078,0.0,4.0,77.0,,,,0.0,4.0,4.0,4.0,0.0,4.0,66.666664,,,,,,,,,,,,,,,,,,,,,,,,,,,,,,,,,,,,,,,,,,,,,,,,,,,,,,,,,,,,,,,,,,,,,,,,,,,,,,,,,,,,
81377,1645494307.722873,28.0,0.0,4318.974121,4370.256348,4223.077147999999,4280.512695,4285.641113000001,0.0,4.0,77.0,,,,0.0,4.0,4.0,4.0,0.0,4.0,66.666664,,,,,,,,14.0,0.0,0.43329700000000004,-0.290527,0.614746,0.591553,0.8896620000000001,-0.480476,-0.078614,-0.035767,-0.038002,-0.037343,,,,,,,,,,,,,,,,,,,,,,,,,,,,,,,,,,,0.0,0.0,1.0,0.0,1.0,0.0,,,,,,,,,,,,,,,,,,,,,,,,,
81378,1645494307.73069,29.0,0.0,4308.205078,4400.512695,4213.333496,4279.487305,4297.436035,0.0,4.0,77.0,,,,0.0,4.0,4.0,4.0,0.0,4.0,66.666664,,,,,,,,,,,,,,,,,,,,,,,,,,,,,,,,,,,,,,,,,,,,,,,,,,,,,,,,,,,,,,,,,,,,,,,,,,,,,,,,,,,,
81379,1645494307.738506,30.0,0.0,4343.589844,4428.205078,4213.333496,4278.461426,4315.897461,0.0,4.0,77.0,,,,0.0,4.0,4.0,4.0,0.0,4.0,66.666664,,,,,,,,15.0,0.0,0.43329700000000004,-0.290527,0.614746,0.591553,0.8764780000000001,-0.495125,-0.07422000000000001,-0.035706,-0.03801,-0.038394,,,,,,,,,,,,,,,,,,,,,,,,,,,,,,,,,,,,,,,,,,,,,,,,,,,,,,,,,,,,,,,,,
81380,1645494307.746323,31.0,0.0,4357.436035,4436.410156,4207.179688,4278.974121,4308.205078,0.0,4.0,77.0,,,,0.0,4.0,4.0,4.0,0.0,4.0,66.666664,,,,,,,,,,,,,,,,,,,,,,,,,,,,,,,,,,,,,,,,,,,,,,,,,,,,,,,,,,,,,,,,,,,,,,,,,,,,,,,,,,,,
81381,1645494307.754239,32.0,0.0,4314.358886999999,4405.128418,4193.846191,4278.974121,4292.307617,0.0,4.0,77.0,,,,0.0,4.0,4.0,4.0,0.0,4.0,66.666664,,,,,,,,16.0,0.0,0.43329700000000004,-0.290527,0.614746,0.591553,0.874525,-0.48145299999999996,-0.064454,-0.035749,-0.038116000000000004,-0.033236,1.0,0.0,0.0,,,,,,,,,,,,,,,,,,,,,,,,,,,,,,,,0.0,0.0,1.0,0.0,1.0,0.0,6.763653,3.524086,2.1175450000000002,2.4702349999999997,1.873546,90.75484499999999,11.248889,4.116246,6.235337,3.082655,0.825973,0.34689899999999996,0.918876,0.45133199999999996,0.41203,0.014292,0.030918,0.007087,0.013852000000000001,0.016854,2.8446830000000003,2.767224,2.623161,2.002145,1.080418
81382,1645494307.762056,33.0,0.0,4289.743652,4381.025879,4199.487305,4278.461426,4276.410156,0.0,4.0,77.0,,,,0.0,4.0,4.0,4.0,0.0,4.0,66.666664,,,,,,,,,,,,,,,,,,,,,,,,,,,,,,,,,,,,,,,,,,,,,,,,,,,,,,,,,,,,,,,,,,,,,,,,,,,,,,,,,,,,
81383,1645494307.7698731,34.0,0.0,4322.05127,4382.05127,4219.487305,4278.974121,4279.487305,0.0,4.0,77.0,,,,0.0,4.0,4.0,4.0,0.0,4.0,66.666664,,,,,,,,17.0,0.0,0.43329700000000004,-0.290527,0.614746,0.591553,0.8803850000000001,-0.482429,-0.07715,-0.035836,-0.038015,-0.034893,,,,,,,,,,,,,,,,,,,,,,,,,,,,,,,,,,,,,,,,,,,,,,,,,,,,,,,,,,,,,,,,,
81384,1645494307.77769,35.0,0.0,4340.0,4376.922852000001,4224.615234000001,4278.974121,4306.153809,0.0,4.0,77.0,,,,0.0,4.0,4.0,4.0,0.0,4.0,66.666664,,,,,,,,,,,,,,,,,,,,,,,,,,,,,,,,,,,,,,,,,,,,,,,,,,,,,,,,,,,,,,,,,,,,,,,,,,,,,,,,,,,,
81385,1645494307.785507,36.0,0.0,4321.538574,4389.743652,4222.05127,4278.461426,4315.384765999999,0.0,4.0,77.0,,,,0.0,4.0,4.0,4.0,0.0,4.0,66.666664,,,,,,,,18.0,0.0,0.43329700000000004,-0.290527,0.614746,0.591553,0.874525,-0.47901099999999996,-0.07324299999999999,-0.035866,-0.037925,-0.029988,,,,,,,,,,,,,,,,,,,,,,,,,,,,,,,,,,,0.0,0.0,1.0,0.0,1.0,0.0,,,,,,,,,,,,,,,,,,,,,,,,,
81386,1645494307.793323,37.0,0.0,4317.436035,4425.128418,4231.282227000001,4278.461426,4287.692383,0.0,4.0,77.0,,,,0.0,4.0,4.0,4.0,0.0,4.0,66.666664,,,,,,,,,,,,,,,,,,,,,,,,,,,,,,,,,,,,,,,,,,,,,,,,,,,,,,,,,,,,,,,,,,,,,,,,,,,,,,,,,,,,
81387,1645494307.80114,38.0,0.0,4334.871582,4468.717772999999,4227.179688,4280.512695,4283.077147999999,0.0,4.0,77.0,,,,0.0,4.0,4.0,4.0,0.0,4.0,66.666664,,,,,,,,19.0,0.0,0.433284,-0.290527,0.6149899999999999,0.591309,0.8872209999999999,-0.482429,-0.078126,-0.035844,-0.038087,-0.031823000000000004,,,,,,,,,,,,,,,,,,,,,,,,,,,,,,,,,,,,,,,,,,,,,,,,,,,,,,,,,,,,,,,,,
81388,1645494307.808957,39.0,0.0,4340.512695,4486.153809,4212.820313,4281.025879,4308.205078,0.0,4.0,77.0,,,,0.0,4.0,4.0,4.0,0.0,4.0,66.666664,,,,,,,,,,,,,,,,,,,,,,,,,,,,,,,,,,,,,,,,,,,,,,,,,,,,,,,,,,,,,,,,,,,,,,,,,,,,,,,,,,,,
81389,1645494307.8167741,40.0,0.0,4344.615234000001,4433.333496,4225.128418,4278.974121,4302.05127,0.0,4.0,77.0,,,,0.0,4.0,4.0,4.0,0.0,4.0,66.666664,,,,,,,,20.0,0.0,0.433284,-0.290527,0.6149899999999999,0.591309,0.894545,-0.46338599999999996,-0.077638,-0.035824,-0.038087,-0.033524,,,,,,,,,,,,,,,,,,,,,,,,,,,,,,,,,,,0.0,0.0,1.0,0.0,1.0,0.0,,,,,,,,,,,,,,,,,,,,,,,,,
81390,1645494307.82469,41.0,0.0,4346.666504,4369.743652,4230.256348,4279.487305,4300.0,0.0,4.0,77.0,,,,0.0,4.0,4.0,4.0,0.0,4.0,66.666664,,,,,,,,,,,,,,,,,,,,,,,,,,,,,,,,,,,,,,,,,,,,,,,,,,,,,,,,,,,,,,,,,,,,,,,,,,,,,,,,,,,,
81391,1645494307.8325071,42.0,0.0,4329.743652,4380.0,4208.205078,4282.05127,4325.128418,0.0,4.0,77.0,,,,0.0,4.0,4.0,4.0,0.0,4.0,66.666664,,,,,,,,21.0,0.0,0.433284,-0.290527,0.6149899999999999,0.591309,0.8808729999999999,-0.47168699999999997,-0.076173,-0.035757,-0.038234,-0.035005,,,,,,,,,,,,,,,,,,,,,,,,,,,,,,,,,,,,,,,,,,,,,,,,,,,,,,,,,,,,,,,,,
81392,1645494307.840324,43.0,0.0,4328.205078,4402.05127,4202.563965,4281.025879,4316.922852000001,0.0,4.0,77.0,,,,0.0,4.0,4.0,4.0,0.0,4.0,66.666664,,,,,,,,,,,,,,,,,,,,,,,,,,,,,,,,,,,,,,,,,,,,,,,,,,,,,,,,,,,,,,,,,,,,,,,,,,,,,,,,,,,,
81393,1645494307.848141,44.0,0.0,4337.94873,4388.717772999999,4217.94873,4280.0,4279.487305,0.0,4.0,77.0,,,,0.0,4.0,4.0,4.0,0.0,4.0,66.666664,,,,,,,,22.0,0.0,0.433284,-0.290527,0.6149899999999999,0.591309,0.897475,-0.474617,-0.07470800000000001,-0.035697,-0.038317000000000004,-0.036388,,,,,,,,,,,,,,,,,,,,,,,,,,,,,,,,,,,0.0,0.0,1.0,0.0,1.0,0.0,,,,,,,,,,,,,,,,,,,,,,,,,
81394,1645494307.855958,45.0,0.0,4327.692383,4392.820313,4226.666504,4281.025879,4282.05127,0.0,4.0,77.0,,,,0.0,4.0,4.0,4.0,0.0,4.0,66.666664,,,,,,,,,,,,,,,,,,,,,,,,,,,,,,,,,,,,,,,,,,,,,,,,,,,,,,,,,,,,,,,,,,,,,,,,,,,,,,,,,,,,
81395,1645494307.863774,46.0,0.0,4333.846191,4397.436035,4224.615234000001,4280.0,4320.0,0.0,4.0,77.0,,,,0.0,4.0,4.0,4.0,0.0,4.0,66.666664,,,,,,,,23.0,0.0,0.433284,-0.290527,0.6149899999999999,0.591309,0.887709,-0.482429,-0.079591,-0.035692,-0.038342,-0.031235000000000002,,,,,,,,,,,,,,,,,,,,,,,,,,,,,,,,,,,,,,,,,,,,,,,,,,,,,,,,,,,,,,,,,
81396,1645494307.871591,47.0,0.0,4351.794922,4400.0,4217.94873,4278.974121,4330.256348,0.0,4.0,77.0,,,,0.0,4.0,4.0,4.0,0.0,4.0,66.666664,,,,,,,,,,,,,,,,,,,,,,,,,,,,,,,,,,,,,,,,,,,,,,,,,,,,,,,,,,,,,,,,,,,,,,,,,,,,,,,,,,,,
81397,1645494307.8794081,48.0,0.0,4347.692383,4446.153809,4212.820313,4281.538574,4322.563965,0.0,4.0,77.0,,,,0.0,4.0,4.0,4.0,0.0,4.0,66.666664,,,,,,,,24.0,0.0,0.433284,-0.290527,0.6149899999999999,0.591309,0.882826,-0.46778100000000006,-0.075196,-0.035736000000000004,-0.038317000000000004,-0.032995,1.0,0.0,0.0,,,,,,,,,,,,,,,,,,,,,,,,,,,,,,,,0.0,0.0,1.0,0.0,1.0,0.0,6.4073459999999995,3.3909529999999997,2.808608,2.799906,1.842061,95.594383,11.113256,5.246765,5.942768,3.16189,0.606176,0.43005600000000005,1.0719299999999998,0.45622299999999993,0.373237,0.015643,0.028821,0.006997,0.012569,0.017262,2.6793299999999998,2.4251810000000003,2.9818439999999997,2.0211919999999997,1.137167
81398,1645494307.887225,49.0,0.0,4338.461426,4455.384765999999,4223.589844,4282.05127,4307.692383,0.0,4.0,77.0,,,,0.0,4.0,4.0,4.0,0.0,4.0,66.666664,,,,,,,,,,,,,,,,,,,,,,,,,,,,,,,,,,,,,,,,,,,,,,,,,,,,,,,,,,,,,,,,,,,,,,,,,,,,,,,,,,,,
81399,1645494307.8951411,50.0,0.0,4332.307617,4391.282227000001,4235.897461,4280.0,4295.384765999999,0.0,4.0,77.0,,,,0.0,4.0,4.0,4.0,0.0,4.0,66.666664,,,,,,,,25.0,0.0,0.433284,-0.290527,0.6149899999999999,0.591309,0.8808729999999999,-0.48584700000000003,-0.064942,-0.035873,-0.038294,-0.028279000000000002,,,,,,,,,,,,,,,,,,,,,,,,,,,,,,,,,,,,,,,,,,,,,,,,,,,,,,,,,,,,,,,,,
81400,1645494307.902958,51.0,0.0,4331.794922,4381.025879,4228.205078,4280.0,4314.358886999999,0.0,4.0,77.0,,,,0.0,4.0,4.0,4.0,0.0,4.0,66.666664,,,,,,,,,,,,,,,,,,,,,,,,,,,,,,,,,,,,,,,,,,,,,,,,,,,,,,,,,,,,,,,,,,,,,,,,,,,,,,,,,,,,
81401,1645494307.910775,52.0,0.0,4347.179688,4425.641113000001,4216.410156,4281.025879,4349.743652,0.0,4.0,77.0,,,,0.0,4.0,4.0,4.0,0.0,4.0,66.666664,,,,,,,,26.0,0.0,0.43295100000000003,-0.290527,0.6149899999999999,0.591553,0.8838030000000001,-0.466316,-0.083497,-0.035899,-0.038370999999999995,-0.030236000000000002,,,,,,,,,,,,,,,,,,,,,,,,,,,,,,,,,,,0.0,0.0,1.0,0.0,1.0,0.0,,,,,,,,,,,,,,,,,,,,,,,,,
81402,1645494307.918592,53.0,0.0,4356.410156,4435.897461,4222.05127,4281.538574,4358.461426,0.0,4.0,77.0,,,,0.0,4.0,4.0,4.0,0.0,4.0,66.666664,,,,,,,,,,,,,,,,,,,,,,,,,,,,,,,,,,,,,,,,,,,,,,,,,,,,,,,,,,,,,,,,,,,,,,,,,,,,,,,,,,,,
81403,1645494307.926409,54.0,0.0,4351.282227000001,4447.692383,4231.282227000001,4281.025879,4328.717772999999,0.0,4.0,77.0,,,,0.0,4.0,4.0,4.0,0.0,4.0,66.666664,,,,,,,,27.0,0.0,0.43311400000000005,-0.290283,0.6149899999999999,0.591553,0.8886850000000001,-0.464851,-0.07324299999999999,-0.035972000000000004,-0.038245,-0.031998,,,,,,,,,,,,,,,,,,,,,,,,,,,,,,,,,,,,,,,,,,,,,,,,,,,,,,,,,,,,,,,,,
81404,1645494307.934225,55.0,0.0,4352.307617,4488.717772999999,4230.769043,4282.05127,4314.358886999999,0.0,4.0,77.0,,,,0.0,4.0,4.0,4.0,0.0,4.0,66.666664,,,,,,,,,,,,,,,,,,,,,,,,,,,,,,,,,,,,,,,,,,,,,,,,,,,,,,,,,,,,,,,,,,,,,,,,,,,,,,,,,,,,
81405,1645494307.9420419,56.0,0.0,4345.641113000001,4499.487305,4226.666504,4282.05127,4314.871582,0.0,4.0,77.0,,,,0.0,4.0,4.0,4.0,0.0,4.0,66.666664,,,,,,,,28.0,0.0,0.43311400000000005,-0.290283,0.6149899999999999,0.591553,0.886244,-0.48731199999999997,-0.06884900000000001,-0.036037,-0.038278,-0.033535,,,,,,,,,,,,,,,,,,,,,,,,,,,,,,,,,,,0.0,0.0,1.0,0.0,1.0,0.0,,,,,,,,,,,,,,,,,,,,,,,,,
81406,1645494307.949859,57.0,0.0,4337.436035,4479.487305,4229.230957,4280.0,4302.563965,0.0,4.0,77.0,,,,0.0,4.0,4.0,4.0,0.0,4.0,66.666664,,,,,,,,,,,,,,,,,,,,,,,,,,,,,,,,,,,,,,,,,,,,,,,,,,,,,,,,,,,,,,,,,,,,,,,,,,,,,,,,,,,,
81407,1645494307.957676,58.0,0.0,4353.333496,4464.102539,4233.333496,4280.0,4310.769043,0.0,4.0,77.0,,,,0.0,4.0,4.0,4.0,0.0,4.0,66.666664,,,,,,,,29.0,0.0,0.43295100000000003,-0.290527,0.6149899999999999,0.591553,0.8838030000000001,-0.466316,-0.083497,-0.036045999999999995,-0.038356,-0.034966000000000004,,,,,,,,,,,,,,,,,,,,,,,,,,,,,,,,,,,,,,,,,,,,,,,,,,,,,,,,,,,,,,,,,
81408,1645494307.9655929,59.0,0.0,4361.025879,4442.05127,4237.436035,4281.025879,4342.563965,0.0,4.0,77.0,,,,0.0,4.0,4.0,4.0,0.0,4.0,66.666664,,,,,,,,,,,,,,,,,,,,,,,,,,,,,,,,,,,,,,,,,,,,,,,,,,,,,,,,,,,,,,,,,,,,,,,,,,,,,,,,,,,,
81409,1645494307.97341,60.0,0.0,4351.794922,4431.794922,4238.974121,4279.487305,4336.410156,0.0,4.0,77.0,,,,0.0,4.0,4.0,4.0,0.0,4.0,66.666664,,,,,,,,30.0,0.0,0.432781,-0.290283,0.6149899999999999,0.591797,0.886244,-0.48096400000000006,-0.080568,-0.036006,-0.038232,-0.030005,,,,,,,,,,,,,,,,,,,,,,,,,,,,,,,,,,,0.0,0.0,1.0,0.0,1.0,0.0,,,,,,,,,,,,,,,,,,,,,,,,,
81410,1645494307.9813259,61.0,0.0,4349.230957,4438.461426,4238.974121,4280.0,4298.974121,0.0,4.0,77.0,,,,0.0,4.0,4.0,4.0,0.0,4.0,66.666664,,,,,,,,,,,,,,,,,,,,,,,,,,,,,,,,,,,,,,,,,,,,,,,,,,,,,,,,,,,,,,,,,,,,,,,,,,,,,,,,,,,,
81411,1645494307.989143,62.0,0.0,4345.641113000001,4431.282227000001,4236.922852000001,4282.563965,4298.461426,0.0,4.0,77.0,,,,0.0,4.0,4.0,4.0,0.0,4.0,66.666664,,,,,,,,31.0,0.0,0.43294399999999994,-0.290039,0.6149899999999999,0.591797,0.8774549999999999,-0.484871,-0.08105599999999999,-0.036068,-0.038266,-0.031838,,,,,,,,,,,,,,,,,,,,,,,,,,,,,,,,,,,,,,,,,,,,,,,,,,,,,,,,,,,,,,,,,
81412,1645494307.99696,63.0,0.0,4335.897461,4397.436035,4222.05127,4281.025879,4316.922852000001,0.0,4.0,77.0,,,,0.0,4.0,4.0,4.0,0.0,4.0,66.666664,,,,,,,,,,,,,,,,,,,,,,,,,,,,,,,,,,,,,,,,,,,,,,,,,,,,,,,,,,,,,,,,,,,,,,,,,,,,,,,,,,,,
81413,1645494308.004777,64.0,0.0,4320.512695,4363.077147999999,4212.820313,4278.974121,4313.333496,450.0,4.0,77.0,,,,0.0,4.0,4.0,4.0,0.0,4.0,66.666664,1.0,41.666668,4.0,3.0,2.0,0.0,4.0,32.0,0.0,0.43294399999999994,-0.290039,0.6149899999999999,0.591797,0.886244,-0.47608100000000003,-0.07324299999999999,-0.035879,-0.038199000000000004,-0.027287,1.0,0.0,0.0,,,,,,,,,,,,,,,,,,,,,,,,,,,,,,,,0.0,0.0,1.0,0.0,1.0,0.0,5.669153,3.223476,3.341603,2.944249,1.834389,91.53981,11.713795,6.444317,5.522476,3.269053,0.514681,0.530407,1.1979959999999998,0.459607,0.355097,0.016361,0.027339,0.006911,0.011864,0.017653,2.4188330000000002,2.153441,3.077459,2.025563,1.238908
81414,1645494308.012594,65.0,0.0,4312.820313,4393.846191,4212.820313,4280.0,4306.153809,450.0,4.0,77.0,,,,0.0,4.0,4.0,4.0,0.0,4.0,66.666664,,,,,,,,,,,,,,,,,,,,,,,,,,,,,,,,,,,,,,,,,,,,,,,,,,,,,,,,,,,,,,,,,,,,,,,,,,,,,,,,,,,,
81415,1645494308.02041,66.0,0.0,4334.358886999999,4472.820313,4216.922852000001,4280.0,4306.153809,16235.0,4.0,77.0,,,,0.0,4.0,4.0,4.0,0.0,4.0,66.666664,,,,,,,,33.0,0.0,0.43294399999999994,-0.290039,0.6149899999999999,0.591797,0.890639,-0.480476,-0.072755,-0.035904000000000005,-0.038188,-0.02324,,,,,,,,,,,,,,,,,,,,,,,,,,,,,,,,,,,,,,,,,,,,,,,,,,,,,,,,,,,,,,,,,
81416,1645494308.0282269,67.0,0.0,4350.769043,4483.077147999999,4227.692383,4279.487305,4320.512695,450.0,4.0,77.0,,,,0.0,4.0,4.0,4.0,0.0,4.0,66.666664,,,,,,,,,,,,,,,,,,,,,,,,,,,,,,,,,,,,,,,,,,,,,,,,,,,,,,,,,,,,,,,,,,,,,,,,,,,,,,,,,,,,
81417,1645494308.036044,68.0,0.0,4336.410156,4431.282227000001,4231.282227000001,4280.0,4331.282227000001,16145.0,4.0,77.0,,,,0.0,4.0,4.0,4.0,0.0,4.0,66.666664,,,,,,,,34.0,0.0,0.433108,-0.28979499999999997,0.6149899999999999,0.591797,0.881849,-0.498543,-0.083497,-0.035781,-0.038227,-0.019403,,,,,,,,,,,,,,,,,,,,,,,,,,,,,,,,,,,0.0,0.0,1.0,0.0,1.0,0.0,,,,,,,,,,,,,,,,,,,,,,,,,
81418,1645494308.043861,69.0,0.0,4330.256348,4434.358886999999,4233.846191,4279.487305,4312.307617,450.0,4.0,77.0,,,,0.0,4.0,4.0,4.0,0.0,4.0,66.666664,,,,,,,,,,,,,,,,,,,,,,,,,,,,,,,,,,,,,,,,,,,,,,,,,,,,,,,,,,,,,,,,,,,,,,,,,,,,,,,,,,,,
81419,1645494308.0517778,70.0,0.0,4343.589844,4461.025879,4241.025879,4279.487305,4304.615234000001,320.0,4.0,77.0,,,,0.0,4.0,4.0,2.0,0.0,4.0,50.0,,,,,,,,35.0,0.0,0.433108,-0.28979499999999997,0.6149899999999999,0.591797,0.8881969999999999,-0.48535900000000004,-0.076661,-0.035816,-0.038408,-0.022345,,,,,,,,,,,,,,,,,,,,,,,,,,,,,,,,,,,,,,,,,,,,,,,,,,,,,,,,,,,,,,,,,
81420,1645494308.0595949,71.0,0.0,4343.077147999999,4407.692383,4237.436035,4279.487305,4321.538574,450.0,4.0,77.0,,,,0.0,4.0,4.0,2.0,0.0,4.0,50.0,,,,,,,,,,,,,,,,,,,,,,,,,,,,,,,,,,,,,,,,,,,,,,,,,,,,,,,,,,,,,,,,,,,,,,,,,,,,,,,,,,,,
81421,1645494308.067412,72.0,0.0,4326.153809,4316.410156,4218.461426,4279.487305,4309.743652,450.0,4.0,77.0,,,,0.0,4.0,4.0,2.0,0.0,4.0,50.0,,,,,,,,36.0,0.0,0.433108,-0.28979499999999997,0.6149899999999999,0.591797,0.8847790000000001,-0.482429,-0.070314,-0.035799,-0.038376,-0.018597,,,,,,,,,,,,,,,,,,,,,,,,,,,,,,,,,,,0.0,0.0,1.0,0.0,1.0,0.0,,,,,,,,,,,,,,,,,,,,,,,,,
81422,1645494308.075229,73.0,0.0,4311.282227000001,4276.410156,4206.666504,4278.974121,4280.0,0.0,4.0,77.0,,,,0.0,4.0,4.0,2.0,0.0,4.0,50.0,,,,,,,,,,,,,,,,,,,,,,,,,,,,,,,,,,,,,,,,,,,,,,,,,,,,,,,,,,,,,,,,,,,,,,,,,,,,,,,,,,,,
81423,1645494308.0830462,74.0,0.0,4316.410156,4296.922852000001,4211.282227000001,4278.461426,4283.077147999999,450.0,4.0,77.0,,,,0.0,4.0,4.0,2.0,0.0,4.0,50.0,,,,,,,,37.0,0.0,0.433108,-0.28979499999999997,0.6149899999999999,0.591797,0.8847790000000001,-0.477546,-0.08105599999999999,-0.035930000000000004,-0.038347000000000006,-0.021669,,,,,,,,,,,,,,,,,,,,,,,,,,,,,,,,,,,,,,,,,,,,,,,,,,,,,,,,,,,,,,,,,
81424,1645494308.090863,75.0,0.0,4342.05127,4337.436035,4216.410156,4278.974121,4311.794922,16214.0,4.0,77.0,,,,0.0,4.0,4.0,2.0,0.0,4.0,50.0,,,,,,,,,,,,,,,,,,,,,,,,,,,,,,,,,,,,,,,,,,,,,,,,,,,,,,,,,,,,,,,,,,,,,,,,,,,,,,,,,,,,
81425,1645494308.09868,76.0,0.0,4354.358886999999,4361.538574,4225.128418,4280.0,4319.487305,450.0,4.0,77.0,,,,0.0,4.0,4.0,2.0,0.0,4.0,50.0,,,,,,,,38.0,0.0,0.43294399999999994,-0.290039,0.6149899999999999,0.591797,0.881849,-0.48535900000000004,-0.078614,-0.035852999999999996,-0.038418,-0.018135,,,,,,,,,,,,,,,,,,,,,,,,,,,,,,,,,,,0.0,0.0,1.0,0.0,1.0,0.0,,,,,,,,,,,,,,,,,,,,,,,,,
81426,1645494308.106497,77.0,0.0,4338.974121,4357.94873,4227.179688,4280.0,4304.102539,450.0,4.0,77.0,,,,0.0,4.0,4.0,2.0,0.0,4.0,50.0,,,,,,,,,,,,,,,,,,,,,,,,,,,,,,,,,,,,,,,,,,,,,,,,,,,,,,,,,,,,,,,,,,,,,,,,,,,,,,,,,,,,
81427,1645494308.114314,78.0,0.0,4315.897461,4356.410156,4219.487305,4278.974121,4295.384765999999,450.0,4.0,77.0,,,,0.0,4.0,4.0,2.0,0.0,4.0,50.0,,,,,,,,39.0,0.0,0.433454,-0.28979499999999997,0.614746,0.591797,0.8803850000000001,-0.482918,-0.063966,-0.035782999999999995,-0.038532,-0.021204,,,,,,,,,,,,,,,,,,,,,,,,,,,,,,,,,,,,,,,,,,,,,,,,,,,,,,,,,,,,,,,,,
81428,1645494308.122231,79.0,0.0,4311.282227000001,4375.384765999999,4219.487305,4278.974121,4301.025879,16214.0,4.0,77.0,,,,0.0,4.0,4.0,2.0,0.0,4.0,50.0,,,,,,,,,,,,,,,,,,,,,,,,,,,,,,,,,,,,,,,,,,,,,,,,,,,,,,,,,,,,,,,,,,,,,,,,,,,,,,,,,,,,
81429,1645494308.130048,80.0,1.0,4313.717772999999,4372.371582,4221.858886999999,4278.974121,4299.679688,16214.0,4.0,77.0,,,,0.0,4.0,4.0,2.0,0.0,4.0,50.0,,,,,,,,40.0,1.0,0.433487,-0.289746,0.614746,0.591797,0.879799,-0.48340600000000006,-0.06631000000000001,-0.035819,-0.038513,-0.021737,1.0,0.0,0.0,,,,,,,,,,,,,,,,,,,,,,,,,,,,,,,,0.0,0.0,1.0,0.0,1.0,0.0,4.735888,3.080159,3.5582269999999996,2.8878630000000003,1.8607490000000002,80.279533,13.512922,7.807401,5.197866,3.355986,0.533043,0.6530060000000001,1.260686,0.459888,0.358698,0.016051,0.025472,0.006569,0.010931999999999999,0.017225999999999998,2.094121,1.9701099999999998,2.925741,2.137741,1.36611
81430,1645494308.137865,81.0,1.0,4316.153809,4369.358886999999,4224.230957,4278.974121,4298.333496,16214.0,4.0,77.0,,,,0.0,4.0,4.0,2.0,0.0,4.0,50.0,,,,,,,,,,,,,,,,,,,,,,,,,,,,,,,,,,,,,,,,,,,,,,,,,,,,,,,,,,,,,,,,,,,,,,,,,,,,,,,,,,,,
81431,1645494308.145682,82.0,1.0,4318.589844,4366.346191,4226.602539,4278.974121,4296.987305,16214.0,4.0,77.0,,,,0.0,4.0,4.0,2.0,0.0,4.0,50.0,,,,,,,,41.0,1.0,0.43351999999999996,-0.289697,0.614746,0.591797,0.8792129999999999,-0.48389399999999994,-0.06865299999999999,-0.035856,-0.038494,-0.022269999999999998,,,,,,,,,,,,,,,,,,,,,,,,,,,,,,,,,,,,,,,,,,,,,,,,,,,,,,,,,,,,,,,,,
81432,1645494308.1534991,83.0,1.0,4321.025879,4363.333496,4228.974121,4278.974121,4295.641113000001,16214.0,4.0,77.0,,,,0.0,4.0,4.0,2.0,0.0,4.0,50.0,,,,,,,,,,,,,,,,,,,,,,,,,,,,,,,,,,,,,,,,,,,,,,,,,,,,,,,,,,,,,,,,,,,,,,,,,,,,,,,,,,,,
81433,1645494308.161316,84.0,1.0,4323.461426,4360.320313,4231.346191,4278.974121,4294.294922,16214.0,4.0,77.0,,,,0.0,4.0,4.0,2.0,0.0,4.0,50.0,,,,,,,,42.0,1.0,0.43355200000000005,-0.289648,0.614746,0.591797,0.878627,-0.484382,-0.070997,-0.035892,-0.038475999999999996,-0.022803,,,,,,,,,,,,,,,,,,,,,,,,,,,,,,,,,,,0.0,0.0,1.0,0.0,1.0,0.0,,,,,,,,,,,,,,,,,,,,,,,,,
81434,1645494308.169133,85.0,1.0,4325.897461,4357.307617,4233.717772999999,4278.974121,4292.94873,16214.0,4.0,77.0,,,,0.0,4.0,4.0,2.0,0.0,4.0,50.0,,,,,,,,,,,,,,,,,,,,,,,,,,,,,,,,,,,,,,,,,,,,,,,,,,,,,,,,,,,,,,,,,,,,,,,,,,,,,,,,,,,,
81435,1645494308.17695,86.0,1.0,4328.333496,4354.294922,4236.089844,4278.974121,4291.602539,16214.0,4.0,77.0,,,,0.0,4.0,4.0,2.0,0.0,4.0,50.0,,,,,,,,43.0,1.0,0.43358500000000005,-0.2896,0.614746,0.591797,0.878041,-0.484871,-0.073341,-0.035927999999999995,-0.038457,-0.023336000000000003,,,,,,,,,,,,,,,,,,,,,,,,,,,,,,,,,,,,,,,,,,,,,,,,,,,,,,,,,,,,,,,,,
81436,1645494308.184767,87.0,0.0,4330.769043,4351.282227000001,4238.461426,4278.974121,4290.256348,16214.0,4.0,77.0,,,,0.0,4.0,4.0,2.0,0.0,4.0,50.0,,,,,,,,,,,,,,,,,,,,,,,,,,,,,,,,,,,,,,,,,,,,,,,,,,,,,,,,,,,,,,,,,,,,,,,,,,,,,,,,,,,,
81437,1645494308.192584,88.0,0.0,4338.974121,4313.846191,4234.358886999999,4277.436035,4304.102539,450.0,4.0,77.0,,,,0.0,4.0,4.0,2.0,0.0,4.0,50.0,,,,,,,,44.0,0.0,0.43361700000000003,-0.289551,0.614746,0.591797,0.8774549999999999,-0.48535900000000004,-0.075685,-0.035965,-0.038438,-0.023869,,,,,,,,,,,,,,,,,,,,,,,,,,,,,,,,,,,0.0,0.0,1.0,0.0,1.0,0.0,,,,,,,,,,,,,,,,,,,,,,,,,
81438,1645494308.200401,89.0,0.0,4320.0,4327.692383,4228.205078,4280.0,4293.333496,450.0,4.0,77.0,,,,0.0,4.0,4.0,2.0,0.0,4.0,50.0,,,,,,,,,,,,,,,,,,,,,,,,,,,,,,,,,,,,,,,,,,,,,,,,,,,,,,,,,,,,,,,,,,,,,,,,,,,,,,,,,,,,
81439,1645494308.2082179,90.0,0.0,4327.179688,4343.589844,4233.846191,4281.025879,4307.179688,450.0,4.0,77.0,,,,0.0,4.0,4.0,2.0,0.0,4.0,50.0,,,,,,,,45.0,0.0,0.433963,-0.289551,0.614502,0.591797,0.881849,-0.4795,-0.080079,-0.035933,-0.038403,-0.026316000000000003,,,,,,,,,,,,,,,,,,,,,,,,,,,,,,,,,,,,,,,,,,,,,,,,,,,,,,,,,,,,,,,,,
81440,1645494308.216035,91.0,0.0,4365.128418,4316.410156,4231.282227000001,4279.487305,4331.794922,16214.0,4.0,77.0,,,,0.0,4.0,4.0,2.0,0.0,4.0,50.0,,,,,,,,,,,,,,,,,,,,,,,,,,,,,,,,,,,,,,,,,,,,,,,,,,,,,,,,,,,,,,,,,,,,,,,,,,,,,,,,,,,,
81441,1645494308.223852,92.0,0.0,4369.743652,4305.128418,4224.102539,4279.487305,4318.461426,450.0,4.0,77.0,,,,0.0,4.0,4.0,2.0,0.0,4.0,50.0,,,,,,,,46.0,0.0,0.433963,-0.289551,0.614502,0.591797,0.8842909999999999,-0.474617,-0.085939,-0.035757,-0.038323,-0.022269,,,,,,,,,,,,,,,,,,,,,,,,,,,,,,,,,,,0.0,0.0,1.0,0.0,1.0,0.0,,,,,,,,,,,,,,,,,,,,,,,,,
81442,1645494308.231669,93.0,0.0,4342.05127,4298.461426,4227.692383,4280.0,4298.461426,450.0,4.0,77.0,,,,0.0,4.0,4.0,2.0,0.0,4.0,50.0,,,,,,,,,,,,,,,,,,,,,,,,,,,,,,,,,,,,,,,,,,,,,,,,,,,,,,,,,,,,,,,,,,,,,,,,,,,,,,,,,,,,
81443,1645494308.239486,94.0,0.0,4330.769043,4258.461426,4225.128418,4279.487305,4312.307617,450.0,4.0,77.0,,,,0.0,4.0,4.0,2.0,0.0,4.0,50.0,,,,,,,,47.0,0.0,0.433963,-0.289551,0.614502,0.591797,0.885267,-0.466316,-0.08203300000000001,-0.035649,-0.038348,-0.018674,,,,,,,,,,,,,,,,,,,,,,,,,,,,,,,,,,,,,,,,,,,,,,,,,,,,,,,,,,,,,,,,,
81444,1645494308.247303,95.0,0.0,4339.487305,4241.538574,4221.538574,4280.512695,4333.333496,16214.0,4.0,77.0,,,,0.0,4.0,4.0,2.0,0.0,4.0,50.0,,,,,,,,,,,,,,,,,,,,,,,,,,,,,,,,,,,,,,,,,,,,,,,,,,,,,,,,,,,,,,,,,,,,,,,,,,,,,,,,,,,,
81445,1645494308.255018,96.0,0.0,4348.205078,4241.025879,4237.94873,4280.512695,4327.692383,450.0,4.0,77.0,,,,0.0,4.0,4.0,2.0,0.0,4.0,50.0,,,,,,,,48.0,0.0,0.433963,-0.289551,0.614502,0.591797,0.881849,-0.4795,-0.080079,-0.035697,-0.038468,-0.015489,1.0,0.0,0.0,,,,,,,,,,,,,,,,,,,,,,,,,,,,,,,,0.0,0.0,1.0,0.0,1.0,0.0,3.771464,2.945605,3.4017660000000003,2.6729700000000003,1.912341,67.457146,16.454397,9.541196000000001,5.18124,3.412694,0.6014619999999999,0.8044020000000001,1.244756,0.457031,0.376932,0.014980000000000002,0.022286,0.005794,0.009294,0.015558,1.743654,1.826287,2.619122,2.4568,1.492632
81446,1645494308.262832,97.0,0.0,4352.820313,4232.820313,4237.436035,4278.974121,4309.230957,450.0,4.0,77.0,,,,0.0,4.0,4.0,2.0,0.0,4.0,50.0,,,,,,,,,,,,,,,,,,,,,,,,,,,,,,,,,,,,,,,,,,,,,,,,,,,,,,,,,,,,,,,,,,,,,,,,,,,,,,,,,,,,
81447,1645494308.270646,98.0,0.0,4346.153809,4231.282227000001,4226.153809,4278.974121,4305.128418,450.0,4.0,77.0,,,,0.0,4.0,4.0,2.0,0.0,4.0,50.0,,,,,,,,49.0,0.0,0.433963,-0.289551,0.614502,0.591797,0.885267,-0.466316,-0.08203300000000001,-0.035594,-0.038479,-0.012573,,,,,,,,,,,,,,,,,,,,,,,,,,,,,,,,,,,,,,,,,,,,,,,,,,,,,,,,,,,,,,,,,
81448,1645494308.27846,99.0,0.0,4330.769043,4209.230957,4234.871582,4279.487305,4327.692383,16214.0,4.0,77.0,,,,0.0,4.0,4.0,2.0,0.0,4.0,50.0,,,,,,,,,,,,,,,,,,,,,,,,,,,,,,,,,,,,,,,,,,,,,,,,,,,,,,,,,,,,,,,,,,,,,,,,,,,,,,,,,,,,
81449,1645494308.286274,100.0,0.0,4320.0,4177.94873,4236.410156,4279.487305,4338.974121,450.0,4.0,77.0,,,,0.0,4.0,4.0,2.0,0.0,4.0,50.0,,,,,,,,50.0,0.0,0.43397600000000003,-0.289551,0.614258,0.592041,0.885267,-0.47559300000000004,-0.076173,-0.035697,-0.038439999999999995,-0.016101,,,,,,,,,,,,,,,,,,,,,,,,,,,,,,,,,,,0.0,0.0,1.0,0.0,1.0,0.0,,,,,,,,,,,,,,,,,,,,,,,,,
81450,1645494308.2940881,101.0,0.0,4324.102539,4198.974121,4221.538574,4279.487305,4315.897461,450.0,4.0,77.0,,,,0.0,4.0,4.0,2.0,0.0,4.0,50.0,,,,,,,,,,,,,,,,,,,,,,,,,,,,,,,,,,,,,,,,,,,,,,,,,,,,,,,,,,,,,,,,,,,,,,,,,,,,,,,,,,,,
81451,1645494308.301903,102.0,0.0,4338.461426,4225.128418,4226.666504,4279.487305,4296.410156,450.0,4.0,77.0,,,,0.0,4.0,4.0,2.0,0.0,4.0,50.0,,,,,,,,51.0,0.0,0.43397600000000003,-0.289551,0.614258,0.592041,0.885756,-0.48340600000000006,-0.083986,-0.035824,-0.038421,-0.015981,,,,,,,,,,,,,,,,,,,,,,,,,,,,,,,,,,,,,,,,,,,,,,,,,,,,,,,,,,,,,,,,,
81452,1645494308.309717,103.0,0.0,4327.179688,4214.358886999999,4241.025879,4279.487305,4297.436035,16214.0,4.0,77.0,,,,0.0,4.0,4.0,2.0,0.0,4.0,50.0,,,,,,,,,,,,,,,,,,,,,,,,,,,,,,,,,,,,,,,,,,,,,,,,,,,,,,,,,,,,,,,,,,,,,,,,,,,,,,,,,,,,
81453,1645494308.317431,104.0,0.0,4311.794922,4224.615234000001,4237.436035,4279.487305,4304.102539,450.0,4.0,77.0,,,,0.0,4.0,4.0,2.0,0.0,4.0,50.0,,,,,,,,52.0,0.0,0.43397600000000003,-0.289551,0.614258,0.592041,0.8842909999999999,-0.488777,-0.072755,-0.035757,-0.038486,-0.019266,,,,,,,,,,,,,,,,,,,,,,,,,,,,,,,,,,,0.0,0.0,1.0,0.0,1.0,0.0,,,,,,,,,,,,,,,,,,,,,,,,,
81454,1645494308.325246,105.0,0.0,4347.179688,4267.179688,4236.922852000001,4279.487305,4316.922852000001,450.0,4.0,77.0,,,,0.0,4.0,4.0,2.0,0.0,4.0,50.0,,,,,,,,,,,,,,,,,,,,,,,,,,,,,,,,,,,,,,,,,,,,,,,,,,,,,,,,,,,,,,,,,,,,,,,,,,,,,,,,,,,,
81455,1645494308.333061,106.0,0.0,4374.871582,4262.563965,4237.436035,4279.487305,4336.922852000001,450.0,4.0,77.0,,,,0.0,4.0,4.0,2.0,0.0,4.0,50.0,,,,,,,,53.0,0.0,0.43397600000000003,-0.289551,0.614258,0.592041,0.879408,-0.484382,-0.069825,-0.035746,-0.038494,-0.015923,,,,,,,,,,,,,,,,,,,,,,,,,,,,,,,,,,,,,,,,,,,,,,,,,,,,,,,,,,,,,,,,,
81456,1645494308.340875,107.0,0.0,4351.282227000001,4196.922852000001,4230.256348,4279.487305,4330.256348,16214.0,4.0,77.0,,,,0.0,4.0,4.0,2.0,0.0,4.0,50.0,,,,,,,,,,,,,,,,,,,,,,,,,,,,,,,,,,,,,,,,,,,,,,,,,,,,,,,,,,,,,,,,,,,,,,,,,,,,,,,,,,,,
81457,1645494308.34869,108.0,0.0,4337.436035,4174.871582,4229.230957,4279.487305,4301.025879,450.0,4.0,77.0,,,,0.0,4.0,4.0,2.0,0.0,4.0,50.0,,,,,,,,54.0,0.0,0.43397600000000003,-0.289551,0.614258,0.592041,0.8838030000000001,-0.48340600000000006,-0.075685,-0.035687,-0.038405,-0.019214,,,,,,,,,,,,,,,,,,,,,,,,,,,,,,,,,,,0.0,0.0,1.0,0.0,1.0,0.0,,,,,,,,,,,,,,,,,,,,,,,,,
81458,1645494308.3565052,109.0,0.0,4340.512695,4201.025879,4228.717772999999,4279.487305,4291.282227000001,450.0,4.0,77.0,,,,0.0,4.0,4.0,2.0,0.0,4.0,50.0,,,,,,,,,,,,,,,,,,,,,,,,,,,,,,,,,,,,,,,,,,,,,,,,,,,,,,,,,,,,,,,,,,,,,,,,,,,,,,,,,,,,
81459,1645494308.3643188,110.0,0.0,4335.897461,4181.025879,4223.077147999999,4279.487305,4303.589844,450.0,4.0,77.0,,,,0.0,4.0,4.0,2.0,0.0,4.0,50.0,,,,,,,,55.0,0.0,0.43397600000000003,-0.289551,0.614258,0.592041,0.8813610000000001,-0.466804,-0.09033300000000001,-0.035634,-0.038324000000000004,-0.022175,,,,,,,,,,,,,,,,,,,,,,,,,,,,,,,,,,,,,,,,,,,,,,,,,,,,,,,,,,,,,,,,,
81460,1645494308.372134,111.0,0.0,4340.0,4138.974121,4226.666504,4279.487305,4314.871582,16214.0,4.0,77.0,,,,0.0,4.0,4.0,2.0,0.0,4.0,50.0,,,,,,,,,,,,,,,,,,,,,,,,,,,,,,,,,,,,,,,,,,,,,,,,,,,,,,,,,,,,,,,,,,,,,,,,,,,,,,,,,,,,
81461,1645494308.379949,112.0,0.0,4332.820313,4164.102539,4232.307617,4278.461426,4305.641113000001,450.0,4.0,77.0,,,,0.0,4.0,4.0,2.0,0.0,4.0,50.0,,,,,,,,56.0,0.0,0.43397600000000003,-0.289551,0.614258,0.592041,0.8989389999999999,-0.47363999999999995,-0.084962,-0.035684,-0.0383,-0.018542,1.0,0.0,0.0,,,,,,,,,,,,,,,,,,,,,,,,,,,,,,,,0.0,0.0,1.0,0.0,1.0,0.0,2.899525,2.747017,2.9352169999999997,2.385242,1.9569720000000002,55.652512,20.205641,11.837739,5.547884,3.479606,0.659519,0.9862709999999999,1.178784,0.45381800000000005,0.398227,0.013806,0.017809000000000002,0.0046619999999999995,0.007206000000000001,0.012903999999999999,1.401282,1.6595650000000002,2.264311,2.974447,1.599405
81462,1645494308.3876631,113.0,0.0,4311.794922,4222.05127,4232.307617,4278.461426,4287.179688,450.0,4.0,77.0,,,,0.0,4.0,4.0,2.0,0.0,4.0,50.0,,,,,,,,,,,,,,,,,,,,,,,,,,,,,,,,,,,,,,,,,,,,,,,,,,,,,,,,,,,,,,,,,,,,,,,,,,,,,,,,,,,,
81463,1645494308.395478,114.0,0.0,4323.077147999999,4231.794922,4224.615234000001,4279.487305,4290.256348,450.0,4.0,77.0,,,,0.0,4.0,4.0,2.0,0.0,4.0,50.0,,,,,,,,57.0,0.0,0.434309,-0.289551,0.614258,0.591797,0.89015,-0.482918,-0.081544,-0.03568,-0.038279,-0.015222999999999999,,,,,,,,,,,,,,,,,,,,,,,,,,,,,,,,,,,,,,,,,,,,,,,,,,,,,,,,,,,,,,,,,
81464,1645494308.403293,115.0,0.0,4338.461426,4201.025879,4215.384765999999,4279.487305,4305.128418,16214.0,4.0,77.0,,,,0.0,4.0,4.0,2.0,0.0,4.0,50.0,,,,,,,,,,,,,,,,,,,,,,,,,,,,,,,,,,,,,,,,,,,,,,,,,,,,,,,,,,,,,,,,,,,,,,,,,,,,,,,,,,,,
81465,1645494308.411107,116.0,0.0,4314.358886999999,4183.589844,4215.384765999999,4279.487305,4318.974121,450.0,4.0,77.0,,,,0.0,4.0,4.0,2.0,0.0,4.0,50.0,,,,,,,,58.0,0.0,0.433963,-0.289551,0.614502,0.591797,0.901869,-0.471199,-0.085451,-0.035579,-0.03826,-0.018534000000000002,,,,,,,,,,,,,,,,,,,,,,,,,,,,,,,,,,,0.0,0.0,1.0,0.0,1.0,0.0,,,,,,,,,,,,,,,,,,,,,,,,,
81466,1645494308.4189222,117.0,0.0,4304.102539,4204.615234000001,4229.230957,4280.0,4329.743652,450.0,4.0,77.0,,,,0.0,4.0,4.0,2.0,0.0,4.0,50.0,,,,,,,,,,,,,,,,,,,,,,,,,,,,,,,,,,,,,,,,,,,,,,,,,,,,,,,,,,,,,,,,,,,,,,,,,,,,,,,,,,,,
81467,1645494308.4267368,118.0,0.0,4334.358886999999,4223.589844,4235.384765999999,4279.487305,4318.974121,450.0,4.0,77.0,,,,0.0,4.0,4.0,2.0,0.0,4.0,50.0,,,,,,,,59.0,0.0,0.43395,-0.289551,0.614746,0.591553,0.8930799999999999,-0.480476,-0.076661,-0.035683,-0.038291000000000006,-0.021613,,,,,,,,,,,,,,,,,,,,,,,,,,,,,,,,,,,,,,,,,,,,,,,,,,,,,,,,,,,,,,,,,
81468,1645494308.434551,119.0,0.0,4349.743652,4218.461426,4225.641113000001,4279.487305,4296.922852000001,16214.0,4.0,77.0,,,,0.0,4.0,4.0,2.0,0.0,4.0,50.0,,,,,,,,,,,,,,,,,,,,,,,,,,,,,,,,,,,,,,,,,,,,,,,,,,,,,,,,,,,,,,,,,,,,,,,,,,,,,,,,,,,,
81469,1645494308.4423661,120.0,0.0,4317.94873,4201.538574,4218.974121,4280.0,4290.769043,450.0,4.0,77.0,,,,0.0,4.0,4.0,2.0,0.0,4.0,50.0,,,,,,,,60.0,0.0,0.43395,-0.289551,0.614746,0.591553,0.8803850000000001,-0.473152,-0.064454,-0.035631,-0.03832,-0.024285,,,,,,,,,,,,,,,,,,,,,,,,,,,,,,,,,,,0.0,0.0,1.0,0.0,1.0,0.0,,,,,,,,,,,,,,,,,,,,,,,,,
81470,1645494308.450081,121.0,0.0,4290.769043,4187.179688,4225.641113000001,4281.025879,4307.179688,450.0,4.0,77.0,,,,0.0,4.0,4.0,2.0,0.0,4.0,50.0,,,,,,,,,,,,,,,,,,,,,,,,,,,,,,,,,,,,,,,,,,,,,,,,,,,,,,,,,,,,,,,,,,,,,,,,,,,,,,,,,,,,
81471,1645494308.457896,122.0,0.0,4311.282227000001,4194.871582,4231.794922,4280.0,4314.358886999999,450.0,4.0,77.0,,,,0.0,4.0,4.0,2.0,0.0,4.0,50.0,,,,,,,,61.0,0.0,0.434113,-0.28930700000000004,0.614746,0.591553,0.8838030000000001,-0.47363999999999995,-0.078614,-0.035583,-0.038345,-0.026739999999999996,,,,,,,,,,,,,,,,,,,,,,,,,,,,,,,,,,,,,,,,,,,,,,,,,,,,,,,,,,,,,,,,,
81472,1645494308.4657109,123.0,0.0,4336.410156,4207.692383,4224.615234000001,4278.974121,4290.256348,16214.0,4.0,77.0,,,,0.0,4.0,4.0,2.0,0.0,4.0,50.0,,,,,,,,,,,,,,,,,,,,,,,,,,,,,,,,,,,,,,,,,,,,,,,,,,,,,,,,,,,,,,,,,,,,,,,,,,,,,,,,,,,,
81473,1645494308.473527,124.0,0.0,4333.846191,4237.94873,4211.282227000001,4278.974121,4271.282227000001,450.0,4.0,77.0,,,,0.0,4.0,4.0,2.0,0.0,4.0,50.0,,,,,,,,62.0,0.0,0.434113,-0.28930700000000004,0.614746,0.591553,0.8833139999999999,-0.471199,-0.07422000000000001,-0.035736000000000004,-0.03827,-0.028850999999999998,,,,,,,,,,,,,,,,,,,,,,,,,,,,,,,,,,,0.0,0.0,1.0,0.0,1.0,0.0,,,,,,,,,,,,,,,,,,,,,,,,,
81474,1645494308.481342,125.0,0.0,4335.384765999999,4306.666504,4213.846191,4280.0,4285.641113000001,450.0,4.0,77.0,,,,0.0,4.0,4.0,2.0,0.0,4.0,50.0,,,,,,,,,,,,,,,,,,,,,,,,,,,,,,,,,,,,,,,,,,,,,,,,,,,,,,,,,,,,,,,,,,,,,,,,,,,,,,,,,,,,
81475,1645494308.489157,126.0,0.0,4342.05127,4346.153809,4222.05127,4280.0,4310.769043,450.0,4.0,77.0,,,,0.0,4.0,4.0,2.0,0.0,4.0,50.0,,,,,,,,63.0,0.0,0.4341,-0.28930700000000004,0.6149899999999999,0.591309,0.8764780000000001,-0.48535900000000004,-0.06884900000000001,-0.035776,-0.038301,-0.0308,,,,,,,,,,,,,,,,,,,,,,,,,,,,,,,,,,,,,,,,,,,,,,,,,,,,,,,,,,,,,,,,,
81476,1645494308.496972,127.0,0.0,4334.871582,4323.589844,4223.077147999999,4278.974121,4298.461426,239.0,4.0,77.0,,,,0.0,4.0,4.0,2.0,0.0,4.0,50.0,,,,,,,,,,,,,,,,,,,,,,,,,,,,,,,,,,,,,,,,,,,,,,,,,,,,,,,,,,,,,,,,,,,,,,,,,,,,,,,,,,,,
81477,1645494308.504787,0.0,0.0,4317.94873,4292.307617,4221.025879,4279.487305,4258.461426,450.0,4.0,77.0,,,,0.0,4.0,4.0,2.0,0.0,4.0,50.0,0.972656,41.666668,4.0,3.0,2.0,0.0,4.0,0.0,0.0,0.434432,-0.28930700000000004,0.6149899999999999,0.591064,0.886244,-0.4795,-0.07470800000000001,-0.035762999999999996,-0.038377,-0.026304,1.0,0.0,0.0,,,,,,,,,,,,,,,,,,,,,,,,,,,,,,,,0.0,0.0,1.0,0.0,1.0,0.0,2.217618,2.438615,2.321829,2.115996,1.9531029999999998,46.821774,24.283495000000002,14.581064000000001,6.1823760000000005,3.610286,0.7015319999999999,1.1798899999999999,1.109029,0.454773,0.412034,0.012709,0.012944999999999998,0.003436,0.005358,0.010052,1.107054,1.463622,1.9458060000000001,3.550269,1.669066
81478,1645494308.5126019,1.0,0.0,4309.230957,4290.769043,4212.820313,4280.0,4248.205078,450.0,4.0,77.0,,,,0.0,4.0,4.0,2.0,0.0,4.0,50.0,,,,,,,,,,,,,,,,,,,,,,,,,,,,,,,,,,,,,,,,,,,,,,,,,,,,,,,,,,,,,,,,,,,,,,,,,,,,,,,,,,,,
81479,1645494308.520417,2.0,0.0,4312.307617,4316.922852000001,4204.615234000001,4279.487305,4269.230957,16222.0,4.0,77.0,,,,0.0,4.0,4.0,2.0,0.0,4.0,50.0,,,,,,,,1.0,0.0,0.434432,-0.28930700000000004,0.6149899999999999,0.591064,0.879408,-0.4795,-0.082521,-0.0358,-0.038299,-0.028508,,,,,,,,,,,,,,,,,,,,,,,,,,,,,,,,,,,,,,,,,,,,,,,,,,,,,,,,,,,,,,,,,
81480,1645494308.528132,3.0,0.0,4319.487305,4333.333496,4200.0,4278.461426,4275.897461,450.0,4.0,77.0,,,,0.0,4.0,4.0,4.0,0.0,4.0,66.666664,,,,,,,,,,,,,,,,,,,,,,,,,,,,,,,,,,,,,,,,,,,,,,,,,,,,,,,,,,,,,,,,,,,,,,,,,,,,,,,,,,,,
81481,1645494308.535947,4.0,0.0,4315.897461,4339.487305,4207.179688,4279.487305,4262.563965,16140.0,4.0,77.0,,,,0.0,4.0,4.0,4.0,0.0,4.0,66.666664,,,,,,,,2.0,0.0,0.434432,-0.28930700000000004,0.6149899999999999,0.591064,0.871107,-0.479988,-0.073732,-0.035814,-0.038117000000000005,-0.026075,,,,,,,,,,,,,,,,,,,,,,,,,,,,,,,,,,,0.0,0.0,1.0,0.0,1.0,0.0,,,,,,,,,,,,,,,,,,,,,,,,,
81482,1645494308.543761,5.0,0.0,4300.0,4353.846191,4218.974121,4280.0,4256.410156,450.0,4.0,77.0,,,,0.0,4.0,4.0,4.0,0.0,4.0,66.666664,,,,,,,,,,,,,,,,,,,,,,,,,,,,,,,,,,,,,,,,,,,,,,,,,,,,,,,,,,,,,,,,,,,,,,,,,,,,,,,,,,,,
81483,1645494308.551576,6.0,0.0,4282.05127,4353.846191,4221.025879,4279.487305,4243.077147999999,16082.0,4.0,77.0,,,,0.0,4.0,4.0,4.0,0.0,4.0,66.666664,,,,,,,,3.0,0.0,0.434778,-0.28930700000000004,0.614746,0.591064,0.8774549999999999,-0.47168699999999997,-0.095216,-0.035748,-0.038163,-0.028301,,,,,,,,,,,,,,,,,,,,,,,,,,,,,,,,,,,,,,,,,,,,,,,,,,,,,,,,,,,,,,,,,
81484,1645494308.559391,7.0,0.0,4271.794922,4334.358886999999,4215.384765999999,4279.487305,4229.230957,450.0,4.0,77.0,,,,0.0,4.0,4.0,4.0,0.0,4.0,66.666664,,,,,,,,,,,,,,,,,,,,,,,,,,,,,,,,,,,,,,,,,,,,,,,,,,,,,,,,,,,,,,,,,,,,,,,,,,,,,,,,,,,,
81485,1645494308.5672052,8.0,0.0,4278.461426,4340.512695,4213.846191,4280.0,4241.025879,450.0,4.0,77.0,,,,0.0,4.0,4.0,4.0,0.0,4.0,66.666664,,,,,,,,4.0,0.0,0.434778,-0.28930700000000004,0.614746,0.591064,0.877943,-0.461921,-0.076173,-0.035836,-0.038204,-0.030256,,,,,,,,,,,,,,,,,,,,,,,,,,,,,,,,,,,0.0,0.0,1.0,0.0,1.0,0.0,,,,,,,,,,,,,,,,,,,,,,,,,
81486,1645494308.5750198,9.0,0.0,4292.820313,4358.974121,4213.846191,4279.487305,4238.974121,0.0,4.0,77.0,,,,0.0,4.0,4.0,4.0,0.0,4.0,66.666664,,,,,,,,,,,,,,,,,,,,,,,,,,,,,,,,,,,,,,,,,,,,,,,,,,,,,,,,,,,,,,,,,,,,,,,,,,,,,,,,,,,,
81487,1645494308.582835,10.0,0.0,4292.820313,4354.871582,4208.205078,4279.487305,4222.05127,450.0,4.0,77.0,,,,0.0,4.0,4.0,4.0,0.0,4.0,66.666664,,,,,,,,5.0,0.0,0.434778,-0.28930700000000004,0.614746,0.591064,0.8921030000000001,-0.468757,-0.086427,-0.035914,-0.038095,-0.025863,,,,,,,,,,,,,,,,,,,,,,,,,,,,,,,,,,,,,,,,,,,,,,,,,,,,,,,,,,,,,,,,,
81488,1645494308.59055,11.0,0.0,4285.128418,4344.102539,4208.717772999999,4280.512695,4233.333496,16224.0,4.0,77.0,,,,0.0,4.0,4.0,4.0,0.0,4.0,66.666664,,,,,,,,,,,,,,,,,,,,,,,,,,,,,,,,,,,,,,,,,,,,,,,,,,,,,,,,,,,,,,,,,,,,,,,,,,,,,,,,,,,,
81489,1645494308.598365,12.0,0.0,4272.307617,4329.230957,4204.102539,4278.461426,4242.05127,450.0,4.0,77.0,,,,0.0,4.0,4.0,4.0,0.0,4.0,66.666664,,,,,,,,6.0,0.0,0.434778,-0.28930700000000004,0.614746,0.591064,0.8886850000000001,-0.47608100000000003,-0.08447400000000001,-0.035936,-0.038094,-0.028111,,,,,,,,,,,,,,,,,,,,,,,,,,,,,,,,,,,0.0,0.0,1.0,0.0,1.0,0.0,,,,,,,,,,,,,,,,,,,,,,,,,
81490,1645494308.6061802,13.0,0.0,4276.410156,4322.563965,4197.94873,4276.922852000001,4223.589844,450.0,4.0,77.0,,,,0.0,4.0,4.0,4.0,0.0,4.0,66.666664,,,,,,,,,,,,,,,,,,,,,,,,,,,,,,,,,,,,,,,,,,,,,,,,,,,,,,,,,,,,,,,,,,,,,,,,,,,,,,,,,,,,
81491,1645494308.6139948,14.0,0.0,4291.794922,4313.846191,4203.077147999999,4278.974121,4209.230957,450.0,4.0,77.0,,,,0.0,4.0,4.0,4.0,0.0,4.0,66.666664,,,,,,,,7.0,0.0,0.435123,-0.28930700000000004,0.614502,0.591064,0.889174,-0.47071,-0.071778,-0.035761,-0.038239999999999996,-0.030133999999999998,,,,,,,,,,,,,,,,,,,,,,,,,,,,,,,,,,,,,,,,,,,,,,,,,,,,,,,,,,,,,,,,,
81492,1645494308.62181,15.0,0.0,4285.128418,4283.077147999999,4212.307617,4279.487305,4217.436035,16224.0,4.0,77.0,,,,0.0,4.0,4.0,4.0,0.0,4.0,66.666664,,,,,,,,,,,,,,,,,,,,,,,,,,,,,,,,,,,,,,,,,,,,,,,,,,,,,,,,,,,,,,,,,,,,,,,,,,,,,,,,,,,,
81493,1645494308.629625,16.0,0.0,4287.179688,4302.563965,4219.487305,4278.974121,4229.743652,0.0,4.0,77.0,,,,0.0,4.0,4.0,4.0,0.0,4.0,66.666664,,,,,,,,8.0,0.0,0.435123,-0.28930700000000004,0.614502,0.591064,0.8896620000000001,-0.47901099999999996,-0.069337,-0.035749,-0.038273,-0.025754000000000003,1.0,0.0,0.0,,,,,,,,,,,,,,,,,,,,,,,,,,,,,,,,0.0,0.0,1.0,0.0,1.0,0.0,1.811274,2.036023,1.75442,1.931625,1.880314,43.223865999999994,28.141021999999996,17.241129,6.877208,3.8227550000000003,0.735812,1.3406719999999999,1.0763340000000001,0.46509700000000004,0.41274799999999995,0.011720999999999999,0.008877,0.002391,0.00427,0.00778,0.905982,1.273382,1.7071630000000002,3.9971,1.687701
81494,1645494308.63744,17.0,0.0,4309.230957,4366.666504,4223.589844,4280.0,4243.589844,0.0,4.0,77.0,,,,0.0,4.0,4.0,4.0,0.0,4.0,66.666664,,,,,,,,,,,,,,,,,,,,,,,,,,,,,,,,,,,,,,,,,,,,,,,,,,,,,,,,,,,,,,,,,,,,,,,,,,,,,,,,,,,,
81495,1645494308.645256,18.0,0.0,4294.358886999999,4371.282227000001,4217.94873,4280.512695,4239.487305,0.0,4.0,77.0,,,,0.0,4.0,4.0,4.0,0.0,4.0,66.666664,,,,,,,,9.0,0.0,0.434778,-0.28930700000000004,0.614746,0.591064,0.8833139999999999,-0.47559300000000004,-0.07422000000000001,-0.035788,-0.038303,-0.027963,,,,,,,,,,,,,,,,,,,,,,,,,,,,,,,,,,,,,,,,,,,,,,,,,,,,,,,,,,,,,,,,,
81496,1645494308.6530712,19.0,0.0,4267.179688,4353.333496,4213.846191,4279.487305,4216.410156,0.0,4.0,77.0,,,,0.0,4.0,4.0,4.0,0.0,4.0,66.666664,,,,,,,,,,,,,,,,,,,,,,,,,,,,,,,,,,,,,,,,,,,,,,,,,,,,,,,,,,,,,,,,,,,,,,,,,,,,,,,,,,,,
81497,1645494308.660786,20.0,0.0,4287.179688,4385.641113000001,4217.436035,4280.0,4222.563965,0.0,4.0,77.0,,,,0.0,4.0,4.0,4.0,0.0,4.0,66.666664,,,,,,,,10.0,0.0,0.434778,-0.28930700000000004,0.614746,0.591064,0.8886850000000001,-0.478523,-0.08203300000000001,-0.035822,-0.038135,-0.023750999999999998,,,,,,,,,,,,,,,,,,,,,,,,,,,,,,,,,,,0.0,0.0,1.0,0.0,1.0,0.0,,,,,,,,,,,,,,,,,,,,,,,,,
81498,1645494308.668602,21.0,0.0,4306.666504,4397.436035,4218.974121,4280.0,4248.205078,0.0,4.0,77.0,,,,0.0,4.0,4.0,4.0,0.0,4.0,66.666664,,,,,,,,,,,,,,,,,,,,,,,,,,,,,,,,,,,,,,,,,,,,,,,,,,,,,,,,,,,,,,,,,,,,,,,,,,,,,,,,,,,,
81499,1645494308.6764169,22.0,0.0,4292.820313,4348.717772999999,4218.461426,4279.487305,4248.205078,0.0,4.0,77.0,,,,0.0,4.0,4.0,4.0,0.0,4.0,66.666664,,,,,,,,11.0,0.0,0.434446,-0.28930700000000004,0.614746,0.591309,0.877943,-0.46582700000000005,-0.084962,-0.035756,-0.038179000000000005,-0.026258999999999998,,,,,,,,,,,,,,,,,,,,,,,,,,,,,,,,,,,,,,,,,,,,,,,,,,,,,,,,,,,,,,,,,
81500,1645494308.684232,23.0,0.0,4285.641113000001,4292.820313,4222.05127,4280.0,4226.153809,0.0,4.0,77.0,,,,0.0,4.0,4.0,4.0,0.0,4.0,66.666664,,,,,,,,,,,,,,,,,,,,,,,,,,,,,,,,,,,,,,,,,,,,,,,,,,,,,,,,,,,,,,,,,,,,,,,,,,,,,,,,,,,,
81501,1645494308.692048,24.0,0.0,4296.410156,4265.641113000001,4219.487305,4279.487305,4214.871582,0.0,4.0,77.0,,,,0.0,4.0,4.0,4.0,0.0,4.0,66.666664,,,,,,,,12.0,0.0,0.434778,-0.28930700000000004,0.614746,0.591064,0.8833139999999999,-0.47559300000000004,-0.07422000000000001,-0.035745,-0.038219,-0.022315,,,,,,,,,,,,,,,,,,,,,,,,,,,,,,,,,,,0.0,0.0,1.0,0.0,1.0,0.0,,,,,,,,,,,,,,,,,,,,,,,,,
81502,1645494308.6998632,25.0,0.0,4309.743652,4274.871582,4213.333496,4277.436035,4218.974121,0.0,4.0,77.0,,,,0.0,4.0,4.0,4.0,0.0,4.0,66.666664,,,,,,,,,,,,,,,,,,,,,,,,,,,,,,,,,,,,,,,,,,,,,,,,,,,,,,,,,,,,,,,,,,,,,,,,,,,,,,,,,,,,
81503,1645494308.7076778,26.0,0.0,4307.179688,4276.922852000001,4216.410156,4276.922852000001,4225.641113000001,0.0,4.0,77.0,,,,0.0,4.0,4.0,4.0,0.0,4.0,66.666664,,,,,,,,13.0,0.0,0.434446,-0.28930700000000004,0.614746,0.591309,0.877943,-0.46582700000000005,-0.084962,-0.035686,-0.038254,-0.024966,,,,,,,,,,,,,,,,,,,,,,,,,,,,,,,,,,,,,,,,,,,,,,,,,,,,,,,,,,,,,,,,,
81504,1645494308.715494,27.0,0.0,4289.230957,4258.974121,4220.0,4280.0,4229.743652,0.0,4.0,77.0,,,,0.0,4.0,4.0,4.0,0.0,4.0,66.666664,,,,,,,,,,,,,,,,,,,,,,,,,,,,,,,,,,,,,,,,,,,,,,,,,,,,,,,,,,,,,,,,,,,,,,,,,,,,,,,,,,,,
81505,1645494308.723309,28.0,0.0,4280.0,4267.692383,4211.282227000001,4281.025879,4217.94873,0.0,4.0,77.0,,,,0.0,4.0,4.0,4.0,0.0,4.0,66.666664,,,,,,,,14.0,0.0,0.434446,-0.28930700000000004,0.614746,0.591309,0.887709,-0.47022200000000003,-0.07470800000000001,-0.035682,-0.038286,-0.021151,,,,,,,,,,,,,,,,,,,,,,,,,,,,,,,,,,,0.0,0.0,1.0,0.0,1.0,0.0,,,,,,,,,,,,,,,,,,,,,,,,,
81506,1645494308.731124,29.0,0.0,4292.820313,4293.846191,4212.820313,4278.461426,4206.666504,0.0,4.0,77.0,,,,0.0,4.0,4.0,4.0,0.0,4.0,66.666664,,,,,,,,,,,,,,,,,,,,,,,,,,,,,,,,,,,,,,,,,,,,,,,,,,,,,,,,,,,,,,,,,,,,,,,,,,,,,,,,,,,,
81507,1645494308.73884,30.0,0.0,4306.666504,4307.692383,4227.179688,4278.461426,4221.025879,0.0,4.0,77.0,,,,0.0,4.0,4.0,4.0,0.0,4.0,66.666664,,,,,,,,15.0,0.0,0.434446,-0.28930700000000004,0.614746,0.591309,0.890639,-0.471199,-0.069337,-0.035726999999999995,-0.038314999999999995,-0.017718,,,,,,,,,,,,,,,,,,,,,,,,,,,,,,,,,,,,,,,,,,,,,,,,,,,,,,,,,,,,,,,,,
81508,1645494308.746655,31.0,0.0,4302.563965,4328.717772999999,4222.05127,4280.0,4236.922852000001,0.0,4.0,77.0,,,,0.0,4.0,4.0,4.0,0.0,4.0,66.666664,,,,,,,,,,,,,,,,,,,,,,,,,,,,,,,,,,,,,,,,,,,,,,,,,,,,,,,,,,,,,,,,,,,,,,,,,,,,,,,,,,,,
81509,1645494308.7544699,32.0,0.0,4290.256348,4337.436035,4206.666504,4280.0,4225.641113000001,0.0,4.0,77.0,,,,0.0,4.0,4.0,4.0,0.0,4.0,66.666664,,,,,,,,16.0,0.0,0.434446,-0.28930700000000004,0.614746,0.591309,0.886244,-0.473152,-0.078126,-0.035719,-0.038195,-0.020926,1.0,0.0,0.0,,,,,,,,,,,,,,,,,,,,,,,,,,,,,,,,0.0,0.0,1.0,0.0,1.0,0.0,1.7349900000000003,1.60992,1.370797,1.852671,1.7571330000000003,42.013042,31.090837,19.048147,7.441103,4.067106,0.764713,1.418086,1.0913389999999998,0.48495200000000005,0.399554,0.010626,0.006226,0.001663,0.003973,0.0063950000000000005,0.8358770000000001,1.130766,1.559205,4.180796,1.660432
81510,1645494308.762285,33.0,0.0,4308.205078,4302.563965,4212.307617,4279.487305,4215.384765999999,0.0,4.0,77.0,,,,0.0,4.0,4.0,4.0,0.0,4.0,66.666664,,,,,,,,,,,,,,,,,,,,,,,,,,,,,,,,,,,,,,,,,,,,,,,,,,,,,,,,,,,,,,,,,,,,,,,,,,,,,,,,,,,,
81511,1645494308.7701,34.0,0.0,4330.256348,4261.025879,4223.077147999999,4279.487305,4231.282227000001,0.0,4.0,77.0,,,,0.0,4.0,4.0,4.0,0.0,4.0,66.666664,,,,,,,,17.0,0.0,0.434446,-0.28930700000000004,0.614746,0.591309,0.897963,-0.486336,-0.07324299999999999,-0.035662,-0.038282,-0.023668,,,,,,,,,,,,,,,,,,,,,,,,,,,,,,,,,,,,,,,,,,,,,,,,,,,,,,,,,,,,,,,,,
81512,1645494308.777915,35.0,0.0,4311.794922,4247.179688,4216.410156,4278.461426,4236.410156,0.0,4.0,77.0,,,,0.0,4.0,4.0,4.0,0.0,4.0,66.666664,,,,,,,,,,,,,,,,,,,,,,,,,,,,,,,,,,,,,,,,,,,,,,,,,,,,,,,,,,,,,,,,,,,,,,,,,,,,,,,,,,,,
81513,1645494308.7857301,36.0,0.0,4287.179688,4276.410156,4212.820313,4278.461426,4223.077147999999,0.0,4.0,77.0,,,,0.0,4.0,4.0,4.0,0.0,4.0,66.666664,,,,,,,,18.0,0.0,0.434446,-0.28930700000000004,0.614746,0.591309,0.886244,-0.49073,-0.07910299999999999,-0.035661,-0.038262,-0.026086,,,,,,,,,,,,,,,,,,,,,,,,,,,,,,,,,,,0.0,0.0,1.0,0.0,1.0,0.0,,,,,,,,,,,,,,,,,,,,,,,,,
81514,1645494308.7935462,37.0,0.0,4275.897461,4314.871582,4212.820313,4278.974121,4215.384765999999,0.0,4.0,77.0,,,,0.0,4.0,4.0,4.0,0.0,4.0,66.666664,,,,,,,,,,,,,,,,,,,,,,,,,,,,,,,,,,,,,,,,,,,,,,,,,,,,,,,,,,,,,,,,,,,,,,,,,,,,,,,,,,,,
81515,1645494308.8013608,38.0,0.0,4284.102539,4306.666504,4213.846191,4278.461426,4214.871582,0.0,4.0,77.0,,,,0.0,4.0,4.0,4.0,0.0,4.0,66.666664,,,,,,,,19.0,0.0,0.434446,-0.28930700000000004,0.614746,0.591309,0.8803850000000001,-0.47657,-0.075196,-0.035658999999999996,-0.038293,-0.022012999999999998,,,,,,,,,,,,,,,,,,,,,,,,,,,,,,,,,,,,,,,,,,,,,,,,,,,,,,,,,,,,,,,,,
81516,1645494308.809176,39.0,0.0,4319.487305,4292.307617,4220.0,4279.487305,4225.641113000001,0.0,4.0,77.0,,,,0.0,4.0,4.0,4.0,0.0,4.0,66.666664,,,,,,,,,,,,,,,,,,,,,,,,,,,,,,,,,,,,,,,,,,,,,,,,,,,,,,,,,,,,,,,,,,,,,,,,,,,,,,,,,,,,
81517,1645494308.816891,40.0,0.0,4326.153809,4312.820313,4220.0,4280.512695,4234.358886999999,0.0,4.0,77.0,,,,0.0,4.0,4.0,4.0,0.0,4.0,66.666664,,,,,,,,20.0,0.0,0.434446,-0.28930700000000004,0.614746,0.591309,0.8842909999999999,-0.496101,-0.067872,-0.035608999999999995,-0.03837,-0.024597,,,,,,,,,,,,,,,,,,,,,,,,,,,,,,,,,,,0.0,0.0,1.0,0.0,1.0,0.0,,,,,,,,,,,,,,,,,,,,,,,,,
81518,1645494308.8247051,41.0,0.0,4296.410156,4310.256348,4215.897461,4281.025879,4225.128418,0.0,4.0,77.0,,,,0.0,4.0,4.0,4.0,0.0,4.0,66.666664,,,,,,,,,,,,,,,,,,,,,,,,,,,,,,,,,,,,,,,,,,,,,,,,,,,,,,,,,,,,,,,,,,,,,,,,,,,,,,,,,,,,
81519,1645494308.83252,42.0,0.0,4304.615234000001,4266.666504,4220.512695,4278.974121,4217.436035,0.0,4.0,77.0,,,,0.0,4.0,4.0,4.0,0.0,4.0,66.666664,,,,,,,,21.0,0.0,0.434446,-0.28930700000000004,0.614746,0.591309,0.8764780000000001,-0.475105,-0.075685,-0.035710000000000006,-0.038293,-0.026922,,,,,,,,,,,,,,,,,,,,,,,,,,,,,,,,,,,,,,,,,,,,,,,,,,,,,,,,,,,,,,,,,
81520,1645494308.840334,43.0,0.0,4329.743652,4272.307617,4226.666504,4278.461426,4217.436035,0.0,4.0,77.0,,,,0.0,4.0,4.0,4.0,0.0,4.0,66.666664,,,,,,,,,,,,,,,,,,,,,,,,,,,,,,,,,,,,,,,,,,,,,,,,,,,,,,,,,,,,,,,,,,,,,,,,,,,,,,,,,,,,
81521,1645494308.848149,44.0,0.0,4314.871582,4318.974121,4222.563965,4280.0,4220.0,0.0,4.0,77.0,,,,0.0,4.0,4.0,4.0,0.0,4.0,66.666664,,,,,,,,22.0,0.0,0.434446,-0.28930700000000004,0.614746,0.591309,0.878431,-0.466804,-0.073732,-0.035557,-0.038321,-0.029162,,,,,,,,,,,,,,,,,,,,,,,,,,,,,,,,,,,0.0,0.0,1.0,0.0,1.0,0.0,,,,,,,,,,,,,,,,,,,,,,,,,
81522,1645494308.855964,45.0,0.0,4315.897461,4344.615234000001,4215.897461,4281.025879,4234.871582,0.0,4.0,77.0,,,,0.0,4.0,4.0,4.0,0.0,4.0,66.666664,,,,,,,,,,,,,,,,,,,,,,,,,,,,,,,,,,,,,,,,,,,,,,,,,,,,,,,,,,,,,,,,,,,,,,,,,,,,,,,,,,,,
81523,1645494308.8637779,46.0,0.0,4336.410156,4349.743652,4213.846191,4278.974121,4236.922852000001,0.0,4.0,77.0,,,,0.0,4.0,4.0,4.0,0.0,4.0,66.666664,,,,,,,,23.0,0.0,0.434446,-0.28930700000000004,0.614746,0.591309,0.873549,-0.48389399999999994,-0.065919,-0.035517,-0.038395,-0.031031,,,,,,,,,,,,,,,,,,,,,,,,,,,,,,,,,,,,,,,,,,,,,,,,,,,,,,,,,,,,,,,,,
81524,1645494308.871593,47.0,0.0,4313.846191,4340.512695,4219.487305,4278.461426,4211.282227000001,0.0,4.0,77.0,,,,0.0,4.0,4.0,4.0,0.0,4.0,66.666664,,,,,,,,,,,,,,,,,,,,,,,,,,,,,,,,,,,,,,,,,,,,,,,,,,,,,,,,,,,,,,,,,,,,,,,,,,,,,,,,,,,,
81525,1645494308.879308,48.0,0.0,4296.410156,4351.282227000001,4223.077147999999,4279.487305,4214.358886999999,0.0,4.0,77.0,,,,0.0,4.0,4.0,4.0,0.0,4.0,66.666664,,,,,,,,24.0,0.0,0.43462799999999996,-0.289551,0.614502,0.591309,0.8774549999999999,-0.47803500000000004,-0.07422000000000001,-0.03553,-0.038462,-0.026512,1.0,0.0,0.0,,,,,,,,,,,,,,,,,,,,,,,,,,,,,,,,0.0,0.0,1.0,0.0,1.0,0.0,2.011386,1.247547,1.192425,1.870757,1.631506,40.628559,32.591128999999995,19.382099,7.767663000000001,4.2450410000000005,0.785193,1.385214,1.132693,0.5081939999999999,0.375413,0.009097,0.004924,0.001268,0.00411,0.005723,0.9257780000000001,1.046729,1.4753319999999999,4.075786,1.614047
81526,1645494308.887123,49.0,0.0,4312.307617,4372.307617,4221.538574,4280.0,4247.692383,0.0,4.0,77.0,,,,0.0,4.0,4.0,4.0,0.0,4.0,66.666664,,,,,,,,,,,,,,,,,,,,,,,,,,,,,,,,,,,,,,,,,,,,,,,,,,,,,,,,,,,,,,,,,,,,,,,,,,,,,,,,,,,,
81527,1645494308.894939,50.0,0.0,4321.538574,4358.974121,4226.153809,4281.025879,4247.692383,0.0,4.0,77.0,,,,0.0,4.0,4.0,4.0,0.0,4.0,66.666664,,,,,,,,25.0,0.0,0.43462799999999996,-0.289551,0.614502,0.591309,0.870619,-0.477058,-0.079591,-0.03559,-0.038473,-0.022396,,,,,,,,,,,,,,,,,,,,,,,,,,,,,,,,,,,,,,,,,,,,,,,,,,,,,,,,,,,,,,,,,
81528,1645494308.9027538,51.0,0.0,4321.538574,4321.025879,4233.846191,4280.0,4227.179688,0.0,4.0,77.0,,,,0.0,4.0,4.0,4.0,0.0,4.0,66.666664,,,,,,,,,,,,,,,,,,,,,,,,,,,,,,,,,,,,,,,,,,,,,,,,,,,,,,,,,,,,,,,,,,,,,,,,,,,,,,,,,,,,
81529,1645494308.910569,52.0,0.0,4319.487305,4311.282227000001,4225.128418,4276.922852000001,4223.077147999999,0.0,4.0,77.0,,,,0.0,4.0,4.0,4.0,0.0,4.0,66.666664,,,,,,,,26.0,0.0,0.43462799999999996,-0.289551,0.614502,0.591309,0.875502,-0.46778100000000006,-0.065919,-0.035595999999999996,-0.038435000000000004,-0.025039,,,,,,,,,,,,,,,,,,,,,,,,,,,,,,,,,,,0.0,0.0,1.0,0.0,1.0,0.0,,,,,,,,,,,,,,,,,,,,,,,,,
81530,1645494308.918384,53.0,0.0,4314.358886999999,4351.794922,4215.897461,4278.461426,4223.589844,0.0,4.0,77.0,,,,0.0,4.0,4.0,4.0,0.0,4.0,66.666664,,,,,,,,,,,,,,,,,,,,,,,,,,,,,,,,,,,,,,,,,,,,,,,,,,,,,,,,,,,,,,,,,,,,,,,,,,,,,,,,,,,,
81531,1645494308.926199,54.0,0.0,4307.179688,4383.077147999999,4227.179688,4283.077147999999,4227.692383,0.0,4.0,77.0,,,,0.0,4.0,4.0,4.0,0.0,4.0,66.666664,,,,,,,,27.0,0.0,0.43513599999999997,-0.28930700000000004,0.614258,0.591309,0.869642,-0.47901099999999996,-0.07128999999999999,-0.03565,-0.038449000000000004,-0.021168,,,,,,,,,,,,,,,,,,,,,,,,,,,,,,,,,,,,,,,,,,,,,,,,,,,,,,,,,,,,,,,,,
81532,1645494308.934014,55.0,0.0,4309.743652,4360.0,4227.179688,4284.615234000001,4228.717772999999,0.0,4.0,77.0,,,,0.0,4.0,4.0,4.0,0.0,4.0,66.666664,,,,,,,,,,,,,,,,,,,,,,,,,,,,,,,,,,,,,,,,,,,,,,,,,,,,,,,,,,,,,,,,,,,,,,,,,,,,,,,,,,,,
81533,1645494308.941829,56.0,0.0,4306.666504,4322.05127,4208.717772999999,4283.589844,4207.179688,0.0,4.0,77.0,,,,0.0,4.0,4.0,4.0,0.0,4.0,66.666664,,,,,,,,28.0,0.0,0.43513599999999997,-0.28930700000000004,0.614258,0.591309,0.897963,-0.467292,-0.08691499999999999,-0.035551,-0.038363999999999995,-0.024031999999999998,,,,,,,,,,,,,,,,,,,,,,,,,,,,,,,,,,,0.0,0.0,1.0,0.0,1.0,0.0,,,,,,,,,,,,,,,,,,,,,,,,,
81534,1645494308.949545,57.0,0.0,4294.358886999999,4338.974121,4213.846191,4284.102539,4192.307617,0.0,4.0,77.0,,,,0.0,4.0,4.0,4.0,0.0,4.0,66.666664,,,,,,,,,,,,,,,,,,,,,,,,,,,,,,,,,,,,,,,,,,,,,,,,,,,,,,,,,,,,,,,,,,,,,,,,,,,,,,,,,,,,
81535,1645494308.95736,58.0,0.0,4290.769043,4357.94873,4229.743652,4283.589844,4208.717772999999,0.0,4.0,77.0,,,,0.0,4.0,4.0,4.0,0.0,4.0,66.666664,,,,,,,,29.0,0.0,0.435467,-0.28930700000000004,0.614258,0.591064,0.885756,-0.474617,-0.069825,-0.035512,-0.038433999999999996,-0.020261,,,,,,,,,,,,,,,,,,,,,,,,,,,,,,,,,,,,,,,,,,,,,,,,,,,,,,,,,,,,,,,,,
81536,1645494308.965175,59.0,0.0,4302.563965,4312.820313,4223.077147999999,4284.615234000001,4221.538574,0.0,4.0,77.0,,,,0.0,4.0,4.0,4.0,0.0,4.0,66.666664,,,,,,,,,,,,,,,,,,,,,,,,,,,,,,,,,,,,,,,,,,,,,,,,,,,,,,,,,,,,,,,,,,,,,,,,,,,,,,,,,,,,
81537,1645494308.972991,60.0,0.0,4318.974121,4300.512695,4212.307617,4284.102539,4200.0,0.0,4.0,77.0,,,,0.0,4.0,4.0,4.0,0.0,4.0,66.666664,,,,,,,,30.0,0.0,0.435467,-0.28930700000000004,0.614258,0.591064,0.8872209999999999,-0.47168699999999997,-0.075196,-0.035476,-0.038399,-0.023069,,,,,,,,,,,,,,,,,,,,,,,,,,,,,,,,,,,0.0,0.0,1.0,0.0,1.0,0.0,,,,,,,,,,,,,,,,,,,,,,,,,
81538,1645494308.980806,61.0,0.0,4313.333496,4338.461426,4214.358886999999,4280.0,4183.077147999999,0.0,4.0,77.0,,,,0.0,4.0,4.0,4.0,0.0,4.0,66.666664,,,,,,,,,,,,,,,,,,,,,,,,,,,,,,,,,,,,,,,,,,,,,,,,,,,,,,,,,,,,,,,,,,,,,,,,,,,,,,,,,,,,
81539,1645494308.9886222,62.0,0.0,4305.128418,4322.563965,4215.897461,4278.461426,4195.384765999999,0.0,4.0,77.0,,,,0.0,4.0,4.0,4.0,0.0,4.0,66.666664,,,,,,,,31.0,0.0,0.435467,-0.28930700000000004,0.614258,0.591064,0.872084,-0.480476,-0.078126,-0.035493000000000004,-0.038465,-0.025644999999999998,,,,,,,,,,,,,,,,,,,,,,,,,,,,,,,,,,,,,,,,,,,,,,,,,,,,,,,,,,,,,,,,,
81540,1645494308.9964368,63.0,0.0,4297.94873,4271.794922,4203.589844,4280.512695,4197.94873,0.0,4.0,77.0,,,,0.0,4.0,4.0,4.0,0.0,4.0,66.666664,,,,,,,,,,,,,,,,,,,,,,,,,,,,,,,,,,,,,,,,,,,,,,,,,,,,,,,,,,,,,,,,,,,,,,,,,,,,,,,,,,,,
81541,1645494309.004252,64.0,0.0,4283.589844,4264.102539,4198.461426,4280.512695,4179.487305,450.0,4.0,77.0,,,,0.0,4.0,4.0,4.0,0.0,4.0,66.666664,0.972656,41.666668,4.0,3.0,2.0,0.0,4.0,32.0,0.0,0.435467,-0.28930700000000004,0.614258,0.591064,0.8916149999999999,-0.46582700000000005,-0.092775,-0.035411,-0.03833,-0.021665,1.0,0.0,0.0,,,,,,,,,,,,,,,,,,,,,,,,,,,,,,,,0.0,0.0,1.0,0.0,1.0,0.0,2.577296,1.0084469999999999,1.160435,1.949946,1.553825,37.469139,32.621925,18.336548,7.818352,4.2791809999999995,0.789783,1.2487409999999999,1.151098,0.526463,0.345546,0.007240000000000001,0.004593,0.001189,0.004256,0.005377000000000001,1.198525,1.002098,1.415189,3.7446309999999996,1.5733270000000001
81542,1645494309.012068,65.0,0.0,4292.820313,4281.538574,4203.589844,4278.974121,4191.282227000001,450.0,4.0,77.0,,,,0.0,4.0,4.0,4.0,0.0,4.0,66.666664,,,,,,,,,,,,,,,,,,,,,,,,,,,,,,,,,,,,,,,,,,,,,,,,,,,,,,,,,,,,,,,,,,,,,,,,,,,,,,,,,,,,
81543,1645494309.019883,66.0,0.0,4312.820313,4270.256348,4208.205078,4280.0,4211.282227000001,16212.0,4.0,77.0,,,,0.0,4.0,4.0,4.0,0.0,4.0,66.666664,,,,,,,,33.0,0.0,0.43513599999999997,-0.28930700000000004,0.614258,0.591309,0.89015,-0.46973400000000004,-0.07470800000000001,-0.035434,-0.038354,-0.01818,,,,,,,,,,,,,,,,,,,,,,,,,,,,,,,,,,,,,,,,,,,,,,,,,,,,,,,,,,,,,,,,,
81544,1645494309.0275981,67.0,0.0,4297.94873,4258.974121,4205.128418,4278.974121,4190.769043,450.0,4.0,77.0,,,,0.0,4.0,4.0,4.0,0.0,4.0,66.666664,,,,,,,,,,,,,,,,,,,,,,,,,,,,,,,,,,,,,,,,,,,,,,,,,,,,,,,,,,,,,,,,,,,,,,,,,,,,,,,,,,,,
81545,1645494309.035413,68.0,0.0,4268.205078,4292.820313,4208.717772999999,4276.922852000001,4166.666504,16139.0,4.0,77.0,,,,0.0,4.0,4.0,4.0,0.0,4.0,66.666664,,,,,,,,34.0,0.0,0.43513599999999997,-0.28930700000000004,0.614258,0.591309,0.8833139999999999,-0.48096400000000006,-0.082521,-0.035309,-0.038279,-0.014995,,,,,,,,,,,,,,,,,,,,,,,,,,,,,,,,,,,0.0,0.0,1.0,0.0,1.0,0.0,,,,,,,,,,,,,,,,,,,,,,,,,
81546,1645494309.043228,69.0,0.0,4271.794922,4350.769043,4206.153809,4277.436035,4152.820313,450.0,4.0,77.0,,,,0.0,4.0,4.0,4.0,0.0,4.0,66.666664,,,,,,,,,,,,,,,,,,,,,,,,,,,,,,,,,,,,,,,,,,,,,,,,,,,,,,,,,,,,,,,,,,,,,,,,,,,,,,,,,,,,
81547,1645494309.050943,70.0,0.0,4288.205078,4353.333496,4193.846191,4280.0,4133.846191,16058.0,4.0,77.0,,,,0.0,4.0,4.0,4.0,0.0,4.0,66.666664,,,,,,,,35.0,0.0,0.43548000000000003,-0.28930700000000004,0.6140140000000001,0.591309,0.9052870000000001,-0.47071,-0.076661,-0.035342,-0.038357,-0.018134,,,,,,,,,,,,,,,,,,,,,,,,,,,,,,,,,,,,,,,,,,,,,,,,,,,,,,,,,,,,,,,,,
81548,1645494309.058758,71.0,0.0,4271.282227000001,4309.743652,4188.205078,4281.538574,4130.769043,450.0,4.0,77.0,,,,0.0,4.0,4.0,4.0,0.0,4.0,66.666664,,,,,,,,,,,,,,,,,,,,,,,,,,,,,,,,,,,,,,,,,,,,,,,,,,,,,,,,,,,,,,,,,,,,,,,,,,,,,,,,,,,,
81549,1645494309.0665731,72.0,0.0,4238.461426,4300.512695,4188.717772999999,4277.436035,4134.358886999999,450.0,4.0,77.0,,,,0.0,4.0,4.0,4.0,0.0,4.0,66.666664,,,,,,,,36.0,0.0,0.43548000000000003,-0.28930700000000004,0.6140140000000001,0.591309,0.8886850000000001,-0.472175,-0.07470800000000001,-0.035422,-0.03833,-0.014953,,,,,,,,,,,,,,,,,,,,,,,,,,,,,,,,,,,0.0,0.0,1.0,0.0,1.0,0.0,,,,,,,,,,,,,,,,,,,,,,,,,
81550,1645494309.074388,73.0,0.0,4247.179688,4315.897461,4197.436035,4273.333496,4116.410156,0.0,4.0,77.0,,,,0.0,4.0,4.0,4.0,0.0,4.0,66.666664,,,,,,,,,,,,,,,,,,,,,,,,,,,,,,,,,,,,,,,,,,,,,,,,,,,,,,,,,,,,,,,,,,,,,,,,,,,,,,,,,,,,
81551,1645494309.082203,74.0,0.0,4282.05127,4315.897461,4198.974121,4278.974121,4104.102539,450.0,4.0,77.0,,,,0.0,4.0,4.0,4.0,0.0,4.0,66.666664,,,,,,,,37.0,0.0,0.43531800000000004,-0.289551,0.6140140000000001,0.591309,0.882338,-0.482918,-0.07715,-0.035345999999999995,-0.038257,-0.012237,,,,,,,,,,,,,,,,,,,,,,,,,,,,,,,,,,,,,,,,,,,,,,,,,,,,,,,,,,,,,,,,,
81552,1645494309.090018,75.0,0.0,4272.820313,4305.128418,4184.102539,4281.538574,4111.282227000001,16219.0,4.0,77.0,,,,0.0,4.0,4.0,4.0,0.0,4.0,66.666664,,,,,,,,,,,,,,,,,,,,,,,,,,,,,,,,,,,,,,,,,,,,,,,,,,,,,,,,,,,,,,,,,,,,,,,,,,,,,,,,,,,,
81553,1645494309.097733,76.0,0.0,4245.641113000001,4286.666504,4184.102539,4271.282227000001,4102.05127,450.0,4.0,77.0,,,,0.0,4.0,4.0,4.0,0.0,4.0,66.666664,,,,,,,,38.0,0.0,0.4355,-0.28979499999999997,0.6137699999999999,0.591309,0.890639,-0.475105,-0.07324299999999999,-0.035376,-0.038338,-0.015652000000000003,,,,,,,,,,,,,,,,,,,,,,,,,,,,,,,,,,,0.0,0.0,1.0,0.0,1.0,0.0,,,,,,,,,,,,,,,,,,,,,,,,,
81554,1645494309.105549,77.0,0.0,4251.794922,4264.102539,4194.358886999999,4267.692383,4102.05127,450.0,4.0,77.0,,,,0.0,4.0,4.0,4.0,0.0,4.0,66.666664,,,,,,,,,,,,,,,,,,,,,,,,,,,,,,,,,,,,,,,,,,,,,,,,,,,,,,,,,,,,,,,,,,,,,,,,,,,,,,,,,,,,
81555,1645494309.113364,78.0,0.0,4257.436035,4255.897461,4184.615234000001,4277.94873,4132.820313,450.0,4.0,77.0,,,,0.0,4.0,4.0,4.0,0.0,4.0,66.666664,,,,,,,,39.0,0.0,0.43535,-0.290039,0.613525,0.591553,0.885756,-0.46582700000000005,-0.071778,-0.035305,-0.038361,-0.018921,,,,,,,,,,,,,,,,,,,,,,,,,,,,,,,,,,,,,,,,,,,,,,,,,,,,,,,,,,,,,,,,,
81556,1645494309.1211789,79.0,0.0,4259.487305,4255.384765999999,4182.563965,4282.05127,4132.307617,16219.0,4.0,77.0,,,,0.0,4.0,4.0,4.0,0.0,4.0,66.666664,,,,,,,,,,,,,,,,,,,,,,,,,,,,,,,,,,,,,,,,,,,,,,,,,,,,,,,,,,,,,,,,,,,,,,,,,,,,,,,,,,,,
81557,1645494309.128995,80.0,0.0,4266.153809,4272.820313,4196.410156,4280.0,4090.256348,450.0,4.0,77.0,,,,0.0,4.0,4.0,4.0,0.0,4.0,66.666664,,,,,,,,40.0,0.0,0.43531800000000004,-0.289551,0.6140140000000001,0.591309,0.882338,-0.482918,-0.07715,-0.035388,-0.038383,-0.021961,1.0,0.0,0.0,,,,,,,,,,,,,,,,,,,,,,,,,,,,,,,,0.0,0.0,1.0,0.0,1.0,0.0,3.276145,0.9131819999999999,1.200379,2.043257,1.546168,32.38002,31.578413,16.789932,7.630758,4.1598559999999996,0.7796890000000001,1.049604,1.1059860000000001,0.531788,0.31543899999999997,0.0058,0.005064,0.001449,0.004285,0.005175,1.5930950000000001,0.980158,1.3510659999999999,3.2962629999999997,1.5561909999999999
81558,1645494309.13681,81.0,0.0,4243.589844,4289.743652,4192.307617,4280.512695,4072.3076170000004,450.0,4.0,77.0,,,,0.0,4.0,4.0,4.0,0.0,4.0,66.666664,,,,,,,,,,,,,,,,,,,,,,,,,,,,,,,,,,,,,,,,,,,,,,,,,,,,,,,,,,,,,,,,,,,,,,,,,,,,,,,,,,,,
81559,1645494309.144625,82.0,0.0,4234.871582,4282.05127,4180.0,4281.025879,4088.205078,450.0,4.0,77.0,,,,0.0,4.0,4.0,4.0,0.0,4.0,66.666664,,,,,,,,41.0,0.0,0.43535,-0.290039,0.613525,0.591553,0.885756,-0.46582700000000005,-0.071778,-0.035316,-0.038402,-0.024599,,,,,,,,,,,,,,,,,,,,,,,,,,,,,,,,,,,,,,,,,,,,,,,,,,,,,,,,,,,,,,,,,
81560,1645494309.152441,83.0,0.0,4255.897461,4259.487305,4177.436035,4281.538574,4098.974121,16219.0,4.0,77.0,,,,0.0,4.0,4.0,4.0,0.0,4.0,66.666664,,,,,,,,,,,,,,,,,,,,,,,,,,,,,,,,,,,,,,,,,,,,,,,,,,,,,,,,,,,,,,,,,,,,,,,,,,,,,,,,,,,,
81561,1645494309.1602561,84.0,0.0,4233.333496,4228.205078,4180.512695,4280.512695,4086.6667479999996,450.0,4.0,77.0,,,,0.0,4.0,4.0,4.0,0.0,4.0,66.666664,,,,,,,,42.0,0.0,0.435187,-0.290283,0.613525,0.591553,0.8964979999999999,-0.46338599999999996,-0.085451,-0.035349,-0.038419,-0.020723,,,,,,,,,,,,,,,,,,,,,,,,,,,,,,,,,,,0.0,0.0,1.0,0.0,1.0,0.0,,,,,,,,,,,,,,,,,,,,,,,,,
81562,1645494309.168072,85.0,0.0,4215.897461,4248.717772999999,4195.384765999999,4277.436035,4073.8461909999996,450.0,4.0,77.0,,,,0.0,4.0,4.0,4.0,0.0,4.0,66.666664,,,,,,,,,,,,,,,,,,,,,,,,,,,,,,,,,,,,,,,,,,,,,,,,,,,,,,,,,,,,,,,,,,,,,,,,,,,,,,,,,,,,
81563,1645494309.175787,86.0,0.0,4246.666504,4280.0,4201.025879,4277.94873,4086.1538090000004,450.0,4.0,77.0,,,,0.0,4.0,4.0,4.0,0.0,4.0,66.666664,,,,,,,,43.0,0.0,0.435187,-0.290283,0.613525,0.591553,0.895033,-0.46778100000000006,-0.09424,-0.03533,-0.038386,-0.023582,,,,,,,,,,,,,,,,,,,,,,,,,,,,,,,,,,,,,,,,,,,,,,,,,,,,,,,,,,,,,,,,,
81564,1645494309.1836019,87.0,0.0,4252.307617,4252.307617,4182.05127,4276.922852000001,4091.281982,16219.0,4.0,77.0,,,,0.0,4.0,4.0,4.0,0.0,4.0,66.666664,,,,,,,,,,,,,,,,,,,,,,,,,,,,,,,,,,,,,,,,,,,,,,,,,,,,,,,,,,,,,,,,,,,,,,,,,,,,,,,,,,,,
81565,1645494309.191417,88.0,0.0,4228.717772999999,4205.128418,4167.692383,4271.282227000001,4056.923096,450.0,4.0,77.0,,,,0.0,4.0,4.0,4.0,0.0,4.0,66.666664,,,,,,,,44.0,0.0,0.434692,-0.290527,0.613525,0.591797,0.891127,-0.484382,-0.081544,-0.035313,-0.038258,-0.019857,,,,,,,,,,,,,,,,,,,,,,,,,,,,,,,,,,,0.0,0.0,1.0,0.0,1.0,0.0,,,,,,,,,,,,,,,,,,,,,,,,,
81566,1645494309.199232,89.0,0.0,4218.974121,4197.94873,4170.256348,4273.333496,4032.3076170000004,450.0,4.0,77.0,,,,0.0,4.0,4.0,4.0,0.0,4.0,66.666664,,,,,,,,,,,,,,,,,,,,,,,,,,,,,,,,,,,,,,,,,,,,,,,,,,,,,,,,,,,,,,,,,,,,,,,,,,,,,,,,,,,,
81567,1645494309.207047,90.0,0.0,4214.871582,4240.512695,4177.436035,4281.538574,4039.487061,450.0,4.0,77.0,,,,0.0,4.0,4.0,4.0,0.0,4.0,66.666664,,,,,,,,45.0,0.0,0.434692,-0.290527,0.613525,0.591797,0.8774549999999999,-0.474128,-0.083009,-0.035297,-0.038436,-0.022803,,,,,,,,,,,,,,,,,,,,,,,,,,,,,,,,,,,,,,,,,,,,,,,,,,,,,,,,,,,,,,,,,
81568,1645494309.2148619,91.0,0.0,4213.846191,4292.820313,4183.077147999999,4280.0,4030.7692869999996,16219.0,4.0,77.0,,,,0.0,4.0,4.0,4.0,0.0,4.0,66.666664,,,,,,,,,,,,,,,,,,,,,,,,,,,,,,,,,,,,,,,,,,,,,,,,,,,,,,,,,,,,,,,,,,,,,,,,,,,,,,,,,,,,
81569,1645494309.222678,92.0,0.0,4215.897461,4310.769043,4182.05127,4272.307617,4005.641113,450.0,4.0,77.0,,,,0.0,4.0,4.0,4.0,0.0,4.0,66.666664,,,,,,,,46.0,0.0,0.434842,-0.290283,0.6137699999999999,0.591553,0.877943,-0.486336,-0.080079,-0.035283,-0.038401,-0.025308,,,,,,,,,,,,,,,,,,,,,,,,,,,,,,,,,,,0.0,0.0,1.0,0.0,1.0,0.0,,,,,,,,,,,,,,,,,,,,,,,,,
81570,1645494309.230493,93.0,0.0,4200.0,4283.589844,4166.666504,4271.282227000001,3983.076904,450.0,4.0,77.0,,,,0.0,4.0,4.0,4.0,0.0,4.0,66.666664,,,,,,,,,,,,,,,,,,,,,,,,,,,,,,,,,,,,,,,,,,,,,,,,,,,,,,,,,,,,,,,,,,,,,,,,,,,,,,,,,,,,
81571,1645494309.238308,94.0,0.0,4190.256348,4269.230957,4157.436035,4273.333496,3989.2307130000004,450.0,4.0,77.0,,,,0.0,4.0,4.0,4.0,0.0,4.0,66.666664,,,,,,,,47.0,0.0,0.434842,-0.290283,0.6137699999999999,0.591553,0.889174,-0.48145299999999996,-0.065919,-0.035269999999999996,-0.038321,-0.021459,,,,,,,,,,,,,,,,,,,,,,,,,,,,,,,,,,,,,,,,,,,,,,,,,,,,,,,,,,,,,,,,,
81572,1645494309.246123,95.0,0.0,4213.333496,4290.769043,4164.102539,4272.307617,4017.9487299999996,16219.0,4.0,77.0,,,,0.0,4.0,4.0,4.0,0.0,4.0,66.666664,,,,,,,,,,,,,,,,,,,,,,,,,,,,,,,,,,,,,,,,,,,,,,,,,,,,,,,,,,,,,,,,,,,,,,,,,,,,,,,,,,,,
81573,1645494309.253838,96.0,0.0,4220.512695,4330.256348,4170.256348,4270.256348,4008.718018,450.0,4.0,77.0,,,,0.0,4.0,4.0,4.0,0.0,4.0,66.666664,,,,,,,,48.0,0.0,0.434842,-0.290283,0.6137699999999999,0.591553,0.8813610000000001,-0.467292,-0.081544,-0.035308,-0.038298,-0.017897,1.0,0.0,0.0,,,,,,,,,,,,,,,,,,,,,,,,,,,,,,,,0.0,0.0,1.0,0.0,1.0,0.0,3.930803,0.9235459999999999,1.247902,2.096833,1.593496,26.509233000000002,29.850355,15.792937,7.301627000000001,3.948722,0.7509060000000001,0.837483,0.9889190000000001,0.5171859999999999,0.29052100000000003,0.006184,0.006618000000000001,0.002321,0.004543,0.005411,2.096139,0.991083,1.25419,2.8292610000000002,1.566905
81574,1645494309.261653,97.0,0.0,4195.897461,4373.846191,4166.153809,4271.282227000001,3975.897461,450.0,4.0,77.0,,,,0.0,4.0,4.0,4.0,0.0,4.0,66.666664,,,,,,,,,,,,,,,,,,,,,,,,,,,,,,,,,,,,,,,,,,,,,,,,,,,,,,,,,,,,,,,,,,,,,,,,,,,,,,,,,,,,
81575,1645494309.269468,98.0,0.0,4180.512695,4412.307617,4163.589844,4273.333496,3970.256348,450.0,4.0,77.0,,,,0.0,4.0,4.0,4.0,0.0,4.0,66.666664,,,,,,,,49.0,0.0,0.434679,-0.290527,0.6137699999999999,0.591553,0.882338,-0.477546,-0.07128999999999999,-0.035293,-0.038325,-0.020891999999999997,,,,,,,,,,,,,,,,,,,,,,,,,,,,,,,,,,,,,,,,,,,,,,,,,,,,,,,,,,,,,,,,,
81576,1645494309.277283,99.0,0.0,4185.128418,4464.615234000001,4158.974121,4272.307617,3991.794922,16219.0,4.0,77.0,,,,0.0,4.0,4.0,4.0,0.0,4.0,66.666664,,,,,,,,,,,,,,,,,,,,,,,,,,,,,,,,,,,,,,,,,,,,,,,,,,,,,,,,,,,,,,,,,,,,,,,,,,,,,,,,,,,,
81577,1645494309.285099,100.0,0.0,4181.025879,4489.230957,4151.794922,4271.282227000001,3992.820557,450.0,4.0,77.0,,,,0.0,4.0,4.0,4.0,0.0,4.0,66.666664,,,,,,,,50.0,0.0,0.434679,-0.290527,0.6137699999999999,0.591553,0.87892,-0.47168699999999997,-0.06836,-0.035279000000000005,-0.038301,-0.017485,,,,,,,,,,,,,,,,,,,,,,,,,,,,,,,,,,,0.0,0.0,1.0,0.0,1.0,0.0,,,,,,,,,,,,,,,,,,,,,,,,,
81578,1645494309.2929142,101.0,0.0,4160.512695,4455.384765999999,4154.358886999999,4271.794922,3963.076904,450.0,4.0,77.0,,,,0.0,4.0,4.0,4.0,0.0,4.0,66.666664,,,,,,,,,,,,,,,,,,,,,,,,,,,,,,,,,,,,,,,,,,,,,,,,,,,,,,,,,,,,,,,,,,,,,,,,,,,,,,,,,,,,
81579,1645494309.3007288,102.0,0.0,4151.282227000001,4446.666504,4156.922852000001,4271.794922,3935.384521,450.0,4.0,77.0,,,,0.0,4.0,4.0,4.0,0.0,4.0,66.666664,,,,,,,,51.0,0.0,0.434679,-0.290527,0.6137699999999999,0.591553,0.867201,-0.481941,-0.07715,-0.035365,-0.03828,-0.014369,,,,,,,,,,,,,,,,,,,,,,,,,,,,,,,,,,,,,,,,,,,,,,,,,,,,,,,,,,,,,,,,,
81580,1645494309.308544,103.0,0.0,4157.436035,4468.717772999999,4154.871582,4271.794922,3938.974365,16219.0,4.0,77.0,,,,0.0,4.0,4.0,4.0,0.0,4.0,66.666664,,,,,,,,,,,,,,,,,,,,,,,,,,,,,,,,,,,,,,,,,,,,,,,,,,,,,,,,,,,,,,,,,,,,,,,,,,,,,,,,,,,,
81581,1645494309.316359,104.0,0.0,4161.025879,4459.487305,4155.897461,4271.794922,3953.3332520000004,450.0,4.0,77.0,,,,0.0,4.0,4.0,4.0,0.0,4.0,66.666664,,,,,,,,52.0,0.0,0.43486099999999994,-0.290771,0.613525,0.591553,0.8881969999999999,-0.47363999999999995,-0.09033300000000001,-0.035393,-0.038308999999999996,-0.011516,,,,,,,,,,,,,,,,,,,,,,,,,,,,,,,,,,,0.0,0.0,1.0,0.0,1.0,0.0,,,,,,,,,,,,,,,,,,,,,,,,,
81582,1645494309.324074,105.0,0.0,4153.846191,4461.538574,4150.769043,4271.794922,3931.281982,450.0,4.0,77.0,,,,0.0,4.0,4.0,4.0,0.0,4.0,66.666664,,,,,,,,,,,,,,,,,,,,,,,,,,,,,,,,,,,,,,,,,,,,,,,,,,,,,,,,,,,,,,,,,,,,,,,,,,,,,,,,,,,,
81583,1645494309.3318892,106.0,0.0,4149.743652,4484.615234000001,4136.410156,4271.794922,3923.076904,450.0,4.0,77.0,,,,0.0,4.0,4.0,4.0,0.0,4.0,66.666664,,,,,,,,53.0,0.0,0.43502399999999997,-0.290527,0.613525,0.591553,0.8842909999999999,-0.471199,-0.08691499999999999,-0.035467,-0.038238,-0.015247,,,,,,,,,,,,,,,,,,,,,,,,,,,,,,,,,,,,,,,,,,,,,,,,,,,,,,,,,,,,,,,,,
81584,1645494309.339705,107.0,0.0,4154.871582,4482.563965,4137.436035,4271.794922,3929.743652,16219.0,4.0,77.0,,,,0.0,4.0,4.0,4.0,0.0,4.0,66.666664,,,,,,,,,,,,,,,,,,,,,,,,,,,,,,,,,,,,,,,,,,,,,,,,,,,,,,,,,,,,,,,,,,,,,,,,,,,,,,,,,,,,
81585,1645494309.3475199,108.0,0.0,4150.256348,4463.077147999999,4156.410156,4271.794922,3902.0512700000004,450.0,4.0,77.0,,,,0.0,4.0,4.0,4.0,0.0,4.0,66.666664,,,,,,,,54.0,0.0,0.434679,-0.290527,0.6137699999999999,0.591553,0.887709,-0.46924499999999997,-0.077638,-0.035436,-0.038174,-0.018605,,,,,,,,,,,,,,,,,,,,,,,,,,,,,,,,,,,0.0,0.0,1.0,0.0,1.0,0.0,,,,,,,,,,,,,,,,,,,,,,,,,
81586,1645494309.355335,109.0,0.0,4158.974121,4458.461426,4167.692383,4271.794922,3891.794922,450.0,4.0,77.0,,,,0.0,4.0,4.0,4.0,0.0,4.0,66.666664,,,,,,,,,,,,,,,,,,,,,,,,,,,,,,,,,,,,,,,,,,,,,,,,,,,,,,,,,,,,,,,,,,,,,,,,,,,,,,,,,,,,
81587,1645494309.36315,110.0,0.0,4178.461426,4462.563965,4156.410156,4271.794922,3922.0512700000004,450.0,4.0,77.0,,,,0.0,4.0,4.0,4.0,0.0,4.0,66.666664,,,,,,,,55.0,0.0,0.434679,-0.290527,0.6137699999999999,0.591553,0.885267,-0.48096400000000006,-0.080568,-0.035505,-0.038312,-0.015378,,,,,,,,,,,,,,,,,,,,,,,,,,,,,,,,,,,,,,,,,,,,,,,,,,,,,,,,,,,,,,,,,
81588,1645494309.370965,111.0,0.0,4168.205078,4454.871582,4141.538574,4271.794922,3937.9487299999996,16219.0,4.0,77.0,,,,0.0,4.0,4.0,4.0,0.0,4.0,66.666664,,,,,,,,,,,,,,,,,,,,,,,,,,,,,,,,,,,,,,,,,,,,,,,,,,,,,,,,,,,,,,,,,,,,,,,,,,,,,,,,,,,,
81589,1645494309.3787801,112.0,0.0,4150.256348,4442.563965,4149.230957,4271.794922,3923.5898439999996,450.0,4.0,77.0,,,,0.0,4.0,4.0,4.0,0.0,4.0,66.666664,,,,,,,,56.0,0.0,0.434679,-0.290527,0.6137699999999999,0.591553,0.881849,-0.47901099999999996,-0.076661,-0.035568,-0.038241000000000004,-0.018625,1.0,0.0,0.0,,,,,,,,,,,,,,,,,,,,,,,,,,,,,,,,0.0,0.0,64.0,1.0,1.0,0.0,4.303032,0.98121,1.287707,2.076836,1.666173,21.617399,27.802203999999996,15.771042000000001,6.956466000000001,3.73472,0.69571,0.652683,0.832774,0.485154,0.277559,0.010244,0.010637,0.004567,0.005591,0.007037000000000001,2.497393,1.074786,1.1284530000000002,2.397391,1.59612
81590,1645494309.386595,113.0,0.0,4150.769043,4441.538574,4155.897461,4271.794922,3905.1281740000004,450.0,4.0,77.0,,,,0.0,4.0,4.0,4.0,0.0,4.0,66.666664,,,,,,,,,,,,,,,,,,,,,,,,,,,,,,,,,,,,,,,,,,,,,,,,,,,,,,,,,,,,,,,,,,,,,,,,,,,,,,,,,,,,
81591,1645494309.39441,114.0,0.0,4145.128418,4457.436035,4143.077147999999,4271.794922,3898.461426,450.0,4.0,77.0,,,,0.0,4.0,4.0,4.0,0.0,4.0,66.666664,,,,,,,,57.0,0.0,0.434679,-0.290527,0.6137699999999999,0.591553,0.881849,-0.48828900000000003,-0.07324299999999999,-0.035575999999999997,-0.038225,-0.015394999999999999,,,,,,,,,,,,,,,,,,,,,,,,,,,,,,,,,,,,,,,,,,,,,,,,,,,,,,,,,,,,,,,,,
81592,1645494309.402125,115.0,0.0,4136.410156,4441.538574,4139.487305,4271.794922,3909.743652,16219.0,4.0,77.0,,,,0.0,4.0,4.0,4.0,0.0,4.0,66.666664,,,,,,,,,,,,,,,,,,,,,,,,,,,,,,,,,,,,,,,,,,,,,,,,,,,,,,,,,,,,,,,,,,,,,,,,,,,,,,,,,,,,
81593,1645494309.40994,116.0,0.0,4138.461426,4395.897461,4144.615234000001,4271.794922,3912.3076170000004,450.0,4.0,77.0,,,,0.0,4.0,4.0,4.0,0.0,4.0,66.666664,,,,,,,,58.0,0.0,0.434679,-0.290527,0.6137699999999999,0.591553,0.8842909999999999,-0.478523,-0.08447400000000001,-0.03568,-0.038163,-0.018739,,,,,,,,,,,,,,,,,,,,,,,,,,,,,,,,,,,0.0,0.0,64.0,1.0,1.0,0.0,,,,,,,,,,,,,,,,,,,,,,,,,
81594,1645494309.4177551,117.0,0.0,4133.333496,4386.153809,4136.922852000001,4271.794922,3887.6923829999996,450.0,4.0,77.0,,,,0.0,4.0,4.0,4.0,0.0,4.0,66.666664,,,,,,,,,,,,,,,,,,,,,,,,,,,,,,,,,,,,,,,,,,,,,,,,,,,,,,,,,,,,,,,,,,,,,,,,,,,,,,,,,,,,
81595,1645494309.42557,118.0,0.0,4124.615234000001,4350.769043,4131.794922,4271.794922,3886.1538090000004,450.0,4.0,77.0,,,,0.0,4.0,4.0,4.0,0.0,4.0,66.666664,,,,,,,,59.0,0.0,0.43486099999999994,-0.290771,0.613525,0.591553,0.8896620000000001,-0.482429,-0.078614,-0.035775,-0.038106,-0.0154,,,,,,,,,,,,,,,,,,,,,,,,,,,,,,,,,,,,,,,,,,,,,,,,,,,,,,,,,,,,,,,,,
81596,1645494309.433385,119.0,0.0,4117.94873,4272.820313,4145.641113000001,4271.794922,3896.4101560000004,16219.0,4.0,77.0,,,,0.0,4.0,4.0,4.0,0.0,4.0,66.666664,,,,,,,,,,,,,,,,,,,,,,,,,,,,,,,,,,,,,,,,,,,,,,,,,,,,,,,,,,,,,,,,,,,,,,,,,,,,,,,,,,,,
81597,1645494309.4412,120.0,0.0,4104.102539,4288.717772999999,4150.769043,4271.794922,3883.5898439999996,450.0,4.0,77.0,,,,0.0,4.0,4.0,4.0,0.0,4.0,66.666664,,,,,,,,60.0,0.0,0.43486099999999994,-0.290771,0.613525,0.591553,0.891127,-0.49073,-0.07470800000000001,-0.035713,-0.038006,-0.012395,,,,,,,,,,,,,,,,,,,,,,,,,,,,,,,,,,,0.0,0.0,64.0,1.0,1.0,0.0,,,,,,,,,,,,,,,,,,,,,,,,,
81598,1645494309.4490151,121.0,0.0,4101.538574,4372.307617,4142.563965,4271.794922,3882.5642090000006,450.0,4.0,77.0,,,,0.0,4.0,4.0,4.0,0.0,4.0,66.666664,,,,,,,,,,,,,,,,,,,,,,,,,,,,,,,,,,,,,,,,,,,,,,,,,,,,,,,,,,,,,,,,,,,,,,,,,,,,,,,,,,,,
81599,1645494309.45683,122.0,0.0,4110.256348,4356.410156,4148.717772999999,4271.794922,3878.461426,450.0,4.0,77.0,,,,0.0,4.0,4.0,4.0,0.0,4.0,66.666664,,,,,,,,61.0,0.0,0.43486099999999994,-0.290771,0.613525,0.591553,0.8759899999999999,-0.482918,-0.063966,-0.035608,-0.037966,-0.009886,,,,,,,,,,,,,,,,,,,,,,,,,,,,,,,,,,,,,,,,,,,,,,,,,,,,,,,,,,,,,,,,,
81600,1645494309.464644,123.0,0.0,4109.743652,4293.846191,4151.794922,4271.794922,3852.820557,16219.0,4.0,77.0,,,,0.0,4.0,4.0,4.0,0.0,4.0,66.666664,,,,,,,,,,,,,,,,,,,,,,,,,,,,,,,,,,,,,,,,,,,,,,,,,,,,,,,,,,,,,,,,,,,,,,,,,,,,,,,,,,,,
81601,1645494309.472359,124.0,0.0,4113.846191,4321.025879,4137.94873,4271.794922,3857.9487299999996,450.0,4.0,77.0,,,,0.0,4.0,4.0,4.0,0.0,4.0,66.666664,,,,,,,,62.0,0.0,0.434697,-0.291016,0.613525,0.591553,0.8686659999999999,-0.45948,-0.080079,-0.035759,-0.037929000000000004,-0.013683,,,,,,,,,,,,,,,,,,,,,,,,,,,,,,,,,,,0.0,0.0,64.0,1.0,1.0,0.0,,,,,,,,,,,,,,,,,,,,,,,,,
81602,1645494309.480174,125.0,0.0,4108.717772999999,4372.820313,4136.922852000001,4271.794922,3889.2307130000004,450.0,4.0,77.0,,,,0.0,4.0,4.0,4.0,0.0,4.0,66.666664,,,,,,,,,,,,,,,,,,,,,,,,,,,,,,,,,,,,,,,,,,,,,,,,,,,,,,,,,,,,,,,,,,,,,,,,,,,,,,,,,,,,
81603,1645494309.487989,126.0,0.0,4097.94873,4372.307617,4154.871582,4271.794922,3894.358887,450.0,4.0,77.0,,,,0.0,4.0,4.0,4.0,0.0,4.0,66.666664,,,,,,,,63.0,0.0,0.434697,-0.291016,0.613525,0.591553,0.8833139999999999,-0.47022200000000003,-0.076173,-0.035747,-0.037945,-0.01085,,,,,,,,,,,,,,,,,,,,,,,,,,,,,,,,,,,,,,,,,,,,,,,,,,,,,,,,,,,,,,,,,
81604,1645494309.4958038,127.0,0.0,4116.922852000001,4341.025879,4154.871582,4271.794922,3879.487061,239.0,4.0,77.0,,,,0.0,4.0,4.0,4.0,0.0,4.0,66.666664,,,,,,,,,,,,,,,,,,,,,,,,,,,,,,,,,,,,,,,,,,,,,,,,,,,,,,,,,,,,,,,,,,,,,,,,,,,,,,,,,,,,
81605,1645494309.503619,0.0,0.0,4122.05127,4336.922852000001,4142.563965,4271.794922,3876.923096,450.0,4.0,77.0,,,,0.0,4.0,4.0,4.0,0.0,4.0,66.666664,0.972656,41.666668,4.0,3.0,2.0,0.0,4.0,0.0,0.0,0.43468500000000004,-0.291016,0.6137699999999999,0.591309,0.878431,-0.48731199999999997,-0.075685,-0.035639,-0.03791,-0.014452000000000001,1.0,0.0,0.0,,,,,,,,,,,,,,,,,,,,,,,,,,,,,,,,0.0,0.0,1.0,0.0,128.0,1.0,4.329153,1.053401,1.324777,1.97889,1.739051,19.105627,25.545635,16.410398,6.755544,3.589438,0.646584,0.508826,0.6825899999999999,0.450137,0.279914,0.021027,0.018694,0.009719,0.008076,0.011359000000000001,3.005673,1.269893,1.004991,2.0227720000000002,1.632657
81606,1645494309.511434,1.0,0.0,4097.436035,4356.922852000001,4148.717772999999,4271.794922,3888.205078,450.0,4.0,77.0,,,,0.0,4.0,4.0,4.0,0.0,4.0,66.666664,,,,,,,,,,,,,,,,,,,,,,,,,,,,,,,,,,,,,,,,,,,,,,,,,,,,,,,,,,,,,,,,,,,,,,,,,,,,,,,,,,,,
81607,1645494309.519249,2.0,0.0,4095.384521,4337.436035,4158.461426,4271.794922,3897.4357909999994,16208.0,4.0,77.0,,,,0.0,4.0,4.0,4.0,0.0,4.0,66.666664,,,,,,,,1.0,0.0,0.43468500000000004,-0.291016,0.6137699999999999,0.591309,0.8740370000000001,-0.47559300000000004,-0.078614,-0.035689,-0.037977,-0.017792,,,,,,,,,,,,,,,,,,,,,,,,,,,,,,,,,,,,,,,,,,,,,,,,,,,,,,,,,,,,,,,,,
81608,1645494309.527064,3.0,0.0,4092.3076170000004,4306.666504,4142.563965,4271.794922,3889.743652,450.0,4.0,77.0,,,,0.0,4.0,4.0,4.0,0.0,4.0,66.666664,,,,,,,,,,,,,,,,,,,,,,,,,,,,,,,,,,,,,,,,,,,,,,,,,,,,,,,,,,,,,,,,,,,,,,,,,,,,,,,,,,,,
81609,1645494309.5347788,4.0,0.0,4069.2307130000004,4302.563965,4132.307617,4271.794922,3873.8461909999996,16127.0,4.0,77.0,,,,0.0,4.0,4.0,4.0,0.0,4.0,66.666664,,,,,,,,2.0,0.0,0.43468500000000004,-0.291016,0.6137699999999999,0.591309,0.886732,-0.48731199999999997,-0.070802,-0.035636,-0.037988,-0.020945,,,,,,,,,,,,,,,,,,,,,,,,,,,,,,,,,,,0.0,0.0,1.0,0.0,128.0,1.0,,,,,,,,,,,,,,,,,,,,,,,,,
81610,1645494309.542594,5.0,0.0,4062.5642090000006,4307.692383,4140.0,4271.794922,3879.487061,450.0,4.0,77.0,,,,0.0,4.0,4.0,4.0,0.0,4.0,66.666664,,,,,,,,,,,,,,,,,,,,,,,,,,,,,,,,,,,,,,,,,,,,,,,,,,,,,,,,,,,,,,,,,,,,,,,,,,,,,,,,,,,,
81611,1645494309.55041,6.0,0.0,4059.487061,4321.538574,4140.512695,4271.794922,3888.718018,16075.0,4.0,77.0,,,,0.0,4.0,4.0,4.0,0.0,4.0,66.666664,,,,,,,,3.0,0.0,0.43468500000000004,-0.291016,0.6137699999999999,0.591309,0.886732,-0.482918,-0.083497,-0.035685,-0.037997,-0.023635,,,,,,,,,,,,,,,,,,,,,,,,,,,,,,,,,,,,,,,,,,,,,,,,,,,,,,,,,,,,,,,,,
81612,1645494309.558225,7.0,0.0,4054.358887,4328.205078,4137.436035,4270.769043,3892.3076170000004,450.0,4.0,77.0,,,,0.0,4.0,4.0,4.0,0.0,4.0,66.666664,,,,,,,,,,,,,,,,,,,,,,,,,,,,,,,,,,,,,,,,,,,,,,,,,,,,,,,,,,,,,,,,,,,,,,,,,,,,,,,,,,,,
81613,1645494309.566041,8.0,0.0,4058.461426,4324.615234000001,4143.589844,4272.820313,3896.923096,450.0,4.0,77.0,,,,0.0,4.0,4.0,4.0,0.0,4.0,66.666664,,,,,,,,4.0,0.0,0.43468500000000004,-0.291016,0.6137699999999999,0.591309,0.8740370000000001,-0.47559300000000004,-0.078614,-0.03573,-0.038104,-0.019806999999999998,,,,,,,,,,,,,,,,,,,,,,,,,,,,,,,,,,,0.0,0.0,1.0,0.0,128.0,1.0,,,,,,,,,,,,,,,,,,,,,,,,,
81614,1645494309.573856,9.0,0.0,4043.5898439999996,4338.461426,4147.179688,4271.794922,3886.6667479999996,0.0,4.0,77.0,,,,0.0,4.0,4.0,4.0,0.0,4.0,66.666664,,,,,,,,,,,,,,,,,,,,,,,,,,,,,,,,,,,,,,,,,,,,,,,,,,,,,,,,,,,,,,,,,,,,,,,,,,,,,,,,,,,,
81615,1645494309.581671,10.0,0.0,4049.2307130000004,4361.025879,4147.692383,4266.153809,3878.461426,450.0,4.0,77.0,,,,0.0,4.0,4.0,4.0,0.0,4.0,66.666664,,,,,,,,5.0,0.0,0.43468500000000004,-0.291016,0.6137699999999999,0.591309,0.886732,-0.482918,-0.083497,-0.035769999999999996,-0.038102,-0.022612,,,,,,,,,,,,,,,,,,,,,,,,,,,,,,,,,,,,,,,,,,,,,,,,,,,,,,,,,,,,,,,,,
81616,1645494309.5894868,11.0,0.0,4069.743652,4364.615234000001,4150.256348,4267.179688,3878.461426,16205.0,4.0,77.0,,,,0.0,4.0,4.0,4.0,0.0,4.0,66.666664,,,,,,,,,,,,,,,,,,,,,,,,,,,,,,,,,,,,,,,,,,,,,,,,,,,,,,,,,,,,,,,,,,,,,,,,,,,,,,,,,,,,
81617,1645494309.597302,12.0,0.0,4043.076904,4376.410156,4145.128418,4270.769043,3878.974365,450.0,4.0,77.0,,,,0.0,4.0,4.0,4.0,0.0,4.0,66.666664,,,,,,,,6.0,0.0,0.43468500000000004,-0.291016,0.6137699999999999,0.591309,0.892592,-0.48535900000000004,-0.083497,-0.035807,-0.038247,-0.025282,,,,,,,,,,,,,,,,,,,,,,,,,,,,,,,,,,,0.0,0.0,1.0,0.0,128.0,1.0,,,,,,,,,,,,,,,,,,,,,,,,,
81618,1645494309.605117,13.0,0.0,4034.8718259999996,4394.871582,4143.589844,4268.717772999999,3882.5642090000006,450.0,4.0,77.0,,,,0.0,4.0,4.0,4.0,0.0,4.0,66.666664,,,,,,,,,,,,,,,,,,,,,,,,,,,,,,,,,,,,,,,,,,,,,,,,,,,,,,,,,,,,,,,,,,,,,,,,,,,,,,,,,,,,
81619,1645494309.612833,14.0,0.0,4062.0512700000004,4389.230957,4151.282227000001,4266.666504,3867.6923829999996,450.0,4.0,77.0,,,,0.0,4.0,4.0,4.0,0.0,4.0,66.666664,,,,,,,,7.0,0.0,0.43468500000000004,-0.291016,0.6137699999999999,0.591309,0.895033,-0.480476,-0.085939,-0.035887999999999996,-0.03828,-0.027686000000000002,,,,,,,,,,,,,,,,,,,,,,,,,,,,,,,,,,,,,,,,,,,,,,,,,,,,,,,,,,,,,,,,,
81620,1645494309.6206481,15.0,0.0,4039.487061,4375.897461,4148.205078,4267.692383,3845.1281740000004,16205.0,4.0,77.0,,,,0.0,4.0,4.0,4.0,0.0,4.0,66.666664,,,,,,,,,,,,,,,,,,,,,,,,,,,,,,,,,,,,,,,,,,,,,,,,,,,,,,,,,,,,,,,,,,,,,,,,,,,,,,,,,,,,
81621,1645494309.628463,16.0,0.0,4006.1538090000004,4367.179688,4139.487305,4267.692383,3837.4357909999994,0.0,4.0,77.0,,,,0.0,4.0,4.0,4.0,0.0,4.0,66.666664,,,,,,,,8.0,0.0,0.434853,-0.29125999999999996,0.6137699999999999,0.591064,0.890639,-0.47901099999999996,-0.07910299999999999,-0.035766,-0.038261,-0.023452,1.0,0.0,0.0,,,,,,,,,,,,,,,,,,,,,,,,,,,,,,,,0.0,0.0,64.0,1.0,1.0,0.0,3.9929870000000003,1.140195,1.35438,1.822761,1.793852,20.304682,23.144129,16.901836,6.820322,3.5397589999999997,0.582264,0.401454,0.5704199999999999,0.432306,0.294747,0.038907,0.030889,0.018859,0.01229,0.019012,3.355097,1.608708,0.9346190000000001,1.7223990000000002,1.671843
81622,1645494309.636278,17.0,0.0,4032.820557,4356.922852000001,4140.0,4267.692383,3846.1538090000004,0.0,4.0,77.0,,,,0.0,4.0,4.0,4.0,0.0,4.0,66.666664,,,,,,,,,,,,,,,,,,,,,,,,,,,,,,,,,,,,,,,,,,,,,,,,,,,,,,,,,,,,,,,,,,,,,,,,,,,,,,,,,,,,
81623,1645494309.644093,18.0,0.0,4051.281982,4342.563965,4144.102539,4267.179688,3855.384521,0.0,4.0,77.0,,,,0.0,4.0,4.0,4.0,0.0,4.0,66.666664,,,,,,,,9.0,0.0,0.434853,-0.29125999999999996,0.6137699999999999,0.591064,0.885756,-0.462898,-0.078614,-0.035754,-0.038146,-0.025941000000000002,,,,,,,,,,,,,,,,,,,,,,,,,,,,,,,,,,,,,,,,,,,,,,,,,,,,,,,,,,,,,,,,,
81624,1645494309.651908,19.0,0.0,4013.3332520000004,4343.589844,4145.128418,4265.641113000001,3855.897461,0.0,4.0,77.0,,,,0.0,4.0,4.0,4.0,0.0,4.0,66.666664,,,,,,,,,,,,,,,,,,,,,,,,,,,,,,,,,,,,,,,,,,,,,,,,,,,,,,,,,,,,,,,,,,,,,,,,,,,,,,,,,,,,
81625,1645494309.659723,20.0,0.0,3994.358887,4367.179688,4142.05127,4267.179688,3846.6667479999996,0.0,4.0,77.0,,,,0.0,4.0,4.0,4.0,0.0,4.0,66.666664,,,,,,,,10.0,0.0,0.435022,-0.291504,0.6137699999999999,0.59082,0.87892,-0.464363,-0.078614,-0.035694,-0.038188,-0.028279000000000002,,,,,,,,,,,,,,,,,,,,,,,,,,,,,,,,,,,0.0,0.0,64.0,1.0,1.0,0.0,,,,,,,,,,,,,,,,,,,,,,,,,
81626,1645494309.6675382,21.0,0.0,4022.0512700000004,4377.436035,4144.615234000001,4267.692383,3843.5898439999996,0.0,4.0,77.0,,,,0.0,4.0,4.0,4.0,0.0,4.0,66.666664,,,,,,,,,,,,,,,,,,,,,,,,,,,,,,,,,,,,,,,,,,,,,,,,,,,,,,,,,,,,,,,,,,,,,,,,,,,,,,,,,,,,
81627,1645494309.675354,22.0,0.0,4034.358887,4340.512695,4146.666504,4267.179688,3855.897461,0.0,4.0,77.0,,,,0.0,4.0,4.0,4.0,0.0,4.0,66.666664,,,,,,,,11.0,0.0,0.435022,-0.291504,0.6137699999999999,0.59082,0.897963,-0.482429,-0.067872,-0.035641,-0.038276,-0.024132,,,,,,,,,,,,,,,,,,,,,,,,,,,,,,,,,,,,,,,,,,,,,,,,,,,,,,,,,,,,,,,,,
81628,1645494309.683169,23.0,0.0,4011.281982,4294.871582,4144.102539,4267.179688,3861.538574,0.0,4.0,77.0,,,,0.0,4.0,4.0,4.0,0.0,4.0,66.666664,,,,,,,,,,,,,,,,,,,,,,,,,,,,,,,,,,,,,,,,,,,,,,,,,,,,,,,,,,,,,,,,,,,,,,,,,,,,,,,,,,,,
81629,1645494309.6908839,24.0,0.0,4005.641113,4299.487305,4146.666504,4267.692383,3855.384521,0.0,4.0,77.0,,,,0.0,4.0,4.0,4.0,0.0,4.0,66.666664,,,,,,,,12.0,0.0,0.435022,-0.291504,0.6137699999999999,0.59082,0.8833139999999999,-0.47168699999999997,-0.061524,-0.03569,-0.038257,-0.020303,,,,,,,,,,,,,,,,,,,,,,,,,,,,,,,,,,,0.0,0.0,64.0,1.0,1.0,0.0,,,,,,,,,,,,,,,,,,,,,,,,,
81630,1645494309.698699,25.0,0.0,4017.4357909999994,4324.102539,4153.333496,4267.179688,3841.025635,0.0,4.0,77.0,,,,0.0,4.0,4.0,4.0,0.0,4.0,66.666664,,,,,,,,,,,,,,,,,,,,,,,,,,,,,,,,,,,,,,,,,,,,,,,,,,,,,,,,,,,,,,,,,,,,,,,,,,,,,,,,,,,,
81631,1645494309.7065132,26.0,0.0,4009.2307130000004,4314.871582,4156.410156,4267.179688,3840.512939,0.0,4.0,77.0,,,,0.0,4.0,4.0,4.0,0.0,4.0,66.666664,,,,,,,,13.0,0.0,0.435022,-0.291504,0.6137699999999999,0.59082,0.8847790000000001,-0.478523,-0.05712999999999999,-0.035733999999999995,-0.038239999999999996,-0.023107,,,,,,,,,,,,,,,,,,,,,,,,,,,,,,,,,,,,,,,,,,,,,,,,,,,,,,,,,,,,,,,,,
81632,1645494309.7143278,27.0,0.0,3997.9487299999996,4286.153809,4152.307617,4267.179688,3854.8718259999996,0.0,4.0,77.0,,,,0.0,4.0,4.0,4.0,0.0,4.0,66.666664,,,,,,,,,,,,,,,,,,,,,,,,,,,,,,,,,,,,,,,,,,,,,,,,,,,,,,,,,,,,,,,,,,,,,,,,,,,,,,,,,,,,
81633,1645494309.722143,28.0,0.0,3983.5898439999996,4298.974121,4151.282227000001,4267.692383,3837.9487299999996,0.0,4.0,77.0,,,,0.0,4.0,4.0,4.0,0.0,4.0,66.666664,,,,,,,,14.0,0.0,0.435022,-0.291504,0.6137699999999999,0.59082,0.885756,-0.47608100000000003,-0.077638,-0.035823,-0.038176,-0.019331,,,,,,,,,,,,,,,,,,,,,,,,,,,,,,,,,,,0.0,0.0,64.0,1.0,1.0,0.0,,,,,,,,,,,,,,,,,,,,,,,,,
81634,1645494309.729958,29.0,0.0,3967.179443,4363.589844,4152.820313,4267.179688,3807.6923829999996,0.0,4.0,77.0,,,,0.0,4.0,4.0,4.0,0.0,4.0,66.666664,,,,,,,,,,,,,,,,,,,,,,,,,,,,,,,,,,,,,,,,,,,,,,,,,,,,,,,,,,,,,,,,,,,,,,,,,,,,,,,,,,,,
81635,1645494309.737773,30.0,0.0,3972.820557,4412.820313,4151.794922,4266.666504,3803.5898439999996,0.0,4.0,77.0,,,,0.0,4.0,4.0,4.0,0.0,4.0,66.666664,,,,,,,,15.0,0.0,0.435022,-0.291504,0.6137699999999999,0.59082,0.882338,-0.48535900000000004,-0.081544,-0.035854000000000004,-0.038118,-0.022232,,,,,,,,,,,,,,,,,,,,,,,,,,,,,,,,,,,,,,,,,,,,,,,,,,,,,,,,,,,,,,,,,
81636,1645494309.745588,31.0,0.0,3988.205078,4376.922852000001,4153.333496,4266.153809,3803.5898439999996,0.0,4.0,77.0,,,,0.0,4.0,4.0,4.0,0.0,4.0,66.666664,,,,,,,,,,,,,,,,,,,,,,,,,,,,,,,,,,,,,,,,,,,,,,,,,,,,,,,,,,,,,,,,,,,,,,,,,,,,,,,,,,,,
81637,1645494309.7533028,32.0,0.0,3999.487061,4317.436035,4152.307617,4266.666504,3806.6667479999996,0.0,4.0,77.0,,,,0.0,4.0,4.0,4.0,0.0,4.0,66.666664,,,,,,,,16.0,0.0,0.43518500000000004,-0.29125999999999996,0.6137699999999999,0.59082,0.890639,-0.474128,-0.08691499999999999,-0.03598,-0.037968,-0.018739,1.0,0.0,0.0,,,,,,,,,,,,,,,,,,,,,,,,,,,,,,,,0.0,0.0,64.0,0.351169,1.0,0.0,3.532736,1.281981,1.35497,1.626624,1.8120470000000002,25.940754000000002,20.933874,16.480148,7.162959,3.583064,0.550416,0.318256,0.501722,0.45038599999999995,0.316921,0.06232000000000001,0.045176,0.03136,0.017741,0.029112,3.846747,2.051245,0.9563649999999999,1.5193219999999998,1.716647
81638,1645494309.761119,33.0,0.0,3999.487061,4333.333496,4143.077147999999,4266.666504,3826.6667479999996,0.0,4.0,77.0,,,,0.0,4.0,4.0,4.0,0.0,4.0,66.666664,,,,,,,,,,,,,,,,,,,,,,,,,,,,,,,,,,,,,,,,,,,,,,,,,,,,,,,,,,,,,,,,,,,,,,,,,,,,,,,,,,,,
81639,1645494309.768934,34.0,0.0,3993.3332520000004,4370.769043,4138.461426,4266.666504,3834.358887,0.0,4.0,77.0,,,,0.0,4.0,4.0,4.0,0.0,4.0,66.666664,,,,,,,,17.0,0.0,0.43518500000000004,-0.29125999999999996,0.6137699999999999,0.59082,0.8774549999999999,-0.475105,-0.070802,-0.035946,-0.038029,-0.0217,,,,,,,,,,,,,,,,,,,,,,,,,,,,,,,,,,,,,,,,,,,,,,,,,,,,,,,,,,,,,,,,,
81640,1645494309.7767491,35.0,0.0,4002.5642090000006,4338.974121,4142.05127,4266.666504,3831.281982,0.0,4.0,77.0,,,,0.0,4.0,4.0,4.0,0.0,4.0,66.666664,,,,,,,,,,,,,,,,,,,,,,,,,,,,,,,,,,,,,,,,,,,,,,,,,,,,,,,,,,,,,,,,,,,,,,,,,,,,,,,,,,,,
81641,1645494309.784565,36.0,0.0,4012.3076170000004,4283.077147999999,4151.282227000001,4266.666504,3839.487061,0.0,4.0,77.0,,,,0.0,4.0,4.0,4.0,0.0,4.0,66.666664,,,,,,,,18.0,0.0,0.43518500000000004,-0.29125999999999996,0.6137699999999999,0.59082,0.8872209999999999,-0.47022200000000003,-0.090822,-0.036014,-0.037937,-0.018162,,,,,,,,,,,,,,,,,,,,,,,,,,,,,,,,,,,0.0,0.0,64.0,0.351169,1.0,0.0,,,,,,,,,,,,,,,,,,,,,,,,,
81642,1645494309.79238,37.0,0.0,4008.205078,4292.307617,4148.717772999999,4266.666504,3849.2307130000004,0.0,4.0,77.0,,,,0.0,4.0,4.0,4.0,0.0,4.0,66.666664,,,,,,,,,,,,,,,,,,,,,,,,,,,,,,,,,,,,,,,,,,,,,,,,,,,,,,,,,,,,,,,,,,,,,,,,,,,,,,,,,,,,
81643,1645494309.8001962,38.0,0.0,4013.8461909999996,4317.94873,4144.102539,4266.666504,3844.615479,0.0,4.0,77.0,,,,0.0,4.0,4.0,4.0,0.0,4.0,66.666664,,,,,,,,19.0,0.0,0.435529,-0.29125999999999996,0.613525,0.59082,0.8881969999999999,-0.460945,-0.071778,-0.036026,-0.038099,-0.021327000000000002,,,,,,,,,,,,,,,,,,,,,,,,,,,,,,,,,,,,,,,,,,,,,,,,,,,,,,,,,,,,,,,,,
81644,1645494309.808011,39.0,0.0,4007.179443,4287.692383,4150.769043,4266.666504,3829.743652,0.0,4.0,77.0,,,,0.0,4.0,4.0,4.0,0.0,4.0,66.666664,,,,,,,,,,,,,,,,,,,,,,,,,,,,,,,,,,,,,,,,,,,,,,,,,,,,,,,,,,,,,,,,,,,,,,,,,,,,,,,,,,,,
81645,1645494309.815826,40.0,0.0,3973.8461909999996,4251.794922,4160.0,4266.666504,3816.4101560000004,0.0,4.0,77.0,,,,0.0,4.0,4.0,4.0,0.0,4.0,66.666664,,,,,,,,20.0,0.0,0.435692,-0.291016,0.613525,0.59082,0.886732,-0.466804,-0.086427,-0.036036,-0.038146,-0.017827000000000003,,,,,,,,,,,,,,,,,,,,,,,,,,,,,,,,,,,0.0,0.0,64.0,0.351169,1.0,0.0,,,,,,,,,,,,,,,,,,,,,,,,,
81646,1645494309.823642,41.0,0.0,3970.256348,4248.717772999999,4160.0,4266.666504,3824.615479,0.0,4.0,77.0,,,,0.0,4.0,4.0,4.0,0.0,4.0,66.666664,,,,,,,,,,,,,,,,,,,,,,,,,,,,,,,,,,,,,,,,,,,,,,,,,,,,,,,,,,,,,,,,,,,,,,,,,,,,,,,,,,,,
81647,1645494309.831357,42.0,0.0,3998.461426,4253.846191,4153.333496,4266.666504,3863.076904,0.0,4.0,77.0,,,,0.0,4.0,4.0,4.0,0.0,4.0,66.666664,,,,,,,,21.0,0.0,0.435529,-0.29125999999999996,0.613525,0.59082,0.891127,-0.474128,-0.078126,-0.036045999999999995,-0.038091,-0.020927,,,,,,,,,,,,,,,,,,,,,,,,,,,,,,,,,,,,,,,,,,,,,,,,,,,,,,,,,,,,,,,,,
81648,1645494309.8391721,43.0,0.0,4007.179443,4264.102539,4155.897461,4266.666504,3870.256348,0.0,4.0,77.0,,,,0.0,4.0,4.0,4.0,0.0,4.0,66.666664,,,,,,,,,,,,,,,,,,,,,,,,,,,,,,,,,,,,,,,,,,,,,,,,,,,,,,,,,,,,,,,,,,,,,,,,,,,,,,,,,,,,
81649,1645494309.846987,44.0,0.0,3992.3076170000004,4261.538574,4156.410156,4266.666504,3838.461426,0.0,4.0,77.0,,,,0.0,4.0,4.0,4.0,0.0,4.0,66.666664,,,,,,,,22.0,0.0,0.435692,-0.291016,0.613525,0.59082,0.8798959999999999,-0.492195,-0.080568,-0.036055000000000004,-0.038189,-0.023717,,,,,,,,,,,,,,,,,,,,,,,,,,,,,,,,,,,0.0,0.0,64.0,0.351169,1.0,0.0,,,,,,,,,,,,,,,,,,,,,,,,,
81650,1645494309.854802,45.0,0.0,3989.743652,4234.358886999999,4150.256348,4266.666504,3834.8718259999996,0.0,4.0,77.0,,,,0.0,4.0,4.0,4.0,0.0,4.0,66.666664,,,,,,,,,,,,,,,,,,,,,,,,,,,,,,,,,,,,,,,,,,,,,,,,,,,,,,,,,,,,,,,,,,,,,,,,,,,,,,,,,,,,
81651,1645494309.862617,46.0,0.0,4025.641113,4227.692383,4152.820313,4266.666504,3849.743652,0.0,4.0,77.0,,,,0.0,4.0,4.0,4.0,0.0,4.0,66.666664,,,,,,,,23.0,0.0,0.435529,-0.29125999999999996,0.613525,0.59082,0.870619,-0.49170699999999995,-0.09131,-0.036014,-0.038325,-0.020125,,,,,,,,,,,,,,,,,,,,,,,,,,,,,,,,,,,,,,,,,,,,,,,,,,,,,,,,,,,,,,,,,
81652,1645494309.8704321,47.0,0.0,4058.461426,4248.717772999999,4164.102539,4266.666504,3860.512939,0.0,4.0,77.0,,,,0.0,4.0,4.0,4.0,0.0,4.0,66.666664,,,,,,,,,,,,,,,,,,,,,,,,,,,,,,,,,,,,,,,,,,,,,,,,,,,,,,,,,,,,,,,,,,,,,,,,,,,,,,,,,,,,
81653,1645494309.878248,48.0,0.0,4031.794922,4268.205078,4161.538574,4266.666504,3862.0512700000004,0.0,4.0,77.0,,,,0.0,4.0,4.0,4.0,0.0,4.0,66.666664,,,,,,,,24.0,0.0,0.43586,-0.29125999999999996,0.613525,0.590576,0.8881969999999999,-0.46973400000000004,-0.076661,-0.036026,-0.038301,-0.023093000000000002,1.0,0.0,0.0,,,,,,,,,,,,,,,,,,,,,,,,,,,,,,,,0.0,0.0,64.0,0.348082,1.0,0.0,3.1159939999999997,1.500993,1.312443,1.4025219999999998,1.7861900000000002,35.095692,19.536528,14.875860000000001,7.665186,3.696571,0.506076,0.259856,0.46458999999999995,0.505909,0.341416,0.084236,0.057638,0.044514,0.023133,0.039295,4.221843,2.491719,1.083831,1.4159760000000001,1.766332
81654,1645494309.886063,49.0,0.0,4002.5642090000006,4257.94873,4147.692383,4266.666504,3851.281982,0.0,4.0,77.0,,,,0.0,4.0,4.0,4.0,0.0,4.0,66.666664,,,,,,,,,,,,,,,,,,,,,,,,,,,,,,,,,,,,,,,,,,,,,,,,,,,,,,,,,,,,,,,,,,,,,,,,,,,,,,,,,,,,
81655,1645494309.893878,50.0,0.0,4033.8461909999996,4216.922852000001,4147.179688,4266.666504,3844.615479,0.0,4.0,77.0,,,,0.0,4.0,4.0,4.0,0.0,4.0,66.666664,,,,,,,,25.0,0.0,0.43551599999999996,-0.29125999999999996,0.6137699999999999,0.590576,0.8872209999999999,-0.471199,-0.080079,-0.03589,-0.03828,-0.025666,,,,,,,,,,,,,,,,,,,,,,,,,,,,,,,,,,,,,,,,,,,,,,,,,,,,,,,,,,,,,,,,,
81656,1645494309.9016929,51.0,0.0,4053.3332520000004,4187.692383,4149.743652,4266.666504,3860.512939,0.0,4.0,77.0,,,,0.0,4.0,4.0,4.0,0.0,4.0,66.666664,,,,,,,,,,,,,,,,,,,,,,,,,,,,,,,,,,,,,,,,,,,,,,,,,,,,,,,,,,,,,,,,,,,,,,,,,,,,,,,,,,,,
81657,1645494309.909408,52.0,0.0,4042.5642090000006,4190.769043,4143.589844,4266.666504,3868.205078,0.0,4.0,77.0,,,,0.0,4.0,4.0,4.0,0.0,4.0,66.666664,,,,,,,,26.0,0.0,0.435353,-0.291504,0.6137699999999999,0.590576,0.886244,-0.47363999999999995,-0.077638,-0.035866,-0.038211,-0.027885000000000004,,,,,,,,,,,,,,,,,,,,,,,,,,,,,,,,,,,0.0,0.0,64.0,0.348082,1.0,0.0,,,,,,,,,,,,,,,,,,,,,,,,,
81658,1645494309.917223,53.0,0.0,4047.179443,4217.94873,4145.128418,4266.666504,3860.512939,0.0,4.0,77.0,,,,0.0,4.0,4.0,4.0,0.0,4.0,66.666664,,,,,,,,,,,,,,,,,,,,,,,,,,,,,,,,,,,,,,,,,,,,,,,,,,,,,,,,,,,,,,,,,,,,,,,,,,,,,,,,,,,,
81659,1645494309.925038,54.0,0.0,4043.5898439999996,4238.461426,4150.769043,4266.666504,3872.820557,0.0,4.0,77.0,,,,0.0,4.0,4.0,4.0,0.0,4.0,66.666664,,,,,,,,27.0,0.0,0.43500900000000003,-0.291504,0.6140140000000001,0.590576,0.8872209999999999,-0.46924499999999997,-0.081544,-0.035844,-0.038248000000000004,-0.02368,,,,,,,,,,,,,,,,,,,,,,,,,,,,,,,,,,,,,,,,,,,,,,,,,,,,,,,,,,,,,,,,,
81660,1645494309.932853,55.0,0.0,4034.358887,4214.358886999999,4158.974121,4266.666504,3883.5898439999996,0.0,4.0,77.0,,,,0.0,4.0,4.0,4.0,0.0,4.0,66.666664,,,,,,,,,,,,,,,,,,,,,,,,,,,,,,,,,,,,,,,,,,,,,,,,,,,,,,,,,,,,,,,,,,,,,,,,,,,,,,,,,,,,
81661,1645494309.940667,56.0,0.0,4049.743652,4186.666504,4170.769043,4266.666504,3883.076904,0.0,4.0,77.0,,,,0.0,4.0,4.0,4.0,0.0,4.0,66.666664,,,,,,,,28.0,0.0,0.43500900000000003,-0.291504,0.6140140000000001,0.590576,0.885756,-0.474617,-0.070314,-0.035775,-0.038183,-0.026195,,,,,,,,,,,,,,,,,,,,,,,,,,,,,,,,,,,0.0,0.0,64.0,0.348082,1.0,0.0,,,,,,,,,,,,,,,,,,,,,,,,,
81662,1645494309.948482,57.0,0.0,4058.461426,4217.94873,4170.256348,4266.666504,3876.4101560000004,0.0,4.0,77.0,,,,0.0,4.0,4.0,4.0,0.0,4.0,66.666664,,,,,,,,,,,,,,,,,,,,,,,,,,,,,,,,,,,,,,,,,,,,,,,,,,,,,,,,,,,,,,,,,,,,,,,,,,,,,,,,,,,,
81663,1645494309.9562972,58.0,0.0,4042.5642090000006,4235.897461,4157.436035,4266.666504,3873.8461909999996,0.0,4.0,77.0,,,,0.0,4.0,4.0,4.0,0.0,4.0,66.666664,,,,,,,,29.0,0.0,0.43500900000000003,-0.291504,0.6140140000000001,0.590576,0.8833139999999999,-0.48145299999999996,-0.062013,-0.035762,-0.038124,-0.028361,,,,,,,,,,,,,,,,,,,,,,,,,,,,,,,,,,,,,,,,,,,,,,,,,,,,,,,,,,,,,,,,,
81664,1645494309.9641118,59.0,0.0,4032.820557,4188.717772999999,4151.794922,4266.666504,3887.179443,0.0,4.0,77.0,,,,0.0,4.0,4.0,4.0,0.0,4.0,66.666664,,,,,,,,,,,,,,,,,,,,,,,,,,,,,,,,,,,,,,,,,,,,,,,,,,,,,,,,,,,,,,,,,,,,,,,,,,,,,,,,,,,,
81665,1645494309.971828,60.0,0.0,4024.615479,4174.871582,4154.358886999999,4266.666504,3877.9487299999996,0.0,4.0,77.0,,,,0.0,4.0,4.0,4.0,0.0,4.0,66.666664,,,,,,,,30.0,0.0,0.43500900000000003,-0.291504,0.6140140000000001,0.590576,0.878431,-0.482918,-0.06836,-0.035701,-0.038120999999999995,-0.030358999999999997,,,,,,,,,,,,,,,,,,,,,,,,,,,,,,,,,,,0.0,0.0,64.0,0.348082,1.0,0.0,,,,,,,,,,,,,,,,,,,,,,,,,
81666,1645494309.9796429,61.0,0.0,4027.179443,4226.666504,4158.461426,4266.666504,3854.358887,0.0,4.0,77.0,,,,0.0,4.0,4.0,4.0,0.0,4.0,66.666664,,,,,,,,,,,,,,,,,,,,,,,,,,,,,,,,,,,,,,,,,,,,,,,,,,,,,,,,,,,,,,,,,,,,,,,,,,,,,,,,,,,,
81667,1645494309.987458,62.0,0.0,4060.0,4260.512695,4169.230957,4266.666504,3870.7692869999996,0.0,4.0,77.0,,,,0.0,4.0,4.0,4.0,0.0,4.0,66.666664,,,,,,,,31.0,0.0,0.434845,-0.291748,0.6140140000000001,0.590576,0.8847790000000001,-0.477058,-0.062989,-0.035745,-0.038117000000000005,-0.025907,,,,,,,,,,,,,,,,,,,,,,,,,,,,,,,,,,,,,,,,,,,,,,,,,,,,,,,,,,,,,,,,,
81668,1645494309.995274,63.0,0.0,4065.1281740000004,4275.384765999999,4176.410156,4266.666504,3902.0512700000004,0.0,4.0,77.0,,,,0.0,4.0,4.0,4.0,0.0,4.0,66.666664,,,,,,,,,,,,,,,,,,,,,,,,,,,,,,,,,,,,,,,,,,,,,,,,,,,,,,,,,,,,,,,,,,,,,,,,,,,,,,,,,,,,
81669,1645494310.003089,64.0,0.0,4040.512939,4330.769043,4170.256348,4266.666504,3897.9487299999996,450.0,4.0,77.0,,,,0.0,4.0,4.0,4.0,0.0,4.0,66.666664,0.972656,41.666668,4.0,3.0,2.0,0.0,4.0,32.0,0.0,0.43500900000000003,-0.291504,0.6140140000000001,0.590576,0.8833139999999999,-0.48145299999999996,-0.062013,-0.035686,-0.038163,-0.0219,1.0,0.0,0.0,,,,,,,,,,,,,,,,,,,,,,,,,,,,,,,,0.0,0.0,64.0,0.29546999999999995,1.0,0.0,2.937497,1.8171700000000002,1.207573,1.165835,1.723904,44.813339,19.091127,12.371847,8.10331,3.8706410000000004,0.48496300000000003,0.24021599999999999,0.44134700000000004,0.577616,0.362969,0.099583,0.064218,0.05449299999999999,0.026846,0.046584,4.6367,2.8379939999999997,1.259414,1.389359,1.813331
81670,1645494310.0109038,65.0,0.0,4038.461426,4385.641113000001,4161.025879,4266.666504,3888.205078,450.0,4.0,77.0,,,,0.0,4.0,4.0,4.0,0.0,4.0,66.666664,,,,,,,,,,,,,,,,,,,,,,,,,,,,,,,,,,,,,,,,,,,,,,,,,,,,,,,,,,,,,,,,,,,,,,,,,,,,,,,,,,,,
81671,1645494310.01872,66.0,0.0,4041.025635,4364.615234000001,4157.94873,4266.666504,3891.794922,16248.0,4.0,77.0,,,,0.0,4.0,4.0,4.0,0.0,4.0,66.666664,,,,,,,,33.0,0.0,0.434845,-0.291748,0.6140140000000001,0.590576,0.8847790000000001,-0.477058,-0.062989,-0.035731,-0.038155,-0.018294,,,,,,,,,,,,,,,,,,,,,,,,,,,,,,,,,,,,,,,,,,,,,,,,,,,,,,,,,,,,,,,,,
81672,1645494310.026535,67.0,0.0,4036.923096,4325.641113000001,4154.871582,4266.666504,3890.7692869999996,450.0,4.0,77.0,,,,0.0,4.0,4.0,4.0,0.0,4.0,66.666664,,,,,,,,,,,,,,,,,,,,,,,,,,,,,,,,,,,,,,,,,,,,,,,,,,,,,,,,,,,,,,,,,,,,,,,,,,,,,,,,,,,,
81673,1645494310.03435,68.0,0.0,4057.9487299999996,4346.666504,4154.358886999999,4266.666504,3896.923096,16140.0,4.0,77.0,,,,0.0,4.0,4.0,4.0,0.0,4.0,66.666664,,,,,,,,34.0,0.0,0.434845,-0.291748,0.6140140000000001,0.590576,0.886732,-0.473152,-0.075196,-0.035771,-0.038197,-0.021397,,,,,,,,,,,,,,,,,,,,,,,,,,,,,,,,,,,0.0,0.0,64.0,0.29546999999999995,1.0,0.0,,,,,,,,,,,,,,,,,,,,,,,,,
81674,1645494310.042166,69.0,0.0,4061.538574,4384.615234000001,4150.256348,4266.666504,3900.0,450.0,4.0,77.0,,,,0.0,4.0,4.0,4.0,0.0,4.0,66.666664,,,,,,,,,,,,,,,,,,,,,,,,,,,,,,,,,,,,,,,,,,,,,,,,,,,,,,,,,,,,,,,,,,,,,,,,,,,,,,,,,,,,
81675,1645494310.049881,70.0,0.0,4022.0512700000004,4389.230957,4137.94873,4266.666504,3880.0,16071.0,4.0,77.0,,,,0.0,4.0,4.0,4.0,0.0,4.0,66.666664,,,,,,,,35.0,0.0,0.434845,-0.291748,0.6140140000000001,0.590576,0.875502,-0.473152,-0.06884900000000001,-0.035709,-0.038186000000000005,-0.024091,,,,,,,,,,,,,,,,,,,,,,,,,,,,,,,,,,,,,,,,,,,,,,,,,,,,,,,,,,,,,,,,,
81676,1645494310.057696,71.0,0.0,4030.256348,4387.692383,4132.820313,4266.666504,3882.5642090000006,450.0,4.0,77.0,,,,0.0,4.0,4.0,4.0,0.0,4.0,66.666664,,,,,,,,,,,,,,,,,,,,,,,,,,,,,,,,,,,,,,,,,,,,,,,,,,,,,,,,,,,,,,,,,,,,,,,,,,,,,,,,,,,,
81677,1645494310.065511,72.0,0.0,4084.615479,4424.102539,4148.717772999999,4266.153809,3906.6667479999996,450.0,4.0,77.0,,,,0.0,4.0,4.0,4.0,0.0,4.0,66.666664,,,,,,,,36.0,0.0,0.43518900000000005,-0.291748,0.6137699999999999,0.590576,0.882338,-0.472175,-0.070314,-0.035801,-0.038323,-0.026516,,,,,,,,,,,,,,,,,,,,,,,,,,,,,,,,,,,0.0,0.0,64.0,0.29546999999999995,1.0,0.0,,,,,,,,,,,,,,,,,,,,,,,,,
81678,1645494310.073226,73.0,0.0,4076.923096,4473.846191,4163.077147999999,4266.666504,3909.743652,0.0,4.0,77.0,,,,0.0,4.0,4.0,4.0,0.0,4.0,66.666664,,,,,,,,,,,,,,,,,,,,,,,,,,,,,,,,,,,,,,,,,,,,,,,,,,,,,,,,,,,,,,,,,,,,,,,,,,,,,,,,,,,,
81679,1645494310.081041,74.0,0.0,4038.461426,4455.384765999999,4152.307617,4266.666504,3913.3332520000004,450.0,4.0,77.0,,,,0.0,4.0,4.0,4.0,0.0,4.0,66.666664,,,,,,,,37.0,0.0,0.434845,-0.291748,0.6140140000000001,0.590576,0.886732,-0.477546,-0.075685,-0.035736000000000004,-0.038299,-0.022448,,,,,,,,,,,,,,,,,,,,,,,,,,,,,,,,,,,,,,,,,,,,,,,,,,,,,,,,,,,,,,,,,
81680,1645494310.088856,75.0,0.0,4056.4101560000004,4414.871582,4144.615234000001,4265.128418,3926.6667479999996,16251.0,4.0,77.0,,,,0.0,4.0,4.0,4.0,0.0,4.0,66.666664,,,,,,,,,,,,,,,,,,,,,,,,,,,,,,,,,,,,,,,,,,,,,,,,,,,,,,,,,,,,,,,,,,,,,,,,,,,,,,,,,,,,
81681,1645494310.096671,76.0,0.0,4076.4101560000004,4449.743652,4160.0,4267.692383,3915.384521,450.0,4.0,77.0,,,,0.0,4.0,4.0,4.0,0.0,4.0,66.666664,,,,,,,,38.0,0.0,0.434845,-0.291748,0.6140140000000001,0.590576,0.8847790000000001,-0.47901099999999996,-0.06884900000000001,-0.035629,-0.038327,-0.018836000000000002,,,,,,,,,,,,,,,,,,,,,,,,,,,,,,,,,,,0.0,0.0,64.0,0.29546999999999995,1.0,0.0,,,,,,,,,,,,,,,,,,,,,,,,,
81682,1645494310.104486,77.0,0.0,4062.5642090000006,4477.436035,4167.692383,4271.282227000001,3903.076904,450.0,4.0,77.0,,,,0.0,4.0,4.0,4.0,0.0,4.0,66.666664,,,,,,,,,,,,,,,,,,,,,,,,,,,,,,,,,,,,,,,,,,,,,,,,,,,,,,,,,,,,,,,,,,,,,,,,,,,,,,,,,,,,
81683,1645494310.1123009,78.0,0.0,4070.7692869999996,4424.102539,4162.05127,4269.230957,3925.1281740000004,450.0,4.0,77.0,,,,0.0,4.0,4.0,4.0,0.0,4.0,66.666664,,,,,,,,39.0,0.0,0.434845,-0.291748,0.6140140000000001,0.590576,0.876967,-0.462409,-0.067872,-0.035436,-0.038449000000000004,-0.021787,,,,,,,,,,,,,,,,,,,,,,,,,,,,,,,,,,,,,,,,,,,,,,,,,,,,,,,,,,,,,,,,,
81684,1645494310.120116,79.0,0.0,4099.487305,4389.743652,4168.717772999999,4266.153809,3945.641113,16251.0,4.0,77.0,,,,0.0,4.0,4.0,4.0,0.0,4.0,66.666664,,,,,,,,,,,,,,,,,,,,,,,,,,,,,,,,,,,,,,,,,,,,,,,,,,,,,,,,,,,,,,,,,,,,,,,,,,,,,,,,,,,,
81685,1645494310.1279302,80.0,0.0,4098.461426,4412.307617,4174.358886999999,4267.692383,3938.974365,450.0,4.0,77.0,,,,0.0,4.0,4.0,4.0,0.0,4.0,66.666664,,,,,,,,40.0,0.0,0.434845,-0.291748,0.6140140000000001,0.590576,0.894545,-0.477546,-0.06836,-0.035505,-0.038413,-0.024491,1.0,0.0,0.0,,,,,,,,,,,,,,,,,,,,,,,,,,,,,,,,0.0,0.0,64.0,0.19043,1.0,0.0,2.972573,2.243321,1.068486,0.9450280000000001,1.65058,53.116016,19.504547,9.738201,8.217013,4.125004,0.442379,0.269461,0.422825,0.633245,0.375663,0.101813,0.062477,0.058017,0.027652999999999997,0.048651,4.847078,3.057513,1.431322,1.401959,1.8422150000000002
81686,1645494310.135646,81.0,0.0,4080.512939,4431.282227000001,4165.128418,4269.230957,3929.2307130000004,450.0,4.0,77.0,,,,0.0,4.0,4.0,4.0,0.0,4.0,66.666664,,,,,,,,,,,,,,,,,,,,,,,,,,,,,,,,,,,,,,,,,,,,,,,,,,,,,,,,,,,,,,,,,,,,,,,,,,,,,,,,,,,,
81687,1645494310.143461,82.0,0.0,4101.538574,4448.205078,4156.922852000001,4268.205078,3926.1538090000004,450.0,4.0,77.0,,,,0.0,4.0,4.0,4.0,0.0,4.0,66.666664,,,,,,,,41.0,0.0,0.43518900000000005,-0.291748,0.6137699999999999,0.590576,0.889174,-0.46582700000000005,-0.066896,-0.035575999999999997,-0.0384,-0.022767,,,,,,,,,,,,,,,,,,,,,,,,,,,,,,,,,,,,,,,,,,,,,,,,,,,,,,,,,,,,,,,,,
81688,1645494310.151277,83.0,0.0,4131.794922,4467.692383,4158.461426,4267.692383,3941.538574,16251.0,4.0,77.0,,,,0.0,4.0,4.0,4.0,0.0,4.0,66.666664,,,,,,,,,,,,,,,,,,,,,,,,,,,,,,,,,,,,,,,,,,,,,,,,,,,,,,,,,,,,,,,,,,,,,,,,,,,,,,,,,,,,
81689,1645494310.159092,84.0,0.0,4117.436035,4496.922852000001,4163.589844,4267.692383,3977.9487299999996,450.0,4.0,77.0,,,,0.0,4.0,4.0,4.0,0.0,4.0,66.666664,,,,,,,,42.0,0.0,0.43518900000000005,-0.291748,0.6137699999999999,0.590576,0.886732,-0.47657,-0.080568,-0.035485,-0.038466,-0.025276,,,,,,,,,,,,,,,,,,,,,,,,,,,,,,,,,,,0.0,0.0,64.0,0.19043,1.0,0.0,,,,,,,,,,,,,,,,,,,,,,,,,
81690,1645494310.166907,85.0,0.0,4085.641113,4526.153809,4170.769043,4267.692383,3984.615479,450.0,4.0,77.0,,,,0.0,4.0,4.0,4.0,0.0,4.0,66.666664,,,,,,,,,,,,,,,,,,,,,,,,,,,,,,,,,,,,,,,,,,,,,,,,,,,,,,,,,,,,,,,,,,,,,,,,,,,,,,,,,,,,
81691,1645494310.1747231,86.0,0.0,4105.641113000001,4528.717772999999,4170.256348,4267.692383,3969.2307130000004,450.0,4.0,77.0,,,,0.0,4.0,4.0,4.0,0.0,4.0,66.666664,,,,,,,,43.0,0.0,0.43518900000000005,-0.291748,0.6137699999999999,0.590576,0.885267,-0.47363999999999995,-0.086427,-0.03555,-0.038477,-0.027631,,,,,,,,,,,,,,,,,,,,,,,,,,,,,,,,,,,,,,,,,,,,,,,,,,,,,,,,,,,,,,,,,
81692,1645494310.182538,87.0,0.0,4140.512695,4501.538574,4164.615234000001,4267.692383,3989.743652,16251.0,4.0,77.0,,,,0.0,4.0,4.0,4.0,0.0,4.0,66.666664,,,,,,,,,,,,,,,,,,,,,,,,,,,,,,,,,,,,,,,,,,,,,,,,,,,,,,,,,,,,,,,,,,,,,,,,,,,,,,,,,,,,
81693,1645494310.190353,88.0,0.0,4111.794922,4447.692383,4166.153809,4267.692383,4001.025635,450.0,4.0,77.0,,,,0.0,4.0,4.0,4.0,0.0,4.0,66.666664,,,,,,,,44.0,0.0,0.43518900000000005,-0.291748,0.6137699999999999,0.590576,0.894057,-0.475105,-0.076173,-0.035511,-0.038389,-0.029653,,,,,,,,,,,,,,,,,,,,,,,,,,,,,,,,,,,0.0,0.0,64.0,0.19043,1.0,0.0,,,,,,,,,,,,,,,,,,,,,,,,,
81694,1645494310.198169,89.0,0.0,4093.8461909999996,4419.487305,4171.794922,4267.692383,3982.5642090000006,450.0,4.0,77.0,,,,0.0,4.0,4.0,4.0,0.0,4.0,66.666664,,,,,,,,,,,,,,,,,,,,,,,,,,,,,,,,,,,,,,,,,,,,,,,,,,,,,,,,,,,,,,,,,,,,,,,,,,,,,,,,,,,,
81695,1645494310.205884,90.0,0.0,4130.769043,4440.0,4169.230957,4267.692383,3994.358887,450.0,4.0,77.0,,,,0.0,4.0,4.0,4.0,0.0,4.0,66.666664,,,,,,,,45.0,0.0,0.43518900000000005,-0.291748,0.6137699999999999,0.590576,0.885267,-0.475105,-0.067872,-0.035475,-0.038359,-0.025272,,,,,,,,,,,,,,,,,,,,,,,,,,,,,,,,,,,,,,,,,,,,,,,,,,,,,,,,,,,,,,,,,
