,Timestamp,EEG.Counter,EEG.Interpolated,EEG.AF3,EEG.T7,EEG.Pz,EEG.T8,EEG.AF4,EEG.RawCq,EEG.Battery,EEG.BatteryPercent,MarkerIndex,MarkerType,MarkerValueInt,EEG.MarkerHardware,CQ.AF3,CQ.T7,CQ.Pz,CQ.T8,CQ.AF4,CQ.Overall,EQ.SampleRateQuality,EQ.OVERALL,EQ.AF3,EQ.T7,EQ.Pz,EQ.T8,EQ.AF4,MOT.CounterMems,MOT.InterpolatedMems,MOT.Q0,MOT.Q1,MOT.Q2,MOT.Q3,MOT.AccX,MOT.AccY,MOT.AccZ,MOT.MagX,MOT.MagY,MOT.MagZ,MC.Action,MC.ActionPower,MC.IsActive,PM.Engagement.IsActive,PM.Engagement.Scaled,PM.Engagement.Raw,PM.Engagement.Min,PM.Engagement.Max,PM.Excitement.IsActive,PM.Excitement.Scaled,PM.Excitement.Raw,PM.Excitement.Min,PM.Excitement.Max,PM.LongTermExcitement,PM.Stress.IsActive,PM.Stress.Scaled,PM.Stress.Raw,PM.Stress.Min,PM.Stress.Max,PM.Relaxation.IsActive,PM.Relaxation.Scaled,PM.Relaxation.Raw,PM.Relaxation.Min,PM.Relaxation.Max,PM.Interest.IsActive,PM.Interest.Scaled,PM.Interest.Raw,PM.Interest.Min,PM.Interest.Max,PM.Focus.IsActive,PM.Focus.Scaled,PM.Focus.Raw,PM.Focus.Min,PM.Focus.Max,FE.BlinkWink,FE.HorizontalEyesDirection,FE.UpperFaceAction,FE.UpperFaceActionPower,FE.LowerFaceAction,FE.LowerFaceActionPower,POW.AF3.Theta,POW.AF3.Alpha,POW.AF3.BetaL,POW.AF3.BetaH,POW.AF3.Gamma,POW.T7.Theta,POW.T7.Alpha,POW.T7.BetaL,POW.T7.BetaH,POW.T7.Gamma,POW.Pz.Theta,POW.Pz.Alpha,POW.Pz.BetaL,POW.Pz.BetaH,POW.Pz.Gamma,POW.T8.Theta,POW.T8.Alpha,POW.T8.BetaL,POW.T8.BetaH,POW.T8.Gamma,POW.AF4.Theta,POW.AF4.Alpha,POW.AF4.BetaL,POW.AF4.BetaH,POW.AF4.Gamma
22219,1645650771.3350232,55.0,0.0,4326.153809,4558.974121,4165.128418,4274.358886999999,4271.282227000001,0.0,3.0,59.0,,,,0.0,4.0,0.0,4.0,0.0,4.0,33.333332,,,,,,,,,,,,,,,,,,,,,,,,,,,,,,,,,,,,,,,,,,,,,,,,,,,,,,0.0,0.0,1.0,0.0,512.0,0.7295050000000001,,,,,,,,,,,,,,,,,,,,,,,,,
22220,1645650771.3428369,56.0,0.0,4277.436035,4770.256348,4150.769043,4271.282227000001,4265.641113000001,0.0,3.0,59.0,,,,0.0,4.0,0.0,4.0,0.0,4.0,33.333332,,,,,,,,28.0,0.0,0.368712,0.563232,0.154541,-0.7231449999999999,0.949722,-0.18555,-0.31543499999999997,-0.014565,-0.050214,-0.034395999999999996,,,,,,,,,,,,,,,,,,,,,,,,,,,,,,,,,,,,,,,,,,,,,,,,,,,,,,,,,,,,,,,,,
22221,1645650771.350652,57.0,0.0,4338.461426,4912.307617,4179.487305,4270.256348,4297.436035,0.0,3.0,59.0,,,,0.0,4.0,0.0,4.0,0.0,4.0,33.333332,,,,,,,,,,,,,,,,,,,,,,,,,,,,,,,,,,,,,,,,,,,,,,,,,,,,,,,,,,,,,,,,,,,,,,,,,,,,,,,,,,,,
22222,1645650771.358366,58.0,0.0,4340.512695,4736.922852000001,4070.256348,4265.641113000001,4236.410156,0.0,3.0,59.0,,,,0.0,4.0,0.0,4.0,0.0,4.0,33.333332,,,,,,,,29.0,0.0,0.368232,0.563232,0.154541,-0.7233890000000001,0.9487450000000001,-0.187503,-0.325689,-0.013694999999999999,-0.050222,-0.036718,,,,,,,,,,,,,,,,,,,,,,,,,,,,,,,,,,,,,,,,,,,,,,,,,,,,,,,,,,,,,,,,,
22223,1645650771.3661802,59.0,0.0,4295.897461,4604.102539,4256.410156,4266.666504,4260.512695,0.0,3.0,59.0,,,,0.0,4.0,0.0,4.0,0.0,4.0,33.333332,,,,,,,,,,,,,,,,,,,,,,,,,,,,,,,,,,,,,,,,,,,,,,,,,,,,,,0.0,0.0,1.0,0.0,512.0,0.7295050000000001,,,,,,,,,,,,,,,,,,,,,,,,,
22224,1645650771.373895,60.0,0.0,4373.846191,4575.384765999999,4307.692383,4275.384765999999,4378.974121,0.0,3.0,59.0,,,,0.0,4.0,0.0,4.0,0.0,4.0,33.333332,,,,,,,,30.0,0.0,0.368232,0.563232,0.154541,-0.7233890000000001,0.9350729999999999,-0.186526,-0.333989,-0.01462,-0.050229,-0.038711,,,,,,,,,,,,,,,,,,,,,,,,,,,,,,,,,,,,,,,,,,,,,,,,,,,,,,,,,,,,,,,,,
22225,1645650771.381709,61.0,0.0,4374.358886999999,4612.307617,4064.615479,4277.436035,4307.179688,0.0,3.0,59.0,,,,0.0,4.0,0.0,4.0,0.0,4.0,33.333332,,,,,,,,,,,,,,,,,,,,,,,,,,,,,,,,,,,,,,,,,,,,,,,,,,,,,,,,,,,,,,,,,,,,,,,,,,,,,,,,,,,,
22226,1645650771.389524,62.0,0.0,4296.410156,4708.205078,4026.1538090000004,4278.974121,4212.820313,0.0,3.0,59.0,,,,0.0,4.0,0.0,4.0,0.0,4.0,33.333332,,,,,,,,31.0,0.0,0.368232,0.563232,0.154541,-0.7233890000000001,0.9506979999999999,-0.18115499999999998,-0.320317,-0.015404,-0.050187,-0.040504000000000005,,,,,,,,,,,,,,,,,,,,,,,,,,,,,,,,,,,,,,,,,,,,,,,,,,,,,,,,,,,,,,,,,
22227,1645650771.3973382,63.0,0.0,4297.94873,4745.641113000001,4262.05127,4281.538574,4244.615234000001,0.0,3.0,59.0,,,,0.0,4.0,0.0,4.0,0.0,4.0,33.333332,,,,,,,,,,,,,,,,,,,,1.0,0.0,0.0,,,,,,,,,,,,,,,,,,,,,,,,,,,,,,,,0.0,0.0,1.0,0.0,512.0,0.630319,3.537482,1.004777,1.739695,0.770496,1.9539060000000001,10.022912,9.660722,29.093220000000002,16.123676,32.500378000000005,3.5929580000000003,1.588316,3.612761,1.5427870000000001,1.260446,0.007844,0.003095,0.006998999999999999,0.007593000000000001,0.007916,4.387679,0.965685,0.6707029999999999,1.351161,0.799773
22228,1645650771.405153,64.0,0.0,4396.922852000001,4740.512695,4243.077147999999,4280.512695,4321.025879,450.0,3.0,59.0,,,,0.0,4.0,0.0,4.0,0.0,4.0,33.333332,,,,,,,,32.0,0.0,0.368712,0.563232,0.154541,-0.7231449999999999,0.954116,-0.199222,-0.32861799999999997,-0.016159,-0.050247,-0.035916000000000003,,,,,,,,,,,,,,,,,,,,,,,,,,,,,,,,,,,,,,,,,,,,,,,,,,,,,,,,,,,,,,,,,
22229,1645650771.412967,65.0,0.0,4318.974121,4732.820313,4156.410156,4277.94873,4244.615234000001,450.0,3.0,59.0,,,,0.0,4.0,0.0,4.0,0.0,4.0,33.333332,,,,,,,,,,,,,,,,,,,,,,,,,,,,,,,,,,,,,,,,,,,,,,,,,,,,,,,,,,,,,,,,,,,,,,,,,,,,,,,,,,,,
22230,1645650771.4207811,66.0,0.0,4347.692383,4647.179688,4278.974121,4281.538574,4308.205078,16174.0,3.0,59.0,,,,0.0,4.0,0.0,4.0,0.0,4.0,33.333332,,,,,,,,33.0,0.0,0.368338,0.563477,0.154541,-0.7231449999999999,0.9355610000000001,-0.198734,-0.318853,-0.016838,-0.050105000000000004,-0.038135,,,,,,,,,,,,,,,,,,,,,,,,,,,,,,,,,,,,,,,,,,,,,,,,,,,,,,,,,,,,,,,,,
22231,1645650771.428596,67.0,0.0,4367.179688,4547.179688,4218.461426,4280.512695,4322.05127,450.0,3.0,59.0,,,,0.0,4.0,0.0,4.0,0.0,4.0,33.333332,,,,,,,,,,,,,,,,,,,,,,,,,,,,,,,,,,,,,,,,,,,,,,,,,,,,,,0.0,0.0,1.0,0.0,512.0,0.630319,,,,,,,,,,,,,,,,,,,,,,,,,
22232,1645650771.43631,68.0,0.0,4326.153809,4591.282227000001,4207.692383,4278.974121,4278.461426,105.0,3.0,59.0,,,,0.0,4.0,1.0,4.0,0.0,4.0,41.666668,,,,,,,,34.0,0.0,0.368817,0.563477,0.154541,-0.7229,0.9428850000000001,-0.190433,-0.323247,-0.0174,-0.050075,-0.039986,,,,,,,,,,,,,,,,,,,,,,,,,,,,,,,,,,,,,,,,,,,,,,,,,,,,,,,,,,,,,,,,,
22233,1645650771.444125,69.0,0.0,4329.743652,4694.358886999999,4226.153809,4280.0,4288.205078,450.0,3.0,59.0,,,,0.0,4.0,1.0,4.0,0.0,4.0,41.666668,,,,,,,,,,,,,,,,,,,,,,,,,,,,,,,,,,,,,,,,,,,,,,,,,,,,,,,,,,,,,,,,,,,,,,,,,,,,,,,,,,,,
22234,1645650771.451939,70.0,0.0,4345.641113000001,4702.563965,4214.358886999999,4280.0,4295.384765999999,16277.0,3.0,59.0,,,,0.0,4.0,1.0,4.0,0.0,4.0,41.666668,,,,,,,,35.0,0.0,0.36882,0.563721,0.15478499999999998,-0.7226560000000001,0.9463030000000001,-0.18701500000000001,-0.316899,-0.017906000000000002,-0.050097,-0.035499,,,,,,,,,,,,,,,,,,,,,,,,,,,,,,,,,,,,,,,,,,,,,,,,,,,,,,,,,,,,,,,,,
22235,1645650771.459754,71.0,0.0,4356.922852000001,4665.128418,4229.743652,4280.512695,4296.410156,450.0,3.0,59.0,,,,0.0,4.0,1.0,4.0,0.0,4.0,41.666668,,,,,,,,,,,,,,,,,,,,,,,,,,,,,,,,,,,,,,,,,,,,,,,,,,,,,,0.0,0.0,1.0,0.0,512.0,0.630319,,,,,,,,,,,,,,,,,,,,,,,,,
22236,1645650771.467568,72.0,0.0,4361.025879,4693.333496,4246.666504,4281.025879,4299.487305,450.0,3.0,59.0,,,,0.0,4.0,1.0,4.0,0.0,4.0,41.666668,,,,,,,,36.0,0.0,0.36882,0.563721,0.15478499999999998,-0.7226560000000001,0.946792,-0.18555,-0.316899,-0.016702,-0.050164999999999994,-0.037662,,,,,,,,,,,,,,,,,,,,,,,,,,,,,,,,,,,,,,,,,,,,,,,,,,,,,,,,,,,,,,,,,
22237,1645650771.475382,73.0,0.0,4363.077147999999,4716.922852000001,4242.563965,4279.487305,4297.94873,0.0,3.0,59.0,,,,0.0,4.0,1.0,4.0,0.0,4.0,41.666668,,,,,,,,,,,,,,,,,,,,,,,,,,,,,,,,,,,,,,,,,,,,,,,,,,,,,,,,,,,,,,,,,,,,,,,,,,,,,,,,,,,,
22238,1645650771.483197,74.0,0.0,4359.487305,4656.410156,4250.769043,4279.487305,4295.384765999999,450.0,3.0,59.0,,,,0.0,4.0,1.0,4.0,0.0,4.0,41.666668,,,,,,,,37.0,0.0,0.36882,0.563721,0.15478499999999998,-0.7226560000000001,0.939467,-0.182132,-0.307134,-0.017375,-0.050227,-0.039560000000000005,,,,,,,,,,,,,,,,,,,,,,,,,,,,,,,,,,,,,,,,,,,,,,,,,,,,,,,,,,,,,,,,,
22239,1645650771.491011,75.0,0.0,4348.205078,4590.769043,4258.974121,4280.512695,4288.717772999999,16234.0,3.0,59.0,,,,0.0,4.0,1.0,4.0,0.0,4.0,41.666668,,,,,,,,,,,,,,,,,,,,,,,,,,,,,,,,,,,,,,,,,,,,,,,,,,,,,,0.0,0.0,1.0,0.0,512.0,0.630319,,,,,,,,,,,,,,,,,,,,,,,,,
22240,1645650771.498826,76.0,0.0,4343.077147999999,4583.589844,4237.436035,4279.487305,4285.641113000001,450.0,3.0,59.0,,,,0.0,4.0,1.0,4.0,0.0,4.0,41.666668,,,,,,,,38.0,0.0,0.369298,0.563721,0.15478499999999998,-0.7224119999999999,0.9438620000000001,-0.193851,-0.309575,-0.017835,-0.050185,-0.035116,,,,,,,,,,,,,,,,,,,,,,,,,,,,,,,,,,,,,,,,,,,,,,,,,,,,,,,,,,,,,,,,,
22241,1645650771.50654,77.0,0.0,4336.410156,4635.384765999999,4217.94873,4280.0,4285.641113000001,450.0,3.0,59.0,,,,0.0,4.0,1.0,4.0,0.0,4.0,41.666668,,,,,,,,,,,,,,,,,,,,,,,,,,,,,,,,,,,,,,,,,,,,,,,,,,,,,,,,,,,,,,,,,,,,,,,,,,,,,,,,,,,,
22242,1645650771.5143552,78.0,0.0,4340.512695,4646.153809,4230.256348,4280.512695,4288.205078,450.0,3.0,59.0,,,,0.0,4.0,1.0,4.0,0.0,4.0,41.666668,,,,,,,,39.0,0.0,0.369298,0.563721,0.15478499999999998,-0.7224119999999999,0.94435,-0.192386,-0.31396999999999997,-0.018249,-0.050244,-0.037170999999999996,,,,,,,,,,,,,,,,,,,,,,,,,,,,,,,,,,,,,,,,,,,,,,,,,,,,,,,,,,,,,,,,,
22243,1645650771.5221689,79.0,0.0,4340.512695,4609.230957,4225.128418,4278.974121,4287.692383,16234.0,3.0,59.0,,,,0.0,4.0,1.0,4.0,0.0,4.0,41.666668,,,,,,,,,,,,,,,,,,,,1.0,0.0,0.0,,,,,,,,,,,,,,,,,,,,,,,,,,,,,,,,0.0,0.0,1.0,0.0,512.0,0.5717909999999999,3.637899,0.900035,1.6206180000000001,0.7501680000000001,1.918609,11.169023,9.323509,26.789915,16.237635,34.105583,3.702869,2.060046,3.385881,1.53354,1.743082,0.010099,0.004722,0.008808,0.009326000000000001,0.007531,4.225072,0.845658,0.7739199999999999,1.2752649999999999,0.942267
22244,1645650771.529983,80.0,0.0,4336.410156,4596.922852000001,4234.871582,4279.487305,4304.102539,450.0,3.0,59.0,,,,0.0,4.0,1.0,4.0,0.0,4.0,41.666668,,,,,,,,40.0,0.0,0.369298,0.563721,0.15478499999999998,-0.7224119999999999,0.933608,-0.197757,-0.315923,-0.01867,-0.050200999999999996,-0.032868,,,,,,,,,,,,,,,,,,,,,,,,,,,,,,,,,,,,,,,,,,,,,,,,,,,,,,,,,,,,,,,,,
22245,1645650771.537798,81.0,0.0,4330.769043,4593.333496,4238.461426,4281.538574,4314.358886999999,450.0,3.0,59.0,,,,0.0,4.0,1.0,4.0,0.0,4.0,41.666668,,,,,,,,,,,,,,,,,,,,,,,,,,,,,,,,,,,,,,,,,,,,,,,,,,,,,,,,,,,,,,,,,,,,,,,,,,,,,,,,,,,,
22246,1645650771.5456119,82.0,0.0,4334.358886999999,4582.05127,4234.871582,4280.512695,4308.717772999999,450.0,3.0,59.0,,,,0.0,4.0,1.0,4.0,0.0,4.0,41.666668,,,,,,,,41.0,0.0,0.369298,0.563721,0.15478499999999998,-0.7224119999999999,0.933608,-0.182132,-0.302739,-0.017487,-0.050161000000000004,-0.035391000000000006,,,,,,,,,,,,,,,,,,,,,,,,,,,,,,,,,,,,,,,,,,,,,,,,,,,,,,,,,,,,,,,,,
22247,1645650771.553427,83.0,0.0,4354.358886999999,4617.436035,4230.769043,4278.461426,4310.256348,16234.0,3.0,59.0,,,,0.0,4.0,1.0,4.0,0.0,4.0,41.666668,,,,,,,,,,,,,,,,,,,,,,,,,,,,,,,,,,,,,,,,,,,,,,,,,,,,,,0.0,0.0,1.0,0.0,512.0,0.5717909999999999,,,,,,,,,,,,,,,,,,,,,,,,,
22248,1645650771.561241,84.0,0.0,4364.615234000001,4683.589844,4234.871582,4279.487305,4321.538574,450.0,3.0,59.0,,,,0.0,4.0,1.0,4.0,0.0,4.0,41.666668,,,,,,,,42.0,0.0,0.369671,0.563477,0.15478499999999998,-0.7224119999999999,0.9365379999999999,-0.18945599999999999,-0.319829,-0.018033,-0.050174,-0.037614,,,,,,,,,,,,,,,,,,,,,,,,,,,,,,,,,,,,,,,,,,,,,,,,,,,,,,,,,,,,,,,,,
22249,1645650771.569055,85.0,0.0,4349.743652,4677.94873,4216.410156,4282.05127,4313.846191,450.0,3.0,59.0,,,,0.0,4.0,1.0,4.0,0.0,4.0,41.666668,,,,,,,,,,,,,,,,,,,,,,,,,,,,,,,,,,,,,,,,,,,,,,,,,,,,,,,,,,,,,,,,,,,,,,,,,,,,,,,,,,,,
22250,1645650771.57687,86.0,0.0,4334.358886999999,4654.871582,4213.333496,4281.025879,4275.897461,450.0,3.0,59.0,,,,0.0,4.0,1.0,4.0,0.0,4.0,41.666668,,,,,,,,43.0,0.0,0.370147,0.563477,0.15478499999999998,-0.722168,0.9423969999999999,-0.195804,-0.3252,-0.018476,-0.050186,-0.039566000000000004,,,,,,,,,,,,,,,,,,,,,,,,,,,,,,,,,,,,,,,,,,,,,,,,,,,,,,,,,,,,,,,,,
22251,1645650771.584584,87.0,0.0,4352.307617,4716.410156,4225.128418,4280.512695,4270.256348,16234.0,3.0,59.0,,,,0.0,4.0,1.0,4.0,0.0,4.0,41.666668,,,,,,,,,,,,,,,,,,,,,,,,,,,,,,,,,,,,,,,,,,,,,,,,,,,,,,0.0,0.0,1.0,0.0,512.0,0.5717909999999999,,,,,,,,,,,,,,,,,,,,,,,,,
22252,1645650771.5923991,88.0,0.0,4369.230957,4772.820313,4237.94873,4282.05127,4295.897461,450.0,3.0,59.0,,,,0.0,4.0,1.0,4.0,0.0,4.0,41.666668,,,,,,,,44.0,0.0,0.369298,0.563721,0.15478499999999998,-0.7224119999999999,0.933608,-0.182132,-0.302739,-0.017312,-0.050148000000000005,-0.04142,,,,,,,,,,,,,,,,,,,,,,,,,,,,,,,,,,,,,,,,,,,,,,,,,,,,,,,,,,,,,,,,,
22253,1645650771.600213,89.0,0.0,4357.436035,4696.922852000001,4230.769043,4282.563965,4299.487305,450.0,3.0,59.0,,,,0.0,4.0,1.0,4.0,0.0,4.0,41.666668,,,,,,,,,,,,,,,,,,,,,,,,,,,,,,,,,,,,,,,,,,,,,,,,,,,,,,,,,,,,,,,,,,,,,,,,,,,,,,,,,,,,
22254,1645650771.607928,90.0,0.0,4334.871582,4616.410156,4213.333496,4278.974121,4268.717772999999,450.0,3.0,59.0,,,,0.0,4.0,1.0,4.0,0.0,4.0,41.666668,,,,,,,,45.0,0.0,0.370147,0.563477,0.15478499999999998,-0.722168,0.9423969999999999,-0.195804,-0.3252,-0.017827000000000003,-0.050163,-0.042991,,,,,,,,,,,,,,,,,,,,,,,,,,,,,,,,,,,,,,,,,,,,,,,,,,,,,,,,,,,,,,,,,
22255,1645650771.615742,91.0,0.0,4338.461426,4613.846191,4223.077147999999,4278.461426,4280.512695,16234.0,3.0,59.0,,,,0.0,4.0,1.0,4.0,0.0,4.0,41.666668,,,,,,,,,,,,,,,,,,,,,,,,,,,,,,,,,,,,,,,,,,,,,,,,,,,,,,0.0,0.0,1.0,0.0,512.0,0.5717909999999999,,,,,,,,,,,,,,,,,,,,,,,,,
22256,1645650771.6235561,92.0,0.0,4338.461426,4598.974121,4235.384765999999,4281.025879,4298.974121,450.0,3.0,59.0,,,,0.0,4.0,1.0,4.0,0.0,4.0,41.666668,,,,,,,,46.0,0.0,0.370249,0.563477,0.154541,-0.722168,0.938491,-0.19971,-0.31787600000000005,-0.018241,-0.050225,-0.044551,,,,,,,,,,,,,,,,,,,,,,,,,,,,,,,,,,,,,,,,,,,,,,,,,,,,,,,,,,,,,,,,,
22257,1645650771.6312711,93.0,0.0,4347.692383,4617.94873,4225.128418,4282.05127,4287.179688,450.0,3.0,59.0,,,,0.0,4.0,1.0,4.0,0.0,4.0,41.666668,,,,,,,,,,,,,,,,,,,,,,,,,,,,,,,,,,,,,,,,,,,,,,,,,,,,,,,,,,,,,,,,,,,,,,,,,,,,,,,,,,,,
22258,1645650771.639085,94.0,0.0,4360.0,4693.846191,4212.820313,4282.05127,4288.205078,450.0,3.0,59.0,,,,0.0,4.0,1.0,4.0,0.0,4.0,41.666668,,,,,,,,47.0,0.0,0.370249,0.563477,0.154541,-0.722168,0.949722,-0.192386,-0.315923,-0.018999000000000002,-0.050184,-0.046975,,,,,,,,,,,,,,,,,,,,,,,,,,,,,,,,,,,,,,,,,,,,,,,,,,,,,,,,,,,,,,,,,
22259,1645650771.6469,95.0,0.0,4355.384765999999,4703.589844,4232.820313,4281.025879,4305.641113000001,16234.0,3.0,59.0,,,,0.0,4.0,1.0,4.0,0.0,4.0,41.666668,1.0,8.333333,3.0,0.0,1.0,0.0,3.0,,,,,,,,,,,,,1.0,0.0,0.0,,,,,,,,,,,,,,,,,,,,,,,,,,,,,,,,0.0,0.0,32.0,0.028176999999999997,1.0,0.0,3.4085330000000003,0.977295,1.659461,0.764282,2.0259650000000002,12.675863,8.853484,24.862595000000002,18.278887,37.218311,4.015723,2.853684,2.9969360000000003,2.0284150000000003,3.085179,0.017376,0.008442,0.013104,0.011264,0.007620999999999999,3.7860910000000003,1.009105,0.978899,1.2278799999999999,1.3684690000000002
22260,1645650771.654714,96.0,0.0,4341.538574,4638.461426,4231.282227000001,4278.974121,4302.563965,450.0,3.0,59.0,,,,0.0,4.0,1.0,4.0,0.0,4.0,41.666668,,,,,,,,48.0,0.0,0.370249,0.563477,0.154541,-0.722168,0.934585,-0.190921,-0.321294,-0.019443000000000002,-0.050097,-0.047942,,,,,,,,,,,,,,,,,,,,,,,,,,,,,,,,,,,,,,,,,,,,,,,,,,,,,,,,,,,,,,,,,
22261,1645650771.662529,97.0,0.0,4336.922852000001,4580.0,4245.128418,4278.974121,4308.717772999999,450.0,3.0,59.0,,,,0.0,4.0,1.0,4.0,0.0,4.0,41.666668,,,,,,,,,,,,,,,,,,,,,,,,,,,,,,,,,,,,,,,,,,,,,,,,,,,,,,,,,,,,,,,,,,,,,,,,,,,,,,,,,,,,
22262,1645650771.670343,98.0,0.0,4324.615234000001,4555.384765999999,4249.230957,4280.512695,4303.077147999999,450.0,3.0,59.0,,,,0.0,4.0,1.0,4.0,0.0,4.0,41.666668,,,,,,,,49.0,0.0,0.37035100000000004,0.563477,0.154297,-0.722168,0.937514,-0.196292,-0.3252,-0.019745,-0.050166,-0.042611,,,,,,,,,,,,,,,,,,,,,,,,,,,,,,,,,,,,,,,,,,,,,,,,,,,,,,,,,,,,,,,,,
22263,1645650771.678157,99.0,0.0,4313.846191,4594.871582,4236.410156,4280.0,4286.666504,16234.0,3.0,59.0,,,,0.0,4.0,1.0,4.0,0.0,4.0,41.666668,,,,,,,,,,,,,,,,,,,,,,,,,,,,,,,,,,,,,,,,,,,,,,,,,,,,,,0.0,0.0,32.0,0.028176999999999997,1.0,0.0,,,,,,,,,,,,,,,,,,,,,,,,,
22264,1645650771.685972,100.0,0.0,4331.282227000001,4666.666504,4221.538574,4277.94873,4289.230957,450.0,3.0,59.0,,,,0.0,4.0,1.0,4.0,0.0,4.0,41.666668,,,,,,,,50.0,0.0,0.370827,0.563477,0.154297,-0.721924,0.9404440000000001,-0.188968,-0.330571,-0.018356,-0.050227,-0.037812,,,,,,,,,,,,,,,,,,,,,,,,,,,,,,,,,,,,,,,,,,,,,,,,,,,,,,,,,,,,,,,,,
22265,1645650771.693786,101.0,0.0,4343.077147999999,4720.0,4223.077147999999,4279.487305,4284.102539,450.0,3.0,59.0,,,,0.0,4.0,1.0,4.0,0.0,4.0,41.666668,,,,,,,,,,,,,,,,,,,,,,,,,,,,,,,,,,,,,,,,,,,,,,,,,,,,,,,,,,,,,,,,,,,,,,,,,,,,,,,,,,,,
22266,1645650771.701501,102.0,0.0,4343.077147999999,4754.871582,4203.589844,4281.538574,4267.179688,450.0,3.0,59.0,,,,0.0,4.0,1.0,4.0,0.0,4.0,41.666668,,,,,,,,51.0,0.0,0.370827,0.563477,0.154297,-0.721924,0.939467,-0.20068699999999998,-0.318853,-0.018865,-0.050136,-0.039695,,,,,,,,,,,,,,,,,,,,,,,,,,,,,,,,,,,,,,,,,,,,,,,,,,,,,,,,,,,,,,,,,
22267,1645650771.709315,103.0,0.0,4349.743652,4733.333496,4215.384765999999,4281.025879,4273.846191,16234.0,3.0,59.0,,,,0.0,4.0,1.0,4.0,0.0,4.0,41.666668,,,,,,,,,,,,,,,,,,,,,,,,,,,,,,,,,,,,,,,,,,,,,,,,,,,,,,0.0,0.0,32.0,0.028176999999999997,1.0,0.0,,,,,,,,,,,,,,,,,,,,,,,,,
22268,1645650771.7171302,104.0,0.0,4351.282227000001,4688.717772999999,4234.871582,4278.461426,4288.205078,450.0,3.0,59.0,,,,0.0,4.0,1.0,4.0,0.0,4.0,41.666668,,,,,,,,52.0,0.0,0.370931,0.563721,0.154297,-0.72168,0.957046,-0.191897,-0.316899,-0.017711,-0.05025,-0.041389999999999996,,,,,,,,,,,,,,,,,,,,,,,,,,,,,,,,,,,,,,,,,,,,,,,,,,,,,,,,,,,,,,,,,
22269,1645650771.7249439,105.0,0.0,4325.128418,4677.436035,4220.512695,4277.436035,4265.641113000001,450.0,3.0,59.0,,,,0.0,4.0,1.0,4.0,0.0,4.0,41.666668,,,,,,,,,,,,,,,,,,,,,,,,,,,,,,,,,,,,,,,,,,,,,,,,,,,,,,,,,,,,,,,,,,,,,,,,,,,,,,,,,,,,
22270,1645650771.732758,106.0,0.0,4312.307617,4626.153809,4217.436035,4278.974121,4266.153809,450.0,3.0,59.0,,,,0.0,4.0,1.0,4.0,0.0,4.0,41.666668,,,,,,,,53.0,0.0,0.370931,0.563721,0.154297,-0.72168,0.9463030000000001,-0.18799100000000002,-0.320806,-0.018137,-0.050157,-0.036519,,,,,,,,,,,,,,,,,,,,,,,,,,,,,,,,,,,,,,,,,,,,,,,,,,,,,,,,,,,,,,,,,
22271,1645650771.740573,107.0,0.0,4321.025879,4557.94873,4227.179688,4280.0,4279.487305,16234.0,3.0,59.0,,,,0.0,4.0,1.0,4.0,0.0,4.0,41.666668,,,,,,,,,,,,,,,,,,,,,,,,,,,,,,,,,,,,,,,,,,,,,,,,,,,,,,0.0,0.0,32.0,0.028176999999999997,1.0,0.0,,,,,,,,,,,,,,,,,,,,,,,,,
22272,1645650771.7483869,108.0,0.0,4340.512695,4622.563965,4213.846191,4279.487305,4285.128418,450.0,3.0,59.0,,,,0.0,4.0,1.0,4.0,0.0,4.0,41.666668,,,,,,,,54.0,0.0,0.370931,0.563721,0.154297,-0.72168,0.94435,-0.204593,-0.321782,-0.018472,-0.050073,-0.03858,,,,,,,,,,,,,,,,,,,,,,,,,,,,,,,,,,,,,,,,,,,,,,,,,,,,,,,,,,,,,,,,,
22273,1645650771.756202,109.0,0.0,4336.922852000001,4743.077147999999,4197.436035,4280.512695,4288.205078,450.0,3.0,59.0,,,,0.0,4.0,1.0,4.0,0.0,4.0,41.666668,,,,,,,,,,,,,,,,,,,,,,,,,,,,,,,,,,,,,,,,,,,,,,,,,,,,,,,,,,,,,,,,,,,,,,,,,,,,,,,,,,,,
22274,1645650771.764116,110.0,0.0,4348.205078,4764.102539,4220.512695,4281.538574,4304.102539,450.0,3.0,59.0,,,,0.0,4.0,1.0,4.0,0.0,4.0,41.666668,,,,,,,,55.0,0.0,0.370931,0.563721,0.154297,-0.72168,0.9555809999999999,-0.194339,-0.316899,-0.018919,-0.050144,-0.034087,,,,,,,,,,,,,,,,,,,,,,,,,,,,,,,,,,,,,,,,,,,,,,,,,,,,,,,,,,,,,,,,,
22275,1645650771.77193,111.0,0.0,4358.461426,4702.563965,4229.230957,4279.487305,4310.769043,16234.0,3.0,59.0,,,,0.0,4.0,1.0,4.0,0.0,4.0,41.666668,,,,,,,,,,,,,,,,,,,,1.0,0.0,0.0,,,,,,,,,,,,,,,,,,,,,,,,,,,,,,,,0.0,0.0,32.0,0.032281,1.0,0.0,2.946253,1.237187,1.8927310000000002,0.83,2.335312,15.181427,8.517934,23.180988,23.198013,40.824512,4.987316000000001,3.905736,2.609668,3.463541,5.873888,0.035376,0.0154,0.022304,0.013663,0.008514,3.1555150000000003,1.414409,1.2751,1.301968,2.236224
22276,1645650771.7797449,112.0,0.0,4334.871582,4617.94873,4234.871582,4278.461426,4302.05127,450.0,3.0,59.0,,,,0.0,4.0,1.0,4.0,0.0,4.0,41.666668,,,,,,,,56.0,0.0,0.371033,0.563721,0.154053,-0.72168,0.941909,-0.19531500000000002,-0.318853,-0.017809000000000002,-0.050012,-0.036489,,,,,,,,,,,,,,,,,,,,,,,,,,,,,,,,,,,,,,,,,,,,,,,,,,,,,,,,,,,,,,,,,
22277,1645650771.787659,113.0,0.0,4320.0,4576.410156,4238.461426,4280.512695,4291.794922,450.0,3.0,59.0,,,,0.0,4.0,1.0,4.0,0.0,4.0,41.666668,,,,,,,,,,,,,,,,,,,,,,,,,,,,,,,,,,,,,,,,,,,,,,,,,,,,,,,,,,,,,,,,,,,,,,,,,,,,,,,,,,,,
22278,1645650771.795473,114.0,0.0,4343.077147999999,4638.974121,4241.538574,4281.025879,4294.871582,450.0,3.0,59.0,,,,0.0,4.0,1.0,4.0,0.0,4.0,41.666668,,,,,,,,57.0,0.0,0.37140300000000004,0.563477,0.154053,-0.72168,0.932143,-0.198734,-0.315923,-0.018225,-0.05004,-0.038553,,,,,,,,,,,,,,,,,,,,,,,,,,,,,,,,,,,,,,,,,,,,,,,,,,,,,,,,,,,,,,,,,
22279,1645650771.803288,115.0,0.0,4356.410156,4692.820313,4230.256348,4280.0,4292.820313,16234.0,3.0,59.0,,,,0.0,4.0,1.0,4.0,0.0,4.0,41.666668,,,,,,,,,,,,,,,,,,,,,,,,,,,,,,,,,,,,,,,,,,,,,,,,,,,,,,0.0,0.0,32.0,0.032281,1.0,0.0,,,,,,,,,,,,,,,,,,,,,,,,,
22280,1645650771.811102,116.0,0.0,4346.666504,4651.282227000001,4240.512695,4280.512695,4274.871582,450.0,3.0,59.0,,,,0.0,4.0,1.0,4.0,0.0,4.0,41.666668,,,,,,,,58.0,0.0,0.371302,0.563477,0.154297,-0.72168,0.939467,-0.191409,-0.318853,-0.018550999999999998,-0.050066,-0.034208999999999996,,,,,,,,,,,,,,,,,,,,,,,,,,,,,,,,,,,,,,,,,,,,,,,,,,,,,,,,,,,,,,,,,
22281,1645650771.818917,117.0,0.0,4353.333496,4642.563965,4232.307617,4279.487305,4264.102539,450.0,3.0,59.0,,,,0.0,4.0,1.0,4.0,0.0,4.0,41.666668,,,,,,,,,,,,,,,,,,,,,,,,,,,,,,,,,,,,,,,,,,,,,,,,,,,,,,,,,,,,,,,,,,,,,,,,,,,,,,,,,,,,
22282,1645650771.826631,118.0,0.0,4341.025879,4633.846191,4224.615234000001,4279.487305,4274.358886999999,450.0,3.0,59.0,,,,0.0,4.0,1.0,4.0,0.0,4.0,41.666668,,,,,,,,59.0,0.0,0.371302,0.563477,0.154297,-0.72168,0.953628,-0.202152,-0.318364,-0.018893,-0.05004,-0.030251,,,,,,,,,,,,,,,,,,,,,,,,,,,,,,,,,,,,,,,,,,,,,,,,,,,,,,,,,,,,,,,,,
22283,1645650771.8344462,119.0,0.0,4312.307617,4535.384765999999,4236.922852000001,4280.512695,4289.743652,16234.0,3.0,59.0,,,,0.0,4.0,1.0,4.0,0.0,4.0,41.666668,,,,,,,,,,,,,,,,,,,,,,,,,,,,,,,,,,,,,,,,,,,,,,,,,,,,,,0.0,0.0,32.0,0.032281,1.0,0.0,,,,,,,,,,,,,,,,,,,,,,,,,
22284,1645650771.84226,120.0,0.0,4312.820313,4520.512695,4233.333496,4281.025879,4276.922852000001,450.0,3.0,59.0,,,,0.0,4.0,1.0,4.0,0.0,4.0,41.666668,,,,,,,,60.0,0.0,0.37140300000000004,0.563477,0.154053,-0.72168,0.9555809999999999,-0.190921,-0.33350100000000005,-0.019348,-0.050065,-0.032938999999999996,,,,,,,,,,,,,,,,,,,,,,,,,,,,,,,,,,,,,,,,,,,,,,,,,,,,,,,,,,,,,,,,,
22285,1645650771.850074,121.0,0.0,4328.205078,4647.179688,4201.025879,4280.512695,4272.820313,450.0,3.0,59.0,,,,0.0,4.0,1.0,4.0,0.0,4.0,41.666668,,,,,,,,,,,,,,,,,,,,,,,,,,,,,,,,,,,,,,,,,,,,,,,,,,,,,,,,,,,,,,,,,,,,,,,,,,,,,,,,,,,,
22286,1645650771.8578892,122.0,0.0,4318.974121,4722.05127,4210.769043,4281.025879,4276.922852000001,450.0,3.0,59.0,,,,0.0,4.0,1.0,4.0,0.0,4.0,41.666668,,,,,,,,61.0,0.0,0.37140300000000004,0.563477,0.154053,-0.72168,0.9506979999999999,-0.206058,-0.321294,-0.019708,-0.049941,-0.02901,,,,,,,,,,,,,,,,,,,,,,,,,,,,,,,,,,,,,,,,,,,,,,,,,,,,,,,,,,,,,,,,,
22287,1645650771.8657029,123.0,0.0,4323.077147999999,4683.077147999999,4242.05127,4281.025879,4284.102539,16234.0,3.0,59.0,,,,0.0,4.0,1.0,4.0,0.0,4.0,41.666668,,,,,,,,,,,,,,,,,,,,,,,,,,,,,,,,,,,,,,,,,,,,,,,,,,,,,,0.0,0.0,32.0,0.032281,1.0,0.0,,,,,,,,,,,,,,,,,,,,,,,,,
22288,1645650771.873518,124.0,0.0,4335.384765999999,4662.05127,4234.358886999999,4279.487305,4292.307617,450.0,3.0,59.0,,,,0.0,4.0,1.0,4.0,0.0,4.0,41.666668,,,,,,,,62.0,0.0,0.37140300000000004,0.563477,0.154053,-0.72168,0.9404440000000001,-0.201663,-0.316899,-0.019886,-0.050074,-0.025572,,,,,,,,,,,,,,,,,,,,,,,,,,,,,,,,,,,,,,,,,,,,,,,,,,,,,,,,,,,,,,,,,
22289,1645650771.881332,125.0,0.0,4334.871582,4653.333496,4247.179688,4278.974121,4307.179688,450.0,3.0,59.0,,,,0.0,4.0,1.0,4.0,0.0,4.0,41.666668,,,,,,,,,,,,,,,,,,,,,,,,,,,,,,,,,,,,,,,,,,,,,,,,,,,,,,,,,,,,,,,,,,,,,,,,,,,,,,,,,,,,
22290,1645650771.889246,126.0,0.0,4325.641113000001,4618.461426,4258.461426,4278.974121,4303.589844,450.0,3.0,59.0,,,,0.0,4.0,2.0,4.0,0.0,4.0,50.0,,,,,,,,63.0,0.0,0.37140300000000004,0.563477,0.154053,-0.72168,0.954116,-0.196292,-0.319829,-0.017995,-0.050194,-0.028679000000000003,,,,,,,,,,,,,,,,,,,,,,,,,,,,,,,,,,,,,,,,,,,,,,,,,,,,,,,,,,,,,,,,,
22291,1645650771.8970609,127.0,0.0,4342.563965,4672.820313,4245.128418,4280.512695,4301.025879,235.0,3.0,59.0,,,,0.0,4.0,2.0,4.0,0.0,4.0,50.0,,,,,,,,,,,,,,,,,,,,1.0,0.0,0.0,,,,,,,,,,,,,,,,,,,,,,,,,,,,,,,,0.0,0.0,32.0,0.047945999999999996,1.0,0.0,2.438437,1.594131,2.242975,0.9614389999999999,2.841227,19.391592000000003,8.833228,21.492359,31.328295,43.66404,6.881272,5.0727720000000005,2.381401,5.951748,10.208489,0.066706,0.025626999999999997,0.037189,0.016776,0.010315000000000001,2.469109,1.958519,1.617767,1.544729,3.550975
22292,1645650771.904875,0.0,0.0,4351.794922,4762.05127,4226.666504,4281.538574,4297.436035,450.0,3.0,59.0,,,,0.0,4.0,2.0,4.0,0.0,4.0,50.0,,,,,,,,0.0,0.0,0.37140300000000004,0.563477,0.154053,-0.72168,0.95021,-0.210452,-0.318364,-0.016781,-0.050302,-0.031427,,,,,,,,,,,,,,,,,,,,,,,,,,,,,,,,,,,,,,,,,,,,,,,,,,,,,,,,,,,,,,,,,
22293,1645650771.912689,1.0,0.0,4344.615234000001,4712.307617,4240.512695,4280.512695,4280.0,450.0,3.0,59.0,,,,0.0,4.0,2.0,4.0,0.0,4.0,50.0,,,,,,,,,,,,,,,,,,,,,,,,,,,,,,,,,,,,,,,,,,,,,,,,,,,,,,,,,,,,,,,,,,,,,,,,,,,,,,,,,,,,
22294,1645650771.9205039,2.0,0.0,4329.230957,4594.358886999999,4232.307617,4277.94873,4272.307617,16220.0,3.0,59.0,,,,0.0,4.0,2.0,4.0,0.0,4.0,50.0,,,,,,,,1.0,0.0,0.37140300000000004,0.563477,0.154053,-0.72168,0.9355610000000001,-0.203128,-0.31396999999999997,-0.017349,-0.050252,-0.034046,,,,,,,,,,,,,,,,,,,,,,,,,,,,,,,,,,,,,,,,,,,,,,,,,,,,,,,,,,,,,,,,,
22295,1645650771.928318,3.0,0.0,4323.589844,4574.358886999999,4238.461426,4278.974121,4288.205078,450.0,3.0,59.0,,,,0.0,4.0,2.0,4.0,0.0,4.0,50.0,,,,,,,,,,,,,,,,,,,,,,,,,,,,,,,,,,,,,,,,,,,,,,,,,,,,,,0.0,0.0,32.0,0.047945999999999996,1.0,0.0,,,,,,,,,,,,,,,,,,,,,,,,,
22296,1645650771.936133,4.0,0.0,4329.230957,4620.512695,4247.692383,4282.05127,4291.282227000001,169.0,3.0,59.0,,,,0.0,4.0,2.0,4.0,0.0,4.0,50.0,,,,,,,,2.0,0.0,0.37140300000000004,0.563477,0.154053,-0.72168,0.93019,-0.20068699999999998,-0.320806,-0.017958000000000002,-0.05011,-0.030104000000000002,,,,,,,,,,,,,,,,,,,,,,,,,,,,,,,,,,,,,,,,,,,,,,,,,,,,,,,,,,,,,,,,,
22297,1645650771.943947,5.0,0.0,4328.717772999999,4663.077147999999,4244.615234000001,4280.512695,4284.102539,450.0,3.0,59.0,,,,0.0,4.0,2.0,4.0,0.0,4.0,50.0,,,,,,,,,,,,,,,,,,,,,,,,,,,,,,,,,,,,,,,,,,,,,,,,,,,,,,,,,,,,,,,,,,,,,,,,,,,,,,,,,,,,
22298,1645650771.951762,6.0,0.0,4335.897461,4666.666504,4234.871582,4278.461426,4293.333496,16201.0,3.0,59.0,,,,0.0,4.0,2.0,4.0,0.0,4.0,50.0,,,,,,,,3.0,0.0,0.371033,0.563721,0.154053,-0.72168,0.944839,-0.18945599999999999,-0.318853,-0.018555000000000002,-0.050177,-0.032757999999999995,,,,,,,,,,,,,,,,,,,,,,,,,,,,,,,,,,,,,,,,,,,,,,,,,,,,,,,,,,,,,,,,,
22299,1645650771.959576,7.0,0.0,4358.974121,4653.333496,4240.0,4280.0,4297.94873,450.0,3.0,59.0,,,,0.0,4.0,2.0,4.0,0.0,4.0,50.0,,,,,,,,,,,,,,,,,,,,,,,,,,,,,,,,,,,,,,,,,,,,,,,,,,,,,,0.0,0.0,32.0,0.047945999999999996,1.0,0.0,,,,,,,,,,,,,,,,,,,,,,,,,
22300,1645650771.96749,8.0,0.0,4362.05127,4715.384765999999,4223.589844,4281.538574,4298.974121,450.0,3.0,59.0,,,,0.0,4.0,2.0,4.0,0.0,4.0,50.0,,,,,,,,4.0,0.0,0.371033,0.563721,0.154053,-0.72168,0.9472799999999999,-0.186526,-0.321294,-0.017334,-0.050189,-0.029043,,,,,,,,,,,,,,,,,,,,,,,,,,,,,,,,,,,,,,,,,,,,,,,,,,,,,,,,,,,,,,,,,
22301,1645650771.975305,9.0,0.0,4317.94873,4761.025879,4207.179688,4279.487305,4285.641113000001,0.0,3.0,59.0,,,,0.0,4.0,2.0,4.0,0.0,4.0,50.0,,,,,,,,,,,,,,,,,,,,,,,,,,,,,,,,,,,,,,,,,,,,,,,,,,,,,,,,,,,,,,,,,,,,,,,,,,,,,,,,,,,,
22302,1645650771.983119,10.0,0.0,4308.205078,4682.05127,4218.974121,4278.974121,4282.05127,450.0,3.0,59.0,,,,0.0,4.0,2.0,4.0,0.0,4.0,50.0,,,,,,,,5.0,0.0,0.371504,0.563477,0.153809,-0.72168,0.938003,-0.188479,-0.33105999999999997,-0.017797999999999998,-0.050199,-0.031851,,,,,,,,,,,,,,,,,,,,,,,,,,,,,,,,,,,,,,,,,,,,,,,,,,,,,,,,,,,,,,,,,
22303,1645650771.991033,11.0,0.0,4322.563965,4600.0,4221.025879,4281.025879,4285.641113000001,16197.0,3.0,59.0,,,,0.0,4.0,2.0,4.0,0.0,4.0,50.0,,,,,,,,,,,,,,,,,,,,,,,,,,,,,,,,,,,,,,,,,,,,,,,,,,,,,,0.0,0.0,32.0,0.047945999999999996,1.0,0.0,,,,,,,,,,,,,,,,,,,,,,,,,
22304,1645650771.998848,12.0,0.0,4323.077147999999,4614.358886999999,4205.641113000001,4282.05127,4281.025879,450.0,3.0,59.0,,,,0.0,4.0,2.0,4.0,0.0,4.0,50.0,,,,,,,,6.0,0.0,0.371504,0.563477,0.153809,-0.72168,0.937514,-0.19336199999999998,-0.318853,-0.018216,-0.050111,-0.028177999999999998,,,,,,,,,,,,,,,,,,,,,,,,,,,,,,,,,,,,,,,,,,,,,,,,,,,,,,,,,,,,,,,,,
22305,1645650772.006662,13.0,0.0,4315.384765999999,4640.512695,4195.897461,4278.974121,4258.461426,450.0,3.0,59.0,,,,0.0,4.0,2.0,4.0,0.0,4.0,50.0,,,,,,,,,,,,,,,,,,,,,,,,,,,,,,,,,,,,,,,,,,,,,,,,,,,,,,,,,,,,,,,,,,,,,,,,,,,,,,,,,,,,
22306,1645650772.014576,14.0,0.0,4319.487305,4610.769043,4221.538574,4277.94873,4270.769043,450.0,3.0,59.0,,,,0.0,4.0,2.0,4.0,0.0,4.0,50.0,,,,,,,,7.0,0.0,0.371605,0.563477,0.153564,-0.72168,0.9331200000000001,-0.197269,-0.326665,-0.017126,-0.050129,-0.024628,,,,,,,,,,,,,,,,,,,,,,,,,,,,,,,,,,,,,,,,,,,,,,,,,,,,,,,,,,,,,,,,,
22307,1645650772.022391,15.0,0.0,4314.358886999999,4600.512695,4235.384765999999,4280.512695,4300.512695,16197.0,3.0,59.0,,,,0.0,4.0,2.0,4.0,0.0,4.0,50.0,,,,,,,,,,,,,,,,,,,,1.0,0.0,0.0,,,,,,,,,,,,,,,,,,,,,,,,,,,,,,,,0.0,0.0,32.0,0.049236,1.0,0.0,2.032295,1.895068,2.557229,1.164808,3.432718,25.20146,10.153917,19.829401,41.983833000000004,44.575615,9.522601,6.13529,2.385043,9.061344,15.380310999999999,0.107119,0.037302999999999996,0.055483000000000005,0.020553000000000002,0.012799,1.855247,2.558984,1.922795,1.912153,5.081244
22308,1645650772.030205,16.0,0.0,4318.461426,4631.282227000001,4231.282227000001,4281.025879,4295.384765999999,0.0,3.0,59.0,,,,0.0,4.0,2.0,4.0,0.0,4.0,50.0,,,,,,,,8.0,0.0,0.371504,0.563477,0.153809,-0.72168,0.938003,-0.188479,-0.33105999999999997,-0.01766,-0.050243,-0.021578999999999997,,,,,,,,,,,,,,,,,,,,,,,,,,,,,,,,,,,,,,,,,,,,,,,,,,,,,,,,,,,,,,,,,
22309,1645650772.03802,17.0,0.0,4338.974121,4686.153809,4216.922852000001,4280.0,4284.102539,0.0,3.0,59.0,,,,0.0,4.0,2.0,4.0,0.0,4.0,50.0,,,,,,,,,,,,,,,,,,,,,,,,,,,,,,,,,,,,,,,,,,,,,,,,,,,,,,,,,,,,,,,,,,,,,,,,,,,,,,,,,,,,
22310,1645650772.045834,18.0,0.0,4344.102539,4756.410156,4223.077147999999,4281.025879,4289.743652,0.0,3.0,59.0,,,,0.0,4.0,2.0,4.0,0.0,4.0,50.0,,,,,,,,9.0,0.0,0.371605,0.563477,0.153564,-0.72168,0.9331200000000001,-0.197269,-0.326665,-0.016626,-0.050248,-0.018688999999999997,,,,,,,,,,,,,,,,,,,,,,,,,,,,,,,,,,,,,,,,,,,,,,,,,,,,,,,,,,,,,,,,,
22311,1645650772.053649,19.0,0.0,4330.769043,4735.897461,4214.871582,4279.487305,4274.358886999999,0.0,3.0,59.0,,,,0.0,4.0,2.0,4.0,0.0,4.0,50.0,,,,,,,,,,,,,,,,,,,,,,,,,,,,,,,,,,,,,,,,,,,,,,,,,,,,,,0.0,0.0,32.0,0.049236,1.0,0.0,,,,,,,,,,,,,,,,,,,,,,,,,
22312,1645650772.061463,20.0,0.0,4326.153809,4620.0,4218.461426,4277.94873,4269.743652,0.0,3.0,59.0,,,,0.0,4.0,2.0,4.0,0.0,4.0,50.0,,,,,,,,10.0,0.0,0.371336,0.563721,0.15332,-0.72168,0.938003,-0.20019800000000001,-0.31201599999999996,-0.01721,-0.050351,-0.016331000000000002,,,,,,,,,,,,,,,,,,,,,,,,,,,,,,,,,,,,,,,,,,,,,,,,,,,,,,,,,,,,,,,,,
22313,1645650772.069277,21.0,0.0,4334.871582,4587.179688,4218.974121,4280.512695,4301.025879,0.0,3.0,59.0,,,,0.0,4.0,2.0,4.0,0.0,4.0,50.0,,,,,,,,,,,,,,,,,,,,,,,,,,,,,,,,,,,,,,,,,,,,,,,,,,,,,,,,,,,,,,,,,,,,,,,,,,,,,,,,,,,,
22314,1645650772.077092,22.0,0.0,4329.230957,4617.94873,4226.666504,4281.025879,4302.563965,0.0,3.0,59.0,,,,0.0,4.0,2.0,4.0,0.0,4.0,50.0,,,,,,,,11.0,0.0,0.37191,0.563721,0.153076,-0.721436,0.945815,-0.210941,-0.31250500000000003,-0.017735,-0.050394,-0.020411000000000002,,,,,,,,,,,,,,,,,,,,,,,,,,,,,,,,,,,,,,,,,,,,,,,,,,,,,,,,,,,,,,,,,
22315,1645650772.084906,23.0,0.0,4328.205078,4636.410156,4231.794922,4277.94873,4287.179688,0.0,3.0,59.0,,,,0.0,4.0,2.0,4.0,0.0,4.0,50.0,,,,,,,,,,,,,,,,,,,,,,,,,,,,,,,,,,,,,,,,,,,,,,,,,,,,,,0.0,0.0,32.0,0.049236,1.0,0.0,,,,,,,,,,,,,,,,,,,,,,,,,
22316,1645650772.09282,24.0,0.0,4345.641113000001,4682.05127,4225.641113000001,4279.487305,4294.871582,0.0,3.0,59.0,,,,0.0,4.0,2.0,4.0,0.0,4.0,50.0,,,,,,,,12.0,0.0,0.37143699999999996,0.563721,0.153076,-0.72168,0.93019,-0.19531500000000002,-0.325689,-0.018256,-0.050433,-0.024132,,,,,,,,,,,,,,,,,,,,,,,,,,,,,,,,,,,,,,,,,,,,,,,,,,,,,,,,,,,,,,,,,
22317,1645650772.100635,25.0,0.0,4350.256348,4690.256348,4210.256348,4281.538574,4304.615234000001,0.0,3.0,59.0,,,,0.0,4.0,2.0,4.0,0.0,4.0,50.0,,,,,,,,,,,,,,,,,,,,,,,,,,,,,,,,,,,,,,,,,,,,,,,,,,,,,,,,,,,,,,,,,,,,,,,,,,,,,,,,,,,,
22318,1645650772.108449,26.0,0.0,4326.153809,4626.666504,4214.871582,4280.0,4292.307617,0.0,3.0,59.0,,,,0.0,4.0,2.0,4.0,0.0,4.0,50.0,,,,,,,,13.0,0.0,0.371537,0.563721,0.152832,-0.72168,0.9282370000000001,-0.19677999999999998,-0.319341,-0.018726,-0.05037,-0.027431999999999998,,,,,,,,,,,,,,,,,,,,,,,,,,,,,,,,,,,,,,,,,,,,,,,,,,,,,,,,,,,,,,,,,
22319,1645650772.116264,27.0,0.0,4333.333496,4604.615234000001,4234.871582,4277.94873,4306.153809,0.0,3.0,59.0,,,,0.0,4.0,2.0,4.0,0.0,4.0,50.0,,,,,,,,,,,,,,,,,,,,,,,,,,,,,,,,,,,,,,,,,,,,,,,,,,,,,,0.0,0.0,32.0,0.049236,1.0,0.0,,,,,,,,,,,,,,,,,,,,,,,,,
22320,1645650772.124078,28.0,0.0,4335.384765999999,4652.307617,4227.179688,4279.487305,4309.230957,0.0,3.0,59.0,,,,0.0,4.0,2.0,4.0,0.0,4.0,50.0,,,,,,,,14.0,0.0,0.371641,0.5639649999999999,0.152832,-0.721436,0.9511860000000001,-0.19677999999999998,-0.318364,-0.017537,-0.050362,-0.030402,,,,,,,,,,,,,,,,,,,,,,,,,,,,,,,,,,,,,,,,,,,,,,,,,,,,,,,,,,,,,,,,,
22321,1645650772.131892,29.0,0.0,4324.102539,4718.974121,4198.461426,4280.512695,4284.615234000001,0.0,3.0,59.0,,,,0.0,4.0,2.0,4.0,0.0,4.0,50.0,,,,,,,,,,,,,,,,,,,,,,,,,,,,,,,,,,,,,,,,,,,,,,,,,,,,,,,,,,,,,,,,,,,,,,,,,,,,,,,,,,,,
22322,1645650772.139707,30.0,0.0,4329.230957,4741.025879,4175.897461,4278.974121,4269.230957,0.0,3.0,59.0,,,,0.0,4.0,2.0,4.0,0.0,4.0,50.0,,,,,,,,15.0,0.0,0.372114,0.5639649999999999,0.152832,-0.721191,0.9433739999999999,-0.201663,-0.32910700000000004,-0.018029,-0.050355000000000004,-0.033172,,,,,,,,,,,,,,,,,,,,,,,,,,,,,,,,,,,,,,,,,,,,,,,,,,,,,,,,,,,,,,,,,
22323,1645650772.147521,31.0,0.0,4338.461426,4671.794922,4211.794922,4279.487305,4289.743652,0.0,3.0,59.0,,,,0.0,4.0,2.0,4.0,0.0,4.0,50.0,1.0,8.333333,3.0,0.0,1.0,0.0,3.0,,,,,,,,,,,,,1.0,0.0,0.0,,,,,,,,,,,,,,,,,,,,,,,,,,,,,,,,0.0,0.0,1.0,0.0,1.0,0.0,1.815402,2.0417799999999997,2.704652,1.437868,3.9209620000000003,31.708979,12.539888000000001,18.938723,53.649426,42.875336,12.219992999999999,6.821192999999999,2.5769830000000002,11.92281,20.006586,0.14616300000000002,0.047199,0.07230299999999999,0.024442,0.015416999999999998,1.4123729999999999,3.18628,2.0904700000000003,2.284569,6.412232
22324,1645650772.155336,32.0,0.0,4328.205078,4630.256348,4240.512695,4281.025879,4306.666504,0.0,3.0,59.0,,,,0.0,4.0,2.0,4.0,0.0,4.0,50.0,,,,,,,,16.0,0.0,0.372114,0.5639649999999999,0.152832,-0.721191,0.9433739999999999,-0.20019800000000001,-0.31201599999999996,-0.018424,-0.050398,-0.035519,,,,,,,,,,,,,,,,,,,,,,,,,,,,,,,,,,,,,,,,,,,,,,,,,,,,,,,,,,,,,,,,,
22325,1645650772.16325,33.0,0.0,4323.077147999999,4652.820313,4238.461426,4280.512695,4296.922852000001,0.0,3.0,59.0,,,,0.0,4.0,2.0,4.0,0.0,4.0,50.0,,,,,,,,,,,,,,,,,,,,,,,,,,,,,,,,,,,,,,,,,,,,,,,,,,,,,,,,,,,,,,,,,,,,,,,,,,,,,,,,,,,,
22326,1645650772.171065,34.0,0.0,4321.538574,4617.436035,4228.205078,4277.94873,4285.641113000001,0.0,3.0,59.0,,,,0.0,4.0,2.0,4.0,0.0,4.0,50.0,,,,,,,,17.0,0.0,0.372317,0.564209,0.152588,-0.720947,0.945815,-0.190433,-0.315923,-0.017216,-0.050339,-0.037631,,,,,,,,,,,,,,,,,,,,,,,,,,,,,,,,,,,,,,,,,,,,,,,,,,,,,,,,,,,,,,,,,
22327,1645650772.17888,35.0,0.0,4316.410156,4572.307617,4242.05127,4280.0,4294.871582,0.0,3.0,59.0,,,,0.0,4.0,2.0,4.0,0.0,4.0,50.0,,,,,,,,,,,,,,,,,,,,,,,,,,,,,,,,,,,,,,,,,,,,,,,,,,,,,,0.0,0.0,1.0,0.0,1.0,0.0,,,,,,,,,,,,,,,,,,,,,,,,,
22328,1645650772.186694,36.0,0.0,4323.077147999999,4620.0,4222.05127,4281.025879,4291.282227000001,0.0,3.0,59.0,,,,0.0,4.0,2.0,4.0,0.0,4.0,50.0,,,,,,,,18.0,0.0,0.372317,0.564209,0.152588,-0.720947,0.940932,-0.199222,-0.327642,-0.017692,-0.050285,-0.03963,,,,,,,,,,,,,,,,,,,,,,,,,,,,,,,,,,,,,,,,,,,,,,,,,,,,,,,,,,,,,,,,,
22329,1645650772.194509,37.0,0.0,4326.666504,4682.563965,4209.743652,4278.974121,4272.307617,0.0,3.0,59.0,,,,0.0,4.0,2.0,4.0,0.0,4.0,50.0,,,,,,,,,,,,,,,,,,,,,,,,,,,,,,,,,,,,,,,,,,,,,,,,,,,,,,,,,,,,,,,,,,,,,,,,,,,,,,,,,,,,
22330,1645650772.202323,38.0,0.0,4325.128418,4661.025879,4230.769043,4279.487305,4283.589844,0.0,3.0,59.0,,,,0.0,4.0,2.0,4.0,0.0,4.0,50.0,,,,,,,,19.0,0.0,0.372317,0.564209,0.152588,-0.720947,0.9243309999999999,-0.198734,-0.311528,-0.018071,-0.050237000000000004,-0.035081,,,,,,,,,,,,,,,,,,,,,,,,,,,,,,,,,,,,,,,,,,,,,,,,,,,,,,,,,,,,,,,,,
22331,1645650772.210138,39.0,0.0,4329.230957,4607.692383,4247.179688,4279.487305,4298.461426,0.0,3.0,59.0,,,,0.0,4.0,2.0,4.0,0.0,4.0,50.0,,,,,,,,,,,,,,,,,,,,,,,,,,,,,,,,,,,,,,,,,,,,,,,,,,,,,,0.0,0.0,1.0,0.0,1.0,0.0,,,,,,,,,,,,,,,,,,,,,,,,,
22332,1645650772.217953,40.0,0.0,4330.256348,4582.05127,4232.307617,4278.974121,4296.922852000001,0.0,3.0,59.0,,,,0.0,4.0,2.0,4.0,0.0,4.0,50.0,,,,,,,,20.0,0.0,0.372417,0.564209,0.152344,-0.720947,0.9399559999999999,-0.21240599999999998,-0.325689,-0.01851,-0.050243,-0.037188,,,,,,,,,,,,,,,,,,,,,,,,,,,,,,,,,,,,,,,,,,,,,,,,,,,,,,,,,,,,,,,,,
22333,1645650772.225767,41.0,0.0,4312.820313,4592.307617,4223.589844,4280.0,4283.077147999999,0.0,3.0,59.0,,,,0.0,4.0,2.0,4.0,0.0,4.0,50.0,,,,,,,,,,,,,,,,,,,,,,,,,,,,,,,,,,,,,,,,,,,,,,,,,,,,,,,,,,,,,,,,,,,,,,,,,,,,,,,,,,,,
22334,1645650772.233582,42.0,0.0,4329.743652,4650.256348,4225.641113000001,4281.025879,4296.922852000001,0.0,3.0,59.0,,,,0.0,4.0,2.0,4.0,0.0,4.0,50.0,,,,,,,,21.0,0.0,0.372417,0.564209,0.152344,-0.720947,0.933608,-0.20556999999999997,-0.31250500000000003,-0.018954,-0.050345999999999995,-0.032931999999999996,,,,,,,,,,,,,,,,,,,,,,,,,,,,,,,,,,,,,,,,,,,,,,,,,,,,,,,,,,,,,,,,,
22335,1645650772.241496,43.0,0.0,4355.897461,4707.179688,4228.717772999999,4280.0,4306.153809,0.0,3.0,59.0,,,,0.0,4.0,2.0,4.0,0.0,4.0,50.0,,,,,,,,,,,,,,,,,,,,,,,,,,,,,,,,,,,,,,,,,,,,,,,,,,,,,,0.0,0.0,1.0,0.0,1.0,0.0,,,,,,,,,,,,,,,,,,,,,,,,,
22336,1645650772.249311,44.0,0.0,4347.179688,4661.025879,4246.153809,4280.0,4296.410156,0.0,3.0,59.0,,,,0.0,4.0,2.0,4.0,0.0,4.0,50.0,,,,,,,,22.0,0.0,0.37204699999999996,0.564453,0.152344,-0.720947,0.941909,-0.19677999999999998,-0.323735,-0.017693,-0.050341000000000004,-0.035352,,,,,,,,,,,,,,,,,,,,,,,,,,,,,,,,,,,,,,,,,,,,,,,,,,,,,,,,,,,,,,,,,
22337,1645650772.257125,45.0,0.0,4320.0,4603.077147999999,4238.974121,4280.512695,4281.025879,0.0,3.0,59.0,,,,0.0,4.0,2.0,4.0,0.0,4.0,50.0,,,,,,,,,,,,,,,,,,,,,,,,,,,,,,,,,,,,,,,,,,,,,,,,,,,,,,,,,,,,,,,,,,,,,,,,,,,,,,,,,,,,
22338,1645650772.26494,46.0,0.0,4321.538574,4669.743652,4220.0,4279.487305,4278.974121,0.0,3.0,59.0,,,,0.0,4.0,2.0,4.0,0.0,4.0,50.0,,,,,,,,23.0,0.0,0.372417,0.564209,0.152344,-0.720947,0.952651,-0.20556999999999997,-0.317388,-0.018219,-0.050385,-0.03128,,,,,,,,,,,,,,,,,,,,,,,,,,,,,,,,,,,,,,,,,,,,,,,,,,,,,,,,,,,,,,,,,
22339,1645650772.272754,47.0,0.0,4321.025879,4707.692383,4218.461426,4280.512695,4277.436035,0.0,3.0,59.0,,,,0.0,4.0,2.0,4.0,0.0,4.0,50.0,,,,,,,,,,,,,,,,,,,,1.0,0.0,0.0,,,,,,,,,,,,,,,,,,,,,,,,,,,,,,,,0.0,0.0,1.0,0.0,1.0,0.0,1.773204,2.016528,2.6634990000000003,1.750327,4.118315,37.233565999999996,15.972048999999998,19.633614,64.183846,38.610714,14.091198,6.92886,2.818594,13.600655999999999,22.589581,0.171005,0.052055,0.082093,0.027475,0.017541,1.18086,3.817782,2.075133,2.517236,7.112719
22340,1645650772.280568,48.0,0.0,4333.333496,4655.384765999999,4243.077147999999,4281.025879,4280.512695,0.0,3.0,59.0,,,,0.0,4.0,2.0,4.0,0.0,4.0,50.0,,,,,,,,24.0,0.0,0.37194699999999997,0.564453,0.152588,-0.720947,0.946792,-0.19531500000000002,-0.320317,-0.018546,-0.050229,-0.033865,,,,,,,,,,,,,,,,,,,,,,,,,,,,,,,,,,,,,,,,,,,,,,,,,,,,,,,,,,,,,,,,,
22341,1645650772.288383,49.0,0.0,4356.410156,4650.769043,4229.743652,4279.487305,4282.563965,0.0,3.0,59.0,,,,0.0,4.0,2.0,4.0,0.0,4.0,50.0,,,,,,,,,,,,,,,,,,,,,,,,,,,,,,,,,,,,,,,,,,,,,,,,,,,,,,,,,,,,,,,,,,,,,,,,,,,,,,,,,,,,
22342,1645650772.2961972,50.0,0.0,4333.333496,4655.897461,4228.205078,4279.487305,4282.563965,0.0,3.0,59.0,,,,0.0,4.0,2.0,4.0,0.0,4.0,50.0,,,,,,,,25.0,0.0,0.37194699999999997,0.564453,0.152588,-0.720947,0.941421,-0.201175,-0.324712,-0.019035,-0.050332999999999996,-0.029795,,,,,,,,,,,,,,,,,,,,,,,,,,,,,,,,,,,,,,,,,,,,,,,,,,,,,,,,,,,,,,,,,
22343,1645650772.3040118,51.0,0.0,4296.922852000001,4571.282227000001,4240.512695,4280.512695,4282.563965,0.0,3.0,59.0,,,,0.0,4.0,2.0,4.0,0.0,4.0,50.0,,,,,,,,,,,,,,,,,,,,,,,,,,,,,,,,,,,,,,,,,,,,,,,,,,,,,,0.0,0.0,1.0,0.0,1.0,0.0,,,,,,,,,,,,,,,,,,,,,,,,,
22344,1645650772.311926,52.0,0.0,4309.743652,4566.666504,4235.384765999999,4281.025879,4287.692383,0.0,3.0,59.0,,,,0.0,4.0,2.0,4.0,0.0,4.0,50.0,,,,,,,,26.0,0.0,0.371473,0.564453,0.152588,-0.721191,0.933608,-0.202152,-0.319829,-0.017717,-0.05028,-0.032527999999999994,,,,,,,,,,,,,,,,,,,,,,,,,,,,,,,,,,,,,,,,,,,,,,,,,,,,,,,,,,,,,,,,,
22345,1645650772.31974,53.0,0.0,4339.487305,4700.512695,4197.94873,4280.0,4292.820313,0.0,3.0,59.0,,,,0.0,4.0,2.0,4.0,0.0,4.0,50.0,,,,,,,,,,,,,,,,,,,,,,,,,,,,,,,,,,,,,,,,,,,,,,,,,,,,,,,,,,,,,,,,,,,,,,,,,,,,,,,,,,,,
22346,1645650772.3275552,54.0,0.0,4347.179688,4689.230957,4213.333496,4278.974121,4292.820313,0.0,3.0,59.0,,,,0.0,4.0,2.0,4.0,0.0,4.0,50.0,,,,,,,,27.0,0.0,0.371473,0.564453,0.152588,-0.721191,0.945327,-0.20556999999999997,-0.32227100000000003,-0.018045,-0.050233,-0.028787,,,,,,,,,,,,,,,,,,,,,,,,,,,,,,,,,,,,,,,,,,,,,,,,,,,,,,,,,,,,,,,,,
22347,1645650772.3353689,55.0,0.0,4348.717772999999,4556.410156,4237.436035,4279.487305,4297.436035,0.0,3.0,59.0,,,,0.0,4.0,2.0,4.0,0.0,4.0,50.0,,,,,,,,,,,,,,,,,,,,,,,,,,,,,,,,,,,,,,,,,,,,,,,,,,,,,,0.0,0.0,1.0,0.0,1.0,0.0,,,,,,,,,,,,,,,,,,,,,,,,,
22348,1645650772.343184,56.0,0.0,4332.820313,4589.230957,4210.769043,4280.0,4299.487305,0.0,3.0,59.0,,,,0.0,4.0,2.0,4.0,0.0,4.0,50.0,,,,,,,,28.0,0.0,0.371473,0.564453,0.152588,-0.721191,0.9428850000000001,-0.190433,-0.32227100000000003,-0.018487,-0.050337,-0.031620999999999996,,,,,,,,,,,,,,,,,,,,,,,,,,,,,,,,,,,,,,,,,,,,,,,,,,,,,,,,,,,,,,,,,
22349,1645650772.3509982,57.0,0.0,4329.230957,4664.102539,4191.794922,4278.461426,4301.025879,0.0,3.0,59.0,,,,0.0,4.0,2.0,4.0,0.0,4.0,50.0,,,,,,,,,,,,,,,,,,,,,,,,,,,,,,,,,,,,,,,,,,,,,,,,,,,,,,,,,,,,,,,,,,,,,,,,,,,,,,,,,,,,
22350,1645650772.3588119,58.0,0.0,4342.05127,4627.692383,4205.641113000001,4278.461426,4285.641113000001,0.0,3.0,59.0,,,,0.0,4.0,2.0,4.0,0.0,4.0,50.0,,,,,,,,29.0,0.0,0.371373,0.564453,0.152832,-0.721191,0.9438620000000001,-0.190921,-0.31201599999999996,-0.018933000000000002,-0.050381,-0.027873000000000002,,,,,,,,,,,,,,,,,,,,,,,,,,,,,,,,,,,,,,,,,,,,,,,,,,,,,,,,,,,,,,,,,
22351,1645650772.366627,59.0,0.0,4355.897461,4651.282227000001,4214.871582,4281.025879,4288.205078,0.0,3.0,59.0,,,,0.0,4.0,2.0,4.0,0.0,4.0,50.0,,,,,,,,,,,,,,,,,,,,,,,,,,,,,,,,,,,,,,,,,,,,,,,,,,,,,,0.0,0.0,1.0,0.0,1.0,0.0,,,,,,,,,,,,,,,,,,,,,,,,,
22352,1645650772.374441,60.0,0.0,4337.94873,4706.153809,4218.974121,4281.538574,4293.846191,0.0,3.0,59.0,,,,0.0,4.0,2.0,4.0,0.0,4.0,50.0,,,,,,,,30.0,0.0,0.371373,0.564453,0.152832,-0.721191,0.9306780000000001,-0.19677999999999998,-0.314946,-0.019334999999999998,-0.050324,-0.030848,,,,,,,,,,,,,,,,,,,,,,,,,,,,,,,,,,,,,,,,,,,,,,,,,,,,,,,,,,,,,,,,,
22353,1645650772.3823562,61.0,0.0,4317.436035,4646.153809,4235.384765999999,4278.974121,4286.666504,0.0,3.0,59.0,,,,0.0,4.0,2.0,4.0,0.0,4.0,50.0,,,,,,,,,,,,,,,,,,,,,,,,,,,,,,,,,,,,,,,,,,,,,,,,,,,,,,,,,,,,,,,,,,,,,,,,,,,,,,,,,,,,
22354,1645650772.3901699,62.0,0.0,4311.282227000001,4626.153809,4225.641113000001,4278.974121,4273.333496,0.0,3.0,59.0,,,,0.0,4.0,2.0,4.0,0.0,4.0,50.0,,,,,,,,31.0,0.0,0.371273,0.564453,0.153076,-0.721191,0.933608,-0.202152,-0.316411,-0.019647,-0.050321,-0.027226,,,,,,,,,,,,,,,,,,,,,,,,,,,,,,,,,,,,,,,,,,,,,,,,,,,,,,,,,,,,,,,,,
22355,1645650772.398084,63.0,0.0,4309.743652,4669.230957,4218.974121,4280.0,4273.333496,0.0,3.0,59.0,,,,0.0,4.0,0.0,4.0,0.0,4.0,33.333332,,,,,,,,,,,,,,,,,,,,1.0,0.0,0.0,,,,,,,,,,,,,,,,,,,,,,,,,,,,,,,,0.0,0.0,1.0,0.0,1.0,0.0,1.832514,1.8654240000000002,2.50975,2.0447990000000003,3.924568,40.012264,20.149513,22.209055,71.609589,32.659164000000004,14.486229999999999,6.4035519999999995,2.97755,13.524856,22.20373,0.17281,0.050116,0.08121,0.02865,0.018737,1.127037,4.382162999999999,1.9088889999999998,2.521602,6.937862
22356,1645650772.405899,64.0,0.0,4311.282227000001,4656.922852000001,4216.922852000001,4279.487305,4272.820313,450.0,3.0,59.0,,,,0.0,4.0,0.0,4.0,0.0,4.0,33.333332,,,,,,,,32.0,0.0,0.370798,0.564453,0.153076,-0.721436,0.9428850000000001,-0.181643,-0.31104,-0.018463999999999998,-0.050318,-0.030216000000000003,,,,,,,,,,,,,,,,,,,,,,,,,,,,,,,,,,,,,,,,,,,,,,,,,,,,,,,,,,,,,,,,,
22357,1645650772.4137142,65.0,0.0,4327.179688,4625.128418,4243.077147999999,4278.974121,4283.077147999999,450.0,3.0,59.0,,,,0.0,4.0,0.0,4.0,0.0,4.0,33.333332,,,,,,,,,,,,,,,,,,,,,,,,,,,,,,,,,,,,,,,,,,,,,,,,,,,,,,,,,,,,,,,,,,,,,,,,,,,,,,,,,,,,
22358,1645650772.4215279,66.0,0.0,4320.0,4571.794922,4254.358886999999,4280.512695,4292.820313,16196.0,3.0,59.0,,,,0.0,4.0,0.0,4.0,0.0,4.0,33.333332,,,,,,,,33.0,0.0,0.370798,0.564453,0.153076,-0.721436,0.9399559999999999,-0.20019800000000001,-0.318853,-0.018765999999999998,-0.050267,-0.033005,,,,,,,,,,,,,,,,,,,,,,,,,,,,,,,,,,,,,,,,,,,,,,,,,,,,,,,,,,,,,,,,,
22359,1645650772.429343,67.0,0.0,4295.384765999999,4573.846191,4229.743652,4281.538574,4278.461426,450.0,3.0,59.0,,,,0.0,4.0,0.0,4.0,0.0,4.0,33.333332,,,,,,,,,,,,,,,,,,,,,,,,,,,,,,,,,,,,,,,,,,,,,,,,,,,,,,0.0,0.0,1.0,0.0,1.0,0.0,,,,,,,,,,,,,,,,,,,,,,,,,
22360,1645650772.437158,68.0,0.0,4307.692383,4693.846191,4187.179688,4280.512695,4250.769043,0.0,3.0,59.0,,,,0.0,4.0,0.0,4.0,0.0,4.0,33.333332,,,,,,,,34.0,0.0,0.370697,0.564453,0.15332,-0.721436,0.937026,-0.18945599999999999,-0.315923,-0.019184,-0.050318,-0.029168,,,,,,,,,,,,,,,,,,,,,,,,,,,,,,,,,,,,,,,,,,,,,,,,,,,,,,,,,,,,,,,,,
22361,1645650772.4450722,69.0,0.0,4320.0,4722.05127,4193.846191,4278.974121,4252.820313,450.0,3.0,59.0,,,,0.0,4.0,0.0,4.0,0.0,4.0,33.333332,,,,,,,,,,,,,,,,,,,,,,,,,,,,,,,,,,,,,,,,,,,,,,,,,,,,,,,,,,,,,,,,,,,,,,,,,,,,,,,,,,,,
22362,1645650772.4528859,70.0,0.0,4300.512695,4617.436035,4209.743652,4278.461426,4282.563965,16143.0,3.0,59.0,,,,0.0,4.0,0.0,4.0,0.0,4.0,33.333332,,,,,,,,35.0,0.0,0.370697,0.564453,0.15332,-0.721436,0.9399559999999999,-0.194339,-0.32227100000000003,-0.017998,-0.050316,-0.031866000000000005,,,,,,,,,,,,,,,,,,,,,,,,,,,,,,,,,,,,,,,,,,,,,,,,,,,,,,,,,,,,,,,,,
22363,1645650772.460701,71.0,0.0,4295.897461,4613.846191,4214.871582,4279.487305,4281.025879,450.0,3.0,59.0,,,,0.0,4.0,0.0,4.0,0.0,4.0,33.333332,,,,,,,,,,,,,,,,,,,,,,,,,,,,,,,,,,,,,,,,,,,,,,,,,,,,,,0.0,0.0,1.0,0.0,1.0,0.0,,,,,,,,,,,,,,,,,,,,,,,,,
22364,1645650772.4685152,72.0,0.0,4322.05127,4704.615234000001,4211.282227000001,4279.487305,4271.282227000001,450.0,3.0,59.0,,,,0.0,4.0,0.0,4.0,0.0,4.0,33.333332,,,,,,,,36.0,0.0,0.370798,0.564453,0.153076,-0.721436,0.9399559999999999,-0.20019800000000001,-0.318853,-0.018347,-0.050265,-0.03449,,,,,,,,,,,,,,,,,,,,,,,,,,,,,,,,,,,,,,,,,,,,,,,,,,,,,,,,,,,,,,,,,
22365,1645650772.47633,73.0,0.0,4331.794922,4731.282227000001,4222.05127,4279.487305,4280.512695,0.0,3.0,59.0,,,,0.0,4.0,0.0,4.0,0.0,4.0,33.333332,,,,,,,,,,,,,,,,,,,,,,,,,,,,,,,,,,,,,,,,,,,,,,,,,,,,,,,,,,,,,,,,,,,,,,,,,,,,,,,,,,,,
22366,1645650772.484144,74.0,0.0,4336.410156,4669.230957,4240.0,4280.512695,4291.282227000001,450.0,3.0,59.0,,,,0.0,4.0,0.0,4.0,0.0,4.0,33.333332,,,,,,,,37.0,0.0,0.370697,0.564453,0.15332,-0.721436,0.9399559999999999,-0.194339,-0.32227100000000003,-0.017245,-0.050268,-0.036656,,,,,,,,,,,,,,,,,,,,,,,,,,,,,,,,,,,,,,,,,,,,,,,,,,,,,,,,,,,,,,,,,
22367,1645650772.491958,75.0,0.0,4324.102539,4558.974121,4231.794922,4279.487305,4281.538574,16204.0,3.0,59.0,,,,0.0,4.0,0.0,4.0,0.0,4.0,33.333332,,,,,,,,,,,,,,,,,,,,,,,,,,,,,,,,,,,,,,,,,,,,,,,,,,,,,,0.0,0.0,1.0,0.0,1.0,0.0,,,,,,,,,,,,,,,,,,,,,,,,,
22368,1645650772.499773,76.0,0.0,4315.897461,4541.025879,4218.974121,4280.0,4286.666504,450.0,3.0,59.0,,,,0.0,4.0,0.0,4.0,0.0,4.0,33.333332,,,,,,,,38.0,0.0,0.370697,0.564453,0.15332,-0.721436,0.941909,-0.194339,-0.321294,-0.017766,-0.050319,-0.038752999999999996,,,,,,,,,,,,,,,,,,,,,,,,,,,,,,,,,,,,,,,,,,,,,,,,,,,,,,,,,,,,,,,,,
22369,1645650772.507587,77.0,0.0,4315.897461,4671.282227000001,4201.025879,4280.512695,4280.0,450.0,3.0,59.0,,,,0.0,4.0,0.0,4.0,0.0,4.0,33.333332,,,,,,,,,,,,,,,,,,,,,,,,,,,,,,,,,,,,,,,,,,,,,,,,,,,,,,,,,,,,,,,,,,,,,,,,,,,,,,,,,,,,
22370,1645650772.515502,78.0,0.0,4312.307617,4705.641113000001,4201.025879,4279.487305,4267.179688,450.0,3.0,59.0,,,,0.0,4.0,0.0,4.0,0.0,4.0,33.333332,,,,,,,,39.0,0.0,0.370697,0.564453,0.15332,-0.721436,0.9463030000000001,-0.192874,-0.320317,-0.016673,-0.050365,-0.040688,,,,,,,,,,,,,,,,,,,,,,,,,,,,,,,,,,,,,,,,,,,,,,,,,,,,,,,,,,,,,,,,,
22371,1645650772.523316,79.0,0.0,4306.153809,4553.846191,4217.94873,4278.974121,4270.769043,16204.0,3.0,59.0,,,,0.0,4.0,0.0,4.0,0.0,4.0,33.333332,,,,,,,,,,,,,,,,,,,,1.0,0.0,0.0,,,,,,,,,,,,,,,,,,,,,,,,,,,,,,,,0.0,0.0,1.0,0.0,512.0,1.0,1.92103,1.6576990000000003,2.347168,2.269752,3.3764440000000002,39.028755,24.439432,26.373194,74.49515500000001,26.331457,13.250067999999999,5.370157,3.007501,11.748899,18.950363,0.150518,0.041922,0.069744,0.027401,0.018906,1.180818,4.753466,1.6850939999999999,2.296448,5.946063
22372,1645650772.53113,80.0,0.0,4311.282227000001,4534.358886999999,4226.153809,4280.0,4276.922852000001,450.0,3.0,59.0,,,,0.0,4.0,0.0,4.0,0.0,4.0,33.333332,,,,,,,,40.0,0.0,0.370697,0.564453,0.15332,-0.721436,0.9365379999999999,-0.20947600000000002,-0.311528,-0.017057,-0.050456,-0.035983999999999995,,,,,,,,,,,,,,,,,,,,,,,,,,,,,,,,,,,,,,,,,,,,,,,,,,,,,,,,,,,,,,,,,
22373,1645650772.538945,81.0,0.0,4304.615234000001,4710.769043,4190.769043,4280.512695,4266.666504,450.0,3.0,59.0,,,,0.0,4.0,0.0,4.0,0.0,4.0,33.333332,,,,,,,,,,,,,,,,,,,,,,,,,,,,,,,,,,,,,,,,,,,,,,,,,,,,,,,,,,,,,,,,,,,,,,,,,,,,,,,,,,,,
22374,1645650772.546759,82.0,0.0,4304.102539,4746.153809,4195.384765999999,4279.487305,4256.922852000001,450.0,3.0,59.0,,,,0.0,4.0,0.0,4.0,0.0,4.0,33.333332,,,,,,,,41.0,0.0,0.370593,0.564209,0.15332,-0.72168,0.945815,-0.20019800000000001,-0.31201599999999996,-0.017547999999999998,-0.050537,-0.038148,,,,,,,,,,,,,,,,,,,,,,,,,,,,,,,,,,,,,,,,,,,,,,,,,,,,,,,,,,,,,,,,,
22375,1645650772.554574,83.0,0.0,4327.692383,4643.077147999999,4220.512695,4278.461426,4263.589844,16204.0,3.0,59.0,,,,0.0,4.0,0.0,4.0,0.0,4.0,33.333332,,,,,,,,,,,,,,,,,,,,,,,,,,,,,,,,,,,,,,,,,,,,,,,,,,,,,,0.0,0.0,1.0,0.0,512.0,1.0,,,,,,,,,,,,,,,,,,,,,,,,,
22376,1645650772.5623882,84.0,0.0,4331.282227000001,4614.358886999999,4239.487305,4278.461426,4291.794922,450.0,3.0,59.0,,,,0.0,4.0,0.0,4.0,0.0,4.0,33.333332,,,,,,,,42.0,0.0,0.370492,0.564209,0.153564,-0.72168,0.954116,-0.202152,-0.320806,-0.01804,-0.050562,-0.040144,,,,,,,,,,,,,,,,,,,,,,,,,,,,,,,,,,,,,,,,,,,,,,,,,,,,,,,,,,,,,,,,,
22377,1645650772.5702019,85.0,0.0,4312.820313,4601.538574,4236.410156,4280.512695,4300.512695,450.0,3.0,59.0,,,,0.0,4.0,0.0,4.0,0.0,4.0,33.333332,,,,,,,,,,,,,,,,,,,,,,,,,,,,,,,,,,,,,,,,,,,,,,,,,,,,,,,,,,,,,,,,,,,,,,,,,,,,,,,,,,,,
22378,1645650772.578017,86.0,0.0,4307.179688,4614.358886999999,4207.179688,4281.025879,4264.615234000001,450.0,3.0,59.0,,,,0.0,4.0,0.0,4.0,0.0,4.0,33.333332,,,,,,,,43.0,0.0,0.370492,0.564209,0.153564,-0.72168,0.9580219999999999,-0.192386,-0.3252,-0.018433,-0.050584,-0.041842000000000004,,,,,,,,,,,,,,,,,,,,,,,,,,,,,,,,,,,,,,,,,,,,,,,,,,,,,,,,,,,,,,,,,
22379,1645650772.5858312,87.0,0.0,4310.256348,4733.333496,4164.102539,4278.461426,4254.358886999999,16204.0,3.0,59.0,,,,0.0,4.0,0.0,4.0,0.0,4.0,33.333332,,,,,,,,,,,,,,,,,,,,,,,,,,,,,,,,,,,,,,,,,,,,,,,,,,,,,,0.0,0.0,1.0,0.0,512.0,1.0,,,,,,,,,,,,,,,,,,,,,,,,,
22380,1645650772.5937462,88.0,0.0,4311.794922,4758.461426,4191.794922,4278.974121,4272.820313,450.0,3.0,59.0,,,,0.0,4.0,0.0,4.0,0.0,4.0,33.333332,,,,,,,,44.0,0.0,0.37096799999999996,0.564209,0.153564,-0.721436,0.939467,-0.188479,-0.330083,-0.018982,-0.050506,-0.037072,,,,,,,,,,,,,,,,,,,,,,,,,,,,,,,,,,,,,,,,,,,,,,,,,,,,,,,,,,,,,,,,,
22381,1645650772.6015599,89.0,0.0,4325.128418,4635.897461,4232.307617,4280.0,4286.666504,450.0,3.0,59.0,,,,0.0,4.0,0.0,4.0,0.0,4.0,33.333332,,,,,,,,,,,,,,,,,,,,,,,,,,,,,,,,,,,,,,,,,,,,,,,,,,,,,,,,,,,,,,,,,,,,,,,,,,,,,,,,,,,,
22382,1645650772.609374,90.0,0.0,4309.230957,4606.153809,4211.282227000001,4278.974121,4280.512695,450.0,3.0,59.0,,,,0.0,4.0,0.0,4.0,0.0,4.0,33.333332,,,,,,,,45.0,0.0,0.37039099999999997,0.564209,0.153809,-0.72168,0.944839,-0.198245,-0.31787600000000005,-0.017719,-0.050485,-0.039029,,,,,,,,,,,,,,,,,,,,,,,,,,,,,,,,,,,,,,,,,,,,,,,,,,,,,,,,,,,,,,,,,
22383,1645650772.6171892,91.0,0.0,4294.358886999999,4667.692383,4189.743652,4278.461426,4266.666504,16204.0,3.0,59.0,,,,0.0,4.0,0.0,4.0,0.0,4.0,33.333332,,,,,,,,,,,,,,,,,,,,,,,,,,,,,,,,,,,,,,,,,,,,,,,,,,,,,,0.0,0.0,1.0,0.0,512.0,1.0,,,,,,,,,,,,,,,,,,,,,,,,,
22384,1645650772.6250029,92.0,0.0,4300.0,4663.077147999999,4190.769043,4278.461426,4239.487305,450.0,3.0,59.0,,,,0.0,4.0,0.0,4.0,0.0,4.0,33.333332,,,,,,,,46.0,0.0,0.37039099999999997,0.564209,0.153809,-0.72168,0.939467,-0.210941,-0.319341,-0.018290999999999998,-0.050466000000000004,-0.034491,,,,,,,,,,,,,,,,,,,,,,,,,,,,,,,,,,,,,,,,,,,,,,,,,,,,,,,,,,,,,,,,,
22385,1645650772.632818,93.0,0.0,4305.128418,4582.05127,4215.897461,4278.974121,4250.256348,450.0,3.0,59.0,,,,0.0,4.0,0.0,4.0,0.0,4.0,33.333332,,,,,,,,,,,,,,,,,,,,,,,,,,,,,,,,,,,,,,,,,,,,,,,,,,,,,,,,,,,,,,,,,,,,,,,,,,,,,,,,,,,,
22386,1645650772.640632,94.0,0.0,4290.769043,4535.384765999999,4225.641113000001,4278.974121,4274.358886999999,450.0,3.0,59.0,,,,0.0,4.0,0.0,4.0,0.0,4.0,33.333332,,,,,,,,47.0,0.0,0.37029,0.564209,0.154053,-0.72168,0.952651,-0.202152,-0.318853,-0.018757,-0.050497,-0.036706,,,,,,,,,,,,,,,,,,,,,,,,,,,,,,,,,,,,,,,,,,,,,,,,,,,,,,,,,,,,,,,,,
22387,1645650772.648446,95.0,0.0,4294.358886999999,4622.05127,4210.256348,4279.487305,4261.538574,16204.0,3.0,59.0,,,,0.0,4.0,0.0,4.0,0.0,4.0,33.333332,1.0,8.333333,3.0,0.0,1.0,0.0,3.0,,,,,,,,,,,,,1.0,0.0,0.0,,,,,,,,,,,,,,,,,,,,,,,,,,,,,,,,0.0,0.0,1.0,0.0,512.0,1.0,2.042294,1.462677,2.232828,2.406603,2.6353020000000003,34.659653000000006,28.120346,30.875291999999998,72.449783,21.033331,10.773348,4.122137,2.931652,8.939745,13.928617000000001,0.112073,0.030122000000000003,0.051515,0.023916,0.018267,1.283909,4.795131,1.500209,1.9252939999999998,4.471439
22388,1645650772.6563609,96.0,0.0,4301.538574,4739.487305,4182.563965,4279.487305,4234.871582,450.0,3.0,59.0,,,,0.0,4.0,0.0,4.0,0.0,4.0,33.333332,,,,,,,,48.0,0.0,0.370188,0.564209,0.154297,-0.72168,0.9365379999999999,-0.203128,-0.326177,-0.019225,-0.050526,-0.038798,,,,,,,,,,,,,,,,,,,,,,,,,,,,,,,,,,,,,,,,,,,,,,,,,,,,,,,,,,,,,,,,,
22389,1645650772.664176,97.0,0.0,4294.871582,4686.666504,4210.769043,4278.974121,4248.717772999999,450.0,3.0,59.0,,,,0.0,4.0,0.0,4.0,0.0,4.0,33.333332,,,,,,,,,,,,,,,,,,,,,,,,,,,,,,,,,,,,,,,,,,,,,,,,,,,,,,,,,,,,,,,,,,,,,,,,,,,,,,,,,,,,
22390,1645650772.6719902,98.0,0.0,4305.128418,4586.666504,4231.282227000001,4278.974121,4274.871582,450.0,3.0,59.0,,,,0.0,4.0,0.0,4.0,0.0,4.0,33.333332,,,,,,,,49.0,0.0,0.36998200000000003,0.5639649999999999,0.154541,-0.721924,0.940932,-0.193851,-0.310552,-0.017937,-0.050551,-0.034381,,,,,,,,,,,,,,,,,,,,,,,,,,,,,,,,,,,,,,,,,,,,,,,,,,,,,,,,,,,,,,,,,
22391,1645650772.6799052,99.0,0.0,4324.615234000001,4603.589844,4220.512695,4278.974121,4288.205078,16204.0,3.0,59.0,,,,0.0,4.0,0.0,4.0,0.0,4.0,33.333332,,,,,,,,,,,,,,,,,,,,,,,,,,,,,,,,,,,,,,,,,,,,,,,,,,,,,,0.0,0.0,1.0,0.0,512.0,1.0,,,,,,,,,,,,,,,,,,,,,,,,,
22392,1645650772.6877189,100.0,0.0,4304.615234000001,4617.94873,4192.820313,4279.487305,4289.230957,450.0,3.0,59.0,,,,0.0,4.0,0.0,4.0,0.0,4.0,33.333332,,,,,,,,50.0,0.0,0.36988000000000004,0.5639649999999999,0.15478499999999998,-0.721924,0.9277489999999999,-0.190433,-0.304692,-0.016827,-0.050574,-0.036656,,,,,,,,,,,,,,,,,,,,,,,,,,,,,,,,,,,,,,,,,,,,,,,,,,,,,,,,,,,,,,,,,
22393,1645650772.695533,101.0,0.0,4285.641113000001,4616.922852000001,4192.307617,4278.974121,4265.128418,450.0,3.0,59.0,,,,0.0,4.0,0.0,4.0,0.0,4.0,33.333332,,,,,,,,,,,,,,,,,,,,,,,,,,,,,,,,,,,,,,,,,,,,,,,,,,,,,,,,,,,,,,,,,,,,,,,,,,,,,,,,,,,,
22394,1645650772.7033482,102.0,0.0,4315.384765999999,4681.538574,4198.974121,4280.0,4246.666504,450.0,3.0,59.0,,,,0.0,4.0,0.0,4.0,0.0,4.0,33.333332,,,,,,,,51.0,0.0,0.37015,0.563721,0.155029,-0.721924,0.9438620000000001,-0.199222,-0.319341,-0.015877000000000002,-0.050498,-0.038702999999999994,,,,,,,,,,,,,,,,,,,,,,,,,,,,,,,,,,,,,,,,,,,,,,,,,,,,,,,,,,,,,,,,,
22395,1645650772.7111619,103.0,0.0,4319.487305,4723.589844,4203.077147999999,4281.025879,4247.692383,16204.0,3.0,59.0,,,,0.0,4.0,0.0,4.0,0.0,4.0,33.333332,,,,,,,,,,,,,,,,,,,,,,,,,,,,,,,,,,,,,,,,,,,,,,,,,,,,,,0.0,0.0,1.0,0.0,512.0,1.0,,,,,,,,,,,,,,,,,,,,,,,,,
22396,1645650772.718977,104.0,0.0,4294.358886999999,4681.025879,4206.153809,4278.974121,4262.563965,450.0,3.0,59.0,,,,0.0,4.0,0.0,4.0,0.0,4.0,33.333332,,,,,,,,52.0,0.0,0.37004699999999996,0.563721,0.155273,-0.721924,0.9550930000000001,-0.197757,-0.321294,-0.016584,-0.050526,-0.034296,,,,,,,,,,,,,,,,,,,,,,,,,,,,,,,,,,,,,,,,,,,,,,,,,,,,,,,,,,,,,,,,,
22397,1645650772.726791,105.0,0.0,4290.769043,4622.563965,4214.871582,4277.436035,4265.641113000001,450.0,3.0,59.0,,,,0.0,4.0,0.0,4.0,0.0,4.0,33.333332,,,,,,,,,,,,,,,,,,,,,,,,,,,,,,,,,,,,,,,,,,,,,,,,,,,,,,,,,,,,,,,,,,,,,,,,,,,,,,,,,,,,
22398,1645650772.734605,106.0,0.0,4314.871582,4633.846191,4211.794922,4279.487305,4274.358886999999,450.0,3.0,59.0,,,,0.0,4.0,0.0,4.0,0.0,4.0,33.333332,,,,,,,,53.0,0.0,0.36984,0.563477,0.15551800000000002,-0.722168,0.949233,-0.194339,-0.333989,-0.015609,-0.050552,-0.036677,,,,,,,,,,,,,,,,,,,,,,,,,,,,,,,,,,,,,,,,,,,,,,,,,,,,,,,,,,,,,,,,,
22399,1645650772.74242,107.0,0.0,4305.641113000001,4721.538574,4200.0,4281.025879,4276.410156,16204.0,3.0,59.0,,,,0.0,4.0,0.0,4.0,0.0,4.0,33.333332,,,,,,,,,,,,,,,,,,,,,,,,,,,,,,,,,,,,,,,,,,,,,,,,,,,,,,0.0,0.0,1.0,0.0,512.0,1.0,,,,,,,,,,,,,,,,,,,,,,,,,
22400,1645650772.750334,108.0,0.0,4295.897461,4710.769043,4210.256348,4280.0,4274.358886999999,450.0,3.0,59.0,,,,0.0,4.0,0.0,4.0,0.0,4.0,33.333332,,,,,,,,54.0,0.0,0.36984,0.563477,0.15551800000000002,-0.722168,0.939467,-0.191897,-0.330571,-0.014781,-0.050477,-0.038868,,,,,,,,,,,,,,,,,,,,,,,,,,,,,,,,,,,,,,,,,,,,,,,,,,,,,,,,,,,,,,,,,
22401,1645650772.758148,109.0,0.0,4306.666504,4602.05127,4216.410156,4278.974121,4272.820313,450.0,3.0,59.0,,,,0.0,4.0,0.0,4.0,0.0,4.0,33.333332,,,,,,,,,,,,,,,,,,,,,,,,,,,,,,,,,,,,,,,,,,,,,,,,,,,,,,,,,,,,,,,,,,,,,,,,,,,,,,,,,,,,
22402,1645650772.765963,110.0,0.0,4323.077147999999,4610.769043,4229.230957,4278.974121,4287.692383,450.0,3.0,59.0,,,,0.0,4.0,0.0,4.0,0.0,4.0,33.333332,,,,,,,,55.0,0.0,0.369738,0.563477,0.15576199999999998,-0.722168,0.9404440000000001,-0.190433,-0.32422399999999996,-0.015549,-0.050506999999999996,-0.040792,,,,,,,,,,,,,,,,,,,,,,,,,,,,,,,,,,,,,,,,,,,,,,,,,,,,,,,,,,,,,,,,,
22403,1645650772.773777,111.0,0.0,4323.589844,4629.743652,4235.384765999999,4278.461426,4294.358886999999,16204.0,3.0,59.0,,,,0.0,4.0,0.0,4.0,0.0,4.0,33.333332,,,,,,,,,,,,,,,,,,,,1.0,0.0,0.0,,,,,,,,,,,,,,,,,,,,,,,,,,,,,,,,0.0,0.0,1.0,0.0,512.0,1.0,2.208136,1.321058,2.159333,2.457291,1.9181,28.345959000000004,30.613065999999996,34.093815,66.032158,17.865814,7.8197589999999995,2.996289,2.812957,6.043926,8.729610000000001,0.069868,0.018216,0.032286,0.019176,0.017206,1.390678,4.445755999999999,1.408751,1.531277,2.969893
22404,1645650772.781592,112.0,0.0,4322.563965,4610.769043,4223.077147999999,4278.974121,4272.307617,450.0,3.0,59.0,,,,0.0,4.0,0.0,4.0,0.0,4.0,33.333332,,,,,,,,56.0,0.0,0.369738,0.563477,0.15576199999999998,-0.722168,0.937514,-0.191897,-0.315923,-0.016288999999999998,-0.050388,-0.036078,,,,,,,,,,,,,,,,,,,,,,,,,,,,,,,,,,,,,,,,,,,,,,,,,,,,,,,,,,,,,,,,,
22405,1645650772.789406,113.0,0.0,4324.102539,4724.102539,4191.794922,4279.487305,4245.128418,450.0,3.0,59.0,,,,0.0,4.0,0.0,4.0,0.0,4.0,33.333332,,,,,,,,,,,,,,,,,,,,,,,,,,,,,,,,,,,,,,,,,,,,,,,,,,,,,,,,,,,,,,,,,,,,,,,,,,,,,,,,,,,,
22406,1645650772.7972212,114.0,0.0,4298.974121,4781.025879,4202.563965,4279.487305,4248.717772999999,450.0,3.0,59.0,,,,0.0,4.0,0.0,4.0,0.0,4.0,33.333332,,,,,,,,57.0,0.0,0.36984,0.563477,0.15551800000000002,-0.722168,0.9487450000000001,-0.188968,-0.331548,-0.016906,-0.050232,-0.038183,,,,,,,,,,,,,,,,,,,,,,,,,,,,,,,,,,,,,,,,,,,,,,,,,,,,,,,,,,,,,,,,,
22407,1645650772.8050349,115.0,0.0,4277.94873,4570.769043,4220.512695,4279.487305,4258.461426,16204.0,3.0,59.0,,,,0.0,4.0,0.0,4.0,0.0,4.0,33.333332,,,,,,,,,,,,,,,,,,,,,,,,,,,,,,,,,,,,,,,,,,,,,,,,,,,,,,0.0,0.0,1.0,0.0,512.0,1.0,,,,,,,,,,,,,,,,,,,,,,,,,
22408,1645650772.812849,116.0,0.0,4305.128418,4507.179688,4215.384765999999,4279.487305,4260.0,450.0,3.0,59.0,,,,0.0,4.0,0.0,4.0,0.0,4.0,33.333332,,,,,,,,58.0,0.0,0.369363,0.563477,0.15551800000000002,-0.7224119999999999,0.928725,-0.19531500000000002,-0.315923,-0.01585,-0.050287,-0.040077999999999996,,,,,,,,,,,,,,,,,,,,,,,,,,,,,,,,,,,,,,,,,,,,,,,,,,,,,,,,,,,,,,,,,
22409,1645650772.820764,117.0,0.0,4332.820313,4765.128418,4180.0,4278.974121,4271.282227000001,450.0,3.0,59.0,,,,0.0,4.0,0.0,4.0,0.0,4.0,33.333332,,,,,,,,,,,,,,,,,,,,,,,,,,,,,,,,,,,,,,,,,,,,,,,,,,,,,,,,,,,,,,,,,,,,,,,,,,,,,,,,,,,,
22410,1645650772.828578,118.0,0.0,4318.974121,4782.563965,4197.436035,4279.487305,4276.922852000001,450.0,3.0,59.0,,,,0.0,4.0,0.0,4.0,0.0,4.0,33.333332,,,,,,,,59.0,0.0,0.369363,0.563477,0.15551800000000002,-0.7224119999999999,0.941909,-0.18799100000000002,-0.324712,-0.016511,-0.050288,-0.035532999999999995,,,,,,,,,,,,,,,,,,,,,,,,,,,,,,,,,,,,,,,,,,,,,,,,,,,,,,,,,,,,,,,,,
22411,1645650772.836392,119.0,0.0,4307.692383,4506.153809,4232.820313,4279.487305,4284.102539,16204.0,3.0,59.0,,,,0.0,4.0,0.0,4.0,0.0,4.0,33.333332,,,,,,,,,,,,,,,,,,,,,,,,,,,,,,,,,,,,,,,,,,,,,,,,,,,,,,0.0,0.0,1.0,0.0,512.0,1.0,,,,,,,,,,,,,,,,,,,,,,,,,
22412,1645650772.844207,120.0,0.0,4309.230957,4511.282227000001,4214.358886999999,4278.461426,4286.153809,450.0,3.0,59.0,,,,0.0,4.0,0.0,4.0,0.0,4.0,33.333332,,,,,,,,60.0,0.0,0.369738,0.563477,0.15576199999999998,-0.722168,0.95314,-0.17773699999999998,-0.316899,-0.017204,-0.050337,-0.037742000000000005,,,,,,,,,,,,,,,,,,,,,,,,,,,,,,,,,,,,,,,,,,,,,,,,,,,,,,,,,,,,,,,,,
22413,1645650772.852021,121.0,0.0,4311.282227000001,4731.794922,4174.871582,4280.0,4269.743652,450.0,3.0,59.0,,,,0.0,4.0,0.0,4.0,0.0,4.0,33.333332,,,,,,,,,,,,,,,,,,,,,,,,,,,,,,,,,,,,,,,,,,,,,,,,,,,,,,,,,,,,,,,,,,,,,,,,,,,,,,,,,,,,
22414,1645650772.8598359,122.0,0.0,4304.102539,4687.179688,4185.128418,4281.025879,4243.077147999999,450.0,3.0,59.0,,,,0.0,4.0,0.0,4.0,0.0,4.0,33.333332,,,,,,,,61.0,0.0,0.369738,0.563477,0.15576199999999998,-0.722168,0.932143,-0.19677999999999998,-0.314946,-0.016118,-0.050381999999999996,-0.033576999999999996,,,,,,,,,,,,,,,,,,,,,,,,,,,,,,,,,,,,,,,,,,,,,,,,,,,,,,,,,,,,,,,,,
22415,1645650772.86765,123.0,0.0,4310.769043,4561.025879,4213.333496,4280.0,4259.487305,16204.0,3.0,59.0,,,,0.0,4.0,0.0,4.0,0.0,4.0,33.333332,,,,,,,,,,,,,,,,,,,,,,,,,,,,,,,,,,,,,,,,,,,,,,,,,,,,,,0.0,0.0,1.0,0.0,512.0,1.0,,,,,,,,,,,,,,,,,,,,,,,,,
22416,1645650772.875464,124.0,0.0,4309.230957,4611.282227000001,4208.717772999999,4279.487305,4282.05127,450.0,3.0,59.0,,,,0.0,4.0,0.0,4.0,0.0,4.0,33.333332,,,,,,,,62.0,0.0,0.369738,0.563477,0.15576199999999998,-0.722168,0.940932,-0.186038,-0.314458,-0.01519,-0.050275,-0.035883,,,,,,,,,,,,,,,,,,,,,,,,,,,,,,,,,,,,,,,,,,,,,,,,,,,,,,,,,,,,,,,,,
22417,1645650772.8832788,125.0,0.0,4305.128418,4667.692383,4207.692383,4280.0,4274.871582,450.0,3.0,59.0,,,,0.0,4.0,0.0,4.0,0.0,4.0,33.333332,,,,,,,,,,,,,,,,,,,,,,,,,,,,,,,,,,,,,,,,,,,,,,,,,,,,,,,,,,,,,,,,,,,,,,,,,,,,,,,,,,,,
22418,1645650772.891193,126.0,0.0,4292.820313,4656.410156,4193.846191,4279.487305,4246.666504,450.0,3.0,59.0,,,,0.0,4.0,0.0,4.0,0.0,4.0,33.333332,,,,,,,,63.0,0.0,0.369738,0.563477,0.15576199999999998,-0.722168,0.9389790000000001,-0.198245,-0.316411,-0.014355000000000001,-0.050325999999999996,-0.038057,,,,,,,,,,,,,,,,,,,,,,,,,,,,,,,,,,,,,,,,,,,,,,,,,,,,,,,,,,,,,,,,,
22419,1645650772.899008,127.0,0.0,4294.871582,4585.128418,4208.717772999999,4278.974121,4248.205078,235.0,3.0,59.0,,,,0.0,4.0,0.0,4.0,0.0,4.0,33.333332,,,,,,,,,,,,,,,,,,,,1.0,0.0,0.0,,,,,,,,,,,,,,,,,,,,,,,,,,,,,,,,0.0,0.0,1.0,0.0,512.0,1.0,2.387791,1.24675,2.070913,2.4272400000000003,1.39881,21.783997,31.545971,34.958675,56.491589000000005,17.450182,5.169631,2.250441,2.719889,3.8401989999999997,4.721182,0.035338,0.009027,0.017119,0.014427,0.016041999999999997,1.475744,3.782974,1.3966809999999998,1.219403,1.8255310000000002
22420,1645650772.906822,0.0,0.0,4306.666504,4541.025879,4236.410156,4279.487305,4272.820313,450.0,3.0,59.0,,,,0.0,4.0,0.0,4.0,0.0,4.0,33.333332,,,,,,,,0.0,0.0,0.369738,0.563477,0.15576199999999998,-0.722168,0.932143,-0.19677999999999998,-0.314946,-0.015116999999999998,-0.050274,-0.033763,,,,,,,,,,,,,,,,,,,,,,,,,,,,,,,,,,,,,,,,,,,,,,,,,,,,,,,,,,,,,,,,,
22421,1645650772.914636,1.0,0.0,4314.871582,4636.922852000001,4235.384765999999,4280.0,4281.538574,450.0,3.0,59.0,,,,0.0,4.0,0.0,4.0,0.0,4.0,33.333332,,,,,,,,,,,,,,,,,,,,,,,,,,,,,,,,,,,,,,,,,,,,,,,,,,,,,,,,,,,,,,,,,,,,,,,,,,,,,,,,,,,,
22422,1645650772.922451,2.0,0.0,4318.974121,4706.666504,4202.563965,4280.0,4265.128418,16205.0,3.0,59.0,,,,0.0,4.0,0.0,4.0,0.0,4.0,33.333332,,,,,,,,1.0,0.0,0.369738,0.563477,0.15576199999999998,-0.722168,0.9389790000000001,-0.198245,-0.316411,-0.014288999999999998,-0.050325,-0.036148,,,,,,,,,,,,,,,,,,,,,,,,,,,,,,,,,,,,,,,,,,,,,,,,,,,,,,,,,,,,,,,,,
22423,1645650772.930265,3.0,0.0,4305.641113000001,4642.563965,4201.025879,4278.461426,4264.615234000001,450.0,3.0,59.0,,,,0.0,4.0,0.0,4.0,0.0,4.0,33.333332,,,,,,,,,,,,,,,,,,,,,,,,,,,,,,,,,,,,,,,,,,,,,,,,,,,,,,0.0,0.0,1.0,0.0,512.0,1.0,,,,,,,,,,,,,,,,,,,,,,,,,
22424,1645650772.93808,4.0,0.0,4278.461426,4629.230957,4192.820313,4278.461426,4277.94873,0.0,3.0,59.0,,,,0.0,4.0,0.0,4.0,0.0,4.0,33.333332,,,,,,,,2.0,0.0,0.369738,0.563477,0.15576199999999998,-0.722168,0.9589989999999999,-0.194827,-0.314458,-0.015155000000000002,-0.050371,-0.038198,,,,,,,,,,,,,,,,,,,,,,,,,,,,,,,,,,,,,,,,,,,,,,,,,,,,,,,,,,,,,,,,,
22425,1645650772.945894,5.0,0.0,4297.436035,4692.820313,4201.538574,4280.512695,4274.358886999999,450.0,3.0,59.0,,,,0.0,4.0,0.0,4.0,0.0,4.0,33.333332,,,,,,,,,,,,,,,,,,,,,,,,,,,,,,,,,,,,,,,,,,,,,,,,,,,,,,,,,,,,,,,,,,,,,,,,,,,,,,,,,,,,
22426,1645650772.953809,6.0,0.0,4346.666504,4726.153809,4210.769043,4280.0,4277.94873,16157.0,3.0,59.0,,,,0.0,4.0,0.0,4.0,0.0,4.0,33.333332,,,,,,,,3.0,0.0,0.369738,0.563477,0.15576199999999998,-0.722168,0.9463030000000001,-0.201175,-0.316411,-0.015934,-0.050412,-0.033743,,,,,,,,,,,,,,,,,,,,,,,,,,,,,,,,,,,,,,,,,,,,,,,,,,,,,,,,,,,,,,,,,
22427,1645650772.961623,7.0,0.0,4323.589844,4741.025879,4194.358886999999,4277.94873,4271.282227000001,450.0,3.0,59.0,,,,0.0,4.0,0.0,4.0,0.0,4.0,33.333332,,,,,,,,,,,,,,,,,,,,,,,,,,,,,,,,,,,,,,,,,,,,,,,,,,,,,,0.0,0.0,1.0,0.0,512.0,1.0,,,,,,,,,,,,,,,,,,,,,,,,,
22428,1645650772.969438,8.0,0.0,4284.615234000001,4650.769043,4194.871582,4278.974121,4260.512695,450.0,3.0,59.0,,,,0.0,4.0,0.0,4.0,0.0,4.0,33.333332,,,,,,,,4.0,0.0,0.369738,0.563477,0.15576199999999998,-0.722168,0.94435,-0.190921,-0.314946,-0.015024000000000001,-0.050302,-0.035935,,,,,,,,,,,,,,,,,,,,,,,,,,,,,,,,,,,,,,,,,,,,,,,,,,,,,,,,,,,,,,,,,
22429,1645650772.977253,9.0,0.0,4292.307617,4486.153809,4215.384765999999,4280.0,4261.025879,0.0,3.0,59.0,,,,0.0,4.0,0.0,4.0,0.0,4.0,33.333332,,,,,,,,,,,,,,,,,,,,,,,,,,,,,,,,,,,,,,,,,,,,,,,,,,,,,,,,,,,,,,,,,,,,,,,,,,,,,,,,,,,,
22430,1645650772.985067,10.0,0.0,4315.897461,4527.692383,4194.358886999999,4280.0,4273.333496,450.0,3.0,59.0,,,,0.0,4.0,0.0,4.0,0.0,4.0,33.333332,,,,,,,,5.0,0.0,0.369365,0.563721,0.15576199999999998,-0.722168,0.948257,-0.192386,-0.325689,-0.015816999999999998,-0.050253,-0.031756,,,,,,,,,,,,,,,,,,,,,,,,,,,,,,,,,,,,,,,,,,,,,,,,,,,,,,,,,,,,,,,,,
22431,1645650772.992882,11.0,0.0,4305.641113000001,4696.922852000001,4172.820313,4281.025879,4266.153809,16206.0,3.0,59.0,,,,0.0,4.0,0.0,4.0,0.0,4.0,33.333332,,,,,,,,,,,,,,,,,,,,,,,,,,,,,,,,,,,,,,,,,,,,,,,,,,,,,,0.0,0.0,1.0,0.0,512.0,1.0,,,,,,,,,,,,,,,,,,,,,,,,,
22432,1645650773.0006962,12.0,0.0,4296.922852000001,4683.589844,4205.128418,4280.0,4266.153809,450.0,3.0,59.0,,,,0.0,4.0,0.0,4.0,0.0,4.0,33.333332,,,,,,,,6.0,0.0,0.369738,0.563477,0.15576199999999998,-0.722168,0.933608,-0.20361600000000002,-0.321782,-0.016432,-0.050306000000000003,-0.034244,,,,,,,,,,,,,,,,,,,,,,,,,,,,,,,,,,,,,,,,,,,,,,,,,,,,,,,,,,,,,,,,,
22433,1645650773.0085108,13.0,0.0,4297.94873,4604.615234000001,4216.410156,4277.94873,4277.94873,450.0,3.0,59.0,,,,0.0,4.0,0.0,4.0,0.0,4.0,33.333332,,,,,,,,,,,,,,,,,,,,,,,,,,,,,,,,,,,,,,,,,,,,,,,,,,,,,,,,,,,,,,,,,,,,,,,,,,,,,,,,,,,,
22434,1645650773.016326,14.0,0.0,4317.94873,4698.461426,4209.230957,4279.487305,4289.230957,450.0,3.0,59.0,,,,0.0,4.0,0.0,4.0,0.0,4.0,33.333332,,,,,,,,7.0,0.0,0.369738,0.563477,0.15576199999999998,-0.722168,0.941421,-0.197757,-0.323247,-0.016987000000000002,-0.050256,-0.030185000000000003,,,,,,,,,,,,,,,,,,,,,,,,,,,,,,,,,,,,,,,,,,,,,,,,,,,,,,,,,,,,,,,,,
22435,1645650773.0241401,15.0,0.0,4330.769043,4792.307617,4200.0,4282.05127,4279.487305,16206.0,3.0,59.0,,,,0.0,4.0,0.0,4.0,0.0,4.0,33.333332,,,,,,,,,,,,,,,,,,,,1.0,0.0,0.0,,,,,,,,,,,,,,,,,,,,,,,,,,,,,,,,0.0,0.0,1.0,0.0,512.0,1.0,2.533156,1.2448620000000001,1.906957,2.326327,1.141752,16.245316,30.793188,33.395435,45.571373,19.924706,3.2917440000000004,1.9689880000000002,2.675292,2.63064,2.503412,0.014144,0.0036729999999999996,0.008192,0.010646,0.014841,1.534016,3.0169580000000003,1.432604,1.046071,1.202304
22436,1645650773.0320551,16.0,0.0,4315.384765999999,4713.846191,4204.615234000001,4281.538574,4266.666504,0.0,3.0,59.0,,,,0.0,4.0,0.0,4.0,0.0,4.0,33.333332,,,,,,,,8.0,0.0,0.369738,0.563477,0.15576199999999998,-0.722168,0.945327,-0.189944,-0.325689,-0.017583,-0.050211,-0.032831,,,,,,,,,,,,,,,,,,,,,,,,,,,,,,,,,,,,,,,,,,,,,,,,,,,,,,,,,,,,,,,,,
22437,1645650773.03987,17.0,0.0,4307.692383,4603.589844,4210.256348,4278.461426,4278.461426,0.0,3.0,59.0,,,,0.0,4.0,0.0,4.0,0.0,4.0,33.333332,,,,,,,,,,,,,,,,,,,,,,,,,,,,,,,,,,,,,,,,,,,,,,,,,,,,,,,,,,,,,,,,,,,,,,,,,,,,,,,,,,,,
22438,1645650773.047684,18.0,0.0,4316.410156,4598.461426,4227.692383,4278.974121,4307.179688,0.0,3.0,59.0,,,,0.0,4.0,0.0,4.0,0.0,4.0,33.333332,,,,,,,,9.0,0.0,0.369365,0.563721,0.15576199999999998,-0.722168,0.9340959999999999,-0.16846,-0.32227100000000003,-0.018119,-0.050219,-0.029058999999999998,,,,,,,,,,,,,,,,,,,,,,,,,,,,,,,,,,,,,,,,,,,,,,,,,,,,,,,,,,,,,,,,,
22439,1645650773.055599,19.0,0.0,4310.769043,4649.743652,4216.410156,4280.512695,4294.871582,0.0,3.0,59.0,,,,0.0,4.0,0.0,4.0,0.0,4.0,33.333332,,,,,,,,,,,,,,,,,,,,,,,,,,,,,,,,,,,,,,,,,,,,,,,,,,,,,,0.0,0.0,1.0,0.0,512.0,1.0,,,,,,,,,,,,,,,,,,,,,,,,,
22440,1645650773.0634131,20.0,0.0,4300.0,4689.743652,4203.077147999999,4279.487305,4258.461426,0.0,3.0,59.0,,,,0.0,4.0,0.0,4.0,0.0,4.0,33.333332,,,,,,,,10.0,0.0,0.369365,0.563721,0.15576199999999998,-0.722168,0.944839,-0.18945599999999999,-0.317388,-0.016991,-0.050226,-0.031818,,,,,,,,,,,,,,,,,,,,,,,,,,,,,,,,,,,,,,,,,,,,,,,,,,,,,,,,,,,,,,,,,
22441,1645650773.071228,21.0,0.0,4303.077147999999,4709.230957,4197.436035,4277.94873,4270.769043,0.0,3.0,59.0,,,,0.0,4.0,0.0,4.0,0.0,4.0,33.333332,,,,,,,,,,,,,,,,,,,,,,,,,,,,,,,,,,,,,,,,,,,,,,,,,,,,,,,,,,,,,,,,,,,,,,,,,,,,,,,,,,,,
22442,1645650773.079043,22.0,0.0,4300.512695,4648.205078,4214.358886999999,4278.461426,4291.794922,0.0,3.0,59.0,,,,0.0,4.0,0.0,4.0,0.0,4.0,33.333332,,,,,,,,11.0,0.0,0.369365,0.563721,0.15576199999999998,-0.722168,0.948257,-0.194339,-0.324712,-0.017537999999999998,-0.050184,-0.034398000000000005,,,,,,,,,,,,,,,,,,,,,,,,,,,,,,,,,,,,,,,,,,,,,,,,,,,,,,,,,,,,,,,,,
22443,1645650773.086957,23.0,0.0,4301.538574,4557.94873,4204.102539,4280.0,4283.077147999999,0.0,3.0,59.0,,,,0.0,4.0,0.0,4.0,0.0,4.0,33.333332,,,,,,,,,,,,,,,,,,,,,,,,,,,,,,,,,,,,,,,,,,,,,,,,,,,,,,0.0,0.0,1.0,0.0,512.0,1.0,,,,,,,,,,,,,,,,,,,,,,,,,
22444,1645650773.0947711,24.0,0.0,4298.461426,4607.692383,4181.538574,4278.974121,4269.230957,0.0,3.0,59.0,,,,0.0,4.0,0.0,4.0,0.0,4.0,33.333332,,,,,,,,12.0,0.0,0.368992,0.5639649999999999,0.15576199999999998,-0.722168,0.948257,-0.186038,-0.311528,-0.016321000000000002,-0.050244,-0.030372000000000003,,,,,,,,,,,,,,,,,,,,,,,,,,,,,,,,,,,,,,,,,,,,,,,,,,,,,,,,,,,,,,,,,
22445,1645650773.102586,25.0,0.0,4296.410156,4660.0,4195.897461,4277.436035,4275.384765999999,0.0,3.0,59.0,,,,0.0,4.0,0.0,4.0,0.0,4.0,33.333332,,,,,,,,,,,,,,,,,,,,,,,,,,,,,,,,,,,,,,,,,,,,,,,,,,,,,,,,,,,,,,,,,,,,,,,,,,,,,,,,,,,,
22446,1645650773.1104,26.0,0.0,4289.743652,4571.282227000001,4205.128418,4277.436035,4269.743652,0.0,3.0,59.0,,,,0.0,4.0,0.0,4.0,0.0,4.0,33.333332,,,,,,,,13.0,0.0,0.36946999999999997,0.5639649999999999,0.15576199999999998,-0.721924,0.952651,-0.188479,-0.31543499999999997,-0.015422,-0.050298,-0.033048,,,,,,,,,,,,,,,,,,,,,,,,,,,,,,,,,,,,,,,,,,,,,,,,,,,,,,,,,,,,,,,,,
22447,1645650773.118215,27.0,0.0,4291.794922,4608.205078,4180.0,4278.974121,4265.128418,0.0,3.0,59.0,,,,0.0,4.0,0.0,4.0,0.0,4.0,33.333332,,,,,,,,,,,,,,,,,,,,,,,,,,,,,,,,,,,,,,,,,,,,,,,,,,,,,,0.0,0.0,1.0,0.0,512.0,1.0,,,,,,,,,,,,,,,,,,,,,,,,,
22448,1645650773.126029,28.0,0.0,4299.487305,4765.641113000001,4182.05127,4280.0,4270.256348,0.0,3.0,59.0,,,,0.0,4.0,0.0,4.0,0.0,4.0,33.333332,,,,,,,,14.0,0.0,0.36946999999999997,0.5639649999999999,0.15576199999999998,-0.721924,0.9438620000000001,-0.20019800000000001,-0.32227100000000003,-0.016175,-0.050345999999999995,-0.035554,,,,,,,,,,,,,,,,,,,,,,,,,,,,,,,,,,,,,,,,,,,,,,,,,,,,,,,,,,,,,,,,,
22449,1645650773.133843,29.0,0.0,4310.769043,4695.897461,4222.05127,4280.0,4275.897461,0.0,3.0,59.0,,,,0.0,4.0,0.0,4.0,0.0,4.0,33.333332,,,,,,,,,,,,,,,,,,,,,,,,,,,,,,,,,,,,,,,,,,,,,,,,,,,,,,,,,,,,,,,,,,,,,,,,,,,,,,,,,,,,
22450,1645650773.141658,30.0,0.0,4297.436035,4573.846191,4204.102539,4278.974121,4262.05127,0.0,3.0,59.0,,,,0.0,4.0,0.0,4.0,0.0,4.0,33.333332,,,,,,,,15.0,0.0,0.368992,0.5639649999999999,0.15576199999999998,-0.722168,0.939467,-0.19971,-0.334478,-0.015191999999999999,-0.050487,-0.037711,,,,,,,,,,,,,,,,,,,,,,,,,,,,,,,,,,,,,,,,,,,,,,,,,,,,,,,,,,,,,,,,,
22451,1645650773.149472,31.0,0.0,4280.0,4647.179688,4184.615234000001,4277.94873,4257.436035,0.0,3.0,59.0,,,,0.0,4.0,0.0,4.0,0.0,4.0,33.333332,1.0,8.333333,3.0,0.0,1.0,0.0,3.0,,,,,,,,,,,,,1.0,0.0,0.0,,,,,,,,,,,,,,,,,,,,,,,,,,,,,,,,0.0,0.0,1.0,0.0,512.0,1.0,2.591831,1.3206309999999999,1.660773,2.171386,1.099851,12.266656,28.583952000000004,30.453182,35.394432,25.17807,2.234702,2.041807,2.651505,2.2142720000000002,1.8257439999999998,0.005142,0.001503,0.004626,0.008243,0.013494999999999998,1.568761,2.426718,1.509431,1.012216,1.024525
22452,1645650773.157387,32.0,0.0,4277.94873,4690.256348,4201.025879,4280.0,4256.922852000001,0.0,3.0,59.0,,,,0.0,4.0,0.0,4.0,0.0,4.0,33.333332,,,,,,,,16.0,0.0,0.368992,0.5639649999999999,0.15576199999999998,-0.722168,0.938491,-0.18945599999999999,-0.31104,-0.015919,-0.050468,-0.039604,,,,,,,,,,,,,,,,,,,,,,,,,,,,,,,,,,,,,,,,,,,,,,,,,,,,,,,,,,,,,,,,,
22453,1645650773.165201,33.0,0.0,4287.179688,4648.717772999999,4212.820313,4281.025879,4244.615234000001,0.0,3.0,59.0,,,,0.0,4.0,0.0,4.0,0.0,4.0,33.333332,,,,,,,,,,,,,,,,,,,,,,,,,,,,,,,,,,,,,,,,,,,,,,,,,,,,,,,,,,,,,,,,,,,,,,,,,,,,,,,,,,,,
22454,1645650773.173116,34.0,0.0,4298.461426,4660.512695,4190.769043,4278.974121,4238.461426,0.0,3.0,59.0,,,,0.0,4.0,0.0,4.0,0.0,4.0,33.333332,,,,,,,,17.0,0.0,0.369365,0.563721,0.15576199999999998,-0.722168,0.939467,-0.188479,-0.322759,-0.015059000000000001,-0.050499,-0.041406,,,,,,,,,,,,,,,,,,,,,,,,,,,,,,,,,,,,,,,,,,,,,,,,,,,,,,,,,,,,,,,,,
22455,1645650773.180931,35.0,0.0,4305.641113000001,4633.846191,4211.282227000001,4278.974121,4269.743652,0.0,3.0,59.0,,,,0.0,4.0,0.0,4.0,0.0,4.0,33.333332,,,,,,,,,,,,,,,,,,,,,,,,,,,,,,,,,,,,,,,,,,,,,,,,,,,,,,0.0,0.0,1.0,0.0,512.0,1.0,,,,,,,,,,,,,,,,,,,,,,,,,
22456,1645650773.188745,36.0,0.0,4302.563965,4576.922852000001,4235.384765999999,4279.487305,4296.410156,0.0,3.0,59.0,,,,0.0,4.0,0.0,4.0,0.0,4.0,33.333332,,,,,,,,18.0,0.0,0.369365,0.563721,0.15576199999999998,-0.722168,0.9399559999999999,-0.188479,-0.31299299999999997,-0.015847999999999998,-0.050479,-0.043125,,,,,,,,,,,,,,,,,,,,,,,,,,,,,,,,,,,,,,,,,,,,,,,,,,,,,,,,,,,,,,,,,
22457,1645650773.19656,37.0,0.0,4300.0,4632.820313,4221.025879,4278.974121,4266.153809,0.0,3.0,59.0,,,,0.0,4.0,0.0,4.0,0.0,4.0,33.333332,,,,,,,,,,,,,,,,,,,,,,,,,,,,,,,,,,,,,,,,,,,,,,,,,,,,,,,,,,,,,,,,,,,,,,,,,,,,,,,,,,,,
22458,1645650773.204375,38.0,0.0,4294.871582,4687.692383,4180.0,4278.461426,4238.461426,0.0,3.0,59.0,,,,0.0,4.0,0.0,4.0,0.0,4.0,33.333332,,,,,,,,19.0,0.0,0.369365,0.563721,0.15576199999999998,-0.722168,0.9423969999999999,-0.190433,-0.331548,-0.016461,-0.050558,-0.044476,,,,,,,,,,,,,,,,,,,,,,,,,,,,,,,,,,,,,,,,,,,,,,,,,,,,,,,,,,,,,,,,,
22459,1645650773.212189,39.0,0.0,4277.94873,4626.153809,4189.230957,4278.974121,4251.794922,0.0,3.0,59.0,,,,0.0,4.0,0.0,4.0,0.0,4.0,33.333332,,,,,,,,,,,,,,,,,,,,,,,,,,,,,,,,,,,,,,,,,,,,,,,,,,,,,,0.0,0.0,1.0,0.0,512.0,1.0,,,,,,,,,,,,,,,,,,,,,,,,,
22460,1645650773.2200038,40.0,0.0,4290.256348,4573.333496,4212.307617,4279.487305,4275.897461,0.0,3.0,59.0,,,,0.0,4.0,0.0,4.0,0.0,4.0,33.333332,,,,,,,,20.0,0.0,0.368888,0.563721,0.15576199999999998,-0.7224119999999999,0.93019,-0.18945599999999999,-0.320806,-0.01545,-0.050483,-0.03954,,,,,,,,,,,,,,,,,,,,,,,,,,,,,,,,,,,,,,,,,,,,,,,,,,,,,,,,,,,,,,,,,
22461,1645650773.227819,41.0,0.0,4301.538574,4638.974121,4191.794922,4279.487305,4260.512695,0.0,3.0,59.0,,,,0.0,4.0,0.0,4.0,0.0,4.0,33.333332,,,,,,,,,,,,,,,,,,,,,,,,,,,,,,,,,,,,,,,,,,,,,,,,,,,,,,,,,,,,,,,,,,,,,,,,,,,,,,,,,,,,
22462,1645650773.235633,42.0,0.0,4300.512695,4725.128418,4176.410156,4279.487305,4251.282227000001,0.0,3.0,59.0,,,,0.0,4.0,0.0,4.0,0.0,4.0,33.333332,,,,,,,,21.0,0.0,0.368784,0.563721,0.156006,-0.7224119999999999,0.937514,-0.194827,-0.318853,-0.016151,-0.050513,-0.04125,,,,,,,,,,,,,,,,,,,,,,,,,,,,,,,,,,,,,,,,,,,,,,,,,,,,,,,,,,,,,,,,,
22463,1645650773.243547,43.0,0.0,4292.307617,4689.230957,4197.436035,4279.487305,4260.0,0.0,3.0,59.0,,,,0.0,4.0,0.0,4.0,0.0,4.0,33.333332,,,,,,,,,,,,,,,,,,,,,,,,,,,,,,,,,,,,,,,,,,,,,,,,,,,,,,0.0,0.0,1.0,0.0,512.0,1.0,,,,,,,,,,,,,,,,,,,,,,,,,
22464,1645650773.2513618,44.0,0.0,4294.358886999999,4641.025879,4211.282227000001,4279.487305,4270.769043,0.0,3.0,59.0,,,,0.0,4.0,0.0,4.0,0.0,4.0,33.333332,,,,,,,,22.0,0.0,0.368784,0.563721,0.156006,-0.7224119999999999,0.9404440000000001,-0.19677999999999998,-0.32813000000000003,-0.017026,-0.050491,-0.036588,,,,,,,,,,,,,,,,,,,,,,,,,,,,,,,,,,,,,,,,,,,,,,,,,,,,,,,,,,,,,,,,,
22465,1645650773.259176,45.0,0.0,4305.641113000001,4674.358886999999,4190.256348,4278.461426,4282.563965,0.0,3.0,59.0,,,,0.0,4.0,0.0,4.0,0.0,4.0,33.333332,,,,,,,,,,,,,,,,,,,,,,,,,,,,,,,,,,,,,,,,,,,,,,,,,,,,,,,,,,,,,,,,,,,,,,,,,,,,,,,,,,,,
22466,1645650773.266991,46.0,0.0,4321.538574,4663.589844,4192.307617,4277.94873,4288.205078,0.0,3.0,59.0,,,,0.0,4.0,0.0,4.0,0.0,4.0,33.333332,,,,,,,,23.0,0.0,0.368784,0.563721,0.156006,-0.7224119999999999,0.9589989999999999,-0.187503,-0.319341,-0.017667,-0.050470999999999995,-0.038642,,,,,,,,,,,,,,,,,,,,,,,,,,,,,,,,,,,,,,,,,,,,,,,,,,,,,,,,,,,,,,,,,
22467,1645650773.274805,47.0,0.0,4303.589844,4594.871582,4200.0,4277.94873,4257.94873,0.0,3.0,59.0,,,,0.0,4.0,0.0,4.0,0.0,4.0,33.333332,,,,,,,,,,,,,,,,,,,,1.0,0.0,0.0,,,,,,,,,,,,,,,,,,,,,,,,,,,,,,,,0.0,0.0,1.0,0.0,512.0,1.0,2.509219,1.458209,1.3962649999999999,1.9873869999999998,1.174133,9.723031,25.58794,27.439674,27.806946000000003,32.689304,1.786154,2.2521009999999997,2.588645,2.1463099999999997,1.9711130000000001,0.003019,0.001009,0.003831,0.007014,0.011946,1.572904,2.185814,1.623821,1.078553,1.090373
22468,1645650773.28262,48.0,0.0,4285.128418,4551.282227000001,4226.666504,4278.974121,4250.769043,0.0,3.0,59.0,,,,0.0,4.0,0.0,4.0,0.0,4.0,33.333332,,,,,,,,24.0,0.0,0.369159,0.563721,0.15625,-0.722168,0.949233,-0.194339,-0.31543499999999997,-0.018098,-0.050356,-0.040491,,,,,,,,,,,,,,,,,,,,,,,,,,,,,,,,,,,,,,,,,,,,,,,,,,,,,,,,,,,,,,,,,
22469,1645650773.290434,49.0,0.0,4302.563965,4565.641113000001,4245.128418,4279.487305,4275.384765999999,0.0,3.0,59.0,,,,0.0,4.0,0.0,4.0,0.0,4.0,33.333332,,,,,,,,,,,,,,,,,,,,,,,,,,,,,,,,,,,,,,,,,,,,,,,,,,,,,,,,,,,,,,,,,,,,,,,,,,,,,,,,,,,,
22470,1645650773.298248,50.0,0.0,4320.512695,4688.205078,4232.820313,4279.487305,4270.769043,0.0,3.0,59.0,,,,0.0,4.0,0.0,4.0,0.0,4.0,33.333332,,,,,,,,25.0,0.0,0.369159,0.563721,0.15625,-0.722168,0.9487450000000001,-0.204105,-0.333989,-0.018632,-0.050398,-0.042106,,,,,,,,,,,,,,,,,,,,,,,,,,,,,,,,,,,,,,,,,,,,,,,,,,,,,,,,,,,,,,,,,
22471,1645650773.3060632,51.0,0.0,4313.846191,4807.179688,4189.743652,4280.512695,4241.538574,0.0,3.0,59.0,,,,0.0,4.0,0.0,4.0,0.0,4.0,33.333332,,,,,,,,,,,,,,,,,,,,,,,,,,,,,,,,,,,,,,,,,,,,,,,,,,,,,,0.0,0.0,1.0,0.0,512.0,1.0,,,,,,,,,,,,,,,,,,,,,,,,,
22472,1645650773.3138769,52.0,0.0,4292.307617,4730.769043,4203.589844,4280.0,4243.589844,0.0,3.0,59.0,,,,0.0,4.0,0.0,4.0,0.0,4.0,33.333332,,,,,,,,26.0,0.0,0.369636,0.563721,0.15625,-0.721924,0.945327,-0.198245,-0.31299299999999997,-0.017452000000000002,-0.050388,-0.043657,,,,,,,,,,,,,,,,,,,,,,,,,,,,,,,,,,,,,,,,,,,,,,,,,,,,,,,,,,,,,,,,,
22473,1645650773.321692,53.0,0.0,4292.820313,4624.615234000001,4237.94873,4278.974121,4279.487305,0.0,3.0,59.0,,,,0.0,4.0,0.0,4.0,0.0,4.0,33.333332,,,,,,,,,,,,,,,,,,,,,,,,,,,,,,,,,,,,,,,,,,,,,,,,,,,,,,,,,,,,,,,,,,,,,,,,,,,,,,,,,,,,
22474,1645650773.3295062,54.0,0.0,4325.128418,4651.282227000001,4240.0,4278.974121,4302.05127,0.0,3.0,59.0,,,,0.0,4.0,0.0,4.0,0.0,4.0,33.333332,,,,,,,,27.0,0.0,0.36916,0.5639649999999999,0.156494,-0.721924,0.9560690000000001,-0.197269,-0.31543499999999997,-0.017855000000000003,-0.050476,-0.038755,,,,,,,,,,,,,,,,,,,,,,,,,,,,,,,,,,,,,,,,,,,,,,,,,,,,,,,,,,,,,,,,,
22475,1645650773.33742,55.0,0.0,4340.0,4655.384765999999,4207.179688,4280.0,4308.717772999999,0.0,3.0,59.0,,,,0.0,4.0,0.0,4.0,0.0,4.0,33.333332,,,,,,,,,,,,,,,,,,,,,,,,,,,,,,,,,,,,,,,,,,,,,,,,,,,,,,0.0,0.0,1.0,0.0,512.0,1.0,,,,,,,,,,,,,,,,,,,,,,,,,
22476,1645650773.3452349,56.0,0.0,4305.128418,4616.410156,4193.846191,4280.0,4288.205078,0.0,3.0,59.0,,,,0.0,4.0,0.0,4.0,0.0,4.0,33.333332,,,,,,,,28.0,0.0,0.369159,0.563721,0.15625,-0.722168,0.9487450000000001,-0.204105,-0.333989,-0.018267,-0.050408999999999995,-0.034293000000000004,,,,,,,,,,,,,,,,,,,,,,,,,,,,,,,,,,,,,,,,,,,,,,,,,,,,,,,,,,,,,,,,,
22477,1645650773.353049,57.0,0.0,4314.358886999999,4607.692383,4201.025879,4280.0,4271.282227000001,0.0,3.0,59.0,,,,0.0,4.0,0.0,4.0,0.0,4.0,33.333332,,,,,,,,,,,,,,,,,,,,,,,,,,,,,,,,,,,,,,,,,,,,,,,,,,,,,,,,,,,,,,,,,,,,,,,,,,,,,,,,,,,,
22478,1645650773.360863,58.0,0.0,4342.05127,4604.102539,4201.538574,4279.487305,4275.897461,0.0,3.0,59.0,,,,0.0,4.0,0.0,4.0,0.0,4.0,33.333332,,,,,,,,29.0,0.0,0.36916,0.5639649999999999,0.156494,-0.721924,0.9560690000000001,-0.197269,-0.31543499999999997,-0.018588999999999998,-0.050495,-0.030327,,,,,,,,,,,,,,,,,,,,,,,,,,,,,,,,,,,,,,,,,,,,,,,,,,,,,,,,,,,,,,,,,
22479,1645650773.368778,59.0,0.0,4320.0,4589.230957,4216.410156,4278.461426,4288.205078,0.0,3.0,59.0,,,,0.0,4.0,0.0,4.0,0.0,4.0,33.333332,,,,,,,,,,,,,,,,,,,,,,,,,,,,,,,,,,,,,,,,,,,,,,,,,,,,,,0.0,0.0,1.0,0.0,512.0,1.0,,,,,,,,,,,,,,,,,,,,,,,,,
22480,1645650773.376592,60.0,0.0,4284.615234000001,4578.461426,4217.94873,4278.974121,4266.153809,0.0,3.0,59.0,,,,0.0,4.0,0.0,4.0,0.0,4.0,33.333332,,,,,,,,30.0,0.0,0.36916,0.5639649999999999,0.156494,-0.721924,0.9399559999999999,-0.194339,-0.310552,-0.018927,-0.050426,-0.026708,,,,,,,,,,,,,,,,,,,,,,,,,,,,,,,,,,,,,,,,,,,,,,,,,,,,,,,,,,,,,,,,,
22481,1645650773.384407,61.0,0.0,4292.820313,4638.974121,4194.358886999999,4280.512695,4246.153809,0.0,3.0,59.0,,,,0.0,4.0,0.0,4.0,0.0,4.0,33.333332,,,,,,,,,,,,,,,,,,,,,,,,,,,,,,,,,,,,,,,,,,,,,,,,,,,,,,,,,,,,,,,,,,,,,,,,,,,,,,,,,,,,
22482,1645650773.3922212,62.0,0.0,4315.897461,4751.282227000001,4190.769043,4280.512695,4267.179688,0.0,3.0,59.0,,,,0.0,4.0,0.0,4.0,0.0,4.0,33.333332,,,,,,,,31.0,0.0,0.36916,0.5639649999999999,0.156494,-0.721924,0.9306780000000001,-0.189944,-0.320317,-0.017669,-0.050462,-0.029945999999999997,,,,,,,,,,,,,,,,,,,,,,,,,,,,,,,,,,,,,,,,,,,,,,,,,,,,,,,,,,,,,,,,,
22483,1645650773.400035,63.0,0.0,4327.179688,4728.205078,4238.461426,4279.487305,4305.128418,0.0,3.0,59.0,,,,0.0,4.0,0.0,4.0,0.0,4.0,33.333332,,,,,,,,,,,,,,,,,,,,1.0,0.0,0.0,,,,,,,,,,,,,,,,,,,,,,,,,,,,,,,,0.0,0.0,1.0,0.0,512.0,1.0,2.2950630000000003,1.6005049999999998,1.174146,1.8018,1.281441,8.365701,22.679123,25.417282,23.801502,41.415684000000006,1.6803099999999997,2.4039,2.436635,2.096901,2.323993,0.0030559999999999997,0.001021,0.0035759999999999998,0.006548,0.010407,1.543881,2.27161,1.757612,1.186717,1.231303
22484,1645650773.40785,64.0,0.0,4320.512695,4554.358886999999,4247.179688,4279.487305,4306.153809,450.0,3.0,59.0,,,,0.0,4.0,0.0,4.0,0.0,4.0,33.333332,,,,,,,,32.0,0.0,0.36916,0.5639649999999999,0.156494,-0.721924,0.925307,-0.20019800000000001,-0.305669,-0.018149000000000002,-0.050395999999999996,-0.032615,,,,,,,,,,,,,,,,,,,,,,,,,,,,,,,,,,,,,,,,,,,,,,,,,,,,,,,,,,,,,,,,,
22485,1645650773.415664,65.0,0.0,4314.871582,4535.384765999999,4226.153809,4280.0,4294.871582,450.0,3.0,59.0,,,,0.0,4.0,0.0,4.0,0.0,4.0,33.333332,,,,,,,,,,,,,,,,,,,,,,,,,,,,,,,,,,,,,,,,,,,,,,,,,,,,,,,,,,,,,,,,,,,,,,,,,,,,,,,,,,,,
22486,1645650773.4234788,66.0,0.0,4315.384765999999,4680.512695,4206.153809,4279.487305,4286.153809,16237.0,3.0,59.0,,,,0.0,4.0,0.0,4.0,0.0,4.0,33.333332,,,,,,,,33.0,0.0,0.369637,0.5639649999999999,0.156494,-0.72168,0.9340959999999999,-0.191409,-0.32422399999999996,-0.018482,-0.050435,-0.035115,,,,,,,,,,,,,,,,,,,,,,,,,,,,,,,,,,,,,,,,,,,,,,,,,,,,,,,,,,,,,,,,,
22487,1645650773.4311929,67.0,0.0,4312.307617,4678.974121,4216.922852000001,4278.974121,4266.666504,450.0,3.0,59.0,,,,0.0,4.0,1.0,4.0,0.0,4.0,41.666668,,,,,,,,,,,,,,,,,,,,,,,,,,,,,,,,,,,,,,,,,,,,,,,,,,,,,,0.0,0.0,1.0,0.0,512.0,1.0,,,,,,,,,,,,,,,,,,,,,,,,,
22488,1645650773.439008,68.0,0.0,4295.384765999999,4575.897461,4210.256348,4278.974121,4249.230957,52.0,3.0,59.0,,,,0.0,4.0,1.0,4.0,0.0,4.0,41.666668,,,,,,,,34.0,0.0,0.369637,0.5639649999999999,0.156494,-0.72168,0.938003,-0.194339,-0.31299299999999997,-0.018782,-0.050372,-0.031067,,,,,,,,,,,,,,,,,,,,,,,,,,,,,,,,,,,,,,,,,,,,,,,,,,,,,,,,,,,,,,,,,
22489,1645650773.4468222,69.0,0.0,4287.179688,4612.820313,4196.922852000001,4278.461426,4252.307617,450.0,3.0,59.0,,,,0.0,4.0,1.0,4.0,0.0,4.0,41.666668,,,,,,,,,,,,,,,,,,,,,,,,,,,,,,,,,,,,,,,,,,,,,,,,,,,,,,,,,,,,,,,,,,,,,,,,,,,,,,,,,,,,
22490,1645650773.4546359,70.0,0.0,4300.0,4712.307617,4190.769043,4279.487305,4268.717772999999,16182.0,3.0,59.0,,,,0.0,4.0,1.0,4.0,0.0,4.0,41.666668,,,,,,,,35.0,0.0,0.369637,0.5639649999999999,0.156494,-0.72168,0.9438620000000001,-0.188968,-0.32227100000000003,-0.017588,-0.050413,-0.027423000000000003,,,,,,,,,,,,,,,,,,,,,,,,,,,,,,,,,,,,,,,,,,,,,,,,,,,,,,,,,,,,,,,,,
22491,1645650773.462451,71.0,0.0,4304.615234000001,4725.641113000001,4197.94873,4281.538574,4260.0,450.0,3.0,59.0,,,,0.0,4.0,1.0,4.0,0.0,4.0,41.666668,,,,,,,,,,,,,,,,,,,,,,,,,,,,,,,,,,,,,,,,,,,,,,,,,,,,,,0.0,0.0,1.0,0.0,512.0,1.0,,,,,,,,,,,,,,,,,,,,,,,,,
22492,1645650773.4702652,72.0,0.0,4308.717772999999,4724.102539,4189.743652,4281.025879,4250.256348,450.0,3.0,59.0,,,,0.0,4.0,1.0,4.0,0.0,4.0,41.666668,,,,,,,,36.0,0.0,0.369637,0.5639649999999999,0.156494,-0.72168,0.938003,-0.19531500000000002,-0.31006300000000003,-0.016561000000000003,-0.05045,-0.030442,,,,,,,,,,,,,,,,,,,,,,,,,,,,,,,,,,,,,,,,,,,,,,,,,,,,,,,,,,,,,,,,,
22493,1645650773.47808,73.0,0.0,4304.615234000001,4724.102539,4191.794922,4278.974121,4251.282227000001,0.0,3.0,59.0,,,,0.0,4.0,1.0,4.0,0.0,4.0,41.666668,,,,,,,,,,,,,,,,,,,,,,,,,,,,,,,,,,,,,,,,,,,,,,,,,,,,,,,,,,,,,,,,,,,,,,,,,,,,,,,,,,,,
22494,1645650773.485894,74.0,0.0,4310.769043,4675.384765999999,4211.794922,4278.974121,4269.743652,450.0,3.0,59.0,,,,0.0,4.0,1.0,4.0,0.0,4.0,41.666668,,,,,,,,37.0,0.0,0.36953400000000003,0.5639649999999999,0.15673800000000002,-0.72168,0.949722,-0.194827,-0.31104,-0.017103,-0.050581,-0.026812,,,,,,,,,,,,,,,,,,,,,,,,,,,,,,,,,,,,,,,,,,,,,,,,,,,,,,,,,,,,,,,,,
22495,1645650773.493708,75.0,0.0,4316.922852000001,4657.94873,4207.692383,4280.0,4285.641113000001,16213.0,3.0,59.0,,,,0.0,4.0,1.0,4.0,0.0,4.0,41.666668,,,,,,,,,,,,,,,,,,,,,,,,,,,,,,,,,,,,,,,,,,,,,,,,,,,,,,0.0,0.0,1.0,0.0,512.0,1.0,,,,,,,,,,,,,,,,,,,,,,,,,
22496,1645650773.5016232,76.0,0.0,4328.717772999999,4697.94873,4206.666504,4280.0,4298.974121,450.0,3.0,59.0,,,,0.0,4.0,1.0,4.0,0.0,4.0,41.666668,,,,,,,,38.0,0.0,0.369264,0.564209,0.156494,-0.72168,0.9487450000000001,-0.19971,-0.323735,-0.017638,-0.050552,-0.029795,,,,,,,,,,,,,,,,,,,,,,,,,,,,,,,,,,,,,,,,,,,,,,,,,,,,,,,,,,,,,,,,,
22497,1645650773.5094368,77.0,0.0,4332.307617,4680.0,4203.589844,4280.0,4289.230957,450.0,3.0,59.0,,,,0.0,4.0,1.0,4.0,0.0,4.0,41.666668,,,,,,,,,,,,,,,,,,,,,,,,,,,,,,,,,,,,,,,,,,,,,,,,,,,,,,,,,,,,,,,,,,,,,,,,,,,,,,,,,,,,
22498,1645650773.517252,78.0,0.0,4323.077147999999,4632.307617,4186.153809,4279.487305,4263.589844,450.0,3.0,59.0,,,,0.0,4.0,1.0,4.0,0.0,4.0,41.666668,,,,,,,,39.0,0.0,0.369264,0.564209,0.156494,-0.72168,0.9428850000000001,-0.188479,-0.316899,-0.016607,-0.050526,-0.026279000000000004,,,,,,,,,,,,,,,,,,,,,,,,,,,,,,,,,,,,,,,,,,,,,,,,,,,,,,,,,,,,,,,,,
22499,1645650773.525066,79.0,0.0,4297.94873,4631.794922,4173.333496,4278.461426,4251.794922,16213.0,3.0,59.0,,,,0.0,4.0,1.0,4.0,0.0,4.0,41.666668,,,,,,,,,,,,,,,,,,,,1.0,0.0,0.0,,,,,,,,,,,,,,,,,,,,,,,,,,,,,,,,0.0,0.0,1.0,0.0,512.0,1.0,1.9858259999999999,1.675627,1.031176,1.648289,1.385135,7.8419740000000004,20.906226999999998,25.03359,23.324999,49.904652,1.8007630000000001,2.406185,2.193419,1.9926009999999998,2.62784,0.003708,0.001064,0.003213,0.006533,0.009222,1.478853,2.513357,1.938043,1.302499,1.380687
22500,1645650773.53288,80.0,0.0,4297.436035,4584.615234000001,4222.05127,4278.974121,4285.128418,450.0,3.0,59.0,,,,0.0,4.0,1.0,4.0,0.0,4.0,41.666668,,,,,,,,40.0,0.0,0.369637,0.5639649999999999,0.156494,-0.72168,0.933608,-0.199222,-0.306157,-0.015728,-0.050405,-0.029314999999999997,,,,,,,,,,,,,,,,,,,,,,,,,,,,,,,,,,,,,,,,,,,,,,,,,,,,,,,,,,,,,,,,,
22501,1645650773.540695,81.0,0.0,4329.743652,4534.871582,4253.333496,4279.487305,4308.717772999999,450.0,3.0,59.0,,,,0.0,4.0,1.0,4.0,0.0,4.0,41.666668,,,,,,,,,,,,,,,,,,,,,,,,,,,,,,,,,,,,,,,,,,,,,,,,,,,,,,,,,,,,,,,,,,,,,,,,,,,,,,,,,,,,
22502,1645650773.548509,82.0,0.0,4336.410156,4633.333496,4223.589844,4278.974121,4285.641113000001,450.0,3.0,59.0,,,,0.0,4.0,1.0,4.0,0.0,4.0,41.666668,,,,,,,,41.0,0.0,0.36916,0.5639649999999999,0.156494,-0.721924,0.931167,-0.192386,-0.32910700000000004,-0.016352000000000002,-0.050443,-0.032145,,,,,,,,,,,,,,,,,,,,,,,,,,,,,,,,,,,,,,,,,,,,,,,,,,,,,,,,,,,,,,,,,
22503,1645650773.556324,83.0,0.0,4307.179688,4732.307617,4181.538574,4280.0,4257.436035,16213.0,3.0,59.0,,,,0.0,4.0,1.0,4.0,0.0,4.0,41.666668,,,,,,,,,,,,,,,,,,,,,,,,,,,,,,,,,,,,,,,,,,,,,,,,,,,,,,0.0,0.0,1.0,0.0,512.0,1.0,,,,,,,,,,,,,,,,,,,,,,,,,
22504,1645650773.564238,84.0,0.0,4317.436035,4687.179688,4210.256348,4280.512695,4274.871582,450.0,3.0,59.0,,,,0.0,4.0,1.0,4.0,0.0,4.0,41.666668,,,,,,,,42.0,0.0,0.369637,0.5639649999999999,0.156494,-0.72168,0.948257,-0.196292,-0.316899,-0.016865,-0.050379,-0.028394,,,,,,,,,,,,,,,,,,,,,,,,,,,,,,,,,,,,,,,,,,,,,,,,,,,,,,,,,,,,,,,,,
22505,1645650773.572052,85.0,0.0,4347.179688,4646.666504,4223.589844,4280.0,4308.717772999999,450.0,3.0,59.0,,,,0.0,4.0,1.0,4.0,0.0,4.0,41.666668,,,,,,,,,,,,,,,,,,,,,,,,,,,,,,,,,,,,,,,,,,,,,,,,,,,,,,,,,,,,,,,,,,,,,,,,,,,,,,,,,,,,
22506,1645650773.579867,86.0,0.0,4321.025879,4615.384765999999,4202.563965,4279.487305,4287.179688,450.0,3.0,59.0,,,,0.0,4.0,1.0,4.0,0.0,4.0,41.666668,,,,,,,,43.0,0.0,0.369637,0.5639649999999999,0.156494,-0.72168,0.9550930000000001,-0.20556999999999997,-0.327642,-0.017474,-0.050322000000000006,-0.025016999999999998,,,,,,,,,,,,,,,,,,,,,,,,,,,,,,,,,,,,,,,,,,,,,,,,,,,,,,,,,,,,,,,,,
22507,1645650773.587681,87.0,0.0,4294.358886999999,4580.512695,4187.179688,4278.974121,4254.358886999999,16213.0,3.0,59.0,,,,0.0,4.0,1.0,4.0,0.0,4.0,41.666668,,,,,,,,,,,,,,,,,,,,,,,,,,,,,,,,,,,,,,,,,,,,,,,,,,,,,,0.0,0.0,1.0,0.0,512.0,1.0,,,,,,,,,,,,,,,,,,,,,,,,,
22508,1645650773.5954962,88.0,0.0,4300.0,4654.871582,4188.717772999999,4278.461426,4250.256348,450.0,3.0,59.0,,,,0.0,4.0,1.0,4.0,0.0,4.0,41.666668,,,,,,,,44.0,0.0,0.36953400000000003,0.5639649999999999,0.15673800000000002,-0.72168,0.940932,-0.190433,-0.31201599999999996,-0.017924000000000002,-0.050319,-0.02818,,,,,,,,,,,,,,,,,,,,,,,,,,,,,,,,,,,,,,,,,,,,,,,,,,,,,,,,,,,,,,,,,
22509,1645650773.6033099,89.0,0.0,4316.410156,4730.769043,4192.820313,4280.0,4263.589844,450.0,3.0,59.0,,,,0.0,4.0,1.0,4.0,0.0,4.0,41.666668,,,,,,,,,,,,,,,,,,,,,,,,,,,,,,,,,,,,,,,,,,,,,,,,,,,,,,,,,,,,,,,,,,,,,,,,,,,,,,,,,,,,
22510,1645650773.611124,90.0,0.0,4326.666504,4681.538574,4205.641113000001,4280.512695,4265.128418,450.0,3.0,59.0,,,,0.0,4.0,1.0,4.0,0.0,4.0,41.666668,,,,,,,,45.0,0.0,0.369057,0.5639649999999999,0.15673800000000002,-0.721924,0.94435,-0.206546,-0.32959499999999997,-0.018328999999999998,-0.050365,-0.024971,,,,,,,,,,,,,,,,,,,,,,,,,,,,,,,,,,,,,,,,,,,,,,,,,,,,,,,,,,,,,,,,,
22511,1645650773.6189392,91.0,0.0,4333.846191,4603.077147999999,4218.974121,4279.487305,4273.846191,16213.0,3.0,59.0,,,,0.0,4.0,1.0,4.0,0.0,4.0,41.666668,,,,,,,,,,,,,,,,,,,,,,,,,,,,,,,,,,,,,,,,,,,,,,,,,,,,,,0.0,0.0,1.0,0.0,512.0,1.0,,,,,,,,,,,,,,,,,,,,,,,,,
22512,1645650773.6267529,92.0,0.0,4311.282227000001,4593.333496,4206.666504,4279.487305,4274.871582,450.0,3.0,59.0,,,,0.0,4.0,1.0,4.0,0.0,4.0,41.666668,,,,,,,,46.0,0.0,0.369057,0.5639649999999999,0.15673800000000002,-0.721924,0.937026,-0.202152,-0.315923,-0.018741999999999998,-0.050309,-0.028236,,,,,,,,,,,,,,,,,,,,,,,,,,,,,,,,,,,,,,,,,,,,,,,,,,,,,,,,,,,,,,,,,
22513,1645650773.634568,93.0,0.0,4311.282227000001,4637.94873,4194.871582,4280.0,4267.692383,450.0,3.0,59.0,,,,0.0,4.0,1.0,4.0,0.0,4.0,41.666668,,,,,,,,,,,,,,,,,,,,,,,,,,,,,,,,,,,,,,,,,,,,,,,,,,,,,,,,,,,,,,,,,,,,,,,,,,,,,,,,,,,,
22514,1645650773.642282,94.0,0.0,4330.769043,4699.487305,4181.538574,4278.974121,4261.538574,450.0,3.0,59.0,,,,0.0,4.0,1.0,4.0,0.0,4.0,41.666668,,,,,,,,47.0,0.0,0.369057,0.5639649999999999,0.15673800000000002,-0.721924,0.951675,-0.197757,-0.321782,-0.019163,-0.050210000000000005,-0.024825999999999997,,,,,,,,,,,,,,,,,,,,,,,,,,,,,,,,,,,,,,,,,,,,,,,,,,,,,,,,,,,,,,,,,
22515,1645650773.6500962,95.0,0.0,4324.102539,4730.256348,4184.102539,4279.487305,4269.743652,16213.0,3.0,59.0,,,,0.0,4.0,1.0,4.0,0.0,4.0,41.666668,1.0,33.333332,4.0,0.0,4.0,0.0,4.0,,,,,,,,,,,,,1.0,0.0,0.0,,,,,,,,,,,,,,,,,,,,,,,,,,,,,,,,0.0,0.0,1.0,0.0,512.0,1.0,1.661507,1.6273229999999999,0.9795149999999999,1.539758,1.476724,7.875445,20.867853,26.369402,25.507097,56.428776,2.10486,2.322025,1.881614,1.867953,2.8206689999999996,0.004678,0.001165,0.0027760000000000003,0.006712,0.008573,1.379887,2.688273,2.228518,1.401765,1.523628
22516,1645650773.6579108,96.0,0.0,4320.0,4697.436035,4191.794922,4280.0,4281.538574,450.0,3.0,59.0,,,,0.0,4.0,1.0,4.0,0.0,4.0,41.666668,,,,,,,,48.0,0.0,0.36953400000000003,0.5639649999999999,0.15673800000000002,-0.72168,0.9506979999999999,-0.196292,-0.326665,-0.017294999999999998,-0.050121,-0.028203,,,,,,,,,,,,,,,,,,,,,,,,,,,,,,,,,,,,,,,,,,,,,,,,,,,,,,,,,,,,,,,,,
22517,1645650773.665725,97.0,0.0,4338.461426,4634.871582,4212.820313,4278.974121,4300.0,450.0,3.0,59.0,,,,0.0,4.0,1.0,4.0,0.0,4.0,41.666668,,,,,,,,,,,,,,,,,,,,,,,,,,,,,,,,,,,,,,,,,,,,,,,,,,,,,,,,,,,,,,,,,,,,,,,,,,,,,,,,,,,,
22518,1645650773.67354,98.0,0.0,4331.794922,4592.307617,4210.769043,4279.487305,4304.615234000001,450.0,3.0,59.0,,,,0.0,4.0,1.0,4.0,0.0,4.0,41.666668,,,,,,,,49.0,0.0,0.36953400000000003,0.5639649999999999,0.15673800000000002,-0.72168,0.9355610000000001,-0.19531500000000002,-0.311528,-0.017861000000000002,-0.050089,-0.024846,,,,,,,,,,,,,,,,,,,,,,,,,,,,,,,,,,,,,,,,,,,,,,,,,,,,,,,,,,,,,,,,,
22519,1645650773.6813538,99.0,0.0,4324.102539,4633.846191,4204.102539,4280.512695,4284.615234000001,16213.0,3.0,59.0,,,,0.0,4.0,1.0,4.0,0.0,4.0,41.666668,,,,,,,,,,,,,,,,,,,,,,,,,,,,,,,,,,,,,,,,,,,,,,,,,,,,,,0.0,0.0,1.0,0.0,512.0,1.0,,,,,,,,,,,,,,,,,,,,,,,,,
22520,1645650773.689169,100.0,0.0,4335.384765999999,4723.589844,4184.615234000001,4280.512695,4268.205078,450.0,3.0,59.0,,,,0.0,4.0,1.0,4.0,0.0,4.0,41.666668,,,,,,,,50.0,0.0,0.36953400000000003,0.5639649999999999,0.15673800000000002,-0.72168,0.95021,-0.194827,-0.31543499999999997,-0.018272,-0.050061,-0.021726,,,,,,,,,,,,,,,,,,,,,,,,,,,,,,,,,,,,,,,,,,,,,,,,,,,,,,,,,,,,,,,,,
22521,1645650773.696983,101.0,0.0,4334.871582,4743.589844,4192.307617,4280.0,4261.025879,450.0,3.0,59.0,,,,0.0,4.0,1.0,4.0,0.0,4.0,41.666668,,,,,,,,,,,,,,,,,,,,,,,,,,,,,,,,,,,,,,,,,,,,,,,,,,,,,,,,,,,,,,,,,,,,,,,,,,,,,,,,,,,,
22522,1645650773.704797,102.0,0.0,4343.077147999999,4669.743652,4212.820313,4279.487305,4269.230957,450.0,3.0,59.0,,,,0.0,4.0,1.0,4.0,0.0,4.0,41.666668,,,,,,,,51.0,0.0,0.36953400000000003,0.5639649999999999,0.15673800000000002,-0.72168,0.9277489999999999,-0.192874,-0.320317,-0.017128,-0.049987000000000004,-0.025266999999999998,,,,,,,,,,,,,,,,,,,,,,,,,,,,,,,,,,,,,,,,,,,,,,,,,,,,,,,,,,,,,,,,,
22523,1645650773.7127118,103.0,0.0,4342.563965,4602.563965,4224.102539,4278.974121,4285.128418,16213.0,3.0,59.0,,,,0.0,4.0,1.0,4.0,0.0,4.0,41.666668,,,,,,,,,,,,,,,,,,,,,,,,,,,,,,,,,,,,,,,,,,,,,,,,,,,,,,0.0,0.0,1.0,0.0,512.0,1.0,,,,,,,,,,,,,,,,,,,,,,,,,
22524,1645650773.720526,104.0,0.0,4321.538574,4588.717772999999,4209.743652,4280.512695,4293.846191,450.0,3.0,59.0,,,,0.0,4.0,1.0,4.0,0.0,4.0,41.666668,,,,,,,,52.0,0.0,0.36953400000000003,0.5639649999999999,0.15673800000000002,-0.72168,0.9340959999999999,-0.20068699999999998,-0.306157,-0.017759,-0.050066,-0.028404000000000002,,,,,,,,,,,,,,,,,,,,,,,,,,,,,,,,,,,,,,,,,,,,,,,,,,,,,,,,,,,,,,,,,
22525,1645650773.7283401,105.0,0.0,4311.794922,4580.0,4194.358886999999,4280.512695,4278.974121,450.0,3.0,59.0,,,,0.0,4.0,1.0,4.0,0.0,4.0,41.666668,,,,,,,,,,,,,,,,,,,,,,,,,,,,,,,,,,,,,,,,,,,,,,,,,,,,,,,,,,,,,,,,,,,,,,,,,,,,,,,,,,,,
22526,1645650773.736155,106.0,0.0,4341.025879,4615.384765999999,4202.05127,4279.487305,4285.641113000001,450.0,3.0,59.0,,,,0.0,4.0,1.0,4.0,0.0,4.0,41.666668,,,,,,,,53.0,0.0,0.36953400000000003,0.5639649999999999,0.15673800000000002,-0.72168,0.9340959999999999,-0.193851,-0.32422399999999996,-0.016666999999999998,-0.050138,-0.031325,,,,,,,,,,,,,,,,,,,,,,,,,,,,,,,,,,,,,,,,,,,,,,,,,,,,,,,,,,,,,,,,,
22527,1645650773.743969,107.0,0.0,4338.461426,4696.410156,4203.077147999999,4280.512695,4291.282227000001,16213.0,3.0,59.0,,,,0.0,4.0,1.0,4.0,0.0,4.0,41.666668,,,,,,,,,,,,,,,,,,,,,,,,,,,,,,,,,,,,,,,,,,,,,,,,,,,,,,0.0,0.0,1.0,0.0,512.0,1.0,,,,,,,,,,,,,,,,,,,,,,,,,
22528,1645650773.751784,108.0,0.0,4311.282227000001,4685.128418,4194.871582,4280.512695,4269.743652,450.0,3.0,59.0,,,,0.0,4.0,1.0,4.0,0.0,4.0,41.666668,,,,,,,,54.0,0.0,0.36953400000000003,0.5639649999999999,0.15673800000000002,-0.72168,0.937026,-0.194339,-0.318853,-0.017393000000000002,-0.050104,-0.027656,,,,,,,,,,,,,,,,,,,,,,,,,,,,,,,,,,,,,,,,,,,,,,,,,,,,,,,,,,,,,,,,,
22529,1645650773.759598,109.0,0.0,4303.077147999999,4638.461426,4182.05127,4277.94873,4254.871582,450.0,3.0,59.0,,,,0.0,4.0,1.0,4.0,0.0,4.0,41.666668,,,,,,,,,,,,,,,,,,,,,,,,,,,,,,,,,,,,,,,,,,,,,,,,,,,,,,,,,,,,,,,,,,,,,,,,,,,,,,,,,,,,
22530,1645650773.767412,110.0,0.0,4309.230957,4638.461426,4197.436035,4277.94873,4271.282227000001,450.0,3.0,59.0,,,,0.0,4.0,1.0,4.0,0.0,4.0,41.666668,,,,,,,,55.0,0.0,0.36953400000000003,0.5639649999999999,0.15673800000000002,-0.72168,0.9340959999999999,-0.20068699999999998,-0.306157,-0.0179,-0.050123,-0.024353,,,,,,,,,,,,,,,,,,,,,,,,,,,,,,,,,,,,,,,,,,,,,,,,,,,,,,,,,,,,,,,,,
22531,1645650773.775227,111.0,0.0,4303.589844,4602.05127,4212.820313,4279.487305,4272.307617,16213.0,3.0,59.0,,,,0.0,4.0,1.0,4.0,0.0,4.0,41.666668,,,,,,,,,,,,,,,,,,,,1.0,0.0,0.0,,,,,,,,,,,,,,,,,,,,,,,,,,,,,,,,0.0,0.0,1.0,0.0,512.0,1.0,1.347059,1.446301,1.019399,1.468998,1.555692,8.40368,22.565051999999998,29.258226,28.940756,59.436089,2.514365,2.2656509999999996,1.555966,1.787268,2.889446,0.005707,0.001395,0.002457,0.006893000000000001,0.008373,1.287892,2.668191,2.688671,1.480739,1.6565830000000001
22532,1645650773.783141,112.0,0.0,4324.102539,4592.307617,4220.0,4279.487305,4274.358886999999,450.0,3.0,59.0,,,,0.0,4.0,1.0,4.0,0.0,4.0,41.666668,,,,,,,,56.0,0.0,0.36953400000000003,0.5639649999999999,0.15673800000000002,-0.72168,0.937026,-0.194339,-0.318853,-0.018502,-0.050092000000000005,-0.021381,,,,,,,,,,,,,,,,,,,,,,,,,,,,,,,,,,,,,,,,,,,,,,,,,,,,,,,,,,,,,,,,,
22533,1645650773.790956,113.0,0.0,4358.974121,4696.922852000001,4205.128418,4278.974121,4288.205078,450.0,3.0,59.0,,,,0.0,4.0,1.0,4.0,0.0,4.0,41.666668,,,,,,,,,,,,,,,,,,,,,,,,,,,,,,,,,,,,,,,,,,,,,,,,,,,,,,,,,,,,,,,,,,,,,,,,,,,,,,,,,,,,
22534,1645650773.79877,114.0,0.0,4356.922852000001,4702.05127,4218.974121,4278.974121,4299.487305,450.0,3.0,59.0,,,,0.0,4.0,1.0,4.0,0.0,4.0,41.666668,,,,,,,,57.0,0.0,0.36953400000000003,0.5639649999999999,0.15673800000000002,-0.72168,0.944839,-0.188968,-0.3252,-0.017287,-0.050062999999999996,-0.024956,,,,,,,,,,,,,,,,,,,,,,,,,,,,,,,,,,,,,,,,,,,,,,,,,,,,,,,,,,,,,,,,,
22535,1645650773.806584,115.0,0.0,4341.538574,4533.846191,4235.897461,4278.974121,4312.307617,16213.0,3.0,59.0,,,,0.0,4.0,1.0,4.0,0.0,4.0,41.666668,,,,,,,,,,,,,,,,,,,,,,,,,,,,,,,,,,,,,,,,,,,,,,,,,,,,,,0.0,0.0,1.0,0.0,512.0,1.0,,,,,,,,,,,,,,,,,,,,,,,,,
22536,1645650773.814399,116.0,0.0,4345.128418,4489.743652,4231.794922,4278.461426,4315.897461,450.0,3.0,59.0,,,,0.0,4.0,1.0,4.0,0.0,4.0,41.666668,,,,,,,,58.0,0.0,0.36953400000000003,0.5639649999999999,0.15673800000000002,-0.72168,0.9350729999999999,-0.194339,-0.3252,-0.017853,-0.050135,-0.021972,,,,,,,,,,,,,,,,,,,,,,,,,,,,,,,,,,,,,,,,,,,,,,,,,,,,,,,,,,,,,,,,,
22537,1645650773.8222132,117.0,0.0,4336.410156,4604.102539,4203.077147999999,4278.461426,4302.563965,450.0,3.0,59.0,,,,0.0,4.0,1.0,4.0,0.0,4.0,41.666668,,,,,,,,,,,,,,,,,,,,,,,,,,,,,,,,,,,,,,,,,,,,,,,,,,,,,,,,,,,,,,,,,,,,,,,,,,,,,,,,,,,,
22538,1645650773.8300278,118.0,0.0,4315.384765999999,4685.641113000001,4198.974121,4280.0,4278.461426,450.0,3.0,59.0,,,,0.0,4.0,1.0,4.0,0.0,4.0,41.666668,,,,,,,,59.0,0.0,0.36953400000000003,0.5639649999999999,0.15673800000000002,-0.72168,0.939467,-0.196292,-0.321294,-0.018265,-0.050248,-0.025488,,,,,,,,,,,,,,,,,,,,,,,,,,,,,,,,,,,,,,,,,,,,,,,,,,,,,,,,,,,,,,,,,
22539,1645650773.837842,119.0,0.0,4338.461426,4725.641113000001,4197.436035,4280.0,4288.205078,16213.0,3.0,59.0,,,,0.0,4.0,1.0,4.0,0.0,4.0,41.666668,,,,,,,,,,,,,,,,,,,,,,,,,,,,,,,,,,,,,,,,,,,,,,,,,,,,,,0.0,0.0,1.0,0.0,512.0,1.0,,,,,,,,,,,,,,,,,,,,,,,,,
22540,1645650773.8456562,120.0,0.0,4356.922852000001,4742.563965,4209.743652,4278.974121,4306.666504,450.0,3.0,59.0,,,,0.0,4.0,1.0,4.0,0.0,4.0,41.666668,,,,,,,,60.0,0.0,0.36953400000000003,0.5639649999999999,0.15673800000000002,-0.72168,0.951675,-0.188968,-0.327642,-0.017072999999999998,-0.050204,-0.028651999999999997,,,,,,,,,,,,,,,,,,,,,,,,,,,,,,,,,,,,,,,,,,,,,,,,,,,,,,,,,,,,,,,,,
22541,1645650773.853471,121.0,0.0,4333.333496,4677.94873,4230.769043,4279.487305,4295.897461,450.0,3.0,59.0,,,,0.0,4.0,1.0,4.0,0.0,4.0,41.666668,,,,,,,,,,,,,,,,,,,,,,,,,,,,,,,,,,,,,,,,,,,,,,,,,,,,,,,,,,,,,,,,,,,,,,,,,,,,,,,,,,,,
22542,1645650773.8613849,122.0,0.0,4308.205078,4554.358886999999,4228.717772999999,4278.974121,4277.436035,450.0,3.0,59.0,,,,0.0,4.0,1.0,4.0,0.0,4.0,41.666668,,,,,,,,61.0,0.0,0.36953400000000003,0.5639649999999999,0.15673800000000002,-0.72168,0.9560690000000001,-0.179202,-0.31006300000000003,-0.017612,-0.050213,-0.025249,,,,,,,,,,,,,,,,,,,,,,,,,,,,,,,,,,,,,,,,,,,,,,,,,,,,,,,,,,,,,,,,,
22543,1645650773.8692,123.0,0.0,4331.794922,4526.153809,4232.820313,4278.461426,4302.563965,16213.0,3.0,59.0,,,,0.0,4.0,1.0,4.0,0.0,4.0,41.666668,,,,,,,,,,,,,,,,,,,,,,,,,,,,,,,,,,,,,,,,,,,,,,,,,,,,,,0.0,0.0,1.0,0.0,512.0,1.0,,,,,,,,,,,,,,,,,,,,,,,,,
22544,1645650773.8770142,124.0,0.0,4349.230957,4606.666504,4232.820313,4280.512695,4313.333496,450.0,3.0,59.0,,,,0.0,4.0,1.0,4.0,0.0,4.0,41.666668,,,,,,,,62.0,0.0,0.36953400000000003,0.5639649999999999,0.15673800000000002,-0.72168,0.9433739999999999,-0.189944,-0.316899,-0.016535,-0.050220999999999995,-0.022236000000000002,,,,,,,,,,,,,,,,,,,,,,,,,,,,,,,,,,,,,,,,,,,,,,,,,,,,,,,,,,,,,,,,,
22545,1645650773.8848279,125.0,0.0,4328.205078,4637.94873,4210.769043,4280.512695,4286.666504,450.0,3.0,59.0,,,,0.0,4.0,1.0,4.0,0.0,4.0,41.666668,,,,,,,,,,,,,,,,,,,,,,,,,,,,,,,,,,,,,,,,,,,,,,,,,,,,,,,,,,,,,,,,,,,,,,,,,,,,,,,,,,,,
22546,1645650773.892643,126.0,0.0,4304.615234000001,4601.538574,4192.307617,4278.461426,4275.897461,450.0,3.0,59.0,,,,0.0,4.0,1.0,4.0,0.0,4.0,41.666668,,,,,,,,63.0,0.0,0.36953400000000003,0.5639649999999999,0.15673800000000002,-0.72168,0.9433739999999999,-0.192874,-0.320317,-0.015565,-0.050276999999999995,-0.025726,,,,,,,,,,,,,,,,,,,,,,,,,,,,,,,,,,,,,,,,,,,,,,,,,,,,,,,,,,,,,,,,,
22547,1645650773.9004571,127.0,0.0,4312.307617,4645.641113000001,4208.205078,4278.974121,4290.769043,235.0,3.0,59.0,,,,0.0,4.0,1.0,4.0,0.0,4.0,41.666668,,,,,,,,,,,,,,,,,,,,1.0,0.0,0.0,,,,,,,,,,,,,,,,,,,,,,,,,,,,,,,,0.0,0.0,1.0,0.0,512.0,1.0,1.1194979999999999,1.166785,1.152786,1.424487,1.624636,9.568906,25.261707,32.962703999999995,32.656437,58.182072,2.928969,2.3165430000000002,1.293548,1.8122939999999998,2.8538759999999996,0.006495,0.001779,0.002464,0.006978,0.008329000000000001,1.311567,2.437726,3.304986,1.5669549999999999,1.779406
22548,1645650773.908272,0.0,0.0,4316.410156,4726.153809,4201.538574,4279.487305,4269.230957,450.0,3.0,59.0,,,,0.0,4.0,1.0,4.0,0.0,4.0,41.666668,,,,,,,,0.0,0.0,0.36953400000000003,0.5639649999999999,0.15673800000000002,-0.72168,0.938003,-0.195804,-0.316899,-0.014740999999999999,-0.050377,-0.022518,,,,,,,,,,,,,,,,,,,,,,,,,,,,,,,,,,,,,,,,,,,,,,,,,,,,,,,,,,,,,,,,,
22549,1645650773.916086,1.0,0.0,4328.717772999999,4688.717772999999,4214.358886999999,4277.94873,4264.102539,450.0,3.0,59.0,,,,0.0,4.0,1.0,4.0,0.0,4.0,41.666668,,,,,,,,,,,,,,,,,,,,,,,,,,,,,,,,,,,,,,,,,,,,,,,,,,,,,,,,,,,,,,,,,,,,,,,,,,,,,,,,,,,,
22550,1645650773.9239,2.0,0.0,4350.769043,4641.538574,4234.358886999999,4277.94873,4305.128418,16213.0,3.0,59.0,,,,0.0,4.0,1.0,4.0,0.0,4.0,41.666668,,,,,,,,1.0,0.0,0.36953400000000003,0.5639649999999999,0.15673800000000002,-0.72168,0.940932,-0.204593,-0.321294,-0.014048,-0.050368,-0.025931,,,,,,,,,,,,,,,,,,,,,,,,,,,,,,,,,,,,,,,,,,,,,,,,,,,,,,,,,,,,,,,,,
22551,1645650773.9318151,3.0,0.0,4346.666504,4626.153809,4236.410156,4280.0,4321.025879,450.0,3.0,59.0,,,,0.0,4.0,0.0,4.0,0.0,4.0,33.333332,,,,,,,,,,,,,,,,,,,,,,,,,,,,,,,,,,,,,,,,,,,,,,,,,,,,,,0.0,0.0,1.0,0.0,512.0,1.0,,,,,,,,,,,,,,,,,,,,,,,,,
22552,1645650773.9396288,4.0,0.0,4327.179688,4564.102539,4223.589844,4279.487305,4307.692383,0.0,3.0,59.0,,,,0.0,4.0,0.0,4.0,0.0,4.0,33.333332,,,,,,,,2.0,0.0,0.36953400000000003,0.5639649999999999,0.15673800000000002,-0.72168,0.94435,-0.197757,-0.31006300000000003,-0.014938,-0.050312,-0.022654,,,,,,,,,,,,,,,,,,,,,,,,,,,,,,,,,,,,,,,,,,,,,,,,,,,,,,,,,,,,,,,,,
22553,1645650773.947444,5.0,0.0,4331.282227000001,4556.410156,4246.666504,4278.974121,4309.743652,450.0,3.0,59.0,,,,0.0,4.0,0.0,4.0,0.0,4.0,33.333332,,,,,,,,,,,,,,,,,,,,,,,,,,,,,,,,,,,,,,,,,,,,,,,,,,,,,,,,,,,,,,,,,,,,,,,,,,,,,,,,,,,,
22554,1645650773.955258,6.0,0.0,4353.846191,4614.358886999999,4240.0,4280.0,4313.846191,16142.0,3.0,59.0,,,,0.0,4.0,0.0,4.0,0.0,4.0,33.333332,,,,,,,,3.0,0.0,0.369637,0.5639649999999999,0.156494,-0.72168,0.944839,-0.201175,-0.306157,-0.014177,-0.050358999999999994,-0.026052999999999996,,,,,,,,,,,,,,,,,,,,,,,,,,,,,,,,,,,,,,,,,,,,,,,,,,,,,,,,,,,,,,,,,
22555,1645650773.963072,7.0,0.0,4351.282227000001,4641.025879,4205.128418,4280.0,4296.922852000001,450.0,3.0,59.0,,,,0.0,4.0,0.0,4.0,0.0,4.0,33.333332,,,,,,,,,,,,,,,,,,,,,,,,,,,,,,,,,,,,,,,,,,,,,,,,,,,,,,0.0,0.0,1.0,0.0,512.0,1.0,,,,,,,,,,,,,,,,,,,,,,,,,
22556,1645650773.970887,8.0,0.0,4355.897461,4668.717772999999,4206.666504,4278.974121,4304.615234000001,450.0,3.0,59.0,,,,0.0,4.0,0.0,4.0,0.0,4.0,33.333332,,,,,,,,4.0,0.0,0.36916,0.5639649999999999,0.156494,-0.721924,0.940932,-0.18457300000000001,-0.319341,-0.013491,-0.050304,-0.029112,,,,,,,,,,,,,,,,,,,,,,,,,,,,,,,,,,,,,,,,,,,,,,,,,,,,,,,,,,,,,,,,,
22557,1645650773.9787009,9.0,0.0,4352.820313,4688.717772999999,4225.128418,4279.487305,4302.563965,0.0,3.0,59.0,,,,0.0,4.0,0.0,4.0,0.0,4.0,33.333332,,,,,,,,,,,,,,,,,,,,,,,,,,,,,,,,,,,,,,,,,,,,,,,,,,,,,,,,,,,,,,,,,,,,,,,,,,,,,,,,,,,,
22558,1645650773.986516,10.0,0.0,4321.025879,4628.717772999999,4202.563965,4280.512695,4278.461426,450.0,3.0,59.0,,,,0.0,4.0,0.0,4.0,0.0,4.0,33.333332,,,,,,,,5.0,0.0,0.36916,0.5639649999999999,0.156494,-0.721924,0.940932,-0.188479,-0.324712,-0.014437,-0.050303,-0.025663,,,,,,,,,,,,,,,,,,,,,,,,,,,,,,,,,,,,,,,,,,,,,,,,,,,,,,,,,,,,,,,,,
22559,1645650773.9943302,11.0,0.0,4289.743652,4595.384765999999,4171.282227000001,4279.487305,4263.077147999999,16209.0,3.0,59.0,,,,0.0,4.0,0.0,4.0,0.0,4.0,33.333332,,,,,,,,,,,,,,,,,,,,,,,,,,,,,,,,,,,,,,,,,,,,,,,,,,,,,,0.0,0.0,1.0,0.0,512.0,1.0,,,,,,,,,,,,,,,,,,,,,,,,,
22560,1645650774.002244,12.0,0.0,4307.692383,4629.743652,4198.974121,4278.461426,4272.307617,450.0,3.0,59.0,,,,0.0,4.0,0.0,4.0,0.0,4.0,33.333332,,,,,,,,6.0,0.0,0.369637,0.5639649999999999,0.156494,-0.72168,0.9668120000000001,-0.180179,-0.31396999999999997,-0.01524,-0.050253,-0.028858999999999996,,,,,,,,,,,,,,,,,,,,,,,,,,,,,,,,,,,,,,,,,,,,,,,,,,,,,,,,,,,,,,,,,
22561,1645650774.0100589,13.0,0.0,4333.333496,4587.179688,4235.897461,4278.974121,4287.179688,450.0,3.0,59.0,,,,0.0,4.0,0.0,4.0,0.0,4.0,33.333332,,,,,,,,,,,,,,,,,,,,,,,,,,,,,,,,,,,,,,,,,,,,,,,,,,,,,,,,,,,,,,,,,,,,,,,,,,,,,,,,,,,,
22562,1645650774.017873,14.0,0.0,4329.230957,4518.461426,4245.641113000001,4279.487305,4303.589844,450.0,3.0,59.0,,,,0.0,4.0,0.0,4.0,0.0,4.0,33.333332,,,,,,,,7.0,0.0,0.369637,0.5639649999999999,0.156494,-0.72168,0.9433739999999999,-0.188479,-0.32813000000000003,-0.014447999999999999,-0.050256999999999996,-0.031637,,,,,,,,,,,,,,,,,,,,,,,,,,,,,,,,,,,,,,,,,,,,,,,,,,,,,,,,,,,,,,,,,
22563,1645650774.0256882,15.0,0.0,4308.717772999999,4562.05127,4223.077147999999,4279.487305,4291.282227000001,16209.0,3.0,59.0,,,,0.0,4.0,0.0,4.0,0.0,4.0,33.333332,,,,,,,,,,,,,,,,,,,,1.0,0.0,0.0,,,,,,,,,,,,,,,,,,,,,,,,,,,,,,,,0.0,0.0,1.0,0.0,512.0,1.0,1.024956,0.868791,1.374474,1.397278,1.684236,11.542817,28.102665000000002,36.416622,36.403461,53.00798,3.235296,2.470225,1.184713,1.9756099999999999,2.74717,0.006804999999999999,0.0022760000000000002,0.002809,0.006968000000000001,0.00812,1.527763,2.0676669999999997,4.027699,1.701804,1.8849630000000002
22564,1645650774.0335019,16.0,0.0,4317.436035,4665.128418,4218.461426,4279.487305,4277.436035,0.0,3.0,59.0,,,,0.0,4.0,0.0,4.0,0.0,4.0,33.333332,,,,,,,,8.0,0.0,0.36953400000000003,0.5639649999999999,0.15673800000000002,-0.72168,0.938491,-0.183597,-0.320806,-0.015201,-0.050261,-0.034283999999999995,,,,,,,,,,,,,,,,,,,,,,,,,,,,,,,,,,,,,,,,,,,,,,,,,,,,,,,,,,,,,,,,,
22565,1645650774.041316,17.0,0.0,4341.538574,4728.205078,4213.333496,4280.512695,4278.974121,0.0,3.0,59.0,,,,0.0,4.0,0.0,4.0,0.0,4.0,33.333332,,,,,,,,,,,,,,,,,,,,,,,,,,,,,,,,,,,,,,,,,,,,,,,,,,,,,,,,,,,,,,,,,,,,,,,,,,,,,,,,,,,,
22566,1645650774.0491312,18.0,0.0,4337.94873,4693.333496,4213.333496,4280.512695,4276.410156,0.0,3.0,59.0,,,,0.0,4.0,0.0,4.0,0.0,4.0,33.333332,,,,,,,,9.0,0.0,0.369637,0.5639649999999999,0.156494,-0.72168,0.937514,-0.181643,-0.318364,-0.015976,-0.050166,-0.030367,,,,,,,,,,,,,,,,,,,,,,,,,,,,,,,,,,,,,,,,,,,,,,,,,,,,,,,,,,,,,,,,,
22567,1645650774.0569448,19.0,0.0,4319.487305,4587.179688,4213.846191,4278.974121,4276.922852000001,0.0,3.0,59.0,,,,0.0,4.0,0.0,4.0,0.0,4.0,33.333332,,,,,,,,,,,,,,,,,,,,,,,,,,,,,,,,,,,,,,,,,,,,,,,,,,,,,,0.0,0.0,1.0,0.0,512.0,1.0,,,,,,,,,,,,,,,,,,,,,,,,,
22568,1645650774.064859,20.0,0.0,4320.0,4541.025879,4225.128418,4278.461426,4291.794922,0.0,3.0,59.0,,,,0.0,4.0,0.0,4.0,0.0,4.0,33.333332,,,,,,,,10.0,0.0,0.370113,0.5639649999999999,0.156494,-0.721436,0.9365379999999999,-0.201663,-0.316899,-0.016624,-0.050179,-0.026647000000000004,,,,,,,,,,,,,,,,,,,,,,,,,,,,,,,,,,,,,,,,,,,,,,,,,,,,,,,,,,,,,,,,,
22569,1645650774.072674,21.0,0.0,4324.102539,4633.333496,4209.230957,4279.487305,4304.102539,0.0,3.0,59.0,,,,0.0,4.0,0.0,4.0,0.0,4.0,33.333332,,,,,,,,,,,,,,,,,,,,,,,,,,,,,,,,,,,,,,,,,,,,,,,,,,,,,,,,,,,,,,,,,,,,,,,,,,,,,,,,,,,,
22570,1645650774.0804882,22.0,0.0,4327.692383,4738.461426,4209.743652,4280.512695,4301.025879,0.0,3.0,59.0,,,,0.0,4.0,0.0,4.0,0.0,4.0,33.333332,,,,,,,,11.0,0.0,0.369637,0.5639649999999999,0.156494,-0.72168,0.9463030000000001,-0.194339,-0.313481,-0.017256999999999998,-0.050142,-0.023347,,,,,,,,,,,,,,,,,,,,,,,,,,,,,,,,,,,,,,,,,,,,,,,,,,,,,,,,,,,,,,,,,
22571,1645650774.0883029,23.0,0.0,4357.94873,4713.846191,4214.871582,4280.0,4300.0,0.0,3.0,59.0,,,,0.0,4.0,0.0,4.0,0.0,4.0,33.333332,,,,,,,,,,,,,,,,,,,,,,,,,,,,,,,,,,,,,,,,,,,,,,,,,,,,,,0.0,0.0,1.0,0.0,512.0,1.0,,,,,,,,,,,,,,,,,,,,,,,,,
22572,1645650774.096117,24.0,0.0,4355.384765999999,4623.589844,4207.179688,4279.487305,4293.846191,0.0,3.0,59.0,,,,0.0,4.0,0.0,4.0,0.0,4.0,33.333332,,,,,,,,12.0,0.0,0.36953400000000003,0.5639649999999999,0.15673800000000002,-0.72168,0.93019,-0.197757,-0.31396999999999997,-0.017875,-0.050157,-0.026628,,,,,,,,,,,,,,,,,,,,,,,,,,,,,,,,,,,,,,,,,,,,,,,,,,,,,,,,,,,,,,,,,
22573,1645650774.103931,25.0,0.0,4332.820313,4572.307617,4220.512695,4280.0,4304.102539,0.0,3.0,59.0,,,,0.0,4.0,0.0,4.0,0.0,4.0,33.333332,,,,,,,,,,,,,,,,,,,,,,,,,,,,,,,,,,,,,,,,,,,,,,,,,,,,,,,,,,,,,,,,,,,,,,,,,,,,,,,,,,,,
22574,1645650774.111746,26.0,0.0,4326.666504,4553.333496,4221.538574,4279.487305,4303.589844,0.0,3.0,59.0,,,,0.0,4.0,0.0,4.0,0.0,4.0,33.333332,,,,,,,,13.0,0.0,0.36953400000000003,0.5639649999999999,0.15673800000000002,-0.72168,0.938491,-0.202152,-0.315923,-0.018333000000000002,-0.050073,-0.029677999999999996,,,,,,,,,,,,,,,,,,,,,,,,,,,,,,,,,,,,,,,,,,,,,,,,,,,,,,,,,,,,,,,,,
22575,1645650774.11956,27.0,0.0,4324.102539,4595.384765999999,4180.512695,4278.974121,4276.410156,0.0,3.0,59.0,,,,0.0,4.0,0.0,4.0,0.0,4.0,33.333332,,,,,,,,,,,,,,,,,,,,,,,,,,,,,,,,,,,,,,,,,,,,,,,,,,,,,,0.0,0.0,1.0,0.0,512.0,1.0,,,,,,,,,,,,,,,,,,,,,,,,,
22576,1645650774.127375,28.0,0.0,4314.871582,4682.05127,4173.846191,4280.0,4264.615234000001,0.0,3.0,59.0,,,,0.0,4.0,0.0,4.0,0.0,4.0,33.333332,,,,,,,,14.0,0.0,0.369637,0.5639649999999999,0.156494,-0.72168,0.9433739999999999,-0.18799100000000002,-0.323735,-0.018844,-0.050095,-0.032375,,,,,,,,,,,,,,,,,,,,,,,,,,,,,,,,,,,,,,,,,,,,,,,,,,,,,,,,,,,,,,,,,
22577,1645650774.135289,29.0,0.0,4324.102539,4648.205078,4229.230957,4279.487305,4298.974121,0.0,3.0,59.0,,,,0.0,4.0,0.0,4.0,0.0,4.0,33.333332,,,,,,,,,,,,,,,,,,,,,,,,,,,,,,,,,,,,,,,,,,,,,,,,,,,,,,,,,,,,,,,,,,,,,,,,,,,,,,,,,,,,
22578,1645650774.143103,30.0,0.0,4320.0,4568.205078,4233.846191,4278.461426,4299.487305,0.0,3.0,59.0,,,,0.0,4.0,0.0,4.0,0.0,4.0,33.333332,,,,,,,,15.0,0.0,0.369637,0.5639649999999999,0.156494,-0.72168,0.938003,-0.19336199999999998,-0.319829,-0.019254,-0.050017,-0.028502,,,,,,,,,,,,,,,,,,,,,,,,,,,,,,,,,,,,,,,,,,,,,,,,,,,,,,,,,,,,,,,,,
22579,1645650774.150918,31.0,0.0,4311.794922,4659.487305,4207.692383,4278.974121,4275.384765999999,0.0,3.0,59.0,,,,0.0,4.0,0.0,4.0,0.0,4.0,33.333332,1.0,33.333332,4.0,0.0,4.0,0.0,4.0,,,,,,,,,,,,,1.0,0.0,0.0,,,,,,,,,,,,,,,,,,,,,,,,,,,,,,,,0.0,0.0,1.0,0.0,512.0,1.0,1.104391,0.640934,1.6562,1.3895030000000002,1.731743,14.032347,30.271515,39.235626,40.435543,45.165943,3.389178,2.649524,1.326282,2.248055,2.598103,0.006561,0.002755,0.0033490000000000004,0.006908,0.007591,1.939764,1.6769470000000002,4.774221,1.9014790000000001,1.959468
22580,1645650774.158732,32.0,0.0,4322.563965,4731.794922,4197.436035,4278.974121,4266.666504,0.0,3.0,59.0,,,,0.0,4.0,0.0,4.0,0.0,4.0,33.333332,,,,,,,,16.0,0.0,0.36953400000000003,0.5639649999999999,0.15673800000000002,-0.72168,0.951675,-0.182132,-0.324712,-0.018013,-0.049996,-0.031365,,,,,,,,,,,,,,,,,,,,,,,,,,,,,,,,,,,,,,,,,,,,,,,,,,,,,,,,,,,,,,,,,
22581,1645650774.166547,33.0,0.0,4327.179688,4649.230957,4204.615234000001,4278.974121,4252.307617,0.0,3.0,59.0,,,,0.0,4.0,0.0,4.0,0.0,4.0,33.333332,,,,,,,,,,,,,,,,,,,,,,,,,,,,,,,,,,,,,,,,,,,,,,,,,,,,,,,,,,,,,,,,,,,,,,,,,,,,,,,,,,,,
22582,1645650774.174361,34.0,0.0,4307.179688,4616.410156,4189.743652,4279.487305,4236.410156,0.0,3.0,59.0,,,,0.0,4.0,0.0,4.0,0.0,4.0,33.333332,,,,,,,,17.0,0.0,0.36953400000000003,0.5639649999999999,0.15673800000000002,-0.72168,0.938491,-0.184085,-0.323735,-0.018506,-0.050075,-0.03399,,,,,,,,,,,,,,,,,,,,,,,,,,,,,,,,,,,,,,,,,,,,,,,,,,,,,,,,,,,,,,,,,
22583,1645650774.182175,35.0,0.0,4295.384765999999,4584.615234000001,4202.05127,4280.0,4255.384765999999,0.0,3.0,59.0,,,,0.0,4.0,0.0,4.0,0.0,4.0,33.333332,,,,,,,,,,,,,,,,,,,,,,,,,,,,,,,,,,,,,,,,,,,,,,,,,,,,,,0.0,0.0,1.0,0.0,512.0,1.0,,,,,,,,,,,,,,,,,,,,,,,,,
22584,1645650774.18999,36.0,0.0,4301.538574,4496.410156,4215.897461,4279.487305,4284.102539,0.0,3.0,59.0,,,,0.0,4.0,0.0,4.0,0.0,4.0,33.333332,,,,,,,,18.0,0.0,0.36953400000000003,0.5639649999999999,0.15673800000000002,-0.72168,0.9550930000000001,-0.191409,-0.30811,-0.019048,-0.050194,-0.030102999999999998,,,,,,,,,,,,,,,,,,,,,,,,,,,,,,,,,,,,,,,,,,,,,,,,,,,,,,,,,,,,,,,,,
22585,1645650774.197804,37.0,0.0,4311.282227000001,4557.436035,4212.307617,4279.487305,4284.615234000001,0.0,3.0,59.0,,,,0.0,4.0,0.0,4.0,0.0,4.0,33.333332,,,,,,,,,,,,,,,,,,,,,,,,,,,,,,,,,,,,,,,,,,,,,,,,,,,,,,,,,,,,,,,,,,,,,,,,,,,,,,,,,,,,
22586,1645650774.2056189,38.0,0.0,4329.743652,4671.282227000001,4190.256348,4280.0,4285.641113000001,0.0,3.0,59.0,,,,0.0,4.0,0.0,4.0,0.0,4.0,33.333332,,,,,,,,19.0,0.0,0.36953400000000003,0.5639649999999999,0.15673800000000002,-0.72168,0.951675,-0.182132,-0.324712,-0.019438,-0.050107,-0.032806,,,,,,,,,,,,,,,,,,,,,,,,,,,,,,,,,,,,,,,,,,,,,,,,,,,,,,,,,,,,,,,,,
22587,1645650774.213333,39.0,0.0,4331.282227000001,4666.153809,4188.205078,4280.0,4278.974121,0.0,3.0,59.0,,,,0.0,4.0,0.0,4.0,0.0,4.0,33.333332,,,,,,,,,,,,,,,,,,,,,,,,,,,,,,,,,,,,,,,,,,,,,,,,,,,,,,0.0,0.0,1.0,0.0,512.0,1.0,,,,,,,,,,,,,,,,,,,,,,,,,
22588,1645650774.221148,40.0,0.0,4331.282227000001,4666.666504,4201.538574,4278.461426,4284.102539,0.0,3.0,59.0,,,,0.0,4.0,0.0,4.0,0.0,4.0,33.333332,,,,,,,,20.0,0.0,0.36953400000000003,0.5639649999999999,0.15673800000000002,-0.72168,0.9550930000000001,-0.191409,-0.30811,-0.019887000000000002,-0.050223000000000004,-0.029037,,,,,,,,,,,,,,,,,,,,,,,,,,,,,,,,,,,,,,,,,,,,,,,,,,,,,,,,,,,,,,,,,
22589,1645650774.228962,41.0,0.0,4327.179688,4678.974121,4213.846191,4278.974121,4298.974121,0.0,3.0,59.0,,,,0.0,4.0,0.0,4.0,0.0,4.0,33.333332,,,,,,,,,,,,,,,,,,,,,,,,,,,,,,,,,,,,,,,,,,,,,,,,,,,,,,,,,,,,,,,,,,,,,,,,,,,,,,,,,,,,
22590,1645650774.2367759,42.0,0.0,4329.230957,4625.641113000001,4220.0,4279.487305,4308.205078,0.0,3.0,59.0,,,,0.0,4.0,0.0,4.0,0.0,4.0,33.333332,,,,,,,,21.0,0.0,0.369637,0.5639649999999999,0.156494,-0.72168,0.940932,-0.194339,-0.319829,-0.020193,-0.050131999999999996,-0.031846,,,,,,,,,,,,,,,,,,,,,,,,,,,,,,,,,,,,,,,,,,,,,,,,,,,,,,,,,,,,,,,,,
22591,1645650774.244591,43.0,0.0,4331.794922,4606.666504,4203.589844,4278.974121,4305.641113000001,0.0,3.0,59.0,,,,0.0,4.0,0.0,4.0,0.0,4.0,33.333332,,,,,,,,,,,,,,,,,,,,,,,,,,,,,,,,,,,,,,,,,,,,,,,,,,,,,,0.0,0.0,1.0,0.0,512.0,1.0,,,,,,,,,,,,,,,,,,,,,,,,,
22592,1645650774.2524052,44.0,0.0,4341.025879,4637.436035,4195.384765999999,4278.461426,4297.436035,0.0,3.0,59.0,,,,0.0,4.0,0.0,4.0,0.0,4.0,33.333332,,,,,,,,22.0,0.0,0.369637,0.5639649999999999,0.156494,-0.72168,0.937026,-0.19336199999999998,-0.31104,-0.018223,-0.050197000000000006,-0.034276999999999995,,,,,,,,,,,,,,,,,,,,,,,,,,,,,,,,,,,,,,,,,,,,,,,,,,,,,,,,,,,,,,,,,
22593,1645650774.2602198,45.0,0.0,4336.922852000001,4622.563965,4204.102539,4278.974121,4281.025879,0.0,3.0,59.0,,,,0.0,4.0,0.0,4.0,0.0,4.0,33.333332,,,,,,,,,,,,,,,,,,,,,,,,,,,,,,,,,,,,,,,,,,,,,,,,,,,,,,,,,,,,,,,,,,,,,,,,,,,,,,,,,,,,
